%OpenBCI Raw EXG Data
%Number of channels = 16
%Sample Rate = 125 Hz
%Board = OpenBCI_GUI$BoardCytonSerialDaisy
Sample Index,EXG Channel 0,EXG Channel 1,EXG Channel 2,EXG Channel 3,EXG Channel 4,EXG Channel 5,EXG Channel 6,EXG Channel 7,EXG Channel 8,EXG Channel 9,EXG Channel 10,EXG Channel 11,EXG Channel 12,EXG Channel 13,EXG Channel 14,EXG Channel 15,Accel Channel 0,Accel Channel 1,Accel Channel 2,Other,Other.1,Other.2,Other.3,Other.4,Other.5,Other.6,Analog Channel 0,Analog Channel 1,Analog Channel 2,Timestamp,Other.7,Timestamp (Formatted),Annotations
1,-0.0,-0.0,0.0,-0.0,-0.0,0.0,-0.0,-0.0,-0.0,0.0,0.0,0.0,-0.0,0.0,-0.0,-0.0,0,0,0,0,0,0,0,0,0,0,0,0,0,0,0,0,T0
2,24.24,-82.77,10.35,4.123,3.69,56.83,44.33,4.788,18.61,11.13,21.54,5.068,4.642,6.097,6.066,14.99,0,0,0,0,0,0,0,0,0,0,0,0,0,0,0,0,
3,6.723,-12.56,9.853,-3.752,5.25,39.22,16.24,12.96,3.312,5.329,14.22,3.087,8.348,-1.064,8.653,15.06,0,0,0,0,0,0,0,0,0,0,0,0,0,0,0,0,
4,-6.833,-18.49,2.505,8.581,-5.299,44.74,2.69,11.72,-23.24,5.279,7.312,-16.66,4.887,-20.1,1.431,-3.3,0,0,0,0,0,0,0,0,0,0,0,0,0,0,0,0,
5,-6.178,-44.8,4.378,19.93,-9.48,17.55,33.05,5.611,-13.54,0.7312,17.44,-30.38,3.336,-28.76,-7.752,-11.09,0,0,0,0,0,0,0,0,0,0,0,0,0,0,0,0,
6,25.07,11.95,13.39,11.64,1.685,-24.72,45.23,-2.175,6.071,-7.073,12.88,-11.87,9.191,-15.75,-2.17,6.443,0,0,0,0,0,0,0,0,0,0,0,0,0,0,0,0,
7,43.53,-25.35,-2.09,12.81,-2.076,41.33,23.01,-12.44,1.065,3.705,-8.811,-2.84,-0.0425,-12.64,-2.607,4.819,0,0,0,0,0,0,0,0,0,0,0,0,0,0,0,0,
8,-27.69,-71.29,-37.1,13.29,-26.12,70.93,-13.2,-15.05,-16.52,-1.391,-19.36,-21.75,-21.19,-28.38,-19.24,-19.76,0,0,0,0,0,0,0,0,0,0,0,0,0,0,0,0,
9,-54.08,-5.282,-33.75,4.159,-33.37,20.94,-21.96,-12.33,-40.03,-13.71,-17.34,-16.49,-17.36,-22.4,-16.94,-16.09,0,0,0,0,0,0,0,0,0,0,0,0,0,0,0,0,
10,23.03,9.561,1.281,3.913,-15.19,51.29,2.964,-2.744,-34.56,19.29,-13.06,-5.799,-1.304,-5.91,-12.82,-12.05,0,0,0,0,0,0,0,0,0,0,0,0,0,0,0,0,
11,32.43,-42.46,-1.301,8.006,-9.648,77.46,14.82,9.883,-3.868,42.8,-9.265,-27.65,-6.383,-16.2,-28.06,-33.47,0,0,0,0,0,0,0,0,0,0,0,0,0,0,0,0,
12,-3.943,-49.61,-21.0,19.97,-20.75,27.17,19.04,3.798,-14.02,19.69,1.45,-24.15,-5.543,-19.51,-12.85,-18.25,0,0,0,0,0,0,0,0,0,0,0,0,0,0,0,0,
13,6.452,-18.23,0.958,27.94,-9.029,23.57,35.21,-5.091,-25.09,19.73,20.26,4.977,19.44,2.967,17.53,16.39,0,0,0,0,0,0,0,0,0,0,0,0,0,0,0,0,
14,-8.499,-2.429,13.91,5.406,15.75,52.21,37.15,-4.271,2.396,36.78,24.69,-3.287,34.94,11.59,9.474,4.65,0,0,0,0,0,0,0,0,0,0,0,0,0,0,0,0,
15,-12.79,-15.64,-24.07,-6.763,12.85,42.36,23.65,-17.03,-1.182,22.74,15.37,-19.45,26.9,2.482,-4.523,-13.82,0,0,0,0,0,0,0,0,0,0,0,0,0,0,0,0,
16,39.45,1.018,-38.51,13.68,-7.623,34.73,6.332,-21.17,-23.45,12.73,7.972,-17.12,6.764,-3.108,-9.864,-7.691,0,0,0,0,0,0,0,0,0,0,0,0,0,0,0,0,
17,37.55,1.466,-8.403,12.98,-19.4,45.32,-9.529,-4.396,-21.83,15.16,-7.87,-34.09,-14.37,-11.99,-27.82,-15.65,0,0,0,0,0,0,0,0,0,0,0,0,0,0,0,0,
18,-12.96,-83.7,-8.891,-12.46,-24.6,40.01,-9.675,-16.39,-30.5,-4.085,-21.11,-61.19,-23.5,-32.1,-40.0,-43.6,0,0,0,0,0,0,0,0,0,0,0,0,0,0,0,0,
19,-19.8,-99.01,-35.9,-22.12,-28.1,18.96,-9.943,-51.11,-31.51,-26.97,-14.29,-65.22,-19.37,-46.39,-41.78,-59.57,0,0,0,0,0,0,0,0,0,0,0,0,0,0,0,0,
20,-9.782,-11.58,-33.28,-17.79,-28.41,0.4081,-15.42,-57.86,-9.361,-32.14,-4.868,-52.21,-6.46,-37.95,-31.48,-45.05,0,0,0,0,0,0,0,0,0,0,0,0,0,0,0,0,
21,-10.84,18.39,-24.53,-17.05,-35.23,-24.62,-7.499,-39.37,-13.26,-35.68,-6.459,-48.31,-1.098,-32.06,-14.62,-33.05,0,0,0,0,0,0,0,0,0,0,0,0,0,0,0,0,
22,-4.772,-4.422,-36.53,-23.6,-48.87,-22.57,-7.692,-23.85,-38.72,-38.55,-21.57,-60.89,-21.22,-44.93,-34.6,-54.19,0,0,0,0,0,0,0,0,0,0,0,0,0,0,0,0,
23,-7.533,-42.79,-35.37,-23.08,-38.53,39.83,-18.35,-26.89,-51.71,-22.81,-29.23,-54.94,-33.89,-34.87,-57.87,-56.42,0,0,0,0,0,0,0,0,0,0,0,0,0,0,0,0,
24,-7.788,-67.3,-15.63,-7.967,-7.673,60.58,-11.23,-42.54,-46.76,-0.6412,-7.353,-27.22,-19.54,-5.571,-34.19,-25.3,0,0,0,0,0,0,0,0,0,0,0,0,0,0,0,0,
25,16.67,-31.03,-12.72,-6.622,-5.588,10.94,-8.303,-47.03,-35.34,-4.305,0.621,-26.96,-22.85,-9.094,-28.62,-29.05,0,0,0,0,0,0,0,0,0,0,0,0,0,0,0,0,
26,9.021,-40.4,-26.02,-15.18,-17.39,12.28,-16.35,-30.57,-38.75,-19.46,-17.18,-37.71,-34.95,-17.78,-47.28,-46.85,0,0,0,0,0,0,0,0,0,0,0,0,0,0,0,0,
27,-29.77,-70.5,-20.0,8.317,-0.4963,50.82,6.842,-1.598,-30.39,-2.973,-1.718,-12.81,-9.441,9.81,-20.44,-18.83,0,0,0,0,0,0,0,0,0,0,0,0,0,0,0,0,
28,1.735,18.18,10.04,39.6,9.649,63.96,40.73,16.04,4.909,32.33,30.95,11.57,15.21,33.73,7.249,8.141,0,0,0,0,0,0,0,0,0,0,0,0,0,0,0,0,
29,66.34,74.25,28.13,34.43,-2.384,79.52,30.5,12.63,9.215,40.75,31.75,4.042,6.111,31.4,0.0645,3.83,0,0,0,0,0,0,0,0,0,0,0,0,0,0,0,0,
30,58.3,-0.0698,22.59,22.89,9.71,81.62,13.26,17.92,-9.101,29.02,25.35,3.534,5.631,32.14,12.49,13.9,0,0,0,0,0,0,0,0,0,0,0,0,0,0,0,0,
31,37.47,-21.17,22.68,33.79,36.89,78.26,30.62,31.73,3.355,30.39,34.61,20.4,19.59,36.23,29.87,30.86,0,0,0,0,0,0,0,0,0,0,0,0,0,0,0,0,
32,57.85,47.49,38.41,58.4,47.82,94.25,35.35,26.85,16.87,34.38,51.59,22.74,22.4,30.5,26.51,25.84,0,0,0,0,0,0,0,0,0,0,0,0,0,0,0,0,
33,74.68,79.13,56.6,90.89,60.98,87.79,37.98,21.64,14.42,32.16,65.79,19.43,31.04,30.44,37.37,27.13,0,0,0,0,0,0,0,0,0,0,0,0,0,0,0,0,
34,95.96,68.13,75.9,97.47,75.51,78.79,80.85,32.63,25.4,47.8,72.8,35.8,54.14,41.39,57.68,45.28,0,0,0,0,0,0,0,0,0,0,0,0,0,0,0,0,
35,112.7,76.81,90.62,75.33,77.23,96.77,92.22,54.87,47.85,69.4,96.94,54.93,77.49,55.19,85.72,68.24,0,0,0,0,0,0,0,0,0,0,0,0,0,0,0,0,
36,106.1,86.66,96.08,92.69,88.38,120.4,73.85,84.26,76.95,82.53,124.6,64.81,98.88,78.75,124.7,98.69,0,0,0,0,0,0,0,0,0,0,0,0,0,0,0,0,
37,133.2,82.15,105.2,128.0,105.0,150.5,110.8,96.31,100.0,110.9,112.2,82.44,110.8,105.2,117.4,109.4,0,0,0,0,0,0,0,0,0,0,0,0,0,0,0,0,
38,148.7,103.0,111.2,112.1,105.0,150.2,128.4,102.0,93.29,131.6,99.95,100.1,114.4,116.7,83.48,94.46,0,0,0,0,0,0,0,0,0,0,0,0,0,0,0,0,
39,90.17,112.3,103.7,102.4,109.3,127.8,90.13,119.3,83.95,122.5,119.0,101.9,120.2,121.2,98.6,95.54,0,0,0,0,0,0,0,0,0,0,0,0,0,0,0,0,
40,87.54,93.6,109.6,130.9,119.3,155.3,106.4,104.2,97.99,127.0,126.6,105.0,119.6,128.2,120.9,105.5,0,0,0,0,0,0,0,0,0,0,0,0,0,0,0,0,
41,153.9,99.9,126.5,134.3,110.1,181.3,139.6,83.72,100.6,140.4,127.7,116.9,119.9,134.8,113.8,107.2,0,0,0,0,0,0,0,0,0,0,0,0,0,0,0,0,
42,131.6,84.23,115.2,128.5,106.1,161.2,109.5,113.4,81.33,132.2,131.4,121.4,128.3,140.3,117.6,115.5,0,0,0,0,0,0,0,0,0,0,0,0,0,0,0,0,
43,91.13,72.32,99.56,143.6,123.9,150.4,90.27,123.2,83.73,130.7,114.4,123.3,119.6,137.7,119.4,115.4,0,0,0,0,0,0,0,0,0,0,0,0,0,0,0,0,
44,137.1,132.8,106.9,138.2,121.6,153.4,102.2,95.62,99.52,136.4,103.5,130.2,97.28,124.8,98.83,105.2,0,0,0,0,0,0,0,0,0,0,0,0,0,0,0,0,
45,136.5,140.0,95.2,112.8,88.61,155.6,89.18,100.2,73.82,122.2,104.1,123.6,84.52,110.3,86.32,102.6,0,0,0,0,0,0,0,0,0,0,0,0,0,0,0,0,
46,81.58,94.52,74.92,99.22,70.6,137.2,75.81,109.5,38.7,104.7,90.94,104.6,86.02,98.93,94.92,97.08,0,0,0,0,0,0,0,0,0,0,0,0,0,0,0,0,
47,101.3,87.7,92.0,101.2,85.6,103.1,93.05,104.3,56.65,98.82,98.19,97.05,105.7,95.46,113.0,98.6,0,0,0,0,0,0,0,0,0,0,0,0,0,0,0,0,
48,131.7,36.09,104.3,113.3,101.5,134.3,110.2,112.2,87.71,104.4,122.9,99.04,121.1,98.0,117.8,106.4,0,0,0,0,0,0,0,0,0,0,0,0,0,0,0,0,
49,103.9,24.21,91.19,115.3,104.0,173.6,110.6,99.43,88.88,117.6,116.3,96.49,112.8,98.24,102.4,90.82,0,0,0,0,0,0,0,0,0,0,0,0,0,0,0,0,
50,89.7,136.8,98.83,109.9,111.8,133.1,121.9,80.3,87.28,120.5,104.8,94.73,115.6,103.4,99.87,82.89,0,0,0,0,0,0,0,0,0,0,0,0,0,0,0,0,
51,111.2,177.7,108.9,127.1,124.4,136.6,142.1,98.25,97.99,121.8,118.1,102.6,135.9,118.5,117.4,106.7,0,0,0,0,0,0,0,0,0,0,0,0,0,0,0,0,
52,136.8,130.2,96.78,142.1,127.9,187.0,127.2,105.8,112.3,134.9,120.3,108.6,136.5,125.4,118.8,113.0,0,0,0,0,0,0,0,0,0,0,0,0,0,0,0,0,
53,141.4,98.14,101.2,122.0,119.9,155.3,89.02,94.79,106.1,131.4,98.83,94.13,119.0,114.9,99.74,94.32,0,0,0,0,0,0,0,0,0,0,0,0,0,0,0,0,
54,121.6,54.49,118.8,109.8,101.6,123.4,78.67,103.8,74.68,113.5,84.35,75.38,109.2,108.6,93.58,94.88,0,0,0,0,0,0,0,0,0,0,0,0,0,0,0,0,
55,124.0,67.55,118.1,133.5,95.0,135.1,97.07,104.1,71.65,119.6,91.74,76.09,114.7,117.3,104.6,108.9,0,0,0,0,0,0,0,0,0,0,0,0,0,0,0,0,
56,149.7,137.3,120.2,143.4,113.0,120.4,122.2,91.0,89.83,136.0,110.7,79.91,126.1,123.1,108.2,106.8,0,0,0,0,0,0,0,0,0,0,0,0,0,0,0,0,
57,147.9,140.6,131.6,120.4,120.7,140.6,132.0,94.29,76.9,133.1,123.6,76.6,123.5,118.3,106.6,99.36,0,0,0,0,0,0,0,0,0,0,0,0,0,0,0,0,
58,130.7,103.0,124.6,110.5,107.1,175.7,122.6,90.42,76.32,117.0,117.0,76.42,106.5,106.2,108.2,96.38,0,0,0,0,0,0,0,0,0,0,0,0,0,0,0,0,
59,139.3,73.19,116.0,126.1,102.8,129.2,132.9,77.11,100.1,96.44,101.0,75.55,94.25,90.17,95.69,83.92,0,0,0,0,0,0,0,0,0,0,0,0,0,0,0,0,
60,154.0,72.61,126.9,130.8,107.7,97.06,145.6,80.5,88.92,83.82,95.01,76.46,88.59,84.87,75.06,71.97,0,0,0,0,0,0,0,0,0,0,0,0,0,0,0,0,
61,128.9,118.0,127.1,110.2,108.1,140.8,110.2,83.33,72.76,87.19,91.39,76.11,85.68,87.87,73.07,74.26,0,0,0,0,0,0,0,0,0,0,0,0,0,0,0,0,
62,105.0,119.3,112.3,93.75,108.9,167.2,90.81,82.02,82.96,91.85,86.14,66.76,95.68,87.12,83.99,76.75,0,0,0,0,0,0,0,0,0,0,0,0,0,0,0,0,
63,138.6,89.08,111.7,107.0,107.2,142.0,124.2,86.97,87.66,97.13,93.48,66.9,108.0,89.38,86.46,76.13,0,0,0,0,0,0,0,0,0,0,0,0,0,0,0,0,
64,147.2,109.1,110.4,122.0,97.32,103.9,120.1,79.39,87.91,103.9,95.83,67.79,99.8,87.65,84.08,74.79,0,0,0,0,0,0,0,0,0,0,0,0,0,0,0,0,
65,96.29,80.46,96.1,106.0,85.78,112.8,91.84,78.43,80.87,103.0,82.78,60.89,92.22,87.19,93.64,73.7,0,0,0,0,0,0,0,0,0,0,0,0,0,0,0,0,
66,100.7,8.114,100.3,99.94,82.38,159.4,117.6,99.79,80.04,115.6,85.48,88.7,106.4,117.7,105.6,89.04,0,0,0,0,0,0,0,0,0,0,0,0,0,0,0,0,
67,139.9,59.15,119.8,135.8,89.75,139.9,129.9,98.33,113.0,137.7,101.8,130.8,116.1,153.4,104.5,110.5,0,0,0,0,0,0,0,0,0,0,0,0,0,0,0,0,
68,109.3,155.4,115.8,144.2,96.1,90.73,96.28,88.57,116.4,129.8,100.1,128.7,115.8,155.9,104.6,112.7,0,0,0,0,0,0,0,0,0,0,0,0,0,0,0,0,
69,73.19,110.7,93.1,97.14,93.54,116.1,98.69,104.6,80.58,117.4,86.66,109.9,117.2,143.6,102.7,99.93,0,0,0,0,0,0,0,0,0,0,0,0,0,0,0,0,
70,86.62,20.38,88.0,86.75,94.79,139.7,116.1,93.55,84.41,128.8,89.16,107.3,109.2,134.2,89.85,88.58,0,0,0,0,0,0,0,0,0,0,0,0,0,0,0,0,
71,89.66,63.75,100.7,129.1,103.6,112.7,100.3,69.92,95.67,126.6,111.4,117.7,108.3,138.7,101.9,103.5,0,0,0,0,0,0,0,0,0,0,0,0,0,0,0,0,
72,104.9,156.5,111.7,143.7,108.1,127.2,107.3,101.6,80.29,124.7,132.3,140.0,130.0,161.9,138.0,139.9,0,0,0,0,0,0,0,0,0,0,0,0,0,0,0,0,
73,163.3,143.8,123.5,143.4,115.0,181.6,135.0,127.3,89.61,156.4,142.0,142.4,143.1,167.8,143.4,143.9,0,0,0,0,0,0,0,0,0,0,0,0,0,0,0,0,
74,168.9,110.7,131.4,158.4,130.3,192.0,125.3,105.9,110.1,166.1,143.1,121.8,137.9,147.1,120.7,120.0,0,0,0,0,0,0,0,0,0,0,0,0,0,0,0,0,
75,123.0,147.3,127.5,145.7,134.5,159.5,113.0,108.7,113.9,135.9,135.0,121.5,133.7,138.2,116.0,118.9,0,0,0,0,0,0,0,0,0,0,0,0,0,0,0,0,
76,137.2,141.6,125.3,123.3,125.7,151.2,132.3,124.5,111.1,133.2,136.1,134.3,138.7,148.7,135.8,131.4,0,0,0,0,0,0,0,0,0,0,0,0,0,0,0,0,
77,141.6,83.76,116.7,127.2,118.4,179.5,134.1,107.5,97.58,154.7,143.5,135.4,144.0,151.8,141.4,131.8,0,0,0,0,0,0,0,0,0,0,0,0,0,0,0,0,
78,73.1,88.73,97.96,129.9,105.1,171.0,106.8,105.5,87.66,149.3,121.9,129.9,125.2,138.2,114.4,124.0,0,0,0,0,0,0,0,0,0,0,0,0,0,0,0,0,
79,81.59,112.9,101.1,130.8,90.37,118.1,104.1,126.9,77.22,135.1,105.5,124.7,100.3,133.2,101.0,118.0,0,0,0,0,0,0,0,0,0,0,0,0,0,0,0,0,
80,146.9,99.17,109.2,129.6,89.17,105.5,123.3,121.7,53.28,136.7,120.8,128.1,104.0,144.3,117.1,117.9,0,0,0,0,0,0,0,0,0,0,0,0,0,0,0,0,
81,114.1,100.1,95.7,117.6,95.47,135.5,118.1,106.3,52.87,133.1,106.3,126.9,104.2,140.5,111.0,111.2,0,0,0,0,0,0,0,0,0,0,0,0,0,0,0,0,
82,86.84,98.74,106.7,123.6,111.2,156.1,113.3,111.8,72.37,128.0,82.42,116.9,95.68,133.6,95.82,106.3,0,0,0,0,0,0,0,0,0,0,0,0,0,0,0,0,
83,144.0,77.82,140.2,127.4,128.8,165.5,136.8,111.1,89.77,139.2,109.3,123.3,114.4,147.0,113.8,120.1,0,0,0,0,0,0,0,0,0,0,0,0,0,0,0,0,
84,155.6,111.9,134.8,115.8,126.8,149.0,144.7,90.26,120.2,145.1,131.2,128.1,130.3,148.2,131.8,127.4,0,0,0,0,0,0,0,0,0,0,0,0,0,0,0,0,
85,134.0,187.8,123.4,134.8,129.2,118.4,134.7,91.75,128.8,143.3,131.0,121.7,133.7,147.4,141.0,133.1,0,0,0,0,0,0,0,0,0,0,0,0,0,0,0,0,
86,156.4,191.9,147.6,149.1,146.4,141.8,141.9,127.8,110.2,161.5,146.9,131.6,150.1,166.7,154.8,146.3,0,0,0,0,0,0,0,0,0,0,0,0,0,0,0,0,
87,150.9,124.3,146.0,133.5,135.4,191.8,141.1,140.5,113.7,175.1,133.5,126.9,139.8,156.4,136.0,122.5,0,0,0,0,0,0,0,0,0,0,0,0,0,0,0,0,
88,118.8,103.8,116.3,150.7,110.5,187.2,124.2,118.6,107.3,159.2,97.62,108.0,109.4,129.7,110.3,100.5,0,0,0,0,0,0,0,0,0,0,0,0,0,0,0,0,
89,135.5,124.5,118.0,165.8,114.3,155.7,114.3,111.7,87.87,151.0,101.8,122.4,113.3,137.8,126.1,129.3,0,0,0,0,0,0,0,0,0,0,0,0,0,0,0,0,
90,134.4,80.21,103.4,123.2,107.4,140.4,96.14,111.4,98.73,146.6,100.7,120.0,111.1,132.6,123.5,124.5,0,0,0,0,0,0,0,0,0,0,0,0,0,0,0,0,
91,78.47,41.62,52.56,94.92,69.39,113.7,82.0,94.81,86.44,115.1,76.19,79.89,84.1,98.84,89.99,81.86,0,0,0,0,0,0,0,0,0,0,0,0,0,0,0,0,
92,74.17,104.5,61.16,107.8,62.11,78.04,97.19,86.05,57.86,96.74,86.67,71.77,81.21,87.89,89.41,85.61,0,0,0,0,0,0,0,0,0,0,0,0,0,0,0,0,
93,114.5,144.1,112.7,103.5,84.8,72.28,106.4,81.42,76.06,103.1,100.5,71.24,78.6,81.36,94.62,93.78,0,0,0,0,0,0,0,0,0,0,0,0,0,0,0,0,
94,113.9,99.14,115.3,84.46,82.83,98.94,109.6,67.09,76.42,92.94,85.01,48.98,61.96,68.3,82.07,78.66,0,0,0,0,0,0,0,0,0,0,0,0,0,0,0,0,
95,109.5,81.35,102.1,78.45,76.74,129.0,136.2,61.03,48.86,85.66,80.05,55.19,71.28,78.41,80.82,82.75,0,0,0,0,0,0,0,0,0,0,0,0,0,0,0,0,
96,95.99,74.68,107.2,77.16,87.93,136.8,139.3,68.44,61.34,95.15,73.31,59.72,75.85,80.94,66.21,72.49,0,0,0,0,0,0,0,0,0,0,0,0,0,0,0,0,
97,37.56,19.35,93.88,82.34,87.14,126.1,104.7,78.33,72.22,92.49,61.68,38.4,62.14,67.62,58.59,58.55,0,0,0,0,0,0,0,0,0,0,0,0,0,0,0,0,
98,47.54,15.89,77.12,92.1,81.36,103.4,101.1,74.07,63.53,89.71,83.15,49.59,76.77,77.13,95.51,90.69,0,0,0,0,0,0,0,0,0,0,0,0,0,0,0,0,
99,135.1,101.7,85.46,83.59,83.42,69.41,122.2,57.84,70.27,88.02,93.92,59.26,85.63,77.28,99.02,100.4,0,0,0,0,0,0,0,0,0,0,0,0,0,0,0,0,
100,147.9,143.9,93.93,67.32,74.77,68.31,110.2,56.3,72.0,71.52,65.06,30.35,60.92,49.34,58.15,65.84,0,0,0,0,0,0,0,0,0,0,0,0,0,0,0,0,
101,94.8,83.17,80.32,62.4,58.86,108.8,85.19,53.85,69.77,66.22,51.13,33.58,54.54,47.03,54.4,61.11,0,0,0,0,0,0,0,0,0,0,0,0,0,0,0,0,
102,59.88,27.05,58.81,53.18,51.22,116.4,73.16,37.89,62.79,71.05,52.18,53.45,55.74,60.81,61.36,68.63,0,0,0,0,0,0,0,0,0,0,0,0,0,0,0,0,
103,31.21,50.53,58.37,49.69,53.39,79.8,62.22,48.76,35.63,68.5,52.17,30.41,42.14,52.8,47.63,54.98,0,0,0,0,0,0,0,0,0,0,0,0,0,0,0,0,
104,34.17,80.31,73.28,66.3,59.87,56.94,77.21,68.45,36.22,72.67,73.4,16.04,52.63,48.75,46.86,50.33,0,0,0,0,0,0,0,0,0,0,0,0,0,0,0,0,
105,94.33,71.95,73.62,66.13,67.52,49.71,118.0,46.39,70.3,71.65,84.65,24.01,67.2,50.45,41.68,50.63,0,0,0,0,0,0,0,0,0,0,0,0,0,0,0,0,
106,136.0,77.14,70.5,48.65,75.14,35.71,122.7,18.81,73.61,59.04,61.16,8.371,50.25,35.15,25.93,43.9,0,0,0,0,0,0,0,0,0,0,0,0,0,0,0,0,
107,110.6,77.61,78.39,49.89,68.46,31.36,94.28,26.09,47.8,57.57,43.94,1.862,37.0,27.92,28.09,43.4,0,0,0,0,0,0,0,0,0,0,0,0,0,0,0,0,
108,63.36,56.46,75.3,51.95,55.29,56.5,82.25,37.13,46.38,57.0,45.51,23.94,37.29,39.2,32.7,45.89,0,0,0,0,0,0,0,0,0,0,0,0,0,0,0,0,
109,50.42,65.5,59.38,39.31,54.28,75.67,73.61,32.51,60.97,48.59,45.52,28.02,31.08,42.36,28.02,45.87,0,0,0,0,0,0,0,0,0,0,0,0,0,0,0,0,
110,70.15,55.29,49.33,31.59,45.63,55.34,57.09,29.33,44.49,46.93,39.26,16.7,33.01,39.85,28.11,43.15,0,0,0,0,0,0,0,0,0,0,0,0,0,0,0,0,
111,57.09,-6.331,42.95,32.83,36.6,39.91,61.85,24.74,27.35,49.0,29.53,17.94,44.79,44.29,38.62,43.94,0,0,0,0,0,0,0,0,0,0,0,0,0,0,0,0,
112,8.986,-19.01,34.68,44.44,45.17,51.54,77.24,19.64,45.02,50.33,26.03,18.96,45.44,45.3,50.5,53.4,0,0,0,0,0,0,0,0,0,0,0,0,0,0,0,0,
113,35.05,25.23,33.56,51.71,38.35,66.21,65.06,33.13,45.81,58.46,28.49,15.55,35.49,43.38,37.98,49.41,0,0,0,0,0,0,0,0,0,0,0,0,0,0,0,0,
114,95.23,46.38,38.94,29.18,21.92,74.97,29.19,35.03,20.01,67.83,20.26,18.47,21.41,46.11,13.23,32.02,0,0,0,0,0,0,0,0,0,0,0,0,0,0,0,0,
115,46.4,33.71,35.6,14.3,24.53,49.98,10.45,15.11,4.281,59.09,10.85,19.51,10.0,44.82,17.24,31.39,0,0,0,0,0,0,0,0,0,0,0,0,0,0,0,0,
116,10.09,24.88,35.38,45.55,34.58,30.38,31.67,34.16,7.881,44.34,26.64,16.61,19.1,43.79,35.16,40.74,0,0,0,0,0,0,0,0,0,0,0,0,0,0,0,0,
117,77.05,41.94,57.2,73.55,52.14,70.82,66.25,55.94,46.62,51.63,48.7,18.27,36.23,50.02,37.87,43.44,0,0,0,0,0,0,0,0,0,0,0,0,0,0,0,0,
118,55.02,28.03,71.43,54.04,58.96,76.52,83.84,15.57,69.69,53.6,42.37,17.56,29.66,44.82,33.11,40.65,0,0,0,0,0,0,0,0,0,0,0,0,0,0,0,0,
119,-18.36,-25.09,52.58,12.5,31.75,30.58,76.32,-6.294,28.7,33.56,22.98,2.784,7.923,24.77,21.45,21.66,0,0,0,0,0,0,0,0,0,0,0,0,0,0,0,0,
120,21.94,-8.656,25.29,-15.96,6.734,27.11,37.07,10.02,1.584,26.5,11.11,-16.5,-8.311,12.05,2.666,-1.792,0,0,0,0,0,0,0,0,0,0,0,0,0,0,0,0,
121,40.0,41.05,18.85,-5.343,9.105,29.82,5.324,-2.371,11.31,28.98,4.469,-10.02,-9.695,19.5,-5.435,0.7008,0,0,0,0,0,0,0,0,0,0,0,0,0,0,0,0,
122,9.606,35.67,37.74,40.61,29.26,24.14,30.49,7.909,14.74,36.16,11.56,19.04,9.641,39.33,1.054,14.24,0,0,0,0,0,0,0,0,0,0,0,0,0,0,0,0,
123,56.07,46.25,52.08,60.05,45.67,39.96,59.09,38.78,30.95,53.52,19.34,22.95,20.41,42.26,8.724,15.35,0,0,0,0,0,0,0,0,0,0,0,0,0,0,0,0,
124,66.24,39.83,33.04,27.74,31.82,27.91,31.02,3.733,41.7,37.31,6.079,0.8694,6.9,20.46,4.307,9.111,0,0,0,0,0,0,0,0,0,0,0,0,0,0,0,0,
125,-3.525,-43.61,8.725,1.312,9.884,18.64,-9.925,-33.14,21.59,2.755,-8.93,-11.04,-0.4074,2.111,-15.51,-11.12,0,0,0,0,0,0,0,0,0,0,0,0,0,0,0,0,
126,-13.93,-52.83,8.195,7.14,0.7947,28.51,-24.82,-16.85,2.733,2.21,-15.07,-20.66,-5.969,-6.263,-30.4,-33.08,0,0,0,0,0,0,0,0,0,0,0,0,0,0,0,0,
127,17.96,34.56,9.987,21.39,-12.11,5.216,-29.96,-9.126,-15.59,2.269,-22.72,-31.42,-21.62,-9.283,-25.38,-21.6,0,0,0,0,0,0,0,0,0,0,0,0,0,0,0,0,
128,24.66,58.64,8.438,42.25,-9.063,20.69,-21.62,-7.099,-26.9,-3.004,-28.46,-25.7,-24.61,-3.084,-23.5,-4.212,0,0,0,0,0,0,0,0,0,0,0,0,0,0,0,0,
129,32.08,25.48,26.19,56.88,10.81,67.23,5.364,-6.623,-13.0,12.31,-31.86,-20.68,-28.28,-7.15,-39.62,-19.64,0,0,0,0,0,0,0,0,0,0,0,0,0,0,0,0,
130,45.17,32.81,48.49,45.81,4.947,50.3,5.255,-28.92,-12.73,3.901,-36.41,-31.26,-47.15,-31.25,-54.04,-40.3,0,0,0,0,0,0,0,0,0,0,0,0,0,0,0,0,
131,59.17,86.5,56.76,49.31,-3.619,59.14,-23.18,-23.74,-27.8,-23.01,-37.48,-40.52,-46.37,-47.74,-49.9,-44.22,0,0,0,0,0,0,0,0,0,0,0,0,0,0,0,0,
132,97.51,125.9,84.7,86.27,27.86,113.1,0.2543,-3.296,-10.43,-10.54,-22.13,-32.89,-18.31,-32.62,-25.54,-34.1,0,0,0,0,0,0,0,0,0,0,0,0,0,0,0,0,
133,174.3,136.4,130.2,104.5,64.64,113.2,42.62,-15.42,20.77,15.45,-0.5376,-17.92,0.1647,-2.564,-6.193,-15.8,0,0,0,0,0,0,0,0,0,0,0,0,0,0,0,0,
134,259.1,202.1,144.8,110.0,74.82,138.6,7.032,-9.872,27.12,21.95,-13.56,-19.25,-6.028,3.671,-19.71,-16.69,0,0,0,0,0,0,0,0,0,0,0,0,0,0,0,0,
135,304.0,310.9,161.6,148.1,96.4,215.7,-14.55,8.469,32.13,30.5,-38.83,-25.27,-11.79,-3.515,-35.67,-33.13,0,0,0,0,0,0,0,0,0,0,0,0,0,0,0,0,
136,328.4,359.5,204.5,176.0,130.4,198.5,31.32,-13.24,44.49,37.27,-29.24,-18.01,-6.611,2.618,-29.48,-36.61,0,0,0,0,0,0,0,0,0,0,0,0,0,0,0,0,
137,363.2,369.9,197.9,165.8,116.4,109.3,9.927,-29.29,30.96,29.32,-22.02,-22.86,-13.44,-4.799,-31.91,-37.91,0,0,0,0,0,0,0,0,0,0,0,0,0,0,0,0,
138,371.4,367.9,163.5,170.9,87.39,90.87,-35.37,-17.01,12.37,21.3,-31.8,-38.29,-22.11,-20.89,-41.57,-39.19,0,0,0,0,0,0,0,0,0,0,0,0,0,0,0,0,
139,357.1,351.9,187.0,182.3,108.8,137.1,12.73,-10.82,25.75,17.76,-26.52,-36.41,-9.499,-11.25,-35.68,-29.58,0,0,0,0,0,0,0,0,0,0,0,0,0,0,0,0,
140,366.3,347.3,205.2,162.9,117.2,170.5,34.05,-9.11,35.12,16.95,-25.99,-35.58,-3.918,-8.306,-32.22,-31.11,0,0,0,0,0,0,0,0,0,0,0,0,0,0,0,0,
141,355.4,299.4,161.2,147.6,81.64,169.4,-13.72,-18.81,17.73,21.55,-33.27,-46.27,-18.09,-25.59,-40.03,-43.1,0,0,0,0,0,0,0,0,0,0,0,0,0,0,0,0,
142,302.5,265.5,126.6,145.7,71.73,132.0,-12.75,-34.18,8.455,21.32,-29.36,-43.14,-27.07,-28.97,-43.08,-38.46,0,0,0,0,0,0,0,0,0,0,0,0,0,0,0,0,
143,282.9,307.6,115.5,133.9,65.65,81.6,4.44,-28.33,-0.6137,9.253,-30.47,-29.94,-31.5,-29.69,-36.35,-26.53,0,0,0,0,0,0,0,0,0,0,0,0,0,0,0,0,
144,263.1,239.1,84.91,110.9,25.13,67.63,-22.51,-33.03,-35.25,-8.682,-35.0,-32.77,-38.0,-39.65,-31.86,-30.18,0,0,0,0,0,0,0,0,0,0,0,0,0,0,0,0,
145,174.9,116.1,58.7,58.62,6.569,68.94,-35.3,-50.74,-47.23,-24.15,-40.39,-48.5,-40.0,-43.38,-42.52,-41.43,0,0,0,0,0,0,0,0,0,0,0,0,0,0,0,0,
146,115.2,140.3,47.1,10.09,5.147,19.32,-23.15,-36.17,-20.56,-33.66,-56.54,-59.25,-42.79,-51.52,-54.05,-46.02,0,0,0,0,0,0,0,0,0,0,0,0,0,0,0,0,
147,111.4,138.1,11.39,28.69,-26.91,-48.46,-37.83,-32.68,-33.94,-46.41,-69.84,-69.67,-56.17,-67.11,-55.59,-55.14,0,0,0,0,0,0,0,0,0,0,0,0,0,0,0,0,
148,73.74,64.2,-32.05,47.71,-49.12,-44.74,-71.53,-69.77,-77.54,-58.6,-83.42,-76.09,-75.17,-66.92,-65.8,-68.6,0,0,0,0,0,0,0,0,0,0,0,0,0,0,0,0,
149,41.91,57.48,-42.67,4.712,-38.48,0.4514,-74.46,-75.03,-71.07,-50.75,-99.45,-62.69,-80.14,-55.2,-78.39,-65.85,0,0,0,0,0,0,0,0,0,0,0,0,0,0,0,0,
150,29.02,7.597,-48.23,-28.03,-44.46,-8.996,-69.86,-54.73,-59.11,-38.07,-99.06,-56.08,-73.37,-59.94,-75.81,-64.28,0,0,0,0,0,0,0,0,0,0,0,0,0,0,0,0,
151,-27.84,-70.38,-74.11,-34.57,-69.18,-37.57,-97.3,-69.89,-79.42,-50.09,-95.19,-74.8,-79.8,-78.85,-74.54,-80.4,0,0,0,0,0,0,0,0,0,0,0,0,0,0,0,0,
152,-59.56,-86.22,-89.3,-61.02,-76.48,-24.33,-93.81,-78.77,-73.46,-75.49,-97.06,-89.98,-86.25,-86.74,-77.9,-85.88,0,0,0,0,0,0,0,0,0,0,0,0,0,0,0,0,
153,-59.66,-144.7,-92.55,-77.75,-80.44,-36.48,-55.43,-60.75,-62.24,-86.3,-91.85,-98.9,-76.11,-87.22,-74.84,-84.0,0,0,0,0,0,0,0,0,0,0,0,0,0,0,0,0,
154,-108.4,-171.4,-106.0,-72.18,-93.81,-75.53,-70.15,-68.34,-82.13,-78.25,-85.65,-104.0,-74.94,-90.23,-75.18,-91.73,0,0,0,0,0,0,0,0,0,0,0,0,0,0,0,0,
155,-126.9,-100.7,-112.2,-75.16,-90.05,-63.16,-101.7,-85.25,-89.39,-69.55,-79.39,-92.17,-84.21,-87.61,-80.04,-91.51,0,0,0,0,0,0,0,0,0,0,0,0,0,0,0,0,
156,-98.94,-103.7,-113.1,-80.91,-82.1,-48.59,-98.48,-87.48,-88.8,-78.36,-81.33,-93.45,-94.54,-97.1,-90.1,-99.24,0,0,0,0,0,0,0,0,0,0,0,0,0,0,0,0,
157,-119.1,-156.7,-130.7,-94.18,-99.81,-90.38,-109.8,-101.1,-109.6,-104.9,-111.3,-111.6,-118.8,-122.7,-112.3,-122.3,0,0,0,0,0,0,0,0,0,0,0,0,0,0,0,0,
158,-131.8,-164.2,-137.9,-120.4,-112.8,-139.1,-122.4,-102.3,-123.3,-127.4,-130.9,-98.63,-124.1,-116.2,-113.1,-106.0,0,0,0,0,0,0,0,0,0,0,0,0,0,0,0,0,
159,-124.9,-207.1,-124.5,-129.8,-105.9,-134.5,-107.4,-81.0,-105.5,-117.9,-105.5,-81.01,-94.14,-86.55,-83.8,-70.17,0,0,0,0,0,0,0,0,0,0,0,0,0,0,0,0,
160,-172.8,-246.4,-132.1,-125.4,-115.3,-85.91,-101.4,-86.58,-80.32,-92.12,-86.86,-105.9,-87.12,-91.66,-80.65,-84.38,0,0,0,0,0,0,0,0,0,0,0,0,0,0,0,0,
161,-194.8,-190.9,-152.3,-126.2,-131.8,-91.27,-96.72,-100.5,-85.55,-91.65,-97.43,-124.0,-101.8,-107.8,-94.96,-103.7,0,0,0,0,0,0,0,0,0,0,0,0,0,0,0,0,
162,-160.3,-149.4,-146.5,-125.7,-123.3,-127.8,-79.32,-88.56,-105.7,-99.01,-94.82,-107.5,-98.98,-98.41,-83.55,-86.15,0,0,0,0,0,0,0,0,0,0,0,0,0,0,0,0,
163,-169.5,-194.4,-139.1,-129.3,-115.5,-86.32,-89.61,-90.98,-109.8,-90.87,-95.92,-102.1,-111.0,-95.22,-86.91,-89.78,0,0,0,0,0,0,0,0,0,0,0,0,0,0,0,0,
164,-198.3,-222.3,-155.7,-138.0,-133.1,-93.51,-127.6,-114.1,-118.0,-99.28,-120.7,-102.5,-137.7,-102.7,-110.0,-109.2,0,0,0,0,0,0,0,0,0,0,0,0,0,0,0,0,
165,-194.0,-209.9,-167.1,-146.0,-150.5,-189.0,-139.8,-119.7,-126.9,-118.2,-116.0,-90.3,-134.9,-100.7,-99.76,-98.67,0,0,0,0,0,0,0,0,0,0,0,0,0,0,0,0,
166,-200.1,-232.2,-173.2,-165.1,-154.9,-173.3,-128.3,-114.0,-123.0,-119.2,-95.78,-98.63,-124.4,-106.3,-89.18,-96.01,0,0,0,0,0,0,0,0,0,0,0,0,0,0,0,0,
167,-218.7,-238.7,-193.4,-180.7,-158.7,-131.7,-138.6,-110.6,-128.9,-128.3,-115.4,-116.0,-127.6,-116.9,-111.0,-115.2,0,0,0,0,0,0,0,0,0,0,0,0,0,0,0,0,
168,-217.6,-182.5,-193.5,-168.3,-152.3,-188.3,-147.5,-104.9,-126.8,-141.5,-124.6,-112.6,-123.1,-114.2,-120.9,-121.3,0,0,0,0,0,0,0,0,0,0,0,0,0,0,0,0,
169,-212.0,-164.2,-172.9,-154.8,-142.6,-189.6,-128.3,-108.5,-110.8,-127.0,-108.5,-118.7,-126.3,-118.6,-119.4,-124.7,0,0,0,0,0,0,0,0,0,0,0,0,0,0,0,0,
170,-219.2,-213.2,-187.5,-169.6,-164.2,-161.7,-129.7,-125.5,-133.5,-117.9,-134.1,-134.0,-153.5,-135.1,-131.0,-131.9,0,0,0,0,0,0,0,0,0,0,0,0,0,0,0,0,
171,-219.2,-235.0,-210.6,-182.6,-184.8,-190.0,-154.2,-139.4,-175.0,-131.7,-156.4,-122.7,-165.3,-132.9,-130.8,-123.4,0,0,0,0,0,0,0,0,0,0,0,0,0,0,0,0,
172,-194.0,-203.8,-189.2,-159.7,-158.3,-173.6,-156.9,-139.0,-163.2,-129.4,-121.2,-103.4,-144.3,-116.7,-114.5,-107.8,0,0,0,0,0,0,0,0,0,0,0,0,0,0,0,0,
173,-174.0,-191.7,-160.8,-138.0,-131.6,-141.3,-145.2,-123.3,-119.9,-118.5,-100.4,-103.3,-126.6,-118.4,-100.4,-100.6,0,0,0,0,0,0,0,0,0,0,0,0,0,0,0,0,
174,-189.5,-227.6,-154.4,-156.1,-134.6,-127.9,-129.3,-105.1,-115.6,-129.9,-103.6,-108.0,-117.7,-128.4,-80.7,-99.44,0,0,0,0,0,0,0,0,0,0,0,0,0,0,0,0,
175,-196.7,-219.7,-150.9,-162.1,-131.7,-78.52,-105.3,-96.93,-127.0,-138.5,-79.6,-102.0,-98.14,-120.2,-63.65,-94.14,0,0,0,0,0,0,0,0,0,0,0,0,0,0,0,0,
176,-158.5,-136.2,-145.3,-121.2,-121.1,-79.5,-78.81,-91.37,-101.7,-121.6,-63.81,-87.53,-86.61,-104.1,-63.32,-82.33,0,0,0,0,0,0,0,0,0,0,0,0,0,0,0,0,
177,-139.5,-105.4,-130.9,-95.28,-103.4,-118.0,-60.13,-82.21,-83.95,-101.9,-66.45,-62.9,-84.72,-85.56,-55.61,-68.32,0,0,0,0,0,0,0,0,0,0,0,0,0,0,0,0,
178,-162.0,-157.1,-109.8,-103.6,-72.77,-72.51,-66.17,-64.64,-89.4,-82.56,-49.08,-31.07,-63.92,-52.32,-33.99,-44.31,0,0,0,0,0,0,0,0,0,0,0,0,0,0,0,0,
179,-132.9,-161.4,-90.99,-89.81,-58.17,-31.03,-61.34,-38.33,-58.56,-43.4,-30.81,-18.62,-37.61,-25.53,-22.43,-21.4,0,0,0,0,0,0,0,0,0,0,0,0,0,0,0,0,
180,-76.43,-96.36,-68.19,-59.01,-48.84,-61.6,-14.29,-25.38,-19.67,-7.339,-19.86,-19.03,-21.04,-15.85,-11.33,-19.38,0,0,0,0,0,0,0,0,0,0,0,0,0,0,0,0,
181,-97.52,-65.32,-58.58,-54.25,-26.1,-79.52,-1.387,-23.45,-21.26,-5.676,-0.7523,2.907,-5.45,-1.694,6.505,-13.6,0,0,0,0,0,0,0,0,0,0,0,0,0,0,0,0,
182,-114.3,-85.74,-58.32,-47.62,-26.46,-70.81,-33.53,-8.914,-29.13,-12.81,3.319,17.62,-0.8721,5.892,5.604,1.041,0,0,0,0,0,0,0,0,0,0,0,0,0,0,0,0,
183,-50.56,-77.91,-31.33,-13.98,-30.46,-39.9,-10.46,-0.0793,-18.96,-6.292,-1.315,6.051,0.5645,0.6102,0.9019,-2.7,0,0,0,0,0,0,0,0,0,0,0,0,0,0,0,0,
184,-1.891,-30.48,-1.985,9.134,7.943,4.214,39.07,-2.476,9.757,-0.0036,17.48,20.11,14.13,8.289,22.58,0.529,0,0,0,0,0,0,0,0,0,0,0,0,0,0,0,0,
185,-1.331,-11.44,0.0286,7.529,38.3,10.73,26.34,16.33,24.26,7.368,37.94,47.73,15.45,18.44,39.63,25.16,0,0,0,0,0,0,0,0,0,0,0,0,0,0,0,0,
186,-19.76,-26.86,-6.968,-4.684,21.63,25.46,5.407,39.41,-12.76,17.98,31.68,43.39,2.049,15.17,27.73,26.84,0,0,0,0,0,0,0,0,0,0,0,0,0,0,0,0,
187,-43.44,-34.47,-15.6,-18.05,9.735,59.0,23.67,33.25,-31.33,21.79,23.67,38.59,5.443,17.58,21.74,8.517,0,0,0,0,0,0,0,0,0,0,0,0,0,0,0,0,
188,-25.27,-41.11,-9.976,-5.894,23.05,30.87,28.12,25.23,7.281,24.94,40.39,48.62,26.21,25.01,36.22,12.29,0,0,0,0,0,0,0,0,0,0,0,0,0,0,0,0,
189,0.3262,-53.31,16.21,21.17,27.55,14.96,27.93,40.63,26.6,27.98,56.83,51.25,44.25,29.07,46.58,32.25,0,0,0,0,0,0,0,0,0,0,0,0,0,0,0,0,
190,-9.657,-40.74,31.07,21.0,29.24,59.79,61.38,53.48,26.55,27.4,57.08,58.82,56.51,42.52,52.58,46.56,0,0,0,0,0,0,0,0,0,0,0,0,0,0,0,0,
191,0.3992,-3.678,35.52,14.03,44.61,41.68,72.23,43.32,47.18,32.95,62.17,64.98,62.08,52.43,55.24,46.78,0,0,0,0,0,0,0,0,0,0,0,0,0,0,0,0,
192,5.726,29.73,39.85,24.65,48.3,-2.748,44.28,26.9,52.16,33.76,58.02,47.28,50.19,38.28,37.46,28.28,0,0,0,0,0,0,0,0,0,0,0,0,0,0,0,0,
193,-16.25,37.4,30.35,28.33,35.31,15.83,45.33,24.9,32.82,18.3,40.31,36.15,36.12,27.66,26.13,18.64,0,0,0,0,0,0,0,0,0,0,0,0,0,0,0,0,
194,0.4759,10.6,21.24,26.38,28.45,8.529,62.98,34.74,19.93,10.9,51.16,52.45,49.1,45.11,48.14,41.91,0,0,0,0,0,0,0,0,0,0,0,0,0,0,0,0,
195,16.64,5.274,26.91,27.19,36.41,-1.164,58.63,44.2,26.88,23.89,75.37,66.53,71.37,66.9,67.08,66.17,0,0,0,0,0,0,0,0,0,0,0,0,0,0,0,0,
196,6.252,39.77,38.78,16.69,59.04,64.31,70.09,55.93,58.48,42.17,78.78,66.3,77.03,73.38,65.95,68.01,0,0,0,0,0,0,0,0,0,0,0,0,0,0,0,0,
197,25.65,-4.021,50.41,15.0,66.44,92.17,92.7,73.07,79.03,59.28,76.72,60.36,73.27,68.21,60.85,59.84,0,0,0,0,0,0,0,0,0,0,0,0,0,0,0,0,
198,26.59,-74.33,49.09,40.16,43.01,44.07,75.29,73.03,55.04,65.15,65.91,53.36,60.59,56.42,48.27,45.0,0,0,0,0,0,0,0,0,0,0,0,0,0,0,0,0,
199,0.5375,12.64,35.21,55.58,33.96,13.52,37.4,49.39,28.54,50.03,48.68,58.76,45.5,51.45,41.21,37.64,0,0,0,0,0,0,0,0,0,0,0,0,0,0,0,0,
200,22.29,83.64,29.75,41.13,43.11,29.78,32.43,40.82,31.75,41.2,49.6,69.81,42.35,57.39,47.96,49.77,0,0,0,0,0,0,0,0,0,0,0,0,0,0,0,0,
201,47.85,-8.484,38.87,34.69,41.44,77.33,61.83,57.35,30.25,57.35,59.98,68.6,42.1,59.23,48.37,56.4,0,0,0,0,0,0,0,0,0,0,0,0,0,0,0,0,
202,44.67,3.987,49.08,58.61,48.43,84.92,79.78,69.89,18.32,69.84,73.53,71.32,47.31,60.67,52.18,53.85,0,0,0,0,0,0,0,0,0,0,0,0,0,0,0,0,
203,54.01,100.1,51.52,79.9,64.07,36.67,78.11,81.59,33.15,70.32,92.86,84.9,69.21,74.6,73.57,68.36,0,0,0,0,0,0,0,0,0,0,0,0,0,0,0,0,
204,60.94,36.08,63.81,81.33,76.51,36.1,97.24,92.19,64.19,78.72,106.3,87.89,94.0,86.82,94.84,91.79,0,0,0,0,0,0,0,0,0,0,0,0,0,0,0,0,
205,68.43,4.343,84.2,83.14,91.35,61.47,108.1,78.38,79.99,80.42,107.5,77.54,102.6,77.89,95.24,88.88,0,0,0,0,0,0,0,0,0,0,0,0,0,0,0,0,
206,69.92,83.12,68.82,73.05,78.08,58.37,67.11,68.07,82.67,63.17,88.65,68.78,85.77,61.26,72.36,62.86,0,0,0,0,0,0,0,0,0,0,0,0,0,0,0,0,
207,28.92,51.92,35.84,43.55,50.79,90.57,46.65,81.28,66.02,60.49,73.55,74.39,67.87,65.85,68.14,65.53,0,0,0,0,0,0,0,0,0,0,0,0,0,0,0,0,
208,31.43,36.42,47.3,40.9,65.13,116.0,83.45,69.11,46.23,87.11,93.89,85.89,78.18,82.7,95.57,94.59,0,0,0,0,0,0,0,0,0,0,0,0,0,0,0,0,
209,94.78,117.0,76.09,54.41,81.88,64.09,101.6,38.5,58.22,97.93,108.6,78.45,82.96,80.88,89.86,85.56,0,0,0,0,0,0,0,0,0,0,0,0,0,0,0,0,
210,82.5,61.19,76.85,32.42,64.09,13.79,92.54,50.74,62.24,66.16,94.3,61.65,65.2,70.95,62.77,59.62,0,0,0,0,0,0,0,0,0,0,0,0,0,0,0,0,
211,44.88,-14.64,77.82,21.81,65.02,23.55,97.44,75.05,50.66,48.0,92.24,64.67,71.61,79.85,79.44,71.92,0,0,0,0,0,0,0,0,0,0,0,0,0,0,0,0,
212,93.06,86.55,90.75,61.52,90.28,61.36,95.8,70.1,77.66,78.56,98.78,83.07,88.74,97.11,90.02,81.8,0,0,0,0,0,0,0,0,0,0,0,0,0,0,0,0,
213,126.7,141.3,91.74,88.92,94.3,80.59,87.52,76.42,91.18,101.5,87.31,91.58,70.41,100.8,61.62,68.31,0,0,0,0,0,0,0,0,0,0,0,0,0,0,0,0,
214,96.09,74.93,83.78,88.29,91.93,77.9,94.6,88.86,67.3,94.1,74.14,78.5,55.49,92.71,61.92,70.02,0,0,0,0,0,0,0,0,0,0,0,0,0,0,0,0,
215,73.41,72.02,78.21,93.15,108.2,91.5,94.78,80.31,86.79,92.65,76.9,64.62,73.73,86.76,86.95,78.84,0,0,0,0,0,0,0,0,0,0,0,0,0,0,0,0,
216,70.41,90.6,82.99,94.02,116.2,112.6,100.8,87.34,105.6,95.85,90.51,70.25,80.87,83.48,87.85,77.87,0,0,0,0,0,0,0,0,0,0,0,0,0,0,0,0,
217,73.64,61.64,95.19,90.54,100.0,119.9,123.9,92.85,71.38,86.65,93.68,72.01,66.79,72.17,77.36,69.27,0,0,0,0,0,0,0,0,0,0,0,0,0,0,0,0,
218,63.5,66.7,82.31,85.57,74.83,105.2,98.74,70.38,60.9,66.75,73.48,55.05,59.05,59.1,66.23,50.32,0,0,0,0,0,0,0,0,0,0,0,0,0,0,0,0,
219,54.79,82.78,55.08,78.38,58.6,55.66,56.81,72.25,70.3,54.49,60.32,51.77,62.0,62.3,68.57,53.12,0,0,0,0,0,0,0,0,0,0,0,0,0,0,0,0,
220,94.57,70.78,66.91,94.14,70.86,38.58,92.68,82.77,65.54,68.24,80.68,75.35,79.34,77.73,101.2,86.32,0,0,0,0,0,0,0,0,0,0,0,0,0,0,0,0,
221,124.9,86.72,96.45,102.5,90.66,79.18,128.8,66.88,83.72,79.07,101.2,91.3,99.99,87.94,116.7,99.16,0,0,0,0,0,0,0,0,0,0,0,0,0,0,0,0,
222,108.3,102.1,99.52,73.13,86.68,106.3,115.1,73.6,98.6,77.46,101.3,85.85,104.6,95.12,104.4,95.52,0,0,0,0,0,0,0,0,0,0,0,0,0,0,0,0,
223,96.11,69.9,101.4,62.15,98.38,129.7,141.1,87.69,95.21,92.66,108.8,86.88,109.6,103.2,111.3,102.2,0,0,0,0,0,0,0,0,0,0,0,0,0,0,0,0,
224,66.56,51.7,109.6,67.63,122.7,118.1,150.9,75.6,112.7,94.3,106.5,92.17,105.7,95.71,105.0,85.43,0,0,0,0,0,0,0,0,0,0,0,0,0,0,0,0,
225,35.24,52.73,97.29,52.6,94.95,39.16,88.49,82.05,114.7,77.09,78.34,81.74,77.36,83.47,71.12,60.9,0,0,0,0,0,0,0,0,0,0,0,0,0,0,0,0,
226,69.21,25.28,83.39,57.35,65.37,39.07,84.3,90.58,83.91,90.27,89.44,84.03,79.49,100.1,83.01,83.67,0,0,0,0,0,0,0,0,0,0,0,0,0,0,0,0,
227,108.9,34.62,95.85,69.51,90.06,101.4,129.0,68.19,75.28,104.4,128.4,104.0,115.1,121.2,112.2,106.7,0,0,0,0,0,0,0,0,0,0,0,0,0,0,0,0,
228,113.5,97.37,112.3,53.9,97.24,82.42,104.8,60.49,89.94,94.24,109.3,97.73,112.0,108.4,86.38,81.1,0,0,0,0,0,0,0,0,0,0,0,0,0,0,0,0,
229,110.3,102.0,97.49,61.68,68.28,62.47,76.95,72.46,90.7,91.9,73.08,77.98,80.79,85.84,60.24,62.34,0,0,0,0,0,0,0,0,0,0,0,0,0,0,0,0,
230,75.15,79.16,67.48,86.74,56.59,75.32,101.8,73.14,69.85,85.16,79.43,77.72,70.34,74.09,67.28,69.61,0,0,0,0,0,0,0,0,0,0,0,0,0,0,0,0,
231,43.44,107.4,62.87,77.51,62.94,69.45,96.23,72.17,57.18,73.66,80.42,77.29,71.22,59.11,57.22,60.42,0,0,0,0,0,0,0,0,0,0,0,0,0,0,0,0,
232,60.08,78.12,68.25,69.36,76.62,98.78,52.18,74.24,73.61,71.33,66.42,72.25,71.62,46.98,46.77,50.93,0,0,0,0,0,0,0,0,0,0,0,0,0,0,0,0,
233,57.04,1.266,58.93,85.99,80.63,108.6,46.89,72.6,75.91,55.98,71.7,76.55,76.08,48.02,71.57,66.72,0,0,0,0,0,0,0,0,0,0,0,0,0,0,0,0,
234,42.21,46.19,56.46,90.58,58.99,61.89,72.19,68.31,55.56,50.66,77.95,74.25,79.77,48.59,84.86,72.22,0,0,0,0,0,0,0,0,0,0,0,0,0,0,0,0,
235,82.45,123.5,57.17,72.47,45.94,53.6,66.25,61.78,54.12,64.01,62.8,62.34,71.13,43.87,57.54,55.33,0,0,0,0,0,0,0,0,0,0,0,0,0,0,0,0,
236,100.6,91.79,44.77,53.02,45.02,48.63,46.41,56.66,45.85,54.55,45.03,63.26,56.38,48.06,45.1,56.35,0,0,0,0,0,0,0,0,0,0,0,0,0,0,0,0,
237,51.96,73.9,45.18,51.28,29.2,22.09,49.1,54.44,31.54,49.52,55.23,78.56,61.43,60.93,75.37,77.84,0,0,0,0,0,0,0,0,0,0,0,0,0,0,0,0,
238,43.66,102.8,59.79,58.15,23.91,32.12,53.31,59.76,46.72,60.61,80.76,88.28,76.97,67.93,91.07,80.97,0,0,0,0,0,0,0,0,0,0,0,0,0,0,0,0,
239,83.09,52.07,61.36,48.91,43.06,58.74,57.85,70.12,44.83,48.97,80.29,82.6,80.39,71.83,70.79,69.43,0,0,0,0,0,0,0,0,0,0,0,0,0,0,0,0,
240,79.71,-20.62,57.62,33.39,62.3,102.9,61.98,65.2,46.32,52.62,64.98,75.69,83.59,78.72,62.19,68.47,0,0,0,0,0,0,0,0,0,0,0,0,0,0,0,0,
241,55.33,17.11,55.34,39.93,67.69,105.9,37.96,53.22,94.41,80.47,63.35,80.0,81.19,80.58,67.55,66.35,0,0,0,0,0,0,0,0,0,0,0,0,0,0,0,0,
242,44.19,104.4,41.84,59.13,52.71,19.26,21.98,55.53,84.17,73.59,63.13,80.19,64.71,76.78,60.51,59.07,0,0,0,0,0,0,0,0,0,0,0,0,0,0,0,0,
243,15.73,93.43,27.57,52.5,34.98,5.61,35.54,52.56,21.05,54.54,53.49,64.37,49.88,63.98,45.81,54.08,0,0,0,0,0,0,0,0,0,0,0,0,0,0,0,0,
244,11.94,10.08,23.15,24.51,28.5,51.98,21.27,38.29,22.54,46.09,32.67,46.16,29.01,36.47,21.77,36.17,0,0,0,0,0,0,0,0,0,0,0,0,0,0,0,0,
245,59.46,8.488,21.11,16.92,14.94,7.467,-4.144,38.34,31.19,19.33,14.8,37.0,14.26,17.31,9.213,24.78,0,0,0,0,0,0,0,0,0,0,0,0,0,0,0,0,
246,73.48,54.57,27.94,18.75,10.26,-4.249,16.3,39.53,8.151,5.161,24.27,37.06,29.68,18.21,32.1,42.05,0,0,0,0,0,0,0,0,0,0,0,0,0,0,0,0,
247,45.87,35.22,35.06,9.795,23.9,48.24,34.6,27.48,13.93,15.07,26.61,36.07,35.69,14.55,39.13,41.35,0,0,0,0,0,0,0,0,0,0,0,0,0,0,0,0,
248,39.26,44.97,18.46,20.49,19.26,25.07,3.547,32.55,11.76,10.24,-0.0295,21.34,25.12,7.036,19.36,18.81,0,0,0,0,0,0,0,0,0,0,0,0,0,0,0,0,
249,21.39,86.73,6.641,37.6,15.15,4.571,-19.71,44.72,8.429,17.95,2.657,9.056,41.14,15.46,29.19,23.71,0,0,0,0,0,0,0,0,0,0,0,0,0,0,0,0,
250,-13.5,19.82,15.03,26.27,30.63,42.78,9.959,26.06,50.53,46.17,28.46,11.46,53.4,20.97,34.95,25.74,0,0,0,0,0,0,0,0,0,0,0,0,0,0,0,0,
251,-0.9526,-36.53,3.148,14.46,17.5,38.39,36.78,10.47,54.23,36.29,15.06,3.287,29.76,3.457,5.084,0.1522,0,0,0,0,0,0,0,0,0,0,0,0,0,0,0,0,
252,25.45,28.36,-8.161,16.38,-9.153,1.374,15.27,27.27,-0.3199,6.489,-2.997,-10.8,14.42,-9.68,7.081,-0.9567,0,0,0,0,0,0,0,0,0,0,0,0,0,0,0,0,
253,15.98,50.53,13.03,19.2,-3.689,3.968,-3.519,31.87,-17.59,6.997,11.14,-1.033,22.32,2.467,34.54,17.01,0,0,0,0,0,0,0,0,0,0,0,0,0,0,0,0,
254,7.64,12.75,17.03,22.95,-1.647,35.32,6.899,19.13,0.2874,11.84,14.82,10.62,21.51,12.96,24.71,13.13,0,0,0,0,0,0,0,0,0,0,0,0,0,0,0,0,
255,4.834,31.52,-0.869,14.43,-15.25,28.41,4.38,23.97,-5.781,7.295,1.966,2.195,7.796,5.934,3.249,6.24,0,0,0,0,0,0,0,0,0,0,0,0,0,0,0,0,
256,-7.885,29.39,-4.098,-1.829,-9.264,-14.45,-2.972,17.15,-20.45,12.81,-7.239,-2.142,-1.385,0.4872,-4.477,3.646,0,0,0,0,0,0,0,0,0,0,0,0,0,0,0,0,
257,-6.418,-35.37,-13.95,-13.7,2.239,-12.25,7.875,-13.73,-4.269,11.1,-18.01,5.079,2.427,2.738,-11.76,-2.227,0,0,0,0,0,0,0,0,0,0,0,0,0,0,0,0,
258,10.01,-13.44,-22.03,-18.99,-0.5748,10.17,7.811,-11.15,15.5,1.178,-10.75,9.437,14.41,7.168,-3.663,10.08,0,0,0,0,0,0,0,0,0,0,0,0,0,0,0,0,
259,28.46,83.1,5.134,10.92,-2.796,3.959,2.029,13.75,4.116,10.99,9.503,4.337,20.64,8.516,9.057,20.11,0,0,0,0,0,0,0,0,0,0,0,0,0,0,0,0,
260,34.61,44.89,23.4,38.13,-6.377,17.26,4.494,7.878,-5.66,19.62,1.202,-13.76,16.4,-7.236,1.097,-2.894,0,0,0,0,0,0,0,0,0,0,0,0,0,0,0,0,
261,13.81,-58.57,-0.093,1.748,-13.28,27.08,-15.63,1.09,0.2223,5.157,-13.29,-30.27,13.81,-27.27,-1.534,-16.32,0,0,0,0,0,0,0,0,0,0,0,0,0,0,0,0,
262,-4.087,7.727,-16.71,-27.79,-8.452,-6.467,-30.36,5.855,5.619,-7.47,-11.11,-30.69,14.83,-28.65,2.445,-3.683,0,0,0,0,0,0,0,0,0,0,0,0,0,0,0,0,
263,-10.35,86.66,-13.99,-16.66,-9.548,-30.55,-7.527,-8.254,6.623,-18.5,-25.03,-28.21,8.266,-28.3,-14.1,-7.814,0,0,0,0,0,0,0,0,0,0,0,0,0,0,0,0,
264,-31.2,-0.257,-33.87,-23.08,-27.89,-36.76,-8.644,-12.2,-19.03,-33.03,-36.65,-22.75,7.378,-28.66,-16.16,-11.78,0,0,0,0,0,0,0,0,0,0,0,0,0,0,0,0,
265,-38.36,-41.33,-50.26,-18.92,-29.63,-47.84,-30.52,-3.062,-30.04,-25.67,-19.25,-7.637,23.1,-12.57,10.94,6.374,0,0,0,0,0,0,0,0,0,0,0,0,0,0,0,0,
266,-21.86,-10.4,-29.09,-5.126,-28.03,-48.21,-16.43,-10.71,14.53,-16.78,-20.15,-8.677,21.74,-7.835,3.845,-3.687,0,0,0,0,0,0,0,0,0,0,0,0,0,0,0,0,
267,-26.53,-72.48,-25.04,-37.77,-48.81,-22.78,-16.07,-8.553,18.22,-27.04,-40.62,-26.17,1.245,-21.41,-30.65,-31.49,0,0,0,0,0,0,0,0,0,0,0,0,0,0,0,0,
268,-39.37,-78.3,-42.0,-53.53,-44.23,14.98,-44.16,-9.205,-27.89,-16.3,-29.14,-24.69,9.426,-14.88,-21.72,-17.89,0,0,0,0,0,0,0,0,0,0,0,0,0,0,0,0,
269,-21.76,35.89,-28.99,-20.77,-20.88,4.951,-35.97,-31.99,-16.8,2.77,-14.3,-16.6,31.21,-4.156,0.9625,-2.711,0,0,0,0,0,0,0,0,0,0,0,0,0,0,0,0,
270,-3.222,47.17,-22.79,-20.51,-30.96,-46.72,-20.83,-25.23,11.91,-13.58,-36.03,-31.68,18.35,-18.77,-15.21,-21.73,0,0,0,0,0,0,0,0,0,0,0,0,0,0,0,0,
271,-22.88,-27.02,-40.58,-46.21,-33.51,-53.88,-31.6,-8.591,-8.911,-30.34,-51.98,-46.59,-3.022,-27.31,-26.38,-26.24,0,0,0,0,0,0,0,0,0,0,0,0,0,0,0,0,
272,-41.57,-16.95,-36.2,-42.11,-17.55,-33.73,-29.9,-28.45,-30.8,-23.46,-41.65,-40.51,0.9378,-15.43,-15.18,-15.08,0,0,0,0,0,0,0,0,0,0,0,0,0,0,0,0,
273,-17.33,16.48,-28.51,-33.34,-31.0,-40.24,-34.67,-47.83,-23.64,-16.56,-40.77,-32.21,6.513,-12.46,-18.71,-15.46,0,0,0,0,0,0,0,0,0,0,0,0,0,0,0,0,
274,-23.8,-20.08,-38.36,-49.75,-39.9,-46.43,-63.99,-56.66,-7.412,-14.21,-48.78,-34.11,-1.874,-28.97,-20.59,-13.75,0,0,0,0,0,0,0,0,0,0,0,0,0,0,0,0,
275,-90.38,-71.75,-44.2,-67.75,-31.23,-35.7,-68.83,-58.89,-11.61,-30.78,-44.73,-44.37,-14.28,-52.83,-14.19,-24.09,0,0,0,0,0,0,0,0,0,0,0,0,0,0,0,0,
276,-88.96,-87.57,-54.26,-67.3,-51.21,-24.26,-50.42,-43.06,-44.81,-63.2,-46.02,-57.51,-31.57,-68.91,-38.97,-51.03,0,0,0,0,0,0,0,0,0,0,0,0,0,0,0,0,
277,-17.51,-66.67,-68.84,-67.24,-72.24,-41.03,-57.1,-48.2,-71.54,-70.52,-63.34,-58.79,-47.8,-68.4,-70.1,-52.58,0,0,0,0,0,0,0,0,0,0,0,0,0,0,0,0,
278,-21.09,-8.983,-69.99,-73.55,-65.71,-83.59,-74.75,-68.94,-72.56,-64.09,-66.81,-45.19,-43.58,-56.45,-58.57,-36.92,0,0,0,0,0,0,0,0,0,0,0,0,0,0,0,0,
279,-67.27,42.12,-62.17,-66.17,-62.19,-98.51,-60.91,-58.92,-64.9,-67.84,-50.57,-38.85,-31.68,-49.34,-40.97,-41.47,0,0,0,0,0,0,0,0,0,0,0,0,0,0,0,0,
280,-60.98,13.25,-59.46,-62.13,-70.92,-93.67,-58.5,-53.93,-66.54,-66.91,-56.75,-54.07,-40.74,-62.28,-56.49,-56.73,0,0,0,0,0,0,0,0,0,0,0,0,0,0,0,0,
281,-62.38,-89.48,-76.8,-77.96,-86.13,-90.11,-107.8,-77.04,-69.29,-75.13,-82.39,-68.85,-50.97,-77.03,-64.91,-60.05,0,0,0,0,0,0,0,0,0,0,0,0,0,0,0,0,
282,-100.3,-153.7,-97.47,-82.33,-90.28,-69.76,-115.5,-75.42,-48.86,-90.71,-70.55,-60.87,-36.82,-63.95,-44.39,-45.69,0,0,0,0,0,0,0,0,0,0,0,0,0,0,0,0,
283,-110.4,-104.3,-86.66,-74.27,-67.45,-77.22,-53.27,-50.98,-36.57,-78.34,-36.13,-48.52,-25.47,-46.58,-35.59,-31.29,0,0,0,0,0,0,0,0,0,0,0,0,0,0,0,0,
284,-76.94,-39.76,-65.24,-87.82,-60.84,-103.9,-43.02,-60.75,-67.14,-64.53,-45.86,-50.71,-35.05,-52.91,-48.78,-41.02,0,0,0,0,0,0,0,0,0,0,0,0,0,0,0,0,
285,-37.46,-51.62,-64.28,-109.1,-86.3,-79.91,-83.75,-83.76,-85.08,-73.28,-79.14,-56.44,-42.55,-59.97,-57.43,-57.08,0,0,0,0,0,0,0,0,0,0,0,0,0,0,0,0,
286,-43.41,-56.15,-71.06,-99.98,-87.08,-62.44,-82.8,-68.41,-60.54,-67.91,-73.88,-60.83,-33.69,-58.35,-55.17,-53.19,0,0,0,0,0,0,0,0,0,0,0,0,0,0,0,0,
287,-85.44,-47.62,-72.84,-72.55,-59.69,-74.1,-66.54,-54.52,-42.22,-54.95,-51.75,-64.82,-21.34,-64.83,-50.62,-50.17,0,0,0,0,0,0,0,0,0,0,0,0,0,0,0,0,
288,-83.78,-106.0,-59.72,-63.06,-45.49,-40.56,-71.29,-74.08,-33.23,-64.51,-60.87,-63.67,-25.05,-75.33,-59.59,-65.41,0,0,0,0,0,0,0,0,0,0,0,0,0,0,0,0,
289,-51.26,-114.9,-36.64,-68.84,-42.66,-31.3,-68.75,-85.21,-14.78,-77.32,-77.1,-65.99,-37.17,-82.94,-73.46,-72.88,0,0,0,0,0,0,0,0,0,0,0,0,0,0,0,0,
290,-57.58,-20.08,-41.87,-76.0,-46.87,-104.1,-57.7,-80.39,-22.14,-83.93,-67.05,-70.65,-35.76,-87.01,-57.43,-59.96,0,0,0,0,0,0,0,0,0,0,0,0,0,0,0,0,
291,-73.6,6.231,-65.35,-84.65,-56.71,-125.1,-66.53,-71.67,-45.61,-88.48,-55.54,-59.79,-32.44,-79.47,-35.78,-48.25,0,0,0,0,0,0,0,0,0,0,0,0,0,0,0,0,
292,-64.94,-39.04,-61.34,-79.91,-50.74,-66.14,-83.38,-59.28,-34.19,-72.44,-54.59,-39.4,-33.62,-59.07,-38.39,-35.94,0,0,0,0,0,0,0,0,0,0,0,0,0,0,0,0,
293,-53.27,-43.48,-46.38,-66.87,-37.46,-55.22,-50.72,-61.41,-26.67,-46.52,-41.86,-25.43,-17.49,-34.29,-24.14,-13.11,0,0,0,0,0,0,0,0,0,0,0,0,0,0,0,0,
294,-52.76,-70.03,-43.31,-72.48,-40.7,-83.14,-4.25,-62.67,-48.07,-47.02,-37.33,-25.85,-6.638,-28.92,-10.09,-15.12,0,0,0,0,0,0,0,0,0,0,0,0,0,0,0,0,
295,-71.36,-139.1,-45.42,-81.8,-52.81,-75.64,-41.47,-54.08,-41.67,-73.67,-63.96,-49.21,-32.36,-58.29,-45.02,-49.05,0,0,0,0,0,0,0,0,0,0,0,0,0,0,0,0,
296,-83.36,-134.9,-67.1,-81.07,-58.92,-77.73,-88.7,-65.6,-34.54,-94.38,-76.47,-70.5,-50.26,-76.5,-63.51,-60.33,0,0,0,0,0,0,0,0,0,0,0,0,0,0,0,0,
297,-77.19,-53.72,-89.68,-87.63,-58.74,-90.88,-53.34,-75.91,-56.85,-84.14,-57.67,-60.48,-34.67,-55.1,-38.15,-49.52,0,0,0,0,0,0,0,0,0,0,0,0,0,0,0,0,
298,-97.02,-22.3,-80.02,-92.36,-67.12,-49.56,-41.24,-70.09,-46.41,-58.37,-60.82,-52.28,-39.06,-50.19,-45.24,-60.59,0,0,0,0,0,0,0,0,0,0,0,0,0,0,0,0,
299,-111.7,-86.72,-73.5,-86.14,-88.3,-27.72,-91.61,-79.49,-36.58,-54.57,-84.64,-65.37,-69.27,-73.25,-68.62,-73.56,0,0,0,0,0,0,0,0,0,0,0,0,0,0,0,0,
300,-87.92,-133.3,-85.43,-87.69,-99.48,-100.6,-96.72,-86.3,-74.64,-73.3,-87.08,-65.49,-79.99,-77.4,-58.63,-67.86,0,0,0,0,0,0,0,0,0,0,0,0,0,0,0,0,
301,-86.26,-78.48,-83.96,-90.31,-94.69,-149.5,-69.93,-72.35,-83.16,-90.83,-85.69,-58.57,-82.38,-75.51,-56.98,-70.14,0,0,0,0,0,0,0,0,0,0,0,0,0,0,0,0,
302,-90.0,-17.36,-83.09,-81.07,-88.15,-105.6,-84.2,-70.7,-62.53,-95.34,-92.49,-67.77,-89.21,-81.16,-69.58,-75.88,0,0,0,0,0,0,0,0,0,0,0,0,0,0,0,0,
303,-74.62,-43.29,-96.63,-84.91,-85.56,-76.25,-100.9,-79.75,-74.82,-86.33,-90.79,-74.05,-83.9,-78.89,-66.92,-74.65,0,0,0,0,0,0,0,0,0,0,0,0,0,0,0,0,
304,-100.1,-97.36,-98.89,-102.1,-90.58,-89.92,-92.51,-68.44,-82.02,-79.28,-94.26,-78.87,-85.39,-92.85,-75.06,-90.38,0,0,0,0,0,0,0,0,0,0,0,0,0,0,0,0,
305,-126.6,-105.0,-94.47,-89.61,-95.62,-82.59,-95.51,-59.42,-73.75,-84.26,-101.3,-95.57,-97.34,-115.0,-91.97,-107.1,0,0,0,0,0,0,0,0,0,0,0,0,0,0,0,0,
306,-111.6,-87.71,-103.3,-58.51,-95.43,-79.08,-103.7,-84.66,-95.38,-93.1,-105.1,-99.6,-98.01,-106.9,-91.37,-95.78,0,0,0,0,0,0,0,0,0,0,0,0,0,0,0,0,
307,-107.9,-78.4,-107.8,-62.48,-103.8,-105.0,-98.24,-102.7,-113.1,-105.5,-121.9,-87.87,-103.4,-98.86,-95.32,-89.53,0,0,0,0,0,0,0,0,0,0,0,0,0,0,0,0,
308,-97.46,-57.71,-99.94,-91.58,-119.6,-113.3,-101.0,-92.49,-96.51,-118.2,-128.4,-89.14,-113.5,-110.4,-106.4,-106.5,0,0,0,0,0,0,0,0,0,0,0,0,0,0,0,0,
309,-92.18,-40.16,-109.1,-100.9,-129.9,-103.8,-118.7,-100.6,-99.15,-118.7,-115.4,-99.58,-110.0,-105.1,-104.6,-112.9,0,0,0,0,0,0,0,0,0,0,0,0,0,0,0,0,
310,-133.3,-72.68,-121.9,-89.75,-122.8,-96.04,-125.4,-103.8,-121.3,-101.9,-111.0,-93.65,-106.3,-82.65,-94.56,-98.45,0,0,0,0,0,0,0,0,0,0,0,0,0,0,0,0,
311,-118.5,-103.5,-95.35,-82.94,-93.25,-74.99,-97.86,-67.1,-105.7,-70.54,-98.39,-66.75,-96.9,-62.23,-69.85,-74.65,0,0,0,0,0,0,0,0,0,0,0,0,0,0,0,0,
312,-51.78,-70.24,-69.55,-83.05,-68.81,-70.24,-64.29,-49.56,-76.08,-46.6,-83.22,-40.86,-76.83,-48.03,-48.35,-57.76,0,0,0,0,0,0,0,0,0,0,0,0,0,0,0,0,
313,-73.09,-48.57,-83.64,-74.65,-67.18,-88.51,-82.88,-61.47,-65.37,-46.35,-100.3,-44.35,-81.65,-53.18,-69.2,-73.01,0,0,0,0,0,0,0,0,0,0,0,0,0,0,0,0,
314,-122.0,-85.5,-86.37,-74.26,-71.22,-71.33,-110.3,-60.72,-56.25,-51.8,-111.8,-69.12,-104.4,-71.69,-93.6,-97.13,0,0,0,0,0,0,0,0,0,0,0,0,0,0,0,0,
315,-103.2,-83.13,-74.4,-96.76,-82.65,-51.61,-82.43,-58.3,-72.36,-57.77,-99.27,-78.86,-109.7,-82.1,-86.79,-93.02,0,0,0,0,0,0,0,0,0,0,0,0,0,0,0,0,
316,-82.88,-25.87,-89.62,-99.29,-100.3,-89.04,-72.18,-61.73,-104.1,-75.34,-96.28,-73.0,-109.3,-89.3,-86.0,-85.34,0,0,0,0,0,0,0,0,0,0,0,0,0,0,0,0,
317,-75.54,-28.97,-95.9,-77.29,-98.13,-121.7,-99.49,-74.08,-90.53,-91.91,-91.75,-74.08,-111.9,-96.86,-82.85,-87.2,0,0,0,0,0,0,0,0,0,0,0,0,0,0,0,0,
318,-60.96,-89.31,-75.02,-77.29,-79.71,-110.5,-84.69,-92.28,-69.13,-99.98,-88.18,-80.14,-108.2,-97.56,-71.54,-88.35,0,0,0,0,0,0,0,0,0,0,0,0,0,0,0,0,
319,-76.38,-117.6,-73.44,-85.34,-68.49,-91.37,-69.74,-88.08,-85.04,-105.1,-107.7,-87.32,-110.0,-98.61,-96.57,-107.0,0,0,0,0,0,0,0,0,0,0,0,0,0,0,0,0,
320,-111.9,-114.5,-87.44,-84.9,-69.3,-71.83,-98.72,-86.63,-89.69,-99.36,-115.0,-92.03,-112.7,-95.5,-108.6,-115.8,0,0,0,0,0,0,0,0,0,0,0,0,0,0,0,0,
321,-139.2,-87.16,-89.73,-93.66,-79.14,-74.11,-108.4,-97.16,-78.23,-85.85,-99.15,-85.64,-102.7,-81.99,-70.63,-89.16,0,0,0,0,0,0,0,0,0,0,0,0,0,0,0,0,
322,-142.9,-53.5,-96.8,-99.51,-93.59,-110.4,-102.7,-82.04,-88.19,-85.29,-99.19,-88.49,-106.1,-83.9,-76.96,-90.36,0,0,0,0,0,0,0,0,0,0,0,0,0,0,0,0,
323,-104.4,-81.42,-110.4,-111.0,-110.2,-120.3,-110.2,-85.31,-96.62,-99.54,-112.7,-105.3,-128.9,-104.0,-123.5,-120.9,0,0,0,0,0,0,0,0,0,0,0,0,0,0,0,0,
324,-82.78,-143.5,-105.6,-134.9,-121.5,-98.69,-100.8,-117.4,-90.52,-116.9,-110.8,-101.4,-130.3,-105.9,-113.7,-111.1,0,0,0,0,0,0,0,0,0,0,0,0,0,0,0,0,
325,-115.8,-162.0,-95.61,-122.3,-107.8,-97.76,-85.86,-100.3,-99.13,-124.4,-87.11,-82.69,-104.9,-83.89,-74.48,-78.18,0,0,0,0,0,0,0,0,0,0,0,0,0,0,0,0,
326,-124.8,-117.1,-99.83,-81.42,-75.71,-90.12,-88.53,-61.18,-98.45,-103.2,-65.29,-74.05,-87.29,-62.3,-61.98,-62.7,0,0,0,0,0,0,0,0,0,0,0,0,0,0,0,0,
327,-96.89,-43.01,-84.01,-63.12,-58.85,-58.0,-84.22,-60.33,-61.31,-68.28,-65.21,-64.57,-82.67,-54.63,-61.09,-56.87,0,0,0,0,0,0,0,0,0,0,0,0,0,0,0,0,
328,-90.26,-28.34,-46.93,-56.44,-56.98,-69.6,-65.31,-65.13,-44.78,-63.39,-56.34,-54.58,-72.18,-57.46,-54.48,-52.69,0,0,0,0,0,0,0,0,0,0,0,0,0,0,0,0,
329,-78.4,-57.29,-45.88,-48.13,-48.93,-102.8,-51.46,-52.85,-62.95,-79.48,-33.15,-51.78,-63.2,-56.09,-43.55,-42.66,0,0,0,0,0,0,0,0,0,0,0,0,0,0,0,0,
330,-43.82,-43.6,-56.79,-39.56,-36.96,-58.61,-40.96,-28.5,-54.76,-71.65,-34.69,-42.31,-62.27,-42.25,-40.84,-33.27,0,0,0,0,0,0,0,0,0,0,0,0,0,0,0,0,
331,-30.35,-29.39,-29.41,-23.33,-20.28,2.41,-25.22,-6.783,-26.69,-42.47,-33.26,-26.55,-43.81,-24.31,-32.86,-29.85,0,0,0,0,0,0,0,0,0,0,0,0,0,0,0,0,
332,-28.77,-23.85,-15.37,-19.14,-3.171,-12.08,-15.89,-10.04,-14.12,-24.0,-6.153,-14.42,-17.3,-12.99,-0.9078,-11.83,0,0,0,0,0,0,0,0,0,0,0,0,0,0,0,0,
333,-19.44,-8.879,-19.1,-14.8,-4.804,-10.61,-6.588,-7.389,-8.967,-19.34,5.971,-0.2606,-10.1,-1.373,17.75,10.06,0,0,0,0,0,0,0,0,0,0,0,0,0,0,0,0,
334,-21.22,-21.31,12.64,20.28,-4.758,30.11,10.1,12.78,-2.831,-5.447,15.23,11.2,3.357,19.09,14.82,14.07,0,0,0,0,0,0,0,0,0,0,0,0,0,0,0,0,
335,-12.15,19.43,28.5,39.33,11.15,8.611,12.95,11.83,13.65,16.89,30.82,8.461,19.44,29.43,27.61,16.15,0,0,0,0,0,0,0,0,0,0,0,0,0,0,0,0,
336,21.07,79.82,10.38,26.58,13.26,-11.9,21.35,15.16,28.52,27.09,25.67,9.033,13.06,29.76,42.93,25.47,0,0,0,0,0,0,0,0,0,0,0,0,0,0,0,0,
337,20.47,30.56,21.96,32.99,20.82,28.69,46.37,46.62,24.02,38.84,37.21,27.94,24.54,47.96,43.81,37.28,0,0,0,0,0,0,0,0,0,0,0,0,0,0,0,0,
338,-3.922,18.04,37.06,40.67,57.58,41.06,49.11,59.98,33.51,61.63,66.0,44.33,53.82,66.2,47.16,48.56,0,0,0,0,0,0,0,0,0,0,0,0,0,0,0,0,
339,26.5,69.89,39.27,30.43,77.31,53.38,60.77,54.17,61.56,71.76,63.37,50.83,60.82,68.05,57.81,55.77,0,0,0,0,0,0,0,0,0,0,0,0,0,0,0,0,
340,66.11,35.45,62.48,39.85,69.05,79.67,91.62,56.53,74.03,75.19,66.5,55.87,67.42,77.07,70.49,61.88,0,0,0,0,0,0,0,0,0,0,0,0,0,0,0,0,
341,51.47,43.62,68.69,62.41,64.07,17.86,76.58,53.74,76.13,81.07,90.48,52.3,74.84,84.52,77.86,64.0,0,0,0,0,0,0,0,0,0,0,0,0,0,0,0,0,
342,65.6,119.9,65.76,78.92,66.92,-8.879,56.09,54.18,74.95,76.37,93.32,56.79,73.39,87.64,87.02,70.9,0,0,0,0,0,0,0,0,0,0,0,0,0,0,0,0,
343,99.95,90.08,89.87,85.92,81.23,103.5,69.96,67.7,75.72,79.37,91.68,72.38,83.95,97.63,95.91,88.13,0,0,0,0,0,0,0,0,0,0,0,0,0,0,0,0,
344,52.89,40.11,83.12,66.88,87.96,131.7,67.15,64.52,83.41,89.08,88.84,58.45,72.81,81.44,73.46,81.01,0,0,0,0,0,0,0,0,0,0,0,0,0,0,0,0,
345,20.7,62.93,55.24,49.29,68.58,35.98,69.77,53.37,65.19,69.64,70.76,42.08,45.21,57.77,52.95,61.2,0,0,0,0,0,0,0,0,0,0,0,0,0,0,0,0,
346,63.66,80.35,60.45,56.75,62.67,34.87,82.52,64.11,38.84,44.36,70.39,63.04,61.17,71.94,75.78,72.01,0,0,0,0,0,0,0,0,0,0,0,0,0,0,0,0,
347,56.13,75.64,60.02,59.96,72.97,98.91,57.57,73.49,56.34,51.27,77.13,64.18,73.39,74.8,78.81,74.8,0,0,0,0,0,0,0,0,0,0,0,0,0,0,0,0,
348,41.91,73.33,58.83,67.3,65.56,91.97,46.54,70.62,73.64,66.64,68.44,39.47,51.49,55.81,51.08,56.84,0,0,0,0,0,0,0,0,0,0,0,0,0,0,0,0,
349,92.44,93.52,78.66,88.02,59.73,61.17,68.2,78.15,54.64,70.21,71.13,48.94,55.49,68.57,56.01,67.2,0,0,0,0,0,0,0,0,0,0,0,0,0,0,0,0,
350,81.58,107.3,72.78,83.95,61.46,63.85,65.78,83.59,45.33,72.78,75.66,68.33,69.52,84.89,71.64,85.52,0,0,0,0,0,0,0,0,0,0,0,0,0,0,0,0,
351,31.42,92.92,64.06,65.69,65.16,74.72,68.77,81.09,52.73,77.86,76.17,75.0,72.94,85.83,78.66,93.83,0,0,0,0,0,0,0,0,0,0,0,0,0,0,0,0,
352,58.6,116.7,85.24,70.87,92.16,61.8,95.87,91.28,72.38,87.45,94.71,94.2,93.28,100.7,96.75,110.6,0,0,0,0,0,0,0,0,0,0,0,0,0,0,0,0,
353,94.44,116.4,91.49,84.65,110.9,49.2,94.94,94.04,112.9,96.56,98.57,99.56,94.83,100.5,92.03,105.0,0,0,0,0,0,0,0,0,0,0,0,0,0,0,0,0,
354,94.85,36.09,89.87,85.14,100.8,93.93,82.08,83.08,115.9,93.7,81.45,83.21,72.31,81.36,70.6,84.91,0,0,0,0,0,0,0,0,0,0,0,0,0,0,0,0,
355,87.7,41.52,100.9,83.1,101.4,143.1,90.52,94.94,74.08,95.64,85.1,82.22,72.87,80.0,73.34,88.78,0,0,0,0,0,0,0,0,0,0,0,0,0,0,0,0,
356,66.35,135.5,96.7,94.95,102.4,119.0,94.1,107.0,67.73,105.2,100.3,87.92,78.32,78.87,84.1,95.01,0,0,0,0,0,0,0,0,0,0,0,0,0,0,0,0,
357,89.45,164.2,97.11,110.0,99.6,94.47,101.9,88.91,88.08,96.35,114.2,92.7,79.61,80.53,98.35,104.9,0,0,0,0,0,0,0,0,0,0,0,0,0,0,0,0,
358,154.6,151.5,118.0,101.8,120.8,115.8,124.8,85.22,95.11,94.25,120.4,103.6,90.36,100.1,103.0,117.1,0,0,0,0,0,0,0,0,0,0,0,0,0,0,0,0,
359,130.5,126.8,116.7,80.04,124.2,105.7,121.0,100.5,108.7,114.5,104.5,97.74,84.72,97.56,76.08,97.1,0,0,0,0,0,0,0,0,0,0,0,0,0,0,0,0,
360,45.96,80.68,96.39,81.34,98.78,65.42,103.2,93.27,108.8,103.8,102.2,87.38,77.31,79.6,67.2,83.11,0,0,0,0,0,0,0,0,0,0,0,0,0,0,0,0,
361,57.87,71.74,96.03,105.5,96.49,70.01,95.18,85.07,88.84,77.29,110.1,95.19,86.39,81.7,78.9,93.54,0,0,0,0,0,0,0,0,0,0,0,0,0,0,0,0,
362,120.1,101.1,105.6,114.7,102.8,104.3,76.1,91.1,94.94,91.94,87.32,90.32,76.68,77.6,68.09,84.2,0,0,0,0,0,0,0,0,0,0,0,0,0,0,0,0,
363,98.28,144.2,92.03,95.19,88.02,93.2,81.96,77.22,98.23,103.7,78.19,71.16,59.95,64.9,70.47,76.29,0,0,0,0,0,0,0,0,0,0,0,0,0,0,0,0,
364,63.79,162.8,57.81,72.39,64.35,42.47,99.84,59.85,61.43,77.26,93.89,71.52,62.85,72.01,84.28,85.87,0,0,0,0,0,0,0,0,0,0,0,0,0,0,0,0,
365,88.66,104.2,45.86,64.09,51.57,46.55,58.59,75.09,45.26,63.38,86.84,81.22,64.61,84.06,71.68,88.87,0,0,0,0,0,0,0,0,0,0,0,0,0,0,0,0,
366,64.81,55.18,69.33,59.82,70.23,113.4,42.27,94.13,72.9,75.5,77.88,78.07,66.24,87.1,63.86,90.46,0,0,0,0,0,0,0,0,0,0,0,0,0,0,0,0,
367,5.959,60.7,80.23,54.82,84.77,132.0,95.43,86.97,77.09,83.38,76.54,69.59,74.03,89.78,67.55,84.84,0,0,0,0,0,0,0,0,0,0,0,0,0,0,0,0,
368,46.92,46.83,67.06,69.06,61.55,87.45,93.3,72.63,55.16,91.8,69.87,73.31,75.81,91.78,70.56,84.17,0,0,0,0,0,0,0,0,0,0,0,0,0,0,0,0,
369,118.3,68.92,63.88,96.25,55.01,62.89,49.36,65.85,65.12,99.65,77.08,86.84,75.67,84.59,75.13,96.35,0,0,0,0,0,0,0,0,0,0,0,0,0,0,0,0,
370,99.33,121.1,60.26,89.69,67.95,53.84,57.66,62.89,75.56,76.14,72.99,84.83,67.99,67.71,56.0,77.38,0,0,0,0,0,0,0,0,0,0,0,0,0,0,0,0,
371,47.25,84.7,49.52,66.29,56.27,33.68,73.5,67.32,52.33,48.76,52.1,68.37,52.3,60.51,40.24,59.05,0,0,0,0,0,0,0,0,0,0,0,0,0,0,0,0,
372,17.88,43.72,55.52,76.38,60.85,53.0,62.67,75.34,51.08,63.59,60.37,65.04,52.54,68.14,55.57,78.27,0,0,0,0,0,0,0,0,0,0,0,0,0,0,0,0,
373,5.662,63.14,60.77,75.51,86.58,103.7,64.12,77.33,68.22,71.1,76.86,73.87,64.67,71.26,59.22,78.59,0,0,0,0,0,0,0,0,0,0,0,0,0,0,0,0,
374,40.29,56.83,59.74,48.5,79.05,100.1,85.13,83.73,69.79,55.6,76.63,75.7,67.77,69.79,61.94,69.28,0,0,0,0,0,0,0,0,0,0,0,0,0,0,0,0,
375,97.28,55.65,74.62,66.07,65.65,63.3,93.1,91.77,81.72,78.45,81.31,67.65,60.65,64.73,76.9,76.36,0,0,0,0,0,0,0,0,0,0,0,0,0,0,0,0,
376,110.5,68.85,76.92,93.18,74.68,74.47,74.75,76.47,79.19,87.6,81.58,66.97,52.27,52.92,69.94,68.72,0,0,0,0,0,0,0,0,0,0,0,0,0,0,0,0,
377,97.04,46.62,59.29,67.45,74.94,85.91,67.74,55.34,59.17,44.86,72.91,79.6,51.19,52.43,66.39,70.07,0,0,0,0,0,0,0,0,0,0,0,0,0,0,0,0,
378,66.17,69.47,58.04,41.93,66.01,46.29,75.18,57.98,75.33,47.54,74.01,75.57,51.24,58.24,70.0,74.59,0,0,0,0,0,0,0,0,0,0,0,0,0,0,0,0,
379,12.88,116.9,63.27,38.83,59.93,27.48,64.36,64.58,76.01,73.71,79.66,57.58,49.89,56.0,53.2,52.31,0,0,0,0,0,0,0,0,0,0,0,0,0,0,0,0,
380,15.91,76.99,69.6,44.15,59.66,48.48,60.41,66.82,41.41,52.94,78.29,63.72,58.11,62.91,56.52,57.12,0,0,0,0,0,0,0,0,0,0,0,0,0,0,0,0,
381,58.42,38.05,81.93,75.17,71.53,62.99,68.85,75.37,48.44,61.98,71.95,70.22,63.93,72.38,76.63,77.23,0,0,0,0,0,0,0,0,0,0,0,0,0,0,0,0,
382,53.81,59.03,68.02,90.27,69.71,67.91,59.28,72.8,67.88,96.5,72.04,54.33,56.59,67.69,69.67,63.15,0,0,0,0,0,0,0,0,0,0,0,0,0,0,0,0,
383,65.89,42.59,48.55,65.59,51.55,52.44,58.12,62.59,57.44,78.49,79.49,59.25,54.75,71.56,67.19,68.31,0,0,0,0,0,0,0,0,0,0,0,0,0,0,0,0,
384,94.5,28.29,63.5,54.01,57.91,59.22,78.45,65.85,58.15,61.75,85.88,82.52,67.63,88.27,90.05,97.77,0,0,0,0,0,0,0,0,0,0,0,0,0,0,0,0,
385,59.16,88.8,80.26,54.06,71.1,129.2,91.0,71.19,73.28,73.67,94.28,79.59,82.04,89.5,101.3,92.59,0,0,0,0,0,0,0,0,0,0,0,0,0,0,0,0,
386,52.84,113.4,80.36,51.38,61.92,126.4,92.02,66.17,85.15,68.57,93.69,61.24,80.14,70.81,82.47,69.29,0,0,0,0,0,0,0,0,0,0,0,0,0,0,0,0,
387,83.39,71.77,74.43,65.25,61.52,21.28,85.09,52.12,76.13,60.69,82.01,53.34,66.49,52.9,62.03,59.65,0,0,0,0,0,0,0,0,0,0,0,0,0,0,0,0,
388,43.96,75.97,60.97,62.98,65.28,3.844,77.26,45.72,46.81,54.06,83.57,47.72,64.36,47.46,68.8,55.94,0,0,0,0,0,0,0,0,0,0,0,0,0,0,0,0,
389,32.71,80.42,58.06,40.78,49.98,68.54,80.94,64.2,49.93,42.87,84.32,38.95,68.33,47.61,75.85,55.0,0,0,0,0,0,0,0,0,0,0,0,0,0,0,0,0,
390,89.98,25.93,66.67,51.13,57.02,71.83,83.77,72.55,72.41,60.17,71.2,41.93,66.39,48.87,61.27,59.71,0,0,0,0,0,0,0,0,0,0,0,0,0,0,0,0,
391,83.19,51.46,67.73,71.41,86.77,52.69,70.0,49.37,70.01,80.5,67.6,54.9,66.5,51.58,53.15,60.34,0,0,0,0,0,0,0,0,0,0,0,0,0,0,0,0,
392,50.0,140.3,62.15,60.59,73.38,66.91,46.66,42.97,68.86,60.32,65.33,52.52,62.89,49.5,59.39,52.84,0,0,0,0,0,0,0,0,0,0,0,0,0,0,0,0,
393,66.45,97.34,48.44,45.34,34.83,65.21,35.12,61.4,62.75,41.62,55.02,40.92,55.08,45.39,63.6,52.69,0,0,0,0,0,0,0,0,0,0,0,0,0,0,0,0,
394,52.3,9.233,42.39,45.22,37.2,41.75,38.84,57.72,45.06,55.98,47.82,46.78,50.38,43.9,52.32,53.12,0,0,0,0,0,0,0,0,0,0,0,0,0,0,0,0,
395,-0.3425,51.03,47.12,48.62,49.4,36.64,38.66,37.67,47.4,60.13,34.72,51.83,34.47,38.35,30.46,41.27,0,0,0,0,0,0,0,0,0,0,0,0,0,0,0,0,
396,0.2893,85.25,26.07,44.79,26.69,52.35,37.32,43.39,34.42,41.71,22.46,29.37,12.15,28.79,27.74,36.43,0,0,0,0,0,0,0,0,0,0,0,0,0,0,0,0,
397,44.86,22.27,14.23,39.26,18.33,60.28,42.78,61.9,4.96,42.19,26.45,8.494,5.891,22.94,27.97,30.08,0,0,0,0,0,0,0,0,0,0,0,0,0,0,0,0,
398,57.52,28.94,45.89,44.08,41.93,56.24,38.65,49.7,13.51,54.16,35.21,21.89,9.479,27.92,7.671,15.51,0,0,0,0,0,0,0,0,0,0,0,0,0,0,0,0,
399,43.27,83.85,43.61,32.59,34.07,59.03,25.33,23.49,17.66,42.71,35.1,33.65,6.336,31.26,4.52,21.42,0,0,0,0,0,0,0,0,0,0,0,0,0,0,0,0,
400,37.47,32.37,1.777,-4.578,-2.039,47.85,17.94,19.93,-8.553,28.19,22.2,9.006,-2.469,10.83,14.04,20.87,0,0,0,0,0,0,0,0,0,0,0,0,0,0,0,0,
401,21.9,-6.152,0.8766,-6.852,-10.23,-0.6898,15.85,19.01,-12.69,23.15,16.8,-6.881,1.334,-4.777,8.914,1.275,0,0,0,0,0,0,0,0,0,0,0,0,0,0,0,0,
402,-1.046,54.03,20.08,29.7,-2.515,-37.26,14.31,7.988,-7.824,9.35,28.87,4.97,17.41,10.39,13.08,9.603,0,0,0,0,0,0,0,0,0,0,0,0,0,0,0,0,
403,3.148,61.56,22.79,42.91,0.5516,-20.74,19.02,7.109,-7.882,4.165,25.4,-5.303,18.28,12.61,12.16,14.93,0,0,0,0,0,0,0,0,0,0,0,0,0,0,0,0,
404,34.16,41.19,38.77,42.42,18.28,5.329,39.23,16.99,15.81,10.52,16.1,-21.66,15.49,-4.608,-4.346,-9.653,0,0,0,0,0,0,0,0,0,0,0,0,0,0,0,0,
405,64.3,80.06,58.79,57.65,39.99,18.69,56.61,32.19,29.59,7.308,32.65,0.1026,34.42,3.689,8.206,-4.635,0,0,0,0,0,0,0,0,0,0,0,0,0,0,0,0,
406,63.04,76.76,63.15,67.08,47.08,54.97,45.19,34.77,17.9,20.24,37.12,18.13,45.6,21.9,23.95,16.47,0,0,0,0,0,0,0,0,0,0,0,0,0,0,0,0,
407,57.4,80.51,76.81,78.54,57.94,91.23,23.89,13.2,26.83,47.99,15.76,6.089,36.0,20.53,7.046,7.65,0,0,0,0,0,0,0,0,0,0,0,0,0,0,0,0,
408,104.6,175.3,100.8,102.9,75.53,109.6,25.08,13.11,42.37,44.87,14.74,0.4936,34.65,17.4,7.573,5.347,0,0,0,0,0,0,0,0,0,0,0,0,0,0,0,0,
409,165.4,201.7,115.1,109.4,83.53,169.9,49.94,36.13,33.03,36.68,27.12,2.758,36.24,19.41,19.59,12.98,0,0,0,0,0,0,0,0,0,0,0,0,0,0,0,0,
410,204.0,177.2,132.7,115.5,89.77,216.9,69.34,30.62,27.18,53.09,18.24,-0.4717,28.0,20.77,-2.903,1.265,0,0,0,0,0,0,0,0,0,0,0,0,0,0,0,0,
411,266.7,266.3,164.1,153.1,99.2,162.8,53.92,26.77,40.84,54.66,9.842,5.741,28.28,29.6,-10.05,4.188,0,0,0,0,0,0,0,0,0,0,0,0,0,0,0,0,
412,323.6,346.5,184.8,182.2,103.9,127.3,30.33,41.11,54.91,48.75,25.21,15.24,36.48,39.96,16.58,23.11,0,0,0,0,0,0,0,0,0,0,0,0,0,0,0,0,
413,330.1,325.9,184.9,189.1,115.3,160.8,34.62,21.61,56.21,63.24,37.23,14.9,37.65,38.15,13.62,13.36,0,0,0,0,0,0,0,0,0,0,0,0,0,0,0,0,
414,339.5,327.1,192.9,209.7,133.7,156.8,42.29,5.729,55.38,60.95,30.28,15.68,39.12,29.74,-0.051,0.1395,0,0,0,0,0,0,0,0,0,0,0,0,0,0,0,0,
415,350.8,344.1,207.7,214.1,135.5,172.6,41.36,31.74,70.52,43.75,26.43,10.24,40.39,20.92,9.012,4.769,0,0,0,0,0,0,0,0,0,0,0,0,0,0,0,0,
416,331.8,316.1,194.4,167.9,125.1,229.0,47.42,33.91,76.36,48.38,27.53,-8.921,28.65,7.585,-5.38,-6.738,0,0,0,0,0,0,0,0,0,0,0,0,0,0,0,0,
417,326.6,287.8,171.3,133.1,118.2,187.2,44.29,8.338,46.54,48.45,19.72,-17.68,15.36,-7.872,-26.38,-18.22,0,0,0,0,0,0,0,0,0,0,0,0,0,0,0,0,
418,319.1,273.5,168.0,149.4,106.5,110.0,27.63,0.7812,22.64,32.18,12.74,-16.43,15.63,-17.15,-11.28,-10.28,0,0,0,0,0,0,0,0,0,0,0,0,0,0,0,0,
419,279.5,268.4,157.5,157.0,90.84,112.4,19.59,-3.978,33.18,28.17,11.76,-18.63,21.49,-13.38,-4.678,-10.7,0,0,0,0,0,0,0,0,0,0,0,0,0,0,0,0,
420,261.4,273.9,134.0,120.0,80.7,120.5,17.61,-7.957,46.02,32.72,6.136,-9.595,21.37,-1.954,-16.66,-9.711,0,0,0,0,0,0,0,0,0,0,0,0,0,0,0,0,
421,223.0,239.9,112.5,85.34,69.97,109.6,2.817,-1.198,39.45,36.67,-3.031,-0.8373,11.85,-2.929,-14.82,-3.57,0,0,0,0,0,0,0,0,0,0,0,0,0,0,0,0,
422,126.7,161.0,68.47,75.59,49.49,95.19,-22.51,-5.02,17.31,29.97,-12.02,-13.82,-1.654,-16.88,-21.16,-19.38,0,0,0,0,0,0,0,0,0,0,0,0,0,0,0,0,
423,92.4,106.1,22.52,58.84,18.79,47.4,-31.85,-17.0,-7.209,1.127,-22.25,-23.79,-11.44,-25.68,-36.34,-30.83,0,0,0,0,0,0,0,0,0,0,0,0,0,0,0,0,
424,111.5,69.57,19.39,36.23,-4.606,8.414,-31.03,-22.29,-21.38,-14.77,-25.53,-20.19,-18.69,-29.31,-29.58,-20.65,0,0,0,0,0,0,0,0,0,0,0,0,0,0,0,0,
425,71.69,4.799,15.01,23.18,-17.03,4.174,-60.81,-29.74,-37.3,-8.098,-30.01,-27.55,-28.98,-35.21,-25.96,-25.56,0,0,0,0,0,0,0,0,0,0,0,0,0,0,0,0,
426,12.48,-37.19,-21.54,-7.636,-45.7,-1.367,-96.82,-41.25,-58.99,-26.88,-61.13,-47.28,-48.32,-46.95,-55.28,-47.48,0,0,0,0,0,0,0,0,0,0,0,0,0,0,0,0,
427,-38.29,-47.15,-51.03,-47.14,-69.1,-19.86,-86.02,-42.2,-63.61,-57.91,-88.52,-58.89,-64.05,-58.96,-79.71,-55.43,0,0,0,0,0,0,0,0,0,0,0,0,0,0,0,0,
428,-80.59,-103.3,-71.13,-51.97,-54.94,-54.16,-69.41,-42.78,-55.73,-51.85,-72.63,-57.45,-56.57,-55.11,-66.43,-48.85,0,0,0,0,0,0,0,0,0,0,0,0,0,0,0,0,
429,-57.87,-132.1,-86.96,-52.52,-52.94,-77.05,-94.85,-67.35,-59.87,-37.91,-62.82,-59.43,-50.85,-52.72,-56.48,-50.78,0,0,0,0,0,0,0,0,0,0,0,0,0,0,0,0,
430,-38.04,-67.11,-83.01,-75.27,-74.77,-72.09,-111.7,-84.95,-70.64,-56.54,-83.44,-69.1,-63.73,-71.86,-69.11,-56.81,0,0,0,0,0,0,0,0,0,0,0,0,0,0,0,0,
431,-87.47,-78.65,-87.01,-77.72,-67.64,-68.1,-95.01,-73.13,-72.04,-77.33,-78.84,-71.2,-58.92,-79.28,-58.54,-46.89,0,0,0,0,0,0,0,0,0,0,0,0,0,0,0,0,
432,-123.6,-198.6,-107.0,-75.64,-59.6,-52.16,-92.09,-71.67,-69.01,-78.4,-56.21,-72.68,-42.02,-70.16,-41.11,-47.28,0,0,0,0,0,0,0,0,0,0,0,0,0,0,0,0,
433,-130.6,-231.9,-111.0,-105.5,-87.28,-45.34,-91.64,-69.57,-73.23,-85.03,-55.94,-87.1,-52.0,-81.41,-65.06,-71.89,0,0,0,0,0,0,0,0,0,0,0,0,0,0,0,0,
434,-151.7,-193.3,-113.8,-120.2,-110.3,-95.16,-80.02,-53.94,-88.36,-96.07,-61.49,-96.86,-69.98,-96.77,-88.69,-76.19,0,0,0,0,0,0,0,0,0,0,0,0,0,0,0,0,
435,-167.1,-208.2,-127.8,-114.8,-112.2,-132.4,-103.2,-72.67,-101.9,-94.17,-64.74,-86.52,-69.85,-87.67,-78.04,-59.25,0,0,0,0,0,0,0,0,0,0,0,0,0,0,0,0,
436,-157.3,-214.7,-124.8,-130.6,-100.8,-109.7,-116.0,-95.26,-86.15,-92.48,-63.39,-66.84,-58.79,-69.35,-65.34,-50.47,0,0,0,0,0,0,0,0,0,0,0,0,0,0,0,0,
437,-140.4,-179.0,-115.5,-131.6,-79.39,-88.51,-75.1,-84.35,-52.88,-94.4,-46.77,-56.11,-46.1,-56.34,-59.92,-39.3,0,0,0,0,0,0,0,0,0,0,0,0,0,0,0,0,
438,-162.5,-184.4,-127.2,-110.3,-83.81,-97.31,-75.78,-80.02,-59.92,-94.46,-45.18,-64.49,-50.39,-56.08,-61.53,-37.34,0,0,0,0,0,0,0,0,0,0,0,0,0,0,0,0,
439,-204.8,-222.9,-145.1,-117.4,-110.7,-115.3,-114.6,-74.31,-92.63,-97.49,-69.24,-79.43,-69.56,-66.62,-76.47,-55.88,0,0,0,0,0,0,0,0,0,0,0,0,0,0,0,0,
440,-193.1,-235.1,-146.1,-127.8,-111.4,-115.0,-97.76,-68.82,-78.84,-92.12,-77.66,-79.67,-70.47,-65.61,-79.64,-55.56,0,0,0,0,0,0,0,0,0,0,0,0,0,0,0,0,
441,-165.2,-222.5,-136.5,-118.2,-103.5,-101.0,-80.36,-86.91,-55.83,-84.39,-65.18,-75.59,-62.01,-57.45,-65.25,-41.92,0,0,0,0,0,0,0,0,0,0,0,0,0,0,0,0,
442,-172.0,-206.2,-135.6,-123.5,-117.7,-113.0,-105.5,-83.84,-88.94,-94.6,-64.08,-84.12,-69.24,-63.03,-61.42,-52.93,0,0,0,0,0,0,0,0,0,0,0,0,0,0,0,0,
443,-171.9,-218.8,-137.9,-132.7,-119.8,-133.0,-105.9,-72.36,-104.6,-104.6,-72.76,-85.54,-70.38,-69.26,-65.66,-65.27,0,0,0,0,0,0,0,0,0,0,0,0,0,0,0,0,
444,-169.9,-244.8,-128.0,-131.6,-100.4,-129.1,-84.78,-81.83,-63.64,-107.6,-71.72,-80.92,-60.93,-70.3,-65.29,-65.23,0,0,0,0,0,0,0,0,0,0,0,0,0,0,0,0,
445,-177.9,-212.2,-121.2,-131.6,-94.37,-128.7,-77.34,-62.6,-55.85,-115.2,-71.9,-97.34,-65.32,-80.82,-66.96,-73.41,0,0,0,0,0,0,0,0,0,0,0,0,0,0,0,0,
446,-173.2,-169.1,-122.7,-115.4,-99.0,-133.9,-68.7,-48.74,-73.21,-112.0,-73.06,-101.3,-67.49,-84.87,-62.01,-68.84,0,0,0,0,0,0,0,0,0,0,0,0,0,0,0,0,
447,-185.1,-194.4,-119.1,-107.1,-98.35,-125.7,-64.43,-81.94,-54.59,-100.8,-54.38,-77.95,-57.11,-76.96,-51.26,-54.92,0,0,0,0,0,0,0,0,0,0,0,0,0,0,0,0,
448,-200.8,-223.9,-125.2,-139.2,-106.4,-112.2,-82.01,-92.7,-56.93,-96.64,-46.25,-85.22,-64.14,-86.12,-58.57,-74.45,0,0,0,0,0,0,0,0,0,0,0,0,0,0,0,0,
449,-175.8,-231.9,-142.8,-152.0,-124.3,-102.5,-103.2,-80.45,-82.73,-92.82,-70.04,-104.7,-84.52,-98.93,-71.14,-94.8,0,0,0,0,0,0,0,0,0,0,0,0,0,0,0,0,
450,-161.7,-238.8,-144.2,-127.1,-128.9,-121.4,-102.4,-91.7,-69.71,-93.94,-83.12,-89.35,-92.11,-90.21,-74.57,-85.83,0,0,0,0,0,0,0,0,0,0,0,0,0,0,0,0,
451,-187.9,-215.7,-143.1,-129.3,-122.0,-160.0,-97.51,-102.4,-69.54,-103.8,-91.26,-87.41,-95.32,-87.62,-93.69,-96.07,0,0,0,0,0,0,0,0,0,0,0,0,0,0,0,0,
452,-209.6,-226.6,-165.0,-155.5,-131.9,-158.9,-108.2,-99.39,-103.3,-116.3,-117.1,-105.2,-103.3,-94.53,-114.1,-114.6,0,0,0,0,0,0,0,0,0,0,0,0,0,0,0,0,
453,-218.3,-273.2,-179.1,-167.2,-155.0,-139.5,-104.8,-94.15,-108.1,-127.5,-114.7,-100.4,-109.3,-86.63,-103.0,-98.45,0,0,0,0,0,0,0,0,0,0,0,0,0,0,0,0,
454,-210.8,-228.9,-157.5,-167.6,-158.4,-157.8,-97.58,-97.19,-104.5,-122.7,-86.84,-99.38,-110.1,-85.34,-87.33,-88.3,0,0,0,0,0,0,0,0,0,0,0,0,0,0,0,0,
455,-185.6,-170.1,-129.1,-153.4,-143.5,-171.7,-115.0,-101.6,-120.8,-112.2,-81.66,-107.0,-99.63,-93.91,-83.63,-99.38,0,0,0,0,0,0,0,0,0,0,0,0,0,0,0,0,
456,-173.9,-196.8,-120.3,-127.6,-125.7,-156.8,-101.7,-77.4,-122.7,-111.3,-81.55,-98.67,-83.18,-84.28,-76.25,-94.75,0,0,0,0,0,0,0,0,0,0,0,0,0,0,0,0,
457,-164.1,-186.7,-116.8,-116.3,-103.6,-158.3,-68.9,-60.75,-102.5,-100.0,-77.1,-94.69,-81.84,-79.83,-79.49,-90.27,0,0,0,0,0,0,0,0,0,0,0,0,0,0,0,0,
458,-139.4,-127.4,-111.8,-120.6,-95.47,-159.3,-91.62,-87.46,-75.19,-92.87,-86.84,-90.74,-93.48,-95.68,-93.59,-97.55,0,0,0,0,0,0,0,0,0,0,0,0,0,0,0,0,
459,-143.0,-139.4,-119.9,-126.4,-107.3,-134.4,-106.4,-94.84,-68.44,-110.8,-89.28,-79.29,-100.1,-101.9,-93.12,-97.99,0,0,0,0,0,0,0,0,0,0,0,0,0,0,0,0,
460,-173.7,-199.1,-137.8,-133.0,-116.8,-126.6,-79.88,-72.77,-97.31,-122.5,-89.8,-93.59,-107.2,-106.9,-94.23,-110.1,0,0,0,0,0,0,0,0,0,0,0,0,0,0,0,0,
461,-176.6,-218.2,-142.8,-137.1,-127.4,-126.8,-95.94,-77.06,-114.5,-124.6,-111.2,-113.3,-118.6,-118.6,-107.8,-127.0,0,0,0,0,0,0,0,0,0,0,0,0,0,0,0,0,
462,-148.9,-190.1,-130.3,-132.1,-129.1,-105.1,-112.7,-94.17,-104.2,-126.4,-113.9,-104.4,-113.6,-107.1,-101.9,-111.0,0,0,0,0,0,0,0,0,0,0,0,0,0,0,0,0,
463,-135.7,-167.3,-124.6,-125.7,-102.6,-108.9,-82.17,-96.95,-103.1,-111.7,-94.77,-101.6,-100.1,-92.75,-87.79,-96.43,0,0,0,0,0,0,0,0,0,0,0,0,0,0,0,0,
464,-154.5,-169.7,-130.8,-130.1,-92.49,-131.7,-90.04,-95.21,-101.2,-102.4,-103.7,-113.4,-107.9,-104.6,-102.2,-115.4,0,0,0,0,0,0,0,0,0,0,0,0,0,0,0,0,
465,-160.5,-173.6,-124.0,-131.1,-115.9,-128.0,-113.0,-97.55,-97.92,-112.9,-112.6,-106.9,-118.2,-107.1,-116.0,-118.8,0,0,0,0,0,0,0,0,0,0,0,0,0,0,0,0,
466,-136.6,-186.7,-114.1,-112.5,-126.7,-133.1,-91.13,-106.4,-118.7,-114.9,-91.0,-96.73,-109.4,-94.14,-103.4,-97.49,0,0,0,0,0,0,0,0,0,0,0,0,0,0,0,0,
467,-136.0,-198.5,-123.8,-105.7,-122.8,-133.3,-99.27,-109.2,-120.5,-109.9,-86.77,-102.8,-107.7,-100.2,-102.1,-100.1,0,0,0,0,0,0,0,0,0,0,0,0,0,0,0,0,
468,-147.3,-187.2,-128.0,-137.2,-121.5,-100.5,-125.0,-99.22,-92.32,-115.2,-101.0,-107.2,-116.4,-110.6,-115.6,-115.7,0,0,0,0,0,0,0,0,0,0,0,0,0,0,0,0,
469,-131.1,-186.7,-121.4,-163.6,-116.6,-125.1,-106.7,-93.71,-103.9,-122.4,-104.5,-109.1,-121.4,-109.4,-115.6,-113.7,0,0,0,0,0,0,0,0,0,0,0,0,0,0,0,0,
470,-135.6,-168.5,-130.8,-151.9,-119.5,-195.4,-121.4,-98.65,-133.6,-119.5,-123.9,-119.5,-139.0,-116.0,-121.6,-114.3,0,0,0,0,0,0,0,0,0,0,0,0,0,0,0,0,
471,-161.8,-103.9,-140.3,-129.1,-127.6,-192.2,-158.8,-110.4,-122.3,-113.3,-146.8,-121.5,-154.6,-120.2,-135.2,-121.6,0,0,0,0,0,0,0,0,0,0,0,0,0,0,0,0,
472,-157.5,-94.04,-134.6,-111.7,-123.7,-156.7,-123.5,-124.6,-110.1,-118.5,-136.0,-108.5,-139.0,-110.0,-123.5,-115.8,0,0,0,0,0,0,0,0,0,0,0,0,0,0,0,0,
473,-154.7,-153.5,-132.4,-112.5,-123.2,-147.4,-96.75,-127.2,-119.2,-124.6,-125.2,-107.4,-125.7,-109.3,-112.4,-114.2,0,0,0,0,0,0,0,0,0,0,0,0,0,0,0,0,
474,-155.7,-182.5,-131.5,-142.8,-130.4,-105.5,-130.1,-118.5,-122.2,-115.3,-127.4,-121.0,-132.8,-115.9,-122.8,-127.7,0,0,0,0,0,0,0,0,0,0,0,0,0,0,0,0,
475,-117.9,-183.7,-126.5,-148.9,-125.5,-71.19,-124.2,-115.7,-113.9,-103.9,-118.8,-125.5,-129.3,-113.4,-117.5,-132.4,0,0,0,0,0,0,0,0,0,0,0,0,0,0,0,0,
476,-112.1,-198.2,-134.3,-112.5,-118.7,-119.6,-112.8,-118.3,-98.42,-109.4,-126.0,-127.8,-130.0,-118.1,-108.9,-130.2,0,0,0,0,0,0,0,0,0,0,0,0,0,0,0,0,
477,-165.0,-192.4,-146.8,-104.3,-123.8,-155.8,-150.4,-115.5,-113.8,-129.8,-139.9,-129.7,-148.7,-122.1,-120.8,-130.0,0,0,0,0,0,0,0,0,0,0,0,0,0,0,0,0,
478,-156.7,-149.3,-139.4,-122.8,-121.2,-116.4,-138.6,-111.7,-152.6,-136.3,-113.1,-107.7,-143.6,-102.6,-114.4,-117.0,0,0,0,0,0,0,0,0,0,0,0,0,0,0,0,0,
479,-106.2,-123.5,-117.1,-118.7,-106.3,-86.84,-96.29,-100.2,-133.6,-116.4,-87.33,-87.84,-123.8,-90.88,-93.79,-103.3,0,0,0,0,0,0,0,0,0,0,0,0,0,0,0,0,
480,-125.6,-132.5,-91.96,-103.7,-91.39,-94.01,-95.01,-73.58,-88.98,-97.43,-86.74,-90.7,-119.3,-96.99,-86.6,-100.1,0,0,0,0,0,0,0,0,0,0,0,0,0,0,0,0,
481,-131.4,-111.0,-70.37,-86.52,-72.36,-105.8,-59.01,-62.72,-79.92,-84.01,-58.02,-77.66,-100.2,-82.61,-69.14,-87.01,0,0,0,0,0,0,0,0,0,0,0,0,0,0,0,0,
482,-67.48,-70.53,-64.87,-78.81,-57.21,-105.1,-17.47,-65.09,-63.45,-68.83,-28.08,-57.72,-72.42,-59.0,-46.65,-67.83,0,0,0,0,0,0,0,0,0,0,0,0,0,0,0,0,
483,-45.05,-78.17,-58.52,-84.22,-50.53,-54.39,-40.36,-44.96,-46.62,-59.11,-32.82,-50.6,-63.02,-47.21,-33.89,-52.12,0,0,0,0,0,0,0,0,0,0,0,0,0,0,0,0,
484,-49.91,-89.45,-36.08,-53.24,-33.92,-22.99,-31.11,-31.91,-43.35,-40.87,-19.66,-22.21,-47.85,-28.25,-14.18,-35.1,0,0,0,0,0,0,0,0,0,0,0,0,0,0,0,0,
485,-12.3,-58.26,-25.94,-13.74,-18.32,-82.3,-1.638,-30.95,-17.27,-28.34,3.816,2.924,-33.56,-12.42,-0.8751,-25.1,0,0,0,0,0,0,0,0,0,0,0,0,0,0,0,0,
486,3.942,-22.72,-18.22,-20.79,-9.216,-83.35,-14.68,3.065,-7.635,-34.85,10.66,1.549,-27.79,-4.869,13.3,-4.343,0,0,0,0,0,0,0,0,0,0,0,0,0,0,0,0,
487,-20.91,-10.17,11.92,-15.78,12.51,7.161,21.56,26.79,-21.26,-15.99,39.75,25.24,3.752,19.01,46.72,32.83,0,0,0,0,0,0,0,0,0,0,0,0,0,0,0,0,
488,-27.61,-10.48,25.07,17.43,20.39,19.97,68.96,12.08,1.008,9.901,64.08,50.82,31.65,37.89,55.7,40.87,0,0,0,0,0,0,0,0,0,0,0,0,0,0,0,0,
489,4.165,16.89,19.3,30.21,17.32,3.203,48.05,24.19,29.19,4.483,53.83,37.38,28.46,35.07,42.93,30.14,0,0,0,0,0,0,0,0,0,0,0,0,0,0,0,0,
490,43.26,32.13,35.16,39.0,51.89,54.49,66.59,54.84,33.56,17.8,61.4,44.76,39.8,44.14,55.13,43.56,0,0,0,0,0,0,0,0,0,0,0,0,0,0,0,0,
491,40.59,-24.17,52.29,43.77,79.81,75.63,107.3,57.73,52.69,51.78,77.56,76.99,55.72,64.92,68.52,62.35,0,0,0,0,0,0,0,0,0,0,0,0,0,0,0,0,
492,36.34,-7.474,57.84,32.88,61.17,53.81,79.05,57.4,74.4,61.39,72.4,71.56,43.65,67.99,64.17,64.25,0,0,0,0,0,0,0,0,0,0,0,0,0,0,0,0,
493,70.48,104.0,62.63,44.86,53.03,44.66,66.72,65.1,58.6,60.26,74.16,51.79,36.48,58.14,62.21,53.19,0,0,0,0,0,0,0,0,0,0,0,0,0,0,0,0,
494,58.1,92.7,51.88,68.38,57.92,32.43,81.37,65.55,39.8,54.29,73.83,64.65,42.91,56.31,63.34,49.43,0,0,0,0,0,0,0,0,0,0,0,0,0,0,0,0,
495,18.35,34.97,52.09,66.05,52.55,46.53,63.16,65.92,63.74,45.9,67.06,89.21,45.06,65.34,71.08,73.52,0,0,0,0,0,0,0,0,0,0,0,0,0,0,0,0,
496,46.69,77.1,76.35,61.98,69.07,67.35,64.76,72.42,78.48,54.98,74.72,90.61,52.14,70.98,79.98,86.31,0,0,0,0,0,0,0,0,0,0,0,0,0,0,0,0,
497,63.28,64.25,67.41,71.71,84.02,34.4,77.38,77.84,49.62,63.48,67.99,75.5,57.34,68.74,70.78,64.38,0,0,0,0,0,0,0,0,0,0,0,0,0,0,0,0,
498,37.8,12.08,45.12,74.54,64.55,29.51,58.97,76.24,45.29,62.06,53.36,76.72,52.17,72.39,62.97,63.55,0,0,0,0,0,0,0,0,0,0,0,0,0,0,0,0,
499,81.43,55.99,66.7,71.76,54.94,74.46,63.1,78.47,62.88,69.14,69.3,92.91,57.14,85.96,79.6,91.25,0,0,0,0,0,0,0,0,0,0,0,0,0,0,0,0,
500,132.8,106.2,77.26,74.89,61.19,56.07,87.03,85.46,54.0,78.61,81.23,88.14,69.55,92.77,92.63,92.57,0,0,0,0,0,0,0,0,0,0,0,0,0,0,0,0,
501,76.52,118.4,52.46,77.51,54.67,25.12,80.35,75.41,56.39,78.69,69.53,68.87,66.83,83.74,78.12,72.26,0,0,0,0,0,0,0,0,0,0,0,0,0,0,0,0,
502,30.15,100.6,66.33,78.71,63.13,81.34,67.51,69.64,69.32,81.14,72.49,76.77,66.91,83.05,73.67,78.57,0,0,0,0,0,0,0,0,0,0,0,0,0,0,0,0,
503,87.69,41.91,107.3,76.53,97.32,118.7,79.73,91.01,71.5,96.54,92.01,101.1,90.76,101.9,102.9,102.9,0,0,0,0,0,0,0,0,0,0,0,0,0,0,0,0,
504,113.1,49.34,109.2,62.94,116.9,64.03,99.06,92.51,96.47,98.46,101.4,98.73,102.9,103.5,116.0,96.67,0,0,0,0,0,0,0,0,0,0,0,0,0,0,0,0,
505,68.61,107.7,97.6,65.76,109.8,25.09,96.73,72.08,107.1,77.5,93.05,87.82,84.73,88.02,96.44,77.56,0,0,0,0,0,0,0,0,0,0,0,0,0,0,0,0,
506,89.69,109.9,100.1,95.73,95.49,66.53,85.39,86.76,76.74,83.85,81.64,103.5,75.83,96.23,89.59,88.72,0,0,0,0,0,0,0,0,0,0,0,0,0,0,0,0,
507,134.2,111.4,91.2,109.0,83.88,123.9,90.06,109.7,71.56,114.3,82.64,113.7,79.46,106.9,91.5,93.34,0,0,0,0,0,0,0,0,0,0,0,0,0,0,0,0,
508,95.85,104.9,80.29,107.6,76.66,127.3,83.59,102.4,84.46,115.9,84.96,103.9,69.68,96.41,79.71,74.16,0,0,0,0,0,0,0,0,0,0,0,0,0,0,0,0,
509,71.99,56.1,79.45,110.5,75.21,97.96,63.05,108.9,73.45,109.6,84.11,113.9,64.74,101.6,75.34,81.01,0,0,0,0,0,0,0,0,0,0,0,0,0,0,0,0,
510,93.22,73.19,70.12,95.73,76.71,84.97,67.97,125.4,69.19,116.2,90.65,121.5,69.68,113.6,81.36,98.66,0,0,0,0,0,0,0,0,0,0,0,0,0,0,0,0,
511,72.14,119.0,69.63,88.98,80.97,76.2,84.87,105.2,76.52,105.6,97.49,91.4,69.7,96.6,86.07,89.51,0,0,0,0,0,0,0,0,0,0,0,0,0,0,0,0,
512,69.62,88.78,89.76,110.1,91.0,80.81,97.73,85.25,73.19,87.89,106.4,73.28,82.45,80.93,95.76,84.21,0,0,0,0,0,0,0,0,0,0,0,0,0,0,0,0,
513,104.3,90.32,97.21,110.8,97.08,107.0,107.3,97.92,76.52,83.21,111.2,81.22,95.63,83.41,97.07,90.34,0,0,0,0,0,0,0,0,0,0,0,0,0,0,0,0,
514,88.46,153.3,98.0,95.2,101.3,108.3,94.4,103.4,98.41,86.41,94.79,79.7,88.38,83.44,86.97,91.35,0,0,0,0,0,0,0,0,0,0,0,0,0,0,0,0,
515,94.57,136.3,111.2,94.66,121.1,105.9,92.48,91.66,121.6,103.7,92.9,89.04,98.41,94.15,93.5,102.0,0,0,0,0,0,0,0,0,0,0,0,0,0,0,0,0,
516,144.9,67.62,110.1,88.01,123.8,100.2,110.3,86.56,117.8,117.4,108.9,95.35,112.2,104.6,98.41,102.3,0,0,0,0,0,0,0,0,0,0,0,0,0,0,0,0,
517,104.8,70.19,94.89,67.83,79.45,50.99,80.38,87.92,78.42,101.2,87.72,65.97,80.07,88.2,73.8,77.45,0,0,0,0,0,0,0,0,0,0,0,0,0,0,0,0,
518,42.21,86.84,85.32,61.25,49.8,49.64,47.65,87.02,46.36,83.08,67.16,68.25,55.1,87.09,63.14,77.79,0,0,0,0,0,0,0,0,0,0,0,0,0,0,0,0,
519,71.91,56.94,78.23,87.67,69.36,85.42,82.67,77.28,48.13,84.75,89.45,107.3,78.18,109.5,87.41,101.2,0,0,0,0,0,0,0,0,0,0,0,0,0,0,0,0,
520,93.4,56.81,89.58,115.0,86.56,48.68,102.2,70.25,56.86,82.18,95.79,95.69,92.68,101.7,97.74,97.14,0,0,0,0,0,0,0,0,0,0,0,0,0,0,0,0,
521,80.65,71.43,102.2,94.56,85.02,59.25,75.72,86.87,68.01,74.97,84.36,66.98,83.65,83.21,83.23,84.59,0,0,0,0,0,0,0,0,0,0,0,0,0,0,0,0,
522,96.25,49.79,76.71,75.26,84.63,139.7,75.83,102.6,80.36,83.0,93.53,80.29,82.37,91.2,79.8,88.45,0,0,0,0,0,0,0,0,0,0,0,0,0,0,0,0,
523,85.18,90.41,58.23,101.9,83.08,110.5,83.97,89.06,69.67,92.41,95.53,86.36,83.79,93.54,86.04,83.13,0,0,0,0,0,0,0,0,0,0,0,0,0,0,0,0,
524,41.26,151.9,69.25,103.0,74.4,45.66,77.76,76.12,57.63,86.97,88.2,74.15,76.59,79.84,77.71,69.08,0,0,0,0,0,0,0,0,0,0,0,0,0,0,0,0,
525,53.62,85.51,66.96,74.8,60.41,62.33,88.44,84.9,63.56,79.71,88.8,78.78,67.54,74.05,67.05,69.61,0,0,0,0,0,0,0,0,0,0,0,0,0,0,0,0,
526,110.3,32.41,69.74,84.9,58.95,64.77,85.88,86.84,63.18,75.11,75.88,76.97,65.35,69.21,69.37,73.58,0,0,0,0,0,0,0,0,0,0,0,0,0,0,0,0,
527,104.4,87.84,77.29,94.61,71.04,54.39,70.81,72.6,65.72,67.26,64.54,60.3,70.93,59.82,70.39,69.03,0,0,0,0,0,0,0,0,0,0,0,0,0,0,0,0,
528,44.89,70.71,68.05,80.06,72.58,92.61,91.37,71.66,80.3,75.1,84.92,70.92,87.73,70.97,83.9,84.65,0,0,0,0,0,0,0,0,0,0,0,0,0,0,0,0,
529,79.53,16.15,100.6,92.35,86.38,117.8,105.7,90.46,93.36,99.93,104.9,98.24,114.9,98.34,117.2,115.8,0,0,0,0,0,0,0,0,0,0,0,0,0,0,0,0,
530,175.7,79.44,149.2,104.5,123.7,107.4,102.1,98.08,111.8,101.9,97.85,96.26,122.4,102.0,115.1,108.1,0,0,0,0,0,0,0,0,0,0,0,0,0,0,0,0,
531,157.5,154.0,127.4,90.41,129.0,108.5,132.3,87.11,112.8,87.43,92.05,86.04,107.2,92.71,83.94,83.6,0,0,0,0,0,0,0,0,0,0,0,0,0,0,0,0,
532,95.53,129.8,94.82,94.81,104.0,103.1,139.0,87.45,87.83,92.06,96.35,94.67,110.2,102.7,92.18,99.3,0,0,0,0,0,0,0,0,0,0,0,0,0,0,0,0,
533,101.6,56.04,99.21,97.09,99.31,65.26,92.59,99.64,93.94,93.94,92.62,92.5,122.6,103.8,111.1,113.2,0,0,0,0,0,0,0,0,0,0,0,0,0,0,0,0,
534,90.29,22.34,90.81,69.09,97.75,43.6,83.15,93.06,115.9,82.91,91.1,77.99,113.0,83.45,88.8,90.78,0,0,0,0,0,0,0,0,0,0,0,0,0,0,0,0,
535,66.1,64.71,78.15,62.71,74.31,56.72,100.0,78.06,87.37,83.03,91.97,75.54,96.56,75.94,67.27,76.91,0,0,0,0,0,0,0,0,0,0,0,0,0,0,0,0,
536,79.78,81.5,79.59,80.88,61.93,72.88,82.73,80.11,47.25,85.79,76.68,76.04,87.51,80.58,74.82,80.56,0,0,0,0,0,0,0,0,0,0,0,0,0,0,0,0,
537,70.3,43.03,72.54,78.28,68.92,96.4,69.64,74.09,49.92,91.21,59.99,70.93,76.5,75.17,69.01,70.19,0,0,0,0,0,0,0,0,0,0,0,0,0,0,0,0,
538,57.21,55.71,60.37,72.58,57.02,104.4,72.56,59.34,54.48,92.42,52.63,66.17,64.93,62.56,45.7,58.74,0,0,0,0,0,0,0,0,0,0,0,0,0,0,0,0,
539,88.07,73.43,62.66,96.77,46.66,80.68,75.36,87.32,42.8,72.77,61.88,80.32,80.76,71.43,69.43,88.64,0,0,0,0,0,0,0,0,0,0,0,0,0,0,0,0,
540,104.5,62.47,92.05,138.9,85.98,83.33,107.8,133.1,70.64,88.63,104.9,116.7,130.7,109.2,133.6,140.0,0,0,0,0,0,0,0,0,0,0,0,0,0,0,0,0,
541,98.19,125.4,120.6,161.3,127.4,107.9,142.7,135.8,133.8,136.4,132.2,125.6,156.7,123.4,144.3,141.4,0,0,0,0,0,0,0,0,0,0,0,0,0,0,0,0,
542,119.8,164.9,117.7,143.2,128.1,130.1,130.6,133.8,161.4,123.9,108.8,104.8,140.8,107.1,108.3,110.5,0,0,0,0,0,0,0,0,0,0,0,0,0,0,0,0,
543,147.7,100.6,128.1,122.2,130.2,161.8,118.6,147.3,146.1,95.93,98.34,112.0,135.1,116.4,103.5,115.3,0,0,0,0,0,0,0,0,0,0,0,0,0,0,0,0,
544,155.6,111.9,152.1,129.8,133.9,134.9,139.7,123.2,125.6,121.2,108.1,130.2,134.0,132.6,108.5,130.1,0,0,0,0,0,0,0,0,0,0,0,0,0,0,0,0,
545,154.9,164.2,126.9,130.9,117.7,63.68,134.9,92.93,113.4,131.4,89.72,122.4,116.8,121.7,96.98,122.7,0,0,0,0,0,0,0,0,0,0,0,0,0,0,0,0,
546,107.7,93.77,92.25,112.3,105.7,67.38,88.97,102.0,117.0,119.8,74.52,108.3,110.7,111.0,95.32,110.7,0,0,0,0,0,0,0,0,0,0,0,0,0,0,0,0,
547,28.78,55.64,95.23,100.3,98.37,93.86,62.5,96.26,121.4,126.6,80.05,90.97,106.1,95.86,81.71,84.29,0,0,0,0,0,0,0,0,0,0,0,0,0,0,0,0,
548,34.53,99.43,88.91,80.55,89.25,66.47,71.44,75.86,99.68,105.2,71.55,71.22,94.86,73.79,62.53,62.24,0,0,0,0,0,0,0,0,0,0,0,0,0,0,0,0,
549,102.0,40.76,72.34,43.46,79.68,63.81,79.99,82.5,76.81,68.81,67.33,65.53,98.7,76.09,79.54,77.41,0,0,0,0,0,0,0,0,0,0,0,0,0,0,0,0,
550,110.2,-18.79,74.18,30.34,51.93,93.15,64.2,67.79,76.31,77.01,71.0,62.24,90.26,80.07,76.91,81.03,0,0,0,0,0,0,0,0,0,0,0,0,0,0,0,0,
551,61.18,21.59,66.48,44.25,30.35,68.51,28.15,26.85,68.18,82.8,40.91,53.84,55.27,62.8,28.92,55.27,0,0,0,0,0,0,0,0,0,0,0,0,0,0,0,0,
552,14.36,-1.773,41.64,39.86,38.21,9.384,9.526,27.58,45.03,55.96,13.22,45.37,36.78,50.64,16.2,48.63,0,0,0,0,0,0,0,0,0,0,0,0,0,0,0,0,
553,17.82,-24.9,19.5,22.38,33.81,-5.458,22.63,44.94,32.34,42.07,28.43,33.02,39.61,42.68,31.97,47.89,0,0,0,0,0,0,0,0,0,0,0,0,0,0,0,0,
554,32.97,66.45,6.227,25.68,12.93,11.08,30.79,29.38,31.56,35.47,31.48,23.07,39.43,25.57,20.0,28.34,0,0,0,0,0,0,0,0,0,0,0,0,0,0,0,0,
555,-18.96,85.96,7.731,28.56,9.189,2.225,26.27,16.36,34.2,16.67,7.523,12.56,36.99,11.65,14.45,19.38,0,0,0,0,0,0,0,0,0,0,0,0,0,0,0,0,
556,-17.35,7.452,13.27,17.16,11.27,-8.604,18.84,27.1,34.5,7.261,6.601,-0.3087,40.31,9.118,29.12,26.37,0,0,0,0,0,0,0,0,0,0,0,0,0,0,0,0,
557,73.67,2.937,21.93,24.24,19.05,20.88,11.53,28.35,38.53,9.627,21.81,6.42,55.35,18.52,27.57,29.6,0,0,0,0,0,0,0,0,0,0,0,0,0,0,0,0,
558,57.04,28.94,42.5,33.74,41.7,58.41,33.3,18.51,61.79,18.78,24.88,17.2,65.63,30.22,18.41,29.63,0,0,0,0,0,0,0,0,0,0,0,0,0,0,0,0,
559,5.734,-4.457,41.96,22.5,45.39,73.14,58.87,29.09,72.26,38.9,19.88,7.381,52.02,35.76,20.46,33.18,0,0,0,0,0,0,0,0,0,0,0,0,0,0,0,0,
560,58.15,-18.03,27.88,32.84,35.39,70.31,41.3,38.28,53.76,61.33,7.684,8.463,40.38,43.69,19.64,34.63,0,0,0,0,0,0,0,0,0,0,0,0,0,0,0,0,
561,52.37,33.35,37.27,44.83,39.67,44.61,27.02,8.022,52.41,70.51,-6.743,23.59,36.17,40.54,8.657,22.99,0,0,0,0,0,0,0,0,0,0,0,0,0,0,0,0,
562,-0.3043,51.18,28.05,11.04,24.75,16.12,31.63,-12.77,46.37,44.86,-9.49,20.46,18.34,16.79,9.577,14.57,0,0,0,0,0,0,0,0,0,0,0,0,0,0,0,0,
563,32.99,11.41,6.013,-2.141,2.602,14.99,13.53,5.561,9.291,6.621,-6.27,12.35,15.17,4.576,22.73,21.61,0,0,0,0,0,0,0,0,0,0,0,0,0,0,0,0,
564,40.83,26.9,28.91,24.11,27.85,20.46,1.016,4.89,12.83,9.581,-12.99,6.899,28.51,5.219,11.18,14.39,0,0,0,0,0,0,0,0,0,0,0,0,0,0,0,0,
565,15.74,65.3,40.17,17.36,54.31,16.73,12.48,-5.398,50.55,26.39,-20.96,-8.399,16.04,-4.208,-9.146,-2.626,0,0,0,0,0,0,0,0,0,0,0,0,0,0,0,0,
566,51.97,8.63,10.75,-3.44,31.23,7.048,17.68,9.821,42.83,13.65,-9.714,-13.01,0.5009,-8.264,-0.2691,1.999,0,0,0,0,0,0,0,0,0,0,0,0,0,0,0,0,
567,57.5,-52.22,5.038,-11.41,-0.0356,-13.38,14.07,7.431,12.21,2.651,0.4121,-3.119,9.522,-0.8859,7.534,9.197,0,0,0,0,0,0,0,0,0,0,0,0,0,0,0,0,
568,30.36,-14.32,10.8,-31.75,-3.806,-7.378,1.773,-2.118,15.0,8.559,-16.88,-4.271,16.94,2.029,0.6368,4.963,0,0,0,0,0,0,0,0,0,0,0,0,0,0,0,0,
569,57.96,36.65,5.269,-32.41,14.21,24.12,-7.24,8.652,42.73,18.04,-28.47,-16.49,18.35,-1.786,0.3416,0.5748,0,0,0,0,0,0,0,0,0,0,0,0,0,0,0,0,
570,46.77,30.74,3.89,-9.376,18.61,0.3586,4.985,-8.952,39.5,26.74,-11.84,-27.27,18.2,-13.28,-6.337,-6.979,0,0,0,0,0,0,0,0,0,0,0,0,0,0,0,0,
571,-32.16,13.01,-17.77,-7.019,-7.434,-50.49,7.455,-36.63,-9.191,14.72,-4.631,-29.98,9.861,-24.38,-19.62,-12.91,0,0,0,0,0,0,0,0,0,0,0,0,0,0,0,0,
572,-47.87,2.337,-40.44,-15.98,-14.61,-42.69,-7.131,-29.43,-22.96,-12.48,-18.7,-24.26,4.232,-26.14,-26.3,-17.13,0,0,0,0,0,0,0,0,0,0,0,0,0,0,0,0,
573,-8.634,-60.02,-30.14,-32.99,-1.898,-15.45,-3.114,-26.75,8.024,-22.77,-24.03,-23.52,0.1368,-27.56,-28.89,-25.06,0,0,0,0,0,0,0,0,0,0,0,0,0,0,0,0,
574,-12.66,-138.0,-27.48,-60.23,-23.03,-14.11,2.351,-28.41,-0.7021,-13.56,-20.38,-28.32,-7.567,-24.17,-19.3,-22.81,0,0,0,0,0,0,0,0,0,0,0,0,0,0,0,0,
575,-34.24,-103.4,-33.66,-61.72,-48.13,-29.74,-22.73,-10.54,-25.98,5.611,-24.88,-23.99,-8.47,-12.07,-10.23,-13.38,0,0,0,0,0,0,0,0,0,0,0,0,0,0,0,0,
576,-21.82,9.011,-22.01,-35.49,-34.67,-57.29,-45.59,-16.61,-12.91,19.23,-28.42,-18.1,-8.563,-10.69,-22.88,-11.36,0,0,0,0,0,0,0,0,0,0,0,0,0,0,0,0,
577,-15.95,63.26,-20.73,-10.13,-16.7,-54.0,-30.95,-47.84,-1.862,8.748,-24.88,-23.83,-14.03,-21.7,-38.11,-17.17,0,0,0,0,0,0,0,0,0,0,0,0,0,0,0,0,
578,-34.03,26.66,-25.17,-5.044,-16.98,-16.99,-6.949,-55.18,-9.02,-9.49,-27.66,-34.94,-22.42,-34.72,-43.7,-34.57,0,0,0,0,0,0,0,0,0,0,0,0,0,0,0,0,
579,-19.49,-43.48,-17.72,-15.95,-21.34,-13.58,-10.14,-47.95,-11.68,-17.28,-38.2,-50.66,-39.38,-53.1,-52.73,-54.44,0,0,0,0,0,0,0,0,0,0,0,0,0,0,0,0,
580,1.051,-56.77,-28.89,-19.37,-26.16,-40.47,-31.68,-47.66,-26.5,-31.22,-47.52,-64.19,-52.01,-66.46,-60.49,-55.07,0,0,0,0,0,0,0,0,0,0,0,0,0,0,0,0,
581,-30.69,-40.8,-43.86,-34.12,-33.4,-42.87,-47.16,-34.86,-49.36,-47.75,-51.17,-53.57,-47.16,-58.11,-52.82,-39.53,0,0,0,0,0,0,0,0,0,0,0,0,0,0,0,0,
582,-42.58,-70.62,-32.31,-55.63,-32.84,-14.54,-47.38,-21.14,-34.96,-31.5,-47.99,-39.24,-41.63,-41.04,-44.87,-31.94,0,0,0,0,0,0,0,0,0,0,0,0,0,0,0,0,
583,-20.33,-51.93,-33.76,-35.44,-25.22,0.8329,-43.07,-39.02,-10.06,-1.523,-45.43,-49.59,-41.52,-34.81,-55.77,-40.6,0,0,0,0,0,0,0,0,0,0,0,0,0,0,0,0,
584,-39.14,2.879,-52.97,-22.75,-34.67,-23.87,-50.03,-60.95,-36.8,-11.35,-48.71,-54.77,-42.6,-37.0,-62.93,-47.6,0,0,0,0,0,0,0,0,0,0,0,0,0,0,0,0,
585,-42.35,-36.11,-50.95,-54.25,-59.13,-45.08,-61.61,-65.3,-57.63,-35.69,-58.3,-50.38,-55.44,-45.93,-59.79,-52.98,0,0,0,0,0,0,0,0,0,0,0,0,0,0,0,0,
586,-22.54,-56.09,-52.49,-64.39,-65.04,-44.85,-63.02,-71.29,-30.35,-36.47,-71.77,-62.91,-69.11,-60.59,-70.5,-67.23,0,0,0,0,0,0,0,0,0,0,0,0,0,0,0,0,
587,-60.33,-12.26,-66.95,-65.4,-50.38,-58.41,-57.03,-59.08,-40.71,-44.86,-69.87,-66.45,-63.19,-64.88,-74.59,-68.15,0,0,0,0,0,0,0,0,0,0,0,0,0,0,0,0,
588,-72.87,-51.71,-64.12,-80.54,-45.27,-63.41,-55.93,-37.72,-73.5,-55.34,-55.73,-59.8,-58.28,-63.27,-64.5,-61.95,0,0,0,0,0,0,0,0,0,0,0,0,0,0,0,0,
589,-47.16,-99.45,-77.1,-65.06,-66.85,-51.92,-68.17,-58.44,-56.81,-42.74,-56.85,-71.05,-68.13,-72.13,-66.95,-73.66,0,0,0,0,0,0,0,0,0,0,0,0,0,0,0,0,
590,-83.78,-65.24,-105.7,-59.07,-94.48,-76.46,-84.79,-79.57,-57.03,-48.65,-60.57,-67.46,-69.9,-74.76,-61.25,-69.92,0,0,0,0,0,0,0,0,0,0,0,0,0,0,0,0,
591,-95.91,-49.85,-93.38,-84.91,-91.59,-115.2,-84.33,-66.95,-82.97,-72.87,-58.65,-48.65,-68.58,-66.0,-51.66,-52.25,0,0,0,0,0,0,0,0,0,0,0,0,0,0,0,0,
592,-73.07,-60.84,-80.4,-75.93,-72.86,-97.9,-67.72,-71.62,-66.63,-69.06,-69.46,-56.74,-80.02,-66.81,-71.3,-68.16,0,0,0,0,0,0,0,0,0,0,0,0,0,0,0,0,
593,-119.1,-69.43,-99.3,-63.79,-78.46,-46.51,-67.74,-75.55,-56.46,-60.3,-76.15,-65.73,-86.82,-72.89,-84.48,-87.89,0,0,0,0,0,0,0,0,0,0,0,0,0,0,0,0,
594,-115.3,-96.32,-95.89,-92.39,-92.47,-59.42,-88.51,-51.24,-72.14,-72.15,-80.2,-61.19,-89.85,-78.19,-80.69,-82.35,0,0,0,0,0,0,0,0,0,0,0,0,0,0,0,0,
595,-47.92,-102.9,-83.82,-93.8,-85.57,-120.7,-83.25,-54.67,-63.84,-80.8,-94.98,-69.81,-90.77,-81.45,-85.35,-81.14,0,0,0,0,0,0,0,0,0,0,0,0,0,0,0,0,
596,-76.81,-100.9,-87.5,-60.89,-72.24,-88.46,-64.61,-79.92,-61.27,-75.53,-84.2,-72.93,-65.1,-68.17,-70.4,-76.91,0,0,0,0,0,0,0,0,0,0,0,0,0,0,0,0,
597,-103.8,-105.7,-75.84,-56.23,-68.23,-10.71,-82.91,-77.09,-67.14,-64.49,-65.21,-64.3,-40.27,-57.7,-48.07,-61.76,0,0,0,0,0,0,0,0,0,0,0,0,0,0,0,0,
598,-55.26,-55.97,-72.22,-63.79,-65.29,-39.41,-85.16,-66.41,-39.6,-65.33,-74.78,-66.37,-49.66,-66.79,-56.04,-60.74,0,0,0,0,0,0,0,0,0,0,0,0,0,0,0,0,
599,-64.67,-16.55,-80.77,-52.62,-58.4,-72.09,-47.18,-64.86,-27.2,-76.35,-69.07,-66.4,-56.37,-62.84,-59.15,-63.56,0,0,0,0,0,0,0,0,0,0,0,0,0,0,0,0,
600,-94.14,-56.2,-63.2,-53.16,-56.66,-40.2,-47.95,-62.5,-56.69,-64.54,-58.68,-57.61,-46.78,-46.81,-45.17,-52.72,0,0,0,0,0,0,0,0,0,0,0,0,0,0,0,0,
601,-79.94,-77.19,-57.5,-72.2,-62.6,-63.71,-59.8,-69.18,-61.57,-41.03,-76.34,-50.37,-41.11,-45.23,-39.2,-39.19,0,0,0,0,0,0,0,0,0,0,0,0,0,0,0,0,
602,-98.98,-87.33,-82.97,-78.74,-68.81,-87.49,-35.83,-74.89,-38.72,-42.38,-71.41,-49.46,-35.83,-48.24,-38.69,-40.54,0,0,0,0,0,0,0,0,0,0,0,0,0,0,0,0,
603,-113.3,-137.8,-100.0,-77.57,-76.13,-59.9,-54.27,-66.43,-46.55,-57.86,-66.32,-66.16,-43.85,-58.03,-54.62,-65.28,0,0,0,0,0,0,0,0,0,0,0,0,0,0,0,0,
604,-78.04,-110.3,-103.7,-81.0,-82.19,-80.37,-96.92,-73.67,-71.93,-67.74,-102.0,-83.04,-65.88,-76.69,-81.58,-87.67,0,0,0,0,0,0,0,0,0,0,0,0,0,0,0,0,
605,-76.74,-28.57,-94.56,-75.97,-87.94,-92.81,-87.2,-94.21,-79.73,-72.86,-108.9,-81.19,-75.4,-82.35,-92.78,-93.33,0,0,0,0,0,0,0,0,0,0,0,0,0,0,0,0,
606,-114.3,-55.92,-93.04,-68.42,-104.9,-74.11,-87.52,-83.94,-90.3,-86.0,-91.69,-83.11,-83.73,-84.22,-103.9,-102.8,0,0,0,0,0,0,0,0,0,0,0,0,0,0,0,0,
607,-124.7,-108.1,-109.2,-69.41,-105.0,-104.4,-103.7,-70.88,-97.22,-99.91,-102.6,-85.13,-92.17,-89.73,-109.3,-100.6,0,0,0,0,0,0,0,0,0,0,0,0,0,0,0,0,
608,-104.7,-65.74,-84.26,-75.26,-70.68,-88.99,-68.1,-92.72,-74.18,-81.65,-98.8,-80.29,-83.85,-88.76,-93.15,-87.58,0,0,0,0,0,0,0,0,0,0,0,0,0,0,0,0,
609,-84.68,-50.24,-51.47,-83.52,-61.44,-34.08,-52.69,-93.66,-67.51,-67.07,-88.66,-92.91,-84.68,-97.46,-93.61,-99.97,0,0,0,0,0,0,0,0,0,0,0,0,0,0,0,0,
610,-87.87,-101.4,-78.01,-72.23,-83.58,-59.04,-86.72,-69.68,-95.59,-90.4,-105.9,-96.02,-90.52,-104.7,-100.1,-101.4,0,0,0,0,0,0,0,0,0,0,0,0,0,0,0,0,
611,-94.88,-79.23,-82.64,-44.74,-75.44,-73.22,-81.71,-84.14,-95.35,-82.79,-98.8,-73.63,-72.31,-91.95,-82.21,-78.97,0,0,0,0,0,0,0,0,0,0,0,0,0,0,0,0,
612,-61.79,-0.6763,-48.07,-44.17,-63.38,-60.16,-73.16,-103.2,-72.63,-56.86,-80.75,-77.01,-65.06,-98.15,-89.92,-95.75,0,0,0,0,0,0,0,0,0,0,0,0,0,0,0,0,
613,-15.79,15.31,-49.98,-46.0,-79.87,-66.13,-95.95,-92.64,-78.73,-85.75,-99.2,-94.49,-82.71,-120.9,-118.4,-122.6,0,0,0,0,0,0,0,0,0,0,0,0,0,0,0,0,
614,1.403,1.301,-42.52,-14.23,-67.52,14.64,-77.49,-88.4,-87.13,-104.3,-106.3,-85.88,-82.6,-112.1,-101.8,-107.7,0,0,0,0,0,0,0,0,0,0,0,0,0,0,0,0,
615,29.66,20.17,-3.616,9.432,-23.85,78.0,-58.41,-78.02,-68.8,-71.09,-90.55,-85.61,-71.37,-93.11,-77.0,-101.7,0,0,0,0,0,0,0,0,0,0,0,0,0,0,0,0,
616,77.75,83.91,11.22,22.71,-7.575,-4.921,-84.89,-70.81,-53.07,-51.78,-98.23,-106.2,-80.69,-98.17,-99.3,-124.7,0,0,0,0,0,0,0,0,0,0,0,0,0,0,0,0,
617,103.2,199.7,19.46,50.95,-16.52,-37.33,-84.91,-96.38,-60.54,-58.43,-113.0,-109.0,-92.44,-101.5,-121.0,-132.6,0,0,0,0,0,0,0,0,0,0,0,0,0,0,0,0,
618,129.2,289.0,27.04,65.15,-18.55,20.55,-75.21,-98.26,-68.58,-63.94,-109.8,-85.23,-83.76,-81.02,-97.72,-108.5,0,0,0,0,0,0,0,0,0,0,0,0,0,0,0,0,
619,158.5,299.2,20.71,69.62,-10.53,24.53,-92.78,-75.64,-53.68,-50.6,-104.0,-64.89,-78.08,-63.61,-76.41,-84.29,0,0,0,0,0,0,0,0,0,0,0,0,0,0,0,0,
620,164.0,281.8,28.64,74.96,-8.893,25.32,-85.42,-77.25,-48.06,-30.94,-106.0,-77.53,-101.7,-80.28,-102.1,-103.7,0,0,0,0,0,0,0,0,0,0,0,0,0,0,0,0,
621,197.9,237.3,39.87,58.39,-14.13,49.92,-67.54,-67.2,-75.72,-47.76,-113.6,-96.73,-126.3,-100.1,-125.4,-132.3,0,0,0,0,0,0,0,0,0,0,0,0,0,0,0,0,
622,247.7,206.6,51.27,55.8,-2.489,48.55,-75.0,-57.04,-85.7,-67.92,-114.0,-83.27,-118.2,-86.73,-105.0,-117.2,0,0,0,0,0,0,0,0,0,0,0,0,0,0,0,0,
623,245.2,268.7,73.19,78.85,11.62,41.94,-85.12,-84.21,-60.8,-56.24,-102.2,-74.09,-101.8,-78.68,-92.42,-106.6,0,0,0,0,0,0,0,0,0,0,0,0,0,0,0,0,
624,218.0,312.5,60.67,71.95,-1.92,22.03,-91.63,-94.35,-50.93,-59.01,-98.3,-93.0,-101.6,-95.87,-106.3,-123.3,0,0,0,0,0,0,0,0,0,0,0,0,0,0,0,0,
625,158.1,252.1,25.13,42.34,-15.83,9.325,-89.06,-86.8,-61.44,-70.02,-107.1,-104.6,-105.3,-105.3,-110.3,-126.3,0,0,0,0,0,0,0,0,0,0,0,0,0,0,0,0,
626,86.85,201.7,13.79,17.95,-14.52,21.01,-83.38,-102.3,-61.23,-67.79,-113.6,-108.6,-106.9,-109.7,-111.9,-127.6,0,0,0,0,0,0,0,0,0,0,0,0,0,0,0,0,
627,118.6,195.0,4.911,4.12,-22.29,3.25,-88.36,-102.9,-52.7,-78.03,-107.4,-105.9,-99.69,-104.2,-107.7,-118.4,0,0,0,0,0,0,0,0,0,0,0,0,0,0,0,0,
628,159.5,161.0,-2.727,23.98,-24.98,7.549,-77.49,-71.64,-54.91,-72.44,-82.65,-76.21,-76.66,-70.18,-78.09,-77.86,0,0,0,0,0,0,0,0,0,0,0,0,0,0,0,0,
629,96.75,126.0,-1.912,43.15,-13.94,33.49,-63.57,-46.26,-62.01,-45.66,-62.97,-48.36,-64.56,-50.98,-65.23,-63.97,0,0,0,0,0,0,0,0,0,0,0,0,0,0,0,0,
630,64.27,125.8,-24.62,14.6,-28.62,-27.62,-76.69,-48.28,-61.48,-53.83,-69.87,-49.21,-74.99,-66.73,-78.52,-81.41,0,0,0,0,0,0,0,0,0,0,0,0,0,0,0,0,
631,63.25,101.1,-46.1,-15.77,-55.86,-72.29,-78.28,-58.35,-62.51,-69.28,-70.44,-58.77,-76.14,-69.8,-72.03,-78.6,0,0,0,0,0,0,0,0,0,0,0,0,0,0,0,0,
632,-3.576,52.05,-36.02,-18.27,-44.03,-31.69,-58.29,-42.09,-56.22,-48.23,-57.85,-60.5,-66.27,-55.76,-66.42,-76.1,0,0,0,0,0,0,0,0,0,0,0,0,0,0,0,0,
633,-35.02,45.95,-36.16,-31.85,-26.62,-29.93,-54.8,-32.37,-39.34,-35.89,-64.35,-53.02,-68.08,-51.12,-82.03,-79.98,0,0,0,0,0,0,0,0,0,0,0,0,0,0,0,0,
634,-16.71,18.02,-55.42,-55.71,-45.27,-24.28,-63.13,-62.35,-46.91,-45.32,-63.98,-41.53,-61.62,-41.22,-68.89,-59.31,0,0,0,0,0,0,0,0,0,0,0,0,0,0,0,0,
635,-26.95,-60.62,-61.43,-45.23,-51.77,1.58,-59.1,-70.6,-52.08,-36.61,-39.97,-26.13,-36.96,-19.15,-33.67,-37.51,0,0,0,0,0,0,0,0,0,0,0,0,0,0,0,0,
636,-20.13,-51.46,-66.93,-11.46,-37.39,-43.58,-57.32,-44.14,-27.77,-26.45,-41.8,-12.64,-38.77,-14.87,-35.31,-36.83,0,0,0,0,0,0,0,0,0,0,0,0,0,0,0,0,
637,-32.98,0.7684,-78.59,-12.18,-48.48,-36.04,-76.88,-35.47,-44.97,-37.44,-62.89,-22.74,-69.79,-30.42,-56.45,-43.19,0,0,0,0,0,0,0,0,0,0,0,0,0,0,0,0,
638,-94.64,-33.37,-62.77,-38.01,-52.82,29.02,-76.86,-26.97,-86.37,-35.13,-50.3,-32.3,-70.73,-31.19,-47.42,-43.53,0,0,0,0,0,0,0,0,0,0,0,0,0,0,0,0,
639,-81.31,-31.45,-32.79,-34.93,-23.53,-17.39,-39.1,-9.613,-60.86,-16.39,-19.29,-9.506,-34.74,-16.59,-14.94,-22.63,0,0,0,0,0,0,0,0,0,0,0,0,0,0,0,0,
640,-29.76,19.42,-33.13,-12.91,-12.9,-66.95,-27.11,-15.83,-16.36,-13.12,-5.44,9.264,-7.702,-8.566,10.93,9.164,0,0,0,0,0,0,0,0,0,0,0,0,0,0,0,0,
641,-46.75,-42.75,-47.41,-10.37,-25.37,-29.1,-29.48,-16.89,-12.0,-14.17,0.1454,14.54,3.561,1.944,18.49,20.24,0,0,0,0,0,0,0,0,0,0,0,0,0,0,0,0,
642,-57.31,-99.93,-44.64,-26.55,-20.09,-17.31,-1.487,0.6283,-10.33,-6.054,11.39,29.48,16.62,13.98,18.23,16.48,0,0,0,0,0,0,0,0,0,0,0,0,0,0,0,0,
643,-33.95,-21.82,-34.98,-27.37,-3.101,-26.32,-1.378,-6.936,-0.678,-1.635,28.09,32.01,29.33,12.49,29.43,23.49,0,0,0,0,0,0,0,0,0,0,0,0,0,0,0,0,
644,-28.69,8.47,-23.2,4.059,7.344,-19.69,-10.89,-12.73,8.934,1.916,45.89,31.46,37.68,18.47,47.2,43.0,0,0,0,0,0,0,0,0,0,0,0,0,0,0,0,0,
645,-29.89,-59.24,-10.1,16.56,11.95,2.094,29.46,26.33,16.69,12.48,50.35,43.05,36.93,33.2,48.6,51.13,0,0,0,0,0,0,0,0,0,0,0,0,0,0,0,0,
646,-48.46,-65.41,-11.0,-11.09,8.577,38.94,30.17,53.44,4.488,26.62,32.85,24.53,21.9,22.09,33.53,30.51,0,0,0,0,0,0,0,0,0,0,0,0,0,0,0,0,
647,-79.81,-37.93,-22.73,-13.84,-0.6422,11.14,-19.98,36.91,-8.84,32.04,13.4,5.315,11.19,7.598,23.55,14.21,0,0,0,0,0,0,0,0,0,0,0,0,0,0,0,0,
648,-67.6,-43.61,-30.22,15.55,0.7747,-30.34,-17.4,30.03,0.0129,23.82,9.55,39.44,20.04,29.07,28.62,32.51,0,0,0,0,0,0,0,0,0,0,0,0,0,0,0,0,
649,-24.19,-9.002,-29.6,30.62,16.08,16.23,8.453,38.91,8.51,28.41,13.07,65.89,31.6,52.19,39.06,51.77,0,0,0,0,0,0,0,0,0,0,0,0,0,0,0,0,
650,-9.117,22.13,-22.43,26.45,19.83,20.14,17.4,34.02,5.967,49.78,22.84,58.7,36.89,52.76,48.36,56.09,0,0,0,0,0,0,0,0,0,0,0,0,0,0,0,0,
651,-37.94,-32.79,-13.66,-1.078,3.803,-39.24,31.97,33.1,6.309,51.4,35.82,71.3,44.26,62.44,57.22,67.19,0,0,0,0,0,0,0,0,0,0,0,0,0,0,0,0,
652,-57.57,-85.0,-5.967,-23.36,-3.233,-0.2918,19.37,47.62,16.44,39.61,35.41,77.98,47.08,71.5,58.33,67.83,0,0,0,0,0,0,0,0,0,0,0,0,0,0,0,0,
653,-43.02,-89.18,-5.861,-2.3,7.639,63.21,2.565,58.77,23.6,43.84,32.27,53.63,37.27,53.51,50.56,52.18,0,0,0,0,0,0,0,0,0,0,0,0,0,0,0,0,
654,-64.69,-94.32,-20.17,8.106,13.29,38.48,23.88,60.46,9.492,51.48,34.2,50.44,23.08,39.86,43.03,52.56,0,0,0,0,0,0,0,0,0,0,0,0,0,0,0,0,
655,-91.67,-81.33,-20.64,-1.596,17.71,28.56,25.74,57.57,-1.382,50.84,26.06,64.19,19.38,45.5,35.56,59.55,0,0,0,0,0,0,0,0,0,0,0,0,0,0,0,0,
656,-32.41,-39.03,8.589,24.28,39.92,42.53,20.5,50.27,18.04,51.13,27.29,62.61,35.85,48.75,37.44,59.57,0,0,0,0,0,0,0,0,0,0,0,0,0,0,0,0,
657,12.38,12.98,24.37,39.49,53.06,7.471,56.49,44.09,36.58,57.05,51.41,68.09,60.48,54.12,59.59,71.74,0,0,0,0,0,0,0,0,0,0,0,0,0,0,0,0,T1
658,-9.761,47.97,22.18,25.08,40.16,11.73,67.87,53.26,38.0,70.87,68.71,77.38,77.51,63.79,79.29,85.06,0,0,0,0,0,0,0,0,0,0,0,0,0,0,0,0,
659,7.652,-0.3278,33.69,40.77,37.19,59.54,48.87,68.26,46.95,78.38,69.76,74.98,87.76,65.1,79.29,85.23,0,0,0,0,0,0,0,0,0,0,0,0,0,0,0,0,
660,14.18,-75.31,27.55,49.19,43.37,32.59,53.08,63.89,57.69,61.68,60.4,82.56,84.46,60.42,73.84,85.92,0,0,0,0,0,0,0,0,0,0,0,0,0,0,0,0,
661,-31.58,-48.29,4.332,25.59,37.06,17.84,40.45,53.02,49.08,40.03,48.16,93.73,69.09,53.79,71.75,87.61,0,0,0,0,0,0,0,0,0,0,0,0,0,0,0,0,
662,-8.747,11.33,20.32,29.03,44.87,75.54,22.9,52.8,35.08,39.86,53.8,88.76,65.93,53.24,69.27,84.74,0,0,0,0,0,0,0,0,0,0,0,0,0,0,0,0,
663,37.65,19.03,44.09,48.22,66.31,63.8,53.86,57.57,41.03,54.76,61.69,80.2,72.31,63.97,61.1,75.96,0,0,0,0,0,0,0,0,0,0,0,0,0,0,0,0,
664,11.78,29.05,35.5,52.19,72.24,26.76,62.89,72.46,53.52,71.3,54.76,77.58,71.32,74.39,57.23,68.18,0,0,0,0,0,0,0,0,0,0,0,0,0,0,0,0,
665,-11.99,9.499,31.84,47.81,69.58,62.52,31.04,79.35,48.67,86.44,63.36,83.75,73.67,83.04,71.68,76.44,0,0,0,0,0,0,0,0,0,0,0,0,0,0,0,0,
666,-24.79,-60.09,27.95,30.03,55.76,59.74,35.46,59.53,50.2,89.42,76.9,94.78,78.1,87.64,74.55,78.75,0,0,0,0,0,0,0,0,0,0,0,0,0,0,0,0,
667,-44.65,-66.21,3.155,17.85,25.03,34.14,39.88,48.6,57.85,72.3,56.84,90.6,62.13,75.41,47.86,55.13,0,0,0,0,0,0,0,0,0,0,0,0,0,0,0,0,
668,-17.99,-21.03,-10.44,15.84,-0.0001,61.63,10.83,55.52,19.7,54.65,30.79,73.7,33.73,56.21,34.88,40.47,0,0,0,0,0,0,0,0,0,0,0,0,0,0,0,0,
669,-14.73,-16.82,-12.69,4.522,-12.43,31.23,18.08,54.13,-30.83,51.1,27.13,64.92,22.06,44.83,42.92,45.51,0,0,0,0,0,0,0,0,0,0,0,0,0,0,0,0,
670,-68.49,-21.31,-21.09,6.903,-11.49,-40.83,38.32,50.75,-20.83,43.84,24.33,61.39,21.83,35.82,37.04,40.31,0,0,0,0,0,0,0,0,0,0,0,0,0,0,0,0,
671,-61.57,-19.02,-17.71,19.93,6.656,-26.91,14.65,46.65,1.36,23.29,20.24,56.45,14.67,25.98,27.09,30.47,0,0,0,0,0,0,0,0,0,0,0,0,0,0,0,0,
672,-19.01,-39.89,-0.0333,18.04,24.73,14.71,10.89,37.77,-11.36,2.71,33.09,61.26,24.09,24.99,37.88,40.71,0,0,0,0,0,0,0,0,0,0,0,0,0,0,0,0,
673,-17.59,-41.1,15.82,17.83,34.01,15.72,50.19,39.65,3.997,-3.585,55.76,71.66,58.35,37.38,61.82,59.65,0,0,0,0,0,0,0,0,0,0,0,0,0,0,0,0,
674,3.09,-3.654,25.12,20.46,39.91,13.02,61.57,49.95,48.26,12.44,69.64,72.88,75.42,50.6,77.99,64.1,0,0,0,0,0,0,0,0,0,0,0,0,0,0,0,0,
675,20.2,4.437,28.64,24.69,46.52,33.1,50.39,58.28,53.65,40.81,71.92,79.83,77.63,60.55,81.44,66.43,0,0,0,0,0,0,0,0,0,0,0,0,0,0,0,0,
676,-21.06,-36.3,28.63,36.25,58.3,80.17,64.91,57.96,54.07,68.03,71.13,93.4,88.25,71.5,81.39,73.79,0,0,0,0,0,0,0,0,0,0,0,0,0,0,0,0,
677,-27.79,-35.41,23.17,28.93,62.58,92.32,73.42,42.0,80.18,83.45,63.43,82.72,75.62,66.16,66.5,59.52,0,0,0,0,0,0,0,0,0,0,0,0,0,0,0,0,
678,13.88,12.28,13.3,18.31,48.08,34.78,41.72,28.03,62.59,64.43,40.39,62.54,44.23,46.91,37.99,36.52,0,0,0,0,0,0,0,0,0,0,0,0,0,0,0,0,
679,13.22,-2.682,10.44,35.91,29.41,11.95,3.414,30.15,13.73,28.19,25.97,59.3,40.61,45.56,36.76,38.55,0,0,0,0,0,0,0,0,0,0,0,0,0,0,0,0,
680,1.148,-27.72,21.17,43.94,25.39,37.76,2.299,41.56,16.05,23.21,41.99,54.85,53.6,57.69,60.64,50.31,0,0,0,0,0,0,0,0,0,0,0,0,0,0,0,0,
681,13.49,7.454,34.87,25.89,38.66,31.45,44.62,61.08,48.02,36.39,54.93,55.55,59.59,63.74,66.27,58.41,0,0,0,0,0,0,0,0,0,0,0,0,0,0,0,0,
682,5.469,-17.45,30.64,24.08,47.08,43.65,68.18,72.64,56.89,35.62,40.71,69.39,61.26,63.03,53.01,58.59,0,0,0,0,0,0,0,0,0,0,0,0,0,0,0,0,
683,0.9242,-59.53,19.49,45.61,44.1,75.68,37.96,62.48,52.33,30.15,30.49,62.72,55.59,51.33,41.95,38.55,0,0,0,0,0,0,0,0,0,0,0,0,0,0,0,0,
684,10.36,-0.3021,29.73,55.07,52.15,48.62,42.59,50.04,51.53,23.6,37.02,49.97,50.41,40.62,36.59,26.65,0,0,0,0,0,0,0,0,0,0,0,0,0,0,0,0,
685,-7.914,19.51,35.47,40.39,51.24,33.07,73.68,39.03,48.09,14.63,42.9,64.06,51.29,45.74,38.47,40.69,0,0,0,0,0,0,0,0,0,0,0,0,0,0,0,0,
686,-4.249,-15.76,12.39,19.85,20.85,39.39,18.76,32.15,32.38,8.976,43.5,68.61,47.61,46.62,46.43,49.67,0,0,0,0,0,0,0,0,0,0,0,0,0,0,0,0,
687,22.17,17.83,-4.081,11.89,5.341,-14.2,-24.7,49.1,21.74,5.869,35.65,50.19,42.22,36.15,48.68,46.31,0,0,0,0,0,0,0,0,0,0,0,0,0,0,0,0,
688,0.8221,22.18,9.484,32.27,21.15,-21.28,36.96,57.95,26.66,13.27,32.89,47.86,43.18,31.98,44.49,43.58,0,0,0,0,0,0,0,0,0,0,0,0,0,0,0,0,
689,4.926,-12.34,40.24,58.11,37.7,43.3,59.91,39.82,28.01,25.57,45.5,50.46,49.81,31.46,47.55,43.42,0,0,0,0,0,0,0,0,0,0,0,0,0,0,0,0,
690,54.52,12.66,53.97,41.32,47.22,26.25,27.52,46.81,37.67,27.09,38.81,39.8,54.23,33.81,47.45,47.04,0,0,0,0,0,0,0,0,0,0,0,0,0,0,0,0,
691,40.29,19.48,32.85,21.97,50.09,-2.304,52.97,67.76,57.21,29.8,20.69,45.88,51.57,45.0,32.44,43.14,0,0,0,0,0,0,0,0,0,0,0,0,0,0,0,0,
692,19.16,20.22,24.27,52.66,47.95,45.53,81.43,53.49,52.6,35.52,32.71,58.08,56.19,48.44,31.79,29.41,0,0,0,0,0,0,0,0,0,0,0,0,0,0,0,0,
693,43.59,47.9,33.77,74.71,41.84,43.22,63.47,44.19,42.32,37.78,39.95,53.47,67.75,48.2,49.71,29.12,0,0,0,0,0,0,0,0,0,0,0,0,0,0,0,0,
694,7.888,-0.7279,9.057,62.53,22.75,18.1,54.86,57.23,42.07,53.08,26.88,65.57,65.11,66.52,55.13,45.61,0,0,0,0,0,0,0,0,0,0,0,0,0,0,0,0,
695,-43.92,-25.47,-5.73,57.41,10.08,47.28,58.05,47.14,29.62,70.14,34.43,81.3,55.27,75.84,54.14,50.87,0,0,0,0,0,0,0,0,0,0,0,0,0,0,0,0,
696,-10.23,42.29,36.07,41.03,26.45,25.22,54.89,29.88,30.06,62.74,40.07,61.33,55.77,58.08,55.21,35.37,0,0,0,0,0,0,0,0,0,0,0,0,0,0,0,0,
697,29.15,34.63,74.06,15.67,55.4,-1.22,59.65,35.17,54.73,47.08,33.99,49.26,65.74,52.88,52.19,28.89,0,0,0,0,0,0,0,0,0,0,0,0,0,0,0,0,
698,29.6,-4.129,91.35,20.4,78.89,67.64,83.66,42.23,67.58,41.19,59.01,56.81,79.91,58.57,63.16,41.35,0,0,0,0,0,0,0,0,0,0,0,0,0,0,0,0,
699,50.17,13.79,119.3,20.86,89.73,91.52,114.5,38.31,72.25,37.54,87.96,37.45,88.26,43.23,81.94,42.77,0,0,0,0,0,0,0,0,0,0,0,0,0,0,0,0,
700,78.03,-2.438,139.7,1.551,90.78,29.39,120.3,25.66,84.71,30.94,86.89,21.73,85.99,30.88,78.45,33.68,0,0,0,0,0,0,0,0,0,0,0,0,0,0,0,0,
701,82.02,10.08,141.3,2.573,94.66,-1.766,109.7,17.64,87.27,19.2,78.99,35.77,76.37,35.09,56.19,29.76,0,0,0,0,0,0,0,0,0,0,0,0,0,0,0,0,
702,73.69,70.14,129.5,0.7054,91.03,-6.551,102.2,24.56,67.06,4.568,62.15,35.78,60.43,33.6,33.66,18.57,0,0,0,0,0,0,0,0,0,0,0,0,0,0,0,0,
703,40.81,34.19,106.8,-23.34,75.18,10.1,87.12,23.67,44.43,3.445,40.39,28.01,52.17,35.86,27.41,13.77,0,0,0,0,0,0,0,0,0,0,0,0,0,0,0,0,
704,14.41,-31.65,104.2,-20.94,72.38,56.89,84.43,17.36,51.3,22.24,39.73,35.3,58.58,44.62,35.75,26.75,0,0,0,0,0,0,0,0,0,0,0,0,0,0,0,0,
705,53.71,-14.91,119.7,-1.674,75.39,61.72,90.75,22.5,72.32,37.34,39.1,29.21,58.21,38.9,31.45,21.69,0,0,0,0,0,0,0,0,0,0,0,0,0,0,0,0,
706,77.32,24.34,102.8,-15.54,51.2,27.73,69.53,15.66,63.96,27.84,23.18,14.81,43.03,31.55,19.25,5.156,0,0,0,0,0,0,0,0,0,0,0,0,0,0,0,0,
707,26.67,19.68,66.55,-31.01,21.23,1.763,61.85,9.828,36.68,9.063,20.6,16.45,31.56,33.0,22.63,12.6,0,0,0,0,0,0,0,0,0,0,0,0,0,0,0,0,
708,24.11,-40.31,62.76,-15.47,29.29,-7.263,81.72,28.72,27.37,6.731,33.85,13.37,32.82,24.51,26.48,18.42,0,0,0,0,0,0,0,0,0,0,0,0,0,0,0,0,
709,65.31,-55.55,75.65,-15.21,49.15,14.66,68.12,25.27,29.45,12.84,33.78,-0.0546,32.59,12.36,15.36,2.013,0,0,0,0,0,0,0,0,0,0,0,0,0,0,0,0,
710,31.72,34.48,72.18,-41.57,34.72,12.17,41.22,-6.563,22.21,0.1491,13.08,-4.538,18.03,8.563,2.202,-9.595,0,0,0,0,0,0,0,0,0,0,0,0,0,0,0,0,
711,6.508,56.74,64.44,-40.8,8.372,-35.09,36.13,-16.57,11.39,-22.77,-1.363,-5.958,5.536,-0.8333,-0.8459,-9.708,0,0,0,0,0,0,0,0,0,0,0,0,0,0,0,0,
712,44.59,-38.83,55.62,-21.58,-2.429,-35.04,30.63,-14.7,4.396,-29.92,2.881,-11.63,7.588,-13.37,-0.0402,-12.21,0,0,0,0,0,0,0,0,0,0,0,0,0,0,0,0,
713,21.32,-57.22,35.89,-32.39,-11.07,-18.9,38.56,-20.9,1.075,-34.26,1.493,-15.91,6.127,-13.99,-4.469,-12.5,0,0,0,0,0,0,0,0,0,0,0,0,0,0,0,0,
714,-42.64,-1.559,22.08,-45.85,-20.12,-59.99,43.15,-12.92,2.722,-42.96,-4.484,-17.39,-0.119,-10.31,-3.236,-3.508,0,0,0,0,0,0,0,0,0,0,0,0,0,0,0,0,
715,-35.26,-36.23,23.6,-38.63,-24.48,-60.25,13.02,4.244,-0.3501,-36.13,3.458,-15.08,3.382,-9.733,3.284,2.406,0,0,0,0,0,0,0,0,0,0,0,0,0,0,0,0,
716,-12.24,-101.1,21.55,-50.14,-22.53,1.989,11.26,-7.368,0.9508,-29.07,6.26,-14.29,7.842,-6.734,-0.2257,-2.338,0,0,0,0,0,0,0,0,0,0,0,0,0,0,0,0,
717,-42.05,-75.37,5.905,-68.98,-18.65,-23.49,33.66,-37.72,18.64,-39.03,2.833,-19.04,6.683,-0.9852,0.2518,-2.544,0,0,0,0,0,0,0,0,0,0,0,0,0,0,0,0,
718,-63.11,-42.76,-11.51,-61.34,-31.99,-113.5,6.558,-32.11,8.498,-45.2,7.62,-21.73,2.6,2.093,2.475,-1.251,0,0,0,0,0,0,0,0,0,0,0,0,0,0,0,0,
719,-41.24,-48.37,-14.2,-55.57,-39.66,-83.29,-15.37,-11.19,-23.98,-37.9,-3.546,-21.49,-7.09,-1.367,-12.74,-14.12,0,0,0,0,0,0,0,0,0,0,0,0,0,0,0,0,
720,-36.73,-28.53,-5.609,-63.91,-22.11,6.657,6.537,-31.11,-13.58,-27.54,-23.57,-23.93,-19.15,-11.65,-22.37,-25.38,0,0,0,0,0,0,0,0,0,0,0,0,0,0,0,0,
721,-64.46,-43.76,-10.27,-65.18,-34.78,-31.67,2.189,-46.76,-9.412,-36.58,-25.48,-35.46,-38.0,-31.02,-29.95,-30.46,0,0,0,0,0,0,0,0,0,0,0,0,0,0,0,0,
722,-68.71,-91.01,-27.72,-58.83,-72.02,-101.2,-27.72,-31.47,-53.61,-69.21,-28.56,-52.89,-57.57,-55.63,-51.01,-42.62,0,0,0,0,0,0,0,0,0,0,0,0,0,0,0,0,
723,-50.3,-56.38,-30.28,-58.68,-70.11,-79.43,-42.91,-41.89,-65.96,-84.17,-34.82,-55.19,-53.33,-66.49,-48.43,-46.98,0,0,0,0,0,0,0,0,0,0,0,0,0,0,0,0,
724,-57.05,-43.69,-24.16,-79.74,-62.28,-88.55,-45.8,-63.82,-54.14,-80.56,-40.74,-52.49,-48.56,-65.87,-39.08,-45.77,0,0,0,0,0,0,0,0,0,0,0,0,0,0,0,0,
725,-84.0,-126.8,-33.28,-98.19,-74.33,-126.5,-30.81,-59.73,-63.77,-88.74,-54.75,-65.35,-61.89,-68.15,-50.99,-47.76,0,0,0,0,0,0,0,0,0,0,0,0,0,0,0,0,
726,-89.94,-125.5,-33.19,-75.66,-56.82,-68.34,-6.199,-46.88,-39.95,-77.42,-33.49,-52.4,-42.27,-48.87,-26.84,-18.03,0,0,0,0,0,0,0,0,0,0,0,0,0,0,0,0,
727,-49.46,-34.3,1.254,-39.03,-19.78,-6.676,11.07,-16.5,-2.679,-37.56,15.93,-4.14,4.277,-6.271,20.61,30.0,0,0,0,0,0,0,0,0,0,0,0,0,0,0,0,0,
728,9.388,-3.784,31.89,-22.29,-5.486,-28.85,24.34,22.73,-9.706,-15.44,20.03,12.85,12.27,7.833,23.8,36.69,0,0,0,0,0,0,0,0,0,0,0,0,0,0,0,0,
729,7.78,1.27,28.91,-16.84,-7.079,-29.27,26.86,27.07,-8.979,-13.07,4.767,3.582,-0.2346,-2.924,16.19,26.06,0,0,0,0,0,0,0,0,0,0,0,0,0,0,0,0,
730,-42.84,12.49,18.5,-12.65,-7.738,8.757,26.3,7.574,10.34,-10.48,16.53,18.38,9.326,7.521,27.3,39.4,0,0,0,0,0,0,0,0,0,0,0,0,0,0,0,0,
731,-40.78,-13.16,14.56,-6.03,-6.551,-9.789,35.0,-9.837,5.541,-4.155,17.98,20.65,16.95,21.01,21.28,34.73,0,0,0,0,0,0,0,0,0,0,0,0,0,0,0,0,
732,-20.18,-27.16,1.799,-19.39,-15.56,-41.41,23.54,-20.65,3.739,4.087,2.265,-11.78,1.751,10.1,0.0186,-1.82,0,0,0,0,0,0,0,0,0,0,0,0,0,0,0,0,
733,-58.24,-45.44,-20.58,-57.95,-34.17,-7.092,-21.0,-11.21,8.724,-3.328,-8.377,-21.25,-16.04,-0.5953,-6.282,-11.9,0,0,0,0,0,0,0,0,0,0,0,0,0,0,0,0,
734,-72.41,-105.6,-35.76,-62.47,-41.48,1.482,-49.83,5.664,-10.64,-19.82,-16.92,-2.127,-16.38,-0.3229,0.2677,9.537,0,0,0,0,0,0,0,0,0,0,0,0,0,0,0,0,
735,-29.0,-75.51,-25.29,-32.48,-34.23,-57.36,-20.92,-5.141,-14.38,-21.13,-12.68,2.673,-6.786,-2.545,-0.6863,13.83,0,0,0,0,0,0,0,0,0,0,0,0,0,0,0,0,
736,-12.56,28.83,-5.989,-26.78,-24.14,-62.28,18.25,-34.79,15.16,-19.23,-0.4631,-2.913,-5.288,-4.543,-4.248,1.833,0,0,0,0,0,0,0,0,0,0,0,0,0,0,0,0,
737,-27.64,14.01,-19.12,-28.33,-24.9,-27.63,1.953,-37.9,12.25,-19.85,-6.886,-10.97,-15.42,-8.397,-3.219,-5.758,0,0,0,0,0,0,0,0,0,0,0,0,0,0,0,0,
738,-49.19,-50.66,-45.27,-21.93,-42.78,-44.77,-24.09,-10.46,-29.2,-19.02,-26.85,-25.75,-35.21,-20.67,-22.21,-18.97,0,0,0,0,0,0,0,0,0,0,0,0,0,0,0,0,
739,-66.07,-43.32,-45.02,-45.08,-59.37,-49.13,-18.38,-5.351,-51.08,-32.94,-45.66,-29.71,-52.95,-31.52,-48.02,-35.03,0,0,0,0,0,0,0,0,0,0,0,0,0,0,0,0,
740,-67.34,-77.9,-46.0,-75.06,-65.33,-29.88,-39.4,-35.15,-55.08,-48.65,-55.09,-29.61,-53.03,-39.88,-39.78,-39.72,0,0,0,0,0,0,0,0,0,0,0,0,0,0,0,0,
741,-102.1,-143.2,-64.3,-70.56,-65.51,-54.34,-74.2,-44.6,-55.81,-47.43,-46.28,-36.68,-44.38,-44.49,-21.68,-36.59,0,0,0,0,0,0,0,0,0,0,0,0,0,0,0,0,
742,-134.8,-111.7,-70.91,-56.14,-57.78,-62.39,-60.6,-23.0,-36.39,-42.98,-38.04,-26.96,-36.41,-32.32,-25.45,-30.25,0,0,0,0,0,0,0,0,0,0,0,0,0,0,0,0,
743,-79.01,-54.41,-59.81,-57.61,-51.35,-29.51,-36.18,-22.38,-20.97,-29.16,-47.89,-14.7,-30.56,-21.22,-37.66,-29.41,0,0,0,0,0,0,0,0,0,0,0,0,0,0,0,0,
744,-29.21,-44.17,-39.87,-65.16,-45.36,-25.26,-27.49,-46.53,-26.89,-10.59,-50.16,-22.17,-30.56,-24.01,-40.49,-35.4,0,0,0,0,0,0,0,0,0,0,0,0,0,0,0,0,
745,-52.07,-33.53,-32.26,-61.76,-34.63,-29.49,-21.89,-48.42,-21.38,-17.3,-35.88,-18.33,-27.67,-15.97,-25.7,-31.27,0,0,0,0,0,0,0,0,0,0,0,0,0,0,0,0,
746,-62.23,-41.91,-54.99,-51.3,-46.65,-27.05,-49.61,-30.49,-20.05,-29.31,-40.84,-14.18,-36.52,-14.08,-25.68,-31.19,0,0,0,0,0,0,0,0,0,0,0,0,0,0,0,0,
747,-66.44,-91.29,-71.57,-60.63,-73.91,-59.11,-79.3,-38.59,-55.81,-30.84,-61.84,-35.58,-64.79,-39.22,-56.51,-51.78,0,0,0,0,0,0,0,0,0,0,0,0,0,0,0,0,
748,-93.58,-107.9,-63.13,-75.71,-71.06,-81.37,-52.01,-70.24,-76.33,-42.16,-60.92,-43.21,-65.12,-49.09,-56.94,-59.32,0,0,0,0,0,0,0,0,0,0,0,0,0,0,0,0,
749,-94.36,-64.01,-69.25,-60.18,-61.52,-71.69,-38.34,-79.6,-51.49,-45.76,-54.24,-45.82,-49.55,-47.12,-29.71,-49.39,0,0,0,0,0,0,0,0,0,0,0,0,0,0,0,0,
750,-89.64,-25.92,-87.67,-50.36,-82.38,-92.19,-80.65,-61.71,-44.67,-43.97,-63.29,-76.4,-65.17,-67.62,-36.76,-55.21,0,0,0,0,0,0,0,0,0,0,0,0,0,0,0,0,
751,-110.5,-60.3,-79.35,-80.77,-87.87,-94.4,-88.96,-52.14,-61.8,-60.23,-63.27,-83.23,-70.46,-73.6,-49.45,-66.23,0,0,0,0,0,0,0,0,0,0,0,0,0,0,0,0,
752,-126.3,-155.2,-61.29,-106.7,-60.97,-29.92,-68.99,-58.92,-49.77,-55.96,-68.79,-63.71,-63.09,-64.63,-51.86,-76.49,0,0,0,0,0,0,0,0,0,0,0,0,0,0,0,0,
753,-120.0,-171.6,-71.71,-100.2,-68.99,-29.89,-93.0,-68.32,-42.56,-40.43,-99.82,-72.45,-91.32,-83.25,-75.97,-94.1,0,0,0,0,0,0,0,0,0,0,0,0,0,0,0,0,
754,-77.96,-62.98,-87.94,-78.03,-108.5,-115.8,-101.5,-77.53,-69.97,-67.05,-101.7,-74.01,-106.0,-88.91,-83.01,-84.46,0,0,0,0,0,0,0,0,0,0,0,0,0,0,0,0,
755,-44.93,-23.22,-79.04,-62.11,-103.3,-126.0,-77.77,-75.98,-74.61,-83.8,-68.99,-53.66,-83.82,-64.78,-64.35,-59.08,0,0,0,0,0,0,0,0,0,0,0,0,0,0,0,0,
756,-86.07,-67.15,-74.75,-74.72,-69.66,-69.15,-97.44,-65.45,-59.77,-60.16,-64.87,-65.01,-82.47,-68.39,-65.51,-70.58,0,0,0,0,0,0,0,0,0,0,0,0,0,0,0,0,
757,-120.7,-41.29,-87.39,-86.21,-70.12,-61.13,-113.9,-71.29,-73.56,-59.82,-74.68,-76.14,-89.93,-83.29,-65.36,-84.87,0,0,0,0,0,0,0,0,0,0,0,0,0,0,0,0,
758,-91.28,-74.53,-81.79,-61.25,-86.13,-69.49,-89.09,-84.28,-82.71,-71.44,-67.86,-53.77,-83.12,-73.9,-62.35,-73.64,0,0,0,0,0,0,0,0,0,0,0,0,0,0,0,0,
759,-83.22,-166.8,-65.68,-51.98,-84.07,-55.4,-82.58,-78.89,-66.77,-63.11,-71.74,-53.37,-88.48,-75.33,-79.0,-78.14,0,0,0,0,0,0,0,0,0,0,0,0,0,0,0,0,
760,-93.84,-74.56,-69.22,-91.07,-80.56,-62.93,-78.67,-65.16,-68.73,-76.06,-71.39,-70.4,-94.68,-86.21,-70.89,-83.55,0,0,0,0,0,0,0,0,0,0,0,0,0,0,0,0,
761,-74.57,10.81,-78.2,-121.2,-81.21,-88.14,-74.23,-63.91,-80.9,-94.73,-55.3,-65.12,-91.33,-80.76,-51.22,-69.89,0,0,0,0,0,0,0,0,0,0,0,0,0,0,0,0,
762,-66.0,-85.78,-74.7,-104.1,-68.99,-84.54,-92.38,-76.59,-69.1,-74.73,-58.34,-69.05,-93.22,-81.31,-63.64,-74.6,0,0,0,0,0,0,0,0,0,0,0,0,0,0,0,0,
763,-61.83,-77.26,-67.88,-62.61,-57.2,-58.45,-79.05,-82.25,-56.82,-51.5,-54.02,-83.57,-83.89,-85.6,-54.28,-77.93,0,0,0,0,0,0,0,0,0,0,0,0,0,0,0,0,
764,-56.48,-9.468,-69.66,-49.83,-61.4,-58.0,-72.45,-79.94,-54.08,-49.74,-31.0,-72.81,-68.63,-77.28,-28.81,-54.64,0,0,0,0,0,0,0,0,0,0,0,0,0,0,0,0,
765,-91.34,-116.4,-78.41,-90.33,-64.11,-81.56,-112.6,-91.07,-42.91,-56.06,-40.84,-56.17,-76.67,-78.92,-47.88,-51.66,0,0,0,0,0,0,0,0,0,0,0,0,0,0,0,0,
766,-106.0,-167.0,-83.31,-119.5,-72.17,-95.49,-96.93,-87.77,-55.7,-73.76,-53.0,-51.38,-85.54,-85.23,-57.12,-65.39,0,0,0,0,0,0,0,0,0,0,0,0,0,0,0,0,
767,-70.13,-42.6,-76.56,-89.96,-92.23,-110.7,-51.79,-57.29,-86.0,-82.01,-36.49,-49.88,-75.13,-76.27,-33.89,-56.99,0,0,0,0,0,0,0,0,0,0,0,0,0,0,0,0,
768,-62.19,15.69,-60.7,-60.1,-82.16,-104.2,-60.49,-48.11,-65.74,-64.2,-39.3,-54.61,-67.23,-69.24,-39.97,-48.97,0,0,0,0,0,0,0,0,0,0,0,0,0,0,0,0,
769,-64.16,-35.67,-53.25,-63.09,-57.05,-52.79,-56.37,-54.49,-36.27,-57.78,-39.18,-52.65,-63.07,-65.41,-49.73,-49.97,0,0,0,0,0,0,0,0,0,0,0,0,0,0,0,0,
770,-42.36,-79.19,-62.17,-60.6,-67.38,-40.41,-44.86,-52.26,-53.8,-69.27,-12.66,-43.78,-56.11,-59.72,-32.18,-44.93,0,0,0,0,0,0,0,0,0,0,0,0,0,0,0,0,
771,-51.42,-93.76,-66.9,-52.2,-73.5,-70.43,-70.71,-63.26,-51.89,-66.33,-16.81,-53.16,-60.23,-68.71,-29.15,-49.16,0,0,0,0,0,0,0,0,0,0,0,0,0,0,0,0,
772,-72.34,-82.57,-63.43,-69.84,-55.15,-67.53,-72.85,-77.13,-34.33,-66.26,-33.7,-62.64,-71.01,-78.35,-40.03,-56.66,0,0,0,0,0,0,0,0,0,0,0,0,0,0,0,0,
773,-72.48,-66.88,-69.14,-102.9,-58.68,-86.63,-60.16,-76.43,-55.41,-89.27,-27.79,-59.41,-79.04,-76.52,-51.8,-59.27,0,0,0,0,0,0,0,0,0,0,0,0,0,0,0,0,
774,-89.23,-74.63,-72.47,-109.2,-69.76,-110.6,-72.73,-68.38,-56.82,-95.41,-44.34,-75.97,-90.18,-85.62,-75.76,-78.1,0,0,0,0,0,0,0,0,0,0,0,0,0,0,0,0,
775,-90.27,-65.43,-60.91,-81.9,-64.12,-49.38,-74.35,-61.9,-36.9,-73.04,-67.63,-96.22,-95.69,-96.7,-84.71,-91.13,0,0,0,0,0,0,0,0,0,0,0,0,0,0,0,0,
776,-37.42,-30.95,-57.81,-59.87,-63.93,-36.99,-69.27,-81.96,-58.09,-70.42,-57.83,-88.22,-92.65,-93.65,-74.84,-79.76,0,0,0,0,0,0,0,0,0,0,0,0,0,0,0,0,
777,-5.937,-31.31,-69.17,-62.62,-68.78,-119.4,-76.21,-102.7,-76.81,-91.2,-57.19,-83.52,-95.25,-97.1,-80.2,-82.78,0,0,0,0,0,0,0,0,0,0,0,0,0,0,0,0,
778,-49.35,-51.56,-73.93,-83.66,-74.45,-106.2,-76.36,-83.58,-72.55,-101.9,-66.03,-90.71,-94.76,-105.3,-82.16,-94.41,0,0,0,0,0,0,0,0,0,0,0,0,0,0,0,0,
779,-103.3,-62.94,-80.89,-110.2,-84.16,-46.41,-81.61,-73.95,-83.69,-105.7,-52.02,-85.83,-91.23,-102.7,-73.3,-88.64,0,0,0,0,0,0,0,0,0,0,0,0,0,0,0,0,
780,-95.68,-106.3,-96.9,-110.8,-88.58,-77.43,-99.54,-88.19,-91.05,-101.2,-57.66,-91.55,-108.6,-106.2,-96.55,-98.5,0,0,0,0,0,0,0,0,0,0,0,0,0,0,0,0,
781,-79.4,-139.7,-100.5,-95.78,-97.9,-93.8,-106.1,-83.66,-97.41,-91.67,-92.04,-110.8,-128.5,-117.7,-124.8,-117.5,0,0,0,0,0,0,0,0,0,0,0,0,0,0,0,0,
782,-123.6,-109.5,-104.8,-102.6,-111.6,-89.78,-105.2,-87.31,-115.3,-109.4,-100.9,-105.9,-121.4,-114.4,-105.3,-105.2,0,0,0,0,0,0,0,0,0,0,0,0,0,0,0,0,
783,-135.7,-81.06,-114.6,-102.7,-111.7,-138.6,-117.3,-106.9,-108.2,-122.9,-88.63,-92.91,-108.2,-103.1,-83.8,-93.35,0,0,0,0,0,0,0,0,0,0,0,0,0,0,0,0,
784,-71.69,-74.57,-101.0,-93.3,-115.4,-137.0,-137.4,-95.85,-96.66,-100.1,-85.28,-98.07,-108.2,-102.9,-99.03,-102.4,0,0,0,0,0,0,0,0,0,0,0,0,0,0,0,0,
785,-67.95,-96.58,-99.37,-113.3,-123.9,-87.83,-140.5,-77.78,-106.8,-99.64,-86.99,-99.28,-113.7,-106.6,-107.3,-101.3,0,0,0,0,0,0,0,0,0,0,0,0,0,0,0,0,
786,-122.6,-175.2,-121.5,-116.2,-113.4,-92.36,-110.5,-97.69,-98.35,-116.5,-91.46,-95.14,-116.8,-105.6,-99.12,-99.71,0,0,0,0,0,0,0,0,0,0,0,0,0,0,0,0,
787,-111.9,-174.7,-109.0,-92.12,-109.4,-106.9,-82.08,-123.2,-83.13,-96.59,-93.34,-103.6,-114.8,-109.5,-104.2,-110.6,0,0,0,0,0,0,0,0,0,0,0,0,0,0,0,0,
788,-89.6,-58.87,-95.87,-114.1,-127.6,-119.9,-100.2,-118.6,-99.96,-92.46,-94.72,-115.4,-123.1,-121.5,-116.4,-117.7,0,0,0,0,0,0,0,0,0,0,0,0,0,0,0,0,
789,-122.3,-36.51,-117.9,-141.4,-131.7,-144.5,-130.8,-110.4,-123.4,-125.9,-108.9,-124.1,-144.9,-133.8,-128.3,-129.3,0,0,0,0,0,0,0,0,0,0,0,0,0,0,0,0,
790,-127.9,-89.0,-119.0,-113.5,-121.5,-137.6,-133.7,-116.3,-125.7,-131.4,-117.3,-131.4,-150.8,-144.0,-139.7,-139.8,0,0,0,0,0,0,0,0,0,0,0,0,0,0,0,0,
791,-89.73,-77.21,-115.6,-92.23,-119.9,-147.0,-130.8,-114.4,-119.0,-123.7,-114.2,-126.9,-140.1,-145.2,-132.8,-127.8,0,0,0,0,0,0,0,0,0,0,0,0,0,0,0,0,
792,-94.5,-127.9,-132.2,-105.0,-112.6,-140.5,-125.3,-104.9,-118.8,-134.9,-121.3,-109.5,-133.7,-128.1,-112.1,-115.7,0,0,0,0,0,0,0,0,0,0,0,0,0,0,0,0,
793,-144.6,-230.3,-125.7,-115.9,-100.5,-38.34,-116.9,-93.8,-111.0,-122.9,-117.7,-98.0,-124.4,-110.0,-104.3,-119.2,0,0,0,0,0,0,0,0,0,0,0,0,0,0,0,0,
794,-145.1,-156.4,-118.0,-111.5,-100.3,-20.07,-124.7,-80.1,-92.37,-94.81,-90.72,-100.9,-109.7,-105.6,-104.9,-117.7,0,0,0,0,0,0,0,0,0,0,0,0,0,0,0,0,
795,-80.09,-6.837,-120.2,-81.89,-103.2,-132.2,-119.9,-82.57,-99.07,-89.14,-77.99,-95.49,-100.0,-94.58,-92.89,-101.7,0,0,0,0,0,0,0,0,0,0,0,0,0,0,0,0,
796,-57.76,-1.715,-94.39,-55.71,-103.0,-121.9,-93.96,-85.93,-112.0,-78.28,-81.05,-71.47,-96.42,-72.31,-79.59,-79.05,0,0,0,0,0,0,0,0,0,0,0,0,0,0,0,0,
797,-96.12,-47.0,-76.3,-64.08,-91.7,-42.72,-79.69,-66.6,-88.36,-52.93,-69.43,-59.75,-92.51,-60.67,-75.2,-67.16,0,0,0,0,0,0,0,0,0,0,0,0,0,0,0,0,
798,-76.6,-51.83,-84.03,-63.43,-65.13,-87.91,-71.56,-57.06,-71.93,-46.86,-52.16,-65.59,-79.84,-55.61,-59.96,-66.43,0,0,0,0,0,0,0,0,0,0,0,0,0,0,0,0,
799,-14.78,-75.58,-71.73,-46.94,-54.32,-91.95,-59.35,-57.57,-81.74,-48.29,-48.06,-54.67,-69.28,-43.95,-41.9,-51.75,0,0,0,0,0,0,0,0,0,0,0,0,0,0,0,0,
800,-29.86,-77.16,-46.73,-48.05,-50.5,14.74,-39.15,-37.28,-69.61,-34.86,-39.48,-32.21,-63.14,-30.99,-41.2,-31.63,0,0,0,0,0,0,0,0,0,0,0,0,0,0,0,0,
801,-53.44,-29.26,-36.42,-32.86,-17.95,20.19,-22.54,-16.16,-40.41,-23.57,-16.99,-27.27,-41.23,-22.6,-34.48,-29.92,0,0,0,0,0,0,0,0,0,0,0,0,0,0,0,0,
802,3.377,2.587,-28.96,1.818,0.5545,-55.18,-26.86,-5.017,-23.82,-25.6,-4.99,-26.24,-23.54,-21.42,-16.84,-22.1,0,0,0,0,0,0,0,0,0,0,0,0,0,0,0,0,
803,28.9,24.78,-11.56,10.67,-12.08,-46.45,-2.135,3.591,-15.95,-27.04,-0.1606,-13.67,-22.94,-19.08,-7.195,4.682,0,0,0,0,0,0,0,0,0,0,0,0,0,0,0,0,
804,-4.883,28.47,8.293,14.26,6.364,19.09,36.24,2.349,-9.647,-7.483,16.43,-7.56,-6.039,-3.822,5.675,15.25,0,0,0,0,0,0,0,0,0,0,0,0,0,0,0,0,
805,6.388,2.723,13.42,25.8,38.02,64.7,16.13,8.606,-0.5589,22.83,26.53,-4.2,14.91,15.07,18.83,12.29,0,0,0,0,0,0,0,0,0,0,0,0,0,0,0,0,
806,26.88,33.4,11.63,23.21,30.32,49.13,12.54,24.27,13.09,27.8,29.89,17.25,20.93,31.98,29.68,33.43,0,0,0,0,0,0,0,0,0,0,0,0,0,0,0,0,
807,24.51,72.67,25.31,32.91,25.42,-8.8,52.98,31.88,30.7,24.96,44.83,38.08,35.09,48.95,55.05,60.54,0,0,0,0,0,0,0,0,0,0,0,0,0,0,0,0,
808,58.17,30.87,38.84,56.21,49.07,13.89,55.08,48.94,42.42,44.21,56.0,41.26,45.04,55.22,65.53,59.1,0,0,0,0,0,0,0,0,0,0,0,0,0,0,0,0,
809,74.08,29.85,37.51,58.4,67.29,90.76,61.66,62.66,39.19,50.68,62.18,45.27,45.63,55.69,49.55,51.73,0,0,0,0,0,0,0,0,0,0,0,0,0,0,0,0,
810,59.86,90.23,46.24,61.78,75.2,71.59,80.74,51.11,41.12,40.11,72.05,52.45,61.17,61.71,49.69,59.45,0,0,0,0,0,0,0,0,0,0,0,0,0,0,0,0,
811,86.2,93.25,64.19,69.64,71.77,23.1,54.89,54.19,49.42,45.04,69.74,54.85,69.39,65.4,58.39,66.25,0,0,0,0,0,0,0,0,0,0,0,0,0,0,0,0,
812,74.83,86.34,63.15,57.02,57.89,54.11,49.76,75.51,47.49,50.64,62.81,61.05,61.73,71.73,54.57,68.39,0,0,0,0,0,0,0,0,0,0,0,0,0,0,0,0,
813,22.09,98.27,58.62,68.65,66.8,86.51,67.0,82.23,51.28,62.56,66.24,70.36,66.81,86.5,60.24,75.03,0,0,0,0,0,0,0,0,0,0,0,0,0,0,0,0,
814,59.57,88.39,69.86,106.4,86.99,82.76,54.28,87.61,55.5,92.7,73.22,76.51,75.56,91.93,70.38,83.67,0,0,0,0,0,0,0,0,0,0,0,0,0,0,0,0,
815,102.2,92.38,70.13,97.92,81.48,88.18,62.66,91.11,54.46,94.51,83.31,77.02,75.95,86.1,68.96,88.32,0,0,0,0,0,0,0,0,0,0,0,0,0,0,0,0,
816,59.39,70.64,59.83,70.44,74.05,95.18,74.45,79.66,76.86,75.41,87.32,71.35,76.46,82.76,70.63,90.27,0,0,0,0,0,0,0,0,0,0,0,0,0,0,0,0,
817,58.89,29.11,66.25,76.57,79.19,100.5,59.62,72.75,91.33,78.51,78.82,68.92,74.98,79.34,74.84,91.17,0,0,0,0,0,0,0,0,0,0,0,0,0,0,0,0,
818,101.1,80.15,73.4,76.47,78.8,102.5,73.59,73.99,66.56,73.65,74.68,67.91,75.26,73.19,67.62,83.07,0,0,0,0,0,0,0,0,0,0,0,0,0,0,0,0,
819,86.27,143.6,73.8,71.08,81.69,74.68,78.92,80.83,51.0,57.58,77.7,64.23,80.0,73.3,65.74,76.37,0,0,0,0,0,0,0,0,0,0,0,0,0,0,0,0,
820,71.29,121.0,84.82,90.63,80.2,55.5,51.11,95.42,59.37,71.33,83.68,70.96,83.51,82.53,82.54,90.65,0,0,0,0,0,0,0,0,0,0,0,0,0,0,0,0,
821,90.17,97.5,86.16,95.94,68.89,74.67,70.31,94.47,68.01,89.13,92.19,81.93,87.83,93.41,88.57,103.4,0,0,0,0,0,0,0,0,0,0,0,0,0,0,0,0,
822,83.43,100.8,74.85,83.45,84.14,76.87,110.3,80.75,76.91,84.48,93.04,86.21,89.51,100.0,75.4,99.34,0,0,0,0,0,0,0,0,0,0,0,0,0,0,0,0,
823,71.45,85.94,84.89,93.09,106.4,74.26,100.7,83.34,82.93,86.87,88.22,95.17,85.54,100.6,71.32,98.54,0,0,0,0,0,0,0,0,0,0,0,0,0,0,0,0,
824,97.13,56.63,99.25,103.5,91.87,105.2,77.48,95.22,83.58,96.45,85.98,106.0,86.09,98.95,72.82,97.81,0,0,0,0,0,0,0,0,0,0,0,0,0,0,0,0,
825,116.1,67.89,91.73,95.72,81.31,104.6,71.7,107.1,76.43,93.09,93.4,110.9,97.69,105.3,79.77,100.6,0,0,0,0,0,0,0,0,0,0,0,0,0,0,0,0,
826,95.32,141.8,90.48,101.8,102.0,85.41,79.74,117.6,75.45,96.52,114.9,111.3,111.6,115.0,99.44,113.8,0,0,0,0,0,0,0,0,0,0,0,0,0,0,0,0,
827,86.58,153.8,100.5,123.1,108.8,125.7,105.9,106.9,102.2,114.3,121.5,102.2,109.2,112.2,95.1,107.6,0,0,0,0,0,0,0,0,0,0,0,0,0,0,0,0,
828,111.3,81.83,98.58,130.0,97.35,155.7,115.4,92.0,108.2,118.5,103.4,97.38,98.79,107.7,82.79,99.35,0,0,0,0,0,0,0,0,0,0,0,0,0,0,0,0,
829,117.6,91.98,99.36,120.3,104.6,122.6,84.51,102.6,77.34,110.4,94.07,101.3,104.2,108.3,99.71,112.3,0,0,0,0,0,0,0,0,0,0,0,0,0,0,0,0,
830,102.9,129.9,105.5,98.24,111.1,86.4,58.48,107.3,80.31,103.9,83.5,83.48,102.1,92.15,86.15,94.92,0,0,0,0,0,0,0,0,0,0,0,0,0,0,0,0,
831,92.01,65.58,95.0,76.33,91.79,63.73,66.77,94.6,97.56,89.54,68.53,64.45,88.54,78.91,55.34,71.85,0,0,0,0,0,0,0,0,0,0,0,0,0,0,0,0,
832,76.63,47.58,88.55,87.3,88.45,62.45,92.69,96.15,86.25,81.68,89.41,85.76,107.0,100.0,90.73,107.0,0,0,0,0,0,0,0,0,0,0,0,0,0,0,0,0,
833,89.81,132.8,97.52,114.5,109.9,81.39,109.7,98.49,92.01,94.93,113.8,102.8,126.9,116.2,121.2,131.0,0,0,0,0,0,0,0,0,0,0,0,0,0,0,0,0,
834,130.5,154.6,98.36,119.1,109.3,86.13,100.1,91.92,100.9,104.2,104.3,82.83,112.2,106.0,93.28,105.8,0,0,0,0,0,0,0,0,0,0,0,0,0,0,0,0,
835,124.3,105.7,102.7,117.3,100.2,107.1,100.6,97.38,90.0,108.2,107.5,77.32,117.1,108.4,96.46,103.0,0,0,0,0,0,0,0,0,0,0,0,0,0,0,0,0,
836,96.1,89.3,109.8,110.3,109.2,136.7,131.4,98.93,107.4,117.0,120.0,94.18,136.4,117.8,124.3,121.3,0,0,0,0,0,0,0,0,0,0,0,0,0,0,0,0,
837,95.37,89.62,96.64,93.19,114.6,118.6,126.0,86.91,129.1,113.1,102.3,92.88,121.6,110.2,109.4,118.5,0,0,0,0,0,0,0,0,0,0,0,0,0,0,0,0,
838,83.37,79.43,90.86,99.27,112.2,93.19,84.07,79.58,114.0,99.23,84.5,82.67,106.9,103.8,85.07,102.7,0,0,0,0,0,0,0,0,0,0,0,0,0,0,0,0,
839,78.11,90.13,95.89,101.0,97.42,85.51,81.21,85.38,94.22,88.97,85.08,83.08,106.3,105.4,86.52,90.08,0,0,0,0,0,0,0,0,0,0,0,0,0,0,0,0,
840,101.4,104.3,86.46,75.43,77.93,81.66,104.4,109.6,86.58,91.11,88.09,88.09,101.1,111.0,102.4,98.14,0,0,0,0,0,0,0,0,0,0,0,0,0,0,0,0,
841,112.5,81.41,91.32,81.45,93.65,102.3,112.2,117.1,93.9,112.0,91.74,93.68,107.5,116.9,108.4,112.3,0,0,0,0,0,0,0,0,0,0,0,0,0,0,0,0,
842,124.0,67.91,100.1,108.4,111.1,111.7,119.0,80.08,101.5,115.0,88.35,94.63,108.7,107.0,90.01,103.2,0,0,0,0,0,0,0,0,0,0,0,0,0,0,0,0,
843,119.7,103.2,79.75,110.3,91.89,97.61,122.7,64.95,86.77,92.63,85.66,94.75,100.9,101.0,89.84,104.3,0,0,0,0,0,0,0,0,0,0,0,0,0,0,0,0,
844,77.67,126.8,80.94,105.6,88.17,101.4,105.6,95.34,83.13,96.8,91.64,97.31,115.2,112.2,118.6,119.0,0,0,0,0,0,0,0,0,0,0,0,0,0,0,0,0,
845,78.57,106.6,106.8,86.19,103.3,91.6,93.12,101.4,93.45,110.7,85.31,90.15,116.7,106.0,110.5,100.3,0,0,0,0,0,0,0,0,0,0,0,0,0,0,0,0,
846,97.06,79.47,93.34,57.47,91.47,72.83,102.7,81.78,85.51,94.97,78.28,84.93,91.53,91.27,74.99,76.66,0,0,0,0,0,0,0,0,0,0,0,0,0,0,0,0,
847,65.06,55.31,59.21,63.6,64.84,79.07,84.97,82.35,78.45,81.02,82.46,94.91,89.47,95.99,77.47,87.58,0,0,0,0,0,0,0,0,0,0,0,0,0,0,0,0,
848,79.71,35.69,52.53,91.2,50.44,74.43,45.36,89.36,74.77,85.26,72.54,99.4,99.6,97.84,95.17,100.3,0,0,0,0,0,0,0,0,0,0,0,0,0,0,0,0,
849,131.3,61.47,77.03,111.6,65.81,83.54,73.02,81.0,69.89,95.31,64.84,95.58,97.23,94.21,86.04,96.51,0,0,0,0,0,0,0,0,0,0,0,0,0,0,0,0,
850,90.31,126.9,101.6,106.4,91.66,116.3,117.0,73.72,80.19,102.6,77.27,95.7,94.52,97.63,76.6,93.13,0,0,0,0,0,0,0,0,0,0,0,0,0,0,0,0,
851,40.18,124.3,85.58,77.47,81.12,98.08,82.22,82.09,78.95,91.79,77.03,92.36,86.41,94.67,82.67,96.58,0,0,0,0,0,0,0,0,0,0,0,0,0,0,0,0,
852,87.82,50.72,72.88,78.39,72.07,68.86,69.12,92.34,72.1,86.04,68.01,89.0,87.72,93.94,82.76,101.2,0,0,0,0,0,0,0,0,0,0,0,0,0,0,0,0,
853,127.7,64.76,103.4,101.0,103.5,83.49,117.2,90.27,92.44,104.1,79.83,90.04,108.9,97.68,86.05,97.5,0,0,0,0,0,0,0,0,0,0,0,0,0,0,0,0,
854,104.5,140.2,107.4,104.2,114.8,90.05,108.1,83.45,106.3,108.6,94.63,84.1,109.4,85.01,101.7,91.79,0,0,0,0,0,0,0,0,0,0,0,0,0,0,0,0,
855,102.3,120.7,88.33,107.7,91.37,98.09,69.28,80.93,99.31,95.53,86.46,77.73,90.33,72.99,95.28,94.46,0,0,0,0,0,0,0,0,0,0,0,0,0,0,0,0,
856,107.9,79.57,100.6,88.92,86.12,120.2,85.13,81.23,90.32,89.06,66.35,80.03,87.85,76.09,70.78,94.02,0,0,0,0,0,0,0,0,0,0,0,0,0,0,0,0,
857,76.62,96.67,90.73,57.65,98.84,91.83,101.6,79.04,86.92,82.99,63.29,83.18,93.41,77.03,71.43,87.09,0,0,0,0,0,0,0,0,0,0,0,0,0,0,0,0,
858,81.64,95.59,66.0,89.55,102.4,50.97,86.64,79.09,104.3,81.88,79.14,83.14,93.96,76.37,80.71,82.33,0,0,0,0,0,0,0,0,0,0,0,0,0,0,0,0,
859,117.7,90.73,90.3,121.1,93.6,82.13,84.51,79.95,106.9,87.62,82.59,77.48,90.4,72.14,70.02,74.09,0,0,0,0,0,0,0,0,0,0,0,0,0,0,0,0,
860,107.6,103.6,104.7,82.72,78.97,118.1,96.6,61.49,74.33,83.28,64.17,69.58,75.83,56.15,57.0,62.86,0,0,0,0,0,0,0,0,0,0,0,0,0,0,0,0,
861,99.44,96.45,76.14,54.85,65.36,76.76,85.78,49.64,63.75,75.1,47.38,63.88,62.06,46.45,52.04,59.62,0,0,0,0,0,0,0,0,0,0,0,0,0,0,0,0,
862,94.94,94.83,59.02,67.4,60.71,29.37,63.76,75.43,70.32,72.75,47.92,51.33,65.97,50.02,56.91,61.93,0,0,0,0,0,0,0,0,0,0,0,0,0,0,0,0,
