%OpenBCI Raw EXG Data
%Number of channels = 16
%Sample Rate = 125 Hz
%Board = OpenBCI_GUI$BoardCytonSerialDaisy
Sample Index,EXG Channel 0,EXG Channel 1,EXG Channel 2,EXG Channel 3,EXG Channel 4,EXG Channel 5,EXG Channel 6,EXG Channel 7,EXG Channel 8,EXG Channel 9,EXG Channel 10,EXG Channel 11,EXG Channel 12,EXG Channel 13,EXG Channel 14,EXG Channel 15,Accel Channel 0,Accel Channel 1,Accel Channel 2,Other,Other,Other,Other,Other,Other,Other,Analog Channel 0,Analog Channel 1,Analog Channel 2,Timestamp,Other,Timestamp (Formatted),Annotations
1,-0,0,0,-0,-0,0,0,-0,-0,0,0,0,0,0,0,0,0,0,0,0,0,0,0,0,0,0,0,0,0,0,0,0,T0
2,-2.209,21.35,-12.73,-27.02,-4.585,-5.359,-84.1,19.51,-16.24,9.324,-5.165,-10.52,-10.29,-12.43,1.882,5.037,0,0,0,0,0,0,0,0,0,0,0,0,0,0,0,0,
3,8.404,-1.659,-23.04,-35.89,3.29,8.244,-84.67,-2,-11.49,-19.12,-10.29,-19.12,-16.88,4.922,-17.04,-11.94,0,0,0,0,0,0,0,0,0,0,0,0,0,0,0,0,
4,3.322,-16.27,-11.65,-41.8,22.62,21.24,-27.04,14.54,-12.8,-11.83,-8.17,-17.27,-18.94,11.34,-15.17,-12.28,0,0,0,0,0,0,0,0,0,0,0,0,0,0,0,0,
5,-7.035,-2.245,-4.506,-54.99,26.36,17.68,9.632,25.86,-15.11,19,0.8571,-12.65,-27.33,-12.68,-0.9912,-3.251,0,0,0,0,0,0,0,0,0,0,0,0,0,0,0,0,
6,2.628,0.6449,-0.3999,-38.41,28.41,24.8,21.5,0.3497,-2.159,-7.614,18.38,4.681,-14.45,-2.905,6.862,6.417,0,0,0,0,0,0,0,0,0,0,0,0,0,0,0,0,
7,24.08,1.854,23.99,11.27,47.92,47.88,15.36,13.32,18.52,-21.9,26.04,25.61,10.62,29.44,18.99,23.52,0,0,0,0,0,0,0,0,0,0,0,0,0,0,0,0,
8,36.68,13.94,28.87,19.56,42.26,48,-13.11,26,26.28,20,21.04,20.2,3.452,21.96,26.31,27.36,0,0,0,0,0,0,0,0,0,0,0,0,0,0,0,0,
9,21.01,17.94,9.487,-20.07,20.2,29.62,-5.942,10.52,1.246,11.01,32.96,16.06,3.647,23.44,34.81,35.33,0,0,0,0,0,0,0,0,0,0,0,0,0,0,0,0,
10,4.329,21.26,6.535,-27.9,32.35,29.61,21.9,21.84,-14.37,-19.86,32.19,21.78,12.85,40.8,31.6,38.24,0,0,0,0,0,0,0,0,0,0,0,0,0,0,0,0,
11,16.08,12.7,11.73,-17.4,44.04,39.56,4.814,25.08,9.011,14.91,5.223,12.16,-15.77,10.86,1.273,4.928,0,0,0,0,0,0,0,0,0,0,0,0,0,0,0,0,
12,24.73,-5.762,21.62,-26.23,35.35,45.06,4.119,9.755,22.62,19.11,12.53,20.67,-25.09,-11.52,3.842,1.778,0,0,0,0,0,0,0,0,0,0,0,0,0,0,0,0,
13,31.78,18.9,39.1,8.159,46.06,55.31,41.35,33.7,12.71,-26.17,41.88,50.31,3.755,13.54,41.91,40.82,0,0,0,0,0,0,0,0,0,0,0,0,0,0,0,0,
14,45.73,47.94,35.38,49.63,51.87,53.43,34.18,50.98,-7.837,-11.1,42.15,47.41,3.536,16.79,35.5,34.69,0,0,0,0,0,0,0,0,0,0,0,0,0,0,0,0,
15,23.29,27.44,18.56,-10.63,28.89,31.87,8.64,16.28,-20.94,15.07,27.18,21.05,-12.03,-3.89,-0.3568,1.055,0,0,0,0,0,0,0,0,0,0,0,0,0,0,0,0,
16,-6.526,23.56,17.32,-68.73,20.34,28.63,12.62,1.221,13.13,-6.824,16.68,11.23,-8.092,-0.0276,-2.677,3.472,0,0,0,0,0,0,0,0,0,0,0,0,0,0,0,0,
17,3.879,36.66,21.24,-20.52,29.33,40.63,-2.231,19.4,36.73,0.3979,16.74,15.38,-1.894,16.8,11.56,18.13,0,0,0,0,0,0,0,0,0,0,0,0,0,0,0,0,
18,14.52,12.02,14.75,6.174,27.87,25.71,-27.41,6.963,-5.785,17.48,16.97,12.03,-4.616,18.88,8.985,15.36,0,0,0,0,0,0,0,0,0,0,0,0,0,0,0,0,
19,7.121,-1.387,3.026,-35.48,23.11,4.647,-4.837,-9.413,-31.72,-15.06,4.152,-0.3563,-10.25,15.06,5.19,13.6,0,0,0,0,0,0,0,0,0,0,0,0,0,0,0,0,
20,0.2334,10.07,3.039,-45.74,22.17,15.02,31.83,10.19,-9.714,-19.37,7.26,4.32,0.9652,26.41,18.41,30.76,0,0,0,0,0,0,0,0,0,0,0,0,0,0,0,0,
21,6.339,9.525,15.45,-25.99,25.13,29.86,19.88,22.78,12.01,20.66,30.63,23.49,19.05,37.44,34.03,46.73,0,0,0,0,0,0,0,0,0,0,0,0,0,0,0,0,
22,26.54,15.91,15.71,-10.57,29.94,22.36,-14.38,15.03,13,14.23,36.65,16.86,7.453,28.56,31.61,37.12,0,0,0,0,0,0,0,0,0,0,0,0,0,0,0,0,
23,13.71,12.48,4.885,3.845,23.18,12.57,-17.5,1.478,-18.31,-12.04,21.7,-6.566,-10.67,23.76,11.75,19.46,0,0,0,0,0,0,0,0,0,0,0,0,0,0,0,0,
24,-18.26,-10.98,7.086,-5.34,18.28,17.55,-5.598,-11.54,-23.07,-0.0923,7.368,-3.946,-6.791,27.56,0.5088,16.8,0,0,0,0,0,0,0,0,0,0,0,0,0,0,0,0,
25,0.5884,0.1035,17.33,-24.73,32.56,25.9,0.2669,10.62,20.36,1.528,13.19,12.34,-4.441,16.47,16.38,26.79,0,0,0,0,0,0,0,0,0,0,0,0,0,0,0,0,
26,23.78,22.61,20.89,-23.62,36.35,26.11,14.78,40.8,-0.0024,-11.29,33.34,12.13,-5.111,7.147,27.74,38.38,0,0,0,0,0,0,0,0,0,0,0,0,0,0,0,0,
27,13.03,10.17,25.86,-8.683,25.88,29.47,20.35,25.01,-40.37,2.665,35.84,10.23,-2.181,14.95,12.22,34.21,0,0,0,0,0,0,0,0,0,0,0,0,0,0,0,0,
28,22,1.63,30.6,14.21,37.12,39.46,-0.4502,8.41,12.6,8.436,24.59,15.49,-13.45,10.87,-1.726,9.349,0,0,0,0,0,0,0,0,0,0,0,0,0,0,0,0,
29,29.77,3.257,12.88,12.52,43.2,32.36,-28.09,9.363,33.29,-5.865,14.33,5.532,-29.64,-9.89,-11.48,-12.14,0,0,0,0,0,0,0,0,0,0,0,0,0,0,0,0,
30,7.036,-10.76,-8.477,-24.67,17.27,13.82,-42.72,-4.16,-16.16,-5.505,-2.683,-10.65,-30.45,-12.65,-22.98,-7.741,0,0,0,0,0,0,0,0,0,0,0,0,0,0,0,0,
31,-0.3903,-12.8,3.591,-30.54,12.4,13.96,-28.33,0.9461,4.668,-8.387,-5.472,-5.57,-20.27,3.234,-9.477,12.55,0,0,0,0,0,0,0,0,0,0,0,0,0,0,0,0,
32,8.494,-0.8389,13.93,-9.38,32.11,17.73,-9.981,22.67,25.52,-15.38,14.54,6.379,-3.332,13.33,12.56,24.87,0,0,0,0,0,0,0,0,0,0,0,0,0,0,0,0,
33,10.27,-1.889,0.7321,-15.5,32.64,15.26,-15.45,18.86,-21.09,5.057,21.99,8.204,16.31,23.02,10.23,27.81,0,0,0,0,0,0,0,0,0,0,0,0,0,0,0,0,
34,10.7,4.346,12.31,-14.97,34.14,26.28,-10.12,17.93,-15.71,19.58,14.11,7.987,24.29,29.68,3.907,27.62,0,0,0,0,0,0,0,0,0,0,0,0,0,0,0,0,
35,-1.9,22.58,33.15,-5.758,42.53,28.69,1.278,30.88,11.81,0.6175,11.5,6.777,21.51,18.97,5.585,22.92,0,0,0,0,0,0,0,0,0,0,0,0,0,0,0,0,
36,-14.5,24.64,30.86,-14.7,46.92,23.74,10.77,34.02,7.267,-11.33,12.57,14.13,26.2,12.92,7.597,26.95,0,0,0,0,0,0,0,0,0,0,0,0,0,0,0,0,
37,13.18,26.24,48.7,16.89,67.81,48.8,60.6,46.04,37.07,1.599,15.33,30.06,31.26,16.82,14.69,39.21,0,0,0,0,0,0,0,0,0,0,0,0,0,0,0,0,
38,42.35,37.7,79.08,74.37,76.61,66.9,92.07,68.5,37.54,18.21,23.53,26.44,16.05,10.86,18.89,37.31,0,0,0,0,0,0,0,0,0,0,0,0,0,0,0,0,
39,27.95,31.33,97.79,90.55,79.34,68.81,70.68,83.97,-0.4901,22.49,39.47,21.91,4.448,16.38,17.16,30.16,0,0,0,0,0,0,0,0,0,0,0,0,0,0,0,0,
40,36.36,18.82,142.4,119.6,128.5,103.2,79.35,96.16,40.28,7.344,49.78,41.73,19.92,43.13,18.51,33.72,0,0,0,0,0,0,0,0,0,0,0,0,0,0,0,0,
41,83.16,28.23,182.1,173.6,154.6,119.8,94.9,98.26,77.58,-1.48,38.46,44.3,31.25,54.49,17.86,38.61,0,0,0,0,0,0,0,0,0,0,0,0,0,0,0,0,
42,77.35,50.2,184.6,190.2,128.9,95.91,96.93,102.7,42.57,18.32,30.24,30.15,26.04,38.15,15.4,37.33,0,0,0,0,0,0,0,0,0,0,0,0,0,0,0,0,
43,42.1,66.16,205.6,206.9,144.4,107.6,135,129.1,43.42,25.98,35.18,39.67,26.65,20.88,11.18,24.42,0,0,0,0,0,0,0,0,0,0,0,0,0,0,0,0,
44,54.03,63.75,231.5,249.5,169.9,129.1,132.8,149.1,57.77,6.37,30.26,48.99,30.31,28.25,6.924,14.77,0,0,0,0,0,0,0,0,0,0,0,0,0,0,0,0,
45,69.14,57.08,232.9,274.4,155.5,116.7,92.11,144.3,23.73,9.256,35.02,44.18,31.97,43.25,20.02,28.61,0,0,0,0,0,0,0,0,0,0,0,0,0,0,0,0,
46,60.86,68.79,258.8,280.6,166.2,121.7,119.4,129.9,22.02,26.9,45.77,41.28,34.67,36.22,28.51,33,0,0,0,0,0,0,0,0,0,0,0,0,0,0,0,0,
47,61.78,72.15,284.1,267.2,188.1,133.4,135.6,123.5,71.76,18.4,23.2,30.5,32.07,31.31,7.512,13.82,0,0,0,0,0,0,0,0,0,0,0,0,0,0,0,0,
48,61.5,53.29,264.9,243.5,170.7,114,95.54,134.9,78.22,8.979,7.66,25.33,27.2,31.38,1.268,10.31,0,0,0,0,0,0,0,0,0,0,0,0,0,0,0,0,
49,55.9,49.06,248,253.6,143.3,95.65,102.1,127.6,21.2,7.075,26.64,33.74,20.25,4.819,21.82,18.48,0,0,0,0,0,0,0,0,0,0,0,0,0,0,0,0,
50,51.73,58.6,233.8,267,125.5,92.26,123.5,94.94,-4.678,-14.9,31.82,33.37,16.02,-1.417,22.75,20.62,0,0,0,0,0,0,0,0,0,0,0,0,0,0,0,0,
51,48.2,52.26,201.1,233.6,125.2,91.71,88.41,100.7,28.58,-22.3,16.75,31.77,22.86,26.69,5.146,24.36,0,0,0,0,0,0,0,0,0,0,0,0,0,0,0,0,
52,60.89,32.1,187.9,183.8,128.7,84.83,50.83,113,38.55,2.852,-7.094,20.55,9.084,8.547,-10.73,10.93,0,0,0,0,0,0,0,0,0,0,0,0,0,0,0,0,
53,53.98,7.318,171.6,150.1,95.76,55.04,42.97,71.36,16.69,-5.57,-34.29,-13.41,-26.83,-32.82,-27.1,-14.08,0,0,0,0,0,0,0,0,0,0,0,0,0,0,0,0,
54,-0.2413,-15.75,119.9,133,59.4,22.56,26.23,41.59,3.455,-50.81,-33.61,-27.47,-35.1,-31.7,-33.96,-16.29,0,0,0,0,0,0,0,0,0,0,0,0,0,0,0,0,
55,-21.42,-25.93,92.47,121.6,55.72,21.2,3.587,39.69,-13.12,-58.13,-19.33,-16.27,-29.09,-32.09,-31.07,-12.8,0,0,0,0,0,0,0,0,0,0,0,0,0,0,0,0,
56,14.14,-18.82,97.15,92.41,54.14,39.57,28.18,17.53,-14.78,-34.83,-16.97,-12.76,-33.36,-45.57,-32.04,-19.94,0,0,0,0,0,0,0,0,0,0,0,0,0,0,0,0,
57,25.68,0.3866,74.75,50.66,49.14,47.36,58.85,13.17,7.311,-33.94,-11.19,-8.527,-24.02,-39.35,-34.18,-22.77,0,0,0,0,0,0,0,0,0,0,0,0,0,0,0,0,
58,10.99,2.443,35.92,14.01,31.41,26.77,-6.251,10.73,1.83,-36.47,-16.12,-9.937,-24.34,-42.83,-37.56,-28.82,0,0,0,0,0,0,0,0,0,0,0,0,0,0,0,0,
59,9.889,-31.69,7.399,-18.03,-15.43,-9.387,-92.02,-39.83,-34.48,-27.31,-40.93,-33.72,-50.14,-55.66,-51.14,-41.22,0,0,0,0,0,0,0,0,0,0,0,0,0,0,0,0,
60,0.4374,-53.04,-19.87,-25.14,-39.32,-27.15,-63.75,-59.57,-63.16,-39.22,-53.41,-50.24,-50.11,-46.81,-65.29,-42.1,0,0,0,0,0,0,0,0,0,0,0,0,0,0,0,0,
61,-18.72,-31.19,-38.09,-20.74,-30.59,-26.51,-1.04,-35.56,-72.61,-59.57,-45.92,-43.82,-28.53,-40.54,-57.87,-28.87,0,0,0,0,0,0,0,0,0,0,0,0,0,0,0,0,
62,-22.56,-19.07,-48.42,-71.08,-41.31,-27.43,-12.12,-55.63,-61.28,-58.79,-36.82,-39.17,-30.36,-49.73,-38.68,-18.68,0,0,0,0,0,0,0,0,0,0,0,0,0,0,0,0,
63,-22.37,-32.91,-59.05,-123.7,-48.71,-25.1,-39.95,-75.95,-33.47,-60.68,-40.32,-46.3,-43.84,-59.71,-40.18,-29.39,0,0,0,0,0,0,0,0,0,0,0,0,0,0,0,0,
64,-30.59,-42.85,-63.55,-80.51,-38.99,-27,-53.51,-48.33,-28.11,-69.9,-51.71,-51.74,-52.83,-75.42,-53.03,-46.02,0,0,0,0,0,0,0,0,0,0,0,0,0,0,0,0,
65,-40.11,-57.5,-81.52,-46.55,-57.68,-47.75,-79.19,-44.36,-72.02,-61.26,-53.33,-47.59,-56.65,-78.82,-47.48,-37.87,0,0,0,0,0,0,0,0,0,0,0,0,0,0,0,0,
66,-39.09,-61.82,-107.6,-114.1,-79.78,-61.24,-70.15,-73.09,-104.4,-53.97,-49.35,-41.3,-44.67,-49.46,-34.84,-18.84,0,0,0,0,0,0,0,0,0,0,0,0,0,0,0,0,
67,-38.04,-42.93,-106.6,-156.6,-78.39,-58.93,-38.51,-89.89,-87.91,-64.88,-52.19,-44.46,-36.72,-31.03,-36.77,-20.14,0,0,0,0,0,0,0,0,0,0,0,0,0,0,0,0,
68,-61.76,-50.33,-108.4,-140.8,-91.45,-67.42,-66.99,-94.26,-87.27,-71.1,-61.2,-55.02,-50.72,-50.25,-45.14,-32.05,0,0,0,0,0,0,0,0,0,0,0,0,0,0,0,0,
69,-73.72,-73.6,-129.3,-154.4,-102.4,-71.83,-107,-83.97,-88.43,-68.11,-67.61,-56.25,-56.91,-56.75,-43.99,-31.19,0,0,0,0,0,0,0,0,0,0,0,0,0,0,0,0,
70,-45.35,-72.36,-127.8,-152.5,-87.65,-61.27,-95.24,-80.02,-42.34,-63.17,-61.51,-48.54,-52.58,-44.9,-37.77,-27.3,0,0,0,0,0,0,0,0,0,0,0,0,0,0,0,0,
71,-39.76,-72.14,-121.2,-125.5,-86.93,-69.36,-89.73,-104.3,-42.83,-54.05,-51.82,-53.2,-65.84,-65.76,-42.01,-39.68,0,0,0,0,0,0,0,0,0,0,0,0,0,0,0,0,
72,-70.71,-76.12,-137.5,-147.3,-101.8,-89.28,-110.8,-115.7,-108,-55.98,-53.32,-70.71,-83.25,-91.92,-59.16,-59.11,0,0,0,0,0,0,0,0,0,0,0,0,0,0,0,0,
73,-85.07,-86.62,-151.6,-177,-105.7,-93.79,-117,-111.3,-106.2,-78.22,-67.53,-84.99,-88.29,-81.75,-78.07,-72.44,0,0,0,0,0,0,0,0,0,0,0,0,0,0,0,0,
74,-86.15,-113.8,-156.1,-187.6,-102.2,-91.95,-98.28,-123.9,-53.11,-93.53,-79.38,-84.57,-85.64,-72.11,-72.84,-72.24,0,0,0,0,0,0,0,0,0,0,0,0,0,0,0,0,
75,-80.35,-105,-153.5,-204.4,-98.4,-85.83,-83.62,-123.6,-56.99,-85.05,-67.33,-68.95,-71.77,-73.09,-43.31,-55.36,0,0,0,0,0,0,0,0,0,0,0,0,0,0,0,0,
76,-65.57,-80.19,-146,-191.4,-106.2,-81.5,-105.4,-107.9,-89.53,-80.6,-58.58,-66.39,-64.35,-69.6,-45.09,-54.5,0,0,0,0,0,0,0,0,0,0,0,0,0,0,0,0,
77,-69.26,-96.76,-145.1,-168.8,-114.5,-91.29,-126.9,-113.9,-92.07,-86.87,-75.44,-79.29,-72.86,-81.24,-74.2,-76.73,0,0,0,0,0,0,0,0,0,0,0,0,0,0,0,0,
78,-69.52,-92.26,-135.4,-165.8,-97.24,-89.89,-117.1,-117,-77.19,-69.64,-73.97,-71.43,-67.25,-87.92,-66.26,-72.42,0,0,0,0,0,0,0,0,0,0,0,0,0,0,0,0,
79,-54.07,-62.89,-123.3,-157,-82.58,-77.08,-115.7,-108.9,-73.2,-55.05,-62.79,-65.02,-56.48,-65.3,-51.58,-50.72,0,0,0,0,0,0,0,0,0,0,0,0,0,0,0,0,
80,-74.8,-87.22,-137,-180.6,-88.47,-84.1,-115.6,-122.5,-81.8,-87.03,-72.1,-80.3,-62.79,-48.87,-62.08,-48.48,0,0,0,0,0,0,0,0,0,0,0,0,0,0,0,0,
81,-95.35,-118,-147.5,-206.1,-88.56,-87.64,-108.3,-131.4,-61.85,-106.8,-55.55,-68.41,-57.85,-50.6,-44.5,-41.92,0,0,0,0,0,0,0,0,0,0,0,0,0,0,0,0,
82,-59.96,-97.87,-132.8,-163.4,-87.12,-71.95,-129.1,-112.6,-21.31,-84.78,-26.64,-41.28,-44.37,-54.41,-22.06,-33.38,0,0,0,0,0,0,0,0,0,0,0,0,0,0,0,0,
83,-48.42,-85.15,-124,-140.4,-95.12,-79.4,-154.4,-102.7,-41.29,-78.16,-41.97,-51.3,-57.08,-62.24,-42.43,-43.44,0,0,0,0,0,0,0,0,0,0,0,0,0,0,0,0,
84,-80.83,-105.3,-131.7,-160.9,-103.2,-101.4,-151.7,-110.4,-91.62,-80.62,-62.47,-71.46,-76.17,-67.46,-55.08,-48.28,0,0,0,0,0,0,0,0,0,0,0,0,0,0,0,0,
85,-76.78,-105.4,-139.8,-158.8,-103.3,-92.17,-120.4,-112,-85.1,-77.49,-61.41,-75.22,-79.07,-69.65,-48.54,-54.59,0,0,0,0,0,0,0,0,0,0,0,0,0,0,0,0,
86,-75.93,-86.73,-144.9,-182.9,-91.51,-81.4,-84.59,-112.1,-76.54,-78.37,-73.06,-81.86,-86.34,-77.04,-60.02,-75.13,0,0,0,0,0,0,0,0,0,0,0,0,0,0,0,0,
87,-102.9,-101.1,-150.6,-216.6,-90.95,-93.97,-96.03,-123,-94.6,-54.48,-92.45,-85.32,-93.36,-71.54,-68.75,-74.47,0,0,0,0,0,0,0,0,0,0,0,0,0,0,0,0,
88,-75.13,-118.1,-148,-186.9,-109.6,-88.15,-120.8,-132.4,-68.04,-62.4,-92.38,-74.93,-81.39,-52.71,-65.16,-59.81,0,0,0,0,0,0,0,0,0,0,0,0,0,0,0,0,
89,-58.14,-102.7,-142.2,-159.5,-122.2,-83.1,-123.5,-128.5,-53.33,-123.2,-80.31,-73.87,-77.93,-55.27,-71.72,-67.54,0,0,0,0,0,0,0,0,0,0,0,0,0,0,0,0,
90,-126.1,-107.4,-159.2,-179,-131.3,-115.2,-143.1,-117.6,-103.7,-107.2,-84.54,-85.01,-89.01,-70.73,-77.12,-72.91,0,0,0,0,0,0,0,0,0,0,0,0,0,0,0,0,
91,-138.6,-112.9,-169.9,-193.5,-122.8,-116.8,-133.9,-110.7,-113.9,-55.7,-96.34,-74.74,-78.06,-64.44,-68.01,-56,0,0,0,0,0,0,0,0,0,0,0,0,0,0,0,0,
92,-67.18,-74.87,-140,-174.8,-92.05,-75.85,-92.69,-114.1,-77.4,-86.63,-82.3,-53.38,-65.75,-60.8,-59.61,-53.26,0,0,0,0,0,0,0,0,0,0,0,0,0,0,0,0,
93,-57.51,-71.29,-127,-153.6,-95.54,-74.26,-111,-125,-76.26,-108.8,-73.25,-64.45,-79.32,-79.76,-67.42,-72.18,0,0,0,0,0,0,0,0,0,0,0,0,0,0,0,0,
94,-85,-110.8,-146,-171.4,-109.1,-88.34,-132.6,-130.7,-83.52,-91.69,-95.31,-81.81,-77.59,-81.49,-81.95,-74.22,0,0,0,0,0,0,0,0,0,0,0,0,0,0,0,0,
95,-66.12,-104.8,-137,-172.4,-81.35,-67.99,-108.3,-121.5,-79.07,-98.68,-96.22,-67.17,-60.23,-69.69,-83.68,-62.45,0,0,0,0,0,0,0,0,0,0,0,0,0,0,0,0,
96,-57.24,-75.02,-116.2,-119.8,-77.39,-61.7,-118.7,-105.2,-79.9,-91.07,-80.42,-59.5,-67.84,-82.99,-83.23,-71.61,0,0,0,0,0,0,0,0,0,0,0,0,0,0,0,0,
97,-78.27,-75.68,-127,-123.6,-108.7,-82.2,-135.3,-108.7,-89,-74.02,-95.69,-79.95,-80.58,-92.58,-92.65,-86.84,0,0,0,0,0,0,0,0,0,0,0,0,0,0,0,0,
98,-92.7,-92.26,-149.3,-182.9,-113.2,-94.54,-107.2,-129.9,-125.4,-83.26,-102.7,-89.88,-72.4,-68.13,-89.68,-76.28,0,0,0,0,0,0,0,0,0,0,0,0,0,0,0,0,
99,-111.9,-105.9,-157,-180.6,-110.6,-102,-100.7,-132.7,-133.9,-88.28,-84.17,-83.31,-61.54,-51.84,-74.41,-61.45,0,0,0,0,0,0,0,0,0,0,0,0,0,0,0,0,
100,-114.8,-100.4,-145.9,-152,-110.6,-100.4,-114.4,-120.3,-81.24,-81.14,-85.43,-84.06,-67.17,-75.45,-69.74,-67.99,0,0,0,0,0,0,0,0,0,0,0,0,0,0,0,0,
101,-79.75,-82.9,-130.2,-150.8,-89.76,-76.98,-90.54,-110.8,-56.01,-73.47,-82.47,-83.19,-79.5,-93.69,-64.77,-69.31,0,0,0,0,0,0,0,0,0,0,0,0,0,0,0,0,
102,-61.96,-84.63,-123.3,-139.2,-83.38,-53.44,-73.65,-99.56,-60.26,-87.29,-58.76,-72.46,-75.37,-73.69,-58.11,-56.03,0,0,0,0,0,0,0,0,0,0,0,0,0,0,0,0,
103,-75.31,-97.52,-120.7,-134.6,-99.88,-58.28,-99.92,-106.1,-63.56,-107.9,-64.42,-74.77,-68.14,-68.64,-70.21,-63.95,0,0,0,0,0,0,0,0,0,0,0,0,0,0,0,0,
104,-81.19,-96.16,-119,-156.3,-96.16,-83.43,-110.5,-121,-99.48,-82.57,-80.4,-87.04,-76.76,-94.59,-81.57,-80.4,0,0,0,0,0,0,0,0,0,0,0,0,0,0,0,0,
105,-89.79,-82.08,-112.9,-154.9,-82.81,-92.23,-110.4,-108.2,-113.3,-75.58,-69.98,-84.69,-81.67,-90.96,-77.16,-72.41,0,0,0,0,0,0,0,0,0,0,0,0,0,0,0,0,
106,-101.4,-79.6,-110.3,-122.8,-92.16,-82.68,-143.6,-104.5,-91.6,-121.5,-71.28,-79.61,-81.95,-68.14,-79.49,-71.24,0,0,0,0,0,0,0,0,0,0,0,0,0,0,0,0,
107,-82.15,-98.1,-120.9,-117.9,-96.63,-78.51,-136.7,-122.8,-84.72,-112.4,-81.48,-76.46,-81.64,-69.62,-81.53,-83.34,0,0,0,0,0,0,0,0,0,0,0,0,0,0,0,0,
108,-54.68,-92.51,-122.1,-152.1,-86.38,-76.06,-70.19,-113.3,-61.58,-66.3,-70.78,-66.28,-68.65,-74.32,-74.98,-77.69,0,0,0,0,0,0,0,0,0,0,0,0,0,0,0,0,
109,-66.36,-54.48,-124.7,-163.3,-108.7,-83.92,-54.86,-95.16,-74.4,-75.49,-67.9,-75.02,-66.03,-71.98,-81.8,-76.44,0,0,0,0,0,0,0,0,0,0,0,0,0,0,0,0,
110,-97.99,-54.87,-144.3,-144,-137,-105.8,-98.94,-98.81,-130,-100.4,-74.49,-95.27,-77.59,-73.19,-87.5,-85.33,0,0,0,0,0,0,0,0,0,0,0,0,0,0,0,0,
111,-101.8,-87.1,-135.7,-132.8,-110.9,-101.8,-130.6,-102.6,-89.45,-96.92,-69.71,-92.48,-78.32,-76,-80.35,-82.14,0,0,0,0,0,0,0,0,0,0,0,0,0,0,0,0,
112,-86.8,-87.36,-108.8,-113.1,-80.52,-80.43,-138.9,-107,-48.3,-84.08,-75.42,-91.33,-85.13,-83.86,-88.64,-90.89,0,0,0,0,0,0,0,0,0,0,0,0,0,0,0,0,
113,-90.23,-80.53,-109,-106.3,-89.36,-84.4,-128,-113.1,-121.4,-85.94,-88.56,-102.3,-100.2,-91.04,-101.1,-109.5,0,0,0,0,0,0,0,0,0,0,0,0,0,0,0,0,
114,-102.9,-90.99,-115.2,-142.4,-100.1,-95.48,-113.6,-108.5,-128.1,-103.1,-90.94,-98.38,-102.4,-97.91,-99.31,-109.7,0,0,0,0,0,0,0,0,0,0,0,0,0,0,0,0,
115,-98.92,-94.61,-127.1,-160.6,-109.9,-96.34,-118.5,-109.9,-60.05,-104.9,-97.65,-95.58,-102.6,-104.7,-102.1,-106.4,0,0,0,0,0,0,0,0,0,0,0,0,0,0,0,0,
116,-90.06,-103.3,-148,-152.2,-122,-102.1,-130.2,-121,-88.81,-99.59,-97.22,-104.1,-99.87,-94.75,-99.57,-101.9,0,0,0,0,0,0,0,0,0,0,0,0,0,0,0,0,
117,-100.6,-113.8,-139.9,-140.7,-114.6,-107.5,-134.4,-122.6,-135.2,-106.5,-78.95,-107.8,-91.44,-83.72,-87.61,-90.86,0,0,0,0,0,0,0,0,0,0,0,0,0,0,0,0,
118,-118,-105.5,-125.8,-119.3,-107.4,-108.7,-129.6,-125.7,-107.8,-101.6,-81.06,-117.9,-96.03,-88.07,-95.79,-92.13,0,0,0,0,0,0,0,0,0,0,0,0,0,0,0,0,
119,-114,-98.39,-129.3,-142.3,-113.3,-108.5,-111.9,-137.9,-104.6,-97.07,-97.92,-130,-105.7,-97.14,-110.5,-98.34,0,0,0,0,0,0,0,0,0,0,0,0,0,0,0,0,
120,-110.3,-96.76,-119.9,-175,-108.4,-98.41,-86.76,-129.5,-116.6,-115.8,-86.55,-118.6,-108.4,-109.1,-106.1,-99.23,0,0,0,0,0,0,0,0,0,0,0,0,0,0,0,0,
121,-124.5,-102.7,-120,-142.7,-100.3,-93.35,-99.42,-115.8,-68.98,-128.2,-77.31,-104.1,-115.6,-106.9,-103.3,-108.4,0,0,0,0,0,0,0,0,0,0,0,0,0,0,0,0,
122,-114.7,-127,-146.1,-135.2,-112.5,-110.5,-168.1,-139.3,-58.08,-121.6,-107.8,-115.5,-127.4,-97.17,-120.3,-124.9,0,0,0,0,0,0,0,0,0,0,0,0,0,0,0,0,
123,-93.48,-133,-153.3,-154.9,-131.7,-123.7,-195.9,-156.2,-122.1,-125.7,-131.5,-127.1,-126.8,-109.7,-138.5,-134.2,0,0,0,0,0,0,0,0,0,0,0,0,0,0,0,0,
124,-111.1,-119.9,-156.7,-139.4,-140.5,-124.3,-150.9,-137,-140.6,-148.5,-121.6,-118.2,-106.8,-111.7,-133.7,-127.8,0,0,0,0,0,0,0,0,0,0,0,0,0,0,0,0,
125,-134.3,-121.4,-182.8,-170.2,-146.9,-140.3,-132.3,-146.6,-147.1,-143.9,-124.5,-125.3,-98.99,-105.4,-125.9,-122.9,0,0,0,0,0,0,0,0,0,0,0,0,0,0,0,0,
126,-145.7,-116.4,-181.8,-206.9,-153.1,-152.9,-129.8,-180.4,-194.4,-108.6,-146.9,-157.6,-125,-133.6,-145.9,-140.5,0,0,0,0,0,0,0,0,0,0,0,0,0,0,0,0,
127,-165.2,-120.7,-158.7,-168.3,-154.9,-136.5,-110.1,-173.6,-157.6,-118.9,-154.1,-169,-144.7,-146.1,-162.9,-154.6,0,0,0,0,0,0,0,0,0,0,0,0,0,0,0,0,
128,-154.5,-158.3,-165.8,-152.6,-157.4,-130.8,-134.9,-149.4,-92.78,-162.4,-157.2,-157.7,-141.1,-129.4,-150.9,-148.2,0,0,0,0,0,0,0,0,0,0,0,0,0,0,0,0,
129,-126.9,-168,-166.8,-166.2,-157,-144.4,-168.9,-150.1,-142.1,-162.7,-159.4,-155.8,-145.8,-144.9,-140.6,-149,0,0,0,0,0,0,0,0,0,0,0,0,0,0,0,0,
130,-142.8,-145,-145.9,-161.7,-154,-137.8,-168.6,-162.6,-178.9,-150.3,-138.9,-155.1,-152.9,-160.1,-140.8,-155.2,0,0,0,0,0,0,0,0,0,0,0,0,0,0,0,0,
131,-159,-144.9,-155.7,-175.7,-156.1,-126.1,-173.8,-164.7,-140.2,-159.4,-126.6,-149.1,-148.9,-147.4,-139.2,-152.5,0,0,0,0,0,0,0,0,0,0,0,0,0,0,0,0,
132,-138,-150.5,-169.1,-170.9,-151.4,-132.2,-158.3,-156,-139.8,-156,-142,-149.7,-147.6,-149.1,-141.4,-156.5,0,0,0,0,0,0,0,0,0,0,0,0,0,0,0,0,
133,-130.7,-139.9,-149.4,-137.7,-139.3,-134.1,-128.8,-155.1,-163.5,-139.9,-146.4,-153.5,-143.3,-146.3,-140.7,-159.5,0,0,0,0,0,0,0,0,0,0,0,0,0,0,0,0,
134,-140.4,-127,-135.6,-125.1,-127.1,-119.7,-121.9,-150.2,-152.8,-131.9,-136.1,-152.9,-131.8,-127.2,-131.5,-143.5,0,0,0,0,0,0,0,0,0,0,0,0,0,0,0,0,
135,-128.2,-120.9,-126.6,-122.9,-107.9,-97.04,-96.82,-125.5,-115.9,-142.5,-131.2,-144.7,-129.8,-131,-129.5,-135.9,0,0,0,0,0,0,0,0,0,0,0,0,0,0,0,0,
136,-108.8,-137.3,-113.5,-140.5,-103.9,-90.28,-97.58,-126.5,-91.56,-153,-122.5,-132.5,-132.4,-131,-125.6,-138.2,0,0,0,0,0,0,0,0,0,0,0,0,0,0,0,0,
137,-102.1,-153.8,-120.8,-149.2,-116.9,-104,-151.9,-148,-111.6,-119.9,-103.5,-116.4,-124.6,-104.8,-99.55,-116.3,0,0,0,0,0,0,0,0,0,0,0,0,0,0,0,0,
138,-90.36,-131.6,-116.5,-106.6,-101.4,-96.83,-145.4,-125.7,-106.6,-82.73,-75.74,-88.74,-116.5,-103.3,-78.11,-98.66,0,0,0,0,0,0,0,0,0,0,0,0,0,0,0,0,
139,-78.29,-109,-96.96,-88.38,-79.09,-79.75,-105.6,-98.57,-72.19,-95.01,-52.85,-72.42,-114.2,-115,-80.12,-107.1,0,0,0,0,0,0,0,0,0,0,0,0,0,0,0,0,
140,-83.35,-109.4,-104.4,-106.5,-83,-85.45,-116.7,-106,-87.28,-101.2,-49.97,-75.5,-92.93,-86.65,-69.31,-87.6,0,0,0,0,0,0,0,0,0,0,0,0,0,0,0,0,
141,-74.54,-84.68,-99.25,-102.1,-69.14,-72.75,-87.11,-89.1,-66.24,-73.48,-48.68,-61.86,-59.75,-60.18,-49.78,-55.97,0,0,0,0,0,0,0,0,0,0,0,0,0,0,0,0,
142,-50.06,-52.26,-70.22,-97.08,-49.85,-53.53,-30.21,-61.23,-6.885,-53.42,-44.95,-53.17,-58.22,-72.37,-58.52,-68.79,0,0,0,0,0,0,0,0,0,0,0,0,0,0,0,0,
143,-61.58,-62,-76.3,-85.09,-69.21,-74.04,-71.29,-66.14,-55.02,-46.23,-50.53,-75.31,-66.42,-63.92,-60.63,-73.21,0,0,0,0,0,0,0,0,0,0,0,0,0,0,0,0,
144,-87.12,-79.56,-93.11,-63.11,-78.83,-78.99,-128.8,-65.83,-111.8,-51.66,-49.81,-78.78,-47.98,-28.08,-43.42,-46.54,0,0,0,0,0,0,0,0,0,0,0,0,0,0,0,0,
145,-78.43,-82.27,-86.87,-72.25,-61.29,-56.22,-96.77,-70.26,-69.75,-61.11,-43.36,-62.54,-42.17,-26.7,-51.81,-47.61,0,0,0,0,0,0,0,0,0,0,0,0,0,0,0,0,
146,-53.02,-75.89,-71.66,-69,-49.6,-51.26,-50.81,-82.44,-41.5,-44.5,-29.44,-52.9,-50.31,-41.32,-52.12,-49.39,0,0,0,0,0,0,0,0,0,0,0,0,0,0,0,0,
147,-26.14,-35.31,-35.55,-34.46,-22.5,-28.99,-38.75,-42.09,-29.1,-32.55,4.312,-24.42,-31.65,-30.91,-19.42,-22.28,0,0,0,0,0,0,0,0,0,0,0,0,0,0,0,0,
148,-11.54,-6.489,-12.03,-24.58,6.467,3.308,-23.99,-10.91,15.67,-42.97,14.82,-2.77,-19.66,-23.76,-18.03,-19.89,0,0,0,0,0,0,0,0,0,0,0,0,0,0,0,0,
149,-9.461,-29.45,-27.25,-22.07,4.609,0.9758,0.8451,-36.51,30.89,-25,-11.1,-20.83,-32.85,-29.16,-41.8,-35.22,0,0,0,0,0,0,0,0,0,0,0,0,0,0,0,0,
150,11.46,-26.74,-17.54,0.7389,4.653,5.298,14.29,-17.87,5.034,-1.042,-21.26,-38.44,-33.14,-25.37,-37.87,-28.43,0,0,0,0,0,0,0,0,0,0,0,0,0,0,0,0,
151,10.51,-1.34,12.12,24.12,2.998,20.64,-0.6425,27.57,-34.31,-16.39,-14.59,-42.99,-26.13,-16.56,-25.19,-20.48,0,0,0,0,0,0,0,0,0,0,0,0,0,0,0,0,
152,-28.43,-11.47,14.47,39.86,-8.237,19.95,-5.98,19.59,-40.93,-23.26,-9.956,-40.87,-24.93,-8.7,-18.11,-17.99,0,0,0,0,0,0,0,0,0,0,0,0,0,0,0,0,
153,-18.06,-3.801,18.87,34.14,11.2,29.57,28.49,13.38,4.047,-2.785,1.732,-19.03,-18.1,-7.656,-4.967,-9.001,0,0,0,0,0,0,0,0,0,0,0,0,0,0,0,0,
154,26.76,20.97,27.83,30.23,32.83,37.89,37.46,21.64,2.691,15.93,11.39,4.198,-9.272,-9.945,3.878,-2.589,0,0,0,0,0,0,0,0,0,0,0,0,0,0,0,0,
155,35.75,12.06,26.84,63.06,28.37,35.2,15.26,15.71,-20.19,23.35,14.4,17.43,4.871,8.777,6.914,4.079,0,0,0,0,0,0,0,0,0,0,0,0,0,0,0,0,
156,39.42,13.21,32.18,68.43,28.99,41.48,22.86,28.5,36.41,7.226,17.26,27.63,20.22,28.53,13.4,13.05,0,0,0,0,0,0,0,0,0,0,0,0,0,0,0,0,
157,46.6,27.81,27.08,35.81,21.92,32.86,26.86,37.57,50.85,12.93,23.6,30.9,22.31,17.55,22.2,18.7,0,0,0,0,0,0,0,0,0,0,0,0,0,0,0,0,
158,37.22,27.86,23.41,59.24,13.51,24.8,18.37,31.73,-12.8,60.01,44.8,39.84,28.49,10.8,28.68,25.48,0,0,0,0,0,0,0,0,0,0,0,0,0,0,0,0,
159,32.08,41.45,53.7,93.06,40.54,49.51,38.84,58.73,10.1,53.68,68.79,53.87,45.02,30.63,36.49,29.45,0,0,0,0,0,0,0,0,0,0,0,0,0,0,0,0,
160,33.74,48.46,76.51,71.6,69.53,65.72,47.65,83.85,63.97,17.42,68.27,49.92,51.19,45.42,49.5,31.49,0,0,0,0,0,0,0,0,0,0,0,0,0,0,0,0,
161,36.09,35.56,68.76,88.11,71.22,62.36,41.51,75.01,31.72,41.65,42.93,32.71,44.93,45.86,46.05,36.78,0,0,0,0,0,0,0,0,0,0,0,0,0,0,0,0,
162,39.6,42.53,69.76,120.4,67.31,67.23,69.17,71.86,26.93,54.41,22.09,24.01,36.23,45.38,27.38,35.38,0,0,0,0,0,0,0,0,0,0,0,0,0,0,0,0,
163,50.24,54.17,87.99,82.86,76.72,75.58,90.18,73.93,72.71,28.01,34.79,34.96,35.87,46.44,33.43,34.5,0,0,0,0,0,0,0,0,0,0,0,0,0,0,0,0,
164,69.06,50.01,98.69,85.38,90.51,74.92,65.38,77.11,44.55,35.23,55.7,47.82,39.17,46.41,45.65,37.29,0,0,0,0,0,0,0,0,0,0,0,0,0,0,0,0,
165,56.56,40.41,107.7,158.5,87.72,61.79,54.53,99.41,-4.111,56.66,53.63,43.26,29.05,35.88,31.23,25.07,0,0,0,0,0,0,0,0,0,0,0,0,0,0,0,0,
166,40.08,33.91,155.5,199.4,111.1,74.23,117.2,125,36.01,63.47,56.16,46.13,23.5,20.48,25.29,20.76,0,0,0,0,0,0,0,0,0,0,0,0,0,0,0,0,
167,81.54,55.3,231.2,244.2,181.2,133,193.3,149.5,96.22,65.23,65.3,60.22,35.2,26.74,34.97,44.33,0,0,0,0,0,0,0,0,0,0,0,0,0,0,0,0,
168,112.1,75.15,272.2,302.7,204.8,168.7,192.6,170.3,104.5,52.7,64.9,60.2,41.41,51.04,39.02,57.91,0,0,0,0,0,0,0,0,0,0,0,0,0,0,0,0,
169,98.8,59.16,286.4,317.3,185.8,165.5,159.6,168.5,86.55,40.67,81.71,64.13,45.74,60.23,50.31,49.88,0,0,0,0,0,0,0,0,0,0,0,0,0,0,0,0,
170,104.7,65.87,315.3,333.3,216.2,173.5,150.4,173.8,76.13,42.88,95.81,75.15,53.14,47.02,51.78,41.61,0,0,0,0,0,0,0,0,0,0,0,0,0,0,0,0,
171,105.8,90.27,335.8,343.7,243.5,170.5,141.2,196.2,98.38,56.24,69.78,66.53,47.67,35.1,27.81,33.51,0,0,0,0,0,0,0,0,0,0,0,0,0,0,0,0,
172,89.37,82.09,327.7,321,215.3,145.3,156,191.2,111.6,69.03,48.61,60.19,49.42,41.78,23.77,35.58,0,0,0,0,0,0,0,0,0,0,0,0,0,0,0,0,
173,99.21,96.19,320,329.6,206.2,145.2,195.6,182.2,81.21,53.07,65.71,79.4,68.4,53.9,52.07,53.11,0,0,0,0,0,0,0,0,0,0,0,0,0,0,0,0,
174,117.9,121.8,330.8,342.1,223.7,163.5,197.4,195.8,81.87,35.75,85.98,94.68,66.76,48.89,64.05,53.78,0,0,0,0,0,0,0,0,0,0,0,0,0,0,0,0,
175,124.4,74.6,324.5,318.1,202.1,156.3,158.7,177.3,93.08,44.88,77.84,77.52,41.81,36.01,36.81,26.55,0,0,0,0,0,0,0,0,0,0,0,0,0,0,0,0,
176,100.4,19.64,269.1,296,152.5,122.9,112.3,140.8,55.18,45.79,53.78,50.86,37.02,42.06,14.8,15.72,0,0,0,0,0,0,0,0,0,0,0,0,0,0,0,0,
177,59.43,46.48,227.1,266.6,140.1,110.5,112.3,158.3,73.06,63.22,58.97,64.2,70.11,70.23,45.42,53.36,0,0,0,0,0,0,0,0,0,0,0,0,0,0,0,0,
178,88.96,108.4,257.9,269,176.7,144.2,167.6,198.2,137.7,113.1,96.9,106.8,111.7,103.2,87.69,97.61,0,0,0,0,0,0,0,0,0,0,0,0,0,0,0,0,
179,147.3,141.8,286,311.4,200.9,168.9,177.3,198,113.4,119.9,111.4,118.3,125.4,120.3,86,99.56,0,0,0,0,0,0,0,0,0,0,0,0,0,0,0,0,
180,125.3,142.2,246.3,268.4,176.2,148.2,153.7,171.2,60.93,98.72,87.75,96.78,113.7,111.9,72.39,86.42,0,0,0,0,0,0,0,0,0,0,0,0,0,0,0,0,
181,89.39,137.5,205.6,189.1,146.7,129.9,180.8,149.1,70.36,110.2,69.87,84.66,100.7,98.66,76.81,90.21,0,0,0,0,0,0,0,0,0,0,0,0,0,0,0,0,
182,94.57,128.6,200.1,182,136.2,128.5,175.3,130.3,94.88,101.6,76.97,89.32,88.71,100.7,80.59,92.99,0,0,0,0,0,0,0,0,0,0,0,0,0,0,0,0,
183,91.42,91.2,174.6,154.4,118.3,112.7,102,108,107.4,68.05,88.96,97.86,76.32,101.2,87.51,94.33,0,0,0,0,0,0,0,0,0,0,0,0,0,0,0,0,
184,94.01,66.1,132.3,113.8,98.31,97.27,70.86,97.95,97.93,77.9,97.84,106.9,73.72,88.56,99.33,102.8,0,0,0,0,0,0,0,0,0,0,0,0,0,0,0,0,
185,102.9,82.15,115.1,133.7,87.55,95.11,99.94,103.9,64.95,90.89,111.2,110.2,75.2,83.07,94.77,99.01,0,0,0,0,0,0,0,0,0,0,0,0,0,0,0,0,
186,92.97,80.03,107.9,126.8,81.77,93.51,130.6,101.4,67.19,67.88,110.9,102.9,70,84.33,81.44,85.7,0,0,0,0,0,0,0,0,0,0,0,0,0,0,0,0,
187,100.7,66.75,105.5,91.22,94.06,99.99,128.1,90.16,110.3,72.9,86.99,96.05,70.68,76.76,78.11,85.77,0,0,0,0,0,0,0,0,0,0,0,0,0,0,0,0,
188,109.4,91.89,112.6,84.12,99.82,102.4,107,82.24,115.3,98.3,78.41,98.73,87.61,83.86,80.17,95.21,0,0,0,0,0,0,0,0,0,0,0,0,0,0,0,0,
189,92.06,112.8,102.9,61.59,81.81,93.56,117.8,79.89,76.64,86.41,93.27,102,104.4,115.3,81.41,98.63,0,0,0,0,0,0,0,0,0,0,0,0,0,0,0,0,
190,93.8,112.2,89.18,49.7,87.29,106.5,122.2,95.16,65.86,79.91,93.87,101.2,107.4,122,84.4,92.73,0,0,0,0,0,0,0,0,0,0,0,0,0,0,0,0,
191,92.29,126,86.43,76.16,96.79,118.1,86.86,106.4,77.14,99.69,86.28,101.9,103.7,95.46,90.58,86.27,0,0,0,0,0,0,0,0,0,0,0,0,0,0,0,0,
192,65.54,127.5,73.07,81,70.34,94.85,92.78,84.46,76.03,91.12,87.2,97.34,96.53,85.22,88.84,83.69,0,0,0,0,0,0,0,0,0,0,0,0,0,0,0,0,
193,72.52,110.2,72.22,59.09,60.6,85.29,128.9,72.59,85.51,78.5,78.35,80.74,89.42,92.44,72.02,81.38,0,0,0,0,0,0,0,0,0,0,0,0,0,0,0,0,
194,88.85,122.3,92.19,38.01,74.67,100.1,123.6,98.1,93.16,99.53,69.19,70.9,96.81,91.92,62.43,87.34,0,0,0,0,0,0,0,0,0,0,0,0,0,0,0,0,
195,78.63,136.5,86.29,47.48,75.14,98,101.1,105.2,85.23,100.7,72.76,79.03,106.9,92.96,66.74,96.61,0,0,0,0,0,0,0,0,0,0,0,0,0,0,0,0,
196,87.69,104.6,65.2,76.72,69.84,86.59,70.73,66.57,93.2,74.04,67.98,84.16,96.95,96.92,65.19,89.84,0,0,0,0,0,0,0,0,0,0,0,0,0,0,0,0,
197,92.25,71.5,60.07,46.14,44.9,71.53,52.01,35.71,86.78,63.85,66.23,79.76,80.84,90.64,68.49,78.39,0,0,0,0,0,0,0,0,0,0,0,0,0,0,0,0,
198,61.45,70.45,48.66,-0.7791,14.91,45.11,69.55,49.77,43.49,62.09,81.48,78.32,68.22,70.23,77.84,71.84,0,0,0,0,0,0,0,0,0,0,0,0,0,0,0,0,
199,49.9,66.17,32.04,10.73,30.3,38.45,52.97,71.72,29.19,70.57,83.76,78.74,53.68,49.35,72.63,67.35,0,0,0,0,0,0,0,0,0,0,0,0,0,0,0,0,
200,64.76,57.2,38.31,9.352,60.54,58.12,28.05,63.61,66.76,91.68,76.32,81.04,56.47,59.35,72.9,77.06,0,0,0,0,0,0,0,0,0,0,0,0,0,0,0,0,
201,64.33,58.23,44.38,-7.356,65.23,57.85,58.13,38.21,89.32,84.27,79.03,79.29,71.27,87.27,81,83.93,0,0,0,0,0,0,0,0,0,0,0,0,0,0,0,0,
202,50.48,49.81,22.6,7.09,59.23,37.12,50.79,22.4,67.33,62.78,72.65,68.99,70.55,90.08,72.85,75.52,0,0,0,0,0,0,0,0,0,0,0,0,0,0,0,0,
203,60.77,44.51,13.01,4.558,59.75,51.35,18.58,29.34,70.93,58.16,59.97,69.18,67.3,79.7,66.6,77.51,0,0,0,0,0,0,0,0,0,0,0,0,0,0,0,0,
204,91.1,54.83,30.76,-15.87,67.31,77.11,41.13,41.81,108.3,49.9,56.51,63.89,59.67,67.55,61.23,70.18,0,0,0,0,0,0,0,0,0,0,0,0,0,0,0,0,
205,73.25,45.08,20.94,-34.78,53.03,45.99,36.15,35.28,81.66,51.57,48.51,36.02,32.58,39.53,46.65,40.15,0,0,0,0,0,0,0,0,0,0,0,0,0,0,0,0,
206,24.24,25.78,-5.84,-52.13,20.57,7.618,-0.6208,27.77,23.97,68.38,44.65,35.63,25.58,25.12,55.34,36.5,0,0,0,0,0,0,0,0,0,0,0,0,0,0,0,0,
207,29.18,37.91,-2.474,-34.38,17.58,17.68,2.551,29.52,26.45,66.07,53.13,60.13,47.56,39,70.36,57.05,0,0,0,0,0,0,0,0,0,0,0,0,0,0,0,0,
208,49.88,56.69,-6.59,-21.96,23.95,23.55,20.7,18.32,36.39,58.35,44.71,54.08,55.84,48.45,56.47,61.67,0,0,0,0,0,0,0,0,0,0,0,0,0,0,0,0,
209,34.97,55.59,-25.35,-40.63,12.58,14.32,49.6,8.919,31.91,46.76,23.48,39.99,54.65,44.65,44.04,53.73,0,0,0,0,0,0,0,0,0,0,0,0,0,0,0,0,
210,25.59,57.5,-10.68,-36.13,17.79,19.88,56.07,25.08,49.29,22.57,20.11,41.14,57.63,35.91,47.77,45.99,0,0,0,0,0,0,0,0,0,0,0,0,0,0,0,0,
211,27.61,62.34,4.765,-37.18,27.39,22.03,11.7,43.45,48.84,32.17,26.34,38.86,53.53,32.83,51.87,45.65,0,0,0,0,0,0,0,0,0,0,0,0,0,0,0,0,
212,26.32,42.21,-12.84,-58.54,5.286,14.61,0.7811,33.43,17.15,54.57,26.4,41.68,48.4,40.74,56.52,49.21,0,0,0,0,0,0,0,0,0,0,0,0,0,0,0,0,
213,23.57,15.03,-27.09,-50.13,-19.1,-0.7912,3.454,3.046,-11.41,33.58,26.85,40.84,40.98,40.53,57.82,47.95,0,0,0,0,0,0,0,0,0,0,0,0,0,0,0,0,
214,4.027,16.64,-33.06,-38.27,-13.75,-16.07,-33.06,-10.12,-4.899,13.39,33.31,29.13,32.57,41.24,58.07,54.81,0,0,0,0,0,0,0,0,0,0,0,0,0,0,0,0,
215,-10.43,23.08,-40.74,-50.63,1.636,-2.208,-24.59,-5.789,46.95,20.53,38.43,35.2,39.07,51.8,58.94,58.21,0,0,0,0,0,0,0,0,0,0,0,0,0,0,0,0,
216,8.798,17.29,-33.2,-78.68,1.217,12.86,8.322,-18.75,62.79,25.87,25.24,37.29,37.59,32.58,43.26,36.06,0,0,0,0,0,0,0,0,0,0,0,0,0,0,0,0,
217,24.63,30.81,-21.52,-97.64,-3.184,3.839,-9.542,-30.21,14.86,34.03,-0.2935,14.46,17.53,4.103,20.35,19.02,0,0,0,0,0,0,0,0,0,0,0,0,0,0,0,0,
218,4.999,35.69,-18.56,-56.67,4.249,5.103,-12.93,-14.45,-3.987,27.15,-4.667,12.42,17.75,18.86,19.49,25.93,0,0,0,0,0,0,0,0,0,0,0,0,0,0,0,0,
219,-7.298,-0.2017,-13.62,-10.68,8.621,13.5,10.84,-0.2023,10.78,-4.683,12.11,34.09,34.76,34.07,34.04,33.56,0,0,0,0,0,0,0,0,0,0,0,0,0,0,0,0,
220,28.1,-5.793,-16.49,-25.87,6.74,15.72,4.628,4.606,14.16,-6.312,18.16,38.33,33.42,21.23,35.91,36.94,0,0,0,0,0,0,0,0,0,0,0,0,0,0,0,0,
221,50.69,32.36,-27.17,-36.2,10.37,19.64,10.69,4.855,15.48,12.96,10.67,28.14,18.84,20.59,21.67,33.46,0,0,0,0,0,0,0,0,0,0,0,0,0,0,0,0,
222,15.39,31.08,-25.13,-38.83,9.942,9.189,52.25,-9.052,14.47,1.815,4.244,21.37,3.985,17.44,9.379,11.85,0,0,0,0,0,0,0,0,0,0,0,0,0,0,0,0,
223,-1.103,7.748,-21.03,-66.08,3.693,0.3373,46.39,-10.4,23.19,2.922,-4.117,18.32,-9.7,-8.773,5.185,-9.025,0,0,0,0,0,0,0,0,0,0,0,0,0,0,0,0,
224,22.73,19.6,-22.09,-52.69,-0.0066,7.713,-13.07,0.66,21.77,35.39,-19.6,10.54,-16.44,-18.57,-2.315,-13.85,0,0,0,0,0,0,0,0,0,0,0,0,0,0,0,0,
225,19.76,18.5,-17.04,-17.53,-7.396,-1.415,-32.52,-14.56,-12.61,24.59,-31.03,-4.218,-16.63,-11.4,-15.5,-17.17,0,0,0,0,0,0,0,0,0,0,0,0,0,0,0,0,
226,2.455,-16.77,-22.24,-28.81,-14.71,-11.16,-22.79,-24.97,-4.356,-23.79,-25.03,-4.942,-10.65,-13.87,-18.31,-14.73,0,0,0,0,0,0,0,0,0,0,0,0,0,0,0,0,
227,-4.318,-27.06,-40.41,-50.44,-16.12,-5.621,-39.78,-7.622,16.52,-23.39,-10.92,8.675,-1.145,-11.43,-8.39,1.424,0,0,0,0,0,0,0,0,0,0,0,0,0,0,0,0,
228,-17.04,-13.86,-46.51,-58.42,-17.23,-16.15,-35.7,-10.28,-28,8.49,-3.128,12.23,-0.1842,-3.287,-4.292,7.47,0,0,0,0,0,0,0,0,0,0,0,0,0,0,0,0,
229,-6.5,-15.34,-41.09,-55.34,-9.699,-19.85,-13.28,-27.15,-20.51,0.1371,2.249,15.93,-4.78,-6.254,-3.551,1.714,0,0,0,0,0,0,0,0,0,0,0,0,0,0,0,0,
230,20.44,-12.76,-35.24,-39.43,0.2614,-6.407,-33.95,-30.64,45.31,-11.86,0.0006,23.29,-6.181,-10.6,2.83,3.818,0,0,0,0,0,0,0,0,0,0,0,0,0,0,0,0,
231,10.7,-0.0979,-37.23,-58.36,-9.812,-18.42,-57.65,-44.53,31.75,5.808,-10.94,13.1,-10.6,-9.794,0.3141,2.155,0,0,0,0,0,0,0,0,0,0,0,0,0,0,0,0,
232,-11.5,-11.4,-49.57,-91.37,-26.07,-33.4,-45.5,-54.62,-3.486,-15.49,-5.536,4.208,-16.59,-10.53,-7.519,-9.525,0,0,0,0,0,0,0,0,0,0,0,0,0,0,0,0,
233,-15.25,-31.54,-53,-66.57,-32.5,-28.18,-22.57,-34.83,-13.75,-48.22,0.1686,3.486,-21.02,-15.54,-11.73,-17.18,0,0,0,0,0,0,0,0,0,0,0,0,0,0,0,0,
234,-21.51,-23.74,-49.88,-43.91,-40,-36.44,-13.91,-23.96,-39.59,-8.785,-31.27,-20.62,-33.71,-26.62,-29.96,-26.12,0,0,0,0,0,0,0,0,0,0,0,0,0,0,0,0,
235,-30.56,-15.53,-56.92,-75.16,-46.05,-48.38,-37.97,-40.82,-21.76,12.01,-58.81,-43.08,-42.81,-34.43,-46.01,-35.4,0,0,0,0,0,0,0,0,0,0,0,0,0,0,0,0,
236,-32.28,-26.93,-59.99,-80.51,-41.94,-41.53,-48.01,-49.94,2.343,-31.56,-42.96,-27.87,-30.63,-29.45,-31.56,-28.18,0,0,0,0,0,0,0,0,0,0,0,0,0,0,0,0,
237,-20.64,-21.2,-56.41,-56.93,-34.36,-35.74,-16.6,-41.09,-35.56,-26.33,-30.21,-12.64,-22.49,-23.91,-18.53,-17.51,0,0,0,0,0,0,0,0,0,0,0,0,0,0,0,0,
238,-7.644,-11.46,-59.72,-74.94,-39.9,-42.33,-27.19,-35.42,-50.87,-5.171,-36.2,-20.66,-35.81,-28.44,-27.15,-23.81,0,0,0,0,0,0,0,0,0,0,0,0,0,0,0,0,
239,-31.35,-31.36,-68.63,-89.27,-61.65,-55.16,-73.76,-32.54,-41.54,-33.32,-26.6,-22.48,-41.83,-32.37,-26.85,-28.08,0,0,0,0,0,0,0,0,0,0,0,0,0,0,0,0,
240,-56.54,-35.9,-80.96,-65.15,-65.81,-61.64,-70.26,-27.23,-51.4,-22.41,-20.37,-16.75,-33.58,-25.1,-18.21,-19.01,0,0,0,0,0,0,0,0,0,0,0,0,0,0,0,0,
241,-34.08,-18.88,-85.09,-69.01,-46.81,-58.11,-50.23,-39.18,-33.67,3.103,-35.43,-23.75,-29.91,-15.26,-25.48,-23.48,0,0,0,0,0,0,0,0,0,0,0,0,0,0,0,0,
242,-26.57,-27.32,-79.97,-82.3,-48.99,-60.58,-51.38,-57.58,-14.74,-31.61,-43.82,-33.06,-23.41,-13.1,-35.64,-35.59,0,0,0,0,0,0,0,0,0,0,0,0,0,0,0,0,
243,-56.04,-27,-89.13,-69.35,-71.89,-72.79,-47.94,-53.47,-45.13,-44.39,-47.82,-32.56,-13.1,-13.17,-28.65,-22.89,0,0,0,0,0,0,0,0,0,0,0,0,0,0,0,0,
244,-57.83,-9.692,-98.33,-92.52,-79.44,-83.98,-53.49,-51.68,-81.86,-25.28,-53.98,-30.78,-15,-15.41,-17.26,-10.06,0,0,0,0,0,0,0,0,0,0,0,0,0,0,0,0,
245,-39.13,-26.18,-80.01,-112.5,-58.12,-73.6,-57.02,-57.54,-57.97,-38.01,-45.08,-29.5,-21.92,-27.21,-22.82,-26.44,0,0,0,0,0,0,0,0,0,0,0,0,0,0,0,0,
246,-32.42,-36.36,-61.7,-67.24,-26.02,-42.83,-39.4,-39.96,5.741,-34.34,-40.8,-33.62,-31.18,-39.08,-41.83,-43.9,0,0,0,0,0,0,0,0,0,0,0,0,0,0,0,0,
247,-34.7,-22.67,-72.81,-50.08,-40.33,-50.15,-53.17,-36.03,-18.57,-12.44,-51.83,-53.22,-50.83,-41.68,-51.53,-46.86,0,0,0,0,0,0,0,0,0,0,0,0,0,0,0,0,
248,-54.16,-43.43,-93.97,-78.77,-92.48,-91.33,-91.42,-67.34,-99.77,-28.45,-45.82,-63.41,-56.32,-38.93,-42.06,-43.81,0,0,0,0,0,0,0,0,0,0,0,0,0,0,0,0,
249,-71.69,-62.8,-97.69,-89.13,-95.93,-85.82,-90.13,-75.05,-75.26,-40.37,-32.07,-45.67,-34.47,-28.68,-27.83,-29.18,0,0,0,0,0,0,0,0,0,0,0,0,0,0,0,0,
250,-59.14,-41.45,-83.87,-97.14,-60.7,-52.13,-69.68,-59.19,-26.09,-31.23,-34.99,-32.15,-20.63,-16.17,-23.17,-14.8,0,0,0,0,0,0,0,0,0,0,0,0,0,0,0,0,
251,-30.49,-26.67,-60.98,-79.34,-37,-37.08,-48.11,-59.43,-32.38,-41.28,-31.87,-31.97,-29.2,-24.92,-24.51,-21.31,0,0,0,0,0,0,0,0,0,0,0,0,0,0,0,0,
252,-6.507,-24.29,-38.72,-43.05,-15.96,-16.04,-12.64,-53.55,7.789,-41.07,-26.37,-25.59,-38.15,-53.62,-30.84,-41.26,0,0,0,0,0,0,0,0,0,0,0,0,0,0,0,0,
253,-6.096,-26.84,-44.96,-61.96,-29.68,-14.95,-9.431,-42.32,15.89,-24.42,-46,-31.42,-44.48,-64.76,-48.55,-57.53,0,0,0,0,0,0,0,0,0,0,0,0,0,0,0,0,
254,-27.63,-44.31,-75.84,-80.11,-73.6,-50.93,-39.73,-50.58,-60.66,-39.06,-61.92,-54.19,-52.76,-46.11,-60.13,-58.2,0,0,0,0,0,0,0,0,0,0,0,0,0,0,0,0,
255,-45.23,-46.18,-82.55,-56.49,-68.02,-63.5,-56.55,-44.54,-71.23,-58.45,-53.31,-61.32,-56.02,-32.04,-53.28,-49.89,0,0,0,0,0,0,0,0,0,0,0,0,0,0,0,0,
256,-57.2,-36.73,-66.95,-57.61,-44.27,-57.44,-73.69,-30.02,-48.13,-47.21,-45.63,-53.77,-56.3,-38.44,-48.53,-49.41,0,0,0,0,0,0,0,0,0,0,0,0,0,0,0,0,
257,-55.42,-40.88,-61.19,-78.94,-55.96,-55.39,-62.31,-54.28,-51.8,-34.81,-30.4,-38.26,-49.12,-43.96,-36,-42.87,0,0,0,0,0,0,0,0,0,0,0,0,0,0,0,0,
258,-28.21,-32.24,-52.72,-87.69,-46.95,-30.09,-8.125,-73.3,-7.383,-33.15,-5.543,-6.838,-29.82,-41.59,-5.315,-22.89,0,0,0,0,0,0,0,0,0,0,0,0,0,0,0,0,
259,-7.458,-20.37,-41.1,-70.13,-14.67,-12.43,-17.38,-55.6,18.02,-33.19,-10.21,6.221,-21.46,-38.25,-5.4,-18.61,0,0,0,0,0,0,0,0,0,0,0,0,0,0,0,0,
260,-6.863,-27.91,-40.54,-29.9,-7.277,-19.51,-60.96,-37.55,-1.463,-34.64,-25.56,-16.71,-28.06,-32.76,-34.45,-30.9,0,0,0,0,0,0,0,0,0,0,0,0,0,0,0,0,
261,-15.5,-27.12,-37.15,-27.25,-9.526,-17.85,-34.1,-14.17,12.02,-34.61,-18.8,-36.32,-26.8,-25.52,-33.46,-34.25,0,0,0,0,0,0,0,0,0,0,0,0,0,0,0,0,
262,-41.26,-30.56,-42.56,-56.44,-25.5,-41.78,-33.16,-23.48,-13.59,-42.46,-19.08,-44.38,-23.59,-11.05,-16.22,-25.48,0,0,0,0,0,0,0,0,0,0,0,0,0,0,0,0,
263,-63.26,-49.73,-71.36,-69.53,-57.24,-77.36,-76.17,-89.2,-60.17,-50.34,-24.2,-44.65,-25.38,5.236,-14.57,-13.43,0,0,0,0,0,0,0,0,0,0,0,0,0,0,0,0,
264,-48.03,-40.17,-79.76,-85.17,-49.05,-43.25,-46.02,-95.46,-9.562,-38.41,-13.85,-23.36,-25.05,-7.681,-17,-16.24,0,0,0,0,0,0,0,0,0,0,0,0,0,0,0,0,
265,-11.25,-23.7,-47.71,-88.18,-18.29,-2.466,-23.52,-53.88,26.76,-32.01,-16.83,-18.54,-37.08,-37.32,-32.55,-38.63,0,0,0,0,0,0,0,0,0,0,0,0,0,0,0,0,
266,-1.768,-42.56,-29.37,-60.99,-31.17,-34.13,-64.43,-72.48,-43.48,-49.11,-35.07,-51.8,-57.19,-40.94,-59.48,-51.75,0,0,0,0,0,0,0,0,0,0,0,0,0,0,0,0,
267,-47.76,-55.03,-53.7,-42.13,-65.08,-70.08,-64.3,-72,-95.41,-60.05,-49.22,-75.14,-63.16,-46.13,-67.37,-54.28,0,0,0,0,0,0,0,0,0,0,0,0,0,0,0,0,
268,-98.22,-51.11,-77.17,-38.78,-79.01,-78.38,-60.25,-32.74,-75.68,-48.86,-66.42,-81.82,-71.21,-79.92,-66.41,-70.4,0,0,0,0,0,0,0,0,0,0,0,0,0,0,0,0,
269,-95.19,-69.91,-77.48,-54.34,-76.1,-85.47,-85.35,-53.54,-48.73,-39.28,-67.39,-86.41,-85.48,-88.61,-69.37,-79.1,0,0,0,0,0,0,0,0,0,0,0,0,0,0,0,0,
270,-76.94,-91.7,-85.84,-83.63,-64.86,-71.94,-66.7,-80.62,-39.91,-59.29,-43.61,-70.94,-81.55,-59.76,-53.6,-56.47,0,0,0,0,0,0,0,0,0,0,0,0,0,0,0,0,
271,-69.58,-88.97,-90.78,-91.89,-58.72,-50.81,-67.35,-75.9,-44.81,-81.08,-36.76,-57.77,-75.84,-49.18,-34.54,-39.65,0,0,0,0,0,0,0,0,0,0,0,0,0,0,0,0,
272,-51.44,-80.62,-59.89,-87.12,-48.65,-47.1,-106.7,-81.72,-45.78,-60.68,-45.7,-63.79,-84.2,-61.17,-43.92,-57.29,0,0,0,0,0,0,0,0,0,0,0,0,0,0,0,0,
273,-48.96,-69.36,-37.55,-67.18,-27.2,-34.81,-74.79,-58.21,-16.11,-33.43,-38.96,-56.29,-75.37,-62.56,-52.2,-68.16,0,0,0,0,0,0,0,0,0,0,0,0,0,0,0,0,
274,-56.32,-38.39,-52.43,-33.73,-27.97,-17.71,-21.13,-24.31,12.82,-33.5,-38.6,-45.98,-45.66,-46.89,-42.36,-50.01,0,0,0,0,0,0,0,0,0,0,0,0,0,0,0,0,
275,-32.09,-10.56,-54.22,-41.81,-38.26,-20.16,-27.81,-34.75,-13.46,-31.9,-58.92,-53.59,-30.47,-25.95,-48.57,-44.7,0,0,0,0,0,0,0,0,0,0,0,0,0,0,0,0,
276,-20.58,-18.05,-40.26,-56.51,-31.53,-31.24,-34,-37.16,-63.27,-22.64,-60.94,-51.98,-30.64,-20.25,-55.83,-51.05,0,0,0,0,0,0,0,0,0,0,0,0,0,0,0,0,
277,-45.02,-30.55,-50.27,-38.53,-43.21,-38.71,-19.07,-20.8,-65.94,-15.92,-35.29,-38.34,-18.77,-24.28,-32.93,-32.69,0,0,0,0,0,0,0,0,0,0,0,0,0,0,0,0,
278,-47.62,-13.76,-60.51,-54.57,-55.59,-34.42,-13.36,-21.31,-22.97,-11.92,-19.87,-30.16,0.7695,-13.39,-18.45,-18.31,0,0,0,0,0,0,0,0,0,0,0,0,0,0,0,0,
279,-32.77,0.0266,-44.83,-65.96,-31.71,-23.18,-14.59,-15.75,3.021,-13.45,-21.83,-27.03,-0.6961,-11.29,-26.62,-27.46,0,0,0,0,0,0,0,0,0,0,0,0,0,0,0,0,
280,-39.49,-8.058,-35.47,-28.68,-22.57,-29.97,-19.01,-2.849,-16.07,-9.332,-18.12,-33.59,-19.82,-32.66,-16.21,-23.92,0,0,0,0,0,0,0,0,0,0,0,0,0,0,0,0,
281,-45.44,-18.91,-47.11,-32.76,-40.17,-42.89,-15.11,-4.966,-30.15,-13.38,-17.96,-42.39,-27.62,-30.92,-1.539,-14.3,0,0,0,0,0,0,0,0,0,0,0,0,0,0,0,0,
282,-37.5,-36.93,-51.54,-40.41,-42.11,-34.12,-20.71,-12.87,-28.22,-34.38,-33.52,-37.95,-23.35,-7.73,-13.59,-18.45,0,0,0,0,0,0,0,0,0,0,0,0,0,0,0,0,
283,-36.3,-53.31,-37.92,-5.395,-31.69,-18.11,-47.14,-18.33,-49.74,-33.04,-33.16,-24.42,-20.17,-7.816,-11.35,-9.886,0,0,0,0,0,0,0,0,0,0,0,0,0,0,0,0,
284,-26.16,-42.44,-14.89,-31.95,-12.74,-4.307,-18.28,-21.27,-28.88,-21.67,-8.443,-6.891,-16.22,-19,14.79,2.677,0,0,0,0,0,0,0,0,0,0,0,0,0,0,0,0,
285,7.668,-19.56,11.27,-59.43,7.317,16.79,45.07,-22.16,49.61,-22.23,2.277,-0.0452,-21.93,-33.83,2.015,-15.03,0,0,0,0,0,0,0,0,0,0,0,0,0,0,0,0,
286,22.5,-9.498,15.44,0.0604,3.982,25.73,19.79,-26.54,45.09,-8.212,-1.676,-16.65,-42.87,-63.68,-34.85,-38.67,0,0,0,0,0,0,0,0,0,0,0,0,0,0,0,0,
287,-1.605,-21.54,-13.22,21.14,-11.16,4.061,-36.07,-38.41,-20.68,-14.91,4.207,-33.78,-54.91,-66.84,-32.96,-43.3,0,0,0,0,0,0,0,0,0,0,0,0,0,0,0,0,
288,-29.92,-51.19,-41.05,-24.5,-27.77,-30.08,-38.6,-45.89,-23.24,-51.52,6.952,-41.63,-54.08,-38.24,-26.11,-47.48,0,0,0,0,0,0,0,0,0,0,0,0,0,0,0,0,
289,-49.13,-63.2,-55.35,-58.08,-43.59,-51.4,-59.57,-30.64,-16.68,-46.7,-5.193,-50.77,-56.74,-35.07,-44.93,-54.37,0,0,0,0,0,0,0,0,0,0,0,0,0,0,0,0,
290,-55.26,-54.82,-66.47,-80.43,-43.77,-56.56,-67.02,-20.79,-40.13,-29.22,-24.14,-55.8,-60.63,-49.99,-52.28,-58.93,0,0,0,0,0,0,0,0,0,0,0,0,0,0,0,0,
291,-44.36,-67.3,-66.29,-78.51,-43.08,-61.59,-17.76,-46.3,-43.52,-44.09,-41.92,-63.95,-61.77,-51.39,-51.39,-66.38,0,0,0,0,0,0,0,0,0,0,0,0,0,0,0,0,
292,-50.05,-80.22,-65.54,-57.28,-51.24,-68.3,-36.65,-61.25,-45.81,-40.93,-50.7,-75.44,-57.78,-56.19,-55.88,-66.11,0,0,0,0,0,0,0,0,0,0,0,0,0,0,0,0,
293,-70.03,-60.25,-74.71,-47.2,-54.17,-64.16,-101.8,-46.38,-59.77,-36.83,-65.9,-75.79,-52.67,-62.97,-57.94,-63.31,0,0,0,0,0,0,0,0,0,0,0,0,0,0,0,0,
294,-67.46,-55.82,-68.39,-43.03,-56.44,-56.47,-94.79,-42.65,-72.18,-59.75,-88.12,-81.48,-58.87,-59.61,-63.04,-67.42,0,0,0,0,0,0,0,0,0,0,0,0,0,0,0,0,
295,-60.44,-71.21,-42.77,-51.2,-54.13,-47.1,-70.4,-34.6,-87.21,-47.82,-76.2,-85.28,-55.6,-58.9,-49.68,-51.72,0,0,0,0,0,0,0,0,0,0,0,0,0,0,0,0,
296,-61.05,-40.21,-22.74,-39.03,-44.78,-32.62,-39.81,-8.645,-84.85,-15.7,-45.46,-64.07,-35.08,-59.43,-28.39,-29.64,0,0,0,0,0,0,0,0,0,0,0,0,0,0,0,0,
297,-54.78,-0.4152,-24.89,-6.889,-41.51,-36.19,16.97,-8.944,-64.57,-15.29,-38.6,-51.42,-35.09,-51.76,-42.57,-37.26,0,0,0,0,0,0,0,0,0,0,0,0,0,0,0,0,
298,-52.98,-21.85,-41.34,-17.8,-29.21,-44.76,-0.9952,-20.07,-26.07,-15.31,-24.3,-50.21,-40.27,-36.33,-42.82,-34.88,0,0,0,0,0,0,0,0,0,0,0,0,0,0,0,0,
299,-41.67,-43.3,-38.59,-15.08,-13.83,-26.09,-54.41,-0.9426,27.5,-18.13,8.273,-32.47,-21.37,-23.66,-13.65,-12.81,0,0,0,0,0,0,0,0,0,0,0,0,0,0,0,0,
300,-23.92,-25.18,-32.56,2.605,-32.63,-24.98,-38.59,10.75,11.81,-29.12,15.54,-35.68,-20.53,-31.41,-26.03,-24.44,0,0,0,0,0,0,0,0,0,0,0,0,0,0,0,0,
301,-40.93,-30.36,-53.71,-49.25,-50.88,-51.81,-30.74,-11.35,-48.97,-7.198,10.33,-54.96,-33.6,-36.96,-33.64,-33.22,0,0,0,0,0,0,0,0,0,0,0,0,0,0,0,0,
302,-44.81,-46.43,-37.76,-51.89,-15.07,-27.81,-46.89,-30.2,-13.97,6.543,28.04,-26.23,-12.47,-12.57,17.92,7.131,0,0,0,0,0,0,0,0,0,0,0,0,0,0,0,0,
303,0.7171,-25.24,18.03,16.85,30.1,24.96,-9.846,-34.32,47.43,-14.53,43.04,15.61,5.51,1.59,44.1,33.17,0,0,0,0,0,0,0,0,0,0,0,0,0,0,0,0,
304,16.73,-12.18,15.4,-9.45,29.29,25.16,17.33,-36.2,12.33,-16.15,20.53,9.941,-7.587,-13.52,20.07,18.39,0,0,0,0,0,0,0,0,0,0,0,0,0,0,0,0,
305,-1.585,-23.12,-6.716,-31.53,12.26,11.07,-23.18,-18.8,-29.35,-9.917,-12.21,-6.893,-6.149,-11.49,8.064,12.71,0,0,0,0,0,0,0,0,0,0,0,0,0,0,0,0,
306,2.545,-10.57,14.91,42.3,8.797,17.9,-44.32,21.72,-27.85,2.354,-3.713,3.464,12.3,14.81,18.9,25.73,0,0,0,0,0,0,0,0,0,0,0,0,0,0,0,0,
307,7.529,19.56,9.694,50.07,4.53,7.354,20.57,57.82,-31.76,50.17,28.88,23.6,22.46,33.96,35.37,36.3,0,0,0,0,0,0,0,0,0,0,0,0,0,0,0,0,
308,11.85,41.33,-12.42,17.15,4.649,-3.458,89.83,70.82,-19.33,76.06,35.07,33.12,32.31,41.51,35.55,32.81,0,0,0,0,0,0,0,0,0,0,0,0,0,0,0,0,
309,29.45,50.9,7.669,39.14,17.88,11.42,60.66,59.52,3.548,68.67,35.15,35.05,41.23,45.55,23.72,24.29,0,0,0,0,0,0,0,0,0,0,0,0,0,0,0,0,
310,28.04,43.77,22.29,38.33,30.6,28.39,4.443,52.48,18.92,70.56,61.06,44.42,46.05,48.71,37.97,35.8,0,0,0,0,0,0,0,0,0,0,0,0,0,0,0,0,
311,34.08,33.67,25.72,43.21,49.63,48.19,16.75,65.95,54.64,55.6,82.02,55.52,50.68,46.17,53.04,49.01,0,0,0,0,0,0,0,0,0,0,0,0,0,0,0,0,
312,69.09,29.62,43.05,78.77,73.15,68.28,36.08,57.4,68.5,40.34,85.26,56.43,50.42,36.51,44.47,44.02,0,0,0,0,0,0,0,0,0,0,0,0,0,0,0,0,
313,71.9,35.28,41.09,45.83,72.6,66.48,40.03,34.97,52.18,53.35,95.66,62.75,57.01,34.16,58.99,57.85,0,0,0,0,0,0,0,0,0,0,0,0,0,0,0,0,
314,51.71,62.56,41.41,5.784,61.55,57.45,59.6,45.45,76.79,51.42,101.1,75.63,69.46,42.65,80.95,83.29,0,0,0,0,0,0,0,0,0,0,0,0,0,0,0,0,
315,63.3,68.29,57.25,35.21,61.68,51.46,39.23,40.97,102.5,44.84,81.98,75.6,64.25,52.6,69.57,78.16,0,0,0,0,0,0,0,0,0,0,0,0,0,0,0,0,
316,75.32,31.13,40.58,56.74,56.02,37.94,2.329,12.94,81.35,48.23,64.9,70.49,58.63,62.36,68.35,73.36,0,0,0,0,0,0,0,0,0,0,0,0,0,0,0,0,
317,61.6,20.69,22.06,62.75,52.43,29.21,19.45,35.35,66.37,30.33,69.12,70.24,68.59,70.28,86.27,91.95,0,0,0,0,0,0,0,0,0,0,0,0,0,0,0,0,
318,53.15,40.08,36.16,70.42,61.06,36.44,43.37,72.05,57.19,28.32,74.73,71.02,72.75,78.49,87.81,102.9,0,0,0,0,0,0,0,0,0,0,0,0,0,0,0,0,
319,63.67,48.78,50.2,59.91,66.27,58.82,59.76,79.73,46.35,63.13,73.11,79.02,77.57,86.66,88.89,103.1,0,0,0,0,0,0,0,0,0,0,0,0,0,0,0,0,
320,76.24,73.45,72.57,77.13,79.63,84.43,82.12,102.4,62.74,84.62,69.12,84.33,88.42,83.98,89.79,97.84,0,0,0,0,0,0,0,0,0,0,0,0,0,0,0,0,
321,77.09,95.15,100.7,110.3,91.58,90.22,74.93,110.2,65.79,92.04,57.64,79.41,88.09,78.72,78.21,90.24,0,0,0,0,0,0,0,0,0,0,0,0,0,0,0,0,
322,90.72,93.5,106.6,115.5,83.15,96.02,79.58,89.49,50.24,103.3,50.77,89.23,92.8,82.75,81.38,97.32,0,0,0,0,0,0,0,0,0,0,0,0,0,0,0,0,
323,118.4,113.4,120.1,135.1,88.7,113.1,109.7,110.1,51.27,103.3,56.89,103.1,104.7,85.3,90.87,100.5,0,0,0,0,0,0,0,0,0,0,0,0,0,0,0,0,
324,98.51,123.5,135.3,153.4,91.33,94.57,106,134.8,34.93,92.03,57.37,96.07,105.9,89.26,91.59,97.17,0,0,0,0,0,0,0,0,0,0,0,0,0,0,0,0,
325,62.42,109,125.1,144,74.9,72.73,117.2,118.2,34.09,86.32,65.5,106.3,125,109.6,115.2,124.3,0,0,0,0,0,0,0,0,0,0,0,0,0,0,0,0,
326,99.23,136.8,149.8,167.2,113.4,112.5,174.5,134.2,82.15,101.2,92.92,137.1,155.7,130.9,142.1,149,0,0,0,0,0,0,0,0,0,0,0,0,0,0,0,0,
327,144.4,163.5,214.6,213.9,170,149.4,201.7,182.9,80.11,117.8,97.15,133.7,147.1,130.8,130.8,131.1,0,0,0,0,0,0,0,0,0,0,0,0,0,0,0,0,
328,128,136.2,239.7,250,160.7,145.6,192.8,193.3,48.41,105.6,80.05,115.6,127.1,120.4,113.8,117.6,0,0,0,0,0,0,0,0,0,0,0,0,0,0,0,0,
329,119.8,123.6,249.3,300.3,168.4,162.5,187.3,186.4,82.8,90.08,85.25,118.8,129.5,112.3,112.3,121.1,0,0,0,0,0,0,0,0,0,0,0,0,0,0,0,0,
330,135.2,139.1,303,340.4,225.9,185.5,187.7,199.1,111.1,89.25,99.34,116.6,119.8,95.95,106.5,106.2,0,0,0,0,0,0,0,0,0,0,0,0,0,0,0,0,
331,133.6,139.2,339.7,345.4,239.6,182,205.5,209.8,114.1,80.44,108.1,118.7,108.9,85.52,108,97.89,0,0,0,0,0,0,0,0,0,0,0,0,0,0,0,0,
332,139.6,131.3,311.7,340.6,214.1,178.1,226.5,203.3,154.3,73.74,123.7,138.7,124,99.61,119.4,113,0,0,0,0,0,0,0,0,0,0,0,0,0,0,0,0,
333,149.8,123.1,285.9,324.4,198.8,164,200.1,185.6,155.7,79.04,125.8,132.3,122.6,103.3,109.4,107.9,0,0,0,0,0,0,0,0,0,0,0,0,0,0,0,0,
334,126.9,109.5,286.2,295.1,180.6,138.5,145.9,164.5,96.84,80.54,100.5,101.2,94.46,85.51,80.93,80.76,0,0,0,0,0,0,0,0,0,0,0,0,0,0,0,0,
335,96.97,97.89,258.9,277.8,155.4,130.5,136.5,156.7,77.69,72.11,70.62,82.01,79.89,77.15,61.27,67.11,0,0,0,0,0,0,0,0,0,0,0,0,0,0,0,0,
336,89.97,91.73,221.1,280.2,140.6,123.8,148.1,166.1,91.86,55.64,62.49,71.75,75.24,68.36,56.16,66.01,0,0,0,0,0,0,0,0,0,0,0,0,0,0,0,0,
337,86.31,91.29,213.9,265.3,142.1,109.6,132.4,161.9,88.88,62.88,78.31,72.03,72.45,66.22,63.23,76.27,0,0,0,0,0,0,0,0,0,0,0,0,0,0,0,0,
338,70.63,96.85,201.5,215.2,144.3,103.4,136.8,142.4,75.71,92.95,84.64,79.55,84.13,91.36,74.83,95.56,0,0,0,0,0,0,0,0,0,0,0,0,0,0,0,0,
339,63.04,103,177.7,200.3,125.5,96.58,139.8,142.9,64.63,88.91,75.77,77.83,91.39,97.75,79.35,93.57,0,0,0,0,0,0,0,0,0,0,0,0,0,0,0,0,
340,79.44,103.6,173.8,224.9,104.7,91.5,105.2,142.8,77.73,78.44,89.17,85.55,89.68,89.74,91.04,88.52,0,0,0,0,0,0,0,0,0,0,0,0,0,0,0,0,
341,95.7,108,167,196.7,115.8,100.1,127.7,118.9,100.7,102.3,112.7,104.8,101.7,113.2,114.4,111,0,0,0,0,0,0,0,0,0,0,0,0,0,0,0,0,
342,90.89,117.4,148.7,155.1,136.2,111.5,163.8,114.3,102.4,109.4,112,107.5,110.5,122.2,115.1,119,0,0,0,0,0,0,0,0,0,0,0,0,0,0,0,0,
343,90.7,109.8,142.5,159.3,126.7,115.1,110,129.1,115.4,101.4,108.4,104.7,104.1,110.8,99.72,108.1,0,0,0,0,0,0,0,0,0,0,0,0,0,0,0,0,
344,109,99.17,134.7,131.6,101,106.8,94.74,123.5,119.7,106.9,113.4,108.1,104.5,123.1,102,113,0,0,0,0,0,0,0,0,0,0,0,0,0,0,0,0,
345,107,105.9,116.8,90.51,85.26,87,136,111.2,69.5,104.4,99,96.35,99.16,109.5,96.68,103.8,0,0,0,0,0,0,0,0,0,0,0,0,0,0,0,0,
346,78.87,103.4,107.4,124.2,80.05,77.07,95.33,107.7,55.07,102.5,79.46,82.99,85.91,80.81,79.59,90.94,0,0,0,0,0,0,0,0,0,0,0,0,0,0,0,0,
347,74.53,92.74,97.64,154.7,81.46,85.71,57.65,104.2,103.4,91.06,88.97,92.31,98.4,111.2,90.6,111.9,0,0,0,0,0,0,0,0,0,0,0,0,0,0,0,0,
348,84.62,90.55,72.03,107,71.83,81.69,89,96.31,101.2,67.74,97.31,98.57,109.4,132.1,99.19,107.6,0,0,0,0,0,0,0,0,0,0,0,0,0,0,0,0,
349,75.98,86.68,51.44,66.12,53.9,58.85,83.62,84.33,68.22,91.94,81.28,89.32,89.33,97.23,81.68,75.49,0,0,0,0,0,0,0,0,0,0,0,0,0,0,0,0,
350,83.19,87.57,50.93,65.54,58.86,55.45,68.76,78.24,78.34,119.3,79.05,91.36,82.26,87.5,85.94,89.89,0,0,0,0,0,0,0,0,0,0,0,0,0,0,0,0,
351,94.68,82.85,49.55,34.66,64.81,67.17,98.27,68.08,78.09,82.86,88.74,97.24,95.23,104.9,99.11,109.4,0,0,0,0,0,0,0,0,0,0,0,0,0,0,0,0,
352,64.49,68.6,43.53,-1.376,52.67,62.14,107.2,49.42,59.39,58.44,80.8,89,94.88,104.7,83.88,88.05,0,0,0,0,0,0,0,0,0,0,0,0,0,0,0,0,
353,53.46,79.52,44.14,19.42,49.61,56.57,84.95,52.12,70.98,73.22,70.83,82.35,87.69,96.17,75.03,79.06,0,0,0,0,0,0,0,0,0,0,0,0,0,0,0,0,
354,84.92,85.89,34.18,47.06,42.08,61.67,58.1,61.01,81.8,73.82,63.4,78.52,82.22,83.59,83.86,88.84,0,0,0,0,0,0,0,0,0,0,0,0,0,0,0,0,
355,81.93,67.34,20.19,47.75,32.14,59.15,37.89,51.57,74.42,77.53,59.54,75.55,83.66,84.36,86.78,93.7,0,0,0,0,0,0,0,0,0,0,0,0,0,0,0,0,
356,61.99,73.05,24.77,37.75,42.08,52.33,54.19,46.5,79.01,91.34,75.39,81.65,90.17,96.85,88.25,99.2,0,0,0,0,0,0,0,0,0,0,0,0,0,0,0,0,
357,65.98,72.71,19.92,5.97,32.09,46.54,68.76,38.5,80.07,82.55,82.74,75.65,77.75,82.38,81.36,87.79,0,0,0,0,0,0,0,0,0,0,0,0,0,0,0,0,
358,50.79,44.47,4.829,-7.491,17.05,42.76,41.8,29.86,58.93,64.63,64.55,58.61,66.77,72.94,63.94,69.61,0,0,0,0,0,0,0,0,0,0,0,0,0,0,0,0,
359,38.65,55.01,16.52,18.51,43.59,50.43,42.09,45.56,54,57.03,47.6,58.29,75.54,90.09,57.15,70.35,0,0,0,0,0,0,0,0,0,0,0,0,0,0,0,0,
360,60.55,75.38,19.19,9.583,48.54,50.06,74,44.46,71.2,54.23,39.21,55.44,66.99,83.06,53.4,61.14,0,0,0,0,0,0,0,0,0,0,0,0,0,0,0,0,
361,49.26,53.84,-14.81,-27.49,10.37,25.54,52.58,25.99,51.06,62.16,45.11,43.88,56.91,70.97,53.62,55.25,0,0,0,0,0,0,0,0,0,0,0,0,0,0,0,0,
362,20.44,48.14,-25.97,-26.26,4.053,10.43,2.822,38.77,19.21,75.89,58.34,49.36,68.63,82.19,68.73,82.31,0,0,0,0,0,0,0,0,0,0,0,0,0,0,0,0,
363,39.22,57.17,-9.033,-23.34,21.99,18.33,-4.625,31.86,61.66,63,49.49,51.26,55.17,72.67,63.31,80.11,0,0,0,0,0,0,0,0,0,0,0,0,0,0,0,0,
364,41.12,25.25,-16.4,-52.55,10.2,16.81,10.84,-9.451,100.5,37.46,34.37,36.77,27.02,53.01,37.88,39.82,0,0,0,0,0,0,0,0,0,0,0,0,0,0,0,0,
365,7.694,-1.935,-21.65,-50.08,-7.215,8.139,22.62,-2.054,39.56,43.07,34.73,34.44,33.6,57.21,41.23,41.07,0,0,0,0,0,0,0,0,0,0,0,0,0,0,0,0,
366,17.84,16.23,1.306,-1.098,5.648,18.71,30.89,26.21,-1.862,43.45,36.58,39.5,47.43,59.07,55.47,67.28,0,0,0,0,0,0,0,0,0,0,0,0,0,0,0,0,
367,33.95,27.2,0.8998,-0.6964,15.19,22.66,23.91,9.45,26.5,20.49,34.93,31.15,40.86,52.36,45.42,57.22,0,0,0,0,0,0,0,0,0,0,0,0,0,0,0,0,
368,9.039,13.35,-29.49,-64.9,-6.799,0.4358,8.349,-9.253,11.97,27.96,25.98,20.11,30.22,50.19,34.92,34,0,0,0,0,0,0,0,0,0,0,0,0,0,0,0,0,
369,7.925,10.88,-47.32,-91.84,-11.22,-3.064,-3.046,-11.47,16.09,25.43,18.75,24.4,24.99,42.01,40.9,31.13,0,0,0,0,0,0,0,0,0,0,0,0,0,0,0,0,
370,36.01,19.98,-45.68,-67.11,18.09,21.77,-16.1,-17.61,97.38,-0.9612,31.72,39.16,25.84,30.23,45.68,38.1,0,0,0,0,0,0,0,0,0,0,0,0,0,0,0,0,
371,43.57,26.3,-28.61,-44,11.68,22.61,-15.7,-9.739,82.52,35.35,32.55,34.89,19.4,20.57,30.21,30.39,0,0,0,0,0,0,0,0,0,0,0,0,0,0,0,0,
372,27.66,21.56,-19.04,-25.19,-29.1,-7.558,1.749,-0.5447,-21.06,45.99,4.116,6.474,1.154,11.45,6.925,8.944,0,0,0,0,0,0,0,0,0,0,0,0,0,0,0,0,
373,-3.367,-4.37,-37.85,-37.11,-30.69,-26.79,-7.072,-7.785,-27.8,-33.43,-7.911,-8.473,-1.765,14.33,8.808,8.986,0,0,0,0,0,0,0,0,0,0,0,0,0,0,0,0,
374,-21.22,-18.64,-45.32,-74.88,-9.637,-19.12,-26.21,-7.862,9.963,-21.78,4.59,1.328,10.86,22,20.32,24.07,0,0,0,0,0,0,0,0,0,0,0,0,0,0,0,0,
375,-4.214,1.982,-28.85,-57.05,-11.48,-0.6707,-4.246,-6.652,1.109,55.68,11.9,12.02,15.72,16.77,15.96,18.76,0,0,0,0,0,0,0,0,0,0,0,0,0,0,0,0,
376,12.57,14.35,-21.59,-13.63,-4.643,9.064,1.492,-12.28,3.309,18.01,11.99,16.04,16.52,13.25,20.15,12.65,0,0,0,0,0,0,0,0,0,0,0,0,0,0,0,0,
377,9.319,5.784,-23.89,-27.11,12.88,4.707,-22.15,-6.685,25.27,-17.64,6.656,15.15,13.95,12.92,26.58,12.6,0,0,0,0,0,0,0,0,0,0,0,0,0,0,0,0,
378,6.921,5.783,-35.89,-51.66,-0.2713,-2.541,33.76,-4.351,54.33,34.74,1.183,13.19,7.235,-1.626,10.12,-4.111,0,0,0,0,0,0,0,0,0,0,0,0,0,0,0,0,
379,13.77,10.65,-51.39,-54.63,-23.83,-5.763,90.14,-16.22,55.67,32.13,5.007,14.77,10.54,-8.725,-3.39,-12.51,0,0,0,0,0,0,0,0,0,0,0,0,0,0,0,0,
380,11.6,9.145,-53.13,-71.31,-31.92,-13.02,8.938,-19.38,-24.8,-4.094,4.631,10.63,13.5,6.757,-1.197,-2.145,0,0,0,0,0,0,0,0,0,0,0,0,0,0,0,0,
381,-4.395,5.767,-54.57,-70.92,-32.26,-20,-48.37,-9.681,-70.07,12.78,4.956,9.685,10.4,20.94,8.753,5.889,0,0,0,0,0,0,0,0,0,0,0,0,0,0,0,0,
382,0.7696,5.964,-43.39,-38.69,-13.77,-5.918,-1.799,-4.476,-1.906,8.878,19.67,24.83,15.47,23.08,24.82,16.48,0,0,0,0,0,0,0,0,0,0,0,0,0,0,0,0,
383,20.93,4.274,-24.67,-28.39,1.498,10.44,-29.33,-15.2,37.82,-16.62,17.12,25.96,9.517,14.81,21.95,16.18,0,0,0,0,0,0,0,0,0,0,0,0,0,0,0,0,
384,16.11,-11.68,-46.36,-45.7,-20.33,-8.888,-66.27,-33.58,9.565,-4.056,-8.263,6.198,-12.34,2.014,3.045,-4.587,0,0,0,0,0,0,0,0,0,0,0,0,0,0,0,0,
385,11.63,-18.49,-67.78,-73.52,-43.21,-34.59,13.99,-40.49,-8.099,-1.23,-16.64,-0.0907,-21.61,-10.7,-2.072,-16.77,0,0,0,0,0,0,0,0,0,0,0,0,0,0,0,0,
386,12.47,-2.193,-59.03,-95.6,-53.18,-30.92,26.98,-38.79,-28.38,-19.84,-13.61,-3.087,-30.1,-32.07,-7.984,-24.91,0,0,0,0,0,0,0,0,0,0,0,0,0,0,0,0,
387,-16.86,-7.11,-71.68,-75.21,-69.79,-29.16,-63.83,-42.54,-48.65,-22.59,-21.35,-20.95,-44.9,-41.29,-22.66,-40.01,0,0,0,0,0,0,0,0,0,0,0,0,0,0,0,0,
388,-37.97,-32.43,-76.48,-57.6,-61.4,-35.43,-68.71,-50.9,-35.57,-31.03,-28.19,-24.01,-38.86,-23,-26.16,-38.88,0,0,0,0,0,0,0,0,0,0,0,0,0,0,0,0,
389,-23.98,-34.88,-55.73,-88.21,-31.99,-25.56,-31.63,-54.57,-23.93,-36.75,-29.52,-8.3,-25.29,-12.88,-21.27,-25.96,0,0,0,0,0,0,0,0,0,0,0,0,0,0,0,0,
390,-19.29,-32.13,-63.23,-91.11,-30.41,-27.8,-59.31,-49.77,-30.56,-21.21,-27.61,-5.112,-24.43,-15.61,-15.41,-20.83,0,0,0,0,0,0,0,0,0,0,0,0,0,0,0,0,
391,-36.8,-35.6,-71.76,-71.64,-46.17,-53.73,-74.78,-55.74,-31.2,-24.14,-24.18,-13.39,-22.51,-15.36,-15.26,-21.46,0,0,0,0,0,0,0,0,0,0,0,0,0,0,0,0,
392,-44.96,-19.82,-67.59,-108.3,-55.05,-62.36,-47.66,-80.03,-35.17,-38.38,-30.61,-17.33,-24.85,-27.13,-27.58,-28.52,0,0,0,0,0,0,0,0,0,0,0,0,0,0,0,0,
393,-21.2,-13.92,-81.07,-127.4,-55.71,-51.14,-40.5,-81.69,-40.59,-29.75,-37.78,-18.28,-33.37,-34.29,-32.51,-35.16,0,0,0,0,0,0,0,0,0,0,0,0,0,0,0,0,
394,-2.685,-38.81,-73.95,-77.71,-49.36,-45.9,-55.27,-50.64,-27.24,-20.84,-31.26,-16.63,-26.23,-17.69,-22.56,-25.48,0,0,0,0,0,0,0,0,0,0,0,0,0,0,0,0,
395,-33.36,-45.11,-56.34,-54.88,-53,-45.41,-53.52,-36.48,-32.22,-27.17,-29.59,-16.65,-19.22,-13.03,-22.84,-18.41,0,0,0,0,0,0,0,0,0,0,0,0,0,0,0,0,
396,-59.38,-28.67,-70.32,-72.58,-59.75,-46.99,-41.63,-48.85,-61.89,-37.43,-40.63,-23.92,-29.01,-30.57,-31.69,-33.67,0,0,0,0,0,0,0,0,0,0,0,0,0,0,0,0,
397,-45.24,-26.71,-72.76,-83.78,-52.1,-51.44,-56,-58.46,-54.8,-42.88,-36.21,-21.5,-22.08,-30.18,-21.65,-31.35,0,0,0,0,0,0,0,0,0,0,0,0,0,0,0,0,
398,-34.73,-20.42,-57.93,-98.09,-44.94,-45.27,-72.67,-63.5,-28.29,-34.95,-14.37,-4.436,-2.642,-10.14,-3.828,-1.382,0,0,0,0,0,0,0,0,0,0,0,0,0,0,0,0,
399,-20.93,-6.864,-62.01,-82.28,-37.41,-30.96,-47.25,-62.27,-15.9,-19.78,-13.27,0.3765,-15.16,-15.15,-11.94,-10.53,0,0,0,0,0,0,0,0,0,0,0,0,0,0,0,0,
400,-4.364,-24.73,-70.93,-34.96,-38.59,-35.27,-28.75,-50.23,-4.657,-13.01,-35.7,-11.65,-40.45,-41.33,-33.41,-49.45,0,0,0,0,0,0,0,0,0,0,0,0,0,0,0,0,
401,-23.46,-54.69,-74.41,-41.69,-66.15,-54.76,-51.62,-40.86,-32.35,-28.61,-41.24,-19.61,-43.22,-42.85,-31.96,-43.6,0,0,0,0,0,0,0,0,0,0,0,0,0,0,0,0,
402,-36.98,-60.77,-67.88,-72.21,-75.31,-58.05,-61.51,-37.31,-72.65,-51.5,-26.33,-22.82,-45.5,-35.71,-19.32,-23.89,0,0,0,0,0,0,0,0,0,0,0,0,0,0,0,0,
403,-29.6,-58.77,-51.61,-61.4,-58.73,-52.75,-58.23,-44.66,-58.96,-38.48,-26.1,-29.06,-59.46,-52.12,-28.65,-41.94,0,0,0,0,0,0,0,0,0,0,0,0,0,0,0,0,
404,-48.81,-58.41,-49.27,-73.64,-57.74,-55.33,-64.91,-64.64,-46.22,-20.97,-41.82,-31.81,-61.02,-57.53,-44.6,-57.21,0,0,0,0,0,0,0,0,0,0,0,0,0,0,0,0,
405,-49.8,-49.08,-51.92,-105.7,-45.69,-46.07,-51.87,-68.73,-45.24,-47.77,-43.93,-29.6,-46.01,-37.75,-40.03,-48.75,0,0,0,0,0,0,0,0,0,0,0,0,0,0,0,0,
406,-20.55,-39.75,-52.23,-83.76,-29.16,-33.69,-48.84,-61.26,-32.12,-55.49,-31.38,-30.84,-32.01,-29.97,-33.76,-39.22,0,0,0,0,0,0,0,0,0,0,0,0,0,0,0,0,
407,-36.95,-37.62,-61.61,-48.66,-45.53,-34.21,-68.54,-63.87,-50.19,-22.77,-25.93,-27.35,-23.15,-36.45,-33.57,-27.04,0,0,0,0,0,0,0,0,0,0,0,0,0,0,0,0,
408,-37.12,-26.99,-53.65,-45.19,-44.39,-19.7,-42.98,-52.27,-43.73,-23.98,-30,-13.99,-20.55,-41.4,-26.57,-23.37,0,0,0,0,0,0,0,0,0,0,0,0,0,0,0,0,
409,21.2,-20.19,-37.32,-57.55,-32.44,-8.73,-23.51,-38.38,2.865,-44.91,-35.68,-17.08,-32.71,-46.91,-38.08,-43.96,0,0,0,0,0,0,0,0,0,0,0,0,0,0,0,0,
410,1.67,-48.75,-53.04,-79.59,-63.53,-41.07,-74.99,-56.29,-20.25,-45.5,-44.12,-39.19,-43.79,-46.26,-62.82,-58.41,0,0,0,0,0,0,0,0,0,0,0,0,0,0,0,0,
411,-75.65,-69.91,-70.87,-89.78,-80.88,-74.08,-94.44,-68.06,-80.14,-48.85,-58.32,-54.62,-43.93,-52.74,-63.76,-58.37,0,0,0,0,0,0,0,0,0,0,0,0,0,0,0,0,
412,-78.34,-44.82,-69.58,-79.63,-67.62,-75.44,-49.74,-53.8,-98.1,-42.96,-74.87,-67.7,-55.27,-77.87,-68.48,-68.95,0,0,0,0,0,0,0,0,0,0,0,0,0,0,0,0,
413,-65.17,-33.41,-72.65,-63.22,-74.92,-67.56,-29.76,-48.03,-91.67,-33.46,-76.99,-73.51,-62.4,-76.2,-81.83,-69.4,0,0,0,0,0,0,0,0,0,0,0,0,0,0,0,0,
414,-76.62,-48.22,-73.17,-57.53,-74.38,-56.38,-41.16,-55.77,-68.64,-61.75,-63.34,-60.86,-53.32,-51.93,-72.26,-58.54,0,0,0,0,0,0,0,0,0,0,0,0,0,0,0,0,
415,-60.59,-53.14,-72.47,-92.48,-56.92,-53.5,-60.79,-67.35,-49.27,-84.5,-65.38,-61.24,-67.35,-65.11,-75.29,-76.11,0,0,0,0,0,0,0,0,0,0,0,0,0,0,0,0,
416,-52.41,-75,-78.04,-112.9,-59.47,-66.37,-90.73,-73.98,-42.85,-63.91,-80.22,-74.5,-85.35,-85.52,-92.82,-90.87,0,0,0,0,0,0,0,0,0,0,0,0,0,0,0,0,
417,-64.16,-89.48,-71.75,-65.33,-67.9,-73.91,-101.5,-63.5,-42.6,-45.85,-71.72,-72.09,-75.47,-80.82,-83.25,-77.7,0,0,0,0,0,0,0,0,0,0,0,0,0,0,0,0,
418,-69.78,-59.17,-66.26,-49.12,-68.95,-75.75,-72.64,-45.03,-62.34,-44.99,-55.95,-69.34,-75.08,-87.19,-72.2,-75.79,0,0,0,0,0,0,0,0,0,0,0,0,0,0,0,0,
419,-81.42,-53.58,-74.43,-85.93,-69.62,-80.7,-42.99,-36.93,-78.79,-50.35,-63.43,-72.43,-78.42,-83.42,-68.5,-70.1,0,0,0,0,0,0,0,0,0,0,0,0,0,0,0,0,
420,-78.88,-78.57,-75.59,-84.5,-70.99,-84.14,-56.47,-55.64,-96.42,-60.45,-70.03,-70.48,-64.83,-58,-54.4,-51.27,0,0,0,0,0,0,0,0,0,0,0,0,0,0,0,0,
421,-62.6,-72.11,-66.12,-73.91,-63.91,-72.26,-71.52,-75.3,-90.37,-43.32,-54.98,-64.5,-61.94,-59.11,-50.14,-55.76,0,0,0,0,0,0,0,0,0,0,0,0,0,0,0,0,
422,-50.86,-56.6,-48.99,-74.76,-33.98,-37.46,-48.24,-44.67,3.081,-9.683,-36.78,-44.56,-55.28,-65.67,-45.08,-53.43,0,0,0,0,0,0,0,0,0,0,0,0,0,0,0,0,
423,-26.79,-45.55,-36.52,-37.78,-22.17,-23.48,-46.47,-11.03,41.62,-20.42,-27.43,-26.39,-37.14,-49.41,-27.34,-31.97,0,0,0,0,0,0,0,0,0,0,0,0,0,0,0,0,
424,-20.54,-31.68,-50.12,-15.49,-48.21,-48.72,-71.89,-37.42,-49.36,-58.47,-24.76,-32.83,-41.4,-41.08,-24.92,-37,0,0,0,0,0,0,0,0,0,0,0,0,0,0,0,0,
425,-47.48,-50.78,-67.8,-50.5,-54.92,-62.69,-74.11,-65.69,-72.05,-61.21,-30.87,-43.55,-50.81,-44.52,-33.01,-48.33,0,0,0,0,0,0,0,0,0,0,0,0,0,0,0,0,
426,-64.48,-72.3,-70.64,-83.51,-55.26,-67.06,-71.6,-57.06,-33.11,-33.22,-42.86,-52.16,-50.16,-53.78,-39.57,-45.27,0,0,0,0,0,0,0,0,0,0,0,0,0,0,0,0,
427,-62.26,-50.5,-72.76,-89.67,-71.77,-73.45,-55.1,-56.74,-57.94,-20.3,-53.12,-61.28,-57.41,-63.74,-47.9,-54.16,0,0,0,0,0,0,0,0,0,0,0,0,0,0,0,0,
428,-47.89,-42.87,-69.31,-84.43,-59.11,-52.32,-29.51,-70.88,-52.82,-40.35,-61.85,-57.88,-61.45,-56.75,-49.17,-65.45,0,0,0,0,0,0,0,0,0,0,0,0,0,0,0,0,
429,-45.07,-69.14,-65.06,-67.09,-51.23,-39.6,-62.89,-70.01,-23.85,-67.72,-68.92,-58.9,-62.66,-55.26,-59.22,-74.2,0,0,0,0,0,0,0,0,0,0,0,0,0,0,0,0,
430,-65.17,-68.07,-74.31,-55.75,-70.93,-58.37,-93.42,-55.42,-67.46,-67.64,-67.16,-69.16,-70.91,-65.99,-78.72,-85.68,0,0,0,0,0,0,0,0,0,0,0,0,0,0,0,0,
431,-60.97,-50.45,-76.1,-63.77,-59.52,-62.05,-51.12,-47.64,-93.64,-51.4,-56.18,-64.38,-67.51,-55.28,-69.69,-73.06,0,0,0,0,0,0,0,0,0,0,0,0,0,0,0,0,
432,-43.85,-56.99,-64.4,-59.67,-47.47,-57.05,-37.23,-51.92,-67.25,-50.88,-52.96,-60.68,-61.86,-48.16,-57.32,-58.4,0,0,0,0,0,0,0,0,0,0,0,0,0,0,0,0,
433,-55.64,-58.79,-59.02,-52.22,-63.93,-60.81,-75.33,-56.41,-63.26,-52.34,-66.48,-74.21,-74.7,-73.45,-75.84,-77.52,0,0,0,0,0,0,0,0,0,0,0,0,0,0,0,0,
434,-63.26,-46.61,-60.66,-74.35,-55.37,-54.17,-73.86,-55.37,-51.36,-41.3,-71.45,-75.82,-80.85,-83.43,-77.84,-82.36,0,0,0,0,0,0,0,0,0,0,0,0,0,0,0,0,
435,-51.23,-52.13,-67.12,-64.99,-37.44,-46.1,-57.2,-53.82,-28.82,-53.65,-56.06,-60.22,-69.01,-63.08,-59.1,-60.28,0,0,0,0,0,0,0,0,0,0,0,0,0,0,0,0,
436,-42.82,-66.67,-75,-25.22,-41.25,-44.06,-69.17,-60.22,-50.29,-87.21,-47.91,-54.18,-65.94,-60.57,-63.91,-65.42,0,0,0,0,0,0,0,0,0,0,0,0,0,0,0,0,
437,-48.13,-72.5,-69.44,-57.13,-43.16,-46.11,-64.37,-65.33,-58.45,-79.86,-49.82,-54.36,-69.95,-74.72,-65.13,-76.67,0,0,0,0,0,0,0,0,0,0,0,0,0,0,0,0,
438,-59.28,-70.95,-56.43,-87.78,-49.04,-56.08,-51.38,-52.36,-39.23,-42.14,-49.59,-49.11,-64.27,-70.35,-52.71,-62.9,0,0,0,0,0,0,0,0,0,0,0,0,0,0,0,0,
439,-59.09,-60.57,-59.58,-42.45,-60.76,-59.55,-62.25,-48.99,-71.45,-42.53,-58.85,-52.79,-61.43,-59.56,-59.84,-59.38,0,0,0,0,0,0,0,0,0,0,0,0,0,0,0,0,
440,-65.86,-55.46,-75.49,-49.93,-60.01,-59.4,-59.55,-70.42,-88.58,-63.88,-62.96,-60.05,-64.54,-60.57,-60.46,-62.76,0,0,0,0,0,0,0,0,0,0,0,0,0,0,0,0,
441,-74.78,-63.71,-81.37,-90.64,-64.73,-66.13,-61.68,-76.09,-35.97,-62.11,-50.88,-56.53,-63.7,-64.49,-53.25,-63.06,0,0,0,0,0,0,0,0,0,0,0,0,0,0,0,0,
442,-57.44,-70.9,-77.12,-55.75,-80.02,-67.71,-100.4,-65.47,-41.33,-65.67,-53.98,-59.57,-67.22,-74.64,-72.91,-83.73,0,0,0,0,0,0,0,0,0,0,0,0,0,0,0,0,
443,-60,-68.91,-74.52,-48.41,-80.72,-67.83,-92.09,-63.85,-98.37,-77.5,-66.84,-67.28,-69.38,-90.44,-81.9,-92.13,0,0,0,0,0,0,0,0,0,0,0,0,0,0,0,0,
444,-77.46,-57.65,-77.64,-92.42,-73.29,-71.87,-39.77,-63.48,-88.26,-69.15,-68.26,-65.99,-63.02,-92.9,-67.52,-71.86,0,0,0,0,0,0,0,0,0,0,0,0,0,0,0,0,
445,-53.66,-56.61,-89.33,-80.76,-76.99,-72.16,-51.65,-70.44,-71.63,-69.25,-72.27,-70.79,-66.84,-88.77,-69.16,-70.12,0,0,0,0,0,0,0,0,0,0,0,0,0,0,0,0,
446,-46.9,-73.9,-95.87,-65.11,-83.31,-71.35,-80.43,-83.44,-87.72,-84.62,-75.5,-77.12,-76.8,-95.99,-74.19,-81.68,0,0,0,0,0,0,0,0,0,0,0,0,0,0,0,0,
447,-76.75,-78.35,-88.94,-92.48,-85.89,-72.11,-69.76,-84.86,-72.37,-83.8,-80.8,-82.6,-82.85,-105.9,-81.16,-87.98,0,0,0,0,0,0,0,0,0,0,0,0,0,0,0,0,
448,-79.44,-77.22,-90.09,-95.89,-90.31,-79.11,-91.56,-87.67,-74.3,-85.31,-99.83,-103,-94.57,-109.3,-104.5,-106.3,0,0,0,0,0,0,0,0,0,0,0,0,0,0,0,0,
449,-80.08,-94.03,-97.3,-81.73,-93.28,-87.51,-115.7,-93.84,-110.2,-98.35,-102.1,-109.6,-96.73,-109.5,-109.3,-114.5,0,0,0,0,0,0,0,0,0,0,0,0,0,0,0,0,
450,-92.76,-100.8,-95.66,-87.71,-94.09,-83.16,-90.1,-90.98,-112.5,-100.3,-93.49,-97.71,-87.09,-110.1,-101,-101,0,0,0,0,0,0,0,0,0,0,0,0,0,0,0,0,
451,-83.7,-91.41,-101.5,-99.07,-96.75,-82.72,-85.16,-89.43,-113.1,-96.3,-107.2,-105.2,-91.13,-113.4,-110.5,-99.14,0,0,0,0,0,0,0,0,0,0,0,0,0,0,0,0,
452,-85.48,-89.35,-113.2,-109.2,-105.6,-98.75,-97.08,-94.56,-125.3,-90.18,-112.7,-111.8,-99.1,-115.6,-112.9,-108.8,0,0,0,0,0,0,0,0,0,0,0,0,0,0,0,0,
453,-107.6,-97.78,-109.5,-115.3,-117.2,-110.1,-88.13,-99.49,-118.7,-94.07,-105.6,-107.9,-105,-119.6,-113.3,-120.7,0,0,0,0,0,0,0,0,0,0,0,0,0,0,0,0,
454,-117.2,-115.1,-95.13,-99.66,-105.5,-108,-97,-92.79,-121.5,-121.1,-120.2,-125.4,-119.3,-128.9,-131.4,-136.4,0,0,0,0,0,0,0,0,0,0,0,0,0,0,0,0,
455,-124.6,-123.1,-78.91,-63.74,-76.93,-98.38,-99.07,-74.18,-104.8,-120.4,-131.9,-135.4,-118.8,-125.2,-128.9,-129.9,0,0,0,0,0,0,0,0,0,0,0,0,0,0,0,0,
456,-120.7,-112,-63.98,-32.7,-73.69,-87.73,-77.91,-60.38,-75.53,-78.04,-126,-116.7,-100.2,-108.6,-108.6,-104.8,0,0,0,0,0,0,0,0,0,0,0,0,0,0,0,0,
457,-90.55,-97.58,-47.84,-9.758,-77,-82.03,-72.99,-42.34,-119.7,-62.15,-121.8,-107.9,-90.21,-102.4,-108.5,-99.6,0,0,0,0,0,0,0,0,0,0,0,0,0,0,0,0,
458,-81.74,-77.5,-13.17,35.06,-53.15,-70.41,-34.04,-12.18,-147.5,-77.36,-106.1,-106.1,-86.07,-99.79,-107.3,-105.3,0,0,0,0,0,0,0,0,0,0,0,0,0,0,0,0,
459,-98.27,-70.77,33.02,96.3,-27.28,-48.27,29.84,10.12,-82.04,-80.85,-82.95,-83.96,-73.29,-84.67,-90.46,-94.07,0,0,0,0,0,0,0,0,0,0,0,0,0,0,0,0,
460,-82.06,-82.9,69.28,141.7,-4.981,-26.02,18.82,33.22,-52.43,-66.93,-65.75,-53.46,-49.98,-62.08,-70.21,-67.12,0,0,0,0,0,0,0,0,0,0,0,0,0,0,0,0,
461,-43.6,-52.39,118.7,185.8,39.36,8.057,0.6635,68.44,-64.98,-38.03,-37.82,-31.02,-29.66,-44.64,-45.17,-43.25,0,0,0,0,0,0,0,0,0,0,0,0,0,0,0,0,
462,-18.74,-4.274,187.8,237.1,88.71,55.21,58.31,92.98,-25.47,-25.22,-17.59,-17.45,-27.87,-39.39,-32.81,-42.7,0,0,0,0,0,0,0,0,0,0,0,0,0,0,0,0,
463,6.704,-15.5,221,281,102.3,72.95,94.65,97.86,17.16,-44.63,-21.57,-10.99,-27.84,-31.38,-33.01,-46.82,0,0,0,0,0,0,0,0,0,0,0,0,0,0,0,0,
464,17.89,-25.28,223.3,331.8,93.71,59.3,75.37,99.04,16.62,-34.09,-13.08,-7.966,-18.06,-17.5,-21.03,-31.88,0,0,0,0,0,0,0,0,0,0,0,0,0,0,0,0,
465,-0.7766,7.928,252.5,352.1,110.1,63.76,95.51,115.8,-5.782,8.269,4.054,-3.007,-12.38,-15.13,-15.23,-23.97,0,0,0,0,0,0,0,0,0,0,0,0,0,0,0,0,
466,-5.07,12.68,272.2,302.9,129.6,78.43,145,139.4,-18.9,14.43,-1.062,6.668,-0.8894,-4.483,-18.04,-21.1,0,0,0,0,0,0,0,0,0,0,0,0,0,0,0,0,
467,14.62,3.402,242.6,285.1,115.9,76.29,118.7,142.6,18.86,1.894,-3.358,19.91,22.53,23.8,0.4733,4.829,0,0,0,0,0,0,0,0,0,0,0,0,0,0,0,0,
468,31.55,27.42,216,333.9,105,80.48,56.54,140.2,55.79,9.107,14.12,33.71,35.49,34.79,20.19,21.85,0,0,0,0,0,0,0,0,0,0,0,0,0,0,0,0,
469,41.59,39.17,200,317.4,102,79.11,73.23,137.1,31.56,23.57,24.43,37.84,33.3,26.11,20.15,13.85,0,0,0,0,0,0,0,0,0,0,0,0,0,0,0,0,
470,36.93,32.55,174.8,227,85.58,56.84,98.61,108.4,21.58,44.81,19.91,28.16,28.06,14.86,17.57,15.45,0,0,0,0,0,0,0,0,0,0,0,0,0,0,0,0,
471,29.62,42.48,170.1,179.4,79.09,56.2,71.64,88.36,47,48.06,14.61,21.2,29.41,10.1,12.66,20.6,0,0,0,0,0,0,0,0,0,0,0,0,0,0,0,0,
472,32.38,39.99,159.8,175.4,69.22,62.61,86.35,92.55,32.38,14.66,12,19.81,34.85,24.68,4.07,11.08,0,0,0,0,0,0,0,0,0,0,0,0,0,0,0,0,
473,20.07,18.15,114.1,160.4,39.73,38.37,100.5,78.41,-7.372,7.964,8.128,11.31,26.56,36.28,3.392,3.731,0,0,0,0,0,0,0,0,0,0,0,0,0,0,0,0,
474,3.678,14.86,86.66,139.7,27.16,23.85,45.13,72.62,-17.7,39.36,4.818,5.829,12.48,29.52,8.395,4.378,0,0,0,0,0,0,0,0,0,0,0,0,0,0,0,0,
475,4.844,17.48,82.6,125.1,28.31,30.98,19.46,86.41,3.612,41.69,8.521,11.64,12.26,27.57,13.61,6.827,0,0,0,0,0,0,0,0,0,0,0,0,0,0,0,0,
476,7.043,14.01,62.88,105.6,25.36,29.24,32.56,63,29.14,32.82,15.52,16.61,13.71,25.13,19.1,14.28,0,0,0,0,0,0,0,0,0,0,0,0,0,0,0,0,
477,15.94,34.47,53.77,75.34,26.81,30.61,41.86,41.47,29.41,57.01,17.3,20.3,13.43,20.87,25.54,22.63,0,0,0,0,0,0,0,0,0,0,0,0,0,0,0,0,
478,27.52,53.03,64.09,59.18,27.63,45.18,63.25,63.69,37.97,64.07,19.8,31.79,25.92,34.41,33.42,26.34,0,0,0,0,0,0,0,0,0,0,0,0,0,0,0,0,
479,27.42,29.13,52.52,73.26,34.78,56.74,51.63,67.63,61.86,36.1,29.07,46.75,43.27,47.47,39.7,34.28,0,0,0,0,0,0,0,0,0,0,0,0,0,0,0,0,
480,44.26,20.66,33.71,71.35,44.07,58.64,43.73,60.34,34.76,40.72,39.06,54.81,51.21,51.79,45.55,46.07,0,0,0,0,0,0,0,0,0,0,0,0,0,0,0,0,
481,65.03,55.69,39.56,36.99,31.99,57.32,81.43,72.74,14.51,71.03,49.02,59.36,49.94,61.28,54.5,45.12,0,0,0,0,0,0,0,0,0,0,0,0,0,0,0,0,
482,45.53,57.68,34.16,23.92,15.88,48.91,52.56,53.73,54.37,63.33,57.87,65.22,47.94,60.43,62.47,40.61,0,0,0,0,0,0,0,0,0,0,0,0,0,0,0,0,
483,20.45,38.92,14.34,25.1,13.93,27.5,4.987,27.32,50.84,53.28,55.43,63.3,50.09,50.05,65.19,53.38,0,0,0,0,0,0,0,0,0,0,0,0,0,0,0,0,
484,36.85,68.28,25.89,11.65,23.92,31.37,59.67,48.37,41.82,84.57,50.33,65.11,55.42,59.04,68.9,69.72,0,0,0,0,0,0,0,0,0,0,0,0,0,0,0,0,
485,69.27,85.93,29.51,20.94,41.19,67.52,104.8,65.06,103.8,98.92,56.99,79.69,68.86,85.69,81.23,78.35,0,0,0,0,0,0,0,0,0,0,0,0,0,0,0,0,
486,71.67,56.45,-3.904,25.1,39.47,67.81,78.22,56.88,101,69.4,57.95,69.85,80.43,99.54,84.51,81.8,0,0,0,0,0,0,0,0,0,0,0,0,0,0,0,0,
487,49.8,50.16,-5.298,-19.3,23.33,42.83,63.05,57.85,34.59,48.13,46.29,41.63,71.67,83.33,61.67,64.61,0,0,0,0,0,0,0,0,0,0,0,0,0,0,0,0,
488,38.77,58.03,16.23,-29.71,17.57,43.09,48.66,47.68,29.65,57.38,42.53,42.47,58.12,58.39,41.5,39.41,0,0,0,0,0,0,0,0,0,0,0,0,0,0,0,0,
489,28.69,46.05,3.089,11.2,4.753,29.76,4.657,25.89,19.25,70.68,39.33,45.22,52.2,53.39,42.97,38.94,0,0,0,0,0,0,0,0,0,0,0,0,0,0,0,0,
490,9.271,46.34,-10.78,10.26,-3.588,9.315,-8.226,26.1,-2.07,63.01,29.16,31.69,44.06,57.71,43.6,43.35,0,0,0,0,0,0,0,0,0,0,0,0,0,0,0,0,
491,11.63,47.53,-14.83,-26.63,15.11,23.96,41.9,29.42,47.71,47.39,33.52,43.59,42.75,53.67,47.91,34.72,0,0,0,0,0,0,0,0,0,0,0,0,0,0,0,0,
492,28.1,36.33,-32.27,-48.02,16.03,22.91,56.63,15.61,73.23,45.1,40.77,53.84,45.36,49.61,59.93,35.4,0,0,0,0,0,0,0,0,0,0,0,0,0,0,0,0,
493,27.57,35.45,-32.77,-55.76,-13.11,-4.647,-25.45,1.766,27.06,33.84,30.01,28.09,36.79,51.08,45.19,37.01,0,0,0,0,0,0,0,0,0,0,0,0,0,0,0,0,
494,13.07,21.45,-22.18,-46.04,-25.31,-6.133,-74.36,-8.341,7.957,20.11,23.3,14.55,33.21,51.41,18.07,24.35,0,0,0,0,0,0,0,0,0,0,0,0,0,0,0,0,
495,0.4931,0.687,-31.59,-24.99,-12.5,5.777,-27.95,-10.39,28.35,42.4,23.65,22.67,36.36,49.46,20.33,20.71,0,0,0,0,0,0,0,0,0,0,0,0,0,0,0,0,
496,9.45,13.65,-33.96,-25.11,4.17,9.582,4.923,8.053,35.22,53.2,14.46,20.21,31.19,46.37,29.86,27.32,0,0,0,0,0,0,0,0,0,0,0,0,0,0,0,0,
497,21.45,28.21,-22.08,-61.04,7.146,10.25,14.98,17.34,16.43,24.5,13.24,20.26,30.14,38.76,27.33,23.88,0,0,0,0,0,0,0,0,0,0,0,0,0,0,0,0,
498,11.03,30.27,-19.8,-91.2,0.8112,10.33,40.99,-0.1546,17.58,29.27,24.59,30.68,35.9,36.53,34.37,21.72,0,0,0,0,0,0,0,0,0,0,0,0,0,0,0,0,
499,24.09,48.46,-11.08,-52.6,15.76,26.24,34.75,5.727,66.28,46.13,29.75,37.82,38.35,51.48,46.16,30.45,0,0,0,0,0,0,0,0,0,0,0,0,0,0,0,0,
500,55.82,58.68,6.159,2.438,32.16,40.98,11.52,35.04,80.4,18.02,34.29,40.83,40.61,57.63,46.07,34.28,0,0,0,0,0,0,0,0,0,0,0,0,0,0,0,0,
501,39.79,47.42,-4.666,-21.23,9.747,26.25,10.82,25.58,32.47,22.56,41.42,38.35,38.45,38.01,39.56,27.29,0,0,0,0,0,0,0,0,0,0,0,0,0,0,0,0,
502,10.7,34.32,-31.47,-62.26,-14.72,11.53,1.395,-5.859,10.3,60.61,38.32,33.84,35.32,28.6,31.42,19.4,0,0,0,0,0,0,0,0,0,0,0,0,0,0,0,0,
503,15.83,23.59,-28.08,-50.58,-8.488,15.53,1.567,-12.96,21.32,42.26,25.5,29.74,40.65,39.73,25.71,22.1,0,0,0,0,0,0,0,0,0,0,0,0,0,0,0,0,
504,26.68,27.4,-3.873,-42.37,0.5521,20.01,22.13,-2.809,24.49,20.44,15.17,21.35,39.22,42.86,27.68,32.73,0,0,0,0,0,0,0,0,0,0,0,0,0,0,0,0,
505,27.25,30.77,7.373,-37.91,5.887,17.37,2.015,14.56,28.05,30.31,22.84,22.04,29.35,38.12,31.56,33.93,0,0,0,0,0,0,0,0,0,0,0,0,0,0,0,0,
506,15.96,18.32,3.089,-12.7,22.21,14.25,-9.921,17.18,42.75,23.9,40.5,36.6,31.22,35.67,32.44,33.1,0,0,0,0,0,0,0,0,0,0,0,0,0,0,0,0,
507,23.24,32.1,-7.385,-25.69,39.91,34.01,46.81,5.351,66.4,46.57,39.53,45.21,36.81,31,31.01,39.52,0,0,0,0,0,0,0,0,0,0,0,0,0,0,0,0,
508,64.6,48.74,-6.073,-46.81,33.74,59.48,55.69,17.92,58.1,73.04,28.56,39.7,28.44,24.88,25.77,27.62,0,0,0,0,0,0,0,0,0,0,0,0,0,0,0,0,
509,53.68,13.59,10.38,-15.26,3.22,36.46,-4.701,21.9,12.69,26.51,25.67,25.11,19.1,28.25,20.36,12.67,0,0,0,0,0,0,0,0,0,0,0,0,0,0,0,0,
510,-4.95,-9.188,14.38,-5.899,-0.5876,5.555,-1.238,-1.476,13.04,14.76,22.7,17.93,24.98,43.72,24.17,31.49,0,0,0,0,0,0,0,0,0,0,0,0,0,0,0,0,
511,1.988,17.65,13.3,-22.34,33.8,24.96,36.49,11.43,44.24,63.56,33.81,32.03,36.66,47.82,34.47,44.07,0,0,0,0,0,0,0,0,0,0,0,0,0,0,0,0,
512,39.88,33.69,23.56,-0.7756,45.91,41.93,35.97,38.1,41.62,44.39,59.28,45.12,43.6,39,38.29,29.11,0,0,0,0,0,0,0,0,0,0,0,0,0,0,0,0,
513,41.53,38.71,14.43,-4.472,36.82,34.15,50.44,29.72,65.01,14.77,61.88,44,47.23,42.35,37.43,30.65,0,0,0,0,0,0,0,0,0,0,0,0,0,0,0,0,
514,50.7,55.69,-2.235,-32.49,37.91,43.08,55.88,29.02,104.9,55.64,52.83,48.45,45.71,39.81,41.98,40.51,0,0,0,0,0,0,0,0,0,0,0,0,0,0,0,0,
515,66.01,58.74,13.59,-5.397,25.2,49.92,20.48,38.27,67.7,73.35,59.18,54.5,46.08,31.86,46.8,38.64,0,0,0,0,0,0,0,0,0,0,0,0,0,0,0,0,
516,61.28,49.66,31.67,20.21,20.05,42.73,22.82,35.17,31.46,48.19,64.73,51.95,56.85,54.26,48.57,46.99,0,0,0,0,0,0,0,0,0,0,0,0,0,0,0,0,
517,52.29,47.06,30.99,10.22,44.06,45.71,41.67,43.48,64.24,41.48,62.74,50.32,56.92,66.17,49.01,52.07,0,0,0,0,0,0,0,0,0,0,0,0,0,0,0,0,
518,36.24,41.02,27.63,10.51,42.95,41.05,17.18,45.8,60.78,38.63,55.19,46.87,40.21,44.8,43.04,45.75,0,0,0,0,0,0,0,0,0,0,0,0,0,0,0,0,
519,34.38,28.83,12.84,-10.89,31.84,34.39,25.29,30.16,40.35,29.86,47.46,45.04,32.56,42.84,40.64,50.88,0,0,0,0,0,0,0,0,0,0,0,0,0,0,0,0,
520,59.57,25.85,5.117,-39.08,49.71,49.93,74.91,32.18,84.3,46.72,56.69,49.33,27.87,41.2,43.72,45.49,0,0,0,0,0,0,0,0,0,0,0,0,0,0,0,0,
521,61.42,35.07,21.44,-3.373,47.48,50.52,70.32,36.54,86.89,79.8,61.08,45.01,17.57,21.66,35.55,28.6,0,0,0,0,0,0,0,0,0,0,0,0,0,0,0,0,
522,46.61,39.1,26.38,25.77,31.79,35.58,31.39,18.62,49.32,74.25,46.15,45.48,24.47,34.89,35.29,39.4,0,0,0,0,0,0,0,0,0,0,0,0,0,0,0,0,
523,56.43,28.19,20.69,-16.17,40.48,42.21,14.46,6.796,82.15,29.96,40.95,55.41,34.09,53.22,44.97,47.08,0,0,0,0,0,0,0,0,0,0,0,0,0,0,0,0,
524,54.42,12.6,14.18,-36.33,31.43,35.45,-4.478,11.78,70.57,23.86,39.78,41.55,26.07,41.62,31.01,30.65,0,0,0,0,0,0,0,0,0,0,0,0,0,0,0,0,
525,28.6,8.056,-3.754,-0.4541,13.79,11.17,-15.41,21.87,-10.11,52.66,37.3,28.36,30.56,46.02,28.49,38.29,0,0,0,0,0,0,0,0,0,0,0,0,0,0,0,0,
526,27.76,24.98,4.862,20.02,32.54,23.27,9.592,34.27,9.386,43.27,51.21,46.5,47.65,59.49,54.44,53.45,0,0,0,0,0,0,0,0,0,0,0,0,0,0,0,0,
527,38.1,44.4,22.06,16.94,43.2,38.5,38.04,35.2,61.56,31.24,51.89,47.17,44.76,47.96,46.59,41.05,0,0,0,0,0,0,0,0,0,0,0,0,0,0,0,0,
528,20.57,38.53,-8.646,-9.192,20.77,16.45,34.55,20.07,51.53,52.98,33.85,25.22,34.16,31.7,26.61,38.65,0,0,0,0,0,0,0,0,0,0,0,0,0,0,0,0,
529,11.41,25.87,-19.57,-57.98,9.084,9.942,6.983,10.51,69.47,41.51,35.65,29.64,36.08,27.8,40.68,46.75,0,0,0,0,0,0,0,0,0,0,0,0,0,0,0,0,
530,38.47,24.61,7.277,-49.55,13.63,25.47,1.79,14.25,79.1,7.014,40.2,39.67,37.17,38.18,38.59,37.87,0,0,0,0,0,0,0,0,0,0,0,0,0,0,0,0,
531,45.26,11.86,-12.82,4.897,9.586,8.922,11.7,11.52,27.24,12.97,33.16,24.92,22.94,39.6,17.15,30.65,0,0,0,0,0,0,0,0,0,0,0,0,0,0,0,0,
532,12.92,-9.256,-29.51,0.4237,5.297,-12.5,-23.37,-4.315,1.466,27.02,35.26,14.34,3.136,12.76,19.54,25.48,0,0,0,0,0,0,0,0,0,0,0,0,0,0,0,0,
533,13.39,-11.46,4.411,-36.87,12.93,5.303,-45.28,-10.19,13.12,22.29,26.1,16.07,-0.1822,4.295,19.27,17.84,0,0,0,0,0,0,0,0,0,0,0,0,0,0,0,0,
534,41.59,-2.071,4.456,-42.5,14.31,16.96,-4.589,-0.4641,19.54,21.44,5.203,7.755,7.391,20.25,4.364,21.51,0,0,0,0,0,0,0,0,0,0,0,0,0,0,0,0,
535,23.14,3.993,-18.68,-40.01,3.926,3.282,5.879,7.608,25.63,18.34,9.26,0.6176,5.441,11.37,5.904,19.86,0,0,0,0,0,0,0,0,0,0,0,0,0,0,0,0,
536,0.8268,11.76,-12.22,-32.38,1.816,9.875,-4.767,17.62,35.87,13.14,19.47,10.56,5.126,1.934,19.47,17.67,0,0,0,0,0,0,0,0,0,0,0,0,0,0,0,0,
537,25.61,22.59,-13.75,-3.442,7.051,22.15,23.48,23.29,37.29,14.79,19.84,20.89,18.71,18.55,25.83,37.02,0,0,0,0,0,0,0,0,0,0,0,0,0,0,0,0,
538,33.91,30.37,-16.91,0.9634,9.712,11.27,29.16,8.464,13.93,9.49,30.18,22.24,29.01,29.34,17.84,42.3,0,0,0,0,0,0,0,0,0,0,0,0,0,0,0,0,
539,18.36,27.18,-5.592,-47.06,6.437,8.596,21.34,-1.667,6.415,5.283,21.8,15.79,22.05,27.66,-3.173,18.01,0,0,0,0,0,0,0,0,0,0,0,0,0,0,0,0,
540,19.46,12.64,-14.84,-58.55,-9.956,14.06,31.04,-0.6529,28.51,12.99,-6.074,5.674,15.66,26.2,-6.771,12.93,0,0,0,0,0,0,0,0,0,0,0,0,0,0,0,0,
541,15.89,8.322,-22.07,6.675,-17.37,7.505,-4.209,-6.142,8.338,13.79,5.548,13.94,30.96,27.23,17.42,32.74,0,0,0,0,0,0,0,0,0,0,0,0,0,0,0,0,
542,14.46,22.38,-10.98,23.08,0.1061,5.16,-40.77,2.256,-16.02,13.28,25.48,25.12,40.08,22.62,19.44,30.67,0,0,0,0,0,0,0,0,0,0,0,0,0,0,0,0,
543,22.66,31.69,-18.96,-24.68,2.585,2.205,-15.91,10.27,9.787,24.88,4.033,8.093,23.18,7.021,-6.55,8.921,0,0,0,0,0,0,0,0,0,0,0,0,0,0,0,0,
544,10.59,30.65,-30.84,-31.01,-21.61,-8.637,-4.885,-15.39,7.023,19.55,-5.108,-1.555,20.22,9.938,-7.101,6.659,0,0,0,0,0,0,0,0,0,0,0,0,0,0,0,0,
545,4.352,23.69,-30.69,-38.44,-29.57,-10.32,-19.39,-33.62,-7.752,-7.988,12.24,8.755,28.77,29.35,4.976,13.73,0,0,0,0,0,0,0,0,0,0,0,0,0,0,0,0,
546,9.236,5.167,-41.88,-64.42,-15.09,-12.4,-3.685,-20.05,4.662,-16.3,13.51,0.9385,13.27,21.58,-2.084,6.576,0,0,0,0,0,0,0,0,0,0,0,0,0,0,0,0,
547,-9.959,-4.811,-44.38,-36.37,-7.239,-18.08,3.584,-9.921,-18.41,-8.488,10.09,-8.639,1.963,5.361,-0.5979,4.103,0,0,0,0,0,0,0,0,0,0,0,0,0,0,0,0,
548,-14.95,3.662,-24.41,-15.87,-0.3454,-8.94,-15.67,-16.47,-16.78,-15.45,5.863,-4.272,7.567,9.171,7.173,12.89,0,0,0,0,0,0,0,0,0,0,0,0,0,0,0,0,
549,11.29,3.784,-9.762,-24.66,22.42,1.885,-9.476,-28.59,33.31,-23.73,-10.16,-13.34,-3.342,3.585,-3.418,10.15,0,0,0,0,0,0,0,0,0,0,0,0,0,0,0,0,
550,12.53,-11.03,-6.056,-3.396,25.46,-5.024,-1.009,-33.42,6.405,-24.48,-19.42,-32.38,-25.67,-15.65,-18.82,-7.846,0,0,0,0,0,0,0,0,0,0,0,0,0,0,0,0,
551,-16.51,-29.42,-19.79,-25.93,-14.89,-23.54,-18.22,-33.83,-38.95,-26.48,-26.77,-44.15,-35.58,-20.66,-33.05,-20.68,0,0,0,0,0,0,0,0,0,0,0,0,0,0,0,0,
552,-33.71,-33.8,-52.16,-88.64,-40.56,-36.91,-10.83,-41.7,-12.39,-17.63,-35.99,-42.76,-28.69,-16.7,-40.83,-17.19,0,0,0,0,0,0,0,0,0,0,0,0,0,0,0,0,
553,-21.4,-13.96,-63.1,-69.82,-28.1,-31.23,-8.84,-48.99,-16.86,-13.46,-28.43,-27.41,-14.17,-20.21,-29.92,-12.15,0,0,0,0,0,0,0,0,0,0,0,0,0,0,0,0,
554,2.843,-5.893,-42.54,-29.57,-24.22,-14.23,-50.54,-56.39,-40.79,-30.98,-15.74,-14.69,-4.143,-12.79,-19.8,-10.15,0,0,0,0,0,0,0,0,0,0,0,0,0,0,0,0,
555,8.035,-19.1,-25.5,-54.85,-22.45,-7.462,-49.36,-62.65,-2.813,-30.27,-13.62,-12.41,1.196,11.27,-25.71,-7.557,0,0,0,0,0,0,0,0,0,0,0,0,0,0,0,0,
556,-9.727,-16.93,-33.96,-71.15,-10.78,-24.68,-23.25,-52.86,5.365,-17.46,-18,-18.88,-2.574,12.67,-33.03,-16.93,0,0,0,0,0,0,0,0,0,0,0,0,0,0,0,0,
557,-32.58,-14.22,-60.82,-58.32,-25.89,-54.44,-57.61,-53.51,-46.88,-38.79,-22.66,-32.77,-13.31,-3.13,-28.8,-18.57,0,0,0,0,0,0,0,0,0,0,0,0,0,0,0,0,
558,-45.65,-29.17,-70.92,-66.03,-48.25,-57.27,-72.07,-74.42,-55.09,-51.94,-22.77,-39.12,-17.49,-3.254,-23.72,-6.064,0,0,0,0,0,0,0,0,0,0,0,0,0,0,0,0,
559,-36.42,-29.46,-53.95,-66.64,-39.83,-29.55,-34.85,-65.51,-20.11,-22.13,-21.23,-33.61,-22.9,-13.25,-27.5,-19.9,0,0,0,0,0,0,0,0,0,0,0,0,0,0,0,0,
560,-12.08,-9.715,-37.77,-40.43,-19.04,-10.06,-28.04,-30.88,-4.638,-6.83,-10.62,-18.89,-23.46,-24.94,-15.92,-25.81,0,0,0,0,0,0,0,0,0,0,0,0,0,0,0,0,
561,1.072,-2.261,-25.35,-27.95,-1.728,-5.162,-32.94,-27.1,-6.81,-25.68,6.365,-0.6047,-9.452,-3.62,3.947,4.191,0,0,0,0,0,0,0,0,0,0,0,0,0,0,0,0,
562,-4.438,-18.89,-23.69,-39.42,-1.431,-12.41,-16.4,-45.43,-28.09,-42.47,4.47,-3.177,-10.48,6.26,-7.423,0.1703,0,0,0,0,0,0,0,0,0,0,0,0,0,0,0,0,
563,-11.06,-29.92,-38.91,-43.98,-20.35,-35.76,-8.062,-43.33,-57.06,-42.61,-3.583,-19.98,-25.15,-8.842,-21.08,-22.83,0,0,0,0,0,0,0,0,0,0,0,0,0,0,0,0,
564,-18.35,-27.43,-34.88,-26.56,-25.38,-44.53,-24.35,-37.99,-39.81,-34.14,-5.174,-27.23,-29.08,-10.22,-16.05,-13.01,0,0,0,0,0,0,0,0,0,0,0,0,0,0,0,0,
565,-38.39,-48.49,-27.04,-23.99,-23.56,-33.72,-51.11,-55.92,-8.675,-37.37,-21.15,-36.84,-36.42,-17.63,-28.92,-18.48,0,0,0,0,0,0,0,0,0,0,0,0,0,0,0,0,
566,-48.21,-65.95,-48.73,-67.55,-34.74,-33.17,-46.63,-67.27,-28.64,-43.27,-33.26,-47.27,-45.56,-34.27,-38.55,-30.85,0,0,0,0,0,0,0,0,0,0,0,0,0,0,0,0,
567,-41.27,-41.86,-57.94,-88.24,-39.02,-37.01,-38.58,-56.79,-45.72,-35.53,-30.01,-47.19,-44.12,-32.59,-26.67,-14.38,0,0,0,0,0,0,0,0,0,0,0,0,0,0,0,0,
568,-50.07,-38.21,-51.65,-45.34,-42.17,-39.38,-68.01,-53.33,-31.13,-45.7,-38.06,-47.08,-42.71,-36.19,-31.89,-20.05,0,0,0,0,0,0,0,0,0,0,0,0,0,0,0,0,
569,-48.67,-59.57,-53.06,-30.36,-42.15,-41.36,-56.53,-59.01,-44.53,-59.17,-39.08,-39.66,-36.59,-44.94,-38.67,-38.8,0,0,0,0,0,0,0,0,0,0,0,0,0,0,0,0,
570,-17.69,-41.09,-30.4,-52.17,-16.89,-23.19,-11.67,-50.52,-65.5,-39.91,-16.96,-21.87,-24.7,-29.1,-26.99,-26.63,0,0,0,0,0,0,0,0,0,0,0,0,0,0,0,0,
571,-20.35,-17.62,-9.815,-36.79,-9.204,-7.158,-25.61,-31.44,-48.33,-31.59,-10.01,-14.82,-21.49,-19.6,-29.97,-23.98,0,0,0,0,0,0,0,0,0,0,0,0,0,0,0,0,
572,-42.11,-19.21,-30.9,-35.17,-33.84,-19.03,-40.88,-33.65,-13.75,-36.92,-21.8,-17.91,-23.04,-36.05,-38.9,-39.44,0,0,0,0,0,0,0,0,0,0,0,0,0,0,0,0,
573,-19.74,-10.17,-44.32,-65.99,-30.05,-21.89,-20.25,-58.33,8.446,-28.36,-16.98,-20.76,-23.03,-36.2,-31.05,-36.52,0,0,0,0,0,0,0,0,0,0,0,0,0,0,0,0,
574,-10.89,-13.8,-38.14,-50.86,-12.09,-17.79,-17.88,-62.39,-15.52,-42.86,-11.3,-28.94,-24.81,-21.28,-32.18,-31.89,0,0,0,0,0,0,0,0,0,0,0,0,0,0,0,0,
575,-45.83,-41.21,-41.71,-28.72,-26.42,-38.74,-17.2,-50.1,-48.53,-60.43,-35.25,-40.95,-31.51,-31.58,-48.14,-40.15,0,0,0,0,0,0,0,0,0,0,0,0,0,0,0,0,
576,-47.46,-44.88,-34.01,-51.14,-32.26,-43.55,-33.07,-54.56,-17.58,-44.6,-45.64,-39.33,-39.8,-49.14,-48.15,-42.59,0,0,0,0,0,0,0,0,0,0,0,0,0,0,0,0,
577,-20.57,-34.28,-20.29,-58.4,-17.77,-22.73,-88.89,-53.86,-4.121,-40.93,-24.06,-29.04,-44.15,-51.48,-41.09,-46.11,0,0,0,0,0,0,0,0,0,0,0,0,0,0,0,0,
578,-25.64,-41.73,-36.42,-45.03,-38.02,-35.45,-103.3,-51.18,-64.34,-56.66,-39.45,-42.76,-54.64,-59.5,-63.96,-64.59,0,0,0,0,0,0,0,0,0,0,0,0,0,0,0,0,
579,-42.76,-53.7,-57.37,-58.7,-70.54,-58.56,-63.54,-74.06,-77.52,-66.27,-70.74,-62.51,-65.62,-62.05,-85.1,-73.1,0,0,0,0,0,0,0,0,0,0,0,0,0,0,0,0,
580,-41.02,-56.22,-48.9,-74.52,-54.37,-44.13,-39.47,-80.82,-22.57,-66.46,-42.97,-48.88,-55.63,-45.38,-58.56,-53.2,0,0,0,0,0,0,0,0,0,0,0,0,0,0,0,0,
581,-33.66,-51.02,-38.52,-55.61,-24.66,-37.3,-43.54,-57.55,4.851,-49.24,-22.54,-41.71,-47.44,-41.03,-39.19,-38.13,0,0,0,0,0,0,0,0,0,0,0,0,0,0,0,0,
582,-36.07,-50.58,-50.88,-48.33,-34.69,-58.18,-62.04,-56.92,-14.68,-45.79,-52.51,-63.9,-61.97,-53.07,-62.55,-52.41,0,0,0,0,0,0,0,0,0,0,0,0,0,0,0,0,
583,-53.97,-61.24,-64.67,-89,-59.25,-66.7,-65.95,-74.27,-60.14,-63.02,-57.21,-64.6,-71.38,-66.28,-69.6,-69.09,0,0,0,0,0,0,0,0,0,0,0,0,0,0,0,0,
584,-70.95,-64.98,-70.53,-112.4,-70.45,-69.38,-57.35,-76.84,-86.16,-52.2,-53.51,-54,-69.04,-80.24,-61.6,-69.51,0,0,0,0,0,0,0,0,0,0,0,0,0,0,0,0,
585,-64.2,-62.45,-75.07,-94.36,-76.93,-75.78,-88.7,-83.99,-68.03,-46.27,-83.34,-68.37,-69.97,-75.94,-76.7,-67.92,0,0,0,0,0,0,0,0,0,0,0,0,0,0,0,0,
586,-50.94,-63.44,-71.44,-81.37,-73.38,-57.99,-112.1,-93.68,-52.59,-79.65,-77.44,-62.92,-60.33,-52.19,-73.15,-63.87,0,0,0,0,0,0,0,0,0,0,0,0,0,0,0,0,
587,-47.98,-56.7,-70.8,-64.06,-58.41,-39.38,-81.16,-73.33,-49.69,-83.8,-38.65,-31.2,-44.4,-42.7,-47.77,-56.5,0,0,0,0,0,0,0,0,0,0,0,0,0,0,0,0,
588,-45,-55.39,-82.48,-64.14,-59.41,-63.43,-77.87,-56.26,-61.97,-55.32,-49.27,-43.19,-54.59,-58.88,-61.2,-70.65,0,0,0,0,0,0,0,0,0,0,0,0,0,0,0,0,
589,-57.91,-62.64,-89.19,-108.5,-79.61,-91.77,-85.97,-74.3,-95.58,-62.98,-76.11,-77.63,-68.77,-73.15,-80.91,-83.35,0,0,0,0,0,0,0,0,0,0,0,0,0,0,0,0,
590,-76.22,-43.92,-89.06,-108.7,-85.23,-77.54,-47.44,-77.11,-78.25,-78.84,-67.99,-64.56,-51.36,-57.28,-58.47,-56.58,0,0,0,0,0,0,0,0,0,0,0,0,0,0,0,0,
591,-49.43,-31.03,-77.35,-65.87,-65.92,-54.42,-46.96,-66.32,-33.28,-59.16,-71.65,-51.19,-47.9,-43.93,-57.08,-55.29,0,0,0,0,0,0,0,0,0,0,0,0,0,0,0,0,
592,-28.67,-69.48,-54.37,-68.75,-56.29,-55.68,-79.38,-87.32,-60.13,-55.63,-86.58,-78.09,-78.15,-67.35,-90.27,-100.7,0,0,0,0,0,0,0,0,0,0,0,0,0,0,0,0,
593,-68.9,-91.59,-54.87,-72.23,-74.03,-59.95,-61.14,-86.73,-90.86,-77.72,-74.17,-82.6,-78.54,-73.93,-82,-91.17,0,0,0,0,0,0,0,0,0,0,0,0,0,0,0,0,
594,-77.2,-55.19,-62.41,-51.08,-78.88,-55.59,-44.27,-44.61,-67.78,-65.96,-68.97,-66.87,-54.47,-48.35,-55.81,-47.65,0,0,0,0,0,0,0,0,0,0,0,0,0,0,0,0,
595,-40.38,-36.15,-45.78,-68.51,-56.41,-57.12,-56.32,-37.03,-62.27,-44.71,-71.21,-75.09,-57.77,-50.84,-63.56,-62.12,0,0,0,0,0,0,0,0,0,0,0,0,0,0,0,0,
596,-55.67,-48.21,-48.27,-87.24,-50.43,-60.12,-54.58,-50.27,-55.11,-54.1,-52.99,-71.66,-64.67,-66.8,-65.96,-77.55,0,0,0,0,0,0,0,0,0,0,0,0,0,0,0,0,
597,-66.04,-35.77,-64.84,-56.73,-50.15,-45.02,-42.66,-42.67,-15.83,-51.8,-56.43,-51.78,-58.3,-60.68,-59.37,-58.53,0,0,0,0,0,0,0,0,0,0,0,0,0,0,0,0,
598,-23.49,-34.6,-51.59,-36.37,-33.04,-29.7,-31.39,-55.34,-26.84,-38.04,-75.38,-55.26,-63.45,-60.25,-66.54,-61.63,0,0,0,0,0,0,0,0,0,0,0,0,0,0,0,0,
599,-36.81,-74.94,-53.52,-63.92,-51.5,-50.99,-51.88,-74.1,-83.38,-49.38,-68.22,-65.27,-72.96,-66.25,-60.95,-68.56,0,0,0,0,0,0,0,0,0,0,0,0,0,0,0,0,
600,-81.96,-90.02,-76.99,-82.06,-82.49,-77.09,-92.28,-56.99,-86.18,-64.81,-64.86,-60.49,-68.44,-57.66,-51.85,-54.8,0,0,0,0,0,0,0,0,0,0,0,0,0,0,0,0,
601,-59.04,-69.63,-60.36,-55.91,-55.85,-62.94,-78.1,-46.46,-54.88,-70.53,-69.79,-53.56,-54.75,-52.74,-62.22,-55.55,0,0,0,0,0,0,0,0,0,0,0,0,0,0,0,0,
602,-41.73,-57.86,-35.94,-37.71,-32.61,-47.92,-46.03,-52.6,-67.33,-68.6,-72.48,-58.19,-54.15,-69.46,-74.34,-72.32,0,0,0,0,0,0,0,0,0,0,0,0,0,0,0,0,
603,-64.89,-48.91,-41.14,-43.89,-42.27,-52.12,-39.64,-38.52,-81.97,-55.93,-87.3,-69.89,-70.59,-87.14,-78.22,-79.34,0,0,0,0,0,0,0,0,0,0,0,0,0,0,0,0,
604,-51.14,-52.85,-17.93,-17.66,-11.12,-36.79,-13.1,-24.47,-45.44,-56.09,-74.54,-63.46,-68.53,-76.21,-67.33,-69.79,0,0,0,0,0,0,0,0,0,0,0,0,0,0,0,0,
605,-31.71,-72.3,38.68,33.36,36.01,-12.27,5.183,-21.84,-14.78,-65.47,-42.18,-45.66,-45.12,-50.61,-52.63,-58.95,0,0,0,0,0,0,0,0,0,0,0,0,0,0,0,0,
606,-40.45,-58.69,62.3,49.77,42.34,-0.3211,-1.069,-5.853,-20.57,-63.03,-56.52,-46.18,-38.39,-44.91,-61.94,-64.65,0,0,0,0,0,0,0,0,0,0,0,0,0,0,0,0,
607,-30.35,-33.37,61.42,50.72,35.6,6.323,16.19,12.63,-33.42,-64.94,-80.32,-57.22,-53.17,-64.35,-74.71,-78.96,0,0,0,0,0,0,0,0,0,0,0,0,0,0,0,0,
608,-29.74,-38.82,97.98,102.9,36.31,1.718,19.28,21.18,-57.37,-67.83,-69.26,-62.22,-68.84,-91.92,-68.31,-85.74,0,0,0,0,0,0,0,0,0,0,0,0,0,0,0,0,
609,-46.96,-34.64,159,188.7,50.71,2.721,-8.944,29.08,-73.87,-65.21,-60.76,-58.94,-67.32,-92.25,-64.08,-78.61,0,0,0,0,0,0,0,0,0,0,0,0,0,0,0,0,
610,-28.38,-26.78,181.3,216,74.96,17.84,-4.561,32.8,-61.79,-74.96,-64.78,-56.91,-52.47,-62.22,-70.46,-68.52,0,0,0,0,0,0,0,0,0,0,0,0,0,0,0,0,
611,-23.36,-52.31,175,192,79.83,17.41,28.3,30.02,-52.3,-76.65,-68.63,-69.7,-53.09,-57.71,-75.63,-76.33,0,0,0,0,0,0,0,0,0,0,0,0,0,0,0,0,
612,-54.52,-58.04,191.7,206.8,74.99,13.15,42.06,29.11,-44.94,-62.4,-78.95,-82.26,-69.96,-86.81,-78.99,-92.05,0,0,0,0,0,0,0,0,0,0,0,0,0,0,0,0,
613,-54.71,-36.27,213.6,226.1,76.63,17.41,32.25,35.28,-39.26,-66.75,-92.03,-85.14,-82.64,-105.4,-87.45,-101.2,0,0,0,0,0,0,0,0,0,0,0,0,0,0,0,0,
614,-49.23,-49.97,209.6,188.7,72.79,13.01,24.1,37.06,-48.1,-77.01,-88.71,-83.71,-80.93,-100.8,-84.75,-100.6,0,0,0,0,0,0,0,0,0,0,0,0,0,0,0,0,
615,-57.36,-64.78,201.8,174.7,75.07,15.16,33.8,26.14,-40.17,-70.1,-62.16,-66.06,-61.06,-78.68,-54.79,-75.08,0,0,0,0,0,0,0,0,0,0,0,0,0,0,0,0,
616,-41.49,-42.62,194.9,211.6,80.46,15.43,35.9,27.2,-35.63,-66.35,-45.48,-49.76,-49.95,-65.24,-36.54,-53.18,0,0,0,0,0,0,0,0,0,0,0,0,0,0,0,0,
617,-40.7,-37.87,179.7,214,68.49,1.031,20.49,38.23,-46.55,-62.19,-50.7,-48.53,-57.75,-73.58,-46.22,-64.22,0,0,0,0,0,0,0,0,0,0,0,0,0,0,0,0,
618,-46.9,-45.62,168.6,189.9,58.52,11.39,30.37,27.2,-17.82,-49.73,-40.16,-32.28,-47.46,-65.51,-41.32,-64.64,0,0,0,0,0,0,0,0,0,0,0,0,0,0,0,0,
619,-14.64,-22.53,151.2,178.8,51.43,23.31,57.34,14.97,-3.949,-54.39,-24.96,-17.97,-28.4,-45.56,-27.94,-48.33,0,0,0,0,0,0,0,0,0,0,0,0,0,0,0,0,
620,-14.01,-6.917,121.3,142.3,26.13,-2.525,36.86,19.72,-41.93,-54.86,-31.89,-27.26,-26.39,-41.16,-21.73,-41,0,0,0,0,0,0,0,0,0,0,0,0,0,0,0,0,
621,-46.45,-15.97,107.9,103.5,14.85,-6.951,-0.9178,21.15,-38.83,-17.45,-24.88,-21.69,-14.23,-29.4,-0.5404,-19.57,0,0,0,0,0,0,0,0,0,0,0,0,0,0,0,0,
622,-26.11,-6.871,109.3,115.9,37.27,25.82,23.3,27.4,-6.623,6.526,2.199,-3.316,7.485,-14.86,11.19,1.33,0,0,0,0,0,0,0,0,0,0,0,0,0,0,0,0,
623,6.394,9.97,102.9,128.5,49.74,36.99,52.48,36.46,13.02,-9.764,14.1,1.526,13.52,-7.724,1.365,1.321,0,0,0,0,0,0,0,0,0,0,0,0,0,0,0,0,
624,4.955,1.562,85.49,109.5,34.48,25.55,14.08,28.78,46.62,-20.65,14.38,8.168,14.12,13.48,9.512,13.97,0,0,0,0,0,0,0,0,0,0,0,0,0,0,0,0,
625,7.113,-5.808,58.64,91.6,12.4,16.8,-0.3213,21.64,32.35,-27.45,11.84,13.06,11.69,19.79,22.34,22.97,0,0,0,0,0,0,0,0,0,0,0,0,0,0,0,0,
626,3.321,13.98,36.01,60.35,-10.9,11.57,57.06,22.37,-35.58,-24.23,8.912,9.352,7.528,-0.5295,21.05,11.25,0,0,0,0,0,0,0,0,0,0,0,0,0,0,0,0,
627,-9.492,37.04,28.2,28.72,-25.37,11.42,75.32,19.53,-47.69,24.52,19.15,16.52,17.31,0.542,29.32,18.03,0,0,0,0,0,0,0,0,0,0,0,0,0,0,0,0,
628,5.538,43.9,25.05,41.24,-23.36,11.93,27.48,20.12,-13.2,51.65,21.25,19.14,22.17,12.14,29.21,25.23,0,0,0,0,0,0,0,0,0,0,0,0,0,0,0,0,
629,18.3,34.91,17.91,45.78,-28.87,4.841,-4.911,24.8,-0.4426,12.56,-1.219,1.715,9.479,10.44,10.04,10.14,0,0,0,0,0,0,0,0,0,0,0,0,0,0,0,0,
630,-4.979,12.56,-1.444,22.6,-47.16,-9.897,-7.37,27.84,-2.299,-2.354,-9.8,-6.681,6.773,20.69,9.643,12.27,0,0,0,0,0,0,0,0,0,0,0,0,0,0,0,0,
631,-23.48,9.762,-16.44,34.89,-51.99,-19.75,3.869,29.41,-9.331,23.25,6.232,-0.3283,14.11,26.34,19.33,25.61,0,0,0,0,0,0,0,0,0,0,0,0,0,0,0,0,
632,-14.12,37.83,-3.95,40.25,-41.26,-9.61,30.38,26.86,-22.01,24.88,20.61,9.177,18.6,11.84,22.38,29.21,0,0,0,0,0,0,0,0,0,0,0,0,0,0,0,0,
633,0.1325,42.62,-1.8,-4.038,-31.47,5.896,47.5,17.93,-10.68,28.68,32.92,32.33,33.38,20.57,46.5,46.4,0,0,0,0,0,0,0,0,0,0,0,0,0,0,0,0,
634,15.62,26.25,-21.77,-19.76,-28.08,7.95,43.43,4.4,30.6,49.59,33.49,46.56,43.47,44.82,64.72,58.24,0,0,0,0,0,0,0,0,0,0,0,0,0,0,0,0,
635,29.82,35.93,-20.84,-7.933,-32.86,6.461,27.16,4.826,40.36,36.66,18.19,26.89,30.96,40.94,41.7,40.68,0,0,0,0,0,0,0,0,0,0,0,0,0,0,0,0,
636,17.36,42.38,-17.63,-22.73,-37.53,5.883,8.813,31.45,6.808,22.78,26.24,16.59,30.02,33.44,33.4,34.64,0,0,0,0,0,0,0,0,0,0,0,0,0,0,0,0,
637,-0.6319,37.14,-23.68,-20.04,-22.23,8.615,17.95,52.48,8.722,55.81,51.18,36.41,50.05,44.63,56.09,49.76,0,0,0,0,0,0,0,0,0,0,0,0,0,0,0,0,
638,28.72,57.87,-7.063,4.769,1.444,25.1,37.3,41.83,42.19,73.58,48.14,44.35,56.89,52.27,52.01,51.57,0,0,0,0,0,0,0,0,0,0,0,0,0,0,0,0,
639,68.76,67.07,-3.994,0.7803,-5.247,34.73,28.96,21.13,45.03,53.09,34.8,35.67,51.48,61.69,37.07,45.46,0,0,0,0,0,0,0,0,0,0,0,0,0,0,0,0,
640,51.42,46.05,-24.45,-0.9726,-25.36,23.42,35.14,22.61,39.1,53.4,37.4,35.2,48.45,72.74,48.27,44.17,0,0,0,0,0,0,0,0,0,0,0,0,0,0,0,0,
641,17.04,43.12,-17.77,12.77,-13.61,16.48,60.14,47.14,40.17,59.91,42.17,35.95,41.48,63.17,55.88,43.01,0,0,0,0,0,0,0,0,0,0,0,0,0,0,0,0,
642,14.7,46.11,-10.28,-12.27,4.034,14.88,50.45,54.48,36.8,40.26,47.19,30.99,35.98,56.41,52.4,46.94,0,0,0,0,0,0,0,0,0,0,0,0,0,0,0,0,
643,15.68,31.27,-22.82,-52.28,-3.561,9.964,33.56,29.53,46.32,34.15,46.69,26.75,35.45,61.21,48.86,41.47,0,0,0,0,0,0,0,0,0,0,0,0,0,0,0,0,
644,16.83,26.24,-19.7,-34.83,-7.568,19.64,27.67,19.04,45.69,50.82,31.32,23.25,33.11,47.12,35.91,26.42,0,0,0,0,0,0,0,0,0,0,0,0,0,0,0,0,
645,29.11,38.66,-13.17,15.59,2.111,34.43,17.13,32.26,26.67,64.67,31.4,29.11,40.2,43.03,38.75,42.87,0,0,0,0,0,0,0,0,0,0,0,0,0,0,0,0,
646,32.9,50.64,-12.31,18.58,4.475,33.26,25.44,27.23,32.94,66.15,49.39,44.47,52.15,67.12,58.12,67.04,0,0,0,0,0,0,0,0,0,0,0,0,0,0,0,0,
647,32.8,38.33,-14.78,-21.2,-11.26,18.99,11.18,9.082,37.13,41.81,40.7,37.14,39.9,67.29,44.61,47.56,0,0,0,0,0,0,0,0,0,0,0,0,0,0,0,0,
648,21.12,8.117,-42.71,-43.66,-34.06,-8.484,-31.51,4.803,12.14,25.19,20.77,5.448,14.73,47.11,20.65,25.71,0,0,0,0,0,0,0,0,0,0,0,0,0,0,0,0,
649,-9.349,10.85,-59.38,-52.75,-32.87,-25.54,-1.69,10.52,11.03,51.84,26.96,-5.052,7.004,39.64,27.8,28.92,0,0,0,0,0,0,0,0,0,0,0,0,0,0,0,0,
650,-13.59,30.17,-43.05,-55.43,-16.38,-7.792,39.68,18.53,29.12,65.67,34.89,11.78,10.32,31.89,34.42,24.2,0,0,0,0,0,0,0,0,0,0,0,0,0,0,0,0,
651,9.095,17.67,-37.44,-27.04,-12.62,13.67,-8.007,15.39,37.4,43.24,41.53,31.62,19.76,37.75,38.9,28.84,0,0,0,0,0,0,0,0,0,0,0,0,0,0,0,0,
652,30.49,15.89,-28.91,-10.9,-6.689,17.35,-31.82,-2.713,61.55,29.25,57.58,45,32.13,53.16,54.64,44.37,0,0,0,0,0,0,0,0,0,0,0,0,0,0,0,0,
653,42.66,35.79,-19,-30.7,-12.3,4.445,-3.847,-7.615,58.04,18.98,43.56,29.77,24.5,35.36,38.79,26.02,0,0,0,0,0,0,0,0,0,0,0,0,0,0,0,0,
654,11.06,23.81,-49.9,-48.52,-42.42,-22.88,-26.24,3.791,1.139,16.22,12.51,1.871,14.08,19.03,6.8,6.689,0,0,0,0,0,0,0,0,0,0,0,0,0,0,0,0,
655,-15.71,14.26,-68.74,-74.85,-41.57,-20.4,-29.96,4.674,-10.87,44.95,9.295,8.735,23.69,26.05,6.498,16.16,0,0,0,0,0,0,0,0,0,0,0,0,0,0,0,0,
656,28.68,37.1,-47.14,-77.51,-16.32,13.13,28.29,-4.103,17.54,52.01,6.884,20.03,20.25,11.56,8.432,9.854,0,0,0,0,0,0,0,0,0,0,0,0,0,0,0,0,
657,40.81,30.45,-44.56,-30.05,-25.52,10.92,21.38,-6.555,5.611,17.42,1.153,8.072,3.682,7.457,8.434,2.961,0,0,0,0,0,0,0,0,0,0,0,0,0,0,0,0,T1
658,-14.3,-0.1904,-50.96,-26.18,-45.62,-15.31,-35.48,-3.318,-2.372,13.27,14.83,7.396,3.431,31.21,25.81,20.31,0,0,0,0,0,0,0,0,0,0,0,0,0,0,0,0,
659,-26.14,3.746,-41.3,-53.77,-44.67,-18.95,-25.62,-7.303,10.73,35.79,19.88,7.811,1.424,17.27,21.99,16.77,0,0,0,0,0,0,0,0,0,0,0,0,0,0,0,0,
660,-8.326,17.82,-43.78,-53.39,-35.87,-16.28,-0.6268,-20.22,11.57,23.9,16.68,0.2628,-0.2869,0.8848,11.87,10.22,0,0,0,0,0,0,0,0,0,0,0,0,0,0,0,0,
661,-2.362,8.693,-44.79,-76.8,-17.22,-8.731,-18.56,-19.28,32.18,8.708,26.15,15.34,17.08,35.74,35.95,35.38,0,0,0,0,0,0,0,0,0,0,0,0,0,0,0,0,
662,25.75,2.394,-25.93,-63.5,6.276,9.918,-13.43,-1.87,48.99,23.61,32.89,33.01,26.94,47.88,48.54,40.79,0,0,0,0,0,0,0,0,0,0,0,0,0,0,0,0,
663,40.51,15.87,-19.91,10.53,6.989,11.05,9.177,5.445,34.71,27.02,34.16,28.58,22.17,19.4,30.88,20.77,0,0,0,0,0,0,0,0,0,0,0,0,0,0,0,0,
664,20.89,28.48,-33.19,5.252,-14.45,1.4,-0.6985,1.479,35.22,19.05,27.67,19.82,19.04,20.45,18.61,18.56,0,0,0,0,0,0,0,0,0,0,0,0,0,0,0,0,
665,15.18,18.72,-30.47,-36.69,-21.8,9.845,5.203,-1.795,27.31,26.06,18.38,22.04,17.52,40.42,22.9,25.71,0,0,0,0,0,0,0,0,0,0,0,0,0,0,0,0,
666,24.27,7.377,-9.965,-37.72,-4.039,20.66,34.13,-0.5165,0.0905,27.73,29.59,39.32,25.61,36.46,47.45,35.76,0,0,0,0,0,0,0,0,0,0,0,0,0,0,0,0,
667,32.03,26.74,-2.976,-57.26,4.438,16.03,34.88,12.63,7.337,34.34,32.5,46.32,34.36,24.79,59,43.55,0,0,0,0,0,0,0,0,0,0,0,0,0,0,0,0,
668,31.78,50.96,-5.26,-32.2,-0.2902,16.93,36.52,23.56,32.41,58.8,18.87,35.2,36.15,36.99,37.36,40.53,0,0,0,0,0,0,0,0,0,0,0,0,0,0,0,0,
669,20.52,54.44,-1.339,39.93,10,30.07,38.41,22.15,56.02,51.98,36.05,43.84,51.13,64.51,41.61,54.23,0,0,0,0,0,0,0,0,0,0,0,0,0,0,0,0,
670,27.34,60.27,-8.105,22.1,19.35,25.97,0.5701,29.5,63.18,20.53,51.6,48.85,55.71,61.51,55.33,61.22,0,0,0,0,0,0,0,0,0,0,0,0,0,0,0,0,
671,31.7,60.08,-21.97,-35.29,4.331,1.688,-21.65,32.88,19.84,25.01,27.16,19.27,34.42,36.14,23.16,31.34,0,0,0,0,0,0,0,0,0,0,0,0,0,0,0,0,
672,1.355,37.14,-20.99,-39.92,-8.128,-5.365,-7.782,20.4,4.984,46.48,18.81,12.48,35.32,43.49,13.44,28.41,0,0,0,0,0,0,0,0,0,0,0,0,0,0,0,0,
673,9.401,28.83,-7.602,-23.45,10.37,20.75,8.112,34.54,52.48,42.24,36.62,37.55,50.39,55.56,42.16,50.97,0,0,0,0,0,0,0,0,0,0,0,0,0,0,0,0,
674,68.54,44.42,10.75,10.71,38.04,54.64,64.03,58.63,56.23,36.63,41.53,45.83,44.54,37.67,38.61,42.12,0,0,0,0,0,0,0,0,0,0,0,0,0,0,0,0,
675,80.04,54.8,25.59,41.58,38.74,68.09,115.4,40.26,37.34,47.05,49.06,51.18,46.34,37.09,36.17,45.35,0,0,0,0,0,0,0,0,0,0,0,0,0,0,0,0,
676,58.45,60.67,33.63,28.48,30.25,63.32,63.03,24.17,64.22,40.78,57.95,58.13,50.37,48.77,51.33,59.69,0,0,0,0,0,0,0,0,0,0,0,0,0,0,0,0,
677,61.34,49.75,22.43,0.146,30.91,45.79,-13.29,32.04,57.27,20.99,42.12,41.58,31.84,38.8,36.99,39.9,0,0,0,0,0,0,0,0,0,0,0,0,0,0,0,0,
678,42.56,13.52,-28.77,-27.69,0.4099,4.82,-29.91,9.081,-4.652,27.01,28.93,28.12,26.03,42.49,34.31,46.78,0,0,0,0,0,0,0,0,0,0,0,0,0,0,0,0,
679,3.542,1.719,-62.29,-55.05,-43.37,-28.32,-32.1,-13.05,-24.94,35.74,33.11,33.27,33.23,54.91,52.88,73,0,0,0,0,0,0,0,0,0,0,0,0,0,0,0,0,
680,-3.312,14.84,-29.88,-48.62,-30.42,-15.65,-15.85,4.589,3.704,25.18,24.73,31.93,22.1,37.98,38.14,44.64,0,0,0,0,0,0,0,0,0,0,0,0,0,0,0,0,
681,11.69,5.214,-6.364,-17.45,8.319,5.695,18.08,3.815,10.59,35.58,10.03,25.41,11.41,15.56,22.22,19,0,0,0,0,0,0,0,0,0,0,0,0,0,0,0,0,
682,39.97,-0.9046,-12.35,-10.8,26.46,13.32,13.99,-11.31,14.7,44.57,12.07,22.38,7.638,3.806,25.97,28.66,0,0,0,0,0,0,0,0,0,0,0,0,0,0,0,0,
683,61.89,11.16,8.552,-14.34,53.35,32.95,7.8,1.821,55.8,12.05,27.79,21.31,4.227,1.093,22.62,27.38,0,0,0,0,0,0,0,0,0,0,0,0,0,0,0,0,
684,42.22,7.277,30.41,7.724,80.73,45.81,24.94,-2.826,65.84,-3.122,48.12,23.42,15.34,12.11,29.91,31.97,0,0,0,0,0,0,0,0,0,0,0,0,0,0,0,0,
685,25.29,8.594,25.43,5.231,75.79,33.39,7.994,-29.3,43.97,7.945,49.22,12.85,17.01,4.942,29.36,30.78,0,0,0,0,0,0,0,0,0,0,0,0,0,0,0,0,
686,31.93,16.58,13.51,-39.49,57.5,17.2,-17.44,-21.85,58.07,-5.221,25.25,-8.52,-3.084,-17.8,1.493,5.307,0,0,0,0,0,0,0,0,0,0,0,0,0,0,0,0,
687,22.04,0.2093,5.698,-33.96,53.36,16.62,-10.89,-9.042,50.13,5.46,15.58,-3.836,-2.41,-6.562,0.8356,12.51,0,0,0,0,0,0,0,0,0,0,0,0,0,0,0,0,
688,30.33,-0.0937,26.62,22.9,71.45,51.17,-1.558,-15.71,39.36,48.51,29.39,30.36,22.32,23.77,26.5,38.55,0,0,0,0,0,0,0,0,0,0,0,0,0,0,0,0,
689,72.53,34.3,58.74,47,92.36,92.5,27.99,10.54,100.4,41.55,44.42,61.45,46.28,38.96,37.77,40.68,0,0,0,0,0,0,0,0,0,0,0,0,0,0,0,0,
690,86.06,64.23,58.17,51.2,93.29,88.97,60.81,54.59,109.5,27.91,58.87,74.96,65.52,44.99,48.2,48.81,0,0,0,0,0,0,0,0,0,0,0,0,0,0,0,0,
691,81.3,78.84,46.45,48.71,83.64,68.22,34.71,46.27,51.24,58.46,65.13,74.65,63.34,37.68,57.36,52.18,0,0,0,0,0,0,0,0,0,0,0,0,0,0,0,0,
692,85.79,67.18,31.62,13.56,63.38,54.52,17.77,11.2,50.59,45.89,59.59,65.21,47.02,30.07,52.92,39.01,0,0,0,0,0,0,0,0,0,0,0,0,0,0,0,0,
693,70.93,41.12,8.379,-1.388,42.23,32.59,49.52,6.512,56.14,14.33,57.78,54.25,49.65,46.14,50.68,48.9,0,0,0,0,0,0,0,0,0,0,0,0,0,0,0,0,
694,56.45,43.9,13.18,23.1,55.61,30.35,51.94,14.78,50.97,50.34,56.35,50.42,56.95,52.56,48.94,58.09,0,0,0,0,0,0,0,0,0,0,0,0,0,0,0,0,
695,55.13,58.38,29.19,20.38,68.13,41.49,40.27,20.44,57.79,67.89,44.37,46.14,50.17,35.09,36.76,40.24,0,0,0,0,0,0,0,0,0,0,0,0,0,0,0,0,
696,30.21,57.46,19.82,-2.055,32.65,23.78,32.32,31.66,5.075,38.93,25.97,30.48,44.52,35.23,28.08,40.08,0,0,0,0,0,0,0,0,0,0,0,0,0,0,0,0,
697,12.02,55.99,15.49,8.477,10.07,13.81,-2.351,31.62,-7.574,45.67,17.03,23.68,39.67,43.22,36.89,58.21,0,0,0,0,0,0,0,0,0,0,0,0,0,0,0,0,
698,33.58,55.67,32.18,41.31,44.76,40.73,8.676,29.44,76.2,34.75,32.39,38.14,34.12,32.04,48.45,56.85,0,0,0,0,0,0,0,0,0,0,0,0,0,0,0,0,
699,57.33,49.22,41.88,55.59,69.25,59.31,52.86,37.9,70.63,-7.608,51.57,44.43,33.18,27.5,42.87,44.81,0,0,0,0,0,0,0,0,0,0,0,0,0,0,0,0,
700,65.41,28.21,29.93,32.08,52.67,52.42,36.78,23.98,12.53,20.08,50.88,35.63,26.1,28.46,33.16,36.59,0,0,0,0,0,0,0,0,0,0,0,0,0,0,0,0,
701,57.67,9.7,17.12,0.6375,56.95,49.13,40.65,2.949,71.8,62.02,49.86,38.6,25.38,19.8,36.06,31.93,0,0,0,0,0,0,0,0,0,0,0,0,0,0,0,0,
702,43.2,31.77,21.64,-16.29,74.38,53.44,67.17,9.886,125.5,32.26,56.11,43.95,38.98,23.1,37.4,31.9,0,0,0,0,0,0,0,0,0,0,0,0,0,0,0,0,
703,46.6,49.27,15.43,-36.13,42.07,37.85,0.1121,7.821,48.21,1.539,44.75,25.77,29.45,23.1,23.21,22.45,0,0,0,0,0,0,0,0,0,0,0,0,0,0,0,0,
704,40.64,23.32,-3.986,-30.53,12.53,13.16,-34.77,-5.503,-22.14,0.771,20.29,11.27,8.847,6.079,9.474,11.96,0,0,0,0,0,0,0,0,0,0,0,0,0,0,0,0,
705,22.29,21.95,-4.443,1.919,22.45,17.21,42.44,3.06,7.716,-3.872,12.53,28.38,19.55,6.945,14.88,21.05,0,0,0,0,0,0,0,0,0,0,0,0,0,0,0,0,
706,32.9,35.52,-16.81,-10.77,-10.45,15.47,37.89,-1.698,19.4,7.82,16.48,34.98,24.37,10.62,19.27,20.12,0,0,0,0,0,0,0,0,0,0,0,0,0,0,0,0,
707,27.89,3.683,-47.7,-33.18,-51.38,-19.44,-45.79,-21.21,-30.1,27.48,11.52,14.55,8.161,-0.6063,13.22,12.78,0,0,0,0,0,0,0,0,0,0,0,0,0,0,0,0,
708,-6.938,-4.54,-34.36,-13.27,-5.124,-20,-33.04,-9.463,-20.75,9.536,18.43,23.61,23.21,16.57,33.7,45.8,0,0,0,0,0,0,0,0,0,0,0,0,0,0,0,0,
709,9.673,29.26,-0.7728,-29.8,47.28,17.94,19.18,-4.298,44.28,-23.61,44.98,56.47,47.59,42.14,61.04,69.1,0,0,0,0,0,0,0,0,0,0,0,0,0,0,0,0,
710,52.81,15.44,-7.191,-69.37,36.34,22.9,-3.491,-33.99,69.03,-25.66,45.85,51.22,29.85,19.65,39.31,29.66,0,0,0,0,0,0,0,0,0,0,0,0,0,0,0,0,
711,43.76,-17.29,-22.01,-40.95,18.73,2.8,-45.17,-42.4,56.47,-11.93,20.01,21.35,3.789,-12,6.682,-2.018,0,0,0,0,0,0,0,0,0,0,0,0,0,0,0,0,
712,8.195,-12.12,-21.93,-4.934,3.867,-12.77,-38.25,-28.88,13.63,-10.05,5.737,8.539,4.679,-3.678,5.638,8.347,0,0,0,0,0,0,0,0,0,0,0,0,0,0,0,0,
713,-9.344,-12.13,-26.48,-14.65,-15.46,-27.13,-17.91,-30.61,-41.34,-6.081,-8.382,2.496,6.492,3.116,-1.696,3.09,0,0,0,0,0,0,0,0,0,0,0,0,0,0,0,0,
714,-7.867,-16.13,-26.45,-19.27,-10.44,-21.25,-15.03,-22.01,-44.17,4.322,-26.03,-10.44,-6.341,-20.38,-17.79,-17.7,0,0,0,0,0,0,0,0,0,0,0,0,0,0,0,0,
715,-4.038,-1.871,-16.85,-22.49,1.106,-1.499,8.307,-2.147,-12.92,-3.986,-25.87,-19.25,-9.567,-24.24,-13.07,-14.32,0,0,0,0,0,0,0,0,0,0,0,0,0,0,0,0,
716,-10.98,-3.657,-9.767,-31.5,-1.012,0.0471,24.9,-13.61,-0.0376,-27.59,-26.3,-19.31,-4.463,-5.725,-12.2,-8.842,0,0,0,0,0,0,0,0,0,0,0,0,0,0,0,0,
717,-13.26,-18.82,-2.95,-20.57,4.088,-4.445,-17.33,-37.55,-6.726,-34.62,-25.76,-13.8,-13.02,-13.82,-20.93,-15.19,0,0,0,0,0,0,0,0,0,0,0,0,0,0,0,0,
718,-3.677,-21.55,1.438,-12.3,16.95,-0.5876,-33.89,-36.88,-16.78,-21.55,-6.298,-2.315,-14.1,-24.37,-9.014,-5.936,0,0,0,0,0,0,0,0,0,0,0,0,0,0,0,0,
719,-1.637,-12.55,-5.65,-8.804,12.93,-4.843,1.243,-27.01,-13.88,-18.55,-7.854,0.739,-6.43,-23.29,-4.26,-6.28,0,0,0,0,0,0,0,0,0,0,0,0,0,0,0,0,
720,-12.56,0.8046,-24.3,-8.639,-10.69,-16.84,-11.14,-19.72,-13.25,-30.65,-29.91,-12.36,-17.61,-35.34,-22.69,-28.77,0,0,0,0,0,0,0,0,0,0,0,0,0,0,0,0,
721,-19.18,-5.162,-40.54,-33.79,-24.37,-15.28,-45.16,-9.651,-29.52,-23.41,-23.79,-16.71,-16.9,-24.29,-18.51,-20.64,0,0,0,0,0,0,0,0,0,0,0,0,0,0,0,0,
722,-10.76,-19.14,-33.13,-27.26,-17,-4.336,-31.73,-11.38,-34.85,0.3347,-25.37,-17.56,-7.061,-8.359,-10.73,-8.601,0,0,0,0,0,0,0,0,0,0,0,0,0,0,0,0,
723,-12.3,-13.06,-14.53,10.05,-15.7,-12.26,-4.123,-27.34,-24.5,-0.0008,-53.38,-33.95,-28.35,-32.39,-30.75,-32.03,0,0,0,0,0,0,0,0,0,0,0,0,0,0,0,0,
724,-35.36,-23.4,-19.53,-12.1,-29.5,-37.87,-4.201,-36.77,-24.36,-18.31,-42.39,-33.94,-31.27,-26.68,-25.06,-26.78,0,0,0,0,0,0,0,0,0,0,0,0,0,0,0,0,
725,-44.15,-44.11,-38.58,-40.74,-42.52,-52.21,-39.93,-38.11,-33.91,-28.04,-16.45,-17.6,-4.983,1.756,3.196,3.979,0,0,0,0,0,0,0,0,0,0,0,0,0,0,0,0,
726,-36.01,-25.33,-43.36,-36.68,-44.52,-47.17,-49.66,-39.51,-31.45,-29.8,-36.78,-22.26,-11.33,-21.88,-2.473,-2.759,0,0,0,0,0,0,0,0,0,0,0,0,0,0,0,0,
727,-36,-13.29,-45.94,-70.09,-41.78,-42.39,-16.33,-37.71,-33.53,-20.06,-54.35,-33.07,-21.28,-37.06,-19.01,-18.25,0,0,0,0,0,0,0,0,0,0,0,0,0,0,0,0,
728,-45.01,-37.5,-58.18,-72.21,-54.92,-56.61,-51.54,-37.6,-66.61,-7.139,-38.84,-33.16,-4.218,-15.16,-14.05,-10.75,0,0,0,0,0,0,0,0,0,0,0,0,0,0,0,0,
729,-58.62,-39.8,-57.47,-16.62,-60.48,-67.5,-108.1,-42.86,-71.2,-13.43,-27.33,-24.09,5.746,-9.568,0.7035,4.111,0,0,0,0,0,0,0,0,0,0,0,0,0,0,0,0,
730,-51.3,-23.14,-42.42,-25.75,-28.56,-46.24,-59.83,-42.88,-26.44,-29.43,-22.68,-7.37,6.824,-7.899,3.186,5.316,0,0,0,0,0,0,0,0,0,0,0,0,0,0,0,0,
731,-30.15,-31.59,-41.48,-61.3,-14.45,-32.94,-20.82,-41.55,-27.52,-43.54,-24.59,-16.27,-5.796,-15.39,-21.72,-24.76,0,0,0,0,0,0,0,0,0,0,0,0,0,0,0,0,
732,-44.53,-50.52,-50.5,-59.99,-31.95,-50.18,-54.47,-46.28,-58.54,-50.9,-36.91,-38.79,-27.41,-40.92,-37.61,-46.01,0,0,0,0,0,0,0,0,0,0,0,0,0,0,0,0,
733,-51.92,-45.77,-46.3,-76.51,-21.24,-43.02,-53.96,-42.98,-30.22,-27.94,-37.75,-25.76,-19.04,-33.03,-20.04,-24.79,0,0,0,0,0,0,0,0,0,0,0,0,0,0,0,0,
734,-15.88,-20.47,-33.12,-70.43,-7.491,-10.24,-42.32,-29.86,15.98,0.7091,-29.61,-7.027,-1.571,-5.266,-5.722,-5.348,0,0,0,0,0,0,0,0,0,0,0,0,0,0,0,0,
735,2.123,-12.47,-23.31,-32.09,-17.67,2.741,-48.33,-24.27,21.56,-16.54,-21.82,-7.53,-2.943,-2.698,0.4988,-4.832,0,0,0,0,0,0,0,0,0,0,0,0,0,0,0,0,
736,4.017,-27.77,-22.47,-35.61,-15.88,3.668,-22.69,-33.37,-18.77,-43.86,-17.65,-10.33,-7.366,-10.32,-3.349,-10.89,0,0,0,0,0,0,0,0,0,0,0,0,0,0,0,0,
737,-0.302,-37.41,-29.86,-38.26,-21.41,-5.602,-16.74,-51.22,-74.39,-36.13,-39.62,-34.46,-22.33,-15.71,-30.61,-25.29,0,0,0,0,0,0,0,0,0,0,0,0,0,0,0,0,
738,-45.95,-44.58,-41.81,-26.76,-39.56,-31.87,-29.34,-50.71,-66.75,-26.22,-63.02,-54.5,-31.75,-18.47,-31.77,-22.81,0,0,0,0,0,0,0,0,0,0,0,0,0,0,0,0,
739,-68.59,-41.66,-59.89,-59.14,-40.34,-43.54,6.487,-25.86,-31.52,-26.23,-54.37,-34.67,-20.44,-27.06,-12.74,-14.56,0,0,0,0,0,0,0,0,0,0,0,0,0,0,0,0,
740,-39.07,-21.01,-62.1,-84.05,-50.46,-36.41,-7.038,-26.53,-53.96,-22.94,-49.09,-27.17,-32.22,-48.61,-29.49,-30.56,0,0,0,0,0,0,0,0,0,0,0,0,0,0,0,0,
741,-31.46,-35.03,-39.03,-58.32,-60.6,-30.09,-93.67,-52.12,-56.95,-37.01,-48.75,-30.31,-44.43,-43.71,-26.87,-25.58,0,0,0,0,0,0,0,0,0,0,0,0,0,0,0,0,
742,-31.85,-71.54,-41.58,-35.89,-43.34,-25.04,-83.4,-56.21,-15.36,-60.51,-34.05,-4.518,-16.38,-11.7,7.455,-0.5556,0,0,0,0,0,0,0,0,0,0,0,0,0,0,0,0,
743,-15.75,-59.13,-74.12,-52.66,-42.85,-30.49,-14.8,-66.63,-32.19,-61.41,-37.44,0.1468,-8.689,-7.807,-6.485,-12.89,0,0,0,0,0,0,0,0,0,0,0,0,0,0,0,0,
744,-16.5,-28.88,-82.71,-85.1,-57.66,-43.07,-41.24,-85.15,-63.86,-46.18,-37.73,-15.38,-25.51,-22.95,-23.16,-27.18,0,0,0,0,0,0,0,0,0,0,0,0,0,0,0,0,
745,-15.85,-25.01,-73.98,-88.96,-52.75,-47.88,-72.22,-54.63,-31.56,-34.06,-12.07,-3.968,-12.59,-26.18,2.873,-16.52,0,0,0,0,0,0,0,0,0,0,0,0,0,0,0,0,
746,-23.27,-24.21,-70.08,-72.78,-57.28,-60.02,-45.82,-23.36,-21.71,-34.11,-18.23,-9.244,-5.508,-25.66,-2.628,-20.73,0,0,0,0,0,0,0,0,0,0,0,0,0,0,0,0,
747,-58.36,-28.57,-64.25,-60.23,-76.09,-74.56,-50.64,-46.31,-67.75,-44.5,-42.18,-34.95,-19.79,-22.47,-25.01,-23.64,0,0,0,0,0,0,0,0,0,0,0,0,0,0,0,0,
748,-57.17,-39.12,-70.12,-47.1,-75.21,-65.27,-54.03,-64.73,-69.96,-53.27,-34.06,-28.78,-17.63,-27.78,-13.36,-16.36,0,0,0,0,0,0,0,0,0,0,0,0,0,0,0,0,
749,-25.05,-37.8,-79.8,-66.28,-60.12,-51.31,-41.17,-58.34,-26.17,-57.27,-31.5,-19.52,-18.55,-44.73,-17.81,-33.47,0,0,0,0,0,0,0,0,0,0,0,0,0,0,0,0,
750,-32.06,-43.86,-75.87,-97.91,-57.5,-59.66,-77.05,-61.27,-35.35,-58.64,-45.75,-35.27,-34.78,-47.35,-43.58,-53.74,0,0,0,0,0,0,0,0,0,0,0,0,0,0,0,0,
751,-61.82,-59.77,-77.51,-78.66,-65.86,-72.77,-79.48,-69.79,-89.22,-58.66,-50.71,-51.35,-41.89,-47.66,-45.42,-53.29,0,0,0,0,0,0,0,0,0,0,0,0,0,0,0,0,
752,-75.89,-55.54,-71.7,-55.64,-55.63,-62.96,-20.65,-72.36,-102.9,-55.15,-59.89,-61.57,-46.92,-59.88,-40.84,-53.38,0,0,0,0,0,0,0,0,0,0,0,0,0,0,0,0,
753,-65.67,-44.77,-47.83,-52.66,-39.41,-43.39,-24.63,-63.75,-94.03,-52.7,-73.21,-70.37,-61.98,-63.07,-53.81,-64.86,0,0,0,0,0,0,0,0,0,0,0,0,0,0,0,0,
754,-47.27,-61.94,-53.67,-50.07,-54.63,-47.24,-60.89,-57.33,-96.34,-66.18,-78.19,-78.09,-78.79,-63.08,-69.98,-77.36,0,0,0,0,0,0,0,0,0,0,0,0,0,0,0,0,
755,-51.55,-87.01,-77.48,-81.09,-63.14,-54.47,-55.65,-65.29,-60.27,-72.92,-79.13,-78.09,-84.6,-70.62,-68.55,-72.4,0,0,0,0,0,0,0,0,0,0,0,0,0,0,0,0,
756,-53.72,-80.75,-64.96,-86.71,-43.46,-40.52,-73.16,-60.09,-30.44,-60.81,-78.02,-68.15,-78.55,-78.31,-57.94,-65.33,0,0,0,0,0,0,0,0,0,0,0,0,0,0,0,0,
757,-46.69,-68.59,-49.74,-44.94,-51.87,-49.35,-101,-57.98,-81.18,-72.41,-81.41,-73.74,-80.14,-86.6,-70.95,-87.32,0,0,0,0,0,0,0,0,0,0,0,0,0,0,0,0,
758,-74.19,-86.47,-69.97,-60.09,-82.21,-89.12,-93.8,-87.51,-118.2,-89,-87.97,-96.14,-92.18,-88.91,-96.23,-107.3,0,0,0,0,0,0,0,0,0,0,0,0,0,0,0,0,
759,-107,-102.6,-93.02,-92.98,-90.17,-103.3,-93.73,-94.09,-104.2,-77.74,-87.92,-102.9,-93.08,-86.83,-96.29,-95.47,0,0,0,0,0,0,0,0,0,0,0,0,0,0,0,0,
760,-110.7,-95.42,-101.1,-94.69,-90.89,-92.84,-79.62,-75.22,-116,-82.84,-90.87,-95.64,-85.95,-94.64,-86.59,-85.22,0,0,0,0,0,0,0,0,0,0,0,0,0,0,0,0,
761,-104.8,-91.83,-106.1,-124.4,-99.13,-99.52,-61.33,-93.79,-120.7,-93.33,-109.8,-105.8,-98.65,-108.9,-101,-100.6,0,0,0,0,0,0,0,0,0,0,0,0,0,0,0,0,
762,-98.13,-104.6,-118.7,-135.9,-114.5,-125.4,-115.2,-120.2,-114.8,-88.34,-133,-135,-123.5,-118.1,-128.3,-119.2,0,0,0,0,0,0,0,0,0,0,0,0,0,0,0,0,
763,-125.4,-129.7,-145.3,-115.6,-137.9,-147.5,-158.1,-118.1,-146.1,-114.6,-134.1,-143.3,-119.7,-112.9,-132.7,-112.7,0,0,0,0,0,0,0,0,0,0,0,0,0,0,0,0,
764,-164.8,-141.8,-158,-118.8,-147.1,-147.4,-130.2,-120.1,-150.8,-124.7,-113.8,-119.5,-97.4,-99.74,-108.8,-93.63,0,0,0,0,0,0,0,0,0,0,0,0,0,0,0,0,
765,-134.5,-113.1,-132.9,-113.1,-132.9,-130.7,-114.1,-115.8,-129.3,-78.61,-92.38,-101.1,-93.17,-91.96,-85.17,-87.32,0,0,0,0,0,0,0,0,0,0,0,0,0,0,0,0,
766,-93.37,-83.24,-112.1,-118.4,-115.1,-119.5,-97.58,-92.79,-128.8,-79.31,-73.02,-95.98,-95.39,-84.67,-83.39,-85.72,0,0,0,0,0,0,0,0,0,0,0,0,0,0,0,0,
767,-105.1,-92.84,-124.6,-143.3,-102.5,-116.1,-88.58,-92.11,-100.2,-124.2,-67.92,-92.82,-98.66,-88.2,-97.84,-91.5,0,0,0,0,0,0,0,0,0,0,0,0,0,0,0,0,
768,-101,-107.8,-129.7,-119.7,-90.08,-108.9,-132.7,-105.2,-76.84,-102.3,-80.13,-95.12,-108.3,-104.6,-102.1,-104.6,0,0,0,0,0,0,0,0,0,0,0,0,0,0,0,0,
769,-80.91,-101.7,-111.4,-95.5,-81.39,-93.42,-122.8,-97.98,-89.02,-54.77,-81.88,-89.5,-104.7,-102.9,-90.88,-98.79,0,0,0,0,0,0,0,0,0,0,0,0,0,0,0,0,
770,-75.8,-96.65,-100.7,-93.92,-77.39,-75.48,-61.74,-91.35,-57.53,-66.25,-79.52,-78.18,-99.43,-91.75,-90.97,-89.37,0,0,0,0,0,0,0,0,0,0,0,0,0,0,0,0,
771,-57.09,-101,-95.44,-72.3,-67.04,-68.26,-73.93,-87.43,-34.18,-90.93,-80.91,-76.06,-99.54,-87.53,-92.16,-89.15,0,0,0,0,0,0,0,0,0,0,0,0,0,0,0,0,
772,-51.41,-95.29,-84.15,-86.05,-60.78,-68.44,-102.6,-63.52,-85.49,-75.26,-64.02,-66.58,-80.52,-70.33,-71.8,-72.29,0,0,0,0,0,0,0,0,0,0,0,0,0,0,0,0,
773,-69.07,-75.41,-80.21,-106.1,-67.72,-57.96,-80.15,-41.89,-105.8,-42.45,-46.51,-48.89,-59.64,-54.33,-52.89,-53.04,0,0,0,0,0,0,0,0,0,0,0,0,0,0,0,0,
774,-59.75,-55.88,-67.75,-59.74,-52.57,-36.49,-47.68,-34.42,-56.29,-29,-43.46,-35.03,-47.04,-49.05,-41.96,-45.03,0,0,0,0,0,0,0,0,0,0,0,0,0,0,0,0,
775,-34.98,-43.94,-37.29,-18.66,-16.31,-18.32,-34.97,-21.17,-15.19,-39.23,-30.32,-17.34,-23.39,-27.24,-25.49,-26.12,0,0,0,0,0,0,0,0,0,0,0,0,0,0,0,0,
776,-26.96,-41.76,-22.61,-1.144,-2.887,-12.98,-45.72,-15.54,-12.16,-33.5,-7.545,-3.404,-5.457,-8.51,-9.39,-3.425,0,0,0,0,0,0,0,0,0,0,0,0,0,0,0,0,
777,-28.84,-36.33,-21.65,5.488,-4.88,-17.93,-24.38,-27.31,-37.74,-4.363,4.6,-1.498,-3.642,-12.84,2.386,4.021,0,0,0,0,0,0,0,0,0,0,0,0,0,0,0,0,
778,-30.32,-19.18,-14.54,-34.34,-6.279,-17.42,13,-22.86,-62.98,-7.849,-3.737,-5.192,-9.375,-10.34,-4.872,-4.638,0,0,0,0,0,0,0,0,0,0,0,0,0,0,0,0,
779,-22.16,-20,-12.22,-31.23,-7.902,-4.235,-19.85,6.758,-33.9,-15.91,-14.15,-9.681,-18.76,-7.265,-20.63,-13.94,0,0,0,0,0,0,0,0,0,0,0,0,0,0,0,0,
780,-12.18,-27.3,-4.314,33.09,4.226,6.403,-34.87,25.76,34.85,22.87,2.607,-1.635,-10.66,-19.02,-1.028,-1.242,0,0,0,0,0,0,0,0,0,0,0,0,0,0,0,0,
781,-13.57,-1.929,11.6,30.16,11.37,1.315,12.9,17.27,39.22,26.4,16.71,8.227,0.4362,-14.44,20.9,13.49,0,0,0,0,0,0,0,0,0,0,0,0,0,0,0,0,
782,-14.56,11.53,11.11,5.675,2.985,-7.799,8.851,5.535,-15.71,-10.08,4.772,-2.946,-16.62,3.406,2.869,6.91,0,0,0,0,0,0,0,0,0,0,0,0,0,0,0,0,
783,-9.744,-5.422,4.457,27.52,7.602,-2.058,-7.403,12.52,-9.198,10.53,12.76,-6.779,-24.28,7.471,-2.809,9.21,0,0,0,0,0,0,0,0,0,0,0,0,0,0,0,0,
784,-5.188,4.5,0.95,21.01,16.24,11.21,20.91,29.42,25.72,33.78,39.39,11.2,-3.593,12.81,18.8,25.95,0,0,0,0,0,0,0,0,0,0,0,0,0,0,0,0,
785,5.347,26.82,5.82,18.17,26.84,19.85,24.89,42.03,33.24,18.76,44.14,20.43,5.964,24.31,25.61,28.48,0,0,0,0,0,0,0,0,0,0,0,0,0,0,0,0,
786,22.77,31.79,35.34,56.71,50.7,31.97,23.65,49.01,80.98,37.3,48.12,30.33,9.896,34.05,29.48,27.23,0,0,0,0,0,0,0,0,0,0,0,0,0,0,0,0,
787,33.13,45.07,47.16,61.11,49.24,38.61,40.18,51.52,84.55,55.44,60.69,50.07,26.11,44.1,38.17,34.18,0,0,0,0,0,0,0,0,0,0,0,0,0,0,0,0,
788,28.48,55.53,30.41,54.3,30.86,29.91,43,54.21,5.922,46.31,50.36,43.53,28.93,35.32,29.72,35.08,0,0,0,0,0,0,0,0,0,0,0,0,0,0,0,0,
789,19.53,50.72,48.87,69.78,42.78,32.95,54.64,60.64,26.86,57.51,34.94,27.95,25.99,26.05,28.69,37.72,0,0,0,0,0,0,0,0,0,0,0,0,0,0,0,0,
790,24.71,51.18,71.45,57.62,55.52,48.68,55.89,62.51,78,55.46,49.82,49.67,47.94,54.41,53.96,54.63,0,0,0,0,0,0,0,0,0,0,0,0,0,0,0,0,
791,44.52,57.45,51.83,51.07,50.09,52.71,35.53,59.15,30.97,44.62,69.61,73.77,68.41,72.44,62.83,66.12,0,0,0,0,0,0,0,0,0,0,0,0,0,0,0,0,
792,57.97,69.21,50.21,71.23,56.06,59.02,56.43,60.9,41.57,70.4,61.71,62.97,60.45,50.12,38.98,56.34,0,0,0,0,0,0,0,0,0,0,0,0,0,0,0,0,
793,58.86,77.85,69.73,65.86,63.78,68.98,84.26,65.9,82.54,83.67,52.65,55.13,53.38,39.73,29.75,44.63,0,0,0,0,0,0,0,0,0,0,0,0,0,0,0,0,
794,60.44,73.67,67.05,71.74,65.07,65.56,67.03,70.93,40.58,73.26,66.08,67.99,63.32,48.71,50.77,50.04,0,0,0,0,0,0,0,0,0,0,0,0,0,0,0,0,
795,63.65,81.56,64.35,94.72,74.65,73.2,73.57,78.32,52.83,65.56,73.64,74.51,70.64,57.04,63.36,59.89,0,0,0,0,0,0,0,0,0,0,0,0,0,0,0,0,
796,75.47,89.13,64.83,65.21,80.9,91.75,108.6,77.24,98.96,46.94,67.61,72.25,69.1,68.69,57.56,58.58,0,0,0,0,0,0,0,0,0,0,0,0,0,0,0,0,
797,95.54,66.9,60.91,52.77,80.59,84.66,90,70.83,72.78,49.84,73.7,70.17,65.89,65.49,55.66,54.25,0,0,0,0,0,0,0,0,0,0,0,0,0,0,0,0,
798,91.09,59.41,73.85,103,84.09,74.14,48.88,84.52,78.55,72.3,82.37,67.5,66.12,49.73,61.89,57.77,0,0,0,0,0,0,0,0,0,0,0,0,0,0,0,0,
799,75.86,83.22,85.81,103.3,83.97,88.61,68.67,102.9,101.1,69.16,76.5,69.69,69.53,50.46,69.51,65.23,0,0,0,0,0,0,0,0,0,0,0,0,0,0,0,0,
800,81.77,79.88,74.82,66.41,81.69,92.58,104.6,90.16,68.59,74.16,73.76,73.64,67.84,57.42,72.82,66.61,0,0,0,0,0,0,0,0,0,0,0,0,0,0,0,0,
801,77.84,53.19,58.78,65.32,78.13,74.03,78.9,65.63,79.13,83.74,85.77,75.73,64.49,61.91,75.93,67.63,0,0,0,0,0,0,0,0,0,0,0,0,0,0,0,0,
802,65.49,51.94,58.18,51.36,70.16,63.47,41.6,55.52,115.2,64.66,93.32,80.1,67.38,74.41,88.27,84.69,0,0,0,0,0,0,0,0,0,0,0,0,0,0,0,0,
803,68.93,58.07,70.97,43.25,76.12,61.6,48.98,44.86,93.96,62.53,77.92,75.75,65.66,78,88.83,96.06,0,0,0,0,0,0,0,0,0,0,0,0,0,0,0,0,
804,65.67,47.02,72.98,67.03,84.71,64.71,51.45,43,78.27,65.81,64.97,66.68,58.88,64.46,69.61,75.43,0,0,0,0,0,0,0,0,0,0,0,0,0,0,0,0,
805,69.6,47.44,70.62,66.73,72.15,78.55,38.26,76.8,81.97,46.77,79.7,70.09,59.46,51.85,66.31,60.64,0,0,0,0,0,0,0,0,0,0,0,0,0,0,0,0,
806,74.68,65.85,75.69,79.11,65.05,71.67,43.35,104.4,67.19,56.85,78.7,63.95,57.74,43.71,71.21,71.3,0,0,0,0,0,0,0,0,0,0,0,0,0,0,0,0,
807,42,69.24,59.03,97.94,66.04,41.95,43.46,74.69,63.61,71.01,46.8,44.46,50.02,42.07,55.62,69.26,0,0,0,0,0,0,0,0,0,0,0,0,0,0,0,0,
808,30.21,54.44,46.25,56.7,54.8,43.28,59.37,36.5,58.34,51.74,41.89,46.44,50.68,49.51,47.06,58.95,0,0,0,0,0,0,0,0,0,0,0,0,0,0,0,0,
809,49.73,43.28,64.48,34.31,54.27,60.63,102.3,47.31,39.39,52.96,57.21,55.25,52.87,53.7,55.4,62.08,0,0,0,0,0,0,0,0,0,0,0,0,0,0,0,0,
810,32.38,40.96,62.6,57.4,61.85,49.81,79.5,71.64,54.89,66.58,47.19,49.06,49.84,55.44,52.85,58.89,0,0,0,0,0,0,0,0,0,0,0,0,0,0,0,0,
811,30.14,53.82,63.37,69.65,61.85,50.83,34.75,78.7,72.43,63.4,36.9,49.84,49.76,48.24,40.71,44.01,0,0,0,0,0,0,0,0,0,0,0,0,0,0,0,0,
812,59.41,76.84,96.48,92.38,68.96,72.03,73.1,84.82,43.89,73.1,44.76,52.64,45.94,22.75,34.41,33.82,0,0,0,0,0,0,0,0,0,0,0,0,0,0,0,0,
813,42.6,74.02,87.41,94.02,60.8,61.34,86.91,80.29,31.7,71.46,43.35,45.09,40.98,20.83,38.96,36.08,0,0,0,0,0,0,0,0,0,0,0,0,0,0,0,0,
814,31,49.86,54.12,70.75,37.82,44.06,46.98,58.34,59.06,44.83,27.5,42.52,44.37,45.97,38.38,39.9,0,0,0,0,0,0,0,0,0,0,0,0,0,0,0,0,
815,58.44,45.23,56.88,68.77,42.5,49.61,73.79,44.71,57.8,48.83,16.33,38.76,40.53,40.84,21.68,30.35,0,0,0,0,0,0,0,0,0,0,0,0,0,0,0,0,
816,45.3,50.56,54.05,41.85,50.76,40.61,90.39,48.62,22.5,65.56,22.93,30.62,32.69,29.15,25.61,31.55,0,0,0,0,0,0,0,0,0,0,0,0,0,0,0,0,
817,19.6,46.57,54.16,49.2,49.38,32.26,37.46,63.28,13.11,48.44,40.31,38.16,39.79,45.87,50.73,51.1,0,0,0,0,0,0,0,0,0,0,0,0,0,0,0,0,
818,31.3,48.84,75.77,118.9,63.08,51.4,44.55,75.56,44.48,39.88,49.34,51.74,46.82,42.63,47.15,49.03,0,0,0,0,0,0,0,0,0,0,0,0,0,0,0,0,
819,34.07,54.47,64.95,90.62,56.84,55.19,79.19,68.33,74.61,57.54,41.07,47.48,42.69,21.52,32.72,35.64,0,0,0,0,0,0,0,0,0,0,0,0,0,0,0,0,
820,34.34,47.79,49,35.99,34.82,40.36,35.17,54.12,68.36,57.4,24.18,33.93,37.53,26.03,37.88,37.35,0,0,0,0,0,0,0,0,0,0,0,0,0,0,0,0,
821,46.74,35.35,66.11,79.49,46.45,42.3,4.178,55.53,35.73,50.86,25.79,36.23,36.64,38.53,40.09,37.73,0,0,0,0,0,0,0,0,0,0,0,0,0,0,0,0,
822,36.26,36.47,70.44,84.9,57.86,49.41,45.85,63.9,18.7,52.83,48.12,53.05,46.65,43.19,41.89,43.38,0,0,0,0,0,0,0,0,0,0,0,0,0,0,0,0,
823,36.4,55.19,64.81,58.27,51.62,53.69,77.5,61.86,47.32,37.55,49.49,55.82,53.88,42.01,45.73,48.96,0,0,0,0,0,0,0,0,0,0,0,0,0,0,0,0,
824,60.85,64.48,70.73,82.81,66.99,60.24,70.55,60.66,82.66,38.97,34.31,44.83,40.48,30.43,38.6,31.69,0,0,0,0,0,0,0,0,0,0,0,0,0,0,0,0,
825,50.58,57.9,73.26,92.96,86.56,60.26,58.42,79.66,70.86,71.57,47.89,49.19,34.64,33.31,46.99,29.17,0,0,0,0,0,0,0,0,0,0,0,0,0,0,0,0,
826,39.42,57.72,88.8,106,90.92,67.78,57.32,92.5,48.47,68.99,70.27,62.37,47.13,56.2,63.99,49.34,0,0,0,0,0,0,0,0,0,0,0,0,0,0,0,0,
827,67.84,52.69,113.1,115.4,103.3,86.82,79.15,77.88,60.46,43.12,68.32,62.56,46.85,57.42,54.12,47.15,0,0,0,0,0,0,0,0,0,0,0,0,0,0,0,0,
828,74.39,46.8,122,86.66,123.4,97.32,112.6,88.57,83.56,47.28,65.89,61.71,44.66,36.71,50.57,41.8,0,0,0,0,0,0,0,0,0,0,0,0,0,0,0,0,
829,74.58,76,152.2,129.2,151,115.6,131.1,134.6,103.7,62.2,74.78,73.9,63.62,42.39,72.38,59.63,0,0,0,0,0,0,0,0,0,0,0,0,0,0,0,0,
830,113.7,105.4,216.2,219.9,192.8,151.8,148.3,143.3,124.3,77.04,83.78,91.46,82.77,77.87,83.45,75.35,0,0,0,0,0,0,0,0,0,0,0,0,0,0,0,0,
831,126.8,96.65,257.3,244.6,218.8,170.7,181.8,129.9,135.8,86.63,93.17,101.9,94.06,95.12,85.22,83.44,0,0,0,0,0,0,0,0,0,0,0,0,0,0,0,0,
832,110.4,102.7,259.5,251.3,212.2,160.8,199.3,160.4,118.3,82.81,92.57,95.44,102.8,83.47,84.07,82.71,0,0,0,0,0,0,0,0,0,0,0,0,0,0,0,0,
833,117.4,132.5,268.6,263.1,208.5,150,183.4,187.3,85.2,95.1,81.89,81.36,95.91,77.49,68.79,68.46,0,0,0,0,0,0,0,0,0,0,0,0,0,0,0,0,
834,112.4,126.2,301.7,267.7,231.6,156.9,170.5,171.1,107.9,102.3,81.56,81.43,84.5,82.33,62.2,67.09,0,0,0,0,0,0,0,0,0,0,0,0,0,0,0,0,
835,100.4,102.1,328.8,303.8,258.1,169.7,165.7,169.6,154.3,71.71,86.5,89.12,89.19,84.27,69.28,77.3,0,0,0,0,0,0,0,0,0,0,0,0,0,0,0,0,
836,115.6,104.6,337.5,339.2,260.8,168,145.3,184.2,130.9,50.33,87.44,87.73,95.67,86.04,70.74,75.03,0,0,0,0,0,0,0,0,0,0,0,0,0,0,0,0,
837,114.8,109.2,340.2,339.4,242.8,162.6,153.3,170.7,108.7,63.74,90.92,85.75,90,80.04,74.47,73.67,0,0,0,0,0,0,0,0,0,0,0,0,0,0,0,0,
838,104.5,103.2,335.6,315.6,228,164.6,199.3,153.2,119.6,87.88,86.75,84.18,77.13,66.16,72.38,74.11,0,0,0,0,0,0,0,0,0,0,0,0,0,0,0,0,
839,114.4,103.2,325.6,277.6,227.9,157.9,192.3,152.4,99.64,96.3,77.3,79.91,69.9,66.1,63.46,66.57,0,0,0,0,0,0,0,0,0,0,0,0,0,0,0,0,
840,113.1,108.5,314.6,272.7,226.1,149.8,144.8,155.7,117.5,76.24,81.6,88.32,79.9,74.99,78.44,70.98,0,0,0,0,0,0,0,0,0,0,0,0,0,0,0,0,
841,107.9,109.1,286.9,284.6,211.3,144.5,136.7,156.4,146.7,61.33,79.05,91.62,82.98,70.32,83.79,71.5,0,0,0,0,0,0,0,0,0,0,0,0,0,0,0,0,
842,98.26,85.94,242.6,244.6,184.5,117.9,121.1,136.5,82.96,55.38,56.88,66.79,59.94,51.17,49.13,47.05,0,0,0,0,0,0,0,0,0,0,0,0,0,0,0,0,
843,62.75,59.59,205.5,197,142.6,90.99,86.26,106.1,49.86,33.6,45.22,50.42,43.5,27.72,36.65,35.84,0,0,0,0,0,0,0,0,0,0,0,0,0,0,0,0,
844,59.2,72.51,180,177.5,110.3,93.49,93.88,87.92,85,35.8,42.15,56.86,41.22,15.51,52.92,41.2,0,0,0,0,0,0,0,0,0,0,0,0,0,0,0,0,
845,84.08,79.9,165.5,152.8,112.8,92.89,100.9,68.84,60.96,48.33,38.27,58.26,36.27,26.44,48.78,37.61,0,0,0,0,0,0,0,0,0,0,0,0,0,0,0,0,
846,61.17,46.38,154,140.4,106.6,69.07,78.12,62.33,31.19,16.93,51.2,58.45,44.85,43.3,46.39,43.47,0,0,0,0,0,0,0,0,0,0,0,0,0,0,0,0,
847,35.63,31.83,114.2,120.3,63.29,44.38,65.18,62.9,45.93,5.927,44.76,48.24,50.49,36.91,43.45,41.8,0,0,0,0,0,0,0,0,0,0,0,0,0,0,0,0,
848,48.17,46.82,65.09,63.69,33.09,34.26,51.53,33.17,41.45,32.48,0.9707,18.26,34.16,15.67,14.18,16.89,0,0,0,0,0,0,0,0,0,0,0,0,0,0,0,0,
849,36.9,55,59.57,43.28,35.58,38.26,46.75,26.24,41.75,19.32,-5.269,15.18,39.85,15.36,13.42,25.55,0,0,0,0,0,0,0,0,0,0,0,0,0,0,0,0,
850,20.37,63.04,66.35,49.21,32,37.76,64.25,58.55,36.39,4.78,22.16,30.98,54.92,27.61,37.28,49.11,0,0,0,0,0,0,0,0,0,0,0,0,0,0,0,0,
851,37.38,59.35,39.41,15.32,12.76,19.65,49.73,44.94,-19.91,25.95,11.2,13.52,30.62,17.65,17.63,21.17,0,0,0,0,0,0,0,0,0,0,0,0,0,0,0,0,
852,27.87,34.32,11.91,5.658,-3.594,6.538,11.08,5.771,-34.38,22.22,-2.829,-1.113,11.99,3.323,-3.714,-4.985,0,0,0,0,0,0,0,0,0,0,0,0,0,0,0,0,
853,-0.4532,24.42,-4.303,22.27,-11.27,10.82,14.14,-1.178,21.87,0.2788,8.652,11.89,20.81,3.474,8.279,7.951,0,0,0,0,0,0,0,0,0,0,0,0,0,0,0,0,
854,10.04,26.05,-30.57,-13.88,-18.23,4.767,39.01,-12.9,21.52,-14.33,-2.046,2.731,7.87,-7.523,-0.0273,0.2575,0,0,0,0,0,0,0,0,0,0,0,0,0,0,0,0,
855,4.913,8.143,-43.57,-46.93,-38.04,-23.79,27.05,-34.43,-34.82,-28.89,-18.95,-22.15,-12.86,-20.68,-18.72,-21.98,0,0,0,0,0,0,0,0,0,0,0,0,0,0,0,0,
856,-32.31,-10.91,-35.54,-51.2,-60.58,-44.25,-2.549,-41.42,-42.28,-19.31,-20.84,-28,-14.51,-14.82,-22.9,-23.78,0,0,0,0,0,0,0,0,0,0,0,0,0,0,0,0,
857,-30.34,-14.95,-44.68,-91.24,-68.1,-45.78,-14.69,-50.25,-40.54,-10.88,-44.41,-37.58,-24.06,-20.54,-43.76,-33.13,0,0,0,0,0,0,0,0,0,0,0,0,0,0,0,0,
858,-23.41,-20.24,-81.05,-113.2,-85.14,-53.2,-44.28,-58.67,-70.29,-29.84,-67.69,-54.14,-40.87,-43.61,-57.3,-43.62,0,0,0,0,0,0,0,0,0,0,0,0,0,0,0,0,
