%OpenBCI Raw EXG Data
%Number of channels = 16
%Sample Rate = 125 Hz
%Board = OpenBCI_GUI$BoardCytonSerialDaisy
Sample Index,EXG Channel 0,EXG Channel 1,EXG Channel 2,EXG Channel 3,EXG Channel 4,EXG Channel 5,EXG Channel 6,EXG Channel 7,EXG Channel 8,EXG Channel 9,EXG Channel 10,EXG Channel 11,EXG Channel 12,EXG Channel 13,EXG Channel 14,EXG Channel 15,Accel Channel 0,Accel Channel 1,Accel Channel 2,Other,Other,Other,Other,Other,Other,Other,Analog Channel 0,Analog Channel 1,Analog Channel 2,Timestamp,Other,Timestamp (Formatted),Annotations
1,0,0,0,0,0,-0,0,0,0,0,0,-0,0,-0,0,-0,0,0,0,0,0,0,0,0,0,0,0,0,0,0,0,0,T0
2,72.51,54.98,-34.46,-40.82,-75.41,-75.34,-118.8,-84.06,-129.3,-122.8,-142.5,-175.4,-203.6,-220.5,-30.66,-56.53,0,0,0,0,0,0,0,0,0,0,0,0,0,0,0,0,
3,29.85,3.139,-24.58,-34.96,-43.27,-12.26,-50.81,-28.17,-57.13,-5.954,-63.04,-82.67,-85.06,-92.52,-11.63,-60.81,0,0,0,0,0,0,0,0,0,0,0,0,0,0,0,0,
4,79.75,52.3,21.74,-40.49,7.978,29.86,-9.464,-22.53,-23.32,13.68,-13.63,-48.52,-25.92,-24.85,35.84,-12.39,0,0,0,0,0,0,0,0,0,0,0,0,0,0,0,0,
5,96.23,83.24,-10.05,-82.21,-30.99,-23.09,-78.72,-88.58,-76.69,-100.7,-51.97,-102.4,-69.59,-68.5,66.65,48.86,0,0,0,0,0,0,0,0,0,0,0,0,0,0,0,0,
6,27.54,35.9,-38.59,-66.6,-52.34,-36.11,-96.82,-91.69,-47.24,-67.59,-31.67,-59.76,-23.39,-21.29,76.77,87.82,0,0,0,0,0,0,0,0,0,0,0,0,0,0,0,0,
7,50.63,57.54,-6.064,-61.16,-20.35,-22.33,-87.45,-113.2,-32.02,-26.51,-32.86,-57.53,-47.36,-49.42,65.95,82.96,0,0,0,0,0,0,0,0,0,0,0,0,0,0,0,0,
8,61.45,33.31,-39.56,-121.4,-34.45,-30.54,-103.6,-136.1,-85.81,-108,-63.67,-85.84,-104.6,-113.4,36.72,49.4,0,0,0,0,0,0,0,0,0,0,0,0,0,0,0,0,
9,43.75,-19.43,-71.82,-101,-57.13,-14.63,-98.25,-76.92,-87.41,-142.8,-46.43,-45.49,-70.29,-81.38,26.99,36.72,0,0,0,0,0,0,0,0,0,0,0,0,0,0,0,0,
10,74.14,18.66,-39.87,-70.29,-53.35,-14.13,-94.33,-80.84,-52.25,-109.7,-33.02,-31.74,-50.3,-60.07,56.38,61.95,0,0,0,0,0,0,0,0,0,0,0,0,0,0,0,0,
11,73.32,48.5,-38.79,-133,-53.04,-28.64,-85.15,-143.1,-51.78,-83.75,-48.33,-59.78,-53.08,-65.94,84.68,88.05,0,0,0,0,0,0,0,0,0,0,0,0,0,0,0,0,
12,51.56,38.6,-69.37,-150.5,-54.42,-17.2,-75.43,-117.3,-89.92,-82.63,-86.87,-98.13,-59.02,-77.37,60.06,68.62,0,0,0,0,0,0,0,0,0,0,0,0,0,0,0,0,
13,32.96,31.26,-85.36,-120.1,-57.42,-20.85,-98.2,-69.9,-95.56,-87.07,-107.9,-120.7,-79.63,-94.73,6.476,16.16,0,0,0,0,0,0,0,0,0,0,0,0,0,0,0,0,
14,11.96,25.49,-77.82,-129.1,-55,-47.54,-109.4,-97.47,-50.99,-62.68,-73.97,-99.16,-83.28,-95.92,-12.19,-16.82,0,0,0,0,0,0,0,0,0,0,0,0,0,0,0,0,
15,4.806,-0.7571,-93.24,-152.1,-68.47,-85.61,-132.6,-168.8,-87.04,-75.37,-64.99,-99.37,-98.44,-107.4,-1.118,-18.68,0,0,0,0,0,0,0,0,0,0,0,0,0,0,0,0,
16,-1.944,-43.67,-125.7,-168.1,-77.33,-92.7,-168.9,-185.1,-143.9,-111.2,-72.41,-102.6,-97.54,-88.81,18.67,6.479,0,0,0,0,0,0,0,0,0,0,0,0,0,0,0,0,
17,6.642,-37.6,-110.6,-180.2,-62.42,-58.72,-160.6,-148,-98.16,-88.77,-63.28,-91.99,-78.13,-63.38,35.72,34.86,0,0,0,0,0,0,0,0,0,0,0,0,0,0,0,0,
18,-5.204,-25.63,-118,-191.8,-106.1,-63.9,-159.3,-164.3,-91.76,-99.4,-92.07,-126.4,-104.3,-100.6,14.41,17.43,0,0,0,0,0,0,0,0,0,0,0,0,0,0,0,0,
19,-30.98,-47.75,-140.1,-171.8,-137.5,-61.85,-157.5,-176.1,-134.5,-154.8,-106.3,-136.1,-115.5,-111.7,-20.74,-21.16,0,0,0,0,0,0,0,0,0,0,0,0,0,0,0,0,
20,-12.68,-36.93,-100.1,-129.5,-77.67,-40.57,-130.6,-135.3,-116.1,-154.6,-101.7,-118.4,-101.4,-95.03,-26.32,-33.74,0,0,0,0,0,0,0,0,0,0,0,0,0,0,0,0,
21,-18.45,-18.04,-88.94,-127.8,-59.18,-75.45,-130.8,-136.9,-106.9,-123.4,-109.4,-115.9,-93.13,-93.82,-12.83,-22.43,0,0,0,0,0,0,0,0,0,0,0,0,0,0,0,0,
22,-20.64,-11.45,-109.8,-147.7,-95.01,-76.1,-141.4,-170.3,-126.3,-113.7,-75.9,-80.68,-64.44,-67.6,13.36,7.918,0,0,0,0,0,0,0,0,0,0,0,0,0,0,0,0,
23,19,-8.951,-106.7,-168.4,-114.3,-47.72,-154.3,-180.3,-124.7,-122.5,-65.75,-74.59,-59.84,-58.82,27.58,28.42,0,0,0,0,0,0,0,0,0,0,0,0,0,0,0,0,
24,11.61,-11.26,-104.6,-161.2,-105.9,-68.07,-137.1,-140.4,-100.6,-90.42,-79.98,-91.87,-58.29,-54.95,16.56,27.38,0,0,0,0,0,0,0,0,0,0,0,0,0,0,0,0,
25,9.935,13.91,-93.17,-113.4,-57.55,-72.68,-97.42,-109.1,-84.35,-47.33,-54.59,-72.53,-51.75,-48.68,14.35,31.07,0,0,0,0,0,0,0,0,0,0,0,0,0,0,0,0,
26,23.29,-9.645,-105.6,-122.8,-46.24,-79.77,-142.5,-170.2,-104.6,-109.7,-60.63,-84.7,-87.69,-84.29,18.59,25.96,0,0,0,0,0,0,0,0,0,0,0,0,0,0,0,0,
27,-5.449,-57.75,-121.8,-155.9,-77.79,-94.12,-173.3,-186.9,-94.78,-161.7,-63.12,-90.82,-74.49,-72.76,23.06,14.27,0,0,0,0,0,0,0,0,0,0,0,0,0,0,0,0,
28,-13.52,-17.62,-107.8,-149.5,-91.9,-92.89,-136.9,-151,-75.28,-105.7,-48.75,-78.75,-40.13,-41.12,28.72,14.64,0,0,0,0,0,0,0,0,0,0,0,0,0,0,0,0,
29,-29.25,-2.853,-138,-164.3,-114.6,-123.2,-160.1,-188.2,-109.8,-86.09,-78.33,-102.5,-57.29,-55.67,14.5,14.34,0,0,0,0,0,0,0,0,0,0,0,0,0,0,0,0,
30,-42.83,-23.09,-140.2,-146.9,-102,-105.9,-151.8,-158.7,-103,-108.5,-63.36,-91.77,-43.65,-44.29,4.549,24,0,0,0,0,0,0,0,0,0,0,0,0,0,0,0,0,
31,-1.855,-1.058,-93.02,-113.8,-70,-51.84,-95.69,-92.32,-80.41,-97.11,-41.52,-82.43,-52.07,-61.95,9.952,28.7,0,0,0,0,0,0,0,0,0,0,0,0,0,0,0,0,
32,9.228,-18.87,-110.4,-140.5,-86.88,-59.88,-112.4,-135.4,-99.01,-95.37,-80.22,-105.6,-92.21,-101.7,4.284,2.292,0,0,0,0,0,0,0,0,0,0,0,0,0,0,0,0,
33,17.4,-26.22,-104,-127.5,-77.96,-47.92,-116.1,-145.9,-63.25,-113.7,-79.61,-81.05,-68.49,-75.77,6.037,-10.1,0,0,0,0,0,0,0,0,0,0,0,0,0,0,0,0,
34,44.95,7,-56.69,-92.42,-52.82,-23.93,-90.97,-114.3,-28.53,-111.2,-66.1,-62.17,-54.62,-67.74,19.79,5.849,0,0,0,0,0,0,0,0,0,0,0,0,0,0,0,0,
35,20.04,-2.797,-74.21,-106.9,-56.28,-51.81,-100.8,-125.3,-75.74,-87.55,-76.47,-73.03,-63.21,-75.95,23.63,15.74,0,0,0,0,0,0,0,0,0,0,0,0,0,0,0,0,
36,-4.53,-5.643,-95.29,-113,-48.3,-73.3,-110.5,-123.1,-119.7,-98.96,-69.64,-73.72,-46.65,-53.37,22.84,20.27,0,0,0,0,0,0,0,0,0,0,0,0,0,0,0,0,
37,-10,0.3862,-89.46,-106.8,-51.53,-76.65,-119.3,-132.3,-98.26,-115.3,-67.83,-78.43,-41.05,-50.85,22.26,26.03,0,0,0,0,0,0,0,0,0,0,0,0,0,0,0,0,
38,-2.003,-6.479,-99.43,-91.22,-60.9,-54.31,-113.4,-146.1,-48.54,-65.32,-59.54,-73.8,-38.18,-52.31,21.15,25.3,0,0,0,0,0,0,0,0,0,0,0,0,0,0,0,0,
39,34.87,9.827,-110.9,-83.41,-65.5,-24.61,-96.52,-126.7,-55.78,-56.06,-50.75,-77.75,-44.34,-48.36,16.81,18.88,0,0,0,0,0,0,0,0,0,0,0,0,0,0,0,0,
40,32.51,10.05,-93.51,-102.3,-69.88,-34.74,-96.75,-117.4,-89.74,-118.3,-55.34,-80.27,-47.82,-45.51,17.49,24.6,0,0,0,0,0,0,0,0,0,0,0,0,0,0,0,0,
41,16.22,7.327,-62.58,-95.04,-34.12,-34.95,-86.83,-119.5,-76.73,-109.8,-39.36,-51.7,-19.17,-32.82,39.27,43.44,0,0,0,0,0,0,0,0,0,0,0,0,0,0,0,0,
42,29.22,22.76,-79.61,-85.82,-21.67,-17.17,-87.23,-128.3,-55.39,-44.37,-14.79,-38.59,-0.8707,-25.29,66.31,49.67,0,0,0,0,0,0,0,0,0,0,0,0,0,0,0,0,
43,26.69,14.09,-101.3,-86.54,-56.88,-23.7,-105.1,-134.8,-27.2,-35.13,9.306,-31.11,-1.479,-17.91,81.61,48.9,0,0,0,0,0,0,0,0,0,0,0,0,0,0,0,0,
44,19.38,-9.382,-88.75,-80.96,-53.94,-45.99,-108.7,-122.7,-24.19,-89.53,2.662,-32.12,-24.15,-35,77.78,50.61,0,0,0,0,0,0,0,0,0,0,0,0,0,0,0,0,
45,22.66,-22.47,-96.82,-92.52,-37.41,-45.09,-98.42,-111,-66.14,-110.2,-34.89,-57.33,-49.22,-60.18,52.14,41.25,0,0,0,0,0,0,0,0,0,0,0,0,0,0,0,0,
46,43.33,-1.471,-88.55,-64.89,-50.51,-6.627,-75.38,-102.6,-39.4,-72.66,-26.04,-53.02,-40.64,-55.38,34.09,24.27,0,0,0,0,0,0,0,0,0,0,0,0,0,0,0,0,
47,58.64,18.86,-76.41,-37.9,-66.13,-6.968,-74.05,-104.5,0.1865,-67.75,-3.477,-43.29,-42.17,-62.82,39.16,5.319,0,0,0,0,0,0,0,0,0,0,0,0,0,0,0,0,
48,42.17,15.42,-83.7,-66.56,-44.27,-35.03,-67.69,-79.62,-27.03,-57.54,2.637,-36.2,-21.91,-41.11,57.56,9.451,0,0,0,0,0,0,0,0,0,0,0,0,0,0,0,0,
49,53.42,54.37,-42.21,-50.93,-3.932,-15.7,-32.76,-47.06,-18.63,-33.68,15.58,-17.9,23.49,10.44,75.21,53.18,0,0,0,0,0,0,0,0,0,0,0,0,0,0,0,0,
50,72.57,77.26,-33.66,-31.28,-6.771,-0.3307,-51.4,-100.3,20.78,-64.6,13.69,-21.06,20.22,14.97,76.26,89.55,0,0,0,0,0,0,0,0,0,0,0,0,0,0,0,0,
51,83.45,51.35,-63.28,-56.58,2.32,18.45,-78.33,-138,35.66,-54.45,30.66,-4.416,21.89,19.3,78.53,96.01,0,0,0,0,0,0,0,0,0,0,0,0,0,0,0,0,
52,116.4,51.07,-29.17,-58.1,19.98,37.17,-70.08,-106.8,18.89,-43.6,26.53,-4.435,12.95,3.367,80.93,84.75,0,0,0,0,0,0,0,0,0,0,0,0,0,0,0,0,
53,92.49,32.1,-14.85,-55.68,-13.77,10.08,-80.32,-103.9,0.0017,-86.23,-17.46,-40.31,-22.17,-31.78,66.98,65.89,0,0,0,0,0,0,0,0,0,0,0,0,0,0,0,0,
54,73.47,26.16,-28.51,-38.95,1.845,37.14,-60.12,-85.99,37.88,-26.91,12.06,-12.17,1.982,-3.08,74.68,68.21,0,0,0,0,0,0,0,0,0,0,0,0,0,0,0,0,
55,116.7,58.05,-26.17,-16.25,24.33,64.33,-50.75,-78.79,33.88,5.637,27.94,-1.956,-5.059,-7.447,94.17,72.24,0,0,0,0,0,0,0,0,0,0,0,0,0,0,0,0,
56,84.44,17.66,-44.41,-31.28,-17.58,-4.803,-102,-120.8,-22.95,-92.26,-14.26,-34.44,-52.2,-43.99,88.22,54.69,0,0,0,0,0,0,0,0,0,0,0,0,0,0,0,0,
57,40.8,-22.37,-45.66,-40.72,-3.995,-32.54,-116.8,-120.9,0.7933,-94.14,15.86,-1.369,-29.75,-21.56,95.26,55.33,0,0,0,0,0,0,0,0,0,0,0,0,0,0,0,0,
58,56.26,-3.561,-60.96,-64.31,-3.203,-19.7,-114.7,-125.8,20.32,-26.3,28.86,11.04,-11.82,-17.72,112.7,70.48,0,0,0,0,0,0,0,0,0,0,0,0,0,0,0,0,
59,40.7,5.902,-81.22,-76.16,-43.64,-24,-109.6,-125.6,-9.905,-23.85,-19.1,-15.04,-7.911,-16.35,92.99,72.55,0,0,0,0,0,0,0,0,0,0,0,0,0,0,0,0,
60,55.1,35.68,-38.17,-36.68,0.3002,8.312,-70.32,-66.36,-24.99,-52.45,-26.47,-11.65,6.948,-4.274,45.44,65.18,0,0,0,0,0,0,0,0,0,0,0,0,0,0,0,0,
61,97.65,48.54,-33.91,-29.77,17.99,25.23,-68.18,-68.18,-59.52,-83.79,-32.96,-27.38,-21.81,-43.88,2.484,40.42,0,0,0,0,0,0,0,0,0,0,0,0,0,0,0,0,
62,83.06,20.19,-44.91,-11.32,-14.9,21.36,-75.16,-94.23,-55.19,-49.05,-37,-32.26,-25.73,-44.16,-2.802,20.05,0,0,0,0,0,0,0,0,0,0,0,0,0,0,0,0,
63,66.06,34.11,-5.073,17.51,4.764,25.85,-48.17,-60.1,-7.181,7.927,-9.116,-9.406,8.071,2.176,35.83,36.19,0,0,0,0,0,0,0,0,0,0,0,0,0,0,0,0,
64,56.38,53.49,-27.86,-26.24,-9.714,-12.2,-46.84,-56.93,-18.72,-15.07,-8.22,-20.64,-5.829,-8.291,72.78,57.56,0,0,0,0,0,0,0,0,0,0,0,0,0,0,0,0,
65,32.76,25.56,-56.07,-22.63,-46.33,-44.06,-65.08,-72.5,-29.52,-26.36,-20.47,-38.57,-38.91,-37.47,74.33,49.59,0,0,0,0,0,0,0,0,0,0,0,0,0,0,0,0,
66,37.89,7.11,-16.25,22.29,-28.19,-19.6,-59.06,-34.34,1.478,-4.719,-1.808,-27.08,-24.67,-14.62,57.82,38.01,0,0,0,0,0,0,0,0,0,0,0,0,0,0,0,0,
67,66.84,40.56,-24.52,-6.453,-37.34,-1.372,-31.97,9.77,-5.864,-17.64,13.03,-18.62,10.89,12.11,50.62,48.33,0,0,0,0,0,0,0,0,0,0,0,0,0,0,0,0,
68,62.66,54.74,-75.24,-30.12,-79.71,-32.54,-47.56,-17.43,-52.45,-16.08,-17.01,-44.15,-5.672,-20.39,43.17,50.02,0,0,0,0,0,0,0,0,0,0,0,0,0,0,0,0,
69,26.99,2.104,-72.47,-16.59,-62.3,-55.83,-92.16,-71.19,-42.69,11.74,-30.63,-50.94,-21.67,-20.2,33.51,45.54,0,0,0,0,0,0,0,0,0,0,0,0,0,0,0,0,
70,30.59,-4.048,-38.91,-7.589,-13.64,-27.29,-70.64,-48.96,15.12,12.08,-5.728,-28.85,1.577,27.23,35.49,66.55,0,0,0,0,0,0,0,0,0,0,0,0,0,0,0,0,
71,42.37,23.88,-56.43,-5.601,-31.8,-25.66,-44.08,1.062,-15.51,3.919,-34.84,-56.81,-32.84,-15.12,16.11,57.21,0,0,0,0,0,0,0,0,0,0,0,0,0,0,0,0,
72,32.43,0.2369,-88.35,1.546,-74.24,-32.5,-42.5,20.77,-67.4,27.3,-53.75,-60.44,-52.43,-46.68,-14.45,4.692,0,0,0,0,0,0,0,0,0,0,0,0,0,0,0,0,
73,66.04,21.08,-60.72,26.24,-74.85,0.0919,-14.36,15.28,-33.4,32.44,-9.66,-11.78,4.124,15.6,5.964,1.352,0,0,0,0,0,0,0,0,0,0,0,0,0,0,0,0,
74,64.77,55.63,-42.5,15.65,-87.68,-35.54,-32.53,-26.32,-34.76,19.89,-17.36,-27.08,17.63,33.57,50.95,51.22,0,0,0,0,0,0,0,0,0,0,0,0,0,0,0,0,
75,22.09,36.44,-46.09,-4.335,-87.82,-72.88,-54.28,-12.24,-41.82,53.35,-24.53,-36.91,22.2,32.59,73.3,90.19,0,0,0,0,0,0,0,0,0,0,0,0,0,0,0,0,
76,54.75,50.57,-36.72,15.74,-53.27,-20.38,-18.87,42.03,9.59,34,9.915,-10.81,43.18,42.9,76.04,97.7,0,0,0,0,0,0,0,0,0,0,0,0,0,0,0,0,
77,67.25,57.75,-53.23,10.55,-54.37,-0.7853,-13.94,24.05,4.501,-19.93,8.101,-19.32,28.13,23.87,68.81,86.23,0,0,0,0,0,0,0,0,0,0,0,0,0,0,0,0,
78,52.32,44.36,-36.08,19.02,-56.61,1.215,-7.462,21.75,-11.43,49.44,19.94,-3.232,30.87,36.48,74.2,89.7,0,0,0,0,0,0,0,0,0,0,0,0,0,0,0,0,
79,95.48,66.59,-0.9894,54.63,-48.48,16.03,11.3,41.85,6.793,82.54,28.51,3.585,32.6,49.86,82.69,105.2,0,0,0,0,0,0,0,0,0,0,0,0,0,0,0,0,
80,91.44,73.46,-29.24,38.89,-50.53,-11.04,1.104,28.64,-9.546,11.22,3.164,-22.51,30.73,44.85,74.74,110.4,0,0,0,0,0,0,0,0,0,0,0,0,0,0,0,0,
81,64.2,81.94,-29.67,31.35,-23.13,-6.954,20.22,59.36,-22.71,45.6,15.33,-0.9478,59.33,59.55,75.7,119.3,0,0,0,0,0,0,0,0,0,0,0,0,0,0,0,0,
82,89.02,85.44,-0.0985,46.84,-14.67,18.24,26.3,76.9,-17.66,95.87,24.44,12.01,48.98,47.73,80.57,128.8,0,0,0,0,0,0,0,0,0,0,0,0,0,0,0,0,
83,92.95,50.71,-0.4131,49.84,-24.66,10.75,-5.753,38.18,5.302,28.44,21.27,1.178,31.54,38.63,74.58,130.8,0,0,0,0,0,0,0,0,0,0,0,0,0,0,0,0,
84,89.27,58.29,8.759,66.2,-13.1,20.48,-0.2945,26.61,49.93,4.813,45.41,22.75,54.21,60.42,80.89,137.8,0,0,0,0,0,0,0,0,0,0,0,0,0,0,0,0,
85,106.9,93.63,7.239,59.3,-20.61,33.73,18.95,24.13,57.15,68.68,57.37,50.17,73.02,78.27,104.4,151.9,0,0,0,0,0,0,0,0,0,0,0,0,0,0,0,0,
86,118.5,104.3,0.2383,38.46,-7.922,24.89,16.5,14.87,40.82,71.95,58.64,61.28,85.04,91.86,125.7,165.6,0,0,0,0,0,0,0,0,0,0,0,0,0,0,0,0,
87,110.6,104.5,11.12,40.14,11.3,6.908,8.251,29.22,20.74,35.2,43.35,40.44,75.88,80.92,123.9,157.6,0,0,0,0,0,0,0,0,0,0,0,0,0,0,0,0,
88,85.93,96.56,17.83,46.14,-7.587,7.377,17.58,61.92,0.1505,87.39,32.98,30.18,70.81,81.71,114.6,134.6,0,0,0,0,0,0,0,0,0,0,0,0,0,0,0,0,
89,92.97,101.6,19.94,55.29,4.957,40.93,24.91,64.56,16.41,110.1,74.03,56.74,80.23,95.26,129.2,124.8,0,0,0,0,0,0,0,0,0,0,0,0,0,0,0,0,
90,113.2,95.69,-9.114,39.75,13.39,53.94,0.4664,22.98,33.94,29.13,91.55,45.89,53.27,62.96,139,109.6,0,0,0,0,0,0,0,0,0,0,0,0,0,0,0,0,
91,110.7,83.49,-14.13,25.89,1.889,47.34,6.548,24.93,37.43,32.23,64.63,24.5,41.47,54.51,119.2,88.26,0,0,0,0,0,0,0,0,0,0,0,0,0,0,0,0,
92,106.4,100.6,30.88,36.05,22,31.96,13.06,33.11,51.09,66.96,53.45,35.1,49.78,69.05,99.29,86.18,0,0,0,0,0,0,0,0,0,0,0,0,0,0,0,0,
93,89.09,92,16.5,20.66,3.377,6.78,-14.97,9.926,57.36,34.28,63.11,48.3,42.31,54.65,103.1,92.62,0,0,0,0,0,0,0,0,0,0,0,0,0,0,0,0,
94,100.9,85.94,6.943,42.94,-26.03,38.95,24.22,70.62,56.4,58.94,82.93,64.28,49.6,53.09,124.9,96.3,0,0,0,0,0,0,0,0,0,0,0,0,0,0,0,0,
95,128.9,89.05,54.32,91.98,1.591,68.58,49.69,103.3,63.93,70.61,78.46,48.75,20.64,28.64,128.6,81.85,0,0,0,0,0,0,0,0,0,0,0,0,0,0,0,0,
96,100.5,42.54,46.29,73.97,33.8,46.07,7.812,33.14,98.98,46.93,58.87,22.17,-18.01,1.136,103.2,46.45,0,0,0,0,0,0,0,0,0,0,0,0,0,0,0,0,
97,93.24,43.62,9.316,54.49,52.78,48.98,20.51,32.76,93.41,78.2,50.9,25.56,6.72,24.65,84.08,30.08,0,0,0,0,0,0,0,0,0,0,0,0,0,0,0,0,
98,106.8,82.45,-2.777,44.59,35.92,31.65,25.11,47.94,12.88,39.43,40.41,19.59,27.87,34.63,81.54,46.24,0,0,0,0,0,0,0,0,0,0,0,0,0,0,0,0,
99,91.87,71.09,12.79,27.4,4.197,6.311,2.066,14.22,14.56,-17.8,59.81,36.07,37.5,39.56,90.7,74.1,0,0,0,0,0,0,0,0,0,0,0,0,0,0,0,0,
100,112.4,73.36,35.28,46.71,14.76,41.24,17.5,14.31,63.6,13.35,71.32,60.95,36.38,39.5,101.3,85.64,0,0,0,0,0,0,0,0,0,0,0,0,0,0,0,0,
101,115.5,68.56,-1.4,43.64,20.51,55.13,2.997,-2.539,43.76,0.3604,42.19,35.91,7.056,13.38,94.77,66.98,0,0,0,0,0,0,0,0,0,0,0,0,0,0,0,0,
102,83.54,43.66,-2.534,31.88,24.76,53.24,-1.606,-16.57,69.29,-14.63,49.59,16.07,13.24,29.22,84.79,53.38,0,0,0,0,0,0,0,0,0,0,0,0,0,0,0,0,
103,88.82,59.61,62.87,67.4,48.89,69.83,34.84,31.37,80.63,40.57,57.39,7.618,31.87,59.37,81.56,67.27,0,0,0,0,0,0,0,0,0,0,0,0,0,0,0,0,
104,88.22,77.69,47.78,86.01,52.63,64.43,40.43,66.87,21.53,47.24,50.39,15.6,40.38,66.62,83.17,92.03,0,0,0,0,0,0,0,0,0,0,0,0,0,0,0,0,
105,93.59,89.96,5.366,72.28,41.91,60.05,42.92,54.1,48.92,8.61,86.48,61.56,60.94,76.03,101.3,113.5,0,0,0,0,0,0,0,0,0,0,0,0,0,0,0,0,
106,123,96.47,14.14,54.84,11.12,55.09,39.64,24.24,81.99,31.6,103.8,71.92,54.72,68.98,124.8,115.7,0,0,0,0,0,0,0,0,0,0,0,0,0,0,0,0,
107,117.1,77.78,14.15,48.78,-16.16,51.14,23.38,32.41,48.89,87.51,87.73,46,38.3,56.69,128.1,97.43,0,0,0,0,0,0,0,0,0,0,0,0,0,0,0,0,
108,91.75,65.07,22.77,59.63,0.1247,59.27,36.21,71.02,59.08,60.38,66.86,24.05,26.32,43.52,98.87,75.35,0,0,0,0,0,0,0,0,0,0,0,0,0,0,0,0,
109,72.23,61.85,51.58,69.05,26.08,53.05,60.37,84.36,77,27.04,50.77,17.13,22.91,44.92,64.31,72.87,0,0,0,0,0,0,0,0,0,0,0,0,0,0,0,0,
110,73.08,86.64,52.73,76.51,45.38,62.19,74.9,80.09,78.93,83.25,77.72,38.16,46.75,72.62,70.87,101.2,0,0,0,0,0,0,0,0,0,0,0,0,0,0,0,0,
111,85.09,102.4,26.15,53.77,30.64,59.66,42.04,44.37,84.55,75.49,84.11,35.98,40.21,64.35,98.22,123.1,0,0,0,0,0,0,0,0,0,0,0,0,0,0,0,0,
112,71.64,58.47,21.15,27.61,6.494,9.721,-16.1,7.967,65.7,30.13,52.57,20.99,25.05,52.79,110.4,118.3,0,0,0,0,0,0,0,0,0,0,0,0,0,0,0,0,
113,49.59,36.87,26.89,46.4,32.57,-29.74,-30.3,7.24,47.2,67.56,47.26,14.1,30.13,59.87,106.6,102.4,0,0,0,0,0,0,0,0,0,0,0,0,0,0,0,0,
114,11.25,29.44,-4.286,50.44,29.17,-40.92,-27,3.934,26.82,61.16,39.07,-15.63,14.28,48.86,82.59,80.31,0,0,0,0,0,0,0,0,0,0,0,0,0,0,0,0,
115,0.4087,16.48,3.63,72.51,14.46,-0.4059,17.13,60.29,10.49,28.55,36.24,-7.682,25.41,66.38,65.35,78.22,0,0,0,0,0,0,0,0,0,0,0,0,0,0,0,0,
116,53.08,55.05,44.84,110.5,47.75,54.1,73.41,107,29.9,25.47,33.21,12.77,32.33,57.13,65.15,89.37,0,0,0,0,0,0,0,0,0,0,0,0,0,0,0,0,
117,59.22,67.22,18.05,58.77,16.06,42.74,39.47,25.52,50.01,5.994,11.41,0.517,7.332,11.56,51.39,74.39,0,0,0,0,0,0,0,0,0,0,0,0,0,0,0,0,
118,48.09,54.66,10.59,30.2,-24.18,31.44,11.63,13.59,45.99,73.51,39.67,28.26,32.51,38.2,45.24,61.04,0,0,0,0,0,0,0,0,0,0,0,0,0,0,0,0,
119,74.54,74.62,41,77.52,27.69,22.53,26.09,83.38,35.49,136.6,65.41,40.01,44.84,60.21,61.64,71.17,0,0,0,0,0,0,0,0,0,0,0,0,0,0,0,0,
120,49.49,55.85,33.45,86.26,37.83,-8.948,1.126,47.78,55.66,49.24,42.96,10.2,22.51,45.38,76.91,88.63,0,0,0,0,0,0,0,0,0,0,0,0,0,0,0,0,
121,29.62,30.27,44.24,86,-8.745,11.66,-7.976,9.867,66.5,1.645,35.49,4.772,20.53,46.73,83.53,99.88,0,0,0,0,0,0,0,0,0,0,0,0,0,0,0,0,
122,46.08,33.63,49.74,86.25,1.588,37.18,10.08,34.24,12.2,52.09,16.6,-18.2,-5.936,20.74,65.92,73.86,0,0,0,0,0,0,0,0,0,0,0,0,0,0,0,0,
123,27.51,30.43,35.9,81.52,28.66,35.7,21.71,54.94,5.746,70.89,4.814,-27.68,-4.864,22.67,39.27,38.98,0,0,0,0,0,0,0,0,0,0,0,0,0,0,0,0,
124,25.03,48.17,52.72,103.1,-0.8315,38.15,34.65,81.48,49.06,62.33,30.41,3.646,34.03,56.35,40.92,51.59,0,0,0,0,0,0,0,0,0,0,0,0,0,0,0,0,
125,42.98,56.42,43,95.45,-21.36,10.41,24.07,83.51,24.94,46.82,36.77,11.99,21.66,41.24,59.32,79.58,0,0,0,0,0,0,0,0,0,0,0,0,0,0,0,0,
126,40.66,34,37.99,93.74,20.45,-4.615,6.912,54.18,15,25.45,41.91,18.97,4.34,33.59,81.74,89.09,0,0,0,0,0,0,0,0,0,0,0,0,0,0,0,0,
127,27.68,13.13,74.85,126.6,36.26,7.896,-2.997,35.33,49.5,30.38,51.67,21.44,9.26,43.95,97.96,88.12,0,0,0,0,0,0,0,0,0,0,0,0,0,0,0,0,
128,16.33,8.72,93.24,144.9,25.27,22.8,8.356,58.17,60.43,54.1,33.96,1.09,8.773,31.71,82.07,69.98,0,0,0,0,0,0,0,0,0,0,0,0,0,0,0,0,
129,42.48,43.17,128.9,209,61.02,73.19,56.98,115,72.35,44.61,0.5209,-23.91,3.348,13.21,37.46,33.42,0,0,0,0,0,0,0,0,0,0,0,0,0,0,0,0,
130,62.96,62.68,195.1,306.8,93.25,107.2,83.77,147.1,82.47,60.03,-19.75,-47.96,-1.721,14.05,-2.278,7.316,0,0,0,0,0,0,0,0,0,0,0,0,0,0,0,0,
131,60.21,65.54,256.9,367.9,110.4,107.2,102.9,184.4,96.17,158.9,12.03,-18.67,20.63,42.89,-0.8016,20.6,0,0,0,0,0,0,0,0,0,0,0,0,0,0,0,0,
132,86.25,83.13,298.6,414.8,110.1,105.4,118.8,216.8,84.76,139.1,34.18,20.08,13.86,24.28,26.09,41.72,0,0,0,0,0,0,0,0,0,0,0,0,0,0,0,0,
133,83.53,32.39,313.5,464.2,78.72,92.97,93.52,191.9,19.07,7.052,14.98,8.508,-21.02,-11.58,35.73,34.21,0,0,0,0,0,0,0,0,0,0,0,0,0,0,0,0,
134,66.35,-0.5462,370,551.4,109,124.7,125.5,235.8,27.74,55.19,35.21,17.94,12.93,35.5,43.79,35.96,0,0,0,0,0,0,0,0,0,0,0,0,0,0,0,0,
135,78.75,70.86,434.1,648.5,140.7,167.6,202.5,340.4,77.75,148.6,46.64,24.73,52.15,71.03,67.18,65.25,0,0,0,0,0,0,0,0,0,0,0,0,0,0,0,0,
136,69.15,113,438.4,663.3,108.1,183.7,231.2,360.4,46.8,109.1,39.78,13.38,65.28,71.83,91.8,94.87,0,0,0,0,0,0,0,0,0,0,0,0,0,0,0,0,
137,95.29,135.3,458,617.5,154.3,246.3,262.6,348.5,67.14,128.5,79.91,39.11,90.82,91.96,107.9,108.7,0,0,0,0,0,0,0,0,0,0,0,0,0,0,0,0,
138,153.3,169.8,475.2,578.8,227.8,274.5,276.3,345.1,154.4,176.4,95.44,64.07,86.69,86.11,103.5,98.85,0,0,0,0,0,0,0,0,0,0,0,0,0,0,0,0,
139,165.3,162.3,458.5,589.1,199.4,236.9,256.1,324.6,147.7,136.9,97.42,94.92,99.03,96.1,99.33,94.81,0,0,0,0,0,0,0,0,0,0,0,0,0,0,0,0,
140,179.7,170.3,439.7,587.7,155,242.9,255.9,306.4,107.5,119.6,117.7,117.5,120.6,109.4,110.1,106.5,0,0,0,0,0,0,0,0,0,0,0,0,0,0,0,0,
141,179.7,177,395.3,504.5,158.3,245.7,230.7,279.1,143,124.8,97.33,81.71,84.28,71.1,105.7,91.83,0,0,0,0,0,0,0,0,0,0,0,0,0,0,0,0,
142,146.8,143.1,379.1,452.4,177.2,211.1,198.7,260.8,165.6,105,91.57,60.57,72.4,70.8,96.71,70.72,0,0,0,0,0,0,0,0,0,0,0,0,0,0,0,0,
143,130.2,137.2,377.2,446.3,167.1,192.1,215.1,263.5,130.9,128.5,106.4,62.11,95.83,100.9,104,80.69,0,0,0,0,0,0,0,0,0,0,0,0,0,0,0,0,
144,108.8,155.8,312.9,402.9,151.9,175.1,217,254.2,122.9,168,87.23,48.06,89.66,92.46,109.5,92.86,0,0,0,0,0,0,0,0,0,0,0,0,0,0,0,0,
145,99.33,145.7,269.6,382.9,163.9,146.8,171.2,219.9,115.3,125.9,96.35,58,72.33,72.99,115.8,89.03,0,0,0,0,0,0,0,0,0,0,0,0,0,0,0,0,
146,115.1,104,257.6,369.5,131.6,129,134,175.1,94.41,73.1,138,90.33,70.45,69.61,132.4,91.16,0,0,0,0,0,0,0,0,0,0,0,0,0,0,0,0,
147,131.9,89.69,227.5,314.9,97.19,150.2,141.5,177.3,121.3,78.94,135.7,111.6,79.07,73.47,138.6,104.5,0,0,0,0,0,0,0,0,0,0,0,0,0,0,0,0,
148,149.9,108.8,211.5,274.9,132.1,162.4,148.5,206.1,101.9,62.37,87.63,86.49,51.35,40.61,111,94.94,0,0,0,0,0,0,0,0,0,0,0,0,0,0,0,0,
149,128.7,97.14,199.9,254,138,124.3,143.2,193.6,62.68,78.02,69.04,41.21,17.17,13.75,70.73,56.37,0,0,0,0,0,0,0,0,0,0,0,0,0,0,0,0,
150,90.96,98.16,194.8,239.1,112.5,116.4,156.1,165.4,102.4,138.3,81.7,28.78,23.45,31.19,52.41,29.33,0,0,0,0,0,0,0,0,0,0,0,0,0,0,0,0,
151,78.08,104.5,175.1,209.7,108.3,128,132.9,130.5,71.35,89.79,57.73,17.14,6.772,14.22,44.82,19.94,0,0,0,0,0,0,0,0,0,0,0,0,0,0,0,0,
152,68.39,59.06,122.5,163.1,88.38,102.4,86.92,108,41.45,41.75,62.79,29.86,7.736,14.31,51.56,29.37,0,0,0,0,0,0,0,0,0,0,0,0,0,0,0,0,
153,75.72,40.91,89.87,125.3,72.49,71.42,63.87,98.14,121.5,51.77,98.26,55.71,41.96,45.58,76.14,61.51,0,0,0,0,0,0,0,0,0,0,0,0,0,0,0,0,
154,59.66,31.88,55.29,69.93,82.14,42.15,20.95,51.62,78.79,14.48,55.7,13.84,12.42,9.437,65.56,67.61,0,0,0,0,0,0,0,0,0,0,0,0,0,0,0,0,
155,21.97,1.664,34.06,46.36,80.33,46.94,17.12,49.8,0.5473,73.95,24.21,-21.72,-23.03,-16.59,23.81,31.13,0,0,0,0,0,0,0,0,0,0,0,0,0,0,0,0,
156,30.63,21.94,47.22,63.13,39.46,68.44,69.41,90.94,54.54,141.9,40.72,-23.72,-28.7,-10.51,1.276,-11.49,0,0,0,0,0,0,0,0,0,0,0,0,0,0,0,0,
157,31.28,44.55,26.51,28.34,8.859,50.11,86.62,72.7,48.02,23.18,29.38,-28.06,-23.29,-11.31,4.012,-25.66,0,0,0,0,0,0,0,0,0,0,0,0,0,0,0,0,
158,38.41,56.88,19.42,-9.751,42.06,51.62,72.79,50.75,6.09,-46.06,38.63,4.703,18.9,24.94,30,11.15,0,0,0,0,0,0,0,0,0,0,0,0,0,0,0,0,
159,76.81,65.47,15.75,-35.14,44.4,50.34,19.11,21.52,22.74,3.555,45.39,16.52,14.57,19.06,49.36,51.42,0,0,0,0,0,0,0,0,0,0,0,0,0,0,0,0,
160,64.84,25.73,-45.48,-79.48,5.02,18.47,-28.54,-28.28,15.48,29.36,31.83,5.795,-13.99,-14.17,35.8,45.69,0,0,0,0,0,0,0,0,0,0,0,0,0,0,0,0,
161,42.77,16.58,-64.09,-97.49,18.44,16.88,-3.18,-33.85,27.66,32.27,39.5,12.46,8.222,17.38,18.06,29.02,0,0,0,0,0,0,0,0,0,0,0,0,0,0,0,0,
162,12.12,23.21,-51.53,-122.1,15.14,-8.7,2.757,-33.52,42.78,3.109,14.73,-28.46,3.636,29.71,5.38,24.94,0,0,0,0,0,0,0,0,0,0,0,0,0,0,0,0,
163,-46.96,0.0721,-57.9,-107.4,-16.78,-28.09,3.934,0.0598,-11.55,16.22,-0.1172,-46.22,-5.473,13.36,-2.841,23.76,0,0,0,0,0,0,0,0,0,0,0,0,0,0,0,0,
164,-31.64,18.91,-42.71,-41.91,-21.25,12.38,30.94,32.47,-71.7,40.28,10.28,-12.05,-2.881,-1.533,-8.885,14.05,0,0,0,0,0,0,0,0,0,0,0,0,0,0,0,0,
165,9.819,25.13,-41.26,-73.12,-35.07,14.09,13.75,-30.34,-73.65,-10.82,-24.91,-17.75,-23.59,-19.26,-31.32,-8.155,0,0,0,0,0,0,0,0,0,0,0,0,0,0,0,0,
166,14.84,22.94,-36.45,-112,-17.09,11.27,27.31,-25.7,-12.55,29.29,-29.94,-17.77,-8.141,4.223,-42.14,-13.26,0,0,0,0,0,0,0,0,0,0,0,0,0,0,0,0,
167,27.65,54.09,-33.13,-89.51,18.04,31.77,48.38,31.97,31.12,86.22,-3.259,-3.716,-1.492,5.258,-21.6,-1.261,0,0,0,0,0,0,0,0,0,0,0,0,0,0,0,0,
168,35.39,26.72,-56.84,-117.2,20.83,18.31,4.917,-11.4,38.87,14.64,8.486,10.52,-12,-14.54,10.3,7.76,0,0,0,0,0,0,0,0,0,0,0,0,0,0,0,0,
169,61.34,13.05,-25.23,-120.6,54.83,29.27,13.71,-8.902,70.29,4.616,37.52,39.98,17.79,12.43,43.35,24.41,0,0,0,0,0,0,0,0,0,0,0,0,0,0,0,0,
170,65.93,52.51,-3.715,-95.18,55.58,35.99,45.04,38.57,50.44,51.17,19.39,12.64,13.56,9.683,44.7,30.58,0,0,0,0,0,0,0,0,0,0,0,0,0,0,0,0,
171,6.635,41.48,-41.5,-128.2,-7.381,-0.8544,23.08,-1.391,-13.92,54.86,-19.2,-22.88,1.323,-4.948,10.93,15.43,0,0,0,0,0,0,0,0,0,0,0,0,0,0,0,0,
172,-9.498,30.87,-57.31,-144.7,-8.979,-3.349,13.14,-30.32,-14.27,59.63,5.797,-9.142,17.81,14.9,-6.079,7.519,0,0,0,0,0,0,0,0,0,0,0,0,0,0,0,0,
173,8.023,29.23,-85.02,-126.4,24.4,12.21,6.035,-17.14,11.44,19.2,28.3,-9.46,-0.4743,14.54,5.884,12.84,0,0,0,0,0,0,0,0,0,0,0,0,0,0,0,0,
174,15.38,4.573,-90.42,-117.9,7.6,6.391,-7.039,-25.24,12.91,-28.12,26.98,-4.818,-8.283,15.36,25.46,26.77,0,0,0,0,0,0,0,0,0,0,0,0,0,0,0,0,
175,44.36,15.12,-62.83,-138.1,-24.24,-6.632,-8.132,-35.63,-6.326,-26.2,23.03,5.749,6.09,26.34,32.86,40.91,0,0,0,0,0,0,0,0,0,0,0,0,0,0,0,0,
176,53.6,34.83,-97.47,-165,-3.535,-0.6935,-4.278,-26.04,-12.8,-10.11,23.12,11.87,23.15,43.69,28.55,51.43,0,0,0,0,0,0,0,0,0,0,0,0,0,0,0,0,
177,53.17,49.08,-103.2,-142.2,24.64,29.67,12.58,-17.02,8.23,41.93,31.97,35.65,63.34,72.15,31.06,65.16,0,0,0,0,0,0,0,0,0,0,0,0,0,0,0,0,
178,57.69,73.48,-50.67,-131.8,-15.25,38.07,15.93,-32.23,5.862,72.92,9.824,29.89,69.68,59.3,23.88,60.22,0,0,0,0,0,0,0,0,0,0,0,0,0,0,0,0,
179,47.39,79.76,-41.08,-148.1,-11.88,48,24.5,-23.44,20.05,51.14,0.1582,23.8,49.92,39.59,5.292,38.83,0,0,0,0,0,0,0,0,0,0,0,0,0,0,0,0,
180,61.92,76.44,-54.08,-129.2,40.01,60.64,47.69,15.35,64.76,39.01,39.47,56.77,54.16,56.24,18.89,44.04,0,0,0,0,0,0,0,0,0,0,0,0,0,0,0,0,
181,80.65,65.88,-59.45,-122,14.38,35.32,36.1,15.96,77.32,21.14,74.5,88.23,60.73,68.83,69.01,75.09,0,0,0,0,0,0,0,0,0,0,0,0,0,0,0,0,
182,91.67,55.42,-46.81,-119.6,17.26,36.11,16.33,-15.17,80.72,13.28,90.56,103.7,46.79,49.43,106.6,83.42,0,0,0,0,0,0,0,0,0,0,0,0,0,0,0,0,
183,98.52,35.22,-51.92,-117.7,53.24,43.02,-3.551,-54.79,53.41,22.06,75.58,76.71,4.934,4.352,96.52,45.05,0,0,0,0,0,0,0,0,0,0,0,0,0,0,0,0,
184,76.88,-0.6631,-80.81,-135.8,21.67,36.08,-5.111,-47.57,20.12,26.17,77.36,60.03,2.71,9.922,78.56,18.49,0,0,0,0,0,0,0,0,0,0,0,0,0,0,0,0,
185,83.81,12.63,-39.64,-108.4,33.38,73.11,32.45,11.06,50.38,52.98,116.9,86.33,38.84,48.7,94.41,51.49,0,0,0,0,0,0,0,0,0,0,0,0,0,0,0,0,
186,85.29,26.4,-11.71,-93.06,64.97,66.18,15.13,-1.095,58.05,46.75,106.7,67.02,26.02,35.01,108.1,89.4,0,0,0,0,0,0,0,0,0,0,0,0,0,0,0,0,
187,51.21,8.458,-57.83,-118.7,38.55,27.07,-6.248,-17.44,50.04,20.12,103.4,62.37,33.29,41.17,109.4,99.6,0,0,0,0,0,0,0,0,0,0,0,0,0,0,0,0,
188,75.7,42.87,-55.82,-111.2,29.11,34.2,34.54,24.73,61.63,47.84,125,97.78,63.01,58.7,111.8,97.47,0,0,0,0,0,0,0,0,0,0,0,0,0,0,0,0,
189,85.07,64.01,-34.5,-123.1,18.73,12.07,25.6,-15.16,44.06,38.39,84.43,76.36,43.09,40.82,93.84,82.99,0,0,0,0,0,0,0,0,0,0,0,0,0,0,0,0,
190,47.72,49.79,-38.42,-124.1,2.058,11.9,16.48,-49.45,55.17,-16.27,66.87,58.66,46.5,66.43,75.66,82.09,0,0,0,0,0,0,0,0,0,0,0,0,0,0,0,0,
191,56.36,62.19,-46.22,-78.26,-2.275,53.42,52.75,23.04,38.55,-1.312,72.25,55.22,50.1,75.84,70.22,91.02,0,0,0,0,0,0,0,0,0,0,0,0,0,0,0,0,
192,50.55,39.36,-68.09,-82.22,-13.33,36.29,36.4,42.1,-15.2,51.71,36.28,27.27,26.72,49.4,53.29,79.17,0,0,0,0,0,0,0,0,0,0,0,0,0,0,0,0,
193,35.66,17.07,-45.64,-93.92,17.3,25.89,17.18,-10.99,45.76,42.74,43.43,33.98,39.97,67.14,43.49,69.35,0,0,0,0,0,0,0,0,0,0,0,0,0,0,0,0,
194,53.35,35.25,-22.64,-86.91,35.93,36.17,19.82,-37.01,88.14,-15.63,60.88,36.79,26.89,50.02,39.81,57.93,0,0,0,0,0,0,0,0,0,0,0,0,0,0,0,0,
195,44.65,20.31,-59.17,-118.2,-6.03,20.83,-10.99,-42.15,50.48,-9.203,36.91,20,-3.246,14.39,21.37,31.32,0,0,0,0,0,0,0,0,0,0,0,0,0,0,0,0,
196,43.69,9.749,-70.01,-144,-16.17,24.38,-27.83,-43.92,82.62,52.73,34.14,35.54,22.06,41.92,17.06,34.73,0,0,0,0,0,0,0,0,0,0,0,0,0,0,0,0,
197,57.49,29.95,-53.2,-131.4,15.08,23.67,-6.072,-30.09,76.93,43.5,48.91,53.37,42.87,55.62,43.59,74.47,0,0,0,0,0,0,0,0,0,0,0,0,0,0,0,0,
198,45.21,35.72,-36.89,-95.46,42.68,17.18,15.95,-8.153,15.42,5.852,61.13,57.05,32.57,33.04,77.46,100.7,0,0,0,0,0,0,0,0,0,0,0,0,0,0,0,0,
199,37.24,30.25,-32.82,-87.22,43.05,38.64,22.77,-5.431,43.27,35.4,66.6,53.55,23.52,23.45,93.89,93.84,0,0,0,0,0,0,0,0,0,0,0,0,0,0,0,0,
200,47.73,33.38,-49.23,-101.9,40.68,63.99,36.9,4.352,79.29,54.77,78.53,64.07,35.37,34.4,93.36,79.92,0,0,0,0,0,0,0,0,0,0,0,0,0,0,0,0,
201,78.16,53.1,-14.86,-66.32,62.43,70.71,40.94,12.72,56.43,-9.763,103.2,86.9,53.21,45.89,88.27,80.58,0,0,0,0,0,0,0,0,0,0,0,0,0,0,0,0,
202,87.36,53.83,22.22,-57.89,31.9,41.05,6.658,-26.65,56.45,-45.83,98.79,79.34,55.33,56.71,76.74,86.99,0,0,0,0,0,0,0,0,0,0,0,0,0,0,0,0,
203,62.48,52.18,3.171,-91.06,-0.4096,36.71,17.44,-24.57,101.4,33.38,101.3,82.14,66.14,83.78,73.86,90.86,0,0,0,0,0,0,0,0,0,0,0,0,0,0,0,0,
204,67.11,78.46,-2.877,-69.9,36.77,77.32,59.78,29.14,109,85.79,121.2,94.4,49.33,71.73,83.65,79.94,0,0,0,0,0,0,0,0,0,0,0,0,0,0,0,0,
205,77,61.97,-8.655,-66.27,38.45,67.8,43.12,37.28,59.94,55.04,109.5,76.96,15.93,45.3,81.15,60.89,0,0,0,0,0,0,0,0,0,0,0,0,0,0,0,0,
206,77.86,28.53,-8.156,-86.33,41.01,45.34,33.74,29.43,59.84,45.12,105.6,77.32,41.99,82.5,78.92,74.91,0,0,0,0,0,0,0,0,0,0,0,0,0,0,0,0,
207,83.64,20.32,15.87,-70.4,76.53,52.85,34.44,1.84,90.07,29.86,99.36,77.94,58.92,91.64,86.62,103.6,0,0,0,0,0,0,0,0,0,0,0,0,0,0,0,0,
208,64.16,1.61,9.176,-73.09,46.69,41.48,8.157,-34.78,76.19,19.44,77.15,70.55,56.14,62.78,88.64,106.3,0,0,0,0,0,0,0,0,0,0,0,0,0,0,0,0,
209,57.73,18.69,-2.445,-76.37,30.63,35.24,2.57,-23.11,77.86,57.3,85.56,85.62,90.73,83.13,93.55,108.6,0,0,0,0,0,0,0,0,0,0,0,0,0,0,0,0,
210,62.84,45.09,-7.952,-65.65,76.56,45.17,-7.742,-26.22,108.7,68.09,96.77,88.23,108.5,109.4,101.9,127.4,0,0,0,0,0,0,0,0,0,0,0,0,0,0,0,0,
211,64.1,49.41,-5.018,-76.51,90.19,59.37,4.109,-15.6,126.8,75.07,108.2,98.77,107.2,109.1,104.2,143.7,0,0,0,0,0,0,0,0,0,0,0,0,0,0,0,0,
212,88.2,88.42,25.96,-74.23,70.55,65.57,61.43,34.1,115,79.99,120.6,111.8,94.9,87.24,101.5,141.8,0,0,0,0,0,0,0,0,0,0,0,0,0,0,0,0,
213,78.58,100.6,26.49,-41.28,67.47,58.25,81.42,37.29,88.3,35.97,114.7,104.8,74.88,76.95,103.1,131.6,0,0,0,0,0,0,0,0,0,0,0,0,0,0,0,0,
214,63.4,76.47,19.39,-9.587,87.09,79.39,75.64,45.25,99.01,31.09,126.9,118.7,79.85,93.01,121.9,137.8,0,0,0,0,0,0,0,0,0,0,0,0,0,0,0,0,
215,78.62,58.95,37.29,-20.27,92.89,83.86,56.62,51.59,109.1,52.79,122.3,109.5,59.84,70.73,131.6,143.1,0,0,0,0,0,0,0,0,0,0,0,0,0,0,0,0,
216,60.6,23.74,44.22,-29.78,101.6,61.61,38.8,27.29,90.32,62.85,97.71,87.17,49.74,66.8,115.9,135.5,0,0,0,0,0,0,0,0,0,0,0,0,0,0,0,0,
217,62.66,34.32,60.26,8.019,126.1,76.28,62.53,62.78,95.99,102.6,101.2,93.43,81.9,102.2,98.18,128.2,0,0,0,0,0,0,0,0,0,0,0,0,0,0,0,0,
218,80.13,65.77,59.14,4.362,113.4,76.39,49.59,67.96,118.6,91.84,92.39,76.54,80.83,93.03,78.16,111.5,0,0,0,0,0,0,0,0,0,0,0,0,0,0,0,0,
219,70.75,59.44,49.87,-17.54,121.5,86.6,30.59,8.124,136,44.12,92.86,88.21,103.5,110.8,69.98,109.6,0,0,0,0,0,0,0,0,0,0,0,0,0,0,0,0,
220,103.2,90.6,72.31,4.93,130.2,124.3,66.89,17.69,107.1,58.24,102.9,122.2,144.6,144.8,88.63,136.4,0,0,0,0,0,0,0,0,0,0,0,0,0,0,0,0,
221,111.5,116.9,63.35,-1.428,70.16,93.11,64.84,31.82,57.04,71.26,79.38,103.3,130.6,128.6,104.5,146.8,0,0,0,0,0,0,0,0,0,0,0,0,0,0,0,0,
222,77.17,103.1,48.88,-11.12,83.92,70.59,51.33,-3.626,80.9,51.33,83.21,103.6,132.1,141.7,117.1,147.3,0,0,0,0,0,0,0,0,0,0,0,0,0,0,0,0,
223,85.46,104.8,48.46,-10.74,111.9,88.89,66.79,-0.9545,81.84,65.85,83.89,110.6,128,144.7,129.7,152.8,0,0,0,0,0,0,0,0,0,0,0,0,0,0,0,0,
224,75.62,94.05,30.29,-26.9,44.64,63.02,60.73,33.84,32.8,116.6,57,92.81,88.88,100.1,121.5,137.9,0,0,0,0,0,0,0,0,0,0,0,0,0,0,0,0,
225,58.28,73.25,55.86,1.238,71.05,54.14,51.74,36.31,66,101.6,79.74,105.3,67.02,67.34,100.5,108.5,0,0,0,0,0,0,0,0,0,0,0,0,0,0,0,0,
226,79.41,44.87,70.92,12.07,129.2,63.6,28.08,1.988,100.2,19.38,104.1,102.9,40.87,37.31,78.74,78.23,0,0,0,0,0,0,0,0,0,0,0,0,0,0,0,0,
227,79.79,19.94,41.15,-17.3,75.62,47.97,8.903,9.296,77.65,31.31,99.03,85.34,39.96,47.11,72.55,63.75,0,0,0,0,0,0,0,0,0,0,0,0,0,0,0,0,
228,66.86,40.31,48.17,-7.229,49.43,45.13,37.3,60.8,67.26,100.8,90.14,79.45,58.74,73.75,87.48,75.81,0,0,0,0,0,0,0,0,0,0,0,0,0,0,0,0,
229,54.26,45.64,42.55,-5.85,57.09,40.45,56.58,61.79,44.03,108.9,64.76,63.19,55,62.84,91.66,83.27,0,0,0,0,0,0,0,0,0,0,0,0,0,0,0,0,
230,41.45,51.67,27.87,-6.702,41.71,30.42,60.46,39.15,24.64,104.5,53.82,69.47,82.47,82.39,81.34,79.88,0,0,0,0,0,0,0,0,0,0,0,0,0,0,0,0,
231,34.41,83.07,39.57,12.65,27.53,25.11,67.52,51.65,22.81,64.67,39.36,65.94,97.16,102.3,67.62,84.85,0,0,0,0,0,0,0,0,0,0,0,0,0,0,0,0,
232,27.16,60.21,24.71,0.0666,-0.0932,28.57,70.89,64.55,13.66,38.27,20.14,46.83,74.66,88.39,49.4,94.26,0,0,0,0,0,0,0,0,0,0,0,0,0,0,0,0,
233,52.94,44.65,27.59,-12.4,-0.2651,34.35,66.39,30.29,19.13,99.32,38.77,67.34,83.31,94.34,44.51,103.1,0,0,0,0,0,0,0,0,0,0,0,0,0,0,0,0,
234,57.66,64.68,37.21,-14.46,34.37,-1.008,29.27,-17.59,19.21,87.29,49,79.63,92.05,100.3,61.76,113.3,0,0,0,0,0,0,0,0,0,0,0,0,0,0,0,0,
235,21.76,63.07,10.45,-11.27,61.57,-2.823,22.02,14.95,20.1,34,58.09,80.54,93.87,105.6,92.48,128,0,0,0,0,0,0,0,0,0,0,0,0,0,0,0,0,
236,30.24,75.93,12.68,-12.26,52.41,37.3,45.83,51.37,20.97,64.78,69.96,81.06,91.65,102.6,111.5,130.9,0,0,0,0,0,0,0,0,0,0,0,0,0,0,0,0,
237,28.85,68.74,24.45,-41.56,-7.616,6.591,17.88,13.82,-7.245,59.25,51.52,60.76,66.48,81.33,104.3,113.1,0,0,0,0,0,0,0,0,0,0,0,0,0,0,0,0,
238,8.862,33.35,11.3,-22.13,-24.71,-9.311,3.707,16.29,-3.755,16.05,60.72,64.03,51.66,74.17,104.5,105.1,0,0,0,0,0,0,0,0,0,0,0,0,0,0,0,0,
239,25.65,20.52,-7.958,-0.8076,3.983,21.46,12.69,19.06,19.98,10.69,61.7,61.68,27.75,46.56,107.4,100.1,0,0,0,0,0,0,0,0,0,0,0,0,0,0,0,0,
240,18.78,5.186,-18.77,-44.19,-2.018,7.268,2.517,-25.58,31.21,22.11,25.11,46.57,17.93,30.34,80.89,79.08,0,0,0,0,0,0,0,0,0,0,0,0,0,0,0,0,
241,19.34,19.42,-9.616,-36.82,3.231,-1.576,22.7,-9.97,61.53,47.7,30,61.02,45.07,54.52,49.46,67.74,0,0,0,0,0,0,0,0,0,0,0,0,0,0,0,0,
242,43.07,41.69,-38.19,-21.86,3.856,-13.31,22.75,4.614,46.68,30.99,33.32,51.84,41.35,47.45,32.87,67.59,0,0,0,0,0,0,0,0,0,0,0,0,0,0,0,0,
243,27.21,19.36,-64.81,-44.59,-1.113,-42.91,-4.413,-15.76,5.753,-7.662,20.16,44.76,49.63,55.54,37.06,76.15,0,0,0,0,0,0,0,0,0,0,0,0,0,0,0,0,
244,20.54,21.99,-25.17,-28.07,42.86,-25.28,3.126,-7.686,25.98,10.96,41.07,65.89,75.68,80.61,70.74,102.2,0,0,0,0,0,0,0,0,0,0,0,0,0,0,0,0,
245,23.97,23.04,-32.92,-45.16,35.48,-13.54,-12.7,-29.99,39.63,16.92,51.5,53.46,49.46,50.17,101.6,116.6,0,0,0,0,0,0,0,0,0,0,0,0,0,0,0,0,
246,13.24,-10.67,-69.72,-71.48,-17.17,-28.84,-39.51,-53.94,10.39,0.9892,44.67,40.47,31.87,36.01,102.3,104.9,0,0,0,0,0,0,0,0,0,0,0,0,0,0,0,0,
247,18.23,-5.622,-41.57,-32.85,1.132,-22.27,-20.81,-23.13,1.189,23.73,47.92,47.02,43.55,59.66,87.42,90.8,0,0,0,0,0,0,0,0,0,0,0,0,0,0,0,0,
248,21.99,23.97,-15.48,-24.4,37.97,-1.623,2.764,-8.787,35.79,21.65,61.27,51.09,44.85,61.42,79.74,87.63,0,0,0,0,0,0,0,0,0,0,0,0,0,0,0,0,
249,29.81,28.39,-14.16,-41.72,36.64,12.17,0.1822,-27.38,57.14,-28.66,62.48,53.19,35.33,38.04,73.6,78.04,0,0,0,0,0,0,0,0,0,0,0,0,0,0,0,0,
250,31.66,9.806,-12.24,-26.88,29.57,7.909,-4.948,-25.07,42.75,-16.66,36.4,48.81,26.39,25.82,49.94,49.83,0,0,0,0,0,0,0,0,0,0,0,0,0,0,0,0,
251,31.59,16.48,-0.6171,-4.274,35.67,21.59,23.93,4.635,61.06,45.86,44.04,68.21,44.47,47.09,32.28,35.15,0,0,0,0,0,0,0,0,0,0,0,0,0,0,0,0,
252,60.72,44.97,8.692,-9.002,32.46,36.85,38.38,-0.1938,56.61,12.01,65.54,74.57,42.88,40.23,34.35,38.46,0,0,0,0,0,0,0,0,0,0,0,0,0,0,0,0,
253,55.81,35.14,-8.726,-35.48,28.14,20.76,29.99,-5.616,13.48,-25.8,51.92,51.04,30.75,31.32,38.07,35.28,0,0,0,0,0,0,0,0,0,0,0,0,0,0,0,0,
254,44.57,50.34,2.87,-12.84,57.07,47.26,67.6,44.17,48.08,44.75,61.95,70.4,70.81,79.37,56.47,44.69,0,0,0,0,0,0,0,0,0,0,0,0,0,0,0,0,
255,79.39,81.04,18.75,15.59,56.29,76.46,63.54,22.64,59.74,43,76.56,89.11,83.17,88.03,84.06,66.7,0,0,0,0,0,0,0,0,0,0,0,0,0,0,0,0,
256,84.38,48.45,-1.054,-5.35,35.42,55.35,14.97,-34.77,25.36,4.579,73.98,87.84,73.17,73.73,97.41,78.55,0,0,0,0,0,0,0,0,0,0,0,0,0,0,0,0,
257,77.86,49.32,15.61,-4.261,60.17,56.51,34.58,1.417,64.51,68.11,69.71,95.13,84.11,83.02,95.57,76.22,0,0,0,0,0,0,0,0,0,0,0,0,0,0,0,0,
258,81.42,65.04,19.42,-13.04,46.6,50.12,37.14,10.73,42.35,61.21,26.69,61.62,54.16,54.54,64.64,51.93,0,0,0,0,0,0,0,0,0,0,0,0,0,0,0,0,
259,68.07,32.56,-2.61,-27.67,28.3,36.92,22.15,9.65,-11.22,8.847,7.755,34.11,41.1,50.17,23.82,31.42,0,0,0,0,0,0,0,0,0,0,0,0,0,0,0,0,
260,71.2,42.15,7.465,0.3293,66.78,54.04,51.31,61.06,65.87,45.37,31.13,35.23,44.22,56.87,9.172,28.95,0,0,0,0,0,0,0,0,0,0,0,0,0,0,0,0,
261,66.13,35.33,-19.11,-13.38,52.02,42.54,25.38,20.99,102.6,38.35,34.3,24.54,-3.48,5.532,8.123,12.3,0,0,0,0,0,0,0,0,0,0,0,0,0,0,0,0,
262,60.78,-22.15,-32.5,-31.95,28.24,36.42,-16.75,-41.97,36.41,1.326,54.07,41.11,-13.16,-4.617,16.08,-1.715,0,0,0,0,0,0,0,0,0,0,0,0,0,0,0,0,
263,68.09,-23.42,-1.894,-22.89,53.95,51.61,1.167,-9.293,13.12,38.14,57.68,47.49,23.74,39.52,29.04,14.88,0,0,0,0,0,0,0,0,0,0,0,0,0,0,0,0,
264,36.34,3.859,-34.66,-60.98,47.98,44.19,7.549,2.424,14.74,59.42,19.64,22.89,42.88,65.57,23.82,38.93,0,0,0,0,0,0,0,0,0,0,0,0,0,0,0,0,
265,17.95,9.277,-59.5,-66.9,10.98,36.9,-17.32,-42.91,-13.18,15.29,3.123,11.84,36.91,50.12,1.572,38.25,0,0,0,0,0,0,0,0,0,0,0,0,0,0,0,0,
266,14.35,5.334,-34.15,-21.41,-47.95,7.178,-18.94,-34.62,-30.89,-10.36,-15.75,-8.118,15.08,14.42,-21.12,8.594,0,0,0,0,0,0,0,0,0,0,0,0,0,0,0,0,
267,-13.8,18.36,-41.66,-14.02,-69.23,-17.51,34.36,48.31,-7.909,32.9,-34.68,-11.52,26.73,24.86,-24.8,-6.94,0,0,0,0,0,0,0,0,0,0,0,0,0,0,0,0,
268,-8.561,37.94,-63.17,-30.54,-11.94,-0.8595,48.68,52.17,-4.875,41.97,-36.57,-2.617,31.17,30.26,-18.27,4.924,0,0,0,0,0,0,0,0,0,0,0,0,0,0,0,0,
269,2.061,6.797,-71.67,-36.95,-3.068,-2.994,-18.26,-37.24,-25.9,-14.45,-33.79,-7.94,5.34,7.092,-17.5,13.51,0,0,0,0,0,0,0,0,0,0,0,0,0,0,0,0,
270,-1.595,-10.34,-70.12,-26.18,-30.95,-7.712,-37.7,-54.39,0.8836,-18.54,-8.71,9.87,8.903,12.7,-0.4538,22.57,0,0,0,0,0,0,0,0,0,0,0,0,0,0,0,0,
271,-4.893,-5.338,-80.7,-47.38,-15.48,-27.51,-42.64,-61.31,-7.462,-24.18,-13.41,1.019,-17.32,-21.78,15.34,16.43,0,0,0,0,0,0,0,0,0,0,0,0,0,0,0,0,
272,-33.87,-54.75,-91.51,-86.4,-8.028,-68.25,-75.92,-93.7,-44.27,-62.55,-24.72,-19.86,-47.16,-50.66,2.682,-13.82,0,0,0,0,0,0,0,0,0,0,0,0,0,0,0,0,
273,-26.64,-55.58,-59.14,-55.09,-0.3031,-39.92,-35.66,-47.16,12.81,-18.36,9.335,-0.7745,-13.94,-1.567,-8.606,-15.95,0,0,0,0,0,0,0,0,0,0,0,0,0,0,0,0,
274,-0.6808,-3.581,-63,-39.04,17.37,1.146,4.839,-29.05,50.19,28.8,4.176,-12.77,0.0547,18.82,-11.27,13.59,0,0,0,0,0,0,0,0,0,0,0,0,0,0,0,0,
275,-3.857,-1.375,-91.01,-69.45,21.86,-2.504,-16.07,-60.55,26.59,-13.35,-6.966,-21.71,3.606,17.75,-6.024,38.91,0,0,0,0,0,0,0,0,0,0,0,0,0,0,0,0,
276,17.83,-15.07,-57.77,-58.51,25.54,-13.42,-42.93,-58.66,26.16,-70.97,15.58,-2.351,-0.7124,9.265,10.79,41.96,0,0,0,0,0,0,0,0,0,0,0,0,0,0,0,0,
277,13.25,-43.75,-57.11,-55.27,14.82,-35.71,-68.85,-72.12,-8.463,-75.32,0.4336,-8.64,-39.93,-35.26,7.632,10.74,0,0,0,0,0,0,0,0,0,0,0,0,0,0,0,0,
278,-16.58,-56.01,-97.81,-67.24,-9.181,-38.59,-55.56,-70.81,-41.17,-33,-19.32,-4.65,-39.26,-39.02,-16.32,-25.31,0,0,0,0,0,0,0,0,0,0,0,0,0,0,0,0,
279,-20.23,-33.89,-106,-73.12,-42.4,-55.96,-48.64,-65.85,-35.64,-40.09,-35.15,-15.68,-33.13,-32.31,-35.84,-38.15,0,0,0,0,0,0,0,0,0,0,0,0,0,0,0,0,
280,-52.95,-51.34,-99.79,-92.6,-58.18,-97.23,-74.23,-77.2,-58.66,-64.06,-52.34,-45.76,-41.69,-43.79,-40.88,-36.63,0,0,0,0,0,0,0,0,0,0,0,0,0,0,0,0,
281,-68.48,-48.07,-82.86,-86.4,-49.88,-72,-49.43,-45.23,-59.11,-20.46,-47.26,-52.14,-25.9,-34.46,-35.96,-30.08,0,0,0,0,0,0,0,0,0,0,0,0,0,0,0,0,
282,-57.93,-29.75,-90.78,-89.36,-76.3,-54.49,-53.59,-77.05,-37.38,-34,-71.51,-77.9,-39.66,-48.44,-48.89,-34.74,0,0,0,0,0,0,0,0,0,0,0,0,0,0,0,0,
283,-70.57,-64.52,-104.1,-93.89,-62.8,-74.18,-94.94,-140.2,-56.86,-86.09,-85.21,-76.64,-48.4,-60.25,-70.86,-48.52,0,0,0,0,0,0,0,0,0,0,0,0,0,0,0,0,
284,-47.91,-60.64,-79.46,-56.81,-4.553,-51.82,-58.37,-77.14,-77.25,-43.86,-67.86,-41.66,-37.88,-54.66,-74.27,-59.96,0,0,0,0,0,0,0,0,0,0,0,0,0,0,0,0,
285,-28.35,-31.96,-82.62,-61.4,-36.8,-38.81,-19.78,-18.96,-73.83,-26.94,-73.01,-44.61,-59.56,-68.9,-70.89,-74.44,0,0,0,0,0,0,0,0,0,0,0,0,0,0,0,0,
286,-28.43,-37.65,-78.88,-77.78,-56.7,-31.1,-36.18,-57.07,-58.38,-95.17,-46.71,-32.52,-60.98,-65.04,-58.31,-75.8,0,0,0,0,0,0,0,0,0,0,0,0,0,0,0,0,
287,-4.114,-43.9,-52.82,-65.26,-11.37,-13.87,-59.66,-99.89,-45.29,-117.6,-22.37,-17.45,-52.45,-58.31,-39.02,-59.37,0,0,0,0,0,0,0,0,0,0,0,0,0,0,0,0,
288,-18.37,-62.92,-78.42,-82.19,-34.24,-37.58,-65.58,-95.64,-52.94,-74.42,-56.02,-40.27,-60.29,-61.6,-41.26,-50.85,0,0,0,0,0,0,0,0,0,0,0,0,0,0,0,0,
289,-48.15,-70.09,-106.4,-90.21,-84.78,-65.58,-56.43,-67.74,-86.15,-63.02,-85.22,-66.23,-56.95,-53.1,-67.54,-61.14,0,0,0,0,0,0,0,0,0,0,0,0,0,0,0,0,
290,-74.01,-66.48,-130.7,-103.3,-105.7,-94.21,-84.87,-97.42,-119.1,-91.57,-103.3,-97.37,-58.11,-50.13,-97.43,-77.72,0,0,0,0,0,0,0,0,0,0,0,0,0,0,0,0,
291,-122.6,-81.68,-156.8,-130.5,-109.2,-125.5,-110.4,-120.1,-102,-74.51,-101.9,-98.68,-49.93,-46.12,-104.3,-80.28,0,0,0,0,0,0,0,0,0,0,0,0,0,0,0,0,
292,-125.7,-73.04,-143,-108.1,-103.6,-134,-89.71,-74.19,-90.49,-47.33,-97.35,-89.04,-60.5,-72.28,-100.6,-89.16,0,0,0,0,0,0,0,0,0,0,0,0,0,0,0,0,
293,-112.7,-69.05,-137.3,-90.06,-115,-139.2,-97.43,-88.45,-118.5,-73.48,-116.8,-109.5,-95.67,-105.3,-116.6,-119.2,0,0,0,0,0,0,0,0,0,0,0,0,0,0,0,0,
294,-115.6,-83.84,-112.9,-86.93,-92.22,-111.1,-100.4,-116.6,-102.5,-81.57,-103.1,-104.3,-90.71,-88.11,-130.3,-129,0,0,0,0,0,0,0,0,0,0,0,0,0,0,0,0,
295,-100.8,-81.17,-83.94,-82.84,-72.55,-81.19,-70.56,-69.23,-96.21,-73.07,-102,-109.8,-99.42,-100.1,-136.7,-125.8,0,0,0,0,0,0,0,0,0,0,0,0,0,0,0,0,
296,-111.1,-88.24,-134.3,-116.1,-114.1,-95.67,-81.48,-75.06,-123.2,-97.06,-110.9,-122.1,-115.9,-116,-138.6,-131.5,0,0,0,0,0,0,0,0,0,0,0,0,0,0,0,0,
297,-108.4,-94.42,-149.3,-116.6,-112.9,-93.02,-112.2,-129.8,-87.3,-109.6,-54.89,-80.1,-87.89,-82.22,-108.9,-116.9,0,0,0,0,0,0,0,0,0,0,0,0,0,0,0,0,
298,-81.55,-99.29,-109.7,-88.57,-100.6,-99.84,-125.9,-127.7,-74.12,-104,-52.22,-79.22,-94.47,-89.81,-85.5,-101.9,0,0,0,0,0,0,0,0,0,0,0,0,0,0,0,0,
299,-107.7,-114.7,-128.2,-113.1,-133.5,-132.3,-135.1,-131.6,-126.5,-114.9,-111.3,-119.3,-112.6,-105.7,-104.2,-113,0,0,0,0,0,0,0,0,0,0,0,0,0,0,0,0,
300,-137,-104.9,-138.6,-133.4,-131.2,-133.5,-141,-166.3,-135,-130.7,-101.7,-108.7,-87.87,-82.54,-117.4,-118.6,0,0,0,0,0,0,0,0,0,0,0,0,0,0,0,0,
301,-127.9,-90.82,-109.8,-112,-128.1,-139.5,-137.8,-136.9,-124.7,-122.2,-71.5,-79.46,-74.24,-79.32,-101.2,-109.2,0,0,0,0,0,0,0,0,0,0,0,0,0,0,0,0,
302,-110.1,-92.82,-124.3,-107,-140.8,-164.4,-135.7,-99.85,-135.6,-118.9,-70.25,-67.84,-85.66,-96.47,-79.08,-103.1,0,0,0,0,0,0,0,0,0,0,0,0,0,0,0,0,
303,-105.5,-107.3,-167.4,-134.5,-111.9,-170.3,-150.1,-142.8,-113.6,-126.2,-67.85,-77.79,-104.2,-110.6,-74.35,-110.6,0,0,0,0,0,0,0,0,0,0,0,0,0,0,0,0,
304,-119.8,-117.4,-154.4,-127,-78.67,-141.7,-134.9,-141.1,-72.68,-90.62,-68.2,-92.18,-108.3,-102.7,-93.36,-122.8,0,0,0,0,0,0,0,0,0,0,0,0,0,0,0,0,
305,-112,-103.5,-109.6,-87.36,-80.32,-104.6,-111.9,-94.37,-76.77,-91.44,-89.8,-106.7,-118.2,-110.3,-125.4,-130.4,0,0,0,0,0,0,0,0,0,0,0,0,0,0,0,0,
306,-99.11,-114.4,-112.5,-92.32,-88.94,-95.86,-127.5,-110.3,-84.24,-127,-111.7,-123.5,-134.3,-142.6,-154.3,-144.1,0,0,0,0,0,0,0,0,0,0,0,0,0,0,0,0,
307,-93.13,-101.9,-102.6,-82.51,-59.34,-71.49,-91.67,-89.83,-45.91,-78.04,-90.63,-103.4,-105,-125,-158.6,-156,0,0,0,0,0,0,0,0,0,0,0,0,0,0,0,0,
308,-71.32,-47.47,-80.04,-52.7,-54.31,-65.88,-59.85,-54.36,-47.1,-86.89,-76.74,-90.09,-100.3,-118,-142.8,-153.9,0,0,0,0,0,0,0,0,0,0,0,0,0,0,0,0,
309,-81.75,-74.4,-120.3,-95.37,-121.2,-117.2,-109.4,-88.51,-78.86,-157.7,-84.41,-93.84,-115.7,-130.8,-123.5,-135.5,0,0,0,0,0,0,0,0,0,0,0,0,0,0,0,0,
310,-93.88,-95.33,-136.5,-126.8,-135,-113.2,-107,-94.91,-93.57,-103.3,-62.17,-68.63,-76.4,-90.59,-100.9,-102.7,0,0,0,0,0,0,0,0,0,0,0,0,0,0,0,0,
311,-93.87,-54.02,-135,-106.7,-110.2,-97.86,-84.78,-92.14,-146.8,-59.55,-64.69,-75.09,-75.76,-80.55,-96.95,-88.46,0,0,0,0,0,0,0,0,0,0,0,0,0,0,0,0,
312,-118.1,-70.2,-155.6,-91.87,-126.9,-128,-102.6,-88.39,-114.4,-72.82,-66.51,-70.58,-89.16,-80.05,-101.4,-87.54,0,0,0,0,0,0,0,0,0,0,0,0,0,0,0,0,
313,-85.85,-85.68,-118.1,-74.66,-107.1,-111.1,-94.56,-64.45,0.8504,-64.65,-26.5,-26.12,-70.96,-58.35,-74.82,-71.13,0,0,0,0,0,0,0,0,0,0,0,0,0,0,0,0,
314,-50.3,-88.14,-99.12,-80.73,-76.11,-95.74,-109.7,-108.9,-33.17,-96.08,-28.13,-39.44,-101,-93.85,-46.18,-72.38,0,0,0,0,0,0,0,0,0,0,0,0,0,0,0,0,
315,-74.58,-103,-101.9,-64.91,-59.1,-90.62,-96.65,-103.2,-83.33,-61.23,-33.75,-43.36,-103.1,-103.6,-46.88,-96.64,0,0,0,0,0,0,0,0,0,0,0,0,0,0,0,0,
316,-56.62,-57.54,-47.78,-19.07,-12.14,-51.07,-29.67,-27.47,-35.29,-31.54,-25.95,-26.87,-79.35,-88.61,-68.45,-115.4,0,0,0,0,0,0,0,0,0,0,0,0,0,0,0,0,
317,-51.2,-40.14,-50.95,-30.33,-10.27,-50.62,-38.95,-48.68,-45.72,-133.7,-42.08,-49.62,-87.87,-96.73,-87.47,-118.3,0,0,0,0,0,0,0,0,0,0,0,0,0,0,0,0,
318,-78.8,-52.54,-83.93,-32.63,-48.58,-57.47,-61.57,-63.79,-47.35,-100.2,-23.6,-30.92,-48.1,-48.84,-66.88,-82.42,0,0,0,0,0,0,0,0,0,0,0,0,0,0,0,0,
319,-60.33,-23.58,-71.43,-38.94,-61.13,-56.55,-64.28,-59.42,-15.32,-9.777,-25.15,-21.16,-37.21,-40.59,-36.8,-43.65,0,0,0,0,0,0,0,0,0,0,0,0,0,0,0,0,
320,-60.18,-48.11,-76.96,-86.09,-56.45,-77.79,-92.94,-106.6,-33.49,-87.97,-49.75,-44.65,-67.3,-78.89,-37.26,-48.08,0,0,0,0,0,0,0,0,0,0,0,0,0,0,0,0,
321,-59.83,-66.01,-63.64,-55.1,-44.91,-51.96,-69.43,-72.24,-33.6,-95.91,-17.71,-15.74,-26.93,-33.87,-31.64,-48.73,0,0,0,0,0,0,0,0,0,0,0,0,0,0,0,0,
322,-32.81,-25.39,-58,-26.79,-58.04,-27.23,-46.3,-26.48,-37.17,-40.28,-19.44,-10.57,-18.86,-19.17,-19.07,-32.96,0,0,0,0,0,0,0,0,0,0,0,0,0,0,0,0,
323,-41.5,-37.24,-86.54,-50.48,-55.55,-46.07,-60.21,-55.92,-62.17,-73.39,-44.62,-28.68,-57.82,-67.9,-27.43,-38.83,0,0,0,0,0,0,0,0,0,0,0,0,0,0,0,0,
324,-38.16,-56.86,-60.56,-17.84,-33.82,-51.72,-42.24,-43.58,-62.34,-51.25,-25.12,-8.996,-45.04,-63.54,-40.78,-52.93,0,0,0,0,0,0,0,0,0,0,0,0,0,0,0,0,
325,-22.76,-38.01,-38.18,-12.46,-77.22,-59.53,-43.7,-17.26,-55.97,-9.695,-18.07,-3.37,-20.47,-32.76,-39.65,-47.81,0,0,0,0,0,0,0,0,0,0,0,0,0,0,0,0,
326,-34.06,-23.66,-54.59,-37.89,-97.31,-58.59,-57.5,-31.8,-19.28,-37.64,-11.74,-7.432,-16.03,-29.41,-23.03,-32.62,0,0,0,0,0,0,0,0,0,0,0,0,0,0,0,0,
327,-40.79,-18.63,-53.64,-12.69,-69.43,-48.92,-43.41,-50.22,-17.44,-26.33,-20.74,-26,-38.61,-55.84,-26.05,-43.49,0,0,0,0,0,0,0,0,0,0,0,0,0,0,0,0,
328,-46.39,-31.75,-47.26,-0.0675,-90.58,-44.94,-34.47,-42.38,-76.31,-8.233,-59.74,-59.33,-68.35,-74.02,-65.73,-80.63,0,0,0,0,0,0,0,0,0,0,0,0,0,0,0,0,
329,-55.04,-44.98,-36.07,1.877,-87.23,-35.31,-27.54,-17.13,-62.46,-61.3,-64.25,-61.04,-71.65,-69.28,-92.11,-97.9,0,0,0,0,0,0,0,0,0,0,0,0,0,0,0,0,
330,-80.06,-50.99,-44.58,-1.683,-49.72,-73.2,-36.61,-30.26,-38.29,-68.76,-51.08,-42.16,-60.9,-60.65,-74.8,-77.37,0,0,0,0,0,0,0,0,0,0,0,0,0,0,0,0,
331,-91.93,-44.49,-56.87,-20.08,-49.19,-102.5,-53.09,-41.73,-76.05,-12.8,-37.41,-16.25,-43.25,-44.22,-38.12,-45.43,0,0,0,0,0,0,0,0,0,0,0,0,0,0,0,0,
332,-66.02,-39.84,-40.46,-10.02,-56.1,-69.86,-67.45,-39.77,-75.71,-45.67,-46.87,-35.64,-65.2,-68.82,-31.25,-50.57,0,0,0,0,0,0,0,0,0,0,0,0,0,0,0,0,
333,-88.72,-80.98,-47.51,0.6286,-62.37,-63.53,-81.59,-65.96,-50.14,-75.32,-74.34,-77.1,-79.7,-83.62,-58.22,-84.82,0,0,0,0,0,0,0,0,0,0,0,0,0,0,0,0,
334,-105.6,-70.29,-37.32,6.234,-58.37,-58.31,-41.75,-41.93,-47.05,-10.49,-38.69,-38.7,-19.91,-26.04,-57.93,-81.18,0,0,0,0,0,0,0,0,0,0,0,0,0,0,0,0,
335,-55.26,-10.05,-4.418,6.481,-48.09,-41.66,-18.63,-20.42,-41.67,-56.79,-17.56,-9.535,-17.54,-34.8,-38.98,-61.18,0,0,0,0,0,0,0,0,0,0,0,0,0,0,0,0,
336,-34.81,-29.32,-2.923,-2.439,-36.87,-41.58,-51.19,-56.78,-16.49,-118.5,-35.18,-11.68,-44.91,-67.62,-39.19,-65.55,0,0,0,0,0,0,0,0,0,0,0,0,0,0,0,0,
337,-15.24,-33.28,24.59,21.7,4.336,-15.05,-39.67,-36.47,2.112,-26.79,5.761,27.24,0.9484,-18.23,-24.26,-54.34,0,0,0,0,0,0,0,0,0,0,0,0,0,0,0,0,
338,-5.813,-3.534,40.97,18.28,10.37,-21.22,-32.38,-22.55,-15.93,-19.37,13.95,14.26,7.903,-7.54,-2.954,-31.12,0,0,0,0,0,0,0,0,0,0,0,0,0,0,0,0,
339,-55.22,-24.82,31.39,-3.987,-17.77,-38.63,-41.38,-50.04,-22.9,-52.99,-32.43,-24.46,-6.532,-19.35,-11.16,-23.65,0,0,0,0,0,0,0,0,0,0,0,0,0,0,0,0,
340,-53.85,-18.88,51.12,29.95,-18.03,-5.744,-6.776,-23.93,-46.19,29.19,-48.89,-20.63,-3.934,-15.25,-32.61,-27.9,0,0,0,0,0,0,0,0,0,0,0,0,0,0,0,0,
341,-28.27,-16.28,18.86,45.35,-42.62,-18.39,-0.1415,-12.12,-104.9,17.39,-58.68,-26.47,-40.11,-48.48,-50.57,-47.96,0,0,0,0,0,0,0,0,0,0,0,0,0,0,0,0,
342,-26.7,-44.41,-10.58,49.16,-58.52,-31.24,-9.397,-20.19,-71.67,-45.64,-36.48,-1.417,-31.43,-39.85,-44.32,-54.63,0,0,0,0,0,0,0,0,0,0,0,0,0,0,0,0,
343,4.116,-25.13,31.39,68.14,-26.39,0.2865,-3.533,10.98,-9.604,-10.77,-1.845,24.56,-0.4868,-13.08,-17.28,-34.89,0,0,0,0,0,0,0,0,0,0,0,0,0,0,0,0,
344,-6.778,-20.08,18.1,44.16,-22.52,-21.11,-22.89,17.33,-30.92,-16.41,-14.43,-5.269,-24.3,-33.59,-7.912,-30.09,0,0,0,0,0,0,0,0,0,0,0,0,0,0,0,0,
345,-51.15,-44.89,-18.66,32.52,-42.48,-50.44,-38.21,-24.26,-44.1,-63.1,-25.06,-14.55,-36.03,-41.03,-14.12,-43.7,0,0,0,0,0,0,0,0,0,0,0,0,0,0,0,0,
346,-57.34,-54.75,3.668,43.57,-49.57,-49.07,-48.14,-56.48,-37.85,-51.8,-30.5,-15.11,-37.37,-47.94,-21.85,-59.23,0,0,0,0,0,0,0,0,0,0,0,0,0,0,0,0,
347,-60.29,-54.44,37.65,50.43,-39.37,-40.19,-37.81,-18.06,-23.23,-21.34,-40.88,-30.98,-36.13,-51.35,-32.52,-73.53,0,0,0,0,0,0,0,0,0,0,0,0,0,0,0,0,
348,-50.3,-19.61,49.97,77.13,-35.16,-13.51,-7.242,18.49,-1.786,-39.28,-45.73,-28.78,-20.28,-32.19,-39.39,-72.75,0,0,0,0,0,0,0,0,0,0,0,0,0,0,0,0,
349,-35.98,-6.933,28.06,60.26,-47.15,-20.52,-28.29,-35.54,-48.94,-76.09,-59.39,-26.06,-26.35,-34.16,-42.52,-55.99,0,0,0,0,0,0,0,0,0,0,0,0,0,0,0,0,
350,-49.34,-34.42,23.56,17.14,-14.41,-47.78,-39.34,-45.49,-84.37,-14.37,-57.94,-31.52,-36.24,-39.93,-48.56,-45.31,0,0,0,0,0,0,0,0,0,0,0,0,0,0,0,0,
351,-63.43,-33.28,36.29,21.96,-3.518,-44.48,-16.44,4.412,-50.72,54.72,-61.14,-53.11,-49.77,-41.78,-65.18,-57.99,0,0,0,0,0,0,0,0,0,0,0,0,0,0,0,0,
352,-66.53,-49.31,5.353,31.92,-67.35,-43.1,-49.62,-29.51,-46.82,-28.16,-73.97,-65.38,-66.16,-51.33,-78.15,-70.86,0,0,0,0,0,0,0,0,0,0,0,0,0,0,0,0,
353,-53.84,-91.52,-3.595,25.64,-71.08,-58.33,-93.81,-86.43,-57.59,-108,-59.81,-46.66,-60.43,-59.5,-66.18,-60.15,0,0,0,0,0,0,0,0,0,0,0,0,0,0,0,0,
354,-53.39,-99.38,19.75,16.91,-36.57,-79.96,-95.1,-80.15,-51.69,-72.75,-59.83,-46.8,-60.49,-70.95,-52.79,-51.12,0,0,0,0,0,0,0,0,0,0,0,0,0,0,0,0,
355,-73.34,-82.14,11.06,13.65,-58.01,-81.83,-77.49,-50.22,-84.2,-55.64,-79.26,-61.37,-63.56,-67.44,-59.99,-55.39,0,0,0,0,0,0,0,0,0,0,0,0,0,0,0,0,
356,-91.47,-73.07,-21.52,1.621,-91.13,-82.78,-75.28,-64.06,-138.6,-89.77,-108,-87.07,-73.5,-73.21,-84.9,-65.93,0,0,0,0,0,0,0,0,0,0,0,0,0,0,0,0,
357,-132.1,-89.89,-44.79,-12.79,-107,-109.7,-98.44,-108.4,-126.8,-89.7,-142.9,-117.2,-87.3,-88.5,-115.6,-81.93,0,0,0,0,0,0,0,0,0,0,0,0,0,0,0,0,
358,-137.3,-90.75,-3.999,35.26,-85.46,-97,-81.73,-72.37,-71.21,-53.78,-133.7,-105.1,-71.53,-73.13,-122.3,-86.17,0,0,0,0,0,0,0,0,0,0,0,0,0,0,0,0,
359,-96.41,-74.61,32.41,61.14,-74.72,-75.66,-47.22,-22.74,-89.2,-36.64,-124,-100.2,-72.49,-78.06,-113.4,-88.31,0,0,0,0,0,0,0,0,0,0,0,0,0,0,0,0,
360,-91.14,-84.34,-3.453,23.44,-106.5,-84.37,-53.84,-51.66,-116.3,-42.18,-128.4,-100.6,-80.48,-91.68,-112.9,-100.1,0,0,0,0,0,0,0,0,0,0,0,0,0,0,0,0,
361,-72.19,-78.73,9.64,67.02,-84.03,-63.24,-55.1,-40.79,-89.43,-83.05,-106.5,-79.54,-74.22,-86.92,-109.1,-103,0,0,0,0,0,0,0,0,0,0,0,0,0,0,0,0,
362,-65.99,-84.14,53.46,135,-55.66,-66.56,-58.48,-4.637,-110.3,-133.8,-105.2,-95.76,-101.5,-107.9,-105.5,-106.7,0,0,0,0,0,0,0,0,0,0,0,0,0,0,0,0,
363,-111.1,-112.7,75.41,172.5,-59.59,-78.18,-57.43,-11.11,-94.09,-94.72,-94.82,-90.61,-103.8,-105.8,-103.5,-113.6,0,0,0,0,0,0,0,0,0,0,0,0,0,0,0,0,
364,-88.16,-89.27,171.5,285.2,4.226,-14.6,-6.628,36.46,-19.76,-43.65,-74.3,-60.26,-82.92,-91.46,-101,-114.2,0,0,0,0,0,0,0,0,0,0,0,0,0,0,0,0,
365,-51.57,-70.91,270.6,399.5,39.53,28.12,37.62,119.5,-69.86,-63.14,-106.9,-86.43,-95.39,-105.2,-116.4,-125.3,0,0,0,0,0,0,0,0,0,0,0,0,0,0,0,0,
366,-83.26,-72.85,281.7,459.3,-19.8,12.29,42.04,126.6,-137.7,-59.57,-117.1,-98.91,-82.99,-87.77,-133.8,-139.3,0,0,0,0,0,0,0,0,0,0,0,0,0,0,0,0,
367,-97.81,-45.67,288.9,525.2,-12.8,7.326,35.78,94.35,-90.06,-63.39,-99.82,-82.12,-61.92,-70.26,-132.3,-136.1,0,0,0,0,0,0,0,0,0,0,0,0,0,0,0,0,
368,-77.49,-38.39,346.6,579.4,68.17,33.27,49.03,125.8,-38.53,-58.28,-105.5,-73.24,-52.84,-65.02,-119.4,-110.3,0,0,0,0,0,0,0,0,0,0,0,0,0,0,0,0,
369,-44.68,-40.49,412.4,598.8,75.3,67.29,70.94,184.8,-30.95,17.55,-100.5,-64.74,-45.83,-54.49,-105.4,-79.48,0,0,0,0,0,0,0,0,0,0,0,0,0,0,0,0,
370,-32.22,-50.44,428.6,583.7,53.44,74.65,69,191.3,-54.81,1.342,-91.86,-80.67,-80.06,-81.08,-104.5,-84.84,0,0,0,0,0,0,0,0,0,0,0,0,0,0,0,0,
371,-31.24,-71.51,435.6,577.6,132.2,110.9,96.45,201.4,-42.95,-68.96,-56.27,-63.42,-86.16,-81.38,-97.48,-105.2,0,0,0,0,0,0,0,0,0,0,0,0,0,0,0,0,
372,10.71,-45.24,430.8,566.5,179.2,158.6,125.4,213.4,32.72,-51.76,-16.55,-17.89,-57.18,-58.41,-72.91,-101.8,0,0,0,0,0,0,0,0,0,0,0,0,0,0,0,0,
373,21.03,-30.2,371.7,490.2,104.7,129.4,90.02,185.4,33.78,-56.49,-37.84,-22.73,-60.55,-72.12,-66.64,-98.29,0,0,0,0,0,0,0,0,0,0,0,0,0,0,0,0,
374,-0.3084,-33.14,374.2,456.1,109.9,117.3,85.26,178.5,-26.62,-53.41,-42.62,-20.81,-39.09,-54.22,-70.27,-94.13,0,0,0,0,0,0,0,0,0,0,0,0,0,0,0,0,
375,7.713,-5.528,377.5,456.9,169.3,126.2,94.49,156.3,-30.69,-5.437,-24.66,-15.18,-16.93,-33.65,-60.43,-77.69,0,0,0,0,0,0,0,0,0,0,0,0,0,0,0,0,
376,-13.48,-18.2,255.9,375.1,119.7,73.47,60.1,118.6,-18.64,-30.53,-32.28,-34.27,-23.69,-40.35,-49.86,-65.86,0,0,0,0,0,0,0,0,0,0,0,0,0,0,0,0,
377,-30.09,-32.04,207.3,318,75.73,49.97,73.57,143.9,-8.9,-31.19,-25.39,-22.53,-1.343,-14.14,-42.13,-54.51,0,0,0,0,0,0,0,0,0,0,0,0,0,0,0,0,
378,-4.007,-1.612,239.1,304.3,93.59,56.23,91.87,133.8,24.48,33.8,-24.62,-12.71,-8.389,-18.02,-50.78,-58.06,0,0,0,0,0,0,0,0,0,0,0,0,0,0,0,0,
379,8.352,-17.61,177.1,243.5,99.28,34.13,45.42,66.36,35.49,-1.522,-25.19,-22.39,-61.83,-71.74,-79.28,-96.97,0,0,0,0,0,0,0,0,0,0,0,0,0,0,0,0,
380,14.48,-60.37,136.1,192.4,96.17,27.99,14.27,58.71,22.47,-83.91,-6.14,-21.04,-80.07,-92.46,-92.02,-132,0,0,0,0,0,0,0,0,0,0,0,0,0,0,0,0,
381,12.3,-57.74,160.8,158.2,83.85,36.21,31.92,92.18,33.42,-69.82,-12.23,-18.06,-63.33,-78.59,-75.02,-124.8,0,0,0,0,0,0,0,0,0,0,0,0,0,0,0,0,
382,3.34,-31.84,129,119.2,68.76,42.81,51.38,96.63,14.49,-37.12,-29.93,-20.94,-59.58,-79.44,-55.54,-105.4,0,0,0,0,0,0,0,0,0,0,0,0,0,0,0,0,
383,-10.91,-32.57,73.99,101.6,50.78,32.85,26.94,55.04,-63.93,-54.48,-46.45,-42.52,-65.81,-93.93,-60.8,-115.9,0,0,0,0,0,0,0,0,0,0,0,0,0,0,0,0,
384,-43.12,-38.6,73.02,76.24,41.08,11.86,0.6168,18.86,-71.75,-41.5,-48.14,-38.99,-31.56,-71.29,-70.09,-128.7,0,0,0,0,0,0,0,0,0,0,0,0,0,0,0,0,
385,-36.37,-12.71,71.72,18.95,50.47,2.3,-0.0319,7.14,-25.44,-22.57,-21.5,-8.142,-12.02,-54.96,-56.84,-116.9,0,0,0,0,0,0,0,0,0,0,0,0,0,0,0,0,
386,-23.82,-29.92,11.63,-44.61,20.4,-30.31,-35.87,-28.04,-43.86,-48.81,-21.14,-20.53,-56.92,-85.32,-49.49,-113.6,0,0,0,0,0,0,0,0,0,0,0,0,0,0,0,0,
387,-37.29,-76.09,-21.1,-59.82,2.03,-42.97,-57.54,-39.21,-37.35,-41.69,-30.41,-24.95,-63.29,-82.93,-62,-117.8,0,0,0,0,0,0,0,0,0,0,0,0,0,0,0,0,
388,-17.7,-65.13,-7.642,-56.09,27.87,-25.18,-46.52,-36.89,0.923,-44.53,-27.99,-12.55,-49.91,-76.32,-76.44,-112.2,0,0,0,0,0,0,0,0,0,0,0,0,0,0,0,0,
389,-18.98,-57.72,-31.64,-92.02,14.84,-36.65,-57.97,-68.89,-11.85,-74.25,-32.98,-28.93,-65.21,-90.91,-83.18,-112.1,0,0,0,0,0,0,0,0,0,0,0,0,0,0,0,0,
390,-29.26,-46.07,-36.58,-101.1,35.03,-6.849,-25.83,-55.37,-7.471,-37.72,-22.15,-32.94,-54.59,-79.97,-77.29,-117.2,0,0,0,0,0,0,0,0,0,0,0,0,0,0,0,0,
391,-8.928,-13.57,-15.97,-88.94,75.48,29.13,12.93,-31.7,-5.87,-62.61,-38.57,-56.62,-75.24,-107.5,-85.09,-137.6,0,0,0,0,0,0,0,0,0,0,0,0,0,0,0,0,
392,-42.56,-36.05,-25.87,-105.3,8.236,-5.21,-11.27,-44.49,-36.57,-143.1,-77.81,-86.42,-102.6,-131.6,-111.2,-163.7,0,0,0,0,0,0,0,0,0,0,0,0,0,0,0,0,
393,-67.55,-46.41,-16.98,-111.1,-50.9,-8.194,-21.65,-37.62,-44.23,-90.58,-74.89,-54.61,-56.05,-86.81,-107.4,-144.4,0,0,0,0,0,0,0,0,0,0,0,0,0,0,0,0,
394,-28.63,-20.21,-26.38,-133.4,-15.69,6.163,-19.68,-37.52,-44.2,-34.08,-52.05,-11.67,-14.27,-58.38,-61.95,-82.79,0,0,0,0,0,0,0,0,0,0,0,0,0,0,0,0,
395,-7.006,-19.35,-66.72,-159.2,21.64,-21.65,-25.83,-34.67,-15,-64.99,-12.98,24.83,7.44,-37.7,-1.852,-16.57,0,0,0,0,0,0,0,0,0,0,0,0,0,0,0,0,
396,-3.553,-15.59,-75.23,-159.1,12.49,-45.17,-39.18,-51.89,-13.57,-69.29,-9.284,32.84,21.11,-16.19,28.85,25.43,0,0,0,0,0,0,0,0,0,0,0,0,0,0,0,0,
397,-7.049,-18.85,-83.67,-181.8,-21.64,-44.67,-65.82,-110.4,-91.51,-56.93,-62.58,3.875,15.41,-13.63,7.781,31.45,0,0,0,0,0,0,0,0,0,0,0,0,0,0,0,0,
398,-1.224,-26.72,-84.79,-188,-24.07,-13.76,-49.8,-89.09,-93.32,-51.34,-63.18,4.323,18.02,1.748,-20.31,25.72,0,0,0,0,0,0,0,0,0,0,0,0,0,0,0,0,
399,0.0305,-34.37,-88.45,-188,-16.29,-12.94,-40.82,-55.31,-46.87,-64.5,-49.25,-7.638,-15.13,-24.65,-39.37,7.579,0,0,0,0,0,0,0,0,0,0,0,0,0,0,0,0,
400,-34.92,-63.98,-107.1,-212.7,-23.65,-39.35,-60.96,-88.88,-60.44,-87.26,-63.49,-27.6,-48.88,-61.78,-63.12,-23.41,0,0,0,0,0,0,0,0,0,0,0,0,0,0,0,0,
401,-24.81,-58.27,-79.61,-199.6,-4.504,-15.16,-38.52,-82.66,-46.5,-67.68,-52.77,-21.14,-38.12,-49.03,-77.26,-34.54,0,0,0,0,0,0,0,0,0,0,0,0,0,0,0,0,
402,-9.217,-44.93,-67.98,-190.7,-6.32,-20.91,-37.24,-78.27,-25.42,-68.38,-64.51,-56.32,-47.32,-51.21,-92.88,-35.09,0,0,0,0,0,0,0,0,0,0,0,0,0,0,0,0,
403,-51.2,-50.52,-84.45,-193.8,-39.48,-52.31,-57.03,-99.42,-53.02,-109.4,-77.47,-74.48,-36.94,-51.79,-108.1,-35.75,0,0,0,0,0,0,0,0,0,0,0,0,0,0,0,0,
404,-60,-34.61,-77.84,-181.5,-52.93,-39.74,-60.78,-98.42,-77.24,-119.2,-72.96,-56.32,-18.44,-56.11,-107.5,-32.94,0,0,0,0,0,0,0,0,0,0,0,0,0,0,0,0,
405,-59.46,-61.31,-95.32,-196.8,-41.21,-46.86,-91.29,-103.2,-55.94,-81.77,-91.82,-67.5,-40.31,-77.3,-110.1,-44.19,0,0,0,0,0,0,0,0,0,0,0,0,0,0,0,0,
406,-57.61,-86.04,-80.04,-187.4,6.977,-43.85,-88.21,-84.05,-7.649,-37.71,-69.24,-52.4,-29.27,-44.32,-103.8,-50.21,0,0,0,0,0,0,0,0,0,0,0,0,0,0,0,0,
407,-25.38,-57.11,-56.18,-190.9,8.517,-37.06,-73.33,-93.76,-36.95,-51.19,-48.19,-43.76,-23.22,-28.13,-82.5,-40.96,0,0,0,0,0,0,0,0,0,0,0,0,0,0,0,0,
408,-39.79,-62.5,-113.6,-229.7,-41.37,-70.45,-92.12,-137.5,-80.54,-51.04,-86.64,-67.16,-49.6,-67.82,-83.88,-52.53,0,0,0,0,0,0,0,0,0,0,0,0,0,0,0,0,
409,-53.53,-64.17,-129.6,-188.6,-27.41,-57.3,-82.43,-113.2,-35.09,-29.87,-104.2,-62.42,-59.33,-93.06,-108.7,-87.58,0,0,0,0,0,0,0,0,0,0,0,0,0,0,0,0,
410,-45.39,-64.57,-99.88,-182.3,-27.87,-41.03,-96.95,-121,-44.94,-116.6,-104.5,-71.41,-75.68,-103.5,-126.9,-114.2,0,0,0,0,0,0,0,0,0,0,0,0,0,0,0,0,
411,-59.23,-86.43,-95.26,-233.9,-45.67,-52.09,-93.29,-133.3,-70.34,-130.6,-96.23,-75.81,-56.93,-74.12,-119.9,-103.9,0,0,0,0,0,0,0,0,0,0,0,0,0,0,0,0,
412,-29.99,-40.46,-71.26,-179.1,8.069,-18.66,-20.73,-52.54,-3.229,-13.49,-79.19,-63.28,-18.19,-37.93,-100.5,-65.43,0,0,0,0,0,0,0,0,0,0,0,0,0,0,0,0,
413,-16.2,-14.98,-71.85,-133.3,18.44,-9.54,-39.07,-57.6,-1.425,-50.12,-70.41,-67.47,-11.81,-35.81,-81.89,-27.88,0,0,0,0,0,0,0,0,0,0,0,0,0,0,0,0,
414,-43.94,-41.32,-82.67,-160.3,-3.77,-25.81,-85.27,-110.8,-35.92,-124.6,-24.84,-26.3,16.61,-18.7,-46.86,1.855,0,0,0,0,0,0,0,0,0,0,0,0,0,0,0,0,
415,-16.86,-12.23,-69.69,-159.9,19.86,-13.58,-38.2,-58.33,-7.472,-64.14,-13.66,-1.971,2.403,-39.33,-26.58,-4.694,0,0,0,0,0,0,0,0,0,0,0,0,0,0,0,0,
416,-0.1141,-8.905,-78.42,-153.3,2.139,-12.62,-26.6,-36,-29.19,-53.2,-65.78,-43.5,-63.75,-84.45,-54.68,-54.12,0,0,0,0,0,0,0,0,0,0,0,0,0,0,0,0,
417,-20.98,-48.93,-59.77,-145.5,-27.56,-10.13,-63.55,-90.93,-60.07,-87.45,-59.13,-44.13,-60.66,-72.05,-81.71,-87.75,0,0,0,0,0,0,0,0,0,0,0,0,0,0,0,0,
418,-23.08,-50.9,-39.64,-140.7,4.54,-13.79,-73.03,-125.7,0.5302,-74.37,-23.12,-26.68,-34.4,-63.27,-77.75,-83.91,0,0,0,0,0,0,0,0,0,0,0,0,0,0,0,0,
419,-25.07,-45.25,-61.57,-144.9,36.01,-38.4,-73.03,-120.6,46.27,-60.19,-21.78,-31.18,-22.8,-53.06,-59.23,-58.56,0,0,0,0,0,0,0,0,0,0,0,0,0,0,0,0,
420,-26.17,-40.36,-68.8,-147.2,0.7237,-53.32,-83.37,-110.5,11.13,-44.99,-40.73,-36.34,-1.698,-21.91,-43.85,-28.6,0,0,0,0,0,0,0,0,0,0,0,0,0,0,0,0,
421,-40.53,-34.26,-93.57,-170.3,-45.73,-61.66,-97.84,-122.4,-8.953,-41.78,-68.7,-54.23,-0.9794,-21.46,-44.3,-16.04,0,0,0,0,0,0,0,0,0,0,0,0,0,0,0,0,
422,-52.72,-24.94,-105.3,-147.9,-2.796,-40.31,-70.47,-94.17,5.059,-40.33,-62.66,-51.91,0.0283,-15.85,-41.42,-8.842,0,0,0,0,0,0,0,0,0,0,0,0,0,0,0,0,
423,-31.25,-2.254,-63.65,-118.1,33.22,-13.59,-19.8,-32.9,-21.28,-12.69,-55.81,-42.2,-1.719,-8.16,-35.9,-5.723,0,0,0,0,0,0,0,0,0,0,0,0,0,0,0,0,
424,-30.47,-4.473,-61.17,-170.5,-15.23,-25.11,-22.46,-44.8,-38.65,-22.88,-64.47,-48.85,-18.92,-25.95,-48.19,-25.53,0,0,0,0,0,0,0,0,0,0,0,0,0,0,0,0,
425,-42.28,-23.33,-79.24,-170.4,-32.2,-37.74,-57.68,-86.27,-30.3,-75.75,-31.92,-36.39,-23.38,-34.5,-52.8,-42.46,0,0,0,0,0,0,0,0,0,0,0,0,0,0,0,0,
426,-38.97,-38.41,-75.68,-122.7,-41.85,-55.55,-69.99,-75.43,-53.22,-87.42,-6.568,-19.34,-23.49,-35.42,-37.58,-38.51,0,0,0,0,0,0,0,0,0,0,0,0,0,0,0,0,
427,-35.26,-45.76,-77.98,-141.3,-68.99,-61,-60.38,-69.53,-22.27,-40.48,-13.24,-10.68,-21.93,-38.9,-27.08,-38.07,0,0,0,0,0,0,0,0,0,0,0,0,0,0,0,0,
428,-26.49,-42.57,-75.84,-143,-31.24,-37.3,-69.23,-101.7,28.24,-4.346,-27.72,-22.79,-31.55,-50.61,-36.89,-55.9,0,0,0,0,0,0,0,0,0,0,0,0,0,0,0,0,
429,-41.6,-53.12,-74.54,-107.7,-7.988,-35,-69.68,-79.91,-10.05,-11.24,-51.29,-46.55,-37.55,-46.64,-59.87,-69.49,0,0,0,0,0,0,0,0,0,0,0,0,0,0,0,0,
430,-53.81,-36.89,-56.35,-96.82,-34.43,-28.48,-21.85,-21.27,-12.62,-31.68,-41.25,-29.92,-13.5,-18.68,-66,-54.17,0,0,0,0,0,0,0,0,0,0,0,0,0,0,0,0,
431,-26.09,-1.564,-32.9,-113,-25.93,-18.03,-20.75,-54.72,40.02,-60.7,-11.5,-2.267,-9.817,-22.67,-48.16,-29.46,0,0,0,0,0,0,0,0,0,0,0,0,0,0,0,0,
432,2.099,-12,-48.16,-137.7,0.5552,-30.64,-69.85,-97.98,39.41,-59.18,5.368,21.69,2.202,-15.47,-21.12,-6.125,0,0,0,0,0,0,0,0,0,0,0,0,0,0,0,0,
433,19.23,-18.8,-53.5,-136.8,-3.514,-35.39,-79.19,-87.31,22.61,-17.37,8.96,37.5,39.17,24.45,5.502,24.6,0,0,0,0,0,0,0,0,0,0,0,0,0,0,0,0,
434,-6.879,-17.33,-37.46,-121.1,-20.47,-42.94,-64.77,-93.81,19.81,-16.87,-16.03,5.201,20.63,19.69,9.777,35.43,0,0,0,0,0,0,0,0,0,0,0,0,0,0,0,0,
435,-38.73,-27.99,-31.59,-92.13,6.038,-17.29,-11.92,-18.41,14.41,-29.36,-14.83,-16.36,-17.7,-9.281,-9.267,13.56,0,0,0,0,0,0,0,0,0,0,0,0,0,0,0,0,
436,-5.771,-18.22,-35.04,-64.96,35.32,28.87,25.1,54.41,-1.721,-12.58,8.386,-13.96,-29.15,-30.11,-29.52,-19.71,0,0,0,0,0,0,0,0,0,0,0,0,0,0,0,0,
437,0.3869,-13.84,-36.01,-81.1,2.839,8.057,-19.97,-44.69,-2.668,-16.25,3.065,-13.59,-12.44,-21.85,-37.6,-39.13,0,0,0,0,0,0,0,0,0,0,0,0,0,0,0,0,
438,-14.01,7.916,-4.183,-77.87,-8.573,-4.542,-21.59,-89.71,28.7,-3.785,14.31,15.9,23.32,11.19,-29.96,-28.6,0,0,0,0,0,0,0,0,0,0,0,0,0,0,0,0,
439,11.65,31.94,-4.401,-62.56,8.324,12.06,2.493,-30.4,13.09,37.77,18.5,20.48,7.776,-4.132,-25.39,-12.75,0,0,0,0,0,0,0,0,0,0,0,0,0,0,0,0,
440,3.472,-3.456,-46.21,-73.48,0.0485,-1.864,-28.15,-31.16,-3.036,25.45,11.25,13.67,-5.247,-4.215,-14.48,5.907,0,0,0,0,0,0,0,0,0,0,0,0,0,0,0,0,
441,0.532,-17.85,-17.96,-43.03,8.168,13.02,-26.59,-20.05,49.41,-22.08,44.8,46.98,32.85,41.07,25.47,49.64,0,0,0,0,0,0,0,0,0,0,0,0,0,0,0,0,
442,36.24,4.154,4.365,-35.55,-0.5739,30.37,-7.85,-16.91,48.2,-8.087,53.21,43.36,37.14,37.95,47.25,73.95,0,0,0,0,0,0,0,0,0,0,0,0,0,0,0,0,
443,35.53,28.25,-41.77,-83.33,-32.64,2.213,5.682,-38.54,14.44,41.37,34.54,22.44,34.25,30.53,27.39,51.07,0,0,0,0,0,0,0,0,0,0,0,0,0,0,0,0,
444,17.2,68.07,-53.95,-75.88,-18.57,-17.49,27.61,2.892,45.78,17.08,46.92,33.64,45.74,39.09,14.78,28.4,0,0,0,0,0,0,0,0,0,0,0,0,0,0,0,0,
445,10.2,49.32,-42.82,-57.68,7.571,-21.98,-13.72,-15.99,69.06,-18.09,58.38,41.56,49.59,42.56,30.16,43.39,0,0,0,0,0,0,0,0,0,0,0,0,0,0,0,0,
446,8.707,5.625,-40.73,-92.03,8.616,-22.56,-60.76,-95.89,41.97,18.39,50.65,46.7,70.9,69.28,49.95,81.54,0,0,0,0,0,0,0,0,0,0,0,0,0,0,0,0,
447,0.5167,13.29,-30.53,-108.6,9.037,-12.4,-33.45,-61.51,18.57,25.4,36.79,38.38,55.56,55.77,47.41,88.8,0,0,0,0,0,0,0,0,0,0,0,0,0,0,0,0,
448,6.655,16.2,-19.75,-56.47,49.55,37.11,17,23.47,74.96,22,48.43,37.99,23.08,23.7,30.48,55.16,0,0,0,0,0,0,0,0,0,0,0,0,0,0,0,0,
449,66.45,25.1,-14.36,-7.787,90.46,82.28,37.79,25.99,123.7,56.24,56.63,47.18,33.64,35.44,18.96,29.4,0,0,0,0,0,0,0,0,0,0,0,0,0,0,0,0,
450,74.08,37.75,-33.51,-49.55,39.66,20.38,12.72,-10.43,22.81,31.6,17.25,25.08,45.4,46.07,11.02,33.07,0,0,0,0,0,0,0,0,0,0,0,0,0,0,0,0,
451,16.91,37.49,-29.07,-65.63,-10.71,-38.68,-0.7843,-10.43,-46.18,18.53,19.53,36.23,72.1,72,25.92,63.26,0,0,0,0,0,0,0,0,0,0,0,0,0,0,0,0,
452,13.01,67.17,-2.517,-5.803,7.796,-14.04,2.514,-18.36,15.51,66.12,55.06,60.85,91.01,91.29,58.07,92.92,0,0,0,0,0,0,0,0,0,0,0,0,0,0,0,0,
453,6.932,78.05,-27.09,-4.378,19.13,-5.601,-11.25,-27.47,41.87,59.36,62.07,48.62,78.09,78.73,66,92.93,0,0,0,0,0,0,0,0,0,0,0,0,0,0,0,0,
454,11.84,67.6,-24.76,-15.38,39.96,25.96,21.64,39.77,61.86,28.19,95.94,71.58,78.23,75.9,61.42,80.13,0,0,0,0,0,0,0,0,0,0,0,0,0,0,0,0,
455,80.47,55.9,7.15,1.76,40.75,74.36,42.6,55.78,100.3,17.4,100.2,85.45,42.28,39.8,57.3,59.01,0,0,0,0,0,0,0,0,0,0,0,0,0,0,0,0,
456,98.93,11.89,-3.872,-14.04,21.82,58.47,3.01,-26.94,89.55,12.35,66.4,69.4,15.21,21.02,48.2,40.93,0,0,0,0,0,0,0,0,0,0,0,0,0,0,0,0,
457,87.32,18.23,18.37,-0.9686,71.24,52.75,24.4,-16.67,90.03,25.57,90.88,83.48,57.04,62.67,51.61,54.88,0,0,0,0,0,0,0,0,0,0,0,0,0,0,0,0,
458,93.94,59.13,45.36,30.27,78.38,59.07,68.53,57.59,88.17,23.91,108.7,74.7,67.52,65.77,62.28,73.79,0,0,0,0,0,0,0,0,0,0,0,0,0,0,0,0,
459,66.09,54.31,31.38,47.89,32.64,42.53,56.69,63.95,58.17,38.96,103.1,70.57,81.09,80.59,84.63,93.01,0,0,0,0,0,0,0,0,0,0,0,0,0,0,0,0,
460,46.22,68.44,45.01,78.22,62.55,42.25,37.83,37.64,56.2,80.7,120,109.5,128.9,127.5,130,134.5,0,0,0,0,0,0,0,0,0,0,0,0,0,0,0,0,
461,58.02,78.51,57.3,71.24,78.52,41.95,16,15.44,71.4,79.71,117.7,121,126.4,121.6,153,158.7,0,0,0,0,0,0,0,0,0,0,0,0,0,0,0,0,
462,85.34,57.65,67.97,79.81,63.1,53.17,14.56,28.51,94.1,84.48,102.3,107.8,112.7,114.8,124.7,143.8,0,0,0,0,0,0,0,0,0,0,0,0,0,0,0,0,
463,105.5,71.61,105.4,152.5,99.21,78.41,62.18,94.85,118.1,105.3,82.5,89.01,113.1,124.2,80.28,118.7,0,0,0,0,0,0,0,0,0,0,0,0,0,0,0,0,
464,88.88,94.54,144.3,225.9,121.4,93.13,122,165.5,120.2,82.21,70.42,77.38,104.2,113.8,63.78,104.6,0,0,0,0,0,0,0,0,0,0,0,0,0,0,0,0,
465,88.59,99.57,217.9,325,106.7,121.3,149.4,180.5,88.42,64.16,64.8,67.96,88.79,85.8,64.47,93.29,0,0,0,0,0,0,0,0,0,0,0,0,0,0,0,0,
466,86.22,95.46,305.3,427.3,118.4,146,141,167.6,40.45,92.46,30.05,43.19,76.54,62.62,44.81,68.57,0,0,0,0,0,0,0,0,0,0,0,0,0,0,0,0,
467,63.16,104.4,360.6,482.2,166.4,162.7,159.9,217.7,53.14,130.6,52.7,76.36,116,105.1,42.94,69.15,0,0,0,0,0,0,0,0,0,0,0,0,0,0,0,0,
468,86.93,124.3,382,530.4,172.7,168.3,169.5,249.8,85.94,115.8,120.9,123.8,140.7,137.5,86.63,110,0,0,0,0,0,0,0,0,0,0,0,0,0,0,0,0,
469,104.6,91.01,364.9,561.3,133.6,155.8,137.1,222.5,78.06,75.38,118.7,104.2,100.4,102.8,118.3,131,0,0,0,0,0,0,0,0,0,0,0,0,0,0,0,0,
470,106.5,74.94,379.3,576.1,170.4,191.4,188.4,286.5,107.3,119.7,116.6,102.5,103.7,111.8,123.7,126.8,0,0,0,0,0,0,0,0,0,0,0,0,0,0,0,0,
471,129,132.2,427.1,598.2,225.5,231.7,264.9,356.5,133.8,198.3,133.4,112.4,133.2,140.7,123.3,126.5,0,0,0,0,0,0,0,0,0,0,0,0,0,0,0,0,
472,117.4,163.8,435.5,608.9,196.6,227.5,253.5,323.8,106,186.7,115.9,104.8,133.8,135.2,111.3,119.2,0,0,0,0,0,0,0,0,0,0,0,0,0,0,0,0,
473,124.3,171.7,423.2,601.8,163.8,245.5,257.3,312.7,89.8,105.7,111.4,121.3,136.4,135.1,97.83,107.7,0,0,0,0,0,0,0,0,0,0,0,0,0,0,0,0,
474,163,170.8,399.9,563.1,157.6,245.2,273.2,307.3,102.8,72.3,117.2,128.1,134.7,133.7,92.87,107.4,0,0,0,0,0,0,0,0,0,0,0,0,0,0,0,0,
475,164.5,149,389.4,520.6,191.8,221.1,234.5,270.7,167.1,136,132.4,145.9,149.1,143.7,106.4,121.4,0,0,0,0,0,0,0,0,0,0,0,0,0,0,0,0,
476,175,154.1,386,487.3,246.4,240.6,201.6,257.8,187.7,168.5,152.3,165.4,152.2,144.3,131.4,128,0,0,0,0,0,0,0,0,0,0,0,0,0,0,0,0,
477,180.9,156.3,336.2,442.7,214.7,248.9,213.9,252.9,101.6,143.4,132.6,128.8,120.9,121.8,128.3,104.7,0,0,0,0,0,0,0,0,0,0,0,0,0,0,0,0,
478,156.6,156.4,315.5,433.8,173.1,220.9,240,261.4,114.3,171.3,120.7,111.7,123.9,132.2,109.1,87.05,0,0,0,0,0,0,0,0,0,0,0,0,0,0,0,0,
479,150.8,166.1,304.4,409.2,194,190.8,214.1,253.9,184.9,151.5,134.5,132,129.4,138.4,114.2,105.8,0,0,0,0,0,0,0,0,0,0,0,0,0,0,0,0,
480,149.6,128.4,226.8,324.1,189.5,176.7,173.8,220.7,126.8,75.76,140.4,138.5,117.6,130.3,131.3,131.7,0,0,0,0,0,0,0,0,0,0,0,0,0,0,0,0,
481,149.4,108.1,192.6,283.2,155.6,173.9,190.1,210.1,84.72,125.3,135.7,134.1,124.4,139.6,136,133.6,0,0,0,0,0,0,0,0,0,0,0,0,0,0,0,0,
482,141.2,129.4,198.3,267,122.8,150.4,192.2,183.5,106.4,199.5,116.2,116.2,116.2,130.5,130.2,118.7,0,0,0,0,0,0,0,0,0,0,0,0,0,0,0,0,
483,122.9,120,163,217,100.2,147.7,170.3,179.6,74.45,138.5,113,108.1,105.3,121.8,122.8,113.3,0,0,0,0,0,0,0,0,0,0,0,0,0,0,0,0,
484,125.9,100.6,118.9,172.3,84.49,152.3,152.7,192.1,49.09,47.17,113.7,88.69,92.09,114.7,105.6,112.5,0,0,0,0,0,0,0,0,0,0,0,0,0,0,0,0,
485,102.6,82.63,84.09,145,64.95,104.1,109.1,115.8,76.3,55.76,95.88,50.94,75.77,100.4,82.62,106.1,0,0,0,0,0,0,0,0,0,0,0,0,0,0,0,0,
486,70.81,75.01,89.28,135.7,92.54,83.21,93.66,76.3,96.84,120.1,94.38,66.17,98.46,105.8,73.35,109.5,0,0,0,0,0,0,0,0,0,0,0,0,0,0,0,0,
487,88.26,85.44,92.55,102.9,121,99.02,103.7,124,107.6,125,86.03,97.16,103.4,90.72,69.58,108.8,0,0,0,0,0,0,0,0,0,0,0,0,0,0,0,0,
488,110.6,79.25,57.54,61.92,91.17,106,98.98,118.8,126.7,89.97,90.45,107.6,90.42,81.69,77.55,99.41,0,0,0,0,0,0,0,0,0,0,0,0,0,0,0,0,
489,119.9,83.28,72.49,63.6,89.38,119.7,107.2,86,105.7,59.84,110.6,106.4,100.6,97.41,100.3,99.96,0,0,0,0,0,0,0,0,0,0,0,0,0,0,0,0,
490,94.33,85.64,79.48,23.83,115.7,92.81,84.99,55.93,72.38,39.34,82.54,71.45,90.35,84.82,99.34,94.72,0,0,0,0,0,0,0,0,0,0,0,0,0,0,0,0,
491,59.64,64.98,37.5,-27.34,108.8,67.57,42.95,23.89,107.9,85.79,93.19,70.25,86.54,93.25,92.93,89.55,0,0,0,0,0,0,0,0,0,0,0,0,0,0,0,0,
492,81.23,54.14,30.96,-28.54,68.69,79.35,32.41,32.76,105.8,103.2,140,93.2,75.31,92.67,106.6,90.13,0,0,0,0,0,0,0,0,0,0,0,0,0,0,0,0,
493,80.37,22.83,16.35,-66.06,36.1,43.25,16.31,28.99,61.36,28.73,114.5,76.17,35.95,44.68,104.4,70.08,0,0,0,0,0,0,0,0,0,0,0,0,0,0,0,0,
494,57.43,7.132,0.7181,-77.89,62.78,21.94,10.28,-2.877,105.2,40.33,95.71,79.03,55.75,54.34,91.64,55.69,0,0,0,0,0,0,0,0,0,0,0,0,0,0,0,0,
495,74.14,55,0.9676,-41.07,57.29,48.63,34.49,13.23,89.9,112.7,96.9,75.39,89.98,86.33,79.22,66.84,0,0,0,0,0,0,0,0,0,0,0,0,0,0,0,0,
496,60.67,91.57,-48.07,-68.95,-3.099,41.21,65.01,65.76,-7.709,94.63,67.71,40.81,78.32,77.54,53.01,74.74,0,0,0,0,0,0,0,0,0,0,0,0,0,0,0,0,
497,35.57,85.23,-57.2,-112.5,15.13,23.62,63.72,49.7,1.307,41.43,60.57,40.48,69.67,76.47,45.51,82.8,0,0,0,0,0,0,0,0,0,0,0,0,0,0,0,0,
498,43.14,47.5,-8.02,-126.9,45.21,15.12,9.798,-26.54,27.91,19.52,71.72,54.21,74.46,87.53,78.02,108.2,0,0,0,0,0,0,0,0,0,0,0,0,0,0,0,0,
499,50.79,26.9,-28.1,-129.5,9.605,14.69,-5.618,-30.71,8.484,24.07,85.63,64.91,91.25,100.8,119.3,141.5,0,0,0,0,0,0,0,0,0,0,0,0,0,0,0,0,
500,47.15,50.11,-92.55,-127.7,-15.53,9.325,13.97,-18.59,2.59,39.86,77.5,56.42,83.05,86.58,128.8,149.4,0,0,0,0,0,0,0,0,0,0,0,0,0,0,0,0,
501,12.81,51.02,-97.57,-146.5,-19.58,-25.37,7.125,-44.39,-17.67,74.34,45.41,31.22,53.5,59.1,101.3,116.9,0,0,0,0,0,0,0,0,0,0,0,0,0,0,0,0,
502,-1.685,54.3,-49.08,-145.8,-9.309,-29.34,29.16,4.345,-9.369,82.21,46.01,28.56,38.41,42.15,62.82,64.91,0,0,0,0,0,0,0,0,0,0,0,0,0,0,0,0,
503,13.1,50.04,-49.52,-157.4,-8.596,-20.73,14.08,18.52,8.499,1.385,18.84,-3.587,-7.612,-10.18,9.166,-1.391,0,0,0,0,0,0,0,0,0,0,0,0,0,0,0,0,
504,-1.874,3.913,-83.52,-194,-12.25,-26.76,-36.1,-51.53,-0.3532,-0.3933,-24.57,-26.93,-15.98,-12.78,-41.75,-50,0,0,0,0,0,0,0,0,0,0,0,0,0,0,0,0,
505,14.48,28.15,-78.41,-169.1,13.14,-6.514,-3.942,-40.06,21.09,90.79,-7.522,3.776,33.03,42.1,-46.77,-40.69,0,0,0,0,0,0,0,0,0,0,0,0,0,0,0,0,
506,31.62,64.4,-109.8,-161.7,-2.971,-19.05,1.688,-17.83,13.25,52.05,-9.633,-9.368,23.35,28.6,-33.12,-13.79,0,0,0,0,0,0,0,0,0,0,0,0,0,0,0,0,
507,-6.173,31.27,-132.7,-181.9,-13.9,-38.91,-27.42,-33.78,-16.02,12.35,-19.03,-29.24,17.89,24.66,-24.97,4.627,0,0,0,0,0,0,0,0,0,0,0,0,0,0,0,0,
508,-14.34,30.88,-83.68,-154.8,24.86,-19.83,4.261,-17.49,-1.561,45.25,-4.635,-24.04,24.73,41.14,-17.3,20.76,0,0,0,0,0,0,0,0,0,0,0,0,0,0,0,0,
509,-16.76,23.99,-90.24,-170.5,-8.167,-37.27,10.12,-14.51,-6.205,-8.65,-21.23,-41.38,-15.63,10.7,-21.19,13.85,0,0,0,0,0,0,0,0,0,0,0,0,0,0,0,0,
510,-25.22,-0.6533,-117.4,-189.5,-54.32,-50.27,2.053,1.899,-20.98,-3.335,-20.57,-28.02,-8.956,18.55,-15.24,-1.639,0,0,0,0,0,0,0,0,0,0,0,0,0,0,0,0,
511,-1.212,22.63,-111.2,-158.4,-45.52,-33.69,13.77,12.86,-19.28,86.82,-3.785,-2.706,26.11,41.38,9.565,-0.7442,0,0,0,0,0,0,0,0,0,0,0,0,0,0,0,0,
512,15.16,35.49,-125.9,-162.9,-44.83,-25.38,-3.472,-36.81,-3.385,63.09,16.16,19.44,39.15,39.91,36.54,19.42,0,0,0,0,0,0,0,0,0,0,0,0,0,0,0,0,
513,41.11,32.72,-99.58,-170.1,-20.73,-3.732,-21.38,-64.68,13.68,-6.427,45.9,42.07,35.5,30.68,55.79,43.8,0,0,0,0,0,0,0,0,0,0,0,0,0,0,0,0,
514,37.93,7.391,-75.45,-170.7,-10.53,-6.138,-32.31,-66.92,-43.58,-20.22,8.402,-2.725,-9.642,-9.435,32.89,27.95,0,0,0,0,0,0,0,0,0,0,0,0,0,0,0,0,
515,-0.964,-11.11,-104.5,-169.5,-36.56,-0.7555,-0.7738,-37.89,-69.1,29.66,-18.48,-23.49,-3.857,6.318,-8.416,-5.838,0,0,0,0,0,0,0,0,0,0,0,0,0,0,0,0,
516,22.1,50.43,-98.09,-132.8,-23.45,25.52,50.29,19.58,11.56,100.8,15.83,11.62,30.21,48.56,-9.53,-6.275,0,0,0,0,0,0,0,0,0,0,0,0,0,0,0,0,
517,32.84,56.22,-84.23,-137.7,-17.09,-17.49,6.871,-11.37,28.7,78.19,9.883,4.886,-8.072,14.49,6.32,0.8112,0,0,0,0,0,0,0,0,0,0,0,0,0,0,0,0,
518,24.51,-10.93,-84.39,-169,-18.15,-38.47,-43.64,-73.26,1.573,13.69,19.96,20.39,-15.43,4.592,23.94,5.791,0,0,0,0,0,0,0,0,0,0,0,0,0,0,0,0,
519,59.39,-10.31,-87.96,-163.1,12.79,-3.607,-25.5,-60.38,20.95,-1.251,47.03,36.85,5.781,22.39,50.05,19.86,0,0,0,0,0,0,0,0,0,0,0,0,0,0,0,0,
520,21.68,1.378,-112.6,-143.5,13.57,-17.01,-8.999,-21.59,13.02,9.621,13.13,-12.31,-6.081,9.324,54.19,23.71,0,0,0,0,0,0,0,0,0,0,0,0,0,0,0,0,
521,-38.01,5.662,-90.1,-105.8,-10.98,-27.98,4.726,-14.04,-10.38,49.32,-6.647,-30.73,11.04,18.96,37.62,21.42,0,0,0,0,0,0,0,0,0,0,0,0,0,0,0,0,
522,-10.25,36.13,-54.9,-108.4,-19.89,-17.72,10.42,-45.25,-7.635,69.54,0.4388,-11.78,28.72,33.28,27.69,25.67,0,0,0,0,0,0,0,0,0,0,0,0,0,0,0,0,
523,19.13,44.36,-76,-148.3,-22.04,-14.45,16.54,-30.6,0.1302,30.06,2.88,7.553,27.87,36.49,33.95,40.1,0,0,0,0,0,0,0,0,0,0,0,0,0,0,0,0,
524,31.03,44.55,-98.96,-127.8,-28.31,-0.5685,24.4,15.67,1.778,15.56,23.86,42.73,39.86,42.66,57.06,64.32,0,0,0,0,0,0,0,0,0,0,0,0,0,0,0,0,
525,49.11,44.21,-103.4,-103.1,-16.48,-8.616,4.295,-10.41,-9.006,44.13,45.78,63.55,41.41,40,85.97,80.4,0,0,0,0,0,0,0,0,0,0,0,0,0,0,0,0,
526,51.38,40.61,-79.74,-117.4,5.665,-19.26,16.92,-20.43,-27.31,38.82,42.97,39.52,26.59,38.08,96.43,77.03,0,0,0,0,0,0,0,0,0,0,0,0,0,0,0,0,
527,18.47,30.57,-56.05,-120.6,-34.05,-16.7,33.55,5.981,-41.47,26.48,2.382,-19.6,6.72,33.85,67.27,56.96,0,0,0,0,0,0,0,0,0,0,0,0,0,0,0,0,
528,-29.82,0.004,-67.15,-99.94,-39.4,-13.24,3.226,-13.01,-11.05,77.56,-20.02,-38.07,12.16,40.17,27.82,39.94,0,0,0,0,0,0,0,0,0,0,0,0,0,0,0,0,
529,-12.52,2.908,-62.73,-79.64,46.98,11.14,-0.6957,-20.37,26.4,94.28,3.922,-9.414,19.46,31.3,18.04,35.07,0,0,0,0,0,0,0,0,0,0,0,0,0,0,0,0,
530,26.69,19.28,-54.93,-103.8,26.59,6.112,5.528,-14.05,-1.406,29.39,7.387,2.379,7.599,7.117,25.98,29.52,0,0,0,0,0,0,0,0,0,0,0,0,0,0,0,0,
531,24.86,21.02,-43.08,-120.5,-35.92,-20.6,3.791,-24.48,6.061,13.68,21.67,37.4,43.14,44.88,49.45,43.91,0,0,0,0,0,0,0,0,0,0,0,0,0,0,0,0,
532,34.67,40.34,-20.66,-98.98,18.01,-6.986,16.12,-24.73,68.17,35.13,51.94,61.92,57.44,61.03,79.15,72.42,0,0,0,0,0,0,0,0,0,0,0,0,0,0,0,0,
533,33.51,28.91,-30.55,-93.58,48.27,25.38,26.17,-8.531,81.23,54.31,44.93,28.11,12,20.48,83.11,70.66,0,0,0,0,0,0,0,0,0,0,0,0,0,0,0,0,
534,23.06,17.9,-16.54,-64.37,25.99,53.99,57.44,21.21,54.93,87.65,42.38,15.82,10.79,26.61,77.11,55.35,0,0,0,0,0,0,0,0,0,0,0,0,0,0,0,0,
535,24.18,34.37,-18.58,-49.22,-1.639,35.01,49.74,4.504,-1.442,32.23,38.2,10.73,12.4,19.36,69.5,42.84,0,0,0,0,0,0,0,0,0,0,0,0,0,0,0,0,
536,6.64,21,-62.5,-82.68,-20.6,-0.7532,0.4626,-30.69,2.633,-29.91,47.39,17.37,12.14,10.55,58.67,28.2,0,0,0,0,0,0,0,0,0,0,0,0,0,0,0,0,
537,26.6,39.69,-19.69,-74.84,33.01,14.65,18.16,-18.04,104,5.371,83.53,58.67,40.79,51.1,66.73,32.53,0,0,0,0,0,0,0,0,0,0,0,0,0,0,0,0,
538,50.47,53.18,-3.985,-87.82,40.56,6.804,28.38,-26.55,105.1,-1.236,64.26,57.05,18.66,35.43,75.1,42.61,0,0,0,0,0,0,0,0,0,0,0,0,0,0,0,0,
539,29.84,-0.8404,-69.1,-115.9,-10.29,1.102,4.615,-11.39,40.17,11.84,59.82,55.6,5.057,7.308,77.89,41.32,0,0,0,0,0,0,0,0,0,0,0,0,0,0,0,0,
540,41.77,-8.297,-35.35,-69.47,25.68,46.59,23.61,33.17,38.97,86.17,92.13,59.96,18.63,14.55,87.3,35.12,0,0,0,0,0,0,0,0,0,0,0,0,0,0,0,0,
541,44.32,14.43,14.01,-53.39,43.87,52.09,32.5,-11.07,21.31,49.83,52.37,16.42,-5.023,2.962,73.55,19.03,0,0,0,0,0,0,0,0,0,0,0,0,0,0,0,0,
542,26.58,23.34,-11.12,-64.84,-1.73,36.75,29.67,-35.84,21.38,17.82,28.14,16.57,10.54,24.97,51.85,17.1,0,0,0,0,0,0,0,0,0,0,0,0,0,0,0,0,
543,36.92,46.32,-31.43,-59.1,-22.69,9.775,19.17,-5.188,40.74,86.64,58.16,36.07,38.95,55.98,58.35,42.03,0,0,0,0,0,0,0,0,0,0,0,0,0,0,0,0,
544,19.79,25.79,-65.13,-108.1,-39.13,-46.28,-28.22,-32.34,2.524,67.96,61.9,21.39,30.47,51.99,73.62,63.84,0,0,0,0,0,0,0,0,0,0,0,0,0,0,0,0,
545,11.1,-1.828,-95.91,-146.3,-31.31,-53.11,-42.45,-49.46,-7.495,-9.441,64.45,37.6,49.11,62.39,83.62,77.44,0,0,0,0,0,0,0,0,0,0,0,0,0,0,0,0,
546,17.58,12.21,-78.14,-121.8,-6.333,-46.38,-11.92,-19.41,17.32,29.82,60.93,39.65,53.8,61.86,86.38,84.72,0,0,0,0,0,0,0,0,0,0,0,0,0,0,0,0,
547,-16.48,13.9,-38.94,-79.23,-2.791,-38.87,31.58,18.76,23.33,88.77,42.66,6.014,11.1,27.23,73.93,67.75,0,0,0,0,0,0,0,0,0,0,0,0,0,0,0,0,
548,-20.98,-2.77,-34.28,-53.56,3.792,12.42,64.59,42.71,30.85,20.29,29.95,-8.338,-31.94,-18.61,47.12,22.07,0,0,0,0,0,0,0,0,0,0,0,0,0,0,0,0,
549,9.516,-22.88,-66.73,-69.25,-12.46,32.71,49.11,23.49,30.52,-21.68,19.61,-1.997,-37.88,-33.34,20.22,-15.98,0,0,0,0,0,0,0,0,0,0,0,0,0,0,0,0,
550,33.01,-13.26,-43.48,-61.09,-45.93,14.95,20.01,6.521,22.17,43.66,35.04,18.46,-3.085,2.168,17.38,-4.076,0,0,0,0,0,0,0,0,0,0,0,0,0,0,0,0,
551,37.39,9.678,-26.77,-49.37,-52.91,-27.42,-17.86,-28.46,-17.6,41.84,35.05,15.74,19.1,27.51,30.5,35.46,0,0,0,0,0,0,0,0,0,0,0,0,0,0,0,0,
552,-11.67,0.349,-92.86,-96.32,-45.73,-96.21,-55.33,-85.72,-65.04,42.55,-4.743,-7.599,40.96,52.47,37.93,64.01,0,0,0,0,0,0,0,0,0,0,0,0,0,0,0,0,
553,-53.22,14.91,-101.2,-113.2,-53.66,-105.8,-39.64,-63.66,-48.79,98.72,-30.79,-23.53,61.01,72.95,37.48,73.14,0,0,0,0,0,0,0,0,0,0,0,0,0,0,0,0,
554,-56.8,20.65,-80.84,-110.5,-91.87,-73.22,-21.55,-22.67,-39.24,11.39,-45.88,-49.22,22.48,31.21,16.07,46.86,0,0,0,0,0,0,0,0,0,0,0,0,0,0,0,0,
555,-57.95,-21.46,-121.1,-118.7,-91.93,-54.83,-12.56,-16,-52.3,-75.94,-44.03,-48.05,-7.901,-1.656,-20.74,-2.462,0,0,0,0,0,0,0,0,0,0,0,0,0,0,0,0,
556,-36.1,-21.06,-114.6,-80.21,-38.56,-36.01,12.74,4.304,-18.43,5.912,-21.38,-21.98,0.0757,5.641,-37.16,-27.38,0,0,0,0,0,0,0,0,0,0,0,0,0,0,0,0,
557,-7.563,7.355,-62.66,-52.77,-27.62,-24.99,12.78,-8.564,15.96,53.84,6.868,4.766,15.01,26.17,-10.9,0.391,0,0,0,0,0,0,0,0,0,0,0,0,0,0,0,0,
558,26.15,25.23,-38.2,-55.8,-37.93,-10.97,-0.3209,-34.72,28.89,12.96,51.58,54.38,49.11,61.1,49.46,65.27,0,0,0,0,0,0,0,0,0,0,0,0,0,0,0,0,
559,55.14,35.53,-44.15,-54.98,-13.23,-0.822,-18.65,-20.97,43.36,-13.99,70.68,70,50.66,48.14,101.9,108.3,0,0,0,0,0,0,0,0,0,0,0,0,0,0,0,0,
560,33.31,21.32,-55.19,-57.39,23.74,4.149,-16.64,-3.591,39.61,25.11,58.78,40.83,22.02,15.51,118.1,100,0,0,0,0,0,0,0,0,0,0,0,0,0,0,0,0,
561,6.59,18.31,-33.07,-41.13,16.58,13.15,30.12,6.585,3.711,105.2,33.27,5.726,-2.292,9.207,91.15,54.85,0,0,0,0,0,0,0,0,0,0,0,0,0,0,0,0,
562,-10.27,2.483,-26.09,-45.53,-54.66,-12.08,36.13,3.164,-22.83,70.76,-6.882,-25.8,-28.8,-8.792,30.93,-1.968,0,0,0,0,0,0,0,0,0,0,0,0,0,0,0,0,
563,-7.471,-22.21,-41.52,-73.41,-63.86,-18.42,16.9,-10.12,11.18,-38.63,9.262,4.143,-7.139,-2.27,1.703,-15.47,0,0,0,0,0,0,0,0,0,0,0,0,0,0,0,0,
564,33.16,1.88,-48.52,-77.28,-18.7,-0.2495,14.95,-15.4,14.63,-45.18,32.86,32.48,14.57,10.18,19.95,10.88,0,0,0,0,0,0,0,0,0,0,0,0,0,0,0,0,
565,18.97,1.905,-80.91,-80.19,-57.05,-35.42,-16.13,-14.02,-49.24,3.961,-1.116,-3.653,-2.185,6.077,29.05,17.89,0,0,0,0,0,0,0,0,0,0,0,0,0,0,0,0,
566,-19.92,-15.65,-65.73,-58.65,-76.15,-50.02,-27.26,-13.32,-49.68,24.03,-0.0023,-16.03,7.271,23.95,28.38,14.83,0,0,0,0,0,0,0,0,0,0,0,0,0,0,0,0,
567,-17.41,-11.71,-18.2,-46.48,-35.05,-28.26,-18.16,-33.45,-14.83,12.58,4.969,-29.63,-13.05,0.8429,27.98,13.61,0,0,0,0,0,0,0,0,0,0,0,0,0,0,0,0,
568,-31.46,-45.01,-58.45,-78.69,-38.16,-25.65,-29.76,-25.76,-18.71,-19.94,-22.96,-54.45,-45.09,-30.49,12.22,2.592,0,0,0,0,0,0,0,0,0,0,0,0,0,0,0,0,
569,-29.05,-49.51,-84.47,-62.13,-40.07,-12.09,-15.78,1.99,-30.99,-23.8,-22.35,-33.78,-13.39,-6.848,-6.963,0.5867,0,0,0,0,0,0,0,0,0,0,0,0,0,0,0,0,
570,-7.941,-2.623,-40.55,-48.19,-29.88,-22.8,-0.1067,-32.83,-51.58,23.62,-26.35,-21.5,6.781,1.958,-19.78,6.8,0,0,0,0,0,0,0,0,0,0,0,0,0,0,0,0,
571,-6.977,13.79,-31.47,-76.84,-28.52,-48.24,-1.153,-42.87,-30.71,51.53,-25.43,-22.19,-0.1608,5.133,-15.71,15.07,0,0,0,0,0,0,0,0,0,0,0,0,0,0,0,0,
572,-7.068,-1.521,-59.91,-52.17,-21.08,-45.12,-9.097,-17.17,6.209,-12.29,-20.04,-39.52,-24.22,-5.103,-5.71,14.3,0,0,0,0,0,0,0,0,0,0,0,0,0,0,0,0,
573,-52.03,-43.39,-71.26,-25.63,-47.74,-52.82,-37.73,-46.92,-25.5,-58.75,-53.31,-83.48,-59.33,-41.34,-25.41,-19.77,0,0,0,0,0,0,0,0,0,0,0,0,0,0,0,0,
574,-86.62,-61.64,-56.34,-53.14,-75.77,-50.02,-47.82,-52.89,-56.1,-6.885,-58.67,-77.57,-46.31,-28.67,-49.39,-50.9,0,0,0,0,0,0,0,0,0,0,0,0,0,0,0,0,
575,-54.92,-41.81,-75.56,-95.28,-80.47,-50.59,-54.33,-42.66,-62.55,-0.8774,-38.32,-46.25,-31.6,-12.57,-41.91,-42.62,0,0,0,0,0,0,0,0,0,0,0,0,0,0,0,0,
576,-38.21,-44.59,-108.7,-105.6,-79.53,-73.86,-57.08,-46.7,-53.22,-37.63,-33.06,-24.35,-36.06,-29.29,-19.93,-21.75,0,0,0,0,0,0,0,0,0,0,0,0,0,0,0,0,
577,-21.19,-37.43,-72.81,-60.79,-52.3,-68.37,-23.32,-5.918,-8.448,-27.27,-31.01,-8.668,-29.53,-37.56,-9.481,-11.81,0,0,0,0,0,0,0,0,0,0,0,0,0,0,0,0,
578,-17.22,-26.27,-61.6,-51.23,-49.75,-63.79,-14.55,-7.899,-16.05,-29.25,-52.58,-37.85,-27.91,-34.73,-23.07,-9.723,0,0,0,0,0,0,0,0,0,0,0,0,0,0,0,0,
579,-47.08,-24.49,-101.5,-80.93,-73.62,-48.95,-15.39,-47.15,-66.55,-21.22,-61.59,-58.2,-5.184,-8.687,-42.89,-5.768,0,0,0,0,0,0,0,0,0,0,0,0,0,0,0,0,
580,-34.97,-5.018,-98.36,-76.1,-71.6,-20.46,-11.89,-48.06,-67.78,-0.0567,-53.95,-55.29,-5.273,-12.93,-52.44,-8.522,0,0,0,0,0,0,0,0,0,0,0,0,0,0,0,0,
581,-33.46,-21.28,-91.53,-82.2,-68.17,-45.73,-42.75,-65.99,-28.84,2.261,-53.61,-56.72,-39.44,-48.85,-50.01,-20.9,0,0,0,0,0,0,0,0,0,0,0,0,0,0,0,0,
582,-50.63,-36.59,-87.76,-79.19,-63.47,-63.53,-48.4,-62.51,-10.48,16.86,-20.55,-20.96,-30.05,-46.97,-25.11,-24.95,0,0,0,0,0,0,0,0,0,0,0,0,0,0,0,0,
583,-25.48,-34.91,-73.02,-51.83,-68.78,-53.56,-54.1,-40.41,-52.24,-38.01,-1.111,3.439,-31.37,-53.82,1.731,-29.58,0,0,0,0,0,0,0,0,0,0,0,0,0,0,0,0,
584,-11.21,-69.86,-71.04,-47.38,-71.38,-51.27,-60.51,-42.85,-53.19,-88.64,-3.584,-2.719,-39.55,-46.74,14.83,-27.76,0,0,0,0,0,0,0,0,0,0,0,0,0,0,0,0,
585,-13.1,-51.05,-54.28,-29.95,-49.41,-40.31,-2.418,-1.168,-6.219,-9.913,-2.983,-18.85,-18.07,-13.22,17.92,-11.67,0,0,0,0,0,0,0,0,0,0,0,0,0,0,0,0,
586,-46.34,-16.36,-70.25,-34.51,-73.89,-66.04,-0.1499,11.58,-48.72,-0.3553,-51.17,-64.68,-32.97,-29.82,-9.72,-23.55,0,0,0,0,0,0,0,0,0,0,0,0,0,0,0,0,
587,-85.67,-48.57,-111.1,-68.7,-87.94,-70.68,-47.18,-38.18,-72.84,-71.84,-68.05,-51.69,-31.07,-27.53,-35.15,-41.61,0,0,0,0,0,0,0,0,0,0,0,0,0,0,0,0,
588,-39.41,-42.13,-113.2,-55.95,-54.51,-25.55,-29.2,-40.6,-34.51,-30.46,-24.31,4.29,-0.9432,-4.806,-14.11,-20.36,0,0,0,0,0,0,0,0,0,0,0,0,0,0,0,0,
589,-7.812,-14.99,-124.3,-37.32,-77.66,-45.94,-27.15,-42.52,-55.6,36.91,-12.8,10.34,0.4486,-14.25,15.09,5.073,0,0,0,0,0,0,0,0,0,0,0,0,0,0,0,0,
590,-15.97,-16.75,-99.35,-28.11,-72.43,-47,-38.29,-54.21,-43.94,16.65,-2.647,18.66,14.05,2.883,23.05,17.93,0,0,0,0,0,0,0,0,0,0,0,0,0,0,0,0,
591,19.59,-12.07,-23.66,-12.83,-4.805,16.73,-15.06,-9.669,-5.808,-39.35,-4.048,3.138,3.88,-3.724,6.545,19.62,0,0,0,0,0,0,0,0,0,0,0,0,0,0,0,0,
592,11.62,-19.59,-10.07,-9.858,-7.47,17.04,-10.55,12.93,-26.61,-48.92,-35.21,-40.12,-25.87,-40.05,-31.98,-5.69,0,0,0,0,0,0,0,0,0,0,0,0,0,0,0,0,
593,-26.62,-5.956,-35.58,6.218,-54.24,-11.07,-5.911,-6.987,-20.43,-7.994,-45.7,-32.44,-16.2,-34.56,-61.39,-38.17,0,0,0,0,0,0,0,0,0,0,0,0,0,0,0,0,
594,-21.71,20.76,-56.93,4.96,-90.26,-22.09,10.92,19.66,-21.07,9.899,-60.88,-21.13,-10.76,-25.47,-66.6,-51.17,0,0,0,0,0,0,0,0,0,0,0,0,0,0,0,0,
595,-24.98,20.48,-67.15,-9.349,-92.11,-36.49,19.62,48.97,-53.05,6.586,-51.12,-13.35,3.973,-5.474,-43.86,-32.72,0,0,0,0,0,0,0,0,0,0,0,0,0,0,0,0,
596,-29.12,22.01,-44.23,4.424,-48.42,-25.24,20.11,2.072,-34.74,2.28,-7.696,5.354,20.47,15.56,-5.117,2.812,0,0,0,0,0,0,0,0,0,0,0,0,0,0,0,0,
597,-12.42,1.007,-30.26,4.773,-34.92,7.227,12.31,-13.97,-6.452,17.41,-2.1,0.1021,6.589,9.098,10.98,17.39,0,0,0,0,0,0,0,0,0,0,0,0,0,0,0,0,
598,5.984,-7.52,-29.64,7.611,-44.07,27.47,11.67,29.87,-7.421,53.37,-12.35,-4.151,8.502,16.83,4.212,11.42,0,0,0,0,0,0,0,0,0,0,0,0,0,0,0,0,
599,-3.052,18.17,-37.42,10.58,-37.01,-2.289,-2.251,6.634,-21.95,8.154,-24.77,-11.77,0.9957,6.038,-4.598,3.954,0,0,0,0,0,0,0,0,0,0,0,0,0,0,0,0,
600,-28.83,4.322,-46.55,-6.064,-36.32,-33.94,-14.5,-12.52,-26.32,-50.3,-25,-8.15,-3.938,-9.697,-6.213,1.08,0,0,0,0,0,0,0,0,0,0,0,0,0,0,0,0,
601,-7.838,0.0875,-27.45,6.438,-49.89,-11.17,-11.84,-0.5357,-21.72,-25.5,-9.389,7.455,19.67,5.561,-0.2397,0.223,0,0,0,0,0,0,0,0,0,0,0,0,0,0,0,0,
602,0.4608,22.78,-32.49,10.84,-74.87,-6.892,-21.15,-27.58,-26.83,-13.38,-30.28,-10.09,21.77,10.49,-0.0163,-0.8126,0,0,0,0,0,0,0,0,0,0,0,0,0,0,0,0,
603,-14.66,32.01,-32.63,16.33,-44.88,0.6384,28,52.86,16.84,31.41,-19.7,3.989,39.65,32.94,7.426,19.09,0,0,0,0,0,0,0,0,0,0,0,0,0,0,0,0,
604,26.55,48.39,-8.701,42.92,7.012,37.34,76.96,123.8,48.52,82.19,23.23,25.03,47.16,41.45,20.67,38.19,0,0,0,0,0,0,0,0,0,0,0,0,0,0,0,0,
605,34.07,31.25,-42.47,8.67,-23.2,29.78,26.98,1.345,1.977,11.38,8.698,-3.389,14.87,12.77,9.932,15.4,0,0,0,0,0,0,0,0,0,0,0,0,0,0,0,0,
606,14.34,21.5,-33.44,-5.103,-24.45,34.62,22.56,-24.41,10.16,-4.492,-3.912,10.9,35.63,26.35,-4.274,-7.471,0,0,0,0,0,0,0,0,0,0,0,0,0,0,0,0,
607,47.18,62.56,36.46,46.14,29.55,53.81,59.09,63.36,26.05,72.33,-0.7153,32.46,59.16,36.48,-3.292,-1.813,0,0,0,0,0,0,0,0,0,0,0,0,0,0,0,0,
608,41.12,63.73,28.19,48.23,17.84,29.01,32.73,27.65,-20.87,56.16,-2.347,19.12,43.58,25.81,3.59,6.025,0,0,0,0,0,0,0,0,0,0,0,0,0,0,0,0,
609,13.66,47.09,0.5375,25.35,-7.82,21.34,18.2,-7.919,3.984,4.931,15.39,31.51,39.47,32.23,15.96,6.693,0,0,0,0,0,0,0,0,0,0,0,0,0,0,0,0,
610,22.35,39.25,-7.2,16.42,-2.681,24.07,7.961,9.83,42.62,-2.332,13.49,34.87,15.2,12.11,16.89,-4.931,0,0,0,0,0,0,0,0,0,0,0,0,0,0,0,0,
611,31.66,10.15,-22.86,16.47,8.422,32.66,-7.092,12.85,21.09,-5.591,17.88,33.54,-3.324,-4.981,9.797,-15.58,0,0,0,0,0,0,0,0,0,0,0,0,0,0,0,0,
612,45.85,-3.133,-19.46,28.7,8.825,49.25,3.153,25.12,29.47,-4.269,24.09,30.86,-1.859,-13.2,6.251,-16.73,0,0,0,0,0,0,0,0,0,0,0,0,0,0,0,0,
613,20.58,-7.731,-25.62,22.86,-27.62,11.53,-1.742,22.87,33.33,19.1,-5.775,4.794,1.101,-14.49,-2.131,-18.8,0,0,0,0,0,0,0,0,0,0,0,0,0,0,0,0,
614,-21.81,13.07,-15.76,31.83,-34.97,-4.268,17.58,30.23,-4.355,50.6,0.4627,13.9,32.95,32.28,2.315,-0.4592,0,0,0,0,0,0,0,0,0,0,0,0,0,0,0,0,
615,-6.888,48.87,-3.964,26.16,-9.91,22.65,36.09,33.87,-21.03,53.16,2.684,19.28,30.48,36.12,5.817,23.3,0,0,0,0,0,0,0,0,0,0,0,0,0,0,0,0,
616,8.504,33.97,-39.43,-9.649,-12.8,6.685,9.086,9.559,3.764,60.25,-23.45,7.944,8.351,1.648,-17.53,15.69,0,0,0,0,0,0,0,0,0,0,0,0,0,0,0,0,
617,14.38,30.51,-34.83,28.36,-7.133,1.459,13.18,24.19,22.27,59.04,-2.914,30.57,25.95,9.128,-32.68,1.458,0,0,0,0,0,0,0,0,0,0,0,0,0,0,0,0,
618,15.46,34.57,-19.68,55.64,-15.84,19.2,19.3,28.13,7.09,1.781,-8.562,14.66,19.18,6.926,-30.11,-4.179,0,0,0,0,0,0,0,0,0,0,0,0,0,0,0,0,
619,-11.8,12.55,-33.82,16.22,-39.74,18.38,24.08,31.91,10.24,11.51,-37.09,-19.8,21.06,21.33,-24.41,-0.4601,0,0,0,0,0,0,0,0,0,0,0,0,0,0,0,0,
620,-14.34,30.11,6.464,34.16,-17.31,18.56,64.72,82.82,-1.091,53.56,-30.39,-22.91,34.26,38.94,-19.17,14.76,0,0,0,0,0,0,0,0,0,0,0,0,0,0,0,0,
621,-8.688,24.54,35.96,66.65,7.354,17.95,50.85,56.22,-40.82,-0.7217,-55.35,-42.41,-5.792,-7.32,-35.01,8.827,0,0,0,0,0,0,0,0,0,0,0,0,0,0,0,0,
622,-12.53,-3.934,30.39,69.76,17.61,32.1,21.26,13.26,9.359,10.47,-51.65,-28.23,-13.64,-22.61,-46.95,-15.78,0,0,0,0,0,0,0,0,0,0,0,0,0,0,0,0,
623,8.447,38.28,50.16,84.24,26.38,40.57,48.47,69.47,63.71,82.2,18.07,20.58,12.31,-0.7655,-24.53,-23.97,0,0,0,0,0,0,0,0,0,0,0,0,0,0,0,0,
624,15.81,65.32,26.84,67.94,11.96,15.12,47.97,76.52,13.88,36.82,29.55,28.3,7.159,-3.858,-6.546,-16.5,0,0,0,0,0,0,0,0,0,0,0,0,0,0,0,0,
625,6.69,36.66,-34.13,37.09,-15.63,5.287,7.29,5.216,-2.117,6.794,-6.882,23.01,18.16,19.02,-5.225,1.335,0,0,0,0,0,0,0,0,0,0,0,0,0,0,0,0,
626,6.702,23.07,-39.88,43.09,-33.77,16.82,-5.89,2.11,48.18,84.69,2.001,28.67,41.93,57.02,13.61,30.84,0,0,0,0,0,0,0,0,0,0,0,0,0,0,0,0,
627,14.06,33.34,8.541,76.64,9.807,36.05,22.21,46.18,65.11,99.34,27.42,21.92,33.04,43.91,40.53,49.27,0,0,0,0,0,0,0,0,0,0,0,0,0,0,0,0,
628,22.12,40.12,28.17,101.1,49.83,47.89,48.82,51.62,32.02,16.05,6.629,-3.715,-0.7348,-4.243,33.62,27.03,0,0,0,0,0,0,0,0,0,0,0,0,0,0,0,0,
629,10.61,35.15,-10.55,95.97,-18.41,37.72,60.74,79.93,11.75,9.464,-18.17,-11.6,-5.723,-3.738,-1.677,-14.74,0,0,0,0,0,0,0,0,0,0,0,0,0,0,0,0,
630,15.5,59.52,-19.26,92.19,-48.35,38.47,68.92,112.5,35.87,76,-12.84,7.537,18.7,27.68,-28.5,-31.91,0,0,0,0,0,0,0,0,0,0,0,0,0,0,0,0,
631,24.36,76.55,3.626,89.28,15.59,22.68,32.12,40.54,19.45,53.21,-19.26,7.215,11.54,9.838,-39.02,-32.14,0,0,0,0,0,0,0,0,0,0,0,0,0,0,0,0,
632,7.774,43.65,10.28,103.4,29.17,9.855,11.17,18.3,-12.21,22.74,8.146,22.85,17.5,15.96,-21.67,-20.14,0,0,0,0,0,0,0,0,0,0,0,0,0,0,0,0,
633,38.78,39.19,24.71,134.7,16.55,53.78,53.1,100.2,31.27,48.59,58.18,44.43,32.07,40.56,18.47,6.28,0,0,0,0,0,0,0,0,0,0,0,0,0,0,0,0,
634,64.03,37.73,8.158,113,33.81,67.97,52.1,71,68.45,30.82,40.92,14.85,0.7778,9.402,32.51,11.64,0,0,0,0,0,0,0,0,0,0,0,0,0,0,0,0,
635,35.41,23.1,-6.513,116.7,46.13,56.31,45.42,30.45,73.09,62.28,33.73,21.79,17.78,25.99,26.9,9.12,0,0,0,0,0,0,0,0,0,0,0,0,0,0,0,0,
636,47.92,52.96,30.74,159.8,44.96,72.99,68.86,84.54,65.51,109.5,50.4,56.73,57.39,58.86,34.42,28.63,0,0,0,0,0,0,0,0,0,0,0,0,0,0,0,0,
637,66.34,56.17,31.87,123.4,51.21,67.65,52.88,81.98,27.79,40.71,31.99,50.43,47.54,30.27,42.62,42.52,0,0,0,0,0,0,0,0,0,0,0,0,0,0,0,0,
638,57.84,57.22,34.11,120.1,87.26,66.66,69.65,86.29,36.99,37.89,43.77,59.29,60.35,38.78,45.48,39.68,0,0,0,0,0,0,0,0,0,0,0,0,0,0,0,0,
639,57.59,93.51,78.52,172,96.89,75.5,98.85,114.5,73.09,105.7,50.37,53.83,52.55,49.1,34.46,23.91,0,0,0,0,0,0,0,0,0,0,0,0,0,0,0,0,
640,47.73,71.15,80.35,160.6,67.16,73.56,74.24,72.89,73.3,81,34.98,32.71,16.16,27.47,17.08,2.931,0,0,0,0,0,0,0,0,0,0,0,0,0,0,0,0,
641,64.53,56.61,63.61,180.4,61.65,89.07,80.43,75.22,79.59,68.12,63.65,50.8,29.53,36.71,26.23,2.375,0,0,0,0,0,0,0,0,0,0,0,0,0,0,0,0,
642,75.18,83.25,56.52,214.4,46.29,66.83,85.23,111.1,60.09,93.73,60.07,47.67,41.69,37.07,41.24,13.16,0,0,0,0,0,0,0,0,0,0,0,0,0,0,0,0,
643,43,78.2,66.94,197.8,36.39,41.84,73.64,107.2,26.21,86.23,37.87,46.73,57.67,45.97,49.07,26.34,0,0,0,0,0,0,0,0,0,0,0,0,0,0,0,0,
644,49.48,88.86,119.4,243.9,66.48,79.14,109.7,137.2,37.54,85.46,62.49,69.46,79.99,68.06,66.85,42.37,0,0,0,0,0,0,0,0,0,0,0,0,0,0,0,0,
645,60.59,90.5,159.8,325.2,81.93,97.83,122.5,165,62.5,96.76,62.97,57.11,52.63,51.3,67.56,36.68,0,0,0,0,0,0,0,0,0,0,0,0,0,0,0,0,
646,65.12,56.42,209.7,390.6,121.4,121,115.2,161,98.76,102,65.1,64.56,42.13,58.29,55.84,28.64,0,0,0,0,0,0,0,0,0,0,0,0,0,0,0,0,
647,115.7,54.91,294.7,477.1,167.5,171.7,145,195.4,109.2,81.36,92.11,87.05,60.74,82.35,66.73,49.15,0,0,0,0,0,0,0,0,0,0,0,0,0,0,0,0,
648,128.1,65.73,339.4,539.5,138.7,167.8,170.1,250.7,65.24,64.32,69.11,65.81,59.87,66.02,70.37,63.16,0,0,0,0,0,0,0,0,0,0,0,0,0,0,0,0,
649,96.06,85.66,349.5,589.1,116.7,151,187.5,272.8,46.3,105.9,29.09,50.21,62.77,53.95,41.99,44.36,0,0,0,0,0,0,0,0,0,0,0,0,0,0,0,0,
650,79.59,121.4,364.9,649.8,136.6,163,211.3,286.6,51.64,137.1,24.7,52.23,71.14,70.42,22.01,26.33,0,0,0,0,0,0,0,0,0,0,0,0,0,0,0,0,
651,61.21,132.3,384,657.2,133.3,165.4,233.8,342.7,41.79,135.1,30.34,46.07,79.36,90.4,39.13,36.97,0,0,0,0,0,0,0,0,0,0,0,0,0,0,0,0,
652,53.89,124.6,385.7,627.4,109,162.6,238.9,376.3,29.1,128.7,37.68,37.77,66.2,71.33,68.02,45.71,0,0,0,0,0,0,0,0,0,0,0,0,0,0,0,0,
653,67.13,98.72,393.6,647.9,127.7,188.7,231.1,346.4,53.04,101.5,76.22,55.89,33.99,34.81,87.77,27.9,0,0,0,0,0,0,0,0,0,0,0,0,0,0,0,0,
654,106.2,83.58,462.9,690.9,206.1,237.6,247.2,334.5,125.2,130.1,106.5,93.09,33.15,42.33,94.4,12.06,0,0,0,0,0,0,0,0,0,0,0,0,0,0,0,0,
655,140.9,100.4,475.5,641.8,221.4,234.3,237.4,315.2,110.9,188.6,63.64,77.62,42.16,60.6,69.65,11.28,0,0,0,0,0,0,0,0,0,0,0,0,0,0,0,0,
656,112.2,101.4,393.3,556.5,166.9,199.9,201.6,294.4,16.5,134,45.31,50.11,57.45,77.19,38.56,20.82,0,0,0,0,0,0,0,0,0,0,0,0,0,0,0,0,
657,83.72,102.8,376.8,539.2,165.9,209.6,220.1,337.4,40.53,63.37,87.51,64.12,83.36,91.77,40.16,36.29,0,0,0,0,0,0,0,0,0,0,0,0,0,0,0,0,
658,85.1,117.3,371.4,506.4,162.7,207.4,232,323.8,116,105.3,66.62,57.02,77.44,72.82,42.09,34.43,0,0,0,0,0,0,0,0,0,0,0,0,0,0,0,0,
659,77.62,126,322.2,448.3,133.5,191.2,207.7,249.6,100.8,146.5,36.83,59.76,81.2,72.91,34.23,27.7,0,0,0,0,0,0,0,0,0,0,0,0,0,0,0,0,
660,94.15,141.9,305.5,413.3,133.5,192.5,205.4,244.7,77.02,121.5,71.77,91.59,99.04,94.84,53.52,44.36,0,0,0,0,0,0,0,0,0,0,0,0,0,0,0,0,
661,107.2,129.4,245.4,338.3,113.7,159.6,188.9,235.6,78.45,110.6,87.16,78.77,78.34,86.58,87.02,62.27,0,0,0,0,0,0,0,0,0,0,0,0,0,0,0,0,
662,71.36,82.69,165,256.5,90.43,114.7,140.8,176.7,44.37,98.77,83.24,46.43,52.18,67.32,104.5,59.28,0,0,0,0,0,0,0,0,0,0,0,0,0,0,0,0,
663,21.15,50.45,147.8,221.7,63.24,81.37,114.5,158.5,8.171,86.81,91.79,36.42,45.32,56.9,107,49.73,0,0,0,0,0,0,0,0,0,0,0,0,0,0,0,0,
664,-1.905,55.82,121.2,208.8,5.79,64.2,130.7,175.9,32.45,146.8,76.99,31.97,47.04,63.57,98.08,53.52,0,0,0,0,0,0,0,0,0,0,0,0,0,0,0,0,
665,18.99,78.54,102.5,204,18.76,91.88,133.2,155.6,46.58,129.3,30.93,16.56,28,43.29,65.45,53.69,0,0,0,0,0,0,0,0,0,0,0,0,0,0,0,0,
666,39.36,55.37,122.9,175.4,86.71,115.1,94.31,116.2,3.858,-8.088,11.1,11.63,-6.33,-12.55,16.6,22.45,0,0,0,0,0,0,0,0,0,0,0,0,0,0,0,0,
667,49.92,27.48,120.6,147.3,93.33,114.1,92.76,119.1,14.27,-1.516,47.45,40.58,1.831,-10.44,-7.83,-12.45,0,0,0,0,0,0,0,0,0,0,0,0,0,0,0,0,
668,64.56,44.96,85.79,114.4,49.53,95.61,103.3,99.41,61.65,70.32,46.88,34.69,3.59,9.624,-9.708,-26.06,0,0,0,0,0,0,0,0,0,0,0,0,0,0,0,0,
669,38.32,29.65,45.7,30.92,26.08,56.64,68.96,39.86,48.09,19.27,5.685,-4.401,-22.55,-3.39,-19.69,-30.51,0,0,0,0,0,0,0,0,0,0,0,0,0,0,0,0,
670,11.54,6.523,32.76,-7.077,29.7,47.22,57.89,50.79,19.83,27.07,8.565,-12.14,-13.28,17.09,-27.77,-20.24,0,0,0,0,0,0,0,0,0,0,0,0,0,0,0,0,
671,3.421,16.34,19.16,-5.606,-2.72,33.43,51.93,79.44,2.078,79.71,8.053,-31.46,-6.094,39.3,-19.88,4.383,0,0,0,0,0,0,0,0,0,0,0,0,0,0,0,0,
672,-23.18,3.391,-19.84,-52.12,-31.75,2.989,28.61,44.36,-11.12,24.52,15.55,-31.12,-12.16,24.64,15.2,27.7,0,0,0,0,0,0,0,0,0,0,0,0,0,0,0,0,
673,-10.08,-14.23,-29.17,-69.87,-3.587,17.36,23.08,9.299,-10.93,-6.969,57.13,16.24,-15.06,-2.443,68.58,34.75,0,0,0,0,0,0,0,0,0,0,0,0,0,0,0,0,T1
674,13.9,-28.21,-21.95,-57.17,0.5417,23.57,-1.081,3.329,7.272,19.35,57.69,32.09,-28.55,-20.5,89.81,19.8,0,0,0,0,0,0,0,0,0,0,0,0,0,0,0,0,
675,4.963,-30.95,-32.53,-78.9,-6.454,9.062,-10.68,9.384,49.28,-10.31,44.86,28.52,-19.86,-12.64,62.08,5.309,0,0,0,0,0,0,0,0,0,0,0,0,0,0,0,0,
676,2.845,-8.249,-62.3,-113.4,-13.23,-1.175,3.002,-9.713,-5.878,-53.95,7.205,-8.403,-22.96,-24.96,-3.399,-11.69,0,0,0,0,0,0,0,0,0,0,0,0,0,0,0,0,
677,-32.13,-7.619,-82.97,-132.7,-44.4,-18.8,-4.462,-26.55,-113.8,-18.77,-56.18,-66.74,-30.93,-26.88,-70.45,-33,0,0,0,0,0,0,0,0,0,0,0,0,0,0,0,0,
678,-59.94,-0.2483,-40.78,-126.9,-0.5446,-2.643,4.378,-3.216,-60.27,47.26,-40.12,-63.47,-8.758,5.198,-80.22,-25.27,0,0,0,0,0,0,0,0,0,0,0,0,0,0,0,0,
679,-49.39,-10.31,-39.71,-153.7,24.82,-11.41,-16.54,-33.09,0.5321,34.59,-30.72,-68.48,-32.32,-16.16,-65.69,-12.73,0,0,0,0,0,0,0,0,0,0,0,0,0,0,0,0,
680,-72.91,-66.24,-107.8,-192.4,-54.09,-51.93,-52.44,-62.28,-50.46,-11.77,-58.42,-75.12,-34.53,-11.5,-67.77,-9.467,0,0,0,0,0,0,0,0,0,0,0,0,0,0,0,0,
681,-62.72,-51.16,-103.8,-174.5,-59.05,-28.53,-23.03,-31.43,-45.4,-17.26,-28.79,-39.05,5.601,26.18,-49.59,11.86,0,0,0,0,0,0,0,0,0,0,0,0,0,0,0,0,
682,-33.18,-30.38,-104.1,-190.8,-40.57,-37.05,-27.74,-63.96,-40.76,-24.98,-36.74,-64.07,-41.91,-35.26,-29.65,5.575,0,0,0,0,0,0,0,0,0,0,0,0,0,0,0,0,
683,-70.93,-70.76,-142.3,-206.7,-91.89,-88.39,-55.43,-68.01,-77.43,-45.83,-67.72,-84.44,-68.34,-70.22,-31.93,-37.49,0,0,0,0,0,0,0,0,0,0,0,0,0,0,0,0,
684,-87.51,-56.72,-111.1,-166,-82.73,-79.6,-44.83,-33.24,-64.92,-79.77,-41.98,-51.12,-27.63,-33.01,-27.75,-55.59,0,0,0,0,0,0,0,0,0,0,0,0,0,0,0,0,
685,-81.54,-46.62,-95.88,-192.1,-42.14,-69.48,-70.65,-117.8,-54.57,-97.07,-47.7,-69.99,-45.45,-45.61,-29.93,-57.82,0,0,0,0,0,0,0,0,0,0,0,0,0,0,0,0,
686,-84.2,-74.86,-117.4,-214,-42.68,-55.59,-83.11,-149.1,-40.5,-47.31,-65.53,-84.36,-66.01,-57.3,-48.18,-70.07,0,0,0,0,0,0,0,0,0,0,0,0,0,0,0,0,
687,-53.18,-75.03,-122,-184.5,-48.12,-37.27,-78.94,-89.85,-26.19,-21.17,-57.26,-65.21,-67.52,-59.39,-61.96,-81.28,0,0,0,0,0,0,0,0,0,0,0,0,0,0,0,0,
688,-41.84,-91.52,-137.8,-218.3,-51.7,-70.31,-105.4,-103.6,-59.49,-49.6,-50.75,-59.01,-75.9,-73.77,-61.42,-78.59,0,0,0,0,0,0,0,0,0,0,0,0,0,0,0,0,
689,-48.42,-90.25,-123.8,-232.7,-53.78,-83.14,-86.52,-91.8,-72.07,-64.01,-36.88,-45.82,-55.8,-63.66,-50.93,-58.44,0,0,0,0,0,0,0,0,0,0,0,0,0,0,0,0,
690,-42.99,-59.47,-121.7,-213.6,-79.48,-74.62,-72.77,-68.79,-73.93,-58.28,-60.92,-60.35,-49.75,-62.67,-62.89,-51.35,0,0,0,0,0,0,0,0,0,0,0,0,0,0,0,0,
691,-55.6,-43.56,-155.8,-223.4,-93.13,-76.11,-73.43,-85.27,-83.22,-15.49,-88.62,-83.13,-50.93,-52.41,-94.44,-69.27,0,0,0,0,0,0,0,0,0,0,0,0,0,0,0,0,
692,-66.47,-9.419,-123.3,-189.1,-56.32,-58.62,-22.39,-40.29,-59.49,-18.61,-72.98,-84.81,-57.54,-42.77,-108.8,-89.83,0,0,0,0,0,0,0,0,0,0,0,0,0,0,0,0,
693,-79.78,-29.64,-91.55,-175,-54.15,-61.33,-39.32,-45.92,-54.13,-100.3,-83.25,-107.2,-99.55,-73.41,-112.9,-110.7,0,0,0,0,0,0,0,0,0,0,0,0,0,0,0,0,
694,-79.67,-94.07,-118.2,-216.7,-72.35,-57.63,-100.6,-124.9,-59.73,-83.96,-81.08,-101.2,-93.06,-67.08,-101.4,-117,0,0,0,0,0,0,0,0,0,0,0,0,0,0,0,0,
695,-52.76,-76.38,-132,-212.7,-62.02,-42.07,-81.27,-114.2,-47.94,-27.31,-43.79,-65.53,-55.02,-41.68,-61.84,-98.5,0,0,0,0,0,0,0,0,0,0,0,0,0,0,0,0,
696,-60.17,-53.05,-139.9,-205.9,-65.14,-80.78,-67.51,-84.46,-48.88,-73.01,-36.68,-51.45,-53.14,-50.77,-28.98,-78.79,0,0,0,0,0,0,0,0,0,0,0,0,0,0,0,0,
697,-58.25,-63.52,-141.4,-224.4,-57.55,-92.84,-80.95,-101,-38.53,-80.94,-30.34,-29.2,-35.93,-46.01,-20.07,-64.47,0,0,0,0,0,0,0,0,0,0,0,0,0,0,0,0,
698,-23.39,-33.12,-135.4,-210.6,-48.97,-49.64,-58.42,-80.45,-45.54,-35.27,-26.51,-17.62,-22.12,-45.11,-25.74,-57.26,0,0,0,0,0,0,0,0,0,0,0,0,0,0,0,0,
699,-29.63,-15.79,-136.7,-190.2,-81.51,-47.43,-56.22,-64.33,-96.22,-78.41,-41.46,-28.11,-50,-69.61,-38.64,-66.06,0,0,0,0,0,0,0,0,0,0,0,0,0,0,0,0,
700,-42.46,-50.59,-120.8,-189,-100.8,-68.66,-89.69,-94.8,-108.5,-127.7,-28.5,-23.41,-68.9,-81.55,-42.11,-82.06,0,0,0,0,0,0,0,0,0,0,0,0,0,0,0,0,
701,-31.27,-65.72,-111.4,-182.3,-78.12,-62.83,-76.12,-73.61,-67.09,-53.28,-16.43,-25.67,-54.46,-69.11,-37.35,-94.31,0,0,0,0,0,0,0,0,0,0,0,0,0,0,0,0,
702,-40.11,-35.55,-119.2,-169.2,-55.49,-63.99,-40.38,-27.69,-30.43,12.14,-43.69,-54.66,-48.04,-60.02,-47.62,-103.5,0,0,0,0,0,0,0,0,0,0,0,0,0,0,0,0,
703,-67.09,-35.57,-128.4,-177.6,-78.55,-95.95,-76.88,-81.29,-19.43,-53.27,-63.75,-75.75,-70.59,-75.18,-69.73,-110.4,0,0,0,0,0,0,0,0,0,0,0,0,0,0,0,0,
704,-70.35,-69.08,-143,-187.6,-107.7,-107.9,-113.7,-126.8,-35.79,-71.5,-50.92,-63.78,-77.37,-81.97,-74.48,-109.7,0,0,0,0,0,0,0,0,0,0,0,0,0,0,0,0,
705,-58.24,-60.4,-141,-187.3,-88.94,-97.79,-91.5,-84.57,-87.5,4.399,-58.43,-73.27,-81.06,-89.65,-72.24,-116.5,0,0,0,0,0,0,0,0,0,0,0,0,0,0,0,0,
706,-94.06,-54.34,-131.6,-211.1,-91.59,-114.2,-99.74,-93.02,-133.5,-14.15,-85.36,-108.4,-92.49,-97.12,-84.85,-134.6,0,0,0,0,0,0,0,0,0,0,0,0,0,0,0,0,
707,-118.7,-70.33,-127.7,-210,-114.9,-106.6,-112.7,-119.8,-112.2,-59.07,-75.78,-90.01,-64.15,-61.11,-82.15,-122.7,0,0,0,0,0,0,0,0,0,0,0,0,0,0,0,0,
708,-80.24,-68.05,-124.9,-175.3,-88.06,-84.71,-98.58,-92.73,-75.55,-39.85,-82.85,-75.77,-66.03,-63.95,-66.99,-96.84,0,0,0,0,0,0,0,0,0,0,0,0,0,0,0,0,
709,-76.24,-84.21,-126.5,-173.4,-63.17,-103.2,-96.41,-83.25,-69.1,-62.4,-93.03,-80.22,-86.64,-89.05,-64.04,-94.92,0,0,0,0,0,0,0,0,0,0,0,0,0,0,0,0,
710,-65.11,-64.54,-106.2,-163,-78.62,-89.86,-48.6,-59.38,-60.8,-73.75,-29.23,-25.01,-32.96,-37.94,-36.88,-73.61,0,0,0,0,0,0,0,0,0,0,0,0,0,0,0,0,
711,-11.74,2.565,-92.23,-141.5,-92.54,-57.31,3.592,-30.58,-58.76,-21.01,3.467,-4.563,-13.61,-22.5,2.865,-37.94,0,0,0,0,0,0,0,0,0,0,0,0,0,0,0,0,
712,-10.85,9.603,-82.74,-129.9,-45.36,-42.04,-18.84,-64.4,-24.63,-21.7,-5.488,-22.58,-38.71,-48.65,7.406,-35.05,0,0,0,0,0,0,0,0,0,0,0,0,0,0,0,0,
713,0.7122,-9.164,-18.28,-81.73,48.86,1.513,-45.94,-93.54,31.85,-85.27,30.76,10.7,-20.95,-30.31,5.279,-33.58,0,0,0,0,0,0,0,0,0,0,0,0,0,0,0,0,
714,34.09,-23.93,30.43,-55.61,82.81,18.32,-50.58,-86.98,27.09,-98.66,42.11,19.94,-23.37,-38.12,19.05,-20.03,0,0,0,0,0,0,0,0,0,0,0,0,0,0,0,0,
715,20,-38.7,23.69,-81.23,80.62,9.221,-41.92,-77.49,39.24,-45.27,33.03,9.843,-22.88,-42.61,30.4,-17.93,0,0,0,0,0,0,0,0,0,0,0,0,0,0,0,0,
716,23.59,-11.62,-9.76,-113.2,84.89,15.07,-30.71,-75.03,61.43,-27.72,19.69,8.508,-1.445,-17.26,23.48,-20.97,0,0,0,0,0,0,0,0,0,0,0,0,0,0,0,0,
717,24.47,-3.07,-66.39,-140.9,29.5,-10.97,-35.49,-66.25,-14.35,-47.04,-38.51,-29.43,-22.35,-34.23,-7.16,-28.79,0,0,0,0,0,0,0,0,0,0,0,0,0,0,0,0,
718,-10.13,-16.99,-64.06,-117.8,-15.28,-31.74,-30.94,-53.52,-63.28,-48.66,-44.44,-40.23,-39.14,-51.74,-32.12,-44.05,0,0,0,0,0,0,0,0,0,0,0,0,0,0,0,0,
719,-21.39,-16.21,-26.36,-92.48,18.86,-26.09,-52.83,-89.26,-3.144,-86.82,3.675,-16.65,-43.86,-50.32,-31.74,-58.01,0,0,0,0,0,0,0,0,0,0,0,0,0,0,0,0,
720,-10.05,-38.46,-31.59,-115.1,56.34,-10.79,-74.06,-98.51,63.36,-115.3,13.04,-14.29,-55.19,-55.32,-20.67,-61.56,0,0,0,0,0,0,0,0,0,0,0,0,0,0,0,0,
721,13.61,-42.5,-25.75,-113.4,49.68,15.65,-37.53,-47.41,59.15,-72.96,1.952,-25.57,-51.05,-53.84,-10.5,-53.63,0,0,0,0,0,0,0,0,0,0,0,0,0,0,0,0,
722,2.03,-34.14,-26.85,-110.4,13.1,-15.84,-44.91,-81.99,-21.09,-41.73,-11.93,-42.2,-45.27,-44.12,-7.727,-43.97,0,0,0,0,0,0,0,0,0,0,0,0,0,0,0,0,
723,-34.34,-43.11,-26.57,-100.4,25.86,-42.09,-77.56,-130.6,-76.78,-32.15,-11.32,-33.6,-24.26,-20.7,-5.54,-28.23,0,0,0,0,0,0,0,0,0,0,0,0,0,0,0,0,
724,-7.232,-24.97,5.244,-71.1,61.6,2.353,-61.76,-103.3,-72.62,-63.31,-16,-29.56,-17.09,-25.95,-11.19,-15.47,0,0,0,0,0,0,0,0,0,0,0,0,0,0,0,0,
725,3.322,-28.02,-25.88,-117,-0.1748,-8.689,-68.59,-112.8,-66.46,-120.9,-45.8,-49.28,-28.37,-37.95,-27.83,-13.83,0,0,0,0,0,0,0,0,0,0,0,0,0,0,0,0,
726,-38.21,-44.92,-68.93,-156.4,-60.04,-55.07,-79.85,-127.8,-36.23,-94.43,-28.79,-25.11,9.706,13.05,-9.745,13.66,0,0,0,0,0,0,0,0,0,0,0,0,0,0,0,0,
727,-38.56,-28.72,-60.82,-132.9,-22.3,-48.34,-76.78,-125.1,-16.05,-74.04,0.2567,-4.502,39.57,44.21,33.1,61.86,0,0,0,0,0,0,0,0,0,0,0,0,0,0,0,0,
728,-14.67,-26.7,-62.11,-140.4,16.51,-25.24,-75.85,-127.9,-35.82,-88.42,0.8488,-6.811,42.92,43.39,47.12,92.09,0,0,0,0,0,0,0,0,0,0,0,0,0,0,0,0,
729,7.101,-7.561,-40.64,-134.5,17.29,-8.014,-43.17,-82.17,-28.33,-41.74,25.13,21.25,63.7,62.19,49.06,108.7,0,0,0,0,0,0,0,0,0,0,0,0,0,0,0,0,
730,19.49,12.37,-17.19,-105.8,25.93,-6.223,-38.58,-79.63,4.431,-61.58,36.87,35,55.18,44.63,56.96,106,0,0,0,0,0,0,0,0,0,0,0,0,0,0,0,0,
731,31.48,-9.379,-18.54,-100.1,77.33,10.32,-50.77,-123,23.78,-108.7,34.78,47.16,52.18,31.63,61.67,83.97,0,0,0,0,0,0,0,0,0,0,0,0,0,0,0,0,
732,57.35,2.881,-5.444,-96.02,84.53,21.84,-29.62,-106.9,-21.67,-24.62,39.27,60.07,65.72,48.77,66.11,67.05,0,0,0,0,0,0,0,0,0,0,0,0,0,0,0,0,
733,28.13,7.314,-31.05,-121.6,-12.07,-22.86,-51.03,-110,-96.11,14.82,17.47,31.92,37.28,27.55,62.09,49.96,0,0,0,0,0,0,0,0,0,0,0,0,0,0,0,0,
734,-2.153,-34.14,-56.88,-137.6,-43.4,-22.69,-77.94,-124,-71.89,-66.96,13.82,24.58,17.11,4.299,50.9,31.36,0,0,0,0,0,0,0,0,0,0,0,0,0,0,0,0,
735,25.41,-42.01,-33.16,-109.7,13.46,5.351,-64.91,-99.77,-10.76,-109.1,30.76,29.67,17.06,8.517,42.55,26,0,0,0,0,0,0,0,0,0,0,0,0,0,0,0,0,
736,12.6,-33.27,-31.83,-102.4,17.99,-23.45,-69.53,-113.5,21.12,-90.82,32.5,17.53,13.71,16.34,33.63,30.08,0,0,0,0,0,0,0,0,0,0,0,0,0,0,0,0,
737,1.345,-34.11,-29.31,-101.2,-1.212,-13.56,-62.7,-116.6,40.14,-72.4,32.02,24.38,16.61,13.48,21.13,29.83,0,0,0,0,0,0,0,0,0,0,0,0,0,0,0,0,
738,28.84,-31.82,-15.63,-94.03,-11.9,11.37,-34.37,-73.68,-16.35,-62.81,20.3,26.44,15.64,6.584,9.413,24.63,0,0,0,0,0,0,0,0,0,0,0,0,0,0,0,0,
739,24.18,-19.25,-18.83,-86.64,4.626,-1.675,-20.23,-67.56,-29.19,-37.11,28.16,37.67,41.43,36.24,17.59,39.31,0,0,0,0,0,0,0,0,0,0,0,0,0,0,0,0,
740,33.63,7.32,-4.665,-73.78,56.58,18.54,-23.11,-84.44,57.11,-18.15,43.03,53.24,60.97,52.11,36.12,67.42,0,0,0,0,0,0,0,0,0,0,0,0,0,0,0,0,
741,50.9,3.842,3.707,-97.48,42.72,22.19,-34.52,-79.65,37.49,-57.22,14.85,27.86,29.5,21.54,28.1,67.47,0,0,0,0,0,0,0,0,0,0,0,0,0,0,0,0,
742,31.06,-10.26,-7.785,-110.1,-0.6392,-14.82,-26.21,-80.67,-28.04,-86.1,-4.247,9.969,10.32,8.741,0.7594,41.94,0,0,0,0,0,0,0,0,0,0,0,0,0,0,0,0,
743,17.83,-7.67,-28.25,-83.82,15.07,-23.09,-32.65,-98.68,-21.45,-45.73,-9.293,8.778,5.872,0.9593,-22.4,15.08,0,0,0,0,0,0,0,0,0,0,0,0,0,0,0,0,
744,11.77,-19.05,-40.97,-87.08,28.98,-16.84,-60.67,-100.8,-51.52,-16.6,-9.233,15.99,8.587,1.376,-23.07,6.11,0,0,0,0,0,0,0,0,0,0,0,0,0,0,0,0,
745,10.03,-9.352,-9.124,-96.81,6.745,-23.85,-46.82,-93.95,-69.23,-55.22,18.3,40,30.56,23.53,9.585,26.83,0,0,0,0,0,0,0,0,0,0,0,0,0,0,0,0,
746,8.804,9.874,1.892,-89.89,-16.78,-34.92,-28.99,-86.94,-5.205,-88.33,22.63,31.87,36.54,27.67,40.58,50.44,0,0,0,0,0,0,0,0,0,0,0,0,0,0,0,0,
747,2.833,7.019,-25.33,-90.27,-1.283,-26.75,-35.03,-64.36,25.31,-60.04,15.66,16.92,42.31,33.18,45.01,54.72,0,0,0,0,0,0,0,0,0,0,0,0,0,0,0,0,
748,13.47,9.348,-34.64,-104.9,12.48,-21.38,-40.16,-85.95,-3.107,-40.97,20.45,22.59,37.56,24.8,34.49,42.26,0,0,0,0,0,0,0,0,0,0,0,0,0,0,0,0,
749,12.12,-2.274,-52.62,-126.7,-24.52,-41.04,-45.92,-115.9,-10.92,-25.13,14.99,26.58,26.81,12.86,26.45,27.79,0,0,0,0,0,0,0,0,0,0,0,0,0,0,0,0,
750,11.49,0.6719,-60.62,-115.8,-29.89,-40.27,-35.68,-69.48,-7.125,12.75,24.84,39.86,55.2,42.94,39.58,35.02,0,0,0,0,0,0,0,0,0,0,0,0,0,0,0,0,
751,18.72,23.36,-59.49,-100.4,-9.408,-44.25,-33.35,-58.49,-17.79,-26.96,26.29,35.12,60.83,43.76,52.95,46.41,0,0,0,0,0,0,0,0,0,0,0,0,0,0,0,0,
752,1.321,19.46,-70.29,-99.38,-5.019,-47.71,-31.46,-80.89,18.21,-46.92,31.69,36,54.52,37.61,52.17,47.06,0,0,0,0,0,0,0,0,0,0,0,0,0,0,0,0,
753,13.57,37.3,-42.09,-79.32,30.8,-0.4399,-8.324,-56.46,53.06,33.23,64.76,62.07,76.46,66.85,62.99,62.27,0,0,0,0,0,0,0,0,0,0,0,0,0,0,0,0,
754,38.26,43.05,-22.5,-79.36,38.57,19.02,-12.29,-60.28,17,21.24,55.53,55.05,69.63,60.7,73.99,84.48,0,0,0,0,0,0,0,0,0,0,0,0,0,0,0,0,
755,47,16.32,-23.29,-62.22,32.31,19.16,2.385,-37.88,42.56,-33.95,44.6,58.4,68.49,51.87,71.67,88.22,0,0,0,0,0,0,0,0,0,0,0,0,0,0,0,0,
756,82.07,35.76,-5.973,-30.8,82.11,41.25,26.89,-0.6402,99.92,-15.42,63.73,74.86,72.14,46.16,66.38,64.28,0,0,0,0,0,0,0,0,0,0,0,0,0,0,0,0,
757,78.55,42.05,-19.13,-71.02,90.63,24.64,-4.89,-55.86,50.2,-28.82,68.49,69.04,57.36,33.62,62.95,34.93,0,0,0,0,0,0,0,0,0,0,0,0,0,0,0,0,
758,57.48,33.06,-14.81,-74.38,56.99,20.13,0.1996,-64.64,10.26,-20.87,86.91,87.83,78.27,66.71,77.28,45.75,0,0,0,0,0,0,0,0,0,0,0,0,0,0,0,0,
759,70.26,50.33,-3.219,-43.95,37.54,28.88,15.07,-27.48,14.78,25.15,72.84,76.62,74.66,67.24,88.62,70.89,0,0,0,0,0,0,0,0,0,0,0,0,0,0,0,0,
760,44.41,31.22,-33.66,-78.64,15.85,12.36,-12.6,-38.65,9.951,9.395,42.52,48.2,53.3,42.7,73.56,67.09,0,0,0,0,0,0,0,0,0,0,0,0,0,0,0,0,
761,44.7,34.27,-4.8,-65.57,32.44,40.12,16.4,-7.159,46,1.628,77.41,75.98,78.96,64.25,62.88,58.18,0,0,0,0,0,0,0,0,0,0,0,0,0,0,0,0,
762,85.41,63.62,23.22,-38.24,62.13,50.97,34.3,-7.751,65.52,-4.847,88.02,79.95,80.48,61.67,62.14,58.67,0,0,0,0,0,0,0,0,0,0,0,0,0,0,0,0,
763,71.26,41.64,-6.771,-66.98,67.43,21.92,-4.998,-66.84,64.3,-35.34,77.9,75.92,71.84,55.54,66.15,66.54,0,0,0,0,0,0,0,0,0,0,0,0,0,0,0,0,
764,60.14,32.33,5.389,-50.01,70.31,37.17,-10.85,-44.6,88.36,14.3,90.55,88.56,66.72,58.8,75.05,67.59,0,0,0,0,0,0,0,0,0,0,0,0,0,0,0,0,
765,48.75,32.72,3.818,-34.03,49.83,36.04,-6.799,-14.51,61.17,65.14,59.57,55.79,34.48,33.7,66.07,45.04,0,0,0,0,0,0,0,0,0,0,0,0,0,0,0,0,
766,13.21,14.31,-13.25,-56.49,33.22,11.91,-9.18,-44.3,29.32,-0.2427,52.32,47.63,35.6,37.12,57.31,34.78,0,0,0,0,0,0,0,0,0,0,0,0,0,0,0,0,
767,29.81,16,16.59,-51.65,38.81,22.55,-12.67,-62.34,56.64,-51.14,84.27,72.56,42.46,40.28,65.32,44.01,0,0,0,0,0,0,0,0,0,0,0,0,0,0,0,0,
768,65.33,24.41,21.14,-32.05,52.32,38.68,-14.05,-36.25,67.51,10.68,69.42,71.66,39.51,32.29,62.74,43.7,0,0,0,0,0,0,0,0,0,0,0,0,0,0,0,0,
769,73.5,36.29,-0.8538,-26.62,64.14,34.43,5.36,1.684,40.64,44.89,48.14,67.2,52.43,48.88,49.9,43.78,0,0,0,0,0,0,0,0,0,0,0,0,0,0,0,0,
770,60.92,18.23,-17.9,-60.62,23.46,1.335,-8.596,-19.48,25.35,-5.379,55.47,59.28,29.79,37.72,46.18,44.88,0,0,0,0,0,0,0,0,0,0,0,0,0,0,0,0,
771,43.27,-13.99,-4.441,-65.98,17.84,0.1184,-15.9,-44.01,73.73,-19.52,80.28,72.39,24.68,33.37,64.9,50.12,0,0,0,0,0,0,0,0,0,0,0,0,0,0,0,0,
772,50.67,9.899,32.12,-15.79,86.02,32.85,15.4,-14.39,112.9,-17.74,84.62,88.09,46.85,48.92,90.28,66.36,0,0,0,0,0,0,0,0,0,0,0,0,0,0,0,0,
773,46.31,17.54,3.632,-34.34,72.55,10.99,-6.221,-19.08,51.18,-18.53,55.06,67.09,27.44,37.34,87.38,66.25,0,0,0,0,0,0,0,0,0,0,0,0,0,0,0,0,
774,32.18,-0.4826,-11.87,-67.9,23.94,-7.834,-36.35,-56.97,10.39,23.73,61.71,62.9,17.47,36.82,73.16,54.26,0,0,0,0,0,0,0,0,0,0,0,0,0,0,0,0,
775,24.83,-1.152,24.3,-52.05,26.31,-6.109,-35.87,-73.21,36.25,3.601,71.44,55.8,21.19,40.94,69.37,54.99,0,0,0,0,0,0,0,0,0,0,0,0,0,0,0,0,
776,2.065,-16.16,-4.948,-66.89,15.42,-27.4,-40.85,-56.36,38.71,-9.831,52.14,46.19,35.34,57.33,72.07,69.54,0,0,0,0,0,0,0,0,0,0,0,0,0,0,0,0,
777,18.18,9.884,-36.59,-71.11,13.08,-9.411,-28.55,-36.61,43.09,70.7,56.09,67.81,59.99,76.77,83.36,84.14,0,0,0,0,0,0,0,0,0,0,0,0,0,0,0,0,
778,36.9,33.14,-23.99,-59.57,12.84,1.221,-32.58,-69.88,56.53,38.18,53.06,56.79,32.42,42.76,81.46,71.13,0,0,0,0,0,0,0,0,0,0,0,0,0,0,0,0,
779,16.95,-0.7024,-6.856,-55.76,8.718,-20.22,-29.69,-59.19,49.72,-45.58,63.83,56.63,27.56,42.97,71.36,50.63,0,0,0,0,0,0,0,0,0,0,0,0,0,0,0,0,
780,40.86,18.43,25.55,-23.84,34.87,-1.614,4.659,4.677,31.91,-4.071,99.49,88.63,54.14,66.29,85.03,53.82,0,0,0,0,0,0,0,0,0,0,0,0,0,0,0,0,
781,50.53,33.51,4.889,-28.22,27.86,-1.031,-10.87,-18.81,12.01,27.62,84.85,72.36,25.48,31.29,97.93,54.65,0,0,0,0,0,0,0,0,0,0,0,0,0,0,0,0,
782,17.68,-2.771,-33.49,-46.91,9.069,-21.56,-21.8,-44.91,24.66,16.32,59.55,56.99,17.82,30.93,85.51,48.79,0,0,0,0,0,0,0,0,0,0,0,0,0,0,0,0,
783,22.61,1.631,-6.025,-33.8,12.82,-11.86,-5.634,-31.84,43.17,9.982,50.08,52.37,32.22,50.37,61.67,46.35,0,0,0,0,0,0,0,0,0,0,0,0,0,0,0,0,
784,17.99,6.362,13.63,-46.56,1.308,-11.65,-29.54,-59.09,37.06,1.109,40.95,32.75,23.59,40.9,49.68,41.89,0,0,0,0,0,0,0,0,0,0,0,0,0,0,0,0,
785,-0.0508,8.342,12.17,-38.1,14.33,-18.47,-31.08,-49.55,39.47,27.9,50.32,34.16,26,41.49,56.59,40.29,0,0,0,0,0,0,0,0,0,0,0,0,0,0,0,0,
786,4.124,22.76,5.613,-9.778,21.43,-15.68,-12.55,-21.4,28,29.91,37.63,23.08,3.685,13.5,46.84,23.43,0,0,0,0,0,0,0,0,0,0,0,0,0,0,0,0,
787,9.294,4.483,-4.543,-20.17,2.606,-5.671,-15.73,-35.9,14.79,9.368,34.29,19.32,-8.458,-0.2905,22.43,-0.4139,0,0,0,0,0,0,0,0,0,0,0,0,0,0,0,0,
788,22.6,7.894,11.79,-26.38,22.14,-1.987,-7.173,-33.47,40.94,24.82,71.14,46.11,21.53,31.73,30.39,10.43,0,0,0,0,0,0,0,0,0,0,0,0,0,0,0,0,
789,23.2,23.01,16.59,-21.87,29.71,-8.578,-3.813,-30.11,76.35,2.124,76.98,55.28,23.86,33.48,60.99,39.7,0,0,0,0,0,0,0,0,0,0,0,0,0,0,0,0,
790,33.26,4.547,24.46,-11.11,15.84,10.19,-8.51,-39.35,79.83,-31.58,65.35,62.42,13.5,25.12,77.07,53.45,0,0,0,0,0,0,0,0,0,0,0,0,0,0,0,0,
791,49.01,-6.805,29.14,-21.78,22.4,-2.514,-16.85,-39.83,24.79,-7.09,58.07,50.55,8.382,24.5,65.65,46.24,0,0,0,0,0,0,0,0,0,0,0,0,0,0,0,0,
792,11.86,-1.434,-9.046,-54.67,19.52,-38.12,-19.32,-34.92,-7.43,26.44,55.49,32.84,15.54,28.92,45.86,34.32,0,0,0,0,0,0,0,0,0,0,0,0,0,0,0,0,
793,10.5,24.75,11.22,-16.34,21.28,-3.998,4.103,-20.59,28.55,26.04,72.16,55.78,36.44,39.26,47.85,39.53,0,0,0,0,0,0,0,0,0,0,0,0,0,0,0,0,
794,36.3,37.49,54.64,18.45,33.47,6.286,2.383,-28.56,19.06,0.5109,57.78,51.24,19.28,17.58,54.71,43.27,0,0,0,0,0,0,0,0,0,0,0,0,0,0,0,0,
795,8.859,26.16,24.74,-6.161,43.04,-11.24,5.865,-24.21,-1.668,11.52,34.71,35.58,11.11,11.73,46.01,33.11,0,0,0,0,0,0,0,0,0,0,0,0,0,0,0,0,
796,28.8,44.57,22.57,14.83,42.8,33.16,39.18,23.53,25.91,26.25,46.69,52.45,24.93,24.3,30.6,27.22,0,0,0,0,0,0,0,0,0,0,0,0,0,0,0,0,
797,64.03,43.85,50.56,22.22,31.6,45.63,25.32,31.35,38.73,-1.324,61.15,56.03,14.26,17.34,18.21,29.04,0,0,0,0,0,0,0,0,0,0,0,0,0,0,0,0,
798,43.18,31.47,50.44,-10.27,67.47,28.79,11.58,-5.578,71.44,17.16,73.29,66.68,28.48,39.27,28.41,43.65,0,0,0,0,0,0,0,0,0,0,0,0,0,0,0,0,
799,49.32,53.5,53.55,0.0569,85.09,33.76,19.39,-37,86.11,20.49,61.02,71.19,38,45.88,50.28,61.48,0,0,0,0,0,0,0,0,0,0,0,0,0,0,0,0,
800,55.87,43.85,46.78,6.993,32.42,19.11,5.545,-30.21,49.78,-23.69,61.41,60.79,24.1,27.85,61.54,65.89,0,0,0,0,0,0,0,0,0,0,0,0,0,0,0,0,
801,41.72,37.15,33.93,-5.822,40.52,25.39,14.8,7.141,72.02,12.43,105,70.07,37.33,42.36,72.52,65.61,0,0,0,0,0,0,0,0,0,0,0,0,0,0,0,0,
802,40.31,48.18,28.72,-18.12,64.75,27.64,8.633,-8.785,84.11,23.28,82.06,41.38,20.59,25.14,62.26,50.74,0,0,0,0,0,0,0,0,0,0,0,0,0,0,0,0,
803,21.09,12.24,33.12,-25.57,37.02,0.1717,-28.74,-37.76,55.39,-19.71,38.99,13.1,-5.283,0.8488,27.45,25.32,0,0,0,0,0,0,0,0,0,0,0,0,0,0,0,0,
804,19.48,-1.892,53.56,-1.002,64.32,14.42,-26.86,-20.49,89.5,43.55,63.73,45.43,12.37,21.5,17.92,20.7,0,0,0,0,0,0,0,0,0,0,0,0,0,0,0,0,
805,36.6,19.4,41.61,2.65,81.87,14.53,-16.4,-24.59,79.93,82.3,51.45,46.71,9.497,18.13,27.79,25.99,0,0,0,0,0,0,0,0,0,0,0,0,0,0,0,0,
806,17.12,19.79,9.407,-22.7,19.92,-20.87,-15.75,-37.44,0.3565,-8.859,14.01,24.28,1.258,8.915,27.1,28.6,0,0,0,0,0,0,0,0,0,0,0,0,0,0,0,0,
807,1.132,18.96,4.576,-23.99,-8.842,-11.91,-17.78,-43.92,-12.15,-68.57,29.86,40.12,16.8,22.23,28.17,38.35,0,0,0,0,0,0,0,0,0,0,0,0,0,0,0,0,
808,12.97,9.064,13.66,-30.24,18.41,2.593,-35.09,-62.24,-3.208,-55.08,42.33,44.66,9.06,11.6,29.63,39.51,0,0,0,0,0,0,0,0,0,0,0,0,0,0,0,0,
809,11.38,-14.3,25.85,-38.76,34.29,-17.41,-40.21,-57.92,-16.4,-35.92,28.09,14.67,-19.02,-14.64,12.41,16.49,0,0,0,0,0,0,0,0,0,0,0,0,0,0,0,0,
810,-6.961,-24.18,16.08,-20.27,12.12,-18.33,-34.43,-43.36,18.66,-17.2,24.02,-4.587,-24.26,-18.36,-12.52,-9.825,0,0,0,0,0,0,0,0,0,0,0,0,0,0,0,0,
811,-4.219,-12.66,0.8382,-6.748,-16.53,2.487,-21.77,-12.45,58.4,-4.254,23.46,-3.735,-13.68,-10.99,-19.53,-15.48,0,0,0,0,0,0,0,0,0,0,0,0,0,0,0,0,
812,-10.47,-7.826,4.858,-22.79,-14.76,-17.92,-19.42,9.072,39.58,-2.41,10.03,-14.23,-29.22,-21.34,-10.36,-11.04,0,0,0,0,0,0,0,0,0,0,0,0,0,0,0,0,
813,-45.05,-25.11,2.566,-27.75,12.41,-37.92,-41.43,-36.36,37.9,6.72,34.42,2.867,-24.25,-4.362,9.861,0.592,0,0,0,0,0,0,0,0,0,0,0,0,0,0,0,0,
814,-15.35,-7.821,26.03,3.2,39.56,2.983,-32.99,-62.55,60.76,-3.44,70.72,36.5,5.027,22.13,31.98,22.45,0,0,0,0,0,0,0,0,0,0,0,0,0,0,0,0,
815,14.53,-0.8407,35.47,-1.416,12.6,-2.012,-25.97,-45.84,19.87,-41.02,6.567,-16.52,-36.71,-26.22,13.69,11.45,0,0,0,0,0,0,0,0,0,0,0,0,0,0,0,0,
816,-47.49,-52.11,-15.46,-25.86,-35.09,-51.57,-48.44,-45.02,-13.29,-20.66,-55.11,-63.55,-64.65,-46.11,-33.02,-27.54,0,0,0,0,0,0,0,0,0,0,0,0,0,0,0,0,
817,-50.17,-44.26,-18.8,-7.11,-21.66,-37.39,-32.96,-32.76,8.786,35.4,-20.55,-19.78,-22.48,0.2217,-45.72,-31.73,0,0,0,0,0,0,0,0,0,0,0,0,0,0,0,0,
818,-0.0595,-2.373,8.134,-20.67,-10.31,-30.43,-7.191,-21.26,-7.854,33.87,-7.221,-4.376,-30.29,-15,-28.38,-13.98,0,0,0,0,0,0,0,0,0,0,0,0,0,0,0,0,
819,-21.73,-16.29,-16.48,-47.96,-31.9,-48.99,-14.47,-31.83,-29.69,-3.251,-1.473,-17.64,-57.62,-46.78,-9.782,-9.188,0,0,0,0,0,0,0,0,0,0,0,0,0,0,0,0,
820,-45.53,-39.79,-36.97,-30.41,-30.29,-45.16,-49.28,-53.53,-25.04,-58.26,15.27,-20.89,-56.52,-43.2,-2.717,-6.434,0,0,0,0,0,0,0,0,0,0,0,0,0,0,0,0,
821,-49.24,-63.02,-27.99,-26.23,-15.86,-52.04,-75.64,-63.04,-20.29,-76.63,-14.95,-36.64,-58.92,-40.24,-16.87,-2.336,0,0,0,0,0,0,0,0,0,0,0,0,0,0,0,0,
822,-43.74,-52.25,-8.145,-11.77,-6.428,-36,-41.8,-34.53,26.38,-28.46,-7.938,-30.24,-49.54,-31.7,-29.58,-5.923,0,0,0,0,0,0,0,0,0,0,0,0,0,0,0,0,
823,-27.03,-22.98,-5.847,-5.151,-18.75,-22.99,-28.8,-33.09,37.36,-19.23,16.97,-33.8,-64.36,-49.82,-31.53,-30.37,0,0,0,0,0,0,0,0,0,0,0,0,0,0,0,0,
824,-50.05,-46.29,-13.87,-42.87,-31.13,-51.32,-47.89,-35.69,-13.71,-9.713,-21.79,-51.27,-82.57,-63.78,-35.33,-62.6,0,0,0,0,0,0,0,0,0,0,0,0,0,0,0,0,
825,-52.14,-45.55,4.51,-40.27,-21.14,-45.63,-20.74,-1.951,-4.901,-3.094,-47.41,-42.15,-68.44,-48.12,-39.88,-67.22,0,0,0,0,0,0,0,0,0,0,0,0,0,0,0,0,
826,-24.97,-39.85,-6.618,-35.09,-35.88,-37.08,-33.17,-45.3,9.814,-91.55,-31.81,-51.74,-77.29,-56.6,-49.57,-45.77,0,0,0,0,0,0,0,0,0,0,0,0,0,0,0,0,
827,-45.45,-79.65,-31.65,-57.09,-38.74,-57.95,-73.3,-98.23,-26.33,-89.41,-21.57,-69.18,-80.19,-51.92,-59.03,-19.83,0,0,0,0,0,0,0,0,0,0,0,0,0,0,0,0,
828,-74.93,-76.98,-24.27,-46.84,-34.18,-74.32,-65.9,-70.52,-36.43,-10,-48.84,-85.23,-81.94,-54,-74.54,-23.53,0,0,0,0,0,0,0,0,0,0,0,0,0,0,0,0,
829,-88.84,-73.31,-36.06,-45.37,-69.22,-92.92,-77.94,-64.1,-26.63,-45.54,-82.53,-104.1,-107.6,-85.45,-106.6,-68.26,0,0,0,0,0,0,0,0,0,0,0,0,0,0,0,0,
830,-81.47,-86.59,-36.33,-52.84,-63.27,-85.78,-84.55,-64.14,-36.65,-34.64,-66.79,-89.94,-101.3,-71.53,-119.4,-101.3,0,0,0,0,0,0,0,0,0,0,0,0,0,0,0,0,
831,-76.86,-68.82,-41.44,-64.96,-68.27,-89.42,-68.32,-63.67,-57.24,20.91,-59.35,-96.1,-101.2,-60.97,-106.1,-105.8,0,0,0,0,0,0,0,0,0,0,0,0,0,0,0,0,
832,-110.5,-71.09,-74.44,-78.81,-106.7,-108.7,-69.34,-79.71,-49.4,-37.67,-54.27,-99.37,-101,-70.36,-85.97,-100.1,0,0,0,0,0,0,0,0,0,0,0,0,0,0,0,0,
833,-93.48,-65.85,-41.22,-38.88,-54.07,-72.09,-62.05,-52.63,-24.6,-85.56,-20.92,-61.47,-76.64,-69.3,-59.04,-82.85,0,0,0,0,0,0,0,0,0,0,0,0,0,0,0,0,
834,-62.85,-67.52,-22.41,-31.03,-33.52,-67.71,-83.19,-58.37,-27.77,-74.59,-50.09,-78.27,-101.7,-100.1,-57.16,-80.93,0,0,0,0,0,0,0,0,0,0,0,0,0,0,0,0,
835,-98.89,-104.5,-58.61,-63.23,-90.88,-100.7,-106.1,-89.14,-25.74,-41.04,-86.05,-99.46,-108.4,-91.92,-78.49,-88.6,0,0,0,0,0,0,0,0,0,0,0,0,0,0,0,0,
836,-96.92,-81.37,-37.38,-40.75,-71,-80.52,-79.35,-62.92,-43.66,-9.995,-64.84,-78.4,-75.08,-48.91,-80.74,-68.42,0,0,0,0,0,0,0,0,0,0,0,0,0,0,0,0,
837,-71.98,-58.85,-20.37,-26.98,-37.2,-74.04,-76.76,-64.64,-80.88,-58.99,-65.38,-87.67,-86.06,-61.84,-76.37,-48.67,0,0,0,0,0,0,0,0,0,0,0,0,0,0,0,0,
838,-80.88,-83.06,-36.3,-30.02,-44.35,-82.52,-83.85,-85.62,-46.81,-86.13,-65.35,-84.51,-87.73,-68.17,-76.05,-53.58,0,0,0,0,0,0,0,0,0,0,0,0,0,0,0,0,
839,-78.01,-70.56,-45.3,-42.93,-51,-76.23,-76.17,-76.75,-33.9,-44.84,-54.51,-73.89,-85.37,-65.17,-72.73,-67.03,0,0,0,0,0,0,0,0,0,0,0,0,0,0,0,0,
840,-82.39,-70.9,-59.08,-80.16,-50.83,-78.09,-82.19,-68.62,-68.26,-48.39,-61.75,-89.76,-111.5,-86.2,-78.94,-82.17,0,0,0,0,0,0,0,0,0,0,0,0,0,0,0,0,
841,-82.69,-95.05,-27.24,-46.69,-19.21,-60.86,-78.58,-53.42,-32.77,-61.98,-61.29,-87.48,-112.1,-91.27,-89.57,-89.48,0,0,0,0,0,0,0,0,0,0,0,0,0,0,0,0,
842,-82.96,-95.02,-22.13,-19.99,-43.06,-74.59,-90.81,-61.67,-15.48,-53.96,-67.94,-86.19,-95.78,-81.68,-88.37,-75.34,0,0,0,0,0,0,0,0,0,0,0,0,0,0,0,0,
843,-106.3,-85.56,-86.17,-67.72,-115.7,-109,-94.52,-59.19,-49.1,-41.31,-56.47,-73.45,-64.94,-45.39,-60.67,-35.13,0,0,0,0,0,0,0,0,0,0,0,0,0,0,0,0,
844,-95.65,-59.59,-86.39,-56.56,-95.92,-88.18,-64.75,-20.45,-54.2,-7.133,-26.87,-48.46,-47.84,-26.61,-19.03,-0.1333,0,0,0,0,0,0,0,0,0,0,0,0,0,0,0,0,
845,-84.52,-54.08,-64.06,-20.72,-52.42,-77.32,-73.38,-41.45,-60.13,-6.534,-37.94,-63.16,-77.23,-64.74,-15.3,-12.34,0,0,0,0,0,0,0,0,0,0,0,0,0,0,0,0,
846,-93.45,-72.81,-79.14,-28.38,-52.58,-82.86,-75.04,-61.64,-43.46,-40.01,-58.2,-77.91,-85.89,-75.33,-56.35,-52.17,0,0,0,0,0,0,0,0,0,0,0,0,0,0,0,0,
847,-79.74,-75.13,-71.1,-37.31,-52.26,-72.3,-56.26,-35.5,-16.77,-48.38,-70.25,-81.95,-84.97,-65.41,-93.87,-81.81,0,0,0,0,0,0,0,0,0,0,0,0,0,0,0,0,
848,-79.59,-89.89,-67.48,-51.29,-55.03,-76.71,-87,-62.23,-29.06,-49.55,-61.92,-81.37,-98.82,-72.61,-94.22,-88.86,0,0,0,0,0,0,0,0,0,0,0,0,0,0,0,0,
849,-70.96,-96.2,-71.1,-53.11,-38.04,-70.74,-104,-94.12,-17.81,-75.12,-31.54,-60.05,-93.7,-72.42,-69.14,-74.86,0,0,0,0,0,0,0,0,0,0,0,0,0,0,0,0,
850,-50.42,-86.56,-53.8,-48.31,-25.04,-65.13,-85.38,-75.84,-6.384,-98.76,-49.9,-63.11,-91.29,-78.23,-54.58,-59.78,0,0,0,0,0,0,0,0,0,0,0,0,0,0,0,0,
851,-66.54,-86,-38.24,-42.63,-40.46,-67.06,-72.85,-53.72,-40.72,-72.65,-76.37,-74.66,-79.75,-68.23,-58.07,-47.43,0,0,0,0,0,0,0,0,0,0,0,0,0,0,0,0,
852,-75.67,-66.15,-42.09,-22.1,-45.44,-54.97,-60.66,-45.32,-75.56,-51.49,-84.7,-83.27,-71.25,-58.55,-79.61,-43.52,0,0,0,0,0,0,0,0,0,0,0,0,0,0,0,0,
853,-86.73,-67.18,-69.7,-42.83,-73.3,-73.78,-67.16,-57.5,-100,-75.69,-112.8,-105.2,-92.2,-82.72,-110.4,-64.6,0,0,0,0,0,0,0,0,0,0,0,0,0,0,0,0,
854,-104.5,-83.57,-68.07,-58.84,-99.34,-92.45,-69.58,-56.67,-92.74,-54.4,-78.57,-72.55,-78.57,-76.18,-95.91,-74.29,0,0,0,0,0,0,0,0,0,0,0,0,0,0,0,0,
855,-74.22,-50.88,-31.21,-16.11,-60.71,-67.57,-43.47,-24.08,-44.6,-17.38,-17.55,-15.86,-47.72,-46.47,-35.64,-46.87,0,0,0,0,0,0,0,0,0,0,0,0,0,0,0,0,
856,-40.58,-28.8,-25.46,-6.156,-26.35,-43.92,-28.73,-7.459,-12.58,-39.28,-38.11,-14.51,-46.48,-41.54,0.0233,-19.48,0,0,0,0,0,0,0,0,0,0,0,0,0,0,0,0,
857,-40.57,-48.8,-41.86,-36.83,-43.28,-43.03,-46.76,-30.64,-35.2,-55.29,-69.17,-37.46,-48.77,-46.75,-10.54,-15.25,0,0,0,0,0,0,0,0,0,0,0,0,0,0,0,0,
858,-57.97,-64.75,-49.76,-44.98,-53.69,-65.84,-73.76,-59.35,-65.63,-54.49,-66.98,-54.59,-55.04,-57.34,-41.77,-28.97,0,0,0,0,0,0,0,0,0,0,0,0,0,0,0,0,
