%OpenBCI Raw EXG Data
%Number of channels = 16
%Sample Rate = 125 Hz
%Board = OpenBCI_GUI$BoardCytonSerialDaisy
Sample Index,EXG Channel 0,EXG Channel 1,EXG Channel 2,EXG Channel 3,EXG Channel 4,EXG Channel 5,EXG Channel 6,EXG Channel 7,EXG Channel 8,EXG Channel 9,EXG Channel 10,EXG Channel 11,EXG Channel 12,EXG Channel 13,EXG Channel 14,EXG Channel 15,Accel Channel 0,Accel Channel 1,Accel Channel 2,Other,Other,Other,Other,Other,Other,Other,Analog Channel 0,Analog Channel 1,Analog Channel 2,Timestamp,Other,Timestamp (Formatted),Annotations
1,-0,0,0,0,-0,-0,-0,0,-0,-0,0,0,0,0,0,-0,0,0,0,0,0,0,0,0,0,0,0,0,0,0,0,0,T0
2,3.62,2.525,5.849,8.873,12.21,3.114,3.024,3.765,3.829,0.5244,4.447,1.33,-3.29,-2.724,-7.607,-2.088,0,0,0,0,0,0,0,0,0,0,0,0,0,0,0,0,
3,5.834,7.816,2.605,9.77,11.83,12.89,14.02,13.5,8.077,8.907,13.43,9.885,12.68,9.563,9.382,10.16,0,0,0,0,0,0,0,0,0,0,0,0,0,0,0,0,
4,13.98,18.79,12.24,20.02,16.78,23.91,24.62,26.62,10.95,16.87,14.58,14.85,18.88,13.82,13.41,10.24,0,0,0,0,0,0,0,0,0,0,0,0,0,0,0,0,
5,16.69,25.08,27.45,29.11,22.01,24.84,23.5,26.96,10.85,11.37,9.807,13.18,7.706,2.034,0.6162,-2.693,0,0,0,0,0,0,0,0,0,0,0,0,0,0,0,0,
6,12.83,18.37,24.37,23.87,15.75,18.52,16.72,18.56,7.612,1.084,8.789,10.18,-1.278,-8.831,-2.12,-10.04,0,0,0,0,0,0,0,0,0,0,0,0,0,0,0,0,
7,14.78,6.389,18.49,22.23,14.78,17.61,15.37,16.36,5.63,0.7665,6.048,4.075,-10.16,-13.41,-7.813,-16.43,0,0,0,0,0,0,0,0,0,0,0,0,0,0,0,0,
8,13.81,-2.64,17.51,24.39,17.63,19.41,15.17,13.21,9.395,4.502,3.334,-0.1495,-18.17,-13.09,-19.61,-19.76,0,0,0,0,0,0,0,0,0,0,0,0,0,0,0,0,
9,8.078,-5.463,4.998,15.71,8.594,12.98,7.067,9.072,11.57,3.878,5.706,0.8171,-18.56,-9.598,-17.85,-15.66,0,0,0,0,0,0,0,0,0,0,0,0,0,0,0,0,
10,4.127,-4.204,-7.1,6.413,-0.1246,2.116,-5.987,10.85,5.358,1.405,1.666,-5.079,-21.76,-8.623,-16.96,-15.94,0,0,0,0,0,0,0,0,0,0,0,0,0,0,0,0,
11,-5.973,-7.492,-7.623,10.24,0.7961,-4.406,-14.13,7.665,2.175,-1.306,-7.009,-14.75,-26.53,-10.53,-31.11,-20.33,0,0,0,0,0,0,0,0,0,0,0,0,0,0,0,0,
12,-13.91,-13.65,-8.12,13.38,2.178,-5.529,-14.28,1.177,8.183,-4.654,-5.86,-13.15,-23.6,-11.49,-37.1,-21.01,0,0,0,0,0,0,0,0,0,0,0,0,0,0,0,0,
13,-8.38,-13.73,-5.074,-2.025,3.317,-1.889,-13.55,0.0275,7.813,-8.618,-4.675,-8.718,-22.79,-11.9,-30.74,-21.17,0,0,0,0,0,0,0,0,0,0,0,0,0,0,0,0,
14,-6.187,-13.5,-4.25,-18.83,1.927,1.214,-16.82,-5.363,-4.233,-13.11,-14.59,-12.7,-27,-13.45,-35.67,-22.93,0,0,0,0,0,0,0,0,0,0,0,0,0,0,0,0,
15,-13.85,-19.35,-15.34,-12.09,-3.939,-0.3458,-17.44,-8.476,-11.69,-13.83,-20.76,-16.19,-26.12,-11.21,-42.17,-22.23,0,0,0,0,0,0,0,0,0,0,0,0,0,0,0,0,
16,-17.09,-20.8,-14.73,2.252,-2.638,-0.5279,-13.17,1.634,-10.67,-8.806,-17.82,-16.37,-24.45,-3.879,-33.42,-18.52,0,0,0,0,0,0,0,0,0,0,0,0,0,0,0,0,
17,-17.77,-15.9,-8.816,-1.406,-3.517,-3.557,-15.44,2.712,-16.04,-8.913,-25.01,-23.87,-32.64,-6.013,-36.8,-22.71,0,0,0,0,0,0,0,0,0,0,0,0,0,0,0,0,
18,-26.04,-17.19,-22.86,-10.42,-20.09,-15.64,-24.23,-11.16,-29.01,-19.55,-43.04,-37.75,-45.08,-18.35,-58.2,-37.1,0,0,0,0,0,0,0,0,0,0,0,0,0,0,0,0,
19,-35.88,-22.33,-29.47,-7.111,-29.66,-22.12,-26.84,-17.46,-34.38,-25.82,-47.78,-45.47,-47.63,-19.78,-59.66,-41.52,0,0,0,0,0,0,0,0,0,0,0,0,0,0,0,0,
20,-40.5,-25.07,-26.23,-7.764,-28.63,-21.36,-27.26,-22.91,-32.18,-25.13,-40.8,-48.29,-44.6,-16.55,-49.05,-37.1,0,0,0,0,0,0,0,0,0,0,0,0,0,0,0,0,
21,-44.26,-30.83,-40.8,-20.64,-35.62,-25.12,-30.73,-34.4,-32.75,-29.09,-41.41,-52.48,-46.28,-24.31,-56.4,-41.32,0,0,0,0,0,0,0,0,0,0,0,0,0,0,0,0,
22,-43.19,-28.25,-41.63,-18.75,-32.83,-20.39,-24.82,-27.77,-28.73,-25.53,-38.92,-46.33,-38.05,-19.94,-55.73,-36.66,0,0,0,0,0,0,0,0,0,0,0,0,0,0,0,0,
23,-30.96,-7.963,-17.91,1.581,-16.49,-5.788,-12.05,-9.322,-15.5,-11.81,-24.99,-28.63,-17.8,0.7741,-33.53,-18,0,0,0,0,0,0,0,0,0,0,0,0,0,0,0,0,
24,-19.46,3.925,-11.44,9.225,-15.84,-4.484,-8.999,-6.597,-8.065,-12.22,-17.77,-17.42,-10.14,5.063,-23.09,-14.35,0,0,0,0,0,0,0,0,0,0,0,0,0,0,0,0,
25,-15.69,-0.7626,-18.63,2.445,-23.33,-10.89,-11.28,-7.461,-6.517,-15.91,-14.02,-9.463,-8.747,1.867,-21.37,-14.86,0,0,0,0,0,0,0,0,0,0,0,0,0,0,0,0,
26,-9.602,2.186,-20.2,1.919,-17.74,-7.955,-8.355,-0.0501,0.9805,-4.801,-2.643,2.585,1.264,12.04,-8.456,0.0413,0,0,0,0,0,0,0,0,0,0,0,0,0,0,0,0,
27,-3.015,6.388,-22.7,2.881,-12.35,-4.999,-8.041,-3.262,1.43,-5.716,-1.751,2.721,0.6764,11.32,-7.286,4.115,0,0,0,0,0,0,0,0,0,0,0,0,0,0,0,0,
28,-7.799,-6.97,-27.5,-4.389,-23.27,-12.85,-19.84,-17.48,-16.77,-23.3,-15.99,-10.64,-13.33,-4.59,-27.66,-9.36,0,0,0,0,0,0,0,0,0,0,0,0,0,0,0,0,
29,-21.71,-24.08,-38.87,-10.95,-40.23,-27.19,-36.2,-25.95,-33.21,-29.53,-25.67,-21.4,-22.74,-13.4,-43.31,-18.67,0,0,0,0,0,0,0,0,0,0,0,0,0,0,0,0,
30,-33.36,-29.69,-49.7,-11.27,-41.5,-36.06,-42.17,-28.18,-32.57,-28.29,-28.83,-26.77,-28.75,-22.33,-45.69,-24.26,0,0,0,0,0,0,0,0,0,0,0,0,0,0,0,0,
31,-37.67,-27.86,-45.54,-10.43,-30.36,-34.03,-37.32,-25.61,-25.95,-31.22,-30.75,-29.19,-32.06,-33.57,-45.62,-28.66,0,0,0,0,0,0,0,0,0,0,0,0,0,0,0,0,
32,-37.26,-28,-40.47,-10.99,-26.7,-31.71,-33.87,-18.68,-22.62,-31.36,-27.26,-29.02,-29.38,-31.48,-46.11,-27.25,0,0,0,0,0,0,0,0,0,0,0,0,0,0,0,0,
33,-33.2,-29.14,-35.66,-7.231,-23.09,-29.01,-31.13,-12.69,-19.23,-26.1,-20.8,-25.33,-25.3,-21.45,-41.26,-23.55,0,0,0,0,0,0,0,0,0,0,0,0,0,0,0,0,
34,-23.98,-17.3,-16.75,7.284,-10.46,-12.63,-18.5,-3.327,-14.28,-14.35,-16.39,-16.53,-17.45,-11.56,-31.8,-17.92,0,0,0,0,0,0,0,0,0,0,0,0,0,0,0,0,
35,-17.01,-3.537,-4.809,17.89,-8.15,2.449,-7.241,2.564,-13.65,-5.473,-15.45,-13.98,-11.67,-4.306,-31.37,-13.91,0,0,0,0,0,0,0,0,0,0,0,0,0,0,0,0,
36,-20.18,-12.51,-15.24,6.438,-19.12,-3.966,-14.53,-10.41,-17.65,-12.21,-16.37,-21.32,-16.76,-5.114,-37.03,-15.98,0,0,0,0,0,0,0,0,0,0,0,0,0,0,0,0,
37,-22.83,-21.54,-23.63,-6.194,-23.15,-12.31,-21.67,-19.41,-16.95,-15.9,-14.07,-22.35,-17.18,-4.159,-33.84,-17.08,0,0,0,0,0,0,0,0,0,0,0,0,0,0,0,0,
38,-16.02,-9.658,-15.44,-1.552,-20.09,-8.767,-12.48,-5.753,-15.25,-6.49,-15.97,-22.47,-11.41,1.035,-32.84,-18.05,0,0,0,0,0,0,0,0,0,0,0,0,0,0,0,0,
39,-13.78,-5.339,-6.958,0.3655,-19.1,-10.78,-9.43,3.897,-21.52,-6.214,-26.92,-33.59,-17.46,-2.492,-41.3,-21.91,0,0,0,0,0,0,0,0,0,0,0,0,0,0,0,0,
40,-21.95,-13.84,-9.066,-2.042,-16.02,-15.75,-16.11,2.766,-24.63,-13.29,-30.23,-38.58,-24.94,-6.611,-43.5,-19.36,0,0,0,0,0,0,0,0,0,0,0,0,0,0,0,0,
41,-25.75,-15.59,-9.076,4.217,-12.88,-11.72,-14.92,3.996,-20.96,-14.7,-26.86,-34.63,-24.2,-5.838,-40,-13.65,0,0,0,0,0,0,0,0,0,0,0,0,0,0,0,0,
42,-23.76,-19.1,-0.9766,6.547,-14.82,-9.965,-16.15,-0.5038,-19.34,-19.62,-28.57,-34.98,-27.09,-10.96,-36.89,-12.05,0,0,0,0,0,0,0,0,0,0,0,0,0,0,0,0,
43,-24.84,-26.01,-0.5681,1.511,-14.41,-12.21,-25.16,-7.749,-15,-26.29,-25.34,-32.92,-30.74,-14.39,-30.54,-8.397,0,0,0,0,0,0,0,0,0,0,0,0,0,0,0,0,
44,-27.73,-28.87,-12.17,-4.627,-13.28,-13.19,-31.2,-13.03,-13.11,-28.69,-21.64,-31.22,-32.22,-12.66,-28.46,-7.918,0,0,0,0,0,0,0,0,0,0,0,0,0,0,0,0,
45,-30.62,-36.31,-16.74,-13.9,-19.36,-18.04,-36.33,-24.76,-20.01,-32.27,-26.63,-35.42,-34.79,-15.78,-34.12,-15.66,0,0,0,0,0,0,0,0,0,0,0,0,0,0,0,0,
46,-29.43,-39.52,-8.836,-15.98,-24.58,-18.48,-34.53,-29.05,-19.62,-32.59,-26.38,-30.8,-29.64,-15.55,-41.6,-17.89,0,0,0,0,0,0,0,0,0,0,0,0,0,0,0,0,
47,-20.54,-30.28,-7.272,-7.947,-23.7,-10.35,-22.76,-19.81,-14.1,-29.61,-24.29,-23.07,-22.79,-9.299,-48.39,-13.72,0,0,0,0,0,0,0,0,0,0,0,0,0,0,0,0,
48,-14.32,-25.76,-14.19,-1.896,-21.92,-6.991,-18.43,-15.51,-15.87,-29.39,-27.05,-25.34,-23.87,-8.058,-46.02,-13.56,0,0,0,0,0,0,0,0,0,0,0,0,0,0,0,0,
49,-17.25,-24.67,-16.04,-1.37,-23.86,-10.79,-21.77,-15.12,-19.76,-26.7,-25.91,-27.34,-21.83,-9.032,-37.71,-14.45,0,0,0,0,0,0,0,0,0,0,0,0,0,0,0,0,
50,-22.4,-18.37,-18.87,-5.983,-31.09,-16.83,-21.7,-12.64,-27.52,-23.83,-30.78,-28.05,-18.06,-9.423,-37.99,-13.13,0,0,0,0,0,0,0,0,0,0,0,0,0,0,0,0,
51,-21.72,-15.43,-22.06,-2.689,-29.1,-15.69,-16.47,-8.468,-32.68,-22.23,-38.08,-27.73,-16.98,-7.38,-36.17,-9.312,0,0,0,0,0,0,0,0,0,0,0,0,0,0,0,0,
52,-11.29,-9.614,-12.28,16.22,-11.91,-0.603,-4.338,4.578,-23.39,-12.1,-27.97,-17.82,-7.806,3.507,-23.7,-0.6706,0,0,0,0,0,0,0,0,0,0,0,0,0,0,0,0,
53,-0.6971,2.945,-2.381,25.26,-5.765,9.248,5.166,16.64,-17.11,-1.475,-17.67,-11.21,0.8784,10.2,-20.25,3.044,0,0,0,0,0,0,0,0,0,0,0,0,0,0,0,0,
54,-0.8315,5.071,-2.286,19.15,-16.98,5.19,3.021,14.58,-22.68,-1.791,-23.03,-19.21,-4.757,2.341,-31.28,-8.052,0,0,0,0,0,0,0,0,0,0,0,0,0,0,0,0,
55,-6.672,-2.315,-4.146,19.19,-24.1,3.31,-1.994,9.214,-26.47,-3.441,-28.68,-29.13,-13.67,-2.93,-39.55,-20.46,0,0,0,0,0,0,0,0,0,0,0,0,0,0,0,0,
56,-11.75,-4.65,-10.32,20.18,-25.91,2.433,-5.983,8.836,-27.35,-1.75,-28.12,-31.21,-17.32,-0.1122,-38.59,-19.61,0,0,0,0,0,0,0,0,0,0,0,0,0,0,0,0,
57,-11.45,-2.896,-11.16,16.21,-25.19,-0.0208,-8.046,11.01,-26.45,-3.021,-25.98,-27.99,-18.96,-2.179,-36.46,-14.79,0,0,0,0,0,0,0,0,0,0,0,0,0,0,0,0,
58,-5.476,-2.917,-0.2871,16.58,-14.84,4.464,-4.652,11.38,-19.49,-5.295,-24.39,-25.22,-18.24,-7.117,-38.05,-16.27,0,0,0,0,0,0,0,0,0,0,0,0,0,0,0,0,
59,-3.258,-6.162,-0.0427,16.39,-5.788,7.242,-4.278,4.562,-8.384,-6.156,-22.47,-23.09,-18.1,-8.757,-39.4,-19.93,0,0,0,0,0,0,0,0,0,0,0,0,0,0,0,0,
60,-3.113,-10.76,-7.107,12.12,-9.984,2.425,-11.28,-3.585,-0.5899,-11.66,-18.67,-20.54,-23.34,-12.41,-38.06,-21.74,0,0,0,0,0,0,0,0,0,0,0,0,0,0,0,0,
61,-2.528,-13.85,-3.599,9.221,-16.43,0.5437,-17.86,-6.1,-1.996,-19.69,-16.67,-21.48,-27.31,-16.96,-33.08,-19.91,0,0,0,0,0,0,0,0,0,0,0,0,0,0,0,0,
62,-6.912,-14.74,-1.57,8.112,-15.69,5.051,-17.2,-5.477,-3.607,-18.68,-12.98,-19.02,-22.8,-14.38,-22.29,-15.16,0,0,0,0,0,0,0,0,0,0,0,0,0,0,0,0,
63,-2.289,-9.653,-0.2039,12.06,-12.4,14.34,-5.688,-1.242,3.422,-11.56,-2.636,-8.886,-15.98,-5.713,-13.3,-10.56,0,0,0,0,0,0,0,0,0,0,0,0,0,0,0,0,
64,12.78,-1.073,9.152,17.22,-9.852,22.15,3.851,1.239,8.975,-11.29,3.583,-8.358,-15.19,0.0575,-13.71,-5.715,0,0,0,0,0,0,0,0,0,0,0,0,0,0,0,0,
65,10.54,-1.405,8.11,10.86,-10.16,18.3,-2.735,-5.247,6.34,-16.75,0.3903,-18.91,-18.38,-2.436,-17.41,-3.784,0,0,0,0,0,0,0,0,0,0,0,0,0,0,0,0,
66,-2.62,-5.793,-2.405,2.078,-14.79,12.5,-8.096,-8.019,0.779,-17.74,-3.784,-21.29,-15.85,-3.948,-18.38,-1.729,0,0,0,0,0,0,0,0,0,0,0,0,0,0,0,0,
67,-0.8745,-0.0558,-3.337,5.76,-19.28,15.24,-1.791,-2.462,-4.729,-12.71,-5.692,-17.03,-5.493,3.693,-15.49,8.351,0,0,0,0,0,0,0,0,0,0,0,0,0,0,0,0,
68,3.726,6.914,-3.251,6.525,-22.77,11.28,-3.314,-5.17,-9.413,-10.18,-6.271,-16.06,0.6444,7.708,-8.742,11.42,0,0,0,0,0,0,0,0,0,0,0,0,0,0,0,0,
69,-0.8831,4.84,-6.826,-3.03,-23.11,2.392,-9.505,-10.55,-8.833,-10.08,-2.713,-10.97,1.812,5.242,-0.1486,4.372,0,0,0,0,0,0,0,0,0,0,0,0,0,0,0,0,
70,1.492,5.413,-0.4658,5.907,-14.56,12.99,0.4928,-1.284,2.134,0.4394,7.656,3.325,11.62,13.44,9.879,12.68,0,0,0,0,0,0,0,0,0,0,0,0,0,0,0,0,
71,13.89,14.99,10.05,31.98,-8.377,29.45,14.56,8.32,12.3,15.35,17.32,15.21,22.99,26.77,16.14,27.08,0,0,0,0,0,0,0,0,0,0,0,0,0,0,0,0,
72,17,19.96,11.49,31.98,-10.04,23.6,10.63,2.975,5.834,13.92,15.77,13.07,19.67,26.96,13.53,22.73,0,0,0,0,0,0,0,0,0,0,0,0,0,0,0,0,
73,6.615,11.81,7.148,10.33,-3.411,10.88,-1.877,-4.612,-4.309,2.278,9.88,4.379,8.01,17.92,11.36,10.75,0,0,0,0,0,0,0,0,0,0,0,0,0,0,0,0,
74,0.1683,3.924,3.22,6.139,2.778,7.178,-5.519,-7.024,-4.495,-2.588,8.87,2.075,-0.9465,9.492,12.8,0.2223,0,0,0,0,0,0,0,0,0,0,0,0,0,0,0,0,
75,0.5842,5.975,2.938,10.02,-8.025,0.8231,-6.421,-9.331,-6.651,-3.721,5.76,-0.7843,-7.002,4.74,7.587,-10.5,0,0,0,0,0,0,0,0,0,0,0,0,0,0,0,0,
76,-3.599,5.596,6.836,6.413,-13.95,-2.538,-9.954,-8.759,-8.074,-1.65,2.365,-7.226,-8.042,6.691,1.272,-11.14,0,0,0,0,0,0,0,0,0,0,0,0,0,0,0,0,
77,-4.978,1.846,8.041,8.822,-7.774,4.081,-7.096,-6.253,1.092,7.818,8.7,-3.129,-2.963,12.44,3.355,-4.951,0,0,0,0,0,0,0,0,0,0,0,0,0,0,0,0,
78,-0.9259,4.253,-0.2959,3.92,-15.37,-1.742,-9.033,-9.802,0.868,10.09,10.46,0.9911,-3.05,12.39,0.273,-8.223,0,0,0,0,0,0,0,0,0,0,0,0,0,0,0,0,
79,-10.11,-1.039,-14.47,-14.13,-31.4,-21.75,-27.26,-14.96,-15.67,0.99,-5.008,-11.79,-13.35,4.89,-16.07,-17.53,0,0,0,0,0,0,0,0,0,0,0,0,0,0,0,0,
80,-25.07,-16.24,-19.61,-13.27,-33.66,-29.42,-37.56,-13.76,-23.04,2.626,-16.5,-21.14,-17.21,1.363,-26.33,-17.82,0,0,0,0,0,0,0,0,0,0,0,0,0,0,0,0,
81,-25.4,-19.01,-11.02,-2.84,-29.65,-26.71,-32.68,-12,-18.38,12.91,-13.27,-17.46,-10.96,4.051,-21.91,-12.75,0,0,0,0,0,0,0,0,0,0,0,0,0,0,0,0,
82,-24.74,-15.98,-9.428,-9.959,-31.3,-31.34,-36.03,-15.58,-19.7,9.101,-14.73,-20.78,-13.8,0.348,-21.91,-16.13,0,0,0,0,0,0,0,0,0,0,0,0,0,0,0,0,
83,-31.76,-22.56,-22.27,-12.67,-33.78,-36.32,-42.72,-18,-24.6,1.119,-22.62,-28.62,-22.5,-7.018,-28.51,-20.7,0,0,0,0,0,0,0,0,0,0,0,0,0,0,0,0,
84,-29.7,-23.98,-25.32,-3.72,-27.15,-29.71,-35.61,-13.66,-22.12,5.825,-20.97,-25.52,-19.87,-5.392,-24.35,-14.85,0,0,0,0,0,0,0,0,0,0,0,0,0,0,0,0,
85,-19.28,-16.42,-15.11,-4.465,-13.4,-19.18,-26.46,-9.082,-14.66,9.211,-14.9,-18.08,-16.32,-4.449,-20.22,-12.32,0,0,0,0,0,0,0,0,0,0,0,0,0,0,0,0,
86,-14.67,-16.74,-13.81,-8.819,-12.14,-19.68,-29.02,-11.41,-13.19,1.263,-18.04,-21.49,-25.76,-17.35,-29.71,-24.29,0,0,0,0,0,0,0,0,0,0,0,0,0,0,0,0,
87,-18.9,-22.37,-19.78,-6.809,-22.17,-27.26,-32.8,-14.04,-18.58,-5.798,-23.09,-32.53,-34.3,-29.42,-31.36,-32.91,0,0,0,0,0,0,0,0,0,0,0,0,0,0,0,0,
88,-24.69,-19.75,-20.08,-1.751,-21.4,-25.14,-25.42,-7.781,-16.67,-4.655,-17.38,-30.77,-26.8,-24.07,-20.21,-23.78,0,0,0,0,0,0,0,0,0,0,0,0,0,0,0,0,
89,-19.09,-10.58,-16.92,5.149,-19.64,-17.1,-16.22,1.886,-10.09,-0.626,-9.902,-17.08,-13.47,-15.04,-17.34,-12.81,0,0,0,0,0,0,0,0,0,0,0,0,0,0,0,0,
90,-5.085,-0.1034,-9.806,7.255,-25.22,-11.7,-10.82,7.616,-14.12,3.777,-11.15,-9.629,-6.601,-15.13,-16.84,-11.39,0,0,0,0,0,0,0,0,0,0,0,0,0,0,0,0,
91,0.9753,9.655,-1.154,2.781,-18.81,-2.065,-0.1437,11.48,-18.23,10.32,-12.22,-3.393,-0.7819,-12.15,-8.647,-6.349,0,0,0,0,0,0,0,0,0,0,0,0,0,0,0,0,
92,1.763,11.44,-3.104,-1.984,-12.8,3.587,6.477,12.02,-14.25,14.01,-12.52,3.714,3.713,-6.713,-7.22,-0.534,0,0,0,0,0,0,0,0,0,0,0,0,0,0,0,0,
93,3.325,7.583,-9.86,-4.774,-22.28,-4.751,1.675,7.907,-16.79,11.77,-18.26,0.5364,1.578,-10.05,-14.82,-8.159,0,0,0,0,0,0,0,0,0,0,0,0,0,0,0,0,
94,-1.264,8.262,-10.27,-4.641,-27.62,-11.41,-0.0758,4.682,-25.06,10.12,-20.43,-2.414,2.04,-11.62,-17.09,-14.44,0,0,0,0,0,0,0,0,0,0,0,0,0,0,0,0,
95,-6.107,7.628,-13.15,-7.232,-32.11,-9.549,0.1435,2.805,-29.79,8.953,-19.57,1.032,6.458,-7.393,-12.08,-8.513,0,0,0,0,0,0,0,0,0,0,0,0,0,0,0,0,
96,-1.483,3.248,-20.57,-13.06,-40.57,-5.271,0.0003,3.369,-31.35,5.394,-21.91,1.409,5.784,-6.707,-9.532,-6.361,0,0,0,0,0,0,0,0,0,0,0,0,0,0,0,0,
97,4.012,4.693,-21.21,-9.1,-34.3,1.893,6.821,8.357,-25.83,4.284,-18.17,2.514,2.971,-6.05,-13.09,-12.23,0,0,0,0,0,0,0,0,0,0,0,0,0,0,0,0,
98,3.237,5.581,-15.82,1.19,-27.84,3.699,6.363,7.811,-18.96,4.975,-13.03,2.949,-1.138,-7.082,-18.19,-18.36,0,0,0,0,0,0,0,0,0,0,0,0,0,0,0,0,
99,-0.4277,0.4209,-9.881,8.568,-33.38,-4.008,-3.281,2.683,-21.17,5.762,-17.46,-4.352,-7.795,-12.43,-24.55,-22.88,0,0,0,0,0,0,0,0,0,0,0,0,0,0,0,0,
100,-6.193,-3.978,-4.21,18.22,-30.05,-9.514,-5.505,5.72,-23.48,8.791,-21.22,-11.09,-10.45,-10.96,-30.14,-22.46,0,0,0,0,0,0,0,0,0,0,0,0,0,0,0,0,
101,-13.5,-10.99,-4.935,20.12,-27.82,-13.64,-10.3,7.514,-24.07,6.165,-22.3,-15.96,-14.19,-9.259,-30.65,-20.38,0,0,0,0,0,0,0,0,0,0,0,0,0,0,0,0,
102,-19.54,-18.76,-13.12,5.883,-40.41,-22.03,-19.51,1.363,-31.2,-3.412,-27.42,-24.92,-25.48,-18.95,-37.01,-26.55,0,0,0,0,0,0,0,0,0,0,0,0,0,0,0,0,
103,-24.76,-19.5,-14.02,1.267,-41.07,-23.27,-14.42,4.433,-32.14,-4.241,-26.79,-29.65,-33.78,-25.03,-46.48,-34.32,0,0,0,0,0,0,0,0,0,0,0,0,0,0,0,0,
104,-27.94,-22.13,-2.819,13.09,-24.48,-14.5,-6.098,12.5,-22.02,2.14,-19.16,-26.13,-34.38,-21.09,-39.13,-30.78,0,0,0,0,0,0,0,0,0,0,0,0,0,0,0,0,
105,-25.33,-29.07,1.406,14.45,-16.6,-10.7,-9.924,5.145,-19.86,-1.488,-19.36,-25.48,-33.44,-21.43,-30.15,-24.26,0,0,0,0,0,0,0,0,0,0,0,0,0,0,0,0,
106,-20.98,-30.92,-5.485,10.05,-19.21,-12.9,-13.59,-6.31,-24.94,-9.48,-26.8,-30.42,-32.24,-25.2,-35.45,-25.01,0,0,0,0,0,0,0,0,0,0,0,0,0,0,0,0,
107,-21.46,-31.2,-7.1,14.08,-21.59,-12.45,-13.83,-5.84,-25.23,-9.147,-29.66,-32.91,-32.2,-23.35,-34.85,-23.8,0,0,0,0,0,0,0,0,0,0,0,0,0,0,0,0,
108,-23.07,-33.53,-8.475,6.75,-25.96,-14.09,-18.28,-5.635,-25.66,-9.856,-27.05,-31.58,-34.63,-20.45,-27.64,-18.39,0,0,0,0,0,0,0,0,0,0,0,0,0,0,0,0,
109,-20.1,-32.5,-14.29,-6.807,-24.91,-15.88,-20.02,-11.16,-23.21,-14.85,-22.91,-27.7,-33.39,-19.17,-24.42,-16.2,0,0,0,0,0,0,0,0,0,0,0,0,0,0,0,0,
110,-17.01,-29.34,-10.2,-3.838,-15.43,-11.46,-18.97,-15.12,-15.74,-14.52,-18.49,-23.2,-26.13,-16.33,-17.73,-12.59,0,0,0,0,0,0,0,0,0,0,0,0,0,0,0,0,
111,-18.7,-27.62,-7.354,-2.752,-19.75,-13.95,-27.21,-23.74,-18.48,-14.47,-16.08,-24.73,-20.52,-15.77,-13.96,-9.166,0,0,0,0,0,0,0,0,0,0,0,0,0,0,0,0,
112,-20.78,-26.3,-17.81,-10.37,-31.61,-22.56,-35.86,-34.43,-24.06,-17.34,-15.06,-28.91,-21.36,-17.54,-16.25,-14.24,0,0,0,0,0,0,0,0,0,0,0,0,0,0,0,0,
113,-21.47,-27.88,-23.83,-11.22,-22.04,-19.51,-31.03,-30.93,-15.78,-13.86,-12.33,-29.08,-24.72,-16.28,-14.56,-19.51,0,0,0,0,0,0,0,0,0,0,0,0,0,0,0,0,
114,-23.56,-31.96,-24.95,-12.13,-8.752,-13.16,-23.02,-19.26,-7.099,-9.932,-9.976,-29.73,-24.51,-14.21,-15.52,-17.31,0,0,0,0,0,0,0,0,0,0,0,0,0,0,0,0,
115,-22.07,-29.52,-26.11,-6.146,-11.2,-13.65,-19.13,-13.85,-6.715,-11.74,-10.83,-28.75,-19.42,-11.17,-18.26,-11.86,0,0,0,0,0,0,0,0,0,0,0,0,0,0,0,0,
116,-17.71,-23.2,-17.39,11.46,-11.34,-13.5,-14.88,-12.06,-6.56,-11,-11.85,-23.05,-14.29,-4.338,-12.95,-6.008,0,0,0,0,0,0,0,0,0,0,0,0,0,0,0,0,
117,-19.5,-22.15,-11.07,15.46,-10.14,-12.98,-12.44,-9.422,-7.442,-6.764,-11.21,-22.24,-12.13,0.458,-8.281,-1.43,0,0,0,0,0,0,0,0,0,0,0,0,0,0,0,0,
118,-22.19,-19.22,-16.41,10.11,-15.08,-12.31,-11.45,-6.638,-9.463,-5.819,-14.95,-27.13,-11.13,1.118,-9.299,1.608,0,0,0,0,0,0,0,0,0,0,0,0,0,0,0,0,
119,-22.4,-13.07,-21.17,9.352,-16.71,-14.04,-12.21,-8.116,-12.23,-10.54,-23.98,-29.59,-11.25,0.3183,-13.63,1.832,0,0,0,0,0,0,0,0,0,0,0,0,0,0,0,0,
120,-27.89,-13.71,-27.63,2.128,-21.94,-25.2,-18.92,-15.37,-19.5,-16.45,-27.33,-28.01,-12.4,-4.169,-18.94,-2.405,0,0,0,0,0,0,0,0,0,0,0,0,0,0,0,0,
121,-29.24,-14.4,-36.33,-5.008,-31.88,-31.43,-23.12,-17.86,-26.03,-17.34,-22.36,-23.41,-12.28,-9.851,-13.43,-4.631,0,0,0,0,0,0,0,0,0,0,0,0,0,0,0,0,
122,-19.78,-12.07,-38.7,-7.958,-32.9,-25.24,-20.43,-16.31,-25.39,-16.78,-14.91,-16.35,-9.378,-9.739,0.4029,-1.27,0,0,0,0,0,0,0,0,0,0,0,0,0,0,0,0,
123,-10.91,-13.8,-40.21,-16.54,-32.76,-21.29,-18.2,-21.11,-18.28,-16.96,-4.687,-5.395,-1.765,-3.052,7.538,4.313,0,0,0,0,0,0,0,0,0,0,0,0,0,0,0,0,
124,-0.8253,-9.34,-41.6,-16.95,-37.82,-15.64,-15.46,-22.86,-11.32,-13.09,2.033,4.978,6.599,3.404,10.84,10.26,0,0,0,0,0,0,0,0,0,0,0,0,0,0,0,0,
125,8.726,1.161,-35.77,-2.574,-36.64,-5.753,-12.01,-18.02,-10.61,-8.679,1.504,6.196,9.313,4.418,15.21,11.07,0,0,0,0,0,0,0,0,0,0,0,0,0,0,0,0,
126,5.174,2.701,-25.55,8.453,-27.97,-5.881,-10.16,-18.53,-8.414,-4.628,5.127,5.425,10.64,7.169,16.73,6.015,0,0,0,0,0,0,0,0,0,0,0,0,0,0,0,0,
127,-0.9135,2.167,-20.09,6.546,-19.26,-9.06,-8.534,-18.2,-3.465,1.053,7.401,6.321,10.98,13.83,13.93,3.41,0,0,0,0,0,0,0,0,0,0,0,0,0,0,0,0,
128,-3.356,2.718,-26.73,-2.326,-15.65,-7.575,-13.86,-12.87,-6.934,0.9188,-0.3223,0.5065,6.67,14.47,6.871,4.911,0,0,0,0,0,0,0,0,0,0,0,0,0,0,0,0,
129,-9.407,-1.803,-30.52,-3.814,-16.11,-8.065,-19.26,-12.22,-9.01,0.6761,0.8595,-0.7324,7.968,13.44,1.063,7.443,0,0,0,0,0,0,0,0,0,0,0,0,0,0,0,0,
130,-5.096,1.717,-12.65,4.176,-11.4,-2.934,-8.163,-9.265,-2.569,6.411,9.364,5.915,12.02,14.01,-2.487,4.882,0,0,0,0,0,0,0,0,0,0,0,0,0,0,0,0,
131,4.069,8.283,1.274,8.053,-5.6,2.307,-0.1995,-1.89,-6.568,1.678,1.935,-2.258,1.742,4.484,-10.64,-6.644,0,0,0,0,0,0,0,0,0,0,0,0,0,0,0,0,
132,-9.552,-4.05,-12.36,5.071,-13.35,-9.834,-11.46,-4.081,-18.55,-10.16,-8.778,-17.89,-11.01,-5.384,-14.18,-12.78,0,0,0,0,0,0,0,0,0,0,0,0,0,0,0,0,
133,-25.34,-18.87,-25.95,-4.712,-26.2,-20.96,-17.78,-10.82,-18.16,-12.67,-7.593,-18.67,-10.79,-2.328,-6.488,-7.332,0,0,0,0,0,0,0,0,0,0,0,0,0,0,0,0,
134,-17.39,-15.3,-22.58,-17.31,-26.55,-14.67,-14.22,-12.38,-12,-16.02,-8.325,-15.6,-8.823,0.0801,-1.863,-4.862,0,0,0,0,0,0,0,0,0,0,0,0,0,0,0,0,
135,-9.555,-7.992,-16.1,-15.05,-18.15,-5.938,-14.7,-12.57,-11.28,-19.48,-10.1,-15.25,-9.159,-1.548,-3.878,-5.835,0,0,0,0,0,0,0,0,0,0,0,0,0,0,0,0,
136,-12.57,-7.973,-10.56,-9.78,-12.86,-2.889,-14.85,-12.71,-12.26,-13.9,-7.654,-11.32,-9.168,-1.715,-7.939,-7.183,0,0,0,0,0,0,0,0,0,0,0,0,0,0,0,0,
137,-12.29,-9.022,-10.58,-22.28,-12.73,-6.137,-17.04,-15.57,-13.41,-14.53,-9.855,-11.05,-10.97,-4.862,-11.1,-13.15,0,0,0,0,0,0,0,0,0,0,0,0,0,0,0,0,
138,-9.759,-7.811,-14.69,-24.7,-10,-6.194,-19.71,-17.19,-8.962,-16.18,-8.434,-8.714,-5.306,-0.1939,-5.22,-10.56,0,0,0,0,0,0,0,0,0,0,0,0,0,0,0,0,
139,-4.532,-6.008,-8.889,-6.983,-4.047,8.119,-12.3,-11,0.8785,-6.061,-3.328,1.055,3.778,12.32,-2.42,0.3696,0,0,0,0,0,0,0,0,0,0,0,0,0,0,0,0,
140,1.413,-6.976,-5.587,-4.532,-5.579,13.35,-8.99,-11.98,0.1827,-4.276,-9.05,3.131,1.997,10.43,-10.08,-0.1653,0,0,0,0,0,0,0,0,0,0,0,0,0,0,0,0,
141,-0.9456,-6.567,-12.48,-12.76,-6.265,4.828,-11.45,-19.15,-3.95,-6.675,-6.71,5.256,4.403,6.734,-4.302,0.4632,0,0,0,0,0,0,0,0,0,0,0,0,0,0,0,0,
142,0.539,0.5827,-6.951,-10.8,1.351,10.61,-5.808,-15.77,0.832,2.517,6.435,14.13,15.26,18.47,5.596,13.25,0,0,0,0,0,0,0,0,0,0,0,0,0,0,0,0,
143,9.404,5.192,7.82,-12.05,1.304,17.48,-5.938,-15.48,0.2051,4.188,0.6622,11.11,14.71,24.22,-3.199,17,0,0,0,0,0,0,0,0,0,0,0,0,0,0,0,0,
144,9.794,4.26,16.61,-8.687,4.638,15.25,-8.012,-17.31,1.462,4.08,-4.693,9.723,12.6,20.51,-8.143,13.49,0,0,0,0,0,0,0,0,0,0,0,0,0,0,0,0,
145,8.338,4.665,18.28,6.28,17.02,20.78,1.158,-7.616,11.78,14.72,5.924,19.49,15.37,19.39,-4.56,13.03,0,0,0,0,0,0,0,0,0,0,0,0,0,0,0,0,
146,10,0.7919,7.308,0.9422,8.241,18.56,1.144,-8.008,5.384,12.01,1.686,14.13,7.566,13.55,-4.485,8.427,0,0,0,0,0,0,0,0,0,0,0,0,0,0,0,0,
147,7.585,-2.122,5.004,-12.83,-0.4787,12.12,-0.3349,-11.15,-1.265,5.451,-1.303,9.53,5.766,11.82,9.324,13.11,0,0,0,0,0,0,0,0,0,0,0,0,0,0,0,0,
148,12.49,7.532,23.03,-1.785,13.64,21.6,9.827,2.689,14.34,12.52,16.87,23.51,16.87,22.36,24.14,27.46,0,0,0,0,0,0,0,0,0,0,0,0,0,0,0,0,
149,19.71,9.359,18.72,1.968,9.948,18.9,1.236,-0.8015,16.4,6.919,19.42,21.87,11.12,23.79,16,21.7,0,0,0,0,0,0,0,0,0,0,0,0,0,0,0,0,
150,8.595,-7.618,-7.328,-15.79,-6.203,0.0442,-19,-21.14,3.046,-7.634,6.264,5.812,-7.395,12.85,5.397,3.549,0,0,0,0,0,0,0,0,0,0,0,0,0,0,0,0,
151,-8.601,-21.02,-17.58,-21.45,-8.625,-10.64,-24.9,-24.46,-1.007,-10.93,1.718,0.3352,-17.02,4.109,-2.855,-4.972,0,0,0,0,0,0,0,0,0,0,0,0,0,0,0,0,
152,-17.95,-24.43,-24.33,-28.35,-17.43,-21.92,-30.83,-27.88,-9.742,-13.3,-4.37,-6.401,-19.24,-2.168,-17.21,-11.49,0,0,0,0,0,0,0,0,0,0,0,0,0,0,0,0,
153,-22.4,-19.68,-27.55,-45.66,-16.24,-22.78,-27.85,-30.06,-10.06,-6.827,-4.461,-8.928,-9.686,-1.584,-17.08,-12.42,0,0,0,0,0,0,0,0,0,0,0,0,0,0,0,0,
154,-15.74,-3.165,-9.666,-34.17,6.518,-2.767,-7.509,-10.59,12.55,10.34,8.395,4.979,6.356,9.088,-4.289,-1.965,0,0,0,0,0,0,0,0,0,0,0,0,0,0,0,0,
155,-4.576,8.184,0.1557,-8.423,10.2,3.063,-3.918,-0.3626,20.71,12.29,10.06,9.987,8.483,15.65,-2.232,3.722,0,0,0,0,0,0,0,0,0,0,0,0,0,0,0,0,
156,-6.159,4.967,-8.216,-8.937,1.422,-7.219,-14.75,-6.761,12.97,6.353,3.69,-0.3648,1.859,11.18,-6.362,1.849,0,0,0,0,0,0,0,0,0,0,0,0,0,0,0,0,
157,-12.69,0.4685,-4.629,-13.72,8.088,-5.668,-14.33,-3.279,16.37,5.595,2.881,-6.159,-3.204,3.536,-8.32,-0.5388,0,0,0,0,0,0,0,0,0,0,0,0,0,0,0,0,
158,-13.72,-3.257,5.873,-7.435,12.34,-0.3183,-13.57,-3.204,16.38,-2.797,-5.053,-10.21,-11.13,-2.254,-13.62,-6.807,0,0,0,0,0,0,0,0,0,0,0,0,0,0,0,0,
159,-16.84,-6.939,1.545,-11.1,5.699,-4.093,-16.38,-12.88,7.946,-11.39,-16.35,-18.32,-18.49,-7.416,-19.32,-16.04,0,0,0,0,0,0,0,0,0,0,0,0,0,0,0,0,
160,-22.68,-8.424,-5.968,-20.45,4.521,-9.162,-14.95,-14.98,8.692,-11.31,-16.65,-21.61,-23.97,-14.18,-19.97,-25.75,0,0,0,0,0,0,0,0,0,0,0,0,0,0,0,0,
161,-22.82,-15.34,-2.865,-22.28,12.58,-8.5,-18.57,-16.8,14.14,-15.32,-12.66,-18.03,-29.5,-18.35,-18.22,-31.08,0,0,0,0,0,0,0,0,0,0,0,0,0,0,0,0,
162,-14.7,-19.38,5.918,-17.12,21.05,0.0673,-19.11,-17.28,18.83,-17.47,-5.808,-8.075,-24.18,-11.71,-13.62,-22.05,0,0,0,0,0,0,0,0,0,0,0,0,0,0,0,0,
163,-0.1414,-6.428,20.59,-6.016,27.19,14.65,-1.399,-4.74,24.8,-7.072,5.536,5.312,-10.33,0.0787,-6.728,-10.3,0,0,0,0,0,0,0,0,0,0,0,0,0,0,0,0,
164,9.613,5.762,31.35,-0.1965,29.13,22.78,10.5,0.4542,22.5,-0.6729,7.14,6.77,-7.383,1.83,-7.227,-11.67,0,0,0,0,0,0,0,0,0,0,0,0,0,0,0,0,
165,4.166,3.613,19.57,-1.28,20.07,15.52,-0.0006,-9.357,12.25,-7.002,0.1194,-3.633,-15.21,-5.777,-17.48,-15.1,0,0,0,0,0,0,0,0,0,0,0,0,0,0,0,0,
166,-3.628,1.593,7.001,5.58,13.03,7.225,-5.258,-8.206,6.545,-12.27,-2.362,-7.828,-20.61,-10.92,-27.5,-16.4,0,0,0,0,0,0,0,0,0,0,0,0,0,0,0,0,
167,-4.291,2.755,14.16,12.44,16.24,7.97,2.518,3.288,5.173,-11.29,-6.289,-7.046,-18.96,-8.407,-28.94,-19.99,0,0,0,0,0,0,0,0,0,0,0,0,0,0,0,0,
168,-6.46,4.157,17.14,11.97,10.7,5.237,3.256,5.226,5.005,-8.395,-9.876,-7.915,-10.48,0.0158,-22.09,-15.12,0,0,0,0,0,0,0,0,0,0,0,0,0,0,0,0,
169,-5.906,10.88,13.4,16.81,6.261,-0.9534,1.559,1.928,5.228,-6.052,-2.793,-5.971,-5.399,5.256,-18.02,-9.612,0,0,0,0,0,0,0,0,0,0,0,0,0,0,0,0,
170,-1.117,13.47,18.13,18.57,19.93,0.2058,5.304,3.465,2.588,-6.621,2.262,-5.56,-9.358,4.076,-20.52,-14.5,0,0,0,0,0,0,0,0,0,0,0,0,0,0,0,0,
171,-3.452,10.03,20,13.87,28.37,5.029,7.551,7.39,4.959,-5.36,1.145,-5.395,-7.243,5.546,-17.54,-11.49,0,0,0,0,0,0,0,0,0,0,0,0,0,0,0,0,
172,-3.771,11.78,14.88,20.25,24.04,7.293,7.865,6.812,12.7,-1.034,5.278,1.999,0.5815,5.851,-9.961,-2.936,0,0,0,0,0,0,0,0,0,0,0,0,0,0,0,0,
173,3.731,9.72,8.378,23.39,20.66,6.223,5.426,2.222,12.62,-1.333,8.567,7.989,1.695,2.45,-5.135,-1.267,0,0,0,0,0,0,0,0,0,0,0,0,0,0,0,0,
174,4.845,5.349,2.723,11.83,17.25,5.595,4.841,5.846,12.29,0.8788,8.647,10.06,7.197,10.47,2.707,9.228,0,0,0,0,0,0,0,0,0,0,0,0,0,0,0,0,
175,1.717,13.28,3.329,8.189,15.38,6.09,11.34,12.37,14.44,8.932,8.515,11.42,17.16,19.94,7.266,20.08,0,0,0,0,0,0,0,0,0,0,0,0,0,0,0,0,
176,0.7231,18.7,2.874,8.768,14.54,2.196,11.66,5.332,5.294,8.082,0.3084,5.847,15.61,12.87,-1.158,11.85,0,0,0,0,0,0,0,0,0,0,0,0,0,0,0,0,
177,-3.162,15.8,0.1582,5.056,11.15,0.7856,6.862,0.8695,-0.6808,5.296,-6.905,-0.0307,11.55,7.6,-7.876,4.518,0,0,0,0,0,0,0,0,0,0,0,0,0,0,0,0,
178,-7.215,17.89,5.426,14.09,11.91,5.085,9.615,11.17,6.144,12.09,-4.463,0.0574,12.62,10.86,-4.197,7.118,0,0,0,0,0,0,0,0,0,0,0,0,0,0,0,0,
179,-7.518,18.43,8.447,22.86,15.55,4.947,11.28,15.05,7.148,13.93,-5.38,-0.4151,12.63,7.279,-3.219,5.235,0,0,0,0,0,0,0,0,0,0,0,0,0,0,0,0,
180,-1.988,21.89,7.929,16.46,17.69,8.823,13.95,13.47,6.946,12.45,-5.526,3.502,18.21,7.657,-7.683,2.579,0,0,0,0,0,0,0,0,0,0,0,0,0,0,0,0,
181,10.77,38.16,18.49,18.93,23.18,22.6,28.4,22.55,15.48,21.43,3.896,12.07,28.24,18.37,-4.487,5.428,0,0,0,0,0,0,0,0,0,0,0,0,0,0,0,0,
182,19.75,45.5,26.47,27.82,29.28,28.96,37.93,27.33,19.22,25.93,9.306,13.52,29.38,19.45,6.153,7.564,0,0,0,0,0,0,0,0,0,0,0,0,0,0,0,0,
183,16.65,35.37,16.8,16.59,27.97,23.89,30.57,18.51,15.43,15.64,8.461,10.32,22.24,11.23,8.864,3.355,0,0,0,0,0,0,0,0,0,0,0,0,0,0,0,0,
184,9.111,25.66,8.91,0.8088,25.61,17.55,21.89,15.5,14.37,8.524,11.82,9.831,14.2,10.11,7.018,-1.724,0,0,0,0,0,0,0,0,0,0,0,0,0,0,0,0,
185,8.547,21.02,15.9,5.973,30.48,14.56,20.96,19.7,18.56,11.18,14.18,9.799,8.751,13.37,13.38,1.75,0,0,0,0,0,0,0,0,0,0,0,0,0,0,0,0,
186,12.43,14.6,16.97,14.68,25.76,10.52,14.97,13.19,18.26,9.449,4.808,2.386,1.938,10.92,14.81,0.711,0,0,0,0,0,0,0,0,0,0,0,0,0,0,0,0,
187,2.28,1.535,0.6348,4.877,3.98,-1.795,-0.3089,4.562,6.907,-0.1796,-10.3,-12.44,-12.26,1.801,4.582,-14.97,0,0,0,0,0,0,0,0,0,0,0,0,0,0,0,0,
188,-16.56,-11.47,-11.36,-6.428,-5.323,-10.66,-6.178,10.43,1.88,-7.065,-11.96,-16.75,-22.07,-6.528,-0.1536,-20.2,0,0,0,0,0,0,0,0,0,0,0,0,0,0,0,0,
189,-17.1,-13.14,-10.07,-2.495,0.1066,-7.662,-2.225,15.35,10.52,-7.79,-0.8892,-8.538,-17.31,-6.358,-2.305,-9.452,0,0,0,0,0,0,0,0,0,0,0,0,0,0,0,0,
190,-8.556,-11.07,-7.214,0.4632,-4.273,-7.613,-6.211,7.988,13.75,-6.245,1.551,-8.026,-10.74,-2.511,-7.33,-7.301,0,0,0,0,0,0,0,0,0,0,0,0,0,0,0,0,
191,-8.029,-8.367,1.81,-2.08,-3.454,-5.671,-4.529,6.704,12.94,-0.8046,-2.909,-10.04,-5.231,1.742,0.4015,-5.118,0,0,0,0,0,0,0,0,0,0,0,0,0,0,0,0,
192,-1.295,7.049,16.85,4.804,9.617,6.81,13.91,16.58,16.08,8.455,-2.244,-3.191,6.324,11.98,10.41,9.048,0,0,0,0,0,0,0,0,0,0,0,0,0,0,0,0,
193,6.475,21.11,20.67,11.82,7.339,9.083,20.68,21.5,9.872,10.84,-5.484,-2.398,9.743,14.93,2.907,9.605,0,0,0,0,0,0,0,0,0,0,0,0,0,0,0,0,
194,-0.1654,14.61,15.26,5.584,-3.455,1.429,9.92,17.84,-0.0643,2.834,-9.931,-6.913,0.1372,1.002,-3.288,-4.016,0,0,0,0,0,0,0,0,0,0,0,0,0,0,0,0,
195,-4.438,3.625,11.91,-0.0387,-3.4,2.455,7.205,15.07,2.223,-2.746,-2.483,-1.305,-1.641,-5.13,1.586,-4.78,0,0,0,0,0,0,0,0,0,0,0,0,0,0,0,0,
196,-1.86,-1.061,10.11,5.378,-3.438,3.284,9.988,15.59,4.709,-1.645,2.527,4.088,3.714,1.786,-2.275,-1.492,0,0,0,0,0,0,0,0,0,0,0,0,0,0,0,0,
197,-4.345,-5.334,12.1,11.07,-3.933,0.7508,8.246,13.74,1.111,-0.7857,-4.495,2.989,3.533,1.532,-7.918,-3.431,0,0,0,0,0,0,0,0,0,0,0,0,0,0,0,0,
198,1.451,1.744,18,12.78,2.215,7.35,13.94,12.82,2.415,1.954,-6.876,8.415,8.379,2.64,2.931,6.813,0,0,0,0,0,0,0,0,0,0,0,0,0,0,0,0,
199,15.32,15.99,18.46,19.83,2.538,13.08,20.95,18.53,2.977,5.059,-3.942,13.43,16.42,9.29,11.33,16.68,0,0,0,0,0,0,0,0,0,0,0,0,0,0,0,0,
200,11.51,11.6,11.43,24.44,-6.575,6.626,14.24,18.28,-2.745,0.5345,-8.45,8.134,11.82,3.128,3.463,7.164,0,0,0,0,0,0,0,0,0,0,0,0,0,0,0,0,
201,-1.563,-0.9205,7.449,13.6,-11.28,0.8605,9.612,9.198,-4.744,-4.037,-14.95,6.087,6.845,-4.754,0.651,1.155,0,0,0,0,0,0,0,0,0,0,0,0,0,0,0,0,
202,-0.5925,1.428,12.16,7.194,-4.176,4.713,16.4,10.39,-3.396,-1.664,-15.95,8.521,10.03,-0.8235,3.621,5.481,0,0,0,0,0,0,0,0,0,0,0,0,0,0,0,0,
203,1.494,5.376,11.9,11.94,4.572,7.705,16.81,14.36,-4.736,-2.85,-17.21,3.701,3.18,-3.52,-6.854,-2.152,0,0,0,0,0,0,0,0,0,0,0,0,0,0,0,0,
204,-5.292,0.4257,2.494,0.5745,1.787,3.023,9.218,3.718,-6.476,-11.28,-21.97,-2.052,-10.46,-12.51,-15.79,-11.68,0,0,0,0,0,0,0,0,0,0,0,0,0,0,0,0,
205,-5.858,-2.742,4.037,-13.35,-2.864,1.49,6.103,-1.61,-7.934,-16.03,-23.45,-2.179,-11.71,-9.442,-9.524,-7.486,0,0,0,0,0,0,0,0,0,0,0,0,0,0,0,0,
206,-2.927,-5.599,9.646,-4.962,-0.3843,6.596,4.732,4.298,-8.607,-13.99,-19.58,-1.317,-9.463,-4.233,-8.195,-6.91,0,0,0,0,0,0,0,0,0,0,0,0,0,0,0,0,
207,-6.73,-13.17,-1.083,-6.018,-3.782,4.096,-0.0086,-3.231,-9.008,-14.54,-21.12,-2.156,-14.31,-7.493,-14.04,-11.65,0,0,0,0,0,0,0,0,0,0,0,0,0,0,0,0,
208,-8.295,-15.73,-6.57,-23.98,-6.782,-2.771,-2.428,-10.89,-10.07,-17.45,-27.07,-5.685,-13.63,-6.532,-13.05,-6.957,0,0,0,0,0,0,0,0,0,0,0,0,0,0,0,0,
209,-7.328,-10.99,4.701,-21.79,1.488,1.778,1.861,2.299,-6.45,-14.04,-23.06,-7.738,-8.016,-3.091,-11.66,-4.74,0,0,0,0,0,0,0,0,0,0,0,0,0,0,0,0,
210,-8.545,-9.635,13.1,-10.99,3.378,10.43,8.216,9.645,-2.227,-10.5,-16.39,-4.608,-8.989,-7.272,-11.57,-9.836,0,0,0,0,0,0,0,0,0,0,0,0,0,0,0,0,
211,-2.975,-10.16,19.6,-15.18,0.5429,15.38,11.16,-0.0582,-3.784,-13.97,-17.55,-1.825,-7.24,-7.753,-5.016,-6.496,0,0,0,0,0,0,0,0,0,0,0,0,0,0,0,0,
212,5.287,-5.164,21.1,-11.21,5.508,22.17,12,-2.522,-0.969,-16.14,-13.61,0.3297,-0.2554,-1.894,1.17,-1.728,0,0,0,0,0,0,0,0,0,0,0,0,0,0,0,0,
213,6.739,-0.0101,11.42,1.522,5.144,22.75,12.22,1.468,4.237,-15.2,-7.577,1.798,-2.672,-1.996,-3.399,-6.063,0,0,0,0,0,0,0,0,0,0,0,0,0,0,0,0,
214,6.271,0.2207,10.01,-2.906,0.1814,12.04,9.279,-0.1304,-1.599,-17.13,-14.76,-4.003,-8.111,-3.413,-16.44,-9.467,0,0,0,0,0,0,0,0,0,0,0,0,0,0,0,0,
215,1.197,-3.245,10.19,-7.279,-2.374,4.214,4.347,-0.3931,-9.798,-18.3,-21.22,-8.549,-2.404,0.376,-21.77,-7.477,0,0,0,0,0,0,0,0,0,0,0,0,0,0,0,0,
216,-5.797,-5.833,-2.478,6.567,-7.568,4.83,4.323,2.411,-10.21,-13.41,-15.3,-2.515,6.552,5.304,-12.92,-4.307,0,0,0,0,0,0,0,0,0,0,0,0,0,0,0,0,
217,-1.434,-2.256,-7.079,11.6,-7.682,5.213,8.239,4.267,-10.49,-6.628,-12.94,0.3336,6.792,7.929,-9.327,-5.926,0,0,0,0,0,0,0,0,0,0,0,0,0,0,0,0,
218,2.765,-3.259,-4.627,2.787,-7.724,-0.6884,4.828,6.405,-14.81,-5.956,-19.14,-6.671,-0.2054,2.857,-15.64,-11.71,0,0,0,0,0,0,0,0,0,0,0,0,0,0,0,0,
219,-2.772,-12.44,-9.123,5.103,-14.69,-8.093,-3.118,4.091,-18.06,-9.675,-21.38,-11.05,-3.201,-3.661,-14.64,-8.905,0,0,0,0,0,0,0,0,0,0,0,0,0,0,0,0,
220,-3.507,-7.867,-9.241,7.5,-11.06,-6.035,-2.261,-1.794,-16.43,-8.247,-18.12,-9.138,3.914,1.609,-9.498,-1.693,0,0,0,0,0,0,0,0,0,0,0,0,0,0,0,0,
221,0.9438,5.757,-6.685,-2.828,-3.105,2.347,0.9911,1.353,-14.2,-3.646,-15.72,-5.605,10.74,8.622,-10.37,-3.773,0,0,0,0,0,0,0,0,0,0,0,0,0,0,0,0,
222,1.826,2.404,-8.819,-1.512,-4.175,3.348,-2.737,7.077,-17.89,-6.61,-13.62,-2.692,6.494,4.152,-14.46,-8.077,0,0,0,0,0,0,0,0,0,0,0,0,0,0,0,0,
223,-0.4872,-9.516,-9.6,11.23,-4.732,-2.344,-5.202,-0.1514,-22.72,-15.41,-9.914,-3.982,-2.256,-2.757,-17.99,-7.999,0,0,0,0,0,0,0,0,0,0,0,0,0,0,0,0,
224,-4.229,-13.49,-7.357,8.55,-8.201,-6.032,-4.387,-9.583,-22.22,-18.52,-8.054,-6.333,-3.139,-3.557,-13.16,-4.561,0,0,0,0,0,0,0,0,0,0,0,0,0,0,0,0,
225,-2.48,-12.89,0.3149,-0.596,-7.729,-5.685,-4.742,-10.94,-19.7,-14.55,-8.853,-1.742,2.153,-3.929,-0.4763,2.684,0,0,0,0,0,0,0,0,0,0,0,0,0,0,0,0,
226,2.799,-9.709,5.609,4.421,6.401,-2.052,-2.129,-10.98,-15.73,-11.49,-4.662,5.805,5.035,-6.546,7.103,7.066,0,0,0,0,0,0,0,0,0,0,0,0,0,0,0,0,
227,3.489,-4.27,-0.4361,10.29,8.205,2.432,3.535,-7.149,-8.349,-10.03,8.47,9.613,8.37,-3.241,11.68,9.527,0,0,0,0,0,0,0,0,0,0,0,0,0,0,0,0,
228,8.877,1.117,-0.176,5.834,-1.533,5.691,7.213,-2.013,-2.813,-8.668,18.4,10.6,12.93,2.771,16.2,14.01,0,0,0,0,0,0,0,0,0,0,0,0,0,0,0,0,
229,17.16,3.2,8.557,8.464,0.2759,8.207,9.098,-5.462,-1.715,-12.21,12.76,6.984,10.46,-2.506,10.39,10.09,0,0,0,0,0,0,0,0,0,0,0,0,0,0,0,0,
230,15.04,-1.709,5.65,17.55,-1.757,8.92,11.15,-7.373,-1.961,-18.51,0.7275,0.436,5.648,-10.56,1.095,1.067,0,0,0,0,0,0,0,0,0,0,0,0,0,0,0,0,
231,14.33,-5.504,-0.3062,12.29,-7.302,9.546,14.23,-1.694,-3.916,-21.45,-3.093,-1.116,5.957,-8.361,0.9562,0.6911,0,0,0,0,0,0,0,0,0,0,0,0,0,0,0,0,
232,17.56,-3.492,1.313,3.454,-0.4179,8.759,13.82,-0.8405,-10.13,-25.17,-4.63,-3.064,4.197,-8.021,-1.498,-0.6454,0,0,0,0,0,0,0,0,0,0,0,0,0,0,0,0,
233,6.303,-6.128,-6.063,-1.106,-8.312,-5.476,3.868,-8.627,-20.46,-31.91,-11.46,-10.51,0.0183,-12.24,-10.8,-8.116,0,0,0,0,0,0,0,0,0,0,0,0,0,0,0,0,
234,-6.637,-8.576,-19.68,-18.98,-32.04,-24,-5.745,-13.55,-25.08,-32.61,-11.29,-10.19,1.872,-7.72,-9.312,-5.458,0,0,0,0,0,0,0,0,0,0,0,0,0,0,0,0,
235,-2.036,-1.446,-16.82,-28.05,-29.83,-21.92,-3.768,-5.188,-17.81,-24.42,-3.317,-3.754,4.532,-1.716,-0.2635,2.997,0,0,0,0,0,0,0,0,0,0,0,0,0,0,0,0,
236,2.102,-0.186,-8.693,-8.352,-19.13,-14.63,-0.7212,4.766,-17.13,-18.78,-6.543,-8.317,0.3073,-4.403,-3.603,1.173,0,0,0,0,0,0,0,0,0,0,0,0,0,0,0,0,
237,-3.466,-7.778,-14.35,3.847,-30.27,-20.42,-1.63,4.17,-26.75,-19.33,-14.41,-15.27,-3.953,-5.597,-12.04,-0.8365,0,0,0,0,0,0,0,0,0,0,0,0,0,0,0,0,
238,-3.632,-8.296,-16.64,-0.4127,-32.19,-19.06,0.0085,2.838,-25.74,-19.49,-11.44,-15.28,-6.782,-4.432,-14.04,-1.407,0,0,0,0,0,0,0,0,0,0,0,0,0,0,0,0,
239,-3.943,-10.91,-17.26,-7.201,-31.14,-17.81,-6.139,-4.331,-26.13,-22.11,-10.7,-19.08,-13.65,-10.02,-16.79,-13.37,0,0,0,0,0,0,0,0,0,0,0,0,0,0,0,0,
240,-12,-19.83,-34.65,-27.52,-58.09,-33.41,-17.69,-16.76,-36.93,-23.62,-13.44,-18.69,-12.73,-13.24,-16.42,-17.34,0,0,0,0,0,0,0,0,0,0,0,0,0,0,0,0,
241,-11.89,-14.13,-37.38,-40.98,-62.63,-35.41,-13.42,-9.095,-29.67,-15.41,-7.796,-8.313,-0.7793,-8.916,-9.864,-3.835,0,0,0,0,0,0,0,0,0,0,0,0,0,0,0,0,
242,-3.349,-1.293,-13.88,-28.58,-23.93,-19.35,-5.005,0.9377,-12.91,-11.6,-4.609,-5.478,2.94,-8.382,-7.772,-0.619,0,0,0,0,0,0,0,0,0,0,0,0,0,0,0,0,
243,0.9466,0.9295,-5.957,-19.96,-4.668,-12.84,-7.476,-8.721,-12.24,-16.75,-5.84,-6.598,-0.0217,-8.974,-7.073,-6.373,0,0,0,0,0,0,0,0,0,0,0,0,0,0,0,0,
244,2.968,1.466,-9.424,-19.68,-7.697,-8.056,-5.218,-9.263,-12.73,-16.14,-3.96,-5.584,-0.8692,-6.571,-7.298,-5.934,0,0,0,0,0,0,0,0,0,0,0,0,0,0,0,0,
245,0.7147,0.0881,0.6628,-12.96,0.2435,-1.685,1.832,1.259,-10.51,-14.46,-6.131,-13.12,-6.023,-9.344,-15.15,-9.017,0,0,0,0,0,0,0,0,0,0,0,0,0,0,0,0,
246,-4.784,-5.246,6.422,-9.674,-0.3734,-5.464,3.383,4.216,-12.42,-13.63,-6.06,-15.62,-4.996,-10.04,-16.74,-9.534,0,0,0,0,0,0,0,0,0,0,0,0,0,0,0,0,
247,-2.964,-3.762,1.121,-8.581,-11.92,-7.251,4.643,9.039,-6.07,-6.393,1.736,-7.363,2.788,-3.842,-10.43,-2.22,0,0,0,0,0,0,0,0,0,0,0,0,0,0,0,0,
248,-0.5678,-3.629,-0.7002,-1.721,-7.829,-4.878,4.111,12.15,1.87,-2.951,2.183,-10.06,-5.687,-5.768,-14.43,-5.601,0,0,0,0,0,0,0,0,0,0,0,0,0,0,0,0,
249,-4.716,-11.71,1.105,-0.8101,0.0486,-12.16,-2.538,6.433,-3.022,-4.658,-4.486,-18.65,-20.39,-14.38,-21.75,-13.96,0,0,0,0,0,0,0,0,0,0,0,0,0,0,0,0,
250,-10.92,-19.58,-2.651,-13.43,-11.07,-24.44,-12.47,-2.356,-11.55,-5.987,-8.037,-20.73,-23.49,-17.45,-20.73,-12.5,0,0,0,0,0,0,0,0,0,0,0,0,0,0,0,0,
251,-18.19,-24.97,-11.78,-24.26,-22.91,-27.66,-18.49,-14.84,-12.77,-12.53,-7.664,-22.86,-26.7,-18.39,-21.21,-14.16,0,0,0,0,0,0,0,0,0,0,0,0,0,0,0,0,
252,-18.42,-21.22,-10.2,-18.71,-12.01,-18.27,-12.4,-18.74,-6.646,-16.49,-3.327,-21.77,-28.85,-18.81,-25.66,-23.26,0,0,0,0,0,0,0,0,0,0,0,0,0,0,0,0,
253,-13.29,-14.79,-0.8363,-11.79,-0.1268,-11.27,-8.509,-11.89,-4.01,-13.07,-2.522,-19.25,-22.99,-16,-27.64,-26.2,0,0,0,0,0,0,0,0,0,0,0,0,0,0,0,0,
254,-17.82,-22.19,-3.509,-16.76,-7.427,-17.33,-18.26,-13.33,-10.37,-12.65,-8.287,-23.82,-22.55,-15.35,-30.16,-25.88,0,0,0,0,0,0,0,0,0,0,0,0,0,0,0,0,
255,-21.39,-26.19,-7.37,-22.16,-12.11,-21.67,-21.31,-16,-9.005,-14.4,-7.034,-24.1,-30.08,-18.89,-32.34,-32,0,0,0,0,0,0,0,0,0,0,0,0,0,0,0,0,
256,-14.49,-22.5,-6.727,-28.53,-9.894,-19.81,-18.53,-16.11,2.704,-19.27,2.278,-16.01,-35.02,-22.29,-24.11,-33.62,0,0,0,0,0,0,0,0,0,0,0,0,0,0,0,0,
257,-11.75,-33.99,-16.85,-36.53,-17.07,-23.88,-27.77,-26.85,3.451,-27.45,4.144,-13.16,-35.32,-24.04,-12.38,-21.12,0,0,0,0,0,0,0,0,0,0,0,0,0,0,0,0,
258,-13.81,-41.27,-22.01,-34.47,-20.98,-27.52,-33.11,-29.55,-4.562,-25,-2.748,-14.77,-30.31,-21.93,-13.65,-8.645,0,0,0,0,0,0,0,0,0,0,0,0,0,0,0,0,
259,-16.72,-28.72,-12.28,-31.06,-15.58,-23.6,-26.81,-16.5,-4.876,-17.22,-5.958,-13.5,-21.03,-14.58,-17.94,-4.364,0,0,0,0,0,0,0,0,0,0,0,0,0,0,0,0,
260,-24.24,-26.53,-11.5,-30.15,-15.42,-21.86,-27.71,-14.68,-4.331,-18,-5.195,-14.61,-17.17,-10.57,-12.28,-1.577,0,0,0,0,0,0,0,0,0,0,0,0,0,0,0,0,
261,-26.47,-34.48,-16.36,-22.57,-12.55,-21.01,-30.17,-17.59,-4.757,-16.56,-4.424,-16.81,-20.06,-13.32,-4.236,-0.9323,0,0,0,0,0,0,0,0,0,0,0,0,0,0,0,0,
262,-19.81,-31.46,-8.223,-17.74,-1.635,-12.78,-20.04,-5.578,5.396,-7.84,3.656,-9.909,-17.67,-10.86,7.823,0.2024,0,0,0,0,0,0,0,0,0,0,0,0,0,0,0,0,
263,-15.77,-28.52,-0.2711,-16.04,-2.502,-8.466,-12.68,2.191,11.06,-3.841,13.08,-1.881,-10.32,-3.236,21.11,6.547,0,0,0,0,0,0,0,0,0,0,0,0,0,0,0,0,
264,-16.95,-30.55,-5.533,-15.38,-14.34,-18.38,-21.5,-6.771,-1.285,-4.81,9.332,-4.809,-9.781,-2.869,16.94,8.721,0,0,0,0,0,0,0,0,0,0,0,0,0,0,0,0,
265,-21.25,-28.85,-16.09,-29.43,-21.28,-29.89,-33.32,-18.37,-13.52,-5.87,-1.509,-11.7,-16.33,-7.445,1.082,-0.0278,0,0,0,0,0,0,0,0,0,0,0,0,0,0,0,0,
266,-27.97,-30.89,-25.52,-41.42,-28.94,-34.6,-37.17,-27.85,-23.97,-10.56,-15.43,-22.22,-26.89,-13.74,-13.09,-15.65,0,0,0,0,0,0,0,0,0,0,0,0,0,0,0,0,
267,-34.04,-36.87,-27.11,-38.41,-31.71,-35.59,-36.04,-32.8,-36.21,-16.21,-28.47,-34.95,-34.6,-20.21,-23.96,-23.79,0,0,0,0,0,0,0,0,0,0,0,0,0,0,0,0,
268,-35.3,-33.83,-17.06,-43.69,-14.1,-28.05,-29.77,-27.36,-27.58,-15.46,-21.43,-29.58,-26.75,-14.52,-19.76,-13.35,0,0,0,0,0,0,0,0,0,0,0,0,0,0,0,0,
269,-28.53,-26.42,-8.803,-49.59,-1.59,-17.37,-23.45,-23.13,-9.185,-13.75,-7.42,-16.48,-16.95,-6.489,-8.717,-6.664,0,0,0,0,0,0,0,0,0,0,0,0,0,0,0,0,
270,-22.35,-27.17,-8.559,-46.27,-10.55,-16.9,-26.85,-27.52,-13.11,-17.25,-12.85,-21.64,-22.63,-13.99,-12.22,-17.02,0,0,0,0,0,0,0,0,0,0,0,0,0,0,0,0,
271,-23.71,-29.79,-5.715,-50.1,-6.44,-13.47,-25.84,-23.64,-17.3,-16.68,-13.7,-23.04,-22.16,-15.57,-12.72,-16.2,0,0,0,0,0,0,0,0,0,0,0,0,0,0,0,0,
272,-15.6,-21.94,3.441,-36.28,14.56,4.881,-6.91,-6.859,-0.089,-7.522,5.082,-5.28,-6.771,-2.383,0.0031,-4.215,0,0,0,0,0,0,0,0,0,0,0,0,0,0,0,0,
273,6.053,-7.702,17.41,-3.195,19.64,20.16,8.493,4.825,12.2,0.7457,13.15,5.185,-0.6928,-0.7021,5.131,-5.031,0,0,0,0,0,0,0,0,0,0,0,0,0,0,0,0,
274,15.64,2.024,27.38,-4.054,14.46,22.32,7.39,7.942,10.67,6.546,10.28,7.459,0.4855,-2.413,7.938,-3.313,0,0,0,0,0,0,0,0,0,0,0,0,0,0,0,0,
275,11.21,8.903,22.9,-17.56,17.03,21.11,7.483,10.94,10.95,14.81,16.19,14.18,12.89,9.59,16.4,10.79,0,0,0,0,0,0,0,0,0,0,0,0,0,0,0,0,
276,11.66,18.25,18.12,-2.598,18.34,18.88,12.31,11.13,10.64,19.97,15.55,10.93,20.04,12.68,13.78,15.75,0,0,0,0,0,0,0,0,0,0,0,0,0,0,0,0,
277,10.33,21.79,18.95,-0.0564,11.54,10.45,9.251,6.88,6.632,16.76,4.705,1.14,14.66,4.155,6.754,12.79,0,0,0,0,0,0,0,0,0,0,0,0,0,0,0,0,
278,1.518,16.69,10.29,-13.15,2.272,0.9026,4.056,3.098,6.236,13.99,5.66,5.656,14.42,6.425,12.79,16.33,0,0,0,0,0,0,0,0,0,0,0,0,0,0,0,0,
279,2.153,19.27,7.12,-2.184,2.333,5.098,9.316,3.479,11.58,19.17,14.43,17.18,18.86,10.34,20.48,18.05,0,0,0,0,0,0,0,0,0,0,0,0,0,0,0,0,
280,10.81,26.67,21.44,4.929,14.2,17.72,14.31,8.968,18.08,21.7,15.75,19.97,12.99,2.543,16.97,9.738,0,0,0,0,0,0,0,0,0,0,0,0,0,0,0,0,
281,10,16.82,24.11,-10.48,16.77,15.68,3.527,10.01,14.67,13.35,10.13,13.36,-0.9284,-5.284,7.821,1.541,0,0,0,0,0,0,0,0,0,0,0,0,0,0,0,0,
282,3.136,2.235,10.69,-15.22,6.505,6.415,-6.407,2.983,4.486,8.431,4.196,5.206,-8.536,-5.428,3.747,0.9628,0,0,0,0,0,0,0,0,0,0,0,0,0,0,0,0,
283,1.794,5.553,8.759,-10.3,7.947,10.44,1.81,-0.059,10.71,11.67,9.5,5.858,-7.043,-1.597,8.139,1.24,0,0,0,0,0,0,0,0,0,0,0,0,0,0,0,0,
284,5.616,11.29,16.56,-7.472,20.56,16.8,8.393,0.0023,30.05,9.246,22.33,11.54,-4.162,3.613,12.47,0.934,0,0,0,0,0,0,0,0,0,0,0,0,0,0,0,0,
285,9.697,10.31,17.66,4.082,25.85,15.67,4.847,1.337,36.44,8.143,22.97,10.76,-0.4959,8.554,10.53,4.236,0,0,0,0,0,0,0,0,0,0,0,0,0,0,0,0,
286,9.249,14.06,14.95,11.31,20.56,11.92,5.161,8.211,29.86,13.66,15.25,5.08,0.9657,6.923,2.692,0.949,0,0,0,0,0,0,0,0,0,0,0,0,0,0,0,0,
287,2.927,10.78,9.704,2.144,8.675,3.345,-1.197,4.561,24.87,7.074,13.13,-1.68,-7.57,-2.734,-9.199,-8.935,0,0,0,0,0,0,0,0,0,0,0,0,0,0,0,0,
288,-3.939,-5.79,-1.64,-4.452,3.162,-3.695,-16.24,-5.358,25.14,-1.651,12.68,-7.261,-14.9,-5.578,-14.15,-6.997,0,0,0,0,0,0,0,0,0,0,0,0,0,0,0,0,
289,-9.504,-15.75,-8.555,-7.417,7.961,-7.874,-20.75,-1.057,25.2,3.244,8.805,-11,-14.93,-1.874,-10.99,-2.957,0,0,0,0,0,0,0,0,0,0,0,0,0,0,0,0,
290,-19.1,-19.96,-9.257,-20.98,2.972,-20.82,-24.58,-4.607,16.75,-0.2891,2.072,-19.22,-21.2,-9.745,-14.97,-11.79,0,0,0,0,0,0,0,0,0,0,0,0,0,0,0,0,
291,-29.51,-26.57,-17.59,-31.25,-9.211,-28.18,-32.28,-17.14,6.301,-7.393,-2.643,-24.52,-23.01,-14.41,-18.82,-11.63,0,0,0,0,0,0,0,0,0,0,0,0,0,0,0,0,
292,-29.37,-21.5,-25.84,-23.45,-9.278,-19.7,-24.88,-7.014,3.925,4.162,-0.6914,-16.6,-8.683,0.149,-7.205,1.253,0,0,0,0,0,0,0,0,0,0,0,0,0,0,0,0,
293,-21.64,-7.083,-18.86,-12.08,-7.197,-16.66,-13.86,3.336,0.362,10.9,1.185,-9.502,-0.4258,8.026,3.481,2.662,0,0,0,0,0,0,0,0,0,0,0,0,0,0,0,0,
294,-18.24,-1.585,-9.94,-11.26,-10.2,-18.48,-12.05,-3.342,-7.758,4.325,0.2681,-8.351,-0.6295,3.033,1.108,-0.4586,0,0,0,0,0,0,0,0,0,0,0,0,0,0,0,0,
295,-17.46,-0.34,-13.88,-16.9,-8.981,-13.27,-7.229,0.0657,-9.827,7.652,2.015,-1.446,7.03,5.619,1.393,4.15,0,0,0,0,0,0,0,0,0,0,0,0,0,0,0,0,
296,-14.09,5.601,-20.65,-20.67,-5.68,-12.35,-3.851,6.576,-5.403,14.99,4.907,6.16,12.74,9.653,7.98,4.43,0,0,0,0,0,0,0,0,0,0,0,0,0,0,0,0,
297,-10.83,10.24,-17.92,-18.59,-1.333,-14.02,-4.826,6.804,-0.0703,17.89,7.603,8.737,12.31,9.878,11.16,3.345,0,0,0,0,0,0,0,0,0,0,0,0,0,0,0,0,
298,-5.927,12.72,-12.05,-13.38,1.967,-9,0.2596,14.57,2.509,19.81,9.178,8.723,12.67,13.32,12.88,8.922,0,0,0,0,0,0,0,0,0,0,0,0,0,0,0,0,
299,0.4502,13.36,-13.32,-9.852,-0.6191,-7.12,1.57,15.14,1.755,12.72,7.483,0.6073,5.783,10.1,10.77,9.358,0,0,0,0,0,0,0,0,0,0,0,0,0,0,0,0,
300,-2.26,5.205,-17.06,-8.988,-0.2064,-9.797,-4.408,6.403,2.325,5.727,7.457,-7.815,-0.6401,3.049,2.26,6.968,0,0,0,0,0,0,0,0,0,0,0,0,0,0,0,0,
301,-9.575,-1.364,-17.28,-11.72,-1.18,-10.18,-3.338,7.623,3.729,10.05,8.29,-2.843,6.921,8.038,1.855,12.81,0,0,0,0,0,0,0,0,0,0,0,0,0,0,0,0,
302,-5.026,7.096,-15,-14.85,-8.599,-9.327,-0.0671,5.154,4.32,9.37,6.223,2.175,9.837,11.22,9.066,12.63,0,0,0,0,0,0,0,0,0,0,0,0,0,0,0,0,
303,3.717,13.22,-8.649,-8.894,-1.761,-3.89,1.803,-1.704,8.07,5.016,9.158,-0.5791,3.198,3.212,10.53,3.529,0,0,0,0,0,0,0,0,0,0,0,0,0,0,0,0,
304,4.609,9.625,-2.196,4.128,13.31,4.775,11.27,8.321,11.97,11.11,16.61,4.063,7.441,3.824,12.19,5.99,0,0,0,0,0,0,0,0,0,0,0,0,0,0,0,0,
305,5.996,12.01,-2.199,10.33,14.1,7.314,13.87,17.63,12.14,13.21,20.62,12.3,12.4,10.47,14.51,11.67,0,0,0,0,0,0,0,0,0,0,0,0,0,0,0,0,
306,7.212,8.717,-2.534,7.941,11.41,6.976,0.6984,12.42,11.53,6.48,23.9,9.274,3.122,5.449,9.727,4.646,0,0,0,0,0,0,0,0,0,0,0,0,0,0,0,0,
307,3.029,-5.505,-0.0108,6.049,8.821,8.411,-5.004,11.98,5.361,6.265,19.98,-1.54,-7.034,-2.493,2.563,-2.564,0,0,0,0,0,0,0,0,0,0,0,0,0,0,0,0,
308,-0.3379,-7.723,-3.517,3.195,-2.426,5.85,-1.006,12.99,-8.662,5.206,2.861,-13.84,-14.26,-6.343,-5.457,-7.559,0,0,0,0,0,0,0,0,0,0,0,0,0,0,0,0,
309,-5.554,-5.772,-12,-4.821,-9.933,0.9969,-2.309,8.277,-15.71,-1.873,-5.505,-19.23,-17.47,-8.663,-6.519,-11.7,0,0,0,0,0,0,0,0,0,0,0,0,0,0,0,0,
310,-8.304,-8.414,-13.67,-7.877,-7.304,0.8885,-0.6693,12.6,-10.6,0.3512,2.228,-9.93,-9.143,-2.37,4.843,-3.695,0,0,0,0,0,0,0,0,0,0,0,0,0,0,0,0,
311,2.481,0.6229,-9.304,-1.329,-1.514,4.822,4.267,17.19,-5.338,7.005,5.32,2,-2.474,5.333,7.713,3.155,0,0,0,0,0,0,0,0,0,0,0,0,0,0,0,0,
312,10.78,8.195,-5.496,1.778,2.551,8.885,3.503,9.377,-4.129,5.877,3.813,5.725,-3.195,2.6,-0.0535,-2.696,0,0,0,0,0,0,0,0,0,0,0,0,0,0,0,0,
313,5.753,3.277,-0.5571,-1.465,-0.045,7.074,5.146,6.169,-8.423,4.073,2.348,2.597,-2.072,-0.607,-2.62,-5.147,0,0,0,0,0,0,0,0,0,0,0,0,0,0,0,0,
314,0.9699,4.211,0.197,-2.278,-4.276,1.196,8.739,10.23,-16.74,5.541,-6.021,-3.113,-2.397,1.528,-5.416,-3.623,0,0,0,0,0,0,0,0,0,0,0,0,0,0,0,0,
315,2.295,10.37,-4.049,-1.248,-2.785,6.829,11.93,11.39,-15.49,10.27,-8.384,0.8265,-0.1618,4.033,-7.267,-7.153,0,0,0,0,0,0,0,0,0,0,0,0,0,0,0,0,
316,9.258,13.14,1.605,2.088,0.5016,18.87,19.99,15.36,-9.251,16.52,-1.725,9.489,4.081,3.885,-3.821,-11.48,0,0,0,0,0,0,0,0,0,0,0,0,0,0,0,0,
317,16.28,13.43,9.767,11.77,3.174,18.08,20.63,18.26,-9.162,14.8,0.3113,9.967,-0.281,0.5743,0.2559,-9.914,0,0,0,0,0,0,0,0,0,0,0,0,0,0,0,0,
318,17.15,11.47,5.011,20.56,3.617,15.06,13.42,12.72,-1.826,9.793,6.371,16.07,1.874,3.283,10.89,1.053,0,0,0,0,0,0,0,0,0,0,0,0,0,0,0,0,
319,16.52,12.05,0.6848,20.31,-1.941,15.07,12.61,8.108,5.335,8.723,9.805,21.1,10.95,10.01,15.5,9.54,0,0,0,0,0,0,0,0,0,0,0,0,0,0,0,0,
320,10.73,11.19,2.385,14.52,-7.847,4.984,12.13,10.26,-5.077,4.439,-2.732,8.436,8.392,6.82,3.408,8.782,0,0,0,0,0,0,0,0,0,0,0,0,0,0,0,0,
321,3.137,7.409,2.501,11.75,-5.694,2.952,14.14,16.64,-7.907,1.253,-3.999,6.206,10.13,4.607,2.519,12.74,0,0,0,0,0,0,0,0,0,0,0,0,0,0,0,0,
322,7.931,9.995,5.248,11.76,0.1995,14.4,20.21,17.52,2.813,3.281,6.113,15.25,16.71,10.72,11.48,14.57,0,0,0,0,0,0,0,0,0,0,0,0,0,0,0,0,
323,9.76,9.13,4.044,3.907,-2.183,9.133,11.93,6.423,-1.911,-0.5909,-1.449,4.064,5.666,7.181,5.039,3.753,0,0,0,0,0,0,0,0,0,0,0,0,0,0,0,0,
324,-1.672,0.1403,-7.633,-9.71,-13.08,-4.687,0.073,-1.433,-12.47,-8.774,-9.793,-8.852,-6.743,-3.451,-1.655,-4.056,0,0,0,0,0,0,0,0,0,0,0,0,0,0,0,0,
325,-8.345,-5.078,-13.12,-17.12,-19.06,-6.487,0.2687,-3.287,-9.202,-12.66,-5.71,-7.394,-8.038,-5.148,1.573,-6.411,0,0,0,0,0,0,0,0,0,0,0,0,0,0,0,0,
326,-9.734,-8.727,-7.706,-21.29,-14.01,-7.439,-1.902,-11.87,-3.396,-12.72,-4.576,-7.484,-8.535,-1.239,4.559,-7.347,0,0,0,0,0,0,0,0,0,0,0,0,0,0,0,0,
327,-9.45,-7.634,-8.308,-21.31,-5.107,-5.87,-5.582,-15.05,-0.9359,-12.2,-1.22,-5.134,-4.82,2.369,10.85,-2.009,0,0,0,0,0,0,0,0,0,0,0,0,0,0,0,0,
328,-1.678,1.44,-12.21,-9.739,5.435,3.905,-3.303,-9.049,4.266,-15.39,6.098,-0.0328,-0.3001,5.343,13.74,0.5695,0,0,0,0,0,0,0,0,0,0,0,0,0,0,0,0,
329,5.234,4.737,0.9689,-0.991,20.99,11.76,-0.1643,-8.974,12.65,-16.41,8.34,1.43,1.55,6.283,7.944,-0.1481,0,0,0,0,0,0,0,0,0,0,0,0,0,0,0,0,
330,4.475,2.492,16.16,-4.759,26.45,13.17,3.339,-8.021,13.54,-11.17,7.344,5.743,5.136,3.403,8.304,3.448,0,0,0,0,0,0,0,0,0,0,0,0,0,0,0,0,
331,0.9543,-1.285,7.117,-5.908,12.12,8.136,1.479,-3.759,2.758,-11.72,2.945,6.925,1.675,-3.835,12.55,3.489,0,0,0,0,0,0,0,0,0,0,0,0,0,0,0,0,
332,4.606,-5.676,2.619,4.215,8.731,10.4,-0.1362,-2.379,3.498,-13.16,5.327,8.056,1.044,-7.336,14.59,5.069,0,0,0,0,0,0,0,0,0,0,0,0,0,0,0,0,
333,17.83,1.115,19.89,18.9,22.87,24.84,10.21,6.745,20.07,-5.066,20.06,20.78,15.48,-1.866,24.21,15.08,0,0,0,0,0,0,0,0,0,0,0,0,0,0,0,0,
334,23.1,10.61,20.74,23.27,17.07,24.59,15.59,15.41,24.42,-0.8041,24.57,28.3,20.82,3.976,33.78,17.65,0,0,0,0,0,0,0,0,0,0,0,0,0,0,0,0,
335,19.65,11.57,10.35,15.29,4.589,16.01,14.64,12.33,21.41,0.4704,19.19,26.07,15.2,6.696,31.18,11.81,0,0,0,0,0,0,0,0,0,0,0,0,0,0,0,0,
336,23.54,15.28,18.82,17.82,16.49,24.33,22.81,14.83,29.96,6.58,24.7,30.22,17.85,7.123,26.46,9.929,0,0,0,0,0,0,0,0,0,0,0,0,0,0,0,0,
337,24.68,14.84,22.43,27.94,22.4,27.96,23.69,18.22,35.42,3.569,31.79,32.79,16.86,3.152,26.44,9.778,0,0,0,0,0,0,0,0,0,0,0,0,0,0,0,0,
338,19.16,6.685,13.75,21.82,12.81,20.03,15.69,9.234,31.18,-2.084,27.82,24.22,10.92,2.697,22.71,9.11,0,0,0,0,0,0,0,0,0,0,0,0,0,0,0,0,
339,19.46,10.69,15.43,16.71,15.65,20.97,17.06,7.508,29.25,4.16,17.36,11.71,13.02,8.258,11.39,7.331,0,0,0,0,0,0,0,0,0,0,0,0,0,0,0,0,
340,17.51,18.18,15.78,28.89,17.7,20.09,17.2,15.21,29.45,7.334,7.345,4.013,13.15,10.79,5.302,4.803,0,0,0,0,0,0,0,0,0,0,0,0,0,0,0,0,
341,14.36,14.71,9.675,36.18,10.41,17.47,14.92,14.88,30.31,6.906,8.137,9.487,11.73,13.54,13.72,8.087,0,0,0,0,0,0,0,0,0,0,0,0,0,0,0,0,
342,21.17,12.91,12.75,29.77,14.13,27.31,20.33,12.63,31.7,13.59,14.71,19.29,15.32,15.77,18.83,9.794,0,0,0,0,0,0,0,0,0,0,0,0,0,0,0,0,
343,24.12,13.48,14.39,20.43,18.47,30.36,20.86,15.23,29.03,15.44,11.9,19.01,13.5,9.709,11.78,4.534,0,0,0,0,0,0,0,0,0,0,0,0,0,0,0,0,
344,21.05,13.63,9.918,17.71,15.75,23.6,21.26,19.39,27.82,14.59,9.099,18.37,12.79,7.765,12.64,7.004,0,0,0,0,0,0,0,0,0,0,0,0,0,0,0,0,
345,24.32,17.24,15.03,22.29,22.02,26.15,29.58,21.62,32.04,19.15,13.42,21.35,17.9,11.26,19.15,11.54,0,0,0,0,0,0,0,0,0,0,0,0,0,0,0,0,
346,24.35,13.56,22.78,21.33,28.75,27.31,26.52,17.96,33.52,17.61,12.39,18.07,12.88,4.847,13.93,4.339,0,0,0,0,0,0,0,0,0,0,0,0,0,0,0,0,
347,21.01,9.187,22.74,20.42,29.64,24.22,20.07,19.32,32.19,16.17,11.36,16.75,6.623,-0.3003,9.423,0.9934,0,0,0,0,0,0,0,0,0,0,0,0,0,0,0,0,
348,25.76,16.42,24.24,26.62,34.2,28.83,25.29,26.84,32.05,19.28,18.18,20.47,9.464,1.39,12.58,2.547,0,0,0,0,0,0,0,0,0,0,0,0,0,0,0,0,
349,25.54,12.59,27.13,21.62,31.34,27.21,21.82,22.44,30.78,9.691,19.84,16.38,4.999,-4.077,8.756,-6.218,0,0,0,0,0,0,0,0,0,0,0,0,0,0,0,0,
350,16.1,-1.69,24.34,17.51,22.69,19.08,13.51,16.4,30.94,0.1063,17.17,11.54,-1.254,-5.682,3.058,-10.07,0,0,0,0,0,0,0,0,0,0,0,0,0,0,0,0,
351,15.76,1.954,22.55,30.46,25.26,21.14,17.66,20.62,30.7,5.416,19.53,14.97,3.229,0.8316,5.199,-1.686,0,0,0,0,0,0,0,0,0,0,0,0,0,0,0,0,
352,23.11,9.693,27.51,33.95,26.56,23.23,18.24,20.07,22,4.983,16.91,12.9,2.94,-2.625,5.036,-0.3326,0,0,0,0,0,0,0,0,0,0,0,0,0,0,0,0,
353,24.62,4.763,32.05,29.26,20.71,20.46,14.04,18.14,12.64,-1.139,8.769,3.485,-3.356,-7.105,3.635,-1.49,0,0,0,0,0,0,0,0,0,0,0,0,0,0,0,0,
354,20.25,0.1786,28.15,28.58,19.98,19.77,14.46,18.22,10.62,1.133,7.431,1.158,-2.126,-2.032,9.485,6.362,0,0,0,0,0,0,0,0,0,0,0,0,0,0,0,0,
355,13.6,-5.892,17.45,11.45,14.51,10.41,7.016,8.306,5.994,-1.869,4.034,0.5027,-1.928,-2.563,7.14,6.814,0,0,0,0,0,0,0,0,0,0,0,0,0,0,0,0,
356,4.397,-14.73,4.918,-6.008,-0.373,-5.006,-4.902,0.8143,-3.848,-13.88,-8.625,-9.509,-9.16,-9.329,-7.148,-3.499,0,0,0,0,0,0,0,0,0,0,0,0,0,0,0,0,
357,-4.806,-14.27,-2.195,1.918,-4.224,-8.335,-8.329,5.146,-5.945,-16.11,-10.39,-13.09,-10.03,-9.862,-6.193,-0.7306,0,0,0,0,0,0,0,0,0,0,0,0,0,0,0,0,
358,-2.59,-6.871,5.353,15.16,9.365,-0.7955,-4.261,10.98,4.108,-5.326,4.224,0.3512,-1.986,-5.894,5.545,12.08,0,0,0,0,0,0,0,0,0,0,0,0,0,0,0,0,
359,10.79,1.067,15.08,25.78,20.18,7.094,5.915,17.66,14.04,2.902,11.06,8.798,-0.4535,-4.56,-0.94,8.653,0,0,0,0,0,0,0,0,0,0,0,0,0,0,0,0,
360,12.28,3.832,13.19,36.72,15.33,9.01,11.84,20.1,12.62,1.187,3.299,2.062,-7.513,-6.841,-11.88,-3.493,0,0,0,0,0,0,0,0,0,0,0,0,0,0,0,0,
361,0.7486,-1.58,15.89,33.22,8.574,4.296,7.23,13.49,3.731,-1.49,-4.414,-5.271,-10.91,-10.47,-10.43,-6.459,0,0,0,0,0,0,0,0,0,0,0,0,0,0,0,0,
362,-1.757,-2.672,20.22,20.82,7.995,2.683,5.974,11.15,-1.382,0.8936,-6.391,-8.027,-7.705,-12.23,-11.57,-7.542,0,0,0,0,0,0,0,0,0,0,0,0,0,0,0,0,
363,3.655,5.197,12.32,18.34,7.243,9.999,12.6,17.96,2.312,6.027,-2.81,-4.474,0.0442,-7.91,-11.53,-5.982,0,0,0,0,0,0,0,0,0,0,0,0,0,0,0,0,
364,8.707,11.64,16.11,21.57,10.38,15.38,17.93,22.33,7.174,10.49,0.2497,1.521,6.011,-1.573,-5.721,-2.692,0,0,0,0,0,0,0,0,0,0,0,0,0,0,0,0,
365,12.13,11.01,27.57,18.31,12.27,8.85,15.76,17.6,3.297,10.68,-4.603,-3.946,0.1742,-2.049,-10.59,-11.45,0,0,0,0,0,0,0,0,0,0,0,0,0,0,0,0,
366,7.188,4.488,16.89,15.51,4.54,1.897,10.05,13.21,-3.105,11.6,-6.878,-9.578,-6.981,-3.359,-15.25,-17.86,0,0,0,0,0,0,0,0,0,0,0,0,0,0,0,0,
367,3.285,1.029,6,20.27,1.25,5.096,11.27,15.15,-4.867,14.75,-2.801,-3.533,-4.911,-1.09,-8.253,-12.46,0,0,0,0,0,0,0,0,0,0,0,0,0,0,0,0,
368,9.178,3.103,10.29,21.05,2.809,5.814,11.98,11.8,-8.894,11.58,-4.665,-5.194,-6.119,-4.058,-9.199,-14.21,0,0,0,0,0,0,0,0,0,0,0,0,0,0,0,0,
369,7.102,-0.1696,8.303,18.19,-1.647,-1.789,1.822,4.085,-15.55,6.618,-8.569,-16.01,-10.74,-8.945,-17.18,-17.65,0,0,0,0,0,0,0,0,0,0,0,0,0,0,0,0,
370,-5.005,-8.485,1.438,13.17,-5.332,-8.319,-6.843,0.4323,-19.93,1.676,-8.963,-19.82,-11.23,-10.24,-19.31,-14.64,0,0,0,0,0,0,0,0,0,0,0,0,0,0,0,0,
371,-8.886,-14.12,0.3949,-5.023,-4.946,-11.64,-7.882,-4.329,-21.24,-6.23,-12.07,-20.04,-14.53,-13.15,-23.11,-17.8,0,0,0,0,0,0,0,0,0,0,0,0,0,0,0,0,
372,-5.371,-16.49,6.904,-11.48,-0.3065,-10.38,-7.31,-4.79,-15.17,-4.312,-15.6,-19.83,-17.8,-15.58,-27.36,-21.3,0,0,0,0,0,0,0,0,0,0,0,0,0,0,0,0,
373,-3.657,-15.4,17.42,8.545,7.699,-4.913,-4.735,0.1841,-6.195,2.476,-17.49,-17.49,-15.15,-14.84,-25.14,-18.84,0,0,0,0,0,0,0,0,0,0,0,0,0,0,0,0,
374,-2.919,-12.73,16.01,13.69,11.96,-1.68,-3.033,0.1378,-0.4065,2.394,-16.69,-14.94,-10.14,-10.57,-19.44,-14.64,0,0,0,0,0,0,0,0,0,0,0,0,0,0,0,0,
375,0.0294,-9.078,7.315,-0.2677,18.66,-0.0972,-5.488,2.984,9.551,7.03,-7.119,-10.38,-1.496,-1.136,-10.71,-4.775,0,0,0,0,0,0,0,0,0,0,0,0,0,0,0,0,
376,2.285,-4.932,5.075,-5.587,20.89,-3.972,-11.42,4.529,13.56,8.646,-0.4201,-11.53,2.121,1.784,-7.659,-0.6066,0,0,0,0,0,0,0,0,0,0,0,0,0,0,0,0,
377,-6.645,-9.068,-5.241,-11.47,-0.6093,-19.16,-22.23,-8.229,-4.015,-2.571,-9.979,-23.77,-8.06,-6.045,-18.07,-10.52,0,0,0,0,0,0,0,0,0,0,0,0,0,0,0,0,
378,-22.6,-18.23,-20.88,-17.66,-20.45,-31.16,-31.17,-19.56,-20.19,-8.897,-20.21,-30.33,-16.03,-11.35,-27.81,-17.82,0,0,0,0,0,0,0,0,0,0,0,0,0,0,0,0,
379,-25.65,-21.95,-18.26,-13.11,-14.32,-30.18,-31.71,-22.22,-17.66,-12.12,-19.89,-26.83,-17.07,-15.27,-30.64,-21.32,0,0,0,0,0,0,0,0,0,0,0,0,0,0,0,0,
380,-20.62,-28.02,-9.743,-8.242,-7.46,-28.24,-29.86,-21.05,-17.26,-16.51,-20.77,-27.05,-21.11,-18.92,-32.98,-23.53,0,0,0,0,0,0,0,0,0,0,0,0,0,0,0,0,
381,-20.39,-30.75,-11.85,-5.099,-6.194,-24.36,-22.75,-13.88,-18.21,-7.008,-18.7,-23.13,-15.91,-8.839,-26.22,-12.06,0,0,0,0,0,0,0,0,0,0,0,0,0,0,0,0,
382,-9.264,-9.559,-7.824,-3.357,8.333,-8.37,-3.825,-9.95,-1.965,8.008,-3.278,-6.163,0.2035,7.168,-10.07,0.6604,0,0,0,0,0,0,0,0,0,0,0,0,0,0,0,0,
383,9.88,14.89,6.335,-2.345,21.08,2.447,9.935,-4.038,8.732,14.77,3.925,1.694,1.576,8.698,-6.523,-4.375,0,0,0,0,0,0,0,0,0,0,0,0,0,0,0,0,
384,8.545,13.94,12.99,8.581,14.13,-5.503,9.279,15.36,-6.109,17.35,-7.894,-8.484,-11.35,-1.136,-17.68,-16.62,0,0,0,0,0,0,0,0,0,0,0,0,0,0,0,0,
385,-1.069,6.66,11.26,18.41,1.845,-9.131,13.31,26.29,-17.16,15.83,-12.76,-13.5,-15.44,-6.998,-20.57,-20.53,0,0,0,0,0,0,0,0,0,0,0,0,0,0,0,0,
386,5.783,11.35,9.335,17.69,-2.891,0.5753,22.37,22.93,-7.318,16.62,-4.784,-6.22,-6.978,-0.0145,-10.69,-10.84,0,0,0,0,0,0,0,0,0,0,0,0,0,0,0,0,
387,12.36,18.08,6.461,16.01,-2.722,1.523,19.95,24.71,1.358,23.82,0.093,-0.1332,4.364,12.34,-2.926,1.966,0,0,0,0,0,0,0,0,0,0,0,0,0,0,0,0,
388,6.096,20.05,0.7985,1.568,-3.942,-7.653,13.41,21.83,-3.756,20.43,0.8718,0.4092,8.326,11.22,-0.2844,1.514,0,0,0,0,0,0,0,0,0,0,0,0,0,0,0,0,
389,1.342,15.04,-5.036,-21.16,-9.607,-10.68,10.32,7.056,-12.79,7.405,-1.576,-1.861,4.767,3.082,-0.766,-2.177,0,0,0,0,0,0,0,0,0,0,0,0,0,0,0,0,
390,-1.287,7.623,-6.494,-20.4,-16.88,-11.68,2.712,1.193,-19.47,3.91,-8.515,-8.354,2.844,3.669,-9.302,-2.481,0,0,0,0,0,0,0,0,0,0,0,0,0,0,0,0,
391,-13.84,3.066,-9.603,-16.16,-24.98,-20.24,-7.836,4.703,-26.15,5.059,-14.98,-19.6,-1.901,-2.246,-16.92,-10.73,0,0,0,0,0,0,0,0,0,0,0,0,0,0,0,0,
392,-25.88,-5.744,-19.34,-33.68,-26.08,-23.69,-12.99,2.138,-24.48,5.041,-13.81,-20.09,-5.131,-12.02,-6.989,-8.97,0,0,0,0,0,0,0,0,0,0,0,0,0,0,0,0,
393,-16.01,-8.816,-18.29,-37.85,-12.68,-12.39,-10.62,-1.815,-9.802,10.57,-2.592,-2.499,6.369,-2.229,8.748,8.033,0,0,0,0,0,0,0,0,0,0,0,0,0,0,0,0,
394,0.2189,1.359,-6.559,-23.62,-8.039,-6.852,-7.655,-1.903,-4.731,10.7,3.238,4.66,8.843,3.384,8.332,4.887,0,0,0,0,0,0,0,0,0,0,0,0,0,0,0,0,
395,-3.238,1.665,-9.267,-23.96,-20.24,-11.65,-6.77,-2.313,-11.44,4.779,-2.044,-3.333,-5.193,-9.106,2.945,-9.012,0,0,0,0,0,0,0,0,0,0,0,0,0,0,0,0,
396,-4.345,-1.247,-15.84,-23.49,-17.63,-2.017,2.922,2.329,-3.862,11.28,0.8533,3.75,-1.878,-5.815,8.209,-3.272,0,0,0,0,0,0,0,0,0,0,0,0,0,0,0,0,
397,12,12.23,-3.55,-9.868,-3.148,12.32,15.42,11.73,7.363,18.42,8.294,15.1,9.013,6.364,10.37,2.823,0,0,0,0,0,0,0,0,0,0,0,0,0,0,0,0,
398,17.63,17.56,10.86,-7.628,-2.101,11.58,16.65,13.64,4.289,13.08,6.872,11.92,7.363,5.18,5.706,2.038,0,0,0,0,0,0,0,0,0,0,0,0,0,0,0,0,
399,14.8,12.2,10.37,-5.506,-3.63,14.89,18.33,10.55,4.051,13.64,8.331,14.03,15.08,11.27,7.397,9.217,0,0,0,0,0,0,0,0,0,0,0,0,0,0,0,0,
400,23.16,21.2,5.086,10.57,-2.635,22.3,21.89,8.526,8.11,20.35,10.25,20.05,23.38,20.23,7.448,10.45,0,0,0,0,0,0,0,0,0,0,0,0,0,0,0,0,
401,23.23,29.06,3.01,10.09,-13.33,13.5,16.04,2.351,3.719,18.87,2.3,13.55,12.52,11.68,2.374,3.746,0,0,0,0,0,0,0,0,0,0,0,0,0,0,0,0,
402,11.19,25.45,3.694,-4.541,-23.28,7.573,17.16,0.6017,2.659,17.05,1.361,8.567,7.975,6.836,7.415,6.36,0,0,0,0,0,0,0,0,0,0,0,0,0,0,0,0,
403,12.34,26.81,8.909,-3.505,-15.73,16.46,26.69,10.61,9.835,18.14,10.9,12.51,13.86,12.43,14.84,9.71,0,0,0,0,0,0,0,0,0,0,0,0,0,0,0,0,
404,16.25,22.71,7.69,-8.898,-12.35,11.12,16.66,11.01,7.146,11.21,9.395,12.52,6.802,5.932,14.31,6.213,0,0,0,0,0,0,0,0,0,0,0,0,0,0,0,0,
405,5.249,7.969,-9.18,-30.33,-25.64,-5.289,-0.641,-1.056,-4.326,1.816,0.3841,10.83,-1.167,-5.321,18.54,8.344,0,0,0,0,0,0,0,0,0,0,0,0,0,0,0,0,
406,2.629,8.635,-10.65,-24.75,-23.73,3.514,9.84,2.144,-1.628,5.741,4.029,18.42,9.434,-0.4329,25.71,19.04,0,0,0,0,0,0,0,0,0,0,0,0,0,0,0,0,
407,19.32,26.48,11.01,-1.943,-9.822,25.86,33.16,15.68,10.75,17.07,13.08,29.99,27.93,13.82,27.55,30.73,0,0,0,0,0,0,0,0,0,0,0,0,0,0,0,0,
408,31.94,40.93,9.231,-0.5922,-13.17,32.53,39.56,19.59,14.36,19.49,15.07,37.32,41.06,21.27,33.65,37.83,0,0,0,0,0,0,0,0,0,0,0,0,0,0,0,0,
409,36.85,49.12,-2.154,4.019,-6.171,37.69,39.89,23.76,20.84,18.5,21.71,46.34,50.43,23.38,43.55,40.72,0,0,0,0,0,0,0,0,0,0,0,0,0,0,0,0,
410,44.07,52.27,14.51,16.12,6.456,43.16,43.73,26,30.13,22.62,33.82,55.48,54.93,28.38,47.35,44.02,0,0,0,0,0,0,0,0,0,0,0,0,0,0,0,0,
411,43.65,47.74,15.77,6.169,-19.5,30.18,37.65,15.42,22.28,24.3,34.83,51.27,47.08,31.92,44.16,42.05,0,0,0,0,0,0,0,0,0,0,0,0,0,0,0,0,
412,31.52,38.72,-6.631,2.069,-35.83,14.61,24.1,5.691,14.21,22.01,29.17,38.55,32.46,29.48,36.76,30.48,0,0,0,0,0,0,0,0,0,0,0,0,0,0,0,0,
413,19.8,24.26,-7.231,13.75,-10.59,6.997,11.62,-4.606,19.53,17.3,26.68,29.95,22.61,27.24,33.02,24.23,0,0,0,0,0,0,0,0,0,0,0,0,0,0,0,0,
414,13.86,7.361,-3.4,10.06,-2.9,-1.642,0.0213,-21.62,17.46,9.468,20.75,21.82,13.86,24.63,30.91,24.96,0,0,0,0,0,0,0,0,0,0,0,0,0,0,0,0,
415,10.38,1.28,-8.974,8.325,-11.33,-1.187,-1.191,-25.23,10.68,7.769,13,12.98,3.472,17.5,19.73,15.46,0,0,0,0,0,0,0,0,0,0,0,0,0,0,0,0,
416,5.434,4.438,-6.616,12.01,-7.621,3.337,6.78,-15.61,10.2,11.98,11.92,10.97,0.5526,13.75,12.79,4.083,0,0,0,0,0,0,0,0,0,0,0,0,0,0,0,0,
417,2.567,5.614,-10.17,1.665,-14.44,-1.855,8.231,-11.18,6.364,11.19,12.27,12.52,4.644,17.21,16.74,6.952,0,0,0,0,0,0,0,0,0,0,0,0,0,0,0,0,
418,5.602,5.719,-14.86,5.66,-22.48,-2.526,5.425,-13.21,3.904,7.482,5.831,9.515,5.269,18.08,8.793,10.71,0,0,0,0,0,0,0,0,0,0,0,0,0,0,0,0,
419,4.82,5.637,-9.228,16.87,-18.65,-0.7705,4.414,-19.12,4.876,2.899,-5.466,3.876,-0.2684,10.24,-8.906,4.197,0,0,0,0,0,0,0,0,0,0,0,0,0,0,0,0,
420,-3.191,1.933,-10.35,4.777,-22.83,-9.057,2.358,-22.3,-4.897,-2.928,-14.08,0.9599,-3.88,1.474,-11.45,0.1482,0,0,0,0,0,0,0,0,0,0,0,0,0,0,0,0,
421,-6.441,-0.3722,-9.223,4.23,-25.8,-10.2,4.158,-18.2,-13.95,0.8621,-14.85,4.553,4.204,5.809,1.71,8.858,0,0,0,0,0,0,0,0,0,0,0,0,0,0,0,0,
422,-0.9638,5.477,-0.2213,18.51,-19.77,-0.6416,10.4,-16.07,-9.16,11.43,-11.52,13.79,15.76,16.9,12.32,18.43,0,0,0,0,0,0,0,0,0,0,0,0,0,0,0,0,
423,4.825,12.63,-1.921,8.226,-19.49,1.638,11,-18.48,-7.726,8.647,-12.48,15.41,11.25,10.61,7.041,11.35,0,0,0,0,0,0,0,0,0,0,0,0,0,0,0,0,
424,3.861,9.526,-5.224,-8.431,-19.37,1.163,7.186,-21.78,-11.42,-2.436,-14.65,7.385,0.9207,-3.543,-1.696,1.145,0,0,0,0,0,0,0,0,0,0,0,0,0,0,0,0,
425,3.296,5.307,0.771,-6.081,-15.29,8.268,10.92,-22.16,-6.774,-0.2585,-9.172,8.549,5.752,0.3297,2.775,6.558,0,0,0,0,0,0,0,0,0,0,0,0,0,0,0,0,
426,12.58,12.21,9.305,6.539,-12.04,14.99,21.19,-14.67,-1.844,6.598,-1.614,16.18,11.91,7.076,5.482,8.644,0,0,0,0,0,0,0,0,0,0,0,0,0,0,0,0,
427,19.96,15.33,15.9,18.48,-5.15,15.26,23.35,-7.814,1.13,1.359,1.339,14.01,7.586,2.98,0.9622,0.747,0,0,0,0,0,0,0,0,0,0,0,0,0,0,0,0,
428,16.47,5.263,12.84,14.56,-4.401,11.97,14.75,-8.541,8.092,-5.24,3.43,9.895,2.747,0.828,1.887,2.058,0,0,0,0,0,0,0,0,0,0,0,0,0,0,0,0,
429,11.79,-5.517,2.908,-2.104,-17.77,6.756,7.921,-9.272,7.452,-5.797,4.127,9.287,-3.764,-2.992,0.4012,3.65,0,0,0,0,0,0,0,0,0,0,0,0,0,0,0,0,
430,7.746,-11.87,-3.928,-11.04,-23.52,1.192,6.324,-10.49,-1.027,-8.864,2.574,6.126,-7.903,-7.191,-2.881,-2.242,0,0,0,0,0,0,0,0,0,0,0,0,0,0,0,0,
431,3.228,-10.86,-6.102,-10.25,-13.22,-4.942,2.296,-17.95,-7.23,-13.69,-0.8628,2.265,-4.265,-2.697,-3.394,-4.031,0,0,0,0,0,0,0,0,0,0,0,0,0,0,0,0,
432,-0.623,-6.092,-2.219,-5.585,-6.705,-13.84,-5.476,-26.03,-12.92,-16.72,-7.278,-2.897,-6.853,-4.725,-9.434,-7.073,0,0,0,0,0,0,0,0,0,0,0,0,0,0,0,0,
433,-8.982,-11.4,-0.3518,-5.669,-6.712,-18.23,-10.42,-25.7,-11.4,-18.89,-5.987,-5.329,-8.119,-10.59,-3.09,-6.583,0,0,0,0,0,0,0,0,0,0,0,0,0,0,0,0,
434,-14.15,-14.5,-4.124,-14.27,-3.296,-13.25,-10.97,-19.5,-5.566,-19.22,1.02,-1.149,0.8686,-5.684,12.33,6.205,0,0,0,0,0,0,0,0,0,0,0,0,0,0,0,0,
435,-10.37,-5.494,-3.748,-15.22,-0.3292,-10.35,-12.03,-17.18,-10.49,-18.48,-5.308,-1.862,-0.5183,-4.256,4.259,10.64,0,0,0,0,0,0,0,0,0,0,0,0,0,0,0,0,
436,-9.361,-3.19,-4.937,-6.732,3.356,-12.26,-11.25,-15.91,-10.85,-14.77,-12.11,-1.907,-1.501,-4.724,0.5508,8.1,0,0,0,0,0,0,0,0,0,0,0,0,0,0,0,0,
437,-6.086,-2.182,-5.541,0.6557,11.47,-8.023,-4.815,-11.53,-0.3337,-8.204,-5.146,7.114,11.12,1.471,17.29,13.34,0,0,0,0,0,0,0,0,0,0,0,0,0,0,0,0,
438,3.055,5.142,6.633,14.07,13.64,-1.051,-1.916,-13.98,-0.7029,-7.733,-5.037,4.953,7.282,-2.459,8.839,8.472,0,0,0,0,0,0,0,0,0,0,0,0,0,0,0,0,
439,1.283,0.4759,13.2,28.11,11,0.7084,-3.632,-18.71,-0.4164,-8.623,-7.016,-3.297,-0.964,-3.946,-5.919,0.8119,0,0,0,0,0,0,0,0,0,0,0,0,0,0,0,0,
440,-0.29,-1.366,7.557,27.71,15.45,4.572,1.854,-12.35,14.77,2.029,7.685,6.245,16.44,14.57,14.15,13.62,0,0,0,0,0,0,0,0,0,0,0,0,0,0,0,0,
441,12.97,14.11,9.615,22.51,22.58,13.85,6.96,-8.03,21.89,13.06,18.5,15.41,24.42,23.25,29.21,22.65,0,0,0,0,0,0,0,0,0,0,0,0,0,0,0,0,
442,16.66,17.52,11.81,19.4,25.64,18.82,0.9862,-15.74,18.15,9.834,17.92,11.8,10.63,15.14,21.03,17.64,0,0,0,0,0,0,0,0,0,0,0,0,0,0,0,0,
443,6.806,8.832,5.279,12.62,24.25,16.29,-3.688,-20.41,18.6,1.543,22.74,13.78,9.3,14.52,19.57,18.61,0,0,0,0,0,0,0,0,0,0,0,0,0,0,0,0,
444,6.753,8.661,5.101,10.64,18.8,12.21,-4.342,-20.41,14.96,-2.348,22.83,16.08,12.94,15.32,18.9,17.07,0,0,0,0,0,0,0,0,0,0,0,0,0,0,0,0,
445,9.604,7.217,9.331,18.81,16.51,8.217,-8.727,-23.53,6.225,-2.269,14.82,12.39,12.39,16.99,17.04,16.42,0,0,0,0,0,0,0,0,0,0,0,0,0,0,0,0,
446,5.695,8.35,7.288,22.69,16.43,4.476,-7.058,-20.31,5.455,2.332,17.62,17.87,22.98,28.53,28.78,29.52,0,0,0,0,0,0,0,0,0,0,0,0,0,0,0,0,
447,6.786,18.72,4.311,15.47,11.79,5.845,0.201,-13.68,8.283,2.889,25.45,24.89,25.58,25.19,34.07,27.91,0,0,0,0,0,0,0,0,0,0,0,0,0,0,0,0,
448,8.669,17.69,3.291,9.221,11.57,9.988,-0.8362,-17.89,6.662,-7.341,26.18,21.68,12.33,7.407,27.63,14.7,0,0,0,0,0,0,0,0,0,0,0,0,0,0,0,0,
449,2.985,10.52,1.757,10.42,17.01,6.999,-3.376,-18.7,4.214,-14.01,23.74,18.26,11.23,7.063,28.99,23.06,0,0,0,0,0,0,0,0,0,0,0,0,0,0,0,0,
450,-0.3519,13.64,0.2314,8.927,19.4,0.1625,-3.697,-7.431,3.848,-10.36,16.53,13.35,14.93,10.01,25.96,27.92,0,0,0,0,0,0,0,0,0,0,0,0,0,0,0,0,
451,-1.758,12.02,-0.9678,3.779,24.96,-1.073,-11.15,-4.495,6.718,-6.778,12.03,7.304,11.02,3.579,20.27,17.75,0,0,0,0,0,0,0,0,0,0,0,0,0,0,0,0,
452,-8.181,6.901,1.722,9.558,29.83,-2.777,-15.65,-7.505,10.37,-4.208,19.17,10.99,17.09,9.896,32.41,24.92,0,0,0,0,0,0,0,0,0,0,0,0,0,0,0,0,
453,-10.64,12.47,6.044,19.45,21.14,-9.814,-11.99,-3.815,5.893,-2.947,17.61,11.84,22.84,15.7,36.07,32.65,0,0,0,0,0,0,0,0,0,0,0,0,0,0,0,0,
454,-8.656,13.26,1.92,15.02,10.59,-13.22,-15.86,-5.808,-4.283,-6.489,2.709,4.816,16.58,7.899,19.76,23.53,0,0,0,0,0,0,0,0,0,0,0,0,0,0,0,0,
455,-11.27,6.636,-5.102,9.259,10.8,-10.51,-20.71,-8.854,-7.522,-5.373,-0.3937,5.617,18.24,11.6,15.64,24,0,0,0,0,0,0,0,0,0,0,0,0,0,0,0,0,
456,-11.5,10.76,-6.158,11.71,17.52,-7.074,-11.43,0.1508,-5.841,2.094,4.22,3.729,20.57,20.97,15.98,27.43,0,0,0,0,0,0,0,0,0,0,0,0,0,0,0,0,
457,-9.563,14.4,-8.146,5.827,24.05,-7.697,-5.052,3.494,-8.622,2.727,0.1589,-8.117,8.505,15.35,4.175,16.64,0,0,0,0,0,0,0,0,0,0,0,0,0,0,0,0,
458,-16.79,3.887,-10.47,2.566,18.72,-17.28,-15.33,-4.489,-13.85,-5.244,-3.927,-12.52,-2.578,4.748,-2.981,4.169,0,0,0,0,0,0,0,0,0,0,0,0,0,0,0,0,
459,-23.41,-6.629,-10.49,14.37,2.378,-29,-25.74,-9.307,-17.55,-14.65,-5.2,-15.16,-9.678,-3.312,-6.138,-5.367,0,0,0,0,0,0,0,0,0,0,0,0,0,0,0,0,
460,-21.91,-9.777,-16.5,9.378,-3.304,-30.41,-25.06,-12.32,-18.38,-18.5,-6.351,-21.56,-13.51,-5.277,-5.554,-7.057,0,0,0,0,0,0,0,0,0,0,0,0,0,0,0,0,
461,-21.44,-7.415,-20.69,-10.61,2.589,-23.48,-18.78,-10.77,-14.82,-12.54,-1.717,-16.46,-5.902,-0.0435,4.441,-0.7039,0,0,0,0,0,0,0,0,0,0,0,0,0,0,0,0,
462,-17.31,0.632,-11.36,-1.287,3.147,-14.79,-11.29,-1.317,-11.74,-8.016,1.279,-8.956,-2.072,-2.272,2.104,-4.627,0,0,0,0,0,0,0,0,0,0,0,0,0,0,0,0,
463,-8.5,4.996,-3.104,18.64,2.774,-9.336,-6.453,1.018,-12.64,-11.42,-1.944,-9.763,-6.241,-8.049,-6.809,-11.2,0,0,0,0,0,0,0,0,0,0,0,0,0,0,0,0,
464,-7.604,5.727,-8.065,6.725,7.075,-11.31,-5.73,-1.192,-14.2,-7.091,0.4803,-5.793,-0.471,-2.991,2.331,-6.549,0,0,0,0,0,0,0,0,0,0,0,0,0,0,0,0,
465,-7.753,13.95,-11.55,-3.792,6.619,-13.03,-3.759,7.422,-16.51,5.882,5.325,-1.062,6.666,3.007,8.441,-4.455,0,0,0,0,0,0,0,0,0,0,0,0,0,0,0,0,
466,-3.064,19.94,-2.174,15,4.645,-10.46,-1.284,17.38,-19.11,9.835,1.494,-4.884,4.149,3.027,1.383,-4.428,0,0,0,0,0,0,0,0,0,0,0,0,0,0,0,0,
467,-5.721,12.59,4.317,19.98,7.437,-10.87,-3.255,15.13,-19.11,5.078,-2.604,-5.25,3.325,1.378,2.578,1.873,0,0,0,0,0,0,0,0,0,0,0,0,0,0,0,0,
468,-8.733,5.674,-3.763,4.287,7.079,-9.684,-4.973,6.085,-18.22,0.0217,-0.2008,0.5201,4.98,-2.856,6.437,3.95,0,0,0,0,0,0,0,0,0,0,0,0,0,0,0,0,
469,-1.5,8.206,-10.2,7.028,2.77,-5.604,-3.146,1.336,-17.63,-4.776,-3.033,-0.2966,1.358,-6.31,-0.465,-1.474,0,0,0,0,0,0,0,0,0,0,0,0,0,0,0,0,
470,-1.067,8.125,-5.832,12.53,0.4315,-9.348,-3.569,2.575,-18.39,-7.71,-11.77,-7.62,-5.112,-8.135,-12.05,-6.581,0,0,0,0,0,0,0,0,0,0,0,0,0,0,0,0,
471,-9.003,1.375,-0.3267,6.91,1.366,-10.21,-4.16,4.606,-18.07,-9.893,-8.17,-7.433,-6.518,-11.18,-17.82,-4.714,0,0,0,0,0,0,0,0,0,0,0,0,0,0,0,0,
472,-4.498,0.0993,2.131,17.36,5.538,0.2071,-0.9121,6.83,-10.95,-13.55,1.745,-0.2285,-4.037,-11.58,-16.78,0.6975,0,0,0,0,0,0,0,0,0,0,0,0,0,0,0,0,
473,1.669,2.662,-1.769,18.21,6.61,1.398,-3.053,5.95,-6.01,-16.51,-2.373,-0.7152,-7.148,-9.123,-19.41,-1.27,0,0,0,0,0,0,0,0,0,0,0,0,0,0,0,0,
474,-5.846,-0.2434,-9.822,-6.306,2.549,-6.015,-8.57,0.4241,-8.009,-15.76,-3.769,-0.5105,-5.842,-0.7405,-16.82,0.4169,0,0,0,0,0,0,0,0,0,0,0,0,0,0,0,0,
475,-4.175,4.377,-6.341,-0.3992,3.754,-1.112,-2.074,3.522,-4.425,-7.655,8.863,10.49,7.998,13.13,0.6527,11.41,0,0,0,0,0,0,0,0,0,0,0,0,0,0,0,0,
476,10.01,19.14,8.439,23.92,13.93,8.351,7.768,13.17,0.7153,0.8376,10.46,12.45,10.51,13.05,5.365,8.472,0,0,0,0,0,0,0,0,0,0,0,0,0,0,0,0,
477,8.987,19.86,17.73,14.29,26.51,9.004,6.215,13.49,0.1825,-1.566,4.004,5.76,-0.5698,-0.6495,-5.457,-3.074,0,0,0,0,0,0,0,0,0,0,0,0,0,0,0,0,
478,-2.074,6.589,15.54,4.629,28.21,4.487,1.294,10.26,-0.3322,-7.589,3.671,7.404,-2.895,-7.773,-3.926,-3.271,0,0,0,0,0,0,0,0,0,0,0,0,0,0,0,0,
479,-5.857,-1.91,4.447,12.74,13.01,-2.49,-3.862,7.829,-7.218,-8.417,-6.139,4.889,-0.051,-8.803,2.047,-0.7129,0,0,0,0,0,0,0,0,0,0,0,0,0,0,0,0,
480,-8.61,-2.926,-8.594,3.343,2.486,-6.137,-9.851,2.083,-16.01,-6.996,-17.86,-3.314,2.93,-6.562,0.5749,2.345,0,0,0,0,0,0,0,0,0,0,0,0,0,0,0,0,
481,-12.63,2.549,-11.64,-8.501,7.513,-5.581,-7.088,2.283,-12.62,-5.735,-16.15,-4.737,4.952,-3.9,-4.784,3.248,0,0,0,0,0,0,0,0,0,0,0,0,0,0,0,0,
482,-16.88,5.927,-3.065,-4.444,8.946,-11.08,-2.546,5.132,-10.79,-8.261,-17.6,-7.353,-3.134,-9.907,-13.6,-5.141,0,0,0,0,0,0,0,0,0,0,0,0,0,0,0,0,
483,-19.6,-1.557,2.848,-7.622,5.309,-15.48,-6.412,-0.3783,-15,-12.24,-21.13,-7.13,-9.128,-12.6,-9.816,-6.697,0,0,0,0,0,0,0,0,0,0,0,0,0,0,0,0,
484,-12.41,-6.65,-1.111,-17.95,7.406,-8.562,-9.265,-4.516,-11.17,-12.17,-16.36,-0.4709,-9.441,-9.843,0.2962,-6.081,0,0,0,0,0,0,0,0,0,0,0,0,0,0,0,0,
485,-9.242,-8.119,-4.719,-17.45,7.413,-8.164,-12.44,-5.369,-10.12,-17.03,-17.49,-5.441,-19.77,-18.64,-9.92,-16.97,0,0,0,0,0,0,0,0,0,0,0,0,0,0,0,0,
486,-23.42,-17.97,-9.402,-9.172,-3.086,-24.45,-22.92,-12.77,-21.2,-27.86,-24.99,-13.9,-25.74,-26.9,-19.45,-17.1,0,0,0,0,0,0,0,0,0,0,0,0,0,0,0,0,
487,-32.02,-24.26,-24.67,-12.03,-17.88,-34.94,-28.04,-18.74,-29.26,-29.87,-26.75,-10.13,-18.27,-24.4,-13.77,-10.39,0,0,0,0,0,0,0,0,0,0,0,0,0,0,0,0,
488,-25.92,-21.75,-33.13,-30.66,-21.29,-28.67,-25.35,-16.82,-27.07,-24.72,-25.29,-9.308,-18.1,-26.08,-18.54,-19.46,0,0,0,0,0,0,0,0,0,0,0,0,0,0,0,0,
489,-25.96,-24.32,-25.17,-37.89,-14.29,-25.19,-27.59,-16.81,-23.4,-22.16,-24.64,-17.62,-22.62,-28.04,-25.49,-24.45,0,0,0,0,0,0,0,0,0,0,0,0,0,0,0,0,
490,-32.39,-25.29,-22.16,-26.08,-13.33,-28.44,-27.02,-15.5,-22.64,-15.21,-24.37,-22.03,-16.38,-19,-17.07,-16.22,0,0,0,0,0,0,0,0,0,0,0,0,0,0,0,0,
491,-29.49,-12.7,-19.7,-18.99,-8.18,-20.21,-13.19,-1.332,-19.05,-0.211,-22.77,-19.25,-6.469,-8.772,-11.38,-14.31,0,0,0,0,0,0,0,0,0,0,0,0,0,0,0,0,
492,-22.08,0.0973,-7.37,-14.7,0.462,-9.848,-1.881,10.89,-15.3,7.969,-21.23,-16.99,-5.049,-10.16,-14.73,-19.77,0,0,0,0,0,0,0,0,0,0,0,0,0,0,0,0,
493,-22.09,-0.4391,-10.33,-7.207,-12.98,-12.39,0.5648,7.996,-15.69,6.867,-21.15,-18.3,-10.18,-18.9,-14.64,-23.39,0,0,0,0,0,0,0,0,0,0,0,0,0,0,0,0,
494,-20.1,-2.351,-17.8,-3.75,-14.74,-4.619,10.91,12.01,-4.932,14.32,-13.22,-12.53,-8.626,-16.77,-9.126,-18.25,0,0,0,0,0,0,0,0,0,0,0,0,0,0,0,0,
495,-6.468,7.694,2.899,8.443,21.31,16.89,23.59,26.4,14.08,26.2,0.5138,0.4365,-0.2619,-3.119,-4.009,-6.396,0,0,0,0,0,0,0,0,0,0,0,0,0,0,0,0,
496,2.273,16.74,18.38,22.18,30.99,16.73,19.55,22.37,13.81,23.13,2.965,1.094,-0.8523,0.4533,-4.312,-3.587,0,0,0,0,0,0,0,0,0,0,0,0,0,0,0,0,
497,-5.047,11.41,2.271,8.64,-1.535,-3.931,6.348,3.425,-1.409,11.25,-5.892,-11.51,-10.39,-11.77,-8.003,-12.31,0,0,0,0,0,0,0,0,0,0,0,0,0,0,0,0,
498,-16.98,-1.171,-15.4,-17.22,-18.21,-17.75,-5.277,-9.373,-12.4,1.024,-18.53,-21.69,-17.18,-25.43,-13.6,-21,0,0,0,0,0,0,0,0,0,0,0,0,0,0,0,0,
499,-25.18,-13.42,-26,-24.91,-17.47,-22.28,-13.83,-16.4,-20.13,-6.663,-31.58,-26.43,-19.75,-29.06,-23.26,-24.34,0,0,0,0,0,0,0,0,0,0,0,0,0,0,0,0,
500,-26.63,-17.44,-30.55,-16.82,-21.41,-18.84,-11.6,-12.91,-23.12,-2.76,-35.13,-27.4,-20.71,-24.26,-28.38,-22.92,0,0,0,0,0,0,0,0,0,0,0,0,0,0,0,0,
501,-23.89,-10.83,-20.64,-9.842,-21.37,-12.69,-7.351,-2.273,-21.54,5.767,-29.69,-26.53,-22.18,-20.44,-25.01,-21.18,0,0,0,0,0,0,0,0,0,0,0,0,0,0,0,0,
502,-24.67,-10.88,-15.01,-9.519,-19.09,-17.66,-15.44,-6.364,-20.35,0.8855,-24.27,-26.32,-24.46,-18.01,-25.04,-20.86,0,0,0,0,0,0,0,0,0,0,0,0,0,0,0,0,
503,-23.35,-19.73,-21.06,-8.68,-20.05,-24.34,-22.48,-15.82,-15,-7.884,-20.13,-24.82,-26.5,-18.18,-31.2,-22.87,0,0,0,0,0,0,0,0,0,0,0,0,0,0,0,0,
504,-18.98,-21.41,-23.27,-10.88,-22.15,-22.37,-18.69,-9.533,-10.74,-9.782,-22.4,-25.23,-30.34,-28,-33.38,-29.34,0,0,0,0,0,0,0,0,0,0,0,0,0,0,0,0,
505,-19.04,-17.6,-18.32,-16.74,-20.34,-17.8,-10.39,1.236,-10.63,-9.794,-26.54,-26.29,-31.66,-34.21,-24.25,-30.4,0,0,0,0,0,0,0,0,0,0,0,0,0,0,0,0,
506,-13.59,-12.89,-7.369,-9.207,-7.699,-7.447,-1.002,5.696,-0.5668,-5.992,-18.02,-19.84,-26.09,-27.97,-10.66,-24.23,0,0,0,0,0,0,0,0,0,0,0,0,0,0,0,0,
507,-3.996,-9.86,-3.046,0.9474,-1.056,1.69,-1.748,5.964,10.35,-4.733,-8.636,-13.95,-23.45,-27.35,-8.102,-25.36,0,0,0,0,0,0,0,0,0,0,0,0,0,0,0,0,
508,-2.559,-14.54,-9.598,-0.1752,-8.252,-1.147,-9.835,2.655,8.028,-13.21,-9.768,-12.98,-25.83,-30.91,-10.96,-28.77,0,0,0,0,0,0,0,0,0,0,0,0,0,0,0,0,
509,4.23,-14.61,-6.433,7.28,-1.753,2.031,-2.116,4.507,11.28,-13.31,-6.564,-5.99,-22.33,-24.74,-6.482,-25.1,0,0,0,0,0,0,0,0,0,0,0,0,0,0,0,0,
510,14.23,-6.721,-2.059,15.34,11.45,12.31,10.92,11.02,20.71,-0.7276,-1.093,1.126,-15.05,-18.45,-5.388,-22.31,0,0,0,0,0,0,0,0,0,0,0,0,0,0,0,0,
511,7.734,-7.901,-7.275,8.269,1.831,9.113,8.015,8.029,13.54,3.913,-6.654,-1.881,-12.65,-15.66,-12.22,-21.36,0,0,0,0,0,0,0,0,0,0,0,0,0,0,0,0,
512,-0.9933,-11.94,-2.885,8.072,-12.1,2.864,2.913,-0.9929,0.3209,-1.34,-15.43,-10.82,-16.63,-13.54,-17.98,-24.33,0,0,0,0,0,0,0,0,0,0,0,0,0,0,0,0,
513,-3.761,-11.1,-2.365,14.69,-12.66,2.824,1.394,-4.369,-3.515,-7.374,-20.08,-21.51,-24.51,-20.22,-22.63,-31.88,0,0,0,0,0,0,0,0,0,0,0,0,0,0,0,0,
514,-13.87,-16.5,-18.4,10.95,-19.45,-5.456,-7.341,-4.559,-10.38,-14.74,-21.99,-26.07,-29.2,-27.97,-24.46,-27.69,0,0,0,0,0,0,0,0,0,0,0,0,0,0,0,0,
515,-21.37,-23.66,-21.9,3.245,-30.06,-16.31,-16.13,-9.149,-19.05,-20.42,-20.19,-23.21,-30.13,-28.26,-23.85,-17.91,0,0,0,0,0,0,0,0,0,0,0,0,0,0,0,0,
516,-20.47,-27.33,-14.75,-0.7738,-23.1,-15.86,-18.49,-17.86,-15.03,-20.3,-15.4,-22.4,-30.93,-29.12,-23.06,-18.03,0,0,0,0,0,0,0,0,0,0,0,0,0,0,0,0,
517,-21.68,-31.69,-19.09,2.189,-13.45,-13.42,-20.48,-20.76,-9.13,-19.07,-12.21,-19.71,-26.9,-25.97,-18,-15.37,0,0,0,0,0,0,0,0,0,0,0,0,0,0,0,0,
518,-21.89,-29.87,-25.45,0.5317,-20.93,-17.41,-23.81,-17.14,-15.91,-21.51,-16.99,-17.41,-24.32,-18.91,-19.04,-14.37,0,0,0,0,0,0,0,0,0,0,0,0,0,0,0,0,
519,-22.37,-25.6,-26.12,-15.73,-23.85,-19.03,-26,-17.66,-21.45,-22.58,-22.01,-23.59,-28.4,-20.12,-25.14,-23.16,0,0,0,0,0,0,0,0,0,0,0,0,0,0,0,0,
520,-23.52,-26.82,-24.56,-19.84,-11.7,-13.86,-24.04,-18.49,-13.97,-17.38,-14,-21.25,-22.72,-19.19,-12.67,-16.48,0,0,0,0,0,0,0,0,0,0,0,0,0,0,0,0,
521,-14.51,-21.91,-20.94,-10.22,-9.929,-11.37,-18.29,-11.43,-8.57,-13.21,-6.918,-8.828,-10.94,-11.35,3.883,-1.256,0,0,0,0,0,0,0,0,0,0,0,0,0,0,0,0,
522,-9.277,-14.06,-19.08,-17.9,-17.82,-15.85,-15.74,-4.418,-13.64,-13.09,-12.19,-7.058,-10.26,-12.03,-0.8018,-6.88,0,0,0,0,0,0,0,0,0,0,0,0,0,0,0,0,
523,-18.04,-17.01,-18.53,-27.8,-19.65,-19.52,-17.94,-6.274,-17.9,-11.67,-14.99,-9.351,-10.84,-16.18,-7.136,-15.99,0,0,0,0,0,0,0,0,0,0,0,0,0,0,0,0,
524,-15.97,-18.41,-18.06,-19.36,-21.63,-15.65,-14.66,-11.11,-15.08,-10.18,-11.21,-8.105,-8.683,-13.89,-2.792,-11.4,0,0,0,0,0,0,0,0,0,0,0,0,0,0,0,0,
525,-3.07,-10.83,-18.7,-13.26,-14.86,-4.314,-2.317,-4.047,-4.157,-5.045,-5.251,-9.515,-9.908,-10.92,-0.0689,-6.103,0,0,0,0,0,0,0,0,0,0,0,0,0,0,0,0,
526,1.317,-5.079,-9.019,-12.87,6.532,8.525,7.117,12.91,11.23,6.163,2.944,-4.281,-4.886,-7.143,2.375,-5.023,0,0,0,0,0,0,0,0,0,0,0,0,0,0,0,0,
527,9.5,1.601,8.909,-1.425,14.75,16.36,10.8,20.89,18.35,12.55,5.414,4.917,2.896,-1.384,3.955,-8.008,0,0,0,0,0,0,0,0,0,0,0,0,0,0,0,0,
528,18.26,9.332,7.674,11.78,5.095,16.37,15.47,20.72,15.05,16.34,2.773,3.356,4.525,3.769,-0.5298,-11.72,0,0,0,0,0,0,0,0,0,0,0,0,0,0,0,0,
529,8.496,8.211,-7.527,13.96,-0.9159,12.1,16.22,23.46,10.83,23.21,4.078,2.167,9.351,9.88,0.6581,-7.317,0,0,0,0,0,0,0,0,0,0,0,0,0,0,0,0,
530,6.8,7.912,-2.103,17.4,0.5563,16.9,17.28,26.94,11.33,24.05,7.807,9.826,16.14,14.17,10.07,2.029,0,0,0,0,0,0,0,0,0,0,0,0,0,0,0,0,
531,25.59,14.08,14.5,23.01,6.236,30.71,28.27,31.14,17.17,22.68,11.01,14.14,18.03,14.82,14.24,11.88,0,0,0,0,0,0,0,0,0,0,0,0,0,0,0,0,
532,30.44,12.87,14.14,17.71,10.35,34.68,33.26,33.18,19.21,23.69,11.63,13.53,18.96,14.72,16.82,18.9,0,0,0,0,0,0,0,0,0,0,0,0,0,0,0,0,
533,23.62,9.621,9.546,18.95,9.257,30.8,26.61,26.58,11.2,17,10.11,13.94,17.8,12.21,23.35,16.18,0,0,0,0,0,0,0,0,0,0,0,0,0,0,0,0,
534,24.76,14.94,11.71,37.17,11.86,30.85,25.37,20.79,7.095,10.59,14.56,16.18,18.08,11.14,25.5,14.52,0,0,0,0,0,0,0,0,0,0,0,0,0,0,0,0,
535,21.15,17.67,9.706,45.69,15.25,26.5,25.91,20.94,14.44,14.67,23.03,20.62,23.3,17.25,27.55,20.75,0,0,0,0,0,0,0,0,0,0,0,0,0,0,0,0,
536,15.49,14.23,6.639,39.98,11.21,17.68,19.61,17.04,20.29,16.38,25.04,21.71,22.27,22.11,31.45,19.9,0,0,0,0,0,0,0,0,0,0,0,0,0,0,0,0,
537,18.3,11.32,5.404,33.39,7.5,16.03,14.98,9.557,19.58,11.9,21.07,16.43,17.56,20.1,24.36,16.07,0,0,0,0,0,0,0,0,0,0,0,0,0,0,0,0,
538,18.99,8.967,5.812,25.89,8.349,19.41,15.55,8.695,18.33,9.329,17.86,12.58,18.35,17.32,14.23,19.79,0,0,0,0,0,0,0,0,0,0,0,0,0,0,0,0,
539,17.92,7.893,12.87,21.28,11.12,19.31,15.52,11.72,17.59,6.236,19.49,12.64,16.51,14.81,15.1,19.03,0,0,0,0,0,0,0,0,0,0,0,0,0,0,0,0,
540,18.43,5.869,10.98,14.88,14.91,13.54,9.624,6.54,19.9,2.419,24.73,14.69,13.31,11.34,19.02,13.35,0,0,0,0,0,0,0,0,0,0,0,0,0,0,0,0,
541,17.17,-0.1212,-1.013,8.787,18.26,10.11,2.221,-1.953,26.71,2.446,25.48,17.43,13.96,9.161,18.04,10.11,0,0,0,0,0,0,0,0,0,0,0,0,0,0,0,0,
542,18.32,-6.208,3.289,19.63,21.91,11.89,0.7578,0.0834,28.87,2.932,19.68,14.7,10.36,8.62,12.57,6.132,0,0,0,0,0,0,0,0,0,0,0,0,0,0,0,0,
543,17.75,-8.589,13.88,24.42,22.78,8.431,-0.1133,5.167,25.64,2.647,15.24,7.776,5.53,8.755,6.308,5.467,0,0,0,0,0,0,0,0,0,0,0,0,0,0,0,0,
544,11.73,-6.386,11.53,2.945,15.71,3.284,-3.859,2.906,24.55,3.476,11.06,2.592,4.829,7.333,3.646,5.14,0,0,0,0,0,0,0,0,0,0,0,0,0,0,0,0,
545,7.379,-4.652,7.371,-10.27,6.2,5.909,-4.539,1.451,20.57,2.976,3.627,-0.5961,6.483,5.79,3.432,2.222,0,0,0,0,0,0,0,0,0,0,0,0,0,0,0,0,
546,6.471,-2.114,5.647,0.0585,4.151,11.03,0.785,6.201,16.41,5.137,5.001,5.269,15.8,9.678,7.194,10.04,0,0,0,0,0,0,0,0,0,0,0,0,0,0,0,0,
547,13.05,11.04,10.41,9.298,8.171,16.36,10.8,13.02,22.92,10.81,15.81,18.49,23.35,14.79,14.16,17.94,0,0,0,0,0,0,0,0,0,0,0,0,0,0,0,0,
548,24.15,20,18.83,6.447,4.582,17.64,15.27,17.84,27.05,8.974,18.17,21.62,15.84,14.9,15.91,10.91,0,0,0,0,0,0,0,0,0,0,0,0,0,0,0,0,
549,24.9,10.57,11.94,2.531,-5.139,10.72,8.937,17.45,21.23,4.332,13.21,16.37,7.378,12.49,11.4,4.825,0,0,0,0,0,0,0,0,0,0,0,0,0,0,0,0,
550,18.71,2.349,4.979,8.114,-5.893,8.582,3.313,11.78,20.36,6.328,11.11,15.33,7.46,8.596,5.304,2.748,0,0,0,0,0,0,0,0,0,0,0,0,0,0,0,0,
551,15.62,1.972,11.65,15.06,-6.307,12.98,2.163,6.479,22.07,5.14,9.995,19.22,12.23,7.847,4.949,2.468,0,0,0,0,0,0,0,0,0,0,0,0,0,0,0,0,
552,16.48,2.684,12.13,15.26,-11.43,14.82,4.341,8.761,20.23,2.769,12.64,27.54,22.36,14.69,12.28,13.55,0,0,0,0,0,0,0,0,0,0,0,0,0,0,0,0,
553,22.1,10.11,12.38,14.39,-6.456,17.15,10.45,11.85,21.46,6.72,15.43,31.49,25.03,17.81,13.31,18.81,0,0,0,0,0,0,0,0,0,0,0,0,0,0,0,0,
554,22.09,12.18,16.38,9.252,-4.731,14.53,7.6,1.878,18.81,3.227,9.517,24.23,14.37,12.94,7.65,11.02,0,0,0,0,0,0,0,0,0,0,0,0,0,0,0,0,
555,13.35,2.779,7.331,2.082,-15.34,4.463,-4.313,-11.36,11.17,-5.904,7.917,21.78,11.05,10.77,10.56,15.6,0,0,0,0,0,0,0,0,0,0,0,0,0,0,0,0,
556,11.76,0.5669,1.038,2.886,-12.51,1.255,-9.737,-14.6,9.763,-7.456,13.79,25.28,15.45,8.857,15.01,23.68,0,0,0,0,0,0,0,0,0,0,0,0,0,0,0,0,
557,12.46,-1.18,7.681,1.988,-0.379,2.294,-11.58,-17.03,6.502,-11.67,8.822,16.54,9.882,1.438,8.916,12,0,0,0,0,0,0,0,0,0,0,0,0,0,0,0,0,
558,6.099,-9.58,9.887,-2.828,-0.6219,1.064,-10.39,-17.84,-0.276,-17.48,0.1552,6.898,3.725,-1.165,3.144,1.344,0,0,0,0,0,0,0,0,0,0,0,0,0,0,0,0,
559,8.105,-3.287,8.843,-1.443,-0.9734,6.35,0.7355,-9.589,3.049,-10.96,1.498,10.87,7.471,4.221,5.441,6.572,0,0,0,0,0,0,0,0,0,0,0,0,0,0,0,0,
560,16.36,9.588,11,0.7622,5.825,12.08,8.273,-5.659,7.55,-3.544,1.868,10.99,7.207,4.897,5.872,6.003,0,0,0,0,0,0,0,0,0,0,0,0,0,0,0,0,
561,14.55,7.128,14.71,3.795,7.137,10.81,5.924,-8.334,4.759,-4.537,0.0779,3.882,0.9019,0.588,3.836,-2.665,0,0,0,0,0,0,0,0,0,0,0,0,0,0,0,0,
562,14.45,4.772,17,11.3,4.299,14.25,5.337,-5.629,4.56,-5.011,2.421,4.919,0.4751,1.601,7.907,0.317,0,0,0,0,0,0,0,0,0,0,0,0,0,0,0,0,
563,23.2,9.944,14.08,14.37,6.603,22.77,7.338,-3.691,5.242,-3.226,2.857,8.419,2.982,3.174,10.06,8.983,0,0,0,0,0,0,0,0,0,0,0,0,0,0,0,0,
564,25.17,7.629,16.46,15.67,10.25,26.6,11.12,-5.046,6.471,-0.3932,6.131,9.152,5.385,0.9327,6.711,9.861,0,0,0,0,0,0,0,0,0,0,0,0,0,0,0,0,
565,23.27,4.873,22.99,19.17,5.156,25.43,14.62,-4.666,13.83,0.6607,13.18,13.16,11.19,2.145,9.83,11.33,0,0,0,0,0,0,0,0,0,0,0,0,0,0,0,0,
566,26.67,8.453,15.88,14.58,-1.724,19.92,7.956,-11.1,17.38,-3.902,10.92,15.99,15.79,5,15.62,18.15,0,0,0,0,0,0,0,0,0,0,0,0,0,0,0,0,
567,25.71,5.286,3.603,3.85,2.673,14.51,-0.0752,-18.14,16.3,-3.547,9.806,18.68,20.08,9.452,20.48,24.43,0,0,0,0,0,0,0,0,0,0,0,0,0,0,0,0,
568,21.31,-0.3671,-4.548,-3.471,5.947,13.46,0.8051,-14.49,17,3.603,16.6,22.47,25.4,18.44,28.2,27.3,0,0,0,0,0,0,0,0,0,0,0,0,0,0,0,0,
569,20.09,2.262,-10.03,-8.373,0.7411,11.61,-0.7769,-15.77,11.63,2.521,12.43,16.64,20.29,17.06,25.85,22.06,0,0,0,0,0,0,0,0,0,0,0,0,0,0,0,0,
570,13.69,2.178,0.2134,-8.664,6.468,11.22,-4.306,-22.04,6.979,-4.598,6.976,10.36,8.292,4.904,17.48,11.02,0,0,0,0,0,0,0,0,0,0,0,0,0,0,0,0,
571,6.56,-5.755,13.03,-3.427,17.19,13.02,-4.317,-18.59,11.09,-8.333,14.91,13.35,3.937,2.741,20.1,6.463,0,0,0,0,0,0,0,0,0,0,0,0,0,0,0,0,
572,8.626,-11.5,7.18,-4.748,12.45,7.275,-8.858,-17.91,8.173,-9.858,14.05,9.936,3.501,6.951,21.41,7.399,0,0,0,0,0,0,0,0,0,0,0,0,0,0,0,0,
573,8.289,-13.29,6.249,-12.66,8.33,1.692,-9.32,-19.5,0.5831,-5.752,3.159,3.091,1.476,5.583,17.89,4.604,0,0,0,0,0,0,0,0,0,0,0,0,0,0,0,0,
574,3.668,-10.99,19.25,-10.96,16.06,8.023,3.182,-4.269,2.45,3.675,3.625,6.763,1.946,3.803,21.61,2.655,0,0,0,0,0,0,0,0,0,0,0,0,0,0,0,0,
575,9.104,-0.2966,28.17,-0.0563,21.71,18.92,13.44,12.77,6.262,10.47,8.111,10.03,4.491,1.722,21.99,5.27,0,0,0,0,0,0,0,0,0,0,0,0,0,0,0,0,
576,16.9,8.161,35.46,8.057,23.71,25.52,13.86,11.6,6.242,12.4,6.259,7.863,6.35,-1.41,16.13,3.862,0,0,0,0,0,0,0,0,0,0,0,0,0,0,0,0,
577,12.04,3.315,33.52,8.043,17.98,21.3,9.957,5.581,1.269,8.396,2.317,6.518,7.258,-0.1675,13.47,-0.7646,0,0,0,0,0,0,0,0,0,0,0,0,0,0,0,0,
578,2.181,-1.419,17.38,-4.968,3.254,11.22,7.615,8.377,-9.689,1.761,-3.756,1.579,5.898,0.0346,6.294,-1.71,0,0,0,0,0,0,0,0,0,0,0,0,0,0,0,0,
579,-3.568,0.6909,12.61,-16.94,-1.23,10.82,11.04,11.56,-15.03,-2.221,-7.615,-3.287,2.064,-4.479,-0.859,-1.963,0,0,0,0,0,0,0,0,0,0,0,0,0,0,0,0,
580,-4.834,0.3045,19.57,-3.282,0.9824,14.47,15.2,6.712,-10.86,-5.59,-1.55,2.452,3.206,-2.879,8.999,2.487,0,0,0,0,0,0,0,0,0,0,0,0,0,0,0,0,
581,1.155,5.695,23.48,16.41,-0.5801,13.35,17.23,1.715,-7.375,-5.928,6.548,10.17,14.12,4.634,20.67,13.7,0,0,0,0,0,0,0,0,0,0,0,0,0,0,0,0,
582,3.294,14.01,24.46,10.46,1.543,10.61,15.66,0.4804,-12.57,-4.811,1.029,7.431,23.2,6.685,14.65,18.31,0,0,0,0,0,0,0,0,0,0,0,0,0,0,0,0,
583,-8.495,5.766,10.87,-2.281,-4.33,2.384,6.912,-2.692,-23.2,-8.438,-9.895,4.567,24.84,10.65,9.57,21,0,0,0,0,0,0,0,0,0,0,0,0,0,0,0,0,
584,-12.2,-0.5942,-7.792,-2.394,-13.23,-2.726,2.328,-3.055,-21.8,-6.601,-4.614,10.18,26,20.42,17.04,27.84,0,0,0,0,0,0,0,0,0,0,0,0,0,0,0,0,
585,-3.462,4.699,-6.827,-8.74,-2.736,0.9868,3.34,-1.524,-10.16,-0.5244,4.009,8.537,21.4,17.15,16.35,21.65,0,0,0,0,0,0,0,0,0,0,0,0,0,0,0,0,
586,-7.082,-4.021,-0.4656,-17.8,1.005,-3.44,-2.277,-5.036,-9.873,-3.04,-1.937,-1.726,12.12,7.433,6.419,12.21,0,0,0,0,0,0,0,0,0,0,0,0,0,0,0,0,
587,-10.88,-9.525,3.011,-0.3557,-11.58,-8.111,-2.35,-0.2192,-14.53,0.5699,-4.474,-3.079,10.29,11.68,2.765,16.16,0,0,0,0,0,0,0,0,0,0,0,0,0,0,0,0,
588,-1.567,4.494,7.99,25.7,-9.258,-2.057,6.69,11.76,-11.82,12.01,0.1702,-2.397,6.752,12.14,-0.6944,10.97,0,0,0,0,0,0,0,0,0,0,0,0,0,0,0,0,
589,-2.823,3.354,-1.095,18.76,-6.011,-5.635,3.834,6.315,-9.404,7.339,-0.1686,-5.75,-1.572,1.144,-3.746,-1.788,0,0,0,0,0,0,0,0,0,0,0,0,0,0,0,0,
590,-9.169,-8.069,-15.63,-6.451,-17.7,-16.85,-7.42,-7.803,-6.011,-1.368,3.455,0.3181,1.431,2.31,4.378,4.118,0,0,0,0,0,0,0,0,0,0,0,0,0,0,0,0,
591,-2.568,-3.315,-18.16,-13.91,-19.4,-16.44,-11.48,-5.775,1.434,6.844,9.415,9.034,10.68,11.6,14.58,15.08,0,0,0,0,0,0,0,0,0,0,0,0,0,0,0,0,
592,3.387,-1.044,-16.15,-10.57,-11.34,-9.697,-10.5,2.902,6.871,14.3,9.59,10.47,12.99,12.56,17.28,13.81,0,0,0,0,0,0,0,0,0,0,0,0,0,0,0,0,
593,6.492,-5.602,-11.44,-12.05,-11.43,-7.989,-10.83,-0.1986,5.535,8.914,9.827,11.26,11.15,11.85,15.14,9.275,0,0,0,0,0,0,0,0,0,0,0,0,0,0,0,0,
594,10.3,-2.218,-11.47,-15.14,-13.3,-12.14,-13.87,-10.22,-3.362,5.329,6.915,10.43,12.31,15.46,11.29,8.582,0,0,0,0,0,0,0,0,0,0,0,0,0,0,0,0,
595,7.893,2.383,-19.57,-18.74,-5.089,-11.96,-13.65,-13.14,-7.461,9.487,3.061,9.566,17.89,19.19,8.863,10.78,0,0,0,0,0,0,0,0,0,0,0,0,0,0,0,0,
596,6.129,4.881,-17.48,-19.64,8.18,-4.698,-9.788,-7.826,-2.161,11.92,2.75,8.878,15,16.87,4.295,5.478,0,0,0,0,0,0,0,0,0,0,0,0,0,0,0,0,
597,3.188,3.068,-12.21,-14.66,13.51,-3.108,-11.5,-4.386,-1.41,10.1,-4.531,0.5967,2.03,8.479,-1.364,-7.233,0,0,0,0,0,0,0,0,0,0,0,0,0,0,0,0,
598,-3.533,-4.434,-12.02,-10.87,15.69,-0.7766,-13.01,-4.539,-1.585,9.678,-8.102,-1.934,-1.498,1.258,2.248,-9.924,0,0,0,0,0,0,0,0,0,0,0,0,0,0,0,0,
599,1.761,-3.364,-2.402,-7.211,23.28,10.54,-6.137,-2.732,3.929,9.675,1.922,7.463,0.4728,-3.51,5.808,-6.657,0,0,0,0,0,0,0,0,0,0,0,0,0,0,0,0,
600,10.74,4.101,4.071,0.0703,27.9,15.26,1.789,-0.5776,5.306,9.636,5.204,10.15,-1.014,-1.902,-0.794,-4.965,0,0,0,0,0,0,0,0,0,0,0,0,0,0,0,0,
601,12.83,8.849,2.087,1.974,29.45,16.94,9.511,0.6199,6.372,12.96,1.358,8.052,4.148,7.101,-6.351,1.677,0,0,0,0,0,0,0,0,0,0,0,0,0,0,0,0,
602,20.09,16.62,9.834,-3.545,29.07,25.09,15.58,2.448,10.26,12.35,0.8243,6.275,3.003,4.271,-12.72,-3.155,0,0,0,0,0,0,0,0,0,0,0,0,0,0,0,0,
603,17.3,13.71,10.8,-10.86,18.81,20.03,7.715,0.4918,6.218,3.496,-3.561,-3.434,-12.95,-9.957,-22.39,-21.51,0,0,0,0,0,0,0,0,0,0,0,0,0,0,0,0,
604,-2.1,-6.083,-3.048,-18.31,11.78,2.591,-6.084,-2.546,0.9114,-1.259,-4.095,-6.187,-15.54,-8.702,-18.34,-18.85,0,0,0,0,0,0,0,0,0,0,0,0,0,0,0,0,
605,-2.306,-9.558,-2.575,-18.91,19.77,0.6869,-3.344,3.356,5.576,4.166,5.409,5.405,-2.508,3.71,-7.404,-2.436,0,0,0,0,0,0,0,0,0,0,0,0,0,0,0,0,
606,11.85,3.708,7.674,-13.74,25.04,7.593,4.827,9.592,11.44,9.817,10.23,6.938,-1.405,4.588,-7.67,-5.292,0,0,0,0,0,0,0,0,0,0,0,0,0,0,0,0,
607,5.412,-1.46,1.439,-14.15,17.16,-0.6558,-5.534,3.665,9.826,8.736,8.231,-3.951,-10.39,-0.6252,-8.721,-10.57,0,0,0,0,0,0,0,0,0,0,0,0,0,0,0,0,
608,-5.611,-12.62,-9.856,-10.41,9.763,-8.983,-15.91,-1.92,6.07,7.488,5.411,-6.468,-10.12,0.3956,-5.387,-0.1838,0,0,0,0,0,0,0,0,0,0,0,0,0,0,0,0,
609,-0.6712,-5.397,-6.794,4.573,10.43,0.5445,-6.565,1.147,4.786,9.603,1.011,-1.7,-5.381,1.723,-5.087,2.469,0,0,0,0,0,0,0,0,0,0,0,0,0,0,0,0,
610,1.264,-2.463,-3.83,6.559,7.795,4.854,-1.88,-0.6148,-0.0688,6.225,-2.089,-0.844,-9.146,-2.331,-0.254,-5.885,0,0,0,0,0,0,0,0,0,0,0,0,0,0,0,0,
611,-3.023,-11.19,-11.12,-6.879,1.757,-4.079,-8.113,-3.878,-7.421,-0.082,-2.825,0.073,-10.33,-4.806,10.2,-2.335,0,0,0,0,0,0,0,0,0,0,0,0,0,0,0,0,
612,1.498,-8.549,-5.055,-3.976,4.618,-0.5001,-1.427,6.617,-6.812,1.421,-2.775,4.76,0.4893,-1.109,12.92,6.953,0,0,0,0,0,0,0,0,0,0,0,0,0,0,0,0,
613,6.022,-1.289,10.98,15.2,3.154,9.046,8.216,16.87,-6.176,3.639,-4.048,4.615,7.05,2.644,4.116,7.109,0,0,0,0,0,0,0,0,0,0,0,0,0,0,0,0,
614,2.611,-2.03,3.83,21.82,-6.302,5.084,4.967,9.843,-13.02,0.5929,-9.884,-0.5433,5.322,2.784,-6.083,7.756,0,0,0,0,0,0,0,0,0,0,0,0,0,0,0,0,
615,3.741,0.6659,-8.732,14.94,0.6393,4.756,4.243,-0.9537,-10.14,-2.447,-11.15,1.914,8.518,2.359,-3.997,10.86,0,0,0,0,0,0,0,0,0,0,0,0,0,0,0,0,
616,9.219,5.732,-1.097,11.38,8.37,12.09,7.582,-3.603,-1.242,-6.675,-3.764,7.558,11.48,1.934,3.33,7.23,0,0,0,0,0,0,0,0,0,0,0,0,0,0,0,0,
617,7.192,3.537,-2.446,9.039,-5.06,7.777,4.598,-1.573,-8.945,-8.654,-4.446,1.257,6.883,1.54,-2.638,4.452,0,0,0,0,0,0,0,0,0,0,0,0,0,0,0,0,
618,1.875,0.9595,-15.35,5.193,-11.34,1.812,4.382,4.056,-17.34,-2.801,-11.33,-6.578,4.83,3.263,-10.4,6.605,0,0,0,0,0,0,0,0,0,0,0,0,0,0,0,0,
619,1.053,1.863,-9.33,9.334,-4.459,4.154,6.355,3.619,-10.48,-0.1784,-9.767,-4.096,5.125,2.02,-10.87,0.5832,0,0,0,0,0,0,0,0,0,0,0,0,0,0,0,0,
620,-1.233,-1.787,-0.5858,11.8,-5.532,-0.9351,0.6342,-7.219,-9.703,-4.671,-9.404,-4.654,-1.512,-4.408,-18.67,-9.159,0,0,0,0,0,0,0,0,0,0,0,0,0,0,0,0,
621,-6.393,-6.524,-6.547,2.134,-3.287,-7.218,0.0648,-6.124,-13.14,-1.999,-10.42,-7.331,-3.313,-2.794,-19.77,-4.51,0,0,0,0,0,0,0,0,0,0,0,0,0,0,0,0,
622,-4.457,-1.125,-6.848,1.244,6.441,-1.301,7.723,6.843,-4.339,6.196,-1.563,-1.249,5.023,4.365,-5.224,2.372,0,0,0,0,0,0,0,0,0,0,0,0,0,0,0,0,
623,2.483,3.611,2.489,12.23,8.993,3.451,6.958,9.522,1.855,7.266,4.123,2.393,4.802,0.5201,-1.59,-3.041,0,0,0,0,0,0,0,0,0,0,0,0,0,0,0,0,
624,6.615,-0.2814,11.73,16.71,13.01,7.017,7.451,17.22,5.578,10.39,6.061,5.317,3.215,0.3361,0.8211,1.091,0,0,0,0,0,0,0,0,0,0,0,0,0,0,0,0,
625,11.53,4.659,16.39,21.99,19.55,13.31,14.41,32.87,16.52,19.47,15.21,13.2,11.44,12.58,14.86,14.88,0,0,0,0,0,0,0,0,0,0,0,0,0,0,0,0,
626,8.894,6.884,6.912,22.65,6.963,0.6889,1.059,19.23,10.47,13.69,11.46,1.935,1.842,9.039,6.055,8.176,0,0,0,0,0,0,0,0,0,0,0,0,0,0,0,0,
627,-11.79,-16.36,-10.01,-1.315,-18.5,-24.31,-24.84,-12.14,-12.96,-5.361,-10.25,-24.75,-21.47,-9.279,-20.25,-8.354,0,0,0,0,0,0,0,0,0,0,0,0,0,0,0,0,
628,-29.87,-34.57,-19.53,-24.18,-31.69,-32.63,-30.9,-21.51,-21.48,-15.27,-23.3,-33.89,-23.55,-16.06,-26.68,-13.15,0,0,0,0,0,0,0,0,0,0,0,0,0,0,0,0,
629,-29.46,-27.75,-22.91,-17.9,-31.47,-27.8,-21.88,-14.84,-15.41,-14.41,-22.84,-28.27,-18.6,-13.52,-24.3,-15.15,0,0,0,0,0,0,0,0,0,0,0,0,0,0,0,0,
630,-21.21,-22.13,-19.9,-3.526,-23.99,-17.61,-11.78,-6.811,-8.84,-9.687,-18.15,-21.23,-23.94,-10.51,-28.14,-14.51,0,0,0,0,0,0,0,0,0,0,0,0,0,0,0,0,
631,-11.92,-24.43,-12.96,-2.328,-13.03,-5.836,-6.956,-3.653,-2.591,-7.265,-11.88,-13.11,-22.73,-9.594,-27.87,-10.92,0,0,0,0,0,0,0,0,0,0,0,0,0,0,0,0,
632,-6.242,-24.91,-6.419,-0.4665,-11.77,-6.146,-10.42,-7.262,-0.041,-10.3,-8.65,-10.28,-15.8,-11.14,-21.78,-12.85,0,0,0,0,0,0,0,0,0,0,0,0,0,0,0,0,
633,-5.091,-21.04,6.981,12.49,-14.94,-6.658,-4.874,-0.3679,2.155,-6.943,-6.867,-8.807,-11.54,-7.832,-13.13,-11.29,0,0,0,0,0,0,0,0,0,0,0,0,0,0,0,0,
634,1.503,-10.37,16.79,16,-4.842,4.695,8.592,11.91,7.575,0.4915,-4.103,-3.007,-4.824,-5.617,-6.48,-5.665,0,0,0,0,0,0,0,0,0,0,0,0,0,0,0,0,
635,6.675,-4.706,10.82,7.296,3.37,5.268,6.06,8.829,6.206,-3.365,-5.383,-3.228,-1.13,-9.885,-5.105,-8.201,0,0,0,0,0,0,0,0,0,0,0,0,0,0,0,0,
636,-1.884,-11.47,3.066,7.108,-5.853,-8.441,-3.442,0.9632,-3.662,-11.38,-10.18,-10.38,-6.831,-9.898,-6.082,-14.34,0,0,0,0,0,0,0,0,0,0,0,0,0,0,0,0,
637,-10.67,-13.87,-3.024,6.598,-10.02,-11.52,-2.484,-4.282,-9.064,-14.1,-11.95,-13.32,-9.886,-7.023,-9.916,-15.25,0,0,0,0,0,0,0,0,0,0,0,0,0,0,0,0,
638,-6.853,-4.032,-1.062,5.005,-0.6159,-1.683,2.047,-10.26,-5.069,-13.17,-7.543,-8.015,-2.181,-5.688,-9.57,-9.07,0,0,0,0,0,0,0,0,0,0,0,0,0,0,0,0,
639,-0.9368,2.817,19.43,15.68,0.5241,5.47,5.319,-8.681,-2.24,-8.891,-0.5189,0.3219,3.077,-3.809,0.1712,-2.28,0,0,0,0,0,0,0,0,0,0,0,0,0,0,0,0,
640,-0.1878,-0.7382,26.88,19,-2.014,9.597,10.15,-0.3739,-2.523,-4.531,5.962,6.917,2.859,-1.813,7.206,-0.0472,0,0,0,0,0,0,0,0,0,0,0,0,0,0,0,0,
641,5.528,2.918,13.43,20.92,9.284,16.66,16.65,9.051,4.32,-0.7093,11.49,11.61,9.18,5.788,10.65,6.15,0,0,0,0,0,0,0,0,0,0,0,0,0,0,0,0,
642,12.73,14.96,13.75,30.48,14.71,15.65,16.58,10.77,8.681,-2.28,9.148,7.469,9.519,8.928,13.33,8.25,0,0,0,0,0,0,0,0,0,0,0,0,0,0,0,0,
643,5.121,10.65,16.54,9.68,4.326,5.145,10.41,-0.1879,2.163,-13.45,1.904,-2.478,-2.34,-3.264,7.332,-4.202,0,0,0,0,0,0,0,0,0,0,0,0,0,0,0,0,
644,-1.681,2.4,6.147,-15.23,4.594,7.123,17.63,-0.3581,3.357,-14.05,4.832,1.13,-1.88,-6.592,2.95,-9.035,0,0,0,0,0,0,0,0,0,0,0,0,0,0,0,0,
645,7.564,11.32,4.027,0.1179,11.46,14.9,28.33,11.69,9.471,-0.2367,9.652,5.357,4.915,1.25,5.394,-4.077,0,0,0,0,0,0,0,0,0,0,0,0,0,0,0,0,
646,5.432,11.93,7.444,7.956,1.851,4.77,17.25,11.26,0.4933,2.611,1.748,-10.7,-1.397,-3.747,-3.047,-8.912,0,0,0,0,0,0,0,0,0,0,0,0,0,0,0,0,
647,-13.09,-0.0445,5.295,-3.037,-12.67,-9.478,4.485,10.32,-13.78,-2.833,-9.916,-22.56,-5.687,-9.488,-17.37,-13.14,0,0,0,0,0,0,0,0,0,0,0,0,0,0,0,0,
648,-19.21,-0.686,-0.1415,2.948,-21.09,-14.26,4.876,13.64,-22,-3.767,-18.62,-18.71,-6.317,-5.731,-22.29,-13.28,0,0,0,0,0,0,0,0,0,0,0,0,0,0,0,0,
649,-17.13,-0.1055,-11.12,2.325,-25.52,-19.1,0.6241,4.702,-26.31,-7.244,-23.06,-18.19,-12.96,-4.542,-22.48,-17.74,0,0,0,0,0,0,0,0,0,0,0,0,0,0,0,0,
650,-18,-3.696,-13.05,-6.922,-20.02,-18.98,-0.9954,2.374,-21.14,-5.5,-16.24,-12.34,-7.494,1.154,-17.54,-10.82,0,0,0,0,0,0,0,0,0,0,0,0,0,0,0,0,
651,-8.844,4.565,1.097,1.392,-11.24,-8.409,11.3,14.46,-10.45,6.354,-6.642,2.616,8.29,10.22,-10.35,1.405,0,0,0,0,0,0,0,0,0,0,0,0,0,0,0,0,
652,3.331,16.26,8.071,2.642,-10.53,0.4465,20.36,16.23,-7.308,7.162,-8.01,2.755,8.039,5.071,-14.77,-5.614,0,0,0,0,0,0,0,0,0,0,0,0,0,0,0,0,
653,0.0141,15.96,1.705,-7.625,-15.54,-0.207,16.84,7.059,-10.06,-2.563,-11.14,-5.263,1.335,-3.482,-18.27,-12.59,0,0,0,0,0,0,0,0,0,0,0,0,0,0,0,0,
654,-8.379,8.539,-5.415,-5.656,-22.35,-7.056,6.485,-2.866,-11.19,-3.72,-4.804,-2.311,6.7,-0.0873,-6.568,-1.297,0,0,0,0,0,0,0,0,0,0,0,0,0,0,0,0,
655,-9.721,1.598,-10.96,-11.33,-25.13,-13.21,-5.978,-13.09,-10.95,-5.586,0.5086,-3.2,5.17,-0.4452,-0.8981,2.515,0,0,0,0,0,0,0,0,0,0,0,0,0,0,0,0,
656,-12.86,-4.84,-14.17,-29.44,-22.39,-15.97,-12.98,-18.25,-10.07,-15.5,-0.7594,-10.75,-9.602,-11.2,-5.988,-6.931,0,0,0,0,0,0,0,0,0,0,0,0,0,0,0,0,
657,-15.47,-7.681,-14.58,-31.35,-20.87,-16.41,-11.35,-19.99,-5.053,-15.76,3.264,-5.098,-11.71,-11.74,0.6401,-5.847,0,0,0,0,0,0,0,0,0,0,0,0,0,0,0,0,T2
658,-8.508,-3.185,-18.53,-29.96,-18.93,-14.82,-11.91,-24.01,0.66,-8.912,8.683,1.799,-5.63,-1.904,8.651,1.115,0,0,0,0,0,0,0,0,0,0,0,0,0,0,0,0,
659,-6.444,-0.6668,-25.24,-39.57,-14.83,-14.43,-18.54,-22.51,1.076,-6.753,5.446,-6.002,-10.91,0.0404,1.536,-1.21,0,0,0,0,0,0,0,0,0,0,0,0,0,0,0,0,
660,-13.63,-3.367,-21.22,-35.22,-13.95,-14.09,-17.39,-11.18,1.04,0.4648,3.75,-10.83,-12.73,-1.01,-3.627,-5.011,0,0,0,0,0,0,0,0,0,0,0,0,0,0,0,0,
661,-14.56,-2.367,-7.904,-23.41,-14.8,-11.59,-11.33,-5.369,-0.5336,5.334,1.434,-11.95,-8.607,-0.6744,-5.857,-7.433,0,0,0,0,0,0,0,0,0,0,0,0,0,0,0,0,
662,-16.23,-5.423,-4.674,-25.89,-12.57,-13.7,-15.77,-11.09,-7.442,-4.523,-10.04,-22.46,-16.49,-8.979,-16.1,-13.81,0,0,0,0,0,0,0,0,0,0,0,0,0,0,0,0,
663,-22.26,-15.27,-11.32,-20.86,-8.255,-15.57,-18.49,-8.905,-7.093,-8.765,-12.44,-25.38,-23.07,-15.97,-18.19,-17.37,0,0,0,0,0,0,0,0,0,0,0,0,0,0,0,0,
664,-17.19,-14.73,-13.43,-2.843,-7.375,-9.275,-12.13,1.543,-2.182,-3.772,-5.197,-16.65,-16.31,-11.1,-12.08,-13.93,0,0,0,0,0,0,0,0,0,0,0,0,0,0,0,0,
665,-12.66,-9.201,-9.166,-0.7541,-11.12,-8.469,-14.6,-1.046,-10.36,-7.659,-9.556,-16.7,-12.18,-7.815,-13.9,-9.64,0,0,0,0,0,0,0,0,0,0,0,0,0,0,0,0,
666,-20.87,-13.99,-6.003,-10.79,-12.58,-15.75,-20.86,-10.02,-22.73,-14.72,-16.33,-20.39,-16.02,-13.38,-13.63,-10.01,0,0,0,0,0,0,0,0,0,0,0,0,0,0,0,0,
667,-26.23,-21.63,-15.31,-13.45,-14.12,-17.82,-19.71,-14.2,-29.11,-21.85,-16.8,-19.44,-21.65,-19.57,-9.281,-14.09,0,0,0,0,0,0,0,0,0,0,0,0,0,0,0,0,
668,-27.46,-23.93,-29.48,-17.7,-23.6,-18.92,-23.21,-21.3,-34.92,-31.04,-20.62,-19.12,-20.81,-17.31,-8.785,-10.77,0,0,0,0,0,0,0,0,0,0,0,0,0,0,0,0,
669,-25.03,-17.39,-26.55,-27.31,-26.99,-18.47,-24.2,-20.42,-29.17,-25.09,-13.25,-6.333,-4.347,-4.971,1.661,4.779,0,0,0,0,0,0,0,0,0,0,0,0,0,0,0,0,
670,-6.953,-1.139,-15.43,-25.64,-12.43,-8.083,-9.757,-6.908,-9.862,-9.29,9.94,15.59,12.01,4.986,15.57,15.47,0,0,0,0,0,0,0,0,0,0,0,0,0,0,0,0,
671,9.036,10.78,-10.77,-14.99,0.6394,-3.972,-0.3682,-3.171,-2.026,-5.523,18.9,16.24,9.989,4.689,9.973,11.16,0,0,0,0,0,0,0,0,0,0,0,0,0,0,0,0,
672,3.689,9.457,-5.374,-10.7,1.877,-12.7,-4.037,-4.015,-6.431,-5.34,13.3,4.017,4.599,2.505,-0.7124,5.457,0,0,0,0,0,0,0,0,0,0,0,0,0,0,0,0,
673,-6.07,1.266,-6.145,-8.604,1.641,-17.53,-4.34,3.108,-4.973,-3.732,13.27,1.039,3.439,0.7181,-1.263,3.188,0,0,0,0,0,0,0,0,0,0,0,0,0,0,0,0,
674,-11.14,-7.245,-16.86,-7.462,-2.976,-20.83,-4.5,-0.2987,-2.653,-9.906,11.08,-5.601,-3.925,-2.701,-4.171,-1.849,0,0,0,0,0,0,0,0,0,0,0,0,0,0,0,0,
675,-14.05,-6.736,-18.36,-13.3,-7.697,-23.19,-7.932,-8.347,-2.134,-10.14,7.756,-13.53,-7.167,-1.899,-10.17,-3.105,0,0,0,0,0,0,0,0,0,0,0,0,0,0,0,0,
676,-9.146,1.693,-11.77,-10.57,-3.988,-15.86,-6.04,-0.2568,1.296,-0.3202,10.89,-10.79,-3.681,-0.3052,-13.73,-2.592,0,0,0,0,0,0,0,0,0,0,0,0,0,0,0,0,
677,-9.181,1.637,-8.774,3.341,-9.319,-15.63,-6.704,6.63,-4.011,1.819,3.081,-16.21,-10.62,-4.079,-19.26,-10.16,0,0,0,0,0,0,0,0,0,0,0,0,0,0,0,0,
678,-19.88,-2.822,-3.513,5.095,-18.5,-21.37,-10.13,4.868,-13.51,3.041,-10.6,-27.54,-16.87,-2.801,-21.65,-11.65,0,0,0,0,0,0,0,0,0,0,0,0,0,0,0,0,
679,-16.83,0.9745,-0.5752,0.0342,-8.258,-8.771,-2.917,9.97,-9.528,12.4,-8.015,-23.07,-7.376,7.631,-17.63,-1.732,0,0,0,0,0,0,0,0,0,0,0,0,0,0,0,0,
680,-4.286,3.99,-4.641,5.46,1.643,4.883,5.09,12.89,-3.924,16.88,-4.418,-18.22,0.9083,13.16,-19.26,-1.871,0,0,0,0,0,0,0,0,0,0,0,0,0,0,0,0,
681,-8.255,2.836,0.1694,7.557,-3.979,1.232,4.207,8.051,-9.303,16.31,-14.69,-28.88,-3.029,7.57,-30.29,-12.63,0,0,0,0,0,0,0,0,0,0,0,0,0,0,0,0,
682,-20.36,1.308,9.094,0.6353,-10.56,-2.214,2.579,8.223,-18.44,15.03,-25.44,-40.82,-12.91,-1.075,-41.52,-19.59,0,0,0,0,0,0,0,0,0,0,0,0,0,0,0,0,
683,-25.31,-5.627,5.35,2.267,-17.22,-4.216,-1.001,8.958,-27.18,8.913,-27.61,-43.19,-21.7,-5.712,-46.14,-23.33,0,0,0,0,0,0,0,0,0,0,0,0,0,0,0,0,
684,-25.6,-10.92,2.191,9.358,-21.05,-11.17,-7.384,4.327,-27.97,5.9,-21.28,-38.51,-22.69,-6.914,-40.64,-22.21,0,0,0,0,0,0,0,0,0,0,0,0,0,0,0,0,
685,-22.2,-8.682,4.893,5.743,-17,-12.1,-8.786,2.088,-16.14,8.676,-11.63,-31.29,-19.3,-7.064,-28.48,-13.44,0,0,0,0,0,0,0,0,0,0,0,0,0,0,0,0,
686,-16.11,-8.182,0.2408,-1.053,-12.03,-6.708,-7.026,1.409,-5.361,6.829,-5.281,-21.79,-16.66,-4.476,-19.93,-6.052,0,0,0,0,0,0,0,0,0,0,0,0,0,0,0,0,
687,-11.06,-8.992,-5.66,1.693,-7.649,-6.705,-9.46,-3.879,-5.901,1.352,-2.425,-13.61,-11.71,-0.8287,-15.13,-3.892,0,0,0,0,0,0,0,0,0,0,0,0,0,0,0,0,
688,-10.35,-8.62,-9.53,4.833,-10.48,-15.28,-16.12,-12.28,-10.92,-3.973,-4.96,-14.8,-6.714,-1.615,-8.988,-2.065,0,0,0,0,0,0,0,0,0,0,0,0,0,0,0,0,
689,-13.72,-9.597,-13.54,-0.3274,-17.05,-20.05,-19.21,-20.56,-9.026,-12,-10.56,-18.28,-4.344,-4.401,-7.774,-0.5557,0,0,0,0,0,0,0,0,0,0,0,0,0,0,0,0,
690,-12.55,-7.915,-7.469,-3.669,-10.31,-10.52,-15.63,-23.98,-1.998,-19.09,-11.04,-16.05,-2.672,-3.904,-12.89,-1.027,0,0,0,0,0,0,0,0,0,0,0,0,0,0,0,0,
691,-6.672,-5.329,-3.955,-2.012,-6.486,-0.5648,-11.37,-17.76,-0.3066,-19.89,-6.938,-13.32,-0.4479,-0.4248,-13.58,-1.459,0,0,0,0,0,0,0,0,0,0,0,0,0,0,0,0,
692,-3.012,-3.731,-12.73,-7.37,-15.06,0.1861,-6.673,-11.59,0.911,-17.74,0.6813,-5.323,6.215,6.599,-5.779,1.893,0,0,0,0,0,0,0,0,0,0,0,0,0,0,0,0,
693,4.995,3.104,-7.186,-13.22,-10.81,3.933,-0.7916,-13.33,9.578,-14.92,12.84,11.12,15.91,17.38,8.673,10.94,0,0,0,0,0,0,0,0,0,0,0,0,0,0,0,0,
694,18.18,11.85,8.653,-4.678,-0.1093,10.17,1.791,-8.432,17.17,-7.305,23.77,22.22,22.26,23.92,22.08,16.92,0,0,0,0,0,0,0,0,0,0,0,0,0,0,0,0,
695,21.88,14.75,6.588,2.467,-3.219,8.721,2.264,0.9662,17.29,-0.8261,27.94,20.86,23.68,20.66,22.65,11.98,0,0,0,0,0,0,0,0,0,0,0,0,0,0,0,0,
696,15.08,12.42,2.821,1.92,-7.311,6.483,3.152,-1.268,14.77,-2.572,24.42,13.31,20.07,17.16,18.08,9.053,0,0,0,0,0,0,0,0,0,0,0,0,0,0,0,0,
697,10.48,10.88,14.9,16.06,-1.258,10.88,6.076,1.337,14.98,-0.4487,18.72,9.807,16.46,19.2,17.79,14.01,0,0,0,0,0,0,0,0,0,0,0,0,0,0,0,0,
698,11.81,13.77,24.07,26.82,7.633,14.23,11.5,12.52,16.53,6.839,18.54,12.96,17.77,17.48,14.02,13.53,0,0,0,0,0,0,0,0,0,0,0,0,0,0,0,0,
699,14.05,12.51,19.31,7.529,7.446,12.07,11.84,7.258,13.24,3.142,19.34,13.38,18.15,13.14,13.81,12.56,0,0,0,0,0,0,0,0,0,0,0,0,0,0,0,0,
700,12.87,2.567,8.092,-6.749,-4.301,9.776,6.777,-3.982,6.025,-4.586,13.28,9.722,15.27,14.64,20.49,17.6,0,0,0,0,0,0,0,0,0,0,0,0,0,0,0,0,
701,8.081,-2.539,0.2125,0.0231,-12.45,5.588,3.871,-4.106,0.9959,-3.67,4.771,7.363,12.05,13.05,12.9,12.38,0,0,0,0,0,0,0,0,0,0,0,0,0,0,0,0,
702,3.315,-1.15,0.9875,-5.569,-11.95,-3.423,-1.26,-6.218,-0.9166,-4.997,-0.92,2.26,4.056,0.8976,-3.76,-1.769,0,0,0,0,0,0,0,0,0,0,0,0,0,0,0,0,
703,0.7095,-7.968,5.095,-16.29,-10.57,-5.041,-6.804,-9.465,-0.3119,-11.83,-4.455,-5.332,-8.062,-10.16,-10.57,-7.426,0,0,0,0,0,0,0,0,0,0,0,0,0,0,0,0,
704,1.608,-16.3,13.47,-8.249,-2.924,7.665,2.47,-3.076,2.399,-10.87,-3.971,-6.851,-12.42,-10.28,-15.77,-8.294,0,0,0,0,0,0,0,0,0,0,0,0,0,0,0,0,
705,7.035,-11.09,25.37,-2.184,7.979,18.71,18.01,5.187,3.157,-3.228,-1.901,-3.446,-7.3,-5.504,-17.46,-11.45,0,0,0,0,0,0,0,0,0,0,0,0,0,0,0,0,
706,10.26,-4.127,22.05,-8.255,7.925,16.29,19.28,8.215,0.9476,0.2959,-2.943,-1.765,-3.528,-4.737,-6.507,-9.822,0,0,0,0,0,0,0,0,0,0,0,0,0,0,0,0,
707,9.584,-1.358,13.15,-4.613,8.363,15.12,19.35,12.5,6.666,4.848,1.798,1.728,-0.508,-5.119,4.349,-2.897,0,0,0,0,0,0,0,0,0,0,0,0,0,0,0,0,
708,16.04,11.84,25.26,5.778,20.87,26.82,32.99,19.91,22.38,14.62,12.54,10.11,8.393,-0.9511,12.21,-0.6604,0,0,0,0,0,0,0,0,0,0,0,0,0,0,0,0,
709,26.09,27.06,38.53,6.104,27.6,36.24,42.78,23.02,27.23,18.86,13.92,15.5,15.79,5.556,21.34,-1.302,0,0,0,0,0,0,0,0,0,0,0,0,0,0,0,0,
710,28.12,30.37,37.63,7.551,21.24,35.42,43.65,26.85,17.61,18.4,10.87,15.82,14.99,8.417,19.69,3.394,0,0,0,0,0,0,0,0,0,0,0,0,0,0,0,0,
711,26.97,29.64,39.5,13.2,14.01,32.88,44.46,33.81,11.7,17.76,10.09,15.15,10.8,3.727,8.827,7.113,0,0,0,0,0,0,0,0,0,0,0,0,0,0,0,0,
712,22.55,23.62,35.12,9.639,8.354,25.83,36.05,28.27,7.557,10.82,2.275,11.34,9.055,0.1893,4.399,6.918,0,0,0,0,0,0,0,0,0,0,0,0,0,0,0,0,
713,12.68,15.52,20.52,11.03,3.823,17.34,23.89,15.68,1.067,6.997,-3.297,8.782,12.57,6.706,4.484,10.07,0,0,0,0,0,0,0,0,0,0,0,0,0,0,0,0,
714,12.33,20.6,18.64,19.47,3.299,20.97,26.31,13.04,1.639,12.98,1.827,14.42,17.24,12.77,1.627,13.74,0,0,0,0,0,0,0,0,0,0,0,0,0,0,0,0,
715,21.97,27.77,27.34,10.51,5.103,28.7,33.9,16.14,4.338,15.29,5.129,19.09,18.13,13.5,-2.4,13.72,0,0,0,0,0,0,0,0,0,0,0,0,0,0,0,0,
716,21.64,25.02,30.57,-1.568,4.024,25.38,30.11,17.84,0.279,14.2,2.634,12.09,14.75,13.17,-7.407,9.429,0,0,0,0,0,0,0,0,0,0,0,0,0,0,0,0,
717,8.89,21.02,19.84,-2.83,-4.902,13.52,16.48,9.256,-6.04,13.47,-4.123,1.246,6.118,7.562,-10.8,3.042,0,0,0,0,0,0,0,0,0,0,0,0,0,0,0,0,
718,1.563,15.95,2.449,-10.08,-11.72,7.134,8.378,-3.605,-4.972,7.782,-6.678,2.245,1.421,4.44,-5.93,5.08,0,0,0,0,0,0,0,0,0,0,0,0,0,0,0,0,
719,8.07,10.08,6.961,-10.62,-4.715,13.7,13.62,1.379,5.163,2.185,4.833,10.65,5.939,8.655,0.6072,10.47,0,0,0,0,0,0,0,0,0,0,0,0,0,0,0,0,
720,12.4,5.935,24.09,-0.1622,4.219,17.56,13.4,4.035,9.615,-3.863,11.88,7.726,2.37,4.359,-1.232,5.77,0,0,0,0,0,0,0,0,0,0,0,0,0,0,0,0,
721,2.553,-3.95,17.95,-2.102,9.622,7.983,1.327,-15.63,6.734,-13.39,8.91,-1.311,-9.242,-3.868,-1.395,0.7844,0,0,0,0,0,0,0,0,0,0,0,0,0,0,0,0,
722,-6.976,-15.38,-0.7167,-6.213,16.42,-1.024,-4.893,-26.8,10.14,-16.01,15.21,-2.166,-10.51,-2.438,6.27,1.202,0,0,0,0,0,0,0,0,0,0,0,0,0,0,0,0,
723,-9.988,-18.48,-13.74,-9.877,12.67,-8.279,-10.11,-23.16,8.198,-13.06,16.77,-6.404,-11.27,-1.617,2.102,-5.992,0,0,0,0,0,0,0,0,0,0,0,0,0,0,0,0,
724,-18.8,-18.85,-22.79,-27.49,4.134,-19.47,-19.65,-21.85,-4.506,-11.63,2.424,-19.46,-19.73,-3.391,-14.77,-18.82,0,0,0,0,0,0,0,0,0,0,0,0,0,0,0,0,
725,-28.32,-19.41,-19.82,-31.07,10.82,-22.03,-17.16,-13.84,-5.556,-6.215,-2.242,-23.23,-16.58,1.59,-14.58,-19.78,0,0,0,0,0,0,0,0,0,0,0,0,0,0,0,0,
726,-28.66,-18.07,-12.27,-14.03,16.28,-19.44,-11.38,-6.315,-1.361,-1.863,0.6758,-19.19,-7.6,4.375,-2.829,-11.79,0,0,0,0,0,0,0,0,0,0,0,0,0,0,0,0,
727,-31.9,-24.16,-15.86,-19.12,4.985,-27.61,-20.74,-15.27,-9.713,-7.604,-8.85,-22.93,-12.24,-0.6315,-6.838,-11.7,0,0,0,0,0,0,0,0,0,0,0,0,0,0,0,0,
728,-37.68,-33.2,-21.57,-40.79,-2.599,-33.47,-27.01,-20.61,-12.06,-9.659,-13.73,-22.55,-11.49,1.175,-9.238,-8.828,0,0,0,0,0,0,0,0,0,0,0,0,0,0,0,0,
729,-28.44,-25.09,-23.14,-42.37,0.6869,-26.33,-18.08,-12.41,-2.964,-1.406,-4.684,-12.52,-1.283,6.301,0.0205,0.8196,0,0,0,0,0,0,0,0,0,0,0,0,0,0,0,0,
730,-21.3,-17.92,-26.94,-42.5,-2.818,-26.9,-18.81,-15.12,-6.435,-3.803,-5.945,-15.44,-12.03,-4.282,-3.973,-8.669,0,0,0,0,0,0,0,0,0,0,0,0,0,0,0,0,
731,-33.21,-31.89,-28.79,-56.7,-12.57,-36.56,-30.93,-26.73,-16.1,-16.07,-14.78,-21.76,-26.29,-14.43,-7.692,-19.69,0,0,0,0,0,0,0,0,0,0,0,0,0,0,0,0,
732,-32.44,-32.84,-20.9,-50.61,-13.66,-32.07,-26.88,-20.34,-10.81,-13.65,-8.875,-9.706,-14.98,-5.406,5.633,-6.697,0,0,0,0,0,0,0,0,0,0,0,0,0,0,0,0,
733,-17.08,-17.53,-13.45,-31.86,-8.943,-23.2,-17.08,-7.739,-3.242,-5.79,0.4801,-2.186,-7.437,2.092,8.394,-2.947,0,0,0,0,0,0,0,0,0,0,0,0,0,0,0,0,
734,-20.2,-23.05,-17.97,-32.01,-6.253,-27.52,-22.02,-9.895,-4.774,-9.754,1.1,-7.278,-16.23,0.2151,-0.1756,-12.6,0,0,0,0,0,0,0,0,0,0,0,0,0,0,0,0,
735,-24,-29.15,-19.13,-23.96,-2.421,-26.43,-22.39,-11.68,-3.236,-11.9,4.176,-5.543,-19.98,-1.595,-0.6164,-9.513,0,0,0,0,0,0,0,0,0,0,0,0,0,0,0,0,
736,-14.61,-16.69,-10.15,-8.868,-1.037,-16.95,-14.75,-8.87,0.3609,-9.502,7.574,-7.169,-22.17,-8.59,-2.337,-9.489,0,0,0,0,0,0,0,0,0,0,0,0,0,0,0,0,
737,-18.84,-15.09,-11.57,-21.3,-7.945,-22.37,-19.59,-11.93,-2.82,-11.52,2.875,-16.98,-23.16,-12.28,-7.389,-15.9,0,0,0,0,0,0,0,0,0,0,0,0,0,0,0,0,
738,-27.34,-19.57,-19.4,-28.26,-15.53,-32.6,-25.82,-9.975,-5.856,-10.38,-2.604,-19.24,-15.96,-4.243,-9.234,-13.31,0,0,0,0,0,0,0,0,0,0,0,0,0,0,0,0,
739,-21.99,-13.29,-18.12,-17.86,-16.14,-28.98,-20.92,-3.803,-4.401,-7.399,-2.729,-18.44,-14.16,-0.6555,-12.53,-12.45,0,0,0,0,0,0,0,0,0,0,0,0,0,0,0,0,
740,-21.48,-14.32,-20.34,-27.23,-12.28,-29.17,-23.23,-10.85,-7.706,-14.05,-4.274,-23.65,-23.7,-8.187,-15.39,-19.74,0,0,0,0,0,0,0,0,0,0,0,0,0,0,0,0,
741,-32.76,-27.75,-28.46,-34.82,-14.18,-41.58,-38.21,-26.55,-19.06,-24.22,-14.1,-31.22,-34.33,-17.3,-14.81,-26.48,0,0,0,0,0,0,0,0,0,0,0,0,0,0,0,0,
742,-41.29,-38.31,-29.05,-28.61,-23.46,-44.54,-45.59,-35.81,-25.3,-24.01,-20.54,-31.58,-34.58,-17.45,-10.88,-21.31,0,0,0,0,0,0,0,0,0,0,0,0,0,0,0,0,
743,-39.15,-38.98,-30.29,-40.64,-23.41,-37.18,-41.4,-35.6,-21.93,-16.63,-15.08,-23.07,-26.33,-11.76,-6.828,-8.16,0,0,0,0,0,0,0,0,0,0,0,0,0,0,0,0,
744,-35.3,-36.51,-42.61,-54.74,-16.27,-39.16,-42.17,-31.71,-23.74,-16.35,-16.13,-21.3,-26.53,-15.68,-10.11,-9.643,0,0,0,0,0,0,0,0,0,0,0,0,0,0,0,0,
745,-37.84,-35.42,-50.22,-49.96,-20.3,-43.87,-42.93,-27.21,-28.45,-18.61,-24.61,-21.56,-27.19,-17.6,-9.96,-11.95,0,0,0,0,0,0,0,0,0,0,0,0,0,0,0,0,
746,-31.14,-23.52,-36.76,-37.84,-18.87,-35.24,-28.72,-19.51,-21.89,-11.18,-19.09,-7.474,-12.22,-2.874,-0.2331,6.731,0,0,0,0,0,0,0,0,0,0,0,0,0,0,0,0,
747,-15.15,-7.692,-19.5,-22.72,-2.631,-24.51,-17.01,-14.03,-14.9,-5.292,-10.34,1.079,-1.694,5.138,-1.598,15.58,0,0,0,0,0,0,0,0,0,0,0,0,0,0,0,0,
748,-12.61,-9.816,-17.03,-16.75,0.021,-21.53,-19.24,-15.28,-15.36,-9.782,-13.6,-4.168,-4.934,-2.182,-12.75,4.22,0,0,0,0,0,0,0,0,0,0,0,0,0,0,0,0,
749,-12.57,-14.5,-14.71,-19.47,-4.234,-15.27,-14.65,-14.3,-10.56,-13.14,-11.57,1.687,-3.487,-7.136,-14.54,0.5029,0,0,0,0,0,0,0,0,0,0,0,0,0,0,0,0,
750,-0.6142,-7.327,-11.26,-12.02,4.721,-6.067,-5.235,-11.32,-3.203,-12.52,-0.886,12.72,1.001,-11.04,-13.3,-0.8676,0,0,0,0,0,0,0,0,0,0,0,0,0,0,0,0,
751,4.061,-5.191,-19.49,-6.216,3.628,-5.731,-7.931,-13.42,-6.152,-12.4,-0.5057,9.312,-0.971,-15.08,-15.05,-7.766,0,0,0,0,0,0,0,0,0,0,0,0,0,0,0,0,
752,-1.863,-6.717,-19.8,-8.217,-3.704,-9.652,-9.239,-13.18,-14.16,-9.412,-7.803,4.223,-2.35,-10.5,-13.37,-5.53,0,0,0,0,0,0,0,0,0,0,0,0,0,0,0,0,
753,-3.907,-2.317,-9.43,-4.134,6.721,-10.2,-3.452,-11.29,-17.44,-5.298,-7.821,6.942,-0.0968,-6.194,-12.68,-1.568,0,0,0,0,0,0,0,0,0,0,0,0,0,0,0,0,
754,-3.303,-1.762,-13.54,-3.745,7.06,-10.62,-6.226,-19.8,-18.33,-6.248,-3.796,6.228,-0.3496,-9.553,-15.48,-6.085,0,0,0,0,0,0,0,0,0,0,0,0,0,0,0,0,
755,-2.866,-4.25,-22.14,-7.883,-11.23,-9.274,-9.772,-25.97,-20.15,-6.606,-4.769,1.282,-1.502,-8.293,-15.67,-6.874,0,0,0,0,0,0,0,0,0,0,0,0,0,0,0,0,
756,-2.202,0.451,-23.69,-4.822,-16.72,-6.964,-4.125,-17.36,-22.6,-1.288,-11.47,-2.435,0.5076,-1.535,-17.48,-4.235,0,0,0,0,0,0,0,0,0,0,0,0,0,0,0,0,
757,-5.345,6.486,-28.54,-5.823,-18.25,-13.07,-5.353,-17.4,-28.74,-3.302,-21.23,-9.013,-3.901,-6.088,-28.05,-10.12,0,0,0,0,0,0,0,0,0,0,0,0,0,0,0,0,
758,-8.826,2.47,-27.32,-9.268,-22.58,-20.31,-14.88,-30.96,-31.96,-16.04,-23.41,-12.01,-15.8,-18.51,-32.5,-14.8,0,0,0,0,0,0,0,0,0,0,0,0,0,0,0,0,
759,-4.46,-7.964,-20.24,-5.546,-10.05,-17.12,-17.06,-29.98,-21.7,-18.54,-12.44,-2.038,-15.9,-16.69,-14.35,-5.317,0,0,0,0,0,0,0,0,0,0,0,0,0,0,0,0,
760,2.957,-10.89,-24.06,-11.96,-1.667,-14.92,-15.43,-21.11,-12.04,-8.907,-6.373,3.402,-7.987,-6.054,1.23,1.877,0,0,0,0,0,0,0,0,0,0,0,0,0,0,0,0,
761,2.691,-6.937,-25.9,-25.28,-10.83,-17.76,-15.19,-24.01,-12.49,-6.131,-11.39,-4.097,-10.49,-9.578,-9.497,-5.327,0,0,0,0,0,0,0,0,0,0,0,0,0,0,0,0,
762,0.356,-5.995,-11.39,-15.72,-3.624,-10.54,-6.923,-20.77,-6.531,-6.367,-7.62,-1.542,-9.26,-18.12,-16,-3.655,0,0,0,0,0,0,0,0,0,0,0,0,0,0,0,0,
763,5.957,-3.559,1.892,6.998,13.7,1.094,4.968,-7.571,1.715,-2.471,2.951,9.304,2.603,-13.88,-2.453,11.43,0,0,0,0,0,0,0,0,0,0,0,0,0,0,0,0,
764,8.656,-0.7053,-4.118,7.769,2.757,-3.034,2.644,-9.409,-5.365,-6.989,1.952,5.966,2.904,-8.318,4.747,13.21,0,0,0,0,0,0,0,0,0,0,0,0,0,0,0,0,
765,-1.765,-6.734,-19.07,-10.03,-21.07,-17.99,-10.04,-21.38,-20.65,-16,-8.912,-3.374,-4.868,-7.72,2.158,5.959,0,0,0,0,0,0,0,0,0,0,0,0,0,0,0,0,
766,-16.01,-11.13,-23.83,-20.95,-27.28,-27.57,-14.51,-22.43,-36.27,-14.84,-23.47,-9.322,-7.299,-5.424,-5.247,2.427,0,0,0,0,0,0,0,0,0,0,0,0,0,0,0,0,
767,-26.74,-10.71,-23.75,-23.1,-27.57,-32.32,-15.07,-19.31,-46.16,-12.95,-33.12,-18.19,-12.65,-7.188,-16.78,-6.188,0,0,0,0,0,0,0,0,0,0,0,0,0,0,0,0,
768,-28.5,-17.38,-24.49,-21.01,-27.38,-32.47,-21.02,-20.68,-36.02,-18.21,-24.31,-17.67,-13.79,-8.987,-10.98,-6.333,0,0,0,0,0,0,0,0,0,0,0,0,0,0,0,0,
769,-15.78,-18.19,-15.9,-11.24,-12.16,-21.53,-17.7,-15.11,-15.89,-18.82,-8.142,-2.462,-2.856,-3.662,4.956,6.285,0,0,0,0,0,0,0,0,0,0,0,0,0,0,0,0,
770,-2.068,-4.477,-6.123,-2.34,4.412,-8.483,-5.224,-5.136,-7.603,-12.84,-2.194,6.058,0.6216,-4.075,4.369,4.372,0,0,0,0,0,0,0,0,0,0,0,0,0,0,0,0,
771,-1.4,-0.4267,-5.599,-5.944,5.535,-5.978,-7.092,-10.02,-8.936,-10.05,-1.002,3.014,-6.143,-8.299,-0.5598,-3.956,0,0,0,0,0,0,0,0,0,0,0,0,0,0,0,0,
772,-9.139,-14.27,-10.94,-22.69,3.588,-10.81,-18.66,-24.02,-9.638,-9.477,2.056,2.544,-6.385,-3.087,-0.1431,1.611,0,0,0,0,0,0,0,0,0,0,0,0,0,0,0,0,
773,-14.97,-24.28,-20.95,-38.2,3.817,-15.9,-19.59,-25.7,-4.639,-4.575,7.407,6.649,-2.368,3.69,-1.052,6.925,0,0,0,0,0,0,0,0,0,0,0,0,0,0,0,0,
774,-10.55,-19.8,-22.26,-34.41,0.4058,-18.81,-17.23,-17.23,2.022,-1.108,9.667,5.26,-6.257,2.371,-0.5312,2.472,0,0,0,0,0,0,0,0,0,0,0,0,0,0,0,0,
775,-6.564,-17.18,-15.4,-29.22,-4.386,-23.3,-23.42,-12.53,-0.8894,-7.637,1.893,-4.008,-16.92,-5.577,-2.654,-6.079,0,0,0,0,0,0,0,0,0,0,0,0,0,0,0,0,
776,-15.13,-25.46,-18.85,-37.38,-6.191,-27.6,-26.41,-11.9,-3.349,-12.02,0.5717,-5.577,-18.91,-9.141,-2.87,-8.552,0,0,0,0,0,0,0,0,0,0,0,0,0,0,0,0,
777,-14.59,-25,-18.32,-33.48,-0.8893,-19.58,-17.28,-9.101,5.868,-1.913,11.82,3.305,-8.954,0.521,3.466,0.1844,0,0,0,0,0,0,0,0,0,0,0,0,0,0,0,0,
778,-3.314,-12.75,-9.883,-29.72,3.264,-11.23,-10.5,-5.415,6.312,7.42,9.179,1.159,-5.736,8.367,-2.415,4.616,0,0,0,0,0,0,0,0,0,0,0,0,0,0,0,0,
779,-8.319,-8.962,-13.97,-43.04,-1.819,-19.08,-13.43,-6.331,-5.118,6.295,-2.828,-8.739,-9.563,6.978,-13.36,2.167,0,0,0,0,0,0,0,0,0,0,0,0,0,0,0,0,
780,-12.42,-8.197,-15.17,-33.09,-0.6332,-19.88,-12.81,-8.512,-3.434,8.582,0.2731,-5.595,-3.968,11.96,-6.713,6.706,0,0,0,0,0,0,0,0,0,0,0,0,0,0,0,0,
781,-0.858,-1.355,-6.427,-11.6,6.102,-8.826,-9.488,-6.99,3.64,15.9,3.736,1.547,4.238,20.14,2.932,11.08,0,0,0,0,0,0,0,0,0,0,0,0,0,0,0,0,
782,-2.243,-0.6356,-7.415,-21.16,0.0686,-15.3,-15.11,-7.645,-5.272,14.97,-6.515,-2.335,1.529,16.11,-1.202,6.499,0,0,0,0,0,0,0,0,0,0,0,0,0,0,0,0,
783,-14.25,-7.122,-13.06,-30.61,-7.691,-27.37,-20.89,-11.27,-16.2,5.941,-15.3,-11.48,-7.65,2.976,-12.06,-1.441,0,0,0,0,0,0,0,0,0,0,0,0,0,0,0,0,
784,-17.16,-11.12,-14.2,-23.16,-2.862,-18.63,-15.88,-7.478,-10.03,3.033,-11.98,-13.21,-11.04,-2.779,-14.93,-4.021,0,0,0,0,0,0,0,0,0,0,0,0,0,0,0,0,
785,-16.01,-6.264,-7.888,-15.95,7.928,-2.865,-7.084,4.23,6.138,9.668,0.6411,-3.579,-5.513,5.464,-4.234,2.732,0,0,0,0,0,0,0,0,0,0,0,0,0,0,0,0,
786,-8.148,2.402,5.897,-2.683,15.22,4.631,-2.989,11.21,15.86,10.68,10.26,3.318,-3.067,8.115,0.9923,4.158,0,0,0,0,0,0,0,0,0,0,0,0,0,0,0,0,
787,2.297,-1.235,10.88,-1.281,12.02,6.769,-2.28,6.698,15.21,3.448,9.133,0.1533,-7.442,-4.919,-7.666,-6.226,0,0,0,0,0,0,0,0,0,0,0,0,0,0,0,0,
788,2.504,-8.384,6.367,-18.13,7.785,8.42,0.1653,-0.1421,13.87,2.706,7.658,-0.4336,-8.246,-12.46,-11.93,-9.497,0,0,0,0,0,0,0,0,0,0,0,0,0,0,0,0,
789,4.618,-2.011,2.009,-17.61,12.9,11.21,3.278,2.363,16.69,7.8,10.18,3.307,-5.183,-7.931,-7.904,-2.068,0,0,0,0,0,0,0,0,0,0,0,0,0,0,0,0,
790,9.624,3.018,-2.072,-9.182,15.03,7.707,1.008,7.976,18.64,9.851,9.907,6.74,-2.058,-3.793,0.4611,4.145,0,0,0,0,0,0,0,0,0,0,0,0,0,0,0,0,
791,2.965,-1.858,1.382,-16.76,9.56,-2.379,-6.172,2.718,16.99,8.053,8.164,9.781,-1.052,-3.763,9.465,5.73,0,0,0,0,0,0,0,0,0,0,0,0,0,0,0,0,
792,-4.046,-5.431,3.367,-20.35,3.404,-5.098,-10.13,-5.64,12.45,3.54,6.928,6.227,-4.995,-7.887,5.641,3.26,0,0,0,0,0,0,0,0,0,0,0,0,0,0,0,0,
793,-0.3951,-3.102,-3.443,-10.76,0.9818,2.179,-5.507,0.4714,9.85,5.127,6.733,4.914,-3.083,-9.368,-1.788,1.759,0,0,0,0,0,0,0,0,0,0,0,0,0,0,0,0,
794,7.565,8.607,4.869,1.866,8.715,11.15,2.416,10.9,15.37,15.44,11.52,18.27,8.797,-1.439,4.608,4.418,0,0,0,0,0,0,0,0,0,0,0,0,0,0,0,0,
795,16.29,21.04,18.32,10.11,13.89,16.56,6.525,7.04,22.43,19.8,17.22,27.53,14.36,6.341,12.62,9.274,0,0,0,0,0,0,0,0,0,0,0,0,0,0,0,0,
796,18.99,19.4,7.463,4.034,5.274,13.94,6.489,-2.17,20.17,14.63,15.73,19.27,10.4,5.208,11.3,12.35,0,0,0,0,0,0,0,0,0,0,0,0,0,0,0,0,
797,12.94,12.37,-5.959,-7.606,3.851,7.742,2.603,-5.904,13.19,8.953,9.615,9.245,5.266,-1.381,5.863,5.339,0,0,0,0,0,0,0,0,0,0,0,0,0,0,0,0,
798,10.47,10.49,-0.1879,-7.988,14.3,9.999,0.6385,-7.878,12.36,6.268,8.097,8.352,0.3563,-4.377,4.155,-2.012,0,0,0,0,0,0,0,0,0,0,0,0,0,0,0,0,
799,16.68,12.9,9.784,-5.129,16.93,16.77,4.729,-7.951,15.77,6.688,12.22,12.44,-0.911,-1.959,10.25,4.878,0,0,0,0,0,0,0,0,0,0,0,0,0,0,0,0,
800,21.29,17.29,10.96,-5.506,11.13,13.96,2.321,-8.925,14.71,6.399,14.52,14.28,0.3132,-4.703,13.1,8.564,0,0,0,0,0,0,0,0,0,0,0,0,0,0,0,0,
801,17.07,14.52,1.559,-0.5143,6.69,6.503,-6.121,-12.81,9.765,4.79,14.85,12.73,-1.857,-8.751,10.99,2.926,0,0,0,0,0,0,0,0,0,0,0,0,0,0,0,0,
802,11.01,7.37,-7.606,2.789,6.106,6.863,-5.743,-12.24,4.464,6.085,16.91,12.58,-1.909,-2.621,15.55,7.672,0,0,0,0,0,0,0,0,0,0,0,0,0,0,0,0,
803,11.16,8.346,-3.293,-2.39,5.393,8.728,-4.676,-11.32,-2.399,6.444,17.1,13.15,4.277,0.5865,18.61,15.56,0,0,0,0,0,0,0,0,0,0,0,0,0,0,0,0,
804,12.82,11.41,5.129,-1.061,2.294,6.697,-7.576,-15.13,-4.526,4.806,18.93,15.43,9.436,-4.597,20,14.86,0,0,0,0,0,0,0,0,0,0,0,0,0,0,0,0,
805,14.59,11.26,6.825,5.98,4.709,9.611,-2.527,-16.63,3.031,3.655,28.51,23.02,10.2,-2.692,31.12,16.52,0,0,0,0,0,0,0,0,0,0,0,0,0,0,0,0,
806,21.64,11.21,8.295,5.487,10.11,15.31,1.208,-17.74,8.612,-3.145,34.04,25.28,8.434,-0.0258,34.06,16.5,0,0,0,0,0,0,0,0,0,0,0,0,0,0,0,0,
807,23.41,6.686,6.878,4.957,5.668,13.42,-5.211,-19.77,7.845,-9.99,27.98,17.11,5.318,-7.151,22.43,6.983,0,0,0,0,0,0,0,0,0,0,0,0,0,0,0,0,
808,12.63,2.317,-4.353,4.533,-3.574,6.893,-8.937,-16.45,10.16,-3.942,21.25,14.01,5.642,-7.623,19.05,3.747,0,0,0,0,0,0,0,0,0,0,0,0,0,0,0,0,
809,6.482,8.371,-9.326,0.9372,-5.171,4.16,-5.363,-12.28,13.69,5,18.03,18.71,11.67,3.785,20.94,11.75,0,0,0,0,0,0,0,0,0,0,0,0,0,0,0,0,
810,10.6,18.24,-0.8705,12.32,-0.3435,7.11,2.834,-8.079,14.69,8.485,16.42,19.74,18.79,9.865,17.45,16.74,0,0,0,0,0,0,0,0,0,0,0,0,0,0,0,0,
811,11.41,24.67,3.441,32.49,1.033,10.44,12.58,2.401,17.06,18.02,18.99,19.46,24.2,9.56,19.61,17.68,0,0,0,0,0,0,0,0,0,0,0,0,0,0,0,0,
812,10.19,29.82,6.257,35.32,-5.009,9.581,15.38,10.58,14.75,28.02,18.13,18.95,24.13,11.48,22.52,17.38,0,0,0,0,0,0,0,0,0,0,0,0,0,0,0,0,
813,12.13,32.21,10.86,27.85,-12.1,9.407,13.59,9.664,8.218,25.23,9.392,12.7,18.55,11.34,13.04,10.5,0,0,0,0,0,0,0,0,0,0,0,0,0,0,0,0,
814,11.29,29.47,0.974,25.82,-18.68,11.12,12.62,8.279,9.834,22.53,5.086,7.827,16.89,8.199,3.086,2.167,0,0,0,0,0,0,0,0,0,0,0,0,0,0,0,0,
815,8.445,25.33,-4.298,26.32,-23.22,9.96,9.478,10.39,8.772,25.44,3.768,6.682,15.24,5.901,0.6698,-3.02,0,0,0,0,0,0,0,0,0,0,0,0,0,0,0,0,
816,7.334,23.11,10.22,24.07,-15.99,11.29,10.21,12.82,-3.49,22.49,-2.689,4.537,7.934,3.779,-1.663,-6.784,0,0,0,0,0,0,0,0,0,0,0,0,0,0,0,0,
817,8.258,22.12,12.45,22.5,-5.749,16.61,17.27,13.42,-4.715,19.13,-3.187,8.413,8.345,5.172,-1.464,-2.221,0,0,0,0,0,0,0,0,0,0,0,0,0,0,0,0,
818,13.1,22.46,6.972,34.28,-7.556,17.64,20.49,11.61,4.329,18.38,3.496,16.87,15.57,9.583,2.96,5.926,0,0,0,0,0,0,0,0,0,0,0,0,0,0,0,0,
819,16.55,25.11,14.76,50.72,-10.49,15.71,20.31,11.1,3.361,13.43,7.861,21.24,19.87,13.84,9.742,8.469,0,0,0,0,0,0,0,0,0,0,0,0,0,0,0,0,
820,15.81,27.69,12.83,46.24,-6.144,13.91,17.64,10.34,4.541,9.97,13.74,24.51,25.37,20.82,21.78,13.53,0,0,0,0,0,0,0,0,0,0,0,0,0,0,0,0,
821,17.93,25.95,4.845,33.16,-3.773,10.82,8.661,1.616,13.64,5.399,14.44,23.42,22.22,19.93,24.42,12.76,0,0,0,0,0,0,0,0,0,0,0,0,0,0,0,0,
822,16.63,16.6,6.474,27.89,-6.09,5.683,1.401,-10.02,10.71,-5.251,2.674,15.57,6.633,6.686,11.25,-0.1208,0,0,0,0,0,0,0,0,0,0,0,0,0,0,0,0,
823,4.675,4.612,0.2198,16.31,-6.104,-4.059,-2.029,-12.18,3.116,-6.841,-2.219,13.06,1.12,4.589,8.576,2.225,0,0,0,0,0,0,0,0,0,0,0,0,0,0,0,0,
824,-1.089,3.418,-0.513,11.45,0.9902,-8.63,-4.929,-4.468,9.857,2.435,6.218,18.62,7.478,13.9,15.77,16.15,0,0,0,0,0,0,0,0,0,0,0,0,0,0,0,0,
825,8.504,11.2,13.55,25.21,6.081,-1.402,-2.149,0.5789,19.68,5.274,9.581,21.86,9.337,11.13,9.662,11.5,0,0,0,0,0,0,0,0,0,0,0,0,0,0,0,0,
826,14.76,11.78,10.89,27.58,4.542,-0.0397,0.9196,-4.114,21.37,1.114,5.322,14.92,5.519,3.389,-0.3694,1.226,0,0,0,0,0,0,0,0,0,0,0,0,0,0,0,0,
827,8.176,7.739,4.136,20.85,9.764,-4.306,0.2213,-4.101,20.87,1.858,3.196,3.021,0.5294,2.353,-6.416,-0.7307,0,0,0,0,0,0,0,0,0,0,0,0,0,0,0,0,
828,1.061,6.108,14.19,21.62,10.85,-0.7437,2.107,3.897,15.03,4.513,-0.1931,-2.61,-5.459,-3.493,-15.7,-9.57,0,0,0,0,0,0,0,0,0,0,0,0,0,0,0,0,
829,-1.991,-1.901,15.66,10.98,-4.828,0.0164,2.041,1.567,4.113,0.6861,-9.704,-7.047,-13.12,-11.17,-19.32,-17.65,0,0,0,0,0,0,0,0,0,0,0,0,0,0,0,0,
830,-4.725,-8.166,11.54,4.367,-6.396,-2.013,0.9651,-0.7077,1.835,1.416,-18.69,-15.87,-16.7,-8.447,-18.92,-14.05,0,0,0,0,0,0,0,0,0,0,0,0,0,0,0,0,
831,-5.447,-0.0345,17.09,24.63,6.413,1.207,3.162,8.397,0.3574,10.64,-23.87,-19.26,-12.78,-6.043,-24.93,-17.02,0,0,0,0,0,0,0,0,0,0,0,0,0,0,0,0,
832,-5.374,6.466,16.48,36.93,1.709,2.001,2.758,7.132,-8.696,10.77,-24.09,-12.44,-8.302,-8.91,-20.09,-22.51,0,0,0,0,0,0,0,0,0,0,0,0,0,0,0,0,
833,-1.723,8.852,16.78,30.97,-0.8933,8.741,8.952,3.759,-4.15,5.954,-12.77,1.609,-0.8259,-2.766,1.587,-9.58,0,0,0,0,0,0,0,0,0,0,0,0,0,0,0,0,
834,10.55,20.16,30.44,32.7,11.57,22.9,22.22,16.56,8.363,8.079,-1.091,12.5,10.7,6.716,12.29,4.168,0,0,0,0,0,0,0,0,0,0,0,0,0,0,0,0,
835,18.17,26.67,43.26,38.95,14.53,24.95,25.69,23.42,5.017,9.392,-1.483,13.91,17.11,7.576,9.561,7.229,0,0,0,0,0,0,0,0,0,0,0,0,0,0,0,0,
836,15.15,25.26,50.58,42.21,15.4,21.5,27.38,19.55,2.887,12.49,1.283,19.08,22.76,11.05,14.82,18.29,0,0,0,0,0,0,0,0,0,0,0,0,0,0,0,0,
837,13.94,28.7,45.86,37.38,16.85,18.56,26.14,17.01,7.417,14.89,5.371,22.73,23.35,14.81,16.17,22.31,0,0,0,0,0,0,0,0,0,0,0,0,0,0,0,0,
838,10.59,21.31,27.55,19.03,1.801,5.901,7.009,9.001,-2.031,4.112,-6.332,9.139,8.332,5.042,1.722,3.998,0,0,0,0,0,0,0,0,0,0,0,0,0,0,0,0,
839,0.7938,2.369,21.22,5.739,-8.224,-2.764,-7.436,1.315,-10.36,-5.571,-15.04,-0.6562,-2.51,-5.636,-4.682,-4.846,0,0,0,0,0,0,0,0,0,0,0,0,0,0,0,0,
840,-3.078,-1.626,20.19,-0.4355,-2.957,-2.328,-5.682,-1.839,-2.336,-6.323,-7.729,5.699,0.1215,-8.165,-1.072,0.4559,0,0,0,0,0,0,0,0,0,0,0,0,0,0,0,0,
841,0.016,4.278,5.186,-11.02,-4.406,-6.336,-6.286,-7.264,6.744,-7.231,-2.18,11.22,3.436,-7.927,-4.154,-2.309,0,0,0,0,0,0,0,0,0,0,0,0,0,0,0,0,
842,5.632,8.244,6.837,-9.992,-3.955,-4.679,-3.243,-3.538,12.53,-0.6439,-0.2046,14.12,11.03,-1.04,-2.236,-1.545,0,0,0,0,0,0,0,0,0,0,0,0,0,0,0,0,
843,11.3,16.24,28.46,-2.472,6.67,6.241,5.16,5.582,16.64,8.115,1.225,12.57,15.48,3.303,2.753,2.624,0,0,0,0,0,0,0,0,0,0,0,0,0,0,0,0,
844,9.089,19.36,30.62,-8.322,10.55,10.03,3.634,3.163,16.62,6.152,-4.479,0.6175,4.807,-4.602,-6.516,-7.05,0,0,0,0,0,0,0,0,0,0,0,0,0,0,0,0,
845,4.55,16.48,23.44,-6.078,11.36,9.275,3.088,3.947,17.96,9.119,-8.84,-6.143,0.0356,-4.571,-13.36,-11.86,0,0,0,0,0,0,0,0,0,0,0,0,0,0,0,0,
846,6.045,20.33,28.8,12.08,15.69,10.36,11.02,15.77,20.14,19.13,-7.168,-2.071,6.145,6.711,-9.418,-3.123,0,0,0,0,0,0,0,0,0,0,0,0,0,0,0,0,
847,6.085,20.41,28.81,19.9,14.87,8.343,11.4,20.73,18.27,17.07,-8.572,-3.289,0.8193,5.896,-13.15,-4.873,0,0,0,0,0,0,0,0,0,0,0,0,0,0,0,0,
848,4.527,11.87,22.86,18.75,12.16,5.484,5.923,18.7,14.76,10.01,-10.69,-11.23,-8.513,-3.424,-19.64,-13.41,0,0,0,0,0,0,0,0,0,0,0,0,0,0,0,0,
849,5.805,10.32,24.38,18.99,10.78,2.545,7.753,17.79,12.34,10.32,-8.733,-11.36,-5.07,-4.302,-15,-10.21,0,0,0,0,0,0,0,0,0,0,0,0,0,0,0,0,
