%OpenBCI Raw EXG Data
%Number of channels = 16
%Sample Rate = 125 Hz
%Board = OpenBCI_GUI$BoardCytonSerialDaisy
Sample Index,EXG Channel 0,EXG Channel 1,EXG Channel 2,EXG Channel 3,EXG Channel 4,EXG Channel 5,EXG Channel 6,EXG Channel 7,EXG Channel 8,EXG Channel 9,EXG Channel 10,EXG Channel 11,EXG Channel 12,EXG Channel 13,EXG Channel 14,EXG Channel 15,Accel Channel 0,Accel Channel 1,Accel Channel 2,Other,Other.1,Other.2,Other.3,Other.4,Other.5,Other.6,Analog Channel 0,Analog Channel 1,Analog Channel 2,Timestamp,Other.7,Timestamp (Formatted),Annotations
1,0.0,0.0,0.0,0.0,0.0,-0.0,0.0,0.0,-0.0,0.0,0.0,0.0,0.0,0.0,-0.0,-0.0,0,0,0,0,0,0,0,0,0,0,0,0,0,0,0,0,T0
2,-7.773,-13.19,1.932,-32.5,-10.33,-24.42,5.941,-10.37,-5.168,-16.31,10.6,11.54,0.3605,-6.198,8.28,7.824,0,0,0,0,0,0,0,0,0,0,0,0,0,0,0,0,
3,-19.93,-28.84,-5.973,-54.37,-28.0,-35.17,6.014,-17.95,-11.36,-26.78,15.6,20.51,-2.14,-12.96,23.63,24.8,0,0,0,0,0,0,0,0,0,0,0,0,0,0,0,0,
4,-24.61,-34.24,-12.39,-54.86,-45.35,-44.47,-4.481,-14.3,-19.49,-30.03,22.22,34.17,-6.055,-9.928,28.26,42.21,0,0,0,0,0,0,0,0,0,0,0,0,0,0,0,0,
5,-26.74,-36.51,-16.01,-55.64,-58.83,-61.72,-15.72,-9.28,-35.19,-32.94,24.71,45.49,-6.23,-1.56,25.3,55.02,0,0,0,0,0,0,0,0,0,0,0,0,0,0,0,0,
6,-36.43,-44.63,-22.16,-59.48,-68.82,-70.07,-12.31,-9.819,-52.33,-40.96,22.9,42.72,-0.1719,0.2158,32.58,63.41,0,0,0,0,0,0,0,0,0,0,0,0,0,0,0,0,
7,-41.92,-45.53,-21.17,-48.96,-72.63,-58.6,1.437,-5.489,-55.39,-43.08,28.79,35.25,9.097,3.618,41.07,62.28,0,0,0,0,0,0,0,0,0,0,0,0,0,0,0,0,
8,-38.08,-41.52,-5.513,-42.73,-67.13,-43.83,19.91,0.5337,-44.0,-27.9,42.7,34.55,21.97,17.59,45.4,59.89,0,0,0,0,0,0,0,0,0,0,0,0,0,0,0,0,
9,-30.27,-39.74,17.86,-44.8,-51.25,-39.51,44.09,1.456,-24.2,-9.544,58.4,33.89,33.55,25.61,49.55,63.68,0,0,0,0,0,0,0,0,0,0,0,0,0,0,0,0,
10,-23.31,-33.73,28.27,-36.93,-43.17,-43.72,50.12,1.202,-10.93,-10.24,59.75,28.59,27.04,14.31,41.67,64.52,0,0,0,0,0,0,0,0,0,0,0,0,0,0,0,0,
11,-32.53,-38.73,19.01,-29.17,-54.76,-51.79,32.11,-2.839,-24.01,-24.03,45.61,34.15,15.85,10.3,38.11,75.1,0,0,0,0,0,0,0,0,0,0,0,0,0,0,0,0,
12,-48.15,-55.94,20.12,-19.14,-55.97,-50.83,30.21,-6.25,-36.41,-23.47,47.95,53.78,32.35,32.93,61.38,99.85,0,0,0,0,0,0,0,0,0,0,0,0,0,0,0,0,
13,-39.76,-47.73,35.31,2.135,-35.21,-37.0,43.64,-0.1005,-17.49,-6.147,61.75,57.85,54.5,44.8,72.15,97.59,0,0,0,0,0,0,0,0,0,0,0,0,0,0,0,0,
14,-23.41,-19.75,34.47,11.78,-20.52,-28.41,41.12,7.271,0.3492,4.567,59.32,44.71,50.04,32.02,54.82,75.37,0,0,0,0,0,0,0,0,0,0,0,0,0,0,0,0,
15,-22.18,-10.06,32.65,8.764,-9.031,-23.72,39.07,14.73,5.371,10.39,60.35,49.08,43.4,36.75,54.68,82.39,0,0,0,0,0,0,0,0,0,0,0,0,0,0,0,0,
16,-18.71,-10.38,43.75,12.64,9.681,-12.03,41.49,25.06,19.79,20.97,65.69,58.24,43.75,47.09,63.55,90.0,0,0,0,0,0,0,0,0,0,0,0,0,0,0,0,0,
17,-13.84,-4.228,38.21,18.08,11.37,-11.09,23.97,24.89,18.21,14.74,45.8,41.68,26.64,22.8,50.56,65.98,0,0,0,0,0,0,0,0,0,0,0,0,0,0,0,0,
18,-21.41,-2.649,25.22,22.81,-1.145,-22.3,10.65,20.16,-5.479,-7.923,26.71,28.96,8.639,3.294,45.34,58.06,0,0,0,0,0,0,0,0,0,0,0,0,0,0,0,0,
19,-24.26,-7.815,29.81,28.48,1.093,-27.22,23.47,23.67,-7.521,-15.04,36.3,38.78,12.78,15.74,55.99,74.8,0,0,0,0,0,0,0,0,0,0,0,0,0,0,0,0,
20,-18.28,-15.21,29.21,22.47,5.04,-39.46,30.67,17.25,3.883,-15.73,42.04,36.5,14.41,11.91,51.54,70.19,0,0,0,0,0,0,0,0,0,0,0,0,0,0,0,0,
21,-23.07,-25.42,14.29,12.23,-11.3,-62.51,20.65,-1.53,-4.445,-34.93,28.02,17.03,-1.523,-14.24,45.15,55.08,0,0,0,0,0,0,0,0,0,0,0,0,0,0,0,0,
22,-33.06,-31.16,9.204,14.81,-29.02,-69.67,15.25,-10.98,-18.98,-55.01,20.32,7.838,-14.05,-26.13,55.87,62.4,0,0,0,0,0,0,0,0,0,0,0,0,0,0,0,0,
23,-36.16,-31.94,12.44,14.08,-35.8,-67.55,12.35,-15.98,-27.75,-61.9,20.45,9.927,-16.71,-29.27,59.95,77.71,0,0,0,0,0,0,0,0,0,0,0,0,0,0,0,0,
24,-43.36,-38.27,3.488,-4.155,-47.03,-73.83,-1.128,-24.07,-35.98,-66.79,9.567,13.67,-18.19,-29.34,53.9,83.19,0,0,0,0,0,0,0,0,0,0,0,0,0,0,0,0,
25,-53.27,-46.12,-11.46,-17.33,-58.52,-77.33,-15.18,-23.65,-30.42,-64.24,0.8156,19.72,-12.14,-14.23,64.11,85.7,0,0,0,0,0,0,0,0,0,0,0,0,0,0,0,0,
26,-58.45,-54.37,-22.98,-15.73,-68.09,-85.4,-25.8,-20.73,-13.38,-53.79,7.292,22.82,-5.021,-5.676,79.19,85.44,0,0,0,0,0,0,0,0,0,0,0,0,0,0,0,0,
27,-82.01,-82.49,-52.36,-25.75,-105.2,-116.3,-44.8,-30.25,-24.28,-64.14,7.03,16.01,-20.33,-23.46,69.39,73.01,0,0,0,0,0,0,0,0,0,0,0,0,0,0,0,0,
28,-121.0,-120.5,-86.21,-51.79,-154.2,-147.8,-53.82,-48.06,-66.5,-97.09,-0.9805,5.286,-43.9,-44.44,49.46,55.95,0,0,0,0,0,0,0,0,0,0,0,0,0,0,0,0,
29,-125.7,-127.5,-70.59,-59.08,-156.3,-151.6,-30.01,-61.3,-85.92,-114.8,3.427,3.948,-42.79,-46.34,43.79,54.19,0,0,0,0,0,0,0,0,0,0,0,0,0,0,0,0,
30,-97.81,-107.6,-28.18,-37.0,-124.7,-133.2,-4.568,-58.32,-66.88,-101.9,4.637,13.54,-27.09,-34.49,42.69,66.19,0,0,0,0,0,0,0,0,0,0,0,0,0,0,0,0,
31,-87.21,-99.05,-19.63,-22.46,-112.5,-115.5,-4.314,-41.25,-53.31,-81.06,-11.17,17.18,-23.67,-28.33,33.69,66.21,0,0,0,0,0,0,0,0,0,0,0,0,0,0,0,0,
32,-95.03,-103.3,-27.25,-33.23,-115.0,-115.6,-6.096,-29.79,-58.93,-78.01,-26.33,5.006,-35.8,-42.14,14.98,43.42,0,0,0,0,0,0,0,0,0,0,0,0,0,0,0,0,
33,-95.99,-101.4,-26.45,-39.72,-112.4,-127.5,-4.012,-32.11,-63.43,-96.28,-37.78,-10.83,-58.49,-65.25,-10.92,16.56,0,0,0,0,0,0,0,0,0,0,0,0,0,0,0,0,
34,-93.31,-97.06,-31.62,-31.61,-110.2,-129.7,-14.09,-41.86,-69.71,-115.6,-48.45,-21.94,-79.36,-78.61,-25.47,0.9343,0,0,0,0,0,0,0,0,0,0,0,0,0,0,0,0,
35,-88.91,-94.76,-30.17,-28.02,-101.6,-116.9,-19.92,-55.6,-77.61,-115.6,-43.31,-34.13,-78.31,-82.47,-21.07,-10.26,0,0,0,0,0,0,0,0,0,0,0,0,0,0,0,0,
36,-74.54,-82.57,-15.31,-21.58,-82.63,-101.1,-8.218,-61.88,-68.14,-97.81,-26.73,-47.01,-65.9,-84.7,-20.22,-24.3,0,0,0,0,0,0,0,0,0,0,0,0,0,0,0,0,
37,-59.0,-62.49,-8.358,-2.954,-69.29,-90.11,0.1376,-51.26,-53.31,-80.17,-22.15,-49.72,-69.5,-82.62,-26.29,-32.13,0,0,0,0,0,0,0,0,0,0,0,0,0,0,0,0,
38,-51.78,-49.45,-1.343,9.466,-62.04,-78.1,-0.7642,-36.84,-51.97,-70.85,-29.94,-34.83,-73.67,-66.6,-15.64,-22.34,0,0,0,0,0,0,0,0,0,0,0,0,0,0,0,0,
39,-48.35,-42.48,9.44,11.39,-54.41,-58.87,-1.361,-26.58,-45.91,-57.67,-41.56,-11.47,-59.44,-42.09,4.213,-4.583,0,0,0,0,0,0,0,0,0,0,0,0,0,0,0,0,
40,-51.35,-40.06,-0.8424,19.11,-54.93,-44.25,-8.367,-12.42,-34.95,-38.18,-53.61,2.784,-51.48,-29.78,8.228,3.612,0,0,0,0,0,0,0,0,0,0,0,0,0,0,0,0,
41,-61.45,-45.99,-19.23,39.28,-61.34,-43.97,-15.74,-0.0557,-39.03,-27.94,-47.19,7.538,-49.43,-25.13,10.38,10.16,0,0,0,0,0,0,0,0,0,0,0,0,0,0,0,0,
42,-65.01,-51.26,-17.57,56.09,-65.29,-51.93,-7.768,-1.161,-40.25,-27.1,-22.84,13.85,-29.09,-10.06,27.24,25.23,0,0,0,0,0,0,0,0,0,0,0,0,0,0,0,0,
43,-63.0,-58.59,-10.32,50.03,-72.35,-65.49,3.972,-6.625,-29.87,-26.68,-12.8,22.02,-10.75,2.846,38.52,33.16,0,0,0,0,0,0,0,0,0,0,0,0,0,0,0,0,
44,-67.03,-72.85,-11.75,39.87,-79.08,-76.84,8.755,-3.332,-31.83,-28.11,-12.25,27.75,-6.487,4.485,37.74,30.16,0,0,0,0,0,0,0,0,0,0,0,0,0,0,0,0,
45,-70.56,-73.88,-12.74,51.7,-77.21,-74.83,11.11,3.627,-37.65,-26.71,-0.2873,30.79,3.933,10.95,40.92,31.59,0,0,0,0,0,0,0,0,0,0,0,0,0,0,0,0,
46,-64.49,-66.79,-10.75,64.44,-72.51,-66.86,6.99,7.414,-28.04,-16.8,2.168,33.28,10.82,20.21,42.87,35.61,0,0,0,0,0,0,0,0,0,0,0,0,0,0,0,0,
47,-52.36,-63.19,-9.998,62.16,-65.96,-57.24,-2.846,11.88,-19.12,-7.601,-10.67,36.87,3.834,20.52,35.75,35.37,0,0,0,0,0,0,0,0,0,0,0,0,0,0,0,0,
48,-43.44,-41.8,-14.84,60.74,-59.17,-45.68,-13.53,14.11,-23.02,-5.529,-16.81,35.5,-3.118,15.81,25.19,31.52,0,0,0,0,0,0,0,0,0,0,0,0,0,0,0,0,
49,-51.9,-43.33,-27.65,52.92,-65.21,-45.49,-30.05,6.404,-30.07,-7.278,-26.73,23.67,-17.23,3.174,5.354,16.46,0,0,0,0,0,0,0,0,0,0,0,0,0,0,0,0,
50,-77.8,-107.4,-41.0,32.47,-79.81,-54.47,-43.01,0.376,-37.14,-16.78,-49.02,12.84,-41.25,-16.48,-23.42,-5.909,0,0,0,0,0,0,0,0,0,0,0,0,0,0,0,0,
51,-92.29,-126.3,-43.76,27.65,-83.29,-59.03,-36.11,12.06,-44.46,-34.01,-58.55,17.99,-47.63,-20.5,-37.93,-11.77,0,0,0,0,0,0,0,0,0,0,0,0,0,0,0,0,
52,-80.04,-51.89,-37.07,39.08,-75.16,-66.12,-25.56,26.32,-43.07,-41.09,-55.84,29.77,-35.53,-9.983,-30.74,-1.083,0,0,0,0,0,0,0,0,0,0,0,0,0,0,0,0,
53,-67.69,-14.8,-36.38,42.79,-72.26,-76.05,-37.65,18.74,-37.07,-37.7,-66.93,26.49,-35.56,-13.33,-21.42,-0.4454,0,0,0,0,0,0,0,0,0,0,0,0,0,0,0,0,
54,-70.06,-42.42,-42.47,55.25,-77.04,-69.01,-57.65,2.323,-42.83,-43.01,-81.47,13.26,-45.93,-23.07,-17.81,-12.19,0,0,0,0,0,0,0,0,0,0,0,0,0,0,0,0,
55,-66.63,-41.64,-39.61,85.63,-70.99,-44.64,-54.67,1.69,-47.1,-44.04,-72.7,10.33,-39.07,-13.06,-7.351,-15.49,0,0,0,0,0,0,0,0,0,0,0,0,0,0,0,0,
56,-56.31,-28.69,-35.23,91.65,-51.03,-30.88,-38.36,5.877,-30.5,-26.61,-49.33,16.1,-23.56,0.1333,9.855,-9.706,0,0,0,0,0,0,0,0,0,0,0,0,0,0,0,0,
57,-57.32,-45.11,-39.15,59.09,-44.11,-44.96,-31.6,-3.091,-18.04,-23.49,-31.44,20.1,-26.58,-7.247,15.1,-8.371,0,0,0,0,0,0,0,0,0,0,0,0,0,0,0,0,
58,-63.06,-53.39,-35.99,27.01,-57.22,-65.89,-26.82,-13.96,-28.92,-46.58,-20.64,20.18,-35.71,-18.08,5.663,-9.089,0,0,0,0,0,0,0,0,0,0,0,0,0,0,0,0,
59,-59.59,-43.29,-27.59,16.6,-58.88,-63.86,-18.22,-9.395,-33.79,-55.74,-15.3,18.07,-28.6,-13.24,0.1371,-0.3028,0,0,0,0,0,0,0,0,0,0,0,0,0,0,0,0,
60,-52.87,-40.55,-29.91,15.37,-43.22,-50.23,-16.09,7.256,-18.24,-39.42,-14.48,21.07,-20.65,-4.298,2.449,15.53,0,0,0,0,0,0,0,0,0,0,0,0,0,0,0,0,
61,-54.04,-46.83,-36.61,16.14,-42.21,-54.32,-18.75,18.15,-9.117,-29.3,-15.91,27.86,-26.21,-2.355,0.4816,21.81,0,0,0,0,0,0,0,0,0,0,0,0,0,0,0,0,
62,-61.94,-54.59,-41.3,23.62,-57.09,-67.26,-24.19,15.54,-15.41,-32.76,-24.57,28.54,-30.7,-0.8038,-6.625,13.91,0,0,0,0,0,0,0,0,0,0,0,0,0,0,0,0,
63,-69.02,-60.24,-46.75,30.57,-64.94,-71.29,-37.29,9.918,-20.65,-35.09,-37.92,26.95,-29.01,0.6477,-12.48,6.18,0,0,0,0,0,0,0,0,0,0,0,0,0,0,0,0,
64,-71.13,-59.96,-44.36,27.93,-64.67,-74.76,-42.08,10.01,-20.88,-39.65,-34.63,28.13,-26.41,0.3719,-11.15,6.179,0,0,0,0,0,0,0,0,0,0,0,0,0,0,0,0,
65,-62.52,-55.74,-28.24,31.42,-53.84,-73.94,-21.6,14.64,-12.48,-41.64,-10.38,32.53,-15.5,10.58,4.268,12.46,0,0,0,0,0,0,0,0,0,0,0,0,0,0,0,0,
66,-50.26,-54.11,-15.76,49.71,-35.2,-62.99,2.922,19.26,6.568,-25.35,7.25,45.03,-1.057,29.29,28.68,26.66,0,0,0,0,0,0,0,0,0,0,0,0,0,0,0,0,
67,-54.79,-53.11,-21.19,66.59,-30.1,-59.14,10.67,20.69,17.21,-8.188,12.71,53.65,4.019,39.08,47.35,40.55,0,0,0,0,0,0,0,0,0,0,0,0,0,0,0,0,
68,-65.54,-53.97,-24.95,76.63,-31.09,-57.27,16.35,24.84,19.34,-7.462,23.81,44.04,5.873,36.47,46.95,38.59,0,0,0,0,0,0,0,0,0,0,0,0,0,0,0,0,
69,-62.7,-60.61,-14.49,77.45,-27.31,-49.12,21.46,37.1,24.88,-11.84,22.32,34.53,2.28,24.36,23.51,23.15,0,0,0,0,0,0,0,0,0,0,0,0,0,0,0,0,
70,-62.72,-56.31,-15.01,62.45,-36.91,-54.69,8.548,50.57,15.5,-19.8,-6.298,40.28,-13.35,15.13,1.342,13.12,0,0,0,0,0,0,0,0,0,0,0,0,0,0,0,0,
71,-72.46,-58.32,-29.97,47.8,-45.88,-58.33,-7.566,59.12,-3.72,-23.33,-25.73,45.99,-17.82,26.39,7.372,19.42,0,0,0,0,0,0,0,0,0,0,0,0,0,0,0,0,
72,-71.65,-89.62,-31.04,48.96,-32.19,-39.43,-7.551,61.9,0.5413,-7.388,-22.45,43.92,-3.615,39.73,23.17,30.92,0,0,0,0,0,0,0,0,0,0,0,0,0,0,0,0,
73,-59.89,-77.36,-22.92,57.81,-25.4,-35.17,-9.33,57.24,13.65,1.46,-26.66,41.88,-6.12,30.07,17.59,29.0,0,0,0,0,0,0,0,0,0,0,0,0,0,0,0,0,
74,-55.37,-19.47,-28.15,64.52,-40.23,-48.94,-26.86,48.42,6.718,-13.88,-42.27,40.03,-30.18,17.66,2.537,19.58,0,0,0,0,0,0,0,0,0,0,0,0,0,0,0,0,
75,-61.62,-32.47,-37.68,65.18,-46.47,-38.73,-42.17,44.28,-2.945,-19.42,-46.24,39.23,-30.04,25.65,9.165,25.06,0,0,0,0,0,0,0,0,0,0,0,0,0,0,0,0,
76,-63.16,-67.79,-37.09,62.57,-35.22,-17.61,-37.45,49.29,7.85,-4.424,-32.14,46.93,3.088,42.37,36.11,43.09,0,0,0,0,0,0,0,0,0,0,0,0,0,0,0,0,
77,-53.05,-21.71,-28.77,65.19,-22.75,-9.287,-14.18,59.65,29.64,7.747,-4.638,66.02,29.64,58.87,67.1,65.55,0,0,0,0,0,0,0,0,0,0,0,0,0,0,0,0,
78,-38.91,15.81,-9.718,75.97,-6.332,7.994,21.09,72.03,50.09,20.36,41.03,96.01,51.73,87.73,110.7,108.6,0,0,0,0,0,0,0,0,0,0,0,0,0,0,0,0,
79,-19.06,-3.574,19.93,90.01,24.82,34.26,57.29,87.11,81.29,46.35,93.24,125.3,89.31,122.2,158.8,156.2,0,0,0,0,0,0,0,0,0,0,0,0,0,0,0,0,
80,-4.114,-8.053,33.47,89.4,48.74,36.34,64.74,94.01,115.3,65.31,104.5,125.9,97.84,120.8,162.7,153.4,0,0,0,0,0,0,0,0,0,0,0,0,0,0,0,0,
81,-25.92,-18.46,6.729,55.13,28.22,0.2871,25.64,70.74,104.2,44.54,55.65,87.11,45.97,68.74,113.0,101.9,0,0,0,0,0,0,0,0,0,0,0,0,0,0,0,0,
82,-72.08,-62.53,-34.84,9.89,-20.3,-48.98,-23.95,23.09,47.37,-11.51,-3.897,40.26,-12.39,13.92,60.8,55.72,0,0,0,0,0,0,0,0,0,0,0,0,0,0,0,0,
83,-88.96,-82.42,-45.36,-2.224,-40.61,-68.91,-42.19,-8.432,7.846,-52.58,-33.46,22.83,-34.75,-1.03,36.9,33.69,0,0,0,0,0,0,0,0,0,0,0,0,0,0,0,0,
84,-77.84,-75.41,-39.1,4.817,-35.97,-66.47,-46.37,-11.01,0.7854,-53.07,-48.42,28.51,-43.31,3.142,27.64,23.65,0,0,0,0,0,0,0,0,0,0,0,0,0,0,0,0,
85,-85.42,-85.24,-52.52,-7.768,-47.08,-81.1,-58.07,-10.9,-11.5,-53.73,-59.34,27.9,-53.54,-2.208,22.56,22.47,0,0,0,0,0,0,0,0,0,0,0,0,0,0,0,0,
86,-97.3,-91.1,-52.26,-13.97,-52.3,-87.71,-51.4,-5.98,-20.14,-71.53,-50.9,22.5,-50.94,-2.846,27.99,27.86,0,0,0,0,0,0,0,0,0,0,0,0,0,0,0,0,
87,-74.47,-67.37,-18.84,7.402,-28.94,-58.97,-22.88,16.66,-0.1944,-67.47,-33.6,26.33,-36.76,8.609,37.26,33.41,0,0,0,0,0,0,0,0,0,0,0,0,0,0,0,0,
88,-51.94,-52.03,-4.562,12.9,-14.92,-42.43,-4.588,29.69,18.36,-44.91,-28.04,31.68,-26.24,15.4,36.7,38.35,0,0,0,0,0,0,0,0,0,0,0,0,0,0,0,0,
89,-58.25,-60.34,-9.834,0.6465,-14.74,-52.71,4.301,24.62,16.0,-35.45,-25.33,34.89,-18.38,22.19,35.87,43.94,0,0,0,0,0,0,0,0,0,0,0,0,0,0,0,0,
90,-58.24,-58.07,0.1043,6.383,-2.966,-52.4,13.71,27.91,15.74,-25.69,-21.93,42.24,-9.14,36.19,46.78,50.73,0,0,0,0,0,0,0,0,0,0,0,0,0,0,0,0,
91,-48.63,-49.14,0.9243,8.603,3.16,-45.02,12.87,36.94,23.13,-7.87,-20.42,50.17,-1.057,44.56,58.99,58.35,0,0,0,0,0,0,0,0,0,0,0,0,0,0,0,0,
92,-52.0,-53.66,-13.12,-4.245,-3.194,-41.22,5.145,40.36,33.49,0.1805,-10.7,56.11,5.61,47.14,61.79,61.96,0,0,0,0,0,0,0,0,0,0,0,0,0,0,0,0,
93,-53.47,-50.44,-13.11,2.477,2.174,-25.55,0.1428,46.42,46.91,5.742,-4.751,63.61,10.38,55.18,60.98,64.13,0,0,0,0,0,0,0,0,0,0,0,0,0,0,0,0,
94,-38.19,-27.33,-2.0,23.06,26.18,-1.953,0.3634,53.28,57.49,26.38,-9.95,71.45,18.42,70.49,64.74,71.85,0,0,0,0,0,0,0,0,0,0,0,0,0,0,0,0,
95,-17.8,-7.852,12.59,28.07,53.41,13.48,6.347,52.56,69.98,51.67,-5.767,72.28,27.15,80.34,65.37,72.58,0,0,0,0,0,0,0,0,0,0,0,0,0,0,0,0,
96,-7.951,-6.059,24.76,26.9,61.16,22.7,11.3,44.59,77.57,56.31,2.268,66.81,23.78,74.35,59.11,64.05,0,0,0,0,0,0,0,0,0,0,0,0,0,0,0,0,
97,-3.337,-3.257,26.63,37.54,57.62,39.59,18.66,40.49,73.23,52.17,5.662,71.7,24.2,76.34,64.88,70.83,0,0,0,0,0,0,0,0,0,0,0,0,0,0,0,0,
98,6.91,8.944,25.68,46.6,64.47,57.42,27.4,51.18,83.3,73.86,15.83,86.08,37.48,95.02,78.62,83.23,0,0,0,0,0,0,0,0,0,0,0,0,0,0,0,0,
99,2.022,4.129,14.57,33.01,57.73,47.81,17.06,58.05,95.41,92.42,15.71,85.66,32.85,88.34,74.77,74.61,0,0,0,0,0,0,0,0,0,0,0,0,0,0,0,0,
100,-22.2,-16.35,-7.734,10.85,28.97,19.09,-2.613,45.33,72.41,65.24,-2.943,70.84,12.29,55.32,66.39,62.9,0,0,0,0,0,0,0,0,0,0,0,0,0,0,0,0,
101,-34.01,-24.21,-17.38,3.728,14.31,4.267,-5.789,37.58,45.0,29.88,-9.053,60.56,6.225,40.59,72.55,61.76,0,0,0,0,0,0,0,0,0,0,0,0,0,0,0,0,
102,-35.7,-24.55,-18.4,0.6871,15.05,0.0458,-0.9737,48.03,41.45,21.98,2.929,60.04,10.65,44.32,77.94,59.72,0,0,0,0,0,0,0,0,0,0,0,0,0,0,0,0,
103,-39.66,-24.44,-20.94,-9.861,14.56,-4.951,-2.448,61.34,39.06,23.71,8.53,67.87,13.24,48.18,72.74,62.47,0,0,0,0,0,0,0,0,0,0,0,0,0,0,0,0,
104,-33.56,-21.23,-16.03,-19.03,13.94,-7.657,-10.85,70.71,31.48,27.87,-0.2743,73.67,9.708,51.95,61.4,67.76,0,0,0,0,0,0,0,0,0,0,0,0,0,0,0,0,
105,-25.84,-23.77,-13.4,-25.63,6.27,-11.11,-21.1,72.62,22.83,31.23,-12.52,69.72,-1.985,48.38,49.36,62.41,0,0,0,0,0,0,0,0,0,0,0,0,0,0,0,0,
106,-24.07,-20.42,-15.42,-28.72,-2.637,-10.38,-20.15,67.47,14.53,24.01,-17.49,67.25,-8.662,39.44,42.83,56.37,0,0,0,0,0,0,0,0,0,0,0,0,0,0,0,0,
107,-15.78,-7.793,-6.15,-27.1,-0.2054,-4.598,-10.41,62.38,17.13,17.92,-17.16,66.06,-9.617,36.71,35.46,54.72,0,0,0,0,0,0,0,0,0,0,0,0,0,0,0,0,
108,-13.88,-13.89,1.347,-35.34,-1.786,-8.748,-9.752,52.26,17.46,17.9,-18.09,56.82,-18.64,34.69,25.0,51.31,0,0,0,0,0,0,0,0,0,0,0,0,0,0,0,0,
109,-28.31,-29.78,-5.038,-49.02,-10.74,-15.07,-13.65,43.19,3.219,13.68,-18.21,49.04,-27.86,29.14,22.9,51.49,0,0,0,0,0,0,0,0,0,0,0,0,0,0,0,0,
110,-32.8,-25.05,-5.606,-40.71,-10.16,-11.3,-7.294,49.47,-1.014,7.816,-13.42,46.3,-28.9,22.39,22.11,50.97,0,0,0,0,0,0,0,0,0,0,0,0,0,0,0,0,
111,-24.74,-14.64,-2.197,-19.69,-12.06,-15.82,-3.779,52.46,7.235,-0.0174,-9.81,41.32,-32.61,10.3,11.16,41.81,0,0,0,0,0,0,0,0,0,0,0,0,0,0,0,0,
112,-33.15,-19.18,-13.76,-19.33,-29.63,-32.54,-17.0,40.42,-0.5772,-14.17,-17.78,39.99,-42.08,-0.0335,1.693,34.78,0,0,0,0,0,0,0,0,0,0,0,0,0,0,0,0,
113,-50.33,-24.06,-24.39,-33.85,-39.57,-37.58,-29.44,34.21,-18.76,-20.86,-32.51,41.18,-49.17,1.223,-0.794,31.74,0,0,0,0,0,0,0,0,0,0,0,0,0,0,0,0,
114,-50.29,-20.47,-21.01,-40.36,-33.37,-28.92,-34.31,34.65,-28.11,-14.2,-41.86,34.52,-51.93,2.53,-5.076,23.3,0,0,0,0,0,0,0,0,0,0,0,0,0,0,0,0,
115,-42.76,-15.92,-20.62,-38.59,-32.22,-23.94,-44.07,32.27,-37.75,-9.812,-45.2,31.63,-52.87,-0.9644,-6.488,17.55,0,0,0,0,0,0,0,0,0,0,0,0,0,0,0,0,
116,-40.69,-9.927,-23.33,-33.68,-37.67,-27.94,-47.9,35.99,-49.37,-12.11,-41.52,42.53,-50.19,4.537,2.288,23.09,0,0,0,0,0,0,0,0,0,0,0,0,0,0,0,0,
117,-41.46,-11.76,-20.73,-33.29,-41.08,-38.71,-39.94,43.73,-52.2,-16.47,-32.09,49.7,-42.08,14.75,8.97,30.72,0,0,0,0,0,0,0,0,0,0,0,0,0,0,0,0,
118,-43.5,-24.06,-18.67,-43.95,-44.76,-51.48,-35.02,46.73,-51.61,-25.41,-28.36,46.86,-34.95,16.03,3.939,34.98,0,0,0,0,0,0,0,0,0,0,0,0,0,0,0,0,
119,-36.71,-23.48,-12.31,-54.92,-43.44,-58.69,-23.9,48.32,-50.31,-29.08,-25.47,50.98,-32.73,18.1,2.038,42.21,0,0,0,0,0,0,0,0,0,0,0,0,0,0,0,0,
120,-25.87,-20.75,-2.725,-65.52,-37.3,-61.36,-1.48,47.9,-44.64,-15.3,-14.06,62.35,-27.07,28.81,13.47,52.29,0,0,0,0,0,0,0,0,0,0,0,0,0,0,0,0,
121,-30.82,-32.13,-3.928,-78.47,-37.93,-66.8,6.218,41.22,-41.92,-1.831,-9.668,62.98,-17.67,33.03,21.67,52.22,0,0,0,0,0,0,0,0,0,0,0,0,0,0,0,0,
122,-37.78,-31.6,-3.646,-67.72,-37.73,-71.87,-0.7415,32.85,-42.62,-6.649,-17.26,47.7,-17.21,22.98,14.98,33.96,0,0,0,0,0,0,0,0,0,0,0,0,0,0,0,0,
123,-29.62,-35.06,14.32,-35.87,-19.39,-61.9,-0.6175,33.43,-36.59,-12.48,-23.21,27.86,-24.38,8.647,3.648,7.484,0,0,0,0,0,0,0,0,0,0,0,0,0,0,0,0,
124,-16.03,-52.4,33.2,-23.92,8.532,-37.28,-0.7074,42.66,-25.31,-6.877,-33.5,13.76,-29.1,-3.463,-4.812,-13.98,0,0,0,0,0,0,0,0,0,0,0,0,0,0,0,0,
125,0.9118,-19.62,32.43,-22.99,16.36,-22.7,-9.955,44.42,-19.67,-7.727,-49.45,3.703,-35.47,-11.59,-14.73,-28.27,0,0,0,0,0,0,0,0,0,0,0,0,0,0,0,0,
126,10.56,36.09,12.36,-9.588,-8.193,-30.71,-18.16,36.98,-25.0,-17.74,-54.79,-6.364,-49.42,-14.57,-30.3,-35.46,0,0,0,0,0,0,0,0,0,0,0,0,0,0,0,0,
127,-7.707,18.97,-14.75,-16.49,-44.6,-50.39,-27.89,31.97,-40.91,-23.44,-57.41,-10.12,-66.72,-18.3,-44.5,-32.92,0,0,0,0,0,0,0,0,0,0,0,0,0,0,0,0,
128,-33.88,-29.87,-31.47,-48.19,-65.62,-68.52,-40.28,23.33,-62.46,-33.44,-64.95,-5.615,-78.89,-25.59,-43.04,-26.06,0,0,0,0,0,0,0,0,0,0,0,0,0,0,0,0,
129,-36.71,-31.59,-26.59,-58.31,-61.52,-69.62,-38.78,7.903,-75.71,-48.83,-60.0,-5.567,-79.53,-30.7,-31.18,-28.06,0,0,0,0,0,0,0,0,0,0,0,0,0,0,0,0,
130,-27.95,-15.13,-13.28,-50.38,-48.7,-55.21,-30.86,-0.942,-74.61,-53.19,-51.44,-14.12,-76.23,-34.39,-31.2,-40.48,0,0,0,0,0,0,0,0,0,0,0,0,0,0,0,0,
131,-30.25,-16.69,-14.13,-49.87,-52.31,-51.81,-37.92,-2.006,-74.77,-54.93,-60.87,-19.13,-78.99,-36.37,-41.54,-49.21,0,0,0,0,0,0,0,0,0,0,0,0,0,0,0,0,
132,-40.09,-23.15,-29.34,-43.51,-67.32,-61.19,-50.29,-1.098,-82.22,-61.86,-71.57,-13.92,-80.1,-26.99,-41.09,-47.18,0,0,0,0,0,0,0,0,0,0,0,0,0,0,0,0,
133,-45.83,-25.5,-42.64,-36.49,-71.38,-62.9,-55.39,1.886,-82.82,-58.99,-66.82,-5.039,-75.41,-12.7,-31.37,-41.74,0,0,0,0,0,0,0,0,0,0,0,0,0,0,0,0,
134,-44.13,-26.63,-40.78,-42.8,-63.98,-58.59,-58.95,1.659,-74.26,-49.12,-58.35,-1.976,-72.63,-11.12,-29.67,-37.73,0,0,0,0,0,0,0,0,0,0,0,0,0,0,0,0,
135,-39.14,-27.73,-26.3,-39.42,-58.35,-55.7,-60.12,-3.405,-65.23,-44.37,-54.27,-4.434,-67.07,-15.9,-31.99,-31.91,0,0,0,0,0,0,0,0,0,0,0,0,0,0,0,0,
136,-40.27,-30.87,-21.51,-23.76,-60.61,-51.75,-56.33,-4.087,-57.16,-39.3,-51.96,-2.372,-53.88,-11.78,-25.67,-24.25,0,0,0,0,0,0,0,0,0,0,0,0,0,0,0,0,
137,-44.01,-34.99,-32.51,-16.65,-61.4,-45.71,-51.46,1.611,-49.61,-29.64,-50.78,4.423,-44.01,-4.658,-18.12,-21.31,0,0,0,0,0,0,0,0,0,0,0,0,0,0,0,0,
138,-35.59,-30.16,-39.48,-10.93,-49.25,-33.89,-47.53,7.468,-42.09,-16.68,-52.33,5.913,-39.96,-2.003,-14.47,-24.13,0,0,0,0,0,0,0,0,0,0,0,0,0,0,0,0,
139,-21.46,-16.13,-39.43,-2.198,-34.96,-17.72,-47.07,11.07,-30.96,-2.153,-57.41,1.515,-35.47,-0.0762,-8.862,-27.44,0,0,0,0,0,0,0,0,0,0,0,0,0,0,0,0,
140,-16.64,-8.775,-39.17,2.824,-30.18,-8.547,-47.23,11.71,-18.15,5.033,-60.75,-2.194,-34.57,-1.818,-9.651,-29.81,0,0,0,0,0,0,0,0,0,0,0,0,0,0,0,0,
141,-16.22,-6.614,-32.09,11.82,-27.03,-7.905,-38.08,13.12,-11.23,2.861,-53.38,-0.1671,-31.84,-5.281,-17.21,-27.84,0,0,0,0,0,0,0,0,0,0,0,0,0,0,0,0,
142,-16.75,-2.356,-24.66,18.23,-21.13,-7.743,-21.74,19.27,-8.126,6.835,-38.55,5.016,-18.36,0.264,-15.82,-22.97,0,0,0,0,0,0,0,0,0,0,0,0,0,0,0,0,
143,-21.18,-8.631,-29.06,6.581,-12.9,-9.772,-8.921,16.7,-3.026,18.91,-28.93,2.933,-12.55,3.859,-9.662,-25.7,0,0,0,0,0,0,0,0,0,0,0,0,0,0,0,0,
144,-19.06,-17.66,-28.85,-11.0,0.4795,-19.55,5.476,-0.0823,1.191,15.67,-16.33,1.046,-17.12,-3.042,-2.958,-25.83,0,0,0,0,0,0,0,0,0,0,0,0,0,0,0,0,
145,-11.38,-18.53,-14.57,-19.0,8.661,-28.39,23.05,-9.06,5.515,-1.318,7.304,11.16,-10.54,-2.753,6.697,-13.91,0,0,0,0,0,0,0,0,0,0,0,0,0,0,0,0,
146,-17.51,-28.32,-14.53,-20.81,-0.0533,-24.86,21.36,-8.732,4.884,-2.171,9.975,13.95,-10.37,2.968,0.6677,-11.99,0,0,0,0,0,0,0,0,0,0,0,0,0,0,0,0,
147,-23.66,-25.64,-29.46,-18.01,-7.267,-9.116,5.965,-16.31,-11.19,11.21,-14.04,4.317,-25.12,5.045,-14.38,-17.27,0,0,0,0,0,0,0,0,0,0,0,0,0,0,0,0,
148,-4.173,1.134,-21.12,-7.023,7.865,14.12,11.24,-19.77,-18.34,22.46,-16.7,8.863,-16.36,18.95,-6.194,-5.138,0,0,0,0,0,0,0,0,0,0,0,0,0,0,0,0,
149,8.218,-11.31,-4.885,2.138,22.08,28.05,23.54,-12.64,2.214,37.71,1.876,23.41,7.479,35.77,9.897,7.479,0,0,0,0,0,0,0,0,0,0,0,0,0,0,0,0,
150,-15.01,-47.35,-20.48,-8.561,10.45,12.56,17.96,-13.86,17.16,48.7,4.173,28.33,10.41,35.28,7.024,5.239,0,0,0,0,0,0,0,0,0,0,0,0,0,0,0,0,
151,-31.51,-25.33,-38.45,-33.39,-4.606,-15.38,19.31,-17.67,13.95,40.48,-0.179,29.6,6.887,33.66,-0.9113,4.206,0,0,0,0,0,0,0,0,0,0,0,0,0,0,0,0,
152,-21.19,9.012,-29.3,-45.67,-4.517,-21.73,34.31,-9.012,15.92,28.91,3.325,30.21,7.216,37.24,0.2138,6.034,0,0,0,0,0,0,0,0,0,0,0,0,0,0,0,0,
153,-13.67,0.4583,-16.99,-39.82,3.109,-2.338,39.52,1.977,21.66,30.4,9.142,32.4,9.691,39.53,12.22,11.05,0,0,0,0,0,0,0,0,0,0,0,0,0,0,0,0,
154,-1.505,9.347,-6.232,-29.53,25.48,32.36,43.18,10.76,32.08,48.45,22.15,45.15,32.51,54.61,31.47,23.76,0,0,0,0,0,0,0,0,0,0,0,0,0,0,0,0,
155,27.74,42.58,12.31,-16.69,57.61,66.72,55.1,20.74,60.31,81.59,32.1,54.26,57.41,70.26,38.66,25.88,0,0,0,0,0,0,0,0,0,0,0,0,0,0,0,0,
156,41.78,43.49,23.48,2.186,67.74,76.54,61.27,25.45,83.51,102.6,27.16,50.5,53.93,63.94,31.8,19.32,0,0,0,0,0,0,0,0,0,0,0,0,0,0,0,0,
157,36.74,31.54,26.63,29.03,64.6,71.08,62.35,29.47,82.52,97.53,26.51,53.39,48.1,63.33,34.99,32.11,0,0,0,0,0,0,0,0,0,0,0,0,0,0,0,0,
158,41.13,40.79,30.52,61.64,76.76,81.58,66.3,36.68,82.18,100.9,32.98,61.89,55.82,79.81,45.71,50.09,0,0,0,0,0,0,0,0,0,0,0,0,0,0,0,0,
159,42.07,46.44,23.17,80.25,79.26,96.33,66.98,33.33,86.82,118.3,28.16,58.23,50.25,78.78,44.22,45.18,0,0,0,0,0,0,0,0,0,0,0,0,0,0,0,0,
160,23.76,33.59,9.147,76.92,57.71,93.99,64.95,26.06,76.08,115.7,25.21,55.48,41.62,69.2,48.06,40.65,0,0,0,0,0,0,0,0,0,0,0,0,0,0,0,0,
161,13.55,21.33,9.226,70.89,53.6,89.4,68.19,29.37,71.61,105.9,39.86,64.85,57.25,79.47,72.42,55.04,0,0,0,0,0,0,0,0,0,0,0,0,0,0,0,0,
162,18.66,17.44,14.82,65.22,68.42,85.84,71.19,28.58,87.81,110.3,50.02,68.49,69.44,86.18,85.61,63.08,0,0,0,0,0,0,0,0,0,0,0,0,0,0,0,0,
163,21.67,20.7,16.5,53.79,68.56,78.46,69.69,23.44,89.95,107.2,45.81,66.94,56.75,81.56,77.6,61.7,0,0,0,0,0,0,0,0,0,0,0,0,0,0,0,0,
164,28.3,33.45,23.84,46.25,65.82,83.43,71.36,28.59,80.57,99.06,44.32,70.48,45.03,85.61,72.84,63.51,0,0,0,0,0,0,0,0,0,0,0,0,0,0,0,0,
165,30.23,36.12,19.03,40.84,63.34,86.17,67.59,27.08,81.35,97.33,36.45,59.07,32.35,74.72,60.98,46.48,0,0,0,0,0,0,0,0,0,0,0,0,0,0,0,0,
166,10.4,12.28,-10.91,34.03,40.07,63.61,47.18,15.58,62.93,78.27,13.22,32.9,4.381,43.26,36.45,13.34,0,0,0,0,0,0,0,0,0,0,0,0,0,0,0,0,
167,-7.263,-8.176,-29.84,30.96,17.11,43.84,30.47,16.35,29.29,50.9,3.334,27.46,-9.615,35.5,31.76,6.284,0,0,0,0,0,0,0,0,0,0,0,0,0,0,0,0,
168,-12.76,-8.183,-26.94,18.77,11.28,38.44,27.8,20.58,24.55,43.99,9.245,42.2,-1.967,47.09,42.37,21.28,0,0,0,0,0,0,0,0,0,0,0,0,0,0,0,0,
169,-25.91,-16.77,-30.61,2.238,4.239,25.65,21.35,17.97,31.97,44.58,4.649,52.27,0.2593,48.69,42.23,28.19,0,0,0,0,0,0,0,0,0,0,0,0,0,0,0,0,
170,-34.73,-28.33,-35.43,8.341,-3.118,16.81,17.45,20.8,25.31,42.68,2.827,58.04,2.778,54.75,43.18,33.55,0,0,0,0,0,0,0,0,0,0,0,0,0,0,0,0,
171,-26.83,-14.67,-28.09,19.58,-1.788,19.75,29.56,24.53,24.13,40.04,16.82,59.53,13.64,65.24,50.63,42.83,0,0,0,0,0,0,0,0,0,0,0,0,0,0,0,0,
172,-20.99,-14.41,-22.19,14.92,3.371,14.94,38.04,22.52,30.35,27.42,18.68,50.32,12.3,57.62,47.21,41.16,0,0,0,0,0,0,0,0,0,0,0,0,0,0,0,0,
173,-22.1,-48.59,-19.63,19.17,7.634,8.939,35.5,21.43,27.84,18.02,6.16,39.39,1.016,42.49,31.87,26.72,0,0,0,0,0,0,0,0,0,0,0,0,0,0,0,0,
174,-16.57,-40.1,-12.63,30.95,8.913,18.54,42.08,22.53,26.28,29.16,11.53,35.21,4.623,41.32,17.05,13.35,0,0,0,0,0,0,0,0,0,0,0,0,0,0,0,0,
175,-0.4027,24.7,-3.397,23.43,16.06,33.14,58.36,28.11,42.46,46.91,32.33,37.73,21.36,53.91,13.08,14.71,0,0,0,0,0,0,0,0,0,0,0,0,0,0,0,0,
176,13.66,46.47,3.944,6.312,28.89,32.44,68.47,32.62,64.51,53.95,38.59,40.24,27.45,62.22,16.79,23.24,0,0,0,0,0,0,0,0,0,0,0,0,0,0,0,0,
177,11.79,11.64,2.362,-9.796,27.32,13.48,66.67,23.14,65.44,45.35,28.23,32.34,17.82,51.73,14.46,19.54,0,0,0,0,0,0,0,0,0,0,0,0,0,0,0,0,
178,3.423,-3.228,-4.725,-23.35,15.28,0.7783,55.02,13.23,50.48,29.21,16.18,26.08,8.276,41.9,8.783,16.82,0,0,0,0,0,0,0,0,0,0,0,0,0,0,0,0,
179,3.376,6.807,-2.753,-14.31,8.35,10.73,42.58,20.38,40.6,25.35,4.195,38.49,4.382,53.71,9.457,32.39,0,0,0,0,0,0,0,0,0,0,0,0,0,0,0,0,
180,6.837,5.751,2.586,7.504,1.927,23.21,39.71,30.99,31.39,36.62,1.877,50.95,5.441,67.19,14.92,44.18,0,0,0,0,0,0,0,0,0,0,0,0,0,0,0,0,
181,12.7,2.129,4.518,14.15,7.933,28.97,54.02,34.6,29.32,49.34,30.62,52.85,23.52,71.76,32.99,49.06,0,0,0,0,0,0,0,0,0,0,0,0,0,0,0,0,
182,32.36,15.57,21.99,25.59,43.25,48.26,93.22,44.79,55.41,63.73,84.82,71.49,61.0,89.48,73.62,78.29,0,0,0,0,0,0,0,0,0,0,0,0,0,0,0,0,
183,60.76,39.82,55.03,53.85,79.53,78.41,140.4,64.54,89.65,81.99,133.4,105.6,95.18,115.3,119.3,121.9,0,0,0,0,0,0,0,0,0,0,0,0,0,0,0,0,
184,76.57,53.51,73.22,63.83,87.02,92.27,157.2,74.38,100.1,89.29,151.4,118.4,103.0,122.7,137.6,139.4,0,0,0,0,0,0,0,0,0,0,0,0,0,0,0,0,
185,72.22,48.02,63.32,47.28,78.3,84.03,132.9,64.93,90.61,80.26,125.8,105.2,79.0,113.7,111.1,123.0,0,0,0,0,0,0,0,0,0,0,0,0,0,0,0,0,
186,52.47,31.38,28.47,26.88,59.7,65.27,84.67,48.51,67.56,67.95,66.58,82.88,35.97,95.29,56.73,87.63,0,0,0,0,0,0,0,0,0,0,0,0,0,0,0,0,
187,17.25,7.8,-22.94,1.859,21.97,39.02,34.08,32.79,30.21,53.26,13.06,51.86,-1.341,62.86,12.89,49.71,0,0,0,0,0,0,0,0,0,0,0,0,0,0,0,0,
188,-22.62,-18.32,-60.44,-34.71,-11.96,10.02,7.411,16.19,1.302,27.5,-8.013,21.77,-16.72,32.06,-5.623,24.77,0,0,0,0,0,0,0,0,0,0,0,0,0,0,0,0,
189,-42.75,-36.14,-62.37,-63.96,-16.96,-6.257,10.34,6.742,0.6116,1.339,-7.171,11.2,-14.41,22.46,-11.34,12.36,0,0,0,0,0,0,0,0,0,0,0,0,0,0,0,0,
190,-39.41,-38.64,-47.02,-63.55,-10.63,-5.096,19.11,10.66,9.391,-6.448,-3.298,11.43,-9.341,23.45,-12.24,4.039,0,0,0,0,0,0,0,0,0,0,0,0,0,0,0,0,
191,-34.02,-29.51,-39.62,-42.24,-11.63,3.76,17.92,17.32,6.308,1.186,-2.924,7.389,-12.67,21.85,-12.58,3.857,0,0,0,0,0,0,0,0,0,0,0,0,0,0,0,0,
192,-39.59,-23.14,-45.65,-25.6,-14.24,14.77,9.226,18.55,-0.0641,9.035,-5.64,5.032,-22.72,23.67,-16.34,12.19,0,0,0,0,0,0,0,0,0,0,0,0,0,0,0,0,
193,-49.0,-29.73,-56.87,-25.21,-20.45,12.94,-2.659,14.23,-4.097,9.641,-10.55,1.921,-31.94,24.66,-19.91,11.84,0,0,0,0,0,0,0,0,0,0,0,0,0,0,0,0,
194,-58.05,-48.22,-61.86,-42.34,-37.44,-18.93,-11.21,0.9585,-16.55,-5.507,-11.74,-10.38,-33.05,15.49,-18.55,2.75,0,0,0,0,0,0,0,0,0,0,0,0,0,0,0,0,
195,-63.53,-61.88,-53.91,-57.69,-44.9,-41.12,-2.543,-10.87,-23.67,-26.2,5.622,-11.78,-12.56,18.82,-5.377,12.49,0,0,0,0,0,0,0,0,0,0,0,0,0,0,0,0,
196,-42.51,-41.14,-34.39,-39.13,-18.95,-5.466,23.6,-6.408,1.354,-11.2,36.87,6.704,24.07,47.02,16.21,39.21,0,0,0,0,0,0,0,0,0,0,0,0,0,0,0,0,
197,-0.7134,-1.586,-18.62,-5.313,11.58,37.62,36.32,-2.863,32.85,28.63,50.02,12.06,38.9,57.68,20.18,45.01,0,0,0,0,0,0,0,0,0,0,0,0,0,0,0,0,
198,9.158,2.321,-19.05,0.4755,5.134,25.65,21.82,-13.37,23.05,28.96,38.41,-5.674,21.8,30.2,1.502,23.36,0,0,0,0,0,0,0,0,0,0,0,0,0,0,0,0,
199,-14.74,-21.82,-23.74,-8.974,-16.21,-5.327,10.78,-17.77,-10.36,-1.611,25.83,-17.73,6.284,4.502,-10.82,4.602,0,0,0,0,0,0,0,0,0,0,0,0,0,0,0,0,
200,-25.46,-31.56,-26.16,-7.407,-18.62,-16.59,14.6,-16.11,-22.33,-11.9,19.33,-15.95,5.528,-0.9188,-8.165,6.375,0,0,0,0,0,0,0,0,0,0,0,0,0,0,0,0,
201,-27.74,-36.13,-35.55,-5.713,-18.56,-24.56,13.29,-24.61,-20.45,-13.14,17.12,-11.58,6.387,-2.529,-4.231,18.82,0,0,0,0,0,0,0,0,0,0,0,0,0,0,0,0,
202,-39.76,-47.43,-42.6,-12.15,-30.85,-33.27,6.475,-34.4,-27.58,-22.48,23.28,-9.204,1.922,-2.75,-2.719,20.05,0,0,0,0,0,0,0,0,0,0,0,0,0,0,0,0,
203,-41.74,-50.39,-36.79,-23.1,-43.69,-38.75,0.3647,-43.0,-38.0,-29.89,25.25,-13.31,-11.98,-5.409,-6.963,7.813,0,0,0,0,0,0,0,0,0,0,0,0,0,0,0,0,
204,-37.95,-52.94,-34.13,-37.24,-50.37,-47.06,-9.46,-54.61,-45.18,-42.74,9.507,-20.05,-27.27,-16.9,-16.13,6.212,0,0,0,0,0,0,0,0,0,0,0,0,0,0,0,0,
205,-49.01,-64.13,-45.32,-38.71,-48.84,-49.48,-16.07,-51.15,-47.1,-53.68,-6.994,-18.37,-24.46,-20.44,-15.41,19.78,0,0,0,0,0,0,0,0,0,0,0,0,0,0,0,0,
206,-57.43,-63.49,-53.99,-16.66,-40.68,-42.83,-12.74,-31.62,-39.01,-41.55,-5.444,-13.2,-11.97,-10.63,-6.244,24.33,0,0,0,0,0,0,0,0,0,0,0,0,0,0,0,0,
207,-49.56,-48.87,-46.52,-2.962,-36.82,-39.56,-6.649,-20.19,-30.48,-27.53,4.071,-14.04,-13.31,-8.002,-3.082,15.73,0,0,0,0,0,0,0,0,0,0,0,0,0,0,0,0,
208,-46.62,-46.98,-38.59,-27.46,-42.67,-43.4,-1.584,-19.42,-31.0,-34.76,13.82,-11.58,-18.34,-10.65,0.2261,14.8,0,0,0,0,0,0,0,0,0,0,0,0,0,0,0,0,
209,-61.18,-62.22,-50.81,-57.46,-56.31,-53.4,-1.348,-17.89,-32.87,-44.1,28.11,1.143,-12.27,-2.484,6.58,22.49,0,0,0,0,0,0,0,0,0,0,0,0,0,0,0,0,
210,-83.79,-78.58,-76.27,-57.41,-75.44,-67.71,-17.35,-18.99,-39.86,-45.01,30.37,7.338,-15.01,2.239,1.151,21.41,0,0,0,0,0,0,0,0,0,0,0,0,0,0,0,0,
211,-100.6,-88.02,-92.54,-52.08,-86.73,-74.7,-38.09,-27.78,-60.38,-50.67,15.24,1.941,-28.18,-5.01,-5.654,19.81,0,0,0,0,0,0,0,0,0,0,0,0,0,0,0,0,
212,-96.26,-81.31,-84.67,-59.58,-74.56,-66.27,-31.44,-34.38,-67.97,-53.08,12.65,6.545,-18.47,0.3521,8.031,36.24,0,0,0,0,0,0,0,0,0,0,0,0,0,0,0,0,
213,-71.73,-60.1,-58.95,-59.29,-48.72,-48.89,-3.513,-29.96,-40.41,-37.87,23.63,17.23,8.693,18.72,26.55,53.28,0,0,0,0,0,0,0,0,0,0,0,0,0,0,0,0,
214,-47.14,-42.52,-38.31,-47.26,-28.94,-28.75,11.87,-23.58,-6.9,-17.51,25.46,9.257,17.77,24.33,25.09,47.74,0,0,0,0,0,0,0,0,0,0,0,0,0,0,0,0,
215,-33.08,-32.07,-29.25,-31.81,-16.69,-9.243,14.87,-22.17,3.234,-4.629,29.52,-5.338,11.39,20.21,8.626,32.46,0,0,0,0,0,0,0,0,0,0,0,0,0,0,0,0,
216,-29.76,-29.13,-22.55,-17.18,-8.683,-1.488,18.66,-17.16,3.083,1.316,44.33,-5.353,9.185,19.21,-5.174,25.33,0,0,0,0,0,0,0,0,0,0,0,0,0,0,0,0,
217,-35.11,-34.39,-20.1,-17.42,-2.722,-2.818,17.61,-7.538,12.04,1.91,50.58,-1.542,12.19,18.04,-8.322,23.7,0,0,0,0,0,0,0,0,0,0,0,0,0,0,0,0,
218,-37.54,-28.27,-19.74,-29.73,7.664,5.644,14.03,-3.178,26.76,7.879,46.19,-1.177,17.21,18.79,-4.881,25.6,0,0,0,0,0,0,0,0,0,0,0,0,0,0,0,0,
219,-30.37,-10.45,-10.6,-33.61,19.7,18.16,18.11,-6.256,36.68,22.83,48.51,3.736,22.09,23.66,1.416,37.73,0,0,0,0,0,0,0,0,0,0,0,0,0,0,0,0,
220,-16.9,-0.8893,3.132,-27.96,29.61,22.75,30.1,-10.83,45.75,31.22,60.71,12.1,27.74,31.06,11.4,57.46,0,0,0,0,0,0,0,0,0,0,0,0,0,0,0,0,
221,-1.052,6.624,14.37,-22.45,42.33,34.33,45.02,-8.719,62.0,35.58,68.9,21.63,40.6,47.06,19.03,70.95,0,0,0,0,0,0,0,0,0,0,0,0,0,0,0,0,
222,8.092,16.94,26.52,-21.28,53.06,52.05,54.97,1.197,74.45,51.43,68.67,30.32,57.67,62.45,19.48,70.17,0,0,0,0,0,0,0,0,0,0,0,0,0,0,0,0,
223,11.45,22.48,38.42,-22.4,55.3,57.45,59.07,7.887,71.72,65.52,71.68,27.12,66.04,58.47,17.15,56.29,0,0,0,0,0,0,0,0,0,0,0,0,0,0,0,0,
224,20.45,29.74,45.6,-16.81,56.13,57.59,62.73,7.544,64.09,60.59,76.1,12.76,59.04,44.69,10.34,36.47,0,0,0,0,0,0,0,0,0,0,0,0,0,0,0,0,
225,24.04,31.86,47.03,-10.73,53.46,52.87,58.48,7.547,57.29,46.44,68.84,0.8745,39.92,35.02,-5.633,22.93,0,0,0,0,0,0,0,0,0,0,0,0,0,0,0,0,
226,13.64,18.84,44.53,-16.37,35.94,30.37,44.99,6.683,38.47,30.44,56.93,-5.214,18.81,24.97,-19.43,21.54,0,0,0,0,0,0,0,0,0,0,0,0,0,0,0,0,
227,13.22,12.55,46.34,-21.49,12.23,12.63,39.69,0.6552,10.13,12.56,53.83,-3.161,9.034,20.54,-15.8,29.15,0,0,0,0,0,0,0,0,0,0,0,0,0,0,0,0,
228,22.8,15.65,49.71,-23.04,-5.469,14.19,38.37,-6.312,-5.067,2.411,49.41,6.421,9.127,22.46,-9.349,35.1,0,0,0,0,0,0,0,0,0,0,0,0,0,0,0,0,
229,11.57,2.291,38.77,-33.94,-22.86,7.631,22.36,-11.36,-7.206,-3.277,26.92,3.774,-1.277,7.84,-28.66,23.36,0,0,0,0,0,0,0,0,0,0,0,0,0,0,0,0,
230,-8.794,-15.18,18.71,-39.98,-39.45,-8.706,2.508,-17.65,-17.52,-15.99,-2.682,-15.28,-27.21,-23.81,-59.68,0.4586,0,0,0,0,0,0,0,0,0,0,0,0,0,0,0,0,
231,-10.31,-15.17,4.412,-32.5,-51.47,-19.5,-7.448,-28.57,-38.86,-30.99,-15.13,-29.07,-51.2,-49.91,-70.27,-11.58,0,0,0,0,0,0,0,0,0,0,0,0,0,0,0,0,
232,-11.57,-19.43,-5.564,-31.99,-66.44,-39.2,-16.58,-39.26,-59.22,-48.52,-14.84,-37.17,-67.64,-66.57,-76.54,-21.83,0,0,0,0,0,0,0,0,0,0,0,0,0,0,0,0,
233,-30.47,-39.49,-14.02,-39.45,-80.33,-64.67,-29.4,-40.54,-70.93,-71.05,-24.73,-53.6,-83.7,-80.82,-102.7,-45.61,0,0,0,0,0,0,0,0,0,0,0,0,0,0,0,0,
234,-45.93,-49.68,-22.46,-40.22,-83.95,-71.39,-41.17,-36.21,-76.41,-86.0,-40.95,-68.66,-97.18,-93.22,-123.8,-61.91,0,0,0,0,0,0,0,0,0,0,0,0,0,0,0,0,
235,-32.97,-34.71,-25.47,-29.68,-78.7,-60.28,-45.32,-31.7,-83.0,-87.17,-38.66,-66.33,-97.75,-95.42,-114.9,-53.97,0,0,0,0,0,0,0,0,0,0,0,0,0,0,0,0,
236,6.038,-3.993,-14.81,-9.275,-65.96,-42.21,-41.18,-22.11,-80.41,-74.87,-22.61,-53.44,-86.03,-83.27,-96.41,-41.33,0,0,0,0,0,0,0,0,0,0,0,0,0,0,0,0,
237,49.78,34.27,0.3282,12.39,-50.84,-21.94,-40.12,-10.98,-62.65,-54.63,-20.23,-45.32,-79.18,-73.65,-92.24,-40.08,0,0,0,0,0,0,0,0,0,0,0,0,0,0,0,0,
238,107.8,90.25,30.77,39.23,-26.69,3.738,-34.32,-2.382,-52.43,-41.59,-21.81,-38.1,-76.47,-68.85,-91.3,-36.25,0,0,0,0,0,0,0,0,0,0,0,0,0,0,0,0,
239,198.4,167.1,87.66,81.32,20.4,44.84,-8.122,9.216,-46.96,-30.0,0.0489,-21.93,-52.82,-46.18,-71.93,-15.7,0,0,0,0,0,0,0,0,0,0,0,0,0,0,0,0,
240,294.7,251.3,136.8,134.8,74.43,95.99,24.56,22.25,-16.46,-4.697,32.09,-4.712,-10.67,-10.5,-38.01,9.443,0,0,0,0,0,0,0,0,0,0,0,0,0,0,0,0,
241,407.2,358.5,190.9,208.3,125.8,149.3,54.09,38.28,28.84,26.7,48.48,3.659,19.25,14.26,-14.89,19.11,0,0,0,0,0,0,0,0,0,0,0,0,0,0,0,0,
242,569.7,495.1,278.9,294.2,181.6,200.8,78.1,62.95,57.12,50.84,49.46,5.329,28.14,26.09,-12.67,17.01,0,0,0,0,0,0,0,0,0,0,0,0,0,0,0,0,
243,696.2,605.1,332.0,359.5,225.7,240.2,84.87,87.64,70.16,65.21,49.09,11.29,36.41,38.66,-9.049,26.65,0,0,0,0,0,0,0,0,0,0,0,0,0,0,0,0,
244,709.5,660.3,335.7,413.7,261.6,281.0,89.34,106.0,93.33,85.84,54.51,29.3,56.8,59.94,2.931,45.66,0,0,0,0,0,0,0,0,0,0,0,0,0,0,0,0,
245,687.6,686.8,371.4,464.1,306.0,332.0,101.9,118.7,128.1,120.4,57.26,42.33,70.57,75.77,0.5009,44.26,0,0,0,0,0,0,0,0,0,0,0,0,0,0,0,0,
246,695.3,690.6,418.5,483.4,334.3,362.9,105.7,123.5,146.1,138.2,62.25,38.8,69.24,75.6,1.075,34.68,0,0,0,0,0,0,0,0,0,0,0,0,0,0,0,0,
247,699.9,683.3,419.2,488.8,336.5,369.2,110.2,123.3,144.7,132.1,80.21,40.0,75.77,74.54,31.02,51.15,0,0,0,0,0,0,0,0,0,0,0,0,0,0,0,0,
248,693.1,688.9,411.0,500.5,332.8,369.3,119.7,119.3,144.1,130.5,81.75,49.88,84.75,72.63,49.23,68.4,0,0,0,0,0,0,0,0,0,0,0,0,0,0,0,0,
249,697.3,697.8,410.9,495.1,322.4,357.7,110.4,112.9,137.0,128.7,59.22,53.36,76.76,63.94,37.92,62.01,0,0,0,0,0,0,0,0,0,0,0,0,0,0,0,0,
250,698.9,690.4,385.9,472.4,306.2,340.1,92.93,112.4,123.3,120.0,59.32,55.23,72.58,66.05,39.74,62.31,0,0,0,0,0,0,0,0,0,0,0,0,0,0,0,0,
251,671.0,655.9,348.8,440.5,294.6,328.3,89.14,111.9,124.2,122.6,81.26,54.2,82.16,76.43,50.37,71.32,0,0,0,0,0,0,0,0,0,0,0,0,0,0,0,0,
252,620.1,594.0,328.4,398.4,285.1,315.3,91.9,105.1,132.0,132.7,85.39,47.07,89.58,81.74,49.05,68.6,0,0,0,0,0,0,0,0,0,0,0,0,0,0,0,0,
253,563.0,529.8,308.5,363.8,271.1,299.4,92.12,101.4,131.5,141.5,74.62,49.99,95.57,89.84,54.49,68.41,0,0,0,0,0,0,0,0,0,0,0,0,0,0,0,0,
254,490.8,473.0,264.9,325.7,238.9,268.3,77.26,97.05,123.7,143.8,57.97,56.8,91.32,87.65,54.47,66.1,0,0,0,0,0,0,0,0,0,0,0,0,0,0,0,0,
255,405.9,404.4,212.3,266.3,189.0,210.0,44.76,85.59,100.4,121.4,35.73,49.2,69.26,62.77,33.85,45.37,0,0,0,0,0,0,0,0,0,0,0,0,0,0,0,0,
256,341.5,334.2,178.7,224.6,155.8,165.4,21.35,80.0,69.6,89.48,27.32,39.78,55.85,46.87,25.33,34.84,0,0,0,0,0,0,0,0,0,0,0,0,0,0,0,0,
257,302.1,290.7,158.2,215.1,147.9,165.1,12.31,77.32,57.25,86.4,30.77,39.08,55.75,51.88,31.83,46.02,0,0,0,0,0,0,0,0,0,0,0,0,0,0,0,0,
258,256.1,257.7,129.2,193.1,130.2,167.0,-1.54,62.5,51.68,94.27,27.04,39.2,50.09,53.65,30.26,50.02,0,0,0,0,0,0,0,0,0,0,0,0,0,0,0,0,
259,202.1,208.3,98.55,155.5,100.2,138.7,-10.36,47.24,33.21,79.4,28.76,39.25,47.33,50.33,32.55,43.88,0,0,0,0,0,0,0,0,0,0,0,0,0,0,0,0,
260,164.3,157.3,82.14,135.5,86.72,106.5,-0.8893,42.87,22.66,62.58,44.64,36.45,50.11,47.72,41.98,39.02,0,0,0,0,0,0,0,0,0,0,0,0,0,0,0,0,
261,137.2,122.1,75.83,126.5,85.75,90.24,15.28,34.59,31.38,64.68,56.13,25.1,47.68,37.09,42.08,32.4,0,0,0,0,0,0,0,0,0,0,0,0,0,0,0,0,
262,112.0,98.48,79.71,112.5,86.36,84.15,34.34,19.21,42.19,66.29,61.13,12.96,47.83,22.66,35.33,27.73,0,0,0,0,0,0,0,0,0,0,0,0,0,0,0,0,
263,99.65,87.82,94.08,99.35,93.99,85.38,52.29,11.27,47.88,59.25,67.99,8.051,48.04,16.63,27.02,29.3,0,0,0,0,0,0,0,0,0,0,0,0,0,0,0,0,
264,86.27,79.35,96.58,84.59,94.44,87.38,54.74,10.4,44.34,58.48,68.64,8.953,39.45,19.38,20.44,32.08,0,0,0,0,0,0,0,0,0,0,0,0,0,0,0,0,
265,62.2,59.72,86.82,74.25,80.88,82.88,46.74,12.09,28.93,64.23,55.63,11.45,28.89,21.28,17.42,27.71,0,0,0,0,0,0,0,0,0,0,0,0,0,0,0,0,
266,53.21,47.17,85.62,82.28,73.82,75.11,36.6,19.39,12.32,61.98,32.66,7.296,8.412,7.959,4.091,5.907,0,0,0,0,0,0,0,0,0,0,0,0,0,0,0,0,
267,45.73,39.46,74.94,85.13,65.68,57.94,21.18,21.96,-5.333,43.61,13.72,-8.03,-22.84,-23.23,-17.14,-25.26,0,0,0,0,0,0,0,0,0,0,0,0,0,0,0,0,
268,7.19,10.29,38.85,63.83,40.38,27.8,9.322,10.96,-26.84,12.78,11.65,-23.93,-35.6,-54.45,-23.38,-39.45,0,0,0,0,0,0,0,0,0,0,0,0,0,0,0,0,
269,-29.45,-18.67,11.99,46.49,25.52,13.08,8.136,2.837,-33.8,-12.68,19.49,-25.43,-22.6,-62.87,-14.11,-28.61,0,0,0,0,0,0,0,0,0,0,0,0,0,0,0,0,
270,-30.13,-18.13,14.5,48.5,35.97,28.65,10.26,8.546,-17.58,-12.12,26.2,-13.23,-4.373,-45.86,-4.912,-11.03,0,0,0,0,0,0,0,0,0,0,0,0,0,0,0,0,
271,-24.01,-9.386,18.48,53.2,41.12,40.9,9.01,14.2,-2.25,4.614,28.73,-2.835,6.054,-29.06,-0.9842,-5.251,0,0,0,0,0,0,0,0,0,0,0,0,0,0,0,0,
272,-35.09,-11.6,8.663,52.07,33.59,32.43,3.616,12.37,-4.087,11.87,27.75,-1.486,9.632,-25.24,4.708,-6.85,0,0,0,0,0,0,0,0,0,0,0,0,0,0,0,0,
273,-43.53,-17.64,5.49,45.68,36.05,25.96,1.622,11.13,-5.875,17.61,29.97,-4.444,14.39,-21.14,15.3,-2.178,0,0,0,0,0,0,0,0,0,0,0,0,0,0,0,0,
274,-37.16,-24.04,12.24,38.67,40.1,25.29,2.683,11.75,-3.542,29.3,28.21,-12.85,14.1,-25.23,18.15,1.929,0,0,0,0,0,0,0,0,0,0,0,0,0,0,0,0,
275,-31.01,-25.75,10.37,39.66,31.07,19.11,-1.552,9.677,-14.81,21.78,14.38,-24.42,2.71,-46.25,14.58,2.619,0,0,0,0,0,0,0,0,0,0,0,0,0,0,0,0,
276,-30.44,-21.52,9.711,41.96,31.04,13.86,0.9534,4.18,-21.74,0.268,11.63,-24.07,-0.3033,-54.86,20.8,16.44,0,0,0,0,0,0,0,0,0,0,0,0,0,0,0,0,
277,-28.92,-23.44,23.37,36.48,48.99,12.25,13.6,-2.747,-3.285,-4.484,23.52,-12.61,8.599,-41.85,26.77,32.44,0,0,0,0,0,0,0,0,0,0,0,0,0,0,0,0,
278,-27.61,-22.88,27.49,32.72,57.27,9.668,8.969,-6.667,10.65,-0.2432,18.61,-11.42,5.32,-37.23,16.8,22.29,0,0,0,0,0,0,0,0,0,0,0,0,0,0,0,0,
279,-28.72,-13.17,6.109,31.91,42.09,3.502,-17.26,-10.98,-2.641,-7.07,-3.196,-25.6,-20.29,-53.84,-6.097,-6.472,0,0,0,0,0,0,0,0,0,0,0,0,0,0,0,0,
280,-34.68,-21.19,-19.85,25.37,21.06,-10.29,-36.33,-20.1,-28.84,-25.37,-23.24,-39.18,-58.23,-78.36,-40.13,-33.34,0,0,0,0,0,0,0,0,0,0,0,0,0,0,0,0,
281,-40.57,-35.24,-27.01,24.77,17.15,-19.62,-37.82,-21.95,-49.61,-45.03,-42.0,-44.17,-85.7,-93.34,-70.39,-51.84,0,0,0,0,0,0,0,0,0,0,0,0,0,0,0,0,
282,-33.95,-24.04,-19.77,37.5,30.84,-10.19,-35.66,-16.71,-50.88,-46.59,-50.56,-41.33,-85.98,-88.37,-73.5,-51.7,0,0,0,0,0,0,0,0,0,0,0,0,0,0,0,0,
283,-24.34,-13.14,-16.14,49.57,41.2,6.393,-33.88,-19.9,-38.48,-27.49,-39.14,-28.18,-71.92,-68.91,-59.51,-34.24,0,0,0,0,0,0,0,0,0,0,0,0,0,0,0,0,
284,-23.14,-5.416,-13.66,52.63,38.92,14.77,-26.52,-20.9,-30.69,-10.06,-25.65,-12.11,-60.63,-51.24,-47.66,-19.83,0,0,0,0,0,0,0,0,0,0,0,0,0,0,0,0,
285,-22.37,6.018,-5.955,39.61,31.8,9.4,-21.68,-10.27,-24.84,-3.852,-21.32,-7.074,-52.58,-47.5,-32.58,-12.22,0,0,0,0,0,0,0,0,0,0,0,0,0,0,0,0,
286,-28.99,-29.61,-8.767,13.11,22.65,-6.652,-29.18,-6.445,-17.84,-3.619,-16.83,-9.367,-47.71,-53.74,-14.57,-4.942,0,0,0,0,0,0,0,0,0,0,0,0,0,0,0,0,
287,-46.37,-74.65,-24.59,-3.586,9.877,-18.8,-38.79,-13.45,-20.45,-10.69,-10.39,-10.67,-44.58,-58.22,-3.313,-0.5989,0,0,0,0,0,0,0,0,0,0,0,0,0,0,0,0,
288,-53.25,-44.92,-33.16,-10.27,0.6271,-23.57,-36.11,-22.25,-24.86,-26.02,-2.145,-16.73,-36.79,-60.64,6.516,5.423,0,0,0,0,0,0,0,0,0,0,0,0,0,0,0,0,
289,-52.37,-9.991,-33.78,-11.78,0.0714,-27.82,-28.23,-31.68,-17.02,-39.79,3.85,-28.12,-33.29,-67.24,12.08,12.33,0,0,0,0,0,0,0,0,0,0,0,0,0,0,0,0,
290,-60.33,-30.58,-39.33,14.87,-4.33,-25.75,-34.92,-31.84,-17.34,-44.05,-7.133,-32.34,-48.42,-75.48,2.649,8.865,0,0,0,0,0,0,0,0,0,0,0,0,0,0,0,0,
291,-64.65,-40.55,-43.64,52.7,-14.71,-14.15,-49.31,-20.21,-41.21,-43.25,-23.44,-26.51,-66.81,-75.42,-4.069,4.287,0,0,0,0,0,0,0,0,0,0,0,0,0,0,0,0,
292,-57.07,-31.78,-40.35,59.28,-13.04,-3.875,-50.15,-13.55,-56.62,-40.67,-23.85,-25.09,-67.61,-65.72,4.446,5.857,0,0,0,0,0,0,0,0,0,0,0,0,0,0,0,0,
293,-50.25,-34.41,-37.75,56.13,-2.095,1.14,-47.34,-15.42,-49.23,-34.91,-17.85,-33.64,-56.07,-56.5,10.52,3.529,0,0,0,0,0,0,0,0,0,0,0,0,0,0,0,0,
294,-41.94,-19.2,-32.56,74.46,12.08,13.59,-50.59,-14.31,-40.01,-28.22,-8.252,-33.24,-34.33,-44.82,15.6,12.14,0,0,0,0,0,0,0,0,0,0,0,0,0,0,0,0,
295,-23.36,9.873,-20.13,91.56,38.3,38.08,-48.41,-3.347,-24.11,-18.68,4.833,-12.78,-7.994,-20.59,29.47,43.71,0,0,0,0,0,0,0,0,0,0,0,0,0,0,0,0,
296,-10.23,17.52,-17.8,88.81,53.62,52.43,-49.7,14.14,-7.022,-5.637,0.482,6.219,-4.119,-0.6361,32.13,60.74,0,0,0,0,0,0,0,0,0,0,0,0,0,0,0,0,
297,-19.62,6.321,-32.48,77.33,37.29,43.29,-64.62,21.08,-19.6,-1.232,-11.72,1.675,-21.59,-5.173,16.87,39.98,0,0,0,0,0,0,0,0,0,0,0,0,0,0,0,0,
298,-35.84,-8.435,-44.44,68.99,17.43,28.94,-77.44,8.234,-42.54,-12.52,-9.611,-19.75,-34.77,-23.6,5.058,13.78,0,0,0,0,0,0,0,0,0,0,0,0,0,0,0,0,
299,-36.44,-13.38,-39.47,65.68,7.368,18.84,-80.08,-8.761,-47.87,-29.73,-11.56,-40.32,-45.69,-39.86,-1.069,2.352,0,0,0,0,0,0,0,0,0,0,0,0,0,0,0,0,
300,-30.85,-9.915,-26.43,55.43,-5.939,6.017,-76.25,-16.98,-57.63,-41.64,-25.95,-49.13,-59.0,-47.96,-8.198,-5.205,0,0,0,0,0,0,0,0,0,0,0,0,0,0,0,0,
301,-34.47,-14.18,-21.91,37.39,-13.53,-1.408,-64.63,-17.82,-72.62,-46.69,-26.17,-40.83,-58.41,-41.87,-0.6358,-2.13,0,0,0,0,0,0,0,0,0,0,0,0,0,0,0,0,
302,-40.27,-18.78,-25.5,37.79,-13.17,1.727,-47.32,-13.52,-65.92,-46.8,-4.195,-24.08,-41.35,-28.01,23.91,17.13,0,0,0,0,0,0,0,0,0,0,0,0,0,0,0,0,
303,-41.26,-14.56,-21.55,63.54,-15.74,8.615,-25.19,-4.364,-49.14,-40.0,25.86,-8.399,-14.74,-11.73,47.55,40.06,0,0,0,0,0,0,0,0,0,0,0,0,0,0,0,0,
304,-23.46,-0.7598,7.81,95.24,5.925,37.44,16.13,20.58,-29.05,-16.12,71.43,23.27,33.2,26.75,82.81,75.97,0,0,0,0,0,0,0,0,0,0,0,0,0,0,0,0,
305,27.17,35.09,62.46,123.5,65.84,92.95,71.41,62.43,23.32,30.94,130.8,69.78,88.58,77.62,130.1,118.7,0,0,0,0,0,0,0,0,0,0,0,0,0,0,0,0,
306,61.97,62.93,88.78,129.9,97.8,114.3,86.6,83.2,76.9,67.9,144.1,84.29,93.07,86.4,133.4,122.4,0,0,0,0,0,0,0,0,0,0,0,0,0,0,0,0,
307,32.62,38.27,46.1,97.63,63.86,71.72,41.89,61.93,61.02,52.36,87.9,56.28,44.64,51.23,82.37,86.82,0,0,0,0,0,0,0,0,0,0,0,0,0,0,0,0,
308,-12.4,-0.2218,-10.88,58.61,24.17,25.55,-6.986,31.11,5.995,8.166,30.66,23.93,4.009,17.78,32.58,45.72,0,0,0,0,0,0,0,0,0,0,0,0,0,0,0,0,
309,-31.78,-11.0,-34.17,42.29,9.472,11.46,-32.5,14.82,-23.63,-19.09,2.709,-0.9993,-21.71,-8.998,-1.703,1.012,0,0,0,0,0,0,0,0,0,0,0,0,0,0,0,0,
310,-50.92,-20.87,-42.08,31.02,-3.517,6.915,-46.9,9.417,-44.81,-29.61,-19.68,-20.03,-47.01,-30.93,-28.11,-34.14,0,0,0,0,0,0,0,0,0,0,0,0,0,0,0,0,
311,-64.64,-34.59,-34.18,17.05,-0.786,7.046,-38.29,9.44,-59.6,-28.68,-24.53,-23.18,-43.73,-30.0,-27.88,-36.81,0,0,0,0,0,0,0,0,0,0,0,0,0,0,0,0,
312,-54.04,-29.65,-13.23,14.3,23.42,15.62,-13.02,6.364,-36.5,-18.03,-10.61,-16.37,-14.76,-18.0,-5.05,-21.93,0,0,0,0,0,0,0,0,0,0,0,0,0,0,0,0,
313,-40.11,-15.39,-10.88,19.1,37.53,23.62,0.6724,1.145,-4.593,-10.65,-4.349,-11.93,5.287,-11.78,13.64,-7.976,0,0,0,0,0,0,0,0,0,0,0,0,0,0,0,0,
314,-35.98,-8.896,-18.34,20.51,39.03,27.8,2.624,-1.845,2.746,-2.332,-1.284,-15.83,9.639,-8.626,15.32,-2.063,0,0,0,0,0,0,0,0,0,0,0,0,0,0,0,0,
315,-37.67,-13.44,-16.61,17.54,38.46,26.75,-2.343,-10.82,-1.567,5.606,5.377,-26.88,-0.2683,-11.75,3.0,-8.554,0,0,0,0,0,0,0,0,0,0,0,0,0,0,0,0,
316,-40.3,-19.92,-17.04,10.54,33.84,25.32,-9.941,-15.29,-7.456,1.558,4.409,-30.07,-14.0,-14.07,-6.817,-12.29,0,0,0,0,0,0,0,0,0,0,0,0,0,0,0,0,
317,-36.52,-18.95,-15.71,0.1627,28.18,26.18,-8.0,-2.82,-8.291,1.865,-4.472,-23.08,-12.97,-6.178,-8.961,-7.509,0,0,0,0,0,0,0,0,0,0,0,0,0,0,0,0,
318,-37.47,-19.6,-7.754,-6.187,14.97,15.94,-6.594,1.292,-3.192,11.65,-16.04,-21.51,-9.421,-6.589,-16.86,-10.96,0,0,0,0,0,0,0,0,0,0,0,0,0,0,0,0,
319,-53.81,-28.7,-8.768,-4.006,-5.751,-2.463,-17.3,-14.41,-9.809,6.163,-25.94,-29.64,-17.11,-24.53,-27.42,-23.07,0,0,0,0,0,0,0,0,0,0,0,0,0,0,0,0,
320,-68.74,-42.26,-16.32,-3.42,-11.76,-15.09,-20.8,-24.74,-23.89,-15.14,-26.5,-40.36,-19.51,-38.58,-26.44,-31.1,0,0,0,0,0,0,0,0,0,0,0,0,0,0,0,0,
321,-71.15,-52.21,-20.76,-9.987,-3.289,-28.45,-6.081,-21.97,-22.59,-30.07,-18.63,-39.26,-12.98,-33.86,-17.28,-30.47,0,0,0,0,0,0,0,0,0,0,0,0,0,0,0,0,
322,-69.01,-50.19,-27.28,-13.49,1.415,-39.87,5.697,-16.62,-15.13,-28.74,-15.97,-22.38,-16.48,-21.08,-12.06,-25.86,0,0,0,0,0,0,0,0,0,0,0,0,0,0,0,0,
323,-66.95,-51.68,-30.58,-11.21,3.404,-38.92,4.552,-12.65,-23.05,-19.62,-23.92,-18.11,-31.98,-22.06,-19.37,-34.35,0,0,0,0,0,0,0,0,0,0,0,0,0,0,0,0,
324,-68.07,-60.59,-26.4,-8.778,0.2147,-41.74,2.677,-13.98,-36.85,-20.41,-31.3,-37.92,-46.5,-38.01,-38.96,-60.49,0,0,0,0,0,0,0,0,0,0,0,0,0,0,0,0,
325,-73.12,-55.26,-24.93,-2.778,-11.86,-49.75,0.1994,-16.55,-41.21,-29.61,-33.22,-49.03,-52.01,-42.14,-50.89,-75.1,0,0,0,0,0,0,0,0,0,0,0,0,0,0,0,0,
326,-67.4,-58.12,-19.58,7.09,-8.247,-41.46,-1.9,-13.39,-36.67,-27.08,-31.17,-40.61,-42.93,-28.97,-40.38,-63.46,0,0,0,0,0,0,0,0,0,0,0,0,0,0,0,0,
327,-50.06,-77.94,-9.509,4.803,10.85,-39.83,3.362,-16.93,-26.96,-22.57,-25.56,-38.79,-31.02,-29.74,-32.76,-55.34,0,0,0,0,0,0,0,0,0,0,0,0,0,0,0,0,
328,-47.92,-60.29,-15.56,-17.0,4.521,-69.51,0.5824,-31.98,-29.22,-43.57,-28.25,-46.74,-38.67,-50.61,-50.03,-67.06,0,0,0,0,0,0,0,0,0,0,0,0,0,0,0,0,
329,-61.49,-23.52,-27.82,-37.21,-24.23,-92.67,-16.75,-38.58,-54.38,-72.84,-46.25,-46.17,-59.73,-63.97,-71.5,-76.75,0,0,0,0,0,0,0,0,0,0,0,0,0,0,0,0,
330,-71.32,-37.16,-32.62,-41.06,-44.72,-95.86,-35.93,-34.35,-81.14,-79.38,-74.49,-40.24,-82.18,-66.58,-88.25,-75.57,0,0,0,0,0,0,0,0,0,0,0,0,0,0,0,0,
331,-82.03,-67.18,-45.85,-39.19,-60.14,-106.3,-56.48,-34.73,-99.7,-74.41,-104.8,-40.56,-106.2,-70.02,-109.3,-74.84,0,0,0,0,0,0,0,0,0,0,0,0,0,0,0,0,
332,-83.91,-56.77,-53.31,-35.41,-63.76,-104.4,-63.68,-36.22,-113.0,-69.35,-111.7,-43.88,-112.9,-67.05,-115.1,-76.65,0,0,0,0,0,0,0,0,0,0,0,0,0,0,0,0,
333,-65.93,-37.86,-40.68,-30.68,-50.34,-81.87,-47.05,-33.42,-108.7,-59.0,-89.53,-46.29,-97.81,-58.37,-99.84,-79.43,0,0,0,0,0,0,0,0,0,0,0,0,0,0,0,0,
334,-63.01,-44.31,-39.88,-34.76,-50.83,-80.58,-37.85,-34.38,-96.23,-55.39,-75.84,-45.06,-84.68,-54.76,-86.23,-76.67,0,0,0,0,0,0,0,0,0,0,0,0,0,0,0,0,
335,-79.91,-55.64,-50.99,-35.35,-59.08,-88.96,-42.4,-40.25,-88.05,-57.78,-77.71,-36.06,-68.51,-52.01,-69.57,-59.73,0,0,0,0,0,0,0,0,0,0,0,0,0,0,0,0,
336,-78.07,-53.97,-45.7,-18.04,-46.41,-73.67,-38.23,-46.11,-63.89,-47.91,-74.67,-30.35,-48.91,-49.89,-52.58,-48.76,0,0,0,0,0,0,0,0,0,0,0,0,0,0,0,0,
337,-70.24,-51.94,-41.99,-8.19,-40.8,-65.28,-41.44,-48.71,-36.75,-39.7,-80.19,-40.82,-59.24,-60.57,-67.46,-68.6,0,0,0,0,0,0,0,0,0,0,0,0,0,0,0,0,
338,-86.73,-64.32,-60.55,-26.71,-62.14,-81.73,-64.41,-47.65,-50.49,-53.54,-99.52,-57.26,-92.28,-80.7,-97.29,-96.42,0,0,0,0,0,0,0,0,0,0,0,0,0,0,0,0,
339,-102.1,-77.33,-73.03,-42.72,-72.62,-87.56,-76.24,-45.25,-87.36,-69.23,-103.5,-59.62,-106.1,-87.25,-98.9,-96.14,0,0,0,0,0,0,0,0,0,0,0,0,0,0,0,0,
340,-86.87,-65.28,-52.42,-27.59,-55.59,-71.23,-63.83,-35.67,-95.15,-59.12,-91.28,-44.33,-101.4,-73.31,-89.75,-79.44,0,0,0,0,0,0,0,0,0,0,0,0,0,0,0,0,
341,-64.76,-46.33,-24.54,-17.01,-43.72,-62.64,-52.2,-22.55,-78.09,-37.35,-87.82,-31.61,-100.8,-64.83,-97.66,-74.77,0,0,0,0,0,0,0,0,0,0,0,0,0,0,0,0,
342,-71.41,-61.38,-22.35,-47.49,-52.02,-79.39,-47.98,-26.68,-68.62,-38.24,-83.66,-34.88,-95.16,-71.85,-97.27,-70.73,0,0,0,0,0,0,0,0,0,0,0,0,0,0,0,0,
343,-92.71,-90.67,-29.04,-81.08,-57.58,-102.7,-34.89,-39.64,-60.5,-56.36,-62.1,-35.05,-72.4,-68.58,-73.15,-48.57,0,0,0,0,0,0,0,0,0,0,0,0,0,0,0,0,
344,-98.64,-95.14,-28.49,-82.34,-55.7,-111.6,-25.33,-40.3,-42.89,-62.28,-49.7,-23.46,-57.15,-55.51,-58.73,-31.23,0,0,0,0,0,0,0,0,0,0,0,0,0,0,0,0,
345,-101.5,-96.23,-35.14,-82.24,-65.6,-115.4,-35.26,-45.98,-37.71,-62.08,-61.46,-22.76,-66.85,-58.7,-66.35,-39.0,0,0,0,0,0,0,0,0,0,0,0,0,0,0,0,0,
346,-113.8,-108.5,-42.82,-95.07,-81.04,-125.7,-41.14,-62.88,-53.72,-73.25,-63.18,-32.0,-71.32,-65.66,-59.31,-45.03,0,0,0,0,0,0,0,0,0,0,0,0,0,0,0,0,
347,-115.8,-110.5,-38.5,-92.56,-83.27,-129.1,-33.17,-63.41,-65.67,-79.31,-42.67,-28.92,-48.39,-52.39,-26.8,-27.18,0,0,0,0,0,0,0,0,0,0,0,0,0,0,0,0,
348,-104.4,-110.0,-32.41,-80.16,-77.92,-117.4,-30.24,-52.01,-57.43,-65.64,-30.29,-20.53,-25.26,-35.27,-7.665,-9.089,0,0,0,0,0,0,0,0,0,0,0,0,0,0,0,0,
349,-97.68,-113.4,-33.25,-84.25,-77.06,-105.2,-29.56,-51.48,-45.09,-52.65,-34.56,-19.21,-23.28,-32.3,-14.06,-11.12,0,0,0,0,0,0,0,0,0,0,0,0,0,0,0,0,
350,-95.33,-107.9,-41.44,-91.11,-73.96,-96.18,-23.39,-51.13,-44.32,-53.38,-34.13,-15.24,-22.98,-30.59,-15.58,-16.28,0,0,0,0,0,0,0,0,0,0,0,0,0,0,0,0,
351,-85.0,-97.27,-45.55,-78.32,-57.42,-80.94,-16.59,-38.58,-42.44,-49.12,-22.48,-9.207,-11.66,-22.62,-4.824,-11.15,0,0,0,0,0,0,0,0,0,0,0,0,0,0,0,0,
352,-72.87,-79.29,-35.59,-60.61,-42.08,-67.79,-6.763,-26.87,-34.14,-37.19,-12.42,-11.7,-5.712,-21.55,-0.3748,-9.094,0,0,0,0,0,0,0,0,0,0,0,0,0,0,0,0,
353,-76.31,-74.47,-32.58,-64.23,-49.45,-69.23,-2.52,-28.37,-37.75,-39.13,-12.18,-16.51,-13.26,-31.66,-6.6,-17.96,0,0,0,0,0,0,0,0,0,0,0,0,0,0,0,0,
354,-93.87,-114.1,-49.85,-87.6,-65.76,-75.2,-19.32,-35.7,-52.62,-50.81,-25.28,-16.26,-26.62,-39.65,-15.9,-24.86,0,0,0,0,0,0,0,0,0,0,0,0,0,0,0,0,
355,-105.1,-131.2,-67.7,-98.95,-71.92,-75.27,-44.4,-32.42,-66.15,-52.16,-48.37,-14.17,-40.8,-34.83,-18.07,-18.79,0,0,0,0,0,0,0,0,0,0,0,0,0,0,0,0,
356,-99.77,-75.37,-75.12,-80.39,-75.7,-74.11,-57.96,-21.41,-79.12,-45.06,-59.13,-10.89,-46.74,-22.23,-8.33,-6.971,0,0,0,0,0,0,0,0,0,0,0,0,0,0,0,0,
357,-88.42,-38.28,-74.84,-61.7,-78.4,-74.27,-60.43,-19.37,-83.72,-36.77,-48.5,-9.41,-38.93,-15.14,-0.1998,-3.552,0,0,0,0,0,0,0,0,0,0,0,0,0,0,0,0,
358,-84.59,-61.17,-72.02,-64.87,-75.39,-75.21,-59.36,-25.38,-73.91,-27.84,-42.96,-16.18,-33.35,-18.46,-6.253,-11.05,0,0,0,0,0,0,0,0,0,0,0,0,0,0,0,0,
359,-88.97,-75.13,-78.97,-65.22,-77.45,-79.0,-64.06,-30.61,-67.92,-25.71,-57.15,-24.78,-42.87,-27.63,-21.7,-22.62,0,0,0,0,0,0,0,0,0,0,0,0,0,0,0,0,
360,-94.14,-70.99,-91.96,-54.01,-82.94,-82.41,-77.13,-31.05,-76.22,-31.35,-76.11,-26.32,-55.38,-38.39,-38.17,-33.8,0,0,0,0,0,0,0,0,0,0,0,0,0,0,0,0,
361,-93.47,-77.73,-91.37,-50.18,-80.54,-82.66,-82.8,-24.07,-83.62,-32.56,-89.07,-26.9,-58.75,-48.17,-48.13,-42.24,0,0,0,0,0,0,0,0,0,0,0,0,0,0,0,0,
362,-85.25,-82.48,-79.77,-49.55,-77.47,-83.98,-72.48,-21.61,-79.3,-31.25,-90.2,-28.78,-55.78,-52.48,-45.27,-42.99,0,0,0,0,0,0,0,0,0,0,0,0,0,0,0,0,
363,-76.81,-81.08,-73.57,-48.56,-75.87,-85.19,-57.5,-30.81,-70.87,-35.87,-75.06,-24.35,-49.62,-46.45,-35.04,-35.01,0,0,0,0,0,0,0,0,0,0,0,0,0,0,0,0,
364,-77.87,-87.81,-70.25,-66.3,-74.63,-90.18,-45.56,-38.02,-68.75,-40.58,-59.14,-21.09,-46.17,-37.2,-28.92,-30.3,0,0,0,0,0,0,0,0,0,0,0,0,0,0,0,0,
365,-90.02,-104.7,-67.64,-97.27,-92.36,-111.6,-40.05,-42.66,-77.81,-47.26,-55.59,-23.61,-47.37,-33.43,-22.44,-28.91,0,0,0,0,0,0,0,0,0,0,0,0,0,0,0,0,
366,-107.1,-121.5,-75.25,-106.1,-117.6,-128.8,-42.09,-46.35,-87.06,-54.64,-48.59,-15.56,-35.26,-24.06,-4.933,-12.48,0,0,0,0,0,0,0,0,0,0,0,0,0,0,0,0,
367,-110.9,-119.1,-72.95,-80.08,-109.9,-113.2,-39.76,-38.56,-75.03,-47.03,-32.42,-4.538,-12.85,-11.99,7.406,3.652,0,0,0,0,0,0,0,0,0,0,0,0,0,0,0,0,
368,-89.79,-98.75,-45.0,-50.9,-83.78,-96.1,-32.45,-32.78,-51.7,-40.95,-26.74,-9.661,-8.117,-17.34,1.231,-1.369,0,0,0,0,0,0,0,0,0,0,0,0,0,0,0,0,
369,-82.82,-102.5,-47.82,-56.86,-84.35,-110.4,-39.71,-39.49,-44.16,-52.95,-31.05,-9.534,-9.87,-22.18,1.212,4.379,0,0,0,0,0,0,0,0,0,0,0,0,0,0,0,0,
370,-123.7,-141.7,-95.96,-86.67,-106.6,-127.4,-52.89,-39.55,-47.53,-55.84,-28.95,5.502,-0.9575,-9.157,14.33,24.46,0,0,0,0,0,0,0,0,0,0,0,0,0,0,0,0,
371,-146.1,-148.1,-88.4,-94.2,-114.7,-119.5,-37.48,-35.73,-49.69,-48.8,-20.18,9.56,-0.3707,-4.182,18.75,19.03,0,0,0,0,0,0,0,0,0,0,0,0,0,0,0,0,
372,-98.98,-103.6,-17.17,-74.29,-94.86,-97.24,-7.537,-41.96,-48.22,-53.33,-13.34,5.464,-2.759,-12.93,20.04,4.08,0,0,0,0,0,0,0,0,0,0,0,0,0,0,0,0,
373,-63.75,-85.83,-7.082,-61.91,-73.69,-81.07,-13.11,-46.03,-39.2,-56.51,-21.57,1.168,1.993,-22.45,18.77,-1.941,0,0,0,0,0,0,0,0,0,0,0,0,0,0,0,0,
374,-86.76,-102.8,-55.26,-62.86,-80.35,-85.59,-43.57,-47.31,-39.55,-59.68,-46.38,-17.4,-13.81,-40.15,-5.354,-24.21,0,0,0,0,0,0,0,0,0,0,0,0,0,0,0,0,
375,-101.3,-116.0,-60.68,-61.05,-94.58,-99.44,-51.22,-54.08,-58.72,-77.23,-64.29,-31.98,-42.22,-54.44,-27.97,-42.57,0,0,0,0,0,0,0,0,0,0,0,0,0,0,0,0,
376,-95.57,-147.5,-46.94,-63.71,-92.2,-101.0,-44.49,-52.15,-69.42,-87.74,-65.17,-23.24,-45.61,-46.51,-17.38,-31.95,0,0,0,0,0,0,0,0,0,0,0,0,0,0,0,0,
377,-105.3,-161.3,-63.73,-74.45,-91.45,-97.08,-49.52,-40.5,-62.69,-79.97,-60.53,-17.05,-36.35,-34.95,-1.911,-26.35,0,0,0,0,0,0,0,0,0,0,0,0,0,0,0,0,
378,-107.1,-106.3,-71.26,-76.29,-96.38,-97.01,-53.3,-35.64,-55.41,-72.66,-55.43,-20.82,-36.89,-37.56,-5.333,-32.85,0,0,0,0,0,0,0,0,0,0,0,0,0,0,0,0,
379,-90.08,-65.29,-59.17,-71.55,-86.26,-92.67,-48.23,-35.32,-49.48,-71.59,-53.99,-14.95,-37.91,-45.61,-6.355,-25.51,0,0,0,0,0,0,0,0,0,0,0,0,0,0,0,0,
380,-83.39,-86.06,-58.86,-73.62,-70.29,-90.46,-46.39,-37.5,-46.31,-73.71,-58.54,-10.83,-42.01,-53.89,-0.5519,-17.95,0,0,0,0,0,0,0,0,0,0,0,0,0,0,0,0,
381,-89.28,-100.1,-64.41,-72.33,-68.77,-98.64,-49.49,-44.23,-53.76,-81.42,-62.71,-24.47,-56.68,-63.89,-6.164,-30.05,0,0,0,0,0,0,0,0,0,0,0,0,0,0,0,0,
382,-96.33,-94.42,-66.24,-60.24,-71.47,-100.1,-54.29,-38.11,-61.41,-85.38,-64.11,-37.6,-62.36,-64.8,-16.13,-47.69,0,0,0,0,0,0,0,0,0,0,0,0,0,0,0,0,
383,-101.3,-93.5,-74.53,-49.4,-66.92,-84.3,-60.15,-17.85,-55.41,-71.49,-63.59,-31.66,-51.01,-48.01,-15.95,-54.15,0,0,0,0,0,0,0,0,0,0,0,0,0,0,0,0,
384,-100.5,-87.36,-87.74,-44.08,-69.75,-69.76,-64.58,-8.177,-46.94,-49.69,-61.58,-15.38,-40.55,-28.83,-12.36,-48.81,0,0,0,0,0,0,0,0,0,0,0,0,0,0,0,0,
385,-100.8,-90.71,-93.41,-48.13,-87.28,-74.92,-64.27,-14.01,-48.36,-40.34,-58.94,-5.979,-34.28,-22.7,-8.14,-36.03,0,0,0,0,0,0,0,0,0,0,0,0,0,0,0,0,
386,-111.0,-116.0,-86.67,-67.94,-100.6,-91.39,-55.83,-25.51,-47.77,-42.19,-54.11,-4.645,-28.85,-23.09,1.6,-24.22,0,0,0,0,0,0,0,0,0,0,0,0,0,0,0,0,
387,-120.3,-127.5,-76.14,-80.15,-97.59,-95.42,-46.15,-33.44,-40.23,-43.38,-50.25,-1.428,-31.68,-22.48,6.967,-24.82,0,0,0,0,0,0,0,0,0,0,0,0,0,0,0,0,
388,-116.8,-110.4,-73.67,-70.6,-90.42,-81.85,-52.41,-28.15,-40.74,-39.74,-53.5,2.595,-40.74,-22.0,-1.685,-33.83,0,0,0,0,0,0,0,0,0,0,0,0,0,0,0,0,
389,-113.5,-99.85,-82.14,-74.69,-95.86,-72.36,-73.56,-25.27,-53.59,-36.48,-60.15,0.4765,-51.84,-22.17,-14.54,-38.26,0,0,0,0,0,0,0,0,0,0,0,0,0,0,0,0,
390,-124.5,-112.4,-96.2,-100.4,-111.6,-80.59,-86.0,-38.93,-69.71,-43.11,-61.8,-5.133,-62.31,-24.05,-16.0,-41.03,0,0,0,0,0,0,0,0,0,0,0,0,0,0,0,0,
391,-137.5,-125.6,-105.8,-108.8,-116.5,-92.2,-80.5,-44.29,-77.6,-52.86,-56.26,-9.807,-58.68,-24.55,-2.21,-40.45,0,0,0,0,0,0,0,0,0,0,0,0,0,0,0,0,
392,-136.1,-126.8,-100.3,-97.89,-100.4,-87.2,-67.29,-32.7,-67.66,-49.77,-46.42,-10.23,-41.73,-17.88,17.03,-23.72,0,0,0,0,0,0,0,0,0,0,0,0,0,0,0,0,
393,-121.2,-118.9,-82.94,-87.88,-80.4,-66.81,-54.12,-27.31,-50.12,-41.14,-39.92,-6.809,-32.14,-12.42,27.43,-8.935,0,0,0,0,0,0,0,0,0,0,0,0,0,0,0,0,
394,-109.3,-107.3,-76.96,-73.66,-76.87,-53.54,-50.57,-27.14,-47.07,-45.35,-40.85,-9.389,-36.7,-17.07,26.81,-16.75,0,0,0,0,0,0,0,0,0,0,0,0,0,0,0,0,
395,-111.8,-101.7,-87.16,-59.06,-85.2,-56.24,-53.83,-18.99,-55.18,-56.79,-34.91,-14.33,-39.57,-15.75,29.11,-21.44,0,0,0,0,0,0,0,0,0,0,0,0,0,0,0,0,
396,-109.6,-96.48,-84.9,-51.14,-82.93,-55.37,-42.31,-10.21,-50.67,-52.46,-19.05,-9.886,-29.56,-1.423,34.44,-12.78,0,0,0,0,0,0,0,0,0,0,0,0,0,0,0,0,
397,-93.09,-85.36,-70.23,-39.64,-65.93,-45.82,-23.53,-10.8,-34.51,-35.38,-18.51,-10.16,-21.35,-1.873,25.85,-21.86,0,0,0,0,0,0,0,0,0,0,0,0,0,0,0,0,
398,-89.12,-83.51,-68.91,-35.62,-55.38,-45.91,-19.91,-20.11,-27.38,-35.32,-27.56,-22.95,-23.01,-21.51,14.16,-40.35,0,0,0,0,0,0,0,0,0,0,0,0,0,0,0,0,
399,-101.6,-92.69,-74.03,-57.93,-65.93,-56.17,-22.6,-29.67,-29.26,-55.23,-22.34,-28.97,-21.89,-31.35,16.81,-37.83,0,0,0,0,0,0,0,0,0,0,0,0,0,0,0,0,
400,-115.8,-101.6,-77.33,-85.18,-87.52,-65.5,-25.78,-31.05,-34.93,-72.17,-23.06,-28.69,-27.89,-34.57,12.31,-36.29,0,0,0,0,0,0,0,0,0,0,0,0,0,0,0,0,
401,-129.7,-106.4,-80.91,-89.65,-94.59,-73.01,-33.29,-26.61,-47.84,-76.74,-35.63,-32.52,-49.62,-45.73,-9.005,-55.76,0,0,0,0,0,0,0,0,0,0,0,0,0,0,0,0,
402,-126.6,-101.6,-70.05,-81.97,-80.94,-71.28,-32.31,-18.39,-56.77,-67.96,-33.77,-25.95,-61.27,-44.22,-21.34,-66.02,0,0,0,0,0,0,0,0,0,0,0,0,0,0,0,0,
403,-103.8,-93.13,-51.15,-78.99,-70.03,-52.23,-21.54,-0.8911,-54.3,-50.56,-24.61,-3.738,-53.97,-20.39,-15.43,-48.41,0,0,0,0,0,0,0,0,0,0,0,0,0,0,0,0,
404,-91.23,-92.25,-44.52,-73.81,-70.53,-35.01,-13.59,14.48,-48.85,-39.17,-15.79,12.51,-42.26,-2.775,-2.547,-22.38,0,0,0,0,0,0,0,0,0,0,0,0,0,0,0,0,
405,-95.62,-96.84,-46.94,-65.38,-73.7,-43.64,-10.1,6.964,-45.78,-45.23,-2.784,10.52,-33.82,-10.49,1.956,-9.248,0,0,0,0,0,0,0,0,0,0,0,0,0,0,0,0,
406,-103.6,-104.1,-52.01,-64.06,-79.57,-60.92,-7.716,-9.221,-52.09,-66.29,-4.009,5.335,-34.03,-21.91,-10.76,-10.77,0,0,0,0,0,0,0,0,0,0,0,0,0,0,0,0,
407,-108.2,-106.5,-50.5,-62.27,-82.1,-56.36,-6.925,-9.005,-60.96,-77.63,-16.8,12.37,-34.86,-13.21,-21.9,-15.17,0,0,0,0,0,0,0,0,0,0,0,0,0,0,0,0,
408,-103.2,-99.58,-39.44,-54.75,-77.83,-45.6,-13.28,-5.643,-54.64,-67.24,-22.04,19.54,-26.15,-3.271,-16.08,-19.96,0,0,0,0,0,0,0,0,0,0,0,0,0,0,0,0,
409,-94.12,-94.5,-33.72,-54.41,-74.74,-53.54,-20.51,-10.09,-44.85,-62.98,-24.42,13.19,-19.17,-12.0,-8.006,-31.01,0,0,0,0,0,0,0,0,0,0,0,0,0,0,0,0,
410,-91.79,-91.37,-32.75,-56.74,-72.37,-64.15,-15.53,-4.456,-45.41,-74.89,-25.62,4.463,-23.62,-22.88,-10.72,-45.38,0,0,0,0,0,0,0,0,0,0,0,0,0,0,0,0,
411,-95.43,-86.44,-36.22,-45.64,-74.06,-61.75,-12.52,11.36,-48.23,-80.87,-28.8,1.573,-38.39,-29.18,-25.76,-61.56,0,0,0,0,0,0,0,0,0,0,0,0,0,0,0,0,
412,-97.32,-82.25,-49.99,-28.29,-76.77,-50.6,-18.78,23.83,-52.12,-74.27,-38.86,0.9666,-52.43,-37.02,-44.21,-76.75,0,0,0,0,0,0,0,0,0,0,0,0,0,0,0,0,
413,-86.98,-70.53,-49.83,-21.02,-60.36,-36.25,-12.04,32.73,-49.42,-60.43,-38.78,2.885,-47.68,-35.76,-46.3,-78.56,0,0,0,0,0,0,0,0,0,0,0,0,0,0,0,0,
414,-68.59,-59.0,-29.45,-26.36,-37.35,-33.7,2.789,33.93,-31.25,-48.82,-29.58,3.422,-34.91,-28.9,-35.42,-71.03,0,0,0,0,0,0,0,0,0,0,0,0,0,0,0,0,
415,-62.71,-66.86,-23.37,-35.77,-38.58,-44.85,4.407,26.93,-20.91,-49.51,-33.56,-1.56,-38.99,-33.45,-32.6,-70.27,0,0,0,0,0,0,0,0,0,0,0,0,0,0,0,0,
416,-70.77,-78.41,-35.97,-39.86,-52.95,-46.47,1.19,23.48,-33.25,-53.04,-46.12,-7.243,-48.76,-38.7,-32.6,-70.66,0,0,0,0,0,0,0,0,0,0,0,0,0,0,0,0,
417,-71.43,-69.59,-39.89,-38.39,-53.06,-33.44,3.662,25.14,-43.7,-48.27,-48.32,-9.271,-41.77,-24.9,-22.63,-60.19,0,0,0,0,0,0,0,0,0,0,0,0,0,0,0,0,
418,-58.31,-49.21,-28.75,-35.26,-39.61,-19.72,7.691,28.07,-32.99,-36.42,-37.0,-7.789,-26.67,-4.083,-15.04,-52.06,0,0,0,0,0,0,0,0,0,0,0,0,0,0,0,0,
419,-49.52,-40.95,-16.31,-28.63,-31.6,-15.72,11.04,27.41,-13.92,-24.02,-26.52,-10.32,-23.28,-4.886,-19.95,-63.51,0,0,0,0,0,0,0,0,0,0,0,0,0,0,0,0,
420,-53.16,-52.02,-9.623,-23.85,-34.53,-27.9,12.92,14.42,-7.959,-26.81,-29.83,-20.78,-27.89,-24.6,-25.32,-80.15,0,0,0,0,0,0,0,0,0,0,0,0,0,0,0,0,
421,-54.17,-63.89,-2.802,-29.42,-32.27,-39.92,13.22,1.334,-15.21,-43.34,-36.17,-25.8,-22.9,-33.61,-22.81,-80.62,0,0,0,0,0,0,0,0,0,0,0,0,0,0,0,0,
422,-45.68,-59.03,5.936,-30.62,-19.17,-31.17,13.6,4.354,-15.69,-47.87,-32.52,-22.5,-10.08,-26.91,-17.38,-73.59,0,0,0,0,0,0,0,0,0,0,0,0,0,0,0,0,
423,-42.29,-49.7,2.466,-20.53,-15.71,-24.11,12.29,8.355,-7.223,-40.68,-27.51,-23.5,-7.921,-20.88,-10.78,-69.0,0,0,0,0,0,0,0,0,0,0,0,0,0,0,0,0,
424,-54.79,-55.46,-20.45,-23.59,-34.99,-43.38,5.782,4.322,-14.7,-45.29,-29.37,-20.17,-18.52,-18.16,-1.008,-55.32,0,0,0,0,0,0,0,0,0,0,0,0,0,0,0,0,
425,-66.19,-64.08,-34.78,-30.31,-51.51,-57.32,4.7,10.4,-35.48,-54.71,-22.79,1.936,-16.26,-9.557,20.7,-24.02,0,0,0,0,0,0,0,0,0,0,0,0,0,0,0,0,
426,-48.64,-47.26,-9.501,-2.321,-28.03,-24.74,30.84,33.52,-24.85,-36.38,14.62,32.73,21.4,16.89,65.37,19.63,0,0,0,0,0,0,0,0,0,0,0,0,0,0,0,0,
427,-12.48,-11.52,31.3,42.75,22.18,35.1,69.59,64.47,25.73,13.44,60.95,57.29,69.67,55.28,105.9,51.87,0,0,0,0,0,0,0,0,0,0,0,0,0,0,0,0,
428,-0.682,6.097,37.16,61.45,44.57,65.34,68.8,86.8,62.5,55.12,59.7,68.13,77.76,72.34,99.09,48.78,0,0,0,0,0,0,0,0,0,0,0,0,0,0,0,0,
429,-28.28,-8.846,0.4554,46.03,20.68,46.12,23.12,80.18,51.96,57.48,15.68,61.75,45.84,58.46,61.82,26.19,0,0,0,0,0,0,0,0,0,0,0,0,0,0,0,0,
430,-73.04,-40.83,-49.17,2.702,-20.01,5.795,-14.92,52.21,18.94,33.94,-10.18,45.02,19.09,38.16,38.2,7.876,0,0,0,0,0,0,0,0,0,0,0,0,0,0,0,0,
431,-111.3,-74.27,-84.02,-46.68,-51.84,-29.61,-24.0,28.14,-5.169,5.26,-6.677,27.41,10.93,17.94,30.57,-8.88,0,0,0,0,0,0,0,0,0,0,0,0,0,0,0,0,
432,-128.4,-96.21,-89.3,-63.67,-64.01,-47.03,-21.91,11.61,-12.64,-23.0,-3.42,11.37,4.476,-2.625,27.66,-20.64,0,0,0,0,0,0,0,0,0,0,0,0,0,0,0,0,
433,-119.5,-94.41,-67.23,-45.82,-51.4,-35.57,-11.0,4.463,-5.905,-35.25,-6.14,-1.795,-1.669,-8.431,22.2,-25.61,0,0,0,0,0,0,0,0,0,0,0,0,0,0,0,0,
434,-100.0,-77.25,-41.89,-27.39,-30.39,-11.1,4.141,13.64,4.734,-24.71,-9.702,-8.204,-1.793,-1.455,7.33,-33.79,0,0,0,0,0,0,0,0,0,0,0,0,0,0,0,0,
435,-93.29,-67.69,-35.99,-26.18,-21.86,-2.208,7.642,25.24,8.156,-13.77,-9.207,-3.471,3.847,5.804,2.598,-32.16,0,0,0,0,0,0,0,0,0,0,0,0,0,0,0,0,
436,-99.55,-71.48,-41.71,-36.55,-20.28,-12.01,7.47,24.95,9.163,-11.16,-1.319,8.229,10.18,12.7,17.12,-16.1,0,0,0,0,0,0,0,0,0,0,0,0,0,0,0,0,
437,-108.6,-81.96,-45.28,-57.65,-20.86,-35.44,10.76,18.14,8.513,-10.65,3.268,14.41,5.889,14.85,21.08,-11.73,0,0,0,0,0,0,0,0,0,0,0,0,0,0,0,0,
438,-113.9,-92.82,-48.32,-78.85,-23.06,-53.35,6.195,18.41,-0.5807,-16.45,6.887,14.46,-0.6141,15.26,10.07,-16.67,0,0,0,0,0,0,0,0,0,0,0,0,0,0,0,0,
439,-96.09,-79.96,-42.49,-61.67,-5.745,-27.94,1.128,32.62,-0.188,-15.32,20.7,14.96,8.322,23.88,6.321,-11.99,0,0,0,0,0,0,0,0,0,0,0,0,0,0,0,0,
440,-55.75,-35.9,-26.77,-7.802,24.62,21.61,4.897,42.49,18.5,5.902,27.95,10.64,12.11,24.75,3.12,-12.51,0,0,0,0,0,0,0,0,0,0,0,0,0,0,0,0,
441,-37.59,-16.11,-27.17,12.75,25.13,31.47,0.627,29.9,23.49,20.54,16.45,-1.203,-9.744,6.674,-10.3,-28.58,0,0,0,0,0,0,0,0,0,0,0,0,0,0,0,0,
442,-61.24,-49.16,-47.74,-21.95,-8.469,-2.953,-17.11,11.82,2.326,8.532,2.953,-11.97,-33.34,-7.628,-18.4,-40.97,0,0,0,0,0,0,0,0,0,0,0,0,0,0,0,0,
443,-92.69,-78.11,-59.96,-50.84,-41.17,-38.83,-26.14,7.137,-18.3,-13.07,1.438,-14.62,-39.13,-7.75,-10.59,-40.66,0,0,0,0,0,0,0,0,0,0,0,0,0,0,0,0,
444,-102.8,-87.48,-52.03,-52.16,-47.63,-48.0,-14.77,14.95,-22.46,-22.81,12.44,-7.273,-33.58,-7.195,-1.716,-38.85,0,0,0,0,0,0,0,0,0,0,0,0,0,0,0,0,
445,-97.05,-115.3,-41.23,-59.76,-30.62,-29.83,0.1795,28.24,-16.64,-15.66,21.85,-1.743,-24.01,-12.57,-5.287,-43.56,0,0,0,0,0,0,0,0,0,0,0,0,0,0,0,0,
446,-91.27,-121.2,-43.26,-72.07,-19.8,-14.96,0.2526,29.11,-10.66,-9.518,13.88,-13.62,-21.24,-24.76,-11.78,-51.52,0,0,0,0,0,0,0,0,0,0,0,0,0,0,0,0,
447,-86.94,-71.04,-50.88,-69.99,-28.39,-22.11,-10.13,13.98,-11.08,-22.67,-0.8202,-29.4,-29.16,-36.71,-15.33,-54.74,0,0,0,0,0,0,0,0,0,0,0,0,0,0,0,0,
448,-82.22,-39.28,-53.07,-69.23,-36.73,-29.52,-15.42,8.28,-20.64,-39.7,-7.451,-26.11,-29.56,-31.53,-20.75,-47.13,0,0,0,0,0,0,0,0,0,0,0,0,0,0,0,0,
449,-85.79,-60.91,-54.24,-82.9,-39.96,-32.33,-11.57,15.27,-30.05,-39.34,-11.44,-10.37,-17.01,-12.79,-18.34,-30.63,0,0,0,0,0,0,0,0,0,0,0,0,0,0,0,0,
450,-95.93,-84.94,-54.63,-97.06,-45.73,-46.51,-7.288,15.21,-26.68,-32.4,-15.38,2.741,-11.76,-0.3782,-8.639,-16.24,0,0,0,0,0,0,0,0,0,0,0,0,0,0,0,0,
451,-96.52,-89.5,-44.43,-95.9,-43.35,-53.32,-4.956,11.86,-18.26,-30.85,-10.34,11.44,-13.41,7.532,-6.549,-8.855,0,0,0,0,0,0,0,0,0,0,0,0,0,0,0,0,
452,-83.31,-79.49,-30.31,-71.79,-31.24,-30.02,1.273,13.98,-11.71,-20.14,6.301,13.16,-4.258,17.96,-0.1399,-2.163,0,0,0,0,0,0,0,0,0,0,0,0,0,0,0,0,
453,-72.1,-65.63,-35.52,-35.75,-31.29,-3.232,0.9365,13.6,-1.588,0.4267,20.63,10.21,2.768,18.7,16.21,2.462,0,0,0,0,0,0,0,0,0,0,0,0,0,0,0,0,
454,-79.43,-68.4,-60.16,-21.58,-46.18,-5.843,-17.83,10.07,-0.4091,6.964,18.33,15.56,-7.717,11.27,18.66,0.6206,0,0,0,0,0,0,0,0,0,0,0,0,0,0,0,0,
455,-94.27,-75.74,-70.95,-44.29,-47.42,-23.24,-33.45,10.65,-9.099,1.618,9.372,27.69,-13.78,15.79,12.77,2.699,0,0,0,0,0,0,0,0,0,0,0,0,0,0,0,0,
456,-88.62,-68.7,-51.83,-70.17,-21.22,-26.87,-23.29,15.27,1.931,4.268,12.33,34.05,2.423,32.99,20.91,15.46,0,0,0,0,0,0,0,0,0,0,0,0,0,0,0,0,
457,-63.01,-58.41,-25.73,-66.96,11.34,-17.41,-3.286,20.16,30.5,14.0,24.8,37.01,26.39,47.92,29.61,28.27,0,0,0,0,0,0,0,0,0,0,0,0,0,0,0,0,
458,-41.54,-50.68,-13.08,-52.98,27.3,-5.714,2.107,23.56,43.82,26.1,33.27,37.49,37.47,50.5,27.27,32.75,0,0,0,0,0,0,0,0,0,0,0,0,0,0,0,0,
459,-32.0,-40.87,-12.28,-47.7,26.76,7.535,-4.792,28.02,35.32,35.79,34.27,24.55,31.73,37.34,25.75,27.83,0,0,0,0,0,0,0,0,0,0,0,0,0,0,0,0,
460,-27.39,-28.79,-13.18,-35.89,23.7,19.88,-9.287,32.43,20.01,33.09,31.57,3.654,22.73,17.09,20.92,14.16,0,0,0,0,0,0,0,0,0,0,0,0,0,0,0,0,
461,-23.48,-17.51,-6.557,-22.84,26.06,21.71,-8.455,28.45,10.91,24.26,25.64,-5.831,21.41,4.953,7.814,5.0,0,0,0,0,0,0,0,0,0,0,0,0,0,0,0,0,
462,-21.92,-19.0,3.453,-30.45,27.87,7.824,-6.407,20.13,13.05,16.85,18.19,-0.7388,24.55,5.15,4.308,11.83,0,0,0,0,0,0,0,0,0,0,0,0,0,0,0,0,
463,-28.3,-36.62,5.507,-39.85,18.81,-11.38,-7.477,20.37,14.49,3.968,15.18,3.283,21.07,4.793,8.77,16.59,0,0,0,0,0,0,0,0,0,0,0,0,0,0,0,0,
464,-37.77,-49.44,2.222,-35.95,-0.6815,-22.79,-17.46,25.17,-0.5054,-13.22,13.56,-3.087,2.846,-7.752,2.286,6.242,0,0,0,0,0,0,0,0,0,0,0,0,0,0,0,0,
465,-41.82,-48.79,-4.62,-48.44,-18.1,-31.87,-32.94,24.52,-22.88,-26.35,6.218,-5.873,-15.69,-16.85,-4.058,3.491,0,0,0,0,0,0,0,0,0,0,0,0,0,0,0,0,
466,-49.84,-54.47,-21.33,-77.73,-25.41,-40.84,-43.59,23.29,-30.51,-31.27,2.311,4.408,-14.24,-6.097,2.405,16.56,0,0,0,0,0,0,0,0,0,0,0,0,0,0,0,0,
467,-56.87,-58.33,-29.72,-79.47,-20.38,-30.59,-44.7,28.92,-20.7,-22.27,12.77,12.41,-0.3855,7.612,9.396,25.92,0,0,0,0,0,0,0,0,0,0,0,0,0,0,0,0,
468,-41.38,-36.46,-11.13,-57.09,-0.7481,-2.429,-35.03,35.32,-4.256,-0.6326,27.38,13.27,13.86,11.67,15.41,30.45,0,0,0,0,0,0,0,0,0,0,0,0,0,0,0,0,
469,-23.3,-18.47,10.02,-52.27,17.47,12.9,-19.78,32.75,8.919,15.63,30.84,16.69,24.09,14.17,19.37,32.22,0,0,0,0,0,0,0,0,0,0,0,0,0,0,0,0,
470,-23.41,-18.9,17.64,-57.12,14.22,6.814,-7.719,24.62,10.3,10.71,22.52,16.07,18.66,9.995,5.921,20.63,0,0,0,0,0,0,0,0,0,0,0,0,0,0,0,0,
471,-20.99,-14.9,25.45,-49.15,0.9676,-6.76,-3.068,17.16,2.82,-8.951,9.303,3.247,1.839,-6.885,-16.12,3.065,0,0,0,0,0,0,0,0,0,0,0,0,0,0,0,0,
472,-24.82,-43.8,22.93,-41.75,-9.679,-26.47,-10.84,7.286,-6.564,-28.66,-3.334,-17.08,-11.78,-26.48,-28.02,-13.32,0,0,0,0,0,0,0,0,0,0,0,0,0,0,0,0,
473,-50.48,-98.6,0.9872,-40.19,-26.19,-49.92,-26.07,-2.278,-17.62,-42.57,-13.81,-35.25,-22.35,-41.82,-33.45,-32.42,0,0,0,0,0,0,0,0,0,0,0,0,0,0,0,0,
474,-62.79,-83.91,-14.58,-42.24,-42.3,-59.43,-33.06,-3.118,-21.93,-46.36,-23.09,-35.62,-22.31,-45.11,-32.51,-37.4,0,0,0,0,0,0,0,0,0,0,0,0,0,0,0,0,
475,-53.07,-29.68,-13.88,-50.67,-43.67,-47.67,-32.15,4.11,-11.83,-37.93,-28.48,-18.31,-8.014,-30.55,-24.93,-22.12,0,0,0,0,0,0,0,0,0,0,0,0,0,0,0,0,
476,-49.64,-30.17,-12.48,-51.35,-40.08,-31.01,-31.64,13.2,-0.5649,-26.38,-29.66,-8.629,-3.543,-16.0,-24.66,-14.71,0,0,0,0,0,0,0,0,0,0,0,0,0,0,0,0,
477,-49.24,-49.22,-14.32,-47.94,-42.74,-24.33,-27.94,14.37,-4.079,-22.76,-28.52,-16.6,-14.1,-16.96,-27.2,-22.77,0,0,0,0,0,0,0,0,0,0,0,0,0,0,0,0,
478,-43.63,-45.49,-11.17,-54.38,-40.61,-22.21,-19.07,4.118,-14.88,-24.62,-16.91,-24.2,-16.45,-18.83,-19.13,-27.92,0,0,0,0,0,0,0,0,0,0,0,0,0,0,0,0,
479,-41.59,-47.44,-0.9634,-55.07,-28.03,-20.72,-12.14,-3.543,-13.63,-20.6,1.848,-18.58,-10.84,-10.37,-11.36,-27.3,0,0,0,0,0,0,0,0,0,0,0,0,0,0,0,0,
480,-42.01,-52.17,7.666,-51.48,-18.49,-24.03,-11.47,0.3276,-3.842,-13.56,5.097,-8.67,-12.3,-3.082,-12.65,-25.44,0,0,0,0,0,0,0,0,0,0,0,0,0,0,0,0,
481,-39.73,-46.27,8.191,-54.65,-17.34,-24.9,-16.32,9.718,-2.007,-14.0,-9.663,-9.353,-16.99,-4.333,-18.33,-24.81,0,0,0,0,0,0,0,0,0,0,0,0,0,0,0,0,
482,-38.97,-43.52,-2.119,-52.35,-22.45,-22.29,-29.68,16.03,-6.946,-17.57,-28.51,-21.04,-19.78,-11.3,-31.53,-32.55,0,0,0,0,0,0,0,0,0,0,0,0,0,0,0,0,
483,-44.12,-47.93,-19.96,-57.31,-32.71,-21.6,-47.77,10.11,-13.87,-20.86,-44.97,-29.68,-22.18,-16.97,-43.82,-39.82,0,0,0,0,0,0,0,0,0,0,0,0,0,0,0,0,
484,-44.87,-48.22,-26.76,-73.37,-32.37,-8.652,-49.57,0.3576,-15.94,-21.86,-46.87,-23.08,-17.68,-7.717,-33.77,-25.81,0,0,0,0,0,0,0,0,0,0,0,0,0,0,0,0,
485,-31.33,-37.82,-17.28,-64.76,-15.73,13.68,-29.56,6.629,-1.606,-9.128,-29.26,-4.09,-2.427,14.52,-8.096,2.417,0,0,0,0,0,0,0,0,0,0,0,0,0,0,0,0,
486,-15.57,-23.44,-6.913,-41.17,-1.005,19.7,-11.21,21.04,14.76,9.283,-9.704,11.77,14.22,29.36,6.761,16.05,0,0,0,0,0,0,0,0,0,0,0,0,0,0,0,0,
487,-13.65,-17.33,-5.546,-32.45,3.85,13.06,-12.09,27.57,15.36,18.21,-5.637,14.04,15.81,30.74,1.64,4.564,0,0,0,0,0,0,0,0,0,0,0,0,0,0,0,0,
488,-32.03,-29.01,-23.55,-30.23,-7.179,0.4318,-30.55,25.88,6.293,20.35,-19.72,4.388,-5.04,21.14,-12.17,-16.74,0,0,0,0,0,0,0,0,0,0,0,0,0,0,0,0,
489,-59.69,-53.57,-51.68,-47.9,-37.45,-27.63,-51.01,11.03,-12.3,4.442,-31.52,-8.753,-23.87,1.329,-11.65,-24.19,0,0,0,0,0,0,0,0,0,0,0,0,0,0,0,0,
490,-70.86,-69.11,-59.16,-91.76,-60.67,-54.47,-55.5,-7.986,-32.05,-29.42,-20.22,-12.77,-14.94,-11.23,10.27,-12.73,0,0,0,0,0,0,0,0,0,0,0,0,0,0,0,0,
491,-70.07,-73.47,-53.31,-112.4,-65.52,-66.33,-48.66,-13.02,-31.68,-42.44,-8.568,-8.67,-1.962,-9.148,22.84,-6.984,0,0,0,0,0,0,0,0,0,0,0,0,0,0,0,0,
492,-78.61,-81.68,-55.97,-100.3,-73.17,-79.18,-47.71,-19.7,-27.67,-34.7,-27.24,-13.73,-15.46,-13.78,5.963,-20.01,0,0,0,0,0,0,0,0,0,0,0,0,0,0,0,0,
493,-85.05,-88.58,-57.99,-93.14,-80.85,-91.19,-55.42,-33.85,-41.31,-41.67,-59.87,-25.5,-38.5,-26.53,-13.62,-30.46,0,0,0,0,0,0,0,0,0,0,0,0,0,0,0,0,
494,-80.45,-88.51,-56.43,-88.29,-73.13,-85.92,-65.92,-31.56,-50.58,-51.44,-75.48,-27.66,-47.07,-29.9,-14.14,-26.99,0,0,0,0,0,0,0,0,0,0,0,0,0,0,0,0,
495,-79.48,-87.35,-58.07,-72.84,-63.82,-70.97,-74.86,-24.12,-46.63,-47.65,-70.02,-26.58,-43.08,-30.4,-7.32,-20.5,0,0,0,0,0,0,0,0,0,0,0,0,0,0,0,0,
496,-82.53,-83.45,-58.77,-54.29,-65.49,-64.34,-75.28,-29.8,-48.87,-47.48,-52.89,-29.18,-29.61,-32.15,-1.264,-12.89,0,0,0,0,0,0,0,0,0,0,0,0,0,0,0,0,
497,-80.25,-78.23,-55.73,-40.51,-65.72,-69.78,-60.2,-29.3,-48.84,-44.02,-29.53,-25.39,-6.949,-22.02,5.698,-6.356,0,0,0,0,0,0,0,0,0,0,0,0,0,0,0,0,
498,-74.53,-76.1,-44.12,-47.67,-58.58,-74.6,-33.23,-22.1,-31.89,-28.16,-8.405,-17.22,14.16,-6.375,9.115,-7.136,0,0,0,0,0,0,0,0,0,0,0,0,0,0,0,0,
499,-66.65,-73.67,-22.47,-72.64,-51.25,-68.03,-5.594,-25.17,-14.62,-21.3,0.267,-14.72,22.38,0.0786,8.506,-6.683,0,0,0,0,0,0,0,0,0,0,0,0,0,0,0,0,
500,-54.65,-71.61,-7.943,-91.4,-45.6,-63.03,13.42,-26.62,-8.194,-25.7,-1.593,-15.22,14.82,-3.032,4.545,-4.394,0,0,0,0,0,0,0,0,0,0,0,0,0,0,0,0,
501,-46.82,-73.44,-13.42,-104.1,-45.22,-68.83,15.14,-16.47,-7.729,-33.04,-8.166,-13.38,-0.3573,-11.97,-6.281,-11.5,0,0,0,0,0,0,0,0,0,0,0,0,0,0,0,0,
502,-45.88,-72.3,-24.87,-107.5,-47.61,-60.84,1.774,-6.203,-12.86,-41.18,-19.69,-9.775,-7.438,-15.07,-17.46,-18.79,0,0,0,0,0,0,0,0,0,0,0,0,0,0,0,0,
503,-37.72,-60.74,-26.89,-95.02,-39.41,-31.48,-9.767,-1.126,-17.81,-27.67,-30.44,-7.187,-4.792,-5.218,-21.71,-15.87,0,0,0,0,0,0,0,0,0,0,0,0,0,0,0,0,
504,-22.93,-45.14,-23.04,-84.67,-22.42,-8.751,-8.875,6.929,-15.55,4.137,-28.78,-3.408,-0.3355,4.458,-21.6,-12.24,0,0,0,0,0,0,0,0,0,0,0,0,0,0,0,0,
505,-6.621,-28.11,-7.556,-70.33,1.682,10.43,8.225,22.85,-2.138,20.79,-13.04,5.051,11.05,8.978,-16.32,-13.66,0,0,0,0,0,0,0,0,0,0,0,0,0,0,0,0,
506,20.52,-2.046,22.79,-40.52,33.65,40.84,34.39,35.08,25.8,29.73,0.3462,11.84,24.64,15.19,-6.687,-15.64,0,0,0,0,0,0,0,0,0,0,0,0,0,0,0,0,
507,40.38,18.44,36.68,-20.15,47.6,55.78,43.52,35.9,47.55,45.05,-4.236,17.19,24.79,21.89,-0.1114,-9.986,0,0,0,0,0,0,0,0,0,0,0,0,0,0,0,0,
508,35.83,18.07,26.36,-15.29,42.55,50.46,32.94,37.34,45.3,52.58,-12.8,28.73,20.34,27.79,2.189,3.775,0,0,0,0,0,0,0,0,0,0,0,0,0,0,0,0,
509,33.66,18.77,20.06,-15.69,46.31,53.12,26.14,42.35,38.85,55.21,-9.473,34.79,15.39,30.09,2.017,9.332,0,0,0,0,0,0,0,0,0,0,0,0,0,0,0,0,
510,33.67,21.97,10.11,-18.67,39.45,54.2,17.42,41.14,32.43,56.7,-13.3,27.2,-5.201,24.69,-1.857,4.515,0,0,0,0,0,0,0,0,0,0,0,0,0,0,0,0,
511,13.25,6.078,-14.12,-4.553,10.23,39.05,-5.035,36.89,10.55,46.07,-30.89,20.6,-23.51,19.45,-5.663,6.764,0,0,0,0,0,0,0,0,0,0,0,0,0,0,0,0,
512,1.097,-0.7287,-23.26,25.89,2.475,26.93,-14.45,38.32,-3.333,36.27,-30.63,19.72,-9.62,22.48,1.321,15.54,0,0,0,0,0,0,0,0,0,0,0,0,0,0,0,0,
513,16.28,9.626,-12.35,44.23,19.43,27.88,2.507,43.34,15.83,45.71,-12.58,18.8,19.96,31.66,18.39,19.67,0,0,0,0,0,0,0,0,0,0,0,0,0,0,0,0,
514,21.19,-14.04,-8.236,44.57,20.49,33.21,12.93,41.34,40.91,61.1,-11.25,19.37,34.29,39.98,25.57,22.19,0,0,0,0,0,0,0,0,0,0,0,0,0,0,0,0,
515,5.66,-42.39,-10.26,35.13,8.231,33.49,6.123,30.07,42.66,61.73,-15.97,23.52,34.73,42.25,20.78,30.42,0,0,0,0,0,0,0,0,0,0,0,0,0,0,0,0,
516,3.904,-7.042,-1.86,26.94,5.275,24.32,10.34,22.12,34.04,50.86,-4.13,29.48,31.61,39.73,22.89,36.98,0,0,0,0,0,0,0,0,0,0,0,0,0,0,0,0,
517,12.88,31.84,4.893,22.89,1.539,10.04,19.9,18.69,27.01,40.1,-2.545,27.33,18.56,29.14,23.23,25.59,0,0,0,0,0,0,0,0,0,0,0,0,0,0,0,0,
518,-0.7161,5.202,-7.25,6.811,-14.74,-6.277,11.38,11.08,9.443,28.99,-15.57,14.39,1.031,10.45,8.228,6.253,0,0,0,0,0,0,0,0,0,0,0,0,0,0,0,0,
519,-29.32,-33.4,-20.63,-15.27,-32.33,-21.84,4.886,7.093,-14.22,20.82,-12.92,6.357,-1.437,-0.2282,-4.638,1.761,0,0,0,0,0,0,0,0,0,0,0,0,0,0,0,0,
520,-47.76,-47.35,-20.29,-26.83,-46.12,-34.5,15.69,9.706,-28.76,18.57,-5.213,6.525,3.289,-1.149,-5.126,2.884,0,0,0,0,0,0,0,0,0,0,0,0,0,0,0,0,
521,-57.11,-64.0,-19.11,-38.28,-58.49,-51.66,26.97,8.814,-36.12,8.737,0.6318,9.233,4.598,-4.85,2.287,2.563,0,0,0,0,0,0,0,0,0,0,0,0,0,0,0,0,
522,-61.89,-79.66,-17.27,-50.23,-64.31,-70.82,33.66,7.577,-34.65,-9.956,20.5,16.07,14.41,-9.57,12.3,9.082,0,0,0,0,0,0,0,0,0,0,0,0,0,0,0,0,
523,-65.69,-84.08,-11.75,-50.22,-66.98,-78.33,32.85,9.406,-28.3,-24.47,27.45,14.62,21.24,-14.69,10.64,7.612,0,0,0,0,0,0,0,0,0,0,0,0,0,0,0,0,
524,-68.7,-85.21,-13.88,-39.55,-65.09,-71.26,19.25,10.23,-31.15,-31.32,8.041,6.744,9.934,-14.98,1.748,2.309,0,0,0,0,0,0,0,0,0,0,0,0,0,0,0,0,
525,-56.33,-74.95,-18.42,-22.32,-44.76,-51.2,1.784,14.2,-27.54,-20.77,-9.378,17.91,1.135,6.421,0.8085,16.74,0,0,0,0,0,0,0,0,0,0,0,0,0,0,0,0,
526,-35.97,-54.94,-21.61,-5.124,-21.06,-25.29,-18.24,19.42,-8.713,10.15,-30.71,31.4,-1.969,31.29,-6.315,21.97,0,0,0,0,0,0,0,0,0,0,0,0,0,0,0,0,
527,-29.99,-42.14,-32.66,9.348,-18.26,-9.904,-34.67,19.78,-6.567,32.96,-53.66,18.84,-14.21,27.79,-20.52,-1.672,0,0,0,0,0,0,0,0,0,0,0,0,0,0,0,0,
528,-32.83,-37.71,-40.56,15.87,-27.77,-11.49,-29.78,18.77,-23.26,30.73,-42.09,4.959,-16.95,11.87,-14.26,-10.22,0,0,0,0,0,0,0,0,0,0,0,0,0,0,0,0,
529,-38.58,-40.0,-39.64,-7.378,-35.36,-22.35,-13.93,11.24,-24.19,18.08,-14.52,7.516,2.219,6.877,5.954,8.113,0,0,0,0,0,0,0,0,0,0,0,0,0,0,0,0,
530,-46.51,-46.27,-37.19,-37.98,-27.81,-24.1,1.632,-4.059,-3.354,6.367,-4.178,7.772,23.53,6.759,14.73,20.32,0,0,0,0,0,0,0,0,0,0,0,0,0,0,0,0,
531,-33.72,-37.55,-18.07,-23.61,7.634,-1.617,24.24,-9.54,26.28,3.898,7.291,2.977,39.37,11.15,13.79,20.59,0,0,0,0,0,0,0,0,0,0,0,0,0,0,0,0,
532,-0.0157,-11.4,10.67,5.856,43.75,27.48,29.81,-7.039,54.3,20.38,13.18,-0.6098,44.86,18.58,4.111,13.24,0,0,0,0,0,0,0,0,0,0,0,0,0,0,0,0,
533,18.35,4.404,11.91,2.57,46.2,38.9,1.252,-9.503,58.81,41.6,-12.4,-5.86,28.32,15.26,-14.03,0.6409,0,0,0,0,0,0,0,0,0,0,0,0,0,0,0,0,
534,16.74,6.713,-4.38,3.125,32.29,43.96,-20.05,-4.801,37.78,51.33,-34.76,-5.808,14.19,13.26,-15.73,2.571,0,0,0,0,0,0,0,0,0,0,0,0,0,0,0,0,
535,16.51,13.11,-10.93,24.61,23.69,52.88,-11.67,7.127,24.83,63.19,-25.73,2.764,25.98,28.53,2.34,20.63,0,0,0,0,0,0,0,0,0,0,0,0,0,0,0,0,
536,9.236,8.252,-14.99,25.96,8.089,46.12,0.1526,4.353,27.68,76.16,-17.14,7.317,34.19,35.43,9.391,30.96,0,0,0,0,0,0,0,0,0,0,0,0,0,0,0,0,
537,-10.36,-10.94,-11.35,10.79,-12.1,18.13,5.996,-9.614,21.6,59.94,-20.6,-0.7125,22.55,14.24,2.728,24.67,0,0,0,0,0,0,0,0,0,0,0,0,0,0,0,0,
538,-19.55,-22.5,4.622,3.15,-15.16,-8.684,11.97,-19.29,11.64,20.07,-15.83,-17.14,13.78,-12.85,-1.742,8.513,0,0,0,0,0,0,0,0,0,0,0,0,0,0,0,0,
539,-17.52,-37.48,7.839,-2.983,-5.77,-18.2,16.32,-22.45,16.32,-3.425,-6.567,-25.2,9.227,-24.83,-8.183,-4.171,0,0,0,0,0,0,0,0,0,0,0,0,0,0,0,0,
540,-17.07,-41.82,1.031,1.743,-3.571,-12.91,22.34,-15.38,20.7,-0.7258,-6.125,-14.54,1.782,-21.27,-12.71,0.5904,0,0,0,0,0,0,0,0,0,0,0,0,0,0,0,0,
541,-16.37,-18.64,2.533,19.35,-11.29,-7.779,25.7,-5.038,10.04,7.978,-12.75,-2.945,-1.473,-12.28,-9.854,9.621,0,0,0,0,0,0,0,0,0,0,0,0,0,0,0,0,
542,-26.95,-37.07,-2.421,22.68,-26.22,-14.05,14.61,-7.264,-3.722,10.03,-24.04,-7.141,-12.9,-16.6,-20.25,-3.219,0,0,0,0,0,0,0,0,0,0,0,0,0,0,0,0,
543,-43.1,-85.2,-14.81,20.93,-47.93,-23.89,-4.042,-16.27,-17.15,1.473,-43.12,-19.64,-43.21,-37.83,-45.16,-27.13,0,0,0,0,0,0,0,0,0,0,0,0,0,0,0,0,
544,-19.08,-47.85,-3.939,37.75,-57.53,-22.3,-10.71,-18.88,-34.45,-14.84,-56.19,-25.87,-61.59,-48.19,-48.58,-25.9,0,0,0,0,0,0,0,0,0,0,0,0,0,0,0,0,
545,45.69,41.38,36.26,56.18,-28.63,1.399,6.147,-10.39,-30.62,-15.79,-31.87,-11.17,-37.02,-25.11,-16.4,6.014,0,0,0,0,0,0,0,0,0,0,0,0,0,0,0,0,
546,109.0,92.39,81.55,74.27,28.44,45.61,40.42,10.72,12.24,13.47,23.38,21.71,13.13,14.71,26.71,43.07,0,0,0,0,0,0,0,0,0,0,0,0,0,0,0,0,
547,177.8,151.2,128.2,118.2,83.09,91.8,82.49,33.56,63.34,50.35,69.93,51.06,58.09,49.03,65.8,77.11,0,0,0,0,0,0,0,0,0,0,0,0,0,0,0,0,
548,268.3,245.5,187.0,177.9,131.1,134.5,126.3,50.89,103.5,82.79,97.5,75.36,93.64,81.69,101.4,110.9,0,0,0,0,0,0,0,0,0,0,0,0,0,0,0,0,
549,352.0,329.9,229.3,225.4,168.2,179.6,138.8,69.56,138.0,119.6,96.51,92.71,105.0,102.3,109.2,119.8,0,0,0,0,0,0,0,0,0,0,0,0,0,0,0,0,
550,436.1,409.6,237.3,263.8,183.3,210.4,100.6,81.48,141.4,139.2,54.13,78.65,74.17,87.23,74.0,91.57,0,0,0,0,0,0,0,0,0,0,0,0,0,0,0,0,
551,558.8,504.3,260.5,303.0,201.1,223.8,68.2,76.86,113.8,129.6,16.14,44.51,39.71,57.29,37.69,59.5,0,0,0,0,0,0,0,0,0,0,0,0,0,0,0,0,
552,682.4,594.4,313.5,344.2,239.4,248.9,82.67,72.61,110.2,123.6,19.36,27.8,38.14,45.38,29.09,43.99,0,0,0,0,0,0,0,0,0,0,0,0,0,0,0,0,
553,746.5,668.1,348.1,393.1,270.9,285.7,102.8,82.29,135.2,131.1,30.51,28.34,45.71,46.54,25.93,37.48,0,0,0,0,0,0,0,0,0,0,0,0,0,0,0,0,
554,767.6,723.9,360.2,436.3,285.2,304.8,101.4,94.57,148.5,134.5,30.01,32.75,52.61,56.9,26.22,44.52,0,0,0,0,0,0,0,0,0,0,0,0,0,0,0,0,
555,778.3,750.7,374.3,447.9,302.6,308.6,100.7,100.6,154.8,145.6,34.38,43.34,77.09,84.72,44.62,67.5,0,0,0,0,0,0,0,0,0,0,0,0,0,0,0,0,
556,782.2,751.4,388.7,438.3,329.5,325.5,111.4,111.0,176.0,184.3,44.88,60.09,108.3,121.5,66.14,93.35,0,0,0,0,0,0,0,0,0,0,0,0,0,0,0,0,
557,778.8,740.0,398.2,429.9,347.1,349.6,121.3,128.6,201.8,231.2,47.97,76.95,124.1,148.3,75.99,108.1,0,0,0,0,0,0,0,0,0,0,0,0,0,0,0,0,
558,751.9,706.6,388.2,420.7,331.4,347.0,115.0,133.1,207.8,245.3,32.55,79.7,117.4,148.5,73.3,97.69,0,0,0,0,0,0,0,0,0,0,0,0,0,0,0,0,
559,687.2,642.6,348.2,410.2,289.2,319.3,92.16,117.1,187.7,222.1,8.996,61.4,95.59,125.2,60.93,71.17,0,0,0,0,0,0,0,0,0,0,0,0,0,0,0,0,
560,606.9,571.9,303.3,392.4,254.1,291.0,75.27,98.01,161.1,195.7,2.691,41.17,83.04,104.6,52.71,56.16,0,0,0,0,0,0,0,0,0,0,0,0,0,0,0,0,
561,540.2,512.7,274.6,350.4,231.3,263.6,75.95,84.36,143.6,185.6,9.764,29.76,85.3,95.21,47.83,46.79,0,0,0,0,0,0,0,0,0,0,0,0,0,0,0,0,
562,487.2,456.6,249.7,294.4,205.6,235.1,78.84,72.73,130.7,181.8,11.9,17.91,80.69,84.86,34.72,30.76,0,0,0,0,0,0,0,0,0,0,0,0,0,0,0,0,
563,430.5,396.3,217.6,247.3,185.0,212.2,76.99,63.58,122.5,169.7,16.23,11.16,70.48,73.95,28.38,27.35,0,0,0,0,0,0,0,0,0,0,0,0,0,0,0,0,
564,373.2,342.3,190.2,216.1,179.2,193.3,76.94,58.35,122.6,149.5,23.97,15.62,66.22,66.62,31.01,34.13,0,0,0,0,0,0,0,0,0,0,0,0,0,0,0,0,
565,327.1,300.6,167.9,200.7,166.5,172.0,67.5,53.91,116.8,135.9,15.41,18.78,55.93,58.89,18.74,31.57,0,0,0,0,0,0,0,0,0,0,0,0,0,0,0,0,
566,274.5,253.5,134.4,184.8,131.5,142.2,39.69,43.77,91.62,127.6,-4.979,20.23,40.82,53.54,4.706,34.22,0,0,0,0,0,0,0,0,0,0,0,0,0,0,0,0,
567,219.4,202.0,104.2,153.1,102.9,116.2,16.1,29.82,63.38,114.7,-13.41,25.9,36.78,50.39,10.63,44.98,0,0,0,0,0,0,0,0,0,0,0,0,0,0,0,0,
568,201.0,176.8,100.0,122.8,106.7,117.6,12.09,19.45,56.69,108.9,-8.574,23.31,38.15,39.52,18.05,41.29,0,0,0,0,0,0,0,0,0,0,0,0,0,0,0,0,
569,201.7,168.1,96.84,107.8,116.7,124.4,13.04,9.907,67.65,108.8,-0.8365,10.83,39.34,24.85,19.5,33.14,0,0,0,0,0,0,0,0,0,0,0,0,0,0,0,0,
570,171.3,139.8,72.26,93.88,99.42,99.48,10.93,3.611,70.54,92.57,7.539,4.828,42.48,18.47,23.15,32.04,0,0,0,0,0,0,0,0,0,0,0,0,0,0,0,0,
571,125.3,103.4,50.03,74.35,71.28,67.83,17.71,10.12,57.25,72.92,16.84,5.132,41.52,18.69,19.18,21.79,0,0,0,0,0,0,0,0,0,0,0,0,0,0,0,0,
572,106.2,90.18,52.87,56.71,67.36,63.65,38.79,18.4,53.23,74.89,26.78,1.414,41.19,20.09,9.865,9.351,0,0,0,0,0,0,0,0,0,0,0,0,0,0,0,0,
573,107.1,89.21,68.88,40.77,78.23,63.5,56.0,10.79,71.5,81.06,28.31,-7.504,43.78,16.07,4.76,6.865,0,0,0,0,0,0,0,0,0,0,0,0,0,0,0,0,
574,97.03,72.86,72.24,20.25,69.04,43.85,52.47,-8.076,81.68,66.92,15.55,-16.18,38.93,1.174,0.032,1.971,0,0,0,0,0,0,0,0,0,0,0,0,0,0,0,0,
575,77.64,50.01,63.02,2.906,46.6,25.74,43.03,-19.14,71.61,49.74,6.88,-14.23,37.98,-6.364,2.221,-0.345,0,0,0,0,0,0,0,0,0,0,0,0,0,0,0,0,
576,72.0,47.12,62.46,12.87,40.31,26.9,43.54,-13.38,70.66,53.82,10.96,-5.634,44.24,6.095,8.092,3.528,0,0,0,0,0,0,0,0,0,0,0,0,0,0,0,0,
577,78.95,58.35,64.17,44.96,43.41,33.55,38.3,-4.504,78.35,68.14,9.321,-8.557,31.98,14.97,1.888,-2.418,0,0,0,0,0,0,0,0,0,0,0,0,0,0,0,0,
578,76.61,60.38,47.97,53.92,34.52,32.24,19.81,-1.365,66.47,74.92,2.834,-15.5,10.58,12.49,-0.9874,-1.413,0,0,0,0,0,0,0,0,0,0,0,0,0,0,0,0,
579,55.95,46.56,23.67,31.7,14.44,26.54,11.19,6.178,40.82,75.89,7.259,-7.962,7.112,16.77,8.091,17.33,0,0,0,0,0,0,0,0,0,0,0,0,0,0,0,0,
580,30.82,27.33,8.22,10.44,-5.854,19.29,21.09,10.96,20.26,67.97,14.04,2.755,6.765,20.11,11.94,21.72,0,0,0,0,0,0,0,0,0,0,0,0,0,0,0,0,
581,23.7,22.13,7.655,-10.51,-13.03,10.89,34.47,5.4,9.686,49.27,22.21,5.748,8.506,17.45,26.02,21.78,0,0,0,0,0,0,0,0,0,0,0,0,0,0,0,0,
582,40.75,38.51,29.04,-28.37,6.165,14.89,52.55,11.87,26.38,47.29,52.04,12.69,43.75,32.08,62.68,48.99,0,0,0,0,0,0,0,0,0,0,0,0,0,0,0,0,
583,65.88,59.84,62.04,-14.86,45.74,42.02,79.94,28.51,78.04,79.17,88.51,23.85,94.78,57.89,87.4,73.58,0,0,0,0,0,0,0,0,0,0,0,0,0,0,0,0,
584,81.87,69.73,82.57,6.897,79.41,72.55,95.51,27.98,125.5,114.6,96.15,27.68,113.7,66.72,85.64,75.3,0,0,0,0,0,0,0,0,0,0,0,0,0,0,0,0,
585,87.8,73.09,88.67,3.865,89.29,82.46,89.3,17.65,135.2,126.2,80.96,25.58,102.1,64.41,73.2,76.4,0,0,0,0,0,0,0,0,0,0,0,0,0,0,0,0,
586,95.91,83.48,91.64,4.566,82.89,83.9,80.05,14.75,126.9,124.8,64.84,22.91,83.54,65.08,54.05,72.55,0,0,0,0,0,0,0,0,0,0,0,0,0,0,0,0,
587,106.3,96.42,90.8,23.73,72.7,93.79,71.46,18.43,122.7,124.3,49.27,19.08,60.58,61.9,34.42,55.06,0,0,0,0,0,0,0,0,0,0,0,0,0,0,0,0,
588,97.24,92.07,76.85,34.39,51.91,89.16,48.0,25.61,105.0,116.7,29.85,11.61,34.5,46.56,14.56,36.09,0,0,0,0,0,0,0,0,0,0,0,0,0,0,0,0,
589,62.13,63.22,48.61,25.71,14.5,50.98,16.93,21.84,61.01,86.69,6.617,-1.34,9.944,18.16,-14.7,14.6,0,0,0,0,0,0,0,0,0,0,0,0,0,0,0,0,
590,30.59,28.68,28.25,-0.6013,-17.18,10.6,7.621,4.602,20.35,42.7,-3.808,-12.42,-8.262,-9.627,-33.34,-3.624,0,0,0,0,0,0,0,0,0,0,0,0,0,0,0,0,
591,29.46,20.99,34.8,-33.42,-20.94,-0.6728,24.66,-1.25,14.61,19.25,12.55,-12.06,-8.215,-16.37,-24.13,-3.633,0,0,0,0,0,0,0,0,0,0,0,0,0,0,0,0,
592,47.16,37.65,47.98,-48.41,-8.442,5.905,40.56,5.022,30.38,24.48,29.79,-6.95,9.009,-7.644,-9.182,3.581,0,0,0,0,0,0,0,0,0,0,0,0,0,0,0,0,
593,51.88,38.77,42.44,-47.37,-2.462,7.687,41.81,6.973,38.67,28.83,29.07,-6.926,22.81,-5.25,-1.153,6.518,0,0,0,0,0,0,0,0,0,0,0,0,0,0,0,0,
594,38.74,26.81,29.44,-45.29,-5.807,0.6314,39.48,8.972,36.69,17.67,34.63,-7.19,25.36,-11.64,12.18,12.72,0,0,0,0,0,0,0,0,0,0,0,0,0,0,0,0,
595,31.56,20.96,30.3,-37.81,-7.435,-1.92,38.37,9.231,35.09,5.281,51.04,-2.491,27.11,-16.27,29.25,23.23,0,0,0,0,0,0,0,0,0,0,0,0,0,0,0,0,
596,29.19,-6.392,36.0,-33.99,-8.9,-0.262,32.24,1.088,33.0,-0.7207,49.58,-0.0734,26.73,-19.66,33.53,30.64,0,0,0,0,0,0,0,0,0,0,0,0,0,0,0,0,
597,12.28,-35.14,24.57,-48.33,-21.21,-14.2,19.63,-2.369,16.05,-11.9,32.29,-4.376,16.6,-25.16,23.55,33.53,0,0,0,0,0,0,0,0,0,0,0,0,0,0,0,0,
598,-1.624,-9.521,5.523,-61.94,-34.89,-34.17,7.061,2.058,-13.53,-27.25,28.22,-7.04,7.852,-24.46,16.07,35.44,0,0,0,0,0,0,0,0,0,0,0,0,0,0,0,0,
599,1.726,19.93,-2.82,-65.24,-38.88,-39.23,-0.9759,0.604,-26.75,-29.44,35.95,-6.831,7.128,-17.13,15.96,36.91,0,0,0,0,0,0,0,0,0,0,0,0,0,0,0,0,
600,1.597,2.658,-4.035,-70.45,-37.37,-37.75,0.0069,-2.068,-17.03,-21.81,39.59,-8.519,8.666,-10.81,17.8,38.96,0,0,0,0,0,0,0,0,0,0,0,0,0,0,0,0,
601,5.822,0.2464,9.661,-65.49,-17.29,-25.86,18.07,5.38,0.5375,-10.19,47.99,-3.618,21.82,3.157,25.59,45.4,0,0,0,0,0,0,0,0,0,0,0,0,0,0,0,0,
602,28.16,28.16,39.11,-47.1,22.55,0.4584,40.4,10.64,30.29,15.16,58.29,6.364,46.25,26.21,31.5,51.15,0,0,0,0,0,0,0,0,0,0,0,0,0,0,0,0,
603,39.5,30.8,52.68,-40.47,47.54,17.45,42.39,7.311,68.09,42.83,46.89,8.997,59.46,42.25,24.69,52.75,0,0,0,0,0,0,0,0,0,0,0,0,0,0,0,0,
604,31.87,16.64,46.69,-43.82,50.35,26.31,29.46,15.41,89.78,59.07,21.94,14.2,56.34,50.4,17.42,54.87,0,0,0,0,0,0,0,0,0,0,0,0,0,0,0,0,
605,25.1,13.71,42.07,-36.9,47.55,34.65,20.24,36.74,88.18,69.01,9.861,25.23,44.5,53.01,10.9,50.6,0,0,0,0,0,0,0,0,0,0,0,0,0,0,0,0,
606,19.17,12.29,34.65,-17.61,40.93,30.57,16.1,49.83,73.42,68.56,10.88,24.17,32.37,45.51,-2.704,40.12,0,0,0,0,0,0,0,0,0,0,0,0,0,0,0,0,
607,16.25,15.21,23.65,1.868,38.31,27.73,13.29,51.4,60.5,62.38,12.94,16.18,34.68,36.78,-5.553,40.91,0,0,0,0,0,0,0,0,0,0,0,0,0,0,0,0,
608,20.55,24.26,24.68,2.918,43.4,33.12,18.22,47.08,60.43,62.12,21.59,17.73,52.33,35.78,12.61,51.31,0,0,0,0,0,0,0,0,0,0,0,0,0,0,0,0,
609,23.83,24.3,39.36,-12.58,48.8,29.02,40.64,34.62,73.42,58.77,47.68,24.58,75.99,39.95,33.38,57.4,0,0,0,0,0,0,0,0,0,0,0,0,0,0,0,0,
610,23.55,15.77,49.78,-24.18,55.21,21.5,66.26,18.48,93.36,51.49,71.18,26.65,93.4,39.47,38.89,56.32,0,0,0,0,0,0,0,0,0,0,0,0,0,0,0,0,
611,19.62,8.614,43.82,-28.57,55.06,15.43,71.33,8.398,105.5,44.5,70.87,21.71,85.85,25.51,26.49,46.9,0,0,0,0,0,0,0,0,0,0,0,0,0,0,0,0,
612,13.98,5.258,34.85,-26.77,43.53,1.511,63.05,6.707,99.73,27.9,66.01,15.83,57.91,8.923,7.712,32.75,0,0,0,0,0,0,0,0,0,0,0,0,0,0,0,0,
613,7.118,-3.802,26.15,-23.61,29.82,-15.28,49.31,1.898,77.99,4.31,63.61,12.65,28.29,-1.491,-6.859,20.86,0,0,0,0,0,0,0,0,0,0,0,0,0,0,0,0,
614,-8.821,-24.99,4.043,-37.02,10.69,-32.03,24.93,-12.38,41.67,-14.57,47.71,6.974,0.0344,-14.23,-17.26,11.43,0,0,0,0,0,0,0,0,0,0,0,0,0,0,0,0,
615,-23.38,-37.75,-11.01,-55.24,-9.442,-45.23,8.508,-18.16,7.974,-21.04,34.21,-1.236,-17.64,-24.21,-22.08,4.315,0,0,0,0,0,0,0,0,0,0,0,0,0,0,0,0,
616,-17.79,-28.56,4.033,-50.47,-11.18,-43.75,14.14,-11.72,-2.253,-11.65,40.35,-8.583,-14.05,-24.31,-20.44,1.156,0,0,0,0,0,0,0,0,0,0,0,0,0,0,0,0,
617,-1.377,-16.12,23.8,-32.01,-0.1577,-32.62,24.28,-11.2,2.662,1.109,54.22,-12.17,0.9797,-20.79,-14.34,4.267,0,0,0,0,0,0,0,0,0,0,0,0,0,0,0,0,
618,5.237,-10.82,24.98,-17.5,8.553,-21.49,29.91,-10.52,11.99,6.707,68.46,-7.336,17.43,-11.44,-1.878,11.05,0,0,0,0,0,0,0,0,0,0,0,0,0,0,0,0,
619,2.117,-5.599,22.72,-4.985,19.05,-8.671,41.72,-2.159,26.53,9.47,81.38,-0.9279,31.77,2.312,10.59,14.13,0,0,0,0,0,0,0,0,0,0,0,0,0,0,0,0,
620,7.263,1.474,29.63,0.0209,29.48,6.202,58.44,1.726,39.59,12.42,86.18,1.665,38.4,11.32,12.32,19.69,0,0,0,0,0,0,0,0,0,0,0,0,0,0,0,0,
621,19.42,7.493,32.01,-8.393,27.51,16.93,63.39,6.092,43.43,18.97,82.85,9.649,38.57,20.23,11.73,34.46,0,0,0,0,0,0,0,0,0,0,0,0,0,0,0,0,
622,17.05,8.683,23.92,-15.57,21.57,17.4,56.77,14.66,39.38,31.21,78.61,18.9,41.86,30.88,19.21,45.18,0,0,0,0,0,0,0,0,0,0,0,0,0,0,0,0,
623,5.18,3.951,19.38,-16.12,25.9,11.66,50.51,13.58,37.37,41.48,72.98,16.23,48.89,32.43,23.16,44.08,0,0,0,0,0,0,0,0,0,0,0,0,0,0,0,0,
624,-0.7507,-3.269,18.37,-22.11,27.19,7.59,37.27,7.92,39.93,41.37,56.57,7.39,46.28,23.71,19.12,39.24,0,0,0,0,0,0,0,0,0,0,0,0,0,0,0,0,
625,-7.147,-9.206,12.03,-22.4,17.48,5.162,15.55,6.717,38.95,33.67,34.1,2.274,33.6,14.52,18.13,34.58,0,0,0,0,0,0,0,0,0,0,0,0,0,0,0,0,
626,-16.0,-13.53,3.383,-2.113,13.58,6.104,1.836,4.614,38.12,31.99,20.14,2.601,29.62,12.95,13.68,32.63,0,0,0,0,0,0,0,0,0,0,0,0,0,0,0,0,
627,-20.52,-17.48,-1.306,16.0,17.73,15.56,0.4338,7.36,41.05,41.84,18.64,11.16,40.27,23.57,4.625,39.85,0,0,0,0,0,0,0,0,0,0,0,0,0,0,0,0,
628,-16.43,-15.87,8.697,17.91,23.18,30.95,13.18,17.63,43.83,55.29,31.05,21.14,49.82,37.44,6.855,45.32,0,0,0,0,0,0,0,0,0,0,0,0,0,0,0,0,
629,-4.974,-8.559,30.15,23.72,33.6,41.92,36.76,23.05,50.37,62.75,47.91,15.59,40.22,30.54,4.486,25.26,0,0,0,0,0,0,0,0,0,0,0,0,0,0,0,0,
630,-2.299,-7.049,36.76,34.1,41.9,38.12,48.23,23.26,52.31,54.69,51.55,-0.6993,15.4,3.364,-14.12,-7.55,0,0,0,0,0,0,0,0,0,0,0,0,0,0,0,0,
631,-15.81,-13.43,20.99,30.46,37.25,22.03,39.39,21.93,36.46,36.16,45.68,-7.164,-0.6233,-12.41,-18.81,-17.62,0,0,0,0,0,0,0,0,0,0,0,0,0,0,0,0,
632,-32.23,-24.84,-1.975,18.17,22.06,6.533,22.81,15.38,10.65,24.48,35.28,-7.63,-4.739,-12.16,-12.62,-13.74,0,0,0,0,0,0,0,0,0,0,0,0,0,0,0,0,
633,-40.97,-39.75,-13.54,12.61,5.17,-2.755,11.03,10.71,-18.54,18.99,18.57,-12.58,-9.867,-14.86,-19.4,-15.63,0,0,0,0,0,0,0,0,0,0,0,0,0,0,0,0,
634,-38.75,-44.61,-1.292,13.61,-3.654,-6.72,13.62,12.53,-45.7,14.36,10.37,-11.29,-9.7,-15.0,-19.47,-8.946,0,0,0,0,0,0,0,0,0,0,0,0,0,0,0,0,
635,-31.97,-34.8,15.18,15.1,-5.263,-4.048,23.88,10.52,-54.49,15.9,16.22,-2.671,-1.16,-8.124,-10.21,0.8897,0,0,0,0,0,0,0,0,0,0,0,0,0,0,0,0,
636,-29.81,-24.36,14.65,12.28,-5.3,3.966,29.89,4.328,-40.86,20.28,23.73,2.274,3.776,-7.492,-17.06,-6.308,0,0,0,0,0,0,0,0,0,0,0,0,0,0,0,0,
637,-29.73,-21.3,11.0,3.819,0.3837,8.146,32.25,2.302,-20.29,20.21,27.47,7.291,1.961,-12.2,-27.76,-15.5,0,0,0,0,0,0,0,0,0,0,0,0,0,0,0,0,
638,-30.34,-26.27,11.79,-6.96,9.716,0.6393,30.66,2.744,-12.05,13.51,27.24,11.43,-3.848,-16.24,-27.65,-16.94,0,0,0,0,0,0,0,0,0,0,0,0,0,0,0,0,
639,-29.98,-33.68,9.106,-19.99,16.79,-8.17,28.67,4.202,-16.26,5.432,30.67,6.21,-6.682,-18.49,-26.85,-22.25,0,0,0,0,0,0,0,0,0,0,0,0,0,0,0,0,
640,-21.04,-28.14,8.804,-23.93,28.85,2.346,32.87,11.09,-13.55,13.41,41.51,0.3999,1.312,-11.05,-20.54,-23.42,0,0,0,0,0,0,0,0,0,0,0,0,0,0,0,0,
641,-6.747,-5.855,15.74,-2.574,44.93,26.85,36.0,20.72,-3.636,34.28,44.21,2.98,9.609,0.4036,-6.795,-9.717,0,0,0,0,0,0,0,0,0,0,0,0,0,0,0,0,
642,2.363,12.38,19.65,20.59,48.42,33.59,33.06,21.77,-2.09,38.79,37.0,8.573,8.59,0.3545,-1.274,7.443,0,0,0,0,0,0,0,0,0,0,0,0,0,0,0,0,
643,-1.058,7.89,10.97,21.63,36.82,16.75,28.53,9.216,-4.197,28.05,33.27,10.49,9.637,-3.492,-2.216,13.5,0,0,0,0,0,0,0,0,0,0,0,0,0,0,0,0,
644,-13.83,-5.671,-1.742,22.42,27.29,6.117,25.25,-3.832,-0.1192,26.43,30.34,3.284,16.6,0.2452,1.187,7.594,0,0,0,0,0,0,0,0,0,0,0,0,0,0,0,0,
645,-13.53,-4.152,0.8209,29.78,35.13,13.88,30.5,-1.221,6.587,30.33,29.52,-8.896,20.4,5.366,6.817,1.203,0,0,0,0,0,0,0,0,0,0,0,0,0,0,0,0,
646,8.322,7.552,18.34,32.68,53.89,22.67,45.43,9.162,15.6,31.27,37.8,-14.08,21.41,7.441,10.03,-2.688,0,0,0,0,0,0,0,0,0,0,0,0,0,0,0,0,
647,22.32,9.604,29.84,37.29,55.23,17.54,53.76,4.832,22.61,32.35,39.1,-14.6,16.69,2.548,5.961,-9.748,0,0,0,0,0,0,0,0,0,0,0,0,0,0,0,0,
648,12.7,2.809,29.86,31.32,34.89,2.433,50.64,-12.26,9.95,20.86,27.24,-14.21,0.1768,-9.224,-2.426,-7.147,0,0,0,0,0,0,0,0,0,0,0,0,0,0,0,0,
649,5.468,3.234,34.45,14.24,25.02,-1.319,51.32,-17.27,-17.6,0.1646,27.41,-5.708,-11.66,-9.209,0.858,13.41,0,0,0,0,0,0,0,0,0,0,0,0,0,0,0,0,
650,10.78,6.433,43.27,13.61,25.28,8.853,57.89,-9.019,-33.51,-0.5212,46.34,3.264,-3.757,5.262,15.36,28.82,0,0,0,0,0,0,0,0,0,0,0,0,0,0,0,0,
651,5.149,-5.945,39.71,14.9,11.14,7.03,59.4,-11.45,-37.24,10.31,63.48,0.7745,12.04,12.1,23.74,25.57,0,0,0,0,0,0,0,0,0,0,0,0,0,0,0,0,
652,-11.54,-20.98,32.15,2.62,1.04,-6.525,58.22,-26.54,-38.47,7.783,69.88,-2.942,21.47,8.673,24.37,17.4,0,0,0,0,0,0,0,0,0,0,0,0,0,0,0,0,
653,-22.49,-22.99,36.01,0.8495,4.309,-16.96,60.76,-34.22,-33.06,1.078,67.73,-2.55,17.78,2.893,22.06,11.9,0,0,0,0,0,0,0,0,0,0,0,0,0,0,0,0,
654,-37.52,-35.06,35.48,2.592,-10.41,-35.32,60.49,-31.02,-31.77,-7.505,56.13,-11.83,-0.1046,-10.54,11.03,-0.07,0,0,0,0,0,0,0,0,0,0,0,0,0,0,0,0,
655,-59.65,-60.73,18.11,-10.52,-36.83,-53.47,51.08,-29.88,-42.78,-25.74,38.27,-31.5,-18.38,-28.58,-6.958,-25.8,0,0,0,0,0,0,0,0,0,0,0,0,0,0,0,0,
656,-64.07,-65.58,7.666,-20.18,-37.73,-43.03,45.59,-31.32,-47.06,-34.87,27.38,-43.23,-19.96,-38.32,-20.37,-50.65,0,0,0,0,0,0,0,0,0,0,0,0,0,0,0,0,
657,-43.4,-44.47,23.33,-13.14,-15.75,-16.32,58.19,-25.05,-35.61,-23.5,30.72,-40.61,-7.02,-38.09,-30.56,-58.36,0,0,0,0,0,0,0,0,0,0,0,0,0,0,0,0,T2
658,-23.62,-27.47,38.93,0.3393,-4.566,-7.571,68.33,-18.25,-22.91,-10.46,32.17,-37.2,-0.7809,-37.58,-45.54,-61.06,0,0,0,0,0,0,0,0,0,0,0,0,0,0,0,0,
659,-27.62,-32.0,26.82,5.3,-13.18,-16.18,55.82,-24.56,-20.57,-8.872,23.49,-39.85,-6.545,-40.5,-56.6,-66.51,0,0,0,0,0,0,0,0,0,0,0,0,0,0,0,0,
660,-41.76,-41.34,8.144,3.639,-14.45,-13.18,41.73,-34.92,-23.2,-10.01,20.27,-42.71,-5.601,-38.24,-54.53,-65.69,0,0,0,0,0,0,0,0,0,0,0,0,0,0,0,0,
661,-40.04,-31.74,2.852,10.73,-1.762,5.867,35.92,-38.11,-20.29,-4.47,17.97,-43.6,-0.9661,-28.9,-46.03,-62.36,0,0,0,0,0,0,0,0,0,0,0,0,0,0,0,0,
662,-29.04,-14.52,-1.676,18.21,3.496,18.31,23.74,-34.69,-13.06,5.328,5.918,-39.91,-2.684,-17.62,-28.79,-52.56,0,0,0,0,0,0,0,0,0,0,0,0,0,0,0,0,
663,-26.77,-9.895,-6.24,14.73,3.425,23.11,9.531,-24.84,-3.519,15.41,-0.5212,-32.81,7.481,-3.679,-0.5473,-32.44,0,0,0,0,0,0,0,0,0,0,0,0,0,0,0,0,
664,-31.18,-13.9,-8.517,8.857,2.466,22.47,-3.434,-21.85,5.438,20.12,-3.597,-33.56,24.74,7.165,15.22,-28.49,0,0,0,0,0,0,0,0,0,0,0,0,0,0,0,0,
665,-35.5,-25.41,-16.45,-0.5225,-4.245,3.909,-14.88,-34.36,4.216,12.8,-16.81,-38.16,20.9,9.351,8.363,-41.7,0,0,0,0,0,0,0,0,0,0,0,0,0,0,0,0,
666,-33.88,-33.51,-20.77,-2.134,-3.374,-11.9,-10.67,-40.45,-0.1146,1.931,-22.78,-37.45,4.396,6.966,0.1232,-43.77,0,0,0,0,0,0,0,0,0,0,0,0,0,0,0,0,
667,-22.89,-18.95,-13.67,18.5,1.345,-4.122,2.706,-31.71,-0.5832,-2.163,-11.35,-44.22,-5.119,-4.354,1.275,-42.82,0,0,0,0,0,0,0,0,0,0,0,0,0,0,0,0,
668,-12.91,-9.691,-1.856,31.16,-3.075,5.042,12.9,-26.66,-7.753,-2.925,5.818,-57.82,-3.725,-20.2,11.11,-44.48,0,0,0,0,0,0,0,0,0,0,0,0,0,0,0,0,
669,-7.526,-12.4,13.06,31.77,5.115,13.49,35.34,-25.2,-8.953,0.7885,37.38,-50.39,22.1,-11.6,40.97,-19.51,0,0,0,0,0,0,0,0,0,0,0,0,0,0,0,0,
670,12.6,22.3,38.79,58.91,44.38,42.03,85.69,-10.31,24.03,20.18,97.51,-9.948,80.0,35.05,94.68,32.26,0,0,0,0,0,0,0,0,0,0,0,0,0,0,0,0,
671,52.08,53.42,85.08,93.94,100.6,78.22,151.6,20.34,85.7,61.09,156.4,45.28,138.8,93.12,142.5,75.92,0,0,0,0,0,0,0,0,0,0,0,0,0,0,0,0,
672,79.93,18.76,124.6,101.0,135.2,96.43,184.4,49.07,132.9,102.9,166.6,83.09,152.9,120.3,148.3,89.47,0,0,0,0,0,0,0,0,0,0,0,0,0,0,0,0,
673,76.05,9.561,110.1,94.3,118.0,88.39,153.4,60.65,126.7,109.0,138.2,87.43,125.1,106.0,120.7,73.43,0,0,0,0,0,0,0,0,0,0,0,0,0,0,0,0,
674,54.55,66.07,62.8,77.64,79.89,65.47,101.4,62.2,86.6,85.75,110.5,72.28,95.09,78.19,88.04,37.44,0,0,0,0,0,0,0,0,0,0,0,0,0,0,0,0,
675,27.88,67.12,30.45,45.84,59.11,47.61,61.99,57.98,56.69,67.11,71.94,45.42,64.99,47.45,44.71,-10.34,0,0,0,0,0,0,0,0,0,0,0,0,0,0,0,0,
676,1.526,5.669,10.67,18.9,42.37,33.51,24.89,38.82,32.93,47.25,19.41,6.552,30.32,10.39,0.1748,-48.1,0,0,0,0,0,0,0,0,0,0,0,0,0,0,0,0,
677,-10.18,-15.12,6.711,2.923,33.87,15.39,13.78,16.38,13.72,17.5,2.2,-20.09,26.68,-5.115,-4.455,-47.33,0,0,0,0,0,0,0,0,0,0,0,0,0,0,0,0,
678,-5.72,-5.482,25.19,-9.449,48.35,4.382,36.03,7.133,24.53,4.364,16.67,-20.15,47.76,10.15,15.51,-25.54,0,0,0,0,0,0,0,0,0,0,0,0,0,0,0,0,
679,-3.645,-13.31,26.43,-17.11,49.73,2.049,36.15,0.8236,38.6,10.27,10.04,-13.99,44.87,20.61,17.22,-19.88,0,0,0,0,0,0,0,0,0,0,0,0,0,0,0,0,
680,-11.91,-25.42,-0.4922,-23.52,25.88,0.9403,11.21,-5.579,16.53,13.58,-3.823,-10.48,29.55,19.07,17.49,-20.48,0,0,0,0,0,0,0,0,0,0,0,0,0,0,0,0,
681,-22.23,-31.41,-15.22,-31.65,15.35,5.159,9.215,-0.2,-12.8,15.94,3.157,-4.568,31.3,22.43,24.77,-14.84,0,0,0,0,0,0,0,0,0,0,0,0,0,0,0,0,
682,-30.85,-35.2,-11.32,-40.33,19.92,12.6,18.62,6.978,-21.43,17.57,-1.938,-8.602,26.36,18.59,5.3,-26.13,0,0,0,0,0,0,0,0,0,0,0,0,0,0,0,0,
683,-32.73,-33.94,-8.689,-45.83,18.34,19.66,12.08,2.041,-28.98,7.664,-26.94,-29.41,1.147,-3.158,-33.11,-56.15,0,0,0,0,0,0,0,0,0,0,0,0,0,0,0,0,
684,-18.85,-18.48,-11.01,-42.47,11.94,23.03,2.543,-7.655,-47.63,-9.718,-45.61,-52.36,-26.62,-32.53,-62.34,-77.93,0,0,0,0,0,0,0,0,0,0,0,0,0,0,0,0,
685,-3.614,1.476,-19.15,-37.16,-2.848,8.838,-8.458,-16.31,-72.34,-31.1,-70.65,-66.66,-54.89,-59.37,-87.53,-83.72,0,0,0,0,0,0,0,0,0,0,0,0,0,0,0,0,
686,-6.85,-4.961,-25.92,-33.62,-22.84,-12.9,-25.13,-23.5,-96.25,-52.63,-102.1,-73.25,-82.39,-72.18,-108.4,-85.57,0,0,0,0,0,0,0,0,0,0,0,0,0,0,0,0,
687,-17.57,-22.38,-25.29,-27.47,-33.62,-27.98,-30.34,-27.62,-111.2,-64.79,-111.6,-79.04,-100.2,-74.97,-119.4,-93.22,0,0,0,0,0,0,0,0,0,0,0,0,0,0,0,0,
688,-25.79,-28.58,-30.61,-28.49,-44.41,-54.88,-24.17,-36.02,-122.3,-81.74,-109.0,-87.96,-111.7,-86.45,-126.6,-105.1,0,0,0,0,0,0,0,0,0,0,0,0,0,0,0,0,
689,-39.79,-59.61,-41.93,-36.75,-58.07,-80.8,-23.52,-48.39,-133.3,-108.8,-105.9,-90.46,-115.7,-99.95,-124.3,-112.0,0,0,0,0,0,0,0,0,0,0,0,0,0,0,0,0,
690,-52.6,-93.54,-43.77,-41.96,-60.03,-77.95,-23.43,-48.39,-136.1,-117.2,-90.95,-82.87,-108.1,-102.4,-111.4,-110.8,0,0,0,0,0,0,0,0,0,0,0,0,0,0,0,0,
691,-48.82,-60.17,-33.47,-50.08,-54.56,-73.39,-9.078,-32.23,-132.4,-105.7,-72.54,-76.26,-95.97,-99.3,-98.68,-107.4,0,0,0,0,0,0,0,0,0,0,0,0,0,0,0,0,
692,-36.77,-7.595,-20.54,-53.99,-48.6,-73.99,9.225,-14.84,-119.3,-95.46,-58.4,-69.66,-80.5,-88.5,-82.28,-104.5,0,0,0,0,0,0,0,0,0,0,0,0,0,0,0,0,
693,-33.43,-9.807,-16.21,-40.53,-41.84,-51.96,14.78,-7.27,-94.88,-80.69,-41.17,-53.54,-58.44,-67.42,-54.54,-95.06,0,0,0,0,0,0,0,0,0,0,0,0,0,0,0,0,
694,-29.81,-23.18,-11.19,-24.06,-34.17,-29.39,23.35,-0.6672,-73.97,-57.27,-20.99,-32.4,-32.53,-45.59,-20.64,-69.72,0,0,0,0,0,0,0,0,0,0,0,0,0,0,0,0,
695,-20.55,-14.91,-1.367,-13.5,-24.05,-30.87,39.14,15.51,-57.86,-37.97,-5.233,-17.14,-13.3,-28.78,4.903,-39.66,0,0,0,0,0,0,0,0,0,0,0,0,0,0,0,0,
696,-33.82,-26.92,-18.15,-5.19,-29.72,-39.13,31.94,24.08,-50.45,-29.74,-4.145,-9.562,-14.73,-20.33,11.05,-23.87,0,0,0,0,0,0,0,0,0,0,0,0,0,0,0,0,
697,-65.16,-53.84,-53.26,-5.514,-56.99,-46.85,13.69,13.97,-67.61,-32.9,-8.878,-2.208,-24.72,-17.15,9.289,-18.29,0,0,0,0,0,0,0,0,0,0,0,0,0,0,0,0,
698,-75.26,-56.76,-63.13,-11.99,-73.3,-55.9,14.9,8.255,-89.98,-42.28,-2.359,5.202,-20.28,-13.43,13.22,-12.86,0,0,0,0,0,0,0,0,0,0,0,0,0,0,0,0,
699,-73.73,-52.42,-59.73,-12.89,-73.5,-62.91,14.78,12.23,-95.19,-52.26,2.781,4.164,-12.28,-15.24,16.33,-8.05,0,0,0,0,0,0,0,0,0,0,0,0,0,0,0,0,
700,-81.55,-60.2,-63.71,-3.13,-77.73,-68.99,1.722,8.933,-95.87,-58.75,-0.4683,2.042,-13.17,-15.79,15.79,1.121,0,0,0,0,0,0,0,0,0,0,0,0,0,0,0,0,
701,-81.69,-57.97,-62.07,22.34,-76.5,-65.36,-4.873,7.41,-94.8,-50.46,1.775,13.49,-7.05,5.017,22.77,17.56,0,0,0,0,0,0,0,0,0,0,0,0,0,0,0,0,
702,-69.77,-35.95,-52.18,56.69,-55.84,-41.39,-0.4461,18.1,-77.48,-21.3,8.993,30.44,13.17,36.11,41.34,28.19,0,0,0,0,0,0,0,0,0,0,0,0,0,0,0,0,
703,-56.76,-14.31,-38.97,74.83,-26.58,-10.76,11.61,24.35,-44.74,10.34,17.23,36.6,30.75,45.13,55.49,24.14,0,0,0,0,0,0,0,0,0,0,0,0,0,0,0,0,
704,-48.06,-11.45,-33.78,70.64,-8.667,1.965,19.01,20.45,-18.95,17.84,24.0,36.05,35.29,34.36,55.87,22.23,0,0,0,0,0,0,0,0,0,0,0,0,0,0,0,0,
705,-49.56,-23.14,-42.06,63.41,-4.647,-4.543,13.55,20.78,-11.97,9.455,25.35,42.23,42.75,38.3,62.29,41.51,0,0,0,0,0,0,0,0,0,0,0,0,0,0,0,0,
706,-55.29,-31.84,-42.49,58.6,-2.292,-7.792,12.62,23.64,-3.343,12.99,30.88,50.6,64.06,59.56,79.25,66.4,0,0,0,0,0,0,0,0,0,0,0,0,0,0,0,0,
707,-51.1,-27.48,-29.95,56.52,2.041,5.732,25.44,19.34,14.7,23.28,45.53,51.8,82.88,72.21,88.67,75.99,0,0,0,0,0,0,0,0,0,0,0,0,0,0,0,0,
708,-31.13,-8.002,-16.75,71.91,14.32,27.81,45.57,17.48,29.95,33.24,59.91,53.72,92.5,80.56,96.23,79.49,0,0,0,0,0,0,0,0,0,0,0,0,0,0,0,0,
709,-12.3,10.98,-5.58,98.43,33.94,41.99,63.3,21.71,46.09,51.38,68.46,59.37,102.8,93.66,108.6,86.96,0,0,0,0,0,0,0,0,0,0,0,0,0,0,0,0,
710,-17.13,10.02,0.5937,113.1,43.44,41.82,71.06,22.42,60.55,62.35,79.14,65.71,118.9,103.7,122.0,104.0,0,0,0,0,0,0,0,0,0,0,0,0,0,0,0,0,
711,-27.43,3.711,6.014,111.7,45.66,36.46,79.06,25.65,68.8,65.09,98.95,78.47,137.0,116.9,138.9,129.1,0,0,0,0,0,0,0,0,0,0,0,0,0,0,0,0,
712,-28.09,-2.517,3.665,95.2,40.94,27.86,84.07,30.03,73.36,74.65,107.5,84.2,135.7,121.4,139.8,129.6,0,0,0,0,0,0,0,0,0,0,0,0,0,0,0,0,
713,-40.18,-22.41,-17.25,75.29,19.26,14.66,73.47,22.9,60.27,70.66,99.18,71.8,117.0,101.8,121.9,103.4,0,0,0,0,0,0,0,0,0,0,0,0,0,0,0,0,
714,-49.95,-29.55,-24.63,76.67,12.27,14.96,69.14,20.96,47.21,57.83,106.6,67.89,119.4,93.77,122.3,97.88,0,0,0,0,0,0,0,0,0,0,0,0,0,0,0,0,
715,-36.55,-13.55,-6.823,90.28,31.67,28.81,74.8,33.44,65.35,68.13,119.0,77.45,133.7,107.1,130.9,110.8,0,0,0,0,0,0,0,0,0,0,0,0,0,0,0,0,
716,-31.33,-11.35,-4.263,88.55,34.59,27.7,62.56,35.58,76.14,77.59,103.4,74.04,128.6,104.5,122.0,109.6,0,0,0,0,0,0,0,0,0,0,0,0,0,0,0,0,
717,-46.13,-25.24,-18.65,73.07,23.85,14.11,46.64,25.56,58.19,63.54,89.38,62.32,128.9,92.64,120.9,104.2,0,0,0,0,0,0,0,0,0,0,0,0,0,0,0,0,
718,-53.12,-33.29,-19.27,61.11,33.97,14.72,53.53,21.85,58.5,52.26,96.72,57.69,143.0,90.37,122.1,98.37,0,0,0,0,0,0,0,0,0,0,0,0,0,0,0,0,
719,-49.62,-32.7,-12.34,63.63,44.86,25.4,62.12,24.31,71.85,52.4,90.02,55.6,133.0,83.74,95.85,79.6,0,0,0,0,0,0,0,0,0,0,0,0,0,0,0,0,
720,-52.91,-31.53,-18.05,76.1,28.18,26.27,47.48,29.65,55.0,54.14,65.49,56.54,103.0,76.1,71.3,62.33,0,0,0,0,0,0,0,0,0,0,0,0,0,0,0,0,
721,-60.26,-37.27,-32.55,82.33,3.542,18.11,20.84,35.35,24.69,57.3,51.37,61.21,83.0,75.54,67.63,56.92,0,0,0,0,0,0,0,0,0,0,0,0,0,0,0,0,
722,-59.68,-34.31,-42.16,76.04,-5.095,10.84,0.0388,30.31,4.478,52.93,43.28,58.51,67.32,67.14,53.84,51.77,0,0,0,0,0,0,0,0,0,0,0,0,0,0,0,0,
723,-57.51,-32.23,-40.11,57.76,-2.788,5.412,-10.64,11.93,-13.22,33.46,31.17,45.72,46.61,47.28,29.32,40.26,0,0,0,0,0,0,0,0,0,0,0,0,0,0,0,0,
724,-62.64,-67.74,-29.62,34.32,-3.759,-2.706,-11.67,-5.624,-21.59,9.832,24.58,32.76,28.61,25.72,16.17,24.79,0,0,0,0,0,0,0,0,0,0,0,0,0,0,0,0,
725,-69.97,-89.6,-28.65,27.35,-20.03,-17.88,-15.76,-10.64,-24.46,-7.311,13.31,23.57,10.53,7.854,4.951,9.581,0,0,0,0,0,0,0,0,0,0,0,0,0,0,0,0,
726,-75.4,-48.02,-42.21,41.1,-47.73,-36.37,-33.04,-13.54,-44.59,-21.64,-13.5,10.43,-13.22,-7.206,-15.77,-7.921,0,0,0,0,0,0,0,0,0,0,0,0,0,0,0,0,
727,-74.8,-21.38,-47.98,47.26,-64.4,-50.46,-45.19,-27.84,-70.01,-41.9,-33.05,-9.298,-35.97,-30.56,-34.87,-32.09,0,0,0,0,0,0,0,0,0,0,0,0,0,0,0,0,
728,-73.93,-52.19,-51.31,27.02,-72.67,-66.81,-42.26,-45.6,-84.46,-68.05,-38.9,-27.99,-51.65,-60.49,-43.36,-51.45,0,0,0,0,0,0,0,0,0,0,0,0,0,0,0,0,
729,-90.23,-82.6,-71.4,-1.379,-90.57,-92.58,-38.99,-58.95,-98.33,-90.23,-48.04,-42.76,-56.27,-75.77,-44.9,-55.27,0,0,0,0,0,0,0,0,0,0,0,0,0,0,0,0,
730,-110.8,-96.93,-84.61,-11.39,-105.6,-112.7,-37.62,-66.65,-106.3,-98.89,-50.21,-50.49,-45.5,-71.06,-40.59,-49.36,0,0,0,0,0,0,0,0,0,0,0,0,0,0,0,0,
731,-114.1,-111.0,-78.69,-8.559,-107.3,-113.4,-32.14,-61.01,-98.7,-89.08,-32.74,-43.98,-21.98,-55.04,-26.67,-41.36,0,0,0,0,0,0,0,0,0,0,0,0,0,0,0,0,
732,-109.4,-114.5,-73.15,-8.446,-105.4,-106.5,-27.91,-51.21,-86.07,-68.1,-16.01,-34.43,-1.838,-38.92,-14.83,-36.88,0,0,0,0,0,0,0,0,0,0,0,0,0,0,0,0,
733,-103.7,-109.2,-67.92,-0.3826,-101.1,-108.3,-31.51,-52.06,-77.22,-57.41,-14.4,-30.96,2.34,-33.41,-10.7,-28.12,0,0,0,0,0,0,0,0,0,0,0,0,0,0,0,0,
734,-100.1,-106.8,-62.76,15.11,-95.59,-111.6,-35.55,-51.3,-68.53,-56.01,-11.23,-16.31,9.527,-22.67,4.683,-6.284,0,0,0,0,0,0,0,0,0,0,0,0,0,0,0,0,
735,-103.6,-103.4,-60.16,20.48,-90.83,-105.4,-30.62,-44.28,-51.94,-42.94,-6.729,-0.0815,23.0,-3.894,13.16,-3.847,0,0,0,0,0,0,0,0,0,0,0,0,0,0,0,0,
736,-96.99,-90.52,-46.04,23.57,-79.09,-96.12,-25.81,-43.33,-38.58,-31.03,-15.93,-4.841,16.38,-1.921,-3.926,-21.06,0,0,0,0,0,0,0,0,0,0,0,0,0,0,0,0,
737,-80.26,-78.72,-26.06,17.45,-53.08,-78.28,-15.24,-43.64,-31.56,-25.58,-5.148,3.122,24.24,11.18,11.71,7.727,0,0,0,0,0,0,0,0,0,0,0,0,0,0,0,0,
738,-76.8,-85.91,-19.74,-12.24,-22.75,-47.94,9.299,-44.84,0.9604,1.067,28.05,26.58,64.22,43.5,51.12,45.86,0,0,0,0,0,0,0,0,0,0,0,0,0,0,0,0,
739,-75.09,-92.25,-28.7,-13.63,-22.48,-38.81,4.016,-53.12,29.66,15.77,6.555,3.193,48.66,20.52,20.39,-1.137,0,0,0,0,0,0,0,0,0,0,0,0,0,0,0,0,
740,-61.52,-72.25,-44.7,34.49,-53.1,-56.38,-36.75,-52.62,-5.148,-20.7,-49.07,-41.65,-16.72,-36.13,-35.32,-59.47,0,0,0,0,0,0,0,0,0,0,0,0,0,0,0,0,
741,-55.33,-52.75,-57.19,60.04,-61.3,-56.42,-54.12,-41.62,-46.19,-46.71,-49.19,-35.5,-27.06,-33.03,-29.23,-39.57,0,0,0,0,0,0,0,0,0,0,0,0,0,0,0,0,
742,-61.23,-54.5,-71.48,49.92,-42.21,-35.63,-60.12,-38.77,-38.3,-30.1,-31.55,-11.99,-9.877,-6.783,-18.92,-16.09,0,0,0,0,0,0,0,0,0,0,0,0,0,0,0,0,
743,-72.53,-58.49,-97.39,52.64,-38.41,-21.89,-82.74,-37.94,-35.56,-23.26,-40.16,-15.36,-21.15,-12.78,-30.05,-27.14,0,0,0,0,0,0,0,0,0,0,0,0,0,0,0,0,
744,-87.06,-60.52,-107.0,57.58,-41.67,-12.4,-77.77,-32.74,-47.94,-27.5,-29.34,-22.59,-15.15,-15.66,-14.71,-25.38,0,0,0,0,0,0,0,0,0,0,0,0,0,0,0,0,
745,-82.78,-61.67,-84.35,52.93,-34.54,-5.848,-51.39,-36.66,-38.71,-16.78,-9.399,-28.65,3.529,-14.73,-3.171,-20.96,0,0,0,0,0,0,0,0,0,0,0,0,0,0,0,0,
746,-59.0,-53.04,-71.24,55.94,-37.48,-11.64,-52.23,-45.52,-30.86,-14.78,-12.66,-36.39,-7.537,-30.61,-15.98,-23.4,0,0,0,0,0,0,0,0,0,0,0,0,0,0,0,0,
747,-57.59,-51.69,-88.85,47.3,-52.55,-22.73,-61.65,-48.1,-41.83,-29.79,-13.29,-30.68,-20.74,-38.72,-13.44,-16.69,0,0,0,0,0,0,0,0,0,0,0,0,0,0,0,0,
748,-83.23,-70.92,-105.9,18.26,-66.26,-35.9,-60.42,-52.01,-51.4,-38.9,-9.494,-23.56,-17.28,-35.65,-3.692,-20.22,0,0,0,0,0,0,0,0,0,0,0,0,0,0,0,0,
749,-96.68,-85.91,-104.7,1.458,-76.88,-51.3,-63.2,-58.51,-53.38,-39.89,-15.31,-26.33,-14.52,-33.8,-5.401,-27.52,0,0,0,0,0,0,0,0,0,0,0,0,0,0,0,0,
750,-89.75,-82.58,-97.78,3.146,-75.84,-55.37,-64.78,-54.72,-50.59,-39.74,-14.74,-21.07,-9.834,-21.01,1.252,-10.08,0,0,0,0,0,0,0,0,0,0,0,0,0,0,0,0,
751,-82.28,-78.14,-97.66,1.65,-64.4,-50.92,-61.86,-41.13,-46.56,-36.65,-4.792,-3.795,0.856,-1.73,21.09,15.54,0,0,0,0,0,0,0,0,0,0,0,0,0,0,0,0,
752,-77.35,-79.34,-94.66,-3.856,-58.43,-56.3,-57.77,-32.24,-42.45,-34.53,3.14,7.933,7.051,3.343,37.99,27.78,0,0,0,0,0,0,0,0,0,0,0,0,0,0,0,0,
753,-68.36,-75.48,-74.09,-0.5656,-56.0,-64.38,-48.96,-31.37,-36.52,-40.55,3.994,6.732,-0.4009,-3.199,36.93,24.72,0,0,0,0,0,0,0,0,0,0,0,0,0,0,0,0,
754,-61.82,-70.0,-59.53,7.834,-52.72,-61.57,-48.33,-30.97,-43.78,-51.12,-4.828,0.7742,-17.17,-7.136,22.47,9.884,0,0,0,0,0,0,0,0,0,0,0,0,0,0,0,0,
755,-61.62,-73.84,-68.24,6.243,-52.02,-58.19,-55.16,-32.07,-64.96,-57.34,-14.05,-6.897,-25.83,-8.959,17.1,-3.431,0,0,0,0,0,0,0,0,0,0,0,0,0,0,0,0,
756,-55.48,-75.2,-68.92,-10.8,-45.33,-58.02,-49.1,-35.14,-73.69,-56.49,-14.46,-17.96,-26.38,-15.9,20.44,-9.672,0,0,0,0,0,0,0,0,0,0,0,0,0,0,0,0,
757,-41.67,-58.63,-55.19,-25.2,-29.32,-47.74,-38.35,-29.78,-71.45,-48.86,-11.71,-20.0,-32.87,-21.91,20.18,-9.559,0,0,0,0,0,0,0,0,0,0,0,0,0,0,0,0,
758,-30.46,-37.14,-47.93,-7.905,-13.91,-30.39,-33.62,-17.82,-72.28,-37.44,-13.99,-12.03,-43.34,-22.34,14.18,-7.845,0,0,0,0,0,0,0,0,0,0,0,0,0,0,0,0,
759,-25.06,-29.57,-45.61,21.62,-8.95,-26.29,-33.54,-14.73,-70.45,-34.75,-29.13,-17.59,-59.33,-31.07,-8.5,-22.49,0,0,0,0,0,0,0,0,0,0,0,0,0,0,0,0,
760,-28.24,-31.94,-52.43,13.7,-19.11,-37.87,-48.15,-18.87,-77.3,-45.52,-53.15,-33.1,-82.57,-48.03,-41.24,-46.01,0,0,0,0,0,0,0,0,0,0,0,0,0,0,0,0,
761,-31.9,-33.2,-60.57,-10.18,-27.91,-44.29,-63.08,-16.61,-97.23,-52.08,-65.29,-36.01,-90.8,-53.69,-57.2,-55.96,0,0,0,0,0,0,0,0,0,0,0,0,0,0,0,0,
762,-24.22,-28.2,-50.89,-8.292,-24.23,-39.13,-58.84,-11.29,-102.4,-48.31,-62.83,-35.8,-79.01,-49.57,-57.92,-60.04,0,0,0,0,0,0,0,0,0,0,0,0,0,0,0,0,
763,-19.13,-17.3,-47.56,-6.165,-25.8,-34.15,-55.97,-12.93,-94.0,-49.76,-57.23,-37.95,-66.04,-44.4,-51.7,-57.16,0,0,0,0,0,0,0,0,0,0,0,0,0,0,0,0,
764,-26.88,-23.38,-60.76,-14.57,-30.94,-29.22,-58.9,-16.14,-90.86,-52.83,-44.37,-27.19,-52.21,-32.53,-34.9,-37.39,0,0,0,0,0,0,0,0,0,0,0,0,0,0,0,0,
765,-39.79,-58.18,-68.44,-15.71,-28.12,-30.1,-52.92,-14.88,-84.82,-48.48,-30.19,-17.14,-39.11,-22.46,-20.22,-22.26,0,0,0,0,0,0,0,0,0,0,0,0,0,0,0,0,
766,-54.13,-71.77,-80.76,-27.96,-33.43,-51.5,-54.95,-13.99,-79.4,-51.1,-30.12,-20.09,-37.25,-22.28,-13.79,-15.31,0,0,0,0,0,0,0,0,0,0,0,0,0,0,0,0,
767,-60.1,-41.06,-99.32,-48.57,-48.56,-75.31,-68.95,-11.87,-87.13,-59.1,-28.89,-12.11,-33.66,-14.12,-2.372,6.634,0,0,0,0,0,0,0,0,0,0,0,0,0,0,0,0,
768,-59.15,-27.96,-105.4,-51.99,-57.84,-79.06,-69.86,-5.337,-92.36,-52.88,-12.22,4.359,-16.66,4.388,12.21,31.44,0,0,0,0,0,0,0,0,0,0,0,0,0,0,0,0,
769,-68.43,-51.09,-108.4,-55.53,-62.31,-76.48,-61.21,-6.104,-82.23,-41.64,-0.5571,0.6541,-4.869,9.368,16.23,34.51,0,0,0,0,0,0,0,0,0,0,0,0,0,0,0,0,
770,-80.96,-65.83,-114.7,-66.61,-68.63,-81.93,-65.71,-19.71,-74.64,-47.24,-7.1,-15.8,-18.68,-7.12,6.716,19.53,0,0,0,0,0,0,0,0,0,0,0,0,0,0,0,0,
771,-90.6,-74.63,-125.0,-67.12,-84.0,-93.76,-82.21,-33.82,-88.51,-66.6,-22.44,-28.09,-48.56,-31.32,-7.715,-2.614,0,0,0,0,0,0,0,0,0,0,0,0,0,0,0,0,
772,-105.8,-91.46,-146.6,-71.68,-103.5,-104.9,-94.6,-41.54,-110.1,-79.09,-39.27,-33.9,-63.65,-43.03,-15.21,-16.59,0,0,0,0,0,0,0,0,0,0,0,0,0,0,0,0,
773,-113.2,-98.52,-159.3,-88.15,-108.1,-102.3,-94.32,-42.33,-113.6,-72.3,-47.05,-22.74,-53.41,-31.65,-11.27,-7.056,0,0,0,0,0,0,0,0,0,0,0,0,0,0,0,0,
774,-109.1,-101.0,-151.3,-92.09,-102.8,-91.55,-86.72,-37.0,-102.5,-58.26,-39.94,-8.46,-40.89,-19.08,-3.774,5.643,0,0,0,0,0,0,0,0,0,0,0,0,0,0,0,0,
775,-111.0,-108.6,-145.4,-83.7,-101.3,-90.87,-86.5,-36.81,-94.27,-57.62,-37.77,-17.87,-44.36,-28.36,-4.795,-0.5919,0,0,0,0,0,0,0,0,0,0,0,0,0,0,0,0,
776,-110.4,-106.7,-143.7,-80.03,-97.4,-91.39,-93.2,-40.23,-93.34,-67.6,-47.45,-24.74,-51.2,-37.43,-9.319,1.427,0,0,0,0,0,0,0,0,0,0,0,0,0,0,0,0,
777,-97.82,-94.01,-133.9,-80.43,-91.02,-82.11,-88.63,-31.19,-94.44,-70.05,-45.5,-6.581,-41.96,-27.29,-2.281,22.8,0,0,0,0,0,0,0,0,0,0,0,0,0,0,0,0,
778,-89.67,-86.0,-124.8,-83.61,-85.99,-76.1,-74.8,-20.72,-89.62,-67.07,-33.22,3.611,-26.01,-21.85,7.766,30.4,0,0,0,0,0,0,0,0,0,0,0,0,0,0,0,0,
779,-88.66,-88.93,-119.8,-88.7,-77.57,-75.39,-66.72,-22.48,-80.96,-68.93,-31.04,-0.7161,-23.4,-26.3,8.415,30.26,0,0,0,0,0,0,0,0,0,0,0,0,0,0,0,0,
780,-84.19,-91.93,-112.4,-90.73,-69.6,-67.95,-58.06,-16.16,-77.65,-63.59,-29.18,7.383,-24.06,-16.14,11.8,46.85,0,0,0,0,0,0,0,0,0,0,0,0,0,0,0,0,
781,-77.76,-78.1,-102.8,-89.83,-60.98,-50.75,-43.73,4.064,-74.53,-44.47,-12.55,22.31,-12.39,5.747,22.34,61.72,0,0,0,0,0,0,0,0,0,0,0,0,0,0,0,0,
782,-67.01,-54.93,-87.63,-82.56,-42.35,-27.56,-36.05,15.19,-60.65,-27.98,5.63,29.78,-2.876,21.57,26.63,65.72,0,0,0,0,0,0,0,0,0,0,0,0,0,0,0,0,
783,-51.68,-44.91,-75.8,-70.83,-28.27,-11.99,-42.39,16.02,-44.76,-21.63,4.153,32.42,-10.09,27.66,23.39,67.36,0,0,0,0,0,0,0,0,0,0,0,0,0,0,0,0,
784,-46.3,-42.99,-85.33,-64.7,-30.33,-8.825,-53.81,20.4,-45.35,-20.59,-13.49,32.1,-19.72,26.35,22.16,60.19,0,0,0,0,0,0,0,0,0,0,0,0,0,0,0,0,
785,-48.06,-35.15,-92.66,-64.08,-27.78,-2.104,-51.16,19.56,-52.01,-18.75,-22.47,29.7,-16.66,24.29,21.73,51.44,0,0,0,0,0,0,0,0,0,0,0,0,0,0,0,0,
786,-39.86,-31.31,-72.74,-73.96,-15.93,4.066,-34.41,3.968,-40.09,-13.57,-19.33,22.37,-10.3,22.9,14.67,48.55,0,0,0,0,0,0,0,0,0,0,0,0,0,0,0,0,
787,-23.28,-28.91,-55.21,-90.36,-7.545,2.504,-24.62,-6.587,-19.84,-11.41,-20.16,12.36,-10.84,19.33,6.08,38.36,0,0,0,0,0,0,0,0,0,0,0,0,0,0,0,0,
788,-9.085,-11.52,-57.68,-87.81,3.454,14.09,-26.53,1.504,-10.78,-8.044,-27.89,9.592,-18.45,15.81,-1.267,21.53,0,0,0,0,0,0,0,0,0,0,0,0,0,0,0,0,
789,-7.19,3.343,-60.32,-78.85,10.18,30.58,-33.27,8.508,-13.03,0.8184,-40.73,7.438,-36.07,7.095,-16.03,7.86,0,0,0,0,0,0,0,0,0,0,0,0,0,0,0,0,
790,-17.69,-0.4684,-58.33,-87.38,-0.5095,22.89,-40.3,4.296,-26.46,-0.4856,-49.15,1.181,-51.44,-6.984,-28.17,-0.7736,0,0,0,0,0,0,0,0,0,0,0,0,0,0,0,0,
791,-26.63,-12.28,-58.2,-91.87,-14.11,-1.499,-43.36,-1.125,-39.05,-13.96,-45.87,0.0159,-52.7,-17.5,-29.9,-5.566,0,0,0,0,0,0,0,0,0,0,0,0,0,0,0,0,
792,-39.06,-36.87,-67.22,-92.4,-27.91,-31.58,-49.74,-9.269,-43.79,-31.37,-50.29,-4.396,-61.92,-31.87,-41.94,-15.81,0,0,0,0,0,0,0,0,0,0,0,0,0,0,0,0,
793,-63.28,-65.55,-88.68,-113.2,-47.38,-59.6,-57.17,-17.79,-58.42,-52.02,-60.07,-17.18,-83.33,-50.23,-59.83,-29.64,0,0,0,0,0,0,0,0,0,0,0,0,0,0,0,0,
794,-80.81,-71.8,-101.9,-137.7,-59.6,-68.86,-51.17,-18.43,-74.18,-64.07,-52.1,-22.13,-88.66,-56.04,-57.73,-33.25,0,0,0,0,0,0,0,0,0,0,0,0,0,0,0,0,
795,-90.22,-75.53,-98.09,-146.0,-69.94,-75.2,-45.2,-21.19,-73.85,-69.66,-45.53,-21.34,-80.99,-52.87,-49.44,-37.05,0,0,0,0,0,0,0,0,0,0,0,0,0,0,0,0,
796,-103.0,-94.45,-99.1,-142.4,-83.3,-90.92,-54.55,-28.84,-75.03,-79.98,-55.82,-24.88,-77.67,-47.23,-53.48,-48.19,0,0,0,0,0,0,0,0,0,0,0,0,0,0,0,0,
797,-102.6,-98.66,-106.1,-132.2,-79.79,-86.83,-63.89,-28.07,-77.83,-76.76,-59.98,-19.5,-74.14,-31.5,-55.35,-43.0,0,0,0,0,0,0,0,0,0,0,0,0,0,0,0,0,
798,-86.62,-83.11,-101.4,-120.0,-68.29,-67.32,-67.5,-22.79,-69.74,-61.4,-58.49,-4.305,-75.86,-19.78,-51.64,-26.97,0,0,0,0,0,0,0,0,0,0,0,0,0,0,0,0,
799,-80.52,-74.17,-94.22,-106.7,-70.1,-68.8,-74.86,-23.71,-70.37,-63.05,-65.02,-0.3589,-87.83,-28.77,-50.22,-29.52,0,0,0,0,0,0,0,0,0,0,0,0,0,0,0,0,
800,-80.98,-68.74,-90.9,-94.96,-63.56,-71.93,-69.99,-18.42,-79.22,-67.73,-56.13,4.385,-80.02,-25.5,-31.34,-20.62,0,0,0,0,0,0,0,0,0,0,0,0,0,0,0,0,
801,-59.83,-44.44,-65.81,-86.37,-28.44,-37.12,-31.69,7.973,-58.6,-43.47,-9.922,42.35,-31.9,22.77,18.77,37.04,0,0,0,0,0,0,0,0,0,0,0,0,0,0,0,0,
802,-19.98,-8.072,-20.46,-72.57,14.47,12.08,19.82,37.81,-3.32,-0.8142,50.69,93.15,26.81,79.51,73.82,98.23,0,0,0,0,0,0,0,0,0,0,0,0,0,0,0,0,
803,6.964,11.53,8.026,-57.02,42.95,32.82,50.2,46.04,51.14,32.13,89.9,109.1,59.13,98.02,104.5,114.4,0,0,0,0,0,0,0,0,0,0,0,0,0,0,0,0,
804,5.159,5.468,6.686,-55.41,47.34,23.49,47.27,38.29,74.07,40.6,85.78,89.37,51.47,79.56,94.36,97.44,0,0,0,0,0,0,0,0,0,0,0,0,0,0,0,0,
805,-20.16,-21.09,-21.06,-70.69,19.36,-6.322,9.74,23.4,51.27,16.1,33.0,60.35,7.794,40.59,45.6,63.74,0,0,0,0,0,0,0,0,0,0,0,0,0,0,0,0,
806,-53.76,-55.78,-60.65,-86.23,-18.11,-41.76,-35.4,0.9846,0.9397,-29.39,-27.53,35.22,-34.32,7.059,1.363,25.87,0,0,0,0,0,0,0,0,0,0,0,0,0,0,0,0,
807,-73.68,-67.3,-73.92,-82.97,-27.44,-51.19,-45.37,-11.88,-27.07,-56.6,-43.71,16.69,-43.04,-1.858,-13.01,0.3888,0,0,0,0,0,0,0,0,0,0,0,0,0,0,0,0,
808,-73.47,-49.22,-60.01,-75.39,-19.45,-36.74,-33.28,-7.417,-21.07,-52.21,-34.55,3.728,-45.68,-8.494,-27.99,-17.08,0,0,0,0,0,0,0,0,0,0,0,0,0,0,0,0,
809,-62.88,-33.02,-53.94,-86.58,-20.01,-28.63,-36.07,-3.675,-15.94,-44.79,-39.53,-1.694,-60.66,-21.38,-49.26,-30.54,0,0,0,0,0,0,0,0,0,0,0,0,0,0,0,0,
810,-49.57,-32.36,-55.82,-95.85,-18.61,-26.54,-42.37,-7.519,-18.15,-47.04,-45.61,-2.974,-61.4,-22.29,-53.14,-35.75,0,0,0,0,0,0,0,0,0,0,0,0,0,0,0,0,
811,-41.6,-32.31,-51.75,-85.93,-8.152,-22.49,-34.36,-13.45,-13.29,-46.88,-40.69,-11.2,-47.51,-22.36,-48.09,-38.44,0,0,0,0,0,0,0,0,0,0,0,0,0,0,0,0,
812,-38.9,-25.65,-45.31,-80.0,-3.22,-26.65,-26.15,-17.98,-9.865,-43.57,-39.76,-17.85,-44.4,-30.77,-47.52,-40.07,0,0,0,0,0,0,0,0,0,0,0,0,0,0,0,0,
813,-37.37,-27.79,-43.36,-86.31,-12.4,-39.95,-30.66,-19.08,-19.55,-48.78,-47.58,-12.57,-57.76,-36.26,-51.35,-40.15,0,0,0,0,0,0,0,0,0,0,0,0,0,0,0,0,
814,-42.1,-38.35,-51.85,-87.15,-27.93,-52.84,-41.74,-21.81,-38.95,-64.23,-60.55,-10.54,-76.18,-41.36,-62.69,-43.21,0,0,0,0,0,0,0,0,0,0,0,0,0,0,0,0,
815,-46.92,-39.91,-58.79,-79.37,-29.5,-55.05,-45.5,-21.73,-50.18,-69.53,-72.54,-17.4,-80.6,-42.62,-71.38,-48.29,0,0,0,0,0,0,0,0,0,0,0,0,0,0,0,0,
816,-43.6,-52.35,-47.06,-72.48,-11.76,-40.04,-34.85,-8.975,-37.63,-52.68,-70.1,-21.41,-64.45,-30.76,-64.62,-53.63,0,0,0,0,0,0,0,0,0,0,0,0,0,0,0,0,
817,-35.87,-68.16,-29.8,-68.42,5.448,-20.69,-17.55,1.212,-13.7,-34.85,-54.44,-19.25,-45.95,-14.88,-49.91,-51.43,0,0,0,0,0,0,0,0,0,0,0,0,0,0,0,0,
818,-17.91,-30.15,-20.66,-62.8,10.71,-13.39,-8.556,0.9298,0.9956,-30.49,-43.76,-7.468,-41.15,-2.855,-37.95,-35.61,0,0,0,0,0,0,0,0,0,0,0,0,0,0,0,0,
819,2.166,24.34,-12.2,-48.17,10.79,-10.76,-9.585,7.774,2.728,-29.41,-38.54,11.47,-43.22,5.369,-29.41,-22.68,0,0,0,0,0,0,0,0,0,0,0,0,0,0,0,0,
820,-0.1987,22.15,-6.787,-24.92,12.71,-2.982,-7.724,15.82,-2.72,-23.68,-25.23,20.01,-34.51,12.71,-19.29,-18.21,0,0,0,0,0,0,0,0,0,0,0,0,0,0,0,0,
821,-10.18,2.53,-9.424,-12.07,18.04,2.258,0.6446,10.28,-1.441,-8.957,-7.329,18.06,-14.37,25.39,-5.109,-4.812,0,0,0,0,0,0,0,0,0,0,0,0,0,0,0,0,
822,0.7864,9.13,-6.287,-17.3,27.48,4.412,10.71,4.741,19.46,13.12,7.29,19.59,2.042,36.8,4.57,8.169,0,0,0,0,0,0,0,0,0,0,0,0,0,0,0,0,
823,17.2,17.99,3.56,-26.49,37.78,9.69,18.92,3.312,48.81,23.65,12.7,15.9,7.652,32.92,-0.8377,-1.607,0,0,0,0,0,0,0,0,0,0,0,0,0,0,0,0,
824,15.84,16.19,1.451,-35.91,37.59,6.152,16.99,-5.448,58.81,9.438,-0.3897,1.589,-0.2165,16.3,-14.04,-15.58,0,0,0,0,0,0,0,0,0,0,0,0,0,0,0,0,
825,8.267,9.351,-6.892,-40.8,27.7,-10.9,9.879,-16.39,42.5,-12.78,-14.8,-0.5407,-17.76,4.655,-16.34,-7.021,0,0,0,0,0,0,0,0,0,0,0,0,0,0,0,0,
826,7.618,3.746,-5.353,-35.38,21.61,-23.36,12.01,-23.22,21.52,-21.77,-11.72,11.39,-29.61,6.088,-10.62,4.873,0,0,0,0,0,0,0,0,0,0,0,0,0,0,0,0,
827,3.682,-0.018,-3.274,-38.2,16.91,-26.32,13.38,-22.72,12.39,-23.83,-12.11,12.0,-34.75,8.544,-15.78,-5.121,0,0,0,0,0,0,0,0,0,0,0,0,0,0,0,0,
828,-5.969,-6.741,-7.884,-47.14,9.616,-26.6,2.515,-9.711,15.15,-26.83,-22.67,4.608,-39.87,3.909,-25.61,-18.26,0,0,0,0,0,0,0,0,0,0,0,0,0,0,0,0,
829,-10.29,-5.595,-12.43,-40.58,6.409,-22.74,-7.362,-2.187,22.76,-22.01,-21.31,3.969,-39.71,-4.554,-23.88,-15.19,0,0,0,0,0,0,0,0,0,0,0,0,0,0,0,0,
830,-9.311,1.688,-13.25,-38.48,1.873,-19.52,-8.206,-14.23,22.88,-17.48,-13.7,-2.164,-38.52,-17.36,-20.99,-12.74,0,0,0,0,0,0,0,0,0,0,0,0,0,0,0,0,
831,-8.117,-2.326,-10.76,-53.82,-8.29,-23.9,-8.44,-21.37,13.19,-26.98,-16.11,-15.01,-45.21,-27.24,-26.78,-20.8,0,0,0,0,0,0,0,0,0,0,0,0,0,0,0,0,
832,-10.32,-6.463,-14.87,-56.07,-13.23,-26.78,-11.59,-12.12,2.776,-33.75,-20.85,-16.39,-51.17,-23.71,-30.95,-25.62,0,0,0,0,0,0,0,0,0,0,0,0,0,0,0,0,
833,-17.1,-2.414,-27.53,-42.72,-10.98,-18.25,-12.37,-11.24,-3.554,-21.42,-20.36,-12.33,-49.25,-17.45,-31.28,-23.14,0,0,0,0,0,0,0,0,0,0,0,0,0,0,0,0,
834,-22.88,-4.285,-34.84,-41.05,-13.69,-10.6,-11.18,-25.97,-3.729,-7.204,-17.28,-16.74,-43.86,-19.61,-30.48,-17.47,0,0,0,0,0,0,0,0,0,0,0,0,0,0,0,0,
835,-30.49,-9.379,-39.5,-51.9,-25.56,-19.95,-14.91,-36.87,-2.732,-12.85,-9.934,-18.62,-36.18,-21.73,-20.41,-7.042,0,0,0,0,0,0,0,0,0,0,0,0,0,0,0,0,
836,-42.31,-14.54,-47.08,-61.0,-32.35,-28.28,-20.02,-35.61,-6.413,-25.62,3.501,-7.8,-22.39,-12.42,-0.7017,5.382,0,0,0,0,0,0,0,0,0,0,0,0,0,0,0,0,
837,-42.98,-16.18,-45.42,-58.93,-23.34,-11.76,-13.95,-26.23,-1.756,-15.25,20.68,9.936,0.9326,11.39,20.27,19.84,0,0,0,0,0,0,0,0,0,0,0,0,0,0,0,0,
838,-28.41,4.978,-34.76,-41.01,-8.726,11.77,-0.1419,-11.05,20.58,15.02,35.73,26.25,22.27,33.95,29.96,34.29,0,0,0,0,0,0,0,0,0,0,0,0,0,0,0,0,
839,-19.96,13.13,-33.61,-29.92,-1.778,19.73,-3.116,-0.5077,37.97,30.63,29.61,27.32,14.15,29.36,8.693,25.61,0,0,0,0,0,0,0,0,0,0,0,0,0,0,0,0,
840,-29.15,-26.17,-48.18,-49.4,-4.407,18.74,-26.07,-5.405,27.25,16.79,1.971,12.01,-13.35,8.531,-24.25,-4.15,0,0,0,0,0,0,0,0,0,0,0,0,0,0,0,0,
841,-32.16,-24.7,-54.24,-67.35,-4.998,18.95,-31.77,-15.83,11.66,-0.6029,-2.039,3.92,-13.14,6.112,-22.27,-13.96,0,0,0,0,0,0,0,0,0,0,0,0,0,0,0,0,
842,-14.74,43.98,-38.33,-56.23,4.918,20.8,-13.04,-22.07,21.36,4.366,24.09,4.259,2.826,12.61,-5.758,-4.945,0,0,0,0,0,0,0,0,0,0,0,0,0,0,0,0,
843,-13.82,53.63,-32.19,-55.02,5.533,11.76,-11.49,-30.91,24.78,11.28,28.12,-3.841,-12.34,1.692,-14.84,-5.348,0,0,0,0,0,0,0,0,0,0,0,0,0,0,0,0,
844,-38.91,4.803,-39.36,-82.14,-10.52,-11.98,-26.39,-42.68,-2.89,-5.912,12.89,-8.473,-33.41,-12.21,-19.92,-2.224,0,0,0,0,0,0,0,0,0,0,0,0,0,0,0,0,
845,-41.14,-4.988,-26.05,-102.0,-10.18,-18.91,-24.23,-50.59,-14.99,-25.47,14.2,-7.5,-27.59,-15.94,-8.326,5.703,0,0,0,0,0,0,0,0,0,0,0,0,0,0,0,0,
846,-23.39,-14.52,-12.22,-107.8,10.96,0.5938,-18.24,-49.46,4.888,-26.69,17.08,-15.3,-20.02,-16.96,-11.54,2.072,0,0,0,0,0,0,0,0,0,0,0,0,0,0,0,0,
847,-24.52,-35.32,-20.45,-115.4,18.89,10.7,-21.51,-34.05,18.24,-19.07,19.33,-10.61,-10.18,-6.846,-11.46,9.971,0,0,0,0,0,0,0,0,0,0,0,0,0,0,0,0,
848,-23.65,2.163,-17.22,-116.3,11.83,6.226,-11.35,-17.96,25.89,-4.621,38.72,10.94,16.58,12.83,10.05,27.96,0,0,0,0,0,0,0,0,0,0,0,0,0,0,0,0,
