%OpenBCI Raw EXG Data
%Number of channels = 16
%Sample Rate = 125 Hz
%Board = OpenBCI_GUI$BoardCytonSerialDaisy
Sample Index,EXG Channel 0,EXG Channel 1,EXG Channel 2,EXG Channel 3,EXG Channel 4,EXG Channel 5,EXG Channel 6,EXG Channel 7,EXG Channel 8,EXG Channel 9,EXG Channel 10,EXG Channel 11,EXG Channel 12,EXG Channel 13,EXG Channel 14,EXG Channel 15,Accel Channel 0,Accel Channel 1,Accel Channel 2,Other,Other.1,Other.2,Other.3,Other.4,Other.5,Other.6,Analog Channel 0,Analog Channel 1,Analog Channel 2,Timestamp,Other.7,Timestamp (Formatted),Annotations
1,0.0,0.0,0.0,0.0,0.0,-0.0,-0.0,0.0,0.0,0.0,0.0,0.0,0.0,0.0,0.0,0.0,0,0,0,0,0,0,0,0,0,0,0,0,0,0,0,0,T0
2,-16.58,-14.41,-0.7013,-22.9,-5.371,-2.373,-2.936,6.45,-9.414,-6.762,-4.026,6.146,1.066,3.872,-4.52,1.255,0,0,0,0,0,0,0,0,0,0,0,0,0,0,0,0,
3,-34.15,-17.98,-9.015,-9.86,-3.657,2.827,-7.909,26.58,-5.787,0.2578,-28.52,-2.484,-13.09,-3.379,-26.84,-18.99,0,0,0,0,0,0,0,0,0,0,0,0,0,0,0,0,
4,-36.37,-11.9,-18.78,18.62,-7.5,2.966,-26.14,52.23,-13.51,3.834,-49.71,-2.904,-28.02,-10.08,-43.61,-34.07,0,0,0,0,0,0,0,0,0,0,0,0,0,0,0,0,
5,-15.93,-2.761,-14.63,25.7,-11.06,2.687,-44.37,50.2,-19.96,4.976,-50.51,-1.554,-34.17,-12.73,-43.8,-34.23,0,0,0,0,0,0,0,0,0,0,0,0,0,0,0,0,
6,-0.2917,-5.304,-14.35,23.13,-10.93,-2.33,-53.39,20.91,-15.87,2.786,-55.11,-16.24,-46.49,-23.43,-42.72,-38.1,0,0,0,0,0,0,0,0,0,0,0,0,0,0,0,0,
7,-9.466,-16.42,-32.44,21.16,-24.86,-21.56,-62.79,10.81,-29.19,-16.35,-65.33,-20.47,-58.76,-32.76,-40.7,-41.66,0,0,0,0,0,0,0,0,0,0,0,0,0,0,0,0,
8,-30.24,-12.47,-43.18,-4.684,-42.56,-22.79,-63.31,30.42,-46.81,-27.49,-55.48,-5.876,-51.86,-24.77,-36.48,-35.52,0,0,0,0,0,0,0,0,0,0,0,0,0,0,0,0,
9,-43.65,-4.254,-40.03,-30.08,-42.69,2.447,-49.63,42.15,-45.74,-14.82,-38.3,-2.744,-42.4,-13.95,-40.87,-28.92,0,0,0,0,0,0,0,0,0,0,0,0,0,0,0,0,
10,-34.63,-9.666,-33.96,-14.07,-36.73,13.71,-41.32,37.91,-43.55,-10.83,-40.26,-14.38,-49.31,-18.57,-54.17,-32.5,0,0,0,0,0,0,0,0,0,0,0,0,0,0,0,0,
11,-8.21,-5.471,-22.88,1.016,-34.56,8.723,-45.47,40.27,-46.77,-22.38,-53.46,-26.27,-62.38,-33.94,-67.69,-47.99,0,0,0,0,0,0,0,0,0,0,0,0,0,0,0,0,
12,8.412,9.4,-15.91,-19.62,-30.97,8.177,-47.96,39.24,-45.36,-26.18,-58.13,-38.18,-67.86,-46.06,-67.75,-60.65,0,0,0,0,0,0,0,0,0,0,0,0,0,0,0,0,
13,4.932,4.683,-18.36,-31.02,-29.46,2.456,-40.81,14.33,-39.72,-24.6,-50.48,-44.84,-59.76,-45.1,-48.29,-54.85,0,0,0,0,0,0,0,0,0,0,0,0,0,0,0,0,
14,-6.753,-7.169,-18.93,-13.23,-31.09,-2.127,-34.54,-8.129,-33.38,-23.76,-44.66,-40.75,-46.8,-35.9,-34.16,-42.59,0,0,0,0,0,0,0,0,0,0,0,0,0,0,0,0,
15,-12.81,-1.803,-16.61,3.016,-36.5,7.525,-39.45,-3.604,-30.18,-16.65,-47.96,-36.01,-44.89,-31.27,-40.86,-38.03,0,0,0,0,0,0,0,0,0,0,0,0,0,0,0,0,
16,-15.1,2.515,-19.78,0.2906,-50.03,4.684,-47.99,1.418,-30.79,-14.32,-48.18,-36.17,-50.69,-32.16,-47.45,-35.36,0,0,0,0,0,0,0,0,0,0,0,0,0,0,0,0,
17,-22.98,-3.875,-27.55,-25.44,-53.88,-7.322,-49.44,-7.816,-31.01,-24.31,-44.03,-34.82,-53.86,-32.57,-49.33,-37.02,0,0,0,0,0,0,0,0,0,0,0,0,0,0,0,0,
18,-17.07,0.7701,-22.39,-63.5,-37.53,9.384,-43.65,-13.28,-25.46,-26.87,-49.14,-35.89,-55.58,-33.4,-61.09,-50.61,0,0,0,0,0,0,0,0,0,0,0,0,0,0,0,0,
19,4.641,12.4,-4.059,-79.16,-31.34,25.38,-38.52,-18.98,-13.92,-23.68,-63.54,-49.45,-58.67,-40.37,-73.47,-64.03,0,0,0,0,0,0,0,0,0,0,0,0,0,0,0,0,
20,-0.5797,6.044,-3.822,-56.52,-47.05,6.82,-41.11,-34.84,-11.46,-35.97,-70.24,-61.42,-60.05,-50.89,-70.06,-61.7,0,0,0,0,0,0,0,0,0,0,0,0,0,0,0,0,
21,-18.98,-5.186,-18.15,-30.47,-56.8,-6.392,-44.65,-45.24,-25.01,-47.29,-59.75,-52.87,-54.46,-51.9,-56.43,-47.54,0,0,0,0,0,0,0,0,0,0,0,0,0,0,0,0,
22,-5.404,2.403,-19.39,-42.0,-54.31,-5.268,-45.17,-41.63,-35.42,-37.12,-49.93,-40.24,-47.8,-44.06,-52.77,-41.39,0,0,0,0,0,0,0,0,0,0,0,0,0,0,0,0,
23,3.3,4.928,-25.15,-68.92,-56.98,-19.12,-56.15,-34.04,-32.29,-25.28,-54.14,-39.42,-50.08,-42.68,-65.2,-52.19,0,0,0,0,0,0,0,0,0,0,0,0,0,0,0,0,
24,-30.25,-20.55,-47.37,-61.09,-67.81,-33.72,-75.85,-28.47,-27.76,-29.19,-56.73,-34.2,-54.63,-47.72,-72.89,-61.84,0,0,0,0,0,0,0,0,0,0,0,0,0,0,0,0,
25,-66.11,-39.06,-63.37,-30.32,-76.0,-37.8,-89.21,-17.75,-32.88,-40.39,-59.9,-23.65,-59.98,-50.24,-69.42,-60.69,0,0,0,0,0,0,0,0,0,0,0,0,0,0,0,0,
26,-70.0,-21.74,-75.55,-23.47,-73.96,-36.64,-105.4,4.232,-47.98,-46.28,-79.16,-25.18,-77.02,-52.12,-73.68,-62.62,0,0,0,0,0,0,0,0,0,0,0,0,0,0,0,0,
27,-54.04,-4.713,-89.0,-51.12,-70.74,-22.08,-129.1,18.21,-62.74,-43.39,-90.54,-30.3,-91.99,-54.25,-78.48,-63.25,0,0,0,0,0,0,0,0,0,0,0,0,0,0,0,0,
28,-45.53,-18.27,-83.92,-86.68,-73.13,-11.23,-134.3,4.683,-66.95,-39.53,-73.65,-26.7,-83.54,-51.74,-62.79,-47.69,0,0,0,0,0,0,0,0,0,0,0,0,0,0,0,0,
29,-51.08,-31.6,-65.65,-96.78,-64.69,-16.54,-115.9,-12.5,-61.28,-37.24,-52.65,-21.75,-60.71,-41.52,-38.25,-29.7,0,0,0,0,0,0,0,0,0,0,0,0,0,0,0,0,
30,-51.01,-21.94,-61.31,-89.37,-47.55,-11.62,-101.4,-8.695,-47.12,-28.85,-45.28,-20.12,-42.43,-27.52,-27.73,-27.6,0,0,0,0,0,0,0,0,0,0,0,0,0,0,0,0,
31,-50.86,-8.338,-71.74,-93.78,-48.73,2.815,-98.21,-3.728,-30.75,-17.84,-44.1,-25.31,-38.8,-25.49,-33.95,-37.1,0,0,0,0,0,0,0,0,0,0,0,0,0,0,0,0,
32,-56.57,1.818,-71.94,-85.86,-54.83,5.502,-89.67,-8.179,-28.23,-16.56,-41.49,-37.34,-48.01,-39.13,-39.13,-45.06,0,0,0,0,0,0,0,0,0,0,0,0,0,0,0,0,
33,-30.06,12.69,-51.52,-54.92,-34.87,6.861,-79.32,-0.8123,-33.95,-23.09,-35.02,-41.34,-52.17,-45.62,-29.96,-44.61,0,0,0,0,0,0,0,0,0,0,0,0,0,0,0,0,
34,12.12,17.03,-37.64,-56.67,-15.89,11.17,-82.37,8.174,-28.35,-23.4,-29.52,-39.88,-47.11,-39.56,-23.37,-43.9,0,0,0,0,0,0,0,0,0,0,0,0,0,0,0,0,
35,5.208,14.64,-47.08,-88.35,-32.24,1.408,-86.07,-10.55,-22.62,-18.93,-23.64,-49.13,-46.25,-39.59,-30.41,-49.41,0,0,0,0,0,0,0,0,0,0,0,0,0,0,0,0,
36,-21.4,9.143,-52.93,-92.94,-52.45,-10.61,-72.5,-35.51,-27.07,-20.25,-5.937,-53.1,-42.3,-37.27,-31.62,-45.81,0,0,0,0,0,0,0,0,0,0,0,0,0,0,0,0,
37,-11.26,5.282,-39.28,-83.36,-42.85,4.659,-53.03,-34.13,-19.56,-13.36,16.11,-37.14,-25.56,-17.16,-21.11,-25.93,0,0,0,0,0,0,0,0,0,0,0,0,0,0,0,0,
38,4.107,10.43,-23.67,-86.8,-28.14,31.32,-40.6,-21.68,1.686,8.84,23.65,-25.79,-16.11,-4.664,-13.61,-13.25,0,0,0,0,0,0,0,0,0,0,0,0,0,0,0,0,
39,-8.826,11.77,-26.36,-84.55,-36.06,23.55,-40.59,-18.47,9.659,13.18,10.96,-33.29,-31.35,-22.63,-20.86,-26.35,0,0,0,0,0,0,0,0,0,0,0,0,0,0,0,0,
40,-28.74,2.033,-51.18,-77.27,-56.66,-13.11,-56.77,-18.57,-3.722,-13.84,-16.36,-41.92,-55.9,-48.84,-44.02,-49.03,0,0,0,0,0,0,0,0,0,0,0,0,0,0,0,0,
41,-30.55,-0.5513,-67.12,-79.13,-72.46,-29.31,-66.76,-10.15,-25.98,-37.49,-37.31,-38.29,-64.82,-55.85,-61.7,-53.52,0,0,0,0,0,0,0,0,0,0,0,0,0,0,0,0,
42,-21.55,-2.546,-56.62,-84.18,-83.42,-19.59,-64.09,4.538,-45.36,-35.46,-42.08,-27.25,-62.03,-46.04,-61.54,-41.4,0,0,0,0,0,0,0,0,0,0,0,0,0,0,0,0,
43,-32.06,-17.35,-55.29,-81.72,-91.31,-14.07,-78.54,5.881,-60.04,-21.8,-48.54,-21.51,-64.64,-34.74,-61.58,-36.12,0,0,0,0,0,0,0,0,0,0,0,0,0,0,0,0,
44,-51.42,-18.24,-61.14,-61.06,-78.59,-6.19,-90.57,-4.894,-63.41,-11.13,-51.73,-25.46,-62.3,-32.21,-62.97,-43.67,0,0,0,0,0,0,0,0,0,0,0,0,0,0,0,0,
45,-41.63,3.672,-38.32,-37.54,-49.42,13.41,-68.21,-8.02,-43.61,-7.643,-37.62,-33.57,-52.75,-43.38,-57.41,-53.44,0,0,0,0,0,0,0,0,0,0,0,0,0,0,0,0,
46,-22.48,19.02,-17.26,-31.37,-47.53,16.88,-51.08,-10.19,-27.47,-16.49,-26.81,-41.89,-59.95,-58.71,-57.64,-58.4,0,0,0,0,0,0,0,0,0,0,0,0,0,0,0,0,
47,-17.92,19.34,-21.56,-19.37,-66.57,9.796,-55.16,-10.74,-43.22,-26.14,-22.09,-43.92,-71.32,-58.15,-60.1,-57.11,0,0,0,0,0,0,0,0,0,0,0,0,0,0,0,0,
48,-2.271,18.35,-11.29,-0.3388,-53.27,24.71,-42.4,-0.99,-54.2,-15.07,-3.991,-38.62,-59.91,-46.95,-48.45,-54.79,0,0,0,0,0,0,0,0,0,0,0,0,0,0,0,0,
49,26.88,32.85,15.44,7.782,-19.12,37.41,-22.02,-5.186,-35.66,1.674,13.67,-37.73,-43.92,-46.25,-33.02,-54.71,0,0,0,0,0,0,0,0,0,0,0,0,0,0,0,0,
50,52.36,67.1,24.62,34.99,-5.349,28.11,-19.95,-14.49,-18.21,1.097,17.02,-38.3,-37.94,-46.09,-29.61,-51.07,0,0,0,0,0,0,0,0,0,0,0,0,0,0,0,0,
51,76.65,94.41,21.9,71.94,0.5419,39.35,-20.63,4.452,-11.33,0.3134,18.26,-28.22,-29.19,-30.77,-33.77,-42.6,0,0,0,0,0,0,0,0,0,0,0,0,0,0,0,0,
52,95.02,110.6,27.27,72.19,20.01,75.94,-14.68,21.36,-2.664,10.91,22.28,-15.21,-19.33,-17.14,-33.85,-34.17,0,0,0,0,0,0,0,0,0,0,0,0,0,0,0,0,
53,114.6,141.7,39.32,58.79,47.18,90.9,-7.186,11.09,8.281,18.81,26.93,-13.2,-16.88,-21.08,-32.58,-31.89,0,0,0,0,0,0,0,0,0,0,0,0,0,0,0,0,
54,157.7,171.3,49.9,53.76,67.77,80.31,0.0709,-0.6036,18.83,18.25,23.74,-28.63,-25.91,-38.86,-45.43,-45.68,0,0,0,0,0,0,0,0,0,0,0,0,0,0,0,0,
55,206.5,182.7,60.79,45.17,73.39,72.51,-3.328,-3.579,12.75,7.063,4.329,-48.97,-46.66,-54.58,-62.39,-62.89,0,0,0,0,0,0,0,0,0,0,0,0,0,0,0,0,
56,230.3,205.2,78.24,43.66,83.11,87.54,-7.076,8.358,-9.176,0.3343,-3.209,-37.12,-50.83,-35.28,-49.58,-43.56,0,0,0,0,0,0,0,0,0,0,0,0,0,0,0,0,
57,248.4,249.6,97.43,49.81,112.2,134.4,10.08,41.27,-7.537,32.83,17.73,5.89,-22.77,17.55,-18.31,4.059,0,0,0,0,0,0,0,0,0,0,0,0,0,0,0,0,
58,290.8,296.6,104.7,69.7,122.2,173.2,16.73,68.33,12.42,81.81,19.19,26.33,-8.005,41.85,-16.36,16.92,0,0,0,0,0,0,0,0,0,0,0,0,0,0,0,0,
59,326.8,323.2,99.06,106.7,95.47,161.4,-7.291,73.25,2.591,85.07,-7.793,17.33,-26.2,20.56,-34.6,-4.527,0,0,0,0,0,0,0,0,0,0,0,0,0,0,0,0,
60,321.8,320.7,105.3,113.4,92.28,144.4,-8.746,67.77,-18.43,57.11,-2.595,16.7,-33.07,5.171,-33.54,-5.821,0,0,0,0,0,0,0,0,0,0,0,0,0,0,0,0,
61,324.0,326.8,134.7,94.08,127.4,160.5,20.25,58.89,-8.495,44.4,23.69,11.62,-26.64,-3.152,-33.1,-4.132,0,0,0,0,0,0,0,0,0,0,0,0,0,0,0,0,
62,367.0,360.3,156.1,104.1,137.6,166.6,25.9,50.59,5.689,28.75,16.76,-16.24,-35.17,-33.5,-51.0,-31.38,0,0,0,0,0,0,0,0,0,0,0,0,0,0,0,0,
63,391.3,375.2,159.7,127.4,121.5,156.0,19.08,47.92,4.818,5.775,6.105,-26.79,-37.75,-53.54,-51.34,-44.91,0,0,0,0,0,0,0,0,0,0,0,0,0,0,0,0,
64,364.9,347.6,162.0,131.8,118.8,156.9,24.27,49.57,8.969,10.23,17.42,-5.677,-30.45,-41.63,-37.65,-29.18,0,0,0,0,0,0,0,0,0,0,0,0,0,0,0,0,
65,327.4,301.1,145.0,113.6,108.6,145.6,12.65,51.42,1.86,22.49,17.09,8.132,-37.94,-28.03,-44.66,-22.25,0,0,0,0,0,0,0,0,0,0,0,0,0,0,0,0,
66,301.7,263.4,110.7,76.28,82.49,123.0,-8.13,59.62,-22.37,22.12,12.48,8.403,-39.31,-15.47,-49.15,-19.35,0,0,0,0,0,0,0,0,0,0,0,0,0,0,0,0,
67,279.6,247.6,98.25,61.46,71.18,124.1,-7.492,78.39,-23.13,39.47,27.65,17.3,-19.99,7.368,-27.82,-1.584,0,0,0,0,0,0,0,0,0,0,0,0,0,0,0,0,
68,254.6,240.6,99.69,84.29,78.64,134.6,3.245,84.1,0.2165,64.32,47.32,30.66,0.1922,26.81,-7.857,16.77,0,0,0,0,0,0,0,0,0,0,0,0,0,0,0,0,
69,243.2,240.8,99.88,107.8,104.2,147.5,21.03,73.72,28.76,73.61,66.88,40.11,26.93,43.53,1.695,30.72,0,0,0,0,0,0,0,0,0,0,0,0,0,0,0,0,
70,260.3,256.1,114.8,131.2,141.9,179.2,49.38,84.75,72.98,94.05,84.06,48.78,59.99,60.21,13.89,41.7,0,0,0,0,0,0,0,0,0,0,0,0,0,0,0,0,
71,270.9,257.0,127.9,147.1,160.7,202.6,63.06,107.6,110.9,121.0,80.37,50.28,74.14,58.9,19.89,40.47,0,0,0,0,0,0,0,0,0,0,0,0,0,0,0,0,
72,250.4,232.3,122.3,128.6,156.3,201.7,56.84,105.3,112.1,120.7,67.95,39.84,73.44,42.94,14.85,31.95,0,0,0,0,0,0,0,0,0,0,0,0,0,0,0,0,
73,230.2,211.7,116.4,112.9,145.5,201.3,54.34,94.14,100.5,106.9,69.54,25.34,71.96,33.16,9.004,25.9,0,0,0,0,0,0,0,0,0,0,0,0,0,0,0,0,
74,213.4,199.4,107.7,113.9,133.4,203.3,56.81,89.6,95.39,102.7,69.95,11.81,62.11,31.97,-1.407,19.74,0,0,0,0,0,0,0,0,0,0,0,0,0,0,0,0,
75,175.4,184.1,85.76,81.45,123.1,195.5,47.85,86.12,83.75,104.2,52.22,2.884,44.88,33.04,-16.64,15.56,0,0,0,0,0,0,0,0,0,0,0,0,0,0,0,0,
76,136.5,162.7,63.62,39.66,100.6,170.1,30.1,91.9,65.67,99.63,33.32,3.658,31.26,31.03,-21.34,17.2,0,0,0,0,0,0,0,0,0,0,0,0,0,0,0,0,
77,117.1,126.6,44.27,39.99,54.14,122.1,13.28,91.12,43.26,74.44,25.22,6.809,17.24,21.77,-22.62,15.66,0,0,0,0,0,0,0,0,0,0,0,0,0,0,0,0,
78,95.24,81.9,19.73,43.33,13.14,81.09,-8.784,74.86,12.34,38.44,12.53,3.214,-1.457,11.48,-36.97,6.453,0,0,0,0,0,0,0,0,0,0,0,0,0,0,0,0,
79,64.94,51.12,-2.346,27.84,2.622,77.8,-28.64,78.17,-10.18,25.19,-6.968,-2.251,-11.59,7.07,-48.61,-0.9886,0,0,0,0,0,0,0,0,0,0,0,0,0,0,0,0,
80,50.22,45.49,-7.576,35.66,10.8,88.29,-23.2,96.95,-10.7,29.45,-16.98,-7.355,-11.87,2.467,-47.96,-4.774,0,0,0,0,0,0,0,0,0,0,0,0,0,0,0,0,
81,51.4,55.9,-0.9241,51.27,19.41,82.31,-10.36,96.03,-8.83,15.53,-20.66,-17.21,-23.94,-12.12,-57.18,-13.08,0,0,0,0,0,0,0,0,0,0,0,0,0,0,0,0,
82,43.58,56.02,-9.173,35.05,12.52,61.63,-27.1,81.52,-22.72,-17.15,-30.21,-28.35,-47.46,-35.51,-74.03,-23.28,0,0,0,0,0,0,0,0,0,0,0,0,0,0,0,0,
83,24.93,32.0,-36.66,21.2,-9.401,41.21,-55.16,67.76,-39.13,-43.04,-37.89,-34.81,-56.83,-52.43,-70.97,-24.33,0,0,0,0,0,0,0,0,0,0,0,0,0,0,0,0,
84,11.7,4.95,-50.37,29.63,-21.82,39.19,-55.9,63.67,-35.02,-50.14,-30.51,-36.33,-44.95,-49.89,-53.93,-14.41,0,0,0,0,0,0,0,0,0,0,0,0,0,0,0,0,
85,2.576,-7.674,-42.4,15.02,-23.54,46.62,-39.74,72.54,-11.55,-43.42,-13.08,-28.47,-20.97,-32.33,-41.09,2.583,0,0,0,0,0,0,0,0,0,0,0,0,0,0,0,0,
86,-5.995,-13.94,-36.12,-17.86,-33.72,35.87,-28.92,64.3,8.036,-33.93,-0.7964,-7.92,7.095,-7.911,-24.43,22.51,0,0,0,0,0,0,0,0,0,0,0,0,0,0,0,0,
87,-5.918,-14.72,-31.87,-15.48,-40.6,19.1,-17.91,40.19,13.52,-21.56,-1.19,9.244,20.25,14.85,-14.98,27.25,0,0,0,0,0,0,0,0,0,0,0,0,0,0,0,0,
88,-4.484,-12.9,-28.79,7.719,-32.01,20.43,-12.78,44.36,6.844,-4.097,-13.32,6.925,3.051,20.3,-36.09,4.361,0,0,0,0,0,0,0,0,0,0,0,0,0,0,0,0,
89,-12.9,-17.39,-36.44,12.04,-24.88,34.01,-21.37,67.86,-12.08,6.292,-19.65,3.959,-17.64,16.42,-50.49,-13.2,0,0,0,0,0,0,0,0,0,0,0,0,0,0,0,0,
90,-14.11,-4.952,-34.58,16.11,-21.11,52.55,-11.44,84.86,-18.45,12.67,9.229,25.5,0.8807,34.26,-12.85,13.29,0,0,0,0,0,0,0,0,0,0,0,0,0,0,0,0,
91,8.76,22.39,-5.634,43.07,0.3369,70.59,39.22,112.9,15.21,32.8,72.08,63.4,55.49,74.91,50.66,72.67,0,0,0,0,0,0,0,0,0,0,0,0,0,0,0,0,
92,44.96,25.47,39.95,90.08,50.03,91.2,103.1,146.5,70.51,64.84,133.5,103.3,111.8,116.2,100.0,130.7,0,0,0,0,0,0,0,0,0,0,0,0,0,0,0,0,
93,78.75,40.76,84.97,133.2,99.65,123.7,139.5,159.4,116.3,97.86,159.6,133.3,142.4,143.4,117.5,156.7,0,0,0,0,0,0,0,0,0,0,0,0,0,0,0,0,
94,96.02,93.41,91.03,124.7,96.76,131.3,124.4,151.9,130.7,112.3,136.4,128.0,126.5,136.6,92.01,135.0,0,0,0,0,0,0,0,0,0,0,0,0,0,0,0,0,
95,80.57,98.88,44.27,77.41,45.0,89.65,72.13,120.3,97.7,86.52,83.09,88.54,73.52,91.13,45.83,91.8,0,0,0,0,0,0,0,0,0,0,0,0,0,0,0,0,
96,41.55,51.18,1.13,52.95,-1.446,56.37,25.98,72.15,42.92,42.94,30.73,50.67,25.75,42.34,10.12,61.21,0,0,0,0,0,0,0,0,0,0,0,0,0,0,0,0,
97,13.82,35.82,-4.181,42.38,-20.55,59.73,6.354,46.71,12.04,19.72,-5.732,33.6,4.037,20.07,-14.03,46.25,0,0,0,0,0,0,0,0,0,0,0,0,0,0,0,0,
98,6.765,36.63,-1.443,28.93,-15.14,57.61,3.13,48.12,10.74,12.22,-15.87,30.81,1.172,15.69,-23.25,42.75,0,0,0,0,0,0,0,0,0,0,0,0,0,0,0,0,
99,5.73,16.61,-6.913,38.64,-2.888,42.4,2.461,45.66,16.32,3.285,-6.934,31.05,8.72,14.37,-16.39,47.76,0,0,0,0,0,0,0,0,0,0,0,0,0,0,0,0,
100,16.12,13.78,-6.168,47.64,-14.37,36.64,2.14,38.25,15.07,-2.818,-2.616,28.75,16.9,16.7,-9.395,53.36,0,0,0,0,0,0,0,0,0,0,0,0,0,0,0,0,
101,22.42,16.18,-4.091,30.39,-36.02,33.11,4.958,39.38,6.939,-5.333,-4.692,22.74,15.12,16.15,-6.279,54.13,0,0,0,0,0,0,0,0,0,0,0,0,0,0,0,0,
102,-7.686,-14.15,-21.45,10.87,-39.07,20.69,3.084,45.25,-6.395,-16.18,-3.866,12.76,5.861,8.683,-2.763,49.76,0,0,0,0,0,0,0,0,0,0,0,0,0,0,0,0,
103,-29.81,-35.86,-39.53,-9.91,-32.25,6.078,1.534,46.86,-13.34,-25.91,4.924,12.24,10.27,17.13,3.712,51.89,0,0,0,0,0,0,0,0,0,0,0,0,0,0,0,0,
104,-14.51,-28.13,-30.73,-24.49,-31.12,-5.348,12.59,39.1,2.815,-12.87,19.99,29.82,33.29,42.5,15.14,63.81,0,0,0,0,0,0,0,0,0,0,0,0,0,0,0,0,
105,-20.96,-28.71,-21.37,-9.45,-40.86,-8.702,21.12,29.42,23.95,5.867,25.46,47.0,48.36,55.28,24.18,69.59,0,0,0,0,0,0,0,0,0,0,0,0,0,0,0,0,
106,-34.45,-28.25,-27.29,7.169,-45.9,3.054,21.24,32.69,30.36,10.25,24.1,55.23,49.35,61.26,30.42,68.85,0,0,0,0,0,0,0,0,0,0,0,0,0,0,0,0,
107,-10.5,-16.02,-28.58,10.35,-35.65,14.76,19.88,46.86,39.84,18.51,27.2,58.16,50.76,72.12,37.76,66.95,0,0,0,0,0,0,0,0,0,0,0,0,0,0,0,0,
108,1.918,-11.26,-25.63,28.63,-34.86,10.5,9.13,57.28,47.98,30.72,21.7,53.19,50.98,73.58,38.67,63.26,0,0,0,0,0,0,0,0,0,0,0,0,0,0,0,0,
109,18.46,19.93,-6.686,51.73,-31.64,18.19,4.848,59.67,42.03,35.84,10.25,56.45,51.67,78.73,36.46,72.6,0,0,0,0,0,0,0,0,0,0,0,0,0,0,0,0,
110,87.16,80.58,34.65,62.5,-0.2878,54.44,21.06,63.56,46.46,53.47,6.489,72.34,55.25,96.86,37.68,88.09,0,0,0,0,0,0,0,0,0,0,0,0,0,0,0,0,
111,150.1,121.0,60.4,76.79,25.27,86.38,36.94,72.53,62.31,78.74,7.884,76.27,58.36,103.3,37.69,87.23,0,0,0,0,0,0,0,0,0,0,0,0,0,0,0,0,
112,208.3,172.2,77.83,91.27,47.1,107.6,53.04,78.03,75.68,87.15,21.96,74.76,69.88,102.5,41.64,86.42,0,0,0,0,0,0,0,0,0,0,0,0,0,0,0,0,
113,308.6,259.8,120.7,112.8,94.29,138.6,73.18,89.55,98.33,92.0,40.59,81.35,81.71,106.9,47.05,89.55,0,0,0,0,0,0,0,0,0,0,0,0,0,0,0,0,
114,399.2,346.7,165.1,169.3,128.0,168.3,82.39,119.3,116.1,99.67,42.15,79.78,79.51,103.0,42.63,76.85,0,0,0,0,0,0,0,0,0,0,0,0,0,0,0,0,
115,470.0,430.1,196.0,225.9,145.4,194.9,89.73,141.7,113.9,96.93,44.52,77.22,82.08,100.0,44.42,71.6,0,0,0,0,0,0,0,0,0,0,0,0,0,0,0,0,
116,551.1,483.8,222.7,244.3,185.9,237.0,94.82,142.5,118.1,102.2,53.24,88.64,93.07,111.4,58.0,86.59,0,0,0,0,0,0,0,0,0,0,0,0,0,0,0,0,
117,605.3,504.4,242.0,272.3,213.2,272.9,86.09,144.1,129.3,124.5,43.79,95.41,92.14,116.9,58.34,88.65,0,0,0,0,0,0,0,0,0,0,0,0,0,0,0,0,
118,644.5,577.4,272.8,333.6,209.6,279.4,87.99,152.9,125.4,137.2,35.2,92.57,87.88,113.8,52.09,79.84,0,0,0,0,0,0,0,0,0,0,0,0,0,0,0,0,
119,697.1,667.5,316.1,375.3,227.9,291.6,105.5,168.4,122.4,146.3,51.51,96.7,93.1,121.7,63.28,87.15,0,0,0,0,0,0,0,0,0,0,0,0,0,0,0,0,
120,716.9,672.6,331.0,377.1,259.0,327.5,110.8,188.9,135.4,173.3,71.3,104.7,99.98,136.0,78.33,102.3,0,0,0,0,0,0,0,0,0,0,0,0,0,0,0,0,
121,712.7,655.0,324.1,366.2,262.5,345.1,110.1,192.6,147.0,191.0,83.92,106.1,108.3,141.5,80.06,108.3,0,0,0,0,0,0,0,0,0,0,0,0,0,0,0,0,
122,722.4,672.0,328.9,365.1,261.6,331.1,117.0,188.5,151.5,181.4,93.24,103.2,116.1,138.0,73.46,103.8,0,0,0,0,0,0,0,0,0,0,0,0,0,0,0,0,
123,708.5,660.4,327.0,370.4,267.0,314.8,117.1,194.6,155.1,171.4,90.41,99.65,109.0,129.6,63.41,93.96,0,0,0,0,0,0,0,0,0,0,0,0,0,0,0,0,
124,659.0,605.6,300.8,344.5,245.2,294.1,106.9,181.0,144.6,164.2,81.08,94.42,90.27,116.0,56.37,89.28,0,0,0,0,0,0,0,0,0,0,0,0,0,0,0,0,
125,604.0,547.6,275.9,287.8,207.8,270.7,103.3,152.8,117.6,147.0,74.75,89.36,78.8,99.53,55.42,90.26,0,0,0,0,0,0,0,0,0,0,0,0,0,0,0,0,
126,547.1,506.1,267.2,265.1,199.1,273.4,107.6,150.7,102.0,137.4,65.16,87.71,76.58,86.99,49.75,85.75,0,0,0,0,0,0,0,0,0,0,0,0,0,0,0,0,
127,503.8,479.0,260.4,263.9,207.3,276.1,102.0,149.9,101.7,139.7,53.34,82.01,71.41,79.41,36.8,72.34,0,0,0,0,0,0,0,0,0,0,0,0,0,0,0,0,
128,479.3,434.4,246.9,216.9,193.8,238.0,86.16,125.6,89.14,131.0,44.95,68.98,63.16,72.0,29.03,61.31,0,0,0,0,0,0,0,0,0,0,0,0,0,0,0,0,
129,444.5,373.1,233.6,173.3,170.5,198.0,81.06,110.1,70.97,114.5,44.19,62.69,63.51,68.43,31.21,64.3,0,0,0,0,0,0,0,0,0,0,0,0,0,0,0,0,
130,399.1,333.4,218.9,179.6,158.3,185.5,85.49,109.5,74.02,105.3,50.03,63.51,69.6,69.16,32.1,68.48,0,0,0,0,0,0,0,0,0,0,0,0,0,0,0,0,
131,352.5,302.0,189.6,156.9,140.1,165.7,79.3,111.3,82.36,95.52,43.89,58.6,67.18,64.08,25.44,59.06,0,0,0,0,0,0,0,0,0,0,0,0,0,0,0,0,
132,301.8,260.4,157.2,100.8,116.9,139.1,70.39,115.5,75.25,85.62,31.94,53.01,62.68,57.91,23.71,53.57,0,0,0,0,0,0,0,0,0,0,0,0,0,0,0,0,
133,266.5,229.6,146.4,92.26,104.8,128.0,75.45,97.88,69.15,82.93,41.64,48.19,65.58,54.07,25.85,52.49,0,0,0,0,0,0,0,0,0,0,0,0,0,0,0,0,
134,244.6,198.9,147.1,107.8,87.97,112.5,82.15,68.63,68.39,67.73,53.54,37.74,60.12,39.76,13.1,30.13,0,0,0,0,0,0,0,0,0,0,0,0,0,0,0,0,
135,211.5,156.0,139.3,98.95,70.58,86.87,79.71,79.32,61.3,40.8,44.25,34.12,41.5,26.27,-4.865,4.657,0,0,0,0,0,0,0,0,0,0,0,0,0,0,0,0,
136,181.0,122.8,124.6,73.62,74.09,67.75,78.84,105.2,54.95,33.73,34.83,38.79,27.1,27.45,-8.706,1.247,0,0,0,0,0,0,0,0,0,0,0,0,0,0,0,0,
137,162.3,97.34,106.9,33.5,70.14,50.97,82.39,101.8,50.35,37.3,34.31,35.11,23.16,23.52,-9.329,-3.081,0,0,0,0,0,0,0,0,0,0,0,0,0,0,0,0,
138,139.1,71.77,92.78,10.44,44.43,38.74,81.29,98.29,43.7,28.1,35.62,27.79,26.98,12.17,-17.07,-17.28,0,0,0,0,0,0,0,0,0,0,0,0,0,0,0,0,
139,113.7,54.94,86.89,27.05,35.51,39.94,74.84,103.5,45.47,21.1,41.52,27.99,33.74,12.38,-25.04,-22.23,0,0,0,0,0,0,0,0,0,0,0,0,0,0,0,0,
140,89.4,40.34,80.76,26.35,47.51,42.63,71.14,101.2,51.73,25.84,45.5,33.64,38.06,17.65,-27.71,-18.54,0,0,0,0,0,0,0,0,0,0,0,0,0,0,0,0,
141,68.07,23.54,74.49,-10.07,47.14,32.79,71.0,107.1,49.99,30.79,40.57,36.95,38.94,12.18,-26.56,-18.69,0,0,0,0,0,0,0,0,0,0,0,0,0,0,0,0,
142,56.0,8.008,68.67,-32.9,28.88,8.344,61.61,105.1,38.45,24.16,31.81,24.54,27.58,-6.842,-29.25,-27.84,0,0,0,0,0,0,0,0,0,0,0,0,0,0,0,0,
143,36.28,-4.029,53.36,-27.53,11.68,-10.09,42.74,81.89,16.0,1.537,26.3,6.373,8.95,-24.61,-32.79,-35.1,0,0,0,0,0,0,0,0,0,0,0,0,0,0,0,0,
144,13.38,0.7544,40.81,-13.65,9.103,4.601,36.53,80.36,-0.0392,-14.81,29.06,8.154,8.569,-21.93,-26.93,-29.04,0,0,0,0,0,0,0,0,0,0,0,0,0,0,0,0,
145,24.69,14.92,44.46,-11.51,16.77,29.93,44.79,98.14,8.562,-6.273,32.67,13.86,16.03,-14.67,-23.3,-30.46,0,0,0,0,0,0,0,0,0,0,0,0,0,0,0,0,
146,48.24,15.16,44.56,-23.63,21.93,30.07,47.97,101.4,16.89,8.218,25.75,2.841,6.481,-22.22,-31.11,-47.51,0,0,0,0,0,0,0,0,0,0,0,0,0,0,0,0,
147,41.43,11.95,37.42,-29.88,23.96,27.18,50.02,108.4,7.441,17.6,14.02,-2.195,-3.537,-24.16,-35.39,-47.83,0,0,0,0,0,0,0,0,0,0,0,0,0,0,0,0,
148,36.12,19.32,41.0,-22.8,25.32,40.66,55.2,125.0,1.221,28.52,4.259,2.64,-8.601,-19.29,-36.89,-35.32,0,0,0,0,0,0,0,0,0,0,0,0,0,0,0,0,
149,45.14,21.45,36.21,-19.39,14.75,34.05,43.92,128.6,-8.192,26.95,-8.209,-8.783,-27.65,-34.21,-47.6,-42.5,0,0,0,0,0,0,0,0,0,0,0,0,0,0,0,0,
150,20.67,7.899,15.36,-49.87,-6.514,1.352,26.92,121.4,-35.75,6.571,-12.73,-25.1,-36.63,-48.53,-47.7,-49.06,0,0,0,0,0,0,0,0,0,0,0,0,0,0,0,0,
151,-9.004,-3.639,23.49,-102.4,-9.441,-5.926,33.03,106.7,-40.86,-1.708,8.43,-19.83,-10.9,-30.34,-22.92,-30.12,0,0,0,0,0,0,0,0,0,0,0,0,0,0,0,0,
152,16.21,3.722,50.47,-99.23,7.24,12.92,40.25,89.41,-8.101,12.34,32.11,-8.292,11.46,-9.973,-5.699,-16.61,0,0,0,0,0,0,0,0,0,0,0,0,0,0,0,0,
153,41.0,12.01,35.92,-46.49,4.568,7.058,25.77,87.1,4.356,13.34,27.57,-10.15,6.622,-16.83,-12.88,-25.2,0,0,0,0,0,0,0,0,0,0,0,0,0,0,0,0,
154,12.81,1.466,2.026,-42.26,-18.69,-13.25,19.34,95.16,-18.38,-4.664,17.37,-10.65,2.654,-24.61,-16.76,-28.34,0,0,0,0,0,0,0,0,0,0,0,0,0,0,0,0,
155,-7.046,-9.787,-1.537,-72.42,-30.07,-6.688,32.09,99.61,-32.3,-10.55,24.45,-1.724,1.343,-19.71,-13.59,-21.01,0,0,0,0,0,0,0,0,0,0,0,0,0,0,0,0,
156,14.45,-3.47,9.677,-77.86,-30.02,9.823,39.96,102.8,-33.51,-8.446,30.8,-1.691,-15.99,-22.25,-20.85,-23.46,0,0,0,0,0,0,0,0,0,0,0,0,0,0,0,0,
157,27.44,9.709,15.08,-93.35,-29.49,8.033,39.27,98.04,-36.99,-14.77,25.87,-15.63,-36.41,-33.44,-28.52,-35.82,0,0,0,0,0,0,0,0,0,0,0,0,0,0,0,0,
158,9.59,7.33,6.004,-111.9,-31.14,-5.88,28.17,82.22,-41.31,-20.65,11.68,-26.5,-51.51,-41.02,-33.3,-48.69,0,0,0,0,0,0,0,0,0,0,0,0,0,0,0,0,
159,-10.89,-17.51,-18.88,-96.93,-46.53,-22.13,1.692,80.73,-55.21,-26.19,-9.813,-23.83,-66.15,-39.87,-45.54,-57.71,0,0,0,0,0,0,0,0,0,0,0,0,0,0,0,0,
160,-19.38,-40.41,-32.73,-98.55,-67.8,-35.84,-16.66,93.98,-69.52,-28.53,-25.69,-15.24,-72.65,-32.05,-55.93,-59.48,0,0,0,0,0,0,0,0,0,0,0,0,0,0,0,0,
161,-38.13,-50.05,-39.95,-122.2,-78.95,-48.48,-20.99,83.66,-69.84,-21.12,-35.86,-17.35,-77.97,-36.18,-64.39,-64.37,0,0,0,0,0,0,0,0,0,0,0,0,0,0,0,0,
162,-71.59,-66.48,-61.07,-116.1,-89.07,-64.68,-31.55,54.2,-79.53,-28.62,-46.91,-34.03,-89.65,-56.67,-77.89,-81.24,0,0,0,0,0,0,0,0,0,0,0,0,0,0,0,0,
163,-83.83,-85.66,-65.76,-111.5,-100.6,-75.29,-33.77,42.66,-99.18,-50.85,-50.86,-50.06,-91.48,-69.99,-85.0,-97.47,0,0,0,0,0,0,0,0,0,0,0,0,0,0,0,0,
164,-78.04,-94.27,-51.3,-140.3,-113.1,-80.85,-18.64,41.32,-103.4,-53.59,-57.67,-57.12,-92.0,-76.66,-90.84,-106.9,0,0,0,0,0,0,0,0,0,0,0,0,0,0,0,0,
165,-92.99,-105.5,-59.07,-163.3,-134.4,-95.54,-19.04,31.46,-110.0,-54.0,-76.57,-61.24,-109.4,-91.86,-103.7,-114.1,0,0,0,0,0,0,0,0,0,0,0,0,0,0,0,0,
166,-109.6,-115.8,-75.74,-151.6,-140.2,-109.2,-32.71,21.58,-128.6,-78.77,-78.98,-64.94,-121.9,-103.7,-104.3,-113.6,0,0,0,0,0,0,0,0,0,0,0,0,0,0,0,0,
167,-93.65,-107.3,-69.34,-111.3,-116.8,-105.9,-28.31,15.57,-128.4,-96.8,-59.19,-67.48,-116.5,-103.0,-90.58,-104.1,0,0,0,0,0,0,0,0,0,0,0,0,0,0,0,0,
168,-73.61,-90.77,-54.88,-85.13,-100.7,-93.42,-16.43,15.89,-111.5,-89.06,-50.89,-69.75,-108.0,-94.83,-79.04,-91.7,0,0,0,0,0,0,0,0,0,0,0,0,0,0,0,0,
169,-75.99,-82.99,-47.37,-108.3,-94.14,-82.22,-12.54,20.8,-98.89,-73.95,-56.59,-70.08,-97.78,-78.67,-72.69,-80.08,0,0,0,0,0,0,0,0,0,0,0,0,0,0,0,0,
170,-79.87,-81.69,-41.41,-131.4,-74.02,-74.7,-5.589,12.47,-87.87,-56.91,-57.08,-64.34,-88.77,-60.43,-71.83,-71.76,0,0,0,0,0,0,0,0,0,0,0,0,0,0,0,0,
171,-80.45,-84.91,-39.67,-116.3,-68.97,-73.03,-1.513,-4.634,-84.99,-39.89,-54.51,-48.97,-86.88,-46.59,-65.72,-59.7,0,0,0,0,0,0,0,0,0,0,0,0,0,0,0,0,
172,-89.05,-91.99,-45.51,-107.9,-87.87,-76.8,-12.81,-9.028,-93.83,-32.76,-50.28,-30.09,-77.29,-33.1,-40.24,-39.52,0,0,0,0,0,0,0,0,0,0,0,0,0,0,0,0,
173,-87.7,-94.83,-51.48,-120.1,-93.17,-84.16,-26.31,-2.969,-95.38,-35.05,-43.08,-22.41,-63.04,-26.44,-15.8,-26.72,0,0,0,0,0,0,0,0,0,0,0,0,0,0,0,0,
174,-85.24,-104.2,-64.32,-127.1,-97.66,-94.0,-37.68,-0.9589,-94.2,-43.89,-45.93,-26.64,-66.98,-32.65,-16.4,-27.5,0,0,0,0,0,0,0,0,0,0,0,0,0,0,0,0,
175,-117.4,-133.1,-98.15,-137.4,-125.3,-104.7,-63.63,-7.227,-107.7,-54.22,-59.94,-28.41,-79.42,-36.33,-27.25,-26.21,0,0,0,0,0,0,0,0,0,0,0,0,0,0,0,0,
176,-151.5,-146.2,-125.3,-150.4,-136.3,-108.2,-91.27,-10.03,-120.0,-52.4,-66.28,-22.42,-78.23,-30.64,-24.53,-17.07,0,0,0,0,0,0,0,0,0,0,0,0,0,0,0,0,
177,-151.5,-125.0,-114.3,-150.6,-113.7,-100.7,-88.72,-5.178,-114.8,-41.53,-58.34,-17.69,-71.23,-31.41,-15.07,-13.16,0,0,0,0,0,0,0,0,0,0,0,0,0,0,0,0,
178,-151.5,-114.2,-94.54,-152.4,-98.53,-93.55,-65.14,-13.45,-106.0,-42.96,-48.55,-20.36,-72.56,-41.89,-18.65,-20.25,0,0,0,0,0,0,0,0,0,0,0,0,0,0,0,0,
179,-150.9,-118.9,-88.64,-151.5,-96.92,-83.66,-43.74,-28.09,-100.7,-54.2,-42.07,-21.31,-75.24,-44.37,-24.93,-23.94,0,0,0,0,0,0,0,0,0,0,0,0,0,0,0,0,
180,-124.6,-107.2,-76.76,-119.5,-82.19,-65.61,-23.97,-18.34,-86.61,-53.12,-33.86,-13.37,-68.47,-34.24,-17.05,-17.7,0,0,0,0,0,0,0,0,0,0,0,0,0,0,0,0,
181,-110.2,-98.24,-67.31,-78.45,-64.39,-62.78,-14.12,0.3553,-72.88,-42.55,-31.42,-9.232,-59.58,-25.16,-11.08,-16.11,0,0,0,0,0,0,0,0,0,0,0,0,0,0,0,0,
182,-120.1,-98.25,-72.09,-66.98,-61.91,-68.76,-18.55,8.363,-78.13,-33.4,-38.85,-13.32,-57.16,-19.34,-14.46,-22.73,0,0,0,0,0,0,0,0,0,0,0,0,0,0,0,0,
183,-111.8,-82.93,-64.65,-74.23,-59.31,-52.55,-14.45,20.55,-82.12,-18.45,-39.03,-10.1,-52.07,-9.959,-11.32,-27.27,0,0,0,0,0,0,0,0,0,0,0,0,0,0,0,0,
184,-92.96,-75.68,-49.44,-80.11,-45.11,-40.95,-2.341,27.32,-65.6,-4.918,-33.42,-1.505,-42.1,-2.464,-5.764,-28.4,0,0,0,0,0,0,0,0,0,0,0,0,0,0,0,0,
185,-103.2,-90.75,-61.08,-79.15,-37.07,-54.05,-8.016,21.19,-56.77,-4.696,-41.61,-2.406,-40.76,-2.818,-8.771,-29.52,0,0,0,0,0,0,0,0,0,0,0,0,0,0,0,0,
186,-126.4,-92.23,-88.05,-66.93,-47.43,-54.13,-31.3,26.69,-68.94,-4.682,-55.67,-6.402,-45.41,-5.002,-14.63,-34.05,0,0,0,0,0,0,0,0,0,0,0,0,0,0,0,0,
187,-117.2,-69.14,-91.76,-59.79,-57.79,-37.16,-51.03,30.04,-74.68,-1.595,-61.13,-3.464,-39.99,-1.326,-14.94,-39.66,0,0,0,0,0,0,0,0,0,0,0,0,0,0,0,0,
188,-76.5,-41.74,-70.21,-65.86,-44.66,-22.14,-50.4,11.96,-64.33,1.064,-59.57,0.3646,-24.27,10.09,-3.408,-34.81,0,0,0,0,0,0,0,0,0,0,0,0,0,0,0,0,
189,-44.0,-23.97,-51.28,-51.8,-14.1,4.39,-27.11,4.929,-46.67,15.81,-44.26,2.418,-6.924,23.58,17.08,-18.52,0,0,0,0,0,0,0,0,0,0,0,0,0,0,0,0,
190,-27.66,-9.539,-37.6,-14.95,14.13,36.45,4.823,8.636,-21.25,34.14,-13.54,9.449,10.54,34.3,36.7,2.137,0,0,0,0,0,0,0,0,0,0,0,0,0,0,0,0,
191,-9.957,10.34,-8.583,0.7485,37.25,52.27,33.45,-7.638,5.209,41.46,15.27,25.67,26.53,47.56,55.08,25.38,0,0,0,0,0,0,0,0,0,0,0,0,0,0,0,0,
192,-8.128,9.996,16.33,-2.066,50.18,53.09,51.22,-19.86,17.94,49.47,31.87,45.96,34.67,63.41,66.64,40.89,0,0,0,0,0,0,0,0,0,0,0,0,0,0,0,0,
193,-34.72,-12.37,2.797,-1.678,34.48,31.46,44.23,-13.83,13.18,55.32,30.9,52.8,27.94,65.52,54.93,32.74,0,0,0,0,0,0,0,0,0,0,0,0,0,0,0,0,
194,-60.41,-28.54,-28.32,-33.03,-5.016,-12.6,15.71,-19.49,-6.194,44.0,7.283,36.93,1.071,42.05,23.53,1.399,0,0,0,0,0,0,0,0,0,0,0,0,0,0,0,0,
195,-79.51,-71.13,-47.38,-93.18,-39.14,-46.74,-6.109,-33.84,-39.15,21.17,-22.02,13.89,-40.22,2.751,-6.994,-36.98,0,0,0,0,0,0,0,0,0,0,0,0,0,0,0,0,
196,-96.93,-123.7,-61.0,-116.0,-54.93,-63.26,-13.13,-51.01,-78.74,-7.553,-38.93,-6.895,-78.15,-32.07,-31.2,-65.6,0,0,0,0,0,0,0,0,0,0,0,0,0,0,0,0,
197,-86.39,-90.45,-72.88,-112.7,-62.97,-80.81,-22.72,-82.53,-109.1,-35.59,-50.95,-27.69,-98.3,-48.5,-46.67,-76.65,0,0,0,0,0,0,0,0,0,0,0,0,0,0,0,0,
198,-70.46,-28.99,-83.02,-118.7,-76.54,-94.53,-32.18,-95.79,-118.7,-47.43,-63.07,-36.08,-97.65,-46.92,-41.71,-74.68,0,0,0,0,0,0,0,0,0,0,0,0,0,0,0,0,
199,-98.92,-54.03,-96.33,-95.02,-96.29,-100.4,-32.05,-77.33,-113.8,-48.62,-71.56,-32.41,-90.16,-45.29,-29.86,-74.22,0,0,0,0,0,0,0,0,0,0,0,0,0,0,0,0,
200,-136.1,-99.98,-101.1,-63.32,-108.2,-110.1,-33.9,-70.34,-111.6,-57.3,-80.43,-35.6,-96.85,-57.39,-34.34,-81.03,0,0,0,0,0,0,0,0,0,0,0,0,0,0,0,0,
201,-134.3,-96.96,-89.75,-84.54,-102.6,-115.2,-40.64,-76.1,-116.7,-68.69,-87.29,-39.56,-112.4,-67.9,-40.3,-82.97,0,0,0,0,0,0,0,0,0,0,0,0,0,0,0,0,
202,-113.3,-87.0,-72.63,-103.3,-87.31,-103.0,-45.75,-72.55,-118.7,-69.54,-89.98,-35.33,-115.5,-62.62,-32.91,-75.76,0,0,0,0,0,0,0,0,0,0,0,0,0,0,0,0,
203,-87.41,-77.11,-52.61,-79.13,-65.33,-79.13,-40.69,-67.44,-115.2,-62.07,-88.31,-30.61,-99.7,-49.37,-23.4,-65.44,0,0,0,0,0,0,0,0,0,0,0,0,0,0,0,0,
204,-53.84,-48.3,-27.76,-58.52,-27.45,-44.73,-4.989,-49.67,-94.97,-43.72,-69.52,-17.89,-65.1,-25.95,-12.41,-51.76,0,0,0,0,0,0,0,0,0,0,0,0,0,0,0,0,
205,-30.3,-18.09,-3.624,-46.75,10.12,-2.071,35.44,-20.36,-42.9,-5.187,-49.6,2.978,-27.78,7.016,-5.755,-43.7,0,0,0,0,0,0,0,0,0,0,0,0,0,0,0,0,
206,-28.54,-3.37,10.97,-48.08,12.65,24.45,23.72,-15.69,1.677,32.88,-61.4,12.43,-18.98,23.94,-16.78,-48.12,0,0,0,0,0,0,0,0,0,0,0,0,0,0,0,0,
207,-41.96,-6.769,10.36,-69.71,-7.804,18.74,-11.09,-25.38,-4.266,40.89,-82.38,12.64,-30.88,22.79,-25.06,-46.35,0,0,0,0,0,0,0,0,0,0,0,0,0,0,0,0,
208,-60.21,-14.74,6.0,-48.86,-7.364,5.131,-13.29,-16.42,-21.65,32.99,-82.33,17.48,-32.27,29.62,-13.95,-30.86,0,0,0,0,0,0,0,0,0,0,0,0,0,0,0,0,
209,-70.73,-15.47,13.17,6.575,9.879,15.39,-5.94,-1.836,-10.18,38.28,-70.56,27.09,-23.53,43.18,1.367,-14.84,0,0,0,0,0,0,0,0,0,0,0,0,0,0,0,0,
210,-61.08,-15.76,27.71,8.999,15.48,37.87,2.035,1.282,7.366,51.87,-36.79,41.26,-4.683,51.48,28.06,8.558,0,0,0,0,0,0,0,0,0,0,0,0,0,0,0,0,
211,-25.65,-6.544,54.54,-16.61,27.55,53.1,50.9,7.177,24.96,61.04,33.0,67.39,41.52,71.48,83.48,51.9,0,0,0,0,0,0,0,0,0,0,0,0,0,0,0,0,
212,13.95,22.55,98.4,-2.645,61.34,76.02,121.7,29.72,62.07,76.82,99.27,100.3,94.2,105.3,133.5,90.28,0,0,0,0,0,0,0,0,0,0,0,0,0,0,0,0,
213,12.15,38.48,112.8,14.39,66.66,87.65,146.5,45.85,92.65,97.12,111.3,104.0,102.1,110.2,130.3,85.38,0,0,0,0,0,0,0,0,0,0,0,0,0,0,0,0,
214,-38.59,0.8636,69.62,-18.62,11.72,40.95,107.4,22.92,75.08,88.08,68.27,65.99,60.26,70.66,83.85,44.77,0,0,0,0,0,0,0,0,0,0,0,0,0,0,0,0,
215,-94.44,-69.81,20.59,-74.93,-50.14,-24.29,43.03,-15.87,22.98,47.76,11.2,33.23,12.31,30.19,33.38,6.429,0,0,0,0,0,0,0,0,0,0,0,0,0,0,0,0,
216,-126.9,-104.3,-1.93,-87.51,-75.64,-42.38,-6.756,-27.51,-22.59,16.35,-30.18,22.17,-20.14,10.72,-8.529,-22.06,0,0,0,0,0,0,0,0,0,0,0,0,0,0,0,0,
217,-138.3,-91.35,-18.14,-50.77,-90.36,-43.86,-30.24,-21.71,-51.48,-0.2254,-58.92,2.03,-46.2,-8.936,-41.06,-48.01,0,0,0,0,0,0,0,0,0,0,0,0,0,0,0,0,
218,-138.4,-89.61,-35.08,-40.19,-116.1,-72.14,-44.27,-27.83,-74.41,-26.76,-84.31,-18.82,-70.61,-32.34,-61.82,-63.65,0,0,0,0,0,0,0,0,0,0,0,0,0,0,0,0,
219,-144.1,-103.6,-58.5,-74.95,-139.1,-105.1,-68.51,-42.68,-97.09,-58.99,-105.9,-24.2,-92.27,-47.61,-79.08,-75.36,0,0,0,0,0,0,0,0,0,0,0,0,0,0,0,0,
220,-155.1,-109.5,-85.07,-83.99,-143.8,-121.1,-89.61,-39.92,-116.8,-78.02,-115.8,-35.84,-105.2,-61.06,-97.99,-97.99,0,0,0,0,0,0,0,0,0,0,0,0,0,0,0,0,
221,-154.8,-131.4,-82.78,-61.94,-130.2,-126.2,-84.63,-20.01,-123.7,-84.6,-110.6,-57.43,-106.3,-79.72,-113.7,-121.2,0,0,0,0,0,0,0,0,0,0,0,0,0,0,0,0,
222,-146.2,-139.1,-56.07,-63.78,-112.6,-121.1,-67.21,-20.47,-118.9,-87.75,-99.21,-67.11,-103.9,-88.68,-114.7,-122.2,0,0,0,0,0,0,0,0,0,0,0,0,0,0,0,0,
223,-128.7,-83.86,-37.45,-69.58,-96.52,-104.4,-56.06,-42.46,-112.4,-85.59,-83.52,-62.63,-93.28,-75.07,-91.22,-98.11,0,0,0,0,0,0,0,0,0,0,0,0,0,0,0,0,
224,-100.5,-38.77,-28.24,-47.28,-74.37,-86.08,-46.93,-48.57,-97.73,-78.17,-62.19,-60.3,-69.42,-57.15,-61.3,-76.05,0,0,0,0,0,0,0,0,0,0,0,0,0,0,0,0,
225,-82.78,-50.86,-25.42,-28.28,-51.45,-72.64,-42.01,-34.52,-71.86,-75.16,-45.48,-58.97,-47.75,-47.82,-44.83,-68.02,0,0,0,0,0,0,0,0,0,0,0,0,0,0,0,0,
226,-76.43,-56.1,-30.7,-17.57,-40.61,-61.85,-45.01,-16.4,-49.07,-67.94,-40.72,-40.79,-32.95,-30.65,-30.99,-49.98,0,0,0,0,0,0,0,0,0,0,0,0,0,0,0,0,
227,-71.79,-49.68,-32.04,4.336,-38.09,-60.14,-44.76,-8.517,-34.84,-47.66,-48.32,-18.43,-21.4,-9.26,-18.06,-25.27,0,0,0,0,0,0,0,0,0,0,0,0,0,0,0,0,
228,-82.41,-61.81,-26.71,11.78,-27.4,-64.94,-34.47,-18.62,-23.35,-36.72,-55.9,-15.11,-18.4,0.4757,-15.17,-18.49,0,0,0,0,0,0,0,0,0,0,0,0,0,0,0,0,
229,-100.5,-69.65,-26.91,-15.47,-7.233,-61.7,-24.35,-24.08,-13.62,-40.07,-46.91,-12.93,-20.49,7.089,-15.36,-17.08,0,0,0,0,0,0,0,0,0,0,0,0,0,0,0,0,
230,-106.6,-79.71,-40.33,-56.49,-3.299,-64.18,-30.89,-20.84,-12.51,-37.66,-34.51,-0.5558,-24.6,7.071,-18.89,-13.36,0,0,0,0,0,0,0,0,0,0,0,0,0,0,0,0,
231,-107.8,-104.5,-59.48,-78.26,-25.78,-86.35,-46.82,-34.17,-23.01,-36.28,-30.53,3.85,-30.86,-6.986,-26.88,-22.97,0,0,0,0,0,0,0,0,0,0,0,0,0,0,0,0,
232,-113.4,-111.7,-68.28,-58.78,-44.88,-99.33,-45.0,-44.91,-30.73,-42.42,-20.83,2.948,-29.2,-12.49,-30.28,-36.66,0,0,0,0,0,0,0,0,0,0,0,0,0,0,0,0,
233,-118.6,-96.92,-61.61,-25.67,-36.84,-82.03,-27.03,-30.04,-19.48,-36.92,-9.98,2.436,-20.12,-3.655,-31.64,-42.0,0,0,0,0,0,0,0,0,0,0,0,0,0,0,0,0,
234,-109.1,-85.22,-49.43,-28.15,-17.54,-57.93,-15.85,-16.97,4.136,-20.61,-7.567,-9.27,-13.8,-1.295,-29.44,-44.71,0,0,0,0,0,0,0,0,0,0,0,0,0,0,0,0,
235,-92.08,-83.01,-43.37,-54.27,-13.46,-52.1,-15.15,-14.78,16.98,-16.14,-1.42,-22.63,-8.937,-6.245,-21.06,-43.79,0,0,0,0,0,0,0,0,0,0,0,0,0,0,0,0,
236,-92.15,-76.99,-36.51,-56.06,-14.69,-53.5,-16.28,-5.362,10.89,-23.28,3.878,-23.27,-5.294,-7.671,-25.16,-42.48,0,0,0,0,0,0,0,0,0,0,0,0,0,0,0,0,
237,-89.58,-56.38,-15.12,-22.96,2.848,-42.32,-10.39,2.51,4.285,-23.95,-3.351,-24.09,-8.968,-5.984,-40.65,-48.18,0,0,0,0,0,0,0,0,0,0,0,0,0,0,0,0,
238,-64.93,-38.46,4.815,19.38,24.02,-26.51,5.767,2.578,10.03,-16.61,-6.437,-30.65,-13.26,-1.672,-39.39,-48.37,0,0,0,0,0,0,0,0,0,0,0,0,0,0,0,0,
239,-55.0,-36.38,7.264,39.33,30.88,-14.76,20.41,8.189,23.35,-7.381,6.912,-29.38,-3.256,9.863,-20.06,-34.24,0,0,0,0,0,0,0,0,0,0,0,0,0,0,0,0,
240,-67.76,-40.09,6.429,30.91,30.2,-5.337,25.75,9.299,40.44,3.179,23.65,-22.3,15.54,25.42,-1.303,-22.53,0,0,0,0,0,0,0,0,0,0,0,0,0,0,0,0,
241,-68.92,-48.63,6.396,24.71,15.34,-13.58,28.78,-5.455,52.06,6.285,35.25,-21.55,25.14,31.61,10.49,-27.71,0,0,0,0,0,0,0,0,0,0,0,0,0,0,0,0,
242,-64.31,-56.2,1.587,25.3,-10.51,-40.09,28.87,-19.04,49.66,-0.4125,42.81,-26.24,24.68,23.2,10.59,-41.88,0,0,0,0,0,0,0,0,0,0,0,0,0,0,0,0,
243,-75.56,-60.16,-0.308,-2.843,-23.15,-55.99,18.05,-28.47,41.05,-7.194,42.78,-28.34,15.99,11.39,-2.534,-47.5,0,0,0,0,0,0,0,0,0,0,0,0,0,0,0,0,
244,-87.5,-75.23,0.6196,-38.25,-25.08,-56.04,3.019,-37.26,31.16,-16.36,36.88,-20.0,-2.173,9.174,-13.83,-37.55,0,0,0,0,0,0,0,0,0,0,0,0,0,0,0,0,
245,-86.18,-84.12,-0.2001,-26.44,-25.54,-54.52,-3.971,-28.77,20.92,-27.41,33.11,-7.441,-14.21,16.64,-14.96,-25.66,0,0,0,0,0,0,0,0,0,0,0,0,0,0,0,0,
246,-81.9,-65.29,1.721,10.79,-9.755,-42.19,-4.603,-6.214,21.65,-26.05,30.76,-7.769,-11.66,24.12,-19.96,-28.53,0,0,0,0,0,0,0,0,0,0,0,0,0,0,0,0,
247,-68.5,-37.44,8.488,35.68,27.62,-8.221,-1.179,17.36,41.19,-5.212,28.09,-10.39,-2.741,29.18,-33.4,-36.62,0,0,0,0,0,0,0,0,0,0,0,0,0,0,0,0,
248,-42.89,-16.88,17.95,48.58,56.85,18.4,11.84,38.78,70.17,25.74,31.28,3.632,14.41,35.3,-36.64,-29.81,0,0,0,0,0,0,0,0,0,0,0,0,0,0,0,0,
249,-37.29,-12.62,26.22,37.34,47.49,7.651,26.16,38.31,86.35,40.33,42.92,18.94,35.0,37.53,-23.94,-15.56,0,0,0,0,0,0,0,0,0,0,0,0,0,0,0,0,
250,-46.39,-27.51,27.73,15.56,24.45,-12.76,24.79,26.82,79.63,29.09,54.12,21.93,39.71,32.11,-12.17,-11.96,0,0,0,0,0,0,0,0,0,0,0,0,0,0,0,0,
251,-44.86,-41.99,16.29,12.9,22.7,-17.07,14.14,38.6,66.11,15.55,54.66,16.81,28.43,20.08,-7.857,-15.29,0,0,0,0,0,0,0,0,0,0,0,0,0,0,0,0,
252,-69.18,-51.82,-5.338,-2.115,17.01,-31.31,14.6,44.48,58.51,0.3633,47.67,1.517,13.67,-1.075,-6.433,-19.48,0,0,0,0,0,0,0,0,0,0,0,0,0,0,0,0,
253,-107.7,-60.29,-13.22,-44.6,-2.108,-48.68,26.82,23.34,53.71,-25.6,41.44,-11.8,-1.477,-20.31,-11.16,-28.65,0,0,0,0,0,0,0,0,0,0,0,0,0,0,0,0,
254,-86.51,-54.05,5.054,-71.52,5.255,-32.83,32.83,13.46,51.21,-34.56,34.01,-11.62,-11.19,-20.34,-20.79,-39.62,0,0,0,0,0,0,0,0,0,0,0,0,0,0,0,0,
255,-42.39,-43.17,22.11,-75.22,27.39,-12.51,19.67,12.0,50.93,-22.71,18.99,-21.25,-12.84,-14.75,-32.24,-53.67,0,0,0,0,0,0,0,0,0,0,0,0,0,0,0,0,
256,-43.93,-45.59,15.19,-75.7,22.93,-20.6,-5.34,4.142,47.53,-22.59,-4.793,-47.89,-19.13,-24.11,-52.91,-78.94,0,0,0,0,0,0,0,0,0,0,0,0,0,0,0,0,
257,-52.73,-47.94,-1.613,-68.65,12.95,-24.41,-22.02,15.69,39.48,-28.9,-22.8,-63.69,-26.54,-35.87,-72.64,-99.38,0,0,0,0,0,0,0,0,0,0,0,0,0,0,0,0,
258,-44.98,-37.16,-6.879,-53.12,29.56,-10.18,-23.48,27.43,36.05,-23.24,-16.29,-63.34,-16.29,-37.69,-69.25,-95.41,0,0,0,0,0,0,0,0,0,0,0,0,0,0,0,0,
259,-45.27,-19.41,0.1557,-47.66,51.87,-5.346,-19.94,7.455,45.33,-21.91,-1.586,-60.89,-3.033,-40.46,-52.68,-80.61,0,0,0,0,0,0,0,0,0,0,0,0,0,0,0,0,
260,-41.91,-10.62,1.421,-61.08,48.38,-11.28,-19.05,-10.26,51.14,-32.91,-7.193,-55.07,-13.11,-45.37,-45.09,-68.88,0,0,0,0,0,0,0,0,0,0,0,0,0,0,0,0,
261,-33.23,-23.44,-11.5,-73.5,25.24,-21.43,-21.02,-6.161,31.29,-41.42,-23.96,-43.76,-36.7,-42.46,-47.97,-54.07,0,0,0,0,0,0,0,0,0,0,0,0,0,0,0,0,
262,-36.3,-43.29,-18.61,-75.99,12.52,-42.1,-20.64,-5.545,-3.216,-41.96,-37.21,-32.85,-55.99,-30.34,-56.8,-40.07,0,0,0,0,0,0,0,0,0,0,0,0,0,0,0,0,
263,-39.46,-52.43,-11.04,-93.48,15.47,-56.79,-15.38,-11.9,-25.11,-34.52,-52.07,-23.48,-67.08,-11.91,-64.85,-36.3,0,0,0,0,0,0,0,0,0,0,0,0,0,0,0,0,
264,-47.31,-62.45,-16.24,-119.7,9.717,-54.68,-16.68,-11.48,-28.98,-22.7,-63.18,-15.5,-67.36,-0.271,-65.98,-38.32,0,0,0,0,0,0,0,0,0,0,0,0,0,0,0,0,
265,-72.51,-76.49,-41.0,-117.4,-7.311,-59.45,-27.83,-6.381,-27.78,-20.09,-64.49,-15.67,-64.63,-11.95,-67.23,-40.91,0,0,0,0,0,0,0,0,0,0,0,0,0,0,0,0,
266,-86.6,-74.65,-49.25,-98.78,-13.84,-75.88,-30.13,-15.2,-30.38,-30.3,-68.17,-28.21,-67.58,-39.05,-72.07,-42.65,0,0,0,0,0,0,0,0,0,0,0,0,0,0,0,0,
267,-80.89,-62.49,-30.69,-97.77,-9.091,-82.84,-20.0,-45.32,-31.94,-48.05,-78.64,-42.26,-69.95,-63.07,-71.09,-41.9,0,0,0,0,0,0,0,0,0,0,0,0,0,0,0,0,
268,-83.03,-68.72,-20.16,-108.3,-11.78,-85.2,-20.98,-68.78,-29.3,-72.88,-84.97,-45.8,-69.12,-77.24,-59.03,-42.1,0,0,0,0,0,0,0,0,0,0,0,0,0,0,0,0,
269,-90.28,-90.04,-38.08,-111.1,-31.15,-100.7,-40.85,-63.65,-33.99,-95.68,-81.77,-39.9,-65.46,-75.29,-40.91,-44.03,0,0,0,0,0,0,0,0,0,0,0,0,0,0,0,0,
270,-97.82,-103.9,-70.7,-99.19,-56.03,-115.8,-60.06,-44.35,-46.75,-101.9,-74.33,-27.72,-57.36,-57.0,-28.71,-43.92,0,0,0,0,0,0,0,0,0,0,0,0,0,0,0,0,
271,-123.5,-120.9,-95.79,-78.72,-66.73,-111.4,-68.09,-28.4,-52.26,-89.24,-67.71,-12.5,-54.72,-35.93,-25.09,-38.65,0,0,0,0,0,0,0,0,0,0,0,0,0,0,0,0,
272,-145.3,-139.6,-96.26,-67.06,-63.0,-106.2,-64.15,-18.27,-48.5,-67.41,-56.46,3.553,-54.78,-16.56,-12.19,-19.39,0,0,0,0,0,0,0,0,0,0,0,0,0,0,0,0,
273,-137.2,-129.4,-81.38,-69.6,-62.28,-122.2,-46.37,-7.174,-36.66,-52.5,-40.26,20.14,-41.53,0.1226,12.22,8.402,0,0,0,0,0,0,0,0,0,0,0,0,0,0,0,0,
274,-138.9,-133.2,-87.16,-88.0,-73.14,-139.4,-35.73,-1.347,-20.59,-55.49,-34.95,21.96,-27.07,-2.533,24.24,19.76,0,0,0,0,0,0,0,0,0,0,0,0,0,0,0,0,
275,-164.0,-186.9,-104.8,-118.2,-83.12,-139.8,-40.02,-22.12,-18.92,-71.4,-34.82,4.809,-19.02,-22.85,23.67,16.68,0,0,0,0,0,0,0,0,0,0,0,0,0,0,0,0,
276,-158.1,-187.1,-83.37,-117.2,-69.63,-136.0,-23.67,-54.86,-17.93,-86.86,-20.6,-4.779,-1.468,-34.68,26.11,16.07,0,0,0,0,0,0,0,0,0,0,0,0,0,0,0,0,
277,-119.5,-105.9,-40.81,-74.95,-37.71,-125.6,10.62,-62.73,9.447,-91.89,-9.353,-3.5,11.08,-34.25,27.72,13.6,0,0,0,0,0,0,0,0,0,0,0,0,0,0,0,0,
278,-96.38,-68.93,-21.78,-55.67,-11.96,-93.85,28.33,-47.72,40.12,-79.95,-7.446,-4.555,10.46,-25.77,35.63,19.03,0,0,0,0,0,0,0,0,0,0,0,0,0,0,0,0,
279,-77.66,-80.2,-0.4123,-66.42,9.979,-62.88,40.6,-31.85,57.14,-50.21,9.227,2.429,24.16,-4.303,55.67,40.49,0,0,0,0,0,0,0,0,0,0,0,0,0,0,0,0,
280,-48.79,-64.41,24.28,-52.97,23.51,-60.08,46.72,-23.95,67.07,-22.93,18.22,8.687,33.51,7.973,53.9,43.25,0,0,0,0,0,0,0,0,0,0,0,0,0,0,0,0,
281,-45.22,-55.43,12.45,-33.77,8.856,-61.29,23.82,-17.94,50.54,-19.47,-6.499,-4.82,6.693,-7.452,20.36,15.42,0,0,0,0,0,0,0,0,0,0,0,0,0,0,0,0,
282,-65.26,-64.96,-6.699,-42.06,-6.836,-47.33,-0.2557,-6.081,17.75,-27.13,-29.64,-19.67,-21.71,-29.35,-4.171,-7.189,0,0,0,0,0,0,0,0,0,0,0,0,0,0,0,0,
283,-72.24,-56.56,-3.781,-48.77,2.988,-46.61,-1.065,-4.837,10.78,-32.52,-33.54,-22.28,-23.66,-41.46,-3.153,-8.164,0,0,0,0,0,0,0,0,0,0,0,0,0,0,0,0,
284,-65.34,-53.56,-3.519,-48.58,10.45,-56.45,3.82,-22.39,23.4,-39.85,-33.74,-22.71,-14.1,-43.69,6.862,1.747,0,0,0,0,0,0,0,0,0,0,0,0,0,0,0,0,
285,-54.55,-61.6,-3.023,-54.48,2.48,-50.14,8.32,-33.71,31.23,-40.79,-27.75,-27.71,-4.888,-43.15,13.69,5.883,0,0,0,0,0,0,0,0,0,0,0,0,0,0,0,0,
286,-38.18,-55.09,5.488,-43.83,1.671,-49.95,12.07,-38.5,32.35,-40.66,-21.69,-40.2,-9.389,-56.38,8.759,-6.686,0,0,0,0,0,0,0,0,0,0,0,0,0,0,0,0,
287,-26.07,-47.51,7.793,-26.35,15.05,-65.55,10.14,-51.52,28.48,-55.52,-26.02,-42.9,-26.75,-68.98,-4.071,-16.22,0,0,0,0,0,0,0,0,0,0,0,0,0,0,0,0,
288,-28.6,-45.7,9.981,-31.12,20.94,-71.43,7.775,-46.68,22.38,-65.54,-29.37,-21.68,-35.57,-56.5,-12.03,-7.791,0,0,0,0,0,0,0,0,0,0,0,0,0,0,0,0,
289,-40.67,-39.99,11.36,-36.46,-0.0164,-76.66,4.082,-12.61,7.124,-60.88,-28.97,-6.712,-41.25,-43.47,-17.86,-6.959,0,0,0,0,0,0,0,0,0,0,0,0,0,0,0,0,
290,-56.77,-42.21,2.146,-33.83,-28.12,-86.39,-2.9,8.701,-20.89,-63.06,-29.61,-13.78,-52.77,-52.24,-24.89,-23.84,0,0,0,0,0,0,0,0,0,0,0,0,0,0,0,0,
291,-70.72,-53.33,-3.245,-38.53,-34.24,-79.23,-4.642,1.098,-38.65,-70.45,-28.38,-19.58,-53.28,-64.86,-27.78,-36.79,0,0,0,0,0,0,0,0,0,0,0,0,0,0,0,0,
292,-63.55,-53.29,2.053,-39.26,-25.96,-67.12,-0.548,-5.269,-35.18,-74.74,-30.65,-19.55,-45.47,-70.08,-30.43,-40.06,0,0,0,0,0,0,0,0,0,0,0,0,0,0,0,0,
293,-40.22,-45.27,6.581,-46.07,-21.57,-65.71,-3.241,-0.9554,-27.17,-80.12,-38.48,-14.99,-44.7,-67.69,-33.28,-35.65,0,0,0,0,0,0,0,0,0,0,0,0,0,0,0,0,
294,-42.99,-54.28,0.1927,-58.36,-30.31,-62.95,-21.66,3.761,-26.01,-78.21,-43.49,1.998,-42.9,-57.57,-29.03,-21.98,0,0,0,0,0,0,0,0,0,0,0,0,0,0,0,0,
295,-76.02,-78.24,-22.91,-37.18,-49.63,-61.78,-43.33,10.3,-31.51,-68.63,-48.26,15.88,-36.06,-48.7,-24.01,-10.32,0,0,0,0,0,0,0,0,0,0,0,0,0,0,0,0,
296,-95.71,-85.92,-44.85,-12.19,-55.92,-67.25,-45.13,18.65,-37.83,-61.4,-51.95,19.65,-31.41,-38.11,-20.27,-2.786,0,0,0,0,0,0,0,0,0,0,0,0,0,0,0,0,
297,-89.97,-65.35,-39.36,-14.29,-44.53,-61.86,-29.31,32.11,-36.28,-49.73,-43.0,29.47,-28.27,-19.37,-12.89,3.542,0,0,0,0,0,0,0,0,0,0,0,0,0,0,0,0,
298,-81.03,-41.88,-20.9,0.8434,-39.88,-46.52,-24.62,50.38,-30.17,-35.87,-36.45,37.4,-34.29,-11.56,-18.2,-5.096,0,0,0,0,0,0,0,0,0,0,0,0,0,0,0,0,
299,-80.95,-41.97,-20.94,19.48,-46.04,-41.83,-43.57,51.51,-37.04,-36.63,-49.57,32.29,-54.15,-22.23,-37.39,-19.36,0,0,0,0,0,0,0,0,0,0,0,0,0,0,0,0,
300,-82.31,-52.31,-32.44,19.8,-47.58,-38.08,-61.01,37.69,-57.92,-44.13,-55.85,27.01,-65.32,-30.02,-40.64,-16.56,0,0,0,0,0,0,0,0,0,0,0,0,0,0,0,0,
301,-72.81,-48.87,-31.17,42.66,-34.19,-19.48,-51.26,36.87,-63.02,-40.73,-41.33,20.97,-52.34,-28.04,-25.74,-11.19,0,0,0,0,0,0,0,0,0,0,0,0,0,0,0,0,
302,-57.77,-42.76,-17.28,48.94,-5.271,-6.901,-21.14,45.88,-34.7,-28.7,-27.35,10.15,-20.45,-19.67,-7.352,-10.22,0,0,0,0,0,0,0,0,0,0,0,0,0,0,0,0,
303,-41.39,-37.0,0.4757,5.646,24.86,-8.518,11.14,49.34,8.599,-11.69,-10.25,10.25,22.51,-1.045,15.46,5.008,0,0,0,0,0,0,0,0,0,0,0,0,0,0,0,0,
304,-22.64,-15.3,16.08,-3.922,44.15,-1.859,30.36,46.61,43.99,5.783,11.13,19.94,52.56,16.17,30.25,24.46,0,0,0,0,0,0,0,0,0,0,0,0,0,0,0,0,
305,-23.03,1.867,19.09,25.29,56.39,12.41,26.04,42.91,61.67,11.01,10.33,23.76,52.45,21.25,28.17,32.05,0,0,0,0,0,0,0,0,0,0,0,0,0,0,0,0,
306,-34.68,-3.513,17.52,23.95,66.76,19.8,12.1,47.34,61.45,9.039,-2.284,23.18,42.6,22.97,22.43,34.8,0,0,0,0,0,0,0,0,0,0,0,0,0,0,0,0,
307,-25.13,-14.18,25.04,19.25,73.93,14.62,9.044,46.97,49.15,10.54,-1.537,16.94,38.05,19.09,11.49,30.95,0,0,0,0,0,0,0,0,0,0,0,0,0,0,0,0,
308,-18.65,-23.78,28.62,41.23,76.54,-3.89,15.51,28.06,36.62,6.888,1.086,4.2,37.13,8.644,-3.61,19.06,0,0,0,0,0,0,0,0,0,0,0,0,0,0,0,0,
309,-20.07,-17.71,31.29,47.66,87.27,-7.83,29.32,18.54,46.65,3.507,5.415,4.175,49.55,12.15,-1.799,10.93,0,0,0,0,0,0,0,0,0,0,0,0,0,0,0,0,
310,8.168,12.48,51.6,27.6,110.9,17.67,48.74,29.46,82.53,18.15,22.96,16.19,67.64,25.28,10.58,6.381,0,0,0,0,0,0,0,0,0,0,0,0,0,0,0,0,
311,22.24,21.3,58.28,7.694,110.1,28.21,52.9,32.04,105.4,32.34,30.47,13.63,65.3,20.17,10.38,2.159,0,0,0,0,0,0,0,0,0,0,0,0,0,0,0,0,
312,-14.78,-2.358,29.98,-1.022,71.03,5.333,34.08,19.21,89.54,18.86,16.63,0.5867,50.43,5.912,6.449,4.43,0,0,0,0,0,0,0,0,0,0,0,0,0,0,0,0,
313,-37.73,-19.3,12.5,6.84,43.56,-12.69,15.55,8.902,57.87,-3.808,9.194,0.4384,45.53,6.262,9.868,7.723,0,0,0,0,0,0,0,0,0,0,0,0,0,0,0,0,
314,-28.94,-32.62,15.3,20.01,35.71,-17.32,5.847,13.23,35.32,-7.439,10.02,4.891,36.92,5.872,3.6,0.9774,0,0,0,0,0,0,0,0,0,0,0,0,0,0,0,0,
315,-32.55,-43.52,2.859,13.11,7.846,-31.13,-6.607,16.3,16.14,-8.452,1.079,-3.577,14.78,-10.59,-11.93,-6.388,0,0,0,0,0,0,0,0,0,0,0,0,0,0,0,0,
316,-45.05,-41.86,-7.603,-4.409,-18.18,-52.55,-15.13,-9.803,-6.266,-30.42,-2.545,-15.33,8.101,-22.28,-11.57,-2.197,0,0,0,0,0,0,0,0,0,0,0,0,0,0,0,0,
317,-53.7,-59.52,1.944,-11.17,-15.31,-61.42,-14.03,-38.16,-17.63,-51.74,4.505,-14.97,20.18,-18.16,-2.057,1.878,0,0,0,0,0,0,0,0,0,0,0,0,0,0,0,0,
318,-60.01,-75.02,5.198,-7.013,-22.38,-50.52,-15.56,-26.57,-9.975,-47.44,2.702,-6.454,20.32,-11.0,-5.849,-1.962,0,0,0,0,0,0,0,0,0,0,0,0,0,0,0,0,
319,-58.2,-34.02,1.562,12.91,-44.24,-40.12,-14.16,-3.654,2.952,-35.89,2.736,1.509,14.79,-3.947,-11.55,2.382,0,0,0,0,0,0,0,0,0,0,0,0,0,0,0,0,
320,-52.47,8.7,3.329,27.52,-37.18,-43.82,0.4814,-1.057,9.702,-35.16,13.03,11.79,19.68,3.028,-5.441,15.53,0,0,0,0,0,0,0,0,0,0,0,0,0,0,0,0,
321,-39.91,-4.398,3.361,4.948,-11.8,-39.85,10.73,2.703,9.964,-29.24,12.33,22.35,18.68,4.937,3.328,17.06,0,0,0,0,0,0,0,0,0,0,0,0,0,0,0,0,
322,-22.19,-27.99,5.62,-12.32,-5.051,-20.52,6.942,16.09,7.242,-11.2,9.659,23.27,17.61,8.657,12.98,14.87,0,0,0,0,0,0,0,0,0,0,0,0,0,0,0,0,
323,-12.19,-23.08,18.82,7.805,3.385,0.5819,14.62,27.26,17.24,4.147,36.84,28.82,47.29,28.56,40.13,39.33,0,0,0,0,0,0,0,0,0,0,0,0,0,0,0,0,
324,10.98,10.69,51.17,20.49,46.97,37.01,55.69,40.46,59.18,24.97,94.49,61.51,105.5,70.18,97.52,90.93,0,0,0,0,0,0,0,0,0,0,0,0,0,0,0,0,
325,49.76,61.52,102.0,29.28,101.6,87.97,111.7,58.48,121.4,64.18,153.8,102.3,161.0,118.4,161.8,140.4,0,0,0,0,0,0,0,0,0,0,0,0,0,0,0,0,
326,71.54,91.53,139.8,65.55,130.6,116.8,146.0,77.1,168.2,96.43,184.5,118.6,190.2,146.0,190.7,164.7,0,0,0,0,0,0,0,0,0,0,0,0,0,0,0,0,
327,90.21,88.82,147.6,85.27,142.9,121.1,146.8,88.95,186.7,107.0,185.0,115.0,191.7,147.3,183.7,160.7,0,0,0,0,0,0,0,0,0,0,0,0,0,0,0,0,
328,109.1,79.2,136.5,64.04,150.9,118.5,126.3,79.26,185.6,112.9,171.1,104.7,175.1,138.7,165.9,142.1,0,0,0,0,0,0,0,0,0,0,0,0,0,0,0,0,
329,91.22,69.69,110.8,35.58,144.1,107.1,102.4,60.32,171.9,109.9,146.4,82.42,149.2,127.0,137.1,121.5,0,0,0,0,0,0,0,0,0,0,0,0,0,0,0,0,
330,56.84,58.55,84.49,1.109,125.0,100.3,83.19,58.61,156.3,91.71,119.7,54.76,121.6,108.1,100.7,96.01,0,0,0,0,0,0,0,0,0,0,0,0,0,0,0,0,
331,39.87,51.99,68.14,-35.22,103.1,102.6,59.02,51.72,142.1,77.12,103.1,46.85,101.1,87.99,76.8,72.75,0,0,0,0,0,0,0,0,0,0,0,0,0,0,0,0,
332,35.88,50.45,57.53,-34.78,90.37,96.43,35.58,23.21,128.7,73.46,89.29,59.77,100.9,84.14,65.7,71.25,0,0,0,0,0,0,0,0,0,0,0,0,0,0,0,0,
333,52.27,55.51,64.08,-7.273,106.8,98.85,31.88,16.22,136.8,81.34,75.36,68.89,119.8,96.77,56.72,79.42,0,0,0,0,0,0,0,0,0,0,0,0,0,0,0,0,
334,73.58,68.83,77.33,8.779,129.8,117.9,31.4,32.52,161.3,97.33,67.93,67.81,117.7,99.82,45.0,69.47,0,0,0,0,0,0,0,0,0,0,0,0,0,0,0,0,
335,65.52,78.98,65.26,16.89,115.1,114.9,13.39,28.6,152.9,94.61,57.23,60.54,68.79,76.81,22.18,47.06,0,0,0,0,0,0,0,0,0,0,0,0,0,0,0,0,
336,42.52,72.62,42.55,20.97,82.34,94.8,-5.17,24.49,105.2,69.52,36.95,42.63,17.08,44.02,-2.364,33.84,0,0,0,0,0,0,0,0,0,0,0,0,0,0,0,0,
337,31.38,64.75,38.16,11.72,78.13,98.69,-8.624,43.12,70.32,55.3,25.24,29.33,10.79,27.23,-6.617,34.39,0,0,0,0,0,0,0,0,0,0,0,0,0,0,0,0,
338,38.16,76.42,47.84,2.656,95.68,111.8,-0.5271,46.36,73.4,60.05,30.73,34.41,29.87,29.9,-1.68,37.96,0,0,0,0,0,0,0,0,0,0,0,0,0,0,0,0,
339,48.2,78.44,55.44,4.298,93.63,104.2,8.637,30.48,87.99,66.43,37.0,36.78,36.85,34.82,-4.687,34.91,0,0,0,0,0,0,0,0,0,0,0,0,0,0,0,0,
340,34.76,48.89,47.64,22.83,61.61,91.24,8.277,26.61,85.94,70.02,36.93,26.13,36.82,28.4,-6.277,27.07,0,0,0,0,0,0,0,0,0,0,0,0,0,0,0,0,
341,19.18,37.16,34.63,61.79,36.81,92.96,6.363,27.7,70.5,67.46,36.35,13.48,40.23,6.976,-11.62,14.63,0,0,0,0,0,0,0,0,0,0,0,0,0,0,0,0,
342,31.26,61.75,39.48,77.19,43.3,101.8,10.53,22.09,57.12,53.01,33.09,0.4025,35.81,-20.25,-29.16,-3.054,0,0,0,0,0,0,0,0,0,0,0,0,0,0,0,0,
343,35.84,65.5,47.62,39.99,52.9,95.86,5.384,12.47,49.69,38.43,25.42,-7.528,21.56,-33.45,-39.3,-14.23,0,0,0,0,0,0,0,0,0,0,0,0,0,0,0,0,
344,19.25,35.95,35.3,4.267,45.77,73.71,-10.16,3.748,45.04,36.01,17.52,-5.833,10.62,-28.0,-35.45,-13.6,0,0,0,0,0,0,0,0,0,0,0,0,0,0,0,0,
345,19.02,24.54,21.26,8.784,40.04,75.2,-17.02,18.3,47.62,46.24,14.96,1.033,17.38,-9.063,-27.08,-4.998,0,0,0,0,0,0,0,0,0,0,0,0,0,0,0,0,
346,26.13,38.4,23.39,21.58,34.57,108.0,-16.44,50.59,65.24,69.5,21.06,16.72,40.86,18.85,-14.36,12.62,0,0,0,0,0,0,0,0,0,0,0,0,0,0,0,0,
347,10.36,38.2,23.55,14.83,14.98,112.3,-18.72,56.53,79.66,85.78,28.01,32.58,56.61,32.69,-3.635,32.48,0,0,0,0,0,0,0,0,0,0,0,0,0,0,0,0,
348,-2.635,26.11,12.84,0.0229,4.971,79.15,-21.17,39.94,67.98,70.01,31.67,34.82,58.96,25.14,3.082,45.78,0,0,0,0,0,0,0,0,0,0,0,0,0,0,0,0,
349,9.38,25.45,5.066,0.4874,20.04,64.33,-26.5,37.92,53.56,46.65,39.2,36.17,65.35,24.66,12.74,53.44,0,0,0,0,0,0,0,0,0,0,0,0,0,0,0,0,
350,13.7,16.26,0.2004,15.12,28.18,62.16,-37.23,40.25,55.68,46.13,49.22,40.76,66.29,33.64,18.31,53.51,0,0,0,0,0,0,0,0,0,0,0,0,0,0,0,0,
351,-7.724,-7.15,-13.34,20.61,14.39,40.97,-47.14,25.98,47.55,49.29,52.75,35.69,47.2,29.64,13.08,45.03,0,0,0,0,0,0,0,0,0,0,0,0,0,0,0,0,
352,-28.72,-9.6,-32.89,16.23,3.501,29.45,-60.2,17.42,24.88,41.18,44.07,30.22,25.04,19.97,2.56,34.05,0,0,0,0,0,0,0,0,0,0,0,0,0,0,0,0,
353,-30.31,4.038,-39.37,13.39,11.23,45.01,-72.82,31.21,15.94,40.38,31.41,34.8,19.47,23.45,-4.987,27.74,0,0,0,0,0,0,0,0,0,0,0,0,0,0,0,0,
354,-15.43,4.578,-26.93,-2.29,23.56,54.48,-72.16,34.22,22.39,48.53,29.51,36.05,25.15,30.8,-7.413,26.73,0,0,0,0,0,0,0,0,0,0,0,0,0,0,0,0,
355,-2.75,-1.089,-20.48,-38.21,14.58,38.35,-73.24,4.497,24.65,38.38,28.06,24.79,22.69,20.86,-15.14,18.05,0,0,0,0,0,0,0,0,0,0,0,0,0,0,0,0,
356,-8.302,-3.385,-26.36,-64.69,-6.783,15.44,-84.8,-18.67,20.08,10.11,21.08,12.44,17.24,4.89,-24.61,3.655,0,0,0,0,0,0,0,0,0,0,0,0,0,0,0,0,
357,-15.74,-2.098,-21.64,-54.18,-2.725,15.58,-84.92,-6.832,24.84,4.936,29.55,12.3,27.67,11.28,-20.55,6.058,0,0,0,0,0,0,0,0,0,0,0,0,0,0,0,0,
358,-11.4,8.254,-11.49,-24.62,16.06,38.71,-73.05,11.09,36.89,29.5,41.13,19.6,32.01,26.3,-17.62,15.73,0,0,0,0,0,0,0,0,0,0,0,0,0,0,0,0,
359,-11.77,13.5,-10.07,-18.96,9.844,47.89,-66.09,14.2,31.26,44.72,29.17,23.02,12.11,24.24,-25.57,9.707,0,0,0,0,0,0,0,0,0,0,0,0,0,0,0,0,
360,-23.36,1.532,-7.971,-34.76,-9.584,29.1,-62.22,16.81,12.94,44.96,19.28,25.97,4.218,20.84,-21.79,3.024,0,0,0,0,0,0,0,0,0,0,0,0,0,0,0,0,
361,-31.01,-5.516,-1.827,-34.68,-10.65,13.99,-51.08,28.17,12.45,48.14,34.87,31.01,21.9,25.39,-11.64,5.654,0,0,0,0,0,0,0,0,0,0,0,0,0,0,0,0,
362,-23.96,-0.888,7.646,-31.5,0.8609,18.66,-27.26,35.43,29.56,46.41,51.89,28.57,33.12,20.9,-17.9,3.147,0,0,0,0,0,0,0,0,0,0,0,0,0,0,0,0,
363,-12.39,-1.576,23.01,-47.43,11.94,31.89,1.524,22.98,45.28,42.3,60.32,23.13,39.77,18.5,-17.76,5.254,0,0,0,0,0,0,0,0,0,0,0,0,0,0,0,0,
364,-5.979,4.857,45.58,-52.79,32.93,58.73,25.57,2.354,62.11,59.5,81.23,28.29,65.02,40.57,11.06,27.26,0,0,0,0,0,0,0,0,0,0,0,0,0,0,0,0,
365,8.802,23.85,76.98,-48.23,64.2,92.85,44.66,-2.998,89.15,93.48,107.6,35.68,87.43,69.08,37.32,49.42,0,0,0,0,0,0,0,0,0,0,0,0,0,0,0,0,
366,26.14,28.0,94.15,-53.86,82.26,99.16,46.51,-2.043,111.7,114.8,105.2,32.96,78.22,75.3,35.11,49.76,0,0,0,0,0,0,0,0,0,0,0,0,0,0,0,0,
367,21.63,21.18,77.16,-35.89,75.58,75.66,21.11,-13.24,106.0,112.4,73.73,26.48,53.47,61.74,21.09,35.83,0,0,0,0,0,0,0,0,0,0,0,0,0,0,0,0,
368,11.16,20.98,52.79,3.615,51.09,53.23,-13.04,-21.17,73.34,98.73,46.98,22.48,38.29,48.68,14.3,29.99,0,0,0,0,0,0,0,0,0,0,0,0,0,0,0,0,
369,14.85,24.52,44.86,20.28,33.18,52.19,-29.95,-9.495,40.74,91.52,44.87,22.29,38.33,51.06,22.19,41.59,0,0,0,0,0,0,0,0,0,0,0,0,0,0,0,0,
370,19.32,38.94,48.8,24.1,47.78,73.9,-17.72,0.4618,33.95,100.3,59.09,24.02,47.82,61.33,38.03,50.45,0,0,0,0,0,0,0,0,0,0,0,0,0,0,0,0,
371,18.64,47.78,57.9,26.8,62.9,86.45,5.8,-13.29,45.82,109.2,68.52,15.82,48.75,57.83,36.87,38.09,0,0,0,0,0,0,0,0,0,0,0,0,0,0,0,0,
372,16.19,27.09,63.66,20.13,46.71,71.33,14.38,-34.91,50.84,100.6,67.68,-0.1896,41.12,46.93,22.84,23.5,0,0,0,0,0,0,0,0,0,0,0,0,0,0,0,0,
373,13.21,11.15,65.51,15.73,42.78,65.47,17.21,-43.95,54.15,89.65,65.94,-8.051,47.38,47.58,25.57,22.93,0,0,0,0,0,0,0,0,0,0,0,0,0,0,0,0,
374,17.02,17.87,67.8,3.739,57.24,76.12,20.75,-46.53,67.37,85.38,59.89,-10.42,57.09,46.64,34.2,22.8,0,0,0,0,0,0,0,0,0,0,0,0,0,0,0,0,
375,21.79,22.04,63.17,-10.77,44.17,68.73,7.65,-46.56,67.89,72.9,48.33,-11.08,46.16,35.25,27.23,21.97,0,0,0,0,0,0,0,0,0,0,0,0,0,0,0,0,
376,12.8,26.0,46.9,11.23,25.91,49.02,-14.04,-32.19,43.22,57.14,40.95,-1.735,26.93,30.8,21.4,28.67,0,0,0,0,0,0,0,0,0,0,0,0,0,0,0,0,
377,-3.462,26.58,21.08,39.28,27.71,37.16,-30.91,-9.912,12.89,49.07,37.93,13.08,17.37,35.42,30.37,33.16,0,0,0,0,0,0,0,0,0,0,0,0,0,0,0,0,
378,-12.67,4.145,-5.98,20.05,16.8,28.86,-44.92,-6.85,-6.295,43.3,41.92,24.98,18.56,40.65,44.17,32.75,0,0,0,0,0,0,0,0,0,0,0,0,0,0,0,0,
379,-21.4,-22.87,-18.04,-13.1,-7.007,21.23,-42.59,-24.13,-10.85,40.67,51.33,31.87,23.88,43.87,48.68,29.37,0,0,0,0,0,0,0,0,0,0,0,0,0,0,0,0,
380,-34.42,-28.25,-14.48,-18.88,-19.31,14.65,-28.02,-32.77,-11.04,38.13,50.77,26.69,20.65,36.59,36.75,14.02,0,0,0,0,0,0,0,0,0,0,0,0,0,0,0,0,
381,-31.77,-21.52,-10.04,-14.47,-25.94,7.482,-27.19,-25.34,-18.07,27.39,48.15,11.77,9.754,20.46,21.52,-2.948,0,0,0,0,0,0,0,0,0,0,0,0,0,0,0,0,
382,-17.09,-22.51,-8.98,-8.717,-32.67,-0.6313,-27.72,-19.28,-25.52,16.05,54.72,1.698,1.474,8.59,15.73,-4.96,0,0,0,0,0,0,0,0,0,0,0,0,0,0,0,0,
383,-20.99,-23.69,-4.998,3.376,-33.71,-7.722,-16.34,-14.47,-29.06,9.811,48.79,1.642,-8.726,3.476,11.46,-2.206,0,0,0,0,0,0,0,0,0,0,0,0,0,0,0,0,
384,-25.56,-13.8,2.75,-2.274,-28.71,-10.44,-19.2,-5.686,-35.2,7.081,26.13,5.507,-22.61,4.85,6.616,-1.854,0,0,0,0,0,0,0,0,0,0,0,0,0,0,0,0,
385,-5.962,-15.56,1.785,-26.33,-28.66,-15.97,-37.6,-9.117,-46.55,7.508,11.54,7.229,-31.14,10.58,5.899,3.288,0,0,0,0,0,0,0,0,0,0,0,0,0,0,0,0,
386,-6.679,-35.99,-15.86,-37.76,-49.02,-26.57,-50.37,-26.33,-65.0,0.6254,4.895,7.229,-34.16,12.25,7.53,11.66,0,0,0,0,0,0,0,0,0,0,0,0,0,0,0,0,
387,-42.51,-46.47,-34.02,-44.86,-78.78,-29.63,-65.5,-33.82,-84.94,-13.11,-7.368,6.23,-34.13,11.23,11.84,17.48,0,0,0,0,0,0,0,0,0,0,0,0,0,0,0,0,
388,-54.86,-42.12,-38.66,-51.33,-90.57,-30.47,-82.63,-35.29,-90.89,-15.21,-19.48,-1.699,-32.66,9.165,9.855,15.47,0,0,0,0,0,0,0,0,0,0,0,0,0,0,0,0,
389,-45.31,-37.4,-40.78,-38.69,-88.26,-39.87,-86.58,-47.47,-86.35,-11.53,-26.59,-13.02,-39.96,-0.1339,-7.247,4.986,0,0,0,0,0,0,0,0,0,0,0,0,0,0,0,0,
390,-58.95,-39.53,-44.72,-35.39,-85.38,-41.37,-88.08,-48.87,-88.96,-16.93,-33.74,-13.87,-54.66,-7.551,-21.19,-2.669,0,0,0,0,0,0,0,0,0,0,0,0,0,0,0,0,
391,-63.33,-46.42,-37.41,-48.66,-73.18,-25.41,-85.67,-32.31,-93.98,-19.4,-38.09,-10.26,-57.63,-2.889,-18.17,-3.428,0,0,0,0,0,0,0,0,0,0,0,0,0,0,0,0,
392,-31.93,-38.2,-22.22,-42.74,-54.99,-9.111,-61.44,-35.22,-85.56,-17.46,-30.62,-20.77,-45.32,0.0226,-8.93,-4.769,0,0,0,0,0,0,0,0,0,0,0,0,0,0,0,0,
393,-10.42,-15.02,-10.56,-28.07,-43.29,-0.2494,-34.66,-54.9,-67.38,-23.15,-9.665,-38.07,-28.57,-5.014,2.501,-5.593,0,0,0,0,0,0,0,0,0,0,0,0,0,0,0,0,
394,-6.237,-4.676,-0.7491,-8.225,-31.09,5.085,-24.88,-54.88,-50.79,-21.69,11.57,-42.48,-12.17,-5.825,16.16,-2.992,0,0,0,0,0,0,0,0,0,0,0,0,0,0,0,0,
395,3.675,-8.56,-3.467,25.61,-27.87,0.4838,-26.88,-50.38,-41.62,-9.132,9.201,-39.74,-12.15,-10.03,15.49,-5.499,0,0,0,0,0,0,0,0,0,0,0,0,0,0,0,0,
396,-0.666,-14.26,-27.46,28.81,-51.89,-13.71,-48.23,-64.08,-50.53,-12.39,-21.88,-38.08,-40.7,-27.78,-8.095,-16.14,0,0,0,0,0,0,0,0,0,0,0,0,0,0,0,0,
397,-19.57,-20.52,-45.93,4.26,-73.73,-19.87,-74.67,-68.45,-75.72,-24.51,-50.36,-22.74,-66.78,-31.18,-28.37,-17.6,0,0,0,0,0,0,0,0,0,0,0,0,0,0,0,0,
398,-21.04,-18.23,-41.14,3.02,-61.05,-11.49,-72.05,-52.71,-87.38,-14.85,-50.34,3.365,-62.49,-4.912,-22.36,-2.089,0,0,0,0,0,0,0,0,0,0,0,0,0,0,0,0,
399,-11.09,-7.955,-33.83,6.31,-38.35,-3.365,-58.89,-51.95,-77.21,-0.2026,-38.75,11.27,-50.85,12.85,-13.33,5.599,0,0,0,0,0,0,0,0,0,0,0,0,0,0,0,0,
400,-14.13,-9.255,-40.45,-4.624,-35.81,-10.72,-58.8,-74.91,-73.16,-12.47,-35.7,1.309,-52.96,4.364,-23.87,-7.067,0,0,0,0,0,0,0,0,0,0,0,0,0,0,0,0,
401,-23.33,-22.98,-52.03,-9.642,-43.33,-31.28,-54.91,-84.78,-73.44,-33.48,-35.79,-2.932,-59.34,-1.264,-39.1,-21.91,0,0,0,0,0,0,0,0,0,0,0,0,0,0,0,0,
402,-20.41,-31.6,-52.15,-22.49,-46.8,-45.43,-50.74,-70.74,-62.2,-35.9,-41.2,-7.06,-69.15,-4.356,-51.9,-36.17,0,0,0,0,0,0,0,0,0,0,0,0,0,0,0,0,
403,-14.74,-31.13,-34.32,-39.25,-49.63,-43.19,-47.79,-66.89,-61.95,-33.9,-50.96,-26.34,-84.2,-26.08,-63.72,-54.85,0,0,0,0,0,0,0,0,0,0,0,0,0,0,0,0,
404,-21.89,-25.9,-9.738,-28.8,-49.28,-38.9,-26.15,-79.56,-69.62,-42.04,-45.35,-45.09,-90.49,-46.56,-62.15,-63.34,0,0,0,0,0,0,0,0,0,0,0,0,0,0,0,0,
405,-27.99,-20.09,-0.3111,-13.98,-45.91,-40.56,-12.48,-80.3,-56.7,-48.66,-35.7,-45.86,-84.95,-42.75,-49.45,-56.82,0,0,0,0,0,0,0,0,0,0,0,0,0,0,0,0,
406,-21.49,-21.95,-11.39,-13.02,-50.59,-37.23,-25.13,-79.12,-48.76,-46.43,-37.87,-38.97,-71.75,-27.49,-31.17,-42.29,0,0,0,0,0,0,0,0,0,0,0,0,0,0,0,0,
407,-9.617,-21.27,-16.44,-0.1105,-51.82,-27.29,-19.98,-95.46,-56.86,-36.96,-22.61,-33.25,-46.83,-15.28,-0.6394,-20.36,0,0,0,0,0,0,0,0,0,0,0,0,0,0,0,0,
408,1.786,-5.167,-2.416,15.88,-36.56,-19.93,6.137,-93.65,-44.24,-26.95,4.512,-24.2,-24.15,-7.958,24.44,-4.079,0,0,0,0,0,0,0,0,0,0,0,0,0,0,0,0,
409,0.5578,2.641,4.715,17.04,-26.39,-15.17,12.79,-63.59,-25.4,-26.42,-2.694,-17.39,-22.88,-4.255,20.52,-8.021,0,0,0,0,0,0,0,0,0,0,0,0,0,0,0,0,
410,-7.929,-4.646,-0.3542,18.27,-26.74,-6.814,8.842,-56.73,-27.54,-24.62,-24.51,-14.84,-26.53,4.593,2.172,-15.58,0,0,0,0,0,0,0,0,0,0,0,0,0,0,0,0,
411,0.0803,3.123,6.297,15.59,-14.32,10.38,18.99,-65.81,-23.04,-7.157,-18.74,-3.386,-12.34,25.85,-4.528,-5.005,0,0,0,0,0,0,0,0,0,0,0,0,0,0,0,0,
412,8.531,16.61,17.27,9.214,1.99,28.61,29.84,-45.77,-3.87,12.57,-9.025,10.23,5.813,47.42,-2.456,9.219,0,0,0,0,0,0,0,0,0,0,0,0,0,0,0,0,
413,-0.9176,9.141,7.481,21.99,-2.66,24.66,20.0,-33.83,2.784,16.6,-22.17,7.621,3.142,51.38,-10.19,4.892,0,0,0,0,0,0,0,0,0,0,0,0,0,0,0,0,
414,-4.272,-4.63,-13.44,31.94,-13.74,4.387,0.2358,-59.73,-5.88,7.849,-35.04,0.6604,-12.4,45.23,-18.97,-2.593,0,0,0,0,0,0,0,0,0,0,0,0,0,0,0,0,
415,0.994,-12.45,-16.49,8.428,-9.675,-0.7263,-0.755,-72.23,-11.89,3.758,-27.76,5.031,-14.47,46.46,-7.127,4.539,0,0,0,0,0,0,0,0,0,0,0,0,0,0,0,0,
416,-3.323,-15.4,-4.084,-15.93,-5.089,5.56,8.895,-61.04,-11.03,9.405,-16.6,9.041,-4.602,49.85,9.922,8.334,0,0,0,0,0,0,0,0,0,0,0,0,0,0,0,0,
417,-5.077,-2.797,-3.653,-1.977,-8.688,12.42,4.25,-58.42,-14.93,10.8,-17.48,3.919,0.1681,49.6,11.35,-1.364,0,0,0,0,0,0,0,0,0,0,0,0,0,0,0,0,
418,1.495,14.77,-11.82,36.28,-3.044,27.18,0.4136,-53.35,-18.67,8.847,-21.59,-3.176,4.368,49.89,7.428,-12.01,0,0,0,0,0,0,0,0,0,0,0,0,0,0,0,0,
419,-6.301,11.88,-8.281,58.47,2.339,24.71,5.836,-43.84,-11.07,8.66,-22.15,-10.01,7.188,39.36,-2.261,-27.39,0,0,0,0,0,0,0,0,0,0,0,0,0,0,0,0,
420,-30.11,-7.174,-9.935,37.49,-18.81,-8.687,-9.379,-53.91,-16.12,-6.843,-30.63,-22.25,-11.72,12.53,-27.19,-51.64,0,0,0,0,0,0,0,0,0,0,0,0,0,0,0,0,
421,-44.61,-28.92,-32.5,-17.6,-53.35,-35.27,-45.29,-78.32,-46.58,-37.17,-50.66,-37.56,-44.3,-10.29,-46.03,-63.42,0,0,0,0,0,0,0,0,0,0,0,0,0,0,0,0,
422,-44.86,-48.57,-46.57,-56.77,-68.49,-46.35,-61.69,-97.36,-66.51,-56.3,-61.73,-40.37,-59.52,-16.35,-41.07,-53.44,0,0,0,0,0,0,0,0,0,0,0,0,0,0,0,0,
423,-46.53,-56.39,-36.13,-46.91,-60.85,-61.03,-50.1,-99.34,-62.39,-57.59,-54.29,-30.64,-60.86,-16.48,-33.73,-44.08,0,0,0,0,0,0,0,0,0,0,0,0,0,0,0,0,
424,-53.72,-58.24,-33.43,-23.75,-58.63,-71.67,-44.16,-89.91,-65.18,-57.95,-53.65,-30.86,-67.81,-23.45,-40.06,-47.61,0,0,0,0,0,0,0,0,0,0,0,0,0,0,0,0,
425,-64.05,-64.41,-51.67,-20.41,-70.48,-74.0,-50.93,-83.49,-81.82,-68.21,-65.21,-38.52,-65.49,-28.36,-39.58,-47.71,0,0,0,0,0,0,0,0,0,0,0,0,0,0,0,0,
426,-70.76,-60.16,-53.77,-21.32,-63.99,-73.6,-41.22,-69.11,-82.5,-74.12,-55.66,-33.85,-38.6,-14.83,-19.74,-36.99,0,0,0,0,0,0,0,0,0,0,0,0,0,0,0,0,
427,-57.76,-52.57,-24.81,-21.46,-35.06,-67.43,-13.96,-50.82,-56.09,-62.51,-24.95,-25.86,-8.483,6.079,-0.3317,-29.09,0,0,0,0,0,0,0,0,0,0,0,0,0,0,0,0,
428,-35.13,-66.27,-1.512,-18.05,-18.07,-60.06,6.071,-58.2,-27.48,-48.07,-5.961,-22.09,3.562,16.65,4.293,-27.91,0,0,0,0,0,0,0,0,0,0,0,0,0,0,0,0,
429,-31.42,-73.6,-0.0513,-4.76,-13.05,-55.14,16.43,-70.91,-17.63,-40.38,-1.974,-11.89,0.8364,22.24,2.491,-23.6,0,0,0,0,0,0,0,0,0,0,0,0,0,0,0,0,
430,-32.32,-48.75,8.431,-1.228,-1.785,-43.18,28.33,-57.97,-17.15,-31.43,0.9717,-1.409,1.188,30.49,7.062,-9.875,0,0,0,0,0,0,0,0,0,0,0,0,0,0,0,0,
431,-14.54,-30.3,30.61,7.966,9.929,-24.16,44.05,-37.7,-7.796,-19.34,3.908,3.152,17.65,41.98,18.82,10.17,0,0,0,0,0,0,0,0,0,0,0,0,0,0,0,0,
432,-7.463,-41.13,36.34,43.97,17.6,-12.73,55.69,-22.41,7.254,-3.838,4.702,10.14,35.84,53.84,25.68,26.66,0,0,0,0,0,0,0,0,0,0,0,0,0,0,0,0,
433,-24.13,-50.44,24.84,61.52,27.49,-8.648,57.25,-14.73,16.01,12.4,7.263,17.1,43.48,60.21,27.94,37.95,0,0,0,0,0,0,0,0,0,0,0,0,0,0,0,0,
434,-25.38,-42.18,25.25,56.12,40.23,-1.313,58.4,-26.47,23.98,20.01,15.0,18.27,54.53,66.86,40.09,50.12,0,0,0,0,0,0,0,0,0,0,0,0,0,0,0,0,
435,-6.422,-26.58,36.41,71.0,50.45,2.35,64.08,-37.27,33.75,21.43,22.19,17.51,71.6,82.62,62.56,63.4,0,0,0,0,0,0,0,0,0,0,0,0,0,0,0,0,
436,9.818,-4.614,47.74,81.92,61.52,14.16,70.63,-19.73,39.92,30.63,33.72,24.92,94.92,108.2,95.82,86.03,0,0,0,0,0,0,0,0,0,0,0,0,0,0,0,0,
437,35.28,21.99,73.42,74.53,90.85,62.51,96.42,12.8,60.78,56.97,71.61,52.76,139.3,146.5,148.3,128.2,0,0,0,0,0,0,0,0,0,0,0,0,0,0,0,0,
438,76.15,52.84,111.8,97.91,140.8,114.8,148.6,38.5,107.1,96.83,125.5,89.12,185.1,185.2,194.9,166.9,0,0,0,0,0,0,0,0,0,0,0,0,0,0,0,0,
439,106.4,90.83,135.5,135.3,175.1,123.7,176.5,51.47,142.2,131.1,146.1,99.92,188.1,190.6,189.2,163.7,0,0,0,0,0,0,0,0,0,0,0,0,0,0,0,0,
440,98.84,97.5,123.7,113.8,153.1,102.2,139.2,42.86,128.1,132.4,112.9,77.28,144.6,150.6,133.4,117.6,0,0,0,0,0,0,0,0,0,0,0,0,0,0,0,0,
441,56.61,48.78,81.63,56.43,93.7,68.32,79.93,9.511,76.44,90.47,60.36,44.33,90.45,94.63,78.34,67.76,0,0,0,0,0,0,0,0,0,0,0,0,0,0,0,0,
442,24.18,7.926,45.21,38.0,53.29,27.85,55.48,-22.54,28.84,35.18,21.55,15.57,51.12,53.54,47.06,37.16,0,0,0,0,0,0,0,0,0,0,0,0,0,0,0,0,
443,13.57,2.983,29.51,38.48,32.34,-2.564,47.63,-32.04,2.437,-0.4485,-10.77,-12.06,15.93,23.42,15.77,4.282,0,0,0,0,0,0,0,0,0,0,0,0,0,0,0,0,
444,-8.584,-12.8,14.78,20.31,1.018,-22.64,24.09,-35.29,-21.54,-22.35,-44.17,-36.78,-26.22,-8.375,-23.23,-37.71,0,0,0,0,0,0,0,0,0,0,0,0,0,0,0,0,
445,-29.47,-30.69,5.324,14.76,-27.21,-32.31,1.755,-35.75,-52.87,-39.09,-62.88,-51.0,-56.26,-29.72,-49.0,-59.48,0,0,0,0,0,0,0,0,0,0,0,0,0,0,0,0,
446,-33.8,-27.57,7.425,17.52,-43.05,-32.07,-5.6,-19.05,-82.33,-45.71,-66.06,-59.1,-66.02,-33.39,-60.36,-63.17,0,0,0,0,0,0,0,0,0,0,0,0,0,0,0,0,
447,-46.15,-29.75,3.101,1.229,-57.34,-44.57,-8.687,-14.32,-102.2,-54.43,-67.26,-67.95,-72.5,-37.41,-69.25,-75.94,0,0,0,0,0,0,0,0,0,0,0,0,0,0,0,0,
448,-50.41,-35.57,-2.765,-8.563,-61.26,-62.21,-11.17,-41.95,-107.8,-72.82,-64.51,-74.26,-81.16,-48.28,-73.99,-90.88,0,0,0,0,0,0,0,0,0,0,0,0,0,0,0,0,
449,-36.22,-35.51,-6.444,-10.99,-56.47,-58.92,-16.63,-62.03,-107.3,-83.62,-58.36,-79.14,-87.12,-52.63,-76.34,-95.6,0,0,0,0,0,0,0,0,0,0,0,0,0,0,0,0,
450,-36.81,-40.17,-19.24,-20.65,-53.43,-52.16,-24.71,-60.16,-110.0,-78.94,-62.28,-83.16,-88.94,-49.07,-77.96,-95.82,0,0,0,0,0,0,0,0,0,0,0,0,0,0,0,0,
451,-41.14,-35.61,-20.15,-4.911,-43.72,-56.04,-19.18,-57.06,-106.4,-69.53,-70.76,-76.08,-83.28,-47.77,-68.05,-87.33,0,0,0,0,0,0,0,0,0,0,0,0,0,0,0,0,
452,-30.72,-24.6,-0.526,37.78,-29.56,-56.11,0.3224,-45.44,-96.09,-62.22,-63.25,-63.74,-70.49,-50.85,-54.65,-74.43,0,0,0,0,0,0,0,0,0,0,0,0,0,0,0,0,
453,-19.56,-24.0,14.01,67.23,-19.63,-51.94,15.16,-30.13,-89.16,-57.42,-48.7,-63.68,-58.15,-54.9,-57.4,-74.07,0,0,0,0,0,0,0,0,0,0,0,0,0,0,0,0,
454,-2.611,-14.62,18.7,73.7,-11.08,-43.39,20.61,-34.5,-81.4,-54.71,-49.39,-64.31,-49.31,-53.45,-59.72,-71.88,0,0,0,0,0,0,0,0,0,0,0,0,0,0,0,0,
455,1.076,-4.047,2.667,61.77,-11.79,-33.43,18.35,-42.65,-75.75,-50.4,-53.29,-48.56,-42.51,-42.55,-45.48,-50.3,0,0,0,0,0,0,0,0,0,0,0,0,0,0,0,0,
456,-29.53,-19.16,-32.09,37.95,-23.08,-43.51,11.25,-35.93,-83.91,-46.04,-45.2,-33.99,-41.63,-34.44,-40.56,-32.57,0,0,0,0,0,0,0,0,0,0,0,0,0,0,0,0,
457,-33.43,-22.33,-18.54,29.5,-19.12,-58.55,19.67,-28.96,-91.18,-45.83,-35.27,-33.59,-42.74,-31.86,-46.69,-30.55,0,0,0,0,0,0,0,0,0,0,0,0,0,0,0,0,
458,13.76,9.88,33.75,40.58,-0.7073,-46.86,39.2,-30.34,-81.18,-39.3,-28.45,-32.5,-36.06,-19.98,-35.06,-23.05,0,0,0,0,0,0,0,0,0,0,0,0,0,0,0,0,
459,29.87,20.92,15.94,28.94,-10.63,-34.98,24.2,-32.36,-75.98,-28.4,-30.72,-27.44,-38.11,-12.3,-23.92,-14.04,0,0,0,0,0,0,0,0,0,0,0,0,0,0,0,0,
460,-21.3,-12.05,-53.75,-17.33,-49.14,-47.41,-22.53,-29.41,-95.33,-35.25,-49.2,-23.76,-61.85,-22.94,-37.91,-19.09,0,0,0,0,0,0,0,0,0,0,0,0,0,0,0,0,
461,-81.34,-46.13,-79.45,-51.73,-68.05,-57.92,-45.83,-30.1,-118.2,-46.76,-65.54,-16.55,-78.42,-25.23,-49.4,-22.26,0,0,0,0,0,0,0,0,0,0,0,0,0,0,0,0,
462,-98.64,-67.55,-84.61,-55.44,-66.07,-60.43,-40.84,-45.92,-126.0,-40.92,-67.99,-11.63,-72.32,-17.59,-45.23,-18.38,0,0,0,0,0,0,0,0,0,0,0,0,0,0,0,0,
463,-84.84,-87.57,-97.83,-51.38,-72.82,-74.54,-34.67,-57.42,-127.8,-43.19,-63.64,-13.42,-61.85,-24.59,-41.96,-23.11,0,0,0,0,0,0,0,0,0,0,0,0,0,0,0,0,
464,-90.14,-101.9,-86.81,-50.06,-82.02,-99.54,-20.79,-44.94,-126.2,-62.86,-48.59,-10.62,-52.24,-28.8,-33.96,-25.95,0,0,0,0,0,0,0,0,0,0,0,0,0,0,0,0,
465,-118.7,-114.2,-72.88,-59.67,-85.6,-121.2,1.766,-31.88,-115.8,-69.07,-27.73,-6.467,-42.43,-16.88,-18.36,-15.69,0,0,0,0,0,0,0,0,0,0,0,0,0,0,0,0,
466,-126.8,-124.8,-72.34,-73.16,-88.03,-126.0,15.74,-31.97,-103.7,-61.59,-16.42,-9.052,-37.96,-11.39,-9.877,-6.127,0,0,0,0,0,0,0,0,0,0,0,0,0,0,0,0,
467,-118.0,-123.8,-55.95,-66.41,-84.13,-120.0,24.71,-28.91,-98.0,-61.79,-10.09,-10.19,-35.14,-14.82,-7.72,-1.407,0,0,0,0,0,0,0,0,0,0,0,0,0,0,0,0,
468,-119.2,-119.5,-34.7,-66.48,-76.02,-120.5,38.4,-29.37,-95.47,-71.67,-0.8657,-10.88,-30.01,-18.67,-5.04,-1.56,0,0,0,0,0,0,0,0,0,0,0,0,0,0,0,0,
469,-114.7,-114.7,-21.46,-97.62,-64.69,-112.6,53.65,-43.11,-85.62,-84.9,9.308,-18.21,-22.71,-27.59,-0.7092,-14.23,0,0,0,0,0,0,0,0,0,0,0,0,0,0,0,0,
470,-89.0,-96.91,-3.488,-103.6,-45.8,-83.55,65.03,-48.63,-65.56,-88.34,15.65,-26.62,-18.38,-35.98,2.681,-29.63,0,0,0,0,0,0,0,0,0,0,0,0,0,0,0,0,
471,-53.01,-73.6,9.921,-55.96,-31.59,-53.65,67.67,-36.98,-51.03,-74.82,9.681,-32.24,-29.93,-36.82,-9.422,-37.01,0,0,0,0,0,0,0,0,0,0,0,0,0,0,0,0,
472,-34.05,-54.23,16.92,-9.944,-26.34,-29.72,62.05,-25.95,-53.25,-61.93,-4.719,-34.42,-51.3,-34.78,-36.76,-43.79,0,0,0,0,0,0,0,0,0,0,0,0,0,0,0,0,
473,-40.84,-34.83,23.11,-2.218,-16.47,-5.389,52.42,-20.87,-59.63,-57.85,-16.43,-31.9,-60.38,-32.7,-54.41,-50.28,0,0,0,0,0,0,0,0,0,0,0,0,0,0,0,0,
474,-29.77,-14.1,18.61,-12.99,2.58,16.46,41.31,-10.63,-57.29,-47.59,-27.94,-28.02,-53.87,-29.13,-54.57,-50.2,0,0,0,0,0,0,0,0,0,0,0,0,0,0,0,0,
475,7.09,10.81,15.13,-14.79,28.5,37.78,36.99,3.95,-47.88,-29.54,-35.76,-24.77,-40.25,-21.73,-47.11,-48.04,0,0,0,0,0,0,0,0,0,0,0,0,0,0,0,0,
476,21.96,37.23,21.96,-3.864,48.91,50.87,39.63,0.6019,-37.73,-16.59,-32.81,-26.7,-26.47,-13.94,-35.36,-47.27,0,0,0,0,0,0,0,0,0,0,0,0,0,0,0,0,
477,28.92,55.5,20.1,6.601,49.55,52.74,36.67,-24.69,-33.28,-7.212,-31.09,-35.63,-17.52,-8.579,-23.07,-40.99,0,0,0,0,0,0,0,0,0,0,0,0,0,0,0,0,
478,58.23,72.92,17.28,11.26,50.94,68.19,36.41,-33.39,-28.53,11.66,-33.67,-36.76,-5.978,3.301,-14.9,-26.77,0,0,0,0,0,0,0,0,0,0,0,0,0,0,0,0,
479,74.91,90.66,29.34,9.528,66.82,86.33,48.05,-14.9,-14.85,32.74,-31.57,-26.29,6.795,15.77,-13.78,-18.9,0,0,0,0,0,0,0,0,0,0,0,0,0,0,0,0,
480,63.74,78.25,26.91,-0.1372,58.94,68.29,44.99,-8.277,-14.54,27.17,-33.31,-20.19,1.303,11.05,-21.22,-27.09,0,0,0,0,0,0,0,0,0,0,0,0,0,0,0,0,
481,49.18,38.99,-0.4005,-8.083,21.98,36.46,21.89,-10.01,-40.91,-0.5138,-39.46,-16.73,-14.62,4.473,-27.46,-33.08,0,0,0,0,0,0,0,0,0,0,0,0,0,0,0,0,
482,36.73,32.34,-13.68,-7.246,5.5,25.56,11.47,7.98,-59.76,-7.582,-38.0,-6.914,-17.98,12.62,-26.65,-24.68,0,0,0,0,0,0,0,0,0,0,0,0,0,0,0,0,
483,18.35,49.55,-18.32,-11.4,-3.038,10.41,7.108,13.12,-65.94,5.056,-42.34,-5.013,-24.31,6.025,-33.45,-26.54,0,0,0,0,0,0,0,0,0,0,0,0,0,0,0,0,
484,-13.92,11.08,-54.98,-43.32,-53.09,-32.32,-17.23,-16.45,-97.68,-10.5,-62.86,-20.59,-49.43,-32.44,-52.2,-50.07,0,0,0,0,0,0,0,0,0,0,0,0,0,0,0,0,
485,-59.97,-55.73,-100.2,-83.1,-113.8,-82.46,-39.86,-36.94,-143.0,-56.21,-75.85,-35.45,-66.89,-63.59,-61.84,-62.78,0,0,0,0,0,0,0,0,0,0,0,0,0,0,0,0,
486,-105.9,-77.0,-115.0,-71.43,-140.8,-108.7,-41.32,-28.46,-158.1,-83.47,-69.23,-34.52,-61.11,-59.0,-54.37,-50.2,0,0,0,0,0,0,0,0,0,0,0,0,0,0,0,0,
487,-136.7,-107.5,-120.7,-44.83,-152.5,-109.0,-42.66,-14.52,-147.5,-76.37,-61.53,-27.27,-53.37,-43.28,-47.24,-39.4,0,0,0,0,0,0,0,0,0,0,0,0,0,0,0,0,
488,-148.4,-171.5,-135.1,-94.97,-158.5,-118.9,-52.62,-3.532,-138.5,-63.73,-63.97,-24.74,-55.76,-37.18,-48.65,-41.06,0,0,0,0,0,0,0,0,0,0,0,0,0,0,0,0,
489,-153.6,-167.3,-136.1,-150.8,-152.8,-141.4,-56.36,2.72,-139.1,-59.46,-71.82,-24.9,-64.01,-31.58,-53.11,-44.3,0,0,0,0,0,0,0,0,0,0,0,0,0,0,0,0,
490,-160.7,-103.5,-117.4,-112.2,-155.8,-141.4,-51.27,-5.197,-145.0,-58.36,-80.62,-27.21,-78.7,-30.77,-57.65,-50.46,0,0,0,0,0,0,0,0,0,0,0,0,0,0,0,0,
491,-156.1,-92.53,-102.3,-62.95,-161.4,-129.6,-44.69,-18.86,-147.6,-68.34,-82.51,-31.49,-86.95,-43.66,-54.87,-57.02,0,0,0,0,0,0,0,0,0,0,0,0,0,0,0,0,
492,-134.5,-121.7,-99.44,-70.49,-138.6,-126.1,-37.96,-22.21,-135.7,-84.02,-74.5,-33.57,-74.06,-53.36,-48.11,-56.91,0,0,0,0,0,0,0,0,0,0,0,0,0,0,0,0,
493,-113.6,-122.7,-90.06,-80.84,-105.8,-110.7,-30.71,-21.37,-111.2,-83.12,-71.38,-37.03,-63.45,-52.54,-53.1,-55.67,0,0,0,0,0,0,0,0,0,0,0,0,0,0,0,0,
494,-102.0,-103.1,-64.68,-75.03,-91.59,-91.0,-22.66,-21.9,-91.14,-72.77,-74.5,-43.17,-70.52,-51.16,-54.87,-51.22,0,0,0,0,0,0,0,0,0,0,0,0,0,0,0,0,
495,-81.78,-81.85,-39.86,-62.82,-75.88,-80.46,-16.26,-9.796,-78.29,-61.22,-66.96,-43.77,-65.14,-42.07,-34.65,-41.38,0,0,0,0,0,0,0,0,0,0,0,0,0,0,0,0,
496,-56.75,-69.48,-30.2,-47.01,-46.74,-51.61,-20.39,10.2,-56.18,-32.02,-53.55,-38.28,-40.55,-19.74,-13.5,-36.24,0,0,0,0,0,0,0,0,0,0,0,0,0,0,0,0,
497,-58.13,-74.5,-31.47,-43.52,-25.8,-10.86,-31.07,15.43,-25.4,3.936,-41.65,-28.66,-21.71,1.333,-1.61,-26.43,0,0,0,0,0,0,0,0,0,0,0,0,0,0,0,0,
498,-53.81,-58.2,-26.71,-31.67,-6.153,5.435,-29.54,10.0,-1.011,19.08,-22.83,-13.27,-7.696,13.46,11.75,-3.747,0,0,0,0,0,0,0,0,0,0,0,0,0,0,0,0,
499,1.803,-1.101,-6.743,-1.291,36.36,9.226,-12.64,11.78,18.38,21.19,-5.475,0.6707,4.428,23.19,15.79,8.759,0,0,0,0,0,0,0,0,0,0,0,0,0,0,0,0,
500,54.02,44.3,14.1,10.64,78.22,29.41,7.551,22.01,38.43,32.58,2.243,6.464,4.625,31.29,8.818,5.017,0,0,0,0,0,0,0,0,0,0,0,0,0,0,0,0,
501,58.33,52.18,20.33,13.21,83.04,55.14,21.56,32.76,49.97,51.65,9.527,9.877,5.097,31.64,13.18,7.388,0,0,0,0,0,0,0,0,0,0,0,0,0,0,0,0,
502,58.31,50.07,17.25,27.93,72.63,66.35,28.56,46.8,50.12,60.89,16.74,21.76,19.17,35.18,30.36,21.21,0,0,0,0,0,0,0,0,0,0,0,0,0,0,0,0,
503,71.05,53.12,16.44,24.12,82.24,75.36,37.33,76.5,54.26,62.55,23.81,43.21,35.85,56.42,40.97,32.65,0,0,0,0,0,0,0,0,0,0,0,0,0,0,0,0,
504,71.52,68.22,20.46,9.067,95.83,91.85,47.05,105.9,64.78,70.97,33.16,56.9,44.24,75.41,41.78,31.89,0,0,0,0,0,0,0,0,0,0,0,0,0,0,0,0,
505,61.9,97.13,29.19,26.3,96.64,96.58,50.74,107.5,68.22,74.81,40.54,52.32,44.73,73.3,47.9,23.46,0,0,0,0,0,0,0,0,0,0,0,0,0,0,0,0,
506,65.47,113.5,41.22,48.98,92.8,87.2,53.08,97.44,66.57,65.29,45.7,40.56,36.74,62.48,55.21,13.9,0,0,0,0,0,0,0,0,0,0,0,0,0,0,0,0,
507,84.44,94.04,41.68,32.25,72.15,71.44,47.28,88.88,59.4,56.35,41.39,24.65,20.37,43.88,41.66,-3.318,0,0,0,0,0,0,0,0,0,0,0,0,0,0,0,0,
508,82.88,55.73,18.38,2.875,35.48,40.62,27.0,70.59,36.6,43.6,26.4,1.118,5.16,13.76,16.29,-28.1,0,0,0,0,0,0,0,0,0,0,0,0,0,0,0,0,
509,46.68,34.26,-15.22,-7.44,10.71,11.02,8.576,59.13,10.3,16.32,18.07,-18.18,-6.6,-12.56,1.255,-47.4,0,0,0,0,0,0,0,0,0,0,0,0,0,0,0,0,
510,10.54,31.02,-38.14,-2.99,-6.25,1.051,-4.059,59.42,-9.315,-10.53,10.85,-24.06,-21.67,-28.11,-7.893,-54.11,0,0,0,0,0,0,0,0,0,0,0,0,0,0,0,0,
511,-14.94,17.48,-38.93,9.14,-22.41,-9.181,-9.623,45.87,-25.74,-22.47,-6.365,-21.27,-28.6,-31.1,-13.4,-46.93,0,0,0,0,0,0,0,0,0,0,0,0,0,0,0,0,
512,-32.88,-5.963,-26.72,3.034,-28.07,-24.03,-0.5095,28.94,-28.94,-25.01,-14.3,-14.62,-23.0,-21.2,-10.68,-34.39,0,0,0,0,0,0,0,0,0,0,0,0,0,0,0,0,
513,-26.41,-20.22,-28.8,-15.83,-38.78,-26.65,3.916,32.79,-22.73,-22.63,-3.456,-6.256,-23.55,-11.54,-5.079,-27.31,0,0,0,0,0,0,0,0,0,0,0,0,0,0,0,0,
514,-19.04,-27.26,-40.39,4.959,-52.8,-22.77,2.186,43.8,-22.67,-8.199,13.87,-4.673,-25.85,-9.232,3.145,-22.06,0,0,0,0,0,0,0,0,0,0,0,0,0,0,0,0,
515,-38.77,-34.19,-36.71,27.4,-48.42,-28.91,12.55,38.63,-20.61,4.462,25.07,-16.34,-21.53,-16.01,9.987,-20.12,0,0,0,0,0,0,0,0,0,0,0,0,0,0,0,0,
516,-55.84,-47.34,-37.48,-7.104,-47.63,-50.47,6.882,25.14,-15.28,-10.5,21.5,-22.89,-27.72,-27.43,8.011,-24.7,0,0,0,0,0,0,0,0,0,0,0,0,0,0,0,0,
517,-67.29,-68.26,-60.4,-37.71,-68.52,-70.59,-22.32,27.76,-19.43,-30.41,9.52,-10.11,-41.4,-27.23,4.268,-26.18,0,0,0,0,0,0,0,0,0,0,0,0,0,0,0,0,
518,-93.31,-77.09,-70.04,-39.39,-86.75,-70.24,-26.98,28.76,-30.9,-27.91,-1.01,-3.72,-46.83,-22.98,0.9489,-28.02,0,0,0,0,0,0,0,0,0,0,0,0,0,0,0,0,
519,-92.3,-64.37,-47.28,-49.94,-88.62,-62.5,-7.662,4.079,-42.24,-26.97,-8.502,-15.88,-50.4,-29.35,-5.377,-37.2,0,0,0,0,0,0,0,0,0,0,0,0,0,0,0,0,
520,-54.12,-50.7,-25.37,-45.73,-82.01,-60.01,-0.6306,-4.972,-46.59,-33.39,-9.804,-25.2,-55.91,-35.98,-11.94,-46.87,0,0,0,0,0,0,0,0,0,0,0,0,0,0,0,0,
521,-38.7,-48.54,-26.62,-43.31,-75.92,-56.9,-1.171,13.51,-43.15,-30.61,-10.39,-33.99,-59.71,-44.3,-22.27,-57.23,0,0,0,0,0,0,0,0,0,0,0,0,0,0,0,0,
522,-42.45,-46.19,-30.51,-67.94,-74.37,-61.03,-2.071,7.122,-42.72,-34.67,-17.85,-49.69,-63.83,-56.7,-32.42,-63.48,0,0,0,0,0,0,0,0,0,0,0,0,0,0,0,0,
523,-35.34,-42.78,-25.39,-48.61,-76.83,-76.56,-16.68,-10.59,-49.11,-49.33,-27.45,-56.56,-69.92,-59.93,-33.98,-61.18,0,0,0,0,0,0,0,0,0,0,0,0,0,0,0,0,
524,-50.62,-55.67,-33.8,-9.489,-85.09,-89.76,-43.12,-4.228,-64.12,-59.75,-40.29,-58.84,-82.93,-66.58,-39.75,-70.07,0,0,0,0,0,0,0,0,0,0,0,0,0,0,0,0,
525,-82.32,-73.24,-55.48,-40.59,-92.03,-92.9,-65.82,-9.602,-87.2,-72.14,-56.57,-67.91,-101.5,-84.62,-51.5,-87.21,0,0,0,0,0,0,0,0,0,0,0,0,0,0,0,0,
526,-78.63,-69.04,-61.19,-70.33,-86.01,-81.69,-75.82,-28.35,-97.19,-79.01,-61.87,-70.5,-108.6,-91.06,-50.23,-86.91,0,0,0,0,0,0,0,0,0,0,0,0,0,0,0,0,
527,-53.94,-55.73,-56.65,-40.42,-76.71,-62.21,-77.26,-24.84,-87.05,-69.38,-51.9,-65.96,-100.3,-90.15,-42.6,-82.07,0,0,0,0,0,0,0,0,0,0,0,0,0,0,0,0,
528,-43.62,-45.64,-62.18,-34.21,-76.32,-53.17,-73.95,-20.64,-80.16,-65.56,-38.04,-66.78,-93.02,-96.6,-44.52,-88.5,0,0,0,0,0,0,0,0,0,0,0,0,0,0,0,0,
529,-41.18,-35.46,-64.65,-63.16,-77.6,-51.35,-59.06,-23.06,-80.22,-69.98,-28.3,-63.62,-89.08,-90.45,-42.36,-85.3,0,0,0,0,0,0,0,0,0,0,0,0,0,0,0,0,
530,-40.79,-39.11,-54.11,-59.27,-73.79,-44.33,-40.78,-9.556,-73.05,-62.63,-21.21,-48.59,-74.65,-66.41,-21.58,-65.27,0,0,0,0,0,0,0,0,0,0,0,0,0,0,0,0,
531,-36.78,-40.42,-36.85,-19.76,-60.58,-38.17,-34.64,-5.427,-62.82,-55.67,-8.684,-35.81,-54.88,-48.75,3.563,-48.7,0,0,0,0,0,0,0,0,0,0,0,0,0,0,0,0,
532,-14.43,-16.03,-15.04,16.64,-35.81,-32.17,-28.31,-19.65,-52.06,-57.5,5.233,-34.86,-46.71,-43.89,9.316,-47.59,0,0,0,0,0,0,0,0,0,0,0,0,0,0,0,0,
533,10.4,4.027,-2.914,22.79,-20.02,-17.82,-15.48,-23.5,-37.48,-51.4,4.079,-39.33,-43.82,-43.93,-2.168,-51.7,0,0,0,0,0,0,0,0,0,0,0,0,0,0,0,0,
534,17.09,12.5,-4.24,16.19,-22.45,-0.305,-11.1,-22.74,-27.65,-39.97,-2.703,-39.0,-30.78,-42.28,-3.087,-39.41,0,0,0,0,0,0,0,0,0,0,0,0,0,0,0,0,
535,23.56,15.57,0.284,37.57,-15.37,12.01,-7.982,-19.42,-16.86,-30.49,4.971,-29.37,-11.99,-29.55,13.23,-11.86,0,0,0,0,0,0,0,0,0,0,0,0,0,0,0,0,
536,34.63,-10.92,2.459,54.31,-2.224,14.18,-1.012,-7.96,1.548,-18.42,11.08,-18.11,-2.497,-13.29,21.28,3.087,0,0,0,0,0,0,0,0,0,0,0,0,0,0,0,0,
537,28.96,-21.24,-11.76,15.91,-15.3,5.467,-10.57,-15.85,0.3471,-14.78,1.49,-14.29,-10.9,-12.54,9.548,-4.28,0,0,0,0,0,0,0,0,0,0,0,0,0,0,0,0,
538,17.32,22.42,-27.31,-33.35,-37.52,-9.068,-31.52,-35.39,-26.99,-26.88,-4.878,-12.22,-28.95,-21.86,-5.756,-15.46,0,0,0,0,0,0,0,0,0,0,0,0,0,0,0,0,
539,12.18,34.98,-38.54,-36.02,-44.3,-24.95,-39.14,-34.95,-44.55,-36.29,-2.796,-5.808,-33.85,-22.02,-7.451,-12.96,0,0,0,0,0,0,0,0,0,0,0,0,0,0,0,0,
540,-4.545,-3.145,-45.1,-5.452,-48.4,-32.98,-37.79,-30.82,-41.51,-27.54,-3.967,-0.2248,-20.11,-9.747,4.673,3.171,0,0,0,0,0,0,0,0,0,0,0,0,0,0,0,0,
541,-27.2,-14.02,-45.08,18.83,-49.19,-27.08,-40.71,-30.68,-37.99,-10.0,-4.381,7.047,-7.121,6.068,19.24,19.86,0,0,0,0,0,0,0,0,0,0,0,0,0,0,0,0,
542,-35.2,-9.754,-52.32,15.51,-45.22,-17.67,-41.57,-17.27,-38.79,-0.8934,0.2834,21.64,-0.6527,18.04,32.53,31.28,0,0,0,0,0,0,0,0,0,0,0,0,0,0,0,0,
543,-37.07,-25.3,-63.94,3.317,-56.44,-14.6,-40.44,4.381,-36.79,4.19,-0.8612,30.88,4.078,24.46,40.35,38.82,0,0,0,0,0,0,0,0,0,0,0,0,0,0,0,0,
544,-45.83,-31.71,-67.48,13.96,-74.87,-16.53,-47.77,26.87,-36.85,12.45,-12.46,26.72,-2.639,26.45,31.3,37.47,0,0,0,0,0,0,0,0,0,0,0,0,0,0,0,0,
545,-54.26,-29.18,-64.24,35.36,-72.19,-13.19,-49.07,38.75,-42.07,12.07,-18.81,21.47,-16.54,24.36,14.8,27.92,0,0,0,0,0,0,0,0,0,0,0,0,0,0,0,0,
546,-48.55,-32.06,-50.41,39.57,-50.5,0.617,-34.44,30.69,-41.07,7.952,-15.79,16.98,-21.82,17.01,5.42,15.98,0,0,0,0,0,0,0,0,0,0,0,0,0,0,0,0,
547,-34.84,-22.83,-35.72,32.72,-34.58,8.384,-30.23,29.87,-37.62,11.44,-21.69,7.594,-23.99,7.926,-3.407,2.603,0,0,0,0,0,0,0,0,0,0,0,0,0,0,0,0,
548,-23.76,-3.941,-29.75,31.82,-31.46,6.878,-33.07,44.45,-40.16,11.93,-27.35,2.412,-19.8,10.08,-6.362,-4.181,0,0,0,0,0,0,0,0,0,0,0,0,0,0,0,0,
549,-1.708,3.388,-17.49,34.32,-25.63,15.03,-16.01,48.4,-28.78,16.97,-13.28,3.078,-0.1713,23.59,5.385,-0.3454,0,0,0,0,0,0,0,0,0,0,0,0,0,0,0,0,
550,18.3,3.636,-7.789,30.91,-12.54,29.23,-1.961,51.26,-1.782,36.53,-1.862,-0.3616,12.9,29.17,8.654,-0.2387,0,0,0,0,0,0,0,0,0,0,0,0,0,0,0,0,
551,6.319,16.77,-11.76,27.8,-0.6067,42.56,-8.464,60.18,14.0,46.35,-9.907,-7.913,9.434,20.45,-13.28,-13.66,0,0,0,0,0,0,0,0,0,0,0,0,0,0,0,0,
552,2.326,36.9,-8.19,37.6,11.11,56.01,-13.56,41.88,16.05,37.71,-21.41,-17.65,5.733,3.817,-39.23,-31.62,0,0,0,0,0,0,0,0,0,0,0,0,0,0,0,0,
553,36.96,42.85,0.4571,57.13,22.82,53.71,-17.86,6.471,10.8,24.45,-23.53,-23.68,5.814,-11.41,-40.65,-33.84,0,0,0,0,0,0,0,0,0,0,0,0,0,0,0,0,
554,56.15,40.9,-0.6178,70.66,29.71,43.7,-22.85,3.087,4.531,11.85,-7.141,-13.7,15.43,-4.977,-14.67,-11.32,0,0,0,0,0,0,0,0,0,0,0,0,0,0,0,0,
555,49.62,39.85,1.864,70.23,34.89,47.85,-10.16,22.66,16.92,11.44,26.69,7.309,38.48,22.12,19.7,20.53,0,0,0,0,0,0,0,0,0,0,0,0,0,0,0,0,
556,68.58,42.0,21.85,73.98,51.05,56.45,20.52,34.09,47.46,29.28,71.65,33.91,66.3,49.46,61.62,59.69,0,0,0,0,0,0,0,0,0,0,0,0,0,0,0,0,
557,99.61,69.82,57.33,99.47,84.85,76.72,64.33,59.22,83.75,56.63,131.3,72.26,103.3,80.05,119.3,115.0,0,0,0,0,0,0,0,0,0,0,0,0,0,0,0,0,
558,105.3,107.2,82.0,116.3,105.9,109.0,99.38,97.42,115.3,84.65,172.5,98.42,132.2,101.1,154.9,149.1,0,0,0,0,0,0,0,0,0,0,0,0,0,0,0,0,
559,99.77,102.6,66.48,91.36,77.15,99.06,80.48,89.34,108.5,86.11,149.5,83.6,110.4,78.81,130.6,127.4,0,0,0,0,0,0,0,0,0,0,0,0,0,0,0,0,
560,83.85,64.33,30.03,46.81,26.17,46.25,25.04,39.14,55.81,44.96,91.59,50.88,55.58,33.23,79.84,85.09,0,0,0,0,0,0,0,0,0,0,0,0,0,0,0,0,
561,51.24,34.15,10.82,12.48,2.925,17.6,-4.739,14.88,7.513,-0.0181,52.51,27.17,22.7,2.363,44.33,55.36,0,0,0,0,0,0,0,0,0,0,0,0,0,0,0,0,
562,41.68,30.41,10.69,-0.957,3.09,21.7,-11.28,15.59,-7.552,-18.32,32.96,4.098,12.24,-18.24,19.0,27.91,0,0,0,0,0,0,0,0,0,0,0,0,0,0,0,0,
563,55.09,46.33,12.23,6.78,2.084,24.22,-22.87,3.739,-7.078,-24.77,18.97,-15.07,1.561,-27.76,1.216,7.425,0,0,0,0,0,0,0,0,0,0,0,0,0,0,0,0,
564,43.35,41.25,10.91,5.318,-2.97,17.35,-27.17,-3.3,-5.692,-25.67,12.1,-15.43,-4.718,-18.77,-2.54,6.011,0,0,0,0,0,0,0,0,0,0,0,0,0,0,0,0,
565,20.92,9.692,9.806,-8.161,-13.65,9.874,-23.14,11.63,-5.625,-16.62,12.57,-8.464,-5.333,-10.37,-7.571,9.125,0,0,0,0,0,0,0,0,0,0,0,0,0,0,0,0,
566,16.34,2.22,-0.3066,13.03,-32.82,13.45,-29.91,22.93,-9.41,-10.18,12.19,-9.38,-12.96,-12.84,-21.76,4.417,0,0,0,0,0,0,0,0,0,0,0,0,0,0,0,0,
567,5.963,11.48,-21.1,41.66,-51.31,19.32,-40.8,15.08,-20.8,-15.72,-0.522,-10.46,-27.19,-19.0,-32.09,-2.852,0,0,0,0,0,0,0,0,0,0,0,0,0,0,0,0,
568,-10.92,-2.03,-26.57,21.22,-58.16,12.95,-42.43,12.8,-39.39,-24.46,-16.27,-3.138,-36.15,-24.56,-36.87,-6.576,0,0,0,0,0,0,0,0,0,0,0,0,0,0,0,0,
569,-12.38,-13.82,-15.0,8.771,-52.54,14.8,-38.45,36.77,-48.06,-19.86,-12.6,4.383,-34.93,-22.75,-40.78,-5.583,0,0,0,0,0,0,0,0,0,0,0,0,0,0,0,0,
570,-11.71,-9.655,-18.73,38.83,-47.08,28.24,-35.79,54.22,-34.63,-1.172,-0.8886,4.013,-27.03,-15.34,-37.82,0.1713,0,0,0,0,0,0,0,0,0,0,0,0,0,0,0,0,
571,-25.59,-21.17,-32.32,32.05,-52.9,23.88,-37.42,38.4,-21.14,7.542,-2.133,-0.8983,-18.8,-14.12,-32.13,5.656,0,0,0,0,0,0,0,0,0,0,0,0,0,0,0,0,
572,-36.99,-37.66,-30.0,-15.45,-55.6,7.845,-42.14,23.79,-22.33,-4.086,-6.228,-9.023,-18.84,-21.13,-38.07,-0.9388,0,0,0,0,0,0,0,0,0,0,0,0,0,0,0,0,
573,-25.73,-24.67,-28.95,-20.97,-42.65,2.819,-52.82,22.84,-20.56,-18.5,-11.61,-15.98,-29.06,-28.09,-46.8,-10.74,0,0,0,0,0,0,0,0,0,0,0,0,0,0,0,0,
574,-16.35,-1.754,-45.06,12.48,-34.78,9.898,-72.7,11.66,-14.16,-20.06,-27.19,-9.824,-34.74,-22.75,-40.85,-1.893,0,0,0,0,0,0,0,0,0,0,0,0,0,0,0,0,
575,-35.73,-0.9863,-59.28,25.69,-42.85,21.41,-87.78,3.45,-14.79,-5.278,-36.26,-1.578,-23.62,-9.101,-30.5,8.635,0,0,0,0,0,0,0,0,0,0,0,0,0,0,0,0,
576,-49.03,-10.47,-66.79,11.96,-48.92,18.68,-87.56,5.067,-12.25,7.146,-32.43,-9.332,-6.67,-8.162,-25.26,-0.546,0,0,0,0,0,0,0,0,0,0,0,0,0,0,0,0,
577,-35.08,-17.93,-76.69,-6.883,-51.72,2.566,-82.77,-3.143,-2.154,-4.415,-30.51,-18.83,-0.0673,-17.45,-14.81,-9.044,0,0,0,0,0,0,0,0,0,0,0,0,0,0,0,0,
578,-31.96,-30.92,-84.07,-27.28,-65.05,-4.437,-78.89,-9.853,0.2323,-19.35,-29.11,-20.65,-5.622,-25.36,-6.515,-8.351,0,0,0,0,0,0,0,0,0,0,0,0,0,0,0,0,
579,-54.37,-40.73,-91.5,-44.24,-88.28,-18.78,-76.58,-13.03,-11.71,-23.54,-28.28,-27.51,-19.28,-42.6,-17.41,-13.22,0,0,0,0,0,0,0,0,0,0,0,0,0,0,0,0,
580,-83.99,-49.37,-106.7,-56.23,-113.2,-58.19,-88.12,-35.22,-34.36,-47.15,-38.25,-35.45,-39.55,-66.82,-39.62,-23.19,0,0,0,0,0,0,0,0,0,0,0,0,0,0,0,0,
581,-101.6,-72.27,-118.6,-92.17,-126.7,-88.07,-106.7,-58.75,-60.6,-84.75,-46.8,-35.16,-57.43,-77.06,-52.42,-30.52,0,0,0,0,0,0,0,0,0,0,0,0,0,0,0,0,
582,-92.78,-82.07,-116.2,-133.0,-116.7,-85.03,-101.7,-60.06,-73.1,-92.72,-34.17,-28.69,-54.95,-69.17,-44.65,-23.55,0,0,0,0,0,0,0,0,0,0,0,0,0,0,0,0,
583,-78.62,-67.32,-107.8,-99.53,-96.64,-69.88,-79.03,-53.67,-63.05,-73.85,-12.65,-17.87,-36.54,-55.35,-29.25,-4.074,0,0,0,0,0,0,0,0,0,0,0,0,0,0,0,0,
584,-74.88,-61.8,-102.5,-22.73,-87.16,-60.94,-72.27,-47.91,-51.54,-61.07,-5.353,-12.29,-28.03,-50.86,-23.24,2.243,0,0,0,0,0,0,0,0,0,0,0,0,0,0,0,0,
585,-56.64,-49.97,-93.72,-14.95,-76.7,-53.23,-71.47,-39.87,-50.68,-59.53,0.3282,-15.94,-26.47,-56.57,-14.99,-2.15,0,0,0,0,0,0,0,0,0,0,0,0,0,0,0,0,
586,-36.53,-31.01,-77.99,-66.48,-53.03,-43.1,-55.11,-35.63,-40.08,-58.19,18.97,-17.17,-18.3,-58.55,-4.582,0.1195,0,0,0,0,0,0,0,0,0,0,0,0,0,0,0,0,
587,-45.88,-62.33,-66.6,-104.4,-37.48,-42.02,-44.08,-33.81,-22.06,-57.4,26.67,-15.88,-17.23,-57.06,-13.8,-2.164,0,0,0,0,0,0,0,0,0,0,0,0,0,0,0,0,
588,-52.05,-91.64,-60.78,-129.8,-35.59,-44.2,-45.93,-33.6,-18.53,-62.5,20.24,-15.56,-19.79,-57.33,-25.32,-6.716,0,0,0,0,0,0,0,0,0,0,0,0,0,0,0,0,
589,-23.19,-34.37,-51.83,-146.9,-21.15,-26.91,-39.32,-42.94,-17.7,-64.73,24.96,-11.03,-9.108,-51.72,-17.17,-1.348,0,0,0,0,0,0,0,0,0,0,0,0,0,0,0,0,
590,12.09,28.58,-40.55,-127.3,1.299,0.0019,-28.37,-55.26,-12.44,-51.86,28.8,-6.555,-2.207,-41.64,-12.01,-0.8389,0,0,0,0,0,0,0,0,0,0,0,0,0,0,0,0,
591,21.52,22.15,-29.45,-90.57,1.492,12.56,-28.36,-55.57,-20.42,-32.93,16.69,-4.923,-8.52,-37.8,-20.68,-8.616,0,0,0,0,0,0,0,0,0,0,0,0,0,0,0,0,
592,11.04,7.585,-21.93,-76.57,-13.31,15.71,-31.35,-41.76,-29.97,-20.68,10.83,0.0833,-8.262,-38.8,-23.41,-10.41,0,0,0,0,0,0,0,0,0,0,0,0,0,0,0,0,
593,10.19,17.89,-16.87,-67.65,-14.83,21.73,-20.78,-24.26,-15.79,-7.863,23.28,8.094,4.657,-33.1,-10.52,-3.433,0,0,0,0,0,0,0,0,0,0,0,0,0,0,0,0,
594,24.4,21.27,-5.532,-45.72,-10.84,28.96,-2.009,-11.84,11.08,6.702,40.02,18.27,22.85,-17.11,9.7,12.47,0,0,0,0,0,0,0,0,0,0,0,0,0,0,0,0,
595,22.78,9.33,0.2792,-39.41,-22.15,24.97,-1.72,4.447,20.28,10.06,45.13,26.71,37.25,-4.443,20.89,28.23,0,0,0,0,0,0,0,0,0,0,0,0,0,0,0,0,
596,0.5146,-5.493,-13.54,-48.36,-36.91,1.17,-18.55,20.0,6.773,6.213,42.88,22.9,38.12,-4.73,22.08,30.54,0,0,0,0,0,0,0,0,0,0,0,0,0,0,0,0,
597,-18.21,-13.69,-31.96,-50.04,-46.26,-23.8,-24.36,5.524,-5.308,2.052,54.19,17.06,34.59,-4.118,34.56,34.77,0,0,0,0,0,0,0,0,0,0,0,0,0,0,0,0,
598,-32.49,-15.22,-40.45,-48.24,-57.61,-25.15,-16.68,-19.9,-3.962,-5.819,74.48,27.67,45.79,10.81,61.6,57.49,0,0,0,0,0,0,0,0,0,0,0,0,0,0,0,0,
599,-36.99,-9.708,-31.88,-29.86,-49.04,-9.166,-2.999,-19.27,5.602,-1.809,83.43,40.75,67.02,27.26,78.15,77.57,0,0,0,0,0,0,0,0,0,0,0,0,0,0,0,0,
600,-10.21,8.118,-3.837,-2.541,-11.51,7.176,16.19,-18.29,24.71,18.4,84.77,38.17,74.96,27.2,71.31,72.6,0,0,0,0,0,0,0,0,0,0,0,0,0,0,0,0,
601,28.24,24.54,19.12,-18.3,14.51,22.82,24.44,-21.96,42.8,25.51,81.62,32.31,65.24,20.17,53.04,53.53,0,0,0,0,0,0,0,0,0,0,0,0,0,0,0,0,
602,42.7,30.94,20.99,-48.5,19.83,36.78,14.29,-2.569,45.13,18.73,65.06,32.53,55.01,22.29,35.34,38.82,0,0,0,0,0,0,0,0,0,0,0,0,0,0,0,0,
603,52.3,51.9,23.72,-21.96,35.21,42.58,5.132,11.98,46.76,19.13,44.39,32.09,54.25,25.41,27.47,36.97,0,0,0,0,0,0,0,0,0,0,0,0,0,0,0,0,
604,87.04,92.91,40.31,25.97,61.75,46.62,10.55,15.83,64.08,21.97,40.45,31.93,67.27,27.36,42.53,52.15,0,0,0,0,0,0,0,0,0,0,0,0,0,0,0,0,
605,125.6,126.2,63.65,40.4,88.62,65.16,25.7,37.89,90.28,28.48,56.6,31.72,91.26,38.02,67.75,68.28,0,0,0,0,0,0,0,0,0,0,0,0,0,0,0,0,
606,162.6,152.2,99.34,45.96,120.3,102.6,38.69,46.13,116.6,44.61,71.55,23.43,97.38,39.5,65.48,58.85,0,0,0,0,0,0,0,0,0,0,0,0,0,0,0,0,
607,233.7,197.4,141.0,58.39,145.1,137.9,41.7,30.69,131.0,47.86,65.32,10.64,71.78,17.5,38.23,35.28,0,0,0,0,0,0,0,0,0,0,0,0,0,0,0,0,
608,321.2,267.2,160.4,75.44,151.5,149.5,42.24,34.89,124.4,32.47,54.56,10.27,56.86,4.026,32.63,33.26,0,0,0,0,0,0,0,0,0,0,0,0,0,0,0,0,
609,388.8,346.9,174.6,122.1,170.8,160.0,57.06,50.35,124.5,31.85,67.85,28.58,83.58,20.55,57.58,49.0,0,0,0,0,0,0,0,0,0,0,0,0,0,0,0,0,
610,457.8,410.1,219.1,175.2,217.4,196.0,78.71,52.5,151.2,52.65,88.46,41.51,108.0,35.11,69.38,46.46,0,0,0,0,0,0,0,0,0,0,0,0,0,0,0,0,
611,529.2,454.4,260.9,197.3,247.1,227.9,75.9,53.42,162.7,60.91,81.51,30.39,89.2,24.69,52.34,21.1,0,0,0,0,0,0,0,0,0,0,0,0,0,0,0,0,
612,592.2,522.3,276.8,238.1,254.5,239.8,57.16,69.08,142.8,54.76,59.54,20.34,64.83,16.73,38.85,5.323,0,0,0,0,0,0,0,0,0,0,0,0,0,0,0,0,
613,676.2,607.9,304.5,302.5,280.9,257.3,62.08,99.04,143.0,62.65,52.68,30.84,69.81,31.12,43.15,13.76,0,0,0,0,0,0,0,0,0,0,0,0,0,0,0,0,
614,755.0,653.0,334.5,313.5,309.0,271.1,78.58,111.8,166.8,75.64,56.08,45.09,79.58,48.11,50.25,25.92,0,0,0,0,0,0,0,0,0,0,0,0,0,0,0,0,
615,777.2,666.5,338.2,310.2,310.8,273.8,77.22,100.0,172.8,76.3,59.5,53.56,83.12,55.2,56.78,26.99,0,0,0,0,0,0,0,0,0,0,0,0,0,0,0,0,
616,778.2,684.9,350.6,365.5,314.7,302.2,78.37,111.8,170.4,83.24,71.45,64.44,98.78,65.52,71.94,35.21,0,0,0,0,0,0,0,0,0,0,0,0,0,0,0,0,
617,791.0,704.8,384.5,412.1,332.5,344.6,92.72,148.7,177.8,107.5,88.69,82.46,119.4,88.08,95.71,62.64,0,0,0,0,0,0,0,0,0,0,0,0,0,0,0,0,
618,792.6,730.3,400.7,417.4,340.6,347.3,93.9,165.5,185.3,130.5,90.17,92.97,122.5,106.2,107.6,75.17,0,0,0,0,0,0,0,0,0,0,0,0,0,0,0,0,
619,783.3,749.1,391.7,444.2,330.9,319.0,83.67,158.6,189.7,130.7,76.42,78.88,113.6,98.31,97.03,56.25,0,0,0,0,0,0,0,0,0,0,0,0,0,0,0,0,
620,774.0,727.5,374.3,459.8,315.6,304.3,85.26,150.4,190.1,115.3,73.45,65.36,118.0,82.88,90.72,48.62,0,0,0,0,0,0,0,0,0,0,0,0,0,0,0,0,
621,742.5,678.5,349.8,409.7,304.2,308.5,92.24,155.5,190.3,116.7,77.71,73.52,128.7,86.46,94.02,57.66,0,0,0,0,0,0,0,0,0,0,0,0,0,0,0,0,
622,687.8,634.1,330.8,369.8,291.5,312.1,92.19,166.3,190.5,131.1,65.49,73.21,117.4,91.12,82.81,44.27,0,0,0,0,0,0,0,0,0,0,0,0,0,0,0,0,
623,646.1,599.3,331.6,390.7,279.2,304.0,92.47,155.7,179.1,131.6,51.69,57.75,98.77,81.92,71.38,27.54,0,0,0,0,0,0,0,0,0,0,0,0,0,0,0,0,
624,613.8,562.2,327.5,399.7,274.9,282.2,91.23,133.9,166.5,125.2,47.38,48.34,94.47,71.58,68.23,33.64,0,0,0,0,0,0,0,0,0,0,0,0,0,0,0,0,
625,565.4,516.1,301.7,363.3,266.7,258.2,79.78,126.9,165.4,115.3,29.88,38.2,89.44,61.27,48.68,30.93,0,0,0,0,0,0,0,0,0,0,0,0,0,0,0,0,
626,526.3,473.2,278.4,321.3,245.9,242.7,68.49,119.1,163.6,93.44,7.763,29.47,82.67,52.63,30.92,13.33,0,0,0,0,0,0,0,0,0,0,0,0,0,0,0,0,
627,499.4,434.2,263.8,288.2,225.6,228.8,68.68,105.2,160.4,80.6,7.214,32.58,83.13,52.59,37.01,8.284,0,0,0,0,0,0,0,0,0,0,0,0,0,0,0,0,
628,458.5,402.1,253.5,272.4,213.5,218.6,71.72,105.1,160.2,88.26,18.07,34.59,80.57,52.75,39.01,11.1,0,0,0,0,0,0,0,0,0,0,0,0,0,0,0,0,
629,433.3,397.3,252.3,268.3,195.5,216.7,60.15,101.2,149.9,95.74,22.2,31.55,72.42,48.59,30.0,8.022,0,0,0,0,0,0,0,0,0,0,0,0,0,0,0,0,
630,422.9,381.6,236.1,233.5,156.5,199.8,35.83,75.91,126.9,84.72,19.57,23.22,62.37,41.22,27.85,1.787,0,0,0,0,0,0,0,0,0,0,0,0,0,0,0,0,
631,382.5,317.3,201.2,188.4,118.9,161.5,22.93,58.32,104.7,56.12,15.09,2.523,51.53,25.3,26.94,-3.387,0,0,0,0,0,0,0,0,0,0,0,0,0,0,0,0,
632,328.5,258.0,179.1,178.9,102.4,123.5,21.16,55.68,84.55,29.8,5.874,-17.74,39.73,3.863,19.92,-5.452,0,0,0,0,0,0,0,0,0,0,0,0,0,0,0,0,
633,273.7,216.3,157.4,165.9,77.89,89.59,11.04,41.7,53.92,12.51,-9.729,-26.92,21.23,-13.07,8.137,-8.046,0,0,0,0,0,0,0,0,0,0,0,0,0,0,0,0,
634,219.0,157.3,129.5,130.1,45.03,67.06,3.275,36.05,21.75,-4.636,-17.52,-25.39,8.172,-17.39,-2.174,-10.48,0,0,0,0,0,0,0,0,0,0,0,0,0,0,0,0,
635,201.9,129.2,122.9,115.3,39.06,63.27,4.974,63.66,10.9,-7.916,-13.72,-10.22,11.06,-7.886,-0.6185,-7.607,0,0,0,0,0,0,0,0,0,0,0,0,0,0,0,0,
636,193.0,136.2,120.8,112.7,43.94,54.99,2.221,81.37,11.09,3.211,-10.89,-2.226,7.276,-0.5807,-1.232,-14.63,0,0,0,0,0,0,0,0,0,0,0,0,0,0,0,0,
637,147.9,99.68,105.9,90.9,29.65,38.0,2.767,63.89,4.07,-3.022,-7.171,-19.12,-8.488,-8.502,-22.2,-41.96,0,0,0,0,0,0,0,0,0,0,0,0,0,0,0,0,
638,116.5,55.55,97.18,67.62,6.191,26.76,8.183,55.7,-1.06,-23.6,-3.23,-32.63,-16.99,-20.62,-44.93,-65.37,0,0,0,0,0,0,0,0,0,0,0,0,0,0,0,0,
639,117.8,57.58,89.54,63.81,0.8998,19.58,2.147,73.46,-0.4999,-28.08,-6.848,-25.74,-20.26,-24.67,-51.43,-68.54,0,0,0,0,0,0,0,0,0,0,0,0,0,0,0,0,
640,114.8,38.13,81.86,74.16,32.63,26.56,-1.592,82.4,4.316,-18.53,-9.727,-18.88,-22.83,-23.64,-52.37,-65.07,0,0,0,0,0,0,0,0,0,0,0,0,0,0,0,0,
641,109.0,9.756,87.66,84.19,69.17,45.23,9.258,77.89,17.42,-11.26,-15.9,-19.99,-21.85,-23.2,-58.07,-67.21,0,0,0,0,0,0,0,0,0,0,0,0,0,0,0,0,
642,105.1,52.87,86.66,81.29,64.6,51.67,11.84,87.57,24.01,-5.872,-37.59,-23.04,-23.86,-22.36,-68.29,-72.51,0,0,0,0,0,0,0,0,0,0,0,0,0,0,0,0,
643,95.54,92.4,66.05,60.49,44.15,57.87,0.5551,106.7,17.96,2.2,-51.78,-23.06,-24.45,-15.95,-76.21,-68.98,0,0,0,0,0,0,0,0,0,0,0,0,0,0,0,0,
644,78.66,51.19,49.68,33.47,39.74,66.9,-1.906,106.0,19.06,9.767,-42.72,-15.76,-18.57,-9.308,-75.7,-55.68,0,0,0,0,0,0,0,0,0,0,0,0,0,0,0,0,
645,54.59,13.05,53.05,26.43,33.51,50.65,9.232,89.17,24.43,8.547,-41.09,-13.38,-22.95,-16.87,-75.04,-52.45,0,0,0,0,0,0,0,0,0,0,0,0,0,0,0,0,
646,58.52,31.96,71.49,38.78,27.45,35.51,19.24,86.09,21.62,0.8578,-59.77,-22.49,-34.78,-29.13,-76.95,-61.21,0,0,0,0,0,0,0,0,0,0,0,0,0,0,0,0,
647,91.19,53.52,84.49,41.04,38.93,54.64,21.34,103.3,27.48,3.555,-70.42,-23.22,-27.84,-22.71,-68.64,-60.52,0,0,0,0,0,0,0,0,0,0,0,0,0,0,0,0,
648,80.15,45.35,73.39,34.58,53.98,67.86,20.26,115.2,44.49,17.19,-63.15,-11.3,-7.17,-7.845,-51.41,-47.6,0,0,0,0,0,0,0,0,0,0,0,0,0,0,0,0,
649,37.0,27.61,57.85,38.48,59.94,54.65,25.13,106.0,53.81,22.3,-48.49,-4.941,6.92,-3.628,-35.52,-35.26,0,0,0,0,0,0,0,0,0,0,0,0,0,0,0,0,
650,36.0,18.23,59.89,41.13,55.66,47.48,37.42,95.9,63.89,16.89,-30.31,-11.27,13.63,-2.799,-24.36,-30.94,0,0,0,0,0,0,0,0,0,0,0,0,0,0,0,0,
651,42.56,8.447,60.21,33.09,37.32,43.12,42.39,95.15,75.63,10.56,-21.61,-23.95,7.72,-4.766,-25.65,-31.77,0,0,0,0,0,0,0,0,0,0,0,0,0,0,0,0,
652,9.391,-12.0,45.75,26.95,16.74,25.47,35.2,81.12,66.0,1.389,-25.47,-25.99,-7.601,-12.13,-32.26,-22.28,0,0,0,0,0,0,0,0,0,0,0,0,0,0,0,0,
653,-19.25,-28.31,33.9,23.83,9.945,16.63,32.37,59.12,53.6,-4.618,-25.44,-10.62,-7.437,-8.81,-25.96,-7.042,0,0,0,0,0,0,0,0,0,0,0,0,0,0,0,0,
654,-23.24,-28.58,30.0,19.61,16.56,21.63,33.57,59.01,61.98,1.939,-31.8,-0.0094,0.7549,2.158,-22.46,-13.76,0,0,0,0,0,0,0,0,0,0,0,0,0,0,0,0,
655,-28.81,-27.14,22.89,14.89,28.69,20.9,24.7,68.49,61.69,9.399,-53.75,-2.429,-8.043,4.879,-33.24,-31.65,0,0,0,0,0,0,0,0,0,0,0,0,0,0,0,0,
656,-39.91,-38.54,14.64,0.0821,30.75,19.12,15.57,60.97,45.86,9.273,-63.08,-3.823,-17.48,5.89,-32.23,-28.15,0,0,0,0,0,0,0,0,0,0,0,0,0,0,0,0,
657,-49.23,-55.42,17.44,-14.86,18.86,19.99,17.48,47.4,42.59,7.762,-57.8,-10.86,-14.84,2.383,-25.61,-18.92,0,0,0,0,0,0,0,0,0,0,0,0,0,0,0,0,T2
658,-50.64,-62.37,27.92,-2.362,18.93,12.52,22.99,48.73,43.18,0.5234,-62.66,-29.17,-18.89,-15.21,-38.71,-25.69,0,0,0,0,0,0,0,0,0,0,0,0,0,0,0,0,
659,-41.69,-52.78,34.45,17.15,39.59,12.93,30.93,56.3,39.13,-12.52,-67.4,-39.9,-22.97,-23.93,-48.47,-27.11,0,0,0,0,0,0,0,0,0,0,0,0,0,0,0,0,
660,-27.87,-32.59,40.0,9.957,53.24,35.47,36.18,48.08,48.08,-11.34,-63.58,-38.57,-13.81,-9.027,-46.69,-23.26,0,0,0,0,0,0,0,0,0,0,0,0,0,0,0,0,
661,-17.88,-25.58,38.27,-8.163,42.45,47.83,20.64,34.06,53.74,4.974,-72.59,-38.33,-16.88,3.433,-61.22,-43.64,0,0,0,0,0,0,0,0,0,0,0,0,0,0,0,0,
662,-27.68,-44.32,14.7,-22.45,16.22,33.66,-6.472,37.06,32.01,10.83,-90.83,-41.87,-38.73,-5.34,-75.64,-70.6,0,0,0,0,0,0,0,0,0,0,0,0,0,0,0,0,
663,-53.83,-68.24,-6.886,-28.06,-5.947,23.96,-16.13,43.9,2.713,-1.886,-96.41,-45.46,-49.26,-23.63,-68.11,-70.55,0,0,0,0,0,0,0,0,0,0,0,0,0,0,0,0,
664,-68.65,-86.82,-0.225,-11.23,-10.09,23.74,-6.469,37.87,-13.34,-20.76,-92.79,-45.5,-47.0,-33.98,-60.35,-57.29,0,0,0,0,0,0,0,0,0,0,0,0,0,0,0,0,
665,-58.85,-91.36,14.93,-2.387,-0.1513,12.88,10.14,30.19,-13.06,-33.31,-82.08,-40.58,-43.66,-29.58,-52.35,-46.61,0,0,0,0,0,0,0,0,0,0,0,0,0,0,0,0,
666,-30.98,-59.38,18.62,-25.06,9.731,2.501,26.79,29.81,4.338,-31.69,-59.04,-39.02,-29.77,-21.06,-32.71,-37.24,0,0,0,0,0,0,0,0,0,0,0,0,0,0,0,0,
667,-18.92,-26.33,14.48,-38.26,10.35,0.9031,32.77,30.35,17.46,-27.48,-42.14,-46.38,-13.3,-24.02,-20.79,-39.84,0,0,0,0,0,0,0,0,0,0,0,0,0,0,0,0,
668,-42.48,-36.81,9.105,-40.03,3.661,-4.9,28.64,20.76,11.34,-35.58,-42.98,-55.47,-12.15,-36.13,-17.87,-49.97,0,0,0,0,0,0,0,0,0,0,0,0,0,0,0,0,
669,-55.21,-54.0,3.198,-64.03,-10.49,-18.81,20.66,2.203,3.444,-50.06,-51.04,-62.23,-23.79,-50.88,-11.33,-48.45,0,0,0,0,0,0,0,0,0,0,0,0,0,0,0,0,
670,-45.67,-57.82,-10.61,-90.61,-37.02,-46.51,2.594,-9.968,-9.49,-73.26,-62.22,-66.62,-42.44,-70.28,-8.934,-37.59,0,0,0,0,0,0,0,0,0,0,0,0,0,0,0,0,
671,-58.14,-78.79,-23.12,-108.4,-57.29,-77.55,-12.66,-13.15,-33.82,-104.7,-63.52,-63.12,-52.38,-83.15,-4.878,-26.34,0,0,0,0,0,0,0,0,0,0,0,0,0,0,0,0,
672,-79.16,-107.0,-22.32,-129.6,-56.57,-87.94,-8.975,-17.74,-38.65,-118.1,-48.42,-55.9,-42.22,-79.03,7.209,-20.37,0,0,0,0,0,0,0,0,0,0,0,0,0,0,0,0,
673,-93.29,-121.5,-30.48,-137.6,-59.45,-97.97,-12.91,-24.54,-27.62,-116.7,-47.23,-53.92,-37.97,-71.7,10.18,-23.72,0,0,0,0,0,0,0,0,0,0,0,0,0,0,0,0,
674,-116.8,-125.4,-47.27,-137.1,-67.44,-113.6,-32.23,-20.69,-34.85,-119.8,-62.97,-47.7,-47.62,-66.0,6.649,-24.18,0,0,0,0,0,0,0,0,0,0,0,0,0,0,0,0,
675,-118.8,-115.7,-39.46,-145.4,-54.16,-95.54,-30.48,-4.348,-39.92,-109.8,-62.86,-35.17,-40.59,-53.48,9.326,-16.11,0,0,0,0,0,0,0,0,0,0,0,0,0,0,0,0,
676,-96.06,-103.7,-21.37,-142.2,-36.15,-66.89,-12.12,-1.326,-18.45,-89.91,-51.27,-31.16,-17.04,-40.64,14.34,-4.506,0,0,0,0,0,0,0,0,0,0,0,0,0,0,0,0,
677,-85.72,-99.69,-14.75,-116.9,-23.89,-61.74,-0.1829,-4.731,6.393,-83.23,-32.96,-19.63,8.617,-20.89,38.59,27.68,0,0,0,0,0,0,0,0,0,0,0,0,0,0,0,0,
678,-60.11,-75.25,12.52,-73.26,21.51,-30.73,32.95,26.2,34.68,-58.61,23.45,23.72,55.96,27.27,99.16,84.23,0,0,0,0,0,0,0,0,0,0,0,0,0,0,0,0,
679,-8.502,-25.39,64.43,-23.64,89.63,36.66,91.2,63.47,88.85,2.754,99.25,70.74,121.9,85.21,157.4,126.4,0,0,0,0,0,0,0,0,0,0,0,0,0,0,0,0,
680,6.854,0.1826,83.07,-11.5,112.4,75.27,117.6,66.33,137.1,50.33,122.9,85.38,150.5,111.5,162.5,131.5,0,0,0,0,0,0,0,0,0,0,0,0,0,0,0,0,
681,-27.32,-16.33,48.61,-34.72,87.39,70.73,91.78,66.45,130.2,52.72,84.84,75.08,115.2,99.47,118.3,113.7,0,0,0,0,0,0,0,0,0,0,0,0,0,0,0,0,
682,-61.3,-33.12,9.711,-44.08,64.36,56.89,48.0,64.75,87.26,34.0,37.11,55.51,57.44,71.4,62.09,83.72,0,0,0,0,0,0,0,0,0,0,0,0,0,0,0,0,
683,-67.98,-33.31,-6.949,-41.26,44.3,50.85,9.222,35.49,56.49,18.29,-3.779,34.81,16.21,47.44,14.91,48.43,0,0,0,0,0,0,0,0,0,0,0,0,0,0,0,0,
684,-59.79,-37.03,-23.52,-37.65,19.59,50.74,-20.83,12.3,38.65,6.769,-50.52,22.26,-14.28,29.99,-25.22,17.29,0,0,0,0,0,0,0,0,0,0,0,0,0,0,0,0,
685,-60.92,-42.83,-44.16,-24.44,12.41,36.51,-45.46,7.072,15.07,-11.07,-91.63,8.459,-45.28,6.425,-62.5,-11.7,0,0,0,0,0,0,0,0,0,0,0,0,0,0,0,0,
686,-74.77,-48.63,-52.04,-24.58,6.815,4.196,-69.4,-6.221,-10.07,-37.75,-112.6,-14.97,-69.41,-21.27,-90.01,-34.24,0,0,0,0,0,0,0,0,0,0,0,0,0,0,0,0,
687,-89.28,-67.0,-54.26,-48.51,-23.74,-18.65,-83.67,-18.63,-29.01,-61.23,-117.7,-29.24,-80.05,-38.13,-93.39,-36.04,0,0,0,0,0,0,0,0,0,0,0,0,0,0,0,0,
688,-103.5,-81.8,-63.95,-80.35,-54.97,-30.6,-86.3,-20.67,-44.45,-76.56,-117.8,-30.66,-86.13,-49.32,-79.62,-31.58,0,0,0,0,0,0,0,0,0,0,0,0,0,0,0,0,
689,-116.8,-81.59,-75.11,-118.8,-72.92,-50.93,-89.09,-18.26,-61.28,-87.98,-119.7,-36.65,-97.06,-63.36,-77.31,-43.93,0,0,0,0,0,0,0,0,0,0,0,0,0,0,0,0,
690,-128.3,-94.74,-81.03,-142.4,-91.96,-74.13,-85.64,-18.12,-75.83,-95.83,-116.2,-42.27,-102.4,-69.31,-85.67,-54.5,0,0,0,0,0,0,0,0,0,0,0,0,0,0,0,0,
691,-142.0,-122.7,-80.47,-134.2,-99.73,-90.28,-70.15,-33.64,-76.33,-102.9,-101.2,-37.53,-89.38,-60.12,-74.45,-38.19,0,0,0,0,0,0,0,0,0,0,0,0,0,0,0,0,
692,-148.1,-133.7,-70.95,-133.4,-85.4,-95.61,-55.45,-46.87,-60.87,-103.1,-80.89,-27.51,-64.42,-39.53,-39.54,-6.689,0,0,0,0,0,0,0,0,0,0,0,0,0,0,0,0,
693,-140.0,-133.4,-60.05,-153.5,-74.45,-89.32,-38.74,-36.66,-41.45,-83.13,-60.44,-15.0,-40.17,-17.43,-7.695,16.61,0,0,0,0,0,0,0,0,0,0,0,0,0,0,0,0,
694,-129.0,-140.1,-56.87,-157.7,-75.14,-82.23,-13.29,-30.52,-27.63,-60.8,-43.95,-3.557,-20.53,-4.689,8.794,27.03,0,0,0,0,0,0,0,0,0,0,0,0,0,0,0,0,
695,-132.0,-141.3,-54.98,-151.6,-61.58,-76.14,2.154,-39.05,-12.76,-53.97,-30.28,3.091,0.2674,5.86,21.62,34.18,0,0,0,0,0,0,0,0,0,0,0,0,0,0,0,0,
696,-158.8,-138.8,-51.2,-147.3,-42.23,-72.76,-6.919,-40.38,7.919,-45.88,-24.62,0.1992,14.52,11.84,25.29,33.61,0,0,0,0,0,0,0,0,0,0,0,0,0,0,0,0,
697,-169.8,-146.9,-46.68,-117.5,-52.28,-86.32,-21.4,-39.75,11.75,-38.71,-34.15,-11.74,9.676,0.7401,15.93,26.31,0,0,0,0,0,0,0,0,0,0,0,0,0,0,0,0,
698,-140.7,-156.1,-38.23,-105.6,-71.38,-103.7,-9.638,-47.14,0.8226,-42.47,-20.11,-1.788,18.35,5.882,32.76,46.56,0,0,0,0,0,0,0,0,0,0,0,0,0,0,0,0,
699,-146.2,-173.9,-41.0,-158.7,-66.24,-103.9,14.69,-56.47,17.28,-32.47,23.1,25.62,50.06,33.29,62.42,72.68,0,0,0,0,0,0,0,0,0,0,0,0,0,0,0,0,
700,-196.1,-218.6,-62.91,-173.9,-64.93,-100.9,-1.476,-69.7,35.26,-19.38,8.739,4.782,31.0,12.66,27.48,31.46,0,0,0,0,0,0,0,0,0,0,0,0,0,0,0,0,
701,-193.7,-244.9,-81.72,-109.7,-83.53,-103.9,-49.09,-79.11,-4.933,-41.4,-57.49,-47.99,-39.79,-46.78,-38.56,-33.45,0,0,0,0,0,0,0,0,0,0,0,0,0,0,0,0,
702,-153.8,-192.1,-93.19,-89.09,-89.93,-101.1,-68.28,-70.14,-56.06,-69.34,-70.43,-53.64,-65.44,-60.02,-44.93,-30.26,0,0,0,0,0,0,0,0,0,0,0,0,0,0,0,0,
703,-150.8,-108.0,-103.1,-111.5,-81.66,-95.08,-63.41,-62.04,-55.42,-68.87,-46.68,-33.95,-45.54,-40.23,-20.46,0.9382,0,0,0,0,0,0,0,0,0,0,0,0,0,0,0,0,
704,-166.5,-96.34,-102.0,-92.47,-74.49,-92.58,-65.19,-70.89,-37.91,-65.8,-47.63,-33.18,-36.78,-34.1,-10.2,5.349,0,0,0,0,0,0,0,0,0,0,0,0,0,0,0,0,
705,-175.1,-141.9,-101.5,-94.24,-58.99,-82.1,-58.91,-71.33,-31.19,-64.96,-40.27,-24.15,-22.74,-20.09,4.98,15.04,0,0,0,0,0,0,0,0,0,0,0,0,0,0,0,0,
706,-169.2,-151.2,-113.9,-149.2,-48.72,-64.65,-47.96,-61.54,-21.43,-47.82,-19.84,-9.145,-1.714,-1.869,15.03,33.96,0,0,0,0,0,0,0,0,0,0,0,0,0,0,0,0,
707,-144.2,-133.9,-120.0,-167.2,-63.56,-64.21,-53.9,-63.34,-19.51,-32.75,-17.68,-9.887,0.0921,-5.196,12.57,37.42,0,0,0,0,0,0,0,0,0,0,0,0,0,0,0,0,
708,-133.0,-135.6,-109.5,-140.1,-72.14,-74.21,-56.0,-57.83,-24.02,-29.0,-13.67,-1.688,4.259,-5.396,21.31,39.88,0,0,0,0,0,0,0,0,0,0,0,0,0,0,0,0,
709,-143.5,-133.4,-99.76,-134.4,-63.57,-68.86,-44.64,-44.27,-17.54,-21.0,-5.57,15.88,14.76,6.66,26.71,43.85,0,0,0,0,0,0,0,0,0,0,0,0,0,0,0,0,
710,-158.4,-131.3,-104.6,-142.0,-67.9,-57.87,-43.0,-49.06,-15.37,-17.3,-10.93,18.11,13.53,8.597,20.4,34.23,0,0,0,0,0,0,0,0,0,0,0,0,0,0,0,0,
711,-170.5,-136.2,-105.0,-120.3,-65.67,-47.31,-36.14,-43.65,-15.24,-17.64,-4.104,19.71,28.52,14.26,33.96,30.74,0,0,0,0,0,0,0,0,0,0,0,0,0,0,0,0,
712,-147.2,-115.6,-78.38,-101.8,-34.96,-28.14,-1.39,-22.41,10.17,0.2585,21.58,31.38,65.15,37.17,62.55,48.05,0,0,0,0,0,0,0,0,0,0,0,0,0,0,0,0,
713,-97.98,-95.92,-51.47,-121.5,-14.91,-18.98,24.45,-29.78,40.84,22.56,32.22,36.91,79.46,53.04,73.26,59.06,0,0,0,0,0,0,0,0,0,0,0,0,0,0,0,0,
714,-85.88,-91.09,-54.09,-123.3,-18.72,-22.29,13.23,-38.8,45.03,28.73,23.87,39.68,70.6,55.32,70.21,56.85,0,0,0,0,0,0,0,0,0,0,0,0,0,0,0,0,
715,-103.9,-74.73,-61.17,-95.77,-16.15,-14.92,3.686,-19.45,39.76,36.11,25.47,52.32,76.57,65.43,81.1,72.07,0,0,0,0,0,0,0,0,0,0,0,0,0,0,0,0,
716,-111.1,-89.86,-53.25,-106.0,-1.233,-3.631,19.03,-14.57,47.45,52.74,44.9,67.55,100.3,86.07,108.0,102.2,0,0,0,0,0,0,0,0,0,0,0,0,0,0,0,0,
717,-112.6,-120.7,-53.84,-125.6,9.664,-2.549,24.98,-25.75,57.43,64.39,51.58,72.68,112.1,97.6,120.1,112.8,0,0,0,0,0,0,0,0,0,0,0,0,0,0,0,0,
718,-118.3,-84.47,-66.42,-101.9,4.876,-8.941,14.54,-27.81,52.66,65.06,33.65,65.99,102.1,90.24,107.1,101.6,0,0,0,0,0,0,0,0,0,0,0,0,0,0,0,0,
719,-126.8,-47.24,-66.4,-91.54,-9.662,-21.94,17.11,-39.13,39.34,55.12,24.15,54.29,89.02,72.29,92.78,85.93,0,0,0,0,0,0,0,0,0,0,0,0,0,0,0,0,
720,-132.8,-81.33,-61.74,-119.3,-20.39,-39.41,20.36,-54.23,28.64,40.36,23.29,44.51,78.18,53.83,80.01,69.27,0,0,0,0,0,0,0,0,0,0,0,0,0,0,0,0,
721,-132.3,-112.6,-71.42,-134.4,-24.96,-55.16,3.853,-53.91,15.17,28.89,3.427,41.38,64.85,42.27,62.5,57.95,0,0,0,0,0,0,0,0,0,0,0,0,0,0,0,0,
722,-148.7,-119.3,-83.29,-132.0,-27.85,-65.94,-13.52,-57.9,1.544,18.84,-16.49,41.89,58.68,36.65,53.05,52.9,0,0,0,0,0,0,0,0,0,0,0,0,0,0,0,0,
723,-187.6,-141.7,-96.46,-138.0,-42.37,-76.47,-30.08,-68.83,-5.998,7.526,-21.19,36.83,55.31,26.45,47.12,43.31,0,0,0,0,0,0,0,0,0,0,0,0,0,0,0,0,
724,-205.3,-154.6,-118.1,-151.9,-66.64,-85.02,-50.98,-65.1,-15.06,0.8832,-25.96,34.32,46.64,19.58,40.73,40.04,0,0,0,0,0,0,0,0,0,0,0,0,0,0,0,0,
725,-201.5,-155.5,-133.3,-169.2,-77.61,-81.25,-54.49,-54.24,-21.38,1.7,-26.27,45.05,43.91,26.62,42.58,50.24,0,0,0,0,0,0,0,0,0,0,0,0,0,0,0,0,
726,-221.0,-175.1,-149.3,-186.3,-90.12,-85.29,-51.1,-49.6,-25.9,0.9655,-28.04,52.98,39.21,28.31,33.29,47.27,0,0,0,0,0,0,0,0,0,0,0,0,0,0,0,0,
727,-245.9,-190.5,-176.4,-190.1,-121.6,-115.1,-62.1,-43.1,-42.19,-4.608,-43.48,50.58,23.49,19.94,13.87,31.79,0,0,0,0,0,0,0,0,0,0,0,0,0,0,0,0,
728,-245.6,-197.9,-190.7,-182.7,-141.5,-139.3,-66.98,-39.17,-54.15,-8.118,-50.27,48.04,14.73,18.25,15.04,32.6,0,0,0,0,0,0,0,0,0,0,0,0,0,0,0,0,
729,-250.2,-221.5,-193.8,-192.7,-145.9,-144.3,-65.79,-50.06,-54.77,-14.38,-46.95,40.53,8.038,15.1,15.87,36.14,0,0,0,0,0,0,0,0,0,0,0,0,0,0,0,0,
730,-261.8,-229.8,-202.3,-219.1,-151.5,-146.8,-75.34,-53.49,-65.31,-23.75,-49.35,33.41,-6.306,7.387,-0.1742,26.66,0,0,0,0,0,0,0,0,0,0,0,0,0,0,0,0,
731,-246.1,-207.0,-196.3,-219.2,-142.0,-140.2,-73.48,-31.49,-70.8,-20.58,-38.84,40.51,-2.872,10.12,4.425,29.89,0,0,0,0,0,0,0,0,0,0,0,0,0,0,0,0,
732,-212.6,-188.1,-170.8,-190.9,-123.1,-123.2,-54.91,-16.7,-51.3,-10.94,-18.67,41.34,16.55,13.53,20.69,42.7,0,0,0,0,0,0,0,0,0,0,0,0,0,0,0,0,
733,-193.9,-175.2,-154.8,-172.6,-116.5,-112.8,-47.68,-22.22,-32.16,-11.03,-20.32,22.21,15.59,2.948,9.729,30.84,0,0,0,0,0,0,0,0,0,0,0,0,0,0,0,0,
734,-202.3,-170.5,-158.8,-168.4,-113.6,-111.7,-52.08,-13.99,-33.44,-15.18,-34.34,5.158,-4.517,-15.57,-6.381,3.548,0,0,0,0,0,0,0,0,0,0,0,0,0,0,0,0,
735,-217.2,-188.8,-166.0,-175.2,-113.9,-116.7,-54.43,1.196,-47.52,-21.55,-41.63,-5.111,-18.48,-34.89,-3.705,-9.238,0,0,0,0,0,0,0,0,0,0,0,0,0,0,0,0,
736,-206.4,-191.5,-164.2,-198.5,-123.6,-119.6,-56.29,-8.904,-61.14,-35.53,-47.06,-19.27,-26.06,-49.85,0.0979,-9.321,0,0,0,0,0,0,0,0,0,0,0,0,0,0,0,0,
737,-184.8,-168.1,-159.4,-197.9,-124.0,-116.6,-59.98,-21.83,-66.19,-50.27,-42.18,-29.08,-34.3,-60.41,-0.907,-7.493,0,0,0,0,0,0,0,0,0,0,0,0,0,0,0,0,
738,-179.9,-168.4,-153.6,-158.2,-109.9,-119.1,-64.49,-19.19,-70.94,-61.65,-25.4,-29.28,-37.04,-71.08,2.112,-2.064,0,0,0,0,0,0,0,0,0,0,0,0,0,0,0,0,
739,-174.5,-177.2,-136.8,-149.0,-92.71,-119.7,-61.02,-27.99,-75.11,-66.81,-18.88,-23.29,-28.63,-72.09,11.0,9.169,0,0,0,0,0,0,0,0,0,0,0,0,0,0,0,0,
740,-162.4,-159.0,-117.6,-184.9,-77.39,-105.0,-46.3,-42.85,-60.47,-58.93,-21.19,-13.16,-18.38,-59.15,17.55,18.14,0,0,0,0,0,0,0,0,0,0,0,0,0,0,0,0,
741,-164.7,-156.1,-117.1,-203.8,-78.4,-96.73,-44.33,-36.84,-47.33,-49.92,-24.3,-11.67,-25.14,-52.38,5.425,11.95,0,0,0,0,0,0,0,0,0,0,0,0,0,0,0,0,
742,-170.7,-176.1,-126.0,-198.9,-94.66,-106.6,-60.88,-30.14,-68.12,-52.7,-39.74,-21.72,-44.14,-59.43,-16.01,-1.597,0,0,0,0,0,0,0,0,0,0,0,0,0,0,0,0,
743,-157.6,-161.2,-122.1,-186.0,-96.33,-107.1,-65.9,-47.04,-90.49,-55.11,-59.67,-30.68,-52.83,-68.69,-24.61,-7.727,0,0,0,0,0,0,0,0,0,0,0,0,0,0,0,0,
744,-137.7,-127.4,-110.5,-158.8,-89.12,-90.55,-57.81,-66.34,-88.39,-52.14,-68.69,-40.35,-57.59,-76.22,-31.01,-15.41,0,0,0,0,0,0,0,0,0,0,0,0,0,0,0,0,
745,-125.4,-125.7,-101.0,-145.7,-90.32,-79.4,-50.39,-60.49,-91.34,-46.61,-62.39,-42.79,-61.27,-73.33,-34.18,-18.51,0,0,0,0,0,0,0,0,0,0,0,0,0,0,0,0,
746,-116.9,-128.1,-91.97,-153.1,-81.06,-77.93,-35.09,-39.95,-91.69,-28.97,-38.85,-26.13,-44.0,-59.18,-17.46,-2.61,0,0,0,0,0,0,0,0,0,0,0,0,0,0,0,0,
747,-127.3,-119.4,-100.2,-146.6,-77.3,-82.25,-28.46,-33.95,-73.96,-17.88,-28.51,-19.27,-29.32,-60.57,-8.804,0.8572,0,0,0,0,0,0,0,0,0,0,0,0,0,0,0,0,
748,-153.0,-134.5,-124.0,-135.3,-101.6,-94.67,-43.62,-36.87,-76.62,-35.03,-43.69,-29.79,-39.08,-73.21,-19.03,-15.07,0,0,0,0,0,0,0,0,0,0,0,0,0,0,0,0,
749,-152.7,-150.0,-122.7,-135.5,-109.5,-102.4,-42.43,-25.88,-90.15,-45.88,-36.34,-24.78,-36.21,-64.8,-12.42,-8.067,0,0,0,0,0,0,0,0,0,0,0,0,0,0,0,0,
750,-137.0,-137.7,-101.7,-135.9,-92.99,-97.88,-21.37,-20.92,-71.34,-36.23,-5.924,-15.12,-17.59,-48.67,5.451,11.9,0,0,0,0,0,0,0,0,0,0,0,0,0,0,0,0,
751,-139.9,-133.1,-97.28,-137.6,-90.44,-90.4,-13.53,-41.8,-46.96,-36.9,7.577,-18.17,-9.17,-43.13,14.39,16.59,0,0,0,0,0,0,0,0,0,0,0,0,0,0,0,0,
752,-136.0,-136.8,-92.62,-126.7,-81.65,-77.4,-4.764,-53.76,-37.24,-34.61,16.64,-11.46,5.857,-32.55,26.34,21.95,0,0,0,0,0,0,0,0,0,0,0,0,0,0,0,0,
753,-119.1,-125.2,-78.31,-105.4,-62.44,-63.79,8.324,-36.92,-21.9,-13.28,23.35,0.7652,21.3,-23.11,33.56,26.63,0,0,0,0,0,0,0,0,0,0,0,0,0,0,0,0,
754,-120.4,-125.5,-85.21,-122.1,-74.17,-68.98,-6.486,-23.8,-14.47,-5.395,12.55,6.179,13.22,-22.25,31.24,27.78,0,0,0,0,0,0,0,0,0,0,0,0,0,0,0,0,
755,-134.9,-138.2,-101.3,-155.9,-90.25,-74.63,-27.57,-22.85,-21.14,-11.29,13.33,20.22,12.73,-6.811,40.48,45.07,0,0,0,0,0,0,0,0,0,0,0,0,0,0,0,0,
756,-145.6,-130.4,-99.42,-144.4,-70.95,-57.69,-17.61,-9.691,-16.06,0.7561,26.97,31.56,33.5,16.21,50.17,58.05,0,0,0,0,0,0,0,0,0,0,0,0,0,0,0,0,
757,-139.2,-118.3,-94.47,-116.0,-52.55,-46.33,-0.1415,3.709,-3.501,25.28,19.67,23.04,41.45,17.3,42.43,46.64,0,0,0,0,0,0,0,0,0,0,0,0,0,0,0,0,
758,-110.1,-110.6,-86.98,-102.7,-54.9,-49.48,1.162,-8.21,1.359,41.89,6.647,14.71,38.13,8.648,35.8,39.79,0,0,0,0,0,0,0,0,0,0,0,0,0,0,0,0,
759,-93.11,-89.18,-69.73,-81.48,-50.52,-36.53,-2.941,-26.61,5.354,48.28,6.606,15.65,41.96,12.6,37.71,43.74,0,0,0,0,0,0,0,0,0,0,0,0,0,0,0,0,
760,-105.7,-81.66,-73.95,-61.55,-48.54,-20.68,-11.86,-25.95,5.899,47.61,-1.885,14.18,40.25,17.37,32.53,35.28,0,0,0,0,0,0,0,0,0,0,0,0,0,0,0,0,
761,-115.9,-97.07,-96.99,-52.31,-62.37,-20.81,-25.18,-13.5,-3.225,46.73,-18.46,12.67,33.83,14.39,20.47,20.69,0,0,0,0,0,0,0,0,0,0,0,0,0,0,0,0,
762,-112.1,-87.34,-95.77,-38.74,-59.3,-5.877,-27.16,-1.227,-7.92,55.67,-21.87,14.78,39.08,19.06,14.63,18.8,0,0,0,0,0,0,0,0,0,0,0,0,0,0,0,0,
763,-107.8,-64.28,-84.74,-38.26,-44.43,17.78,-22.34,7.333,-0.8132,70.44,-17.95,13.5,44.04,31.04,17.06,24.14,0,0,0,0,0,0,0,0,0,0,0,0,0,0,0,0,
764,-102.6,-73.44,-92.77,-54.55,-59.7,7.242,-25.53,4.107,3.87,73.03,-18.9,6.736,37.3,30.33,18.53,21.74,0,0,0,0,0,0,0,0,0,0,0,0,0,0,0,0,
765,-99.2,-86.65,-96.99,-56.75,-81.28,-20.89,-31.7,-14.16,-2.434,59.24,-25.04,-1.817,30.75,17.15,11.59,12.47,0,0,0,0,0,0,0,0,0,0,0,0,0,0,0,0,
766,-107.0,-79.64,-91.41,-49.35,-75.77,-35.34,-38.74,-32.41,-14.86,44.57,-37.54,-10.99,26.09,8.038,-0.5213,4.884,0,0,0,0,0,0,0,0,0,0,0,0,0,0,0,0,
767,-114.8,-80.44,-88.83,-56.38,-67.39,-40.47,-43.15,-32.22,-24.81,38.37,-39.39,-13.64,24.42,11.16,-1.203,4.682,0,0,0,0,0,0,0,0,0,0,0,0,0,0,0,0,
768,-104.3,-81.75,-76.53,-66.65,-59.32,-28.46,-30.39,-16.41,-19.77,41.47,-18.63,-2.229,33.42,24.83,12.41,14.42,0,0,0,0,0,0,0,0,0,0,0,0,0,0,0,0,
769,-93.96,-66.56,-64.65,-59.11,-47.26,-10.03,-22.33,-6.547,-8.234,50.08,-17.79,3.247,27.54,26.33,6.906,16.41,0,0,0,0,0,0,0,0,0,0,0,0,0,0,0,0,
770,-108.6,-69.38,-75.92,-47.28,-65.42,-30.89,-44.38,-15.31,-26.86,40.2,-52.8,-12.9,-7.499,-3.176,-23.38,-0.9919,0,0,0,0,0,0,0,0,0,0,0,0,0,0,0,0,
771,-120.5,-93.35,-87.7,-53.65,-94.42,-68.36,-58.23,-29.49,-67.99,5.084,-61.59,-19.62,-21.06,-28.84,-31.08,-8.367,0,0,0,0,0,0,0,0,0,0,0,0,0,0,0,0,
772,-108.4,-96.43,-82.06,-69.6,-83.68,-60.32,-44.6,-32.02,-73.99,-11.94,-36.14,-6.088,2.424,-22.61,-18.02,-1.508,0,0,0,0,0,0,0,0,0,0,0,0,0,0,0,0,
773,-105.5,-91.05,-80.69,-79.48,-66.29,-37.64,-44.4,-29.29,-50.55,1.916,-37.21,-8.856,4.533,-22.15,-29.73,-16.3,0,0,0,0,0,0,0,0,0,0,0,0,0,0,0,0,
774,-116.9,-99.58,-86.49,-73.13,-75.31,-52.28,-53.75,-30.03,-51.33,3.041,-54.14,-23.24,-18.29,-41.54,-46.53,-35.83,0,0,0,0,0,0,0,0,0,0,0,0,0,0,0,0,
775,-111.6,-88.44,-77.77,-50.84,-72.12,-65.09,-40.32,-20.74,-60.98,-7.549,-43.02,-15.9,-16.41,-40.94,-30.11,-18.69,0,0,0,0,0,0,0,0,0,0,0,0,0,0,0,0,
776,-96.87,-58.94,-58.38,-42.83,-49.8,-43.04,-24.24,5.037,-47.42,5.319,-20.74,-1.426,2.811,-15.92,0.2512,14.83,0,0,0,0,0,0,0,0,0,0,0,0,0,0,0,0,
777,-84.68,-48.06,-46.36,-43.81,-37.7,-21.59,-19.55,22.14,-35.08,24.85,-3.158,-1.442,14.48,3.407,16.75,27.25,0,0,0,0,0,0,0,0,0,0,0,0,0,0,0,0,
778,-68.64,-45.21,-40.48,-16.18,-32.84,-18.26,-10.21,8.857,-33.42,26.34,11.26,-7.81,21.22,2.399,10.23,16.87,0,0,0,0,0,0,0,0,0,0,0,0,0,0,0,0,
779,-64.12,-44.77,-36.82,0.3913,-34.07,-23.4,-3.978,-13.67,-32.96,19.5,6.553,-15.62,10.19,-19.79,-13.36,-1.035,0,0,0,0,0,0,0,0,0,0,0,0,0,0,0,0,
780,-74.6,-65.11,-38.19,-34.38,-46.12,-38.71,-8.545,-17.92,-47.82,5.78,-7.273,-23.3,-16.0,-42.25,-26.86,-13.07,0,0,0,0,0,0,0,0,0,0,0,0,0,0,0,0,
781,-84.23,-82.46,-39.62,-63.16,-49.04,-45.35,-12.46,-19.67,-64.48,-11.08,-8.671,-25.89,-23.54,-39.43,-22.02,-15.78,0,0,0,0,0,0,0,0,0,0,0,0,0,0,0,0,
782,-94.77,-71.16,-36.88,-44.16,-39.37,-26.67,-14.47,-29.2,-52.62,-7.656,-8.127,-22.7,-12.09,-22.19,-15.6,-8.798,0,0,0,0,0,0,0,0,0,0,0,0,0,0,0,0,
783,-92.72,-54.77,-32.05,-9.029,-34.74,-19.13,-13.69,-20.78,-29.02,11.84,-5.362,-12.54,-4.294,-12.82,-9.826,5.519,0,0,0,0,0,0,0,0,0,0,0,0,0,0,0,0,
784,-71.34,-55.62,-21.37,0.902,-33.04,-41.08,-3.609,-7.478,-17.99,17.7,9.589,-5.106,-4.706,-13.27,-6.963,6.54,0,0,0,0,0,0,0,0,0,0,0,0,0,0,0,0,
785,-62.3,-58.69,-3.665,-15.24,-25.95,-47.99,9.891,-29.33,-12.07,9.062,20.62,-16.1,-13.22,-20.27,-16.98,-16.08,0,0,0,0,0,0,0,0,0,0,0,0,0,0,0,0,
786,-61.68,-49.45,5.174,-13.99,-18.59,-26.8,15.71,-59.69,-4.847,4.947,17.85,-36.05,-25.46,-31.37,-29.91,-38.12,0,0,0,0,0,0,0,0,0,0,0,0,0,0,0,0,
787,-48.77,-42.48,-3.886,4.589,-18.74,-15.37,14.73,-55.07,-0.9011,6.652,10.72,-46.05,-30.45,-40.1,-33.87,-42.28,0,0,0,0,0,0,0,0,0,0,0,0,0,0,0,0,
788,-50.78,-48.24,-13.81,-7.623,-30.48,-18.74,14.42,-43.84,-0.2904,8.334,4.811,-47.41,-29.3,-41.95,-37.05,-37.51,0,0,0,0,0,0,0,0,0,0,0,0,0,0,0,0,
789,-78.04,-60.57,-18.92,-27.4,-49.84,-22.13,10.07,-56.32,-3.857,6.514,1.599,-44.46,-31.87,-39.39,-42.85,-31.88,0,0,0,0,0,0,0,0,0,0,0,0,0,0,0,0,
790,-94.71,-73.96,-24.36,-11.06,-59.67,-31.39,0.0258,-60.49,-10.5,-2.483,3.27,-31.65,-34.33,-33.68,-36.81,-23.8,0,0,0,0,0,0,0,0,0,0,0,0,0,0,0,0,
791,-80.79,-78.5,-16.25,6.309,-51.49,-41.63,-2.99,-39.85,-4.618,-4.579,11.15,-12.54,-24.96,-19.53,-15.0,-9.848,0,0,0,0,0,0,0,0,0,0,0,0,0,0,0,0,
792,-70.91,-80.47,-17.6,-6.289,-53.28,-48.24,-9.629,-31.18,11.8,11.35,18.07,-4.062,-16.56,-5.637,-0.6427,2.865,0,0,0,0,0,0,0,0,0,0,0,0,0,0,0,0,
793,-106.2,-93.84,-60.85,-26.62,-81.76,-61.17,-30.69,-47.2,7.904,20.3,20.16,-11.35,-24.77,-11.06,-5.647,2.111,0,0,0,0,0,0,0,0,0,0,0,0,0,0,0,0,
794,-137.0,-100.6,-78.01,-27.27,-94.37,-64.18,-31.99,-53.82,-8.364,7.532,33.82,-14.69,-26.95,-22.93,-3.758,2.884,0,0,0,0,0,0,0,0,0,0,0,0,0,0,0,0,
795,-98.27,-83.57,-14.54,1.942,-66.78,-42.41,2.015,-32.69,2.806,1.308,65.38,5.315,-7.553,-10.72,24.67,31.05,0,0,0,0,0,0,0,0,0,0,0,0,0,0,0,0,
796,-40.23,-41.95,55.81,38.7,-34.11,-18.12,45.6,-0.83,34.6,21.03,102.0,44.11,17.52,23.34,66.44,77.59,0,0,0,0,0,0,0,0,0,0,0,0,0,0,0,0,
797,-18.84,-3.036,77.4,58.31,-13.52,-2.163,85.66,24.7,62.4,51.26,133.8,77.48,42.97,52.53,98.95,112.0,0,0,0,0,0,0,0,0,0,0,0,0,0,0,0,0,
798,-19.69,-28.94,66.24,62.43,-4.334,8.158,98.17,37.8,81.37,68.61,135.6,78.08,50.47,53.96,95.6,109.0,0,0,0,0,0,0,0,0,0,0,0,0,0,0,0,0,
799,-46.61,-84.49,23.86,34.16,-24.21,-0.8849,57.37,28.78,71.79,57.72,93.9,46.23,9.616,24.23,50.68,65.97,0,0,0,0,0,0,0,0,0,0,0,0,0,0,0,0,
800,-85.32,-72.77,-27.53,-26.65,-61.66,-27.27,4.692,-2.397,29.65,23.28,50.35,13.63,-46.97,-10.13,3.812,18.7,0,0,0,0,0,0,0,0,0,0,0,0,0,0,0,0,
801,-91.04,-46.0,-46.86,-65.29,-86.09,-53.44,-14.57,-31.01,-7.826,-8.393,28.79,-7.601,-74.29,-30.35,-22.73,-7.113,0,0,0,0,0,0,0,0,0,0,0,0,0,0,0,0,
802,-97.17,-81.71,-55.91,-77.68,-104.8,-77.53,-28.23,-41.02,-28.71,-26.68,-1.368,-30.72,-96.66,-49.86,-50.82,-28.62,0,0,0,0,0,0,0,0,0,0,0,0,0,0,0,0,
803,-143.0,-120.9,-81.41,-92.1,-126.6,-92.83,-57.27,-42.99,-50.22,-43.5,-37.83,-49.41,-126.5,-66.05,-77.43,-49.47,0,0,0,0,0,0,0,0,0,0,0,0,0,0,0,0,
804,-168.3,-124.4,-90.07,-70.0,-135.2,-89.33,-70.55,-41.53,-64.77,-51.43,-47.48,-54.25,-131.2,-63.57,-80.76,-56.92,0,0,0,0,0,0,0,0,0,0,0,0,0,0,0,0,
805,-139.0,-116.4,-73.27,-19.92,-131.8,-83.0,-64.54,-32.96,-63.88,-42.82,-43.23,-54.31,-121.6,-59.58,-73.94,-57.46,0,0,0,0,0,0,0,0,0,0,0,0,0,0,0,0,
806,-116.1,-101.7,-69.36,-24.89,-128.4,-85.68,-69.15,-26.35,-62.56,-39.2,-46.78,-47.83,-124.0,-62.55,-71.88,-53.37,0,0,0,0,0,0,0,0,0,0,0,0,0,0,0,0,
807,-126.4,-97.68,-77.62,-71.92,-119.0,-81.87,-77.13,-29.59,-62.59,-40.34,-40.82,-36.5,-118.6,-54.58,-67.33,-47.64,0,0,0,0,0,0,0,0,0,0,0,0,0,0,0,0,
808,-132.8,-107.8,-71.95,-85.33,-101.7,-65.4,-64.19,-37.77,-51.82,-30.34,-19.73,-41.33,-98.95,-46.48,-59.27,-52.4,0,0,0,0,0,0,0,0,0,0,0,0,0,0,0,0,
809,-122.3,-99.57,-54.12,-66.46,-82.38,-50.62,-39.72,-44.37,-32.22,-27.7,-3.441,-57.5,-86.96,-54.54,-51.26,-54.66,0,0,0,0,0,0,0,0,0,0,0,0,0,0,0,0,
810,-108.7,-83.89,-34.99,-63.33,-67.91,-49.6,-26.97,-50.04,-16.3,-39.12,1.043,-61.29,-84.43,-61.74,-47.06,-44.2,0,0,0,0,0,0,0,0,0,0,0,0,0,0,0,0,
811,-98.65,-92.27,-32.03,-86.38,-68.87,-59.68,-31.82,-59.64,-16.19,-41.75,-2.023,-54.4,-83.91,-55.73,-48.69,-34.91,0,0,0,0,0,0,0,0,0,0,0,0,0,0,0,0,
812,-92.1,-100.0,-47.31,-88.51,-70.65,-63.25,-35.93,-64.66,-25.35,-31.82,-5.478,-44.16,-82.02,-41.76,-43.17,-23.11,0,0,0,0,0,0,0,0,0,0,0,0,0,0,0,0,
813,-83.87,-79.35,-46.96,-56.06,-59.5,-55.65,-24.0,-52.03,-23.91,-17.7,-5.612,-33.03,-79.97,-30.53,-33.09,-10.46,0,0,0,0,0,0,0,0,0,0,0,0,0,0,0,0,
814,-76.29,-59.42,-33.53,-57.69,-60.61,-51.92,-10.54,-36.94,-19.77,-8.348,-8.249,-31.99,-82.75,-29.67,-38.67,-17.39,0,0,0,0,0,0,0,0,0,0,0,0,0,0,0,0,
815,-70.9,-63.3,-34.26,-95.07,-70.46,-49.7,-3.88,-40.61,-24.74,-6.981,-8.592,-33.67,-79.39,-23.42,-44.15,-24.88,0,0,0,0,0,0,0,0,0,0,0,0,0,0,0,0,
816,-65.87,-67.86,-33.64,-92.02,-65.03,-45.9,2.395,-53.1,-24.78,-1.32,-6.289,-23.71,-73.09,-10.36,-34.73,-12.08,0,0,0,0,0,0,0,0,0,0,0,0,0,0,0,0,
817,-78.92,-67.8,-33.46,-68.63,-70.23,-53.97,-2.669,-54.84,-25.26,-0.8803,-17.51,-18.77,-87.4,-21.66,-37.92,-12.53,0,0,0,0,0,0,0,0,0,0,0,0,0,0,0,0,
818,-102.3,-79.86,-48.87,-77.81,-89.68,-61.59,-12.9,-43.92,-37.12,-15.84,-29.78,-27.89,-100.8,-44.26,-48.47,-35.47,0,0,0,0,0,0,0,0,0,0,0,0,0,0,0,0,
819,-96.39,-85.0,-49.07,-83.97,-87.64,-54.89,-7.142,-34.33,-39.62,-15.63,-24.14,-29.8,-83.72,-34.88,-35.38,-41.17,0,0,0,0,0,0,0,0,0,0,0,0,0,0,0,0,
820,-77.25,-71.78,-35.25,-75.54,-75.72,-50.74,-4.811,-31.65,-26.57,5.544,-20.83,-17.93,-62.49,-7.798,-23.65,-28.67,0,0,0,0,0,0,0,0,0,0,0,0,0,0,0,0,
821,-83.16,-73.58,-42.42,-91.75,-74.37,-49.09,-18.49,-20.67,-12.48,18.67,-28.67,-3.558,-57.89,3.054,-37.59,-25.21,0,0,0,0,0,0,0,0,0,0,0,0,0,0,0,0,
822,-95.29,-82.65,-49.09,-105.6,-73.85,-44.91,-19.02,-9.649,-1.206,21.0,-29.09,4.874,-58.36,1.777,-48.38,-24.36,0,0,0,0,0,0,0,0,0,0,0,0,0,0,0,0,
823,-93.65,-67.67,-35.47,-75.75,-69.87,-53.63,-3.045,-22.28,1.359,15.06,-21.24,-0.4515,-61.87,-2.618,-43.0,-16.75,0,0,0,0,0,0,0,0,0,0,0,0,0,0,0,0,
824,-92.49,-77.61,-30.97,-45.12,-54.88,-65.68,5.445,-37.17,-1.648,-0.3631,-13.95,-12.84,-64.04,-9.005,-35.91,-10.97,0,0,0,0,0,0,0,0,0,0,0,0,0,0,0,0,
825,-96.36,-126.0,-40.13,-52.14,-37.51,-65.12,7.241,-38.55,5.803,-9.391,-10.39,-14.95,-52.64,-8.174,-28.06,-4.272,0,0,0,0,0,0,0,0,0,0,0,0,0,0,0,0,
826,-96.3,-115.8,-41.64,-61.05,-42.89,-65.0,16.97,-44.38,21.79,-8.562,-8.826,-6.814,-29.83,4.047,-15.9,7.565,0,0,0,0,0,0,0,0,0,0,0,0,0,0,0,0,
827,-86.36,-51.4,-33.07,-45.26,-48.98,-64.96,32.65,-40.93,38.61,-3.994,3.487,1.84,-5.615,18.82,-2.743,16.88,0,0,0,0,0,0,0,0,0,0,0,0,0,0,0,0,
828,-65.98,-31.76,-19.4,-28.28,-30.44,-50.83,36.49,-23.57,55.2,6.343,23.04,9.77,9.553,27.46,3.594,22.19,0,0,0,0,0,0,0,0,0,0,0,0,0,0,0,0,
829,-52.15,-40.35,-14.39,-32.81,-13.97,-30.73,23.82,-18.68,61.96,14.22,25.17,18.34,10.29,30.2,-1.528,24.73,0,0,0,0,0,0,0,0,0,0,0,0,0,0,0,0,
830,-61.09,-37.6,-25.76,-48.57,-12.87,-17.83,12.8,-11.5,54.25,16.33,13.0,23.21,4.899,29.86,-8.492,19.79,0,0,0,0,0,0,0,0,0,0,0,0,0,0,0,0,
831,-69.79,-44.56,-23.85,-51.28,-10.52,-8.242,13.49,4.46,43.82,23.42,13.95,23.76,5.198,28.25,-6.989,15.86,0,0,0,0,0,0,0,0,0,0,0,0,0,0,0,0,
832,-58.06,-41.9,-2.945,-46.08,-5.506,3.707,23.14,-1.337,43.99,33.46,27.29,28.74,11.98,29.68,-0.3055,24.8,0,0,0,0,0,0,0,0,0,0,0,0,0,0,0,0,
833,-52.29,-30.81,-1.427,-42.29,-6.451,3.004,32.4,-17.1,51.22,35.59,26.75,29.38,9.168,28.12,-1.666,29.0,0,0,0,0,0,0,0,0,0,0,0,0,0,0,0,0,
834,-61.03,-42.12,-9.661,-22.88,-11.53,-17.13,27.51,-20.14,46.14,27.21,16.83,16.25,-2.914,22.7,-3.937,26.46,0,0,0,0,0,0,0,0,0,0,0,0,0,0,0,0,
835,-63.26,-47.72,2.985,-21.03,-5.475,-20.0,28.33,-18.69,40.07,25.37,36.67,23.83,15.68,43.29,26.68,54.49,0,0,0,0,0,0,0,0,0,0,0,0,0,0,0,0,
836,-65.73,-46.85,5.919,-77.16,6.174,4.399,49.09,-14.63,63.37,46.5,71.72,54.0,53.43,78.46,60.12,83.1,0,0,0,0,0,0,0,0,0,0,0,0,0,0,0,0,
837,-69.49,-56.36,-23.52,-106.7,-14.22,6.762,38.36,-10.59,75.44,56.62,54.05,41.72,31.33,60.52,21.34,39.5,0,0,0,0,0,0,0,0,0,0,0,0,0,0,0,0,
838,-59.28,-36.23,-51.33,-48.69,-54.87,-14.28,-13.32,-8.101,26.72,27.23,-0.5787,-6.114,-36.54,5.663,-43.51,-25.03,0,0,0,0,0,0,0,0,0,0,0,0,0,0,0,0,
839,-47.5,-3.446,-55.2,-10.87,-61.78,-14.52,-37.37,-3.687,-24.46,2.089,-10.92,-17.46,-57.66,-6.013,-38.66,-20.64,0,0,0,0,0,0,0,0,0,0,0,0,0,0,0,0,
840,-45.59,-11.04,-56.34,-52.69,-49.27,-8.151,-29.78,-11.36,-25.07,2.804,16.84,-0.4963,-35.23,12.82,0.4777,12.33,0,0,0,0,0,0,0,0,0,0,0,0,0,0,0,0,
841,-58.5,-32.38,-79.58,-79.11,-59.65,-22.97,-39.13,-28.58,-19.78,-4.705,20.55,1.045,-29.38,10.15,6.7,12.19,0,0,0,0,0,0,0,0,0,0,0,0,0,0,0,0,
842,-87.52,-38.44,-104.4,-58.31,-74.92,-35.81,-56.99,-33.53,-35.23,-17.72,-1.295,-5.043,-41.66,-2.186,-5.369,0.8217,0,0,0,0,0,0,0,0,0,0,0,0,0,0,0,0,
843,-88.83,-35.37,-90.58,-57.28,-66.56,-28.32,-52.78,-27.33,-45.48,-16.34,-6.989,-6.783,-42.68,-4.684,-9.687,2.553,0,0,0,0,0,0,0,0,0,0,0,0,0,0,0,0,
844,-52.77,-26.46,-58.37,-70.77,-46.77,-18.74,-33.68,-18.03,-40.33,-14.49,12.56,-10.28,-27.79,-5.401,-7.443,3.037,0,0,0,0,0,0,0,0,0,0,0,0,0,0,0,0,
845,-48.39,-29.44,-57.18,-51.32,-47.28,-24.96,-31.07,-8.863,-31.68,-20.86,18.36,-15.22,-25.77,-9.56,-10.64,-11.37,0,0,0,0,0,0,0,0,0,0,0,0,0,0,0,0,
846,-76.03,-42.91,-72.29,-22.25,-65.22,-31.37,-45.96,2.409,-32.47,-21.58,-0.2677,-15.61,-42.59,-11.78,-20.19,-27.5,0,0,0,0,0,0,0,0,0,0,0,0,0,0,0,0,
