%OpenBCI Raw EXG Data
%Number of channels = 16
%Sample Rate = 125 Hz
%Board = OpenBCI_GUI$BoardCytonSerialDaisy
Sample Index,EXG Channel 0,EXG Channel 1,EXG Channel 2,EXG Channel 3,EXG Channel 4,EXG Channel 5,EXG Channel 6,EXG Channel 7,EXG Channel 8,EXG Channel 9,EXG Channel 10,EXG Channel 11,EXG Channel 12,EXG Channel 13,EXG Channel 14,EXG Channel 15,Accel Channel 0,Accel Channel 1,Accel Channel 2,Other,Other,Other,Other,Other,Other,Other,Analog Channel 0,Analog Channel 1,Analog Channel 2,Timestamp,Other,Timestamp (Formatted),Annotations
1,-0,0,0,0,0,0,-0,0,0,0,0,0,0,0,-0,-0,0,0,0,0,0,0,0,0,0,0,0,0,0,0,0,0,T0
2,-5.168,-16.31,-7.773,-13.19,1.932,-10.33,-24.42,-32.5,5.941,-10.37,10.6,0.3605,-6.198,11.54,8.28,7.824,0,0,0,0,0,0,0,0,0,0,0,0,0,0,0,0,
3,-11.36,-26.78,-19.93,-28.84,-5.973,-28,-35.17,-54.37,6.014,-17.95,15.6,-2.14,-12.96,20.51,23.63,24.8,0,0,0,0,0,0,0,0,0,0,0,0,0,0,0,0,
4,-19.49,-30.03,-24.61,-34.24,-12.39,-45.35,-44.47,-54.86,-4.481,-14.3,22.22,-6.055,-9.928,34.17,28.26,42.21,0,0,0,0,0,0,0,0,0,0,0,0,0,0,0,0,
5,-35.19,-32.94,-26.74,-36.51,-16.01,-58.83,-61.72,-55.64,-15.72,-9.28,24.71,-6.23,-1.56,45.49,25.3,55.02,0,0,0,0,0,0,0,0,0,0,0,0,0,0,0,0,
6,-52.33,-40.96,-36.43,-44.63,-22.16,-68.82,-70.07,-59.48,-12.31,-9.819,22.9,-0.1719,0.2158,42.72,32.58,63.41,0,0,0,0,0,0,0,0,0,0,0,0,0,0,0,0,
7,-55.39,-43.08,-41.92,-45.53,-21.17,-72.63,-58.6,-48.96,1.437,-5.489,28.79,9.097,3.618,35.25,41.07,62.28,0,0,0,0,0,0,0,0,0,0,0,0,0,0,0,0,
8,-44,-27.9,-38.08,-41.52,-5.513,-67.13,-43.83,-42.73,19.91,0.5337,42.7,21.97,17.59,34.55,45.4,59.89,0,0,0,0,0,0,0,0,0,0,0,0,0,0,0,0,
9,-24.2,-9.544,-30.27,-39.74,17.86,-51.25,-39.51,-44.8,44.09,1.456,58.4,33.55,25.61,33.89,49.55,63.68,0,0,0,0,0,0,0,0,0,0,0,0,0,0,0,0,
10,-10.93,-10.24,-23.31,-33.73,28.27,-43.17,-43.72,-36.93,50.12,1.202,59.75,27.04,14.31,28.59,41.67,64.52,0,0,0,0,0,0,0,0,0,0,0,0,0,0,0,0,
11,-24.01,-24.03,-32.53,-38.73,19.01,-54.76,-51.79,-29.17,32.11,-2.839,45.61,15.85,10.3,34.15,38.11,75.1,0,0,0,0,0,0,0,0,0,0,0,0,0,0,0,0,
12,-36.41,-23.47,-48.15,-55.94,20.12,-55.97,-50.83,-19.14,30.21,-6.25,47.95,32.35,32.93,53.78,61.38,99.85,0,0,0,0,0,0,0,0,0,0,0,0,0,0,0,0,
13,-17.49,-6.147,-39.76,-47.73,35.31,-35.21,-37,2.135,43.64,-0.1005,61.75,54.5,44.8,57.85,72.15,97.59,0,0,0,0,0,0,0,0,0,0,0,0,0,0,0,0,
14,0.3492,4.567,-23.41,-19.75,34.47,-20.52,-28.41,11.78,41.12,7.271,59.32,50.04,32.02,44.71,54.82,75.37,0,0,0,0,0,0,0,0,0,0,0,0,0,0,0,0,
15,5.371,10.39,-22.18,-10.06,32.65,-9.031,-23.72,8.764,39.07,14.73,60.35,43.4,36.75,49.08,54.68,82.39,0,0,0,0,0,0,0,0,0,0,0,0,0,0,0,0,
16,19.79,20.97,-18.71,-10.38,43.75,9.681,-12.03,12.64,41.49,25.06,65.69,43.75,47.09,58.24,63.55,90,0,0,0,0,0,0,0,0,0,0,0,0,0,0,0,0,
17,18.21,14.74,-13.84,-4.228,38.21,11.37,-11.09,18.08,23.97,24.89,45.8,26.64,22.8,41.68,50.56,65.98,0,0,0,0,0,0,0,0,0,0,0,0,0,0,0,0,
18,-5.479,-7.923,-21.41,-2.649,25.22,-1.145,-22.3,22.81,10.65,20.16,26.71,8.639,3.294,28.96,45.34,58.06,0,0,0,0,0,0,0,0,0,0,0,0,0,0,0,0,
19,-7.521,-15.04,-24.26,-7.815,29.81,1.093,-27.22,28.48,23.47,23.67,36.3,12.78,15.74,38.78,55.99,74.8,0,0,0,0,0,0,0,0,0,0,0,0,0,0,0,0,
20,3.883,-15.73,-18.28,-15.21,29.21,5.04,-39.46,22.47,30.67,17.25,42.04,14.41,11.91,36.5,51.54,70.19,0,0,0,0,0,0,0,0,0,0,0,0,0,0,0,0,
21,-4.445,-34.93,-23.07,-25.42,14.29,-11.3,-62.51,12.23,20.65,-1.53,28.02,-1.523,-14.24,17.03,45.15,55.08,0,0,0,0,0,0,0,0,0,0,0,0,0,0,0,0,
22,-18.98,-55.01,-33.06,-31.16,9.204,-29.02,-69.67,14.81,15.25,-10.98,20.32,-14.05,-26.13,7.838,55.87,62.4,0,0,0,0,0,0,0,0,0,0,0,0,0,0,0,0,
23,-27.75,-61.9,-36.16,-31.94,12.44,-35.8,-67.55,14.08,12.35,-15.98,20.45,-16.71,-29.27,9.927,59.95,77.71,0,0,0,0,0,0,0,0,0,0,0,0,0,0,0,0,
24,-35.98,-66.79,-43.36,-38.27,3.488,-47.03,-73.83,-4.155,-1.128,-24.07,9.567,-18.19,-29.34,13.67,53.9,83.19,0,0,0,0,0,0,0,0,0,0,0,0,0,0,0,0,
25,-30.42,-64.24,-53.27,-46.12,-11.46,-58.52,-77.33,-17.33,-15.18,-23.65,0.8156,-12.14,-14.23,19.72,64.11,85.7,0,0,0,0,0,0,0,0,0,0,0,0,0,0,0,0,
26,-13.38,-53.79,-58.45,-54.37,-22.98,-68.09,-85.4,-15.73,-25.8,-20.73,7.292,-5.021,-5.676,22.82,79.19,85.44,0,0,0,0,0,0,0,0,0,0,0,0,0,0,0,0,
27,-24.28,-64.14,-82.01,-82.49,-52.36,-105.2,-116.3,-25.75,-44.8,-30.25,7.03,-20.33,-23.46,16.01,69.39,73.01,0,0,0,0,0,0,0,0,0,0,0,0,0,0,0,0,
28,-66.5,-97.09,-121,-120.5,-86.21,-154.2,-147.8,-51.79,-53.82,-48.06,-0.9805,-43.9,-44.44,5.286,49.46,55.95,0,0,0,0,0,0,0,0,0,0,0,0,0,0,0,0,
29,-85.92,-114.8,-125.7,-127.5,-70.59,-156.3,-151.6,-59.08,-30.01,-61.3,3.427,-42.79,-46.34,3.948,43.79,54.19,0,0,0,0,0,0,0,0,0,0,0,0,0,0,0,0,
30,-66.88,-101.9,-97.81,-107.6,-28.18,-124.7,-133.2,-37,-4.568,-58.32,4.637,-27.09,-34.49,13.54,42.69,66.19,0,0,0,0,0,0,0,0,0,0,0,0,0,0,0,0,
31,-53.31,-81.06,-87.21,-99.05,-19.63,-112.5,-115.5,-22.46,-4.314,-41.25,-11.17,-23.67,-28.33,17.18,33.69,66.21,0,0,0,0,0,0,0,0,0,0,0,0,0,0,0,0,
32,-58.93,-78.01,-95.03,-103.3,-27.25,-115,-115.6,-33.23,-6.096,-29.79,-26.33,-35.8,-42.14,5.006,14.98,43.42,0,0,0,0,0,0,0,0,0,0,0,0,0,0,0,0,
33,-63.43,-96.28,-95.99,-101.4,-26.45,-112.4,-127.5,-39.72,-4.012,-32.11,-37.78,-58.49,-65.25,-10.83,-10.92,16.56,0,0,0,0,0,0,0,0,0,0,0,0,0,0,0,0,
34,-69.71,-115.6,-93.31,-97.06,-31.62,-110.2,-129.7,-31.61,-14.09,-41.86,-48.45,-79.36,-78.61,-21.94,-25.47,0.9343,0,0,0,0,0,0,0,0,0,0,0,0,0,0,0,0,
35,-77.61,-115.6,-88.91,-94.76,-30.17,-101.6,-116.9,-28.02,-19.92,-55.6,-43.31,-78.31,-82.47,-34.13,-21.07,-10.26,0,0,0,0,0,0,0,0,0,0,0,0,0,0,0,0,
36,-68.14,-97.81,-74.54,-82.57,-15.31,-82.63,-101.1,-21.58,-8.218,-61.88,-26.73,-65.9,-84.7,-47.01,-20.22,-24.3,0,0,0,0,0,0,0,0,0,0,0,0,0,0,0,0,
37,-53.31,-80.17,-59,-62.49,-8.358,-69.29,-90.11,-2.954,0.1376,-51.26,-22.15,-69.5,-82.62,-49.72,-26.29,-32.13,0,0,0,0,0,0,0,0,0,0,0,0,0,0,0,0,
38,-51.97,-70.85,-51.78,-49.45,-1.343,-62.04,-78.1,9.466,-0.7642,-36.84,-29.94,-73.67,-66.6,-34.83,-15.64,-22.34,0,0,0,0,0,0,0,0,0,0,0,0,0,0,0,0,
39,-45.91,-57.67,-48.35,-42.48,9.44,-54.41,-58.87,11.39,-1.361,-26.58,-41.56,-59.44,-42.09,-11.47,4.213,-4.583,0,0,0,0,0,0,0,0,0,0,0,0,0,0,0,0,
40,-34.95,-38.18,-51.35,-40.06,-0.8424,-54.93,-44.25,19.11,-8.367,-12.42,-53.61,-51.48,-29.78,2.784,8.228,3.612,0,0,0,0,0,0,0,0,0,0,0,0,0,0,0,0,
41,-39.03,-27.94,-61.45,-45.99,-19.23,-61.34,-43.97,39.28,-15.74,-0.0557,-47.19,-49.43,-25.13,7.538,10.38,10.16,0,0,0,0,0,0,0,0,0,0,0,0,0,0,0,0,
42,-40.25,-27.1,-65.01,-51.26,-17.57,-65.29,-51.93,56.09,-7.768,-1.161,-22.84,-29.09,-10.06,13.85,27.24,25.23,0,0,0,0,0,0,0,0,0,0,0,0,0,0,0,0,
43,-29.87,-26.68,-63,-58.59,-10.32,-72.35,-65.49,50.03,3.972,-6.625,-12.8,-10.75,2.846,22.02,38.52,33.16,0,0,0,0,0,0,0,0,0,0,0,0,0,0,0,0,
44,-31.83,-28.11,-67.03,-72.85,-11.75,-79.08,-76.84,39.87,8.755,-3.332,-12.25,-6.487,4.485,27.75,37.74,30.16,0,0,0,0,0,0,0,0,0,0,0,0,0,0,0,0,
45,-37.65,-26.71,-70.56,-73.88,-12.74,-77.21,-74.83,51.7,11.11,3.627,-0.2873,3.933,10.95,30.79,40.92,31.59,0,0,0,0,0,0,0,0,0,0,0,0,0,0,0,0,
46,-28.04,-16.8,-64.49,-66.79,-10.75,-72.51,-66.86,64.44,6.99,7.414,2.168,10.82,20.21,33.28,42.87,35.61,0,0,0,0,0,0,0,0,0,0,0,0,0,0,0,0,
47,-19.12,-7.601,-52.36,-63.19,-9.998,-65.96,-57.24,62.16,-2.846,11.88,-10.67,3.834,20.52,36.87,35.75,35.37,0,0,0,0,0,0,0,0,0,0,0,0,0,0,0,0,
48,-23.02,-5.529,-43.44,-41.8,-14.84,-59.17,-45.68,60.74,-13.53,14.11,-16.81,-3.118,15.81,35.5,25.19,31.52,0,0,0,0,0,0,0,0,0,0,0,0,0,0,0,0,
49,-30.07,-7.278,-51.9,-43.33,-27.65,-65.21,-45.49,52.92,-30.05,6.404,-26.73,-17.23,3.174,23.67,5.354,16.46,0,0,0,0,0,0,0,0,0,0,0,0,0,0,0,0,
50,-37.14,-16.78,-77.8,-107.4,-41,-79.81,-54.47,32.47,-43.01,0.376,-49.02,-41.25,-16.48,12.84,-23.42,-5.909,0,0,0,0,0,0,0,0,0,0,0,0,0,0,0,0,
51,-44.46,-34.01,-92.29,-126.3,-43.76,-83.29,-59.03,27.65,-36.11,12.06,-58.55,-47.63,-20.5,17.99,-37.93,-11.77,0,0,0,0,0,0,0,0,0,0,0,0,0,0,0,0,
52,-43.07,-41.09,-80.04,-51.89,-37.07,-75.16,-66.12,39.08,-25.56,26.32,-55.84,-35.53,-9.983,29.77,-30.74,-1.083,0,0,0,0,0,0,0,0,0,0,0,0,0,0,0,0,
53,-37.07,-37.7,-67.69,-14.8,-36.38,-72.26,-76.05,42.79,-37.65,18.74,-66.93,-35.56,-13.33,26.49,-21.42,-0.4454,0,0,0,0,0,0,0,0,0,0,0,0,0,0,0,0,
54,-42.83,-43.01,-70.06,-42.42,-42.47,-77.04,-69.01,55.25,-57.65,2.323,-81.47,-45.93,-23.07,13.26,-17.81,-12.19,0,0,0,0,0,0,0,0,0,0,0,0,0,0,0,0,
55,-47.1,-44.04,-66.63,-41.64,-39.61,-70.99,-44.64,85.63,-54.67,1.69,-72.7,-39.07,-13.06,10.33,-7.351,-15.49,0,0,0,0,0,0,0,0,0,0,0,0,0,0,0,0,
56,-30.5,-26.61,-56.31,-28.69,-35.23,-51.03,-30.88,91.65,-38.36,5.877,-49.33,-23.56,0.1333,16.1,9.855,-9.706,0,0,0,0,0,0,0,0,0,0,0,0,0,0,0,0,
57,-18.04,-23.49,-57.32,-45.11,-39.15,-44.11,-44.96,59.09,-31.6,-3.091,-31.44,-26.58,-7.247,20.1,15.1,-8.371,0,0,0,0,0,0,0,0,0,0,0,0,0,0,0,0,
58,-28.92,-46.58,-63.06,-53.39,-35.99,-57.22,-65.89,27.01,-26.82,-13.96,-20.64,-35.71,-18.08,20.18,5.663,-9.089,0,0,0,0,0,0,0,0,0,0,0,0,0,0,0,0,
59,-33.79,-55.74,-59.59,-43.29,-27.59,-58.88,-63.86,16.6,-18.22,-9.395,-15.3,-28.6,-13.24,18.07,0.1371,-0.3028,0,0,0,0,0,0,0,0,0,0,0,0,0,0,0,0,
60,-18.24,-39.42,-52.87,-40.55,-29.91,-43.22,-50.23,15.37,-16.09,7.256,-14.48,-20.65,-4.298,21.07,2.449,15.53,0,0,0,0,0,0,0,0,0,0,0,0,0,0,0,0,
61,-9.117,-29.3,-54.04,-46.83,-36.61,-42.21,-54.32,16.14,-18.75,18.15,-15.91,-26.21,-2.355,27.86,0.4816,21.81,0,0,0,0,0,0,0,0,0,0,0,0,0,0,0,0,
62,-15.41,-32.76,-61.94,-54.59,-41.3,-57.09,-67.26,23.62,-24.19,15.54,-24.57,-30.7,-0.8038,28.54,-6.625,13.91,0,0,0,0,0,0,0,0,0,0,0,0,0,0,0,0,
63,-20.65,-35.09,-69.02,-60.24,-46.75,-64.94,-71.29,30.57,-37.29,9.918,-37.92,-29.01,0.6477,26.95,-12.48,6.18,0,0,0,0,0,0,0,0,0,0,0,0,0,0,0,0,
64,-20.88,-39.65,-71.13,-59.96,-44.36,-64.67,-74.76,27.93,-42.08,10.01,-34.63,-26.41,0.3719,28.13,-11.15,6.179,0,0,0,0,0,0,0,0,0,0,0,0,0,0,0,0,
65,-12.48,-41.64,-62.52,-55.74,-28.24,-53.84,-73.94,31.42,-21.6,14.64,-10.38,-15.5,10.58,32.53,4.268,12.46,0,0,0,0,0,0,0,0,0,0,0,0,0,0,0,0,
66,6.568,-25.35,-50.26,-54.11,-15.76,-35.2,-62.99,49.71,2.922,19.26,7.25,-1.057,29.29,45.03,28.68,26.66,0,0,0,0,0,0,0,0,0,0,0,0,0,0,0,0,
67,17.21,-8.188,-54.79,-53.11,-21.19,-30.1,-59.14,66.59,10.67,20.69,12.71,4.019,39.08,53.65,47.35,40.55,0,0,0,0,0,0,0,0,0,0,0,0,0,0,0,0,
68,19.34,-7.462,-65.54,-53.97,-24.95,-31.09,-57.27,76.63,16.35,24.84,23.81,5.873,36.47,44.04,46.95,38.59,0,0,0,0,0,0,0,0,0,0,0,0,0,0,0,0,
69,24.88,-11.84,-62.7,-60.61,-14.49,-27.31,-49.12,77.45,21.46,37.1,22.32,2.28,24.36,34.53,23.51,23.15,0,0,0,0,0,0,0,0,0,0,0,0,0,0,0,0,
70,15.5,-19.8,-62.72,-56.31,-15.01,-36.91,-54.69,62.45,8.548,50.57,-6.298,-13.35,15.13,40.28,1.342,13.12,0,0,0,0,0,0,0,0,0,0,0,0,0,0,0,0,
71,-3.72,-23.33,-72.46,-58.32,-29.97,-45.88,-58.33,47.8,-7.566,59.12,-25.73,-17.82,26.39,45.99,7.372,19.42,0,0,0,0,0,0,0,0,0,0,0,0,0,0,0,0,
72,0.5413,-7.388,-71.65,-89.62,-31.04,-32.19,-39.43,48.96,-7.551,61.9,-22.45,-3.615,39.73,43.92,23.17,30.92,0,0,0,0,0,0,0,0,0,0,0,0,0,0,0,0,
73,13.65,1.46,-59.89,-77.36,-22.92,-25.4,-35.17,57.81,-9.33,57.24,-26.66,-6.12,30.07,41.88,17.59,29,0,0,0,0,0,0,0,0,0,0,0,0,0,0,0,0,
74,6.718,-13.88,-55.37,-19.47,-28.15,-40.23,-48.94,64.52,-26.86,48.42,-42.27,-30.18,17.66,40.03,2.537,19.58,0,0,0,0,0,0,0,0,0,0,0,0,0,0,0,0,
75,-2.945,-19.42,-61.62,-32.47,-37.68,-46.47,-38.73,65.18,-42.17,44.28,-46.24,-30.04,25.65,39.23,9.165,25.06,0,0,0,0,0,0,0,0,0,0,0,0,0,0,0,0,
76,7.85,-4.424,-63.16,-67.79,-37.09,-35.22,-17.61,62.57,-37.45,49.29,-32.14,3.088,42.37,46.93,36.11,43.09,0,0,0,0,0,0,0,0,0,0,0,0,0,0,0,0,
77,29.64,7.747,-53.05,-21.71,-28.77,-22.75,-9.287,65.19,-14.18,59.65,-4.638,29.64,58.87,66.02,67.1,65.55,0,0,0,0,0,0,0,0,0,0,0,0,0,0,0,0,
78,50.09,20.36,-38.91,15.81,-9.718,-6.332,7.994,75.97,21.09,72.03,41.03,51.73,87.73,96.01,110.7,108.6,0,0,0,0,0,0,0,0,0,0,0,0,0,0,0,0,
79,81.29,46.35,-19.06,-3.574,19.93,24.82,34.26,90.01,57.29,87.11,93.24,89.31,122.2,125.3,158.8,156.2,0,0,0,0,0,0,0,0,0,0,0,0,0,0,0,0,
80,115.3,65.31,-4.114,-8.053,33.47,48.74,36.34,89.4,64.74,94.01,104.5,97.84,120.8,125.9,162.7,153.4,0,0,0,0,0,0,0,0,0,0,0,0,0,0,0,0,
81,104.2,44.54,-25.92,-18.46,6.729,28.22,0.2871,55.13,25.64,70.74,55.65,45.97,68.74,87.11,113,101.9,0,0,0,0,0,0,0,0,0,0,0,0,0,0,0,0,
82,47.37,-11.51,-72.08,-62.53,-34.84,-20.3,-48.98,9.89,-23.95,23.09,-3.897,-12.39,13.92,40.26,60.8,55.72,0,0,0,0,0,0,0,0,0,0,0,0,0,0,0,0,
83,7.846,-52.58,-88.96,-82.42,-45.36,-40.61,-68.91,-2.224,-42.19,-8.432,-33.46,-34.75,-1.03,22.83,36.9,33.69,0,0,0,0,0,0,0,0,0,0,0,0,0,0,0,0,
84,0.7854,-53.07,-77.84,-75.41,-39.1,-35.97,-66.47,4.817,-46.37,-11.01,-48.42,-43.31,3.142,28.51,27.64,23.65,0,0,0,0,0,0,0,0,0,0,0,0,0,0,0,0,
85,-11.5,-53.73,-85.42,-85.24,-52.52,-47.08,-81.1,-7.768,-58.07,-10.9,-59.34,-53.54,-2.208,27.9,22.56,22.47,0,0,0,0,0,0,0,0,0,0,0,0,0,0,0,0,
86,-20.14,-71.53,-97.3,-91.1,-52.26,-52.3,-87.71,-13.97,-51.4,-5.98,-50.9,-50.94,-2.846,22.5,27.99,27.86,0,0,0,0,0,0,0,0,0,0,0,0,0,0,0,0,
87,-0.1944,-67.47,-74.47,-67.37,-18.84,-28.94,-58.97,7.402,-22.88,16.66,-33.6,-36.76,8.609,26.33,37.26,33.41,0,0,0,0,0,0,0,0,0,0,0,0,0,0,0,0,
88,18.36,-44.91,-51.94,-52.03,-4.562,-14.92,-42.43,12.9,-4.588,29.69,-28.04,-26.24,15.4,31.68,36.7,38.35,0,0,0,0,0,0,0,0,0,0,0,0,0,0,0,0,
89,16,-35.45,-58.25,-60.34,-9.834,-14.74,-52.71,0.6465,4.301,24.62,-25.33,-18.38,22.19,34.89,35.87,43.94,0,0,0,0,0,0,0,0,0,0,0,0,0,0,0,0,
90,15.74,-25.69,-58.24,-58.07,0.1043,-2.966,-52.4,6.383,13.71,27.91,-21.93,-9.14,36.19,42.24,46.78,50.73,0,0,0,0,0,0,0,0,0,0,0,0,0,0,0,0,
91,23.13,-7.87,-48.63,-49.14,0.9243,3.16,-45.02,8.603,12.87,36.94,-20.42,-1.057,44.56,50.17,58.99,58.35,0,0,0,0,0,0,0,0,0,0,0,0,0,0,0,0,
92,33.49,0.1805,-52,-53.66,-13.12,-3.194,-41.22,-4.245,5.145,40.36,-10.7,5.61,47.14,56.11,61.79,61.96,0,0,0,0,0,0,0,0,0,0,0,0,0,0,0,0,
93,46.91,5.742,-53.47,-50.44,-13.11,2.174,-25.55,2.477,0.1428,46.42,-4.751,10.38,55.18,63.61,60.98,64.13,0,0,0,0,0,0,0,0,0,0,0,0,0,0,0,0,
94,57.49,26.38,-38.19,-27.33,-2,26.18,-1.953,23.06,0.3634,53.28,-9.95,18.42,70.49,71.45,64.74,71.85,0,0,0,0,0,0,0,0,0,0,0,0,0,0,0,0,
95,69.98,51.67,-17.8,-7.852,12.59,53.41,13.48,28.07,6.347,52.56,-5.767,27.15,80.34,72.28,65.37,72.58,0,0,0,0,0,0,0,0,0,0,0,0,0,0,0,0,
96,77.57,56.31,-7.951,-6.059,24.76,61.16,22.7,26.9,11.3,44.59,2.268,23.78,74.35,66.81,59.11,64.05,0,0,0,0,0,0,0,0,0,0,0,0,0,0,0,0,
97,73.23,52.17,-3.337,-3.257,26.63,57.62,39.59,37.54,18.66,40.49,5.662,24.2,76.34,71.7,64.88,70.83,0,0,0,0,0,0,0,0,0,0,0,0,0,0,0,0,
98,83.3,73.86,6.91,8.944,25.68,64.47,57.42,46.6,27.4,51.18,15.83,37.48,95.02,86.08,78.62,83.23,0,0,0,0,0,0,0,0,0,0,0,0,0,0,0,0,
99,95.41,92.42,2.022,4.129,14.57,57.73,47.81,33.01,17.06,58.05,15.71,32.85,88.34,85.66,74.77,74.61,0,0,0,0,0,0,0,0,0,0,0,0,0,0,0,0,
100,72.41,65.24,-22.2,-16.35,-7.734,28.97,19.09,10.85,-2.613,45.33,-2.943,12.29,55.32,70.84,66.39,62.9,0,0,0,0,0,0,0,0,0,0,0,0,0,0,0,0,
101,45,29.88,-34.01,-24.21,-17.38,14.31,4.267,3.728,-5.789,37.58,-9.053,6.225,40.59,60.56,72.55,61.76,0,0,0,0,0,0,0,0,0,0,0,0,0,0,0,0,
102,41.45,21.98,-35.7,-24.55,-18.4,15.05,0.0458,0.6871,-0.9737,48.03,2.929,10.65,44.32,60.04,77.94,59.72,0,0,0,0,0,0,0,0,0,0,0,0,0,0,0,0,
103,39.06,23.71,-39.66,-24.44,-20.94,14.56,-4.951,-9.861,-2.448,61.34,8.53,13.24,48.18,67.87,72.74,62.47,0,0,0,0,0,0,0,0,0,0,0,0,0,0,0,0,
104,31.48,27.87,-33.56,-21.23,-16.03,13.94,-7.657,-19.03,-10.85,70.71,-0.2743,9.708,51.95,73.67,61.4,67.76,0,0,0,0,0,0,0,0,0,0,0,0,0,0,0,0,
105,22.83,31.23,-25.84,-23.77,-13.4,6.27,-11.11,-25.63,-21.1,72.62,-12.52,-1.985,48.38,69.72,49.36,62.41,0,0,0,0,0,0,0,0,0,0,0,0,0,0,0,0,
106,14.53,24.01,-24.07,-20.42,-15.42,-2.637,-10.38,-28.72,-20.15,67.47,-17.49,-8.662,39.44,67.25,42.83,56.37,0,0,0,0,0,0,0,0,0,0,0,0,0,0,0,0,
107,17.13,17.92,-15.78,-7.793,-6.15,-0.2054,-4.598,-27.1,-10.41,62.38,-17.16,-9.617,36.71,66.06,35.46,54.72,0,0,0,0,0,0,0,0,0,0,0,0,0,0,0,0,
108,17.46,17.9,-13.88,-13.89,1.347,-1.786,-8.748,-35.34,-9.752,52.26,-18.09,-18.64,34.69,56.82,25,51.31,0,0,0,0,0,0,0,0,0,0,0,0,0,0,0,0,
109,3.219,13.68,-28.31,-29.78,-5.038,-10.74,-15.07,-49.02,-13.65,43.19,-18.21,-27.86,29.14,49.04,22.9,51.49,0,0,0,0,0,0,0,0,0,0,0,0,0,0,0,0,
110,-1.014,7.816,-32.8,-25.05,-5.606,-10.16,-11.3,-40.71,-7.294,49.47,-13.42,-28.9,22.39,46.3,22.11,50.97,0,0,0,0,0,0,0,0,0,0,0,0,0,0,0,0,
111,7.235,-0.0174,-24.74,-14.64,-2.197,-12.06,-15.82,-19.69,-3.779,52.46,-9.81,-32.61,10.3,41.32,11.16,41.81,0,0,0,0,0,0,0,0,0,0,0,0,0,0,0,0,
112,-0.5772,-14.17,-33.15,-19.18,-13.76,-29.63,-32.54,-19.33,-17,40.42,-17.78,-42.08,-0.0335,39.99,1.693,34.78,0,0,0,0,0,0,0,0,0,0,0,0,0,0,0,0,
113,-18.76,-20.86,-50.33,-24.06,-24.39,-39.57,-37.58,-33.85,-29.44,34.21,-32.51,-49.17,1.223,41.18,-0.794,31.74,0,0,0,0,0,0,0,0,0,0,0,0,0,0,0,0,
114,-28.11,-14.2,-50.29,-20.47,-21.01,-33.37,-28.92,-40.36,-34.31,34.65,-41.86,-51.93,2.53,34.52,-5.076,23.3,0,0,0,0,0,0,0,0,0,0,0,0,0,0,0,0,
115,-37.75,-9.812,-42.76,-15.92,-20.62,-32.22,-23.94,-38.59,-44.07,32.27,-45.2,-52.87,-0.9644,31.63,-6.488,17.55,0,0,0,0,0,0,0,0,0,0,0,0,0,0,0,0,
116,-49.37,-12.11,-40.69,-9.927,-23.33,-37.67,-27.94,-33.68,-47.9,35.99,-41.52,-50.19,4.537,42.53,2.288,23.09,0,0,0,0,0,0,0,0,0,0,0,0,0,0,0,0,
117,-52.2,-16.47,-41.46,-11.76,-20.73,-41.08,-38.71,-33.29,-39.94,43.73,-32.09,-42.08,14.75,49.7,8.97,30.72,0,0,0,0,0,0,0,0,0,0,0,0,0,0,0,0,
118,-51.61,-25.41,-43.5,-24.06,-18.67,-44.76,-51.48,-43.95,-35.02,46.73,-28.36,-34.95,16.03,46.86,3.939,34.98,0,0,0,0,0,0,0,0,0,0,0,0,0,0,0,0,
119,-50.31,-29.08,-36.71,-23.48,-12.31,-43.44,-58.69,-54.92,-23.9,48.32,-25.47,-32.73,18.1,50.98,2.038,42.21,0,0,0,0,0,0,0,0,0,0,0,0,0,0,0,0,
120,-44.64,-15.3,-25.87,-20.75,-2.725,-37.3,-61.36,-65.52,-1.48,47.9,-14.06,-27.07,28.81,62.35,13.47,52.29,0,0,0,0,0,0,0,0,0,0,0,0,0,0,0,0,
121,-41.92,-1.831,-30.82,-32.13,-3.928,-37.93,-66.8,-78.47,6.218,41.22,-9.668,-17.67,33.03,62.98,21.67,52.22,0,0,0,0,0,0,0,0,0,0,0,0,0,0,0,0,
122,-42.62,-6.649,-37.78,-31.6,-3.646,-37.73,-71.87,-67.72,-0.7415,32.85,-17.26,-17.21,22.98,47.7,14.98,33.96,0,0,0,0,0,0,0,0,0,0,0,0,0,0,0,0,
123,-36.59,-12.48,-29.62,-35.06,14.32,-19.39,-61.9,-35.87,-0.6175,33.43,-23.21,-24.38,8.647,27.86,3.648,7.484,0,0,0,0,0,0,0,0,0,0,0,0,0,0,0,0,
124,-25.31,-6.877,-16.03,-52.4,33.2,8.532,-37.28,-23.92,-0.7074,42.66,-33.5,-29.1,-3.463,13.76,-4.812,-13.98,0,0,0,0,0,0,0,0,0,0,0,0,0,0,0,0,
125,-19.67,-7.727,0.9118,-19.62,32.43,16.36,-22.7,-22.99,-9.955,44.42,-49.45,-35.47,-11.59,3.703,-14.73,-28.27,0,0,0,0,0,0,0,0,0,0,0,0,0,0,0,0,
126,-25,-17.74,10.56,36.09,12.36,-8.193,-30.71,-9.588,-18.16,36.98,-54.79,-49.42,-14.57,-6.364,-30.3,-35.46,0,0,0,0,0,0,0,0,0,0,0,0,0,0,0,0,
127,-40.91,-23.44,-7.707,18.97,-14.75,-44.6,-50.39,-16.49,-27.89,31.97,-57.41,-66.72,-18.3,-10.12,-44.5,-32.92,0,0,0,0,0,0,0,0,0,0,0,0,0,0,0,0,
128,-62.46,-33.44,-33.88,-29.87,-31.47,-65.62,-68.52,-48.19,-40.28,23.33,-64.95,-78.89,-25.59,-5.615,-43.04,-26.06,0,0,0,0,0,0,0,0,0,0,0,0,0,0,0,0,
129,-75.71,-48.83,-36.71,-31.59,-26.59,-61.52,-69.62,-58.31,-38.78,7.903,-60,-79.53,-30.7,-5.567,-31.18,-28.06,0,0,0,0,0,0,0,0,0,0,0,0,0,0,0,0,
130,-74.61,-53.19,-27.95,-15.13,-13.28,-48.7,-55.21,-50.38,-30.86,-0.942,-51.44,-76.23,-34.39,-14.12,-31.2,-40.48,0,0,0,0,0,0,0,0,0,0,0,0,0,0,0,0,
131,-74.77,-54.93,-30.25,-16.69,-14.13,-52.31,-51.81,-49.87,-37.92,-2.006,-60.87,-78.99,-36.37,-19.13,-41.54,-49.21,0,0,0,0,0,0,0,0,0,0,0,0,0,0,0,0,
132,-82.22,-61.86,-40.09,-23.15,-29.34,-67.32,-61.19,-43.51,-50.29,-1.098,-71.57,-80.1,-26.99,-13.92,-41.09,-47.18,0,0,0,0,0,0,0,0,0,0,0,0,0,0,0,0,
133,-82.82,-58.99,-45.83,-25.5,-42.64,-71.38,-62.9,-36.49,-55.39,1.886,-66.82,-75.41,-12.7,-5.039,-31.37,-41.74,0,0,0,0,0,0,0,0,0,0,0,0,0,0,0,0,
134,-74.26,-49.12,-44.13,-26.63,-40.78,-63.98,-58.59,-42.8,-58.95,1.659,-58.35,-72.63,-11.12,-1.976,-29.67,-37.73,0,0,0,0,0,0,0,0,0,0,0,0,0,0,0,0,
135,-65.23,-44.37,-39.14,-27.73,-26.3,-58.35,-55.7,-39.42,-60.12,-3.405,-54.27,-67.07,-15.9,-4.434,-31.99,-31.91,0,0,0,0,0,0,0,0,0,0,0,0,0,0,0,0,
136,-57.16,-39.3,-40.27,-30.87,-21.51,-60.61,-51.75,-23.76,-56.33,-4.087,-51.96,-53.88,-11.78,-2.372,-25.67,-24.25,0,0,0,0,0,0,0,0,0,0,0,0,0,0,0,0,
137,-49.61,-29.64,-44.01,-34.99,-32.51,-61.4,-45.71,-16.65,-51.46,1.611,-50.78,-44.01,-4.658,4.423,-18.12,-21.31,0,0,0,0,0,0,0,0,0,0,0,0,0,0,0,0,
138,-42.09,-16.68,-35.59,-30.16,-39.48,-49.25,-33.89,-10.93,-47.53,7.468,-52.33,-39.96,-2.003,5.913,-14.47,-24.13,0,0,0,0,0,0,0,0,0,0,0,0,0,0,0,0,
139,-30.96,-2.153,-21.46,-16.13,-39.43,-34.96,-17.72,-2.198,-47.07,11.07,-57.41,-35.47,-0.0762,1.515,-8.862,-27.44,0,0,0,0,0,0,0,0,0,0,0,0,0,0,0,0,
140,-18.15,5.033,-16.64,-8.775,-39.17,-30.18,-8.547,2.824,-47.23,11.71,-60.75,-34.57,-1.818,-2.194,-9.651,-29.81,0,0,0,0,0,0,0,0,0,0,0,0,0,0,0,0,
141,-11.23,2.861,-16.22,-6.614,-32.09,-27.03,-7.905,11.82,-38.08,13.12,-53.38,-31.84,-5.281,-0.1671,-17.21,-27.84,0,0,0,0,0,0,0,0,0,0,0,0,0,0,0,0,
142,-8.126,6.835,-16.75,-2.356,-24.66,-21.13,-7.743,18.23,-21.74,19.27,-38.55,-18.36,0.264,5.016,-15.82,-22.97,0,0,0,0,0,0,0,0,0,0,0,0,0,0,0,0,
143,-3.026,18.91,-21.18,-8.631,-29.06,-12.9,-9.772,6.581,-8.921,16.7,-28.93,-12.55,3.859,2.933,-9.662,-25.7,0,0,0,0,0,0,0,0,0,0,0,0,0,0,0,0,
144,1.191,15.67,-19.06,-17.66,-28.85,0.4795,-19.55,-11,5.476,-0.0823,-16.33,-17.12,-3.042,1.046,-2.958,-25.83,0,0,0,0,0,0,0,0,0,0,0,0,0,0,0,0,
145,5.515,-1.318,-11.38,-18.53,-14.57,8.661,-28.39,-19,23.05,-9.06,7.304,-10.54,-2.753,11.16,6.697,-13.91,0,0,0,0,0,0,0,0,0,0,0,0,0,0,0,0,
146,4.884,-2.171,-17.51,-28.32,-14.53,-0.0533,-24.86,-20.81,21.36,-8.732,9.975,-10.37,2.968,13.95,0.6677,-11.99,0,0,0,0,0,0,0,0,0,0,0,0,0,0,0,0,
147,-11.19,11.21,-23.66,-25.64,-29.46,-7.267,-9.116,-18.01,5.965,-16.31,-14.04,-25.12,5.045,4.317,-14.38,-17.27,0,0,0,0,0,0,0,0,0,0,0,0,0,0,0,0,
148,-18.34,22.46,-4.173,1.134,-21.12,7.865,14.12,-7.023,11.24,-19.77,-16.7,-16.36,18.95,8.863,-6.194,-5.138,0,0,0,0,0,0,0,0,0,0,0,0,0,0,0,0,
149,2.214,37.71,8.218,-11.31,-4.885,22.08,28.05,2.138,23.54,-12.64,1.876,7.479,35.77,23.41,9.897,7.479,0,0,0,0,0,0,0,0,0,0,0,0,0,0,0,0,
150,17.16,48.7,-15.01,-47.35,-20.48,10.45,12.56,-8.561,17.96,-13.86,4.173,10.41,35.28,28.33,7.024,5.239,0,0,0,0,0,0,0,0,0,0,0,0,0,0,0,0,
151,13.95,40.48,-31.51,-25.33,-38.45,-4.606,-15.38,-33.39,19.31,-17.67,-0.179,6.887,33.66,29.6,-0.9113,4.206,0,0,0,0,0,0,0,0,0,0,0,0,0,0,0,0,
152,15.92,28.91,-21.19,9.012,-29.3,-4.517,-21.73,-45.67,34.31,-9.012,3.325,7.216,37.24,30.21,0.2138,6.034,0,0,0,0,0,0,0,0,0,0,0,0,0,0,0,0,
153,21.66,30.4,-13.67,0.4583,-16.99,3.109,-2.338,-39.82,39.52,1.977,9.142,9.691,39.53,32.4,12.22,11.05,0,0,0,0,0,0,0,0,0,0,0,0,0,0,0,0,
154,32.08,48.45,-1.505,9.347,-6.232,25.48,32.36,-29.53,43.18,10.76,22.15,32.51,54.61,45.15,31.47,23.76,0,0,0,0,0,0,0,0,0,0,0,0,0,0,0,0,
155,60.31,81.59,27.74,42.58,12.31,57.61,66.72,-16.69,55.1,20.74,32.1,57.41,70.26,54.26,38.66,25.88,0,0,0,0,0,0,0,0,0,0,0,0,0,0,0,0,
156,83.51,102.6,41.78,43.49,23.48,67.74,76.54,2.186,61.27,25.45,27.16,53.93,63.94,50.5,31.8,19.32,0,0,0,0,0,0,0,0,0,0,0,0,0,0,0,0,
157,82.52,97.53,36.74,31.54,26.63,64.6,71.08,29.03,62.35,29.47,26.51,48.1,63.33,53.39,34.99,32.11,0,0,0,0,0,0,0,0,0,0,0,0,0,0,0,0,
158,82.18,100.9,41.13,40.79,30.52,76.76,81.58,61.64,66.3,36.68,32.98,55.82,79.81,61.89,45.71,50.09,0,0,0,0,0,0,0,0,0,0,0,0,0,0,0,0,
159,86.82,118.3,42.07,46.44,23.17,79.26,96.33,80.25,66.98,33.33,28.16,50.25,78.78,58.23,44.22,45.18,0,0,0,0,0,0,0,0,0,0,0,0,0,0,0,0,
160,76.08,115.7,23.76,33.59,9.147,57.71,93.99,76.92,64.95,26.06,25.21,41.62,69.2,55.48,48.06,40.65,0,0,0,0,0,0,0,0,0,0,0,0,0,0,0,0,
161,71.61,105.9,13.55,21.33,9.226,53.6,89.4,70.89,68.19,29.37,39.86,57.25,79.47,64.85,72.42,55.04,0,0,0,0,0,0,0,0,0,0,0,0,0,0,0,0,
162,87.81,110.3,18.66,17.44,14.82,68.42,85.84,65.22,71.19,28.58,50.02,69.44,86.18,68.49,85.61,63.08,0,0,0,0,0,0,0,0,0,0,0,0,0,0,0,0,
163,89.95,107.2,21.67,20.7,16.5,68.56,78.46,53.79,69.69,23.44,45.81,56.75,81.56,66.94,77.6,61.7,0,0,0,0,0,0,0,0,0,0,0,0,0,0,0,0,
164,80.57,99.06,28.3,33.45,23.84,65.82,83.43,46.25,71.36,28.59,44.32,45.03,85.61,70.48,72.84,63.51,0,0,0,0,0,0,0,0,0,0,0,0,0,0,0,0,
165,81.35,97.33,30.23,36.12,19.03,63.34,86.17,40.84,67.59,27.08,36.45,32.35,74.72,59.07,60.98,46.48,0,0,0,0,0,0,0,0,0,0,0,0,0,0,0,0,
166,62.93,78.27,10.4,12.28,-10.91,40.07,63.61,34.03,47.18,15.58,13.22,4.381,43.26,32.9,36.45,13.34,0,0,0,0,0,0,0,0,0,0,0,0,0,0,0,0,
167,29.29,50.9,-7.263,-8.176,-29.84,17.11,43.84,30.96,30.47,16.35,3.334,-9.615,35.5,27.46,31.76,6.284,0,0,0,0,0,0,0,0,0,0,0,0,0,0,0,0,
168,24.55,43.99,-12.76,-8.183,-26.94,11.28,38.44,18.77,27.8,20.58,9.245,-1.967,47.09,42.2,42.37,21.28,0,0,0,0,0,0,0,0,0,0,0,0,0,0,0,0,
169,31.97,44.58,-25.91,-16.77,-30.61,4.239,25.65,2.238,21.35,17.97,4.649,0.2593,48.69,52.27,42.23,28.19,0,0,0,0,0,0,0,0,0,0,0,0,0,0,0,0,
170,25.31,42.68,-34.73,-28.33,-35.43,-3.118,16.81,8.341,17.45,20.8,2.827,2.778,54.75,58.04,43.18,33.55,0,0,0,0,0,0,0,0,0,0,0,0,0,0,0,0,
171,24.13,40.04,-26.83,-14.67,-28.09,-1.788,19.75,19.58,29.56,24.53,16.82,13.64,65.24,59.53,50.63,42.83,0,0,0,0,0,0,0,0,0,0,0,0,0,0,0,0,
172,30.35,27.42,-20.99,-14.41,-22.19,3.371,14.94,14.92,38.04,22.52,18.68,12.3,57.62,50.32,47.21,41.16,0,0,0,0,0,0,0,0,0,0,0,0,0,0,0,0,
173,27.84,18.02,-22.1,-48.59,-19.63,7.634,8.939,19.17,35.5,21.43,6.16,1.016,42.49,39.39,31.87,26.72,0,0,0,0,0,0,0,0,0,0,0,0,0,0,0,0,
174,26.28,29.16,-16.57,-40.1,-12.63,8.913,18.54,30.95,42.08,22.53,11.53,4.623,41.32,35.21,17.05,13.35,0,0,0,0,0,0,0,0,0,0,0,0,0,0,0,0,
175,42.46,46.91,-0.4027,24.7,-3.397,16.06,33.14,23.43,58.36,28.11,32.33,21.36,53.91,37.73,13.08,14.71,0,0,0,0,0,0,0,0,0,0,0,0,0,0,0,0,
176,64.51,53.95,13.66,46.47,3.944,28.89,32.44,6.312,68.47,32.62,38.59,27.45,62.22,40.24,16.79,23.24,0,0,0,0,0,0,0,0,0,0,0,0,0,0,0,0,
177,65.44,45.35,11.79,11.64,2.362,27.32,13.48,-9.796,66.67,23.14,28.23,17.82,51.73,32.34,14.46,19.54,0,0,0,0,0,0,0,0,0,0,0,0,0,0,0,0,
178,50.48,29.21,3.423,-3.228,-4.725,15.28,0.7783,-23.35,55.02,13.23,16.18,8.276,41.9,26.08,8.783,16.82,0,0,0,0,0,0,0,0,0,0,0,0,0,0,0,0,
179,40.6,25.35,3.376,6.807,-2.753,8.35,10.73,-14.31,42.58,20.38,4.195,4.382,53.71,38.49,9.457,32.39,0,0,0,0,0,0,0,0,0,0,0,0,0,0,0,0,
180,31.39,36.62,6.837,5.751,2.586,1.927,23.21,7.504,39.71,30.99,1.877,5.441,67.19,50.95,14.92,44.18,0,0,0,0,0,0,0,0,0,0,0,0,0,0,0,0,
181,29.32,49.34,12.7,2.129,4.518,7.933,28.97,14.15,54.02,34.6,30.62,23.52,71.76,52.85,32.99,49.06,0,0,0,0,0,0,0,0,0,0,0,0,0,0,0,0,
182,55.41,63.73,32.36,15.57,21.99,43.25,48.26,25.59,93.22,44.79,84.82,61,89.48,71.49,73.62,78.29,0,0,0,0,0,0,0,0,0,0,0,0,0,0,0,0,
183,89.65,81.99,60.76,39.82,55.03,79.53,78.41,53.85,140.4,64.54,133.4,95.18,115.3,105.6,119.3,121.9,0,0,0,0,0,0,0,0,0,0,0,0,0,0,0,0,
184,100.1,89.29,76.57,53.51,73.22,87.02,92.27,63.83,157.2,74.38,151.4,103,122.7,118.4,137.6,139.4,0,0,0,0,0,0,0,0,0,0,0,0,0,0,0,0,
185,90.61,80.26,72.22,48.02,63.32,78.3,84.03,47.28,132.9,64.93,125.8,79,113.7,105.2,111.1,123,0,0,0,0,0,0,0,0,0,0,0,0,0,0,0,0,
186,67.56,67.95,52.47,31.38,28.47,59.7,65.27,26.88,84.67,48.51,66.58,35.97,95.29,82.88,56.73,87.63,0,0,0,0,0,0,0,0,0,0,0,0,0,0,0,0,
187,30.21,53.26,17.25,7.8,-22.94,21.97,39.02,1.859,34.08,32.79,13.06,-1.341,62.86,51.86,12.89,49.71,0,0,0,0,0,0,0,0,0,0,0,0,0,0,0,0,
188,1.302,27.5,-22.62,-18.32,-60.44,-11.96,10.02,-34.71,7.411,16.19,-8.013,-16.72,32.06,21.77,-5.623,24.77,0,0,0,0,0,0,0,0,0,0,0,0,0,0,0,0,
189,0.6116,1.339,-42.75,-36.14,-62.37,-16.96,-6.257,-63.96,10.34,6.742,-7.171,-14.41,22.46,11.2,-11.34,12.36,0,0,0,0,0,0,0,0,0,0,0,0,0,0,0,0,
190,9.391,-6.448,-39.41,-38.64,-47.02,-10.63,-5.096,-63.55,19.11,10.66,-3.298,-9.341,23.45,11.43,-12.24,4.039,0,0,0,0,0,0,0,0,0,0,0,0,0,0,0,0,
191,6.308,1.186,-34.02,-29.51,-39.62,-11.63,3.76,-42.24,17.92,17.32,-2.924,-12.67,21.85,7.389,-12.58,3.857,0,0,0,0,0,0,0,0,0,0,0,0,0,0,0,0,
192,-0.0641,9.035,-39.59,-23.14,-45.65,-14.24,14.77,-25.6,9.226,18.55,-5.64,-22.72,23.67,5.032,-16.34,12.19,0,0,0,0,0,0,0,0,0,0,0,0,0,0,0,0,
193,-4.097,9.641,-49,-29.73,-56.87,-20.45,12.94,-25.21,-2.659,14.23,-10.55,-31.94,24.66,1.921,-19.91,11.84,0,0,0,0,0,0,0,0,0,0,0,0,0,0,0,0,
194,-16.55,-5.507,-58.05,-48.22,-61.86,-37.44,-18.93,-42.34,-11.21,0.9585,-11.74,-33.05,15.49,-10.38,-18.55,2.75,0,0,0,0,0,0,0,0,0,0,0,0,0,0,0,0,
195,-23.67,-26.2,-63.53,-61.88,-53.91,-44.9,-41.12,-57.69,-2.543,-10.87,5.622,-12.56,18.82,-11.78,-5.377,12.49,0,0,0,0,0,0,0,0,0,0,0,0,0,0,0,0,
196,1.354,-11.2,-42.51,-41.14,-34.39,-18.95,-5.466,-39.13,23.6,-6.408,36.87,24.07,47.02,6.704,16.21,39.21,0,0,0,0,0,0,0,0,0,0,0,0,0,0,0,0,
197,32.85,28.63,-0.7134,-1.586,-18.62,11.58,37.62,-5.313,36.32,-2.863,50.02,38.9,57.68,12.06,20.18,45.01,0,0,0,0,0,0,0,0,0,0,0,0,0,0,0,0,
198,23.05,28.96,9.158,2.321,-19.05,5.134,25.65,0.4755,21.82,-13.37,38.41,21.8,30.2,-5.674,1.502,23.36,0,0,0,0,0,0,0,0,0,0,0,0,0,0,0,0,
199,-10.36,-1.611,-14.74,-21.82,-23.74,-16.21,-5.327,-8.974,10.78,-17.77,25.83,6.284,4.502,-17.73,-10.82,4.602,0,0,0,0,0,0,0,0,0,0,0,0,0,0,0,0,
200,-22.33,-11.9,-25.46,-31.56,-26.16,-18.62,-16.59,-7.407,14.6,-16.11,19.33,5.528,-0.9188,-15.95,-8.165,6.375,0,0,0,0,0,0,0,0,0,0,0,0,0,0,0,0,
201,-20.45,-13.14,-27.74,-36.13,-35.55,-18.56,-24.56,-5.713,13.29,-24.61,17.12,6.387,-2.529,-11.58,-4.231,18.82,0,0,0,0,0,0,0,0,0,0,0,0,0,0,0,0,
202,-27.58,-22.48,-39.76,-47.43,-42.6,-30.85,-33.27,-12.15,6.475,-34.4,23.28,1.922,-2.75,-9.204,-2.719,20.05,0,0,0,0,0,0,0,0,0,0,0,0,0,0,0,0,
203,-38,-29.89,-41.74,-50.39,-36.79,-43.69,-38.75,-23.1,0.3647,-43,25.25,-11.98,-5.409,-13.31,-6.963,7.813,0,0,0,0,0,0,0,0,0,0,0,0,0,0,0,0,
204,-45.18,-42.74,-37.95,-52.94,-34.13,-50.37,-47.06,-37.24,-9.46,-54.61,9.507,-27.27,-16.9,-20.05,-16.13,6.212,0,0,0,0,0,0,0,0,0,0,0,0,0,0,0,0,
205,-47.1,-53.68,-49.01,-64.13,-45.32,-48.84,-49.48,-38.71,-16.07,-51.15,-6.994,-24.46,-20.44,-18.37,-15.41,19.78,0,0,0,0,0,0,0,0,0,0,0,0,0,0,0,0,
206,-39.01,-41.55,-57.43,-63.49,-53.99,-40.68,-42.83,-16.66,-12.74,-31.62,-5.444,-11.97,-10.63,-13.2,-6.244,24.33,0,0,0,0,0,0,0,0,0,0,0,0,0,0,0,0,
207,-30.48,-27.53,-49.56,-48.87,-46.52,-36.82,-39.56,-2.962,-6.649,-20.19,4.071,-13.31,-8.002,-14.04,-3.082,15.73,0,0,0,0,0,0,0,0,0,0,0,0,0,0,0,0,
208,-31,-34.76,-46.62,-46.98,-38.59,-42.67,-43.4,-27.46,-1.584,-19.42,13.82,-18.34,-10.65,-11.58,0.2261,14.8,0,0,0,0,0,0,0,0,0,0,0,0,0,0,0,0,
209,-32.87,-44.1,-61.18,-62.22,-50.81,-56.31,-53.4,-57.46,-1.348,-17.89,28.11,-12.27,-2.484,1.143,6.58,22.49,0,0,0,0,0,0,0,0,0,0,0,0,0,0,0,0,
210,-39.86,-45.01,-83.79,-78.58,-76.27,-75.44,-67.71,-57.41,-17.35,-18.99,30.37,-15.01,2.239,7.338,1.151,21.41,0,0,0,0,0,0,0,0,0,0,0,0,0,0,0,0,
211,-60.38,-50.67,-100.6,-88.02,-92.54,-86.73,-74.7,-52.08,-38.09,-27.78,15.24,-28.18,-5.01,1.941,-5.654,19.81,0,0,0,0,0,0,0,0,0,0,0,0,0,0,0,0,
212,-67.97,-53.08,-96.26,-81.31,-84.67,-74.56,-66.27,-59.58,-31.44,-34.38,12.65,-18.47,0.3521,6.545,8.031,36.24,0,0,0,0,0,0,0,0,0,0,0,0,0,0,0,0,
213,-40.41,-37.87,-71.73,-60.1,-58.95,-48.72,-48.89,-59.29,-3.513,-29.96,23.63,8.693,18.72,17.23,26.55,53.28,0,0,0,0,0,0,0,0,0,0,0,0,0,0,0,0,
214,-6.9,-17.51,-47.14,-42.52,-38.31,-28.94,-28.75,-47.26,11.87,-23.58,25.46,17.77,24.33,9.257,25.09,47.74,0,0,0,0,0,0,0,0,0,0,0,0,0,0,0,0,
215,3.234,-4.629,-33.08,-32.07,-29.25,-16.69,-9.243,-31.81,14.87,-22.17,29.52,11.39,20.21,-5.338,8.626,32.46,0,0,0,0,0,0,0,0,0,0,0,0,0,0,0,0,
216,3.083,1.316,-29.76,-29.13,-22.55,-8.683,-1.488,-17.18,18.66,-17.16,44.33,9.185,19.21,-5.353,-5.174,25.33,0,0,0,0,0,0,0,0,0,0,0,0,0,0,0,0,
217,12.04,1.91,-35.11,-34.39,-20.1,-2.722,-2.818,-17.42,17.61,-7.538,50.58,12.19,18.04,-1.542,-8.322,23.7,0,0,0,0,0,0,0,0,0,0,0,0,0,0,0,0,
218,26.76,7.879,-37.54,-28.27,-19.74,7.664,5.644,-29.73,14.03,-3.178,46.19,17.21,18.79,-1.177,-4.881,25.6,0,0,0,0,0,0,0,0,0,0,0,0,0,0,0,0,
219,36.68,22.83,-30.37,-10.45,-10.6,19.7,18.16,-33.61,18.11,-6.256,48.51,22.09,23.66,3.736,1.416,37.73,0,0,0,0,0,0,0,0,0,0,0,0,0,0,0,0,
220,45.75,31.22,-16.9,-0.8893,3.132,29.61,22.75,-27.96,30.1,-10.83,60.71,27.74,31.06,12.1,11.4,57.46,0,0,0,0,0,0,0,0,0,0,0,0,0,0,0,0,
221,62,35.58,-1.052,6.624,14.37,42.33,34.33,-22.45,45.02,-8.719,68.9,40.6,47.06,21.63,19.03,70.95,0,0,0,0,0,0,0,0,0,0,0,0,0,0,0,0,
222,74.45,51.43,8.092,16.94,26.52,53.06,52.05,-21.28,54.97,1.197,68.67,57.67,62.45,30.32,19.48,70.17,0,0,0,0,0,0,0,0,0,0,0,0,0,0,0,0,
223,71.72,65.52,11.45,22.48,38.42,55.3,57.45,-22.4,59.07,7.887,71.68,66.04,58.47,27.12,17.15,56.29,0,0,0,0,0,0,0,0,0,0,0,0,0,0,0,0,
224,64.09,60.59,20.45,29.74,45.6,56.13,57.59,-16.81,62.73,7.544,76.1,59.04,44.69,12.76,10.34,36.47,0,0,0,0,0,0,0,0,0,0,0,0,0,0,0,0,
225,57.29,46.44,24.04,31.86,47.03,53.46,52.87,-10.73,58.48,7.547,68.84,39.92,35.02,0.8745,-5.633,22.93,0,0,0,0,0,0,0,0,0,0,0,0,0,0,0,0,
226,38.47,30.44,13.64,18.84,44.53,35.94,30.37,-16.37,44.99,6.683,56.93,18.81,24.97,-5.214,-19.43,21.54,0,0,0,0,0,0,0,0,0,0,0,0,0,0,0,0,
227,10.13,12.56,13.22,12.55,46.34,12.23,12.63,-21.49,39.69,0.6552,53.83,9.034,20.54,-3.161,-15.8,29.15,0,0,0,0,0,0,0,0,0,0,0,0,0,0,0,0,
228,-5.067,2.411,22.8,15.65,49.71,-5.469,14.19,-23.04,38.37,-6.312,49.41,9.127,22.46,6.421,-9.349,35.1,0,0,0,0,0,0,0,0,0,0,0,0,0,0,0,0,
229,-7.206,-3.277,11.57,2.291,38.77,-22.86,7.631,-33.94,22.36,-11.36,26.92,-1.277,7.84,3.774,-28.66,23.36,0,0,0,0,0,0,0,0,0,0,0,0,0,0,0,0,
230,-17.52,-15.99,-8.794,-15.18,18.71,-39.45,-8.706,-39.98,2.508,-17.65,-2.682,-27.21,-23.81,-15.28,-59.68,0.4586,0,0,0,0,0,0,0,0,0,0,0,0,0,0,0,0,
231,-38.86,-30.99,-10.31,-15.17,4.412,-51.47,-19.5,-32.5,-7.448,-28.57,-15.13,-51.2,-49.91,-29.07,-70.27,-11.58,0,0,0,0,0,0,0,0,0,0,0,0,0,0,0,0,
232,-59.22,-48.52,-11.57,-19.43,-5.564,-66.44,-39.2,-31.99,-16.58,-39.26,-14.84,-67.64,-66.57,-37.17,-76.54,-21.83,0,0,0,0,0,0,0,0,0,0,0,0,0,0,0,0,
233,-70.93,-71.05,-30.47,-39.49,-14.02,-80.33,-64.67,-39.45,-29.4,-40.54,-24.73,-83.7,-80.82,-53.6,-102.7,-45.61,0,0,0,0,0,0,0,0,0,0,0,0,0,0,0,0,
234,-76.41,-86,-45.93,-49.68,-22.46,-83.95,-71.39,-40.22,-41.17,-36.21,-40.95,-97.18,-93.22,-68.66,-123.8,-61.91,0,0,0,0,0,0,0,0,0,0,0,0,0,0,0,0,
235,-83,-87.17,-32.97,-34.71,-25.47,-78.7,-60.28,-29.68,-45.32,-31.7,-38.66,-97.75,-95.42,-66.33,-114.9,-53.97,0,0,0,0,0,0,0,0,0,0,0,0,0,0,0,0,
236,-80.41,-74.87,6.038,-3.993,-14.81,-65.96,-42.21,-9.275,-41.18,-22.11,-22.61,-86.03,-83.27,-53.44,-96.41,-41.33,0,0,0,0,0,0,0,0,0,0,0,0,0,0,0,0,
237,-62.65,-54.63,49.78,34.27,0.3282,-50.84,-21.94,12.39,-40.12,-10.98,-20.23,-79.18,-73.65,-45.32,-92.24,-40.08,0,0,0,0,0,0,0,0,0,0,0,0,0,0,0,0,
238,-52.43,-41.59,107.8,90.25,30.77,-26.69,3.738,39.23,-34.32,-2.382,-21.81,-76.47,-68.85,-38.1,-91.3,-36.25,0,0,0,0,0,0,0,0,0,0,0,0,0,0,0,0,
239,-46.96,-30,198.4,167.1,87.66,20.4,44.84,81.32,-8.122,9.216,0.0489,-52.82,-46.18,-21.93,-71.93,-15.7,0,0,0,0,0,0,0,0,0,0,0,0,0,0,0,0,
240,-16.46,-4.697,294.7,251.3,136.8,74.43,95.99,134.8,24.56,22.25,32.09,-10.67,-10.5,-4.712,-38.01,9.443,0,0,0,0,0,0,0,0,0,0,0,0,0,0,0,0,
241,28.84,26.7,407.2,358.5,190.9,125.8,149.3,208.3,54.09,38.28,48.48,19.25,14.26,3.659,-14.89,19.11,0,0,0,0,0,0,0,0,0,0,0,0,0,0,0,0,
242,57.12,50.84,569.7,495.1,278.9,181.6,200.8,294.2,78.1,62.95,49.46,28.14,26.09,5.329,-12.67,17.01,0,0,0,0,0,0,0,0,0,0,0,0,0,0,0,0,
243,70.16,65.21,696.2,605.1,332,225.7,240.2,359.5,84.87,87.64,49.09,36.41,38.66,11.29,-9.049,26.65,0,0,0,0,0,0,0,0,0,0,0,0,0,0,0,0,
244,93.33,85.84,709.5,660.3,335.7,261.6,281,413.7,89.34,106,54.51,56.8,59.94,29.3,2.931,45.66,0,0,0,0,0,0,0,0,0,0,0,0,0,0,0,0,
245,128.1,120.4,687.6,686.8,371.4,306,332,464.1,101.9,118.7,57.26,70.57,75.77,42.33,0.5009,44.26,0,0,0,0,0,0,0,0,0,0,0,0,0,0,0,0,
246,146.1,138.2,695.3,690.6,418.5,334.3,362.9,483.4,105.7,123.5,62.25,69.24,75.6,38.8,1.075,34.68,0,0,0,0,0,0,0,0,0,0,0,0,0,0,0,0,
247,144.7,132.1,699.9,683.3,419.2,336.5,369.2,488.8,110.2,123.3,80.21,75.77,74.54,40,31.02,51.15,0,0,0,0,0,0,0,0,0,0,0,0,0,0,0,0,
248,144.1,130.5,693.1,688.9,411,332.8,369.3,500.5,119.7,119.3,81.75,84.75,72.63,49.88,49.23,68.4,0,0,0,0,0,0,0,0,0,0,0,0,0,0,0,0,
249,137,128.7,697.3,697.8,410.9,322.4,357.7,495.1,110.4,112.9,59.22,76.76,63.94,53.36,37.92,62.01,0,0,0,0,0,0,0,0,0,0,0,0,0,0,0,0,
250,123.3,120,698.9,690.4,385.9,306.2,340.1,472.4,92.93,112.4,59.32,72.58,66.05,55.23,39.74,62.31,0,0,0,0,0,0,0,0,0,0,0,0,0,0,0,0,
251,124.2,122.6,671,655.9,348.8,294.6,328.3,440.5,89.14,111.9,81.26,82.16,76.43,54.2,50.37,71.32,0,0,0,0,0,0,0,0,0,0,0,0,0,0,0,0,
252,132,132.7,620.1,594,328.4,285.1,315.3,398.4,91.9,105.1,85.39,89.58,81.74,47.07,49.05,68.6,0,0,0,0,0,0,0,0,0,0,0,0,0,0,0,0,
253,131.5,141.5,563,529.8,308.5,271.1,299.4,363.8,92.12,101.4,74.62,95.57,89.84,49.99,54.49,68.41,0,0,0,0,0,0,0,0,0,0,0,0,0,0,0,0,
254,123.7,143.8,490.8,473,264.9,238.9,268.3,325.7,77.26,97.05,57.97,91.32,87.65,56.8,54.47,66.1,0,0,0,0,0,0,0,0,0,0,0,0,0,0,0,0,
255,100.4,121.4,405.9,404.4,212.3,189,210,266.3,44.76,85.59,35.73,69.26,62.77,49.2,33.85,45.37,0,0,0,0,0,0,0,0,0,0,0,0,0,0,0,0,
256,69.6,89.48,341.5,334.2,178.7,155.8,165.4,224.6,21.35,80,27.32,55.85,46.87,39.78,25.33,34.84,0,0,0,0,0,0,0,0,0,0,0,0,0,0,0,0,
257,57.25,86.4,302.1,290.7,158.2,147.9,165.1,215.1,12.31,77.32,30.77,55.75,51.88,39.08,31.83,46.02,0,0,0,0,0,0,0,0,0,0,0,0,0,0,0,0,
258,51.68,94.27,256.1,257.7,129.2,130.2,167,193.1,-1.54,62.5,27.04,50.09,53.65,39.2,30.26,50.02,0,0,0,0,0,0,0,0,0,0,0,0,0,0,0,0,
259,33.21,79.4,202.1,208.3,98.55,100.2,138.7,155.5,-10.36,47.24,28.76,47.33,50.33,39.25,32.55,43.88,0,0,0,0,0,0,0,0,0,0,0,0,0,0,0,0,
260,22.66,62.58,164.3,157.3,82.14,86.72,106.5,135.5,-0.8893,42.87,44.64,50.11,47.72,36.45,41.98,39.02,0,0,0,0,0,0,0,0,0,0,0,0,0,0,0,0,
261,31.38,64.68,137.2,122.1,75.83,85.75,90.24,126.5,15.28,34.59,56.13,47.68,37.09,25.1,42.08,32.4,0,0,0,0,0,0,0,0,0,0,0,0,0,0,0,0,
262,42.19,66.29,112,98.48,79.71,86.36,84.15,112.5,34.34,19.21,61.13,47.83,22.66,12.96,35.33,27.73,0,0,0,0,0,0,0,0,0,0,0,0,0,0,0,0,
263,47.88,59.25,99.65,87.82,94.08,93.99,85.38,99.35,52.29,11.27,67.99,48.04,16.63,8.051,27.02,29.3,0,0,0,0,0,0,0,0,0,0,0,0,0,0,0,0,
264,44.34,58.48,86.27,79.35,96.58,94.44,87.38,84.59,54.74,10.4,68.64,39.45,19.38,8.953,20.44,32.08,0,0,0,0,0,0,0,0,0,0,0,0,0,0,0,0,
265,28.93,64.23,62.2,59.72,86.82,80.88,82.88,74.25,46.74,12.09,55.63,28.89,21.28,11.45,17.42,27.71,0,0,0,0,0,0,0,0,0,0,0,0,0,0,0,0,
266,12.32,61.98,53.21,47.17,85.62,73.82,75.11,82.28,36.6,19.39,32.66,8.412,7.959,7.296,4.091,5.907,0,0,0,0,0,0,0,0,0,0,0,0,0,0,0,0,
267,-5.333,43.61,45.73,39.46,74.94,65.68,57.94,85.13,21.18,21.96,13.72,-22.84,-23.23,-8.03,-17.14,-25.26,0,0,0,0,0,0,0,0,0,0,0,0,0,0,0,0,
268,-26.84,12.78,7.19,10.29,38.85,40.38,27.8,63.83,9.322,10.96,11.65,-35.6,-54.45,-23.93,-23.38,-39.45,0,0,0,0,0,0,0,0,0,0,0,0,0,0,0,0,
269,-33.8,-12.68,-29.45,-18.67,11.99,25.52,13.08,46.49,8.136,2.837,19.49,-22.6,-62.87,-25.43,-14.11,-28.61,0,0,0,0,0,0,0,0,0,0,0,0,0,0,0,0,
270,-17.58,-12.12,-30.13,-18.13,14.5,35.97,28.65,48.5,10.26,8.546,26.2,-4.373,-45.86,-13.23,-4.912,-11.03,0,0,0,0,0,0,0,0,0,0,0,0,0,0,0,0,
271,-2.25,4.614,-24.01,-9.386,18.48,41.12,40.9,53.2,9.01,14.2,28.73,6.054,-29.06,-2.835,-0.9842,-5.251,0,0,0,0,0,0,0,0,0,0,0,0,0,0,0,0,
272,-4.087,11.87,-35.09,-11.6,8.663,33.59,32.43,52.07,3.616,12.37,27.75,9.632,-25.24,-1.486,4.708,-6.85,0,0,0,0,0,0,0,0,0,0,0,0,0,0,0,0,
273,-5.875,17.61,-43.53,-17.64,5.49,36.05,25.96,45.68,1.622,11.13,29.97,14.39,-21.14,-4.444,15.3,-2.178,0,0,0,0,0,0,0,0,0,0,0,0,0,0,0,0,
274,-3.542,29.3,-37.16,-24.04,12.24,40.1,25.29,38.67,2.683,11.75,28.21,14.1,-25.23,-12.85,18.15,1.929,0,0,0,0,0,0,0,0,0,0,0,0,0,0,0,0,
275,-14.81,21.78,-31.01,-25.75,10.37,31.07,19.11,39.66,-1.552,9.677,14.38,2.71,-46.25,-24.42,14.58,2.619,0,0,0,0,0,0,0,0,0,0,0,0,0,0,0,0,
276,-21.74,0.268,-30.44,-21.52,9.711,31.04,13.86,41.96,0.9534,4.18,11.63,-0.3033,-54.86,-24.07,20.8,16.44,0,0,0,0,0,0,0,0,0,0,0,0,0,0,0,0,
277,-3.285,-4.484,-28.92,-23.44,23.37,48.99,12.25,36.48,13.6,-2.747,23.52,8.599,-41.85,-12.61,26.77,32.44,0,0,0,0,0,0,0,0,0,0,0,0,0,0,0,0,
278,10.65,-0.2432,-27.61,-22.88,27.49,57.27,9.668,32.72,8.969,-6.667,18.61,5.32,-37.23,-11.42,16.8,22.29,0,0,0,0,0,0,0,0,0,0,0,0,0,0,0,0,
279,-2.641,-7.07,-28.72,-13.17,6.109,42.09,3.502,31.91,-17.26,-10.98,-3.196,-20.29,-53.84,-25.6,-6.097,-6.472,0,0,0,0,0,0,0,0,0,0,0,0,0,0,0,0,
280,-28.84,-25.37,-34.68,-21.19,-19.85,21.06,-10.29,25.37,-36.33,-20.1,-23.24,-58.23,-78.36,-39.18,-40.13,-33.34,0,0,0,0,0,0,0,0,0,0,0,0,0,0,0,0,
281,-49.61,-45.03,-40.57,-35.24,-27.01,17.15,-19.62,24.77,-37.82,-21.95,-42,-85.7,-93.34,-44.17,-70.39,-51.84,0,0,0,0,0,0,0,0,0,0,0,0,0,0,0,0,
282,-50.88,-46.59,-33.95,-24.04,-19.77,30.84,-10.19,37.5,-35.66,-16.71,-50.56,-85.98,-88.37,-41.33,-73.5,-51.7,0,0,0,0,0,0,0,0,0,0,0,0,0,0,0,0,
283,-38.48,-27.49,-24.34,-13.14,-16.14,41.2,6.393,49.57,-33.88,-19.9,-39.14,-71.92,-68.91,-28.18,-59.51,-34.24,0,0,0,0,0,0,0,0,0,0,0,0,0,0,0,0,
284,-30.69,-10.06,-23.14,-5.416,-13.66,38.92,14.77,52.63,-26.52,-20.9,-25.65,-60.63,-51.24,-12.11,-47.66,-19.83,0,0,0,0,0,0,0,0,0,0,0,0,0,0,0,0,
285,-24.84,-3.852,-22.37,6.018,-5.955,31.8,9.4,39.61,-21.68,-10.27,-21.32,-52.58,-47.5,-7.074,-32.58,-12.22,0,0,0,0,0,0,0,0,0,0,0,0,0,0,0,0,
286,-17.84,-3.619,-28.99,-29.61,-8.767,22.65,-6.652,13.11,-29.18,-6.445,-16.83,-47.71,-53.74,-9.367,-14.57,-4.942,0,0,0,0,0,0,0,0,0,0,0,0,0,0,0,0,
287,-20.45,-10.69,-46.37,-74.65,-24.59,9.877,-18.8,-3.586,-38.79,-13.45,-10.39,-44.58,-58.22,-10.67,-3.313,-0.5989,0,0,0,0,0,0,0,0,0,0,0,0,0,0,0,0,
288,-24.86,-26.02,-53.25,-44.92,-33.16,0.6271,-23.57,-10.27,-36.11,-22.25,-2.145,-36.79,-60.64,-16.73,6.516,5.423,0,0,0,0,0,0,0,0,0,0,0,0,0,0,0,0,
289,-17.02,-39.79,-52.37,-9.991,-33.78,0.0714,-27.82,-11.78,-28.23,-31.68,3.85,-33.29,-67.24,-28.12,12.08,12.33,0,0,0,0,0,0,0,0,0,0,0,0,0,0,0,0,
290,-17.34,-44.05,-60.33,-30.58,-39.33,-4.33,-25.75,14.87,-34.92,-31.84,-7.133,-48.42,-75.48,-32.34,2.649,8.865,0,0,0,0,0,0,0,0,0,0,0,0,0,0,0,0,
291,-41.21,-43.25,-64.65,-40.55,-43.64,-14.71,-14.15,52.7,-49.31,-20.21,-23.44,-66.81,-75.42,-26.51,-4.069,4.287,0,0,0,0,0,0,0,0,0,0,0,0,0,0,0,0,
292,-56.62,-40.67,-57.07,-31.78,-40.35,-13.04,-3.875,59.28,-50.15,-13.55,-23.85,-67.61,-65.72,-25.09,4.446,5.857,0,0,0,0,0,0,0,0,0,0,0,0,0,0,0,0,
293,-49.23,-34.91,-50.25,-34.41,-37.75,-2.095,1.14,56.13,-47.34,-15.42,-17.85,-56.07,-56.5,-33.64,10.52,3.529,0,0,0,0,0,0,0,0,0,0,0,0,0,0,0,0,
294,-40.01,-28.22,-41.94,-19.2,-32.56,12.08,13.59,74.46,-50.59,-14.31,-8.252,-34.33,-44.82,-33.24,15.6,12.14,0,0,0,0,0,0,0,0,0,0,0,0,0,0,0,0,
295,-24.11,-18.68,-23.36,9.873,-20.13,38.3,38.08,91.56,-48.41,-3.347,4.833,-7.994,-20.59,-12.78,29.47,43.71,0,0,0,0,0,0,0,0,0,0,0,0,0,0,0,0,
296,-7.022,-5.637,-10.23,17.52,-17.8,53.62,52.43,88.81,-49.7,14.14,0.482,-4.119,-0.6361,6.219,32.13,60.74,0,0,0,0,0,0,0,0,0,0,0,0,0,0,0,0,
297,-19.6,-1.232,-19.62,6.321,-32.48,37.29,43.29,77.33,-64.62,21.08,-11.72,-21.59,-5.173,1.675,16.87,39.98,0,0,0,0,0,0,0,0,0,0,0,0,0,0,0,0,
298,-42.54,-12.52,-35.84,-8.435,-44.44,17.43,28.94,68.99,-77.44,8.234,-9.611,-34.77,-23.6,-19.75,5.058,13.78,0,0,0,0,0,0,0,0,0,0,0,0,0,0,0,0,
299,-47.87,-29.73,-36.44,-13.38,-39.47,7.368,18.84,65.68,-80.08,-8.761,-11.56,-45.69,-39.86,-40.32,-1.069,2.352,0,0,0,0,0,0,0,0,0,0,0,0,0,0,0,0,
300,-57.63,-41.64,-30.85,-9.915,-26.43,-5.939,6.017,55.43,-76.25,-16.98,-25.95,-59,-47.96,-49.13,-8.198,-5.205,0,0,0,0,0,0,0,0,0,0,0,0,0,0,0,0,
301,-72.62,-46.69,-34.47,-14.18,-21.91,-13.53,-1.408,37.39,-64.63,-17.82,-26.17,-58.41,-41.87,-40.83,-0.6358,-2.13,0,0,0,0,0,0,0,0,0,0,0,0,0,0,0,0,
302,-65.92,-46.8,-40.27,-18.78,-25.5,-13.17,1.727,37.79,-47.32,-13.52,-4.195,-41.35,-28.01,-24.08,23.91,17.13,0,0,0,0,0,0,0,0,0,0,0,0,0,0,0,0,
303,-49.14,-40,-41.26,-14.56,-21.55,-15.74,8.615,63.54,-25.19,-4.364,25.86,-14.74,-11.73,-8.399,47.55,40.06,0,0,0,0,0,0,0,0,0,0,0,0,0,0,0,0,
304,-29.05,-16.12,-23.46,-0.7598,7.81,5.925,37.44,95.24,16.13,20.58,71.43,33.2,26.75,23.27,82.81,75.97,0,0,0,0,0,0,0,0,0,0,0,0,0,0,0,0,
305,23.32,30.94,27.17,35.09,62.46,65.84,92.95,123.5,71.41,62.43,130.8,88.58,77.62,69.78,130.1,118.7,0,0,0,0,0,0,0,0,0,0,0,0,0,0,0,0,
306,76.9,67.9,61.97,62.93,88.78,97.8,114.3,129.9,86.6,83.2,144.1,93.07,86.4,84.29,133.4,122.4,0,0,0,0,0,0,0,0,0,0,0,0,0,0,0,0,
307,61.02,52.36,32.62,38.27,46.1,63.86,71.72,97.63,41.89,61.93,87.9,44.64,51.23,56.28,82.37,86.82,0,0,0,0,0,0,0,0,0,0,0,0,0,0,0,0,
308,5.995,8.166,-12.4,-0.2218,-10.88,24.17,25.55,58.61,-6.986,31.11,30.66,4.009,17.78,23.93,32.58,45.72,0,0,0,0,0,0,0,0,0,0,0,0,0,0,0,0,
309,-23.63,-19.09,-31.78,-11,-34.17,9.472,11.46,42.29,-32.5,14.82,2.709,-21.71,-8.998,-0.9993,-1.703,1.012,0,0,0,0,0,0,0,0,0,0,0,0,0,0,0,0,
310,-44.81,-29.61,-50.92,-20.87,-42.08,-3.517,6.915,31.02,-46.9,9.417,-19.68,-47.01,-30.93,-20.03,-28.11,-34.14,0,0,0,0,0,0,0,0,0,0,0,0,0,0,0,0,
311,-59.6,-28.68,-64.64,-34.59,-34.18,-0.786,7.046,17.05,-38.29,9.44,-24.53,-43.73,-30,-23.18,-27.88,-36.81,0,0,0,0,0,0,0,0,0,0,0,0,0,0,0,0,
312,-36.5,-18.03,-54.04,-29.65,-13.23,23.42,15.62,14.3,-13.02,6.364,-10.61,-14.76,-18,-16.37,-5.05,-21.93,0,0,0,0,0,0,0,0,0,0,0,0,0,0,0,0,
313,-4.593,-10.65,-40.11,-15.39,-10.88,37.53,23.62,19.1,0.6724,1.145,-4.349,5.287,-11.78,-11.93,13.64,-7.976,0,0,0,0,0,0,0,0,0,0,0,0,0,0,0,0,
314,2.746,-2.332,-35.98,-8.896,-18.34,39.03,27.8,20.51,2.624,-1.845,-1.284,9.639,-8.626,-15.83,15.32,-2.063,0,0,0,0,0,0,0,0,0,0,0,0,0,0,0,0,
315,-1.567,5.606,-37.67,-13.44,-16.61,38.46,26.75,17.54,-2.343,-10.82,5.377,-0.2683,-11.75,-26.88,3,-8.554,0,0,0,0,0,0,0,0,0,0,0,0,0,0,0,0,
316,-7.456,1.558,-40.3,-19.92,-17.04,33.84,25.32,10.54,-9.941,-15.29,4.409,-14,-14.07,-30.07,-6.817,-12.29,0,0,0,0,0,0,0,0,0,0,0,0,0,0,0,0,
317,-8.291,1.865,-36.52,-18.95,-15.71,28.18,26.18,0.1627,-8,-2.82,-4.472,-12.97,-6.178,-23.08,-8.961,-7.509,0,0,0,0,0,0,0,0,0,0,0,0,0,0,0,0,
318,-3.192,11.65,-37.47,-19.6,-7.754,14.97,15.94,-6.187,-6.594,1.292,-16.04,-9.421,-6.589,-21.51,-16.86,-10.96,0,0,0,0,0,0,0,0,0,0,0,0,0,0,0,0,
319,-9.809,6.163,-53.81,-28.7,-8.768,-5.751,-2.463,-4.006,-17.3,-14.41,-25.94,-17.11,-24.53,-29.64,-27.42,-23.07,0,0,0,0,0,0,0,0,0,0,0,0,0,0,0,0,
320,-23.89,-15.14,-68.74,-42.26,-16.32,-11.76,-15.09,-3.42,-20.8,-24.74,-26.5,-19.51,-38.58,-40.36,-26.44,-31.1,0,0,0,0,0,0,0,0,0,0,0,0,0,0,0,0,
321,-22.59,-30.07,-71.15,-52.21,-20.76,-3.289,-28.45,-9.987,-6.081,-21.97,-18.63,-12.98,-33.86,-39.26,-17.28,-30.47,0,0,0,0,0,0,0,0,0,0,0,0,0,0,0,0,
322,-15.13,-28.74,-69.01,-50.19,-27.28,1.415,-39.87,-13.49,5.697,-16.62,-15.97,-16.48,-21.08,-22.38,-12.06,-25.86,0,0,0,0,0,0,0,0,0,0,0,0,0,0,0,0,
323,-23.05,-19.62,-66.95,-51.68,-30.58,3.404,-38.92,-11.21,4.552,-12.65,-23.92,-31.98,-22.06,-18.11,-19.37,-34.35,0,0,0,0,0,0,0,0,0,0,0,0,0,0,0,0,
324,-36.85,-20.41,-68.07,-60.59,-26.4,0.2147,-41.74,-8.778,2.677,-13.98,-31.3,-46.5,-38.01,-37.92,-38.96,-60.49,0,0,0,0,0,0,0,0,0,0,0,0,0,0,0,0,
325,-41.21,-29.61,-73.12,-55.26,-24.93,-11.86,-49.75,-2.778,0.1994,-16.55,-33.22,-52.01,-42.14,-49.03,-50.89,-75.1,0,0,0,0,0,0,0,0,0,0,0,0,0,0,0,0,
326,-36.67,-27.08,-67.4,-58.12,-19.58,-8.247,-41.46,7.09,-1.9,-13.39,-31.17,-42.93,-28.97,-40.61,-40.38,-63.46,0,0,0,0,0,0,0,0,0,0,0,0,0,0,0,0,
327,-26.96,-22.57,-50.06,-77.94,-9.509,10.85,-39.83,4.803,3.362,-16.93,-25.56,-31.02,-29.74,-38.79,-32.76,-55.34,0,0,0,0,0,0,0,0,0,0,0,0,0,0,0,0,
328,-29.22,-43.57,-47.92,-60.29,-15.56,4.521,-69.51,-17,0.5824,-31.98,-28.25,-38.67,-50.61,-46.74,-50.03,-67.06,0,0,0,0,0,0,0,0,0,0,0,0,0,0,0,0,
329,-54.38,-72.84,-61.49,-23.52,-27.82,-24.23,-92.67,-37.21,-16.75,-38.58,-46.25,-59.73,-63.97,-46.17,-71.5,-76.75,0,0,0,0,0,0,0,0,0,0,0,0,0,0,0,0,
330,-81.14,-79.38,-71.32,-37.16,-32.62,-44.72,-95.86,-41.06,-35.93,-34.35,-74.49,-82.18,-66.58,-40.24,-88.25,-75.57,0,0,0,0,0,0,0,0,0,0,0,0,0,0,0,0,
331,-99.7,-74.41,-82.03,-67.18,-45.85,-60.14,-106.3,-39.19,-56.48,-34.73,-104.8,-106.2,-70.02,-40.56,-109.3,-74.84,0,0,0,0,0,0,0,0,0,0,0,0,0,0,0,0,
332,-113,-69.35,-83.91,-56.77,-53.31,-63.76,-104.4,-35.41,-63.68,-36.22,-111.7,-112.9,-67.05,-43.88,-115.1,-76.65,0,0,0,0,0,0,0,0,0,0,0,0,0,0,0,0,
333,-108.7,-59,-65.93,-37.86,-40.68,-50.34,-81.87,-30.68,-47.05,-33.42,-89.53,-97.81,-58.37,-46.29,-99.84,-79.43,0,0,0,0,0,0,0,0,0,0,0,0,0,0,0,0,
334,-96.23,-55.39,-63.01,-44.31,-39.88,-50.83,-80.58,-34.76,-37.85,-34.38,-75.84,-84.68,-54.76,-45.06,-86.23,-76.67,0,0,0,0,0,0,0,0,0,0,0,0,0,0,0,0,
335,-88.05,-57.78,-79.91,-55.64,-50.99,-59.08,-88.96,-35.35,-42.4,-40.25,-77.71,-68.51,-52.01,-36.06,-69.57,-59.73,0,0,0,0,0,0,0,0,0,0,0,0,0,0,0,0,
336,-63.89,-47.91,-78.07,-53.97,-45.7,-46.41,-73.67,-18.04,-38.23,-46.11,-74.67,-48.91,-49.89,-30.35,-52.58,-48.76,0,0,0,0,0,0,0,0,0,0,0,0,0,0,0,0,
337,-36.75,-39.7,-70.24,-51.94,-41.99,-40.8,-65.28,-8.19,-41.44,-48.71,-80.19,-59.24,-60.57,-40.82,-67.46,-68.6,0,0,0,0,0,0,0,0,0,0,0,0,0,0,0,0,
338,-50.49,-53.54,-86.73,-64.32,-60.55,-62.14,-81.73,-26.71,-64.41,-47.65,-99.52,-92.28,-80.7,-57.26,-97.29,-96.42,0,0,0,0,0,0,0,0,0,0,0,0,0,0,0,0,
339,-87.36,-69.23,-102.1,-77.33,-73.03,-72.62,-87.56,-42.72,-76.24,-45.25,-103.5,-106.1,-87.25,-59.62,-98.9,-96.14,0,0,0,0,0,0,0,0,0,0,0,0,0,0,0,0,
340,-95.15,-59.12,-86.87,-65.28,-52.42,-55.59,-71.23,-27.59,-63.83,-35.67,-91.28,-101.4,-73.31,-44.33,-89.75,-79.44,0,0,0,0,0,0,0,0,0,0,0,0,0,0,0,0,
341,-78.09,-37.35,-64.76,-46.33,-24.54,-43.72,-62.64,-17.01,-52.2,-22.55,-87.82,-100.8,-64.83,-31.61,-97.66,-74.77,0,0,0,0,0,0,0,0,0,0,0,0,0,0,0,0,
342,-68.62,-38.24,-71.41,-61.38,-22.35,-52.02,-79.39,-47.49,-47.98,-26.68,-83.66,-95.16,-71.85,-34.88,-97.27,-70.73,0,0,0,0,0,0,0,0,0,0,0,0,0,0,0,0,
343,-60.5,-56.36,-92.71,-90.67,-29.04,-57.58,-102.7,-81.08,-34.89,-39.64,-62.1,-72.4,-68.58,-35.05,-73.15,-48.57,0,0,0,0,0,0,0,0,0,0,0,0,0,0,0,0,
344,-42.89,-62.28,-98.64,-95.14,-28.49,-55.7,-111.6,-82.34,-25.33,-40.3,-49.7,-57.15,-55.51,-23.46,-58.73,-31.23,0,0,0,0,0,0,0,0,0,0,0,0,0,0,0,0,
345,-37.71,-62.08,-101.5,-96.23,-35.14,-65.6,-115.4,-82.24,-35.26,-45.98,-61.46,-66.85,-58.7,-22.76,-66.35,-39,0,0,0,0,0,0,0,0,0,0,0,0,0,0,0,0,
346,-53.72,-73.25,-113.8,-108.5,-42.82,-81.04,-125.7,-95.07,-41.14,-62.88,-63.18,-71.32,-65.66,-32,-59.31,-45.03,0,0,0,0,0,0,0,0,0,0,0,0,0,0,0,0,
347,-65.67,-79.31,-115.8,-110.5,-38.5,-83.27,-129.1,-92.56,-33.17,-63.41,-42.67,-48.39,-52.39,-28.92,-26.8,-27.18,0,0,0,0,0,0,0,0,0,0,0,0,0,0,0,0,
348,-57.43,-65.64,-104.4,-110,-32.41,-77.92,-117.4,-80.16,-30.24,-52.01,-30.29,-25.26,-35.27,-20.53,-7.665,-9.089,0,0,0,0,0,0,0,0,0,0,0,0,0,0,0,0,
349,-45.09,-52.65,-97.68,-113.4,-33.25,-77.06,-105.2,-84.25,-29.56,-51.48,-34.56,-23.28,-32.3,-19.21,-14.06,-11.12,0,0,0,0,0,0,0,0,0,0,0,0,0,0,0,0,
350,-44.32,-53.38,-95.33,-107.9,-41.44,-73.96,-96.18,-91.11,-23.39,-51.13,-34.13,-22.98,-30.59,-15.24,-15.58,-16.28,0,0,0,0,0,0,0,0,0,0,0,0,0,0,0,0,
351,-42.44,-49.12,-85,-97.27,-45.55,-57.42,-80.94,-78.32,-16.59,-38.58,-22.48,-11.66,-22.62,-9.207,-4.824,-11.15,0,0,0,0,0,0,0,0,0,0,0,0,0,0,0,0,
352,-34.14,-37.19,-72.87,-79.29,-35.59,-42.08,-67.79,-60.61,-6.763,-26.87,-12.42,-5.712,-21.55,-11.7,-0.3748,-9.094,0,0,0,0,0,0,0,0,0,0,0,0,0,0,0,0,
353,-37.75,-39.13,-76.31,-74.47,-32.58,-49.45,-69.23,-64.23,-2.52,-28.37,-12.18,-13.26,-31.66,-16.51,-6.6,-17.96,0,0,0,0,0,0,0,0,0,0,0,0,0,0,0,0,
354,-52.62,-50.81,-93.87,-114.1,-49.85,-65.76,-75.2,-87.6,-19.32,-35.7,-25.28,-26.62,-39.65,-16.26,-15.9,-24.86,0,0,0,0,0,0,0,0,0,0,0,0,0,0,0,0,
355,-66.15,-52.16,-105.1,-131.2,-67.7,-71.92,-75.27,-98.95,-44.4,-32.42,-48.37,-40.8,-34.83,-14.17,-18.07,-18.79,0,0,0,0,0,0,0,0,0,0,0,0,0,0,0,0,
356,-79.12,-45.06,-99.77,-75.37,-75.12,-75.7,-74.11,-80.39,-57.96,-21.41,-59.13,-46.74,-22.23,-10.89,-8.33,-6.971,0,0,0,0,0,0,0,0,0,0,0,0,0,0,0,0,
357,-83.72,-36.77,-88.42,-38.28,-74.84,-78.4,-74.27,-61.7,-60.43,-19.37,-48.5,-38.93,-15.14,-9.41,-0.1998,-3.552,0,0,0,0,0,0,0,0,0,0,0,0,0,0,0,0,
358,-73.91,-27.84,-84.59,-61.17,-72.02,-75.39,-75.21,-64.87,-59.36,-25.38,-42.96,-33.35,-18.46,-16.18,-6.253,-11.05,0,0,0,0,0,0,0,0,0,0,0,0,0,0,0,0,
359,-67.92,-25.71,-88.97,-75.13,-78.97,-77.45,-79,-65.22,-64.06,-30.61,-57.15,-42.87,-27.63,-24.78,-21.7,-22.62,0,0,0,0,0,0,0,0,0,0,0,0,0,0,0,0,
360,-76.22,-31.35,-94.14,-70.99,-91.96,-82.94,-82.41,-54.01,-77.13,-31.05,-76.11,-55.38,-38.39,-26.32,-38.17,-33.8,0,0,0,0,0,0,0,0,0,0,0,0,0,0,0,0,
361,-83.62,-32.56,-93.47,-77.73,-91.37,-80.54,-82.66,-50.18,-82.8,-24.07,-89.07,-58.75,-48.17,-26.9,-48.13,-42.24,0,0,0,0,0,0,0,0,0,0,0,0,0,0,0,0,
362,-79.3,-31.25,-85.25,-82.48,-79.77,-77.47,-83.98,-49.55,-72.48,-21.61,-90.2,-55.78,-52.48,-28.78,-45.27,-42.99,0,0,0,0,0,0,0,0,0,0,0,0,0,0,0,0,
363,-70.87,-35.87,-76.81,-81.08,-73.57,-75.87,-85.19,-48.56,-57.5,-30.81,-75.06,-49.62,-46.45,-24.35,-35.04,-35.01,0,0,0,0,0,0,0,0,0,0,0,0,0,0,0,0,
364,-68.75,-40.58,-77.87,-87.81,-70.25,-74.63,-90.18,-66.3,-45.56,-38.02,-59.14,-46.17,-37.2,-21.09,-28.92,-30.3,0,0,0,0,0,0,0,0,0,0,0,0,0,0,0,0,
365,-77.81,-47.26,-90.02,-104.7,-67.64,-92.36,-111.6,-97.27,-40.05,-42.66,-55.59,-47.37,-33.43,-23.61,-22.44,-28.91,0,0,0,0,0,0,0,0,0,0,0,0,0,0,0,0,
366,-87.06,-54.64,-107.1,-121.5,-75.25,-117.6,-128.8,-106.1,-42.09,-46.35,-48.59,-35.26,-24.06,-15.56,-4.933,-12.48,0,0,0,0,0,0,0,0,0,0,0,0,0,0,0,0,
367,-75.03,-47.03,-110.9,-119.1,-72.95,-109.9,-113.2,-80.08,-39.76,-38.56,-32.42,-12.85,-11.99,-4.538,7.406,3.652,0,0,0,0,0,0,0,0,0,0,0,0,0,0,0,0,
368,-51.7,-40.95,-89.79,-98.75,-45,-83.78,-96.1,-50.9,-32.45,-32.78,-26.74,-8.117,-17.34,-9.661,1.231,-1.369,0,0,0,0,0,0,0,0,0,0,0,0,0,0,0,0,
369,-44.16,-52.95,-82.82,-102.5,-47.82,-84.35,-110.4,-56.86,-39.71,-39.49,-31.05,-9.87,-22.18,-9.534,1.212,4.379,0,0,0,0,0,0,0,0,0,0,0,0,0,0,0,0,
370,-47.53,-55.84,-123.7,-141.7,-95.96,-106.6,-127.4,-86.67,-52.89,-39.55,-28.95,-0.9575,-9.157,5.502,14.33,24.46,0,0,0,0,0,0,0,0,0,0,0,0,0,0,0,0,
371,-49.69,-48.8,-146.1,-148.1,-88.4,-114.7,-119.5,-94.2,-37.48,-35.73,-20.18,-0.3707,-4.182,9.56,18.75,19.03,0,0,0,0,0,0,0,0,0,0,0,0,0,0,0,0,
372,-48.22,-53.33,-98.98,-103.6,-17.17,-94.86,-97.24,-74.29,-7.537,-41.96,-13.34,-2.759,-12.93,5.464,20.04,4.08,0,0,0,0,0,0,0,0,0,0,0,0,0,0,0,0,
373,-39.2,-56.51,-63.75,-85.83,-7.082,-73.69,-81.07,-61.91,-13.11,-46.03,-21.57,1.993,-22.45,1.168,18.77,-1.941,0,0,0,0,0,0,0,0,0,0,0,0,0,0,0,0,
374,-39.55,-59.68,-86.76,-102.8,-55.26,-80.35,-85.59,-62.86,-43.57,-47.31,-46.38,-13.81,-40.15,-17.4,-5.354,-24.21,0,0,0,0,0,0,0,0,0,0,0,0,0,0,0,0,
375,-58.72,-77.23,-101.3,-116,-60.68,-94.58,-99.44,-61.05,-51.22,-54.08,-64.29,-42.22,-54.44,-31.98,-27.97,-42.57,0,0,0,0,0,0,0,0,0,0,0,0,0,0,0,0,
376,-69.42,-87.74,-95.57,-147.5,-46.94,-92.2,-101,-63.71,-44.49,-52.15,-65.17,-45.61,-46.51,-23.24,-17.38,-31.95,0,0,0,0,0,0,0,0,0,0,0,0,0,0,0,0,
377,-62.69,-79.97,-105.3,-161.3,-63.73,-91.45,-97.08,-74.45,-49.52,-40.5,-60.53,-36.35,-34.95,-17.05,-1.911,-26.35,0,0,0,0,0,0,0,0,0,0,0,0,0,0,0,0,
378,-55.41,-72.66,-107.1,-106.3,-71.26,-96.38,-97.01,-76.29,-53.3,-35.64,-55.43,-36.89,-37.56,-20.82,-5.333,-32.85,0,0,0,0,0,0,0,0,0,0,0,0,0,0,0,0,
379,-49.48,-71.59,-90.08,-65.29,-59.17,-86.26,-92.67,-71.55,-48.23,-35.32,-53.99,-37.91,-45.61,-14.95,-6.355,-25.51,0,0,0,0,0,0,0,0,0,0,0,0,0,0,0,0,
380,-46.31,-73.71,-83.39,-86.06,-58.86,-70.29,-90.46,-73.62,-46.39,-37.5,-58.54,-42.01,-53.89,-10.83,-0.5519,-17.95,0,0,0,0,0,0,0,0,0,0,0,0,0,0,0,0,
381,-53.76,-81.42,-89.28,-100.1,-64.41,-68.77,-98.64,-72.33,-49.49,-44.23,-62.71,-56.68,-63.89,-24.47,-6.164,-30.05,0,0,0,0,0,0,0,0,0,0,0,0,0,0,0,0,
382,-61.41,-85.38,-96.33,-94.42,-66.24,-71.47,-100.1,-60.24,-54.29,-38.11,-64.11,-62.36,-64.8,-37.6,-16.13,-47.69,0,0,0,0,0,0,0,0,0,0,0,0,0,0,0,0,
383,-55.41,-71.49,-101.3,-93.5,-74.53,-66.92,-84.3,-49.4,-60.15,-17.85,-63.59,-51.01,-48.01,-31.66,-15.95,-54.15,0,0,0,0,0,0,0,0,0,0,0,0,0,0,0,0,
384,-46.94,-49.69,-100.5,-87.36,-87.74,-69.75,-69.76,-44.08,-64.58,-8.177,-61.58,-40.55,-28.83,-15.38,-12.36,-48.81,0,0,0,0,0,0,0,0,0,0,0,0,0,0,0,0,
385,-48.36,-40.34,-100.8,-90.71,-93.41,-87.28,-74.92,-48.13,-64.27,-14.01,-58.94,-34.28,-22.7,-5.979,-8.14,-36.03,0,0,0,0,0,0,0,0,0,0,0,0,0,0,0,0,
386,-47.77,-42.19,-111,-116,-86.67,-100.6,-91.39,-67.94,-55.83,-25.51,-54.11,-28.85,-23.09,-4.645,1.6,-24.22,0,0,0,0,0,0,0,0,0,0,0,0,0,0,0,0,
387,-40.23,-43.38,-120.3,-127.5,-76.14,-97.59,-95.42,-80.15,-46.15,-33.44,-50.25,-31.68,-22.48,-1.428,6.967,-24.82,0,0,0,0,0,0,0,0,0,0,0,0,0,0,0,0,
388,-40.74,-39.74,-116.8,-110.4,-73.67,-90.42,-81.85,-70.6,-52.41,-28.15,-53.5,-40.74,-22,2.595,-1.685,-33.83,0,0,0,0,0,0,0,0,0,0,0,0,0,0,0,0,
389,-53.59,-36.48,-113.5,-99.85,-82.14,-95.86,-72.36,-74.69,-73.56,-25.27,-60.15,-51.84,-22.17,0.4765,-14.54,-38.26,0,0,0,0,0,0,0,0,0,0,0,0,0,0,0,0,
390,-69.71,-43.11,-124.5,-112.4,-96.2,-111.6,-80.59,-100.4,-86,-38.93,-61.8,-62.31,-24.05,-5.133,-16,-41.03,0,0,0,0,0,0,0,0,0,0,0,0,0,0,0,0,
391,-77.6,-52.86,-137.5,-125.6,-105.8,-116.5,-92.2,-108.8,-80.5,-44.29,-56.26,-58.68,-24.55,-9.807,-2.21,-40.45,0,0,0,0,0,0,0,0,0,0,0,0,0,0,0,0,
392,-67.66,-49.77,-136.1,-126.8,-100.3,-100.4,-87.2,-97.89,-67.29,-32.7,-46.42,-41.73,-17.88,-10.23,17.03,-23.72,0,0,0,0,0,0,0,0,0,0,0,0,0,0,0,0,
393,-50.12,-41.14,-121.2,-118.9,-82.94,-80.4,-66.81,-87.88,-54.12,-27.31,-39.92,-32.14,-12.42,-6.809,27.43,-8.935,0,0,0,0,0,0,0,0,0,0,0,0,0,0,0,0,
394,-47.07,-45.35,-109.3,-107.3,-76.96,-76.87,-53.54,-73.66,-50.57,-27.14,-40.85,-36.7,-17.07,-9.389,26.81,-16.75,0,0,0,0,0,0,0,0,0,0,0,0,0,0,0,0,
395,-55.18,-56.79,-111.8,-101.7,-87.16,-85.2,-56.24,-59.06,-53.83,-18.99,-34.91,-39.57,-15.75,-14.33,29.11,-21.44,0,0,0,0,0,0,0,0,0,0,0,0,0,0,0,0,
396,-50.67,-52.46,-109.6,-96.48,-84.9,-82.93,-55.37,-51.14,-42.31,-10.21,-19.05,-29.56,-1.423,-9.886,34.44,-12.78,0,0,0,0,0,0,0,0,0,0,0,0,0,0,0,0,
397,-34.51,-35.38,-93.09,-85.36,-70.23,-65.93,-45.82,-39.64,-23.53,-10.8,-18.51,-21.35,-1.873,-10.16,25.85,-21.86,0,0,0,0,0,0,0,0,0,0,0,0,0,0,0,0,
398,-27.38,-35.32,-89.12,-83.51,-68.91,-55.38,-45.91,-35.62,-19.91,-20.11,-27.56,-23.01,-21.51,-22.95,14.16,-40.35,0,0,0,0,0,0,0,0,0,0,0,0,0,0,0,0,
399,-29.26,-55.23,-101.6,-92.69,-74.03,-65.93,-56.17,-57.93,-22.6,-29.67,-22.34,-21.89,-31.35,-28.97,16.81,-37.83,0,0,0,0,0,0,0,0,0,0,0,0,0,0,0,0,
400,-34.93,-72.17,-115.8,-101.6,-77.33,-87.52,-65.5,-85.18,-25.78,-31.05,-23.06,-27.89,-34.57,-28.69,12.31,-36.29,0,0,0,0,0,0,0,0,0,0,0,0,0,0,0,0,
401,-47.84,-76.74,-129.7,-106.4,-80.91,-94.59,-73.01,-89.65,-33.29,-26.61,-35.63,-49.62,-45.73,-32.52,-9.005,-55.76,0,0,0,0,0,0,0,0,0,0,0,0,0,0,0,0,
402,-56.77,-67.96,-126.6,-101.6,-70.05,-80.94,-71.28,-81.97,-32.31,-18.39,-33.77,-61.27,-44.22,-25.95,-21.34,-66.02,0,0,0,0,0,0,0,0,0,0,0,0,0,0,0,0,
403,-54.3,-50.56,-103.8,-93.13,-51.15,-70.03,-52.23,-78.99,-21.54,-0.8911,-24.61,-53.97,-20.39,-3.738,-15.43,-48.41,0,0,0,0,0,0,0,0,0,0,0,0,0,0,0,0,
404,-48.85,-39.17,-91.23,-92.25,-44.52,-70.53,-35.01,-73.81,-13.59,14.48,-15.79,-42.26,-2.775,12.51,-2.547,-22.38,0,0,0,0,0,0,0,0,0,0,0,0,0,0,0,0,
405,-45.78,-45.23,-95.62,-96.84,-46.94,-73.7,-43.64,-65.38,-10.1,6.964,-2.784,-33.82,-10.49,10.52,1.956,-9.248,0,0,0,0,0,0,0,0,0,0,0,0,0,0,0,0,
406,-52.09,-66.29,-103.6,-104.1,-52.01,-79.57,-60.92,-64.06,-7.716,-9.221,-4.009,-34.03,-21.91,5.335,-10.76,-10.77,0,0,0,0,0,0,0,0,0,0,0,0,0,0,0,0,
407,-60.96,-77.63,-108.2,-106.5,-50.5,-82.1,-56.36,-62.27,-6.925,-9.005,-16.8,-34.86,-13.21,12.37,-21.9,-15.17,0,0,0,0,0,0,0,0,0,0,0,0,0,0,0,0,
408,-54.64,-67.24,-103.2,-99.58,-39.44,-77.83,-45.6,-54.75,-13.28,-5.643,-22.04,-26.15,-3.271,19.54,-16.08,-19.96,0,0,0,0,0,0,0,0,0,0,0,0,0,0,0,0,
409,-44.85,-62.98,-94.12,-94.5,-33.72,-74.74,-53.54,-54.41,-20.51,-10.09,-24.42,-19.17,-12,13.19,-8.006,-31.01,0,0,0,0,0,0,0,0,0,0,0,0,0,0,0,0,
410,-45.41,-74.89,-91.79,-91.37,-32.75,-72.37,-64.15,-56.74,-15.53,-4.456,-25.62,-23.62,-22.88,4.463,-10.72,-45.38,0,0,0,0,0,0,0,0,0,0,0,0,0,0,0,0,
411,-48.23,-80.87,-95.43,-86.44,-36.22,-74.06,-61.75,-45.64,-12.52,11.36,-28.8,-38.39,-29.18,1.573,-25.76,-61.56,0,0,0,0,0,0,0,0,0,0,0,0,0,0,0,0,
412,-52.12,-74.27,-97.32,-82.25,-49.99,-76.77,-50.6,-28.29,-18.78,23.83,-38.86,-52.43,-37.02,0.9666,-44.21,-76.75,0,0,0,0,0,0,0,0,0,0,0,0,0,0,0,0,
413,-49.42,-60.43,-86.98,-70.53,-49.83,-60.36,-36.25,-21.02,-12.04,32.73,-38.78,-47.68,-35.76,2.885,-46.3,-78.56,0,0,0,0,0,0,0,0,0,0,0,0,0,0,0,0,
414,-31.25,-48.82,-68.59,-59,-29.45,-37.35,-33.7,-26.36,2.789,33.93,-29.58,-34.91,-28.9,3.422,-35.42,-71.03,0,0,0,0,0,0,0,0,0,0,0,0,0,0,0,0,
415,-20.91,-49.51,-62.71,-66.86,-23.37,-38.58,-44.85,-35.77,4.407,26.93,-33.56,-38.99,-33.45,-1.56,-32.6,-70.27,0,0,0,0,0,0,0,0,0,0,0,0,0,0,0,0,
416,-33.25,-53.04,-70.77,-78.41,-35.97,-52.95,-46.47,-39.86,1.19,23.48,-46.12,-48.76,-38.7,-7.243,-32.6,-70.66,0,0,0,0,0,0,0,0,0,0,0,0,0,0,0,0,
417,-43.7,-48.27,-71.43,-69.59,-39.89,-53.06,-33.44,-38.39,3.662,25.14,-48.32,-41.77,-24.9,-9.271,-22.63,-60.19,0,0,0,0,0,0,0,0,0,0,0,0,0,0,0,0,
418,-32.99,-36.42,-58.31,-49.21,-28.75,-39.61,-19.72,-35.26,7.691,28.07,-37,-26.67,-4.083,-7.789,-15.04,-52.06,0,0,0,0,0,0,0,0,0,0,0,0,0,0,0,0,
419,-13.92,-24.02,-49.52,-40.95,-16.31,-31.6,-15.72,-28.63,11.04,27.41,-26.52,-23.28,-4.886,-10.32,-19.95,-63.51,0,0,0,0,0,0,0,0,0,0,0,0,0,0,0,0,
420,-7.959,-26.81,-53.16,-52.02,-9.623,-34.53,-27.9,-23.85,12.92,14.42,-29.83,-27.89,-24.6,-20.78,-25.32,-80.15,0,0,0,0,0,0,0,0,0,0,0,0,0,0,0,0,
421,-15.21,-43.34,-54.17,-63.89,-2.802,-32.27,-39.92,-29.42,13.22,1.334,-36.17,-22.9,-33.61,-25.8,-22.81,-80.62,0,0,0,0,0,0,0,0,0,0,0,0,0,0,0,0,
422,-15.69,-47.87,-45.68,-59.03,5.936,-19.17,-31.17,-30.62,13.6,4.354,-32.52,-10.08,-26.91,-22.5,-17.38,-73.59,0,0,0,0,0,0,0,0,0,0,0,0,0,0,0,0,
423,-7.223,-40.68,-42.29,-49.7,2.466,-15.71,-24.11,-20.53,12.29,8.355,-27.51,-7.921,-20.88,-23.5,-10.78,-69,0,0,0,0,0,0,0,0,0,0,0,0,0,0,0,0,
424,-14.7,-45.29,-54.79,-55.46,-20.45,-34.99,-43.38,-23.59,5.782,4.322,-29.37,-18.52,-18.16,-20.17,-1.008,-55.32,0,0,0,0,0,0,0,0,0,0,0,0,0,0,0,0,
425,-35.48,-54.71,-66.19,-64.08,-34.78,-51.51,-57.32,-30.31,4.7,10.4,-22.79,-16.26,-9.557,1.936,20.7,-24.02,0,0,0,0,0,0,0,0,0,0,0,0,0,0,0,0,
426,-24.85,-36.38,-48.64,-47.26,-9.501,-28.03,-24.74,-2.321,30.84,33.52,14.62,21.4,16.89,32.73,65.37,19.63,0,0,0,0,0,0,0,0,0,0,0,0,0,0,0,0,
427,25.73,13.44,-12.48,-11.52,31.3,22.18,35.1,42.75,69.59,64.47,60.95,69.67,55.28,57.29,105.9,51.87,0,0,0,0,0,0,0,0,0,0,0,0,0,0,0,0,
428,62.5,55.12,-0.682,6.097,37.16,44.57,65.34,61.45,68.8,86.8,59.7,77.76,72.34,68.13,99.09,48.78,0,0,0,0,0,0,0,0,0,0,0,0,0,0,0,0,
429,51.96,57.48,-28.28,-8.846,0.4554,20.68,46.12,46.03,23.12,80.18,15.68,45.84,58.46,61.75,61.82,26.19,0,0,0,0,0,0,0,0,0,0,0,0,0,0,0,0,
430,18.94,33.94,-73.04,-40.83,-49.17,-20.01,5.795,2.702,-14.92,52.21,-10.18,19.09,38.16,45.02,38.2,7.876,0,0,0,0,0,0,0,0,0,0,0,0,0,0,0,0,
431,-5.169,5.26,-111.3,-74.27,-84.02,-51.84,-29.61,-46.68,-24,28.14,-6.677,10.93,17.94,27.41,30.57,-8.88,0,0,0,0,0,0,0,0,0,0,0,0,0,0,0,0,
432,-12.64,-23,-128.4,-96.21,-89.3,-64.01,-47.03,-63.67,-21.91,11.61,-3.42,4.476,-2.625,11.37,27.66,-20.64,0,0,0,0,0,0,0,0,0,0,0,0,0,0,0,0,
433,-5.905,-35.25,-119.5,-94.41,-67.23,-51.4,-35.57,-45.82,-11,4.463,-6.14,-1.669,-8.431,-1.795,22.2,-25.61,0,0,0,0,0,0,0,0,0,0,0,0,0,0,0,0,
434,4.734,-24.71,-100,-77.25,-41.89,-30.39,-11.1,-27.39,4.141,13.64,-9.702,-1.793,-1.455,-8.204,7.33,-33.79,0,0,0,0,0,0,0,0,0,0,0,0,0,0,0,0,
435,8.156,-13.77,-93.29,-67.69,-35.99,-21.86,-2.208,-26.18,7.642,25.24,-9.207,3.847,5.804,-3.471,2.598,-32.16,0,0,0,0,0,0,0,0,0,0,0,0,0,0,0,0,
436,9.163,-11.16,-99.55,-71.48,-41.71,-20.28,-12.01,-36.55,7.47,24.95,-1.319,10.18,12.7,8.229,17.12,-16.1,0,0,0,0,0,0,0,0,0,0,0,0,0,0,0,0,
437,8.513,-10.65,-108.6,-81.96,-45.28,-20.86,-35.44,-57.65,10.76,18.14,3.268,5.889,14.85,14.41,21.08,-11.73,0,0,0,0,0,0,0,0,0,0,0,0,0,0,0,0,
438,-0.5807,-16.45,-113.9,-92.82,-48.32,-23.06,-53.35,-78.85,6.195,18.41,6.887,-0.6141,15.26,14.46,10.07,-16.67,0,0,0,0,0,0,0,0,0,0,0,0,0,0,0,0,
439,-0.188,-15.32,-96.09,-79.96,-42.49,-5.745,-27.94,-61.67,1.128,32.62,20.7,8.322,23.88,14.96,6.321,-11.99,0,0,0,0,0,0,0,0,0,0,0,0,0,0,0,0,
440,18.5,5.902,-55.75,-35.9,-26.77,24.62,21.61,-7.802,4.897,42.49,27.95,12.11,24.75,10.64,3.12,-12.51,0,0,0,0,0,0,0,0,0,0,0,0,0,0,0,0,
441,23.49,20.54,-37.59,-16.11,-27.17,25.13,31.47,12.75,0.627,29.9,16.45,-9.744,6.674,-1.203,-10.3,-28.58,0,0,0,0,0,0,0,0,0,0,0,0,0,0,0,0,
442,2.326,8.532,-61.24,-49.16,-47.74,-8.469,-2.953,-21.95,-17.11,11.82,2.953,-33.34,-7.628,-11.97,-18.4,-40.97,0,0,0,0,0,0,0,0,0,0,0,0,0,0,0,0,
443,-18.3,-13.07,-92.69,-78.11,-59.96,-41.17,-38.83,-50.84,-26.14,7.137,1.438,-39.13,-7.75,-14.62,-10.59,-40.66,0,0,0,0,0,0,0,0,0,0,0,0,0,0,0,0,
444,-22.46,-22.81,-102.8,-87.48,-52.03,-47.63,-48,-52.16,-14.77,14.95,12.44,-33.58,-7.195,-7.273,-1.716,-38.85,0,0,0,0,0,0,0,0,0,0,0,0,0,0,0,0,
445,-16.64,-15.66,-97.05,-115.3,-41.23,-30.62,-29.83,-59.76,0.1795,28.24,21.85,-24.01,-12.57,-1.743,-5.287,-43.56,0,0,0,0,0,0,0,0,0,0,0,0,0,0,0,0,
446,-10.66,-9.518,-91.27,-121.2,-43.26,-19.8,-14.96,-72.07,0.2526,29.11,13.88,-21.24,-24.76,-13.62,-11.78,-51.52,0,0,0,0,0,0,0,0,0,0,0,0,0,0,0,0,
447,-11.08,-22.67,-86.94,-71.04,-50.88,-28.39,-22.11,-69.99,-10.13,13.98,-0.8202,-29.16,-36.71,-29.4,-15.33,-54.74,0,0,0,0,0,0,0,0,0,0,0,0,0,0,0,0,
448,-20.64,-39.7,-82.22,-39.28,-53.07,-36.73,-29.52,-69.23,-15.42,8.28,-7.451,-29.56,-31.53,-26.11,-20.75,-47.13,0,0,0,0,0,0,0,0,0,0,0,0,0,0,0,0,
449,-30.05,-39.34,-85.79,-60.91,-54.24,-39.96,-32.33,-82.9,-11.57,15.27,-11.44,-17.01,-12.79,-10.37,-18.34,-30.63,0,0,0,0,0,0,0,0,0,0,0,0,0,0,0,0,
450,-26.68,-32.4,-95.93,-84.94,-54.63,-45.73,-46.51,-97.06,-7.288,15.21,-15.38,-11.76,-0.3782,2.741,-8.639,-16.24,0,0,0,0,0,0,0,0,0,0,0,0,0,0,0,0,
451,-18.26,-30.85,-96.52,-89.5,-44.43,-43.35,-53.32,-95.9,-4.956,11.86,-10.34,-13.41,7.532,11.44,-6.549,-8.855,0,0,0,0,0,0,0,0,0,0,0,0,0,0,0,0,
452,-11.71,-20.14,-83.31,-79.49,-30.31,-31.24,-30.02,-71.79,1.273,13.98,6.301,-4.258,17.96,13.16,-0.1399,-2.163,0,0,0,0,0,0,0,0,0,0,0,0,0,0,0,0,
453,-1.588,0.4267,-72.1,-65.63,-35.52,-31.29,-3.232,-35.75,0.9365,13.6,20.63,2.768,18.7,10.21,16.21,2.462,0,0,0,0,0,0,0,0,0,0,0,0,0,0,0,0,
454,-0.4091,6.964,-79.43,-68.4,-60.16,-46.18,-5.843,-21.58,-17.83,10.07,18.33,-7.717,11.27,15.56,18.66,0.6206,0,0,0,0,0,0,0,0,0,0,0,0,0,0,0,0,
455,-9.099,1.618,-94.27,-75.74,-70.95,-47.42,-23.24,-44.29,-33.45,10.65,9.372,-13.78,15.79,27.69,12.77,2.699,0,0,0,0,0,0,0,0,0,0,0,0,0,0,0,0,
456,1.931,4.268,-88.62,-68.7,-51.83,-21.22,-26.87,-70.17,-23.29,15.27,12.33,2.423,32.99,34.05,20.91,15.46,0,0,0,0,0,0,0,0,0,0,0,0,0,0,0,0,
457,30.5,14,-63.01,-58.41,-25.73,11.34,-17.41,-66.96,-3.286,20.16,24.8,26.39,47.92,37.01,29.61,28.27,0,0,0,0,0,0,0,0,0,0,0,0,0,0,0,0,
458,43.82,26.1,-41.54,-50.68,-13.08,27.3,-5.714,-52.98,2.107,23.56,33.27,37.47,50.5,37.49,27.27,32.75,0,0,0,0,0,0,0,0,0,0,0,0,0,0,0,0,
459,35.32,35.79,-32,-40.87,-12.28,26.76,7.535,-47.7,-4.792,28.02,34.27,31.73,37.34,24.55,25.75,27.83,0,0,0,0,0,0,0,0,0,0,0,0,0,0,0,0,
460,20.01,33.09,-27.39,-28.79,-13.18,23.7,19.88,-35.89,-9.287,32.43,31.57,22.73,17.09,3.654,20.92,14.16,0,0,0,0,0,0,0,0,0,0,0,0,0,0,0,0,
461,10.91,24.26,-23.48,-17.51,-6.557,26.06,21.71,-22.84,-8.455,28.45,25.64,21.41,4.953,-5.831,7.814,5,0,0,0,0,0,0,0,0,0,0,0,0,0,0,0,0,
462,13.05,16.85,-21.92,-19,3.453,27.87,7.824,-30.45,-6.407,20.13,18.19,24.55,5.15,-0.7388,4.308,11.83,0,0,0,0,0,0,0,0,0,0,0,0,0,0,0,0,
463,14.49,3.968,-28.3,-36.62,5.507,18.81,-11.38,-39.85,-7.477,20.37,15.18,21.07,4.793,3.283,8.77,16.59,0,0,0,0,0,0,0,0,0,0,0,0,0,0,0,0,
464,-0.5054,-13.22,-37.77,-49.44,2.222,-0.6815,-22.79,-35.95,-17.46,25.17,13.56,2.846,-7.752,-3.087,2.286,6.242,0,0,0,0,0,0,0,0,0,0,0,0,0,0,0,0,
465,-22.88,-26.35,-41.82,-48.79,-4.62,-18.1,-31.87,-48.44,-32.94,24.52,6.218,-15.69,-16.85,-5.873,-4.058,3.491,0,0,0,0,0,0,0,0,0,0,0,0,0,0,0,0,
466,-30.51,-31.27,-49.84,-54.47,-21.33,-25.41,-40.84,-77.73,-43.59,23.29,2.311,-14.24,-6.097,4.408,2.405,16.56,0,0,0,0,0,0,0,0,0,0,0,0,0,0,0,0,
467,-20.7,-22.27,-56.87,-58.33,-29.72,-20.38,-30.59,-79.47,-44.7,28.92,12.77,-0.3855,7.612,12.41,9.396,25.92,0,0,0,0,0,0,0,0,0,0,0,0,0,0,0,0,
468,-4.256,-0.6326,-41.38,-36.46,-11.13,-0.7481,-2.429,-57.09,-35.03,35.32,27.38,13.86,11.67,13.27,15.41,30.45,0,0,0,0,0,0,0,0,0,0,0,0,0,0,0,0,
469,8.919,15.63,-23.3,-18.47,10.02,17.47,12.9,-52.27,-19.78,32.75,30.84,24.09,14.17,16.69,19.37,32.22,0,0,0,0,0,0,0,0,0,0,0,0,0,0,0,0,
470,10.3,10.71,-23.41,-18.9,17.64,14.22,6.814,-57.12,-7.719,24.62,22.52,18.66,9.995,16.07,5.921,20.63,0,0,0,0,0,0,0,0,0,0,0,0,0,0,0,0,
471,2.82,-8.951,-20.99,-14.9,25.45,0.9676,-6.76,-49.15,-3.068,17.16,9.303,1.839,-6.885,3.247,-16.12,3.065,0,0,0,0,0,0,0,0,0,0,0,0,0,0,0,0,
472,-6.564,-28.66,-24.82,-43.8,22.93,-9.679,-26.47,-41.75,-10.84,7.286,-3.334,-11.78,-26.48,-17.08,-28.02,-13.32,0,0,0,0,0,0,0,0,0,0,0,0,0,0,0,0,
473,-17.62,-42.57,-50.48,-98.6,0.9872,-26.19,-49.92,-40.19,-26.07,-2.278,-13.81,-22.35,-41.82,-35.25,-33.45,-32.42,0,0,0,0,0,0,0,0,0,0,0,0,0,0,0,0,
474,-21.93,-46.36,-62.79,-83.91,-14.58,-42.3,-59.43,-42.24,-33.06,-3.118,-23.09,-22.31,-45.11,-35.62,-32.51,-37.4,0,0,0,0,0,0,0,0,0,0,0,0,0,0,0,0,
475,-11.83,-37.93,-53.07,-29.68,-13.88,-43.67,-47.67,-50.67,-32.15,4.11,-28.48,-8.014,-30.55,-18.31,-24.93,-22.12,0,0,0,0,0,0,0,0,0,0,0,0,0,0,0,0,
476,-0.5649,-26.38,-49.64,-30.17,-12.48,-40.08,-31.01,-51.35,-31.64,13.2,-29.66,-3.543,-16,-8.629,-24.66,-14.71,0,0,0,0,0,0,0,0,0,0,0,0,0,0,0,0,
477,-4.079,-22.76,-49.24,-49.22,-14.32,-42.74,-24.33,-47.94,-27.94,14.37,-28.52,-14.1,-16.96,-16.6,-27.2,-22.77,0,0,0,0,0,0,0,0,0,0,0,0,0,0,0,0,
478,-14.88,-24.62,-43.63,-45.49,-11.17,-40.61,-22.21,-54.38,-19.07,4.118,-16.91,-16.45,-18.83,-24.2,-19.13,-27.92,0,0,0,0,0,0,0,0,0,0,0,0,0,0,0,0,
479,-13.63,-20.6,-41.59,-47.44,-0.9634,-28.03,-20.72,-55.07,-12.14,-3.543,1.848,-10.84,-10.37,-18.58,-11.36,-27.3,0,0,0,0,0,0,0,0,0,0,0,0,0,0,0,0,
480,-3.842,-13.56,-42.01,-52.17,7.666,-18.49,-24.03,-51.48,-11.47,0.3276,5.097,-12.3,-3.082,-8.67,-12.65,-25.44,0,0,0,0,0,0,0,0,0,0,0,0,0,0,0,0,
481,-2.007,-14,-39.73,-46.27,8.191,-17.34,-24.9,-54.65,-16.32,9.718,-9.663,-16.99,-4.333,-9.353,-18.33,-24.81,0,0,0,0,0,0,0,0,0,0,0,0,0,0,0,0,
482,-6.946,-17.57,-38.97,-43.52,-2.119,-22.45,-22.29,-52.35,-29.68,16.03,-28.51,-19.78,-11.3,-21.04,-31.53,-32.55,0,0,0,0,0,0,0,0,0,0,0,0,0,0,0,0,
483,-13.87,-20.86,-44.12,-47.93,-19.96,-32.71,-21.6,-57.31,-47.77,10.11,-44.97,-22.18,-16.97,-29.68,-43.82,-39.82,0,0,0,0,0,0,0,0,0,0,0,0,0,0,0,0,
484,-15.94,-21.86,-44.87,-48.22,-26.76,-32.37,-8.652,-73.37,-49.57,0.3576,-46.87,-17.68,-7.717,-23.08,-33.77,-25.81,0,0,0,0,0,0,0,0,0,0,0,0,0,0,0,0,
485,-1.606,-9.128,-31.33,-37.82,-17.28,-15.73,13.68,-64.76,-29.56,6.629,-29.26,-2.427,14.52,-4.09,-8.096,2.417,0,0,0,0,0,0,0,0,0,0,0,0,0,0,0,0,
486,14.76,9.283,-15.57,-23.44,-6.913,-1.005,19.7,-41.17,-11.21,21.04,-9.704,14.22,29.36,11.77,6.761,16.05,0,0,0,0,0,0,0,0,0,0,0,0,0,0,0,0,
487,15.36,18.21,-13.65,-17.33,-5.546,3.85,13.06,-32.45,-12.09,27.57,-5.637,15.81,30.74,14.04,1.64,4.564,0,0,0,0,0,0,0,0,0,0,0,0,0,0,0,0,
488,6.293,20.35,-32.03,-29.01,-23.55,-7.179,0.4318,-30.23,-30.55,25.88,-19.72,-5.04,21.14,4.388,-12.17,-16.74,0,0,0,0,0,0,0,0,0,0,0,0,0,0,0,0,
489,-12.3,4.442,-59.69,-53.57,-51.68,-37.45,-27.63,-47.9,-51.01,11.03,-31.52,-23.87,1.329,-8.753,-11.65,-24.19,0,0,0,0,0,0,0,0,0,0,0,0,0,0,0,0,
490,-32.05,-29.42,-70.86,-69.11,-59.16,-60.67,-54.47,-91.76,-55.5,-7.986,-20.22,-14.94,-11.23,-12.77,10.27,-12.73,0,0,0,0,0,0,0,0,0,0,0,0,0,0,0,0,
491,-31.68,-42.44,-70.07,-73.47,-53.31,-65.52,-66.33,-112.4,-48.66,-13.02,-8.568,-1.962,-9.148,-8.67,22.84,-6.984,0,0,0,0,0,0,0,0,0,0,0,0,0,0,0,0,
492,-27.67,-34.7,-78.61,-81.68,-55.97,-73.17,-79.18,-100.3,-47.71,-19.7,-27.24,-15.46,-13.78,-13.73,5.963,-20.01,0,0,0,0,0,0,0,0,0,0,0,0,0,0,0,0,
493,-41.31,-41.67,-85.05,-88.58,-57.99,-80.85,-91.19,-93.14,-55.42,-33.85,-59.87,-38.5,-26.53,-25.5,-13.62,-30.46,0,0,0,0,0,0,0,0,0,0,0,0,0,0,0,0,
494,-50.58,-51.44,-80.45,-88.51,-56.43,-73.13,-85.92,-88.29,-65.92,-31.56,-75.48,-47.07,-29.9,-27.66,-14.14,-26.99,0,0,0,0,0,0,0,0,0,0,0,0,0,0,0,0,
495,-46.63,-47.65,-79.48,-87.35,-58.07,-63.82,-70.97,-72.84,-74.86,-24.12,-70.02,-43.08,-30.4,-26.58,-7.32,-20.5,0,0,0,0,0,0,0,0,0,0,0,0,0,0,0,0,
496,-48.87,-47.48,-82.53,-83.45,-58.77,-65.49,-64.34,-54.29,-75.28,-29.8,-52.89,-29.61,-32.15,-29.18,-1.264,-12.89,0,0,0,0,0,0,0,0,0,0,0,0,0,0,0,0,
497,-48.84,-44.02,-80.25,-78.23,-55.73,-65.72,-69.78,-40.51,-60.2,-29.3,-29.53,-6.949,-22.02,-25.39,5.698,-6.356,0,0,0,0,0,0,0,0,0,0,0,0,0,0,0,0,
498,-31.89,-28.16,-74.53,-76.1,-44.12,-58.58,-74.6,-47.67,-33.23,-22.1,-8.405,14.16,-6.375,-17.22,9.115,-7.136,0,0,0,0,0,0,0,0,0,0,0,0,0,0,0,0,
499,-14.62,-21.3,-66.65,-73.67,-22.47,-51.25,-68.03,-72.64,-5.594,-25.17,0.267,22.38,0.0786,-14.72,8.506,-6.683,0,0,0,0,0,0,0,0,0,0,0,0,0,0,0,0,
500,-8.194,-25.7,-54.65,-71.61,-7.943,-45.6,-63.03,-91.4,13.42,-26.62,-1.593,14.82,-3.032,-15.22,4.545,-4.394,0,0,0,0,0,0,0,0,0,0,0,0,0,0,0,0,
501,-7.729,-33.04,-46.82,-73.44,-13.42,-45.22,-68.83,-104.1,15.14,-16.47,-8.166,-0.3573,-11.97,-13.38,-6.281,-11.5,0,0,0,0,0,0,0,0,0,0,0,0,0,0,0,0,
502,-12.86,-41.18,-45.88,-72.3,-24.87,-47.61,-60.84,-107.5,1.774,-6.203,-19.69,-7.438,-15.07,-9.775,-17.46,-18.79,0,0,0,0,0,0,0,0,0,0,0,0,0,0,0,0,
503,-17.81,-27.67,-37.72,-60.74,-26.89,-39.41,-31.48,-95.02,-9.767,-1.126,-30.44,-4.792,-5.218,-7.187,-21.71,-15.87,0,0,0,0,0,0,0,0,0,0,0,0,0,0,0,0,
504,-15.55,4.137,-22.93,-45.14,-23.04,-22.42,-8.751,-84.67,-8.875,6.929,-28.78,-0.3355,4.458,-3.408,-21.6,-12.24,0,0,0,0,0,0,0,0,0,0,0,0,0,0,0,0,
505,-2.138,20.79,-6.621,-28.11,-7.556,1.682,10.43,-70.33,8.225,22.85,-13.04,11.05,8.978,5.051,-16.32,-13.66,0,0,0,0,0,0,0,0,0,0,0,0,0,0,0,0,
506,25.8,29.73,20.52,-2.046,22.79,33.65,40.84,-40.52,34.39,35.08,0.3462,24.64,15.19,11.84,-6.687,-15.64,0,0,0,0,0,0,0,0,0,0,0,0,0,0,0,0,
507,47.55,45.05,40.38,18.44,36.68,47.6,55.78,-20.15,43.52,35.9,-4.236,24.79,21.89,17.19,-0.1114,-9.986,0,0,0,0,0,0,0,0,0,0,0,0,0,0,0,0,
508,45.3,52.58,35.83,18.07,26.36,42.55,50.46,-15.29,32.94,37.34,-12.8,20.34,27.79,28.73,2.189,3.775,0,0,0,0,0,0,0,0,0,0,0,0,0,0,0,0,
509,38.85,55.21,33.66,18.77,20.06,46.31,53.12,-15.69,26.14,42.35,-9.473,15.39,30.09,34.79,2.017,9.332,0,0,0,0,0,0,0,0,0,0,0,0,0,0,0,0,
510,32.43,56.7,33.67,21.97,10.11,39.45,54.2,-18.67,17.42,41.14,-13.3,-5.201,24.69,27.2,-1.857,4.515,0,0,0,0,0,0,0,0,0,0,0,0,0,0,0,0,
511,10.55,46.07,13.25,6.078,-14.12,10.23,39.05,-4.553,-5.035,36.89,-30.89,-23.51,19.45,20.6,-5.663,6.764,0,0,0,0,0,0,0,0,0,0,0,0,0,0,0,0,
512,-3.333,36.27,1.097,-0.7287,-23.26,2.475,26.93,25.89,-14.45,38.32,-30.63,-9.62,22.48,19.72,1.321,15.54,0,0,0,0,0,0,0,0,0,0,0,0,0,0,0,0,
513,15.83,45.71,16.28,9.626,-12.35,19.43,27.88,44.23,2.507,43.34,-12.58,19.96,31.66,18.8,18.39,19.67,0,0,0,0,0,0,0,0,0,0,0,0,0,0,0,0,
514,40.91,61.1,21.19,-14.04,-8.236,20.49,33.21,44.57,12.93,41.34,-11.25,34.29,39.98,19.37,25.57,22.19,0,0,0,0,0,0,0,0,0,0,0,0,0,0,0,0,
515,42.66,61.73,5.66,-42.39,-10.26,8.231,33.49,35.13,6.123,30.07,-15.97,34.73,42.25,23.52,20.78,30.42,0,0,0,0,0,0,0,0,0,0,0,0,0,0,0,0,
516,34.04,50.86,3.904,-7.042,-1.86,5.275,24.32,26.94,10.34,22.12,-4.13,31.61,39.73,29.48,22.89,36.98,0,0,0,0,0,0,0,0,0,0,0,0,0,0,0,0,
517,27.01,40.1,12.88,31.84,4.893,1.539,10.04,22.89,19.9,18.69,-2.545,18.56,29.14,27.33,23.23,25.59,0,0,0,0,0,0,0,0,0,0,0,0,0,0,0,0,
518,9.443,28.99,-0.7161,5.202,-7.25,-14.74,-6.277,6.811,11.38,11.08,-15.57,1.031,10.45,14.39,8.228,6.253,0,0,0,0,0,0,0,0,0,0,0,0,0,0,0,0,
519,-14.22,20.82,-29.32,-33.4,-20.63,-32.33,-21.84,-15.27,4.886,7.093,-12.92,-1.437,-0.2282,6.357,-4.638,1.761,0,0,0,0,0,0,0,0,0,0,0,0,0,0,0,0,
520,-28.76,18.57,-47.76,-47.35,-20.29,-46.12,-34.5,-26.83,15.69,9.706,-5.213,3.289,-1.149,6.525,-5.126,2.884,0,0,0,0,0,0,0,0,0,0,0,0,0,0,0,0,
521,-36.12,8.737,-57.11,-64,-19.11,-58.49,-51.66,-38.28,26.97,8.814,0.6318,4.598,-4.85,9.233,2.287,2.563,0,0,0,0,0,0,0,0,0,0,0,0,0,0,0,0,
522,-34.65,-9.956,-61.89,-79.66,-17.27,-64.31,-70.82,-50.23,33.66,7.577,20.5,14.41,-9.57,16.07,12.3,9.082,0,0,0,0,0,0,0,0,0,0,0,0,0,0,0,0,
523,-28.3,-24.47,-65.69,-84.08,-11.75,-66.98,-78.33,-50.22,32.85,9.406,27.45,21.24,-14.69,14.62,10.64,7.612,0,0,0,0,0,0,0,0,0,0,0,0,0,0,0,0,
524,-31.15,-31.32,-68.7,-85.21,-13.88,-65.09,-71.26,-39.55,19.25,10.23,8.041,9.934,-14.98,6.744,1.748,2.309,0,0,0,0,0,0,0,0,0,0,0,0,0,0,0,0,
525,-27.54,-20.77,-56.33,-74.95,-18.42,-44.76,-51.2,-22.32,1.784,14.2,-9.378,1.135,6.421,17.91,0.8085,16.74,0,0,0,0,0,0,0,0,0,0,0,0,0,0,0,0,
526,-8.713,10.15,-35.97,-54.94,-21.61,-21.06,-25.29,-5.124,-18.24,19.42,-30.71,-1.969,31.29,31.4,-6.315,21.97,0,0,0,0,0,0,0,0,0,0,0,0,0,0,0,0,
527,-6.567,32.96,-29.99,-42.14,-32.66,-18.26,-9.904,9.348,-34.67,19.78,-53.66,-14.21,27.79,18.84,-20.52,-1.672,0,0,0,0,0,0,0,0,0,0,0,0,0,0,0,0,
528,-23.26,30.73,-32.83,-37.71,-40.56,-27.77,-11.49,15.87,-29.78,18.77,-42.09,-16.95,11.87,4.959,-14.26,-10.22,0,0,0,0,0,0,0,0,0,0,0,0,0,0,0,0,
529,-24.19,18.08,-38.58,-40,-39.64,-35.36,-22.35,-7.378,-13.93,11.24,-14.52,2.219,6.877,7.516,5.954,8.113,0,0,0,0,0,0,0,0,0,0,0,0,0,0,0,0,
530,-3.354,6.367,-46.51,-46.27,-37.19,-27.81,-24.1,-37.98,1.632,-4.059,-4.178,23.53,6.759,7.772,14.73,20.32,0,0,0,0,0,0,0,0,0,0,0,0,0,0,0,0,
531,26.28,3.898,-33.72,-37.55,-18.07,7.634,-1.617,-23.61,24.24,-9.54,7.291,39.37,11.15,2.977,13.79,20.59,0,0,0,0,0,0,0,0,0,0,0,0,0,0,0,0,
532,54.3,20.38,-0.0157,-11.4,10.67,43.75,27.48,5.856,29.81,-7.039,13.18,44.86,18.58,-0.6098,4.111,13.24,0,0,0,0,0,0,0,0,0,0,0,0,0,0,0,0,
533,58.81,41.6,18.35,4.404,11.91,46.2,38.9,2.57,1.252,-9.503,-12.4,28.32,15.26,-5.86,-14.03,0.6409,0,0,0,0,0,0,0,0,0,0,0,0,0,0,0,0,
534,37.78,51.33,16.74,6.713,-4.38,32.29,43.96,3.125,-20.05,-4.801,-34.76,14.19,13.26,-5.808,-15.73,2.571,0,0,0,0,0,0,0,0,0,0,0,0,0,0,0,0,
535,24.83,63.19,16.51,13.11,-10.93,23.69,52.88,24.61,-11.67,7.127,-25.73,25.98,28.53,2.764,2.34,20.63,0,0,0,0,0,0,0,0,0,0,0,0,0,0,0,0,
536,27.68,76.16,9.236,8.252,-14.99,8.089,46.12,25.96,0.1526,4.353,-17.14,34.19,35.43,7.317,9.391,30.96,0,0,0,0,0,0,0,0,0,0,0,0,0,0,0,0,
537,21.6,59.94,-10.36,-10.94,-11.35,-12.1,18.13,10.79,5.996,-9.614,-20.6,22.55,14.24,-0.7125,2.728,24.67,0,0,0,0,0,0,0,0,0,0,0,0,0,0,0,0,
538,11.64,20.07,-19.55,-22.5,4.622,-15.16,-8.684,3.15,11.97,-19.29,-15.83,13.78,-12.85,-17.14,-1.742,8.513,0,0,0,0,0,0,0,0,0,0,0,0,0,0,0,0,
539,16.32,-3.425,-17.52,-37.48,7.839,-5.77,-18.2,-2.983,16.32,-22.45,-6.567,9.227,-24.83,-25.2,-8.183,-4.171,0,0,0,0,0,0,0,0,0,0,0,0,0,0,0,0,
540,20.7,-0.7258,-17.07,-41.82,1.031,-3.571,-12.91,1.743,22.34,-15.38,-6.125,1.782,-21.27,-14.54,-12.71,0.5904,0,0,0,0,0,0,0,0,0,0,0,0,0,0,0,0,
541,10.04,7.978,-16.37,-18.64,2.533,-11.29,-7.779,19.35,25.7,-5.038,-12.75,-1.473,-12.28,-2.945,-9.854,9.621,0,0,0,0,0,0,0,0,0,0,0,0,0,0,0,0,
542,-3.722,10.03,-26.95,-37.07,-2.421,-26.22,-14.05,22.68,14.61,-7.264,-24.04,-12.9,-16.6,-7.141,-20.25,-3.219,0,0,0,0,0,0,0,0,0,0,0,0,0,0,0,0,
543,-17.15,1.473,-43.1,-85.2,-14.81,-47.93,-23.89,20.93,-4.042,-16.27,-43.12,-43.21,-37.83,-19.64,-45.16,-27.13,0,0,0,0,0,0,0,0,0,0,0,0,0,0,0,0,
544,-34.45,-14.84,-19.08,-47.85,-3.939,-57.53,-22.3,37.75,-10.71,-18.88,-56.19,-61.59,-48.19,-25.87,-48.58,-25.9,0,0,0,0,0,0,0,0,0,0,0,0,0,0,0,0,
545,-30.62,-15.79,45.69,41.38,36.26,-28.63,1.399,56.18,6.147,-10.39,-31.87,-37.02,-25.11,-11.17,-16.4,6.014,0,0,0,0,0,0,0,0,0,0,0,0,0,0,0,0,
546,12.24,13.47,109,92.39,81.55,28.44,45.61,74.27,40.42,10.72,23.38,13.13,14.71,21.71,26.71,43.07,0,0,0,0,0,0,0,0,0,0,0,0,0,0,0,0,
547,63.34,50.35,177.8,151.2,128.2,83.09,91.8,118.2,82.49,33.56,69.93,58.09,49.03,51.06,65.8,77.11,0,0,0,0,0,0,0,0,0,0,0,0,0,0,0,0,
548,103.5,82.79,268.3,245.5,187,131.1,134.5,177.9,126.3,50.89,97.5,93.64,81.69,75.36,101.4,110.9,0,0,0,0,0,0,0,0,0,0,0,0,0,0,0,0,
549,138,119.6,352,329.9,229.3,168.2,179.6,225.4,138.8,69.56,96.51,105,102.3,92.71,109.2,119.8,0,0,0,0,0,0,0,0,0,0,0,0,0,0,0,0,
550,141.4,139.2,436.1,409.6,237.3,183.3,210.4,263.8,100.6,81.48,54.13,74.17,87.23,78.65,74,91.57,0,0,0,0,0,0,0,0,0,0,0,0,0,0,0,0,
551,113.8,129.6,558.8,504.3,260.5,201.1,223.8,303,68.2,76.86,16.14,39.71,57.29,44.51,37.69,59.5,0,0,0,0,0,0,0,0,0,0,0,0,0,0,0,0,
552,110.2,123.6,682.4,594.4,313.5,239.4,248.9,344.2,82.67,72.61,19.36,38.14,45.38,27.8,29.09,43.99,0,0,0,0,0,0,0,0,0,0,0,0,0,0,0,0,
553,135.2,131.1,746.5,668.1,348.1,270.9,285.7,393.1,102.8,82.29,30.51,45.71,46.54,28.34,25.93,37.48,0,0,0,0,0,0,0,0,0,0,0,0,0,0,0,0,
554,148.5,134.5,767.6,723.9,360.2,285.2,304.8,436.3,101.4,94.57,30.01,52.61,56.9,32.75,26.22,44.52,0,0,0,0,0,0,0,0,0,0,0,0,0,0,0,0,
555,154.8,145.6,778.3,750.7,374.3,302.6,308.6,447.9,100.7,100.6,34.38,77.09,84.72,43.34,44.62,67.5,0,0,0,0,0,0,0,0,0,0,0,0,0,0,0,0,
556,176,184.3,782.2,751.4,388.7,329.5,325.5,438.3,111.4,111,44.88,108.3,121.5,60.09,66.14,93.35,0,0,0,0,0,0,0,0,0,0,0,0,0,0,0,0,
557,201.8,231.2,778.8,740,398.2,347.1,349.6,429.9,121.3,128.6,47.97,124.1,148.3,76.95,75.99,108.1,0,0,0,0,0,0,0,0,0,0,0,0,0,0,0,0,
558,207.8,245.3,751.9,706.6,388.2,331.4,347,420.7,115,133.1,32.55,117.4,148.5,79.7,73.3,97.69,0,0,0,0,0,0,0,0,0,0,0,0,0,0,0,0,
559,187.7,222.1,687.2,642.6,348.2,289.2,319.3,410.2,92.16,117.1,8.996,95.59,125.2,61.4,60.93,71.17,0,0,0,0,0,0,0,0,0,0,0,0,0,0,0,0,
560,161.1,195.7,606.9,571.9,303.3,254.1,291,392.4,75.27,98.01,2.691,83.04,104.6,41.17,52.71,56.16,0,0,0,0,0,0,0,0,0,0,0,0,0,0,0,0,
561,143.6,185.6,540.2,512.7,274.6,231.3,263.6,350.4,75.95,84.36,9.764,85.3,95.21,29.76,47.83,46.79,0,0,0,0,0,0,0,0,0,0,0,0,0,0,0,0,
562,130.7,181.8,487.2,456.6,249.7,205.6,235.1,294.4,78.84,72.73,11.9,80.69,84.86,17.91,34.72,30.76,0,0,0,0,0,0,0,0,0,0,0,0,0,0,0,0,
563,122.5,169.7,430.5,396.3,217.6,185,212.2,247.3,76.99,63.58,16.23,70.48,73.95,11.16,28.38,27.35,0,0,0,0,0,0,0,0,0,0,0,0,0,0,0,0,
564,122.6,149.5,373.2,342.3,190.2,179.2,193.3,216.1,76.94,58.35,23.97,66.22,66.62,15.62,31.01,34.13,0,0,0,0,0,0,0,0,0,0,0,0,0,0,0,0,
565,116.8,135.9,327.1,300.6,167.9,166.5,172,200.7,67.5,53.91,15.41,55.93,58.89,18.78,18.74,31.57,0,0,0,0,0,0,0,0,0,0,0,0,0,0,0,0,
566,91.62,127.6,274.5,253.5,134.4,131.5,142.2,184.8,39.69,43.77,-4.979,40.82,53.54,20.23,4.706,34.22,0,0,0,0,0,0,0,0,0,0,0,0,0,0,0,0,
567,63.38,114.7,219.4,202,104.2,102.9,116.2,153.1,16.1,29.82,-13.41,36.78,50.39,25.9,10.63,44.98,0,0,0,0,0,0,0,0,0,0,0,0,0,0,0,0,
568,56.69,108.9,201,176.8,100,106.7,117.6,122.8,12.09,19.45,-8.574,38.15,39.52,23.31,18.05,41.29,0,0,0,0,0,0,0,0,0,0,0,0,0,0,0,0,
569,67.65,108.8,201.7,168.1,96.84,116.7,124.4,107.8,13.04,9.907,-0.8365,39.34,24.85,10.83,19.5,33.14,0,0,0,0,0,0,0,0,0,0,0,0,0,0,0,0,
570,70.54,92.57,171.3,139.8,72.26,99.42,99.48,93.88,10.93,3.611,7.539,42.48,18.47,4.828,23.15,32.04,0,0,0,0,0,0,0,0,0,0,0,0,0,0,0,0,
571,57.25,72.92,125.3,103.4,50.03,71.28,67.83,74.35,17.71,10.12,16.84,41.52,18.69,5.132,19.18,21.79,0,0,0,0,0,0,0,0,0,0,0,0,0,0,0,0,
572,53.23,74.89,106.2,90.18,52.87,67.36,63.65,56.71,38.79,18.4,26.78,41.19,20.09,1.414,9.865,9.351,0,0,0,0,0,0,0,0,0,0,0,0,0,0,0,0,
573,71.5,81.06,107.1,89.21,68.88,78.23,63.5,40.77,56,10.79,28.31,43.78,16.07,-7.504,4.76,6.865,0,0,0,0,0,0,0,0,0,0,0,0,0,0,0,0,
574,81.68,66.92,97.03,72.86,72.24,69.04,43.85,20.25,52.47,-8.076,15.55,38.93,1.174,-16.18,0.032,1.971,0,0,0,0,0,0,0,0,0,0,0,0,0,0,0,0,
575,71.61,49.74,77.64,50.01,63.02,46.6,25.74,2.906,43.03,-19.14,6.88,37.98,-6.364,-14.23,2.221,-0.345,0,0,0,0,0,0,0,0,0,0,0,0,0,0,0,0,
576,70.66,53.82,72,47.12,62.46,40.31,26.9,12.87,43.54,-13.38,10.96,44.24,6.095,-5.634,8.092,3.528,0,0,0,0,0,0,0,0,0,0,0,0,0,0,0,0,
577,78.35,68.14,78.95,58.35,64.17,43.41,33.55,44.96,38.3,-4.504,9.321,31.98,14.97,-8.557,1.888,-2.418,0,0,0,0,0,0,0,0,0,0,0,0,0,0,0,0,
578,66.47,74.92,76.61,60.38,47.97,34.52,32.24,53.92,19.81,-1.365,2.834,10.58,12.49,-15.5,-0.9874,-1.413,0,0,0,0,0,0,0,0,0,0,0,0,0,0,0,0,
579,40.82,75.89,55.95,46.56,23.67,14.44,26.54,31.7,11.19,6.178,7.259,7.112,16.77,-7.962,8.091,17.33,0,0,0,0,0,0,0,0,0,0,0,0,0,0,0,0,
580,20.26,67.97,30.82,27.33,8.22,-5.854,19.29,10.44,21.09,10.96,14.04,6.765,20.11,2.755,11.94,21.72,0,0,0,0,0,0,0,0,0,0,0,0,0,0,0,0,
581,9.686,49.27,23.7,22.13,7.655,-13.03,10.89,-10.51,34.47,5.4,22.21,8.506,17.45,5.748,26.02,21.78,0,0,0,0,0,0,0,0,0,0,0,0,0,0,0,0,
582,26.38,47.29,40.75,38.51,29.04,6.165,14.89,-28.37,52.55,11.87,52.04,43.75,32.08,12.69,62.68,48.99,0,0,0,0,0,0,0,0,0,0,0,0,0,0,0,0,
583,78.04,79.17,65.88,59.84,62.04,45.74,42.02,-14.86,79.94,28.51,88.51,94.78,57.89,23.85,87.4,73.58,0,0,0,0,0,0,0,0,0,0,0,0,0,0,0,0,
584,125.5,114.6,81.87,69.73,82.57,79.41,72.55,6.897,95.51,27.98,96.15,113.7,66.72,27.68,85.64,75.3,0,0,0,0,0,0,0,0,0,0,0,0,0,0,0,0,
585,135.2,126.2,87.8,73.09,88.67,89.29,82.46,3.865,89.3,17.65,80.96,102.1,64.41,25.58,73.2,76.4,0,0,0,0,0,0,0,0,0,0,0,0,0,0,0,0,
586,126.9,124.8,95.91,83.48,91.64,82.89,83.9,4.566,80.05,14.75,64.84,83.54,65.08,22.91,54.05,72.55,0,0,0,0,0,0,0,0,0,0,0,0,0,0,0,0,
587,122.7,124.3,106.3,96.42,90.8,72.7,93.79,23.73,71.46,18.43,49.27,60.58,61.9,19.08,34.42,55.06,0,0,0,0,0,0,0,0,0,0,0,0,0,0,0,0,
588,105,116.7,97.24,92.07,76.85,51.91,89.16,34.39,48,25.61,29.85,34.5,46.56,11.61,14.56,36.09,0,0,0,0,0,0,0,0,0,0,0,0,0,0,0,0,
589,61.01,86.69,62.13,63.22,48.61,14.5,50.98,25.71,16.93,21.84,6.617,9.944,18.16,-1.34,-14.7,14.6,0,0,0,0,0,0,0,0,0,0,0,0,0,0,0,0,
590,20.35,42.7,30.59,28.68,28.25,-17.18,10.6,-0.6013,7.621,4.602,-3.808,-8.262,-9.627,-12.42,-33.34,-3.624,0,0,0,0,0,0,0,0,0,0,0,0,0,0,0,0,
591,14.61,19.25,29.46,20.99,34.8,-20.94,-0.6728,-33.42,24.66,-1.25,12.55,-8.215,-16.37,-12.06,-24.13,-3.633,0,0,0,0,0,0,0,0,0,0,0,0,0,0,0,0,
592,30.38,24.48,47.16,37.65,47.98,-8.442,5.905,-48.41,40.56,5.022,29.79,9.009,-7.644,-6.95,-9.182,3.581,0,0,0,0,0,0,0,0,0,0,0,0,0,0,0,0,
593,38.67,28.83,51.88,38.77,42.44,-2.462,7.687,-47.37,41.81,6.973,29.07,22.81,-5.25,-6.926,-1.153,6.518,0,0,0,0,0,0,0,0,0,0,0,0,0,0,0,0,
594,36.69,17.67,38.74,26.81,29.44,-5.807,0.6314,-45.29,39.48,8.972,34.63,25.36,-11.64,-7.19,12.18,12.72,0,0,0,0,0,0,0,0,0,0,0,0,0,0,0,0,
595,35.09,5.281,31.56,20.96,30.3,-7.435,-1.92,-37.81,38.37,9.231,51.04,27.11,-16.27,-2.491,29.25,23.23,0,0,0,0,0,0,0,0,0,0,0,0,0,0,0,0,
596,33,-0.7207,29.19,-6.392,36,-8.9,-0.262,-33.99,32.24,1.088,49.58,26.73,-19.66,-0.0734,33.53,30.64,0,0,0,0,0,0,0,0,0,0,0,0,0,0,0,0,
597,16.05,-11.9,12.28,-35.14,24.57,-21.21,-14.2,-48.33,19.63,-2.369,32.29,16.6,-25.16,-4.376,23.55,33.53,0,0,0,0,0,0,0,0,0,0,0,0,0,0,0,0,
598,-13.53,-27.25,-1.624,-9.521,5.523,-34.89,-34.17,-61.94,7.061,2.058,28.22,7.852,-24.46,-7.04,16.07,35.44,0,0,0,0,0,0,0,0,0,0,0,0,0,0,0,0,
599,-26.75,-29.44,1.726,19.93,-2.82,-38.88,-39.23,-65.24,-0.9759,0.604,35.95,7.128,-17.13,-6.831,15.96,36.91,0,0,0,0,0,0,0,0,0,0,0,0,0,0,0,0,
600,-17.03,-21.81,1.597,2.658,-4.035,-37.37,-37.75,-70.45,0.0069,-2.068,39.59,8.666,-10.81,-8.519,17.8,38.96,0,0,0,0,0,0,0,0,0,0,0,0,0,0,0,0,
601,0.5375,-10.19,5.822,0.2464,9.661,-17.29,-25.86,-65.49,18.07,5.38,47.99,21.82,3.157,-3.618,25.59,45.4,0,0,0,0,0,0,0,0,0,0,0,0,0,0,0,0,
602,30.29,15.16,28.16,28.16,39.11,22.55,0.4584,-47.1,40.4,10.64,58.29,46.25,26.21,6.364,31.5,51.15,0,0,0,0,0,0,0,0,0,0,0,0,0,0,0,0,
603,68.09,42.83,39.5,30.8,52.68,47.54,17.45,-40.47,42.39,7.311,46.89,59.46,42.25,8.997,24.69,52.75,0,0,0,0,0,0,0,0,0,0,0,0,0,0,0,0,
604,89.78,59.07,31.87,16.64,46.69,50.35,26.31,-43.82,29.46,15.41,21.94,56.34,50.4,14.2,17.42,54.87,0,0,0,0,0,0,0,0,0,0,0,0,0,0,0,0,
605,88.18,69.01,25.1,13.71,42.07,47.55,34.65,-36.9,20.24,36.74,9.861,44.5,53.01,25.23,10.9,50.6,0,0,0,0,0,0,0,0,0,0,0,0,0,0,0,0,
606,73.42,68.56,19.17,12.29,34.65,40.93,30.57,-17.61,16.1,49.83,10.88,32.37,45.51,24.17,-2.704,40.12,0,0,0,0,0,0,0,0,0,0,0,0,0,0,0,0,
607,60.5,62.38,16.25,15.21,23.65,38.31,27.73,1.868,13.29,51.4,12.94,34.68,36.78,16.18,-5.553,40.91,0,0,0,0,0,0,0,0,0,0,0,0,0,0,0,0,
608,60.43,62.12,20.55,24.26,24.68,43.4,33.12,2.918,18.22,47.08,21.59,52.33,35.78,17.73,12.61,51.31,0,0,0,0,0,0,0,0,0,0,0,0,0,0,0,0,
609,73.42,58.77,23.83,24.3,39.36,48.8,29.02,-12.58,40.64,34.62,47.68,75.99,39.95,24.58,33.38,57.4,0,0,0,0,0,0,0,0,0,0,0,0,0,0,0,0,
610,93.36,51.49,23.55,15.77,49.78,55.21,21.5,-24.18,66.26,18.48,71.18,93.4,39.47,26.65,38.89,56.32,0,0,0,0,0,0,0,0,0,0,0,0,0,0,0,0,
611,105.5,44.5,19.62,8.614,43.82,55.06,15.43,-28.57,71.33,8.398,70.87,85.85,25.51,21.71,26.49,46.9,0,0,0,0,0,0,0,0,0,0,0,0,0,0,0,0,
612,99.73,27.9,13.98,5.258,34.85,43.53,1.511,-26.77,63.05,6.707,66.01,57.91,8.923,15.83,7.712,32.75,0,0,0,0,0,0,0,0,0,0,0,0,0,0,0,0,
613,77.99,4.31,7.118,-3.802,26.15,29.82,-15.28,-23.61,49.31,1.898,63.61,28.29,-1.491,12.65,-6.859,20.86,0,0,0,0,0,0,0,0,0,0,0,0,0,0,0,0,
614,41.67,-14.57,-8.821,-24.99,4.043,10.69,-32.03,-37.02,24.93,-12.38,47.71,0.0344,-14.23,6.974,-17.26,11.43,0,0,0,0,0,0,0,0,0,0,0,0,0,0,0,0,
615,7.974,-21.04,-23.38,-37.75,-11.01,-9.442,-45.23,-55.24,8.508,-18.16,34.21,-17.64,-24.21,-1.236,-22.08,4.315,0,0,0,0,0,0,0,0,0,0,0,0,0,0,0,0,
616,-2.253,-11.65,-17.79,-28.56,4.033,-11.18,-43.75,-50.47,14.14,-11.72,40.35,-14.05,-24.31,-8.583,-20.44,1.156,0,0,0,0,0,0,0,0,0,0,0,0,0,0,0,0,
617,2.662,1.109,-1.377,-16.12,23.8,-0.1577,-32.62,-32.01,24.28,-11.2,54.22,0.9797,-20.79,-12.17,-14.34,4.267,0,0,0,0,0,0,0,0,0,0,0,0,0,0,0,0,
618,11.99,6.707,5.237,-10.82,24.98,8.553,-21.49,-17.5,29.91,-10.52,68.46,17.43,-11.44,-7.336,-1.878,11.05,0,0,0,0,0,0,0,0,0,0,0,0,0,0,0,0,
619,26.53,9.47,2.117,-5.599,22.72,19.05,-8.671,-4.985,41.72,-2.159,81.38,31.77,2.312,-0.9279,10.59,14.13,0,0,0,0,0,0,0,0,0,0,0,0,0,0,0,0,
620,39.59,12.42,7.263,1.474,29.63,29.48,6.202,0.0209,58.44,1.726,86.18,38.4,11.32,1.665,12.32,19.69,0,0,0,0,0,0,0,0,0,0,0,0,0,0,0,0,
621,43.43,18.97,19.42,7.493,32.01,27.51,16.93,-8.393,63.39,6.092,82.85,38.57,20.23,9.649,11.73,34.46,0,0,0,0,0,0,0,0,0,0,0,0,0,0,0,0,
622,39.38,31.21,17.05,8.683,23.92,21.57,17.4,-15.57,56.77,14.66,78.61,41.86,30.88,18.9,19.21,45.18,0,0,0,0,0,0,0,0,0,0,0,0,0,0,0,0,
623,37.37,41.48,5.18,3.951,19.38,25.9,11.66,-16.12,50.51,13.58,72.98,48.89,32.43,16.23,23.16,44.08,0,0,0,0,0,0,0,0,0,0,0,0,0,0,0,0,
624,39.93,41.37,-0.7507,-3.269,18.37,27.19,7.59,-22.11,37.27,7.92,56.57,46.28,23.71,7.39,19.12,39.24,0,0,0,0,0,0,0,0,0,0,0,0,0,0,0,0,
625,38.95,33.67,-7.147,-9.206,12.03,17.48,5.162,-22.4,15.55,6.717,34.1,33.6,14.52,2.274,18.13,34.58,0,0,0,0,0,0,0,0,0,0,0,0,0,0,0,0,
626,38.12,31.99,-16,-13.53,3.383,13.58,6.104,-2.113,1.836,4.614,20.14,29.62,12.95,2.601,13.68,32.63,0,0,0,0,0,0,0,0,0,0,0,0,0,0,0,0,
627,41.05,41.84,-20.52,-17.48,-1.306,17.73,15.56,16,0.4338,7.36,18.64,40.27,23.57,11.16,4.625,39.85,0,0,0,0,0,0,0,0,0,0,0,0,0,0,0,0,
628,43.83,55.29,-16.43,-15.87,8.697,23.18,30.95,17.91,13.18,17.63,31.05,49.82,37.44,21.14,6.855,45.32,0,0,0,0,0,0,0,0,0,0,0,0,0,0,0,0,
629,50.37,62.75,-4.974,-8.559,30.15,33.6,41.92,23.72,36.76,23.05,47.91,40.22,30.54,15.59,4.486,25.26,0,0,0,0,0,0,0,0,0,0,0,0,0,0,0,0,
630,52.31,54.69,-2.299,-7.049,36.76,41.9,38.12,34.1,48.23,23.26,51.55,15.4,3.364,-0.6993,-14.12,-7.55,0,0,0,0,0,0,0,0,0,0,0,0,0,0,0,0,
631,36.46,36.16,-15.81,-13.43,20.99,37.25,22.03,30.46,39.39,21.93,45.68,-0.6233,-12.41,-7.164,-18.81,-17.62,0,0,0,0,0,0,0,0,0,0,0,0,0,0,0,0,
632,10.65,24.48,-32.23,-24.84,-1.975,22.06,6.533,18.17,22.81,15.38,35.28,-4.739,-12.16,-7.63,-12.62,-13.74,0,0,0,0,0,0,0,0,0,0,0,0,0,0,0,0,
633,-18.54,18.99,-40.97,-39.75,-13.54,5.17,-2.755,12.61,11.03,10.71,18.57,-9.867,-14.86,-12.58,-19.4,-15.63,0,0,0,0,0,0,0,0,0,0,0,0,0,0,0,0,
634,-45.7,14.36,-38.75,-44.61,-1.292,-3.654,-6.72,13.61,13.62,12.53,10.37,-9.7,-15,-11.29,-19.47,-8.946,0,0,0,0,0,0,0,0,0,0,0,0,0,0,0,0,
635,-54.49,15.9,-31.97,-34.8,15.18,-5.263,-4.048,15.1,23.88,10.52,16.22,-1.16,-8.124,-2.671,-10.21,0.8897,0,0,0,0,0,0,0,0,0,0,0,0,0,0,0,0,
636,-40.86,20.28,-29.81,-24.36,14.65,-5.3,3.966,12.28,29.89,4.328,23.73,3.776,-7.492,2.274,-17.06,-6.308,0,0,0,0,0,0,0,0,0,0,0,0,0,0,0,0,
637,-20.29,20.21,-29.73,-21.3,11,0.3837,8.146,3.819,32.25,2.302,27.47,1.961,-12.2,7.291,-27.76,-15.5,0,0,0,0,0,0,0,0,0,0,0,0,0,0,0,0,
638,-12.05,13.51,-30.34,-26.27,11.79,9.716,0.6393,-6.96,30.66,2.744,27.24,-3.848,-16.24,11.43,-27.65,-16.94,0,0,0,0,0,0,0,0,0,0,0,0,0,0,0,0,
639,-16.26,5.432,-29.98,-33.68,9.106,16.79,-8.17,-19.99,28.67,4.202,30.67,-6.682,-18.49,6.21,-26.85,-22.25,0,0,0,0,0,0,0,0,0,0,0,0,0,0,0,0,
640,-13.55,13.41,-21.04,-28.14,8.804,28.85,2.346,-23.93,32.87,11.09,41.51,1.312,-11.05,0.3999,-20.54,-23.42,0,0,0,0,0,0,0,0,0,0,0,0,0,0,0,0,
641,-3.636,34.28,-6.747,-5.855,15.74,44.93,26.85,-2.574,36,20.72,44.21,9.609,0.4036,2.98,-6.795,-9.717,0,0,0,0,0,0,0,0,0,0,0,0,0,0,0,0,
642,-2.09,38.79,2.363,12.38,19.65,48.42,33.59,20.59,33.06,21.77,37,8.59,0.3545,8.573,-1.274,7.443,0,0,0,0,0,0,0,0,0,0,0,0,0,0,0,0,
643,-4.197,28.05,-1.058,7.89,10.97,36.82,16.75,21.63,28.53,9.216,33.27,9.637,-3.492,10.49,-2.216,13.5,0,0,0,0,0,0,0,0,0,0,0,0,0,0,0,0,
644,-0.1192,26.43,-13.83,-5.671,-1.742,27.29,6.117,22.42,25.25,-3.832,30.34,16.6,0.2452,3.284,1.187,7.594,0,0,0,0,0,0,0,0,0,0,0,0,0,0,0,0,
645,6.587,30.33,-13.53,-4.152,0.8209,35.13,13.88,29.78,30.5,-1.221,29.52,20.4,5.366,-8.896,6.817,1.203,0,0,0,0,0,0,0,0,0,0,0,0,0,0,0,0,
646,15.6,31.27,8.322,7.552,18.34,53.89,22.67,32.68,45.43,9.162,37.8,21.41,7.441,-14.08,10.03,-2.688,0,0,0,0,0,0,0,0,0,0,0,0,0,0,0,0,
647,22.61,32.35,22.32,9.604,29.84,55.23,17.54,37.29,53.76,4.832,39.1,16.69,2.548,-14.6,5.961,-9.748,0,0,0,0,0,0,0,0,0,0,0,0,0,0,0,0,
648,9.95,20.86,12.7,2.809,29.86,34.89,2.433,31.32,50.64,-12.26,27.24,0.1768,-9.224,-14.21,-2.426,-7.147,0,0,0,0,0,0,0,0,0,0,0,0,0,0,0,0,
649,-17.6,0.1646,5.468,3.234,34.45,25.02,-1.319,14.24,51.32,-17.27,27.41,-11.66,-9.209,-5.708,0.858,13.41,0,0,0,0,0,0,0,0,0,0,0,0,0,0,0,0,
650,-33.51,-0.5212,10.78,6.433,43.27,25.28,8.853,13.61,57.89,-9.019,46.34,-3.757,5.262,3.264,15.36,28.82,0,0,0,0,0,0,0,0,0,0,0,0,0,0,0,0,
651,-37.24,10.31,5.149,-5.945,39.71,11.14,7.03,14.9,59.4,-11.45,63.48,12.04,12.1,0.7745,23.74,25.57,0,0,0,0,0,0,0,0,0,0,0,0,0,0,0,0,
652,-38.47,7.783,-11.54,-20.98,32.15,1.04,-6.525,2.62,58.22,-26.54,69.88,21.47,8.673,-2.942,24.37,17.4,0,0,0,0,0,0,0,0,0,0,0,0,0,0,0,0,
653,-33.06,1.078,-22.49,-22.99,36.01,4.309,-16.96,0.8495,60.76,-34.22,67.73,17.78,2.893,-2.55,22.06,11.9,0,0,0,0,0,0,0,0,0,0,0,0,0,0,0,0,
654,-31.77,-7.505,-37.52,-35.06,35.48,-10.41,-35.32,2.592,60.49,-31.02,56.13,-0.1046,-10.54,-11.83,11.03,-0.07,0,0,0,0,0,0,0,0,0,0,0,0,0,0,0,0,
655,-42.78,-25.74,-59.65,-60.73,18.11,-36.83,-53.47,-10.52,51.08,-29.88,38.27,-18.38,-28.58,-31.5,-6.958,-25.8,0,0,0,0,0,0,0,0,0,0,0,0,0,0,0,0,
656,-47.06,-34.87,-64.07,-65.58,7.666,-37.73,-43.03,-20.18,45.59,-31.32,27.38,-19.96,-38.32,-43.23,-20.37,-50.65,0,0,0,0,0,0,0,0,0,0,0,0,0,0,0,0,
657,-35.61,-23.5,-43.4,-44.47,23.33,-15.75,-16.32,-13.14,58.19,-25.05,30.72,-7.02,-38.09,-40.61,-30.56,-58.36,0,0,0,0,0,0,0,0,0,0,0,0,0,0,0,0,T2
658,-22.91,-10.46,-23.62,-27.47,38.93,-4.566,-7.571,0.3393,68.33,-18.25,32.17,-0.7809,-37.58,-37.2,-45.54,-61.06,0,0,0,0,0,0,0,0,0,0,0,0,0,0,0,0,
659,-20.57,-8.872,-27.62,-32,26.82,-13.18,-16.18,5.3,55.82,-24.56,23.49,-6.545,-40.5,-39.85,-56.6,-66.51,0,0,0,0,0,0,0,0,0,0,0,0,0,0,0,0,
660,-23.2,-10.01,-41.76,-41.34,8.144,-14.45,-13.18,3.639,41.73,-34.92,20.27,-5.601,-38.24,-42.71,-54.53,-65.69,0,0,0,0,0,0,0,0,0,0,0,0,0,0,0,0,
661,-20.29,-4.47,-40.04,-31.74,2.852,-1.762,5.867,10.73,35.92,-38.11,17.97,-0.9661,-28.9,-43.6,-46.03,-62.36,0,0,0,0,0,0,0,0,0,0,0,0,0,0,0,0,
662,-13.06,5.328,-29.04,-14.52,-1.676,3.496,18.31,18.21,23.74,-34.69,5.918,-2.684,-17.62,-39.91,-28.79,-52.56,0,0,0,0,0,0,0,0,0,0,0,0,0,0,0,0,
663,-3.519,15.41,-26.77,-9.895,-6.24,3.425,23.11,14.73,9.531,-24.84,-0.5212,7.481,-3.679,-32.81,-0.5473,-32.44,0,0,0,0,0,0,0,0,0,0,0,0,0,0,0,0,
664,5.438,20.12,-31.18,-13.9,-8.517,2.466,22.47,8.857,-3.434,-21.85,-3.597,24.74,7.165,-33.56,15.22,-28.49,0,0,0,0,0,0,0,0,0,0,0,0,0,0,0,0,
665,4.216,12.8,-35.5,-25.41,-16.45,-4.245,3.909,-0.5225,-14.88,-34.36,-16.81,20.9,9.351,-38.16,8.363,-41.7,0,0,0,0,0,0,0,0,0,0,0,0,0,0,0,0,
666,-0.1146,1.931,-33.88,-33.51,-20.77,-3.374,-11.9,-2.134,-10.67,-40.45,-22.78,4.396,6.966,-37.45,0.1232,-43.77,0,0,0,0,0,0,0,0,0,0,0,0,0,0,0,0,
667,-0.5832,-2.163,-22.89,-18.95,-13.67,1.345,-4.122,18.5,2.706,-31.71,-11.35,-5.119,-4.354,-44.22,1.275,-42.82,0,0,0,0,0,0,0,0,0,0,0,0,0,0,0,0,
668,-7.753,-2.925,-12.91,-9.691,-1.856,-3.075,5.042,31.16,12.9,-26.66,5.818,-3.725,-20.2,-57.82,11.11,-44.48,0,0,0,0,0,0,0,0,0,0,0,0,0,0,0,0,
669,-8.953,0.7885,-7.526,-12.4,13.06,5.115,13.49,31.77,35.34,-25.2,37.38,22.1,-11.6,-50.39,40.97,-19.51,0,0,0,0,0,0,0,0,0,0,0,0,0,0,0,0,
670,24.03,20.18,12.6,22.3,38.79,44.38,42.03,58.91,85.69,-10.31,97.51,80,35.05,-9.948,94.68,32.26,0,0,0,0,0,0,0,0,0,0,0,0,0,0,0,0,
671,85.7,61.09,52.08,53.42,85.08,100.6,78.22,93.94,151.6,20.34,156.4,138.8,93.12,45.28,142.5,75.92,0,0,0,0,0,0,0,0,0,0,0,0,0,0,0,0,
672,132.9,102.9,79.93,18.76,124.6,135.2,96.43,101,184.4,49.07,166.6,152.9,120.3,83.09,148.3,89.47,0,0,0,0,0,0,0,0,0,0,0,0,0,0,0,0,
673,126.7,109,76.05,9.561,110.1,118,88.39,94.3,153.4,60.65,138.2,125.1,106,87.43,120.7,73.43,0,0,0,0,0,0,0,0,0,0,0,0,0,0,0,0,
674,86.6,85.75,54.55,66.07,62.8,79.89,65.47,77.64,101.4,62.2,110.5,95.09,78.19,72.28,88.04,37.44,0,0,0,0,0,0,0,0,0,0,0,0,0,0,0,0,
675,56.69,67.11,27.88,67.12,30.45,59.11,47.61,45.84,61.99,57.98,71.94,64.99,47.45,45.42,44.71,-10.34,0,0,0,0,0,0,0,0,0,0,0,0,0,0,0,0,
676,32.93,47.25,1.526,5.669,10.67,42.37,33.51,18.9,24.89,38.82,19.41,30.32,10.39,6.552,0.1748,-48.1,0,0,0,0,0,0,0,0,0,0,0,0,0,0,0,0,
677,13.72,17.5,-10.18,-15.12,6.711,33.87,15.39,2.923,13.78,16.38,2.2,26.68,-5.115,-20.09,-4.455,-47.33,0,0,0,0,0,0,0,0,0,0,0,0,0,0,0,0,
678,24.53,4.364,-5.72,-5.482,25.19,48.35,4.382,-9.449,36.03,7.133,16.67,47.76,10.15,-20.15,15.51,-25.54,0,0,0,0,0,0,0,0,0,0,0,0,0,0,0,0,
679,38.6,10.27,-3.645,-13.31,26.43,49.73,2.049,-17.11,36.15,0.8236,10.04,44.87,20.61,-13.99,17.22,-19.88,0,0,0,0,0,0,0,0,0,0,0,0,0,0,0,0,
680,16.53,13.58,-11.91,-25.42,-0.4922,25.88,0.9403,-23.52,11.21,-5.579,-3.823,29.55,19.07,-10.48,17.49,-20.48,0,0,0,0,0,0,0,0,0,0,0,0,0,0,0,0,
681,-12.8,15.94,-22.23,-31.41,-15.22,15.35,5.159,-31.65,9.215,-0.2,3.157,31.3,22.43,-4.568,24.77,-14.84,0,0,0,0,0,0,0,0,0,0,0,0,0,0,0,0,
682,-21.43,17.57,-30.85,-35.2,-11.32,19.92,12.6,-40.33,18.62,6.978,-1.938,26.36,18.59,-8.602,5.3,-26.13,0,0,0,0,0,0,0,0,0,0,0,0,0,0,0,0,
683,-28.98,7.664,-32.73,-33.94,-8.689,18.34,19.66,-45.83,12.08,2.041,-26.94,1.147,-3.158,-29.41,-33.11,-56.15,0,0,0,0,0,0,0,0,0,0,0,0,0,0,0,0,
684,-47.63,-9.718,-18.85,-18.48,-11.01,11.94,23.03,-42.47,2.543,-7.655,-45.61,-26.62,-32.53,-52.36,-62.34,-77.93,0,0,0,0,0,0,0,0,0,0,0,0,0,0,0,0,
685,-72.34,-31.1,-3.614,1.476,-19.15,-2.848,8.838,-37.16,-8.458,-16.31,-70.65,-54.89,-59.37,-66.66,-87.53,-83.72,0,0,0,0,0,0,0,0,0,0,0,0,0,0,0,0,
686,-96.25,-52.63,-6.85,-4.961,-25.92,-22.84,-12.9,-33.62,-25.13,-23.5,-102.1,-82.39,-72.18,-73.25,-108.4,-85.57,0,0,0,0,0,0,0,0,0,0,0,0,0,0,0,0,
687,-111.2,-64.79,-17.57,-22.38,-25.29,-33.62,-27.98,-27.47,-30.34,-27.62,-111.6,-100.2,-74.97,-79.04,-119.4,-93.22,0,0,0,0,0,0,0,0,0,0,0,0,0,0,0,0,
688,-122.3,-81.74,-25.79,-28.58,-30.61,-44.41,-54.88,-28.49,-24.17,-36.02,-109,-111.7,-86.45,-87.96,-126.6,-105.1,0,0,0,0,0,0,0,0,0,0,0,0,0,0,0,0,
689,-133.3,-108.8,-39.79,-59.61,-41.93,-58.07,-80.8,-36.75,-23.52,-48.39,-105.9,-115.7,-99.95,-90.46,-124.3,-112,0,0,0,0,0,0,0,0,0,0,0,0,0,0,0,0,
690,-136.1,-117.2,-52.6,-93.54,-43.77,-60.03,-77.95,-41.96,-23.43,-48.39,-90.95,-108.1,-102.4,-82.87,-111.4,-110.8,0,0,0,0,0,0,0,0,0,0,0,0,0,0,0,0,
691,-132.4,-105.7,-48.82,-60.17,-33.47,-54.56,-73.39,-50.08,-9.078,-32.23,-72.54,-95.97,-99.3,-76.26,-98.68,-107.4,0,0,0,0,0,0,0,0,0,0,0,0,0,0,0,0,
692,-119.3,-95.46,-36.77,-7.595,-20.54,-48.6,-73.99,-53.99,9.225,-14.84,-58.4,-80.5,-88.5,-69.66,-82.28,-104.5,0,0,0,0,0,0,0,0,0,0,0,0,0,0,0,0,
693,-94.88,-80.69,-33.43,-9.807,-16.21,-41.84,-51.96,-40.53,14.78,-7.27,-41.17,-58.44,-67.42,-53.54,-54.54,-95.06,0,0,0,0,0,0,0,0,0,0,0,0,0,0,0,0,
694,-73.97,-57.27,-29.81,-23.18,-11.19,-34.17,-29.39,-24.06,23.35,-0.6672,-20.99,-32.53,-45.59,-32.4,-20.64,-69.72,0,0,0,0,0,0,0,0,0,0,0,0,0,0,0,0,
695,-57.86,-37.97,-20.55,-14.91,-1.367,-24.05,-30.87,-13.5,39.14,15.51,-5.233,-13.3,-28.78,-17.14,4.903,-39.66,0,0,0,0,0,0,0,0,0,0,0,0,0,0,0,0,
696,-50.45,-29.74,-33.82,-26.92,-18.15,-29.72,-39.13,-5.19,31.94,24.08,-4.145,-14.73,-20.33,-9.562,11.05,-23.87,0,0,0,0,0,0,0,0,0,0,0,0,0,0,0,0,
697,-67.61,-32.9,-65.16,-53.84,-53.26,-56.99,-46.85,-5.514,13.69,13.97,-8.878,-24.72,-17.15,-2.208,9.289,-18.29,0,0,0,0,0,0,0,0,0,0,0,0,0,0,0,0,
698,-89.98,-42.28,-75.26,-56.76,-63.13,-73.3,-55.9,-11.99,14.9,8.255,-2.359,-20.28,-13.43,5.202,13.22,-12.86,0,0,0,0,0,0,0,0,0,0,0,0,0,0,0,0,
699,-95.19,-52.26,-73.73,-52.42,-59.73,-73.5,-62.91,-12.89,14.78,12.23,2.781,-12.28,-15.24,4.164,16.33,-8.05,0,0,0,0,0,0,0,0,0,0,0,0,0,0,0,0,
700,-95.87,-58.75,-81.55,-60.2,-63.71,-77.73,-68.99,-3.13,1.722,8.933,-0.4683,-13.17,-15.79,2.042,15.79,1.121,0,0,0,0,0,0,0,0,0,0,0,0,0,0,0,0,
701,-94.8,-50.46,-81.69,-57.97,-62.07,-76.5,-65.36,22.34,-4.873,7.41,1.775,-7.05,5.017,13.49,22.77,17.56,0,0,0,0,0,0,0,0,0,0,0,0,0,0,0,0,
702,-77.48,-21.3,-69.77,-35.95,-52.18,-55.84,-41.39,56.69,-0.4461,18.1,8.993,13.17,36.11,30.44,41.34,28.19,0,0,0,0,0,0,0,0,0,0,0,0,0,0,0,0,
703,-44.74,10.34,-56.76,-14.31,-38.97,-26.58,-10.76,74.83,11.61,24.35,17.23,30.75,45.13,36.6,55.49,24.14,0,0,0,0,0,0,0,0,0,0,0,0,0,0,0,0,
704,-18.95,17.84,-48.06,-11.45,-33.78,-8.667,1.965,70.64,19.01,20.45,24,35.29,34.36,36.05,55.87,22.23,0,0,0,0,0,0,0,0,0,0,0,0,0,0,0,0,
705,-11.97,9.455,-49.56,-23.14,-42.06,-4.647,-4.543,63.41,13.55,20.78,25.35,42.75,38.3,42.23,62.29,41.51,0,0,0,0,0,0,0,0,0,0,0,0,0,0,0,0,
706,-3.343,12.99,-55.29,-31.84,-42.49,-2.292,-7.792,58.6,12.62,23.64,30.88,64.06,59.56,50.6,79.25,66.4,0,0,0,0,0,0,0,0,0,0,0,0,0,0,0,0,
707,14.7,23.28,-51.1,-27.48,-29.95,2.041,5.732,56.52,25.44,19.34,45.53,82.88,72.21,51.8,88.67,75.99,0,0,0,0,0,0,0,0,0,0,0,0,0,0,0,0,
708,29.95,33.24,-31.13,-8.002,-16.75,14.32,27.81,71.91,45.57,17.48,59.91,92.5,80.56,53.72,96.23,79.49,0,0,0,0,0,0,0,0,0,0,0,0,0,0,0,0,
709,46.09,51.38,-12.3,10.98,-5.58,33.94,41.99,98.43,63.3,21.71,68.46,102.8,93.66,59.37,108.6,86.96,0,0,0,0,0,0,0,0,0,0,0,0,0,0,0,0,
710,60.55,62.35,-17.13,10.02,0.5937,43.44,41.82,113.1,71.06,22.42,79.14,118.9,103.7,65.71,122,104,0,0,0,0,0,0,0,0,0,0,0,0,0,0,0,0,
711,68.8,65.09,-27.43,3.711,6.014,45.66,36.46,111.7,79.06,25.65,98.95,137,116.9,78.47,138.9,129.1,0,0,0,0,0,0,0,0,0,0,0,0,0,0,0,0,
712,73.36,74.65,-28.09,-2.517,3.665,40.94,27.86,95.2,84.07,30.03,107.5,135.7,121.4,84.2,139.8,129.6,0,0,0,0,0,0,0,0,0,0,0,0,0,0,0,0,
713,60.27,70.66,-40.18,-22.41,-17.25,19.26,14.66,75.29,73.47,22.9,99.18,117,101.8,71.8,121.9,103.4,0,0,0,0,0,0,0,0,0,0,0,0,0,0,0,0,
714,47.21,57.83,-49.95,-29.55,-24.63,12.27,14.96,76.67,69.14,20.96,106.6,119.4,93.77,67.89,122.3,97.88,0,0,0,0,0,0,0,0,0,0,0,0,0,0,0,0,
715,65.35,68.13,-36.55,-13.55,-6.823,31.67,28.81,90.28,74.8,33.44,119,133.7,107.1,77.45,130.9,110.8,0,0,0,0,0,0,0,0,0,0,0,0,0,0,0,0,
716,76.14,77.59,-31.33,-11.35,-4.263,34.59,27.7,88.55,62.56,35.58,103.4,128.6,104.5,74.04,122,109.6,0,0,0,0,0,0,0,0,0,0,0,0,0,0,0,0,
717,58.19,63.54,-46.13,-25.24,-18.65,23.85,14.11,73.07,46.64,25.56,89.38,128.9,92.64,62.32,120.9,104.2,0,0,0,0,0,0,0,0,0,0,0,0,0,0,0,0,
718,58.5,52.26,-53.12,-33.29,-19.27,33.97,14.72,61.11,53.53,21.85,96.72,143,90.37,57.69,122.1,98.37,0,0,0,0,0,0,0,0,0,0,0,0,0,0,0,0,
719,71.85,52.4,-49.62,-32.7,-12.34,44.86,25.4,63.63,62.12,24.31,90.02,133,83.74,55.6,95.85,79.6,0,0,0,0,0,0,0,0,0,0,0,0,0,0,0,0,
720,55,54.14,-52.91,-31.53,-18.05,28.18,26.27,76.1,47.48,29.65,65.49,103,76.1,56.54,71.3,62.33,0,0,0,0,0,0,0,0,0,0,0,0,0,0,0,0,
721,24.69,57.3,-60.26,-37.27,-32.55,3.542,18.11,82.33,20.84,35.35,51.37,83,75.54,61.21,67.63,56.92,0,0,0,0,0,0,0,0,0,0,0,0,0,0,0,0,
722,4.478,52.93,-59.68,-34.31,-42.16,-5.095,10.84,76.04,0.0388,30.31,43.28,67.32,67.14,58.51,53.84,51.77,0,0,0,0,0,0,0,0,0,0,0,0,0,0,0,0,
723,-13.22,33.46,-57.51,-32.23,-40.11,-2.788,5.412,57.76,-10.64,11.93,31.17,46.61,47.28,45.72,29.32,40.26,0,0,0,0,0,0,0,0,0,0,0,0,0,0,0,0,
724,-21.59,9.832,-62.64,-67.74,-29.62,-3.759,-2.706,34.32,-11.67,-5.624,24.58,28.61,25.72,32.76,16.17,24.79,0,0,0,0,0,0,0,0,0,0,0,0,0,0,0,0,
725,-24.46,-7.311,-69.97,-89.6,-28.65,-20.03,-17.88,27.35,-15.76,-10.64,13.31,10.53,7.854,23.57,4.951,9.581,0,0,0,0,0,0,0,0,0,0,0,0,0,0,0,0,
726,-44.59,-21.64,-75.4,-48.02,-42.21,-47.73,-36.37,41.1,-33.04,-13.54,-13.5,-13.22,-7.206,10.43,-15.77,-7.921,0,0,0,0,0,0,0,0,0,0,0,0,0,0,0,0,
727,-70.01,-41.9,-74.8,-21.38,-47.98,-64.4,-50.46,47.26,-45.19,-27.84,-33.05,-35.97,-30.56,-9.298,-34.87,-32.09,0,0,0,0,0,0,0,0,0,0,0,0,0,0,0,0,
728,-84.46,-68.05,-73.93,-52.19,-51.31,-72.67,-66.81,27.02,-42.26,-45.6,-38.9,-51.65,-60.49,-27.99,-43.36,-51.45,0,0,0,0,0,0,0,0,0,0,0,0,0,0,0,0,
729,-98.33,-90.23,-90.23,-82.6,-71.4,-90.57,-92.58,-1.379,-38.99,-58.95,-48.04,-56.27,-75.77,-42.76,-44.9,-55.27,0,0,0,0,0,0,0,0,0,0,0,0,0,0,0,0,
730,-106.3,-98.89,-110.8,-96.93,-84.61,-105.6,-112.7,-11.39,-37.62,-66.65,-50.21,-45.5,-71.06,-50.49,-40.59,-49.36,0,0,0,0,0,0,0,0,0,0,0,0,0,0,0,0,
731,-98.7,-89.08,-114.1,-111,-78.69,-107.3,-113.4,-8.559,-32.14,-61.01,-32.74,-21.98,-55.04,-43.98,-26.67,-41.36,0,0,0,0,0,0,0,0,0,0,0,0,0,0,0,0,
732,-86.07,-68.1,-109.4,-114.5,-73.15,-105.4,-106.5,-8.446,-27.91,-51.21,-16.01,-1.838,-38.92,-34.43,-14.83,-36.88,0,0,0,0,0,0,0,0,0,0,0,0,0,0,0,0,
733,-77.22,-57.41,-103.7,-109.2,-67.92,-101.1,-108.3,-0.3826,-31.51,-52.06,-14.4,2.34,-33.41,-30.96,-10.7,-28.12,0,0,0,0,0,0,0,0,0,0,0,0,0,0,0,0,
734,-68.53,-56.01,-100.1,-106.8,-62.76,-95.59,-111.6,15.11,-35.55,-51.3,-11.23,9.527,-22.67,-16.31,4.683,-6.284,0,0,0,0,0,0,0,0,0,0,0,0,0,0,0,0,
735,-51.94,-42.94,-103.6,-103.4,-60.16,-90.83,-105.4,20.48,-30.62,-44.28,-6.729,23,-3.894,-0.0815,13.16,-3.847,0,0,0,0,0,0,0,0,0,0,0,0,0,0,0,0,
736,-38.58,-31.03,-96.99,-90.52,-46.04,-79.09,-96.12,23.57,-25.81,-43.33,-15.93,16.38,-1.921,-4.841,-3.926,-21.06,0,0,0,0,0,0,0,0,0,0,0,0,0,0,0,0,
737,-31.56,-25.58,-80.26,-78.72,-26.06,-53.08,-78.28,17.45,-15.24,-43.64,-5.148,24.24,11.18,3.122,11.71,7.727,0,0,0,0,0,0,0,0,0,0,0,0,0,0,0,0,
738,0.9604,1.067,-76.8,-85.91,-19.74,-22.75,-47.94,-12.24,9.299,-44.84,28.05,64.22,43.5,26.58,51.12,45.86,0,0,0,0,0,0,0,0,0,0,0,0,0,0,0,0,
739,29.66,15.77,-75.09,-92.25,-28.7,-22.48,-38.81,-13.63,4.016,-53.12,6.555,48.66,20.52,3.193,20.39,-1.137,0,0,0,0,0,0,0,0,0,0,0,0,0,0,0,0,
740,-5.148,-20.7,-61.52,-72.25,-44.7,-53.1,-56.38,34.49,-36.75,-52.62,-49.07,-16.72,-36.13,-41.65,-35.32,-59.47,0,0,0,0,0,0,0,0,0,0,0,0,0,0,0,0,
741,-46.19,-46.71,-55.33,-52.75,-57.19,-61.3,-56.42,60.04,-54.12,-41.62,-49.19,-27.06,-33.03,-35.5,-29.23,-39.57,0,0,0,0,0,0,0,0,0,0,0,0,0,0,0,0,
742,-38.3,-30.1,-61.23,-54.5,-71.48,-42.21,-35.63,49.92,-60.12,-38.77,-31.55,-9.877,-6.783,-11.99,-18.92,-16.09,0,0,0,0,0,0,0,0,0,0,0,0,0,0,0,0,
743,-35.56,-23.26,-72.53,-58.49,-97.39,-38.41,-21.89,52.64,-82.74,-37.94,-40.16,-21.15,-12.78,-15.36,-30.05,-27.14,0,0,0,0,0,0,0,0,0,0,0,0,0,0,0,0,
744,-47.94,-27.5,-87.06,-60.52,-107,-41.67,-12.4,57.58,-77.77,-32.74,-29.34,-15.15,-15.66,-22.59,-14.71,-25.38,0,0,0,0,0,0,0,0,0,0,0,0,0,0,0,0,
745,-38.71,-16.78,-82.78,-61.67,-84.35,-34.54,-5.848,52.93,-51.39,-36.66,-9.399,3.529,-14.73,-28.65,-3.171,-20.96,0,0,0,0,0,0,0,0,0,0,0,0,0,0,0,0,
746,-30.86,-14.78,-59,-53.04,-71.24,-37.48,-11.64,55.94,-52.23,-45.52,-12.66,-7.537,-30.61,-36.39,-15.98,-23.4,0,0,0,0,0,0,0,0,0,0,0,0,0,0,0,0,
747,-41.83,-29.79,-57.59,-51.69,-88.85,-52.55,-22.73,47.3,-61.65,-48.1,-13.29,-20.74,-38.72,-30.68,-13.44,-16.69,0,0,0,0,0,0,0,0,0,0,0,0,0,0,0,0,
748,-51.4,-38.9,-83.23,-70.92,-105.9,-66.26,-35.9,18.26,-60.42,-52.01,-9.494,-17.28,-35.65,-23.56,-3.692,-20.22,0,0,0,0,0,0,0,0,0,0,0,0,0,0,0,0,
749,-53.38,-39.89,-96.68,-85.91,-104.7,-76.88,-51.3,1.458,-63.2,-58.51,-15.31,-14.52,-33.8,-26.33,-5.401,-27.52,0,0,0,0,0,0,0,0,0,0,0,0,0,0,0,0,
750,-50.59,-39.74,-89.75,-82.58,-97.78,-75.84,-55.37,3.146,-64.78,-54.72,-14.74,-9.834,-21.01,-21.07,1.252,-10.08,0,0,0,0,0,0,0,0,0,0,0,0,0,0,0,0,
751,-46.56,-36.65,-82.28,-78.14,-97.66,-64.4,-50.92,1.65,-61.86,-41.13,-4.792,0.856,-1.73,-3.795,21.09,15.54,0,0,0,0,0,0,0,0,0,0,0,0,0,0,0,0,
752,-42.45,-34.53,-77.35,-79.34,-94.66,-58.43,-56.3,-3.856,-57.77,-32.24,3.14,7.051,3.343,7.933,37.99,27.78,0,0,0,0,0,0,0,0,0,0,0,0,0,0,0,0,
753,-36.52,-40.55,-68.36,-75.48,-74.09,-56,-64.38,-0.5656,-48.96,-31.37,3.994,-0.4009,-3.199,6.732,36.93,24.72,0,0,0,0,0,0,0,0,0,0,0,0,0,0,0,0,
754,-43.78,-51.12,-61.82,-70,-59.53,-52.72,-61.57,7.834,-48.33,-30.97,-4.828,-17.17,-7.136,0.7742,22.47,9.884,0,0,0,0,0,0,0,0,0,0,0,0,0,0,0,0,
755,-64.96,-57.34,-61.62,-73.84,-68.24,-52.02,-58.19,6.243,-55.16,-32.07,-14.05,-25.83,-8.959,-6.897,17.1,-3.431,0,0,0,0,0,0,0,0,0,0,0,0,0,0,0,0,
756,-73.69,-56.49,-55.48,-75.2,-68.92,-45.33,-58.02,-10.8,-49.1,-35.14,-14.46,-26.38,-15.9,-17.96,20.44,-9.672,0,0,0,0,0,0,0,0,0,0,0,0,0,0,0,0,
757,-71.45,-48.86,-41.67,-58.63,-55.19,-29.32,-47.74,-25.2,-38.35,-29.78,-11.71,-32.87,-21.91,-20,20.18,-9.559,0,0,0,0,0,0,0,0,0,0,0,0,0,0,0,0,
758,-72.28,-37.44,-30.46,-37.14,-47.93,-13.91,-30.39,-7.905,-33.62,-17.82,-13.99,-43.34,-22.34,-12.03,14.18,-7.845,0,0,0,0,0,0,0,0,0,0,0,0,0,0,0,0,
759,-70.45,-34.75,-25.06,-29.57,-45.61,-8.95,-26.29,21.62,-33.54,-14.73,-29.13,-59.33,-31.07,-17.59,-8.5,-22.49,0,0,0,0,0,0,0,0,0,0,0,0,0,0,0,0,
760,-77.3,-45.52,-28.24,-31.94,-52.43,-19.11,-37.87,13.7,-48.15,-18.87,-53.15,-82.57,-48.03,-33.1,-41.24,-46.01,0,0,0,0,0,0,0,0,0,0,0,0,0,0,0,0,
761,-97.23,-52.08,-31.9,-33.2,-60.57,-27.91,-44.29,-10.18,-63.08,-16.61,-65.29,-90.8,-53.69,-36.01,-57.2,-55.96,0,0,0,0,0,0,0,0,0,0,0,0,0,0,0,0,
762,-102.4,-48.31,-24.22,-28.2,-50.89,-24.23,-39.13,-8.292,-58.84,-11.29,-62.83,-79.01,-49.57,-35.8,-57.92,-60.04,0,0,0,0,0,0,0,0,0,0,0,0,0,0,0,0,
763,-94,-49.76,-19.13,-17.3,-47.56,-25.8,-34.15,-6.165,-55.97,-12.93,-57.23,-66.04,-44.4,-37.95,-51.7,-57.16,0,0,0,0,0,0,0,0,0,0,0,0,0,0,0,0,
764,-90.86,-52.83,-26.88,-23.38,-60.76,-30.94,-29.22,-14.57,-58.9,-16.14,-44.37,-52.21,-32.53,-27.19,-34.9,-37.39,0,0,0,0,0,0,0,0,0,0,0,0,0,0,0,0,
765,-84.82,-48.48,-39.79,-58.18,-68.44,-28.12,-30.1,-15.71,-52.92,-14.88,-30.19,-39.11,-22.46,-17.14,-20.22,-22.26,0,0,0,0,0,0,0,0,0,0,0,0,0,0,0,0,
766,-79.4,-51.1,-54.13,-71.77,-80.76,-33.43,-51.5,-27.96,-54.95,-13.99,-30.12,-37.25,-22.28,-20.09,-13.79,-15.31,0,0,0,0,0,0,0,0,0,0,0,0,0,0,0,0,
767,-87.13,-59.1,-60.1,-41.06,-99.32,-48.56,-75.31,-48.57,-68.95,-11.87,-28.89,-33.66,-14.12,-12.11,-2.372,6.634,0,0,0,0,0,0,0,0,0,0,0,0,0,0,0,0,
768,-92.36,-52.88,-59.15,-27.96,-105.4,-57.84,-79.06,-51.99,-69.86,-5.337,-12.22,-16.66,4.388,4.359,12.21,31.44,0,0,0,0,0,0,0,0,0,0,0,0,0,0,0,0,
769,-82.23,-41.64,-68.43,-51.09,-108.4,-62.31,-76.48,-55.53,-61.21,-6.104,-0.5571,-4.869,9.368,0.6541,16.23,34.51,0,0,0,0,0,0,0,0,0,0,0,0,0,0,0,0,
770,-74.64,-47.24,-80.96,-65.83,-114.7,-68.63,-81.93,-66.61,-65.71,-19.71,-7.1,-18.68,-7.12,-15.8,6.716,19.53,0,0,0,0,0,0,0,0,0,0,0,0,0,0,0,0,
771,-88.51,-66.6,-90.6,-74.63,-125,-84,-93.76,-67.12,-82.21,-33.82,-22.44,-48.56,-31.32,-28.09,-7.715,-2.614,0,0,0,0,0,0,0,0,0,0,0,0,0,0,0,0,
772,-110.1,-79.09,-105.8,-91.46,-146.6,-103.5,-104.9,-71.68,-94.6,-41.54,-39.27,-63.65,-43.03,-33.9,-15.21,-16.59,0,0,0,0,0,0,0,0,0,0,0,0,0,0,0,0,
773,-113.6,-72.3,-113.2,-98.52,-159.3,-108.1,-102.3,-88.15,-94.32,-42.33,-47.05,-53.41,-31.65,-22.74,-11.27,-7.056,0,0,0,0,0,0,0,0,0,0,0,0,0,0,0,0,
774,-102.5,-58.26,-109.1,-101,-151.3,-102.8,-91.55,-92.09,-86.72,-37,-39.94,-40.89,-19.08,-8.46,-3.774,5.643,0,0,0,0,0,0,0,0,0,0,0,0,0,0,0,0,
775,-94.27,-57.62,-111,-108.6,-145.4,-101.3,-90.87,-83.7,-86.5,-36.81,-37.77,-44.36,-28.36,-17.87,-4.795,-0.5919,0,0,0,0,0,0,0,0,0,0,0,0,0,0,0,0,
776,-93.34,-67.6,-110.4,-106.7,-143.7,-97.4,-91.39,-80.03,-93.2,-40.23,-47.45,-51.2,-37.43,-24.74,-9.319,1.427,0,0,0,0,0,0,0,0,0,0,0,0,0,0,0,0,
777,-94.44,-70.05,-97.82,-94.01,-133.9,-91.02,-82.11,-80.43,-88.63,-31.19,-45.5,-41.96,-27.29,-6.581,-2.281,22.8,0,0,0,0,0,0,0,0,0,0,0,0,0,0,0,0,
778,-89.62,-67.07,-89.67,-86,-124.8,-85.99,-76.1,-83.61,-74.8,-20.72,-33.22,-26.01,-21.85,3.611,7.766,30.4,0,0,0,0,0,0,0,0,0,0,0,0,0,0,0,0,
779,-80.96,-68.93,-88.66,-88.93,-119.8,-77.57,-75.39,-88.7,-66.72,-22.48,-31.04,-23.4,-26.3,-0.7161,8.415,30.26,0,0,0,0,0,0,0,0,0,0,0,0,0,0,0,0,
780,-77.65,-63.59,-84.19,-91.93,-112.4,-69.6,-67.95,-90.73,-58.06,-16.16,-29.18,-24.06,-16.14,7.383,11.8,46.85,0,0,0,0,0,0,0,0,0,0,0,0,0,0,0,0,
781,-74.53,-44.47,-77.76,-78.1,-102.8,-60.98,-50.75,-89.83,-43.73,4.064,-12.55,-12.39,5.747,22.31,22.34,61.72,0,0,0,0,0,0,0,0,0,0,0,0,0,0,0,0,
782,-60.65,-27.98,-67.01,-54.93,-87.63,-42.35,-27.56,-82.56,-36.05,15.19,5.63,-2.876,21.57,29.78,26.63,65.72,0,0,0,0,0,0,0,0,0,0,0,0,0,0,0,0,
783,-44.76,-21.63,-51.68,-44.91,-75.8,-28.27,-11.99,-70.83,-42.39,16.02,4.153,-10.09,27.66,32.42,23.39,67.36,0,0,0,0,0,0,0,0,0,0,0,0,0,0,0,0,
784,-45.35,-20.59,-46.3,-42.99,-85.33,-30.33,-8.825,-64.7,-53.81,20.4,-13.49,-19.72,26.35,32.1,22.16,60.19,0,0,0,0,0,0,0,0,0,0,0,0,0,0,0,0,
785,-52.01,-18.75,-48.06,-35.15,-92.66,-27.78,-2.104,-64.08,-51.16,19.56,-22.47,-16.66,24.29,29.7,21.73,51.44,0,0,0,0,0,0,0,0,0,0,0,0,0,0,0,0,
786,-40.09,-13.57,-39.86,-31.31,-72.74,-15.93,4.066,-73.96,-34.41,3.968,-19.33,-10.3,22.9,22.37,14.67,48.55,0,0,0,0,0,0,0,0,0,0,0,0,0,0,0,0,
787,-19.84,-11.41,-23.28,-28.91,-55.21,-7.545,2.504,-90.36,-24.62,-6.587,-20.16,-10.84,19.33,12.36,6.08,38.36,0,0,0,0,0,0,0,0,0,0,0,0,0,0,0,0,
788,-10.78,-8.044,-9.085,-11.52,-57.68,3.454,14.09,-87.81,-26.53,1.504,-27.89,-18.45,15.81,9.592,-1.267,21.53,0,0,0,0,0,0,0,0,0,0,0,0,0,0,0,0,
789,-13.03,0.8184,-7.19,3.343,-60.32,10.18,30.58,-78.85,-33.27,8.508,-40.73,-36.07,7.095,7.438,-16.03,7.86,0,0,0,0,0,0,0,0,0,0,0,0,0,0,0,0,
790,-26.46,-0.4856,-17.69,-0.4684,-58.33,-0.5095,22.89,-87.38,-40.3,4.296,-49.15,-51.44,-6.984,1.181,-28.17,-0.7736,0,0,0,0,0,0,0,0,0,0,0,0,0,0,0,0,
791,-39.05,-13.96,-26.63,-12.28,-58.2,-14.11,-1.499,-91.87,-43.36,-1.125,-45.87,-52.7,-17.5,0.0159,-29.9,-5.566,0,0,0,0,0,0,0,0,0,0,0,0,0,0,0,0,
792,-43.79,-31.37,-39.06,-36.87,-67.22,-27.91,-31.58,-92.4,-49.74,-9.269,-50.29,-61.92,-31.87,-4.396,-41.94,-15.81,0,0,0,0,0,0,0,0,0,0,0,0,0,0,0,0,
793,-58.42,-52.02,-63.28,-65.55,-88.68,-47.38,-59.6,-113.2,-57.17,-17.79,-60.07,-83.33,-50.23,-17.18,-59.83,-29.64,0,0,0,0,0,0,0,0,0,0,0,0,0,0,0,0,
794,-74.18,-64.07,-80.81,-71.8,-101.9,-59.6,-68.86,-137.7,-51.17,-18.43,-52.1,-88.66,-56.04,-22.13,-57.73,-33.25,0,0,0,0,0,0,0,0,0,0,0,0,0,0,0,0,
795,-73.85,-69.66,-90.22,-75.53,-98.09,-69.94,-75.2,-146,-45.2,-21.19,-45.53,-80.99,-52.87,-21.34,-49.44,-37.05,0,0,0,0,0,0,0,0,0,0,0,0,0,0,0,0,
796,-75.03,-79.98,-103,-94.45,-99.1,-83.3,-90.92,-142.4,-54.55,-28.84,-55.82,-77.67,-47.23,-24.88,-53.48,-48.19,0,0,0,0,0,0,0,0,0,0,0,0,0,0,0,0,
797,-77.83,-76.76,-102.6,-98.66,-106.1,-79.79,-86.83,-132.2,-63.89,-28.07,-59.98,-74.14,-31.5,-19.5,-55.35,-43,0,0,0,0,0,0,0,0,0,0,0,0,0,0,0,0,
798,-69.74,-61.4,-86.62,-83.11,-101.4,-68.29,-67.32,-120,-67.5,-22.79,-58.49,-75.86,-19.78,-4.305,-51.64,-26.97,0,0,0,0,0,0,0,0,0,0,0,0,0,0,0,0,
799,-70.37,-63.05,-80.52,-74.17,-94.22,-70.1,-68.8,-106.7,-74.86,-23.71,-65.02,-87.83,-28.77,-0.3589,-50.22,-29.52,0,0,0,0,0,0,0,0,0,0,0,0,0,0,0,0,
800,-79.22,-67.73,-80.98,-68.74,-90.9,-63.56,-71.93,-94.96,-69.99,-18.42,-56.13,-80.02,-25.5,4.385,-31.34,-20.62,0,0,0,0,0,0,0,0,0,0,0,0,0,0,0,0,
801,-58.6,-43.47,-59.83,-44.44,-65.81,-28.44,-37.12,-86.37,-31.69,7.973,-9.922,-31.9,22.77,42.35,18.77,37.04,0,0,0,0,0,0,0,0,0,0,0,0,0,0,0,0,
802,-3.32,-0.8142,-19.98,-8.072,-20.46,14.47,12.08,-72.57,19.82,37.81,50.69,26.81,79.51,93.15,73.82,98.23,0,0,0,0,0,0,0,0,0,0,0,0,0,0,0,0,
803,51.14,32.13,6.964,11.53,8.026,42.95,32.82,-57.02,50.2,46.04,89.9,59.13,98.02,109.1,104.5,114.4,0,0,0,0,0,0,0,0,0,0,0,0,0,0,0,0,
804,74.07,40.6,5.159,5.468,6.686,47.34,23.49,-55.41,47.27,38.29,85.78,51.47,79.56,89.37,94.36,97.44,0,0,0,0,0,0,0,0,0,0,0,0,0,0,0,0,
805,51.27,16.1,-20.16,-21.09,-21.06,19.36,-6.322,-70.69,9.74,23.4,33,7.794,40.59,60.35,45.6,63.74,0,0,0,0,0,0,0,0,0,0,0,0,0,0,0,0,
806,0.9397,-29.39,-53.76,-55.78,-60.65,-18.11,-41.76,-86.23,-35.4,0.9846,-27.53,-34.32,7.059,35.22,1.363,25.87,0,0,0,0,0,0,0,0,0,0,0,0,0,0,0,0,
807,-27.07,-56.6,-73.68,-67.3,-73.92,-27.44,-51.19,-82.97,-45.37,-11.88,-43.71,-43.04,-1.858,16.69,-13.01,0.3888,0,0,0,0,0,0,0,0,0,0,0,0,0,0,0,0,
808,-21.07,-52.21,-73.47,-49.22,-60.01,-19.45,-36.74,-75.39,-33.28,-7.417,-34.55,-45.68,-8.494,3.728,-27.99,-17.08,0,0,0,0,0,0,0,0,0,0,0,0,0,0,0,0,
809,-15.94,-44.79,-62.88,-33.02,-53.94,-20.01,-28.63,-86.58,-36.07,-3.675,-39.53,-60.66,-21.38,-1.694,-49.26,-30.54,0,0,0,0,0,0,0,0,0,0,0,0,0,0,0,0,
810,-18.15,-47.04,-49.57,-32.36,-55.82,-18.61,-26.54,-95.85,-42.37,-7.519,-45.61,-61.4,-22.29,-2.974,-53.14,-35.75,0,0,0,0,0,0,0,0,0,0,0,0,0,0,0,0,
811,-13.29,-46.88,-41.6,-32.31,-51.75,-8.152,-22.49,-85.93,-34.36,-13.45,-40.69,-47.51,-22.36,-11.2,-48.09,-38.44,0,0,0,0,0,0,0,0,0,0,0,0,0,0,0,0,
812,-9.865,-43.57,-38.9,-25.65,-45.31,-3.22,-26.65,-80,-26.15,-17.98,-39.76,-44.4,-30.77,-17.85,-47.52,-40.07,0,0,0,0,0,0,0,0,0,0,0,0,0,0,0,0,
813,-19.55,-48.78,-37.37,-27.79,-43.36,-12.4,-39.95,-86.31,-30.66,-19.08,-47.58,-57.76,-36.26,-12.57,-51.35,-40.15,0,0,0,0,0,0,0,0,0,0,0,0,0,0,0,0,
814,-38.95,-64.23,-42.1,-38.35,-51.85,-27.93,-52.84,-87.15,-41.74,-21.81,-60.55,-76.18,-41.36,-10.54,-62.69,-43.21,0,0,0,0,0,0,0,0,0,0,0,0,0,0,0,0,
815,-50.18,-69.53,-46.92,-39.91,-58.79,-29.5,-55.05,-79.37,-45.5,-21.73,-72.54,-80.6,-42.62,-17.4,-71.38,-48.29,0,0,0,0,0,0,0,0,0,0,0,0,0,0,0,0,
816,-37.63,-52.68,-43.6,-52.35,-47.06,-11.76,-40.04,-72.48,-34.85,-8.975,-70.1,-64.45,-30.76,-21.41,-64.62,-53.63,0,0,0,0,0,0,0,0,0,0,0,0,0,0,0,0,
817,-13.7,-34.85,-35.87,-68.16,-29.8,5.448,-20.69,-68.42,-17.55,1.212,-54.44,-45.95,-14.88,-19.25,-49.91,-51.43,0,0,0,0,0,0,0,0,0,0,0,0,0,0,0,0,
818,0.9956,-30.49,-17.91,-30.15,-20.66,10.71,-13.39,-62.8,-8.556,0.9298,-43.76,-41.15,-2.855,-7.468,-37.95,-35.61,0,0,0,0,0,0,0,0,0,0,0,0,0,0,0,0,
819,2.728,-29.41,2.166,24.34,-12.2,10.79,-10.76,-48.17,-9.585,7.774,-38.54,-43.22,5.369,11.47,-29.41,-22.68,0,0,0,0,0,0,0,0,0,0,0,0,0,0,0,0,
820,-2.72,-23.68,-0.1987,22.15,-6.787,12.71,-2.982,-24.92,-7.724,15.82,-25.23,-34.51,12.71,20.01,-19.29,-18.21,0,0,0,0,0,0,0,0,0,0,0,0,0,0,0,0,
821,-1.441,-8.957,-10.18,2.53,-9.424,18.04,2.258,-12.07,0.6446,10.28,-7.329,-14.37,25.39,18.06,-5.109,-4.812,0,0,0,0,0,0,0,0,0,0,0,0,0,0,0,0,
822,19.46,13.12,0.7864,9.13,-6.287,27.48,4.412,-17.3,10.71,4.741,7.29,2.042,36.8,19.59,4.57,8.169,0,0,0,0,0,0,0,0,0,0,0,0,0,0,0,0,
823,48.81,23.65,17.2,17.99,3.56,37.78,9.69,-26.49,18.92,3.312,12.7,7.652,32.92,15.9,-0.8377,-1.607,0,0,0,0,0,0,0,0,0,0,0,0,0,0,0,0,
824,58.81,9.438,15.84,16.19,1.451,37.59,6.152,-35.91,16.99,-5.448,-0.3897,-0.2165,16.3,1.589,-14.04,-15.58,0,0,0,0,0,0,0,0,0,0,0,0,0,0,0,0,
825,42.5,-12.78,8.267,9.351,-6.892,27.7,-10.9,-40.8,9.879,-16.39,-14.8,-17.76,4.655,-0.5407,-16.34,-7.021,0,0,0,0,0,0,0,0,0,0,0,0,0,0,0,0,
826,21.52,-21.77,7.618,3.746,-5.353,21.61,-23.36,-35.38,12.01,-23.22,-11.72,-29.61,6.088,11.39,-10.62,4.873,0,0,0,0,0,0,0,0,0,0,0,0,0,0,0,0,
827,12.39,-23.83,3.682,-0.018,-3.274,16.91,-26.32,-38.2,13.38,-22.72,-12.11,-34.75,8.544,12,-15.78,-5.121,0,0,0,0,0,0,0,0,0,0,0,0,0,0,0,0,
828,15.15,-26.83,-5.969,-6.741,-7.884,9.616,-26.6,-47.14,2.515,-9.711,-22.67,-39.87,3.909,4.608,-25.61,-18.26,0,0,0,0,0,0,0,0,0,0,0,0,0,0,0,0,
829,22.76,-22.01,-10.29,-5.595,-12.43,6.409,-22.74,-40.58,-7.362,-2.187,-21.31,-39.71,-4.554,3.969,-23.88,-15.19,0,0,0,0,0,0,0,0,0,0,0,0,0,0,0,0,
830,22.88,-17.48,-9.311,1.688,-13.25,1.873,-19.52,-38.48,-8.206,-14.23,-13.7,-38.52,-17.36,-2.164,-20.99,-12.74,0,0,0,0,0,0,0,0,0,0,0,0,0,0,0,0,
831,13.19,-26.98,-8.117,-2.326,-10.76,-8.29,-23.9,-53.82,-8.44,-21.37,-16.11,-45.21,-27.24,-15.01,-26.78,-20.8,0,0,0,0,0,0,0,0,0,0,0,0,0,0,0,0,
832,2.776,-33.75,-10.32,-6.463,-14.87,-13.23,-26.78,-56.07,-11.59,-12.12,-20.85,-51.17,-23.71,-16.39,-30.95,-25.62,0,0,0,0,0,0,0,0,0,0,0,0,0,0,0,0,
833,-3.554,-21.42,-17.1,-2.414,-27.53,-10.98,-18.25,-42.72,-12.37,-11.24,-20.36,-49.25,-17.45,-12.33,-31.28,-23.14,0,0,0,0,0,0,0,0,0,0,0,0,0,0,0,0,
834,-3.729,-7.204,-22.88,-4.285,-34.84,-13.69,-10.6,-41.05,-11.18,-25.97,-17.28,-43.86,-19.61,-16.74,-30.48,-17.47,0,0,0,0,0,0,0,0,0,0,0,0,0,0,0,0,
835,-2.732,-12.85,-30.49,-9.379,-39.5,-25.56,-19.95,-51.9,-14.91,-36.87,-9.934,-36.18,-21.73,-18.62,-20.41,-7.042,0,0,0,0,0,0,0,0,0,0,0,0,0,0,0,0,
836,-6.413,-25.62,-42.31,-14.54,-47.08,-32.35,-28.28,-61,-20.02,-35.61,3.501,-22.39,-12.42,-7.8,-0.7017,5.382,0,0,0,0,0,0,0,0,0,0,0,0,0,0,0,0,
837,-1.756,-15.25,-42.98,-16.18,-45.42,-23.34,-11.76,-58.93,-13.95,-26.23,20.68,0.9326,11.39,9.936,20.27,19.84,0,0,0,0,0,0,0,0,0,0,0,0,0,0,0,0,
838,20.58,15.02,-28.41,4.978,-34.76,-8.726,11.77,-41.01,-0.1419,-11.05,35.73,22.27,33.95,26.25,29.96,34.29,0,0,0,0,0,0,0,0,0,0,0,0,0,0,0,0,
839,37.97,30.63,-19.96,13.13,-33.61,-1.778,19.73,-29.92,-3.116,-0.5077,29.61,14.15,29.36,27.32,8.693,25.61,0,0,0,0,0,0,0,0,0,0,0,0,0,0,0,0,
840,27.25,16.79,-29.15,-26.17,-48.18,-4.407,18.74,-49.4,-26.07,-5.405,1.971,-13.35,8.531,12.01,-24.25,-4.15,0,0,0,0,0,0,0,0,0,0,0,0,0,0,0,0,
841,11.66,-0.6029,-32.16,-24.7,-54.24,-4.998,18.95,-67.35,-31.77,-15.83,-2.039,-13.14,6.112,3.92,-22.27,-13.96,0,0,0,0,0,0,0,0,0,0,0,0,0,0,0,0,
842,21.36,4.366,-14.74,43.98,-38.33,4.918,20.8,-56.23,-13.04,-22.07,24.09,2.826,12.61,4.259,-5.758,-4.945,0,0,0,0,0,0,0,0,0,0,0,0,0,0,0,0,
843,24.78,11.28,-13.82,53.63,-32.19,5.533,11.76,-55.02,-11.49,-30.91,28.12,-12.34,1.692,-3.841,-14.84,-5.348,0,0,0,0,0,0,0,0,0,0,0,0,0,0,0,0,
844,-2.89,-5.912,-38.91,4.803,-39.36,-10.52,-11.98,-82.14,-26.39,-42.68,12.89,-33.41,-12.21,-8.473,-19.92,-2.224,0,0,0,0,0,0,0,0,0,0,0,0,0,0,0,0,
845,-14.99,-25.47,-41.14,-4.988,-26.05,-10.18,-18.91,-102,-24.23,-50.59,14.2,-27.59,-15.94,-7.5,-8.326,5.703,0,0,0,0,0,0,0,0,0,0,0,0,0,0,0,0,
846,4.888,-26.69,-23.39,-14.52,-12.22,10.96,0.5938,-107.8,-18.24,-49.46,17.08,-20.02,-16.96,-15.3,-11.54,2.072,0,0,0,0,0,0,0,0,0,0,0,0,0,0,0,0,
847,18.24,-19.07,-24.52,-35.32,-20.45,18.89,10.7,-115.4,-21.51,-34.05,19.33,-10.18,-6.846,-10.61,-11.46,9.971,0,0,0,0,0,0,0,0,0,0,0,0,0,0,0,0,
848,25.89,-4.621,-23.65,2.163,-17.22,11.83,6.226,-116.3,-11.35,-17.96,38.72,16.58,12.83,10.94,10.05,27.96,0,0,0,0,0,0,0,0,0,0,0,0,0,0,0,0,
849,41.93,10.8,-4.668,42.07,-0.8418,12.01,8.636,-106.9,7.226,-20.27,50.43,29.68,19.57,12.34,13.69,18.75,0,0,0,0,0,0,0,0,0,0,0,0,0,0,0,0,
850,53.78,12.39,4.797,22.56,5.359,23.72,14.46,-95.96,14.11,-27.59,46.81,24.35,14.37,-0.6855,-2.662,2.279,0,0,0,0,0,0,0,0,0,0,0,0,0,0,0,0,
