%OpenBCI Raw EXG Data
%Number of channels = 16
%Sample Rate = 125 Hz
%Board = OpenBCI_GUI$BoardCytonSerialDaisy
Sample Index,EXG Channel 0,EXG Channel 1,EXG Channel 2,EXG Channel 3,EXG Channel 4,EXG Channel 5,EXG Channel 6,EXG Channel 7,EXG Channel 8,EXG Channel 9,EXG Channel 10,EXG Channel 11,EXG Channel 12,EXG Channel 13,EXG Channel 14,EXG Channel 15,Accel Channel 0,Accel Channel 1,Accel Channel 2,Other,Other.1,Other.2,Other.3,Other.4,Other.5,Other.6,Analog Channel 0,Analog Channel 1,Analog Channel 2,Timestamp,Other.7,Timestamp (Formatted),Annotations
1,0.0,-0.0,0.0,0.0,0.0,-0.0,0.0,0.0,-0.0,-0.0,-0.0,0.0,0.0,0.0,-0.0,-0.0,0,0,0,0,0,0,0,0,0,0,0,0,0,0,0,0,T0
2,-29.03,-28.15,-25.53,-40.11,-31.49,-24.32,-37.88,-2.248,-22.36,-20.68,-15.4,-13.34,-21.71,-14.54,-7.766,-1.381,0,0,0,0,0,0,0,0,0,0,0,0,0,0,0,0,
3,-52.03,-42.55,-23.18,-10.94,-52.01,-35.66,-51.43,-0.0877,-43.54,-31.01,-10.64,-8.025,-29.44,-17.0,-4.282,7.736,0,0,0,0,0,0,0,0,0,0,0,0,0,0,0,0,
4,-57.94,-40.15,-27.01,45.58,-46.14,-39.86,-45.36,14.06,-47.78,-35.35,6.274,7.012,-26.44,-8.353,4.352,22.24,0,0,0,0,0,0,0,0,0,0,0,0,0,0,0,0,
5,-55.47,-29.57,-29.36,38.4,-26.38,-33.79,-34.42,26.51,-31.08,-32.68,9.543,6.404,-25.61,-6.21,5.854,22.89,0,0,0,0,0,0,0,0,0,0,0,0,0,0,0,0,
6,-61.1,-28.37,-11.38,-8.528,-19.02,-35.05,-29.12,24.38,-21.75,-28.39,-6.809,-8.545,-34.3,-20.46,2.158,10.32,0,0,0,0,0,0,0,0,0,0,0,0,0,0,0,0,
7,-58.34,-38.96,-18.54,-22.64,-16.44,-58.58,-26.76,23.39,-31.09,-32.37,-12.16,-13.16,-36.17,-28.83,9.14,10.09,0,0,0,0,0,0,0,0,0,0,0,0,0,0,0,0,
8,-33.73,-39.75,-31.86,-27.06,-1.559,-58.73,-11.94,36.91,-27.07,-29.73,11.3,-3.961,-12.12,-11.66,29.96,24.88,0,0,0,0,0,0,0,0,0,0,0,0,0,0,0,0,
9,-13.04,-22.78,11.56,-36.41,17.41,-27.61,10.11,52.5,0.9498,-12.13,30.96,3.276,17.14,7.749,40.32,28.91,0,0,0,0,0,0,0,0,0,0,0,0,0,0,0,0,
10,-10.02,-10.79,48.5,-27.85,30.91,-27.63,14.56,57.41,20.12,-2.261,20.88,1.893,21.06,1.05,23.9,17.03,0,0,0,0,0,0,0,0,0,0,0,0,0,0,0,0,
11,-21.23,-22.27,21.66,-34.87,31.15,-56.79,2.223,59.13,10.16,-12.02,1.851,-5.947,5.05,-21.56,2.41,7.819,0,0,0,0,0,0,0,0,0,0,0,0,0,0,0,0,
12,-49.5,-38.38,0.8876,-39.77,14.68,-65.15,-4.424,61.46,-13.78,-26.07,-5.406,-14.2,-7.98,-35.55,-0.8109,6.631,0,0,0,0,0,0,0,0,0,0,0,0,0,0,0,0,
13,-63.8,-32.57,5.547,7.323,7.293,-54.66,-6.403,56.56,-25.01,-25.88,-8.106,-16.47,-5.865,-35.23,4.928,6.824,0,0,0,0,0,0,0,0,0,0,0,0,0,0,0,0,
14,-38.42,-15.6,-13.53,30.84,21.65,-39.67,-18.4,55.92,-19.04,-8.333,-11.67,-14.91,5.226,-29.65,6.797,8.955,0,0,0,0,0,0,0,0,0,0,0,0,0,0,0,0,
15,-17.93,-5.749,-39.15,-5.65,29.83,-21.38,-28.55,65.98,-13.8,12.37,-6.525,-14.5,13.66,-25.77,10.48,15.75,0,0,0,0,0,0,0,0,0,0,0,0,0,0,0,0,
16,-29.05,-6.31,-40.45,-7.272,21.38,-13.11,-22.63,64.11,-9.73,23.38,3.395,-14.07,20.01,-23.35,16.9,24.56,0,0,0,0,0,0,0,0,0,0,0,0,0,0,0,0,
17,-39.95,-22.09,-34.52,40.26,11.04,-16.69,-14.82,56.9,-0.0118,22.51,2.223,-8.662,21.53,-19.61,17.0,30.05,0,0,0,0,0,0,0,0,0,0,0,0,0,0,0,0,
18,-55.17,-37.43,-43.14,66.51,0.8635,-26.42,-18.46,67.1,-0.0758,12.97,-2.696,3.105,9.636,-17.96,11.96,30.7,0,0,0,0,0,0,0,0,0,0,0,0,0,0,0,0,
19,-94.62,-48.15,-70.28,50.16,-12.53,-49.87,-31.68,73.97,-16.44,1.045,-1.217,13.43,-7.308,-25.44,9.395,33.25,0,0,0,0,0,0,0,0,0,0,0,0,0,0,0,0,
20,-119.1,-80.82,-93.76,16.36,-24.58,-75.35,-47.61,69.18,-36.34,-10.88,-4.011,17.86,-16.71,-32.39,8.505,40.76,0,0,0,0,0,0,0,0,0,0,0,0,0,0,0,0,
21,-107.0,-99.12,-92.18,8.147,-27.78,-73.1,-55.36,75.18,-51.98,-18.24,-9.777,25.19,-17.1,-24.75,6.7,45.72,0,0,0,0,0,0,0,0,0,0,0,0,0,0,0,0,
22,-95.74,-62.65,-80.84,33.73,-28.37,-51.65,-54.64,80.97,-59.1,-11.81,-10.23,36.48,-9.235,-16.22,6.981,47.22,0,0,0,0,0,0,0,0,0,0,0,0,0,0,0,0,
23,-95.83,-37.65,-79.54,41.59,-40.34,-49.88,-54.28,70.36,-59.53,-2.309,-14.61,37.64,-2.146,-22.95,6.036,47.37,0,0,0,0,0,0,0,0,0,0,0,0,0,0,0,0,
24,-97.64,-60.9,-89.31,1.794,-49.58,-71.43,-58.15,55.24,-60.96,-9.403,-25.99,25.76,-9.616,-36.91,-3.906,38.6,0,0,0,0,0,0,0,0,0,0,0,0,0,0,0,0,
25,-112.9,-78.03,-95.75,-45.05,-43.13,-88.78,-66.54,45.53,-64.27,-26.14,-33.93,16.61,-24.65,-47.61,-14.01,26.53,0,0,0,0,0,0,0,0,0,0,0,0,0,0,0,0,
26,-117.9,-73.71,-78.73,-60.35,-40.92,-89.86,-65.25,46.67,-66.45,-32.44,-31.72,18.36,-25.22,-46.81,-12.92,26.44,0,0,0,0,0,0,0,0,0,0,0,0,0,0,0,0,
27,-84.36,-65.84,-52.92,-75.19,-35.46,-73.25,-41.4,50.21,-60.23,-22.45,-19.68,18.52,-7.304,-34.32,-8.447,28.91,0,0,0,0,0,0,0,0,0,0,0,0,0,0,0,0,
28,-48.45,-45.35,-41.43,-96.05,-3.606,-49.22,-14.16,40.27,-41.65,-5.805,-6.686,8.2,11.69,-30.22,-4.74,19.43,0,0,0,0,0,0,0,0,0,0,0,0,0,0,0,0,
29,-32.73,-16.82,-30.45,-79.49,19.73,-47.19,-2.935,24.66,-26.38,1.676,-2.211,-4.301,18.2,-40.3,1.31,6.568,0,0,0,0,0,0,0,0,0,0,0,0,0,0,0,0,
30,-20.82,-5.709,-22.8,-66.25,7.546,-62.97,-3.871,9.01,-25.81,-1.789,-2.057,-8.099,14.21,-43.53,5.104,4.489,0,0,0,0,0,0,0,0,0,0,0,0,0,0,0,0,
31,-22.81,-14.17,-34.47,-85.61,-3.903,-57.4,-10.77,-3.7,-24.82,0.7678,2.943,3.092,10.47,-31.77,11.19,15.68,0,0,0,0,0,0,0,0,0,0,0,0,0,0,0,0,
32,-37.6,-22.76,-44.43,-79.62,-5.516,-37.33,-17.72,-2.164,-14.32,12.74,5.574,16.21,10.08,-22.15,17.57,21.32,0,0,0,0,0,0,0,0,0,0,0,0,0,0,0,0,
33,-39.33,-27.4,-43.75,-82.12,-20.78,-39.48,-24.62,-8.278,-13.19,12.86,-5.211,5.683,0.8359,-33.71,2.558,1.11,0,0,0,0,0,0,0,0,0,0,0,0,0,0,0,0,
34,-37.83,-29.8,-48.04,-119.1,-31.87,-52.66,-37.97,-27.29,-30.51,-4.267,-15.28,-13.33,-17.43,-58.22,-19.06,-20.33,0,0,0,0,0,0,0,0,0,0,0,0,0,0,0,0,
35,-48.93,-22.74,-56.81,-114.7,-32.54,-57.0,-53.26,-20.2,-45.59,-13.6,-13.77,-7.531,-25.62,-65.32,-11.78,-8.255,0,0,0,0,0,0,0,0,0,0,0,0,0,0,0,0,
36,-60.28,-27.04,-69.66,-110.8,-54.49,-71.86,-67.74,-7.738,-52.66,-7.108,-19.71,7.125,-25.69,-53.88,3.133,16.25,0,0,0,0,0,0,0,0,0,0,0,0,0,0,0,0,
37,-72.23,-56.98,-87.95,-150.9,-79.5,-91.99,-81.7,-24.38,-67.63,-6.486,-35.28,9.146,-30.82,-50.74,-3.649,23.17,0,0,0,0,0,0,0,0,0,0,0,0,0,0,0,0,
38,-91.39,-68.2,-101.8,-143.5,-67.83,-86.94,-79.1,-25.36,-77.75,-13.2,-37.16,13.26,-27.71,-57.08,-7.217,26.99,0,0,0,0,0,0,0,0,0,0,0,0,0,0,0,0,
39,-97.56,-48.83,-97.74,-118.6,-44.83,-79.21,-58.19,-4.704,-65.29,-11.5,-26.43,20.35,-15.17,-61.77,2.538,35.29,0,0,0,0,0,0,0,0,0,0,0,0,0,0,0,0,
40,-81.48,-46.62,-69.24,-163.0,-41.27,-93.96,-43.17,-18.11,-56.36,-14.61,-19.98,14.47,-15.99,-70.75,0.4335,29.5,0,0,0,0,0,0,0,0,0,0,0,0,0,0,0,0,
41,-69.73,-56.34,-41.97,-193.8,-31.77,-96.91,-36.14,-47.33,-60.6,-28.81,-14.6,2.178,-15.9,-76.26,-5.659,18.07,0,0,0,0,0,0,0,0,0,0,0,0,0,0,0,0,
42,-72.4,-47.15,-44.11,-155.5,-2.113,-79.22,-22.76,-47.16,-40.9,-24.21,-5.636,-1.65,4.87,-65.87,0.7115,22.24,0,0,0,0,0,0,0,0,0,0,0,0,0,0,0,0,
43,-68.57,-41.29,-51.81,-144.1,11.66,-75.33,-11.68,-45.64,-6.605,-7.492,-5.875,-0.8744,12.66,-59.14,0.2971,26.91,0,0,0,0,0,0,0,0,0,0,0,0,0,0,0,0,
44,-57.11,-43.99,-42.09,-202.7,-1.976,-81.94,-13.52,-66.15,-7.133,-15.71,-15.36,-9.341,-7.456,-68.54,-11.75,15.61,0,0,0,0,0,0,0,0,0,0,0,0,0,0,0,0,
45,-55.86,-42.26,-39.71,-241.6,-3.473,-79.03,-22.22,-78.85,-25.36,-29.99,-14.32,-24.15,-19.89,-75.57,-18.34,5.426,0,0,0,0,0,0,0,0,0,0,0,0,0,0,0,0,
46,-58.48,-58.83,-48.93,-206.8,14.41,-68.1,-31.09,-73.74,-19.89,-19.94,-3.268,-28.42,-14.37,-70.88,-23.1,5.231,0,0,0,0,0,0,0,0,0,0,0,0,0,0,0,0,
47,-44.21,-66.85,-34.14,-170.5,20.1,-50.43,-32.42,-69.28,-5.611,-2.896,0.5131,-24.11,-5.413,-61.49,-30.74,1.093,0,0,0,0,0,0,0,0,0,0,0,0,0,0,0,0,
48,-20.5,-18.35,-4.637,-183.7,17.71,-38.55,-22.07,-69.78,-0.6056,7.914,-0.8815,-25.36,2.256,-56.0,-30.58,-4.041,0,0,0,0,0,0,0,0,0,0,0,0,0,0,0,0,
49,-11.44,26.14,-0.8069,-189.7,26.5,-43.28,-8.908,-81.82,3.773,14.82,4.769,-29.17,2.194,-57.5,-21.08,1.861,0,0,0,0,0,0,0,0,0,0,0,0,0,0,0,0,
50,-18.92,11.74,-9.431,-164.4,29.96,-44.52,-1.469,-105.4,8.065,12.51,14.24,-31.76,-4.119,-59.43,-16.72,4.24,0,0,0,0,0,0,0,0,0,0,0,0,0,0,0,0,
51,-39.35,-14.66,-17.57,-179.7,9.432,-38.55,0.7915,-104.6,2.296,4.327,14.42,-39.08,-8.168,-63.37,-25.83,-5.574,0,0,0,0,0,0,0,0,0,0,0,0,0,0,0,0,
52,-62.86,-25.33,-39.82,-246.1,-14.79,-46.79,5.069,-69.88,-15.55,0.8671,7.27,-42.67,-8.423,-69.57,-30.14,-6.362,0,0,0,0,0,0,0,0,0,0,0,0,0,0,0,0,
53,-59.6,-32.57,-50.54,-254.8,-19.24,-66.48,8.371,-49.16,-26.51,4.535,0.7039,-38.63,-8.12,-68.8,-26.56,-5.635,0,0,0,0,0,0,0,0,0,0,0,0,0,0,0,0,
54,-50.07,-39.11,-44.7,-185.2,-26.82,-86.74,-5.681,-59.96,-27.35,-1.244,-18.01,-46.17,-23.65,-76.46,-48.3,-31.25,0,0,0,0,0,0,0,0,0,0,0,0,0,0,0,0,
55,-74.57,-49.06,-49.16,-149.1,-51.94,-100.4,-23.43,-63.71,-46.87,-28.68,-44.33,-59.43,-52.92,-98.5,-82.3,-57.48,0,0,0,0,0,0,0,0,0,0,0,0,0,0,0,0,
56,-88.13,-51.01,-42.15,-157.5,-60.16,-89.18,-18.55,-41.77,-71.09,-45.04,-46.63,-51.45,-62.05,-99.85,-80.69,-52.3,0,0,0,0,0,0,0,0,0,0,0,0,0,0,0,0,
57,-65.68,-40.79,-28.76,-154.1,-51.18,-66.81,-9.842,-16.46,-65.41,-29.21,-31.86,-32.3,-50.33,-74.45,-58.06,-32.34,0,0,0,0,0,0,0,0,0,0,0,0,0,0,0,0,
58,-60.59,-39.58,-35.97,-169.0,-49.49,-64.49,-9.439,-4.123,-54.84,-14.97,-19.44,-17.46,-37.34,-49.12,-39.9,-4.293,0,0,0,0,0,0,0,0,0,0,0,0,0,0,0,0,
59,-64.85,-35.55,-24.77,-177.4,-27.83,-56.95,13.83,2.421,-52.53,-9.478,14.51,8.606,-10.37,-25.8,-6.595,39.89,0,0,0,0,0,0,0,0,0,0,0,0,0,0,0,0,
60,-36.62,-7.111,14.69,-120.3,24.93,-24.18,65.51,11.23,-23.43,17.17,74.19,43.02,33.89,0.1167,38.89,83.62,0,0,0,0,0,0,0,0,0,0,0,0,0,0,0,0,
61,-3.847,19.01,46.47,-77.27,61.22,-19.95,106.0,15.41,25.75,53.94,109.9,58.11,65.62,16.45,62.14,106.0,0,0,0,0,0,0,0,0,0,0,0,0,0,0,0,0,
62,-4.785,11.16,57.37,-93.41,47.06,-63.95,97.04,-3.028,44.08,60.16,90.24,43.16,57.56,6.316,46.25,90.89,0,0,0,0,0,0,0,0,0,0,0,0,0,0,0,0,
63,-43.28,-21.96,24.65,-111.7,-7.36,-100.4,43.5,-47.17,12.37,26.95,42.87,5.646,16.81,-32.62,5.068,45.16,0,0,0,0,0,0,0,0,0,0,0,0,0,0,0,0,
64,-93.83,-57.61,-33.76,-152.9,-59.62,-111.5,-10.16,-81.45,-33.94,-16.83,7.984,-33.6,-16.19,-71.65,-27.32,12.77,0,0,0,0,0,0,0,0,0,0,0,0,0,0,0,0,
65,-112.3,-85.58,-56.54,-206.9,-77.79,-123.2,-42.66,-78.44,-57.85,-46.8,-11.86,-51.32,-25.91,-86.38,-40.19,5.578,0,0,0,0,0,0,0,0,0,0,0,0,0,0,0,0,
66,-96.22,-94.16,-51.9,-188.1,-76.58,-131.1,-58.08,-69.16,-66.98,-62.52,-25.79,-50.85,-31.37,-86.35,-52.02,-3.803,0,0,0,0,0,0,0,0,0,0,0,0,0,0,0,0,
67,-81.48,-77.69,-49.97,-146.5,-67.99,-121.1,-50.55,-77.69,-68.29,-61.44,-25.82,-46.58,-31.16,-79.55,-58.94,-5.799,0,0,0,0,0,0,0,0,0,0,0,0,0,0,0,0,
68,-78.55,-55.34,-44.24,-146.3,-47.2,-97.51,-37.11,-76.58,-52.96,-39.15,-18.02,-39.35,-22.99,-64.06,-50.97,10.72,0,0,0,0,0,0,0,0,0,0,0,0,0,0,0,0,
69,-79.1,-43.16,-42.66,-128.8,-36.36,-76.43,-38.73,-65.34,-42.84,-11.94,-20.01,-37.23,-24.26,-53.1,-46.54,11.99,0,0,0,0,0,0,0,0,0,0,0,0,0,0,0,0,
70,-78.54,-43.29,-40.81,-110.5,-39.53,-68.98,-29.48,-71.81,-46.09,1.388,-22.35,-48.2,-24.92,-54.88,-51.38,-6.816,0,0,0,0,0,0,0,0,0,0,0,0,0,0,0,0,
71,-68.12,-43.59,-13.95,-130.6,-13.24,-49.96,0.809,-73.29,-28.51,8.778,-10.7,-51.74,-3.532,-53.14,-49.01,-8.526,0,0,0,0,0,0,0,0,0,0,0,0,0,0,0,0,
72,-49.88,-24.08,11.68,-117.4,39.45,-9.732,14.49,-46.72,6.645,27.61,0.5776,-34.33,22.46,-40.68,-41.22,8.806,0,0,0,0,0,0,0,0,0,0,0,0,0,0,0,0,
73,-39.48,-10.34,-1.006,-73.82,64.57,1.699,5.86,-23.83,23.76,47.14,1.166,-18.0,29.83,-32.65,-38.11,17.97,0,0,0,0,0,0,0,0,0,0,0,0,0,0,0,0,
74,-35.02,-20.8,-13.08,-73.35,66.84,-17.69,7.713,-14.87,28.31,51.06,6.162,-18.97,28.91,-30.84,-38.19,16.24,0,0,0,0,0,0,0,0,0,0,0,0,0,0,0,0,
75,-27.67,-10.27,8.983,-96.05,75.01,-8.844,15.21,-0.3581,36.66,54.92,16.05,-26.09,31.8,-24.51,-40.01,16.54,0,0,0,0,0,0,0,0,0,0,0,0,0,0,0,0,
76,-26.51,11.56,8.89,-108.4,68.41,23.1,1.921,10.94,39.38,68.0,16.57,-23.82,35.66,-17.2,-37.4,21.67,0,0,0,0,0,0,0,0,0,0,0,0,0,0,0,0,
77,-31.89,0.7233,-29.13,-100.7,53.77,36.17,-14.81,15.22,38.82,76.33,15.13,-10.11,45.92,-12.39,-25.06,28.52,0,0,0,0,0,0,0,0,0,0,0,0,0,0,0,0,
78,-35.27,-9.135,-34.16,-58.63,58.13,27.94,-17.16,17.1,39.31,78.68,15.21,1.574,59.64,-6.538,-17.41,36.05,0,0,0,0,0,0,0,0,0,0,0,0,0,0,0,0,
79,-40.75,-6.191,-11.0,-25.57,55.34,8.587,-24.21,3.607,24.06,77.6,7.835,5.734,60.87,-0.0453,-19.36,44.64,0,0,0,0,0,0,0,0,0,0,0,0,0,0,0,0,
80,-39.66,-12.65,-18.12,-35.87,50.75,3.637,-25.18,-1.728,6.961,76.23,8.087,13.43,60.86,11.59,-13.36,54.38,0,0,0,0,0,0,0,0,0,0,0,0,0,0,0,0,
81,-20.67,1.823,-28.97,-39.09,78.36,29.51,1.101,19.93,19.67,88.05,20.49,17.35,71.19,22.67,-6.956,57.38,0,0,0,0,0,0,0,0,0,0,0,0,0,0,0,0,
82,-3.717,28.2,-11.6,-18.93,91.32,37.83,17.3,14.68,33.95,97.68,17.56,-0.1084,69.03,10.47,-21.03,41.97,0,0,0,0,0,0,0,0,0,0,0,0,0,0,0,0,
83,-6.546,19.39,-3.157,-42.03,61.49,6.118,6.73,-18.57,14.9,78.78,8.001,-20.54,57.02,-13.45,-30.27,24.67,0,0,0,0,0,0,0,0,0,0,0,0,0,0,0,0,
84,-19.26,0.0576,-15.42,-108.8,46.56,-8.828,8.359,-10.19,-4.779,55.35,22.13,-18.23,65.58,-14.6,-10.24,34.0,0,0,0,0,0,0,0,0,0,0,0,0,0,0,0,0,
85,-33.28,-4.326,-19.99,-118.7,47.77,-8.083,12.98,15.68,-5.85,51.22,32.79,-11.72,74.02,-10.88,-1.212,46.85,0,0,0,0,0,0,0,0,0,0,0,0,0,0,0,0,
86,-49.47,-17.93,-16.65,-63.73,22.4,-49.94,-8.038,2.531,-23.47,36.96,13.48,-21.29,51.96,-29.97,-22.1,33.05,0,0,0,0,0,0,0,0,0,0,0,0,0,0,0,0,
87,-54.26,-36.88,-15.83,-35.6,0.6661,-93.99,-17.41,-10.36,-50.95,4.632,2.489,-26.08,32.42,-40.79,-25.87,22.09,0,0,0,0,0,0,0,0,0,0,0,0,0,0,0,0,
88,-40.99,-41.6,-20.76,-32.2,5.205,-87.05,0.4461,-0.8997,-51.07,-11.23,8.416,-21.15,29.68,-34.5,-16.74,21.64,0,0,0,0,0,0,0,0,0,0,0,0,0,0,0,0,
89,-41.92,-45.04,-39.47,-19.39,-3.4,-91.8,4.19,-8.165,-49.04,-16.2,-5.416,-32.54,10.61,-47.97,-37.15,2.107,0,0,0,0,0,0,0,0,0,0,0,0,0,0,0,0,
90,-59.52,-51.11,-48.05,-23.07,-19.6,-121.4,0.0353,-20.45,-64.3,-28.58,-16.52,-45.18,-2.146,-60.42,-49.95,-6.221,0,0,0,0,0,0,0,0,0,0,0,0,0,0,0,0,
91,-51.01,-42.16,-27.57,-21.15,-6.848,-105.8,16.86,-7.029,-57.23,-20.85,5.052,-29.66,21.42,-40.07,-24.42,21.62,0,0,0,0,0,0,0,0,0,0,0,0,0,0,0,0,
92,-35.21,-28.52,-18.41,0.0272,9.585,-78.62,31.96,7.423,-36.63,3.981,24.4,-12.46,35.31,-28.0,-10.64,35.98,0,0,0,0,0,0,0,0,0,0,0,0,0,0,0,0,
93,-46.83,-27.91,-24.32,-5.688,1.512,-88.89,27.43,6.112,-44.56,7.452,26.2,-16.66,23.71,-41.33,-21.55,21.74,0,0,0,0,0,0,0,0,0,0,0,0,0,0,0,0,
94,-47.74,-26.43,-11.12,-13.47,-9.285,-81.33,14.1,5.409,-56.92,3.05,22.84,-20.73,21.42,-44.53,-27.65,10.34,0,0,0,0,0,0,0,0,0,0,0,0,0,0,0,0,
95,-27.48,-19.33,-13.67,10.44,-10.24,-46.88,-4.686,5.676,-49.53,12.14,6.339,-18.34,21.42,-35.99,-34.45,2.907,0,0,0,0,0,0,0,0,0,0,0,0,0,0,0,0,
96,-21.27,-15.14,-47.59,22.89,-11.01,-32.47,-21.5,7.706,-43.1,19.11,-8.398,-19.88,18.86,-26.81,-38.35,1.773,0,0,0,0,0,0,0,0,0,0,0,0,0,0,0,0,
97,-23.82,-4.41,-51.83,21.54,-15.28,-30.71,-29.84,20.08,-43.65,23.63,-4.31,-19.37,29.25,-14.4,-28.2,13.04,0,0,0,0,0,0,0,0,0,0,0,0,0,0,0,0,
98,-28.73,6.614,-29.33,35.83,-20.42,-31.34,-34.66,28.23,-48.6,28.82,-5.251,-15.07,30.83,-11.91,-28.02,16.1,0,0,0,0,0,0,0,0,0,0,0,0,0,0,0,0,
99,-39.97,2.046,-41.7,41.85,-19.99,-35.97,-30.45,27.05,-55.59,24.73,-16.18,-12.45,17.05,-18.27,-39.42,11.54,0,0,0,0,0,0,0,0,0,0,0,0,0,0,0,0,
100,-37.64,-6.223,-69.44,25.7,-16.85,-27.8,-16.0,26.11,-49.76,23.15,-15.12,-8.119,16.23,-14.66,-36.65,18.47,0,0,0,0,0,0,0,0,0,0,0,0,0,0,0,0,
101,-27.93,-13.39,-50.8,10.66,-21.07,-20.62,-7.261,11.24,-37.96,31.27,-4.366,-4.268,22.42,-6.234,-25.98,27.74,0,0,0,0,0,0,0,0,0,0,0,0,0,0,0,0,
102,-31.5,-25.5,-11.28,1.163,-25.87,-33.12,-8.245,-11.78,-36.59,30.15,3.123,-8.085,19.93,-1.973,-19.91,30.72,0,0,0,0,0,0,0,0,0,0,0,0,0,0,0,0,
103,-36.16,-30.78,-14.43,-10.47,-24.62,-44.74,-8.653,-10.83,-37.4,18.65,4.746,-11.15,20.52,2.532,-14.8,36.66,0,0,0,0,0,0,0,0,0,0,0,0,0,0,0,0,
104,-40.48,-29.02,-36.92,-19.65,-28.45,-53.71,-2.739,5.497,-36.09,15.68,1.656,-5.355,25.89,3.761,-16.97,44.0,0,0,0,0,0,0,0,0,0,0,0,0,0,0,0,0,
105,-52.29,-32.61,-31.34,-26.3,-38.16,-73.56,5.841,14.98,-38.24,18.83,-1.509,-6.672,26.85,-6.324,-28.3,40.1,0,0,0,0,0,0,0,0,0,0,0,0,0,0,0,0,
106,-56.11,-41.55,-24.47,-36.81,-41.76,-80.89,2.861,17.78,-43.66,5.594,-7.594,-25.63,19.8,-29.8,-39.39,20.51,0,0,0,0,0,0,0,0,0,0,0,0,0,0,0,0,
107,-55.52,-55.87,-39.17,-51.49,-41.84,-64.33,-15.76,10.3,-60.11,-22.36,-23.67,-39.58,2.264,-52.47,-46.81,3.224,0,0,0,0,0,0,0,0,0,0,0,0,0,0,0,0,
108,-61.26,-64.47,-50.26,-61.05,-47.02,-51.52,-27.34,-2.05,-82.17,-29.87,-36.6,-33.25,-10.04,-50.37,-44.45,10.1,0,0,0,0,0,0,0,0,0,0,0,0,0,0,0,0,
109,-55.79,-56.13,-60.45,-49.4,-59.61,-57.47,-26.55,-9.295,-85.28,-9.995,-38.33,-26.05,-7.185,-36.78,-37.97,25.22,0,0,0,0,0,0,0,0,0,0,0,0,0,0,0,0,
110,-49.78,-55.34,-85.35,-29.6,-77.43,-77.2,-38.82,-15.38,-82.21,-1.407,-47.92,-29.8,-13.97,-43.47,-48.98,21.2,0,0,0,0,0,0,0,0,0,0,0,0,0,0,0,0,
111,-63.76,-65.03,-93.9,-37.34,-80.14,-89.29,-58.52,-12.18,-95.01,-12.9,-65.01,-34.32,-31.91,-56.93,-70.48,7.045,0,0,0,0,0,0,0,0,0,0,0,0,0,0,0,0,
112,-66.53,-55.07,-73.73,-48.91,-60.36,-74.9,-65.27,-2.1,-98.58,-18.81,-74.28,-36.58,-35.75,-57.73,-79.95,-0.3067,0,0,0,0,0,0,0,0,0,0,0,0,0,0,0,0,
113,-48.5,-41.48,-67.08,-19.15,-47.91,-63.37,-72.45,-6.183,-84.98,-19.19,-82.26,-34.36,-27.58,-55.19,-74.4,2.615,0,0,0,0,0,0,0,0,0,0,0,0,0,0,0,0,
114,-39.88,-37.48,-72.54,19.86,-41.34,-64.73,-76.79,-11.87,-74.3,-14.98,-82.29,-25.88,-9.067,-45.17,-56.55,13.5,0,0,0,0,0,0,0,0,0,0,0,0,0,0,0,0,
115,-36.51,-18.09,-56.25,31.86,-20.18,-39.12,-63.32,-4.871,-56.86,2.402,-68.07,-28.35,13.84,-31.32,-45.35,12.16,0,0,0,0,0,0,0,0,0,0,0,0,0,0,0,0,
116,-27.96,-4.879,-47.5,31.65,-14.52,-8.33,-56.29,1.031,-42.35,12.12,-67.65,-44.55,9.397,-36.99,-58.18,-4.465,0,0,0,0,0,0,0,0,0,0,0,0,0,0,0,0,
117,-15.91,-15.94,-60.37,11.11,-30.39,-16.2,-63.15,8.177,-56.95,5.488,-81.45,-53.54,-9.746,-49.2,-68.17,-5.41,0,0,0,0,0,0,0,0,0,0,0,0,0,0,0,0,
118,6.859,-11.65,-50.36,-27.71,-25.56,-32.96,-64.64,15.01,-72.13,0.1059,-84.62,-56.44,-8.887,-45.79,-61.98,4.215,0,0,0,0,0,0,0,0,0,0,0,0,0,0,0,0,
119,22.73,7.77,-31.68,-21.9,-7.812,-36.1,-68.04,7.809,-67.47,-8.632,-84.82,-58.39,-5.521,-38.46,-61.08,-1.369,0,0,0,0,0,0,0,0,0,0,0,0,0,0,0,0,
120,18.74,13.94,-42.79,40.23,-10.13,-38.63,-73.32,6.052,-64.87,-19.97,-86.0,-46.0,-8.935,-34.2,-58.47,-3.658,0,0,0,0,0,0,0,0,0,0,0,0,0,0,0,0,
121,15.44,12.11,-50.54,77.16,-27.35,-41.82,-67.39,21.11,-62.32,-20.85,-78.3,-31.42,-3.227,-30.92,-52.29,2.695,0,0,0,0,0,0,0,0,0,0,0,0,0,0,0,0,
122,11.34,0.4264,-33.96,53.7,-43.92,-50.91,-61.31,24.31,-54.46,-23.44,-74.75,-39.13,-3.529,-35.77,-68.13,-11.72,0,0,0,0,0,0,0,0,0,0,0,0,0,0,0,0,
123,-0.9119,-16.59,-21.85,29.17,-46.04,-58.44,-55.74,8.629,-54.92,-31.38,-80.39,-56.96,-14.58,-44.22,-89.13,-34.8,0,0,0,0,0,0,0,0,0,0,0,0,0,0,0,0,
124,-3.317,-15.71,-13.53,32.65,-30.52,-47.75,-36.39,-2.165,-53.69,-32.24,-77.47,-64.75,-11.47,-46.66,-86.1,-38.42,0,0,0,0,0,0,0,0,0,0,0,0,0,0,0,0,
125,6.213,-7.464,1.883,17.34,-22.51,-38.73,-18.5,-2.499,-39.54,-31.76,-68.01,-67.74,-0.4888,-50.68,-77.55,-38.01,0,0,0,0,0,0,0,0,0,0,0,0,0,0,0,0,
126,10.48,-13.18,1.424,-32.9,-39.03,-51.45,-21.38,-2.4,-32.07,-36.49,-69.26,-71.74,-4.081,-60.88,-76.75,-41.43,0,0,0,0,0,0,0,0,0,0,0,0,0,0,0,0,
127,-3.314,-29.24,-15.81,-56.46,-62.64,-74.47,-31.08,0.7981,-40.55,-45.01,-76.71,-69.31,-14.37,-65.86,-76.26,-32.07,0,0,0,0,0,0,0,0,0,0,0,0,0,0,0,0,
128,-33.1,-49.25,-30.41,-19.62,-81.52,-94.62,-38.92,5.053,-52.3,-59.54,-87.97,-64.23,-25.83,-67.12,-88.45,-27.28,0,0,0,0,0,0,0,0,0,0,0,0,0,0,0,0,
129,-61.23,-70.18,-63.86,7.548,-106.9,-108.2,-60.45,-6.596,-70.06,-79.06,-115.4,-66.49,-46.66,-75.24,-110.5,-44.59,0,0,0,0,0,0,0,0,0,0,0,0,0,0,0,0,
130,-77.07,-84.71,-108.1,-28.55,-124.2,-113.4,-82.05,-19.1,-89.79,-90.77,-130.9,-60.46,-53.97,-71.92,-108.3,-48.0,0,0,0,0,0,0,0,0,0,0,0,0,0,0,0,0,
131,-72.52,-80.79,-94.59,-58.63,-101.7,-100.1,-68.78,-7.47,-77.64,-76.49,-100.8,-39.35,-26.95,-45.54,-80.81,-21.44,0,0,0,0,0,0,0,0,0,0,0,0,0,0,0,0,
132,-43.85,-59.04,-38.77,-38.63,-64.0,-70.77,-36.23,-3.61,-38.92,-52.1,-63.64,-33.3,0.8526,-29.46,-59.07,-2.958,0,0,0,0,0,0,0,0,0,0,0,0,0,0,0,0,
133,-20.92,-44.78,-22.41,-38.07,-58.48,-57.77,-25.67,-22.82,-23.49,-56.29,-54.84,-43.5,3.711,-36.11,-48.1,-2.414,0,0,0,0,0,0,0,0,0,0,0,0,0,0,0,0,
134,-26.95,-53.16,-38.56,-63.87,-74.51,-70.93,-35.0,-23.41,-33.89,-74.01,-52.32,-40.37,0.3907,-38.16,-40.33,-1.143,0,0,0,0,0,0,0,0,0,0,0,0,0,0,0,0,
135,-42.37,-70.95,-49.01,-41.03,-78.63,-83.03,-42.59,-15.16,-40.83,-71.2,-50.41,-32.81,-4.437,-37.07,-43.28,-6.067,0,0,0,0,0,0,0,0,0,0,0,0,0,0,0,0,
136,-50.03,-76.16,-64.18,6.537,-73.83,-83.51,-49.86,-26.19,-49.01,-69.71,-61.98,-34.64,-18.78,-47.12,-57.38,-16.43,0,0,0,0,0,0,0,0,0,0,0,0,0,0,0,0,
137,-50.04,-59.04,-74.72,7.202,-77.2,-73.37,-59.87,-19.77,-60.95,-81.9,-77.31,-30.42,-27.68,-52.29,-69.35,-14.34,0,0,0,0,0,0,0,0,0,0,0,0,0,0,0,0,
138,-46.71,-47.62,-64.79,-10.89,-85.43,-57.96,-59.49,-2.884,-59.63,-81.06,-87.27,-28.18,-26.64,-52.57,-72.61,-12.42,0,0,0,0,0,0,0,0,0,0,0,0,0,0,0,0,
139,-52.81,-68.93,-61.45,-6.937,-90.22,-65.01,-49.29,-27.46,-54.19,-84.12,-92.32,-45.11,-33.8,-71.11,-72.38,-29.52,0,0,0,0,0,0,0,0,0,0,0,0,0,0,0,0,
140,-63.84,-89.45,-77.17,-14.28,-92.0,-92.73,-43.38,-56.97,-59.69,-113.7,-90.44,-59.98,-43.55,-91.29,-73.52,-48.03,0,0,0,0,0,0,0,0,0,0,0,0,0,0,0,0,
141,-56.49,-74.24,-79.33,-38.21,-81.11,-98.09,-36.11,-42.55,-59.19,-120.7,-84.47,-55.0,-35.05,-81.39,-72.39,-48.53,0,0,0,0,0,0,0,0,0,0,0,0,0,0,0,0,
142,-35.31,-44.6,-45.09,-27.38,-56.32,-73.97,-26.3,-15.4,-44.2,-85.95,-81.87,-41.22,-20.03,-59.84,-66.58,-38.75,0,0,0,0,0,0,0,0,0,0,0,0,0,0,0,0,
143,-20.33,-28.45,-3.886,16.76,-46.1,-52.26,-30.18,-0.0472,-31.2,-66.99,-81.54,-24.4,-16.87,-55.06,-60.8,-27.62,0,0,0,0,0,0,0,0,0,0,0,0,0,0,0,0,
144,-9.664,-29.89,3.741,45.86,-58.08,-50.95,-36.29,7.835,-20.51,-74.54,-76.63,-11.2,-14.33,-60.11,-55.98,-15.9,0,0,0,0,0,0,0,0,0,0,0,0,0,0,0,0,
145,-7.63,-37.02,-8.859,49.3,-66.45,-61.4,-28.22,7.387,-8.05,-73.11,-70.96,-15.72,-6.493,-66.94,-51.41,-10.2,0,0,0,0,0,0,0,0,0,0,0,0,0,0,0,0,
146,-28.51,-34.53,-19.43,27.45,-65.92,-59.74,-24.83,5.422,-5.732,-70.76,-68.9,-29.32,-4.367,-76.65,-49.8,-13.36,0,0,0,0,0,0,0,0,0,0,0,0,0,0,0,0,
147,-46.61,-30.59,-41.55,-21.77,-68.88,-47.73,-33.88,-1.367,-12.32,-81.06,-61.27,-36.97,-5.221,-82.96,-48.19,-18.25,0,0,0,0,0,0,0,0,0,0,0,0,0,0,0,0,
148,-29.58,-32.75,-53.61,-41.52,-70.92,-51.48,-37.93,-13.81,-15.44,-89.17,-49.86,-42.88,-3.79,-82.95,-49.02,-27.19,0,0,0,0,0,0,0,0,0,0,0,0,0,0,0,0,
149,-11.34,-26.22,-28.18,13.69,-68.11,-60.37,-41.01,-15.0,-16.5,-88.13,-55.05,-48.29,-10.98,-81.82,-67.44,-47.43,0,0,0,0,0,0,0,0,0,0,0,0,0,0,0,0,
150,-32.42,-20.81,-18.01,61.03,-74.08,-56.1,-56.23,-15.69,-27.42,-86.59,-80.88,-48.56,-31.54,-84.32,-94.61,-65.32,0,0,0,0,0,0,0,0,0,0,0,0,0,0,0,0,
151,-58.5,-34.41,-50.02,26.2,-90.51,-55.39,-68.71,-21.43,-48.17,-92.3,-105.0,-44.11,-50.8,-86.36,-102.9,-63.86,0,0,0,0,0,0,0,0,0,0,0,0,0,0,0,0,
152,-56.02,-45.66,-66.98,-4.217,-102.5,-60.91,-66.8,-13.55,-57.24,-94.87,-114.4,-35.23,-59.47,-82.72,-101.7,-52.63,0,0,0,0,0,0,0,0,0,0,0,0,0,0,0,0,
153,-52.35,-42.74,-51.26,20.45,-111.1,-68.02,-69.26,-13.16,-53.92,-86.67,-121.1,-29.18,-65.0,-81.45,-110.6,-44.04,0,0,0,0,0,0,0,0,0,0,0,0,0,0,0,0,
154,-55.56,-47.53,-43.39,17.24,-118.0,-81.11,-78.88,-24.64,-60.57,-82.44,-126.2,-30.7,-65.66,-83.09,-110.6,-35.77,0,0,0,0,0,0,0,0,0,0,0,0,0,0,0,0,
155,-46.35,-64.72,-62.07,6.834,-109.6,-77.16,-69.94,-6.547,-61.02,-79.03,-111.7,-32.17,-49.44,-80.29,-90.67,-33.5,0,0,0,0,0,0,0,0,0,0,0,0,0,0,0,0,
156,-40.29,-64.15,-82.47,51.36,-93.88,-59.64,-46.97,18.53,-36.21,-71.12,-86.19,-35.4,-25.81,-86.29,-74.95,-41.81,0,0,0,0,0,0,0,0,0,0,0,0,0,0,0,0,
157,-43.07,-30.37,-75.6,69.38,-88.64,-69.84,-39.96,6.82,-13.53,-80.91,-74.11,-41.51,-17.0,-101.0,-74.43,-46.83,0,0,0,0,0,0,0,0,0,0,0,0,0,0,0,0,
158,-35.1,-13.04,-61.36,61.23,-85.34,-87.56,-43.35,-8.951,-3.5,-94.78,-68.92,-35.67,-20.46,-95.67,-77.59,-39.49,0,0,0,0,0,0,0,0,0,0,0,0,0,0,0,0,
159,-30.9,-44.77,-59.39,108.7,-73.88,-74.48,-32.85,5.478,6.134,-79.11,-55.64,-17.63,-15.77,-70.17,-73.86,-24.55,0,0,0,0,0,0,0,0,0,0,0,0,0,0,0,0,
160,-40.25,-58.05,-50.76,137.9,-63.23,-57.79,-19.4,33.93,3.666,-55.59,-43.14,-4.447,-4.185,-51.25,-64.97,-13.64,0,0,0,0,0,0,0,0,0,0,0,0,0,0,0,0,
161,-37.57,-20.82,-48.12,125.7,-63.62,-62.92,-25.96,43.09,-12.91,-51.93,-41.7,-8.42,-7.11,-53.43,-65.33,-22.06,0,0,0,0,0,0,0,0,0,0,0,0,0,0,0,0,
162,-26.81,-4.859,-60.31,161.4,-78.05,-76.2,-44.24,14.61,-29.41,-62.4,-47.74,-32.27,-24.49,-77.41,-75.22,-41.27,0,0,0,0,0,0,0,0,0,0,0,0,0,0,0,0,
163,-32.7,-30.28,-56.82,191.7,-99.96,-84.33,-53.7,-15.11,-49.36,-83.73,-50.99,-55.72,-30.82,-101.1,-73.26,-42.36,0,0,0,0,0,0,0,0,0,0,0,0,0,0,0,0,
164,-43.29,-43.02,-49.07,165.6,-109.1,-86.88,-45.35,-4.143,-64.59,-104.7,-41.57,-56.36,-16.49,-100.9,-58.26,-28.8,0,0,0,0,0,0,0,0,0,0,0,0,0,0,0,0,
165,-38.31,-37.64,-52.73,142.5,-98.05,-95.03,-26.13,17.54,-58.17,-109.5,-29.27,-50.9,-4.927,-94.95,-53.81,-30.89,0,0,0,0,0,0,0,0,0,0,0,0,0,0,0,0,
166,-32.73,-46.02,-47.49,113.9,-96.06,-107.9,-19.92,14.27,-53.81,-108.3,-30.6,-56.57,-14.98,-100.9,-62.98,-46.88,0,0,0,0,0,0,0,0,0,0,0,0,0,0,0,0,
167,-45.58,-59.14,-41.61,81.49,-116.8,-106.2,-32.17,1.568,-70.13,-107.1,-31.91,-55.26,-28.5,-101.1,-68.68,-46.71,0,0,0,0,0,0,0,0,0,0,0,0,0,0,0,0,
168,-62.83,-58.42,-45.65,86.38,-126.3,-92.22,-42.8,-8.186,-79.1,-101.6,-23.56,-42.32,-27.0,-92.91,-67.66,-25.81,0,0,0,0,0,0,0,0,0,0,0,0,0,0,0,0,
169,-64.98,-60.96,-50.26,83.84,-114.4,-83.34,-49.79,-15.54,-74.05,-102.8,-25.1,-34.27,-23.1,-91.41,-63.97,-9.175,0,0,0,0,0,0,0,0,0,0,0,0,0,0,0,0,
170,-52.16,-64.35,-59.63,65.0,-110.9,-86.92,-56.77,-13.47,-73.93,-109.8,-34.41,-29.74,-27.56,-93.19,-60.59,-10.21,0,0,0,0,0,0,0,0,0,0,0,0,0,0,0,0,
171,-38.4,-59.42,-75.23,74.8,-119.7,-102.9,-56.58,-7.99,-71.21,-110.5,-37.44,-25.75,-39.04,-95.19,-68.22,-18.77,0,0,0,0,0,0,0,0,0,0,0,0,0,0,0,0,
172,-46.9,-82.29,-92.35,71.42,-121.5,-111.2,-57.47,-10.61,-65.72,-110.9,-43.46,-29.64,-53.38,-101.5,-81.09,-21.91,0,0,0,0,0,0,0,0,0,0,0,0,0,0,0,0,
173,-70.39,-105.3,-96.17,37.88,-117.0,-102.2,-64.44,-21.8,-71.39,-111.9,-48.53,-39.61,-54.07,-108.5,-78.13,-18.92,0,0,0,0,0,0,0,0,0,0,0,0,0,0,0,0,
174,-73.84,-64.38,-76.9,38.5,-119.0,-115.0,-66.39,-39.74,-78.8,-116.4,-41.11,-54.39,-39.97,-115.2,-65.72,-20.11,0,0,0,0,0,0,0,0,0,0,0,0,0,0,0,0,
175,-67.89,-30.89,-67.36,59.61,-123.6,-151.8,-59.78,-49.61,-80.11,-134.4,-32.22,-67.87,-31.71,-114.9,-61.25,-27.78,0,0,0,0,0,0,0,0,0,0,0,0,0,0,0,0,
176,-71.5,-60.4,-73.12,49.63,-111.8,-147.0,-43.79,-33.75,-75.92,-134.9,-25.66,-57.56,-25.62,-93.55,-60.74,-25.84,0,0,0,0,0,0,0,0,0,0,0,0,0,0,0,0,
177,-61.61,-69.16,-62.48,48.29,-87.1,-101.5,-25.28,-9.834,-62.51,-93.32,-17.19,-30.34,-11.56,-65.35,-61.28,-13.01,0,0,0,0,0,0,0,0,0,0,0,0,0,0,0,0,
178,-50.04,-46.61,-58.77,74.26,-77.73,-89.76,-22.36,-9.88,-57.11,-61.81,-14.28,-24.21,-9.701,-61.09,-66.92,-15.97,0,0,0,0,0,0,0,0,0,0,0,0,0,0,0,0,
179,-59.63,-55.12,-67.01,63.97,-86.82,-114.4,-29.35,-30.85,-74.05,-80.3,-16.53,-37.9,-26.2,-77.8,-71.91,-33.95,0,0,0,0,0,0,0,0,0,0,0,0,0,0,0,0,
180,-55.36,-68.95,-42.98,28.92,-88.0,-127.4,-23.45,-43.14,-89.46,-103.8,-17.78,-45.3,-31.36,-87.48,-73.31,-39.21,0,0,0,0,0,0,0,0,0,0,0,0,0,0,0,0,
181,-39.85,-62.67,-35.26,37.24,-78.29,-135.3,-7.542,-40.32,-86.64,-97.34,-21.28,-54.0,-18.25,-87.11,-77.49,-42.97,0,0,0,0,0,0,0,0,0,0,0,0,0,0,0,0,
182,-52.44,-62.88,-88.3,65.19,-76.28,-140.6,3.395,-46.02,-81.28,-93.07,-21.92,-66.39,-11.26,-88.76,-78.29,-57.32,0,0,0,0,0,0,0,0,0,0,0,0,0,0,0,0,
183,-57.35,-63.16,-96.37,65.76,-72.78,-115.1,13.27,-58.99,-75.5,-100.3,-8.219,-61.86,-10.43,-81.44,-64.93,-52.25,0,0,0,0,0,0,0,0,0,0,0,0,0,0,0,0,
184,-36.47,-55.06,-32.23,51.07,-60.52,-91.57,22.06,-52.88,-58.47,-83.89,6.616,-52.56,-6.431,-65.69,-54.25,-36.09,0,0,0,0,0,0,0,0,0,0,0,0,0,0,0,0,
185,-45.76,-57.47,-26.78,43.05,-65.7,-106.2,19.56,-38.56,-48.03,-59.02,5.137,-55.17,-11.21,-65.12,-59.01,-42.15,0,0,0,0,0,0,0,0,0,0,0,0,0,0,0,0,
186,-68.23,-64.28,-77.65,44.16,-80.91,-107.5,19.07,-40.5,-54.66,-62.54,3.818,-51.81,-17.83,-69.22,-54.78,-43.75,0,0,0,0,0,0,0,0,0,0,0,0,0,0,0,0,
187,-55.84,-62.49,-77.08,31.5,-79.75,-86.73,28.32,-45.96,-55.0,-73.45,12.15,-44.06,-14.95,-60.82,-39.39,-26.07,0,0,0,0,0,0,0,0,0,0,0,0,0,0,0,0,
188,-48.54,-58.98,-50.82,18.9,-82.14,-104.7,29.85,-39.44,-51.59,-73.68,13.03,-42.42,-20.36,-55.43,-35.79,-20.28,0,0,0,0,0,0,0,0,0,0,0,0,0,0,0,0,
189,-48.63,-49.73,-41.79,65.81,-82.31,-120.8,42.82,-20.99,-57.66,-71.11,24.02,-19.83,-19.14,-43.97,-17.4,-6.926,0,0,0,0,0,0,0,0,0,0,0,0,0,0,0,0,
190,-3.293,-24.69,-9.819,136.1,-42.97,-63.28,92.38,6.262,-43.7,-48.14,71.71,28.24,23.78,-4.504,39.37,44.73,0,0,0,0,0,0,0,0,0,0,0,0,0,0,0,0,
191,48.55,14.23,35.34,157.5,3.941,2.456,132.8,20.97,-2.082,-8.19,117.0,61.76,73.47,36.96,84.94,90.99,0,0,0,0,0,0,0,0,0,0,0,0,0,0,0,0,
192,48.34,41.18,47.33,160.2,7.882,6.489,119.5,9.166,22.17,7.613,112.2,64.22,77.34,48.28,81.49,89.81,0,0,0,0,0,0,0,0,0,0,0,0,0,0,0,0,
193,18.73,21.5,23.79,158.6,-19.24,-13.39,74.47,-6.152,10.99,-2.637,71.95,48.19,48.01,33.95,52.61,60.9,0,0,0,0,0,0,0,0,0,0,0,0,0,0,0,0,
194,-3.492,-9.234,-15.7,133.6,-47.62,-26.51,31.63,-9.869,-10.86,-11.32,30.28,27.83,16.0,12.82,23.21,35.81,0,0,0,0,0,0,0,0,0,0,0,0,0,0,0,0,
195,-6.162,-9.751,-43.69,126.2,-66.25,-42.08,8.65,-17.23,-31.05,-17.69,0.1061,15.23,-12.48,-2.704,-2.236,21.53,0,0,0,0,0,0,0,0,0,0,0,0,0,0,0,0,
196,-4.712,-32.96,-47.03,141.9,-75.11,-56.05,9.536,-37.77,-54.38,-30.38,-19.73,1.718,-34.83,-17.14,-28.03,2.562,0,0,0,0,0,0,0,0,0,0,0,0,0,0,0,0,
197,-4.443,-56.23,-35.1,159.0,-71.19,-60.73,18.52,-59.5,-69.21,-44.98,-32.57,-19.81,-43.82,-33.19,-49.87,-22.18,0,0,0,0,0,0,0,0,0,0,0,0,0,0,0,0,
198,41.45,21.19,-7.269,202.9,-45.82,-49.07,28.45,-62.44,-55.44,-50.42,-30.86,-25.88,-35.05,-34.66,-47.9,-26.95,0,0,0,0,0,0,0,0,0,0,0,0,0,0,0,0,
199,132.9,130.1,37.15,249.9,-7.199,-19.6,45.04,-46.83,-23.73,-36.97,-14.15,-21.22,-21.54,-25.54,-35.8,-25.21,0,0,0,0,0,0,0,0,0,0,0,0,0,0,0,0,
200,210.8,175.3,82.96,269.6,27.26,15.04,57.64,-40.33,-5.17,-16.32,-4.526,-37.26,-19.75,-27.49,-40.24,-46.03,0,0,0,0,0,0,0,0,0,0,0,0,0,0,0,0,
201,277.8,229.1,111.1,297.4,55.05,51.09,60.33,-51.98,-2.216,-6.933,-2.95,-52.01,-14.18,-28.44,-33.21,-52.44,0,0,0,0,0,0,0,0,0,0,0,0,0,0,0,0,
202,350.2,313.1,121.0,324.3,76.76,85.18,61.9,-59.52,3.694,1.575,8.633,-43.75,2.501,-13.24,-5.195,-25.95,0,0,0,0,0,0,0,0,0,0,0,0,0,0,0,0,
203,410.9,368.5,143.8,347.4,96.6,113.0,61.56,-53.76,10.03,17.8,23.04,-41.82,7.597,3.842,6.921,-10.15,0,0,0,0,0,0,0,0,0,0,0,0,0,0,0,0,
204,482.7,428.4,190.2,406.0,128.9,146.1,66.35,-43.8,12.73,32.32,38.17,-40.1,11.77,20.8,14.07,-2.433,0,0,0,0,0,0,0,0,0,0,0,0,0,0,0,0,
205,557.4,503.8,222.2,426.7,161.5,165.2,79.08,-32.03,21.76,46.18,56.35,-17.04,23.07,36.11,25.41,13.07,0,0,0,0,0,0,0,0,0,0,0,0,0,0,0,0,
206,571.0,522.8,224.3,376.2,157.4,138.4,74.67,-15.82,18.83,48.92,51.25,-5.989,3.721,27.37,4.44,5.473,0,0,0,0,0,0,0,0,0,0,0,0,0,0,0,0,
207,548.5,494.1,221.4,388.9,117.3,102.5,54.26,-4.587,-15.14,25.99,24.47,-23.48,-37.89,-5.904,-33.53,-21.04,0,0,0,0,0,0,0,0,0,0,0,0,0,0,0,0,
208,549.8,479.6,221.2,454.0,80.23,92.33,43.65,-10.63,-51.45,-5.75,10.72,-42.95,-57.41,-42.61,-49.48,-35.41,0,0,0,0,0,0,0,0,0,0,0,0,0,0,0,0,
209,545.5,470.9,215.1,432.3,70.95,84.52,47.64,-14.66,-63.73,-30.8,18.35,-46.83,-54.93,-60.17,-49.02,-34.04,0,0,0,0,0,0,0,0,0,0,0,0,0,0,0,0,
210,519.3,447.5,210.5,370.6,89.97,75.67,67.76,-1.179,-50.09,-36.72,39.9,-28.9,-37.59,-41.83,-38.73,-17.9,0,0,0,0,0,0,0,0,0,0,0,0,0,0,0,0,
211,501.2,423.0,216.5,359.8,111.5,79.65,84.35,1.746,-17.81,-11.12,54.67,-3.956,-14.51,-9.3,-27.02,-3.875,0,0,0,0,0,0,0,0,0,0,0,0,0,0,0,0,
212,471.3,396.7,218.1,353.2,108.0,85.65,70.49,-1.24,4.957,17.3,44.87,2.741,-8.366,7.883,-26.47,-9.146,0,0,0,0,0,0,0,0,0,0,0,0,0,0,0,0,
213,415.3,361.6,199.1,314.7,98.04,89.33,53.44,20.32,9.388,24.11,34.17,-5.819,-10.45,14.88,-25.82,-14.02,0,0,0,0,0,0,0,0,0,0,0,0,0,0,0,0,
214,373.0,327.9,173.2,282.8,106.2,97.56,49.42,34.81,15.38,26.15,33.65,-16.6,-10.02,15.57,-22.35,-10.71,0,0,0,0,0,0,0,0,0,0,0,0,0,0,0,0,
215,348.7,299.6,149.3,288.8,109.1,106.7,34.45,20.56,21.49,29.04,25.62,-24.4,-14.91,9.886,-24.0,-15.6,0,0,0,0,0,0,0,0,0,0,0,0,0,0,0,0,
216,302.4,264.8,108.6,295.4,80.21,92.9,19.95,2.557,20.78,23.95,16.53,-29.94,-17.95,6.515,-26.3,-25.37,0,0,0,0,0,0,0,0,0,0,0,0,0,0,0,0,
217,240.7,217.1,70.48,249.7,43.31,52.51,23.92,-24.54,15.19,11.2,19.37,-41.02,-15.64,3.057,-24.14,-24.84,0,0,0,0,0,0,0,0,0,0,0,0,0,0,0,0,
218,207.9,179.1,76.32,192.2,39.4,37.45,38.33,-50.43,9.118,-2.069,39.56,-51.48,-7.093,1.965,-7.768,-11.68,0,0,0,0,0,0,0,0,0,0,0,0,0,0,0,0,
219,201.5,165.7,94.57,176.1,56.82,50.96,59.09,-40.44,17.84,-7.791,75.07,-49.52,16.3,11.05,20.16,1.841,0,0,0,0,0,0,0,0,0,0,0,0,0,0,0,0,
220,188.3,152.4,91.04,173.4,55.2,34.82,67.76,-19.16,33.16,-8.098,96.29,-41.88,36.65,23.52,33.58,4.878,0,0,0,0,0,0,0,0,0,0,0,0,0,0,0,0,
221,170.3,133.9,89.04,160.3,37.62,11.55,48.77,-10.61,30.67,-2.783,85.0,-36.24,31.38,31.67,27.57,-0.1367,0,0,0,0,0,0,0,0,0,0,0,0,0,0,0,0,
222,149.6,128.9,83.47,145.4,27.73,27.17,27.59,5.595,17.91,9.245,65.97,-27.11,15.87,36.04,21.32,-1.601,0,0,0,0,0,0,0,0,0,0,0,0,0,0,0,0,
223,123.7,124.1,70.33,137.5,36.16,52.02,26.12,23.16,13.84,21.29,68.0,-9.301,16.9,47.08,24.53,12.73,0,0,0,0,0,0,0,0,0,0,0,0,0,0,0,0,
224,120.0,105.5,69.55,141.4,56.16,62.77,28.83,26.2,21.64,36.89,81.99,2.4,27.68,61.43,31.52,28.36,0,0,0,0,0,0,0,0,0,0,0,0,0,0,0,0,
225,126.2,91.21,52.92,145.4,53.44,57.8,20.47,25.33,26.52,42.5,78.25,-7.445,22.46,51.64,32.53,20.22,0,0,0,0,0,0,0,0,0,0,0,0,0,0,0,0,
226,107.7,93.68,29.89,157.7,32.35,42.86,15.29,25.05,19.03,22.86,70.49,-16.2,14.42,31.38,37.17,11.79,0,0,0,0,0,0,0,0,0,0,0,0,0,0,0,0,
227,93.76,100.2,45.05,173.9,35.64,47.79,27.55,31.96,20.42,18.04,89.35,-4.482,31.32,37.51,58.33,30.62,0,0,0,0,0,0,0,0,0,0,0,0,0,0,0,0,
228,96.83,88.98,50.3,145.6,39.65,53.65,47.19,55.11,30.86,40.98,108.9,5.123,47.54,43.63,68.98,42.37,0,0,0,0,0,0,0,0,0,0,0,0,0,0,0,0,
229,79.0,64.13,28.05,113.2,11.5,29.06,61.69,68.65,21.72,39.51,100.9,-0.4629,32.9,18.87,43.13,16.3,0,0,0,0,0,0,0,0,0,0,0,0,0,0,0,0,
230,45.82,51.16,39.45,147.1,-8.505,22.48,67.5,55.19,1.574,12.12,88.11,-5.497,16.52,-2.172,14.87,-14.14,0,0,0,0,0,0,0,0,0,0,0,0,0,0,0,0,
231,31.84,50.7,65.53,166.3,8.863,51.35,69.71,44.92,-4.383,3.682,94.3,2.226,30.21,10.48,24.4,-7.807,0,0,0,0,0,0,0,0,0,0,0,0,0,0,0,0,
232,46.45,49.48,66.3,118.4,41.74,55.76,75.55,44.3,5.774,13.03,113.9,16.24,51.53,32.78,50.88,19.39,0,0,0,0,0,0,0,0,0,0,0,0,0,0,0,0,
233,69.47,51.23,65.82,101.0,62.7,37.25,77.71,28.32,19.28,13.76,123.9,17.12,52.55,36.06,58.13,26.85,0,0,0,0,0,0,0,0,0,0,0,0,0,0,0,0,
234,69.64,60.86,70.76,131.3,65.95,50.5,74.77,13.09,22.1,10.37,115.3,4.739,50.87,31.79,48.65,14.97,0,0,0,0,0,0,0,0,0,0,0,0,0,0,0,0,
235,54.21,71.62,64.56,139.0,67.98,77.71,73.37,16.65,24.88,23.48,102.9,-1.294,58.88,37.17,32.47,3.742,0,0,0,0,0,0,0,0,0,0,0,0,0,0,0,0,
236,50.55,71.35,49.13,119.2,69.78,69.3,62.04,11.83,33.64,40.46,87.58,-2.593,48.82,37.13,8.261,-9.911,0,0,0,0,0,0,0,0,0,0,0,0,0,0,0,0,
237,45.26,54.02,34.77,72.22,56.01,44.61,36.92,-6.453,18.25,30.14,62.21,-11.96,13.04,23.1,-15.54,-27.31,0,0,0,0,0,0,0,0,0,0,0,0,0,0,0,0,
238,18.51,30.36,13.59,17.31,32.53,34.65,8.398,-9.268,-22.19,1.704,39.14,-23.73,-21.7,8.959,-29.95,-38.89,0,0,0,0,0,0,0,0,0,0,0,0,0,0,0,0,
239,-8.954,16.07,-20.53,21.09,13.39,20.23,-18.92,-2.371,-52.17,-15.73,27.75,-27.59,-40.78,-5.924,-38.33,-45.91,0,0,0,0,0,0,0,0,0,0,0,0,0,0,0,0,
240,-14.11,9.17,-32.08,52.77,3.903,-1.271,-30.05,-15.09,-66.37,-24.97,22.42,-25.65,-47.21,-24.75,-44.53,-50.62,0,0,0,0,0,0,0,0,0,0,0,0,0,0,0,0,
241,-5.836,0.8083,-18.49,44.68,2.154,-8.645,-17.83,-30.46,-72.37,-37.18,20.02,-24.82,-46.41,-34.75,-47.05,-51.93,0,0,0,0,0,0,0,0,0,0,0,0,0,0,0,0,
242,2.188,-4.31,-23.17,29.98,-3.893,-7.799,-3.908,-11.43,-62.03,-46.39,19.8,-28.09,-42.76,-36.33,-47.36,-59.88,0,0,0,0,0,0,0,0,0,0,0,0,0,0,0,0,
243,0.2917,-9.135,-27.87,27.56,-18.55,-1.311,-4.123,15.75,-48.11,-53.64,11.31,-36.99,-45.31,-43.75,-53.77,-77.03,0,0,0,0,0,0,0,0,0,0,0,0,0,0,0,0,
244,-17.25,-16.7,-14.47,22.84,-25.87,10.31,-12.53,15.25,-57.28,-59.74,-8.941,-42.12,-57.81,-51.95,-61.85,-81.38,0,0,0,0,0,0,0,0,0,0,0,0,0,0,0,0,
245,-27.02,-11.35,-13.54,32.1,-13.98,3.07,-15.36,18.4,-75.34,-48.86,-20.97,-29.99,-64.33,-47.26,-57.9,-67.0,0,0,0,0,0,0,0,0,0,0,0,0,0,0,0,0,
246,-27.04,-14.69,-12.56,29.57,-4.298,-15.04,-12.07,34.13,-75.63,-32.57,-21.95,-15.79,-62.95,-38.83,-51.78,-57.11,0,0,0,0,0,0,0,0,0,0,0,0,0,0,0,0,
247,-53.1,-50.44,-13.74,8.241,-19.02,-16.42,-18.82,25.49,-75.52,-40.36,-28.46,-13.87,-65.5,-35.24,-47.76,-45.87,0,0,0,0,0,0,0,0,0,0,0,0,0,0,0,0,
248,-74.77,-64.28,-48.44,24.83,-31.17,-14.37,-31.84,10.68,-82.8,-52.08,-22.73,-5.619,-54.83,-20.19,-21.41,-12.19,0,0,0,0,0,0,0,0,0,0,0,0,0,0,0,0,
249,-48.65,-38.74,-63.19,51.81,-21.91,-16.21,-29.87,21.59,-65.72,-43.35,4.471,8.407,-28.53,6.431,15.55,14.87,0,0,0,0,0,0,0,0,0,0,0,0,0,0,0,0,
250,-28.38,-35.58,-26.99,32.21,-26.55,-12.2,-16.69,35.06,-35.25,-38.84,15.51,8.845,-19.52,17.97,24.24,9.597,0,0,0,0,0,0,0,0,0,0,0,0,0,0,0,0,
251,-49.46,-54.85,-17.8,2.55,-54.25,-18.54,-12.95,29.66,-37.06,-49.7,8.54,5.141,-24.87,11.75,19.2,3.887,0,0,0,0,0,0,0,0,0,0,0,0,0,0,0,0,
252,-70.79,-59.39,-48.24,-18.46,-71.75,-34.12,-23.69,8.394,-59.73,-59.26,17.76,6.563,-19.47,9.47,29.3,14.14,0,0,0,0,0,0,0,0,0,0,0,0,0,0,0,0,
253,-76.39,-60.15,-52.53,-44.54,-71.17,-40.77,-35.5,-13.3,-63.9,-63.84,28.93,6.643,-11.7,16.06,36.67,16.83,0,0,0,0,0,0,0,0,0,0,0,0,0,0,0,0,
254,-79.3,-63.97,-44.97,-28.4,-62.95,-47.82,-36.49,-15.76,-53.43,-60.58,14.81,6.18,-14.66,19.14,25.34,6.465,0,0,0,0,0,0,0,0,0,0,0,0,0,0,0,0,
255,-84.22,-64.99,-60.97,42.6,-56.36,-50.98,-31.53,-16.18,-46.64,-50.3,-5.672,0.8038,-24.93,10.44,7.822,-7.628,0,0,0,0,0,0,0,0,0,0,0,0,0,0,0,0,
256,-88.37,-68.47,-61.58,87.41,-58.49,-37.42,-30.5,-33.01,-42.73,-49.42,-12.94,-12.23,-37.81,-4.901,-6.451,-21.59,0,0,0,0,0,0,0,0,0,0,0,0,0,0,0,0,
257,-76.16,-65.15,-37.71,83.11,-49.77,-23.94,-35.36,-38.36,-42.0,-57.02,-15.73,-21.46,-45.31,-15.25,-14.8,-27.73,0,0,0,0,0,0,0,0,0,0,0,0,0,0,0,0,
258,-55.6,-50.13,-34.95,88.1,-23.67,-20.86,-40.16,-29.6,-44.2,-57.16,-16.99,-25.73,-42.19,-17.68,-16.78,-26.68,0,0,0,0,0,0,0,0,0,0,0,0,0,0,0,0,
259,-57.16,-46.0,-43.55,87.37,-18.48,-30.42,-30.9,-30.67,-39.57,-54.38,-6.686,-26.97,-33.79,-12.01,-12.09,-23.69,0,0,0,0,0,0,0,0,0,0,0,0,0,0,0,0,
260,-66.3,-57.85,-30.38,43.98,-36.25,-45.48,-7.47,-19.88,-30.01,-54.97,9.577,-18.85,-28.23,1.106,-1.588,-17.49,0,0,0,0,0,0,0,0,0,0,0,0,0,0,0,0,
261,-57.31,-61.71,-20.02,25.62,-38.61,-39.48,2.804,4.351,-29.52,-51.0,7.373,-11.8,-33.68,3.98,0.7176,-15.31,0,0,0,0,0,0,0,0,0,0,0,0,0,0,0,0,
262,-53.48,-56.87,-28.2,60.95,-30.93,-27.61,-9.365,-3.501,-41.79,-51.9,-12.46,-15.66,-44.18,-6.53,-4.129,-14.18,0,0,0,0,0,0,0,0,0,0,0,0,0,0,0,0,
263,-61.13,-53.44,-24.94,74.55,-32.73,-31.58,-19.72,-27.37,-53.31,-64.31,-16.34,-14.82,-39.74,-1.312,5.791,0.009,0,0,0,0,0,0,0,0,0,0,0,0,0,0,0,0,
264,-54.65,-39.49,-13.95,64.06,-37.14,-20.02,-22.19,-24.69,-50.82,-63.52,-5.202,-5.578,-25.81,17.03,19.31,11.06,0,0,0,0,0,0,0,0,0,0,0,0,0,0,0,0,
265,-47.58,-26.8,-25.8,76.45,-37.96,2.049,-22.51,-20.11,-40.1,-47.25,-5.954,-1.758,-17.64,22.25,23.22,9.891,0,0,0,0,0,0,0,0,0,0,0,0,0,0,0,0,
266,-49.12,-34.22,-44.56,73.5,-27.71,0.2132,-9.274,-29.6,-24.19,-38.73,-3.67,1.511,-2.048,28.57,40.22,19.8,0,0,0,0,0,0,0,0,0,0,0,0,0,0,0,0,
267,-37.33,-36.72,-46.0,34.14,-17.13,-2.026,4.147,-28.77,1.733,-30.8,9.81,10.72,15.44,44.95,60.32,33.66,0,0,0,0,0,0,0,0,0,0,0,0,0,0,0,0,
268,-31.31,-20.66,-37.67,37.58,-25.99,18.4,-7.474,-22.87,19.91,-11.37,5.676,18.02,9.981,50.34,57.3,34.79,0,0,0,0,0,0,0,0,0,0,0,0,0,0,0,0,
269,-43.75,-1.601,-18.23,108.6,-30.17,42.02,-28.9,-18.98,20.73,6.861,-10.25,23.95,-2.377,47.17,50.54,38.58,0,0,0,0,0,0,0,0,0,0,0,0,0,0,0,0,
270,-43.01,3.838,2.071,128.2,-26.94,44.62,-44.68,-5.815,18.96,11.01,-17.81,28.6,-7.364,41.27,48.58,39.38,0,0,0,0,0,0,0,0,0,0,0,0,0,0,0,0,
271,-37.35,-18.08,-8.372,43.98,-49.81,21.08,-53.87,2.71,10.13,0.7995,-23.0,25.95,-15.84,28.23,43.13,26.23,0,0,0,0,0,0,0,0,0,0,0,0,0,0,0,0,
272,-37.95,-34.92,-26.63,5.63,-68.13,8.074,-44.2,2.515,-2.878,-4.758,-16.38,23.26,-12.05,24.38,49.88,24.83,0,0,0,0,0,0,0,0,0,0,0,0,0,0,0,0,
273,-25.76,-19.81,-11.62,80.4,-51.42,33.64,-29.29,10.38,2.527,7.754,5.649,23.75,8.186,33.0,61.61,36.22,0,0,0,0,0,0,0,0,0,0,0,0,0,0,0,0,
274,-29.94,-10.94,5.664,110.9,-37.8,64.25,-30.82,12.75,14.68,17.34,20.62,21.69,18.48,40.11,63.67,38.05,0,0,0,0,0,0,0,0,0,0,0,0,0,0,0,0,
275,-53.25,-5.177,-0.3119,58.43,-29.95,78.9,-25.94,6.669,23.06,19.95,35.63,27.35,27.89,55.29,79.15,43.52,0,0,0,0,0,0,0,0,0,0,0,0,0,0,0,0,
276,-34.24,11.98,11.49,59.28,0.2656,98.75,-2.34,17.59,47.1,44.21,60.5,40.81,50.51,77.54,101.6,55.37,0,0,0,0,0,0,0,0,0,0,0,0,0,0,0,0,
277,1.805,-6.819,39.37,96.92,26.2,120.8,8.688,30.06,70.48,80.56,62.44,43.62,61.51,85.35,97.58,52.02,0,0,0,0,0,0,0,0,0,0,0,0,0,0,0,0,
278,-1.041,-21.0,30.59,84.23,23.28,123.2,-4.31,21.09,65.7,96.24,37.87,47.04,59.22,87.37,86.73,51.83,0,0,0,0,0,0,0,0,0,0,0,0,0,0,0,0,
279,1.963,39.44,2.71,75.51,17.88,110.1,-13.66,13.33,59.76,101.3,30.64,63.47,66.51,94.61,92.8,67.12,0,0,0,0,0,0,0,0,0,0,0,0,0,0,0,0,
280,24.9,82.79,-1.46,84.98,22.27,97.36,-2.133,19.06,71.29,104.2,44.55,63.51,70.03,85.35,91.7,59.92,0,0,0,0,0,0,0,0,0,0,0,0,0,0,0,0,
281,18.58,41.76,6.574,49.59,20.55,90.07,15.57,22.6,71.73,82.4,51.42,41.26,54.87,61.37,75.25,31.21,0,0,0,0,0,0,0,0,0,0,0,0,0,0,0,0,
282,4.568,4.258,23.54,11.96,17.46,84.74,23.11,11.79,58.04,52.32,51.32,27.24,40.91,52.72,60.86,20.68,0,0,0,0,0,0,0,0,0,0,0,0,0,0,0,0,
283,8.147,6.692,36.17,28.88,17.59,78.04,21.3,-8.963,50.84,51.42,43.92,22.23,36.69,56.69,51.72,22.86,0,0,0,0,0,0,0,0,0,0,0,0,0,0,0,0,
284,-5.022,5.248,10.42,73.62,10.88,76.84,15.7,-6.924,44.06,68.56,27.48,18.56,35.37,59.33,51.72,22.31,0,0,0,0,0,0,0,0,0,0,0,0,0,0,0,0,
285,-23.68,4.376,-9.026,116.4,12.29,87.39,8.387,23.07,41.29,85.15,25.59,23.73,38.34,65.39,58.97,23.56,0,0,0,0,0,0,0,0,0,0,0,0,0,0,0,0,
286,-12.16,14.65,15.79,122.3,22.91,94.61,-2.672,30.96,54.48,97.42,35.86,28.52,36.51,67.58,55.75,20.46,0,0,0,0,0,0,0,0,0,0,0,0,0,0,0,0,
287,7.348,13.48,26.54,90.12,9.104,85.59,-16.93,7.814,59.07,86.31,31.04,26.07,25.62,59.05,45.5,16.12,0,0,0,0,0,0,0,0,0,0,0,0,0,0,0,0,
288,2.35,-0.6377,1.666,70.58,-22.25,67.87,-31.69,-11.57,41.42,53.11,15.99,20.36,16.82,48.29,37.64,13.37,0,0,0,0,0,0,0,0,0,0,0,0,0,0,0,0,
289,-26.91,-11.97,-26.76,33.32,-43.83,45.86,-51.8,-23.31,21.94,27.79,1.703,8.439,2.546,35.36,22.66,-1.409,0,0,0,0,0,0,0,0,0,0,0,0,0,0,0,0,
290,-55.8,-22.41,-45.34,-42.74,-64.03,26.04,-70.94,-24.58,6.917,20.54,-13.3,-0.3917,-21.96,23.66,6.602,-15.38,0,0,0,0,0,0,0,0,0,0,0,0,0,0,0,0,
291,-61.06,-39.03,-36.37,-47.46,-79.6,20.74,-70.92,-11.01,-6.463,19.42,-19.62,-0.5387,-38.84,19.4,3.617,-13.0,0,0,0,0,0,0,0,0,0,0,0,0,0,0,0,0,
292,-55.65,-52.35,-16.13,23.49,-72.37,18.02,-56.94,-4.783,-14.81,12.06,-14.39,-3.075,-44.3,15.41,9.504,-7.558,0,0,0,0,0,0,0,0,0,0,0,0,0,0,0,0,
293,-60.36,-53.95,-23.38,34.21,-60.21,-0.4153,-44.14,-7.755,-19.57,-1.165,-6.902,-4.14,-43.94,11.74,20.44,-1.222,0,0,0,0,0,0,0,0,0,0,0,0,0,0,0,0,
294,-67.82,-53.61,-31.8,-10.26,-68.48,-20.9,-30.19,-11.72,-19.36,-11.83,0.2067,-2.713,-34.3,10.74,32.93,6.16,0,0,0,0,0,0,0,0,0,0,0,0,0,0,0,0,
295,-68.04,-55.08,-18.64,-30.46,-83.0,-21.79,-13.52,-27.07,-13.21,-20.55,5.355,-6.839,-18.48,7.683,40.06,6.88,0,0,0,0,0,0,0,0,0,0,0,0,0,0,0,0,
296,-64.89,-52.38,-13.53,-60.51,-81.6,-12.62,-2.185,-37.62,-10.52,-25.18,2.705,-3.83,-8.687,9.37,45.38,12.89,0,0,0,0,0,0,0,0,0,0,0,0,0,0,0,0,
297,-66.05,-51.35,-19.03,-105.7,-76.69,-12.17,-4.101,-28.84,-18.01,-19.33,-8.287,9.264,-13.31,19.19,50.96,24.65,0,0,0,0,0,0,0,0,0,0,0,0,0,0,0,0,
298,-71.3,-56.31,-20.14,-102.0,-81.07,-10.01,-16.87,-27.33,-26.78,-9.37,-13.24,14.71,-18.97,28.86,54.56,26.07,0,0,0,0,0,0,0,0,0,0,0,0,0,0,0,0,
299,-71.02,-60.63,-21.23,-78.9,-78.71,6.117,-18.58,-34.24,-21.91,-0.8806,3.441,14.01,-2.631,36.53,61.06,29.37,0,0,0,0,0,0,0,0,0,0,0,0,0,0,0,0,
300,-60.85,-56.73,-21.18,-85.58,-65.94,21.47,-0.466,-28.45,-6.538,8.697,24.82,17.28,21.41,40.01,66.53,42.57,0,0,0,0,0,0,0,0,0,0,0,0,0,0,0,0,
301,-45.35,-38.54,-24.03,-83.38,-58.96,25.16,7.669,-24.82,-0.1279,17.66,18.86,21.85,21.01,37.74,60.01,43.75,0,0,0,0,0,0,0,0,0,0,0,0,0,0,0,0,
302,-34.41,-17.32,-32.51,-69.59,-55.86,23.28,-5.076,-25.31,-7.536,23.02,-1.555,28.38,9.209,38.77,52.52,35.76,0,0,0,0,0,0,0,0,0,0,0,0,0,0,0,0,
303,-34.0,-15.95,-26.05,-86.54,-49.16,22.6,-8.82,-9.841,-14.05,26.38,-2.487,37.14,12.42,46.21,56.39,39.79,0,0,0,0,0,0,0,0,0,0,0,0,0,0,0,0,
304,-38.42,-33.87,-11.35,-111.4,-54.42,20.49,-3.247,-6.777,-17.23,27.01,0.0853,34.84,9.381,48.14,54.0,43.8,0,0,0,0,0,0,0,0,0,0,0,0,0,0,0,0,
305,-49.42,-52.95,-19.35,-118.4,-74.7,8.772,-11.3,-34.15,-29.2,18.6,-16.07,21.43,-15.17,36.79,38.39,36.74,0,0,0,0,0,0,0,0,0,0,0,0,0,0,0,0,
306,-65.37,-59.1,-31.54,-134.5,-75.19,0.6368,-20.0,-40.42,-38.86,5.879,-28.33,16.25,-27.83,20.86,29.92,30.69,0,0,0,0,0,0,0,0,0,0,0,0,0,0,0,0,
307,-60.01,-46.63,-17.36,-162.7,-50.63,8.666,-18.69,-17.79,-33.39,1.137,-32.32,13.09,-24.0,9.447,27.41,18.97,0,0,0,0,0,0,0,0,0,0,0,0,0,0,0,0,
308,-32.39,-31.82,-5.044,-163.0,-42.81,7.068,-21.63,-21.46,-35.07,-0.2817,-40.37,-1.46,-31.69,3.405,17.95,-0.8246,0,0,0,0,0,0,0,0,0,0,0,0,0,0,0,0,
309,-24.63,-31.93,-27.81,-135.0,-53.48,-7.167,-26.21,-44.41,-44.3,-2.64,-35.37,-6.055,-39.37,5.6,10.31,-6.127,0,0,0,0,0,0,0,0,0,0,0,0,0,0,0,0,
310,-46.72,-34.45,-56.05,-141.1,-54.33,3.793,-24.16,-44.74,-31.99,1.99,-22.08,4.203,-33.12,14.97,12.63,0.6802,0,0,0,0,0,0,0,0,0,0,0,0,0,0,0,0,
311,-54.92,-39.83,-39.23,-178.7,-52.34,28.2,-16.98,-35.83,-9.291,13.11,-20.25,7.156,-26.52,22.2,21.15,4.181,0,0,0,0,0,0,0,0,0,0,0,0,0,0,0,0,
312,-36.99,-62.27,6.284,-161.6,-54.43,19.54,-8.979,-41.89,-1.085,24.8,-19.46,3.498,-28.29,16.27,20.83,1.605,0,0,0,0,0,0,0,0,0,0,0,0,0,0,0,0,
313,-34.99,-63.56,17.46,-110.9,-53.14,-6.9,-9.968,-58.32,-7.369,22.14,-21.3,-6.518,-47.62,-8.135,0.7872,-17.03,0,0,0,0,0,0,0,0,0,0,0,0,0,0,0,0,
314,-48.88,-22.14,-3.343,-116.9,-54.25,-7.826,-10.16,-69.8,-22.18,-4.657,-26.29,-23.58,-66.66,-31.65,-11.52,-37.27,0,0,0,0,0,0,0,0,0,0,0,0,0,0,0,0,
315,-41.26,-2.916,-8.83,-156.1,-52.49,0.7047,3.69,-65.88,-26.12,-24.8,-16.52,-26.89,-54.09,-32.39,0.1536,-31.44,0,0,0,0,0,0,0,0,0,0,0,0,0,0,0,0,
316,-31.2,-26.6,-9.265,-189.6,-38.23,-9.416,14.11,-62.03,-11.63,-19.35,-10.93,-21.56,-41.59,-25.27,1.714,-22.16,0,0,0,0,0,0,0,0,0,0,0,0,0,0,0,0,
317,-40.2,-38.91,-25.64,-216.3,-29.28,-9.293,18.08,-69.28,-4.11,-15.59,-23.62,-23.43,-56.18,-23.94,-15.07,-32.39,0,0,0,0,0,0,0,0,0,0,0,0,0,0,0,0,
318,-41.24,-37.89,-26.75,-191.8,-37.27,16.63,22.37,-70.74,-9.031,-18.02,-28.29,-19.37,-64.67,-17.91,-24.82,-44.86,0,0,0,0,0,0,0,0,0,0,0,0,0,0,0,0,
319,-36.04,-41.95,3.506,-141.0,-41.71,32.62,7.168,-72.74,-10.96,-7.887,-26.64,-14.02,-59.9,-11.19,-27.93,-50.92,0,0,0,0,0,0,0,0,0,0,0,0,0,0,0,0,
320,-39.92,-34.26,34.56,-132.7,-29.12,32.85,-14.74,-80.72,-8.244,7.14,-27.99,-15.47,-51.24,-8.799,-23.1,-42.58,0,0,0,0,0,0,0,0,0,0,0,0,0,0,0,0,
321,-29.55,-20.19,48.93,-117.5,-8.449,36.35,-0.4465,-59.54,2.283,14.28,-5.502,0.7652,-22.37,4.243,6.832,-7.452,0,0,0,0,0,0,0,0,0,0,0,0,0,0,0,0,
322,8.444,-2.154,63.76,-76.32,24.92,38.22,46.72,-14.97,28.4,17.76,47.53,34.99,23.14,33.97,58.03,38.88,0,0,0,0,0,0,0,0,0,0,0,0,0,0,0,0,
323,56.67,36.58,92.38,-73.07,76.55,56.41,96.1,9.925,72.4,33.8,102.7,64.41,68.26,72.88,111.5,82.78,0,0,0,0,0,0,0,0,0,0,0,0,0,0,0,0,
324,87.09,70.55,121.2,-61.14,113.1,109.4,122.0,22.01,121.1,71.23,129.0,84.49,95.1,100.1,140.4,114.6,0,0,0,0,0,0,0,0,0,0,0,0,0,0,0,0,
325,75.59,65.29,111.9,-12.24,102.3,139.7,98.18,28.07,133.9,97.5,102.6,82.82,77.13,86.09,120.6,105.9,0,0,0,0,0,0,0,0,0,0,0,0,0,0,0,0,
326,31.92,28.89,42.26,-26.1,57.84,101.5,36.87,6.626,94.62,78.12,41.68,55.78,30.6,45.27,72.74,65.79,0,0,0,0,0,0,0,0,0,0,0,0,0,0,0,0,
327,-11.44,-12.7,-24.54,-91.56,12.75,50.37,-10.7,-18.75,46.82,41.66,2.78,31.93,-2.462,23.77,40.34,36.05,0,0,0,0,0,0,0,0,0,0,0,0,0,0,0,0,
328,-35.77,-38.84,-19.49,-115.6,-11.76,40.72,-27.94,-19.63,21.51,28.05,-0.716,20.03,-20.36,23.26,31.12,17.02,0,0,0,0,0,0,0,0,0,0,0,0,0,0,0,0,
329,-39.16,-44.36,-0.9779,-115.5,-14.66,56.92,-37.33,-18.08,7.997,29.91,2.728,11.93,-25.9,23.29,29.07,-1.698,0,0,0,0,0,0,0,0,0,0,0,0,0,0,0,0,
330,-33.67,-36.72,-22.33,-116.5,-8.478,71.78,-41.97,-21.65,10.06,35.05,6.955,13.84,-12.62,25.37,23.47,-9.029,0,0,0,0,0,0,0,0,0,0,0,0,0,0,0,0,
331,-32.7,-27.2,-27.5,-102.7,-3.595,73.71,-33.72,-13.63,26.87,41.37,11.88,18.29,-4.679,25.33,12.03,-8.963,0,0,0,0,0,0,0,0,0,0,0,0,0,0,0,0,
332,-35.03,-24.46,-12.84,-76.04,-7.069,65.79,-25.0,-1.728,26.9,37.52,9.235,17.25,-12.71,20.43,7.841,-5.272,0,0,0,0,0,0,0,0,0,0,0,0,0,0,0,0,
333,-43.4,-27.12,-26.01,-50.0,-19.91,61.07,-27.04,-0.0968,10.4,30.94,8.368,21.49,-12.1,24.11,19.99,7.098,0,0,0,0,0,0,0,0,0,0,0,0,0,0,0,0,
334,-63.35,-40.84,-40.62,-78.98,-31.11,55.06,-30.14,-7.195,4.948,38.74,15.77,25.49,-1.075,36.69,34.16,12.35,0,0,0,0,0,0,0,0,0,0,0,0,0,0,0,0,
335,-72.67,-57.57,-34.3,-139.7,-33.07,48.18,-19.68,-14.43,7.525,49.01,24.26,23.4,6.594,48.3,38.36,3.921,0,0,0,0,0,0,0,0,0,0,0,0,0,0,0,0,
336,-52.12,-40.96,-23.86,-107.5,-26.5,57.2,0.4812,-14.43,12.47,47.71,32.27,26.47,13.8,49.09,35.47,-2.027,0,0,0,0,0,0,0,0,0,0,0,0,0,0,0,0,
337,-24.68,-11.06,-0.8084,-37.53,-3.296,69.47,11.88,-11.3,30.45,45.72,37.34,26.97,20.05,33.18,30.11,-8.359,0,0,0,0,0,0,0,0,0,0,0,0,0,0,0,0,
338,-12.59,-13.1,23.75,-42.15,32.18,73.48,11.18,-11.61,55.68,54.4,38.0,16.02,17.87,17.51,23.0,-25.35,0,0,0,0,0,0,0,0,0,0,0,0,0,0,0,0,
339,-9.887,-5.947,18.2,-28.55,41.59,91.25,5.595,-10.75,69.99,62.68,38.68,6.905,8.096,13.74,15.33,-38.4,0,0,0,0,0,0,0,0,0,0,0,0,0,0,0,0,
340,-6.135,32.76,3.432,14.61,17.95,114.7,-2.891,-3.039,66.31,57.8,38.32,4.475,2.866,12.64,18.78,-31.76,0,0,0,0,0,0,0,0,0,0,0,0,0,0,0,0,
341,6.181,41.68,7.261,-15.51,10.78,116.7,-4.146,6.498,60.81,56.37,34.37,5.399,9.194,16.73,31.88,-19.01,0,0,0,0,0,0,0,0,0,0,0,0,0,0,0,0,
342,15.5,20.72,11.43,-35.97,34.62,109.2,2.028,6.638,71.72,67.79,27.03,11.75,11.6,25.74,28.52,-18.56,0,0,0,0,0,0,0,0,0,0,0,0,0,0,0,0,
343,5.298,20.9,7.739,13.6,56.83,104.1,-1.405,1.208,84.05,71.43,18.47,21.46,4.512,31.07,14.42,-15.83,0,0,0,0,0,0,0,0,0,0,0,0,0,0,0,0,
344,-1.431,29.81,1.706,20.75,65.06,102.5,-8.448,7.307,82.79,72.63,11.27,32.18,4.302,38.04,18.3,2.269,0,0,0,0,0,0,0,0,0,0,0,0,0,0,0,0,
345,8.345,23.85,-20.31,-17.87,61.77,116.1,-5.726,20.3,82.21,85.11,6.47,42.05,8.899,41.48,28.48,12.27,0,0,0,0,0,0,0,0,0,0,0,0,0,0,0,0,
346,3.176,16.92,-36.41,-12.43,54.57,119.5,-1.838,18.64,84.3,83.76,11.08,42.22,10.74,32.49,30.48,4.566,0,0,0,0,0,0,0,0,0,0,0,0,0,0,0,0,
347,-17.87,14.08,-11.8,20.14,59.38,91.26,1.042,5.824,79.06,64.4,22.37,29.4,16.95,25.56,35.97,-1.554,0,0,0,0,0,0,0,0,0,0,0,0,0,0,0,0,
348,-21.2,11.28,14.81,24.32,72.36,79.25,5.428,6.292,77.6,57.53,22.84,18.31,23.41,26.98,39.18,-6.031,0,0,0,0,0,0,0,0,0,0,0,0,0,0,0,0,
349,-3.561,8.535,7.274,4.008,78.31,88.44,2.445,15.38,85.31,60.94,16.18,20.29,21.6,27.32,33.27,-18.81,0,0,0,0,0,0,0,0,0,0,0,0,0,0,0,0,
350,10.18,-3.98,-3.532,2.728,68.73,70.18,-3.424,7.59,81.34,52.09,15.27,22.43,12.11,24.66,29.67,-32.18,0,0,0,0,0,0,0,0,0,0,0,0,0,0,0,0,
351,4.786,-18.67,1.711,22.97,45.31,55.59,0.5421,0.0678,55.61,34.8,14.45,16.33,-1.792,19.01,26.19,-39.9,0,0,0,0,0,0,0,0,0,0,0,0,0,0,0,0,
352,-8.757,-11.59,1.621,1.441,29.45,72.3,6.488,11.54,27.28,23.94,13.31,14.63,-7.942,11.72,22.94,-45.11,0,0,0,0,0,0,0,0,0,0,0,0,0,0,0,0,
353,-16.82,-0.2734,-20.15,-44.74,33.95,67.64,6.531,9.267,18.82,21.08,21.67,21.02,4.404,10.79,37.14,-43.52,0,0,0,0,0,0,0,0,0,0,0,0,0,0,0,0,
354,-14.89,-2.807,-25.59,-27.85,50.39,45.09,16.39,2.731,38.16,26.92,44.1,30.19,27.54,23.44,61.87,-28.69,0,0,0,0,0,0,0,0,0,0,0,0,0,0,0,0,
355,9.367,7.806,27.53,12.93,71.21,51.09,41.05,34.16,70.58,44.84,71.26,40.37,42.86,47.0,72.75,-10.32,0,0,0,0,0,0,0,0,0,0,0,0,0,0,0,0,
356,37.69,22.58,67.97,20.02,79.28,73.24,54.98,63.78,85.66,61.65,78.21,45.97,41.98,65.86,73.98,1.039,0,0,0,0,0,0,0,0,0,0,0,0,0,0,0,0,
357,32.34,21.14,30.93,41.54,65.09,90.2,49.47,59.05,78.88,65.43,62.95,47.59,36.67,67.16,77.76,8.394,0,0,0,0,0,0,0,0,0,0,0,0,0,0,0,0,
358,17.12,35.69,0.7744,46.49,49.54,93.07,46.09,63.33,70.92,65.95,52.15,46.78,31.77,54.21,72.49,3.497,0,0,0,0,0,0,0,0,0,0,0,0,0,0,0,0,
359,15.86,40.32,17.78,-3.915,39.6,79.07,45.22,79.15,62.42,62.76,44.32,40.55,17.48,42.06,54.43,-20.05,0,0,0,0,0,0,0,0,0,0,0,0,0,0,0,0,
360,3.18,-8.162,4.663,-5.992,26.92,74.15,29.5,78.71,49.56,47.47,21.41,43.18,4.447,46.2,40.63,-34.91,0,0,0,0,0,0,0,0,0,0,0,0,0,0,0,0,
361,-6.564,-27.0,-30.1,45.92,22.31,81.67,11.65,78.84,49.05,40.39,0.9812,60.01,9.107,63.74,37.96,-24.84,0,0,0,0,0,0,0,0,0,0,0,0,0,0,0,0,
362,1.806,21.48,-25.45,46.92,23.96,76.96,11.5,82.45,63.36,57.07,4.848,66.79,16.52,75.68,43.06,-10.13,0,0,0,0,0,0,0,0,0,0,0,0,0,0,0,0,
363,-1.522,38.7,-11.51,21.42,20.65,67.27,19.83,66.01,71.55,69.61,20.12,55.58,13.22,73.18,55.38,-1.837,0,0,0,0,0,0,0,0,0,0,0,0,0,0,0,0,
364,3.246,18.36,-12.08,21.7,32.61,72.61,28.93,44.31,71.15,60.41,32.09,40.63,20.06,64.29,72.22,2.438,0,0,0,0,0,0,0,0,0,0,0,0,0,0,0,0,
365,30.8,34.09,5.558,34.31,58.88,85.95,41.12,47.79,81.26,57.37,42.44,33.29,47.31,63.13,90.57,2.622,0,0,0,0,0,0,0,0,0,0,0,0,0,0,0,0,
366,29.16,52.43,27.89,50.71,60.79,82.14,42.53,58.47,95.63,66.18,49.77,42.59,67.39,74.03,105.4,7.157,0,0,0,0,0,0,0,0,0,0,0,0,0,0,0,0,
367,9.419,27.6,25.12,27.4,47.92,62.01,25.72,42.11,92.31,56.97,54.81,59.16,70.2,84.58,109.6,18.37,0,0,0,0,0,0,0,0,0,0,0,0,0,0,0,0,
368,15.16,0.8857,11.98,-26.89,47.75,55.59,3.659,15.05,82.38,41.65,59.05,63.48,71.42,85.7,103.2,24.3,0,0,0,0,0,0,0,0,0,0,0,0,0,0,0,0,
369,9.287,-4.771,-8.083,-3.619,39.0,49.98,-14.05,8.49,77.27,46.58,51.71,61.42,60.48,79.88,87.06,20.09,0,0,0,0,0,0,0,0,0,0,0,0,0,0,0,0,
370,-21.07,-9.079,-26.09,68.66,23.26,19.27,-18.39,13.24,63.2,46.2,34.53,62.1,33.05,67.7,65.82,10.43,0,0,0,0,0,0,0,0,0,0,0,0,0,0,0,0,
371,-31.28,-16.49,-11.17,73.93,21.14,-3.174,-10.49,9.861,48.64,24.17,24.45,53.33,18.19,49.22,54.96,3.954,0,0,0,0,0,0,0,0,0,0,0,0,0,0,0,0,
372,-26.02,-25.52,5.124,67.58,9.101,-3.042,-13.41,-0.9864,45.54,4.823,20.66,30.96,16.53,28.4,54.82,3.73,0,0,0,0,0,0,0,0,0,0,0,0,0,0,0,0,
373,-27.69,-30.52,-15.34,114.2,-5.661,-2.306,-27.65,-7.132,38.42,-1.33,16.17,13.38,12.99,17.42,55.41,3.084,0,0,0,0,0,0,0,0,0,0,0,0,0,0,0,0,
374,-22.99,-19.26,-25.1,145.4,13.8,15.66,-26.12,-2.873,37.79,11.08,16.86,18.5,22.51,33.19,65.56,7.224,0,0,0,0,0,0,0,0,0,0,0,0,0,0,0,0,
375,-5.716,-1.278,5.441,157.4,39.6,50.37,-10.4,4.172,66.12,46.88,19.54,36.31,38.44,59.14,78.89,15.27,0,0,0,0,0,0,0,0,0,0,0,0,0,0,0,0,
376,11.19,6.159,30.02,179.4,39.72,60.77,-6.728,12.82,88.95,69.6,12.57,37.16,29.58,52.62,68.66,1.358,0,0,0,0,0,0,0,0,0,0,0,0,0,0,0,0,
377,14.64,4.488,20.41,164.6,38.1,45.87,-16.67,15.03,73.61,49.1,2.346,19.85,7.889,19.62,47.07,-24.76,0,0,0,0,0,0,0,0,0,0,0,0,0,0,0,0,
378,4.531,1.163,-0.9036,136.7,44.35,33.4,-24.63,-8.687,57.07,17.96,-4.044,10.01,0.487,2.326,38.86,-24.05,0,0,0,0,0,0,0,0,0,0,0,0,0,0,0,0,
379,-4.163,-0.331,-10.14,145.9,38.67,33.52,-34.36,-27.58,62.44,8.605,-16.06,9.746,4.309,4.242,36.23,-9.319,0,0,0,0,0,0,0,0,0,0,0,0,0,0,0,0,
380,-3.239,4.209,-0.9054,158.4,28.83,44.05,-45.73,-0.3408,64.07,12.33,-22.13,10.05,22.73,12.87,41.89,-6.167,0,0,0,0,0,0,0,0,0,0,0,0,0,0,0,0,
381,5.442,17.77,21.54,168.1,42.0,57.44,-36.87,30.1,73.4,24.08,-3.581,19.77,57.69,33.09,63.43,4.458,0,0,0,0,0,0,0,0,0,0,0,0,0,0,0,0,
382,11.96,24.43,29.25,163.6,62.76,61.74,-18.55,19.62,104.2,42.05,14.94,37.47,75.91,52.31,78.95,30.8,0,0,0,0,0,0,0,0,0,0,0,0,0,0,0,0,
383,0.5317,5.811,7.016,114.9,55.46,41.42,-21.84,2.061,110.8,46.05,14.74,46.62,62.37,51.51,80.79,50.43,0,0,0,0,0,0,0,0,0,0,0,0,0,0,0,0,
384,-12.86,-12.23,-3.286,102.8,38.08,7.581,-25.79,-2.664,83.44,27.58,17.84,46.37,47.33,39.14,83.95,52.82,0,0,0,0,0,0,0,0,0,0,0,0,0,0,0,0,
385,1.775,-6.175,22.93,146.8,42.49,2.587,-0.1746,-12.87,70.21,4.334,32.62,45.54,53.38,31.08,89.37,43.78,0,0,0,0,0,0,0,0,0,0,0,0,0,0,0,0,
386,24.33,0.226,45.22,139.3,54.33,26.77,31.33,-19.35,83.39,-2.464,46.91,40.32,70.91,31.64,90.49,30.48,0,0,0,0,0,0,0,0,0,0,0,0,0,0,0,0,
387,22.47,3.555,39.64,115.8,54.21,40.39,38.91,-14.54,97.92,8.228,51.03,27.28,72.32,34.25,83.73,18.43,0,0,0,0,0,0,0,0,0,0,0,0,0,0,0,0,
388,7.325,6.933,26.91,148.7,43.75,34.44,28.56,-20.3,91.44,16.75,42.09,23.17,50.18,29.76,72.57,13.71,0,0,0,0,0,0,0,0,0,0,0,0,0,0,0,0,
389,-7.162,-13.66,20.72,146.6,29.28,15.8,18.05,-38.48,65.33,13.99,31.59,35.59,32.7,23.44,66.88,16.98,0,0,0,0,0,0,0,0,0,0,0,0,0,0,0,0,
390,-22.44,-31.47,6.582,84.94,20.1,-4.831,13.72,-47.36,48.21,8.039,27.74,43.05,30.94,27.73,68.08,20.86,0,0,0,0,0,0,0,0,0,0,0,0,0,0,0,0,
391,-31.78,-31.47,-20.49,66.79,19.6,-3.552,8.481,-43.2,50.27,4.364,27.35,38.38,29.46,37.04,72.19,25.33,0,0,0,0,0,0,0,0,0,0,0,0,0,0,0,0,
392,-36.88,-65.3,-27.74,103.2,18.55,5.359,-6.479,-39.96,50.27,4.766,25.18,34.36,27.0,32.4,71.89,29.52,0,0,0,0,0,0,0,0,0,0,0,0,0,0,0,0,
393,-41.41,-89.53,-13.99,136.2,9.947,-4.713,-23.53,-36.2,35.01,7.919,15.96,30.99,25.97,20.03,62.68,22.5,0,0,0,0,0,0,0,0,0,0,0,0,0,0,0,0,
394,-33.38,-36.66,-20.89,145.3,1.655,-4.137,-29.66,-17.39,17.49,13.77,6.279,28.98,20.95,25.6,52.87,7.426,0,0,0,0,0,0,0,0,0,0,0,0,0,0,0,0,
395,-23.8,3.599,-34.88,125.3,-2.288,20.79,-35.09,8.796,13.71,23.02,-3.724,27.44,9.643,36.28,39.63,-5.455,0,0,0,0,0,0,0,0,0,0,0,0,0,0,0,0,
396,-29.54,-17.87,-23.61,99.77,-11.14,29.97,-44.7,28.51,10.33,29.89,-15.79,17.07,-1.94,27.11,21.73,-13.96,0,0,0,0,0,0,0,0,0,0,0,0,0,0,0,0,
397,-26.61,-19.43,-7.504,105.3,-9.627,25.52,-34.75,40.7,-0.9722,37.58,-4.309,8.809,1.756,18.97,20.68,-11.83,0,0,0,0,0,0,0,0,0,0,0,0,0,0,0,0,
398,-5.183,3.272,6.477,138.8,20.84,41.01,-12.09,28.84,1.166,45.94,20.31,9.323,16.22,24.9,30.82,-3.557,0,0,0,0,0,0,0,0,0,0,0,0,0,0,0,0,
399,12.96,13.01,25.88,177.4,45.81,56.81,-10.53,2.179,10.2,40.8,16.2,5.196,17.95,26.13,30.87,-1.246,0,0,0,0,0,0,0,0,0,0,0,0,0,0,0,0,
400,27.54,22.74,24.76,183.6,39.54,48.76,-21.37,12.41,7.275,34.67,4.518,5.674,11.76,26.59,35.92,2.319,0,0,0,0,0,0,0,0,0,0,0,0,0,0,0,0,
401,33.24,21.12,3.904,139.0,32.34,40.17,-24.95,45.39,6.819,45.21,10.3,15.37,15.22,33.1,48.63,6.67,0,0,0,0,0,0,0,0,0,0,0,0,0,0,0,0,
402,11.27,10.25,-1.079,96.91,38.5,35.27,-28.5,43.62,7.002,50.71,10.76,8.792,24.32,28.82,43.25,-4.334,0,0,0,0,0,0,0,0,0,0,0,0,0,0,0,0,
403,-18.68,4.059,6.587,85.42,42.03,9.632,-30.71,30.23,-6.318,34.79,7.214,-8.199,29.7,12.63,28.0,-18.95,0,0,0,0,0,0,0,0,0,0,0,0,0,0,0,0,
404,-23.08,-23.62,10.6,71.62,41.62,-19.05,-25.5,41.39,-15.26,14.26,10.2,-7.26,28.07,4.297,30.51,-12.83,0,0,0,0,0,0,0,0,0,0,0,0,0,0,0,0,
405,-3.68,-40.35,20.69,64.29,39.07,-23.51,-17.42,42.63,-10.98,4.162,13.97,4.34,24.39,13.26,47.21,5.157,0,0,0,0,0,0,0,0,0,0,0,0,0,0,0,0,
406,11.57,-6.452,27.88,84.91,30.09,-27.79,-11.15,21.97,-6.853,-0.5956,23.13,13.79,26.73,29.08,55.99,14.27,0,0,0,0,0,0,0,0,0,0,0,0,0,0,0,0,
407,2.689,8.311,15.19,97.71,13.92,-51.06,-18.07,19.89,-5.835,-6.465,19.92,25.14,26.98,34.59,48.37,17.1,0,0,0,0,0,0,0,0,0,0,0,0,0,0,0,0,
408,-23.24,-29.59,-11.51,64.07,-11.59,-74.11,-40.33,32.01,-11.52,-7.016,-10.63,30.26,16.06,25.61,38.02,21.27,0,0,0,0,0,0,0,0,0,0,0,0,0,0,0,0,
409,-51.68,-58.38,-52.35,22.49,-32.32,-81.52,-56.81,21.83,-24.6,-7.931,-27.35,25.3,7.273,13.49,40.32,21.29,0,0,0,0,0,0,0,0,0,0,0,0,0,0,0,0,
410,-70.37,-58.77,-83.58,38.15,-26.61,-73.89,-62.42,5.52,-29.52,-21.67,-18.56,20.98,6.303,7.614,44.65,14.7,0,0,0,0,0,0,0,0,0,0,0,0,0,0,0,0,
411,-65.54,-54.98,-61.61,50.31,-13.99,-68.06,-75.05,5.453,-27.75,-30.87,-29.52,14.08,-4.031,5.681,34.44,8.254,0,0,0,0,0,0,0,0,0,0,0,0,0,0,0,0,
412,-44.86,-49.39,-21.04,-6.432,-13.22,-67.84,-93.31,0.867,-32.38,-19.56,-55.66,2.619,-19.22,5.699,21.71,5.31,0,0,0,0,0,0,0,0,0,0,0,0,0,0,0,0,
413,-32.39,-43.1,-29.44,-13.36,-1.081,-49.88,-102.3,-10.57,-33.69,-5.533,-62.24,-6.302,-21.05,4.929,18.52,1.373,0,0,0,0,0,0,0,0,0,0,0,0,0,0,0,0,
414,-41.23,-51.62,-71.03,66.91,6.843,-34.87,-104.2,-14.14,-33.19,-9.39,-59.79,-16.8,-20.93,-6.5,16.84,-1.004,0,0,0,0,0,0,0,0,0,0,0,0,0,0,0,0,
415,-62.65,-68.52,-81.08,93.17,-19.15,-48.26,-100.4,-13.89,-42.99,-24.02,-54.68,-20.01,-19.17,-16.92,19.04,10.28,0,0,0,0,0,0,0,0,0,0,0,0,0,0,0,0,
416,-69.31,-61.45,-47.6,63.7,-29.26,-44.8,-85.26,-5.871,-39.13,-20.29,-42.94,-6.476,2.423,-6.429,25.62,23.67,0,0,0,0,0,0,0,0,0,0,0,0,0,0,0,0,
417,-59.37,-38.78,-30.93,49.33,-0.2384,-20.44,-70.34,5.794,-13.51,4.421,-43.96,-0.1443,24.88,7.326,25.38,17.71,0,0,0,0,0,0,0,0,0,0,0,0,0,0,0,0,
418,-54.14,-36.86,-45.16,22.29,12.64,-18.23,-65.66,3.507,2.326,19.73,-48.1,-5.986,31.78,10.5,26.36,8.456,0,0,0,0,0,0,0,0,0,0,0,0,0,0,0,0,
419,-41.43,-39.96,-24.49,15.78,8.773,-14.09,-60.57,-4.38,6.85,21.71,-37.95,-4.599,36.92,17.7,30.87,11.82,0,0,0,0,0,0,0,0,0,0,0,0,0,0,0,0,
420,-17.41,-27.53,13.78,58.93,21.43,1.227,-50.9,-6.793,10.31,24.07,-37.54,-2.55,38.61,25.09,27.38,18.45,0,0,0,0,0,0,0,0,0,0,0,0,0,0,0,0,
421,-12.25,-22.29,10.15,64.25,30.45,-8.597,-40.66,-2.257,6.33,24.81,-42.93,-0.0964,39.48,28.17,29.06,32.47,0,0,0,0,0,0,0,0,0,0,0,0,0,0,0,0,
422,-17.83,-26.19,11.26,34.33,25.22,-23.99,-25.27,7.338,9.5,28.15,-29.27,12.29,52.67,39.85,36.65,47.89,0,0,0,0,0,0,0,0,0,0,0,0,0,0,0,0,
423,-15.9,-25.7,29.53,47.77,25.76,-19.21,-6.777,-0.4262,26.22,35.59,-16.57,19.53,66.26,52.03,28.25,46.6,0,0,0,0,0,0,0,0,0,0,0,0,0,0,0,0,
424,-23.86,-24.68,11.39,60.26,37.07,-6.209,3.121,-15.49,35.96,35.34,-16.77,21.08,72.75,53.71,21.0,47.07,0,0,0,0,0,0,0,0,0,0,0,0,0,0,0,0,
425,-26.3,-11.38,2.179,33.16,55.91,10.89,5.882,5.886,36.74,30.43,-14.45,31.24,80.42,57.44,38.57,61.45,0,0,0,0,0,0,0,0,0,0,0,0,0,0,0,0,
426,3.691,3.84,36.35,35.66,72.21,18.24,6.933,42.3,36.14,32.99,-18.33,37.86,83.41,64.05,55.53,66.04,0,0,0,0,0,0,0,0,0,0,0,0,0,0,0,0,
427,28.0,-18.89,47.4,64.47,73.43,11.42,-3.509,46.28,28.57,38.76,-39.31,28.1,70.82,54.16,43.24,53.07,0,0,0,0,0,0,0,0,0,0,0,0,0,0,0,0,
428,18.69,-33.27,33.6,59.78,67.75,15.78,-19.11,33.49,12.5,33.31,-57.59,8.741,47.72,27.37,15.8,33.35,0,0,0,0,0,0,0,0,0,0,0,0,0,0,0,0,
429,11.63,20.92,39.25,39.3,63.62,24.65,-16.59,26.66,-1.287,18.04,-55.37,-6.843,36.16,8.492,5.609,18.6,0,0,0,0,0,0,0,0,0,0,0,0,0,0,0,0,
430,20.08,58.91,40.07,-3.743,53.43,17.91,-10.72,16.68,-3.028,8.562,-42.67,-8.226,46.31,8.437,18.43,20.37,0,0,0,0,0,0,0,0,0,0,0,0,0,0,0,0,
431,17.67,19.63,26.05,-79.26,41.16,10.17,-19.62,7.244,-1.106,7.619,-27.38,-0.2157,60.65,17.17,35.41,31.62,0,0,0,0,0,0,0,0,0,0,0,0,0,0,0,0,
432,4.291,-4.376,29.15,-86.6,45.2,14.35,-16.68,8.466,-2.778,15.14,-4.86,11.68,68.51,29.67,47.73,38.01,0,0,0,0,0,0,0,0,0,0,0,0,0,0,0,0,
433,-1.203,16.3,44.56,-19.43,60.67,28.81,-0.2004,8.275,2.606,36.54,7.423,28.04,70.06,39.77,50.88,36.07,0,0,0,0,0,0,0,0,0,0,0,0,0,0,0,0,
434,-0.7606,9.941,46.08,-17.08,56.85,40.85,0.6167,0.5423,7.853,54.53,-2.265,34.15,59.94,38.11,38.16,26.14,0,0,0,0,0,0,0,0,0,0,0,0,0,0,0,0,
435,-6.151,-16.63,25.33,-70.57,32.0,24.24,-3.89,1.477,-2.594,50.89,-5.708,24.11,47.65,30.77,25.5,18.51,0,0,0,0,0,0,0,0,0,0,0,0,0,0,0,0,
436,-13.76,-22.22,-1.865,-58.58,17.29,-12.34,1.05,9.992,-12.63,39.42,2.529,14.75,47.59,22.48,28.53,20.12,0,0,0,0,0,0,0,0,0,0,0,0,0,0,0,0,
437,-21.07,-24.0,-9.307,-25.93,11.76,-32.14,2.995,7.816,-14.2,27.21,-3.065,6.008,54.37,7.079,33.37,19.15,0,0,0,0,0,0,0,0,0,0,0,0,0,0,0,0,
438,-40.37,-35.35,-4.511,-78.86,-1.821,-37.95,5.82,1.718,-23.22,4.524,-11.88,-9.785,59.7,-6.909,32.07,15.61,0,0,0,0,0,0,0,0,0,0,0,0,0,0,0,0,
439,-57.29,-41.95,-6.821,-129.3,-4.215,-49.44,15.74,0.8263,-30.36,-11.44,-7.172,-22.64,57.53,-6.65,29.54,16.92,0,0,0,0,0,0,0,0,0,0,0,0,0,0,0,0,
440,-42.98,-41.29,-6.001,-60.17,8.163,-59.55,15.59,-4.365,-23.69,-3.228,-8.96,-27.26,40.64,-2.912,15.47,12.36,0,0,0,0,0,0,0,0,0,0,0,0,0,0,0,0,
441,-21.31,-40.26,-3.076,16.51,5.139,-60.94,0.0344,-5.161,-23.28,5.038,-23.05,-22.31,17.12,-8.341,-8.056,6.309,0,0,0,0,0,0,0,0,0,0,0,0,0,0,0,0,
442,-25.26,-34.25,-9.691,-5.627,-5.754,-55.67,-16.08,5.493,-36.16,0.9068,-32.86,-7.407,1.6,-14.43,-18.72,14.95,0,0,0,0,0,0,0,0,0,0,0,0,0,0,0,0,
443,-31.28,-19.67,-12.51,-29.06,2.243,-41.93,-20.85,9.444,-44.73,4.718,-39.08,-0.6005,-1.498,-13.29,-17.57,23.36,0,0,0,0,0,0,0,0,0,0,0,0,0,0,0,0,
444,-12.78,-6.885,-7.69,-21.08,18.88,-27.19,-8.076,10.34,-38.12,12.28,-40.49,-11.42,7.594,-10.36,-17.35,17.17,0,0,0,0,0,0,0,0,0,0,0,0,0,0,0,0,
445,5.096,-6.674,-9.709,-40.22,23.17,-31.7,7.33,15.74,-18.46,6.037,-35.28,-28.95,12.78,-14.34,-19.29,4.23,0,0,0,0,0,0,0,0,0,0,0,0,0,0,0,0,
446,-10.92,-17.69,-16.83,-38.96,13.13,-51.38,-1.627,6.418,-11.83,-6.707,-43.79,-45.69,-2.894,-27.28,-24.75,-9.772,0,0,0,0,0,0,0,0,0,0,0,0,0,0,0,0,
447,-31.96,-18.38,-16.11,-12.14,7.451,-46.34,-17.52,-4.701,-32.94,-10.82,-60.12,-45.86,-12.27,-33.78,-22.56,-7.511,0,0,0,0,0,0,0,0,0,0,0,0,0,0,0,0,
448,-17.33,-8.467,-5.519,-24.55,19.79,-15.84,-9.39,4.558,-42.71,1.166,-55.44,-22.82,3.596,-26.58,-6.051,17.9,0,0,0,0,0,0,0,0,0,0,0,0,0,0,0,0,
449,-6.977,-22.01,-1.27,-35.16,29.86,-12.08,0.6542,6.73,-27.35,11.85,-38.92,-3.032,10.97,-22.49,8.287,39.46,0,0,0,0,0,0,0,0,0,0,0,0,0,0,0,0,
450,-26.09,-31.54,-9.487,-19.84,35.85,-23.33,4.616,2.563,-18.76,5.081,-12.06,14.23,21.5,-5.153,37.34,67.84,0,0,0,0,0,0,0,0,0,0,0,0,0,0,0,0,
451,-9.782,3.985,4.9,-8.928,78.59,15.78,47.02,36.35,7.046,24.04,56.48,60.34,89.36,59.53,109.4,135.7,0,0,0,0,0,0,0,0,0,0,0,0,0,0,0,0,
452,52.87,37.63,64.82,47.88,153.7,91.57,120.4,92.15,82.4,95.44,143.4,117.1,176.2,133.4,177.9,201.6,0,0,0,0,0,0,0,0,0,0,0,0,0,0,0,0,
453,87.95,62.7,119.5,128.2,199.4,142.3,149.9,113.4,150.6,156.2,173.7,136.0,197.3,155.6,182.3,208.7,0,0,0,0,0,0,0,0,0,0,0,0,0,0,0,0,
454,75.35,107.2,108.7,115.4,188.1,151.1,111.5,93.65,155.1,159.6,126.8,111.8,155.1,134.0,137.8,170.4,0,0,0,0,0,0,0,0,0,0,0,0,0,0,0,0,
455,50.04,104.8,50.92,57.67,148.7,128.0,58.02,66.75,116.9,131.7,57.35,75.87,104.5,102.1,90.98,126.8,0,0,0,0,0,0,0,0,0,0,0,0,0,0,0,0,
456,21.64,42.56,2.812,52.58,115.6,94.19,26.23,50.69,76.85,98.89,16.03,52.05,76.3,74.6,61.48,98.44,0,0,0,0,0,0,0,0,0,0,0,0,0,0,0,0,
457,-7.834,6.349,-14.41,36.26,100.5,75.59,7.681,36.23,55.06,72.33,3.201,41.07,74.15,59.51,47.36,82.77,0,0,0,0,0,0,0,0,0,0,0,0,0,0,0,0,
458,-17.52,4.629,-16.11,-6.218,97.62,67.08,0.5409,25.09,50.41,58.83,1.074,32.2,75.76,48.31,38.27,64.15,0,0,0,0,0,0,0,0,0,0,0,0,0,0,0,0,
459,-14.85,1.662,-31.53,20.02,91.41,51.66,4.841,26.58,41.83,45.16,-1.688,23.25,58.73,30.69,25.53,48.23,0,0,0,0,0,0,0,0,0,0,0,0,0,0,0,0,
460,-24.58,-0.1643,-57.72,76.45,76.67,36.0,5.383,23.8,24.66,28.63,-10.39,20.75,39.21,22.66,13.56,49.36,0,0,0,0,0,0,0,0,0,0,0,0,0,0,0,0,
461,-22.75,-0.2967,-48.64,68.37,70.45,32.39,4.418,16.06,21.88,31.08,-19.71,23.32,35.25,30.77,11.41,55.8,0,0,0,0,0,0,0,0,0,0,0,0,0,0,0,0,
462,-4.538,-7.484,-11.97,23.26,70.44,34.9,7.711,22.28,27.83,44.27,-30.24,22.86,31.53,36.39,15.15,57.53,0,0,0,0,0,0,0,0,0,0,0,0,0,0,0,0,
463,-27.03,-33.15,-12.25,-37.2,49.38,20.31,1.283,18.08,11.3,36.09,-49.41,19.03,18.01,32.08,11.65,56.92,0,0,0,0,0,0,0,0,0,0,0,0,0,0,0,0,
464,-80.92,-66.97,-49.04,-105.6,16.73,-17.61,-13.36,-5.456,-20.07,12.15,-67.03,11.91,-2.311,18.69,-3.814,44.66,0,0,0,0,0,0,0,0,0,0,0,0,0,0,0,0,
465,-95.64,-74.63,-70.15,-101.2,7.137,-36.36,-13.21,-0.8998,-37.72,-3.416,-68.0,0.7577,-24.2,0.4319,-19.4,27.27,0,0,0,0,0,0,0,0,0,0,0,0,0,0,0,0,
466,-73.11,-62.72,-65.48,-49.26,15.02,-13.36,4.914,25.11,-38.77,-8.244,-57.05,-4.894,-26.54,-9.413,-23.76,26.28,0,0,0,0,0,0,0,0,0,0,0,0,0,0,0,0,
467,-64.54,-63.93,-59.34,-71.58,7.373,-5.567,8.94,16.52,-36.36,-13.26,-54.55,-9.685,-14.47,-22.67,-29.74,24.76,0,0,0,0,0,0,0,0,0,0,0,0,0,0,0,0,
468,-78.9,-77.42,-59.52,-126.1,-15.61,-36.46,-13.71,-14.26,-42.34,-31.58,-64.33,-27.87,-18.13,-50.37,-44.94,3.449,0,0,0,0,0,0,0,0,0,0,0,0,0,0,0,0,
469,-77.42,-84.4,-47.07,-122.5,-17.41,-40.49,-20.61,-22.62,-46.64,-49.75,-60.96,-40.07,-19.64,-55.48,-43.88,-7.581,0,0,0,0,0,0,0,0,0,0,0,0,0,0,0,0,
470,-46.58,-76.52,-21.57,-108.5,9.16,-4.746,2.834,-16.26,-29.18,-35.65,-39.21,-30.96,0.1576,-26.86,-21.41,8.594,0,0,0,0,0,0,0,0,0,0,0,0,0,0,0,0,
471,-29.61,-58.69,-12.78,-97.61,30.75,15.79,20.35,-12.79,-2.903,-0.4257,-22.6,-22.85,13.18,-6.871,-7.526,23.49,0,0,0,0,0,0,0,0,0,0,0,0,0,0,0,0,
472,-33.25,-38.05,-14.61,-44.24,40.97,23.15,31.26,-3.516,14.41,29.64,-11.65,-19.08,18.4,-3.365,-3.99,25.45,0,0,0,0,0,0,0,0,0,0,0,0,0,0,0,0,
473,-20.93,-17.16,1.499,-0.0046,56.22,44.03,47.71,11.44,31.24,58.85,5.063,-5.206,39.52,7.487,8.8,32.62,0,0,0,0,0,0,0,0,0,0,0,0,0,0,0,0,
474,-4.993,-0.7786,16.54,-7.644,72.24,62.44,53.5,21.74,50.23,81.5,22.74,8.263,66.53,23.67,23.91,47.98,0,0,0,0,0,0,0,0,0,0,0,0,0,0,0,0,
475,-1.402,5.183,9.176,-22.87,82.46,65.52,50.78,23.0,62.74,87.27,34.16,12.28,76.34,29.09,25.28,53.45,0,0,0,0,0,0,0,0,0,0,0,0,0,0,0,0,
476,9.065,-0.1729,1.241,-43.78,80.14,56.91,44.06,12.6,64.0,83.66,35.07,10.88,62.4,17.73,13.39,42.3,0,0,0,0,0,0,0,0,0,0,0,0,0,0,0,0,
477,14.31,-7.728,-3.011,-77.67,57.74,39.94,25.58,2.295,56.29,67.75,28.49,4.168,41.69,1.78,0.5904,29.69,0,0,0,0,0,0,0,0,0,0,0,0,0,0,0,0,
478,-5.207,-8.885,-21.79,-71.18,36.12,26.52,11.3,3.404,46.01,45.37,21.84,0.1589,34.8,-1.709,-0.4703,29.2,0,0,0,0,0,0,0,0,0,0,0,0,0,0,0,0,
479,-23.1,-5.946,-39.47,-33.35,35.46,30.31,10.66,6.055,33.15,41.79,17.44,5.173,37.21,5.633,7.303,36.94,0,0,0,0,0,0,0,0,0,0,0,0,0,0,0,0,
480,-13.56,3.808,-40.63,-28.67,44.16,52.01,10.86,13.59,24.9,58.14,17.41,8.158,39.09,14.12,8.831,39.1,0,0,0,0,0,0,0,0,0,0,0,0,0,0,0,0,
481,-0.1214,15.84,-41.24,-38.96,49.43,63.91,10.83,22.16,25.18,72.81,15.42,1.555,33.31,13.83,0.2006,30.13,0,0,0,0,0,0,0,0,0,0,0,0,0,0,0,0,
482,-13.13,11.95,-36.04,-29.32,49.72,41.3,17.3,-3.519,13.43,66.63,9.859,-7.968,14.28,1.215,-5.906,25.28,0,0,0,0,0,0,0,0,0,0,0,0,0,0,0,0,
483,-24.59,-0.4233,-14.49,-38.71,47.14,15.85,36.5,-43.61,-3.453,39.25,19.92,-7.951,2.591,-2.771,-0.2794,35.39,0,0,0,0,0,0,0,0,0,0,0,0,0,0,0,0,
484,-4.993,-9.218,-4.706,-74.59,40.99,10.03,58.85,-44.31,-0.8894,16.52,35.46,3.103,7.253,7.501,4.008,38.18,0,0,0,0,0,0,0,0,0,0,0,0,0,0,0,0,
485,1.288,-25.11,-18.29,-71.36,17.58,-13.42,55.29,-30.82,-7.239,8.204,21.25,5.587,1.009,2.124,-9.047,16.75,0,0,0,0,0,0,0,0,0,0,0,0,0,0,0,0,
486,-30.54,-37.7,-31.49,-25.28,-20.94,-49.58,36.28,-36.73,-41.32,-2.204,-4.802,-3.842,-15.24,-14.82,-26.57,-2.952,0,0,0,0,0,0,0,0,0,0,0,0,0,0,0,0,
487,-49.63,-34.33,-37.94,-19.6,-43.53,-49.89,37.53,-37.25,-64.66,-11.14,-8.362,-3.12,-21.4,-12.18,-33.69,-1.712,0,0,0,0,0,0,0,0,0,0,0,0,0,0,0,0,
488,-43.15,-41.14,-47.03,-65.01,-42.47,-35.8,40.33,-32.78,-66.93,-12.85,-11.48,2.064,-31.05,-4.644,-44.25,-0.9254,0,0,0,0,0,0,0,0,0,0,0,0,0,0,0,0,
489,-47.25,-61.8,-53.62,-87.27,-41.01,-48.71,20.39,-38.39,-71.83,-21.33,-30.17,-3.397,-46.78,-11.78,-60.84,-9.516,0,0,0,0,0,0,0,0,0,0,0,0,0,0,0,0,
490,-53.08,-60.52,-44.86,-88.18,-47.1,-60.91,7.061,-36.29,-77.01,-30.74,-34.48,-0.9981,-45.66,-12.58,-61.66,-7.381,0,0,0,0,0,0,0,0,0,0,0,0,0,0,0,0,
491,-43.96,-39.63,-31.86,-101.3,-50.54,-46.75,14.39,-28.71,-73.37,-26.5,-18.74,14.54,-33.06,-0.0227,-46.53,10.21,0,0,0,0,0,0,0,0,0,0,0,0,0,0,0,0,
492,-44.23,-33.9,-36.5,-84.06,-42.43,-32.78,21.72,-32.69,-58.85,-13.88,-3.417,23.8,-24.64,8.442,-33.67,29.08,0,0,0,0,0,0,0,0,0,0,0,0,0,0,0,0,
493,-54.59,-44.56,-37.71,-45.94,-26.04,-36.93,26.27,-37.83,-30.18,-0.2519,11.85,25.47,-16.58,7.245,-28.62,32.69,0,0,0,0,0,0,0,0,0,0,0,0,0,0,0,0,
494,-43.72,-47.33,-11.83,-48.57,-17.43,-37.0,32.05,-35.08,-4.578,3.827,22.87,24.87,-10.01,2.502,-26.89,17.98,0,0,0,0,0,0,0,0,0,0,0,0,0,0,0,0,
495,-11.35,-28.96,10.26,-51.56,-15.62,-10.94,35.88,-31.64,6.028,1.064,18.58,23.73,-4.779,7.193,-19.14,11.39,0,0,0,0,0,0,0,0,0,0,0,0,0,0,0,0,
496,13.26,-1.487,8.336,-29.2,-6.411,21.24,41.39,-36.26,19.63,14.39,11.63,24.22,6.532,18.6,-5.541,21.69,0,0,0,0,0,0,0,0,0,0,0,0,0,0,0,0,
497,15.08,11.79,3.577,-43.95,3.044,29.45,46.03,-49.3,32.39,28.92,12.8,18.69,17.06,15.16,-1.2,21.59,0,0,0,0,0,0,0,0,0,0,0,0,0,0,0,0,
498,11.95,14.96,10.43,-78.96,10.91,24.78,45.07,-58.0,28.12,22.21,18.82,10.64,23.55,9.088,-4.76,14.83,0,0,0,0,0,0,0,0,0,0,0,0,0,0,0,0,
499,25.09,18.2,29.13,-75.77,28.75,22.78,45.23,-57.66,28.98,22.31,30.36,13.02,32.91,22.29,-3.616,22.49,0,0,0,0,0,0,0,0,0,0,0,0,0,0,0,0,
500,38.42,13.01,40.35,-60.03,36.95,17.82,46.59,-54.85,43.94,33.21,42.04,19.52,37.3,30.83,-4.278,29.66,0,0,0,0,0,0,0,0,0,0,0,0,0,0,0,0,
501,30.67,12.26,21.28,-78.71,15.08,13.11,41.53,-54.08,43.45,25.91,41.9,22.48,29.67,19.65,-13.22,22.71,0,0,0,0,0,0,0,0,0,0,0,0,0,0,0,0,
502,14.87,18.69,-5.196,-129.0,-12.98,3.634,31.82,-60.65,24.39,12.83,26.85,20.86,17.74,9.909,-23.39,8.501,0,0,0,0,0,0,0,0,0,0,0,0,0,0,0,0,
503,2.734,3.907,-10.62,-147.0,-25.31,-12.59,25.78,-63.63,9.473,6.294,6.899,10.7,7.714,3.179,-32.4,-4.917,0,0,0,0,0,0,0,0,0,0,0,0,0,0,0,0,
504,-10.2,-15.8,-10.25,-118.4,-35.97,-12.84,25.77,-56.17,-0.4905,-10.36,-2.415,-0.8008,1.684,-12.77,-38.31,-5.205,0,0,0,0,0,0,0,0,0,0,0,0,0,0,0,0,
505,-14.65,-15.74,-17.47,-139.1,-53.54,-11.4,22.31,-66.7,-15.24,-28.38,-3.39,-6.438,-2.317,-26.54,-37.21,5.089,0,0,0,0,0,0,0,0,0,0,0,0,0,0,0,0,
506,-2.825,-16.24,-26.04,-180.7,-59.96,-27.64,8.316,-90.58,-26.98,-27.28,-15.98,-10.15,-9.135,-24.91,-38.1,6.556,0,0,0,0,0,0,0,0,0,0,0,0,0,0,0,0,
507,5.682,-17.15,-36.24,-121.4,-56.99,-25.6,-5.155,-86.18,-26.92,-16.54,-43.61,-12.83,-18.89,-21.04,-50.83,-2.189,0,0,0,0,0,0,0,0,0,0,0,0,0,0,0,0,
508,-6.346,-13.34,-47.52,-45.32,-73.93,-9.16,-10.45,-67.4,-30.8,-18.14,-68.28,-16.78,-30.99,-30.04,-68.76,-10.54,0,0,0,0,0,0,0,0,0,0,0,0,0,0,0,0,
509,-27.74,-24.3,-59.1,-49.8,-100.9,-20.39,-19.76,-63.8,-52.59,-34.37,-79.02,-20.67,-44.95,-39.04,-81.54,-15.27,0,0,0,0,0,0,0,0,0,0,0,0,0,0,0,0,
510,-38.96,-37.74,-71.91,-63.76,-101.6,-37.83,-30.55,-59.55,-72.46,-44.49,-80.0,-16.55,-54.43,-32.67,-83.34,-15.21,0,0,0,0,0,0,0,0,0,0,0,0,0,0,0,0,
511,-30.58,-30.03,-67.1,-84.75,-89.07,-34.39,-20.21,-51.43,-67.76,-34.47,-74.83,-11.98,-49.64,-17.73,-72.02,-11.53,0,0,0,0,0,0,0,0,0,0,0,0,0,0,0,0,
512,-11.31,-9.054,-34.42,-121.6,-85.99,-21.76,1.783,-51.96,-48.61,-16.84,-65.64,-12.66,-30.45,-2.88,-59.13,-8.152,0,0,0,0,0,0,0,0,0,0,0,0,0,0,0,0,
513,-2.52,1.193,-9.295,-104.0,-74.01,-7.313,6.133,-49.95,-36.39,-9.915,-60.46,-8.38,-16.21,4.618,-57.53,-7.6,0,0,0,0,0,0,0,0,0,0,0,0,0,0,0,0,
514,-6.68,-18.06,-16.77,-89.34,-62.78,-11.93,-1.922,-45.99,-33.96,-17.81,-61.51,-6.198,-21.46,-4.734,-60.52,-9.132,0,0,0,0,0,0,0,0,0,0,0,0,0,0,0,0,
515,-10.59,-41.82,-27.47,-133.6,-85.3,-42.07,-9.663,-58.27,-39.42,-36.47,-61.44,-17.01,-33.07,-22.91,-59.45,-8.203,0,0,0,0,0,0,0,0,0,0,0,0,0,0,0,0,
516,-14.62,-35.4,-26.48,-138.3,-110.0,-58.02,-21.5,-77.01,-55.32,-57.72,-59.25,-25.72,-38.06,-32.57,-59.59,-6.012,0,0,0,0,0,0,0,0,0,0,0,0,0,0,0,0,
517,-25.23,-23.81,-45.25,-104.4,-100.7,-53.7,-30.24,-81.36,-65.77,-67.36,-60.25,-23.33,-40.64,-29.18,-62.29,-6.081,0,0,0,0,0,0,0,0,0,0,0,0,0,0,0,0,
518,-35.65,-24.53,-69.14,-135.7,-82.1,-49.85,-22.84,-80.1,-53.25,-59.8,-58.2,-18.84,-36.07,-16.84,-56.02,0.3386,0,0,0,0,0,0,0,0,0,0,0,0,0,0,0,0,
519,-23.46,-13.38,-32.99,-198.8,-60.32,-31.57,1.433,-86.12,-28.82,-45.89,-44.48,-17.23,-18.52,-9.038,-42.74,11.02,0,0,0,0,0,0,0,0,0,0,0,0,0,0,0,0,
520,8.031,-5.418,33.83,-195.3,-34.43,-9.761,24.29,-89.67,-10.8,-38.98,-36.38,-23.71,-12.96,-20.49,-48.08,3.142,0,0,0,0,0,0,0,0,0,0,0,0,0,0,0,0,
521,16.72,-14.74,37.8,-142.7,-34.58,-12.5,24.7,-81.42,-5.928,-42.66,-45.17,-34.07,-32.78,-33.05,-68.21,-15.53,0,0,0,0,0,0,0,0,0,0,0,0,0,0,0,0,
522,10.76,-2.961,9.176,-129.2,-38.56,-4.962,21.93,-61.74,-2.645,-41.87,-46.14,-30.54,-43.02,-17.64,-64.76,-13.03,0,0,0,0,0,0,0,0,0,0,0,0,0,0,0,0,
523,32.12,24.48,21.01,-153.7,-19.57,23.78,32.58,-40.5,12.92,-25.92,-40.72,-19.94,-35.47,4.531,-49.44,-3.015,0,0,0,0,0,0,0,0,0,0,0,0,0,0,0,0,
524,50.27,28.01,25.99,-132.1,-19.45,20.56,27.8,-36.91,17.68,-16.22,-51.56,-23.97,-44.73,-1.967,-62.52,-16.3,0,0,0,0,0,0,0,0,0,0,0,0,0,0,0,0,
525,36.75,27.69,-3.604,-77.88,-34.58,-4.284,12.08,-42.62,-3.488,-22.02,-53.7,-33.2,-58.86,-17.81,-80.67,-32.79,0,0,0,0,0,0,0,0,0,0,0,0,0,0,0,0,
526,32.31,38.36,-3.69,-75.91,-29.0,-0.0003,19.65,-34.27,-17.01,-23.44,-33.5,-29.37,-46.23,-12.33,-71.56,-25.37,0,0,0,0,0,0,0,0,0,0,0,0,0,0,0,0,
527,51.64,35.49,27.69,-99.78,-28.76,17.37,36.85,-31.3,-10.22,-21.82,-23.25,-22.7,-29.47,1.085,-59.91,-13.31,0,0,0,0,0,0,0,0,0,0,0,0,0,0,0,0,
528,65.84,30.94,48.67,-89.34,-38.7,19.34,46.65,-47.63,-1.623,-24.2,-20.66,-26.15,-31.59,1.845,-61.84,-17.34,0,0,0,0,0,0,0,0,0,0,0,0,0,0,0,0,
529,59.23,37.04,56.85,-83.47,-37.57,15.47,59.89,-46.17,7.364,-16.99,-4.018,-26.77,-36.52,-2.151,-59.48,-22.6,0,0,0,0,0,0,0,0,0,0,0,0,0,0,0,0,
530,38.04,27.21,37.34,-113.3,-50.03,10.67,65.51,-23.43,12.82,-4.195,9.132,-16.67,-38.14,-1.285,-56.87,-20.65,0,0,0,0,0,0,0,0,0,0,0,0,0,0,0,0,
531,17.72,3.81,-4.675,-137.4,-78.59,-7.292,46.63,-22.03,1.909,-7.916,-0.4425,-17.35,-52.68,-7.128,-72.97,-28.85,0,0,0,0,0,0,0,0,0,0,0,0,0,0,0,0,
532,4.192,-7.154,-14.6,-134.9,-95.02,-35.22,22.29,-39.05,-20.31,-30.2,-18.27,-32.96,-75.95,-21.92,-93.4,-42.96,0,0,0,0,0,0,0,0,0,0,0,0,0,0,0,0,
533,-3.063,-13.72,-2.063,-126.1,-110.5,-45.37,14.27,-47.85,-35.33,-49.79,-26.79,-39.63,-81.38,-30.8,-96.7,-43.06,0,0,0,0,0,0,0,0,0,0,0,0,0,0,0,0,
534,-10.08,-29.74,-24.07,-117.8,-134.6,-40.56,7.968,-59.21,-35.74,-53.78,-36.07,-39.75,-74.1,-40.65,-95.49,-41.65,0,0,0,0,0,0,0,0,0,0,0,0,0,0,0,0,
535,-22.81,-39.62,-52.3,-108.5,-144.7,-50.86,-8.977,-73.39,-37.58,-54.37,-51.31,-43.95,-81.18,-55.96,-98.78,-49.43,0,0,0,0,0,0,0,0,0,0,0,0,0,0,0,0,
536,-21.54,-38.1,-36.04,-117.1,-136.2,-56.72,-17.75,-68.19,-49.67,-57.79,-51.47,-41.07,-93.87,-55.9,-96.66,-52.14,0,0,0,0,0,0,0,0,0,0,0,0,0,0,0,0,
537,-9.349,-39.9,-20.0,-154.4,-125.6,-42.59,-18.88,-59.27,-59.82,-56.48,-41.33,-40.4,-98.46,-51.24,-97.32,-57.82,0,0,0,0,0,0,0,0,0,0,0,0,0,0,0,0,
538,-24.05,-38.56,-45.38,-193.9,-122.9,-46.03,-29.39,-68.51,-69.63,-56.53,-42.24,-52.06,-102.0,-62.41,-103.4,-74.65,0,0,0,0,0,0,0,0,0,0,0,0,0,0,0,0,
539,-47.94,-42.15,-60.38,-217.8,-126.7,-60.02,-30.79,-70.09,-82.22,-60.14,-38.02,-51.3,-93.54,-64.28,-98.3,-79.12,0,0,0,0,0,0,0,0,0,0,0,0,0,0,0,0,
540,-41.56,-71.71,-34.75,-237.5,-120.4,-51.77,-11.55,-51.97,-79.59,-55.74,-19.17,-39.24,-71.93,-51.37,-91.31,-71.33,0,0,0,0,0,0,0,0,0,0,0,0,0,0,0,0,
541,-24.35,-77.03,-12.32,-243.3,-97.7,-45.59,-0.7934,-47.41,-60.18,-50.98,-10.1,-44.79,-66.59,-54.67,-97.15,-74.14,0,0,0,0,0,0,0,0,0,0,0,0,0,0,0,0,
542,-16.71,-30.68,-10.16,-219.5,-86.96,-58.9,-6.583,-59.0,-44.63,-59.92,-13.11,-56.27,-76.77,-68.0,-100.6,-79.1,0,0,0,0,0,0,0,0,0,0,0,0,0,0,0,0,
543,-6.848,-6.66,-2.556,-199.2,-98.03,-71.12,-6.545,-56.89,-39.69,-70.24,-8.534,-52.86,-79.94,-69.96,-93.85,-73.85,0,0,0,0,0,0,0,0,0,0,0,0,0,0,0,0,
544,-0.9434,-19.41,8.88,-208.5,-101.3,-74.86,-2.459,-45.35,-41.1,-70.86,0.5142,-47.21,-82.98,-67.3,-89.26,-69.49,0,0,0,0,0,0,0,0,0,0,0,0,0,0,0,0,
545,-16.04,-21.46,3.856,-219.1,-91.75,-76.72,-8.743,-42.13,-46.54,-75.61,-0.456,-42.4,-92.37,-63.35,-92.76,-68.85,0,0,0,0,0,0,0,0,0,0,0,0,0,0,0,0,
546,-31.12,-30.09,-3.82,-222.9,-87.9,-79.8,-15.2,-48.56,-51.34,-85.88,-7.606,-32.19,-94.14,-58.04,-101.1,-67.75,0,0,0,0,0,0,0,0,0,0,0,0,0,0,0,0,
547,-17.04,-47.48,9.858,-241.3,-87.24,-78.09,-10.91,-63.2,-55.98,-83.4,-10.47,-31.27,-87.1,-61.59,-104.0,-70.19,0,0,0,0,0,0,0,0,0,0,0,0,0,0,0,0,
548,0.2556,-40.66,24.55,-243.2,-78.84,-69.65,-2.595,-66.81,-57.92,-71.82,-9.318,-38.75,-79.26,-67.28,-98.24,-71.75,0,0,0,0,0,0,0,0,0,0,0,0,0,0,0,0,
549,-4.939,-31.23,17.82,-197.3,-63.73,-64.6,5.536,-48.69,-43.1,-66.34,-9.087,-37.97,-71.03,-66.57,-96.71,-67.32,0,0,0,0,0,0,0,0,0,0,0,0,0,0,0,0,
550,-1.224,-35.1,16.44,-155.6,-54.88,-53.11,11.65,-37.42,-24.23,-64.73,-13.38,-40.62,-67.56,-72.36,-102.2,-67.04,0,0,0,0,0,0,0,0,0,0,0,0,0,0,0,0,
551,17.49,-30.05,32.33,-161.6,-58.66,-30.23,12.19,-37.6,-27.28,-61.96,-19.78,-53.85,-73.9,-82.34,-107.2,-74.36,0,0,0,0,0,0,0,0,0,0,0,0,0,0,0,0,
552,15.82,-19.57,36.63,-177.8,-60.72,-27.92,7.05,-31.01,-34.87,-58.0,-24.32,-56.59,-83.36,-80.19,-114.8,-77.35,0,0,0,0,0,0,0,0,0,0,0,0,0,0,0,0,
553,5.161,-13.63,34.01,-182.5,-55.0,-37.16,-2.426,-28.25,-29.21,-54.53,-31.07,-43.16,-84.61,-67.53,-118.5,-68.63,0,0,0,0,0,0,0,0,0,0,0,0,0,0,0,0,
554,15.04,-9.216,48.34,-208.2,-46.83,-16.52,-4.743,-25.36,-23.5,-51.77,-35.72,-24.68,-71.44,-47.53,-105.7,-52.99,0,0,0,0,0,0,0,0,0,0,0,0,0,0,0,0,
555,28.55,-11.3,57.29,-232.3,-35.29,2.856,5.847,-14.44,-16.57,-44.99,-30.09,-10.4,-56.03,-28.97,-91.63,-43.31,0,0,0,0,0,0,0,0,0,0,0,0,0,0,0,0,
556,30.27,-13.47,43.06,-184.2,-30.79,-8.428,10.59,-21.37,-12.45,-41.34,-25.33,-8.873,-53.44,-30.55,-90.75,-46.99,0,0,0,0,0,0,0,0,0,0,0,0,0,0,0,0,
557,34.14,-4.604,42.36,-106.8,-30.44,-2.14,11.72,-35.95,-22.19,-48.49,-23.45,-10.73,-47.55,-38.62,-87.62,-52.31,0,0,0,0,0,0,0,0,0,0,0,0,0,0,0,0,
558,46.6,10.21,76.41,-100.3,-5.461,23.98,35.52,-29.69,-20.02,-49.29,-9.227,-2.401,-23.01,-29.81,-77.31,-47.5,0,0,0,0,0,0,0,0,0,0,0,0,0,0,0,0,
559,67.41,31.39,106.9,-121.7,27.04,23.02,65.19,-25.8,1.304,-35.08,7.965,5.189,-4.316,-18.77,-76.78,-41.32,0,0,0,0,0,0,0,0,0,0,0,0,0,0,0,0,
560,87.19,48.79,105.1,-103.0,26.49,14.05,67.11,-33.04,6.82,-25.72,12.1,6.768,-6.119,-16.77,-79.46,-35.59,0,0,0,0,0,0,0,0,0,0,0,0,0,0,0,0,
561,78.91,34.55,97.92,-111.5,17.39,18.21,60.27,-26.21,-0.9474,-30.1,16.44,14.72,-1.351,-7.713,-61.02,-15.53,0,0,0,0,0,0,0,0,0,0,0,0,0,0,0,0,
562,51.47,7.847,102.7,-166.8,27.34,13.72,65.87,-12.47,7.636,-32.15,27.27,21.15,14.19,4.158,-39.22,1.321,0,0,0,0,0,0,0,0,0,0,0,0,0,0,0,0,
563,44.6,12.35,89.18,-165.8,29.25,18.09,61.63,-8.697,22.44,-25.72,27.81,12.96,7.813,-3.53,-46.16,-13.3,0,0,0,0,0,0,0,0,0,0,0,0,0,0,0,0,
564,55.48,34.44,63.46,-101.1,24.25,47.63,51.58,-3.967,25.06,-24.05,23.13,6.747,-9.455,-18.79,-55.35,-28.67,0,0,0,0,0,0,0,0,0,0,0,0,0,0,0,0,
565,62.3,41.31,67.89,-78.56,36.14,59.35,63.44,6.739,29.53,-24.5,29.06,9.691,-2.726,-15.42,-43.19,-18.25,0,0,0,0,0,0,0,0,0,0,0,0,0,0,0,0,
566,63.11,31.85,75.14,-107.5,40.71,34.63,73.22,0.0382,38.54,-14.29,31.89,4.168,7.657,-4.51,-42.04,-12.3,0,0,0,0,0,0,0,0,0,0,0,0,0,0,0,0,
567,56.79,16.81,55.35,-108.2,30.34,15.25,63.04,-29.39,36.01,-0.1309,26.77,-0.6052,6.406,0.4287,-52.29,-11.57,0,0,0,0,0,0,0,0,0,0,0,0,0,0,0,0,
568,54.0,20.17,55.92,-77.35,38.9,30.89,63.15,-39.95,34.46,15.1,30.18,9.817,13.72,7.399,-47.34,1.682,0,0,0,0,0,0,0,0,0,0,0,0,0,0,0,0,
569,63.35,50.14,70.81,-49.53,56.49,59.46,67.0,-20.91,40.45,30.03,30.03,11.29,9.748,2.783,-49.74,-2.98,0,0,0,0,0,0,0,0,0,0,0,0,0,0,0,0,
570,64.86,58.17,41.11,-26.27,52.08,67.31,52.18,-19.6,31.78,24.51,11.1,-7.482,-18.7,-24.06,-71.67,-33.49,0,0,0,0,0,0,0,0,0,0,0,0,0,0,0,0,
571,51.06,25.51,-3.142,-44.34,31.33,52.45,40.24,-42.41,17.23,2.42,-9.276,-25.28,-35.08,-46.05,-84.27,-55.17,0,0,0,0,0,0,0,0,0,0,0,0,0,0,0,0,
572,40.23,10.0,-5.61,-101.1,8.97,31.57,37.1,-47.91,14.7,-8.467,-14.68,-28.14,-35.83,-45.94,-78.45,-55.92,0,0,0,0,0,0,0,0,0,0,0,0,0,0,0,0,
573,42.52,17.99,27.47,-107.8,1.387,22.3,32.47,-33.72,14.76,-3.24,-0.5211,-12.73,-33.81,-30.84,-60.59,-36.77,0,0,0,0,0,0,0,0,0,0,0,0,0,0,0,0,
574,49.07,3.163,59.07,-79.3,11.27,27.72,38.16,-31.16,20.65,7.796,21.36,4.239,-16.63,-14.77,-44.71,-9.977,0,0,0,0,0,0,0,0,0,0,0,0,0,0,0,0,
575,43.89,0.158,46.88,-92.62,4.551,20.66,45.05,-44.32,26.82,8.866,19.57,-2.397,-6.274,-17.69,-54.28,-4.152,0,0,0,0,0,0,0,0,0,0,0,0,0,0,0,0,
576,31.05,34.54,12.2,-102.0,-25.75,-3.133,37.11,-46.4,8.252,-10.22,-6.247,-18.08,-30.25,-34.63,-75.45,-16.48,0,0,0,0,0,0,0,0,0,0,0,0,0,0,0,0,
577,26.69,34.4,17.78,-66.64,-43.8,-12.01,30.68,-37.76,-18.6,-31.85,-22.47,-19.26,-58.38,-42.47,-77.63,-24.33,0,0,0,0,0,0,0,0,0,0,0,0,0,0,0,0,
578,25.11,-0.8185,31.46,-47.37,-41.03,-12.5,33.23,-51.73,-22.41,-40.99,-16.45,-14.7,-58.41,-41.75,-66.85,-22.13,0,0,0,0,0,0,0,0,0,0,0,0,0,0,0,0,
579,23.49,5.073,11.74,-61.85,-26.48,-16.21,38.94,-70.76,-7.295,-37.05,6.765,-8.14,-34.04,-31.7,-49.58,-5.179,0,0,0,0,0,0,0,0,0,0,0,0,0,0,0,0,
580,37.51,37.16,15.13,-66.32,1.134,7.897,53.39,-50.24,16.75,-12.38,44.47,11.17,4.781,-1.815,-15.29,27.23,0,0,0,0,0,0,0,0,0,0,0,0,0,0,0,0,
581,64.02,53.39,58.81,-59.63,32.22,54.58,77.94,-18.15,48.34,22.44,90.37,43.48,53.39,37.24,32.1,68.05,0,0,0,0,0,0,0,0,0,0,0,0,0,0,0,0,
582,94.14,75.9,101.2,-63.91,68.68,90.71,117.8,-1.572,88.94,52.53,141.0,82.49,106.7,80.15,83.82,115.7,0,0,0,0,0,0,0,0,0,0,0,0,0,0,0,0,
583,129.4,103.4,130.9,-59.31,109.8,120.3,164.2,28.97,138.5,94.18,176.5,112.1,139.2,121.2,116.8,145.6,0,0,0,0,0,0,0,0,0,0,0,0,0,0,0,0,
584,134.3,95.44,119.6,-38.24,102.5,126.9,164.4,42.8,165.0,130.6,155.5,108.7,113.8,119.1,92.24,121.6,0,0,0,0,0,0,0,0,0,0,0,0,0,0,0,0,
585,81.72,60.57,63.81,-42.31,36.71,84.54,111.1,-6.052,133.4,113.4,93.22,75.88,52.7,70.44,33.39,68.0,0,0,0,0,0,0,0,0,0,0,0,0,0,0,0,0,
586,37.37,44.1,29.77,-64.5,-2.773,41.81,74.29,-50.49,79.69,70.29,55.02,39.75,19.47,30.11,1.718,34.52,0,0,0,0,0,0,0,0,0,0,0,0,0,0,0,0,
587,51.7,44.43,25.38,-60.62,4.829,36.15,66.51,-43.95,56.08,51.69,39.25,8.276,13.76,3.497,-16.49,9.752,0,0,0,0,0,0,0,0,0,0,0,0,0,0,0,0,
588,72.43,40.98,18.52,-61.18,-8.098,22.36,42.77,-44.4,41.75,32.56,11.27,-18.92,-1.673,-29.77,-51.38,-25.02,0,0,0,0,0,0,0,0,0,0,0,0,0,0,0,0,
589,59.45,34.83,28.83,-88.87,-35.7,-10.53,16.52,-61.48,12.5,3.047,-0.9163,-27.05,-9.531,-40.29,-64.31,-37.34,0,0,0,0,0,0,0,0,0,0,0,0,0,0,0,0,
590,35.7,5.712,44.5,-82.7,-21.05,-7.632,17.45,-52.91,3.808,6.408,18.67,-12.39,12.26,-20.33,-39.18,-15.78,0,0,0,0,0,0,0,0,0,0,0,0,0,0,0,0,
591,36.19,-22.45,34.96,-35.78,18.41,28.59,26.74,-33.99,28.39,38.7,29.35,5.302,31.99,-7.208,-23.56,3.313,0,0,0,0,0,0,0,0,0,0,0,0,0,0,0,0,
592,67.06,18.62,27.51,-9.945,27.37,36.66,24.57,-33.39,41.42,55.07,13.57,7.515,17.85,-13.85,-39.8,-2.399,0,0,0,0,0,0,0,0,0,0,0,0,0,0,0,0,
593,72.79,68.79,26.84,-3.958,6.236,10.85,13.99,-40.98,20.41,40.94,-9.039,-8.446,-17.01,-30.39,-58.65,-23.8,0,0,0,0,0,0,0,0,0,0,0,0,0,0,0,0,
594,36.06,50.45,11.21,-3.266,-1.645,-2.056,11.81,-40.49,-1.175,15.42,-13.91,-25.81,-34.42,-41.73,-50.87,-37.98,0,0,0,0,0,0,0,0,0,0,0,0,0,0,0,0,
595,31.0,29.7,4.804,-31.17,9.701,7.744,31.42,-34.82,4.822,5.715,8.266,-28.02,-19.27,-35.26,-26.03,-32.96,0,0,0,0,0,0,0,0,0,0,0,0,0,0,0,0,
596,57.3,27.61,20.06,-44.27,13.5,14.4,50.52,-35.26,22.57,12.29,28.94,-24.28,0.9256,-26.21,-16.07,-26.04,0,0,0,0,0,0,0,0,0,0,0,0,0,0,0,0,
597,50.9,7.177,30.14,0.3795,18.05,14.02,46.28,-33.98,35.39,12.71,21.97,-22.8,0.3623,-28.43,-23.69,-25.3,0,0,0,0,0,0,0,0,0,0,0,0,0,0,0,0,
598,38.15,15.9,26.95,31.08,33.49,21.4,40.58,-25.13,45.24,9.55,6.312,-12.43,-15.46,-27.38,-24.74,-13.49,0,0,0,0,0,0,0,0,0,0,0,0,0,0,0,0,
599,53.36,53.58,23.64,18.06,39.0,35.73,48.65,-18.43,45.33,20.67,0.945,0.4447,-32.78,-19.23,-19.13,0.6376,0,0,0,0,0,0,0,0,0,0,0,0,0,0,0,0,
600,64.31,59.68,26.72,30.75,35.94,41.46,48.0,-4.037,33.47,35.36,-5.966,-2.524,-47.14,-20.41,-28.79,-7.182,0,0,0,0,0,0,0,0,0,0,0,0,0,0,0,0,
601,55.7,52.71,21.52,59.88,31.92,30.79,33.17,11.88,15.17,30.44,-17.88,-10.28,-61.7,-34.0,-49.25,-23.58,0,0,0,0,0,0,0,0,0,0,0,0,0,0,0,0,
602,39.33,52.33,-6.358,36.89,15.08,18.0,25.35,1.727,-13.82,9.614,-16.42,-8.843,-72.25,-46.3,-51.59,-27.84,0,0,0,0,0,0,0,0,0,0,0,0,0,0,0,0,
603,31.85,44.03,-21.69,-4.21,3.72,20.95,30.51,-7.378,-35.88,-7.145,1.981,-10.6,-61.59,-47.73,-33.11,-25.55,0,0,0,0,0,0,0,0,0,0,0,0,0,0,0,0,
604,51.56,46.72,15.51,16.32,22.63,21.82,43.51,8.731,-21.17,-16.33,19.4,-21.24,-34.39,-44.67,-21.74,-24.29,0,0,0,0,0,0,0,0,0,0,0,0,0,0,0,0,
605,79.34,58.48,65.46,64.44,45.15,-0.1663,56.57,11.96,12.94,-29.4,23.38,-34.57,-23.26,-51.98,-30.27,-31.84,0,0,0,0,0,0,0,0,0,0,0,0,0,0,0,0,
606,79.68,54.34,70.49,59.5,42.38,-5.894,54.69,-1.3,29.03,-46.96,15.76,-45.25,-32.71,-63.62,-40.13,-45.89,0,0,0,0,0,0,0,0,0,0,0,0,0,0,0,0,
607,60.43,49.27,44.71,33.27,28.33,27.88,41.57,1.917,26.59,-46.46,7.85,-37.23,-34.81,-54.53,-33.33,-39.51,0,0,0,0,0,0,0,0,0,0,0,0,0,0,0,0,
608,47.68,51.78,23.91,35.0,12.01,41.64,32.07,10.21,17.21,-20.59,5.856,-17.09,-28.56,-34.14,-19.92,-16.4,0,0,0,0,0,0,0,0,0,0,0,0,0,0,0,0,
609,44.31,42.72,16.06,23.82,-11.45,13.45,26.36,8.59,-2.295,-8.933,4.583,-18.66,-32.74,-34.03,-16.11,-9.828,0,0,0,0,0,0,0,0,0,0,0,0,0,0,0,0,
610,39.58,27.05,16.68,-10.61,-19.79,-5.788,30.28,15.33,-21.94,-26.43,4.784,-31.28,-38.21,-40.97,-19.36,-11.26,0,0,0,0,0,0,0,0,0,0,0,0,0,0,0,0,
611,25.46,18.9,11.39,-25.85,-5.718,-5.242,45.86,33.91,-24.1,-31.4,7.863,-25.93,-32.31,-32.72,-27.94,-6.525,0,0,0,0,0,0,0,0,0,0,0,0,0,0,0,0,
612,19.57,18.83,8.555,-11.99,4.668,3.278,56.96,44.54,-15.14,-15.27,8.576,-22.66,-25.74,-26.68,-40.93,-13.15,0,0,0,0,0,0,0,0,0,0,0,0,0,0,0,0,
613,44.48,30.22,33.83,11.98,18.56,24.92,64.53,41.16,0.4023,-1.966,8.327,-32.22,-20.27,-27.47,-40.03,-18.32,0,0,0,0,0,0,0,0,0,0,0,0,0,0,0,0,
614,68.15,39.4,56.8,4.784,42.3,37.33,76.01,38.0,28.07,12.6,7.807,-26.13,-4.897,-17.31,-18.26,3.004,0,0,0,0,0,0,0,0,0,0,0,0,0,0,0,0,
615,60.18,31.31,46.55,-34.35,46.25,34.24,83.41,48.67,51.07,27.17,11.23,-4.782,14.37,-1.698,3.472,27.71,0,0,0,0,0,0,0,0,0,0,0,0,0,0,0,0,
616,49.78,30.77,38.5,-44.68,45.48,44.15,86.87,68.51,58.31,33.05,26.42,6.24,20.4,4.616,7.757,32.27,0,0,0,0,0,0,0,0,0,0,0,0,0,0,0,0,
617,47.47,44.76,42.33,-28.25,71.21,58.23,88.03,73.34,64.48,42.95,37.85,6.946,10.39,0.0966,-0.4912,29.34,0,0,0,0,0,0,0,0,0,0,0,0,0,0,0,0,
618,40.48,44.94,31.55,-17.32,90.98,54.07,83.94,58.28,67.06,54.47,34.82,8.373,-2.004,-9.3,-4.438,28.46,0,0,0,0,0,0,0,0,0,0,0,0,0,0,0,0,
619,40.38,39.15,18.41,-3.027,76.85,40.56,82.18,55.02,52.13,51.76,33.4,9.197,-6.091,-12.0,1.169,27.17,0,0,0,0,0,0,0,0,0,0,0,0,0,0,0,0,
620,44.1,42.29,14.86,-12.01,55.15,29.24,84.12,58.72,32.19,39.16,35.1,7.18,-5.079,-5.697,5.459,27.49,0,0,0,0,0,0,0,0,0,0,0,0,0,0,0,0,
621,45.43,39.81,11.08,-35.73,48.67,25.99,83.8,30.58,26.95,23.46,33.64,2.394,-3.75,-3.231,7.253,28.99,0,0,0,0,0,0,0,0,0,0,0,0,0,0,0,0,
622,52.98,41.6,21.87,-8.337,53.44,33.8,87.0,5.654,34.73,10.15,39.59,-1.358,6.359,-3.901,18.89,32.83,0,0,0,0,0,0,0,0,0,0,0,0,0,0,0,0,
623,61.13,61.55,61.18,27.26,69.3,49.01,99.3,32.85,49.89,17.62,57.23,8.576,34.59,8.36,41.69,47.22,0,0,0,0,0,0,0,0,0,0,0,0,0,0,0,0,
624,73.64,73.73,89.96,13.0,94.89,62.91,111.5,64.48,73.12,44.37,75.67,30.04,63.35,27.31,61.48,64.87,0,0,0,0,0,0,0,0,0,0,0,0,0,0,0,0,
625,84.32,61.63,64.03,10.73,101.8,54.96,108.5,62.86,88.5,54.8,81.95,41.75,66.49,31.48,67.79,69.24,0,0,0,0,0,0,0,0,0,0,0,0,0,0,0,0,
626,64.09,45.17,20.32,39.86,74.9,18.07,88.73,57.59,77.26,35.83,73.36,40.38,49.99,22.92,63.25,64.88,0,0,0,0,0,0,0,0,0,0,0,0,0,0,0,0,
627,29.5,40.0,15.58,38.63,43.27,-20.65,69.22,48.04,47.53,12.82,58.31,36.45,30.45,12.78,53.77,59.16,0,0,0,0,0,0,0,0,0,0,0,0,0,0,0,0,
628,10.01,29.25,20.85,5.628,24.68,-39.06,60.91,29.18,16.59,-2.977,45.5,31.58,11.25,3.555,45.67,49.31,0,0,0,0,0,0,0,0,0,0,0,0,0,0,0,0,
629,-2.101,2.862,2.721,-15.29,11.63,-41.74,54.72,34.24,0.3352,-15.91,45.39,31.58,2.198,5.64,46.44,48.04,0,0,0,0,0,0,0,0,0,0,0,0,0,0,0,0,
630,-10.33,-7.934,-6.122,-14.32,6.682,-38.5,43.15,56.54,7.026,-19.54,57.6,39.27,5.203,19.23,50.51,60.99,0,0,0,0,0,0,0,0,0,0,0,0,0,0,0,0,
631,-19.19,-3.897,1.418,-2.168,8.946,-33.85,37.57,60.56,16.91,-13.15,62.01,42.12,2.058,22.3,44.56,63.89,0,0,0,0,0,0,0,0,0,0,0,0,0,0,0,0,
632,-30.54,-24.59,-6.287,22.54,7.161,-29.7,45.32,49.43,13.82,-5.706,52.93,36.4,-8.302,12.31,32.85,52.6,0,0,0,0,0,0,0,0,0,0,0,0,0,0,0,0,
633,-27.06,-36.97,-22.36,48.81,0.0961,-28.74,53.5,41.41,8.894,-2.662,40.92,29.22,-11.77,6.053,25.34,45.12,0,0,0,0,0,0,0,0,0,0,0,0,0,0,0,0,
634,-18.1,2.028,-16.55,54.0,-6.923,-32.57,51.94,44.0,4.754,-7.262,24.61,18.44,-17.37,-2.932,12.46,30.73,0,0,0,0,0,0,0,0,0,0,0,0,0,0,0,0,
635,-17.87,37.16,7.51,59.92,-5.712,-31.86,41.49,47.5,-6.003,-17.76,10.17,2.235,-36.97,-23.69,-10.45,6.035,0,0,0,0,0,0,0,0,0,0,0,0,0,0,0,0,
636,-11.49,29.89,18.72,71.73,12.01,-19.29,27.84,34.26,-12.41,-25.96,11.5,-11.84,-50.39,-35.85,-23.01,0.4529,0,0,0,0,0,0,0,0,0,0,0,0,0,0,0,0,
637,-0.2208,17.91,10.17,45.06,32.12,-10.83,21.04,21.79,-2.068,-25.71,14.22,-20.11,-42.02,-29.89,-15.71,10.02,0,0,0,0,0,0,0,0,0,0,0,0,0,0,0,0,
638,7.313,19.96,8.351,18.25,33.71,-12.9,24.14,26.92,14.43,-18.37,11.08,-18.04,-22.86,-14.68,6.914,16.81,0,0,0,0,0,0,0,0,0,0,0,0,0,0,0,0,
639,16.09,28.63,24.74,40.73,36.39,-1.642,41.27,22.38,33.45,-1.575,34.12,4.201,11.33,23.78,51.21,43.62,0,0,0,0,0,0,0,0,0,0,0,0,0,0,0,0,
640,26.14,44.21,45.9,50.25,64.7,24.75,72.43,14.51,70.59,31.4,78.16,30.97,59.14,78.25,95.98,81.32,0,0,0,0,0,0,0,0,0,0,0,0,0,0,0,0,
641,46.76,67.75,62.11,43.5,94.7,47.65,87.8,45.37,107.9,61.87,88.7,33.4,80.52,98.39,97.93,81.31,0,0,0,0,0,0,0,0,0,0,0,0,0,0,0,0,
642,70.71,93.06,63.79,74.52,108.4,70.81,76.3,90.44,113.9,68.4,64.94,23.88,67.63,82.7,71.71,58.66,0,0,0,0,0,0,0,0,0,0,0,0,0,0,0,0,
643,67.14,100.9,50.48,86.52,117.6,86.17,70.66,96.6,108.3,70.06,46.81,25.72,56.26,71.47,59.15,55.98,0,0,0,0,0,0,0,0,0,0,0,0,0,0,0,0,
644,59.6,91.78,51.76,45.86,116.5,74.47,73.31,80.26,108.2,77.31,31.23,25.69,48.57,63.2,51.6,56.84,0,0,0,0,0,0,0,0,0,0,0,0,0,0,0,0,
645,78.31,87.02,69.46,28.46,102.8,52.79,58.08,85.16,94.04,72.25,7.563,18.14,27.48,50.59,32.45,40.79,0,0,0,0,0,0,0,0,0,0,0,0,0,0,0,0,
646,76.22,78.46,55.88,65.07,85.79,40.42,36.69,105.0,68.68,64.6,-8.716,21.29,1.42,48.99,17.59,29.94,0,0,0,0,0,0,0,0,0,0,0,0,0,0,0,0,
647,33.75,53.03,23.2,103.2,56.64,27.45,32.82,107.2,48.01,68.35,-13.23,34.33,-15.39,52.27,16.47,38.26,0,0,0,0,0,0,0,0,0,0,0,0,0,0,0,0,
648,4.367,25.13,33.3,94.82,28.51,7.537,37.22,93.18,33.19,67.25,-9.21,43.59,-14.13,53.05,23.63,53.15,0,0,0,0,0,0,0,0,0,0,0,0,0,0,0,0,
649,6.69,15.18,64.42,64.62,33.84,-2.209,37.3,86.64,33.85,61.63,5.026,45.0,5.35,60.87,35.26,64.01,0,0,0,0,0,0,0,0,0,0,0,0,0,0,0,0,
650,17.34,35.0,65.65,59.42,57.84,8.646,40.63,81.49,52.15,65.77,20.3,36.49,22.35,62.87,40.75,64.44,0,0,0,0,0,0,0,0,0,0,0,0,0,0,0,0,
651,24.09,58.43,56.81,55.51,68.49,10.84,47.88,62.46,65.55,65.24,27.44,23.53,20.89,45.58,34.98,53.47,0,0,0,0,0,0,0,0,0,0,0,0,0,0,0,0,
652,23.61,49.47,62.3,40.13,74.42,-5.423,50.69,51.61,61.79,48.46,27.98,17.11,14.92,30.09,27.16,42.45,0,0,0,0,0,0,0,0,0,0,0,0,0,0,0,0,
653,24.55,28.52,75.74,41.49,92.0,-2.84,52.84,62.09,54.12,31.81,20.4,7.069,13.69,22.55,12.69,28.3,0,0,0,0,0,0,0,0,0,0,0,0,0,0,0,0,
654,36.77,25.44,87.62,40.77,111.6,9.283,57.36,56.54,52.91,20.6,7.407,-19.2,6.629,4.402,-8.315,0.3532,0,0,0,0,0,0,0,0,0,0,0,0,0,0,0,0,
655,53.48,37.1,91.91,42.98,122.0,2.599,63.8,25.85,54.5,11.18,4.696,-41.96,4.31,-11.59,-7.249,-21.0,0,0,0,0,0,0,0,0,0,0,0,0,0,0,0,0,
656,64.55,50.65,102.5,71.02,120.6,4.021,72.72,21.69,56.98,15.28,15.44,-48.3,18.65,-11.32,14.43,-23.82,0,0,0,0,0,0,0,0,0,0,0,0,0,0,0,0,
657,59.77,42.02,114.1,66.13,104.0,8.797,70.37,52.98,57.54,23.98,26.16,-55.05,25.44,-15.47,24.74,-28.06,0,0,0,0,0,0,0,0,0,0,0,0,0,0,0,0,T2
658,39.23,15.85,91.07,32.16,84.26,-12.88,57.6,70.2,49.74,11.98,32.27,-57.44,19.51,-20.86,30.02,-26.89,0,0,0,0,0,0,0,0,0,0,0,0,0,0,0,0,
659,23.24,13.58,60.13,59.02,85.89,-23.93,59.34,64.95,39.11,-5.336,35.01,-40.69,22.85,-8.43,43.01,-5.658,0,0,0,0,0,0,0,0,0,0,0,0,0,0,0,0,
660,24.64,31.22,75.04,102.5,106.1,-3.582,68.07,62.66,37.07,-4.333,32.18,-24.67,23.15,0.7356,44.25,9.669,0,0,0,0,0,0,0,0,0,0,0,0,0,0,0,0,
661,39.02,36.6,101.1,69.99,112.3,0.1553,59.98,60.24,41.06,-4.36,24.21,-20.52,3.317,-6.899,30.58,6.579,0,0,0,0,0,0,0,0,0,0,0,0,0,0,0,0,
662,49.86,35.82,89.69,21.72,89.25,-27.07,45.96,53.17,33.26,-18.58,13.33,-11.75,-20.29,-10.51,17.56,6.291,0,0,0,0,0,0,0,0,0,0,0,0,0,0,0,0,
663,33.97,36.23,66.66,22.02,60.86,-47.4,36.59,54.91,6.034,-25.87,4.191,-2.857,-38.04,-8.609,6.984,9.261,0,0,0,0,0,0,0,0,0,0,0,0,0,0,0,0,
664,1.234,23.17,56.76,18.22,41.47,-51.09,21.8,63.34,-21.0,-23.25,-2.362,-6.907,-54.35,-12.84,0.8563,5.026,0,0,0,0,0,0,0,0,0,0,0,0,0,0,0,0,
665,-12.13,2.965,50.42,-6.503,18.56,-58.1,7.026,63.8,-33.9,-26.46,-8.125,-11.97,-60.34,-15.88,5.732,6.39,0,0,0,0,0,0,0,0,0,0,0,0,0,0,0,0,
666,-5.859,-0.2728,47.99,-8.254,7.931,-62.01,6.523,57.52,-36.02,-28.47,-4.097,-8.787,-48.41,-15.09,16.68,19.82,0,0,0,0,0,0,0,0,0,0,0,0,0,0,0,0,
667,-3.172,8.126,49.67,-3.143,23.72,-50.09,17.06,53.16,-26.15,-27.22,7.31,-4.396,-32.96,-19.25,25.21,29.31,0,0,0,0,0,0,0,0,0,0,0,0,0,0,0,0,
668,-0.7823,10.2,52.85,-16.41,28.51,-38.02,29.52,48.55,-17.0,-38.77,8.111,0.0904,-27.92,-27.28,30.74,29.64,0,0,0,0,0,0,0,0,0,0,0,0,0,0,0,0,
669,6.994,14.11,61.43,-18.95,9.88,-35.3,31.55,45.61,-27.39,-52.83,-0.1948,4.097,-28.12,-38.22,30.02,26.97,0,0,0,0,0,0,0,0,0,0,0,0,0,0,0,0,
670,1.164,18.11,54.98,-12.48,-3.644,-39.45,13.87,49.22,-48.35,-56.92,-10.24,-2.272,-31.74,-56.12,13.65,15.46,0,0,0,0,0,0,0,0,0,0,0,0,0,0,0,0,
671,-17.44,11.81,28.18,-31.47,-14.2,-48.39,-0.0313,41.55,-66.15,-64.37,-21.74,-19.84,-41.32,-70.53,-10.81,-5.202,0,0,0,0,0,0,0,0,0,0,0,0,0,0,0,0,
672,-14.47,16.09,25.48,-54.78,-28.4,-46.06,10.82,18.96,-72.79,-68.93,-20.19,-34.04,-41.2,-66.49,-18.38,-15.99,0,0,0,0,0,0,0,0,0,0,0,0,0,0,0,0,
673,12.1,29.94,49.73,-36.68,-26.72,-32.17,23.31,18.95,-56.1,-56.77,-0.7833,-32.89,-21.93,-46.06,-6.568,-7.12,0,0,0,0,0,0,0,0,0,0,0,0,0,0,0,0,
674,22.97,28.0,61.43,0.5835,-7.569,-25.38,22.7,45.97,-26.5,-39.29,14.09,-19.88,-4.738,-23.98,2.199,9.063,0,0,0,0,0,0,0,0,0,0,0,0,0,0,0,0,
675,9.088,23.44,66.3,6.58,3.03,-22.33,20.24,60.02,-13.25,-21.86,14.92,-2.218,-3.388,-8.16,6.772,21.74,0,0,0,0,0,0,0,0,0,0,0,0,0,0,0,0,
676,-0.8838,21.4,72.61,-2.181,-7.299,-17.28,16.15,58.66,-18.27,-1.676,15.52,21.65,-4.062,9.907,16.49,27.37,0,0,0,0,0,0,0,0,0,0,0,0,0,0,0,0,
677,-1.337,6.722,67.34,-11.46,-17.27,-16.08,7.817,63.52,-19.96,14.69,15.62,40.91,-7.673,24.46,10.61,18.43,0,0,0,0,0,0,0,0,0,0,0,0,0,0,0,0,
678,-8.941,0.1207,64.31,-50.55,-13.55,-20.31,-7.506,68.44,-20.29,20.76,3.439,40.47,-25.66,17.2,-12.24,5.791,0,0,0,0,0,0,0,0,0,0,0,0,0,0,0,0,
679,-14.15,9.779,57.75,-64.24,-12.45,-31.9,-29.66,68.52,-30.38,13.86,-12.7,37.05,-38.58,5.861,-16.17,12.33,0,0,0,0,0,0,0,0,0,0,0,0,0,0,0,0,
680,-10.01,5.148,22.51,-9.052,-17.92,-39.93,-43.5,68.97,-35.54,0.9095,-23.65,39.22,-39.2,6.241,-9.659,21.51,0,0,0,0,0,0,0,0,0,0,0,0,0,0,0,0,
681,-18.41,-11.28,-2.868,11.96,-21.0,-29.49,-46.67,62.35,-34.2,-7.165,-30.0,28.76,-47.49,0.9926,-18.68,14.73,0,0,0,0,0,0,0,0,0,0,0,0,0,0,0,0,
682,-17.58,1.028,24.02,-7.905,-16.84,-12.41,-43.76,51.45,-34.23,-7.958,-26.87,14.73,-50.49,-5.087,-25.96,11.77,0,0,0,0,0,0,0,0,0,0,0,0,0,0,0,0,
683,25.07,46.72,62.2,31.37,6.721,0.5879,-29.34,56.76,-15.99,-2.342,-30.4,9.913,-41.63,-6.739,-31.87,9.058,0,0,0,0,0,0,0,0,0,0,0,0,0,0,0,0,
684,59.58,79.5,74.35,55.22,40.6,19.28,-15.05,78.86,12.88,4.548,-50.44,4.391,-46.29,-16.71,-45.36,-6.925,0,0,0,0,0,0,0,0,0,0,0,0,0,0,0,0,
685,58.45,82.06,86.43,-3.74,53.32,35.02,-14.0,90.27,19.51,7.875,-59.87,-0.9248,-55.89,-24.2,-48.34,-19.47,0,0,0,0,0,0,0,0,0,0,0,0,0,0,0,0,
686,60.15,78.36,95.41,-27.47,42.96,18.36,-19.91,72.97,9.341,0.4978,-64.95,-14.44,-61.7,-35.91,-54.33,-34.79,0,0,0,0,0,0,0,0,0,0,0,0,0,0,0,0,
687,49.25,63.88,67.28,15.92,25.57,-22.23,-27.38,45.29,-4.229,-30.02,-77.67,-39.91,-73.56,-64.28,-67.9,-57.29,0,0,0,0,0,0,0,0,0,0,0,0,0,0,0,0,
688,20.5,45.5,36.28,45.76,6.793,-38.41,-31.24,37.56,-16.01,-61.82,-63.2,-42.58,-62.34,-71.47,-48.75,-52.17,0,0,0,0,0,0,0,0,0,0,0,0,0,0,0,0,
689,31.47,57.71,47.68,48.33,1.385,-19.77,-26.52,48.45,-12.9,-56.67,-30.84,-18.43,-20.89,-47.5,-6.421,-18.64,0,0,0,0,0,0,0,0,0,0,0,0,0,0,0,0,
690,58.57,74.59,69.99,28.84,17.5,5.265,-15.1,53.53,2.131,-28.54,-18.15,-3.908,6.508,-27.48,18.19,7.508,0,0,0,0,0,0,0,0,0,0,0,0,0,0,0,0,
691,48.86,73.68,82.14,6.633,34.8,26.58,0.11,53.92,18.56,-9.414,-6.642,-1.795,17.29,-11.43,34.15,20.93,0,0,0,0,0,0,0,0,0,0,0,0,0,0,0,0,
692,52.58,88.56,106.7,23.7,53.04,37.18,20.2,66.86,39.47,8.381,27.71,13.4,47.95,19.0,68.44,49.59,0,0,0,0,0,0,0,0,0,0,0,0,0,0,0,0,
693,86.59,92.36,123.7,46.37,86.73,38.55,50.02,75.21,75.17,40.22,76.09,47.47,94.24,57.94,111.5,96.19,0,0,0,0,0,0,0,0,0,0,0,0,0,0,0,0,
694,79.51,54.46,108.3,40.88,95.86,56.0,67.97,61.87,113.5,67.92,94.04,63.94,101.9,69.46,109.9,99.51,0,0,0,0,0,0,0,0,0,0,0,0,0,0,0,0,
695,44.17,41.29,91.57,58.0,50.75,69.43,39.99,58.17,107.0,60.46,43.51,34.35,49.54,30.17,50.5,39.13,0,0,0,0,0,0,0,0,0,0,0,0,0,0,0,0,
696,43.36,67.81,79.52,105.2,5.58,42.14,-8.992,75.75,56.12,26.69,-14.54,5.328,1.955,-9.07,9.182,-0.9664,0,0,0,0,0,0,0,0,0,0,0,0,0,0,0,0,
697,40.11,61.02,43.74,111.4,-6.81,17.6,-31.24,77.99,25.42,9.115,-12.38,20.0,8.148,1.474,19.27,15.61,0,0,0,0,0,0,0,0,0,0,0,0,0,0,0,0,
698,1.797,18.25,6.872,65.44,-13.15,32.4,-27.82,65.11,32.77,26.34,11.56,47.26,35.28,33.78,36.69,43.93,0,0,0,0,0,0,0,0,0,0,0,0,0,0,0,0,
699,-23.91,-7.075,-2.649,41.58,-12.43,42.62,-13.39,68.33,54.15,61.76,24.93,63.75,58.6,59.42,56.81,72.94,0,0,0,0,0,0,0,0,0,0,0,0,0,0,0,0,
700,-29.6,-4.905,-4.737,60.41,2.005,34.2,2.895,80.73,81.87,86.47,40.56,75.44,78.79,76.39,81.76,92.07,0,0,0,0,0,0,0,0,0,0,0,0,0,0,0,0,
701,-33.05,7.421,-4.258,56.8,2.541,36.37,5.527,86.73,95.58,84.83,41.38,73.9,75.63,73.7,78.11,79.37,0,0,0,0,0,0,0,0,0,0,0,0,0,0,0,0,
702,-22.01,10.04,7.744,32.85,-18.84,32.7,-1.54,85.28,80.07,70.15,20.76,62.29,48.15,56.38,56.63,65.01,0,0,0,0,0,0,0,0,0,0,0,0,0,0,0,0,
703,-24.9,-12.02,6.601,38.95,-43.9,4.077,-8.837,65.19,53.56,51.61,2.845,52.6,24.65,36.67,46.1,61.15,0,0,0,0,0,0,0,0,0,0,0,0,0,0,0,0,
704,-56.0,-39.62,-18.51,23.08,-65.13,-18.51,-20.55,39.4,31.16,23.38,-6.256,43.85,15.56,17.65,37.89,44.75,0,0,0,0,0,0,0,0,0,0,0,0,0,0,0,0,
705,-60.41,-40.53,-34.1,-40.89,-71.96,-5.222,-23.44,42.03,22.6,7.027,-6.0,44.9,19.12,19.38,33.34,36.59,0,0,0,0,0,0,0,0,0,0,0,0,0,0,0,0,
706,-36.83,-23.65,-25.76,-54.79,-48.6,33.83,-6.16,53.08,36.33,28.12,2.146,53.96,30.64,42.58,37.78,47.03,0,0,0,0,0,0,0,0,0,0,0,0,0,0,0,0,
707,-30.57,-14.83,-25.74,6.478,-17.58,55.42,5.945,39.59,50.2,58.87,1.875,50.65,31.86,52.49,38.29,46.65,0,0,0,0,0,0,0,0,0,0,0,0,0,0,0,0,
708,-33.83,-13.95,-45.6,63.63,-21.21,36.37,-1.369,33.13,39.44,63.39,-2.599,42.09,18.97,47.97,41.33,39.68,0,0,0,0,0,0,0,0,0,0,0,0,0,0,0,0,
709,-39.68,-21.34,-53.13,71.45,-52.79,13.67,-10.94,49.92,21.46,55.56,1.275,37.56,10.32,47.54,51.83,36.68,0,0,0,0,0,0,0,0,0,0,0,0,0,0,0,0,
710,-57.06,-31.04,-41.4,44.71,-72.59,13.79,-17.0,50.63,16.97,50.95,1.034,27.96,14.67,42.0,56.53,31.41,0,0,0,0,0,0,0,0,0,0,0,0,0,0,0,0,
711,-56.97,-26.52,-32.19,41.87,-66.28,11.81,-16.96,39.93,19.89,41.73,2.763,31.81,29.31,38.92,66.92,42.51,0,0,0,0,0,0,0,0,0,0,0,0,0,0,0,0,
712,-34.47,-36.86,-27.71,66.94,-48.36,5.951,4.473,55.03,29.5,39.48,33.01,60.51,47.82,58.36,97.78,73.17,0,0,0,0,0,0,0,0,0,0,0,0,0,0,0,0,
713,-21.58,-55.87,-18.51,60.04,-30.17,33.34,51.04,85.6,49.81,57.66,85.38,89.33,71.03,87.77,139.0,104.2,0,0,0,0,0,0,0,0,0,0,0,0,0,0,0,0,
714,-3.354,-1.12,5.753,57.55,-2.187,88.8,103.2,112.0,79.08,87.8,130.3,114.5,107.7,113.2,174.5,134.2,0,0,0,0,0,0,0,0,0,0,0,0,0,0,0,0,
715,33.63,82.47,28.99,102.0,23.74,106.5,117.6,130.0,111.0,120.0,139.4,130.9,132.8,127.0,179.9,141.6,0,0,0,0,0,0,0,0,0,0,0,0,0,0,0,0,
716,44.77,71.59,10.56,117.7,8.592,69.54,76.1,123.8,116.7,131.3,106.9,112.7,117.9,115.2,151.3,112.5,0,0,0,0,0,0,0,0,0,0,0,0,0,0,0,0,
717,11.85,16.97,-33.7,71.53,-34.83,46.31,22.71,96.44,84.58,105.1,61.41,77.09,86.75,86.96,115.0,83.54,0,0,0,0,0,0,0,0,0,0,0,0,0,0,0,0,
718,-36.75,3.797,-66.42,8.918,-66.1,51.02,-14.81,72.86,43.36,64.32,17.91,52.64,53.3,58.56,76.65,59.99,0,0,0,0,0,0,0,0,0,0,0,0,0,0,0,0,
719,-71.02,-2.985,-95.96,-24.89,-83.96,33.56,-45.75,57.82,5.355,30.74,-20.31,31.59,15.15,34.99,42.58,27.72,0,0,0,0,0,0,0,0,0,0,0,0,0,0,0,0,
720,-69.44,-11.9,-114.0,-6.817,-87.73,15.47,-59.13,39.37,-21.21,11.79,-34.44,16.19,1.415,21.97,30.96,15.57,0,0,0,0,0,0,0,0,0,0,0,0,0,0,0,0,
721,-61.73,-13.44,-111.9,-5.78,-82.37,26.87,-60.0,14.53,-19.77,12.0,-36.88,12.49,4.201,13.79,22.45,22.28,0,0,0,0,0,0,0,0,0,0,0,0,0,0,0,0,
722,-83.37,-37.16,-111.4,-57.71,-89.97,20.52,-65.51,1.039,-15.39,12.53,-47.26,6.766,-10.81,7.877,6.405,16.04,0,0,0,0,0,0,0,0,0,0,0,0,0,0,0,0,
723,-90.19,-57.43,-104.9,-57.92,-94.67,-13.98,-57.81,11.42,-25.09,4.371,-46.08,-0.0543,-18.82,13.45,7.458,8.561,0,0,0,0,0,0,0,0,0,0,0,0,0,0,0,0,
724,-65.88,-47.25,-96.42,-6.722,-81.8,-24.8,-39.05,15.58,-22.38,5.93,-29.78,0.7986,0.1426,19.92,24.85,14.46,0,0,0,0,0,0,0,0,0,0,0,0,0,0,0,0,
725,-67.14,-43.78,-105.8,-12.18,-76.34,-5.24,-29.63,-4.826,-8.04,16.66,-14.33,3.816,20.69,19.85,44.46,21.67,0,0,0,0,0,0,0,0,0,0,0,0,0,0,0,0,
726,-90.27,-55.24,-104.6,-31.52,-86.17,4.418,-22.62,-11.35,-5.886,23.55,-2.272,4.242,31.78,21.21,57.57,22.21,0,0,0,0,0,0,0,0,0,0,0,0,0,0,0,0,
727,-99.21,-65.75,-95.05,-11.99,-104.2,-11.48,-26.87,5.97,-19.43,23.86,-1.932,1.139,30.16,14.44,49.35,13.37,0,0,0,0,0,0,0,0,0,0,0,0,0,0,0,0,
728,-113.0,-86.47,-111.8,-44.27,-127.1,-33.14,-51.41,7.251,-42.97,16.17,-11.69,-3.949,12.96,-0.3071,31.88,3.472,0,0,0,0,0,0,0,0,0,0,0,0,0,0,0,0,
729,-136.2,-111.3,-133.6,-126.3,-141.5,-54.67,-67.81,-7.587,-62.93,6.321,-17.59,-5.77,-3.211,-5.867,24.93,3.715,0,0,0,0,0,0,0,0,0,0,0,0,0,0,0,0,
730,-144.8,-120.4,-151.8,-135.7,-149.5,-89.17,-70.35,-13.52,-69.74,-0.9057,-23.33,-5.886,-9.494,-8.729,20.83,6.709,0,0,0,0,0,0,0,0,0,0,0,0,0,0,0,0,
731,-142.0,-116.8,-169.6,-81.09,-157.7,-112.6,-74.87,-20.4,-72.63,-9.339,-27.33,-8.669,-6.871,-15.15,22.16,9.712,0,0,0,0,0,0,0,0,0,0,0,0,0,0,0,0,
732,-134.4,-108.9,-147.0,-58.41,-152.2,-93.99,-70.32,-36.1,-72.83,-13.64,-24.17,-12.79,3.312,-16.25,31.44,15.44,0,0,0,0,0,0,0,0,0,0,0,0,0,0,0,0,
733,-123.2,-105.9,-107.7,-62.43,-140.1,-68.2,-59.21,-44.08,-66.98,-14.37,-30.02,-15.82,0.4138,-17.57,27.57,14.43,0,0,0,0,0,0,0,0,0,0,0,0,0,0,0,0,
734,-122.8,-112.7,-115.5,-49.85,-144.3,-72.46,-68.97,-36.65,-69.93,-26.52,-46.22,-14.99,-23.5,-20.9,13.88,10.39,0,0,0,0,0,0,0,0,0,0,0,0,0,0,0,0,
735,-130.0,-114.9,-141.2,-45.0,-158.2,-84.17,-97.7,-27.61,-86.68,-45.61,-55.35,-14.22,-44.27,-20.93,6.81,9.63,0,0,0,0,0,0,0,0,0,0,0,0,0,0,0,0,
736,-133.3,-112.6,-146.8,-89.04,-170.2,-95.56,-118.8,-37.76,-103.0,-58.06,-58.99,-25.17,-54.28,-30.65,-0.8189,0.8097,0,0,0,0,0,0,0,0,0,0,0,0,0,0,0,0,
737,-141.2,-121.5,-148.3,-145.1,-176.3,-121.3,-117.0,-62.17,-112.9,-68.36,-56.9,-42.21,-58.19,-48.14,-3.922,-7.613,0,0,0,0,0,0,0,0,0,0,0,0,0,0,0,0,
738,-148.8,-130.7,-141.8,-131.3,-172.8,-136.5,-102.6,-78.21,-117.8,-76.16,-42.9,-50.03,-53.9,-54.91,1.954,-5.342,0,0,0,0,0,0,0,0,0,0,0,0,0,0,0,0,
739,-142.7,-126.6,-132.2,-78.7,-171.3,-127.6,-102.0,-91.99,-125.3,-79.33,-33.01,-54.53,-57.22,-62.11,-2.569,-13.55,0,0,0,0,0,0,0,0,0,0,0,0,0,0,0,0,
740,-128.7,-114.1,-140.6,-80.34,-164.4,-119.4,-113.5,-107.7,-141.5,-86.63,-31.79,-58.86,-67.32,-73.39,-5.53,-25.88,0,0,0,0,0,0,0,0,0,0,0,0,0,0,0,0,
741,-107.8,-99.2,-147.6,-95.1,-136.9,-110.7,-111.0,-105.3,-146.3,-87.23,-24.81,-53.5,-57.78,-65.71,12.29,-14.67,0,0,0,0,0,0,0,0,0,0,0,0,0,0,0,0,
742,-93.73,-94.13,-137.0,-71.54,-126.0,-93.36,-102.4,-98.47,-132.4,-75.33,-19.11,-51.4,-42.38,-53.48,22.79,-0.9423,0,0,0,0,0,0,0,0,0,0,0,0,0,0,0,0,
743,-105.1,-96.01,-121.1,-89.93,-145.0,-87.03,-103.5,-108.9,-126.5,-76.97,-19.33,-60.98,-45.33,-61.27,14.66,-6.032,0,0,0,0,0,0,0,0,0,0,0,0,0,0,0,0,
744,-113.4,-91.99,-108.7,-156.9,-141.5,-99.67,-101.6,-116.2,-126.8,-88.85,-15.81,-59.76,-50.17,-65.56,10.56,-7.285,0,0,0,0,0,0,0,0,0,0,0,0,0,0,0,0,
745,-104.7,-92.15,-103.0,-160.4,-111.0,-111.1,-92.75,-112.2,-112.1,-83.43,-11.93,-44.77,-42.58,-52.98,11.13,2.434,0,0,0,0,0,0,0,0,0,0,0,0,0,0,0,0,
746,-104.4,-90.76,-91.27,-113.2,-91.14,-101.3,-86.42,-107.3,-90.84,-70.59,-8.941,-38.74,-30.12,-49.85,11.16,4.422,0,0,0,0,0,0,0,0,0,0,0,0,0,0,0,0,
747,-104.5,-81.75,-70.31,-118.9,-84.74,-83.79,-84.36,-97.09,-79.11,-70.03,-8.805,-45.6,-26.01,-61.36,11.85,-4.232,0,0,0,0,0,0,0,0,0,0,0,0,0,0,0,0,
748,-90.57,-83.3,-66.38,-138.8,-83.43,-80.19,-80.94,-86.73,-82.1,-75.77,-16.99,-48.12,-30.31,-59.67,11.01,-8.741,0,0,0,0,0,0,0,0,0,0,0,0,0,0,0,0,
749,-72.66,-76.06,-76.91,-95.38,-76.52,-69.84,-67.08,-81.1,-86.78,-69.37,-19.3,-33.56,-22.69,-36.66,17.05,-1.095,0,0,0,0,0,0,0,0,0,0,0,0,0,0,0,0,
750,-56.1,-52.93,-78.8,-60.37,-51.24,-37.25,-53.57,-69.58,-71.3,-43.8,-15.9,-16.22,-7.581,-20.8,22.22,3.038,0,0,0,0,0,0,0,0,0,0,0,0,0,0,0,0,
751,-45.66,-43.14,-61.84,-78.37,-23.78,-4.854,-51.94,-58.36,-46.98,-21.39,-21.97,-18.58,-9.704,-25.57,8.258,-8.679,0,0,0,0,0,0,0,0,0,0,0,0,0,0,0,0,
752,-31.92,-31.65,-26.44,-65.82,-17.01,13.97,-44.34,-50.78,-39.15,-18.97,-24.49,-30.49,-21.02,-29.61,-4.895,-19.8,0,0,0,0,0,0,0,0,0,0,0,0,0,0,0,0,
753,-19.39,-24.79,-16.51,-12.67,-26.45,14.75,-29.16,-34.33,-43.69,-20.45,-15.72,-31.76,-24.32,-24.1,0.4018,-18.42,0,0,0,0,0,0,0,0,0,0,0,0,0,0,0,0,
754,-35.53,-38.89,-43.17,19.01,-26.58,9.619,-23.62,-19.51,-42.73,-11.44,-4.469,-23.29,-18.43,-15.59,8.823,-10.0,0,0,0,0,0,0,0,0,0,0,0,0,0,0,0,0,
755,-44.81,-29.73,-30.19,20.93,-7.616,24.6,-24.91,-18.05,-29.77,7.122,11.36,-11.89,-8.013,-2.305,17.31,-0.3247,0,0,0,0,0,0,0,0,0,0,0,0,0,0,0,0,
756,-19.58,-25.62,12.71,-5.74,0.2142,34.63,-35.11,-18.29,-17.52,21.96,22.65,-7.745,-6.571,6.391,25.16,-2.023,0,0,0,0,0,0,0,0,0,0,0,0,0,0,0,0,
757,-23.24,-60.6,-4.348,-47.64,-23.0,11.02,-58.69,-23.07,-19.61,12.23,20.31,-17.73,-14.56,-0.1022,18.08,-19.82,0,0,0,0,0,0,0,0,0,0,0,0,0,0,0,0,
758,-58.49,-47.49,-49.58,-64.6,-48.53,-11.3,-73.62,-37.98,-28.31,-13.57,19.1,-28.44,-15.53,-6.302,4.772,-35.57,0,0,0,0,0,0,0,0,0,0,0,0,0,0,0,0,
759,-54.88,3.626,-54.8,-47.27,-43.17,-7.273,-60.83,-41.53,-28.36,-19.59,26.58,-25.17,-5.288,4.758,4.488,-36.08,0,0,0,0,0,0,0,0,0,0,0,0,0,0,0,0,
760,-27.05,0.3902,-45.93,-3.695,-12.19,7.322,-37.5,-29.38,-12.98,2.47,33.58,-12.14,7.9,22.21,10.93,-30.14,0,0,0,0,0,0,0,0,0,0,0,0,0,0,0,0,
761,-26.49,-14.47,-37.18,35.09,8.684,14.87,-40.59,-28.67,1.899,18.39,27.41,-7.185,4.489,18.15,4.629,-40.48,0,0,0,0,0,0,0,0,0,0,0,0,0,0,0,0,
762,-39.14,-5.593,-24.55,36.06,0.4153,5.259,-71.04,-39.72,-11.55,3.52,4.47,-18.72,-26.08,-10.24,-19.77,-71.85,0,0,0,0,0,0,0,0,0,0,0,0,0,0,0,0,
763,-35.84,-13.99,-36.2,36.92,-16.37,-7.029,-86.82,-30.98,-40.81,-17.98,-14.52,-29.64,-53.28,-29.24,-42.27,-91.92,0,0,0,0,0,0,0,0,0,0,0,0,0,0,0,0,
764,-22.89,-16.59,-43.0,49.36,-19.55,0.7428,-76.34,-4.429,-49.78,-19.8,-13.45,-27.2,-51.59,-22.81,-45.0,-88.28,0,0,0,0,0,0,0,0,0,0,0,0,0,0,0,0,
765,-21.09,-1.455,-10.12,29.11,-10.59,17.51,-67.79,-0.343,-41.24,-13.41,-7.957,-19.67,-42.36,-12.32,-39.21,-87.45,0,0,0,0,0,0,0,0,0,0,0,0,0,0,0,0,
766,-29.08,-11.26,-0.9756,12.73,-4.42,15.4,-70.59,-20.4,-39.91,-9.32,-12.33,-15.06,-46.5,-16.83,-35.84,-94.28,0,0,0,0,0,0,0,0,0,0,0,0,0,0,0,0,
767,-27.23,-28.73,-34.01,29.96,-8.914,-9.973,-76.21,-30.38,-52.25,-9.971,-20.6,-24.18,-57.25,-39.02,-34.26,-100.1,0,0,0,0,0,0,0,0,0,0,0,0,0,0,0,0,
768,-20.67,-22.0,-41.89,20.52,-10.35,-26.96,-80.72,-35.81,-67.01,-25.67,-27.66,-43.64,-65.01,-63.07,-39.95,-107.8,0,0,0,0,0,0,0,0,0,0,0,0,0,0,0,0,
769,-25.74,-16.49,-27.35,2.205,-1.122,-15.57,-78.14,-46.92,-69.29,-41.95,-33.95,-41.58,-64.85,-65.92,-46.88,-107.3,0,0,0,0,0,0,0,0,0,0,0,0,0,0,0,0,
770,-28.82,-16.87,-21.58,30.53,2.213,-14.83,-69.11,-41.4,-60.82,-36.91,-41.76,-22.82,-62.32,-59.93,-50.22,-102.8,0,0,0,0,0,0,0,0,0,0,0,0,0,0,0,0,
771,-21.29,-5.972,-17.07,36.0,-11.51,-50.13,-71.69,-36.64,-62.74,-32.46,-59.7,-28.2,-75.68,-74.48,-66.19,-115.3,0,0,0,0,0,0,0,0,0,0,0,0,0,0,0,0,
772,-24.21,-13.48,-32.11,-25.2,-34.59,-80.78,-90.93,-55.69,-83.28,-53.1,-84.46,-47.71,-98.39,-98.89,-84.32,-128.8,0,0,0,0,0,0,0,0,0,0,0,0,0,0,0,0,
773,-42.55,-46.97,-56.26,-53.56,-52.66,-87.94,-101.4,-57.88,-101.0,-78.88,-92.52,-48.2,-100.6,-107.1,-77.11,-125.4,0,0,0,0,0,0,0,0,0,0,0,0,0,0,0,0,
774,-60.64,-58.1,-48.57,3.482,-62.7,-97.72,-95.92,-35.68,-102.1,-87.43,-78.55,-40.34,-87.53,-101.1,-60.15,-116.7,0,0,0,0,0,0,0,0,0,0,0,0,0,0,0,0,
775,-74.42,-51.62,-43.63,45.48,-71.92,-113.1,-96.61,-39.39,-100.6,-86.54,-66.66,-36.38,-86.48,-93.42,-56.96,-102.9,0,0,0,0,0,0,0,0,0,0,0,0,0,0,0,0,
776,-87.09,-67.93,-66.51,-9.788,-74.21,-125.8,-101.2,-65.93,-100.8,-86.54,-70.13,-26.59,-94.58,-90.02,-60.15,-85.02,0,0,0,0,0,0,0,0,0,0,0,0,0,0,0,0,
777,-100.3,-89.92,-75.2,-82.0,-69.44,-136.1,-97.87,-75.18,-98.42,-83.21,-79.96,-17.86,-99.44,-90.69,-63.82,-81.96,0,0,0,0,0,0,0,0,0,0,0,0,0,0,0,0,
778,-108.4,-94.18,-67.03,-72.88,-77.26,-136.0,-99.78,-72.04,-103.0,-75.92,-87.69,-23.13,-100.5,-90.33,-68.37,-92.92,0,0,0,0,0,0,0,0,0,0,0,0,0,0,0,0,
779,-97.67,-89.39,-57.36,-39.27,-85.84,-129.6,-104.3,-77.19,-107.9,-72.45,-87.87,-32.02,-90.96,-85.61,-62.73,-97.34,0,0,0,0,0,0,0,0,0,0,0,0,0,0,0,0,
780,-72.06,-75.06,-42.18,-48.27,-63.42,-119.8,-93.33,-77.28,-89.96,-64.8,-72.91,-31.54,-64.58,-73.18,-39.15,-83.38,0,0,0,0,0,0,0,0,0,0,0,0,0,0,0,0,
781,-51.23,-52.31,-46.79,-40.91,-27.04,-90.68,-77.99,-59.75,-55.15,-38.23,-51.8,-26.23,-34.89,-53.33,-12.85,-60.7,0,0,0,0,0,0,0,0,0,0,0,0,0,0,0,0,
782,-39.81,-39.94,-64.36,7.555,-8.134,-60.68,-75.09,-46.88,-27.85,-8.646,-45.33,-21.09,-23.7,-36.09,-6.336,-51.48,0,0,0,0,0,0,0,0,0,0,0,0,0,0,0,0,
783,-30.04,-43.71,-46.05,30.31,4.162,-56.25,-74.48,-50.11,-10.37,3.612,-48.68,-16.61,-31.72,-28.9,-17.78,-58.67,0,0,0,0,0,0,0,0,0,0,0,0,0,0,0,0,
784,-25.63,-41.06,-13.09,15.32,18.39,-55.42,-64.1,-53.89,6.636,10.66,-44.56,-19.23,-40.67,-33.05,-27.69,-66.16,0,0,0,0,0,0,0,0,0,0,0,0,0,0,0,0,
785,-32.25,-21.82,-7.032,-3.08,23.61,-42.26,-46.89,-53.27,19.27,21.45,-34.46,-22.72,-38.3,-38.16,-23.61,-61.15,0,0,0,0,0,0,0,0,0,0,0,0,0,0,0,0,
786,-28.63,-12.29,-2.268,-31.28,28.5,-32.12,-31.65,-44.98,26.24,28.62,-24.95,-12.29,-25.2,-25.77,-7.75,-44.59,0,0,0,0,0,0,0,0,0,0,0,0,0,0,0,0,
787,-1.32,-16.11,11.57,-56.94,36.62,-26.9,-25.5,-30.78,35.41,35.53,-23.08,-3.175,-15.07,-9.751,1.084,-39.55,0,0,0,0,0,0,0,0,0,0,0,0,0,0,0,0,
788,13.29,-9.986,6.989,-28.41,36.17,-13.43,-24.25,-29.28,40.26,43.48,-27.53,-12.86,-18.44,-15.15,-6.755,-54.39,0,0,0,0,0,0,0,0,0,0,0,0,0,0,0,0,
789,-2.028,-2.051,-6.291,29.7,34.13,1.811,-22.94,-32.72,32.89,41.86,-23.01,-23.08,-24.29,-24.38,-15.38,-61.28,0,0,0,0,0,0,0,0,0,0,0,0,0,0,0,0,
790,-11.52,2.712,-7.543,41.95,29.81,-9.085,-31.2,-25.91,21.32,30.16,-20.44,-21.1,-27.14,-20.34,-18.59,-54.57,0,0,0,0,0,0,0,0,0,0,0,0,0,0,0,0,
791,-10.12,5.066,-10.22,31.09,19.26,-31.06,-45.53,-25.4,14.07,24.88,-36.87,-16.38,-32.28,-16.73,-22.33,-52.78,0,0,0,0,0,0,0,0,0,0,0,0,0,0,0,0,
792,-19.44,-20.54,-25.4,47.38,26.33,-19.85,-47.0,-32.65,17.85,33.4,-51.4,-15.68,-31.8,-18.36,-21.09,-53.54,0,0,0,0,0,0,0,0,0,0,0,0,0,0,0,0,
793,-14.74,-38.1,-31.2,49.52,43.72,-6.519,-38.37,-32.48,28.22,36.34,-50.37,-25.18,-23.22,-21.22,-13.24,-53.01,0,0,0,0,0,0,0,0,0,0,0,0,0,0,0,0,
794,21.45,4.88,-3.764,17.38,41.66,-32.07,-30.51,-31.55,28.81,27.17,-43.32,-39.77,-17.21,-25.7,-5.58,-54.43,0,0,0,0,0,0,0,0,0,0,0,0,0,0,0,0,
795,37.64,36.81,28.47,-1.599,38.53,-55.63,-24.9,-38.53,18.6,23.31,-37.0,-42.12,-21.4,-31.58,-5.752,-55.11,0,0,0,0,0,0,0,0,0,0,0,0,0,0,0,0,
796,8.921,7.807,19.54,11.94,45.21,-56.61,-24.49,-49.14,0.865,17.09,-40.86,-36.4,-34.8,-37.9,-16.74,-55.99,0,0,0,0,0,0,0,0,0,0,0,0,0,0,0,0,
797,-8.809,-6.933,-7.429,49.33,39.18,-59.2,-21.38,-49.86,-20.18,-2.319,-45.26,-36.48,-37.14,-37.94,-19.37,-52.93,0,0,0,0,0,0,0,0,0,0,0,0,0,0,0,0,
798,4.331,9.356,-9.726,83.01,28.13,-62.14,-12.28,-37.44,-25.7,-17.0,-35.16,-41.29,-23.19,-36.37,-7.179,-48.36,0,0,0,0,0,0,0,0,0,0,0,0,0,0,0,0,
799,0.2422,2.928,-7.492,74.85,19.64,-71.49,-17.62,-40.8,-24.27,-28.14,-34.59,-50.0,-28.04,-49.8,-11.69,-60.42,0,0,0,0,0,0,0,0,0,0,0,0,0,0,0,0,
800,-30.74,-20.58,-23.29,35.41,-5.565,-98.75,-35.02,-62.51,-44.21,-51.05,-47.44,-57.29,-51.84,-64.86,-29.59,-75.98,0,0,0,0,0,0,0,0,0,0,0,0,0,0,0,0,
801,-55.03,-36.3,-36.12,-7.25,-33.17,-118.9,-37.9,-57.55,-66.45,-68.26,-37.41,-49.62,-48.97,-55.45,-22.73,-68.55,0,0,0,0,0,0,0,0,0,0,0,0,0,0,0,0,
802,-55.62,-40.62,-31.83,-37.8,-35.6,-111.9,-33.9,-31.08,-61.4,-57.59,-19.06,-34.56,-27.18,-34.39,-9.012,-56.47,0,0,0,0,0,0,0,0,0,0,0,0,0,0,0,0,
803,-36.78,-35.67,-18.65,-24.44,-32.63,-93.92,-44.38,-31.68,-54.88,-37.23,-32.03,-30.36,-31.91,-30.53,-22.14,-59.31,0,0,0,0,0,0,0,0,0,0,0,0,0,0,0,0,
804,-21.72,-34.26,-5.506,16.4,-45.52,-90.11,-53.98,-46.76,-75.81,-40.22,-54.22,-34.96,-51.87,-42.89,-38.16,-65.61,0,0,0,0,0,0,0,0,0,0,0,0,0,0,0,0,
805,-28.52,-34.32,-1.228,8.397,-58.44,-103.2,-49.77,-42.67,-100.9,-57.45,-60.63,-42.1,-56.34,-52.5,-39.63,-73.11,0,0,0,0,0,0,0,0,0,0,0,0,0,0,0,0,
806,-45.32,-33.57,-15.89,-41.62,-61.21,-114.9,-54.22,-40.03,-106.5,-58.82,-70.76,-47.14,-57.44,-52.86,-42.22,-78.56,0,0,0,0,0,0,0,0,0,0,0,0,0,0,0,0,
807,-55.2,-43.43,-42.04,-45.54,-55.84,-114.2,-69.36,-49.94,-102.7,-48.93,-83.22,-36.4,-60.13,-45.89,-42.7,-68.67,0,0,0,0,0,0,0,0,0,0,0,0,0,0,0,0,
808,-49.66,-44.28,-45.64,-10.5,-43.62,-102.9,-65.86,-43.96,-95.43,-40.04,-79.53,-20.74,-50.27,-36.68,-36.8,-54.27,0,0,0,0,0,0,0,0,0,0,0,0,0,0,0,0,
809,-23.08,-23.77,-16.26,-12.42,-35.7,-85.08,-43.27,-27.8,-83.42,-30.25,-68.1,-27.42,-38.11,-35.72,-30.59,-45.2,0,0,0,0,0,0,0,0,0,0,0,0,0,0,0,0,
810,10.4,-10.87,1.869,-21.65,-29.12,-68.88,-25.12,-29.63,-69.57,-22.81,-56.81,-39.17,-29.22,-35.71,-18.04,-31.89,0,0,0,0,0,0,0,0,0,0,0,0,0,0,0,0,
811,17.48,-11.0,-9.906,13.0,-13.76,-59.85,-18.3,-30.4,-51.64,-13.45,-48.81,-26.7,-13.28,-18.49,-4.03,-20.58,0,0,0,0,0,0,0,0,0,0,0,0,0,0,0,0,
812,-0.625,-6.587,-10.9,32.1,-4.923,-53.47,-13.53,-7.816,-37.33,0.3131,-47.05,-4.85,3.841,8.229,8.136,-13.29,0,0,0,0,0,0,0,0,0,0,0,0,0,0,0,0,
813,-4.279,-0.0336,4.096,7.106,-5.197,-44.96,-2.783,9.576,-28.44,10.04,-37.82,6.077,17.12,25.2,29.5,-0.0347,0,0,0,0,0,0,0,0,0,0,0,0,0,0,0,0,
814,0.5691,0.365,3.603,-5.541,-1.438,-47.48,2.245,6.872,-10.33,20.92,-25.42,6.58,26.35,27.12,43.87,3.765,0,0,0,0,0,0,0,0,0,0,0,0,0,0,0,0,
815,-10.36,-5.551,3.534,-0.2971,-1.186,-68.14,-6.397,6.1,3.65,28.04,-22.68,2.514,29.33,20.08,42.53,-0.2913,0,0,0,0,0,0,0,0,0,0,0,0,0,0,0,0,
816,-6.612,-12.07,16.38,-15.55,-8.0,-77.67,-10.17,-1.817,-3.013,12.69,-13.02,2.529,31.31,14.89,48.29,15.78,0,0,0,0,0,0,0,0,0,0,0,0,0,0,0,0,
817,9.343,-17.24,9.265,-50.04,-22.73,-65.5,-12.75,-28.08,-16.98,-12.29,-5.784,2.085,21.62,8.383,48.52,26.67,0,0,0,0,0,0,0,0,0,0,0,0,0,0,0,0,
818,-3.098,-26.06,-15.5,-55.19,-48.3,-60.57,-31.42,-36.01,-36.33,-25.39,-26.6,-13.01,-3.091,-10.75,24.25,-4.579,0,0,0,0,0,0,0,0,0,0,0,0,0,0,0,0,
819,-21.05,-34.22,-27.69,-7.154,-58.61,-61.34,-40.15,-19.37,-53.78,-29.61,-44.44,-33.78,-7.612,-29.23,5.944,-39.13,0,0,0,0,0,0,0,0,0,0,0,0,0,0,0,0,
820,-19.34,-31.32,-18.43,22.42,-44.7,-52.85,-21.42,-12.36,-43.59,-27.85,-32.35,-38.72,13.78,-26.6,11.91,-30.92,0,0,0,0,0,0,0,0,0,0,0,0,0,0,0,0,
821,-14.34,-22.44,11.79,-5.888,-40.5,-54.65,-6.083,-10.13,-19.96,-22.5,-18.04,-28.58,27.12,-13.52,24.93,-3.818,0,0,0,0,0,0,0,0,0,0,0,0,0,0,0,0,
822,-14.57,-26.91,27.86,-22.86,-52.56,-66.34,-7.118,-3.283,-13.95,-27.39,-13.78,-22.38,27.88,-11.51,36.3,4.607,0,0,0,0,0,0,0,0,0,0,0,0,0,0,0,0,
823,-25.35,-39.03,7.706,-20.14,-52.89,-58.53,-3.504,-3.55,-16.7,-39.34,-1.128,-23.87,29.96,-13.92,47.53,4.524,0,0,0,0,0,0,0,0,0,0,0,0,0,0,0,0,
824,-30.61,-28.21,1.794,-35.08,-34.18,-37.27,8.015,1.512,-15.27,-38.54,16.54,-17.3,31.93,-3.895,56.67,16.18,0,0,0,0,0,0,0,0,0,0,0,0,0,0,0,0,
825,-16.71,-10.03,11.96,-24.38,-18.36,-25.53,11.35,12.64,-18.17,-28.0,15.63,-3.534,26.83,8.805,55.69,24.37,0,0,0,0,0,0,0,0,0,0,0,0,0,0,0,0,
826,-11.78,-19.08,-7.13,22.06,-21.64,-20.84,5.493,5.815,-23.09,-21.26,-7.317,-1.074,13.04,6.204,38.61,13.11,0,0,0,0,0,0,0,0,0,0,0,0,0,0,0,0,
827,-10.92,-28.85,-16.68,40.85,-28.55,-23.34,1.599,-9.385,-20.24,-15.33,-28.03,-9.11,4.363,-2.828,20.73,0.214,0,0,0,0,0,0,0,0,0,0,0,0,0,0,0,0,
828,3.973,-17.86,5.363,24.53,-20.5,-32.31,2.268,-8.416,-14.39,-7.25,-28.4,-12.14,13.18,2.274,22.83,3.656,0,0,0,0,0,0,0,0,0,0,0,0,0,0,0,0,
829,5.426,-10.28,6.349,19.5,-10.27,-26.35,2.275,4.714,-9.966,1.546,-19.25,-10.85,21.97,13.81,38.0,13.4,0,0,0,0,0,0,0,0,0,0,0,0,0,0,0,0,
830,-6.175,-9.646,-4.993,27.18,-15.36,-15.72,-2.747,10.49,-10.35,3.156,-16.01,-14.34,14.56,6.982,46.43,16.49,0,0,0,0,0,0,0,0,0,0,0,0,0,0,0,0,
831,-9.392,-7.088,3.023,4.217,-24.34,-22.35,-6.407,5.377,-21.09,-11.3,-15.98,-17.51,8.12,-5.171,46.25,18.36,0,0,0,0,0,0,0,0,0,0,0,0,0,0,0,0,
832,-6.954,-1.985,2.957,-17.05,-14.52,-9.209,1.288,9.197,-25.65,-13.88,-15.14,-15.91,15.81,8.222,43.65,21.25,0,0,0,0,0,0,0,0,0,0,0,0,0,0,0,0,
833,7.105,8.939,-7.658,39.52,4.939,31.5,7.993,21.19,-10.49,17.3,-16.64,-17.63,25.27,28.86,37.2,16.05,0,0,0,0,0,0,0,0,0,0,0,0,0,0,0,0,
834,20.04,9.515,-5.183,104.8,-2.862,34.61,-4.293,18.86,0.4363,39.21,-19.68,-19.88,27.47,24.18,29.19,7.566,0,0,0,0,0,0,0,0,0,0,0,0,0,0,0,0,
835,4.973,-9.176,-4.881,84.21,-37.2,-0.909,-24.45,11.78,-12.02,23.56,-20.96,-18.65,21.75,3.02,26.23,3.829,0,0,0,0,0,0,0,0,0,0,0,0,0,0,0,0,
836,-16.55,-23.51,-16.79,44.23,-56.28,-20.51,-34.52,8.123,-32.51,-1.237,-18.33,-28.45,7.068,-19.64,23.57,-3.906,0,0,0,0,0,0,0,0,0,0,0,0,0,0,0,0,
837,-18.6,-27.02,-26.22,34.27,-56.48,-31.23,-40.06,-10.67,-43.17,-24.76,-18.91,-45.42,-11.96,-40.8,12.83,-14.15,0,0,0,0,0,0,0,0,0,0,0,0,0,0,0,0,
838,-14.56,-32.19,-34.65,36.0,-63.12,-45.86,-50.98,-27.04,-48.94,-46.73,-31.57,-46.07,-28.08,-44.72,0.3206,-14.71,0,0,0,0,0,0,0,0,0,0,0,0,0,0,0,0,
839,-12.48,-30.49,-42.81,75.72,-62.35,-38.5,-60.69,-17.58,-59.68,-41.42,-40.34,-37.46,-34.72,-27.22,-5.253,-15.2,0,0,0,0,0,0,0,0,0,0,0,0,0,0,0,0,
840,-6.945,-17.47,-37.82,118.0,-47.91,-22.5,-64.1,-9.296,-67.15,-21.93,-37.81,-40.77,-34.8,-19.17,-8.342,-25.49,0,0,0,0,0,0,0,0,0,0,0,0,0,0,0,0,
841,-8.875,-18.89,-29.03,108.3,-54.38,-30.77,-67.71,-13.18,-69.28,-33.29,-46.19,-50.94,-41.62,-37.21,-10.42,-29.55,0,0,0,0,0,0,0,0,0,0,0,0,0,0,0,0,
842,-22.91,-35.32,-35.83,102.5,-74.2,-47.48,-68.82,-9.381,-78.41,-60.15,-59.55,-58.08,-50.61,-57.08,-10.13,-24.88,0,0,0,0,0,0,0,0,0,0,0,0,0,0,0,0,
843,-24.54,-29.87,-45.9,122.9,-68.99,-48.46,-62.31,-2.214,-87.58,-68.28,-58.6,-63.39,-46.57,-61.32,-12.63,-29.88,0,0,0,0,0,0,0,0,0,0,0,0,0,0,0,0,
844,-4.206,-16.26,-34.05,143.5,-47.42,-32.79,-50.89,9.237,-81.95,-67.49,-46.91,-53.92,-23.92,-44.0,4.368,-21.85,0,0,0,0,0,0,0,0,0,0,0,0,0,0,0,0,
845,27.05,-20.04,0.8137,186.9,-18.67,6.75,-16.52,40.6,-51.86,-43.34,-3.656,-9.4,28.58,11.61,71.29,41.71,0,0,0,0,0,0,0,0,0,0,0,0,0,0,0,0,
846,70.79,16.48,40.06,230.8,29.84,63.4,49.28,74.0,9.014,24.1,73.93,52.71,94.23,82.27,146.3,125.1,0,0,0,0,0,0,0,0,0,0,0,0,0,0,0,0,
847,107.0,99.36,58.2,238.8,69.61,95.21,91.44,86.54,62.12,78.58,111.0,85.38,114.1,107.5,160.5,150.8,0,0,0,0,0,0,0,0,0,0,0,0,0,0,0,0,
848,106.9,125.9,42.6,244.4,70.08,89.45,67.92,82.77,60.58,77.94,70.37,73.93,81.45,83.67,124.1,119.5,0,0,0,0,0,0,0,0,0,0,0,0,0,0,0,0,
849,87.05,87.43,15.4,251.2,54.7,83.77,20.32,62.76,33.77,60.76,14.29,44.32,53.16,55.91,89.05,85.36,0,0,0,0,0,0,0,0,0,0,0,0,0,0,0,0,
850,62.71,62.79,-11.06,233.5,43.1,82.37,-10.38,28.06,22.85,49.14,-9.228,15.75,47.1,35.99,70.67,63.18,0,0,0,0,0,0,0,0,0,0,0,0,0,0,0,0,
