%OpenBCI Raw EXG Data
%Number of channels = 16
%Sample Rate = 125 Hz
%Board = OpenBCI_GUI$BoardCytonSerialDaisy
Sample Index,EXG Channel 0,EXG Channel 1,EXG Channel 2,EXG Channel 3,EXG Channel 4,EXG Channel 5,EXG Channel 6,EXG Channel 7,EXG Channel 8,EXG Channel 9,EXG Channel 10,EXG Channel 11,EXG Channel 12,EXG Channel 13,EXG Channel 14,EXG Channel 15,Accel Channel 0,Accel Channel 1,Accel Channel 2,Other,Other,Other,Other,Other,Other,Other,Analog Channel 0,Analog Channel 1,Analog Channel 2,Timestamp,Other,Timestamp (Formatted),Annotations
1,0,0,0,0,-0,0,0,0,-0,0,0,0,-0,0,0,0,0,0,0,0,0,0,0,0,0,0,0,0,0,0,0,0,T0
2,86.91,82.41,74.08,67.92,114.1,69.19,91.52,58.71,117.6,69.36,139.4,109.9,93.38,86.26,115.2,103.2,0,0,0,0,0,0,0,0,0,0,0,0,0,0,0,0,
3,136.6,130.4,82.81,79.08,103.9,83.12,108.7,59.43,111.9,76.85,144.2,122.7,93.39,91.19,107,88.66,0,0,0,0,0,0,0,0,0,0,0,0,0,0,0,0,
4,112.4,115.8,48.78,38.85,59.44,47.76,74.02,22.71,46.37,43.87,63.46,73.62,48.34,63.84,29.21,29.28,0,0,0,0,0,0,0,0,0,0,0,0,0,0,0,0,
5,55.27,66.24,9.56,-2.637,31.67,9.884,31.04,-0.099,-14.06,8.966,-24.28,7.548,2.946,27.34,-49.93,-25.8,0,0,0,0,0,0,0,0,0,0,0,0,0,0,0,0,
6,18.97,36.28,-14.74,-13.74,-11.07,-5.082,6.768,-0.4807,-55.49,-8.062,-86.05,-51.19,-32.22,-17.78,-116.3,-79.65,0,0,0,0,0,0,0,0,0,0,0,0,0,0,0,0,
7,-7.748,27.64,-13.68,-13.38,-30.12,-13.3,1.564,-5.265,-71.22,-11.04,-117.2,-80.57,-43.52,-34.49,-159.7,-102.4,0,0,0,0,0,0,0,0,0,0,0,0,0,0,0,0,
8,-30.66,17.87,-14.48,-20.54,-13.78,-20.68,-5.184,-17.8,-96.76,-18.05,-147.8,-97.94,-55.47,-38.09,-186.7,-111.8,0,0,0,0,0,0,0,0,0,0,0,0,0,0,0,0,
9,-33.78,16.16,-26.2,-15.9,-14,-8.734,3.001,-18.85,-118.8,-16.57,-162.3,-104.1,-70.12,-51.21,-191.1,-126.4,0,0,0,0,0,0,0,0,0,0,0,0,0,0,0,0,
10,-25.84,22.93,-12.39,2.393,-30.75,9.4,27.47,-13.32,-93.88,-9.315,-143,-91.98,-70.74,-61.78,-176.6,-130.1,0,0,0,0,0,0,0,0,0,0,0,0,0,0,0,0,
11,-22.81,16.68,17.45,8.794,-26.65,9.331,28.18,-6.217,-68.35,-24.53,-137.2,-88.31,-81.91,-81.96,-175,-136.5,0,0,0,0,0,0,0,0,0,0,0,0,0,0,0,0,
12,-27.59,2.639,19.77,5.163,-9.889,3.245,17.37,10.88,-76.99,-37.01,-143.9,-88.09,-95.28,-100.6,-174,-141.7,0,0,0,0,0,0,0,0,0,0,0,0,0,0,0,0,
13,-32.74,1.381,6.497,5.437,-12.06,2.802,23.97,21.44,-83.62,-27.6,-133.2,-79.13,-85.67,-92.8,-164.2,-134.2,0,0,0,0,0,0,0,0,0,0,0,0,0,0,0,0,
14,-32.22,7.263,5.802,8.102,-23.24,1.762,27.39,15.24,-82.08,-29.47,-130.9,-84.77,-81.83,-85.33,-174.5,-138.9,0,0,0,0,0,0,0,0,0,0,0,0,0,0,0,0,
15,-35.26,5.927,8.865,14.54,-30.93,1.859,24.61,12.92,-85.4,-34.02,-135,-95.6,-88.03,-83.95,-187.5,-144.6,0,0,0,0,0,0,0,0,0,0,0,0,0,0,0,0,
16,-39.7,5.454,16.65,25.77,-43.96,9.87,34.53,17.39,-85.97,-19.49,-122.1,-86.46,-77.72,-66.72,-179.2,-127.1,0,0,0,0,0,0,0,0,0,0,0,0,0,0,0,0,
17,-34.54,10.41,31.91,27.27,-38.57,17.09,36.04,8.417,-90.98,-19.03,-121.9,-74.94,-68.92,-55.78,-172,-113.7,0,0,0,0,0,0,0,0,0,0,0,0,0,0,0,0,
18,-39.87,4.31,20.29,5.019,-23.3,-1.453,10.97,-17.04,-101.9,-36.43,-135.3,-71.38,-71.51,-56.81,-159.5,-112,0,0,0,0,0,0,0,0,0,0,0,0,0,0,0,0,
19,-57.91,-7.141,-14.22,-25.78,-48.56,-40.96,-15.16,-35.92,-101.4,-36.91,-119.1,-59.07,-61.18,-38.84,-129.6,-96.78,0,0,0,0,0,0,0,0,0,0,0,0,0,0,0,0,
20,-56.91,-9.399,-26.23,-40.42,-75.68,-64.37,-35.13,-41.55,-108.4,-35.73,-100.6,-54.52,-52.62,-19.81,-120.9,-82.39,0,0,0,0,0,0,0,0,0,0,0,0,0,0,0,0,
21,-60.64,-22.14,-36.35,-50.77,-70.3,-72.74,-55.22,-56.94,-138.5,-49.03,-124,-81.38,-62.92,-26.24,-137.9,-88.26,0,0,0,0,0,0,0,0,0,0,0,0,0,0,0,0,
22,-90.95,-38.51,-59.83,-64.09,-85.17,-79.48,-46.29,-70.99,-143.2,-46.5,-145.5,-102.6,-60.95,-33,-141.4,-95.45,0,0,0,0,0,0,0,0,0,0,0,0,0,0,0,0,
23,-92.5,-26.3,-47.14,-52.68,-98.44,-64.48,-19.02,-54.85,-106.5,-34.13,-135.9,-92.48,-53.07,-40.33,-145.9,-105,0,0,0,0,0,0,0,0,0,0,0,0,0,0,0,0,
24,-63.96,-13.42,-19.37,-26.82,-67.05,-37.31,-20.03,-31.78,-85.48,-37.59,-130.4,-86.42,-70.44,-69,-166.5,-129.7,0,0,0,0,0,0,0,0,0,0,0,0,0,0,0,0,
25,-56.26,-21.24,-20.62,-17.09,-37.15,-24.68,-24.24,-25.97,-85.45,-36.08,-125.2,-89.53,-82.83,-88.69,-167.9,-143.7,0,0,0,0,0,0,0,0,0,0,0,0,0,0,0,0,
26,-46.03,-16.13,-5.624,-9.236,-15.31,-17.09,-12.54,-30.04,-71.75,-30.25,-110.7,-87.87,-84.51,-90.63,-162.2,-143.4,0,0,0,0,0,0,0,0,0,0,0,0,0,0,0,0,
27,-28.77,-11.58,17.06,-7.539,-10.84,-22.54,-24.93,-39.09,-72.97,-43.74,-117,-100.7,-112.2,-108.5,-180.9,-155.2,0,0,0,0,0,0,0,0,0,0,0,0,0,0,0,0,
28,-49.68,-33.5,-11.17,-26.19,-65.9,-46.03,-40.95,-31.36,-96.95,-47.99,-126.4,-112.6,-131.5,-123,-185.8,-160.9,0,0,0,0,0,0,0,0,0,0,0,0,0,0,0,0,
29,-70.72,-37.74,-35.42,-26.78,-90.44,-43.78,-24.51,-5.601,-87.31,-28.82,-108.2,-94.73,-107.6,-107.3,-158.1,-138.7,0,0,0,0,0,0,0,0,0,0,0,0,0,0,0,0,
30,-46.25,-12.21,-11.86,-10.94,-32.49,-18.15,-14.47,-7.593,-64.84,-22.92,-89.75,-71.01,-78.49,-87.48,-129.1,-107.5,0,0,0,0,0,0,0,0,0,0,0,0,0,0,0,0,
31,-22.19,-1.868,-6.648,-22.26,-12.96,-14.55,-25.12,-30.83,-82.78,-29.9,-82.97,-54.2,-59.12,-72.55,-99.37,-77.56,0,0,0,0,0,0,0,0,0,0,0,0,0,0,0,0,
32,-24.11,-3.041,-27.61,-36,-40.75,-20.41,-24.3,-33.16,-89.32,-26.34,-69.17,-31.4,-38.78,-49.35,-66.85,-50.81,0,0,0,0,0,0,0,0,0,0,0,0,0,0,0,0,
33,-20.65,6.875,-17.6,-23.87,-28.5,-14.24,-10.77,-26.04,-61.98,-22.06,-56.88,-11.98,-26.72,-30.24,-49.72,-38.01,0,0,0,0,0,0,0,0,0,0,0,0,0,0,0,0,
34,-8.211,12.84,7.76,-10.98,-18,-12.41,0.98,-21.39,-65.4,-20.09,-54.89,-3.92,-21.62,-23.59,-44.23,-36.5,0,0,0,0,0,0,0,0,0,0,0,0,0,0,0,0,
35,-9.614,9.771,5.661,-12.95,-47.75,-19.28,0.0022,-15.38,-87.77,-14.18,-53.62,-4.283,-22.01,-21.36,-43.33,-40.3,0,0,0,0,0,0,0,0,0,0,0,0,0,0,0,0,
36,-21.48,6.526,-11.82,-28.45,-65.93,-26.41,-11.14,-22.95,-89.01,-17.49,-55.76,-17.74,-35.65,-24.08,-54.28,-55.65,0,0,0,0,0,0,0,0,0,0,0,0,0,0,0,0,
37,-25.98,-0.6323,-19.81,-40.48,-63.22,-30.39,-9.87,-35.08,-94.74,-25.35,-64.82,-38.39,-52.5,-31.25,-73.46,-80,0,0,0,0,0,0,0,0,0,0,0,0,0,0,0,0,
38,-32.38,-13.3,-25.19,-38.99,-72.3,-38.21,-9.923,-37.45,-103.1,-24.09,-71.02,-49.1,-61.48,-33,-87.56,-92.82,0,0,0,0,0,0,0,0,0,0,0,0,0,0,0,0,
39,-47.71,-23.72,-40.61,-47.86,-86.43,-53.28,-26.4,-41.09,-99.1,-28.14,-71.61,-48.52,-62.41,-28.77,-90.83,-86.97,0,0,0,0,0,0,0,0,0,0,0,0,0,0,0,0,
40,-45.81,-15.39,-46.05,-53.04,-80.57,-48.64,-20.11,-36.14,-96.19,-32.48,-68.46,-48.74,-54.34,-25.36,-90.6,-78.66,0,0,0,0,0,0,0,0,0,0,0,0,0,0,0,0,
41,-29.84,6.105,-32.95,-38.34,-67.61,-30.1,-6.128,-22.63,-86.73,-18.81,-64.51,-55.11,-46.01,-22.24,-95.74,-73.5,0,0,0,0,0,0,0,0,0,0,0,0,0,0,0,0,
42,-33.95,2.534,-38.91,-49.81,-66.44,-42.41,-34.47,-30.63,-79.69,-12.47,-70.86,-65.55,-50.5,-21.32,-100.7,-68.12,0,0,0,0,0,0,0,0,0,0,0,0,0,0,0,0,
43,-47.23,-19.07,-54.72,-70.41,-68.12,-62.49,-56.57,-46.82,-92.21,-23.62,-79.12,-74.25,-59.71,-25.14,-96.39,-65.53,0,0,0,0,0,0,0,0,0,0,0,0,0,0,0,0,
44,-48.87,-19.43,-41.87,-52.21,-80.75,-58.41,-41.92,-44.54,-97.94,-23.63,-71.61,-72.56,-56.93,-23.99,-83.2,-56.91,0,0,0,0,0,0,0,0,0,0,0,0,0,0,0,0,
45,-50.59,-12.11,-43.37,-45.29,-102.6,-64.57,-41.39,-45.93,-90.29,-16.77,-57.93,-58.75,-43.63,-15.54,-62.06,-35.95,0,0,0,0,0,0,0,0,0,0,0,0,0,0,0,0,
46,-46.9,-11,-67.83,-60.46,-97.49,-76.23,-43.86,-57.11,-80.63,-19.09,-40.89,-39.23,-28.9,-10.45,-35.64,-17.96,0,0,0,0,0,0,0,0,0,0,0,0,0,0,0,0,
47,-31.92,-2.552,-55.53,-49.72,-81.66,-66.31,-28.98,-51.93,-68.35,-21.37,-20.86,-23.39,-16.8,-12.59,-15.83,-11.38,0,0,0,0,0,0,0,0,0,0,0,0,0,0,0,0,
48,-26.61,3.203,-43.38,-46.31,-90.51,-66.23,-31.52,-39.56,-73.49,-17.18,-23.98,-17.98,-8.861,-19.08,-9.218,-10.26,0,0,0,0,0,0,0,0,0,0,0,0,0,0,0,0,
49,-28.77,7.973,-69.12,-65,-99.67,-83.39,-37.84,-41.99,-90.97,-8.596,-46.78,-23.79,-4.415,-25.62,-16.33,-16.92,0,0,0,0,0,0,0,0,0,0,0,0,0,0,0,0,
50,-29.59,17.14,-78.32,-66.44,-100.2,-89.67,-31.19,-46.31,-97.96,-8.909,-67.88,-42.38,-12.07,-32.58,-40.54,-36.99,0,0,0,0,0,0,0,0,0,0,0,0,0,0,0,0,
51,-41.91,5.844,-69.94,-65.08,-110.4,-87.9,-32.67,-41.83,-103.9,-23,-89.42,-61.29,-32.8,-41.57,-69.03,-58.74,0,0,0,0,0,0,0,0,0,0,0,0,0,0,0,0,
52,-50,-11.79,-64.81,-65.04,-110.3,-80.01,-24.25,-42.28,-97.03,-28.25,-97.7,-62.83,-42.7,-45.16,-85.17,-70.78,0,0,0,0,0,0,0,0,0,0,0,0,0,0,0,0,
53,-34.01,-4.767,-45.8,-49.23,-85.45,-63.32,-6.073,-46.61,-81.7,-23.37,-92.33,-63.5,-41.41,-44.82,-98.16,-84.14,0,0,0,0,0,0,0,0,0,0,0,0,0,0,0,0,
54,-19.29,5.817,-29.01,-37.88,-59.28,-51.48,-7.09,-37.7,-95.81,-21.6,-94.45,-70.4,-48.6,-46.97,-110.4,-99.64,0,0,0,0,0,0,0,0,0,0,0,0,0,0,0,0,
55,-17.19,5.684,-21.92,-28.32,-50.46,-45.55,-5.24,-28.28,-102.5,-17.41,-88.01,-62.01,-56.12,-44.42,-111,-102.9,0,0,0,0,0,0,0,0,0,0,0,0,0,0,0,0,
56,-10.81,3.678,-21.2,-22.04,-52.59,-44.45,-0.7187,-41.15,-75.66,-20.2,-78.63,-57.06,-63.23,-42.17,-111.7,-101,0,0,0,0,0,0,0,0,0,0,0,0,0,0,0,0,
57,-12.4,-5.499,-36.53,-40.98,-49.24,-49.76,-23.11,-55.62,-71.85,-29.42,-92.39,-72.75,-74.1,-46.64,-116.6,-95.92,0,0,0,0,0,0,0,0,0,0,0,0,0,0,0,0,
58,-28.72,-10.27,-35.92,-46.32,-45.01,-45.2,-34.8,-50.43,-90.52,-21.31,-97.19,-78.17,-64.24,-41.83,-109.6,-75.87,0,0,0,0,0,0,0,0,0,0,0,0,0,0,0,0,
59,-34.37,2.436,-26.38,-26.94,-58.17,-37.12,-17.17,-45.76,-98.28,-12.18,-83.35,-73.09,-42.53,-34.07,-98.6,-59.16,0,0,0,0,0,0,0,0,0,0,0,0,0,0,0,0,
60,-33.56,10.62,-49.94,-34.89,-72.43,-49.09,-17.82,-48.63,-102.6,-21.86,-81.13,-73.25,-39.94,-44.17,-89.62,-60.29,0,0,0,0,0,0,0,0,0,0,0,0,0,0,0,0,
61,-39.74,8.57,-57.24,-50.91,-61.69,-60.36,-26.5,-46.58,-88.57,-28.73,-71.27,-54.75,-33.76,-52.4,-61.17,-49.88,0,0,0,0,0,0,0,0,0,0,0,0,0,0,0,0,
62,-28.7,18.91,-27.34,-40.38,-45.96,-50.2,-9.589,-41.16,-56.77,-25.68,-43.37,-17.48,-9.045,-40.26,-20.99,-20.05,0,0,0,0,0,0,0,0,0,0,0,0,0,0,0,0,
63,-4.923,37,-24.03,-32.92,-43.56,-41.42,-0.3234,-27.25,-43.19,-19.78,-31.84,2.748,2.522,-29.55,-9.66,-11.42,0,0,0,0,0,0,0,0,0,0,0,0,0,0,0,0,
64,-2.121,45.06,-36.79,-31.37,-33.55,-39.9,-5.976,-9.756,-42.94,-9.531,-42.24,2.089,-1.015,-30.78,-28.96,-32.68,0,0,0,0,0,0,0,0,0,0,0,0,0,0,0,0,
65,-3.342,45.93,-29.42,-25.78,-25.07,-33.51,-1.741,-15.27,-42.27,-10.61,-53.04,0.4939,-2.421,-36.76,-43.55,-50.05,0,0,0,0,0,0,0,0,0,0,0,0,0,0,0,0,
66,10.5,40.55,-27.69,-31.89,-39.66,-32.56,-11.58,-33.49,-46.28,-26.17,-53.73,-2.45,-10.29,-51.45,-47.83,-61.84,0,0,0,0,0,0,0,0,0,0,0,0,0,0,0,0,
67,9.258,26.96,-37.8,-41.15,-46.4,-42.64,-32.65,-38.96,-52.29,-28.68,-53.42,-16.06,-20.55,-60.24,-62.05,-78.92,0,0,0,0,0,0,0,0,0,0,0,0,0,0,0,0,
68,-15.49,12.27,-48.23,-52,-41.67,-56.59,-32.36,-41.39,-67.36,-20.69,-68.04,-37.77,-24.88,-50.07,-86.28,-89.21,0,0,0,0,0,0,0,0,0,0,0,0,0,0,0,0,
69,-36.55,-0.6343,-59.16,-69.81,-56.44,-68.77,-35.32,-44.54,-89.77,-27.19,-91.47,-63.46,-41.53,-51.93,-111.5,-101.3,0,0,0,0,0,0,0,0,0,0,0,0,0,0,0,0,
70,-47.9,-10.11,-61.33,-69.17,-68.92,-73.4,-51.08,-43.51,-99.55,-36.62,-106.1,-82.2,-61.71,-65.77,-128.4,-114.7,0,0,0,0,0,0,0,0,0,0,0,0,0,0,0,0,
71,-57.1,-16.02,-65.21,-60.8,-65.66,-77.97,-55.66,-48.85,-97.02,-32.77,-103.2,-78.89,-57.45,-55.14,-121.9,-100.7,0,0,0,0,0,0,0,0,0,0,0,0,0,0,0,0,
72,-56.89,-21.01,-73.23,-69.37,-61.71,-82.25,-59.48,-53.62,-87.36,-27.18,-86.49,-68.3,-46.7,-40.4,-104.8,-77.12,0,0,0,0,0,0,0,0,0,0,0,0,0,0,0,0,
73,-45.35,-17.43,-58.35,-70.09,-48.19,-72.27,-60.05,-46.53,-75.02,-22.37,-80.67,-72.17,-48.42,-42.28,-104.2,-71.03,0,0,0,0,0,0,0,0,0,0,0,0,0,0,0,0,
74,-45.27,-12.87,-44.72,-66.02,-43.99,-69.6,-54.63,-40.74,-80.31,-17.91,-97.49,-83.68,-50.16,-36.65,-110,-66.46,0,0,0,0,0,0,0,0,0,0,0,0,0,0,0,0,
75,-65.85,-26.38,-66.57,-81.92,-58.28,-90.68,-70.64,-44.34,-94.96,-23.4,-106,-88.13,-51.02,-31.8,-98.42,-57.51,0,0,0,0,0,0,0,0,0,0,0,0,0,0,0,0,
76,-73.92,-36.42,-81.74,-89.5,-50.5,-98.31,-87.41,-50.14,-88.21,-29.36,-86.2,-74.62,-52.06,-41.55,-74.82,-50.2,0,0,0,0,0,0,0,0,0,0,0,0,0,0,0,0,
77,-56.25,-27.31,-67.17,-73.69,-35.85,-81.59,-81.33,-48.61,-74.6,-32.01,-68.65,-56.13,-56.62,-54.75,-67.09,-56.08,0,0,0,0,0,0,0,0,0,0,0,0,0,0,0,0,
78,-47.8,-31.57,-60.14,-62.8,-41.6,-68.59,-77.63,-40.2,-75.55,-40.43,-74.25,-58.09,-69.98,-70.04,-79.45,-81.45,0,0,0,0,0,0,0,0,0,0,0,0,0,0,0,0,
79,-51.18,-41.43,-57.6,-57.71,-30.3,-55.89,-66.42,-38.19,-67.99,-36.05,-74.37,-59.69,-62.31,-67.82,-77.64,-86.86,0,0,0,0,0,0,0,0,0,0,0,0,0,0,0,0,
80,-40.35,-17.83,-37.28,-42.88,-5.606,-42.4,-40.61,-36.78,-53.9,-20.85,-63.43,-48.13,-33.5,-48.43,-65.12,-70.83,0,0,0,0,0,0,0,0,0,0,0,0,0,0,0,0,
81,-39.6,3.489,-32.71,-37.58,-14.74,-53.25,-39.13,-26.62,-62.21,-29.12,-71.07,-50.72,-30.73,-54.86,-76.97,-82.21,0,0,0,0,0,0,0,0,0,0,0,0,0,0,0,0,
82,-60.97,-11.67,-58.08,-52.75,-38.93,-73.72,-49.8,-27.25,-65.5,-44.16,-79.57,-48.2,-41.14,-71.31,-88.5,-97.59,0,0,0,0,0,0,0,0,0,0,0,0,0,0,0,0,
83,-57.89,-17.62,-61.63,-53.72,-30.45,-70.47,-41.79,-37.86,-43.64,-38.04,-66.32,-25.03,-34.55,-63.35,-76.77,-86.68,0,0,0,0,0,0,0,0,0,0,0,0,0,0,0,0,
84,-31.45,-6.187,-34.32,-34.05,-10.16,-57.04,-41.99,-36.09,-34.11,-33.58,-57.05,-17.42,-30.13,-51.5,-66.59,-74.03,0,0,0,0,0,0,0,0,0,0,0,0,0,0,0,0,
85,-22.22,-14.48,-26.16,-28.63,-19.16,-53.99,-57.09,-30.48,-33.99,-39.77,-51.85,-16.87,-30.1,-41.07,-53.54,-56.87,0,0,0,0,0,0,0,0,0,0,0,0,0,0,0,0,
86,-24.77,-27.94,-39.98,-37.81,-32.34,-59.06,-61.12,-33.73,-30.27,-42.26,-37.94,-7.203,-32.99,-32.93,-37.73,-43.54,0,0,0,0,0,0,0,0,0,0,0,0,0,0,0,0,
87,-32.02,-31.04,-47.84,-48.34,-28.64,-73.68,-61.23,-41.73,-51.59,-42.5,-31.81,-11.76,-42.38,-37.79,-36.18,-48.42,0,0,0,0,0,0,0,0,0,0,0,0,0,0,0,0,
88,-44.77,-30.28,-49.5,-55.44,-40.5,-86.37,-62.11,-48.6,-71.41,-39.09,-28.14,-17.27,-31.18,-29.67,-25.43,-32.07,0,0,0,0,0,0,0,0,0,0,0,0,0,0,0,0,
89,-47.69,-20.95,-46.91,-42.85,-62.51,-82.23,-48.74,-44.39,-62.7,-36.36,-22.78,-16.48,-15.65,-13.88,-14.71,-9.458,0,0,0,0,0,0,0,0,0,0,0,0,0,0,0,0,
90,-50.43,-21.5,-40.66,-25.26,-53.87,-75.5,-31.02,-33.36,-69.34,-43.85,-34.86,-34.44,-32.42,-23.21,-36.03,-25.93,0,0,0,0,0,0,0,0,0,0,0,0,0,0,0,0,
91,-58.35,-33.54,-29.99,-21.76,-32.23,-72.54,-26.11,-29.58,-83.04,-46.87,-50.22,-47.58,-46.12,-29.48,-52.01,-37.52,0,0,0,0,0,0,0,0,0,0,0,0,0,0,0,0,
92,-57.31,-26.99,-17.61,-20.15,-46.65,-68.6,-34.23,-31.17,-71.8,-39.32,-46.4,-32.6,-33.81,-13.81,-43.43,-24.34,0,0,0,0,0,0,0,0,0,0,0,0,0,0,0,0,
93,-55.6,-15.16,-32.21,-30.4,-74.09,-74.47,-47.47,-33.8,-68.11,-33.45,-32.92,-19.86,-24.67,-7.336,-45.91,-31.12,0,0,0,0,0,0,0,0,0,0,0,0,0,0,0,0,
94,-52.65,-14.57,-67.72,-50.67,-64.05,-83.58,-51,-35.14,-77.26,-30.6,-27.27,-25.03,-25.66,-14.83,-60.18,-50.3,0,0,0,0,0,0,0,0,0,0,0,0,0,0,0,0,
95,-44.41,-12.13,-71.2,-49.94,-50.73,-81.22,-40.26,-33.63,-71.74,-32.91,-35.76,-29.28,-26.79,-18.61,-67.19,-53.11,0,0,0,0,0,0,0,0,0,0,0,0,0,0,0,0,
96,-39.72,-6.21,-43.28,-39.16,-51.79,-73.08,-27,-33.56,-55.14,-32.77,-40.91,-20.18,-19.09,-15.19,-63.14,-45.64,0,0,0,0,0,0,0,0,0,0,0,0,0,0,0,0,
97,-24.11,5.995,-27.75,-36.29,-26.36,-57.5,-18.73,-30.62,-44.31,-19.69,-32.42,-11.29,-4.816,-13.13,-53.01,-38.97,0,0,0,0,0,0,0,0,0,0,0,0,0,0,0,0,
98,-3.839,14.82,-28.32,-31.48,-14.44,-38.22,-15.68,-24.88,-49.34,-14.17,-33.79,-18.03,-9.262,-19.78,-53.45,-41.07,0,0,0,0,0,0,0,0,0,0,0,0,0,0,0,0,
99,-8.028,3.506,-28.84,-29.43,-34.94,-39.08,-15.78,-27.5,-50.76,-21.14,-47.07,-30.03,-30.41,-24.92,-63.3,-46.57,0,0,0,0,0,0,0,0,0,0,0,0,0,0,0,0,
100,-22.86,-10.97,-35.68,-33.44,-26.62,-53.43,-17.33,-31.77,-40.01,-24.16,-50.76,-38.84,-43.48,-25.21,-64.28,-43.38,0,0,0,0,0,0,0,0,0,0,0,0,0,0,0,0,
101,-31.59,-20.96,-44.68,-33.43,-18.15,-51.81,-20.67,-31.86,-48.44,-33.85,-53.2,-51.01,-54.09,-33.99,-61.72,-42.63,0,0,0,0,0,0,0,0,0,0,0,0,0,0,0,0,
102,-43.71,-36.13,-36.34,-35.98,-40.69,-44.58,-28.83,-37.54,-63.91,-45.48,-66.48,-67.42,-68.9,-45.64,-69.38,-54.21,0,0,0,0,0,0,0,0,0,0,0,0,0,0,0,0,
103,-63.4,-48.79,-35.17,-50.99,-53.65,-59.77,-42.85,-40.13,-67.05,-41.6,-76.01,-82.97,-73.93,-47.37,-78.88,-62.97,0,0,0,0,0,0,0,0,0,0,0,0,0,0,0,0,
104,-79.52,-51.75,-63,-66.91,-72.71,-86.4,-48.98,-31.71,-85.87,-41.57,-73.68,-84.89,-65.95,-42.97,-76.79,-59.07,0,0,0,0,0,0,0,0,0,0,0,0,0,0,0,0,
105,-71.82,-42.15,-76.95,-69.54,-100,-97.5,-43.56,-32.24,-97.77,-46.34,-66.41,-68.48,-53.83,-36.88,-66.96,-52.77,0,0,0,0,0,0,0,0,0,0,0,0,0,0,0,0,
106,-51.13,-26.29,-67.37,-61.75,-86.62,-87.7,-42.94,-39.75,-68.32,-32.24,-52.16,-49.53,-43.12,-31.7,-58.07,-52.34,0,0,0,0,0,0,0,0,0,0,0,0,0,0,0,0,
107,-39.59,-12.84,-63.79,-47.45,-45.06,-67.3,-37.35,-23.92,-40.75,-13.33,-33.94,-36.44,-35.36,-31.15,-54.41,-56.81,0,0,0,0,0,0,0,0,0,0,0,0,0,0,0,0,
108,-22.56,5.653,-40.89,-25.3,-21.8,-51.61,-13.74,7.714,-38.7,-7.773,-28.39,-28.85,-29.35,-32.79,-58.44,-63.77,0,0,0,0,0,0,0,0,0,0,0,0,0,0,0,0,
109,-3.318,20.16,0.426,-6.492,-25.19,-45.4,3.009,18.48,-33.94,-7.69,-29.35,-26.53,-24.05,-33.54,-58.14,-65.86,0,0,0,0,0,0,0,0,0,0,0,0,0,0,0,0,
110,-3.028,19.33,2.394,-6.983,-29.07,-44.91,-0.4283,6.482,-29.1,-9.759,-25.74,-26.8,-21.65,-31.32,-48.4,-60.02,0,0,0,0,0,0,0,0,0,0,0,0,0,0,0,0,
111,-10.32,17.9,-25.46,-21.99,-28.71,-51.78,-7.343,-1.862,-40.42,-10.36,-32.82,-35.04,-22.09,-22.57,-47.01,-55.04,0,0,0,0,0,0,0,0,0,0,0,0,0,0,0,0,
112,-17.39,18.43,-35.62,-29.12,-40.87,-53.82,-6.799,1.709,-51.39,-2.948,-44.12,-43.48,-21.3,-12.44,-49.57,-50.73,0,0,0,0,0,0,0,0,0,0,0,0,0,0,0,0,
113,-26.12,14.5,-36.38,-24.03,-38.09,-46.22,-8.399,0.7622,-49.4,1.927,-42.47,-37.6,-20.59,-7.891,-43.03,-40.64,0,0,0,0,0,0,0,0,0,0,0,0,0,0,0,0,
114,-34.03,1.821,-49.48,-28.94,-22.69,-57.1,-29.39,-13.86,-49.08,-6.678,-46.17,-37.04,-22.56,-3.31,-41.95,-32.05,0,0,0,0,0,0,0,0,0,0,0,0,0,0,0,0,
115,-46.85,-21.89,-68.12,-48.76,-42.08,-86.64,-56.7,-30.07,-57.58,-19.93,-58.78,-56.92,-26.55,-2.321,-50.55,-35.13,0,0,0,0,0,0,0,0,0,0,0,0,0,0,0,0,
116,-59.35,-31.95,-74.41,-60.78,-62.9,-103.7,-64.68,-36.69,-67.85,-26.31,-64.56,-79.03,-35.92,-13.95,-61.41,-47.45,0,0,0,0,0,0,0,0,0,0,0,0,0,0,0,0,
117,-67.19,-24.29,-70.09,-62.13,-51.06,-107.9,-64.06,-37.23,-74.35,-28.73,-69.26,-89.74,-44.84,-20.03,-72.06,-53.32,0,0,0,0,0,0,0,0,0,0,0,0,0,0,0,0,
118,-73.59,-28.17,-79.93,-71.89,-44.22,-109.8,-67.78,-44.22,-70.56,-32.14,-66.98,-84.55,-38.24,-11.1,-66.6,-42.41,0,0,0,0,0,0,0,0,0,0,0,0,0,0,0,0,
119,-65.86,-30.63,-89.94,-76.2,-43.54,-102.2,-65.11,-49,-58.55,-27.97,-48.5,-66.35,-19.4,-6.341,-47.98,-27.94,0,0,0,0,0,0,0,0,0,0,0,0,0,0,0,0,
120,-47.06,-12.3,-66.77,-50.91,-38.38,-82.87,-50.97,-25.04,-49.89,-14.86,-35.25,-52.73,-7.282,-7.604,-45.19,-27.29,0,0,0,0,0,0,0,0,0,0,0,0,0,0,0,0,
121,-36.85,2.536,-46.82,-30.68,-44.34,-63.74,-30.77,0.1283,-49.25,-11.27,-36.16,-50.86,-9.975,-9.096,-54.82,-38.79,0,0,0,0,0,0,0,0,0,0,0,0,0,0,0,0,
122,-28.89,8.193,-51.48,-36.97,-35.38,-49.64,-14.89,-7.355,-48.1,-13.63,-32.31,-46.13,-10.76,-11.05,-49.36,-45,0,0,0,0,0,0,0,0,0,0,0,0,0,0,0,0,
123,-13.56,17.41,-32.95,-26.63,1.983,-28.82,-5.986,-4.456,-36.33,-5.793,-19.15,-29.68,0.8686,-4.926,-31.49,-38.92,0,0,0,0,0,0,0,0,0,0,0,0,0,0,0,0,
124,1.746,18.76,-3.361,-1.171,22.54,-2.002,6.702,13.5,-23.68,-7.971,-12.56,-17.27,-1.099,-3.353,-27.79,-38.8,0,0,0,0,0,0,0,0,0,0,0,0,0,0,0,0,
125,15.68,11.81,6.157,12.25,26.28,20.13,20.4,3.551,-16.76,-20.77,-14.74,-15.79,-18.6,-17.12,-38.05,-45.97,0,0,0,0,0,0,0,0,0,0,0,0,0,0,0,0,
126,30.88,12,24.55,29.88,45.44,39.63,22.62,-2.237,-6.396,-10.36,-13.29,-8.042,-14.34,-15.91,-36.88,-37.25,0,0,0,0,0,0,0,0,0,0,0,0,0,0,0,0,
127,39.76,15.76,42.59,46.05,52.71,44.86,17.63,15.32,-6.052,2.907,-16.05,-3.454,0.7062,5.07,-29.05,-21.87,0,0,0,0,0,0,0,0,0,0,0,0,0,0,0,0,
128,35.16,20.88,64.26,71.63,53.18,33.97,21.29,27.62,-18.66,-3.912,-29.07,-20.58,-2.167,14.07,-33.99,-20.45,0,0,0,0,0,0,0,0,0,0,0,0,0,0,0,0,
129,19.39,29.89,131.1,134,87.53,35.15,38.3,47.09,-23.24,2.108,-33.79,-38.21,-3.301,13.11,-39.56,-21.21,0,0,0,0,0,0,0,0,0,0,0,0,0,0,0,0,
130,-0.6408,29.9,191,183.5,108.5,43.49,52.79,68.89,-28.5,15.1,-32.01,-45.58,0.4942,17.14,-37.34,-16.65,0,0,0,0,0,0,0,0,0,0,0,0,0,0,0,0,
131,-13.65,21.84,219.3,213.7,104.5,48.24,58.96,77.18,-38.11,9.818,-32.47,-52.6,-8.145,16.73,-37.07,-15.46,0,0,0,0,0,0,0,0,0,0,0,0,0,0,0,0,
132,-15.61,19.51,273.7,271.8,131.6,68.15,72.88,92.13,-39.12,11.55,-22.31,-51.24,-13.49,11.11,-34.55,-17.97,0,0,0,0,0,0,0,0,0,0,0,0,0,0,0,0,
133,-12.09,26.7,329.3,319.3,160.8,93.98,96.2,109.4,-36.06,27.02,-10.65,-44.52,-6.844,11.07,-29.34,-21.51,0,0,0,0,0,0,0,0,0,0,0,0,0,0,0,0,
134,-1.389,46.75,357.6,340.5,178.1,112.5,115.3,129.1,-28.76,36.54,-13.04,-41.91,-0.9289,10.99,-32.15,-25.37,0,0,0,0,0,0,0,0,0,0,0,0,0,0,0,0,
135,7.026,62.09,371.2,359,194.3,124.2,121.4,154.3,-26.26,41.26,-18.34,-38.6,-0.3976,3.737,-38.86,-30.51,0,0,0,0,0,0,0,0,0,0,0,0,0,0,0,0,
136,3.196,54,352.4,348.2,167.3,114.7,113.8,153.2,-22.45,41.98,-16.33,-35.35,-5.142,-1.246,-36.23,-31.76,0,0,0,0,0,0,0,0,0,0,0,0,0,0,0,0,
137,9.578,44.11,339.3,331.3,152.1,103.2,104.5,139.2,6.367,41.56,-1.191,-21.25,-2.903,4.991,-17.78,-17.01,0,0,0,0,0,0,0,0,0,0,0,0,0,0,0,0,
138,30.01,40.32,341.1,327.8,191,110.4,96.82,133,14.87,43.48,17.45,6.082,10.48,16.91,0.4831,1.158,0,0,0,0,0,0,0,0,0,0,0,0,0,0,0,0,
139,46.32,35.35,295.1,288.9,197.4,105.5,85.26,115.4,-1.489,39.05,19.03,16.91,13.83,22.11,-7.618,-1.408,0,0,0,0,0,0,0,0,0,0,0,0,0,0,0,0,
140,62.95,41.66,240.2,232.3,168.5,85.62,74.34,101.2,22.68,34.62,14.82,14.05,11.54,20.57,-23.8,-11.5,0,0,0,0,0,0,0,0,0,0,0,0,0,0,0,0,
141,66.94,45.31,203.5,189.5,132,70.11,59.45,92.34,32.52,35.93,13.96,16.61,20.09,24.53,-16.48,-6.169,0,0,0,0,0,0,0,0,0,0,0,0,0,0,0,0,
142,49.8,34.85,142.3,149.3,76.28,51.67,41.24,69.15,-11.45,30.01,3.282,7.957,18.27,25.43,-11.57,-2.026,0,0,0,0,0,0,0,0,0,0,0,0,0,0,0,0,
143,38.7,27.25,103.3,123.7,52.12,38.74,35.67,47.39,-24.86,17.39,-11.23,-10.29,-1.518,7.391,-30.46,-20.3,0,0,0,0,0,0,0,0,0,0,0,0,0,0,0,0,
144,24.36,12.06,93.06,91.86,35.74,31.52,28.41,25.8,-22.65,4.832,-25.75,-22.33,-13.89,-10.34,-46.54,-40.77,0,0,0,0,0,0,0,0,0,0,0,0,0,0,0,0,
145,-10.43,-10.09,50.39,41.8,-10.3,5.22,3.852,6.971,-56.58,-6.04,-44.58,-41.96,-18.36,-10.15,-56.48,-43.22,0,0,0,0,0,0,0,0,0,0,0,0,0,0,0,0,
146,-40.74,-18.11,15.32,23.19,-21.04,-28.68,-16.06,9.578,-84.11,-7.843,-59.75,-70.64,-30.57,-7.145,-72.02,-45.53,0,0,0,0,0,0,0,0,0,0,0,0,0,0,0,0,
147,-59.81,-28.75,3.852,18.74,-35.51,-48.47,-24.96,4.212,-98.69,-8.921,-76.49,-95.29,-51.63,-13.49,-83.05,-57.72,0,0,0,0,0,0,0,0,0,0,0,0,0,0,0,0,
148,-78.95,-52.05,-31.33,-16.68,-88.13,-66.08,-40.53,-15.9,-110.1,-20.27,-90.46,-115.9,-78.25,-29.67,-90.47,-67.74,0,0,0,0,0,0,0,0,0,0,0,0,0,0,0,0,
149,-96.73,-74.51,-61.65,-50.98,-92.9,-88.45,-65.28,-22.59,-105.5,-28.36,-79.76,-121.7,-96.27,-44.59,-89.94,-72.34,0,0,0,0,0,0,0,0,0,0,0,0,0,0,0,0,
150,-105.5,-90.17,-71.79,-61.7,-83.28,-100.5,-85.54,-33.3,-106.4,-33.51,-62.85,-109.1,-93.26,-42.51,-75.66,-70.2,0,0,0,0,0,0,0,0,0,0,0,0,0,0,0,0,
151,-96.91,-86.71,-83,-65.76,-99.98,-97.92,-85.63,-51.75,-102.8,-45.38,-65.94,-102.2,-87.32,-38.3,-78.54,-69.71,0,0,0,0,0,0,0,0,0,0,0,0,0,0,0,0,
152,-90.67,-74.84,-68.7,-67.85,-84.35,-99.15,-76.08,-53.05,-79.82,-46.46,-73.32,-105.8,-92.95,-47.92,-98.69,-83.77,0,0,0,0,0,0,0,0,0,0,0,0,0,0,0,0,
153,-103.6,-79.27,-48.71,-65.34,-75.93,-108.1,-81.17,-50.34,-77.4,-38.74,-78.43,-108.2,-99.07,-55.57,-102.6,-96.14,0,0,0,0,0,0,0,0,0,0,0,0,0,0,0,0,
154,-110.5,-83.64,-63.27,-56.25,-83.21,-104.5,-85.54,-49.4,-91.56,-42.67,-94.2,-118.5,-101.8,-56.49,-108.7,-100.7,0,0,0,0,0,0,0,0,0,0,0,0,0,0,0,0,
155,-108.6,-77.25,-64.33,-51.12,-53.82,-96.59,-73.53,-36.45,-91.99,-42.73,-116.2,-137.4,-105.1,-61.65,-135.1,-116.6,0,0,0,0,0,0,0,0,0,0,0,0,0,0,0,0,
156,-119.7,-77.83,-49.81,-67.83,-67.28,-103.2,-70.55,-35.92,-105.3,-35.87,-141.3,-149.5,-109.3,-70.49,-155.9,-134.1,0,0,0,0,0,0,0,0,0,0,0,0,0,0,0,0,
157,-131.6,-77.89,-62.97,-83.59,-111.3,-100.4,-68.8,-49.15,-126.6,-37.8,-157,-144.2,-106.5,-70.24,-150.4,-124.6,0,0,0,0,0,0,0,0,0,0,0,0,0,0,0,0,
158,-116,-57.01,-45.82,-56.53,-62.82,-68.42,-34.14,-20.98,-87.46,-18.09,-111.5,-98.13,-66.66,-35.73,-89.8,-67.88,0,0,0,0,0,0,0,0,0,0,0,0,0,0,0,0,
159,-55.34,-12.52,16.08,-0.4143,2.694,-14.66,18.22,39.86,12.15,38.28,6.981,-5.605,14.23,35.3,24.76,32.47,0,0,0,0,0,0,0,0,0,0,0,0,0,0,0,0,
160,39.6,48.18,48.98,45.34,18.55,59.56,71.01,68.78,80.72,85.39,110.5,75.98,79.8,94.29,108.2,110.2,0,0,0,0,0,0,0,0,0,0,0,0,0,0,0,0,
161,105.7,94.17,64.06,66.11,61.78,103,105.5,66.68,77.2,90.51,117.8,88.07,88.28,97.16,100.5,102.8,0,0,0,0,0,0,0,0,0,0,0,0,0,0,0,0,
162,86.9,85.26,62.44,41.1,68.8,53.14,69.88,51.09,37.22,58.02,47.05,36.24,56.59,55.44,38.97,46.55,0,0,0,0,0,0,0,0,0,0,0,0,0,0,0,0,
163,15.45,39.88,4.895,-13.5,-14.11,-19.38,4.46,16.25,-18.82,20.08,-26.53,-24.61,19.65,14.29,-16.97,5.173,0,0,0,0,0,0,0,0,0,0,0,0,0,0,0,0,
164,-28.68,15.43,-34.67,-27.91,-53.56,-23.2,0.6987,-5.107,-62.26,11.67,-53.4,-46.58,-3.789,-6.275,-41.13,-19.23,0,0,0,0,0,0,0,0,0,0,0,0,0,0,0,0,
165,-31.37,10.14,-12.83,-11.79,-33.92,-12.33,11.55,-1.895,-57.77,12.34,-53.6,-49.14,-25.08,-27.21,-52.97,-45.7,0,0,0,0,0,0,0,0,0,0,0,0,0,0,0,0,
166,-43.31,-11.06,-12.86,-26,-58.33,-44.25,-21.71,-10.15,-56.11,-4.563,-70.75,-75.26,-54.12,-50.26,-79.26,-66.6,0,0,0,0,0,0,0,0,0,0,0,0,0,0,0,0,
167,-75.71,-32.05,-54.17,-50.18,-97.69,-71.73,-38.87,-21.98,-95.14,-10.28,-95.59,-101.9,-66.94,-50.29,-99,-71.28,0,0,0,0,0,0,0,0,0,0,0,0,0,0,0,0,
168,-92.03,-29.98,-72.16,-49.5,-95.76,-68.83,-21.47,-16.98,-111.3,3.733,-102.7,-100.8,-59.71,-40.42,-96.34,-70.6,0,0,0,0,0,0,0,0,0,0,0,0,0,0,0,0,
169,-88.12,-28.4,-53.09,-36.42,-81.76,-66.42,-16.32,-10.11,-96.95,3.438,-103.3,-99.96,-65.1,-47.82,-97.07,-75.3,0,0,0,0,0,0,0,0,0,0,0,0,0,0,0,0,
170,-83.82,-43.48,-40.18,-26.26,-72.67,-59.98,-18.43,-5.801,-91.01,-9.787,-94.19,-98.71,-77.46,-57.41,-95.96,-76.57,0,0,0,0,0,0,0,0,0,0,0,0,0,0,0,0,
171,-71.33,-52.61,-43.55,-26.62,-60.97,-32.8,-5.955,-9.583,-60.22,-9.783,-64.64,-71.2,-67.99,-54.09,-76.59,-71.61,0,0,0,0,0,0,0,0,0,0,0,0,0,0,0,0,
172,-52.25,-44.22,-43.95,-29.54,-62.03,-26.7,5.331,-32.43,-31.83,-2.42,-55.22,-54.8,-56.48,-51.02,-72.92,-76.41,0,0,0,0,0,0,0,0,0,0,0,0,0,0,0,0,
173,-50.64,-34.94,-54.86,-25.9,-81.22,-55.45,-1.961,-39.27,-66.54,1.879,-79.06,-71.25,-63.2,-51.27,-89.83,-87.26,0,0,0,0,0,0,0,0,0,0,0,0,0,0,0,0,
174,-52.21,-24.66,-55.83,-20.24,-90.86,-55.48,-9.409,-3.171,-82.1,13.01,-79.59,-69.78,-63.45,-47.76,-84.91,-81.57,0,0,0,0,0,0,0,0,0,0,0,0,0,0,0,0,
175,-34.52,-5.039,-17.15,-5.775,-70.91,-24.95,5.817,26.34,-42.23,22.75,-56.45,-51.8,-56.06,-48.77,-69.85,-71.44,0,0,0,0,0,0,0,0,0,0,0,0,0,0,0,0,
176,-21.63,2.953,-7.003,6.339,-47.53,-26.01,17.94,10.5,-49.43,13.52,-61.74,-65.16,-63.63,-58.09,-77.6,-77.73,0,0,0,0,0,0,0,0,0,0,0,0,0,0,0,0,
177,-28.58,-7.553,-44.02,-10.17,-67.01,-46.71,4.373,-14.16,-88.48,2.102,-77.84,-81.08,-65.14,-56.81,-84.36,-75.79,0,0,0,0,0,0,0,0,0,0,0,0,0,0,0,0,
178,-34.87,-6.606,-52.27,-27.79,-105.3,-40.55,-0.6445,-17.77,-73.11,7.135,-66.13,-61.74,-42.95,-39.91,-68.63,-51.89,0,0,0,0,0,0,0,0,0,0,0,0,0,0,0,0,
179,-31.01,9.993,-39.91,-16.88,-89.24,-20.75,12.98,-20.34,-44.27,12.9,-42.56,-41.23,-30.03,-32.44,-49.17,-37.76,0,0,0,0,0,0,0,0,0,0,0,0,0,0,0,0,
180,-30.51,9.171,-46.39,-13.01,-55.3,-27.59,3.912,-32.91,-45.51,5.491,-25.79,-39.51,-39.67,-41.18,-38.63,-40.97,0,0,0,0,0,0,0,0,0,0,0,0,0,0,0,0,
181,-39.06,-16.1,-59.43,-35.81,-71.09,-52.55,-25.21,-36.59,-40.69,-3.466,-12.93,-37.53,-47.51,-46.47,-32.28,-39.86,0,0,0,0,0,0,0,0,0,0,0,0,0,0,0,0,
182,-38.73,-33.86,-82.17,-56.47,-76.2,-53.24,-35.87,-32.8,-22.46,-3.902,-0.5149,-32.87,-50.06,-47.63,-26.1,-37.23,0,0,0,0,0,0,0,0,0,0,0,0,0,0,0,0,
183,-24.92,-30.91,-103.4,-64.76,-52.81,-46.81,-36.25,-43.46,-8.787,-0.7556,12.12,-24.54,-51.37,-48.35,-16.83,-36.86,0,0,0,0,0,0,0,0,0,0,0,0,0,0,0,0,
184,-11.75,-23.83,-93.01,-62.05,-63.35,-57.82,-42.32,-54.79,0.3997,1.876,16.98,-12.3,-39.02,-36.16,-7.816,-25.08,0,0,0,0,0,0,0,0,0,0,0,0,0,0,0,0,
185,-2.494,-21.87,-72.81,-55.76,-67.56,-53.45,-42.33,-55.44,-10.64,-0.2729,5.441,-24.61,-27,-24.03,-14.04,-14.95,0,0,0,0,0,0,0,0,0,0,0,0,0,0,0,0,
186,-13.08,-30.96,-79.59,-72.68,-48.16,-50.63,-48.05,-68.42,-35.78,-12.18,-14.97,-59.9,-39.41,-31.97,-32.58,-26.34,0,0,0,0,0,0,0,0,0,0,0,0,0,0,0,0,
187,-42.22,-46.55,-97.67,-90.98,-59.83,-71.73,-63.11,-72.89,-29.83,-19.86,-25.84,-70.79,-54.41,-40.66,-40.09,-38.68,0,0,0,0,0,0,0,0,0,0,0,0,0,0,0,0,
188,-47.55,-42.84,-90.61,-73.18,-51.63,-64.22,-51.29,-45.84,-11.65,-8.916,-22.7,-62.42,-51.54,-37.74,-40.43,-38.27,0,0,0,0,0,0,0,0,0,0,0,0,0,0,0,0,
189,-36.44,-22.14,-69.53,-52.15,-5.798,-35.18,-18.62,-29.2,-24.18,9.703,-24.6,-70.34,-47.86,-36.31,-49.74,-41.4,0,0,0,0,0,0,0,0,0,0,0,0,0,0,0,0,
190,-42.16,-12.33,-68.96,-49.79,-15.98,-31.56,-6.958,-27.37,-36.54,20.32,-38.92,-73.36,-44.53,-33.71,-56.82,-45.16,0,0,0,0,0,0,0,0,0,0,0,0,0,0,0,0,
191,-43.89,-10.92,-72.3,-46.53,-57.51,-31.98,-4.389,-13.88,-34.32,17.71,-43.82,-59.91,-33.64,-28.1,-52.44,-37.58,0,0,0,0,0,0,0,0,0,0,0,0,0,0,0,0,
192,-31.11,-7.18,-51.92,-43.27,-53.67,-22.74,12.24,-12.61,-32.89,9.127,-28.75,-52.96,-31.09,-29.69,-38.21,-24.7,0,0,0,0,0,0,0,0,0,0,0,0,0,0,0,0,
193,-21.96,-14.03,-35.66,-37.96,-46.19,-17.05,13.04,-25.92,-20.69,6.184,-10.77,-40.65,-39.1,-32.2,-16.68,-13.15,0,0,0,0,0,0,0,0,0,0,0,0,0,0,0,0,
194,-16.35,-27.56,-43.74,-29.4,-49.88,-14.13,-9.761,-26.9,-18.39,5.936,0.6319,-19.74,-38.59,-24.96,-3.967,-6.888,0,0,0,0,0,0,0,0,0,0,0,0,0,0,0,0,
195,-10.14,-18.97,-43.4,-23.99,-30.11,-10.49,-12.99,-22.06,-29.37,8.022,11.96,-11.49,-25.09,-13.1,-1.328,-4.564,0,0,0,0,0,0,0,0,0,0,0,0,0,0,0,0,
196,-2.191,2.119,-28.88,-15.1,-33.25,0.485,-1.463,-17.78,-18.22,15.66,18.68,-4.073,-10.13,-6.588,4.656,-1.329,0,0,0,0,0,0,0,0,0,0,0,0,0,0,0,0,
197,4.828,0.3785,-31.19,-16.4,-59.83,4.612,-9.464,-13.7,-10.27,14.84,17,10.37,-0.9237,-4.831,7.249,0.7289,0,0,0,0,0,0,0,0,0,0,0,0,0,0,0,0,
198,7.565,-7.255,-40.81,-27.65,-35.64,-9.515,-15.41,-19.5,-13.33,6.737,22.3,21.29,6.562,0.2375,9.378,6.922,0,0,0,0,0,0,0,0,0,0,0,0,0,0,0,0,
199,13.16,4.548,-40.65,-23.47,-11.29,-13.26,-7.899,-27.12,2.74,8.312,31.55,28.21,11.97,5.523,19.6,18.01,0,0,0,0,0,0,0,0,0,0,0,0,0,0,0,0,
200,15.57,10.37,-44.52,-22.64,-37.03,-2.105,-10.11,-27.32,6.989,11.38,25.45,18.92,8.849,4.219,17.99,19.27,0,0,0,0,0,0,0,0,0,0,0,0,0,0,0,0,
201,6.077,0.5838,-50.23,-34.07,-32.59,0.7813,-9.835,-33.17,-1.749,8.162,15.09,-1.183,3.967,2.285,3.533,14.36,0,0,0,0,0,0,0,0,0,0,0,0,0,0,0,0,
202,-0.9104,-3.751,-57.03,-34.83,-17.14,-3.264,-4.602,-45.43,6.229,9.736,11.83,-8.242,-0.4779,1.199,-4.305,10.17,0,0,0,0,0,0,0,0,0,0,0,0,0,0,0,0,
203,-4.16,-9.389,-70.93,-38.65,-48.62,-8.59,-17.23,-44.64,-5.488,12.29,3.371,-17.8,-16.39,-5.305,-13.5,-2.389,0,0,0,0,0,0,0,0,0,0,0,0,0,0,0,0,
204,-18.25,-28.8,-71.85,-48.5,-50.29,-15.55,-27.9,-35.64,-35.47,3.401,-4.97,-32.95,-31.94,-12.87,-21.25,-12.42,0,0,0,0,0,0,0,0,0,0,0,0,0,0,0,0,
205,-29.82,-39.88,-59.37,-43,-26.61,-23.14,-21.64,-37.53,-37.21,-6.781,-4.586,-28.78,-26.15,-12.58,-10.24,-7.163,0,0,0,0,0,0,0,0,0,0,0,0,0,0,0,0,
206,-22.21,-26.7,-50.36,-34.67,-41.2,-30.41,-22.92,-39.07,-29.88,-4.442,-8.672,-24.86,-16.4,-6.683,-1.632,-3.49,0,0,0,0,0,0,0,0,0,0,0,0,0,0,0,0,
207,-16.65,-15.43,-48.41,-40.5,-37.25,-30.1,-29.21,-31.61,-35.29,-0.451,-15.42,-31.43,-18.65,-2.916,-7.697,-7.072,0,0,0,0,0,0,0,0,0,0,0,0,0,0,0,0,
208,-20.47,-14.06,-62.85,-51.34,-18.47,-18.58,-18.28,-29.53,-32.63,1.343,-9.662,-16.01,-8.44,2.986,-0.431,0.3788,0,0,0,0,0,0,0,0,0,0,0,0,0,0,0,0,
209,-2.585,7.816,-67.52,-44.86,-38.18,2.393,4.324,-25.04,-19.4,13.17,0.2455,9.282,12.94,9.499,14.28,14.37,0,0,0,0,0,0,0,0,0,0,0,0,0,0,0,0,
210,26.14,35.1,-38.31,-19.77,-38.04,26.31,23.89,-7.806,-12.58,20.18,0.3807,11.86,10.24,-3.833,8.367,10.14,0,0,0,0,0,0,0,0,0,0,0,0,0,0,0,0,
211,28.58,35.01,-20.92,-8.693,-7.276,43.83,40.49,2.161,-13.64,13.03,0.6429,9.364,0.2974,-25.76,-0.1894,-2.497,0,0,0,0,0,0,0,0,0,0,0,0,0,0,0,0,
212,28.2,34.39,-14.96,-6.935,11.52,60.33,54.16,-1.602,-0.8706,12.84,11.27,20,10.34,-26.59,4.32,1.655,0,0,0,0,0,0,0,0,0,0,0,0,0,0,0,0,
213,48.17,47.38,15.44,11.88,47.92,71.57,54.26,-5.934,27.33,11.98,20.09,29.19,11.13,-22.05,3.191,8.049,0,0,0,0,0,0,0,0,0,0,0,0,0,0,0,0,
214,59.39,48.27,24.18,18.07,76.47,65.04,47.31,-12.78,35.5,3.033,21.91,33.95,5.231,-20.24,4.141,10.12,0,0,0,0,0,0,0,0,0,0,0,0,0,0,0,0,
215,61,42.83,2.826,5.265,51.6,65.99,55.39,-13.64,37.43,13.02,33.71,51.43,25.78,0.3079,25.73,30.5,0,0,0,0,0,0,0,0,0,0,0,0,0,0,0,0,
216,81.72,46.16,3.572,11.11,41.29,84.61,63.83,3.132,73.48,28.69,54.12,74.82,41.36,20.33,42.84,49.54,0,0,0,0,0,0,0,0,0,0,0,0,0,0,0,0,
217,102.6,43.04,-4.789,8.415,59.32,77.2,41.58,-3.296,90.81,18.8,55.08,70.39,26.11,20.6,33.54,40.03,0,0,0,0,0,0,0,0,0,0,0,0,0,0,0,0,
218,87.31,25.23,-44.76,-27.98,36.99,39.28,6.806,-43.16,52.43,7.298,36.79,41.53,12.44,20.72,20.92,27.55,0,0,0,0,0,0,0,0,0,0,0,0,0,0,0,0,
219,57.99,12.3,-55.06,-45.37,13.3,19.03,-5.477,-42.92,35.6,15.91,32.37,32.49,11.99,20.53,23.27,26.47,0,0,0,0,0,0,0,0,0,0,0,0,0,0,0,0,
220,59.48,18.92,-31.22,-30.69,35.38,27.46,-0.2082,-11.08,55.83,25.06,44.96,47.45,14.44,16.04,28.2,23.5,0,0,0,0,0,0,0,0,0,0,0,0,0,0,0,0,
221,79.64,30.86,-27.1,-25.34,38.25,35.85,0.9828,-21.13,49.67,23.38,51.01,53.55,18.69,20.09,30.66,22.25,0,0,0,0,0,0,0,0,0,0,0,0,0,0,0,0,
222,78.06,30.57,-45.5,-29.07,3.256,27.3,-3.296,-33.06,32.09,21.22,49.32,49.6,19.35,23.24,37.14,23.88,0,0,0,0,0,0,0,0,0,0,0,0,0,0,0,0,
223,59.55,27.16,-48.33,-21.82,-4.744,15.38,1.653,-15.07,35.97,26.48,46.72,50.22,20.22,20.17,40.12,24.38,0,0,0,0,0,0,0,0,0,0,0,0,0,0,0,0,
224,53.31,37.97,-25.96,-8.313,27.05,22.06,16.48,-20.29,40.21,30.48,43.46,52.58,25.88,23.25,34.98,28.54,0,0,0,0,0,0,0,0,0,0,0,0,0,0,0,0,
225,51.57,49.19,-18.24,-7.06,40.38,28.66,20.03,-26.62,30.75,20.84,41.48,51.9,23.88,24.16,31.75,27.5,0,0,0,0,0,0,0,0,0,0,0,0,0,0,0,0,
226,36.12,36.07,-36.94,-22.46,10.26,11.22,12.18,-7.686,13.19,7.584,36.68,45.64,11.67,15.54,32.33,18.24,0,0,0,0,0,0,0,0,0,0,0,0,0,0,0,0,
227,28.32,17.57,-36.98,-30.74,-3.445,1.537,12.1,-15.52,9.923,2.037,35.19,37.78,-0.6219,5.664,32.96,17.3,0,0,0,0,0,0,0,0,0,0,0,0,0,0,0,0,
228,39.77,16.08,-19.66,-25.82,12.08,13.51,9.365,-32.39,30.46,-4.674,42.12,38.64,-4.782,-5.086,34.18,21.3,0,0,0,0,0,0,0,0,0,0,0,0,0,0,0,0,
229,45.58,13.43,-20.07,-25.36,-0.8301,13.3,-1.643,-16.41,47.77,-7.057,39.98,47.36,9.276,-4.709,37.3,26.62,0,0,0,0,0,0,0,0,0,0,0,0,0,0,0,0,
230,46.06,11.37,-28.71,-30.24,-2.308,3.279,0.2738,-19.72,55.25,1.897,31.91,57.18,34.21,16.02,42.7,44.43,0,0,0,0,0,0,0,0,0,0,0,0,0,0,0,0,
231,52.1,23.84,-35.3,-39.14,37,3.687,3.912,-55.92,57.87,0.3385,29.05,57.49,41.26,25.1,39.44,51.89,0,0,0,0,0,0,0,0,0,0,0,0,0,0,0,0,
232,49.55,28.88,-35.71,-42.6,33.41,7.442,-5.944,-60.62,48.25,-8.498,21.52,42.28,28.99,14.76,24.92,36.73,0,0,0,0,0,0,0,0,0,0,0,0,0,0,0,0,
233,41.08,23.41,-25.34,-33.16,9.464,7.058,-9.94,-38.95,43,-3.751,18.35,28.55,22.56,19.66,19,33.32,0,0,0,0,0,0,0,0,0,0,0,0,0,0,0,0,
234,36.21,28.15,-27.02,-34.29,28.56,-1.404,-6.548,-37.45,45.78,-5.757,17.56,20.29,18.44,24.88,16.4,34.74,0,0,0,0,0,0,0,0,0,0,0,0,0,0,0,0,
235,24.59,35.07,-35.34,-39.53,22.75,-7.621,2.346,-38.81,36.29,-14.2,5.148,12,10.13,10.42,4.82,18.71,0,0,0,0,0,0,0,0,0,0,0,0,0,0,0,0,
236,14.59,35.61,-26.47,-28.85,-7.91,2.043,23.58,-25.98,29.78,2.121,10.48,25.5,16.28,13.98,7.86,13.52,0,0,0,0,0,0,0,0,0,0,0,0,0,0,0,0,
237,26.5,36.29,-13.4,-19.7,14.91,11.7,30.94,-15.71,46.14,18.53,29.75,47.63,21.43,26.74,20.93,17.07,0,0,0,0,0,0,0,0,0,0,0,0,0,0,0,0,
238,46.69,29.16,-3.927,-9.015,44.15,14.53,18.37,-9.743,55.24,8.16,24.22,39.11,2.583,9.389,14.99,4.844,0,0,0,0,0,0,0,0,0,0,0,0,0,0,0,0,
239,46.19,7.993,-9.528,-5.842,19.94,9.806,9.242,-14.03,29.01,0.1033,15.82,24.25,-11.91,-7.767,5.724,-4.516,0,0,0,0,0,0,0,0,0,0,0,0,0,0,0,0,
240,29.75,-7.217,-34.14,-32.94,-5.628,-16.47,-4.809,-23.31,4.351,2.831,13.1,24.08,-10.18,-6.235,1.507,-7.801,0,0,0,0,0,0,0,0,0,0,0,0,0,0,0,0,
241,18.61,-1.794,-41.4,-46.54,-7.643,-41.62,-22.39,-17.29,9.595,-1.93,-9.172,10.38,-10.25,-7.619,-12.34,-13.21,0,0,0,0,0,0,0,0,0,0,0,0,0,0,0,0,
242,10.16,7.757,-41.69,-37.98,-27.99,-41.93,-27.02,-17.82,12.49,-8.212,-20.22,-4.729,-6.245,-2.58,-14.49,-4.998,0,0,0,0,0,0,0,0,0,0,0,0,0,0,0,0,
243,8.447,11.54,-55.19,-43.68,-42.06,-30.72,-26.98,-27.41,17.19,-6.481,-3.385,6.423,1.226,6.888,5.179,7.25,0,0,0,0,0,0,0,0,0,0,0,0,0,0,0,0,
244,22.78,18.43,-48.88,-38.24,-5.297,-13.36,-21.73,-19.78,36.77,-3.377,-0.3907,16.1,0.8205,0.0936,13.47,7.277,0,0,0,0,0,0,0,0,0,0,0,0,0,0,0,0,
245,28.66,24.22,-34.6,-23.54,22.08,1.15,-8.886,-17.5,32.21,-6.181,-14,8.438,2.343,-8.251,3.841,6.318,0,0,0,0,0,0,0,0,0,0,0,0,0,0,0,0,
246,24.27,27.42,-21.34,-18.74,6.894,7.756,3.196,-16.22,26.24,-11.51,-11.64,14.21,11.31,-2.538,1.764,8.6,0,0,0,0,0,0,0,0,0,0,0,0,0,0,0,0,
247,33.13,31.56,5.881,1.821,6.7,18.29,9.462,2.208,48.37,-15.13,-3.413,27.04,13.52,4.124,4.99,5.355,0,0,0,0,0,0,0,0,0,0,0,0,0,0,0,0,
248,33.31,21.95,-3.053,4.21,14.99,19.18,-5.294,-8.088,45.36,-22.69,-13.73,10.6,-0.2026,-1.558,-6.023,-7.678,0,0,0,0,0,0,0,0,0,0,0,0,0,0,0,0,
249,13.99,-1.246,-30.2,-27.25,-0.4151,10.72,-25.31,-34,26.6,-31.91,-22.11,-13.27,-15.93,-13.46,-21.15,-21.41,0,0,0,0,0,0,0,0,0,0,0,0,0,0,0,0,
250,4.302,-20.44,-12.86,-30.32,-7.71,11.88,-22.65,-25.41,28.23,-32.57,-17.93,-19.85,-25.04,-21.92,-26.99,-30.47,0,0,0,0,0,0,0,0,0,0,0,0,0,0,0,0,
251,1.404,-36.47,-11.43,-22.3,-0.4334,5.005,-27.99,-22.37,13.67,-29.6,-32.66,-35.2,-39.44,-30.5,-34,-42.14,0,0,0,0,0,0,0,0,0,0,0,0,0,0,0,0,
252,-6.16,-49.7,-39.07,-37.45,-6.885,-10.1,-50.05,-44.69,-7.251,-32.11,-53.76,-51.03,-47.9,-31.49,-38.84,-42.39,0,0,0,0,0,0,0,0,0,0,0,0,0,0,0,0,
253,-13.48,-53.61,-39.39,-43.26,-28.7,-16.98,-56.49,-54.93,-9.819,-36.37,-50.3,-48.68,-41.64,-18.72,-38.12,-28.52,0,0,0,0,0,0,0,0,0,0,0,0,0,0,0,0,
254,-31.85,-52.95,-55.56,-49.3,-50.75,-32.93,-59.77,-49.91,-27.01,-33.6,-52.17,-57.27,-46.18,-15.41,-48.54,-31.68,0,0,0,0,0,0,0,0,0,0,0,0,0,0,0,0,
255,-55.92,-50.62,-85.15,-64.48,-64.96,-51.73,-66.89,-39.44,-47.99,-26.87,-70.14,-74.24,-57.1,-24.76,-58.52,-42.31,0,0,0,0,0,0,0,0,0,0,0,0,0,0,0,0,
256,-60.8,-47.26,-68.19,-58.9,-71.28,-53.5,-58.43,-35.33,-42.87,-30.24,-71.16,-73.93,-54.24,-25.43,-50.73,-32.97,0,0,0,0,0,0,0,0,0,0,0,0,0,0,0,0,
257,-53.34,-44.07,-50.23,-45.16,-62.68,-53.76,-45.68,-36.85,-31.01,-35.13,-56.06,-65.5,-46.59,-17.94,-40.16,-19.29,0,0,0,0,0,0,0,0,0,0,0,0,0,0,0,0,
258,-46.9,-32.89,-53.83,-34.35,-43.6,-55.81,-37.18,-17.48,-27.45,-21.45,-41.64,-55.57,-39.27,-11.83,-32.94,-15.92,0,0,0,0,0,0,0,0,0,0,0,0,0,0,0,0,
259,-39.16,-22.02,-38.52,-20.79,-36.97,-52.48,-30.34,-4.794,-26.61,-10.15,-33.7,-50.61,-43.37,-14.96,-30.1,-22.87,0,0,0,0,0,0,0,0,0,0,0,0,0,0,0,0,
260,-39.17,-34.2,-27.41,-21.37,-41.83,-50.67,-31.5,-28.11,-17.72,-24.69,-33,-53.51,-62.25,-27.34,-34.84,-35.87,0,0,0,0,0,0,0,0,0,0,0,0,0,0,0,0,
261,-42.28,-53.9,-31.78,-19.99,-39.6,-42.87,-30.91,-36.43,-1.427,-41.34,-25.86,-42.79,-64.86,-34.02,-27.94,-38.34,0,0,0,0,0,0,0,0,0,0,0,0,0,0,0,0,
262,-26.87,-52.69,-23.41,-2.141,-22.6,-28.38,-25.19,-24.87,5.939,-45.37,-6.966,-20.17,-48.33,-33.28,-4.176,-23.58,0,0,0,0,0,0,0,0,0,0,0,0,0,0,0,0,
263,-4.057,-41.17,-15.98,-2.135,-4.212,-19,-23.67,-37.24,12.71,-48.08,15.67,0.0831,-27.06,-24.71,19.8,5.804,0,0,0,0,0,0,0,0,0,0,0,0,0,0,0,0,
264,13.36,-24.75,-15.21,-12.5,-5.073,0.2058,-14.41,-40.77,23.81,-41.81,31.62,17.92,3.828,-2.06,35.2,34.12,0,0,0,0,0,0,0,0,0,0,0,0,0,0,0,0,
265,34.24,3.76,-6.041,-8.155,-5.96,29.77,2.924,-22.08,17.62,-25.92,26.48,19.37,22.71,14.6,32.06,34.15,0,0,0,0,0,0,0,0,0,0,0,0,0,0,0,0,
266,43.86,21.88,-2.17,-13.56,9.77,38.29,10.61,-28.66,13.38,-17.99,14.38,9.163,19.39,15.91,18.09,21.88,0,0,0,0,0,0,0,0,0,0,0,0,0,0,0,0,
267,40.45,25.3,-4.402,-22.56,15.24,33.46,15.26,-39.3,37.1,-10.57,19.2,13.51,23.45,21.35,15.26,24.22,0,0,0,0,0,0,0,0,0,0,0,0,0,0,0,0,
268,49.87,34.83,-0.0748,-15.62,11.51,41.42,22.44,-28.97,54.27,4.449,27.03,27.22,31.32,26.31,15.47,20.77,0,0,0,0,0,0,0,0,0,0,0,0,0,0,0,0,
269,62.25,41.23,-1.323,-19.82,10.74,50.92,24.75,-32.7,49.74,15.45,29.56,41.29,28.54,21.08,12.07,7.701,0,0,0,0,0,0,0,0,0,0,0,0,0,0,0,0,
270,68.45,44.65,-4.417,-27.48,3.475,55.87,31.41,-29.56,54.44,25.7,39.25,58.32,32.67,22.32,18.73,10.19,0,0,0,0,0,0,0,0,0,0,0,0,0,0,0,0,
271,79.46,56.73,4.704,-16.48,8.165,63.02,41.06,5.404,66.25,34.72,49.15,65.58,42.35,31.15,25.33,19.51,0,0,0,0,0,0,0,0,0,0,0,0,0,0,0,0,
272,81.07,54.55,15.34,-9.439,30.08,67.19,39.86,26.37,71.47,31.01,51.49,61.38,39.15,29.1,16.55,17.89,0,0,0,0,0,0,0,0,0,0,0,0,0,0,0,0,
273,78.62,34.43,31.9,0.5191,47.25,75.77,37.39,28.6,83.41,23.69,50.92,61.3,26.24,15.57,6.021,11.06,0,0,0,0,0,0,0,0,0,0,0,0,0,0,0,0,
274,88.73,18.4,53.46,19.52,63.23,84.64,36.95,30.86,93.96,16.83,46.64,62.59,14.24,4.182,4.554,6.488,0,0,0,0,0,0,0,0,0,0,0,0,0,0,0,0,
275,85.02,7.46,48.59,13.29,69.48,70.52,27.97,16.82,86.66,10.31,38.25,51.5,12.98,5.043,1.476,7.945,0,0,0,0,0,0,0,0,0,0,0,0,0,0,0,0,
276,61.84,10.23,32.24,0.8529,48.8,50.18,20.09,9.967,75.84,17.2,25.78,33.86,26,16.03,-7.255,13.41,0,0,0,0,0,0,0,0,0,0,0,0,0,0,0,0,
277,47.51,29.44,39.36,14.85,25.41,54.18,23.61,28.38,68.28,21.1,13.76,29.68,39.34,21.85,-7.7,16.38,0,0,0,0,0,0,0,0,0,0,0,0,0,0,0,0,
278,48.03,39.66,56.09,32.82,29.44,71.65,33.48,32.88,66.89,7.178,16.84,39.26,43.37,17.7,3.218,18.22,0,0,0,0,0,0,0,0,0,0,0,0,0,0,0,0,
279,57.3,37.69,71.33,43.05,56.15,77.92,35.16,21.09,87.13,0.4214,36.16,49.29,43.71,14.72,15.47,19,0,0,0,0,0,0,0,0,0,0,0,0,0,0,0,0,
280,68.5,37.35,77.81,47.16,72.18,70.87,18.3,20.29,107.4,3.419,59.17,65.37,46.79,16.34,32.94,20.15,0,0,0,0,0,0,0,0,0,0,0,0,0,0,0,0,
281,77.65,40.74,62.26,46.02,65.11,66.86,7.389,24.16,100.2,4.815,73.65,82.54,54.31,20.65,51.12,30.56,0,0,0,0,0,0,0,0,0,0,0,0,0,0,0,0,
282,83.59,47.36,52.23,51.92,55.76,67.41,15.1,21.29,90.24,10.57,70.52,76.81,57.57,26.6,49.75,40.13,0,0,0,0,0,0,0,0,0,0,0,0,0,0,0,0,
283,76.14,43.93,56.34,47.07,35.05,56.74,7.277,9.788,95.05,9.356,62.89,63.48,48.41,27.28,38.97,33.49,0,0,0,0,0,0,0,0,0,0,0,0,0,0,0,0,
284,62.53,24.02,43.49,22.41,-3.47,34.56,-13.18,-0.563,96.07,3.065,63.54,65.72,34.44,22.79,36.84,24.47,0,0,0,0,0,0,0,0,0,0,0,0,0,0,0,0,
285,55.18,7.914,25.78,11.28,-13.45,10.58,-12.17,5.49,88.19,11.81,61.49,65.35,24.78,20.65,37.47,29.75,0,0,0,0,0,0,0,0,0,0,0,0,0,0,0,0,
286,45.25,1.84,21.39,11.38,16.16,-1.804,-6.236,13.88,82.53,21.34,62.08,59.62,24.35,21.64,43.16,42.85,0,0,0,0,0,0,0,0,0,0,0,0,0,0,0,0,
287,37.04,0.8506,12.23,1.617,33.49,3.957,-11.95,13.07,79.32,22.67,65,55.6,31.47,25.52,46.73,46.7,0,0,0,0,0,0,0,0,0,0,0,0,0,0,0,0,
288,28.56,11.24,-0.2612,-6.946,9.218,-2.035,-13.67,17.56,57.84,26.12,42.45,31.15,29.56,28.39,27.83,33.21,0,0,0,0,0,0,0,0,0,0,0,0,0,0,0,0,
289,-3.064,16.2,-7.942,-15.7,-32.52,-34.53,-20.52,17.77,14.42,20.97,13.96,-1.546,13.93,22.15,8.469,16.57,0,0,0,0,0,0,0,0,0,0,0,0,0,0,0,0,
290,-37.37,-1.227,-23.76,-31.04,-54.26,-57.33,-35.51,5.382,-0.3361,10.27,20.08,-1.337,4.389,15.63,14.72,12.29,0,0,0,0,0,0,0,0,0,0,0,0,0,0,0,0,
291,-35.41,-9.75,-40.04,-35.12,-52.22,-55.38,-29.54,5.891,27,8.437,36.42,19.94,10.77,23.07,24.93,13.67,0,0,0,0,0,0,0,0,0,0,0,0,0,0,0,0,
292,-12.73,5.506,-35.91,-25.5,-46.03,-48.91,-9.876,13.19,31.51,3.079,28.73,23.43,16.42,31.76,18.25,6.807,0,0,0,0,0,0,0,0,0,0,0,0,0,0,0,0,
293,-5.089,10.92,-24.28,-19.67,-39.28,-45.41,-5.544,6.674,12.12,-6.364,15.24,11.52,9.984,25.34,6.413,-5.736,0,0,0,0,0,0,0,0,0,0,0,0,0,0,0,0,
294,-8.539,5.76,-21.62,-16.79,-27.94,-37.06,-2.356,7.211,20.75,-8.089,19.99,15.5,10.39,18.53,8.526,-6.089,0,0,0,0,0,0,0,0,0,0,0,0,0,0,0,0,
295,2.183,14.47,-9.769,-1.315,-14.62,-13.98,16.07,17.05,26.93,-11.49,27.05,34.98,22.11,22.4,17.88,2.741,0,0,0,0,0,0,0,0,0,0,0,0,0,0,0,0,
296,23.1,21.79,13.48,24.81,-4.346,16.56,35.59,16.3,6.525,-18.52,17.44,41.3,18.66,19.29,11.88,0.2749,0,0,0,0,0,0,0,0,0,0,0,0,0,0,0,0,
297,33.6,16.68,24.61,44.01,2.984,35.72,50.7,21.08,8.033,-21.2,10.35,36.64,9.527,7.967,-0.1305,-2.549,0,0,0,0,0,0,0,0,0,0,0,0,0,0,0,0,
298,35.77,18.17,31.94,51.76,16.87,47.63,57.02,36.08,28.33,-21.76,14.1,33.25,18.45,9.294,0.5085,6.887,0,0,0,0,0,0,0,0,0,0,0,0,0,0,0,0,
299,34.81,27.62,44.73,48.66,30.39,59.65,44.2,31.15,27.11,-16.09,11.21,26.59,27.51,21.27,3.004,12.9,0,0,0,0,0,0,0,0,0,0,0,0,0,0,0,0,
300,28.65,37.74,42.09,32.71,30.29,63.52,34.39,6.581,18.36,-2.473,10.71,29.05,31.2,27.9,3.261,15.79,0,0,0,0,0,0,0,0,0,0,0,0,0,0,0,0,
301,26.54,48.56,22.5,18.67,24.2,58.19,42.93,-4.544,15.79,4.696,14.9,36.97,35.49,27.04,4.217,17.19,0,0,0,0,0,0,0,0,0,0,0,0,0,0,0,0,
302,28.63,47.72,3.313,14.09,7.661,44.07,41.46,4.617,5.559,-0.351,6.492,27.07,23.16,19.57,-5.925,2.403,0,0,0,0,0,0,0,0,0,0,0,0,0,0,0,0,
303,25.38,35.83,-1.421,9.617,-10.3,30.69,32.94,11.71,0.1823,-4.282,2.697,20.47,8.165,7.01,-19.71,-16.69,0,0,0,0,0,0,0,0,0,0,0,0,0,0,0,0,
304,23.22,31.48,7.156,8.333,-0.5546,30.9,37.57,9.363,9.194,-2.368,9.273,26.62,8.014,-3.281,-21.11,-23.86,0,0,0,0,0,0,0,0,0,0,0,0,0,0,0,0,
305,22.62,24.69,1.522,4.255,-1.121,21.91,23.02,2.94,9.776,-11.22,4.871,14.68,-0.4086,-7.871,-16.29,-23.3,0,0,0,0,0,0,0,0,0,0,0,0,0,0,0,0,
306,18.35,7.343,-10.72,-4.929,-22.8,5.3,-1.536,1.933,19.16,-19.73,22.2,16.63,3.26,3.752,12.4,2.765,0,0,0,0,0,0,0,0,0,0,0,0,0,0,0,0,
307,36.34,17.76,9.112,13.4,17.55,29.64,27.34,27.74,74.55,11.81,101.5,86.81,59.86,47.54,99.6,75.2,0,0,0,0,0,0,0,0,0,0,0,0,0,0,0,0,
308,96.99,71.69,51.27,59.6,100.1,89,89.38,67.17,144.7,61.78,197.5,178.2,128.9,101.4,203.9,158.5,0,0,0,0,0,0,0,0,0,0,0,0,0,0,0,0,
309,159.2,120.3,90.44,93.3,129.2,131.5,121.1,78.88,176.7,73.77,227.8,203.3,151.9,120.6,231.4,187.9,0,0,0,0,0,0,0,0,0,0,0,0,0,0,0,0,
310,151.2,115,91.56,85.63,102.6,111.5,98.08,54.48,131.4,49.03,164.5,148.4,125,97.81,167.8,148.4,0,0,0,0,0,0,0,0,0,0,0,0,0,0,0,0,
311,61.62,60.28,18.36,23.45,31.02,19.95,23.42,6.288,22.94,10.49,70.4,74.12,75.35,56.98,94.43,92.17,0,0,0,0,0,0,0,0,0,0,0,0,0,0,0,0,
312,-17.06,12.37,-53.93,-43.51,-54.37,-49.8,-34.63,-31.24,-22.18,-23.07,33.76,44.85,47.72,30.18,71.55,70.5,0,0,0,0,0,0,0,0,0,0,0,0,0,0,0,0,
313,-16.79,7.494,-56.72,-56.19,-73.17,-45.08,-32.64,-34.38,10.75,-32.54,44.17,49.05,50.78,32.54,73.64,75.07,0,0,0,0,0,0,0,0,0,0,0,0,0,0,0,0,
314,-4.233,6.725,-66.11,-56.65,-48.24,-51.69,-35.06,-43.75,-18.12,-36.42,32.9,32.34,43.22,33.02,59.06,68.57,0,0,0,0,0,0,0,0,0,0,0,0,0,0,0,0,
315,-20.83,-12.2,-93.43,-65.07,-42.08,-68.78,-48.07,-60.88,-57.45,-46.82,10.73,10.94,26.39,16.33,39.62,48.07,0,0,0,0,0,0,0,0,0,0,0,0,0,0,0,0,
316,-7.111,-13.39,-65.32,-41.37,-36.32,-36.06,-26.14,-47.34,-4.719,-45.22,13.61,21.64,25.18,10.88,31,33.1,0,0,0,0,0,0,0,0,0,0,0,0,0,0,0,0,
317,25.84,-1.227,-28.02,-20.17,-22.83,-13.05,-9.886,-34.87,25.9,-39.46,17.64,29.71,19.5,11.06,19.94,22.39,0,0,0,0,0,0,0,0,0,0,0,0,0,0,0,0,
318,24.3,-5.401,-33.23,-25.56,-17.59,-18.75,-13.85,-33.25,-0.3876,-36.07,11.23,15.7,7.067,1.55,9.507,10.95,0,0,0,0,0,0,0,0,0,0,0,0,0,0,0,0,
319,15.92,-8.73,-33.26,-17.11,-26.67,-5.603,1.087,-10.18,2.198,-24.18,9.19,9.903,7.42,3.353,7.839,3.902,0,0,0,0,0,0,0,0,0,0,0,0,0,0,0,0,
320,16.09,0.6202,-15.82,-2.312,-40.82,3.504,20.36,11.46,2.479,-13.22,6.585,11.74,8.139,15.17,9.135,2.735,0,0,0,0,0,0,0,0,0,0,0,0,0,0,0,0,
321,2.913,2.743,-5.8,5.248,-28.06,5.222,31.42,20.62,-19.13,-7.531,4.216,10.04,9.055,23.03,17.94,11.48,0,0,0,0,0,0,0,0,0,0,0,0,0,0,0,0,
322,-5.909,0.3298,-0.2266,17.69,-9.574,14.61,44.15,29.01,-22.23,-1.527,7.896,15.19,22.01,31.99,30.7,23.9,0,0,0,0,0,0,0,0,0,0,0,0,0,0,0,0,
323,0.2176,11.48,4.63,18.74,-20.29,2.926,45.12,23.92,-21.53,1.659,13.08,24.29,32.8,34.06,33.73,23.82,0,0,0,0,0,0,0,0,0,0,0,0,0,0,0,0,
324,2.042,27.14,7.638,11.84,-30.7,-8.753,41.87,23.3,-25.67,4.355,17.92,30.78,40.82,32.51,30.96,21.18,0,0,0,0,0,0,0,0,0,0,0,0,0,0,0,0,
325,5.627,38.46,13.4,21.7,-40.3,13.28,57.05,39.27,-23.64,8.628,17.52,38.06,54.89,42.27,27.59,28.19,0,0,0,0,0,0,0,0,0,0,0,0,0,0,0,0,
326,26.86,54.5,24.07,35.81,-50.34,37.29,73.69,41.66,-16.28,15.65,14.85,41.32,60.08,43.56,23.42,31.5,0,0,0,0,0,0,0,0,0,0,0,0,0,0,0,0,
327,47.14,58.86,26.06,32.44,-22.96,38.29,63.23,32.25,5.135,23.83,18.55,38.79,53.7,30.28,21.16,28.36,0,0,0,0,0,0,0,0,0,0,0,0,0,0,0,0,
328,45.53,41.53,15.23,19.95,3.941,28.02,43.52,30.15,26.2,21.56,23.27,43.81,52.93,28.38,21.15,29.23,0,0,0,0,0,0,0,0,0,0,0,0,0,0,0,0,
329,41.53,35.68,21.95,22.21,-2.999,25.03,48.46,31.54,27.21,11.3,27.94,53.19,54.01,28.87,22.16,30.32,0,0,0,0,0,0,0,0,0,0,0,0,0,0,0,0,
330,46.48,39.44,41.91,36.15,1.57,33.49,57.01,35.22,26.01,0.9427,30.48,42,40.69,13.9,17.14,25.3,0,0,0,0,0,0,0,0,0,0,0,0,0,0,0,0,
331,37.5,22.06,38.93,36.5,2.274,38.95,42.21,33.7,24.45,-9.488,23.76,17.62,21.32,4.545,8.281,19.09,0,0,0,0,0,0,0,0,0,0,0,0,0,0,0,0,
332,18.76,-0.5963,32.16,26.21,-24.7,37.74,25.65,18.21,7.949,-10.54,20.44,11.39,13.95,11.53,12.86,18.62,0,0,0,0,0,0,0,0,0,0,0,0,0,0,0,0,
333,10.15,-9.367,36.82,18.8,-22.06,29.8,12.08,4.292,2.682,-6.202,26.71,16.7,14.26,20.25,23.9,26.25,0,0,0,0,0,0,0,0,0,0,0,0,0,0,0,0,
334,0.271,-13.05,19.97,0.9744,0.1186,3.581,-12.74,-10.63,14.5,-10.79,28.63,14.5,12.05,28.85,21.89,35.91,0,0,0,0,0,0,0,0,0,0,0,0,0,0,0,0,
335,-20.89,-21.49,-16.76,-35.8,-25.07,-38.38,-37,-41.61,-0.2371,-12.15,21.58,10.04,5.377,35.45,12.99,32.43,0,0,0,0,0,0,0,0,0,0,0,0,0,0,0,0,
336,-42.3,-38.34,-46.46,-65.9,-63.2,-74.87,-52.86,-50.64,-27.54,-1.518,11.11,8.501,-4.333,33.32,8.1,16.35,0,0,0,0,0,0,0,0,0,0,0,0,0,0,0,0,
337,-51.41,-44.38,-65.84,-66.54,-74.24,-85.64,-60.77,-19.93,-34.35,6.195,5.462,8.881,-6.385,33.31,6.745,9.717,0,0,0,0,0,0,0,0,0,0,0,0,0,0,0,0,
338,-49.02,-31.39,-73.47,-59.35,-97.03,-80.21,-60.23,-6.262,-53.53,5.263,3.304,4.634,-0.1058,36.15,3.773,12.71,0,0,0,0,0,0,0,0,0,0,0,0,0,0,0,0,
339,-48.83,-25.89,-63.09,-61.2,-112.2,-86.55,-57.68,-15.02,-68.75,3.846,-3.176,-6.196,1.258,26.17,-3.999,6.495,0,0,0,0,0,0,0,0,0,0,0,0,0,0,0,0,
340,-49.39,-27.38,-43.94,-53.13,-80.36,-94.62,-50.03,-7.181,-37.19,4.783,-1.138,-4.943,0.0099,13.32,-6.348,-4.358,0,0,0,0,0,0,0,0,0,0,0,0,0,0,0,0,
341,-36.95,-20.21,-32.34,-37.55,-51.76,-80.05,-36.94,-4.108,-12.68,4.013,15.79,9.155,-2.426,9.63,1.123,-10.51,0,0,0,0,0,0,0,0,0,0,0,0,0,0,0,0,
342,-20.29,-17.96,-20.42,-24.63,-41.89,-56.5,-31.18,-12.06,-18.35,-0.348,22.15,10.76,-16.13,-0.7912,1.368,-18.48,0,0,0,0,0,0,0,0,0,0,0,0,0,0,0,0,
343,-21.6,-27.83,-4.56,-10.47,-28.16,-45.12,-32.35,-5.678,-14.88,-6.157,8.644,-2.625,-31.56,-14.43,-8.811,-25.5,0,0,0,0,0,0,0,0,0,0,0,0,0,0,0,0,
344,-41.94,-36.07,-11.2,-12.85,-46.1,-51.23,-29.62,-1.327,-24.17,-8.402,1.284,-13.76,-31.28,-8.705,-5.792,-17.88,0,0,0,0,0,0,0,0,0,0,0,0,0,0,0,0,
345,-56.79,-29.15,-27.33,-22.28,-84.75,-68.16,-22.31,-0.7411,-44.8,-6.029,15.09,-12.48,-18.7,3.872,18.3,2.55,0,0,0,0,0,0,0,0,0,0,0,0,0,0,0,0,
346,-53.07,-16.66,-21.71,-9.782,-89.17,-75.41,-22.72,5.763,-28.84,-11.11,34.02,2.861,-6.905,4.227,40.52,17.28,0,0,0,0,0,0,0,0,0,0,0,0,0,0,0,0,
347,-46.54,-24.01,-22.72,-9.44,-77.69,-71.97,-36.4,-8.651,-13.54,-26.33,42.02,19.36,-1.035,7.8,46.41,22.89,0,0,0,0,0,0,0,0,0,0,0,0,0,0,0,0,
348,-42.97,-35.81,-37.2,-33.58,-73.4,-70.47,-46.94,-32.94,-31.3,-33.9,43.45,25.26,2.769,21.8,48.55,33.74,0,0,0,0,0,0,0,0,0,0,0,0,0,0,0,0,
349,-27.71,-21.88,-20.1,-27.36,-48.42,-52.23,-38.17,-26.98,-15.43,-28.09,52.75,33.46,9.914,30.94,58.83,46.81,0,0,0,0,0,0,0,0,0,0,0,0,0,0,0,0,
350,-3.162,-5.215,17.17,1.967,-7.864,-18.87,-16.25,-4.538,32.96,-18.42,67.87,46.95,18.52,33.97,67.93,51.37,0,0,0,0,0,0,0,0,0,0,0,0,0,0,0,0,
351,7.202,-10.24,19.68,0.4057,-9.445,-15.23,-8.549,-0.463,24.88,-16.85,57.06,39.03,15.72,30.7,57.82,49.95,0,0,0,0,0,0,0,0,0,0,0,0,0,0,0,0,
352,-4.782,-19.91,-7.743,-19.43,-45.51,-33.51,-27.84,-16.45,-17.75,-30.22,19.78,18.19,1.915,18.26,33.84,42.87,0,0,0,0,0,0,0,0,0,0,0,0,0,0,0,0,
353,-15.13,-21.32,-11.27,-21.13,-30.79,-30.29,-39.54,-24.83,-14.87,-37.17,4.123,20.77,-1.104,15.01,19.61,30.54,0,0,0,0,0,0,0,0,0,0,0,0,0,0,0,0,
354,-9.155,-18.09,11.38,-9.319,12.2,-12.3,-22.64,-8.125,1.804,-23.81,4.691,21.39,-3.157,17.63,8.48,12.24,0,0,0,0,0,0,0,0,0,0,0,0,0,0,0,0,
355,-9.323,-16.72,16.91,0.4346,5.672,5.651,-6.853,10.33,-11.74,-17.8,-14.56,-10.48,-29.8,-2.039,-17.21,-15.68,0,0,0,0,0,0,0,0,0,0,0,0,0,0,0,0,
356,-22.8,-22.29,16.34,3.164,5.652,19.54,-7.159,11.07,-21.92,-24.53,-26.97,-31.26,-51.72,-25.19,-36.74,-35.33,0,0,0,0,0,0,0,0,0,0,0,0,0,0,0,0,
357,-23.81,-26.6,33.15,0.7182,34.09,15.25,-12.06,10.2,-14.25,-19.81,-22.8,-19.43,-44.02,-23.9,-36.38,-33.8,0,0,0,0,0,0,0,0,0,0,0,0,0,0,0,0,
358,-13.32,-22.27,34.08,0.1755,16.82,7.521,-13.48,17.33,-11.17,-9.496,-31.84,-9.115,-34.06,-17.97,-33.83,-26.68,0,0,0,0,0,0,0,0,0,0,0,0,0,0,0,0,
359,-12.11,-14.24,14.26,3.367,-8.152,7.765,-5.764,22.19,-17.05,-5.913,-35.45,-4.799,-29.66,-16.53,-27.93,-18.05,0,0,0,0,0,0,0,0,0,0,0,0,0,0,0,0,
360,-12.58,-5.008,9.904,8.619,7.019,-4.793,1.301,18.38,-24.36,-5.175,-18.54,4.443,-26.64,-12.42,-13.71,-8.625,0,0,0,0,0,0,0,0,0,0,0,0,0,0,0,0,
361,-11.73,-5.673,18.46,13.34,8.759,-19.18,-4.391,11.93,-31.37,-10.1,-9.554,9.247,-36.96,-14.8,-5.219,-8.477,0,0,0,0,0,0,0,0,0,0,0,0,0,0,0,0,
362,-22.35,-21.38,26.48,14.56,-3.262,-13.02,-9.793,12.93,-35.61,-13.17,-10.9,9.921,-40.15,-13.13,0.6287,-3.076,0,0,0,0,0,0,0,0,0,0,0,0,0,0,0,0,
363,-25.01,-21.8,40,21.45,4.601,-0.3584,-1.806,13.4,-33.34,-3.596,-7.528,8.585,-22.45,2.733,7.775,13.62,0,0,0,0,0,0,0,0,0,0,0,0,0,0,0,0,
364,-13.26,-7.944,40.39,26.62,15.13,-2.069,3.954,-0.1159,-31.74,0.3641,-3.753,-3.364,-18.48,9.601,5.106,18.3,0,0,0,0,0,0,0,0,0,0,0,0,0,0,0,0,
365,-26.65,-22.28,10.66,6.361,13.59,-25.63,-15.49,-12.08,-37,-10.4,-5.743,-21.18,-33.64,4.229,-1.555,12.46,0,0,0,0,0,0,0,0,0,0,0,0,0,0,0,0,
366,-60.97,-46.86,-10.98,-15.95,-4.437,-54.04,-44.15,-11.07,-46.84,-15.71,-16.71,-34.59,-40.42,3.923,-12.78,5.856,0,0,0,0,0,0,0,0,0,0,0,0,0,0,0,0,
367,-80.34,-48.68,-9.923,-21.37,-33.08,-69.05,-55.03,-16.23,-61.17,-13.82,-32.83,-44.38,-41.99,4.752,-34.46,-9.495,0,0,0,0,0,0,0,0,0,0,0,0,0,0,0,0,
368,-88.88,-53.11,-26.52,-40.61,-47.89,-77.37,-62.1,-27.76,-60.62,-14.2,-34.74,-43.78,-41.75,3.65,-36.24,-16.94,0,0,0,0,0,0,0,0,0,0,0,0,0,0,0,0,
369,-76.47,-54.97,-39.14,-54.4,-38.81,-67.61,-62.18,-27.75,-33.88,-7.21,-17.06,-24.46,-28.21,5.369,-14.62,-4.502,0,0,0,0,0,0,0,0,0,0,0,0,0,0,0,0,
370,-35.18,-29.58,-17.32,-32.01,-17.48,-35.79,-35.06,-23.05,-13.04,4,-1.208,-0.5591,-12.46,7.827,-8.031,2.876,0,0,0,0,0,0,0,0,0,0,0,0,0,0,0,0,
371,-9.947,-9.028,-12.4,-17.73,-3.648,-19.93,-18.3,-21.74,-4.882,4.612,6.565,14.47,-2.38,13.18,-6.926,2.746,0,0,0,0,0,0,0,0,0,0,0,0,0,0,0,0,
372,-5.532,-6.812,-21.3,-25.98,0.2783,-24.21,-28.63,-24.42,6.591,1.987,16.25,22.95,8.697,15.41,5.638,5.943,0,0,0,0,0,0,0,0,0,0,0,0,0,0,0,0,
373,7.697,-0.8861,-5.061,-27.85,3.554,-24.7,-25.62,-35.99,6.095,2.241,17.66,24.69,11.33,4.34,6.571,0.0893,0,0,0,0,0,0,0,0,0,0,0,0,0,0,0,0,
374,13.92,4.571,-2.519,-27.68,-4.044,-21.87,-15.68,-35.72,-3.115,1.395,8.462,24.64,4.561,-2.718,2.137,-8.334,0,0,0,0,0,0,0,0,0,0,0,0,0,0,0,0,
375,14.95,10.65,-10.62,-20.46,-12.85,-9.512,-11.83,-11.97,-2.588,6.57,7.604,28.78,1.731,5.393,5.82,-7.499,0,0,0,0,0,0,0,0,0,0,0,0,0,0,0,0,
376,28.32,24.75,4.209,-4.583,-8.953,10.27,11.37,-0.0751,-1.478,14.68,13.07,27.33,0.2558,11.05,2.182,-8.254,0,0,0,0,0,0,0,0,0,0,0,0,0,0,0,0,
377,27.3,31.43,7.839,-2.524,-18.21,18.04,32.01,-2.756,-5.544,14.13,13,16.48,-0.6845,14.3,-5.191,-6.268,0,0,0,0,0,0,0,0,0,0,0,0,0,0,0,0,
378,5.306,26.42,3.477,-0.0914,-27.65,17.67,24.02,9.657,-16.83,11.31,5.963,0.8104,-0.919,22.99,-12.21,0.8337,0,0,0,0,0,0,0,0,0,0,0,0,0,0,0,0,
379,-16.18,13.9,7.57,5.07,-17.32,5.674,12.98,12.32,-37.44,7.358,-7.548,-17.75,-9.893,24.07,-23.66,-0.7911,0,0,0,0,0,0,0,0,0,0,0,0,0,0,0,0,
380,-39.62,-7.433,-16.12,-17.45,-29.15,-28.57,-4.589,-15.17,-52.17,-3.871,-14.56,-27.77,-19.09,18.78,-23.67,-2.857,0,0,0,0,0,0,0,0,0,0,0,0,0,0,0,0,
381,-55.77,-22.09,-39.8,-41.05,-47.2,-53.16,-35.09,-30.06,-50.09,-8.875,-10.16,-25.65,-19.94,17.51,-16.16,0.8195,0,0,0,0,0,0,0,0,0,0,0,0,0,0,0,0,
382,-47.6,-24.56,-25.73,-34.32,-34.47,-43.01,-44.54,-18.16,-33.86,-3.637,-9.335,-22.59,-20.61,14.52,-18.67,0.0121,0,0,0,0,0,0,0,0,0,0,0,0,0,0,0,0,
383,-30.77,-28.85,-17.77,-26.83,-33.51,-23.3,-37.45,-12.12,-18.68,-4.669,-9.477,-17.85,-17.14,12.04,-20.49,-2.214,0,0,0,0,0,0,0,0,0,0,0,0,0,0,0,0,
384,-20.08,-27.41,-18.29,-26.21,-34.87,-17.65,-35.47,-12.31,-23.46,-10.46,-6.577,-11.32,-10.73,9.122,-21.39,-7.971,0,0,0,0,0,0,0,0,0,0,0,0,0,0,0,0,
385,-13.96,-16.35,-1.504,-15.32,-9.294,-17.69,-26.18,-2.191,-36.6,-11.84,-12.32,-10.32,-13.64,-6.365,-32,-22.27,0,0,0,0,0,0,0,0,0,0,0,0,0,0,0,0,
386,-11.37,-11.68,2.947,-5.398,-0.689,-6.82,-12.94,9.617,-30.78,-8.958,-17.33,-7.114,-15.11,-19.53,-37.06,-29.75,0,0,0,0,0,0,0,0,0,0,0,0,0,0,0,0,
387,-5.355,-4.509,1.019,2.864,0.6122,9.446,-6.969,14.61,-15.55,3.706,-15.79,-2.187,-8.782,-17.6,-33.78,-28.62,0,0,0,0,0,0,0,0,0,0,0,0,0,0,0,0,
388,-0.3564,8.133,18.51,12.76,8.723,13.35,-7.755,12.82,-29.04,16.54,-33.08,-17.69,-11.42,-19.13,-46.73,-36.7,0,0,0,0,0,0,0,0,0,0,0,0,0,0,0,0,
389,-14.64,2.935,24.19,10.53,-15.87,14.9,-13.51,10.16,-66.42,11.93,-64.58,-48.76,-19.06,-22.6,-68.81,-47.2,0,0,0,0,0,0,0,0,0,0,0,0,0,0,0,0,
390,-39.72,-4.744,18.54,13.86,-33.03,27.03,-3.861,19.27,-79.68,4.256,-73.48,-62.5,-16.25,-16.25,-65.66,-39.02,0,0,0,0,0,0,0,0,0,0,0,0,0,0,0,0,
391,-54.04,5.617,32.43,32.41,-9.764,26.94,14.85,27.34,-64.69,5.61,-61.5,-53.46,-14.11,-14.73,-45.85,-22,0,0,0,0,0,0,0,0,0,0,0,0,0,0,0,0,
392,-58.54,7.911,40.12,30.83,2.271,3.261,10.21,20.3,-51.82,8.268,-50.07,-41.02,-21.52,-15.16,-40.74,-20.15,0,0,0,0,0,0,0,0,0,0,0,0,0,0,0,0,
393,-59.83,-5.925,17.95,9.609,-14.75,-28.5,-4.857,19.44,-47.89,13.11,-39.43,-35.29,-27.59,-4.493,-41.64,-27.45,0,0,0,0,0,0,0,0,0,0,0,0,0,0,0,0,
394,-60.26,-19.23,-15.07,-8.116,-44.54,-61.29,-20.2,19.71,-52.82,10.05,-32.58,-33.09,-29.56,1.157,-30.76,-22.36,0,0,0,0,0,0,0,0,0,0,0,0,0,0,0,0,
395,-58,-28.04,-28.79,-22,-49.42,-71.7,-36.81,3.432,-49.32,-2.425,-20.49,-18.62,-22.73,6.152,-9.201,1.3,0,0,0,0,0,0,0,0,0,0,0,0,0,0,0,0,
396,-41.63,-21.99,-7.027,-15.74,-13.77,-42.74,-27.49,1.797,-17.69,1.766,11.91,5.554,-2.372,27.13,14.87,27.71,0,0,0,0,0,0,0,0,0,0,0,0,0,0,0,0,
397,-20.56,-9.9,6.544,-4.258,-4.827,-23.95,-19.02,13.87,5.367,9.893,24.34,1.745,3.286,32.83,12.73,25.11,0,0,0,0,0,0,0,0,0,0,0,0,0,0,0,0,
398,-23.04,-19.5,-18.09,-25.74,-16.73,-42.06,-42.24,4.835,-6.623,-1.972,-7.595,-30.85,-18.52,8.175,-20.53,-9.247,0,0,0,0,0,0,0,0,0,0,0,0,0,0,0,0,
399,-40.76,-32.74,-25.54,-38.1,12.22,-45.89,-41.2,3.02,-17.01,-9.345,-27.64,-43.95,-31.42,-9.892,-39.09,-34.24,0,0,0,0,0,0,0,0,0,0,0,0,0,0,0,0,
400,-41.22,-24.66,-5.724,-15.74,28.45,-24.93,-10.73,22.59,-10.86,-6.834,-17.41,-28.11,-23.53,-13.46,-31.81,-32.53,0,0,0,0,0,0,0,0,0,0,0,0,0,0,0,0,
401,-25.41,-17.4,-0.3741,-9.358,9.371,-15.3,-2.27,22.51,-11.74,-14.13,-16.9,-15.1,-21.28,-24.67,-28.78,-31.11,0,0,0,0,0,0,0,0,0,0,0,0,0,0,0,0,
402,-15.21,-20.45,10.8,-7.045,12.98,-2.046,8.188,14.79,-17.32,-19.17,-21.92,-12.93,-27.98,-38.95,-30.22,-39.5,0,0,0,0,0,0,0,0,0,0,0,0,0,0,0,0,
403,-8.127,-12.25,35.74,19.96,20.1,30.54,34.3,26.29,-11.13,-14.51,-13.59,-3.57,-25.94,-41.29,-23.31,-35.68,0,0,0,0,0,0,0,0,0,0,0,0,0,0,0,0,
404,6.761,2.204,37.49,24.51,17.21,48.71,33.11,26.21,-0.9048,-13.45,-2.352,14.86,-15.52,-34.68,-11.79,-21.01,0,0,0,0,0,0,0,0,0,0,0,0,0,0,0,0,
405,17.19,1.406,23.66,2.869,39.56,46.92,12.44,10.02,2.961,-15.14,6.358,19.38,-14.72,-28.93,-6.714,-20.69,0,0,0,0,0,0,0,0,0,0,0,0,0,0,0,0,
406,12.9,-9.986,21.37,0.9913,50.31,48.46,3.772,7.937,1.134,-14.12,6.278,4.715,-24.97,-26.66,-17.9,-27.25,0,0,0,0,0,0,0,0,0,0,0,0,0,0,0,0,
407,3.493,-19.21,27.76,7.102,21.57,43.24,4.343,8.541,-7.264,-16.28,-6.513,-10.84,-31.02,-26.27,-34.23,-25.05,0,0,0,0,0,0,0,0,0,0,0,0,0,0,0,0,
408,-2.785,-24.97,27.3,1.623,9.297,28.89,9.766,-0.5773,-12.74,-25.34,-11.38,-20.53,-34.94,-22.28,-33.78,-24.25,0,0,0,0,0,0,0,0,0,0,0,0,0,0,0,0,
409,-1.567,-27.32,16.13,0.9905,16.53,27.58,10.78,0.2138,-8.914,-28.31,-1.461,-22.28,-40.93,-9.236,-21.46,-19.03,0,0,0,0,0,0,0,0,0,0,0,0,0,0,0,0,
410,1.502,-28.46,7.019,2.841,-9.226,24.13,-2.826,0.1268,-11.27,-19.08,3.229,-18.32,-40.05,-0.0084,-17.07,-8.466,0,0,0,0,0,0,0,0,0,0,0,0,0,0,0,0,
411,-7.821,-30.45,1.039,-6.19,-37.31,5.058,-19.4,-21.23,-19.51,-18.46,-0.8444,-21.8,-37.14,-3.916,-21.25,-14.14,0,0,0,0,0,0,0,0,0,0,0,0,0,0,0,0,
412,-16.28,-30.37,0.0736,-10.35,-15.16,8.522,-23.56,-27.57,-12.92,-23.51,-3.531,-25.69,-34.28,-3.454,-22.82,-21.21,0,0,0,0,0,0,0,0,0,0,0,0,0,0,0,0,
413,-4.968,-21.82,23.05,8.472,20.03,40.78,-1.306,8.322,5.859,-6.924,-4.727,-19.11,-20.46,2.334,-19.5,-14.76,0,0,0,0,0,0,0,0,0,0,0,0,0,0,0,0,
414,3.498,-3.881,43.46,25.62,23.4,52.2,30.01,35.71,3.059,7.386,-5.706,-15.29,-9.16,-5.675,-14.36,-16.35,0,0,0,0,0,0,0,0,0,0,0,0,0,0,0,0,
415,-7.598,3.907,26.93,13.58,11.84,37.83,24.52,17.76,-26.35,-8.944,-5.496,-10.44,-14.24,-19.24,-7.373,-21.39,0,0,0,0,0,0,0,0,0,0,0,0,0,0,0,0,
416,-3.795,-1.082,23.93,8.239,18.35,43.44,7.664,0.5423,-17.76,-17.71,3.342,16.18,-13.29,-21.07,0.5659,-14.97,0,0,0,0,0,0,0,0,0,0,0,0,0,0,0,0,
417,29.34,5.368,56.09,30.48,45.87,62.84,17.94,10.19,38.67,-6.477,23.38,47.67,2.093,-19.71,6.857,-8.727,0,0,0,0,0,0,0,0,0,0,0,0,0,0,0,0,
418,43.64,5.526,55.7,31.91,59.44,51.88,10.25,9.041,54.07,-15.53,30.07,54.23,6.264,-27.16,12.83,-5.694,0,0,0,0,0,0,0,0,0,0,0,0,0,0,0,0,
419,27.19,-15.8,34.77,21.92,45.98,33.36,-10.84,-1.393,31.26,-33.45,18.64,48.07,-4.575,-34.11,18.31,-4.587,0,0,0,0,0,0,0,0,0,0,0,0,0,0,0,0,
420,24.14,-20.56,47.57,42.79,34.17,38.89,-1.722,5.143,33.76,-32.31,17.78,42.5,-13.43,-32.05,16.83,-10.87,0,0,0,0,0,0,0,0,0,0,0,0,0,0,0,0,
421,21.31,-16.55,39.2,42.42,26.41,27.4,-6.848,5.406,27.94,-32.38,22.63,25.39,-18.41,-29.57,13.79,-13.61,0,0,0,0,0,0,0,0,0,0,0,0,0,0,0,0,
422,-6.147,-29.57,-0.8622,4.161,5.689,-2.643,-28.57,-4.205,4.856,-34.01,19.39,11.89,-18.23,-23.43,20.9,-5.29,0,0,0,0,0,0,0,0,0,0,0,0,0,0,0,0,
423,-16.15,-28.36,-2.151,-6.837,-26.74,-9.769,-20.9,-4.09,-4.569,-29.13,15.72,11.73,-17.48,-10.23,21.95,-4.83,0,0,0,0,0,0,0,0,0,0,0,0,0,0,0,0,
424,-14.01,-24.79,-1.045,-7.738,-52.64,-21.6,-25.92,-14.9,-32.26,-38.59,-0.5779,-4.826,-30.66,-9.735,3.933,-18.45,0,0,0,0,0,0,0,0,0,0,0,0,0,0,0,0,
425,-39.49,-48.47,-21.21,-24.63,-42.06,-38.37,-43.8,-26.5,-54.71,-46.1,-21.55,-25.97,-41.79,-18.12,-9.896,-25.74,0,0,0,0,0,0,0,0,0,0,0,0,0,0,0,0,
426,-50.61,-52.4,5.8,-7.859,-12.49,-10.71,-15.41,-8.469,-28.68,-30.67,-18.62,-22.81,-33.87,-15.6,-12.14,-26.76,0,0,0,0,0,0,0,0,0,0,0,0,0,0,0,0,
427,-26.79,-25.41,40.66,24.08,-5.812,21.53,17.32,7.526,-12.17,-16.45,-10.34,-12.7,-22.27,-8.844,-11.12,-24.92,0,0,0,0,0,0,0,0,0,0,0,0,0,0,0,0,
428,-11.28,-11.45,26.78,22.62,2.976,22.52,19,12.99,-16.31,-5.097,-9.383,4.483,-4.079,2.842,4.071,0.1421,0,0,0,0,0,0,0,0,0,0,0,0,0,0,0,0,
429,2.449,1.725,24.6,21.8,23.91,36.88,36,33.53,-4.235,8.415,-1.646,29.93,25.94,19.32,20.88,28.29,0,0,0,0,0,0,0,0,0,0,0,0,0,0,0,0,
430,24.96,25.75,41.33,34.36,20.03,52.99,56.69,43.6,-6.829,5.426,2.512,33.49,39.94,19.27,19.66,24.63,0,0,0,0,0,0,0,0,0,0,0,0,0,0,0,0,
431,27.5,30.26,36.91,34.45,15.31,41.59,47.43,37.69,-14.08,1.171,2.997,27.24,32.23,7.406,19.37,14.66,0,0,0,0,0,0,0,0,0,0,0,0,0,0,0,0,
432,20.96,24.25,31.89,35.02,27.14,35.24,40.87,37.47,5.697,10.17,7.303,29.31,21.58,-2.302,23.16,13.35,0,0,0,0,0,0,0,0,0,0,0,0,0,0,0,0,
433,24.05,27.79,29.83,34.74,20.05,33.17,46.48,23.08,12.82,9.698,7.772,21.26,13,-12.95,20.09,5.474,0,0,0,0,0,0,0,0,0,0,0,0,0,0,0,0,
434,22.22,24.97,20.59,20.49,16.35,25.18,38.61,9.399,11.27,3.603,15.28,12.73,11.19,-12.62,25.03,5.716,0,0,0,0,0,0,0,0,0,0,0,0,0,0,0,0,
435,17.55,21.68,18.81,17.3,29.1,36.11,34.05,25.27,20.14,9.534,17.54,7.704,10.92,-1.787,25.64,9.49,0,0,0,0,0,0,0,0,0,0,0,0,0,0,0,0,
436,7.232,26.5,11.09,19.75,2.643,38.54,37.47,29,-7.734,10.81,-16.62,-21.29,-2.456,-3.966,-0.0215,-4.315,0,0,0,0,0,0,0,0,0,0,0,0,0,0,0,0,
437,-23.89,9.271,-14.5,-2.199,-42.42,7.42,13.61,7.935,-50.5,-6.217,-52.22,-57.67,-19.81,-12.58,-20.29,-11.75,0,0,0,0,0,0,0,0,0,0,0,0,0,0,0,0,
438,-48.76,-22.96,-33.16,-20.41,-39.06,-12.78,-19.55,-1.681,-47.8,-27.35,-50.24,-65.41,-30.08,-11.6,-15.84,-5.643,0,0,0,0,0,0,0,0,0,0,0,0,0,0,0,0,
439,-47.1,-31.73,-31.85,-10.13,-13.47,-14.39,-24.85,-3.432,-32.56,-36.31,-35.84,-52.59,-39.98,-11.51,-12.12,-14.58,0,0,0,0,0,0,0,0,0,0,0,0,0,0,0,0,
440,-43.72,-33.14,-24.67,-5.402,-11.75,-21.04,-27.02,-9.287,-29.04,-32.72,-23.54,-36.65,-45.16,-14.49,-9.63,-26.8,0,0,0,0,0,0,0,0,0,0,0,0,0,0,0,0,
441,-39.12,-42.95,-21.02,-17.37,-16.3,-12.81,-34.42,-21.63,-16.16,-30.83,-5.406,-17.71,-36.41,-11.17,0.7734,-19.79,0,0,0,0,0,0,0,0,0,0,0,0,0,0,0,0,
442,-17.36,-35.12,-10.22,-16.67,0.6203,12.81,-22.06,-37.06,-6.314,-36.79,1.399,-2.659,-25.19,-11.06,-1.292,-14.71,0,0,0,0,0,0,0,0,0,0,0,0,0,0,0,0,
443,4.538,-15.48,5.334,-5.607,20.64,26.83,-11.05,-29.5,-1.657,-34.81,-6.582,1.611,-21.63,-19.65,-10.3,-21.51,0,0,0,0,0,0,0,0,0,0,0,0,0,0,0,0,
444,13.19,-8.265,1.584,-8.375,7.846,26.98,-20.35,-11.26,9.936,-20.39,-3.45,7.73,-16.93,-21.61,1.881,-17.5,0,0,0,0,0,0,0,0,0,0,0,0,0,0,0,0,
445,18.86,-4.477,-8.112,-13,-3.14,30.5,-22.72,-13.75,15.1,-13.44,5.862,16.55,-12.5,-18.12,11.69,-9.388,0,0,0,0,0,0,0,0,0,0,0,0,0,0,0,0,
446,24.51,0.3176,1.508,-4.641,29.51,43.68,-9.991,-18.79,15.21,-17.2,-0.8665,9.398,-16.46,-20.04,-7.543,-16.39,0,0,0,0,0,0,0,0,0,0,0,0,0,0,0,0,
447,23.84,-2.449,7.852,-2.3,47.48,53.53,1.147,-13.51,17.75,-16.59,-11.44,-7.413,-15.52,-17.37,-22.86,-19.58,0,0,0,0,0,0,0,0,0,0,0,0,0,0,0,0,
448,21.04,-2.388,6.184,-2.086,31.73,56.54,11.74,-4.724,15.06,-13.37,-17.14,-16.89,-8.677,-14.47,-22.45,-12.78,0,0,0,0,0,0,0,0,0,0,0,0,0,0,0,0,
449,19.99,4.068,14.4,10.51,36.49,62.94,27.19,3.859,8.146,-16.46,-29.58,-23.07,-13.75,-26.51,-33.2,-17.6,0,0,0,0,0,0,0,0,0,0,0,0,0,0,0,0,
450,10.14,2.35,10.51,13.25,30.83,61.01,39.74,2.246,-1.517,-19.57,-36.25,-25.26,-20.21,-33.11,-40.88,-24.25,0,0,0,0,0,0,0,0,0,0,0,0,0,0,0,0,
451,2.443,-1.924,6.327,17.66,1.233,57.64,44.75,10.74,0.9433,-13.32,-19.92,-11.88,-13.48,-21.4,-20.55,-13.04,0,0,0,0,0,0,0,0,0,0,0,0,0,0,0,0,
452,24.64,5.261,40.7,49.57,26.47,82.55,51.75,39.26,40.83,0.4147,25.03,28.56,7.541,-1.915,31.07,23.55,0,0,0,0,0,0,0,0,0,0,0,0,0,0,0,0,
453,73.22,29.26,86.83,83.92,110,126.8,82.53,65.36,112.4,24.92,115.7,104.9,60.09,42.6,125.6,96.57,0,0,0,0,0,0,0,0,0,0,0,0,0,0,0,0,
454,140.9,84.02,133.3,129.4,191.6,181,145.5,107.4,192.2,65.59,224.6,188.1,125.2,101.2,221.8,163.5,0,0,0,0,0,0,0,0,0,0,0,0,0,0,0,0,
455,200.1,138.6,176.6,177.4,218.3,218.4,186.6,142.1,227.6,86.44,257,209.1,134.2,107.5,228,151.4,0,0,0,0,0,0,0,0,0,0,0,0,0,0,0,0,
456,179.4,122.4,145.8,142.4,152.2,172.4,143.8,104.5,168.3,54.88,181.5,144.5,79.54,61.91,146.1,82.34,0,0,0,0,0,0,0,0,0,0,0,0,0,0,0,0,
457,97.15,58.14,64.74,60.35,59.89,84.68,70.41,51.44,78.53,15.52,86.88,64.21,27.04,30.62,68.88,32.98,0,0,0,0,0,0,0,0,0,0,0,0,0,0,0,0,
458,53.59,29.64,40.69,45.82,28.04,59.55,55.09,46.06,46.37,4.999,46.4,31.94,12.52,21.82,38.12,16.6,0,0,0,0,0,0,0,0,0,0,0,0,0,0,0,0,
459,45.48,32.37,48.54,59.33,32.04,69.8,63.96,40.69,38.99,-4.004,30.21,16.75,11.75,6.955,18.85,4.607,0,0,0,0,0,0,0,0,0,0,0,0,0,0,0,0,
460,17.17,18.44,32.33,38.54,37.61,57.56,37.23,25.68,14.61,-14.95,-1.32,-19.52,-3.841,-8.56,-16.8,-15.55,0,0,0,0,0,0,0,0,0,0,0,0,0,0,0,0,
461,-6.816,-7.883,34.04,32.15,48.94,49.63,15.6,27.58,8.506,-10.98,-26.24,-45.74,-25.59,-18.52,-45.09,-34.21,0,0,0,0,0,0,0,0,0,0,0,0,0,0,0,0,
462,-1.348,-24.23,57.92,56.47,59.94,55.3,25.83,31.39,26.39,-6.63,-26.86,-42.68,-36.65,-31.46,-46.02,-41.38,0,0,0,0,0,0,0,0,0,0,0,0,0,0,0,0,
463,0.061,-32.11,52.5,62.59,55.41,46.53,21.54,33.8,17.16,-8.958,-26.59,-37.93,-45.6,-40.77,-39.73,-44.85,0,0,0,0,0,0,0,0,0,0,0,0,0,0,0,0,
464,-13.16,-39.92,23.65,40.88,21.98,25.27,-0.921,30.96,-9.98,-10.77,-30.9,-38.73,-53.45,-36.02,-32.22,-41.67,0,0,0,0,0,0,0,0,0,0,0,0,0,0,0,0,
465,-14.36,-45.71,8.5,21.76,-5.404,7.89,-14.02,11.14,2.917,-16.76,-23.82,-34.17,-48.44,-24.2,-18.06,-26.08,0,0,0,0,0,0,0,0,0,0,0,0,0,0,0,0,
466,-9.383,-49.39,3.287,9.126,16.65,-2.682,-29.93,-2.326,24.46,-21.36,-14.62,-28.75,-37.79,-15.56,-12.96,-20.41,0,0,0,0,0,0,0,0,0,0,0,0,0,0,0,0,
467,-8.022,-48.43,1.746,-2.766,49.41,2.522,-34.33,3.704,11.71,-9.651,-11.41,-17.87,-26.11,-10.59,-12.23,-26.17,0,0,0,0,0,0,0,0,0,0,0,0,0,0,0,0,
468,10.18,-32.56,17.75,6.347,56.69,24.99,-7.374,12.06,16.21,6.171,-2.412,3.11,-14.42,-11.43,-3.998,-26.25,0,0,0,0,0,0,0,0,0,0,0,0,0,0,0,0,
469,27.41,-16.41,29.15,24.48,59.41,34.82,6.421,18.55,37.55,6.861,4.211,10.46,-18.4,-20.44,-4.904,-34.35,0,0,0,0,0,0,0,0,0,0,0,0,0,0,0,0,
470,19.84,-16.66,18.93,18.01,52.29,24.81,-3.221,23.91,20.5,5.765,-7.631,-8.341,-30.06,-26.32,-20.12,-51.66,0,0,0,0,0,0,0,0,0,0,0,0,0,0,0,0,
471,7.225,-15.57,15.5,4.579,18.45,15.93,-4.866,19.75,-13.09,11.62,-34.53,-39.07,-31.36,-22.67,-44.2,-64.47,0,0,0,0,0,0,0,0,0,0,0,0,0,0,0,0,
472,-18.08,-12.08,17.26,4.047,-4.417,6.494,-11.89,12.4,-35.46,9.518,-64.14,-68.06,-35.44,-20.3,-72.1,-78.72,0,0,0,0,0,0,0,0,0,0,0,0,0,0,0,0,
473,-46.51,-21.97,21.13,12.31,19.72,13.7,-12.96,16.77,-42.67,5.552,-74.52,-73.19,-40.41,-21.29,-78.34,-80.31,0,0,0,0,0,0,0,0,0,0,0,0,0,0,0,0,
474,-27.07,-29.26,46.1,31.06,52.18,49.35,15.29,22.65,-22.49,7.463,-60.56,-48.54,-27.81,-19.01,-57.96,-56.94,0,0,0,0,0,0,0,0,0,0,0,0,0,0,0,0,
475,9.616,-22.48,57.11,42.49,54.37,61.13,30.11,19.09,-2.902,5.581,-45.05,-25.61,-13.5,-17.25,-34.82,-34.13,0,0,0,0,0,0,0,0,0,0,0,0,0,0,0,0,
476,15.13,-14.24,35.31,36.4,42.21,39.08,22.52,22.18,-0.5588,6.508,-27.12,-10.86,-9.767,-16.87,-11.72,-17.27,0,0,0,0,0,0,0,0,0,0,0,0,0,0,0,0,
477,20.08,-4.192,19.45,30.83,15.05,27.5,27.15,29.41,6.876,8.927,-2.268,9.286,-2.082,-11.12,10.08,4.322,0,0,0,0,0,0,0,0,0,0,0,0,0,0,0,0,
478,30.98,8.079,12,25.73,-11.76,16.87,26.07,24.51,11.06,2.279,-0.55,14.16,3.613,-6.18,12.49,12.81,0,0,0,0,0,0,0,0,0,0,0,0,0,0,0,0,
479,22.02,7.724,1.572,18.39,-0.6603,-5.613,7.853,19.42,-1.113,2.468,-25.07,-3.962,-4.875,-13.24,-3.151,0.6067,0,0,0,0,0,0,0,0,0,0,0,0,0,0,0,0,
480,6.223,1.353,-7.069,15.98,1.025,-16.72,0.319,16.24,-17.65,11.87,-41.64,-17.36,-10,-22.67,-15.48,-8.885,0,0,0,0,0,0,0,0,0,0,0,0,0,0,0,0,
481,-5.372,8.659,-23.92,10.68,-34.56,-22.34,1.906,7.452,-28.71,16.01,-48.65,-25.66,-2.375,-21.34,-20.09,-7.689,0,0,0,0,0,0,0,0,0,0,0,0,0,0,0,0,
482,-24.21,16.27,-46.88,-4.064,-50.76,-41.37,-4.642,8.235,-40.55,24.91,-67.35,-49.41,0.4736,-17.77,-32.9,-13.51,0,0,0,0,0,0,0,0,0,0,0,0,0,0,0,0,
483,-48.37,12.64,-61.74,-19.58,-58.28,-61.29,-11.44,14.61,-64.53,38.46,-86.61,-74.22,-6.84,-19.94,-52.46,-31.97,0,0,0,0,0,0,0,0,0,0,0,0,0,0,0,0,
484,-66.3,10.61,-67.17,-26.11,-86.18,-64.89,-11.49,8.861,-80.91,35.27,-87.67,-76.16,-20.24,-25.24,-59.77,-52.79,0,0,0,0,0,0,0,0,0,0,0,0,0,0,0,0,
485,-76.63,-0.882,-71.2,-31.78,-92.84,-64.75,-18.54,0.3253,-75.67,20.38,-81.07,-65.25,-37.51,-30.52,-50.26,-62.74,0,0,0,0,0,0,0,0,0,0,0,0,0,0,0,0,
486,-74.4,-21.08,-75.52,-42.56,-68.16,-71.83,-29.66,-3.415,-67.6,15.31,-64.67,-48.47,-37.73,-24.02,-27.02,-47.57,0,0,0,0,0,0,0,0,0,0,0,0,0,0,0,0,
487,-48.02,-18.95,-66.89,-40.33,-49.05,-64.78,-23.67,-7.292,-44.45,15.19,-28.4,-17.25,-18.98,-9.111,-2.755,-23.86,0,0,0,0,0,0,0,0,0,0,0,0,0,0,0,0,
488,-10.02,-9.574,-54.61,-32.66,-50.73,-41.62,-12.87,-14.96,-5.533,4.612,-4.109,10.27,-9.084,-7.816,5.979,-13.9,0,0,0,0,0,0,0,0,0,0,0,0,0,0,0,0,
489,18.1,-9.534,-50.75,-35.71,-45.27,-23.67,-10.76,-25.1,6.318,-4.187,-3.321,21.28,3.577,-7.996,16.49,9.616,0,0,0,0,0,0,0,0,0,0,0,0,0,0,0,0,
490,38.24,9.694,-30.67,-23.57,-17.37,-2.156,5.545,-21.16,0.4616,2.026,4.316,35.56,36.62,7.887,38.67,51.3,0,0,0,0,0,0,0,0,0,0,0,0,0,0,0,0,
491,55.93,37.57,-3.87,-1.151,-10.35,27.3,31.47,-3.048,13.3,5.122,13.77,51.73,57.94,14.9,45.62,70.27,0,0,0,0,0,0,0,0,0,0,0,0,0,0,0,0,
492,71.77,45.49,7.144,8.073,-13,46.93,42.41,4.389,37.35,-3.406,19.4,53.93,54.95,2.853,36.62,70.84,0,0,0,0,0,0,0,0,0,0,0,0,0,0,0,0,
493,79.54,44.2,25.56,24.94,20.63,54.87,46.28,0.2895,47.96,-6.435,32.2,45.47,46.18,-6.56,24.8,68.49,0,0,0,0,0,0,0,0,0,0,0,0,0,0,0,0,
494,64.3,34.05,37.55,35.69,27.94,50.3,44.88,-3.826,27.95,-2.958,22.93,23.18,28.53,-11.66,3.238,47.87,0,0,0,0,0,0,0,0,0,0,0,0,0,0,0,0,
495,35.2,12.05,24.98,22.63,-7.38,39.09,33.87,-4.126,-0.9369,-3.101,-10.29,-12.22,3.931,-21.82,-15.92,22.33,0,0,0,0,0,0,0,0,0,0,0,0,0,0,0,0,
496,15.11,-1.217,31.01,29.9,0.3505,45.22,34.53,7.169,-8.664,-2.452,-26.63,-38.53,-10.76,-30.36,-22.83,9.54,0,0,0,0,0,0,0,0,0,0,0,0,0,0,0,0,
497,5.361,-1.287,51.7,49.93,20.54,63.58,49.76,18.7,-14.35,0.8192,-36.33,-49.72,-17.47,-32.11,-36.15,-5.865,0,0,0,0,0,0,0,0,0,0,0,0,0,0,0,0,
498,2.247,1.063,54.7,46.39,1.009,71.97,57.96,20.6,-17.04,0.7536,-50.81,-50.91,-21.2,-32.01,-47.09,-22.11,0,0,0,0,0,0,0,0,0,0,0,0,0,0,0,0,
499,7.751,3.629,58.52,44.29,3.805,73.16,58.16,28.47,3.495,1.027,-36.38,-29.34,-12.8,-26.86,-28.24,-20.18,0,0,0,0,0,0,0,0,0,0,0,0,0,0,0,0,
500,19.88,6.744,55.59,45.7,26.77,68.78,57.98,36.06,13.74,2.076,-6.075,2.997,-2.087,-18.56,-5.894,-19.2,0,0,0,0,0,0,0,0,0,0,0,0,0,0,0,0,
501,23.93,4.399,31.42,33.58,10.21,49.44,46.94,28.45,-2.559,-7.768,-10.89,2.125,-17.84,-28.15,-23.5,-49.73,0,0,0,0,0,0,0,0,0,0,0,0,0,0,0,0,
502,4.516,-11.36,12.15,17.3,-21.43,19.39,18.69,12.14,-15.35,-22.35,-39.29,-23.77,-44.54,-46.22,-52.71,-80.29,0,0,0,0,0,0,0,0,0,0,0,0,0,0,0,0,
503,-14.86,-25.21,-10.46,-8.368,-38.21,-7.546,-5.212,-7.111,-19.24,-20.76,-47.86,-29.73,-39.78,-39.47,-50.04,-70.75,0,0,0,0,0,0,0,0,0,0,0,0,0,0,0,0,
504,-9.03,-16.71,-38.96,-22.57,-47.79,-24.18,-9.988,-12.08,-23.6,-7.875,-48.52,-29.32,-18.86,-23.13,-45.68,-52.36,0,0,0,0,0,0,0,0,0,0,0,0,0,0,0,0,
505,-6.492,-3.034,-36.26,-8.868,-46.05,-35.03,-10.63,1.144,-29.81,-1.333,-65.66,-46.56,-13.64,-21.87,-63.4,-48.05,0,0,0,0,0,0,0,0,0,0,0,0,0,0,0,0,
506,-20.83,3.782,-21.94,-9.615,-43.27,-43.18,-3.792,6.543,-36.36,4.986,-79.39,-54.58,-11.57,-22.89,-71.51,-34.22,0,0,0,0,0,0,0,0,0,0,0,0,0,0,0,0,
507,-24.9,16.36,-24.67,-13.44,-45.51,-41.3,16.82,13.04,-37.48,17.63,-82.83,-50.83,-9.285,-23.75,-70.59,-18.03,0,0,0,0,0,0,0,0,0,0,0,0,0,0,0,0,
508,-27.24,15.93,-20.62,6.314,-33.83,-37.95,12.04,25.41,-41.43,18.61,-94.6,-64.1,-18.4,-26.75,-83.7,-16.99,0,0,0,0,0,0,0,0,0,0,0,0,0,0,0,0,
509,-49.79,-12.53,-22.99,-4.532,-35.54,-55.01,-26.78,8.088,-58.41,2.165,-110.2,-87.3,-30.73,-25.19,-98.77,-21.64,0,0,0,0,0,0,0,0,0,0,0,0,0,0,0,0,
510,-75.39,-38.56,-54.08,-46.28,-82.9,-83.18,-54.58,-24.39,-79.04,-10.35,-121.7,-101.5,-43.68,-31.77,-106.6,-29.19,0,0,0,0,0,0,0,0,0,0,0,0,0,0,0,0,
511,-87.84,-51.34,-76.48,-61.49,-115.7,-96.36,-63.16,-38.16,-89.62,-15.23,-125.5,-105.4,-55.1,-45.98,-108,-36.11,0,0,0,0,0,0,0,0,0,0,0,0,0,0,0,0,
512,-85.01,-59.89,-73.3,-58.15,-89.46,-97.6,-66.37,-42.19,-83.78,-24.34,-113.5,-101.3,-52.69,-48.42,-96.97,-35.21,0,0,0,0,0,0,0,0,0,0,0,0,0,0,0,0,
513,-72.55,-56.2,-75.9,-59.89,-69.65,-105,-66.52,-38.4,-79.19,-29.39,-103.6,-97.56,-45.01,-44.82,-83.31,-35.97,0,0,0,0,0,0,0,0,0,0,0,0,0,0,0,0,
514,-73.99,-49.78,-95.96,-71.3,-89.12,-115.4,-74.34,-39.75,-91.73,-27.43,-104.5,-88.87,-39.93,-41.2,-70.11,-35.82,0,0,0,0,0,0,0,0,0,0,0,0,0,0,0,0,
515,-78.17,-45.93,-107.7,-88.11,-89.58,-105.1,-74.38,-59.64,-88.23,-30.04,-88.53,-56.03,-20.78,-27.27,-44.89,-17.36,0,0,0,0,0,0,0,0,0,0,0,0,0,0,0,0,
516,-46.33,-26.11,-85.7,-79.28,-58.75,-70.14,-50.53,-59.57,-56.5,-30.86,-64.34,-18.53,5.455,-12.27,-25.84,0.8804,0,0,0,0,0,0,0,0,0,0,0,0,0,0,0,0,
517,-4.418,-6.234,-45.64,-45.97,-39.36,-35.82,-28.84,-37.74,-43.34,-25.43,-67.95,-15.87,6.194,-11.98,-36.47,-14.63,0,0,0,0,0,0,0,0,0,0,0,0,0,0,0,0,
518,3.371,-10.62,-22.65,-25.99,-38.7,-14.2,-17.21,-37.76,-56.8,-25.62,-84.15,-33.52,-12.08,-16.01,-53.33,-39.39,0,0,0,0,0,0,0,0,0,0,0,0,0,0,0,0,
519,-3.663,-24.37,-20.45,-21.84,-34.93,0.421,-8.628,-44.75,-62.66,-29.56,-80.87,-33.92,-17.09,-13.72,-48.49,-34.06,0,0,0,0,0,0,0,0,0,0,0,0,0,0,0,0,
520,-1.789,-32.04,-15,-11.76,-7.489,11.79,-3.318,-31.89,-48.85,-28.92,-59.08,-18.59,-9.537,-16.19,-30.81,-17.05,0,0,0,0,0,0,0,0,0,0,0,0,0,0,0,0,
521,6.098,-26.5,7.975,9.644,24.71,28.21,16.57,-12.42,-19.76,-25.97,-29.81,0.0534,-1.913,-22.38,-14.21,-4.178,0,0,0,0,0,0,0,0,0,0,0,0,0,0,0,0,
522,21.91,-5.267,29.34,25.48,24.26,42.73,38.64,4.445,-2.599,-20.28,-9.627,16.7,6.578,-18.47,-2.894,17.05,0,0,0,0,0,0,0,0,0,0,0,0,0,0,0,0,
523,38.33,14.38,30.73,26.93,21.07,38.13,39.95,10.42,-13.74,-11.88,-6.958,20.33,10.51,-12.34,3.539,36.05,0,0,0,0,0,0,0,0,0,0,0,0,0,0,0,0,
524,39.13,23.53,26.54,29.64,23.73,20.16,43.64,3.139,-17.96,-8.134,-2.506,15.03,11.48,-9.093,15.75,49.43,0,0,0,0,0,0,0,0,0,0,0,0,0,0,0,0,
525,23.05,27.73,19.03,28.9,-17.53,-3.125,40.96,-0.1133,-19.56,-12.56,1.803,8.756,15.33,-3.015,26.09,63.39,0,0,0,0,0,0,0,0,0,0,0,0,0,0,0,0,
526,-1.958,17.93,-3.857,8.638,-57.72,-28.68,4.244,-6.908,-54.65,-25.45,-14.14,-6.301,6.134,-10.17,12.16,55.54,0,0,0,0,0,0,0,0,0,0,0,0,0,0,0,0,
527,-26.95,-11.68,-26.55,-17.01,-49.01,-49.5,-31.09,-32.07,-76.3,-43.65,-27.22,-23.31,-15.82,-29.91,-4.921,31.3,0,0,0,0,0,0,0,0,0,0,0,0,0,0,0,0,
528,-38.86,-34.53,-24.64,-24.77,-35.38,-58.08,-32.38,-43.06,-48.74,-52.64,-18.04,-27.16,-21.33,-32.58,4.107,25.53,0,0,0,0,0,0,0,0,0,0,0,0,0,0,0,0,
529,-35.89,-28.91,0.2076,-6.237,-19.32,-43.19,-15.59,-22.53,-37.12,-49.84,-16.17,-29.34,-13.17,-26.43,14.09,26.97,0,0,0,0,0,0,0,0,0,0,0,0,0,0,0,0,
530,-41.11,-19.3,10.45,12.25,-22.79,-30.24,-6.336,-15.25,-69.84,-52.71,-33.75,-44.51,-18.32,-33.38,3.702,11.82,0,0,0,0,0,0,0,0,0,0,0,0,0,0,0,0,
531,-59.71,-24.05,-10.29,1,-71.33,-50.63,-15.07,-34,-89.13,-56.9,-45.78,-54.25,-27.17,-33.69,-8.164,-4.203,0,0,0,0,0,0,0,0,0,0,0,0,0,0,0,0,
532,-59.56,-24.05,-18.54,-12.92,-71.7,-63.11,-25.54,-40,-66.36,-47.02,-40.31,-36.48,-19.91,-18.22,-12.53,-9.567,0,0,0,0,0,0,0,0,0,0,0,0,0,0,0,0,
533,-35.77,-18.66,-9.09,-12.08,-27.6,-48.95,-29.52,-37.66,-40.01,-36.81,-30.78,-13.4,-14.96,-11.49,-15.41,-18.2,0,0,0,0,0,0,0,0,0,0,0,0,0,0,0,0,
534,-16.94,-17.97,-15.6,-19.46,-28.35,-47.67,-36.94,-47.56,-37.09,-32.98,-27.24,-6.929,-19.67,-13.23,-13.72,-24.43,0,0,0,0,0,0,0,0,0,0,0,0,0,0,0,0,
535,-7.208,-7.749,-15.5,-19.61,-26.23,-44.01,-34.14,-46.63,-31.39,-20.67,-18.43,8.481,-3.174,-0.0101,-0.8683,-2.53,0,0,0,0,0,0,0,0,0,0,0,0,0,0,0,0,
536,4.591,15.68,-1.891,-4.334,-14.42,-25.75,-18.69,-33.27,-18.21,-6.849,-1.797,33.42,29.47,21.69,18.06,37.3,0,0,0,0,0,0,0,0,0,0,0,0,0,0,0,0,
537,11.84,32.66,-12.36,-13.22,-38.25,-35.05,-24.06,-37.29,-23.11,-7.196,4.321,31.47,41.67,26.89,27.21,63.49,0,0,0,0,0,0,0,0,0,0,0,0,0,0,0,0,
538,3.839,31.8,-33.85,-36.21,-38.95,-56.32,-44.1,-48.76,-22.6,-12.75,2.715,17.35,46.39,23.27,32.44,84.11,0,0,0,0,0,0,0,0,0,0,0,0,0,0,0,0,
539,-5.301,31.57,-37.26,-31.52,-24.61,-47.35,-39.53,-41.4,-12.89,-9.21,6.351,20.21,64.8,32.93,47.54,110.7,0,0,0,0,0,0,0,0,0,0,0,0,0,0,0,0,
540,-3.131,41.56,-35.1,-22.65,-40.47,-38.38,-29.17,-29.08,-41.02,-4.42,1.806,14.15,66.19,40.29,49.02,114.4,0,0,0,0,0,0,0,0,0,0,0,0,0,0,0,0,
541,-16.03,29.5,-43.05,-39.4,-43.12,-58.15,-47.45,-32.29,-73.19,-10.36,-15.59,-15.79,37.82,27.49,27.4,87.95,0,0,0,0,0,0,0,0,0,0,0,0,0,0,0,0,
542,-47.82,0.9032,-58.57,-52.22,-48,-74.05,-65.02,-38.99,-60.83,-14.86,-29.61,-43.81,10.87,14.32,9.673,61.44,0,0,0,0,0,0,0,0,0,0,0,0,0,0,0,0,
543,-67.29,-6.779,-69.67,-47.89,-76.59,-74.81,-65.48,-39.22,-55.87,-13.78,-38.48,-58.57,-7.026,7.821,-3.174,42.42,0,0,0,0,0,0,0,0,0,0,0,0,0,0,0,0,
544,-76.99,-14.85,-66.15,-48.12,-74.78,-81.64,-73.02,-39.27,-67.56,-22.84,-36.66,-52.95,-19.26,-3.217,-7.034,29.69,0,0,0,0,0,0,0,0,0,0,0,0,0,0,0,0,
545,-69.99,-26.61,-47.34,-42.04,-45.16,-72.53,-69.68,-32.14,-38.18,-29.41,-9.581,-16.38,-11.1,-8.562,15.59,29.68,0,0,0,0,0,0,0,0,0,0,0,0,0,0,0,0,
546,-29.61,-10.48,-28.53,-21.49,-17.76,-40.01,-44.23,-19.28,4.718,-20.67,19.66,18.35,0.7915,-9.598,30.59,24.77,0,0,0,0,0,0,0,0,0,0,0,0,0,0,0,0,
547,0.0896,-0.6995,-28.86,-14.34,-1.779,-32.96,-35.17,-21.94,11.79,-19.51,19.7,18.36,-10.84,-20.14,14.88,3.409,0,0,0,0,0,0,0,0,0,0,0,0,0,0,0,0,
548,2.032,-15.82,-31.4,-16.43,-9.075,-39.89,-38.95,-32.75,14.56,-27.6,6.237,9.277,-25.68,-26.93,2.131,-19.44,0,0,0,0,0,0,0,0,0,0,0,0,0,0,0,0,
549,13.06,-16.52,-13.78,-2.881,-3.974,-14.38,-27.62,-25.69,30.99,-24.06,1.311,10.52,-28.58,-24.62,-2.878,-37.02,0,0,0,0,0,0,0,0,0,0,0,0,0,0,0,0,
550,24.04,-10.64,4.431,13.78,27.88,12.53,-16.92,-8.358,32.32,-17.52,2.289,8.35,-30.74,-23.81,-12.51,-39.55,0,0,0,0,0,0,0,0,0,0,0,0,0,0,0,0,
551,23.59,-13.38,16.1,22.63,42.24,19.28,-8.834,-3.372,23.65,-21.7,6.047,6.628,-19.24,-18.12,-10.38,-19.71,0,0,0,0,0,0,0,0,0,0,0,0,0,0,0,0,
552,32.65,2.953,37.51,38.4,41.34,43.16,19.63,0.2184,21.4,-20.23,4.787,8.526,11.54,-6.732,-2.357,1.665,0,0,0,0,0,0,0,0,0,0,0,0,0,0,0,0,
553,38.61,33.35,50.61,55.67,38.64,70.32,46.98,16.79,5.383,-4.785,-7.986,0.9018,35.88,5.74,-4.8,18.98,0,0,0,0,0,0,0,0,0,0,0,0,0,0,0,0,
554,26.41,45.75,35.28,50.9,24.1,53.63,42.15,18.25,-16.18,1.112,-14.72,-5.513,48.59,25.09,1.247,46.45,0,0,0,0,0,0,0,0,0,0,0,0,0,0,0,0,
555,14.14,43.66,11.7,29.99,20.92,20.14,30.1,-1.605,-5.36,-2.558,-3.308,8.407,64.03,42.94,24.61,76.19,0,0,0,0,0,0,0,0,0,0,0,0,0,0,0,0,
556,11.52,44.21,-0.3172,17.37,32.03,14.68,27.78,-3.651,14.98,4.927,11.69,30.29,78.02,47.95,44.6,94.82,0,0,0,0,0,0,0,0,0,0,0,0,0,0,0,0,
557,13.57,38.49,-7.233,11.39,22.91,7.176,7.265,0.9091,7.433,1.421,21.74,38.61,75.13,42.52,54.49,96.06,0,0,0,0,0,0,0,0,0,0,0,0,0,0,0,0,
558,13.18,17.14,-18.4,-2.179,-2.201,-25.94,-23.13,-17.4,-2.887,-21.08,33.18,35.06,54.78,29.22,58.83,80.2,0,0,0,0,0,0,0,0,0,0,0,0,0,0,0,0,
559,5.519,-3.688,-32.5,-21.74,-15.3,-47.76,-35.16,-30.14,4.287,-24.34,40.53,32.2,33.81,16.82,54.15,62.38,0,0,0,0,0,0,0,0,0,0,0,0,0,0,0,0,
560,0.5816,-13.58,-43.02,-34.9,-14.75,-49.77,-44.83,-30.87,13.9,-16.6,35.67,35.29,22.29,10.48,43.22,45.61,0,0,0,0,0,0,0,0,0,0,0,0,0,0,0,0,
561,5.873,-18.12,-44.4,-31.2,-17.03,-50.28,-53,-40.04,20.31,-22.34,27.81,40.25,15.8,4.114,29.01,21.34,0,0,0,0,0,0,0,0,0,0,0,0,0,0,0,0,
562,7.255,-15.65,-38.79,-20.29,-21.35,-46.55,-39.48,-36.51,19.14,-20.82,17.33,32.64,10.56,1.085,7.957,-1.459,0,0,0,0,0,0,0,0,0,0,0,0,0,0,0,0,
563,-5.694,-10.15,-36.33,-22.31,-14.61,-50.2,-25.31,-20.88,6.627,-13.85,-3.05,11.55,6.497,1.889,-5.744,-13.21,0,0,0,0,0,0,0,0,0,0,0,0,0,0,0,0,
564,-20.78,-8.942,-40.11,-30.05,-8.719,-59.03,-26.56,-20.47,-0.9621,-15.3,-14.08,-2.255,3.449,-0.8637,-1.487,-20.28,0,0,0,0,0,0,0,0,0,0,0,0,0,0,0,0,
565,-23.76,-0.6786,-36.87,-20.69,-4.728,-39.27,-22.77,-15.3,9.028,-9.214,-5.412,-6.442,-1.234,-3.68,0.4055,-30.63,0,0,0,0,0,0,0,0,0,0,0,0,0,0,0,0,
566,-18.2,13.07,-21.59,-0.1314,11.49,-7.961,-11.29,3.779,23.07,-2.591,0.2301,-8.539,-7.638,-6.391,-5.392,-36.63,0,0,0,0,0,0,0,0,0,0,0,0,0,0,0,0,
567,-15.64,11.07,-20.83,1.059,1.665,-7.939,-8.509,1.647,22.1,-10.32,-2.058,-1.707,-7.661,-12.18,-0.711,-22.19,0,0,0,0,0,0,0,0,0,0,0,0,0,0,0,0,
568,-12.78,1.081,-43.22,-17.38,-38.58,-21.85,-13.5,-17.26,15.82,-16.21,2.544,7.508,2.677,-11.05,14.33,7.482,0,0,0,0,0,0,0,0,0,0,0,0,0,0,0,0,
569,-1.708,0.3483,-50.82,-24.36,-31.96,-20.51,-20.33,-21.42,23.11,-14.27,15.19,12.89,21.88,4.444,35.57,38.17,0,0,0,0,0,0,0,0,0,0,0,0,0,0,0,0,
570,4.018,-1.796,-39.83,-23.9,6.002,-21.25,-31.51,-18.89,29.52,-10.37,27.26,20.97,44.41,25.91,57.51,65.58,0,0,0,0,0,0,0,0,0,0,0,0,0,0,0,0,
571,-3.941,-3.915,-41.05,-31.24,2.629,-32.92,-32.87,-19.92,21.09,-1.896,29.93,24.33,54.66,36.44,59.28,75.14,0,0,0,0,0,0,0,0,0,0,0,0,0,0,0,0,
572,-3.613,7.404,-37.76,-24.25,0.9689,-23.63,-11.29,-12.27,19.5,2.774,29.33,28.89,51.61,31.7,47.98,64.69,0,0,0,0,0,0,0,0,0,0,0,0,0,0,0,0,
573,14.9,16.55,-16.71,-6.702,20.75,9.21,4.726,-3.713,33.5,-3.797,31.83,42.77,49.09,27.86,46.4,58.56,0,0,0,0,0,0,0,0,0,0,0,0,0,0,0,0,
574,28.67,14.29,-7.79,-4.435,2.813,26.05,2.017,-4.306,36.06,-7.793,20.76,39.41,44.91,29.75,40.27,55.64,0,0,0,0,0,0,0,0,0,0,0,0,0,0,0,0,
575,25.69,16,-5.473,0.0601,-2.431,31.45,14.63,2.424,24.59,-0.4973,3.544,22.94,38.21,27.74,24.89,40.51,0,0,0,0,0,0,0,0,0,0,0,0,0,0,0,0,
576,26.76,23.16,15.16,17.26,50.17,54.27,40.77,13.25,33.73,8.211,7.425,22.49,36.41,23.77,21.43,26.7,0,0,0,0,0,0,0,0,0,0,0,0,0,0,0,0,
577,40.36,29.18,32.75,26.25,66.09,66.72,46.2,7.689,53.43,14.63,13.9,16.73,30.94,18.14,16.87,19.68,0,0,0,0,0,0,0,0,0,0,0,0,0,0,0,0,
578,36.82,27.81,22.39,22.61,36.55,45.26,34.61,-0.792,39.98,20.14,2.592,-6.235,12.23,4.511,-3.587,2.2,0,0,0,0,0,0,0,0,0,0,0,0,0,0,0,0,
579,12.8,10.2,5.02,13.33,37.69,25.18,21.02,0.1178,21.04,10.91,-5.312,-15.11,-14.46,-13.48,-18.35,-23.43,0,0,0,0,0,0,0,0,0,0,0,0,0,0,0,0,
580,9.523,-8.115,12.59,11.3,36.36,29.85,13.11,-4.232,37.02,-10.47,-1.325,-7.028,-33.8,-28.7,-22.84,-42.51,0,0,0,0,0,0,0,0,0,0,0,0,0,0,0,0,
581,29.91,-9.614,31.66,20.56,15.76,42.36,19.59,-11.84,51.23,-12.91,3.913,1.646,-33.32,-33.32,-28.66,-51.68,0,0,0,0,0,0,0,0,0,0,0,0,0,0,0,0,
582,39.16,-9.618,28.38,15.8,26.72,41.61,20.77,-17.77,42.26,-0.5383,7.093,6.82,-25.51,-24.37,-30.06,-47.86,0,0,0,0,0,0,0,0,0,0,0,0,0,0,0,0,
583,32.75,-13.06,17.57,1.192,46.57,29.74,7.213,-25.45,35.57,-0.057,7.355,6.731,-19.24,-12.45,-23.72,-29.97,0,0,0,0,0,0,0,0,0,0,0,0,0,0,0,0,
584,29.79,-1.367,26.5,6.249,51.41,32.57,10.12,-20.84,39.02,2.156,12.42,14.59,2.471,-1.528,-9.35,-2.733,0,0,0,0,0,0,0,0,0,0,0,0,0,0,0,0,
585,39.58,19.43,34.67,14.2,57.75,47.43,25.39,-10.01,55.38,14.62,24.81,32.91,31.14,10.45,11.07,27.61,0,0,0,0,0,0,0,0,0,0,0,0,0,0,0,0,
586,48.44,29.14,26.09,11.62,41.87,45.85,23.26,-11.87,67.95,17.95,28.87,35.22,41.41,14.18,21.23,44.86,0,0,0,0,0,0,0,0,0,0,0,0,0,0,0,0,
587,38.15,30.81,16.69,14.28,14.67,33.31,15.77,-13.16,47.39,15.14,24,24.42,44.81,10.92,21.43,46.91,0,0,0,0,0,0,0,0,0,0,0,0,0,0,0,0,
588,19.34,32.3,4.167,5.183,20.47,16.97,10.72,-17.04,26.67,12.08,21.11,24.63,53.2,13.48,27.71,56.77,0,0,0,0,0,0,0,0,0,0,0,0,0,0,0,0,
589,8.625,28.15,-18.35,-20.78,28.36,-8.948,-7.058,-34,39.51,6.655,13.67,26.76,53.93,18.05,33.12,68.92,0,0,0,0,0,0,0,0,0,0,0,0,0,0,0,0,
590,3.869,14.1,-35.92,-35.34,10.4,-26.03,-29.36,-40.01,47.71,8.759,0.4007,20.93,47.52,16.76,26.36,59.88,0,0,0,0,0,0,0,0,0,0,0,0,0,0,0,0,
591,3.594,-6.228,-45.71,-45.16,3.388,-30.61,-42.18,-36.4,35.6,10.55,-3.487,20.1,38.61,9.954,15.52,40.14,0,0,0,0,0,0,0,0,0,0,0,0,0,0,0,0,
592,11.32,-20.64,-44.75,-51.84,10.81,-29.53,-41.5,-38.35,38.27,2.613,2.345,23.64,20.69,-5.955,6.34,17.77,0,0,0,0,0,0,0,0,0,0,0,0,0,0,0,0,
593,23.59,-21.2,-23.92,-36.63,3.313,-17.58,-30.91,-33.25,47.6,-2.422,0.6763,14.25,-2.517,-27.03,-7.996,-15.09,0,0,0,0,0,0,0,0,0,0,0,0,0,0,0,0,
594,21.56,-22.76,-16.4,-30.6,-5.991,-20.89,-30.57,-28.63,30.62,-5.681,-14.73,-10.96,-21.47,-40.17,-32.81,-45.83,0,0,0,0,0,0,0,0,0,0,0,0,0,0,0,0,
595,-1.274,-30.76,-38,-49.54,-4.469,-39.09,-34.89,-33.43,10.64,-6.566,-32.23,-32.58,-31.76,-45.35,-60.07,-67.34,0,0,0,0,0,0,0,0,0,0,0,0,0,0,0,0,
596,-13.64,-21.75,-35.86,-47.68,-7.899,-25.15,-12.12,-25.88,25.21,6.518,-28.37,-32.11,-26.84,-42.23,-64.22,-77.4,0,0,0,0,0,0,0,0,0,0,0,0,0,0,0,0,
597,7.152,13.62,9.264,-6.835,18.98,18.52,37.73,9.839,75.64,31.29,27.14,-0.5034,3.719,-11.92,-15.29,-43.1,0,0,0,0,0,0,0,0,0,0,0,0,0,0,0,0,
598,63.03,68.8,73.01,57.23,107.4,82.41,100.9,70.92,153.8,73.89,125.2,60.11,60.94,47.91,72.83,35.97,0,0,0,0,0,0,0,0,0,0,0,0,0,0,0,0,
599,136.5,131.6,138,116.7,170.2,159.5,156.2,116.6,213,119.7,187.7,104.8,110,98.47,126.5,91.04,0,0,0,0,0,0,0,0,0,0,0,0,0,0,0,0,
600,155.3,157.7,148.1,122.2,145.6,175.1,157.4,100.6,180.9,118.7,158.7,85.28,106.4,104.1,103.1,85.39,0,0,0,0,0,0,0,0,0,0,0,0,0,0,0,0,
601,95.59,119.6,82.86,71.81,97.89,117.8,105.8,50.45,92.43,77.13,83.73,36.31,67.09,76.32,52.54,59.01,0,0,0,0,0,0,0,0,0,0,0,0,0,0,0,0,
602,45.02,57.83,29.41,20.8,62.59,75.56,53.85,15.19,52.37,39.73,35.37,17.19,41.56,47.71,35.27,49.22,0,0,0,0,0,0,0,0,0,0,0,0,0,0,0,0,
603,39.61,16.86,26.68,-0.9874,33.07,64.42,20.11,0.6927,56.44,11.89,28,23.42,39.28,34.18,50.06,57.28,0,0,0,0,0,0,0,0,0,0,0,0,0,0,0,0,
604,39.18,5.706,27.65,2.538,25.32,54.03,10.87,-1.56,47.54,1.585,34.4,38.6,52.57,38.65,66.89,76.05,0,0,0,0,0,0,0,0,0,0,0,0,0,0,0,0,
605,47.06,22.17,29.72,14.24,24.89,53.38,31.25,-4.524,49.19,11.12,33.08,63.72,76.96,49.83,70.32,91.1,0,0,0,0,0,0,0,0,0,0,0,0,0,0,0,0,
606,68.65,41.96,37.27,13.73,24.69,59.89,41.2,-6.884,62.46,9.298,26.16,78.38,88.94,46.78,60.29,85.25,0,0,0,0,0,0,0,0,0,0,0,0,0,0,0,0,
607,73.49,38.11,23.35,4.28,38.57,60.31,25.77,0.4901,34.96,2.66,19.89,67.22,78.36,34.15,42.77,63.16,0,0,0,0,0,0,0,0,0,0,0,0,0,0,0,0,
608,60.99,29.04,13.75,-0.7618,40.4,55.34,23.78,1.594,11.93,12.71,15.79,53.81,63.95,26.66,29.18,42.45,0,0,0,0,0,0,0,0,0,0,0,0,0,0,0,0,
609,55.24,33.96,25.79,-1.208,22.52,53.06,32.74,2.398,38.74,15.27,18.67,52.04,46.3,11.85,18.77,20.98,0,0,0,0,0,0,0,0,0,0,0,0,0,0,0,0,
610,53.05,29.29,11.44,-1.72,12.04,61.3,25.25,14.55,35.99,5.09,13.71,30.59,12.04,-15.3,-8.424,-15.85,0,0,0,0,0,0,0,0,0,0,0,0,0,0,0,0,
611,30.63,4.981,-14.65,-9.822,19.65,56.33,8.802,6.231,5.705,1.404,-11.73,-17.89,-28.27,-35.78,-48.81,-59.33,0,0,0,0,0,0,0,0,0,0,0,0,0,0,0,0,
612,-3.463,-18.6,-0.294,-23.94,35.42,29.1,-7.787,-11.21,29.44,-4.245,-25.93,-44.6,-56.48,-43.51,-75.38,-88.72,0,0,0,0,0,0,0,0,0,0,0,0,0,0,0,0,
613,-13.1,-34.2,22.73,-23.51,28.35,21.13,-15.45,-0.5156,53.57,-9.387,-15.99,-39.63,-68.42,-39.97,-84.37,-100,0,0,0,0,0,0,0,0,0,0,0,0,0,0,0,0,
614,-2.156,-38.8,31.38,-2.69,16.93,33.34,-4.671,5.894,40.14,-0.702,-5.999,-34.85,-65.93,-26.16,-78.29,-95.31,0,0,0,0,0,0,0,0,0,0,0,0,0,0,0,0,
615,4.344,-29.88,42.79,12.4,50.69,38.11,2.502,-1.371,56.38,5.039,7.151,-21.48,-56.81,-18.77,-53.97,-81.09,0,0,0,0,0,0,0,0,0,0,0,0,0,0,0,0,
616,14.7,-24.05,38.08,7.691,82.89,47.52,-4.842,15.74,71.79,-0.0253,18.19,-0.2374,-47.57,-22.32,-30.47,-66.04,0,0,0,0,0,0,0,0,0,0,0,0,0,0,0,0,
617,27.93,-24.82,30.92,4.701,69.54,53.19,-6.922,37.47,42.7,-0.8948,6.616,2.091,-31.28,-17.71,-18.72,-41.81,0,0,0,0,0,0,0,0,0,0,0,0,0,0,0,0,
618,25.96,-14.46,43.32,13.69,54.31,37.01,-0.4737,38.24,34.03,1.309,-4.031,5.854,-8.512,-5.854,-4.057,-9.805,0,0,0,0,0,0,0,0,0,0,0,0,0,0,0,0,
619,26.81,6.053,32.78,14.58,45.17,27.14,9.591,36.25,44.14,-0.134,-3.73,22.5,8.057,-2.453,10.44,11.16,0,0,0,0,0,0,0,0,0,0,0,0,0,0,0,0,
620,42.86,21.27,13.14,9.452,24.13,34.8,25,36.12,20.58,2.239,-15.68,22.7,18.49,-2.475,13.2,21.86,0,0,0,0,0,0,0,0,0,0,0,0,0,0,0,0,
621,43.76,27.63,30.69,22.08,14.71,43.17,39.29,38.96,-1.977,9.456,-26.57,14.2,26.43,2.297,12.61,29.5,0,0,0,0,0,0,0,0,0,0,0,0,0,0,0,0,
622,25.35,30.05,42.9,38.74,28.14,47.69,47.3,44.98,0.8686,8.449,-22.28,13.48,30.08,7.532,13.2,34.23,0,0,0,0,0,0,0,0,0,0,0,0,0,0,0,0,
623,16.87,28.51,29.05,33.14,37.69,40.08,44.01,38.31,0.8033,0.4774,-17,9.565,32.29,12.02,12.82,42.14,0,0,0,0,0,0,0,0,0,0,0,0,0,0,0,0,
624,17.17,20.71,22.4,17.05,22.53,21.34,23.84,23.78,-1.448,0.4792,-11.42,7.675,26.68,12.32,15.46,43.61,0,0,0,0,0,0,0,0,0,0,0,0,0,0,0,0,
625,10.02,10.45,12.49,2.64,7.997,3.943,-0.4579,10.94,-0.5502,1.653,-4.244,9.199,7.788,-0.4028,12.85,21.06,0,0,0,0,0,0,0,0,0,0,0,0,0,0,0,0,
626,1.63,-3.275,-6.134,-13.09,12.89,-11.83,-13.93,-2.369,-4.802,-6.101,-2.957,-2.325,-10.04,-18.82,-5.232,-14.99,0,0,0,0,0,0,0,0,0,0,0,0,0,0,0,0,
627,0.7027,-19.06,-12.86,-18.28,9.695,-21.29,-18.9,-7.113,-6.487,-9.034,-7.592,-21.48,-22.53,-24.72,-25.07,-44.94,0,0,0,0,0,0,0,0,0,0,0,0,0,0,0,0,
628,-0.0915,-22.01,-14.48,-16.2,-4.607,-25.94,-22.31,-9.58,-4.547,-4.282,-10.23,-31.32,-34.91,-17.25,-31.25,-64.68,0,0,0,0,0,0,0,0,0,0,0,0,0,0,0,0,
629,-9.559,-18.67,-19.47,-28.73,-19.8,-35.46,-30.96,-19.43,-7.895,-3.018,-0.7873,-28.53,-38.17,-9.368,-26.78,-71.28,0,0,0,0,0,0,0,0,0,0,0,0,0,0,0,0,
630,-17.06,-23.94,-27.42,-45.22,-29.47,-37.81,-43.61,-21.03,-8.11,-1.858,15.79,-15.68,-29.35,-1.072,-12.7,-54.84,0,0,0,0,0,0,0,0,0,0,0,0,0,0,0,0,
631,-2.874,-14.77,-32.12,-42.3,8.166,-25.24,-41.27,-15.93,15.44,6.41,34.27,9.01,-9.043,18.62,19.54,-16.5,0,0,0,0,0,0,0,0,0,0,0,0,0,0,0,0,
632,23.38,13.64,-17.51,-28.36,60.75,-12.03,-24.82,-19.96,50.47,18.15,54.22,34.32,20.75,40.69,55.37,20.67,0,0,0,0,0,0,0,0,0,0,0,0,0,0,0,0,
633,27.73,22.05,-4.967,-26.41,44.11,-7.903,-24.96,-25.78,49.79,21,55.54,34.28,37.32,44.84,64.45,40.86,0,0,0,0,0,0,0,0,0,0,0,0,0,0,0,0,
634,14.59,13.04,-14.87,-30.56,15.43,-0.7235,-31.49,-16.89,36.3,15.89,51.8,28.42,39.34,39.46,62.79,54.99,0,0,0,0,0,0,0,0,0,0,0,0,0,0,0,0,
635,23.33,15.72,-9.235,-15.76,41.77,23.48,-10.81,2.637,59.21,17.88,71.33,48,47.74,40.35,75.96,66.54,0,0,0,0,0,0,0,0,0,0,0,0,0,0,0,0,
636,40.38,12.44,12.67,-0.946,47.19,35.9,9.421,8.447,58.33,18.18,71.6,55.94,52.22,40.73,77.05,66.25,0,0,0,0,0,0,0,0,0,0,0,0,0,0,0,0,
637,35.22,-0.9741,11.75,-8.466,22.68,22.97,4.907,4.864,27.27,11.03,47.53,45.62,51.27,40.17,64.21,64.25,0,0,0,0,0,0,0,0,0,0,0,0,0,0,0,0,
638,42.64,6.638,7.004,-6.048,45.99,26.61,6.502,10.02,50.15,14.69,51.24,56.32,58,40,62.22,64.07,0,0,0,0,0,0,0,0,0,0,0,0,0,0,0,0,
639,60.28,19.83,10.4,2.772,65.8,32.75,12.83,2.911,64.01,19.69,45.21,52.27,50.64,28.94,45.42,49.64,0,0,0,0,0,0,0,0,0,0,0,0,0,0,0,0,
640,38.23,10.65,2.513,-11.35,28.26,7.512,-0.8108,-10.53,15.08,11.98,6.285,17.35,25.12,14.44,11.56,28.48,0,0,0,0,0,0,0,0,0,0,0,0,0,0,0,0,
641,10.49,-10.63,-2.937,-21.69,13.56,-10.08,-26.06,-3.551,2.463,2.609,-5.667,1.24,-0.0126,-0.3999,-7.88,6.007,0,0,0,0,0,0,0,0,0,0,0,0,0,0,0,0,
642,5.895,-38.23,-5.845,-21.66,26.66,-13.82,-48.29,-2.96,20.65,-7.487,-8.109,-11.39,-30.95,-30.08,-29.51,-33.42,0,0,0,0,0,0,0,0,0,0,0,0,0,0,0,0,
643,-12.02,-54.6,-8.793,-24.04,8.381,-24.03,-49.36,-9.988,6.144,-11.5,-35.73,-39.41,-55.37,-52.12,-57.76,-70.11,0,0,0,0,0,0,0,0,0,0,0,0,0,0,0,0,
644,-33.71,-47.62,3.972,-16.27,2.365,-23.53,-34.04,-4.138,-10.2,-7.877,-54.38,-60.66,-65.54,-46.4,-73.5,-86.72,0,0,0,0,0,0,0,0,0,0,0,0,0,0,0,0,
645,-52.85,-57.2,2.504,-20.95,15.18,-30.5,-39.81,-12.37,-25.16,-17.06,-67.33,-87.74,-86.21,-42.11,-85.81,-103.6,0,0,0,0,0,0,0,0,0,0,0,0,0,0,0,0,
646,-81.04,-79.39,-11.51,-34.29,3.629,-43.75,-51.2,-23.63,-34.77,-25.44,-79.76,-103,-101.8,-48.03,-85.55,-109.9,0,0,0,0,0,0,0,0,0,0,0,0,0,0,0,0,
647,-78.6,-72.33,5.547,-14.33,10.72,-24.91,-34.85,-13.95,-19.58,-20.91,-65.42,-79.92,-95.86,-47.92,-67.52,-93.7,0,0,0,0,0,0,0,0,0,0,0,0,0,0,0,0,
648,-51.92,-66.44,18.06,2.969,27.09,-10.31,-21.92,-14.5,-17.85,-26.24,-48.2,-60.63,-90.74,-43.93,-57.64,-78.3,0,0,0,0,0,0,0,0,0,0,0,0,0,0,0,0,
649,-41.75,-76.58,3.099,-10.71,-3.957,-24.45,-29.64,-20.77,-21.75,-28.17,-47.26,-55.34,-77.38,-33.5,-49.3,-57.38,0,0,0,0,0,0,0,0,0,0,0,0,0,0,0,0,
650,-30.14,-62.1,1.673,-13.41,-11.9,-28.77,-31.34,-11.37,-3.434,-13.5,-42.2,-39.96,-51.85,-21.47,-32.41,-27.12,0,0,0,0,0,0,0,0,0,0,0,0,0,0,0,0,
651,-19.41,-38.43,5.549,-5.308,37.61,-28.34,-24.76,-9.243,5.999,-12.1,-32.37,-24.9,-36.43,-21.75,-21.8,-12.06,0,0,0,0,0,0,0,0,0,0,0,0,0,0,0,0,
652,-22.39,-33.31,0.0109,-10.06,45.59,-32.84,-20.31,-17.81,2.574,-21.04,-25.03,-9.916,-17.33,-17.55,-15.06,-3.683,0,0,0,0,0,0,0,0,0,0,0,0,0,0,0,0,
653,-15.69,-25.57,-3.516,-18.98,2.382,-28.01,-18.67,-21.51,-11.19,-16.76,-30.11,-0.8757,2.766,-7.139,-13.31,2.295,0,0,0,0,0,0,0,0,0,0,0,0,0,0,0,0,
654,-15.49,-15.71,-14.43,-25.66,-14.2,-29.56,-22.58,-20.52,-33.84,-11.89,-49.69,-13.39,-4.003,-15.79,-23.05,-10.99,0,0,0,0,0,0,0,0,0,0,0,0,0,0,0,0,
655,-37.34,-20.39,-22.51,-27.05,-8.01,-37.83,-21.86,-16.69,-29.26,-12.9,-55.99,-27.31,-13.94,-23.56,-31.09,-22.9,0,0,0,0,0,0,0,0,0,0,0,0,0,0,0,0,
656,-50.35,-22.62,-19.4,-22.59,-10.65,-34.35,-8.34,-15.77,-19.92,-4.934,-52.5,-41.7,-9.001,-10.84,-39.63,-22.34,0,0,0,0,0,0,0,0,0,0,0,0,0,0,0,0,
657,-60.15,-18.46,-26.48,-23.03,-16.2,-31.06,-6.255,-22.69,-38.11,1.728,-65.52,-70.11,-17.48,-14.28,-60.68,-35.21,0,0,0,0,0,0,0,0,0,0,0,0,0,0,0,0,T2
658,-81.8,-33.05,-35.45,-32.56,-20.23,-33.83,-24.41,-29.67,-43.69,-9.281,-71.98,-80.97,-36.35,-36.16,-74.08,-52.35,0,0,0,0,0,0,0,0,0,0,0,0,0,0,0,0,
659,-77.16,-49.39,-28,-37.42,-7.272,-25.28,-25.49,-22.1,-29.66,-15.01,-47.65,-56.05,-39.04,-33.94,-59.92,-47.49,0,0,0,0,0,0,0,0,0,0,0,0,0,0,0,0,
660,-33.59,-37.54,-6.747,-24.33,18.46,-1.072,-6.207,-7.421,-13.91,-2.517,-16.02,-24.43,-37,-19.93,-39.07,-39.51,0,0,0,0,0,0,0,0,0,0,0,0,0,0,0,0,
661,3.114,-31.22,15.56,-16.27,18.04,22.1,-8.423,-11.14,16.79,1.56,-0.3438,-6.848,-43.98,-23.92,-30.96,-44.66,0,0,0,0,0,0,0,0,0,0,0,0,0,0,0,0,
662,14.92,-42.9,13.01,-31.46,16.02,26.57,-19.05,-18.25,41.87,-0.5997,5.301,2.127,-41.36,-24.94,-22.45,-39.53,0,0,0,0,0,0,0,0,0,0,0,0,0,0,0,0,
663,22.21,-30.88,-2.3,-33.7,43.68,19.12,0.4987,-9.426,42.41,6.135,13.53,10.18,-26.07,-13.65,-10.97,-22.01,0,0,0,0,0,0,0,0,0,0,0,0,0,0,0,0,
664,25.77,-10.29,4.104,-19.67,45.16,17.42,21.9,-9.457,41.77,3.893,20.03,15.77,-17.97,-8.077,-6.735,-16.29,0,0,0,0,0,0,0,0,0,0,0,0,0,0,0,0,
665,22.75,-10.5,5.492,-30.76,15.07,18.97,16.8,-12.84,34.96,0.4319,14.49,18.18,-15.36,-5.696,-2.924,-17.35,0,0,0,0,0,0,0,0,0,0,0,0,0,0,0,0,
666,26.04,-3.911,-7.601,-37.22,19.57,26.05,13.95,0.1687,21.38,10.99,3.025,19.54,-10.93,-5.287,1.099,-12.5,0,0,0,0,0,0,0,0,0,0,0,0,0,0,0,0,
667,33.38,11.56,9.446,-6.139,44.13,48.55,24.81,-0.7694,33.51,8.467,-5.183,15.48,-9.765,-11.33,-0.2477,-8.24,0,0,0,0,0,0,0,0,0,0,0,0,0,0,0,0,
668,28.07,11.43,27.43,2.959,38.28,56.5,25.38,-19.83,46.05,-2.244,-13.15,6.44,-6.067,-10.43,-1.776,-5.312,0,0,0,0,0,0,0,0,0,0,0,0,0,0,0,0,
669,4.533,2.365,4.004,-21.77,19.14,27.26,11.28,-18.33,21.08,7.935,-25.01,1.737,-1.853,-3.55,-8.093,-4.358,0,0,0,0,0,0,0,0,0,0,0,0,0,0,0,0,
670,-20.98,-8.681,-4.285,-14.75,21.45,1.879,0.4698,2.43,-1.218,15.62,-36.53,1.074,-11.21,-7.739,-20.12,-10.86,0,0,0,0,0,0,0,0,0,0,0,0,0,0,0,0,
671,-26.71,-19.98,21.13,12.55,36.75,3.415,5.919,13.24,5.498,4.493,-37.47,-1.03,-20.03,-17.85,-23.28,-17.19,0,0,0,0,0,0,0,0,0,0,0,0,0,0,0,0,
672,-13.34,-20.24,26.79,16.65,32.06,3.983,19.08,8.441,16.19,-1.877,-29.51,-3.071,-17.09,-24.66,-25.47,-21.12,0,0,0,0,0,0,0,0,0,0,0,0,0,0,0,0,
673,3.139,-17.34,17.45,14.62,12.11,-1.906,16.76,-1.671,24.9,-6.843,-30.65,-9.619,-30.21,-38.68,-46.28,-38.89,0,0,0,0,0,0,0,0,0,0,0,0,0,0,0,0,
674,7.333,-29.14,18.87,14.01,20.61,0.5714,1.22,-6.773,27.87,-22.24,-41.61,-26.1,-61.78,-58.48,-72.39,-69.44,0,0,0,0,0,0,0,0,0,0,0,0,0,0,0,0,
675,-0.9228,-45.09,24.58,14.76,53.93,8.807,-9.389,-3.56,20,-27.69,-45.62,-39.61,-77.97,-66.25,-83.57,-87.59,0,0,0,0,0,0,0,0,0,0,0,0,0,0,0,0,
676,-2.771,-49.96,28.7,26.11,63.31,11.59,-24.41,-5.834,17.65,-18.38,-42.85,-41.72,-83.02,-67.56,-88.85,-91.75,0,0,0,0,0,0,0,0,0,0,0,0,0,0,0,0,
677,-1.24,-54.22,20.6,21.63,52.76,2.582,-43.8,-18.35,16.23,-14.85,-41.1,-44.41,-94.04,-72.28,-96.23,-102.1,0,0,0,0,0,0,0,0,0,0,0,0,0,0,0,0,
678,-11.61,-58.28,11.32,3.356,55.09,-9.12,-42.79,-19.46,2.803,-16.2,-39.61,-50.09,-93.57,-66.01,-95.07,-109.4,0,0,0,0,0,0,0,0,0,0,0,0,0,0,0,0,
679,-16.49,-46.57,19.01,8.805,53.46,-9.136,-26.1,-9.197,-0.6746,-11.91,-32.11,-45.68,-80.9,-54.39,-80.55,-97.7,0,0,0,0,0,0,0,0,0,0,0,0,0,0,0,0,
680,-6.68,-28.93,24.07,22.09,39.83,2.61,-12.21,-4.355,10.59,-9.143,-15.74,-30.83,-69.71,-53.49,-57.96,-81.56,0,0,0,0,0,0,0,0,0,0,0,0,0,0,0,0,
681,-6.185,-21.93,29.19,22.79,44.33,13.97,-3.862,4.26,5.79,-7.23,-9.397,-17.99,-45.72,-40.32,-33.6,-64.37,0,0,0,0,0,0,0,0,0,0,0,0,0,0,0,0,
682,-22,-17.8,43.24,25.46,59.11,7.935,-3.299,11.96,-10.46,4.673,-18.41,-10.44,-13.69,-10.52,-9.028,-32.42,0,0,0,0,0,0,0,0,0,0,0,0,0,0,0,0,
683,-35.02,-12.67,32.04,21.97,49.17,-14.79,-3.685,3.341,-17.1,13.14,-19.27,-8.274,-3.104,-0.8173,11.65,-1.392,0,0,0,0,0,0,0,0,0,0,0,0,0,0,0,0,
684,-34.91,-15.08,4.822,7.857,16.12,-24.94,2.253,-2.073,-28.69,4.174,-24.77,-15.23,-2.94,-6.248,12.48,10.21,0,0,0,0,0,0,0,0,0,0,0,0,0,0,0,0,
685,-23.51,-12.3,6.588,12,1.211,-2.511,13.65,7.26,-28.61,0.9022,-43.28,-12.15,14.25,2.858,2.225,16.48,0,0,0,0,0,0,0,0,0,0,0,0,0,0,0,0,
686,-0.9957,7.385,22.13,29.93,23.34,26.89,26.69,18.14,2.226,11.9,-37.13,14.85,32.46,11.06,7.757,25.5,0,0,0,0,0,0,0,0,0,0,0,0,0,0,0,0,
687,18.23,13.72,20.98,26.48,34.69,25.63,24.11,20.78,6.538,7.183,-19.51,31.7,31.12,4.791,17.88,28.42,0,0,0,0,0,0,0,0,0,0,0,0,0,0,0,0,
688,18.77,0.8677,21.86,22.05,24.18,16.23,18.42,8.111,-11.49,-8.154,-20.14,25.81,28.38,3.877,17.68,22.89,0,0,0,0,0,0,0,0,0,0,0,0,0,0,0,0,
689,19.5,6.359,37.36,42.44,32.75,35.17,35.22,-7.664,10.34,-4.726,-14.28,23.13,26.01,1.793,10.96,-1.371,0,0,0,0,0,0,0,0,0,0,0,0,0,0,0,0,
690,23.79,11.42,36.67,41.33,27.73,45.79,34.09,-10.16,19.18,3.418,-8.978,14.34,1.004,-18.77,-10.08,-44.05,0,0,0,0,0,0,0,0,0,0,0,0,0,0,0,0,
691,9.68,-9.682,21.54,15.79,1.538,26.29,-1.916,-8.968,-17.77,0.7384,-22.33,-5.697,-27.3,-35.62,-32.58,-70.94,0,0,0,0,0,0,0,0,0,0,0,0,0,0,0,0,
692,-3.679,-20.16,26.5,16.54,16.01,19.74,-21.7,-13.37,-23.47,-3.977,-26.22,-11.01,-39.46,-40.06,-37.4,-72.53,0,0,0,0,0,0,0,0,0,0,0,0,0,0,0,0,
693,-1.039,-26.64,26.78,14.42,35.92,27.78,-25.79,-27.24,2.112,-15.96,-17.53,-6.956,-54.96,-47.33,-34.51,-65.55,0,0,0,0,0,0,0,0,0,0,0,0,0,0,0,0,
694,-2.709,-56.08,6.916,-9.108,25.95,24.16,-36.17,-43.69,8.522,-30.82,-9.947,-5.606,-63.86,-44.54,-23.73,-46.3,0,0,0,0,0,0,0,0,0,0,0,0,0,0,0,0,
695,-3.526,-74.96,5.852,-10.07,33.48,18.96,-35.05,-40.57,14.35,-32.81,-0.3238,0.6325,-56.22,-33.62,-8.864,-28.7,0,0,0,0,0,0,0,0,0,0,0,0,0,0,0,0,
696,7.707,-73.59,10.29,-6.534,44.07,22.9,-22.65,-32.24,33.01,-33.83,7.236,9.001,-53.31,-35.58,-0.291,-26.95,0,0,0,0,0,0,0,0,0,0,0,0,0,0,0,0,
697,27.18,-59.15,10.81,-10.76,51,41.75,0.3808,-33.63,43.84,-37.17,18.99,21.39,-33.29,-28.23,22.82,-10.62,0,0,0,0,0,0,0,0,0,0,0,0,0,0,0,0,
698,55.08,-13.35,42.4,11.4,87.55,73.26,38.62,-14.53,47.64,-24.74,38.08,43.45,20.54,0.6126,58.49,22.03,0,0,0,0,0,0,0,0,0,0,0,0,0,0,0,0,
699,74.15,35.33,64.08,27.98,100.7,91.74,61.62,6.506,61.22,-9.101,50.75,65.26,63.81,24.77,78.6,42.2,0,0,0,0,0,0,0,0,0,0,0,0,0,0,0,0,
700,79.25,52.99,43.17,14.98,76.6,94.03,60.43,-7.831,82.53,-10.07,60.15,79.26,80.65,39.61,89.36,57.95,0,0,0,0,0,0,0,0,0,0,0,0,0,0,0,0,
701,94.7,62.22,43.65,15.14,88.38,100.9,61.85,-8.531,101.9,-9.851,74.12,92.7,95.31,49.07,102.8,76.77,0,0,0,0,0,0,0,0,0,0,0,0,0,0,0,0,
702,112.9,75.2,73.16,31.97,114.3,107.6,67.05,19.78,111.6,3.343,86.76,105.6,106.2,51.21,111,82.45,0,0,0,0,0,0,0,0,0,0,0,0,0,0,0,0,
703,105.2,78.62,75.17,40.12,104.6,98.22,63.36,19.79,87.49,14.7,83.4,89.96,94.22,49.85,99.06,64.4,0,0,0,0,0,0,0,0,0,0,0,0,0,0,0,0,
704,74.15,68.14,59.98,44.38,95.1,79.63,55.86,7.947,47.76,24.51,64.55,47.92,64.36,37.68,65.68,28.25,0,0,0,0,0,0,0,0,0,0,0,0,0,0,0,0,
705,37.68,44.22,54.17,44.81,80.9,56.99,46.55,14.83,38.95,31.29,53.7,25.88,37.22,15.71,35.88,-6.3,0,0,0,0,0,0,0,0,0,0,0,0,0,0,0,0,
706,4.384,9.705,31.57,25.62,30.71,20.43,24.22,5.793,23.68,17.47,41.13,13.17,4.643,-3.079,11.59,-39.08,0,0,0,0,0,0,0,0,0,0,0,0,0,0,0,0,
707,-21.32,-27.24,-1.603,0.9569,4.697,-10.77,-0.4494,-12.27,-7.065,0.5914,22.72,-8.656,-26.61,-7.804,-10.6,-63.26,0,0,0,0,0,0,0,0,0,0,0,0,0,0,0,0,
708,-23.28,-45.47,-1.032,0.9651,21.45,-1.993,0.6276,-17.87,17.96,4.365,41.42,7.861,-10.18,14.54,1.569,-40.61,0,0,0,0,0,0,0,0,0,0,0,0,0,0,0,0,
709,5.712,-30.95,6.496,-1.857,9.604,22.01,13.03,-34.2,54.95,6.593,69.03,39.01,22.99,37.03,22.14,-4.864,0,0,0,0,0,0,0,0,0,0,0,0,0,0,0,0,
710,24.62,-13.45,-13.52,-31.75,-8.426,14.94,4.495,-44.21,36.84,-0.3567,52.59,23.09,16.44,33.8,2.357,-13.81,0,0,0,0,0,0,0,0,0,0,0,0,0,0,0,0,
711,4.579,-14.77,-19.89,-36.2,14.25,-6.55,-12.09,-25.62,21.3,0.8684,36.74,6.444,18.08,42.94,-5.311,-13.27,0,0,0,0,0,0,0,0,0,0,0,0,0,0,0,0,
712,-8.142,-5.985,-14.3,-17.7,13.63,-9.245,-16.13,-12,21.8,-2.638,39.07,18.37,43.88,59.55,26.12,25.25,0,0,0,0,0,0,0,0,0,0,0,0,0,0,0,0,
713,9.786,16.38,-33.31,-32.85,-24.46,-7.601,-12.67,-11.17,5.307,-16.43,30.13,21.61,44.26,44.62,41.22,41.14,0,0,0,0,0,0,0,0,0,0,0,0,0,0,0,0,
714,13.33,24.05,-44.03,-40.57,-39.07,-15.37,-6.308,-4.329,-3.902,-18.08,37.27,27.98,44.5,37.26,50.99,47.25,0,0,0,0,0,0,0,0,0,0,0,0,0,0,0,0,
715,-0.6353,29.16,-36.23,-13.42,-41.53,-16.78,0.6315,2.713,-3.693,-6.34,61.66,45.98,66.08,57.1,83.62,79.15,0,0,0,0,0,0,0,0,0,0,0,0,0,0,0,0,
716,-0.5433,41.42,-42.35,-13.18,-58.88,-17.57,6.276,6.107,-4.939,8.537,68.04,55.41,76.61,69.28,102,96.39,0,0,0,0,0,0,0,0,0,0,0,0,0,0,0,0,
717,2.321,41.41,-47.28,-27.31,-76.31,-31.69,10.62,5.706,-8.195,22.91,67.36,65.07,78.23,74.39,100.2,84.46,0,0,0,0,0,0,0,0,0,0,0,0,0,0,0,0,
718,-3.785,35.74,-43.3,-13.3,-86.55,-44.04,4.372,3.445,-32.95,24.51,66.42,65.61,69.82,68.66,98.29,67.56,0,0,0,0,0,0,0,0,0,0,0,0,0,0,0,0,
719,-14.67,26.64,-53.56,-12.63,-80.95,-52.91,-12.78,12.15,-44.79,16.41,59.58,44.15,44.49,48.76,85.1,46.29,0,0,0,0,0,0,0,0,0,0,0,0,0,0,0,0,
720,-27.13,6.481,-67.9,-32.29,-58.11,-62.55,-19.92,20.95,-14.46,18.66,58.33,29.88,31.09,41.51,62.44,23.48,0,0,0,0,0,0,0,0,0,0,0,0,0,0,0,0,
721,-21.19,2.584,-63.89,-27.41,-38.42,-50.88,-7.751,16.7,1.585,23.59,57.8,29.29,28,36.09,44.68,4.369,0,0,0,0,0,0,0,0,0,0,0,0,0,0,0,0,
722,-3.79,12.95,-47.16,-8.462,-34.19,-24.98,9.113,22.32,-5.978,14.25,53.83,22.88,12.92,19.04,30.12,-17.6,0,0,0,0,0,0,0,0,0,0,0,0,0,0,0,0,
723,-10.17,4.423,-38.01,0.4448,-54.01,-19.95,18.32,39.68,-10.12,4.925,44.42,7.01,-2.348,12.44,9.153,-38.63,0,0,0,0,0,0,0,0,0,0,0,0,0,0,0,0,
724,-32.78,-4.764,-39.29,7.33,-77,-34.29,25.3,42.49,-34.15,10.78,16.57,-16.45,-4.509,16.02,-21.16,-46.99,0,0,0,0,0,0,0,0,0,0,0,0,0,0,0,0,
725,-42.89,6.402,-34.13,19.18,-55.86,-37.19,42.53,44.62,-53.33,22.71,-6.922,-30.12,4.858,22.23,-37.79,-35.83,0,0,0,0,0,0,0,0,0,0,0,0,0,0,0,0,
726,-37.4,18.56,-18.07,39.17,-26.23,-19.48,62.34,60.21,-39.66,26.2,-8.484,-25.14,13.73,28.49,-26.19,-9.624,0,0,0,0,0,0,0,0,0,0,0,0,0,0,0,0,
727,-35.2,21.19,-5.92,52.81,-52.15,-15.85,60.18,55.59,-47.33,14.21,-16.87,-27.09,12.73,22.57,-8.765,14.69,0,0,0,0,0,0,0,0,0,0,0,0,0,0,0,0,
728,-52.75,14.01,-18.1,38.6,-82.9,-41.02,36.12,30.43,-75.02,-1.541,-28.22,-35,11.65,13.54,4.557,26.65,0,0,0,0,0,0,0,0,0,0,0,0,0,0,0,0,
729,-66.72,-0.8877,-46.68,18.38,-81.18,-51.31,14.56,25.7,-75.47,-4.699,-23.24,-30.22,10.31,12.8,15.53,31.16,0,0,0,0,0,0,0,0,0,0,0,0,0,0,0,0,
730,-54.27,-8.79,-47.06,17.9,-99.83,-38.96,8.221,29.98,-69.48,-3.762,-21.89,-28.71,6.905,15.45,14.3,35.49,0,0,0,0,0,0,0,0,0,0,0,0,0,0,0,0,
731,-41.37,-2.683,-22.96,22.52,-114.1,-36.38,14.41,18.42,-64.92,-4.017,-20.2,-29.18,16.02,20.78,11.51,38.58,0,0,0,0,0,0,0,0,0,0,0,0,0,0,0,0,
732,-41.32,7.192,-21.13,21.43,-80.59,-32.13,21.21,19.25,-43.86,3.449,-4.937,-13.46,27.33,19.87,17.09,35.35,0,0,0,0,0,0,0,0,0,0,0,0,0,0,0,0,
733,-33.88,11.48,-26.62,19.42,-60.26,-16.68,17.25,37.62,-31.19,6.372,-6.089,-5.789,23.18,9.358,10.87,23.37,0,0,0,0,0,0,0,0,0,0,0,0,0,0,0,0,
734,-21.95,11.32,-10.33,17.74,-66.17,-9.647,10.16,35.79,-37.61,-3.17,-24.92,-21.2,13.26,1.212,-8.664,1.797,0,0,0,0,0,0,0,0,0,0,0,0,0,0,0,0,
735,-24.87,7.502,2.457,19.68,-55.61,-7.461,11.65,19,-40.16,-6.287,-25.97,-29.62,6.079,-4.465,-14.31,-18.17,0,0,0,0,0,0,0,0,0,0,0,0,0,0,0,0,
736,-35.57,2.432,-1.274,20.7,-49.27,-7.178,13.26,14.03,-33.02,-0.3225,-20.28,-24.32,2.279,-8.578,-13.36,-25.98,0,0,0,0,0,0,0,0,0,0,0,0,0,0,0,0,
737,-39.53,1.781,-6.679,12.58,-46.09,-19.73,1.963,9.976,-31.39,-1.306,-37.7,-30.37,-2.885,-11.31,-37.09,-37.65,0,0,0,0,0,0,0,0,0,0,0,0,0,0,0,0,
738,-47.1,-4.904,-12.79,5.259,-28.94,-33.75,-11.91,7.509,-44.48,-9.918,-58.98,-48.11,-14.53,-18.59,-62.83,-56.82,0,0,0,0,0,0,0,0,0,0,0,0,0,0,0,0,
739,-59.21,-19.22,-19.76,8.3,-34.43,-37.68,-11.18,22.57,-51.81,-13.27,-55.08,-57.03,-19.17,-24.41,-55.28,-60.47,0,0,0,0,0,0,0,0,0,0,0,0,0,0,0,0,
740,-53.25,-18.99,-16.69,14.21,-43.68,-33.34,0.8431,30.14,-33.19,-5.508,-30.21,-42.52,-7.718,-21.9,-26.63,-40.74,0,0,0,0,0,0,0,0,0,0,0,0,0,0,0,0,
741,-21.67,2.765,10.94,29.87,-4.571,0.6383,35.18,30.58,18.11,14.58,28.29,15.55,28.22,3.814,41.96,18.63,0,0,0,0,0,0,0,0,0,0,0,0,0,0,0,0,
742,42.87,55.13,68.56,79.47,56.57,79.1,109.6,76.8,111.8,55,140.2,114.1,101.7,65.08,163.5,123.4,0,0,0,0,0,0,0,0,0,0,0,0,0,0,0,0,
743,128.8,133.5,121.4,139.4,105.1,145.2,168.6,141.1,186.4,95.16,230.8,180.3,163.5,111.7,237.7,194.3,0,0,0,0,0,0,0,0,0,0,0,0,0,0,0,0,
744,158.4,168,112.5,140.5,113.3,128.8,148.9,135.2,154.8,88.84,200.4,152,149,95.25,196.4,167.3,0,0,0,0,0,0,0,0,0,0,0,0,0,0,0,0,
745,94.27,127.7,44.61,74.99,46.23,50.21,88.2,75.42,63.98,52.99,94.15,71.68,93.03,57.27,112.1,100.7,0,0,0,0,0,0,0,0,0,0,0,0,0,0,0,0,
746,8.253,75.34,-15.74,12.26,-36.42,-20.62,38.61,39.75,-3.092,39.75,22.88,12.8,53.96,38.41,51.94,58.09,0,0,0,0,0,0,0,0,0,0,0,0,0,0,0,0,
747,-44.55,41.51,-42.9,-12.1,-68.05,-60.25,1.712,31.28,-50.54,39.16,-5.628,-13.37,26.69,21.47,18.24,29.12,0,0,0,0,0,0,0,0,0,0,0,0,0,0,0,0,
748,-72.91,13.62,-67.37,-24.92,-96.17,-80.21,-15.19,18.84,-67.97,33.21,-28.25,-26.46,7.418,5.661,3.737,10.18,0,0,0,0,0,0,0,0,0,0,0,0,0,0,0,0,
749,-79.79,2.425,-83.53,-37.37,-125,-79.39,-13.19,10.91,-48.19,34.07,-36.76,-33.39,6.582,6.364,-3.959,11.61,0,0,0,0,0,0,0,0,0,0,0,0,0,0,0,0,
750,-73.58,1.84,-73.17,-38.53,-104.5,-66.6,-14.4,8.444,-50.83,29.86,-32.89,-35.86,7.166,12.29,-14.51,12.53,0,0,0,0,0,0,0,0,0,0,0,0,0,0,0,0,
751,-75.58,-5.226,-66.04,-36.75,-81.03,-62.98,-12.42,-5.295,-73.21,20.88,-39.39,-36.19,0.3848,16.25,-21.77,3.837,0,0,0,0,0,0,0,0,0,0,0,0,0,0,0,0,
752,-68.77,-1.752,-63.87,-26.29,-79.25,-53.43,5.368,-6.901,-54.45,31.59,-44.72,-33.1,0.8139,26.18,-22.44,4.59,0,0,0,0,0,0,0,0,0,0,0,0,0,0,0,0,
753,-47.19,8.775,-46.69,-2.669,-63.34,-36.9,14.17,12.32,-35.83,38.28,-40.75,-32.85,4.462,32.19,-25.6,8.499,0,0,0,0,0,0,0,0,0,0,0,0,0,0,0,0,
754,-57.15,-1.618,-55.31,-9.876,-76.05,-59.09,-7.714,11.05,-70.93,19.33,-49.15,-45.45,-0.102,24.78,-31.8,-0.2288,0,0,0,0,0,0,0,0,0,0,0,0,0,0,0,0,
755,-88.19,-12.34,-92.54,-44.1,-122.1,-92.42,-31.23,0.255,-93.04,13.16,-55.89,-52.89,0.3127,22.32,-25.17,-4.046,0,0,0,0,0,0,0,0,0,0,0,0,0,0,0,0,
756,-81.33,-0.2739,-95.26,-45.77,-121.8,-72.92,-20.19,6.452,-70.31,25.69,-38.05,-35.39,13.6,33.65,-9.166,7.39,0,0,0,0,0,0,0,0,0,0,0,0,0,0,0,0,
757,-52.34,9.91,-69.94,-27.82,-89.81,-38.64,5.825,0.9979,-55.24,20.81,-20.62,-15.85,22.53,40.35,-2.122,15.96,0,0,0,0,0,0,0,0,0,0,0,0,0,0,0,0,
758,-36.65,13.08,-51.44,-20,-70.71,-27.46,14.17,-0.1448,-43.19,10.53,-11.69,-9.305,22.57,36.91,2.545,18.39,0,0,0,0,0,0,0,0,0,0,0,0,0,0,0,0,
759,-32.19,19.99,-39.27,-11.56,-50.54,-23.24,11.42,20.72,-32.4,13.77,1.652,-1.992,25.6,33.12,9.262,22.62,0,0,0,0,0,0,0,0,0,0,0,0,0,0,0,0,
760,-42.54,18.84,-47.06,-18.22,-50.7,-42.27,4.14,13.94,-48.54,14.42,4.41,-0.8211,31.37,30.07,5.8,22.54,0,0,0,0,0,0,0,0,0,0,0,0,0,0,0,0,
761,-47.9,14.71,-60.95,-36.38,-75.94,-70.94,-10.32,-10.06,-46.48,14.53,-3.61,-13.76,33,25.11,-6.241,13.12,0,0,0,0,0,0,0,0,0,0,0,0,0,0,0,0,
762,-35.74,13.14,-57.84,-39.13,-79.6,-68.96,-14.2,-14.43,-23.74,15.94,-11.7,-25.36,25.48,15.88,-19.78,-0.9358,0,0,0,0,0,0,0,0,0,0,0,0,0,0,0,0,
763,-36.53,3.394,-59.08,-37.16,-64.23,-56.18,1.26,-11.24,-27.36,11.36,-17.09,-19.5,17.4,11.8,-22,-5.675,0,0,0,0,0,0,0,0,0,0,0,0,0,0,0,0,
764,-33.56,2.897,-52.07,-23.73,-49.68,-43.01,19.06,16.7,-17.71,21.71,-1.596,3.985,24.51,24.86,-7.54,4.17,0,0,0,0,0,0,0,0,0,0,0,0,0,0,0,0,
765,-8.642,15.9,-29.54,1.926,-35.95,-26.74,25.54,52.05,6.147,41.93,10.66,9.581,24.47,29.94,-11.46,1.703,0,0,0,0,0,0,0,0,0,0,0,0,0,0,0,0,
766,-8.662,10.61,-32.04,1.496,-38.3,-34.04,18.16,43.82,-7.293,41.69,-11.19,-18.12,0.8721,10.96,-38.62,-20.16,0,0,0,0,0,0,0,0,0,0,0,0,0,0,0,0,
767,-27.6,-6.527,-41.92,-12.18,-53.84,-49.56,2.542,28.06,-14.39,33.48,-17.8,-28.93,-7.558,-0.6329,-38.54,-25.15,0,0,0,0,0,0,0,0,0,0,0,0,0,0,0,0,
768,-24.1,-6.771,-36.73,-11.25,-58.18,-48.44,-11.34,28.19,-2.489,29.69,-1.802,-12.73,1.619,-1.748,-15.99,-10.47,0,0,0,0,0,0,0,0,0,0,0,0,0,0,0,0,
769,-22.81,2.022,-39.98,-9.345,-39.31,-43.67,-17.47,23.98,-20.76,25.48,-11.69,-9.348,-2.765,-8.542,-12.78,-2.004,0,0,0,0,0,0,0,0,0,0,0,0,0,0,0,0,
770,-30.02,7.689,-32.09,-3.126,-7.386,-29.8,-12.97,29.29,-26.98,26.21,-16.92,-7.997,1.254,-2.891,-14.99,4.567,0,0,0,0,0,0,0,0,0,0,0,0,0,0,0,0,
771,-11.49,15.15,-10.14,6.132,3.461,-13.58,-5.036,27.17,9.511,19.63,5.407,8.885,21.73,9.923,-1.665,16.38,0,0,0,0,0,0,0,0,0,0,0,0,0,0,0,0,
772,14.96,23.43,-8.964,5.232,-7.698,-18.52,-3.145,17.68,27.32,9.858,20.76,26.7,30.59,10.73,17.73,28.04,0,0,0,0,0,0,0,0,0,0,0,0,0,0,0,0,
773,19.11,30.05,-10.21,11.49,-13.55,-24.37,3.205,39.33,15.26,21.36,33.58,41.49,34.04,15.86,33.87,36.21,0,0,0,0,0,0,0,0,0,0,0,0,0,0,0,0,
774,14.06,32.21,-3.618,21.33,-27.1,-18.84,18.78,48.32,11.19,31.62,41.13,44.22,34.04,22.79,37.16,34.08,0,0,0,0,0,0,0,0,0,0,0,0,0,0,0,0,
775,9.929,22.25,-8.498,14.37,-38.41,-14.07,22.7,28.4,5.54,26.51,29.02,34.87,22.6,15.22,35.05,30.21,0,0,0,0,0,0,0,0,0,0,0,0,0,0,0,0,
776,8.471,12.04,-7.626,8.735,-14.68,1.117,13.34,37.38,-9.48,28.54,33.02,42.28,21.91,9.345,46.04,36.22,0,0,0,0,0,0,0,0,0,0,0,0,0,0,0,0,
777,19.07,16.67,6.03,15.87,4.49,23.78,18.77,44.72,-5.402,27.09,56.34,64.7,33.56,14.24,58.66,40,0,0,0,0,0,0,0,0,0,0,0,0,0,0,0,0,
778,31.75,21.13,20.92,26.06,2.117,38.21,41.48,25.45,13.48,18.09,61.92,71.34,38.62,20.47,60.22,43.99,0,0,0,0,0,0,0,0,0,0,0,0,0,0,0,0,
779,32.55,21.38,41.2,42.77,16.42,52.58,54.63,38.16,21.41,26.11,55.77,57.85,40.2,26.11,54.36,56.96,0,0,0,0,0,0,0,0,0,0,0,0,0,0,0,0,
780,25.03,27.36,52.85,56.99,16.79,58.3,53.41,62.22,23.41,37.02,51.75,41.62,35.15,26.64,38.45,52.93,0,0,0,0,0,0,0,0,0,0,0,0,0,0,0,0,
781,8.258,18.86,42.34,47.54,-6.826,38.17,44.3,40.28,16.39,26.81,44.3,31.84,16.73,14.28,25.51,27.29,0,0,0,0,0,0,0,0,0,0,0,0,0,0,0,0,
782,-9.575,-4.598,27.8,26.23,10.54,18.38,21.22,15.12,-2.71,11.42,35.78,22.6,0.1856,-3.197,29.02,16.89,0,0,0,0,0,0,0,0,0,0,0,0,0,0,0,0,
783,-10.25,-9.389,25.01,22.56,39.28,23.21,3.414,29.66,-2.775,11.76,31.5,12.94,-5.049,-8.581,31.1,21.03,0,0,0,0,0,0,0,0,0,0,0,0,0,0,0,0,
784,-7.409,-3.55,28.58,32.6,19.51,25.22,10.25,44.42,13.34,18.75,34.21,9.812,-9.89,-9.815,24.25,10.92,0,0,0,0,0,0,0,0,0,0,0,0,0,0,0,0,
785,-21.17,-11.87,16.21,28.03,-0.4945,0.2814,10.67,33.62,8.838,11,33.65,5.528,-18.93,-24.85,17.97,-1.991,0,0,0,0,0,0,0,0,0,0,0,0,0,0,0,0,
786,-35.33,-19.1,-8.683,14.24,-6.533,-21.26,-2.437,27.97,-11.61,1.363,18.47,-5.316,-19.68,-32.74,10.66,1.31,0,0,0,0,0,0,0,0,0,0,0,0,0,0,0,0,
787,-32.19,-11.91,-6.087,16.75,-37.72,-17.32,2.029,38.76,-26.86,9.093,2.9,-13.48,-12.89,-22.73,3.117,6.588,0,0,0,0,0,0,0,0,0,0,0,0,0,0,0,0,
788,-25.97,-4.025,12.14,20.17,-48.47,-19.4,6.994,42.62,-33.63,6.846,-5.191,-19.66,-14.89,-21.91,-5.064,5.782,0,0,0,0,0,0,0,0,0,0,0,0,0,0,0,0,
789,-31.13,-3.993,0.2029,4.65,-13.32,-34.78,-5.197,26.59,-32.42,-12.19,-9.463,-22.08,-16.48,-18.24,-13.46,9.613,0,0,0,0,0,0,0,0,0,0,0,0,0,0,0,0,
790,-32.42,-5.921,-25.99,-13.69,-6.971,-36.14,-11.43,-4.107,-26.56,-14.16,0.4584,-10.72,-2.984,6.357,-5.043,20.97,0,0,0,0,0,0,0,0,0,0,0,0,0,0,0,0,
791,-19.02,-3.755,-39.77,-30,-35.05,-35.48,-18.51,-21.7,-16.08,-6.625,18.79,8.413,10.79,18.4,19.84,38.48,0,0,0,0,0,0,0,0,0,0,0,0,0,0,0,0,
792,-7.017,1.292,-42.76,-43.76,-26.98,-41.93,-35.59,-9.109,-6.425,-6.5,31.89,29.27,17.8,14.61,38.91,57.39,0,0,0,0,0,0,0,0,0,0,0,0,0,0,0,0,
793,-4.346,1.494,-36.02,-43.32,-4.843,-36.05,-43.32,-2.649,-11.24,-2.17,43.02,46.27,23.18,20.34,45.56,63.66,0,0,0,0,0,0,0,0,0,0,0,0,0,0,0,0,
794,-7.557,-3.94,-42.16,-48.26,-20.5,-34.96,-46.44,-25.54,-17.83,-4.072,45.84,44.94,20.53,19.05,46,57.75,0,0,0,0,0,0,0,0,0,0,0,0,0,0,0,0,
795,-15.02,-4.734,-61.86,-65.37,-27.78,-47.03,-50.39,-44.1,-5.848,-12.97,48.87,43.9,18.06,4.878,53.97,57.25,0,0,0,0,0,0,0,0,0,0,0,0,0,0,0,0,
796,-11.56,-2.202,-56.43,-60.88,4.74,-38.67,-45.19,-36.89,13.27,-6.837,72.37,65.34,27.17,2.128,76.89,62.9,0,0,0,0,0,0,0,0,0,0,0,0,0,0,0,0,
797,9.451,-0.1817,-35.35,-36.5,25.15,-15.3,-33.84,-25.1,22.35,-2.777,86.72,76.5,34.27,9.952,90.92,60.84,0,0,0,0,0,0,0,0,0,0,0,0,0,0,0,0,
798,26.24,12.36,-21.67,-17.67,15.41,0.2037,-14.27,-24.88,17.99,-11.38,70.35,62.49,35.81,16.83,85.36,55.23,0,0,0,0,0,0,0,0,0,0,0,0,0,0,0,0,
799,27.21,25.73,-9.249,-7.632,9.853,17.63,4.234,-17.94,6.343,-4.925,54.77,53.43,39.12,20.2,79.92,57.01,0,0,0,0,0,0,0,0,0,0,0,0,0,0,0,0,
800,23.13,22.53,-10.1,-7.373,16.61,30.04,2.784,2.837,2.329,8.824,46.56,44.56,34.01,18.36,67.27,55.86,0,0,0,0,0,0,0,0,0,0,0,0,0,0,0,0,
801,15.74,18.19,-16.26,-9.336,11.61,21.42,-2.345,10.31,1.202,8.507,32.78,24.56,24.53,18.46,39.53,44.98,0,0,0,0,0,0,0,0,0,0,0,0,0,0,0,0,
802,3.769,20.98,-6.12,-3.172,-9.67,9.675,1.957,8.323,-9.411,11.81,23.15,20.58,31.07,22.36,26.2,40.2,0,0,0,0,0,0,0,0,0,0,0,0,0,0,0,0,
803,4.723,26.02,0.2298,7.705,-10.41,11.91,11.93,15.43,-16.35,21.83,14.89,31.96,43.11,22.43,28.09,41.85,0,0,0,0,0,0,0,0,0,0,0,0,0,0,0,0,
804,18.01,37.54,-1.236,23.19,9.116,18.79,31.03,16.74,-21.22,19.44,4.848,31.46,39.83,17.72,21.42,33.72,0,0,0,0,0,0,0,0,0,0,0,0,0,0,0,0,
805,17.08,39.4,-0.9154,29.99,-4.145,16.82,36.75,18.15,-30.12,10.08,11.34,27.91,30.68,6.849,21.87,26.5,0,0,0,0,0,0,0,0,0,0,0,0,0,0,0,0,
806,5.526,23.2,-17.39,14.31,-37.96,-0.5979,16.91,24.66,-25.7,2.585,25.93,29.53,25.5,-2.283,36.81,33.61,0,0,0,0,0,0,0,0,0,0,0,0,0,0,0,0,
807,-10.09,8.898,-43.19,-2.813,-54.19,-31.27,-0.7176,12.73,-33.85,-4.055,18.09,16.15,16.69,3.171,40.67,38.97,0,0,0,0,0,0,0,0,0,0,0,0,0,0,0,0,
808,-39.4,-1.269,-49.17,-9.03,-76.55,-54.78,-12.13,1.357,-64.29,-3.963,-0.2529,-0.6105,12.67,9.78,39.47,40.24,0,0,0,0,0,0,0,0,0,0,0,0,0,0,0,0,
809,-48.9,-3.564,-41.02,-13.93,-97.07,-55.82,-20.09,2.168,-55.97,0.4249,3.874,7.057,25.72,9.257,52.91,52.2,0,0,0,0,0,0,0,0,0,0,0,0,0,0,0,0,
810,-26.94,11.96,-44.57,-14.51,-85.26,-50.68,-12.9,-7.541,-35.97,3.331,16.87,17.23,35.74,14.82,66.42,60.81,0,0,0,0,0,0,0,0,0,0,0,0,0,0,0,0,
811,-25.01,20,-56.49,-13.9,-67.32,-53.53,-9.354,-6.997,-62.84,4.329,13.9,7.563,25.5,18.1,63.94,49.99,0,0,0,0,0,0,0,0,0,0,0,0,0,0,0,0,
812,-41.36,8.624,-49.13,-20.8,-59.09,-63.07,-18.39,4.527,-71.38,-0.2419,6.701,-1.908,13.76,11.41,50.56,35.96,0,0,0,0,0,0,0,0,0,0,0,0,0,0,0,0,
813,-39.8,8.576,-36.74,-23.94,-61.44,-77.07,-13.56,-0.8207,-49,3.554,-3.23,-4.588,15.57,11.7,36.17,31.82,0,0,0,0,0,0,0,0,0,0,0,0,0,0,0,0,
814,-31.94,25.59,-44.46,-18.77,-79.73,-72.43,2.646,3.025,-61.28,19.32,-20.93,-9.367,19.53,14.93,24.9,28.95,0,0,0,0,0,0,0,0,0,0,0,0,0,0,0,0,
815,-24.28,32.09,-39.73,-16.15,-72.72,-46.15,4.265,15.71,-67.87,15.77,-22.02,-11.47,13.86,4.806,12.08,19.33,0,0,0,0,0,0,0,0,0,0,0,0,0,0,0,0,
816,-13.73,22.59,-19.16,-16.85,-35.28,-45.64,-7.731,0.8646,-41.85,-0.1115,-13.2,-17.62,-1.063,-10.1,-5.195,4.557,0,0,0,0,0,0,0,0,0,0,0,0,0,0,0,0,
817,-19.93,5.981,-32.74,-25.53,-35.12,-74.9,-23.51,-21.29,-42.46,-0.9808,-25.14,-31.6,-17.3,-17.2,-18.75,-7.976,0,0,0,0,0,0,0,0,0,0,0,0,0,0,0,0,
818,-38.58,-18.59,-64.31,-44.99,-60.49,-87.01,-43.37,-24.62,-55.55,-3.023,-33.55,-27.99,-22.32,-12.17,-16.46,-7.999,0,0,0,0,0,0,0,0,0,0,0,0,0,0,0,0,
819,-39.61,-33.59,-60.79,-48.64,-45.81,-78.7,-53.92,-22.84,-42.08,-5.58,-18.09,-5.766,-16.24,0.2863,-1.966,2.932,0,0,0,0,0,0,0,0,0,0,0,0,0,0,0,0,
820,-24.93,-26.18,-39.54,-31.21,-22.42,-71.4,-47.61,-27.6,-30.33,3.972,-7.272,-0.7295,-17.63,3.194,6.28,5.904,0,0,0,0,0,0,0,0,0,0,0,0,0,0,0,0,
821,-20.94,-24.69,-38.67,-22.5,-32.48,-60.51,-47.31,-27.89,-27.42,5.388,-2.792,-9.795,-27.64,0.1877,11.96,-1.129,0,0,0,0,0,0,0,0,0,0,0,0,0,0,0,0,
822,-28.45,-37.89,-48.52,-26.53,-39.24,-50.81,-59.59,-22.25,-23.61,-0.1491,1.502,-6.649,-30.2,4.598,23.68,0.6275,0,0,0,0,0,0,0,0,0,0,0,0,0,0,0,0,
823,-38.29,-45.56,-57.13,-39.93,-36.04,-61.91,-69.29,-35.44,-42.88,-2.024,-17.59,-10.39,-31.75,-0.0385,22.67,7.758,0,0,0,0,0,0,0,0,0,0,0,0,0,0,0,0,
824,-50.35,-45.51,-59.03,-50.73,-44.98,-71.93,-72.11,-42.81,-62.65,-3.992,-35.46,-21,-28.98,-10.05,21.1,15.13,0,0,0,0,0,0,0,0,0,0,0,0,0,0,0,0,
825,-45.5,-31.5,-34.82,-26.3,-38.12,-52.1,-60.87,-17.28,-40.36,2.894,-14.13,-3.334,-4.847,-0.1135,43.68,31.23,0,0,0,0,0,0,0,0,0,0,0,0,0,0,0,0,
826,-24.84,-11.71,-10.53,2.551,-15.25,-36.16,-44.59,-19.17,-27.13,3.668,7.68,12.13,8.549,5.258,51.66,33.73,0,0,0,0,0,0,0,0,0,0,0,0,0,0,0,0,
827,-21.71,-16.62,-18.22,-3.001,-18.87,-40.07,-44.91,-41.3,-58.5,-11.81,0.2067,-8.087,-6.966,-7.171,28.03,14.61,0,0,0,0,0,0,0,0,0,0,0,0,0,0,0,0,
828,-30.45,-31.02,-19.66,-3.929,-40.09,-30.64,-45.63,-21.35,-73.48,-12.82,-12.63,-25.92,-10.3,-2.055,13.3,9.388,0,0,0,0,0,0,0,0,0,0,0,0,0,0,0,0,
829,-37.25,-30.73,-10.39,2.859,-47,-26.31,-37.68,-13.11,-61.1,-10.21,-26.51,-31.67,-5.579,5.063,3.696,11.75,0,0,0,0,0,0,0,0,0,0,0,0,0,0,0,0,
830,-47.41,-30.5,-21.66,-8.621,-36.17,-41.87,-37.18,-35.7,-53.85,-26.1,-35.63,-38.86,-16.9,-13.87,-15.15,0.2241,0,0,0,0,0,0,0,0,0,0,0,0,0,0,0,0,
831,-43.4,-32.6,-19.84,-8.983,-14.49,-35.08,-32.68,-34.28,-41.19,-32.8,-29.8,-32.94,-16.09,-24.07,-20.68,-1.579,0,0,0,0,0,0,0,0,0,0,0,0,0,0,0,0,
832,-31.13,-31.5,-0.3143,2.985,-3.264,-18.29,-25.2,-37.99,-33.89,-27.08,-33.72,-28.56,-4.659,-17.6,-17.94,5.412,0,0,0,0,0,0,0,0,0,0,0,0,0,0,0,0,
833,-33.93,-32.18,-2.955,3.441,-14.66,-22.79,-34.6,-50.31,-34.33,-24.82,-39.76,-33.08,-3.662,-18.04,-13.46,5.314,0,0,0,0,0,0,0,0,0,0,0,0,0,0,0,0,
834,-33.91,-27.74,-9.997,4.445,-21.58,-23.62,-45.38,-30.36,-19.36,-19.56,-20.56,-20.2,6.665,-13.2,9.518,15.65,0,0,0,0,0,0,0,0,0,0,0,0,0,0,0,0,
835,-28.11,-19.46,-10.41,2.374,-12.15,-21.44,-47.07,-16.46,-17.31,-17.95,-4.98,-3.527,19.86,-5.005,33.71,30,0,0,0,0,0,0,0,0,0,0,0,0,0,0,0,0,
836,-29.93,-17.26,-20.46,-9.831,-5.188,-27.52,-47.98,-27.49,-27.96,-20.11,-0.0763,4.488,17.11,-6.326,45.79,32.13,0,0,0,0,0,0,0,0,0,0,0,0,0,0,0,0,
837,-25.48,-15.32,-22.14,-11.69,0.5654,-19.69,-41.76,-35.78,-22,-13.48,20.32,20.56,17.91,0.9849,62.49,39.64,0,0,0,0,0,0,0,0,0,0,0,0,0,0,0,0,
838,-20.32,-11.9,-8.009,-1.445,-5.069,-10.21,-33.29,-41.22,-31.55,-9.087,27.69,27.92,23.88,14.52,68.75,51.31,0,0,0,0,0,0,0,0,0,0,0,0,0,0,0,0,
839,-25.12,-12.44,6.961,3.519,-34.08,-16.09,-30.65,-30.88,-45.34,-8.78,9.05,17.08,25.45,17.65,51.29,51.38,0,0,0,0,0,0,0,0,0,0,0,0,0,0,0,0,
840,-22.21,-8.018,16.09,2.387,-26.32,-11.94,-23.89,-7.544,-27.87,-1.591,-2.883,5.07,27.77,13.56,32.32,45.61,0,0,0,0,0,0,0,0,0,0,0,0,0,0,0,0,
841,-18.39,4.732,13.52,9.415,17.98,0.7647,-13.56,-4.678,-29.07,2.224,-18.66,-14.97,19.43,-3.182,12.41,33.44,0,0,0,0,0,0,0,0,0,0,0,0,0,0,0,0,
842,-28.74,9.44,10.44,23.01,-0.8234,0.8194,-3.045,-3.136,-54.09,2.013,-37.53,-28.73,10.05,-19.55,-5.374,19.74,0,0,0,0,0,0,0,0,0,0,0,0,0,0,0,0,
843,-29.55,7.702,20.66,25.57,-39.7,-0.0097,9.325,16.94,-55.06,9.117,-23.29,-10.1,23.26,-10.19,1.995,20.43,0,0,0,0,0,0,0,0,0,0,0,0,0,0,0,0,
844,-13.44,14.63,25.72,19.54,-19.77,0.9483,9.962,16.27,-50.42,11.15,-4.863,3.936,28.43,-3.184,7.887,17.93,0,0,0,0,0,0,0,0,0,0,0,0,0,0,0,0,
845,-10.42,15.87,7.776,9.717,-33.06,-8.586,-5.924,-9.363,-42.77,3.774,-9.925,-7.381,8.73,-16.32,-12.51,0.2469,0,0,0,0,0,0,0,0,0,0,0,0,0,0,0,0,
846,-22.17,0.981,-13.23,-7.173,-77.55,-15.63,-20.28,-17.53,-20.59,6.263,-3.661,-5.37,2.28,-15.25,-19.82,-2.613,0,0,0,0,0,0,0,0,0,0,0,0,0,0,0,0,
847,-24.16,-8.51,-7.803,-9.473,-45.3,-13.07,-22.93,-10.76,-23,13.4,5.846,7.48,7.792,-5.269,-5.125,9.078,0,0,0,0,0,0,0,0,0,0,0,0,0,0,0,0,
848,-17.84,-6.026,12.17,3.942,2.043,-10.6,-22.16,-13.94,-30.85,9.286,-0.8207,7.449,-0.9631,-12.41,-0.9014,6.257,0,0,0,0,0,0,0,0,0,0,0,0,0,0,0,0,
849,-16.09,-3.64,18.66,0.3632,3.105,-4.707,-25.83,-18.53,-11.24,6.334,2.067,6.909,-7.534,-17.24,-2.261,-0.3801,0,0,0,0,0,0,0,0,0,0,0,0,0,0,0,0,
850,-16.35,-1.175,21.33,-7.596,6.42,-3.607,-25.39,-17.12,-18.26,9.903,3.116,4.651,-2.395,-10.68,0.5641,2.554,0,0,0,0,0,0,0,0,0,0,0,0,0,0,0,0,
