%OpenBCI Raw EXG Data
%Number of channels = 16
%Sample Rate = 125 Hz
%Board = OpenBCI_GUI$BoardCytonSerialDaisy
Sample Index,EXG Channel 0,EXG Channel 1,EXG Channel 2,EXG Channel 3,EXG Channel 4,EXG Channel 5,EXG Channel 6,EXG Channel 7,EXG Channel 8,EXG Channel 9,EXG Channel 10,EXG Channel 11,EXG Channel 12,EXG Channel 13,EXG Channel 14,EXG Channel 15,Accel Channel 0,Accel Channel 1,Accel Channel 2,Other,Other,Other,Other,Other,Other,Other,Analog Channel 0,Analog Channel 1,Analog Channel 2,Timestamp,Other,Timestamp (Formatted),Annotations
1,0,-0,-0,-0,0,-0,-0,-0,0,-0,0,-0,0,-0,0,-0,0,0,0,0,0,0,0,0,0,0,0,0,0,0,0,0,T0
2,8.126,-2.916,15.49,-2.897,-20.47,-9.662,-1.391,-13.51,21.29,-6.007,-0.1934,5.561,-3.786,0.3233,13,11.74,0,0,0,0,0,0,0,0,0,0,0,0,0,0,0,0,
3,18.42,5.211,28.35,11.53,-9.588,12.62,7.246,-0.5445,16.79,-7.961,-6.343,0.8446,-13.41,-11.16,6.534,9.752,0,0,0,0,0,0,0,0,0,0,0,0,0,0,0,0,
4,15.16,2.607,35.03,27.84,8.189,17.77,10.4,6.849,17.82,-14.41,-14.15,-8.134,-34.7,-33.37,-9.925,-12.15,0,0,0,0,0,0,0,0,0,0,0,0,0,0,0,0,
5,9.974,-6.94,31.76,28.01,17.18,8.58,12.64,5.46,28.88,-20.97,-9.478,-1.495,-44.66,-48.66,-10.03,-23.22,0,0,0,0,0,0,0,0,0,0,0,0,0,0,0,0,
6,16.41,-5.84,35.38,23.89,5.573,17.21,18.95,5.931,19.92,-19.86,2.961,8.373,-38.66,-47.98,-7.035,-16.53,0,0,0,0,0,0,0,0,0,0,0,0,0,0,0,0,
7,12.24,-9.612,38.84,23.01,-7.714,17.87,18.62,-7.254,5.897,-20.16,5.563,5.616,-41.36,-43.89,-14.55,-17.36,0,0,0,0,0,0,0,0,0,0,0,0,0,0,0,0,
8,6.492,-17.25,27.98,21.71,16.97,15.51,25.17,-10.51,22.4,-24.22,2.762,4.268,-49.11,-48.33,-18.84,-25.24,0,0,0,0,0,0,0,0,0,0,0,0,0,0,0,0,
9,18.24,-10.65,33.94,28.62,34.66,24.91,37.22,14.57,38.26,-24.63,-5.304,-11.31,-55.56,-59.48,-37.83,-39.11,0,0,0,0,0,0,0,0,0,0,0,0,0,0,0,0,
10,9.344,-9.085,47.56,37.77,16.6,16.68,33.45,25.93,15.34,-23.15,-25.03,-43.52,-61.88,-64.83,-65.86,-50.57,0,0,0,0,0,0,0,0,0,0,0,0,0,0,0,0,
11,-15.13,-17.37,39.32,39.68,11.69,10.74,36.73,18.3,8.206,-21.97,-33.45,-43.88,-55.19,-60.84,-63.94,-46.08,0,0,0,0,0,0,0,0,0,0,0,0,0,0,0,0,
12,-6.917,-10.31,39.99,45.42,10.62,27.26,52.47,25.03,29.71,-20.17,-29.57,-30.05,-51.8,-62.42,-61.06,-56.18,0,0,0,0,0,0,0,0,0,0,0,0,0,0,0,0,
13,4.85,-1.653,48.94,48.03,-0.0295,29.61,46.41,30.56,17.79,-17.32,-33.32,-39.09,-57.56,-61.06,-72.53,-74.75,0,0,0,0,0,0,0,0,0,0,0,0,0,0,0,0,
14,2.477,-3.297,49.08,46.65,18.42,31.5,42.82,21,17.52,-10.22,-21.18,-23.57,-35.62,-37.19,-53.52,-53.95,0,0,0,0,0,0,0,0,0,0,0,0,0,0,0,0,
15,27.62,9.655,72.37,67.87,52.67,54.49,63.76,24.21,57.74,-2.693,6.819,18.82,-5.824,-18,-23.93,-23.48,0,0,0,0,0,0,0,0,0,0,0,0,0,0,0,0,
16,53.76,22.85,91.7,86.23,58.36,63.1,62.02,34.72,48.9,-2.898,9.118,28.93,-8.251,-21.86,-17.89,-17.69,0,0,0,0,0,0,0,0,0,0,0,0,0,0,0,0,
17,40.81,10.2,64.56,65.37,25.52,52.47,39.52,26.29,18.64,-5.516,0.5265,22.76,-12.94,-20.3,-6.083,-7.244,0,0,0,0,0,0,0,0,0,0,0,0,0,0,0,0,
18,31.98,5.209,51.46,50.92,0.3361,39.66,40.86,19.28,42.29,-0.2764,17.44,39.35,-0.4151,-9.062,16.91,12.99,0,0,0,0,0,0,0,0,0,0,0,0,0,0,0,0,
19,46.56,20.89,73.87,60.81,32.92,23.21,44.06,23.06,57.77,4.152,34.96,54.45,3.139,-7.147,20.32,19.91,0,0,0,0,0,0,0,0,0,0,0,0,0,0,0,0,
20,42.28,15.23,70.33,50.03,60.15,14.88,30.79,8.889,41.21,-8.067,19.2,37.96,-13.22,-13.85,-2.375,5.865,0,0,0,0,0,0,0,0,0,0,0,0,0,0,0,0,
21,22.82,-7.298,59.69,40.37,35.72,23.84,33.95,-8.802,43.15,-23.56,2.724,14.43,-30.27,-20.73,-20.17,-7.768,0,0,0,0,0,0,0,0,0,0,0,0,0,0,0,0,
22,27.19,-10.32,76.16,55.35,29.82,36.23,41.51,-2.845,51.74,-24.35,20.04,16.85,-30.69,-25.67,-14.02,-3.637,0,0,0,0,0,0,0,0,0,0,0,0,0,0,0,0,
23,34.29,-14.4,72.87,52.12,24.03,25.51,17.09,4.781,44.94,-26.86,28.81,20,-34.93,-35.49,-18.51,-12.45,0,0,0,0,0,0,0,0,0,0,0,0,0,0,0,0,
24,15.31,-34.41,53.88,40.55,-22.61,-6.35,-7.657,4.128,35.69,-32.06,19.58,12.15,-44.85,-38.68,-30.11,-23.92,0,0,0,0,0,0,0,0,0,0,0,0,0,0,0,0,
25,10.99,-29.02,53.5,42.43,-21.11,-14.25,5.895,5.689,38.63,-15.61,42.95,30.52,-20.67,-14.86,-3.681,4.987,0,0,0,0,0,0,0,0,0,0,0,0,0,0,0,0,
26,32.16,0.1782,44.86,28.76,23.36,-2.912,26.04,7.471,48.37,3.237,56.24,45.97,5.874,-2.213,17.52,19.39,0,0,0,0,0,0,0,0,0,0,0,0,0,0,0,0,
27,21.14,3.563,37.38,21.14,15.46,-18.05,20.11,20.94,34.24,-3.64,13.29,16.15,-13.68,-31.95,-4.932,-13.09,0,0,0,0,0,0,0,0,0,0,0,0,0,0,0,0,
28,-10.55,-3.04,57.89,49.29,-3.373,-28.18,18.8,45.95,12.86,-10.18,-4.638,3.365,-18.48,-47.21,-8.33,-19.11,0,0,0,0,0,0,0,0,0,0,0,0,0,0,0,0,
29,2.99,23.44,86.65,87.08,17.72,5.101,46.26,58.92,32.9,2.213,26.3,33.82,16.78,-28.37,13.75,1.971,0,0,0,0,0,0,0,0,0,0,0,0,0,0,0,0,
30,36.12,48.56,118.7,115.7,38.62,33.75,64.09,63.07,57.95,9.619,27.95,35.98,19.31,-31.92,4.312,-6.606,0,0,0,0,0,0,0,0,0,0,0,0,0,0,0,0,
31,33.2,39.87,133.7,118,49.31,29.26,57.82,70.9,42.7,9.178,7.026,12.23,0.9516,-44.2,-11.84,-15.32,0,0,0,0,0,0,0,0,0,0,0,0,0,0,0,0,
32,23.69,39.8,115.6,100.3,43.6,25.48,69.81,74.64,31.16,19.99,15.69,17.11,19.65,-21.13,1.532,6.915,0,0,0,0,0,0,0,0,0,0,0,0,0,0,0,0,
33,33.44,58.8,105,99.21,12.68,28.8,91,69.76,41.95,32.16,29.37,24.85,32.11,-4.753,5.078,17,0,0,0,0,0,0,0,0,0,0,0,0,0,0,0,0,
34,31.43,56.05,94.83,94.25,8.435,19.11,76.64,61.63,35.97,31.44,22.81,13.39,6.862,-18.39,-11.43,0.6802,0,0,0,0,0,0,0,0,0,0,0,0,0,0,0,0,
35,16.93,35.3,62.18,64.73,21.68,-1.027,46.54,54.45,18.39,25.05,20.87,5.48,-16.64,-24.24,-10.65,-8.118,0,0,0,0,0,0,0,0,0,0,0,0,0,0,0,0,
36,7.999,16.39,46.52,48.28,-14.17,-16.82,32.74,46.22,14.27,14.74,26.19,-8.566,-33.06,-27.41,-5.469,-9.548,0,0,0,0,0,0,0,0,0,0,0,0,0,0,0,0,
37,-2.225,-0.8901,47.53,47.09,-46.67,-17.4,29.3,34.41,14.12,5.745,22.4,-18.29,-37.62,-33.29,-13.53,-9.523,0,0,0,0,0,0,0,0,0,0,0,0,0,0,0,0,
38,-3.445,-1.729,34.29,38.04,-21.67,-11.17,27.71,22.06,12.22,8.961,22.55,2.896,-14.56,-19.65,-7.622,3.22,0,0,0,0,0,0,0,0,0,0,0,0,0,0,0,0,
39,12.18,9.327,23.71,30.29,-2.952,-15.81,18.63,12.75,16.14,10.03,31.35,17.13,-7.255,-14.87,1.111,3.254,0,0,0,0,0,0,0,0,0,0,0,0,0,0,0,0,
40,22.61,7.032,36.91,36.27,-5.417,-16.22,8.51,12.21,23.23,-2.969,27.1,6.73,-32.07,-35.34,-16.8,-22.34,0,0,0,0,0,0,0,0,0,0,0,0,0,0,0,0,
41,22.24,-0.8294,58.85,52.97,1.861,1.186,12.66,17.96,27.96,-17.21,11.42,-0.1724,-48.15,-46.77,-35.37,-38.5,0,0,0,0,0,0,0,0,0,0,0,0,0,0,0,0,
42,20.18,-4.5,59.2,62.2,4.832,15.63,15.62,16.6,31.11,-23.66,6.317,-6.501,-47.51,-45.47,-32.12,-31.33,0,0,0,0,0,0,0,0,0,0,0,0,0,0,0,0,
43,18.3,-5.753,48.39,58.98,15.6,20.51,18.55,15.15,29.55,-17.83,8.391,-9.83,-30.28,-37.04,-22.17,-10.85,0,0,0,0,0,0,0,0,0,0,0,0,0,0,0,0,
44,17.43,6.163,55.3,61.34,35.03,17.66,39.54,27.39,18.9,-0.4809,3.845,-2.47,-2.846,-19.61,-16,5.664,0,0,0,0,0,0,0,0,0,0,0,0,0,0,0,0,
45,13.43,19.63,60.43,63.02,31.29,4.257,48.06,38.64,14.13,15.05,5.995,2.557,3.388,-12.55,-10.97,2.793,0,0,0,0,0,0,0,0,0,0,0,0,0,0,0,0,
46,10.38,17.21,54.15,55.02,15.97,-0.4075,28.03,37.05,22.39,23.43,17.59,12.39,1.983,-10.39,-2.059,-0.0145,0,0,0,0,0,0,0,0,0,0,0,0,0,0,0,0,
47,16.85,18.36,55.71,54.79,-5.325,5.159,21.33,34.24,23.51,28.11,16.14,22.92,11.78,1.8,4.888,3.425,0,0,0,0,0,0,0,0,0,0,0,0,0,0,0,0,
48,26.14,28.8,59.04,59.51,-17.08,5.802,37.22,34.64,27.63,31.6,14.62,16.1,11.32,11.24,-0.7109,-6.763,0,0,0,0,0,0,0,0,0,0,0,0,0,0,0,0,
49,33.44,30.47,60.13,52.82,19.1,9.326,40.02,35.42,48.93,37.02,25.71,9.164,9.665,17.7,-8.917,-12.02,0,0,0,0,0,0,0,0,0,0,0,0,0,0,0,0,
50,34.5,29.16,56.55,38.3,45.71,2.033,19.15,36.39,51.1,38.12,25,11.96,17.23,20.94,-2.442,3.252,0,0,0,0,0,0,0,0,0,0,0,0,0,0,0,0,
51,25.36,28.83,41.83,23.3,17.46,-22.37,-5.44,28.41,38.41,28.78,28.27,14.35,10.76,11.06,11.87,11.05,0,0,0,0,0,0,0,0,0,0,0,0,0,0,0,0,
52,21.24,17.9,34.54,15.3,4.335,-20.43,-15.51,16.66,50.24,20.35,51.31,16.54,-2.531,-0.145,9.676,0.6347,0,0,0,0,0,0,0,0,0,0,0,0,0,0,0,0,
53,27.7,5.512,39.54,22.29,18.89,2.828,-13.03,22.55,59.32,18.88,53.12,12.91,-8.693,-11.65,-9.4,-11.44,0,0,0,0,0,0,0,0,0,0,0,0,0,0,0,0,
54,27.37,-1.515,41.8,35.81,18.81,3.789,-12.4,29.4,47.46,12.11,35.41,4.316,-19.46,-28.87,-17.42,-18.28,0,0,0,0,0,0,0,0,0,0,0,0,0,0,0,0,
55,15.74,-10.19,40.55,38.7,21.27,0.7877,-10.42,17.87,44.53,2.267,31.26,3.678,-22.78,-31.53,-11.08,-18.5,0,0,0,0,0,0,0,0,0,0,0,0,0,0,0,0,
56,8.821,-6.466,42.5,35.45,33.55,15.42,4.46,19.47,46.03,3.588,28.24,8.595,-8.355,-24.59,-9.986,-11.73,0,0,0,0,0,0,0,0,0,0,0,0,0,0,0,0,
57,16.6,9.53,56.09,44.93,41.25,23.84,18.83,36.48,45.53,4.529,25.29,15.89,-3.591,-29.54,-8.766,-6.682,0,0,0,0,0,0,0,0,0,0,0,0,0,0,0,0,
58,23.42,8.997,65.26,54.83,44.36,15.55,16.99,30.84,49.52,-2.787,33.13,26.21,-12.59,-29.97,0.6692,-6.157,0,0,0,0,0,0,0,0,0,0,0,0,0,0,0,0,
59,16.4,-2.03,46.55,42.91,25.1,-0.5015,4.037,15.1,37.52,-2.175,29.21,24.83,-13.29,-22.31,1.333,-5.38,0,0,0,0,0,0,0,0,0,0,0,0,0,0,0,0,
60,13.76,-6.163,30.3,33,-6.42,-9.339,-11.04,17.6,24.28,-1.726,16,14.23,-10.23,-25.53,-6.45,-5.617,0,0,0,0,0,0,0,0,0,0,0,0,0,0,0,0,
61,23.37,-14.53,44.68,44.93,-8.331,-2.592,-16.89,24.78,37.06,-12.1,20.54,19.31,-12.4,-30.77,-3.263,-5.039,0,0,0,0,0,0,0,0,0,0,0,0,0,0,0,0,
62,25.45,-23.89,59.12,48.15,5.727,-4.247,-13.27,20.14,39.7,-17.71,23.99,26.43,-20.27,-39.14,-2.455,-8.767,0,0,0,0,0,0,0,0,0,0,0,0,0,0,0,0,
63,20.18,-29.03,50.15,33.39,11.24,-14.52,-15.3,7.758,25.54,-25.5,9.782,15.51,-35.25,-57.53,-14.9,-21.93,0,0,0,0,0,0,0,0,0,0,0,0,0,0,0,0,
64,28.36,-36.08,39.95,34.17,24.15,1.342,-12.21,5.706,32.72,-41.57,10.15,14.8,-36.25,-58.96,-10.15,-21.3,0,0,0,0,0,0,0,0,0,0,0,0,0,0,0,0,
65,46.63,-27.42,51.6,53.27,31.98,26.61,9.578,19.72,43.84,-43.31,29.6,29.84,-14.26,-43.99,13.08,-5.05,0,0,0,0,0,0,0,0,0,0,0,0,0,0,0,0,
66,58.67,-5.348,72.11,62.7,28.73,37.28,29.69,28.61,46.51,-34.05,43.8,41.58,3.797,-35.5,27.01,2.819,0,0,0,0,0,0,0,0,0,0,0,0,0,0,0,0,
67,66.53,0.76,75.33,57.97,46.2,50.82,37.64,28.93,55.93,-31.38,52.05,55.52,5.163,-28.68,30.86,8.602,0,0,0,0,0,0,0,0,0,0,0,0,0,0,0,0,
68,60.98,-3.424,65.49,53.89,51.27,50.2,37.21,32.46,42.06,-33.99,42.63,47.67,-10.37,-31.67,15.95,6.435,0,0,0,0,0,0,0,0,0,0,0,0,0,0,0,0,
69,27.13,-10.12,61.84,56.09,10.88,24.3,29.29,27.02,6.876,-38.54,13.75,6.662,-33.89,-42.76,-17.31,-15.03,0,0,0,0,0,0,0,0,0,0,0,0,0,0,0,0,
70,-2.243,-24.02,60.7,55.76,-12.98,13.33,26.19,15.7,-5.065,-35.47,0.0552,-13.61,-36.49,-35.98,-28.98,-22.86,0,0,0,0,0,0,0,0,0,0,0,0,0,0,0,0,
71,9.017,-17.26,60.84,55.07,4.453,30.53,34.26,26.8,11.39,-18.83,17.11,9.986,-13.98,-24.65,-2.706,-2.314,0,0,0,0,0,0,0,0,0,0,0,0,0,0,0,0,
72,54.23,22.71,87.59,81.94,40.96,79,65.47,58.43,74.29,8.14,79.98,70.47,28.54,-6.84,64.92,44.65,0,0,0,0,0,0,0,0,0,0,0,0,0,0,0,0,
73,125.5,69.48,146.8,137.7,118.5,159.3,132.6,94.19,178.4,49.38,186.1,158.2,92.56,47.87,169.3,123,0,0,0,0,0,0,0,0,0,0,0,0,0,0,0,0,
74,201.3,110.9,207.8,182.4,206,217.4,185.1,130.5,239.3,87.08,255.3,211.7,133.1,98.02,233.8,178.5,0,0,0,0,0,0,0,0,0,0,0,0,0,0,0,0,
75,224.6,127,224.6,189.8,211.2,216.1,169.4,139.1,223.2,87.7,234.1,189.6,115.7,93.21,197.7,158.5,0,0,0,0,0,0,0,0,0,0,0,0,0,0,0,0,
76,175.8,91.68,169.5,155,129.3,173.6,117.2,97.56,160.6,56.52,157.5,125.4,74.43,58.15,114.3,103.3,0,0,0,0,0,0,0,0,0,0,0,0,0,0,0,0,
77,112.8,43.62,106.2,109,49.66,127.2,79.25,54,89.91,28.09,83.01,70.86,42.05,26.94,57.83,69.36,0,0,0,0,0,0,0,0,0,0,0,0,0,0,0,0,
78,90.79,31.18,105.1,103.6,37,115,68.1,52.24,70.3,21.49,55.04,57.9,26.06,11.01,36.11,55.62,0,0,0,0,0,0,0,0,0,0,0,0,0,0,0,0,
79,88.79,32.4,108.3,111.7,54.43,111.3,71.41,58.1,83.94,23.42,53.14,63.69,21.68,3.734,21.05,34.73,0,0,0,0,0,0,0,0,0,0,0,0,0,0,0,0,
80,73.15,25.28,84.62,88.82,42.58,79.44,66.57,48.28,64.94,15.68,36.93,55.57,12.14,-13.54,8.542,9.866,0,0,0,0,0,0,0,0,0,0,0,0,0,0,0,0,
81,63.44,20.55,85.99,81.66,26.73,63.2,51.74,50.44,46,8.204,35.38,50.23,4.236,-29.1,11.21,5.634,0,0,0,0,0,0,0,0,0,0,0,0,0,0,0,0,
82,65.66,11.22,86.73,103.1,34.69,70.12,42.49,62.26,53.99,9.15,50.04,45.24,4.59,-26.64,10.05,8.33,0,0,0,0,0,0,0,0,0,0,0,0,0,0,0,0,
83,53.4,-4.012,70.71,98.21,33.84,55.34,38.32,56.59,47.99,5.984,35.54,24.33,-6.236,-26.97,-8.794,-3.704,0,0,0,0,0,0,0,0,0,0,0,0,0,0,0,0,
84,32.78,-12.01,77.84,73.55,18.45,35.73,28.33,40.37,34.12,-2.606,12.84,12.18,-20.9,-39.23,-19.29,-12.31,0,0,0,0,0,0,0,0,0,0,0,0,0,0,0,0,
85,26.96,-17.73,86,69.9,17.37,37.75,19.66,34.63,38.67,-6.042,18.11,18.44,-17.47,-41.31,-12.04,-6.056,0,0,0,0,0,0,0,0,0,0,0,0,0,0,0,0,
86,38.87,-14.95,97.49,97.87,38.74,55.38,35.81,45.88,54.42,0.4292,31.64,24.65,-7.407,-30.64,-5.095,0.4435,0,0,0,0,0,0,0,0,0,0,0,0,0,0,0,0,
87,49.93,1.229,132.1,138.7,66.99,71.97,60.32,68.19,65.57,10.27,31.98,24.83,-3.44,-25.04,-1.395,3.206,0,0,0,0,0,0,0,0,0,0,0,0,0,0,0,0,
88,44.16,5.191,148.4,159,84.82,67.96,54.91,86.19,64.68,13.18,32.4,28.42,3.101,-21.63,9.59,12.3,0,0,0,0,0,0,0,0,0,0,0,0,0,0,0,0,
89,49.17,2.332,176.8,186.8,108.9,76.11,51.78,101,70.57,16.88,45.08,42.32,12.7,-14.64,22.37,22.8,0,0,0,0,0,0,0,0,0,0,0,0,0,0,0,0,
90,75.92,16.6,260.3,265.9,157.2,117.7,85.77,134.4,80.71,30.94,47.95,50.81,17.86,-14.46,21.42,21.07,0,0,0,0,0,0,0,0,0,0,0,0,0,0,0,0,
91,83.78,33.66,336.7,350.7,197.6,148.4,122.3,176.8,78.93,47,47.23,61.6,33.97,-4.849,27,25.93,0,0,0,0,0,0,0,0,0,0,0,0,0,0,0,0,
92,90.47,55.51,399.4,419.8,222.3,181.8,155.9,201.2,102.9,62.6,80.91,102.4,69.5,26.44,61.58,51.63,0,0,0,0,0,0,0,0,0,0,0,0,0,0,0,0,
93,133.6,94.43,502,518.5,275.1,241.4,201.6,229.4,143,77.92,113,133.5,85.07,35.23,81.72,59.72,0,0,0,0,0,0,0,0,0,0,0,0,0,0,0,0,
94,162.9,116.9,609.8,623.4,341.4,274.2,233.1,275.7,140.9,84.79,105.7,123.5,65.64,12.55,62.25,38.37,0,0,0,0,0,0,0,0,0,0,0,0,0,0,0,0,
95,158.8,114.9,662.6,675.9,370.5,284.6,249.1,296,136.7,87.21,107.2,123.9,58.36,8.742,52.91,32.64,0,0,0,0,0,0,0,0,0,0,0,0,0,0,0,0,
96,171.4,121.4,673.6,675,385.8,315.6,259,283.9,168.1,91.68,127.4,148.2,77.13,25.57,66.95,52.91,0,0,0,0,0,0,0,0,0,0,0,0,0,0,0,0,
97,192.3,130.1,678.1,641,410.4,335.6,251.7,278.2,187.4,93.79,127.9,152.4,89.04,37.64,67.78,68.73,0,0,0,0,0,0,0,0,0,0,0,0,0,0,0,0,
98,194.3,129.6,657.2,593.8,399.9,327.5,247.1,274.7,185.3,96.33,119.3,132,87.22,45.55,56.44,68.69,0,0,0,0,0,0,0,0,0,0,0,0,0,0,0,0,
99,194.4,133.4,601.3,560,364.1,318.8,248,264.8,173.4,100.8,115.7,114.2,82.12,38.79,51.39,61.07,0,0,0,0,0,0,0,0,0,0,0,0,0,0,0,0,
100,189.8,128.3,563.6,546.1,357.8,307.5,228.4,258.2,146.5,96.1,108.9,110.9,75.06,20.92,52.15,55.94,0,0,0,0,0,0,0,0,0,0,0,0,0,0,0,0,
101,168.7,105.3,537.2,516,349.7,281.8,204.4,235.4,137.4,85.03,104.6,110.7,66.6,18.5,58.21,55.36,0,0,0,0,0,0,0,0,0,0,0,0,0,0,0,0,
102,147.6,87.77,473.1,443.8,307.2,250.9,189,200.8,151,83.05,106.1,105.8,60.16,26.8,66.65,55.47,0,0,0,0,0,0,0,0,0,0,0,0,0,0,0,0,
103,136.7,82.87,410.8,379.8,265.8,226.8,169.9,190.7,142.4,84.67,100.2,98.84,61.48,30.33,62.88,53.91,0,0,0,0,0,0,0,0,0,0,0,0,0,0,0,0,
104,123.8,81.29,384.4,366.7,231.2,205.6,158.9,197.2,112,77.84,77.22,77.35,61.2,25.7,40.6,41.93,0,0,0,0,0,0,0,0,0,0,0,0,0,0,0,0,
105,99.69,76.85,360.2,356.3,205.2,183.2,153.6,193.6,96.47,69.61,59.13,53.49,46.03,13.33,23.3,23.98,0,0,0,0,0,0,0,0,0,0,0,0,0,0,0,0,
106,84.28,63.26,331.3,316.9,207.8,170.8,133.2,171.4,103.5,61.79,73.15,58.68,31.04,8.617,29.08,21.03,0,0,0,0,0,0,0,0,0,0,0,0,0,0,0,0,
107,90.18,48.74,301.5,276,204.7,161.5,112,136.3,118.1,48.78,98.05,67.54,21.56,10.56,32.88,18.82,0,0,0,0,0,0,0,0,0,0,0,0,0,0,0,0,
108,91.01,40.77,265.5,242,179.6,143.8,102.7,120.8,129.1,42.52,105.1,62.55,4.469,2.914,24.8,2.129,0,0,0,0,0,0,0,0,0,0,0,0,0,0,0,0,
109,82.24,30.19,236.7,213.6,167,128.8,86.83,126.9,131.9,46.77,102.4,70.38,0.4546,-0.191,30,3.299,0,0,0,0,0,0,0,0,0,0,0,0,0,0,0,0,
110,79.67,22.59,208.8,185.6,154.9,110.3,64.42,111.2,126,46.28,98.85,77.68,23.03,6.385,40.3,23.66,0,0,0,0,0,0,0,0,0,0,0,0,0,0,0,0,
111,74.49,29.98,169.6,144.9,127.7,84.8,54.57,86.36,121,44.04,95.67,72.41,41.86,9.021,37.73,31.46,0,0,0,0,0,0,0,0,0,0,0,0,0,0,0,0,
112,72.02,39.01,145.5,114,112.1,71.86,46.27,85.39,121.4,47.92,94,70,41.42,15.54,34.46,31.78,0,0,0,0,0,0,0,0,0,0,0,0,0,0,0,0,
113,72.15,32.99,132.4,98.26,102.8,59.44,24.14,77.91,119.8,44.81,91.8,57.17,27.57,15.62,30.71,22.73,0,0,0,0,0,0,0,0,0,0,0,0,0,0,0,0,
114,51.09,18.93,84.64,62.85,79.42,37.47,6.863,54.64,108.4,35.46,89.17,45.04,9.864,-4.522,23.02,0.1739,0,0,0,0,0,0,0,0,0,0,0,0,0,0,0,0,
115,32.5,15.25,31.74,26.76,57.28,27.48,2.711,49.22,84.97,35.82,80.16,56.64,6.521,-12.88,21.03,-5.055,0,0,0,0,0,0,0,0,0,0,0,0,0,0,0,0,
116,41.8,22.34,32.91,15.38,46.85,23.37,-2.583,52.31,70.23,37.16,68.29,57.66,7.77,-5.67,16.43,-1.04,0,0,0,0,0,0,0,0,0,0,0,0,0,0,0,0,
117,44.3,20.36,32.29,-3.309,27.35,12.32,-8.111,43.5,70.87,28.27,59.84,32.77,-7.357,-16.82,-1.538,-17.72,0,0,0,0,0,0,0,0,0,0,0,0,0,0,0,0,
118,26.06,5.207,-20.79,-25.16,-7.763,5.677,-10.35,31.75,54.59,19.09,36.23,11.17,-20.98,-34.63,-21.83,-32.96,0,0,0,0,0,0,0,0,0,0,0,0,0,0,0,0,
119,14.07,-4.546,-49.81,-26.01,-21.76,3.295,-11.08,19.88,32.54,13.4,12.83,5.515,-18.34,-34.07,-27.04,-27.12,0,0,0,0,0,0,0,0,0,0,0,0,0,0,0,0,
120,14.13,-0.4718,-26.41,-33.7,-6.453,-2.672,-11.11,10.54,31.31,9.618,19.21,7.451,-13.17,-25.87,-20.97,-17.77,0,0,0,0,0,0,0,0,0,0,0,0,0,0,0,0,
121,11.65,7.626,-20.63,-49.8,-13.76,-9.869,-12.89,6.261,21.52,9.685,18.68,2.109,-9.742,-24.25,-25.83,-20.93,0,0,0,0,0,0,0,0,0,0,0,0,0,0,0,0,
122,7.798,12.67,-42.6,-51.52,-40.85,-7.137,-0.9894,-2.699,12.7,6.8,3.527,1.564,-3.725,-31.7,-33.25,-33.12,0,0,0,0,0,0,0,0,0,0,0,0,0,0,0,0,
123,17.02,17.51,-54.3,-58.29,-30.51,9.695,24.21,-5.612,36.35,0.0521,15.1,19.3,2.292,-39.9,-23.9,-37.79,0,0,0,0,0,0,0,0,0,0,0,0,0,0,0,0,
124,30.37,21.95,-48.18,-64.1,-3.913,20.26,26.8,8.291,54.72,-1.137,31.34,28.78,8.521,-34.89,-12.45,-30.3,0,0,0,0,0,0,0,0,0,0,0,0,0,0,0,0,
125,30.02,22.32,-36.4,-48.04,-9.827,17.21,11.96,13.96,54.75,2.09,32.93,37.46,16.83,-21.31,-0.588,-20.11,0,0,0,0,0,0,0,0,0,0,0,0,0,0,0,0,
126,22.77,19.96,-39.38,-44.67,-22.5,13.39,7.942,3.267,55.25,2.397,37.47,55.16,16.44,-18.3,11.48,-17.17,0,0,0,0,0,0,0,0,0,0,0,0,0,0,0,0,
127,12.52,15.53,-51.16,-60.23,-15.93,5.75,6.037,0.3298,40.69,0.9229,29.37,41.3,3.223,-27.29,0.2723,-23.48,0,0,0,0,0,0,0,0,0,0,0,0,0,0,0,0,
128,2.015,11.82,-49.85,-62.1,-12.09,1.086,7.793,4.007,30.04,2.851,19.73,20.77,-4.363,-32.03,-12.41,-23.91,0,0,0,0,0,0,0,0,0,0,0,0,0,0,0,0,
129,4.019,13.3,-50.46,-66.91,-23.81,10.16,18.52,0.8159,42.53,4.642,32.79,32.09,-5.79,-28.55,-1.583,-16.11,0,0,0,0,0,0,0,0,0,0,0,0,0,0,0,0,
130,6.201,11.27,-54.13,-82.07,-32.47,14.54,22.23,5.61,38.34,2.888,37.55,32.25,-10.61,-21.75,3.97,-10.24,0,0,0,0,0,0,0,0,0,0,0,0,0,0,0,0,
131,-3.242,1.265,-46.84,-79.13,-22.16,11.27,22.47,20.36,15.22,3.643,23.59,16.61,-7.161,-13.43,-1.518,-2.449,0,0,0,0,0,0,0,0,0,0,0,0,0,0,0,0,
132,-11.25,-7.874,-56.76,-74.02,-14.17,12.76,16.55,14.48,3.171,-0.2775,9.158,7.732,-7.579,-17.93,-3.61,-4.315,0,0,0,0,0,0,0,0,0,0,0,0,0,0,0,0,
133,-15.96,-17.69,-75.91,-86.63,-22.5,8.833,-4.791,-8.069,-1.326,-14.13,-0.4853,-6.609,-22.33,-33.63,-8.134,-18.01,0,0,0,0,0,0,0,0,0,0,0,0,0,0,0,0,
134,-18.16,-26.71,-67.64,-91.41,-20.93,-1.324,-13.48,-11.68,-1.544,-17.91,1.014,-12.02,-20.76,-31.54,-11.4,-17.94,0,0,0,0,0,0,0,0,0,0,0,0,0,0,0,0,
135,-16.84,-26.42,-65.85,-87.74,-21.07,-5.564,-5.137,-7.795,-2.88,-13.13,-1.936,-11.03,-9.29,-17.98,-8.521,-12.17,0,0,0,0,0,0,0,0,0,0,0,0,0,0,0,0,
136,-21.05,-27.83,-83.32,-100.1,-48.34,-5.795,-11.82,-20.6,-12.59,-16.07,-8.989,-16.76,-9.172,-12.92,1.726,-10.46,0,0,0,0,0,0,0,0,0,0,0,0,0,0,0,0,
137,-20.01,-31.67,-81.89,-109.9,-52.26,-2.399,-23.82,-25.33,-11.74,-12.26,12.41,6.714,4.141,-0.513,20.65,2.116,0,0,0,0,0,0,0,0,0,0,0,0,0,0,0,0,
138,-3.291,-22.22,-76.24,-100.2,-12.48,1.799,-19.09,-16.89,5.641,-2.164,40.36,42.45,21.27,13.51,30.91,11.34,0,0,0,0,0,0,0,0,0,0,0,0,0,0,0,0,
139,6.806,-17.15,-84.5,-103.5,0.0111,-7.982,-19.3,-29.39,21.17,-8.604,36.9,35.27,9.564,6.313,22.69,4.495,0,0,0,0,0,0,0,0,0,0,0,0,0,0,0,0,
140,-1.086,-31.52,-97.82,-125.2,-31.7,-28.33,-39.31,-52.4,21.66,-20.46,17,11.03,-8.502,-4.058,8.641,-5.766,0,0,0,0,0,0,0,0,0,0,0,0,0,0,0,0,
141,-9.96,-37.54,-115.6,-133.2,-43.87,-36.33,-48.15,-53.19,13.93,-20,10.05,13.13,-8.481,-3.819,8.504,-9.541,0,0,0,0,0,0,0,0,0,0,0,0,0,0,0,0,
142,-3.067,-24.54,-113.1,-130.8,-25.17,-27.76,-30.06,-42.14,25.98,-15.95,31.57,36.25,3.243,-2.62,33.39,2.869,0,0,0,0,0,0,0,0,0,0,0,0,0,0,0,0,
143,19.34,-10.07,-99.61,-131,-29.05,-20.46,-20.56,-38.83,47.78,-13.4,56.33,57.71,20.35,6.316,55.29,21.62,0,0,0,0,0,0,0,0,0,0,0,0,0,0,0,0,
144,32.07,-1.029,-117.9,-134.5,-55.26,-26.82,-36.22,-40.52,38.34,-8.17,49.75,56.71,28.31,20.71,47.64,26.63,0,0,0,0,0,0,0,0,0,0,0,0,0,0,0,0,
145,19.53,-0.5485,-139.1,-149.3,-54.05,-41.19,-47.67,-39.65,17.48,-1.808,35.61,41.7,20.2,24.51,36.32,26.22,0,0,0,0,0,0,0,0,0,0,0,0,0,0,0,0,
146,6.87,-1.477,-137.8,-153,-45.39,-43.48,-40.16,-35.15,13.74,4.165,36.77,40.99,17.09,27.55,40.18,30.35,0,0,0,0,0,0,0,0,0,0,0,0,0,0,0,0,
147,8.541,5.702,-137.6,-137.4,-68.36,-28.8,-27.25,-33.35,6.689,8.584,35.73,49.22,22.96,33.54,40.64,30.65,0,0,0,0,0,0,0,0,0,0,0,0,0,0,0,0,
148,10.08,7.35,-134.9,-145.1,-79.4,-18.4,-17.16,-32.4,7.771,7.719,34.74,52.06,22.27,25.8,35.51,24.84,0,0,0,0,0,0,0,0,0,0,0,0,0,0,0,0,
149,22.75,9.203,-125.8,-154.3,-50.94,-10.26,1.506,-21.98,38.6,6.853,50.98,66.72,27.62,16.05,43.12,23.4,0,0,0,0,0,0,0,0,0,0,0,0,0,0,0,0,
150,54.83,30.05,-109.8,-113.9,-21.7,12.5,31.31,-6.509,60.29,13.24,73,87.54,46,19.47,55.89,28.15,0,0,0,0,0,0,0,0,0,0,0,0,0,0,0,0,
151,67.06,44.86,-79.93,-74.88,-9.664,25.15,39.09,3.127,43.96,16.9,69.55,77.69,51.17,21.18,48.15,25.82,0,0,0,0,0,0,0,0,0,0,0,0,0,0,0,0,
152,45.96,38.68,-68.21,-83.69,-16.79,9.432,17.34,4.458,17.46,11.1,41.68,49.28,43.49,19.6,30.14,19.86,0,0,0,0,0,0,0,0,0,0,0,0,0,0,0,0,
153,28.5,37.02,-85.74,-98.26,-40.69,-2.707,10.93,0.366,10.66,8.676,31.14,39.75,44.97,27.98,29.59,24.39,0,0,0,0,0,0,0,0,0,0,0,0,0,0,0,0,
154,34.25,43.46,-89.68,-89.4,-46.19,10.08,28.62,0.3871,20.9,14.25,42.43,44.27,49.19,39.49,32.91,28.78,0,0,0,0,0,0,0,0,0,0,0,0,0,0,0,0,
155,53.59,45.62,-69.3,-73.57,-28.96,28.97,36.54,6.474,27.18,18.18,40.87,51.07,47.58,40.67,23.11,24.31,0,0,0,0,0,0,0,0,0,0,0,0,0,0,0,0,
156,65.49,44.59,-62.43,-73.65,-32.46,28.81,31.31,7.833,25.63,19.25,36.31,63.01,50.83,35.02,24.25,27.96,0,0,0,0,0,0,0,0,0,0,0,0,0,0,0,0,
157,63.91,46.06,-82.69,-91.65,-53.37,14.55,28.22,1.215,31.99,20.89,48.4,71.66,60.9,33.75,38.48,41.61,0,0,0,0,0,0,0,0,0,0,0,0,0,0,0,0,
158,67.72,52.23,-97.51,-101.8,-49.22,13.07,25.44,-7.539,41.07,18.76,46.43,64.79,58.61,30.63,31.42,39.65,0,0,0,0,0,0,0,0,0,0,0,0,0,0,0,0,
159,68.98,48.91,-96.01,-97.32,-27.02,21.13,18.31,-6.628,39.35,15.72,25.72,50.78,39.62,21.32,17.13,25.85,0,0,0,0,0,0,0,0,0,0,0,0,0,0,0,0,
160,60.33,37.16,-92.23,-93.38,-16.26,21.14,15.22,5.3,43.33,22.63,28.5,53.94,35.28,25.82,30.21,30.35,0,0,0,0,0,0,0,0,0,0,0,0,0,0,0,0,
161,70.14,45.26,-73.78,-86.3,-10.25,26.35,26.17,8.564,54.78,32.04,47.07,66.16,51.96,41.29,42.82,39.64,0,0,0,0,0,0,0,0,0,0,0,0,0,0,0,0,
162,80.36,59.62,-57.98,-76.08,-7.405,38.08,39.14,7.61,46.08,34.62,49.08,62.26,59.1,45.07,37.69,35.22,0,0,0,0,0,0,0,0,0,0,0,0,0,0,0,0,
163,61.06,50.4,-74.45,-76.47,-20.2,30.91,32.64,18.46,32.87,39.08,51.54,62.41,56.24,45.66,42.57,39.15,0,0,0,0,0,0,0,0,0,0,0,0,0,0,0,0,
164,47.19,38.44,-86.32,-86.16,-30.33,4.374,9.16,14.68,38.37,37.71,54.67,69.26,50.25,48.58,41.94,42.85,0,0,0,0,0,0,0,0,0,0,0,0,0,0,0,0,
165,42.63,27.95,-91.94,-103.9,-33.67,-21.82,-20.23,-14.53,27.64,19.7,33.65,44.71,25.54,39.7,17.36,23.67,0,0,0,0,0,0,0,0,0,0,0,0,0,0,0,0,
166,16.28,-7.717,-124,-129.1,-53.05,-38.96,-54.02,-35.29,0.8803,5.448,14.18,10.87,-7.56,22.64,-0.5791,2.399,0,0,0,0,0,0,0,0,0,0,0,0,0,0,0,0,
167,-2.477,-40.14,-125.7,-133.8,-62.39,-42.12,-71.48,-36.73,7.502,3.085,20.13,9.634,-21.79,8.821,-4.432,-6.08,0,0,0,0,0,0,0,0,0,0,0,0,0,0,0,0,
168,8.94,-31.27,-77.93,-106.3,-39.63,-29.22,-54.71,-29.09,28.63,-0.8867,25.49,19.42,-13.27,4.759,-4.514,-3.466,0,0,0,0,0,0,0,0,0,0,0,0,0,0,0,0,
169,17.03,-10.27,-63.64,-84.81,-27.56,-16.08,-33.97,-19.67,24.9,-3.369,18.64,20.25,3.039,9.772,4.952,6.669,0,0,0,0,0,0,0,0,0,0,0,0,0,0,0,0,
170,13.54,-6.727,-82.38,-87.52,-35.89,-20.88,-31.39,-19.2,18.32,-3.063,16.37,22.73,8.086,7.857,12.51,6.554,0,0,0,0,0,0,0,0,0,0,0,0,0,0,0,0,
171,16.65,-7.571,-75.21,-88.95,-28.39,-28.9,-26.65,-21.5,26.34,-3.655,25.24,28.09,4.684,-1.346,10.87,-0.209,0,0,0,0,0,0,0,0,0,0,0,0,0,0,0,0,
172,20.68,-3.878,-60.55,-80.77,-7.3,-17.8,-18.07,-19.45,38.59,3.833,35.93,32.66,11.9,2.264,15.81,6.898,0,0,0,0,0,0,0,0,0,0,0,0,0,0,0,0,
173,20.69,-0.8636,-62.66,-74.08,0.9556,-6.662,-21.95,-25.44,41.92,11.08,37.66,34.71,21.38,12.57,24.52,18.63,0,0,0,0,0,0,0,0,0,0,0,0,0,0,0,0,
174,21.23,-6.165,-72.74,-76.77,-16.21,-20.3,-38.4,-36.41,25.29,3.258,31.59,31.57,17.14,11.22,22.8,20.78,0,0,0,0,0,0,0,0,0,0,0,0,0,0,0,0,
175,14.33,-16.94,-86.07,-85.55,-41.63,-39.7,-56,-37.62,15.82,-1.154,30.67,27.77,19.49,14.92,22.31,27.64,0,0,0,0,0,0,0,0,0,0,0,0,0,0,0,0,
176,4.48,-12.2,-81.42,-80.18,-48.89,-41.42,-58.18,-34.78,30.45,6.297,35.04,25.08,35.61,31.5,30,41.97,0,0,0,0,0,0,0,0,0,0,0,0,0,0,0,0,
177,2.357,-0.5993,-68.03,-70.92,-53.46,-41.14,-55.61,-38.11,22.76,2.717,25.04,18.16,32.02,31.28,24.36,37.2,0,0,0,0,0,0,0,0,0,0,0,0,0,0,0,0,
178,-7.081,-10.35,-81.88,-84.81,-59.73,-55.1,-65.49,-40.82,-8.283,-6.416,9.017,15.04,17.37,24.02,18.37,28.57,0,0,0,0,0,0,0,0,0,0,0,0,0,0,0,0,
179,-17.25,-17.34,-85.41,-90.14,-42,-58.88,-56.42,-34.31,-8.28,-0.696,21.17,24.91,29.21,38.35,45.6,51.27,0,0,0,0,0,0,0,0,0,0,0,0,0,0,0,0,
180,-0.7218,4.721,-54.25,-61.02,-27.2,-34.45,-23.5,-24.24,8.796,5.49,45.2,31.71,43.78,45.75,71.63,68.72,0,0,0,0,0,0,0,0,0,0,0,0,0,0,0,0,
181,16.29,23.37,-46.31,-38.77,-32.58,-14.95,-15.87,-16.21,7.751,2.19,45.54,27.99,39.45,38.09,63.34,57.37,0,0,0,0,0,0,0,0,0,0,0,0,0,0,0,0,
182,4.203,16.21,-62.27,-47.66,-22.96,-22.37,-32.41,-11.4,6.273,1.366,40.09,31.1,42.89,45.6,56.68,56.8,0,0,0,0,0,0,0,0,0,0,0,0,0,0,0,0,
183,-1.397,8.347,-58.16,-61.18,-23.62,-23.99,-37.92,-18.38,7.281,1.785,44.67,38.39,46.77,49.29,59.38,60.23,0,0,0,0,0,0,0,0,0,0,0,0,0,0,0,0,
184,17.72,14.31,-51.2,-59.95,-58.45,-8.27,-37.2,-35.05,-2.014,-0.0359,43.25,31.97,28.61,34.13,45.15,42.51,0,0,0,0,0,0,0,0,0,0,0,0,0,0,0,0,
185,20.49,10.18,-59.41,-64.19,-63.8,-13.85,-44.83,-48.49,-7.629,-3.579,35.75,15.04,6.848,26.54,28.7,25.9,0,0,0,0,0,0,0,0,0,0,0,0,0,0,0,0,
186,-2.019,-11.19,-74.18,-92.15,-44.07,-41.19,-55.78,-54.75,-10.47,-12,30.69,3.708,-0.486,26.64,30.49,25.83,0,0,0,0,0,0,0,0,0,0,0,0,0,0,0,0,
187,-7.493,-15.22,-91.23,-106.2,-58.42,-45.01,-56.77,-47.73,-19.57,-13.16,27.32,9.096,7.268,26.26,40.91,37.44,0,0,0,0,0,0,0,0,0,0,0,0,0,0,0,0,
188,8.832,2.215,-89.9,-82.61,-54.87,-26.79,-43.93,-33.66,-12.85,-0.741,26.9,27.3,27.19,34.41,48.51,50.69,0,0,0,0,0,0,0,0,0,0,0,0,0,0,0,0,
189,15.74,10.7,-65.41,-67.53,-18.36,-17.94,-33.88,-35.82,4.274,3.382,27.59,37.3,44.12,43.97,50.74,55.45,0,0,0,0,0,0,0,0,0,0,0,0,0,0,0,0,
190,15.74,10.93,-55.68,-75.18,-39.41,-14.07,-39.11,-46.09,-8.537,-9.491,20,21.8,39.24,41.31,42.52,50.68,0,0,0,0,0,0,0,0,0,0,0,0,0,0,0,0,
191,14.99,5.868,-77.13,-73.97,-82.89,-18.21,-50.23,-45.2,-34.06,-20.96,5.603,-5.613,20.67,32.68,26.75,38.42,0,0,0,0,0,0,0,0,0,0,0,0,0,0,0,0,
192,-4.286,-11.22,-99.57,-77.96,-76.27,-49.28,-58.34,-43.52,-33.14,-21.58,2.149,-14.69,18.2,34.13,25.27,36.19,0,0,0,0,0,0,0,0,0,0,0,0,0,0,0,0,
193,-30.92,-19.4,-102.7,-97.88,-76.33,-82.31,-66.83,-43.96,-29.57,-20.89,7.525,-11.4,26.24,38.94,36.11,46.17,0,0,0,0,0,0,0,0,0,0,0,0,0,0,0,0,
194,-40.64,-15.46,-102.9,-97.4,-87.41,-87.66,-73.14,-43.64,-38.32,-25.07,3.302,-18.22,18.62,30.68,32.93,41.07,0,0,0,0,0,0,0,0,0,0,0,0,0,0,0,0,
195,-41.52,-22.15,-112.4,-84.46,-78.42,-80.42,-70.73,-51.72,-36.98,-26.93,-1.144,-23.04,9.947,24.69,24.21,30.77,0,0,0,0,0,0,0,0,0,0,0,0,0,0,0,0,
196,-44.51,-31.57,-118.6,-95.47,-92.74,-80.51,-69.92,-55.91,-43.7,-25.12,-5.685,-29.3,6.913,26.84,16.71,26.98,0,0,0,0,0,0,0,0,0,0,0,0,0,0,0,0,
197,-52.83,-32.47,-113.2,-107.2,-108.4,-90.28,-74.49,-49.6,-69.87,-27.02,-28.36,-55.9,-6.795,15.54,-4.578,11.13,0,0,0,0,0,0,0,0,0,0,0,0,0,0,0,0,
198,-66.05,-33.11,-103.3,-97.49,-92.88,-96.63,-67.98,-51.1,-72.3,-26.17,-37.06,-65.2,-9.831,5,-14.29,3.477,0,0,0,0,0,0,0,0,0,0,0,0,0,0,0,0,
199,-62.42,-29.88,-101.6,-89.96,-87.97,-83.87,-57.93,-49.13,-49.42,-16.54,-13,-39.23,-0.3702,10.41,-5.034,11.01,0,0,0,0,0,0,0,0,0,0,0,0,0,0,0,0,
200,-43.96,-27.49,-110.5,-91.67,-92.07,-72.31,-64.67,-37.02,-46.84,-13.71,-11.35,-32.99,-15.14,2.162,-19.59,-2.468,0,0,0,0,0,0,0,0,0,0,0,0,0,0,0,0,
201,-48.98,-38.8,-111.7,-94.8,-91.02,-82.23,-71.19,-38.65,-58.47,-20.16,-39.31,-50.69,-31.78,-16.77,-41.68,-20.89,0,0,0,0,0,0,0,0,0,0,0,0,0,0,0,0,
202,-63.62,-42.06,-105.3,-93.31,-87.86,-80.06,-58.64,-37.36,-49.65,-15.27,-38.04,-38.08,-11.95,-7.053,-28.16,-13.1,0,0,0,0,0,0,0,0,0,0,0,0,0,0,0,0,
203,-44.84,-24.69,-104.4,-74.88,-70,-44.31,-41.69,-15.62,-17.04,1.789,5.164,10.02,21.58,26.66,14.21,15.75,0,0,0,0,0,0,0,0,0,0,0,0,0,0,0,0,
204,0.9506,-3.853,-71.66,-41.27,-33.9,4.073,-17.99,9.902,51.11,26.67,86.87,80.42,61.09,68.29,95.62,81.43,0,0,0,0,0,0,0,0,0,0,0,0,0,0,0,0,
205,68.94,37.81,8.91,5.626,44.34,60.17,31.89,50.96,147.5,69.24,199.9,165.6,121.1,124.9,204.5,171,0,0,0,0,0,0,0,0,0,0,0,0,0,0,0,0,
206,138.9,94.78,53.28,44.73,107.8,99.51,66.48,79.67,179.4,96.4,253.9,200.8,152.3,159.7,243.4,199.6,0,0,0,0,0,0,0,0,0,0,0,0,0,0,0,0,
207,135.9,93.39,16.52,24.65,53.04,73.84,32.33,38.9,110.7,67.94,193.7,145.3,112.1,129.4,181,144.3,0,0,0,0,0,0,0,0,0,0,0,0,0,0,0,0,
208,70.37,35.87,-36.55,-29.85,-10.59,18.32,-23.07,-8.843,49.98,26.97,111,71.45,53.92,78.41,104.4,81.59,0,0,0,0,0,0,0,0,0,0,0,0,0,0,0,0,
209,29.59,0.0221,-61.11,-52.05,10.08,-4.097,-41.21,-3.22,41.58,15.44,70.4,34.8,25.67,52.53,58.66,46.41,0,0,0,0,0,0,0,0,0,0,0,0,0,0,0,0,
210,11.12,-12.74,-67.35,-61.52,-8.305,-15.8,-53.16,-3.716,20.64,5.857,38.21,8.901,8.052,31.18,25.78,16.94,0,0,0,0,0,0,0,0,0,0,0,0,0,0,0,0,
211,-9.463,-26.52,-68.6,-78.21,-55.64,-35.29,-72.63,-21.03,-3.453,-5.479,16.68,-7.407,-6.287,14.98,6.023,-2.547,0,0,0,0,0,0,0,0,0,0,0,0,0,0,0,0,
212,-8.22,-24.83,-75.22,-75.71,-39.75,-38.85,-73.34,-19.11,5.076,-2.997,17.9,-4.847,-11.99,15.66,-3.175,-9.325,0,0,0,0,0,0,0,0,0,0,0,0,0,0,0,0,
213,-10.64,-29.1,-88.89,-76.7,-41.17,-47.58,-79.79,-31.58,7.613,-9.977,9.222,-14.91,-23.77,7.697,-17.82,-17.75,0,0,0,0,0,0,0,0,0,0,0,0,0,0,0,0,
214,-43.37,-58.15,-109.6,-98.92,-75.61,-79.54,-104,-62.39,-5.96,-26.26,-5.428,-32.51,-35.43,-6.644,-25.83,-20.15,0,0,0,0,0,0,0,0,0,0,0,0,0,0,0,0,
215,-61.38,-66.4,-126.4,-104.4,-63.24,-97.98,-104.9,-60.89,-6.664,-26.34,-2.094,-29.65,-32.45,-4.627,-14.14,-14.35,0,0,0,0,0,0,0,0,0,0,0,0,0,0,0,0,
216,-50.96,-48.37,-122.3,-92.31,-51.87,-93.42,-87.62,-35.52,-6.34,-22.11,-0.4621,-30.75,-30.65,-1.344,-6.106,-14.87,0,0,0,0,0,0,0,0,0,0,0,0,0,0,0,0,
217,-48.13,-49.89,-118,-88.43,-78,-87.55,-85.64,-26.07,-11.96,-26.33,-6.665,-43.24,-37.77,-7.388,-9.037,-18.75,0,0,0,0,0,0,0,0,0,0,0,0,0,0,0,0,
218,-50.22,-58.5,-117.2,-80.84,-74.34,-77.31,-83.49,-30.26,-7.835,-27.95,1.322,-34.85,-34.71,-3.384,2.824,-14.63,0,0,0,0,0,0,0,0,0,0,0,0,0,0,0,0,
219,-45.72,-48.7,-97.63,-68.65,-52.94,-71.32,-74.81,-31.62,-6.305,-27.22,8.183,-25.62,-19.56,14.02,16.05,-4.478,0,0,0,0,0,0,0,0,0,0,0,0,0,0,0,0,
220,-52.96,-46.96,-91.25,-72.02,-69.45,-88.7,-80.24,-30.97,-16.66,-26.69,-5.596,-41.9,-14.59,21.4,4.423,-2.229,0,0,0,0,0,0,0,0,0,0,0,0,0,0,0,0,
221,-63.52,-53.68,-103.5,-77.67,-83.79,-100.3,-81.51,-30.41,-27.63,-23.03,-17.14,-50.82,-26.24,8.315,-7.696,-13.65,0,0,0,0,0,0,0,0,0,0,0,0,0,0,0,0,
222,-59.64,-48.86,-95.99,-72.08,-73.66,-82.45,-64.01,-25.46,-44.84,-24.41,-27.34,-51.2,-41.57,-7.942,-13.08,-26.45,0,0,0,0,0,0,0,0,0,0,0,0,0,0,0,0,
223,-61.83,-52.43,-88.43,-72.03,-77.84,-69.68,-57.52,-24.22,-64.06,-34.6,-53.11,-68.51,-51.82,-15.28,-27.62,-33.43,0,0,0,0,0,0,0,0,0,0,0,0,0,0,0,0,
224,-69.28,-62.32,-83.08,-71.34,-71.52,-69.96,-59.2,-34.27,-57.21,-40.1,-56.33,-66.74,-46.91,-14.84,-26.48,-33.32,0,0,0,0,0,0,0,0,0,0,0,0,0,0,0,0,
225,-54.38,-49.67,-59.57,-49.8,-36.17,-49.43,-40.26,-35.61,-28.06,-33.71,-26.3,-29.35,-24.54,-6.186,-8.24,-22.61,0,0,0,0,0,0,0,0,0,0,0,0,0,0,0,0,
226,-31.85,-29.46,-50.51,-31.91,-22.5,-26.87,-22.27,-22.11,-12.93,-25.48,-16.27,-6.988,-7.073,4.127,-5.417,-9.734,0,0,0,0,0,0,0,0,0,0,0,0,0,0,0,0,
227,-24.3,-21.29,-50.81,-37.82,-25.97,-31.53,-26.44,-16.26,-22.78,-20.95,-24.61,-11.96,-5.199,11.1,-7.744,-5.06,0,0,0,0,0,0,0,0,0,0,0,0,0,0,0,0,
228,-16.78,-13.91,-40.95,-34.79,-18.75,-24.76,-26.56,-16.12,-26.34,-16.1,-16.67,-12.89,-6.946,12.93,-5.992,-10.78,0,0,0,0,0,0,0,0,0,0,0,0,0,0,0,0,
229,1.627,-8.511,-42.46,-19.6,-27.57,7.482,-19.83,-17.48,-2.096,-17.38,-5.507,-2.862,-11.67,0.0093,-11.18,-22.39,0,0,0,0,0,0,0,0,0,0,0,0,0,0,0,0,
230,20.18,-13.4,-35.36,-22.3,-33.89,16.79,-29.32,-34.3,23.38,-27.65,5.131,8.366,-18.75,-14.16,-8.089,-25.96,0,0,0,0,0,0,0,0,0,0,0,0,0,0,0,0,
231,28.71,-20.1,-18.71,-19.67,5.859,-1.448,-41.44,-45.81,27.33,-30.83,22,9.636,-22.09,-10.66,-1.254,-23.93,0,0,0,0,0,0,0,0,0,0,0,0,0,0,0,0,
232,22.12,-25.28,-29.47,-6.743,37.22,-18.56,-43.93,-36.36,19.44,-25.81,21.55,-5.592,-32.13,-9.249,-14.27,-31.43,0,0,0,0,0,0,0,0,0,0,0,0,0,0,0,0,
233,-0.0623,-35.12,-40.46,-24.38,7.988,-36.4,-51.98,-32.9,6.584,-25.14,9.193,-19.54,-45.25,-14.87,-22.94,-36.35,0,0,0,0,0,0,0,0,0,0,0,0,0,0,0,0,
234,-22.41,-43.08,-33.86,-42,-19.25,-47.65,-57.41,-39.78,0.8888,-25.29,16.67,-12.3,-38.74,-6.247,-3.667,-25.87,0,0,0,0,0,0,0,0,0,0,0,0,0,0,0,0,
235,-26.93,-43.21,-40.37,-34.55,-17.21,-45.7,-56.19,-50.2,9.693,-27.66,31.02,-1.81,-25.49,1.822,15.38,-15.05,0,0,0,0,0,0,0,0,0,0,0,0,0,0,0,0,
236,-22.2,-46.94,-55.57,-43.64,-37.41,-49.64,-72.05,-63.57,13.45,-37.87,29.89,-10.92,-31.22,-6.049,13.08,-9.275,0,0,0,0,0,0,0,0,0,0,0,0,0,0,0,0,
237,-21.64,-56.25,-50.75,-43.27,-42.48,-53.36,-91.13,-55.64,13.25,-43.39,25.48,-22.44,-41.85,-11.76,3.107,-2.943,0,0,0,0,0,0,0,0,0,0,0,0,0,0,0,0,
238,-25.95,-62.48,-32.16,-17.06,-2.331,-52.94,-89.21,-38.9,14.98,-43.59,16.96,-28.88,-44.76,-13.79,-7.355,-5.578,0,0,0,0,0,0,0,0,0,0,0,0,0,0,0,0,
239,-45.61,-71.84,-45.19,-32.5,-10.08,-73.81,-88.63,-47.84,-2.98,-49.05,-3.763,-44.19,-48.12,-17.88,-17.19,-11.46,0,0,0,0,0,0,0,0,0,0,0,0,0,0,0,0,
240,-68.04,-76.52,-73.39,-57.51,-51.25,-92.7,-87.59,-49.7,-17.97,-47.63,-6.277,-41.07,-39.45,-11.85,-12.25,-0.1035,0,0,0,0,0,0,0,0,0,0,0,0,0,0,0,0,
241,-54.75,-55.49,-43.51,-19.3,-23.68,-67.56,-56.06,-22.26,6.049,-33.35,15.17,-9.886,-19.17,-4.546,-1.623,9.986,0,0,0,0,0,0,0,0,0,0,0,0,0,0,0,0,
242,-26.66,-35.48,0.6736,17.31,10.03,-31.48,-28.2,-8.273,22.13,-25.46,12.47,-3.398,-20.63,-14.86,-12.17,-2.79,0,0,0,0,0,0,0,0,0,0,0,0,0,0,0,0,
243,-30.79,-45.83,-9.983,4.199,-18.83,-25.86,-40.98,-20.14,-6.475,-29.07,-17.14,-24.97,-33.92,-26.81,-27.8,-11.95,0,0,0,0,0,0,0,0,0,0,0,0,0,0,0,0,
244,-40.59,-46.33,-13.61,6.421,-30.31,-21.88,-43.38,-24.54,-24.97,-27.36,-27.29,-26.35,-23.17,-19.55,-21.48,-3.269,0,0,0,0,0,0,0,0,0,0,0,0,0,0,0,0,
245,-19.57,-15.34,18.96,38.51,9.114,6.701,-6.394,-7.31,-1.927,-15.78,-9.535,-2.804,-2.71,-2.75,-4.582,6.357,0,0,0,0,0,0,0,0,0,0,0,0,0,0,0,0,
246,10.11,5.043,34.39,52.5,41.15,37.03,16.38,15.27,25,-6.581,12.46,24.92,8.075,7.749,9.159,15.02,0,0,0,0,0,0,0,0,0,0,0,0,0,0,0,0,
247,32.32,7.495,28.22,55.33,38.9,59.34,11.25,24.84,36.5,-4.58,19.02,36.24,13.57,7.701,10.53,16.57,0,0,0,0,0,0,0,0,0,0,0,0,0,0,0,0,
248,46.24,8.191,30.46,65.76,29.7,75.79,12.3,18.46,38.18,-8.901,9.979,21.84,6.346,-0.3967,-3.966,2.052,0,0,0,0,0,0,0,0,0,0,0,0,0,0,0,0,
249,39.66,-3.772,55.5,64.61,50.34,70.02,14.45,6.013,33.34,-18.62,9.627,12.28,-4.496,-6.152,-7.475,-8.409,0,0,0,0,0,0,0,0,0,0,0,0,0,0,0,0,
250,33.54,-11.03,82,56.91,74.54,57.71,10.3,1.826,38.44,-20.4,18.38,18.53,-0.348,-3.638,2.473,-5.866,0,0,0,0,0,0,0,0,0,0,0,0,0,0,0,0,
251,45.1,0.9461,80.3,54.74,63.37,62.29,13.7,1.548,49.91,-11.56,12.66,10.77,5.958,1.827,-1.232,-3.983,0,0,0,0,0,0,0,0,0,0,0,0,0,0,0,0,
252,40.48,2.674,66.9,43.21,51.83,56.73,14.25,-12.57,39.76,-11.23,1.783,-2.417,8.752,8.527,-4.744,-1.647,0,0,0,0,0,0,0,0,0,0,0,0,0,0,0,0,
253,18.7,-7.021,44.32,27.61,37.45,31.96,-2.835,-26.31,17.28,-18.89,-2.767,-1.593,7.391,10.01,-3.213,-4.389,0,0,0,0,0,0,0,0,0,0,0,0,0,0,0,0,
254,8.395,-13.34,2.84,17.5,-12.23,13.31,-19.92,-21.49,10.6,-20.43,-8.7,-5.457,-8.284,2.414,-17.75,-20.73,0,0,0,0,0,0,0,0,0,0,0,0,0,0,0,0,
255,-1.275,-18.91,-13.77,6.633,-31.37,-3.002,-18.63,-21.21,12.6,-18.43,-5.397,-11.11,-11.62,7.947,-18.45,-24.19,0,0,0,0,0,0,0,0,0,0,0,0,0,0,0,0,
256,-11.55,-13.86,1.169,0.7651,0.0371,-22.11,-18.16,-36.76,5.669,-16.8,4.472,-3.116,5.127,25.11,1.602,-10.73,0,0,0,0,0,0,0,0,0,0,0,0,0,0,0,0,
257,-8.177,-7.162,6.245,0.8899,6.524,-25.01,-27.34,-41.49,1.83,-16.14,3.796,0.5169,0.3832,21.94,-7.569,-17.02,0,0,0,0,0,0,0,0,0,0,0,0,0,0,0,0,
258,-5.179,-15.8,6.529,3.552,-8.346,-13.48,-23.87,-31.16,12.3,-15.72,4.266,-7.947,-12.98,12.68,-29.77,-31.02,0,0,0,0,0,0,0,0,0,0,0,0,0,0,0,0,
259,-11.18,-22.6,1.316,3.061,-17.56,-16.42,-29.01,-34.89,11.95,-12.2,0.313,-19.71,-6.709,16.09,-31.08,-26.65,0,0,0,0,0,0,0,0,0,0,0,0,0,0,0,0,
260,-21.89,-20.83,-23.38,-11.59,-34.73,-35.7,-55.23,-51.33,-2.745,-11.82,-21.87,-30.29,-9.15,8.713,-39.77,-29.57,0,0,0,0,0,0,0,0,0,0,0,0,0,0,0,0,
261,-32.36,-17.5,-29.11,-19.07,-36.94,-41.05,-53.85,-49.37,-2.08,-13.55,-32.31,-25.92,-16.91,-0.2035,-51.36,-38.22,0,0,0,0,0,0,0,0,0,0,0,0,0,0,0,0,
262,-28.67,-9.975,-7.907,-9.405,-21.28,-37.15,-39.99,-38.66,0.4986,-9.114,-27.01,-13.35,-10.52,3.664,-43.37,-33.03,0,0,0,0,0,0,0,0,0,0,0,0,0,0,0,0,
263,-17.16,-3.203,-4.401,-8.229,-15.26,-43.75,-49.55,-40.41,-12.7,-7.755,-33.24,-13.12,-15.75,-6.629,-41.91,-39.53,0,0,0,0,0,0,0,0,0,0,0,0,0,0,0,0,
264,-19.16,-0.4278,-12.6,-4.157,-17.35,-41.23,-43.47,-34.42,-20.29,-10.05,-41.14,-14.87,-25.86,-18.29,-49,-53.75,0,0,0,0,0,0,0,0,0,0,0,0,0,0,0,0,
265,-25.55,-1.165,-3.941,12.4,-29.33,-28.79,-28.3,-23.98,-20.16,-5.529,-43.42,-14.3,-16.54,-4.984,-45.06,-48.99,0,0,0,0,0,0,0,0,0,0,0,0,0,0,0,0,
266,-20.97,-5.283,13.57,16.17,-37.8,-29.31,-36.38,-31.28,-19.16,-3.541,-47.98,-24.35,-13.09,5.885,-47.38,-46.84,0,0,0,0,0,0,0,0,0,0,0,0,0,0,0,0,
267,-24.12,-11.22,25.34,13.82,-24.45,-33.48,-36.94,-32.22,-22.85,-6.013,-51.02,-38.74,-24.39,2.354,-60.9,-55.44,0,0,0,0,0,0,0,0,0,0,0,0,0,0,0,0,
268,-42.38,-22.36,23.85,18.73,-8.158,-30.72,-25.34,-20.55,-37.53,-3.132,-54.02,-47.31,-26.95,1.11,-60.04,-51.19,0,0,0,0,0,0,0,0,0,0,0,0,0,0,0,0,
269,-42.95,-27.65,21.02,18.71,4.539,-25.04,-23.91,-26.2,-30.06,-3.272,-44.3,-45.35,-20.29,4.355,-38.16,-33.33,0,0,0,0,0,0,0,0,0,0,0,0,0,0,0,0,
270,-28.27,-21.51,23.29,11.23,2.131,-24.63,-33.56,-38.26,-5.885,-8.56,-19.73,-32.93,-12.82,14.75,-14.99,-15.49,0,0,0,0,0,0,0,0,0,0,0,0,0,0,0,0,
271,-33.6,-21.91,6.977,6.167,-22.46,-36.72,-47.34,-33.95,-17.67,-6.705,-13.91,-20.31,-8.493,23.78,-9.504,-10.68,0,0,0,0,0,0,0,0,0,0,0,0,0,0,0,0,
272,-40.1,-24.24,-5.859,10.81,-26.38,-36.93,-39.15,-22.67,-33.45,0.2199,-20.44,-12.98,-12.07,19.21,-18.19,-17.55,0,0,0,0,0,0,0,0,0,0,0,0,0,0,0,0,
273,-25.57,-18.96,12.52,16.96,-18.44,-12.98,-14.3,-13.54,-18.36,5.294,-18.62,-16.31,-16.26,16.06,-26.99,-21.31,0,0,0,0,0,0,0,0,0,0,0,0,0,0,0,0,
274,-16.62,-13.86,18.41,18.19,-27.38,-0.6984,-7.713,-9.696,-20.42,6.466,-28.09,-31.43,-16.94,17.84,-36.59,-25.38,0,0,0,0,0,0,0,0,0,0,0,0,0,0,0,0,
275,-21.87,-8.447,13.54,18.87,-14.59,-12.24,-14.15,-13.69,-38.56,-1.329,-39.97,-43.59,-22.82,14.71,-45.94,-31.46,0,0,0,0,0,0,0,0,0,0,0,0,0,0,0,0,
276,-29.17,-13.11,36.38,7.073,2.529,-23.14,-29.03,-18.6,-30.37,-11.25,-32.45,-42.83,-31.36,16.12,-41.53,-29.42,0,0,0,0,0,0,0,0,0,0,0,0,0,0,0,0,
277,-33.79,-27.06,50.14,-7.737,-11.57,-27.9,-46.02,-22.84,-16.44,-11.17,-26.54,-32.89,-34.9,18.77,-32.94,-29.89,0,0,0,0,0,0,0,0,0,0,0,0,0,0,0,0,
278,-35.23,-27.98,36.37,-1.746,-14.39,-39.72,-44.53,-30.84,-25.28,-13.35,-36.87,-32.69,-39.64,10.63,-43.57,-38.87,0,0,0,0,0,0,0,0,0,0,0,0,0,0,0,0,
279,-43.31,-29.16,25.29,1.004,-15.69,-49.2,-45.84,-33.49,-33.36,-27.47,-46.05,-45.43,-45.61,1.429,-54.05,-39.23,0,0,0,0,0,0,0,0,0,0,0,0,0,0,0,0,
280,-42.93,-36.79,21.7,-4.627,-33.82,-31.87,-51.27,-24.25,-13.47,-34.01,-37.82,-37.82,-45.66,-7.433,-41.14,-35.63,0,0,0,0,0,0,0,0,0,0,0,0,0,0,0,0,
281,-17.12,-29.67,33.07,8.304,-8.63,-6.129,-36.88,-18.96,8.085,-28.66,-30.02,-19.38,-48.21,-19.27,-35.1,-45.73,0,0,0,0,0,0,0,0,0,0,0,0,0,0,0,0,
282,-2.584,-23.87,53.59,22.16,40.55,0.552,-31.66,-24.5,-1.735,-28.02,-40.93,-25.15,-50.94,-18.25,-43.79,-50.27,0,0,0,0,0,0,0,0,0,0,0,0,0,0,0,0,
283,-10.84,-30.85,53.85,20.23,41.29,4.189,-43.44,-28.77,-14.53,-30.31,-40.57,-29.48,-39.71,-6.315,-34.92,-32.53,0,0,0,0,0,0,0,0,0,0,0,0,0,0,0,0,
284,-9.518,-30.97,40.22,8.977,17.89,2.876,-47.73,-34.01,-12.74,-31.83,-23.48,-22.96,-30.09,-3.404,-23.8,-22.28,0,0,0,0,0,0,0,0,0,0,0,0,0,0,0,0,
285,-10.89,-28.8,27.02,-7.029,5.095,-17.03,-53.43,-40.28,-24.58,-36.55,-24.64,-30.68,-34.5,-7.311,-31.74,-31.79,0,0,0,0,0,0,0,0,0,0,0,0,0,0,0,0,
286,-28.08,-31.28,14.94,-1.72,-9.471,-30.03,-52.38,-35.26,-35.99,-38.37,-32.94,-33.2,-37.76,-9.737,-35.11,-36.54,0,0,0,0,0,0,0,0,0,0,0,0,0,0,0,0,
287,-29.99,-26.92,15.6,17.07,-24.71,-29.36,-38.44,-34.35,-28.57,-37.55,-31.84,-20.45,-33.28,-9.428,-27.62,-31.04,0,0,0,0,0,0,0,0,0,0,0,0,0,0,0,0,
288,-19.01,-18.17,20.85,6.376,-32.12,-31.42,-41.41,-48.12,-34.86,-37.72,-33.11,-11.63,-18.22,-0.5706,-18,-20.02,0,0,0,0,0,0,0,0,0,0,0,0,0,0,0,0,
289,-21.86,-12.64,17.82,-7.212,-27.78,-27.88,-49.34,-49,-47.55,-34.49,-30.64,-5.042,-1.048,8.785,-7.62,-8.328,0,0,0,0,0,0,0,0,0,0,0,0,0,0,0,0,
290,-22.71,-8.88,22.57,12.16,-19.9,-19.5,-38.18,-38.66,-36.85,-31.36,-27.81,-3.598,-4.599,7.241,-7.742,-7.798,0,0,0,0,0,0,0,0,0,0,0,0,0,0,0,0,
291,-14.42,-9.223,37.16,26.91,-23.18,-26.62,-33.53,-44.65,-33.2,-29.95,-32.23,-9.661,-13.07,6.993,-11.22,-8.2,0,0,0,0,0,0,0,0,0,0,0,0,0,0,0,0,
292,-23.9,-10.74,46.55,20.75,-23.65,-41.38,-42.08,-48.25,-49.57,-24.08,-29.47,-7.208,-2.807,12.77,-4.345,0.2276,0,0,0,0,0,0,0,0,0,0,0,0,0,0,0,0,
293,-36.29,-1.101,50.72,26.54,-24.6,-34.31,-38.01,-27.49,-53.41,-15.35,-23.54,4.585,9.467,15.44,2.979,5.801,0,0,0,0,0,0,0,0,0,0,0,0,0,0,0,0,
294,-23.88,13.87,51.39,40.76,-43.84,-13.23,-22.12,-11.59,-47.51,-9.894,-20.17,15.97,14.07,18.79,10.98,9.256,0,0,0,0,0,0,0,0,0,0,0,0,0,0,0,0,
295,-10.2,20.18,55.28,38.03,-37.14,-6.074,-7.676,-18.67,-44.51,-13.63,-8.603,23.53,14.17,19.73,19.51,10.58,0,0,0,0,0,0,0,0,0,0,0,0,0,0,0,0,
296,-6.927,21.66,61.39,29.22,-2,-2.129,2.947,-25.81,-38,-20.62,-0.7164,22.18,6.983,11.76,12.06,1.66,0,0,0,0,0,0,0,0,0,0,0,0,0,0,0,0,
297,-2.658,16.67,53.34,33.73,-9.061,0.0374,2.38,-26.7,-42.01,-17.5,-10.82,8.481,1.238,9.582,-2.141,-6.264,0,0,0,0,0,0,0,0,0,0,0,0,0,0,0,0,
298,-8.921,6.304,56.03,41.51,-27.95,-17.62,-8.056,-33.08,-56.1,-13.93,-22.09,-6.191,-0.2703,17.01,-1.288,-2.52,0,0,0,0,0,0,0,0,0,0,0,0,0,0,0,0,
299,-18.62,8.079,82.8,36.74,-7.572,-24.07,-12.55,-35.06,-50.55,-18.25,-13.78,-3.974,0.3031,23.1,11.78,8.262,0,0,0,0,0,0,0,0,0,0,0,0,0,0,0,0,
300,-13.77,9.934,84.22,31.82,-1.485,-7.023,-15.46,-28.36,-32.91,-18.74,4.056,4.226,8.123,27.91,20.7,17.85,0,0,0,0,0,0,0,0,0,0,0,0,0,0,0,0,
301,-9.641,-3.994,74.56,46.85,-6.902,-1.682,-24.43,-27.97,-29.44,-19.73,8.031,0.9016,10.26,25.49,14.52,16.65,0,0,0,0,0,0,0,0,0,0,0,0,0,0,0,0,
302,-8.152,-9.188,104.1,73.34,20.32,4.824,-18.59,-25.82,-30.59,-23.22,2.325,4.39,1.06,15.62,4.517,7.781,0,0,0,0,0,0,0,0,0,0,0,0,0,0,0,0,
303,5.103,4.044,138.9,99.98,40.61,24.83,7.88,-6.767,-26.18,-12.6,-1.565,19.56,4.512,19.85,7.62,6.563,0,0,0,0,0,0,0,0,0,0,0,0,0,0,0,0,
304,16.43,21.74,161.4,135.5,44.25,31.64,32.45,19.21,-26.13,6.847,-8.396,20.74,23.03,37.67,12.55,14.44,0,0,0,0,0,0,0,0,0,0,0,0,0,0,0,0,
305,16.42,40.24,207.4,184.1,66.98,44.11,53.29,47.3,-27.31,21.37,-13.3,8.63,33.41,49.25,8.581,20.05,0,0,0,0,0,0,0,0,0,0,0,0,0,0,0,0,
306,18.81,50,285,253.5,108.7,82.08,81.01,81.69,-19.96,34.45,-12.22,0.8061,34.16,57.66,6.911,22.96,0,0,0,0,0,0,0,0,0,0,0,0,0,0,0,0,
307,29.27,56.32,382.1,350.2,168.5,123.7,114.7,117.9,-5.522,48.14,-11.09,4.997,45.31,70.59,9.189,28.97,0,0,0,0,0,0,0,0,0,0,0,0,0,0,0,0,
308,52.23,85.25,486.8,455,229.9,173.5,156.8,157.9,18.37,63.78,-2.006,24.28,70.67,78.62,10.82,31.35,0,0,0,0,0,0,0,0,0,0,0,0,0,0,0,0,
309,90.84,120.4,598.8,554.7,271.7,227.2,194.7,198.5,49.04,77.7,13.75,41.18,81.88,73.45,15.03,25.5,0,0,0,0,0,0,0,0,0,0,0,0,0,0,0,0,
310,119.5,123.9,684.2,634.3,310.2,251.7,204.9,227.8,67.1,77.74,19.16,39.23,65.09,62.63,20.08,19.88,0,0,0,0,0,0,0,0,0,0,0,0,0,0,0,0,
311,122.6,113.4,685.3,658.3,343.9,263.5,207.3,248.8,68.09,72.69,21.13,39.31,53.72,60.19,25,19.15,0,0,0,0,0,0,0,0,0,0,0,0,0,0,0,0,
312,124.4,121.7,657.1,639.5,367.9,282,227.7,258.5,66.16,76.96,29.1,50.64,64.8,64.9,29.04,24.17,0,0,0,0,0,0,0,0,0,0,0,0,0,0,0,0,
313,131.9,133.8,646.9,616.6,393,283,239.1,253.4,68.55,80.8,31.16,50.73,73.02,66.84,29.47,34.65,0,0,0,0,0,0,0,0,0,0,0,0,0,0,0,0,
314,133.4,131.2,595.7,577.5,394,275.7,229.1,250.6,78.07,80.11,35.89,51.22,76.68,68.49,38.3,45.57,0,0,0,0,0,0,0,0,0,0,0,0,0,0,0,0,
315,137.4,127.1,554,525.6,368.2,280.5,226.4,244.7,90.28,81.37,56.72,74.58,87.18,69.8,54.46,51.15,0,0,0,0,0,0,0,0,0,0,0,0,0,0,0,0,
316,143.9,127.8,578.2,506.4,361.5,277.6,228.4,225.7,99.4,79.31,69.97,93.42,85.15,63.15,54.51,45.63,0,0,0,0,0,0,0,0,0,0,0,0,0,0,0,0,
317,140.4,123.5,557.1,506,362.4,267.3,211.9,218.5,108.2,77.37,64.61,88.86,70.5,56.06,44.88,38.09,0,0,0,0,0,0,0,0,0,0,0,0,0,0,0,0,
318,125.8,111.4,472.9,471.5,321.4,253.3,186.1,213.2,99.91,80.51,55.93,74.74,67.4,59.55,42.59,44.6,0,0,0,0,0,0,0,0,0,0,0,0,0,0,0,0,
319,99.18,94.78,420.2,409.1,261.2,205.3,161.7,180.3,63.86,73.57,37.81,50.48,65.87,65.44,34.5,51.12,0,0,0,0,0,0,0,0,0,0,0,0,0,0,0,0,
320,65.05,76.53,376.5,347,228.3,141.3,134.1,150.1,34.7,58.3,9.224,19.79,49.01,58.88,13.08,35.98,0,0,0,0,0,0,0,0,0,0,0,0,0,0,0,0,
321,39.44,58.87,306.4,293.9,198.3,114.3,117.4,142.6,30.08,51.51,-9.068,-0.7759,31.25,40.53,-9.189,10.78,0,0,0,0,0,0,0,0,0,0,0,0,0,0,0,0,
322,31.4,47.85,260.6,265.8,148.8,112,111.3,130.2,27.51,43.59,-14,-7.555,23.74,24.58,-21.11,-3.842,0,0,0,0,0,0,0,0,0,0,0,0,0,0,0,0,
323,29.78,40.51,236.7,247.9,112.7,91.88,83.24,109.1,13.21,28.62,-17.04,-7.13,16.13,14.92,-24.03,-11.89,0,0,0,0,0,0,0,0,0,0,0,0,0,0,0,0,
324,14.68,30.04,183.7,207.8,95.53,61.16,55.69,89.79,-8.535,24.54,-24.51,-10.47,5.846,5.578,-28.12,-22.7,0,0,0,0,0,0,0,0,0,0,0,0,0,0,0,0,
325,-3.036,28.67,132.4,169.2,80.39,43.13,68.07,76.48,-18.69,31.83,-30.85,-12.38,5.839,1.408,-26.15,-22.78,0,0,0,0,0,0,0,0,0,0,0,0,0,0,0,0,
326,-2.409,33.59,125.9,147.2,63.36,29.78,70.36,76.53,-13.71,33.98,-25.52,-2.338,10.22,4.742,-11.23,-9.148,0,0,0,0,0,0,0,0,0,0,0,0,0,0,0,0,
327,-3.251,22.77,113.9,118.1,27.14,14.59,38.06,72.46,-20.07,26.55,-18.55,2.167,1.911,4.845,-2.651,-6.627,0,0,0,0,0,0,0,0,0,0,0,0,0,0,0,0,
328,-14.82,10,74.73,85.34,-3.02,7.565,24.01,50.7,-28.3,14.77,-19.85,-0.0769,-1.609,0.8687,-1.515,-11.36,0,0,0,0,0,0,0,0,0,0,0,0,0,0,0,0,
329,-11,13.96,56.77,58.91,20.24,6.736,24.17,37.51,-12.69,6.452,-16.2,10.01,13.66,1.985,5.993,-2.083,0,0,0,0,0,0,0,0,0,0,0,0,0,0,0,0,
330,2.436,18.54,53.76,43.51,49.09,4.874,17.76,40.21,-2.26,3.893,-11.89,11.59,13.05,2.547,0.2654,-0.1052,0,0,0,0,0,0,0,0,0,0,0,0,0,0,0,0,
331,-3.019,12.18,35.7,34.48,26.21,-1.635,22.95,35.12,-19.05,-0.6627,-31.64,-16.04,-16.26,-12.48,-31.72,-24.39,0,0,0,0,0,0,0,0,0,0,0,0,0,0,0,0,
332,-20.6,4.237,10.49,6.756,0.8455,-9.612,24.92,26.39,-36.03,-7.888,-63.01,-41.45,-32.79,-32.97,-56.54,-44.77,0,0,0,0,0,0,0,0,0,0,0,0,0,0,0,0,
333,-22.05,5.592,-10.61,-15.1,11.83,-6.282,14.62,28.25,-39.25,-10.55,-70.05,-39.54,-28.54,-36.91,-56.14,-43.96,0,0,0,0,0,0,0,0,0,0,0,0,0,0,0,0,
334,-12.95,3.435,-23.08,-14.51,6.106,-7.666,3.808,22.13,-41.7,-13.63,-67.38,-38.64,-39.27,-36.35,-61.47,-49.32,0,0,0,0,0,0,0,0,0,0,0,0,0,0,0,0,
335,-24.96,-18.92,-46.03,-44.37,-31.8,-27.57,-14.73,-0.8095,-48.32,-25.71,-85.1,-58.77,-57.19,-47.59,-81.89,-68.12,0,0,0,0,0,0,0,0,0,0,0,0,0,0,0,0,
336,-42.99,-35.02,-80.63,-78.94,-36.13,-27.69,-22.44,-12.17,-48.8,-40.25,-96.8,-69.86,-55.04,-58.64,-91.59,-78.27,0,0,0,0,0,0,0,0,0,0,0,0,0,0,0,0,
337,-32.44,-27.82,-74.68,-57.94,2.424,-3.615,-8.307,-0.9276,-34.15,-43.55,-82.42,-57.15,-46,-61.07,-84.79,-73.82,0,0,0,0,0,0,0,0,0,0,0,0,0,0,0,0,
338,-9.025,-15.06,-31.75,-31.88,32,14.75,9.448,16.32,2.024,-25.19,-44.73,-22.53,-22.19,-38.74,-39.62,-34.02,0,0,0,0,0,0,0,0,0,0,0,0,0,0,0,0,
339,27.71,18.89,-3.354,-23.09,56.57,58.53,47.11,40.84,75.28,15.07,47.4,57.42,42.53,26.82,72.88,60.43,0,0,0,0,0,0,0,0,0,0,0,0,0,0,0,0,
340,107.1,82.08,17.36,12.65,103.6,136.9,97.68,74.51,166.7,57.4,162.9,149.2,104.8,94.24,180,143.3,0,0,0,0,0,0,0,0,0,0,0,0,0,0,0,0,
341,177.3,119.8,25.08,34.26,128.5,170.4,103.8,84.04,193.4,70.73,187.6,162.1,105.2,104.1,181.2,138.6,0,0,0,0,0,0,0,0,0,0,0,0,0,0,0,0,
342,154.5,93.82,-14.62,-14.36,65.42,113.1,57.15,44.53,115.7,40.57,103.7,87.36,51.28,58.72,97.76,70.73,0,0,0,0,0,0,0,0,0,0,0,0,0,0,0,0,
343,64.02,32.91,-69.03,-86.67,-36.79,19.9,0.7177,-10.21,15.48,-7.358,5.939,-2.23,-11.13,4.063,14.33,5.888,0,0,0,0,0,0,0,0,0,0,0,0,0,0,0,0,
344,-7.228,-13.61,-102.7,-124.5,-67.04,-35.56,-36.84,-33.18,-28.31,-30.63,-42.61,-51.63,-43.26,-23.43,-29.05,-27.19,0,0,0,0,0,0,0,0,0,0,0,0,0,0,0,0,
345,-37.69,-31.68,-130.2,-134.3,-48.4,-49.99,-54.12,-34.06,-39.37,-29.84,-52.43,-59.51,-45.45,-27.29,-38.36,-35.39,0,0,0,0,0,0,0,0,0,0,0,0,0,0,0,0,
346,-54.66,-41.86,-145.6,-141,-61.39,-62.71,-63.16,-42.89,-52.08,-34.05,-55.57,-57.41,-42.49,-29.79,-36.31,-32.32,0,0,0,0,0,0,0,0,0,0,0,0,0,0,0,0,
347,-65.46,-52.67,-153.6,-150,-80.26,-75.4,-73.43,-50.78,-55.57,-42.54,-62.94,-64.22,-43.87,-38.42,-43.84,-33.39,0,0,0,0,0,0,0,0,0,0,0,0,0,0,0,0,
348,-69.74,-56.67,-173.1,-149.9,-80.42,-74.14,-77.46,-47.97,-54.22,-44.23,-72.77,-72.59,-50.6,-51.5,-59.06,-47.91,0,0,0,0,0,0,0,0,0,0,0,0,0,0,0,0,
349,-73.31,-51.55,-167.4,-138.4,-84.13,-69.29,-61.98,-48.28,-62.09,-41.65,-79.64,-68.76,-48.28,-51.67,-55.57,-47.75,0,0,0,0,0,0,0,0,0,0,0,0,0,0,0,0,
350,-66.86,-38.43,-134.1,-138.7,-85.31,-62.82,-46.99,-50.23,-63.99,-34.23,-72.19,-53.78,-28.2,-33.47,-37.89,-23.67,0,0,0,0,0,0,0,0,0,0,0,0,0,0,0,0,
351,-48.39,-28.44,-134.4,-152,-93.54,-51.07,-55.06,-46.81,-53.21,-30.04,-63.8,-50.16,-25.09,-30.83,-41.84,-21.21,0,0,0,0,0,0,0,0,0,0,0,0,0,0,0,0,
352,-40.89,-30.99,-154.9,-151.2,-107.9,-44.08,-55.34,-45.92,-47.56,-34.76,-68.73,-58.34,-39.79,-42.04,-50.02,-35.92,0,0,0,0,0,0,0,0,0,0,0,0,0,0,0,0,
353,-42.63,-30.1,-150,-143,-82.08,-35.59,-31.75,-44.82,-45.38,-30.76,-63.98,-50.05,-29.27,-36.48,-32.72,-28.68,0,0,0,0,0,0,0,0,0,0,0,0,0,0,0,0,
354,-24.23,-12.17,-143.4,-140.8,-41.14,-10.86,-13.74,-37.96,-29.93,-18.53,-44.2,-23.43,-6.199,-31.68,-18.1,-16.38,0,0,0,0,0,0,0,0,0,0,0,0,0,0,0,0,
355,7.062,5.948,-142.9,-130.1,-40.95,15.63,-2.413,-34.26,-10.28,-17.88,-30.78,3.741,1.153,-35.64,-14.56,-12.34,0,0,0,0,0,0,0,0,0,0,0,0,0,0,0,0,
356,24.05,10.54,-116.6,-116.1,-30.39,30.03,12.04,-33.09,-0.628,-21.35,-21.96,20.66,5.043,-27.72,-4.583,-6.244,0,0,0,0,0,0,0,0,0,0,0,0,0,0,0,0,
357,32.77,13.43,-85.88,-109.9,15.87,41.88,15.51,-26.86,7.038,-19.24,-13.3,20.15,3.575,-25.21,-5.983,-7.146,0,0,0,0,0,0,0,0,0,0,0,0,0,0,0,0,
358,37.79,14.08,-92.33,-107.1,11.26,45.25,3.321,-23.02,11.4,-24.87,-11.69,12.69,-13.03,-42.45,-18.48,-14.79,0,0,0,0,0,0,0,0,0,0,0,0,0,0,0,0,
359,27.97,-4.691,-112.2,-115.6,-33.26,30.4,-17.64,-29.61,4.494,-37.54,-11.66,9.239,-27.8,-53.26,-16.07,-17.38,0,0,0,0,0,0,0,0,0,0,0,0,0,0,0,0,
360,13.97,-29.29,-113.4,-130.5,-21.41,17.68,-31.41,-38.31,2.26,-38.42,-7.161,2.476,-26.91,-43.99,-7.434,-14.45,0,0,0,0,0,0,0,0,0,0,0,0,0,0,0,0,
361,6.285,-33.32,-118.6,-126.5,7.923,18.73,-23.85,-35.35,11.63,-24.19,-1.031,-2.166,-18.33,-32.29,-6.205,-13.42,0,0,0,0,0,0,0,0,0,0,0,0,0,0,0,0,
362,-1.628,-28.64,-128.3,-113.1,-10.26,12.92,-19.97,-30.31,10.02,-15.99,1.485,-5.438,-18.92,-34.68,-10.29,-22.28,0,0,0,0,0,0,0,0,0,0,0,0,0,0,0,0,
363,-15.97,-38.91,-121.3,-122.1,-31.79,-15.3,-45.03,-45.55,-10.61,-30.66,-8.316,-32.45,-33.24,-43.72,-24.22,-29.92,0,0,0,0,0,0,0,0,0,0,0,0,0,0,0,0,
364,-42.37,-54.83,-125.3,-144.3,-36.44,-46.73,-69.56,-65.39,-25.19,-46.36,-23.12,-62.46,-42.9,-46.43,-34.65,-21.33,0,0,0,0,0,0,0,0,0,0,0,0,0,0,0,0,
365,-61.72,-57.03,-144.2,-149.6,-46.48,-54.58,-71.67,-65.03,-18.89,-40.01,-22.15,-52.54,-37.02,-45.48,-26.98,-10.65,0,0,0,0,0,0,0,0,0,0,0,0,0,0,0,0,
366,-50.63,-53.91,-143.9,-148.5,-56.49,-54.25,-78.84,-63.84,-13.64,-35.41,-15.08,-34.93,-31.27,-43.77,-24.28,-14.98,0,0,0,0,0,0,0,0,0,0,0,0,0,0,0,0,
367,-34.56,-55.5,-136.6,-152.2,-56.61,-61.72,-85.86,-72.19,-18.63,-44.9,-22.38,-42.77,-30.24,-41.8,-32.87,-21.39,0,0,0,0,0,0,0,0,0,0,0,0,0,0,0,0,
368,-31.14,-48.19,-134.6,-142.7,-37.48,-54.56,-66.58,-69.34,-12.89,-42.64,-29.91,-42.58,-21.55,-45.06,-30.65,-15.39,0,0,0,0,0,0,0,0,0,0,0,0,0,0,0,0,
369,-22.05,-34.37,-129.1,-138.8,-17.45,-45.01,-61.03,-56.7,-4.34,-31.04,-24.67,-29.15,-11.41,-47.96,-21.25,-8.053,0,0,0,0,0,0,0,0,0,0,0,0,0,0,0,0,
370,-12.81,-29.82,-127.8,-155.5,-32.78,-58.3,-83.29,-48.17,-11.8,-26.74,-15.11,-18.79,-1.565,-36.22,-6.499,0.9468,0,0,0,0,0,0,0,0,0,0,0,0,0,0,0,0,
371,-9.678,-22.2,-126,-150.4,-51.34,-58.39,-72.76,-42.78,-14.35,-19.2,-4.045,2.644,17.74,-14.75,13.89,19.43,0,0,0,0,0,0,0,0,0,0,0,0,0,0,0,0,
372,-0.0517,-4.398,-126.1,-128.9,-29.67,-32.45,-34.22,-37.37,-3.757,-7.853,0.3571,15.23,24.5,-6.614,11.38,21.5,0,0,0,0,0,0,0,0,0,0,0,0,0,0,0,0,
373,6.236,4.923,-135.6,-134.7,-10.86,-19.43,-16.99,-34.84,-1.552,-4.567,-6.961,2.139,13,-13.85,-2.494,10.95,0,0,0,0,0,0,0,0,0,0,0,0,0,0,0,0,
374,7.984,6.623,-128.2,-139.3,-28.25,-11.47,-7.236,-35.67,-0.2344,-5.3,-7.8,6.192,21.15,-13.89,10.13,27.2,0,0,0,0,0,0,0,0,0,0,0,0,0,0,0,0,
375,28.37,17.56,-96.45,-112.5,-25.19,20.58,11.13,-24.03,17.08,-1.357,2.729,28.06,41.01,-3.975,24.71,48.05,0,0,0,0,0,0,0,0,0,0,0,0,0,0,0,0,
376,52.7,33.01,-68.19,-91.84,13.38,47.85,24.88,-2.556,30.14,9.976,10.48,26.8,39.5,2.786,20.12,45.26,0,0,0,0,0,0,0,0,0,0,0,0,0,0,0,0,
377,45.51,38.82,-69,-100.6,20.3,35.31,28.11,-5.401,24.14,20.69,17.56,21.04,38.98,7.168,26.29,47.61,0,0,0,0,0,0,0,0,0,0,0,0,0,0,0,0,
378,27.34,38.97,-95.72,-111.7,10.74,17.05,19.99,-22.05,27.12,23.54,38.2,40.58,53.87,9.979,45.67,59.27,0,0,0,0,0,0,0,0,0,0,0,0,0,0,0,0,
379,37.43,39.97,-102,-104.6,30.59,34.01,16.75,-16.69,52.03,25.98,66.29,61.59,56.56,8.922,52.43,58.85,0,0,0,0,0,0,0,0,0,0,0,0,0,0,0,0,
380,56.5,35,-86.32,-94.74,27.06,52.04,27.11,-8.459,66.09,26.47,71.38,62.94,48.62,6.913,45.69,50.8,0,0,0,0,0,0,0,0,0,0,0,0,0,0,0,0,
381,56.98,28.28,-90.6,-95.22,8.246,44.36,29.92,-12.8,61.09,17.69,53.21,60.97,48.45,0.4758,39.33,41.45,0,0,0,0,0,0,0,0,0,0,0,0,0,0,0,0,
382,57.56,28.05,-83.24,-87.97,36.67,48.96,28.85,-8.45,62.63,7.198,45.47,63.77,41.8,-13.89,33.57,29.69,0,0,0,0,0,0,0,0,0,0,0,0,0,0,0,0,
383,67.08,23.38,-51.75,-69.06,56.76,65.55,39.51,-1.409,62.87,-0.7858,41.03,54.77,22.88,-28.81,16.78,18.59,0,0,0,0,0,0,0,0,0,0,0,0,0,0,0,0,
384,62.99,13.01,-62.26,-66.11,31.73,53.91,41.57,-4.343,45.34,-4.621,17.02,31.92,11.96,-36.01,-8.514,11.49,0,0,0,0,0,0,0,0,0,0,0,0,0,0,0,0,
385,39.55,7.134,-96.2,-78.68,4.983,30.45,26.61,-5.957,30.58,-1.964,-4.126,13.88,6.458,-37.81,-23.02,9.995,0,0,0,0,0,0,0,0,0,0,0,0,0,0,0,0,
386,20.96,2.33,-81.52,-79.79,-14.82,28.56,17.44,-8.498,31.48,-3.356,-4.241,8.558,-5.378,-44.73,-24.78,7.213,0,0,0,0,0,0,0,0,0,0,0,0,0,0,0,0,
387,18.51,-6.839,-58.67,-75.59,-7.741,28.81,10.28,-16.88,27.7,-12.59,-4.096,-2.651,-17.53,-56.83,-34.43,-9.437,0,0,0,0,0,0,0,0,0,0,0,0,0,0,0,0,
388,4.011,-23.87,-90.02,-87.23,18.91,9.122,-13.71,-23.56,7.633,-22.12,-18.54,-29.09,-26.05,-57.75,-45.69,-26.22,0,0,0,0,0,0,0,0,0,0,0,0,0,0,0,0,
389,-23.61,-36.96,-117.7,-102.8,9.867,-3.887,-28.81,-34.41,-7.328,-27.04,-25.29,-34.29,-21.97,-43.68,-30.63,-17.32,0,0,0,0,0,0,0,0,0,0,0,0,0,0,0,0,
390,-28.42,-30.22,-92.58,-97.68,-1.987,1.448,-16.88,-38.61,-5.354,-23.31,-13.45,-16.69,-16.1,-40.49,-17.97,-12.87,0,0,0,0,0,0,0,0,0,0,0,0,0,0,0,0,
391,-29.5,-30.72,-78.45,-81.66,8.19,-9.703,-20.32,-21.23,-1.818,-21.59,-10.7,-27.05,-36.53,-53.59,-36.32,-35.22,0,0,0,0,0,0,0,0,0,0,0,0,0,0,0,0,
392,-39.53,-43.48,-93.48,-89.15,-1.845,-21.84,-38.85,-24.86,14.23,-27.59,-2.469,-32.58,-40.15,-42.8,-28.08,-22.5,0,0,0,0,0,0,0,0,0,0,0,0,0,0,0,0,
393,-14.21,-24.71,-90.57,-112.1,-2.851,1.475,-25.13,-52.44,40.5,-23.55,24.7,0.0193,-2.368,-14.22,5.912,17.34,0,0,0,0,0,0,0,0,0,0,0,0,0,0,0,0,
394,11.73,-3.902,-86.2,-112.6,15.49,11.52,-14.2,-40.1,23.27,-18.91,5.522,-11.1,-5.974,-24.72,-16.09,-1.671,0,0,0,0,0,0,0,0,0,0,0,0,0,0,0,0,
395,-14.93,-30.81,-84.4,-97.99,7.109,-10.35,-38.63,-17.48,-12.3,-32.27,-41.11,-55.96,-47.53,-52,-55.75,-34.91,0,0,0,0,0,0,0,0,0,0,0,0,0,0,0,0,
396,-32.16,-52.99,-65.27,-82.52,-1.254,-10.7,-40.95,-30.38,-1.643,-38.99,-31.97,-40.77,-40.42,-43.6,-45.88,-16.02,0,0,0,0,0,0,0,0,0,0,0,0,0,0,0,0,
397,-15.55,-38.64,-64.24,-55.89,1.247,-8.725,-19.76,-19.98,-0.7342,-29.94,-27.16,-20.6,-19.16,-31.93,-46.83,-9.822,0,0,0,0,0,0,0,0,0,0,0,0,0,0,0,0,
398,-20.46,-31.48,-72.56,-39.8,-11.98,-27.18,-20.97,11.03,-35.73,-26.28,-69.19,-47.55,-27.5,-38.64,-75.69,-31.44,0,0,0,0,0,0,0,0,0,0,0,0,0,0,0,0,
399,-28.39,-29.14,-54.96,-44.48,-17.5,-23.57,-23.52,0.5255,-30.36,-23.43,-72.99,-49.59,-22.21,-32.39,-72.17,-24.68,0,0,0,0,0,0,0,0,0,0,0,0,0,0,0,0,
400,-11.4,-14.67,-46.31,-45.21,-26.74,-18.9,-19.31,-22.28,-4.411,-18.25,-40.52,-26.86,-11.48,-18.4,-52.31,-12.12,0,0,0,0,0,0,0,0,0,0,0,0,0,0,0,0,
401,-9.286,-14.88,-61.76,-56.12,-48.65,-42.92,-23.73,-24.92,-11.3,-22.01,-25.26,-23.35,-20.22,-11.68,-43.23,-15.93,0,0,0,0,0,0,0,0,0,0,0,0,0,0,0,0,
402,-24.35,-24.8,-75.39,-79.66,-39.12,-53.56,-15.37,-27.06,-14.96,-25.54,-9.638,-17.78,-22.67,-4.852,-27.06,-7.483,0,0,0,0,0,0,0,0,0,0,0,0,0,0,0,0,
403,-28.33,-21.93,-83.03,-80.4,-34.53,-50.45,-7.914,-30.79,-12.65,-22.55,0.9695,-13.18,-24.57,-5.888,-16.01,-0.8694,0,0,0,0,0,0,0,0,0,0,0,0,0,0,0,0,
404,-26.8,-20.78,-88.86,-70.4,-60.33,-52,-19.46,-28.04,-19.8,-18.7,0.4355,-13.54,-33.21,-10.8,-9.663,-7.287,0,0,0,0,0,0,0,0,0,0,0,0,0,0,0,0,
405,-18.07,-20.87,-89.76,-67.52,-55.13,-39.32,-10.8,-16.97,-8.284,-10.88,14.43,6.27,-19.13,-1.384,13.15,5.595,0,0,0,0,0,0,0,0,0,0,0,0,0,0,0,0,
406,-7.753,-8.595,-73.68,-57.81,-47.54,-35.49,10.44,-10.98,-2.038,-5.75,10.65,8.816,0.8638,8.391,16.48,18.91,0,0,0,0,0,0,0,0,0,0,0,0,0,0,0,0,
407,-20.81,-1.581,-57.65,-49.37,-70.1,-48.87,10.19,-18.08,-25.31,-12.49,-26.34,-27.51,-9.99,-0.4129,-16.7,-3.403,0,0,0,0,0,0,0,0,0,0,0,0,0,0,0,0,
408,-32.01,-5.866,-66.48,-40.77,-57.12,-28.97,19.77,-8.988,-34.22,-18.71,-40.75,-44.81,-29.18,-18.48,-34.72,-24,0,0,0,0,0,0,0,0,0,0,0,0,0,0,0,0,
409,-15.79,-2.173,-53.13,-19.63,-25.52,8.962,44.13,13.84,-26.82,-15.68,-33.87,-34.68,-25.91,-26.59,-25.12,-13,0,0,0,0,0,0,0,0,0,0,0,0,0,0,0,0,
410,-5.718,10.42,-3.168,-8.291,-22.19,17.69,46.64,15.64,-33.97,-11.58,-42.03,-32.45,-12.26,-18.77,-19.76,0.6106,0,0,0,0,0,0,0,0,0,0,0,0,0,0,0,0,
411,-11.36,14.05,6.096,-14.21,-25.78,17.35,35.67,6.516,-45.79,-11.23,-48.9,-36.36,-10.45,-13.28,-26.41,-2.422,0,0,0,0,0,0,0,0,0,0,0,0,0,0,0,0,
412,-18.44,-0.6308,-33.58,-21.44,-54.1,15.08,24.07,1.967,-60.32,-10.97,-52.95,-46.63,-18.76,-19.02,-36.32,-11.05,0,0,0,0,0,0,0,0,0,0,0,0,0,0,0,0,
413,-33.99,-15.28,-50.74,-27.75,-83.75,-2.406,16.27,2.023,-72.13,-8.038,-62.86,-56.59,-21.8,-18.16,-36.25,-9.504,0,0,0,0,0,0,0,0,0,0,0,0,0,0,0,0,
414,-41.17,-16.09,-26.58,-24.34,-54.96,-5.576,23.94,10.43,-56.37,-11.54,-56.68,-49,-27.97,-17.89,-32.02,-8.709,0,0,0,0,0,0,0,0,0,0,0,0,0,0,0,0,
415,-33.84,-27.76,-12.21,-18.39,-35.08,1.78,16.16,5.435,-37.71,-26.57,-45.46,-41.28,-45.61,-31.71,-36.78,-23.12,0,0,0,0,0,0,0,0,0,0,0,0,0,0,0,0,
416,-37.38,-46.77,-40.36,-31.75,-52.62,-12.18,-14.33,-14.45,-38.69,-31.18,-39.55,-33.03,-43.44,-31.81,-22.51,-22.12,0,0,0,0,0,0,0,0,0,0,0,0,0,0,0,0,
417,-31.84,-35.19,-54.8,-34.94,-33.41,-15.63,-16.74,-17.12,-24.43,-15.66,-14.31,-6.896,-17.83,-15.94,9.906,-3.141,0,0,0,0,0,0,0,0,0,0,0,0,0,0,0,0,
418,-4.736,-11.58,-24.39,-13.4,-13.61,5.123,-1.689,-15.8,-2.118,-5.991,11,11.46,-4.894,-13.11,17.09,-1.184,0,0,0,0,0,0,0,0,0,0,0,0,0,0,0,0,
419,1.884,-4.949,-22.21,-17.56,-38.48,2.031,-6.754,-25.76,-10.81,-7.615,14.81,11.67,0.7139,-10.24,18.41,4.171,0,0,0,0,0,0,0,0,0,0,0,0,0,0,0,0,
420,-10.6,3.995,-53.21,-39.02,-47.16,-22.25,-10.78,-19.4,-21.94,-2.177,20.13,12.07,8.543,0.5666,35.68,20.56,0,0,0,0,0,0,0,0,0,0,0,0,0,0,0,0,
421,-11.12,10.14,-60.48,-36.57,-37.62,-32.15,-9.359,-4.823,-12.28,3.521,25.31,10.21,3.861,-0.5504,37.12,16.51,0,0,0,0,0,0,0,0,0,0,0,0,0,0,0,0,
422,-11.34,-1.112,-77.19,-46.98,-41.55,-34.17,-16.13,-10.46,-13.33,0.0861,22.42,8.965,6.545,-0.0586,30.76,13.29,0,0,0,0,0,0,0,0,0,0,0,0,0,0,0,0,
423,-15.84,-2.356,-101.8,-68.67,-39.82,-34.35,-15.74,-16.3,-21.06,0.6734,19.3,10.41,23.55,9.935,34.15,23.37,0,0,0,0,0,0,0,0,0,0,0,0,0,0,0,0,
424,-10.89,8.284,-90.45,-59.64,-61.17,-39.47,-15.25,-8.35,-20.66,8.339,9.269,3.028,24.67,9.857,28.63,21.06,0,0,0,0,0,0,0,0,0,0,0,0,0,0,0,0,
425,-11.21,3.735,-106.5,-69.52,-111.9,-70.94,-29.78,-13.1,-29.89,8.131,3.294,-5.961,12.78,2.939,20.66,15.17,0,0,0,0,0,0,0,0,0,0,0,0,0,0,0,0,
426,-28.65,-7.623,-139.5,-94.1,-104.6,-103.1,-36.03,-25.45,-29.9,-3.224,9.49,-13.16,5.69,-4.78,18.92,15.11,0,0,0,0,0,0,0,0,0,0,0,0,0,0,0,0,
427,-44.35,-9.482,-103.1,-63.29,-70.67,-102.5,-24.16,-14.91,-20.54,-8.397,1.474,-27.01,6.816,-10.23,11.88,15.25,0,0,0,0,0,0,0,0,0,0,0,0,0,0,0,0,
428,-47.2,-6.18,-91.09,-48.2,-113.1,-93.06,-15.92,-1.973,-49.19,0.6503,-15.47,-36.98,16.05,0.2919,4.035,17.85,0,0,0,0,0,0,0,0,0,0,0,0,0,0,0,0,
429,-42.15,-0.7215,-135.5,-81.86,-133.3,-80.45,-10.39,-6.592,-65.01,9.37,-10.65,-31.74,20.87,13.63,-1.632,13.15,0,0,0,0,0,0,0,0,0,0,0,0,0,0,0,0,
430,-29.32,4.002,-87.26,-58.55,-50.18,-49.28,6.164,0.2566,-15.98,9.967,2.613,-20.76,18.19,12.9,-6.145,3.227,0,0,0,0,0,0,0,0,0,0,0,0,0,0,0,0,
431,-18.85,2.255,-12.04,-11.59,-4.918,-34.64,16.33,12.16,7.558,6.054,2.246,-15.47,15.87,10.64,-2.811,3.093,0,0,0,0,0,0,0,0,0,0,0,0,0,0,0,0,
432,-20.36,-0.2236,-37.44,-14.64,-24.79,-43.72,12.97,5.118,-11.88,2.209,7.049,-3.908,15.01,12.85,5.557,7.751,0,0,0,0,0,0,0,0,0,0,0,0,0,0,0,0,
433,-14.44,8.979,-39.54,-2.263,-2.3,-33.25,19.2,1.262,5.651,6.646,25.35,22.32,22.96,16.96,18.16,13.99,0,0,0,0,0,0,0,0,0,0,0,0,0,0,0,0,
434,0.7567,20.86,14.62,16.31,20.02,-21.51,20.69,-4.671,25.72,10.92,32.63,36.5,33.02,24.35,36.06,25.09,0,0,0,0,0,0,0,0,0,0,0,0,0,0,0,0,
435,0.65,14.71,-3.345,-10.47,1.288,-32.27,-3.624,-27.88,14.12,6.378,30.18,30.87,32.24,29.61,43.16,31.77,0,0,0,0,0,0,0,0,0,0,0,0,0,0,0,0,
436,-4.498,4.045,-58.04,-24.12,-6.299,-25.17,-16.81,-32.96,13.74,10.65,26.2,24.99,32.45,31.39,30.39,25.4,0,0,0,0,0,0,0,0,0,0,0,0,0,0,0,0,
437,-2.733,6.848,-59.13,-18.08,-19.53,-10.23,-6.098,-19.43,8.682,19.58,5.034,14.12,33.12,30.45,16.47,14.63,0,0,0,0,0,0,0,0,0,0,0,0,0,0,0,0,
438,-7.372,5.665,-39.56,-35.35,-35.5,-27.19,-8.711,-16.89,-4.602,14.66,-11.55,3.672,23.88,22.49,16.72,12.57,0,0,0,0,0,0,0,0,0,0,0,0,0,0,0,0,
439,-6.198,-1.508,-42.75,-49.63,-12.39,-40.27,-23.58,-20.1,9.196,11.04,3.262,7.851,14,12.16,18.83,13.62,0,0,0,0,0,0,0,0,0,0,0,0,0,0,0,0,
440,5.065,-2.197,-55.13,-53.28,8.548,-28.57,-28.44,-29.97,23.11,13.12,20.74,9.046,4.996,6.023,17.09,11.37,0,0,0,0,0,0,0,0,0,0,0,0,0,0,0,0,
441,6.409,-6.767,-54.54,-55.16,4.494,-22.72,-26.88,-41.35,26.11,8.992,24.13,1.932,-6.01,0.3884,16.19,7.126,0,0,0,0,0,0,0,0,0,0,0,0,0,0,0,0,
442,3.78,-14.47,-56.91,-40.76,-2.679,-21.25,-25.4,-37.29,31.65,8.21,16.92,-9.185,-12.42,-5.869,-1.527,-7.019,0,0,0,0,0,0,0,0,0,0,0,0,0,0,0,0,
443,-4.705,-18.9,-70.22,-34.4,-23.15,-22.74,-30.03,-33.32,13.19,8.508,-4.734,-26.48,-11.47,-5.176,-24.36,-14.93,0,0,0,0,0,0,0,0,0,0,0,0,0,0,0,0,
444,-22.15,-21.01,-59.33,-46.39,-31.98,-35.68,-37.06,-34.18,-6.088,3.416,-12.13,-21.56,0.0831,4.587,-8.789,6.469,0,0,0,0,0,0,0,0,0,0,0,0,0,0,0,0,
445,-15.28,-8.816,-37.64,-45.8,-5.445,-32.15,-29.8,-28.52,12.06,8.681,6.672,7.722,17.3,12.75,19.33,25.69,0,0,0,0,0,0,0,0,0,0,0,0,0,0,0,0,
446,7.961,7.012,-40.28,-36.29,10.81,-14.98,-13.34,-23.69,26.16,20.44,11.9,18.53,24.44,10.97,14.92,16.51,0,0,0,0,0,0,0,0,0,0,0,0,0,0,0,0,
447,7.6,8.949,-40.02,-28.53,-3.091,-23.79,-1.421,-17.31,15.91,22.35,-2.038,11.98,17.81,2.058,3.913,2.914,0,0,0,0,0,0,0,0,0,0,0,0,0,0,0,0,
448,-5.356,8.467,-37.09,-20.71,-25.2,-41.45,-0.4753,-12.36,10.68,17.37,-5.947,12.98,7.187,-8.703,8.656,-1.445,0,0,0,0,0,0,0,0,0,0,0,0,0,0,0,0,
449,-7.836,4.199,-50.47,-23.24,-33.09,-35.22,-14.26,-16.12,16.47,10.28,7.346,23.28,8.27,-12.73,22.05,3.215,0,0,0,0,0,0,0,0,0,0,0,0,0,0,0,0,
450,8.046,8.93,-40.89,-18.83,-10.94,-20.33,-9.584,-8.261,32.18,10.92,31.5,40.6,24.58,-4.245,44.69,20.34,0,0,0,0,0,0,0,0,0,0,0,0,0,0,0,0,
451,34.02,40.73,-19.93,2.899,2.78,-12.91,30.28,8.869,41.99,24.47,45.07,44.52,34.57,5.563,58.04,33.12,0,0,0,0,0,0,0,0,0,0,0,0,0,0,0,0,
452,33.15,49.81,-38.67,1.948,-17.16,-17.48,43.82,12.89,23.29,29.96,32.21,28.97,29.15,8.037,55.91,32.11,0,0,0,0,0,0,0,0,0,0,0,0,0,0,0,0,
453,11.29,22.61,-53.82,-22.26,-22.26,-30.95,14.26,12.05,6.986,21.98,22.36,30.05,26.62,10.12,64.81,37.12,0,0,0,0,0,0,0,0,0,0,0,0,0,0,0,0,
454,6.999,18.11,-32.09,-27.91,-18.02,-27.68,2.714,10.68,15.02,19.32,29.54,44.64,33.89,11.55,71.51,46.22,0,0,0,0,0,0,0,0,0,0,0,0,0,0,0,0,
455,6.958,29.66,-26.56,-16.9,-37.15,-9.369,12.45,2.98,13.94,19.97,20.87,39.94,41.15,11.88,53.21,39.89,0,0,0,0,0,0,0,0,0,0,0,0,0,0,0,0,
456,1.696,27.25,-40.32,-5.151,-33.32,-5.728,12.6,-2.458,-1.028,14.61,-0.7527,26.08,40.74,16.49,34.17,28.72,0,0,0,0,0,0,0,0,0,0,0,0,0,0,0,0,
457,3.262,24.96,-34.72,1.872,-13.32,-12.72,11.4,-7.948,-9.929,7.204,-8.661,8.495,26.05,11.97,18.95,18.66,0,0,0,0,0,0,0,0,0,0,0,0,0,0,0,0,
458,-10.3,13.53,-35.66,-13.63,-37.32,-20.15,8.262,-18.79,-19.07,-0.2568,-16.83,-16.35,6.711,-0.7199,-1.997,2.636,0,0,0,0,0,0,0,0,0,0,0,0,0,0,0,0,
459,-31.32,-4.31,-65.28,-36.74,-63.32,-26.71,1.813,-21.79,-26.19,-2.819,-24.05,-18.94,4.424,3.444,-0.0677,0.1868,0,0,0,0,0,0,0,0,0,0,0,0,0,0,0,0,
460,-24.65,-3.428,-75.35,-32.13,-55.12,-15.97,5.237,-14.23,-23.78,0.1941,-9.045,-0.5627,10.6,7.964,20.36,8.064,0,0,0,0,0,0,0,0,0,0,0,0,0,0,0,0,
461,-10.3,-2.913,-48.49,-15.74,-50.14,5.38,9.653,-11.19,-19.18,-1.567,5.135,11.04,12.24,-3.859,20.51,0.4673,0,0,0,0,0,0,0,0,0,0,0,0,0,0,0,0,
462,-1.615,-4.129,-36.33,-7.955,-29.63,25.58,15.38,-13.05,-4.039,-1.593,7.697,29.84,25.89,-0.5767,18.09,1.172,0,0,0,0,0,0,0,0,0,0,0,0,0,0,0,0,
463,25.08,15.65,-37.88,7.239,16.52,55.61,30.56,-7.834,23.73,4.576,24.51,56.44,38.91,7.974,34.22,17.77,0,0,0,0,0,0,0,0,0,0,0,0,0,0,0,0,
464,50.15,24.6,-13.59,18.8,32.96,71.74,31.96,0.6426,38.95,-0.5368,37.09,57.23,21.47,-14.19,33.58,6.821,0,0,0,0,0,0,0,0,0,0,0,0,0,0,0,0,
465,44.61,8.891,2.332,10.18,24.28,57.66,21.71,6.765,36.64,-9.61,18.85,38.38,1.095,-39.22,9.854,-20.18,0,0,0,0,0,0,0,0,0,0,0,0,0,0,0,0,
466,33.73,7.192,-7.242,9,13.58,52.93,32,16.26,34.51,-4.567,5.591,34.36,7.262,-38.7,4.227,-18.57,0,0,0,0,0,0,0,0,0,0,0,0,0,0,0,0,
467,40.37,18.32,-1.565,16.31,-7.895,59.33,48.23,19.48,38.66,-1.314,18.92,46.77,16.41,-30.93,15.69,-8.248,0,0,0,0,0,0,0,0,0,0,0,0,0,0,0,0,
468,47.05,21.25,5.809,8.063,-2.264,48.62,43.83,6.775,43.58,-5.866,23.02,47.34,8.764,-29.51,9.19,-22.73,0,0,0,0,0,0,0,0,0,0,0,0,0,0,0,0,
469,39.38,20.43,-0.1181,6.169,28.4,39.8,32.65,-3.863,38.2,-4.535,9.942,29.51,-8.003,-33.24,-8.096,-42.84,0,0,0,0,0,0,0,0,0,0,0,0,0,0,0,0,
470,23.46,10.77,4.553,17.23,26.87,38.97,25.73,-2.99,20.66,-6.658,6.256,18.59,-20.08,-35.35,-11,-43.73,0,0,0,0,0,0,0,0,0,0,0,0,0,0,0,0,
471,6.662,-3.462,10.08,13.89,17.25,24.66,20.87,-1.399,10.84,-15.22,7.98,20.32,-14.55,-27.13,-3.55,-27.9,0,0,0,0,0,0,0,0,0,0,0,0,0,0,0,0,
472,2.551,2.914,12.5,15.2,21.91,21.06,30.09,6.383,30.83,-6.749,22.5,33.09,13.81,-3.073,23.72,7.891,0,0,0,0,0,0,0,0,0,0,0,0,0,0,0,0,
473,30.07,35.42,28.27,44.81,28.28,55.74,65.39,36.25,87.9,28.43,88.5,83.29,62.54,44.94,94.47,70.24,0,0,0,0,0,0,0,0,0,0,0,0,0,0,0,0,
474,82.92,85.02,57.9,79.82,76.59,97.1,112.4,77.29,155.4,72.22,174.2,153.3,111.4,98.79,167.6,129.3,0,0,0,0,0,0,0,0,0,0,0,0,0,0,0,0,
475,122.6,123.6,85.05,94.44,125.5,104.9,127.2,91.43,166.1,88.7,185.6,160.3,118.5,109.9,164,132.6,0,0,0,0,0,0,0,0,0,0,0,0,0,0,0,0,
476,107.6,108.3,68.62,73.23,84.29,71.02,89.74,61.41,95.83,59.37,111,84.98,73.47,71.25,90.26,77.03,0,0,0,0,0,0,0,0,0,0,0,0,0,0,0,0,
477,45.57,53.88,18.31,28.39,18.85,12.84,43.62,17.84,23.35,19.9,37.32,16.11,24.27,28.87,31.01,24.84,0,0,0,0,0,0,0,0,0,0,0,0,0,0,0,0,
478,2.762,16.21,-13.61,-2.874,-6.042,-28.51,18.42,-6.706,14.76,3.537,17.03,10.85,6.353,8.548,17.07,8.516,0,0,0,0,0,0,0,0,0,0,0,0,0,0,0,0,
479,5.914,3.827,-35.56,-18.09,-36.37,-32.04,-3.349,-12.34,29.66,-4.854,19.38,22.05,0.8889,-2.077,9.581,-2.281,0,0,0,0,0,0,0,0,0,0,0,0,0,0,0,0,
480,10.97,-1.583,-41.69,-25.04,-50.18,-29.4,-12.19,-10.73,23.31,-11.52,16.75,12.54,-8.332,-14.08,-5.992,-15.84,0,0,0,0,0,0,0,0,0,0,0,0,0,0,0,0,
481,4.867,-2.534,-19.16,-13.09,-15.59,-38.72,-1.121,-12.14,13.6,-8.868,12.05,2.26,-13.63,-24.74,-19.14,-21.84,0,0,0,0,0,0,0,0,0,0,0,0,0,0,0,0,
482,4.241,-3.432,-22.18,-1.543,4.823,-33.95,-1.694,-16.93,10.14,-10.96,2.019,-3.942,-15.02,-26.2,-28.43,-27.57,0,0,0,0,0,0,0,0,0,0,0,0,0,0,0,0,
483,2.412,-3.054,-34.74,-6.41,-1.41,-9.208,-3.656,-10.24,7.82,-13.42,-3.083,-3.834,-8.468,-16.29,-24.64,-21.52,0,0,0,0,0,0,0,0,0,0,0,0,0,0,0,0,
484,7.872,10.95,-7.571,-5.577,4.893,5.449,14.01,5.83,13.96,-1.686,5.702,9.706,6.754,-7.041,-13.26,-6.76,0,0,0,0,0,0,0,0,0,0,0,0,0,0,0,0,
485,23.12,26.92,1.962,1.95,2.568,-2.39,17.62,9.631,13.25,3.928,9.061,15.32,10.21,-2.898,-8.445,-6.011,0,0,0,0,0,0,0,0,0,0,0,0,0,0,0,0,
486,23.56,25.39,-27.67,1.672,-14.13,-9.001,4.886,-2.184,-2.121,-2.588,13.51,18.84,8.21,8.381,8.04,1.382,0,0,0,0,0,0,0,0,0,0,0,0,0,0,0,0,
487,20.15,19.79,-37.79,-2.782,-6.678,0.398,3.454,-19.81,-6.082,-5.146,26.02,34.71,15.23,19.96,28,15.05,0,0,0,0,0,0,0,0,0,0,0,0,0,0,0,0,
488,22.93,19.5,-24.73,-9.492,14.65,10.71,0.5328,-31.17,-3.835,-11.85,16.08,28.34,8.051,14.71,17.52,2.662,0,0,0,0,0,0,0,0,0,0,0,0,0,0,0,0,
489,12.25,13.9,-16.44,-8.024,23.84,19.04,3.72,-21.44,-11.54,-18.09,-2.151,7.757,-4.681,6.888,3.474,-5.376,0,0,0,0,0,0,0,0,0,0,0,0,0,0,0,0,
490,4.623,12.06,-15.41,4.61,17.68,27.85,24.64,-7.579,-15.8,-10.23,-2.575,10.01,3.278,11.57,6.59,8.852,0,0,0,0,0,0,0,0,0,0,0,0,0,0,0,0,
491,8.628,14.75,-21.26,2.796,-7.626,18.83,24.87,-15.69,-19.88,-9.694,-12.93,5.763,2.505,16.16,-3.615,4.856,0,0,0,0,0,0,0,0,0,0,0,0,0,0,0,0,
492,-0.0793,7.155,-28.91,-6.667,-13.08,3.352,10.03,-21.83,-21.45,-16.26,-21.59,-7.823,-7.407,18.61,-12.2,-3.002,0,0,0,0,0,0,0,0,0,0,0,0,0,0,0,0,
493,-5.304,4.892,-26.13,-3.636,12.45,6.273,11.89,-7.971,-10.64,-5.359,-5.517,1.819,4.559,25.33,1.03,13.26,0,0,0,0,0,0,0,0,0,0,0,0,0,0,0,0,
494,0.6748,11.03,-19.99,-5.805,-0.6752,8.174,11.63,-4.24,-14.72,4.304,-3.019,6.223,9.604,25.62,5.57,21.77,0,0,0,0,0,0,0,0,0,0,0,0,0,0,0,0,
495,-4.759,8.296,-22.15,-5.494,-21.58,2.496,17.99,-13.32,-20.54,-2.237,-2.967,4.395,4.129,24.41,9.996,23.95,0,0,0,0,0,0,0,0,0,0,0,0,0,0,0,0,
496,0.5035,13.16,-19.73,7.967,16.41,5.496,42.36,-8.79,8.597,-1.581,26.72,30.9,24.21,38.98,32.03,43.5,0,0,0,0,0,0,0,0,0,0,0,0,0,0,0,0,
497,22.44,25.96,-22.62,3.752,29.27,5.631,46.74,1.822,30.27,8.479,38.41,50,39.75,52.9,37.99,48.81,0,0,0,0,0,0,0,0,0,0,0,0,0,0,0,0,
498,24.31,24.97,-48.59,-5.03,-6.429,4.203,42.13,5.216,20.29,11.87,27.02,44.92,26.77,46.29,28.16,28.87,0,0,0,0,0,0,0,0,0,0,0,0,0,0,0,0,
499,17.79,23.49,-46.6,5.892,-1.88,9.093,49.72,6.535,14.46,8.304,35.32,46.41,14.33,33.35,24.16,12.39,0,0,0,0,0,0,0,0,0,0,0,0,0,0,0,0,
500,23.53,25.74,2.209,11.48,21.08,3.601,42.8,4.142,12.51,3.452,38.62,39.03,5.515,27.51,14.22,-1.49,0,0,0,0,0,0,0,0,0,0,0,0,0,0,0,0,
501,24.74,22.7,25.79,20.35,24.73,2.21,41.99,6.925,10.09,3.48,27.45,28.77,-0.6081,23.91,7.598,-11.3,0,0,0,0,0,0,0,0,0,0,0,0,0,0,0,0,
502,20.69,24.97,11.2,41.24,29.04,16.31,63.38,22.99,11.99,5.991,24.61,40.62,4.508,19.28,11.77,-7.388,0,0,0,0,0,0,0,0,0,0,0,0,0,0,0,0,
503,15.77,24.72,1.937,38.17,15.27,12.31,61.12,23.34,0.9526,0.7252,9.823,31.55,5.522,12.68,4.212,-8.808,0,0,0,0,0,0,0,0,0,0,0,0,0,0,0,0,
504,4.887,17.13,-3.176,25.92,7.078,-2.188,42.34,5.845,-6.386,-4.002,-6.709,-3.043,-2.001,2.017,-5.922,-18.68,0,0,0,0,0,0,0,0,0,0,0,0,0,0,0,0,
505,-2.987,19.22,-4.064,32.33,30.18,0.1053,44.18,13.02,8.58,3.165,5.692,-7.577,-8.269,-4.113,-0.8015,-18.47,0,0,0,0,0,0,0,0,0,0,0,0,0,0,0,0,
506,-2.607,23.95,6.916,34.81,20.35,0.643,50.71,33.57,16.93,11.25,19.76,7.956,-8.816,4.472,9.441,-10.27,0,0,0,0,0,0,0,0,0,0,0,0,0,0,0,0,
507,-0.0983,23.72,8.942,34.78,-8.178,-0.8585,47.81,29.6,10.23,12.24,17.47,10.21,-3.902,12.7,15.17,-4.898,0,0,0,0,0,0,0,0,0,0,0,0,0,0,0,0,
508,-3.832,22.32,2.128,40.28,12.5,4.863,37.22,19.09,5.654,9.987,12.88,6.251,-7.282,8.054,10.84,-4.787,0,0,0,0,0,0,0,0,0,0,0,0,0,0,0,0,
509,-15.82,10.99,1.891,32.27,26.79,-1.71,22.52,17,5.658,4.666,13.1,5.856,-10.11,14.62,9.637,0.7791,0,0,0,0,0,0,0,0,0,0,0,0,0,0,0,0,
510,-17.71,5.832,-10.7,24.76,1.093,-1.922,28.59,13.57,10.22,4.617,23.11,13.87,8.961,36.65,25.65,16.49,0,0,0,0,0,0,0,0,0,0,0,0,0,0,0,0,
511,-2.403,25.81,-31.54,36.82,10.75,25.68,55.43,19.82,15.16,18.56,27.28,19.13,25.48,41.58,31.25,22.6,0,0,0,0,0,0,0,0,0,0,0,0,0,0,0,0,
512,9.231,41.61,-10.36,48.1,50.03,38.99,68.21,30.69,17.16,29.97,13.18,5.077,22,33.93,15.05,16.59,0,0,0,0,0,0,0,0,0,0,0,0,0,0,0,0,
513,7.463,37.5,29.93,45.56,45.77,21.18,59.88,25.28,20.11,25.01,-0.6708,-13.39,15.85,37.65,3.564,14.85,0,0,0,0,0,0,0,0,0,0,0,0,0,0,0,0,
514,-1.462,32.32,15.14,36.1,14.79,5.865,42.93,16.02,14.75,16.42,-10.83,-22.19,7.884,38.47,-0.4376,14.87,0,0,0,0,0,0,0,0,0,0,0,0,0,0,0,0,
515,-7.338,25.71,-18.39,27.95,5.553,1.997,26.8,16.04,0.6837,13.4,-20.24,-24.64,3.071,27.76,-6.735,11.96,0,0,0,0,0,0,0,0,0,0,0,0,0,0,0,0,
516,0.2608,19.06,-15.48,25.36,9.608,3.312,22.81,13.57,-2.573,10.71,-24.48,-27.61,1.836,15.96,-22.85,-4.917,0,0,0,0,0,0,0,0,0,0,0,0,0,0,0,0,
517,2.076,13.76,-25.09,18.57,3.299,-1.008,12.17,2.598,-4.277,2.84,-36.06,-48.93,-21.11,-6.009,-54.02,-43.3,0,0,0,0,0,0,0,0,0,0,0,0,0,0,0,0,
518,-20.06,-8.678,-52.04,2.477,-7.14,-21.59,-16.06,-8.636,-18.49,-8.162,-45.51,-72.16,-43.32,-29.64,-67.78,-64.1,0,0,0,0,0,0,0,0,0,0,0,0,0,0,0,0,
519,-28.14,-21.32,-39.52,-4.385,9.988,-23.99,-16.18,-7.91,-14.68,-9.826,-31.38,-56.98,-33.93,-28.98,-50.37,-54.34,0,0,0,0,0,0,0,0,0,0,0,0,0,0,0,0,
520,-12.27,-3.921,-7.771,10.12,35.08,-1.114,8.38,3.543,6.101,-6.522,-16.04,-31.04,-37.33,-29.03,-42.29,-58.55,0,0,0,0,0,0,0,0,0,0,0,0,0,0,0,0,
521,-19.88,-9.301,3.748,24.86,9.43,-5.553,4.609,2.262,2.767,-16.6,-8.302,-23.87,-57.23,-46.14,-33.21,-58.91,0,0,0,0,0,0,0,0,0,0,0,0,0,0,0,0,
522,-21.94,-24.6,-1.028,12.65,-18.3,-16.15,-3.61,-23,4.069,-25.6,21.21,4.698,-35.47,-34.22,8.544,-16.45,0,0,0,0,0,0,0,0,0,0,0,0,0,0,0,0,
523,18.55,-4.624,-26.12,-16.5,8.393,1.624,-0.4519,-43.23,31.14,-21.2,51.62,38.72,-5.899,-0.9159,30.84,7.907,0,0,0,0,0,0,0,0,0,0,0,0,0,0,0,0,
524,18.95,-8.866,-58.99,-30,2.874,-15.18,-26.98,-31.37,16.93,-25.95,35.27,16.55,-24.15,-6.189,6.029,-21.91,0,0,0,0,0,0,0,0,0,0,0,0,0,0,0,0,
525,-32.57,-42.08,-56.42,-21.58,-42.35,-55.82,-49.11,-9.393,-26.34,-35.29,2.907,-20.84,-46.26,-31.98,-11.75,-42.91,0,0,0,0,0,0,0,0,0,0,0,0,0,0,0,0,
526,-36.55,-34.05,-25.43,-9.381,-16.27,-39.18,-29.46,-7.414,-15.09,-28.97,5.066,-14.61,-44.65,-32.62,-10.32,-38.48,0,0,0,0,0,0,0,0,0,0,0,0,0,0,0,0,
527,-11.37,-17.58,-24.85,-5.327,29.57,-13.04,-15.57,-16.25,14.44,-20.99,14.72,2.684,-40.77,-18.71,-11.67,-36.21,0,0,0,0,0,0,0,0,0,0,0,0,0,0,0,0,
528,-19.53,-24.46,-49.86,-9.553,-5.181,-29.85,-20.73,-19.3,2.272,-17.23,3.579,2.082,-27.85,-8.098,-10.2,-27.11,0,0,0,0,0,0,0,0,0,0,0,0,0,0,0,0,
529,-25.76,-20.05,-41.51,-15.19,-42.6,-33.15,-24.67,-17.87,-8.311,-11.17,-3.426,-1.461,-15.41,-4.969,-11.42,-18.82,0,0,0,0,0,0,0,0,0,0,0,0,0,0,0,0,
530,-17.43,-16.92,-18.65,-15.02,-19.68,-17.26,-30.03,-17.48,2.04,-12.41,-1.876,-0.7367,-19.27,-7.063,-18.45,-21.4,0,0,0,0,0,0,0,0,0,0,0,0,0,0,0,0,
531,-19.76,-22.41,-28.44,-10.71,-1.447,-22.88,-24.28,-19.01,-0.9122,-16.25,-10.95,-3.542,-16.16,-6.698,-21.02,-18.04,0,0,0,0,0,0,0,0,0,0,0,0,0,0,0,0,
532,-24.21,-17.52,-38.59,-12.41,-18.64,-37.33,-13.73,-15.06,-9.795,-13.91,-24.93,-18.43,-10.75,-12.75,-28.69,-20.96,0,0,0,0,0,0,0,0,0,0,0,0,0,0,0,0,
533,-30.14,-20.16,-31.97,-24.46,-37.18,-46.55,-19.95,-8.028,-14.27,-17.29,-32.8,-32.71,-24.41,-29.16,-37.7,-35.3,0,0,0,0,0,0,0,0,0,0,0,0,0,0,0,0,
534,-37.78,-26.61,-41.84,-29.43,-32.17,-44.61,-16.2,-7.468,-22.17,-22.7,-29.59,-26.92,-35.32,-37.75,-29.99,-35.09,0,0,0,0,0,0,0,0,0,0,0,0,0,0,0,0,
535,-28.65,-15.16,-50.85,-14.76,-12.64,-24.04,6.415,-5.217,-10.37,-17.59,-13.71,-13.53,-27.99,-32.47,-16.49,-23.71,0,0,0,0,0,0,0,0,0,0,0,0,0,0,0,0,
536,-13.63,-7.695,-32.51,-3.892,-12.21,-16.31,8.327,-2.795,11.4,-13.07,-6.446,-11.87,-17.98,-26.72,-14.34,-16.47,0,0,0,0,0,0,0,0,0,0,0,0,0,0,0,0,
537,-15.46,-15.3,-18.68,-6.544,-24.87,-27.68,-2.229,-5.68,2.809,-13.25,-18.77,-17.33,-11.55,-28.22,-22.17,-16.48,0,0,0,0,0,0,0,0,0,0,0,0,0,0,0,0,
538,-21.21,-13.98,-23.32,-0.4229,-18.75,-15.56,8.796,2.688,-3.034,-8.088,-21.84,-17.36,-2.973,-27.66,-29.08,-24.72,0,0,0,0,0,0,0,0,0,0,0,0,0,0,0,0,
539,-16.57,-4.163,-18.24,4.849,-14.23,5.307,14.83,7.364,12.09,-6.657,-9.994,-13.53,0.9057,-21.58,-27.4,-28.57,0,0,0,0,0,0,0,0,0,0,0,0,0,0,0,0,
540,-14.87,-5.423,-2.602,-5.451,-19.69,-5.407,-1.44,-10.76,-1.35,-13.79,-12.42,-17.76,-8.019,-19.62,-23.61,-23.83,0,0,0,0,0,0,0,0,0,0,0,0,0,0,0,0,
541,-21.93,-12.27,-3.295,-8.434,-9.512,-25.15,-7.018,-15.88,-25.72,-13.04,-27.5,-28.64,-15.05,-16.51,-28.49,-22.77,0,0,0,0,0,0,0,0,0,0,0,0,0,0,0,0,
542,-31.61,-14.23,-21.42,-3.911,-5.839,-32.34,-5.179,0.3601,-19.79,-3.694,-35.44,-35.29,-12.49,-10.1,-37.8,-23.87,0,0,0,0,0,0,0,0,0,0,0,0,0,0,0,0,
543,-36.46,-11.67,-24.95,-2.224,-19.88,-30.47,-6.605,9.266,-5.103,4.733,-31.62,-28.73,-9.241,-9.087,-31.64,-17.47,0,0,0,0,0,0,0,0,0,0,0,0,0,0,0,0,
544,-23.22,-1.404,-0.9445,6.684,-26.17,-16.82,4.019,12.23,8.152,8.57,-19.54,-11.7,-3.434,-5.097,-12.05,-9.631,0,0,0,0,0,0,0,0,0,0,0,0,0,0,0,0,
545,-6.402,4.565,12.86,6.18,-25.53,-7.783,4.479,8.134,18.6,0.0707,-11.75,-5.569,-2.662,-2.014,-6.313,-11.26,0,0,0,0,0,0,0,0,0,0,0,0,0,0,0,0,
546,-2.132,1.164,1.521,0.133,-7.133,0.7161,1.602,0.2364,24.92,-6.886,-3.553,-3.317,-7.093,-7.777,-6.645,-6.388,0,0,0,0,0,0,0,0,0,0,0,0,0,0,0,0,
547,10.22,7.492,2.567,16.55,24.87,23.54,24.5,7.997,40.41,3.997,12.33,9.462,3.084,-6.215,-1.877,10.62,0,0,0,0,0,0,0,0,0,0,0,0,0,0,0,0,
548,15.55,6.976,10.57,14.9,25.81,15.3,19.02,11.88,38.26,7.827,6.986,-1.75,8.015,-4.716,-14.24,6.92,0,0,0,0,0,0,0,0,0,0,0,0,0,0,0,0,
549,-4.952,-12.28,-3.159,-16.11,0.5678,-19.96,-12.26,-1.705,14.7,-3.331,-15.25,-27.42,-5.414,-11.14,-24.56,-7.309,0,0,0,0,0,0,0,0,0,0,0,0,0,0,0,0,
550,-3.276,-10.33,-13.18,-12.9,-20.01,-10.81,7.279,-3.609,19.13,-3.512,-12.83,-15.5,-4.889,-5.941,-9.492,-1.866,0,0,0,0,0,0,0,0,0,0,0,0,0,0,0,0,
551,22.16,8.294,-8.881,8.004,-16.02,13.97,33.49,10.87,36.06,5.725,3.321,5.101,2.877,-0.5195,-2.692,-1.845,0,0,0,0,0,0,0,0,0,0,0,0,0,0,0,0,
552,21.52,8.553,-8.964,0.8361,13.79,1.296,17.25,18.35,25.06,11.73,3.076,-0.6089,0.6434,-4.249,-10.25,-8.469,0,0,0,0,0,0,0,0,0,0,0,0,0,0,0,0,
553,5.91,7.493,-7.96,-4.001,12.14,-11.44,10.42,12.2,5.446,15.13,-7.502,-3.424,6.238,2.472,-12.41,-0.898,0,0,0,0,0,0,0,0,0,0,0,0,0,0,0,0,
554,-3.625,14.42,-15.68,-2.798,-20.49,-12.55,16.05,6.738,-0.7848,15.7,-6.239,8.488,13.26,11.6,-12.65,2.411,0,0,0,0,0,0,0,0,0,0,0,0,0,0,0,0,
555,-10.38,14.21,-36.97,-16.74,-23.6,-21.14,13.62,12.58,3.213,19.2,12.5,23.42,15.5,17.09,-4.232,7.899,0,0,0,0,0,0,0,0,0,0,0,0,0,0,0,0,
556,-5.319,17.01,-34.29,-15.12,-22.05,-17.49,22.9,24.65,5.641,26.65,22.18,30.84,29.55,31.74,10.22,27.69,0,0,0,0,0,0,0,0,0,0,0,0,0,0,0,0,
557,2.146,27.2,-12.64,8.79,-26.69,-3.315,34.23,39.24,1.913,30.46,15.33,20.87,43.41,40.54,11.57,34.52,0,0,0,0,0,0,0,0,0,0,0,0,0,0,0,0,
558,-0.2669,31.74,-14.1,13.08,-15.63,-0.7372,36.2,40.45,0.3529,29.04,9.76,4.857,40.49,31.33,4.288,26.58,0,0,0,0,0,0,0,0,0,0,0,0,0,0,0,0,
559,-1.356,29.78,-23.63,-3.282,-20.72,-6.947,39.96,18.82,-0.9463,22.88,-0.8033,-1.478,33.57,22.44,0.6251,22.29,0,0,0,0,0,0,0,0,0,0,0,0,0,0,0,0,
560,-4.872,24.65,-18.09,-4.501,-19.6,-17.38,41.41,14.9,-2.28,19.98,-10.33,0.1173,34.1,23.46,2.515,22.03,0,0,0,0,0,0,0,0,0,0,0,0,0,0,0,0,
561,-13.66,21.42,-18.04,6.051,-1.499,-23.32,39.49,36.29,-2.639,24.5,-9.116,-1.937,34.37,21.25,2.334,20.55,0,0,0,0,0,0,0,0,0,0,0,0,0,0,0,0,
562,-13.9,26.35,-17.06,0.5054,-23.72,-18.05,34.22,35.73,-12.61,23.67,-15.58,-10.85,27.85,12.49,-1.783,14.29,0,0,0,0,0,0,0,0,0,0,0,0,0,0,0,0,
563,-14.67,28.86,-8.303,-9.947,-38.93,-16.42,23.1,21.34,-20.13,19.49,-22.55,-15.15,23.38,13.05,0.0772,11.21,0,0,0,0,0,0,0,0,0,0,0,0,0,0,0,0,
564,-27.41,19.82,-28.82,-6.037,-11.55,-18.88,17.95,21.65,-19.28,21.89,-25.68,-19.77,22.27,16.68,-3.798,14.26,0,0,0,0,0,0,0,0,0,0,0,0,0,0,0,0,
565,-37.05,9.981,-51.08,-8.949,-16.73,-17.64,13.46,20.53,-32.59,20.11,-38.08,-31.5,16.91,7.926,-14.16,14.15,0,0,0,0,0,0,0,0,0,0,0,0,0,0,0,0,
566,-38.58,2.754,-24.45,-25.21,-39.01,-21.27,2.408,13.11,-38.81,9.974,-31.86,-26.65,14.68,6.276,-2.08,13.7,0,0,0,0,0,0,0,0,0,0,0,0,0,0,0,0,
567,-33.94,-3.447,-5.177,-27.46,-30.11,-20.32,4.009,5.184,-14.44,5.455,-5.394,-2.55,18.82,19.75,17.11,13.54,0,0,0,0,0,0,0,0,0,0,0,0,0,0,0,0,
568,-15.56,2.481,-18.1,-20.39,-26.73,-5.587,9.006,-3.744,-3.792,13.36,-0.4369,11.92,22.44,29.85,15.28,12.04,0,0,0,0,0,0,0,0,0,0,0,0,0,0,0,0,
569,-1.012,14.29,-9.813,-20.46,-29.96,4.306,-0.7035,-1.858,-16.95,24.42,-9.935,10.45,26.87,39.07,10.67,14.87,0,0,0,0,0,0,0,0,0,0,0,0,0,0,0,0,
570,-9.657,11.85,-5.406,-17.53,-24.13,1.202,-3.581,5.781,-15.83,24.79,-16.68,-3.829,25.53,43.29,4.78,11.11,0,0,0,0,0,0,0,0,0,0,0,0,0,0,0,0,
571,-24.62,0.2625,-31.41,-21.38,-33.85,-10.29,0.8993,5.544,-18.83,16.49,-32.39,-33.27,10.21,25.87,-16.64,-7.591,0,0,0,0,0,0,0,0,0,0,0,0,0,0,0,0,
572,-31.33,-4.298,-36.83,-33.37,-42.81,-14.2,4.311,9.019,-31.61,16.03,-42.15,-50.61,0.1194,7.645,-28.25,-20.61,0,0,0,0,0,0,0,0,0,0,0,0,0,0,0,0,
573,-21.15,1.375,-16.68,-17.08,-28.99,10.11,25.06,21.12,-9.671,25.57,-26.5,-29.81,13.47,11.42,-13.03,-12.01,0,0,0,0,0,0,0,0,0,0,0,0,0,0,0,0,
574,14.05,13.93,1.549,16.3,-13.72,41.6,42.8,28.79,22.49,29.59,-5.231,-0.6275,29.61,16.71,2.919,-0.0685,0,0,0,0,0,0,0,0,0,0,0,0,0,0,0,0,
575,46.11,28.37,16.71,29.79,6.744,59.53,40.42,27.88,28.34,24.44,3.104,9.937,26.25,5.277,4.498,-4.939,0,0,0,0,0,0,0,0,0,0,0,0,0,0,0,0,
576,48.53,34.59,16.88,29.9,30.64,71.12,42.55,23.14,38.38,21.48,8.045,19.64,18.88,-6.121,4.309,-10.79,0,0,0,0,0,0,0,0,0,0,0,0,0,0,0,0,
577,36.62,23.5,15.75,22.68,27.24,59.98,33.75,19.64,41.38,20.52,11.27,25.01,17.91,-4.128,3.982,-7.069,0,0,0,0,0,0,0,0,0,0,0,0,0,0,0,0,
578,26.08,7.18,38.91,15.7,18.06,34.58,11.39,15.8,14.8,16.04,3.239,12.14,9.685,-2.319,-0.8777,-9.017,0,0,0,0,0,0,0,0,0,0,0,0,0,0,0,0,
579,15.96,-1.206,37.07,13.32,13.88,28.46,9.973,6.737,1.646,11.93,-4.195,-1.82,-2.412,-8.61,-0.8829,-9.597,0,0,0,0,0,0,0,0,0,0,0,0,0,0,0,0,
580,4.22,-14.02,-14.14,-8.437,-19.85,17.1,2.501,-2.222,1.706,6.951,-0.7691,-14.28,-9.467,-13.97,5.317,-2.824,0,0,0,0,0,0,0,0,0,0,0,0,0,0,0,0,
581,-8.632,-29.67,-35.79,-27.35,-41.76,-11.55,-24.44,-8.921,-15.99,3.771,2.332,-20.96,-12.31,-13.24,11.41,-2.618,0,0,0,0,0,0,0,0,0,0,0,0,0,0,0,0,
582,-21.2,-31.06,-16.01,-20.17,-16.61,-21.73,-29.75,-17.66,-23.64,13.09,3.692,-7.356,-2.757,-2.19,21.4,3.673,0,0,0,0,0,0,0,0,0,0,0,0,0,0,0,0,
583,-32.95,-23.76,-18.3,-26.98,-5.177,-16.76,-23.94,-18.69,-16.44,24.72,7.856,-3.91,14.44,15.42,33.08,23.23,0,0,0,0,0,0,0,0,0,0,0,0,0,0,0,0,
584,-34.75,-13.47,-17.62,-36.25,-23.55,-12.84,-22.22,-12.04,-25.77,24.4,10.17,-17.77,22.36,21.46,36.34,32.59,0,0,0,0,0,0,0,0,0,0,0,0,0,0,0,0,
585,-20.9,-2.68,-7.038,-20.65,-38.61,-5.023,-8.154,-13.58,-34.69,20.36,11.3,-9.485,22.75,19.39,30.9,28.25,0,0,0,0,0,0,0,0,0,0,0,0,0,0,0,0,
586,-5.841,-4.624,-35.21,-18.33,-39.16,-0.0852,-4.061,-14.24,-19.23,19.28,13.34,2.11,17.91,24.25,20.14,18.41,0,0,0,0,0,0,0,0,0,0,0,0,0,0,0,0,
587,-0.4728,-15.55,-36.44,-26.08,-11.79,3.018,-18.85,-7.375,-3.34,17.22,10.46,-12.58,5.879,21.62,5.964,1.512,0,0,0,0,0,0,0,0,0,0,0,0,0,0,0,0,
588,0.4267,-17.47,19.94,-16.63,24.28,15.61,-11.13,-7.62,-7.209,14.91,0.3594,-21.07,-0.7699,6.817,-2.68,-10.98,0,0,0,0,0,0,0,0,0,0,0,0,0,0,0,0,
589,9.055,-4.088,31.36,-2.635,37.22,38.21,24.91,-1.076,-6.463,14.84,-3.745,-5.883,4.682,1.801,0.8455,-9.841,0,0,0,0,0,0,0,0,0,0,0,0,0,0,0,0,
590,30.61,10.07,12.11,15.07,31.04,65.01,48.24,20.94,13.67,12.42,7.059,12.37,10.13,-0.0519,6.007,-6.579,0,0,0,0,0,0,0,0,0,0,0,0,0,0,0,0,
591,46.91,9.456,40.97,26.3,14.55,78.26,47.2,30.98,21.84,7.403,11.95,18.07,10.06,-11.01,2.82,-5.935,0,0,0,0,0,0,0,0,0,0,0,0,0,0,0,0,
592,44.25,11.2,67.65,25.29,9.849,77.27,50.71,31.92,8.244,12.04,-3.736,8.719,13.31,-9.793,-2.231,-4.081,0,0,0,0,0,0,0,0,0,0,0,0,0,0,0,0,
593,38.92,26.79,48.32,31.93,11.76,89.59,63.22,35.62,-2.292,21.06,-21.01,-0.0904,16.44,2.285,-5.382,-9.059,0,0,0,0,0,0,0,0,0,0,0,0,0,0,0,0,
594,43.5,32.15,26.86,24.37,-0.2544,106.1,59.1,25.52,-8.143,15.75,-24.61,4.098,10.56,0.3514,-7.421,-17.23,0,0,0,0,0,0,0,0,0,0,0,0,0,0,0,0,
595,46.34,26.12,33.1,5.213,19.98,95.27,44.88,16.75,-9.716,9.998,-18,9.862,10.57,-5.474,-3.488,-12.19,0,0,0,0,0,0,0,0,0,0,0,0,0,0,0,0,
596,38.47,30.12,49.09,20,47.54,73.4,47.83,23.86,-3.51,16.72,-11.98,9.289,20.12,-1.588,1.405,-6.436,0,0,0,0,0,0,0,0,0,0,0,0,0,0,0,0,
597,30.09,34.46,47.72,35.62,7.982,63.24,56.7,16.99,-7.535,14.57,-13.93,5.33,13.48,-1.817,-2.318,-14.94,0,0,0,0,0,0,0,0,0,0,0,0,0,0,0,0,
598,24.41,21.18,29.95,20.88,-18.22,51.14,45.24,2.348,-16.54,6.287,-12.84,-1.233,-2.574,-7.245,-6.365,-17.93,0,0,0,0,0,0,0,0,0,0,0,0,0,0,0,0,
599,16.27,10.92,10.75,17.43,8.787,39.91,29.53,5.795,-10.5,14.61,-0.7907,-0.5994,5.045,-3.044,1.111,-3.475,0,0,0,0,0,0,0,0,0,0,0,0,0,0,0,0,
600,19.62,27.91,4.038,21.83,2.448,43,30.97,5.502,-0.5452,26.07,10.73,11.49,26.03,8.271,10.41,9.302,0,0,0,0,0,0,0,0,0,0,0,0,0,0,0,0,
601,27.61,40.52,17.26,9.885,-7.32,33.74,24.47,-4.439,2.903,22.93,14.23,13.27,28,11.96,6.462,5.02,0,0,0,0,0,0,0,0,0,0,0,0,0,0,0,0,
602,11.65,22.17,23.74,0.9115,9.21,2.276,0.7967,-8.367,-1.139,15.62,10.53,-1.673,13.71,7.669,-4.514,-7.027,0,0,0,0,0,0,0,0,0,0,0,0,0,0,0,0,
603,-5.707,9.237,4.764,-6.805,-10.63,-10.33,-7.097,-23.5,-10.86,11.82,4.848,-9.176,4.796,6.305,-11.66,-9.213,0,0,0,0,0,0,0,0,0,0,0,0,0,0,0,0,
604,2.377,12.92,-13.7,-15.11,-19.37,3.921,2.016,-39.86,-4.863,9.411,10.91,0.212,10.59,12.11,-5.381,6.541,0,0,0,0,0,0,0,0,0,0,0,0,0,0,0,0,
605,21.25,14.38,-2.037,6.742,28.8,24.35,16.42,-16.12,31.22,19.06,47.45,31.8,37.95,33.51,42.39,49.18,0,0,0,0,0,0,0,0,0,0,0,0,0,0,0,0,
606,65.82,43.31,53.24,54.87,71.71,74.85,58.37,32.93,97.16,55.43,124.9,99.29,88.01,76.26,131.3,113.4,0,0,0,0,0,0,0,0,0,0,0,0,0,0,0,0,
607,144.3,104.5,129.6,100.5,114.4,154.4,117.7,67.29,170.8,98.38,201.9,162.2,126.8,108.8,192.5,151.4,0,0,0,0,0,0,0,0,0,0,0,0,0,0,0,0,
608,190.7,132.7,168,121.1,149.5,181,134.2,73,179.9,100.4,195.6,149.4,113.2,95.2,167.6,125.1,0,0,0,0,0,0,0,0,0,0,0,0,0,0,0,0,
609,157.3,101,129.7,85.72,96.14,124.2,92.07,43.64,101.5,59.5,102.9,75.1,65.16,51.51,87.02,61.45,0,0,0,0,0,0,0,0,0,0,0,0,0,0,0,0,
610,88.27,52.5,50.77,28.31,21.24,67.86,46.63,7.549,28.98,25.87,20.29,17.79,29.91,15.49,24.52,11.56,0,0,0,0,0,0,0,0,0,0,0,0,0,0,0,0,
611,44.64,20.22,15.99,19.78,22.74,55.26,29.16,2.19,12.95,16.33,-4.227,-4.904,9.636,-5.064,1.495,-8.425,0,0,0,0,0,0,0,0,0,0,0,0,0,0,0,0,
612,23.31,-0.2153,16.55,17.78,13.25,34.83,14.12,-0.6995,-2.871,7.648,-9.315,-22.3,-8.306,-20.55,-7.798,-11.92,0,0,0,0,0,0,0,0,0,0,0,0,0,0,0,0,
613,1.258,-12.17,-10.06,-19.4,-30.61,7.172,-0.9523,-20.86,-26.27,0.8319,-10.59,-25.76,-8.748,-26.42,-5.512,-5.606,0,0,0,0,0,0,0,0,0,0,0,0,0,0,0,0,
614,-3.43,-14.26,-9.905,-23.7,-11.76,16.64,-2.024,-24.28,-13.12,4.595,-0.2832,-9.066,3.11,-11.25,7.154,7.309,0,0,0,0,0,0,0,0,0,0,0,0,0,0,0,0,
615,13.41,-15.82,32.16,-2.938,23.15,30.37,-4.81,-20.22,10.13,6.438,1.116,-1.232,7.564,14.02,7.217,15.67,0,0,0,0,0,0,0,0,0,0,0,0,0,0,0,0,
616,22.1,-12.64,34.28,-13.72,14.03,21.33,-8.191,-36.81,6.773,3.441,-8.848,-6.145,15.25,25.12,0.4216,18.72,0,0,0,0,0,0,0,0,0,0,0,0,0,0,0,0,
617,20.56,-0.7089,30.92,-10.29,26.19,24.08,-5.368,-50.72,2.329,-0.7507,-11.82,-7.316,22.84,19.41,3.754,20.54,0,0,0,0,0,0,0,0,0,0,0,0,0,0,0,0,
618,19.88,0.477,47.22,13,48.44,32.22,-12.28,-50.32,7.255,-9.626,-7.996,-0.3169,11.96,11.71,13.09,18.42,0,0,0,0,0,0,0,0,0,0,0,0,0,0,0,0,
619,18.7,-9.157,20.72,3.734,32.4,24.71,-20.93,-50.49,6.541,-16.95,1.408,10.99,-5.864,-3.028,16.46,5.344,0,0,0,0,0,0,0,0,0,0,0,0,0,0,0,0,
620,19.67,-16.64,-1.336,-11.39,16.9,18.88,-24.62,-50.25,6.389,-18.92,3.321,5.372,-27.92,-35.7,-5.14,-28.02,0,0,0,0,0,0,0,0,0,0,0,0,0,0,0,0,
621,18.57,-27.05,13.3,-15.95,18.15,15.99,-32.9,-50.28,10.33,-19.09,-15.17,-16.98,-54.44,-58.15,-36.27,-61.37,0,0,0,0,0,0,0,0,0,0,0,0,0,0,0,0,
622,16.85,-29.35,11.88,-29.07,32.51,20.86,-27.17,-50.34,17.03,-12.7,-19.55,-18.91,-55.57,-46.77,-34.77,-63.87,0,0,0,0,0,0,0,0,0,0,0,0,0,0,0,0,
623,33.2,-9.12,29.39,-17.83,64.28,53.49,-4.93,-42.05,32.66,0.1477,11.93,7.099,-31.76,-29.36,-13.43,-51.18,0,0,0,0,0,0,0,0,0,0,0,0,0,0,0,0,
624,64.34,16.04,63.63,19.78,74.01,87.45,9.212,-34.42,49.69,11.52,41.18,33.55,-14.3,-25.34,-5.702,-46.03,0,0,0,0,0,0,0,0,0,0,0,0,0,0,0,0,
625,81.28,29.04,45.55,32.87,64.01,87.14,17.27,-34.8,52.66,18.05,38.22,35.58,-6.868,-23.26,-10.94,-46.84,0,0,0,0,0,0,0,0,0,0,0,0,0,0,0,0,
626,72.04,31.17,31.63,21.25,69.93,71.64,23.39,-26.82,39.9,20.45,19.64,19.63,0.4731,-19.98,-19.29,-51.42,0,0,0,0,0,0,0,0,0,0,0,0,0,0,0,0,
627,57.77,29.98,57.97,15.27,56.02,70.58,23.18,-6.726,27.44,23.37,12.46,21.01,12.16,-11.39,-17,-45.72,0,0,0,0,0,0,0,0,0,0,0,0,0,0,0,0,
628,56.06,31.59,50.17,17.17,17.37,76.06,26.03,1.255,28.11,25.72,15.2,30.74,24.3,6.455,-5.914,-20.04,0,0,0,0,0,0,0,0,0,0,0,0,0,0,0,0,
629,56.22,30.33,29.17,16.33,23.91,73.4,30.35,-8.056,35.16,21.3,16.71,21.84,26.58,21.68,-1.703,9.718,0,0,0,0,0,0,0,0,0,0,0,0,0,0,0,0,
630,51.04,20.34,48.57,8.321,69.76,68.28,24.11,-14.57,43.4,11.58,18.83,15.92,22.44,27.29,4.991,29.97,0,0,0,0,0,0,0,0,0,0,0,0,0,0,0,0,
631,40.55,6.038,49.41,-4.02,74.29,58.09,8.197,-24.94,41.01,-0.385,11.09,12.1,17.49,26.31,19.08,40.58,0,0,0,0,0,0,0,0,0,0,0,0,0,0,0,0,
632,19.97,-7.573,5.895,-18.6,25.56,36.46,-9.91,-44.55,13.26,-8.229,-2.168,-2.606,12.07,24.92,30.95,49.01,0,0,0,0,0,0,0,0,0,0,0,0,0,0,0,0,
633,4.484,-14.4,-23.86,-31.03,-8.842,19.12,-21.83,-43.39,-6.641,-8.33,6.345,-2.853,8.355,24.64,38.8,52.27,0,0,0,0,0,0,0,0,0,0,0,0,0,0,0,0,
634,1.361,-15.5,-23.14,-32.35,0.127,9.498,-24.67,-31.6,5.6,-13.17,17.21,-1.258,-4.37,13.66,30.38,35.46,0,0,0,0,0,0,0,0,0,0,0,0,0,0,0,0,
635,-8.147,-21.99,-16.4,-30.24,9.838,-3.67,-27.09,-44.87,14.98,-21.81,8.989,-13.62,-26.16,-6.514,10.07,4.977,0,0,0,0,0,0,0,0,0,0,0,0,0,0,0,0,
636,-11.55,-27.7,-7.11,-29.69,13.24,-7.898,-31.89,-54.3,18.43,-17.52,14.11,-3.299,-34.9,-18.84,3.425,-23.46,0,0,0,0,0,0,0,0,0,0,0,0,0,0,0,0,
637,6.435,-22.34,12.59,-17.43,33.37,3.304,-28.06,-37.72,33.66,-9.334,31.81,18.29,-36.31,-26.64,-1.124,-44.87,0,0,0,0,0,0,0,0,0,0,0,0,0,0,0,0,
638,13.8,-21.03,20.18,-11.66,28.15,8.876,-17.38,-33.2,32.55,-12.44,25.77,9.038,-47.15,-37.82,-17.98,-50.82,0,0,0,0,0,0,0,0,0,0,0,0,0,0,0,0,
639,0.4192,-25.52,-2.63,-29.53,-0.1221,3.28,-17.24,-40.26,16.11,-12.11,11.2,-8.733,-45.23,-35.42,-21.66,-33.2,0,0,0,0,0,0,0,0,0,0,0,0,0,0,0,0,
640,-4.345,-12.73,-5.446,-35.54,17.83,1.792,-24,-30.39,12.85,1.647,14.28,-11.83,-20.25,-12.84,-8.196,1.017,0,0,0,0,0,0,0,0,0,0,0,0,0,0,0,0,
641,-2.664,4.758,15.52,-28.93,33.69,2.228,-24.69,-29.02,6.07,7.598,13.31,-20.12,-7.065,2.556,-4.245,23.35,0,0,0,0,0,0,0,0,0,0,0,0,0,0,0,0,
642,-13.05,-3.461,-4.887,-36.95,3.107,-4.851,-27.53,-46.66,-4.531,0.6517,1.901,-26.24,-6.426,7.011,-0.0465,26.49,0,0,0,0,0,0,0,0,0,0,0,0,0,0,0,0,
643,-17.58,-14.98,-15.19,-30,11.91,-1.597,-31.82,-43.09,10.3,5.902,12.94,-3.306,17.1,29.59,27.04,41.5,0,0,0,0,0,0,0,0,0,0,0,0,0,0,0,0,
644,3.61,0.4895,19.64,-13,42.6,19.02,-28.02,-25.64,27.43,15.06,33.56,23.97,37.62,51.18,49.51,56.25,0,0,0,0,0,0,0,0,0,0,0,0,0,0,0,0,
645,22.95,12.22,7.682,-26.37,21.34,23.55,-28.63,-28.43,13.66,2.063,23.26,23.07,16.02,36.34,45.02,44.33,0,0,0,0,0,0,0,0,0,0,0,0,0,0,0,0,
646,13.33,-4.852,-12.33,-31.04,12.82,9.541,-33.48,-29.27,-1.085,-11.36,8.52,18.46,-10.32,13.91,42.31,40.41,0,0,0,0,0,0,0,0,0,0,0,0,0,0,0,0,
647,4.497,-17.71,19.94,-12.43,36.86,11.56,-27.79,-17.84,10.26,-9.558,20.16,25.35,-15.83,5.464,48.06,49.62,0,0,0,0,0,0,0,0,0,0,0,0,0,0,0,0,
648,13.33,-18.19,10.35,-24.33,23.06,17.35,-29.27,-24.33,11.47,-14.68,25.12,17.96,-26.99,-9.677,37.41,36.71,0,0,0,0,0,0,0,0,0,0,0,0,0,0,0,0,
649,4.329,-35.28,-25.65,-51.88,-14.37,2.873,-50.46,-41.22,-12.97,-21.24,10.11,-0.1591,-39.12,-24.45,16.13,15.72,0,0,0,0,0,0,0,0,0,0,0,0,0,0,0,0,
650,-14.65,-49.54,-13.2,-53.61,-26.84,-3.708,-63.66,-49.53,-10.79,-16.01,3.328,-3.848,-37.66,-25.52,2.105,6.85,0,0,0,0,0,0,0,0,0,0,0,0,0,0,0,0,
651,-6.302,-37.76,-3.519,-41.79,-7.034,8.431,-59.21,-55.28,25.67,-12.54,7.111,1.816,-38.83,-25.23,-6.438,1.46,0,0,0,0,0,0,0,0,0,0,0,0,0,0,0,0,
652,5.566,-32.91,-4.574,-28.44,27.44,11.61,-56.43,-48.72,39.3,-11.25,7.346,2.351,-46.27,-27.26,-16.45,-6.508,0,0,0,0,0,0,0,0,0,0,0,0,0,0,0,0,
653,5.296,-40.98,4.363,-15.62,39.14,11.22,-53.44,-30.64,26.01,-8.979,7.303,-1.012,-49.33,-29.46,-28.31,-19.81,0,0,0,0,0,0,0,0,0,0,0,0,0,0,0,0,
654,14.64,-33.95,-3.098,-7.122,25.82,19.92,-42.66,-26.26,20.53,-10.6,11.21,0.5051,-45.08,-30.46,-31.59,-29.68,0,0,0,0,0,0,0,0,0,0,0,0,0,0,0,0,
655,16.58,-25.7,-5.875,-8.421,17.2,17.05,-40.89,-36.94,20.86,-9.317,12.93,9.64,-36.08,-23.36,-22.08,-27.3,0,0,0,0,0,0,0,0,0,0,0,0,0,0,0,0,
656,5.98,-31.39,4.678,-25.94,14.06,5.738,-50.19,-49.09,16.37,-10.16,9.577,14.56,-33.05,-14.14,-13.11,-22.3,0,0,0,0,0,0,0,0,0,0,0,0,0,0,0,0,
657,10.12,-31.25,8.96,-33.09,14.51,12.71,-42.18,-48.1,12.88,-17.68,7.046,12.21,-35.58,-11.83,-6.649,-16.88,0,0,0,0,0,0,0,0,0,0,0,0,0,0,0,0,T2
658,13.63,-23.44,15.55,-17.11,25.84,27.9,-17.28,-31.6,17.17,-17.34,11.83,19.56,-29.43,-9.377,9.583,-4.389,0,0,0,0,0,0,0,0,0,0,0,0,0,0,0,0,
659,6.734,-23.77,11.78,-16.25,34.72,28.58,-11.09,-32.16,21.03,-17.94,20.56,32.69,-16.71,-2.881,30.69,12.48,0,0,0,0,0,0,0,0,0,0,0,0,0,0,0,0,
660,12.1,-25.27,4.764,-26.75,40.16,24.4,-20.05,-50.77,11.17,-28.47,18.9,28.98,-6.036,2.012,36.34,25.98,0,0,0,0,0,0,0,0,0,0,0,0,0,0,0,0,
661,16.08,-18.78,20.44,-19.42,46.3,26.42,-18.09,-48.25,-1.948,-29.84,0.619,13.89,-2.549,2.614,18.94,26.37,0,0,0,0,0,0,0,0,0,0,0,0,0,0,0,0,
662,4.503,-19.15,26.95,-18.1,29.11,25.26,-18.4,-33.41,-8.708,-26.93,-17.65,9.114,-14.18,-4.527,-0.3076,12.21,0,0,0,0,0,0,0,0,0,0,0,0,0,0,0,0,
663,1.927,-26.53,17.34,-20.52,14.46,29.48,-16.47,-27.54,-10.02,-30.28,-12.31,22.11,-23.29,-15.57,5.366,2.304,0,0,0,0,0,0,0,0,0,0,0,0,0,0,0,0,
664,14.55,-17.22,22.18,-0.8259,44.49,47.9,8.052,-19.89,-1.677,-24.02,7.787,33.58,-13.24,-17.07,15.42,3.175,0,0,0,0,0,0,0,0,0,0,0,0,0,0,0,0,
665,15.36,-2.772,27.03,0.7174,55.44,42.5,15.79,-17.89,-8.908,-14.16,0.9265,10.03,-14.28,-15.6,-8.388,-8.545,0,0,0,0,0,0,0,0,0,0,0,0,0,0,0,0,
666,-8.786,-10.87,28.63,-26.99,18.19,3.157,-4.782,-26.66,-40.46,-17.04,-29.23,-27.55,-33.67,-23.77,-36.05,-26.75,0,0,0,0,0,0,0,0,0,0,0,0,0,0,0,0,
667,-34.23,-25.17,37.41,-30.39,-0.5585,-20.6,-10.84,-28.75,-50.88,-24.38,-34.65,-31.05,-37.81,-28.71,-30.3,-23.2,0,0,0,0,0,0,0,0,0,0,0,0,0,0,0,0,
668,-43.13,-27.91,23.08,-20.11,-13.59,-24.21,-17.14,-25.95,-41.18,-28.82,-25.81,-23.68,-33.56,-24.44,-26.24,-18.85,0,0,0,0,0,0,0,0,0,0,0,0,0,0,0,0,
669,-49.33,-29.41,-7.714,-31.63,-36.22,-33.3,-31.53,-29.83,-44.22,-28.87,-35.54,-34.37,-39.37,-23.91,-38.44,-30.78,0,0,0,0,0,0,0,0,0,0,0,0,0,0,0,0,
670,-55.81,-30.84,-12.23,-42.04,-24.16,-38.51,-20.06,-36.8,-53.01,-28.13,-49.46,-44.66,-42.78,-28.63,-42.89,-35.29,0,0,0,0,0,0,0,0,0,0,0,0,0,0,0,0,
671,-55.08,-29.34,-2.593,-38.28,-6.585,-38.23,-8.706,-32.72,-64.65,-33.4,-64.3,-54.52,-42.03,-31.95,-51.09,-35.54,0,0,0,0,0,0,0,0,0,0,0,0,0,0,0,0,
672,-46.8,-27.03,8.686,-31.24,5.925,-27.12,-12.59,-17.54,-65.14,-35.42,-74.12,-54.49,-42.92,-34,-56.71,-42.35,0,0,0,0,0,0,0,0,0,0,0,0,0,0,0,0,
673,-24.14,-23.16,30.07,-20.15,35.78,3.588,-0.3794,-11.89,-37.38,-33.57,-54.3,-29.59,-47.44,-41.09,-38.17,-44.35,0,0,0,0,0,0,0,0,0,0,0,0,0,0,0,0,
674,-1.675,-23.49,33.41,-5.726,35.78,18.52,7.122,-10.7,-16.79,-35.64,-31.05,-12.82,-50.27,-42.99,-23.77,-37.5,0,0,0,0,0,0,0,0,0,0,0,0,0,0,0,0,
675,2.383,-22.69,21.52,2.797,20.92,7.551,-4.103,-4.307,-16.41,-26.22,-33.21,-14.54,-34.32,-21.43,-30.64,-28.08,0,0,0,0,0,0,0,0,0,0,0,0,0,0,0,0,
676,-0.6223,-13.2,28.28,-3.224,34.37,-4.591,-8.277,-10.26,-19.52,-6.512,-46.26,-20.79,-21.58,-3.688,-44.78,-34.86,0,0,0,0,0,0,0,0,0,0,0,0,0,0,0,0,
677,-13.8,-14.64,34.6,-5.994,39.48,-18.73,-11.88,-13.8,-27.8,-1.029,-51.61,-31.99,-32.92,-7.406,-51.42,-45.49,0,0,0,0,0,0,0,0,0,0,0,0,0,0,0,0,
678,-21.84,-21.03,31.55,1.609,39.51,-14.32,-13.16,-10.69,-12.8,-5.024,-26.37,-17,-25.89,7.787,-31.91,-22.93,0,0,0,0,0,0,0,0,0,0,0,0,0,0,0,0,
679,7.546,-4.345,29.7,-16.18,38.22,11.43,-3.224,-34.12,16.06,-4.661,4.513,15.53,-4.163,28.2,-17.89,-8.2,0,0,0,0,0,0,0,0,0,0,0,0,0,0,0,0,
680,20.89,4.405,12.19,-34.37,9.906,1.091,-8.847,-40.6,-9.219,-4.922,-18.2,-0.4038,-20.84,4.588,-50.92,-41.68,0,0,0,0,0,0,0,0,0,0,0,0,0,0,0,0,
681,-23.12,-20.8,-4.477,-9.071,-10.43,-38.95,-24.78,7.528,-59.05,-7.142,-62.52,-46.27,-51.97,-27.9,-88.71,-70.77,0,0,0,0,0,0,0,0,0,0,0,0,0,0,0,0,
682,-61.02,-39.01,-7.197,4.349,-29.52,-59.16,-27.83,37.16,-74.58,-8.046,-75.78,-66.91,-61.4,-32.63,-96.74,-75.16,0,0,0,0,0,0,0,0,0,0,0,0,0,0,0,0,
683,-71.87,-41.95,-17.37,-9.869,-70.64,-72.61,-36.71,26.42,-91.06,-10.37,-80.72,-76.4,-71.5,-34.61,-99.13,-84.1,0,0,0,0,0,0,0,0,0,0,0,0,0,0,0,0,
684,-89.11,-58.94,-18.6,-5.614,-90.22,-89.87,-53.44,23.66,-115,-17.29,-85.72,-89.54,-86.14,-40.83,-97.09,-89.65,0,0,0,0,0,0,0,0,0,0,0,0,0,0,0,0,
685,-103.2,-79.16,-19.06,-9.208,-99.68,-95.41,-61.82,21.53,-110.9,-23.21,-78.69,-95.27,-86.55,-36.83,-82.59,-79.16,0,0,0,0,0,0,0,0,0,0,0,0,0,0,0,0,
686,-104.7,-87.98,-41.76,-20.61,-104.9,-91.39,-69.93,13.3,-97.27,-21.31,-79.16,-90.17,-77.3,-22.47,-71.17,-62.09,0,0,0,0,0,0,0,0,0,0,0,0,0,0,0,0,
687,-94.66,-88.56,-35.16,-2.567,-73.76,-79.71,-70.33,11.14,-93.96,-22.76,-94.04,-79.61,-75.89,-16.07,-73.08,-56.58,0,0,0,0,0,0,0,0,0,0,0,0,0,0,0,0,
688,-78.43,-84.85,-8.282,2.146,-73.86,-73.45,-59.72,-2.544,-99.11,-37.43,-108.5,-83.56,-89.11,-33.9,-84.39,-67.31,0,0,0,0,0,0,0,0,0,0,0,0,0,0,0,0,
689,-84.4,-91.3,-26.12,-16.61,-113.6,-80.61,-64.52,-15.5,-110.1,-48.7,-112.1,-98.85,-94.66,-45.16,-87.58,-65.31,0,0,0,0,0,0,0,0,0,0,0,0,0,0,0,0,
690,-92.38,-93.72,-35.14,-7.738,-88.04,-71.02,-70.94,-3.403,-96.49,-42.32,-98.35,-89.47,-73.72,-26.21,-72.58,-43.25,0,0,0,0,0,0,0,0,0,0,0,0,0,0,0,0,
691,-65.28,-70.08,-1.152,7.168,-34.12,-45.04,-54.37,7.016,-57.17,-31.19,-74.55,-59.95,-52.89,-18.08,-55.05,-31.12,0,0,0,0,0,0,0,0,0,0,0,0,0,0,0,0,
692,-40.08,-53.96,6.045,-1.29,-32.49,-31.24,-37.08,5.444,-38.5,-30.74,-52.4,-39.15,-50.12,-32.66,-43.18,-32.46,0,0,0,0,0,0,0,0,0,0,0,0,0,0,0,0,
693,-29.53,-56.12,5.324,-0.1347,-21.9,-11.72,-19.16,16.28,-34.91,-34.11,-28.3,-17.53,-39.65,-32.02,-27.47,-29.27,0,0,0,0,0,0,0,0,0,0,0,0,0,0,0,0,
694,2.368,-38.89,42.8,17.43,15.88,23.23,10.81,29.31,-17.04,-31.92,-3.455,11.32,-13.33,-19.3,-4.267,-15.96,0,0,0,0,0,0,0,0,0,0,0,0,0,0,0,0,
695,35.91,-6.401,65.45,32.8,15.31,45.28,33.64,28.39,-5.518,-28.4,15.32,36.55,15.05,-11.26,26.62,7.937,0,0,0,0,0,0,0,0,0,0,0,0,0,0,0,0,
696,50.15,23.93,61.51,49.04,2.431,54.09,59.09,35.78,-8.405,-18.37,35.44,67.02,48.03,0.0034,61.26,32.76,0,0,0,0,0,0,0,0,0,0,0,0,0,0,0,0,
697,65.06,53.6,60.74,56.63,16.69,58.96,85.76,54.07,-3.918,-2.056,54.99,96.21,72.93,2.954,84.53,41.21,0,0,0,0,0,0,0,0,0,0,0,0,0,0,0,0,
698,74.94,64.52,51.9,51.05,9.849,53.61,77.79,53.74,4.66,-1.391,62.39,102.9,68.91,-7.006,88.35,34.18,0,0,0,0,0,0,0,0,0,0,0,0,0,0,0,0,
699,71.69,55.99,56.95,53.83,-18.15,42.61,62.77,44.48,8.046,-8.61,64.55,95.43,53.7,-7.28,77.54,20.69,0,0,0,0,0,0,0,0,0,0,0,0,0,0,0,0,
700,62.71,50.66,75.28,55.92,-12.46,29.9,71.33,57.88,10.09,4.004,60.21,79.73,44.41,-4.088,57.1,-1.57,0,0,0,0,0,0,0,0,0,0,0,0,0,0,0,0,
701,47.33,49.28,58.98,47.96,5.539,22.78,71.81,78.08,10.22,27.12,46.89,60.15,35.46,-9.035,35.68,-25.32,0,0,0,0,0,0,0,0,0,0,0,0,0,0,0,0,
702,41.04,47.46,42.11,53.89,0.6176,24.09,59.73,77.97,9.726,39.19,41.87,51.03,24.77,-8.329,14.32,-40.28,0,0,0,0,0,0,0,0,0,0,0,0,0,0,0,0,
703,42.17,35.22,46.09,56.2,-4.118,9.379,39.74,67.72,6.092,35.9,26.55,29.46,5.958,-9.443,-17.48,-54.67,0,0,0,0,0,0,0,0,0,0,0,0,0,0,0,0,
704,20.41,7.271,28.59,37.31,-2.172,-13.17,8.872,61.34,-10.03,26.85,-14.55,-9.864,-9.918,-17.57,-43.98,-63.56,0,0,0,0,0,0,0,0,0,0,0,0,0,0,0,0,
705,-5.733,-3.842,28.42,38.21,-4.775,-12.87,3.876,58.92,-28.06,26.25,-36.09,-22.19,-1.191,-10.62,-43.17,-53.53,0,0,0,0,0,0,0,0,0,0,0,0,0,0,0,0,
706,-7.546,9.411,56.42,54.63,-3.677,-8.232,17.29,58.06,-29.16,25.44,-32.2,-14.85,11.21,4.873,-33.92,-38.48,0,0,0,0,0,0,0,0,0,0,0,0,0,0,0,0,
707,-4.943,13.08,41.99,48.24,-2.522,-7.497,10.39,50.98,-18.83,13.92,-34.04,-14.26,13.11,10.56,-30.44,-30.76,0,0,0,0,0,0,0,0,0,0,0,0,0,0,0,0,
708,1.442,11.42,22.41,38.75,-11.07,4.073,12.03,38.37,-12.56,5.868,-23.2,6.231,26.79,17.75,-15.4,-20.23,0,0,0,0,0,0,0,0,0,0,0,0,0,0,0,0,
709,24.59,23.71,45.09,38.13,-17.77,7.562,26.7,32.12,-12.83,6.086,1.091,40.78,51.59,33.98,12.98,3.749,0,0,0,0,0,0,0,0,0,0,0,0,0,0,0,0,
710,40.34,42.09,52.79,28.89,-10.46,6.268,20.1,29.51,-10.5,9.405,15.03,56.83,77.13,52.69,40.56,33.65,0,0,0,0,0,0,0,0,0,0,0,0,0,0,0,0,
711,46.14,62.16,39.85,18.37,1.493,19.43,13.91,21.72,1.515,14.54,37.09,72.3,96.52,60.17,61.71,45.32,0,0,0,0,0,0,0,0,0,0,0,0,0,0,0,0,
712,63.17,71.55,31.96,8.02,5.94,26.2,17.65,15.22,13.63,14.57,66.84,93.36,93.13,46.15,71.91,39.03,0,0,0,0,0,0,0,0,0,0,0,0,0,0,0,0,
713,72.67,59.83,15.61,-3.367,4.07,23.38,14.34,19.33,17.11,16.39,72.03,91.17,81.56,38.16,68.11,38.98,0,0,0,0,0,0,0,0,0,0,0,0,0,0,0,0,
714,58.74,50.67,7.639,-1.163,-12.86,20.66,17.04,30.3,19.88,28.22,59.6,74.13,79.18,54.83,54.34,39.76,0,0,0,0,0,0,0,0,0,0,0,0,0,0,0,0,
715,43.09,51.45,11.98,4.602,-36.45,10.67,18.12,38.67,23.37,36.9,51.02,64.74,69.42,61.46,40.04,27.84,0,0,0,0,0,0,0,0,0,0,0,0,0,0,0,0,
716,36.52,51.77,17.19,8.974,-20.08,15.31,16.17,47.4,25.25,42.71,45.21,54.62,61.15,50.63,34.35,18.36,0,0,0,0,0,0,0,0,0,0,0,0,0,0,0,0,
717,32.15,61.27,34.97,24.59,17.82,31.39,32.23,59.45,28.12,52.58,38.81,40.72,66.45,49.17,30.11,16.58,0,0,0,0,0,0,0,0,0,0,0,0,0,0,0,0,
718,23.14,65.54,31.78,31.28,16.05,17.67,35.23,62.74,23.96,55.94,29.39,30.66,55.66,42.6,13.87,5.484,0,0,0,0,0,0,0,0,0,0,0,0,0,0,0,0,
719,10.71,49.5,2.978,23.81,9.358,2.133,21.09,62.9,17.6,55.24,16.64,22.27,31.52,22.23,-1.987,-11.03,0,0,0,0,0,0,0,0,0,0,0,0,0,0,0,0,
720,12.16,45.81,7.192,28.41,24.85,16.19,36.09,72.95,20.03,56.64,8.396,17.92,30.41,16.98,0.7984,-10.82,0,0,0,0,0,0,0,0,0,0,0,0,0,0,0,0,
721,26.88,62.56,26.37,37.17,6.817,20.56,59.96,75.29,16.48,53.59,9.417,22.46,47.55,28.82,12.06,3.661,0,0,0,0,0,0,0,0,0,0,0,0,0,0,0,0,
722,33.41,72.58,27.38,37.72,-24.38,7.829,62.59,66.13,10.21,52.56,16.72,31.42,57.03,42.88,15.95,13.84,0,0,0,0,0,0,0,0,0,0,0,0,0,0,0,0,
723,31.06,67.72,29.67,34.61,-15.79,-2.827,58.04,63.08,15.41,51.75,19.53,32.37,50.14,54.73,10.68,16.63,0,0,0,0,0,0,0,0,0,0,0,0,0,0,0,0,
724,29.36,51.92,23.72,24.82,-3.794,-13.49,51.36,55.67,17.99,37.6,14.51,27.38,43.04,58.31,7.396,21.53,0,0,0,0,0,0,0,0,0,0,0,0,0,0,0,0,
725,34.68,47.02,15.32,20.19,-2.643,-8.091,52.67,37.57,22.62,25.08,21.41,45.4,61.73,62.67,24.32,39.21,0,0,0,0,0,0,0,0,0,0,0,0,0,0,0,0,
726,45.12,59.72,13,15.71,0.5566,-0.5483,47.9,21.32,31.36,22.47,37.99,71.43,83.26,69.76,46.84,58.86,0,0,0,0,0,0,0,0,0,0,0,0,0,0,0,0,
727,40.42,52.05,-16.32,-10.9,-26.4,-23.03,15.02,3.85,19.07,13.25,36.44,55.82,71.16,65.7,43.58,55.82,0,0,0,0,0,0,0,0,0,0,0,0,0,0,0,0,
728,22.8,23.77,-44.28,-31.01,-61.06,-44.3,-9.357,-10.09,2.093,3.724,28.86,26.1,51.67,64.13,29.44,40.94,0,0,0,0,0,0,0,0,0,0,0,0,0,0,0,0,
729,10.14,7.745,-38.83,-28.21,-55.34,-50.74,-24.44,-12.49,-1.225,4.636,30.74,21.62,48.02,69.48,25.48,37.08,0,0,0,0,0,0,0,0,0,0,0,0,0,0,0,0,
730,-7.578,2.151,-41.97,-37.88,-42.11,-68.96,-55.43,-20.21,-9.271,9.053,20.98,13.69,44.58,61.13,16.46,34.72,0,0,0,0,0,0,0,0,0,0,0,0,0,0,0,0,
731,-33.49,-0.3803,-53.63,-54.8,-47.63,-89.17,-64.73,-30.39,-19.61,13.55,0.2694,-7.774,35.93,46.05,-6.388,19.42,0,0,0,0,0,0,0,0,0,0,0,0,0,0,0,0,
732,-58.02,-9.885,-52.39,-51.1,-58.75,-105.5,-58.61,-23.99,-34.61,9.362,-19.19,-26.48,17.47,35.1,-30.54,-3.447,0,0,0,0,0,0,0,0,0,0,0,0,0,0,0,0,
733,-75.38,-29.17,-57.87,-44.17,-65.33,-114.3,-71.4,-22.76,-54.16,-3.331,-35.1,-37.23,-2.865,25.73,-37.95,-13.69,0,0,0,0,0,0,0,0,0,0,0,0,0,0,0,0,
734,-70.16,-31.31,-64.07,-49.77,-45.92,-97.31,-71.57,-37.39,-46.87,-5.771,-32.53,-39.09,-11.09,20.25,-31.64,-10.32,0,0,0,0,0,0,0,0,0,0,0,0,0,0,0,0,
735,-58.5,-30.73,-56.99,-47.11,-34.79,-82.07,-57.71,-25.03,-34.02,-1.569,-24.74,-47.48,-27.8,10.23,-34.69,-16.19,0,0,0,0,0,0,0,0,0,0,0,0,0,0,0,0,
736,-67.97,-53.06,-50.91,-29.14,-83.13,-87.96,-57.63,11.61,-56.43,-4.676,-40.53,-57.34,-45.62,-3.913,-41.35,-23.37,0,0,0,0,0,0,0,0,0,0,0,0,0,0,0,0,
737,-75.35,-57.61,-51.94,-22.51,-121.9,-85.29,-57.46,14.47,-84.04,-10,-64.12,-54.84,-33.8,-7.53,-42.41,-18.79,0,0,0,0,0,0,0,0,0,0,0,0,0,0,0,0,
738,-69.02,-32.95,-51.92,-30.54,-104.1,-72.66,-52.56,-7.721,-87.08,-12.73,-72.98,-56.92,-16.22,-3.403,-50.9,-17.99,0,0,0,0,0,0,0,0,0,0,0,0,0,0,0,0,
739,-67.21,-22.18,-49.89,-30.82,-99.79,-71.05,-54.77,-7.895,-78.73,-11.37,-67.65,-51.74,-11.5,2.41,-53.04,-14.5,0,0,0,0,0,0,0,0,0,0,0,0,0,0,0,0,
740,-63.8,-22.35,-54.14,-23.91,-107.7,-78.07,-57.15,6.631,-66.06,-0.4675,-40.73,-19.71,1.65,13.86,-23.7,10.34,0,0,0,0,0,0,0,0,0,0,0,0,0,0,0,0,
741,-43.12,0.6072,-41.75,-3.571,-65.38,-64.13,-25.9,27.1,-23.14,29.47,34,38.59,44.73,49.41,53.33,69.64,0,0,0,0,0,0,0,0,0,0,0,0,0,0,0,0,
742,18.03,57.67,19.03,42.95,7.233,-4.636,54.43,65.3,71.09,80.68,151,133.2,123.3,117.9,167.5,160,0,0,0,0,0,0,0,0,0,0,0,0,0,0,0,0,
743,106.4,123.2,77.62,79.7,54.94,52.96,109.1,96.44,142.7,118.2,222.2,200,175.9,164.2,225.9,207,0,0,0,0,0,0,0,0,0,0,0,0,0,0,0,0,
744,129.5,136.2,58.59,65.23,33.41,42.35,74.22,83.63,104.2,105.2,180.8,158.6,139.3,141.2,170.3,162,0,0,0,0,0,0,0,0,0,0,0,0,0,0,0,0,
745,64.92,82.93,-10.11,12.53,-41.04,-14.39,5.031,35.22,21.79,63.83,90.77,76.97,69.21,91.03,87.47,95.07,0,0,0,0,0,0,0,0,0,0,0,0,0,0,0,0,
746,6.321,29.21,-41.31,-30.67,-67.39,-61.06,-37.38,-4.447,-8.748,32.34,40.28,43.12,35.56,58.15,51.06,61.92,0,0,0,0,0,0,0,0,0,0,0,0,0,0,0,0,
747,-13.04,8.304,-30.94,-37.61,-39.74,-86.47,-55.2,-13.78,-12.95,13.29,29.79,37.19,25.95,39.55,34.3,46.29,0,0,0,0,0,0,0,0,0,0,0,0,0,0,0,0,
748,-21.11,-0.1104,-45.33,-33.38,-47.04,-98.17,-54.86,-11.68,-23.23,6.08,17.33,24.68,23.37,29.7,11.86,35.26,0,0,0,0,0,0,0,0,0,0,0,0,0,0,0,0,
749,-16.66,1.172,-66.06,-34.12,-59.92,-97.88,-41.93,-6.475,-24.4,12.29,-7.333,2.328,18.27,21.04,-12.29,18.19,0,0,0,0,0,0,0,0,0,0,0,0,0,0,0,0,
750,-15.13,3.574,-43.59,-23.24,-36.87,-94.54,-32.15,8.283,-24.98,14.12,-22.48,-16.24,-0.7476,10.34,-29.24,-5.28,0,0,0,0,0,0,0,0,0,0,0,0,0,0,0,0,
751,-31.64,-7.712,-38.84,-17.16,-47.81,-98.61,-34.2,22.14,-36.56,7.763,-27.06,-18.18,-10.6,9.742,-28.9,-7.932,0,0,0,0,0,0,0,0,0,0,0,0,0,0,0,0,
752,-38.38,-11.36,-70.78,-30.58,-80.4,-100.9,-39.37,24.41,-45.04,8.3,-30.22,-11.93,-1.244,15.43,-15.71,8.562,0,0,0,0,0,0,0,0,0,0,0,0,0,0,0,0,
753,-30.78,-2.87,-61.56,-33.42,-59.54,-92.88,-36.95,17.78,-40.44,10.42,-20.52,-0.2634,1.669,14.67,-2.749,10.95,0,0,0,0,0,0,0,0,0,0,0,0,0,0,0,0,
754,-27.96,-2.156,-29.87,-23.44,-38.72,-87.57,-38.58,13.36,-33.77,8.623,-9.107,14.69,0.3408,13.73,4.859,0.8145,0,0,0,0,0,0,0,0,0,0,0,0,0,0,0,0,
755,-27.21,0.1753,-33.25,-23.73,-70.04,-89.06,-49.73,16.56,-42.4,11.91,-16.26,11.75,3.897,17.56,6.712,0.5693,0,0,0,0,0,0,0,0,0,0,0,0,0,0,0,0,
756,-30.57,4.284,-43.27,-22.54,-84.78,-88.03,-48.42,16.05,-55.25,12.5,-23.77,-6.606,-3.102,20.37,5.397,4.69,0,0,0,0,0,0,0,0,0,0,0,0,0,0,0,0,
757,-40.4,-3.833,-41.97,-11.96,-60.87,-85.77,-34.65,9.87,-52.86,3.642,-18.01,-13.34,-6.853,21.39,9.079,8.475,0,0,0,0,0,0,0,0,0,0,0,0,0,0,0,0,
758,-43.4,-9.387,-42.4,-12.55,-63.95,-88.62,-38.02,3.011,-51.7,-5.649,-11.14,-7.936,7.135,21.79,20.14,18.98,0,0,0,0,0,0,0,0,0,0,0,0,0,0,0,0,
759,-42.84,-7.807,-39.04,-21.47,-93.55,-94.05,-56.27,-7.25,-59.62,-12.14,-7.114,-4.178,16.45,29.97,31.09,31.03,0,0,0,0,0,0,0,0,0,0,0,0,0,0,0,0,
760,-44.58,-8.165,-34.5,-19.85,-89.06,-83.51,-57.01,-8.041,-59.63,-11.09,-5.041,-0.0068,24.67,45.69,38.77,43.45,0,0,0,0,0,0,0,0,0,0,0,0,0,0,0,0,
761,-38.43,-1.963,-34.26,-17.48,-58.74,-56.03,-44.22,0.1401,-58.95,-6.455,-8.978,2.95,35.93,41,42.17,50.39,0,0,0,0,0,0,0,0,0,0,0,0,0,0,0,0,
762,-29.29,3.376,-32.54,-25.72,-48.18,-47.17,-46.42,-6.929,-58.19,-12.83,-12.79,1.811,28.44,20.64,41.35,45.61,0,0,0,0,0,0,0,0,0,0,0,0,0,0,0,0,
763,-25.67,-2.642,-33.31,-33.38,-41.56,-55.91,-50.49,-13.07,-41.57,-16.75,-4.766,6.742,25.24,21.78,43.37,50.55,0,0,0,0,0,0,0,0,0,0,0,0,0,0,0,0,
764,-19.84,-1.365,-42.34,-31.22,-30.15,-49.43,-35.23,4.702,-30.53,-6.022,5.235,13.1,37.98,31.17,42.62,60.27,0,0,0,0,0,0,0,0,0,0,0,0,0,0,0,0,
765,-15.06,6.822,-49.67,-22.36,-47.3,-47.43,-25.66,15.17,-38.81,-2.982,2.13,11.01,25.63,22.47,32.07,48.17,0,0,0,0,0,0,0,0,0,0,0,0,0,0,0,0,
766,-20.36,-2.446,-46.57,-24.4,-56.02,-68,-37.36,1.477,-39.53,-14.05,-0.3445,10.58,-1.327,5.181,27.86,34.4,0,0,0,0,0,0,0,0,0,0,0,0,0,0,0,0,
767,-23.57,-20.29,-38.21,-35.68,-16.38,-71.53,-42.78,-3.736,-24.92,-19.32,11.94,16.25,-5.73,-10.73,34.02,35.2,0,0,0,0,0,0,0,0,0,0,0,0,0,0,0,0,
768,-10.75,-21.29,-28.15,-22.15,5.008,-47.12,-35.74,9.434,-8.489,-15.61,25.16,22.01,-1.239,-13.75,32.9,33.65,0,0,0,0,0,0,0,0,0,0,0,0,0,0,0,0,
769,5.055,-12.21,-16.33,2.64,-7.006,-31.56,-35.01,15.26,1.537,-14.46,24.45,21.51,-2.881,-6.926,22.62,29.37,0,0,0,0,0,0,0,0,0,0,0,0,0,0,0,0,
770,4.545,-10.56,-4.386,2.237,8.559,-28.37,-29.45,9.594,2.031,-16.02,14.69,11.47,-6.819,-11.29,12.87,26.48,0,0,0,0,0,0,0,0,0,0,0,0,0,0,0,0,
771,1.459,-12.9,8.732,4.735,26.14,-15.94,-13.61,11.49,0.6484,-13.27,3.797,2.65,-15.2,-20.12,1.495,16.13,0,0,0,0,0,0,0,0,0,0,0,0,0,0,0,0,
772,12.49,-11.03,20.21,25.82,20.29,-6.129,-11.91,21.88,-2.222,-8.71,-13.4,-2.968,-28.15,-30.18,-18.85,-6.741,0,0,0,0,0,0,0,0,0,0,0,0,0,0,0,0,
773,12.29,-9.822,24.91,35.06,30.89,-13.34,-14.85,25.63,-10.33,-5.695,-30.79,-10.16,-38.85,-43.54,-38.96,-30.77,0,0,0,0,0,0,0,0,0,0,0,0,0,0,0,0,
774,-8.581,-16.29,18.16,31.91,40.3,-18.24,-3.777,21.09,-12.37,-1.291,-33.54,-11.79,-38.86,-34.64,-43.9,-35.38,0,0,0,0,0,0,0,0,0,0,0,0,0,0,0,0,
775,-15.84,-22.4,3.246,26.86,25.33,-17.1,-1.427,20.42,-13.46,2.696,-34.7,-16.68,-28.45,-10.82,-39.36,-22.93,0,0,0,0,0,0,0,0,0,0,0,0,0,0,0,0,
776,-15.58,-22.24,-1.932,20.4,7.618,-35.21,-16.59,23.63,-31.13,0.4185,-42.35,-30.1,-20.96,-1.109,-31.55,-12.06,0,0,0,0,0,0,0,0,0,0,0,0,0,0,0,0,
777,-37.65,-28.07,-1.201,20.47,-21.34,-66.85,-29.84,21.22,-51.96,-7.922,-40.17,-33.56,-22.29,3.12,-16.8,-4.574,0,0,0,0,0,0,0,0,0,0,0,0,0,0,0,0,
778,-54.53,-31.07,0.8565,28.31,-41.89,-74.78,-25.11,24.63,-50.44,-9.016,-29.25,-27.74,-16.69,9.807,-4.71,5.411,0,0,0,0,0,0,0,0,0,0,0,0,0,0,0,0,
779,-46.5,-14.96,22.62,41.4,-18.36,-55.99,-3.971,39.9,-32.43,2.119,-20.62,-25.44,-2.078,13.7,-5.418,9.097,0,0,0,0,0,0,0,0,0,0,0,0,0,0,0,0,
780,-45.5,-10.79,29.75,44.01,-3.263,-50.32,-2.683,37.97,-26.66,2.683,-21.46,-31.03,-7.686,10.97,-11.63,-2.132,0,0,0,0,0,0,0,0,0,0,0,0,0,0,0,0,
781,-54.11,-30.73,4.587,26.07,-19.29,-64.01,-24.87,18,-30.8,-7.053,-26.36,-36.96,-23.21,4.53,-7.095,-4.247,0,0,0,0,0,0,0,0,0,0,0,0,0,0,0,0,
782,-51.34,-33.92,9.293,18.26,-6.335,-59.59,-26.87,13.01,-18.65,-3.609,-13.02,-23.14,-12.3,10.22,9.073,12.89,0,0,0,0,0,0,0,0,0,0,0,0,0,0,0,0,
783,-50.53,-24.5,14.26,15.61,10.22,-53.11,-30.05,8.855,-12.43,-5.891,-3.113,-11.72,-8.757,11.96,9.353,8.986,0,0,0,0,0,0,0,0,0,0,0,0,0,0,0,0,
784,-64.43,-35.28,-33.2,-13.73,-32.77,-81.95,-63.43,-13.68,-36.97,-22.62,-26.73,-35.06,-32,-4.496,-8.568,-10.96,0,0,0,0,0,0,0,0,0,0,0,0,0,0,0,0,
785,-75.63,-43.93,-39.7,-24.17,-66.82,-98.73,-72.48,-18.41,-49.69,-20.19,-41.19,-51.35,-30.11,-3.11,-9.964,-6.432,0,0,0,0,0,0,0,0,0,0,0,0,0,0,0,0,
786,-68.09,-32.38,9.284,2.275,-28.9,-75.71,-48.27,-2.805,-35.42,-9.726,-28.19,-38.43,-17.62,5.985,-0.7956,-4.196,0,0,0,0,0,0,0,0,0,0,0,0,0,0,0,0,
787,-52.97,-33.01,2.009,-5.15,-0.3557,-69.51,-47.42,-8.872,-32.09,-16.29,-25.75,-39.78,-34.03,-8.587,-6.888,-18.78,0,0,0,0,0,0,0,0,0,0,0,0,0,0,0,0,
788,-47.46,-51.35,-32.07,-37.07,-24.47,-78.14,-61.31,-22.28,-31.91,-18.89,-25.61,-48.09,-37.01,-8.705,-12.38,-14.75,0,0,0,0,0,0,0,0,0,0,0,0,0,0,0,0,
789,-45.39,-54.77,-19.21,-34.42,-36.38,-65.04,-59.57,-18,-23.44,-17.82,-16.09,-39.13,-24.94,3.715,-13.42,-8.488,0,0,0,0,0,0,0,0,0,0,0,0,0,0,0,0,
790,-46.3,-50.78,-15.63,-32.29,-28.22,-63.47,-62.36,-23.16,-34.99,-30.11,-26.34,-48.22,-42.52,-12.49,-31.34,-23.85,0,0,0,0,0,0,0,0,0,0,0,0,0,0,0,0,
791,-61.33,-62.88,-39.91,-52.39,-36.82,-82.8,-72.71,-36.92,-50.24,-36.31,-48.01,-75.31,-57.6,-20.76,-49.58,-29.1,0,0,0,0,0,0,0,0,0,0,0,0,0,0,0,0,
792,-69.66,-68.54,-39.17,-51.34,-53.91,-88.37,-68.79,-32.51,-40.55,-28.27,-50.31,-75.05,-46.87,-3.507,-43.99,-15.7,0,0,0,0,0,0,0,0,0,0,0,0,0,0,0,0,
793,-57.45,-59.82,-33.92,-39.94,-63.8,-86.56,-60.56,-22.88,-33.93,-24.66,-44.95,-63.27,-52.09,-6.261,-36.63,-14.67,0,0,0,0,0,0,0,0,0,0,0,0,0,0,0,0,
794,-53.17,-64.57,-47.83,-46.99,-60.44,-90.33,-63.21,-19.96,-41.39,-26.12,-52.03,-77.32,-68.38,-21.1,-48.27,-28.76,0,0,0,0,0,0,0,0,0,0,0,0,0,0,0,0,
795,-65.23,-74.9,-47.14,-52.34,-56.64,-92.86,-70.86,-20.88,-45.03,-24.86,-62.41,-96.06,-61.46,-19.37,-59.83,-35.78,0,0,0,0,0,0,0,0,0,0,0,0,0,0,0,0,
796,-71.08,-69.23,-38.86,-46.17,-67.01,-88.33,-75.1,-26.2,-55.17,-24.04,-65.67,-93.88,-49.57,-17.76,-57.24,-37.12,0,0,0,0,0,0,0,0,0,0,0,0,0,0,0,0,
797,-65.09,-57.79,-36.27,-33.64,-65.37,-71.78,-63.87,-21.94,-70.82,-26.2,-70.06,-85.85,-53.65,-28.43,-54.31,-45.11,0,0,0,0,0,0,0,0,0,0,0,0,0,0,0,0,
798,-61.32,-53.87,-17.43,-18.46,-63.5,-63.48,-47.37,-15.99,-74.74,-33.13,-79.74,-89.7,-60.57,-43.33,-58.29,-49.13,0,0,0,0,0,0,0,0,0,0,0,0,0,0,0,0,
799,-70.9,-61.15,-9.201,-16.72,-98.81,-80.17,-56.7,-29.62,-81.99,-43.36,-86.16,-101.5,-61.3,-49.58,-59.08,-41.31,0,0,0,0,0,0,0,0,0,0,0,0,0,0,0,0,
800,-86.56,-71.68,-30.03,-23.12,-123.6,-96.48,-72.85,-37.71,-98.12,-45.77,-88.94,-106.3,-59.92,-43.65,-53.85,-36.51,0,0,0,0,0,0,0,0,0,0,0,0,0,0,0,0,
801,-92.23,-71.14,-32.66,-18.3,-107.1,-98.4,-63.6,-27.11,-98.8,-38.85,-92.33,-98.52,-61.8,-44.39,-53.31,-40.71,0,0,0,0,0,0,0,0,0,0,0,0,0,0,0,0,
802,-87.37,-66.87,-19.04,-12.55,-97.69,-96.87,-58.98,-26.57,-89.51,-36.91,-92.5,-92.14,-64.82,-51.26,-61.73,-41.82,0,0,0,0,0,0,0,0,0,0,0,0,0,0,0,0,
803,-82.86,-69.89,-28.34,-18.86,-96.45,-93.41,-75.74,-34.04,-89.81,-39.78,-89.67,-94.44,-54.2,-41.26,-65.41,-32.54,0,0,0,0,0,0,0,0,0,0,0,0,0,0,0,0,
804,-80.18,-66.65,-43.14,-27.58,-80.5,-86.36,-78.8,-28.99,-86.9,-30.2,-83.22,-88.4,-25.78,-19.34,-50.63,-15.09,0,0,0,0,0,0,0,0,0,0,0,0,0,0,0,0,
805,-71.62,-49.84,-41.45,-31.86,-75.82,-78.76,-64.76,-23.02,-74.82,-12.1,-63.98,-69.08,-3.068,-4.655,-27.15,1.089,0,0,0,0,0,0,0,0,0,0,0,0,0,0,0,0,
806,-59.59,-37.82,-36.88,-34.44,-86.12,-78.74,-57.01,-28.03,-68.06,-7.101,-40.01,-55.55,-5.734,-4.938,-14.67,2.606,0,0,0,0,0,0,0,0,0,0,0,0,0,0,0,0,
807,-49.96,-36.24,-32.57,-24.04,-74.81,-79.42,-43.71,-24.09,-56.91,-8.118,-26.7,-45.11,-14.42,-13.9,-8.562,-1.683,0,0,0,0,0,0,0,0,0,0,0,0,0,0,0,0,
808,-37.1,-27.63,-17.3,3.024,-41.52,-61.82,-17.07,-2.648,-34.49,1.849,-19.71,-26.48,-6.458,-16.09,2.749,5.84,0,0,0,0,0,0,0,0,0,0,0,0,0,0,0,0,
809,-27.08,-13.68,-2.605,14.53,-26.89,-43.49,-4.759,8.33,-25,7.759,-17.51,-16.05,1.736,-16.12,9.573,9.909,0,0,0,0,0,0,0,0,0,0,0,0,0,0,0,0,
810,-25.07,-5.74,-4.176,5.958,-31.64,-39.25,-7.548,4.933,-26.28,4.543,-18.88,-13.78,2.634,-16.29,12.97,6.304,0,0,0,0,0,0,0,0,0,0,0,0,0,0,0,0,
811,-9.783,5.984,-3.026,10.57,-14.33,-21.73,1.998,8.089,-11.99,10.17,-14.95,-6.041,15.67,0.9539,20.7,17.77,0,0,0,0,0,0,0,0,0,0,0,0,0,0,0,0,
812,13.81,17.61,8.226,19.18,11.88,2.479,15.89,6.765,5.013,14.9,-19.92,-9.44,27.84,17.65,14.67,26.75,0,0,0,0,0,0,0,0,0,0,0,0,0,0,0,0,
813,12.96,12.05,9.346,16.6,4.688,0.9959,15.88,-1.335,0.2835,8.049,-31.48,-22.05,17.85,9.723,-0.3334,15.16,0,0,0,0,0,0,0,0,0,0,0,0,0,0,0,0,
814,-6.183,0.129,11.67,20,-5.534,-13.1,6.66,2.351,-11.4,3.79,-18.38,-23.29,1.679,-0.9464,1.093,7.971,0,0,0,0,0,0,0,0,0,0,0,0,0,0,0,0,
815,-20.88,-6.654,22.67,21.43,13.01,-21.46,-10.13,2.087,-10.9,1.122,-4.814,-28.91,-7.811,-4.343,0.2061,6.527,0,0,0,0,0,0,0,0,0,0,0,0,0,0,0,0,
816,-27.41,-14.03,16.46,14.07,15.12,-27.96,-24.61,-14.07,-8.174,-4.578,-24.68,-44.61,-11.7,-13.62,-16.63,-2.14,0,0,0,0,0,0,0,0,0,0,0,0,0,0,0,0,
817,-21.53,-16.91,7.779,15.28,-1.907,-21.2,-21.61,-24.85,-6.613,-5.769,-36.28,-45.91,-4.382,-20.23,-23.16,-5.166,0,0,0,0,0,0,0,0,0,0,0,0,0,0,0,0,
818,-6.99,-12.68,21.87,21.97,18.61,1.629,-15.52,-20.23,3.148,-4.589,-16.43,-34.16,8.884,-15.23,-19.04,1.453,0,0,0,0,0,0,0,0,0,0,0,0,0,0,0,0,
819,-0.1723,-12.81,18.89,25.08,33.45,5.861,-19.16,-9.262,3.908,-2.621,-8.194,-33.32,6.748,-13.31,-23.5,2.127,0,0,0,0,0,0,0,0,0,0,0,0,0,0,0,0,
820,-5.864,-17.79,-17.34,16.93,-9.264,-16.3,-22.72,-8.165,-6.514,-0.3479,-17.09,-46.41,-18.83,-28.19,-31.34,-15.74,0,0,0,0,0,0,0,0,0,0,0,0,0,0,0,0,
821,-12.98,-24.15,-21.65,-0.9249,-12.57,-24.44,-28.82,-19.41,10.81,-4.284,-3.989,-46.23,-42.79,-46.2,-31.1,-37.18,0,0,0,0,0,0,0,0,0,0,0,0,0,0,0,0,
822,-8.785,-36.61,22.7,6.736,52.13,-19.03,-43.64,-21.43,40.9,-12.16,18.79,-28.22,-48.03,-51.31,-26.66,-41.5,0,0,0,0,0,0,0,0,0,0,0,0,0,0,0,0,
823,0.2222,-47.66,47.61,35.86,61.76,-30.32,-52.61,-11.15,31.85,-20.61,8.131,-29.9,-55.94,-58.45,-31.34,-46.66,0,0,0,0,0,0,0,0,0,0,0,0,0,0,0,0,
824,-5.541,-48.38,32.62,39.52,16.62,-34.62,-46.29,-4.162,7.339,-25.35,-19.61,-50.39,-66.26,-70.76,-43.18,-55.67,0,0,0,0,0,0,0,0,0,0,0,0,0,0,0,0,
825,-20.14,-45.13,17.73,30.19,10.89,-17.13,-34.3,-0.3669,4.468,-18.43,-29.83,-52.59,-52.79,-65.99,-44.67,-41.85,0,0,0,0,0,0,0,0,0,0,0,0,0,0,0,0,
826,-21.06,-36.57,18.15,33.36,18,-13.84,-25.69,0.4664,-2.506,-9.464,-35.81,-43.93,-32.14,-53.14,-36.53,-24.28,0,0,0,0,0,0,0,0,0,0,0,0,0,0,0,0,
827,-16.02,-24.9,19.32,26,-7.164,-28.78,-26.4,-3.666,-22.56,-7.706,-45.18,-46.11,-30.25,-48.68,-32.71,-26.56,0,0,0,0,0,0,0,0,0,0,0,0,0,0,0,0,
828,-22.72,-24.5,5.944,11.69,-21.06,-37.52,-36.56,-6.833,-27,-4.83,-46.75,-52.63,-33.12,-39.27,-36.97,-27.45,0,0,0,0,0,0,0,0,0,0,0,0,0,0,0,0,
829,-25.6,-23.89,-7.515,15.92,2.749,-32.31,-39.6,-10.09,-22.07,-0.784,-52.37,-55.51,-28.23,-25.47,-45.34,-21.42,0,0,0,0,0,0,0,0,0,0,0,0,0,0,0,0,
830,-16.34,-13.55,0.1933,23.08,17.36,-15.14,-29.54,-13.2,-31.58,0.4292,-62.98,-54.47,-23.73,-19.62,-49.45,-23.7,0,0,0,0,0,0,0,0,0,0,0,0,0,0,0,0,
831,-17.65,-16.47,4.5,15.63,-1.434,-6.506,-24.59,-14.05,-36.15,0.347,-58.3,-52.99,-25.62,-17.21,-46.69,-32.68,0,0,0,0,0,0,0,0,0,0,0,0,0,0,0,0,
832,-22.7,-29.22,-3.735,6.357,-2.009,-13.29,-26.5,-19.26,-15.79,-4.503,-39.96,-49.55,-29.13,-19.74,-40.27,-37.49,0,0,0,0,0,0,0,0,0,0,0,0,0,0,0,0,
833,-8.976,-23.97,3.695,5.884,20.61,-7.887,-18.22,-19.78,1.548,-8.251,-23.33,-38.2,-24.6,-26.4,-25.36,-30.81,0,0,0,0,0,0,0,0,0,0,0,0,0,0,0,0,
834,4.49,-7.449,11.96,8.377,10.43,6.112,-6.756,-9.169,0.6765,-2.367,-13.6,-27.95,-15.39,-23.14,-4.332,-15.91,0,0,0,0,0,0,0,0,0,0,0,0,0,0,0,0,
835,2.587,-1.125,-0.7126,5.556,-4.418,2.731,-13.74,-11.91,1.633,-0.2687,-8.913,-25.85,-15.84,-18.23,7.331,-4.435,0,0,0,0,0,0,0,0,0,0,0,0,0,0,0,0,
836,-2.276,-7.122,-9.125,1.553,16,-6.937,-27.92,-25.94,4.72,-7.507,-4.073,-20.72,-21.08,-21.46,10.81,2.334,0,0,0,0,0,0,0,0,0,0,0,0,0,0,0,0,
837,-5.681,-14.41,-0.1693,3.114,26.42,-6.746,-20.32,-23.95,3.604,-5.624,4.365,-11.01,-15.33,-15.48,18.3,11.62,0,0,0,0,0,0,0,0,0,0,0,0,0,0,0,0,
838,-4.046,-12.71,-1.419,4.41,17.69,-5.179,-3.613,-21.63,3.08,2.469,8.699,-13.12,-10.12,-7.177,20.58,15.09,0,0,0,0,0,0,0,0,0,0,0,0,0,0,0,0,
839,-3.8,-9.279,-20.15,2.786,13.97,-11.22,-5.932,-31.43,-1.621,-3.404,3.028,-25.15,-17.02,-16.34,10.69,7.214,0,0,0,0,0,0,0,0,0,0,0,0,0,0,0,0,
840,-12.88,-11.78,-10.51,4.993,1.893,-18.78,-9.333,-23.2,-1.337,-8.723,1.526,-18.82,-14.18,-19.47,8.909,7.359,0,0,0,0,0,0,0,0,0,0,0,0,0,0,0,0,
841,-9.058,-5.824,27.39,11.09,-2.356,-17.11,1.509,-0.7545,8.64,5.06,4.992,-1.296,-2.963,-9.67,14.23,7.871,0,0,0,0,0,0,0,0,0,0,0,0,0,0,0,0,
842,-1.645,4.253,25.86,15.93,16.73,-15.19,3.35,0.5292,1.75,14.2,-3.496,-11.28,-11.74,-19.93,6.233,-14.29,0,0,0,0,0,0,0,0,0,0,0,0,0,0,0,0,
843,-22.13,-6.702,3.01,22.28,23.84,-23.49,0.8659,-6.5,-12.67,8.047,-6.779,-29.59,-25.65,-39.12,2.353,-28.63,0,0,0,0,0,0,0,0,0,0,0,0,0,0,0,0,
844,-37.47,-21.2,19.14,37.41,19.91,-28.57,17.47,8.801,-5.762,9.41,3.789,-22.82,-25.03,-37.86,11.87,-17.77,0,0,0,0,0,0,0,0,0,0,0,0,0,0,0,0,
845,-28.73,-14.52,33.4,47.93,25.43,-31.81,30.96,22.67,-2.989,10.49,-6.319,-22.75,-28.89,-34.62,3.427,-17.35,0,0,0,0,0,0,0,0,0,0,0,0,0,0,0,0,
846,-34.76,-14.07,15.94,35.42,10.1,-48.19,15.1,6.278,-23.25,-5.465,-34.07,-45.03,-38.53,-41.89,-21.95,-32.23,0,0,0,0,0,0,0,0,0,0,0,0,0,0,0,0,
847,-50.83,-31.37,6.221,22.13,-30.59,-59.54,-10.97,-10.5,-37.15,-15.01,-45.34,-54.84,-33.65,-36,-33.23,-36.73,0,0,0,0,0,0,0,0,0,0,0,0,0,0,0,0,
848,-47.3,-37.43,4.067,25.25,-42.36,-49.02,-23.85,-9.221,-27.07,-10.32,-41.61,-46.96,-15.42,-13.19,-30.05,-23.94,0,0,0,0,0,0,0,0,0,0,0,0,0,0,0,0,
849,-30.54,-33.95,-5.845,20.41,-12.62,-36.83,-30.55,-20.31,-11.51,-16.92,-40.42,-45.59,-8.873,-6.829,-32.77,-13.5,0,0,0,0,0,0,0,0,0,0,0,0,0,0,0,0,
850,-21.49,-42.74,-8.525,8.261,3.334,-41.41,-44.5,-39.04,-20.24,-33.13,-48.81,-52.13,-25.92,-29.82,-41.93,-25.3,0,0,0,0,0,0,0,0,0,0,0,0,0,0,0,0,
851,-35.66,-56.54,-2.259,8.302,-19.02,-52.04,-53.5,-35.17,-39.88,-38.3,-50.74,-46.69,-32.43,-44.13,-32.41,-30.55,0,0,0,0,0,0,0,0,0,0,0,0,0,0,0,0,
852,-46.52,-53.57,4.119,17.53,-32.95,-43.22,-38.1,-23.22,-27.65,-31.84,-29.61,-29.87,-13.15,-32.99,-8.14,-12.12,0,0,0,0,0,0,0,0,0,0,0,0,0,0,0,0,
853,-27.23,-34.11,10.67,32.55,-17.74,-19.87,-16.55,-22.65,-9.655,-24.68,-14.43,-30,-8.822,-30.09,-9.745,-14.57,0,0,0,0,0,0,0,0,0,0,0,0,0,0,0,0,
854,-21.13,-25.38,15.83,33.97,-13.67,-17.81,-17.48,-25.81,-26.1,-25.85,-23.69,-46.27,-22.79,-38.08,-28.01,-37.37,0,0,0,0,0,0,0,0,0,0,0,0,0,0,0,0,
855,-35.49,-34.51,17.91,13.79,-21.99,-27.14,-27.61,-26.22,-36.9,-30.08,-25.41,-46.04,-24.19,-32.5,-21.41,-37.29,0,0,0,0,0,0,0,0,0,0,0,0,0,0,0,0,
