%OpenBCI Raw EXG Data
%Number of channels = 16
%Sample Rate = 125 Hz
%Board = OpenBCI_GUI$BoardCytonSerialDaisy
Sample Index,EXG Channel 0,EXG Channel 1,EXG Channel 2,EXG Channel 3,EXG Channel 4,EXG Channel 5,EXG Channel 6,EXG Channel 7,EXG Channel 8,EXG Channel 9,EXG Channel 10,EXG Channel 11,EXG Channel 12,EXG Channel 13,EXG Channel 14,EXG Channel 15,Accel Channel 0,Accel Channel 1,Accel Channel 2,Other,Other.1,Other.2,Other.3,Other.4,Other.5,Other.6,Analog Channel 0,Analog Channel 1,Analog Channel 2,Timestamp,Other.7,Timestamp (Formatted),Annotations
1,0.0,-0.0,-0.0,0.0,-0.0,-0.0,-0.0,-0.0,0.0,-0.0,-0.0,-0.0,0.0,-0.0,-0.0,-0.0,0,0,0,0,0,0,0,0,0,0,0,0,0,0,0,0,T0
2,43.66,-4.71,15.91,5.16,6.47,5.877,14.41,9.161,7.105,5.276,7.59,1.158,7.626,4.963,3.551,4.528,0,0,0,0,0,0,0,0,0,0,0,0,0,0,0,0,
3,8.412,13.82,7.447,-6.899,-5.137,-5.343,9.151,2.88,0.4873,6.443,-0.6491,-5.176,-2.466,-2.498,-2.457,-2.428,0,0,0,0,0,0,0,0,0,0,0,0,0,0,0,0,
4,-9.424,18.72,-9.348,-1.29,-10.13,-14.03,9.482,-3.761,-6.009,4.252,-3.064,-5.252,-3.867,0.0338,0.094,-1.017,0,0,0,0,0,0,0,0,0,0,0,0,0,0,0,0,
5,10.24,25.08,-7.359,9.94,2.897,1.219,8.65,-2.004,2.844,11.29,6.625,5.116,9.858,15.43,11.73,11.79,0,0,0,0,0,0,0,0,0,0,0,0,0,0,0,0,
6,18.5,45.25,7.883,12.53,14.4,22.67,-0.0702,3.607,15.56,26.67,12.39,12.84,16.82,22.49,15.7,16.63,0,0,0,0,0,0,0,0,0,0,0,0,0,0,0,0,
7,32.02,40.6,19.9,25.41,17.42,26.27,11.87,9.628,19.96,29.88,12.33,12.12,14.59,18.26,10.8,9.631,0,0,0,0,0,0,0,0,0,0,0,0,0,0,0,0,
8,19.05,22.38,19.09,20.61,12.32,16.06,21.17,8.482,14.83,16.13,5.939,4.064,5.612,7.779,-0.1532,-2.91,0,0,0,0,0,0,0,0,0,0,0,0,0,0,0,0,
9,-17.38,12.51,3.253,-7.424,0.5079,1.853,5.455,1.67,1.251,3.955,-1.216,-3.727,-3.831,0.6804,-7.053,-8.526,0,0,0,0,0,0,0,0,0,0,0,0,0,0,0,0,
10,5.13,3.102,-1.331,-12.17,-0.5209,-5.296,6.752,1.94,-1.331,9.589,7.518,2.019,4.204,10.08,3.108,2.37,0,0,0,0,0,0,0,0,0,0,0,0,0,0,0,0,
11,37.16,10.61,14.43,0.9458,10.54,4.818,19.85,10.54,14.04,24.51,16.98,11.06,15.84,19.6,12.33,10.16,0,0,0,0,0,0,0,0,0,0,0,0,0,0,0,0,
12,16.72,36.31,16.89,9.39,14.0,13.84,14.9,14.63,18.48,26.35,7.256,5.451,9.543,12.25,7.226,3.873,0,0,0,0,0,0,0,0,0,0,0,0,0,0,0,0,
13,16.99,47.76,8.819,18.79,11.86,10.07,14.46,7.886,11.46,18.1,2.829,0.8383,6.366,7.935,8.646,5.082,0,0,0,0,0,0,0,0,0,0,0,0,0,0,0,0,
14,33.65,35.83,9.025,15.78,8.316,8.813,8.422,1.449,11.78,13.35,9.951,5.189,11.12,11.17,13.0,10.35,0,0,0,0,0,0,0,0,0,0,0,0,0,0,0,0,
15,9.372,17.68,-1.407,3.261,-2.805,5.411,-12.94,3.961,3.044,4.484,4.747,2.397,4.234,8.242,5.47,6.605,0,0,0,0,0,0,0,0,0,0,0,0,0,0,0,0,
16,0.8637,12.55,-8.25,6.699,-0.503,1.572,0.3669,10.91,-6.001,1.774,5.926,5.096,7.854,15.32,10.27,14.34,0,0,0,0,0,0,0,0,0,0,0,0,0,0,0,0,
17,30.31,23.73,9.071,7.833,20.17,11.72,30.29,14.96,15.45,21.9,21.42,14.76,25.27,26.95,21.48,22.76,0,0,0,0,0,0,0,0,0,0,0,0,0,0,0,0,
18,26.54,29.14,10.13,-5.766,17.36,9.596,15.03,6.098,29.64,29.49,8.914,-0.4252,11.51,8.886,1.332,0.8231,0,0,0,0,0,0,0,0,0,0,0,0,0,0,0,0,
19,-4.649,17.89,-7.987,0.6348,-6.811,-7.349,-9.677,-8.743,3.746,6.199,-15.96,-17.95,-14.03,-11.03,-17.91,-14.44,0,0,0,0,0,0,0,0,0,0,0,0,0,0,0,0,
20,6.245,21.27,-1.036,26.34,-5.749,-1.41,4.06,-3.076,-11.65,-2.249,-1.748,0.4616,-0.4111,7.378,3.345,8.142,0,0,0,0,0,0,0,0,0,0,0,0,0,0,0,0,
21,44.07,46.76,18.87,32.49,12.88,12.44,24.4,18.32,7.33,15.85,25.05,21.78,23.73,30.13,24.52,25.68,0,0,0,0,0,0,0,0,0,0,0,0,0,0,0,0,
22,44.01,38.07,23.17,11.03,17.01,13.05,26.56,25.35,21.21,26.95,26.23,16.46,23.24,27.8,18.78,18.25,0,0,0,0,0,0,0,0,0,0,0,0,0,0,0,0,
23,17.53,-0.867,14.81,-17.04,11.98,14.53,23.05,14.17,17.77,24.53,14.68,2.048,12.61,15.92,7.162,8.104,0,0,0,0,0,0,0,0,0,0,0,0,0,0,0,0,
24,9.508,8.426,-0.6971,-19.6,4.962,5.166,11.7,0.6098,8.909,13.75,0.1699,-9.418,-0.4064,2.169,-4.652,-1.762,0,0,0,0,0,0,0,0,0,0,0,0,0,0,0,0,
25,14.13,42.2,-4.188,6.07,-0.6622,-9.349,-4.197,-4.053,-0.4811,1.813,-5.688,-12.5,-6.176,-3.797,-8.603,-6.958,0,0,0,0,0,0,0,0,0,0,0,0,0,0,0,0,
26,18.04,26.25,12.53,12.84,4.694,2.124,-3.428,0.0912,0.6282,6.67,6.777,-6.297,3.069,4.301,1.338,-1.899,0,0,0,0,0,0,0,0,0,0,0,0,0,0,0,0,
27,18.53,5.319,20.01,-3.045,5.24,10.04,5.05,2.921,3.931,14.8,10.08,-3.674,1.949,5.488,1.024,-1.982,0,0,0,0,0,0,0,0,0,0,0,0,0,0,0,0,
28,8.224,26.27,11.44,1.5,-10.39,-12.09,4.328,1.38,-8.622,2.099,-1.869,-5.357,-10.73,-1.354,-7.654,-4.138,0,0,0,0,0,0,0,0,0,0,0,0,0,0,0,0,
29,2.869,34.37,6.892,13.45,-14.04,-17.23,7.142,3.408,-16.92,-9.233,1.291,-2.2,-5.039,3.746,1.467,6.193,0,0,0,0,0,0,0,0,0,0,0,0,0,0,0,0,
30,12.86,10.95,7.039,7.557,3.299,10.86,14.95,11.11,-2.655,4.506,15.01,0.8161,9.966,11.1,13.97,13.12,0,0,0,0,0,0,0,0,0,0,0,0,0,0,0,0,
31,22.69,8.653,8.45,2.042,11.92,22.29,18.51,12.95,10.69,20.33,16.68,-3.183,9.51,5.94,9.181,5.233,0,0,0,0,0,0,0,0,0,0,0,0,0,0,0,0,
32,31.67,33.51,11.85,4.704,7.26,8.815,22.19,6.405,7.488,17.95,14.19,-2.899,4.872,4.508,5.969,4.347,0,0,0,0,0,0,0,0,0,0,0,0,0,0,0,0,
33,36.45,41.46,13.78,12.93,10.58,9.027,22.27,9.086,4.505,15.79,18.07,8.931,10.17,16.53,14.46,16.85,0,0,0,0,0,0,0,0,0,0,0,0,0,0,0,0,
34,23.26,24.47,11.38,15.44,11.14,11.24,13.0,13.29,7.055,19.51,13.16,7.349,6.709,15.42,8.712,13.33,0,0,0,0,0,0,0,0,0,0,0,0,0,0,0,0,
35,6.571,11.34,-3.245,-9.001,-10.75,-13.72,-5.556,-2.607,-5.14,4.406,-9.418,-15.61,-14.84,-6.386,-12.72,-7.675,0,0,0,0,0,0,0,0,0,0,0,0,0,0,0,0,
36,1.318,15.22,-18.06,-24.8,-24.84,-26.47,-22.32,-11.81,-25.14,-15.7,-18.91,-19.32,-20.19,-9.997,-11.61,-7.289,0,0,0,0,0,0,0,0,0,0,0,0,0,0,0,0,
37,-1.308,22.91,-6.128,1.407,-5.819,-0.4914,-13.56,1.816,-17.31,-5.15,-0.3799,-0.751,-1.234,5.503,6.843,8.733,0,0,0,0,0,0,0,0,0,0,0,0,0,0,0,0,
38,-1.469,17.22,11.81,13.03,9.076,12.82,3.817,5.598,4.681,11.1,7.462,-1.889,1.899,1.237,3.531,4.159,0,0,0,0,0,0,0,0,0,0,0,0,0,0,0,0,
39,9.079,7.258,6.871,-11.69,1.33,-2.028,4.787,1.315,3.743,5.488,-1.107,-10.85,-6.69,-7.484,-5.625,-2.933,0,0,0,0,0,0,0,0,0,0,0,0,0,0,0,0,
40,22.0,12.77,2.46,-16.62,-0.2698,-5.243,11.16,4.657,-1.983,2.789,3.775,-2.835,-1.541,-0.0112,-0.9951,3.521,0,0,0,0,0,0,0,0,0,0,0,0,0,0,0,0,
41,20.87,19.55,9.067,-0.8699,1.442,-2.262,14.99,0.3684,0.8992,3.72,4.444,-1.326,-4.172,-1.705,-5.246,-0.3125,0,0,0,0,0,0,0,0,0,0,0,0,0,0,0,0,
42,18.03,20.18,9.987,6.383,-3.019,-5.865,2.747,0.1656,-4.829,-3.237,-3.634,-2.33,-10.56,-2.623,-6.825,-1.564,0,0,0,0,0,0,0,0,0,0,0,0,0,0,0,0,
43,31.63,31.95,11.49,13.41,5.572,4.267,8.664,14.62,-0.4953,5.877,8.854,11.71,3.891,14.39,8.767,12.76,0,0,0,0,0,0,0,0,0,0,0,0,0,0,0,0,
44,29.92,36.63,14.28,11.62,15.19,14.65,20.63,17.99,17.74,21.95,16.98,13.09,10.69,17.18,9.871,12.19,0,0,0,0,0,0,0,0,0,0,0,0,0,0,0,0,
45,7.216,25.16,10.25,-2.141,8.079,7.108,13.86,13.06,14.75,15.32,3.604,1.399,0.7869,6.463,-0.4629,2.398,0,0,0,0,0,0,0,0,0,0,0,0,0,0,0,0,
46,13.95,20.99,7.732,-5.558,2.522,-0.3968,7.199,11.06,2.265,4.073,0.2793,0.0273,0.177,6.719,-0.3029,3.062,0,0,0,0,0,0,0,0,0,0,0,0,0,0,0,0,
47,22.14,8.778,1.651,-10.73,-1.727,-9.811,-9.922,1.846,1.149,0.6211,-0.3838,-5.636,-2.527,2.998,-4.263,-2.42,0,0,0,0,0,0,0,0,0,0,0,0,0,0,0,0,
48,-8.997,-7.151,-8.686,-20.48,-10.03,-20.88,-23.16,2.221,-4.697,-4.151,-4.778,-10.76,-6.763,-1.413,-4.469,-5.122,0,0,0,0,0,0,0,0,0,0,0,0,0,0,0,0,
49,-8.221,11.29,0.9222,-8.118,-2.318,-7.074,6.013,18.53,-3.442,1.458,9.613,1.044,6.985,8.641,10.6,7.375,0,0,0,0,0,0,0,0,0,0,0,0,0,0,0,0,
50,32.24,36.68,22.6,9.812,14.67,15.13,31.86,19.51,15.56,14.3,20.72,4.765,16.12,11.76,14.67,10.14,0,0,0,0,0,0,0,0,0,0,0,0,0,0,0,0,
51,29.26,39.09,25.39,9.714,18.34,13.44,23.96,8.704,22.75,16.47,14.57,-1.883,10.58,6.168,9.166,4.777,0,0,0,0,0,0,0,0,0,0,0,0,0,0,0,0,
52,11.05,30.36,14.19,-1.001,11.51,2.397,17.05,9.389,15.12,12.53,14.77,1.692,8.207,6.917,10.18,5.745,0,0,0,0,0,0,0,0,0,0,0,0,0,0,0,0,
53,24.98,12.32,8.989,-14.76,2.377,-2.96,10.64,11.31,9.695,3.937,14.92,6.801,4.575,5.916,8.638,5.162,0,0,0,0,0,0,0,0,0,0,0,0,0,0,0,0,
54,24.27,11.33,14.25,-7.941,2.498,-3.598,7.432,8.864,7.065,-2.094,14.63,12.84,6.324,10.7,12.61,12.13,0,0,0,0,0,0,0,0,0,0,0,0,0,0,0,0,
55,15.51,28.33,24.17,16.25,15.01,6.29,23.3,8.946,14.9,13.8,24.85,19.34,18.77,21.17,20.95,21.57,0,0,0,0,0,0,0,0,0,0,0,0,0,0,0,0,
56,29.67,22.23,24.74,9.036,16.79,14.75,28.67,3.296,24.6,26.52,20.38,7.085,14.38,9.247,10.08,8.406,0,0,0,0,0,0,0,0,0,0,0,0,0,0,0,0,
57,18.77,24.34,13.74,-13.05,7.955,8.364,10.7,-3.477,15.15,9.626,5.621,-8.061,1.448,-7.449,-0.2622,-3.46,0,0,0,0,0,0,0,0,0,0,0,0,0,0,0,0,
58,-8.034,44.56,10.13,-7.805,10.75,1.596,-0.4286,0.2278,7.827,-3.166,11.59,-3.313,7.18,-0.2492,7.91,6.106,0,0,0,0,0,0,0,0,0,0,0,0,0,0,0,0,
59,7.667,24.97,15.03,-7.587,12.26,-3.389,7.152,-0.7976,17.21,1.371,16.55,3.593,10.73,5.985,7.817,9.562,0,0,0,0,0,0,0,0,0,0,0,0,0,0,0,0,
60,21.78,-0.291,10.53,-18.24,2.684,-13.72,17.24,-4.168,16.78,-0.1481,6.203,7.656,5.519,5.45,3.428,8.746,0,0,0,0,0,0,0,0,0,0,0,0,0,0,0,0,
61,9.118,13.35,6.149,-1.556,4.814,-9.68,17.84,11.95,9.925,3.965,7.245,16.98,11.95,14.27,10.78,15.33,0,0,0,0,0,0,0,0,0,0,0,0,0,0,0,0,
62,24.67,26.14,16.43,14.78,12.43,6.639,15.14,20.74,14.71,14.22,12.79,12.3,13.54,10.86,6.567,6.981,0,0,0,0,0,0,0,0,0,0,0,0,0,0,0,0,
63,33.93,32.02,18.22,-1.21,4.072,4.315,9.427,0.6589,12.47,3.397,6.176,-5.224,1.07,-6.0,-7.22,-7.709,0,0,0,0,0,0,0,0,0,0,0,0,0,0,0,0,
64,-1.73,36.99,0.0486,-16.57,-3.522,-6.783,-2.568,-9.704,1.26,-9.709,3.539,-8.391,-3.341,-8.347,-7.259,-5.787,0,0,0,0,0,0,0,0,0,0,0,0,0,0,0,0,
65,-10.25,27.08,-10.75,-11.38,-0.0856,-5.883,-3.642,-1.357,1.215,-5.701,5.883,-2.92,-2.55,-4.974,-5.036,-3.757,0,0,0,0,0,0,0,0,0,0,0,0,0,0,0,0,
66,16.34,22.86,-3.197,0.1319,1.905,-0.662,10.12,2.985,5.342,-3.89,5.196,1.262,-2.566,-2.841,-3.412,-3.582,0,0,0,0,0,0,0,0,0,0,0,0,0,0,0,0,
67,26.28,19.91,9.625,8.838,7.308,12.08,17.6,12.46,8.886,3.124,9.386,8.96,3.566,7.215,3.125,3.002,0,0,0,0,0,0,0,0,0,0,0,0,0,0,0,0,
68,28.03,5.168,13.62,7.03,9.256,18.24,8.537,15.99,12.08,16.5,5.538,1.179,-2.762,2.426,-7.021,-6.012,0,0,0,0,0,0,0,0,0,0,0,0,0,0,0,0,
69,15.79,13.82,-0.7426,-6.27,-7.184,-8.728,-5.759,-2.286,-1.976,3.694,-10.75,-16.46,-20.55,-16.88,-21.5,-19.51,0,0,0,0,0,0,0,0,0,0,0,0,0,0,0,0,
70,0.9709,32.85,-9.52,-14.35,-12.71,-26.92,-0.5031,-4.079,-15.6,-14.78,-5.671,-6.36,-13.37,-10.78,-7.03,-4.498,0,0,0,0,0,0,0,0,0,0,0,0,0,0,0,0,
71,24.45,21.16,7.178,-7.334,5.894,-4.37,22.34,16.03,0.7449,-2.276,16.26,12.4,7.858,9.245,9.79,13.38,0,0,0,0,0,0,0,0,0,0,0,0,0,0,0,0,
72,28.63,15.84,13.35,2.933,11.44,9.366,26.28,16.11,17.87,10.35,18.76,8.862,9.819,9.696,5.66,9.586,0,0,0,0,0,0,0,0,0,0,0,0,0,0,0,0,
73,-9.881,33.85,1.463,7.16,3.355,1.934,8.466,5.493,13.28,4.825,11.91,5.769,6.053,6.695,6.141,7.136,0,0,0,0,0,0,0,0,0,0,0,0,0,0,0,0,
74,-3.041,22.19,5.93,10.05,6.407,6.391,-1.565,9.435,9.901,8.158,11.83,10.18,7.066,10.98,9.675,8.396,0,0,0,0,0,0,0,0,0,0,0,0,0,0,0,0,
75,32.68,-3.657,13.46,8.605,10.64,14.36,4.559,15.57,10.49,16.66,9.625,9.399,5.012,11.25,4.447,5.411,0,0,0,0,0,0,0,0,0,0,0,0,0,0,0,0,
76,29.72,13.33,13.63,0.5587,13.8,16.99,16.52,17.57,12.25,17.85,11.37,10.34,9.954,13.24,7.832,9.74,0,0,0,0,0,0,0,0,0,0,0,0,0,0,0,0,
77,20.45,34.93,15.7,-2.052,17.11,11.16,15.29,11.47,21.82,18.22,12.85,5.208,12.82,9.744,9.26,7.888,0,0,0,0,0,0,0,0,0,0,0,0,0,0,0,0,
78,17.59,17.33,-6.105,-0.5957,2.835,-12.6,-0.9113,-3.597,17.03,7.338,2.564,-4.38,1.6,-2.021,-0.93,-3.631,0,0,0,0,0,0,0,0,0,0,0,0,0,0,0,0,
79,9.026,5.911,-21.89,0.9338,-5.018,-11.52,2.872,4.527,3.152,-1.375,7.989,10.11,8.287,9.963,10.18,8.341,0,0,0,0,0,0,0,0,0,0,0,0,0,0,0,0,
80,13.85,18.59,12.67,11.03,15.86,27.26,28.46,29.65,17.22,20.59,28.82,27.23,27.67,29.43,27.74,24.49,0,0,0,0,0,0,0,0,0,0,0,0,0,0,0,0,
81,7.156,24.19,25.42,14.48,20.56,31.66,25.99,18.72,28.69,31.5,20.97,11.73,16.0,13.94,13.82,9.579,0,0,0,0,0,0,0,0,0,0,0,0,0,0,0,0,
82,-8.699,33.31,-2.392,3.151,6.538,5.39,1.025,-6.077,11.05,9.709,7.902,1.983,6.222,3.634,9.694,5.645,0,0,0,0,0,0,0,0,0,0,0,0,0,0,0,0,
83,16.48,44.24,11.11,2.196,19.86,9.889,6.825,5.661,17.77,14.13,28.64,19.19,30.39,24.07,32.63,26.47,0,0,0,0,0,0,0,0,0,0,0,0,0,0,0,0,
84,37.86,25.34,32.13,3.288,29.45,14.18,23.94,20.31,41.8,32.76,35.55,19.72,34.08,22.9,28.73,23.21,0,0,0,0,0,0,0,0,0,0,0,0,0,0,0,0,
85,14.74,5.958,9.43,-8.252,8.851,0.9524,17.9,14.3,25.98,15.83,15.68,10.42,15.34,10.1,13.82,14.3,0,0,0,0,0,0,0,0,0,0,0,0,0,0,0,0,
86,8.798,13.73,6.159,-4.831,8.899,14.04,22.99,15.16,11.01,10.76,21.66,21.37,23.59,25.22,26.61,29.51,0,0,0,0,0,0,0,0,0,0,0,0,0,0,0,0,
87,20.12,14.12,19.8,6.459,23.8,22.48,32.41,14.37,27.19,31.16,29.82,19.66,27.42,26.66,25.36,27.0,0,0,0,0,0,0,0,0,0,0,0,0,0,0,0,0,
88,3.924,7.637,4.279,-0.6259,13.19,2.573,12.19,7.143,22.23,20.38,10.85,4.13,9.18,7.988,7.977,11.08,0,0,0,0,0,0,0,0,0,0,0,0,0,0,0,0,
89,-4.606,19.13,5.074,-1.401,10.98,13.17,8.626,15.03,10.86,7.548,16.21,14.56,17.12,18.75,21.04,23.27,0,0,0,0,0,0,0,0,0,0,0,0,0,0,0,0,
90,11.91,31.93,24.82,8.945,26.71,36.74,31.98,19.94,29.38,28.36,39.67,26.82,33.71,34.75,35.26,33.59,0,0,0,0,0,0,0,0,0,0,0,0,0,0,0,0,
91,19.49,33.57,15.18,3.642,21.54,16.56,30.87,12.97,32.99,34.11,31.11,18.06,22.18,24.09,22.66,22.03,0,0,0,0,0,0,0,0,0,0,0,0,0,0,0,0,
92,17.04,21.06,8.139,-3.017,13.18,-1.834,21.3,17.99,16.76,20.83,18.56,15.47,14.26,17.5,16.89,18.78,0,0,0,0,0,0,0,0,0,0,0,0,0,0,0,0,
93,8.629,0.8653,14.35,3.221,18.09,10.22,17.64,20.65,18.48,21.02,22.09,14.69,16.72,17.25,17.89,18.68,0,0,0,0,0,0,0,0,0,0,0,0,0,0,0,0,
94,-2.929,6.755,-2.447,5.831,11.63,9.452,2.553,7.15,18.17,16.64,17.17,4.721,9.877,7.965,12.23,11.88,0,0,0,0,0,0,0,0,0,0,0,0,0,0,0,0,
95,7.628,31.16,-3.839,6.519,8.184,0.8847,8.737,3.484,10.93,6.846,17.6,7.618,12.18,9.209,16.97,15.78,0,0,0,0,0,0,0,0,0,0,0,0,0,0,0,0,
96,27.41,40.97,25.28,12.98,19.25,8.814,33.0,11.58,19.98,13.18,25.99,18.59,20.07,19.77,20.03,19.68,0,0,0,0,0,0,0,0,0,0,0,0,0,0,0,0,
97,18.16,41.0,25.49,11.68,15.21,15.58,28.77,14.26,21.51,19.5,15.64,16.54,11.08,19.55,7.266,11.1,0,0,0,0,0,0,0,0,0,0,0,0,0,0,0,0,
98,-5.776,25.2,8.503,-1.657,3.982,13.71,17.29,15.48,7.726,17.04,6.908,10.14,4.44,15.33,2.614,6.236,0,0,0,0,0,0,0,0,0,0,0,0,0,0,0,0,
99,-6.415,-1.822,13.75,-11.66,8.277,9.854,22.91,15.3,8.148,17.94,15.2,8.012,8.33,11.62,4.574,4.18,0,0,0,0,0,0,0,0,0,0,0,0,0,0,0,0,
100,13.04,-1.459,16.95,-11.07,10.77,4.204,25.37,9.239,14.01,15.6,11.63,5.957,2.594,3.58,-4.648,-3.557,0,0,0,0,0,0,0,0,0,0,0,0,0,0,0,0,
101,18.9,8.638,13.38,-7.862,5.111,0.7896,20.03,5.781,8.653,6.609,1.45,6.017,-5.078,0.1289,-9.345,-6.278,0,0,0,0,0,0,0,0,0,0,0,0,0,0,0,0,
102,2.602,0.019,15.72,-5.592,3.198,-4.6,7.941,8.089,5.04,0.8044,5.44,7.034,-3.366,3.342,-3.139,-2.839,0,0,0,0,0,0,0,0,0,0,0,0,0,0,0,0,
103,-5.684,10.16,10.38,-0.5118,2.933,-9.72,-0.2007,12.89,5.317,0.4664,11.05,7.265,-0.1794,5.439,1.699,-0.052,0,0,0,0,0,0,0,0,0,0,0,0,0,0,0,0,
104,6.158,38.85,10.85,4.382,6.146,4.075,16.73,16.13,6.495,6.14,17.3,10.95,6.815,8.048,8.184,4.117,0,0,0,0,0,0,0,0,0,0,0,0,0,0,0,0,
105,14.1,30.4,29.27,5.109,13.28,22.75,35.97,9.345,13.24,13.54,27.17,13.29,14.96,11.6,13.33,7.7,0,0,0,0,0,0,0,0,0,0,0,0,0,0,0,0,
106,12.3,5.557,37.27,5.519,16.1,17.41,36.38,4.154,18.5,16.09,26.71,15.76,15.29,15.9,12.05,11.29,0,0,0,0,0,0,0,0,0,0,0,0,0,0,0,0,
107,17.7,22.23,32.56,3.337,17.63,4.099,36.37,15.36,20.34,19.4,20.97,23.47,13.72,20.72,10.96,13.75,0,0,0,0,0,0,0,0,0,0,0,0,0,0,0,0,
108,20.05,32.29,29.63,-9.441,13.77,-2.431,26.96,15.58,18.72,18.02,11.22,15.88,4.482,11.28,0.9684,0.474,0,0,0,0,0,0,0,0,0,0,0,0,0,0,0,0,
109,-3.473,-12.46,12.64,-22.42,-2.558,-16.53,0.3181,-6.219,1.908,0.5381,-6.255,-3.104,-11.17,-6.816,-11.78,-14.62,0,0,0,0,0,0,0,0,0,0,0,0,0,0,0,0,
110,-22.87,-29.36,-5.559,-15.9,-7.75,-18.67,-4.889,-7.722,-10.53,-9.763,-1.485,4.314,-1.719,-0.7649,2.979,0.6418,0,0,0,0,0,0,0,0,0,0,0,0,0,0,0,0,
111,3.365,12.27,10.45,1.521,9.161,9.264,17.98,14.18,7.96,5.999,26.3,24.79,24.78,20.69,27.23,26.03,0,0,0,0,0,0,0,0,0,0,0,0,0,0,0,0,
112,28.2,25.79,30.71,6.173,18.91,24.3,30.65,17.67,28.16,21.14,34.57,25.68,27.91,23.98,25.7,26.49,0,0,0,0,0,0,0,0,0,0,0,0,0,0,0,0,
113,1.743,14.03,16.69,0.4115,9.328,7.736,17.86,4.532,22.25,17.4,20.43,20.1,13.03,16.03,11.76,13.53,0,0,0,0,0,0,0,0,0,0,0,0,0,0,0,0,
114,-15.28,26.36,1.788,-3.906,-1.272,-3.55,0.1588,2.708,7.056,9.996,8.262,17.7,4.639,13.68,4.159,6.209,0,0,0,0,0,0,0,0,0,0,0,0,0,0,0,0,
115,12.24,19.42,10.79,-10.4,0.8846,-1.844,7.873,11.61,1.189,10.92,8.506,13.19,7.923,14.31,5.58,6.697,0,0,0,0,0,0,0,0,0,0,0,0,0,0,0,0,
116,21.88,-14.71,16.86,-15.2,12.16,1.198,30.02,13.6,10.73,15.83,18.93,11.1,16.9,13.65,14.35,11.92,0,0,0,0,0,0,0,0,0,0,0,0,0,0,0,0,
117,7.722,-8.918,12.92,-5.04,17.76,13.11,29.36,5.208,21.59,14.84,23.28,12.54,18.83,11.03,18.74,15.17,0,0,0,0,0,0,0,0,0,0,0,0,0,0,0,0,
118,11.92,33.3,17.12,12.4,17.45,23.26,22.82,4.498,18.77,13.17,22.78,18.35,17.84,13.71,19.89,18.12,0,0,0,0,0,0,0,0,0,0,0,0,0,0,0,0,
119,11.81,48.41,25.45,15.08,18.25,15.26,29.6,12.36,17.94,20.32,26.72,21.85,19.04,18.55,19.76,18.68,0,0,0,0,0,0,0,0,0,0,0,0,0,0,0,0,
120,-8.795,28.99,17.9,-0.4751,8.208,1.579,17.91,7.106,15.37,18.12,16.32,13.79,7.336,10.41,7.05,7.878,0,0,0,0,0,0,0,0,0,0,0,0,0,0,0,0,
121,-16.61,10.85,-4.266,-15.52,-7.619,-6.551,-5.877,-3.003,-3.719,2.351,-3.625,6.962,-5.488,1.373,-2.398,-0.7493,0,0,0,0,0,0,0,0,0,0,0,0,0,0,0,0,
122,-4.346,-3.813,-13.28,-15.6,-5.843,-7.892,-6.221,0.8673,-9.387,0.8324,-2.913,4.582,0.7403,3.296,5.867,1.764,0,0,0,0,0,0,0,0,0,0,0,0,0,0,0,0,
123,7.77,-24.89,-1.873,-9.318,1.871,-1.575,-0.0023,3.729,3.738,6.244,5.922,-6.204,4.589,-2.835,6.491,-3.156,0,0,0,0,0,0,0,0,0,0,0,0,0,0,0,0,
124,6.457,-29.5,1.772,-13.52,-2.767,-2.175,-11.81,-6.297,0.1242,-5.008,-0.9423,-16.58,-6.804,-16.26,-8.826,-15.44,0,0,0,0,0,0,0,0,0,0,0,0,0,0,0,0,
125,-4.677,-3.32,-5.254,-21.31,-6.164,-11.4,-21.44,-12.42,-12.37,-14.19,-9.781,-12.92,-12.96,-14.33,-15.41,-14.25,0,0,0,0,0,0,0,0,0,0,0,0,0,0,0,0,
126,-7.993,25.67,-0.1688,-13.78,-1.367,-7.412,-4.927,-4.446,-9.547,-5.708,-5.438,-2.065,-6.686,-1.383,-7.182,-3.403,0,0,0,0,0,0,0,0,0,0,0,0,0,0,0,0,
127,-10.98,23.17,2.441,-5.49,-2.372,-0.6896,11.96,-0.8693,-3.166,1.196,0.4399,0.1141,-2.932,0.9774,-2.325,-3.093,0,0,0,0,0,0,0,0,0,0,0,0,0,0,0,0,
128,-26.96,1.147,-11.2,-18.02,-11.19,-12.07,-1.035,-11.85,-7.316,-5.903,-1.973,-7.933,-8.667,-8.055,-6.214,-10.18,0,0,0,0,0,0,0,0,0,0,0,0,0,0,0,0,
129,-23.73,-3.733,-6.551,-27.5,-10.57,-19.06,-6.951,-11.74,-13.41,-12.98,1.478,-7.879,-8.662,-8.776,-2.456,-5.441,0,0,0,0,0,0,0,0,0,0,0,0,0,0,0,0,
130,6.475,-6.256,19.73,-11.83,3.397,-6.52,16.53,4.986,-6.764,-5.428,16.14,2.568,3.916,1.347,10.14,7.064,0,0,0,0,0,0,0,0,0,0,0,0,0,0,0,0,
131,15.52,-20.43,23.64,4.353,9.606,5.292,26.53,8.281,5.961,5.156,20.69,5.011,9.118,2.787,9.891,7.267,0,0,0,0,0,0,0,0,0,0,0,0,0,0,0,0,
132,1.808,-7.611,5.486,-1.986,0.7374,4.381,14.68,-2.173,5.277,2.314,6.994,-1.203,-0.8091,-5.447,-5.287,-4.756,0,0,0,0,0,0,0,0,0,0,0,0,0,0,0,0,
133,-3.479,13.13,-4.803,-19.39,-7.165,-3.901,-0.807,-8.158,-5.896,-4.673,-8.44,-5.28,-10.84,-9.175,-15.26,-13.77,0,0,0,0,0,0,0,0,0,0,0,0,0,0,0,0,
134,-16.69,-0.8919,-7.598,-27.7,-9.182,-10.04,-20.27,-13.18,-12.43,-6.653,-13.4,-7.018,-13.41,-9.473,-13.13,-13.4,0,0,0,0,0,0,0,0,0,0,0,0,0,0,0,0,
135,-37.24,-5.292,-6.631,-27.19,-9.472,-14.9,-20.2,-14.68,-11.29,-10.73,-6.817,-6.879,-8.982,-9.036,-5.894,-6.739,0,0,0,0,0,0,0,0,0,0,0,0,0,0,0,0,
136,-23.07,13.03,5.926,-25.03,-1.662,-19.24,8.793,-2.959,-3.312,-10.95,9.975,0.6228,3.406,0.3983,5.383,5.286,0,0,0,0,0,0,0,0,0,0,0,0,0,0,0,0,
137,12.26,8.467,25.63,-12.62,13.2,-3.694,31.6,8.692,9.91,3.466,26.91,10.94,16.08,13.87,15.81,16.04,0,0,0,0,0,0,0,0,0,0,0,0,0,0,0,0,
138,15.06,-0.4745,31.82,1.446,14.48,16.73,26.2,4.726,15.05,14.58,22.77,7.407,12.2,11.48,9.236,8.863,0,0,0,0,0,0,0,0,0,0,0,0,0,0,0,0,
139,-6.538,6.519,11.55,-3.068,-2.33,3.532,4.782,-0.6602,0.4492,5.11,1.215,-3.868,-5.083,-1.504,-6.235,-6.826,0,0,0,0,0,0,0,0,0,0,0,0,0,0,0,0,
140,-11.73,-0.1752,-11.23,-12.33,-11.62,-11.98,-0.6946,3.648,-16.45,-4.978,-4.94,-1.534,-10.5,-1.754,-6.046,-5.296,0,0,0,0,0,0,0,0,0,0,0,0,0,0,0,0,
141,-11.79,-15.38,-8.318,-18.62,-4.63,0.5369,9.474,-1.29,-13.18,-0.8779,4.78,4.747,-2.726,3.802,-0.2985,1.622,0,0,0,0,0,0,0,0,0,0,0,0,0,0,0,0,
142,-22.5,-10.21,6.157,-26.94,2.96,0.103,3.786,-9.695,0.4524,1.736,6.579,1.932,1.138,1.052,-2.659,-1.287,0,0,0,0,0,0,0,0,0,0,0,0,0,0,0,0,
143,-17.78,9.615,10.2,-19.74,5.372,-18.0,-0.4844,-0.2845,8.505,-2.032,3.729,0.0763,1.113,-2.244,-2.99,-2.506,0,0,0,0,0,0,0,0,0,0,0,0,0,0,0,0,
144,-1.567,13.48,8.913,-11.76,2.01,-16.72,9.315,1.131,7.681,-4.615,1.621,-0.3949,-1.934,-4.801,-4.946,-4.655,0,0,0,0,0,0,0,0,0,0,0,0,0,0,0,0,
145,1.958,-6.567,12.53,-23.87,-1.449,-2.955,1.148,-11.06,0.2924,-3.801,0.0785,0.9432,-3.897,-3.285,-6.505,-6.439,0,0,0,0,0,0,0,0,0,0,0,0,0,0,0,0,
146,1.528,-13.92,13.07,-23.04,2.714,2.173,-7.721,-3.019,-0.1937,3.241,5.777,7.021,2.169,5.556,1.697,2.112,0,0,0,0,0,0,0,0,0,0,0,0,0,0,0,0,
147,-4.896,1.12,-0.6833,-12.57,-2.159,-4.808,2.523,4.326,1.797,1.239,5.292,2.199,-1.323,0.0909,-0.113,1.691,0,0,0,0,0,0,0,0,0,0,0,0,0,0,0,0,
148,-10.74,-2.625,-9.336,-22.92,-15.24,-15.98,4.663,-9.988,-8.924,-20.06,-1.876,-5.15,-10.23,-12.83,-6.192,-5.023,0,0,0,0,0,0,0,0,0,0,0,0,0,0,0,0,
149,-1.827,-17.09,4.19,-25.87,-6.851,-16.19,6.329,-12.04,-7.554,-26.0,8.898,6.271,3.976,-2.985,8.489,6.968,0,0,0,0,0,0,0,0,0,0,0,0,0,0,0,0,
150,-19.81,3.903,12.9,-11.38,10.16,-11.91,13.14,-1.767,14.44,-5.162,19.49,12.19,18.21,8.443,15.6,13.4,0,0,0,0,0,0,0,0,0,0,0,0,0,0,0,0,
151,-45.29,35.94,9.615,-1.473,12.73,-4.633,10.39,4.324,20.44,8.488,12.66,3.633,12.6,5.665,5.974,2.857,0,0,0,0,0,0,0,0,0,0,0,0,0,0,0,0,
152,-0.1639,30.66,20.66,11.97,17.44,21.87,19.24,17.41,16.07,17.26,15.9,7.03,13.68,10.98,8.942,3.011,0,0,0,0,0,0,0,0,0,0,0,0,0,0,0,0,
153,46.01,8.317,23.74,14.72,13.85,30.9,21.32,16.51,17.58,26.16,13.19,3.014,6.445,4.554,0.0149,-4.009,0,0,0,0,0,0,0,0,0,0,0,0,0,0,0,0,
154,13.38,0.158,-4.986,-4.692,-13.43,-5.431,-10.04,-8.418,-2.974,3.624,-13.21,-17.8,-19.18,-21.6,-23.55,-22.76,0,0,0,0,0,0,0,0,0,0,0,0,0,0,0,0,
155,-8.983,0.2169,-13.84,-5.642,-18.77,-20.43,-13.65,-8.802,-24.08,-23.26,-9.953,-10.91,-12.41,-16.32,-9.985,-9.797,0,0,0,0,0,0,0,0,0,0,0,0,0,0,0,0,
156,12.41,6.881,11.64,7.435,3.471,5.063,13.4,13.57,-5.653,-8.741,14.38,7.068,9.503,5.527,9.086,7.811,0,0,0,0,0,0,0,0,0,0,0,0,0,0,0,0,
157,0.2418,11.51,5.455,-0.7415,-3.279,3.633,-1.235,6.477,3.298,1.734,-0.6735,-5.097,-6.304,-5.838,-9.438,-8.376,0,0,0,0,0,0,0,0,0,0,0,0,0,0,0,0,
158,-28.9,3.26,-19.52,-7.763,-15.97,-8.676,-21.39,-9.662,-15.88,-10.45,-9.102,-6.208,-9.911,-7.592,-6.852,-5.947,0,0,0,0,0,0,0,0,0,0,0,0,0,0,0,0,
159,-17.59,9.56,1.197,-3.439,13.42,15.56,3.719,4.935,0.095,10.61,24.96,17.15,24.13,21.52,23.45,22.33,0,0,0,0,0,0,0,0,0,0,0,0,0,0,0,0,
160,9.529,22.88,21.52,-10.1,29.02,23.57,17.34,14.21,30.74,36.39,27.83,12.19,24.97,19.12,13.71,14.76,0,0,0,0,0,0,0,0,0,0,0,0,0,0,0,0,
161,18.82,2.74,-0.5585,-13.36,-0.9285,-7.485,0.2409,-0.9311,12.99,10.3,-4.704,-8.388,-4.778,-7.239,-12.47,-8.715,0,0,0,0,0,0,0,0,0,0,0,0,0,0,0,0,
162,15.96,-10.53,-5.989,-0.4478,-13.62,-14.51,-7.495,-0.2823,-11.27,-13.38,-4.391,-1.269,-5.689,-2.759,-4.419,-1.33,0,0,0,0,0,0,0,0,0,0,0,0,0,0,0,0,
163,6.415,8.996,4.34,7.97,-2.271,5.429,-12.84,9.811,-4.098,0.6353,9.031,9.144,1.783,7.432,4.559,6.375,0,0,0,0,0,0,0,0,0,0,0,0,0,0,0,0,
164,-10.88,8.883,-10.53,5.58,-7.652,8.269,-19.47,-1.169,-6.482,2.85,-0.4087,1.163,-7.689,-3.941,-4.21,-4.301,0,0,0,0,0,0,0,0,0,0,0,0,0,0,0,0,
165,-18.34,12.21,-8.123,7.767,-6.354,5.828,-1.622,-3.918,-15.87,-6.847,2.051,0.919,-2.775,-5.17,0.8573,-3.103,0,0,0,0,0,0,0,0,0,0,0,0,0,0,0,0,
166,-1.439,40.57,17.48,15.51,14.26,11.24,20.33,9.096,1.968,2.963,18.94,7.19,12.37,4.367,11.08,4.827,0,0,0,0,0,0,0,0,0,0,0,0,0,0,0,0,
167,10.97,9.501,8.352,5.75,11.45,-0.3693,12.07,-1.125,15.1,6.107,10.6,-3.33,4.011,-2.879,0.61,-3.305,0,0,0,0,0,0,0,0,0,0,0,0,0,0,0,0,
168,2.459,-44.31,-12.05,-16.74,-7.134,-16.48,-2.896,-11.28,-0.6871,-8.499,-4.254,-7.797,-7.455,-8.031,-6.052,-5.289,0,0,0,0,0,0,0,0,0,0,0,0,0,0,0,0,
169,3.047,-4.956,-0.6153,-12.36,-1.372,-4.679,2.606,9.328,-5.864,-4.359,3.735,7.731,2.493,5.335,4.174,7.24,0,0,0,0,0,0,0,0,0,0,0,0,0,0,0,0,
170,6.893,42.5,2.215,5.605,4.585,6.394,3.843,15.64,3.136,9.544,2.115,4.623,2.955,5.133,-1.647,0.0448,0,0,0,0,0,0,0,0,0,0,0,0,0,0,0,0,
171,-7.146,7.787,-19.18,0.8651,-9.589,-5.238,-10.45,-1.845,-7.245,-2.028,-15.63,-14.08,-12.59,-11.33,-16.98,-16.84,0,0,0,0,0,0,0,0,0,0,0,0,0,0,0,0,
172,-15.99,-9.668,-16.16,-0.9289,-7.596,-3.115,-9.493,-6.182,-15.39,-14.93,-10.25,-9.962,-9.149,-10.45,-8.892,-8.157,0,0,0,0,0,0,0,0,0,0,0,0,0,0,0,0,
173,-19.02,16.1,4.143,5.753,7.378,5.98,3.759,-10.5,-0.9084,-6.112,4.491,1.172,3.279,-0.3131,2.65,5.55,0,0,0,0,0,0,0,0,0,0,0,0,0,0,0,0,
174,-16.33,5.441,0.7425,-6.368,5.253,-4.108,0.603,-15.0,5.258,0.4989,2.056,2.836,3.94,3.769,2.036,8.069,0,0,0,0,0,0,0,0,0,0,0,0,0,0,0,0,
175,16.56,-12.41,-1.448,-5.106,6.085,2.089,-6.803,5.077,3.828,6.351,5.615,9.917,10.82,13.88,8.582,16.31,0,0,0,0,0,0,0,0,0,0,0,0,0,0,0,0,
176,34.74,4.36,13.64,18.11,14.83,19.71,-0.9142,17.92,12.57,18.87,14.83,11.57,17.08,17.04,11.43,16.32,0,0,0,0,0,0,0,0,0,0,0,0,0,0,0,0,
177,9.213,12.51,13.01,13.88,8.646,8.595,6.792,6.852,11.35,13.16,7.026,1.294,5.006,2.135,-1.166,-2.019,0,0,0,0,0,0,0,0,0,0,0,0,0,0,0,0,
178,-4.888,3.517,3.897,-5.481,0.2923,-3.217,5.479,0.5402,-0.1518,-3.119,-4.254,-5.466,-6.74,-9.155,-10.28,-13.81,0,0,0,0,0,0,0,0,0,0,0,0,0,0,0,0,
179,-14.39,0.095,1.023,-9.04,-3.716,-5.807,-2.531,-6.329,-4.618,-9.059,-6.286,-8.261,-9.624,-12.16,-11.43,-11.16,0,0,0,0,0,0,0,0,0,0,0,0,0,0,0,0,
180,-35.46,-0.3628,-7.733,-8.486,-9.867,-16.08,-0.2904,-14.18,-7.359,-14.29,-1.947,-1.766,-7.496,-9.14,-6.425,-1.63,0,0,0,0,0,0,0,0,0,0,0,0,0,0,0,0,
181,-13.3,6.56,-3.4,0.6759,-4.535,-5.417,11.9,-6.91,-4.667,-9.744,5.962,11.54,0.8367,2.216,1.206,4.84,0,0,0,0,0,0,0,0,0,0,0,0,0,0,0,0,
182,22.05,11.54,6.728,4.656,-1.771,7.233,1.759,-6.647,-1.3,4.94,-0.3773,3.776,-2.776,-0.2618,-7.593,-6.238,0,0,0,0,0,0,0,0,0,0,0,0,0,0,0,0,
183,5.27,-3.62,-14.27,-15.14,-15.55,-11.23,-18.99,-15.07,-14.93,-1.912,-17.29,-14.55,-16.31,-16.27,-20.83,-19.39,0,0,0,0,0,0,0,0,0,0,0,0,0,0,0,0,
184,-17.21,-11.8,-28.83,-14.48,-14.24,-15.35,-9.683,-6.225,-21.57,-15.64,-12.14,-10.43,-9.922,-14.04,-10.61,-11.48,0,0,0,0,0,0,0,0,0,0,0,0,0,0,0,0,
185,-8.412,2.055,-6.766,8.076,1.246,-2.497,7.679,4.314,-5.002,-7.231,6.841,2.452,5.477,0.0348,5.16,2.067,0,0,0,0,0,0,0,0,0,0,0,0,0,0,0,0,
186,-1.404,3.525,5.333,4.251,-1.363,-6.428,3.89,3.672,2.673,0.923,9.582,5.146,4.827,4.131,4.789,4.492,0,0,0,0,0,0,0,0,0,0,0,0,0,0,0,0,
187,-5.143,-7.431,-2.798,-2.325,-9.6,0.6085,-2.097,5.987,-4.165,-1.222,3.084,6.358,0.0978,6.272,0.7789,2.918,0,0,0,0,0,0,0,0,0,0,0,0,0,0,0,0,
188,-1.849,4.939,-6.162,10.61,-4.585,16.83,1.155,6.786,-3.325,4.367,-0.8855,7.548,1.225,11.46,0.1728,1.734,0,0,0,0,0,0,0,0,0,0,0,0,0,0,0,0,
189,15.0,29.87,-9.04,12.05,1.949,12.47,5.563,4.494,2.042,13.02,-4.981,6.505,2.271,12.82,-0.978,0.3017,0,0,0,0,0,0,0,0,0,0,0,0,0,0,0,0,
190,21.4,24.12,-7.954,1.423,4.706,4.527,1.003,7.225,4.848,13.96,-4.243,4.585,4.345,9.871,-0.2187,0.1579,0,0,0,0,0,0,0,0,0,0,0,0,0,0,0,0,
191,-3.527,-9.569,-0.7784,-5.426,4.479,-4.349,-10.06,3.797,7.195,6.914,-0.3731,-2.277,5.072,2.259,0.405,-0.1956,0,0,0,0,0,0,0,0,0,0,0,0,0,0,0,0,
192,-22.19,-23.17,-6.635,-8.723,-5.642,-19.98,-9.898,-9.607,3.309,-7.819,-3.241,-10.06,-1.526,-7.362,-3.712,-3.197,0,0,0,0,0,0,0,0,0,0,0,0,0,0,0,0,
193,-15.81,-11.16,-20.67,-9.263,-18.07,-21.52,-6.983,-14.13,-7.101,-19.59,-6.794,-10.06,-7.565,-8.505,-6.007,-5.074,0,0,0,0,0,0,0,0,0,0,0,0,0,0,0,0,
194,-16.89,-11.75,-23.21,-7.561,-13.99,-7.957,-8.7,-0.2418,-10.29,-14.36,-1.737,-1.001,-1.921,2.596,0.7588,0.8855,0,0,0,0,0,0,0,0,0,0,0,0,0,0,0,0,
195,-11.87,-8.872,-16.19,-2.468,-0.5215,5.852,1.334,11.19,-1.033,2.495,1.637,8.886,6.012,11.5,5.489,5.951,0,0,0,0,0,0,0,0,0,0,0,0,0,0,0,0,
196,7.718,15.08,-13.15,-10.35,-2.138,1.291,0.5695,-3.432,2.858,7.977,-8.711,4.112,-1.788,2.168,-4.131,-3.88,0,0,0,0,0,0,0,0,0,0,0,0,0,0,0,0,
197,-4.694,3.488,-20.04,-30.44,-11.92,-20.39,-19.52,-20.47,-8.37,-5.389,-17.36,-5.766,-12.73,-10.58,-10.48,-11.79,0,0,0,0,0,0,0,0,0,0,0,0,0,0,0,0,
198,-31.66,-34.87,-22.12,-16.89,-6.485,-14.67,-13.74,-8.383,-10.71,-11.92,-5.614,3.027,-2.865,-2.813,2.161,1.066,0,0,0,0,0,0,0,0,0,0,0,0,0,0,0,0,
199,-19.87,-21.91,-8.171,19.28,1.943,9.73,4.997,9.214,3.336,-1.11,6.977,14.08,9.385,9.59,9.886,11.77,0,0,0,0,0,0,0,0,0,0,0,0,0,0,0,0,
200,4.535,10.43,-2.567,24.35,-6.883,-0.1206,-5.936,9.841,2.745,2.106,-2.349,6.425,0.0383,4.691,-2.336,2.583,0,0,0,0,0,0,0,0,0,0,0,0,0,0,0,0,
201,-0.6156,3.583,-21.77,15.69,-17.77,-16.75,-22.48,5.041,-13.6,-5.794,-16.52,-3.254,-10.53,-2.799,-12.39,-6.621,0,0,0,0,0,0,0,0,0,0,0,0,0,0,0,0,
202,-19.59,-1.893,-39.29,18.65,-13.81,-5.849,-18.04,-0.2803,-14.59,-6.404,-15.05,-2.667,-5.063,-0.0521,-8.683,-3.8,0,0,0,0,0,0,0,0,0,0,0,0,0,0,0,0,
203,-16.74,6.952,-34.17,14.84,-3.666,4.098,-4.5,3.607,-1.514,-0.6311,-2.907,3.079,3.896,4.927,-0.591,2.525,0,0,0,0,0,0,0,0,0,0,0,0,0,0,0,0,
204,-0.844,-7.38,-20.41,2.011,0.5529,4.878,-1.263,14.83,6.038,5.016,5.54,6.219,6.864,6.069,2.97,5.293,0,0,0,0,0,0,0,0,0,0,0,0,0,0,0,0,
205,-12.08,-25.38,-19.29,-8.059,-4.182,3.14,-19.84,5.881,4.835,5.863,-0.7074,-0.5476,0.6298,0.8597,-4.347,1.293,0,0,0,0,0,0,0,0,0,0,0,0,0,0,0,0,
206,-30.93,-19.3,-33.96,-6.717,-13.71,-5.122,-38.22,-8.546,-5.363,-3.221,-15.98,-7.23,-12.01,-6.834,-15.95,-5.848,0,0,0,0,0,0,0,0,0,0,0,0,0,0,0,0,
207,-18.1,-10.73,-44.1,3.406,-19.94,-11.11,-31.04,-3.68,-19.13,-11.32,-22.99,-3.989,-17.54,-9.178,-18.7,-9.31,0,0,0,0,0,0,0,0,0,0,0,0,0,0,0,0,
208,-8.691,-11.95,-37.21,3.973,-19.88,-15.07,-17.84,-2.326,-21.88,-10.72,-18.69,-0.9984,-13.7,-8.297,-14.18,-8.453,0,0,0,0,0,0,0,0,0,0,0,0,0,0,0,0,
209,-21.92,-13.24,-31.56,1.201,-16.01,-15.99,-16.23,-2.301,-14.01,-10.52,-10.11,1.825,-7.202,-4.488,-5.899,-2.246,0,0,0,0,0,0,0,0,0,0,0,0,0,0,0,0,
210,-16.39,-13.01,-27.93,10.22,-7.415,-3.807,-8.506,13.67,-4.869,-7.987,1.501,11.74,3.972,6.617,6.957,8.27,0,0,0,0,0,0,0,0,0,0,0,0,0,0,0,0,
211,2.014,-6.857,-13.87,14.29,3.091,6.82,2.388,14.07,4.523,5.237,6.474,10.32,9.581,10.93,8.421,7.868,0,0,0,0,0,0,0,0,0,0,0,0,0,0,0,0,
212,-5.86,1.87,-20.47,2.44,-1.103,2.958,-11.13,-8.829,1.298,10.57,-8.791,-12.23,-6.486,-5.091,-10.26,-9.096,0,0,0,0,0,0,0,0,0,0,0,0,0,0,0,0,
213,-22.37,-1.185,-42.07,-4.371,-14.78,-1.005,-25.39,-12.68,-18.22,-3.962,-19.52,-19.23,-16.58,-13.59,-13.64,-11.87,0,0,0,0,0,0,0,0,0,0,0,0,0,0,0,0,
214,-15.92,-0.0284,-22.45,9.538,-6.035,6.826,-3.567,6.675,-15.02,-4.644,0.8634,1.14,5.803,5.754,12.02,9.932,0,0,0,0,0,0,0,0,0,0,0,0,0,0,0,0,
215,-8.274,11.18,0.0222,22.88,9.373,13.04,13.21,13.1,11.02,13.35,12.64,2.461,17.44,12.89,16.15,12.96,0,0,0,0,0,0,0,0,0,0,0,0,0,0,0,0,
216,-14.49,-2.014,-18.23,16.03,-0.9451,2.092,-3.164,3.578,7.827,4.635,-4.155,-11.78,-0.0272,-2.988,-4.015,-2.942,0,0,0,0,0,0,0,0,0,0,0,0,0,0,0,0,
217,-9.455,-22.26,-17.96,6.071,-6.588,-5.463,-11.35,1.376,-5.682,-10.94,-4.475,-1.7,0.0697,0.9025,0.0319,3.654,0,0,0,0,0,0,0,0,0,0,0,0,0,0,0,0,
218,-5.927,-14.26,-11.94,-5.41,-0.533,-0.1113,-13.63,0.8114,4.001,4.944,1.113,1.603,5.949,8.177,5.743,9.845,0,0,0,0,0,0,0,0,0,0,0,0,0,0,0,0,
219,-20.23,-13.53,-43.56,-19.86,-15.79,-4.531,-27.6,-3.838,-5.621,6.978,-13.75,-13.06,-9.134,-4.547,-5.72,0.1132,0,0,0,0,0,0,0,0,0,0,0,0,0,0,0,0,
220,-14.35,-17.02,-42.98,-1.893,-21.74,-1.894,-21.52,8.214,-24.38,-8.349,-5.604,-1.258,-3.45,2.247,5.082,9.846,0,0,0,0,0,0,0,0,0,0,0,0,0,0,0,0,
221,-2.517,10.96,-10.69,24.35,-4.002,10.44,-8.849,19.46,-7.71,3.516,12.68,6.851,9.903,10.51,10.12,11.21,0,0,0,0,0,0,0,0,0,0,0,0,0,0,0,0,
222,-28.5,4.246,-24.06,-1.358,-12.15,-10.9,-21.64,-4.714,-3.32,1.519,-8.719,-20.45,-13.99,-19.06,-20.36,-19.61,0,0,0,0,0,0,0,0,0,0,0,0,0,0,0,0,
223,-42.75,-52.86,-42.86,-29.8,-28.62,-32.59,-22.8,-28.19,-25.05,-27.92,-20.88,-24.76,-24.06,-29.73,-22.81,-20.94,0,0,0,0,0,0,0,0,0,0,0,0,0,0,0,0,
224,-9.004,-41.17,-19.99,1.972,-8.663,-7.396,2.839,-5.584,-12.55,-18.19,6.381,6.152,7.544,4.517,11.34,13.48,0,0,0,0,0,0,0,0,0,0,0,0,0,0,0,0,
225,14.22,30.58,1.575,42.0,12.93,17.34,12.58,27.29,16.6,17.58,16.43,19.21,22.95,24.38,20.37,24.86,0,0,0,0,0,0,0,0,0,0,0,0,0,0,0,0,
226,-6.085,28.94,-4.826,32.21,0.6935,12.89,-4.62,18.64,11.68,21.22,-4.71,5.491,4.789,9.448,0.8216,7.215,0,0,0,0,0,0,0,0,0,0,0,0,0,0,0,0,
227,-34.48,-29.01,-29.53,-7.885,-26.19,-4.878,-26.22,-10.76,-15.6,-2.105,-26.5,-14.13,-19.14,-15.53,-20.28,-14.86,0,0,0,0,0,0,0,0,0,0,0,0,0,0,0,0,
228,-37.71,-40.41,-44.01,-30.34,-34.61,-27.49,-34.25,-13.76,-34.46,-24.47,-30.41,-20.88,-25.88,-24.32,-24.48,-19.22,0,0,0,0,0,0,0,0,0,0,0,0,0,0,0,0,
229,-23.73,-13.53,-28.1,-10.86,-13.54,-20.05,-18.55,-0.1276,-22.07,-21.33,-9.492,-7.253,-6.628,-7.051,-5.857,-0.9814,0,0,0,0,0,0,0,0,0,0,0,0,0,0,0,0,
230,-16.72,-4.618,-15.45,16.83,1.902,9.84,-2.285,-0.7526,5.318,1.1,3.493,-1.178,4.303,0.8608,-0.4193,2.11,0,0,0,0,0,0,0,0,0,0,0,0,0,0,0,0,
231,-17.43,-19.68,-27.61,5.229,-15.49,-1.661,-19.17,-8.477,-0.2411,-1.379,-17.08,-13.4,-14.39,-15.9,-18.59,-15.9,0,0,0,0,0,0,0,0,0,0,0,0,0,0,0,0,
232,-17.62,-28.12,-36.98,-17.73,-31.39,-30.43,-41.73,-8.846,-24.4,-20.24,-31.56,-11.79,-23.04,-16.35,-19.24,-14.28,0,0,0,0,0,0,0,0,0,0,0,0,0,0,0,0,
233,-21.3,-16.08,-32.84,-6.277,-22.65,-17.48,-29.13,-1.098,-23.51,-13.71,-20.63,3.149,-10.27,0.7973,-6.231,-1.527,0,0,0,0,0,0,0,0,0,0,0,0,0,0,0,0,
234,-27.28,-12.92,-23.01,9.442,-12.31,3.664,-6.128,10.25,-12.66,-1.09,-13.13,2.673,-6.66,-0.4687,-7.937,-5.367,0,0,0,0,0,0,0,0,0,0,0,0,0,0,0,0,
235,-26.16,-17.96,-11.41,5.347,-7.651,-0.391,-2.314,10.51,-9.199,-6.574,-11.44,-7.947,-9.896,-12.41,-11.82,-11.04,0,0,0,0,0,0,0,0,0,0,0,0,0,0,0,0,
236,-17.37,0.9705,-12.16,10.96,-4.396,-4.657,-9.73,-2.542,-4.671,-11.26,-9.099,-12.23,-9.299,-15.66,-11.51,-11.14,0,0,0,0,0,0,0,0,0,0,0,0,0,0,0,0,
237,-9.847,11.91,-23.97,20.02,-10.56,-0.7532,-18.94,-6.816,-8.125,-9.342,-12.28,-8.329,-10.16,-12.01,-11.34,-9.876,0,0,0,0,0,0,0,0,0,0,0,0,0,0,0,0,
238,-7.659,-9.166,-28.58,7.205,-19.38,-4.885,-21.95,3.661,-17.54,-8.558,-13.62,-2.084,-8.789,-4.041,-6.126,-2.91,0,0,0,0,0,0,0,0,0,0,0,0,0,0,0,0,
239,-15.94,-20.7,-35.48,-12.41,-24.07,-21.19,-27.16,3.05,-20.35,-10.4,-18.96,-5.864,-12.97,-4.831,-11.02,-4.235,0,0,0,0,0,0,0,0,0,0,0,0,0,0,0,0,
240,-34.16,-21.19,-45.8,-18.22,-27.75,-27.14,-37.41,-11.66,-26.17,-17.22,-30.11,-11.54,-24.3,-14.91,-22.84,-13.74,0,0,0,0,0,0,0,0,0,0,0,0,0,0,0,0,
241,-29.82,-21.73,-27.71,-0.8891,-15.59,-3.115,-18.29,-6.217,-24.38,-15.13,-18.0,-4.714,-15.74,-10.93,-12.76,-9.195,0,0,0,0,0,0,0,0,0,0,0,0,0,0,0,0,
242,-3.018,-5.936,-1.338,19.31,4.147,14.26,7.564,5.677,-2.592,-1.21,2.122,-6.714,-0.8698,-5.459,-2.953,-7.468,0,0,0,0,0,0,0,0,0,0,0,0,0,0,0,0,
243,-8.135,-7.167,-17.58,2.831,-9.75,-6.103,-19.35,-15.93,-1.736,-6.856,-11.87,-24.22,-16.41,-20.66,-19.19,-23.72,0,0,0,0,0,0,0,0,0,0,0,0,0,0,0,0,
244,-31.92,-30.47,-50.18,-24.28,-42.13,-23.16,-53.86,-27.91,-34.17,-30.1,-31.06,-23.48,-32.98,-27.18,-25.05,-23.9,0,0,0,0,0,0,0,0,0,0,0,0,0,0,0,0,
245,-25.41,-17.05,-46.62,-14.2,-39.08,-14.03,-34.02,2.973,-42.91,-30.84,-14.35,-1.072,-15.04,-7.465,-3.567,-0.4608,0,0,0,0,0,0,0,0,0,0,0,0,0,0,0,0,
246,-13.04,10.32,-12.52,9.857,-9.29,-7.079,4.517,17.83,-12.52,-9.449,11.11,10.03,6.052,6.611,10.32,9.95,0,0,0,0,0,0,0,0,0,0,0,0,0,0,0,0,
247,-8.612,1.077,10.96,13.73,3.429,-7.083,17.36,4.224,8.527,2.376,9.629,1.284,-0.0767,-1.569,0.9947,-0.8348,0,0,0,0,0,0,0,0,0,0,0,0,0,0,0,0,
248,-2.285,-14.26,-6.693,0.8086,-4.749,-5.247,3.751,-0.5568,1.359,-2.278,-8.576,-7.788,-15.83,-14.45,-13.7,-10.57,0,0,0,0,0,0,0,0,0,0,0,0,0,0,0,0,
249,-21.17,-20.18,-37.95,-12.41,-15.87,-8.833,-17.2,-10.62,-12.16,-12.25,-19.24,-10.44,-21.37,-18.12,-19.83,-12.42,0,0,0,0,0,0,0,0,0,0,0,0,0,0,0,0,
250,-40.63,-29.0,-36.5,-11.34,-23.87,-16.72,-23.87,-21.05,-20.5,-20.33,-19.31,-13.77,-19.73,-14.89,-17.86,-12.19,0,0,0,0,0,0,0,0,0,0,0,0,0,0,0,0,
251,-17.08,-23.04,-22.91,-2.476,-24.73,-15.82,-16.1,-4.677,-21.82,-20.31,-15.37,-12.14,-14.15,-9.985,-10.58,-8.115,0,0,0,0,0,0,0,0,0,0,0,0,0,0,0,0,
252,5.931,-1.08,-18.86,5.347,-13.89,-1.891,-2.325,5.262,-11.86,-10.88,-8.143,-4.239,-4.314,-5.448,-2.396,-2.396,0,0,0,0,0,0,0,0,0,0,0,0,0,0,0,0,
253,0.3783,17.38,-4.573,11.8,1.302,6.659,6.187,-5.911,2.675,-1.235,-1.927,-3.999,1.564,-3.751,-1.289,-3.702,0,0,0,0,0,0,0,0,0,0,0,0,0,0,0,0,
254,-10.91,10.29,-3.945,1.116,5.203,-3.828,-7.07,-4.455,9.382,1.905,-4.783,-10.63,-2.265,-7.276,-7.545,-9.611,0,0,0,0,0,0,0,0,0,0,0,0,0,0,0,0,
255,-28.73,-30.03,-34.74,-16.38,-8.775,-13.97,-25.75,-3.603,2.098,-3.506,-15.87,-15.36,-11.26,-15.31,-12.97,-13.75,0,0,0,0,0,0,0,0,0,0,0,0,0,0,0,0,
256,-34.71,-45.31,-42.67,-6.533,-22.42,-9.748,-21.96,-17.4,-13.81,-14.84,-18.98,-14.12,-12.98,-16.08,-7.677,-10.65,0,0,0,0,0,0,0,0,0,0,0,0,0,0,0,0,
257,-14.69,-3.815,-15.9,12.6,-13.91,-4.676,-7.443,-9.736,-15.85,-14.93,-5.233,-2.945,-0.5219,-2.4,4.978,0.4208,0,0,0,0,0,0,0,0,0,0,0,0,0,0,0,0,
258,-6.308,24.04,-1.412,10.18,1.607,-7.159,-1.675,8.727,-0.1261,-3.042,2.341,3.877,6.402,2.602,3.159,0.3798,0,0,0,0,0,0,0,0,0,0,0,0,0,0,0,0,
259,-0.9226,10.91,4.431,1.223,6.359,-3.901,3.917,1.696,7.945,-1.096,-1.83,-2.227,1.32,-6.38,-6.075,-9.739,0,0,0,0,0,0,0,0,0,0,0,0,0,0,0,0,
260,29.65,3.852,20.47,-1.742,18.09,15.45,19.02,-3.147,13.4,1.929,10.15,-2.114,11.06,1.684,5.712,-1.42,0,0,0,0,0,0,0,0,0,0,0,0,0,0,0,0,
261,34.72,6.706,21.75,-8.095,29.62,22.39,22.17,4.045,29.26,18.08,21.95,1.45,23.21,14.23,17.16,10.6,0,0,0,0,0,0,0,0,0,0,0,0,0,0,0,0,
262,-2.615,-2.329,2.35,-18.91,11.24,-2.363,-4.248,-8.033,24.66,15.01,6.196,-6.494,8.498,1.329,5.176,1.262,0,0,0,0,0,0,0,0,0,0,0,0,0,0,0,0,
263,-19.37,-18.76,-9.547,-19.06,-12.49,-15.29,-25.5,-17.97,-2.519,-8.028,-5.721,-10.85,-6.884,-11.28,-3.219,-6.587,0,0,0,0,0,0,0,0,0,0,0,0,0,0,0,0,
264,-7.359,-19.87,-4.652,-0.9633,-10.1,-1.364,-12.82,-6.322,-11.82,-15.45,-1.041,-5.185,-4.454,-6.977,-0.8796,-2.979,0,0,0,0,0,0,0,0,0,0,0,0,0,0,0,0,
265,3.254,9.908,9.067,9.386,3.063,3.02,8.174,-0.643,-1.827,-8.51,-0.1765,-2.384,0.159,-2.449,-1.195,-1.789,0,0,0,0,0,0,0,0,0,0,0,0,0,0,0,0,
266,18.79,32.69,23.83,-1.539,13.91,2.92,15.57,-1.897,10.56,-0.4657,4.282,-5.042,4.623,-1.101,-2.462,-4.613,0,0,0,0,0,0,0,0,0,0,0,0,0,0,0,0,
267,18.8,9.854,25.58,-10.38,13.2,1.922,10.14,-6.898,17.58,0.4926,4.613,-13.76,-1.198,-9.045,-12.6,-15.84,0,0,0,0,0,0,0,0,0,0,0,0,0,0,0,0,
268,-18.85,-18.07,6.698,-20.7,-5.048,-19.51,-2.025,-21.02,4.874,-13.94,-11.61,-20.08,-17.69,-20.32,-22.72,-24.74,0,0,0,0,0,0,0,0,0,0,0,0,0,0,0,0,
269,-38.94,-16.12,-14.9,-37.35,-14.21,-29.81,-7.665,-19.27,-10.54,-19.79,-15.2,-11.87,-17.02,-14.42,-14.02,-16.41,0,0,0,0,0,0,0,0,0,0,0,0,0,0,0,0,
270,-10.26,-13.31,-9.727,-25.69,-4.56,-10.71,-6.3,-6.139,-5.539,-7.999,-1.18,-0.9444,-3.82,-4.866,-3.583,-7.88,0,0,0,0,0,0,0,0,0,0,0,0,0,0,0,0,
271,20.99,-12.33,19.46,8.155,5.773,6.919,3.868,-3.682,4.385,-2.711,11.6,5.265,6.196,-0.2124,4.568,-1.797,0,0,0,0,0,0,0,0,0,0,0,0,0,0,0,0,
272,34.03,13.36,32.96,23.46,15.91,17.94,23.76,3.918,15.24,5.505,23.39,8.518,15.95,8.981,14.97,7.132,0,0,0,0,0,0,0,0,0,0,0,0,0,0,0,0,
273,28.19,34.13,21.85,17.05,16.62,17.17,22.3,6.686,23.64,16.74,16.54,-2.778,8.478,4.252,2.631,-2.056,0,0,0,0,0,0,0,0,0,0,0,0,0,0,0,0,
274,-6.55,11.8,14.25,-3.381,-1.594,-4.643,0.1198,-9.303,7.392,1.622,-10.07,-17.18,-14.27,-13.67,-20.85,-20.0,0,0,0,0,0,0,0,0,0,0,0,0,0,0,0,0,
275,-31.06,-16.3,6.083,-23.85,-16.44,-18.99,-9.724,-13.11,-15.15,-20.68,-18.61,-13.45,-21.33,-18.5,-22.97,-20.9,0,0,0,0,0,0,0,0,0,0,0,0,0,0,0,0,
276,-12.17,-11.48,-8.254,-19.86,-15.68,-16.99,-17.84,-4.187,-17.21,-22.36,-7.329,-4.247,-12.76,-12.76,-12.95,-11.52,0,0,0,0,0,0,0,0,0,0,0,0,0,0,0,0,
277,11.33,-2.939,-0.6668,-5.994,-3.356,-11.61,-19.48,-1.586,-5.913,-10.64,5.29,1.199,1.493,-2.201,0.2058,1.866,0,0,0,0,0,0,0,0,0,0,0,0,0,0,0,0,
278,9.591,-10.02,13.62,-4.664,12.12,3.068,5.392,-1.494,12.68,9.697,13.27,2.754,12.84,6.622,7.912,9.259,0,0,0,0,0,0,0,0,0,0,0,0,0,0,0,0,
279,0.0853,-10.41,2.663,-3.133,10.11,12.0,14.66,-8.164,20.83,18.06,2.602,-6.109,4.566,0.0213,-3.46,0.8181,0,0,0,0,0,0,0,0,0,0,0,0,0,0,0,0,
280,-1.6,0.6544,-3.551,-3.117,-1.617,-1.021,-8.587,-12.62,6.505,2.299,-14.79,-11.32,-8.367,-5.944,-11.85,-3.278,0,0,0,0,0,0,0,0,0,0,0,0,0,0,0,0,
281,-0.2732,11.19,6.242,-19.54,-2.895,-15.13,-23.28,-6.849,-5.538,-8.677,-16.44,-7.002,-8.172,-2.572,-6.018,-0.2248,0,0,0,0,0,0,0,0,0,0,0,0,0,0,0,0,
282,-3.419,11.31,3.307,-27.45,-4.484,-18.67,-16.48,-8.187,-7.598,-10.91,-10.53,-6.36,-3.392,-3.488,-2.089,-2.49,0,0,0,0,0,0,0,0,0,0,0,0,0,0,0,0,
283,-4.966,-5.61,1.752,-5.116,-3.779,-13.24,3.958,-6.78,-4.013,-13.19,2.146,-3.679,7.252,-0.4567,2.962,0.3216,0,0,0,0,0,0,0,0,0,0,0,0,0,0,0,0,
284,-2.161,-19.67,10.05,10.75,6.286,1.965,15.09,1.356,10.43,-1.076,15.54,-1.433,14.28,4.548,4.202,1.498,0,0,0,0,0,0,0,0,0,0,0,0,0,0,0,0,
285,-0.0557,-17.66,5.362,-5.284,6.857,9.65,0.4252,-4.717,15.5,11.01,8.684,-6.567,4.003,-0.9764,-4.247,-5.503,0,0,0,0,0,0,0,0,0,0,0,0,0,0,0,0,
286,2.705,-18.66,2.098,-16.81,2.701,1.399,-5.278,-7.589,6.641,7.566,-1.946,-2.239,-2.339,-0.5212,-2.497,-0.8204,0,0,0,0,0,0,0,0,0,0,0,0,0,0,0,0,
287,-1.422,-14.85,7.487,-5.439,3.828,-5.888,0.9854,-0.5192,4.508,4.359,-0.5375,6.458,-0.1972,5.056,3.19,4.932,0,0,0,0,0,0,0,0,0,0,0,0,0,0,0,0,
288,-8.898,4.213,-0.18,2.505,-1.51,-6.119,-7.165,-5.093,0.3119,-1.974,-2.275,3.169,-4.684,-1.397,-3.741,-4.43,0,0,0,0,0,0,0,0,0,0,0,0,0,0,0,0,
289,-1.176,8.377,-3.109,-1.652,-3.277,-5.875,-3.695,-8.238,-4.083,-10.92,-5.359,-4.112,-5.158,-8.363,-8.949,-11.54,0,0,0,0,0,0,0,0,0,0,0,0,0,0,0,0,
290,2.578,-0.8537,8.625,-9.779,0.8272,-8.264,4.723,-5.134,4.089,-7.762,-4.692,-13.53,-3.049,-11.69,-9.601,-13.93,0,0,0,0,0,0,0,0,0,0,0,0,0,0,0,0,
291,-8.428,-1.283,7.146,-12.0,-3.302,-9.335,-9.698,-4.571,4.431,-6.047,-1.332,-15.3,-4.45,-12.8,-6.908,-11.14,0,0,0,0,0,0,0,0,0,0,0,0,0,0,0,0,
292,-3.253,-6.293,3.07,-0.0981,0.6211,-2.193,-6.26,3.348,1.072,-5.347,9.486,1.089,4.241,-0.7161,6.09,3.941,0,0,0,0,0,0,0,0,0,0,0,0,0,0,0,0,
293,5.581,-16.34,9.621,-0.7666,4.609,-1.555,5.702,-0.5963,6.136,3.703,4.524,2.656,3.038,2.598,3.041,2.237,0,0,0,0,0,0,0,0,0,0,0,0,0,0,0,0,
294,-10.36,-23.09,-1.116,-27.6,-17.04,-19.05,-22.19,-19.67,-10.31,-6.899,-22.6,-15.69,-20.36,-14.91,-21.11,-18.67,0,0,0,0,0,0,0,0,0,0,0,0,0,0,0,0,
295,-19.57,-27.07,-17.86,-32.78,-23.75,-22.21,-31.86,-11.14,-31.01,-24.99,-22.87,-9.274,-20.13,-11.72,-19.67,-12.62,0,0,0,0,0,0,0,0,0,0,0,0,0,0,0,0,
296,0.362,-8.261,-1.038,-1.759,7.094,1.856,10.89,11.06,-9.651,-5.171,6.309,11.84,7.248,12.83,3.725,9.758,0,0,0,0,0,0,0,0,0,0,0,0,0,0,0,0,
297,22.2,18.98,31.67,17.05,22.92,14.41,29.89,9.256,18.56,20.92,15.56,8.211,14.01,14.94,5.373,7.178,0,0,0,0,0,0,0,0,0,0,0,0,0,0,0,0,
298,23.75,13.28,35.07,6.625,7.196,3.642,8.676,2.442,13.38,10.66,5.947,-5.008,1.291,-0.1855,-6.478,-4.977,0,0,0,0,0,0,0,0,0,0,0,0,0,0,0,0,
299,2.792,-9.216,7.645,-12.24,-9.903,-12.43,-0.7617,0.9771,-3.252,-9.787,0.8127,-6.171,-6.009,-6.479,-8.505,-4.667,0,0,0,0,0,0,0,0,0,0,0,0,0,0,0,0,
300,-23.88,-19.11,-8.859,-24.3,-14.44,-26.02,4.17,-2.95,-13.11,-17.35,1.792,1.294,-2.359,-0.2843,0.6166,5.612,0,0,0,0,0,0,0,0,0,0,0,0,0,0,0,0,
301,-20.53,-15.14,6.066,-17.53,-0.6425,-17.45,4.457,1.454,-6.57,-10.12,13.75,13.59,14.11,15.13,17.54,20.76,0,0,0,0,0,0,0,0,0,0,0,0,0,0,0,0,
302,9.122,-1.757,20.25,3.608,16.86,14.22,1.244,6.96,15.05,10.87,19.71,14.92,22.3,19.56,19.35,20.8,0,0,0,0,0,0,0,0,0,0,0,0,0,0,0,0,
303,12.34,2.978,12.94,12.55,12.72,23.79,-1.599,0.0175,18.32,19.23,-0.2514,0.4046,5.137,4.267,-2.752,2.413,0,0,0,0,0,0,0,0,0,0,0,0,0,0,0,0,
304,-12.0,-6.965,-1.521,-2.643,-2.187,-0.999,-4.149,-9.768,0.4391,5.604,-19.3,-8.217,-12.64,-6.672,-19.32,-10.02,0,0,0,0,0,0,0,0,0,0,0,0,0,0,0,0,
305,-18.84,-22.8,-16.57,-20.18,-13.58,-20.5,-14.05,-16.36,-11.87,-7.237,-25.43,-12.31,-20.87,-12.6,-26.12,-18.85,0,0,0,0,0,0,0,0,0,0,0,0,0,0,0,0,
306,-19.77,-38.02,-22.72,-17.89,-24.94,-20.4,-25.72,-17.6,-23.24,-19.64,-33.54,-19.38,-28.19,-23.32,-33.02,-27.66,0,0,0,0,0,0,0,0,0,0,0,0,0,0,0,0,
307,-29.25,-24.61,-10.98,-6.935,-22.5,-20.16,-18.31,-8.574,-30.03,-30.11,-24.86,-12.06,-18.26,-16.95,-21.07,-14.86,0,0,0,0,0,0,0,0,0,0,0,0,0,0,0,0,
308,-12.98,9.53,1.79,-3.87,-1.436,-19.25,-0.043,4.5,-12.43,-15.82,2.078,1.622,5.919,4.643,3.113,6.45,0,0,0,0,0,0,0,0,0,0,0,0,0,0,0,0,
309,12.66,14.15,5.9,-4.411,12.1,-0.177,8.376,10.97,8.989,9.269,9.363,-2.441,12.39,7.964,5.409,3.873,0,0,0,0,0,0,0,0,0,0,0,0,0,0,0,0,
310,4.012,-1.706,2.117,-6.074,6.502,20.67,6.4,4.598,8.489,13.58,-4.77,-14.4,0.068,-5.358,-10.17,-12.02,0,0,0,0,0,0,0,0,0,0,0,0,0,0,0,0,
311,-12.98,-15.17,-8.489,-5.462,-1.909,13.51,-5.464,-6.513,-2.593,4.035,-15.86,-15.72,-8.896,-9.64,-16.46,-15.06,0,0,0,0,0,0,0,0,0,0,0,0,0,0,0,0,
312,-9.155,-24.76,-4.458,4.399,1.734,0.6746,-11.11,-4.897,-5.973,0.1186,-14.78,-5.677,-4.2,-0.8572,-6.348,-3.731,0,0,0,0,0,0,0,0,0,0,0,0,0,0,0,0,
313,-0.5416,2.537,13.59,9.523,12.65,7.953,6.019,3.299,3.286,3.767,-1.666,2.847,7.763,7.917,5.836,5.559,0,0,0,0,0,0,0,0,0,0,0,0,0,0,0,0,
314,5.841,37.48,13.82,1.44,12.98,3.673,12.67,2.31,12.69,7.095,7.176,-0.9249,9.688,6.834,4.201,1.429,0,0,0,0,0,0,0,0,0,0,0,0,0,0,0,0,
315,9.791,12.89,3.306,-1.308,2.633,-18.13,-6.929,-0.6121,8.921,3.738,0.8963,-5.66,1.674,0.7606,-4.16,-5.598,0,0,0,0,0,0,0,0,0,0,0,0,0,0,0,0,
316,1.992,-19.77,3.841,3.864,-0.6372,-13.59,-14.07,1.654,3.917,-1.05,-3.722,-3.784,-0.1856,-0.832,-4.649,-4.675,0,0,0,0,0,0,0,0,0,0,0,0,0,0,0,0,
317,-10.59,-11.77,3.327,0.3739,3.411,10.75,-3.138,4.34,6.336,0.464,-0.7142,-5.809,1.703,-0.0199,-2.119,-3.04,0,0,0,0,0,0,0,0,0,0,0,0,0,0,0,0,
318,-11.37,-6.286,-1.479,-4.835,6.078,16.03,4.865,5.358,4.845,6.394,-0.3986,-9.072,1.227,0.5674,-2.132,-3.538,0,0,0,0,0,0,0,0,0,0,0,0,0,0,0,0,
319,2.826,3.095,3.625,4.428,11.42,12.11,13.09,2.365,2.128,12.45,-0.0874,-5.174,4.992,4.584,-0.5157,-1.318,0,0,0,0,0,0,0,0,0,0,0,0,0,0,0,0,
320,24.31,31.7,16.67,16.38,19.24,20.49,20.05,3.273,8.332,17.92,7.082,2.922,12.71,12.39,5.113,3.896,0,0,0,0,0,0,0,0,0,0,0,0,0,0,0,0,
321,37.53,32.24,25.51,15.01,22.15,25.8,21.96,17.17,17.39,24.97,16.77,8.644,17.07,17.95,11.68,8.632,0,0,0,0,0,0,0,0,0,0,0,0,0,0,0,0,
322,24.68,4.916,17.19,4.327,13.58,7.055,16.98,20.03,17.84,24.5,13.81,1.096,7.778,9.015,4.826,1.774,0,0,0,0,0,0,0,0,0,0,0,0,0,0,0,0,
323,-9.092,-12.31,-9.127,-9.854,-9.393,-19.12,-6.029,-3.644,1.323,0.7166,-6.588,-16.34,-15.56,-11.95,-15.9,-14.88,0,0,0,0,0,0,0,0,0,0,0,0,0,0,0,0,
324,-28.58,-15.89,-25.84,-15.72,-24.32,-18.33,-23.9,-16.88,-20.9,-24.78,-16.97,-19.31,-23.34,-16.17,-18.09,-14.36,0,0,0,0,0,0,0,0,0,0,0,0,0,0,0,0,
325,-11.0,-7.18,-9.704,-2.014,-6.846,1.989,-4.674,1.557,-18.5,-14.63,1.746,-3.942,-0.9355,2.709,5.789,5.119,0,0,0,0,0,0,0,0,0,0,0,0,0,0,0,0,
326,18.51,4.169,22.33,12.56,19.36,13.2,24.11,17.5,5.572,13.11,22.19,5.814,18.79,12.11,19.11,11.65,0,0,0,0,0,0,0,0,0,0,0,0,0,0,0,0,
327,28.86,10.84,35.35,13.28,23.16,17.22,27.75,10.02,17.11,18.77,19.21,-1.818,14.64,0.0681,8.337,-1.157,0,0,0,0,0,0,0,0,0,0,0,0,0,0,0,0,
328,27.03,25.26,20.35,10.25,13.74,12.88,12.68,-0.8276,11.95,7.209,4.919,-15.19,1.053,-13.51,-7.282,-13.82,0,0,0,0,0,0,0,0,0,0,0,0,0,0,0,0,
329,18.0,21.95,1.558,1.688,2.959,-7.745,-10.22,-2.284,4.666,-2.775,-9.259,-21.29,-12.3,-18.72,-19.5,-19.89,0,0,0,0,0,0,0,0,0,0,0,0,0,0,0,0,
330,-4.614,-10.74,-3.88,-7.305,-8.865,-16.65,-26.43,-1.035,-6.448,-9.951,-21.25,-15.34,-20.05,-14.13,-24.0,-17.64,0,0,0,0,0,0,0,0,0,0,0,0,0,0,0,0,
331,-11.18,-9.785,0.1496,6.092,-7.2,3.67,-12.42,4.644,-12.0,-7.377,-13.72,2.533,-8.616,4.441,-9.364,-1.685,0,0,0,0,0,0,0,0,0,0,0,0,0,0,0,0,
332,14.99,21.87,16.75,26.1,12.73,20.54,19.72,15.54,4.804,11.74,11.92,16.92,12.94,21.5,10.48,12.87,0,0,0,0,0,0,0,0,0,0,0,0,0,0,0,0,
333,26.54,8.468,31.12,16.72,22.99,12.33,25.03,13.48,22.0,24.96,15.24,6.707,11.73,11.82,4.331,2.907,0,0,0,0,0,0,0,0,0,0,0,0,0,0,0,0,
334,2.798,-21.12,10.68,-5.128,9.845,1.993,0.4049,-1.717,11.31,10.93,-6.686,-11.44,-7.644,-8.851,-12.74,-13.08,0,0,0,0,0,0,0,0,0,0,0,0,0,0,0,0,
335,-4.302,1.187,-12.18,0.1303,4.044,11.46,-5.123,0.1461,-1.537,-2.929,-3.227,-1.633,-2.189,-1.391,0.0252,-0.6338,0,0,0,0,0,0,0,0,0,0,0,0,0,0,0,0,
336,24.48,36.37,8.636,18.25,19.96,25.19,16.86,16.75,14.37,12.26,24.3,18.32,22.12,20.03,22.33,18.15,0,0,0,0,0,0,0,0,0,0,0,0,0,0,0,0,
337,33.74,29.49,27.36,9.61,22.1,15.2,18.84,13.06,29.24,25.15,22.51,7.323,18.22,13.09,12.59,7.0,0,0,0,0,0,0,0,0,0,0,0,0,0,0,0,0,
338,4.324,-0.4793,11.69,-13.84,0.0561,-9.324,-3.682,-4.282,11.98,6.779,-2.351,-15.62,-6.262,-8.593,-7.91,-11.29,0,0,0,0,0,0,0,0,0,0,0,0,0,0,0,0,
339,-13.4,-13.25,3.265,-11.77,-10.62,-14.86,-11.39,-2.97,-10.18,-13.57,-8.403,-16.98,-14.79,-11.68,-10.92,-11.2,0,0,0,0,0,0,0,0,0,0,0,0,0,0,0,0,
340,-6.894,-6.545,2.63,7.594,-4.169,-3.43,-2.54,9.718,-12.16,-13.95,-3.084,-9.963,-12.11,-4.681,-8.594,-7.196,0,0,0,0,0,0,0,0,0,0,0,0,0,0,0,0,
341,-0.2207,-5.547,-6.635,8.205,0.9148,2.175,3.135,11.15,-6.394,-6.456,0.2605,-3.977,-6.369,1.867,-2.508,-2.673,0,0,0,0,0,0,0,0,0,0,0,0,0,0,0,0,
342,9.123,-3.843,-0.9991,-0.3091,6.465,8.591,6.44,6.409,2.226,5.953,12.25,5.128,7.201,10.53,10.43,5.855,0,0,0,0,0,0,0,0,0,0,0,0,0,0,0,0,
343,6.174,10.43,6.115,4.518,5.494,15.0,9.348,7.026,11.33,13.97,20.53,1.986,11.15,6.413,10.82,2.696,0,0,0,0,0,0,0,0,0,0,0,0,0,0,0,0,
344,-11.52,10.08,-4.12,-0.8387,-9.102,-0.7668,6.363,7.136,4.42,-1.312,12.21,-10.83,-1.232,-11.81,-1.332,-8.988,0,0,0,0,0,0,0,0,0,0,0,0,0,0,0,0,
345,0.945,3.65,-1.918,-19.51,-13.31,-16.71,-2.643,2.382,-8.762,-19.12,5.001,-12.24,-6.46,-17.44,-4.128,-9.058,0,0,0,0,0,0,0,0,0,0,0,0,0,0,0,0,
346,23.06,17.99,9.97,-10.25,-1.63,-3.608,-8.51,3.419,-6.581,-11.71,5.191,-8.721,-1.916,-8.163,0.1405,-3.594,0,0,0,0,0,0,0,0,0,0,0,0,0,0,0,0,
347,7.234,14.67,6.127,14.17,2.499,8.049,-2.143,8.937,-1.49,1.136,1.636,-11.09,-3.512,-3.813,-1.814,-4.863,0,0,0,0,0,0,0,0,0,0,0,0,0,0,0,0,
348,-11.63,-14.44,-2.558,10.03,-2.779,0.1621,5.722,3.402,-5.152,0.3587,-3.791,-11.33,-7.027,-3.28,-4.523,-4.875,0,0,0,0,0,0,0,0,0,0,0,0,0,0,0,0,
349,-13.56,-15.11,-9.944,-3.523,-9.008,-2.755,-1.221,-4.279,-8.787,-2.833,-6.054,-6.515,-6.702,0.2976,-3.78,-1.272,0,0,0,0,0,0,0,0,0,0,0,0,0,0,0,0,
350,-15.92,3.711,-12.61,2.856,-12.18,2.105,-8.041,2.718,-12.31,-3.637,-3.124,0.2234,-5.018,4.1,-3.174,0.7837,0,0,0,0,0,0,0,0,0,0,0,0,0,0,0,0,
351,-2.892,5.0,3.048,14.01,-1.729,5.452,7.824,11.72,-8.355,0.2147,9.83,7.79,3.904,9.476,1.901,5.464,0,0,0,0,0,0,0,0,0,0,0,0,0,0,0,0,
352,16.61,12.91,20.09,14.2,12.17,6.867,27.74,11.95,9.602,10.06,22.73,8.796,13.29,10.24,7.753,7.467,0,0,0,0,0,0,0,0,0,0,0,0,0,0,0,0,
353,17.71,32.52,21.77,7.205,9.989,6.225,25.78,10.85,16.19,10.79,20.6,-0.4231,8.466,0.6856,3.889,-1.223,0,0,0,0,0,0,0,0,0,0,0,0,0,0,0,0,
354,13.11,19.46,15.96,-1.159,0.7723,10.08,13.11,5.266,3.806,3.244,10.39,-9.169,-1.56,-6.841,-3.245,-9.572,0,0,0,0,0,0,0,0,0,0,0,0,0,0,0,0,
355,1.801,-18.92,-3.781,-13.72,-10.91,3.936,-2.7,-7.802,-7.832,-2.788,-1.766,-13.31,-10.42,-12.0,-9.909,-14.25,0,0,0,0,0,0,0,0,0,0,0,0,0,0,0,0,
356,-19.15,-31.63,-29.41,-25.14,-26.75,-20.74,-21.66,-14.68,-20.77,-15.88,-14.73,-15.82,-19.61,-18.64,-16.14,-18.08,0,0,0,0,0,0,0,0,0,0,0,0,0,0,0,0,
357,-27.41,-15.73,-27.47,-13.56,-24.18,-22.5,-20.99,-7.277,-27.06,-22.27,-11.56,-10.18,-15.27,-12.41,-10.37,-10.85,0,0,0,0,0,0,0,0,0,0,0,0,0,0,0,0,
358,-22.8,1.234,-8.236,8.325,-8.05,-4.849,-9.62,3.939,-12.28,-9.217,1.503,-2.582,-4.878,-1.934,-1.379,-0.5767,0,0,0,0,0,0,0,0,0,0,0,0,0,0,0,0,
359,-14.1,4.751,-4.894,1.954,-9.688,-14.95,-17.33,4.492,-4.496,-5.881,-1.966,-4.062,-8.028,-3.093,-3.389,-0.1892,0,0,0,0,0,0,0,0,0,0,0,0,0,0,0,0,
360,-1.255,-6.663,-11.29,-16.38,-16.08,-23.46,-21.52,-2.233,-13.04,-11.53,-9.169,-2.443,-9.954,-0.6603,-2.862,1.189,0,0,0,0,0,0,0,0,0,0,0,0,0,0,0,0,
361,4.741,-10.68,-15.15,-10.12,-10.95,-2.9,-10.12,-1.961,-13.03,-4.707,-5.556,0.1968,-6.215,1.581,-0.9188,-0.1973,0,0,0,0,0,0,0,0,0,0,0,0,0,0,0,0,
362,3.722,0.4496,-15.81,6.664,-10.75,5.803,-8.326,4.142,-12.98,-6.015,-4.989,-7.234,-10.69,-8.543,-6.039,-9.955,0,0,0,0,0,0,0,0,0,0,0,0,0,0,0,0,
363,3.022,4.544,-5.595,14.82,-7.757,2.711,-3.726,10.14,-15.25,-10.8,-0.7309,-5.991,-7.825,-6.259,-1.26,-6.935,0,0,0,0,0,0,0,0,0,0,0,0,0,0,0,0,
364,-0.6408,4.706,4.107,18.16,6.261,9.142,12.44,14.04,-0.5639,5.791,10.12,3.95,4.888,8.151,7.905,4.562,0,0,0,0,0,0,0,0,0,0,0,0,0,0,0,0,
365,-2.69,5.373,-1.514,12.63,7.584,7.33,11.26,9.063,10.23,14.21,7.01,3.184,4.997,7.933,4.261,4.24,0,0,0,0,0,0,0,0,0,0,0,0,0,0,0,0,
366,1.304,2.239,-7.734,1.431,-1.418,1.792,-7.631,2.036,2.546,3.471,-2.627,2.086,0.696,4.83,2.737,2.42,0,0,0,0,0,0,0,0,0,0,0,0,0,0,0,0,
367,3.839,9.114,-16.03,-0.8193,-5.438,-0.7424,-22.85,0.9212,-1.391,1.683,-5.719,2.508,0.0791,4.762,3.295,0.5787,0,0,0,0,0,0,0,0,0,0,0,0,0,0,0,0,
368,-5.614,3.892,-34.47,-0.0029,-15.16,-17.76,-27.13,-3.154,-6.004,-4.089,-9.546,-3.755,-8.459,-6.443,-5.846,-8.481,0,0,0,0,0,0,0,0,0,0,0,0,0,0,0,0,
369,-21.52,-21.15,-31.25,-3.499,-20.94,-23.76,-20.71,-2.158,-16.29,-17.49,-5.463,-0.2612,-10.62,-8.921,-4.764,-6.268,0,0,0,0,0,0,0,0,0,0,0,0,0,0,0,0,
370,-9.582,-15.87,-6.624,-0.6688,-6.71,3.194,-11.95,8.529,-9.618,-7.361,8.836,9.831,2.904,4.4,8.606,6.059,0,0,0,0,0,0,0,0,0,0,0,0,0,0,0,0,
371,20.81,-0.6455,-6.614,4.679,2.696,17.81,-6.284,6.146,4.107,9.309,9.08,3.76,6.59,2.152,5.823,2.085,0,0,0,0,0,0,0,0,0,0,0,0,0,0,0,0,
372,3.264,-15.59,-26.92,-2.712,-9.406,-3.039,-8.849,-8.759,-1.006,1.771,-9.713,-12.94,-7.894,-14.73,-12.91,-15.09,0,0,0,0,0,0,0,0,0,0,0,0,0,0,0,0,
373,-43.81,-19.12,-37.58,-13.36,-25.61,-25.67,-24.88,-16.76,-16.98,-14.22,-22.84,-18.57,-18.06,-17.29,-19.91,-19.89,0,0,0,0,0,0,0,0,0,0,0,0,0,0,0,0,
374,-36.26,-3.461,-34.13,-7.085,-26.25,-26.02,-27.17,-8.341,-22.84,-18.06,-8.431,-0.6429,-5.865,0.7143,-1.104,-2.164,0,0,0,0,0,0,0,0,0,0,0,0,0,0,0,0,
375,7.515,7.89,-13.38,8.356,-7.39,-8.252,-2.296,12.86,-7.373,-4.425,17.03,19.74,13.22,17.0,16.34,12.41,0,0,0,0,0,0,0,0,0,0,0,0,0,0,0,0,
376,14.28,19.15,0.3854,6.798,-0.0795,-1.499,4.283,12.18,6.766,7.06,10.3,7.017,3.156,4.362,-1.268,-4.41,0,0,0,0,0,0,0,0,0,0,0,0,0,0,0,0,
377,-7.674,7.803,-18.1,-6.506,-21.71,-18.28,-17.8,-11.01,-10.4,-10.03,-17.97,-14.8,-21.42,-17.27,-22.87,-21.71,0,0,0,0,0,0,0,0,0,0,0,0,0,0,0,0,
378,-19.78,-21.27,-34.66,-3.84,-31.36,-19.69,-24.73,-9.145,-26.62,-23.69,-20.9,-8.095,-18.34,-11.16,-13.46,-10.54,0,0,0,0,0,0,0,0,0,0,0,0,0,0,0,0,
379,-31.59,-26.97,-33.66,2.76,-22.24,-4.231,-19.33,-0.4455,-17.8,-9.43,-14.1,-3.081,-9.466,-2.755,-7.079,-6.073,0,0,0,0,0,0,0,0,0,0,0,0,0,0,0,0,
380,-41.92,-20.27,-36.41,-5.982,-28.23,-12.33,-23.78,-12.07,-22.35,-9.332,-21.61,-14.16,-17.18,-11.36,-13.95,-13.74,0,0,0,0,0,0,0,0,0,0,0,0,0,0,0,0,
381,-18.99,-16.21,-30.14,-5.918,-28.89,-21.64,-20.75,-3.515,-33.08,-20.96,-14.6,-7.552,-11.27,-6.085,-4.438,-3.651,0,0,0,0,0,0,0,0,0,0,0,0,0,0,0,0,
382,13.61,-1.586,-12.17,5.758,-9.74,-11.88,-8.347,13.99,-15.55,-9.593,4.532,4.072,2.958,4.937,5.236,4.618,0,0,0,0,0,0,0,0,0,0,0,0,0,0,0,0,
383,9.768,18.27,-6.019,2.104,-4.399,-16.29,-2.648,2.302,1.524,-3.062,6.826,-4.44,0.2442,-1.385,-0.2765,-2.469,0,0,0,0,0,0,0,0,0,0,0,0,0,0,0,0,
384,-9.25,17.3,-13.88,-8.882,-15.17,-25.49,-1.765,-6.4,-2.479,-14.07,2.176,-10.3,-6.367,-6.689,-3.978,-4.686,0,0,0,0,0,0,0,0,0,0,0,0,0,0,0,0,
385,-17.17,-15.47,-32.75,-12.85,-28.08,-17.82,-8.149,-0.8393,-13.8,-17.07,-4.183,-6.536,-12.54,-7.094,-8.638,-6.657,0,0,0,0,0,0,0,0,0,0,0,0,0,0,0,0,
386,-20.6,-30.04,-46.09,-9.282,-38.6,-14.04,-18.12,-4.9,-29.45,-17.94,-13.9,-4.745,-16.5,-7.568,-11.41,-8.221,0,0,0,0,0,0,0,0,0,0,0,0,0,0,0,0,
387,-14.25,-0.6653,-33.95,5.117,-27.9,-13.13,-16.52,-8.101,-31.2,-14.35,-7.952,1.669,-3.281,2.626,-1.49,1.616,0,0,0,0,0,0,0,0,0,0,0,0,0,0,0,0,
388,-2.522,6.776,-17.94,10.67,-5.22,-3.992,-9.275,-5.896,-10.39,5.063,3.001,3.707,8.083,8.532,1.452,3.541,0,0,0,0,0,0,0,0,0,0,0,0,0,0,0,0,
389,2.937,-8.966,-13.75,-0.9892,-0.1848,-0.651,-5.13,-6.598,2.476,11.75,-3.082,-6.796,-0.584,-2.867,-8.426,-8.084,0,0,0,0,0,0,0,0,0,0,0,0,0,0,0,0,
390,6.383,7.302,-14.4,-2.744,-6.703,-6.896,-6.17,-4.157,-2.617,-5.625,-8.879,-9.271,-8.572,-10.35,-9.81,-9.998,0,0,0,0,0,0,0,0,0,0,0,0,0,0,0,0,
391,4.074,20.43,-23.59,3.263,-12.39,-14.62,-16.15,-1.062,-10.08,-17.52,-3.851,0.0612,-5.905,-4.757,-1.746,-0.0852,0,0,0,0,0,0,0,0,0,0,0,0,0,0,0,0,
392,0.2041,13.24,-26.6,4.719,-16.28,-13.55,-16.51,1.731,-13.98,-12.62,0.3495,8.11,0.3434,5.209,6.272,10.99,0,0,0,0,0,0,0,0,0,0,0,0,0,0,0,0,
393,6.989,26.83,-13.58,18.62,-8.693,4.531,2.293,11.55,-8.254,0.2129,4.621,16.94,10.55,17.67,14.49,21.94,0,0,0,0,0,0,0,0,0,0,0,0,0,0,0,0,
394,18.71,37.94,-6.534,35.99,8.195,24.14,10.54,18.69,7.704,15.14,8.038,22.19,17.54,23.71,16.21,23.51,0,0,0,0,0,0,0,0,0,0,0,0,0,0,0,0,
395,30.73,21.15,-5.889,26.52,14.46,22.58,-2.068,8.259,16.45,20.72,0.6283,9.405,8.39,10.22,1.474,5.296,0,0,0,0,0,0,0,0,0,0,0,0,0,0,0,0,
396,35.75,10.81,-4.548,0.6636,3.36,6.099,-12.51,-10.49,4.739,7.672,-12.23,-9.732,-10.61,-10.45,-15.76,-13.98,0,0,0,0,0,0,0,0,0,0,0,0,0,0,0,0,
397,36.79,32.19,-5.297,-1.676,-5.109,4.5,-9.443,-7.06,-12.95,-7.89,-11.45,-4.921,-14.89,-9.629,-7.506,-5.672,0,0,0,0,0,0,0,0,0,0,0,0,0,0,0,0,
398,57.71,75.27,10.24,23.19,5.189,21.02,3.64,17.21,-11.42,-2.218,5.146,16.02,0.5278,8.924,15.59,14.97,0,0,0,0,0,0,0,0,0,0,0,0,0,0,0,0,
399,77.13,89.6,31.44,24.92,12.25,20.26,12.19,14.62,0.6441,12.04,10.55,12.77,4.993,9.967,13.82,10.31,0,0,0,0,0,0,0,0,0,0,0,0,0,0,0,0,
400,71.52,51.06,26.47,-5.167,0.5328,3.791,2.786,-13.16,-4.46,7.028,-2.985,-7.108,-8.784,-5.8,-3.949,-7.006,0,0,0,0,0,0,0,0,0,0,0,0,0,0,0,0,
401,84.67,39.32,27.25,-2.298,3.527,13.8,-0.3409,-8.038,-11.02,-0.1868,-0.9038,-2.554,-5.115,-2.086,1.547,-0.8493,0,0,0,0,0,0,0,0,0,0,0,0,0,0,0,0,
402,118.3,91.99,57.43,36.34,30.1,39.45,25.09,19.91,8.599,14.97,20.0,14.44,14.28,14.48,17.27,14.52,0,0,0,0,0,0,0,0,0,0,0,0,0,0,0,0,
403,126.7,122.3,72.8,47.68,37.76,42.43,42.94,18.61,25.03,23.71,22.68,13.68,13.37,12.06,14.65,12.87,0,0,0,0,0,0,0,0,0,0,0,0,0,0,0,0,
404,127.0,113.0,66.48,34.51,25.21,35.01,31.92,2.75,12.64,9.865,11.85,8.434,3.629,4.154,8.977,8.484,0,0,0,0,0,0,0,0,0,0,0,0,0,0,0,0,
405,126.9,120.2,67.03,25.64,24.41,31.81,24.68,-0.4781,4.627,7.774,9.29,8.506,5.221,6.687,6.986,7.314,0,0,0,0,0,0,0,0,0,0,0,0,0,0,0,0,
406,100.2,107.5,59.92,13.72,23.57,20.67,18.19,-2.389,10.31,16.68,1.55,3.831,0.2639,2.768,-5.339,-3.153,0,0,0,0,0,0,0,0,0,0,0,0,0,0,0,0,
407,88.44,68.42,45.11,12.62,14.19,14.91,-0.8262,-1.237,4.243,8.879,-5.552,4.056,-5.355,-0.6071,-10.11,-6.346,0,0,0,0,0,0,0,0,0,0,0,0,0,0,0,0,
408,118.2,82.09,54.4,27.18,21.15,29.77,9.51,8.635,3.763,5.322,9.025,15.61,7.801,12.84,5.94,8.908,0,0,0,0,0,0,0,0,0,0,0,0,0,0,0,0,
409,126.2,106.8,74.57,22.66,34.22,39.75,42.15,12.85,20.59,20.26,21.78,19.39,17.02,21.18,15.51,17.26,0,0,0,0,0,0,0,0,0,0,0,0,0,0,0,0,
410,96.95,70.2,72.59,8.275,26.72,30.16,39.17,10.01,19.65,21.26,13.63,11.48,8.145,12.07,9.457,11.75,0,0,0,0,0,0,0,0,0,0,0,0,0,0,0,0,
411,82.31,51.95,54.72,19.13,15.99,25.3,22.61,12.01,3.978,6.077,8.663,11.53,4.849,7.664,9.93,12.27,0,0,0,0,0,0,0,0,0,0,0,0,0,0,0,0,
412,86.23,85.56,44.61,34.16,21.71,34.57,27.01,17.01,9.011,7.03,14.75,19.09,12.69,12.22,16.13,15.82,0,0,0,0,0,0,0,0,0,0,0,0,0,0,0,0,
413,81.01,82.17,48.66,22.62,27.61,31.46,22.01,11.13,21.89,18.25,12.11,12.68,10.78,5.163,7.599,4.816,0,0,0,0,0,0,0,0,0,0,0,0,0,0,0,0,
414,64.54,38.92,46.59,1.888,19.27,5.483,8.027,-5.045,16.02,9.744,0.2994,-3.067,-3.158,-10.69,-7.503,-9.925,0,0,0,0,0,0,0,0,0,0,0,0,0,0,0,0,
415,49.32,22.14,26.92,-2.775,8.191,-9.199,9.337,-10.35,4.287,-7.869,-2.872,-1.22,-7.746,-9.753,-3.984,-5.28,0,0,0,0,0,0,0,0,0,0,0,0,0,0,0,0,
416,47.12,29.94,20.7,3.305,6.619,5.473,12.25,-1.875,2.717,-6.184,4.632,13.63,1.446,5.099,10.13,9.128,0,0,0,0,0,0,0,0,0,0,0,0,0,0,0,0,
417,52.28,32.23,37.97,4.783,7.229,13.72,12.31,2.57,3.865,1.715,8.009,14.29,4.571,7.018,10.96,10.2,0,0,0,0,0,0,0,0,0,0,0,0,0,0,0,0,
418,46.75,30.84,35.66,-1.094,0.8021,-2.951,15.23,-0.3572,0.3544,-6.841,2.997,2.521,-2.761,-4.949,3.214,2.067,0,0,0,0,0,0,0,0,0,0,0,0,0,0,0,0,
419,35.6,38.32,15.08,-6.831,-3.367,-12.77,16.9,-4.903,-2.678,-17.11,3.219,-0.4891,-3.872,-10.02,2.808,0.8301,0,0,0,0,0,0,0,0,0,0,0,0,0,0,0,0,
420,34.79,36.38,22.12,-4.45,2.923,-3.996,22.86,-6.759,1.045,-11.25,11.25,6.047,2.38,-4.199,6.749,5.153,0,0,0,0,0,0,0,0,0,0,0,0,0,0,0,0,
421,25.3,-3.554,29.97,-7.671,1.805,-5.469,18.02,-9.487,2.345,-2.152,5.244,3.88,-3.695,-6.035,-0.5165,-0.9802,0,0,0,0,0,0,0,0,0,0,0,0,0,0,0,0,
422,-6.899,-39.22,-1.716,-24.69,-14.34,-20.33,-4.509,-19.36,-11.54,-8.63,-13.17,-4.607,-17.14,-15.06,-11.03,-10.45,0,0,0,0,0,0,0,0,0,0,0,0,0,0,0,0,
423,-7.352,-15.39,-15.26,-15.21,-13.2,-12.07,-2.81,-13.9,-17.99,-16.86,-4.774,7.687,-4.547,-0.4318,6.376,7.215,0,0,0,0,0,0,0,0,0,0,0,0,0,0,0,0,
424,38.59,19.98,19.43,17.3,8.702,15.09,15.58,11.89,4.689,-3.551,23.44,28.14,20.79,24.73,32.76,31.85,0,0,0,0,0,0,0,0,0,0,0,0,0,0,0,0,
425,43.1,16.18,32.54,6.598,9.733,11.03,3.098,13.96,18.27,8.136,21.82,19.35,14.68,15.4,22.4,20.68,0,0,0,0,0,0,0,0,0,0,0,0,0,0,0,0,
426,6.61,7.942,10.27,-20.9,-4.75,-13.43,-11.92,-4.998,1.031,-4.398,2.669,4.504,-2.946,-5.234,2.415,3.58,0,0,0,0,0,0,0,0,0,0,0,0,0,0,0,0,
427,12.1,11.88,2.438,-8.931,-3.527,-10.21,0.0051,-3.705,-7.412,-11.81,0.7187,10.9,-0.5994,-2.567,6.556,10.28,0,0,0,0,0,0,0,0,0,0,0,0,0,0,0,0,
428,20.44,7.845,2.861,-9.541,-1.948,-0.7013,5.42,2.249,-2.142,-4.406,-1.437,11.0,-0.5859,-0.6538,7.789,10.85,0,0,0,0,0,0,0,0,0,0,0,0,0,0,0,0,
429,-9.606,-6.705,-4.648,-39.91,-8.772,-13.7,-0.3472,-10.15,-8.582,-4.282,-10.35,2.121,-7.255,-4.936,1.36,3.369,0,0,0,0,0,0,0,0,0,0,0,0,0,0,0,0,
430,-12.94,-26.19,-5.919,-37.92,-9.083,-20.96,0.6273,-20.8,-13.16,-7.827,-10.87,2.845,-4.25,-0.8608,4.014,6.401,0,0,0,0,0,0,0,0,0,0,0,0,0,0,0,0,
431,14.1,-28.06,-2.293,-7.988,-6.463,-9.328,1.597,-13.63,-6.749,-8.61,-7.395,2.763,-0.1385,1.632,6.578,8.844,0,0,0,0,0,0,0,0,0,0,0,0,0,0,0,0,
432,29.03,-3.466,7.49,6.853,-1.671,1.156,6.282,3.558,-1.682,-8.412,1.972,1.512,3.032,3.258,9.34,8.199,0,0,0,0,0,0,0,0,0,0,0,0,0,0,0,0,
433,27.93,11.15,21.01,-0.1746,4.457,0.6294,17.72,9.24,2.371,-3.443,14.12,2.591,6.929,5.643,14.08,7.952,0,0,0,0,0,0,0,0,0,0,0,0,0,0,0,0,
434,8.136,6.218,15.15,-15.26,1.297,-4.357,19.7,-1.036,3.187,-0.9808,12.67,-1.101,4.734,1.061,10.73,4.285,0,0,0,0,0,0,0,0,0,0,0,0,0,0,0,0,
435,0.99,4.484,-1.345,-20.89,-3.511,-6.528,11.53,-6.02,-2.202,-1.292,5.119,-1.15,1.98,-1.376,4.158,3.087,0,0,0,0,0,0,0,0,0,0,0,0,0,0,0,0,
436,15.51,4.379,-5.085,-20.63,-5.394,-9.556,4.609,-5.333,-7.191,-0.2019,0.7812,3.28,-0.0718,-0.6621,-0.0408,3.675,0,0,0,0,0,0,0,0,0,0,0,0,0,0,0,0,
437,1.598,-3.337,-1.724,-16.6,-7.679,-9.522,1.51,-6.918,-8.236,-6.212,-0.4621,6.973,-1.92,-0.4755,-0.3153,4.484,0,0,0,0,0,0,0,0,0,0,0,0,0,0,0,0,
438,-13.0,-20.26,-0.0985,-5.44,-5.267,-6.473,-0.1046,-5.535,-4.038,-10.47,1.928,10.35,-2.072,1.6,-0.9996,4.76,0,0,0,0,0,0,0,0,0,0,0,0,0,0,0,0,
439,2.54,-37.89,-9.072,-17.17,-12.9,-21.78,-6.713,-13.55,-7.925,-11.66,-9.237,1.626,-14.97,-8.649,-15.9,-6.96,0,0,0,0,0,0,0,0,0,0,0,0,0,0,0,0,
440,-3.209,-37.6,-21.3,-40.64,-30.06,-35.55,-16.7,-23.76,-27.43,-24.0,-25.46,-6.378,-27.43,-20.05,-24.21,-13.61,0,0,0,0,0,0,0,0,0,0,0,0,0,0,0,0,
441,-10.48,-19.55,-8.922,-24.57,-23.3,-17.6,-14.21,-9.242,-30.4,-24.11,-14.04,5.519,-12.73,-7.699,-5.973,1.152,0,0,0,0,0,0,0,0,0,0,0,0,0,0,0,0,
442,13.59,-1.602,9.302,-1.988,-7.147,-7.973,1.523,4.083,-10.94,-7.743,2.456,10.31,0.6908,0.2357,3.763,5.353,0,0,0,0,0,0,0,0,0,0,0,0,0,0,0,0,
443,17.94,4.048,5.947,-13.54,-10.16,-20.04,10.42,-3.514,-5.553,-10.31,-0.674,1.873,-5.403,-8.877,-2.749,-3.642,0,0,0,0,0,0,0,0,0,0,0,0,0,0,0,0,
444,7.827,4.336,7.956,-15.62,-9.582,-16.52,7.657,-3.076,-8.789,-15.94,1.487,4.375,-3.941,-5.097,3.254,2.991,0,0,0,0,0,0,0,0,0,0,0,0,0,0,0,0,
445,12.75,7.481,17.3,1.438,-3.819,-12.05,6.672,0.2385,-3.612,-6.684,6.703,5.1,-1.764,-0.2981,6.462,6.479,0,0,0,0,0,0,0,0,0,0,0,0,0,0,0,0,
446,2.533,-12.1,8.134,-7.646,-12.96,-17.92,8.014,-9.601,-9.565,-12.73,-2.508,-4.835,-13.68,-11.49,-5.664,-6.806,0,0,0,0,0,0,0,0,0,0,0,0,0,0,0,0,
447,-8.148,-46.73,-1.879,-31.06,-17.46,-12.81,4.426,-14.3,-20.69,-24.66,-6.872,-6.031,-16.63,-14.15,-7.387,-9.406,0,0,0,0,0,0,0,0,0,0,0,0,0,0,0,0,
448,9.59,-28.32,4.429,-18.77,-4.984,-6.633,2.943,-10.22,-13.13,-13.83,4.143,3.673,-3.611,-2.28,5.184,3.114,0,0,0,0,0,0,0,0,0,0,0,0,0,0,0,0,
449,18.05,17.24,14.77,11.51,5.571,1.142,7.485,-2.501,0.6919,2.52,13.15,9.478,4.469,3.672,9.796,8.819,0,0,0,0,0,0,0,0,0,0,0,0,0,0,0,0,
450,1.47,-3.714,14.5,-0.9199,-0.1724,6.051,3.004,2.684,-1.012,3.498,3.797,0.1194,-6.638,-7.433,-6.226,-3.392,0,0,0,0,0,0,0,0,0,0,0,0,0,0,0,0,
451,-5.045,-41.75,-3.776,-37.29,-19.02,-21.41,-12.46,-8.879,-19.36,-11.59,-16.42,-12.88,-25.82,-22.71,-24.58,-17.33,0,0,0,0,0,0,0,0,0,0,0,0,0,0,0,0,
452,9.213,-8.154,-15.4,-34.2,-24.89,-39.14,-13.46,-14.45,-32.8,-24.41,-16.78,-5.721,-23.57,-15.66,-15.04,-7.434,0,0,0,0,0,0,0,0,0,0,0,0,0,0,0,0,
453,19.14,29.12,2.724,-5.415,-6.582,-7.915,5.678,4.856,-20.6,-13.08,4.128,12.39,-1.665,6.117,8.702,13.15,0,0,0,0,0,0,0,0,0,0,0,0,0,0,0,0,
454,16.51,8.892,22.58,8.976,8.942,15.23,18.14,16.21,0.3941,5.146,14.46,18.63,10.31,13.77,14.99,16.66,0,0,0,0,0,0,0,0,0,0,0,0,0,0,0,0,
455,20.46,-6.571,22.51,13.29,9.952,10.9,16.0,10.24,6.492,7.873,10.33,15.25,9.389,10.89,9.641,10.86,0,0,0,0,0,0,0,0,0,0,0,0,0,0,0,0,
456,28.74,4.729,19.36,16.27,8.233,15.11,13.73,9.43,3.361,6.561,9.18,11.85,7.831,11.09,6.976,10.04,0,0,0,0,0,0,0,0,0,0,0,0,0,0,0,0,
457,31.59,12.28,26.01,20.15,10.19,20.02,15.19,10.48,2.774,9.843,14.52,12.05,10.34,14.35,9.425,13.33,0,0,0,0,0,0,0,0,0,0,0,0,0,0,0,0,
458,38.16,23.2,33.42,19.57,15.97,13.96,19.09,5.874,8.3,13.36,18.67,12.57,15.22,16.09,14.55,14.88,0,0,0,0,0,0,0,0,0,0,0,0,0,0,0,0,
459,31.27,24.99,21.21,7.755,11.33,4.79,17.77,2.517,10.46,10.52,12.36,8.822,10.44,8.406,12.55,8.429,0,0,0,0,0,0,0,0,0,0,0,0,0,0,0,0,
460,5.52,6.853,2.172,4.075,-4.975,-5.013,2.254,2.857,-1.539,-2.114,4.405,7.261,-0.1112,-0.6984,7.78,3.077,0,0,0,0,0,0,0,0,0,0,0,0,0,0,0,0,
461,9.332,8.504,13.73,12.99,-6.357,-2.672,-6.428,6.949,-11.13,-8.629,9.196,8.712,0.5532,1.778,9.623,6.684,0,0,0,0,0,0,0,0,0,0,0,0,0,0,0,0,
462,46.77,28.46,38.01,18.93,5.484,11.2,8.913,15.17,-5.778,-0.6542,13.35,6.687,3.791,4.748,8.323,7.445,0,0,0,0,0,0,0,0,0,0,0,0,0,0,0,0,
463,69.66,38.11,41.73,25.98,9.515,17.97,21.14,18.73,-1.129,4.795,5.688,5.426,-1.434,0.744,1.559,2.85,0,0,0,0,0,0,0,0,0,0,0,0,0,0,0,0,
464,75.64,54.86,40.87,25.67,10.17,22.64,13.59,9.397,-2.446,2.753,-1.492,6.106,-5.721,-2.208,-1.807,0.1954,0,0,0,0,0,0,0,0,0,0,0,0,0,0,0,0,
465,93.2,86.32,46.26,21.39,15.73,37.36,10.87,4.77,-0.773,3.787,1.162,10.41,0.0539,1.853,2.702,3.982,0,0,0,0,0,0,0,0,0,0,0,0,0,0,0,0,
466,125.2,117.9,63.71,49.8,32.73,56.21,27.89,22.68,10.88,14.53,17.14,27.08,18.5,18.59,18.91,20.21,0,0,0,0,0,0,0,0,0,0,0,0,0,0,0,0,
467,151.2,142.0,100.9,84.67,59.1,70.31,48.42,38.89,33.32,34.88,34.9,40.18,34.74,35.56,30.33,33.21,0,0,0,0,0,0,0,0,0,0,0,0,0,0,0,0,
468,153.4,147.0,120.1,79.27,70.52,79.12,54.58,33.59,46.95,49.91,34.42,33.64,31.39,33.85,21.17,25.86,0,0,0,0,0,0,0,0,0,0,0,0,0,0,0,0,
469,144.6,143.7,111.6,72.7,70.79,88.1,50.84,29.95,44.51,52.12,29.94,29.87,26.94,30.24,16.85,20.69,0,0,0,0,0,0,0,0,0,0,0,0,0,0,0,0,
470,148.3,146.6,116.9,90.31,82.2,95.62,52.51,39.56,48.38,56.62,35.98,37.02,35.78,37.64,28.17,28.54,0,0,0,0,0,0,0,0,0,0,0,0,0,0,0,0,
471,152.0,143.8,123.5,93.48,86.93,97.05,54.21,43.17,55.6,60.64,32.43,34.8,37.78,36.0,29.06,27.57,0,0,0,0,0,0,0,0,0,0,0,0,0,0,0,0,
472,140.8,140.8,112.3,81.52,76.04,99.07,44.05,32.23,49.99,51.13,23.48,27.9,31.35,26.94,22.02,20.82,0,0,0,0,0,0,0,0,0,0,0,0,0,0,0,0,
473,140.9,141.3,112.0,78.71,72.38,101.1,35.81,21.36,45.56,44.3,28.6,28.37,30.67,27.37,21.81,20.64,0,0,0,0,0,0,0,0,0,0,0,0,0,0,0,0,
474,150.9,129.4,118.2,80.22,72.96,96.06,38.74,26.6,46.54,50.33,30.17,30.18,28.27,28.42,18.73,17.63,0,0,0,0,0,0,0,0,0,0,0,0,0,0,0,0,
475,131.9,126.8,109.4,83.19,68.17,90.97,40.47,39.55,42.09,53.4,21.53,31.68,23.96,24.91,16.26,13.89,0,0,0,0,0,0,0,0,0,0,0,0,0,0,0,0,
476,111.5,138.5,99.55,82.42,66.95,85.41,43.25,39.13,41.07,49.91,23.63,29.12,27.64,23.8,21.97,15.0,0,0,0,0,0,0,0,0,0,0,0,0,0,0,0,0,
477,120.3,116.8,95.37,66.09,63.9,71.2,47.0,25.27,44.22,44.13,28.62,17.77,27.19,19.0,20.2,9.083,0,0,0,0,0,0,0,0,0,0,0,0,0,0,0,0,
478,96.27,73.46,83.68,51.04,51.83,58.7,31.78,11.94,35.95,33.62,19.4,10.67,16.13,11.45,11.86,1.564,0,0,0,0,0,0,0,0,0,0,0,0,0,0,0,0,
479,47.85,64.18,67.69,53.35,46.02,57.45,18.28,11.42,23.92,28.87,16.55,19.0,17.61,17.37,19.16,12.2,0,0,0,0,0,0,0,0,0,0,0,0,0,0,0,0,
480,65.99,77.57,73.72,57.85,56.91,64.92,40.94,27.08,31.8,40.79,35.45,33.36,37.15,32.36,35.8,28.92,0,0,0,0,0,0,0,0,0,0,0,0,0,0,0,0,
481,99.84,79.97,91.82,54.06,65.08,72.07,59.16,38.23,51.36,52.57,43.32,35.04,41.27,32.27,32.31,24.52,0,0,0,0,0,0,0,0,0,0,0,0,0,0,0,0,
482,63.73,64.7,76.27,50.27,52.72,64.33,39.91,30.18,47.88,45.34,24.04,24.92,22.63,19.61,14.46,10.46,0,0,0,0,0,0,0,0,0,0,0,0,0,0,0,0,
483,32.02,28.31,52.13,52.04,41.61,50.66,31.31,20.92,28.33,33.58,16.9,23.71,18.56,19.63,16.05,14.88,0,0,0,0,0,0,0,0,0,0,0,0,0,0,0,0,
484,44.53,-5.311,59.44,47.14,45.07,45.22,42.96,20.41,27.86,32.72,29.95,28.69,31.24,27.42,29.2,25.95,0,0,0,0,0,0,0,0,0,0,0,0,0,0,0,0,
485,25.41,-2.866,56.16,28.75,40.48,37.44,38.32,19.65,33.84,30.54,30.19,28.55,30.91,26.44,26.38,24.95,0,0,0,0,0,0,0,0,0,0,0,0,0,0,0,0,
486,-13.71,15.11,35.99,21.67,32.4,34.0,32.86,15.23,28.71,27.58,22.84,30.91,24.18,25.15,19.34,22.55,0,0,0,0,0,0,0,0,0,0,0,0,0,0,0,0,
487,-21.03,9.443,32.23,27.31,32.51,35.42,26.08,5.588,27.04,30.14,17.38,25.2,19.24,20.05,15.93,17.53,0,0,0,0,0,0,0,0,0,0,0,0,0,0,0,0,
488,-28.43,-18.81,22.72,14.19,23.26,15.85,0.2731,-1.305,20.25,19.66,5.546,8.329,9.928,7.183,10.59,8.366,0,0,0,0,0,0,0,0,0,0,0,0,0,0,0,0,
489,-41.53,-41.36,13.4,-0.4861,17.15,0.0607,3.17,3.827,9.749,6.656,8.79,7.977,14.8,11.02,19.09,15.06,0,0,0,0,0,0,0,0,0,0,0,0,0,0,0,0,
490,-37.75,-43.63,24.48,10.02,25.75,12.06,33.43,8.085,18.82,15.9,27.59,16.64,30.44,24.73,33.74,27.86,0,0,0,0,0,0,0,0,0,0,0,0,0,0,0,0,
491,-35.2,-44.4,25.61,21.0,24.46,18.78,35.42,10.33,27.41,22.57,34.28,18.99,33.23,25.57,36.38,30.64,0,0,0,0,0,0,0,0,0,0,0,0,0,0,0,0,
492,-28.57,-54.66,26.51,21.93,25.61,23.99,39.19,21.56,27.99,19.26,40.25,30.79,36.03,28.64,40.57,35.08,0,0,0,0,0,0,0,0,0,0,0,0,0,0,0,0,
493,-28.03,-55.75,34.62,16.46,34.4,32.52,49.39,22.3,37.2,26.56,40.59,32.19,33.03,26.25,33.42,25.27,0,0,0,0,0,0,0,0,0,0,0,0,0,0,0,0,
494,-65.59,-50.27,10.8,-1.151,15.43,11.2,13.51,6.883,24.46,21.38,11.48,8.445,7.003,3.392,4.139,-3.491,0,0,0,0,0,0,0,0,0,0,0,0,0,0,0,0,
495,-81.93,-51.05,-8.694,-2.743,-2.648,-5.019,-14.35,4.242,-3.025,3.333,-7.016,1.938,-3.005,-2.732,-4.424,-7.762,0,0,0,0,0,0,0,0,0,0,0,0,0,0,0,0,
496,-54.99,-52.31,8.619,10.68,11.92,8.05,7.663,7.027,5.266,7.096,3.557,9.216,9.36,7.287,3.626,2.317,0,0,0,0,0,0,0,0,0,0,0,0,0,0,0,0,
497,-69.67,-65.75,-0.9021,-8.712,10.69,-4.978,10.98,-5.181,15.26,8.025,-1.356,-3.074,1.766,-3.708,-7.947,-7.375,0,0,0,0,0,0,0,0,0,0,0,0,0,0,0,0,
498,-98.28,-81.72,-29.93,-28.28,-6.6,-22.76,-4.647,-6.894,-2.307,-8.19,-8.524,-1.491,-4.331,-6.283,-7.672,-3.129,0,0,0,0,0,0,0,0,0,0,0,0,0,0,0,0,
499,-65.97,-69.32,-16.55,-4.253,2.202,-1.004,0.9288,5.669,-0.7038,-0.8136,6.08,18.94,9.352,11.87,8.574,15.46,0,0,0,0,0,0,0,0,0,0,0,0,0,0,0,0,
500,-47.01,-70.19,-5.742,-0.2942,5.242,2.599,-5.054,-0.3935,8.514,11.63,-2.681,8.023,0.0768,2.525,-5.364,1.94,0,0,0,0,0,0,0,0,0,0,0,0,0,0,0,0,
501,-84.74,-98.52,-31.66,-28.71,-13.57,-17.03,-23.91,-7.573,-10.41,-5.736,-28.87,-8.49,-16.79,-14.37,-18.86,-11.79,0,0,0,0,0,0,0,0,0,0,0,0,0,0,0,0,
502,-96.06,-79.85,-33.55,-17.06,-9.828,-3.642,-16.49,9.892,-15.97,-10.89,-17.3,7.831,2.046,5.28,4.378,8.597,0,0,0,0,0,0,0,0,0,0,0,0,0,0,0,0,
503,-71.94,-41.85,-12.45,4.901,6.649,5.955,3.906,15.23,6.36,9.727,4.631,11.0,18.0,19.3,13.32,12.54,0,0,0,0,0,0,0,0,0,0,0,0,0,0,0,0,
504,-72.34,-58.93,-20.94,-14.23,-1.657,-16.0,3.216,-7.441,9.808,9.883,-5.904,-10.7,-0.5243,-0.2229,-10.06,-12.79,0,0,0,0,0,0,0,0,0,0,0,0,0,0,0,0,
505,-78.0,-69.52,-33.34,-21.65,-14.28,-21.47,-17.24,-17.05,-8.602,-6.248,-17.13,-11.52,-14.41,-10.75,-17.52,-17.56,0,0,0,0,0,0,0,0,0,0,0,0,0,0,0,0,
506,-55.7,-43.16,-18.02,-6.043,-6.651,-11.32,-18.57,-3.133,-14.18,-5.17,-4.358,2.196,-3.212,1.079,-0.8368,0.077,0,0,0,0,0,0,0,0,0,0,0,0,0,0,0,0,
507,-44.24,-51.34,-7.515,-9.959,3.748,-8.241,10.04,1.132,-2.593,4.276,7.334,1.432,8.479,7.754,11.25,9.462,0,0,0,0,0,0,0,0,0,0,0,0,0,0,0,0,
508,-67.11,-79.66,-17.56,-15.64,-1.354,-3.243,16.09,-10.92,2.906,4.352,1.977,-4.71,6.861,4.202,12.23,11.74,0,0,0,0,0,0,0,0,0,0,0,0,0,0,0,0,
509,-86.08,-78.49,-24.44,-12.1,-11.1,-6.777,-4.072,-10.29,-5.041,-0.9671,-4.104,-1.939,3.822,4.018,11.02,16.22,0,0,0,0,0,0,0,0,0,0,0,0,0,0,0,0,
510,-82.38,-72.97,-23.49,-15.02,-9.654,-15.74,-1.217,2.93,-6.731,-3.922,0.5453,3.894,5.295,6.213,8.445,16.44,0,0,0,0,0,0,0,0,0,0,0,0,0,0,0,0,
511,-81.18,-69.89,-32.31,-15.23,-9.011,-16.1,4.81,-1.529,-2.498,-6.134,0.6791,1.506,-0.6638,0.2185,-0.3158,7.64,0,0,0,0,0,0,0,0,0,0,0,0,0,0,0,0,
512,-86.74,-59.01,-44.17,-23.58,-19.26,-28.27,-7.83,-13.78,-12.25,-11.66,-9.748,-4.285,-11.19,-8.316,-9.129,-2.543,0,0,0,0,0,0,0,0,0,0,0,0,0,0,0,0,
513,-75.65,-64.91,-37.83,-37.83,-18.89,-35.7,-6.811,-9.224,-19.84,-12.49,-11.39,-2.092,-7.346,-5.657,-5.651,-2.857,0,0,0,0,0,0,0,0,0,0,0,0,0,0,0,0,
514,-56.33,-72.87,-28.54,-19.93,-4.422,-10.84,-2.578,-2.938,-5.732,-3.004,-0.3967,2.537,5.977,3.718,6.358,6.684,0,0,0,0,0,0,0,0,0,0,0,0,0,0,0,0,
515,-57.91,-56.21,-32.24,1.564,-1.842,0.0324,-12.12,-3.857,6.473,2.967,4.322,1.035,8.49,6.057,10.73,11.8,0,0,0,0,0,0,0,0,0,0,0,0,0,0,0,0,
516,-69.42,-58.66,-31.76,-16.36,-12.78,-20.12,-11.25,-3.236,-0.9392,-4.123,-3.407,-2.991,-1.788,-0.6451,2.79,5.449,0,0,0,0,0,0,0,0,0,0,0,0,0,0,0,0,
517,-70.65,-89.69,-32.26,-33.23,-20.52,-26.22,-9.407,-4.799,-14.8,-14.44,-9.65,-1.807,-11.08,-5.476,-3.466,0.9632,0,0,0,0,0,0,0,0,0,0,0,0,0,0,0,0,
518,-74.0,-81.73,-42.81,-25.91,-19.72,-22.15,-16.52,-5.238,-21.57,-16.28,-5.075,5.305,-8.539,-0.4275,2.695,6.603,0,0,0,0,0,0,0,0,0,0,0,0,0,0,0,0,
519,-76.66,-41.28,-38.11,-21.43,-9.879,-25.64,-4.49,-0.8153,-15.84,-8.376,3.807,9.029,2.375,6.585,12.4,12.6,0,0,0,0,0,0,0,0,0,0,0,0,0,0,0,0,
520,-64.16,-38.2,-24.08,-18.46,-0.237,-17.08,15.6,-1.21,-2.385,1.254,9.694,5.532,9.7,6.794,14.39,12.04,0,0,0,0,0,0,0,0,0,0,0,0,0,0,0,0,
521,-56.28,-59.79,-28.57,-16.81,-3.534,-6.061,12.51,-5.374,4.879,3.39,9.941,-0.2866,7.922,2.77,8.963,6.001,0,0,0,0,0,0,0,0,0,0,0,0,0,0,0,0,
522,-61.11,-59.36,-34.02,-24.34,-10.63,-13.44,1.708,-5.259,1.708,-3.004,5.003,-4.829,1.26,-1.168,2.541,-0.4084,0,0,0,0,0,0,0,0,0,0,0,0,0,0,0,0,
523,-58.87,-52.68,-27.92,-24.22,-10.58,-22.9,-0.1679,-3.254,-4.827,-9.571,-0.0991,-4.381,-4.562,-1.96,-1.32,-1.424,0,0,0,0,0,0,0,0,0,0,0,0,0,0,0,0,
524,-56.04,-60.21,-30.31,-22.67,-12.51,-24.91,-7.052,-6.128,-11.72,-9.222,-7.423,-1.217,-9.585,-1.209,-6.394,-1.624,0,0,0,0,0,0,0,0,0,0,0,0,0,0,0,0,
525,-64.22,-67.95,-35.4,-33.59,-18.26,-25.44,-18.4,-11.51,-17.79,-7.906,-17.06,-1.878,-13.1,-4.96,-10.7,-4.186,0,0,0,0,0,0,0,0,0,0,0,0,0,0,0,0,
526,-70.26,-67.09,-35.55,-40.14,-20.95,-27.31,-16.94,-11.45,-19.52,-15.79,-17.04,-6.038,-11.64,-10.86,-7.061,-2.81,0,0,0,0,0,0,0,0,0,0,0,0,0,0,0,0,
527,-63.47,-54.92,-44.71,-37.31,-22.17,-33.67,-8.269,-8.156,-17.8,-25.56,-6.095,-6.665,-4.849,-8.375,1.99,4.625,0,0,0,0,0,0,0,0,0,0,0,0,0,0,0,0,
528,-42.89,-37.6,-39.9,-25.61,-15.09,-28.82,-6.041,-4.825,-9.167,-18.91,6.502,1.321,6.351,3.418,10.21,14.03,0,0,0,0,0,0,0,0,0,0,0,0,0,0,0,0,
529,-33.07,-46.16,-14.23,-14.02,-4.525,-13.45,-8.65,-5.528,4.066,-5.135,6.891,0.8319,7.461,4.104,5.919,11.62,0,0,0,0,0,0,0,0,0,0,0,0,0,0,0,0,
530,-61.51,-72.52,-24.55,-29.07,-16.06,-21.5,-16.05,-15.44,-4.107,-13.64,-12.8,-16.45,-11.71,-12.6,-12.25,-4.51,0,0,0,0,0,0,0,0,0,0,0,0,0,0,0,0,
531,-82.39,-62.62,-55.27,-44.09,-29.71,-35.78,-20.18,-14.65,-27.17,-29.24,-22.79,-15.54,-18.51,-12.71,-13.87,-4.592,0,0,0,0,0,0,0,0,0,0,0,0,0,0,0,0,
532,-52.85,-38.53,-40.57,-29.95,-13.21,-24.78,-8.778,2.159,-20.44,-15.1,-4.655,6.416,2.802,9.218,6.635,14.25,0,0,0,0,0,0,0,0,0,0,0,0,0,0,0,0,
533,-26.62,-53.25,-18.33,-18.79,1.531,-18.27,4.487,5.404,4.151,6.853,11.45,10.95,16.15,15.21,17.92,21.82,0,0,0,0,0,0,0,0,0,0,0,0,0,0,0,0,
534,-36.19,-56.21,-25.59,-15.63,-4.645,-23.31,10.18,-0.4646,8.998,3.597,16.66,4.301,12.97,5.798,16.41,18.36,0,0,0,0,0,0,0,0,0,0,0,0,0,0,0,0,
535,-50.6,-25.25,-28.5,-16.4,-10.39,-20.5,7.408,-1.63,4.745,-9.081,14.44,0.9141,5.188,-1.021,5.772,9.187,0,0,0,0,0,0,0,0,0,0,0,0,0,0,0,0,
536,-60.94,-36.28,-33.79,-28.8,-19.29,-20.88,-11.81,-7.732,-4.376,-17.61,-4.907,-5.619,-9.187,-8.016,-10.94,-4.141,0,0,0,0,0,0,0,0,0,0,0,0,0,0,0,0,
537,-54.86,-65.09,-40.75,-17.25,-19.84,-14.4,-16.98,-2.391,-14.51,-16.66,-9.209,1.15,-5.814,-0.6099,-3.252,3.049,0,0,0,0,0,0,0,0,0,0,0,0,0,0,0,0,
538,-32.31,-39.98,-24.57,-3.328,2.146,-0.0067,5.711,9.453,0.1762,1.914,13.64,12.97,15.19,15.29,16.58,17.77,0,0,0,0,0,0,0,0,0,0,0,0,0,0,0,0,
539,-31.91,-21.65,-19.5,-29.16,7.043,-8.636,8.599,-0.4281,14.36,12.15,17.67,4.553,14.91,11.78,12.42,12.25,0,0,0,0,0,0,0,0,0,0,0,0,0,0,0,0,
540,-36.95,-45.94,-27.09,-23.9,-4.33,-16.69,1.615,-0.8081,5.461,4.343,11.21,0.9603,11.33,11.21,12.2,13.94,0,0,0,0,0,0,0,0,0,0,0,0,0,0,0,0,
541,-24.32,-49.72,-13.75,12.99,6.624,-2.739,13.32,15.23,10.48,10.2,21.27,9.819,22.77,21.69,24.1,23.63,0,0,0,0,0,0,0,0,0,0,0,0,0,0,0,0,
542,-30.48,-36.95,-14.27,-7.606,12.44,-1.471,1.001,4.068,20.48,19.5,17.4,4.5,15.13,10.65,14.2,11.83,0,0,0,0,0,0,0,0,0,0,0,0,0,0,0,0,
543,-43.87,-34.77,-32.32,-33.52,-2.561,-8.554,-19.95,-11.1,6.161,8.036,3.279,-1.446,0.4912,-3.544,4.026,3.27,0,0,0,0,0,0,0,0,0,0,0,0,0,0,0,0,
544,-37.22,-25.12,-23.72,-12.87,-5.538,-6.748,-3.557,-4.957,-3.326,-2.767,7.647,2.628,4.996,-0.2085,12.14,9.74,0,0,0,0,0,0,0,0,0,0,0,0,0,0,0,0,
545,-34.46,-24.42,-7.922,-15.43,-1.622,-13.72,10.96,-5.534,-0.8419,-4.444,15.3,3.697,9.521,1.555,17.05,11.25,0,0,0,0,0,0,0,0,0,0,0,0,0,0,0,0,
546,-28.4,-32.13,-3.461,-28.36,1.01,-14.27,14.79,0.6564,0.7113,-2.23,22.62,11.27,16.19,10.23,23.82,19.13,0,0,0,0,0,0,0,0,0,0,0,0,0,0,0,0,
547,-16.04,-22.98,-2.515,-7.913,6.496,-2.613,20.55,16.87,11.29,8.483,22.19,12.98,18.43,17.53,20.49,20.26,0,0,0,0,0,0,0,0,0,0,0,0,0,0,0,0,
548,-28.61,-28.88,-25.89,-6.171,-6.819,-13.88,-7.993,0.746,6.955,4.287,-10.03,-9.869,-8.116,-3.509,-9.475,-4.203,0,0,0,0,0,0,0,0,0,0,0,0,0,0,0,0,
549,-40.03,-45.27,-47.8,-21.37,-18.21,-22.69,-28.86,-18.78,-15.5,-12.72,-26.9,-15.38,-17.86,-9.647,-14.76,-7.91,0,0,0,0,0,0,0,0,0,0,0,0,0,0,0,0,
550,-23.54,-30.26,-20.72,-8.254,6.066,4.704,7.291,1.492,-4.406,3.239,6.378,8.45,14.02,19.27,14.93,15.64,0,0,0,0,0,0,0,0,0,0,0,0,0,0,0,0,
551,-18.51,-19.05,7.075,0.2863,18.71,13.35,26.77,18.05,21.61,27.99,21.85,9.923,21.55,21.66,15.88,12.03,0,0,0,0,0,0,0,0,0,0,0,0,0,0,0,0,
552,-38.58,-31.36,-13.2,-13.59,-6.647,-19.63,0.6162,5.316,8.248,7.916,-0.6135,-7.762,-4.212,-4.321,-5.771,-6.712,0,0,0,0,0,0,0,0,0,0,0,0,0,0,0,0,
553,-46.65,-33.06,-33.51,-19.01,-19.13,-32.94,-13.5,-5.172,-14.5,-19.73,-1.985,-5.348,-7.311,-6.557,-1.818,-0.9665,0,0,0,0,0,0,0,0,0,0,0,0,0,0,0,0,
554,-29.57,-28.81,-22.43,-13.86,-8.057,-13.88,-11.65,-3.565,-10.53,-11.48,13.28,6.09,5.59,4.869,11.1,9.794,0,0,0,0,0,0,0,0,0,0,0,0,0,0,0,0,
555,-16.78,-27.59,-15.56,-9.684,-4.673,-6.264,-11.51,3.088,-2.211,1.64,7.754,7.566,4.152,3.291,7.393,5.235,0,0,0,0,0,0,0,0,0,0,0,0,0,0,0,0,
556,-24.45,-24.92,-21.5,-12.31,-7.816,-14.72,-7.409,7.117,-3.28,-0.6538,-4.514,2.936,-1.694,-1.502,-1.12,-3.046,0,0,0,0,0,0,0,0,0,0,0,0,0,0,0,0,
557,-32.69,-25.29,-18.87,-18.67,-8.68,-17.15,-4.45,-0.5644,-4.671,-2.934,-4.81,-4.424,-3.121,-4.219,-4.847,-6.536,0,0,0,0,0,0,0,0,0,0,0,0,0,0,0,0,
558,-32.3,-25.3,-16.1,-18.6,-7.592,-12.91,0.8979,-7.413,-3.214,-5.994,2.349,-5.71,-1.997,-5.304,-3.53,-3.858,0,0,0,0,0,0,0,0,0,0,0,0,0,0,0,0,
559,-27.13,-38.19,-16.86,-23.67,-0.5814,-11.61,12.89,-6.46,1.938,-7.929,8.076,0.6547,0.8949,-1.736,-1.947,-1.059,0,0,0,0,0,0,0,0,0,0,0,0,0,0,0,0,
560,-18.29,-53.93,-10.96,-31.86,1.079,-18.07,9.815,-9.456,3.773,-0.2796,-1.898,-4.663,-6.853,-6.808,-12.16,-10.3,0,0,0,0,0,0,0,0,0,0,0,0,0,0,0,0,
561,-24.98,-37.04,-19.05,-21.29,-11.64,-26.45,-10.88,-9.369,-8.761,-2.586,-22.78,-20.19,-22.49,-22.12,-25.63,-22.58,0,0,0,0,0,0,0,0,0,0,0,0,0,0,0,0,
562,-44.1,-21.69,-39.03,-10.59,-18.68,-21.82,-18.96,-2.53,-20.85,-17.15,-25.28,-19.71,-21.09,-22.43,-21.4,-18.92,0,0,0,0,0,0,0,0,0,0,0,0,0,0,0,0,
563,-45.11,-27.23,-33.63,-19.54,-15.25,-16.22,-12.58,-5.721,-15.43,-16.07,-12.57,-9.647,-10.72,-10.74,-12.54,-11.01,0,0,0,0,0,0,0,0,0,0,0,0,0,0,0,0,
564,-39.43,-21.87,-17.09,-23.57,-18.75,-28.26,-13.75,-11.8,-11.6,-10.86,-10.09,-11.23,-13.13,-9.047,-16.23,-13.08,0,0,0,0,0,0,0,0,0,0,0,0,0,0,0,0,
565,-37.72,-35.43,-15.19,-7.338,-18.27,-26.19,-11.43,-3.764,-15.75,-16.11,-7.125,-9.674,-10.32,-4.048,-14.17,-9.493,0,0,0,0,0,0,0,0,0,0,0,0,0,0,0,0,
566,-21.83,-54.01,-12.23,6.267,-4.749,-2.435,2.771,5.407,-6.13,-6.266,2.688,1.395,2.91,10.05,-4.059,0.171,0,0,0,0,0,0,0,0,0,0,0,0,0,0,0,0,
567,-13.91,-16.54,-13.04,-7.071,-2.719,-3.887,2.823,2.086,3.933,10.4,-2.19,0.9068,0.1928,8.09,-7.501,-3.963,0,0,0,0,0,0,0,0,0,0,0,0,0,0,0,0,
568,-27.99,0.3678,-25.44,-27.7,-14.95,-18.07,-8.821,-6.291,-5.821,5.401,-13.0,-8.996,-11.81,-7.117,-15.99,-14.55,0,0,0,0,0,0,0,0,0,0,0,0,0,0,0,0,
569,-33.74,-48.77,-29.06,-19.97,-20.52,-14.42,-7.801,-9.824,-15.4,-8.512,-10.56,-14.59,-12.19,-13.81,-11.66,-14.31,0,0,0,0,0,0,0,0,0,0,0,0,0,0,0,0,
570,-37.89,-53.39,-26.98,-2.388,-18.26,-19.75,-2.99,-4.666,-13.61,-17.39,-2.755,-14.02,-5.221,-10.19,-0.5247,-5.788,0,0,0,0,0,0,0,0,0,0,0,0,0,0,0,0,
571,-52.31,-9.663,-28.24,-10.01,-13.67,-29.04,-6.806,0.6783,-9.125,-17.54,3.811,-9.237,1.182,-2.346,4.543,0.7166,0,0,0,0,0,0,0,0,0,0,0,0,0,0,0,0,
572,-49.71,-14.04,-24.8,-23.24,-10.95,-20.9,-12.07,-2.874,-5.269,-7.043,2.22,-8.957,-0.5731,0.941,-2.186,-1.471,0,0,0,0,0,0,0,0,0,0,0,0,0,0,0,0,
573,-32.08,-38.26,-23.73,-14.57,-14.0,-14.4,-11.58,-4.479,-6.945,-3.064,-9.699,-10.78,-9.884,-3.664,-11.97,-8.491,0,0,0,0,0,0,0,0,0,0,0,0,0,0,0,0,
574,-21.91,-30.9,-31.28,-9.317,-16.69,-14.09,-9.059,-1.793,-11.18,-7.39,-17.64,-10.93,-15.62,-10.77,-17.26,-16.01,0,0,0,0,0,0,0,0,0,0,0,0,0,0,0,0,
575,-18.29,-27.34,-38.44,-26.91,-17.83,-19.94,-13.79,-6.828,-13.88,-10.1,-20.58,-18.37,-18.2,-17.81,-20.02,-21.09,0,0,0,0,0,0,0,0,0,0,0,0,0,0,0,0,
576,-12.98,-27.25,-29.33,-25.77,-13.1,-25.91,-7.71,-6.165,-15.42,-14.31,-13.64,-14.83,-10.09,-10.72,-7.704,-8.569,0,0,0,0,0,0,0,0,0,0,0,0,0,0,0,0,
577,-2.27,-7.61,2.66,2.13,6.351,-7.531,19.44,7.279,-1.676,-4.001,9.129,5.27,10.55,9.93,12.54,10.26,0,0,0,0,0,0,0,0,0,0,0,0,0,0,0,0,
578,-8.622,-12.4,14.47,-0.8149,14.93,6.683,18.28,4.464,16.0,16.35,11.75,0.2458,8.786,7.157,3.486,0.0289,0,0,0,0,0,0,0,0,0,0,0,0,0,0,0,0,
579,-37.69,-43.32,-19.51,-23.71,-4.157,-6.3,-13.93,-13.11,4.703,7.634,-12.12,-20.32,-13.02,-13.03,-17.66,-18.15,0,0,0,0,0,0,0,0,0,0,0,0,0,0,0,0,
580,-31.84,-29.7,-33.26,-13.4,-11.1,-6.364,-7.796,-8.252,-10.09,-8.893,-12.02,-10.33,-8.758,-5.927,-7.621,-6.213,0,0,0,0,0,0,0,0,0,0,0,0,0,0,0,0,
581,2.769,12.97,-3.325,-0.6899,4.234,-0.4353,19.17,9.41,2.644,1.691,5.134,4.814,5.814,8.065,5.514,4.532,0,0,0,0,0,0,0,0,0,0,0,0,0,0,0,0,
582,-12.27,7.678,-0.5386,-18.39,-1.818,-19.91,2.778,-0.9104,5.263,1.192,-5.778,-8.577,-8.661,-8.195,-11.06,-13.2,0,0,0,0,0,0,0,0,0,0,0,0,0,0,0,0,
583,-43.35,-31.73,-25.88,-32.9,-24.22,-34.94,-22.21,-23.29,-16.38,-21.38,-23.3,-20.54,-24.9,-23.88,-24.27,-24.9,0,0,0,0,0,0,0,0,0,0,0,0,0,0,0,0,
584,-24.91,-40.87,-22.01,-25.68,-21.82,-27.02,-14.62,-15.26,-21.16,-22.66,-15.24,-14.62,-17.14,-17.44,-14.64,-16.69,0,0,0,0,0,0,0,0,0,0,0,0,0,0,0,0,
585,-13.89,-21.3,-11.43,-13.45,-9.614,-20.13,-5.273,1.386,-10.07,-11.3,-6.549,-15.43,-12.08,-17.17,-10.32,-16.36,0,0,0,0,0,0,0,0,0,0,0,0,0,0,0,0,
586,-33.39,-18.87,-24.39,-12.64,-15.83,-21.9,-4.729,-6.251,-12.41,-15.71,-12.52,-20.7,-17.3,-22.11,-16.29,-21.78,0,0,0,0,0,0,0,0,0,0,0,0,0,0,0,0,
587,-18.33,-30.98,-20.7,-16.79,-15.05,-10.63,3.186,-5.395,-12.37,-13.33,-5.821,-7.276,-7.316,-6.575,-7.356,-8.807,0,0,0,0,0,0,0,0,0,0,0,0,0,0,0,0,
588,12.93,-17.15,5.027,-6.247,5.165,15.16,5.79,14.62,6.111,6.55,13.68,8.776,9.94,10.61,8.413,7.154,0,0,0,0,0,0,0,0,0,0,0,0,0,0,0,0,
589,3.487,10.46,3.642,0.2966,5.863,6.753,-5.684,7.583,14.22,9.018,9.908,-2.038,2.118,-1.983,-0.635,-3.133,0,0,0,0,0,0,0,0,0,0,0,0,0,0,0,0,
590,-21.53,7.494,-22.67,-17.85,-19.29,-37.91,-12.74,-20.3,-4.735,-18.02,-14.77,-25.2,-21.88,-26.66,-23.79,-23.03,0,0,0,0,0,0,0,0,0,0,0,0,0,0,0,0,
591,-33.3,-21.02,-34.49,-27.37,-29.15,-45.0,-9.15,-23.24,-23.49,-37.61,-25.52,-29.37,-29.11,-30.81,-27.64,-23.18,0,0,0,0,0,0,0,0,0,0,0,0,0,0,0,0,
592,-32.79,-40.23,-31.1,-16.38,-19.39,-19.36,-10.0,-8.737,-22.33,-27.28,-22.82,-19.06,-22.78,-20.82,-19.33,-15.49,0,0,0,0,0,0,0,0,0,0,0,0,0,0,0,0,
593,-16.45,-32.23,-28.07,-14.82,-18.79,-24.81,-15.34,-4.128,-17.64,-15.23,-24.74,-17.28,-22.35,-17.87,-19.58,-18.13,0,0,0,0,0,0,0,0,0,0,0,0,0,0,0,0,
594,-11.71,-8.956,-24.07,-21.14,-24.34,-36.1,-12.78,-8.084,-20.55,-19.69,-25.2,-22.37,-22.7,-19.01,-20.97,-21.21,0,0,0,0,0,0,0,0,0,0,0,0,0,0,0,0,
595,-31.4,-11.4,-19.4,-25.6,-21.11,-22.46,-10.86,-13.76,-17.71,-20.6,-21.94,-24.46,-19.4,-18.54,-19.63,-20.87,0,0,0,0,0,0,0,0,0,0,0,0,0,0,0,0,
596,-27.94,-38.7,-20.37,-28.03,-16.85,-14.62,-13.13,-13.32,-10.37,-17.39,-19.82,-23.98,-16.69,-17.23,-16.52,-18.15,0,0,0,0,0,0,0,0,0,0,0,0,0,0,0,0,
597,6.596,-19.19,-17.92,-7.423,-8.982,-3.874,2.844,4.268,-5.737,-15.34,-3.082,-8.394,-1.01,-0.3055,4.035,1.146,0,0,0,0,0,0,0,0,0,0,0,0,0,0,0,0,
598,20.25,37.27,0.3469,21.03,9.575,20.32,26.85,21.78,10.77,6.122,20.38,14.1,21.51,23.52,25.46,20.74,0,0,0,0,0,0,0,0,0,0,0,0,0,0,0,0,
599,0.1283,23.49,10.21,12.17,13.23,14.67,20.14,9.22,25.09,25.64,11.89,6.208,15.06,16.1,11.38,8.304,0,0,0,0,0,0,0,0,0,0,0,0,0,0,0,0,
600,-13.7,-28.26,-9.565,-11.34,-3.681,-12.68,-0.7454,-13.98,9.799,8.47,-11.4,-14.19,-6.611,-6.33,-10.38,-9.684,0,0,0,0,0,0,0,0,0,0,0,0,0,0,0,0,
601,-2.009,-8.678,-22.68,-13.35,-5.631,-16.18,2.59,-12.09,-2.967,-7.904,-7.34,-11.09,-5.005,-5.49,-4.306,-3.764,0,0,0,0,0,0,0,0,0,0,0,0,0,0,0,0,
602,4.833,18.06,-12.17,-15.5,5.079,-9.036,10.18,-2.652,7.186,-0.3845,2.672,-7.032,2.349,-1.383,2.472,1.366,0,0,0,0,0,0,0,0,0,0,0,0,0,0,0,0,
603,-2.082,-7.095,-10.11,-19.82,3.327,-4.394,1.645,-4.136,8.023,0.1015,-3.656,-11.4,-2.562,-7.086,-3.653,-3.054,0,0,0,0,0,0,0,0,0,0,0,0,0,0,0,0,
604,1.253,-3.563,-13.24,-5.855,-1.997,5.22,-0.9695,-0.1924,0.5206,-3.282,-10.25,-9.717,-6.315,-7.29,-8.765,-6.979,0,0,0,0,0,0,0,0,0,0,0,0,0,0,0,0,
605,-3.061,16.72,-9.694,4.583,-7.278,-1.503,0.9165,4.971,-2.5,-1.373,-16.21,-12.69,-11.53,-10.81,-16.37,-15.81,0,0,0,0,0,0,0,0,0,0,0,0,0,0,0,0,
606,-19.88,-4.111,-14.54,-7.903,-13.84,-18.64,-9.205,-0.5261,-9.453,-5.974,-18.48,-17.31,-15.55,-16.19,-19.18,-19.09,0,0,0,0,0,0,0,0,0,0,0,0,0,0,0,0,
607,-10.1,-19.4,-18.48,-25.29,-12.3,-20.44,-16.91,-9.955,-9.212,-8.994,-14.83,-19.8,-14.83,-17.2,-17.67,-17.43,0,0,0,0,0,0,0,0,0,0,0,0,0,0,0,0,
608,3.62,-15.85,-21.01,-29.74,-16.5,-21.93,-15.73,-21.27,-9.677,-16.28,-24.12,-28.78,-23.96,-26.5,-25.74,-24.58,0,0,0,0,0,0,0,0,0,0,0,0,0,0,0,0,
609,-8.498,-15.11,-31.22,-18.04,-21.71,-16.97,-11.52,-22.12,-21.9,-28.09,-25.91,-20.41,-22.27,-22.53,-16.18,-14.52,0,0,0,0,0,0,0,0,0,0,0,0,0,0,0,0,
610,-8.783,-1.454,-19.71,-3.646,-3.97,4.733,1.347,-6.581,-11.37,-12.44,-1.113,3.536,1.665,2.334,11.33,9.743,0,0,0,0,0,0,0,0,0,0,0,0,0,0,0,0,
611,0.2434,6.055,-0.124,-5.678,5.645,-0.2922,8.439,-2.188,8.636,7.998,3.275,0.6625,2.527,1.791,5.476,1.854,0,0,0,0,0,0,0,0,0,0,0,0,0,0,0,0,
612,-8.781,-0.3504,-9.784,-15.6,-8.221,-22.09,-0.6311,-7.39,-3.557,-3.728,-14.54,-12.51,-13.06,-13.92,-13.23,-15.07,0,0,0,0,0,0,0,0,0,0,0,0,0,0,0,0,
613,-2.564,9.628,-4.737,-10.54,-1.475,-7.058,2.874,5.197,-8.026,-8.399,-2.618,-1.449,0.7844,-1.645,0.6311,-3.267,0,0,0,0,0,0,0,0,0,0,0,0,0,0,0,0,
614,21.78,19.04,21.63,3.339,15.36,10.27,18.68,14.96,14.57,9.038,12.68,5.743,12.51,6.227,6.287,-0.8618,0,0,0,0,0,0,0,0,0,0,0,0,0,0,0,0,
615,13.4,6.612,2.222,2.385,-0.1937,-7.671,10.21,-4.002,10.31,4.311,-9.496,-8.236,-10.16,-15.26,-19.2,-22.81,0,0,0,0,0,0,0,0,0,0,0,0,0,0,0,0,
616,-13.42,-15.09,-35.29,-12.65,-23.61,-19.04,-12.6,-25.09,-18.06,-17.36,-30.48,-17.15,-28.8,-28.0,-31.52,-31.14,0,0,0,0,0,0,0,0,0,0,0,0,0,0,0,0,
617,-10.11,-34.75,-30.81,-24.03,-26.43,-14.33,-16.77,-23.14,-28.11,-21.19,-28.23,-16.89,-27.15,-23.45,-24.38,-24.3,0,0,0,0,0,0,0,0,0,0,0,0,0,0,0,0,
618,-3.716,-25.36,-18.53,-23.99,-22.07,-21.64,-9.436,-11.83,-25.94,-18.16,-21.83,-15.1,-21.7,-19.59,-16.09,-16.53,0,0,0,0,0,0,0,0,0,0,0,0,0,0,0,0,
619,-23.28,12.97,-18.44,-12.58,-13.86,-23.13,-5.562,-7.732,-19.69,-20.58,-5.205,-3.104,-7.716,-8.778,1.083,-0.8076,0,0,0,0,0,0,0,0,0,0,0,0,0,0,0,0,
620,-27.33,20.78,-8.574,-4.728,-3.151,-10.2,-5.434,-9.757,-4.772,-12.47,11.27,7.111,5.349,3.218,13.47,10.73,0,0,0,0,0,0,0,0,0,0,0,0,0,0,0,0,
621,-8.364,-5.595,-7.472,-17.91,-5.148,-12.54,-12.09,-11.49,-0.6368,0.6221,-1.438,0.4288,-2.261,-0.5244,4.255,4.968,0,0,0,0,0,0,0,0,0,0,0,0,0,0,0,0,
622,-2.237,-8.987,-23.5,-29.36,-14.77,-19.7,-17.73,-9.295,-12.01,-0.406,-20.72,-4.418,-11.99,-6.239,-3.174,-0.6189,0,0,0,0,0,0,0,0,0,0,0,0,0,0,0,0,
623,1.834,-6.147,-26.33,-12.5,-14.77,-6.089,-10.23,-2.714,-15.55,-5.244,-16.73,1.148,-5.497,-2.335,2.852,1.999,0,0,0,0,0,0,0,0,0,0,0,0,0,0,0,0,
624,13.69,-24.04,-9.6,12.11,-2.631,9.317,4.928,7.278,-3.964,-0.3362,-2.614,5.184,5.639,3.303,9.274,5.044,0,0,0,0,0,0,0,0,0,0,0,0,0,0,0,0,
625,14.83,-5.304,6.819,17.62,11.84,12.91,18.23,12.41,13.23,8.411,6.121,7.696,10.82,7.23,10.73,6.099,0,0,0,0,0,0,0,0,0,0,0,0,0,0,0,0,
626,9.568,39.41,5.331,2.033,11.58,8.127,17.08,2.985,20.13,12.92,2.277,4.075,3.425,2.314,-0.6042,-2.917,0,0,0,0,0,0,0,0,0,0,0,0,0,0,0,0,
627,0.2638,25.27,-15.18,-15.52,-4.635,-7.444,-4.108,-6.868,5.04,5.926,-14.94,-9.088,-14.13,-12.33,-20.55,-19.59,0,0,0,0,0,0,0,0,0,0,0,0,0,0,0,0,
628,-12.02,-9.686,-31.09,-10.93,-15.07,-14.45,-19.46,-2.72,-13.67,-8.044,-26.97,-13.19,-20.56,-16.36,-23.51,-21.24,0,0,0,0,0,0,0,0,0,0,0,0,0,0,0,0,
629,-0.6769,6.542,-18.63,4.133,-7.31,0.0429,-8.861,3.206,-11.73,-6.828,-16.78,-1.036,-4.943,-0.6845,-4.155,-3.181,0,0,0,0,0,0,0,0,0,0,0,0,0,0,0,0,
630,31.53,27.76,13.88,11.4,12.83,17.79,13.61,7.941,8.435,13.73,8.858,9.656,16.96,16.24,14.78,12.12,0,0,0,0,0,0,0,0,0,0,0,0,0,0,0,0,
631,44.06,19.75,31.58,18.96,27.29,28.26,27.0,12.63,27.75,26.47,23.55,10.21,24.39,17.08,16.9,11.16,0,0,0,0,0,0,0,0,0,0,0,0,0,0,0,0,
632,35.52,21.73,26.39,15.31,26.31,27.21,24.47,9.855,31.36,21.26,20.49,13.8,22.72,14.77,15.32,10.28,0,0,0,0,0,0,0,0,0,0,0,0,0,0,0,0,
633,46.11,41.35,27.17,-2.366,26.13,20.29,18.82,11.01,29.1,22.94,19.38,20.88,24.85,21.03,19.78,15.96,0,0,0,0,0,0,0,0,0,0,0,0,0,0,0,0,
634,74.09,51.91,30.75,0.0274,24.39,23.35,12.94,9.833,24.96,27.67,12.12,12.65,13.58,12.62,10.53,7.38,0,0,0,0,0,0,0,0,0,0,0,0,0,0,0,0,
635,86.29,63.21,24.87,19.84,13.33,27.06,1.844,-3.633,6.174,12.0,-2.91,4.536,-1.682,-1.135,2.072,2.057,0,0,0,0,0,0,0,0,0,0,0,0,0,0,0,0,
636,98.04,97.96,40.87,31.25,23.95,27.57,13.9,3.558,3.446,8.271,9.899,18.87,17.39,15.98,24.4,25.69,0,0,0,0,0,0,0,0,0,0,0,0,0,0,0,0,
637,122.2,119.2,70.34,36.94,47.23,35.96,39.56,19.27,34.07,32.45,30.63,23.73,37.73,29.53,36.8,35.68,0,0,0,0,0,0,0,0,0,0,0,0,0,0,0,0,
638,127.8,102.6,69.69,39.97,41.77,41.95,23.03,6.469,43.2,35.39,18.49,8.501,21.85,12.48,16.75,16.36,0,0,0,0,0,0,0,0,0,0,0,0,0,0,0,0,
639,125.1,111.3,62.49,44.74,34.08,49.91,-1.472,5.51,24.89,21.22,7.204,12.14,12.52,11.15,10.63,14.73,0,0,0,0,0,0,0,0,0,0,0,0,0,0,0,0,
640,147.3,157.4,78.33,57.2,48.12,70.22,21.46,30.47,26.53,30.19,19.44,29.29,24.24,27.98,20.06,25.84,0,0,0,0,0,0,0,0,0,0,0,0,0,0,0,0,
641,178.3,173.8,93.8,64.73,56.64,78.01,44.01,36.39,38.85,43.82,26.31,28.33,26.09,27.7,16.73,18.52,0,0,0,0,0,0,0,0,0,0,0,0,0,0,0,0,
642,180.3,156.2,96.84,61.02,56.13,66.98,35.64,26.81,41.13,45.23,18.99,13.88,20.41,19.07,8.755,4.788,0,0,0,0,0,0,0,0,0,0,0,0,0,0,0,0,
643,140.8,135.1,93.51,52.97,54.63,61.61,32.81,16.94,40.47,42.35,9.381,-0.1871,17.03,13.73,4.061,-1.269,0,0,0,0,0,0,0,0,0,0,0,0,0,0,0,0,
644,116.3,123.9,90.2,50.77,52.18,66.04,38.9,7.107,38.52,34.2,11.31,-3.695,18.03,12.76,6.897,3.102,0,0,0,0,0,0,0,0,0,0,0,0,0,0,0,0,
645,149.4,136.7,94.8,56.39,54.37,66.61,34.95,12.2,40.24,31.36,21.99,3.903,22.19,15.72,14.71,10.11,0,0,0,0,0,0,0,0,0,0,0,0,0,0,0,0,
646,156.5,142.0,91.17,52.61,47.54,56.27,24.39,17.13,38.75,30.66,16.76,5.565,14.53,8.424,9.091,3.591,0,0,0,0,0,0,0,0,0,0,0,0,0,0,0,0,
647,105.4,115.7,66.91,43.02,29.83,46.02,16.56,8.548,22.66,17.27,4.274,5.201,4.753,2.28,3.255,-1.41,0,0,0,0,0,0,0,0,0,0,0,0,0,0,0,0,
648,93.34,100.7,51.31,40.06,27.85,45.26,17.64,12.84,15.41,14.97,12.62,18.09,15.65,17.2,18.96,13.13,0,0,0,0,0,0,0,0,0,0,0,0,0,0,0,0,
649,109.2,92.09,65.24,26.14,39.46,42.62,24.96,24.74,30.4,34.41,28.89,27.28,31.93,30.04,33.36,25.36,0,0,0,0,0,0,0,0,0,0,0,0,0,0,0,0,
650,75.57,54.04,79.48,11.71,42.0,38.02,24.19,20.11,41.25,39.93,29.46,19.56,30.27,22.31,27.11,20.64,0,0,0,0,0,0,0,0,0,0,0,0,0,0,0,0,
651,49.26,36.7,67.52,20.66,36.14,40.62,18.44,13.29,34.23,23.9,22.09,15.62,19.59,14.75,20.88,19.1,0,0,0,0,0,0,0,0,0,0,0,0,0,0,0,0,
652,73.31,63.18,51.82,26.76,33.62,39.23,29.1,11.55,28.09,18.08,23.56,23.37,18.24,18.91,26.06,27.97,0,0,0,0,0,0,0,0,0,0,0,0,0,0,0,0,
653,70.65,64.49,45.69,18.08,29.63,28.96,34.63,0.2008,29.49,23.5,23.92,24.02,18.55,18.56,22.86,27.28,0,0,0,0,0,0,0,0,0,0,0,0,0,0,0,0,
654,27.85,38.09,28.97,12.58,16.51,20.35,4.471,-8.124,19.56,14.37,11.08,17.31,10.84,12.47,11.92,19.5,0,0,0,0,0,0,0,0,0,0,0,0,0,0,0,0,
655,17.93,33.81,17.48,1.685,12.33,11.99,-11.87,1.855,9.201,4.592,8.292,18.93,13.5,17.36,14.57,21.85,0,0,0,0,0,0,0,0,0,0,0,0,0,0,0,0,
656,30.95,29.27,30.77,-12.78,22.93,3.204,14.32,9.172,21.8,16.04,19.69,22.43,24.32,23.08,17.54,19.66,0,0,0,0,0,0,0,0,0,0,0,0,0,0,0,0,
657,15.43,15.34,38.11,-3.527,24.23,10.39,25.23,6.016,31.02,23.08,16.71,18.38,19.55,15.92,7.351,7.403,0,0,0,0,0,0,0,0,0,0,0,0,0,0,0,0,
658,0.2349,14.35,28.39,18.16,16.8,28.3,11.25,6.793,21.32,14.73,5.503,10.24,7.339,6.816,-1.323,0.281,0,0,0,0,0,0,0,0,0,0,0,0,0,0,0,0,
659,-0.3219,-5.566,15.66,9.914,8.585,20.78,3.208,0.2225,11.4,7.744,-0.1371,-2.927,-2.471,-3.748,-9.578,-9.573,0,0,0,0,0,0,0,0,0,0,0,0,0,0,0,0,
660,-12.79,-26.43,2.544,-17.97,-4.298,-4.99,-1.263,-11.52,-0.499,-1.391,-2.846,-8.446,-6.863,-8.764,-11.3,-14.2,0,0,0,0,0,0,0,0,0,0,0,0,0,0,0,0,
661,-12.84,0.0609,0.8445,-20.35,-4.831,-9.199,8.021,-5.417,-2.541,-3.136,5.143,0.807,3.389,2.075,2.122,-2.338,0,0,0,0,0,0,0,0,0,0,0,0,0,0,0,0,
662,-7.864,6.865,4.176,-13.6,3.729,-5.941,17.8,-1.982,11.74,4.856,8.809,-1.093,6.848,1.713,3.221,-2.644,0,0,0,0,0,0,0,0,0,0,0,0,0,0,0,0,
663,-31.72,-29.16,2.442,-20.94,1.716,-11.29,2.138,-12.71,9.961,-3.423,-0.7149,-8.056,-2.911,-8.348,-2.732,-7.677,0,0,0,0,0,0,0,0,0,0,0,0,0,0,0,0,
664,-38.26,-24.29,10.38,-11.28,2.396,-5.789,-1.809,-7.305,2.329,-9.818,3.732,4.801,0.4149,0.9596,9.325,6.724,0,0,0,0,0,0,0,0,0,0,0,0,0,0,0,0,
665,-21.75,-1.439,9.911,1.96,1.693,-5.054,6.373,6.575,5.939,-0.0336,10.79,12.41,2.635,6.446,12.65,11.12,0,0,0,0,0,0,0,0,0,0,0,0,0,0,0,0,
666,-30.21,-23.93,-5.031,-9.519,-12.22,-13.95,-13.18,5.644,-5.921,-5.034,1.492,4.911,-6.715,-2.087,1.447,2.041,0,0,0,0,0,0,0,0,0,0,0,0,0,0,0,0,
667,-35.28,-42.71,0.8438,-7.464,-15.54,-4.636,-21.89,0.7873,-16.77,-12.94,-0.5257,5.251,-4.352,0.1246,0.3763,4.124,0,0,0,0,0,0,0,0,0,0,0,0,0,0,0,0,
668,-19.5,-24.39,11.99,4.735,-5.135,0.9326,6.512,-1.822,-3.664,-5.723,5.404,6.119,3.046,3.878,1.585,6.981,0,0,0,0,0,0,0,0,0,0,0,0,0,0,0,0,
669,-11.78,-15.95,12.11,-11.09,6.731,-9.982,24.24,-1.716,9.286,-0.4718,8.721,3.016,8.231,5.911,3.993,9.28,0,0,0,0,0,0,0,0,0,0,0,0,0,0,0,0,
670,-12.58,-31.26,18.11,-22.84,16.73,-7.57,16.45,1.77,18.16,8.419,13.3,0.7568,14.47,11.82,8.649,11.97,0,0,0,0,0,0,0,0,0,0,0,0,0,0,0,0,
671,-27.12,-28.91,3.637,-15.43,4.353,-8.306,3.697,-5.486,16.92,9.634,4.253,-10.58,4.205,2.291,-0.8731,0.8675,0,0,0,0,0,0,0,0,0,0,0,0,0,0,0,0,
672,-47.09,-11.89,-25.06,-21.94,-18.99,-23.73,-9.733,-19.07,-6.055,-13.52,-10.97,-16.48,-9.541,-9.207,-8.379,-6.551,0,0,0,0,0,0,0,0,0,0,0,0,0,0,0,0,
673,-47.0,-25.89,-17.37,-28.0,-16.18,-18.22,-14.33,-18.71,-15.16,-19.88,-5.252,-7.388,-1.857,-1.206,0.7601,-0.2305,0,0,0,0,0,0,0,0,0,0,0,0,0,0,0,0,T2
674,-42.72,-48.83,2.16,-14.19,-2.849,-1.655,0.3569,-11.86,-0.8468,-2.323,5.018,-8.079,5.667,1.609,5.017,-1.083,0,0,0,0,0,0,0,0,0,0,0,0,0,0,0,0,
675,-38.74,-35.32,-0.3187,-6.55,-0.4099,-3.09,13.74,-10.94,4.276,-1.948,4.183,-14.62,3.27,-4.429,4.335,-1.892,0,0,0,0,0,0,0,0,0,0,0,0,0,0,0,0,
676,-20.29,-8.588,-0.3937,-11.38,7.101,-3.86,5.847,-5.646,8.088,-4.897,9.997,-6.932,10.13,3.945,11.8,8.894,0,0,0,0,0,0,0,0,0,0,0,0,0,0,0,0,
677,-9.052,-2.856,5.586,-13.5,14.07,-2.953,-3.898,0.2242,21.26,9.266,16.18,-3.918,13.63,9.48,9.245,6.043,0,0,0,0,0,0,0,0,0,0,0,0,0,0,0,0,
678,-26.4,-26.4,-2.572,-22.25,-2.017,-23.94,-4.007,-11.48,15.02,7.645,0.8477,-19.88,-5.144,-8.989,-11.37,-16.56,0,0,0,0,0,0,0,0,0,0,0,0,0,0,0,0,
679,-56.09,-48.68,-21.13,-36.88,-23.36,-38.56,-9.564,-22.24,-10.93,-16.9,-14.85,-25.35,-19.33,-22.09,-15.73,-20.53,0,0,0,0,0,0,0,0,0,0,0,0,0,0,0,0,
680,-56.93,-28.39,-24.45,-28.94,-17.25,-15.73,-10.14,-10.63,-16.39,-23.38,-2.283,-5.412,-4.933,-6.675,8.81,4.334,0,0,0,0,0,0,0,0,0,0,0,0,0,0,0,0,
681,-25.45,-13.72,-2.412,-6.841,1.701,4.175,3.863,-3.807,2.227,-6.147,13.9,6.703,10.1,7.768,23.4,18.54,0,0,0,0,0,0,0,0,0,0,0,0,0,0,0,0,
682,-14.68,-35.77,12.72,-8.803,3.548,-7.65,12.46,-13.26,9.823,-0.063,10.19,-1.474,6.457,3.47,16.23,12.2,0,0,0,0,0,0,0,0,0,0,0,0,0,0,0,0,
683,-27.83,-29.39,4.322,-23.91,-1.943,-17.52,11.04,-14.83,5.642,-6.052,6.441,-5.465,3.359,-0.5434,11.7,8.181,0,0,0,0,0,0,0,0,0,0,0,0,0,0,0,0,
684,-26.75,-13.05,-3.447,-23.34,-5.291,-13.73,4.947,-12.12,5.743,-5.961,6.142,-4.882,1.258,-3.569,6.497,2.957,0,0,0,0,0,0,0,0,0,0,0,0,0,0,0,0,
685,-24.84,-31.46,-8.576,-22.22,-12.62,-15.9,-3.255,-12.73,-0.9042,-7.63,-0.3581,-6.839,-6.661,-10.39,-1.461,-4.01,0,0,0,0,0,0,0,0,0,0,0,0,0,0,0,0,
686,-34.79,-27.42,-16.41,-27.84,-14.54,-24.8,-8.524,-9.235,-10.86,-13.49,-2.833,-6.766,-9.347,-12.4,-0.7492,-2.835,0,0,0,0,0,0,0,0,0,0,0,0,0,0,0,0,
687,-42.03,-11.61,-13.28,-20.87,-15.65,-33.41,-22.84,-13.09,-13.25,-20.03,-5.01,-12.68,-13.42,-17.12,-4.048,-6.697,0,0,0,0,0,0,0,0,0,0,0,0,0,0,0,0,
688,-43.38,-36.39,-9.716,-12.67,-24.95,-30.62,-35.4,-22.82,-19.07,-30.61,-10.4,-18.97,-19.74,-22.59,-9.23,-12.16,0,0,0,0,0,0,0,0,0,0,0,0,0,0,0,0,
689,-35.48,-51.39,-17.65,-21.08,-23.11,-17.23,-20.87,-21.98,-19.99,-30.21,-9.855,-18.13,-14.14,-17.0,-4.058,-7.286,0,0,0,0,0,0,0,0,0,0,0,0,0,0,0,0,
690,-27.64,-38.18,-21.16,-25.61,-12.31,-16.06,-10.15,-16.64,-9.823,-16.88,-12.82,-21.58,-9.704,-13.76,-4.047,-7.863,0,0,0,0,0,0,0,0,0,0,0,0,0,0,0,0,
691,-26.88,-30.85,-12.62,-14.82,-9.381,-18.98,-13.14,-10.91,-7.069,-10.55,-12.08,-16.07,-8.374,-11.63,-2.599,-7.302,0,0,0,0,0,0,0,0,0,0,0,0,0,0,0,0,
692,-16.03,-11.9,4.573,-8.146,-3.99,-10.86,5.96,-8.668,-2.954,-6.365,5.524,0.5686,3.488,-0.2594,10.69,5.355,0,0,0,0,0,0,0,0,0,0,0,0,0,0,0,0,
693,-8.028,7.679,13.38,-10.51,-1.099,-12.21,16.68,-18.98,6.569,-2.501,7.866,-3.947,4.127,-0.8523,7.003,3.041,0,0,0,0,0,0,0,0,0,0,0,0,0,0,0,0,
694,-23.5,-12.3,-7.57,-19.14,-11.69,-22.98,-7.553,-24.1,-0.8839,-11.25,-13.08,-19.0,-11.49,-13.77,-10.74,-12.1,0,0,0,0,0,0,0,0,0,0,0,0,0,0,0,0,
695,-39.38,-44.19,-26.6,-37.0,-15.44,-27.23,-20.01,-17.5,-11.53,-19.32,-19.83,-16.99,-13.74,-14.72,-10.18,-11.05,0,0,0,0,0,0,0,0,0,0,0,0,0,0,0,0,
696,-38.18,-43.27,-10.45,-35.54,-5.441,-20.1,-11.55,-15.0,-6.585,-14.34,-7.019,-6.734,-1.579,-5.952,4.84,1.498,0,0,0,0,0,0,0,0,0,0,0,0,0,0,0,0,
697,-25.56,-17.2,5.337,-1.376,3.996,5.234,-1.231,-5.616,2.042,-1.636,6.371,4.452,9.195,3.012,15.75,10.69,0,0,0,0,0,0,0,0,0,0,0,0,0,0,0,0,
698,-13.46,-10.88,0.88,6.677,2.765,11.03,5.691,3.718,6.557,7.749,3.203,4.467,4.468,0.4141,7.248,4.135,0,0,0,0,0,0,0,0,0,0,0,0,0,0,0,0,
699,-18.06,-35.51,-1.035,-29.48,-11.67,-24.94,-11.37,-15.79,-4.703,-5.584,-17.47,-11.44,-15.18,-16.24,-11.34,-12.46,0,0,0,0,0,0,0,0,0,0,0,0,0,0,0,0,
700,-23.61,-27.53,1.934,-35.14,-9.254,-28.12,-17.27,-29.42,-16.86,-20.21,-11.67,-5.435,-7.741,-8.622,2.295,-0.06,0,0,0,0,0,0,0,0,0,0,0,0,0,0,0,0,
701,-6.466,23.99,9.851,3.904,22.73,12.93,19.94,-6.001,10.82,4.039,25.57,19.01,25.28,21.16,30.68,26.92,0,0,0,0,0,0,0,0,0,0,0,0,0,0,0,0,
702,4.363,25.49,17.98,14.29,29.1,13.84,23.2,4.104,37.29,23.8,28.06,11.25,21.06,15.16,18.64,15.04,0,0,0,0,0,0,0,0,0,0,0,0,0,0,0,0,
703,-13.9,-28.19,8.227,-12.33,1.292,-10.81,-11.37,-15.0,11.5,-2.424,1.107,-7.706,-5.109,-9.492,-2.696,-5.557,0,0,0,0,0,0,0,0,0,0,0,0,0,0,0,0,
704,-24.61,-37.7,0.4333,-18.5,-2.176,0.0114,-0.6406,-14.94,-8.868,-15.64,2.175,0.0552,-0.7926,-3.939,4.802,2.61,0,0,0,0,0,0,0,0,0,0,0,0,0,0,0,0,
705,-7.067,-3.701,12.31,-7.725,9.911,12.21,16.23,-3.419,4.309,4.48,6.639,0.464,3.745,-0.4314,4.196,0.8855,0,0,0,0,0,0,0,0,0,0,0,0,0,0,0,0,
706,4.935,-0.2462,18.48,-20.44,3.909,-4.209,-0.6428,-14.97,4.434,2.995,-7.955,-11.55,-6.953,-13.15,-6.473,-10.5,0,0,0,0,0,0,0,0,0,0,0,0,0,0,0,0,
707,-9.517,-18.11,12.21,-34.62,5.449,-14.52,5.551,-22.26,3.332,-9.861,-0.7841,1.553,4.399,-1.5,6.278,5.146,0,0,0,0,0,0,0,0,0,0,0,0,0,0,0,0,
708,-23.4,-14.9,8.076,-16.84,17.08,-3.772,20.82,-4.678,20.52,2.552,18.9,17.34,20.88,17.86,18.14,18.74,0,0,0,0,0,0,0,0,0,0,0,0,0,0,0,0,
709,-14.02,-6.928,7.302,4.729,12.78,7.01,8.495,5.226,20.59,13.29,9.959,6.673,10.16,9.34,4.436,3.536,0,0,0,0,0,0,0,0,0,0,0,0,0,0,0,0,
710,-4.795,-7.483,3.991,9.47,3.807,4.678,-4.993,-1.409,3.943,5.38,-9.541,-4.668,-4.379,-3.924,-7.349,-8.666,0,0,0,0,0,0,0,0,0,0,0,0,0,0,0,0,
711,-14.89,5.736,-6.612,18.75,2.756,2.021,-18.35,2.489,-0.297,-0.4872,-9.943,-1.811,-1.214,-0.6083,0.1945,-2.032,0,0,0,0,0,0,0,0,0,0,0,0,0,0,0,0,
712,-18.89,17.0,-14.86,31.08,6.49,14.48,-23.87,14.65,5.898,3.553,1.777,5.679,10.34,10.09,11.44,6.426,0,0,0,0,0,0,0,0,0,0,0,0,0,0,0,0,
713,-9.487,0.4639,-17.2,29.98,15.32,24.48,-2.07,15.33,14.93,16.78,8.249,12.24,18.15,19.79,13.74,7.395,0,0,0,0,0,0,0,0,0,0,0,0,0,0,0,0,
714,-10.16,-8.993,-23.46,29.27,20.54,19.14,6.923,16.45,22.11,31.02,7.024,12.37,19.13,22.79,12.41,4.332,0,0,0,0,0,0,0,0,0,0,0,0,0,0,0,0,
715,-13.59,6.116,-21.24,39.74,18.85,23.55,-6.579,26.4,21.35,31.87,8.436,8.738,18.88,20.41,13.16,2.891,0,0,0,0,0,0,0,0,0,0,0,0,0,0,0,0,
716,-12.11,8.866,-12.89,40.28,15.38,32.11,-6.264,23.06,17.53,25.64,8.897,5.09,16.29,17.27,9.785,1.744,0,0,0,0,0,0,0,0,0,0,0,0,0,0,0,0,
717,-21.13,-6.111,-19.22,23.5,7.91,14.09,-8.752,10.62,13.21,21.38,1.764,0.2396,9.168,12.36,4.803,0.3955,0,0,0,0,0,0,0,0,0,0,0,0,0,0,0,0,
718,-26.06,-13.67,-20.38,15.31,4.894,-2.033,-23.78,12.13,8.479,15.74,1.112,1.607,9.678,11.82,9.743,5.768,0,0,0,0,0,0,0,0,0,0,0,0,0,0,0,0,
719,-13.19,-5.656,-12.52,23.34,11.6,12.37,-18.88,13.63,10.05,14.67,6.381,5.372,16.26,15.49,15.36,10.0,0,0,0,0,0,0,0,0,0,0,0,0,0,0,0,0,
720,-9.638,7.644,-23.11,31.49,11.41,21.92,-2.418,5.595,13.87,18.73,2.849,-0.3338,13.0,10.07,9.438,0.3618,0,0,0,0,0,0,0,0,0,0,0,0,0,0,0,0,
721,-24.39,4.041,-32.57,33.87,2.767,13.13,-2.301,5.629,9.03,15.49,1.25,-3.476,7.019,2.246,5.749,-7.642,0,0,0,0,0,0,0,0,0,0,0,0,0,0,0,0,
722,-29.04,-9.745,-19.74,26.53,3.099,13.89,-10.19,10.81,2.945,12.37,10.18,4.95,11.23,7.365,13.57,0.7403,0,0,0,0,0,0,0,0,0,0,0,0,0,0,0,0,
723,-15.83,-1.97,-6.817,19.63,11.76,20.65,-11.06,10.1,7.972,19.51,13.56,8.097,15.55,13.91,17.61,8.895,0,0,0,0,0,0,0,0,0,0,0,0,0,0,0,0,
724,-9.394,13.68,-6.326,29.63,14.14,14.92,-3.454,7.64,13.35,19.83,7.633,2.726,12.21,10.82,13.56,8.801,0,0,0,0,0,0,0,0,0,0,0,0,0,0,0,0,
725,-8.439,7.701,-8.627,32.97,12.17,9.761,8.441,7.957,10.88,10.91,10.24,6.644,13.97,12.11,17.53,15.11,0,0,0,0,0,0,0,0,0,0,0,0,0,0,0,0,
726,5.281,-2.099,-0.8093,19.77,18.28,18.71,12.67,13.33,16.58,15.09,23.3,16.43,25.28,21.33,27.16,22.86,0,0,0,0,0,0,0,0,0,0,0,0,0,0,0,0,
727,8.851,6.098,6.446,23.49,24.24,25.65,3.918,16.29,27.61,26.34,26.4,14.93,29.39,22.54,24.98,16.97,0,0,0,0,0,0,0,0,0,0,0,0,0,0,0,0,
728,-5.181,16.01,-8.337,38.37,17.77,21.37,-2.327,11.18,24.22,25.65,17.46,7.684,21.19,14.84,15.57,7.28,0,0,0,0,0,0,0,0,0,0,0,0,0,0,0,0,
729,-11.75,2.358,-22.57,30.22,9.083,15.93,0.8703,5.968,15.27,17.92,8.506,1.916,11.5,6.838,8.465,2.992,0,0,0,0,0,0,0,0,0,0,0,0,0,0,0,0,
730,-25.57,-26.7,-19.07,2.811,2.225,3.105,-1.559,-3.623,8.846,6.315,-2.986,-5.432,3.027,-0.8411,1.736,0.0115,0,0,0,0,0,0,0,0,0,0,0,0,0,0,0,0,
731,-36.41,-33.38,-18.81,-12.41,-4.209,-12.92,-6.316,-13.33,-0.6723,-4.808,-4.766,-4.582,2.505,-0.9695,5.662,4.858,0,0,0,0,0,0,0,0,0,0,0,0,0,0,0,0,
732,-12.9,-14.51,-14.14,4.397,2.009,-5.37,4.003,-2.015,2.206,-0.9755,14.56,2.788,13.85,7.294,18.99,14.11,0,0,0,0,0,0,0,0,0,0,0,0,0,0,0,0,
733,-8.999,-9.773,-6.229,23.49,10.37,9.013,13.76,12.3,15.06,6.494,19.98,-0.8898,14.15,6.41,14.83,8.534,0,0,0,0,0,0,0,0,0,0,0,0,0,0,0,0,
734,-35.36,-16.14,-19.77,15.15,3.427,3.217,5.354,9.365,9.469,2.477,1.655,-4.213,1.713,0.8425,2.848,0.3694,0,0,0,0,0,0,0,0,0,0,0,0,0,0,0,0,
735,-18.55,3.44,-18.74,15.98,5.116,3.75,4.853,13.84,1.857,5.042,5.22,7.854,9.601,11.64,15.65,12.73,0,0,0,0,0,0,0,0,0,0,0,0,0,0,0,0,
736,6.669,17.48,12.35,33.94,21.65,14.68,20.76,22.1,17.42,18.91,26.59,13.61,26.97,22.63,29.16,22.59,0,0,0,0,0,0,0,0,0,0,0,0,0,0,0,0,
737,-19.86,-16.9,9.089,20.54,14.87,1.392,12.74,8.494,23.44,16.96,19.51,1.373,17.01,10.64,13.1,8.037,0,0,0,0,0,0,0,0,0,0,0,0,0,0,0,0,
738,-36.5,-41.45,-22.11,-3.078,-6.949,-16.93,-14.23,-0.8833,3.919,-1.339,1.577,-3.406,2.245,0.0138,1.857,-0.4934,0,0,0,0,0,0,0,0,0,0,0,0,0,0,0,0,
739,-12.36,-16.16,-16.27,9.995,-1.246,-2.083,-10.42,9.498,-0.5787,-3.626,9.072,6.948,11.98,10.8,14.5,12.23,0,0,0,0,0,0,0,0,0,0,0,0,0,0,0,0,
740,-1.879,-3.27,1.378,26.19,12.84,21.52,7.801,5.585,13.78,11.71,16.38,8.885,17.96,16.41,16.51,15.19,0,0,0,0,0,0,0,0,0,0,0,0,0,0,0,0,
741,-19.41,-13.04,-10.54,15.12,2.763,19.11,2.283,-9.042,10.09,14.2,4.142,1.193,6.497,5.542,5.195,3.115,0,0,0,0,0,0,0,0,0,0,0,0,0,0,0,0,
742,-36.06,-7.781,-19.5,3.011,-8.564,1.144,-6.296,-3.192,-3.329,1.485,-2.194,-0.3484,2.353,-0.1821,4.26,-0.4442,0,0,0,0,0,0,0,0,0,0,0,0,0,0,0,0,
743,-33.74,-13.4,-10.65,6.945,-6.817,-12.59,-5.483,7.347,-2.04,-7.468,2.735,1.217,6.324,2.105,6.843,4.102,0,0,0,0,0,0,0,0,0,0,0,0,0,0,0,0,
744,-20.22,-23.11,-10.6,15.29,-7.474,-18.97,-4.561,3.029,1.503,-10.8,5.986,2.674,5.634,1.62,5.354,5.603,0,0,0,0,0,0,0,0,0,0,0,0,0,0,0,0,
745,-22.66,-11.94,-21.19,8.673,-10.31,-21.6,0.2997,-4.906,-2.207,-11.94,3.348,1.129,-1.486,-4.298,-0.7519,-0.9549,0,0,0,0,0,0,0,0,0,0,0,0,0,0,0,0,
746,-39.02,-29.26,-31.41,-6.583,-15.06,-22.97,-5.585,-11.87,-10.45,-12.69,-10.27,-7.726,-14.86,-12.4,-13.9,-11.81,0,0,0,0,0,0,0,0,0,0,0,0,0,0,0,0,
747,-41.55,-55.56,-39.12,-2.723,-22.36,-17.98,-24.31,-11.46,-21.99,-12.2,-18.43,-5.522,-17.55,-7.543,-13.42,-7.509,0,0,0,0,0,0,0,0,0,0,0,0,0,0,0,0,
748,-33.37,-29.8,-36.67,3.853,-18.83,-4.859,-27.54,0.0881,-22.1,-2.28,-6.684,8.359,-3.168,8.062,3.259,7.79,0,0,0,0,0,0,0,0,0,0,0,0,0,0,0,0,
749,-26.29,-10.23,-22.39,-5.434,-9.48,5.67,-13.88,2.368,-10.42,7.514,2.512,9.289,4.077,10.57,8.212,10.31,0,0,0,0,0,0,0,0,0,0,0,0,0,0,0,0,
750,-21.56,-26.56,-8.614,2.095,-6.934,7.032,5.123,-2.721,-4.66,2.235,4.766,6.872,3.325,6.175,6.587,8.434,0,0,0,0,0,0,0,0,0,0,0,0,0,0,0,0,
751,-33.19,-26.23,-7.391,16.05,-6.451,-2.223,15.1,2.342,-2.556,-6.164,9.101,9.593,5.13,6.721,8.11,7.936,0,0,0,0,0,0,0,0,0,0,0,0,0,0,0,0,
752,-45.34,-13.71,-19.17,5.803,-8.446,-16.41,-1.383,4.311,-2.718,-7.34,1.648,0.7569,-0.6937,0.394,0.1454,-3.392,0,0,0,0,0,0,0,0,0,0,0,0,0,0,0,0,
753,-30.52,-2.799,-31.84,9.214,-13.46,-15.48,-16.99,2.107,-10.25,-5.383,-8.417,-6.785,-5.925,-4.601,-5.144,-10.38,0,0,0,0,0,0,0,0,0,0,0,0,0,0,0,0,
754,-21.34,-0.4857,-36.36,28.4,-14.89,-3.385,-13.06,7.51,-13.52,-0.9493,-5.447,-1.236,-0.4621,1.585,1.373,-3.9,0,0,0,0,0,0,0,0,0,0,0,0,0,0,0,0,
755,-31.95,-22.69,-31.4,20.0,-12.08,-3.928,-13.35,5.34,-9.238,3.63,-0.7105,2.148,4.743,6.622,5.839,1.446,0,0,0,0,0,0,0,0,0,0,0,0,0,0,0,0,
756,-24.83,-20.32,-18.03,7.825,-4.939,-6.664,-9.691,-1.183,-2.979,7.861,4.341,4.451,7.902,9.076,6.348,3.918,0,0,0,0,0,0,0,0,0,0,0,0,0,0,0,0,
757,-8.431,9.937,-13.14,13.87,-4.447,-1.232,-2.442,2.924,0.1815,6.666,0.7194,4.275,-0.3083,3.391,-3.344,-2.382,0,0,0,0,0,0,0,0,0,0,0,0,0,0,0,0,
758,-9.815,-2.119,-29.59,16.26,-18.44,-1.114,-17.81,3.093,-14.08,-8.553,-20.91,-4.999,-21.81,-12.94,-19.95,-16.79,0,0,0,0,0,0,0,0,0,0,0,0,0,0,0,0,
759,-26.44,-27.32,-44.6,20.81,-24.11,1.133,-25.58,1.668,-31.95,-17.61,-28.77,-5.586,-24.75,-15.42,-17.48,-16.27,0,0,0,0,0,0,0,0,0,0,0,0,0,0,0,0,
760,-47.19,-23.59,-40.2,28.67,-16.69,6.127,-12.68,7.566,-27.31,-7.701,-15.77,0.3538,-11.38,-7.625,-5.479,-7.447,0,0,0,0,0,0,0,0,0,0,0,0,0,0,0,0,
761,-37.0,-22.49,-30.87,24.27,-16.28,-1.149,-19.74,3.015,-18.52,-4.574,-10.57,-4.769,-9.255,-9.846,-5.04,-7.692,0,0,0,0,0,0,0,0,0,0,0,0,0,0,0,0,
762,-3.364,-12.68,-24.29,18.15,-16.37,-7.374,-29.23,-2.542,-18.5,-8.648,-8.334,-5.842,-9.194,-8.798,-5.739,-6.914,0,0,0,0,0,0,0,0,0,0,0,0,0,0,0,0,
763,-10.89,-1.28,-22.46,13.07,-16.85,-10.81,-16.79,4.142,-16.13,-5.765,-8.319,-2.205,-12.57,-8.291,-13.05,-11.54,0,0,0,0,0,0,0,0,0,0,0,0,0,0,0,0,
764,-38.41,-27.45,-37.06,3.619,-31.17,-22.17,-18.55,-1.214,-25.14,-15.27,-25.89,-11.38,-29.84,-21.73,-31.08,-27.25,0,0,0,0,0,0,0,0,0,0,0,0,0,0,0,0,
765,-32.03,-40.18,-50.23,6.194,-35.32,-19.94,-28.17,-9.668,-40.64,-28.54,-35.23,-12.02,-31.74,-20.98,-29.91,-25.74,0,0,0,0,0,0,0,0,0,0,0,0,0,0,0,0,
766,-23.86,-16.86,-34.73,21.89,-14.5,-3.018,-10.19,6.225,-29.28,-11.25,-16.12,4.708,-9.301,0.3815,-7.918,-5.506,0,0,0,0,0,0,0,0,0,0,0,0,0,0,0,0,
767,-23.01,-13.13,-15.78,26.32,0.1216,4.413,6.193,20.07,-4.679,13.43,2.062,5.556,3.405,6.445,2.164,0.6947,0,0,0,0,0,0,0,0,0,0,0,0,0,0,0,0,
768,-6.831,-13.91,-18.22,12.23,-6.73,2.019,-6.536,9.948,-1.806,7.051,-1.925,-10.04,-5.078,-7.399,-7.154,-11.24,0,0,0,0,0,0,0,0,0,0,0,0,0,0,0,0,
769,-12.3,-2.118,-20.7,1.824,-19.04,-7.785,-18.81,-1.864,-15.1,-13.77,-15.11,-14.94,-16.95,-16.03,-17.5,-19.23,0,0,0,0,0,0,0,0,0,0,0,0,0,0,0,0,
770,-41.07,-16.74,-22.9,10.41,-23.88,-14.63,-18.0,-2.172,-23.97,-19.19,-18.85,-9.104,-18.3,-11.37,-15.78,-14.8,0,0,0,0,0,0,0,0,0,0,0,0,0,0,0,0,
771,-38.21,-31.77,-37.13,20.37,-19.59,-4.444,-24.84,3.374,-22.18,-9.938,-12.23,-3.926,-11.52,-3.901,-9.144,-8.923,0,0,0,0,0,0,0,0,0,0,0,0,0,0,0,0,
772,-15.1,-16.5,-40.25,15.27,-16.18,-0.7814,-34.84,4.696,-16.13,-2.26,-13.05,-5.85,-11.28,-6.083,-13.29,-13.24,0,0,0,0,0,0,0,0,0,0,0,0,0,0,0,0,
773,-13.94,-14.31,-32.9,1.647,-22.18,-16.05,-32.81,-5.325,-18.88,-6.732,-25.07,-16.8,-21.31,-17.73,-24.35,-23.23,0,0,0,0,0,0,0,0,0,0,0,0,0,0,0,0,
774,-23.97,-29.67,-33.76,-9.607,-27.56,-24.08,-25.21,-11.13,-29.6,-18.76,-27.11,-22.03,-26.19,-23.19,-24.13,-23.07,0,0,0,0,0,0,0,0,0,0,0,0,0,0,0,0,
775,-23.26,-22.98,-23.58,-3.772,-21.06,-16.08,-13.04,-0.4818,-29.71,-23.44,-13.96,-10.36,-16.68,-13.67,-11.35,-9.077,0,0,0,0,0,0,0,0,0,0,0,0,0,0,0,0,
776,-8.899,-3.061,-6.401,16.38,-9.607,-2.317,1.04,9.985,-16.28,-14.51,-4.404,2.412,-4.984,-2.374,-2.469,1.22,0,0,0,0,0,0,0,0,0,0,0,0,0,0,0,0,
777,7.786,-0.3706,-8.866,19.32,-5.068,5.416,0.9336,9.778,-9.113,-1.908,-3.369,0.8051,-3.862,-1.732,-4.08,-3.385,0,0,0,0,0,0,0,0,0,0,0,0,0,0,0,0,
778,0.6847,-14.25,-12.72,3.246,-8.259,-2.545,-5.114,3.282,-13.19,2.701,-3.676,-7.109,-8.899,-5.97,-8.45,-11.09,0,0,0,0,0,0,0,0,0,0,0,0,0,0,0,0,
779,-25.89,-22.77,-13.18,-2.641,-14.14,-11.22,-7.181,-4.913,-16.92,-2.737,-9.812,-10.97,-14.48,-9.874,-12.92,-14.12,0,0,0,0,0,0,0,0,0,0,0,0,0,0,0,0,
780,-29.7,-15.34,-29.15,4.345,-18.05,-7.044,-14.8,-3.74,-20.39,-11.87,-18.81,-11.17,-18.85,-12.59,-15.16,-14.67,0,0,0,0,0,0,0,0,0,0,0,0,0,0,0,0,
781,-5.936,-1.659,-33.55,12.62,-16.08,-5.417,-13.34,6.083,-22.62,-14.72,-14.7,-7.03,-15.6,-8.622,-8.901,-8.34,0,0,0,0,0,0,0,0,0,0,0,0,0,0,0,0,
782,5.732,7.013,-12.07,18.37,-11.41,-6.164,-0.4821,8.911,-17.26,-9.303,-4.751,-1.786,-9.074,-2.946,-2.95,-0.3874,0,0,0,0,0,0,0,0,0,0,0,0,0,0,0,0,
783,-8.48,-0.0808,-5.219,12.96,-12.57,2.725,-10.75,0.0409,-14.21,-5.479,-8.739,-6.898,-11.8,-8.31,-9.272,-6.529,0,0,0,0,0,0,0,0,0,0,0,0,0,0,0,0,
784,-28.12,-20.65,-27.11,-5.549,-21.41,-2.894,-36.13,-16.81,-22.38,-12.23,-22.17,-20.87,-22.4,-22.34,-21.86,-22.72,0,0,0,0,0,0,0,0,0,0,0,0,0,0,0,0,
785,-36.14,-30.99,-45.45,-20.24,-28.9,-27.11,-40.7,-24.61,-33.14,-25.24,-31.28,-26.3,-30.47,-29.94,-28.94,-29.78,0,0,0,0,0,0,0,0,0,0,0,0,0,0,0,0,
786,-27.37,-28.62,-38.83,-16.27,-25.32,-26.15,-31.36,-11.09,-35.86,-27.24,-31.02,-18.83,-28.88,-23.58,-24.56,-22.57,0,0,0,0,0,0,0,0,0,0,0,0,0,0,0,0,
787,-13.56,-25.9,-27.2,-8.255,-20.55,-12.49,-29.95,-5.714,-30.34,-16.56,-28.05,-16.63,-25.12,-17.52,-18.9,-17.03,0,0,0,0,0,0,0,0,0,0,0,0,0,0,0,0,
788,-18.04,-20.08,-36.52,-14.22,-29.33,-25.2,-37.12,-16.94,-31.32,-16.28,-35.19,-23.15,-30.34,-22.23,-24.55,-20.92,0,0,0,0,0,0,0,0,0,0,0,0,0,0,0,0,
789,-31.78,-19.22,-43.62,-11.39,-31.74,-22.86,-34.48,-7.652,-37.65,-21.25,-35.64,-14.91,-26.55,-16.86,-22.49,-15.4,0,0,0,0,0,0,0,0,0,0,0,0,0,0,0,0,
790,-21.9,-17.29,-23.05,11.07,-11.9,6.31,-13.18,12.15,-23.5,-5.899,-12.33,1.746,-6.923,-0.0096,-5.47,-1.244,0,0,0,0,0,0,0,0,0,0,0,0,0,0,0,0,
791,0.8748,2.549,-10.08,16.49,-3.749,1.721,-2.74,8.996,-4.761,5.785,-1.862,-3.08,-5.987,-3.257,-5.89,-5.058,0,0,0,0,0,0,0,0,0,0,0,0,0,0,0,0,
792,0.4516,7.08,-24.21,1.629,-19.29,-16.36,-17.46,-0.3486,-15.77,-9.648,-18.37,-12.76,-20.72,-15.01,-18.94,-14.82,0,0,0,0,0,0,0,0,0,0,0,0,0,0,0,0,
793,-20.41,-9.758,-29.35,-5.863,-23.52,-3.219,-27.33,-1.289,-28.9,-16.94,-23.24,-6.581,-18.5,-7.8,-16.16,-9.937,0,0,0,0,0,0,0,0,0,0,0,0,0,0,0,0,
794,-35.12,-9.742,-25.41,-11.97,-20.72,-0.9831,-26.94,-3.362,-24.74,-8.81,-21.29,-9.179,-19.42,-7.197,-18.07,-13.55,0,0,0,0,0,0,0,0,0,0,0,0,0,0,0,0,
795,-31.89,-20.65,-37.71,-14.42,-33.79,-19.28,-34.39,-6.231,-34.46,-17.79,-33.72,-21.9,-35.72,-22.93,-32.2,-27.37,0,0,0,0,0,0,0,0,0,0,0,0,0,0,0,0,
796,-23.3,-44.15,-38.49,-0.8534,-37.91,-20.61,-40.51,-7.713,-47.07,-28.66,-34.21,-20.02,-33.51,-23.06,-27.56,-23.51,0,0,0,0,0,0,0,0,0,0,0,0,0,0,0,0,
797,-23.06,-17.47,-15.33,5.791,-23.28,-18.69,-32.08,-3.169,-34.78,-19.92,-17.87,-11.06,-17.08,-11.62,-11.0,-10.94,0,0,0,0,0,0,0,0,0,0,0,0,0,0,0,0,
798,-15.37,18.64,-8.132,1.729,-17.32,-19.31,-14.75,7.135,-22.44,-13.62,-10.38,-7.158,-13.71,-9.741,-6.724,-6.551,0,0,0,0,0,0,0,0,0,0,0,0,0,0,0,0,
799,3.15,2.515,-16.33,5.87,-20.32,-7.753,-5.548,5.841,-23.84,-16.16,-13.27,-8.493,-18.85,-13.93,-13.72,-9.155,0,0,0,0,0,0,0,0,0,0,0,0,0,0,0,0,
800,2.042,-21.7,-18.21,1.986,-23.13,-9.028,-16.52,-7.292,-26.71,-20.63,-22.75,-18.84,-28.05,-23.56,-26.64,-20.82,0,0,0,0,0,0,0,0,0,0,0,0,0,0,0,0,
801,-14.35,-30.81,-21.94,-11.66,-26.39,-19.05,-24.72,-12.56,-32.26,-30.12,-29.15,-22.26,-32.53,-27.89,-28.1,-24.1,0,0,0,0,0,0,0,0,0,0,0,0,0,0,0,0,
802,-19.65,-29.98,-18.31,-12.6,-20.51,-11.11,-12.11,-6.65,-30.3,-27.14,-19.03,-11.17,-21.26,-16.78,-14.51,-11.51,0,0,0,0,0,0,0,0,0,0,0,0,0,0,0,0,
803,-23.91,-9.891,-15.19,-18.26,-19.37,-18.71,-11.18,-2.743,-22.43,-14.89,-16.16,-14.45,-19.41,-17.32,-18.23,-15.91,0,0,0,0,0,0,0,0,0,0,0,0,0,0,0,0,
804,-28.35,-5.915,-34.7,-31.24,-31.93,-38.68,-26.57,-6.801,-30.77,-22.7,-28.44,-25.21,-29.62,-26.87,-29.49,-27.18,0,0,0,0,0,0,0,0,0,0,0,0,0,0,0,0,
805,-15.46,-16.37,-31.52,-16.88,-21.61,-16.0,-18.02,-8.959,-31.48,-24.69,-22.03,-11.27,-19.41,-12.5,-15.63,-11.57,0,0,0,0,0,0,0,0,0,0,0,0,0,0,0,0,
806,-3.993,-2.495,-4.312,3.626,0.5132,8.653,-1.043,-4.336,-10.91,-1.572,-10.31,0.3814,-8.979,-1.711,-7.346,-2.454,0,0,0,0,0,0,0,0,0,0,0,0,0,0,0,0,
807,-8.89,-3.367,-19.43,-0.3558,-10.13,-11.0,-11.09,-0.0114,-11.49,0.5693,-20.42,-10.1,-20.59,-15.79,-20.64,-16.76,0,0,0,0,0,0,0,0,0,0,0,0,0,0,0,0,
808,-7.966,-23.02,-41.35,0.5422,-24.12,-19.39,-26.36,2.737,-24.74,-16.91,-24.07,-12.53,-24.04,-19.91,-22.75,-20.14,0,0,0,0,0,0,0,0,0,0,0,0,0,0,0,0,
809,-7.392,-13.7,-30.16,1.322,-20.97,-10.92,-35.06,-3.448,-20.51,-18.94,-18.72,-14.46,-23.78,-20.14,-23.3,-22.31,0,0,0,0,0,0,0,0,0,0,0,0,0,0,0,0,
810,-27.41,-22.88,-34.43,-22.61,-28.66,-22.07,-41.45,-20.65,-26.37,-24.79,-25.82,-26.48,-34.27,-31.18,-32.16,-31.96,0,0,0,0,0,0,0,0,0,0,0,0,0,0,0,0,
811,-37.37,-59.85,-36.67,-29.69,-27.05,-18.41,-22.62,-20.65,-33.6,-29.89,-22.47,-17.79,-24.78,-22.27,-21.47,-20.44,0,0,0,0,0,0,0,0,0,0,0,0,0,0,0,0,
812,-17.19,-32.38,-12.07,-7.811,-4.051,1.137,3.55,2.454,-12.69,-7.151,-6.245,1.59,-2.618,-1.192,-3.595,-2.051,0,0,0,0,0,0,0,0,0,0,0,0,0,0,0,0,
813,2.99,33.87,-4.838,4.997,7.343,4.794,2.508,18.46,2.81,14.4,1.042,8.794,4.76,7.316,1.371,3.232,0,0,0,0,0,0,0,0,0,0,0,0,0,0,0,0,
814,12.75,45.09,-2.222,11.64,11.26,15.43,2.449,16.48,5.11,20.07,8.077,13.88,10.04,11.84,4.543,5.564,0,0,0,0,0,0,0,0,0,0,0,0,0,0,0,0,
815,14.74,19.79,3.992,5.708,8.358,16.75,7.494,-1.038,10.58,20.41,4.722,3.397,2.691,-0.9034,-5.917,-7.103,0,0,0,0,0,0,0,0,0,0,0,0,0,0,0,0,
816,-3.214,-2.778,-19.37,-22.07,-14.87,-15.51,-11.71,-20.09,-7.094,-2.14,-17.02,-17.34,-23.2,-26.45,-26.19,-24.68,0,0,0,0,0,0,0,0,0,0,0,0,0,0,0,0,
817,-19.18,-19.17,-30.78,-23.96,-23.14,-23.51,-19.66,-12.15,-29.59,-27.4,-20.79,-10.36,-24.96,-21.52,-21.77,-13.46,0,0,0,0,0,0,0,0,0,0,0,0,0,0,0,0,
818,-8.047,-12.88,-13.88,-1.023,-10.32,-2.831,0.245,6.44,-17.41,-18.45,-8.424,5.29,-7.824,-1.647,-7.849,1.775,0,0,0,0,0,0,0,0,0,0,0,0,0,0,0,0,
819,-2.736,-2.023,-18.16,-0.7617,-14.6,-7.237,-5.908,2.346,-7.344,-5.393,-12.4,0.5697,-12.21,-5.402,-12.98,-7.398,0,0,0,0,0,0,0,0,0,0,0,0,0,0,0,0,
820,-22.72,-12.79,-26.53,-5.795,-23.83,-17.39,-32.49,-6.736,-21.4,-13.52,-19.82,-4.586,-22.6,-15.22,-19.53,-17.28,0,0,0,0,0,0,0,0,0,0,0,0,0,0,0,0,
821,-23.27,-13.05,-17.65,0.4234,-15.59,-9.941,-23.71,-2.727,-23.99,-19.19,-11.31,-0.2509,-14.5,-10.94,-12.14,-11.42,0,0,0,0,0,0,0,0,0,0,0,0,0,0,0,0,
822,7.588,4.654,-13.5,1.455,-4.02,-3.081,6.739,3.146,-8.007,-10.28,2.761,4.067,-1.702,-1.528,-2.205,-0.6892,0,0,0,0,0,0,0,0,0,0,0,0,0,0,0,0,
823,10.14,-0.8198,-10.85,1.037,-3.888,-1.08,8.071,0.4197,0.5679,-1.01,1.87,-0.0592,-5.414,-3.995,-8.127,-3.867,0,0,0,0,0,0,0,0,0,0,0,0,0,0,0,0,
824,-21.07,-20.36,-14.09,-9.19,-18.47,-11.52,-15.04,-14.3,-13.66,-10.4,-17.57,-12.13,-22.23,-19.79,-25.27,-19.48,0,0,0,0,0,0,0,0,0,0,0,0,0,0,0,0,
825,-18.21,-14.05,-20.27,-23.58,-23.93,-21.29,-20.83,-16.89,-28.52,-25.15,-22.54,-10.12,-20.11,-18.68,-20.04,-15.68,0,0,0,0,0,0,0,0,0,0,0,0,0,0,0,0,
826,10.3,2.768,-8.635,-13.99,-6.132,-6.302,-8.912,5.151,-14.43,-12.78,-2.972,3.325,-0.013,0.1713,-0.3182,2.085,0,0,0,0,0,0,0,0,0,0,0,0,0,0,0,0,
827,4.205,-2.536,-8.231,-8.265,-2.639,-4.757,-8.402,8.31,-1.528,2.987,0.4056,-0.5472,-2.413,-2.521,-6.617,-1.892,0,0,0,0,0,0,0,0,0,0,0,0,0,0,0,0,
828,-14.11,-14.55,-21.65,-17.89,-16.76,-22.65,-13.79,-10.48,-15.54,-7.87,-12.54,-8.945,-15.96,-15.1,-19.01,-9.704,0,0,0,0,0,0,0,0,0,0,0,0,0,0,0,0,
829,-11.17,-11.47,-10.6,-7.493,-12.8,-9.659,-17.05,-9.467,-18.34,-12.51,-10.4,-5.757,-11.35,-10.28,-13.02,-3.499,0,0,0,0,0,0,0,0,0,0,0,0,0,0,0,0,
830,-12.65,-6.629,-9.051,-7.029,-10.66,-0.1458,-29.06,-7.789,-10.31,-5.965,-12.57,-10.4,-14.47,-12.55,-18.6,-10.06,0,0,0,0,0,0,0,0,0,0,0,0,0,0,0,0,
831,-14.76,-6.659,-29.88,-23.66,-23.44,-20.2,-27.62,-16.02,-23.17,-15.64,-24.58,-11.96,-24.47,-18.58,-26.46,-15.97,0,0,0,0,0,0,0,0,0,0,0,0,0,0,0,0,
832,3.303,1.516,-17.38,3.383,-14.57,-7.125,-0.6528,1.407,-24.02,-15.37,-10.2,6.658,-7.558,-1.21,-6.881,2.398,0,0,0,0,0,0,0,0,0,0,0,0,0,0,0,0,
833,10.78,12.77,5.323,30.74,3.359,15.54,11.11,17.88,0.7942,2.855,10.1,11.32,8.122,7.468,3.101,6.981,0,0,0,0,0,0,0,0,0,0,0,0,0,0,0,0,
834,-2.718,8.692,-6.63,0.1795,-3.25,-6.95,-1.796,1.433,3.763,-1.189,-0.1401,-6.79,-5.094,-11.08,-14.44,-13.37,0,0,0,0,0,0,0,0,0,0,0,0,0,0,0,0,
835,-1.855,-11.29,-17.47,-18.96,-12.28,-18.54,-8.229,-7.548,-12.1,-16.38,-12.79,-13.02,-15.39,-19.43,-20.77,-18.98,0,0,0,0,0,0,0,0,0,0,0,0,0,0,0,0,
836,5.97,-26.06,-13.61,-6.037,-11.85,-7.402,-9.503,2.154,-14.89,-14.71,-14.07,-8.99,-15.49,-14.43,-16.3,-11.9,0,0,0,0,0,0,0,0,0,0,0,0,0,0,0,0,
837,-6.714,-20.85,-15.75,-10.36,-19.08,-20.85,-19.26,1.182,-18.65,-14.56,-21.82,-9.423,-21.39,-15.05,-19.59,-11.17,0,0,0,0,0,0,0,0,0,0,0,0,0,0,0,0,
838,-16.69,-8.766,-13.3,-9.97,-22.66,-23.91,-25.78,-1.552,-26.28,-18.4,-20.6,-4.319,-18.22,-8.664,-14.27,-3.682,0,0,0,0,0,0,0,0,0,0,0,0,0,0,0,0,
839,-4.17,-2.015,-4.508,2.62,-10.87,0.839,-14.45,6.78,-16.7,-9.287,-2.893,4.917,-2.484,5.241,0.9711,10.43,0,0,0,0,0,0,0,0,0,0,0,0,0,0,0,0,
840,5.857,2.016,-0.7148,-3.821,-0.9472,6.73,6.965,7.745,-0.0865,1.972,7.187,7.129,4.938,7.536,5.284,12.72,0,0,0,0,0,0,0,0,0,0,0,0,0,0,0,0,
841,-3.59,-3.606,0.1965,-7.888,-3.553,-3.629,11.83,-3.288,2.549,2.132,2.784,1.74,-0.8681,-1.359,-3.475,3.115,0,0,0,0,0,0,0,0,0,0,0,0,0,0,0,0,
842,-13.47,-14.9,-3.943,-3.08,-11.22,-11.26,-3.643,-6.479,-7.117,-5.828,-8.859,-4.424,-12.14,-10.23,-14.68,-6.261,0,0,0,0,0,0,0,0,0,0,0,0,0,0,0,0,
843,-3.275,-13.61,-11.18,-10.03,-15.9,-19.11,-13.31,-3.54,-17.86,-15.83,-21.88,-3.874,-21.26,-14.82,-21.25,-9.727,0,0,0,0,0,0,0,0,0,0,0,0,0,0,0,0,
844,9.933,-9.461,-13.22,-8.285,-15.6,-11.17,-11.39,-10.99,-22.23,-19.49,-24.38,-1.528,-20.25,-14.48,-19.21,-8.737,0,0,0,0,0,0,0,0,0,0,0,0,0,0,0,0,
845,2.963,-10.42,-10.06,1.466,-10.53,7.345,-6.178,-12.41,-17.47,-12.26,-12.57,-3.975,-11.04,-10.31,-11.26,-6.698,0,0,0,0,0,0,0,0,0,0,0,0,0,0,0,0,
846,-5.444,2.116,-5.047,-7.855,-7.048,3.872,-2.1,-0.2803,-9.895,-5.514,-5.352,-10.37,-9.74,-11.07,-12.02,-10.58,0,0,0,0,0,0,0,0,0,0,0,0,0,0,0,0,
847,0.5383,16.82,-5.299,-16.18,-13.62,-14.54,-15.25,-2.6,-14.27,-14.29,-15.62,-16.24,-18.99,-18.26,-21.6,-17.07,0,0,0,0,0,0,0,0,0,0,0,0,0,0,0,0,
848,7.729,8.174,-5.884,-3.248,-14.63,-12.17,-29.63,-5.887,-21.75,-19.75,-17.47,-6.137,-12.89,-10.01,-13.21,-6.572,0,0,0,0,0,0,0,0,0,0,0,0,0,0,0,0,
849,9.453,-7.287,-0.2587,6.665,-0.7279,9.167,-14.7,9.918,-8.227,1.435,-1.701,8.114,4.862,7.383,3.501,6.671,0,0,0,0,0,0,0,0,0,0,0,0,0,0,0,0,
850,-8.04,-14.71,-11.11,-6.418,-5.662,6.038,-5.323,4.479,0.559,9.205,-6.79,-6.218,-4.835,-4.668,-9.093,-10.03,0,0,0,0,0,0,0,0,0,0,0,0,0,0,0,0,
