%OpenBCI Raw EXG Data
%Number of channels = 16
%Sample Rate = 125 Hz
%Board = OpenBCI_GUI$BoardCytonSerialDaisy
Sample Index,EXG Channel 0,EXG Channel 1,EXG Channel 2,EXG Channel 3,EXG Channel 4,EXG Channel 5,EXG Channel 6,EXG Channel 7,EXG Channel 8,EXG Channel 9,EXG Channel 10,EXG Channel 11,EXG Channel 12,EXG Channel 13,EXG Channel 14,EXG Channel 15,Accel Channel 0,Accel Channel 1,Accel Channel 2,Other,Other,Other,Other,Other,Other,Other,Analog Channel 0,Analog Channel 1,Analog Channel 2,Timestamp,Other,Timestamp (Formatted),Annotations
1,-0,0,-0,0,-0,0,-0,-0,-0,-0,-0,-0,-0,-0,-0,-0,0,0,0,0,0,0,0,0,0,0,0,0,0,0,0,0,T0
2,-25.84,5.807,3.099,-40.45,-8.81,-17.53,40.7,6.49,42.95,15.89,18.04,35.79,21.93,22.3,6.183,0.1576,0,0,0,0,0,0,0,0,0,0,0,0,0,0,0,0,
3,9.973,23.57,4.825,16.25,34.48,4.094,70.48,34.73,45.77,32.07,41.59,56.54,44.59,39.56,34.63,40.1,0,0,0,0,0,0,0,0,0,0,0,0,0,0,0,0,
4,51.06,41.74,0.8553,29.42,22.79,17.32,58.77,33.05,25.14,26.96,35.46,47.59,39.94,31.33,44.5,66.79,0,0,0,0,0,0,0,0,0,0,0,0,0,0,0,0,
5,42.32,44.81,-1.795,-10.65,4.07,25.72,35.2,15.56,33.64,20.27,20.83,37.42,22.85,25.82,35.32,63.13,0,0,0,0,0,0,0,0,0,0,0,0,0,0,0,0,
6,30.03,45.98,1.439,6.484,54.47,49.41,49.61,34.27,59.59,29.78,40.43,54.94,24.77,43.05,50.97,74.27,0,0,0,0,0,0,0,0,0,0,0,0,0,0,0,0,
7,51.26,55.56,1.236,20.76,73.96,54.46,68.35,49.67,65.76,29.99,71.54,81.89,31.79,50.05,85.03,98.7,0,0,0,0,0,0,0,0,0,0,0,0,0,0,0,0,
8,66.36,45.41,-2.402,-7.03,49.06,40.94,53.53,31.67,64.79,17.06,73.24,84.63,24.39,41.33,99.14,104.9,0,0,0,0,0,0,0,0,0,0,0,0,0,0,0,0,
9,54.22,9.184,-1.107,-4.803,35.28,31.73,36.79,18.99,53.91,4.306,44.41,54.82,4.37,32.56,80.43,88.04,0,0,0,0,0,0,0,0,0,0,0,0,0,0,0,0,
10,43.27,-15.82,1.721,5.701,13.46,25.96,25.46,9.928,23.73,-11.24,17.13,19.71,-17.24,20.04,45,56.43,0,0,0,0,0,0,0,0,0,0,0,0,0,0,0,0,
11,37.36,-26.63,1.804,-26.27,5.939,8.666,-7.046,-21.59,7.715,-26.96,3.081,-1.448,-22.77,13.39,14.15,24.56,0,0,0,0,0,0,0,0,0,0,0,0,0,0,0,0,
12,22.08,-36.35,3.723,-62.97,19.11,-24.66,-30.52,-47.8,12.46,-32.44,-9.508,-10.92,-2.975,21.33,-4.107,11.75,0,0,0,0,0,0,0,0,0,0,0,0,0,0,0,0,
13,15.71,-20.44,7.491,-63.98,14.36,-32.14,-9.511,-35.18,7.706,-22.63,-9.415,-1.12,23.08,26.18,-4.87,20.74,0,0,0,0,0,0,0,0,0,0,0,0,0,0,0,0,
14,28.56,12.77,7.141,-33.46,25.23,-0.4729,21,-2.213,-1.906,-6.653,5.57,20.74,29.64,22.99,12.97,34.05,0,0,0,0,0,0,0,0,0,0,0,0,0,0,0,0,
15,47.59,26.67,2.956,2.748,45.4,31.99,39.11,15.91,18.93,1.859,24.01,44.87,34.72,31.86,39.15,46.11,0,0,0,0,0,0,0,0,0,0,0,0,0,0,0,0,
16,83.24,39.8,0.3084,25.82,23.64,56.82,65.8,21.39,66.14,7.524,51.95,80.65,63.68,55.92,69.12,75.02,0,0,0,0,0,0,0,0,0,0,0,0,0,0,0,0,
17,122.3,63.44,-0.8561,38.46,21.81,57.14,79.89,29.51,81.42,15.54,70.99,101.3,83.31,71.93,96.17,114.3,0,0,0,0,0,0,0,0,0,0,0,0,0,0,0,0,
18,120.6,66.11,-3.312,38.93,60.88,50.81,69.02,26.06,57.5,18.86,65.82,88.18,73.69,72.41,102.5,124.4,0,0,0,0,0,0,0,0,0,0,0,0,0,0,0,0,
19,103.1,58.02,-4.287,26.05,45.59,93.32,75.78,10.64,55.14,15.53,58.41,76.33,68.36,71.43,87.85,98.75,0,0,0,0,0,0,0,0,0,0,0,0,0,0,0,0,
20,104.9,64,-1.673,14.52,14.86,101.4,84.77,13.69,62.13,13.2,45.9,67.17,67.9,71.45,68.11,69.99,0,0,0,0,0,0,0,0,0,0,0,0,0,0,0,0,
21,91.05,70.88,0.5102,17.14,62.99,41.12,69.97,31.35,38.04,24.58,29.66,55.6,62.72,74.48,56.7,62.22,0,0,0,0,0,0,0,0,0,0,0,0,0,0,0,0,
22,76.51,80.58,-0.2522,38.34,93.59,50.66,83.93,39.32,40.12,41.13,39.78,77.43,79.04,86.44,67.87,81.69,0,0,0,0,0,0,0,0,0,0,0,0,0,0,0,0,
23,114.1,102,-2.012,57.4,48.57,92.77,113.7,44.98,82.58,38.63,61.38,110.5,99.85,87.76,93.52,111.6,0,0,0,0,0,0,0,0,0,0,0,0,0,0,0,0,
24,161.4,110.6,-3.121,47.84,47,67.45,98.17,42.03,92.21,27.66,67.44,108.2,86.81,68.53,100.7,117.9,0,0,0,0,0,0,0,0,0,0,0,0,0,0,0,0,
25,169.8,93.22,-3.792,32.49,80.89,63.22,72.14,12.66,84.03,22.02,64.05,90.85,54.83,52.39,81.81,93.95,0,0,0,0,0,0,0,0,0,0,0,0,0,0,0,0,
26,158.6,58.89,-3.747,30.12,46.14,67.29,54.51,-8.412,90.15,7.638,43.84,70.64,17.92,41.11,54.22,62.2,0,0,0,0,0,0,0,0,0,0,0,0,0,0,0,0,
27,129.6,19.16,-1.256,8.277,-4.318,18.25,20.95,-10.71,70.82,-2.389,13.88,44.14,-8.437,30.82,31.24,41.86,0,0,0,0,0,0,0,0,0,0,0,0,0,0,0,0,
28,95.19,1.703,2.867,-36.21,-18.84,5.18,-1.492,-44,47.12,5.412,4.876,32.35,3.53,40.83,27.07,44.02,0,0,0,0,0,0,0,0,0,0,0,0,0,0,0,0,
29,80.5,4.141,5.658,-68.76,-48.72,-4.218,-24.57,-79.27,32.87,-1.005,-13.14,7.479,3.414,44.08,27.43,47.34,0,0,0,0,0,0,0,0,0,0,0,0,0,0,0,0,
30,44.65,-18.73,8.097,-80.55,-84.8,-77.99,-70.49,-52.24,-21.51,-24.36,-68.05,-45.57,-41.82,10.26,-6.547,14.01,0,0,0,0,0,0,0,0,0,0,0,0,0,0,0,0,
31,-3.368,-49.74,11.27,-75.16,-94.57,-108.3,-80.52,-16.49,-57.17,-27.87,-93.75,-53.06,-48.68,-7.942,-50.3,-29.91,0,0,0,0,0,0,0,0,0,0,0,0,0,0,0,0,
32,13.47,-36.74,12.26,-60.62,-100.2,-86.78,-51.51,-24.84,-21.01,-17.99,-70.65,-13.97,-9.168,7.916,-48.38,-31.92,0,0,0,0,0,0,0,0,0,0,0,0,0,0,0,0,
33,55.4,-4.689,11.2,-51.04,-99.81,-73.18,-31.78,-23.9,-0.9618,-18.42,-64.55,-1.033,0.6749,7.556,-18.83,-6.233,0,0,0,0,0,0,0,0,0,0,0,0,0,0,0,0,
34,65.04,13.26,10.11,-39.02,-71.77,-12.25,-4.692,9.849,-14.86,-12.81,-62.55,5.472,6.954,3.171,2.35,14.39,0,0,0,0,0,0,0,0,0,0,0,0,0,0,0,0,
35,84.13,29.43,7.281,-28.54,-43.71,41.71,24.44,27.56,-13.82,4.357,-41.8,20.75,28.88,12.92,15.61,24.28,0,0,0,0,0,0,0,0,0,0,0,0,0,0,0,0,
36,91.7,30.26,4.049,-43.55,-64.44,-6.551,19.05,9.588,-28.25,2.824,-58.95,-4.427,4.784,-5.51,5.899,9.011,0,0,0,0,0,0,0,0,0,0,0,0,0,0,0,0,
37,47.28,-6.292,5.089,-69.6,-113.2,-61.97,-7.983,-13.79,-60.15,-21.98,-88.67,-40.58,-47.42,-38.72,-28.67,-27.44,0,0,0,0,0,0,0,0,0,0,0,0,0,0,0,0,
38,9.368,-58.82,8.321,-82.71,-116.5,-64.12,-38.21,-21.6,-65.78,-38.9,-64,-35.15,-62.44,-34.6,-44.03,-45.59,0,0,0,0,0,0,0,0,0,0,0,0,0,0,0,0,
39,7.4,-87.32,9.6,-95.96,-87.78,-73.81,-57.36,-31.54,-51.63,-31.95,-35.19,-20.82,-48.2,-7.93,-26.58,-31.76,0,0,0,0,0,0,0,0,0,0,0,0,0,0,0,0,
40,16.09,-83.1,10.66,-111.5,-97.08,-83.18,-56.64,-51.54,-45.22,-16.58,-45.55,-28.93,-41.71,4.106,-11.47,-8.905,0,0,0,0,0,0,0,0,0,0,0,0,0,0,0,0,
41,23.45,-81.28,12.41,-104.8,-107.9,-71.61,-57.48,-50.34,-55.83,-12.27,-53.81,-41.87,-51.92,-2.284,-18.25,1.364,0,0,0,0,0,0,0,0,0,0,0,0,0,0,0,0,
42,17.29,-89.33,12.38,-76.04,-69.79,-70.48,-53.81,-22.11,-62.27,-18.32,-50.8,-47.05,-61.54,-16.48,-38.51,-9.172,0,0,0,0,0,0,0,0,0,0,0,0,0,0,0,0,
43,9.248,-79.21,10.97,-59.23,-56.85,-72.24,-35.78,-4.17,-61.24,-27.29,-66.04,-57.2,-63.93,-31.51,-64.28,-33.51,0,0,0,0,0,0,0,0,0,0,0,0,0,0,0,0,
44,12.58,-65.52,10.58,-60.82,-99.21,-54.06,-32.67,-2.635,-79.03,-35.55,-85.33,-66.8,-70.85,-39,-85.69,-50.85,0,0,0,0,0,0,0,0,0,0,0,0,0,0,0,0,
45,8.98,-66.8,11.53,-47.56,-102.3,-45.24,-42.57,2.196,-73.27,-34.13,-72.23,-51.32,-74.98,-30.82,-81.51,-43.44,0,0,0,0,0,0,0,0,0,0,0,0,0,0,0,0,
46,-9.187,-71.78,12.34,-41.6,-58.18,-86.07,-54.05,-9.086,-39.45,-26.86,-51.53,-36.9,-69.22,-20.6,-51.34,-19.84,0,0,0,0,0,0,0,0,0,0,0,0,0,0,0,0,
47,-38.4,-78.7,12.24,-93.67,-57.17,-137.9,-73.14,-42.59,-68.95,-24.28,-57.25,-43.57,-56.25,-15.96,-24.14,-4.248,0,0,0,0,0,0,0,0,0,0,0,0,0,0,0,0,
48,-51.38,-72.32,11.77,-140.7,-90.98,-121.8,-74.48,-48.19,-109.8,-18.81,-54.23,-32.62,-37.38,-3.054,-12.2,-2.314,0,0,0,0,0,0,0,0,0,0,0,0,0,0,0,0,
49,-23.65,-56.63,10.84,-111,-98.31,-76.67,-57.93,-24.52,-74.04,-15.96,-41.15,-23.96,-38.87,-0.2756,-15.23,-12.97,0,0,0,0,0,0,0,0,0,0,0,0,0,0,0,0,
50,-5.241,-66.17,9.771,-72.1,-96.34,-83.5,-49.43,-21.09,-54.9,-24.78,-59.7,-52.66,-60.9,-19.41,-40.9,-38.65,0,0,0,0,0,0,0,0,0,0,0,0,0,0,0,0,
51,-23.16,-77.91,10.1,-70.95,-105,-99.64,-41.92,-28.77,-77.32,-24.91,-78.77,-65.42,-66.74,-25.51,-71.85,-60.7,0,0,0,0,0,0,0,0,0,0,0,0,0,0,0,0,
52,-36.5,-76.78,11.36,-70.81,-103.3,-102.6,-50.95,-30.81,-69.7,-18.2,-71.03,-50.46,-70.62,-19.23,-80.31,-63.54,0,0,0,0,0,0,0,0,0,0,0,0,0,0,0,0,
53,-40.91,-96.25,12.22,-92.91,-102.6,-131.4,-79.78,-45.57,-69.16,-24.48,-57.28,-45.14,-80.8,-18.15,-66.79,-56.08,0,0,0,0,0,0,0,0,0,0,0,0,0,0,0,0,
54,-33.76,-104.3,12.52,-134.6,-112.6,-127.6,-80.25,-51.72,-73.15,-24.43,-29.19,-32.4,-63.97,-4.319,-40.73,-40.54,0,0,0,0,0,0,0,0,0,0,0,0,0,0,0,0,
55,-8.559,-77.14,11.73,-115.9,-110.6,-83.77,-67.93,-41.12,-46.65,-10.47,-9.648,-27.21,-51.79,4.716,-21.89,-24.12,0,0,0,0,0,0,0,0,0,0,0,0,0,0,0,0,
56,-17.57,-75.4,10.92,-71.17,-113.3,-104.2,-87.8,-61.47,-56.12,-13.68,-34.12,-60.22,-76.06,-14.23,-34.25,-26.93,0,0,0,0,0,0,0,0,0,0,0,0,0,0,0,0,
57,-59.09,-99.67,11.5,-84.58,-125.8,-146.5,-105.8,-99.05,-78.92,-31,-45.85,-71.61,-81.61,-21.8,-55.29,-36.03,0,0,0,0,0,0,0,0,0,0,0,0,0,0,0,0,
58,-59.99,-92.11,11.74,-101.1,-105.1,-122.5,-88.22,-94.84,-53.16,-31.41,-19.72,-38.53,-56.91,-8.779,-52.2,-28.76,0,0,0,0,0,0,0,0,0,0,0,0,0,0,0,0,
59,-23.12,-68.56,10.81,-85.39,-88.3,-107.9,-68.5,-75.89,-56.88,-22.81,-22.97,-32.43,-55.57,-14.94,-44.71,-21.42,0,0,0,0,0,0,0,0,0,0,0,0,0,0,0,0,
60,-4.575,-68.23,10.37,-103,-125,-135.3,-80.96,-97.06,-91.34,-27.99,-50.42,-55.6,-69.89,-32.56,-52.94,-24.89,0,0,0,0,0,0,0,0,0,0,0,0,0,0,0,0,
61,-13.86,-73.83,10.96,-140,-147.6,-130.6,-99.28,-124.4,-73.54,-39.51,-44.34,-50.07,-70.76,-38.12,-59.12,-21.72,0,0,0,0,0,0,0,0,0,0,0,0,0,0,0,0,
62,-15.7,-68.04,12.35,-134.4,-125.5,-98.15,-85.55,-110.6,-51.85,-50.16,-30.81,-30.41,-76.42,-44.09,-54.42,-12.3,0,0,0,0,0,0,0,0,0,0,0,0,0,0,0,0,
63,11.03,-68.5,12.75,-105.3,-111.8,-81.12,-69.9,-91.52,-64.84,-63.29,-37.02,-29.54,-82.94,-45.43,-43.65,-5.842,0,0,0,0,0,0,0,0,0,0,0,0,0,0,0,0,
64,27.38,-80.19,10.58,-94.7,-109.5,-84.34,-86.28,-105.3,-61.66,-64.19,-17.65,-24.21,-69.63,-27.46,-19.25,8.376,0,0,0,0,0,0,0,0,0,0,0,0,0,0,0,0,
65,11.52,-86.02,9.459,-103.3,-97.71,-106,-108.1,-120.9,-45.87,-53.49,24.94,-9.384,-60.74,-15.94,11.41,23.95,0,0,0,0,0,0,0,0,0,0,0,0,0,0,0,0,
66,0.8623,-83.06,11.71,-114.4,-92.03,-130.6,-121,-122.5,-48.08,-62.91,20.54,-24.68,-74.95,-32.58,10.56,6.798,0,0,0,0,0,0,0,0,0,0,0,0,0,0,0,0,
67,-15.82,-83.38,13.46,-138.7,-118.1,-148.3,-133.3,-139.5,-66.55,-89.13,-32.97,-71.88,-99.96,-60.3,-37.2,-46.92,0,0,0,0,0,0,0,0,0,0,0,0,0,0,0,0,
68,-60.55,-93.12,14.42,-182.9,-155.3,-161.4,-139.7,-159.8,-84.35,-100.6,-67.18,-104.2,-128.7,-81.65,-93.12,-96.74,0,0,0,0,0,0,0,0,0,0,0,0,0,0,0,0,
69,-87.99,-110.5,16.79,-195.6,-161.2,-166.9,-152.9,-152.8,-95.97,-107.7,-70.26,-115,-155.6,-100.5,-119.2,-115.8,0,0,0,0,0,0,0,0,0,0,0,0,0,0,0,0,
70,-102.9,-138.9,18.19,-172.3,-192.9,-179,-184.5,-148.2,-128.9,-133.3,-88.75,-139.5,-182.5,-124.5,-126.6,-119.8,0,0,0,0,0,0,0,0,0,0,0,0,0,0,0,0,
71,-140,-173.8,19.54,-178.1,-267.3,-194.2,-208.5,-172.8,-159.7,-156.4,-116.9,-156.3,-200.1,-137.8,-135.9,-124.7,0,0,0,0,0,0,0,0,0,0,0,0,0,0,0,0,
72,-150,-178.3,22.78,-191.4,-246.5,-193.1,-199.6,-189.9,-134.9,-149.3,-106.1,-125.4,-175.4,-120.4,-135.4,-117.7,0,0,0,0,0,0,0,0,0,0,0,0,0,0,0,0,
73,-112.8,-141.2,22.77,-170,-158.1,-194,-167,-171.3,-105,-123.6,-77.34,-95.34,-135.8,-98.94,-119.9,-96.09,0,0,0,0,0,0,0,0,0,0,0,0,0,0,0,0,
74,-87.9,-124.3,19.15,-170.6,-171,-197.1,-150.5,-150.9,-122,-113.7,-91.39,-117.6,-143.6,-110.2,-118.5,-87.36,0,0,0,0,0,0,0,0,0,0,0,0,0,0,0,0,
75,-101.2,-153.6,17.97,-205.4,-225.1,-186,-167.7,-161.7,-145.2,-126.6,-125,-145.7,-172.5,-134.7,-140.1,-102.4,0,0,0,0,0,0,0,0,0,0,0,0,0,0,0,0,
76,-122.4,-166.3,19.41,-199.1,-204.3,-176.1,-169.4,-167.4,-146.3,-129.4,-117,-131.7,-170.5,-135.1,-148.8,-116.6,0,0,0,0,0,0,0,0,0,0,0,0,0,0,0,0,
77,-110.7,-137.5,20.66,-142.5,-175.9,-152,-128.3,-129.9,-126.1,-109.3,-87.47,-103.1,-153.1,-108.6,-127.4,-109.4,0,0,0,0,0,0,0,0,0,0,0,0,0,0,0,0,
78,-74.08,-110.8,19.15,-98.8,-187.9,-111.6,-102.3,-95.41,-95.92,-95.81,-76.46,-89.79,-135.9,-78.45,-97.94,-84.4,0,0,0,0,0,0,0,0,0,0,0,0,0,0,0,0,
79,-58.73,-97.2,14.24,-93.34,-186.6,-116.1,-119.3,-103.6,-87.03,-96.33,-66.09,-81.66,-112,-67.31,-75.35,-57.19,0,0,0,0,0,0,0,0,0,0,0,0,0,0,0,0,
80,-62.14,-89.47,12.88,-117.7,-161,-155.2,-136.2,-119.6,-104.6,-94.95,-53.41,-80.28,-95.26,-71.49,-63.91,-44.86,0,0,0,0,0,0,0,0,0,0,0,0,0,0,0,0,
81,-69.18,-101.4,16.65,-160.2,-152.7,-164.1,-137.2,-124.4,-114,-90.38,-55.39,-88.72,-89.95,-63.67,-68.12,-46.17,0,0,0,0,0,0,0,0,0,0,0,0,0,0,0,0,
82,-85.53,-107.5,16.85,-173.1,-154.7,-149.4,-131.9,-130.1,-87.62,-79.83,-47.66,-76.67,-79.32,-43.38,-72.55,-40.9,0,0,0,0,0,0,0,0,0,0,0,0,0,0,0,0,
83,-84.93,-84.73,13.2,-139.3,-152,-130.2,-115.4,-131.5,-71.57,-72.83,-32.19,-54.44,-77,-46.37,-65.97,-32.56,0,0,0,0,0,0,0,0,0,0,0,0,0,0,0,0,
84,-64,-76,12.06,-120.6,-184.9,-102.9,-94.42,-127.2,-116.4,-88.42,-41.6,-60.8,-96.89,-72.93,-64.24,-44,0,0,0,0,0,0,0,0,0,0,0,0,0,0,0,0,
85,-50.66,-85.77,12.74,-123.4,-218.2,-87.4,-78.27,-121.3,-135.7,-103.3,-48.72,-66.33,-108.3,-81.41,-70.4,-63.88,0,0,0,0,0,0,0,0,0,0,0,0,0,0,0,0,
86,-41.4,-77.36,12.9,-114.6,-182.9,-93.46,-71.45,-119.8,-76.53,-99.73,-36.34,-55.37,-103.9,-75.51,-73.66,-70.43,0,0,0,0,0,0,0,0,0,0,0,0,0,0,0,0,
87,-48.58,-75.59,12.5,-130.1,-153.8,-112,-82.97,-134.1,-59.23,-106.9,-42.06,-66.81,-113.1,-89.27,-79.78,-77.42,0,0,0,0,0,0,0,0,0,0,0,0,0,0,0,0,
88,-77.54,-93.87,12.25,-152.8,-181.5,-132.8,-93.81,-148.9,-110.6,-125.6,-58.78,-82.65,-128.1,-108.4,-88.96,-93.84,0,0,0,0,0,0,0,0,0,0,0,0,0,0,0,0,
89,-82.75,-96.14,14.15,-132.3,-208.1,-126.8,-86.88,-147.8,-123.6,-129.9,-57.69,-73.68,-128,-112,-90.34,-101.9,0,0,0,0,0,0,0,0,0,0,0,0,0,0,0,0,
90,-65.83,-92.4,16.45,-130,-227.7,-102.4,-91.04,-151.5,-107.3,-129.7,-55.74,-71.9,-127.4,-117.9,-89.53,-98.46,0,0,0,0,0,0,0,0,0,0,0,0,0,0,0,0,
91,-70.89,-109.6,15.99,-169.5,-224.5,-115.7,-116.2,-169,-123.8,-135.2,-64.96,-89.24,-133.8,-127.9,-94.85,-94.7,0,0,0,0,0,0,0,0,0,0,0,0,0,0,0,0,
92,-88,-127.1,15.54,-174.8,-181.4,-148.4,-129.8,-174.3,-139.9,-126.4,-70.64,-96.58,-126.8,-114.3,-97.57,-88.16,0,0,0,0,0,0,0,0,0,0,0,0,0,0,0,0,
93,-81.55,-119,16.93,-153.6,-173.8,-138.1,-122.6,-156.2,-127.2,-99.09,-63.67,-80.78,-99.58,-81.5,-86.18,-69.59,0,0,0,0,0,0,0,0,0,0,0,0,0,0,0,0,
94,-53.74,-93.64,16.48,-156.1,-193.3,-113.9,-116,-138.5,-120.1,-81.32,-49.08,-61.03,-81.1,-70.83,-62.96,-44.33,0,0,0,0,0,0,0,0,0,0,0,0,0,0,0,0,
95,-36.45,-81.03,14.08,-154.4,-166.4,-120.4,-118.3,-140.8,-125.8,-85.43,-38.81,-58.4,-87.13,-86.18,-46.78,-33.13,0,0,0,0,0,0,0,0,0,0,0,0,0,0,0,0,
96,-37.07,-87.13,13.21,-141.3,-143.8,-122.5,-115.1,-149.1,-108.2,-95.67,-33.83,-56.1,-87.04,-88.36,-48.6,-40.5,0,0,0,0,0,0,0,0,0,0,0,0,0,0,0,0,
97,-29.06,-86.53,13.4,-148.6,-161.9,-105.9,-98.81,-146.4,-76.56,-102.3,-26.25,-37.09,-70.75,-76.67,-51,-42.68,0,0,0,0,0,0,0,0,0,0,0,0,0,0,0,0,
98,-7.689,-75.41,12.86,-146.1,-163.5,-97.66,-86.79,-135.2,-69.88,-103.8,-19.17,-24.64,-68.99,-78.81,-41.48,-33.98,0,0,0,0,0,0,0,0,0,0,0,0,0,0,0,0,
99,7.988,-67.07,11.66,-123.3,-138.8,-85.36,-84.49,-122.7,-72.1,-99.45,-16.03,-26.05,-78.75,-86.17,-31.01,-35.66,0,0,0,0,0,0,0,0,0,0,0,0,0,0,0,0,
100,10.73,-59.2,9.746,-131.8,-122.6,-63.61,-72.08,-110.9,-60.41,-95.63,-12.84,-21.42,-80.11,-88.44,-22.63,-47.76,0,0,0,0,0,0,0,0,0,0,0,0,0,0,0,0,
101,7.872,-56.14,8.532,-142.6,-126.9,-62.7,-48.9,-96.18,-61.09,-96.17,-19.01,-21.83,-91.07,-103.8,-18.65,-57.97,0,0,0,0,0,0,0,0,0,0,0,0,0,0,0,0,
102,10.92,-66.21,9.028,-108.7,-138.6,-72.48,-39.57,-85.78,-78.59,-104.4,-42.31,-44.43,-115,-124.7,-35,-71.61,0,0,0,0,0,0,0,0,0,0,0,0,0,0,0,0,
103,4.702,-79.2,9.244,-87.06,-128,-75.18,-52.34,-94.83,-91.64,-118,-59.45,-65.78,-122.6,-121.1,-60.68,-84.25,0,0,0,0,0,0,0,0,0,0,0,0,0,0,0,0,
104,-28.35,-91.81,9.111,-103.3,-101.9,-89.99,-69.82,-109.2,-107.4,-117.5,-56.96,-66.58,-112.3,-98.85,-65.77,-77.54,0,0,0,0,0,0,0,0,0,0,0,0,0,0,0,0,
105,-46.88,-105.4,9.418,-118.1,-102.8,-102.3,-77.57,-109.9,-119.4,-99.17,-51.05,-55.03,-89.02,-74.67,-49.72,-49.23,0,0,0,0,0,0,0,0,0,0,0,0,0,0,0,0,
106,-27.11,-96.68,8.774,-121.8,-128.7,-95.68,-76.52,-104.3,-106.8,-76.24,-39.9,-34.35,-46.43,-44.24,-23.52,-12.41,0,0,0,0,0,0,0,0,0,0,0,0,0,0,0,0,
107,-20.11,-64.09,8.637,-118,-147.8,-98.12,-69.91,-93.98,-90.98,-56.34,-23.03,-19.34,-23.19,-28.73,2.41,8.802,0,0,0,0,0,0,0,0,0,0,0,0,0,0,0,0,
108,-30.53,-50.65,9.864,-124.6,-169.6,-93.36,-64.82,-88.71,-90.62,-57.29,-19.94,-25.37,-42.32,-45.66,7.212,-1.809,0,0,0,0,0,0,0,0,0,0,0,0,0,0,0,0,
109,-10.84,-63.52,9.245,-146.4,-203.4,-69.46,-72.13,-109.9,-87.91,-81.79,-24.31,-31.82,-53.84,-58.68,-5.637,-22.93,0,0,0,0,0,0,0,0,0,0,0,0,0,0,0,0,
110,3.947,-72.28,8.303,-148.6,-204.9,-88.55,-87.65,-129.1,-83.16,-96.04,-32.7,-41.51,-52.97,-55.45,-18.21,-33.78,0,0,0,0,0,0,0,0,0,0,0,0,0,0,0,0,
111,-36.73,-78.98,10.03,-137.9,-159.5,-141.5,-99.93,-113.9,-106.1,-87.62,-55.63,-72.49,-74.06,-56.64,-36.37,-42.41,0,0,0,0,0,0,0,0,0,0,0,0,0,0,0,0,
112,-73.66,-86.37,11.16,-135.7,-125.4,-155.5,-100.2,-94.3,-151.2,-72.43,-65.69,-84.94,-82.43,-50.19,-51.98,-44.48,0,0,0,0,0,0,0,0,0,0,0,0,0,0,0,0,
113,-51.95,-74.7,10.41,-139,-125.1,-133.6,-81.27,-90.36,-152.7,-60.07,-50.43,-64.1,-68.41,-44.21,-46.16,-35.85,0,0,0,0,0,0,0,0,0,0,0,0,0,0,0,0,
114,-18,-56.69,9.795,-162.2,-127.3,-101.1,-63.98,-90.1,-107.4,-63.71,-44.5,-56.7,-80.34,-65.16,-40.34,-40.04,0,0,0,0,0,0,0,0,0,0,0,0,0,0,0,0,
115,-10.58,-57.91,8.542,-172.6,-135.5,-75.97,-70.78,-105.8,-106.2,-80.55,-57.16,-67.2,-100.6,-82.84,-51.99,-58.27,0,0,0,0,0,0,0,0,0,0,0,0,0,0,0,0,
116,-11.25,-68.24,7.987,-126.3,-141.2,-86.26,-73.24,-122,-133.8,-82.89,-66.14,-71.55,-94.05,-72.98,-59.26,-63.96,0,0,0,0,0,0,0,0,0,0,0,0,0,0,0,0,
117,-13.14,-72.1,10.15,-79.15,-103.4,-101.5,-60.42,-91.01,-107.6,-71.01,-59.63,-71.62,-84.35,-62.3,-54.72,-54.54,0,0,0,0,0,0,0,0,0,0,0,0,0,0,0,0,
118,-20.82,-75.2,11.41,-80.69,-55.09,-90.36,-73.67,-53.32,-77.33,-66.71,-46.37,-68.39,-82.91,-63.97,-53.51,-45.08,0,0,0,0,0,0,0,0,0,0,0,0,0,0,0,0,
119,-19.44,-83.48,9.857,-98.57,-53.03,-89.42,-102.9,-76.92,-84.74,-70.53,-37.59,-61.71,-79,-67.09,-53.19,-40.28,0,0,0,0,0,0,0,0,0,0,0,0,0,0,0,0,
120,-10,-88.67,8.49,-102.6,-74.65,-106.8,-99.09,-110.3,-91.8,-78.06,-30.8,-55.76,-77.01,-65.99,-40.92,-36.02,0,0,0,0,0,0,0,0,0,0,0,0,0,0,0,0,
121,-15,-85.09,8.05,-100.5,-100.3,-99.51,-76.95,-97.02,-116.8,-88.6,-41.39,-58.53,-86.38,-70.88,-28.24,-33.28,0,0,0,0,0,0,0,0,0,0,0,0,0,0,0,0,
122,-28.51,-87.65,8.08,-110.3,-132.8,-68.33,-71.87,-85.88,-147.9,-97.07,-81.33,-87.94,-116.3,-94.53,-45.64,-48.51,0,0,0,0,0,0,0,0,0,0,0,0,0,0,0,0,
123,-42.82,-106.4,9.569,-119.5,-130.7,-78.95,-76.69,-98.13,-136.5,-107,-108.4,-130.1,-152.4,-117.9,-91.96,-86.5,0,0,0,0,0,0,0,0,0,0,0,0,0,0,0,0,
124,-78.56,-119.9,11.69,-111.6,-92.24,-142.6,-76.55,-95.94,-129,-115.4,-101.4,-142.1,-157.9,-114.4,-124.6,-117.2,0,0,0,0,0,0,0,0,0,0,0,0,0,0,0,0,
125,-111,-112.4,12.62,-108.2,-79.93,-167.6,-73.91,-86.87,-147.8,-109.5,-93.04,-127.2,-137.5,-96.65,-117.6,-114.2,0,0,0,0,0,0,0,0,0,0,0,0,0,0,0,0,
126,-105.7,-107.5,12.11,-111.4,-93.35,-151.3,-88.52,-91.62,-148.9,-103.3,-94.86,-127.1,-136.1,-93.09,-91.83,-89.69,0,0,0,0,0,0,0,0,0,0,0,0,0,0,0,0,
127,-112.1,-125.4,11.92,-108.1,-105.6,-182.4,-122.9,-99.4,-147.2,-111.4,-101.9,-144.6,-159.3,-106.8,-82.34,-76.5,0,0,0,0,0,0,0,0,0,0,0,0,0,0,0,0,
128,-141.1,-137.6,13.8,-109.5,-137.3,-198.5,-130.2,-102.4,-151.5,-112.7,-108.5,-142.9,-161.9,-111.6,-93.05,-86.28,0,0,0,0,0,0,0,0,0,0,0,0,0,0,0,0,
129,-121.2,-115.3,14.63,-99.29,-153.1,-135.1,-91.69,-94.39,-135.2,-101.2,-93.71,-116.2,-131.6,-94.27,-92.59,-91.77,0,0,0,0,0,0,0,0,0,0,0,0,0,0,0,0,
130,-74.52,-91.82,11.59,-75.7,-110.4,-124.5,-62.79,-84.67,-121.8,-101.8,-68.17,-98.52,-116.7,-85.1,-68.57,-74.45,0,0,0,0,0,0,0,0,0,0,0,0,0,0,0,0,
131,-71.75,-103.2,9.26,-86.34,-83.69,-191.9,-74.15,-94.57,-119.8,-116.4,-66.53,-99.53,-131.7,-101.9,-51.32,-62.21,0,0,0,0,0,0,0,0,0,0,0,0,0,0,0,0,
132,-89.14,-118.4,9.961,-112.3,-96.44,-188,-86.11,-103.9,-105.4,-126,-82.48,-105.1,-134.8,-116.5,-61.29,-77.37,0,0,0,0,0,0,0,0,0,0,0,0,0,0,0,0,
133,-103.8,-107.5,9.597,-102.1,-68.02,-132.4,-72.09,-96.88,-102.4,-122.3,-87.5,-111.5,-117.9,-110.2,-79.66,-94.24,0,0,0,0,0,0,0,0,0,0,0,0,0,0,0,0,
134,-124.8,-95.43,8.11,-89.12,-22.78,-130.5,-62.07,-94.2,-106.5,-109.5,-72.58,-106.2,-102.9,-92.36,-79.37,-83.11,0,0,0,0,0,0,0,0,0,0,0,0,0,0,0,0,
135,-116.3,-93.38,8.203,-103.5,-30.27,-124,-73.16,-94.54,-86.41,-107.8,-55.36,-86.59,-95.44,-77.59,-61.8,-57.19,0,0,0,0,0,0,0,0,0,0,0,0,0,0,0,0,
136,-82.35,-91.36,8.539,-113.7,-54.57,-84.45,-74.64,-107.4,-94.46,-128.9,-57.32,-84.32,-107,-79.08,-56.37,-51.04,0,0,0,0,0,0,0,0,0,0,0,0,0,0,0,0,
137,-82.79,-100.5,8.011,-105.4,-54.21,-95.42,-61.8,-139.7,-135.1,-138.8,-62.71,-97.05,-125.7,-83.15,-71.65,-66.68,0,0,0,0,0,0,0,0,0,0,0,0,0,0,0,0,
138,-98.98,-111.4,8.579,-93.78,-36.52,-118.6,-63.35,-133.9,-115.4,-115.5,-50.57,-89.04,-113,-67.08,-79.83,-72.89,0,0,0,0,0,0,0,0,0,0,0,0,0,0,0,0,
139,-85.06,-99.55,10.02,-92.64,-18.69,-81.62,-73.22,-98.54,-63.1,-99.01,-42.06,-75.73,-85.61,-52.19,-71.35,-60.63,0,0,0,0,0,0,0,0,0,0,0,0,0,0,0,0,
140,-80.25,-84.71,8.79,-96.31,-16.71,-66.83,-72.44,-107.6,-66,-109.4,-52.04,-82.92,-79.52,-59.83,-64.42,-51.25,0,0,0,0,0,0,0,0,0,0,0,0,0,0,0,0,
141,-106,-85.55,5.695,-82.09,-10.24,-108.2,-60.81,-113.7,-79.01,-109.8,-56.75,-82.49,-71.11,-60.61,-58.09,-45.68,0,0,0,0,0,0,0,0,0,0,0,0,0,0,0,0,
142,-105.2,-80.79,5.107,-56.3,19.15,-111.5,-41.65,-69.25,-56.51,-92.88,-37.12,-56.47,-46.67,-42.65,-35.56,-21.84,0,0,0,0,0,0,0,0,0,0,0,0,0,0,0,0,
143,-69.31,-67.45,4.75,-40.95,30.01,-71.83,-28.87,-47.55,-44.24,-89.94,-13.11,-37.36,-40.98,-42.45,-3.276,11.93,0,0,0,0,0,0,0,0,0,0,0,0,0,0,0,0,
144,-55.16,-70.93,1.646,-38.62,0.6236,-51.18,-27.93,-58.12,-52.22,-102.3,-16.81,-47.88,-60.47,-63.95,10.17,18.07,0,0,0,0,0,0,0,0,0,0,0,0,0,0,0,0,
145,-72.5,-89.84,0.6083,-54.33,-13.67,-58,-31.57,-52.82,-56.83,-111.6,-33.75,-69.19,-76.08,-72.16,-7.491,-8.528,0,0,0,0,0,0,0,0,0,0,0,0,0,0,0,0,
146,-98.98,-100.6,2.838,-77.13,8.707,-93.44,-48.46,-50.89,-75.53,-115.1,-40.37,-89.62,-85.3,-70.07,-41.21,-38.39,0,0,0,0,0,0,0,0,0,0,0,0,0,0,0,0,
147,-131.2,-103.3,4.13,-84.2,5.338,-123.2,-65.7,-57.41,-98.02,-110.6,-53.82,-113.6,-96.4,-70.33,-74.43,-58.73,0,0,0,0,0,0,0,0,0,0,0,0,0,0,0,0,
148,-141.9,-102.2,5.881,-85.28,-16.36,-94.91,-56.02,-57.07,-72.16,-96.95,-57.05,-114.3,-86.69,-49.79,-88.51,-66.84,0,0,0,0,0,0,0,0,0,0,0,0,0,0,0,0,
149,-116.1,-80.99,8.696,-85.19,6.729,-46.34,-38.22,-64.38,-26.41,-86.89,-28.7,-83.8,-53.96,-23.22,-68.95,-53.62,0,0,0,0,0,0,0,0,0,0,0,0,0,0,0,0,
150,-93.13,-45.66,7.565,-66.86,27.82,-16.1,-22.67,-61.91,-23.78,-79.53,-17.79,-65.24,-36.74,-30.29,-40.92,-32.94,0,0,0,0,0,0,0,0,0,0,0,0,0,0,0,0,
151,-69.52,-20.43,3.193,-32.97,22.7,5.515,9.376,-40.35,-33.28,-63.96,-22.39,-57.26,-36.81,-41.44,-31.79,-24.35,0,0,0,0,0,0,0,0,0,0,0,0,0,0,0,0,
152,-28.44,-5.208,0.7785,-17.85,44.2,-7.141,29.08,-42.4,-28.42,-63.6,-2.363,-43.18,-35.96,-32.95,-25.99,-20.64,0,0,0,0,0,0,0,0,0,0,0,0,0,0,0,0,
153,-30.31,-7.945,0.4791,-42.93,40.75,-42.13,8.523,-59.18,-50.46,-93.7,-8.558,-62.14,-52.58,-41.2,-22.41,-23.2,0,0,0,0,0,0,0,0,0,0,0,0,0,0,0,0,
154,-77.84,-39.21,1.235,-56.72,-4.948,-49.98,-17.48,-50.14,-101,-111.1,-51.99,-98.34,-74.86,-57.4,-45.58,-43.63,0,0,0,0,0,0,0,0,0,0,0,0,0,0,0,0,
155,-85.26,-64.47,3.167,-39.3,-4.456,-43.06,-25.21,-43.69,-137.1,-97.94,-60.55,-91.77,-61.03,-47.09,-77.92,-62.09,0,0,0,0,0,0,0,0,0,0,0,0,0,0,0,0,
156,-52.35,-53.97,3.805,-56.44,9.246,-22.67,-19.19,-56.31,-123.5,-94.14,-45.85,-71.62,-32.41,-33.17,-84.21,-57.19,0,0,0,0,0,0,0,0,0,0,0,0,0,0,0,0,
157,-35.19,-28.3,2.255,-69.02,-11.47,6.364,-1.448,-47.07,-68.26,-102.4,-50.17,-77.77,-32.47,-34.33,-72.91,-40.54,0,0,0,0,0,0,0,0,0,0,0,0,0,0,0,0,
158,-37,-18.57,1.233,-17.3,-4.05,-15.61,1.609,-30.08,-41.39,-99.86,-49.62,-83.49,-51.35,-36.82,-68.54,-27.39,0,0,0,0,0,0,0,0,0,0,0,0,0,0,0,0,
159,-49.12,-34,1.639,-4.453,16.76,-62.46,-25.97,-51.65,-68.42,-105.6,-41.38,-81.98,-61.61,-43.05,-73.85,-23.89,0,0,0,0,0,0,0,0,0,0,0,0,0,0,0,0,
160,-66.79,-60.08,2.882,-55.55,-2.987,-65.79,-52.3,-82.99,-88.36,-123.9,-42.69,-86.79,-57.07,-57.98,-76.51,-31.9,0,0,0,0,0,0,0,0,0,0,0,0,0,0,0,0,
161,-73.3,-75.85,4.42,-66.73,-22.17,-51.8,-56.82,-79.32,-67.82,-123.4,-26.35,-82.65,-46.31,-71.19,-63.65,-40.48,0,0,0,0,0,0,0,0,0,0,0,0,0,0,0,0,
162,-67.32,-73.54,3.681,-47.8,-14.1,-44.24,-48.47,-51.82,-30.55,-106.9,16.14,-67.6,-36.28,-71.34,-38.63,-41.14,0,0,0,0,0,0,0,0,0,0,0,0,0,0,0,0,
163,-65.1,-59.62,0.0787,-45.06,-6.013,-41.08,-35.62,-26.11,-9.652,-95.91,39.95,-60.9,-26.09,-56.17,-19.35,-38.5,0,0,0,0,0,0,0,0,0,0,0,0,0,0,0,0,
164,-65.91,-48.7,-1.944,-39.12,0.6615,-53.37,-25.53,-12.12,-17.92,-86.08,29.96,-54.78,-17.06,-37.89,-11.05,-31.36,0,0,0,0,0,0,0,0,0,0,0,0,0,0,0,0,
165,-43.1,-41.68,-0.5062,-30.12,0.7172,-51.11,-20.18,-5.405,-24.17,-70.61,16.13,-34.59,-6.52,-23.1,-1.99,-12.97,0,0,0,0,0,0,0,0,0,0,0,0,0,0,0,0,
166,-12.08,-27.81,0.2762,-29.76,-25.73,-31.08,-20.87,1.135,-14.2,-56.61,-2.723,-26.81,4.12,-10.24,8.594,9.178,0,0,0,0,0,0,0,0,0,0,0,0,0,0,0,0,
167,-36.61,-24.83,-1.199,-38.82,-52.25,-40.63,-39.42,-4.756,-43.96,-64.13,-48.76,-63.08,-13.02,-16.97,-2.806,8.637,0,0,0,0,0,0,0,0,0,0,0,0,0,0,0,0,
168,-108.9,-53.48,-0.6501,-60.49,-69.3,-70.57,-78.01,-27.32,-111.7,-95.67,-95.58,-113.9,-56.47,-44.29,-47.75,-29.35,0,0,0,0,0,0,0,0,0,0,0,0,0,0,0,0,
169,-152.2,-79.62,3.927,-86.17,-106.7,-86.04,-101.1,-30.64,-115.2,-102.1,-92.25,-118,-66.04,-50.5,-84.97,-68.76,0,0,0,0,0,0,0,0,0,0,0,0,0,0,0,0,
170,-137.7,-61.06,7.805,-88.28,-124.5,-78.33,-68.09,1.889,-67.19,-64.82,-47.06,-78.66,-31.71,-31.91,-70.54,-64.05,0,0,0,0,0,0,0,0,0,0,0,0,0,0,0,0,
171,-95.82,-25.36,6.216,-56.3,-94.6,-53.68,-19.64,20.76,-71.96,-46.22,-22.37,-57.06,-16.8,-32.84,-30.54,-31.68,0,0,0,0,0,0,0,0,0,0,0,0,0,0,0,0,
172,-72.46,-23.18,2.063,-37.53,-64.57,-47.19,-26.56,-1.612,-75.79,-69.34,-33.51,-63.21,-29.56,-44.71,-10.22,-10.82,0,0,0,0,0,0,0,0,0,0,0,0,0,0,0,0,
173,-79.61,-39.18,1.28,-49.58,-31.18,-64.58,-52.15,-22.29,-20.77,-89.08,-43.16,-61.55,-26.85,-31.69,-5.965,-0.4291,0,0,0,0,0,0,0,0,0,0,0,0,0,0,0,0,
174,-79.19,-37.21,2.265,-46.78,-9.715,-59.94,-42.6,-27.25,-4.83,-96.26,-47.25,-56.16,-19.94,-16.72,-2.862,9.925,0,0,0,0,0,0,0,0,0,0,0,0,0,0,0,0,
175,-59.8,-36.22,0.7517,-40.31,-38.73,-30.32,-37.03,-44.68,-31.61,-102.2,-46.25,-54.39,-26.2,-17.27,0.2079,17.55,0,0,0,0,0,0,0,0,0,0,0,0,0,0,0,0,
176,-45.77,-48.66,-0.657,-46.81,-36.95,-13.24,-43.65,-61.35,-24.38,-94.87,-19.13,-34.68,-11.35,-7.447,9.475,26.1,0,0,0,0,0,0,0,0,0,0,0,0,0,0,0,0,
177,-26.9,-40.91,-0.5055,-31.8,9.821,-8.815,-25.95,-55.5,-14.7,-84.15,8.1,-10.94,20.19,2.209,19.7,32.4,0,0,0,0,0,0,0,0,0,0,0,0,0,0,0,0,
178,-3.44,-16.76,-2.245,-19.49,6.909,-1.541,-16.05,-42.43,-19.76,-92.2,-0.2003,-19.49,19.39,-12.48,12.74,21.25,0,0,0,0,0,0,0,0,0,0,0,0,0,0,0,0,
179,-18.57,-18.52,-3.714,-30.33,-8.941,-9.841,-36.83,-36.95,-21.38,-108.9,-24.78,-48.15,0.9236,-25.58,-8.194,-2.751,0,0,0,0,0,0,0,0,0,0,0,0,0,0,0,0,
180,-52.95,-33.49,-1.044,-25.35,-2.756,-34.33,-40.75,-42.05,-37.36,-114.4,-40.01,-52.43,9.845,-20.71,-19.43,-14.25,0,0,0,0,0,0,0,0,0,0,0,0,0,0,0,0,
181,-41.99,-23.51,1.197,-22.58,-25.17,-34.48,-26.09,-50.14,-53.29,-109.3,-47,-31.17,24.46,-21.42,-11.06,-4.316,0,0,0,0,0,0,0,0,0,0,0,0,0,0,0,0,
182,-14.7,-14.55,-0.7659,-45.92,-41.51,-23.14,-41.31,-47.16,-69.33,-105.4,-57.73,-31.44,8.34,-32.06,-1.772,6.823,0,0,0,0,0,0,0,0,0,0,0,0,0,0,0,0,
183,-30.13,-39.96,-2.049,-61.71,-59.41,-39.38,-78.22,-41.19,-99.77,-104.3,-74.7,-61.21,-23.15,-36.71,-11.9,-0.0679,0,0,0,0,0,0,0,0,0,0,0,0,0,0,0,0,
184,-62.44,-72.04,0.5614,-77.34,-132.4,-59.45,-101.7,-46.14,-108.7,-97.93,-90.03,-88.49,-50.75,-41.03,-38.9,-23.83,0,0,0,0,0,0,0,0,0,0,0,0,0,0,0,0,
185,-82.14,-91.2,3.938,-103.6,-150.5,-76.3,-112.2,-52.26,-104.5,-87.73,-104,-109.6,-74.17,-55.43,-71.79,-56.41,0,0,0,0,0,0,0,0,0,0,0,0,0,0,0,0,
186,-97.5,-105.8,6.319,-95.06,-64.49,-103,-113,-54.45,-109.2,-83.97,-109.2,-116.8,-82.49,-67.97,-97.86,-85.09,0,0,0,0,0,0,0,0,0,0,0,0,0,0,0,0,
187,-104.9,-105.2,7.581,-73.86,-26.6,-107.7,-112.7,-68.51,-97.81,-93.91,-97.34,-97.65,-71.66,-70.78,-101.6,-92.28,0,0,0,0,0,0,0,0,0,0,0,0,0,0,0,0,
188,-99.14,-93.89,6.706,-102.7,-68.37,-91.07,-120,-87.12,-83.67,-109.7,-80.48,-77.52,-55.26,-71.86,-85.37,-77.28,0,0,0,0,0,0,0,0,0,0,0,0,0,0,0,0,
189,-72.67,-86.54,5.082,-119.5,-71.88,-72.91,-103.7,-75.51,-60.09,-109.5,-58.45,-62.57,-41.83,-68.77,-63.44,-55.36,0,0,0,0,0,0,0,0,0,0,0,0,0,0,0,0,
190,-38.76,-71.36,3.79,-62.77,-26.56,-43.15,-68.35,-43.09,-17.22,-95.25,-33.64,-45.32,-41.4,-58.36,-42.48,-37.19,0,0,0,0,0,0,0,0,0,0,0,0,0,0,0,0,
191,-40.58,-63.82,1.66,-22.72,-5.893,-25.09,-73.11,-40.24,-31.46,-92.85,-30.19,-49.17,-55.38,-52.75,-32.32,-29.27,0,0,0,0,0,0,0,0,0,0,0,0,0,0,0,0,
192,-68.23,-89.23,0.6001,-51.54,-21.6,-31.85,-100.7,-67.79,-71.42,-100.2,-42.85,-69.35,-62.55,-57.72,-41.45,-34.25,0,0,0,0,0,0,0,0,0,0,0,0,0,0,0,0,
193,-88.01,-113,2.023,-72,-30.4,-41.25,-96.96,-79.26,-32.98,-98.94,-48.71,-77.72,-58.14,-66.3,-59.16,-45.98,0,0,0,0,0,0,0,0,0,0,0,0,0,0,0,0,
194,-96.29,-107.2,3.031,-62.19,-34.7,-44.9,-86.61,-67.07,-2.122,-94.52,-44.17,-71.57,-52.96,-68.14,-69.59,-56.58,0,0,0,0,0,0,0,0,0,0,0,0,0,0,0,0,
195,-75.31,-90.29,3.105,-70.53,-70.39,-23.4,-85.59,-66.89,-42.16,-92.61,-34.97,-55.05,-41.91,-60.76,-67.52,-59.98,0,0,0,0,0,0,0,0,0,0,0,0,0,0,0,0,
196,-48.59,-68.83,2.755,-72.88,-83.59,1.446,-60.57,-71.25,-41.08,-80.14,-33.63,-40.68,-27.89,-54.58,-56.41,-51.77,0,0,0,0,0,0,0,0,0,0,0,0,0,0,0,0,
197,-57.11,-46.62,-0.3578,-28.09,-29.3,-15.9,-27.91,-32.34,1.987,-54.76,-34.89,-31.09,-18.84,-46.68,-39.81,-30.93,0,0,0,0,0,0,0,0,0,0,0,0,0,0,0,0,
198,-53.14,-36.07,-4.592,11.49,9.986,-21.9,-19.27,25.19,6.052,-35.54,-17.17,-5.673,0.2687,-26.76,-12.62,1.893,0,0,0,0,0,0,0,0,0,0,0,0,0,0,0,0,
199,-27.51,-21.18,-6.062,14.83,8.851,18.58,-9.862,33.43,2.776,-30.29,8.316,22.22,30.63,-11.02,22.77,36.51,0,0,0,0,0,0,0,0,0,0,0,0,0,0,0,0,
200,-37.47,3.657,-6.491,21.11,14.1,39.22,3.449,4.505,4.251,-27.06,18.85,26.8,44.99,-10.66,42.38,51.32,0,0,0,0,0,0,0,0,0,0,0,0,0,0,0,0,
201,-56.66,7.952,-7.27,6.039,6.345,15.57,-11.83,-18.46,-9.004,-24.79,15.18,19.8,35.21,-12.85,30.59,37.83,0,0,0,0,0,0,0,0,0,0,0,0,0,0,0,0,
202,-64,-9.383,-6.024,-40.68,0.5496,-19.9,-39.51,-35.91,-2.372,-26.85,-8.479,-1.201,12.68,-22.9,-4.746,6.644,0,0,0,0,0,0,0,0,0,0,0,0,0,0,0,0,
203,-95.85,-28.45,-3.55,-54.02,2.709,-40.96,-56.43,-49.3,-2.761,-22.77,-57.94,-49.17,-18.47,-47.58,-53.73,-31.71,0,0,0,0,0,0,0,0,0,0,0,0,0,0,0,0,
204,-118.8,-48.8,-1.837,-51.31,-45.77,-36.58,-66.96,-46.27,-33.81,-11.04,-93.91,-84.24,-40.08,-57.41,-94.37,-59.05,0,0,0,0,0,0,0,0,0,0,0,0,0,0,0,0,
205,-97.08,-46.97,-0.3886,-47.88,-66.17,-23.3,-50.8,-23.72,-23.65,3.902,-80.23,-73.08,-30.34,-38.28,-92.87,-52.58,0,0,0,0,0,0,0,0,0,0,0,0,0,0,0,0,
206,-68.23,-11.43,0.0315,4.395,-1.859,-8.962,-17.26,-2.193,2.375,25.91,-52.71,-51.79,-9.689,-18.61,-56.66,-24.68,0,0,0,0,0,0,0,0,0,0,0,0,0,0,0,0,
207,-48.61,4.587,-1.212,39.25,11.53,6.652,-16.74,-10.92,-24.62,39.12,-44.17,-44.29,-8.139,-11.41,-28.31,-8.696,0,0,0,0,0,0,0,0,0,0,0,0,0,0,0,0,
208,-38.41,-19.85,-2.826,-0.8479,-25.27,-5.02,-42.03,-39.5,-30.23,22.98,-38.64,-35.29,-23.42,-12.13,-26.69,-12.7,0,0,0,0,0,0,0,0,0,0,0,0,0,0,0,0,
209,-58.55,-44.43,-3.257,-34.36,-9.561,-44.69,-59.3,-52.72,7.603,2.211,-41.51,-35.17,-38.7,-21.48,-45.35,-27.97,0,0,0,0,0,0,0,0,0,0,0,0,0,0,0,0,
210,-90.62,-48.23,-0.8639,-23.3,-0.8736,-63.45,-57.94,-37.16,1.988,12.23,-44.84,-41.07,-30.85,-17.76,-59.57,-36.08,0,0,0,0,0,0,0,0,0,0,0,0,0,0,0,0,
211,-93.4,-29.07,1.278,0.9082,-16.27,-38.97,-29.41,-8.004,-23.22,34.98,-16.04,-25.72,-1.348,-0.3414,-38.89,-17,0,0,0,0,0,0,0,0,0,0,0,0,0,0,0,0,
212,-71.06,0.2476,-1.505,22.81,0.0359,3.024,6.2,2.436,-7.824,32.65,8.543,-12.06,13.49,-13.65,-3.455,7.317,0,0,0,0,0,0,0,0,0,0,0,0,0,0,0,0,
213,-52.36,14.46,-5.097,40.56,-2.668,35.43,24.97,-6.907,15.28,15.56,-2.143,-18.84,12.73,-43.48,1.064,4.167,0,0,0,0,0,0,0,0,0,0,0,0,0,0,0,0,
214,-48.19,20.47,-5.409,53.97,-27.85,44.14,32.4,-8.388,21.09,15.02,-6.57,-17.87,19.47,-38.67,-17,-7.717,0,0,0,0,0,0,0,0,0,0,0,0,0,0,0,0,
215,-51.84,23.07,-5.721,37.4,-10.16,23.86,22.49,-11.71,16.93,21.77,1.252,-10.34,21.56,-23.07,-23.69,-3.927,0,0,0,0,0,0,0,0,0,0,0,0,0,0,0,0,
216,-55.8,4.608,-6.28,2.472,18.96,-6.082,-2.19,-30.04,8.388,13.33,0.5854,-10.04,13.15,-26.63,-12.55,4.263,0,0,0,0,0,0,0,0,0,0,0,0,0,0,0,0,
217,-62.21,-21.83,-5.485,-3.473,18.02,-22.88,-22.09,-41.54,15.9,3.849,9.595,-7.077,9.322,-22.62,8.541,8.444,0,0,0,0,0,0,0,0,0,0,0,0,0,0,0,0,
218,-73.66,-35.81,-5.05,-8.73,6.804,-23.3,-36.55,-40.21,35.32,12.46,25.62,-11.37,4.45,-9.984,24.4,10.55,0,0,0,0,0,0,0,0,0,0,0,0,0,0,0,0,
219,-89.12,-45.05,-4.865,-17.39,-3.708,-9.933,-41.87,-32.6,36.3,25.83,19.42,-33.75,-13.34,-19.73,18.27,3.77,0,0,0,0,0,0,0,0,0,0,0,0,0,0,0,0,
220,-101.1,-54.3,-3.837,18.34,-10.54,-3.497,-41.15,-16.88,25.09,31.1,1.118,-51.21,-35.84,-44.37,-3.501,-14.02,0,0,0,0,0,0,0,0,0,0,0,0,0,0,0,0,
221,-89.51,-55.67,-2.219,44.06,-16.34,-11.09,-45.26,-6.407,25.34,35.44,-4.828,-50.97,-50.38,-57.19,-21.16,-33.57,0,0,0,0,0,0,0,0,0,0,0,0,0,0,0,0,
222,-62.15,-46.94,-0.7061,16.21,-27.95,-3.307,-38.77,-8.674,28.57,37.51,-12.2,-53,-62.76,-63.54,-33.73,-51.69,0,0,0,0,0,0,0,0,0,0,0,0,0,0,0,0,
223,-54.51,-39.65,-0.7593,-2.499,-26.6,6.932,-26.72,-4.316,20.41,34.98,-27.41,-58.18,-71.57,-67.75,-47.91,-68.68,0,0,0,0,0,0,0,0,0,0,0,0,0,0,0,0,
224,-55.13,-35.75,-1.925,5.293,-2.765,0.7821,-24.24,13.25,20.15,43.45,-22.42,-39.23,-51.43,-52.44,-49.07,-71.39,0,0,0,0,0,0,0,0,0,0,0,0,0,0,0,0,
225,-39.43,-18.89,-2.944,15.49,25.94,8.17,-12.12,22.32,44.72,59.53,-5.136,-11.24,-18.9,-37.21,-30.23,-57.09,0,0,0,0,0,0,0,0,0,0,0,0,0,0,0,0,
226,-34.1,-2.212,-4.292,24.82,38.82,11.09,-1.333,13.55,57.69,55.92,-4.262,-12.49,-16.62,-50.11,-17.18,-50.68,0,0,0,0,0,0,0,0,0,0,0,0,0,0,0,0,
227,-39.62,-5.189,-4.843,17.47,17.82,-0.4841,-3.071,3.256,34.74,40.23,0.3041,-17.78,-16.83,-53.54,-15.89,-52.87,0,0,0,0,0,0,0,0,0,0,0,0,0,0,0,0,
228,-18.53,7.258,-4.361,10.83,-3.538,32.19,18.29,-0.0868,24.79,44.44,20.36,3.649,13.18,-27.94,-2.988,-35.44,0,0,0,0,0,0,0,0,0,0,0,0,0,0,0,0,
229,3.497,45,-6.045,35.83,21.23,73.54,44.1,3.498,48.11,59.09,24.86,16.12,33.78,-21.13,12.72,-9.732,0,0,0,0,0,0,0,0,0,0,0,0,0,0,0,0,
230,-11.9,55.95,-9.266,59.13,38.02,54.91,43.07,18.48,60.63,61.97,15.91,9.046,35.28,-28.68,12.52,-3.228,0,0,0,0,0,0,0,0,0,0,0,0,0,0,0,0,
231,-18.23,47.18,-9.671,59.21,14.23,33.01,52.64,30.13,54.96,67.87,26.89,23.69,56.72,-0.6642,19.1,3.567,0,0,0,0,0,0,0,0,0,0,0,0,0,0,0,0,
232,10.53,62.04,-8.154,49.96,16.13,32.54,58.27,21.93,40.45,77.28,45.33,42.73,75.94,32.9,43.28,26.57,0,0,0,0,0,0,0,0,0,0,0,0,0,0,0,0,
233,9.844,65,-8.446,17.66,20.91,10.62,23.82,15.72,17.23,67.07,39.78,24.98,55.79,23.5,53.53,38.62,0,0,0,0,0,0,0,0,0,0,0,0,0,0,0,0,
234,-26.04,33.01,-8.781,-15.61,-20.07,2.305,4.239,28.27,24.63,49.31,34,6.746,30.31,6.022,40.78,28.05,0,0,0,0,0,0,0,0,0,0,0,0,0,0,0,0,
235,-29.37,17.04,-7.077,-2.008,-20.94,20.99,9.989,35.26,60.82,41.01,52.49,13.45,19.38,10.67,27.83,13.52,0,0,0,0,0,0,0,0,0,0,0,0,0,0,0,0,
236,-14.88,22.65,-6.307,28.25,37.19,13.57,-3.472,26.66,68.17,36.72,66.06,12.44,4.846,10.88,19.85,3.494,0,0,0,0,0,0,0,0,0,0,0,0,0,0,0,0,
237,-26.32,19.47,-6.547,32.42,47.64,-2.126,-1.51,20.51,52.19,38.97,58.54,4.616,3.433,-2.046,9.221,-5.005,0,0,0,0,0,0,0,0,0,0,0,0,0,0,0,0,
238,-34.87,19.2,-5.185,20.71,12.48,8.181,23.29,14.64,48.37,38.81,41.62,-2.001,14.39,-14.81,-4.8,-14.57,0,0,0,0,0,0,0,0,0,0,0,0,0,0,0,0,
239,-24.81,23.8,-4.023,18.12,14.18,18.72,20.55,7.918,54.13,32.05,24.99,-18.21,8.083,-19.94,-19.64,-25.47,0,0,0,0,0,0,0,0,0,0,0,0,0,0,0,0,
240,-16.55,20.4,-4.387,37.07,40.1,16.05,10.57,14.24,44.86,38.7,20.27,-22.68,3.004,-14.2,-29.1,-31.93,0,0,0,0,0,0,0,0,0,0,0,0,0,0,0,0,
241,-12.72,19.87,-4.424,30.49,40.74,9.457,9.803,11.41,4.798,40.24,16.96,-12.3,15.22,-11.35,-32.58,-31.8,0,0,0,0,0,0,0,0,0,0,0,0,0,0,0,0,
242,-7.665,28.29,-3.31,-17.79,31.48,10.43,-4.142,-11.76,-16.64,21.41,11.51,-6.273,27.2,-11.89,-29.39,-25.51,0,0,0,0,0,0,0,0,0,0,0,0,0,0,0,0,
243,7.328,42.52,-1.975,-16.21,25.03,15.11,-9.167,-12.87,13.97,19.53,21.17,0.0404,31.99,-4.507,-10.52,-13.25,0,0,0,0,0,0,0,0,0,0,0,0,0,0,0,0,
244,21.28,49.98,-2.596,18.54,-2.099,-4.863,-6.324,1.203,32.61,26.63,12.1,-11.74,16.61,-9.756,4.781,-11.12,0,0,0,0,0,0,0,0,0,0,0,0,0,0,0,0,
245,7.149,34.77,-3.868,-6.598,-18.76,-23.75,-14.06,-5.284,19.74,16.09,-28,-40,-6.034,-24.62,-11.17,-25.73,0,0,0,0,0,0,0,0,0,0,0,0,0,0,0,0,
246,-9.285,22.59,-2.171,-7.896,18.41,7.931,2.717,5.543,18.88,23.78,-32.09,-30.08,7.624,-17.76,-28.31,-29.39,0,0,0,0,0,0,0,0,0,0,0,0,0,0,0,0,
247,11.62,44.47,-1.218,65.17,63.06,55.29,41.68,42.55,32.55,48.57,1.685,9.604,41.05,-5.595,-11.74,-10.29,0,0,0,0,0,0,0,0,0,0,0,0,0,0,0,0,
248,45.41,81.32,-4.996,90.9,63.93,76.87,65.07,47.46,46.37,44.43,14.53,29.28,55.29,-6.939,12.91,8.886,0,0,0,0,0,0,0,0,0,0,0,0,0,0,0,0,
249,54.51,99.58,-8.696,63.1,36,87.51,75.32,28.51,33.43,28.25,10.05,32.77,53.28,-10.05,17.48,14.97,0,0,0,0,0,0,0,0,0,0,0,0,0,0,0,0,
250,40.46,85.86,-8.681,65.46,22.54,84.67,66.88,23.89,8.33,29.8,12.01,32.86,37.94,-13.29,11.49,14.28,0,0,0,0,0,0,0,0,0,0,0,0,0,0,0,0,
251,22.34,54.75,-6.957,69.59,51.99,50.61,37.72,18.83,41.71,32.54,19.77,26.86,16.26,-9.525,11.69,21.5,0,0,0,0,0,0,0,0,0,0,0,0,0,0,0,0,
252,8.702,25.14,-5.772,40.58,69.12,4.776,9.352,3.638,82.19,26.11,24.04,12.72,0.6451,-1.63,19.77,40.48,0,0,0,0,0,0,0,0,0,0,0,0,0,0,0,0,
253,-13.74,-6.808,-5.273,8.736,15.51,-11.41,-18.14,-14.37,51.67,17.34,13.64,-7.192,-12.57,-7.767,20.92,47.53,0,0,0,0,0,0,0,0,0,0,0,0,0,0,0,0,
254,-48.62,-22.27,-4.007,4.848,-24.59,3.644,-25.18,-21.46,29.97,11.22,8.06,-9.395,-14.91,-11.89,9.71,29.89,0,0,0,0,0,0,0,0,0,0,0,0,0,0,0,0,
255,-68.44,0.679,-3.785,29.95,11.54,2.177,2.573,-3.034,40.96,11.32,10.21,-3.726,-13.26,-13.79,-6.777,-1.569,0,0,0,0,0,0,0,0,0,0,0,0,0,0,0,0,
256,-70.93,15.87,-5.66,36.79,25.73,-24.72,12.23,5.171,5.283,11.58,-20.07,-34.77,-33.23,-38.45,-36.65,-45.27,0,0,0,0,0,0,0,0,0,0,0,0,0,0,0,0,
257,-85.55,-2.605,-3.692,11.33,-19.3,-29.66,-7.686,-16.57,-38.46,11.29,-47.64,-67.59,-42.52,-49.99,-67.73,-79.26,0,0,0,0,0,0,0,0,0,0,0,0,0,0,0,0,
258,-91.82,-5.017,1.323,14.78,-26.23,-5.236,-10.64,-19.63,-10.88,23.61,-6.829,-42.08,-9.896,-19.2,-52.9,-62.96,0,0,0,0,0,0,0,0,0,0,0,0,0,0,0,0,
259,-49.81,16.5,0.4222,36.57,12.57,11.26,0.4033,-5.066,53.38,43.5,52.27,4.731,20.58,10.38,8.617,-11.37,0,0,0,0,0,0,0,0,0,0,0,0,0,0,0,0,
260,6.006,25.14,-4.655,21.24,20.89,22.12,16.33,-6.361,72.14,52.46,75.07,29.91,30.96,25.82,67.33,35.95,0,0,0,0,0,0,0,0,0,0,0,0,0,0,0,0,
261,30.93,30.18,-7.193,25.75,26.35,52.04,44.41,7,41.78,53.88,90.26,50.26,49.83,47.09,100.1,77.36,0,0,0,0,0,0,0,0,0,0,0,0,0,0,0,0,
262,39.3,47.04,-8.197,80.37,72.56,68.48,56.29,39.07,42.84,56.15,91.35,60.3,59.14,50,103.9,100.4,0,0,0,0,0,0,0,0,0,0,0,0,0,0,0,0,
263,32.75,56.72,-8.304,92.02,95.54,42,46.26,47.12,80.58,47.78,49.49,37.57,39.37,25.92,69.87,76.99,0,0,0,0,0,0,0,0,0,0,0,0,0,0,0,0,
264,-0.6601,51.6,-6.79,54.86,76.16,28,43.5,43.13,72.67,30.66,-6.011,-0.5969,22.77,9.722,12.97,26.7,0,0,0,0,0,0,0,0,0,0,0,0,0,0,0,0,
265,-22.25,46.3,-5.972,55.71,70.32,49.32,54.22,51.69,23.65,29.08,-40.45,-18.45,25.05,4.295,-31.96,-9.001,0,0,0,0,0,0,0,0,0,0,0,0,0,0,0,0,
266,-7.605,50.99,-6.519,83.07,61.67,50.02,74.06,55.34,-2.83,36.4,-47.13,-6.527,31.01,-7.573,-44.77,-21.05,0,0,0,0,0,0,0,0,0,0,0,0,0,0,0,0,
267,5.812,57.39,-7.299,80.52,35.56,37.96,81.01,47.02,8.537,27.63,-35.39,8.901,31.56,-16.42,-30.01,-18.94,0,0,0,0,0,0,0,0,0,0,0,0,0,0,0,0,
268,1.818,51.51,-7.107,60.91,38.83,45.68,56.15,36.26,38.49,15.64,-26.54,9.619,20.15,-18.68,-8.846,-14.2,0,0,0,0,0,0,0,0,0,0,0,0,0,0,0,0,
269,-4.767,34.85,-5.36,55.81,48.42,28.65,32.41,25.29,43.97,10.85,-29.61,1.995,-3.077,-28.54,0.0211,-18.82,0,0,0,0,0,0,0,0,0,0,0,0,0,0,0,0,
270,-26.78,10.65,-3.915,61.3,23.15,-13.17,23.62,19.91,16.25,-2.904,-43.24,-15.89,-27.42,-41.28,-6.007,-33.18,0,0,0,0,0,0,0,0,0,0,0,0,0,0,0,0,
271,-63.47,-13.94,-2.651,56.81,11.87,-21.31,8.104,19.82,0.6671,-17.36,-56.85,-33.47,-42.47,-40.59,-21.2,-45.21,0,0,0,0,0,0,0,0,0,0,0,0,0,0,0,0,
272,-81.58,-18.9,-0.151,33.49,24.17,-14.67,-8.587,8.869,-2.629,-23.05,-51.2,-33.9,-45.65,-34.93,-37.54,-44.61,0,0,0,0,0,0,0,0,0,0,0,0,0,0,0,0,
273,-80.11,-12.32,1.629,-3.913,0.8972,-23.66,-24.31,-14.12,-16.02,-30.2,-38.43,-35.83,-44.34,-37.11,-45.45,-34.36,0,0,0,0,0,0,0,0,0,0,0,0,0,0,0,0,
274,-77.53,-10.88,2.396,-19.59,-20.2,-21,-32.17,-22.52,-13.29,-29.76,-36.16,-41.22,-36.35,-33.58,-41.13,-24.42,0,0,0,0,0,0,0,0,0,0,0,0,0,0,0,0,
275,-72.02,-1.849,2.87,22.43,26.64,-17.54,-16.89,-7.195,19.44,-23.8,-31.3,-32.72,-23.18,-27.16,-31.42,-20.22,0,0,0,0,0,0,0,0,0,0,0,0,0,0,0,0,
276,-58.51,5.906,1.718,54.77,65.64,-32.3,-10.97,-1.936,42.95,-28.16,-24.64,-26.64,-25.72,-37.67,-28.33,-26.43,0,0,0,0,0,0,0,0,0,0,0,0,0,0,0,0,
277,-37.96,2.679,0.8901,16.79,43.24,-30.58,-18.17,-20.29,24.11,-23.73,-23.26,-24.23,-34.17,-41.85,-34.01,-38.17,0,0,0,0,0,0,0,0,0,0,0,0,0,0,0,0,
278,-27.36,11.84,1.182,1.117,36.11,-13.92,-5.38,-24.3,-3.485,-7.885,-22.67,-18.68,-32.55,-28.92,-40.5,-38.35,0,0,0,0,0,0,0,0,0,0,0,0,0,0,0,0,
279,-37.63,12.05,-0.0109,37.94,52.91,-10.69,-3.536,-11.3,0.9292,-11.95,-35.57,-34.38,-48.91,-39.02,-50.86,-34.83,0,0,0,0,0,0,0,0,0,0,0,0,0,0,0,0,
280,-41.36,-20.79,-0.281,32.54,56.66,-6.441,-18.77,-23.15,4.338,-30.96,-51.59,-54.17,-77.04,-62.58,-68.65,-48.13,0,0,0,0,0,0,0,0,0,0,0,0,0,0,0,0,
281,-24.82,-35.98,1.538,17.22,67.41,2.703,-7.371,-39.99,-8.545,-40.42,-41.93,-41.47,-76.45,-59.14,-75.12,-60.45,0,0,0,0,0,0,0,0,0,0,0,0,0,0,0,0,
282,-2.12,-17.12,1.032,45.97,48.41,7.921,6.302,-23.74,-1.235,-37.48,-32.76,-20.21,-61.12,-48.29,-60.06,-49.68,0,0,0,0,0,0,0,0,0,0,0,0,0,0,0,0,
283,15.9,-7.644,-1.272,41.16,8.927,14.66,0.6951,-12.77,9.034,-31.77,-49.83,-16.08,-55.41,-53.45,-43.96,-32.91,0,0,0,0,0,0,0,0,0,0,0,0,0,0,0,0,
284,8.296,-8.235,-2.145,17.42,49.39,14.07,4.556,-25.2,1.697,-40.53,-65.42,-21.61,-52.92,-68.8,-44.32,-33.82,0,0,0,0,0,0,0,0,0,0,0,0,0,0,0,0,
285,-10.68,-4.362,-2.12,54.88,100.8,15.58,8.03,-23.4,6.019,-58.71,-61.58,-23.91,-50.62,-86.36,-53.02,-50.73,0,0,0,0,0,0,0,0,0,0,0,0,0,0,0,0,
286,1.643,-7.219,-1.79,86.56,62.33,30.41,-4.01,-17.83,17.71,-58.22,-41.34,-5.285,-43.23,-85.05,-46.67,-56.17,0,0,0,0,0,0,0,0,0,0,0,0,0,0,0,0,
287,17.83,-15.16,-1.56,52.49,28.54,28.79,-18.76,-28.87,14.56,-49.62,-21.66,14.75,-42.42,-76.82,-20.65,-39.41,0,0,0,0,0,0,0,0,0,0,0,0,0,0,0,0,
288,-4.068,-31.09,-1.253,9.441,29.61,14.92,-38.83,-41.91,-10.4,-63.84,-39.83,-9.756,-74.48,-99.95,-13.04,-42.58,0,0,0,0,0,0,0,0,0,0,0,0,0,0,0,0,
289,-39.67,-66.5,1.379,-14.05,-12.69,8.727,-62.65,-64.32,-50.69,-84.43,-76.48,-50.89,-108.4,-123.4,-45.06,-82.41,0,0,0,0,0,0,0,0,0,0,0,0,0,0,0,0,
290,-54.02,-91.22,5.534,-26.56,-54.51,-15.37,-76.43,-84.57,-51.07,-82.77,-73.95,-51.41,-101.8,-112.5,-72.62,-105.5,0,0,0,0,0,0,0,0,0,0,0,0,0,0,0,0,
291,-46.78,-78,6.98,-26.52,-34.58,-46.55,-80.36,-73.93,-13.01,-74.64,-58.97,-37.29,-84.43,-104.7,-63.26,-89.01,0,0,0,0,0,0,0,0,0,0,0,0,0,0,0,0,
292,-47.3,-58.08,5.107,-32.9,-4.829,-44.23,-79.66,-67.67,-19.86,-78.59,-69.1,-37.65,-80.23,-104.8,-41.57,-64.44,0,0,0,0,0,0,0,0,0,0,0,0,0,0,0,0,
293,-53.28,-48.04,3.291,-50.47,-6.46,-17.83,-66.61,-82.06,-36.05,-76.48,-61.29,-19.97,-63.26,-82.67,-27.37,-43.02,0,0,0,0,0,0,0,0,0,0,0,0,0,0,0,0,
294,-31.05,-30.47,2.297,-36.78,-0.7659,8.139,-30.9,-68.49,1.087,-59.54,-32.48,1.345,-44.32,-65.72,-21.75,-26.84,0,0,0,0,0,0,0,0,0,0,0,0,0,0,0,0,
295,-17.41,-21.66,0.0489,23.71,34.35,20.76,1.393,-33.87,5.462,-49.63,-26.73,-14.55,-52.88,-74.11,-28.89,-29.98,0,0,0,0,0,0,0,0,0,0,0,0,0,0,0,0,
296,-38.46,-31.09,-2.312,57.13,39.27,18.01,-0.6954,-26.16,-27.09,-50.83,-24.61,-30.53,-64.3,-75.83,-36.22,-44.14,0,0,0,0,0,0,0,0,0,0,0,0,0,0,0,0,
297,-35.68,-30.08,-1.971,23.58,0.4007,10.83,-8.591,-33.78,7.028,-42.86,-11.36,-19.15,-55.39,-63,-29.99,-49.45,0,0,0,0,0,0,0,0,0,0,0,0,0,0,0,0,
298,-15.43,-20.67,-0.401,13.68,11.12,-0.0789,-3.174,-25.34,53.39,-24.67,-18.1,-15.87,-46.16,-56.12,-24.74,-46.35,0,0,0,0,0,0,0,0,0,0,0,0,0,0,0,0,
299,-19.54,-24.62,-0.6305,45.35,62.94,-8.082,-16.98,-11.82,32.53,-12.41,-37.97,-30.62,-50.97,-61.57,-34.77,-47.55,0,0,0,0,0,0,0,0,0,0,0,0,0,0,0,0,
300,-24.65,-40.98,-1.475,24.98,35.76,-15.63,-44.9,-17.4,-2.631,-8.325,-50.33,-46.75,-60.53,-70.9,-54.98,-58.07,0,0,0,0,0,0,0,0,0,0,0,0,0,0,0,0,
301,-33.84,-59.77,0.2995,-6.938,-34.46,-42.43,-50.22,-31.66,-23.84,-6.119,-54.66,-49.62,-58.57,-68.41,-70.11,-66.48,0,0,0,0,0,0,0,0,0,0,0,0,0,0,0,0,
302,-40.59,-59.57,2.973,17.84,-25.83,-47.71,-34.76,-26.98,-26.54,-6.881,-36.44,-29.26,-47.84,-58.09,-63.28,-64.36,0,0,0,0,0,0,0,0,0,0,0,0,0,0,0,0,
303,-6.395,-41.96,1.95,30.22,21.52,-5.002,-18.18,-11.99,-4.86,-12.25,-6.624,-11.01,-51.66,-61.42,-41.59,-64.04,0,0,0,0,0,0,0,0,0,0,0,0,0,0,0,0,
304,12.58,-45.33,-0.7625,17.47,31.46,9.179,-7.04,-9.13,-16.1,-17.4,-7.867,-13.19,-59.35,-70.18,-30.05,-69.45,0,0,0,0,0,0,0,0,0,0,0,0,0,0,0,0,
305,-19.25,-61.77,-0.7951,20.82,28.32,-21.98,-2.008,-12.48,-47.78,-16.28,-34.44,-15.22,-43.04,-66.25,-30.52,-65.17,0,0,0,0,0,0,0,0,0,0,0,0,0,0,0,0,
306,-27.56,-55.95,-0.1921,10.84,16.32,-36.03,-6.512,-18.35,-32.53,-12.97,-50.41,-18.65,-24.31,-60.79,-32.23,-51.1,0,0,0,0,0,0,0,0,0,0,0,0,0,0,0,0,
307,-13.49,-49.41,-0.1394,-7.702,-5.093,-42.55,-13.12,-27.23,-21.24,-19.27,-56.06,-32.32,-26.52,-60.97,-37.88,-41.25,0,0,0,0,0,0,0,0,0,0,0,0,0,0,0,0,
308,-27.01,-63.45,1.423,-10.57,1.626,-51.28,-5.237,-25.25,-51.46,-29.23,-61.71,-37.97,-34.86,-59.68,-48.9,-39.31,0,0,0,0,0,0,0,0,0,0,0,0,0,0,0,0,
309,-34.6,-77.98,2.113,-11.53,2.749,-37.34,0.509,-20.3,-59.93,-25.73,-64.38,-38.55,-45.18,-62.81,-61.25,-45.96,0,0,0,0,0,0,0,0,0,0,0,0,0,0,0,0,
310,-21.57,-81.76,0.5698,6.256,-26.82,-30.55,-7.361,-24.2,-41.48,-13.48,-62.54,-38.56,-48.96,-66.26,-67.59,-56.02,0,0,0,0,0,0,0,0,0,0,0,0,0,0,0,0,
311,-8.1,-61.49,-0.0813,40.76,-16.15,-22.75,12.33,-15.16,-38.66,-3.079,-44.25,-11.73,-18.72,-49.66,-49.41,-48.73,0,0,0,0,0,0,0,0,0,0,0,0,0,0,0,0,
312,21.96,-13.41,-1.004,57.03,29.9,28.28,54.99,7.102,-38.72,6.124,-11.15,28.39,26.18,-25.9,-6.157,-18.26,0,0,0,0,0,0,0,0,0,0,0,0,0,0,0,0,
313,49.58,15.04,-4.35,64.19,39.35,58.2,62.84,13.37,-16.28,9.82,-0.1125,39.99,44.59,-20.53,27.64,11.16,0,0,0,0,0,0,0,0,0,0,0,0,0,0,0,0,
314,41.62,8.527,-6.684,65.3,23.66,31.79,47.13,3.115,-2.664,9.98,-13.77,41.83,52.07,-16.52,36.77,26.06,0,0,0,0,0,0,0,0,0,0,0,0,0,0,0,0,
315,28.29,12.79,-6.391,36.27,-2.694,24.53,39.77,-14.47,-37.22,13.97,-9.736,64.98,71.46,-0.9112,49.83,42.48,0,0,0,0,0,0,0,0,0,0,0,0,0,0,0,0,
316,25.63,25.1,-5.697,-5.64,-43.09,30.38,22.72,-34.38,-67.34,18.83,16.99,86.53,81.22,4.186,78.41,67.07,0,0,0,0,0,0,0,0,0,0,0,0,0,0,0,0,
317,15.54,11.98,-5.118,-10.99,-53.99,-1.908,3.031,-36.15,-37.39,30.24,32.99,81.43,65.64,-4.495,89.74,76.6,0,0,0,0,0,0,0,0,0,0,0,0,0,0,0,0,
318,4.832,-13.61,-4.907,21.01,-50.29,-31.01,1.136,-25.6,-12.52,46.35,25.56,56.88,38.83,-12.48,64.14,56.66,0,0,0,0,0,0,0,0,0,0,0,0,0,0,0,0,
319,0.3687,-28.02,-4.817,25.12,-66.77,-25.07,5.186,-22.1,-34.87,51.79,13.6,36.11,23.24,-13.88,27.91,28.97,0,0,0,0,0,0,0,0,0,0,0,0,0,0,0,0,
320,0.5336,-15.25,-2.999,6.109,-43.3,3.72,21.93,-4.16,-43.81,63.7,12.81,34.31,24.29,-7.572,9.314,14.18,0,0,0,0,0,0,0,0,0,0,0,0,0,0,0,0,
321,4.692,15.52,-1.693,43.29,14.23,41.76,50,20.82,-23.37,83.66,13.68,36.09,17.15,-9.168,4.812,3.96,0,0,0,0,0,0,0,0,0,0,0,0,0,0,0,0,
322,2.605,16.03,-3.938,81.33,21.68,52.37,53.19,9.916,-8.102,73.32,10.46,28.81,-3.864,-22.57,1.969,-7.537,0,0,0,0,0,0,0,0,0,0,0,0,0,0,0,0,
323,1.196,-9.893,-5.687,34.3,6.457,40.9,37.15,-6.539,3.336,53.8,3.371,21.04,-12.42,-26.1,-4.278,-14.59,0,0,0,0,0,0,0,0,0,0,0,0,0,0,0,0,
324,6.647,-17.09,-3.767,-2.703,2.705,33.64,25.95,2.465,11.65,59.36,-17.94,11.12,-11.71,-24.41,-17.62,-23.59,0,0,0,0,0,0,0,0,0,0,0,0,0,0,0,0,
325,1.791,-13.28,-1.785,26.53,-27.34,8.804,15.54,-7.05,1.366,53.82,-34.18,4.418,-13.08,-25.35,-28.87,-33.06,0,0,0,0,0,0,0,0,0,0,0,0,0,0,0,0,
326,-3.449,-4.764,-1.554,39.64,-57.34,-0.2003,19.02,-22.78,-12.86,37.9,-21.64,11.51,-4.163,-17.52,-21.76,-26.78,0,0,0,0,0,0,0,0,0,0,0,0,0,0,0,0,
327,5.638,13.39,-1.845,27.6,-62.68,26.91,28.64,-5.028,-11.47,43.19,-11.19,14.78,4.192,-19.22,-4.735,-14.9,0,0,0,0,0,0,0,0,0,0,0,0,0,0,0,0,
328,4.556,5.865,-2.47,17.91,-68.1,8.624,9.269,-4.695,-16.03,35.96,-19.04,8.052,-3.549,-38.71,1.928,-17.24,0,0,0,0,0,0,0,0,0,0,0,0,0,0,0,0,
329,-9.109,-22.71,-1.694,4.106,-49.85,-25.15,-13.57,-32.07,-36.81,13.66,-14.57,7.433,-10.24,-44.45,-1.573,-22.44,0,0,0,0,0,0,0,0,0,0,0,0,0,0,0,0,
330,-12.21,-28.81,0.3782,1.205,-23.91,-2.742,-16.45,-27.72,-40.17,17.71,1.119,6.974,-6.098,-37.49,-8.728,-22.14,0,0,0,0,0,0,0,0,0,0,0,0,0,0,0,0,
331,-22.09,-22.99,-0.3633,-10.77,-49.93,-13.34,-29.11,-11.82,-29.53,21.82,1.435,-5.612,-1.532,-40.52,-23.09,-31.92,0,0,0,0,0,0,0,0,0,0,0,0,0,0,0,0,
332,-53.46,-26.27,-1.831,-35.55,-89.2,-62.6,-39.23,-19.06,-44.66,4.015,-8.957,-20.98,-0.7215,-42.28,-40.75,-49.1,0,0,0,0,0,0,0,0,0,0,0,0,0,0,0,0,
333,-64.4,-27.25,0.8184,-28.02,-99.65,-42.2,-20.32,-20.31,-76.72,2.47,-6.74,-17.06,6.556,-27.33,-41.19,-44.18,0,0,0,0,0,0,0,0,0,0,0,0,0,0,0,0,
334,-31.37,-16.45,2.33,-11.4,-96.95,-0.8611,2.855,-7.549,-83.98,23.56,16.53,12.59,22.29,-5.738,-13,-5.395,0,0,0,0,0,0,0,0,0,0,0,0,0,0,0,0,
335,3.884,0.136,-1.509,1.784,-64.43,-5.374,13.56,8.598,-49.05,39.17,43.96,37,18.87,2.675,21.06,35.07,0,0,0,0,0,0,0,0,0,0,0,0,0,0,0,0,
336,12.78,-2.657,-4.065,14.78,-27.86,-5.646,14.5,23.38,-17.28,40.72,52.34,34.82,-7.878,-6.242,29.49,38.13,0,0,0,0,0,0,0,0,0,0,0,0,0,0,0,0,
337,16.58,-29.1,-2.96,-28.55,-52.88,4.83,4.012,19.85,-50.14,41.49,38.88,26.28,-17.7,-15.51,13.51,10.25,0,0,0,0,0,0,0,0,0,0,0,0,0,0,0,0,
338,25.75,-46.59,-2.776,-59.97,-95.72,1.895,-5.72,10.41,-85.6,54.5,19.68,17.43,-8.067,-15.79,-4.021,-15.96,0,0,0,0,0,0,0,0,0,0,0,0,0,0,0,0,
339,21.91,-56.57,-2.794,-3.807,-89.42,-6.548,-7.141,15.84,-38.36,62.96,14.39,-1.119,-8.003,-15.8,-9.892,-29.56,0,0,0,0,0,0,0,0,0,0,0,0,0,0,0,0,
340,2.514,-73.65,-1.15,16.17,-69.72,-14.64,-9.327,21.07,11.8,54.98,22.22,-11.85,-9.272,-19.02,-6.4,-33.18,0,0,0,0,0,0,0,0,0,0,0,0,0,0,0,0,
341,-8.439,-71.32,-0.2419,-11.72,-61.72,-1.912,-10.81,28.65,1.209,56.24,18,-6.763,-0.2001,-19.63,-6.197,-27.82,0,0,0,0,0,0,0,0,0,0,0,0,0,0,0,0,
342,1.666,-51.92,-0.4608,18.17,-36.13,18.8,-0.8772,53.74,-3.004,68.11,3.261,-0.4428,6.36,-17.82,-15.01,-21,0,0,0,0,0,0,0,0,0,0,0,0,0,0,0,0,
343,14.75,-48.8,-1.121,41.67,-23.95,8.675,20.41,73.79,7.124,65.8,6.465,9.121,1.756,-24.36,-21.57,-17.11,0,0,0,0,0,0,0,0,0,0,0,0,0,0,0,0,
344,15.4,-50.55,-3.183,25.33,-54.63,3.079,37.04,70.51,9.037,56.32,19.91,21.43,-10.03,-43.43,-18.52,-13.78,0,0,0,0,0,0,0,0,0,0,0,0,0,0,0,0,
345,15.09,-44.07,-4.467,32.2,-56.6,15.12,32.08,59.01,23.66,51.28,25.38,25.76,-8.185,-52.84,-8.321,-11.48,0,0,0,0,0,0,0,0,0,0,0,0,0,0,0,0,
346,20.9,-47.1,-2.763,22.93,-26.88,-13.03,6.466,46.9,11.83,44.17,32.21,29.75,15.6,-34.18,8.708,-6.176,0,0,0,0,0,0,0,0,0,0,0,0,0,0,0,0,
347,16.67,-51.78,-1.582,-21.11,-46.41,-50.9,-22.26,25.23,-27.57,37.14,37.03,37.02,33.99,-12.03,26.91,6.417,0,0,0,0,0,0,0,0,0,0,0,0,0,0,0,0,
348,4.247,-38.61,-2.875,-38.53,-59.4,-34.92,-32.48,5.084,-13.53,34.65,37.94,40.43,39.3,-8.338,38.05,17.74,0,0,0,0,0,0,0,0,0,0,0,0,0,0,0,0,
349,9.88,-22.71,-3.097,-24.44,-23.05,-9.95,-26,7.435,22.04,34.12,40.45,36.92,40.6,-7.565,39.79,19.2,0,0,0,0,0,0,0,0,0,0,0,0,0,0,0,0,
350,21.58,-28.54,-1.38,-19.88,-41.96,-10.35,-30.98,16.43,2.697,30.42,18.95,14.37,21.43,-11.37,25.35,9.493,0,0,0,0,0,0,0,0,0,0,0,0,0,0,0,0,
351,10.73,-50.14,-0.6397,-41.93,-84.94,-5.09,-44.68,9.657,-30.31,19.48,-13.81,-14.64,-6.614,-31.74,-1.303,-8.601,0,0,0,0,0,0,0,0,0,0,0,0,0,0,0,0,
352,3.325,-58.26,-1.469,-50.67,-53.17,-3.118,-36.75,1.976,-26.33,11.55,-8.761,-15.9,-10.13,-43.51,-15.73,-23.23,0,0,0,0,0,0,0,0,0,0,0,0,0,0,0,0,
353,14.42,-49.67,-1.724,-19.87,-29.58,-15.36,-20.57,7.376,-5.683,16.73,4.198,-9.931,-5.36,-38.08,-14.79,-28.21,0,0,0,0,0,0,0,0,0,0,0,0,0,0,0,0,
354,6.417,-55.63,-0.2253,-0.1026,-45.45,-14.95,-30.12,21.31,-6.365,26.22,-10.92,-29.33,-15.01,-40.53,-20.83,-35.44,0,0,0,0,0,0,0,0,0,0,0,0,0,0,0,0,
355,-15.64,-79.54,1.198,-8.352,-26.69,-11.02,-54.26,35.19,-30.14,37.48,-17.64,-46.73,-26.84,-42.18,-35.12,-47.47,0,0,0,0,0,0,0,0,0,0,0,0,0,0,0,0,
356,-14.98,-84.18,1.819,-12.51,-10.65,-18.58,-53.62,39.94,-31.07,58.68,-6.165,-37.2,-26.49,-23.06,-37.64,-44.26,0,0,0,0,0,0,0,0,0,0,0,0,0,0,0,0,
357,-1.672,-57.35,3.166,-2.321,0.0601,-14.12,-16.67,50.24,6.988,81.87,5.457,-20.08,-10.7,-1.946,-21.89,-18.47,0,0,0,0,0,0,0,0,0,0,0,0,0,0,0,0,
358,16.97,-31.3,2.134,34.11,64.97,15.2,24.02,74.93,46.82,92.28,27.29,-5.567,10.73,10.73,2.726,9.185,0,0,0,0,0,0,0,0,0,0,0,0,0,0,0,0,
359,64.13,-18.54,-3.282,68.16,99.88,56.13,47.24,80.47,65.48,92.54,59.41,27.47,37.67,34.88,36.11,32.34,0,0,0,0,0,0,0,0,0,0,0,0,0,0,0,0,
360,125.7,10.1,-7.394,54.31,61.38,76.32,66.93,63.59,65.49,96.73,85.11,72.64,74.84,60.38,79.99,65.53,0,0,0,0,0,0,0,0,0,0,0,0,0,0,0,0,
361,160.5,48.7,-9.275,37.37,62.99,75.23,79.98,63.09,69.5,106.8,89.29,83.6,86.11,51.1,102.8,88.96,0,0,0,0,0,0,0,0,0,0,0,0,0,0,0,0,
362,171.8,55.91,-11.8,57.02,108.2,110.8,83.46,73.21,86.6,108.2,69.02,63.47,60.56,19.58,78.03,69.45,0,0,0,0,0,0,0,0,0,0,0,0,0,0,0,0,
363,176.2,44.05,-11.6,72.46,114.6,161.1,93.53,61.57,76.08,93.06,45.24,51.04,43.93,4.973,40.7,30.04,0,0,0,0,0,0,0,0,0,0,0,0,0,0,0,0,
364,150.2,37.16,-9.09,57.71,97.3,138.5,87.65,31.05,38.98,66.23,27.17,36.58,31.28,3.307,26.09,10.08,0,0,0,0,0,0,0,0,0,0,0,0,0,0,0,0,
365,104.2,12,-7.954,25.62,73.57,80.57,45.26,-2.413,33.56,40.49,11.77,20.33,3.073,1.932,21.39,8.996,0,0,0,0,0,0,0,0,0,0,0,0,0,0,0,0,
366,92.67,-14.35,-6.068,-3.505,48.45,62.99,5.009,-29.42,48.73,37.86,11.87,25.78,1.036,11.11,21.37,17.26,0,0,0,0,0,0,0,0,0,0,0,0,0,0,0,0,
367,97.72,4.322,-4.007,-17.39,55.41,56.19,-5.956,-36.7,31.7,53.06,17,21.79,19.18,18.47,27.23,25.36,0,0,0,0,0,0,0,0,0,0,0,0,0,0,0,0,
368,70.02,30.24,-3.535,-24.24,42.43,34.27,-7.283,-26.78,-2.984,50.51,1.433,-8.467,4.11,3.126,14.37,15.84,0,0,0,0,0,0,0,0,0,0,0,0,0,0,0,0,
369,37.44,15.29,-1.574,-26.84,-15.76,19.77,-17.49,-19.66,-15.35,35.49,-17.66,-22.84,-16.98,-12.17,-16.47,-1.017,0,0,0,0,0,0,0,0,0,0,0,0,0,0,0,0,
370,30.23,-3.094,0.3679,-19.41,-11.9,11.52,-31.78,-21.17,-7.064,34.34,-15.2,-15.63,-6.421,-6.907,-28.52,1.123,0,0,0,0,0,0,0,0,0,0,0,0,0,0,0,0,
371,24.73,-5.73,-0.3218,-16.41,28.47,-0.4956,-45.27,-35.66,-0.0044,27.11,-0.6386,-8.965,-1.615,-7.347,-11.48,16.09,0,0,0,0,0,0,0,0,0,0,0,0,0,0,0,0,
372,14.94,-25.79,-0.32,-35.93,-14.97,-6.704,-63.85,-65.09,-7.949,6.477,13.14,7.38,-8.319,-15.54,17.04,27.27,0,0,0,0,0,0,0,0,0,0,0,0,0,0,0,0,
373,19.5,-42.46,0.647,-59.05,-47.72,-10.03,-72.18,-76.16,-26.07,7.995,19.27,30.66,10.61,1.787,44.57,41.55,0,0,0,0,0,0,0,0,0,0,0,0,0,0,0,0,
374,30.9,-23.35,0.3725,-52.52,8.077,-19.69,-51.3,-58.7,-27.72,30.09,12.04,35.29,32.6,26.01,59.76,61.76,0,0,0,0,0,0,0,0,0,0,0,0,0,0,0,0,
375,27.58,-4.282,-0.1726,-35.13,1.922,-5.452,-22.85,-49.72,-4.256,40.99,2.781,25.47,27.17,22.83,55.46,71.42,0,0,0,0,0,0,0,0,0,0,0,0,0,0,0,0,
376,11.63,-6.666,-1.006,-34.22,-79.69,32.86,-11.59,-41.11,16.56,42.71,1.405,17.56,19.04,12.64,42.8,64.72,0,0,0,0,0,0,0,0,0,0,0,0,0,0,0,0,
377,5.645,-5.033,-2.295,-13.44,-69.57,32.24,-11.1,-6.718,25.84,53.77,8.142,18.65,30.77,17.01,43.59,58.53,0,0,0,0,0,0,0,0,0,0,0,0,0,0,0,0,
378,24.79,17.25,-3.252,35.96,15.39,14.91,4.011,21.84,39.68,76.28,32.15,44.7,62.77,33.84,69.97,67.81,0,0,0,0,0,0,0,0,0,0,0,0,0,0,0,0,
379,53.68,55.08,-5.784,60.31,59.98,42.97,42.14,23.96,53.69,94.03,59.3,80.27,90.56,51.07,102.8,82.64,0,0,0,0,0,0,0,0,0,0,0,0,0,0,0,0,
380,64.45,70.25,-9.692,51.79,66.22,60.11,59.87,18.79,56.5,90.04,62.5,85.29,85.23,50.88,108.5,84.52,0,0,0,0,0,0,0,0,0,0,0,0,0,0,0,0,
381,64.26,47.8,-10.53,27.85,35.57,37.35,41.33,12.9,50.05,77.5,59.02,80.19,80.97,51.54,91.73,80.23,0,0,0,0,0,0,0,0,0,0,0,0,0,0,0,0,
382,70,46.35,-8.625,-1.26,-19.83,42.63,42.33,13.18,47.55,80.31,62.05,95.08,105.4,70.01,81.49,83.5,0,0,0,0,0,0,0,0,0,0,0,0,0,0,0,0,
383,70.41,78.71,-8.815,13,-12.75,74.76,69.73,29.41,64.71,92.73,58.25,104.2,116.8,76.97,80.19,82.66,0,0,0,0,0,0,0,0,0,0,0,0,0,0,0,0,
384,75.79,92.15,-11.24,64.75,49.76,89.14,80.72,43.84,87.82,101,63.58,103,111.1,69.33,79.09,68.83,0,0,0,0,0,0,0,0,0,0,0,0,0,0,0,0,
385,100.3,91.75,-13.03,85.46,84.77,86.47,85.83,41.72,97.83,103.5,78.53,105.6,113.9,62.49,79.72,51.53,0,0,0,0,0,0,0,0,0,0,0,0,0,0,0,0,
386,109.6,99.62,-13.22,83.6,89.03,76.3,99.31,39.58,103.9,97.34,75.96,99.6,106.9,48.16,80.09,34.44,0,0,0,0,0,0,0,0,0,0,0,0,0,0,0,0,
387,97.59,99.53,-11.81,78.74,73.96,71.21,97.57,46.92,102.2,85.44,73.38,99.1,98.42,42.43,87.82,26.81,0,0,0,0,0,0,0,0,0,0,0,0,0,0,0,0,
388,97.94,98.67,-10.49,60.06,43.19,72.48,86.92,49.63,93.01,73.39,83.39,114.2,110.4,52.03,112,41.23,0,0,0,0,0,0,0,0,0,0,0,0,0,0,0,0,
389,103.4,107.6,-10.58,65.15,34.2,64.6,92.31,45.19,99.49,64.04,78.64,108.4,110.2,48.3,128.8,57.74,0,0,0,0,0,0,0,0,0,0,0,0,0,0,0,0,
390,108.1,110.1,-10.61,72.77,46.85,61.43,93.82,42.69,99.24,65.89,63.84,86.94,89.75,38.04,116.7,52,0,0,0,0,0,0,0,0,0,0,0,0,0,0,0,0,
391,121.7,100.7,-10.42,36.46,60.89,65.24,65.05,45.62,71.04,68.24,54.73,81.79,80.32,37.11,93.58,37.1,0,0,0,0,0,0,0,0,0,0,0,0,0,0,0,0,
392,106.2,79.92,-9.856,27.25,67.79,31.61,35.69,61.37,55.07,53.07,40.08,69.74,75.39,35.69,79.94,33.69,0,0,0,0,0,0,0,0,0,0,0,0,0,0,0,0,
393,52.82,54.41,-7.107,50.31,28.07,-29.54,33.41,74.57,51.75,41.2,25.76,41.53,64.38,40.47,74.13,42.96,0,0,0,0,0,0,0,0,0,0,0,0,0,0,0,0,
394,24.83,43.11,-4.048,26.25,-34.32,-39.11,28.7,52.63,36.95,44.38,20.58,30.71,65.67,54.16,70.29,58.46,0,0,0,0,0,0,0,0,0,0,0,0,0,0,0,0,
395,28.54,42.65,-3.235,-3.413,-26.93,-4.875,13.83,26.89,43.15,44.83,17.13,39.48,86.14,70.24,70.27,78.64,0,0,0,0,0,0,0,0,0,0,0,0,0,0,0,0,
396,27.12,46.59,-3.553,1.149,25.75,-8.699,22.65,44.84,60.42,53.43,29.5,55.68,114.4,96.77,83.68,108.6,0,0,0,0,0,0,0,0,0,0,0,0,0,0,0,0,
397,47.29,61.55,-4.888,4.773,39.09,-19.12,41.94,65.42,41.28,69.6,53.62,70.54,127.7,114,105.1,137.8,0,0,0,0,0,0,0,0,0,0,0,0,0,0,0,0,
398,88.2,70.99,-7.092,16.6,32.97,27.05,44.65,54.95,21.35,66.59,49.73,66.01,119,103,108.4,139.7,0,0,0,0,0,0,0,0,0,0,0,0,0,0,0,0,
399,97.8,74.39,-7.807,34.21,36.83,55.83,54.1,60.63,42.37,64.48,37.91,69.97,123.9,98.49,97.01,123.2,0,0,0,0,0,0,0,0,0,0,0,0,0,0,0,0,
400,101.5,97.21,-7.754,42.45,30.05,30.3,71.5,87.96,73.93,75.76,60.89,110.6,145.1,108.4,104.3,123.3,0,0,0,0,0,0,0,0,0,0,0,0,0,0,0,0,
401,131.4,115.8,-9.832,52.48,32.03,40.05,70.7,91.22,83.48,72.85,85.33,138.2,139.2,100,127.7,133.5,0,0,0,0,0,0,0,0,0,0,0,0,0,0,0,0,
402,151,111.6,-12.55,48.4,62.22,82.93,76.88,83.46,79.29,71.7,91.78,132.7,122,87.91,140.6,128.2,0,0,0,0,0,0,0,0,0,0,0,0,0,0,0,0,
403,161.8,120.4,-12.65,51.32,84.39,82.63,106.9,95.17,89.86,85.13,104.8,130.8,126.9,93.4,144.4,117.7,0,0,0,0,0,0,0,0,0,0,0,0,0,0,0,0,
404,168.7,128.5,-12.01,75.02,78.54,63.29,113.4,106.3,97.39,79.99,99.73,116.6,122.7,90.74,141.4,115.1,0,0,0,0,0,0,0,0,0,0,0,0,0,0,0,0,
405,134.1,102.3,-12.62,52.2,62.38,64.48,84.48,97.47,65.99,65.16,68.25,85.19,102.5,77.88,118.5,107.8,0,0,0,0,0,0,0,0,0,0,0,0,0,0,0,0,
406,93.4,89.18,-11.15,17.87,51.03,62.33,68.28,81.12,45.12,66.39,57.52,83.35,100.4,79.96,92.1,92.23,0,0,0,0,0,0,0,0,0,0,0,0,0,0,0,0,
407,96.96,109.6,-7.936,37,51.65,47,69.93,74.67,56.01,65.15,63.09,92.58,99.03,81.57,87.88,74.62,0,0,0,0,0,0,0,0,0,0,0,0,0,0,0,0,
408,103.5,109.2,-7.538,18.55,51.09,32.64,59.28,77.17,37.2,53.31,54.69,71.57,77.5,63.73,89.11,49.74,0,0,0,0,0,0,0,0,0,0,0,0,0,0,0,0,
409,94.29,90.33,-8.151,-31.53,29.5,34.32,50.23,76.74,20.02,44.22,46.07,55.21,69.9,51.26,74.45,23.4,0,0,0,0,0,0,0,0,0,0,0,0,0,0,0,0,
410,92.55,92.44,-7.314,7.043,15.74,44.41,53.11,74.78,43.41,38.67,41.68,61.22,82.16,53.01,56.5,14.94,0,0,0,0,0,0,0,0,0,0,0,0,0,0,0,0,
411,72.88,91.46,-6.792,58.8,34,23.54,39.4,68.52,40.82,33.68,37.7,62.06,84.42,48.1,50.19,23.96,0,0,0,0,0,0,0,0,0,0,0,0,0,0,0,0,
412,42.49,74.59,-5.183,34.06,28.75,-8.496,26,52.02,21.96,28.03,52.12,68.69,86.82,47.91,57.66,39.15,0,0,0,0,0,0,0,0,0,0,0,0,0,0,0,0,
413,55.13,81.38,-3.338,24.21,-5.051,6.392,48.28,52.17,32.16,24.5,72.43,83.47,94.99,62.67,71.32,55.77,0,0,0,0,0,0,0,0,0,0,0,0,0,0,0,0,
414,81.7,107.4,-5.52,44.12,16.97,36.49,75.75,72.63,32.79,28.68,74.21,82.65,84.36,65.46,73.61,64.22,0,0,0,0,0,0,0,0,0,0,0,0,0,0,0,0,
415,76.11,117.8,-7.923,37.05,60.74,41.07,84.93,72.54,44.01,34.39,78.99,85.14,71.94,58.31,67.44,60.67,0,0,0,0,0,0,0,0,0,0,0,0,0,0,0,0,
416,80.55,118.6,-7.175,52.65,45.43,58.67,94.31,61.32,93.14,34,94.34,91.25,78.26,62.29,71.98,53.71,0,0,0,0,0,0,0,0,0,0,0,0,0,0,0,0,
417,114.1,122.8,-7.984,83.15,38.46,92.32,99.99,64.92,104.1,35.31,91.9,71.16,82.18,66.25,80.56,47.53,0,0,0,0,0,0,0,0,0,0,0,0,0,0,0,0,
418,121.4,121.9,-9.482,46.75,62.28,85.86,92.48,56.84,65.61,44.97,76.27,50.8,80.74,64.5,78.96,46.04,0,0,0,0,0,0,0,0,0,0,0,0,0,0,0,0,
419,82.35,107.7,-7.423,3.588,48.79,44.54,77.98,44.22,40.58,47.77,66.79,46.71,75.71,61.19,70.35,49.75,0,0,0,0,0,0,0,0,0,0,0,0,0,0,0,0,
420,44.27,89.95,-5.193,26.29,44.83,34.98,63.5,55.56,33.79,35.1,63.78,37.95,58.81,52.89,57.92,46.15,0,0,0,0,0,0,0,0,0,0,0,0,0,0,0,0,
421,39.89,91.15,-4.94,31.93,80.63,57.71,60.54,57.08,43.38,32.24,71.05,40.06,53.24,50.43,49.12,34.53,0,0,0,0,0,0,0,0,0,0,0,0,0,0,0,0,
422,45.96,101.6,-4.261,-8.652,89.47,53.35,68.66,40.44,67.38,45.18,83.32,57.48,64.8,55.15,56.42,30.99,0,0,0,0,0,0,0,0,0,0,0,0,0,0,0,0,
423,54.81,96.9,-4.478,-8.372,75.45,38.88,76.08,42.57,69.92,43.35,89.2,67.54,63.83,53.7,72.53,38.64,0,0,0,0,0,0,0,0,0,0,0,0,0,0,0,0,
424,78.47,86.8,-6.364,14.09,62.78,52.63,71.59,43.08,57.24,30.05,85.86,69.04,52.69,50.86,76.82,44.61,0,0,0,0,0,0,0,0,0,0,0,0,0,0,0,0,
425,73.14,77.68,-6.45,-6.223,52.16,52.15,52.5,22.22,58.3,28.21,72.36,61.63,55.44,48.95,65.35,43.64,0,0,0,0,0,0,0,0,0,0,0,0,0,0,0,0,
426,35.52,69.18,-4.815,-11.49,70.27,32.76,42.86,12.69,56.63,22.56,69.36,57.73,67.91,40.24,55.11,43.82,0,0,0,0,0,0,0,0,0,0,0,0,0,0,0,0,
427,40.58,69.94,-4.412,12.25,89.26,38.16,43.41,10.36,45.34,6.14,84.19,69.35,66.92,31.79,56.08,46.07,0,0,0,0,0,0,0,0,0,0,0,0,0,0,0,0,
428,70.9,66.03,-4.488,-15.72,74.44,53.3,30.99,-0.8719,46.14,4.574,87.97,73.81,59.24,38.47,61.06,45.81,0,0,0,0,0,0,0,0,0,0,0,0,0,0,0,0,
429,68.11,62.73,-4.497,-51.82,65.01,65.02,33.95,6.092,60.63,17.95,86.37,71.74,69.69,56.24,67.89,50.85,0,0,0,0,0,0,0,0,0,0,0,0,0,0,0,0,
430,67.06,80.61,-6.303,-16.35,79.58,73.73,63.33,28.66,81.52,27.11,96.71,77.17,79.95,60.27,75.34,59.72,0,0,0,0,0,0,0,0,0,0,0,0,0,0,0,0,
431,86.72,95.33,-8.222,23.49,90.57,61.35,79.04,40.62,98.04,40.63,98.64,76.91,74.99,53.15,75.25,59.38,0,0,0,0,0,0,0,0,0,0,0,0,0,0,0,0,
432,102.4,101.9,-8.014,19.36,75.23,59.79,85.87,49.15,87.42,61.37,86.79,72.06,73.61,59.84,71.92,56.05,0,0,0,0,0,0,0,0,0,0,0,0,0,0,0,0,
433,112.8,112.8,-8.008,18.99,59.72,89.93,90.08,51.51,67.2,62.51,73.81,67.06,62.2,62.34,70.7,52.74,0,0,0,0,0,0,0,0,0,0,0,0,0,0,0,0,
434,104.7,97.5,-8.224,21.87,89.63,96.09,72.35,39.58,77.91,48.81,64.66,58.78,37.96,44.33,63.73,37.99,0,0,0,0,0,0,0,0,0,0,0,0,0,0,0,0,
435,81.16,65.6,-5.537,5.966,111.7,64.83,63.13,36.45,95.39,51.63,61.57,57.27,35.4,37.79,51.5,24,0,0,0,0,0,0,0,0,0,0,0,0,0,0,0,0,
436,83.34,63.71,-2.296,3.777,81.79,55.77,79.67,46.08,81.14,59.56,59.83,62.91,48.51,51.83,45.96,33.68,0,0,0,0,0,0,0,0,0,0,0,0,0,0,0,0,
437,107.5,78.1,-3.111,24.73,71.52,83.61,87.04,48.46,57.96,54.1,62.29,72.51,60.59,62.46,55.57,65.33,0,0,0,0,0,0,0,0,0,0,0,0,0,0,0,0,
438,113.3,80.49,-5.922,26.82,74.25,89.48,78.31,46.18,52.43,51.3,67.43,81.74,76.15,63.21,75.13,95.95,0,0,0,0,0,0,0,0,0,0,0,0,0,0,0,0,
439,103.3,78.89,-5.692,9.266,46.91,59.63,72.45,49.46,63.91,54.41,66.01,79.84,84.25,60.42,85.93,100.7,0,0,0,0,0,0,0,0,0,0,0,0,0,0,0,0,
440,107.4,84.93,-4.114,17.5,61.32,58.62,78.07,56.84,82.83,54.9,68.89,76.99,80.44,56.29,78.89,82.15,0,0,0,0,0,0,0,0,0,0,0,0,0,0,0,0,
441,117.3,92.98,-5.796,43.8,104.5,91.57,88.77,59.7,88.78,56.31,71.7,76.81,73.15,48.93,61.78,65.07,0,0,0,0,0,0,0,0,0,0,0,0,0,0,0,0,
442,112.9,88.52,-6.978,45.44,91.11,102.4,87.31,49.73,78.47,53,64.84,72.59,69.61,43.09,46.79,58.55,0,0,0,0,0,0,0,0,0,0,0,0,0,0,0,0,
443,114.5,78.33,-4.022,28.23,68.86,91.58,75.76,37.36,67.93,47.62,71.62,79.88,77.06,49.47,50.69,64.95,0,0,0,0,0,0,0,0,0,0,0,0,0,0,0,0,
444,123.2,77.71,-3.777,15.8,73.02,78.38,63,35.65,68.98,55.09,84.59,89.37,82.81,62.72,75.88,89.62,0,0,0,0,0,0,0,0,0,0,0,0,0,0,0,0,
445,104.7,71.27,-7.427,10.88,65.61,56.92,41.93,33.87,75.72,59.8,74.23,74.08,71.61,64.93,95.64,110.7,0,0,0,0,0,0,0,0,0,0,0,0,0,0,0,0,
446,63.57,44.45,-6.335,5.44,61.19,34.13,21.73,22.22,54.12,46.53,55.91,51.31,46.63,49.46,91.04,100.7,0,0,0,0,0,0,0,0,0,0,0,0,0,0,0,0,
447,26.72,15.58,-1.93,-3.73,55.49,17.01,19.19,11.37,21.3,35.68,45.46,39.77,17.98,29.49,71.65,72.65,0,0,0,0,0,0,0,0,0,0,0,0,0,0,0,0,
448,-1.018,4.324,-1.174,2.655,32.78,0.81,23.67,10.59,25.21,35.39,32.28,24.92,0.9553,20.18,47.15,47.73,0,0,0,0,0,0,0,0,0,0,0,0,0,0,0,0,
449,-13.94,4.608,-0.7647,16.27,22.51,-5.191,22.23,15.16,8.489,37.97,18.08,7.257,-3.936,20.19,20.34,25.15,0,0,0,0,0,0,0,0,0,0,0,0,0,0,0,0,
450,-3.282,2.315,2.141,0.9331,14.41,16.25,19.18,16.86,-36.63,43.5,12.45,5.558,-6.073,26.15,3.666,14.18,0,0,0,0,0,0,0,0,0,0,0,0,0,0,0,0,
451,20.23,0.6083,3.076,-23.45,21.24,41.15,16.18,12.28,5.476,36.22,10.06,11.97,-1.489,32.74,2.703,24.4,0,0,0,0,0,0,0,0,0,0,0,0,0,0,0,0,
452,30.99,5.959,2.24,-28.14,70.35,27.27,18.52,10.08,80.24,15.99,4.504,12.43,7.516,30.2,3.44,35.76,0,0,0,0,0,0,0,0,0,0,0,0,0,0,0,0,
453,31.79,13.74,2.521,-14.65,86.02,14.01,40.22,28.28,62.87,18.41,6.112,23.01,21.24,29.55,2.355,39.87,0,0,0,0,0,0,0,0,0,0,0,0,0,0,0,0,
454,50.12,24.75,1.238,26.2,67.3,48.99,66.11,57.99,40.89,41.57,15.65,41.85,43.45,38.66,9.95,52.35,0,0,0,0,0,0,0,0,0,0,0,0,0,0,0,0,
455,70.12,36.78,-2.078,54.28,89.06,72.86,65.08,62.46,67.66,52.51,14.79,40.43,47.95,39.22,19.49,63.48,0,0,0,0,0,0,0,0,0,0,0,0,0,0,0,0,
456,65.78,30.91,-4.011,30.74,98.46,57.99,47.5,45.24,63.25,46.15,4.729,24.04,20.63,23.39,17.5,51.1,0,0,0,0,0,0,0,0,0,0,0,0,0,0,0,0,
457,58.31,4.91,-4.738,12.47,92.22,64.21,35.45,39.99,52.77,26.86,6.091,16.29,-6.713,5.703,13.56,25.48,0,0,0,0,0,0,0,0,0,0,0,0,0,0,0,0,
458,51,-14.08,-3.992,7.158,112.4,74.33,20.31,35.37,56.37,6.968,20.1,18.67,-17.79,3.224,23.97,11.34,0,0,0,0,0,0,0,0,0,0,0,0,0,0,0,0,
459,24.91,-22.69,-0.2108,-27.68,62.14,31.22,-1.911,17.44,11.12,2.633,20.54,11.15,-35.43,6.981,36.15,8.399,0,0,0,0,0,0,0,0,0,0,0,0,0,0,0,0,
460,-1.977,-48.3,3.982,-35.65,-14.23,-17.52,-19.63,12.44,-32,0.4043,0.1582,-18.73,-59.66,-5.555,26.42,-0.4741,0,0,0,0,0,0,0,0,0,0,0,0,0,0,0,0,
461,-18.43,-76.78,6.522,-2.092,32.02,-20.28,-30.79,9.91,-11.11,-7.389,-5.946,-38.13,-60.01,-15.43,8.12,-9.785,0,0,0,0,0,0,0,0,0,0,0,0,0,0,0,0,
462,-40.4,-76.31,7.794,-12.76,89.21,-24.49,-42.82,-17.99,8.79,-12.38,9.792,-30.16,-49.73,-9.525,7.104,-2.949,0,0,0,0,0,0,0,0,0,0,0,0,0,0,0,0,
463,-65.34,-78.78,7.803,-50.76,55.25,-53.35,-63.69,-36.27,2.938,-23.4,18.12,-31.39,-60.67,-15.79,13.45,8.542,0,0,0,0,0,0,0,0,0,0,0,0,0,0,0,0,
464,-81.24,-106.3,7.829,-50.4,29.85,-54.16,-84.42,-30.08,10.08,-35.33,29.48,-32.84,-64.45,-21.05,15.67,13.02,0,0,0,0,0,0,0,0,0,0,0,0,0,0,0,0,
465,-73.85,-113.6,7.872,-43.66,37.48,-20.17,-83.26,-38.7,32.02,-31.28,58.48,-5.387,-42.31,-5.593,22.06,20.48,0,0,0,0,0,0,0,0,0,0,0,0,0,0,0,0,
466,-39.43,-95.34,6.943,-49.77,46.08,-4.569,-69.53,-45.82,48.17,-23.13,70.29,7.535,-32.79,-1.55,24.39,27.57,0,0,0,0,0,0,0,0,0,0,0,0,0,0,0,0,
467,-30.1,-95.75,6.366,-45.01,45.48,-27.17,-72.81,-25.14,23.01,-24.84,46.12,-17.89,-42.86,-11.21,12.34,24.08,0,0,0,0,0,0,0,0,0,0,0,0,0,0,0,0,
468,-71.61,-110.8,6.068,-47.27,2.813,-60.3,-82.37,-18.4,-31.1,-27.67,15.25,-36.98,-42.36,-14.9,-1.536,13.51,0,0,0,0,0,0,0,0,0,0,0,0,0,0,0,0,
469,-94.16,-109.2,5.775,-57.44,-40.22,-76.65,-68.22,-30.26,-50.7,-17.55,-3.889,-37.7,-29.59,-23.96,-12.42,-4.709,0,0,0,0,0,0,0,0,0,0,0,0,0,0,0,0,
470,-74.97,-89.95,6.223,-51.71,-40.14,-73.35,-45.3,-24.53,-51.44,0.6776,-19.69,-39.75,-22.32,-30.07,-27.8,-26.58,0,0,0,0,0,0,0,0,0,0,0,0,0,0,0,0,
471,-59.44,-66.16,6.035,-48.89,-35.01,-47.65,-40.57,-20.48,-46.8,4.019,-22.91,-34.74,-26.31,-21.71,-42.85,-36.69,0,0,0,0,0,0,0,0,0,0,0,0,0,0,0,0,
472,-33.02,-53.64,5.748,-51.99,-14.9,-7.933,-41.97,-31.94,1.566,-4.44,-12.93,-27.67,-37.44,-23.43,-52.43,-38.4,0,0,0,0,0,0,0,0,0,0,0,0,0,0,0,0,
473,3.582,-63.62,5.959,-41.62,19.99,4.612,-40.28,-34.37,27.28,-2.261,-26.6,-43.77,-54.62,-38.84,-58.87,-45.88,0,0,0,0,0,0,0,0,0,0,0,0,0,0,0,0,
474,-5.681,-81.16,5.078,-39.39,7.247,-9.776,-50.06,-32.33,-12.94,5.404,-53.04,-63.77,-73.44,-47.21,-53.85,-55.25,0,0,0,0,0,0,0,0,0,0,0,0,0,0,0,0,
475,-42.57,-84.73,5.69,-46.18,-23.4,-13.33,-64.71,-33.44,-24.08,10.64,-47.46,-60.95,-79.2,-46.86,-33.91,-59.37,0,0,0,0,0,0,0,0,0,0,0,0,0,0,0,0,
476,-56.82,-77.58,7.6,-37.22,-5.972,-15.15,-64.76,-25.73,5.934,15.12,-31.91,-55.75,-68.25,-36.23,-19.38,-59.19,0,0,0,0,0,0,0,0,0,0,0,0,0,0,0,0,
477,-60.63,-75.37,6.351,-37.27,22.13,-19.77,-60.48,-14.94,8.216,8.908,-30.07,-59.54,-57.13,-14.53,-21.53,-49.54,0,0,0,0,0,0,0,0,0,0,0,0,0,0,0,0,
478,-69.71,-81.63,5.289,-44.86,17.39,-9.91,-63.74,-8.044,-0.9085,4.792,-19.29,-55.52,-54.8,2.062,-26.91,-25.04,0,0,0,0,0,0,0,0,0,0,0,0,0,0,0,0,
479,-71.37,-81.5,6.546,-13.66,11.6,-5.148,-55.2,-7.555,11.69,22.34,-3.188,-41.44,-45.42,14.36,-24.27,11.08,0,0,0,0,0,0,0,0,0,0,0,0,0,0,0,0,
480,-60.91,-69.7,5.492,20.82,19.69,-9.504,-37.75,-20.27,18.84,32.11,3.307,-25.39,-20.26,30.68,-10.43,54.56,0,0,0,0,0,0,0,0,0,0,0,0,0,0,0,0,
481,-47.52,-64.63,3.767,7.291,5.704,-5.004,-45.35,-30.23,3.337,15.29,11.22,-7.889,1.074,33.41,11.94,92.31,0,0,0,0,0,0,0,0,0,0,0,0,0,0,0,0,
482,-30.85,-65.94,3.881,-10.75,-17.8,-14.36,-69.8,-31.01,6.532,1.386,21.12,8.8,5.036,17.51,26.67,97.9,0,0,0,0,0,0,0,0,0,0,0,0,0,0,0,0,
483,-16.04,-66.88,3.1,-16.01,-8.95,-43.96,-86.72,-45.1,25.97,-3.168,13.6,7.115,-6.223,-0.0204,18.37,58.9,0,0,0,0,0,0,0,0,0,0,0,0,0,0,0,0,
484,-24.12,-82.65,2.792,-45.48,-10.35,-52.25,-100.3,-61.3,0.6995,-12.32,-8.325,-12.49,-20.85,-10.54,-4.705,2.209,0,0,0,0,0,0,0,0,0,0,0,0,0,0,0,0,
485,-34.37,-91.13,4.74,-67.14,-50.18,-39.75,-97.71,-58.63,-31.37,-17.61,-14.36,-12.23,-10.98,-3.384,-12.56,-21.47,0,0,0,0,0,0,0,0,0,0,0,0,0,0,0,0,
486,-22.56,-65.72,6.048,-44.02,-58.98,-37.43,-74.44,-52.65,-28.1,-13.94,-3.933,8.112,19.85,19.67,9.402,5.024,0,0,0,0,0,0,0,0,0,0,0,0,0,0,0,0,
487,-21.12,-41.35,5.52,-20.71,-34.73,-25.03,-57.45,-43.36,-42.17,-3.431,4.529,11.31,34.57,35.65,33.65,40.15,0,0,0,0,0,0,0,0,0,0,0,0,0,0,0,0,
488,-31.64,-30.37,3.875,-23.98,-37.97,-4.6,-49.55,-29.88,-45.86,10.29,10.17,-2.954,26.51,36.82,26.4,41.26,0,0,0,0,0,0,0,0,0,0,0,0,0,0,0,0,
489,-33.6,-19.82,2.678,-28.47,-37.12,-23.67,-47.8,-35.76,-20.93,14.27,-6.639,-28.88,1.524,24.79,-14.05,7.68,0,0,0,0,0,0,0,0,0,0,0,0,0,0,0,0,
490,-35.16,-31.14,4.621,-33.64,-11.01,-47.34,-50.45,-41.64,-33.63,18.62,-41.48,-61.57,-31.6,8.459,-64.06,-37.3,0,0,0,0,0,0,0,0,0,0,0,0,0,0,0,0,
491,-16.44,-47.91,7.599,-48.59,-6.634,-23.28,-37.04,-25.42,-22.61,37.32,-39.64,-68.03,-35.1,12.76,-89.22,-58.01,0,0,0,0,0,0,0,0,0,0,0,0,0,0,0,0,
492,13.45,-32.2,6.724,-42.08,-2.374,6.221,-23.99,-17.9,46.72,46.2,-7.269,-43.54,-3.53,33.65,-71.05,-31.03,0,0,0,0,0,0,0,0,0,0,0,0,0,0,0,0,
493,17.4,-8.127,3.236,-2.586,16.87,7.386,-30.4,-22.19,59.55,36.19,8.864,-12.91,19.44,42.99,-27.71,19.26,0,0,0,0,0,0,0,0,0,0,0,0,0,0,0,0,
494,26.16,-6.356,0.9209,14.47,-9.098,-8.449,-28.69,-21.44,24.51,27.61,15.52,13.41,19.17,39.36,13.47,52.99,0,0,0,0,0,0,0,0,0,0,0,0,0,0,0,0,
495,37.65,-21.14,0.0441,-9.458,-40.06,-23.95,-25.29,-30.94,13.87,18.69,25.96,26.88,14.51,34.17,40.35,62.94,0,0,0,0,0,0,0,0,0,0,0,0,0,0,0,0,
496,11.65,-39.26,0.6976,-18.85,0.7935,-16.25,-44.22,-44.21,3.172,6.956,30.81,25.21,9.21,27.25,47.86,60.53,0,0,0,0,0,0,0,0,0,0,0,0,0,0,0,0,
497,-13.09,-51.23,2.352,-8.567,36.38,-10.89,-60.47,-44.15,-1.632,5.572,28.45,16.61,0.2218,16.58,37.22,50.98,0,0,0,0,0,0,0,0,0,0,0,0,0,0,0,0,
498,-10.21,-51.16,2.082,-17.35,7.122,-30.39,-59.65,-43.13,10.42,9.328,26.62,8.096,1.408,7.305,19.04,35.85,0,0,0,0,0,0,0,0,0,0,0,0,0,0,0,0,
499,-8.116,-36.96,0.7712,-34.54,-9.208,-31.41,-57.25,-43.06,10.72,5.999,30.12,3.96,14.4,4.749,5.811,21.65,0,0,0,0,0,0,0,0,0,0,0,0,0,0,0,0,
500,-14.04,-29.48,1.687,-39.53,13.04,-16.54,-55.26,-34.71,12.23,0.4869,25.3,-2.039,17.51,2.913,4.75,19.27,0,0,0,0,0,0,0,0,0,0,0,0,0,0,0,0,
501,-24.82,-46.64,2.744,-28.51,18.3,-28.93,-50.93,-22.76,17.44,-1.881,4.809,-11.02,11.69,-3.188,11.58,28.78,0,0,0,0,0,0,0,0,0,0,0,0,0,0,0,0,
502,-28.84,-59.08,1.776,-14.64,2.306,-48.25,-48.84,-22.04,8.244,-9.758,-11.88,-15.22,13.24,-5.127,14.05,35.48,0,0,0,0,0,0,0,0,0,0,0,0,0,0,0,0,
503,-21.09,-51.03,1.325,-30.49,6.921,-40.92,-50.31,-37.26,6.324,-23.72,-13.44,-15.93,16.2,1.843,10.17,31.54,0,0,0,0,0,0,0,0,0,0,0,0,0,0,0,0,
504,-21.18,-45.78,2.115,-48.28,41.49,-19.64,-49.45,-43.89,12.81,-27.91,-7.268,-14.7,9.597,2.792,5.764,18.76,0,0,0,0,0,0,0,0,0,0,0,0,0,0,0,0,
505,-24.84,-46.76,2.788,-26.7,55.05,-7.634,-47.94,-39.37,-6.31,-29.25,-8.633,-18.64,-8.741,-16.06,-5.681,-6.362,0,0,0,0,0,0,0,0,0,0,0,0,0,0,0,0,
506,-21.98,-48.23,3.41,-8.084,24.32,-2.446,-51.74,-46.9,-32.81,-40.77,-18.38,-25.82,-26.73,-30.57,-23.59,-34.54,0,0,0,0,0,0,0,0,0,0,0,0,0,0,0,0,
507,-19.63,-47.67,3.51,-8.681,16.46,7.034,-48.06,-41.35,-17.03,-37.57,-8.122,-14.29,-28.26,-17.77,-22.76,-37.99,0,0,0,0,0,0,0,0,0,0,0,0,0,0,0,0,
508,-15.75,-40.28,3.223,-4.401,32.74,13.84,-41.13,-16.97,5.503,-21.98,12.06,-6.336,-29.87,-11.19,-2.85,-18.48,0,0,0,0,0,0,0,0,0,0,0,0,0,0,0,0,
509,-23.69,-40.3,3.794,-15.42,-10.87,10.63,-51.86,-24.24,-25.86,-33.38,-5.128,-34.25,-43.41,-31.56,-1.754,-11.55,0,0,0,0,0,0,0,0,0,0,0,0,0,0,0,0,
510,-47.78,-43.64,4.667,-24.75,-54.2,-4.138,-51.59,-44.05,-50.2,-48.8,-35.56,-53.98,-43.25,-44.81,-25.93,-26.44,0,0,0,0,0,0,0,0,0,0,0,0,0,0,0,0,
511,-51.38,-27.41,5.015,-8.937,-9.341,-25.4,-28.02,-33.28,-21.33,-31.44,-31.19,-38.02,-30.19,-41.84,-44.45,-40.37,0,0,0,0,0,0,0,0,0,0,0,0,0,0,0,0,
512,-33.7,-14.18,4.546,-18.14,9.449,-35.45,-35.55,-31.36,-14.8,-16.6,-23.68,-32.44,-33,-44.01,-51.94,-45.01,0,0,0,0,0,0,0,0,0,0,0,0,0,0,0,0,
513,-29.18,-26.37,3.758,-41.33,-35.06,-25.85,-64.76,-52.2,-24.3,-26.3,-36.51,-43.42,-44.85,-45.87,-60.61,-46.92,0,0,0,0,0,0,0,0,0,0,0,0,0,0,0,0,
514,-26.55,-33.31,4.588,-18.16,-8.506,4.758,-50.32,-49.72,13.8,-29.65,-29.31,-28.1,-34.7,-30.49,-58.47,-37.59,0,0,0,0,0,0,0,0,0,0,0,0,0,0,0,0,
515,-5.647,-13.93,4.745,16.57,39.42,34,-11.08,-28.18,39.61,-15.77,-2.283,5.138,-1.094,-3.071,-32.25,-5.16,0,0,0,0,0,0,0,0,0,0,0,0,0,0,0,0,
516,9.742,12.56,1.187,19.97,6.601,29.47,6.478,-18.9,16.5,-0.9056,-0.2063,13.4,22.29,15.49,-0.5361,33.26,0,0,0,0,0,0,0,0,0,0,0,0,0,0,0,0,
517,7.315,29.58,-1.021,18.17,-2.787,29.32,13.97,-12.65,-2.013,4.436,-16.41,3.198,24.37,21.27,10.52,49.72,0,0,0,0,0,0,0,0,0,0,0,0,0,0,0,0,
518,11.86,39.17,0.0414,23.92,37.3,52.12,19.16,-5.121,-9.96,0.8636,-13.02,8.388,28.25,26.11,2.29,43.75,0,0,0,0,0,0,0,0,0,0,0,0,0,0,0,0,
519,26.34,38.88,-1.448,23.6,46.67,41.15,12.33,-15.56,-4.387,-9.049,5.673,16.3,24.34,17.17,-12.94,22.79,0,0,0,0,0,0,0,0,0,0,0,0,0,0,0,0,
520,29.05,21.01,-3.462,18.1,67.68,24.23,4.994,-31.69,24.59,-27.94,12.17,3.449,-5.942,-14.79,-36.95,-18.16,0,0,0,0,0,0,0,0,0,0,0,0,0,0,0,0,
521,31.76,1.082,-1.09,24.84,100.3,49.6,6.837,-27.48,30.72,-44.04,10.57,-2.204,-28.09,-37.24,-59.47,-61.66,0,0,0,0,0,0,0,0,0,0,0,0,0,0,0,0,
522,52.42,1.852,0.6611,41.96,79.89,60.72,10.49,-22.14,13.08,-40.09,15.95,15.16,-21.42,-35.71,-53.81,-72.24,0,0,0,0,0,0,0,0,0,0,0,0,0,0,0,0,
523,58.63,13.17,-1.001,37.46,55.29,39.68,12.04,-34.66,12.8,-29.66,14.11,25.19,-11.31,-32.41,-24.16,-48.27,0,0,0,0,0,0,0,0,0,0,0,0,0,0,0,0,
524,31.69,15.31,-0.884,15.63,51.61,17.65,7.791,-42.34,8.813,-29.86,4.569,28.39,-0.576,-27.8,2.31,-13.26,0,0,0,0,0,0,0,0,0,0,0,0,0,0,0,0,
525,9.91,7.337,1.365,0.4661,18.54,-14.56,-17.44,-43.57,-12.77,-36.61,11.95,37.62,14.53,-13.81,20.02,20.95,0,0,0,0,0,0,0,0,0,0,0,0,0,0,0,0,
526,3.877,-8.036,1.782,-24.07,-21.2,-44.77,-54.84,-55.13,-16,-43.76,28.08,30.12,15.61,-3.703,32.05,45.85,0,0,0,0,0,0,0,0,0,0,0,0,0,0,0,0,
527,-7.492,-19.04,1.192,-41.78,-23.03,-57.49,-61.58,-56.31,0.9926,-38.89,37.19,14.36,10.46,-0.9728,32.75,50.06,0,0,0,0,0,0,0,0,0,0,0,0,0,0,0,0,
528,-11.67,-12.66,1.958,-31.47,-6.837,-65.82,-47.05,-45.19,1.788,-25.09,43.12,13.23,10.74,-3.766,20.72,33.31,0,0,0,0,0,0,0,0,0,0,0,0,0,0,0,0,
529,-8.144,-11.11,3.848,-41.67,-1.184,-64,-60.83,-58.32,-12.1,-32.5,35.75,1.21,-6.392,-19.6,-1.157,3.969,0,0,0,0,0,0,0,0,0,0,0,0,0,0,0,0,
530,-17.96,-33.21,5.828,-64.36,4.437,-58.16,-75.47,-79.23,-5.945,-51.64,13.76,-25.32,-36.29,-32.87,-27.47,-24.9,0,0,0,0,0,0,0,0,0,0,0,0,0,0,0,0,
531,-21.68,-46.51,6.124,-52.69,15.01,-59.28,-57.66,-71.06,2.688,-49.2,-10.86,-39.61,-39.66,-23.36,-48.84,-36,0,0,0,0,0,0,0,0,0,0,0,0,0,0,0,0,
532,-6.424,-25.95,5.128,-47.91,3.991,-51.4,-49.76,-60.46,-17.1,-40.25,-30,-41.18,-13.34,-4.742,-55.3,-24.46,0,0,0,0,0,0,0,0,0,0,0,0,0,0,0,0,
533,6.722,6.229,5.532,-61.56,-10.3,-39.37,-45.37,-61.26,-16.96,-37.54,-18.62,-21.95,16.48,11.29,-36.05,-2.707,0,0,0,0,0,0,0,0,0,0,0,0,0,0,0,0,
534,28.46,30.65,4.952,-49.1,10.95,-26.84,-5.918,-44.11,22.56,-24.86,15.78,16.38,33.68,26.44,2.627,17.72,0,0,0,0,0,0,0,0,0,0,0,0,0,0,0,0,
535,65.37,45.73,0.9137,-22.91,34.14,-5.17,20.17,-26.13,33.59,-17.91,25.66,34.06,26.21,25.19,26.97,28.34,0,0,0,0,0,0,0,0,0,0,0,0,0,0,0,0,
536,72.07,39.25,-1.179,-9.373,29.83,-5.049,2.786,-34.19,12.28,-31.52,14.3,25.98,-2.885,4.814,18.39,20.39,0,0,0,0,0,0,0,0,0,0,0,0,0,0,0,0,
537,48.23,12.63,0.865,-19.39,26.38,-22.01,-5.794,-38.86,12.69,-38.65,11.45,22.79,-15.09,-2.213,4.681,5.352,0,0,0,0,0,0,0,0,0,0,0,0,0,0,0,0,
538,51.29,3.499,1.151,-34.73,39.23,-6.658,10.83,-25.67,25.59,-27.91,14.97,31.55,14.12,18.26,17.46,11.83,0,0,0,0,0,0,0,0,0,0,0,0,0,0,0,0,
539,68.29,26.54,-1.918,-4.953,58.42,14.24,24.44,-15.44,32.67,-15.14,24.03,48.79,51.97,42.12,47.64,44.37,0,0,0,0,0,0,0,0,0,0,0,0,0,0,0,0,
540,65.63,55.14,-3.872,37.53,75.4,18.43,37.76,-3.397,46.65,-5.282,41.2,75.25,73.03,54.72,70.79,77,0,0,0,0,0,0,0,0,0,0,0,0,0,0,0,0,
541,88.52,81.4,-3.996,36.32,89.53,52.93,57.92,16.93,51.16,-0.757,50.07,93.07,87.52,57.94,79.26,84.83,0,0,0,0,0,0,0,0,0,0,0,0,0,0,0,0,
542,124.2,95.09,-5.549,28.76,87.41,81.68,53.22,21.43,36.8,-9.909,39.35,78.6,80.17,45.78,71.09,63.96,0,0,0,0,0,0,0,0,0,0,0,0,0,0,0,0,
543,96.78,66.99,-7.259,29.67,63.28,47.31,12.25,7.49,32.05,-29.39,25.28,46.65,40.85,24.34,51.97,35.64,0,0,0,0,0,0,0,0,0,0,0,0,0,0,0,0,
544,42.66,23.17,-4.897,13.3,66.16,7.091,-17.78,1.814,27.26,-42.91,13.91,22.31,1.783,9.429,32.9,17.57,0,0,0,0,0,0,0,0,0,0,0,0,0,0,0,0,
545,15.97,3.041,-0.2423,-2.097,92.4,-2.81,-14.56,3.414,0.76,-39.9,-10.04,-2.221,-23,0.2566,7.025,0.0238,0,0,0,0,0,0,0,0,0,0,0,0,0,0,0,0,
546,-0.433,-7.463,2.449,-9.934,70.19,-2.302,-2.515,0.9267,-2.092,-27.29,-17.33,-14.73,-29.19,3.989,-16.9,-12.62,0,0,0,0,0,0,0,0,0,0,0,0,0,0,0,0,
547,12.43,-6.186,2.866,-13.58,39.92,12.1,11.39,7.875,32.44,-17.39,11.61,1.95,-8.301,23.65,-9.211,-1.12,0,0,0,0,0,0,0,0,0,0,0,0,0,0,0,0,
548,45.29,14.66,1.565,9.092,68.42,25.38,23.66,24.35,42.57,-9.602,16.41,12.04,10.32,31.5,8.165,9.471,0,0,0,0,0,0,0,0,0,0,0,0,0,0,0,0,
549,43.74,27.18,-0.291,45.67,106.9,37.26,32.68,38.97,37.25,2.854,-4.596,10.16,13.07,26.45,-3.258,-8.732,0,0,0,0,0,0,0,0,0,0,0,0,0,0,0,0,
550,42.12,32.7,-1.219,67.01,120.9,56.98,52.14,52.1,61.37,9.857,5.31,21.65,17.22,28.91,-20.37,-27.19,0,0,0,0,0,0,0,0,0,0,0,0,0,0,0,0,
551,64.79,37.97,-2.253,74.35,106.7,46.19,57.58,46.61,62.3,-2.853,10.11,20.08,10.17,26.23,-17.16,-21.1,0,0,0,0,0,0,0,0,0,0,0,0,0,0,0,0,
552,61.43,28.39,-2.95,58.1,63.89,33.86,34.37,20.2,20.04,-16.55,-15.61,9.163,2.441,21.89,-3.714,0.3038,0,0,0,0,0,0,0,0,0,0,0,0,0,0,0,0,
553,51.27,34.43,-2.021,25.28,59.57,67.71,34.34,14.53,15.06,-8.601,-21.21,26.26,26.7,36.63,14.1,28.04,0,0,0,0,0,0,0,0,0,0,0,0,0,0,0,0,
554,76.96,70.66,-2.407,35.82,95.37,79.72,65.52,35.1,47.54,3.683,-15.37,37.88,45.95,45.43,23.29,40.46,0,0,0,0,0,0,0,0,0,0,0,0,0,0,0,0,
555,94.86,86.36,-4.524,82.29,86.16,50.51,73.97,40.89,44.74,7.868,-28.66,14.87,22.03,28.39,4.512,12.24,0,0,0,0,0,0,0,0,0,0,0,0,0,0,0,0,
556,67.05,68.45,-3.399,80.63,50.28,39.1,53.29,29.72,13.24,14.46,-41.92,-14.92,-12.76,10.83,-32.87,-40.5,0,0,0,0,0,0,0,0,0,0,0,0,0,0,0,0,
557,26.2,45.49,0.4554,43.43,42.12,33.02,34.81,28.1,0.174,11.5,-44.87,-32.73,-27.63,10.32,-64.29,-78.19,0,0,0,0,0,0,0,0,0,0,0,0,0,0,0,0,
558,20.17,33.51,1.371,38.94,46.14,36.78,32.95,25.63,15.2,-6.262,-30.07,-20.11,-18.65,23.8,-67.93,-78.59,0,0,0,0,0,0,0,0,0,0,0,0,0,0,0,0,
559,51.32,46.18,-0.7138,48.09,61.71,76.33,45.62,15.1,32.48,-12.62,-0.5849,16.48,1.092,40.27,-37.13,-46.37,0,0,0,0,0,0,0,0,0,0,0,0,0,0,0,0,
560,71.09,66.01,-2.405,48.04,82.4,87.42,57.32,30.77,23.04,-4.291,11.13,29.08,5.908,49.75,5.356,-3.086,0,0,0,0,0,0,0,0,0,0,0,0,0,0,0,0,
561,62.38,67.54,-3.34,58.19,76.05,54.81,57.6,53.98,17.83,2.904,13.97,25.84,10.81,59.76,38.66,38.39,0,0,0,0,0,0,0,0,0,0,0,0,0,0,0,0,
562,60.36,71.41,-4.074,56.71,61.23,45.91,49.94,29.77,41.33,10.3,24.28,34.83,36.11,68.2,56.79,72.15,0,0,0,0,0,0,0,0,0,0,0,0,0,0,0,0,
563,59.42,82.68,-4.548,33.02,56.61,43.6,40.8,9.516,35.21,21.24,11.91,28.43,46.32,61.38,47.86,81.22,0,0,0,0,0,0,0,0,0,0,0,0,0,0,0,0,
564,38.4,84.94,-4.569,39.07,28.52,22.98,37.83,45.39,0.441,35.35,-9.151,13.25,33.43,54.08,17.91,59.33,0,0,0,0,0,0,0,0,0,0,0,0,0,0,0,0,
565,28.89,87.83,-3.903,72.5,-20.35,30.05,36.44,66.07,-4.123,45.21,-2.359,16.33,25.43,54.33,-7.218,19.62,0,0,0,0,0,0,0,0,0,0,0,0,0,0,0,0,
566,40.26,86.42,-3.432,59.45,-30.32,48.93,33.57,50.33,-8.197,37.73,6.089,12.82,8.524,46.48,-21.42,-23.67,0,0,0,0,0,0,0,0,0,0,0,0,0,0,0,0,
567,50.68,78.2,-3.674,16.43,2.842,47.61,45.68,61.71,-11.71,26.27,6.527,6.337,-7.702,45.69,-21.79,-44.36,0,0,0,0,0,0,0,0,0,0,0,0,0,0,0,0,
568,67.5,87.75,-4.263,38.3,27.63,64.28,68.58,91.64,40.99,33.79,22.27,24.15,17.96,66.74,4.55,-17.79,0,0,0,0,0,0,0,0,0,0,0,0,0,0,0,0,
569,88.57,112.3,-5.524,111.5,60.08,97.57,89.41,108.6,91.83,55.1,46.22,55.75,62.69,90.11,48.24,40.54,0,0,0,0,0,0,0,0,0,0,0,0,0,0,0,0,
570,108.8,146.4,-7.609,151.5,120.2,123.4,121.1,124.4,98.76,76.26,82.97,98.08,96.03,112.3,91.05,100.2,0,0,0,0,0,0,0,0,0,0,0,0,0,0,0,0,
571,137,189.6,-10.94,155.8,141.8,157.3,154.8,136,131,90.19,133.5,136.4,126.6,130.1,126.7,145,0,0,0,0,0,0,0,0,0,0,0,0,0,0,0,0,
572,154,207.3,-15.08,160.6,126.6,181.7,170,144.1,179,96.21,161,140,136.6,123.7,141.9,153.8,0,0,0,0,0,0,0,0,0,0,0,0,0,0,0,0,
573,156.2,189.5,-17.15,164.4,130.9,174.5,166.5,154.2,175.8,100.9,156.7,117.1,103.1,101.7,123.4,111.8,0,0,0,0,0,0,0,0,0,0,0,0,0,0,0,0,
574,141.7,147,-16.21,144.9,105.7,135.5,122.5,137,126.9,94.66,120.8,67.89,40.53,72.47,68.47,30.81,0,0,0,0,0,0,0,0,0,0,0,0,0,0,0,0,
575,80.31,81.42,-12.58,97.63,44.93,72.11,56.05,89.01,73.8,65.4,54.33,6.95,-11.69,37.37,-11.02,-55.23,0,0,0,0,0,0,0,0,0,0,0,0,0,0,0,0,
576,29.96,45.92,-5.437,62.32,33.96,53.72,45.04,58.3,55.13,37.24,15.09,-5.304,-18.22,27.11,-71.84,-93.09,0,0,0,0,0,0,0,0,0,0,0,0,0,0,0,0,
577,48.78,64.36,0.8833,62.72,53.73,85.14,68.15,63.59,59.06,29.58,17.02,7.237,-5.092,41.18,-79.54,-55.07,0,0,0,0,0,0,0,0,0,0,0,0,0,0,0,0,
578,50.54,66.99,1.068,71.06,49.83,65.68,50.47,79.5,44.8,27.07,6.399,-10.99,-5.845,48.34,-55.2,17.68,0,0,0,0,0,0,0,0,0,0,0,0,0,0,0,0,
579,7.133,54.79,-0.7286,77.76,38.58,31.1,33.57,88.98,33.77,32.79,-2.646,-10.01,18.89,61.01,-24.89,71.52,0,0,0,0,0,0,0,0,0,0,0,0,0,0,0,0,
580,-0.5503,90.22,0.2017,80.79,27.7,55.71,64.88,89.25,34.16,58.32,17.72,32.02,71.43,79.04,7.332,88.78,0,0,0,0,0,0,0,0,0,0,0,0,0,0,0,0,
581,24.82,137.8,-0.9019,73.11,30.39,65.71,98.35,86.22,31.21,70.2,33.8,54.1,83.06,69.03,23.73,65.68,0,0,0,0,0,0,0,0,0,0,0,0,0,0,0,0,
582,49.9,144.8,-6.816,88.6,57.17,60.81,104.9,94.37,58.09,52.55,41.43,49.72,55.56,49.08,17.61,21.78,0,0,0,0,0,0,0,0,0,0,0,0,0,0,0,0,
583,69.71,130.1,-10.29,115.6,70.11,91.94,85.69,100.6,73.62,47.49,54.46,48.7,39.28,53.43,16.7,3.235,0,0,0,0,0,0,0,0,0,0,0,0,0,0,0,0,
584,56.87,106.7,-7.453,90.4,55.37,82.08,40.06,80.68,27.73,62.01,52.69,45.74,32.81,70.04,31.45,24.65,0,0,0,0,0,0,0,0,0,0,0,0,0,0,0,0,
585,36.57,84.88,-3.857,53.97,36.55,47.81,15.63,63.68,17.38,63.81,41.14,37.91,33.36,87.79,37.97,55.95,0,0,0,0,0,0,0,0,0,0,0,0,0,0,0,0,
586,49.75,94.28,-2.426,71.13,37.87,79.62,47.49,76.17,62.79,60.86,40.66,36.27,55.68,109.3,25.39,76.01,0,0,0,0,0,0,0,0,0,0,0,0,0,0,0,0,
587,59.69,121.6,-2.667,89,66.97,102.5,82.73,76.63,69.04,66.34,41.85,47.53,82.75,123.2,14.01,89.46,0,0,0,0,0,0,0,0,0,0,0,0,0,0,0,0,
588,62.27,137.5,-6.194,86.57,89.23,95.86,86.41,58.65,64.7,75.36,46.42,74.71,96.74,124.7,19.91,92.75,0,0,0,0,0,0,0,0,0,0,0,0,0,0,0,0,
589,89.9,153.4,-9.984,114.5,99.33,132.6,98.04,78.08,87.73,98.53,63.95,98.36,99.24,123.5,31.74,70.51,0,0,0,0,0,0,0,0,0,0,0,0,0,0,0,0,
590,103.7,168.8,-9.939,138,114.5,128.7,120.3,116.7,93.6,120.5,79.46,95.65,91.27,127.6,40.65,37.83,0,0,0,0,0,0,0,0,0,0,0,0,0,0,0,0,
591,87.94,161.2,-9.754,116.3,88.83,72.97,108.8,109.5,96.83,111.7,96.03,93.09,91.73,141.1,59.91,37.52,0,0,0,0,0,0,0,0,0,0,0,0,0,0,0,0,
592,93.91,146.2,-11.09,101.6,45.92,99.7,78.63,77.66,112.5,95.22,128.9,117.8,114.6,160.4,91.24,78.12,0,0,0,0,0,0,0,0,0,0,0,0,0,0,0,0,
593,118.7,158.9,-11.05,107.9,87.49,151.7,84.01,72,124.7,99.38,162.2,141.1,139,182.4,117.1,127.7,0,0,0,0,0,0,0,0,0,0,0,0,0,0,0,0,
594,129.9,191.5,-11.89,110.9,164.3,141.3,121.3,87.15,142.5,113.8,182,143.1,149.7,204,132.3,163.6,0,0,0,0,0,0,0,0,0,0,0,0,0,0,0,0,
595,135.2,197.5,-14.54,133.4,164.4,135.2,143.6,111,138.6,126,183.5,132.5,143.5,203,134.5,174.1,0,0,0,0,0,0,0,0,0,0,0,0,0,0,0,0,
596,126.6,166.4,-14.6,164.8,125.9,130.7,136.2,139.6,118.9,131.7,160,110.1,126.5,182.3,116.1,151.2,0,0,0,0,0,0,0,0,0,0,0,0,0,0,0,0,
597,98.02,145,-12.97,162.7,116.7,112.2,121.4,145.7,129.3,130.8,138.5,95.35,126.2,180.3,95.98,115.2,0,0,0,0,0,0,0,0,0,0,0,0,0,0,0,0,
598,85.35,145.4,-12.54,136.6,112.6,117.3,110.7,122.7,119.9,124.8,139.5,100.9,131.4,186.6,96.82,91.11,0,0,0,0,0,0,0,0,0,0,0,0,0,0,0,0,
599,93.56,135,-11.03,113.7,97.62,115,102,112.6,92.76,116.5,145,106.5,114.3,175.7,105.7,80.72,0,0,0,0,0,0,0,0,0,0,0,0,0,0,0,0,
600,100.8,121.3,-8.888,114.3,97.96,117.7,104.5,133,136.9,115.7,159.9,122.4,108,176.3,116.3,92.11,0,0,0,0,0,0,0,0,0,0,0,0,0,0,0,0,
601,117.7,123.7,-9.842,137.2,105.5,140.7,118.4,153,190.6,121.7,186.6,154.1,127,188.4,139.9,128.4,0,0,0,0,0,0,0,0,0,0,0,0,0,0,0,0,
602,130.2,131.8,-12.24,145.5,112,112.9,126.4,158.9,168.3,128.8,190.2,157.4,145,188.4,157.4,158.1,0,0,0,0,0,0,0,0,0,0,0,0,0,0,0,0,
603,111.8,149,-12.79,140.1,141.4,89.91,134.3,157.5,140.5,141.4,173.1,139.2,177.8,199.4,150.9,168.5,0,0,0,0,0,0,0,0,0,0,0,0,0,0,0,0,
604,103.6,178,-12.43,145.3,152.9,141.1,157.2,151.5,149.1,146.8,159.8,141.4,219.5,216,140,176,0,0,0,0,0,0,0,0,0,0,0,0,0,0,0,0,
605,122.6,196,-12.9,144.1,109.1,161.6,174.1,155.5,142.2,136.4,139.6,140.8,219.8,206,128.8,167.9,0,0,0,0,0,0,0,0,0,0,0,0,0,0,0,0,
606,116.9,189.9,-13.43,133.6,88.68,130.3,159.7,158.3,111,129.2,129.9,130.3,193.8,193.2,116,134.2,0,0,0,0,0,0,0,0,0,0,0,0,0,0,0,0,
607,97.21,166.1,-12.29,119.4,102.6,126.3,130,133.8,102.8,127,159.4,144.2,178.4,187.6,131.3,106.6,0,0,0,0,0,0,0,0,0,0,0,0,0,0,0,0,
608,100.9,135.6,-10.1,96.55,75.25,123.1,106.6,115,120.1,117.9,173,146.4,153.8,156.6,161.9,91.75,0,0,0,0,0,0,0,0,0,0,0,0,0,0,0,0,
609,87.68,107.7,-8.859,94.2,48.32,92.43,92.17,124.4,97.41,107.6,135.6,108.3,122.4,120.5,150.9,69.32,0,0,0,0,0,0,0,0,0,0,0,0,0,0,0,0,
610,43.23,93.84,-7.98,105.1,52.58,65.86,95.27,125.1,41.69,99.75,109.2,86.66,116.5,120.9,113.3,59.61,0,0,0,0,0,0,0,0,0,0,0,0,0,0,0,0,
611,17.79,103.6,-6.813,94.92,28.39,64.94,112.8,117.9,38.21,99.01,106.3,87.12,120.6,137.1,101.1,85.7,0,0,0,0,0,0,0,0,0,0,0,0,0,0,0,0,
612,28.47,122.2,-6.619,98.26,9.198,99.97,118.8,124.7,72.76,112.4,87.8,72.09,118.4,140.7,102.6,117.9,0,0,0,0,0,0,0,0,0,0,0,0,0,0,0,0,
613,58.15,127.9,-7.248,121.3,38.15,126.4,114.8,130.3,80.97,120.3,78.12,64.92,124.6,140.8,94.4,120.8,0,0,0,0,0,0,0,0,0,0,0,0,0,0,0,0,
614,76.8,122.9,-8.223,126.1,62.05,99.7,117.6,135.5,82.6,106.6,93.64,72.58,119.4,138.8,87.65,91.58,0,0,0,0,0,0,0,0,0,0,0,0,0,0,0,0,
615,65.7,115,-9.237,129,58.26,75.75,112.4,138.3,101.4,89.55,107.8,72.42,91.08,130.1,87.48,51.64,0,0,0,0,0,0,0,0,0,0,0,0,0,0,0,0,
616,54.77,101,-8.066,119.3,36.37,76,88.21,108,108.5,78.18,116.2,76.06,80.02,124.7,95.75,40.07,0,0,0,0,0,0,0,0,0,0,0,0,0,0,0,0,
617,53.61,79.54,-4.798,77.23,5.905,44.57,64.41,67.32,94.67,63.19,122.6,87.08,95.07,130.4,121.3,79.14,0,0,0,0,0,0,0,0,0,0,0,0,0,0,0,0,
618,40.73,69.93,-2.805,66.46,-1.034,14.74,58.78,68.33,96.29,52.98,134.7,99.7,110.2,148.1,155.7,143.1,0,0,0,0,0,0,0,0,0,0,0,0,0,0,0,0,
619,31.74,84.81,-3.011,87.5,11.01,33.73,64.81,85.97,114.1,52.09,143.8,104.2,110,156.3,169,179.8,0,0,0,0,0,0,0,0,0,0,0,0,0,0,0,0,
620,24.63,87.46,-4.097,72.24,17.81,42.14,56.48,72.68,94.06,43.98,117.4,75.65,87.22,136.8,136.4,158.6,0,0,0,0,0,0,0,0,0,0,0,0,0,0,0,0,
621,-1.746,63.88,-4.738,52.67,17.66,23.96,36.63,59.04,61.56,31.93,86.07,42.96,68.74,122.9,75.99,102,0,0,0,0,0,0,0,0,0,0,0,0,0,0,0,0,
622,-16.42,62.36,-3.592,73.75,4.265,24.75,41.45,85.44,85.5,35.78,83.19,42.03,70.8,126.4,32.57,51.36,0,0,0,0,0,0,0,0,0,0,0,0,0,0,0,0,
623,-4.543,80.61,-1.607,95.81,-7.142,26.95,56.8,115.7,109.5,50.55,68.85,36.15,57.3,115,15.77,13.76,0,0,0,0,0,0,0,0,0,0,0,0,0,0,0,0,
624,4.342,71.36,-0.6853,89.96,0.6342,17.25,40.77,106.2,80.33,54.93,49.95,19.29,36.22,106.9,15.88,-5.639,0,0,0,0,0,0,0,0,0,0,0,0,0,0,0,0,
625,9.882,48.61,-0.0015,74.36,8.484,21.51,22.15,78.41,59.48,43.11,63.54,29.63,46.64,124,41.29,16.59,0,0,0,0,0,0,0,0,0,0,0,0,0,0,0,0,
626,26.73,47.2,0.7201,79.92,13.06,36.78,39.77,70.36,59.86,33.33,79.39,55.75,69.28,138.9,87.69,72.06,0,0,0,0,0,0,0,0,0,0,0,0,0,0,0,0,
627,50.16,67.96,-0.7244,104.5,20.78,59.71,69.25,79.34,57.21,38.65,86.97,76.96,85.96,147.3,130.8,126.3,0,0,0,0,0,0,0,0,0,0,0,0,0,0,0,0,
628,68.48,97.86,-3.748,104.7,30.63,88.68,88.02,81.73,80.61,39.75,106.4,95.5,101.7,151.5,155.6,160.9,0,0,0,0,0,0,0,0,0,0,0,0,0,0,0,0,
629,72,108.2,-5.365,88.06,47.3,100.2,91.56,78.45,105,27.16,112.5,97.66,95.58,131.3,153.9,164,0,0,0,0,0,0,0,0,0,0,0,0,0,0,0,0,
630,68.61,84.82,-5.427,100.9,42.59,96.31,78.87,92.32,92.96,26.22,95.36,83.69,71.65,105.4,125.1,132.5,0,0,0,0,0,0,0,0,0,0,0,0,0,0,0,0,
631,75.36,65.69,-4.704,121.3,12.69,90.23,79.82,114.1,92.21,39.41,87.24,82.68,70.65,108,90.41,95.68,0,0,0,0,0,0,0,0,0,0,0,0,0,0,0,0,
632,77.29,76.8,-3.552,111.4,19.06,66.87,92.38,107.5,95.92,42.43,85.87,89.97,86.84,122,72.95,84.09,0,0,0,0,0,0,0,0,0,0,0,0,0,0,0,0,
633,47,87.27,-3.456,97.6,49.53,31.24,79.3,87.12,57.54,39.56,72.86,81.02,87.19,114.2,69.85,84.72,0,0,0,0,0,0,0,0,0,0,0,0,0,0,0,0,
634,14.41,82.23,-3.296,105.3,37.12,26.41,71.66,91.63,36.38,44.74,70.17,78.52,83.34,99.42,68.22,72.57,0,0,0,0,0,0,0,0,0,0,0,0,0,0,0,0,
635,20.27,82.79,-1.802,110.8,13.52,57.58,90.53,96.7,62.27,45.08,83.93,92.53,82,101.2,69.98,56.34,0,0,0,0,0,0,0,0,0,0,0,0,0,0,0,0,
636,24.78,79.01,-1.96,91.85,17.83,67.87,82.05,77.25,70.45,29.76,79.17,83.42,57.17,94.4,73.08,47.39,0,0,0,0,0,0,0,0,0,0,0,0,0,0,0,0,
637,3.41,59.17,-2.815,62.66,8.11,33.88,52.84,66.95,57.17,9.861,60.35,62.33,29.55,68.98,67.41,37.59,0,0,0,0,0,0,0,0,0,0,0,0,0,0,0,0,
638,10.98,49.68,-0.6341,49.14,-8.384,7.298,49.66,71.48,52.37,1.104,59.96,67.49,35.07,61.22,64.15,34.94,0,0,0,0,0,0,0,0,0,0,0,0,0,0,0,0,
639,42.43,49.54,1.432,52.01,0.5246,26.51,54.59,65.96,46.7,8.401,70.61,77.85,52.51,72.46,79.47,54.88,0,0,0,0,0,0,0,0,0,0,0,0,0,0,0,0,
640,47.97,47.16,0.7055,46.96,-9.338,62.77,61.13,62.16,44.43,16.73,80.22,84.19,72.39,80.92,102.6,84.74,0,0,0,0,0,0,0,0,0,0,0,0,0,0,0,0,
641,60.17,70.13,-0.5198,39.01,-23.18,72.19,89.18,68.86,55.37,12.22,90.08,100.8,103.1,87.75,111.9,99.47,0,0,0,0,0,0,0,0,0,0,0,0,0,0,0,0,
642,98.3,103.5,-2.118,67.34,16.76,63.33,109.2,78.87,68.99,10.34,85.13,101,109.4,82.43,98.33,86.09,0,0,0,0,0,0,0,0,0,0,0,0,0,0,0,0,
643,107.5,98.18,-3.669,110.4,31.76,63.94,92.08,96.6,61.87,23.3,61.61,76.31,82.31,62,72.41,51.62,0,0,0,0,0,0,0,0,0,0,0,0,0,0,0,0,
644,86.41,79.61,-2.836,108.6,-23,52.18,67.46,110.1,27.97,33.64,34.2,57.57,64.34,52.31,52.48,21.57,0,0,0,0,0,0,0,0,0,0,0,0,0,0,0,0,
645,80.91,83.33,-0.7965,82.29,-42.12,27.6,65.71,111.5,1.531,34.47,6.844,50.01,63.68,56.21,41.13,14.41,0,0,0,0,0,0,0,0,0,0,0,0,0,0,0,0,
646,77.67,77.38,-0.3048,71.77,-15.73,30.83,64.33,113.4,-14.33,35.9,-10.35,43.89,56.16,55.61,32.87,23.27,0,0,0,0,0,0,0,0,0,0,0,0,0,0,0,0,
647,52.6,50.97,-0.691,63.64,-26.5,26.99,35.76,102,-26.86,31.62,-4.498,40.02,37.65,49.28,29.79,30.67,0,0,0,0,0,0,0,0,0,0,0,0,0,0,0,0,
648,35.54,34.45,1.094,51.09,-63.39,-10.82,5.422,76.17,-4.431,18.48,3.293,37.15,21.69,45.03,29.59,30.35,0,0,0,0,0,0,0,0,0,0,0,0,0,0,0,0,
649,42.94,28.82,4.278,31.73,-72.55,-13.31,2.254,74.56,7.283,8.53,-5.441,38.22,19.45,41.47,29.35,28.69,0,0,0,0,0,0,0,0,0,0,0,0,0,0,0,0,
650,44.86,24.38,4.497,15.07,-35.7,15.12,11.53,89.44,-28.43,-1.889,-4.34,44.19,25.86,32.81,35.73,28.8,0,0,0,0,0,0,0,0,0,0,0,0,0,0,0,0,
651,33.23,27.73,2.721,40.43,3.569,12.94,24.63,81.73,-10.88,-12.41,16.67,42.08,29.01,26.68,46.04,28.02,0,0,0,0,0,0,0,0,0,0,0,0,0,0,0,0,
652,33.33,37.93,2.213,79.68,-12.94,16.16,46.33,67.72,59.75,-4.721,23.34,28.42,28.07,30.66,43.77,24.49,0,0,0,0,0,0,0,0,0,0,0,0,0,0,0,0,
653,40.89,47.32,1.344,75.44,-31.31,41.8,56.88,73.86,60.78,7.544,9.52,18.72,29.83,35.03,24.91,16.56,0,0,0,0,0,0,0,0,0,0,0,0,0,0,0,0,
654,34.14,54.99,0.7646,67.74,1.751,34.93,54.84,88.25,14.09,2.717,4.307,26.41,42.8,40.43,7.71,9.873,0,0,0,0,0,0,0,0,0,0,0,0,0,0,0,0,
655,34.26,70.99,2.583,92.83,19.23,12.98,66.8,101.5,7.572,7.971,15.45,53.69,65.4,55.94,11.75,16.4,0,0,0,0,0,0,0,0,0,0,0,0,0,0,0,0,
656,56.18,96.94,2.082,104.5,5.867,31.66,78.54,111.5,28.05,36.11,31,88.47,83.59,70.97,36.99,37.75,0,0,0,0,0,0,0,0,0,0,0,0,0,0,0,0,
657,65.95,109,-2.487,94.73,9.909,65.06,71.19,111.6,30.47,48.55,40.3,108.5,94.51,74.89,67.7,65.64,0,0,0,0,0,0,0,0,0,0,0,0,0,0,0,0,
658,67.42,102.4,-4.362,104.4,15.59,57,69.61,108.5,6.815,35.9,39.37,105.1,96.22,69.93,91.04,89.49,0,0,0,0,0,0,0,0,0,0,0,0,0,0,0,0,
659,81.51,95.97,-2.027,120.3,18.04,29.93,71.46,112.6,-11.64,29.95,37.45,92.09,78.44,60.46,103.2,99.05,0,0,0,0,0,0,0,0,0,0,0,0,0,0,0,0,
660,74.92,87.51,-0.9512,111.7,22.45,38.59,60.5,125.1,-4.3,37.15,44.58,90.47,63.2,55.88,104.2,95.32,0,0,0,0,0,0,0,0,0,0,0,0,0,0,0,0,
661,60.7,81.22,-1.833,97.42,-0.5641,51.8,61.32,134.7,15.38,39.19,58.62,106.8,79.04,59.33,99.25,89.53,0,0,0,0,0,0,0,0,0,0,0,0,0,0,0,0,
662,81.34,92.19,-2.019,93.9,-3.851,36.69,73.67,127,45.35,36.54,73.51,122.6,101.8,63.26,97.58,86.64,0,0,0,0,0,0,0,0,0,0,0,0,0,0,0,0,
663,97.24,104.2,-2.162,92.88,58.19,44.63,73.51,118.6,69.22,45.84,84.24,121.3,105.2,67.84,100.2,84.77,0,0,0,0,0,0,0,0,0,0,0,0,0,0,0,0,
664,94.21,104.1,-2.779,89.82,104.1,71.75,71.08,126.3,71.29,61.19,85.82,111.1,100.9,74.19,98.31,84.93,0,0,0,0,0,0,0,0,0,0,0,0,0,0,0,0,
665,112.2,100.3,-2.462,81.43,97.63,70.89,76.21,125.6,84.72,60.09,79.16,103.3,94.01,75.38,87.19,85.17,0,0,0,0,0,0,0,0,0,0,0,0,0,0,0,0,
666,132.5,94.27,-1.864,81.69,85.72,74.2,81.73,111.6,91.1,46.88,66.83,96.49,80.98,69.05,70.84,75.41,0,0,0,0,0,0,0,0,0,0,0,0,0,0,0,0,
667,127.4,84.73,-2.326,89.07,57.35,92.58,75.92,105.9,51.45,38.09,46.21,83.48,65.43,57.23,55.95,54.23,0,0,0,0,0,0,0,0,0,0,0,0,0,0,0,0,
668,109.5,70.9,-2.224,66.44,29.82,89.75,56.73,100.4,34.06,31.95,31.12,68,51.22,42.11,47.29,33.59,0,0,0,0,0,0,0,0,0,0,0,0,0,0,0,0,
669,98.95,65.57,-0.2341,48.55,62.75,76.46,57.62,96.41,61.97,28.1,38.25,64.86,50.13,28.9,43.61,17.56,0,0,0,0,0,0,0,0,0,0,0,0,0,0,0,0,
670,115.8,91.3,0.7478,86.11,105.5,77.63,89.44,109.9,57.14,29.02,46.87,73.95,63.41,24.2,41.79,3.098,0,0,0,0,0,0,0,0,0,0,0,0,0,0,0,0,
671,145.6,129,-1.566,113.2,99.26,108.3,115.6,123.7,43.93,32.89,53.68,90.11,78.43,36.59,46.9,-2.549,0,0,0,0,0,0,0,0,0,0,0,0,0,0,0,0,
672,162.2,146.6,-3.971,101.1,94.43,140.7,121,126.3,82.1,45.96,89.9,114.8,99.35,63.97,67.77,11,0,0,0,0,0,0,0,0,0,0,0,0,0,0,0,0,
673,160.7,147.4,-3.926,109.8,109.1,114,101.5,122.5,110.4,58.43,127.8,127.1,116.2,81.99,98.79,39.96,0,0,0,0,0,0,0,0,0,0,0,0,0,0,0,0,T1
674,130.7,128.2,-3.949,112.5,95.69,71.31,63.55,107.2,88.68,45.64,125.4,116,102.8,75.51,119.2,65.54,0,0,0,0,0,0,0,0,0,0,0,0,0,0,0,0,
675,94.36,91.77,-4.866,84.87,72.55,72.53,52.84,98.65,73.68,24.25,112.7,109.3,79.88,59.97,120.2,72.88,0,0,0,0,0,0,0,0,0,0,0,0,0,0,0,0,
676,85.66,77.79,-4.311,96.21,88.36,73.44,73.42,110.9,85.04,27.29,103.6,106.3,71.18,46.36,109.6,62.72,0,0,0,0,0,0,0,0,0,0,0,0,0,0,0,0,
677,69.98,86.15,-2.645,118.8,97.02,63.79,72.49,104.5,74.03,34.31,67.76,76,49.72,24.89,83.32,33.87,0,0,0,0,0,0,0,0,0,0,0,0,0,0,0,0,
678,32.49,76.82,-0.515,79.54,57.85,56.2,50.15,72.87,36.56,20.18,22.21,37.15,22.93,4.657,37.46,-9.748,0,0,0,0,0,0,0,0,0,0,0,0,0,0,0,0,
679,21.58,67.01,3.134,49.17,43.85,38.84,49.17,65.96,29.8,12.9,15.96,36.04,35.62,11.94,6.16,-32.52,0,0,0,0,0,0,0,0,0,0,0,0,0,0,0,0,
680,37.03,79.09,4.749,64.96,64.67,56.53,61.56,77.99,42.64,19.86,40.22,58.04,57.96,26.84,18.97,-15.32,0,0,0,0,0,0,0,0,0,0,0,0,0,0,0,0,
681,31.95,67.65,1.746,51.42,45.67,88.35,53.6,66.45,20.97,6.761,36.84,48.97,36.15,9.315,39.32,-1.725,0,0,0,0,0,0,0,0,0,0,0,0,0,0,0,0,
682,1.069,25.94,0.7194,39.25,39.83,63.45,34.47,46.28,2.352,-12.64,2.542,14.2,6.345,-16.25,23.65,-23.03,0,0,0,0,0,0,0,0,0,0,0,0,0,0,0,0,
683,-17.23,7.662,4.048,72.83,88.5,38.97,20.76,34.43,16.62,-8.119,-7.229,4.587,14.2,-16.53,-3.768,-46.49,0,0,0,0,0,0,0,0,0,0,0,0,0,0,0,0,
684,-0.5089,9.714,4.968,70.88,80.77,38.06,7.078,19.39,22.01,-5.582,5.059,23.84,34.61,-13.24,-3.509,-44.11,0,0,0,0,0,0,0,0,0,0,0,0,0,0,0,0,
685,24.51,8.098,3.655,39.93,22.87,10.65,6.141,17.56,24.85,-15.48,5.468,43.97,45.04,-11.25,18.91,-26.7,0,0,0,0,0,0,0,0,0,0,0,0,0,0,0,0,
686,28.69,14.74,4.538,46.71,21.7,8.21,12.84,25.74,36.93,-14.18,10.94,53.82,44.7,-0.2611,40.56,-10.95,0,0,0,0,0,0,0,0,0,0,0,0,0,0,0,0,
687,23.37,8.556,5.516,33.18,20.57,34.25,-8.716,7.24,37.66,-12.51,15.34,44.31,24.34,-2.712,43.52,-10.11,0,0,0,0,0,0,0,0,0,0,0,0,0,0,0,0,
688,19.82,-22.86,5.823,-13.91,-32.81,7.882,-30.97,-18.81,37.42,-19.36,-11.45,18.5,1.216,-12.31,20.92,-22.95,0,0,0,0,0,0,0,0,0,0,0,0,0,0,0,0,
689,8.327,-28.33,7.121,-16.79,-40.54,-29.67,-11.9,-16.21,13.69,-16.51,-43.12,-6.579,-4.645,-8.044,-7.183,-33.47,0,0,0,0,0,0,0,0,0,0,0,0,0,0,0,0,
690,-6.561,-6.073,7.821,2.921,4.654,-21.19,7.161,-5.575,-44.31,-14.68,-61.4,-30.6,-16.36,-18.87,-22.1,-47.43,0,0,0,0,0,0,0,0,0,0,0,0,0,0,0,0,
691,-7.747,-10.54,8.265,-4.658,2.097,-12.89,2.36,-8.118,-59.72,-31.15,-79.84,-44.53,-38.61,-50.53,-31.99,-78.01,0,0,0,0,0,0,0,0,0,0,0,0,0,0,0,0,
692,6.985,-30.5,9.49,-6.678,-25.92,-16.67,7.096,-19.06,-29.24,-48.87,-79.63,-29.59,-38.89,-62.37,-40.23,-104.1,0,0,0,0,0,0,0,0,0,0,0,0,0,0,0,0,
693,19.84,-32.96,9.279,3.056,-6.11,-10.97,6.088,-40.12,-29.48,-58.57,-63.85,-12.4,-22.31,-54.12,-38.64,-99,0,0,0,0,0,0,0,0,0,0,0,0,0,0,0,0,
694,5.037,-43.21,8.684,-25,2.224,-26.02,-24.17,-60.89,-64.66,-73.03,-71.93,-25.92,-23.24,-53.08,-32.47,-72.28,0,0,0,0,0,0,0,0,0,0,0,0,0,0,0,0,
695,-29.54,-64.93,10.72,-71.92,-52.63,-57.95,-40.47,-58.17,-93.45,-85.49,-89.65,-45.43,-39.09,-57.48,-31.07,-53.77,0,0,0,0,0,0,0,0,0,0,0,0,0,0,0,0,
696,-43.31,-62.28,13.16,-59.95,-82.53,-47.84,-23.21,-39.8,-82.19,-79.55,-86.05,-50.14,-50.71,-57.38,-35.5,-59.06,0,0,0,0,0,0,0,0,0,0,0,0,0,0,0,0,
697,-44.91,-51.68,13.32,-5.459,-46.2,-26.18,-11.89,-27.64,-61.1,-70.3,-82.91,-66.5,-64.74,-57.14,-47.52,-80.54,0,0,0,0,0,0,0,0,0,0,0,0,0,0,0,0,
698,-81.5,-66.29,13.12,8.541,-23.37,-69.11,-23.12,-22.34,-106.4,-78.78,-101.1,-102.4,-87.13,-64.39,-66.17,-104.7,0,0,0,0,0,0,0,0,0,0,0,0,0,0,0,0,
699,-145.2,-90.49,14.53,-23.65,-37.78,-129.3,-48.95,-31.73,-159.7,-96.78,-129,-131.1,-107.5,-80.02,-82.88,-122,0,0,0,0,0,0,0,0,0,0,0,0,0,0,0,0,
700,-185.7,-111.3,16.64,-65.48,-52.42,-138.4,-81.67,-59.46,-127.6,-110.4,-144.1,-132.8,-116.1,-89.88,-89.88,-123,0,0,0,0,0,0,0,0,0,0,0,0,0,0,0,0,
701,-166.1,-121.9,17.91,-90.05,-72.43,-124,-97.77,-76,-80.67,-112.4,-125.8,-101.1,-104.6,-77.12,-82.39,-105.7,0,0,0,0,0,0,0,0,0,0,0,0,0,0,0,0,
702,-96.32,-109.7,17.28,-76.78,-91.71,-108.9,-96.62,-82.29,-73.16,-104.4,-91.16,-59.38,-85.25,-56.06,-62.5,-83.03,0,0,0,0,0,0,0,0,0,0,0,0,0,0,0,0,
703,-50.99,-107.5,14.9,-73.96,-79.97,-105.8,-106.7,-103.9,-67.54,-104.8,-80.32,-46.59,-82.27,-52.63,-46.86,-71.63,0,0,0,0,0,0,0,0,0,0,0,0,0,0,0,0,
704,-66.03,-126.8,13.52,-112.4,-52.83,-119.6,-110.3,-107.5,-73.53,-111.5,-86.68,-47.54,-77.88,-52.85,-46.23,-72.46,0,0,0,0,0,0,0,0,0,0,0,0,0,0,0,0,
705,-71.37,-104.3,14.3,-105,-33.85,-91.52,-68.66,-63.98,-76.78,-96.21,-75.76,-25.3,-54.24,-36.1,-45.29,-70.46,0,0,0,0,0,0,0,0,0,0,0,0,0,0,0,0,
706,-32.01,-35.42,13.12,-43.01,-10.66,-22.69,-12.58,-19.81,-41.73,-70.21,-54.21,0.6114,-44.96,-24.41,-31.81,-59.83,0,0,0,0,0,0,0,0,0,0,0,0,0,0,0,0,
707,-4.301,5.095,8.794,-31.86,20.16,9.655,4.982,-11.94,-26.37,-66.6,-47.24,6.3,-57.74,-32.37,-17.89,-49.43,0,0,0,0,0,0,0,0,0,0,0,0,0,0,0,0,
708,-4.026,6.239,7.142,-44.86,39.46,11.06,4.249,-15.84,-57.23,-70.19,-44.36,17.25,-47.21,-29.41,-7.05,-35.54,0,0,0,0,0,0,0,0,0,0,0,0,0,0,0,0,
709,10.58,18.37,8.172,-10.59,44.08,22.27,19.64,-10.19,-57.9,-54.76,-31.53,43.6,-1.215,-0.9348,14.18,-3.652,0,0,0,0,0,0,0,0,0,0,0,0,0,0,0,0,
710,31.48,47.09,5.321,-6.371,49.01,24.29,23.2,-12.71,-18.55,-41.88,-30.8,53.75,34.43,18.14,37.57,34.48,0,0,0,0,0,0,0,0,0,0,0,0,0,0,0,0,
711,16.97,53.1,0.9872,-57.65,43.36,-1.956,6.293,-28.13,-29.2,-48.8,-41.35,46.18,32.56,11.6,41.66,48.8,0,0,0,0,0,0,0,0,0,0,0,0,0,0,0,0,
712,-8.927,33.33,1.664,-67.55,6.012,-29.53,0.0675,-34.03,-87.38,-50.52,-27.57,50.05,25.52,9.714,33.51,41.19,0,0,0,0,0,0,0,0,0,0,0,0,0,0,0,0,
713,-4.435,23.98,4.154,-48.71,-28.88,-29.07,-20.63,-43.06,-83.93,-46.68,-7.311,48.87,23.64,12.72,28.09,33.22,0,0,0,0,0,0,0,0,0,0,0,0,0,0,0,0,
714,-11.39,14.43,4.809,-68.63,-31.35,-33.82,-68.03,-67.71,-37.24,-63.16,-18.46,19.57,-10.19,-8.664,15.84,16.56,0,0,0,0,0,0,0,0,0,0,0,0,0,0,0,0,
715,-57.98,-19.8,6.644,-83.64,-34.53,-62.07,-72.16,-63.74,-40.74,-78.65,-23.76,10.13,-46.98,-30.63,-2.466,-13.7,0,0,0,0,0,0,0,0,0,0,0,0,0,0,0,0,
716,-72.82,-32.82,9.363,-66.02,-31.7,-53.22,-30.61,-31.49,-37.06,-67.13,13.35,53.57,-24.25,-16.28,5.204,-19.48,0,0,0,0,0,0,0,0,0,0,0,0,0,0,0,0,
717,-32.53,-5.48,8.95,-64.42,-1.829,-19.75,-17.49,-30.73,7.104,-51.17,44.32,93.7,20.07,11.31,46.99,16.79,0,0,0,0,0,0,0,0,0,0,0,0,0,0,0,0,
718,-3.982,12.17,5.985,-73.46,-1.35,-15.53,-21.52,-49.98,4.694,-37.92,32.41,91.45,32.26,24.99,80.25,54.49,0,0,0,0,0,0,0,0,0,0,0,0,0,0,0,0,
719,0.7613,18.05,4.371,-57.82,-14.42,6.153,-0.5754,-45.71,-13.91,-15.43,20.61,79.78,37.83,33.46,75.65,61.85,0,0,0,0,0,0,0,0,0,0,0,0,0,0,0,0,
720,7.71,28.83,4.198,-42.73,28.97,33.12,14.71,-36.89,11.78,-2.525,24.94,71.37,41.54,33.55,52.46,48.45,0,0,0,0,0,0,0,0,0,0,0,0,0,0,0,0,
721,10.33,25.33,2.585,-47.64,49.75,3.803,12.94,-38.59,17.44,-6.81,5.566,46.95,14.82,14.21,27.96,26.58,0,0,0,0,0,0,0,0,0,0,0,0,0,0,0,0,
722,17.67,21.52,1.412,-47.63,2.596,-7.132,27.27,-34.05,-11.86,-6.463,-21.45,20.58,-18.27,-4.855,2.049,2.97,0,0,0,0,0,0,0,0,0,0,0,0,0,0,0,0,
723,24.95,24.2,3.529,-38.94,-7.533,28.55,42.98,-27.24,-30.82,-2.735,-28.27,3.191,-29.96,-8.573,-17.56,-12.09,0,0,0,0,0,0,0,0,0,0,0,0,0,0,0,0,
724,0.4369,6.612,5.693,-31.54,5.315,24.92,29.74,-28.6,-41.08,-9.652,-52.8,-22.8,-32.58,-9.884,-35.07,-20.3,0,0,0,0,0,0,0,0,0,0,0,0,0,0,0,0,
725,-26.83,-4.661,6.421,-27.52,-27.48,-4.03,8.362,-38.02,-45.86,-16.94,-84.7,-39.29,-24.54,-6.094,-59.2,-24.71,0,0,0,0,0,0,0,0,0,0,0,0,0,0,0,0,
726,-27.42,6.162,7.557,-45.52,-41.56,-19.81,-4.147,-57.52,-58.26,-18.75,-75.58,-23.66,-10.47,4.627,-67.05,-17.61,0,0,0,0,0,0,0,0,0,0,0,0,0,0,0,0,
727,-38.33,-6.079,8.057,-77.59,-34.57,-40.53,-22.18,-80.87,-85.29,-28.72,-57.07,-8.047,-17.67,-2.913,-46.22,-9.254,0,0,0,0,0,0,0,0,0,0,0,0,0,0,0,0,
728,-61.82,-30.87,8.592,-88.62,-57.32,-41.2,-40.39,-93.67,-83.03,-36.96,-53.16,-9.369,-31.74,-19.16,-26.6,-17.12,0,0,0,0,0,0,0,0,0,0,0,0,0,0,0,0,
729,-66.58,-31,9.789,-87.3,-45.46,-31.51,-43.35,-86.89,-51.44,-22.81,-34.61,-7.515,-32.94,-18.15,-27.97,-30.75,0,0,0,0,0,0,0,0,0,0,0,0,0,0,0,0,
730,-64.81,-34.58,8.856,-91.42,2.599,-51.18,-42.92,-68.53,-40.99,-9.394,-12.97,-7.218,-44.93,-25.6,-38.21,-39.86,0,0,0,0,0,0,0,0,0,0,0,0,0,0,0,0,
731,-71.59,-54,7.987,-93.57,-4.314,-61.79,-53.82,-63.14,-51.96,-18,-12.22,-17.54,-61.31,-45.98,-44.44,-49.76,0,0,0,0,0,0,0,0,0,0,0,0,0,0,0,0,
732,-85.14,-59.7,9.737,-99.56,-34.89,-65.43,-71.5,-78.48,-57.63,-21.53,-21.02,-27.13,-53.44,-38.45,-46.54,-51.22,0,0,0,0,0,0,0,0,0,0,0,0,0,0,0,0,
733,-102.5,-54.56,10.41,-111.6,-35.21,-98.07,-81.45,-96.02,-63.38,-8.959,-27.71,-32.44,-36.58,-17.24,-48.67,-36.06,0,0,0,0,0,0,0,0,0,0,0,0,0,0,0,0,
734,-102,-50.45,9.934,-117.6,-58.74,-102.6,-73.97,-99.29,-88.44,-2.305,-28.55,-29.59,-24.41,-20.25,-48.61,-19.92,0,0,0,0,0,0,0,0,0,0,0,0,0,0,0,0,
735,-81.95,-41.29,10.84,-118.1,-101.1,-72.13,-65,-90.79,-110,-7.55,-22.28,-13.7,-16.04,-33.75,-40.62,-14.98,0,0,0,0,0,0,0,0,0,0,0,0,0,0,0,0,
736,-74.04,-40.02,11.32,-119.5,-88.15,-70.65,-69.39,-89.23,-82.35,-20.69,-12.6,-5.424,-31.95,-47.98,-29.68,-20.08,0,0,0,0,0,0,0,0,0,0,0,0,0,0,0,0,
737,-82.38,-56.21,10.8,-115,-49.29,-71.67,-65.67,-93.09,-43.68,-35.3,-17.45,-29.91,-70.87,-71.79,-34.77,-38.78,0,0,0,0,0,0,0,0,0,0,0,0,0,0,0,0,
738,-96.28,-74.67,10.99,-96.14,-52.3,-63.49,-53.51,-81.6,-62.35,-39.69,-56.35,-80.33,-101.8,-90.74,-70.12,-73.29,0,0,0,0,0,0,0,0,0,0,0,0,0,0,0,0,
739,-121.9,-92.18,12.16,-90.97,-75.25,-87.4,-59.54,-68.6,-103.4,-33.75,-100,-123.4,-113.6,-94.67,-118.3,-109.7,0,0,0,0,0,0,0,0,0,0,0,0,0,0,0,0,
740,-144.4,-103.3,13.75,-109.6,-87.06,-98.05,-61.66,-66.39,-115.9,-20.33,-109,-136.5,-109.5,-88.8,-144,-126.7,0,0,0,0,0,0,0,0,0,0,0,0,0,0,0,0,
741,-151.6,-95.2,14.11,-88.14,-79.4,-73.59,-44.76,-55.72,-109,-9.655,-102.8,-132.3,-102.7,-79.72,-141.9,-119.1,0,0,0,0,0,0,0,0,0,0,0,0,0,0,0,0,
742,-160.8,-92.29,12.95,-46.57,-42.2,-70.21,-48.37,-51.54,-83.3,-18.23,-99.05,-127.8,-115.3,-85.56,-132.3,-104.5,0,0,0,0,0,0,0,0,0,0,0,0,0,0,0,0,
743,-166.1,-112.5,12.82,-84.68,-37.44,-75.59,-73.66,-74.17,-63.66,-28.87,-86.28,-122.9,-137.8,-106.7,-121.9,-101.5,0,0,0,0,0,0,0,0,0,0,0,0,0,0,0,0,
744,-162.1,-128.2,14.18,-136.5,-104.8,-73.11,-89.95,-97.13,-86.73,-24.74,-79.88,-120.1,-142.7,-120.2,-110,-111.6,0,0,0,0,0,0,0,0,0,0,0,0,0,0,0,0,
745,-166.8,-125.5,15.66,-106.8,-128.8,-90.35,-96.18,-103.9,-92.63,-25.56,-75.65,-106.5,-126.9,-120.2,-98.95,-122.6,0,0,0,0,0,0,0,0,0,0,0,0,0,0,0,0,
746,-161.4,-112.2,16.07,-89.53,-60.44,-104.7,-97.03,-103.4,-38.43,-30.88,-45.3,-71.56,-102.8,-109.8,-81.79,-117.9,0,0,0,0,0,0,0,0,0,0,0,0,0,0,0,0,
747,-142.6,-101.5,14.04,-135.5,-35.23,-112.8,-104.8,-105.9,-10.74,-30.89,-31.03,-58.56,-89.95,-100.5,-62.41,-97.58,0,0,0,0,0,0,0,0,0,0,0,0,0,0,0,0,
748,-144,-105.3,12.51,-153.7,-89.81,-131.8,-116.3,-113.7,-50.66,-38.27,-63.78,-81.34,-94.58,-110.8,-64.17,-86.44,0,0,0,0,0,0,0,0,0,0,0,0,0,0,0,0,
749,-139.9,-97.11,14.44,-129.5,-109.7,-113.4,-98.72,-106.1,-76.79,-37,-77.42,-84.9,-94.07,-118.9,-85.34,-94.46,0,0,0,0,0,0,0,0,0,0,0,0,0,0,0,0,
750,-113.7,-71.37,14.66,-119.2,-81.09,-61.39,-69.66,-80.44,-50.87,-14.29,-51.11,-70.47,-86.91,-101.2,-98.18,-101.3,0,0,0,0,0,0,0,0,0,0,0,0,0,0,0,0,
751,-109.5,-69.97,11.53,-118.4,-71.11,-42.67,-62.98,-65.99,-23.83,-7.273,-34.24,-71.72,-88.55,-83.69,-93,-95.62,0,0,0,0,0,0,0,0,0,0,0,0,0,0,0,0,
752,-118.9,-78.39,9.969,-98.19,-80.19,-49.12,-58.87,-62.29,-28.01,-22.31,-33.09,-72.92,-84.13,-83.58,-79.27,-88.2,0,0,0,0,0,0,0,0,0,0,0,0,0,0,0,0,
753,-114.7,-67.76,9.496,-75.9,-91.34,-46.4,-49.57,-48.14,-41.35,-22.04,-47.4,-80.45,-72.18,-86.47,-73.88,-90.35,0,0,0,0,0,0,0,0,0,0,0,0,0,0,0,0,
754,-114,-64.62,10.06,-73.75,-98.32,-39.43,-43.5,-23.89,-46.44,-2.026,-82.09,-106,-73.46,-85.18,-91.1,-102.2,0,0,0,0,0,0,0,0,0,0,0,0,0,0,0,0,
755,-119,-67.12,12.46,-67.16,-99.45,-46.05,-35.69,-8.738,-60.92,14.28,-99.01,-115.9,-76.55,-78.51,-113.5,-108.6,0,0,0,0,0,0,0,0,0,0,0,0,0,0,0,0,
756,-124.7,-59.81,11.58,-56.46,-121.5,-70.39,-33.8,-17.87,-82.62,17.9,-84.88,-105,-68.48,-66.48,-110.2,-97.97,0,0,0,0,0,0,0,0,0,0,0,0,0,0,0,0,
757,-123.7,-62.58,9.498,-78.33,-133.1,-74.33,-30.5,-27.25,-75.74,21.24,-67.65,-92.8,-64.75,-58.74,-86.27,-81.76,0,0,0,0,0,0,0,0,0,0,0,0,0,0,0,0,
758,-109,-74.77,10.67,-90.2,-81.64,-52.21,-19.62,-15.29,-40.38,30.41,-50.71,-77.42,-69.59,-64.31,-68.38,-74.68,0,0,0,0,0,0,0,0,0,0,0,0,0,0,0,0,
759,-103.7,-83.69,9.364,-54.07,-46.27,-55.15,-28.09,-14.76,-15.68,25.1,-32.2,-65.69,-76.84,-73.62,-63.16,-74.27,0,0,0,0,0,0,0,0,0,0,0,0,0,0,0,0,
760,-105.2,-90.94,7.114,-49.27,-83.91,-73.49,-52.14,-33.42,-29.63,4.786,-36.27,-74.89,-92.59,-73.94,-65.73,-76.68,0,0,0,0,0,0,0,0,0,0,0,0,0,0,0,0,
761,-106.4,-95.73,9.529,-89.69,-107.8,-72.27,-63.73,-31.89,-70.26,-0.2569,-69.05,-102.2,-108.4,-75.79,-80.72,-86.93,0,0,0,0,0,0,0,0,0,0,0,0,0,0,0,0,
762,-132.1,-99.54,10.92,-90.44,-99.71,-60.14,-57.92,-10.09,-86.17,11.59,-91.67,-118.5,-103.2,-83.34,-103.9,-102.8,0,0,0,0,0,0,0,0,0,0,0,0,0,0,0,0,
763,-150.6,-95.37,10.48,-68.34,-115.3,-45.08,-40.52,7.762,-69.26,21.02,-91.58,-114.1,-91.87,-82.73,-115.7,-112.5,0,0,0,0,0,0,0,0,0,0,0,0,0,0,0,0,
764,-137,-81.3,11.92,-68.01,-128.8,-50.26,-34.72,15.56,-66.86,25.1,-100.7,-112.4,-93.55,-77.67,-113.1,-110,0,0,0,0,0,0,0,0,0,0,0,0,0,0,0,0,
765,-139.5,-74.12,10.94,-55.76,-116.6,-70.39,-44.4,8.636,-66.7,26.14,-96.02,-99.89,-86.85,-75.01,-103.4,-95.33,0,0,0,0,0,0,0,0,0,0,0,0,0,0,0,0,
766,-144.4,-73.9,8.124,-42.28,-96.16,-52.78,-35.73,0.7447,-38.55,24.35,-51.69,-68.06,-79.9,-78.04,-87.79,-80.07,0,0,0,0,0,0,0,0,0,0,0,0,0,0,0,0,
767,-121,-81.88,7.488,-53.14,-70.49,-32.1,-25.56,5.558,-25.91,11.5,-35.79,-73.91,-106.3,-98.73,-85.02,-89.01,0,0,0,0,0,0,0,0,0,0,0,0,0,0,0,0,
768,-122.9,-107.1,7.386,-57.08,-72.06,-62.64,-54.31,-1.561,-53.44,-14.67,-69.87,-114.1,-133.7,-120,-105.8,-115.3,0,0,0,0,0,0,0,0,0,0,0,0,0,0,0,0,
769,-153.4,-126.1,9.699,-59.07,-116,-90.04,-89.64,-24.3,-91.64,-26.02,-87.66,-121.7,-123.2,-115.6,-116.9,-120,0,0,0,0,0,0,0,0,0,0,0,0,0,0,0,0,
770,-157.8,-117.4,14.85,-76.81,-143.6,-78.64,-91.8,-33.04,-118.2,-12.07,-89.39,-106.5,-96.18,-98.07,-100.2,-96,0,0,0,0,0,0,0,0,0,0,0,0,0,0,0,0,
771,-144.4,-87.64,15.26,-82.85,-130.7,-59.96,-73.96,-27.04,-109.8,5.169,-101,-100.3,-68.02,-77.25,-80.97,-64.36,0,0,0,0,0,0,0,0,0,0,0,0,0,0,0,0,
772,-130.5,-53.48,10.56,-69.63,-108.8,-43.77,-51.94,-13.26,-68.05,23.48,-88.83,-88.29,-43.07,-52.88,-71.01,-35.93,0,0,0,0,0,0,0,0,0,0,0,0,0,0,0,0,
773,-105.1,-43.11,8.292,-56.88,-89.58,-28.74,-35.62,4.793,-35.68,37.01,-46.32,-73.1,-41.27,-43.21,-60.46,-20.36,0,0,0,0,0,0,0,0,0,0,0,0,0,0,0,0,
774,-81.68,-57.93,8.728,-49.36,-72.41,-15.14,-31.09,8.573,-19.4,30.16,-0.7845,-58.25,-51.54,-44.38,-40.72,-15.43,0,0,0,0,0,0,0,0,0,0,0,0,0,0,0,0,
775,-64.46,-60.49,7.125,-29.09,-54.47,3.837,-21.41,7.722,7.596,23.17,40.21,-28.38,-43.43,-34.6,-8.392,-0.7338,0,0,0,0,0,0,0,0,0,0,0,0,0,0,0,0,
776,-48.39,-49.16,3.858,-12.06,-41.13,9.129,-16.42,4.264,18.5,19.77,45.14,-16.9,-31.64,-30.48,16.34,16.66,0,0,0,0,0,0,0,0,0,0,0,0,0,0,0,0,
777,-71.33,-62.18,3.167,-61.92,-74.96,-27.33,-50.3,-36.8,-32.56,-3.319,-7.724,-59.81,-47.23,-54.89,1.754,6.383,0,0,0,0,0,0,0,0,0,0,0,0,0,0,0,0,
778,-128.3,-99.64,6.735,-130,-159.3,-80.1,-91.1,-81.09,-94.23,-22.5,-62.86,-107.8,-77.67,-88.5,-47.05,-33.17,0,0,0,0,0,0,0,0,0,0,0,0,0,0,0,0,
779,-143.9,-123.9,11.42,-111,-207.6,-97.59,-97.52,-74.63,-96.39,-20.3,-85.79,-119.8,-100.2,-107.5,-96.32,-78.66,0,0,0,0,0,0,0,0,0,0,0,0,0,0,0,0,
780,-129.8,-130.4,13.46,-84.77,-181.4,-93.47,-105.8,-66.28,-102.5,-28.13,-110.8,-130.9,-118.8,-116.2,-128.1,-112.7,0,0,0,0,0,0,0,0,0,0,0,0,0,0,0,0,
781,-155.4,-140.4,13.66,-127.3,-159.2,-106.2,-127.1,-86.37,-151.3,-48.43,-133.8,-144.5,-130.5,-122.4,-141.5,-128.9,0,0,0,0,0,0,0,0,0,0,0,0,0,0,0,0,
782,-178.8,-143.9,14.41,-134.2,-177.9,-113.2,-119.8,-85.39,-142.2,-61.1,-122.3,-129,-128.2,-126.1,-136.7,-131.5,0,0,0,0,0,0,0,0,0,0,0,0,0,0,0,0,
783,-148.2,-134.2,14.55,-93.99,-183.9,-97.03,-93.33,-61.95,-84.93,-68.06,-97.61,-107.4,-123.7,-131.3,-121.7,-131,0,0,0,0,0,0,0,0,0,0,0,0,0,0,0,0,
784,-124.2,-131.7,12.74,-94.59,-164.8,-82.23,-76.05,-51.03,-88.1,-67.54,-89.99,-101.4,-116.9,-139.3,-110.4,-130.6,0,0,0,0,0,0,0,0,0,0,0,0,0,0,0,0,
785,-135.5,-129.9,11.18,-101.7,-139.7,-72.05,-61.2,-50.82,-103.4,-56.74,-90.99,-91.33,-98.4,-137.7,-103.6,-121,0,0,0,0,0,0,0,0,0,0,0,0,0,0,0,0,
786,-132.9,-114.4,11.19,-79,-108.3,-55.05,-49.53,-55.61,-77.05,-45.92,-96.63,-85.14,-81.65,-122.2,-93.38,-93.84,0,0,0,0,0,0,0,0,0,0,0,0,0,0,0,0,
787,-122,-106.4,10.84,-82.45,-114.8,-41.66,-51.28,-68.05,-87.56,-44.4,-125.6,-106.6,-84.09,-112.2,-89.14,-63.62,0,0,0,0,0,0,0,0,0,0,0,0,0,0,0,0,
788,-139.1,-114.5,9.484,-119.6,-168.2,-67.16,-69.16,-84.37,-128.4,-50.09,-165.7,-136.6,-97.82,-114.5,-106.4,-57.24,0,0,0,0,0,0,0,0,0,0,0,0,0,0,0,0,
789,-165.5,-121.4,9.741,-137.9,-181.8,-133.1,-98.04,-102.1,-121.4,-50.17,-166.9,-142,-104,-107.5,-126.8,-69.43,0,0,0,0,0,0,0,0,0,0,0,0,0,0,0,0,
790,-175.7,-125.4,12.48,-130.6,-151.1,-158.6,-116.6,-115.7,-95.4,-51.61,-128.3,-125.4,-104.6,-94.78,-118.3,-71.29,0,0,0,0,0,0,0,0,0,0,0,0,0,0,0,0,
791,-166.9,-129,13.94,-129,-149.3,-125.4,-113.2,-116.5,-91.39,-69.38,-100.4,-110.7,-112,-103.6,-89.69,-65.58,0,0,0,0,0,0,0,0,0,0,0,0,0,0,0,0,
792,-140.6,-126.9,12.3,-128.9,-152.6,-127.2,-100.1,-102.9,-83.73,-81.07,-92.27,-100.6,-117.6,-125.9,-71.48,-74.23,0,0,0,0,0,0,0,0,0,0,0,0,0,0,0,0,
793,-116,-124.9,11.16,-110.9,-124.5,-155.5,-91.63,-87.56,-69.52,-76.07,-83.84,-83.68,-112.3,-135.2,-66.15,-90.64,0,0,0,0,0,0,0,0,0,0,0,0,0,0,0,0,
794,-103.6,-125.8,11.19,-91.43,-109.1,-130.4,-95.44,-86.92,-66.75,-77.14,-83.15,-71.25,-104.9,-132,-66.8,-100.2,0,0,0,0,0,0,0,0,0,0,0,0,0,0,0,0,
795,-91.73,-117.8,9.317,-80.94,-114.3,-98.7,-105,-90.43,-75.44,-73.92,-104,-86.27,-102.4,-128,-82.87,-107.8,0,0,0,0,0,0,0,0,0,0,0,0,0,0,0,0,
796,-90.22,-108.4,8.062,-75.69,-115,-112.2,-108.1,-86.01,-98.4,-54.18,-140.2,-121.2,-104.9,-123.1,-115.4,-114,0,0,0,0,0,0,0,0,0,0,0,0,0,0,0,0,
797,-107.9,-116.8,10.56,-93.34,-141.5,-126.1,-112.3,-97.91,-127.5,-50.6,-166.2,-142.9,-107.3,-115.4,-142.3,-107.3,0,0,0,0,0,0,0,0,0,0,0,0,0,0,0,0,
798,-124,-135,12.96,-126,-185.4,-136.9,-127.7,-122.9,-140.4,-74.03,-158.1,-137.3,-106.8,-113,-142.1,-87.06,0,0,0,0,0,0,0,0,0,0,0,0,0,0,0,0,
799,-130.1,-148.8,13.59,-142.2,-174.1,-158.7,-143.2,-120,-133.4,-93.43,-126.2,-118.2,-105.5,-116,-114.1,-60.27,0,0,0,0,0,0,0,0,0,0,0,0,0,0,0,0,
800,-125.2,-151.2,14.2,-143.3,-127,-146.2,-139.4,-104.1,-113.7,-92.5,-93.76,-92.44,-89.93,-108.4,-70.68,-29.6,0,0,0,0,0,0,0,0,0,0,0,0,0,0,0,0,
801,-99.52,-131.2,12.35,-129.8,-110.1,-121.6,-113.2,-106.7,-91.96,-81.93,-71.5,-67.97,-62.6,-92.73,-29.58,-0.061,0,0,0,0,0,0,0,0,0,0,0,0,0,0,0,0,
802,-77.02,-108.4,8.45,-106.5,-105.8,-145.8,-89.99,-103.8,-85.69,-77.58,-77.17,-73.82,-61.78,-92.36,-18,10.96,0,0,0,0,0,0,0,0,0,0,0,0,0,0,0,0,
803,-81.46,-111.8,7.376,-106.1,-111.4,-151.7,-83.81,-92.7,-91.28,-80.32,-111.7,-108,-85.17,-108.5,-51.61,-15.97,0,0,0,0,0,0,0,0,0,0,0,0,0,0,0,0,
804,-77.9,-113.3,8.377,-113.2,-139.7,-89.54,-72.55,-95.54,-87.35,-76.15,-138.4,-123.8,-92.2,-124.3,-105.3,-75.01,0,0,0,0,0,0,0,0,0,0,0,0,0,0,0,0,
805,-48.34,-95.04,8.449,-92.81,-128.6,-60.32,-59.38,-88.98,-69.32,-65.04,-139.8,-110,-85.14,-132.5,-140.7,-129.8,0,0,0,0,0,0,0,0,0,0,0,0,0,0,0,0,
806,-33.78,-93.68,7.588,-71.02,-81.95,-88.25,-66.35,-62.36,-57.83,-58.4,-132.8,-101,-83.91,-127.8,-149.2,-146.1,0,0,0,0,0,0,0,0,0,0,0,0,0,0,0,0,
807,-46.38,-104.2,6.125,-63.85,-77.39,-86.23,-68.85,-53.35,-74.58,-55.2,-124.7,-106,-87.93,-111.6,-141.3,-122,0,0,0,0,0,0,0,0,0,0,0,0,0,0,0,0,
808,-67.79,-96.33,5.974,-62.68,-93.45,-79.11,-58.28,-71.81,-93.54,-56.71,-115.9,-108.6,-102.1,-101.5,-120.3,-80.67,0,0,0,0,0,0,0,0,0,0,0,0,0,0,0,0,
809,-100.2,-101.6,8.118,-82.29,-89.58,-122.7,-77.22,-92.97,-83.82,-74.05,-111.5,-108.5,-128.3,-110.5,-89.93,-48.21,0,0,0,0,0,0,0,0,0,0,0,0,0,0,0,0,
810,-132.7,-142.3,9.644,-111.7,-97.89,-164.1,-122.5,-114.3,-90.46,-102.1,-113.5,-116.6,-148.4,-126.2,-65.54,-37.99,0,0,0,0,0,0,0,0,0,0,0,0,0,0,0,0,
811,-144.9,-164.3,9.791,-123.3,-112,-157.5,-138.9,-130.2,-123.6,-109.2,-116.1,-119.2,-134.1,-112.7,-53.38,-38.3,0,0,0,0,0,0,0,0,0,0,0,0,0,0,0,0,
812,-138.7,-125.2,10.2,-116.7,-92.89,-119,-112.7,-112.2,-113.1,-80.13,-114.5,-105.2,-92.43,-74.16,-46.26,-31.61,0,0,0,0,0,0,0,0,0,0,0,0,0,0,0,0,
813,-132.7,-80.45,9.851,-102.5,-79.76,-95.19,-92.9,-89.79,-85.49,-62.04,-128.1,-112.7,-86.13,-76.83,-56.53,-37.88,0,0,0,0,0,0,0,0,0,0,0,0,0,0,0,0,
814,-145.5,-91.84,7.812,-95.54,-109.5,-106.9,-99.08,-99.63,-96.44,-79.09,-142.2,-131.1,-111.5,-109.7,-86.1,-72.14,0,0,0,0,0,0,0,0,0,0,0,0,0,0,0,0,
815,-143,-101.6,6.053,-80.28,-100.7,-90.32,-83.79,-82.57,-82.82,-75.79,-102.9,-93.12,-100.1,-98.36,-88.88,-88.19,0,0,0,0,0,0,0,0,0,0,0,0,0,0,0,0,
816,-114.2,-78.77,5.485,-62.01,-48.88,-64.68,-75.06,-56.35,-62.71,-77.86,-82.58,-78.4,-119.5,-110.9,-72.7,-78.62,0,0,0,0,0,0,0,0,0,0,0,0,0,0,0,0,
817,-164.4,-142.3,6.127,-130.8,-113.5,-158.3,-166.9,-147,-150.7,-177.7,-189.4,-196.9,-252.4,-228.4,-128.2,-125.2,0,0,0,0,0,0,0,0,0,0,0,0,0,0,0,0,
818,-302,-296.4,12.84,-272.2,-267.8,-306.3,-295.9,-293.9,-276.5,-305.8,-313.4,-318.4,-368,-330,-254.1,-237.3,0,0,0,0,0,0,0,0,0,0,0,0,0,0,0,0,
819,-372.1,-365.7,26.15,-337.6,-318.7,-346.5,-332.9,-331.5,-300.9,-339.7,-322.9,-318.1,-361,-320.5,-334.1,-309.1,0,0,0,0,0,0,0,0,0,0,0,0,0,0,0,0,
820,-351.3,-330.4,33.19,-319.5,-303.6,-323.6,-317.5,-295.3,-282.1,-321.4,-304.1,-301.3,-331.9,-288.5,-328.4,-297.1,0,0,0,0,0,0,0,0,0,0,0,0,0,0,0,0,
821,-347.2,-319.4,30.17,-316.6,-332.5,-324.7,-327,-292.3,-312.5,-324.7,-341.2,-334.4,-340.6,-294.7,-306,-266.3,0,0,0,0,0,0,0,0,0,0,0,0,0,0,0,0,
822,-357.5,-330.1,29.93,-323.5,-329.4,-320.4,-320.7,-294.5,-326.6,-317.3,-365,-337.2,-319.4,-284.3,-302.1,-254.4,0,0,0,0,0,0,0,0,0,0,0,0,0,0,0,0,
823,-311.3,-280.4,31.32,-288.6,-253.5,-275.8,-251.5,-234.2,-249.8,-246.5,-307.3,-268.3,-242,-214,-277.5,-225,0,0,0,0,0,0,0,0,0,0,0,0,0,0,0,0,
824,-211.1,-185.8,23.63,-207.5,-167.3,-185.2,-157.1,-133.2,-136.2,-144.8,-199.4,-169.5,-161.1,-128.2,-205.4,-154.8,0,0,0,0,0,0,0,0,0,0,0,0,0,0,0,0,
825,-117.9,-117.6,13.24,-114.8,-91.84,-91.09,-96.34,-67.48,-61.52,-92.57,-106.8,-96.12,-114.1,-86.15,-117.7,-76.88,0,0,0,0,0,0,0,0,0,0,0,0,0,0,0,0,
826,-71.11,-90.49,7.496,-58.45,-28.62,-53.8,-70.81,-49.96,-22.85,-80.99,-46.17,-58.87,-83.13,-64.5,-50.01,-25.22,0,0,0,0,0,0,0,0,0,0,0,0,0,0,0,0,
827,-56.75,-68.39,2.633,-38.8,6.476,-44.98,-45.36,-40.52,-0.5148,-46.32,-9.034,-33.84,-44.68,-28.03,-4.089,1.026,0,0,0,0,0,0,0,0,0,0,0,0,0,0,0,0,
828,-41.9,-35.01,-1.748,-18.37,5.161,-16.56,-10.52,-25.53,7.741,-3.656,-5.295,-22.37,-6.195,1.782,22.12,14.56,0,0,0,0,0,0,0,0,0,0,0,0,0,0,0,0,
829,-15.07,-1.2,-4.853,3.75,-7.112,9.632,18.28,-2.024,10.67,13.05,-24.44,-28.68,15.72,17.14,25.48,25.1,0,0,0,0,0,0,0,0,0,0,0,0,0,0,0,0,
830,-2.011,20.18,-7.423,10.44,20.77,10.64,27.84,20.85,0.3523,16.75,-34.59,-29.2,11.4,28.04,14.67,34.97,0,0,0,0,0,0,0,0,0,0,0,0,0,0,0,0,
831,-16.99,19.34,-7.863,11.74,60.08,9.033,24.34,23.73,-18.54,17.74,-19.34,-12.17,-5.92,31.19,8.009,41.82,0,0,0,0,0,0,0,0,0,0,0,0,0,0,0,0,
832,-20.39,6.553,-6.94,14.02,50.56,26.04,24.87,23.09,1.493,23.47,18.45,14.19,-7.251,34.04,23.12,52.92,0,0,0,0,0,0,0,0,0,0,0,0,0,0,0,0,
833,-1.771,-0.0725,-6.072,8.141,50.76,32.97,26.08,25.87,52.11,36.53,53.13,37.48,5.444,39.76,58.28,73.22,0,0,0,0,0,0,0,0,0,0,0,0,0,0,0,0,
834,3.6,0.8201,-6.726,4.651,83.48,12.93,22.06,16.91,59.85,43.81,61.98,47.3,15.83,47.13,89.82,92.62,0,0,0,0,0,0,0,0,0,0,0,0,0,0,0,0,
835,3.911,11.74,-9.328,13.88,44.78,10.15,24.44,15.76,27.98,46.91,55.45,50.15,31.68,61.53,104.4,105,0,0,0,0,0,0,0,0,0,0,0,0,0,0,0,0,
836,15.26,30.49,-9.207,20.19,-23.57,20.58,33.39,32.84,25.72,50.76,49.27,50.28,47.94,63.57,105,110,0,0,0,0,0,0,0,0,0,0,0,0,0,0,0,0,
837,17.88,33.95,-9.169,14.17,8.066,-2.017,35.71,41.3,40.98,48.18,33.03,28.78,40.98,43.32,86.47,98.71,0,0,0,0,0,0,0,0,0,0,0,0,0,0,0,0,
838,6.939,19.52,-11.45,1.37,54.73,-17.07,33.17,38.66,15.47,45.35,-5.96,-7.74,28.1,37.48,47.18,70.14,0,0,0,0,0,0,0,0,0,0,0,0,0,0,0,0,
839,-0.8841,22.14,-2.795,-1.136,33.24,19.27,42.9,49.14,-21.19,55.36,-40.7,-19.04,37.04,52.11,8.527,42.77,0,0,0,0,0,0,0,0,0,0,0,0,0,0,0,0,
840,5.129,39.86,10.66,16.68,34.21,46.72,56.85,62.6,-17.8,65.36,-39.53,-7.915,35.38,41.06,-7.543,30.13,0,0,0,0,0,0,0,0,0,0,0,0,0,0,0,0,
841,15.81,23.22,6.239,20.82,49.13,24.07,46.24,45.06,6.482,55.7,-10.8,4.226,7.798,8.909,4.158,30.48,0,0,0,0,0,0,0,0,0,0,0,0,0,0,0,0,
842,21.32,-8.527,-4.691,3.948,30.2,13.76,31.07,19,34.19,45.13,31.16,32.35,3.871,7.138,40.32,42.9,0,0,0,0,0,0,0,0,0,0,0,0,0,0,0,0,
843,29.06,6.514,-4.503,14.22,44.48,45.37,41.71,27.14,49.25,51.44,59.11,51.51,20.15,23.61,78.1,60.44,0,0,0,0,0,0,0,0,0,0,0,0,0,0,0,0,
844,29.07,34.27,-4.734,32.57,57.65,49.82,50.04,42.16,18.86,54.4,42.98,25.52,15.36,21.31,83.81,63.2,0,0,0,0,0,0,0,0,0,0,0,0,0,0,0,0,
845,17.46,29.7,-7.822,16.25,11.42,22.52,47.66,39.78,-4.215,57.03,24.36,5.863,12.79,21.97,63.03,49.73,0,0,0,0,0,0,0,0,0,0,0,0,0,0,0,0,
846,18.29,32.61,-5.459,16.8,-0.0465,34.54,61.12,47.9,29.13,72.01,37.18,18.57,23.01,37.73,49.61,44.23,0,0,0,0,0,0,0,0,0,0,0,0,0,0,0,0,
847,22.08,52.25,-5.509,51.56,28.69,59.51,75.43,62.32,41.54,74.95,39.16,20.87,21.58,47.11,51.94,59.19,0,0,0,0,0,0,0,0,0,0,0,0,0,0,0,0,
848,21.94,58.51,-10.4,51.8,19.21,52.88,77.7,60.76,23.08,70.37,32.39,24.58,28.45,54.74,63.13,83.28,0,0,0,0,0,0,0,0,0,0,0,0,0,0,0,0,
849,44.12,62.11,-11.98,26.71,12.6,54.82,82.62,54.62,45.11,78.45,49.6,44.65,47.92,61.61,78.69,99.69,0,0,0,0,0,0,0,0,0,0,0,0,0,0,0,0,
850,62.76,63.68,-12.22,31.37,11.45,57.8,75.26,45.48,47.97,72.68,52.87,39.23,42.92,50.82,81.39,98.02,0,0,0,0,0,0,0,0,0,0,0,0,0,0,0,0,
851,40.53,44.49,-12.32,37.46,-26.51,33.09,48.47,23.41,6.228,51.2,28.31,12.51,22.32,34.48,62.81,81.04,0,0,0,0,0,0,0,0,0,0,0,0,0,0,0,0,
852,14.38,24.1,-8.747,24.92,-34.64,24.75,42.1,6.816,19.26,49.35,25.76,4.782,22.26,33.23,41.44,64.65,0,0,0,0,0,0,0,0,0,0,0,0,0,0,0,0,
853,23.03,27.16,-7.419,29.16,-18.57,41.48,67.64,13.83,38.64,63.11,37.5,6.031,38.29,40.12,28.47,60.27,0,0,0,0,0,0,0,0,0,0,0,0,0,0,0,0,
854,47.13,42.22,-10.82,40,-54.07,51.31,86.61,30.1,-1.007,72.49,26.11,-0.2232,45.17,40,18.14,60.39,0,0,0,0,0,0,0,0,0,0,0,0,0,0,0,0,
855,55.18,49.33,-10.92,34.18,-67.11,56.11,84.86,37.5,10.82,74.62,18.37,4.647,38.02,32.67,14.22,54.01,0,0,0,0,0,0,0,0,0,0,0,0,0,0,0,0,
856,42.77,43,-8.167,30.07,-15.04,46.96,74.09,35.63,53.95,66.9,25.74,19.13,26.52,27.71,21.68,45.68,0,0,0,0,0,0,0,0,0,0,0,0,0,0,0,0,
