%OpenBCI Raw EXG Data
%Number of channels = 16
%Sample Rate = 125 Hz
%Board = OpenBCI_GUI$BoardCytonSerialDaisy
Sample Index,EXG Channel 0,EXG Channel 1,EXG Channel 2,EXG Channel 3,EXG Channel 4,EXG Channel 5,EXG Channel 6,EXG Channel 7,EXG Channel 8,EXG Channel 9,EXG Channel 10,EXG Channel 11,EXG Channel 12,EXG Channel 13,EXG Channel 14,EXG Channel 15,Accel Channel 0,Accel Channel 1,Accel Channel 2,Other,Other.1,Other.2,Other.3,Other.4,Other.5,Other.6,Analog Channel 0,Analog Channel 1,Analog Channel 2,Timestamp,Other.7,Timestamp (Formatted),Annotations
1,-0.0,-0.0,0.0,0.0,0.0,-0.0,0.0,-0.0,-0.0,0.0,-0.0,0.0,0.0,-0.0,-0.0,0.0,0,0,0,0,0,0,0,0,0,0,0,0,0,0,0,0,T0
2,80.66,50.17,4.841,-49.02,-26.58,-19.99,-37.41,-36.67,82.81,101.0,-72.38,-110.1,-74.66,-88.03,-110.6,-126.0,0,0,0,0,0,0,0,0,0,0,0,0,0,0,0,0,
3,61.17,36.02,26.35,-60.4,-35.93,-21.43,-51.74,-3.527,24.83,45.56,-47.64,-68.77,-47.18,-56.67,-65.57,-67.98,0,0,0,0,0,0,0,0,0,0,0,0,0,0,0,0,
4,69.14,31.57,88.07,-22.01,-29.59,-11.98,-70.68,-0.3997,25.55,41.6,-44.8,-55.05,-44.67,-55.17,-67.63,-59.26,0,0,0,0,0,0,0,0,0,0,0,0,0,0,0,0,
5,76.41,33.06,90.93,14.29,-48.01,-8.566,-78.65,-21.83,45.4,62.71,-61.53,-72.75,-60.53,-76.42,-85.91,-83.28,0,0,0,0,0,0,0,0,0,0,0,0,0,0,0,0,
6,41.03,26.57,21.23,11.51,-56.53,0.5043,-48.47,2.163,16.44,31.31,-50.56,-44.59,-39.87,-52.75,-48.77,-45.86,0,0,0,0,0,0,0,0,0,0,0,0,0,0,0,0,
7,26.84,23.11,-30.23,-16.95,-39.27,-6.931,-42.36,1.183,27.15,34.99,-80.75,-58.94,-62.92,-65.92,-78.74,-69.56,0,0,0,0,0,0,0,0,0,0,0,0,0,0,0,0,
8,30.64,13.11,-18.09,-26.26,-38.6,-25.17,-57.38,-25.8,21.74,38.23,-90.54,-73.68,-80.42,-76.79,-95.41,-86.03,0,0,0,0,0,0,0,0,0,0,0,0,0,0,0,0,
9,61.19,13.1,59.47,-33.92,-44.62,-22.46,-36.4,-25.8,10.88,38.57,-50.46,-54.48,-55.25,-59.02,-70.98,-55.72,0,0,0,0,0,0,0,0,0,0,0,0,0,0,0,0,
10,69.41,-5.94,87.01,-78.54,-57.22,-38.17,-39.36,-26.58,19.4,42.99,-64.93,-64.03,-71.77,-76.46,-100.2,-67.73,0,0,0,0,0,0,0,0,0,0,0,0,0,0,0,0,
11,28.93,-5.693,26.97,-51.8,-57.0,-39.05,-79.23,0.3508,-1.134,24.75,-79.72,-57.75,-76.22,-71.93,-97.87,-62.5,0,0,0,0,0,0,0,0,0,0,0,0,0,0,0,0,
12,21.51,54.59,8.795,29.81,-33.35,1.217,-80.31,20.05,8.619,37.13,-51.36,-56.16,-46.96,-52.95,-66.93,-54.01,0,0,0,0,0,0,0,0,0,0,0,0,0,0,0,0,
13,27.7,61.0,39.49,15.02,-23.37,11.13,-36.37,-21.89,37.24,49.92,-43.23,-79.88,-42.93,-60.58,-62.98,-71.06,0,0,0,0,0,0,0,0,0,0,0,0,0,0,0,0,
14,54.48,31.11,60.48,-4.843,-1.443,19.23,5.071,-18.6,51.51,53.68,-32.48,-52.6,-23.65,-36.15,-30.36,-42.17,0,0,0,0,0,0,0,0,0,0,0,0,0,0,0,0,
15,121.1,46.65,78.56,11.88,7.074,28.21,7.918,21.15,73.05,80.87,-20.59,-24.27,-8.044,-21.09,-9.535,-16.57,0,0,0,0,0,0,0,0,0,0,0,0,0,0,0,0,
16,117.7,58.49,90.44,-29.76,-19.34,0.1034,22.9,24.09,55.95,72.05,-8.997,-20.83,-9.515,-31.51,-10.19,-12.61,0,0,0,0,0,0,0,0,0,0,0,0,0,0,0,0,
17,72.33,67.62,85.74,-34.18,-6.339,1.075,59.68,26.78,49.8,59.24,13.96,-14.48,8.182,-22.3,-6.981,-9.937,0,0,0,0,0,0,0,0,0,0,0,0,0,0,0,0,
18,74.47,56.98,71.21,28.16,0.5368,16.27,22.25,1.391,77.96,64.05,-14.61,-47.93,-12.21,-42.08,-47.45,-52.95,0,0,0,0,0,0,0,0,0,0,0,0,0,0,0,0,
19,74.18,13.0,82.06,48.23,-25.49,10.95,-31.27,-28.04,55.89,43.09,-46.54,-65.53,-43.96,-64.62,-73.55,-80.54,0,0,0,0,0,0,0,0,0,0,0,0,0,0,0,0,
20,43.12,8.671,80.95,12.42,-22.21,7.787,-26.71,-10.04,30.78,42.19,-31.14,-50.32,-37.3,-59.79,-62.98,-67.88,0,0,0,0,0,0,0,0,0,0,0,0,0,0,0,0,
21,14.15,24.8,22.85,-33.25,-23.26,-13.83,-45.35,-3.689,28.34,45.64,-36.88,-61.69,-43.58,-65.94,-74.32,-61.12,0,0,0,0,0,0,0,0,0,0,0,0,0,0,0,0,
22,27.89,29.61,11.86,-29.87,-28.35,-16.44,-91.49,-5.566,18.82,36.03,-50.63,-55.94,-43.79,-54.7,-71.65,-41.14,0,0,0,0,0,0,0,0,0,0,0,0,0,0,0,0,
23,56.23,28.5,46.44,-16.34,-33.79,-4.753,-105.5,-14.29,32.1,42.9,-53.2,-48.69,-33.88,-50.22,-56.71,-37.49,0,0,0,0,0,0,0,0,0,0,0,0,0,0,0,0,
24,37.52,14.4,30.75,-42.06,-57.74,-25.86,-43.85,-33.36,33.62,27.41,-53.48,-62.47,-41.24,-67.51,-59.56,-50.49,0,0,0,0,0,0,0,0,0,0,0,0,0,0,0,0,
25,23.22,25.9,22.39,-36.82,-38.99,-17.44,46.85,-15.13,15.13,20.69,-39.32,-58.9,-42.64,-62.25,-73.51,-50.06,0,0,0,0,0,0,0,0,0,0,0,0,0,0,0,0,
26,55.49,41.79,47.83,-24.12,-15.62,2.494,26.62,-9.628,14.28,35.75,-49.6,-71.4,-52.21,-69.55,-95.45,-66.55,0,0,0,0,0,0,0,0,0,0,0,0,0,0,0,0,
27,91.2,38.73,60.97,-27.56,-34.51,-9.156,-36.75,-19.55,15.07,22.86,-70.4,-83.35,-61.65,-80.35,-89.27,-72.58,0,0,0,0,0,0,0,0,0,0,0,0,0,0,0,0,
28,78.49,33.06,44.98,11.76,-41.09,-3.884,-42.92,-9.961,11.32,22.1,-68.27,-74.02,-61.76,-72.34,-76.53,-68.2,0,0,0,0,0,0,0,0,0,0,0,0,0,0,0,0,
29,24.19,-3.65,16.01,31.69,-43.39,3.383,-75.49,-20.97,-1.817,31.2,-52.52,-74.5,-62.7,-71.71,-77.94,-72.2,0,0,0,0,0,0,0,0,0,0,0,0,0,0,0,0,
30,23.24,-4.157,35.34,0.2696,-37.54,1.181,-94.88,-7.136,4.553,31.71,-26.0,-65.3,-39.94,-57.6,-62.91,-51.88,0,0,0,0,0,0,0,0,0,0,0,0,0,0,0,0,
31,48.05,40.41,57.57,-19.95,-22.3,-1.836,-52.47,18.55,34.15,37.1,-44.06,-69.86,-40.79,-56.02,-72.04,-46.74,0,0,0,0,0,0,0,0,0,0,0,0,0,0,0,0,
32,33.59,22.0,42.94,-17.71,-30.68,-10.94,-24.38,-2.945,20.42,22.78,-74.13,-78.54,-62.46,-64.47,-81.01,-47.45,0,0,0,0,0,0,0,0,0,0,0,0,0,0,0,0,
33,63.58,11.22,46.35,-5.202,-27.82,-0.0186,-4.581,2.248,9.75,33.53,-45.99,-54.46,-39.15,-40.81,-56.93,-23.31,0,0,0,0,0,0,0,0,0,0,0,0,0,0,0,0,
34,78.51,50.71,17.57,5.536,-15.92,8.037,12.02,21.35,38.8,62.02,-40.42,-59.15,-28.84,-43.23,-67.15,-33.64,0,0,0,0,0,0,0,0,0,0,0,0,0,0,0,0,
35,22.57,54.36,5.949,28.23,-16.63,11.71,-0.8362,6.377,41.61,45.91,-54.52,-70.17,-41.93,-60.75,-74.52,-47.39,0,0,0,0,0,0,0,0,0,0,0,0,0,0,0,0,
36,40.35,38.62,81.56,21.24,-25.41,17.62,-36.65,-1.184,25.38,40.13,-34.06,-49.3,-35.49,-50.81,-49.73,-35.29,0,0,0,0,0,0,0,0,0,0,0,0,0,0,0,0,
37,84.17,23.09,76.66,-59.82,-38.15,-17.7,-64.85,-3.797,19.11,44.75,-21.02,-49.23,-26.95,-51.13,-43.16,-34.03,0,0,0,0,0,0,0,0,0,0,0,0,0,0,0,0,
38,52.07,13.61,11.91,-71.72,-6.096,-25.97,-30.93,0.853,41.13,34.98,-14.23,-56.72,-9.525,-48.8,-37.73,-27.59,0,0,0,0,0,0,0,0,0,0,0,0,0,0,0,0,
39,39.36,27.64,47.16,23.01,17.07,19.32,5.811,6.294,64.41,47.06,-30.29,-57.3,-15.8,-45.65,-37.4,-27.87,0,0,0,0,0,0,0,0,0,0,0,0,0,0,0,0,
40,58.24,31.15,86.42,62.61,-26.97,22.93,-21.72,-8.346,26.12,48.01,-57.79,-57.51,-46.68,-58.93,-45.85,-35.0,0,0,0,0,0,0,0,0,0,0,0,0,0,0,0,0,
41,49.15,27.6,49.68,26.03,-41.83,-2.399,-45.58,-21.78,-2.866,29.99,-43.11,-58.17,-47.54,-68.49,-48.28,-37.12,0,0,0,0,0,0,0,0,0,0,0,0,0,0,0,0,
42,48.46,32.62,18.89,-18.45,-26.98,-14.63,-36.38,-32.93,11.17,22.44,-41.99,-73.75,-46.95,-74.0,-54.65,-50.66,0,0,0,0,0,0,0,0,0,0,0,0,0,0,0,0,
43,84.38,44.07,40.98,-24.35,-26.79,-11.48,-21.13,-15.33,15.07,31.41,-51.62,-66.6,-41.47,-58.31,-43.16,-44.53,0,0,0,0,0,0,0,0,0,0,0,0,0,0,0,0,
44,85.99,45.46,55.42,14.57,-21.95,3.532,-48.59,17.16,32.17,50.54,-37.12,-56.99,-31.99,-49.51,-45.95,-42.38,0,0,0,0,0,0,0,0,0,0,0,0,0,0,0,0,
45,38.1,16.8,27.18,19.35,-32.76,-1.808,-101.8,3.818,33.4,34.32,-42.67,-69.64,-49.3,-61.17,-69.04,-55.81,0,0,0,0,0,0,0,0,0,0,0,0,0,0,0,0,
46,35.31,17.96,27.67,-20.89,-27.17,-13.99,-60.45,-9.127,14.73,21.94,-50.11,-49.53,-44.09,-40.69,-59.99,-38.29,0,0,0,0,0,0,0,0,0,0,0,0,0,0,0,0,
47,31.47,30.78,32.65,-46.35,-16.42,-26.54,7.809,-9.162,21.21,39.51,-61.42,-46.44,-45.8,-43.56,-71.99,-44.23,0,0,0,0,0,0,0,0,0,0,0,0,0,0,0,0,
48,-4.668,-2.261,18.51,-26.75,-52.85,-35.35,-10.72,-18.86,-0.3938,16.56,-75.12,-70.91,-71.64,-71.29,-87.71,-61.08,0,0,0,0,0,0,0,0,0,0,0,0,0,0,0,0,
49,37.22,2.717,66.87,19.05,-56.8,-5.238,-32.31,-9.556,-14.27,11.75,-41.81,-53.43,-43.38,-45.43,-50.33,-33.26,0,0,0,0,0,0,0,0,0,0,0,0,0,0,0,0,
50,59.79,28.49,90.9,24.32,-16.47,13.79,-33.74,-11.14,29.19,49.06,-22.37,-44.73,-13.68,-31.33,-37.23,-26.1,0,0,0,0,0,0,0,0,0,0,0,0,0,0,0,0,
51,15.99,17.39,27.99,2.499,-4.303,1.594,-29.55,-9.45,48.8,42.69,-42.58,-56.14,-29.42,-49.09,-46.62,-36.85,0,0,0,0,0,0,0,0,0,0,0,0,0,0,0,0,
52,58.79,34.05,1.783,-22.54,-19.16,-4.138,-14.49,17.62,33.57,28.19,-37.5,-54.41,-34.63,-45.41,-34.99,-33.72,0,0,0,0,0,0,0,0,0,0,0,0,0,0,0,0,
53,100.8,45.42,31.57,-54.91,-26.84,-9.339,-33.92,18.58,25.2,36.26,-4.836,-51.35,-15.9,-31.45,-27.86,-29.77,0,0,0,0,0,0,0,0,0,0,0,0,0,0,0,0,
54,55.89,27.93,54.37,-11.34,4.062,8.75,-23.44,8.07,43.54,49.22,10.05,-33.81,-0.0362,-12.71,-26.65,-16.67,0,0,0,0,0,0,0,0,0,0,0,0,0,0,0,0,
55,30.8,39.03,44.83,58.43,14.0,26.23,30.39,-6.705,60.02,60.39,-25.78,-30.13,-23.29,-14.79,-36.46,-22.51,0,0,0,0,0,0,0,0,0,0,0,0,0,0,0,0,
56,50.95,49.85,58.42,44.72,-21.58,18.65,8.223,-6.84,31.69,48.75,-43.34,-38.07,-38.05,-25.25,-38.07,-31.29,0,0,0,0,0,0,0,0,0,0,0,0,0,0,0,0,
57,96.05,38.54,121.5,21.53,-18.7,28.46,-54.07,31.62,32.74,52.42,-15.95,-32.04,-13.54,-16.3,-37.62,-29.26,0,0,0,0,0,0,0,0,0,0,0,0,0,0,0,0,
58,88.85,29.08,96.7,8.669,-8.93,11.14,-54.09,21.7,56.8,58.27,-30.72,-49.77,-27.11,-31.74,-63.32,-52.63,0,0,0,0,0,0,0,0,0,0,0,0,0,0,0,0,
59,30.87,48.79,29.17,1.624,-7.313,-11.19,-10.46,2.675,31.36,37.46,-35.93,-54.99,-36.07,-39.32,-53.55,-51.29,0,0,0,0,0,0,0,0,0,0,0,0,0,0,0,0,
60,66.37,77.06,55.35,45.8,27.12,32.66,17.39,39.81,34.77,52.42,-1.636,-39.43,-5.301,-21.94,-29.22,-30.43,0,0,0,0,0,0,0,0,0,0,0,0,0,0,0,0,
61,111.8,52.81,56.09,49.19,29.47,48.34,25.56,29.97,64.45,69.91,-3.924,-51.98,-9.516,-29.11,-44.89,-34.96,0,0,0,0,0,0,0,0,0,0,0,0,0,0,0,0,
62,62.95,32.59,31.7,-3.79,7.778,14.26,24.46,-2.306,53.76,58.18,-8.38,-52.13,-20.37,-27.95,-49.39,-25.25,0,0,0,0,0,0,0,0,0,0,0,0,0,0,0,0,
63,46.44,46.36,54.27,5.254,0.0484,14.27,-19.02,9.292,42.35,66.79,-19.82,-41.48,-21.46,-17.8,-47.48,-19.94,0,0,0,0,0,0,0,0,0,0,0,0,0,0,0,0,
64,75.29,37.09,22.83,40.35,-11.2,34.24,-39.18,15.68,40.86,73.61,-42.72,-42.94,-28.09,-21.26,-43.27,-26.01,0,0,0,0,0,0,0,0,0,0,0,0,0,0,0,0,
65,65.6,41.0,0.1551,2.074,-2.506,23.66,21.0,19.63,43.54,66.33,-25.84,-46.47,-23.24,-26.37,-32.84,-25.15,0,0,0,0,0,0,0,0,0,0,0,0,0,0,0,0,
66,37.17,56.7,62.46,-35.54,-1.929,-9.591,23.26,25.35,32.76,53.25,-33.11,-57.58,-36.43,-36.46,-50.28,-40.77,0,0,0,0,0,0,0,0,0,0,0,0,0,0,0,0,
67,44.11,57.75,82.87,29.51,-7.538,6.162,-58.06,28.17,14.77,56.69,-49.73,-40.86,-33.57,-20.1,-52.11,-42.33,0,0,0,0,0,0,0,0,0,0,0,0,0,0,0,0,
68,68.67,57.07,34.13,68.4,7.735,35.84,-78.5,31.23,42.05,83.85,-27.45,-36.18,-15.08,-18.53,-50.08,-44.41,0,0,0,0,0,0,0,0,0,0,0,0,0,0,0,0,
69,46.14,18.97,3.705,2.417,-7.443,0.1011,-2.501,14.96,43.57,51.05,-33.2,-65.6,-40.24,-54.27,-63.01,-53.68,0,0,0,0,0,0,0,0,0,0,0,0,0,0,0,0,
70,21.37,0.6119,10.84,-6.796,-12.8,-5.931,59.83,4.914,6.801,18.22,-39.36,-37.39,-39.81,-28.89,-31.4,-21.11,0,0,0,0,0,0,0,0,0,0,0,0,0,0,0,0,
71,43.74,34.67,10.26,18.85,2.444,20.18,-9.16,1.946,23.74,61.79,-25.77,-11.73,-16.21,-0.4122,-16.34,-14.24,0,0,0,0,0,0,0,0,0,0,0,0,0,0,0,0,
72,67.72,40.27,17.62,-7.249,-20.88,1.695,-84.39,4.787,39.14,59.57,-31.83,-35.19,-25.61,-28.2,-36.2,-33.48,0,0,0,0,0,0,0,0,0,0,0,0,0,0,0,0,
73,83.51,40.63,66.74,22.04,-19.98,15.0,-19.36,27.66,31.32,32.32,-27.97,-23.87,-17.41,-22.81,-26.67,-13.75,0,0,0,0,0,0,0,0,0,0,0,0,0,0,0,0,
74,63.74,35.45,77.8,56.81,-0.3846,36.13,16.23,22.2,42.16,53.66,-24.33,-14.42,-10.87,-12.39,-31.56,-10.58,0,0,0,0,0,0,0,0,0,0,0,0,0,0,0,0,
75,29.87,20.12,50.34,19.14,-15.61,10.18,-34.79,18.38,32.77,52.1,-33.33,-27.06,-27.11,-28.71,-45.28,-20.79,0,0,0,0,0,0,0,0,0,0,0,0,0,0,0,0,
76,52.42,53.71,50.89,0.1689,-19.13,4.16,-29.61,42.24,17.18,39.44,-38.28,-26.81,-29.33,-33.49,-39.69,-20.92,0,0,0,0,0,0,0,0,0,0,0,0,0,0,0,0,
77,52.2,48.45,39.02,-7.16,-8.976,3.428,1.657,25.66,22.94,36.82,-34.59,-31.02,-23.94,-35.62,-38.39,-29.72,0,0,0,0,0,0,0,0,0,0,0,0,0,0,0,0,
78,23.84,-2.93,26.82,-18.65,-5.887,-3.753,-1.613,3.223,36.7,32.55,-13.58,-22.85,-14.55,-25.96,-28.91,-20.25,0,0,0,0,0,0,0,0,0,0,0,0,0,0,0,0,
79,52.35,15.11,13.29,6.583,-17.94,7.486,-26.37,10.48,38.63,45.98,-24.55,-17.0,-23.83,-22.26,-33.67,-18.14,0,0,0,0,0,0,0,0,0,0,0,0,0,0,0,0,
80,57.89,43.87,-40.05,28.1,-30.47,9.308,-45.67,12.52,17.81,41.38,-44.08,-25.95,-36.55,-31.9,-40.72,-24.84,0,0,0,0,0,0,0,0,0,0,0,0,0,0,0,0,
81,12.45,30.94,-42.43,7.605,-10.13,2.815,-33.75,2.744,27.73,26.57,-17.19,-20.38,-20.25,-22.02,-22.38,-8.646,0,0,0,0,0,0,0,0,0,0,0,0,0,0,0,0,
82,7.269,19.97,20.29,-19.69,-6.457,-4.379,-30.54,-15.19,46.43,31.87,-19.87,-19.02,-23.86,-15.69,-27.36,-3.838,0,0,0,0,0,0,0,0,0,0,0,0,0,0,0,0,
83,50.0,25.44,71.46,11.79,-12.93,7.262,-32.75,8.299,28.02,39.22,-35.12,-17.01,-25.28,-11.33,-34.96,-0.8282,0,0,0,0,0,0,0,0,0,0,0,0,0,0,0,0,
84,80.45,40.25,97.3,41.42,4.235,27.04,-24.27,43.64,33.98,46.6,-21.95,-19.6,-7.431,-12.18,-27.78,-1.488,0,0,0,0,0,0,0,0,0,0,0,0,0,0,0,0,
85,65.13,34.15,73.79,-14.73,-10.27,1.635,-24.81,9.922,38.96,32.24,-37.36,-35.19,-21.15,-29.87,-36.15,-19.1,0,0,0,0,0,0,0,0,0,0,0,0,0,0,0,0,
86,47.06,29.24,34.55,-26.09,-16.44,-9.789,9.181,-10.33,24.52,23.26,-37.2,-24.03,-20.43,-16.39,-30.91,-12.15,0,0,0,0,0,0,0,0,0,0,0,0,0,0,0,0,
87,43.91,36.56,33.71,31.49,8.444,15.42,40.05,15.87,46.7,48.49,-12.83,-16.04,-0.1929,0.9042,-14.79,-1.763,0,0,0,0,0,0,0,0,0,0,0,0,0,0,0,0,
88,27.34,19.04,30.65,11.75,4.714,5.983,8.577,17.91,56.5,48.6,-15.43,-18.37,-3.001,-4.745,-5.628,0.3179,0,0,0,0,0,0,0,0,0,0,0,0,0,0,0,0,
89,15.38,18.66,-8.538,-27.7,2.645,-9.461,-26.77,3.441,45.61,36.51,-15.69,-10.51,-6.233,-3.106,-7.861,5.689,0,0,0,0,0,0,0,0,0,0,0,0,0,0,0,0,
90,11.62,26.91,-33.17,0.7853,4.99,1.146,-37.0,-1.365,48.73,37.55,-15.69,-22.54,-11.45,-9.254,-18.8,-0.3403,0,0,0,0,0,0,0,0,0,0,0,0,0,0,0,0,
91,31.92,7.67,28.35,32.55,-1.317,18.53,-9.962,26.57,42.41,39.42,-7.888,-16.96,-5.755,-4.271,-0.5997,9.042,0,0,0,0,0,0,0,0,0,0,0,0,0,0,0,0,
92,61.16,18.18,74.31,23.4,-5.67,20.64,4.347,34.3,34.9,52.87,1.955,-13.15,-3.455,-5.631,1.112,1.532,0,0,0,0,0,0,0,0,0,0,0,0,0,0,0,0,
93,29.63,33.61,5.662,-8.854,-32.77,-8.486,-49.43,-23.27,14.1,29.27,-28.51,-52.26,-34.04,-45.07,-26.7,-28.69,0,0,0,0,0,0,0,0,0,0,0,0,0,0,0,0,
94,5.727,4.845,-21.68,-37.62,-39.24,-29.35,-54.15,-36.37,-6.867,-10.28,-45.24,-52.44,-40.31,-53.05,-17.4,-13.55,0,0,0,0,0,0,0,0,0,0,0,0,0,0,0,0,
95,17.25,-20.06,3.74,-59.48,-29.23,-38.74,-18.71,-9.983,1.061,-3.881,-35.84,-35.71,-35.95,-43.69,-20.66,-5.441,0,0,0,0,0,0,0,0,0,0,0,0,0,0,0,0,
96,-5.621,-10.27,-31.41,-41.32,-49.94,-40.65,-47.03,-24.87,-8.16,-3.554,-38.88,-49.85,-49.01,-54.03,-38.17,-18.65,0,0,0,0,0,0,0,0,0,0,0,0,0,0,0,0,
97,1.453,0.9241,-29.9,3.968,-53.24,-18.55,-48.71,-34.49,-19.69,-11.63,-40.73,-47.89,-46.44,-51.27,-23.89,-4.48,0,0,0,0,0,0,0,0,0,0,0,0,0,0,0,0,
98,23.69,-23.31,0.4407,-22.67,-46.51,-28.71,-19.68,-28.2,-18.09,-11.66,-45.29,-41.08,-49.69,-49.74,-24.79,2.388,0,0,0,0,0,0,0,0,0,0,0,0,0,0,0,0,
99,-1.657,-20.84,-13.07,-52.84,-33.89,-38.58,-46.64,-11.08,-13.64,-9.079,-31.88,-27.42,-37.1,-34.2,-17.97,7.981,0,0,0,0,0,0,0,0,0,0,0,0,0,0,0,0,
100,2.02,26.69,3.197,-11.01,-8.51,-5.374,-67.75,-2.312,21.13,18.39,-22.57,-19.27,-18.12,-19.8,-4.796,-0.1417,0,0,0,0,0,0,0,0,0,0,0,0,0,0,0,0,
101,11.62,13.42,19.91,-13.21,-30.63,-8.302,-32.06,-32.36,16.63,13.61,-47.63,-42.83,-42.79,-43.71,-28.18,-35.2,0,0,0,0,0,0,0,0,0,0,0,0,0,0,0,0,
102,-6.284,-18.29,-5.067,-40.7,-36.53,-14.8,4.743,-22.2,-18.39,-5.905,-33.41,-40.48,-38.53,-40.82,-33.65,-32.81,0,0,0,0,0,0,0,0,0,0,0,0,0,0,0,0,
103,16.63,5.063,-13.72,-3.162,-5.989,5.001,-12.5,11.25,10.31,21.49,-13.5,-27.44,-14.92,-25.06,-25.41,-20.05,0,0,0,0,0,0,0,0,0,0,0,0,0,0,0,0,
104,42.83,16.04,2.388,25.39,-23.46,-8.323,-25.85,2.363,24.32,23.5,-29.62,-27.17,-27.18,-30.06,-24.2,-19.28,0,0,0,0,0,0,0,0,0,0,0,0,0,0,0,0,
105,10.28,4.501,8.966,-13.64,-21.84,-17.59,12.62,9.975,3.93,16.78,-17.82,-10.6,-21.16,-13.6,-14.09,-5.602,0,0,0,0,0,0,0,0,0,0,0,0,0,0,0,0,
106,-31.07,-14.65,-9.279,-46.96,9.698,-9.102,-1.342,19.34,16.39,38.23,-25.03,-17.81,-18.28,-13.01,-26.4,-13.11,0,0,0,0,0,0,0,0,0,0,0,0,0,0,0,0,
107,1.909,-17.07,5.428,7.05,-7.896,-2.468,-69.7,7.901,20.8,24.23,-54.35,-32.84,-37.32,-32.24,-35.58,-19.9,0,0,0,0,0,0,0,0,0,0,0,0,0,0,0,0,
108,63.63,29.75,42.76,43.42,-34.51,6.712,-68.64,8.056,6.859,4.555,-39.96,-21.51,-37.05,-29.26,-22.56,-11.67,0,0,0,0,0,0,0,0,0,0,0,0,0,0,0,0,
109,44.35,45.89,16.19,-15.61,-33.22,-4.701,-18.5,-3.928,-5.298,13.24,-28.15,-14.62,-29.87,-21.76,-15.38,-12.65,0,0,0,0,0,0,0,0,0,0,0,0,0,0,0,0,
110,10.06,16.82,-6.663,-9.947,-14.9,-2.847,-22.13,-13.42,-4.027,25.17,-27.71,-13.88,-19.08,-17.55,-10.88,-7.565,0,0,0,0,0,0,0,0,0,0,0,0,0,0,0,0,
111,21.92,1.301,2.17,24.95,-8.231,4.865,-63.43,-12.0,14.09,23.58,-23.51,-26.07,-19.2,-27.97,-23.48,-14.9,0,0,0,0,0,0,0,0,0,0,0,0,0,0,0,0,
112,17.11,-12.54,-11.36,-42.36,-18.39,-22.52,-23.07,-18.91,9.31,4.539,-34.61,-24.27,-28.88,-30.24,-27.23,-21.77,0,0,0,0,0,0,0,0,0,0,0,0,0,0,0,0,
113,-3.499,-12.9,0.2994,-49.63,-12.59,-25.46,43.67,-22.3,5.808,10.41,-36.15,-2.822,-19.28,-12.65,-13.73,-18.46,0,0,0,0,0,0,0,0,0,0,0,0,0,0,0,0,
114,-25.65,-4.06,5.193,18.45,-19.2,-10.12,-12.96,-26.93,15.1,16.64,-17.86,-17.65,-16.07,-23.3,-26.3,-36.86,0,0,0,0,0,0,0,0,0,0,0,0,0,0,0,0,
115,-16.47,-1.221,-14.97,1.972,-23.45,-13.93,-63.6,3.237,10.44,2.189,4.054,-19.15,-11.21,-21.52,-21.51,-30.92,0,0,0,0,0,0,0,0,0,0,0,0,0,0,0,0,
116,34.1,16.98,12.79,-23.29,-2.115,-6.861,-19.06,47.3,25.62,26.68,-9.03,-2.213,-8.441,-4.201,-6.503,-14.26,0,0,0,0,0,0,0,0,0,0,0,0,0,0,0,0,
117,48.38,28.27,42.26,8.47,-13.85,2.771,-14.59,24.41,29.67,37.03,-45.25,-24.55,-31.23,-25.11,-22.87,-27.9,0,0,0,0,0,0,0,0,0,0,0,0,0,0,0,0,
118,48.64,30.02,33.92,10.63,-15.01,7.91,-21.52,-5.342,5.534,14.37,-30.84,-27.52,-27.13,-27.12,-20.75,-20.46,0,0,0,0,0,0,0,0,0,0,0,0,0,0,0,0,
119,31.09,22.95,5.478,-11.76,18.72,5.721,18.4,2.49,9.97,26.84,-9.982,-15.07,-10.84,-11.31,-11.65,-8.563,0,0,0,0,0,0,0,0,0,0,0,0,0,0,0,0,
120,-21.19,0.7926,-3.317,11.64,15.82,5.681,27.0,11.49,21.13,37.26,-19.1,-21.95,-12.54,-13.0,-12.06,-7.408,0,0,0,0,0,0,0,0,0,0,0,0,0,0,0,0,
121,17.92,-1.087,49.48,29.39,-1.718,23.92,-24.09,14.31,23.48,42.06,-8.384,-14.7,-2.367,-2.424,-2.925,3.323,0,0,0,0,0,0,0,0,0,0,0,0,0,0,0,0,
122,65.36,-2.969,49.69,-19.38,-6.399,7.116,-68.54,1.238,22.45,54.92,-1.68,-14.93,-3.332,-4.043,-5.818,-3.165,0,0,0,0,0,0,0,0,0,0,0,0,0,0,0,0,
123,6.69,12.26,-16.56,-28.88,6.565,-13.38,-16.57,9.555,16.2,40.91,-3.597,-20.26,-6.13,-14.83,-2.809,-7.126,0,0,0,0,0,0,0,0,0,0,0,0,0,0,0,0,
124,8.986,65.34,1.003,33.21,27.2,20.3,29.3,23.53,31.18,32.61,0.5348,-18.48,2.004,-12.7,0.7699,-8.816,0,0,0,0,0,0,0,0,0,0,0,0,0,0,0,0,
125,79.03,55.39,55.22,49.48,5.84,34.7,-40.73,-7.851,34.55,36.27,-4.751,-25.92,-4.392,-16.26,-11.94,-21.79,0,0,0,0,0,0,0,0,0,0,0,0,0,0,0,0,
126,77.94,12.17,49.83,14.64,-11.15,13.17,-55.31,-11.93,22.79,32.37,-8.809,-21.78,-7.6,-15.32,-16.63,-17.25,0,0,0,0,0,0,0,0,0,0,0,0,0,0,0,0,
127,25.35,21.89,7.858,-4.998,6.007,-1.889,8.02,5.431,24.46,27.28,-29.05,-16.74,-18.15,-15.52,-23.02,-12.73,0,0,0,0,0,0,0,0,0,0,0,0,0,0,0,0,
128,-11.54,20.23,-16.78,18.48,10.77,1.058,-5.264,-1.352,14.4,21.75,-28.51,-5.22,-17.65,-6.761,-4.536,2.444,0,0,0,0,0,0,0,0,0,0,0,0,0,0,0,0,
129,-1.678,-7.352,22.88,21.49,5.147,7.813,-50.62,10.15,17.78,36.58,8.353,8.317,7.279,4.843,20.78,14.69,0,0,0,0,0,0,0,0,0,0,0,0,0,0,0,0,
130,14.89,-12.96,51.37,-63.19,-8.46,-23.73,-62.32,8.865,23.22,37.18,-5.24,-15.84,-4.401,-17.66,-4.261,-16.57,0,0,0,0,0,0,0,0,0,0,0,0,0,0,0,0,
131,30.55,14.9,16.52,-76.51,-1.187,-30.45,-39.94,-3.539,13.86,20.52,-14.84,-20.4,-7.201,-17.75,-9.506,-22.43,0,0,0,0,0,0,0,0,0,0,0,0,0,0,0,0,
132,69.32,37.07,1.191,32.21,14.97,13.38,-3.518,5.646,40.44,33.35,13.65,-10.96,11.69,-5.468,-0.2239,-15.33,0,0,0,0,0,0,0,0,0,0,0,0,0,0,0,0,
133,51.22,7.885,21.5,62.18,-10.49,14.11,10.77,3.718,38.82,17.26,-7.364,-37.42,-12.14,-29.25,-25.27,-38.55,0,0,0,0,0,0,0,0,0,0,0,0,0,0,0,0,
134,-0.3936,-8.147,25.13,22.65,-1.394,8.938,26.37,9.639,1.152,-2.071,-27.27,-34.33,-17.55,-20.12,-23.97,-29.25,0,0,0,0,0,0,0,0,0,0,0,0,0,0,0,0,
135,-3.017,9.335,-5.406,6.521,28.7,21.53,-0.1823,9.049,10.82,30.56,-16.12,-17.49,-1.668,-0.2893,-18.78,-17.56,0,0,0,0,0,0,0,0,0,0,0,0,0,0,0,0,
136,9.648,21.77,-2.773,-11.01,6.699,7.932,-56.6,-2.003,16.68,34.32,-15.53,-23.84,-5.808,-9.661,-25.01,-26.11,0,0,0,0,0,0,0,0,0,0,0,0,0,0,0,0,
137,42.53,54.88,52.14,-1.111,3.634,14.18,-16.74,19.48,15.4,27.19,-11.01,-19.26,3.887,-4.808,-7.432,-16.49,0,0,0,0,0,0,0,0,0,0,0,0,0,0,0,0,
138,66.38,47.52,49.87,30.2,12.93,24.68,32.74,18.76,31.93,38.94,-17.92,-17.79,5.823,-1.385,-2.175,-10.32,0,0,0,0,0,0,0,0,0,0,0,0,0,0,0,0,
139,35.26,-1.295,32.79,45.3,24.55,27.78,-8.422,15.21,31.28,38.29,-5.549,-4.472,17.42,13.47,11.77,7.737,0,0,0,0,0,0,0,0,0,0,0,0,0,0,0,0,
140,16.82,17.34,59.34,36.14,67.44,48.81,-26.26,43.59,58.01,58.98,38.06,11.64,51.02,33.5,43.95,29.6,0,0,0,0,0,0,0,0,0,0,0,0,0,0,0,0,
141,39.79,46.79,55.14,14.98,52.35,37.88,32.11,26.79,83.45,61.13,45.49,5.199,46.07,21.34,54.71,33.32,0,0,0,0,0,0,0,0,0,0,0,0,0,0,0,0,
142,86.06,34.94,75.76,36.21,10.57,25.08,70.21,0.8439,50.43,40.96,36.55,15.45,30.0,21.9,52.94,41.65,0,0,0,0,0,0,0,0,0,0,0,0,0,0,0,0,
143,90.47,27.97,71.23,36.16,18.05,26.44,11.8,2.206,23.01,52.62,19.82,5.367,15.92,13.56,23.08,17.9,0,0,0,0,0,0,0,0,0,0,0,0,0,0,0,0,
144,18.72,31.6,-34.86,-15.14,12.04,-5.852,-41.3,0.0712,16.32,37.36,-11.56,-23.31,-7.277,-15.29,-7.503,-11.03,0,0,0,0,0,0,0,0,0,0,0,0,0,0,0,0,
145,-15.69,38.18,-38.03,-6.66,-10.44,-19.2,-22.16,13.45,8.311,11.45,-18.52,-21.49,-11.43,-16.05,-10.07,-5.684,0,0,0,0,0,0,0,0,0,0,0,0,0,0,0,0,
146,-20.64,-0.5183,33.67,-2.09,-31.15,-9.617,-47.36,3.039,-6.444,10.57,-26.47,-38.77,-23.94,-27.49,-26.31,-19.48,0,0,0,0,0,0,0,0,0,0,0,0,0,0,0,0,
147,-33.94,-51.45,12.3,-45.0,-41.63,-7.793,-63.96,-25.32,-24.0,-1.367,-36.69,-42.86,-33.88,-30.91,-29.33,-22.84,0,0,0,0,0,0,0,0,0,0,0,0,0,0,0,0,
148,21.27,-36.5,3.421,-21.66,-17.66,6.769,-7.896,-15.44,-17.74,14.81,-41.93,-11.91,-29.31,-7.937,-24.86,-12.64,0,0,0,0,0,0,0,0,0,0,0,0,0,0,0,0,
149,38.93,-24.57,-2.644,18.2,-2.467,4.263,-22.98,-1.888,-14.12,32.74,-57.25,-20.58,-38.67,-22.12,-41.9,-30.83,0,0,0,0,0,0,0,0,0,0,0,0,0,0,0,0,
150,-24.22,-12.57,-49.37,-2.088,-3.305,-13.59,-65.08,9.33,-7.611,8.203,-40.9,-30.78,-27.33,-35.42,-34.02,-28.37,0,0,0,0,0,0,0,0,0,0,0,0,0,0,0,0,
151,-14.56,32.34,-20.23,-23.24,-10.96,-20.85,-32.69,17.21,9.028,2.165,-24.98,-13.82,-18.25,-20.5,-23.87,-13.6,0,0,0,0,0,0,0,0,0,0,0,0,0,0,0,0,
152,31.54,27.54,38.49,8.589,-26.76,-9.77,-10.2,13.21,-16.91,15.37,-32.21,-8.1,-29.7,-11.08,-21.33,-11.25,0,0,0,0,0,0,0,0,0,0,0,0,0,0,0,0,
153,34.46,7.686,44.4,60.96,-11.33,25.35,-13.09,16.83,-26.32,22.97,-14.43,-12.43,-12.12,-4.261,-4.12,-6.337,0,0,0,0,0,0,0,0,0,0,0,0,0,0,0,0,
154,20.37,15.8,33.59,45.28,7.885,29.0,-0.7525,0.5838,10.59,24.3,-6.385,-19.64,4.553,-3.552,-2.735,-5.696,0,0,0,0,0,0,0,0,0,0,0,0,0,0,0,0,
155,-18.78,3.006,6.18,-0.586,16.42,12.9,12.53,-7.965,28.81,24.17,-7.733,-7.114,12.5,8.352,4.595,14.56,0,0,0,0,0,0,0,0,0,0,0,0,0,0,0,0,
156,-43.74,-5.412,-27.81,-3.963,23.14,15.85,0.5157,9.054,38.95,37.89,-7.204,2.475,15.8,14.67,6.046,23.35,0,0,0,0,0,0,0,0,0,0,0,0,0,0,0,0,
157,-6.214,8.894,-21.86,-17.36,-7.953,-7.734,-23.83,0.9047,23.2,28.12,-26.39,-8.491,-6.083,-7.057,-12.48,2.637,0,0,0,0,0,0,0,0,0,0,0,0,0,0,0,0,
158,40.42,13.47,17.33,-31.98,-24.87,-24.74,-27.41,-1.674,-10.17,5.649,-13.3,0.6865,-4.911,-9.027,1.618,8.158,0,0,0,0,0,0,0,0,0,0,0,0,0,0,0,0,
159,28.69,-12.52,37.49,-19.15,-16.69,-16.4,-43.62,0.5122,-6.808,3.212,-6.972,-6.405,-4.223,-12.79,-0.1036,3.646,0,0,0,0,0,0,0,0,0,0,0,0,0,0,0,0,
160,-6.724,-32.01,28.68,-18.39,-35.22,-29.21,-47.25,-9.444,-13.54,-11.73,-38.95,-27.62,-29.57,-31.14,-28.02,-14.87,0,0,0,0,0,0,0,0,0,0,0,0,0,0,0,0,
161,-2.716,-3.968,12.91,-21.97,-39.62,-36.99,-19.71,-2.848,-29.12,-20.01,-24.82,-22.6,-26.41,-30.36,-25.33,-12.22,0,0,0,0,0,0,0,0,0,0,0,0,0,0,0,0,
162,-7.634,-2.958,-7.521,-5.936,-33.86,-32.48,-38.87,-17.15,-21.27,-25.07,-9.203,-32.15,-21.24,-36.66,-26.66,-24.93,0,0,0,0,0,0,0,0,0,0,0,0,0,0,0,0,
163,-37.81,-22.29,-11.86,28.89,-22.38,-9.787,-16.86,-16.87,-7.951,-30.97,-29.8,-25.36,-16.71,-22.45,-21.55,-22.34,0,0,0,0,0,0,0,0,0,0,0,0,0,0,0,0,
164,-34.81,12.67,-10.88,23.75,11.4,21.69,50.62,25.42,18.73,12.22,-28.86,5.235,4.102,11.37,-1.72,-1.742,0,0,0,0,0,0,0,0,0,0,0,0,0,0,0,0,
165,-7.58,25.18,-13.82,-26.67,9.844,6.427,-10.65,28.96,21.99,38.66,-19.92,2.191,4.695,8.342,1.416,-3.267,0,0,0,0,0,0,0,0,0,0,0,0,0,0,0,0,
166,30.65,4.993,18.21,-6.513,-2.037,-2.353,-76.81,22.83,10.13,23.27,-7.695,3.791,10.94,7.893,20.34,8.802,0,0,0,0,0,0,0,0,0,0,0,0,0,0,0,0,
167,38.71,4.313,38.59,40.38,2.68,14.04,-30.43,23.36,23.66,29.29,-0.9075,10.36,16.79,11.56,29.13,16.04,0,0,0,0,0,0,0,0,0,0,0,0,0,0,0,0,
168,0.9162,-5.906,28.52,24.03,-1.925,0.6948,-15.78,0.4148,13.32,27.53,-18.2,-0.1281,3.859,0.447,6.978,7.443,0,0,0,0,0,0,0,0,0,0,0,0,0,0,0,0,
169,6.132,-5.164,16.54,5.334,15.2,-8.104,-39.58,-0.6771,8.585,20.57,-16.29,-0.4291,10.59,3.099,4.636,15.43,0,0,0,0,0,0,0,0,0,0,0,0,0,0,0,0,
170,18.05,-2.514,-32.68,-16.61,15.52,-9.903,-28.64,-0.5605,29.01,20.26,7.665,-1.763,16.27,-0.9063,15.76,19.54,0,0,0,0,0,0,0,0,0,0,0,0,0,0,0,0,
171,-2.652,-4.028,-30.46,-18.44,-13.18,-9.664,14.42,-2.834,17.64,7.429,15.2,3.969,13.38,-1.022,20.7,24.91,0,0,0,0,0,0,0,0,0,0,0,0,0,0,0,0,
172,28.6,32.74,39.19,26.08,-13.64,9.082,40.73,15.44,8.6,11.91,-9.591,7.221,10.01,7.779,11.06,25.69,0,0,0,0,0,0,0,0,0,0,0,0,0,0,0,0,
173,48.94,38.72,28.46,17.0,-9.918,7.47,1.218,8.559,4.775,16.59,-27.03,0.0166,0.5303,4.618,1.27,18.23,0,0,0,0,0,0,0,0,0,0,0,0,0,0,0,0,
174,-7.891,2.09,7.92,-13.74,6.886,-0.2212,-22.92,3.299,0.6312,22.38,-5.163,15.51,12.31,12.27,6.628,23.76,0,0,0,0,0,0,0,0,0,0,0,0,0,0,0,0,
175,-40.53,-12.64,28.27,-1.141,17.6,-8.124,-5.012,9.469,22.51,34.8,-9.026,11.29,6.872,1.056,-12.94,4.84,0,0,0,0,0,0,0,0,0,0,0,0,0,0,0,0,
176,10.68,-23.48,10.54,5.547,-27.3,-23.31,-25.59,-0.5286,11.19,8.614,-22.92,0.3196,-15.81,-17.52,-21.76,-8.454,0,0,0,0,0,0,0,0,0,0,0,0,0,0,0,0,
177,64.33,-20.05,22.69,4.273,-44.34,-11.47,-52.13,3.038,-14.58,-1.572,1.948,19.24,-0.93,-4.006,5.58,10.65,0,0,0,0,0,0,0,0,0,0,0,0,0,0,0,0,
178,16.36,-12.21,35.38,-12.12,-16.29,-16.09,-39.16,0.0722,-4.325,10.4,-0.3755,1.306,3.793,-14.25,1.607,-1.311,0,0,0,0,0,0,0,0,0,0,0,0,0,0,0,0,
179,-40.93,-28.23,-21.18,-24.21,-2.962,-20.97,6.393,5.868,1.693,-5.496,-13.03,-17.03,-3.445,-21.29,-9.512,-10.47,0,0,0,0,0,0,0,0,0,0,0,0,0,0,0,0,
180,-9.237,-17.58,-43.23,-2.319,-0.1247,16.73,45.91,33.6,6.727,11.07,-8.012,3.865,2.139,6.5,-0.5069,6.843,0,0,0,0,0,0,0,0,0,0,0,0,0,0,0,0,
181,10.16,24.12,-2.728,4.956,-10.86,15.41,16.84,10.95,3.912,35.93,-17.51,1.964,-6.913,7.947,5.831,12.46,0,0,0,0,0,0,0,0,0,0,0,0,0,0,0,0,
182,27.74,48.15,43.26,15.69,-12.43,-6.524,-34.85,-14.73,-6.938,17.02,-5.654,-10.09,-2.458,-3.99,16.72,18.21,0,0,0,0,0,0,0,0,0,0,0,0,0,0,0,0,
183,56.43,25.47,39.65,28.37,3.893,3.115,-42.51,8.24,11.15,3.93,7.371,-9.853,7.958,-4.304,13.86,14.68,0,0,0,0,0,0,0,0,0,0,0,0,0,0,0,0,
184,6.002,3.834,-9.039,13.96,17.92,11.3,-14.26,17.31,27.85,14.17,9.558,7.571,10.7,13.23,13.98,15.19,0,0,0,0,0,0,0,0,0,0,0,0,0,0,0,0,
185,-10.71,33.03,1.08,30.23,32.47,27.57,16.85,0.804,30.9,40.75,20.84,18.56,15.19,28.51,11.55,15.49,0,0,0,0,0,0,0,0,0,0,0,0,0,0,0,0,
186,35.39,20.01,41.81,31.75,14.85,20.31,10.77,-12.7,18.08,33.53,-9.472,-15.06,-12.12,-3.791,-24.34,-14.35,0,0,0,0,0,0,0,0,0,0,0,0,0,0,0,0,
187,21.49,-19.3,31.23,-20.51,-7.502,-16.83,2.759,1.117,-1.48,-9.698,-14.14,-13.86,-15.13,-13.3,-20.68,-9.834,0,0,0,0,0,0,0,0,0,0,0,0,0,0,0,0,
188,9.418,8.936,7.285,-37.77,-5.483,-21.46,12.63,10.5,18.31,-4.164,26.82,12.64,13.29,8.359,0.3533,6.095,0,0,0,0,0,0,0,0,0,0,0,0,0,0,0,0,
189,7.412,1.711,-11.24,-17.14,-24.95,-16.33,7.673,-19.88,16.25,1.627,-4.947,-20.03,-11.96,-15.55,-27.79,-23.13,0,0,0,0,0,0,0,0,0,0,0,0,0,0,0,0,
190,-25.47,-31.35,-17.68,3.976,-21.56,-15.83,8.309,-27.44,-17.87,-24.61,-39.07,-36.35,-30.35,-28.1,-33.31,-28.26,0,0,0,0,0,0,0,0,0,0,0,0,0,0,0,0,
191,-4.498,6.27,-9.68,10.79,-0.6459,-12.62,-20.52,-11.97,-4.599,-18.22,-12.02,-18.4,-11.17,-12.67,-13.3,-12.48,0,0,0,0,0,0,0,0,0,0,0,0,0,0,0,0,
192,28.74,16.55,5.52,1.493,-19.72,-13.66,-66.57,-0.5022,6.162,-4.149,-5.262,-18.26,-7.726,-7.508,-5.834,-3.143,0,0,0,0,0,0,0,0,0,0,0,0,0,0,0,0,
193,-5.477,-19.65,26.86,8.445,-15.97,-0.2402,-38.27,21.44,-6.439,7.037,-7.406,-15.47,0.7775,6.96,4.907,13.86,0,0,0,0,0,0,0,0,0,0,0,0,0,0,0,0,
194,-27.77,-22.61,3.927,4.443,5.725,-3.878,-0.0718,6.723,2.576,13.79,10.86,-9.083,15.22,15.76,12.04,18.07,0,0,0,0,0,0,0,0,0,0,0,0,0,0,0,0,
195,10.59,4.86,-20.24,-13.28,7.776,-18.79,4.132,-12.2,17.51,5.374,22.07,8.41,21.63,23.18,17.35,23.55,0,0,0,0,0,0,0,0,0,0,0,0,0,0,0,0,
196,33.05,34.85,5.739,-4.247,9.254,-6.633,10.38,6.972,23.55,20.49,-0.9484,15.13,6.624,21.4,-4.696,12.18,0,0,0,0,0,0,0,0,0,0,0,0,0,0,0,0,
197,14.73,25.71,8.183,8.719,-9.498,-1.517,-3.268,-3.442,2.842,19.46,-29.09,-7.409,-23.22,-4.919,-37.07,-17.49,0,0,0,0,0,0,0,0,0,0,0,0,0,0,0,0,
198,26.04,-9.716,19.57,20.87,-19.6,-0.0819,-8.763,-29.63,-13.72,-3.776,-7.033,-7.795,-14.56,-4.239,-21.3,-10.64,0,0,0,0,0,0,0,0,0,0,0,0,0,0,0,0,
199,18.53,-24.31,42.93,16.73,-4.815,-0.9467,-12.73,-33.56,3.205,1.092,12.91,-8.621,-0.9025,0.3087,-6.902,-8.574,0,0,0,0,0,0,0,0,0,0,0,0,0,0,0,0,
200,-51.84,-17.24,-24.0,-28.52,12.99,-15.06,-22.34,-13.8,10.29,-1.688,6.822,-14.05,-1.801,-8.44,-3.463,-15.46,0,0,0,0,0,0,0,0,0,0,0,0,0,0,0,0,
201,-51.83,-1.235,-88.25,-67.89,34.71,-13.31,25.51,14.15,22.94,-1.986,8.532,4.961,9.601,4.143,4.736,-0.1744,0,0,0,0,0,0,0,0,0,0,0,0,0,0,0,0,
202,11.24,-4.149,-40.04,-52.41,12.83,-12.93,51.74,-11.84,24.04,8.079,-8.694,2.693,-4.135,4.336,-18.9,-2.293,0,0,0,0,0,0,0,0,0,0,0,0,0,0,0,0,
203,28.68,8.837,37.34,26.32,-6.869,0.098,5.629,-35.12,-6.297,2.159,-9.76,5.256,-7.467,6.895,-22.65,-1.115,0,0,0,0,0,0,0,0,0,0,0,0,0,0,0,0,
204,36.86,48.07,44.23,70.24,21.23,23.09,-26.13,-4.459,7.592,10.97,5.289,18.0,9.773,13.37,-9.136,-4.382,0,0,0,0,0,0,0,0,0,0,0,0,0,0,0,0,
205,39.72,26.56,6.644,24.73,6.488,5.349,-35.56,3.082,19.88,4.712,-8.646,-1.894,-8.224,-11.53,-22.11,-28.29,0,0,0,0,0,0,0,0,0,0,0,0,0,0,0,0,
206,5.566,-13.09,8.191,7.751,-8.112,0.6484,-33.41,-1.597,-6.351,-13.73,5.063,0.347,-9.891,-12.08,-18.88,-16.14,0,0,0,0,0,0,0,0,0,0,0,0,0,0,0,0,
207,-38.79,-26.36,-1.555,-5.158,13.14,-4.453,-19.43,-4.14,-1.43,-2.755,11.59,13.35,-4.429,-2.627,-26.58,-6.215,0,0,0,0,0,0,0,0,0,0,0,0,0,0,0,0,
208,-51.71,-54.76,-54.66,-63.87,-13.21,-46.95,-0.9123,-17.47,-1.209,-15.95,-19.95,5.557,-27.1,-19.23,-43.19,-16.14,0,0,0,0,0,0,0,0,0,0,0,0,0,0,0,0,
209,-14.33,-35.68,-61.52,-44.72,-44.36,-42.09,7.085,-13.3,-19.35,-38.74,-8.793,10.36,-25.16,-22.28,-24.87,-6.614,0,0,0,0,0,0,0,0,0,0,0,0,0,0,0,0,
210,-0.066,11.47,-45.75,7.642,-46.57,-25.4,-35.24,-27.08,-25.62,-41.31,6.381,2.566,-21.17,-27.49,-23.14,-10.49,0,0,0,0,0,0,0,0,0,0,0,0,0,0,0,0,
211,-22.98,5.614,-13.59,-0.4591,-35.29,-29.45,-44.52,-28.6,-31.16,-44.84,-4.817,-8.833,-23.42,-27.12,-31.43,-14.61,0,0,0,0,0,0,0,0,0,0,0,0,0,0,0,0,
212,-23.42,-12.44,50.1,-12.38,-2.61,-2.693,-10.77,14.07,-12.75,-22.62,-9.531,-10.66,-13.14,-14.78,-29.74,-12.36,0,0,0,0,0,0,0,0,0,0,0,0,0,0,0,0,
213,-24.41,-26.0,27.12,-21.39,-0.8652,-7.56,-55.47,10.15,1.32,-11.35,-23.09,-24.22,-19.99,-25.28,-38.87,-24.74,0,0,0,0,0,0,0,0,0,0,0,0,0,0,0,0,
214,-3.48,-24.96,-41.37,-20.13,-16.01,-29.14,-53.69,-28.0,-7.985,-26.72,-21.4,-18.58,-21.61,-25.56,-33.18,-21.22,0,0,0,0,0,0,0,0,0,0,0,0,0,0,0,0,
215,17.64,-9.913,-39.05,-1.377,-5.595,-5.792,46.58,-39.18,-5.693,-18.17,-9.22,-10.39,-16.53,-13.51,-24.93,-17.29,0,0,0,0,0,0,0,0,0,0,0,0,0,0,0,0,
216,-25.17,-14.99,-24.11,-0.7945,3.773,2.196,29.02,-20.66,-3.133,-8.582,-1.092,-8.076,-8.379,-2.687,-15.12,-10.39,0,0,0,0,0,0,0,0,0,0,0,0,0,0,0,0,
217,-22.8,-5.236,-37.3,-3.869,5.105,-13.49,-58.65,10.8,16.49,-0.7368,15.74,9.927,14.58,13.07,2.559,8.146,0,0,0,0,0,0,0,0,0,0,0,0,0,0,0,0,
218,14.63,9.385,-44.99,-1.799,-9.832,-18.05,-36.94,-2.229,28.07,-3.613,-3.425,5.96,1.501,-0.3842,-9.423,-1.564,0,0,0,0,0,0,0,0,0,0,0,0,0,0,0,0,
219,-15.32,16.76,7.69,10.22,-10.77,-5.728,9.595,-22.98,-2.52,-27.67,-27.58,0.9079,-20.29,-9.602,-20.51,-5.899,0,0,0,0,0,0,0,0,0,0,0,0,0,0,0,0,
220,-21.82,35.15,62.16,4.262,10.81,1.918,-23.17,-9.313,-4.884,-13.41,-9.408,10.05,-12.11,2.056,-21.0,2.257,0,0,0,0,0,0,0,0,0,0,0,0,0,0,0,0,
221,2.8,2.58,-5.473,-42.62,-0.1915,-23.48,-43.85,-9.397,5.683,3.527,4.813,5.207,-15.18,-8.522,-29.07,-5.455,0,0,0,0,0,0,0,0,0,0,0,0,0,0,0,0,
222,-6.232,-43.63,-54.38,-41.45,-9.147,-31.77,4.909,5.787,-6.274,-14.69,-1.475,5.776,-21.35,-16.66,-19.63,-8.59,0,0,0,0,0,0,0,0,0,0,0,0,0,0,0,0,
223,-7.13,-45.37,0.9937,-6.946,-13.39,-15.6,2.342,21.56,-11.74,-23.3,-21.35,-6.719,-27.61,-20.82,-13.77,-21.94,0,0,0,0,0,0,0,0,0,0,0,0,0,0,0,0,
224,-1.331,-43.59,-14.67,-4.312,-28.87,-12.53,-48.04,-5.597,-18.75,-27.88,-4.466,-15.89,-16.78,-17.75,-2.956,-23.49,0,0,0,0,0,0,0,0,0,0,0,0,0,0,0,0,
225,-7.452,-4.916,-60.38,10.01,-1.991,-3.99,-12.72,-12.8,7.412,-17.99,39.32,6.166,15.38,4.091,12.68,-7.331,0,0,0,0,0,0,0,0,0,0,0,0,0,0,0,0,
226,-11.09,33.37,-9.582,2.068,1.498,-11.84,44.96,-0.9513,30.77,-5.023,4.232,0.0591,-3.713,-6.338,-7.007,-21.44,0,0,0,0,0,0,0,0,0,0,0,0,0,0,0,0,
227,8.61,9.668,50.61,-14.93,-27.82,-21.14,35.14,3.908,-9.466,-18.36,-26.17,-10.35,-22.96,-17.21,-2.187,-15.41,0,0,0,0,0,0,0,0,0,0,0,0,0,0,0,0,
228,23.44,3.849,39.51,11.66,-0.8445,-1.475,-2.427,5.449,-12.66,-11.32,13.58,0.981,3.154,0.915,21.15,8.546,0,0,0,0,0,0,0,0,0,0,0,0,0,0,0,0,
229,-31.79,3.828,-12.51,-2.022,21.9,-3.442,-24.09,-5.586,19.38,5.035,7.098,-6.832,-2.156,1.138,2.152,-2.482,0,0,0,0,0,0,0,0,0,0,0,0,0,0,0,0,
230,-50.43,-18.7,-24.52,-15.45,10.37,-4.131,-9.75,7.046,10.81,5.045,-14.77,-7.644,-13.98,-1.393,-8.039,-9.471,0,0,0,0,0,0,0,0,0,0,0,0,0,0,0,0,
231,33.74,-6.438,-2.508,23.8,2.046,11.76,-10.19,18.5,1.81,6.121,3.819,-0.0718,-2.383,-0.0062,-1.876,-13.49,0,0,0,0,0,0,0,0,0,0,0,0,0,0,0,0,
232,59.96,13.74,-20.41,5.641,-1.66,7.417,-23.63,4.746,6.43,4.051,12.59,8.14,9.524,10.22,1.28,-13.98,0,0,0,0,0,0,0,0,0,0,0,0,0,0,0,0,
233,13.71,20.14,-27.51,-23.75,16.07,12.26,0.0695,14.28,29.53,22.34,11.45,23.06,20.56,32.16,6.828,-0.2461,0,0,0,0,0,0,0,0,0,0,0,0,0,0,0,0,
234,-1.392,24.69,26.0,20.79,12.12,15.01,0.6985,18.84,41.42,29.02,8.417,13.41,4.85,16.22,-1.194,-5.673,0,0,0,0,0,0,0,0,0,0,0,0,0,0,0,0,
235,8.567,11.75,70.77,36.92,-9.118,1.988,12.64,12.82,5.54,-4.765,13.14,4.601,-7.017,-7.97,0.1868,-8.143,0,0,0,0,0,0,0,0,0,0,0,0,0,0,0,0,
236,18.97,-7.647,42.88,-12.07,2.708,-5.92,61.07,9.219,-2.542,-15.75,10.82,-4.026,-3.636,-17.06,-0.8156,-14.9,0,0,0,0,0,0,0,0,0,0,0,0,0,0,0,0,
237,3.123,-13.89,-17.11,-18.47,-2.324,-17.53,25.4,-17.23,7.986,-17.86,-6.665,-25.18,-17.49,-30.28,-8.912,-28.44,0,0,0,0,0,0,0,0,0,0,0,0,0,0,0,0,
238,-23.77,2.428,-20.93,29.5,-12.77,-5.429,-17.87,-15.76,-7.238,-21.23,7.256,-12.27,-7.09,-13.55,4.55,-6.751,0,0,0,0,0,0,0,0,0,0,0,0,0,0,0,0,
239,-22.72,11.61,-16.76,31.92,-1.081,13.18,19.49,5.083,-2.827,-3.645,5.736,-2.655,3.616,2.325,-7.208,0.1625,0,0,0,0,0,0,0,0,0,0,0,0,0,0,0,0,
240,-5.432,-0.1966,-49.77,5.944,-1.331,6.594,22.62,6.204,2.595,-4.123,-17.84,-7.413,-7.572,1.556,-19.24,-6.824,0,0,0,0,0,0,0,0,0,0,0,0,0,0,0,0,
241,16.38,-2.479,-33.1,1.116,0.5085,4.468,-10.65,19.35,3.154,-0.7152,-2.271,2.697,3.452,12.58,-2.15,1.544,0,0,0,0,0,0,0,0,0,0,0,0,0,0,0,0,
242,11.46,-16.05,15.95,-11.25,-7.69,-8.112,-12.84,13.4,11.24,4.712,-8.613,-15.59,-4.452,-2.907,-19.25,-20.88,0,0,0,0,0,0,0,0,0,0,0,0,0,0,0,0,
243,4.797,-11.2,42.77,7.329,-13.34,-6.445,3.201,-1.349,-0.8601,-12.44,-20.09,-25.68,-18.05,-15.45,-25.52,-33.19,0,0,0,0,0,0,0,0,0,0,0,0,0,0,0,0,
244,28.98,30.97,41.02,18.37,7.529,12.01,13.81,9.719,-4.691,1.708,11.62,-6.316,-0.9234,-1.786,-4.145,-18.16,0,0,0,0,0,0,0,0,0,0,0,0,0,0,0,0,
245,8.215,20.17,-11.3,-22.77,3.206,-12.41,11.4,10.44,-3.403,15.67,8.525,-2.907,-4.873,-3.562,-12.71,-14.12,0,0,0,0,0,0,0,0,0,0,0,0,0,0,0,0,
246,-10.11,0.8543,-29.14,22.5,-3.469,-4.43,22.74,25.06,-11.46,0.67,-15.84,8.771,-13.76,3.277,-15.64,3.107,0,0,0,0,0,0,0,0,0,0,0,0,0,0,0,0,
247,29.77,29.18,11.04,87.01,3.492,39.41,45.48,40.26,-6.433,-0.1154,-11.91,16.26,-9.18,12.39,-7.276,13.47,0,0,0,0,0,0,0,0,0,0,0,0,0,0,0,0,
248,17.23,26.72,18.99,29.64,-3.214,26.98,42.4,20.55,-9.357,4.978,5.783,17.67,-3.504,16.1,-0.204,14.73,0,0,0,0,0,0,0,0,0,0,0,0,0,0,0,0,
249,-21.43,4.556,8.48,-15.37,7.445,6.635,-12.77,9.591,-4.258,19.36,22.09,30.54,9.142,24.63,10.55,23.01,0,0,0,0,0,0,0,0,0,0,0,0,0,0,0,0,
250,-6.22,-8.059,-12.99,-19.14,4.578,-7.28,-76.08,-3.858,8.364,14.64,9.852,10.45,-0.5027,-0.325,1.325,8.334,0,0,0,0,0,0,0,0,0,0,0,0,0,0,0,0,
251,15.28,-15.36,-9.092,-40.33,-16.02,-24.83,-22.3,-16.89,-8.604,-17.8,-0.6571,-6.349,-12.57,-18.92,-5.949,-0.0192,0,0,0,0,0,0,0,0,0,0,0,0,0,0,0,0,
252,15.07,-4.61,47.42,-19.71,-14.72,-14.28,62.45,-8.353,-23.48,-14.95,0.0861,-2.569,-15.85,-16.47,-19.5,-6.72,0,0,0,0,0,0,0,0,0,0,0,0,0,0,0,0,
253,6.844,-6.549,16.43,25.45,-21.35,-7.524,16.1,-6.181,-30.51,-17.85,-13.15,-14.22,-28.05,-29.86,-36.76,-24.1,0,0,0,0,0,0,0,0,0,0,0,0,0,0,0,0,
254,25.57,2.129,-55.66,53.01,-7.706,4.901,-28.62,4.073,-17.34,-29.01,0.906,-2.54,-6.79,-13.17,-8.857,-5.702,0,0,0,0,0,0,0,0,0,0,0,0,0,0,0,0,
255,18.74,23.47,-19.37,36.08,21.71,12.57,-2.826,5.302,22.35,-0.2382,18.38,15.0,16.95,13.86,19.15,18.05,0,0,0,0,0,0,0,0,0,0,0,0,0,0,0,0,
256,-54.19,12.45,17.7,-2.725,23.07,-2.519,21.58,2.693,23.97,11.72,24.8,25.7,21.96,27.09,41.33,42.07,0,0,0,0,0,0,0,0,0,0,0,0,0,0,0,0,
257,-27.48,24.63,23.31,24.74,36.19,30.4,83.19,38.34,23.15,25.89,56.14,50.24,49.27,56.01,73.95,70.85,0,0,0,0,0,0,0,0,0,0,0,0,0,0,0,0,
258,82.09,45.34,72.75,28.32,33.42,52.91,108.0,41.52,47.65,55.17,59.78,43.57,51.72,55.84,61.7,55.35,0,0,0,0,0,0,0,0,0,0,0,0,0,0,0,0,
259,69.54,16.68,65.39,-41.9,11.33,5.216,35.15,12.56,38.57,42.3,41.24,32.28,28.56,39.1,37.4,37.78,0,0,0,0,0,0,0,0,0,0,0,0,0,0,0,0,
260,0.3812,-11.73,-31.24,-31.68,12.37,-16.76,-9.553,10.77,15.3,25.92,28.28,25.37,8.845,27.78,15.03,20.76,0,0,0,0,0,0,0,0,0,0,0,0,0,0,0,0,
261,0.7947,-18.41,-59.88,31.02,-8.929,0.2797,5.288,3.715,-9.838,8.233,4.246,-10.98,-20.3,-6.13,-21.68,-18.35,0,0,0,0,0,0,0,0,0,0,0,0,0,0,0,0,
262,27.28,-3.753,6.392,32.49,-18.09,15.99,18.26,3.498,-22.86,-17.74,8.119,-15.57,-19.57,-14.47,-17.82,-18.41,0,0,0,0,0,0,0,0,0,0,0,0,0,0,0,0,
263,13.29,8.996,17.38,20.62,6.48,18.27,0.8394,7.935,-5.293,-10.0,1.083,-1.596,-14.57,-4.484,-7.806,-8.611,0,0,0,0,0,0,0,0,0,0,0,0,0,0,0,0,
264,-32.24,-0.1205,-26.29,16.38,7.658,5.045,-19.71,3.498,-9.892,-2.971,-22.74,-7.595,-22.6,-6.805,-11.77,-7.89,0,0,0,0,0,0,0,0,0,0,0,0,0,0,0,0,
265,-17.48,20.29,-14.71,-11.85,11.61,6.862,-4.43,21.57,-6.664,1.101,9.606,-1.247,3.57,7.472,11.56,13.7,0,0,0,0,0,0,0,0,0,0,0,0,0,0,0,0,
266,41.41,28.3,8.146,-24.65,3.782,4.687,-8.639,11.97,16.35,10.52,20.33,-0.7708,9.081,9.59,17.26,10.3,0,0,0,0,0,0,0,0,0,0,0,0,0,0,0,0,
267,37.31,-2.288,-7.897,5.423,-15.15,-6.548,-33.04,-21.62,-2.392,-1.675,-10.36,3.71,-12.38,2.986,0.6267,-3.652,0,0,0,0,0,0,0,0,0,0,0,0,0,0,0,0,
268,-14.67,1.262,-32.82,14.57,6.598,1.46,-18.49,-14.72,-13.18,-3.159,-8.908,17.07,-11.37,9.414,-8.942,-2.597,0,0,0,0,0,0,0,0,0,0,0,0,0,0,0,0,
269,-38.68,6.874,-25.96,-0.217,9.725,7.354,-4.728,1.674,-0.8036,0.576,-8.677,7.575,-15.51,3.541,-18.94,-11.07,0,0,0,0,0,0,0,0,0,0,0,0,0,0,0,0,
270,5.497,-4.449,36.82,12.57,-13.64,11.8,-8.955,3.836,-8.657,-7.776,-10.72,-1.34,-20.33,-4.839,-24.28,-20.03,0,0,0,0,0,0,0,0,0,0,0,0,0,0,0,0,
271,44.39,-3.669,41.35,5.57,-11.5,5.801,-1.762,-1.696,-16.94,-13.01,1.819,-12.14,-19.43,-16.11,-30.89,-30.62,0,0,0,0,0,0,0,0,0,0,0,0,0,0,0,0,
272,-5.414,-0.6096,-30.7,-0.4849,7.264,-4.319,13.42,7.763,-12.94,-19.12,11.37,-10.5,-11.53,-12.51,-17.95,-21.68,0,0,0,0,0,0,0,0,0,0,0,0,0,0,0,0,
273,-37.35,21.19,-21.11,25.54,31.08,17.31,11.08,22.88,9.987,-0.9574,15.05,14.6,5.392,13.45,-0.6108,-1.934,0,0,0,0,0,0,0,0,0,0,0,0,0,0,0,0,
274,6.551,18.18,16.63,-15.47,24.14,15.28,-13.73,-3.439,15.76,16.27,3.513,8.573,-1.674,13.34,-11.73,-8.689,0,0,0,0,0,0,0,0,0,0,0,0,0,0,0,0,
275,34.29,-10.79,-6.78,-45.1,5.012,-6.879,-1.314,-2.684,-4.802,7.302,14.47,-1.623,6.692,14.27,2.284,0.1083,0,0,0,0,0,0,0,0,0,0,0,0,0,0,0,0,
276,16.84,9.592,-9.463,26.42,9.51,5.3,24.0,23.59,9.981,12.03,24.76,-1.259,21.85,16.69,11.82,0.0401,0,0,0,0,0,0,0,0,0,0,0,0,0,0,0,0,
277,-4.99,20.93,22.47,53.02,-1.585,13.48,7.178,-3.092,12.03,2.696,-6.601,-12.28,-6.226,-4.22,-8.069,-25.39,0,0,0,0,0,0,0,0,0,0,0,0,0,0,0,0,
278,25.79,1.449,56.12,19.66,-1.974,24.11,18.8,0.7603,-11.68,-2.562,7.19,2.715,-3.721,7.802,13.75,-9.012,0,0,0,0,0,0,0,0,0,0,0,0,0,0,0,0,
279,57.56,5.269,58.38,10.78,17.8,35.83,35.48,21.4,3.719,26.45,32.77,10.41,15.84,21.54,25.28,2.953,0,0,0,0,0,0,0,0,0,0,0,0,0,0,0,0,
280,0.1179,4.716,29.36,9.378,23.45,22.09,0.6747,-13.45,10.82,23.15,0.5107,1.297,-0.4212,9.481,3.946,-8.895,0,0,0,0,0,0,0,0,0,0,0,0,0,0,0,0,
281,-55.02,-5.281,3.188,-5.845,28.46,17.27,-25.85,-17.62,8.27,9.591,-3.006,5.084,1.472,8.845,3.414,-9.771,0,0,0,0,0,0,0,0,0,0,0,0,0,0,0,0,
282,-43.26,-21.87,-57.43,-52.7,7.221,-0.1746,-37.3,2.249,22.36,4.778,15.24,-14.5,4.141,-6.315,-12.58,-28.41,0,0,0,0,0,0,0,0,0,0,0,0,0,0,0,0,
283,-1.359,-23.31,-73.63,-55.86,0.8124,-13.42,-13.69,11.48,15.63,-5.184,5.114,-11.79,-5.961,-0.7827,-26.34,-27.56,0,0,0,0,0,0,0,0,0,0,0,0,0,0,0,0,
284,53.62,24.08,13.42,33.63,37.52,22.52,42.95,39.37,11.38,29.38,-2.275,19.8,-3.836,31.81,-14.21,-9.462,0,0,0,0,0,0,0,0,0,0,0,0,0,0,0,0,
285,53.21,50.77,43.18,79.15,21.99,39.76,42.79,36.71,9.28,48.87,0.2977,9.435,-9.171,20.34,-11.04,-19.26,0,0,0,0,0,0,0,0,0,0,0,0,0,0,0,0,
286,17.02,40.77,21.29,39.86,-4.949,26.49,21.39,3.849,-1.389,15.41,9.749,-3.516,-8.818,0.9877,-4.314,-17.53,0,0,0,0,0,0,0,0,0,0,0,0,0,0,0,0,
287,19.31,24.41,30.74,6.155,3.162,14.96,27.79,-13.79,1.043,-3.859,5.469,-5.072,-8.269,-4.176,0.8029,-13.79,0,0,0,0,0,0,0,0,0,0,0,0,0,0,0,0,
288,8.398,-8.81,11.61,4.5,-6.071,4.292,31.82,-13.51,-0.031,-14.3,-2.233,-4.121,-6.438,-4.799,7.41,-12.57,0,0,0,0,0,0,0,0,0,0,0,0,0,0,0,0,
289,-24.13,-15.91,-6.294,-16.5,-0.1704,-1.824,26.64,-9.38,10.63,-10.14,15.66,11.05,11.57,8.3,17.76,-0.2555,0,0,0,0,0,0,0,0,0,0,0,0,0,0,0,0,
290,-39.99,-16.67,-14.57,-80.4,1.193,-32.3,-11.53,-21.64,12.53,-3.092,23.71,1.863,6.159,-1.156,10.64,-9.375,0,0,0,0,0,0,0,0,0,0,0,0,0,0,0,0,
291,-29.46,-33.44,-39.1,-62.31,-19.3,-33.53,-34.28,-3.0,-12.64,-16.38,18.76,-1.886,-0.62,-6.296,14.44,-10.67,0,0,0,0,0,0,0,0,0,0,0,0,0,0,0,0,
292,12.92,-10.13,-17.21,35.87,-9.192,18.12,-2.122,31.56,-8.706,-2.032,-4.85,5.453,-5.902,1.61,0.6065,-11.86,0,0,0,0,0,0,0,0,0,0,0,0,0,0,0,0,
293,22.4,9.319,13.4,40.71,-1.138,13.31,9.919,4.84,-15.32,2.736,-32.93,-10.76,-30.99,-12.59,-29.02,-27.85,0,0,0,0,0,0,0,0,0,0,0,0,0,0,0,0,
294,-4.338,7.58,4.453,5.118,5.897,-9.967,11.47,-20.46,-26.99,-13.44,-1.074,1.491,-10.3,-0.8093,-4.51,-6.818,0,0,0,0,0,0,0,0,0,0,0,0,0,0,0,0,
295,-4.256,21.01,8.732,1.875,16.67,8.049,20.8,-10.01,8.74,4.151,12.27,12.69,11.15,14.47,5.393,1.58,0,0,0,0,0,0,0,0,0,0,0,0,0,0,0,0,
296,-3.934,10.03,36.86,-28.7,3.917,6.706,7.268,1.637,6.373,8.319,-26.12,-9.735,-13.98,-2.776,-20.19,-21.87,0,0,0,0,0,0,0,0,0,0,0,0,0,0,0,0,
297,-6.404,-5.959,31.93,-31.81,16.4,1.937,2.427,13.29,-10.4,0.1728,-17.86,-8.327,-8.082,-6.003,-12.44,-23.53,0,0,0,0,0,0,0,0,0,0,0,0,0,0,0,0,
298,21.66,2.037,-27.99,3.654,22.58,4.083,-3.163,-0.8051,16.97,4.571,2.813,-6.471,4.869,-11.36,-9.255,-29.94,0,0,0,0,0,0,0,0,0,0,0,0,0,0,0,0,
299,47.7,6.764,-33.69,21.94,-10.67,2.469,-8.26,-4.06,6.058,-9.948,4.114,-16.88,-3.411,-19.98,-16.82,-39.51,0,0,0,0,0,0,0,0,0,0,0,0,0,0,0,0,
300,23.39,2.505,20.72,26.86,-19.41,10.68,27.91,5.688,-23.37,-15.7,7.855,-13.66,-3.904,-13.23,-10.11,-38.82,0,0,0,0,0,0,0,0,0,0,0,0,0,0,0,0,
301,-20.25,-15.74,-1.747,0.8552,-11.65,-3.202,59.98,-20.15,-18.66,-10.29,-1.22,-3.639,-6.629,-7.958,3.444,-31.97,0,0,0,0,0,0,0,0,0,0,0,0,0,0,0,0,
302,-13.22,-21.95,-19.18,-30.58,0.4106,-18.29,37.0,-9.051,-7.743,-8.609,9.381,7.8,4.64,2.356,22.67,-11.08,0,0,0,0,0,0,0,0,0,0,0,0,0,0,0,0,
303,-6.691,-15.65,30.1,-37.07,8.412,-14.17,-18.47,19.28,-0.5884,-6.425,21.08,-3.63,14.1,-4.56,15.37,-14.46,0,0,0,0,0,0,0,0,0,0,0,0,0,0,0,0,
304,-19.4,-14.02,26.24,-29.77,-10.65,-14.58,-33.59,-0.0575,-0.2832,-18.41,12.49,-3.852,9.35,-13.25,8.654,-19.52,0,0,0,0,0,0,0,0,0,0,0,0,0,0,0,0,
305,20.52,12.81,8.954,-8.389,-19.45,-8.681,-11.6,-5.016,3.978,-14.16,16.03,21.48,12.3,0.5596,18.59,-6.119,0,0,0,0,0,0,0,0,0,0,0,0,0,0,0,0,
306,23.07,10.82,7.705,-16.94,-26.95,-17.59,-14.83,-9.613,-7.228,-12.43,1.529,7.522,-1.954,-10.98,2.922,-16.73,0,0,0,0,0,0,0,0,0,0,0,0,0,0,0,0,
307,-29.18,-27.57,-40.54,-31.67,-32.29,-21.68,20.63,-15.39,-30.98,-30.83,-4.291,0.4326,-3.309,-12.43,10.04,-9.006,0,0,0,0,0,0,0,0,0,0,0,0,0,0,0,0,
308,-19.85,-16.84,-62.03,-4.98,-4.616,10.41,66.29,10.4,-8.653,-6.361,20.21,20.47,16.06,12.73,29.55,9.542,0,0,0,0,0,0,0,0,0,0,0,0,0,0,0,0,
309,-3.106,0.6396,3.341,-1.474,11.33,17.88,15.17,4.836,11.67,16.63,17.6,9.934,4.501,7.548,10.82,-2.247,0,0,0,0,0,0,0,0,0,0,0,0,0,0,0,0,
310,6.827,4.342,81.8,-15.81,10.1,6.462,-5.103,-12.97,-2.597,0.7071,7.947,8.426,-3.151,3.412,4.399,3.02,0,0,0,0,0,0,0,0,0,0,0,0,0,0,0,0,
311,30.65,21.5,57.28,-13.71,8.225,8.254,38.29,-2.854,-2.58,-0.7459,0.4701,19.8,1.624,10.45,1.037,5.851,0,0,0,0,0,0,0,0,0,0,0,0,0,0,0,0,
312,-1.575,6.354,-40.3,-13.78,5.756,10.08,10.49,0.28,7.465,5.918,-5.092,13.51,3.552,8.211,-9.579,-10.78,0,0,0,0,0,0,0,0,0,0,0,0,0,0,0,0,
313,-15.18,-16.25,-49.51,-0.2283,11.7,14.99,-26.55,-4.971,25.14,10.42,6.215,3.165,8.943,0.9119,-3.064,-19.02,0,0,0,0,0,0,0,0,0,0,0,0,0,0,0,0,
314,16.29,-15.17,1.52,-3.929,-6.321,2.657,-3.457,-7.592,13.44,-1.776,-6.903,-4.759,-7.205,-16.94,-4.907,-23.99,0,0,0,0,0,0,0,0,0,0,0,0,0,0,0,0,
315,4.027,-8.787,13.0,-32.32,-11.55,0.3524,16.52,15.16,-25.81,-17.7,-6.771,13.97,-3.462,-7.088,2.608,-5.574,0,0,0,0,0,0,0,0,0,0,0,0,0,0,0,0,
316,-8.37,2.638,8.376,-38.73,6.744,17.28,10.28,28.27,-13.64,1.181,13.6,19.05,13.94,4.665,9.481,3.593,0,0,0,0,0,0,0,0,0,0,0,0,0,0,0,0,
317,3.263,-0.8512,-9.919,-30.47,-17.27,2.937,10.43,-12.24,-8.321,-1.858,-1.093,-5.865,-2.405,-14.78,-1.703,-9.585,0,0,0,0,0,0,0,0,0,0,0,0,0,0,0,0,
318,12.45,6.231,-14.17,-5.49,-10.46,7.699,25.28,-26.85,-19.19,-11.25,5.197,9.05,9.461,0.1362,5.155,8.234,0,0,0,0,0,0,0,0,0,0,0,0,0,0,0,0,
319,13.51,27.14,1.151,4.74,30.27,28.16,11.86,-6.438,24.12,17.54,12.98,19.25,23.37,19.33,0.4345,14.29,0,0,0,0,0,0,0,0,0,0,0,0,0,0,0,0,
320,-6.883,11.44,-16.48,-18.43,16.29,14.57,1.365,2.111,34.01,23.19,-9.716,7.65,1.905,14.51,-5.183,4.57,0,0,0,0,0,0,0,0,0,0,0,0,0,0,0,0,
321,-7.017,-9.608,-23.58,-14.96,7.838,19.22,32.61,6.46,1.931,24.75,2.316,18.73,5.436,20.82,9.392,12.3,0,0,0,0,0,0,0,0,0,0,0,0,0,0,0,0,
322,5.281,-19.65,-4.881,-6.151,11.87,22.09,36.38,-10.96,-3.312,22.91,4.346,6.035,5.799,4.25,-1.371,5.667,0,0,0,0,0,0,0,0,0,0,0,0,0,0,0,0,
323,9.575,-12.6,8.705,-4.902,2.645,16.05,16.84,0.2464,-7.142,-10.3,-8.198,-3.018,6.036,-2.339,1.862,14.4,0,0,0,0,0,0,0,0,0,0,0,0,0,0,0,0,
324,35.43,25.59,22.58,6.394,14.47,36.13,-5.109,39.87,7.588,-4.425,13.44,14.07,29.02,19.0,15.51,26.27,0,0,0,0,0,0,0,0,0,0,0,0,0,0,0,0,
325,28.15,25.8,13.88,-13.36,9.83,23.53,-29.18,21.74,24.43,13.21,13.95,7.705,19.69,12.52,-2.371,10.71,0,0,0,0,0,0,0,0,0,0,0,0,0,0,0,0,
326,1.731,3.586,6.585,-17.86,0.5499,6.609,10.82,4.792,4.959,5.575,-1.596,8.312,3.575,8.302,-2.217,15.23,0,0,0,0,0,0,0,0,0,0,0,0,0,0,0,0,
327,17.62,8.896,5.601,10.34,7.605,22.69,43.8,7.577,-7.349,5.557,-7.497,10.94,0.3628,3.958,-0.0222,12.1,0,0,0,0,0,0,0,0,0,0,0,0,0,0,0,0,
328,21.3,-0.0605,-24.29,5.023,-1.594,16.91,14.83,-11.6,-5.33,-12.87,-9.262,1.455,-7.907,-11.69,-4.967,-0.5671,0,0,0,0,0,0,0,0,0,0,0,0,0,0,0,0,
329,1.831,-5.431,-20.17,-6.831,-2.725,5.762,19.13,-6.224,-4.265,-21.59,6.325,2.003,-6.483,-8.708,8.293,7.519,0,0,0,0,0,0,0,0,0,0,0,0,0,0,0,0,
330,-30.16,0.9112,18.07,-13.48,-8.338,-4.357,30.63,-5.578,-20.23,-15.8,4.997,-10.22,-14.34,-18.05,0.5141,-1.62,0,0,0,0,0,0,0,0,0,0,0,0,0,0,0,0,
331,-45.29,-8.443,7.927,-35.6,-19.51,-16.22,27.35,-21.99,-39.67,-32.04,-2.187,-4.812,-13.09,-18.45,-8.182,-1.851,0,0,0,0,0,0,0,0,0,0,0,0,0,0,0,0,
332,8.024,-9.024,-39.01,-54.63,-14.43,-10.78,25.64,-17.38,-19.09,-23.52,-3.115,12.97,-5.044,-2.044,-10.8,4.261,0,0,0,0,0,0,0,0,0,0,0,0,0,0,0,0,
333,25.65,-5.027,-45.6,-46.84,-28.54,-13.38,-20.45,-16.63,-14.88,-14.83,-21.06,0.3734,-22.81,-13.64,-22.32,-9.444,0,0,0,0,0,0,0,0,0,0,0,0,0,0,0,0,
334,-14.5,-5.549,4.404,6.053,-20.43,-1.038,-41.92,-3.921,-33.24,-25.83,-1.93,4.753,-13.28,-14.48,-1.429,2.905,0,0,0,0,0,0,0,0,0,0,0,0,0,0,0,0,
335,-3.976,-16.99,-2.872,21.49,9.18,14.01,-18.96,3.587,-15.03,-18.06,19.74,8.892,0.9262,-9.755,7.106,9.334,0,0,0,0,0,0,0,0,0,0,0,0,0,0,0,0,
336,7.668,-25.96,-47.93,-31.32,-6.167,-6.711,-9.745,-8.998,-6.953,-25.38,-15.09,-6.729,-19.17,-16.28,-15.27,-0.786,0,0,0,0,0,0,0,0,0,0,0,0,0,0,0,0,
337,-7.533,4.333,18.93,-32.67,-14.88,-4.848,27.69,9.688,-13.82,-24.89,-27.0,-0.8212,-16.46,0.1285,-11.31,10.29,0,0,0,0,0,0,0,0,0,0,0,0,0,0,0,0,
338,3.74,17.01,66.43,8.124,-5.324,11.54,41.87,12.57,-13.49,-3.482,-7.343,-0.4997,-4.003,6.388,-1.202,7.375,0,0,0,0,0,0,0,0,0,0,0,0,0,0,0,0,
339,12.52,7.109,-12.45,10.68,-6.611,9.475,-4.946,-7.519,-20.01,-10.07,-6.997,-0.9567,-1.807,0.5128,-0.924,0.7754,0,0,0,0,0,0,0,0,0,0,0,0,0,0,0,0,
340,3.143,14.36,-40.61,-13.05,-0.5907,11.09,-5.712,-6.13,-4.892,-15.02,-16.2,5.58,-0.1535,-1.574,-8.183,1.994,0,0,0,0,0,0,0,0,0,0,0,0,0,0,0,0,
341,-3.701,-19.61,4.277,-16.05,-4.623,7.843,35.3,-21.63,4.222,-15.09,-8.305,-0.5109,-2.414,-8.545,-5.484,1.698,0,0,0,0,0,0,0,0,0,0,0,0,0,0,0,0,
342,-2.173,-42.07,2.919,23.24,-3.513,18.94,41.66,-21.2,-5.594,-13.71,15.33,7.585,10.78,2.702,20.44,16.98,0,0,0,0,0,0,0,0,0,0,0,0,0,0,0,0,
343,-10.7,-2.61,-42.28,5.512,4.189,17.29,11.88,8.435,-3.475,-1.403,3.743,-0.6837,3.312,-4.209,4.306,5.621,0,0,0,0,0,0,0,0,0,0,0,0,0,0,0,0,
344,-25.24,9.556,-45.77,-61.68,-6.576,-24.11,-18.69,3.227,-14.23,-18.21,-12.77,-20.05,-15.66,-21.4,-22.86,-12.9,0,0,0,0,0,0,0,0,0,0,0,0,0,0,0,0,
345,-0.4791,0.5288,16.26,-28.87,-9.122,-19.88,-35.6,-15.45,-9.935,-19.96,2.336,-1.623,1.899,2.812,-4.625,3.612,0,0,0,0,0,0,0,0,0,0,0,0,0,0,0,0,
346,22.36,-3.846,26.3,24.1,-10.33,16.09,-31.79,-9.46,7.158,7.694,-20.87,0.6082,-4.443,7.269,-8.714,-1.665,0,0,0,0,0,0,0,0,0,0,0,0,0,0,0,0,
347,8.402,2.679,-28.03,18.12,-2.26,22.97,21.87,20.83,-9.606,3.1,-47.04,-18.42,-26.93,-12.4,-27.77,-20.16,0,0,0,0,0,0,0,0,0,0,0,0,0,0,0,0,
348,2.258,34.65,-32.97,24.58,8.221,16.81,48.58,23.98,-14.57,-4.077,-33.08,-20.2,-19.68,-14.06,-27.33,-21.57,0,0,0,0,0,0,0,0,0,0,0,0,0,0,0,0,
349,-11.55,18.58,-6.496,-7.223,-16.84,-9.451,-1.331,-20.27,-9.689,-4.484,-22.06,-14.82,-10.85,-17.24,-21.28,-13.09,0,0,0,0,0,0,0,0,0,0,0,0,0,0,0,0,
350,-18.59,-14.74,5.34,-67.09,-12.24,-26.73,-11.17,-29.61,-13.15,-10.66,4.356,-5.491,5.878,-13.41,-0.5949,7.541,0,0,0,0,0,0,0,0,0,0,0,0,0,0,0,0,
351,8.026,-1.007,-4.027,-58.33,8.47,-16.61,0.5998,-25.89,-3.961,-7.936,11.22,-13.57,8.85,-11.39,4.294,5.351,0,0,0,0,0,0,0,0,0,0,0,0,0,0,0,0,
352,6.914,-8.821,-20.43,-15.06,-11.05,-9.147,-25.19,-41.43,-6.284,-13.09,-9.046,-18.33,-2.551,-11.34,-0.392,-1.659,0,0,0,0,0,0,0,0,0,0,0,0,0,0,0,0,
353,-29.05,-21.75,-7.119,4.281,-12.41,-4.407,-19.43,-11.32,-7.115,-10.88,3.345,-9.706,2.117,-6.102,-0.708,1.557,0,0,0,0,0,0,0,0,0,0,0,0,0,0,0,0,
354,-49.41,-12.59,-12.91,-4.981,-23.2,-18.97,-8.963,14.54,-19.68,-15.14,-11.69,-26.87,-19.45,-24.53,-23.32,-14.06,0,0,0,0,0,0,0,0,0,0,0,0,0,0,0,0,
355,-20.29,-24.67,-33.8,2.587,-44.36,-19.31,-12.78,-0.7829,-49.03,-33.06,-42.2,-23.84,-30.32,-24.7,-15.62,-1.785,0,0,0,0,0,0,0,0,0,0,0,0,0,0,0,0,
356,10.99,-30.7,-23.73,22.62,-18.97,11.89,-7.388,-12.28,-24.74,-15.31,-24.09,-5.668,-4.942,-4.797,10.28,17.87,0,0,0,0,0,0,0,0,0,0,0,0,0,0,0,0,
357,-30.31,-14.14,-30.12,-16.24,-14.42,-1.93,-11.9,-16.42,-5.132,0.5699,-14.71,-11.74,-9.795,-6.308,-0.835,7.202,0,0,0,0,0,0,0,0,0,0,0,0,0,0,0,0,
358,-48.83,2.974,-17.76,-56.87,-20.82,-27.62,18.01,-1.425,-30.15,6.343,-15.59,-0.1298,-13.47,3.948,0.8381,17.31,0,0,0,0,0,0,0,0,0,0,0,0,0,0,0,0,
359,-0.9988,-2.992,26.39,-29.93,4.581,-10.89,38.62,-3.751,-22.08,24.05,-3.789,-1.861,2.904,5.324,13.64,21.83,0,0,0,0,0,0,0,0,0,0,0,0,0,0,0,0,
360,17.16,-18.5,25.67,20.24,14.83,15.53,3.985,-20.52,6.601,11.8,5.46,-11.33,13.74,-0.1972,16.58,17.36,0,0,0,0,0,0,0,0,0,0,0,0,0,0,0,0,
361,31.49,4.629,17.81,42.04,14.78,34.35,9.642,10.11,31.21,9.75,15.48,13.27,23.53,19.29,19.05,31.2,0,0,0,0,0,0,0,0,0,0,0,0,0,0,0,0,
362,24.91,18.27,23.21,10.57,7.077,17.24,26.31,14.38,31.36,21.73,18.78,13.76,12.99,14.9,11.46,26.18,0,0,0,0,0,0,0,0,0,0,0,0,0,0,0,0,
363,-31.56,4.927,8.777,-6.718,9.149,0.5343,10.03,-19.32,3.822,10.31,34.73,13.19,14.94,12.59,19.89,24.49,0,0,0,0,0,0,0,0,0,0,0,0,0,0,0,0,
364,-24.25,6.08,-12.1,13.63,27.32,16.19,7.774,-10.2,11.58,20.2,34.7,28.29,26.11,21.54,18.35,20.0,0,0,0,0,0,0,0,0,0,0,0,0,0,0,0,0,
365,6.231,-11.67,-24.51,-6.351,9.084,-1.001,0.6269,8.497,17.95,16.78,1.328,17.16,8.062,0.3187,-1.142,2.121,0,0,0,0,0,0,0,0,0,0,0,0,0,0,0,0,
366,-13.36,-5.639,3.523,-16.58,1.509,-17.47,18.49,12.18,9.497,-1.442,5.827,23.25,11.91,0.2047,10.67,19.4,0,0,0,0,0,0,0,0,0,0,0,0,0,0,0,0,
367,4.827,35.6,42.23,7.522,10.21,-1.849,57.82,-0.9704,22.08,14.05,-0.1167,26.7,8.872,0.668,4.608,22.07,0,0,0,0,0,0,0,0,0,0,0,0,0,0,0,0,
368,37.47,20.73,38.46,6.401,-7.568,3.445,32.27,-24.89,-1.475,2.832,-31.17,9.722,-16.76,-18.95,-8.426,5.426,0,0,0,0,0,0,0,0,0,0,0,0,0,0,0,0,
369,9.585,-6.942,9.045,18.65,6.041,18.64,-11.74,-19.49,-16.01,-11.94,-9.373,15.45,-3.848,-6.811,9.977,14.74,0,0,0,0,0,0,0,0,0,0,0,0,0,0,0,0,
370,-20.71,-13.82,-26.58,19.36,11.02,17.84,-4.657,-7.9,5.682,2.454,-2.552,9.666,-7.499,-5.069,2.133,7.146,0,0,0,0,0,0,0,0,0,0,0,0,0,0,0,0,
371,0.2703,-18.93,-9.803,-21.55,-16.25,-6.82,11.59,-1.352,-17.27,-5.67,-6.034,8.204,-17.69,-9.919,6.732,4.569,0,0,0,0,0,0,0,0,0,0,0,0,0,0,0,0,
372,23.73,10.5,21.5,-23.6,-5.295,-5.062,-26.77,-6.885,-21.92,-4.027,31.19,20.3,11.65,3.801,25.87,10.7,0,0,0,0,0,0,0,0,0,0,0,0,0,0,0,0,
373,10.09,19.95,-14.22,-4.586,-4.436,-10.53,-59.02,-35.75,10.48,0.3889,18.35,-2.159,3.852,-12.52,-4.982,-12.54,0,0,0,0,0,0,0,0,0,0,0,0,0,0,0,0,
374,-9.645,-6.668,-1.835,-17.1,-10.04,-22.16,24.24,-28.86,1.577,-20.85,-21.25,-10.14,-20.86,-24.04,-16.9,-12.15,0,0,0,0,0,0,0,0,0,0,0,0,0,0,0,0,
375,-39.32,-5.763,32.89,-25.47,21.43,-10.44,80.08,-9.547,-7.443,-19.44,-15.12,7.9,-7.782,-5.848,5.657,7.367,0,0,0,0,0,0,0,0,0,0,0,0,0,0,0,0,
376,-41.93,3.983,-18.49,0.0871,22.49,2.719,-6.93,-9.582,12.06,-0.4765,1.051,11.2,7.45,6.487,8.81,9.481,0,0,0,0,0,0,0,0,0,0,0,0,0,0,0,0,
377,33.76,5.93,-28.3,29.9,-11.08,13.49,-41.11,5.522,19.7,10.91,7.108,5.893,5.594,3.934,4.235,4.942,0,0,0,0,0,0,0,0,0,0,0,0,0,0,0,0,
378,55.65,3.986,-1.279,20.83,-28.76,9.742,25.83,-3.643,-4.234,0.308,-2.582,-5.965,-10.02,-13.21,-1.469,-5.017,0,0,0,0,0,0,0,0,0,0,0,0,0,0,0,0,
379,-7.788,2.825,-12.78,8.193,-10.86,6.573,36.88,-15.48,-24.63,-16.65,-15.47,-1.392,-13.15,-11.54,-7.431,-1.482,0,0,0,0,0,0,0,0,0,0,0,0,0,0,0,0,
380,-27.99,-0.3155,-0.9327,15.14,11.82,14.07,-23.76,2.273,-10.37,-3.503,-23.0,4.186,-13.14,-3.541,-22.22,-4.539,0,0,0,0,0,0,0,0,0,0,0,0,0,0,0,0,
381,-28.46,-21.29,2.656,2.735,-3.053,0.3036,-66.12,-0.2869,-11.15,-3.335,-21.19,-4.029,-20.7,-10.59,-20.92,-13.69,0,0,0,0,0,0,0,0,0,0,0,0,0,0,0,0,
382,-13.33,-2.85,15.45,-15.67,-2.858,-6.532,-28.77,1.185,-11.23,-5.961,12.27,15.27,5.873,10.84,22.04,11.39,0,0,0,0,0,0,0,0,0,0,0,0,0,0,0,0,
383,37.95,35.49,61.94,-17.48,19.14,0.4437,40.46,2.727,20.08,21.12,36.14,27.58,30.51,31.02,50.62,29.62,0,0,0,0,0,0,0,0,0,0,0,0,0,0,0,0,
384,43.04,22.09,48.0,15.65,29.51,15.06,65.13,2.411,30.78,29.1,54.85,29.0,43.11,39.67,76.69,44.73,0,0,0,0,0,0,0,0,0,0,0,0,0,0,0,0,
385,30.74,23.06,19.77,54.16,53.03,45.83,56.66,40.1,47.52,41.4,89.89,48.25,70.44,63.6,100.9,66.61,0,0,0,0,0,0,0,0,0,0,0,0,0,0,0,0,
386,37.1,35.69,12.02,25.07,50.21,35.9,39.47,36.78,62.95,57.68,75.73,40.68,57.02,56.82,60.71,46.58,0,0,0,0,0,0,0,0,0,0,0,0,0,0,0,0,
387,15.76,18.18,-18.48,15.01,32.34,21.35,33.73,-7.398,40.49,41.41,48.5,28.59,35.36,41.14,25.22,28.16,0,0,0,0,0,0,0,0,0,0,0,0,0,0,0,0,
388,-11.49,17.34,9.79,58.22,43.42,39.53,27.73,-13.26,43.07,34.76,43.53,23.0,38.0,33.31,25.95,20.62,0,0,0,0,0,0,0,0,0,0,0,0,0,0,0,0,
389,-13.81,7.35,78.39,21.73,27.78,11.46,7.157,-3.67,39.15,19.57,20.71,2.289,16.27,5.563,14.76,-0.5064,0,0,0,0,0,0,0,0,0,0,0,0,0,0,0,0,
390,5.923,-9.533,48.65,-48.22,6.435,-23.64,11.22,9.108,5.117,-5.917,20.03,4.798,4.354,-0.5465,12.44,0.6777,0,0,0,0,0,0,0,0,0,0,0,0,0,0,0,0,
391,8.074,5.341,-36.08,-42.08,1.606,-19.03,1.274,-5.94,-0.1231,-3.28,27.33,3.667,5.452,2.716,7.46,-2.268,0,0,0,0,0,0,0,0,0,0,0,0,0,0,0,0,
392,0.3226,16.69,-28.09,13.57,-5.95,-1.402,-32.2,-30.13,1.496,2.477,25.36,-1.374,9.519,7.131,9.705,-2.875,0,0,0,0,0,0,0,0,0,0,0,0,0,0,0,0,
393,34.47,18.38,23.76,53.94,21.72,33.41,-10.84,4.83,21.83,24.0,37.92,13.73,31.66,29.08,23.08,12.86,0,0,0,0,0,0,0,0,0,0,0,0,0,0,0,0,
394,25.39,0.0897,-6.114,32.31,34.83,28.04,19.01,15.27,42.43,32.84,4.68,-1.089,13.11,17.39,-4.75,-3.394,0,0,0,0,0,0,0,0,0,0,0,0,0,0,0,0,
395,-17.19,-16.81,-11.48,15.67,11.21,1.355,2.654,-13.19,7.214,6.659,-29.51,-8.516,-15.17,3.075,-22.85,-13.12,0,0,0,0,0,0,0,0,0,0,0,0,0,0,0,0,
396,16.64,12.24,45.67,18.23,0.6088,9.693,-27.63,-6.157,-14.24,10.91,-8.874,0.6083,-8.773,4.936,-14.63,-11.66,0,0,0,0,0,0,0,0,0,0,0,0,0,0,0,0,
397,27.99,22.93,-2.743,-26.46,-18.52,-12.94,-42.02,4.654,-11.31,4.351,-4.388,-19.35,-14.35,-15.78,-23.26,-26.24,0,0,0,0,0,0,0,0,0,0,0,0,0,0,0,0,
398,-8.943,0.203,-89.09,-17.99,-15.28,-30.68,-24.61,18.33,-11.1,-19.92,-1.647,-16.28,-12.07,-14.92,-19.9,-19.33,0,0,0,0,0,0,0,0,0,0,0,0,0,0,0,0,
399,-15.57,-16.82,-66.46,31.76,0.8576,-10.29,-28.1,11.38,2.341,-6.096,4.754,-6.478,-10.37,-10.1,-19.17,-22.68,0,0,0,0,0,0,0,0,0,0,0,0,0,0,0,0,
400,-35.68,-23.09,-11.2,-7.35,-27.19,-20.85,-38.56,-29.35,-10.12,-9.626,-8.96,-14.09,-23.01,-24.11,-20.95,-31.65,0,0,0,0,0,0,0,0,0,0,0,0,0,0,0,0,
401,-49.13,-2.901,-13.32,-36.75,-40.18,-26.47,-7.057,-24.61,-17.77,-21.18,-9.566,-7.054,-18.98,-22.27,-14.08,-18.87,0,0,0,0,0,0,0,0,0,0,0,0,0,0,0,0,
402,-41.93,-16.73,-61.81,-15.77,-42.66,-22.24,-18.59,-15.53,-14.26,-22.98,-20.33,-21.06,-37.19,-37.77,-35.06,-30.39,0,0,0,0,0,0,0,0,0,0,0,0,0,0,0,0,
403,-40.59,-51.09,-61.16,-30.5,-51.15,-39.65,-37.58,-26.36,-50.95,-43.87,-24.06,-28.56,-48.83,-42.37,-38.78,-30.18,0,0,0,0,0,0,0,0,0,0,0,0,0,0,0,0,
404,-11.37,-8.567,-11.93,-21.46,-19.69,-31.46,-0.6331,7.449,-53.15,-28.27,-3.231,-9.982,-21.08,-14.53,-24.15,-10.88,0,0,0,0,0,0,0,0,0,0,0,0,0,0,0,0,
405,-2.091,29.22,-18.71,47.03,4.045,-2.747,-5.498,31.03,-12.26,-0.313,-9.813,-19.59,-13.7,-15.24,-31.73,-17.4,0,0,0,0,0,0,0,0,0,0,0,0,0,0,0,0,
406,-12.1,2.973,-16.17,68.11,2.282,13.4,-7.278,5.829,5.029,-5.603,-13.24,-31.32,-11.99,-20.91,-23.11,-19.61,0,0,0,0,0,0,0,0,0,0,0,0,0,0,0,0,
407,6.314,-20.87,21.92,5.032,-8.996,3.884,24.31,-23.55,5.524,-5.455,-4.397,-32.16,-7.013,-15.7,-18.6,-24.2,0,0,0,0,0,0,0,0,0,0,0,0,0,0,0,0,
408,-2.606,-15.76,5.169,-15.28,-24.79,-8.829,-29.04,-26.23,-4.244,-6.6,-0.7404,-26.73,-2.606,-10.62,-18.37,-21.19,0,0,0,0,0,0,0,0,0,0,0,0,0,0,0,0,
409,-17.96,7.527,-19.39,8.894,-0.5848,-0.0423,-85.31,-5.506,13.05,-0.5283,12.68,-10.91,16.76,2.305,0.8523,1.818,0,0,0,0,0,0,0,0,0,0,0,0,0,0,0,0,
410,-18.27,-10.77,-29.01,-50.91,13.14,-20.29,-18.78,-0.4649,31.27,5.781,-7.373,-18.71,-0.9405,-5.726,-12.05,-5.275,0,0,0,0,0,0,0,0,0,0,0,0,0,0,0,0,
411,-27.78,-33.84,-32.12,-56.52,-7.385,-28.41,57.83,-1.797,-7.415,-7.817,-30.09,-17.03,-22.16,-5.208,-25.43,-9.729,0,0,0,0,0,0,0,0,0,0,0,0,0,0,0,0,
412,-0.1311,7.449,4.497,59.48,1.433,13.07,7.52,-10.13,-18.4,3.254,-15.24,-2.213,-1.407,11.0,-13.99,-0.6975,0,0,0,0,0,0,0,0,0,0,0,0,0,0,0,0,
413,14.84,2.027,17.3,57.89,8.307,-2.363,-65.64,-29.01,10.18,11.11,-15.65,-14.82,2.265,-1.885,-17.72,-13.42,0,0,0,0,0,0,0,0,0,0,0,0,0,0,0,0,
414,-22.79,-40.97,-6.127,-21.71,-3.234,-39.7,-3.852,0.997,9.692,-4.898,-14.96,-21.84,-4.011,-11.73,-14.51,-16.99,0,0,0,0,0,0,0,0,0,0,0,0,0,0,0,0,
415,-21.04,-14.04,-8.978,-10.3,-14.46,-20.68,50.2,21.57,-8.145,-9.928,-10.51,-28.23,-9.726,-16.17,-9.63,-17.55,0,0,0,0,0,0,0,0,0,0,0,0,0,0,0,0,
416,15.92,11.86,0.9913,-1.1,-21.15,-9.446,-24.52,-13.44,-26.8,-21.32,-18.54,-27.76,-17.59,-19.38,-13.69,-14.2,0,0,0,0,0,0,0,0,0,0,0,0,0,0,0,0,
417,9.784,-1.68,-3.338,-24.44,-1.437,-16.38,-59.62,-14.25,-12.02,-20.16,-3.047,-5.636,-2.134,-5.075,-11.81,-0.4234,0,0,0,0,0,0,0,0,0,0,0,0,0,0,0,0,
418,-34.69,-23.53,-37.69,-12.17,-2.441,-17.18,-20.0,4.12,12.33,-12.69,6.059,-9.546,-1.264,-9.846,-14.47,-4.233,0,0,0,0,0,0,0,0,0,0,0,0,0,0,0,0,
419,-40.23,-33.08,-30.31,15.24,-25.19,-15.75,-7.859,-0.7887,-10.12,-24.27,-9.377,-7.32,-11.73,-9.824,-8.536,2.604,0,0,0,0,0,0,0,0,0,0,0,0,0,0,0,0,
420,-2.537,-5.902,40.82,15.78,-18.27,-19.83,-7.241,-6.108,-22.78,-13.69,-29.41,6.406,-9.905,2.547,-9.366,3.117,0,0,0,0,0,0,0,0,0,0,0,0,0,0,0,0,
421,3.838,6.27,58.53,1.647,-7.052,-25.79,11.63,-4.418,-9.572,-6.466,-34.54,-5.187,-9.647,-5.437,-13.49,-14.12,0,0,0,0,0,0,0,0,0,0,0,0,0,0,0,0,
422,8.82,1.519,23.4,4.819,12.61,-0.5998,30.81,8.391,3.568,-6.114,3.208,4.751,7.7,4.338,4.732,0.3584,0,0,0,0,0,0,0,0,0,0,0,0,0,0,0,0,
423,13.99,12.31,-20.44,-14.67,16.02,-0.1703,-5.667,-3.035,13.61,12.85,15.09,9.791,8.183,8.057,-3.695,5.107,0,0,0,0,0,0,0,0,0,0,0,0,0,0,0,0,
424,-37.38,-4.806,-62.98,-33.99,-16.85,-37.16,-63.16,-15.38,-1.634,-3.304,-13.55,-7.457,-9.157,-12.44,-11.96,-0.787,0,0,0,0,0,0,0,0,0,0,0,0,0,0,0,0,
425,-50.18,-22.68,-32.1,14.26,-11.62,-16.25,-31.79,3.285,1.387,-21.71,-5.214,3.458,4.949,-8.942,10.16,15.01,0,0,0,0,0,0,0,0,0,0,0,0,0,0,0,0,
426,10.86,-4.379,28.9,46.1,1.917,10.09,16.71,-5.344,14.76,-4.439,6.991,11.2,8.573,-1.294,3.782,10.32,0,0,0,0,0,0,0,0,0,0,0,0,0,0,0,0,
427,33.69,15.36,39.19,39.69,-5.79,-0.3166,5.154,13.22,-6.027,5.912,6.61,9.719,5.199,1.864,-2.655,6.403,0,0,0,0,0,0,0,0,0,0,0,0,0,0,0,0,
428,-12.53,10.88,23.98,29.42,2.127,-0.8743,6.248,50.54,-2.784,6.221,8.949,5.345,10.05,-7.007,1.571,7.149,0,0,0,0,0,0,0,0,0,0,0,0,0,0,0,0,
429,-43.44,-25.18,4.362,-23.12,-12.31,-27.63,25.21,-5.186,4.06,-16.74,0.1806,-7.461,-2.585,-27.75,0.1675,-1.21,0,0,0,0,0,0,0,0,0,0,0,0,0,0,0,0,
430,14.96,-42.21,7.015,-30.46,-20.58,-44.44,29.0,-38.15,-9.485,-28.41,13.83,8.388,6.931,-9.247,21.66,13.94,0,0,0,0,0,0,0,0,0,0,0,0,0,0,0,0,
431,44.6,-16.27,21.57,21.08,-0.9361,-17.79,22.95,6.425,-1.55,0.3389,16.47,10.41,10.4,-0.9415,10.47,5.782,0,0,0,0,0,0,0,0,0,0,0,0,0,0,0,0,
432,-24.58,9.805,37.01,15.91,-7.579,-13.3,-2.188,13.55,-11.56,-3.897,-6.99,-11.64,-13.02,-24.59,-22.93,-20.17,0,0,0,0,0,0,0,0,0,0,0,0,0,0,0,0,
433,-17.7,21.42,60.85,2.371,-15.58,-18.83,-37.96,4.081,-16.06,-22.2,0.4246,-4.821,-5.649,-18.4,-12.03,-12.24,0,0,0,0,0,0,0,0,0,0,0,0,0,0,0,0,
434,35.09,2.266,13.98,1.93,-17.63,-22.58,-31.07,5.409,9.547,-15.92,5.134,-1.894,-2.589,-13.36,-4.643,-10.79,0,0,0,0,0,0,0,0,0,0,0,0,0,0,0,0,
435,-15.13,-17.22,-55.43,-21.06,-11.91,-26.69,28.43,1.177,4.371,-16.2,4.856,-4.952,-12.38,-19.2,-11.72,-16.75,0,0,0,0,0,0,0,0,0,0,0,0,0,0,0,0,
436,-59.5,-14.42,-31.99,-1.837,7.333,-10.88,34.39,-0.4865,-4.521,-11.54,9.865,-0.6062,-10.38,-16.91,-19.1,-21.35,0,0,0,0,0,0,0,0,0,0,0,0,0,0,0,0,
437,-16.34,-34.36,21.96,34.45,-14.24,-9.379,-13.66,-2.744,-8.218,-8.706,-13.8,5.073,-19.41,-13.29,-23.86,-19.64,0,0,0,0,0,0,0,0,0,0,0,0,0,0,0,0,
438,39.73,-30.17,60.25,7.655,-29.71,-22.0,-3.759,7.761,-18.36,-0.259,-14.52,29.43,-10.84,7.4,-2.024,8.263,0,0,0,0,0,0,0,0,0,0,0,0,0,0,0,0,
439,27.11,-2.306,59.41,-36.58,-7.603,-32.74,5.884,2.567,-1.454,12.67,5.874,25.82,0.5476,6.581,5.075,8.907,0,0,0,0,0,0,0,0,0,0,0,0,0,0,0,0,
440,-29.83,-16.0,6.403,-16.01,-8.888,-33.46,-9.521,-3.575,2.592,-8.526,1.206,4.258,-8.867,-8.054,0.2315,-2.068,0,0,0,0,0,0,0,0,0,0,0,0,0,0,0,0,
441,-30.74,-12.55,-31.68,20.32,-5.164,-8.26,-1.596,24.89,-5.346,-9.529,-7.877,14.06,-3.609,7.608,5.486,12.05,0,0,0,0,0,0,0,0,0,0,0,0,0,0,0,0,
442,-41.39,3.08,-65.1,0.7747,13.22,-5.258,-41.86,11.29,12.37,10.02,-20.19,18.91,-1.503,10.8,-9.714,8.767,0,0,0,0,0,0,0,0,0,0,0,0,0,0,0,0,
443,-80.22,-6.145,-54.9,14.15,15.21,-6.506,-63.0,-15.21,21.64,5.033,-14.29,31.42,0.7257,14.51,-2.261,14.62,0,0,0,0,0,0,0,0,0,0,0,0,0,0,0,0,
444,-6.348,-8.497,40.55,41.58,1.75,15.93,-5.773,-1.818,10.06,16.85,-2.8,36.75,5.028,23.29,21.38,21.6,0,0,0,0,0,0,0,0,0,0,0,0,0,0,0,0,
445,88.03,-27.83,83.2,-16.97,-19.1,-2.078,3.825,-7.988,-13.72,15.16,-10.27,6.162,-6.421,4.638,15.85,1.484,0,0,0,0,0,0,0,0,0,0,0,0,0,0,0,0,
446,67.81,-20.74,46.05,-23.87,2.03,-17.09,-4.495,8.348,-15.85,-5.492,13.03,5.804,5.754,4.609,16.52,3.65,0,0,0,0,0,0,0,0,0,0,0,0,0,0,0,0,
447,12.49,25.8,-1.382,33.69,24.39,-0.9958,13.23,33.05,8.064,0.2661,15.26,9.687,8.31,3.812,6.076,1.557,0,0,0,0,0,0,0,0,0,0,0,0,0,0,0,0,
448,-23.67,15.05,-24.9,11.23,-4.108,-11.92,10.91,-3.373,-3.708,-10.85,-23.09,-6.858,-18.94,-15.2,-16.56,-15.33,0,0,0,0,0,0,0,0,0,0,0,0,0,0,0,0,
449,-53.53,-8.621,14.18,-12.12,-1.339,-14.75,15.0,-15.47,-21.02,-18.59,-11.62,3.925,-18.3,-6.853,-16.55,-13.08,0,0,0,0,0,0,0,0,0,0,0,0,0,0,0,0,
450,-70.66,-1.774,20.51,10.42,18.55,-2.992,-13.22,6.779,-9.826,-2.544,7.856,8.887,-8.953,-0.0732,-11.68,-11.46,0,0,0,0,0,0,0,0,0,0,0,0,0,0,0,0,
451,-26.02,-5.866,-7.899,19.92,5.106,-3.326,-47.76,1.732,1.579,-2.97,-0.5595,5.867,-1.617,3.0,2.863,0.9487,0,0,0,0,0,0,0,0,0,0,0,0,0,0,0,0,
452,59.08,0.4294,29.78,14.1,-13.43,-11.73,-5.896,-10.37,8.076,-0.0267,-7.562,4.597,-4.079,5.659,2.263,2.852,0,0,0,0,0,0,0,0,0,0,0,0,0,0,0,0,
453,58.04,3.555,17.32,-17.24,-41.15,-34.58,14.71,-15.64,-23.57,-8.171,-17.5,-8.506,-27.6,-11.88,-11.02,-13.93,0,0,0,0,0,0,0,0,0,0,0,0,0,0,0,0,
454,-7.931,-12.62,-54.11,-17.42,-33.97,-21.69,-10.94,-8.598,-48.7,-26.07,-9.229,-2.027,-16.92,-11.64,4.941,-4.252,0,0,0,0,0,0,0,0,0,0,0,0,0,0,0,0,
455,-44.15,-18.09,-43.53,18.93,4.678,8.147,-2.465,-3.762,-15.12,-21.69,-14.93,-3.109,-7.126,-7.846,-3.216,-8.661,0,0,0,0,0,0,0,0,0,0,0,0,0,0,0,0,
456,-38.37,-10.2,7.714,11.66,-0.6448,-7.627,11.26,2.603,-8.875,-19.23,-37.46,-8.823,-23.39,-4.431,-15.22,-15.67,0,0,0,0,0,0,0,0,0,0,0,0,0,0,0,0,
457,-3.925,-6.382,31.8,4.061,-10.68,-14.75,-10.01,24.45,-21.14,-3.349,-25.58,7.341,-14.17,13.29,4.132,1.866,0,0,0,0,0,0,0,0,0,0,0,0,0,0,0,0,
458,-21.92,-30.14,7.429,4.226,-3.361,-10.74,-47.02,12.12,-6.632,1.734,-25.43,-6.019,-17.49,-2.967,-13.29,-12.94,0,0,0,0,0,0,0,0,0,0,0,0,0,0,0,0,
459,-54.01,-35.76,-40.94,-22.3,-3.08,-20.65,-42.66,-18.87,-9.99,-25.56,-30.52,-13.1,-26.39,-11.96,-25.05,-18.49,0,0,0,0,0,0,0,0,0,0,0,0,0,0,0,0,
460,-5.497,-8.854,-34.69,-16.45,-4.485,-16.28,-15.55,-33.21,-13.51,-15.8,-14.2,5.779,-12.11,5.228,-4.413,1.025,0,0,0,0,0,0,0,0,0,0,0,0,0,0,0,0,
461,11.64,-14.32,-0.1676,4.295,-22.89,-16.25,-30.29,-35.75,-10.78,-7.049,-8.351,-2.833,-9.642,-5.954,0.8025,-2.064,0,0,0,0,0,0,0,0,0,0,0,0,0,0,0,0,
462,-11.32,-2.437,17.34,-3.604,-31.12,-16.12,-23.74,-2.514,-12.83,-26.74,12.76,-0.5631,3.191,-3.952,18.77,4.379,0,0,0,0,0,0,0,0,0,0,0,0,0,0,0,0,
463,-7.57,22.6,7.392,11.01,-17.43,-7.208,13.98,12.36,-6.198,-18.19,9.699,14.16,6.139,9.829,23.31,7.385,0,0,0,0,0,0,0,0,0,0,0,0,0,0,0,0,
464,-36.3,-15.62,-32.72,47.32,-5.212,-0.8022,6.11,-8.327,-14.36,-9.704,-27.82,11.74,-15.29,5.226,-1.174,-5.205,0,0,0,0,0,0,0,0,0,0,0,0,0,0,0,0,
465,-39.98,-35.37,-29.37,20.1,9.143,2.786,-19.71,-6.354,-15.28,-7.101,-13.97,7.726,-6.904,6.535,-3.163,-9.269,0,0,0,0,0,0,0,0,0,0,0,0,0,0,0,0,
466,-2.017,-16.39,16.61,-44.11,-2.05,-23.49,-27.46,-12.05,-4.235,-5.174,1.42,-0.9701,3.488,0.0801,5.778,-16.95,0,0,0,0,0,0,0,0,0,0,0,0,0,0,0,0,
467,-2.973,-13.64,20.69,-19.83,-12.42,-27.63,-7.571,-6.499,-2.774,-15.61,-8.953,11.45,8.921,6.317,19.48,-5.291,0,0,0,0,0,0,0,0,0,0,0,0,0,0,0,0,
468,-4.758,-3.86,-4.929,24.52,-1.248,8.645,20.41,12.85,13.53,-0.5792,5.449,25.5,21.52,23.77,28.51,8.638,0,0,0,0,0,0,0,0,0,0,0,0,0,0,0,0,
469,0.5643,5.535,0.489,-3.987,-17.08,1.641,10.26,-3.737,5.508,12.02,8.666,11.52,10.53,14.98,24.82,4.348,0,0,0,0,0,0,0,0,0,0,0,0,0,0,0,0,
470,8.879,19.21,18.0,9.321,-10.89,0.5401,3.296,12.15,-18.18,5.883,-7.026,12.14,4.777,11.49,28.09,14.75,0,0,0,0,0,0,0,0,0,0,0,0,0,0,0,0,
471,5.899,15.75,-16.53,38.24,18.33,22.28,12.55,32.17,-2.39,3.469,-19.97,4.367,2.975,1.988,11.74,5.51,0,0,0,0,0,0,0,0,0,0,0,0,0,0,0,0,
472,-34.44,-24.08,-26.18,0.386,7.567,-2.133,-0.7191,-2.067,3.508,-14.72,-15.67,-5.961,-1.571,-9.928,0.2347,-11.42,0,0,0,0,0,0,0,0,0,0,0,0,0,0,0,0,
473,1.728,-11.95,36.36,2.074,0.0186,-10.47,-16.32,-5.815,0.3141,-10.38,6.675,16.04,14.41,10.22,15.04,-2.68,0,0,0,0,0,0,0,0,0,0,0,0,0,0,0,0,
474,46.78,16.87,18.79,34.06,-3.146,9.764,-31.31,9.171,2.027,11.3,1.9,18.57,14.06,15.59,11.76,-9.141,0,0,0,0,0,0,0,0,0,0,0,0,0,0,0,0,
475,-40.09,-6.727,-34.7,27.3,-8.224,9.459,-37.65,10.1,-12.13,6.532,-5.613,13.96,11.51,10.77,11.92,-10.98,0,0,0,0,0,0,0,0,0,0,0,0,0,0,0,0,
476,-61.02,-15.5,-6.484,20.93,9.296,12.03,-4.635,12.66,0.8996,9.622,-1.833,16.04,19.12,11.5,12.11,-4.38,0,0,0,0,0,0,0,0,0,0,0,0,0,0,0,0,
477,27.21,-5.143,-8.737,22.08,14.77,18.53,48.82,0.5227,17.35,6.74,-7.191,8.125,12.81,4.048,11.0,-1.418,0,0,0,0,0,0,0,0,0,0,0,0,0,0,0,0,
478,23.55,3.97,-12.62,24.9,18.59,21.54,55.04,7.027,13.6,3.379,17.84,19.72,27.9,17.75,40.24,18.43,0,0,0,0,0,0,0,0,0,0,0,0,0,0,0,0,
479,-17.88,-1.048,33.85,3.033,9.437,5.179,-9.026,6.485,16.98,15.98,24.76,9.84,27.33,15.01,34.34,7.717,0,0,0,0,0,0,0,0,0,0,0,0,0,0,0,0,
480,1.311,-24.86,12.22,-30.52,-21.96,-19.06,-29.98,-10.37,-6.007,-3.314,-5.057,-7.246,-1.819,-2.998,8.807,-9.726,0,0,0,0,0,0,0,0,0,0,0,0,0,0,0,0,
481,4.915,-3.651,-24.13,-5.216,-12.09,-8.081,-16.36,14.21,-25.01,-8.127,2.746,19.86,6.211,11.22,18.36,6.719,0,0,0,0,0,0,0,0,0,0,0,0,0,0,0,0,
482,-33.44,10.65,-6.8,36.1,0.8223,0.522,-68.95,5.958,-8.745,7.699,6.346,20.68,12.22,4.13,9.337,0.8247,0,0,0,0,0,0,0,0,0,0,0,0,0,0,0,0,
483,-38.46,-15.77,-8.539,49.21,1.409,10.73,-31.05,-28.06,4.539,-9.541,-4.614,6.093,5.021,-10.61,0.8853,-5.004,0,0,0,0,0,0,0,0,0,0,0,0,0,0,0,0,
484,-0.0616,6.061,-28.36,23.9,21.91,29.15,87.93,-4.236,14.84,-6.844,0.515,9.826,6.565,-2.727,2.622,-0.7391,0,0,0,0,0,0,0,0,0,0,0,0,0,0,0,0,
485,2.972,18.47,-21.33,-33.49,6.923,-1.834,53.8,12.1,-2.334,0.9463,-10.46,-5.638,-4.255,-9.921,-6.959,-8.827,0,0,0,0,0,0,0,0,0,0,0,0,0,0,0,0,
486,-10.07,-12.37,25.62,-10.6,-11.56,-12.3,-22.3,9.546,-21.12,-12.82,-5.792,-4.21,7.561,-1.697,15.63,6.228,0,0,0,0,0,0,0,0,0,0,0,0,0,0,0,0,
487,21.47,-1.577,43.58,47.21,-0.7847,17.93,-25.49,7.29,3.274,0.8518,9.464,6.413,20.67,11.52,22.25,5.794,0,0,0,0,0,0,0,0,0,0,0,0,0,0,0,0,
488,31.73,17.98,-15.2,25.61,3.841,7.241,-30.79,-17.12,8.542,9.727,3.501,-6.926,7.708,-1.094,-9.948,-18.18,0,0,0,0,0,0,0,0,0,0,0,0,0,0,0,0,
489,-21.66,1.646,-39.52,12.22,24.73,1.644,3.667,-21.86,6.012,-2.742,6.008,-12.57,10.82,-5.13,-15.04,-16.17,0,0,0,0,0,0,0,0,0,0,0,0,0,0,0,0,
490,-46.89,-10.81,15.0,12.73,23.65,16.97,28.49,-8.901,16.98,-8.129,2.83,-9.319,9.377,-0.9692,-1.333,-4.469,0,0,0,0,0,0,0,0,0,0,0,0,0,0,0,0,
491,11.26,10.6,53.4,-9.225,3.992,15.6,-6.062,6.76,7.773,1.149,6.903,2.931,12.4,11.29,13.25,13.07,0,0,0,0,0,0,0,0,0,0,0,0,0,0,0,0,
492,41.96,21.9,21.62,2.026,24.61,10.86,0.8305,21.58,16.74,21.13,14.61,0.5889,23.88,10.1,3.902,9.121,0,0,0,0,0,0,0,0,0,0,0,0,0,0,0,0,
493,-0.8919,-11.38,-21.41,14.57,19.61,-0.9529,15.98,2.122,14.61,8.749,-15.29,-23.33,-1.681,-17.11,-23.95,-17.89,0,0,0,0,0,0,0,0,0,0,0,0,0,0,0,0,
494,0.0453,-9.237,-6.827,30.64,-7.224,7.691,-12.97,-10.97,-20.37,-10.54,-22.03,-20.94,-15.02,-18.51,-18.05,-14.65,0,0,0,0,0,0,0,0,0,0,0,0,0,0,0,0,
495,13.63,16.42,-7.9,56.46,-6.049,28.24,-25.55,1.661,-18.49,-6.944,-3.828,-22.79,-4.279,-15.87,-17.39,-17.35,0,0,0,0,0,0,0,0,0,0,0,0,0,0,0,0,
496,-9.761,0.3397,-24.4,22.04,-12.81,14.61,-12.08,4.034,-10.39,-21.98,-8.773,-31.26,-7.26,-19.1,-25.4,-23.53,0,0,0,0,0,0,0,0,0,0,0,0,0,0,0,0,
497,2.555,13.3,15.62,-17.63,-9.491,1.588,-8.924,-2.695,-22.77,-17.94,-8.047,-17.05,-5.432,-1.233,-10.15,-6.551,0,0,0,0,0,0,0,0,0,0,0,0,0,0,0,0,
498,-22.0,29.5,-6.122,-6.41,8.677,1.974,-16.67,-8.838,-19.25,4.749,-11.9,-21.44,-7.371,-2.714,-10.87,-12.09,0,0,0,0,0,0,0,0,0,0,0,0,0,0,0,0,
499,-47.25,-3.521,-47.13,13.05,4.819,9.861,-5.243,5.373,-8.723,-0.3976,-19.53,-23.78,-8.725,-8.053,-10.39,-16.23,0,0,0,0,0,0,0,0,0,0,0,0,0,0,0,0,
500,33.39,-10.19,33.15,28.9,-16.78,18.19,2.205,2.959,-12.25,-2.157,-18.49,-20.14,-9.456,-8.532,-8.447,-16.19,0,0,0,0,0,0,0,0,0,0,0,0,0,0,0,0,
501,24.43,5.678,51.91,23.88,-26.25,-1.639,-1.554,-19.98,-34.23,-13.21,-22.35,-34.82,-19.62,-26.88,-23.57,-32.09,0,0,0,0,0,0,0,0,0,0,0,0,0,0,0,0,
502,-61.85,14.13,-42.63,-6.722,-4.045,-8.113,11.57,9.043,-30.98,-24.66,-8.882,-27.85,-9.725,-23.43,-18.6,-27.16,0,0,0,0,0,0,0,0,0,0,0,0,0,0,0,0,
503,-1.723,2.09,-46.17,-12.29,-12.55,4.997,-20.97,11.18,-11.67,-13.08,-8.065,-23.71,-10.99,-17.87,-19.89,-29.09,0,0,0,0,0,0,0,0,0,0,0,0,0,0,0,0,
504,64.16,-33.13,34.77,26.54,-37.18,9.319,-47.22,-30.31,-24.58,-16.04,-18.83,-23.56,-14.84,-15.42,-19.15,-30.43,0,0,0,0,0,0,0,0,0,0,0,0,0,0,0,0,
505,7.827,-9.488,54.92,45.82,5.712,27.05,12.18,-2.869,-3.871,-1.847,12.52,-3.445,19.96,8.563,15.06,-4.237,0,0,0,0,0,0,0,0,0,0,0,0,0,0,0,0,
506,-33.25,30.74,6.947,16.97,30.5,29.32,12.53,23.83,34.62,17.36,39.6,-9.462,32.78,7.269,31.99,5.465,0,0,0,0,0,0,0,0,0,0,0,0,0,0,0,0,
507,-19.01,-2.16,11.13,10.47,18.71,17.4,-19.31,13.57,29.57,6.305,46.76,-5.44,32.23,5.85,40.27,18.02,0,0,0,0,0,0,0,0,0,0,0,0,0,0,0,0,
508,-18.28,-26.86,32.17,11.87,42.36,20.27,49.57,18.25,40.77,19.74,53.18,19.1,43.31,21.08,52.07,32.44,0,0,0,0,0,0,0,0,0,0,0,0,0,0,0,0,
509,-6.329,9.643,-26.21,7.267,38.5,23.3,91.54,8.12,41.59,29.65,46.1,15.69,31.83,16.31,49.03,26.06,0,0,0,0,0,0,0,0,0,0,0,0,0,0,0,0,
510,71.55,58.38,-4.087,63.73,9.969,47.35,44.57,11.69,12.19,19.41,46.82,13.59,27.4,17.46,41.81,26.19,0,0,0,0,0,0,0,0,0,0,0,0,0,0,0,0,
511,87.13,48.62,80.51,73.97,-1.66,48.38,-10.97,18.99,2.944,17.7,34.5,0.4174,18.62,7.16,13.1,9.446,0,0,0,0,0,0,0,0,0,0,0,0,0,0,0,0,
512,-20.59,-10.81,36.81,-5.638,-3.417,10.74,-22.61,0.2747,-8.754,1.179,18.34,-13.68,4.717,-2.909,0.6301,-1.869,0,0,0,0,0,0,0,0,0,0,0,0,0,0,0,0,
513,-49.97,-19.11,14.28,-29.24,24.64,13.57,24.2,8.225,5.955,13.29,22.87,-1.524,13.62,14.87,11.27,6.293,0,0,0,0,0,0,0,0,0,0,0,0,0,0,0,0,
514,-6.502,-3.846,47.51,-24.59,17.01,3.41,11.66,2.8,22.21,25.76,-4.753,-20.52,-11.99,-7.921,-18.68,-21.31,0,0,0,0,0,0,0,0,0,0,0,0,0,0,0,0,
515,-34.68,-16.9,-36.79,-15.95,-26.16,-25.08,-77.24,-20.72,-18.98,-20.91,-17.58,-37.47,-36.91,-37.27,-35.3,-37.75,0,0,0,0,0,0,0,0,0,0,0,0,0,0,0,0,
516,-43.97,-16.88,-108.6,38.95,-23.02,4.911,-84.28,-8.677,-22.18,-35.26,1.847,-25.48,-22.63,-29.63,-22.0,-29.74,0,0,0,0,0,0,0,0,0,0,0,0,0,0,0,0,
517,0.2029,-19.79,-42.86,40.15,-23.83,19.23,-22.56,-5.966,-5.617,-19.05,-19.3,-27.86,-31.11,-33.68,-24.44,-31.86,0,0,0,0,0,0,0,0,0,0,0,0,0,0,0,0,
518,14.66,-8.769,44.44,-8.114,-26.69,-1.239,-0.6336,-15.22,-36.78,-20.84,-25.59,-16.5,-30.89,-25.48,-17.14,-13.44,0,0,0,0,0,0,0,0,0,0,0,0,0,0,0,0,
519,-11.62,18.57,48.92,-19.33,8.91,0.8954,-1.673,-12.13,-34.29,-7.491,-6.751,-7.797,-11.46,-12.24,-18.92,-5.743,0,0,0,0,0,0,0,0,0,0,0,0,0,0,0,0,
520,-44.71,-4.839,-22.41,-0.6499,26.83,11.84,28.32,6.243,-0.4891,-2.635,-3.072,-14.02,-3.409,-16.83,-16.83,-10.03,0,0,0,0,0,0,0,0,0,0,0,0,0,0,0,0,
521,-26.56,-28.18,-55.63,23.66,8.558,16.5,47.06,23.3,12.2,-5.69,16.31,-6.404,10.07,-13.34,9.971,1.021,0,0,0,0,0,0,0,0,0,0,0,0,0,0,0,0,
522,9.678,-11.45,-4.576,12.88,-25.69,3.309,1.492,-11.79,-1.139,-4.443,17.92,-9.535,4.469,-16.04,8.26,-4.015,0,0,0,0,0,0,0,0,0,0,0,0,0,0,0,0,
523,16.5,0.1619,36.35,1.669,-27.28,10.11,-37.22,-22.41,-18.0,-2.667,7.904,-1.76,2.256,-6.791,10.33,3.097,0,0,0,0,0,0,0,0,0,0,0,0,0,0,0,0,
524,25.02,-9.302,9.728,12.39,-0.3825,29.22,-49.51,14.3,7.249,16.73,15.49,0.1702,11.17,-3.971,14.29,4.618,0,0,0,0,0,0,0,0,0,0,0,0,0,0,0,0,
525,0.4544,-30.77,-16.14,-9.668,-10.52,-5.013,-52.12,-8.513,11.8,-1.638,-4.852,-31.79,-19.09,-37.0,-24.36,-25.17,0,0,0,0,0,0,0,0,0,0,0,0,0,0,0,0,
526,-29.24,-7.255,23.82,8.479,-5.035,-4.664,13.23,-22.66,-23.83,-29.67,-28.07,-23.03,-37.24,-31.84,-42.49,-19.2,0,0,0,0,0,0,0,0,0,0,0,0,0,0,0,0,
527,-7.537,32.16,18.27,50.31,16.51,37.49,38.09,3.45,-15.73,1.611,-28.22,-3.7,-26.41,-13.0,-35.61,-5.838,0,0,0,0,0,0,0,0,0,0,0,0,0,0,0,0,
528,-18.46,7.049,-54.78,7.887,-4.964,10.25,-31.61,-13.71,-0.3151,7.776,-17.96,-17.06,-18.56,-27.66,-29.77,-11.24,0,0,0,0,0,0,0,0,0,0,0,0,0,0,0,0,
529,-45.34,-18.3,-16.36,-12.46,-9.762,-12.69,-11.67,-20.84,-4.096,-17.43,-5.688,-13.09,-1.793,-24.32,-13.06,-1.938,0,0,0,0,0,0,0,0,0,0,0,0,0,0,0,0,
530,-15.11,-22.93,51.3,17.16,-11.42,10.95,45.75,-8.473,-1.49,-16.18,-18.89,-8.347,-3.75,-15.31,-9.388,-2.652,0,0,0,0,0,0,0,0,0,0,0,0,0,0,0,0,
531,4.763,-35.28,-12.85,1.373,-31.01,13.41,-22.53,-16.84,-10.67,-8.767,-12.08,-5.779,-7.251,-9.702,-3.991,-2.136,0,0,0,0,0,0,0,0,0,0,0,0,0,0,0,0,
532,-16.5,-18.42,-56.32,-5.201,-21.27,9.04,-84.72,-4.965,-8.965,4.34,12.8,-6.581,3.647,-5.531,1.675,-2.002,0,0,0,0,0,0,0,0,0,0,0,0,0,0,0,0,
533,-19.51,0.9667,-3.739,16.84,-21.79,13.08,-9.351,11.3,-5.364,2.608,0.2138,-24.84,-8.527,-17.93,-7.2,-15.79,0,0,0,0,0,0,0,0,0,0,0,0,0,0,0,0,
534,11.41,3.523,21.32,1.625,-21.44,13.64,67.02,-7.968,-18.6,-5.737,4.856,-14.76,-13.23,-10.43,-5.451,-12.72,0,0,0,0,0,0,0,0,0,0,0,0,0,0,0,0,
535,10.95,-1.108,8.368,-25.86,1.616,-0.8929,18.62,-32.33,-17.51,7.456,11.65,-2.243,-13.23,-3.922,-18.34,-19.68,0,0,0,0,0,0,0,0,0,0,0,0,0,0,0,0,
536,-26.58,-8.181,20.77,5.622,-3.107,-7.875,-14.64,-12.34,-12.43,1.836,-19.23,-12.74,-23.77,-14.91,-33.03,-28.71,0,0,0,0,0,0,0,0,0,0,0,0,0,0,0,0,
537,-22.59,12.66,35.24,62.68,-13.61,22.15,26.44,8.056,-2.528,-8.845,-30.74,-21.52,-17.66,-15.83,-25.97,-21.17,0,0,0,0,0,0,0,0,0,0,0,0,0,0,0,0,
538,-10.74,8.428,6.377,52.69,-16.52,27.43,0.5031,-28.16,3.151,-16.28,-28.66,-38.67,-20.31,-25.77,-26.11,-27.44,0,0,0,0,0,0,0,0,0,0,0,0,0,0,0,0,
539,-29.13,-22.3,-29.59,13.2,-16.97,9.323,-14.68,-27.0,-12.18,-26.51,-13.39,-24.63,-13.79,-13.32,-0.5558,-5.878,0,0,0,0,0,0,0,0,0,0,0,0,0,0,0,0,
540,-28.79,-15.97,-40.71,-8.408,-3.638,15.29,29.3,16.03,-5.918,2.833,16.07,1.867,12.51,14.58,29.03,24.35,0,0,0,0,0,0,0,0,0,0,0,0,0,0,0,0,
541,-18.14,-22.58,-21.56,-35.62,-1.885,5.601,-16.19,-0.2791,13.06,15.38,15.22,-15.23,11.11,0.6695,12.88,11.22,0,0,0,0,0,0,0,0,0,0,0,0,0,0,0,0,
542,6.679,-18.94,21.2,-26.06,-4.657,-3.318,-49.69,-23.77,18.82,-10.07,4.999,-19.31,-1.69,-8.794,-6.359,0.6284,0,0,0,0,0,0,0,0,0,0,0,0,0,0,0,0,
543,23.02,11.68,8.421,3.678,-23.08,4.01,17.31,-27.16,2.145,-8.619,-12.39,-15.06,-21.18,-6.153,-22.18,-10.82,0,0,0,0,0,0,0,0,0,0,0,0,0,0,0,0,
544,-21.35,-17.64,-19.47,3.572,-46.49,-0.6958,37.04,-25.48,-37.84,-8.587,-23.85,-30.09,-30.18,-15.78,-23.69,-24.18,0,0,0,0,0,0,0,0,0,0,0,0,0,0,0,0,
545,-55.51,-33.95,6.861,2.464,-22.89,3.627,-7.112,-1.457,-29.34,-20.94,-3.185,-36.3,-9.374,-20.77,-8.957,-24.55,0,0,0,0,0,0,0,0,0,0,0,0,0,0,0,0,
546,-53.63,8.201,-31.33,-4.144,-17.36,1.953,-35.21,-12.95,-5.715,-27.82,-10.57,-44.34,-16.45,-30.37,-16.18,-34.64,0,0,0,0,0,0,0,0,0,0,0,0,0,0,0,0,
547,-40.49,13.69,-70.93,9.533,-32.94,3.726,-5.87,-17.83,-28.38,-25.87,-19.6,-29.01,-17.85,-14.74,-1.602,-15.94,0,0,0,0,0,0,0,0,0,0,0,0,0,0,0,0,
548,9.194,-7.974,13.3,43.07,-6.659,28.88,38.26,22.32,-9.754,1.747,7.79,-3.375,15.14,12.97,24.07,13.33,0,0,0,0,0,0,0,0,0,0,0,0,0,0,0,0,
549,41.41,-13.91,56.8,35.2,-0.2099,29.12,12.76,8.535,23.55,7.878,9.555,-12.13,16.21,3.71,13.82,7.548,0,0,0,0,0,0,0,0,0,0,0,0,0,0,0,0,
550,23.86,-7.787,14.61,20.31,-11.79,18.36,-1.662,-13.95,0.3557,-5.976,-1.797,-13.75,4.15,-1.528,6.743,3.88,0,0,0,0,0,0,0,0,0,0,0,0,0,0,0,0,
551,-9.595,-1.656,-8.367,-18.54,-4.22,5.182,35.28,9.092,-14.48,-1.109,-6.603,-14.24,-1.453,0.7075,-3.686,-6.313,0,0,0,0,0,0,0,0,0,0,0,0,0,0,0,0,
552,-27.56,10.66,-12.73,-56.46,-0.6701,-4.051,20.07,8.222,-4.618,0.4447,-9.869,-18.13,-5.918,5.8,-11.93,-14.71,0,0,0,0,0,0,0,0,0,0,0,0,0,0,0,0,
553,2.574,38.26,9.214,30.05,11.42,38.14,-16.93,-11.17,6.139,19.93,1.83,-4.512,2.861,21.2,1.846,-5.748,0,0,0,0,0,0,0,0,0,0,0,0,0,0,0,0,
554,7.041,24.14,21.96,100.1,11.02,57.19,3.465,-15.93,7.401,26.49,12.11,-12.21,2.947,5.849,6.064,-10.17,0,0,0,0,0,0,0,0,0,0,0,0,0,0,0,0,
555,-25.22,-7.139,3.968,39.95,3.437,27.69,37.68,8.13,6.04,-6.985,26.64,-17.55,12.88,-0.6336,12.69,0.2227,0,0,0,0,0,0,0,0,0,0,0,0,0,0,0,0,
556,1.405,-0.8534,2.913,0.0505,8.842,24.86,8.379,27.75,19.15,-2.444,6.397,-13.93,12.5,12.1,5.531,6.631,0,0,0,0,0,0,0,0,0,0,0,0,0,0,0,0,
557,27.0,-13.98,-1.274,-9.334,-9.742,20.33,-34.51,1.202,3.166,8.283,-38.89,-27.79,-15.36,0.4463,-7.555,-6.241,0,0,0,0,0,0,0,0,0,0,0,0,0,0,0,0,
558,20.55,-9.09,0.0141,-23.54,-8.87,12.74,5.333,-4.811,-9.639,-5.126,-3.355,-16.72,4.415,5.917,19.63,11.04,0,0,0,0,0,0,0,0,0,0,0,0,0,0,0,0,
559,32.66,23.77,16.67,22.06,10.93,28.99,27.71,13.13,15.47,3.799,29.64,-5.491,20.29,13.26,22.5,13.29,0,0,0,0,0,0,0,0,0,0,0,0,0,0,0,0,
560,13.91,-2.499,16.19,69.0,-3.095,41.14,-12.93,6.158,-1.802,4.04,-2.244,-11.01,-8.155,3.544,7.62,-1.347,0,0,0,0,0,0,0,0,0,0,0,0,0,0,0,0,
561,-30.25,-15.61,13.3,31.34,0.4103,44.45,11.82,-0.0972,-23.43,0.1348,3.436,-4.328,0.0871,9.124,22.0,5.925,0,0,0,0,0,0,0,0,0,0,0,0,0,0,0,0,
562,-46.15,17.99,-7.061,-12.1,16.33,32.81,52.17,-12.04,2.185,2.956,10.21,-5.028,13.75,8.493,11.99,1.215,0,0,0,0,0,0,0,0,0,0,0,0,0,0,0,0,
563,-18.96,35.24,-34.8,30.69,18.72,33.29,29.1,-13.08,19.29,2.344,-12.71,14.0,6.022,21.53,-0.0667,6.638,0,0,0,0,0,0,0,0,0,0,0,0,0,0,0,0,
564,31.09,39.77,-35.45,44.6,15.85,40.24,4.059,9.674,19.47,19.19,-21.92,27.84,-1.993,29.47,-1.831,8.816,0,0,0,0,0,0,0,0,0,0,0,0,0,0,0,0,
565,33.42,3.009,-10.62,-26.85,-17.19,9.261,-8.624,14.16,-8.559,1.551,-27.1,-0.792,-17.43,-4.933,-15.49,-12.47,0,0,0,0,0,0,0,0,0,0,0,0,0,0,0,0,
566,10.4,-34.21,44.49,-9.575,-30.04,9.852,-23.25,15.61,-32.13,-25.55,-10.67,1.158,-9.435,-6.647,-8.477,-5.219,0,0,0,0,0,0,0,0,0,0,0,0,0,0,0,0,
567,1.525,-11.78,24.81,44.12,-19.16,27.92,-50.28,1.082,-16.6,-2.981,-12.71,2.7,-12.58,-0.5429,-16.42,-10.07,0,0,0,0,0,0,0,0,0,0,0,0,0,0,0,0,
568,-12.03,2.888,-55.83,-13.83,-30.09,-3.888,-40.4,-23.23,-26.51,-13.46,-34.98,-25.02,-31.52,-27.08,-20.67,-26.29,0,0,0,0,0,0,0,0,0,0,0,0,0,0,0,0,
569,3.95,6.515,-16.73,-25.54,-14.54,4.711,40.1,2.76,-28.6,-35.54,6.418,-13.29,-1.445,-17.86,19.78,-4.563,0,0,0,0,0,0,0,0,0,0,0,0,0,0,0,0,
570,8.139,11.2,34.02,41.37,1.983,45.71,59.65,22.85,1.76,-9.48,37.26,0.935,16.17,-1.444,22.67,-0.0166,0,0,0,0,0,0,0,0,0,0,0,0,0,0,0,0,
571,-19.51,-7.114,0.8571,21.95,-7.012,32.68,8.105,-2.556,0.5398,-1.525,6.123,-8.872,-4.802,-11.55,-5.419,-11.19,0,0,0,0,0,0,0,0,0,0,0,0,0,0,0,0,
572,-0.0418,-3.716,5.658,-28.7,-2.939,6.943,-10.06,-34.68,-2.963,-18.89,-12.48,-15.7,-15.89,-17.88,-16.55,-15.8,0,0,0,0,0,0,0,0,0,0,0,0,0,0,0,0,
573,21.16,12.45,10.14,-1.639,-12.51,12.81,-19.24,-41.85,-5.415,-27.43,-10.55,-17.7,-21.29,-12.7,-23.86,-25.28,0,0,0,0,0,0,0,0,0,0,0,0,0,0,0,0,
574,24.19,6.826,4.059,30.61,-16.54,38.61,-5.109,-2.363,-14.76,-10.18,-5.371,-5.146,-7.779,5.554,-11.58,-16.23,0,0,0,0,0,0,0,0,0,0,0,0,0,0,0,0,
575,30.38,-4.12,19.22,-0.3958,-4.857,30.73,25.17,5.808,-1.956,7.514,-13.84,-10.04,0.9314,0.3989,0.8869,-10.33,0,0,0,0,0,0,0,0,0,0,0,0,0,0,0,0,
576,-17.36,-16.92,-1.978,-16.98,-10.41,0.5595,7.257,-26.25,-10.2,-19.85,-15.65,-17.91,-5.868,-12.61,11.78,-4.36,0,0,0,0,0,0,0,0,0,0,0,0,0,0,0,0,
577,-51.17,-26.05,-3.022,1.613,-2.726,18.33,5.04,-8.316,-20.36,-25.62,14.1,3.969,9.451,5.053,28.86,12.11,0,0,0,0,0,0,0,0,0,0,0,0,0,0,0,0,
578,-15.63,-26.63,-13.36,-11.81,1.434,35.34,29.9,2.931,0.3073,5.147,19.47,7.287,17.0,8.244,17.63,5.03,0,0,0,0,0,0,0,0,0,0,0,0,0,0,0,0,
579,14.53,-10.1,-70.38,7.431,-2.75,34.78,4.034,-12.47,11.94,9.649,11.16,3.833,16.32,4.022,8.229,4.175,0,0,0,0,0,0,0,0,0,0,0,0,0,0,0,0,
580,16.92,-2.911,-31.66,42.14,5.01,44.98,-52.69,-1.435,16.53,3.946,3.842,-2.213,11.77,-2.066,-3.783,-0.2207,0,0,0,0,0,0,0,0,0,0,0,0,0,0,0,0,
581,-2.347,-17.07,40.34,-9.781,-4.59,22.78,-56.85,-1.394,4.04,-15.18,-25.92,-22.68,-8.143,-18.45,-27.98,-16.7,0,0,0,0,0,0,0,0,0,0,0,0,0,0,0,0,
582,4.912,23.78,31.75,-21.73,10.64,19.59,7.904,-2.159,-4.335,-18.06,-12.99,-1.92,9.073,9.488,-6.351,7.505,0,0,0,0,0,0,0,0,0,0,0,0,0,0,0,0,
583,49.08,56.79,16.12,38.7,36.35,55.02,37.45,8.431,19.24,21.96,19.68,16.66,30.36,33.76,13.94,19.94,0,0,0,0,0,0,0,0,0,0,0,0,0,0,0,0,
584,39.39,6.406,-7.201,40.99,16.24,56.2,23.15,7.594,19.26,26.24,3.557,1.123,18.04,18.08,-1.108,5.889,0,0,0,0,0,0,0,0,0,0,0,0,0,0,0,0,
585,-2.976,-6.074,-19.5,31.81,13.87,55.01,46.67,11.71,14.38,14.26,-17.91,6.587,16.73,22.39,-4.346,17.67,0,0,0,0,0,0,0,0,0,0,0,0,0,0,0,0,
586,-23.66,7.024,13.08,39.38,19.2,59.89,27.09,9.606,18.94,24.66,-18.32,9.478,13.4,23.25,0.5469,24.52,0,0,0,0,0,0,0,0,0,0,0,0,0,0,0,0,
587,-23.74,-14.97,5.369,11.43,-1.472,39.99,-49.64,7.364,3.834,13.19,3.678,0.4597,12.43,8.165,10.5,19.94,0,0,0,0,0,0,0,0,0,0,0,0,0,0,0,0,
588,22.04,-6.791,-3.817,-26.73,-15.77,15.31,-57.98,-8.02,4.768,-8.707,5.355,-7.203,7.859,-3.389,2.926,10.25,0,0,0,0,0,0,0,0,0,0,0,0,0,0,0,0,
589,49.22,-1.97,39.71,-37.42,-26.83,0.4012,-11.63,-44.84,-6.12,-26.56,-18.68,-13.38,-11.46,-8.963,-9.904,7.391,0,0,0,0,0,0,0,0,0,0,0,0,0,0,0,0,
590,-2.13,-1.175,1.5,-8.19,-1.048,22.65,11.62,-30.67,-21.11,-17.97,16.83,-2.586,12.45,7.88,11.72,22.42,0,0,0,0,0,0,0,0,0,0,0,0,0,0,0,0,
591,-40.54,17.41,-83.91,5.644,27.1,47.57,-3.041,-7.785,5.32,9.885,36.67,-10.95,25.16,4.38,4.697,2.324,0,0,0,0,0,0,0,0,0,0,0,0,0,0,0,0,
592,-1.858,-14.76,-22.7,1.724,3.217,45.52,1.09,-14.7,2.661,2.041,-1.677,-15.88,0.9493,-6.186,-7.359,-8.281,0,0,0,0,0,0,0,0,0,0,0,0,0,0,0,0,
593,27.94,-39.02,67.6,32.2,5.732,62.32,40.29,12.23,-7.536,7.489,14.44,2.657,17.54,12.92,19.21,16.47,0,0,0,0,0,0,0,0,0,0,0,0,0,0,0,0,
594,-14.19,-11.58,26.15,9.98,11.4,50.45,15.11,16.71,8.892,21.24,22.78,-18.14,15.3,-2.463,0.3574,-3.017,0,0,0,0,0,0,0,0,0,0,0,0,0,0,0,0,
595,-10.68,4.926,-6.449,-33.43,-18.38,14.28,-39.81,-7.047,-7.064,-9.086,-21.05,-23.6,-17.55,-20.6,-27.44,-11.56,0,0,0,0,0,0,0,0,0,0,0,0,0,0,0,0,
596,49.46,11.72,-13.91,21.43,-15.82,37.54,-32.39,5.175,-11.49,-13.88,-30.83,1.627,-16.62,-5.071,-18.25,10.17,0,0,0,0,0,0,0,0,0,0,0,0,0,0,0,0,
597,26.0,9.765,-46.63,49.25,-8.541,62.83,-22.23,7.647,-4.051,0.5419,-27.62,-12.4,-17.89,-8.423,-27.72,-4.693,0,0,0,0,0,0,0,0,0,0,0,0,0,0,0,0,
598,1.891,16.11,16.17,3.596,-11.83,52.4,-35.22,2.026,-23.56,-0.4758,-25.47,-14.59,-14.94,-2.246,-31.94,-12.18,0,0,0,0,0,0,0,0,0,0,0,0,0,0,0,0,
599,20.64,26.43,62.64,5.75,-1.611,43.46,-44.82,1.845,-14.0,11.76,-9.395,-4.602,0.0895,9.255,-22.59,-8.627,0,0,0,0,0,0,0,0,0,0,0,0,0,0,0,0,
600,-36.37,-3.769,-10.2,21.84,3.156,42.23,-11.1,-5.955,6.113,8.074,0.4341,-15.18,2.307,0.6976,-12.27,-11.5,0,0,0,0,0,0,0,0,0,0,0,0,0,0,0,0,
601,-61.96,-18.8,-34.57,-7.363,15.37,49.87,55.94,3.279,4.254,0.5992,4.218,-12.04,10.09,2.53,7.24,-0.0199,0,0,0,0,0,0,0,0,0,0,0,0,0,0,0,0,
602,6.508,-11.84,-39.56,-23.48,10.02,39.59,18.46,-2.551,6.519,2.636,2.707,-13.12,13.38,-1.083,8.773,3.256,0,0,0,0,0,0,0,0,0,0,0,0,0,0,0,0,
603,37.07,-20.65,-52.61,8.216,-13.61,34.9,-59.69,-15.05,15.66,-4.411,24.6,-5.793,22.4,5.285,14.18,14.04,0,0,0,0,0,0,0,0,0,0,0,0,0,0,0,0,
604,22.2,-9.216,21.55,25.9,-5.682,62.04,-8.972,-2.307,24.72,11.77,40.71,13.08,31.71,23.04,19.55,24.16,0,0,0,0,0,0,0,0,0,0,0,0,0,0,0,0,
605,-0.9414,-4.684,41.51,4.531,12.05,63.05,52.66,1.385,9.525,19.78,0.7896,5.986,11.32,14.95,-3.653,11.51,0,0,0,0,0,0,0,0,0,0,0,0,0,0,0,0,
606,-13.31,-8.287,-21.41,0.1068,27.41,46.74,22.52,5.391,3.095,9.488,-16.67,9.235,9.213,17.01,-10.1,14.77,0,0,0,0,0,0,0,0,0,0,0,0,0,0,0,0,
607,11.19,12.73,-7.754,1.317,19.39,39.23,-3.933,-3.467,26.11,16.95,-1.267,14.13,14.93,18.56,-3.116,13.95,0,0,0,0,0,0,0,0,0,0,0,0,0,0,0,0,
608,46.81,15.52,33.08,9.427,-10.11,45.77,19.29,-12.5,13.48,7.622,-0.3981,3.23,5.466,8.134,1.696,7.936,0,0,0,0,0,0,0,0,0,0,0,0,0,0,0,0,
609,56.58,13.09,24.24,43.68,14.29,83.74,35.62,28.13,9.428,12.07,17.82,9.336,22.62,24.33,12.75,19.66,0,0,0,0,0,0,0,0,0,0,0,0,0,0,0,0,
610,4.307,19.05,21.12,42.25,45.55,89.66,1.045,34.73,43.87,42.92,25.6,6.354,27.99,26.02,7.17,13.52,0,0,0,0,0,0,0,0,0,0,0,0,0,0,0,0,
611,-34.91,12.41,31.37,37.18,31.1,70.39,-12.46,7.426,40.28,35.36,9.728,-3.792,9.477,9.072,5.89,8.199,0,0,0,0,0,0,0,0,0,0,0,0,0,0,0,0,
612,12.44,11.94,-9.324,33.85,23.74,76.95,34.76,23.36,19.92,19.95,15.21,-0.7471,9.313,10.08,14.6,13.9,0,0,0,0,0,0,0,0,0,0,0,0,0,0,0,0,
613,31.36,6.618,-44.51,-24.97,20.31,56.76,57.32,16.14,16.95,20.92,32.04,3.543,21.22,16.48,21.13,16.34,0,0,0,0,0,0,0,0,0,0,0,0,0,0,0,0,
614,14.07,9.601,19.19,-14.19,16.12,42.74,26.78,-7.59,29.21,19.41,37.41,10.12,35.4,24.56,31.59,25.47,0,0,0,0,0,0,0,0,0,0,0,0,0,0,0,0,
615,28.1,27.59,38.38,50.4,7.57,65.82,-6.532,15.72,43.63,18.75,15.68,-2.519,19.03,14.66,11.42,9.182,0,0,0,0,0,0,0,0,0,0,0,0,0,0,0,0,
616,23.66,23.98,-11.63,15.25,-9.249,65.9,15.64,43.1,11.19,12.61,-3.031,-10.78,-11.65,1.436,-11.06,-4.505,0,0,0,0,0,0,0,0,0,0,0,0,0,0,0,0,
617,29.61,20.97,40.92,-8.724,0.3037,64.78,37.2,37.37,-18.79,14.41,5.803,3.335,-6.009,8.573,-2.531,11.47,0,0,0,0,0,0,0,0,0,0,0,0,0,0,0,0,
618,30.74,7.348,57.34,45.49,5.338,72.57,-29.88,4.006,-3.76,7.814,5.268,0.3127,4.241,5.283,3.046,11.82,0,0,0,0,0,0,0,0,0,0,0,0,0,0,0,0,
619,-24.01,-18.85,-40.29,61.26,5.504,77.88,-20.37,-9.527,7.082,-5.387,13.63,9.772,14.29,12.47,21.1,22.12,0,0,0,0,0,0,0,0,0,0,0,0,0,0,0,0,
620,-23.26,-6.102,-41.97,12.17,22.86,85.01,99.98,10.8,13.67,14.14,26.68,21.5,24.41,25.03,35.87,38.07,0,0,0,0,0,0,0,0,0,0,0,0,0,0,0,0,
621,26.44,6.84,18.44,-34.43,23.01,62.96,74.6,10.85,19.45,23.84,27.85,9.694,27.13,22.63,37.11,34.7,0,0,0,0,0,0,0,0,0,0,0,0,0,0,0,0,
622,31.8,14.54,34.59,-0.8925,37.22,58.84,-26.1,-8.471,38.62,25.73,53.57,22.79,52.68,42.16,51.91,43.09,0,0,0,0,0,0,0,0,0,0,0,0,0,0,0,0,
623,48.97,43.59,55.02,51.05,41.1,86.04,17.03,-16.52,61.24,40.41,42.73,21.98,46.01,40.18,29.69,33.7,0,0,0,0,0,0,0,0,0,0,0,0,0,0,0,0,
624,71.9,38.96,51.6,21.44,3.139,79.42,87.32,8.928,29.33,23.36,-3.068,-1.566,8.213,11.82,-2.084,14.63,0,0,0,0,0,0,0,0,0,0,0,0,0,0,0,0,
625,9.297,3.786,-13.85,-22.26,12.6,68.78,39.96,37.75,11.35,13.76,2.566,-0.4066,13.84,12.12,4.135,12.37,0,0,0,0,0,0,0,0,0,0,0,0,0,0,0,0,
626,-72.39,-15.53,-76.5,-26.05,34.62,67.91,-37.27,16.09,38.83,18.64,16.53,-6.373,21.68,11.92,3.1,3.091,0,0,0,0,0,0,0,0,0,0,0,0,0,0,0,0,
627,-22.81,-2.421,-34.76,24.41,21.45,76.14,-13.24,10.99,34.54,9.64,28.72,0.5357,24.88,22.11,20.41,17.57,0,0,0,0,0,0,0,0,0,0,0,0,0,0,0,0,
628,75.26,15.26,48.52,78.28,25.5,116.3,34.57,26.54,16.55,23.84,33.44,15.69,26.41,32.19,37.21,23.66,0,0,0,0,0,0,0,0,0,0,0,0,0,0,0,0,
629,53.33,2.381,21.69,-29.32,15.77,140.7,-4.891,2.934,-2.984,19.2,-8.999,-1.525,-3.589,6.395,13.76,-2.338,0,0,0,0,0,0,0,0,0,0,0,0,0,0,0,0,
630,16.79,19.64,-12.1,-205.5,4.005,197.5,-19.57,8.595,-12.53,-0.6774,-12.53,0.168,-0.1185,6.528,14.2,8.27,0,0,0,0,0,0,0,0,0,0,0,0,0,0,0,0,
631,33.84,44.91,24.04,-237.0,20.39,329.4,23.76,17.61,14.5,14.64,18.68,6.593,18.51,15.16,12.89,12.12,0,0,0,0,0,0,0,0,0,0,0,0,0,0,0,0,
632,-0.3568,8.317,-8.723,-214.9,22.06,380.9,25.49,-14.5,13.91,10.25,6.884,-2.075,-0.9434,0.2241,-16.13,-10.03,0,0,0,0,0,0,0,0,0,0,0,0,0,0,0,0,
633,-33.37,-2.176,-64.6,-243.7,19.41,323.0,6.411,-9.011,-2.796,0.7476,-8.999,6.996,-7.701,3.777,-19.97,-4.209,0,0,0,0,0,0,0,0,0,0,0,0,0,0,0,0,
634,-14.15,11.23,-11.61,-257.1,8.849,303.1,-3.301,1.947,3.346,5.346,-8.002,6.84,-3.248,5.831,-5.944,4.558,0,0,0,0,0,0,0,0,0,0,0,0,0,0,0,0,
635,27.29,-6.805,65.16,-239.2,-4.388,324.1,3.209,-0.9304,-4.985,-3.74,14.88,17.36,7.738,18.28,19.09,20.71,0,0,0,0,0,0,0,0,0,0,0,0,0,0,0,0,
636,78.16,-1.302,29.65,-235.9,20.24,313.0,21.44,23.95,-1.817,20.89,41.4,45.4,31.51,49.96,39.33,43.52,0,0,0,0,0,0,0,0,0,0,0,0,0,0,0,0,
637,49.79,4.372,-32.48,-241.1,59.54,310.4,22.3,37.54,30.02,56.27,51.72,55.21,50.5,62.75,51.37,53.72,0,0,0,0,0,0,0,0,0,0,0,0,0,0,0,0,
638,-3.951,18.27,33.39,-210.9,89.2,325.1,43.86,45.88,66.21,66.04,88.07,66.39,77.88,72.71,71.81,65.51,0,0,0,0,0,0,0,0,0,0,0,0,0,0,0,0,
639,35.94,74.13,75.97,-175.2,71.81,280.2,61.43,43.89,79.12,65.07,86.12,52.0,66.97,56.89,49.45,46.25,0,0,0,0,0,0,0,0,0,0,0,0,0,0,0,0,
640,59.46,75.13,-7.637,-182.6,23.03,226.6,37.36,17.57,46.64,27.46,28.53,23.02,24.89,23.27,17.89,22.29,0,0,0,0,0,0,0,0,0,0,0,0,0,0,0,0,
641,24.31,24.66,-11.6,-190.5,20.19,230.7,33.44,12.8,28.0,2.437,24.63,21.18,21.21,22.53,21.34,21.88,0,0,0,0,0,0,0,0,0,0,0,0,0,0,0,0,
642,14.0,6.883,34.41,-182.2,12.88,219.8,19.21,0.218,18.54,12.77,31.23,-2.124,7.945,10.85,-1.739,-3.751,0,0,0,0,0,0,0,0,0,0,0,0,0,0,0,0,
643,16.68,14.04,4.983,-197.6,-1.211,200.8,-14.85,-10.58,-12.02,3.77,8.294,-16.25,-6.67,0.8048,-13.88,-10.2,0,0,0,0,0,0,0,0,0,0,0,0,0,0,0,0,
644,25.46,19.01,21.09,-218.1,29.57,207.9,4.363,17.95,7.256,6.629,10.74,5.439,14.81,20.13,9.487,12.54,0,0,0,0,0,0,0,0,0,0,0,0,0,0,0,0,
645,36.62,4.478,49.94,-201.9,15.97,184.7,15.96,14.8,25.54,15.36,17.19,1.313,12.17,15.1,5.864,6.746,0,0,0,0,0,0,0,0,0,0,0,0,0,0,0,0,
646,7.991,-8.794,-24.26,-185.6,-23.36,147.8,-23.58,-14.86,-10.36,-5.904,9.152,-8.349,-2.499,-0.3398,-9.189,1.235,0,0,0,0,0,0,0,0,0,0,0,0,0,0,0,0,
647,-35.35,-0.3661,-74.99,-195.2,1.22,138.3,-30.91,-12.83,-12.97,-18.02,-9.706,-2.272,-2.052,3.857,-13.22,6.955,0,0,0,0,0,0,0,0,0,0,0,0,0,0,0,0,
648,-13.45,13.71,-5.1,-159.5,30.95,155.7,16.0,11.97,7.698,-0.1488,-22.71,10.73,-1.252,23.41,-2.481,17.21,0,0,0,0,0,0,0,0,0,0,0,0,0,0,0,0,
649,46.76,26.89,37.6,-115.2,19.48,162.9,38.53,30.5,5.004,28.84,-14.57,22.87,0.2427,34.43,4.672,24.76,0,0,0,0,0,0,0,0,0,0,0,0,0,0,0,0,
650,21.94,13.56,-42.21,-144.8,-1.92,112.2,2.891,9.893,-4.049,18.41,-9.959,8.524,-5.917,12.71,-12.74,13.75,0,0,0,0,0,0,0,0,0,0,0,0,0,0,0,0,
651,-40.7,-4.92,-72.27,-150.9,9.541,79.69,-19.73,-9.709,0.8437,-9.047,6.614,3.098,3.97,10.13,-8.637,17.36,0,0,0,0,0,0,0,0,0,0,0,0,0,0,0,0,
652,-20.19,-1.013,2.72,-129.7,18.87,85.55,-11.6,5.314,16.0,9.102,5.367,3.207,4.652,15.21,-3.896,10.39,0,0,0,0,0,0,0,0,0,0,0,0,0,0,0,0,
653,25.57,-14.66,29.2,-146.0,-20.48,56.36,-2.789,8.115,-11.17,4.562,-31.46,-16.84,-25.56,-11.6,-13.72,-10.3,0,0,0,0,0,0,0,0,0,0,0,0,0,0,0,0,
654,32.02,-9.662,20.8,-109.8,-23.5,53.45,21.34,-3.551,-36.69,-23.8,-16.98,-12.69,-14.47,-9.302,6.553,8.065,0,0,0,0,0,0,0,0,0,0,0,0,0,0,0,0,
655,3.774,20.25,10.83,-75.19,9.174,72.29,19.85,-11.78,-6.295,-7.645,3.703,-8.472,1.765,3.824,0.1565,9.139,0,0,0,0,0,0,0,0,0,0,0,0,0,0,0,0,
656,-22.9,7.483,-28.3,-119.6,5.296,43.08,-5.345,-0.1893,-4.479,-0.3271,-18.08,-17.52,-13.68,-5.4,-24.96,-8.875,0,0,0,0,0,0,0,0,0,0,0,0,0,0,0,0,
657,1.425,-12.87,-31.65,-129.0,6.476,21.84,3.65,20.18,-18.48,-9.838,-7.989,-8.127,-0.3398,-0.1762,-6.606,2.933,0,0,0,0,0,0,0,0,0,0,0,0,0,0,0,0,T2
658,17.97,-11.94,-4.056,-104.8,6.207,13.43,-1.631,4.122,1.269,-3.989,7.763,-3.923,10.23,3.585,1.961,4.06,0,0,0,0,0,0,0,0,0,0,0,0,0,0,0,0,
659,10.14,2.17,29.2,-95.97,-3.01,0.7971,-28.0,-7.55,4.411,1.884,0.4517,1.435,-3.48,0.4064,-12.25,-3.83,0,0,0,0,0,0,0,0,0,0,0,0,0,0,0,0,
660,3.516,14.37,30.88,-86.65,2.436,-9.797,-19.04,-7.544,-10.89,-2.564,-16.16,-4.213,-21.6,-13.61,-25.24,-14.93,0,0,0,0,0,0,0,0,0,0,0,0,0,0,0,0,
661,-48.63,-15.0,-44.64,-93.66,-9.985,-36.05,19.07,-20.01,-30.4,-29.5,-32.1,-14.0,-31.03,-22.55,-17.59,-18.39,0,0,0,0,0,0,0,0,0,0,0,0,0,0,0,0,
662,-56.11,-25.82,-52.57,-85.87,-4.306,-29.52,41.38,-0.3684,-25.1,-26.04,-0.6955,18.57,0.4262,10.18,14.77,7.814,0,0,0,0,0,0,0,0,0,0,0,0,0,0,0,0,
663,15.08,1.823,2.155,-73.04,8.957,-23.45,-2.804,8.889,7.482,2.2,15.96,22.94,8.786,12.52,7.99,2.917,0,0,0,0,0,0,0,0,0,0,0,0,0,0,0,0,
664,35.18,4.698,-17.97,-69.17,-17.96,-60.74,-41.16,3.59,-4.912,-17.39,-9.16,4.622,-14.7,-7.025,-0.5871,-5.644,0,0,0,0,0,0,0,0,0,0,0,0,0,0,0,0,
665,28.91,0.1647,4.922,-44.1,-17.67,-57.28,-9.368,20.93,-24.61,-15.25,3.32,24.77,0.0617,14.16,19.52,14.57,0,0,0,0,0,0,0,0,0,0,0,0,0,0,0,0,
666,14.07,-16.11,49.36,-67.03,-2.164,-53.72,0.0046,-6.465,-16.11,6.242,7.552,11.18,-2.343,4.789,-1.916,-4.276,0,0,0,0,0,0,0,0,0,0,0,0,0,0,0,0,
667,-29.79,-18.27,-4.246,-91.53,-4.406,-84.23,-3.046,-21.62,-18.47,-18.4,-8.386,-8.253,-18.81,-15.36,-14.19,-16.19,0,0,0,0,0,0,0,0,0,0,0,0,0,0,0,0,
668,-26.68,11.56,-19.45,-44.53,1.296,-79.22,14.27,-3.809,-3.755,-23.02,-6.158,7.663,-13.26,-7.696,-8.9,-8.626,0,0,0,0,0,0,0,0,0,0,0,0,0,0,0,0,
669,-13.34,-23.23,-0.1414,-54.14,-21.19,-84.68,6.862,-37.32,-5.941,-24.94,-25.5,-6.425,-31.93,-23.22,-33.51,-29.58,0,0,0,0,0,0,0,0,0,0,0,0,0,0,0,0,
670,-11.15,-57.46,-50.61,-82.36,-35.82,-97.73,10.17,-15.86,-39.26,-37.53,-29.15,-13.78,-29.84,-17.24,-16.27,-21.3,0,0,0,0,0,0,0,0,0,0,0,0,0,0,0,0,
671,15.66,-17.67,-59.48,-29.23,-5.107,-77.54,-9.854,40.18,-21.55,-5.002,-1.968,6.111,3.075,13.31,16.83,2.385,0,0,0,0,0,0,0,0,0,0,0,0,0,0,0,0,
672,4.511,-0.9891,19.68,-13.87,15.04,-81.66,-43.71,4.952,13.07,13.39,4.265,14.04,9.266,18.61,8.902,3.738,0,0,0,0,0,0,0,0,0,0,0,0,0,0,0,0,
673,-14.09,14.84,56.72,-41.82,15.15,-93.69,11.44,-6.224,7.811,9.171,0.1553,13.4,7.297,16.82,4.123,7.116,0,0,0,0,0,0,0,0,0,0,0,0,0,0,0,0,
674,2.321,37.68,14.97,-22.3,-3.705,-88.87,38.14,24.73,-12.64,11.19,0.1144,1.101,9.907,3.49,2.947,1.42,0,0,0,0,0,0,0,0,0,0,0,0,0,0,0,0,
675,0.9805,5.905,10.19,-8.796,-8.04,-99.06,-7.584,9.753,-5.964,-3.17,22.79,6.755,26.61,-2.095,7.98,2.845,0,0,0,0,0,0,0,0,0,0,0,0,0,0,0,0,
676,3.883,-18.61,45.21,-36.68,16.86,-112.1,13.94,-3.8,28.59,-0.4808,34.32,21.53,30.71,3.656,10.22,2.881,0,0,0,0,0,0,0,0,0,0,0,0,0,0,0,0,
677,34.91,-6.075,20.11,-24.07,6.549,-110.0,47.25,1.091,14.58,6.226,-5.736,7.964,-3.824,-9.415,-6.564,-12.24,0,0,0,0,0,0,0,0,0,0,0,0,0,0,0,0,
678,59.59,23.21,-23.16,36.95,1.165,-89.89,17.41,6.758,-7.198,-1.842,-19.08,8.437,-1.221,-3.711,0.9758,1.58,0,0,0,0,0,0,0,0,0,0,0,0,0,0,0,0,
679,28.36,34.7,-36.2,21.61,27.27,-84.54,-12.23,5.511,35.33,8.85,-5.346,23.58,24.95,15.66,17.15,21.11,0,0,0,0,0,0,0,0,0,0,0,0,0,0,0,0,
680,-30.96,1.101,-11.38,-42.48,25.75,-103.3,-2.098,5.74,41.83,22.37,-10.95,38.4,18.66,25.64,18.87,31.44,0,0,0,0,0,0,0,0,0,0,0,0,0,0,0,0,
681,-4.248,4.957,59.2,-29.84,11.98,-108.2,33.01,34.32,1.337,31.57,-4.61,51.48,12.64,28.24,18.25,38.92,0,0,0,0,0,0,0,0,0,0,0,0,0,0,0,0,
682,48.63,30.0,71.12,-13.32,-7.873,-125.5,35.37,39.45,-12.04,15.85,-6.96,36.27,1.317,2.518,4.244,19.83,0,0,0,0,0,0,0,0,0,0,0,0,0,0,0,0,
683,23.41,-2.049,22.34,-22.47,-10.28,-138.9,0.8734,11.6,-10.03,-12.11,-13.16,37.75,-3.171,-1.547,-2.81,13.72,0,0,0,0,0,0,0,0,0,0,0,0,0,0,0,0,
684,-5.509,-19.76,-12.68,29.55,24.42,-106.6,-15.55,10.13,5.717,12.59,0.1776,48.22,9.795,18.14,-8.408,12.59,0,0,0,0,0,0,0,0,0,0,0,0,0,0,0,0,
685,9.453,4.991,-48.28,86.28,22.69,-92.46,1.78,24.42,15.11,28.54,2.692,21.26,5.034,2.978,-15.2,-9.775,0,0,0,0,0,0,0,0,0,0,0,0,0,0,0,0,
686,60.19,38.51,-4.014,69.71,1.543,-107.3,18.85,27.58,14.36,8.142,4.914,13.88,2.4,-7.008,-4.054,-10.58,0,0,0,0,0,0,0,0,0,0,0,0,0,0,0,0,
687,83.89,64.95,74.77,10.59,0.9268,-117.7,-4.091,13.97,15.56,5.494,-4.692,20.82,-8.35,-10.6,-19.43,-13.03,0,0,0,0,0,0,0,0,0,0,0,0,0,0,0,0,
688,21.11,42.73,43.59,-4.666,-4.657,-128.5,1.794,13.95,-15.67,-7.815,-26.34,12.36,-30.21,-26.82,-37.19,-21.46,0,0,0,0,0,0,0,0,0,0,0,0,0,0,0,0,
689,-7.015,-0.9559,25.94,29.06,-2.667,-128.4,47.44,24.74,-33.32,-17.6,-27.93,6.603,-28.3,-30.7,-25.41,-16.82,0,0,0,0,0,0,0,0,0,0,0,0,0,0,0,0,
690,25.97,-13.19,41.33,10.85,-6.975,-135.9,10.76,-6.202,-18.57,-15.32,-35.36,-7.809,-29.65,-34.67,-25.38,-21.81,0,0,0,0,0,0,0,0,0,0,0,0,0,0,0,0,
691,15.64,7.791,-27.7,-11.08,1.847,-138.2,-33.78,-14.15,-16.31,-21.48,-28.05,3.545,-18.59,-12.15,-7.396,-2.353,0,0,0,0,0,0,0,0,0,0,0,0,0,0,0,0,
692,5.46,30.75,-65.4,24.04,30.15,-115.2,-14.08,17.42,2.263,6.938,-7.893,31.03,4.919,21.82,10.42,19.05,0,0,0,0,0,0,0,0,0,0,0,0,0,0,0,0,
693,25.87,16.72,-16.17,24.79,3.253,-118.8,-39.0,7.541,11.8,26.49,-13.67,27.87,2.432,16.12,-2.545,9.111,0,0,0,0,0,0,0,0,0,0,0,0,0,0,0,0,
694,35.64,5.692,17.53,22.07,-12.93,-130.1,-53.42,2.003,3.158,10.79,8.237,33.55,20.9,19.13,13.72,19.77,0,0,0,0,0,0,0,0,0,0,0,0,0,0,0,0,
695,30.12,18.89,17.39,53.75,27.08,-117.9,7.962,9.5,29.43,17.57,31.15,37.96,37.43,27.31,23.18,24.35,0,0,0,0,0,0,0,0,0,0,0,0,0,0,0,0,
696,21.21,22.55,17.89,46.61,25.12,-115.8,52.05,2.567,37.74,23.29,4.065,28.21,11.54,18.65,3.703,15.6,0,0,0,0,0,0,0,0,0,0,0,0,0,0,0,0,
697,34.91,32.33,26.39,28.83,0.3701,-115.5,38.51,30.26,10.7,20.92,-12.67,32.17,0.9245,24.32,9.951,31.98,0,0,0,0,0,0,0,0,0,0,0,0,0,0,0,0,
698,42.86,30.68,20.07,47.29,10.97,-110.8,-3.263,47.21,-0.5447,22.33,-6.434,29.17,10.5,25.01,24.26,40.74,0,0,0,0,0,0,0,0,0,0,0,0,0,0,0,0,
699,33.67,15.71,4.487,76.28,39.87,-105.1,-7.001,26.84,12.88,19.51,10.79,31.02,27.56,27.89,35.1,39.59,0,0,0,0,0,0,0,0,0,0,0,0,0,0,0,0,
700,34.2,22.77,-14.15,57.99,53.53,-102.9,7.839,17.81,43.07,33.52,20.61,33.08,37.59,34.74,33.24,28.81,0,0,0,0,0,0,0,0,0,0,0,0,0,0,0,0,
701,18.56,28.69,-17.41,6.396,36.13,-113.6,-12.44,13.67,46.54,35.94,3.047,26.91,24.1,27.07,19.01,15.46,0,0,0,0,0,0,0,0,0,0,0,0,0,0,0,0,
702,29.64,42.51,53.07,39.8,30.1,-104.3,8.96,20.15,33.95,25.83,0.961,37.84,21.93,28.14,21.0,21.48,0,0,0,0,0,0,0,0,0,0,0,0,0,0,0,0,
703,70.82,52.03,89.45,98.77,33.4,-96.76,36.12,32.85,37.54,23.41,9.209,21.69,16.57,15.59,11.41,5.552,0,0,0,0,0,0,0,0,0,0,0,0,0,0,0,0,
704,62.26,41.69,10.17,70.54,39.34,-106.6,6.099,39.72,32.16,15.27,22.01,9.61,17.1,13.2,13.08,1.588,0,0,0,0,0,0,0,0,0,0,0,0,0,0,0,0,
705,49.92,60.92,-13.92,53.52,66.18,-86.29,2.113,38.47,44.13,41.99,45.25,37.59,41.95,43.4,41.13,30.64,0,0,0,0,0,0,0,0,0,0,0,0,0,0,0,0,
706,42.59,43.28,42.25,74.37,45.6,-81.34,-11.42,11.98,48.06,57.45,37.98,20.11,31.54,29.32,37.57,23.23,0,0,0,0,0,0,0,0,0,0,0,0,0,0,0,0,
707,16.22,-18.89,48.27,73.42,10.44,-106.7,-38.63,0.3199,18.23,12.42,36.14,-1.407,21.68,9.139,31.43,16.87,0,0,0,0,0,0,0,0,0,0,0,0,0,0,0,0,
708,26.8,-8.649,8.176,57.32,29.79,-110.6,10.08,-7.533,30.19,-1.175,32.02,17.06,31.66,22.73,30.17,22.69,0,0,0,0,0,0,0,0,0,0,0,0,0,0,0,0,
709,29.45,21.45,-10.56,20.0,29.23,-118.7,56.69,-20.59,37.62,7.285,-8.771,8.223,9.408,12.52,8.892,-0.1192,0,0,0,0,0,0,0,0,0,0,0,0,0,0,0,0,
710,10.36,16.78,24.17,9.778,16.16,-122.1,39.67,24.22,6.535,0.9913,-9.191,-6.186,0.3747,0.9258,-0.525,-14.79,0,0,0,0,0,0,0,0,0,0,0,0,0,0,0,0,
711,20.42,12.01,27.84,53.33,15.71,-108.9,-10.07,36.03,3.063,8.649,-4.006,-9.115,-3.153,-4.461,-13.04,-23.09,0,0,0,0,0,0,0,0,0,0,0,0,0,0,0,0,
712,21.72,1.129,-19.24,79.02,0.7141,-110.5,-52.89,-5.359,-1.612,4.296,-30.43,-7.403,-18.4,-6.044,-12.16,-13.62,0,0,0,0,0,0,0,0,0,0,0,0,0,0,0,0,
713,21.45,12.38,8.579,57.77,6.481,-109.8,-27.06,9.102,-6.979,5.068,-17.13,2.427,-3.112,9.875,11.92,16.55,0,0,0,0,0,0,0,0,0,0,0,0,0,0,0,0,
714,22.93,27.05,38.06,10.57,1.913,-113.8,7.497,4.724,-7.593,5.846,0.6075,-5.436,1.001,2.649,14.19,18.51,0,0,0,0,0,0,0,0,0,0,0,0,0,0,0,0,
715,7.173,16.73,-6.645,-3.005,-14.48,-122.7,-15.07,-15.28,-27.24,-15.31,11.4,4.112,5.735,2.302,28.16,26.81,0,0,0,0,0,0,0,0,0,0,0,0,0,0,0,0,
716,17.82,19.55,-8.936,36.45,3.06,-113.7,-19.95,11.27,-7.458,-6.954,27.3,13.26,27.24,12.55,32.82,30.78,0,0,0,0,0,0,0,0,0,0,0,0,0,0,0,0,
717,25.44,9.868,-5.501,63.73,7.261,-107.5,30.56,-4.771,21.02,-2.777,13.46,-10.47,15.26,-4.675,7.748,5.972,0,0,0,0,0,0,0,0,0,0,0,0,0,0,0,0,
718,4.285,-6.124,-49.0,61.16,16.11,-93.14,69.92,-11.97,18.11,-4.949,26.3,1.145,16.38,8.211,23.98,12.35,0,0,0,0,0,0,0,0,0,0,0,0,0,0,0,0,
719,-3.801,0.2697,-34.82,41.44,28.14,-85.56,26.24,31.12,26.36,26.47,43.58,12.84,25.02,24.52,32.52,17.62,0,0,0,0,0,0,0,0,0,0,0,0,0,0,0,0,
720,1.923,-1.609,32.01,40.0,-3.687,-105.2,-39.25,22.04,10.88,18.76,6.388,-1.018,1.823,9.347,11.5,10.74,0,0,0,0,0,0,0,0,0,0,0,0,0,0,0,0,
721,9.755,1.743,46.43,62.31,-12.86,-102.3,-33.39,-6.887,-8.306,-3.013,-10.67,14.52,-0.1708,16.64,20.92,27.26,0,0,0,0,0,0,0,0,0,0,0,0,0,0,0,0,
722,-2.41,-2.217,8.631,28.29,-13.13,-100.1,-14.72,-10.14,1.219,3.608,3.22,6.037,0.1003,5.232,17.57,17.77,0,0,0,0,0,0,0,0,0,0,0,0,0,0,0,0,
723,-15.15,-21.06,-5.039,-4.915,-42.49,-125.9,-15.55,-11.62,-20.1,-26.29,5.455,-23.08,-18.89,-29.09,-5.283,-2.779,0,0,0,0,0,0,0,0,0,0,0,0,0,0,0,0,
724,0.4864,-20.29,-15.15,35.41,-43.86,-131.7,2.419,-10.65,-43.77,-51.52,-6.249,-11.28,-24.7,-22.61,-8.287,2.396,0,0,0,0,0,0,0,0,0,0,0,0,0,0,0,0,
725,-0.8227,-28.64,-55.39,50.79,-28.53,-116.7,24.79,-11.52,-29.91,-23.85,-9.562,7.549,-13.82,3.88,6.944,15.02,0,0,0,0,0,0,0,0,0,0,0,0,0,0,0,0,
726,-11.23,-22.89,-71.02,25.54,-3.627,-102.5,13.67,-0.6139,1.909,7.757,19.51,4.563,10.26,15.16,16.74,19.82,0,0,0,0,0,0,0,0,0,0,0,0,0,0,0,0,
727,-24.81,13.51,-68.87,13.96,27.53,-100.8,-42.48,12.85,26.86,10.32,17.44,-10.69,8.471,7.373,-10.26,-0.4132,0,0,0,0,0,0,0,0,0,0,0,0,0,0,0,0,
728,-34.11,19.16,-13.85,23.72,31.62,-93.06,-45.86,21.4,19.21,7.55,-7.415,0.8671,-0.5645,18.0,-12.45,4.002,0,0,0,0,0,0,0,0,0,0,0,0,0,0,0,0,
729,27.29,12.22,94.47,43.44,22.56,-69.87,4.664,21.76,22.0,30.99,16.5,19.65,18.46,33.85,16.08,25.97,0,0,0,0,0,0,0,0,0,0,0,0,0,0,0,0,
730,65.27,3.608,66.53,32.79,-13.34,-87.81,-12.97,-19.39,27.33,19.43,26.4,-3.993,5.248,1.259,0.9796,3.205,0,0,0,0,0,0,0,0,0,0,0,0,0,0,0,0,
731,17.53,-8.164,-21.63,36.67,-40.61,-111.9,7.309,-29.86,-7.476,-24.41,11.3,-0.9135,-12.33,-11.15,5.513,5.131,0,0,0,0,0,0,0,0,0,0,0,0,0,0,0,0,
732,-11.87,4.367,4.807,67.58,-21.07,-96.51,56.89,6.487,-25.91,-17.67,1.982,14.47,-7.866,-1.146,21.46,19.14,0,0,0,0,0,0,0,0,0,0,0,0,0,0,0,0,
733,-38.8,-7.227,-14.68,48.04,-24.36,-98.8,-32.46,-16.04,-33.55,-19.72,-23.87,-17.73,-31.77,-28.86,-16.87,-12.82,0,0,0,0,0,0,0,0,0,0,0,0,0,0,0,0,
734,-60.32,-46.87,-93.59,27.79,-25.19,-99.31,-74.25,-46.85,-41.33,-33.84,-19.94,-19.4,-34.61,-26.31,-27.94,-12.29,0,0,0,0,0,0,0,0,0,0,0,0,0,0,0,0,
735,-26.13,-65.83,-94.69,27.95,2.982,-87.5,-14.91,-26.23,-13.47,-5.684,1.396,-4.436,-12.66,-4.662,-9.536,8.519,0,0,0,0,0,0,0,0,0,0,0,0,0,0,0,0,
736,11.19,-40.49,-53.27,12.83,4.406,-95.25,-42.2,1.197,3.27,-2.376,3.242,-13.55,-4.113,-5.72,-3.114,7.737,0,0,0,0,0,0,0,0,0,0,0,0,0,0,0,0,
737,42.34,30.18,28.89,34.13,6.325,-81.27,-21.9,21.44,11.96,-3.213,13.43,-6.635,11.91,9.168,8.081,10.19,0,0,0,0,0,0,0,0,0,0,0,0,0,0,0,0,
738,33.87,52.2,80.93,59.56,6.973,-69.06,60.09,7.304,22.05,13.44,-1.444,-10.25,-0.0246,8.403,-8.858,-4.865,0,0,0,0,0,0,0,0,0,0,0,0,0,0,0,0,
739,-15.19,18.59,8.781,42.27,-9.847,-90.95,-0.5871,-18.29,-7.705,-7.486,-27.49,-19.27,-28.97,-8.588,-35.28,-22.89,0,0,0,0,0,0,0,0,0,0,0,0,0,0,0,0,
740,-5.711,5.492,-43.96,24.26,-20.96,-104.1,-89.67,-19.4,-36.21,-24.86,-26.16,-24.62,-35.86,-18.57,-40.82,-34.53,0,0,0,0,0,0,0,0,0,0,0,0,0,0,0,0,
741,2.433,-23.11,-12.05,32.64,-36.42,-99.69,-67.02,-22.95,-43.96,-30.54,-16.66,-41.07,-36.83,-32.88,-37.66,-39.88,0,0,0,0,0,0,0,0,0,0,0,0,0,0,0,0,
742,-29.63,-25.8,-31.35,58.03,-17.64,-79.7,-13.72,-13.22,-31.25,-31.05,9.825,-22.96,-16.43,-19.66,-21.56,-12.61,0,0,0,0,0,0,0,0,0,0,0,0,0,0,0,0,
743,-3.918,22.99,-98.14,35.27,13.85,-70.94,22.37,-6.527,-0.232,-7.17,7.284,-6.107,-8.155,-9.731,-25.22,-1.47,0,0,0,0,0,0,0,0,0,0,0,0,0,0,0,0,
744,49.64,26.06,-53.71,11.57,-3.786,-78.29,19.2,-13.3,-1.322,-6.477,-23.77,-19.12,-20.55,-20.38,-31.11,-5.042,0,0,0,0,0,0,0,0,0,0,0,0,0,0,0,0,
745,64.15,12.05,62.06,63.78,-17.0,-64.66,-42.75,1.049,-0.2262,-10.73,-15.2,-19.52,-8.403,-13.14,-14.25,5.894,0,0,0,0,0,0,0,0,0,0,0,0,0,0,0,0,
746,40.64,-1.018,49.69,53.11,-26.38,-73.69,-63.6,-11.7,0.2043,-10.21,-15.81,-30.61,-17.79,-22.16,-17.56,-5.739,0,0,0,0,0,0,0,0,0,0,0,0,0,0,0,0,
747,-0.2065,-29.51,-45.52,-8.549,-32.26,-98.19,1.491,-38.64,-39.0,-34.06,-18.26,-31.22,-30.75,-24.51,-13.4,-2.918,0,0,0,0,0,0,0,0,0,0,0,0,0,0,0,0,
748,-30.92,-9.387,-88.9,24.91,2.438,-85.88,3.614,-32.73,-32.99,-26.66,6.646,-9.572,-12.67,0.5708,-6.722,11.03,0,0,0,0,0,0,0,0,0,0,0,0,0,0,0,0,
749,-36.09,10.98,-68.98,51.09,1.572,-83.57,-45.51,-33.87,-8.403,-12.91,-10.28,-19.15,-23.08,-6.315,-30.09,-12.18,0,0,0,0,0,0,0,0,0,0,0,0,0,0,0,0,
750,14.89,0.6695,21.1,18.91,-32.04,-90.25,0.3281,-26.85,-30.18,-29.5,-29.6,-30.28,-32.5,-17.29,-28.31,-24.18,0,0,0,0,0,0,0,0,0,0,0,0,0,0,0,0,
751,47.44,22.47,54.24,27.23,-24.71,-77.9,20.31,-7.37,-26.24,-18.62,-10.32,-23.46,-15.12,-7.139,-12.56,-18.79,0,0,0,0,0,0,0,0,0,0,0,0,0,0,0,0,
752,-3.685,37.58,-14.12,66.04,-2.13,-65.48,-47.32,4.506,-7.539,2.947,-3.835,-16.6,-11.04,-0.6431,-12.7,-13.61,0,0,0,0,0,0,0,0,0,0,0,0,0,0,0,0,
753,2.643,15.33,-18.65,67.43,1.888,-53.84,-56.61,19.62,-12.66,2.711,-16.15,-14.94,-17.82,-2.903,-16.62,-8.37,0,0,0,0,0,0,0,0,0,0,0,0,0,0,0,0,
754,58.44,-4.026,-16.61,19.3,-17.6,-61.74,-38.6,-1.432,-16.44,-13.87,-30.78,-29.89,-28.24,-19.13,-26.45,-16.36,0,0,0,0,0,0,0,0,0,0,0,0,0,0,0,0,
755,22.79,3.471,-60.42,3.661,-14.34,-72.65,-27.27,-28.7,-12.4,-27.5,-20.19,-29.55,-18.38,-17.07,-8.053,-4.105,0,0,0,0,0,0,0,0,0,0,0,0,0,0,0,0,
756,-24.26,10.02,-28.0,34.86,14.96,-67.61,17.03,-21.13,-1.558,-16.27,-7.679,-24.5,-7.471,-8.543,11.15,7.962,0,0,0,0,0,0,0,0,0,0,0,0,0,0,0,0,
757,0.3321,-10.11,30.7,31.91,-2.372,-73.67,17.04,-24.77,-13.38,-20.89,-24.1,-28.4,-25.64,-17.68,-4.842,-2.068,0,0,0,0,0,0,0,0,0,0,0,0,0,0,0,0,
758,41.12,1.747,52.76,32.91,-24.39,-63.28,-29.71,-21.22,-26.36,-26.52,-16.4,-6.95,-23.17,-4.766,-10.97,2.612,0,0,0,0,0,0,0,0,0,0,0,0,0,0,0,0,
759,34.37,18.46,16.76,51.54,-19.96,-53.06,-43.97,-14.44,-13.19,-10.55,-5.689,-9.824,-20.43,-4.059,-17.44,-10.19,0,0,0,0,0,0,0,0,0,0,0,0,0,0,0,0,
760,-13.34,-13.22,-73.0,31.67,-25.88,-72.95,-21.38,-32.21,-26.25,-27.72,-10.71,-27.53,-29.63,-19.89,-16.59,-24.83,0,0,0,0,0,0,0,0,0,0,0,0,0,0,0,0,
761,-21.31,-5.364,-71.15,9.979,-20.85,-75.76,-26.97,-42.37,-26.23,-38.83,7.577,-8.75,-9.983,-7.39,-1.674,-15.64,0,0,0,0,0,0,0,0,0,0,0,0,0,0,0,0,
762,-10.23,9.006,-11.96,5.085,-29.4,-79.58,-73.57,-54.48,3.966,-26.19,1.444,-9.4,-13.45,-11.5,-19.9,-27.96,0,0,0,0,0,0,0,0,0,0,0,0,0,0,0,0,
763,-23.85,-22.99,-3.339,7.468,-42.36,-87.72,-38.81,-47.96,-12.69,-34.88,-18.63,-13.11,-28.75,-17.88,-21.39,-19.33,0,0,0,0,0,0,0,0,0,0,0,0,0,0,0,0,
764,-9.383,-3.302,19.04,9.307,-15.1,-74.41,39.36,-19.26,-34.53,-29.23,-4.911,5.326,-7.449,1.821,10.67,15.66,0,0,0,0,0,0,0,0,0,0,0,0,0,0,0,0,
765,15.66,26.71,14.99,14.25,0.5244,-71.7,25.52,-15.01,-16.93,-16.8,23.08,17.7,18.39,19.44,39.4,36.74,0,0,0,0,0,0,0,0,0,0,0,0,0,0,0,0,
766,33.5,6.45,-28.33,72.11,9.127,-50.08,18.8,14.39,12.24,-5.203,66.4,48.53,49.71,49.7,78.99,68.97,0,0,0,0,0,0,0,0,0,0,0,0,0,0,0,0,
767,61.89,13.84,-7.178,110.9,26.04,-19.94,44.09,45.66,37.45,26.16,73.59,55.54,58.7,54.99,74.6,67.56,0,0,0,0,0,0,0,0,0,0,0,0,0,0,0,0,
768,65.56,42.98,43.24,66.43,19.35,-36.21,28.11,6.79,33.4,28.61,33.59,21.15,29.59,21.78,27.79,26.4,0,0,0,0,0,0,0,0,0,0,0,0,0,0,0,0,
769,44.52,26.6,59.54,25.84,14.38,-49.81,25.67,-29.78,15.39,10.3,21.73,3.053,13.95,6.482,12.31,5.083,0,0,0,0,0,0,0,0,0,0,0,0,0,0,0,0,
770,2.111,-22.24,34.42,-5.51,8.02,-54.47,19.35,-20.28,4.825,-3.981,16.95,-9.715,4.632,-2.168,4.431,-7.642,0,0,0,0,0,0,0,0,0,0,0,0,0,0,0,0,
771,-37.65,-20.34,-20.7,-25.4,0.023,-71.85,3.293,-3.905,5.15,-18.4,-1.568,-7.191,-3.244,-2.315,-5.528,-4.736,0,0,0,0,0,0,0,0,0,0,0,0,0,0,0,0,
772,-20.42,21.9,-64.85,15.61,-5.737,-71.2,-7.695,-17.56,12.05,-13.76,-20.69,2.429,-10.86,1.034,-11.45,2.399,0,0,0,0,0,0,0,0,0,0,0,0,0,0,0,0,
773,14.69,12.57,-65.25,58.61,-27.12,-56.61,-67.55,-37.84,-9.466,-18.16,-25.28,-9.177,-15.42,-6.984,-9.44,0.7695,0,0,0,0,0,0,0,0,0,0,0,0,0,0,0,0,
774,29.49,0.4425,-5.327,57.42,-12.82,-44.3,-74.53,-12.62,-9.337,-15.51,12.38,1.288,12.18,9.879,16.53,17.22,0,0,0,0,0,0,0,0,0,0,0,0,0,0,0,0,
775,15.26,7.872,32.72,30.78,2.226,-55.75,-2.801,-10.73,16.15,5.82,12.49,9.242,7.13,13.15,10.95,11.0,0,0,0,0,0,0,0,0,0,0,0,0,0,0,0,0,
776,-10.04,-19.1,2.637,24.11,-29.84,-67.89,12.19,-37.76,-18.53,-9.281,-27.8,-2.882,-25.22,-3.295,-11.32,-5.679,0,0,0,0,0,0,0,0,0,0,0,0,0,0,0,0,
777,14.81,-13.58,-1.572,36.16,-28.04,-47.92,12.01,-13.25,-35.61,-9.224,-19.59,0.3422,-7.913,9.001,-3.123,1.477,0,0,0,0,0,0,0,0,0,0,0,0,0,0,0,0,
778,19.29,9.836,-17.63,4.78,-6.309,-51.04,26.77,-3.895,-0.0491,14.98,-19.18,-2.623,1.214,9.737,-6.863,-4.939,0,0,0,0,0,0,0,0,0,0,0,0,0,0,0,0,
779,-22.33,-5.334,-80.4,2.179,11.64,-54.76,-0.5853,-17.34,16.08,6.782,-19.81,8.278,3.204,10.11,1.081,5.461,0,0,0,0,0,0,0,0,0,0,0,0,0,0,0,0,
780,3.598,6.445,-58.71,49.95,37.5,-26.91,-28.4,-6.8,38.51,11.39,16.01,27.68,25.27,25.8,22.46,26.09,0,0,0,0,0,0,0,0,0,0,0,0,0,0,0,0,
781,45.7,24.84,38.34,38.03,11.51,-31.76,-39.35,-23.07,28.29,18.06,2.443,17.04,9.0,18.52,7.136,15.63,0,0,0,0,0,0,0,0,0,0,0,0,0,0,0,0,
782,36.61,12.17,75.84,33.96,-14.62,-39.19,-42.25,-29.76,-17.04,5.628,-31.74,16.05,-7.276,17.66,-3.653,13.89,0,0,0,0,0,0,0,0,0,0,0,0,0,0,0,0,
783,22.01,-0.0736,17.03,77.06,1.236,-26.64,-15.55,-3.464,-4.414,7.088,-19.12,17.95,6.003,22.31,9.766,15.01,0,0,0,0,0,0,0,0,0,0,0,0,0,0,0,0,
784,16.42,-5.003,-26.91,82.25,5.021,-24.51,25.82,3.453,16.56,6.433,7.617,16.03,18.31,23.31,25.81,13.09,0,0,0,0,0,0,0,0,0,0,0,0,0,0,0,0,
785,49.82,18.79,28.36,75.12,15.36,-13.37,43.09,1.536,16.73,14.76,7.642,22.44,23.45,29.12,20.37,10.68,0,0,0,0,0,0,0,0,0,0,0,0,0,0,0,0,
786,77.66,43.07,63.29,72.87,23.75,-14.62,35.23,2.931,23.16,18.02,-20.87,8.778,5.766,14.04,-4.34,-8.315,0,0,0,0,0,0,0,0,0,0,0,0,0,0,0,0,
787,55.38,44.54,44.36,84.69,32.66,-7.623,34.31,20.32,15.1,7.226,-5.244,15.65,9.808,19.47,12.29,4.123,0,0,0,0,0,0,0,0,0,0,0,0,0,0,0,0,
788,72.66,60.89,59.21,112.2,57.08,21.08,-7.081,21.03,24.55,28.5,30.46,28.22,32.74,37.03,27.07,18.51,0,0,0,0,0,0,0,0,0,0,0,0,0,0,0,0,
789,113.1,76.6,59.08,95.82,48.2,10.84,-71.01,-11.46,39.09,33.49,6.917,7.331,16.16,24.2,2.091,1.012,0,0,0,0,0,0,0,0,0,0,0,0,0,0,0,0,
790,134.0,111.1,57.99,96.91,56.18,17.37,-8.704,18.82,30.71,25.1,1.076,19.26,12.85,35.92,10.98,12.96,0,0,0,0,0,0,0,0,0,0,0,0,0,0,0,0,
791,187.7,162.5,104.3,138.7,89.95,52.25,90.74,59.16,33.2,46.45,23.81,31.19,26.76,44.62,26.1,20.11,0,0,0,0,0,0,0,0,0,0,0,0,0,0,0,0,
792,228.3,168.1,124.4,131.8,87.24,48.34,68.98,23.39,37.27,40.28,15.4,13.65,20.74,28.51,11.93,4.828,0,0,0,0,0,0,0,0,0,0,0,0,0,0,0,0,
793,232.3,183.1,125.6,116.8,92.76,51.62,22.02,6.82,39.9,36.46,0.8045,21.33,13.95,36.15,-3.825,2.127,0,0,0,0,0,0,0,0,0,0,0,0,0,0,0,0,
794,266.4,217.6,152.2,126.7,89.97,59.42,11.05,29.53,29.26,49.08,-15.35,24.37,-2.247,32.62,-14.25,-7.257,0,0,0,0,0,0,0,0,0,0,0,0,0,0,0,0,
795,291.4,209.0,177.3,117.0,79.73,49.26,24.16,50.86,13.9,34.97,-0.5295,27.15,10.14,34.33,10.21,2.993,0,0,0,0,0,0,0,0,0,0,0,0,0,0,0,0,
796,240.6,197.7,168.6,109.5,120.9,57.61,66.65,52.65,49.11,46.99,34.76,37.81,41.31,52.48,22.56,12.64,0,0,0,0,0,0,0,0,0,0,0,0,0,0,0,0,
797,201.6,201.9,144.7,141.4,131.0,71.51,71.34,19.49,65.69,57.09,20.45,23.68,23.09,34.23,-5.624,-9.23,0,0,0,0,0,0,0,0,0,0,0,0,0,0,0,0,
798,252.7,212.3,179.5,170.6,98.9,87.34,28.31,18.64,30.74,32.03,7.75,19.86,10.95,22.68,-1.533,-8.154,0,0,0,0,0,0,0,0,0,0,0,0,0,0,0,0,
799,265.4,230.4,219.9,124.1,101.2,79.2,-10.01,35.14,24.34,29.26,13.14,16.5,19.48,28.74,5.061,-4.207,0,0,0,0,0,0,0,0,0,0,0,0,0,0,0,0,
800,203.5,231.1,176.6,82.21,116.4,54.4,1.885,21.16,35.86,34.77,7.368,13.54,19.38,33.18,-0.8247,-3.556,0,0,0,0,0,0,0,0,0,0,0,0,0,0,0,0,
801,205.7,229.5,124.7,113.4,121.8,78.35,76.09,40.65,51.86,49.84,19.77,34.88,33.06,51.79,15.1,11.79,0,0,0,0,0,0,0,0,0,0,0,0,0,0,0,0,
802,217.8,212.8,129.6,102.6,102.8,79.92,104.2,67.55,59.89,66.31,20.8,24.2,24.52,43.07,9.047,-2.288,0,0,0,0,0,0,0,0,0,0,0,0,0,0,0,0,
803,187.3,166.0,184.7,88.27,73.45,43.26,42.15,43.32,34.25,43.27,7.606,6.704,4.376,22.89,-2.704,-10.14,0,0,0,0,0,0,0,0,0,0,0,0,0,0,0,0,
804,193.2,141.9,194.8,134.3,67.11,50.29,-6.703,0.5602,22.81,25.33,7.457,18.89,8.572,26.48,4.997,4.983,0,0,0,0,0,0,0,0,0,0,0,0,0,0,0,0,
805,156.5,146.3,91.94,114.2,70.01,49.27,9.265,-6.521,24.91,28.24,15.53,19.89,15.35,31.11,14.35,5.591,0,0,0,0,0,0,0,0,0,0,0,0,0,0,0,0,
806,81.44,150.9,56.08,63.44,77.88,26.57,41.83,38.63,29.7,38.06,42.06,16.44,27.69,36.44,23.68,4.189,0,0,0,0,0,0,0,0,0,0,0,0,0,0,0,0,
807,88.1,120.6,112.6,65.92,50.57,16.89,27.76,42.96,31.9,35.75,30.93,2.744,15.01,19.51,4.939,-7.848,0,0,0,0,0,0,0,0,0,0,0,0,0,0,0,0,
808,90.45,60.66,63.6,82.4,15.96,9.12,9.599,3.095,0.86,0.5171,-7.83,-2.391,-2.652,10.24,1.212,-1.947,0,0,0,0,0,0,0,0,0,0,0,0,0,0,0,0,
809,28.79,39.18,-2.996,92.43,47.5,17.43,28.82,10.09,13.16,5.137,7.333,17.72,24.93,37.7,29.14,20.03,0,0,0,0,0,0,0,0,0,0,0,0,0,0,0,0,
810,-23.5,24.22,41.26,17.19,36.88,-7.872,26.14,8.394,53.15,31.24,21.35,5.468,27.34,27.64,16.04,-4.971,0,0,0,0,0,0,0,0,0,0,0,0,0,0,0,0,
811,-56.51,-6.448,50.88,-75.34,-12.5,-55.45,28.14,-1.366,23.42,15.48,15.49,-2.123,10.64,13.64,6.326,-19.7,0,0,0,0,0,0,0,0,0,0,0,0,0,0,0,0,
812,-94.94,-8.377,-63.85,-12.5,14.27,-37.43,31.69,19.62,3.637,21.52,14.79,14.61,14.85,30.26,17.56,-8.175,0,0,0,0,0,0,0,0,0,0,0,0,0,0,0,0,
813,-128.0,-33.16,-135.2,67.69,11.91,-20.06,-19.53,2.645,9.334,19.78,-6.064,-1.363,-1.969,11.37,1.113,-18.71,0,0,0,0,0,0,0,0,0,0,0,0,0,0,0,0,
814,-115.0,-70.7,-36.66,26.81,-41.76,-44.71,-33.24,-9.714,-15.12,-18.12,-8.003,-19.35,-9.649,-10.16,-9.585,-20.2,0,0,0,0,0,0,0,0,0,0,0,0,0,0,0,0,
815,-100.6,-71.28,26.77,-32.19,-45.39,-57.19,-14.06,6.981,-18.02,-22.21,-5.293,-32.42,-7.689,-13.12,-19.82,-29.99,0,0,0,0,0,0,0,0,0,0,0,0,0,0,0,0,
816,-145.6,-88.73,-54.42,-47.83,-30.27,-60.04,-34.73,-8.631,-4.873,-21.65,-21.09,-39.64,-19.59,-19.01,-23.84,-44.87,0,0,0,0,0,0,0,0,0,0,0,0,0,0,0,0,
817,-161.5,-110.1,-87.49,-35.63,-25.0,-55.67,-27.68,-13.46,-4.103,-26.24,-12.23,-18.67,-13.22,-11.0,-8.515,-35.87,0,0,0,0,0,0,0,0,0,0,0,0,0,0,0,0,
818,-137.4,-107.5,-74.53,-32.63,-31.98,-53.17,-3.509,3.548,-11.68,-12.69,-13.14,-18.98,-14.97,-9.73,-24.46,-41.25,0,0,0,0,0,0,0,0,0,0,0,0,0,0,0,0,
819,-153.5,-110.9,-84.33,-43.56,-40.17,-56.5,6.43,6.213,-22.54,-8.096,-13.23,-28.13,-14.79,-6.945,-31.35,-36.84,0,0,0,0,0,0,0,0,0,0,0,0,0,0,0,0,
820,-165.8,-109.2,-58.96,-34.54,-32.77,-55.12,19.76,-12.9,-7.777,-4.676,6.484,-18.76,0.5807,2.205,-10.47,-20.82,0,0,0,0,0,0,0,0,0,0,0,0,0,0,0,0,
821,-155.8,-107.5,-66.32,-29.66,-49.92,-65.23,-9.382,-46.69,-9.403,-9.959,-15.32,-14.94,-18.32,-3.925,-16.5,-27.93,0,0,0,0,0,0,0,0,0,0,0,0,0,0,0,0,
822,-167.6,-128.7,-101.4,-37.41,-72.32,-64.15,-62.47,-37.68,-41.95,-18.74,-40.31,-10.09,-38.04,-4.627,-28.28,-27.43,0,0,0,0,0,0,0,0,0,0,0,0,0,0,0,0,
823,-189.0,-168.1,-94.29,-40.49,-76.39,-59.37,-97.08,-9.521,-48.14,-22.8,-35.16,-28.11,-34.88,-20.37,-28.8,-31.21,0,0,0,0,0,0,0,0,0,0,0,0,0,0,0,0,
824,-195.9,-173.4,-111.3,-60.71,-73.25,-79.56,-82.44,-14.37,-38.67,-45.46,-26.87,-48.01,-25.1,-34.25,-12.59,-33.36,0,0,0,0,0,0,0,0,0,0,0,0,0,0,0,0,
825,-194.9,-115.1,-135.6,-95.76,-45.03,-82.32,7.001,-15.08,-20.11,-37.87,-8.218,-33.12,-7.197,-10.91,3.314,-18.12,0,0,0,0,0,0,0,0,0,0,0,0,0,0,0,0,
826,-201.8,-94.44,-114.9,-98.28,-44.02,-72.5,45.89,-22.19,-11.28,-14.38,-4.157,-35.53,-12.96,-9.382,-16.37,-24.71,0,0,0,0,0,0,0,0,0,0,0,0,0,0,0,0,
827,-172.4,-129.0,-81.3,-60.58,-75.08,-74.44,-22.52,-38.89,-33.31,-29.75,-12.17,-42.65,-20.79,-18.67,-20.84,-27.36,0,0,0,0,0,0,0,0,0,0,0,0,0,0,0,0,
828,-118.1,-131.1,-64.02,-64.67,-73.92,-75.71,-72.11,-35.8,-35.49,-32.07,-15.81,-37.14,-15.43,-12.55,-13.15,-22.86,0,0,0,0,0,0,0,0,0,0,0,0,0,0,0,0,
829,-147.1,-126.8,-93.81,-85.56,-64.33,-73.52,-53.85,-21.2,-31.97,-24.91,-23.66,-38.58,-27.03,-17.48,-25.63,-29.82,0,0,0,0,0,0,0,0,0,0,0,0,0,0,0,0,
830,-195.9,-123.2,-123.6,-23.85,-51.58,-48.28,-12.54,0.7063,-34.91,-23.91,-15.43,-21.04,-27.83,-10.26,-18.73,-16.78,0,0,0,0,0,0,0,0,0,0,0,0,0,0,0,0,
831,-167.1,-109.7,-86.56,-6.536,-44.02,-36.53,-2.293,-13.49,-19.55,-15.71,-17.06,-16.48,-28.12,-11.39,-15.65,-11.13,0,0,0,0,0,0,0,0,0,0,0,0,0,0,0,0,
832,-144.8,-121.4,-42.05,-75.63,-66.52,-63.64,-16.51,-43.53,-28.86,-32.83,-27.91,-26.94,-38.0,-24.96,-20.47,-12.95,0,0,0,0,0,0,0,0,0,0,0,0,0,0,0,0,
833,-164.6,-122.0,-79.61,-68.58,-77.8,-69.82,-14.06,-26.61,-49.87,-39.47,-20.47,-21.87,-34.41,-19.63,-9.581,-6.008,0,0,0,0,0,0,0,0,0,0,0,0,0,0,0,0,
834,-177.8,-117.5,-157.7,-54.23,-81.21,-67.94,-27.65,-27.31,-53.68,-31.39,-27.09,-36.78,-38.57,-28.55,-11.0,-17.02,0,0,0,0,0,0,0,0,0,0,0,0,0,0,0,0,
835,-160.2,-123.8,-127.9,-94.73,-76.91,-74.74,-47.91,-46.88,-51.2,-41.16,-21.5,-40.63,-30.69,-30.01,-12.07,-16.9,0,0,0,0,0,0,0,0,0,0,0,0,0,0,0,0,
836,-129.4,-102.9,-37.14,-68.93,-61.02,-63.89,-48.09,-38.74,-37.76,-27.72,-15.64,-30.2,-28.35,-20.15,-27.32,-20.55,0,0,0,0,0,0,0,0,0,0,0,0,0,0,0,0,
837,-128.0,-99.79,-48.78,-22.5,-71.85,-56.55,-59.29,-34.75,-50.79,-24.49,-41.83,-41.67,-53.72,-33.99,-47.55,-35.06,0,0,0,0,0,0,0,0,0,0,0,0,0,0,0,0,
838,-129.2,-114.5,-75.05,-41.93,-69.58,-53.32,-59.45,-17.37,-59.71,-43.06,-27.8,-30.71,-36.5,-26.98,-21.48,-13.63,0,0,0,0,0,0,0,0,0,0,0,0,0,0,0,0,
839,-124.1,-99.12,-46.27,-76.24,-60.22,-54.24,-33.51,-6.22,-28.58,-28.96,-4.358,-17.9,-14.33,-10.39,-9.042,-5.657,0,0,0,0,0,0,0,0,0,0,0,0,0,0,0,0,
840,-124.9,-86.26,-57.81,-62.22,-71.0,-49.74,5.674,-19.61,-23.4,-10.2,-2.648,-17.2,-17.74,-3.391,-11.7,-7.404,0,0,0,0,0,0,0,0,0,0,0,0,0,0,0,0,
841,-101.1,-91.52,-99.07,-10.86,-47.97,-27.28,15.46,-5.763,-19.64,-0.584,19.62,-5.876,0.0252,7.135,5.371,10.97,0,0,0,0,0,0,0,0,0,0,0,0,0,0,0,0,
842,-108.4,-101.4,-120.9,3.895,-38.51,-34.51,-46.07,1.236,-15.8,-12.91,2.369,-19.88,-11.95,-9.553,-8.919,0.0943,0,0,0,0,0,0,0,0,0,0,0,0,0,0,0,0,
843,-127.9,-79.36,-97.23,-11.38,-53.22,-38.27,-54.2,-4.393,-50.09,-34.46,-26.25,-18.37,-31.65,-7.761,-18.34,-1.085,0,0,0,0,0,0,0,0,0,0,0,0,0,0,0,0,
844,-86.89,-40.8,-46.53,-13.9,-28.57,-14.53,13.19,-0.8516,-45.0,-4.952,-13.07,3.252,-15.95,16.0,-9.0,14.03,0,0,0,0,0,0,0,0,0,0,0,0,0,0,0,0,
845,-94.26,-62.57,-31.27,-4.2,-11.45,-18.14,10.85,-9.861,-18.09,10.33,-12.12,-7.558,-11.45,6.12,-13.16,7.736,0,0,0,0,0,0,0,0,0,0,0,0,0,0,0,0,
846,-133.3,-71.51,-35.6,16.03,-7.424,-6.106,-0.1759,12.9,-11.61,-5.775,4.205,-4.281,4.601,10.92,3.402,16.07,0,0,0,0,0,0,0,0,0,0,0,0,0,0,0,0,
847,-86.79,-29.63,-68.13,-15.44,-15.72,5.563,16.62,33.15,1.9,7.647,15.18,-3.871,7.568,14.16,0.8209,9.98,0,0,0,0,0,0,0,0,0,0,0,0,0,0,0,0,
848,-48.98,-42.25,-84.45,-57.33,-50.87,-26.19,-40.21,-1.078,-21.64,2.371,-15.69,-22.23,-21.47,-5.241,-21.95,-6.038,0,0,0,0,0,0,0,0,0,0,0,0,0,0,0,0,
849,-71.06,-74.36,-28.74,-13.16,-36.6,-20.99,-95.72,-24.19,-35.85,-5.781,-7.384,-7.242,-7.105,10.81,-8.29,8.274,0,0,0,0,0,0,0,0,0,0,0,0,0,0,0,0,
850,-83.37,-63.08,-48.35,5.62,-5.583,-3.005,-48.32,-29.4,3.592,14.18,14.08,-1.585,9.909,23.88,-3.779,5.511,0,0,0,0,0,0,0,0,0,0,0,0,0,0,0,0,
851,-63.0,-38.16,-76.8,-16.52,-12.97,-9.316,42.91,-5.77,9.104,15.72,1.337,-12.21,-4.537,17.74,-11.51,3.03,0,0,0,0,0,0,0,0,0,0,0,0,0,0,0,0,
852,-43.71,-22.19,23.48,15.71,-9.656,3.726,41.39,37.24,-10.34,16.26,-4.024,-6.546,-7.444,21.11,-10.62,15.46,0,0,0,0,0,0,0,0,0,0,0,0,0,0,0,0,
