%OpenBCI Raw EXG Data
%Number of channels = 16
%Sample Rate = 125 Hz
%Board = OpenBCI_GUI$BoardCytonSerialDaisy
Sample Index,EXG Channel 0,EXG Channel 1,EXG Channel 2,EXG Channel 3,EXG Channel 4,EXG Channel 5,EXG Channel 6,EXG Channel 7,EXG Channel 8,EXG Channel 9,EXG Channel 10,EXG Channel 11,EXG Channel 12,EXG Channel 13,EXG Channel 14,EXG Channel 15,Accel Channel 0,Accel Channel 1,Accel Channel 2,Other,Other,Other,Other,Other,Other,Other,Analog Channel 0,Analog Channel 1,Analog Channel 2,Timestamp,Other,Timestamp (Formatted),Annotations
1,0,0,0,-0,0,0,0,-0,0,0,0,-0,-0,0,-0,-0,0,0,0,0,0,0,0,0,0,0,0,0,0,0,0,0,T0
2,-114.2,-107,2.73,-58.55,33.42,-13.2,3.862,-0.3331,39.99,86.34,65.16,83.55,106.7,126.3,140,147.1,0,0,0,0,0,0,0,0,0,0,0,0,0,0,0,0,
3,-35.42,-27.02,36.78,-8.832,105.9,-0.9342,9.178,42.75,12.74,69.85,-0.5012,29.72,62.28,76.16,59.57,69.59,0,0,0,0,0,0,0,0,0,0,0,0,0,0,0,0,
4,-71.11,-33.23,-15.78,-7.134,73.77,-23.98,-8.075,-1.607,14.74,35.82,-10.64,11.97,63.89,78.52,62.94,75.6,0,0,0,0,0,0,0,0,0,0,0,0,0,0,0,0,
5,-113.4,-58.18,-11.39,-22.99,58.39,-22.16,3.733,-44.16,59.63,70.77,49.09,56.11,100.8,109.8,120.6,128.2,0,0,0,0,0,0,0,0,0,0,0,0,0,0,0,0,
6,-40.03,-18.39,50.25,-14.88,90.73,-0.6594,20.6,12.35,17.08,82.05,31.68,39.93,59.61,53.96,71.03,69.85,0,0,0,0,0,0,0,0,0,0,0,0,0,0,0,0,
7,-48.31,-41.87,14.01,-26.03,43.33,4.71,23.68,52.61,-50.56,73.83,32.62,47.47,69.97,72.47,91.4,88.17,0,0,0,0,0,0,0,0,0,0,0,0,0,0,0,0,
8,-45.8,-25.08,-10.16,-6.931,35.48,29.77,39.92,23.8,-19.64,102.8,67.1,82.02,98.89,111.3,123.2,122.5,0,0,0,0,0,0,0,0,0,0,0,0,0,0,0,0,
9,-17.88,-6.889,0.2437,-4.292,85.92,11.51,15.21,-9.188,50.88,76.14,25.28,47.23,51.87,63,61.58,71.85,0,0,0,0,0,0,0,0,0,0,0,0,0,0,0,0,
10,-62.68,-55.18,-4.46,-20.29,87.98,-23.68,-5.783,18.72,81.21,30.47,8.66,31.97,44.94,55.17,50.59,71.88,0,0,0,0,0,0,0,0,0,0,0,0,0,0,0,0,
11,-63.48,-43.75,6.25,-9.309,83.89,-7.866,6.515,35.46,18.53,57.32,30.34,47.55,62.17,66.05,59.66,81.72,0,0,0,0,0,0,0,0,0,0,0,0,0,0,0,0,
12,-54.48,-37.7,-16.65,-23.99,81.17,-12.16,-20.92,-14.26,-42.69,78.73,-3.61,22.98,47.62,53.18,44.51,68.7,0,0,0,0,0,0,0,0,0,0,0,0,0,0,0,0,
13,-93.99,-66.05,-43.58,-28.37,33.78,-27.47,-31.32,-15.26,22.51,57.25,-3.793,17.77,57.9,72.45,74.85,91.95,0,0,0,0,0,0,0,0,0,0,0,0,0,0,0,0,
14,-85.07,-52.45,-31.27,-26.08,-3.881,-14.79,-5.91,20.24,56.04,41.54,52.59,44.89,58.96,71.39,97.17,95.02,0,0,0,0,0,0,0,0,0,0,0,0,0,0,0,0,
15,-40.77,-50.68,-7.224,-49.03,56.51,-4.639,-4.232,12.11,13.79,65.65,58.27,56.12,50.06,65.8,83.71,87.9,0,0,0,0,0,0,0,0,0,0,0,0,0,0,0,0,
16,-31.78,-55.24,19.32,-27.67,114.3,-10.65,-1.298,14.39,33.35,103.7,5.839,35.21,58.73,83.1,64.57,92.55,0,0,0,0,0,0,0,0,0,0,0,0,0,0,0,0,
17,-65.4,-43.42,-7.196,-14.44,50.45,-25.57,6.977,25.98,45.65,92.98,-19.08,13.19,51.08,69.18,58.73,86.74,0,0,0,0,0,0,0,0,0,0,0,0,0,0,0,0,
18,-80.16,-44.61,-39.98,-47.8,15.13,-18.12,4.395,8.528,29.5,50.78,6.186,30.55,44.54,56.24,77.05,93.49,0,0,0,0,0,0,0,0,0,0,0,0,0,0,0,0,
19,-64.14,-59.62,-22.54,-57.17,47.46,-15.97,-15.48,-19.43,17.84,30.61,9.148,36.97,39.68,55.01,79.01,93.3,0,0,0,0,0,0,0,0,0,0,0,0,0,0,0,0,
20,-68.95,-74.89,-30.23,-41.64,39.18,-24.86,-27.24,-25.78,-43.24,54.62,9.828,37.88,48.11,60.81,84.31,100.6,0,0,0,0,0,0,0,0,0,0,0,0,0,0,0,0,
21,-51.97,-48.73,-20.86,-15.4,59.73,-3.896,-3.257,-11.18,-46.88,74.99,29.6,54.94,75.5,83.58,86.94,111.1,0,0,0,0,0,0,0,0,0,0,0,0,0,0,0,0,
22,-43.75,-29.94,15.36,-16.22,83.43,-18.5,-6.835,-7.446,36.56,45.67,9.909,27.68,64.99,84.78,57.42,83.96,0,0,0,0,0,0,0,0,0,0,0,0,0,0,0,0,
23,-81.46,-48.11,-2.599,-40.32,44.45,-36.9,-17.49,23.79,41.77,52.16,16.92,23.99,61.65,93.15,79.38,87.43,0,0,0,0,0,0,0,0,0,0,0,0,0,0,0,0,
24,-65.45,-31.33,-24.39,-33.55,27.13,-6.614,-2.076,55.06,-2.243,79.19,44.99,52.48,68.67,93.69,99.65,91.02,0,0,0,0,0,0,0,0,0,0,0,0,0,0,0,0,
25,-48.1,-39.52,-31.67,-31.06,29.8,-20.92,-23.94,11,20.53,53.91,27.08,31.25,40.29,62.96,66.5,58.55,0,0,0,0,0,0,0,0,0,0,0,0,0,0,0,0,
26,-66.49,-68.74,-37.91,-26.61,44.61,-27.23,-20.6,-18.55,32.24,67.96,35.66,37.05,49.95,79.1,81.84,78.03,0,0,0,0,0,0,0,0,0,0,0,0,0,0,0,0,
27,-44.12,-45.69,-28,-30.6,69,-1.399,8.094,-14.89,-19.82,83.98,17.9,45.58,57.55,84.21,80.41,85.8,0,0,0,0,0,0,0,0,0,0,0,0,0,0,0,0,
28,-48.03,-57.47,-25.34,-76.38,51.29,-29.04,-16.07,-9.456,-7.44,33.59,-29.83,12.94,29.14,51.44,50.12,61.93,0,0,0,0,0,0,0,0,0,0,0,0,0,0,0,0,
29,-69.92,-73.01,-12.55,-63.96,35.53,-35.63,-9.08,38.61,65.71,20.64,5.585,26.28,49.03,65.13,78.83,76.93,0,0,0,0,0,0,0,0,0,0,0,0,0,0,0,0,
30,-62.83,-40.95,-16.54,-25.33,31.74,-22.5,11.64,26.85,47.62,42.96,17.82,34.26,58.35,64.28,79.94,66.55,0,0,0,0,0,0,0,0,0,0,0,0,0,0,0,0,
31,-68.8,-51.73,-45.28,-42.61,23.91,-34.32,-17.54,-27.82,-26.77,61.23,4.601,31.93,38.97,46.25,63.52,53.52,0,0,0,0,0,0,0,0,0,0,0,0,0,0,0,0,
32,-38.71,-71.85,-39.11,-43.12,21.14,-19.69,-30.38,-6.69,-66.43,55.99,38.2,56,48.35,64.59,74.96,71.28,0,0,0,0,0,0,0,0,0,0,0,0,0,0,0,0,
33,-23.56,-67.5,-44.58,-40.34,2.786,-26.6,-31.64,-14.06,-42.85,9.692,9.246,25.02,50.78,72.11,60.69,68.76,0,0,0,0,0,0,0,0,0,0,0,0,0,0,0,0,
34,-77.2,-64.45,-39.41,-44.3,34.51,-46.52,-24.3,-27.7,44.95,28.59,-14.63,6.979,53.99,72.04,71.6,79.27,0,0,0,0,0,0,0,0,0,0,0,0,0,0,0,0,
35,-74.68,-48.68,6.174,-32,79.49,-29.81,-5.135,32.88,48.17,81.4,26.22,43.18,54.27,62.02,88.16,80.7,0,0,0,0,0,0,0,0,0,0,0,0,0,0,0,0,
36,-39.38,-49.51,-4.432,-44.86,49.2,-26.16,-13.39,28.26,-34.63,67.07,11.82,33.39,38.64,45.27,55.93,54.71,0,0,0,0,0,0,0,0,0,0,0,0,0,0,0,0,
37,-55.78,-55.13,-21.99,-40.32,50.19,-31,-18.85,-35.44,-28.65,48.98,-16.83,6.263,40.22,52.44,42.51,53.28,0,0,0,0,0,0,0,0,0,0,0,0,0,0,0,0,
38,-76.96,-53.82,-20.26,-27.67,51.09,-29.07,-19.89,-27.52,21.97,37.12,-4.705,10.3,40.46,52.14,55.46,59.63,0,0,0,0,0,0,0,0,0,0,0,0,0,0,0,0,
39,-63.85,-56.07,-57.3,-38.8,-6.575,-5.177,-12.53,18.62,43.55,40.66,10.35,33.46,51.71,63.48,72.74,77.08,0,0,0,0,0,0,0,0,0,0,0,0,0,0,0,0,
40,-32.17,-33.99,-50.74,-23.67,14.08,20.24,5.906,13.36,30.35,59.82,20.96,46.1,64.13,79.9,78.86,89.56,0,0,0,0,0,0,0,0,0,0,0,0,0,0,0,0,
41,-41.16,-38.42,-14.34,-29.62,68.11,-23.92,-19.59,-12.98,-2.381,32.94,14.45,29.61,47.63,66.93,65.93,76.32,0,0,0,0,0,0,0,0,0,0,0,0,0,0,0,0,
42,-65.79,-56.02,-17.36,-43.59,63.68,-54.9,-32.2,13.5,49.52,35.01,0.779,25.42,49.54,62.03,69.11,77.4,0,0,0,0,0,0,0,0,0,0,0,0,0,0,0,0,
43,-59.69,-39.75,-21.51,-27.24,56.59,-34.44,-13.98,18.88,74.42,54.21,-5.405,22.25,41.03,43.8,66.85,66.9,0,0,0,0,0,0,0,0,0,0,0,0,0,0,0,0,
44,-58.39,-56.17,-32.91,-55.64,39.52,-27.78,-22.4,-17.57,-19.78,21.13,16.08,28.78,31.5,46.88,65.9,64.63,0,0,0,0,0,0,0,0,0,0,0,0,0,0,0,0,
45,-28.81,-57.65,-43.29,-75.97,12.62,-8.319,-13.1,-11.75,-15.37,36.45,40.91,56.55,66.36,91.8,76.7,85.45,0,0,0,0,0,0,0,0,0,0,0,0,0,0,0,0,
46,-21.41,-27.35,-36.74,-55.28,12.39,-21.16,-10.32,-28.08,68.17,75.53,8.027,28.81,56.32,66.6,59.04,64.39,0,0,0,0,0,0,0,0,0,0,0,0,0,0,0,0,
47,-79.47,-46.41,-22.91,-51.24,38.98,-50.54,-22.03,-34.68,46.41,67.56,-2.181,12.7,33.84,40.17,61.72,60.81,0,0,0,0,0,0,0,0,0,0,0,0,0,0,0,0,
48,-54.17,-48.38,4.109,-25.87,63.63,-9.518,6.689,42.53,-8.288,67.51,21.97,46.45,59.6,74.41,69.83,78.13,0,0,0,0,0,0,0,0,0,0,0,0,0,0,0,0,
49,-7.581,-27.17,-1.735,-2.249,48.04,5.923,7.996,44.82,-5.915,67.79,-0.7879,33.23,58.56,70.54,45.52,56.27,0,0,0,0,0,0,0,0,0,0,0,0,0,0,0,0,
50,-40.39,-36.65,-24.55,-14.98,19.44,-9.601,-15.58,-30.22,1.796,50.51,1.857,33.64,49.17,58.1,59.86,55.22,0,0,0,0,0,0,0,0,0,0,0,0,0,0,0,0,
51,-25.23,-44.97,-30.66,-35.37,-1.824,5.724,-15.37,-29.99,-33.27,21.66,18.11,54.45,45.61,54.94,73.12,57.16,0,0,0,0,0,0,0,0,0,0,0,0,0,0,0,0,
52,-3.186,-54.84,-51.1,-56.9,-8.13,-1.771,-16.29,19.59,-15.76,11.45,2.576,28.97,39.27,50.47,58.94,49.22,0,0,0,0,0,0,0,0,0,0,0,0,0,0,0,0,
53,-44.66,-42.84,-46.55,-41.73,1.796,-13.06,-4.37,19.05,68.93,37.32,16.23,20.52,56.95,71.21,61.83,61.99,0,0,0,0,0,0,0,0,0,0,0,0,0,0,0,0,
54,-64.75,-26.45,-37.39,-30,-18.85,-27.82,-13.83,-50.81,37.63,29.61,8.258,20.15,46.24,56.8,45.15,47.13,0,0,0,0,0,0,0,0,0,0,0,0,0,0,0,0,
55,-61.49,-54.81,-52.28,-62.37,7.493,-57.27,-44.19,-55.62,-36.93,27.83,-16.17,7.428,26.91,35.57,40.7,43.08,0,0,0,0,0,0,0,0,0,0,0,0,0,0,0,0,
56,-64.54,-68.74,-31.24,-68.62,85.44,-55,-34.93,26.01,9.62,64.5,-0.5741,10.02,36.35,47.13,57.22,58.73,0,0,0,0,0,0,0,0,0,0,0,0,0,0,0,0,
57,-64.16,-62.15,-27.99,-58.95,66.03,-38.82,-22.14,19.52,67.12,54.88,7.523,14.95,37.69,42.08,47.42,46.5,0,0,0,0,0,0,0,0,0,0,0,0,0,0,0,0,
58,-30.61,-44.71,-44.59,-44.59,30.79,-9.431,-13.87,-26.8,78.62,32.79,14.79,32.35,45.31,42.26,45.69,49.83,0,0,0,0,0,0,0,0,0,0,0,0,0,0,0,0,
59,-6.712,-33.65,-23.2,-22.56,44.37,-7.25,-20.33,-15.18,42.14,14.71,-2.587,15.99,28.29,28.22,37.6,49.45,0,0,0,0,0,0,0,0,0,0,0,0,0,0,0,0,
60,-67.38,-80.16,-24.31,-36.06,37.05,-48.63,-41.56,-1.231,-33.85,1.638,-27.55,-14.92,11.54,16.09,41.18,54.54,0,0,0,0,0,0,0,0,0,0,0,0,0,0,0,0,
61,-86.21,-71.02,-25.14,-41.27,53.87,-23.33,-2.592,22.62,-27.14,46.68,22.54,27.12,61.06,61.93,86.58,97.63,0,0,0,0,0,0,0,0,0,0,0,0,0,0,0,0,
62,-15.07,-2.169,-1.794,-34.84,51.35,19.36,28.81,25.46,38.5,64.14,54.58,61.58,79.47,78.47,100.4,106.3,0,0,0,0,0,0,0,0,0,0,0,0,0,0,0,0,
63,10.41,-12.12,1.934,-36.09,44.18,10.97,8.93,-0.2413,81.95,50.03,49.69,61.25,59.98,63.45,97.9,100.2,0,0,0,0,0,0,0,0,0,0,0,0,0,0,0,0,
64,0.7179,-34.12,9.621,-16.84,99.57,6.679,8.491,-4.983,79.26,63.91,59.87,59.32,60.51,61.55,83.72,93.74,0,0,0,0,0,0,0,0,0,0,0,0,0,0,0,0,
65,-15.83,-31.68,-4.403,-26.15,65.96,-9.626,-0.2607,-20.65,-8.651,53.91,21.39,27.49,47.92,44.42,42.53,63.32,0,0,0,0,0,0,0,0,0,0,0,0,0,0,0,0,
66,-29.16,-35.53,-36.37,-36.74,-3.502,-5.095,-3.837,-7.464,-61.44,61.4,-0.4653,29.9,53.02,47.96,52.02,66.77,0,0,0,0,0,0,0,0,0,0,0,0,0,0,0,0,
67,-11.89,-18.4,-37.94,-25.14,30.17,11.54,1.841,11.48,-6.302,62.14,28.37,46.5,56.72,49.83,70.27,71.1,0,0,0,0,0,0,0,0,0,0,0,0,0,0,0,0,
68,-24.31,-22.53,-27.1,-48.79,48.52,-14.38,-15.87,-16.08,46.28,14.74,25.06,30.79,45.75,50.22,67.97,69.88,0,0,0,0,0,0,0,0,0,0,0,0,0,0,0,0,
69,-23.26,-22.35,1.22,-35.68,44.31,0.5323,9.174,26.1,54.12,37.51,13.05,47.08,69.32,84,85.73,93.98,0,0,0,0,0,0,0,0,0,0,0,0,0,0,0,0,
70,1.196,-5.021,0.0175,-7.822,43.78,15.22,25.79,61.45,24.09,65.57,3.333,44.72,60.87,63.34,68.13,75.21,0,0,0,0,0,0,0,0,0,0,0,0,0,0,0,0,
71,-33.63,-26.38,-25.8,-40.65,24.61,-18.37,-7.818,-9.711,14.24,21.09,5.728,21.11,32.94,27.99,47.61,56.41,0,0,0,0,0,0,0,0,0,0,0,0,0,0,0,0,
72,-42.6,-32.31,3.912,-46.04,45.05,-12.04,-8.784,-34.52,40.34,13.09,18.88,31.21,36.55,38.69,54.56,65.77,0,0,0,0,0,0,0,0,0,0,0,0,0,0,0,0,
73,-23.87,-34.94,-2.068,-35.01,46.22,-9.773,-10.16,-5.599,15.01,37.59,-0.0698,21.74,26.09,35.05,47.43,54.33,0,0,0,0,0,0,0,0,0,0,0,0,0,0,0,0,
74,-38.34,-45.12,-32.81,-34.9,33.84,-13.97,-4.926,15.31,-13.16,55.3,9.857,24.06,40.98,59.85,63.58,67.43,0,0,0,0,0,0,0,0,0,0,0,0,0,0,0,0,
75,-25.37,-9.168,3.818,-15.65,70.53,5.889,23.9,33.59,-13.74,58.64,29.25,36.44,57.27,79.04,68,69.32,0,0,0,0,0,0,0,0,0,0,0,0,0,0,0,0,
76,-33.08,-15.1,-10.82,-31.21,48.15,-20.06,-6.624,-2.34,-11.31,33.54,6.833,9.645,17.29,33.29,46.21,38.51,0,0,0,0,0,0,0,0,0,0,0,0,0,0,0,0,
77,-65.96,-63.22,-63.76,-49.22,1.638,-39.01,-40.18,-36.17,62.65,19.97,13.56,9.344,0.1494,22.98,57.93,43.39,0,0,0,0,0,0,0,0,0,0,0,0,0,0,0,0,
78,-49.92,-59.29,-44.06,-40.13,28.98,-17.36,-20.03,-16.69,101.7,22.74,21.88,28.11,21.74,54.71,65.31,54.61,0,0,0,0,0,0,0,0,0,0,0,0,0,0,0,0,
79,-29.39,-26.93,-7.478,-41.12,40.51,-5.628,-2.345,-6.116,14.66,42.71,22.94,41.51,50.1,77.18,73.68,64.33,0,0,0,0,0,0,0,0,0,0,0,0,0,0,0,0,
80,-15,-0.0015,1.29,-27.56,12.42,-0.1298,-5.709,-5.489,-38.37,51.15,52.72,57.01,56.76,70.76,87,69.41,0,0,0,0,0,0,0,0,0,0,0,0,0,0,0,0,
81,-15.28,-13.44,-22.04,-25.6,14.58,-13.41,-16,6.737,-26.15,26,41.02,37.87,27.58,33.59,69.04,53.1,0,0,0,0,0,0,0,0,0,0,0,0,0,0,0,0,
82,-40.8,-37.26,-41.78,-38.25,32.89,-23.53,-4.495,16.33,-47.93,40.3,4.037,22.43,25.78,33.48,60.73,58.17,0,0,0,0,0,0,0,0,0,0,0,0,0,0,0,0,
83,-45.24,-27.82,-30.7,-37.55,9.716,-29.33,-8.294,-11.51,-66.5,29.82,-11.02,17.78,29.8,48.06,49.87,50.86,0,0,0,0,0,0,0,0,0,0,0,0,0,0,0,0,
84,-50.32,-38.8,-33.18,-48.57,-2.112,-40.38,-31.49,-38.86,14.77,-19.54,-6.592,7.699,23.85,43.37,42.72,37.55,0,0,0,0,0,0,0,0,0,0,0,0,0,0,0,0,
85,-48.46,-31.08,-30.1,-42.4,46.35,-12.32,-2.552,-5.311,111.3,20.55,14.48,21.4,43.44,46.24,61.2,53.51,0,0,0,0,0,0,0,0,0,0,0,0,0,0,0,0,
86,-33.97,-5.746,-32.12,-43.51,42.57,-14.64,0.9884,-2.418,51.87,43,0.8134,17.77,34.09,27.81,49.54,47.24,0,0,0,0,0,0,0,0,0,0,0,0,0,0,0,0,
87,-38.32,-25.16,-52.64,-60.27,7.635,-38.35,-30.08,-21.56,-41.24,13.95,-4.554,20.6,34.04,33.76,50.86,57.51,0,0,0,0,0,0,0,0,0,0,0,0,0,0,0,0,
88,-21.09,-16.4,-30.12,-23.34,38.54,-1.337,-2.078,24.45,-30.04,50.47,19.5,39.57,57.55,58.84,63.4,72.9,0,0,0,0,0,0,0,0,0,0,0,0,0,0,0,0,
89,-25.57,-12.38,-12.5,-5.606,45.88,-1.557,7.558,29.46,-40.26,51.83,-0.9624,7.206,22.65,27.3,31.04,38.2,0,0,0,0,0,0,0,0,0,0,0,0,0,0,0,0,
90,-61.84,-48.59,-13.11,-26.64,32.54,-27.71,-11.82,-10.02,-59.38,-7.487,-7.686,-4.117,7.098,18.7,28.02,32.8,0,0,0,0,0,0,0,0,0,0,0,0,0,0,0,0,
91,-43.6,-36.56,3.149,-24.81,36.96,-10.93,-7.503,-9.402,-17.74,-31.73,1.391,15.72,28.38,34.23,42.54,40.88,0,0,0,0,0,0,0,0,0,0,0,0,0,0,0,0,
92,-24.64,-28.13,-18.5,-38.48,4.553,-10.61,-13.96,-20.55,12.62,-14.7,-10.39,11.57,21.67,19.11,45.74,34.3,0,0,0,0,0,0,0,0,0,0,0,0,0,0,0,0,
93,-26.15,-42.69,-29.93,-35.43,-13.55,-7.642,-6.971,-29.61,24.71,34.58,14.58,25.58,27.21,25.08,68.56,53.52,0,0,0,0,0,0,0,0,0,0,0,0,0,0,0,0,
94,-23.94,-33.2,-5.454,-13.97,-6.977,-8.087,-2.002,-7.022,12.87,49.02,14.75,22.47,28.05,29.23,55.47,49.6,0,0,0,0,0,0,0,0,0,0,0,0,0,0,0,0,
95,-36.24,-32.71,-10.25,-27.13,7.984,-17.16,-11.64,3.721,-14.34,22.23,-6.375,13.26,27.16,25.43,35.69,39.52,0,0,0,0,0,0,0,0,0,0,0,0,0,0,0,0,
96,-10.94,-20.66,-17.1,-29.73,48.99,4.177,2.191,-7.589,-4.526,10.96,13.14,33.39,44.59,29.85,45.08,42.26,0,0,0,0,0,0,0,0,0,0,0,0,0,0,0,0,
97,-7.291,-9.329,-23.77,-32.5,48.3,-10.43,-3.768,-16.2,10.52,11.92,0.1386,16.18,36.19,17.46,43.02,28.17,0,0,0,0,0,0,0,0,0,0,0,0,0,0,0,0,
98,-56.16,-14.38,-21.87,-34.55,43.26,-21.88,-6.523,7.884,11.7,53.87,3.583,17.11,37.76,24.68,59.48,38.37,0,0,0,0,0,0,0,0,0,0,0,0,0,0,0,0,
99,-33.2,1.534,1.327,-13.02,59.04,10.54,9.139,13.82,-9.041,62.19,54.1,58.09,42.59,23.15,66.2,40.71,0,0,0,0,0,0,0,0,0,0,0,0,0,0,0,0,
100,9.332,-6.012,-9.685,-23.73,14.51,1.971,-2.442,-3.764,-32.59,-5.816,44.4,54.85,26.26,6.341,46.88,29.7,0,0,0,0,0,0,0,0,0,0,0,0,0,0,0,0,
101,-1.627,-21.33,-11.89,-35.98,-14.09,-2.121,7.123,13.11,3.465,-12.3,0.5851,29.14,35.96,28.09,41.99,48.86,0,0,0,0,0,0,0,0,0,0,0,0,0,0,0,0,
102,-25.69,-8.693,7.086,-26.61,12.2,6.965,11.9,-18.68,44.18,12.7,-16.3,5.817,38.7,29.11,25,48.13,0,0,0,0,0,0,0,0,0,0,0,0,0,0,0,0,
103,-48.89,-0.635,0.8055,-15.51,30.55,-5.347,-6.657,-56.28,63.95,18.01,6.081,15.7,41.89,26.78,35.21,52.67,0,0,0,0,0,0,0,0,0,0,0,0,0,0,0,0,
104,-16.76,20.37,7.11,14.15,44.35,21.77,17.03,13.6,68.88,47.99,41.37,53.74,64.44,51.63,60.6,67.79,0,0,0,0,0,0,0,0,0,0,0,0,0,0,0,0,
105,26.66,21.2,1.775,1.477,42.99,36.08,23.93,43.04,4.451,43.66,32.25,41.08,50.97,34.51,31.94,46.8,0,0,0,0,0,0,0,0,0,0,0,0,0,0,0,0,
106,1.684,-2.524,-13.83,-32.77,45.37,6.442,4.896,-9.544,-10.59,46.73,14.6,22.33,40.11,20.3,24.94,50.84,0,0,0,0,0,0,0,0,0,0,0,0,0,0,0,0,
107,-20.85,3.987,-2.796,-20.59,27.37,-6.822,9.075,-25.64,66.14,77.32,2.522,25.29,43.87,32.07,44.06,64.5,0,0,0,0,0,0,0,0,0,0,0,0,0,0,0,0,
108,-23.52,-3.245,-13.66,-21.98,-24.94,-13.75,1.505,-9.729,49.73,35.94,-6.539,13.3,32.68,30.38,37.33,52.05,0,0,0,0,0,0,0,0,0,0,0,0,0,0,0,0,
109,-35.81,-19.24,-16.37,-33.95,11.19,-23.02,-11.12,6.349,-32.62,-13.43,12.69,8.762,24.33,21.8,28.97,44.11,0,0,0,0,0,0,0,0,0,0,0,0,0,0,0,0,
110,-52.96,-29.51,-2.893,-39.53,69.78,-39.62,-24.49,-10.39,-44.06,-9.203,6.986,-2.081,2.502,-3.449,14.58,29.89,0,0,0,0,0,0,0,0,0,0,0,0,0,0,0,0,
111,-57.43,-44.6,-12.26,-45.27,41.2,-30.67,-22.64,-13.14,-12.57,22.95,6.746,7.614,10.22,4.614,24.8,44.52,0,0,0,0,0,0,0,0,0,0,0,0,0,0,0,0,
112,-13.38,-9.567,-4.845,-15.41,30.04,9.769,1.822,32.13,14.99,52.21,34.18,42.02,42.88,32.22,47.15,63.41,0,0,0,0,0,0,0,0,0,0,0,0,0,0,0,0,
113,7.441,10.77,-18.21,-9.86,39.24,-5.382,-13.52,-9.234,21,20.62,12.15,28.11,27.77,12.99,33.4,38.58,0,0,0,0,0,0,0,0,0,0,0,0,0,0,0,0,
114,-26.8,-11.15,-50.5,-39.83,22.03,-26.3,-16.97,-90.29,-7.623,-5.319,-2.245,12.96,26.7,21.67,28.67,38.32,0,0,0,0,0,0,0,0,0,0,0,0,0,0,0,0,
115,-36.3,1.455,-35.81,-49.41,2.232,-10.46,3.854,-65.85,-32.86,7.046,0.9182,11.78,31.08,33.04,17.92,37.98,0,0,0,0,0,0,0,0,0,0,0,0,0,0,0,0,
116,-38.8,-15.38,-21.21,-59.42,-7.568,-26.99,-25.75,-11.46,-3.53,-11,-27.63,-7.635,-2.957,-5.634,1.334,20.53,0,0,0,0,0,0,0,0,0,0,0,0,0,0,0,0,
117,-43.52,-48.07,-14.21,-44.64,29.95,-35.25,-31.98,13.19,13.08,2.414,-20.04,0.8628,0.7436,-5.64,19.95,33.64,0,0,0,0,0,0,0,0,0,0,0,0,0,0,0,0,
118,-32.88,-25.85,-17.58,-16.7,48.95,-18.6,-3.675,9.399,-44.27,50.44,1.641,12.86,20.02,7.776,21.69,28.09,0,0,0,0,0,0,0,0,0,0,0,0,0,0,0,0,
119,-18.2,-12.59,-44.2,-18.74,10.03,-3.667,-5.641,-27.56,-41.1,47.84,0.5254,15.87,19.5,-4.566,15.47,20.48,0,0,0,0,0,0,0,0,0,0,0,0,0,0,0,0,
120,4.133,-13.58,-23.32,-20.32,9.636,-1.241,-15.26,-37.39,31.28,22.07,0.9068,19.28,22.48,-2.466,14.56,32.25,0,0,0,0,0,0,0,0,0,0,0,0,0,0,0,0,
121,-22.77,-14.16,5.738,-38.77,30.33,-43.13,-31.9,-10.35,20.75,5.647,-11,1.089,14.77,0.662,2.647,24,0,0,0,0,0,0,0,0,0,0,0,0,0,0,0,0,
122,-53.4,-23.14,-16.76,-52.7,40.76,-48.89,-30.47,-5.262,-18.31,-6.995,-4.363,6.058,10.99,-3.646,19.49,21.12,0,0,0,0,0,0,0,0,0,0,0,0,0,0,0,0,
123,-24.75,-23.76,-41.56,-36.4,49.01,-15.11,-10.26,-24.56,-12.75,-10.42,8.367,10.33,5.009,-14.42,20.12,11.36,0,0,0,0,0,0,0,0,0,0,0,0,0,0,0,0,
124,-30.21,-22.58,-35.05,-34.43,26.34,-14.18,-6.803,-2.469,-8.52,8.892,14.99,8.958,12.58,1.097,8.412,13.49,0,0,0,0,0,0,0,0,0,0,0,0,0,0,0,0,
125,-14.71,1.455,5.489,-22.79,20.46,12.59,4.688,16.88,-22.3,16.69,42.04,51.84,44.38,33.15,37.42,49.56,0,0,0,0,0,0,0,0,0,0,0,0,0,0,0,0,
126,35.84,6.547,10.55,-26.97,33.14,13.97,-8.47,-49.02,-31.73,-19.68,22.48,47.8,35.49,16.08,40.69,51.59,0,0,0,0,0,0,0,0,0,0,0,0,0,0,0,0,
127,-7.893,-17.61,-22.77,-45.44,26.18,-22.03,-18.89,-50.7,42.97,-5.462,-7.59,14.47,39.9,22.44,30.78,53.83,0,0,0,0,0,0,0,0,0,0,0,0,0,0,0,0,
128,-38.03,17.4,-5.717,-0.2508,25.07,9.372,19.57,27.83,117.9,40.9,4.333,26.01,64.56,45.74,26.63,58.3,0,0,0,0,0,0,0,0,0,0,0,0,0,0,0,0,
129,-9.11,21.72,9.457,15.51,25.84,13.61,6.886,-2.624,31.8,24.63,-8.943,9.152,24.05,2.136,-1.177,19.39,0,0,0,0,0,0,0,0,0,0,0,0,0,0,0,0,
130,-21.76,-28.48,-1.661,-19.06,36.59,-18.53,-16.61,-37.43,-63.3,39.51,-2.636,-0.8257,8.318,-11.31,8.141,12.98,0,0,0,0,0,0,0,0,0,0,0,0,0,0,0,0,
131,-23.41,-10.23,-9.176,-12.77,24.43,-1.508,7.2,0.3328,-37.33,50.42,10.42,15.78,28.82,1.286,17.65,17.56,0,0,0,0,0,0,0,0,0,0,0,0,0,0,0,0,
132,-18.5,-6.897,-39.75,-23.22,-26.75,-13.97,-12.71,-2.185,5.831,-20.55,-28.5,-4.869,11.42,-18.78,-7.55,-1.052,0,0,0,0,0,0,0,0,0,0,0,0,0,0,0,0,
133,-40.04,-41.45,-32.39,-45.4,-11.32,-39.76,-32.62,5.096,-3.183,-30.11,-25.6,-8.881,13.08,-7.696,7.018,12.04,0,0,0,0,0,0,0,0,0,0,0,0,0,0,0,0,
134,-41.66,-25.94,-8.565,-33.22,43.66,-27.04,-20.23,8.386,-48.4,3.604,14.99,16.89,23.84,-0.2719,35.07,25.83,0,0,0,0,0,0,0,0,0,0,0,0,0,0,0,0,
135,-21.08,-15.2,-29.78,-29.72,54.77,-14.75,-28.06,-35.44,-18.37,-10.76,35.02,36.18,19.85,-3.666,41.98,34.57,0,0,0,0,0,0,0,0,0,0,0,0,0,0,0,0,
136,5.303,-25.6,-22.76,-32.78,34.49,-12.12,-24.54,-41.98,63.28,7.564,32.26,27,16.65,13.75,28.85,37.97,0,0,0,0,0,0,0,0,0,0,0,0,0,0,0,0,
137,-18.08,-31.39,-10.64,-30.36,-3.379,-26.94,-8.978,-30.73,46.01,60.75,1.531,-8.313,1.02,9.164,12.08,22.62,0,0,0,0,0,0,0,0,0,0,0,0,0,0,0,0,
138,-54.96,-25.47,-8.627,-15.94,20.48,-21.71,-1.558,-13.87,10.9,62.23,7.952,8.627,11.09,14.35,31.63,32.53,0,0,0,0,0,0,0,0,0,0,0,0,0,0,0,0,
139,-20.11,-12.5,13.11,-14.09,70.09,-2.469,-14.21,14.3,14.64,-10.3,24.45,30.36,16.38,16.94,24.79,25.95,0,0,0,0,0,0,0,0,0,0,0,0,0,0,0,0,
140,-3.472,-35.92,-8.115,-36.66,40.76,-9.861,-32.47,6.409,19.88,-53.3,-3.554,3.615,-2.149,-6.408,-2.428,8.47,0,0,0,0,0,0,0,0,0,0,0,0,0,0,0,0,
141,-16.02,-34.57,-24.39,-15.99,21.9,11.55,-5.517,-4.589,60.21,-8.317,-7.587,9.595,19.09,7.703,15.51,30.23,0,0,0,0,0,0,0,0,0,0,0,0,0,0,0,0,
142,-6.694,4.63,-8.552,-6.284,17.36,18.33,5.141,-15.11,26.33,16.19,-6.829,10.03,24.9,19.95,13.7,21.45,0,0,0,0,0,0,0,0,0,0,0,0,0,0,0,0,
143,-27.19,-7.049,-13.08,-36.56,2.202,-18.06,-13.04,-9.788,-58.87,29.55,-10.75,-12.78,0.7163,4.25,-0.5148,2.724,0,0,0,0,0,0,0,0,0,0,0,0,0,0,0,0,
144,-37.12,-23.63,8.535,-14.48,49.66,-15.97,-0.0281,30.61,-11.03,50.76,9.786,-7.349,-1.502,-2.032,5.85,10.16,0,0,0,0,0,0,0,0,0,0,0,0,0,0,0,0,
145,-30.51,-21.77,21.73,1.124,68.28,-13.02,-6.537,13.01,62.59,12.38,5.048,-11.44,-8.645,-5.8,3.321,-0.0745,0,0,0,0,0,0,0,0,0,0,0,0,0,0,0,0,
146,-40.11,-28.48,2.449,-7.942,36.49,-14.25,-8.942,-24.05,37.07,13.48,4.461,-2.628,-6.873,7.801,16.69,-0.5181,0,0,0,0,0,0,0,0,0,0,0,0,0,0,0,0,
147,-17.59,-20.19,7.897,11.93,37.51,-0.1268,13.57,-9.152,-5.854,32.89,12.88,14.51,-2.978,15.44,14.05,-1.859,0,0,0,0,0,0,0,0,0,0,0,0,0,0,0,0,
148,-8.352,-24.1,-1.771,0.1741,15.22,-16.3,-3.3,1.366,4.079,-20.35,-12.29,-8.932,-19.86,0.3927,-9.972,-14.85,0,0,0,0,0,0,0,0,0,0,0,0,0,0,0,0,
149,-29.47,-38.85,-20.06,-26.2,-30.3,-21.71,-17.45,7.322,14.89,-13.96,-32.65,-31.83,-32.97,-14.26,-7.175,-16.43,0,0,0,0,0,0,0,0,0,0,0,0,0,0,0,0,
150,-45.01,-60.91,-32.51,-42.24,-43.25,-32.76,-28.24,-6.988,-63.77,18.39,-41.48,-43.72,-48.31,-29.45,-9.198,-25.62,0,0,0,0,0,0,0,0,0,0,0,0,0,0,0,0,
151,-64.32,-78.87,-51.81,-51.67,-4.194,-56.18,-45.24,-28.28,-88.34,-16.37,-20.34,-25.95,-28.23,-0.8694,-3.718,-8.451,0,0,0,0,0,0,0,0,0,0,0,0,0,0,0,0,
152,-32.03,-33.39,-13.05,-14.87,53.11,-19.9,-16.2,1.156,28.84,-1.447,1.726,5.062,7.859,23.03,-0.0813,5.333,0,0,0,0,0,0,0,0,0,0,0,0,0,0,0,0,
153,7.023,-5.129,37.24,-0.0312,39.58,-0.0053,0.3263,10.96,82.73,58.78,-37.36,-16.98,-4.29,-13.33,-19.87,-19.22,0,0,0,0,0,0,0,0,0,0,0,0,0,0,0,0,
154,-23.47,-26.97,25.13,-9.632,11.95,-22.12,-9.094,-15.18,61.42,63.69,-38.39,-25.25,-2.845,-7.272,-4.314,-9.622,0,0,0,0,0,0,0,0,0,0,0,0,0,0,0,0,
155,-39.23,-18.96,-10.86,12.69,8.71,-19.45,-3.36,-18.91,36.17,15.89,-4.079,-9.264,0.1533,11.79,1.438,-6.674,0,0,0,0,0,0,0,0,0,0,0,0,0,0,0,0,
156,-25.09,-20.29,-30.36,7.182,-17.44,-11.14,3.118,9.665,-16.44,-6.239,-18.3,-18.21,-19.52,-5.33,-15.44,-22.66,0,0,0,0,0,0,0,0,0,0,0,0,0,0,0,0,
157,-20.16,-22.57,-6.995,-10.5,12.06,-0.0031,17.2,37.58,4.155,20.26,-13.06,-11.68,-7.799,4.987,-0.2512,-5.215,0,0,0,0,0,0,0,0,0,0,0,0,0,0,0,0,
158,-26.64,-15.38,-7.686,-27.82,55.24,-12.54,-5.199,-25.91,27.9,3.549,1.608,-13.64,-16.29,-5.147,-2.398,-8.034,0,0,0,0,0,0,0,0,0,0,0,0,0,0,0,0,
159,-43.21,-42.56,-37.81,-53.74,29.06,-38.9,-42.46,-86.12,-49.68,-18.88,-5.771,-16.46,-25.59,-15.75,4.29,2.291,0,0,0,0,0,0,0,0,0,0,0,0,0,0,0,0,
160,-29.55,-28.28,8.434,-21.44,18.63,-22.13,-16.27,-13.4,-50.73,19.43,-3.561,4.722,10.09,25.53,32.72,36.91,0,0,0,0,0,0,0,0,0,0,0,0,0,0,0,0,
161,-14.83,9.747,43.25,9.739,22.4,-10.98,6.271,45.4,50.31,40.55,-11.43,0.4876,18.64,43.43,25.22,26.75,0,0,0,0,0,0,0,0,0,0,0,0,0,0,0,0,
162,-12.14,6.142,10.8,5.704,17.7,-0.9702,11.44,40.77,71.31,42.77,-2.305,8.685,14.04,32.53,29.71,18.67,0,0,0,0,0,0,0,0,0,0,0,0,0,0,0,0,
163,2.832,-0.2045,-2.494,17.58,-5.007,7.526,18.55,30.16,-26.98,10.78,13.49,18.99,3.412,0.7541,32.36,8.701,0,0,0,0,0,0,0,0,0,0,0,0,0,0,0,0,
164,-27.73,-23.33,-23.97,-2.188,-55.17,-24.94,-7.093,-14.67,-82.66,-51.38,0.8433,-3.814,-12.82,-18.82,13.06,-4.7,0,0,0,0,0,0,0,0,0,0,0,0,0,0,0,0,
165,-44.2,-19.67,-40.79,-26.26,-10.54,-10.44,-2.747,-24.53,5.265,-23.34,-7.013,4.691,27.71,31.91,26.61,29.03,0,0,0,0,0,0,0,0,0,0,0,0,0,0,0,0,
166,-3.288,32.89,-20.96,-14.19,72.26,23.91,23.46,9.023,42.64,31.96,-20.53,16,52.3,53.89,37.63,39.52,0,0,0,0,0,0,0,0,0,0,0,0,0,0,0,0,
167,1.577,32.22,-2.364,-9.436,41.94,2.933,15.54,25.87,-15.77,30.82,-9.217,12.06,18.62,20.42,33.38,14.86,0,0,0,0,0,0,0,0,0,0,0,0,0,0,0,0,
168,-0.4262,-2.836,17.56,-8.811,-3.388,-6.759,3.19,25.83,34.56,19.07,9.646,7.379,-6.782,6.715,19.3,-0.8163,0,0,0,0,0,0,0,0,0,0,0,0,0,0,0,0,
169,-9.208,-21.46,8.24,-27.19,0.0461,-14.98,-19.32,-29.99,94.28,-5.473,-32.45,-29.97,-16.82,1.083,-3.081,-9.271,0,0,0,0,0,0,0,0,0,0,0,0,0,0,0,0,
170,-48.19,-27.82,-11.75,-41.06,2.615,-25.61,-23.03,-56.54,28.67,3.133,-27.4,-31.65,-7.417,8.554,15.24,8.853,0,0,0,0,0,0,0,0,0,0,0,0,0,0,0,0,
171,-39.1,-18.75,-13.48,-20.34,-17.45,-15.25,-2.984,11.52,-23.85,31.46,17.1,-6.841,-0.0411,16.59,19.33,11.7,0,0,0,0,0,0,0,0,0,0,0,0,0,0,0,0,
172,-25.29,-19.42,-44.91,-17.62,-37.26,-17.37,-7.644,32.64,-28.23,19.65,-1.838,-16.84,0.9457,13.62,-3.337,-0.0653,0,0,0,0,0,0,0,0,0,0,0,0,0,0,0,0,
173,-28.02,-7.008,-36.84,-14.06,10.4,-6.355,0.9405,-8.87,-18.12,19.06,-4.355,-3.881,17.68,19.51,4.24,9.528,0,0,0,0,0,0,0,0,0,0,0,0,0,0,0,0,
174,-8.679,1.163,14.26,-6.201,52.13,-10.73,4.388,-22.49,39.4,-5.494,0.0438,-0.6167,8.701,7.83,-5.003,-2.731,0,0,0,0,0,0,0,0,0,0,0,0,0,0,0,0,
175,-18.2,-19.88,9.543,-9.454,20.83,-29.95,-5.79,17.61,60.88,-35,-16.84,-13.88,12.17,12.93,-2.755,1.865,0,0,0,0,0,0,0,0,0,0,0,0,0,0,0,0,
176,-10.41,3.306,-0.2576,13.03,12.58,11.4,18.68,65.28,-10.66,7.702,3.756,11.42,35.79,26.58,22,19.89,0,0,0,0,0,0,0,0,0,0,0,0,0,0,0,0,
177,22.16,19.13,3.696,4.382,26.15,26.25,9.521,10.68,-29.74,10.08,-4.268,0.3789,4.657,-8.049,-4.837,-11.26,0,0,0,0,0,0,0,0,0,0,0,0,0,0,0,0,
178,-18.4,-13.62,-3.229,-24.79,15.29,-15.86,-22.4,-57.33,31.34,-16.9,-38.67,-36.18,-15.86,-22.21,-23.42,-24.06,0,0,0,0,0,0,0,0,0,0,0,0,0,0,0,0,
179,-64.35,-13.52,-1.631,-5.908,-9.028,-17.35,-4.975,2.183,23.33,28.86,-20.54,-20.45,0.9499,-12.69,-4.266,-12.11,0,0,0,0,0,0,0,0,0,0,0,0,0,0,0,0,
180,-25.5,-7.843,-13.75,4.365,-28.24,12.59,15.14,49.29,12.63,59.42,7.007,13.62,4.28,-13.82,8.679,-9.528,0,0,0,0,0,0,0,0,0,0,0,0,0,0,0,0,
181,28.34,-9.136,-16.46,4.501,-3.833,26.55,14.89,-14.24,67.94,21.06,4.959,21.96,13.26,7.316,20.09,5.724,0,0,0,0,0,0,0,0,0,0,0,0,0,0,0,0,
182,4.518,4.188,-7.306,9.981,29.69,-1.802,2.181,-52.63,35.51,-29.85,6.886,7.868,18.24,21.18,28.07,17.36,0,0,0,0,0,0,0,0,0,0,0,0,0,0,0,0,
183,-37.96,7.649,2.026,3.784,57.51,-18.45,2.639,11.69,-30.93,-25.68,44.65,24.29,24.27,30.46,50.44,39.56,0,0,0,0,0,0,0,0,0,0,0,0,0,0,0,0,
184,-3.531,13.76,38.65,15.43,77.01,22.09,18.98,61.13,-4.972,13.68,61.17,50.83,27.6,39.95,61.36,53.28,0,0,0,0,0,0,0,0,0,0,0,0,0,0,0,0,
185,24.14,0.0492,39.23,14.44,31.92,32.99,6.295,30.38,23.19,3.193,34.63,36.49,15.88,37.79,47.3,45.6,0,0,0,0,0,0,0,0,0,0,0,0,0,0,0,0,
186,15.15,-2.925,17.65,5.329,10.85,19.21,16.62,28.96,26.33,-8.64,46.13,40.16,34.78,54.9,54.81,60.19,0,0,0,0,0,0,0,0,0,0,0,0,0,0,0,0,
187,25.46,30.13,24.63,11.67,32.32,15.04,36.84,39.13,29.02,16.18,45.17,38.04,31.32,26.86,32.07,35.55,0,0,0,0,0,0,0,0,0,0,0,0,0,0,0,0,
188,5.813,10.88,7.431,0.4027,5.793,-0.1044,11.02,-9.704,24.03,34.22,8.77,11.13,1.84,-19.59,0.8439,-5.795,0,0,0,0,0,0,0,0,0,0,0,0,0,0,0,0,
189,3.558,-1.295,8.799,13.65,11.3,25.23,21.16,-21.74,0.6905,38.37,20.68,26.68,22.58,8.261,23.19,7.761,0,0,0,0,0,0,0,0,0,0,0,0,0,0,0,0,
190,37.55,32.23,14.45,26.58,24.58,46.67,34.52,5.595,-44.36,-2.196,20.79,24.05,21.78,15.89,18.82,-0.7798,0,0,0,0,0,0,0,0,0,0,0,0,0,0,0,0,
191,5.85,17.59,-23.35,-1.993,-11.57,17.06,1.232,11.61,0.5894,-29.18,5.88,0.0325,-3.067,-3.464,4.835,-11.47,0,0,0,0,0,0,0,0,0,0,0,0,0,0,0,0,
192,-28.81,-2.041,-1.07,4.618,9.46,-4.662,-2.84,15.53,60.63,13.39,23.82,7.955,-3.133,-1.569,13.27,4.989,0,0,0,0,0,0,0,0,0,0,0,0,0,0,0,0,
193,-17.29,-6.856,36.52,22.93,34.87,-19.09,4.563,19.22,-27.3,31.17,19.46,4.162,-9.894,-14.47,5.559,2.919,0,0,0,0,0,0,0,0,0,0,0,0,0,0,0,0,
194,-0.4481,-8.456,11.63,18.82,-3.027,0.1232,13.56,33.97,-51.71,6.229,15.82,13.63,12.13,6.898,23.15,20.25,0,0,0,0,0,0,0,0,0,0,0,0,0,0,0,0,
195,18.15,15.63,-10.8,7.304,-35.55,19.43,20.73,15.76,56.44,-34.49,10.7,24.8,23.71,24.55,33.94,25.62,0,0,0,0,0,0,0,0,0,0,0,0,0,0,0,0,
196,-2.669,-3.016,-23.64,-24.4,-38.07,-19.34,-2.362,-30.15,80.88,-38.94,3.471,7.17,-2.131,1.52,17.28,10.96,0,0,0,0,0,0,0,0,0,0,0,0,0,0,0,0,
197,-23.51,-20.01,-5.606,-16.06,-3.703,-17.38,1.284,-3.837,29.83,32.79,34.41,7.199,15.3,18.84,14.71,26.01,0,0,0,0,0,0,0,0,0,0,0,0,0,0,0,0,
198,-20.72,7.408,9.018,1.934,10.12,-4.194,-5.593,12.7,-32.99,28.58,7.503,-14.45,17.36,20.52,-10.53,14.17,0,0,0,0,0,0,0,0,0,0,0,0,0,0,0,0,
199,-45.28,-11.5,-33.17,-24.24,-12.11,-30.3,-38.09,-19.44,-51.51,-31.47,-25.46,-27.32,-11.39,-6.921,-11.57,-0.0391,0,0,0,0,0,0,0,0,0,0,0,0,0,0,0,0,
200,-25.23,-32.48,-22.36,-13.99,-5.941,-11.07,-13.06,-7.619,4.188,7.759,32,14.63,-6.684,-0.8377,20.84,9.678,0,0,0,0,0,0,0,0,0,0,0,0,0,0,0,0,
201,20.56,-20.48,23.51,5.939,-6.99,-0.2943,4.561,2.996,-7.82,33.49,44.37,22.04,-6.941,-0.7281,11.98,-1.624,0,0,0,0,0,0,0,0,0,0,0,0,0,0,0,0,
202,13.83,-16.53,7.624,1.324,-6.44,-9.053,-9.473,16.23,-55.12,-3.787,26.66,17.8,-3.527,2.546,17.05,7.4,0,0,0,0,0,0,0,0,0,0,0,0,0,0,0,0,
203,6.47,-10.66,-18.41,-2.446,-6.191,7.904,-5.542,37.57,-3.982,-23.33,44.86,20.97,0.2828,3.618,25.73,11.2,0,0,0,0,0,0,0,0,0,0,0,0,0,0,0,0,
204,-10.61,-20.62,-23.99,-31.26,-49.01,-6.551,-5.913,5.014,71.5,-23.51,27.39,-3.411,-6.331,-4.559,1.01,-4.809,0,0,0,0,0,0,0,0,0,0,0,0,0,0,0,0,
205,-22.15,-8.876,-1.373,-18.87,-37.51,-5.61,11.41,-1.782,66.99,4.488,15.97,3.291,21.65,24.5,-0.7979,11.42,0,0,0,0,0,0,0,0,0,0,0,0,0,0,0,0,
206,3.126,26.77,23.11,26.89,7.596,20.03,24.97,16.81,-9.373,11.52,21.63,10.15,29.83,31.68,-1.894,10.76,0,0,0,0,0,0,0,0,0,0,0,0,0,0,0,0,
207,-2.586,16.94,13.43,16.62,19.63,5.849,15.28,1.717,-17.75,3.786,11,-0.7895,10.39,10.48,2.713,1.837,0,0,0,0,0,0,0,0,0,0,0,0,0,0,0,0,
208,-14.33,3.683,16.58,11.48,48,-3.199,22.66,0.1458,53.29,31.59,21.92,18.65,8.567,7.497,20.1,6.685,0,0,0,0,0,0,0,0,0,0,0,0,0,0,0,0,
209,-2.298,-12.38,8.398,21.57,6.499,7.708,8.348,-10.98,31.72,19.34,27.54,20.19,-0.6776,-6.365,4.957,-5.094,0,0,0,0,0,0,0,0,0,0,0,0,0,0,0,0,
210,7.575,-32.06,-18.8,8.031,-81.88,28.2,-5.011,-13.98,-24.25,2.978,15.18,10.13,12.46,-0.8718,2.74,10.11,0,0,0,0,0,0,0,0,0,0,0,0,0,0,0,0,
211,14.8,-2.413,-5.66,-4.475,-63.77,28.68,6.452,17.47,-14.64,19.56,3.995,9.639,30.19,15.58,12.08,22.89,0,0,0,0,0,0,0,0,0,0,0,0,0,0,0,0,
212,-9.648,3.788,14.72,-10.86,-1.529,-10.69,-10.22,6.906,-6.299,-21.07,0.9732,-0.9286,15.34,1.149,5.015,3.984,0,0,0,0,0,0,0,0,0,0,0,0,0,0,0,0,
213,-16.72,-17.35,26.27,13.41,31.85,-7.008,-7.77,-7.653,1.045,-50.7,24.01,8.768,17.9,-8.565,13.08,3.705,0,0,0,0,0,0,0,0,0,0,0,0,0,0,0,0,
214,17.35,-10.57,27.98,29.39,31.14,12.21,12.46,16.58,9.016,-4.285,37.15,21.09,20.77,-12.74,20.21,6.302,0,0,0,0,0,0,0,0,0,0,0,0,0,0,0,0,
215,22.71,-13.87,15.06,4.605,5.991,4.367,6.652,26.12,51.09,37.26,41.44,27.48,20.55,-3.142,29.29,17.43,0,0,0,0,0,0,0,0,0,0,0,0,0,0,0,0,
216,23.36,-11.73,11.34,4.359,5.088,26.3,10.12,12.36,132.8,35.81,47.86,31.08,35.34,16.44,26.18,25.82,0,0,0,0,0,0,0,0,0,0,0,0,0,0,0,0,
217,18.44,-1.81,-20.93,4.998,-14.97,33.33,11.29,-1.586,118,26.3,30.43,13.29,37.8,20.88,2.054,12.7,0,0,0,0,0,0,0,0,0,0,0,0,0,0,0,0,
218,7.723,4.732,-29.74,-0.9152,-32.44,20.28,12.7,5.045,41.41,45.48,25.97,18.4,46.37,33.79,11.36,25.77,0,0,0,0,0,0,0,0,0,0,0,0,0,0,0,0,
219,24.83,15.91,27.44,10.34,10.45,11.35,10.71,-1.208,-25.97,30.21,19.09,15.89,36.66,22.31,5.466,21.25,0,0,0,0,0,0,0,0,0,0,0,0,0,0,0,0,
220,0.9068,-8.016,25.56,-5.542,6.469,-18.46,-8.124,-3.81,-117.3,-26.09,5.821,-11.15,14.15,1.847,-22.08,-2.085,0,0,0,0,0,0,0,0,0,0,0,0,0,0,0,0,
221,-25.51,-19.46,-14.3,-8.472,-49.85,-9.188,7.81,42.89,-113.8,-18.53,20.58,-0.957,22.47,5.651,-11.94,3.614,0,0,0,0,0,0,0,0,0,0,0,0,0,0,0,0,
222,-6.425,-9.686,-4.857,6.617,-46.31,9.296,11.76,28.19,-16.51,6.739,-3.413,-6.76,2.59,-31.45,-17.28,-15.41,0,0,0,0,0,0,0,0,0,0,0,0,0,0,0,0,
223,-16.87,-30.27,15.37,4.998,-2.053,-2.925,-5.663,-15.33,11.09,4.926,-20.91,-18.15,-9.069,-45.06,-21.59,-20.15,0,0,0,0,0,0,0,0,0,0,0,0,0,0,0,0,
224,-12.81,-15.03,19.97,20.73,2.974,18.05,22.24,20.1,-11.82,9.532,14.4,3.502,20.02,-6.256,-1.796,6.221,0,0,0,0,0,0,0,0,0,0,0,0,0,0,0,0,
225,3.614,2.051,-6.756,11.74,-18.87,18.82,21.57,5.149,-5.2,-8.967,6.687,-5.287,10.51,-5.41,-2.693,0.2431,0,0,0,0,0,0,0,0,0,0,0,0,0,0,0,0,
226,-12.97,-22.73,-8.642,-3.058,-8.264,-6.091,-6.011,-32.95,40.69,-1.594,-0.9388,3.248,9.031,3.787,10.67,5.416,0,0,0,0,0,0,0,0,0,0,0,0,0,0,0,0,
227,2.885,-13.72,27.84,15.09,-15.57,0.2332,-2.127,7.367,66.77,35.64,13.31,24.88,21.78,8.449,19.16,7.086,0,0,0,0,0,0,0,0,0,0,0,0,0,0,0,0,
228,3.906,-9.819,-1.054,-16.29,-35.91,-8.866,-9.62,20.45,11.99,20.46,1.137,-6.465,3.075,-17.13,5.302,-10.15,0,0,0,0,0,0,0,0,0,0,0,0,0,0,0,0,
229,-37.84,-25.31,-30.99,-52.52,-2.162,-30.68,-17.88,9.316,-51.43,-14.36,4.508,-25.89,0.2415,-2.392,2.764,-5.561,0,0,0,0,0,0,0,0,0,0,0,0,0,0,0,0,
230,-48.85,-30.39,-16.44,-42.97,-45.07,-47.15,-31.13,-11.56,-55.52,-31.2,-13.38,-32.8,-14.67,-12.68,-19.84,-22.83,0,0,0,0,0,0,0,0,0,0,0,0,0,0,0,0,
231,-33.9,-49.69,-38.24,-34.03,-114.2,-37.73,-36.3,-59.89,-38.73,-6.853,-33.17,-31.77,-26.75,-40.97,-22.78,-27.3,0,0,0,0,0,0,0,0,0,0,0,0,0,0,0,0,
232,-7.138,-30.61,-42.45,-11.79,-13.44,-1.366,3.823,-28.38,-50.19,20.83,-0.7585,-3.244,8.801,-10.24,2.149,2.38,0,0,0,0,0,0,0,0,0,0,0,0,0,0,0,0,
233,-9.059,4.854,-17.91,-9.21,58.41,-17.54,7.306,22.48,-40.96,-28.96,-2.065,-6.441,18.78,1.449,-2.899,1.371,0,0,0,0,0,0,0,0,0,0,0,0,0,0,0,0,
234,-31.13,-1.951,-15.5,-20.61,-21.57,-28.25,-14.27,-17.03,40.79,-46.15,-14.36,-10.53,5.787,-18.42,6.385,0.5098,0,0,0,0,0,0,0,0,0,0,0,0,0,0,0,0,
235,-12.65,-7.662,-15,-6.994,-69.79,-3.096,-8.898,-41.19,42.76,3.346,-3.993,-3.3,-2.57,-30.43,10.47,-4.569,0,0,0,0,0,0,0,0,0,0,0,0,0,0,0,0,
236,-14.61,-19.16,-24.94,-21.07,-61.52,-29.3,-18.79,4.37,-52.82,5.148,-13.55,-15.08,-9.921,-28.8,-11.27,-17.62,0,0,0,0,0,0,0,0,0,0,0,0,0,0,0,0,
237,-23.64,-23.07,-20.08,-29.72,-30.24,-34.84,-10.8,34.12,-34.03,-2.111,-2.764,-1.393,4.345,-4.524,-6.522,0.552,0,0,0,0,0,0,0,0,0,0,0,0,0,0,0,0,
238,-1.347,-9.584,-3.343,-20.67,7.932,-6.886,0.9339,10.51,6.762,10,1.917,0.1022,-1.129,-7.113,-9.276,-0.7775,0,0,0,0,0,0,0,0,0,0,0,0,0,0,0,0,
239,-17.42,-20.41,-15.47,-34.56,-2.775,-13.73,-16.15,-11.4,-65.93,15.94,-12.23,-12.59,-9.548,-15.47,-13.13,-11.73,0,0,0,0,0,0,0,0,0,0,0,0,0,0,0,0,
240,-23.5,-14.73,-10.15,-17.06,-16.5,-10.26,-8.049,-20.13,-66.81,15.58,-2.938,5.787,9.416,-0.8588,-6.323,-9.286,0,0,0,0,0,0,0,0,0,0,0,0,0,0,0,0,
241,2.649,3.2,3.194,8.541,6.57,-4.536,4.817,-27.24,51.85,0.0592,-8.7,3,12.9,-5.825,-16.24,-15.7,0,0,0,0,0,0,0,0,0,0,0,0,0,0,0,0,
242,5.47,12.16,-2.138,12.28,15.52,5.174,19.68,16.55,97.92,14.65,-7.37,-0.002,27.28,5.421,-2.644,1.629,0,0,0,0,0,0,0,0,0,0,0,0,0,0,0,0,
243,16.67,33.09,-1.436,15.82,-17.37,24.3,34.27,38.98,7.047,8.695,-2.571,9.332,34.33,19.55,0.2425,3.159,0,0,0,0,0,0,0,0,0,0,0,0,0,0,0,0,
244,20.31,16.3,-1.252,-8.121,-24.05,3.824,1.92,-10.17,-42.15,-39.76,-27.6,-6.602,3.967,-2.013,-21.45,-20.36,0,0,0,0,0,0,0,0,0,0,0,0,0,0,0,0,
245,3.158,-17.27,4.097,-11.68,5.191,-12.09,-19.45,-9.692,32.98,-1.42,-8.794,-7.326,-8.874,-17.23,-10.65,-15.77,0,0,0,0,0,0,0,0,0,0,0,0,0,0,0,0,
246,-7.787,-26.36,-19.02,1.622,-30.51,-12.72,-10.72,14.5,45.38,49.8,23.58,-0.6714,-11.78,-24.43,-3.74,-16.41,0,0,0,0,0,0,0,0,0,0,0,0,0,0,0,0,
247,-10.6,-24.06,-47.31,-23.5,-34.07,-7.313,1.904,2.016,4.69,24.99,3.742,0.232,0.6922,-5.856,-1.088,-9.345,0,0,0,0,0,0,0,0,0,0,0,0,0,0,0,0,
248,6.084,7.179,-4.336,-24.6,53.15,8.596,12.77,-4.551,31.64,6.723,-30.25,-7.014,14.2,14.11,-8.001,-7.578,0,0,0,0,0,0,0,0,0,0,0,0,0,0,0,0,
249,-14.27,-2.146,14.75,-6.383,40.19,-29.95,-22.05,-23.95,7.667,-13.42,-48.55,-38.36,-20.16,-17.31,-44.56,-43.37,0,0,0,0,0,0,0,0,0,0,0,0,0,0,0,0,
250,-40.56,-44.62,-6.018,-0.0373,-11.67,-39.13,-30.05,-8.011,-8.847,-12.24,-21.57,-20.96,-21.47,-22.14,-26.73,-32.43,0,0,0,0,0,0,0,0,0,0,0,0,0,0,0,0,
251,13.2,-10.92,10.99,7.783,5.326,27.04,23.68,37.54,63.14,27.32,18.58,22.82,19.64,9.952,15.5,2.307,0,0,0,0,0,0,0,0,0,0,0,0,0,0,0,0,
252,38.98,26.31,2.493,-5.345,-14.28,27.79,29.06,18.93,6.166,22.74,29.61,22.06,27.24,22.32,11.76,2.697,0,0,0,0,0,0,0,0,0,0,0,0,0,0,0,0,
253,16.28,7.772,-6.001,0.8927,-9.411,-7.945,0.6677,7.159,-86.7,11.21,24.28,17.14,11.84,14.13,6.423,2.22,0,0,0,0,0,0,0,0,0,0,0,0,0,0,0,0,
254,14.53,-19.59,18.05,19.15,29.2,-10.97,-11.23,3.955,32.18,34.57,-8.261,0.0633,-7.245,-10.72,3.833,-4.089,0,0,0,0,0,0,0,0,0,0,0,0,0,0,0,0,
255,-3.306,-22.06,5.779,7.323,15.49,-5.573,-5.297,-36.46,110.5,43.85,-16.43,-14.46,10.94,7.504,-2.303,3.462,0,0,0,0,0,0,0,0,0,0,0,0,0,0,0,0,
256,-5.696,13.87,-14.64,4.629,22.05,6.008,7.266,-15.42,-25.6,6.455,-13.17,-14.15,27.37,22.09,-23.83,4.449,0,0,0,0,0,0,0,0,0,0,0,0,0,0,0,0,
257,-7.197,-1.18,-24.76,-11.21,16.54,-19.08,-17.55,26.24,-75.69,-36.47,-49.76,-37.12,-16.36,-34.6,-40.28,-19.48,0,0,0,0,0,0,0,0,0,0,0,0,0,0,0,0,
258,-35.75,-46.06,-13.42,-21.96,-30.39,-41.43,-23.3,-3.748,0.9699,-6.174,-13.34,-13.36,-15.98,-34.66,2.322,3.353,0,0,0,0,0,0,0,0,0,0,0,0,0,0,0,0,
259,-11.27,-13.56,20.25,4.717,-24.65,-15.77,0.5197,-27.07,-16.18,11.47,43.61,24.48,16.11,6.984,17.5,20.16,0,0,0,0,0,0,0,0,0,0,0,0,0,0,0,0,
260,8.76,8.26,-0.0581,3.218,-2.521,-7.206,-9.287,17.67,-13.82,-29.11,-0.0992,-8.687,2.566,-2.885,-13.31,-0.1455,0,0,0,0,0,0,0,0,0,0,0,0,0,0,0,0,
261,-18.89,-4.676,-26.84,-1.391,-13.84,-5.057,-0.2216,52.64,40.94,-7.997,-26.59,-26.3,-1.374,-5.75,-13.1,1.092,0,0,0,0,0,0,0,0,0,0,0,0,0,0,0,0,
262,-12.67,-0.1468,-12.89,-8.658,-15.79,-1.375,6.317,-5.412,2.652,10.95,-15.74,-16.29,-6.835,-9.594,-25.52,-12.3,0,0,0,0,0,0,0,0,0,0,0,0,0,0,0,0,
263,9.745,-12.33,-1.899,-42.81,32.1,-7.065,-19.04,-46.58,28.01,-18.51,-22.05,-20.32,-15.52,-15.21,-37.74,-18.67,0,0,0,0,0,0,0,0,0,0,0,0,0,0,0,0,
264,4.316,-14.53,9.648,-25.65,67.69,-4.647,-15.14,2.891,73.56,-1.928,-9.773,-20.63,-5.829,-3.9,-21.4,-2.362,0,0,0,0,0,0,0,0,0,0,0,0,0,0,0,0,
265,-17.39,-5.595,-9.776,8.024,14.51,-12.66,-10.64,6.632,-19.18,20.08,17.91,-8.008,-0.8933,-0.9343,-3.925,0.4565,0,0,0,0,0,0,0,0,0,0,0,0,0,0,0,0,
266,-1.057,10.35,-18.7,16.88,-7.028,10.87,-1.088,-28.69,6.812,13.37,46.46,29.77,26.55,23.92,24.43,19.43,0,0,0,0,0,0,0,0,0,0,0,0,0,0,0,0,
267,39.81,32.89,19.29,20.46,20.03,28.52,6.081,-20.1,66.84,-28.7,19.95,24.67,23.88,18.55,12.32,12.21,0,0,0,0,0,0,0,0,0,0,0,0,0,0,0,0,
268,17.04,-1.678,3.611,-12.53,-17.23,-16.84,-21.13,-0.0116,-67.63,-69.35,-25.26,-7.594,-8.128,-12.41,-4.442,-3.506,0,0,0,0,0,0,0,0,0,0,0,0,0,0,0,0,
269,5.802,-5.749,-7.026,-16.05,-12.73,-9.956,3.169,29.64,-73.96,0.2103,10.08,22.03,19.58,19.76,25.65,27.6,0,0,0,0,0,0,0,0,0,0,0,0,0,0,0,0,
270,30.41,38.51,27.11,20.73,44.23,15.43,26.7,29.15,62.02,48.33,18.72,14.17,19.12,22.73,-2.206,16.21,0,0,0,0,0,0,0,0,0,0,0,0,0,0,0,0,
271,-2.58,12.24,1.717,22.21,38.98,-6.895,-8.382,2.088,40.46,-12.56,-4.968,-19.79,-9.263,-2.096,-29.17,-2.737,0,0,0,0,0,0,0,0,0,0,0,0,0,0,0,0,
272,-8.449,5.473,-21.36,17.38,13.76,6.929,-0.676,14.54,-40.58,-10.93,26.63,10.34,12.11,19.57,9.343,17.59,0,0,0,0,0,0,0,0,0,0,0,0,0,0,0,0,
273,16.57,32.16,2.27,-2.441,-3.49,4.895,3.189,1.819,-56.57,23.09,11.58,6.484,2.657,6.784,4.377,0.3457,0,0,0,0,0,0,0,0,0,0,0,0,0,0,0,0,
274,-8.573,9.073,22.12,-10.56,17.22,-16.19,-18.9,-26.54,-29.36,-15.55,-24.68,-14.1,-11.61,-9.658,-10.06,-9.34,0,0,0,0,0,0,0,0,0,0,0,0,0,0,0,0,
275,-5.089,13.85,31.21,30.92,37.3,11.14,3.768,-5.277,-2.923,-35.48,-1.584,5.171,5.708,7.561,4.051,-0.2661,0,0,0,0,0,0,0,0,0,0,0,0,0,0,0,0,
276,26.98,25.48,8.733,26.17,-26.16,22.48,19.82,16.7,-6.923,13.04,13.41,7.502,-3.949,2.84,1.758,-7.871,0,0,0,0,0,0,0,0,0,0,0,0,0,0,0,0,
277,31.48,6.401,3.763,3.628,-17.59,19.33,19.51,39.54,12.55,45.36,9.902,4.297,-3.854,8.509,-3.925,3.866,0,0,0,0,0,0,0,0,0,0,0,0,0,0,0,0,
278,12.07,12.93,19.23,17.03,54.32,9.747,12,43.21,3.463,10.97,-1.513,-4.145,4.908,16.17,-16.52,7.453,0,0,0,0,0,0,0,0,0,0,0,0,0,0,0,0,
279,-11.95,16.46,-11.8,6.514,-4.271,-13.07,-14.36,-2.605,-23.28,1.165,-5.397,-7.509,-0.9431,7.336,-11.84,6.262,0,0,0,0,0,0,0,0,0,0,0,0,0,0,0,0,
280,6.831,9.488,-26.31,1.533,-55.79,-0.924,-14.24,-11.72,7.353,30.12,-0.9355,5.489,1.685,11.77,1.49,13.54,0,0,0,0,0,0,0,0,0,0,0,0,0,0,0,0,
281,12.98,10.98,-7.626,10.91,4.061,2.095,-3.089,23.6,-61.71,0.2179,-17.79,-2.906,3.761,17.62,-10.96,3.785,0,0,0,0,0,0,0,0,0,0,0,0,0,0,0,0,
282,-2.388,23.07,0.3547,6.426,17.1,3.769,6.828,16.49,-160.5,-31.2,3.554,14.13,16.16,21.96,-0.5707,9.216,0,0,0,0,0,0,0,0,0,0,0,0,0,0,0,0,
283,41.03,39.97,10.61,9.303,-26.61,36.88,22.34,-28.84,-63.12,-3.901,32.67,34.26,14.8,6.899,6.283,7.796,0,0,0,0,0,0,0,0,0,0,0,0,0,0,0,0,
284,55.29,20.75,14.77,6.904,2.056,33.76,23.77,-8.922,51.78,35.06,11.19,6.672,-6.306,-9.129,-2.589,-3.986,0,0,0,0,0,0,0,0,0,0,0,0,0,0,0,0,
285,14.25,3.916,24.55,6.807,69.01,12.55,29.55,63.94,54.76,43.8,0.2811,-4.278,-7.673,-1.07,8.164,5.056,0,0,0,0,0,0,0,0,0,0,0,0,0,0,0,0,
286,0.6749,2.813,18.8,19.21,34.85,7.371,19.73,51.29,56.67,-0.8547,-16.87,-9.314,-15.33,-16.37,-5.197,-3.603,0,0,0,0,0,0,0,0,0,0,0,0,0,0,0,0,
287,5.798,-5.045,-6.355,36.01,-17.85,20.07,10.82,15.18,20.56,-13.45,-8.496,3.118,2.071,-7.994,7.809,7.919,0,0,0,0,0,0,0,0,0,0,0,0,0,0,0,0,
288,33.22,28.99,8.14,38.69,19.13,37.87,29.23,26.3,-71.47,6.714,48.61,43.95,37.33,28.98,54.35,35.56,0,0,0,0,0,0,0,0,0,0,0,0,0,0,0,0,
289,33.15,36.54,6.755,0.8239,17.1,3.439,6.601,-6.942,-83.99,-22.71,31.56,23.25,18.93,19.57,37.52,20.32,0,0,0,0,0,0,0,0,0,0,0,0,0,0,0,0,
290,-10.84,2.774,-8.788,-3.094,-14.82,-11.27,-10.51,-11.53,6.487,0.5538,-9.628,-6.195,15.31,20.16,8.49,14.96,0,0,0,0,0,0,0,0,0,0,0,0,0,0,0,0,
291,-5.38,18.67,13.21,16.42,12.3,17.24,6.914,13.83,59.88,39.01,-2.692,-0.2773,16.17,18.87,-3.293,0.9759,0,0,0,0,0,0,0,0,0,0,0,0,0,0,0,0,
292,13.11,3.32,1.776,-15.17,12.81,-0.3858,-11.54,-33.01,23.07,-8.468,-9.177,-12.06,-25.46,-12.29,-22.06,-29.29,0,0,0,0,0,0,0,0,0,0,0,0,0,0,0,0,
293,8.011,-33.36,-8.148,-1.399,-12.61,-4.912,-6.472,-23.12,-32.5,-6.899,-14.58,-16.88,-26.45,-3.274,-26.79,-20.46,0,0,0,0,0,0,0,0,0,0,0,0,0,0,0,0,
294,-2.768,-7.831,9.912,26.89,-8.754,4.708,13.01,31.91,-71.24,16.52,-30.92,-30.44,-17.04,-0.841,-39.16,-23.4,0,0,0,0,0,0,0,0,0,0,0,0,0,0,0,0,
295,-31.93,-3.963,-2.644,-8.216,13.93,-15.14,-8.729,27.66,-76.82,-11.6,-40.23,-33.08,-25.24,-13.33,-24.38,-23.07,0,0,0,0,0,0,0,0,0,0,0,0,0,0,0,0,
296,-11.39,-16.11,6.306,-0.6863,17.38,0.1177,-2.492,51.87,-71.18,8.981,7.418,14.41,-5.73,1.255,16.4,1.437,0,0,0,0,0,0,0,0,0,0,0,0,0,0,0,0,
297,37.21,1.064,17.73,19.13,-33.42,16.71,15.19,45.22,-61.41,31.92,23.93,28.15,1.218,0.2723,18.3,-0.8261,0,0,0,0,0,0,0,0,0,0,0,0,0,0,0,0,
298,31.06,8.65,-0.4128,8.16,-36.05,11.88,4.742,-32.14,-4.156,-0.1077,-7.196,5.535,-2.416,3.475,19.38,3.027,0,0,0,0,0,0,0,0,0,0,0,0,0,0,0,0,
299,10.57,4.624,-2.899,14.58,11.44,8.234,-14,-43.44,-2.129,-24.05,-17.2,-5.877,-5.025,4.133,19.53,3.523,0,0,0,0,0,0,0,0,0,0,0,0,0,0,0,0,
300,-2.208,-10.32,-21.07,-10.12,-17.08,-15.14,-28.8,-17.27,-74.65,-17.4,0.519,-5.575,-17.3,-15.69,12.3,-8.987,0,0,0,0,0,0,0,0,0,0,0,0,0,0,0,0,
301,-2.19,-19.85,-30.23,-29.11,-49.62,-17.7,-18.61,-16.38,-64.64,-8.477,9.85,-0.8035,-23.58,-16.61,18.21,-4.832,0,0,0,0,0,0,0,0,0,0,0,0,0,0,0,0,
302,-9.255,-29.25,-19.68,-9.043,-45.88,-11.1,-24.07,-9.272,-13.79,-30.93,-19.98,-23.89,-37.52,-21.96,-3.373,-14.23,0,0,0,0,0,0,0,0,0,0,0,0,0,0,0,0,
303,-26.23,-30.46,-22.81,2.956,-27.97,-3.86,-24.95,0.2685,4.512,-19.62,-10.14,-12.46,-17.47,-5.539,-4.337,-0.6519,0,0,0,0,0,0,0,0,0,0,0,0,0,0,0,0,
304,12.52,17.56,13.84,29.28,30.55,25.28,11.81,0.7579,-4.567,24.14,18.1,24.54,12.34,23.29,14.17,18.14,0,0,0,0,0,0,0,0,0,0,0,0,0,0,0,0,
305,15.41,16.48,22.91,19.12,13.19,0.6589,-10.98,-20.29,-64.62,-0.5669,-36.81,-16.95,-21.66,-2.834,-9.091,-10,0,0,0,0,0,0,0,0,0,0,0,0,0,0,0,0,
306,-43.72,-30.87,-34.13,-33.18,-60.69,-30.12,-42.64,-46.65,-71.16,-22.33,-48.58,-35.17,-25.61,-4.36,0.3313,-5.165,0,0,0,0,0,0,0,0,0,0,0,0,0,0,0,0,
307,-29.27,-4.127,-31.92,-38.52,-37.66,-14.84,-13,-25.53,-22.92,-11.83,5.543,4.574,4.856,22.71,28.54,11.59,0,0,0,0,0,0,0,0,0,0,0,0,0,0,0,0,
308,-0.7153,18.04,18.62,-21.04,25.98,-18.73,-5.836,47.46,-15.98,-11.63,20.79,16.48,4.679,25.21,38.27,13.89,0,0,0,0,0,0,0,0,0,0,0,0,0,0,0,0,
309,8.546,14.26,45.54,12.04,52.43,10.13,2.603,76.16,13.55,26.73,52.51,40.6,21.44,40.69,63.25,42.76,0,0,0,0,0,0,0,0,0,0,0,0,0,0,0,0,
310,38.26,29.18,27.11,43.66,24.61,38.65,13.83,2.745,31.4,26.84,58.68,38.8,15.55,21.83,37.9,22.48,0,0,0,0,0,0,0,0,0,0,0,0,0,0,0,0,
311,14.64,5.667,-13.37,25.35,-18.47,4.012,-7.871,-26.11,7.368,-21.68,11.13,0.5897,-12.11,-12.46,-0.5608,-15.17,0,0,0,0,0,0,0,0,0,0,0,0,0,0,0,0,
312,-1.79,-3.23,-7.622,16.65,-9.597,15.25,4.162,19.59,13.56,-18.15,2.785,8.681,-2.865,1.185,11.39,-3.886,0,0,0,0,0,0,0,0,0,0,0,0,0,0,0,0,
313,37.32,19.95,-0.3091,24.87,-11.98,50.99,24.6,-1.663,-13.41,-16.9,-1.609,18.14,-4.197,3.879,6.061,-4.33,0,0,0,0,0,0,0,0,0,0,0,0,0,0,0,0,
314,43.47,12.64,-7.459,15.32,-20.59,36.39,16.06,-3.539,-67.08,-15.69,-4.905,13.03,-5.154,6.179,3.805,1.365,0,0,0,0,0,0,0,0,0,0,0,0,0,0,0,0,
315,14.25,3.587,-1.376,-2.719,-5.907,1.652,-1.772,37.05,-84.36,-2.864,4.743,-0.1065,-4.453,15.21,5.889,9.836,0,0,0,0,0,0,0,0,0,0,0,0,0,0,0,0,
316,-31.97,-7.284,-31.88,-20.67,-19.58,-31.69,-28.95,-13.62,-63.86,-27.34,-23.16,-36.88,-31,-2.972,-22.13,-8.459,0,0,0,0,0,0,0,0,0,0,0,0,0,0,0,0,
317,-50.57,-18.07,-23.57,-7.173,2.488,-26.35,-25.81,-49.28,9.744,-17.35,-31.52,-38.48,-40.55,-18.45,-31.02,-18.08,0,0,0,0,0,0,0,0,0,0,0,0,0,0,0,0,
318,-19.42,-27.05,28.03,-3.119,25.27,-9.649,-12.16,-15.15,19.7,12.91,-4.446,-22.25,-44.34,-36.26,-25.14,-29.1,0,0,0,0,0,0,0,0,0,0,0,0,0,0,0,0,
319,-10.04,-41.68,2.463,-16.16,-13.42,-10.29,-8.819,-1.025,-39.15,5.343,4.755,-18.86,-38.13,-35.28,-17.58,-26.03,0,0,0,0,0,0,0,0,0,0,0,0,0,0,0,0,
320,-14.48,-13.29,-26.11,6.809,-1.577,-2.051,6.328,17.24,-27.38,-12.83,-12.82,-16,-20.36,-14.52,-20.07,-19.46,0,0,0,0,0,0,0,0,0,0,0,0,0,0,0,0,
321,-18.73,-3.009,-21.99,-6.389,14.61,-21.21,-14.32,15.42,-17.79,-47.54,-37.55,-29.39,-37.75,-21.8,-39.42,-38.12,0,0,0,0,0,0,0,0,0,0,0,0,0,0,0,0,
322,-21.83,-34.66,-23.08,-28.24,-14.55,-30.48,-31.93,-17.86,-11.59,-31.47,-17.98,-17.8,-35.4,-12.43,-19.38,-21.29,0,0,0,0,0,0,0,0,0,0,0,0,0,0,0,0,
323,0.6529,-16.43,14.7,8.831,-8.351,-3.969,-7.193,-7.521,41.42,32.01,1.498,1.056,-8.363,7.136,6.323,3.916,0,0,0,0,0,0,0,0,0,0,0,0,0,0,0,0,
324,-0.6997,5.925,28.21,12.67,-9.496,-5.617,-1.741,20.98,20.58,15.27,-17.27,-7.851,-3.84,5.764,6.457,3.008,0,0,0,0,0,0,0,0,0,0,0,0,0,0,0,0,
325,-6.541,0.6394,-15.64,-4.733,-10.6,-4.957,2.347,3.218,-33.85,-38.86,-14.81,-1.375,-4.713,4.326,6.301,3.595,0,0,0,0,0,0,0,0,0,0,0,0,0,0,0,0,
326,-0.4073,-4.84,-44.88,-10.93,21.2,-1.37,4.126,-34.6,-38.73,-37.3,-17.18,-9.883,-23.27,-14.02,-15.43,-12.97,0,0,0,0,0,0,0,0,0,0,0,0,0,0,0,0,
327,-17.71,-14.17,-38.59,-14.74,28.66,-1.3,-2.213,3.043,-29.57,10.95,-13.67,-11.95,-18.84,-0.8042,-8.486,-1.444,0,0,0,0,0,0,0,0,0,0,0,0,0,0,0,0,
328,7.714,3.197,-0.9746,24.91,24.28,19.46,13.41,73.73,16.73,30.67,10.56,13.38,3.687,21.44,14.74,17.07,0,0,0,0,0,0,0,0,0,0,0,0,0,0,0,0,
329,26.1,1.003,15.3,21.22,19.53,0.971,12.34,48.39,60.48,-14.67,-11.15,-7.344,-15.51,-13.66,-10.02,-15.44,0,0,0,0,0,0,0,0,0,0,0,0,0,0,0,0,
330,-14.6,-6.751,5.509,-20,25.68,-5.847,22.94,9.238,30.67,-26.67,-19.04,-14.56,-0.9015,-6.7,-8.108,-16.06,0,0,0,0,0,0,0,0,0,0,0,0,0,0,0,0,
331,-10.41,35.99,13.62,8.315,37.6,20.43,32.39,11.01,-40.21,-22.23,-0.2173,6.158,14,8.81,6.726,-9.911,0,0,0,0,0,0,0,0,0,0,0,0,0,0,0,0,
332,-2.947,17.12,4.229,21.67,-13.78,-12.49,-15.9,-13.33,-66.63,-41.55,-5.91,-5.559,-29.24,-33.1,-2.088,-31.84,0,0,0,0,0,0,0,0,0,0,0,0,0,0,0,0,
333,-15.61,-29.91,-12.25,2.612,-65.24,-22.52,-19.65,-21.13,-5.225,8.424,0.9624,0.6977,-28.7,-27.9,7.346,-17.76,0,0,0,0,0,0,0,0,0,0,0,0,0,0,0,0,
334,7.331,-11.09,-23.86,0.4581,-27.69,8.557,7.388,-17.28,36.07,28.8,-22.03,-4.883,-14.26,-7.733,-11.22,-13.97,0,0,0,0,0,0,0,0,0,0,0,0,0,0,0,0,
335,-0.8795,-7.783,-26.57,-12.89,52.16,-1.411,-4.701,-0.851,9.322,-23.6,-35.34,-21.53,-18.38,-9.428,-20.74,-11.56,0,0,0,0,0,0,0,0,0,0,0,0,0,0,0,0,
336,-10.76,-2.383,23.18,-3.201,84.24,-2.001,13.86,48.85,4.313,2.565,26.6,14.7,3.387,4.035,16.99,16.01,0,0,0,0,0,0,0,0,0,0,0,0,0,0,0,0,
337,24.94,16.36,37.01,9.072,27.53,8.018,27.48,26.02,8.84,21.9,26.27,27.72,4.95,-4.038,18.42,14.09,0,0,0,0,0,0,0,0,0,0,0,0,0,0,0,0,
338,35.44,12.31,1.686,2.399,-13.46,17.69,22.61,0.8241,-1.791,-29.1,-26.21,9.21,13.98,5.19,10.34,22.85,0,0,0,0,0,0,0,0,0,0,0,0,0,0,0,0,
339,19.83,38.82,16.12,19.81,12.46,38.77,48.78,60.08,-1.335,-12.64,-16,12.18,38.31,26.96,19.47,38.67,0,0,0,0,0,0,0,0,0,0,0,0,0,0,0,0,
340,13.11,48.74,18.7,27.35,13.69,37.74,44.98,50.11,14.75,38.58,14.06,22.69,23.32,13.36,22.11,30.54,0,0,0,0,0,0,0,0,0,0,0,0,0,0,0,0,
341,32.71,17.7,1.261,30.36,-5.776,39.2,13.08,-24.49,42.28,3.008,26.26,35.97,10.09,13.9,31.67,30.33,0,0,0,0,0,0,0,0,0,0,0,0,0,0,0,0,
342,43.28,0.4199,9.877,30.86,-8.027,23.85,-9.738,-41.76,45.22,-59.91,16.7,22.98,-2.546,4.26,20.85,11.54,0,0,0,0,0,0,0,0,0,0,0,0,0,0,0,0,
343,13.58,-15.9,1.148,-0.245,22.52,-3.308,-8.843,-6.5,45.85,-21.05,7.72,9.941,-9.649,-10.85,6.543,-2.024,0,0,0,0,0,0,0,0,0,0,0,0,0,0,0,0,
344,8.745,2.801,2.355,-6.848,51.87,17.59,35.04,36.84,47.3,37.9,4.532,17.82,15.23,12.55,0.0618,2.614,0,0,0,0,0,0,0,0,0,0,0,0,0,0,0,0,
345,8.139,41.41,15.01,8.199,-1.772,24.18,51.15,36.95,2.2,6.937,-12.94,2.809,17.45,12.72,-13.95,-14.48,0,0,0,0,0,0,0,0,0,0,0,0,0,0,0,0,
346,-1.325,29.74,14.59,18.88,-29.11,18.04,24.87,17.41,-9.996,7.519,-0.5957,8.013,4.221,-6.769,-0.6522,-11.49,0,0,0,0,0,0,0,0,0,0,0,0,0,0,0,0,
347,22.41,-1.779,25.05,20.01,18.7,19.44,2.433,10.8,25.64,32.71,-6.044,11.92,-4.765,-13.88,-2.706,-5.825,0,0,0,0,0,0,0,0,0,0,0,0,0,0,0,0,
348,-0.5758,-19.45,19.64,-3.395,8.948,-12.5,-6.782,3.162,61.92,-7.175,-29.58,-8.199,-3.064,-5.267,-5.119,-6.72,0,0,0,0,0,0,0,0,0,0,0,0,0,0,0,0,
349,-18.97,4.131,16.08,20.65,-10.83,5.832,25.07,21.55,91.6,2.358,36.01,35.21,30,24.51,40.95,20.13,0,0,0,0,0,0,0,0,0,0,0,0,0,0,0,0,
350,50.73,36.41,17.15,44.7,-2.34,45.15,39.79,25.86,11.18,41.06,71.1,65.18,23.33,11.99,31.28,7.412,0,0,0,0,0,0,0,0,0,0,0,0,0,0,0,0,
351,67.04,10.5,-19.39,-14.38,-11.69,13.45,7.938,0.946,-59.73,7.194,5.396,16.3,-14.93,-22.28,-13.66,-22.16,0,0,0,0,0,0,0,0,0,0,0,0,0,0,0,0,
352,2.121,-14,-34.54,-28.27,-6.866,-3.795,2.242,11.25,32.94,-35.81,-34.3,-23.13,-14.68,-19.57,-10.93,-13.43,0,0,0,0,0,0,0,0,0,0,0,0,0,0,0,0,
353,-36.57,-8.569,-9.488,9.641,-11,9.226,6.837,24.35,52.01,-41.6,-33.15,-24.78,-4.728,-11.01,-9.826,-7.712,0,0,0,0,0,0,0,0,0,0,0,0,0,0,0,0,
354,-9.219,6.638,22.01,0.1077,5.538,15.96,15.15,12.14,-11.01,-3.816,-2.451,11.5,9.441,8.275,-9.764,-1.366,0,0,0,0,0,0,0,0,0,0,0,0,0,0,0,0,
355,40.61,26.07,36.23,-10.04,30.31,12.03,22.08,-20.33,42.8,24.63,15.68,24.38,13.95,24.48,-8.725,-2.453,0,0,0,0,0,0,0,0,0,0,0,0,0,0,0,0,
356,18.97,9.579,-1.053,10.8,-39.05,-9.538,-0.4618,-34.05,76.01,2.312,-8.128,-5.031,9.154,30.2,-1.622,2.393,0,0,0,0,0,0,0,0,0,0,0,0,0,0,0,0,
357,-13.17,6.275,-20.13,32.44,-61.29,4.112,4.213,34.86,37.67,11.84,7.041,13.25,25.39,40.8,25.03,24.04,0,0,0,0,0,0,0,0,0,0,0,0,0,0,0,0,
358,12.78,25.4,6.784,16.45,30.66,19.88,14.98,68.72,49.34,49.86,18.53,30.18,16.84,18.07,16.79,7.777,0,0,0,0,0,0,0,0,0,0,0,0,0,0,0,0,
359,24.46,12.47,13.39,-11.22,59.91,9.603,5.713,3.608,45.56,49.2,0.3958,17.29,9.727,9.221,11.42,4.123,0,0,0,0,0,0,0,0,0,0,0,0,0,0,0,0,
360,25.4,12.9,2.427,-5.442,5.348,15.97,4.988,-42.28,-18.15,-3.259,9.466,18.51,17.55,16.77,14.76,11.99,0,0,0,0,0,0,0,0,0,0,0,0,0,0,0,0,
361,11.6,0.9349,-24.81,-18.03,-47.19,-2.79,-20.23,-42.77,-17.23,-55.75,1.985,-0.3193,-5.994,-9.994,-19.99,-17.57,0,0,0,0,0,0,0,0,0,0,0,0,0,0,0,0,
362,-4.799,-14.18,-28.08,-11.32,-32.12,-3.816,-8.523,-2.988,43.96,-15.31,-9.194,-0.8616,1.247,-1.072,-21.32,-12.83,0,0,0,0,0,0,0,0,0,0,0,0,0,0,0,0,
363,19.92,17.86,11.45,22.97,17.43,20.15,27.83,23.89,-6.449,16.36,-25.68,0.735,1.927,0.1539,-18.23,-17.06,0,0,0,0,0,0,0,0,0,0,0,0,0,0,0,0,
364,0.1098,-3.663,18.3,-12.93,-5.605,-12.49,-6.415,-7.022,-55.44,-23.05,-52.82,-29.32,-31.41,-27,-33.8,-42.96,0,0,0,0,0,0,0,0,0,0,0,0,0,0,0,0,
365,-17.49,-22.03,22.31,-13,-20.94,-8.266,-2.468,3.198,72.87,7.787,-7.07,-3.653,1.012,6.417,-2.857,-10.84,0,0,0,0,0,0,0,0,0,0,0,0,0,0,0,0,
366,21.13,24.94,19.39,38,11.51,11.59,22.63,10.11,112.6,25.99,12.27,6.43,13.31,1.193,-7.33,-9.266,0,0,0,0,0,0,0,0,0,0,0,0,0,0,0,0,
367,-11.39,1.849,-30.91,-2.978,-28.76,-36.1,-28.52,-32.53,-9.018,-36.96,-38.88,-35.99,-22.14,-32.87,-37.51,-30.01,0,0,0,0,0,0,0,0,0,0,0,0,0,0,0,0,
368,-39.52,-24.13,-39.89,-31.52,-85.83,-29.62,-40.52,-22.84,-13.84,-36.72,-23.33,-17.64,0.5061,11.61,-17.56,-3.533,0,0,0,0,0,0,0,0,0,0,0,0,0,0,0,0,
369,6.362,11.15,-24.98,12.63,-49.85,9.121,-13.39,-15.39,32.9,1.564,3.311,4.475,12.63,20.33,-18.58,-5.161,0,0,0,0,0,0,0,0,0,0,0,0,0,0,0,0,
370,10.09,4.411,-14.88,19.28,9.324,0.6504,-9.807,-29.36,14.35,23.5,-21.14,-13.33,-9.526,-19.56,-33.96,-19.76,0,0,0,0,0,0,0,0,0,0,0,0,0,0,0,0,
371,-5.107,-16.19,31.33,-11.9,6.831,-7.813,-1.607,-1.813,29.26,33.09,-41.3,-24.34,-17.56,-22.74,-34.55,-23.15,0,0,0,0,0,0,0,0,0,0,0,0,0,0,0,0,
372,-9.715,-21.6,31.64,-28.43,0.7264,-19.45,-9.983,12.57,36.02,3.514,-34.76,-29.92,-25.21,-12.36,-32.13,-28.5,0,0,0,0,0,0,0,0,0,0,0,0,0,0,0,0,
373,-18.84,-23.14,-13.71,-3.918,15.71,-15.02,-13.65,8.627,-35.04,-16.25,12.26,-8.233,-15.74,-1.496,-6.918,-5.254,0,0,0,0,0,0,0,0,0,0,0,0,0,0,0,0,
374,0.3616,-11.86,-35.74,8.745,-27.61,-0.947,-14.43,-17.82,-81.19,-36.04,27.75,13.37,-7.336,-3.369,4.445,4.975,0,0,0,0,0,0,0,0,0,0,0,0,0,0,0,0,
375,19.8,-10.72,-40.06,-16.61,-39.77,-6.867,-29.19,-47.54,14.7,-57.75,-8.736,10.06,-1.486,5.171,11,5.229,0,0,0,0,0,0,0,0,0,0,0,0,0,0,0,0,
376,20.75,8.901,-9.348,0.5946,21.31,3.205,-3.669,-3.564,125.2,-20.42,-18.14,1.607,15.43,26.71,18.91,13.25,0,0,0,0,0,0,0,0,0,0,0,0,0,0,0,0,
377,2.61,26.85,14.48,22.49,9.117,-5.87,11.58,23.21,79.41,10.2,-24.02,-24.35,-0.3118,3.933,-17.2,-12.12,0,0,0,0,0,0,0,0,0,0,0,0,0,0,0,0,
378,-20.17,-2.229,10.1,1.331,-6.428,-33.31,-15.94,-5.463,25.92,10.17,-36.97,-35.26,-22.68,-19.33,-36.15,-27.5,0,0,0,0,0,0,0,0,0,0,0,0,0,0,0,0,
379,-21.67,-30.42,4.295,-6.029,8.878,-30.42,-25.09,-3.997,33.64,19.91,-33.32,-27.89,-23.76,-14.14,-16.1,-14.54,0,0,0,0,0,0,0,0,0,0,0,0,0,0,0,0,
380,-22.37,-30.61,-30.18,2.115,-37.46,-12.49,-14.65,-3.105,-7.272,20.24,-11.56,-7.523,-5.644,0.6209,3.024,5.414,0,0,0,0,0,0,0,0,0,0,0,0,0,0,0,0,
381,15.49,1.138,-28.71,6.625,-19.91,16.32,1.126,-9.6,-13.23,13.8,20.19,31.48,16.25,11.25,11.32,17.5,0,0,0,0,0,0,0,0,0,0,0,0,0,0,0,0,
382,42.41,8.04,12.35,-21.86,26.4,-0.8271,-12.33,-6.482,-20.87,-13.62,-7.342,0.8241,-17.07,-23.63,-13.55,-9.101,0,0,0,0,0,0,0,0,0,0,0,0,0,0,0,0,
383,-25.31,-34.52,-3.993,-48.06,-28.6,-47.33,-37.61,-32.13,-147.1,-46.73,-40.16,-42.8,-34.57,-27.14,-17.09,-8.138,0,0,0,0,0,0,0,0,0,0,0,0,0,0,0,0,
384,-42.15,-22.67,-32.33,-7.475,-60.07,-26.84,-21.01,-66.75,-205.9,-57.47,-9.801,-10.92,-2.869,11.82,3.976,12.55,0,0,0,0,0,0,0,0,0,0,0,0,0,0,0,0,
385,8.493,0.2174,-40.16,4.805,-40.32,-4.447,-16.06,-57.11,-117.4,-61.87,-2.089,-3.182,-17.43,-16.14,-9.251,-13.07,0,0,0,0,0,0,0,0,0,0,0,0,0,0,0,0,
386,11.6,-17.07,-29.84,-19.92,-11.58,-3.196,-17.56,2.064,-85.44,-26.56,7.543,-4.395,-22.24,-36.26,-5.408,-8.885,0,0,0,0,0,0,0,0,0,0,0,0,0,0,0,0,
387,11.62,3.652,4.264,-4.193,24.47,0.4165,-3.417,28.5,-141,4.483,18.94,7.6,-0.1887,-12.33,-1.863,7.482,0,0,0,0,0,0,0,0,0,0,0,0,0,0,0,0,
388,-7.655,10.43,1.037,6.238,13.04,-25.32,-12.01,11.12,-93.44,1.112,-25.91,-19.9,-11.24,-12.21,-21.23,-6.914,0,0,0,0,0,0,0,0,0,0,0,0,0,0,0,0,
389,-22.14,-2.743,-4.113,19.7,-2.661,-7.381,-1.303,21.9,26.57,25,-14.63,-6.824,-2.945,-6.876,-6.6,2.132,0,0,0,0,0,0,0,0,0,0,0,0,0,0,0,0,
390,32.79,16.84,8.085,21.04,-13.04,23.77,7.494,2.926,-0.8452,12.1,36.72,27.9,7.101,-9.482,4.291,-0.4484,0,0,0,0,0,0,0,0,0,0,0,0,0,0,0,0,
391,38.39,17.31,-7.466,-10.68,-35.32,-1.812,-7.223,-21.43,-89.69,-0.247,17.55,10.45,1.38,-14.63,7.097,-7.795,0,0,0,0,0,0,0,0,0,0,0,0,0,0,0,0,
392,-9.951,17.47,2.594,4.756,-17.03,-2.425,9.181,15.66,-80.34,42.89,-13.07,-7.45,7.956,3.445,9.14,2.801,0,0,0,0,0,0,0,0,0,0,0,0,0,0,0,0,
393,-15.12,18.59,17.18,12.96,-0.0132,5.901,6.166,-3.332,-54.34,-5.131,-8.625,-6.963,0.0801,9.119,-12.09,-3.047,0,0,0,0,0,0,0,0,0,0,0,0,0,0,0,0,
394,10.43,4.064,13.93,3.526,27.11,8.966,-3.977,-34.58,-16.22,-55.19,12.29,12.53,6.042,16.24,-0.2435,8.081,0,0,0,0,0,0,0,0,0,0,0,0,0,0,0,0,
395,34.79,12.04,32.18,39.47,51.49,27.78,13.42,14.06,5.484,4.941,4.113,13.58,0.9927,-10.65,5.727,5.275,0,0,0,0,0,0,0,0,0,0,0,0,0,0,0,0,
396,9.688,-5.05,8.29,25.57,-14.93,8.417,-2.324,29.3,-89.47,17.58,-22.84,-19.6,-31.83,-53.98,-18.15,-16.32,0,0,0,0,0,0,0,0,0,0,0,0,0,0,0,0,
397,-13.88,-18.88,-35.38,-5.591,-49.78,5.294,-4.458,5.109,-174.3,-16.39,1.073,-9.711,-11.74,-20.44,-4.469,2.864,0,0,0,0,0,0,0,0,0,0,0,0,0,0,0,0,
398,24.35,7.717,-31.59,13.88,-23.41,18.86,8.532,-9.777,-142.6,-31.14,11.9,5.486,2.503,-2.501,-5.869,-0.5239,0,0,0,0,0,0,0,0,0,0,0,0,0,0,0,0,
399,26.81,-4.716,-7.655,-2.985,-29.09,-10.34,-8.015,-10.92,-63.99,-28.12,-5.991,-4.701,-16.4,-24.62,-14.93,-15.22,0,0,0,0,0,0,0,0,0,0,0,0,0,0,0,0,
400,-2.651,-8.079,30.87,-24.68,5.673,-9.738,6.085,21.1,-5.479,34.05,15.26,9.34,0.3231,-4.4,9.944,3.519,0,0,0,0,0,0,0,0,0,0,0,0,0,0,0,0,
401,5.172,22.04,32.66,-9.445,35.94,6.799,13.62,16.23,16.6,69.21,22.55,14.05,6.589,0.6843,10.18,4.369,0,0,0,0,0,0,0,0,0,0,0,0,0,0,0,0,
402,23.02,11.91,-15.13,2.516,-9.495,-3.679,-19.66,-25.26,22.93,15.64,16.94,13.01,-5.917,-9.824,8.857,9.749,0,0,0,0,0,0,0,0,0,0,0,0,0,0,0,0,
403,26.61,-15.13,-42.92,2.437,-44.9,-12.03,-38.41,-32.7,-22.05,-37.06,26.21,13.24,-14.71,-5.141,11.8,13.11,0,0,0,0,0,0,0,0,0,0,0,0,0,0,0,0,
404,6.025,-32.3,-42.86,-16.63,-42.38,-21.38,-36.95,-17.96,-63.14,-32.81,17.89,-2.667,-26.36,-10.26,-5.377,-4.893,0,0,0,0,0,0,0,0,0,0,0,0,0,0,0,0,
405,0.9087,-21.17,-15.03,-14.06,-9.903,-4.645,-13.25,-3.687,5.984,-1.766,5.129,-6.041,-20.1,-10.49,-15.89,-8.046,0,0,0,0,0,0,0,0,0,0,0,0,0,0,0,0,
406,3.55,-1.786,-9.124,0.2501,5.533,4.291,-4.111,-26.93,21.97,-18.17,-20.5,-28.19,-24.49,-16.67,-33.45,-17.63,0,0,0,0,0,0,0,0,0,0,0,0,0,0,0,0,
407,-35.84,-14.9,-22.99,-11.59,-5.273,-25.68,-15.89,-30.46,-84.41,-37.11,-25.02,-41.58,-25.17,-14.03,-22.61,-9.783,0,0,0,0,0,0,0,0,0,0,0,0,0,0,0,0,
408,-37.82,-12.53,19.8,-6.987,17.57,-25.29,-6.802,29.02,-126.5,-8.146,12.64,-7.752,-11.58,-6.088,8.108,10.45,0,0,0,0,0,0,0,0,0,0,0,0,0,0,0,0,
409,-2.394,-18.23,21.54,-11.16,7.296,-12.42,-16.32,17.09,-73,-14.77,16.8,0.6083,-22.27,-20.19,-4.257,0.1607,0,0,0,0,0,0,0,0,0,0,0,0,0,0,0,0,
410,6.865,-30.69,-15.52,-8.005,-29.53,1.795,-16.47,-26.25,10.03,-14.19,12.64,6.824,-3.695,4.074,2.623,16.01,0,0,0,0,0,0,0,0,0,0,0,0,0,0,0,0,
411,21.71,8.011,11.08,34.74,-9.116,29.93,8.804,-3.165,54.66,21.87,13.66,21.03,18.33,22.94,21.63,26.3,0,0,0,0,0,0,0,0,0,0,0,0,0,0,0,0,
412,19.65,17.58,4.557,23.83,17.27,29.93,1.166,1.954,27.32,12.57,0.6702,10.87,3.936,0.387,14.71,7.737,0,0,0,0,0,0,0,0,0,0,0,0,0,0,0,0,
413,20.23,12.48,-10.78,-2.38,25.67,24.48,11.77,11.02,-3.23,11.4,22.46,25.55,18.13,18.91,21.88,17.62,0,0,0,0,0,0,0,0,0,0,0,0,0,0,0,0,
414,35.11,27.97,24.15,7.006,7.832,1.407,15.72,25.12,-31.28,8.016,21.46,21.66,8.65,20.31,10.42,4.633,0,0,0,0,0,0,0,0,0,0,0,0,0,0,0,0,
415,1.701,-12.68,12.8,-12.87,-11.01,-21.39,-22,-14.06,-23.61,-33.45,0.3304,0.7765,-19.07,-10.62,6.602,-10.66,0,0,0,0,0,0,0,0,0,0,0,0,0,0,0,0,
416,1.369,-20.73,-5.986,-17.05,11.36,21.49,-4.654,-7.66,29.36,-13.54,24.91,24.63,9.929,-0.0288,29.36,9.638,0,0,0,0,0,0,0,0,0,0,0,0,0,0,0,0,
417,31.16,30,-0.5341,5.9,-13.28,35.24,26.32,46.61,14.64,26.65,22.44,26.02,21.32,7.988,12.4,5.685,0,0,0,0,0,0,0,0,0,0,0,0,0,0,0,0,
418,9.069,26.82,2.688,15.74,-24.35,7.949,18.39,43.55,-14.32,15.84,15.77,20.81,6.582,5.711,5.765,8.704,0,0,0,0,0,0,0,0,0,0,0,0,0,0,0,0,
419,14.74,4.766,18.98,26.12,38.43,8.786,15.07,-3.743,-28.82,19.99,26.69,26.06,0.7538,-2.786,12.74,16.72,0,0,0,0,0,0,0,0,0,0,0,0,0,0,0,0,
420,13.29,-1.023,-6.855,12.38,15.3,-11.72,4.158,-26.52,-79.49,33.8,-11.56,-13.52,-7.579,-16.18,-8.164,8.835,0,0,0,0,0,0,0,0,0,0,0,0,0,0,0,0,
421,-34.62,4.772,-20,2.704,-16.87,-17.25,1.083,-4.144,-28.4,2.371,-20.05,-18.84,7.304,6.935,-1.124,26.21,0,0,0,0,0,0,0,0,0,0,0,0,0,0,0,0,
422,-9.33,16.89,29.25,16.03,52.13,16.67,3.349,19.19,74.12,-21.31,16.31,23.69,11.01,8.726,16.67,26.94,0,0,0,0,0,0,0,0,0,0,0,0,0,0,0,0,
423,48.39,6.748,27.34,11.56,57.96,28.57,0.6743,36.74,47.12,27.04,14.95,31.93,1.523,-13.74,22.13,15.26,0,0,0,0,0,0,0,0,0,0,0,0,0,0,0,0,
424,30.4,11.42,-8.023,9.647,-21.04,21.02,15.47,21.47,-26,33.12,-1.805,10.86,10.24,-9.226,26.63,19.98,0,0,0,0,0,0,0,0,0,0,0,0,0,0,0,0,
425,-20.21,18.47,-19.86,6.059,-45.96,2.468,10.36,-46,-67.08,-42.97,-2.133,-3.682,8.467,-6.675,14.84,11.78,0,0,0,0,0,0,0,0,0,0,0,0,0,0,0,0,
426,-14.02,17.73,-22.3,8.871,12.83,15.95,15.02,-12.99,-71.04,-18.58,15.15,14.81,20.4,8.872,7.938,11.66,0,0,0,0,0,0,0,0,0,0,0,0,0,0,0,0,
427,27.41,38.96,3.681,21.27,50.8,35.97,34.93,70.97,-6.997,43.57,9.061,16.96,20.46,11.12,-9.808,-1.79,0,0,0,0,0,0,0,0,0,0,0,0,0,0,0,0,
428,11.46,16.84,34.04,-4.799,27.94,-4.474,3.232,14.83,80.04,-2.83,-14.57,-6.553,-9.145,-15.23,-11.29,-11.61,0,0,0,0,0,0,0,0,0,0,0,0,0,0,0,0,
429,-1.6,-8.319,53.1,-0.4135,47.92,0.8662,-6.893,-20.35,101.8,-16.75,19.19,22.82,6.779,2.246,39.78,30.02,0,0,0,0,0,0,0,0,0,0,0,0,0,0,0,0,
430,35.81,16.72,44.65,37.15,53.71,44.5,14.39,41.31,22.51,16.52,51.98,42.21,14.53,13.51,41.15,33.6,0,0,0,0,0,0,0,0,0,0,0,0,0,0,0,0,
431,27.46,1.362,5.842,14.47,-13.72,22.19,-1.294,25.95,-28.02,-0.5462,32.31,10.86,-15.2,-10.57,5.827,3.71,0,0,0,0,0,0,0,0,0,0,0,0,0,0,0,0,
432,-7.635,-21.51,4.885,-4.249,-10.17,8.513,-3.84,-19.01,19.68,-9.699,6.851,-0.2875,-8.659,-5.197,17.26,10.46,0,0,0,0,0,0,0,0,0,0,0,0,0,0,0,0,
433,-10.97,2.126,6.391,14.59,34.47,26.53,16.82,3.847,31.66,15.23,-5.63,8.696,21.12,24.12,36.27,24.33,0,0,0,0,0,0,0,0,0,0,0,0,0,0,0,0,
434,16.35,32.97,-10.64,15.08,21.88,36.03,36.2,22.37,37.46,38.12,25.32,34.93,47.72,46.29,51.41,39.03,0,0,0,0,0,0,0,0,0,0,0,0,0,0,0,0,
435,51.66,45.13,12.77,-6.132,15.83,33.46,32.23,-16.83,90.17,17.5,55.15,47.46,37.4,17.89,53.07,31.84,0,0,0,0,0,0,0,0,0,0,0,0,0,0,0,0,
436,28.56,11.76,37.02,-15.74,52.07,11.16,2.033,-20.33,83.88,-6.521,37.04,26.22,7.479,-12.08,41.7,18.18,0,0,0,0,0,0,0,0,0,0,0,0,0,0,0,0,
437,-1.966,-1.607,46.43,25,93.81,10.7,13.5,61.98,53.25,22.93,22.42,18.39,20.6,21.36,38.28,29.01,0,0,0,0,0,0,0,0,0,0,0,0,0,0,0,0,
438,5.241,22.99,28.54,40.98,60.25,14.82,19.69,65.09,51.92,18.95,0.8863,-1.775,17.09,20.06,10.85,5.657,0,0,0,0,0,0,0,0,0,0,0,0,0,0,0,0,
439,-9.95,8.684,-18.97,0.0332,-9.001,6.992,-9.451,-5.708,43.34,7.304,-5.598,-16.55,-5.473,-8.171,-1.108,-10.83,0,0,0,0,0,0,0,0,0,0,0,0,0,0,0,0,
440,-14.32,-4.746,-10.41,-3.006,-4.633,10.44,-8.547,3.911,4.715,15.7,13.55,-7.201,-10.76,-5.856,5.997,-0.061,0,0,0,0,0,0,0,0,0,0,0,0,0,0,0,0,
441,-21.98,-24.05,-7.801,-7.15,-3.886,-26.73,-31.26,-14.1,-71.02,-51.96,-11.79,-31.73,-34.21,-26.76,-13.86,-18.51,0,0,0,0,0,0,0,0,0,0,0,0,0,0,0,0,
442,-52.02,-53.02,-47.8,-23.12,-17.24,-49.26,-48.86,-74.83,-79.53,-57.8,-24.56,-32.68,-21.58,-24.35,-5.345,-12.13,0,0,0,0,0,0,0,0,0,0,0,0,0,0,0,0,
443,-29.13,-17.61,-25.49,-0.5,9.163,-15.1,-3.525,-34.33,-27.71,21.18,-4.332,-3.273,11.85,4.4,6.71,0.3318,0,0,0,0,0,0,0,0,0,0,0,0,0,0,0,0,
444,1.702,7.989,4.709,-4.707,5.7,-6.245,10.79,23.79,-42.81,6.934,5.922,3.186,9.179,6.092,-3.319,-9.566,0,0,0,0,0,0,0,0,0,0,0,0,0,0,0,0,
445,12.28,4.931,-5.9,-13.22,8.646,7.878,1.85,11.71,-33.41,12.95,22.1,15.66,21.76,16.05,8.836,6.012,0,0,0,0,0,0,0,0,0,0,0,0,0,0,0,0,
446,11.07,20.05,-6.193,-5.055,37.27,15.91,2.005,-15.43,38,60.97,-7.746,-3.431,16.27,7.546,4.905,2.274,0,0,0,0,0,0,0,0,0,0,0,0,0,0,0,0,
447,-23.53,1.859,0.8239,-17.55,23.4,-4.804,-6.764,-11.99,59.75,1.551,-27.91,-18.85,-9.368,-12.08,8.661,-6.273,0,0,0,0,0,0,0,0,0,0,0,0,0,0,0,0,
448,-13.15,-18.51,1.052,-4.653,-14.05,8.353,-5.813,3.131,29.45,-63.14,5.68,2.113,-16.49,-20.4,9.386,-9.205,0,0,0,0,0,0,0,0,0,0,0,0,0,0,0,0,
449,-12.89,-35.84,-33.94,-5.487,-53.52,-13.8,-30.86,-13.78,-31.78,-50.99,-33.76,-40.41,-44.96,-47.97,-45.59,-46.02,0,0,0,0,0,0,0,0,0,0,0,0,0,0,0,0,
450,-75.48,-57.3,-44.59,-22.49,-21.51,-50.08,-39.39,-13.85,-44.15,-31.72,-67.14,-64.45,-37.66,-30.82,-49.2,-37.45,0,0,0,0,0,0,0,0,0,0,0,0,0,0,0,0,
451,-54.04,-18.18,12.33,4.71,58.02,-16.32,1.938,7.241,29.94,-29.25,-25.78,-21.67,-1.183,-1.276,-19.04,-12.22,0,0,0,0,0,0,0,0,0,0,0,0,0,0,0,0,
452,-7.787,5.113,14.04,1.097,19.78,-6.076,-4.501,-12.57,30.7,-10.25,-23.07,-22.85,-12.63,-22.52,-30.73,-27,0,0,0,0,0,0,0,0,0,0,0,0,0,0,0,0,
453,-34.38,-19.86,-32.87,-24.41,-59.71,-24.75,-36.59,-33.54,-77.87,9.411,-25.17,-30.25,-19.25,-25.03,-15.72,-16.87,0,0,0,0,0,0,0,0,0,0,0,0,0,0,0,0,
454,-50.4,-33.07,-56.51,-32.6,-64.6,-34.11,-49.82,-41.09,-118.2,-43.45,-23.8,-33.22,-23.93,-32.26,-10.36,-18.38,0,0,0,0,0,0,0,0,0,0,0,0,0,0,0,0,
455,-55.17,-45.23,-57.53,-46.34,-23.6,-39.37,-45.02,-26.25,-3.813,-59.6,-44.14,-46.18,-24.44,-34.88,-26.17,-25.49,0,0,0,0,0,0,0,0,0,0,0,0,0,0,0,0,
456,-40.08,-18.72,4.891,-10.26,48.4,-4.375,-1.476,10.67,66.95,23.52,-25.56,-20.88,2.392,-1.493,-9.648,-3.715,0,0,0,0,0,0,0,0,0,0,0,0,0,0,0,0,
457,-12.87,0.9747,41.6,20.58,52.06,1.665,7.607,-4.153,-40.46,22.31,-13.31,-16.7,-11.66,-16.1,-12.09,-20.56,0,0,0,0,0,0,0,0,0,0,0,0,0,0,0,0,
458,-29.15,-25.59,4.515,1.125,8.288,-21.94,1.76,6.928,-40.9,-8.016,-22.3,-26.83,-12.69,-24.35,-18.1,-35.53,0,0,0,0,0,0,0,0,0,0,0,0,0,0,0,0,
459,-19.88,12.28,14.52,20.08,41.97,9.77,40.62,62.19,113.8,43.61,-10.86,-3.034,24.75,3.782,-2.497,-22.14,0,0,0,0,0,0,0,0,0,0,0,0,0,0,0,0,
460,17.69,42.58,30.15,27.53,52.43,31.22,30.68,16.61,65.97,30.75,-0.2724,1.099,4.493,-20.12,1.598,-28.33,0,0,0,0,0,0,0,0,0,0,0,0,0,0,0,0,
461,10.02,-16.09,-4.185,-12.02,-18.21,8.491,-16.56,-53.7,-114.4,-34.24,3.629,-15.59,-29.96,-45.46,-1.668,-33.05,0,0,0,0,0,0,0,0,0,0,0,0,0,0,0,0,
462,-25.79,-45.9,-23.07,-20.2,-64.01,-22.54,-33.37,-43.11,-143.4,-44.66,-15.56,-30.53,-27.31,-35.18,-16.68,-32.72,0,0,0,0,0,0,0,0,0,0,0,0,0,0,0,0,
463,-38.75,-24.73,-10.11,4.269,-33.73,-29.38,-32.75,-7.677,-66.16,-17.77,-25.86,-20.9,-8.81,-15.17,-12.04,-15.93,0,0,0,0,0,0,0,0,0,0,0,0,0,0,0,0,
464,2.881,0.617,15.82,14.39,25.16,8.057,-9.905,9.287,-6.774,16.26,-6.091,6.447,8.071,5.2,3.545,0.8428,0,0,0,0,0,0,0,0,0,0,0,0,0,0,0,0,
465,23.66,12.91,6.183,-13.74,36.78,11.17,2.788,-12.72,-34.03,12.37,-9.346,-3.945,-3.457,-2.574,-15.32,-20.67,0,0,0,0,0,0,0,0,0,0,0,0,0,0,0,0,
466,-17.1,6.578,-11.48,-21.88,37.3,-18.96,-0.1303,-14.93,-83.37,-7.332,1.359,-10.44,-11.92,-4.962,-12.74,-24.87,0,0,0,0,0,0,0,0,0,0,0,0,0,0,0,0,
467,-30.22,2.352,10.01,7.138,29.72,-14.6,3.806,16.36,-9.673,-4.754,11.05,-1.76,-7.527,8.293,4.232,-16.63,0,0,0,0,0,0,0,0,0,0,0,0,0,0,0,0,
468,-17.17,2.552,10.57,8.743,-7.304,1.782,2.539,14.63,86.36,4.679,-13.4,-9.813,-5.561,7.293,0.378,-23.61,0,0,0,0,0,0,0,0,0,0,0,0,0,0,0,0,
469,-7.982,17.36,13.07,20.61,22.92,15.48,11.68,19.15,17.85,24.35,1.767,-3.972,-4.217,-5.763,1.883,-26.71,0,0,0,0,0,0,0,0,0,0,0,0,0,0,0,0,
470,-10.65,6.994,10.63,24.2,26.82,-1.635,-0.914,9.04,-110.7,9.158,6.466,-11.72,-28.04,-30.44,-5.843,-41.93,0,0,0,0,0,0,0,0,0,0,0,0,0,0,0,0,
471,-31.43,-26.16,-37.48,-16.31,-47.86,-16.92,-15.04,-26.95,-85.75,-11.72,-13.33,-9.501,-13.49,-8.27,5.938,-23.46,0,0,0,0,0,0,0,0,0,0,0,0,0,0,0,0,
472,-6.155,16.97,-15.45,-8.705,-19.12,19.32,23.79,3.083,-6.633,21.76,3.357,20.02,31.26,28.48,19.61,7.009,0,0,0,0,0,0,0,0,0,0,0,0,0,0,0,0,
473,18.28,45.76,45.02,4.997,31.08,14.99,22.12,23.56,-27.21,14.92,-4.668,-0.6469,4.297,0.8275,-10.32,-13.92,0,0,0,0,0,0,0,0,0,0,0,0,0,0,0,0,
474,-1.77,0.3735,41.21,-6.889,25.33,-5.738,-5.336,-0.6952,3.385,-17.38,-4.038,-9.066,-8.659,3.676,-6.2,-6.577,0,0,0,0,0,0,0,0,0,0,0,0,0,0,0,0,
475,9.847,7.683,36.19,25.18,58.49,18.65,19.69,25.38,64.11,4.332,25.8,15.98,15.98,24.9,11.06,9.241,0,0,0,0,0,0,0,0,0,0,0,0,0,0,0,0,
476,14.74,23.53,26.99,32.55,34.74,24.13,27.41,31.91,-4.359,15.34,16.92,10.02,2.252,0.5938,2.661,-10.86,0,0,0,0,0,0,0,0,0,0,0,0,0,0,0,0,
477,15.2,6.664,11.53,9.85,-13.45,34.66,17.07,-31.97,-35.42,1.138,22.91,20.47,3.364,10.54,16.55,-7.335,0,0,0,0,0,0,0,0,0,0,0,0,0,0,0,0,
478,36.96,12.67,19.55,14.7,23,29.8,13.27,-43.64,6.959,4.614,27.27,15.25,8.984,25.71,11.56,-7.055,0,0,0,0,0,0,0,0,0,0,0,0,0,0,0,0,
479,0.1672,7.862,21.67,20.34,30.15,-9.484,6.669,38.38,-14.37,30.63,-4.497,-14.31,7.297,25.98,6.026,0.5096,0,0,0,0,0,0,0,0,0,0,0,0,0,0,0,0,
480,-27.35,8.925,32.19,26.47,-4.493,-1.558,10.23,57.9,-10.22,28.41,-10.46,-1.908,19.75,35.13,17.52,18.48,0,0,0,0,0,0,0,0,0,0,0,0,0,0,0,0,
481,-3.631,6.344,12.18,1.712,-12.86,0.0857,-11.8,-28.93,30.4,-21.23,-6.026,1.908,-3.351,4.453,-4.591,-1.602,0,0,0,0,0,0,0,0,0,0,0,0,0,0,0,0,
482,5.026,-16.77,-28.1,-23.41,-2.189,-2.203,-10.64,-28.83,22.44,-15.7,10.14,6.415,-5.231,5.493,1.389,7.735,0,0,0,0,0,0,0,0,0,0,0,0,0,0,0,0,
483,27.09,11.04,8.909,13.43,13.8,35.31,34.71,36.62,-32.49,18.38,27.25,22.93,27.38,44.21,20.75,23.72,0,0,0,0,0,0,0,0,0,0,0,0,0,0,0,0,
484,29.19,39.07,46.97,22.32,11.26,26.78,33.14,26.38,-94.81,11.31,14.24,11.68,24.63,36.32,9.62,1.829,0,0,0,0,0,0,0,0,0,0,0,0,0,0,0,0,
485,8.564,33.21,35.29,2.522,24.37,18.6,26.67,33.18,-25.94,32.72,22.16,25.62,32.69,41.58,16.4,13.04,0,0,0,0,0,0,0,0,0,0,0,0,0,0,0,0,
486,27.97,39.02,34.38,10.3,40.38,36.28,31.63,43.72,113.3,29.11,22.32,33.69,37.48,50.71,2.272,22.01,0,0,0,0,0,0,0,0,0,0,0,0,0,0,0,0,
487,26.24,23.63,25.69,2.237,2.366,10.21,5.94,-19.31,68.26,-20.57,2.91,4.938,10.44,24.18,-11.82,13.68,0,0,0,0,0,0,0,0,0,0,0,0,0,0,0,0,
488,-1.724,-1.154,2.279,-6.707,-33.4,-6.838,-5.584,-76.96,-68.49,-28.37,-0.0583,-4.068,-4.595,9.769,9.073,17.31,0,0,0,0,0,0,0,0,0,0,0,0,0,0,0,0,
489,-15.09,-19.89,-23.69,-8.425,-34.3,-11.98,-19.63,-93.44,-54.32,-29.53,-18.36,-8.905,-14.53,2.414,0.0894,2.866,0,0,0,0,0,0,0,0,0,0,0,0,0,0,0,0,
490,-15.87,-27.66,-24.71,-8.225,-10.77,-18.75,-24.17,-33.1,35.49,-16.46,-7.354,0.384,-5.49,4.657,-3.789,1.945,0,0,0,0,0,0,0,0,0,0,0,0,0,0,0,0,
491,5.113,-2.457,5.468,-1.468,11,-8.505,1.569,42,-3.907,-0.9551,9.184,6.612,6.969,11.43,-0.4872,3.256,0,0,0,0,0,0,0,0,0,0,0,0,0,0,0,0,
492,4.311,3.962,3.781,-22.44,8.309,-11.41,5.274,23.52,-107.6,-9.377,-19.78,-10.75,12.05,21.39,-17.43,-1.018,0,0,0,0,0,0,0,0,0,0,0,0,0,0,0,0,
493,11.68,20.4,11.2,-13.3,41.7,15.45,27.8,28.37,-52.93,43.76,-0.1529,14.64,44.21,42.6,-9.319,22.9,0,0,0,0,0,0,0,0,0,0,0,0,0,0,0,0,
494,46.43,49.14,40.03,26.84,54.39,41.22,42.83,37.37,86.88,46.55,16.23,22.38,31.81,11,-14.34,12.1,0,0,0,0,0,0,0,0,0,0,0,0,0,0,0,0,
495,18.48,7.59,20.61,14.59,-0.1164,8.077,1.367,-39.45,107.1,-40.48,-8.056,-4.171,-3.166,-16.49,-16.74,0.1669,0,0,0,0,0,0,0,0,0,0,0,0,0,0,0,0,
496,-7.636,-10.16,9.206,0.1788,2.005,1.188,-0.6044,-39.63,34.37,-11.85,18.48,16.52,17.98,18.03,10.64,28.55,0,0,0,0,0,0,0,0,0,0,0,0,0,0,0,0,
497,15.39,20.13,16.92,1.732,21.13,8.573,16.34,21.43,-38.35,44.78,16.12,14.13,14.73,15.84,-5.329,15.93,0,0,0,0,0,0,0,0,0,0,0,0,0,0,0,0,
498,8.627,0.9766,6.478,-2.611,-8.867,-5.981,-6.765,-1.92,-54.07,-10.42,-23.33,-14.45,-10.59,-3.815,-23.74,-3.448,0,0,0,0,0,0,0,0,0,0,0,0,0,0,0,0,
499,-5.113,-23.84,-2.411,3.099,-18.09,-7.391,-24.98,-40.97,-15.38,-48.74,-11.47,-7.888,-11.98,-0.882,-15.22,0.9547,0,0,0,0,0,0,0,0,0,0,0,0,0,0,0,0,
500,-10.24,-26.26,-23.54,-18.4,-15.33,-10.73,-15.07,-20.41,-8.611,-6.958,-1.45,0.1968,-9.213,1.215,-12.87,4.351,0,0,0,0,0,0,0,0,0,0,0,0,0,0,0,0,
501,-8.529,-5.622,-11.62,-32.25,-3.581,-0.3073,25.78,32.25,-43.61,46.5,-5.977,14.68,13.5,25.64,8.619,23.77,0,0,0,0,0,0,0,0,0,0,0,0,0,0,0,0,
502,5.256,20.25,19.11,-7.069,4.973,0.7569,26.51,33.9,-55.47,27.8,-3.189,19.04,12.51,24.05,15.32,16.81,0,0,0,0,0,0,0,0,0,0,0,0,0,0,0,0,
503,-6.61,-7.082,-4.735,0.0977,-7.289,-22.97,-18.63,-20.3,-7.992,-24.35,-5.25,-1.008,-15.37,-3.939,-4.976,-6.77,0,0,0,0,0,0,0,0,0,0,0,0,0,0,0,0,
504,-13.4,-23.77,-1.364,-12.04,16.75,-12.28,-12.87,-30.04,31.35,-10.74,-19.79,-15.69,-16.93,-7.78,-26.41,-12.99,0,0,0,0,0,0,0,0,0,0,0,0,0,0,0,0,
505,-7.218,-7.634,29.21,-24.2,30.21,1.829,-2.153,-4.894,-8.702,13.18,-36.94,-17.32,-11.2,-11.12,-40.14,-18.12,0,0,0,0,0,0,0,0,0,0,0,0,0,0,0,0,
506,13.14,4.027,19.82,3.37,12.72,23.61,-0.0356,10.54,-10.67,13.37,7.224,24.57,13.83,13.13,-5.868,5.842,0,0,0,0,0,0,0,0,0,0,0,0,0,0,0,0,
507,60.18,28.79,7.31,42.81,23.69,54.5,31.98,9.048,60.7,10.69,39.66,40.5,26.33,35.94,10.07,16.35,0,0,0,0,0,0,0,0,0,0,0,0,0,0,0,0,
508,38.92,18.2,-7.932,9.536,26.92,24.71,28.96,-17.35,64.55,-9.992,-21.37,-13.11,2.208,14.51,-24.78,-1.51,0,0,0,0,0,0,0,0,0,0,0,0,0,0,0,0,
509,-7.79,2.928,11.89,-2.19,27.75,0.5881,18.25,-1.612,4.496,-0.4744,-38.67,-18.6,11.81,15.3,-19.78,10.4,0,0,0,0,0,0,0,0,0,0,0,0,0,0,0,0,
510,3.013,28.6,61.69,38.25,28.95,1.736,28.77,44.27,-43.68,19.24,5.723,3.672,18.25,23.18,0.4075,8.432,0,0,0,0,0,0,0,0,0,0,0,0,0,0,0,0,
511,-3.018,20.68,50.88,34.52,10.3,-4.25,25.76,31.01,-42.25,3.986,17.78,6.967,8.906,26.82,11.15,3.662,0,0,0,0,0,0,0,0,0,0,0,0,0,0,0,0,
512,14.36,15.88,36.59,29.1,29.07,30.22,37.36,-2.518,-4.788,15.38,9.975,27.73,23.48,39.01,17.74,13.54,0,0,0,0,0,0,0,0,0,0,0,0,0,0,0,0,
513,52.84,34.15,48.28,32.12,44,39.12,42.74,16.62,-20.03,40.6,-2.224,20.31,12.6,21.07,-5.912,-5.784,0,0,0,0,0,0,0,0,0,0,0,0,0,0,0,0,
514,27.72,23.63,33.5,20.66,5.178,14.92,29.72,58.28,-51.31,17.38,11.19,10.63,1.935,22.73,-7.123,-2.926,0,0,0,0,0,0,0,0,0,0,0,0,0,0,0,0,
515,13.12,15.68,7.041,10.78,-40.91,21.6,17.09,33.36,-27.58,-24.03,15.96,15.46,4.815,39.88,-3.298,5.339,0,0,0,0,0,0,0,0,0,0,0,0,0,0,0,0,
516,14.57,6.227,-19.97,-15.96,-52.84,9.494,2.976,-12.12,15.85,-3.712,-22.86,-5.519,-0.7522,35.75,-17.23,-3.266,0,0,0,0,0,0,0,0,0,0,0,0,0,0,0,0,
517,6.075,14.02,0.3109,1.996,4.646,-0.5753,18.27,7.005,56.63,35.58,-13.62,4.264,23.62,52.47,6.939,23.17,0,0,0,0,0,0,0,0,0,0,0,0,0,0,0,0,
518,10.81,30.55,38.22,34.33,28.92,-8.533,3.721,-20.96,45.79,-28.49,10.18,13.68,19.45,43.16,14.52,23.29,0,0,0,0,0,0,0,0,0,0,0,0,0,0,0,0,
519,-13.44,-11.72,4.484,-8.6,-37.19,-30.58,-39.72,-77.05,-16.16,-76.99,-2.301,-1.09,-9.852,19.41,-1.502,2.202,0,0,0,0,0,0,0,0,0,0,0,0,0,0,0,0,
520,2.001,-21.94,-14.96,-22.32,-41.83,9.53,-5.218,-26.75,-67.84,-12.01,14.08,25.03,3.9,27.84,2.925,5.746,0,0,0,0,0,0,0,0,0,0,0,0,0,0,0,0,
521,59.97,11.07,9.459,8.16,5.354,39.58,21.2,18.28,-80.48,6.49,15.53,28.49,-3.538,5.728,-11.42,-11.7,0,0,0,0,0,0,0,0,0,0,0,0,0,0,0,0,
522,24.32,-4.341,15,8.979,18.55,6.212,-5.112,10.75,-3.296,-18.81,-15.17,-5.663,-15.56,-1.847,-21.06,-14.51,0,0,0,0,0,0,0,0,0,0,0,0,0,0,0,0,
523,-39.42,-6.656,25.18,5.158,26.8,-12.81,1.441,25.38,55.75,-14.84,-15.19,-11.26,1.843,24.13,-20.98,-4.74,0,0,0,0,0,0,0,0,0,0,0,0,0,0,0,0,
524,-33.88,7.368,19.92,-6.986,3.008,-14.47,10.61,25.72,16.77,-18.5,-3.451,-3.118,-2.278,15.78,-26.96,-13.37,0,0,0,0,0,0,0,0,0,0,0,0,0,0,0,0,
525,-2.056,2.864,5.756,3.944,-26.73,7.965,14.54,3.015,30.74,-3.461,-16.49,-1.266,0.7914,14.04,-12.9,2.215,0,0,0,0,0,0,0,0,0,0,0,0,0,0,0,0,
526,2.412,11.74,17.12,29.11,-5.358,16.28,16.98,-34.94,16.01,-11.47,-43.11,-18.82,8.349,22.18,-19.59,8.642,0,0,0,0,0,0,0,0,0,0,0,0,0,0,0,0,
527,-20.49,5.612,6.61,-2.735,3.445,-16.03,-3.927,-41.95,-75.88,-40,-28.22,-23.28,-4.369,18.67,-32.55,0.6836,0,0,0,0,0,0,0,0,0,0,0,0,0,0,0,0,
528,-8.96,-15.84,-23.46,-33.76,-51.43,-14.31,-12.95,6.674,-23.41,-2.659,-2.214,-8.459,-14.96,17,-23.91,1.593,0,0,0,0,0,0,0,0,0,0,0,0,0,0,0,0,
529,-1.194,-26.48,-34.74,-36.76,-96.03,-16.82,-22.29,-11.95,41,17.71,-16.75,-22.27,-21.43,6.076,-27.8,-10.19,0,0,0,0,0,0,0,0,0,0,0,0,0,0,0,0,
530,-31.02,-14.05,-12.43,-33.25,-26.49,-28.33,-20.37,-46.4,-45.34,-8.332,-0.5262,-12.66,-9.347,7.643,-18.39,-8.389,0,0,0,0,0,0,0,0,0,0,0,0,0,0,0,0,
531,-15.37,7.684,13.2,-11.77,45.78,1.082,5.607,12.13,-67.18,-13.3,0.6099,2.099,-15.6,-5.002,-20.07,-17.31,0,0,0,0,0,0,0,0,0,0,0,0,0,0,0,0,
532,2.86,-18.25,4,-2.424,2.97,3.856,3.575,34.75,19.54,-9.519,-46.44,-23.28,-39.68,-27.08,-38.52,-31.1,0,0,0,0,0,0,0,0,0,0,0,0,0,0,0,0,
533,-9.875,-34.65,9.943,6.977,-12.1,-4.423,-6.438,-16.38,50.46,-15.37,-27.62,-12.03,-19.01,-5.908,-20.05,-3.507,0,0,0,0,0,0,0,0,0,0,0,0,0,0,0,0,
534,-1.481,-14.11,13.15,5.446,8.826,1.45,-16.31,-38.74,-5.134,-44.73,-0.1111,2.043,-7.933,-3.864,-13.12,2.578,0,0,0,0,0,0,0,0,0,0,0,0,0,0,0,0,
535,-1.594,-15,0.0452,-9.639,-16.82,-6.696,-9.043,5.366,-28.96,-17.89,4.506,-1.065,-1.924,1.863,-10.35,4.613,0,0,0,0,0,0,0,0,0,0,0,0,0,0,0,0,
536,2.599,13.8,36.07,23.59,-13.51,4.222,37.72,57.97,32.59,71.93,26.85,14.05,26.04,39.55,1.016,21.59,0,0,0,0,0,0,0,0,0,0,0,0,0,0,0,0,
537,2.366,33.67,28.74,25.98,-3.589,0.766,26.4,34.73,34.82,54.02,-8.932,-12.23,6.103,25.18,-19.92,1.635,0,0,0,0,0,0,0,0,0,0,0,0,0,0,0,0,
538,-19.99,-0.7481,-26.4,-17.64,0.0358,-10.04,-14.73,2.418,-32.51,-12.22,-22.34,-16.79,-7.126,18.97,-8.265,5.081,0,0,0,0,0,0,0,0,0,0,0,0,0,0,0,0,
539,10.07,-4.383,-15.84,-15.74,15.92,7.041,-10.37,1.329,-10.24,-12.72,15.79,20.11,1.175,28.92,5.096,10.92,0,0,0,0,0,0,0,0,0,0,0,0,0,0,0,0,
540,33.02,-14.72,-14.65,-19.1,-21.93,-5.167,-15.94,-27.18,46.13,-16.2,-12.41,-2.409,-17.7,-2.376,-24.64,-17.04,0,0,0,0,0,0,0,0,0,0,0,0,0,0,0,0,
541,2.207,-19.83,-19.79,-11.05,-34.21,-6.125,0.7368,-25.75,15.64,-16.58,-17.39,-12.87,6.356,15.02,-7.445,-1.847,0,0,0,0,0,0,0,0,0,0,0,0,0,0,0,0,
542,2.523,31.21,18.99,23.95,7.76,14.8,22.31,-1.397,-8.179,-34.93,17.29,11.9,35.43,51.5,18.92,14,0,0,0,0,0,0,0,0,0,0,0,0,0,0,0,0,
543,15.26,35.77,29.9,10.35,22.47,4.33,-5.731,0.0558,54,-46.73,4.257,8.953,19.99,36.24,13.7,6.679,0,0,0,0,0,0,0,0,0,0,0,0,0,0,0,0,
544,14.78,8.462,32.76,8.4,39.02,8.712,-3.897,16.57,55.33,31.18,2.692,8.116,10.23,14.1,14.27,8.216,0,0,0,0,0,0,0,0,0,0,0,0,0,0,0,0,
545,9.585,-1.079,20.57,16.56,19.02,10.13,8.969,11.12,-21.48,51.48,9.639,-0.2606,-8.974,-1.417,-1.501,-8.239,0,0,0,0,0,0,0,0,0,0,0,0,0,0,0,0,
546,-4.8,-15.19,-16.95,-7.734,-28.56,1.168,4.83,10.32,21.99,0.5731,0.6491,-11.91,-12.08,17.81,-11.35,-9.389,0,0,0,0,0,0,0,0,0,0,0,0,0,0,0,0,
547,-1.433,0.5115,-4.181,0.5916,-13.23,14.88,17.01,35.76,78.04,30.62,-4.765,-11.43,-1.897,32.29,-12.53,-11.31,0,0,0,0,0,0,0,0,0,0,0,0,0,0,0,0,
548,2.122,1.847,13.91,2.977,3.634,2.547,-0.7283,4.851,14.2,44.38,-3.681,-12.46,-24.12,-3.266,-14.08,-30.36,0,0,0,0,0,0,0,0,0,0,0,0,0,0,0,0,
549,11.43,-23.56,-2.086,-18.67,-4.69,-14.44,-24.12,-15.68,-0.7137,-15,27.42,2.605,-26.82,-6.164,4.576,-12.75,0,0,0,0,0,0,0,0,0,0,0,0,0,0,0,0,
550,15.01,-22.11,-29.13,-11.31,-23.16,-25.29,-29.53,0.9189,-28.1,-39.67,28.46,-8.365,-23.16,9.386,-7.308,-5.75,0,0,0,0,0,0,0,0,0,0,0,0,0,0,0,0,
551,-28.83,-25.68,-44.86,-4.762,-41.79,-46.25,-39.07,-25.5,-83.61,-21.74,-6.781,-32.03,-29.45,7.537,-22.33,-8.982,0,0,0,0,0,0,0,0,0,0,0,0,0,0,0,0,
552,-36.88,-16.46,-6.475,-9.434,-7.029,-27.44,-21.73,-50.7,30.25,-16.18,-10.75,-21.4,-14.96,15.31,-9.619,7.715,0,0,0,0,0,0,0,0,0,0,0,0,0,0,0,0,
553,-13.53,-1.367,7.067,-20.01,7.317,-9.013,-13.09,-41.77,74.46,-22.39,-27.72,-31.04,-18.21,7.628,-21.88,2.188,0,0,0,0,0,0,0,0,0,0,0,0,0,0,0,0,
554,-12.96,-17.04,-15.12,-16.22,-17.49,-3.051,-13.34,0.6029,-78.08,3.636,-23.57,-24.48,-15.88,9.248,-13.75,10.33,0,0,0,0,0,0,0,0,0,0,0,0,0,0,0,0,
555,22.96,-9.059,21.19,10.03,-0.6086,13.61,9.019,42.6,-57.32,24.48,23.57,6.364,0.7158,16.93,6.771,22.24,0,0,0,0,0,0,0,0,0,0,0,0,0,0,0,0,
556,28.38,3.132,45.05,3.141,20.84,-8.406,2.374,14.66,101.8,2.307,20.22,-8.916,-5.085,0.1583,-2.782,8.958,0,0,0,0,0,0,0,0,0,0,0,0,0,0,0,0,
557,-10.06,0.439,27.21,0.6539,31.69,-14.6,-3.874,-14.52,70.22,-3.742,8.447,-8.749,2.781,-1.435,6.902,13.81,0,0,0,0,0,0,0,0,0,0,0,0,0,0,0,0,
558,8.316,13.37,2.351,24.99,9.476,12.67,13.59,-6.122,-24.51,5.544,18.94,9.273,6.278,-9.055,12.53,10.5,0,0,0,0,0,0,0,0,0,0,0,0,0,0,0,0,
559,24.55,17.53,-25.96,18.4,-32.24,14.04,15.24,-14.09,37.15,23.98,22.99,8.33,1.345,-12.71,15.18,15.73,0,0,0,0,0,0,0,0,0,0,0,0,0,0,0,0,
560,26.3,23.21,8.318,-1.129,10.13,18.59,8.848,-22.35,79.2,35.8,50.5,27.54,17.01,17.67,35.11,44.73,0,0,0,0,0,0,0,0,0,0,0,0,0,0,0,0,
561,53.19,23.19,35.38,-20.08,38.64,16.57,-3.95,-7.213,-0.2459,2.303,63.68,36.67,22.96,36.5,36.54,50.76,0,0,0,0,0,0,0,0,0,0,0,0,0,0,0,0,
562,56.32,22.83,12.92,-5.348,9.045,15.5,16.59,44.89,6.976,22.05,62.77,41.31,40.59,52.95,61.73,73.63,0,0,0,0,0,0,0,0,0,0,0,0,0,0,0,0,
563,49.52,52.24,42.11,41.29,47.99,29.26,48.77,66.41,78.93,68.2,87.48,59.52,53.27,44.31,85.79,87.8,0,0,0,0,0,0,0,0,0,0,0,0,0,0,0,0,
564,45.48,49.08,42.42,22.61,54.26,13.73,19.31,3.274,61.95,23.14,78.91,46.31,36.97,9.469,54.05,60.23,0,0,0,0,0,0,0,0,0,0,0,0,0,0,0,0,
565,35.15,30.77,-12.27,-9.659,-40.25,15.16,4.424,-21.19,17.67,-11.18,16.48,15.88,37.8,13.63,21.2,45.69,0,0,0,0,0,0,0,0,0,0,0,0,0,0,0,0,
566,26.51,27.22,-9.271,-3.668,-62.82,20.03,10.93,-4.607,-21.65,-1.608,-33.04,-9.758,20.15,1.178,-2.435,21.37,0,0,0,0,0,0,0,0,0,0,0,0,0,0,0,0,
567,11.17,3.648,5.554,-11.07,18.93,-6.291,-11.33,-31.02,-7.8,-1.362,-12.97,-6.484,1.696,-21.31,-2.249,9.834,0,0,0,0,0,0,0,0,0,0,0,0,0,0,0,0,
568,6.85,13.6,-14.31,-2.784,29.31,-1.887,-9.813,-38.39,54.22,2.876,13.91,7.161,14.31,-9.37,12.75,26.27,0,0,0,0,0,0,0,0,0,0,0,0,0,0,0,0,
569,-10.84,18.39,-27.6,0.1133,-50.07,-6.013,-0.9254,2.158,16.81,-0.483,-5.204,-8.428,7.946,-8.507,-0.6174,18.55,0,0,0,0,0,0,0,0,0,0,0,0,0,0,0,0,
570,-11.35,1.294,4.528,-5.17,-16.4,-7.529,17.83,61.52,2.534,41.64,22.42,21.76,32.5,18.29,10.68,28.17,0,0,0,0,0,0,0,0,0,0,0,0,0,0,0,0,
571,51.71,38.08,39.65,17.99,60.35,26.08,36.4,51.01,81.16,66.8,49.11,49.86,50.79,27.03,18.19,26.4,0,0,0,0,0,0,0,0,0,0,0,0,0,0,0,0,
572,47.69,29.56,-4.617,4.575,-5.456,8.142,-0.7012,-44.96,57.93,-12.05,12.06,6.473,14.05,-12.53,2.861,1.809,0,0,0,0,0,0,0,0,0,0,0,0,0,0,0,0,
573,-1.188,2.002,-25.9,-3.118,-27.13,-6.987,1.932,-41.84,-7.659,-20.22,24.94,10.1,29.12,11.93,28.31,23.42,0,0,0,0,0,0,0,0,0,0,0,0,0,0,0,0,
574,17.34,37.09,15.47,13.88,25.09,2.395,20.22,19.71,-36.53,32.76,21.04,13.51,21.54,11.09,14.15,7.627,0,0,0,0,0,0,0,0,0,0,0,0,0,0,0,0,
575,-3.805,-2.592,-7.807,-24.16,-27.78,-35.04,-30.63,-4.746,-61.89,13.19,-41.43,-36.31,-36.59,-44.9,-21.4,-25.49,0,0,0,0,0,0,0,0,0,0,0,0,0,0,0,0,
576,-42.2,-42.99,-41.26,-30.24,-52.29,-35.76,-27.15,-11.68,-7.388,9.471,-13.84,-15.79,-1.694,-16.5,10.53,12.53,0,0,0,0,0,0,0,0,0,0,0,0,0,0,0,0,
577,-5.264,14.53,-28.22,5.066,7.482,-2.426,9.751,2.734,48.1,4.338,35.78,21.05,33.76,8.667,11.69,20.44,0,0,0,0,0,0,0,0,0,0,0,0,0,0,0,0,
578,19.16,17.32,-26.19,-11.26,17.63,-4.808,-6.353,-8.618,27.92,-32.48,4.795,4.56,0.2695,-21.93,-11.56,-1.933,0,0,0,0,0,0,0,0,0,0,0,0,0,0,0,0,
579,4.134,-19.09,-28.3,-31.67,-12.47,-6.21,-8.706,7.392,9.12,-24.87,-22.96,-0.9847,-2.002,-21.7,13.48,7.813,0,0,0,0,0,0,0,0,0,0,0,0,0,0,0,0,
580,-10.71,-10.49,-31.42,-32.54,-35.22,-6.094,-8.941,2.917,-23.11,-22.93,-1.485,9.761,11.91,-16.01,24.81,8.072,0,0,0,0,0,0,0,0,0,0,0,0,0,0,0,0,
581,-4.932,-3.345,-17.55,-24.04,-20.83,-4.612,-14.5,-14.74,-46.44,-25.67,18.35,14.32,6.346,-21.87,3.412,-2.823,0,0,0,0,0,0,0,0,0,0,0,0,0,0,0,0,
582,9.575,-1.894,3.723,-4.837,2.758,-0.2126,12.87,15.39,7.101,28.13,-9.516,0.5604,7.95,-12.08,-5.841,-6.599,0,0,0,0,0,0,0,0,0,0,0,0,0,0,0,0,
583,4.938,20.42,3.332,10.37,2.898,10.74,35.49,29.7,100.6,72.65,-16.84,1.949,29.51,12.18,13.15,4.781,0,0,0,0,0,0,0,0,0,0,0,0,0,0,0,0,
584,20.33,40.01,17.27,22.21,11.71,28.64,11.5,-31.06,108.9,29.51,7.405,13.02,17.63,-0.4564,2.738,-8.016,0,0,0,0,0,0,0,0,0,0,0,0,0,0,0,0,
585,12.02,-7.513,-5.141,-7.258,-16.5,-12.14,-47.29,-94.11,-17.31,-44.55,-25.79,-27.51,-42.23,-55.59,-44.67,-53.92,0,0,0,0,0,0,0,0,0,0,0,0,0,0,0,0,
586,-39.52,-64.9,-51.32,-29.26,-41.78,-41.89,-55.22,-46.08,-64.55,-36.64,-44.11,-42.71,-39.47,-44.26,-32.83,-42.09,0,0,0,0,0,0,0,0,0,0,0,0,0,0,0,0,
587,-25.72,-35.75,-31.1,8.194,2.196,-2.323,-17.75,15.06,5.191,-14.86,-15.39,-12.38,-1.36,-1.374,-2.787,-14.42,0,0,0,0,0,0,0,0,0,0,0,0,0,0,0,0,
588,-4.714,-12.54,-23.8,-1.139,-3.303,-10.96,-21.52,-17.19,-28.4,-40.67,-6.837,-12.86,-13.82,-15.18,-5.101,-23.41,0,0,0,0,0,0,0,0,0,0,0,0,0,0,0,0,
589,-28.21,-28.02,-39.42,-48.12,-44.32,-34.88,-18.19,-13.06,-44.25,-14.13,8.472,-5.891,-13.57,-19.92,8.531,-12.46,0,0,0,0,0,0,0,0,0,0,0,0,0,0,0,0,
590,-15.68,-23.88,-23.39,-56.38,-22.03,-17.17,-6.034,-0.7158,57.51,8.395,-10.29,-7.503,-9.905,-12.62,-6.919,-17.17,0,0,0,0,0,0,0,0,0,0,0,0,0,0,0,0,
591,-7.002,-25.31,-8.958,-35.5,11.98,-21.29,-24.09,-48.66,56.16,-16.49,-48.06,-33.9,-20.68,-10.42,-34.08,-31.26,0,0,0,0,0,0,0,0,0,0,0,0,0,0,0,0,
592,-28.76,-15.24,17.24,8.803,13.56,-21.59,-17.89,-19.13,5.899,2.891,-23.58,-29.68,-11.99,-2.602,-25.26,-25.96,0,0,0,0,0,0,0,0,0,0,0,0,0,0,0,0,
593,-34.93,-9.288,1.703,4.5,-22.09,-0.2966,-15.6,21.82,86.62,18.59,-17.44,-24.93,-21.16,-21.06,-33.17,-43.12,0,0,0,0,0,0,0,0,0,0,0,0,0,0,0,0,
594,-17.85,-31.07,-49.13,-30.06,-40.4,11.37,-30.58,-32.19,136.7,7.241,-26.72,-20.07,-27.43,-25.43,-33.79,-42.61,0,0,0,0,0,0,0,0,0,0,0,0,0,0,0,0,
595,-9.578,-31.03,-25.7,-11.34,-13.71,-11.7,-28.42,-58.48,-14.62,-15.74,-1.86,-13.63,-19.14,-16.31,-18.8,-27.4,0,0,0,0,0,0,0,0,0,0,0,0,0,0,0,0,
596,-45.93,-29.64,-14.26,-13.99,-8.759,-44.43,-25.79,-22.85,-162.2,-59.53,-1.015,-23.37,-16.65,-15.93,-17.12,-22.39,0,0,0,0,0,0,0,0,0,0,0,0,0,0,0,0,
597,-41.98,-17.73,-36.12,-25.47,1.235,-13.68,-5.148,-2.82,-87.28,-37.42,-11.72,-12.1,2.242,7.172,-11.44,-4.719,0,0,0,0,0,0,0,0,0,0,0,0,0,0,0,0,
598,-0.451,-2.236,-3.735,1.768,18.27,0.7714,-7.554,-20.95,21.86,15.63,-19.04,-17.57,-4.608,1.626,-19.64,-17.86,0,0,0,0,0,0,0,0,0,0,0,0,0,0,0,0,
599,-26.1,-26.26,13.81,4.995,8.639,-23.09,-31.46,-18.98,31.97,30.15,-7.492,-23.07,-13.72,-12.71,-13.62,-28.05,0,0,0,0,0,0,0,0,0,0,0,0,0,0,0,0,
600,-13.79,-8.279,-0.0062,2.267,23.75,18.32,1.715,8.091,87.22,41.29,19.29,10.49,4.086,-0.1203,-1.229,-15.82,0,0,0,0,0,0,0,0,0,0,0,0,0,0,0,0,
601,35.59,12.3,-9.764,-2.465,27.23,32.91,13.41,-19.38,136.5,11.68,-10.24,-0.9383,-16.9,-17.87,-21.46,-33.13,0,0,0,0,0,0,0,0,0,0,0,0,0,0,0,0,
602,1.054,-26.76,-17.02,-6.071,8.734,0.4824,-9.114,-29.83,63.39,-29.21,-21.96,-19.56,-20.48,-13.11,-7.278,-22.01,0,0,0,0,0,0,0,0,0,0,0,0,0,0,0,0,
603,-23.56,-27.07,-13.06,7.469,-6.379,-3.558,-9.927,4.601,-54.42,-41.37,8.267,-13.5,-5.876,1.003,-2.71,-11.73,0,0,0,0,0,0,0,0,0,0,0,0,0,0,0,0,
604,-28.52,-30.13,-37.38,-28.5,-55.95,-42.05,-42.88,-22.21,-115.1,-41.15,-18.87,-41.33,-33.83,-28.21,-35.16,-36.2,0,0,0,0,0,0,0,0,0,0,0,0,0,0,0,0,
605,-58.67,-53.42,-48.78,-43.96,-38.78,-59.14,-53.53,-39.27,-78.72,12.74,-41.47,-41.13,-25.73,-15.61,-13.81,-14.11,0,0,0,0,0,0,0,0,0,0,0,0,0,0,0,0,
606,-52.48,-31.28,-16.7,-2.635,35.51,-30.08,-27.6,-19.11,-19.4,14.21,-34.1,-29.93,-11.18,0.2488,-8.404,-6.703,0,0,0,0,0,0,0,0,0,0,0,0,0,0,0,0,
607,-50.15,-35.52,-17.64,-16.73,1.905,-40.18,-36.64,-38.87,7.882,-44.26,-33.5,-46.88,-27.84,-17.11,-29.92,-30.74,0,0,0,0,0,0,0,0,0,0,0,0,0,0,0,0,
608,-43.77,-41.97,-22.29,-27.64,-61.36,-23.22,-21.67,-48.33,26.09,5.58,-3.553,-19.68,-6.506,-5.433,-4.892,-18.03,0,0,0,0,0,0,0,0,0,0,0,0,0,0,0,0,
609,10.55,-9.766,-20.67,-7.582,-52.87,18.67,3.723,-22.14,8.084,35.04,12.95,13.58,5.661,-10.89,-1.52,-16.66,0,0,0,0,0,0,0,0,0,0,0,0,0,0,0,0,
610,35.44,-11.83,-35.47,-23.56,-8.287,18.01,-6.582,27.82,-7.822,-24.94,-1.812,7.81,-9.856,-28.95,-13.65,-22.74,0,0,0,0,0,0,0,0,0,0,0,0,0,0,0,0,
611,7.614,-26.67,-4.914,-13.33,36.94,1.843,-10.51,36.89,-17.55,-14,-13.02,-10.35,-14.14,-21.41,-7.087,-20.68,0,0,0,0,0,0,0,0,0,0,0,0,0,0,0,0,
612,-26.82,-24.15,34.2,14.9,35,-17.45,-12.48,-48.83,-56.05,2.122,-19.35,-20.67,-16.99,-16.5,-12.47,-25.61,0,0,0,0,0,0,0,0,0,0,0,0,0,0,0,0,
613,-20.84,-12.72,28.04,-3.499,18.18,-12.06,-7.255,-71.89,-10.19,-34.83,-5.628,-7.103,-15.22,-17.83,-13.81,-17.53,0,0,0,0,0,0,0,0,0,0,0,0,0,0,0,0,
614,2.113,-9.517,-6.563,-23.95,1.193,1.856,-4.028,-4.754,58.39,-22.47,-0.5349,-14.71,-24.07,-28.54,-16.28,-20.72,0,0,0,0,0,0,0,0,0,0,0,0,0,0,0,0,
615,-12.05,-23.15,-40.28,4.468,-46.8,5.727,-7.91,19.52,0.8499,23.97,3.986,-21.73,-13.09,-5.982,-5.883,-11.29,0,0,0,0,0,0,0,0,0,0,0,0,0,0,0,0,
616,-6.879,-0.4913,-14.99,37.93,-47.67,26.02,11.28,23.65,-74.36,21.16,16.56,-1.573,10.48,18.3,2.083,3.987,0,0,0,0,0,0,0,0,0,0,0,0,0,0,0,0,
617,-1.457,8.112,22.05,3.168,2.987,-0.8771,3.949,14.3,-72.99,-17.04,-18.59,-25.29,-20.03,-30.19,-31.97,-24.77,0,0,0,0,0,0,0,0,0,0,0,0,0,0,0,0,
618,-25.26,-18.58,22.42,-21.87,25.65,-25.62,-8.12,-3.766,24.58,-14.96,-33.1,-31.75,-17.35,-29.78,-28.51,-18.63,0,0,0,0,0,0,0,0,0,0,0,0,0,0,0,0,
619,8.187,9.04,25.21,12.11,9.272,21.08,11.69,9.376,120.5,2.42,-10.17,-0.1306,20.74,15.13,-5.125,2.634,0,0,0,0,0,0,0,0,0,0,0,0,0,0,0,0,
620,22.82,15.28,1.888,5.296,-25.93,11.88,-7.776,2.93,16.33,-2.919,-26.72,-22.24,-10.02,-22.92,-27.79,-26.59,0,0,0,0,0,0,0,0,0,0,0,0,0,0,0,0,
621,-32.54,-30.04,-24.28,-7.029,-27.3,-32.27,-25.65,-15.45,-104.7,8.847,-26.27,-36.4,-35.47,-52.47,-28.08,-33.51,0,0,0,0,0,0,0,0,0,0,0,0,0,0,0,0,
622,-37.18,-32.72,-18.58,5.668,0.9424,-11.52,-4.809,-18.75,-26.1,0.3734,-3.929,-13.44,-16.57,-32.25,-12.5,-25.65,0,0,0,0,0,0,0,0,0,0,0,0,0,0,0,0,
623,-2.913,-9.529,-11.88,-7.69,9.307,19.71,9.766,-8.374,16.87,-20.83,-4.594,-4.358,7.275,-13.43,-10.63,-21.45,0,0,0,0,0,0,0,0,0,0,0,0,0,0,0,0,
624,10,25.81,24.35,8.956,2.456,29.4,26.12,16.62,-53.17,-4.446,-11.03,-1.161,30.3,11.52,-0.6959,-0.3217,0,0,0,0,0,0,0,0,0,0,0,0,0,0,0,0,
625,9.622,44.95,46.65,31.46,-5.046,18.24,21.14,-3.884,-14.6,1.433,-18.63,-2.598,24.04,9.876,7.199,7.944,0,0,0,0,0,0,0,0,0,0,0,0,0,0,0,0,
626,11.61,21.79,18.45,13.61,14.86,2.125,2.794,-22.18,79.22,7.073,5.294,7.283,11.46,-12.6,16.95,16.48,0,0,0,0,0,0,0,0,0,0,0,0,0,0,0,0,
627,8.996,0.5744,-1.85,-6.162,16.63,-18.06,-10.08,3.598,28.11,-0.1117,13.25,-0.9887,-5.453,-31.75,0.8573,7.402,0,0,0,0,0,0,0,0,0,0,0,0,0,0,0,0,
628,-32.2,-28.84,-25.42,-24.89,-29.54,-42.75,-29.19,-6.185,-74.68,-27.36,-24.24,-28.58,-23.53,-37.63,-18.49,-16.16,0,0,0,0,0,0,0,0,0,0,0,0,0,0,0,0,
629,-37.06,-21.82,-23.84,3.381,-28.71,-7.712,2.526,2.02,-62.55,8.76,-16.09,-5.909,0.5639,-20.7,0.0999,-12.58,0,0,0,0,0,0,0,0,0,0,0,0,0,0,0,0,
630,13.9,18.38,-0.9663,25.33,-19.26,22.83,25.87,28.07,26.86,16.5,-12.73,2.495,-1.034,-32.54,-12.67,-32.04,0,0,0,0,0,0,0,0,0,0,0,0,0,0,0,0,
631,17.85,-6.436,-18.34,-29.28,-23.31,-3.749,-14.85,-18.28,114.5,-35.82,-28.08,-12.51,-16.62,-31.02,-22.26,-42.21,0,0,0,0,0,0,0,0,0,0,0,0,0,0,0,0,
632,12.8,-11.53,-7.435,-29.54,19.9,-5.446,-14.74,-61.62,78.54,-21.42,1.854,4.333,11.56,9.764,3.079,-16.89,0,0,0,0,0,0,0,0,0,0,0,0,0,0,0,0,
633,-0.1231,18.29,5.302,-5.787,4.008,-19.59,-2.85,-56.27,-84.9,-4.958,-10.87,-16.08,4.623,-1.659,-12.44,-25.75,0,0,0,0,0,0,0,0,0,0,0,0,0,0,0,0,
634,-43.11,-6.322,-31.31,-46.1,-25.01,-35.03,-20.1,-28.36,-106.2,-23.36,-34.6,-28.48,-9.695,-19.12,-18.95,-22.56,0,0,0,0,0,0,0,0,0,0,0,0,0,0,0,0,
635,-17.11,-9.947,-31.23,-41.6,16,-3.98,-11.94,-2.345,-25.37,-22.55,-4.858,4.548,5.584,-8.362,-3.683,-3.663,0,0,0,0,0,0,0,0,0,0,0,0,0,0,0,0,
636,16.84,7.271,-24.15,0.9362,-14.22,-3.705,-0.1607,-6.135,-47.65,-15.7,-0.145,7.251,3.866,-7.192,-2.22,-4.707,0,0,0,0,0,0,0,0,0,0,0,0,0,0,0,0,
637,11.05,5.785,-21.52,24.06,-36.7,4.502,17.42,27.1,-4.228,18.74,4.123,15.35,15.41,11.75,17.3,10.28,0,0,0,0,0,0,0,0,0,0,0,0,0,0,0,0,
638,29.94,14.57,14.69,24.54,22.24,23.22,19.98,63.8,58.5,30.65,15.59,14.64,10.9,1.746,7.333,0.3306,0,0,0,0,0,0,0,0,0,0,0,0,0,0,0,0,
639,10.42,-1.691,10.33,-13.53,8.833,-12.37,-10.06,2.823,-29.82,3.347,-2.547,-13.68,-9.704,-18.07,-8.316,-14.41,0,0,0,0,0,0,0,0,0,0,0,0,0,0,0,0,
640,-23.15,-8.534,-11.58,-20.84,-20.49,-18.88,-5.727,-67.59,-27.58,6.373,-14.03,-5.65,9.427,11.1,13.84,0.1861,0,0,0,0,0,0,0,0,0,0,0,0,0,0,0,0,
641,-11.93,11.32,1.921,0.2557,3.263,-7.697,-1.275,-65.3,70.34,-8.818,-21.45,-4.643,7.713,7.503,-0.4793,-15.41,0,0,0,0,0,0,0,0,0,0,0,0,0,0,0,0,
642,-14.46,2.751,7.807,-2.443,-13.06,-21.14,-16.42,-27.82,5.071,-27.2,-12.6,-15.63,-6.433,-9.669,-18.42,-19.34,0,0,0,0,0,0,0,0,0,0,0,0,0,0,0,0,
643,-18.27,-6.168,-19.03,-1.912,-65.66,-13.94,-15.66,-13.33,-106.1,-20.44,-5.206,-12.22,0.5223,1.726,-8.646,-0.7211,0,0,0,0,0,0,0,0,0,0,0,0,0,0,0,0,
644,-22.61,-12.87,-57.56,-19.44,-62.84,-13.21,-18.95,-1.768,-50.1,-27.05,-16.93,-12.77,3.084,3.574,4.399,8.851,0,0,0,0,0,0,0,0,0,0,0,0,0,0,0,0,
645,-16.86,0.178,-26.83,-31.44,25.66,-0.823,10.73,59.15,80.93,17.69,20.74,25.86,32.01,22.43,39.13,35.7,0,0,0,0,0,0,0,0,0,0,0,0,0,0,0,0,
646,32.7,44.27,33.5,-2.03,63.57,16.78,36.59,53.87,80,49.47,41.46,48.53,39.66,25.24,34.21,25.44,0,0,0,0,0,0,0,0,0,0,0,0,0,0,0,0,
647,32.16,32.92,22.06,18.8,14.77,-12.45,3.62,-20.08,-23.38,-3.571,0.7179,6.561,2.785,4.329,-1.157,-4.134,0,0,0,0,0,0,0,0,0,0,0,0,0,0,0,0,
648,-14.19,-0.7784,11.4,25.12,11.46,-16.73,1.114,-0.4467,-57.83,-4.864,-6.934,-8.698,0.6016,21.44,5.55,8.828,0,0,0,0,0,0,0,0,0,0,0,0,0,0,0,0,
649,-9.407,7.55,1.363,10.89,-9.976,10.98,15.91,19.55,-31.76,36.43,0.4732,4.486,11.2,33.7,10.31,10.38,0,0,0,0,0,0,0,0,0,0,0,0,0,0,0,0,
650,10.04,15.67,-29.88,0.9227,-62.61,10.18,-1.35,-24.29,-9.759,23.86,4.277,6.336,2.85,21.46,-0.7229,1.514,0,0,0,0,0,0,0,0,0,0,0,0,0,0,0,0,
651,-4.146,3.157,-1.634,16.63,-32.48,-14.81,-10.58,-7.06,-18.28,-25.12,17.46,-3.615,-13.38,5.814,-11.78,-3.245,0,0,0,0,0,0,0,0,0,0,0,0,0,0,0,0,
652,-21.63,-21.81,5.398,-12.74,-14.7,-31.09,-6.429,39.98,-42.04,-53.14,23.6,-2.367,-16.67,2.434,-1.839,0.1433,0,0,0,0,0,0,0,0,0,0,0,0,0,0,0,0,
653,9.003,-7.444,-33.95,-30.75,-35.97,6.828,19.79,43.37,18.81,-0.015,43.5,33.96,13.7,26.32,32.64,24.91,0,0,0,0,0,0,0,0,0,0,0,0,0,0,0,0,
654,37.24,30.35,-12.4,12.22,-11.57,28.47,30.17,6.362,83.23,52.24,29.18,25.43,15.39,20.77,13.64,12.34,0,0,0,0,0,0,0,0,0,0,0,0,0,0,0,0,
655,-8.049,15.81,23.84,24.81,13.4,-10.43,4.471,-23.66,37.58,29.74,-9.374,-19.36,-2.727,9.76,-15.92,-5.447,0,0,0,0,0,0,0,0,0,0,0,0,0,0,0,0,
656,-35.57,5.769,27.58,18.01,9.49,-12.57,3.846,-0.087,19.52,13.58,-0.6401,-13.33,5.343,28.08,-3.663,3.005,0,0,0,0,0,0,0,0,0,0,0,0,0,0,0,0,
657,-13.39,10.34,17.63,12.92,-3.422,3.867,4.141,16.47,41.7,9.242,1.661,-6.271,-5.757,11.49,-13.78,-17.86,0,0,0,0,0,0,0,0,0,0,0,0,0,0,0,0,T2
658,-8.612,-6.947,-1.461,-0.798,-1.597,-0.6318,3.041,19.12,-11.11,-5.236,-0.7134,-8.869,-11.6,-1.41,-16.14,-20.68,0,0,0,0,0,0,0,0,0,0,0,0,0,0,0,0,
659,-12.53,-5.543,-13.57,2.906,-5.876,-1.482,17.1,25.59,-23.29,0.2554,5.256,-6.026,-6.522,6.506,-12.86,-6.211,0,0,0,0,0,0,0,0,0,0,0,0,0,0,0,0,
660,-19.89,-10.08,-22.01,-2.278,-32.79,-7.992,0.6593,-14.41,66.65,24.19,-15.45,-17.98,-15,1,-33.02,-9.635,0,0,0,0,0,0,0,0,0,0,0,0,0,0,0,0,
661,-14.78,-8.981,-8.723,-6.267,-19.26,-1.069,-10.25,-41.29,36.98,19.78,-12.49,-13.73,1.314,16.76,-24.94,4.737,0,0,0,0,0,0,0,0,0,0,0,0,0,0,0,0,
662,-14.85,12.92,7.723,-6.922,-27.6,-13.8,-11.4,-15.23,-104.6,-42.25,-6.475,-19.63,1.518,15.26,-21.79,3.264,0,0,0,0,0,0,0,0,0,0,0,0,0,0,0,0,
663,-40.22,3.882,3.423,-16.16,-54.28,-34.02,-17.03,7.029,-54.5,-31.99,-13.35,-21.22,-8.997,0.4796,-21.81,5.575,0,0,0,0,0,0,0,0,0,0,0,0,0,0,0,0,
664,-13.13,5.837,16.78,11.44,17.19,2.999,4.516,-6.378,42.79,50.89,11.37,15.78,8.384,12.04,4.392,31.01,0,0,0,0,0,0,0,0,0,0,0,0,0,0,0,0,
665,14.91,8.584,-0.2687,14.82,30.19,11.53,1.462,-41.25,-63.85,19.61,24.59,26.84,4.165,1.164,9.29,22.24,0,0,0,0,0,0,0,0,0,0,0,0,0,0,0,0,
666,5.705,-3.525,-29.92,-14.46,-34.03,4.973,2.648,-0.4327,-64.13,-16.47,33.15,35.82,10.87,-2.524,17.49,19.66,0,0,0,0,0,0,0,0,0,0,0,0,0,0,0,0,
667,32.52,18.81,4.717,2.505,7.918,31.35,29.86,60.34,67.97,30.37,22.4,33.39,16.4,6.702,16.37,15.71,0,0,0,0,0,0,0,0,0,0,0,0,0,0,0,0,
668,9.029,0.5837,22.53,2.381,26.07,-0.3172,0.8406,11.63,33.05,19.09,-30.93,-15.38,-14.61,4.312,-12.52,-6.721,0,0,0,0,0,0,0,0,0,0,0,0,0,0,0,0,
669,-32.84,-25.82,18.78,-7.885,-14.62,-22.07,-10.84,-10.82,3.94,4.997,-21.09,-10.35,-2.569,26.9,-6.557,8.982,0,0,0,0,0,0,0,0,0,0,0,0,0,0,0,0,
670,7.414,13.25,20.01,11.79,22.55,6.722,13,28.99,26.38,19.5,9.917,5.355,7.523,16.69,-4.926,9.642,0,0,0,0,0,0,0,0,0,0,0,0,0,0,0,0,
671,2.594,12.75,-9.126,0.2221,43.33,3.846,-5.113,4.613,-30.73,11.52,-7.648,-22.95,-15.09,-10.37,-17.85,-2.512,0,0,0,0,0,0,0,0,0,0,0,0,0,0,0,0,
672,-23.14,-7.059,2.893,-1.171,16.77,5.936,-11.23,-37.59,31.28,25.49,8.418,-2.691,-1.865,14.39,-3.904,15.8,0,0,0,0,0,0,0,0,0,0,0,0,0,0,0,0,
673,18.24,7.215,11.33,20.79,15.4,7.129,-8.908,-36.32,136.9,13.49,34.89,31.16,8.639,26.91,9.213,21.41,0,0,0,0,0,0,0,0,0,0,0,0,0,0,0,0,
674,38.6,14.42,-36.5,7.853,-2.771,1.548,-5.326,17.57,61.35,-5.657,25.18,27.13,7.933,25.75,21.33,32.94,0,0,0,0,0,0,0,0,0,0,0,0,0,0,0,0,
675,17.09,15.74,-29.93,-25.6,-44.27,4.25,7.846,44.73,-38.09,13.18,-5.247,-0.2694,-8.139,10.76,1.478,26.02,0,0,0,0,0,0,0,0,0,0,0,0,0,0,0,0,
676,-28.08,-19.23,-8.917,-46.76,-47.94,-30.48,-23.45,-31.74,-61.93,-1.231,-20.22,-19.34,-36.25,-14.51,-20.1,1.079,0,0,0,0,0,0,0,0,0,0,0,0,0,0,0,0,
677,-36.16,-22.76,-14.01,-9.288,-15.6,-25.56,-14.24,-38.83,-64.57,5.832,10.64,14.89,-5.357,14.41,19.6,24.32,0,0,0,0,0,0,0,0,0,0,0,0,0,0,0,0,
678,11.68,37.51,3.617,28.64,-12.85,6.433,30.52,48.84,-29.9,32.66,-3.882,11.59,0.158,6.986,10.28,14.65,0,0,0,0,0,0,0,0,0,0,0,0,0,0,0,0,
679,-9.514,12.22,-4.686,-2.674,-21.63,-26.06,-7.079,34.12,35.56,6.573,-35.66,-30.98,-42.98,-40.05,-31.4,-15.71,0,0,0,0,0,0,0,0,0,0,0,0,0,0,0,0,
680,-40.25,-36.33,-18.87,-5.734,-4.645,-21.3,-29.27,-30.99,70.42,7.893,10.62,-1.559,-21.16,-16.17,-4.054,12.31,0,0,0,0,0,0,0,0,0,0,0,0,0,0,0,0,
681,4.591,-1.301,-8.324,21.46,-11.42,14.31,10.52,-7.704,20.24,21.73,18.6,23.32,14.75,8.26,8.245,20.35,0,0,0,0,0,0,0,0,0,0,0,0,0,0,0,0,
682,20.15,32.23,-5.594,23.97,-7.027,3.865,28.2,58.84,-50.33,-6.04,-17.6,9.33,26.72,7.839,-6.609,10.12,0,0,0,0,0,0,0,0,0,0,0,0,0,0,0,0,
683,4.496,39.54,-4.145,18.25,12.51,1.821,16.4,39.74,-31.13,-9.163,-15.99,4.512,23.3,0.7709,-7.997,9.284,0,0,0,0,0,0,0,0,0,0,0,0,0,0,0,0,
684,-3.335,16.19,-19.11,-15.93,-15.18,3.343,-7.244,-40.88,57.79,30.94,-14.62,-6.491,-9.426,-27.67,-6.479,3.476,0,0,0,0,0,0,0,0,0,0,0,0,0,0,0,0,
685,-6.576,-1.255,-15.46,-12.31,-15.55,3.75,0.7771,-21.45,94.41,59.95,-1.433,4.471,-5.359,-12.9,5.322,20.45,0,0,0,0,0,0,0,0,0,0,0,0,0,0,0,0,
686,2.092,23.14,16.5,29.09,6.255,7.532,17.79,33.28,12.84,15.02,-0.6207,6.894,0.4795,-3.029,-14.46,10.36,0,0,0,0,0,0,0,0,0,0,0,0,0,0,0,0,
687,-10.1,-1.222,12.45,-0.7177,4.264,-7.188,-2.775,24.44,-37.87,-30.11,-19.22,-13.25,-30,-36.1,-31.34,-14.98,0,0,0,0,0,0,0,0,0,0,0,0,0,0,0,0,
688,-19.34,-35.08,13.39,-22.1,14.87,-10.87,-2.998,31.51,21.07,8.806,-1.553,-1.355,-24.71,-30.76,-5.305,1.153,0,0,0,0,0,0,0,0,0,0,0,0,0,0,0,0,
689,-11.9,-10.72,15.38,17.23,-10.53,-6.002,14.63,14.81,34.98,12.67,2.146,7.089,-5.288,-8.288,7.51,16.85,0,0,0,0,0,0,0,0,0,0,0,0,0,0,0,0,
690,3.523,10.57,-11.79,41.9,-5.276,25.35,26.49,-24.81,39.5,-12.88,12.82,26.58,16.67,14.22,39.64,42.9,0,0,0,0,0,0,0,0,0,0,0,0,0,0,0,0,
691,44.21,33.14,0.7967,36.66,59.02,60.3,37.34,8.404,84.72,39.71,47.52,53.79,41.68,28.19,65.69,59.21,0,0,0,0,0,0,0,0,0,0,0,0,0,0,0,0,
692,33.49,47.33,32.87,14.23,20.77,24.52,26.32,54.89,28.14,73.9,27.45,29.42,26.37,5.855,30.58,34.02,0,0,0,0,0,0,0,0,0,0,0,0,0,0,0,0,
693,-0.5647,32.98,49.45,25.93,-23.48,5.729,31.58,51.52,-50.15,23.72,7.093,17.17,8.023,5.196,12.56,25.23,0,0,0,0,0,0,0,0,0,0,0,0,0,0,0,0,
694,19.81,18.09,50.39,43.24,15.65,23.11,31.19,5.194,-50.27,-28.76,15.03,14.93,-4.018,10.91,8.08,15.99,0,0,0,0,0,0,0,0,0,0,0,0,0,0,0,0,
695,6.237,-2.785,17.94,13.57,6.568,12.05,3.132,-11.28,-27.06,-12.22,22.58,1.946,-11.65,-5.207,1.419,9.771,0,0,0,0,0,0,0,0,0,0,0,0,0,0,0,0,
696,-0.8241,2.162,7.63,21.04,-3.042,29.7,21.45,29.05,66.19,30.5,38.05,30.18,4.638,-5.622,15.71,27.52,0,0,0,0,0,0,0,0,0,0,0,0,0,0,0,0,
697,48.77,20.97,19.88,35.83,34.84,31.2,39.37,9.78,132.8,17.68,7.544,34.62,3.809,-8.346,8.028,19.53,0,0,0,0,0,0,0,0,0,0,0,0,0,0,0,0,
698,40.34,10.47,16.66,10.9,51.9,-6.652,22.35,-6.61,17.85,1.024,-20.31,9.32,2.37,-1.919,3.438,12.86,0,0,0,0,0,0,0,0,0,0,0,0,0,0,0,0,
699,2.297,7.143,5.334,15,18.75,-3.742,15.06,38.86,-108.5,0.857,5.847,8.859,6.292,8.443,8.359,7.483,0,0,0,0,0,0,0,0,0,0,0,0,0,0,0,0,
700,-2.751,1.856,-24.68,8.079,-51.09,-3.349,-1.555,17.83,-76.75,-4.621,6.554,2.442,-5.714,-3.179,6.188,-8.824,0,0,0,0,0,0,0,0,0,0,0,0,0,0,0,0,
701,2.297,4.814,-10.46,-2.639,-27.52,-1.953,9.302,16.94,21.12,37,5.351,13.24,10.26,-0.804,35.38,9.347,0,0,0,0,0,0,0,0,0,0,0,0,0,0,0,0,
702,19.93,29.3,30.49,22.89,63.76,21.93,38.24,71.28,84.03,43.09,11.79,27.89,15.64,-7.966,30.97,8.671,0,0,0,0,0,0,0,0,0,0,0,0,0,0,0,0,
703,20.59,8.687,-2.573,12.58,37.7,11.33,15.52,32.93,84.99,-20.94,-15.1,5.454,-8.454,-19.48,-16.2,-11.36,0,0,0,0,0,0,0,0,0,0,0,0,0,0,0,0,
704,1.828,-19.26,-22.48,-11.42,-24.27,-3.872,-8.158,-12.21,-10.71,-20.13,-17.23,-5.093,-1.694,2.347,-12.07,3.886,0,0,0,0,0,0,0,0,0,0,0,0,0,0,0,0,
705,-5.992,2.497,6.251,-7.63,-8.594,2.271,7.957,16.95,-99.82,27.98,10.98,9.796,19.56,19.97,20.63,17.05,0,0,0,0,0,0,0,0,0,0,0,0,0,0,0,0,
706,8.852,43.32,-3.379,2.361,-6.106,26.95,45.94,31.69,-36.3,39.88,22.39,28.87,32.63,28.01,30.8,22.61,0,0,0,0,0,0,0,0,0,0,0,0,0,0,0,0,
707,33.77,50.36,-39.49,2.168,-57.09,44.44,41.22,-8.004,36.93,3.152,6.028,19.05,7.737,0.6318,9.886,8.307,0,0,0,0,0,0,0,0,0,0,0,0,0,0,0,0,
708,12.92,-12.78,-53.14,-28.42,-65.32,5.745,-25.68,-40.71,7.67,-34.16,-6.19,-6.29,-28.52,-38.1,-2.735,-9.254,0,0,0,0,0,0,0,0,0,0,0,0,0,0,0,0,
709,-6.308,-37,-3.525,-25.64,19.47,-14.43,-28.21,15.67,4.636,-6.142,17.83,14.08,3.919,-3.509,21.65,19.99,0,0,0,0,0,0,0,0,0,0,0,0,0,0,0,0,
710,22.19,16.93,38.02,11.18,71.3,11.9,16.9,49.72,31.25,16.09,31.82,30.25,30.54,20.45,25.82,29.84,0,0,0,0,0,0,0,0,0,0,0,0,0,0,0,0,
711,31.95,32.44,2.999,9.419,48.56,31.69,23.84,-3.043,56.75,24.9,38.59,27.37,22.43,1.075,22.33,16.49,0,0,0,0,0,0,0,0,0,0,0,0,0,0,0,0,
712,39.08,35.12,-1.921,13.21,33.64,43.52,37.33,10.27,63.6,55.35,29.87,26.54,26.04,-4.181,17.04,11.89,0,0,0,0,0,0,0,0,0,0,0,0,0,0,0,0,
713,21.33,23.3,-1.246,2.415,-20.21,-2.613,11.41,32.59,-27.84,6.543,-42.73,-24.04,-11.71,-38.89,-21.84,-19.05,0,0,0,0,0,0,0,0,0,0,0,0,0,0,0,0,
714,-47.75,-40.98,-53.13,-42.27,-76.03,-56.28,-40.21,-18.47,-87.62,-42.53,-61.47,-48.34,-41.62,-56.01,-17.61,-24.97,0,0,0,0,0,0,0,0,0,0,0,0,0,0,0,0,
715,-48.12,-51.26,-53.61,-38.66,-48.12,-28.72,-23.35,-27.07,-38.43,-11.56,-8.294,-10.26,-16.73,-20.88,13.67,-4.13,0,0,0,0,0,0,0,0,0,0,0,0,0,0,0,0,
716,-0.7515,-15.37,-26.65,-17.88,-21.3,-5.657,-3.332,-18.82,-18.3,-20.97,-1.181,-0.4643,-3.646,-6.053,9.767,1.457,0,0,0,0,0,0,0,0,0,0,0,0,0,0,0,0,
717,1.768,-3.007,-30.46,-15.53,-28.81,-15.21,-7.535,-36.47,-23.51,-24.56,-6.035,-5.948,-8.771,-17.26,1.933,7.169,0,0,0,0,0,0,0,0,0,0,0,0,0,0,0,0,
718,-17.25,-14.3,-33.41,-25.35,-50.69,-28.43,-19.26,-29.97,4.998,13.65,-16.59,-17.77,-30.77,-45.36,-13.72,-7.204,0,0,0,0,0,0,0,0,0,0,0,0,0,0,0,0,
719,-24.77,-35.21,-28.86,-41.76,-35.85,-24.46,-34.62,-15.97,73.68,-1.696,-12.35,-4.316,-19.35,-32.48,8.986,8.084,0,0,0,0,0,0,0,0,0,0,0,0,0,0,0,0,
720,22.56,3.337,-13.49,-14.9,38.49,23.3,-6.782,-5.727,100.1,-29.88,45.97,50.47,29.62,15.88,48.07,45,0,0,0,0,0,0,0,0,0,0,0,0,0,0,0,0,
721,48.73,30.05,-24.74,-6.114,29.26,14.81,-0.5221,-9.014,5.319,-14.52,28.93,26.04,0.5285,-17.5,8.635,13.01,0,0,0,0,0,0,0,0,0,0,0,0,0,0,0,0,
722,-12.67,-25.67,-24.16,-30.52,-6.295,-27.63,-27.24,-17.14,-17.75,17,-23.57,-19.13,-33.74,-53.12,-0.97,0.437,0,0,0,0,0,0,0,0,0,0,0,0,0,0,0,0,
723,-15.59,-24.17,37,1.879,48.77,9.395,-3.745,8.616,35.3,1.444,27.51,21.26,2.788,-15.63,40.24,27.89,0,0,0,0,0,0,0,0,0,0,0,0,0,0,0,0,
724,38.73,16,38.12,18.23,35.16,26.53,14.26,24.58,-30.58,-43.97,71.68,39.13,8.199,-2.528,20.82,15.33,0,0,0,0,0,0,0,0,0,0,0,0,0,0,0,0,
725,24.03,-2.129,-8.695,-11.43,-39.58,-7.522,-0.5883,-11.75,-36.59,-19.2,27.62,6.715,-12.81,-24.99,-2.573,6.168,0,0,0,0,0,0,0,0,0,0,0,0,0,0,0,0,
726,-13.56,-17.54,-18.24,-8.123,-56.35,-10.88,-5.636,-38.34,58.03,2.097,-22.14,-8.47,-16.07,-42.67,4.369,4.779,0,0,0,0,0,0,0,0,0,0,0,0,0,0,0,0,
727,-10.97,-6.695,-42.35,6.091,-44.71,2.051,-0.5279,0.9443,25.01,-31.54,-13.29,0.2526,-5.143,-21.54,6.03,4.928,0,0,0,0,0,0,0,0,0,0,0,0,0,0,0,0,
728,2.721,8.083,-53.37,-3.964,-12.17,0.1898,0.8147,0.7289,-62.07,-23.54,4.242,-4.946,0.2448,2.504,-7.77,6.145,0,0,0,0,0,0,0,0,0,0,0,0,0,0,0,0,
729,-18.58,-8.14,-25.64,-32,-9.478,-24.26,-29.22,-78.58,-58.99,-9.33,-18.96,-32.33,-29.95,-34.35,-25.49,-18.14,0,0,0,0,0,0,0,0,0,0,0,0,0,0,0,0,
730,-27.05,-38.43,12.49,-22.44,-10.81,-20.65,-34.92,-40.83,28.53,-9.248,-4.263,-12.72,-30.14,-29.79,1.235,-8.437,0,0,0,0,0,0,0,0,0,0,0,0,0,0,0,0,
731,2.736,-16.85,43.61,15.66,46.03,-0.8186,-1.631,62.13,75.32,7.797,28,6.596,-6.266,13.48,11.15,6.018,0,0,0,0,0,0,0,0,0,0,0,0,0,0,0,0,
732,-27.75,-7.085,6.099,-6.109,26.2,-31.51,-17.04,30.27,-1.675,-0.2956,11.62,-26.47,-27.32,-13.29,-23.66,-20.51,0,0,0,0,0,0,0,0,0,0,0,0,0,0,0,0,
733,-49.7,-32.24,-36.37,-16.95,-63.18,-30.97,-36.55,-4.369,-12.65,-9.642,8.318,-17.5,-38.74,-38.52,-13.13,-14.74,0,0,0,0,0,0,0,0,0,0,0,0,0,0,0,0,
734,0.9875,-34.9,-24.97,8.412,-78.62,-4.834,-23.28,10.53,41.49,-16.52,5.082,2.135,-30.84,-34.53,4.647,-1.835,0,0,0,0,0,0,0,0,0,0,0,0,0,0,0,0,
735,-2.001,-28.51,-24.13,-9.489,-23.22,-21.49,-10.1,-15.45,-4.965,-33.56,4.864,-1.651,-19.35,-35.23,1.65,-4.313,0,0,0,0,0,0,0,0,0,0,0,0,0,0,0,0,
736,-11.38,-7.774,-8.149,-11.33,35.48,-8.99,9.266,-19.07,-3.283,-23.53,23.04,13.03,-1.56,-25.98,0.7767,-0.4889,0,0,0,0,0,0,0,0,0,0,0,0,0,0,0,0,
737,11.62,-0.4169,-1.264,-4.074,13.97,2.476,-10.19,-24.6,32.27,-10.75,-7.8,-4.036,-11.93,-22.35,-17.03,-10.86,0,0,0,0,0,0,0,0,0,0,0,0,0,0,0,0,
738,-14.44,-12.31,-28.54,-20.45,-22.96,-23,-37.22,-52.53,-61.47,-7.798,-11,-13.47,-13.25,-10.09,-5.411,-2.421,0,0,0,0,0,0,0,0,0,0,0,0,0,0,0,0,
739,-25.26,-9.579,-8.307,-9.592,17.39,-33.34,-28.36,-35.05,-82.68,-36.82,16.17,0.8813,-22.08,-20.18,4.38,-5.461,0,0,0,0,0,0,0,0,0,0,0,0,0,0,0,0,
740,-17.45,-46.57,11.08,-11.17,15.68,-32.99,-32.48,2.692,24.19,-69.46,-10.57,-15.47,-48.3,-49.38,-18.61,-31.27,0,0,0,0,0,0,0,0,0,0,0,0,0,0,0,0,
741,-13.34,-51.42,0.2765,-9.942,-31.81,6.698,-3.971,33.74,2.946,-9.69,0.1591,3.341,-10.65,-19.02,-9.315,-16.04,0,0,0,0,0,0,0,0,0,0,0,0,0,0,0,0,
742,23.74,12.57,3.217,8.79,-20.24,29.55,24.26,13.67,-72.22,26.93,10.66,15.38,7.703,-5.408,-12.47,-16.2,0,0,0,0,0,0,0,0,0,0,0,0,0,0,0,0,
743,13.93,0.7719,8.231,-5.722,30.67,-20.04,-10.26,-22.58,6.916,-6.787,-15.7,-15.01,-22.11,-24.57,-15.26,-21.95,0,0,0,0,0,0,0,0,0,0,0,0,0,0,0,0,
744,-22.65,-26.71,47.05,11.51,69.51,-31.53,-10.44,13.15,59.96,16,20.65,0.2396,-10.87,-13.98,11.18,-2.256,0,0,0,0,0,0,0,0,0,0,0,0,0,0,0,0,
745,-15.66,-12.59,60.77,33.59,35.53,-18.64,-3.1,7.737,-16.92,6.818,11.2,-5.428,-21.66,-37.43,-21.37,-28.21,0,0,0,0,0,0,0,0,0,0,0,0,0,0,0,0,
746,-23.9,-39.14,-6.388,-1.817,-24.89,-23.54,-27.84,-33.69,-3.147,-54.32,-60.2,-46.26,-43.71,-54.9,-47.04,-38.19,0,0,0,0,0,0,0,0,0,0,0,0,0,0,0,0,
747,-40.23,-47.65,-37.5,-13.93,-39.37,-10.32,-17.64,4.474,47.9,-49.15,-51.44,-39.18,-26.62,-34.75,-19.14,-11.88,0,0,0,0,0,0,0,0,0,0,0,0,0,0,0,0,
748,-32.52,-26.73,1.181,1.681,-33.23,-17.62,-4.102,15.67,-22.12,-24.27,-11.65,-14.17,-15.39,-30.9,-12.24,-8.686,0,0,0,0,0,0,0,0,0,0,0,0,0,0,0,0,
749,-3.206,-8.721,55.55,23.41,25.2,-12.91,7.096,-26.91,-63.76,-3.083,3.984,9.278,8.947,-4.122,-3.884,7.127,0,0,0,0,0,0,0,0,0,0,0,0,0,0,0,0,
750,15.81,13.42,56.21,29.03,51.44,2.072,11.55,-40.6,-26.85,10.44,-7.384,1.367,9.023,-5.225,-4.839,2.507,0,0,0,0,0,0,0,0,0,0,0,0,0,0,0,0,
751,-21.83,-13.78,-11.17,-13.9,-4.452,-21.07,-14.61,-19.55,15.08,-15.16,-30.32,-27.97,-26.18,-49.29,-18.46,-17.62,0,0,0,0,0,0,0,0,0,0,0,0,0,0,0,0,
752,-34.89,-38.15,-16.86,-17.31,24.7,-10.9,-12.8,20.04,45.13,-33.76,-15.06,-12.73,-18.78,-40.68,-9.283,-1.824,0,0,0,0,0,0,0,0,0,0,0,0,0,0,0,0,
753,-3.342,-19.63,20.35,13.94,44.18,4.073,-7.21,13.21,9.381,-21.77,-6.747,1.38,-6.308,-24.14,-11.21,-1.275,0,0,0,0,0,0,0,0,0,0,0,0,0,0,0,0,
754,5.78,-3.367,18.46,11.96,-27.65,-3.825,-2.907,-0.2009,-25.51,26.93,-5.363,9.57,4.665,-16.32,1.585,2.239,0,0,0,0,0,0,0,0,0,0,0,0,0,0,0,0,
755,26.72,33.97,40.46,19.37,6.859,21.52,33.74,34.03,-6.512,43.42,12.96,28.91,23.96,-2.326,20.57,13.82,0,0,0,0,0,0,0,0,0,0,0,0,0,0,0,0,
756,33.81,41.23,53.85,32.2,62.64,26.84,29.75,29.22,-7.572,-11.42,3.983,20.06,9.291,-17.72,1.92,0.4889,0,0,0,0,0,0,0,0,0,0,0,0,0,0,0,0,
757,17.38,7.39,29.17,36.67,6.735,21.46,13.77,17.17,-10.92,-2.804,7.223,21.59,9.803,-13.12,1.143,7.746,0,0,0,0,0,0,0,0,0,0,0,0,0,0,0,0,
758,24.33,8.741,8.52,17.23,-19.27,29.68,24.38,25.07,3.196,30.46,19.83,20.12,18.26,0.2953,11.97,12.29,0,0,0,0,0,0,0,0,0,0,0,0,0,0,0,0,
759,4.02,5.671,-6.569,-27.73,28.14,5.628,6.322,-1.238,37.4,-4.941,-0.6987,-5.774,2.195,-9.128,10.41,2.422,0,0,0,0,0,0,0,0,0,0,0,0,0,0,0,0,
760,-18.88,-7.18,27.14,-6.928,55.65,-12.87,-12.13,-9.61,34.69,-19.53,-20.67,-10.78,-5.361,-12.12,1.574,-2.186,0,0,0,0,0,0,0,0,0,0,0,0,0,0,0,0,
761,-12.95,-17.26,58.82,35.98,14.55,-26.45,-24.19,-14.05,-74.2,-40.05,-38.08,-19.39,-21.04,-30.17,-24.69,-24.08,0,0,0,0,0,0,0,0,0,0,0,0,0,0,0,0,
762,-17.51,-34.11,32.28,21.26,-20.22,-33.84,-23.91,-30.81,-94.53,-62.23,-28.41,-16.06,-15.44,-28.83,-15.93,-16.03,0,0,0,0,0,0,0,0,0,0,0,0,0,0,0,0,
763,-8.563,-8.482,21.92,4.862,5.755,-6.728,7.708,-4.347,-10.5,-3.739,-5.596,-1.789,10.68,-6.616,1.403,1.964,0,0,0,0,0,0,0,0,0,0,0,0,0,0,0,0,
764,-8.467,6.073,9.426,0.9856,11.91,4.717,6.786,21,-16.3,36.28,-15.4,-11.59,2.432,-21.92,-3.762,-9.606,0,0,0,0,0,0,0,0,0,0,0,0,0,0,0,0,
765,3.561,-8.665,-4.134,18.8,7.578,21.4,-0.581,19.68,16.38,10.13,8.332,17.42,5.202,-29.99,26.54,2.393,0,0,0,0,0,0,0,0,0,0,0,0,0,0,0,0,
766,55.41,11.16,11.67,28.89,1.473,36.32,19.16,0.5354,48.79,-13.2,31.27,36.57,10.49,-26.26,29.18,1.359,0,0,0,0,0,0,0,0,0,0,0,0,0,0,0,0,
767,38.45,14.23,-0.0294,-6.275,-40.52,5.207,20.01,-18.46,-76.62,2.125,-1.767,0.0054,1.794,-22.03,-5.015,-9.76,0,0,0,0,0,0,0,0,0,0,0,0,0,0,0,0,
768,-1.619,7.286,12.04,3.238,-6.721,-6.885,14.61,6.386,-104.9,40.03,-3.125,2.962,17.23,-3.525,-0.6692,7.268,0,0,0,0,0,0,0,0,0,0,0,0,0,0,0,0,
769,15.74,20.3,52.89,29.92,61.84,-10.79,1.073,31.75,-8.841,28.43,18.63,20.77,13.22,-11.65,2.486,-3.284,0,0,0,0,0,0,0,0,0,0,0,0,0,0,0,0,
770,14.29,10.65,25.41,8.219,2.591,-13.34,-6.611,43.92,-20.64,-11.34,14.48,15.48,0.6565,-13.15,7.404,-10.5,0,0,0,0,0,0,0,0,0,0,0,0,0,0,0,0,
771,0.9702,4.449,-20.69,1.94,-76.12,13.98,4.503,25.47,-43.82,-35.55,-7.6,6.561,4.148,-5.867,14.15,-2.287,0,0,0,0,0,0,0,0,0,0,0,0,0,0,0,0,
772,-8.107,8.63,-8.577,8.821,-27.15,4.322,-4.57,-40.72,9.036,-49.78,-29.75,-12.4,-2.823,-24.5,-2.869,-12.21,0,0,0,0,0,0,0,0,0,0,0,0,0,0,0,0,
773,-13.48,17.17,43.49,26.44,44.34,-3.369,6.064,-16.18,19.33,-18.36,-10.35,-2.304,7.907,-14.8,6.209,-1.363,0,0,0,0,0,0,0,0,0,0,0,0,0,0,0,0,
774,8.674,24.07,48.46,29.13,-2.084,16.26,16.69,32.65,-31.91,-6.026,0.157,6.214,5.973,-11.2,10.22,1.26,0,0,0,0,0,0,0,0,0,0,0,0,0,0,0,0,
775,4.335,-4.055,-0.5099,-24.3,-51.33,-4.973,-12.56,-37.89,-26.49,-26.03,-21.29,-11.19,-10.83,-24.16,-2.997,-3.017,0,0,0,0,0,0,0,0,0,0,0,0,0,0,0,0,
776,-5.846,-4.89,10.66,-29.02,15.21,-16.33,-6.807,-43.42,49.23,13.15,-6.824,0.8352,6.999,-1.444,13.43,12.98,0,0,0,0,0,0,0,0,0,0,0,0,0,0,0,0,
777,9.427,14.85,18.61,4.12,28.68,-5.211,0.6235,35.72,62.72,30.5,5.198,2.522,2.794,-7.905,12.34,-4.96,0,0,0,0,0,0,0,0,0,0,0,0,0,0,0,0,
778,2.144,-7.569,-33.74,-2.53,-45.31,1.317,-14.2,20.89,15.01,9.094,-11.14,-14.66,-10.06,-24.08,-7.469,-19.14,0,0,0,0,0,0,0,0,0,0,0,0,0,0,0,0,
779,4.309,-1.645,-6.116,12.54,-26.58,17.48,9.321,-17.52,-33.11,21.31,-14.43,-9.041,14.72,5.59,-7.543,-2.503,0,0,0,0,0,0,0,0,0,0,0,0,0,0,0,0,
780,18.84,27.14,57.36,19.5,40.63,4.676,18.68,5.457,-89.48,-2.242,-2.458,-3.96,21.32,13.63,-0.3582,-6.222,0,0,0,0,0,0,0,0,0,0,0,0,0,0,0,0,
781,5.078,8.524,26.35,-20.42,10,-19.21,-9.583,18.21,-72.1,-55.91,-5.522,-14,-3.998,-17.07,-5.987,-25.81,0,0,0,0,0,0,0,0,0,0,0,0,0,0,0,0,
782,-26.99,-31.43,-30.61,-41.04,-67.15,-28.8,-35.01,-23.65,-10.17,-66.92,-47.96,-41.39,-19.87,-31.74,-25.09,-38.66,0,0,0,0,0,0,0,0,0,0,0,0,0,0,0,0,
783,-44.49,-25.26,-13.58,-13.2,-38.74,-24.72,-26.9,-44.75,-39.21,-22.06,-43.09,-33.76,14.18,5.341,-6.335,-14.37,0,0,0,0,0,0,0,0,0,0,0,0,0,0,0,0,
784,-4.655,32.65,28.5,27.42,25.15,6.241,10.07,0.0059,-64.78,29.31,5.445,2.055,32.02,14.7,5.48,-6.625,0,0,0,0,0,0,0,0,0,0,0,0,0,0,0,0,
785,18.82,19.56,-7.604,2.992,-28.39,0.1111,-4.119,12.72,10.18,-5.5,-18.14,-18.92,-19.79,-37.64,-30.15,-46.13,0,0,0,0,0,0,0,0,0,0,0,0,0,0,0,0,
786,-5.816,-33.95,-28.55,-32.9,-38.13,-12.65,-26.51,-10.64,48.13,-46.02,-17.85,-20.43,-11.32,-14.26,-4.448,-23.55,0,0,0,0,0,0,0,0,0,0,0,0,0,0,0,0,
787,11.11,1.621,16.63,-8.438,21.7,10.99,-5.231,-9.917,-31.97,-3.187,13.66,-1.637,23.52,18.5,21.03,-3.407,0,0,0,0,0,0,0,0,0,0,0,0,0,0,0,0,
788,-2.729,11.66,-9.146,-14.29,-32.39,-12.73,-11.91,-7.647,-88.29,31.15,-27.58,-42.93,-11.45,-30.76,-16.97,-43.86,0,0,0,0,0,0,0,0,0,0,0,0,0,0,0,0,
789,-45.97,-11.47,-26.82,-19.9,-49.02,-22.62,-7.702,1.265,-50.77,12.63,-22.42,-33.78,-2.098,-22.2,-0.0159,-25.27,0,0,0,0,0,0,0,0,0,0,0,0,0,0,0,0,
790,-4.335,14.08,8.161,3.546,3.425,12.76,-3.897,-27.03,-17.12,-46.32,8.601,6.383,10.69,-10.57,17.29,-6.646,0,0,0,0,0,0,0,0,0,0,0,0,0,0,0,0,
791,23.02,-12.72,-21.62,-25.74,-25.53,8.876,-37.04,-57.46,22,-55.77,-14.61,-7.566,-18.54,-45.19,-0.1259,-20.45,0,0,0,0,0,0,0,0,0,0,0,0,0,0,0,0,
792,4.74,-21.55,-8.334,-21.02,-13.06,14.97,-5.056,21.11,67.47,21.08,15.31,3.809,19.26,-6.019,23.72,8.48,0,0,0,0,0,0,0,0,0,0,0,0,0,0,0,0,
793,13.14,40.18,36.15,24.6,16.4,25.84,24.41,44.95,55.85,8.953,36.09,14.46,44.7,17.25,26.66,13.82,0,0,0,0,0,0,0,0,0,0,0,0,0,0,0,0,
794,12.95,34.38,2.635,13.84,-5.805,10.4,-3.766,-44.4,49.86,-44.48,-1.5,3.771,19.97,-11.65,16.04,5.552,0,0,0,0,0,0,0,0,0,0,0,0,0,0,0,0,
795,22.15,17.59,21.34,6.455,40.46,19.51,19.41,-33.02,18.23,11.83,14.48,27.28,28.89,4.461,34.31,20.77,0,0,0,0,0,0,0,0,0,0,0,0,0,0,0,0,
796,45.28,35.53,52.18,6.873,54.49,21.81,31.26,28.18,-41.05,37.75,45.51,34.97,27.84,12.89,32.56,8.728,0,0,0,0,0,0,0,0,0,0,0,0,0,0,0,0,
797,29.79,11.56,-3.465,-16.94,-8.266,7.728,-14.25,2.19,4.226,-4.708,15.01,0.7371,5.773,-6.82,15.72,-6.795,0,0,0,0,0,0,0,0,0,0,0,0,0,0,0,0,
798,-14.61,-12.93,-15.39,-23.94,-7.958,-3.571,-23.14,-17.05,31.38,-7.221,-31.23,-31.17,4.33,-4.918,-0.9338,-9.62,0,0,0,0,0,0,0,0,0,0,0,0,0,0,0,0,
799,-31.3,3.393,33.32,-9.646,15.71,-5.118,8.389,20.46,-9.707,9.367,-4.219,-7.777,21.12,11.32,10.17,0.2081,0,0,0,0,0,0,0,0,0,0,0,0,0,0,0,0,
800,17.03,27.48,36.47,6.441,2.787,20.53,19.97,29.15,22.22,1.238,50.67,32.55,22.59,2.963,33.95,9.543,0,0,0,0,0,0,0,0,0,0,0,0,0,0,0,0,
801,36.68,13.56,-12.54,-8.035,-20.03,17.99,-6.085,2.028,37.75,-24.09,18.41,9.432,-1.716,-16.22,16.56,-4.079,0,0,0,0,0,0,0,0,0,0,0,0,0,0,0,0,
802,11.95,-1.328,-11.09,-11.52,-11.88,14.79,-1.725,10.96,8.333,-16.17,-5.023,6.353,18.31,19.81,16.7,13.55,0,0,0,0,0,0,0,0,0,0,0,0,0,0,0,0,
803,38.27,34.04,48.77,23.91,30.56,42.23,29.25,4.585,4.234,16.13,20.13,23.36,41.81,37.89,23.04,23.02,0,0,0,0,0,0,0,0,0,0,0,0,0,0,0,0,
804,20.35,33.15,41.84,15.97,45.3,21.11,12.64,-26.01,-2.935,23.08,5.931,-14.98,4.211,-7.054,1.365,-11.69,0,0,0,0,0,0,0,0,0,0,0,0,0,0,0,0,
805,-30.75,-0.9643,29.33,4.615,43.09,4.008,4.281,12.14,10.11,4.168,25.04,-7.694,-6.695,-5.456,15.71,-10.79,0,0,0,0,0,0,0,0,0,0,0,0,0,0,0,0,
806,8.005,-0.335,70.53,14.49,28.29,14.71,9.794,23.05,-11.45,-56,49.91,18.8,7.231,14.19,17.36,-4.291,0,0,0,0,0,0,0,0,0,0,0,0,0,0,0,0,
807,20.72,1.787,61.8,-5.308,10.91,10.39,6.13,-1.775,-43.09,-60.17,7.018,-9.069,13.82,9.818,-5.278,-6.35,0,0,0,0,0,0,0,0,0,0,0,0,0,0,0,0,
808,-10.95,18.42,64.64,24.13,52.4,33.4,36.49,49.97,22.03,23.56,-11.86,-16.32,20.88,11.1,-2.99,3.955,0,0,0,0,0,0,0,0,0,0,0,0,0,0,0,0,
809,-8.505,11.85,107.7,67.66,71.93,26.23,30.99,55.15,40.21,27.36,-8.409,-20.08,-8.277,-5.907,-16.33,-12.95,0,0,0,0,0,0,0,0,0,0,0,0,0,0,0,0,
810,-10,-21.28,107,59.4,54.8,12.08,17.94,24.09,4.069,13.02,6.712,-9.627,-6.061,6.456,-6.19,-5.883,0,0,0,0,0,0,0,0,0,0,0,0,0,0,0,0,
811,16.58,13.55,106,80.36,58.36,64.76,56.09,59.3,12.96,29.39,43.36,29.68,20.91,25.02,26.97,12.86,0,0,0,0,0,0,0,0,0,0,0,0,0,0,0,0,
812,39.77,22.83,114,97.96,27.41,62.66,37.19,46.28,-13.9,-33.51,37.96,19.3,1.74,4.438,28.87,3.559,0,0,0,0,0,0,0,0,0,0,0,0,0,0,0,0,
813,12.62,0.6922,130.4,94.03,48.19,34.03,21.01,15.48,7.405,-29.49,27.94,9.354,20.5,30.18,37.84,22.8,0,0,0,0,0,0,0,0,0,0,0,0,0,0,0,0,
814,9.445,44.03,158.9,100.5,115,56.25,51.99,25.9,76.86,35.5,23.61,11.49,31.54,35.33,13.53,10.18,0,0,0,0,0,0,0,0,0,0,0,0,0,0,0,0,
815,8.967,28.04,140.2,75.13,78.54,40.67,24,28.51,26.04,0.7643,0.7235,-15.93,-16.21,-8.676,-29.5,-28.64,0,0,0,0,0,0,0,0,0,0,0,0,0,0,0,0,
816,4.117,-18.21,125.7,74.22,66.89,27.95,16.8,70.72,-16.02,0.1582,12.79,-4.606,0.4383,23.46,-0.7193,1.851,0,0,0,0,0,0,0,0,0,0,0,0,0,0,0,0,
817,28.64,27.65,119.2,96.51,105,56.38,56.16,86.63,45.1,31.63,32.83,24.25,38.81,61.09,34.43,31.62,0,0,0,0,0,0,0,0,0,0,0,0,0,0,0,0,
818,28.76,49.78,76.74,64.63,54.2,60.34,49.22,39.33,56.02,-5.492,42.88,27.98,22.99,39.14,37.93,26.05,0,0,0,0,0,0,0,0,0,0,0,0,0,0,0,0,
819,14.54,17.3,83.49,44.42,33.09,42,36.29,38.79,-11.5,-2.476,57.08,31.86,11.25,28.03,37.71,20.16,0,0,0,0,0,0,0,0,0,0,0,0,0,0,0,0,
820,22.4,18.59,112.9,64.6,97.68,29.24,44.75,50.47,-18.07,43.41,56.42,31.81,19.59,35.36,31.63,14.05,0,0,0,0,0,0,0,0,0,0,0,0,0,0,0,0,
821,32.66,37.83,90.05,66.14,108.7,35.06,43.42,37.13,63.14,42.33,51.07,22.1,16.22,30.56,19.12,7.468,0,0,0,0,0,0,0,0,0,0,0,0,0,0,0,0,
822,9.198,4.688,41.3,24.76,26.99,16.83,9.453,12.68,69.84,-22.02,9.028,-15.37,-17.96,0.4574,-17.71,-18.92,0,0,0,0,0,0,0,0,0,0,0,0,0,0,0,0,
823,-21.38,-41.16,-18.71,-10.7,-41.84,3.095,-16.3,-15.27,28.4,-64.7,-9.788,-22.42,-12.84,8.41,-21.1,-12.49,0,0,0,0,0,0,0,0,0,0,0,0,0,0,0,0,
824,23.49,4.982,-33.98,8.728,-13.78,49.18,13.26,9.219,40.86,-1.636,46.07,19.67,28.26,37.46,7.107,16.02,0,0,0,0,0,0,0,0,0,0,0,0,0,0,0,0,
825,38.81,30.55,1.329,-0.942,18.86,22.48,6.381,21.43,-20.64,32.69,24.84,-6.056,-4.798,-5.111,-18.67,-14.01,0,0,0,0,0,0,0,0,0,0,0,0,0,0,0,0,
826,-30.58,-29.4,13.27,-31.55,7.159,-40.61,-27.34,-9.222,-42.62,-6.916,-25.03,-30.6,-21.5,-12.2,-16.31,-14.42,0,0,0,0,0,0,0,0,0,0,0,0,0,0,0,0,
827,-13.06,-11.89,-6.038,0.1285,14.59,3.059,-0.038,1.669,79.67,15.95,12.59,10.16,22.56,32.03,17.2,12.42,0,0,0,0,0,0,0,0,0,0,0,0,0,0,0,0,
828,29.16,27.42,-30.63,3.547,13.82,17.7,13.75,14.09,56.66,41.92,8.698,-2.457,6.973,6.21,-12.79,-17.24,0,0,0,0,0,0,0,0,0,0,0,0,0,0,0,0,
829,-10.46,-4.037,-22.95,-23.79,8.349,-21.53,2.33,7.453,-34.53,-8.304,-26.05,-26.72,-20.54,-17.23,-28.64,-27.7,0,0,0,0,0,0,0,0,0,0,0,0,0,0,0,0,
830,-20.27,-14.22,-23.16,-21.28,1.426,-12.7,0.9222,8.822,37.11,-50.45,-6.777,-10.55,-17.3,-7.218,-10.64,-19.98,0,0,0,0,0,0,0,0,0,0,0,0,0,0,0,0,
831,-6.345,-12,-58.04,-31.09,-38.94,-7.182,-7.256,-9.916,37.8,-27.22,8.612,-5.293,-10.37,5.585,-8.186,-22.88,0,0,0,0,0,0,0,0,0,0,0,0,0,0,0,0,
832,-5.411,-2.306,-33.31,-15.48,-38.93,-6.319,5.5,-35.45,-80.17,18.94,1.908,-3.411,14.35,37.06,-15.44,-13.19,0,0,0,0,0,0,0,0,0,0,0,0,0,0,0,0,
833,-2.243,19.19,-18.35,12.21,-9.166,2.743,1.825,-43.63,-64.53,29.18,-3.474,-14.36,8.462,22.42,-36.29,-24.82,0,0,0,0,0,0,0,0,0,0,0,0,0,0,0,0,
834,-9.729,3.561,-64.54,-0.7076,-15.29,-2.261,-17.66,-11.88,59.76,29.44,15.36,-12.84,-6.933,-2.901,-24.41,-20.52,0,0,0,0,0,0,0,0,0,0,0,0,0,0,0,0,
835,1.486,-6.758,-52.23,-14.32,-38.39,-15.46,-11.61,7.62,87.34,6.351,14.3,-1.73,1.767,14.27,1.783,-0.3154,0,0,0,0,0,0,0,0,0,0,0,0,0,0,0,0,
836,-11.05,-15.14,-46.73,-46.94,-76.86,-39.42,-34.81,-34.63,-14.19,-43.22,-24.83,-25.49,-8.283,11.19,-2.039,-8.595,0,0,0,0,0,0,0,0,0,0,0,0,0,0,0,0,
837,-34.61,-23.49,-65.05,-66.47,-57.99,-22.06,-31.79,-3.837,-83.97,3.124,12.92,-0.3753,8.351,16.48,23.11,9.432,0,0,0,0,0,0,0,0,0,0,0,0,0,0,0,0,
838,18.38,21.29,-17.68,-29.21,34.34,16.62,31.04,68.68,-26.9,62.32,71.6,54.12,43.3,38.01,42.05,27.89,0,0,0,0,0,0,0,0,0,0,0,0,0,0,0,0,
839,52.49,45.32,-19.84,-14.36,47.67,11.6,33.44,17.61,63.49,-4.455,31.32,26.83,22.8,19.4,8.105,2.505,0,0,0,0,0,0,0,0,0,0,0,0,0,0,0,0,
840,14.71,-0.1364,-70.74,-26.49,-25.35,-1.43,-21.79,-48.45,49.02,-54.78,-23.69,-30.07,-24.12,-20.66,-25.68,-27.7,0,0,0,0,0,0,0,0,0,0,0,0,0,0,0,0,
841,-16.38,-46.7,-52.16,-26.25,-59.34,-24.27,-50.01,-39.51,-43.37,-19.75,-31.7,-42.92,-35.74,-32.9,-31.36,-36.7,0,0,0,0,0,0,0,0,0,0,0,0,0,0,0,0,
842,-14.99,-26.77,-30.84,-8.004,-40.73,-23.58,-23.98,-32.22,-37.83,8.346,-3.765,-12.4,2.728,7.209,-8.343,-10.92,0,0,0,0,0,0,0,0,0,0,0,0,0,0,0,0,
843,8.12,22.11,-58.81,2.603,-47.72,13.07,2.497,-39.55,24.72,3.109,14.18,-4.123,7.521,23.52,-11.67,-6.504,0,0,0,0,0,0,0,0,0,0,0,0,0,0,0,0,
844,-1.854,-6.404,-75.44,-35.7,-57.89,-7.985,-21.08,-26.18,17.05,0.0791,-7.965,-31.99,-26.92,-2.313,-31.44,-20.73,0,0,0,0,0,0,0,0,0,0,0,0,0,0,0,0,
845,-24.07,-30.16,-34.07,-42.66,16.77,-29.91,-18.48,22.94,23.72,21.51,-1.271,-14.85,-2.276,14.95,-0.4193,8.708,0,0,0,0,0,0,0,0,0,0,0,0,0,0,0,0,
846,-6.643,10.65,0.5959,-14.58,59.1,-20.05,0.9946,38.69,-6.013,4.088,8.818,1.801,11.97,19.85,11.42,8.914,0,0,0,0,0,0,0,0,0,0,0,0,0,0,0,0,
847,-0.7582,-2.174,-35.18,-32.15,-7.898,-33.85,-18.65,-6.221,-98.92,-24.03,-10.66,-7.324,-8.159,3.026,-0.2501,-8.875,0,0,0,0,0,0,0,0,0,0,0,0,0,0,0,0,
848,11.88,-15.3,-54.25,-27.84,-39.31,-16.16,-17.91,-30.38,-57.97,19.89,2.437,12.61,8.516,21.65,12.35,9.425,0,0,0,0,0,0,0,0,0,0,0,0,0,0,0,0,
849,17.39,8.256,-40.06,-20.16,-27.07,-8.22,-16.57,-29.37,22.25,34.1,16.13,1.229,-1.489,8.622,3.075,-0.7016,0,0,0,0,0,0,0,0,0,0,0,0,0,0,0,0,
850,-28.53,-11.3,-48.75,-46.73,-5.283,-33.3,-22.68,-20.16,0.2175,-16.25,8.746,-21.89,-19.65,-9.281,-0.5252,-8.502,0,0,0,0,0,0,0,0,0,0,0,0,0,0,0,0,
851,-30.79,-16.72,-54.11,-33.38,28.48,-16.51,-12.6,-25.75,-22.99,-53.96,-2.011,-10.12,-7.723,4.523,1.717,0.1215,0,0,0,0,0,0,0,0,0,0,0,0,0,0,0,0,
852,-8.1,-11.41,-62.47,-28.23,-16.4,-13.99,-39.64,-47.32,-70.81,-55.8,-12.75,-14.24,-19.8,-1.552,-9.339,-9.946,0,0,0,0,0,0,0,0,0,0,0,0,0,0,0,0,
853,-20.41,-31.41,-64.14,-39.72,-65.17,-33.01,-50.55,-3.787,-107.8,-11.48,-0.245,-14.1,-27.75,-10.35,1.012,-10.01,0,0,0,0,0,0,0,0,0,0,0,0,0,0,0,0,
854,-19.93,-38.53,-55.23,-37.46,-26.25,-42.49,-26.94,15.8,-40.44,-8.308,-8.408,-16.55,-33.48,-25.76,-18.45,-25.91,0,0,0,0,0,0,0,0,0,0,0,0,0,0,0,0,
855,-26.65,-42.79,-63.46,-64.61,-4.928,-54.76,-23.86,-36.54,-2.857,-28.31,-8.246,-16.95,-25.74,-15.13,-25.51,-16.96,0,0,0,0,0,0,0,0,0,0,0,0,0,0,0,0,
856,-22.69,-13.35,-43.21,-53.32,-35.67,-23.26,-7.019,-20.86,-39.58,31.15,29.21,16.81,16.07,26.52,19.57,30.24,0,0,0,0,0,0,0,0,0,0,0,0,0,0,0,0,
857,3.291,15.34,-36.33,-17.23,-67.65,-3.054,-13.77,-8.54,-57.22,28.94,0.8065,7.034,3.604,5.715,7.083,11.85,0,0,0,0,0,0,0,0,0,0,0,0,0,0,0,0,
