%OpenBCI Raw EXG Data
%Number of channels = 16
%Sample Rate = 125 Hz
%Board = OpenBCI_GUI$BoardCytonSerialDaisy
Sample Index,EXG Channel 0,EXG Channel 1,EXG Channel 2,EXG Channel 3,EXG Channel 4,EXG Channel 5,EXG Channel 6,EXG Channel 7,EXG Channel 8,EXG Channel 9,EXG Channel 10,EXG Channel 11,EXG Channel 12,EXG Channel 13,EXG Channel 14,EXG Channel 15,Accel Channel 0,Accel Channel 1,Accel Channel 2,Other,Other.1,Other.2,Other.3,Other.4,Other.5,Other.6,Analog Channel 0,Analog Channel 1,Analog Channel 2,Timestamp,Other.7,Timestamp (Formatted),Annotations
1,0.0,0.0,-0.0,-0.0,0.0,0.0,-0.0,-0.0,-0.0,-0.0,0.0,-0.0,-0.0,-0.0,0.0,-0.0,0,0,0,0,0,0,0,0,0,0,0,0,0,0,0,0,T0
2,20.13,70.41,35.83,35.59,1.697,-67.26,-10.13,0.3429,-13.45,-3.329,-4.817,-20.93,13.19,1.063,12.36,-14.54,0,0,0,0,0,0,0,0,0,0,0,0,0,0,0,0,
3,27.55,96.07,16.89,3.215,-11.87,-42.24,-7.741,1.117,-24.02,3.155,-19.05,-23.14,3.905,1.626,7.659,-12.76,0,0,0,0,0,0,0,0,0,0,0,0,0,0,0,0,
4,37.93,17.86,-4.971,-50.11,-1.977,-1.273,-3.045,10.84,-22.62,24.74,-19.68,-14.54,1.235,14.14,20.48,8.959,0,0,0,0,0,0,0,0,0,0,0,0,0,0,0,0,
5,35.68,-11.83,18.54,-58.45,22.11,-6.721,-4.39,26.82,-21.22,29.8,-18.99,-12.72,6.019,16.08,29.69,13.6,0,0,0,0,0,0,0,0,0,0,0,0,0,0,0,0,
6,8.977,49.69,7.465,-26.64,11.32,-7.955,-4.81,13.92,-26.69,9.973,-28.0,-11.37,5.097,6.108,14.74,-2.067,0,0,0,0,0,0,0,0,0,0,0,0,0,0,0,0,
7,-7.874,27.42,-65.04,5.243,-13.07,-10.66,0.8206,-11.5,-15.76,12.87,-23.11,-0.0967,14.29,16.08,13.25,-0.4168,0,0,0,0,0,0,0,0,0,0,0,0,0,0,0,0,
8,-15.3,5.962,-86.44,21.25,-4.704,-32.05,7.054,18.14,6.493,37.84,-15.75,8.683,25.26,28.02,24.4,13.2,0,0,0,0,0,0,0,0,0,0,0,0,0,0,0,0,
9,-14.31,68.02,-37.91,26.43,17.9,-14.9,1.002,56.0,3.926,36.61,-27.23,8.471,19.13,22.57,26.95,19.32,0,0,0,0,0,0,0,0,0,0,0,0,0,0,0,0,
10,33.26,31.79,-1.942,11.92,14.65,-7.316,-16.46,14.91,-19.31,16.71,-42.96,8.229,5.864,21.94,24.63,21.27,0,0,0,0,0,0,0,0,0,0,0,0,0,0,0,0,
11,74.84,-17.12,7.359,-15.42,-11.11,-63.44,-23.39,-34.85,-32.49,8.434,-53.75,7.084,-2.861,27.27,18.3,22.05,0,0,0,0,0,0,0,0,0,0,0,0,0,0,0,0,
12,53.61,54.37,8.049,-26.33,-26.12,-57.75,-17.51,-16.85,-27.66,12.31,-58.04,6.346,1.951,34.12,16.43,27.27,0,0,0,0,0,0,0,0,0,0,0,0,0,0,0,0,
13,40.88,47.62,-2.486,-18.13,-9.473,25.98,-16.9,10.11,-10.29,25.7,-53.45,16.45,19.39,48.99,20.7,33.32,0,0,0,0,0,0,0,0,0,0,0,0,0,0,0,0,
14,42.29,18.9,-23.22,-1.751,18.54,37.37,-18.66,16.97,11.13,34.95,-52.23,24.87,26.99,50.01,18.55,29.09,0,0,0,0,0,0,0,0,0,0,0,0,0,0,0,0,
15,8.247,135.1,-33.31,13.19,17.57,-5.085,-14.59,25.66,22.26,23.94,-52.73,15.44,22.16,31.16,18.55,25.06,0,0,0,0,0,0,0,0,0,0,0,0,0,0,0,0,
16,2.722,148.2,-7.48,14.1,-7.741,2.78,-8.116,14.03,18.14,8.87,-41.53,6.561,25.75,27.38,30.08,31.55,0,0,0,0,0,0,0,0,0,0,0,0,0,0,0,0,
17,21.68,15.23,14.56,5.479,-16.74,19.56,-1.062,-1.212,13.21,10.19,-33.33,10.4,34.53,38.93,43.87,40.38,0,0,0,0,0,0,0,0,0,0,0,0,0,0,0,0,
18,-10.8,18.68,-9.416,-2.628,-4.647,-18.84,-0.0216,8.684,10.98,14.73,-38.95,15.4,31.43,35.3,51.08,46.2,0,0,0,0,0,0,0,0,0,0,0,0,0,0,0,0,
19,-13.15,88.75,-18.82,-1.552,5.082,-68.54,0.2216,2.597,1.311,1.02,-34.65,27.86,30.55,32.66,51.85,52.11,0,0,0,0,0,0,0,0,0,0,0,0,0,0,0,0,
20,69.24,44.8,24.02,0.193,10.3,-44.2,18.09,1.123,9.297,-5.505,-14.7,44.76,51.73,54.39,53.7,56.97,0,0,0,0,0,0,0,0,0,0,0,0,0,0,0,0,
21,95.18,-24.51,57.84,-29.79,20.14,30.61,33.4,36.35,44.27,23.06,-9.133,37.03,64.65,62.81,49.83,51.21,0,0,0,0,0,0,0,0,0,0,0,0,0,0,0,0,
22,8.894,-9.756,45.62,-50.55,25.62,35.93,18.76,27.25,49.74,38.66,-20.55,19.24,47.43,42.92,36.78,40.58,0,0,0,0,0,0,0,0,0,0,0,0,0,0,0,0,
23,-30.35,99.97,15.58,-0.1793,12.44,-14.31,9.446,-2.938,27.91,18.84,-15.46,29.62,47.02,44.27,43.96,44.58,0,0,0,0,0,0,0,0,0,0,0,0,0,0,0,0,
24,53.09,165.7,10.24,38.85,-1.324,-17.6,34.4,32.37,40.75,17.94,4.428,43.88,72.8,60.06,68.11,52.45,0,0,0,0,0,0,0,0,0,0,0,0,0,0,0,0,
25,103.9,72.26,36.68,3.587,16.99,-14.52,50.06,32.15,62.76,25.26,4.821,26.69,71.9,43.44,69.59,48.98,0,0,0,0,0,0,0,0,0,0,0,0,0,0,0,0,
26,43.88,11.03,50.48,-12.8,53.34,-42.39,34.03,-30.49,53.72,5.238,-4.371,8.997,60.15,28.75,64.58,54.54,0,0,0,0,0,0,0,0,0,0,0,0,0,0,0,0,
27,0.3269,29.53,33.26,4.886,61.74,-23.59,30.03,-24.16,51.26,5.272,8.965,23.38,81.79,52.31,84.47,74.58,0,0,0,0,0,0,0,0,0,0,0,0,0,0,0,0,
28,20.66,-70.9,29.16,-14.21,35.72,25.74,47.98,8.854,64.76,30.83,24.22,44.92,102.6,73.03,99.97,86.21,0,0,0,0,0,0,0,0,0,0,0,0,0,0,0,0,
29,37.08,-113.2,48.47,-29.61,9.46,26.33,48.68,-3.292,56.72,25.47,10.41,47.62,89.82,67.27,86.78,83.42,0,0,0,0,0,0,0,0,0,0,0,0,0,0,0,0,
30,31.48,52.1,44.59,-15.83,-1.799,-10.59,30.44,5.22,27.53,1.947,-12.18,43.41,70.79,56.15,70.85,74.68,0,0,0,0,0,0,0,0,0,0,0,0,0,0,0,0,
31,12.48,107.5,27.71,-30.6,-4.673,-59.42,19.97,13.01,10.73,-2.345,-21.36,41.98,67.03,49.03,69.14,66.88,0,0,0,0,0,0,0,0,0,0,0,0,0,0,0,0,
32,1.173,16.44,34.58,-47.69,1.909,-92.35,14.16,-15.11,18.83,0.3013,-26.35,35.76,68.45,43.23,67.92,59.4,0,0,0,0,0,0,0,0,0,0,0,0,0,0,0,0,
33,2.14,18.85,13.89,-24.1,5.474,-65.23,5.733,-15.21,28.41,-4.439,-27.73,31.3,66.39,40.58,67.34,50.42,0,0,0,0,0,0,0,0,0,0,0,0,0,0,0,0,
34,-10.69,38.92,-40.8,-4.399,2.287,-25.5,9.116,-1.287,25.76,-8.405,-26.37,36.04,61.01,43.87,73.65,49.65,0,0,0,0,0,0,0,0,0,0,0,0,0,0,0,0,
35,-9.859,7.844,-32.04,-9.788,13.11,-28.93,18.48,-12.5,21.44,-3.656,-38.02,35.82,50.13,49.63,69.21,54.44,0,0,0,0,0,0,0,0,0,0,0,0,0,0,0,0,
36,1.206,-20.28,23.96,-22.2,10.42,-10.04,13.01,-1.729,15.63,7.725,-43.2,32.01,46.49,54.57,58.7,55.47,0,0,0,0,0,0,0,0,0,0,0,0,0,0,0,0,
37,-14.15,-86.96,33.06,-34.21,-16.01,49.0,6.244,17.98,16.35,19.06,-20.65,34.85,56.44,51.76,60.61,56.74,0,0,0,0,0,0,0,0,0,0,0,0,0,0,0,0,
38,6.112,-92.87,17.07,-28.18,-4.016,51.01,11.81,-7.235,28.12,15.93,-8.498,30.22,50.11,30.68,52.81,49.75,0,0,0,0,0,0,0,0,0,0,0,0,0,0,0,0,
39,63.48,51.11,24.94,0.8246,27.44,0.8592,14.93,-8.986,27.58,-4.08,-17.69,24.84,37.34,19.65,40.14,37.3,0,0,0,0,0,0,0,0,0,0,0,0,0,0,0,0,
40,67.79,153.0,40.68,30.22,17.8,-25.93,13.45,48.35,26.85,-7.85,-18.47,30.71,46.08,34.24,44.96,32.47,0,0,0,0,0,0,0,0,0,0,0,0,0,0,0,0,
41,45.46,110.0,47.12,28.94,-8.503,-63.23,3.839,42.4,35.58,-2.232,-37.53,21.83,25.81,17.65,26.38,13.46,0,0,0,0,0,0,0,0,0,0,0,0,0,0,0,0,
42,40.5,49.39,45.51,-9.801,-31.08,-103.8,-14.45,-24.42,11.65,-29.96,-75.15,14.22,-16.99,-15.65,-2.342,-2.474,0,0,0,0,0,0,0,0,0,0,0,0,0,0,0,0,
43,22.48,16.35,32.14,-33.33,-24.28,-49.43,-4.275,-16.09,-11.35,-39.27,-61.54,34.34,9.092,14.42,25.7,25.63,0,0,0,0,0,0,0,0,0,0,0,0,0,0,0,0,
44,-4.036,-44.96,4.01,-11.02,35.28,36.8,30.53,13.76,30.18,9.412,-10.35,31.03,67.38,56.89,60.25,46.54,0,0,0,0,0,0,0,0,0,0,0,0,0,0,0,0,
45,-7.92,-64.96,0.8523,15.81,64.36,29.04,39.98,-13.11,74.71,28.43,11.59,5.074,78.08,46.02,47.69,27.72,0,0,0,0,0,0,0,0,0,0,0,0,0,0,0,0,
46,37.3,41.96,49.57,17.88,19.93,-6.812,28.06,-12.22,65.23,1.362,4.223,12.89,72.35,33.16,33.71,18.63,0,0,0,0,0,0,0,0,0,0,0,0,0,0,0,0,
47,94.08,118.3,75.72,-0.8852,-25.12,-0.4971,15.12,5.983,36.47,-5.302,-20.3,16.37,59.58,25.17,22.86,14.76,0,0,0,0,0,0,0,0,0,0,0,0,0,0,0,0,
48,78.93,60.76,48.29,-8.44,-20.13,-9.557,7.822,-7.518,13.93,-7.247,-40.88,-5.521,32.22,-0.0515,4.134,-2.512,0,0,0,0,0,0,0,0,0,0,0,0,0,0,0,0,
49,46.56,34.19,44.91,9.288,34.19,-24.43,22.17,6.112,18.04,-9.548,-27.37,-0.7826,32.65,-2.006,3.478,-4.644,0,0,0,0,0,0,0,0,0,0,0,0,0,0,0,0,
50,52.98,32.55,56.23,-19.58,60.2,3.728,25.68,18.38,40.96,10.95,-19.37,10.83,42.94,13.63,5.6,2.251,0,0,0,0,0,0,0,0,0,0,0,0,0,0,0,0,
51,15.44,-53.28,29.32,-80.07,0.0741,27.63,-2.528,-0.267,34.39,18.7,-35.93,8.758,34.87,19.96,4.613,9.314,0,0,0,0,0,0,0,0,0,0,0,0,0,0,0,0,
52,-18.25,-59.06,11.0,-40.74,-32.16,14.46,-11.46,17.18,24.02,18.16,-35.15,22.79,34.3,27.32,9.004,19.49,0,0,0,0,0,0,0,0,0,0,0,0,0,0,0,0,
53,32.29,67.2,9.845,45.16,18.7,-17.31,-6.984,28.58,30.71,19.08,-43.15,21.2,17.13,8.436,-13.57,-0.3561,0,0,0,0,0,0,0,0,0,0,0,0,0,0,0,0,
54,43.62,115.9,-12.26,35.15,32.05,-60.81,-22.35,4.334,1.944,-24.26,-73.6,-2.623,-16.89,-28.9,-35.22,-29.41,0,0,0,0,0,0,0,0,0,0,0,0,0,0,0,0,
55,-0.6592,63.8,-10.85,-10.68,-12.54,-69.73,-20.79,19.74,-25.26,-60.1,-64.53,4.272,-3.78,-22.71,-10.41,-15.73,0,0,0,0,0,0,0,0,0,0,0,0,0,0,0,0,
56,17.98,49.04,24.07,-6.034,-22.39,-32.44,-6.628,32.62,2.071,-26.45,-38.21,15.21,24.93,2.015,8.13,0.8042,0,0,0,0,0,0,0,0,0,0,0,0,0,0,0,0,
57,57.17,71.31,33.29,11.9,15.95,-26.7,-12.11,5.893,19.26,0.8797,-39.42,4.589,22.92,7.032,5.685,-5.587,0,0,0,0,0,0,0,0,0,0,0,0,0,0,0,0,
58,62.68,34.62,26.06,8.237,48.95,-25.21,-5.192,14.12,13.35,-4.14,-27.83,10.53,34.58,19.56,22.61,3.23,0,0,0,0,0,0,0,0,0,0,0,0,0,0,0,0,
59,53.04,-31.78,19.68,-23.36,37.74,33.36,10.98,32.83,28.75,11.77,-16.22,14.01,49.16,26.61,23.24,7.269,0,0,0,0,0,0,0,0,0,0,0,0,0,0,0,0,
60,15.56,2.338,5.836,-40.1,12.59,40.37,7.537,21.33,35.16,29.97,-34.83,1.219,34.97,16.37,-1.779,-8.715,0,0,0,0,0,0,0,0,0,0,0,0,0,0,0,0,
61,10.43,88.42,22.42,10.75,25.24,-27.99,11.69,31.2,24.38,32.91,-35.84,14.76,37.44,27.02,2.781,2.177,0,0,0,0,0,0,0,0,0,0,0,0,0,0,0,0,
62,70.2,92.67,52.07,53.82,39.14,-21.88,18.36,55.63,30.15,41.27,-24.12,35.24,59.07,48.03,22.8,29.31,0,0,0,0,0,0,0,0,0,0,0,0,0,0,0,0,
63,92.87,62.29,36.35,26.36,23.61,32.12,5.875,53.55,40.38,45.12,-31.82,29.79,64.14,49.37,25.11,31.79,0,0,0,0,0,0,0,0,0,0,0,0,0,0,0,0,
64,72.27,61.43,21.18,6.72,32.95,9.729,9.15,29.57,44.78,43.0,-23.31,22.52,63.21,45.35,27.08,30.29,0,0,0,0,0,0,0,0,0,0,0,0,0,0,0,0,
65,71.98,82.99,49.07,15.89,53.44,-15.68,28.27,16.74,50.4,47.34,-1.135,22.75,63.16,49.2,32.01,43.95,0,0,0,0,0,0,0,0,0,0,0,0,0,0,0,0,
66,61.67,101.7,77.4,4.452,33.61,33.07,30.41,51.49,53.61,53.53,0.6952,27.8,66.58,59.17,30.85,52.41,0,0,0,0,0,0,0,0,0,0,0,0,0,0,0,0,
67,43.98,45.16,81.61,4.781,33.62,65.15,26.74,75.81,58.55,61.23,-5.924,35.4,75.05,61.82,24.83,42.77,0,0,0,0,0,0,0,0,0,0,0,0,0,0,0,0,
68,68.35,12.22,71.99,40.12,74.73,29.13,23.95,30.48,59.04,61.82,-16.4,35.1,68.79,51.07,19.05,32.45,0,0,0,0,0,0,0,0,0,0,0,0,0,0,0,0,
69,112.7,134.1,68.03,60.87,76.96,-4.335,16.7,2.373,47.01,44.99,-26.31,40.28,60.01,49.01,25.89,39.77,0,0,0,0,0,0,0,0,0,0,0,0,0,0,0,0,
70,127.2,191.5,66.25,47.21,51.92,2.579,16.35,24.09,37.41,30.46,-20.0,44.03,60.04,49.49,31.54,44.06,0,0,0,0,0,0,0,0,0,0,0,0,0,0,0,0,
71,101.6,70.35,47.24,27.47,49.41,17.66,23.49,27.16,32.57,32.67,-15.43,29.46,47.6,34.37,22.93,33.21,0,0,0,0,0,0,0,0,0,0,0,0,0,0,0,0,
72,78.11,22.02,54.41,24.17,40.68,28.54,39.22,29.79,29.73,39.03,-15.91,29.31,44.4,28.19,30.73,36.68,0,0,0,0,0,0,0,0,0,0,0,0,0,0,0,0,
73,97.68,92.2,99.74,33.3,29.88,35.13,56.7,38.72,40.55,36.84,-2.618,37.97,62.64,29.69,50.95,49.05,0,0,0,0,0,0,0,0,0,0,0,0,0,0,0,0,
74,125.5,128.0,101.3,43.66,46.01,25.77,46.63,20.56,48.71,25.4,4.977,21.22,55.45,15.34,45.0,40.32,0,0,0,0,0,0,0,0,0,0,0,0,0,0,0,0,
75,126.7,122.2,55.8,46.62,61.98,18.49,20.48,25.17,31.99,16.37,-9.749,11.48,27.08,7.506,23.37,22.43,0,0,0,0,0,0,0,0,0,0,0,0,0,0,0,0,
76,123.7,91.08,26.15,30.04,60.41,20.34,12.8,43.29,15.87,13.43,-27.93,19.8,18.92,12.78,6.067,9.208,0,0,0,0,0,0,0,0,0,0,0,0,0,0,0,0,
77,114.9,70.46,16.08,12.55,52.98,17.08,14.75,15.66,19.98,4.45,-32.35,21.63,22.58,12.94,2.631,6.249,0,0,0,0,0,0,0,0,0,0,0,0,0,0,0,0,
78,102.3,115.9,32.83,14.74,52.78,35.02,18.55,12.4,22.95,3.576,-15.59,30.13,32.98,26.24,30.91,26.75,0,0,0,0,0,0,0,0,0,0,0,0,0,0,0,0,
79,133.4,143.0,69.48,10.22,67.58,67.03,29.22,53.09,24.23,29.46,6.004,35.63,56.26,50.85,59.57,47.13,0,0,0,0,0,0,0,0,0,0,0,0,0,0,0,0,
80,179.5,116.0,61.36,15.85,76.89,65.57,28.32,51.08,39.65,46.67,4.341,31.24,67.39,55.1,55.45,45.83,0,0,0,0,0,0,0,0,0,0,0,0,0,0,0,0,
81,171.6,141.6,27.56,71.59,69.68,52.15,17.64,41.19,52.52,32.18,-8.983,44.34,60.27,44.45,47.23,41.66,0,0,0,0,0,0,0,0,0,0,0,0,0,0,0,0,
82,163.4,216.0,47.79,118.6,57.75,42.55,15.54,53.88,42.42,12.25,-19.41,42.82,48.19,26.71,38.5,31.1,0,0,0,0,0,0,0,0,0,0,0,0,0,0,0,0,
83,201.7,255.6,77.34,116.5,43.29,22.5,8.958,25.24,18.37,-7.965,-32.74,17.01,36.32,9.35,27.94,18.48,0,0,0,0,0,0,0,0,0,0,0,0,0,0,0,0,
84,202.7,259.9,48.25,114.0,47.38,36.53,-0.3856,9.41,13.37,-14.06,-25.92,24.86,49.21,23.3,50.99,34.19,0,0,0,0,0,0,0,0,0,0,0,0,0,0,0,0,
85,151.7,236.7,27.89,105.4,73.8,75.44,8.373,45.05,40.14,16.49,-3.536,37.94,71.7,42.68,65.24,41.72,0,0,0,0,0,0,0,0,0,0,0,0,0,0,0,0,
86,148.5,188.2,62.67,69.48,81.93,71.47,20.88,40.47,56.82,33.65,-11.38,22.08,53.76,28.14,25.84,12.71,0,0,0,0,0,0,0,0,0,0,0,0,0,0,0,0,
87,199.4,165.5,89.19,54.86,77.07,63.67,24.71,27.27,50.18,19.48,-21.24,29.99,35.46,22.94,9.502,7.886,0,0,0,0,0,0,0,0,0,0,0,0,0,0,0,0,
88,214.5,188.8,78.05,77.27,78.89,86.01,24.67,57.92,54.83,23.48,2.212,38.9,54.62,37.38,36.21,27.09,0,0,0,0,0,0,0,0,0,0,0,0,0,0,0,0,
89,181.3,220.7,49.56,104.5,67.46,69.5,10.58,46.46,51.69,17.3,5.815,2.83,51.06,25.37,31.15,11.72,0,0,0,0,0,0,0,0,0,0,0,0,0,0,0,0,
90,158.3,228.9,24.01,114.7,60.63,23.15,-3.12,19.93,23.75,-18.43,-21.88,-18.39,22.61,9.794,6.976,-8.818,0,0,0,0,0,0,0,0,0,0,0,0,0,0,0,0,
91,136.2,182.0,28.97,80.36,78.23,30.89,10.89,52.13,14.33,-13.68,-28.01,-0.3424,23.95,21.45,10.26,5.535,0,0,0,0,0,0,0,0,0,0,0,0,0,0,0,0,
92,86.53,88.63,36.41,17.42,88.43,67.78,29.19,59.14,26.56,22.8,-14.79,12.95,39.79,33.73,27.25,26.83,0,0,0,0,0,0,0,0,0,0,0,0,0,0,0,0,
93,65.94,34.6,0.8725,-3.326,79.37,52.98,20.73,22.15,32.83,26.76,-12.24,13.86,45.56,33.95,43.18,33.12,0,0,0,0,0,0,0,0,0,0,0,0,0,0,0,0,
94,91.63,57.22,-28.02,17.99,50.11,8.937,-2.079,19.21,29.52,14.79,-17.78,12.69,44.55,26.98,45.89,28.45,0,0,0,0,0,0,0,0,0,0,0,0,0,0,0,0,
95,91.79,92.85,-9.61,11.78,0.6805,7.046,-15.04,33.58,10.26,13.27,-19.63,12.12,33.5,15.81,31.63,23.36,0,0,0,0,0,0,0,0,0,0,0,0,0,0,0,0,
96,54.47,96.5,3.26,-16.73,-22.87,34.75,-15.76,39.36,-12.41,9.332,-19.97,4.137,21.25,4.474,20.14,19.22,0,0,0,0,0,0,0,0,0,0,0,0,0,0,0,0,
97,30.06,92.05,-11.94,-8.152,-4.303,37.12,-15.91,44.3,-21.04,-1.543,-27.72,-6.096,14.38,-7.477,9.255,10.08,0,0,0,0,0,0,0,0,0,0,0,0,0,0,0,0,
98,43.05,103.9,-19.84,17.61,8.23,7.849,-11.61,30.01,-27.18,-9.568,-33.64,18.61,13.63,-3.319,1.66,14.5,0,0,0,0,0,0,0,0,0,0,0,0,0,0,0,0,
99,72.06,94.71,-11.71,15.67,-3.055,-29.43,3.508,20.89,-25.37,-1.51,-24.93,47.81,27.92,19.22,18.46,33.19,0,0,0,0,0,0,0,0,0,0,0,0,0,0,0,0,
100,75.97,43.87,8.617,16.53,-6.729,-43.16,16.81,43.71,-7.974,17.21,-10.72,24.0,45.85,29.84,40.77,39.51,0,0,0,0,0,0,0,0,0,0,0,0,0,0,0,0,
101,64.15,18.01,36.73,23.73,21.5,-20.78,26.38,49.26,6.474,22.76,1.556,1.247,55.26,30.1,52.13,47.82,0,0,0,0,0,0,0,0,0,0,0,0,0,0,0,0,
102,58.01,22.44,36.96,0.0632,56.22,-2.849,36.85,16.82,17.21,14.17,12.88,16.48,66.8,33.0,70.3,64.98,0,0,0,0,0,0,0,0,0,0,0,0,0,0,0,0,
103,36.94,11.65,0.842,-11.46,47.89,-19.73,34.55,-6.436,26.47,8.354,15.86,13.15,72.18,22.86,76.79,57.88,0,0,0,0,0,0,0,0,0,0,0,0,0,0,0,0,
104,18.56,33.62,-29.29,-1.547,5.798,-55.8,11.64,0.6079,12.21,2.42,-2.678,-7.852,48.41,3.264,49.27,34.81,0,0,0,0,0,0,0,0,0,0,0,0,0,0,0,0,
105,13.81,50.82,-37.56,-37.35,-29.53,-81.28,-16.77,15.73,-24.2,-14.49,-37.79,-4.99,10.85,-6.377,21.57,22.97,0,0,0,0,0,0,0,0,0,0,0,0,0,0,0,0,
106,-23.65,-22.7,-29.35,-64.71,-56.11,-67.3,-26.32,15.44,-49.99,-31.25,-58.65,2.388,-8.862,-13.59,6.006,9.118,0,0,0,0,0,0,0,0,0,0,0,0,0,0,0,0,
107,-57.55,-52.42,-12.48,-27.76,-67.05,-47.48,-19.37,-0.4833,-58.84,-40.06,-59.09,-13.05,-16.16,-32.15,-14.37,-13.27,0,0,0,0,0,0,0,0,0,0,0,0,0,0,0,0,
108,-24.81,-0.1536,-21.04,-16.73,-56.9,-68.18,-24.4,-4.948,-64.57,-51.74,-61.68,-30.16,-17.35,-45.76,-14.51,-21.53,0,0,0,0,0,0,0,0,0,0,0,0,0,0,0,0,
109,4.429,-43.51,-41.81,-34.0,-56.0,-71.98,-34.37,6.429,-55.17,-50.22,-64.2,-20.25,0.3993,-30.28,8.348,-8.205,0,0,0,0,0,0,0,0,0,0,0,0,0,0,0,0,
110,-21.26,-93.57,-21.12,-9.2,-52.65,-35.18,-25.42,5.9,-31.71,-17.85,-58.29,2.541,18.56,-1.557,16.28,8.889,0,0,0,0,0,0,0,0,0,0,0,0,0,0,0,0,
111,-24.55,7.23,9.667,6.601,-21.9,-27.43,-11.5,3.202,-19.65,8.438,-48.85,10.63,19.89,9.032,17.53,15.94,0,0,0,0,0,0,0,0,0,0,0,0,0,0,0,0,
112,1.953,88.1,-6.975,-15.67,-16.2,-51.21,-7.997,9.052,-13.75,-1.299,-41.71,3.108,14.95,-2.739,17.13,8.587,0,0,0,0,0,0,0,0,0,0,0,0,0,0,0,0,
113,-26.22,43.85,-48.48,-30.59,-48.87,-78.79,-16.25,-7.704,-18.18,-27.03,-48.94,-8.623,-1.756,-20.84,-1.907,-6.408,0,0,0,0,0,0,0,0,0,0,0,0,0,0,0,0,
114,-67.42,-15.36,-69.83,-35.64,-48.33,-95.17,-31.26,-24.14,-43.71,-37.92,-60.52,-7.215,-13.4,-16.16,-6.658,-5.868,0,0,0,0,0,0,0,0,0,0,0,0,0,0,0,0,
115,-32.91,-42.07,-54.94,-30.76,-21.1,-59.8,-32.05,-3.577,-41.67,-17.72,-61.87,2.212,3.025,7.204,7.39,5.13,0,0,0,0,0,0,0,0,0,0,0,0,0,0,0,0,
116,7.053,-39.72,-29.03,-26.56,-30.31,-15.67,-24.77,9.272,-8.727,4.657,-70.76,-6.951,7.741,4.275,1.442,-2.899,0,0,0,0,0,0,0,0,0,0,0,0,0,0,0,0,
117,-14.49,-55.86,-38.78,-47.46,-51.0,-15.35,-32.05,4.655,-8.591,-3.715,-80.93,-15.54,-9.397,-11.4,-6.845,-14.09,0,0,0,0,0,0,0,0,0,0,0,0,0,0,0,0,
118,-24.02,-98.8,-56.33,-45.37,-39.24,-2.836,-38.97,17.62,-23.87,-6.558,-73.69,-4.194,-8.522,-0.1389,-5.094,-4.269,0,0,0,0,0,0,0,0,0,0,0,0,0,0,0,0,
119,4.206,-36.82,-22.41,0.3431,-27.33,18.27,-35.03,16.73,-19.78,14.32,-67.33,-0.9254,-0.6549,10.14,-11.33,6.287,0,0,0,0,0,0,0,0,0,0,0,0,0,0,0,0,
120,15.53,80.89,16.11,24.18,-33.6,3.442,-27.02,-2.865,-22.97,17.51,-61.03,-1.651,2.173,8.479,-6.041,7.075,0,0,0,0,0,0,0,0,0,0,0,0,0,0,0,0,
121,23.06,78.25,1.007,12.82,-19.09,-10.23,-13.16,3.238,-22.75,7.237,-46.5,6.034,12.91,17.66,6.287,5.259,0,0,0,0,0,0,0,0,0,0,0,0,0,0,0,0,
122,45.98,43.94,-23.27,-9.726,2.559,-31.79,-10.45,-4.604,-13.91,-0.7326,-50.14,-3.305,9.205,13.6,-3.059,-5.057,0,0,0,0,0,0,0,0,0,0,0,0,0,0,0,0,
123,35.37,69.24,-20.47,-33.59,-10.11,-69.72,-9.481,-48.43,-26.39,-22.42,-52.96,-8.366,4.08,7.487,4.961,-0.8807,0,0,0,0,0,0,0,0,0,0,0,0,0,0,0,0,
124,10.41,75.41,1.963,-6.309,1.873,-30.05,40.69,-25.76,-10.88,-16.01,-0.1301,35.67,52.09,55.86,75.07,59.41,0,0,0,0,0,0,0,0,0,0,0,0,0,0,0,0,
125,62.97,95.97,53.61,66.23,76.85,73.07,113.8,70.45,62.21,46.37,78.69,92.91,120.6,117.0,160.8,138.6,0,0,0,0,0,0,0,0,0,0,0,0,0,0,0,0,
126,164.9,153.4,116.5,89.19,121.8,112.2,139.1,102.7,105.1,91.54,111.1,106.8,140.4,120.6,182.8,154.4,0,0,0,0,0,0,0,0,0,0,0,0,0,0,0,0,
127,198.1,155.7,144.4,77.03,101.1,96.87,122.5,68.72,89.0,90.14,93.23,90.87,124.6,98.21,136.0,112.8,0,0,0,0,0,0,0,0,0,0,0,0,0,0,0,0,
128,154.2,134.3,118.6,96.08,75.11,98.42,85.02,61.93,67.29,80.8,47.48,68.17,96.93,76.19,73.46,63.64,0,0,0,0,0,0,0,0,0,0,0,0,0,0,0,0,
129,121.3,164.3,59.88,102.3,49.29,83.49,31.85,48.04,36.99,50.89,-17.1,26.75,47.0,31.27,27.01,13.58,0,0,0,0,0,0,0,0,0,0,0,0,0,0,0,0,
130,150.5,208.0,32.21,87.01,29.73,42.6,6.013,8.452,1.287,3.377,-61.3,-6.342,4.536,-7.631,4.612,-15.66,0,0,0,0,0,0,0,0,0,0,0,0,0,0,0,0,
131,215.4,240.0,67.56,99.47,50.9,48.91,16.92,5.513,2.119,-4.398,-65.35,3.653,-0.935,-7.875,-2.456,-9.76,0,0,0,0,0,0,0,0,0,0,0,0,0,0,0,0,
132,266.1,290.5,117.7,113.0,83.11,106.8,25.51,17.07,22.07,22.19,-61.81,15.93,9.375,4.678,-5.508,-5.194,0,0,0,0,0,0,0,0,0,0,0,0,0,0,0,0,
133,308.1,371.4,152.7,130.8,105.8,149.0,33.58,20.16,34.44,38.38,-55.66,10.84,23.46,16.35,8.834,-3.43,0,0,0,0,0,0,0,0,0,0,0,0,0,0,0,0,
134,379.9,475.4,185.4,191.1,145.4,160.8,52.0,43.8,55.69,48.28,-37.72,17.33,34.24,24.84,23.52,4.968,0,0,0,0,0,0,0,0,0,0,0,0,0,0,0,0,
135,475.7,576.7,222.9,240.3,180.3,178.5,63.4,52.42,74.57,58.99,-30.22,14.32,28.75,16.92,10.68,-1.756,0,0,0,0,0,0,0,0,0,0,0,0,0,0,0,0,
136,557.6,612.3,262.7,241.0,192.3,216.2,65.68,36.81,75.78,56.9,-33.81,3.41,29.16,13.1,5.691,-4.472,0,0,0,0,0,0,0,0,0,0,0,0,0,0,0,0,
137,600.3,580.6,283.5,221.9,219.6,253.8,66.65,51.62,80.05,55.91,-28.14,30.02,42.36,31.32,17.25,11.11,0,0,0,0,0,0,0,0,0,0,0,0,0,0,0,0,
138,608.9,589.9,280.1,198.4,253.7,262.4,69.69,76.85,88.72,76.23,-19.39,57.66,38.79,45.07,9.338,13.98,0,0,0,0,0,0,0,0,0,0,0,0,0,0,0,0,
139,601.9,633.6,274.9,202.6,255.5,227.2,74.31,70.82,90.05,92.65,-23.93,42.97,23.24,40.27,-1.189,5.632,0,0,0,0,0,0,0,0,0,0,0,0,0,0,0,0,
140,591.8,607.5,276.5,245.4,264.7,185.7,75.03,64.55,93.75,81.2,-37.65,29.43,22.73,36.87,7.573,7.01,0,0,0,0,0,0,0,0,0,0,0,0,0,0,0,0,
141,602.6,592.2,304.7,280.6,300.5,205.1,84.41,74.22,104.2,77.4,-36.62,42.86,38.04,48.93,24.51,17.96,0,0,0,0,0,0,0,0,0,0,0,0,0,0,0,0,
142,621.1,627.4,356.8,288.4,289.2,264.7,110.4,73.63,113.2,103.8,-13.78,57.85,53.85,70.49,42.61,32.91,0,0,0,0,0,0,0,0,0,0,0,0,0,0,0,0,
143,603.5,579.4,387.0,287.1,248.0,297.0,132.8,83.61,120.6,127.7,7.466,59.94,66.91,97.23,53.66,48.31,0,0,0,0,0,0,0,0,0,0,0,0,0,0,0,0,
144,579.6,542.8,401.5,299.9,277.2,320.4,140.9,121.9,134.4,141.9,13.24,58.89,83.49,121.8,58.56,58.64,0,0,0,0,0,0,0,0,0,0,0,0,0,0,0,0,
145,564.5,593.9,396.7,313.6,324.7,332.6,129.3,128.6,141.4,151.4,-2.53,63.79,77.47,109.5,44.54,37.95,0,0,0,0,0,0,0,0,0,0,0,0,0,0,0,0,
146,490.5,511.5,322.6,284.7,295.1,277.4,94.49,100.5,111.9,133.8,-43.95,53.75,31.18,60.46,-2.663,-11.57,0,0,0,0,0,0,0,0,0,0,0,0,0,0,0,0,
147,377.7,369.7,241.6,246.7,245.3,213.2,65.53,97.02,74.23,111.9,-68.74,22.47,0.9757,35.98,-29.86,-32.83,0,0,0,0,0,0,0,0,0,0,0,0,0,0,0,0,
148,318.9,380.9,243.1,236.9,213.4,209.7,60.61,82.87,74.68,111.2,-38.65,8.455,16.87,41.44,-11.49,-23.82,0,0,0,0,0,0,0,0,0,0,0,0,0,0,0,0,
149,302.2,338.4,259.3,211.5,160.7,199.4,60.42,42.87,78.17,94.67,0.6337,15.42,33.56,37.84,2.85,-21.62,0,0,0,0,0,0,0,0,0,0,0,0,0,0,0,0,
150,245.6,191.1,212.3,186.6,127.3,148.3,58.34,48.88,61.04,72.85,1.187,17.52,35.51,42.94,6.086,-12.18,0,0,0,0,0,0,0,0,0,0,0,0,0,0,0,0,
151,148.5,154.8,153.0,180.7,127.3,120.0,55.73,73.66,57.32,83.23,-25.03,20.81,25.41,52.75,2.052,-4.784,0,0,0,0,0,0,0,0,0,0,0,0,0,0,0,0,
152,87.45,132.3,136.0,126.6,89.75,122.7,42.81,54.58,45.16,77.07,-57.96,22.15,-5.032,32.05,-22.4,-22.7,0,0,0,0,0,0,0,0,0,0,0,0,0,0,0,0,
153,52.24,49.55,127.8,60.95,48.58,108.0,32.81,33.65,12.41,40.92,-61.24,9.084,-16.47,17.01,-28.25,-32.19,0,0,0,0,0,0,0,0,0,0,0,0,0,0,0,0,
154,-15.04,16.82,91.76,56.11,69.94,81.32,40.8,38.53,16.8,40.29,-27.63,-3.287,5.948,26.82,-8.698,-28.39,0,0,0,0,0,0,0,0,0,0,0,0,0,0,0,0,
155,-57.4,-37.4,51.57,56.68,86.7,73.39,41.79,34.37,42.99,57.27,-40.94,-6.832,10.65,17.76,-8.318,-36.04,0,0,0,0,0,0,0,0,0,0,0,0,0,0,0,0,
156,-64.15,-121.8,29.08,39.63,57.51,59.59,22.69,13.47,38.07,37.32,-107.8,-6.78,-1.705,1.546,-12.9,-31.88,0,0,0,0,0,0,0,0,0,0,0,0,0,0,0,0,
157,-113.3,-159.9,5.436,20.23,14.8,15.45,2.302,6.582,22.39,11.66,-130.7,-6.413,-2.401,5.76,-3.907,-9.629,0,0,0,0,0,0,0,0,0,0,0,0,0,0,0,0,
158,-170.2,-221.3,-27.74,-29.19,-49.35,-28.74,-18.91,20.12,1.167,5.884,-127.2,-8.732,-8.758,9.993,-5.84,-3.763,0,0,0,0,0,0,0,0,0,0,0,0,0,0,0,0,
159,-221.7,-266.2,-49.25,-57.05,-80.95,-45.98,-31.24,17.28,-25.43,6.372,-155.6,-8.741,-14.53,11.37,-19.82,-21.85,0,0,0,0,0,0,0,0,0,0,0,0,0,0,0,0,
160,-289.0,-238.4,-45.66,-28.27,-39.88,-42.89,-20.43,-3.222,-22.1,16.94,-179.3,-12.86,-16.76,2.807,-41.12,-52.55,0,0,0,0,0,0,0,0,0,0,0,0,0,0,0,0,
161,-274.6,-249.5,-37.81,-34.0,-54.14,-48.46,-20.14,-0.7716,-26.34,15.56,-185.8,-18.85,-39.39,-23.59,-55.34,-72.56,0,0,0,0,0,0,0,0,0,0,0,0,0,0,0,0,
162,-239.2,-295.0,-54.45,-77.76,-109.8,-65.75,-22.85,17.2,-54.65,-7.541,-172.2,5.077,-31.08,-13.81,-18.36,-43.86,0,0,0,0,0,0,0,0,0,0,0,0,0,0,0,0,
163,-322.6,-325.6,-85.61,-79.08,-49.28,-52.48,8.544,11.5,-22.06,-1.788,-123.4,31.9,21.65,27.18,34.6,6.391,0,0,0,0,0,0,0,0,0,0,0,0,0,0,0,0,
164,-370.4,-374.7,-93.36,-67.59,14.07,-29.35,13.78,-18.16,28.72,11.96,-110.5,4.239,12.93,14.74,18.48,7.144,0,0,0,0,0,0,0,0,0,0,0,0,0,0,0,0,
165,-293.6,-361.0,-61.72,-73.64,-35.52,-50.58,-20.69,-27.89,-5.241,-16.9,-146.3,-32.48,-39.16,-15.15,-32.61,-21.38,0,0,0,0,0,0,0,0,0,0,0,0,0,0,0,0,
166,-253.1,-259.3,-26.96,-54.61,-48.78,-76.82,-9.252,1.653,-29.84,-17.24,-146.2,-21.36,-26.35,15.67,-51.36,-23.29,0,0,0,0,0,0,0,0,0,0,0,0,0,0,0,0,
167,-275.2,-237.7,-34.4,-44.72,-23.61,-67.95,14.34,10.31,18.27,33.39,-136.6,-4.403,2.357,43.47,-58.87,-21.39,0,0,0,0,0,0,0,0,0,0,0,0,0,0,0,0,
168,-315.0,-333.8,-68.71,-91.47,-52.89,-47.57,-7.283,-22.79,32.7,38.85,-157.1,-12.27,-5.448,22.15,-49.6,-27.85,0,0,0,0,0,0,0,0,0,0,0,0,0,0,0,0,
169,-380.1,-408.4,-106.9,-127.9,-52.82,-44.82,-19.52,-26.72,7.197,8.265,-141.1,-17.67,5.638,9.895,5.717,-6.449,0,0,0,0,0,0,0,0,0,0,0,0,0,0,0,0,
170,-398.2,-422.2,-157.7,-118.7,-53.36,-85.45,-36.52,-5.021,-4.007,-2.651,-99.58,-6.715,25.86,17.21,61.88,37.16,0,0,0,0,0,0,0,0,0,0,0,0,0,0,0,0,
171,-371.5,-425.1,-191.3,-125.9,-140.4,-145.6,-87.59,-18.29,-34.63,-31.96,-99.13,9.975,20.62,16.13,78.62,66.19,0,0,0,0,0,0,0,0,0,0,0,0,0,0,0,0,
172,-385.6,-414.8,-189.7,-163.3,-179.0,-176.4,-96.42,-44.0,-68.09,-75.7,-110.2,10.66,8.436,2.517,56.57,56.08,0,0,0,0,0,0,0,0,0,0,0,0,0,0,0,0,
173,-404.4,-403.9,-182.1,-186.9,-126.3,-179.8,-56.45,-50.4,-64.69,-87.57,-101.6,-11.99,-11.35,-26.35,5.736,11.4,0,0,0,0,0,0,0,0,0,0,0,0,0,0,0,0,
174,-395.2,-415.5,-158.6,-177.3,-109.3,-165.2,-20.53,-49.66,-51.08,-79.4,-89.5,-33.08,-23.54,-40.72,-22.98,-19.07,0,0,0,0,0,0,0,0,0,0,0,0,0,0,0,0,
175,-390.3,-402.1,-128.1,-149.5,-106.9,-138.4,15.2,-39.75,-23.8,-56.3,-71.63,-30.2,-2.871,-14.75,1.589,-6.728,0,0,0,0,0,0,0,0,0,0,0,0,0,0,0,0,
176,-367.2,-369.3,-125.2,-143.1,-70.39,-108.7,31.2,-21.23,14.5,-19.6,-48.71,-3.101,21.33,16.01,40.95,22.42,0,0,0,0,0,0,0,0,0,0,0,0,0,0,0,0,
177,-333.4,-374.4,-118.7,-158.7,-73.71,-83.78,16.89,-18.0,19.47,-4.186,-30.19,11.07,28.74,21.23,58.71,38.59,0,0,0,0,0,0,0,0,0,0,0,0,0,0,0,0,
178,-335.2,-375.2,-119.4,-157.1,-120.0,-105.3,7.042,-55.27,-1.721,-23.69,-22.59,-26.31,18.77,-3.674,40.62,24.19,0,0,0,0,0,0,0,0,0,0,0,0,0,0,0,0,
179,-337.4,-324.6,-150.1,-153.1,-133.3,-164.3,-10.13,-113.3,-28.1,-67.78,-45.21,-64.15,-16.34,-45.84,-4.135,-10.14,0,0,0,0,0,0,0,0,0,0,0,0,0,0,0,0,
180,-310.4,-271.3,-130.8,-167.0,-105.4,-184.0,-36.57,-116.8,-53.1,-102.8,-81.61,-49.45,-43.98,-55.84,-29.91,-21.11,0,0,0,0,0,0,0,0,0,0,0,0,0,0,0,0,
181,-301.1,-287.1,-82.68,-164.6,-76.17,-156.9,-35.97,-62.17,-47.68,-86.06,-82.7,-31.48,-30.83,-25.98,-12.07,2.661,0,0,0,0,0,0,0,0,0,0,0,0,0,0,0,0,
182,-319.8,-344.9,-106.2,-143.1,-73.08,-135.9,-24.0,-46.59,-19.81,-48.62,-56.97,-34.7,-2.048,-8.793,19.92,24.54,0,0,0,0,0,0,0,0,0,0,0,0,0,0,0,0,
183,-321.7,-322.3,-134.7,-130.8,-93.99,-142.9,-21.09,-82.73,-7.741,-45.79,-45.14,-30.33,8.537,-14.88,28.52,20.7,0,0,0,0,0,0,0,0,0,0,0,0,0,0,0,0,
184,-294.4,-280.2,-114.6,-135.9,-109.2,-134.8,-19.32,-83.94,-12.39,-55.17,-44.67,-33.58,-0.3904,-23.4,17.19,5.376,0,0,0,0,0,0,0,0,0,0,0,0,0,0,0,0,
185,-270.5,-359.1,-124.9,-160.3,-109.8,-91.89,-37.35,-53.52,-27.85,-51.39,-49.18,-49.31,-17.22,-41.1,7.693,-7.334,0,0,0,0,0,0,0,0,0,0,0,0,0,0,0,0,
186,-294.4,-395.3,-167.0,-180.2,-126.3,-88.08,-71.94,-61.02,-56.95,-59.78,-67.15,-47.5,-35.11,-60.26,-4.991,-17.66,0,0,0,0,0,0,0,0,0,0,0,0,0,0,0,0,
187,-355.0,-289.1,-196.6,-174.8,-160.2,-116.6,-80.31,-81.43,-73.74,-71.1,-76.2,-30.05,-40.7,-50.55,-18.68,-13.17,0,0,0,0,0,0,0,0,0,0,0,0,0,0,0,0,
188,-366.5,-250.0,-219.0,-162.8,-154.8,-123.5,-63.89,-67.8,-52.6,-54.75,-65.76,-20.83,-27.72,-26.41,-19.47,2.661,0,0,0,0,0,0,0,0,0,0,0,0,0,0,0,0,
189,-313.2,-278.6,-202.3,-138.7,-98.79,-163.9,-52.3,-58.1,-23.91,-40.12,-64.53,-29.9,-17.86,-25.87,-19.02,0.9708,0,0,0,0,0,0,0,0,0,0,0,0,0,0,0,0,
190,-269.4,-236.7,-144.7,-101.0,-84.99,-191.9,-38.87,-64.75,-23.66,-53.45,-64.22,-39.15,-14.06,-34.61,-14.17,-5.597,0,0,0,0,0,0,0,0,0,0,0,0,0,0,0,0,
191,-244.6,-214.1,-125.2,-96.67,-128.0,-139.6,-14.19,-55.97,-25.4,-63.98,-38.63,-31.43,5.349,-25.56,8.626,8.622,0,0,0,0,0,0,0,0,0,0,0,0,0,0,0,0,
192,-233.7,-255.0,-145.6,-126.4,-104.5,-116.4,6.08,-48.24,-2.449,-54.65,-10.72,-23.72,31.11,-12.89,29.35,23.77,0,0,0,0,0,0,0,0,0,0,0,0,0,0,0,0,
193,-262.6,-279.7,-137.9,-148.4,-35.46,-105.0,8.683,-41.89,20.7,-37.36,-6.31,-23.13,36.02,-11.59,28.51,22.33,0,0,0,0,0,0,0,0,0,0,0,0,0,0,0,0,
194,-273.4,-276.9,-109.5,-154.4,-55.98,-36.0,-9.172,-18.62,14.67,-24.95,-25.62,-20.68,10.66,-20.49,6.042,9.044,0,0,0,0,0,0,0,0,0,0,0,0,0,0,0,0,
195,-243.3,-238.9,-99.74,-138.6,-91.3,-34.6,-26.03,-13.06,-16.21,-25.02,-51.98,-21.75,-18.38,-32.12,-13.72,-5.296,0,0,0,0,0,0,0,0,0,0,0,0,0,0,0,0,
196,-252.1,-202.3,-115.2,-104.0,-49.91,-98.33,-14.71,-24.85,-29.09,-23.04,-52.9,-23.63,-14.08,-35.32,-5.277,-7.961,0,0,0,0,0,0,0,0,0,0,0,0,0,0,0,0,
197,-257.8,-220.3,-135.3,-81.63,-43.6,-115.7,-1.184,-22.22,-9.004,-18.16,-37.25,-26.09,-1.748,-35.71,-0.4225,-8.656,0,0,0,0,0,0,0,0,0,0,0,0,0,0,0,0,
198,-181.2,-202.8,-104.8,-69.02,-76.58,-110.7,-10.06,-28.52,-2.429,-25.02,-38.59,-34.39,-13.84,-36.31,-18.14,-11.73,0,0,0,0,0,0,0,0,0,0,0,0,0,0,0,0,
199,-118.4,-125.8,-48.02,-58.93,-42.44,-75.32,-10.3,-45.91,-14.59,-26.82,-41.71,-38.05,-20.82,-34.13,-22.68,-4.399,0,0,0,0,0,0,0,0,0,0,0,0,0,0,0,0,
200,-135.1,-110.2,-67.93,-78.79,-9.185,-25.44,0.2655,-47.94,-12.46,-29.06,-34.31,-41.77,-16.43,-44.29,-15.98,-2.283,0,0,0,0,0,0,0,0,0,0,0,0,0,0,0,0,
201,-171.8,-148.8,-120.6,-112.7,-44.55,-53.79,-7.948,-47.89,-9.23,-48.1,-35.27,-45.77,-19.13,-54.34,-12.25,-8.091,0,0,0,0,0,0,0,0,0,0,0,0,0,0,0,0,
202,-217.8,-182.3,-116.6,-123.0,-65.1,-95.63,-24.39,-47.14,-15.77,-48.37,-41.09,-31.32,-13.51,-36.74,0.3705,2.208,0,0,0,0,0,0,0,0,0,0,0,0,0,0,0,0,
203,-239.4,-214.3,-114.8,-117.7,-39.92,-78.46,-27.76,-27.75,-18.03,-25.94,-40.01,-17.96,0.9677,-13.07,5.962,11.88,0,0,0,0,0,0,0,0,0,0,0,0,0,0,0,0,
204,-170.1,-190.8,-126.2,-95.61,-27.05,-66.14,-14.02,1.935,-10.54,-10.46,-30.95,-18.68,12.15,-3.085,0.9562,8.238,0,0,0,0,0,0,0,0,0,0,0,0,0,0,0,0,
205,-104.7,-143.3,-96.95,-66.32,-46.7,-66.09,3.809,17.48,5.366,1.944,-20.65,-4.06,18.82,2.829,5.677,14.82,0,0,0,0,0,0,0,0,0,0,0,0,0,0,0,0,
206,-136.9,-165.2,-84.22,-75.39,-70.53,-62.27,-3.69,0.3224,4.285,-0.5977,-28.09,11.33,6.313,-3.031,3.329,18.64,0,0,0,0,0,0,0,0,0,0,0,0,0,0,0,0,
207,-173.0,-149.1,-109.3,-88.75,-74.78,-76.64,-23.91,-22.45,-23.83,-20.43,-42.1,-9.892,-18.88,-26.61,-18.29,-2.79,0,0,0,0,0,0,0,0,0,0,0,0,0,0,0,0,
208,-164.5,-61.84,-107.1,-59.37,-67.25,-83.05,-16.51,-12.56,-41.64,-30.83,-30.33,-44.34,-31.2,-49.44,-39.12,-27.84,0,0,0,0,0,0,0,0,0,0,0,0,0,0,0,0,
209,-171.9,-77.11,-93.04,-53.9,-61.9,-70.35,-3.416,0.1481,-36.93,-41.85,-13.3,-52.94,-34.18,-54.56,-49.53,-39.98,0,0,0,0,0,0,0,0,0,0,0,0,0,0,0,0,
210,-193.1,-174.7,-98.47,-92.19,-63.92,-59.12,-20.99,-7.271,-31.22,-50.66,-25.68,-41.46,-35.21,-47.06,-46.35,-42.52,0,0,0,0,0,0,0,0,0,0,0,0,0,0,0,0,
211,-191.1,-223.1,-100.7,-99.38,-79.67,-51.4,-37.68,-3.24,-35.79,-39.69,-40.86,-37.47,-30.54,-43.27,-30.99,-34.6,0,0,0,0,0,0,0,0,0,0,0,0,0,0,0,0,
212,-157.1,-224.0,-106.8,-80.0,-90.95,-71.63,-28.55,0.3246,-45.34,-32.66,-33.14,-43.84,-24.26,-37.99,-23.12,-22.4,0,0,0,0,0,0,0,0,0,0,0,0,0,0,0,0,
213,-121.8,-159.4,-121.6,-73.09,-71.73,-106.1,-23.83,-20.09,-39.33,-26.97,-23.96,-40.85,-16.29,-20.66,-25.67,-11.38,0,0,0,0,0,0,0,0,0,0,0,0,0,0,0,0,
214,-129.0,-68.18,-102.9,-61.57,-41.96,-83.27,-25.31,-20.73,-20.01,-10.18,-13.87,-32.19,-2.624,-7.93,-16.52,-1.396,0,0,0,0,0,0,0,0,0,0,0,0,0,0,0,0,
215,-129.0,-64.16,-47.7,-58.36,-38.2,-35.77,-12.14,4.154,-13.56,-8.681,1.383,-35.38,3.97,-13.21,-5.124,-4.287,0,0,0,0,0,0,0,0,0,0,0,0,0,0,0,0,
216,-92.35,-95.08,-19.93,-79.57,-57.45,-48.31,-7.325,-0.9026,-20.18,-14.77,-7.01,-40.21,-6.498,-24.37,-14.34,-18.53,0,0,0,0,0,0,0,0,0,0,0,0,0,0,0,0,
217,-100.3,-109.7,-46.0,-70.81,-65.79,-56.5,-16.27,-10.81,-23.14,-5.25,-21.36,-33.18,-11.17,-24.3,-19.61,-20.62,0,0,0,0,0,0,0,0,0,0,0,0,0,0,0,0,
218,-122.9,-143.6,-73.26,-20.2,-47.24,1.498,-11.55,23.83,-11.43,11.23,-12.4,-19.95,-5.277,-17.4,-16.54,-15.29,0,0,0,0,0,0,0,0,0,0,0,0,0,0,0,0,
219,-88.24,-112.1,-61.42,-2.925,-26.61,10.51,-9.432,47.57,0.2513,25.66,-15.08,-12.07,-23.72,-27.8,-40.54,-24.87,0,0,0,0,0,0,0,0,0,0,0,0,0,0,0,0,
220,-84.54,-40.25,-40.99,-35.78,-30.61,-55.99,-24.31,21.94,-19.98,18.43,-26.43,-26.32,-49.82,-50.33,-61.99,-38.69,0,0,0,0,0,0,0,0,0,0,0,0,0,0,0,0,
221,-122.1,-91.05,-57.32,-59.94,-51.11,-59.26,-30.07,-1.395,-47.28,-10.25,-16.55,-52.57,-41.64,-55.19,-48.88,-41.94,0,0,0,0,0,0,0,0,0,0,0,0,0,0,0,0,
222,-96.18,-148.4,-86.45,-58.92,-52.35,-15.02,-23.62,2.872,-35.2,-16.56,-15.54,-46.48,-24.27,-42.54,-43.55,-40.49,0,0,0,0,0,0,0,0,0,0,0,0,0,0,0,0,
223,-62.27,-64.09,-64.76,-46.7,-11.32,-12.01,-16.62,20.74,-4.655,1.758,-19.3,-15.24,-15.22,-24.74,-44.78,-31.72,0,0,0,0,0,0,0,0,0,0,0,0,0,0,0,0,
224,-87.27,-15.19,-19.75,-31.09,20.98,-1.822,-11.29,32.59,10.05,12.22,1.064,-10.65,-0.5792,-10.26,-24.57,-20.37,0,0,0,0,0,0,0,0,0,0,0,0,0,0,0,0,
225,-82.56,-89.53,-30.13,-34.56,-14.79,-1.258,-17.3,12.35,6.203,11.33,12.47,-21.6,-2.719,-17.34,-22.64,-28.32,0,0,0,0,0,0,0,0,0,0,0,0,0,0,0,0,
226,-47.11,-122.8,-65.94,-40.13,-53.69,-52.38,-28.85,-20.33,-12.06,-6.189,6.118,-15.82,-22.68,-39.26,-44.36,-43.64,0,0,0,0,0,0,0,0,0,0,0,0,0,0,0,0,
227,-64.05,-66.67,-59.1,-18.28,-29.74,-58.66,-30.23,-25.96,-22.94,-36.53,9.179,-17.44,-26.17,-46.7,-37.79,-34.13,0,0,0,0,0,0,0,0,0,0,0,0,0,0,0,0,
228,-85.13,-15.41,-30.67,-16.84,-13.88,-23.35,-25.79,-15.18,-11.14,-43.96,13.47,-30.05,-18.56,-36.35,-14.78,-15.09,0,0,0,0,0,0,0,0,0,0,0,0,0,0,0,0,
229,-69.73,-14.14,-19.63,-48.85,-36.28,-30.25,-26.47,-11.76,-1.024,-27.83,5.208,-25.09,-20.19,-24.55,-21.49,-22.04,0,0,0,0,0,0,0,0,0,0,0,0,0,0,0,0,
230,-72.03,-36.34,-27.34,-55.74,-32.3,-32.47,-34.63,-16.45,-8.927,-19.03,-15.13,-19.51,-27.03,-18.57,-40.91,-36.55,0,0,0,0,0,0,0,0,0,0,0,0,0,0,0,0,
231,-71.84,-53.19,-42.59,-56.76,-21.64,-19.58,-33.58,-20.18,-15.01,-13.91,-25.53,-23.89,-26.16,-15.7,-33.01,-24.26,0,0,0,0,0,0,0,0,0,0,0,0,0,0,0,0,
232,-51.02,-95.98,-49.13,-74.9,-50.96,-22.05,-12.0,-15.94,-8.248,-5.396,-0.5517,-14.9,-16.94,-17.99,-12.3,-9.036,0,0,0,0,0,0,0,0,0,0,0,0,0,0,0,0,
233,-57.02,-146.4,-43.91,-53.37,-67.46,2.158,2.599,1.488,-8.075,-10.53,27.03,-8.406,-18.49,-28.36,-10.86,-17.6,0,0,0,0,0,0,0,0,0,0,0,0,0,0,0,0,
234,-56.15,-111.1,-31.95,-17.62,-37.14,-6.346,-4.654,30.83,-23.37,-25.4,18.79,-20.73,-35.0,-38.29,-24.55,-31.12,0,0,0,0,0,0,0,0,0,0,0,0,0,0,0,0,
235,-43.34,-48.72,-18.15,-32.55,-22.02,-96.87,-19.12,28.44,-38.76,-37.74,-10.36,-26.32,-52.59,-50.75,-50.29,-48.57,0,0,0,0,0,0,0,0,0,0,0,0,0,0,0,0,
236,-73.84,-47.59,-15.94,-47.07,-59.75,-124.7,-40.68,-26.43,-51.2,-56.37,-39.83,-23.3,-69.2,-68.26,-81.94,-69.85,0,0,0,0,0,0,0,0,0,0,0,0,0,0,0,0,
237,-74.52,-5.321,-18.0,-30.46,-89.84,-60.8,-51.6,-55.31,-60.09,-68.85,-51.59,-29.74,-74.49,-63.61,-81.21,-60.73,0,0,0,0,0,0,0,0,0,0,0,0,0,0,0,0,
238,-25.82,48.53,-11.59,-39.21,-57.88,-42.57,-30.22,-31.61,-49.14,-49.25,-35.63,-41.49,-59.67,-40.9,-50.23,-35.84,0,0,0,0,0,0,0,0,0,0,0,0,0,0,0,0,
239,-37.87,-34.48,-2.377,-64.08,-7.47,-57.95,-12.42,-21.5,-30.34,-22.53,-16.89,-42.11,-48.05,-39.74,-37.44,-36.2,0,0,0,0,0,0,0,0,0,0,0,0,0,0,0,0,
240,-70.22,-87.15,12.76,-50.16,2.243,-55.67,-20.64,-17.41,-34.66,-28.79,-13.57,-22.53,-53.95,-50.43,-45.25,-42.85,0,0,0,0,0,0,0,0,0,0,0,0,0,0,0,0,
241,-46.5,9.46,5.805,-20.21,-20.54,-73.92,-26.67,-3.383,-47.42,-47.37,-16.28,-11.26,-58.17,-45.9,-45.67,-37.79,0,0,0,0,0,0,0,0,0,0,0,0,0,0,0,0,
242,-21.42,8.115,-42.42,-24.04,-41.14,-56.52,-27.99,-14.56,-38.71,-37.85,-15.96,-25.42,-46.32,-35.6,-39.38,-30.5,0,0,0,0,0,0,0,0,0,0,0,0,0,0,0,0,
243,-11.68,-97.87,-44.9,-42.88,-39.29,16.96,-31.36,-5.965,-25.04,-14.44,-8.049,-15.04,-29.15,-22.49,-33.58,-14.99,0,0,0,0,0,0,0,0,0,0,0,0,0,0,0,0,
244,-16.9,-85.0,20.99,-40.5,-17.14,13.52,-19.04,37.13,-26.04,-8.739,4.743,19.81,-15.45,-1.568,-19.44,3.46,0,0,0,0,0,0,0,0,0,0,0,0,0,0,0,0,
245,-49.08,-36.08,37.51,-31.03,4.242,-43.81,-1.303,19.29,-19.63,-10.46,7.222,8.637,-5.841,8.314,-4.096,5.428,0,0,0,0,0,0,0,0,0,0,0,0,0,0,0,0,
246,-35.35,-12.85,1.289,-19.76,15.01,-22.4,-2.728,-38.69,-3.363,-8.017,-10.17,-29.69,-17.81,-8.45,-15.88,-12.32,0,0,0,0,0,0,0,0,0,0,0,0,0,0,0,0,
247,30.23,74.71,6.992,5.59,21.7,13.57,-4.138,-35.63,-8.367,-13.35,-23.93,-26.08,-39.37,-25.02,-35.37,-26.04,0,0,0,0,0,0,0,0,0,0,0,0,0,0,0,0,
248,41.31,88.71,33.3,13.9,22.81,-6.384,13.46,-9.182,-15.49,-14.89,-8.073,1.338,-25.32,-11.68,-17.86,-10.25,0,0,0,0,0,0,0,0,0,0,0,0,0,0,0,0,
249,-4.818,0.9595,24.68,-0.2452,12.32,-19.74,14.26,-18.23,0.5876,-6.971,2.796,3.716,-8.336,-6.913,0.0921,0.6784,0,0,0,0,0,0,0,0,0,0,0,0,0,0,0,0,
250,-19.54,16.18,-11.49,13.48,-8.101,-27.18,-24.16,-23.59,-9.512,-20.67,-24.52,-11.89,-35.35,-37.68,-21.56,-19.93,0,0,0,0,0,0,0,0,0,0,0,0,0,0,0,0,
251,9.22,81.47,-47.56,48.17,-32.56,-44.16,-58.05,-10.03,-51.83,-39.97,-48.56,-10.38,-51.21,-43.38,-36.35,-21.84,0,0,0,0,0,0,0,0,0,0,0,0,0,0,0,0,
252,20.79,77.37,-53.17,51.03,-44.6,-38.22,-61.63,0.4222,-64.42,-27.07,-44.96,3.694,-34.81,-18.72,-28.21,-6.697,0,0,0,0,0,0,0,0,0,0,0,0,0,0,0,0,
253,-1.612,57.74,-38.14,25.13,-31.46,-24.82,-52.1,10.25,-58.91,-18.05,-35.64,-2.691,-34.0,-25.39,-28.48,-19.06,0,0,0,0,0,0,0,0,0,0,0,0,0,0,0,0,
254,-1.242,20.22,-27.26,7.994,-14.49,3.024,-25.55,9.511,-55.42,-25.29,-18.4,-14.25,-31.74,-38.68,-31.84,-27.12,0,0,0,0,0,0,0,0,0,0,0,0,0,0,0,0,
255,32.93,1.451,-14.08,8.82,-7.928,45.23,7.42,-1.098,-24.36,-6.721,-2.579,-3.966,-12.37,-26.82,-33.3,-17.42,0,0,0,0,0,0,0,0,0,0,0,0,0,0,0,0,
256,42.66,29.84,-15.25,21.66,5.133,32.89,16.07,7.665,0.1411,9.599,-3.587,5.692,-4.875,-19.8,-29.74,-16.02,0,0,0,0,0,0,0,0,0,0,0,0,0,0,0,0,
257,26.71,-1.082,-24.52,43.57,9.574,-0.954,15.67,15.16,-5.301,-0.7821,6.1,5.546,4.947,-11.27,-10.42,-6.472,0,0,0,0,0,0,0,0,0,0,0,0,0,0,0,0,
258,12.94,-18.06,-6.485,52.3,-9.973,-0.3302,17.22,-5.561,3.145,4.159,22.09,7.547,18.4,-2.659,-1.83,2.102,0,0,0,0,0,0,0,0,0,0,0,0,0,0,0,0,
259,-1.05,70.65,-7.059,37.35,-14.12,-20.4,11.18,-19.72,10.91,9.955,18.68,4.828,10.96,-12.76,-6.231,-4.449,0,0,0,0,0,0,0,0,0,0,0,0,0,0,0,0,
260,25.08,107.8,-31.03,39.8,13.13,-14.48,28.43,-5.221,8.028,0.833,35.27,12.97,21.73,4.992,21.41,22.3,0,0,0,0,0,0,0,0,0,0,0,0,0,0,0,0,
261,85.76,75.8,17.9,69.91,64.62,83.79,81.43,34.41,43.15,31.96,99.14,54.46,79.85,63.23,86.75,91.66,0,0,0,0,0,0,0,0,0,0,0,0,0,0,0,0,
262,84.82,65.43,102.9,67.93,138.4,147.8,128.8,79.53,99.98,92.11,159.5,97.47,133.8,102.0,146.7,146.8,0,0,0,0,0,0,0,0,0,0,0,0,0,0,0,0,
263,60.89,23.15,104.8,29.77,161.7,128.1,139.5,81.24,129.4,116.2,162.2,96.48,136.6,104.4,147.6,145.8,0,0,0,0,0,0,0,0,0,0,0,0,0,0,0,0,
264,99.73,2.472,66.66,39.25,97.63,121.1,114.4,57.97,121.7,105.3,117.6,59.41,101.2,84.9,90.57,95.93,0,0,0,0,0,0,0,0,0,0,0,0,0,0,0,0,
265,106.5,86.39,78.42,100.4,55.62,100.2,81.27,55.02,82.85,79.22,77.59,31.43,65.99,50.03,47.35,51.4,0,0,0,0,0,0,0,0,0,0,0,0,0,0,0,0,
266,56.18,167.6,100.8,106.1,66.97,25.92,55.46,39.06,43.71,42.72,53.1,26.63,41.48,21.49,35.24,38.92,0,0,0,0,0,0,0,0,0,0,0,0,0,0,0,0,
267,54.83,138.2,67.85,47.88,27.12,-11.53,21.14,13.16,19.75,17.3,26.89,21.66,18.65,13.91,22.24,33.94,0,0,0,0,0,0,0,0,0,0,0,0,0,0,0,0,
268,49.51,9.229,1.775,18.49,-39.17,18.36,-2.761,7.297,0.4018,13.05,18.48,14.58,8.917,19.31,23.69,31.84,0,0,0,0,0,0,0,0,0,0,0,0,0,0,0,0,
269,-12.75,-67.54,-32.48,11.25,-23.99,39.58,4.75,-6.849,-1.073,15.62,25.48,19.44,13.91,21.29,29.17,29.95,0,0,0,0,0,0,0,0,0,0,0,0,0,0,0,0,
270,-26.5,11.25,-15.3,-4.407,19.83,21.43,12.18,-10.98,3.195,13.75,18.75,26.2,14.94,12.21,11.05,16.93,0,0,0,0,0,0,0,0,0,0,0,0,0,0,0,0,
271,20.38,73.09,13.17,7.184,7.532,12.58,13.66,9.405,-11.07,4.686,15.59,21.93,15.71,5.303,8.304,15.01,0,0,0,0,0,0,0,0,0,0,0,0,0,0,0,0,
272,46.63,28.94,9.191,8.743,-12.4,32.13,17.5,7.8,-19.2,-4.544,19.12,6.371,12.18,1.825,22.81,21.75,0,0,0,0,0,0,0,0,0,0,0,0,0,0,0,0,
273,28.76,8.753,-18.88,-29.11,-14.18,21.22,-3.145,-1.289,-25.03,-8.96,-1.138,-16.98,-22.21,-16.1,1.548,3.753,0,0,0,0,0,0,0,0,0,0,0,0,0,0,0,0,
274,-19.22,7.802,-27.76,-29.42,-35.7,-24.13,-33.81,-7.81,-55.7,-24.91,-31.49,-31.62,-69.98,-39.93,-36.76,-21.71,0,0,0,0,0,0,0,0,0,0,0,0,0,0,0,0,
275,-41.64,-19.76,-21.24,-4.479,-62.61,-28.67,-42.0,-24.27,-80.08,-48.8,-43.95,-27.66,-84.53,-47.29,-46.51,-28.24,0,0,0,0,0,0,0,0,0,0,0,0,0,0,0,0,
276,-29.78,-51.24,-40.85,-28.8,-79.18,-10.85,-47.93,-2.888,-80.27,-45.18,-41.91,-24.1,-74.83,-46.55,-46.14,-35.68,0,0,0,0,0,0,0,0,0,0,0,0,0,0,0,0,
277,-61.56,-91.56,-73.49,-47.35,-83.63,-41.99,-56.17,22.49,-84.74,-27.21,-39.44,-28.08,-77.29,-48.76,-56.03,-45.72,0,0,0,0,0,0,0,0,0,0,0,0,0,0,0,0,
278,-100.2,-63.27,-69.54,-6.419,-56.34,-78.4,-41.95,-6.028,-83.65,-27.09,-34.65,-20.94,-68.85,-33.77,-47.01,-27.07,0,0,0,0,0,0,0,0,0,0,0,0,0,0,0,0,
279,-35.97,43.39,-19.59,25.58,-28.7,-42.89,-8.749,-8.902,-50.24,-16.31,-14.6,-6.921,-31.35,-6.261,-19.27,-0.7724,0,0,0,0,0,0,0,0,0,0,0,0,0,0,0,0,
280,47.11,78.19,10.4,5.622,-23.43,29.3,9.944,24.47,-17.6,3.354,-12.03,-2.172,-23.27,-5.115,-27.34,-17.19,0,0,0,0,0,0,0,0,0,0,0,0,0,0,0,0,
281,-7.964,33.64,-51.86,-18.84,-7.565,48.97,-13.9,17.99,-19.21,-2.865,-43.45,7.823,-40.8,-7.61,-50.12,-35.63,0,0,0,0,0,0,0,0,0,0,0,0,0,0,0,0,
282,-100.5,-6.684,-113.6,-19.12,4.097,18.23,-36.28,2.612,-15.35,6.185,-35.98,20.79,-13.78,20.54,-22.02,-4.473,0,0,0,0,0,0,0,0,0,0,0,0,0,0,0,0,
283,-32.45,-26.99,-45.5,-27.02,-10.38,2.072,-4.928,-4.885,9.876,31.34,4.796,4.657,7.274,28.46,2.552,15.0,0,0,0,0,0,0,0,0,0,0,0,0,0,0,0,0,
284,93.42,-6.997,41.36,-53.08,-22.59,0.0782,20.87,-30.11,3.465,5.153,-3.753,-14.45,-23.64,12.53,-20.05,0.8812,0,0,0,0,0,0,0,0,0,0,0,0,0,0,0,0,
285,78.7,11.51,29.38,-62.16,-17.41,-5.55,4.476,-30.91,-19.99,-23.4,-18.1,4.812,-18.29,34.03,-13.09,15.12,0,0,0,0,0,0,0,0,0,0,0,0,0,0,0,0,
286,18.8,5.363,16.5,-49.1,1.429,-5.141,5.25,-14.28,-5.391,2.249,5.255,17.17,19.52,53.27,16.82,29.55,0,0,0,0,0,0,0,0,0,0,0,0,0,0,0,0,
287,42.29,44.69,42.06,-34.38,16.17,-11.83,21.2,-9.633,14.59,14.77,7.852,-6.484,12.4,28.84,2.294,7.007,0,0,0,0,0,0,0,0,0,0,0,0,0,0,0,0,
288,61.56,60.7,45.51,-17.36,13.98,-1.799,19.68,21.89,13.61,4.691,0.5404,-17.08,0.2863,14.94,-10.42,-0.0489,0,0,0,0,0,0,0,0,0,0,0,0,0,0,0,0,
289,40.95,-24.87,44.2,-18.63,13.0,34.7,22.13,36.85,17.99,11.93,16.27,-5.054,8.577,16.68,13.44,12.53,0,0,0,0,0,0,0,0,0,0,0,0,0,0,0,0,
290,45.52,-67.13,39.73,-57.14,13.32,24.52,29.77,-16.54,19.83,5.34,24.17,1.475,5.823,12.05,31.32,15.84,0,0,0,0,0,0,0,0,0,0,0,0,0,0,0,0,
291,42.48,-2.617,-1.198,-85.26,5.217,-10.7,29.39,-49.52,18.58,-8.19,28.83,-0.6946,9.521,18.4,38.08,19.97,0,0,0,0,0,0,0,0,0,0,0,0,0,0,0,0,
292,8.689,32.59,-42.61,-78.77,-7.822,-10.54,16.2,-32.01,22.74,-1.455,35.22,-9.798,12.63,16.24,40.11,17.38,0,0,0,0,0,0,0,0,0,0,0,0,0,0,0,0,
293,6.458,-0.6702,-36.81,-75.01,-21.16,-30.63,-10.1,-21.9,3.575,-10.72,20.47,-7.73,-0.8166,3.592,25.63,13.02,0,0,0,0,0,0,0,0,0,0,0,0,0,0,0,0,
294,23.31,-24.93,8.635,-74.21,-8.657,-50.98,-10.23,-2.245,-20.13,-25.46,6.425,9.982,3.285,12.85,6.151,17.93,0,0,0,0,0,0,0,0,0,0,0,0,0,0,0,0,
295,20.34,-11.85,42.6,-62.74,9.749,-16.24,12.82,24.59,-11.75,-12.05,4.622,8.788,13.07,13.32,-7.321,2.296,0,0,0,0,0,0,0,0,0,0,0,0,0,0,0,0,
296,22.12,5.806,30.05,-52.01,-19.98,-16.95,1.994,16.17,-11.32,-9.677,-0.058,-4.116,4.268,-8.344,-4.503,-14.06,0,0,0,0,0,0,0,0,0,0,0,0,0,0,0,0,
297,11.24,-8.831,0.3283,-38.2,-47.16,-51.22,-13.35,0.8213,-28.27,-25.0,9.763,-2.001,13.5,-3.695,25.21,9.467,0,0,0,0,0,0,0,0,0,0,0,0,0,0,0,0,
298,-16.52,-32.69,-24.94,-43.13,-26.96,-7.017,8.683,0.1503,-12.03,-11.76,30.98,1.633,40.58,19.52,46.09,28.44,0,0,0,0,0,0,0,0,0,0,0,0,0,0,0,0,
299,-7.556,-28.51,-50.38,-75.19,-20.84,52.0,18.07,-0.6066,16.1,14.15,36.12,4.077,43.71,21.58,32.97,19.27,0,0,0,0,0,0,0,0,0,0,0,0,0,0,0,0,
300,23.25,-23.16,-36.88,-59.78,-25.91,31.05,8.49,8.481,11.55,12.24,40.41,6.92,36.84,20.42,30.31,29.53,0,0,0,0,0,0,0,0,0,0,0,0,0,0,0,0,
301,56.85,-1.196,17.1,-4.088,5.412,-8.157,17.76,15.11,8.76,3.921,46.9,2.389,43.15,38.86,47.55,51.15,0,0,0,0,0,0,0,0,0,0,0,0,0,0,0,0,
302,83.03,65.46,29.35,-17.36,21.54,-16.75,6.849,-4.992,21.93,12.64,25.28,6.061,36.47,49.83,38.16,41.25,0,0,0,0,0,0,0,0,0,0,0,0,0,0,0,0,
303,40.97,69.45,-7.251,-75.35,-13.05,-18.45,-34.36,-29.27,9.06,7.374,2.455,12.96,14.33,32.67,20.56,24.44,0,0,0,0,0,0,0,0,0,0,0,0,0,0,0,0,
304,-16.12,-11.68,-19.82,-78.22,-33.82,-25.31,-35.47,-25.85,-15.48,-22.21,17.06,2.384,8.424,14.54,31.5,27.23,0,0,0,0,0,0,0,0,0,0,0,0,0,0,0,0,
305,-9.455,-34.78,-3.526,-50.75,-10.32,-26.78,2.728,4.144,-12.43,-30.38,37.95,-3.554,16.28,16.59,40.72,27.3,0,0,0,0,0,0,0,0,0,0,0,0,0,0,0,0,
306,7.141,1.285,14.57,-38.77,14.49,-8.697,29.46,24.18,7.155,-2.743,48.46,9.412,27.75,26.29,38.86,25.08,0,0,0,0,0,0,0,0,0,0,0,0,0,0,0,0,
307,38.47,40.01,31.49,-14.07,32.28,9.93,47.88,14.08,32.03,19.24,63.43,17.24,43.2,35.27,45.15,32.4,0,0,0,0,0,0,0,0,0,0,0,0,0,0,0,0,
308,88.41,94.63,35.2,13.73,60.63,27.26,53.3,10.4,51.31,20.15,61.63,17.79,44.98,43.46,42.7,33.8,0,0,0,0,0,0,0,0,0,0,0,0,0,0,0,0,
309,60.74,60.66,28.21,1.079,64.96,70.55,27.04,18.87,48.44,27.46,41.27,21.94,33.64,42.23,27.8,26.74,0,0,0,0,0,0,0,0,0,0,0,0,0,0,0,0,
310,-3.382,-34.52,4.633,-24.44,33.41,73.1,-0.7885,6.624,41.32,38.57,33.81,12.18,24.63,24.34,17.42,14.71,0,0,0,0,0,0,0,0,0,0,0,0,0,0,0,0,
311,-0.8519,8.719,-30.76,-29.58,11.62,8.008,-1.939,1.175,32.88,23.34,36.43,-9.116,16.81,3.028,13.86,1.288,0,0,0,0,0,0,0,0,0,0,0,0,0,0,0,0,
312,33.17,50.76,-3.601,-44.11,-0.9384,-6.149,11.94,13.35,11.96,0.7434,38.97,-7.941,20.37,4.43,22.77,9.174,0,0,0,0,0,0,0,0,0,0,0,0,0,0,0,0,
313,44.37,-47.43,67.1,-52.42,-8.212,26.11,29.0,-0.1757,11.19,4.476,52.53,10.06,40.85,28.17,38.65,30.37,0,0,0,0,0,0,0,0,0,0,0,0,0,0,0,0,
314,23.23,-42.58,72.5,-18.15,10.72,25.61,43.75,-11.08,35.95,17.3,72.79,18.49,54.95,43.33,39.37,32.02,0,0,0,0,0,0,0,0,0,0,0,0,0,0,0,0,
315,-15.83,30.03,40.98,-10.53,-5.014,33.15,34.96,6.437,37.59,19.32,66.92,17.83,40.08,29.37,18.49,14.2,0,0,0,0,0,0,0,0,0,0,0,0,0,0,0,0,
316,-49.85,-48.91,13.06,-58.21,-64.25,12.75,-3.837,4.085,7.296,7.941,24.92,11.68,6.153,6.568,-5.643,-2.31,0,0,0,0,0,0,0,0,0,0,0,0,0,0,0,0,
317,-74.91,-62.44,-42.47,-71.1,-47.29,-63.67,-25.56,0.1717,-11.43,-9.872,2.572,14.99,-0.6951,12.84,-4.946,1.957,0,0,0,0,0,0,0,0,0,0,0,0,0,0,0,0,
318,-47.28,82.2,-50.91,-43.17,24.95,-61.98,-5.753,21.14,4.29,-3.053,27.33,32.67,24.63,34.2,13.06,18.75,0,0,0,0,0,0,0,0,0,0,0,0,0,0,0,0,
319,38.7,112.1,14.63,-29.45,26.57,-3.905,8.453,14.85,22.85,17.45,44.72,31.52,34.54,34.73,20.66,21.58,0,0,0,0,0,0,0,0,0,0,0,0,0,0,0,0,
320,74.97,35.38,39.75,-15.85,-5.625,-0.161,5.457,-0.1817,21.1,15.08,43.27,18.65,38.77,36.28,29.19,20.62,0,0,0,0,0,0,0,0,0,0,0,0,0,0,0,0,
321,49.31,0.4193,27.73,-3.222,4.086,20.23,17.83,15.06,26.39,17.81,57.41,23.16,57.72,42.87,41.65,23.65,0,0,0,0,0,0,0,0,0,0,0,0,0,0,0,0,
322,39.19,-20.68,40.78,-4.408,10.89,48.05,26.41,12.7,35.92,26.86,67.31,19.19,48.42,17.97,34.96,15.35,0,0,0,0,0,0,0,0,0,0,0,0,0,0,0,0,
323,17.03,-4.074,35.73,1.113,-17.9,5.675,10.97,5.367,15.83,2.904,60.1,0.5731,16.01,-5.926,21.1,9.109,0,0,0,0,0,0,0,0,0,0,0,0,0,0,0,0,
324,-4.991,27.14,18.79,11.12,-26.36,-6.774,-3.025,33.31,-8.838,-7.559,56.25,-1.517,5.437,5.257,10.49,7.552,0,0,0,0,0,0,0,0,0,0,0,0,0,0,0,0,
325,41.43,-7.022,41.27,17.4,2.42,25.94,-15.92,38.09,-13.76,18.06,34.37,3.724,-8.938,2.896,-14.05,-8.498,0,0,0,0,0,0,0,0,0,0,0,0,0,0,0,0,
326,64.84,-0.6285,49.34,3.523,-6.992,1.172,-40.31,7.433,-28.84,6.425,-9.229,-4.175,-42.79,-24.76,-38.8,-24.77,0,0,0,0,0,0,0,0,0,0,0,0,0,0,0,0,
327,11.44,69.88,4.221,-34.38,-38.05,-15.89,-45.53,1.496,-40.99,-29.89,-15.52,-12.68,-41.98,-28.86,-33.17,-27.97,0,0,0,0,0,0,0,0,0,0,0,0,0,0,0,0,
328,1.2,62.76,-17.54,-34.21,6.166,20.55,-22.62,8.683,-12.93,-20.55,13.15,-8.312,-5.908,-9.731,-10.8,-29.24,0,0,0,0,0,0,0,0,0,0,0,0,0,0,0,0,
329,36.06,11.89,8.89,-9.265,46.24,20.26,-19.53,-1.498,11.83,-0.1675,8.661,-5.793,-4.306,-5.108,-14.64,-34.49,0,0,0,0,0,0,0,0,0,0,0,0,0,0,0,0,
330,28.82,-1.318,4.439,-35.71,-17.83,-13.1,-43.67,-10.6,-11.35,-16.4,-17.41,-13.91,-38.26,-18.25,-40.51,-41.06,0,0,0,0,0,0,0,0,0,0,0,0,0,0,0,0,
331,5.054,-5.519,-24.08,-58.14,-73.4,-36.33,-46.86,-13.11,-41.17,-37.49,-10.98,-7.865,-47.99,-27.17,-39.19,-34.34,0,0,0,0,0,0,0,0,0,0,0,0,0,0,0,0,
332,-4.414,10.49,8.161,-32.87,-54.91,-55.99,-26.45,-18.13,-43.43,-40.24,7.55,6.279,-35.75,-28.82,-16.34,-18.76,0,0,0,0,0,0,0,0,0,0,0,0,0,0,0,0,
333,16.31,19.79,58.42,-27.7,-45.79,-51.49,-17.12,-18.42,-38.95,-41.41,6.443,-6.234,-39.46,-39.63,-18.56,-31.04,0,0,0,0,0,0,0,0,0,0,0,0,0,0,0,0,
334,76.71,-4.548,46.19,-36.04,-55.83,-47.55,-20.19,-8.344,-42.65,-49.78,-0.687,-22.51,-54.48,-58.37,-33.89,-61.29,0,0,0,0,0,0,0,0,0,0,0,0,0,0,0,0,
335,89.41,25.44,31.08,-22.54,-39.34,-67.16,-17.41,6.765,-45.53,-53.19,0.7066,-10.83,-54.97,-57.22,-27.57,-57.16,0,0,0,0,0,0,0,0,0,0,0,0,0,0,0,0,
336,37.03,68.55,55.69,-10.56,-3.112,-33.53,-2.086,18.68,-25.71,-30.37,15.05,5.77,-33.91,-27.48,-13.53,-28.38,0,0,0,0,0,0,0,0,0,0,0,0,0,0,0,0,
337,39.27,42.25,58.74,12.72,28.76,37.08,7.057,24.51,14.05,10.15,26.3,12.94,-16.35,-1.558,-15.57,-19.71,0,0,0,0,0,0,0,0,0,0,0,0,0,0,0,0,
338,89.56,60.21,40.6,43.01,43.66,45.08,-8.35,37.55,29.04,30.88,18.65,27.75,-16.38,11.14,-17.11,-15.71,0,0,0,0,0,0,0,0,0,0,0,0,0,0,0,0,
339,78.66,108.5,46.23,32.67,43.03,32.77,-19.89,64.11,20.77,43.73,22.99,48.53,-4.816,37.05,4.442,6.622,0,0,0,0,0,0,0,0,0,0,0,0,0,0,0,0,
340,53.2,69.57,61.5,12.06,37.5,45.6,-8.269,66.68,29.53,71.54,45.55,45.15,15.48,51.0,22.12,14.23,0,0,0,0,0,0,0,0,0,0,0,0,0,0,0,0,
341,89.85,54.06,71.42,24.11,32.95,24.72,-2.289,25.85,30.92,62.76,41.39,15.82,7.954,19.34,10.34,-2.085,0,0,0,0,0,0,0,0,0,0,0,0,0,0,0,0,
342,89.3,79.41,69.92,27.86,20.96,6.643,-0.9719,5.351,9.057,15.11,22.07,4.463,-7.574,-5.425,2.815,-4.891,0,0,0,0,0,0,0,0,0,0,0,0,0,0,0,0,
343,21.33,15.64,43.78,10.53,-8.562,48.21,16.2,34.22,11.46,12.92,30.86,18.25,-1.04,9.01,14.66,5.277,0,0,0,0,0,0,0,0,0,0,0,0,0,0,0,0,
344,29.53,-16.2,30.39,25.69,-23.06,65.64,34.36,44.75,36.55,41.45,55.0,23.56,10.29,17.62,19.92,6.673,0,0,0,0,0,0,0,0,0,0,0,0,0,0,0,0,
345,93.56,67.18,51.42,60.61,8.602,28.7,48.27,17.15,44.69,31.89,75.7,23.39,14.4,11.26,24.33,8.479,0,0,0,0,0,0,0,0,0,0,0,0,0,0,0,0,
346,85.01,96.93,51.37,39.39,34.8,11.09,53.24,-4.891,34.95,12.61,82.78,26.03,7.351,9.872,28.59,12.39,0,0,0,0,0,0,0,0,0,0,0,0,0,0,0,0,
347,59.49,69.3,25.22,-18.88,10.49,17.35,23.62,-10.68,14.54,14.0,54.54,18.85,-12.86,10.53,12.14,9.044,0,0,0,0,0,0,0,0,0,0,0,0,0,0,0,0,
348,66.69,89.72,27.72,-32.0,-17.02,26.23,-13.02,2.784,-2.473,23.05,22.52,14.0,-17.04,19.84,0.1531,8.457,0,0,0,0,0,0,0,0,0,0,0,0,0,0,0,0,
349,45.58,72.48,38.25,-24.22,-11.69,25.0,-14.12,16.74,-1.135,36.07,26.31,18.82,-0.4486,25.96,4.6,7.95,0,0,0,0,0,0,0,0,0,0,0,0,0,0,0,0,
350,17.04,-13.47,20.82,-38.91,3.719,-20.18,-7.547,-4.787,-1.704,26.0,23.95,13.77,-0.4544,7.931,-8.779,-5.882,0,0,0,0,0,0,0,0,0,0,0,0,0,0,0,0,
351,20.39,-10.71,15.1,-13.31,17.73,-52.39,-5.784,-16.85,-8.069,-2.87,0.7588,2.559,-6.645,-0.8047,-18.85,-12.98,0,0,0,0,0,0,0,0,0,0,0,0,0,0,0,0,
352,29.12,81.98,29.91,44.67,15.5,-3.343,16.36,11.07,6.016,6.683,8.193,1.103,7.982,11.28,1.236,-3.819,0,0,0,0,0,0,0,0,0,0,0,0,0,0,0,0,
353,46.71,67.36,21.84,36.33,-20.11,43.0,24.04,19.09,24.03,32.24,28.43,4.138,5.002,0.1166,-1.673,-10.6,0,0,0,0,0,0,0,0,0,0,0,0,0,0,0,0,
354,72.26,-23.27,4.757,-2.053,-46.72,12.08,-9.677,1.978,3.498,12.36,16.05,5.102,-31.85,-29.98,-36.08,-32.5,0,0,0,0,0,0,0,0,0,0,0,0,0,0,0,0,
355,54.44,24.31,10.85,3.295,-40.59,-41.67,-32.02,-8.869,-45.16,-25.27,-0.6488,-4.29,-55.35,-46.44,-45.7,-40.16,0,0,0,0,0,0,0,0,0,0,0,0,0,0,0,0,
356,16.32,117.8,16.85,7.423,-43.69,-64.04,-23.07,-14.86,-71.27,-36.87,-4.336,-25.37,-61.12,-54.17,-41.76,-41.71,0,0,0,0,0,0,0,0,0,0,0,0,0,0,0,0,
357,44.53,61.07,9.71,1.483,-41.72,-54.75,-12.67,10.56,-63.33,-32.14,-7.333,-26.05,-67.85,-50.79,-42.67,-39.42,0,0,0,0,0,0,0,0,0,0,0,0,0,0,0,0,
358,82.79,-8.84,16.03,13.66,-3.755,-18.94,4.022,37.11,-45.95,-21.73,9.571,-2.333,-50.42,-31.35,-20.21,-21.5,0,0,0,0,0,0,0,0,0,0,0,0,0,0,0,0,
359,33.01,36.35,39.22,7.306,15.33,37.37,24.72,-5.206,-21.56,-4.677,32.75,1.434,-19.32,-19.44,-9.213,-18.45,0,0,0,0,0,0,0,0,0,0,0,0,0,0,0,0,
360,4.994,86.78,53.59,1.214,10.11,63.53,23.79,-43.13,0.5903,8.597,22.26,-7.463,-18.56,-19.09,-41.04,-38.89,0,0,0,0,0,0,0,0,0,0,0,0,0,0,0,0,
361,80.43,109.4,54.09,35.49,36.69,15.32,19.14,-6.407,-4.055,10.83,13.51,7.871,-24.44,-9.06,-46.32,-33.67,0,0,0,0,0,0,0,0,0,0,0,0,0,0,0,0,
362,122.5,122.4,47.33,48.34,48.04,-31.26,25.91,20.66,-15.38,8.417,36.56,19.18,-10.2,5.462,-11.86,-6.474,0,0,0,0,0,0,0,0,0,0,0,0,0,0,0,0,
363,94.41,92.84,27.4,31.73,2.498,-7.622,14.52,1.48,-14.61,-0.9166,36.39,0.7611,-14.67,-2.633,-13.38,-14.01,0,0,0,0,0,0,0,0,0,0,0,0,0,0,0,0,
364,95.26,82.77,19.33,41.84,-22.36,10.09,-7.0,-8.231,-22.77,-20.9,8.607,-12.8,-32.75,-24.89,-34.52,-36.59,0,0,0,0,0,0,0,0,0,0,0,0,0,0,0,0,
365,88.44,82.85,36.01,17.63,-7.697,-2.078,-3.25,-9.648,-27.33,-25.14,14.32,-6.888,-16.36,-22.1,-15.27,-20.69,0,0,0,0,0,0,0,0,0,0,0,0,0,0,0,0,
366,35.64,-6.329,13.29,-51.19,-5.82,27.1,4.194,-21.36,-10.59,-3.329,28.21,-5.187,-2.014,-5.299,-1.207,-6.901,0,0,0,0,0,0,0,0,0,0,0,0,0,0,0,0,
367,33.51,-42.49,-35.78,-31.82,5.328,43.74,-4.421,-22.37,-8.01,3.193,10.87,-0.9734,-22.23,-2.797,-19.51,-23.21,0,0,0,0,0,0,0,0,0,0,0,0,0,0,0,0,
368,59.41,72.71,-11.83,34.05,27.61,-11.85,7.345,-6.665,-18.87,-9.471,23.09,24.03,-7.08,16.92,1.369,-2.76,0,0,0,0,0,0,0,0,0,0,0,0,0,0,0,0,
369,17.35,123.9,40.07,15.97,4.469,-25.09,39.09,12.99,1.561,3.187,69.68,36.92,43.03,45.54,45.67,35.89,0,0,0,0,0,0,0,0,0,0,0,0,0,0,0,0,
370,13.82,83.89,29.36,5.406,-32.04,25.35,36.55,15.61,24.46,21.55,63.76,11.63,35.55,21.49,26.56,8.528,0,0,0,0,0,0,0,0,0,0,0,0,0,0,0,0,
371,92.26,94.62,-0.1464,42.0,-30.48,-0.3164,1.293,-18.11,-1.759,-3.207,26.09,-11.36,-2.789,-18.94,-7.065,-29.66,0,0,0,0,0,0,0,0,0,0,0,0,0,0,0,0,
372,86.69,72.22,-12.44,20.64,-24.17,-53.43,-9.696,-45.1,-33.48,-36.16,35.81,-2.903,7.15,-10.52,11.7,-10.76,0,0,0,0,0,0,0,0,0,0,0,0,0,0,0,0,
373,35.78,31.16,-13.9,10.8,-18.98,0.21,6.332,-16.46,-21.63,-23.17,52.24,10.07,21.32,9.567,13.91,2.151,0,0,0,0,0,0,0,0,0,0,0,0,0,0,0,0,
374,66.58,88.32,4.667,53.31,4.196,58.8,3.313,18.37,-5.178,10.1,28.47,8.059,0.0979,9.176,-19.52,-13.02,0,0,0,0,0,0,0,0,0,0,0,0,0,0,0,0,
375,74.3,97.12,10.66,38.32,16.49,41.97,-12.13,23.44,-10.49,22.21,18.57,13.17,-0.6456,21.04,-12.2,0.3511,0,0,0,0,0,0,0,0,0,0,0,0,0,0,0,0,
376,39.59,9.38,-7.561,19.97,17.73,41.65,-6.199,31.15,-2.874,27.63,35.12,37.58,24.77,41.13,16.49,21.35,0,0,0,0,0,0,0,0,0,0,0,0,0,0,0,0,
377,35.64,-17.45,-21.5,30.56,24.54,42.54,1.516,17.87,17.75,36.19,34.33,40.28,25.11,30.81,6.825,-0.3425,0,0,0,0,0,0,0,0,0,0,0,0,0,0,0,0,
378,-3.881,-13.15,-45.69,-17.85,22.78,15.32,-2.444,-17.59,17.87,25.6,31.48,7.936,13.5,6.148,-7.401,-23.8,0,0,0,0,0,0,0,0,0,0,0,0,0,0,0,0,
379,-29.39,0.606,-73.02,-20.28,29.24,37.25,-3.34,-7.206,6.811,6.047,30.86,-6.306,11.59,0.3565,-3.492,-14.0,0,0,0,0,0,0,0,0,0,0,0,0,0,0,0,0,
380,48.08,107.5,-65.73,62.16,33.83,58.24,-19.58,12.78,-3.461,-0.8815,5.724,0.065,-3.711,-7.031,-9.858,-13.63,0,0,0,0,0,0,0,0,0,0,0,0,0,0,0,0,
381,109.6,190.0,-36.26,67.99,-15.76,16.57,-36.28,-8.009,-25.69,-8.091,2.833,-6.889,-13.19,-21.89,-9.145,-22.92,0,0,0,0,0,0,0,0,0,0,0,0,0,0,0,0,
382,108.0,134.9,-14.23,34.52,-59.35,2.597,-10.77,-8.178,-32.79,-17.6,36.33,-3.572,6.53,-13.7,12.14,-5.188,0,0,0,0,0,0,0,0,0,0,0,0,0,0,0,0,
383,103.5,56.63,-11.68,46.8,-17.86,17.13,7.065,10.69,-7.736,-18.94,35.0,11.92,16.07,-0.0982,16.41,7.166,0,0,0,0,0,0,0,0,0,0,0,0,0,0,0,0,
384,67.5,41.89,-13.15,34.87,33.62,-7.974,-18.55,-2.682,-0.5648,-15.44,14.38,2.566,9.417,-7.427,4.17,-6.903,0,0,0,0,0,0,0,0,0,0,0,0,0,0,0,0,
385,28.8,48.1,7.293,18.5,25.09,-25.89,-23.56,-22.79,-17.46,-10.3,21.45,-15.71,13.23,-14.62,-3.924,-12.63,0,0,0,0,0,0,0,0,0,0,0,0,0,0,0,0,
386,58.24,36.47,27.14,34.27,6.666,2.526,0.4108,-38.13,-14.28,-15.47,17.97,-13.27,12.13,-11.64,-16.69,-10.09,0,0,0,0,0,0,0,0,0,0,0,0,0,0,0,0,
387,99.11,51.05,21.81,42.44,13.73,42.5,7.681,-48.93,-3.249,-25.71,4.488,-0.9988,6.562,-2.628,-14.68,-8.542,0,0,0,0,0,0,0,0,0,0,0,0,0,0,0,0,
388,92.25,127.7,-0.616,55.07,12.1,54.23,1.016,-27.48,-5.021,-14.05,6.937,8.106,11.96,11.7,10.78,5.119,0,0,0,0,0,0,0,0,0,0,0,0,0,0,0,0,
389,65.06,147.5,-43.91,61.7,-16.86,27.45,-17.87,-4.941,-8.248,0.5054,-5.765,15.62,11.21,15.19,17.59,17.18,0,0,0,0,0,0,0,0,0,0,0,0,0,0,0,0,
390,42.3,49.45,-74.26,51.79,-25.44,13.34,-40.74,-9.345,-14.35,-1.174,-16.94,18.61,8.215,8.988,9.6,15.1,0,0,0,0,0,0,0,0,0,0,0,0,0,0,0,0,
391,42.28,5.744,-44.79,66.32,5.278,38.02,-32.3,3.218,-15.38,8.371,2.307,15.85,11.95,9.378,11.61,9.577,0,0,0,0,0,0,0,0,0,0,0,0,0,0,0,0,
392,69.77,62.94,-9.906,68.08,7.702,44.57,-11.7,35.71,-10.23,22.72,2.612,23.8,-0.3309,10.64,3.414,3.97,0,0,0,0,0,0,0,0,0,0,0,0,0,0,0,0,
393,78.98,68.92,-16.85,43.27,-18.73,17.55,-13.42,35.11,-22.64,18.83,-13.63,38.59,-14.56,8.917,-0.6413,4.026,0,0,0,0,0,0,0,0,0,0,0,0,0,0,0,0,
394,62.74,44.78,-5.223,48.41,-10.86,6.315,-9.345,-7.138,-33.56,11.56,11.77,33.0,2.885,12.39,30.92,19.33,0,0,0,0,0,0,0,0,0,0,0,0,0,0,0,0,
395,67.94,90.27,46.0,51.19,15.04,29.4,29.61,-28.85,-9.36,17.47,64.67,40.53,44.81,38.8,83.04,62.17,0,0,0,0,0,0,0,0,0,0,0,0,0,0,0,0,
396,93.72,147.6,91.64,56.77,61.09,70.47,90.13,22.45,45.11,54.86,121.0,106.1,103.4,103.1,148.9,136.5,0,0,0,0,0,0,0,0,0,0,0,0,0,0,0,0,
397,138.8,175.8,119.1,121.4,124.4,107.6,130.6,82.35,107.9,111.7,168.9,159.6,149.5,152.6,191.4,178.6,0,0,0,0,0,0,0,0,0,0,0,0,0,0,0,0,
398,185.6,167.5,96.4,137.2,97.92,119.9,108.2,63.84,121.4,119.8,150.0,123.2,120.4,123.5,143.0,129.9,0,0,0,0,0,0,0,0,0,0,0,0,0,0,0,0,
399,129.7,57.14,11.11,47.09,20.23,101.6,51.09,18.24,62.56,76.8,81.24,57.49,53.04,67.46,64.67,63.48,0,0,0,0,0,0,0,0,0,0,0,0,0,0,0,0,
400,21.35,-44.82,-28.84,8.102,34.47,58.7,29.42,11.03,23.13,50.69,53.38,39.74,41.63,50.44,52.41,51.19,0,0,0,0,0,0,0,0,0,0,0,0,0,0,0,0,
401,49.14,48.33,15.76,56.8,61.42,2.164,30.66,3.328,39.41,35.11,43.74,35.67,48.33,36.53,50.1,42.36,0,0,0,0,0,0,0,0,0,0,0,0,0,0,0,0,
402,132.5,164.7,32.11,68.12,10.49,-35.3,4.81,-18.57,23.58,-6.565,-0.9531,10.29,8.929,3.863,6.682,8.935,0,0,0,0,0,0,0,0,0,0,0,0,0,0,0,0,
403,93.66,85.79,-3.235,37.37,-27.08,-22.46,-23.85,-20.39,-29.33,-34.04,-30.92,0.1391,-22.06,-12.17,-20.9,-11.76,0,0,0,0,0,0,0,0,0,0,0,0,0,0,0,0,
404,25.59,11.83,-23.95,25.55,-31.62,1.939,-28.89,-19.52,-48.59,-20.07,-34.92,5.563,-27.31,-20.52,-27.98,-24.58,0,0,0,0,0,0,0,0,0,0,0,0,0,0,0,0,
405,26.56,86.35,-35.69,26.53,-44.73,-20.42,-35.16,-41.07,-55.31,-15.26,-54.96,-5.99,-53.54,-40.83,-47.05,-40.92,0,0,0,0,0,0,0,0,0,0,0,0,0,0,0,0,
406,37.19,111.3,-35.36,36.07,-29.36,-47.93,-34.02,-48.8,-73.24,-35.05,-57.88,-9.24,-61.21,-42.73,-44.42,-36.07,0,0,0,0,0,0,0,0,0,0,0,0,0,0,0,0,
407,60.36,61.76,0.2485,51.82,1.324,-24.3,-10.44,-16.56,-57.54,-32.31,-30.27,5.46,-28.51,-24.08,-16.37,-15.65,0,0,0,0,0,0,0,0,0,0,0,0,0,0,0,0,
408,107.2,95.64,20.12,51.09,-9.67,2.488,-11.27,-0.246,-33.14,-13.67,-32.89,-0.6378,-30.31,-24.48,-19.07,-14.21,0,0,0,0,0,0,0,0,0,0,0,0,0,0,0,0,
409,100.6,145.1,-5.623,41.33,-31.56,1.173,-47.63,-34.1,-54.24,-20.02,-58.18,-12.28,-61.46,-37.59,-46.21,-31.87,0,0,0,0,0,0,0,0,0,0,0,0,0,0,0,0,
410,67.95,120.3,-20.47,43.26,-16.3,16.5,-57.92,-52.7,-70.75,-27.62,-53.66,-4.724,-57.83,-34.05,-50.81,-41.97,0,0,0,0,0,0,0,0,0,0,0,0,0,0,0,0,
411,138.0,145.7,29.03,62.25,24.6,46.26,-23.77,-36.19,-43.92,-10.7,-34.25,-11.98,-44.25,-26.81,-43.23,-42.14,0,0,0,0,0,0,0,0,0,0,0,0,0,0,0,0,
412,270.2,270.7,117.1,99.69,67.2,67.3,14.61,-28.48,-19.39,4.721,-20.88,-28.5,-37.87,-23.44,-39.18,-39.67,0,0,0,0,0,0,0,0,0,0,0,0,0,0,0,0,
413,334.4,378.2,164.3,149.5,98.7,105.0,35.77,-2.137,-6.036,16.48,-2.487,-13.89,-7.544,-7.691,-19.79,-22.36,0,0,0,0,0,0,0,0,0,0,0,0,0,0,0,0,
414,399.1,458.1,181.0,199.8,127.5,147.0,50.4,37.67,18.78,42.76,18.02,5.444,21.67,6.236,5.756,0.0597,0,0,0,0,0,0,0,0,0,0,0,0,0,0,0,0,
415,523.3,569.3,230.9,229.1,173.4,171.4,67.44,23.14,40.13,62.03,35.57,4.517,27.69,5.989,13.94,2.732,0,0,0,0,0,0,0,0,0,0,0,0,0,0,0,0,
416,559.8,630.3,256.5,219.0,217.6,229.7,76.75,0.1136,54.83,56.62,39.16,12.37,33.34,10.24,7.958,-3.639,0,0,0,0,0,0,0,0,0,0,0,0,0,0,0,0,
417,518.1,593.6,240.9,194.3,242.6,309.8,78.07,16.52,78.55,52.55,20.81,24.95,32.11,15.85,-3.034,-5.125,0,0,0,0,0,0,0,0,0,0,0,0,0,0,0,0,
418,569.9,586.9,288.7,207.9,266.8,315.5,89.45,28.04,98.0,67.45,17.11,27.45,27.46,19.12,0.5724,1.086,0,0,0,0,0,0,0,0,0,0,0,0,0,0,0,0,
419,654.4,645.6,361.0,273.0,278.3,269.2,103.9,57.29,99.03,86.32,38.6,35.91,43.71,38.08,24.95,20.85,0,0,0,0,0,0,0,0,0,0,0,0,0,0,0,0,
420,649.6,655.8,363.7,326.9,267.2,252.8,105.5,93.78,97.78,97.07,46.15,36.8,60.69,56.11,36.76,35.41,0,0,0,0,0,0,0,0,0,0,0,0,0,0,0,0,
421,623.3,629.1,353.2,320.9,267.8,244.1,106.9,52.75,105.3,97.92,48.42,36.14,66.64,57.35,35.25,36.08,0,0,0,0,0,0,0,0,0,0,0,0,0,0,0,0,
422,617.0,644.8,352.4,308.9,280.3,228.1,114.9,20.43,112.7,90.43,66.07,66.85,76.0,62.89,46.78,44.24,0,0,0,0,0,0,0,0,0,0,0,0,0,0,0,0,
423,584.4,627.1,328.7,318.8,282.2,233.6,116.6,80.48,119.3,84.61,72.67,76.89,72.02,60.91,50.8,51.04,0,0,0,0,0,0,0,0,0,0,0,0,0,0,0,0,
424,523.4,538.8,318.1,291.3,275.0,248.9,107.3,94.46,120.7,81.62,64.04,36.23,49.71,35.71,30.84,40.9,0,0,0,0,0,0,0,0,0,0,0,0,0,0,0,0,
425,473.9,496.3,318.5,236.1,261.3,277.3,96.39,29.51,104.1,77.32,58.77,17.11,36.53,21.6,10.42,31.3,0,0,0,0,0,0,0,0,0,0,0,0,0,0,0,0,
426,468.6,482.7,294.9,213.6,251.8,294.2,94.98,15.36,89.41,80.31,54.38,26.28,40.62,26.57,4.501,31.07,0,0,0,0,0,0,0,0,0,0,0,0,0,0,0,0,
427,479.7,398.2,263.7,215.6,234.9,221.9,92.14,32.43,91.45,85.89,45.02,22.99,48.98,25.21,8.214,29.64,0,0,0,0,0,0,0,0,0,0,0,0,0,0,0,0,
428,444.6,300.3,229.1,211.9,182.5,122.0,67.72,16.77,83.78,83.22,25.26,21.83,42.6,17.54,2.358,16.2,0,0,0,0,0,0,0,0,0,0,0,0,0,0,0,0,
429,355.6,239.3,187.5,192.6,142.4,112.0,47.82,16.46,70.33,82.01,9.589,18.67,28.03,8.841,-7.719,0.0245,0,0,0,0,0,0,0,0,0,0,0,0,0,0,0,0,
430,250.1,203.3,157.3,168.5,159.7,143.6,64.98,37.7,77.37,80.49,29.46,7.599,38.74,4.684,9.82,5.204,0,0,0,0,0,0,0,0,0,0,0,0,0,0,0,0,
431,185.1,198.4,135.6,162.9,169.7,152.3,76.16,37.79,81.62,67.74,55.22,8.516,48.5,7.834,20.05,12.73,0,0,0,0,0,0,0,0,0,0,0,0,0,0,0,0,
432,170.2,154.8,98.68,154.5,117.0,156.8,37.17,19.66,56.25,52.34,33.22,7.883,14.12,4.247,-13.01,-2.853,0,0,0,0,0,0,0,0,0,0,0,0,0,0,0,0,
433,114.7,68.15,25.21,118.0,48.91,137.5,-1.083,8.317,26.0,41.05,-1.318,8.164,-7.612,6.514,-21.82,-8.102,0,0,0,0,0,0,0,0,0,0,0,0,0,0,0,0,
434,10.69,35.8,-46.3,83.17,39.88,90.55,9.766,27.59,26.38,36.27,8.383,19.82,23.33,23.36,11.89,2.626,0,0,0,0,0,0,0,0,0,0,0,0,0,0,0,0,
435,-23.0,3.273,-40.26,61.32,79.49,60.24,26.24,52.04,46.71,39.01,32.01,7.503,36.23,17.38,13.65,-7.975,0,0,0,0,0,0,0,0,0,0,0,0,0,0,0,0,
436,-0.1426,-83.51,-0.4364,26.06,74.13,42.75,14.89,24.63,42.32,35.34,25.45,-20.81,7.719,-6.152,-7.523,-16.75,0,0,0,0,0,0,0,0,0,0,0,0,0,0,0,0,
437,-36.59,-143.5,-12.58,-5.575,16.04,25.6,6.936,-24.91,16.65,23.49,9.917,-21.74,-4.787,-5.703,-0.8961,5.57,0,0,0,0,0,0,0,0,0,0,0,0,0,0,0,0,
438,-108.6,-164.2,-33.13,3.964,0.8791,13.2,12.92,-29.44,14.85,18.06,11.99,-3.94,3.434,6.132,9.552,26.72,0,0,0,0,0,0,0,0,0,0,0,0,0,0,0,0,
439,-140.9,-168.3,-31.9,28.68,25.89,-4.449,18.45,1.324,31.19,20.26,22.68,10.95,11.02,12.55,10.22,32.17,0,0,0,0,0,0,0,0,0,0,0,0,0,0,0,0,
440,-151.3,-171.5,-53.97,30.69,24.56,11.33,30.39,26.13,44.05,28.98,34.41,7.308,29.79,19.78,15.81,22.12,0,0,0,0,0,0,0,0,0,0,0,0,0,0,0,0,
441,-161.1,-200.7,-75.05,24.71,18.62,62.26,41.33,26.24,64.0,38.1,43.55,-14.85,43.96,10.61,3.368,-17.74,0,0,0,0,0,0,0,0,0,0,0,0,0,0,0,0,
442,-171.3,-204.1,-67.95,-3.622,19.19,43.56,37.8,9.125,71.61,28.89,42.17,-10.35,35.25,-7.114,-16.39,-39.31,0,0,0,0,0,0,0,0,0,0,0,0,0,0,0,0,
443,-218.4,-208.3,-70.86,-79.26,-6.567,-14.22,34.35,-0.5241,54.66,16.93,39.45,21.81,38.54,5.204,6.161,1.926,0,0,0,0,0,0,0,0,0,0,0,0,0,0,0,0,
444,-284.4,-287.5,-89.19,-123.2,-26.87,0.8781,22.58,-3.318,48.61,28.2,42.75,21.26,55.7,29.21,41.92,39.89,0,0,0,0,0,0,0,0,0,0,0,0,0,0,0,0,
445,-279.8,-324.3,-102.5,-76.14,-18.04,-0.2349,-6.542,-4.235,44.74,30.06,43.28,-2.861,48.92,31.91,47.01,39.39,0,0,0,0,0,0,0,0,0,0,0,0,0,0,0,0,
446,-224.8,-294.4,-111.9,-27.57,-25.93,-60.3,-12.33,10.99,27.41,9.904,38.32,2.437,37.58,36.28,48.55,45.95,0,0,0,0,0,0,0,0,0,0,0,0,0,0,0,0,
447,-226.1,-335.4,-125.1,-47.95,-58.15,-53.18,-1.777,13.57,27.15,13.78,17.58,12.7,33.11,37.77,39.32,39.15,0,0,0,0,0,0,0,0,0,0,0,0,0,0,0,0,
448,-280.1,-373.9,-133.7,-75.09,-75.24,-22.55,-24.54,-17.85,16.21,18.87,-16.09,-13.7,3.621,-0.8519,-0.2346,-1.408,0,0,0,0,0,0,0,0,0,0,0,0,0,0,0,0,
449,-338.2,-338.5,-128.5,-74.19,-87.71,-74.27,-50.55,-30.24,-25.77,-23.85,-18.93,-39.23,-17.44,-41.2,-14.05,-15.1,0,0,0,0,0,0,0,0,0,0,0,0,0,0,0,0,
450,-396.3,-355.1,-144.2,-111.6,-123.5,-139.4,-46.04,-19.3,-30.5,-57.5,7.453,-21.41,2.31,-33.54,10.11,5.596,0,0,0,0,0,0,0,0,0,0,0,0,0,0,0,0,
451,-397.6,-404.8,-169.0,-170.3,-130.2,-142.6,-42.26,-29.42,-3.589,-36.51,16.51,4.85,15.26,-9.069,27.06,22.02,0,0,0,0,0,0,0,0,0,0,0,0,0,0,0,0,
452,-311.9,-374.1,-136.6,-135.6,-83.74,-86.66,-42.04,-33.24,-6.941,-14.1,20.49,-3.26,10.91,-0.9536,39.08,33.41,0,0,0,0,0,0,0,0,0,0,0,0,0,0,0,0,
453,-243.2,-309.4,-107.0,-49.31,-90.57,-45.56,-38.13,-23.18,-20.62,-23.84,28.32,-23.09,7.408,-5.256,34.19,23.03,0,0,0,0,0,0,0,0,0,0,0,0,0,0,0,0,
454,-274.9,-291.1,-141.9,-49.11,-151.1,-81.68,-48.7,-30.96,-26.67,-41.83,10.09,-19.24,-5.056,-8.381,3.112,-5.966,0,0,0,0,0,0,0,0,0,0,0,0,0,0,0,0,
455,-359.7,-320.3,-162.8,-92.86,-119.8,-108.0,-53.61,-18.12,-26.21,-42.18,0.9782,-4.321,2.76,7.315,5.109,-0.0839,0,0,0,0,0,0,0,0,0,0,0,0,0,0,0,0,
456,-380.6,-335.0,-151.4,-92.91,-41.58,-97.16,-34.34,10.47,-1.328,-25.93,32.37,-5.987,34.69,23.34,36.44,28.34,0,0,0,0,0,0,0,0,0,0,0,0,0,0,0,0,
457,-306.8,-308.0,-135.8,-100.6,-58.85,-125.6,-19.6,-17.38,14.38,-23.15,47.74,-18.22,34.22,11.59,34.87,28.83,0,0,0,0,0,0,0,0,0,0,0,0,0,0,0,0,
458,-268.9,-323.2,-112.0,-132.8,-99.6,-119.5,-21.51,-62.25,2.043,-39.33,25.4,-17.89,14.28,-0.4067,17.89,17.25,0,0,0,0,0,0,0,0,0,0,0,0,0,0,0,0,
459,-309.2,-378.8,-127.2,-130.3,-80.08,-52.75,-26.65,-51.83,2.838,-37.41,3.987,-7.748,11.45,8.806,11.68,15.77,0,0,0,0,0,0,0,0,0,0,0,0,0,0,0,0,
460,-308.2,-358.2,-155.4,-103.5,-74.93,-64.36,-26.31,-23.57,7.564,-14.83,-3.896,-3.605,8.979,18.18,10.24,18.17,0,0,0,0,0,0,0,0,0,0,0,0,0,0,0,0,
461,-273.0,-292.4,-128.6,-86.82,-97.48,-121.9,-17.79,-21.88,-3.495,-9.376,1.874,5.766,19.65,26.67,36.32,33.39,0,0,0,0,0,0,0,0,0,0,0,0,0,0,0,0,
462,-270.7,-276.2,-109.4,-75.22,-84.94,-91.23,-15.21,-27.58,-2.641,-13.1,15.4,28.55,48.0,43.63,67.9,53.71,0,0,0,0,0,0,0,0,0,0,0,0,0,0,0,0,
463,-269.3,-284.0,-124.7,-77.03,-63.65,-34.96,-27.3,-19.61,1.968,4.33,16.41,34.28,45.39,47.78,51.97,47.25,0,0,0,0,0,0,0,0,0,0,0,0,0,0,0,0,
464,-294.8,-292.0,-141.0,-94.17,-72.86,-61.66,-38.89,-10.74,-11.43,10.02,4.849,14.25,14.42,25.01,18.96,18.17,0,0,0,0,0,0,0,0,0,0,0,0,0,0,0,0,
465,-338.1,-295.3,-178.6,-94.5,-85.05,-118.3,-48.9,-18.35,-23.79,-19.55,-12.66,5.782,-4.912,2.386,5.596,-2.812,0,0,0,0,0,0,0,0,0,0,0,0,0,0,0,0,
466,-297.5,-255.8,-191.5,-74.42,-100.2,-118.9,-63.29,-30.38,-32.97,-34.11,-30.51,12.97,-11.96,4.51,-4.951,-5.389,0,0,0,0,0,0,0,0,0,0,0,0,0,0,0,0,
467,-235.0,-224.6,-147.0,-84.61,-122.5,-92.02,-65.87,-26.35,-48.62,-17.6,-28.85,10.98,-11.39,18.5,-4.382,5.614,0,0,0,0,0,0,0,0,0,0,0,0,0,0,0,0,
468,-236.5,-282.0,-126.2,-135.1,-107.9,-79.5,-53.8,-6.561,-47.7,-2.775,-8.913,13.72,-3.144,29.53,15.18,21.91,0,0,0,0,0,0,0,0,0,0,0,0,0,0,0,0,
469,-233.5,-344.0,-129.5,-137.5,-65.51,-53.0,-40.51,4.553,-23.38,7.94,13.1,26.53,4.491,35.29,24.6,26.4,0,0,0,0,0,0,0,0,0,0,0,0,0,0,0,0,
470,-231.1,-310.6,-106.6,-64.03,-42.21,-15.95,-26.65,-10.15,-3.852,8.462,29.65,19.42,11.26,29.9,15.53,12.68,0,0,0,0,0,0,0,0,0,0,0,0,0,0,0,0,
471,-254.5,-256.6,-100.3,-31.96,-39.87,-17.75,-22.92,-19.8,1.056,-10.2,21.82,2.939,11.54,21.25,7.067,4.547,0,0,0,0,0,0,0,0,0,0,0,0,0,0,0,0,
472,-231.5,-229.5,-108.1,-69.09,-58.64,-63.46,-34.39,-12.05,-1.258,-21.76,-3.049,3.617,0.1102,18.37,9.459,14.18,0,0,0,0,0,0,0,0,0,0,0,0,0,0,0,0,
473,-199.5,-168.8,-70.38,-69.45,-87.48,-116.8,-37.29,-29.48,-10.8,-24.82,-14.35,-1.767,-15.44,4.776,5.297,10.41,0,0,0,0,0,0,0,0,0,0,0,0,0,0,0,0,
474,-221.7,-146.5,-36.96,-50.86,-98.57,-132.9,-36.3,-59.73,-26.21,-46.25,-23.24,-22.55,-32.48,-18.38,-14.81,-11.47,0,0,0,0,0,0,0,0,0,0,0,0,0,0,0,0,
475,-220.1,-232.5,-65.71,-90.46,-91.62,-94.17,-46.07,-49.59,-41.4,-66.0,-30.28,-24.96,-35.13,-19.33,-10.31,-8.266,0,0,0,0,0,0,0,0,0,0,0,0,0,0,0,0,
476,-185.1,-276.4,-88.47,-120.0,-68.04,-61.41,-42.01,-17.34,-38.25,-44.78,-17.08,-9.887,-13.18,-3.561,18.58,10.68,0,0,0,0,0,0,0,0,0,0,0,0,0,0,0,0,
477,-191.5,-236.9,-78.07,-87.54,-60.01,-94.13,-32.4,-14.15,-16.39,-14.54,-15.54,-12.21,-6.788,-11.64,12.7,-0.1522,0,0,0,0,0,0,0,0,0,0,0,0,0,0,0,0,
478,-217.5,-240.3,-101.0,-55.23,-93.18,-124.6,-44.62,-37.68,-20.14,-31.23,-27.42,-26.36,-25.15,-31.16,-5.787,-12.05,0,0,0,0,0,0,0,0,0,0,0,0,0,0,0,0,
479,-241.4,-224.9,-129.1,-39.5,-95.25,-82.84,-46.48,-36.07,-43.72,-56.14,-15.75,-24.06,-25.43,-24.21,2.01,5.413,0,0,0,0,0,0,0,0,0,0,0,0,0,0,0,0,
480,-261.3,-141.2,-87.57,-30.58,-58.2,-45.3,-29.04,-2.254,-32.27,-43.3,-12.04,-17.44,-24.39,-18.74,-11.48,4.738,0,0,0,0,0,0,0,0,0,0,0,0,0,0,0,0,
481,-214.1,-143.7,-31.0,-49.58,-65.22,-50.15,-24.63,-0.399,-14.71,-37.07,-28.99,-22.17,-41.84,-30.75,-36.06,-16.39,0,0,0,0,0,0,0,0,0,0,0,0,0,0,0,0,
482,-149.9,-212.1,-38.16,-53.78,-81.62,-33.27,-18.22,-29.52,-26.96,-43.31,-23.41,-21.5,-34.33,-20.43,-18.71,-5.655,0,0,0,0,0,0,0,0,0,0,0,0,0,0,0,0,
483,-152.3,-171.2,-56.8,-20.38,-60.42,-38.44,-6.062,-32.0,-29.19,-32.65,-13.46,-17.12,-15.26,-5.514,0.261,15.17,0,0,0,0,0,0,0,0,0,0,0,0,0,0,0,0,
484,-124.7,-82.3,-32.27,-30.33,-48.28,-86.62,-9.479,-19.42,-20.77,-32.27,-11.71,-16.24,-16.01,-10.3,1.554,15.29,0,0,0,0,0,0,0,0,0,0,0,0,0,0,0,0,
485,-97.39,-115.3,-40.46,-74.81,-32.85,-47.61,-6.866,-6.306,-14.75,-26.08,2.786,-6.712,-8.492,-3.543,4.38,10.61,0,0,0,0,0,0,0,0,0,0,0,0,0,0,0,0,
486,-194.2,-204.7,-99.74,-54.59,-4.356,35.37,-8.398,9.784,0.1155,-0.6041,-12.37,-7.665,-20.98,-11.45,-27.97,-14.84,0,0,0,0,0,0,0,0,0,0,0,0,0,0,0,0,
487,-215.9,-167.1,-88.26,-4.431,-15.62,-7.577,-31.62,3.889,-16.84,-20.72,-41.07,-19.83,-57.11,-40.27,-53.18,-35.81,0,0,0,0,0,0,0,0,0,0,0,0,0,0,0,0,
488,-90.99,-65.03,-20.94,-7.753,-35.13,-82.06,-14.95,6.189,-42.36,-50.45,-1.806,-1.386,-24.74,-16.38,2.236,4.98,0,0,0,0,0,0,0,0,0,0,0,0,0,0,0,0,
489,-96.23,-94.05,-23.45,-21.98,-27.44,-43.26,31.0,25.87,-0.002,-18.05,42.28,14.84,29.47,20.71,45.4,37.59,0,0,0,0,0,0,0,0,0,0,0,0,0,0,0,0,
490,-161.3,-162.8,-51.52,2.099,-43.4,-11.54,18.35,2.574,27.66,1.867,13.16,-13.04,0.544,-3.614,13.93,8.52,0,0,0,0,0,0,0,0,0,0,0,0,0,0,0,0,
491,-91.03,-111.1,-44.34,13.03,-69.08,-70.5,-25.37,-20.13,-30.51,-23.65,-22.09,-30.87,-41.18,-28.3,-14.21,-6.796,0,0,0,0,0,0,0,0,0,0,0,0,0,0,0,0,
492,-77.39,-80.31,-63.45,-25.82,-62.85,-85.8,-44.47,2.45,-73.17,-30.79,-35.05,-22.45,-47.77,-25.82,-36.86,-6.265,0,0,0,0,0,0,0,0,0,0,0,0,0,0,0,0,
493,-137.5,-129.3,-85.14,-46.3,-57.28,-19.69,-53.84,2.102,-66.61,-30.45,-52.16,-21.06,-60.55,-33.29,-70.42,-27.47,0,0,0,0,0,0,0,0,0,0,0,0,0,0,0,0,
494,-102.8,-98.25,-58.51,-0.9231,-46.59,5.679,-41.64,-7.135,-56.07,-32.59,-44.99,-11.97,-48.28,-26.99,-61.28,-24.37,0,0,0,0,0,0,0,0,0,0,0,0,0,0,0,0,
495,-114.5,-69.85,-53.81,23.31,-16.04,-21.39,-10.76,7.779,-28.37,-12.54,-16.31,-6.739,-12.71,-11.56,-35.29,-3.2,0,0,0,0,0,0,0,0,0,0,0,0,0,0,0,0,
496,-202.3,-175.4,-84.18,-28.11,-15.65,-22.05,0.7226,-6.93,-4.189,-6.713,8.48,-23.95,-2.473,-20.09,-31.65,-4.615,0,0,0,0,0,0,0,0,0,0,0,0,0,0,0,0,
497,-177.6,-222.7,-82.07,-58.81,-32.5,-13.62,4.008,-29.35,-4.571,-22.95,26.67,-26.15,2.555,-29.25,-21.65,-5.557,0,0,0,0,0,0,0,0,0,0,0,0,0,0,0,0,
498,-116.7,-117.1,-73.94,-19.09,-28.71,-45.12,-3.67,-29.38,-2.365,-33.62,-0.0263,-23.07,-6.725,-40.79,-30.45,-12.5,0,0,0,0,0,0,0,0,0,0,0,0,0,0,0,0,
499,-114.7,-34.58,-88.99,6.093,-44.47,-84.56,-35.27,-40.72,-23.33,-60.79,-50.08,-39.52,-45.0,-65.39,-67.22,-40.0,0,0,0,0,0,0,0,0,0,0,0,0,0,0,0,0,
500,-90.62,-33.61,-78.03,-34.52,-75.81,-75.07,-40.09,-36.57,-57.64,-81.98,-38.15,-36.65,-49.49,-62.1,-64.67,-47.8,0,0,0,0,0,0,0,0,0,0,0,0,0,0,0,0,
501,-83.25,-65.32,-54.6,-84.29,-83.06,-33.81,-20.14,-14.5,-43.55,-54.1,-10.49,-20.36,-29.72,-40.14,-37.97,-33.51,0,0,0,0,0,0,0,0,0,0,0,0,0,0,0,0,
502,-116.7,-113.0,-60.14,-74.89,-92.61,-34.83,-33.31,-16.17,-33.17,-30.26,-40.08,-20.75,-45.01,-38.86,-40.11,-20.57,0,0,0,0,0,0,0,0,0,0,0,0,0,0,0,0,
503,-128.7,-125.1,-68.86,-31.88,-93.54,-68.81,-47.64,-14.06,-66.37,-37.59,-54.33,-6.721,-51.85,-29.46,-33.8,3.333,0,0,0,0,0,0,0,0,0,0,0,0,0,0,0,0,
504,-172.2,-112.8,-82.17,-28.48,-44.23,-53.94,-25.14,-4.543,-59.41,-26.33,-21.96,7.179,-22.74,-6.01,-10.3,19.18,0,0,0,0,0,0,0,0,0,0,0,0,0,0,0,0,
505,-213.8,-132.1,-103.3,-49.0,-13.29,-18.54,-15.14,-14.74,-12.37,-4.269,-17.9,-20.72,-13.88,-11.33,-19.12,-1.581,0,0,0,0,0,0,0,0,0,0,0,0,0,0,0,0,
506,-150.9,-144.1,-85.82,-37.12,-60.76,-39.48,-34.04,-25.4,-10.54,-8.645,-33.77,-34.55,-24.35,-25.25,-32.56,-13.25,0,0,0,0,0,0,0,0,0,0,0,0,0,0,0,0,
507,-95.15,-123.0,-50.41,-11.87,-100.1,-74.5,-37.87,-28.43,-35.98,-24.35,-15.02,-2.663,-10.61,-11.16,-7.471,12.45,0,0,0,0,0,0,0,0,0,0,0,0,0,0,0,0,
508,-106.8,-89.14,-42.41,-16.33,-77.33,-71.06,-24.1,-17.72,-32.02,-27.59,12.9,6.766,12.44,6.193,11.25,22.73,0,0,0,0,0,0,0,0,0,0,0,0,0,0,0,0,
509,-91.29,-59.44,-49.2,-50.02,-58.8,-42.5,-23.23,-3.429,-15.05,-11.74,20.14,-9.326,18.05,12.14,-0.1638,5.085,0,0,0,0,0,0,0,0,0,0,0,0,0,0,0,0,
510,-98.59,-63.11,-78.1,-70.26,-53.85,1.737,-33.76,-18.55,-7.47,9.03,20.14,5.735,13.36,17.35,-0.9827,1.978,0,0,0,0,0,0,0,0,0,0,0,0,0,0,0,0,
511,-153.8,-58.85,-111.0,-46.35,-36.09,10.59,-39.27,-14.46,-4.487,9.405,13.1,23.39,3.543,11.54,6.592,6.079,0,0,0,0,0,0,0,0,0,0,0,0,0,0,0,0,
512,-151.9,-40.26,-98.35,-26.79,-46.07,-39.57,-39.46,20.88,-10.29,2.841,-3.826,7.535,-9.364,-0.6048,-0.732,1.096,0,0,0,0,0,0,0,0,0,0,0,0,0,0,0,0,
513,-120.6,-90.74,-76.51,-48.69,-61.11,-44.72,-31.14,3.318,-12.21,12.71,-6.189,4.421,-7.504,5.091,4.711,11.7,0,0,0,0,0,0,0,0,0,0,0,0,0,0,0,0,
514,-103.3,-119.5,-66.34,-50.03,-28.09,1.13,-11.19,-31.56,9.146,21.59,13.33,26.1,10.88,20.01,26.45,28.3,0,0,0,0,0,0,0,0,0,0,0,0,0,0,0,0,
515,-63.85,-44.9,-35.3,-9.023,-9.913,-18.11,-1.326,-11.39,22.17,19.52,17.31,23.82,14.84,23.71,17.17,19.33,0,0,0,0,0,0,0,0,0,0,0,0,0,0,0,0,
516,-62.08,-37.81,-35.01,-6.705,-36.7,-47.58,-16.47,13.61,5.898,24.65,-6.136,7.209,1.853,25.4,-9.271,8.636,0,0,0,0,0,0,0,0,0,0,0,0,0,0,0,0,
517,-92.81,-93.46,-66.08,-53.53,-42.6,3.514,-30.81,11.89,-1.172,37.25,-14.07,12.12,7.005,29.99,0.6181,17.12,0,0,0,0,0,0,0,0,0,0,0,0,0,0,0,0,
518,-50.44,-13.4,-35.74,-52.13,-23.86,33.83,-19.62,-2.497,9.996,37.3,3.796,11.07,24.95,20.3,18.86,12.77,0,0,0,0,0,0,0,0,0,0,0,0,0,0,0,0,
519,-19.1,82.8,-10.41,0.2545,-9.489,-5.767,1.424,-9.374,18.04,23.48,13.91,-8.796,30.41,8.364,8.19,-3.709,0,0,0,0,0,0,0,0,0,0,0,0,0,0,0,0,
520,-95.47,-12.49,-59.94,3.197,9.765,-29.45,8.568,17.86,30.54,17.57,10.03,-13.38,32.02,11.65,2.86,-1.863,0,0,0,0,0,0,0,0,0,0,0,0,0,0,0,0,
521,-129.9,-123.8,-55.37,-32.44,18.6,-29.79,2.331,26.23,34.78,17.35,4.851,-8.047,29.74,1.935,12.25,-0.5459,0,0,0,0,0,0,0,0,0,0,0,0,0,0,0,0,
522,-52.31,-66.74,-3.14,-38.33,-0.3802,-27.75,-5.45,-9.125,15.14,6.692,6.415,-8.839,21.17,-17.99,12.14,-10.07,0,0,0,0,0,0,0,0,0,0,0,0,0,0,0,0,
523,-14.15,-8.579,-26.78,-37.34,-10.95,-7.207,-6.466,-17.98,3.742,1.315,6.856,-8.701,12.93,-19.12,2.717,-11.06,0,0,0,0,0,0,0,0,0,0,0,0,0,0,0,0,
524,-44.47,-35.76,-38.13,-34.85,2.225,-14.94,-3.804,-18.23,1.356,-7.877,-13.32,-18.09,-5.593,-26.26,-8.623,-12.4,0,0,0,0,0,0,0,0,0,0,0,0,0,0,0,0,
525,-63.71,-20.12,-8.968,-29.48,-7.492,-55.97,-9.64,-41.87,-9.235,-36.63,-22.97,-17.57,-4.517,-25.62,2.277,-4.31,0,0,0,0,0,0,0,0,0,0,0,0,0,0,0,0,
526,-99.59,-20.02,-51.78,-71.8,-42.49,-44.13,-17.96,-36.69,1.452,-28.8,1.083,10.19,33.17,13.07,25.84,16.69,0,0,0,0,0,0,0,0,0,0,0,0,0,0,0,0,
527,-103.9,-77.81,-55.29,-104.4,-42.66,-10.41,-6.014,-24.67,16.1,7.01,3.889,4.721,32.49,15.13,4.3,2.625,0,0,0,0,0,0,0,0,0,0,0,0,0,0,0,0,
528,9.428,-20.09,58.26,-60.4,-8.251,-45.03,20.95,-47.07,-6.717,-17.79,-15.77,-38.51,-11.26,-38.58,-34.13,-32.1,0,0,0,0,0,0,0,0,0,0,0,0,0,0,0,0,
529,93.62,87.85,106.4,-32.11,9.14,-92.95,29.9,-70.06,-25.86,-67.4,-12.89,-52.21,-24.89,-67.26,-35.78,-41.73,0,0,0,0,0,0,0,0,0,0,0,0,0,0,0,0,
530,61.96,61.35,71.21,-52.32,6.944,-82.13,20.61,-74.71,-18.59,-72.21,-10.98,-45.77,-19.24,-68.06,-28.36,-40.48,0,0,0,0,0,0,0,0,0,0,0,0,0,0,0,0,
531,39.86,-4.197,76.98,-55.26,20.1,-37.7,31.84,-51.98,-7.234,-56.54,-3.074,-37.99,-7.495,-50.61,-11.94,-22.29,0,0,0,0,0,0,0,0,0,0,0,0,0,0,0,0,
532,25.77,-41.2,83.49,-55.89,55.76,3.552,66.53,-22.23,22.42,-22.81,39.32,-7.934,30.31,1.695,24.19,16.53,0,0,0,0,0,0,0,0,0,0,0,0,0,0,0,0,
533,18.74,-61.95,89.45,-58.68,87.87,23.24,100.6,-24.69,60.21,20.81,83.91,26.38,76.36,50.49,66.32,57.52,0,0,0,0,0,0,0,0,0,0,0,0,0,0,0,0,
534,106.0,35.07,161.7,-24.69,126.7,59.98,154.4,-5.077,98.94,48.36,153.1,61.04,142.8,99.17,145.1,127.7,0,0,0,0,0,0,0,0,0,0,0,0,0,0,0,0,
535,144.9,148.4,199.6,8.967,184.0,150.0,212.6,55.19,167.6,99.11,244.8,104.1,207.5,156.5,210.7,186.5,0,0,0,0,0,0,0,0,0,0,0,0,0,0,0,0,
536,50.89,89.39,134.2,-3.046,172.5,181.1,183.4,61.33,200.2,144.1,230.1,105.1,172.6,142.5,157.9,144.5,0,0,0,0,0,0,0,0,0,0,0,0,0,0,0,0,
537,34.39,11.53,81.1,-29.43,65.38,78.62,74.77,16.0,132.2,101.8,111.5,47.72,68.5,59.26,53.26,54.68,0,0,0,0,0,0,0,0,0,0,0,0,0,0,0,0,
538,106.2,42.1,74.7,-29.19,-7.984,-23.03,-1.119,-6.674,43.6,27.42,32.92,-4.234,7.004,1.632,2.487,5.359,0,0,0,0,0,0,0,0,0,0,0,0,0,0,0,0,
539,81.23,29.85,44.42,-18.22,-2.905,-35.11,-25.07,-25.74,-5.278,-7.554,6.072,-15.19,-18.03,-14.85,-18.83,-11.48,0,0,0,0,0,0,0,0,0,0,0,0,0,0,0,0,
540,1.819,-40.01,7.443,-33.31,8.189,-20.72,-39.3,-44.0,-28.52,-22.82,-14.15,-13.64,-36.9,-18.33,-32.29,-11.16,0,0,0,0,0,0,0,0,0,0,0,0,0,0,0,0,
541,-17.85,-47.42,-8.151,-64.98,2.902,-17.17,-37.66,-12.05,-24.4,-23.03,-10.71,-18.74,-35.07,-15.45,-28.73,-4.235,0,0,0,0,0,0,0,0,0,0,0,0,0,0,0,0,
542,-21.05,-8.203,-21.96,-80.96,-14.56,-24.43,-27.59,13.5,-18.34,-15.23,-1.383,-17.33,-33.15,-16.01,-27.37,-10.87,0,0,0,0,0,0,0,0,0,0,0,0,0,0,0,0,
543,-56.67,25.45,-23.47,-66.64,-33.34,-45.85,-33.45,-33.57,-35.2,-28.47,-11.37,-19.3,-48.31,-23.76,-35.63,-21.23,0,0,0,0,0,0,0,0,0,0,0,0,0,0,0,0,
544,-69.92,25.79,-21.4,-37.93,-33.7,-59.91,-45.26,-66.59,-50.45,-47.96,-27.43,-38.18,-64.21,-39.02,-50.68,-29.99,0,0,0,0,0,0,0,0,0,0,0,0,0,0,0,0,
545,-23.51,-24.47,-34.1,-44.11,-31.9,-49.21,-56.09,-35.98,-60.52,-51.12,-45.31,-45.15,-74.72,-56.38,-64.41,-43.9,0,0,0,0,0,0,0,0,0,0,0,0,0,0,0,0,
546,12.36,-71.72,-35.62,-78.62,-34.23,-17.74,-62.2,-18.59,-69.51,-42.79,-47.98,-35.72,-69.94,-56.74,-55.12,-48.22,0,0,0,0,0,0,0,0,0,0,0,0,0,0,0,0,
547,-1.962,-75.37,-26.66,-75.05,-25.83,-1.337,-49.01,-22.48,-57.96,-28.91,-27.91,-34.94,-49.11,-44.8,-35.68,-40.43,0,0,0,0,0,0,0,0,0,0,0,0,0,0,0,0,
548,-10.51,-33.12,-14.05,-41.11,-9.1,-37.84,-32.51,-20.44,-38.57,-21.83,-24.4,-32.0,-42.62,-45.94,-34.97,-40.91,0,0,0,0,0,0,0,0,0,0,0,0,0,0,0,0,
549,-14.46,50.48,2.648,-27.24,9.461,-77.15,-32.72,-24.16,-38.71,-34.77,-40.07,-27.5,-54.12,-62.67,-43.3,-51.01,0,0,0,0,0,0,0,0,0,0,0,0,0,0,0,0,
550,-45.36,75.49,-13.65,-37.36,9.414,-67.3,-35.63,-3.472,-50.74,-56.83,-44.35,-40.22,-59.6,-75.53,-48.7,-58.22,0,0,0,0,0,0,0,0,0,0,0,0,0,0,0,0,
551,-54.5,-11.51,-39.31,-61.79,-23.07,-45.15,-37.62,15.3,-58.22,-60.4,-50.08,-46.3,-59.34,-67.02,-52.8,-60.65,0,0,0,0,0,0,0,0,0,0,0,0,0,0,0,0,
552,-32.2,-82.68,-36.37,-85.94,-62.86,-27.45,-49.31,-27.34,-57.06,-36.62,-60.69,-32.39,-56.73,-43.14,-46.38,-57.14,0,0,0,0,0,0,0,0,0,0,0,0,0,0,0,0,
553,-17.47,-78.4,-40.09,-93.02,-76.83,-29.66,-56.31,-53.59,-48.26,-15.64,-53.32,-22.61,-48.3,-29.47,-36.0,-44.31,0,0,0,0,0,0,0,0,0,0,0,0,0,0,0,0,
554,16.05,-43.99,-12.74,-78.07,-45.48,-79.93,-38.5,-26.09,-41.15,-20.94,-41.51,-23.14,-42.59,-29.19,-34.74,-29.83,0,0,0,0,0,0,0,0,0,0,0,0,0,0,0,0,
555,31.37,22.56,51.08,-53.0,-1.652,-97.52,-10.44,-29.37,-39.17,-31.27,-37.03,-34.72,-38.08,-26.05,-29.9,-27.38,0,0,0,0,0,0,0,0,0,0,0,0,0,0,0,0,
556,-48.89,53.94,28.58,-51.78,-2.831,-51.49,-10.58,-48.16,-30.31,-32.38,-31.59,-47.95,-33.36,-22.22,-25.2,-35.42,0,0,0,0,0,0,0,0,0,0,0,0,0,0,0,0,
557,-97.7,4.741,-28.25,-59.36,-19.8,-40.82,-35.31,-30.63,-20.21,-34.11,-38.6,-32.22,-40.61,-17.49,-36.18,-35.05,0,0,0,0,0,0,0,0,0,0,0,0,0,0,0,0,
558,-20.14,-22.31,-2.309,-47.19,-6.833,-46.54,-33.98,-12.91,-22.07,-24.22,-46.04,-10.99,-43.18,-2.348,-40.07,-24.64,0,0,0,0,0,0,0,0,0,0,0,0,0,0,0,0,
559,29.54,-39.48,16.42,-54.28,0.9665,-19.21,-10.09,-4.776,-20.68,-2.506,-31.42,-22.57,-24.94,4.348,-29.25,-27.34,0,0,0,0,0,0,0,0,0,0,0,0,0,0,0,0,
560,20.0,-79.07,14.39,-63.57,-13.42,-32.37,-13.87,-3.259,-14.73,-6.63,-32.49,-30.72,-17.26,-10.55,-32.08,-41.37,0,0,0,0,0,0,0,0,0,0,0,0,0,0,0,0,
561,36.27,-25.45,49.59,-42.41,-25.25,-70.03,-29.77,-34.81,-16.18,-33.08,-50.78,-22.65,-26.36,-18.91,-38.5,-41.27,0,0,0,0,0,0,0,0,0,0,0,0,0,0,0,0,
562,17.14,53.83,20.62,-48.39,-31.87,-63.57,-27.01,-65.0,-5.926,-42.36,-39.5,-36.57,-25.61,-14.17,-34.78,-36.55,0,0,0,0,0,0,0,0,0,0,0,0,0,0,0,0,
563,1.238,49.68,-40.09,-63.01,-28.42,-59.43,-33.4,-55.3,3.959,-42.12,-29.43,-49.06,-30.33,-19.15,-42.36,-42.44,0,0,0,0,0,0,0,0,0,0,0,0,0,0,0,0,
564,46.82,56.41,-1.55,-61.74,-8.26,-54.0,-39.83,-29.69,-12.33,-42.96,-32.3,-26.55,-37.27,-13.86,-36.01,-25.21,0,0,0,0,0,0,0,0,0,0,0,0,0,0,0,0,
565,19.72,24.25,31.46,-101.7,23.05,11.46,-9.102,0.7837,-5.418,-13.77,1.44,-3.41,-13.65,18.65,1.109,13.22,0,0,0,0,0,0,0,0,0,0,0,0,0,0,0,0,
566,-26.42,-63.35,-1.525,-96.59,42.42,60.93,7.741,8.577,30.1,21.67,15.67,-11.48,-6.147,21.94,-3.726,3.146,0,0,0,0,0,0,0,0,0,0,0,0,0,0,0,0,
567,31.59,-14.26,-6.975,4.314,5.079,11.99,-30.93,-31.74,15.07,-3.344,-34.03,-32.35,-41.17,-18.04,-46.43,-39.21,0,0,0,0,0,0,0,0,0,0,0,0,0,0,0,0,
568,45.68,60.31,-14.19,40.67,-40.8,-46.89,-55.84,-40.58,-22.53,-46.09,-47.15,-28.21,-39.34,-22.93,-33.54,-31.78,0,0,0,0,0,0,0,0,0,0,0,0,0,0,0,0,
569,8.155,8.932,-27.4,0.1597,-0.1603,-28.86,-34.1,3.329,-4.34,-27.85,-6.787,-1.019,-6.029,7.716,-1.555,-8.524,0,0,0,0,0,0,0,0,0,0,0,0,0,0,0,0,
570,55.6,20.27,19.07,-6.502,40.94,-1.219,-20.82,-0.9627,12.85,-1.963,-1.499,8.758,-20.89,3.2,-21.41,-24.34,0,0,0,0,0,0,0,0,0,0,0,0,0,0,0,0,
571,83.37,68.57,44.84,-19.94,-9.623,-5.262,-27.25,-37.42,-16.4,-17.32,-21.75,-2.784,-45.86,-15.31,-37.4,-35.0,0,0,0,0,0,0,0,0,0,0,0,0,0,0,0,0,
572,10.71,-3.344,-2.536,-65.5,-41.27,15.81,-30.83,-32.08,-19.59,-16.54,-30.88,-13.46,-36.14,-12.34,-31.85,-31.49,0,0,0,0,0,0,0,0,0,0,0,0,0,0,0,0,
573,-54.71,-42.2,-38.98,-72.73,-11.8,36.7,-33.38,-17.35,9.971,1.069,-37.22,-11.49,-33.9,-11.32,-41.11,-33.55,0,0,0,0,0,0,0,0,0,0,0,0,0,0,0,0,
574,-28.37,12.71,-33.45,-22.16,3.707,8.0,-22.82,-4.297,11.97,1.277,-21.43,11.78,-30.51,-0.6133,-28.04,-13.63,0,0,0,0,0,0,0,0,0,0,0,0,0,0,0,0,
575,66.47,47.96,-18.8,39.11,14.97,-15.92,-5.858,20.98,9.057,10.99,1.026,23.56,-8.908,15.12,-2.982,-1.302,0,0,0,0,0,0,0,0,0,0,0,0,0,0,0,0,
576,96.8,93.84,-20.35,53.37,17.8,-14.25,-16.49,24.64,24.62,12.37,-18.7,-4.382,-19.79,-7.212,-25.69,-31.86,0,0,0,0,0,0,0,0,0,0,0,0,0,0,0,0,
577,43.27,119.8,-24.84,17.66,-15.26,-17.96,-32.26,5.226,18.6,-13.47,-42.87,-23.83,-48.91,-30.17,-45.19,-45.24,0,0,0,0,0,0,0,0,0,0,0,0,0,0,0,0,
578,35.71,36.96,1.381,-29.87,-37.84,-22.74,-23.21,-19.52,-0.5041,-12.06,-30.45,-9.132,-36.46,-14.98,-18.98,-24.44,0,0,0,0,0,0,0,0,0,0,0,0,0,0,0,0,
579,33.75,-32.74,16.97,-63.42,-38.27,-39.22,-15.73,-31.16,8.476,3.687,-22.62,5.933,-12.55,-3.016,-6.148,-15.09,0,0,0,0,0,0,0,0,0,0,0,0,0,0,0,0,
580,-11.05,-1.648,-12.56,-55.87,-25.46,-45.19,-14.43,-9.227,29.87,-9.903,-25.66,10.65,-14.22,0.3773,-14.25,-9.202,0,0,0,0,0,0,0,0,0,0,0,0,0,0,0,0,
581,8.334,14.85,-27.09,-18.66,16.5,7.83,-3.051,-1.876,32.2,-14.34,-14.2,7.612,-15.6,12.9,-8.516,2.014,0,0,0,0,0,0,0,0,0,0,0,0,0,0,0,0,
582,51.07,-1.857,-4.9,9.368,36.76,44.93,0.085,-26.05,19.3,-0.7077,-12.92,-0.9906,-11.97,11.16,-4.789,-1.118,0,0,0,0,0,0,0,0,0,0,0,0,0,0,0,0,
583,37.88,50.88,11.78,25.47,0.0517,-7.87,-6.661,-26.51,11.1,-2.994,-18.62,-5.056,-12.69,1.264,-4.159,-7.12,0,0,0,0,0,0,0,0,0,0,0,0,0,0,0,0,
584,32.72,131.5,1.893,17.06,-28.98,-60.27,-2.484,-26.12,13.45,-10.6,-5.07,-9.921,-4.479,6.019,9.157,-2.862,0,0,0,0,0,0,0,0,0,0,0,0,0,0,0,0,
585,37.5,112.8,-12.42,-1.227,-12.39,-34.62,2.077,-35.0,19.01,-10.11,-2.928,-10.12,3.961,13.51,17.08,4.381,0,0,0,0,0,0,0,0,0,0,0,0,0,0,0,0,
586,34.33,27.31,10.39,12.57,2.72,-1.495,-3.072,-1.493,24.82,-7.744,-14.88,3.551,-2.742,19.01,15.93,12.96,0,0,0,0,0,0,0,0,0,0,0,0,0,0,0,0,
587,43.67,12.21,36.86,-0.3907,-9.295,-26.64,-4.346,18.3,25.18,-5.405,-4.768,10.14,-10.71,24.48,18.75,20.09,0,0,0,0,0,0,0,0,0,0,0,0,0,0,0,0,
588,43.07,54.48,19.51,-52.6,-3.967,-38.4,-4.594,-10.04,19.87,0.9016,3.792,7.814,-10.45,20.93,16.56,20.4,0,0,0,0,0,0,0,0,0,0,0,0,0,0,0,0,
589,59.21,33.97,15.26,-29.42,21.99,21.15,-13.05,-6.63,22.17,14.19,-10.78,4.978,-8.495,11.54,5.367,9.268,0,0,0,0,0,0,0,0,0,0,0,0,0,0,0,0,
590,76.94,-3.85,29.97,36.09,21.11,49.48,-14.58,11.76,27.85,15.45,-14.2,-14.24,-5.491,3.224,-5.344,-11.61,0,0,0,0,0,0,0,0,0,0,0,0,0,0,0,0,
591,27.69,62.19,13.32,42.83,11.48,-5.61,-0.8928,1.397,30.63,1.782,3.95,-30.12,0.2802,-2.494,-10.95,-21.91,0,0,0,0,0,0,0,0,0,0,0,0,0,0,0,0,
592,14.59,153.0,22.63,52.14,18.31,-21.89,11.04,9.868,36.69,2.252,18.28,-16.3,3.901,-2.759,-10.45,-17.1,0,0,0,0,0,0,0,0,0,0,0,0,0,0,0,0,
593,80.45,134.6,64.83,60.62,25.09,30.37,17.49,23.68,38.91,14.27,23.27,-4.211,5.859,1.968,-10.85,-17.34,0,0,0,0,0,0,0,0,0,0,0,0,0,0,0,0,
594,85.82,67.31,64.99,-6.482,37.22,32.74,28.79,13.96,43.83,25.49,34.11,-14.33,9.522,3.021,-18.98,-23.15,0,0,0,0,0,0,0,0,0,0,0,0,0,0,0,0,
595,62.85,61.9,60.07,-39.54,36.85,-13.28,32.34,16.13,54.47,30.22,42.83,-29.7,3.211,-13.67,-24.7,-26.58,0,0,0,0,0,0,0,0,0,0,0,0,0,0,0,0,
596,88.06,70.55,66.2,24.52,25.72,8.245,22.39,12.92,45.01,10.24,31.61,-33.06,-4.18,-27.78,-11.76,-24.85,0,0,0,0,0,0,0,0,0,0,0,0,0,0,0,0,
597,87.83,29.34,32.66,54.88,61.95,82.79,29.07,-7.132,41.52,2.515,24.73,-14.89,14.42,-2.432,11.1,-13.01,0,0,0,0,0,0,0,0,0,0,0,0,0,0,0,0,
598,79.73,40.81,16.63,33.91,85.69,84.98,45.5,-2.157,67.99,32.02,30.85,-7.448,20.24,18.83,3.415,-18.23,0,0,0,0,0,0,0,0,0,0,0,0,0,0,0,0,
599,76.95,133.4,40.92,44.94,20.58,16.94,24.03,5.72,56.11,23.72,9.369,-34.23,-22.89,-13.76,-40.45,-54.36,0,0,0,0,0,0,0,0,0,0,0,0,0,0,0,0,
600,22.96,130.5,35.03,58.22,-15.32,-0.285,-8.577,-1.907,3.413,-20.7,-20.67,-41.15,-45.45,-36.49,-60.16,-61.62,0,0,0,0,0,0,0,0,0,0,0,0,0,0,0,0,
601,20.21,48.09,20.02,33.35,33.0,38.79,6.297,13.74,2.394,-8.774,-7.005,-8.489,-10.24,-7.596,-31.64,-17.63,0,0,0,0,0,0,0,0,0,0,0,0,0,0,0,0,
602,87.49,65.79,24.55,9.291,35.16,38.39,31.54,30.36,41.22,31.34,14.15,6.597,16.58,10.4,-7.812,10.08,0,0,0,0,0,0,0,0,0,0,0,0,0,0,0,0,
603,79.71,95.02,25.42,15.69,-8.671,-2.42,19.52,18.86,41.86,25.48,-0.5842,-10.35,3.037,-8.51,-19.25,-8.365,0,0,0,0,0,0,0,0,0,0,0,0,0,0,0,0,
604,55.75,54.19,29.98,32.22,-0.2697,-27.7,-2.683,20.51,7.562,-1.917,-18.01,-26.91,-26.84,-30.48,-41.7,-35.53,0,0,0,0,0,0,0,0,0,0,0,0,0,0,0,0,
605,80.55,92.82,9.495,32.26,13.34,-33.99,-12.56,29.44,-24.52,-21.54,-14.89,-29.43,-50.25,-43.07,-51.25,-49.56,0,0,0,0,0,0,0,0,0,0,0,0,0,0,0,0,
606,41.92,135.5,-30.09,21.02,-9.224,-18.71,-9.867,5.248,-36.15,-37.11,-11.11,-25.4,-50.79,-47.81,-51.63,-57.26,0,0,0,0,0,0,0,0,0,0,0,0,0,0,0,0,
607,-10.97,17.69,-17.26,9.6,-25.46,19.11,-4.71,-6.576,-26.5,-36.18,-19.05,-23.26,-39.74,-40.13,-55.88,-57.77,0,0,0,0,0,0,0,0,0,0,0,0,0,0,0,0,
608,14.74,-61.08,1.672,6.511,-42.66,36.73,-18.66,31.24,-17.61,-16.08,-29.6,-11.48,-27.47,-12.48,-45.08,-32.14,0,0,0,0,0,0,0,0,0,0,0,0,0,0,0,0,
609,44.97,42.91,-0.2923,23.46,-43.85,14.65,-21.13,64.13,-7.008,10.33,-24.56,8.471,-2.626,21.54,-6.855,10.98,0,0,0,0,0,0,0,0,0,0,0,0,0,0,0,0,
610,77.55,105.6,49.56,25.86,-12.49,-19.36,8.441,58.14,16.41,22.88,-10.9,2.115,7.653,14.73,3.759,15.85,0,0,0,0,0,0,0,0,0,0,0,0,0,0,0,0,
611,114.2,38.94,81.15,-5.737,-15.38,-32.58,10.1,29.51,12.63,-5.929,-15.64,-25.5,-16.5,-29.8,-28.81,-24.97,0,0,0,0,0,0,0,0,0,0,0,0,0,0,0,0,
612,82.71,45.19,52.24,3.131,-18.49,-9.673,-10.9,11.62,-18.26,-44.44,-20.73,-26.51,-22.53,-39.5,-32.98,-45.81,0,0,0,0,0,0,0,0,0,0,0,0,0,0,0,0,
613,72.26,151.4,79.35,63.14,39.59,16.36,8.567,55.09,-8.603,-25.97,0.5439,3.584,6.916,-2.146,-6.845,-30.39,0,0,0,0,0,0,0,0,0,0,0,0,0,0,0,0,
614,113.0,162.6,100.6,61.98,59.18,10.23,26.44,106.0,26.18,16.78,10.18,19.39,17.07,21.39,-4.442,-19.05,0,0,0,0,0,0,0,0,0,0,0,0,0,0,0,0,
615,47.69,75.41,14.39,-6.387,17.18,-0.6568,-0.6599,56.62,21.0,13.71,-12.21,7.297,3.278,17.53,-5.6,-9.812,0,0,0,0,0,0,0,0,0,0,0,0,0,0,0,0,
616,-43.2,38.44,-25.54,-28.85,18.9,17.54,-14.79,-3.626,8.289,-1.94,-21.37,7.677,9.264,17.2,5.162,9.562,0,0,0,0,0,0,0,0,0,0,0,0,0,0,0,0,
617,15.84,31.69,41.02,-14.03,43.67,52.31,-1.21,32.37,29.56,6.883,-11.39,16.65,26.63,15.4,-1.996,9.861,0,0,0,0,0,0,0,0,0,0,0,0,0,0,0,0,
618,93.99,15.98,58.72,-28.72,13.98,50.94,-8.441,53.95,40.7,3.274,-18.67,-8.795,20.43,-2.222,-14.94,-13.88,0,0,0,0,0,0,0,0,0,0,0,0,0,0,0,0,
619,78.45,59.53,16.63,-11.97,-37.64,-9.56,-24.41,28.43,18.3,-8.958,-31.18,-30.32,1.22,-11.96,-16.16,-29.26,0,0,0,0,0,0,0,0,0,0,0,0,0,0,0,0,
620,49.76,93.87,-4.172,48.11,-43.68,-48.3,-12.78,51.97,-1.421,-1.816,-25.4,-13.56,-6.103,-5.963,-18.46,-31.25,0,0,0,0,0,0,0,0,0,0,0,0,0,0,0,0,
621,12.68,43.42,-42.61,42.78,-12.94,-20.23,4.965,66.26,-7.095,-6.926,-21.05,-4.126,-8.082,-7.282,-15.49,-24.58,0,0,0,0,0,0,0,0,0,0,0,0,0,0,0,0,
622,-6.532,54.55,-83.29,2.977,-5.17,-2.786,6.809,33.52,-16.22,-28.55,-25.93,4.057,-10.42,-6.7,-1.717,-0.4819,0,0,0,0,0,0,0,0,0,0,0,0,0,0,0,0,
623,70.11,154.4,-34.47,25.61,-26.01,-16.95,5.659,47.64,-24.44,-32.47,-26.42,20.67,-3.616,0.8009,3.795,15.04,0,0,0,0,0,0,0,0,0,0,0,0,0,0,0,0,
624,124.2,168.6,34.51,47.16,-28.72,-9.684,1.879,75.91,-15.69,-29.98,-31.83,4.006,5.567,-6.089,-4.648,1.636,0,0,0,0,0,0,0,0,0,0,0,0,0,0,0,0,
625,78.6,104.7,27.77,15.22,-2.936,23.06,-4.672,61.06,8.226,-17.54,-41.0,-3.934,7.805,-3.895,-10.98,-3.293,0,0,0,0,0,0,0,0,0,0,0,0,0,0,0,0,
626,74.49,54.62,13.4,-14.83,4.393,50.89,-5.42,55.86,26.12,16.3,-36.58,17.77,5.146,8.754,-8.089,1.738,0,0,0,0,0,0,0,0,0,0,0,0,0,0,0,0,
627,78.55,2.923,1.084,-19.29,-33.2,34.23,-13.16,50.42,21.9,12.93,-31.07,3.185,-1.393,-13.39,-1.022,-10.48,0,0,0,0,0,0,0,0,0,0,0,0,0,0,0,0,
628,-19.05,5.989,-65.9,7.139,-48.72,-18.2,-26.86,34.15,13.51,-29.16,-34.52,-10.38,-1.179,-28.33,13.1,1.06,0,0,0,0,0,0,0,0,0,0,0,0,0,0,0,0,
629,-41.88,81.69,-99.03,47.86,-12.76,-46.44,-34.53,42.4,10.81,-34.69,-41.71,13.47,0.708,-0.132,24.0,38.24,0,0,0,0,0,0,0,0,0,0,0,0,0,0,0,0,
630,72.8,107.6,-54.64,34.32,-10.41,-54.19,-46.67,33.72,-15.94,-24.77,-51.96,11.27,-15.33,4.168,14.16,35.95,0,0,0,0,0,0,0,0,0,0,0,0,0,0,0,0,
631,113.2,79.28,-25.99,-23.7,-38.62,-34.49,-40.74,19.71,-46.89,-33.7,-37.91,5.654,-18.69,-8.997,11.85,21.06,0,0,0,0,0,0,0,0,0,0,0,0,0,0,0,0,
632,68.74,52.49,-12.91,-42.41,-30.37,42.59,7.505,55.52,-25.34,-9.997,7.177,22.28,11.26,7.238,33.03,32.58,0,0,0,0,0,0,0,0,0,0,0,0,0,0,0,0,
633,44.37,20.18,8.224,-11.88,-28.34,57.3,45.24,66.8,9.896,18.64,29.97,0.8958,22.0,1.78,32.15,22.09,0,0,0,0,0,0,0,0,0,0,0,0,0,0,0,0,
634,5.766,34.8,-4.674,9.558,-53.36,-45.51,36.91,25.96,-5.784,-22.35,12.5,-31.7,-1.538,-31.26,8.224,-2.298,0,0,0,0,0,0,0,0,0,0,0,0,0,0,0,0,
635,-25.01,75.6,-11.19,-6.298,-52.18,-83.3,26.94,11.29,-33.69,-71.86,-4.043,-28.2,-7.325,-30.15,13.54,7.738,0,0,0,0,0,0,0,0,0,0,0,0,0,0,0,0,
636,-3.865,57.12,19.8,-17.0,-5.956,-13.87,46.2,17.3,-13.06,-51.0,8.517,-17.3,20.17,-5.865,41.23,28.34,0,0,0,0,0,0,0,0,0,0,0,0,0,0,0,0,
637,31.6,56.96,22.6,2.551,63.14,16.6,64.98,22.84,42.15,-7.756,25.41,-0.2364,41.42,8.235,40.68,30.68,0,0,0,0,0,0,0,0,0,0,0,0,0,0,0,0,
638,77.48,90.31,7.926,-9.111,73.09,7.577,49.41,41.15,70.03,2.226,0.3666,7.915,25.2,8.616,6.817,12.3,0,0,0,0,0,0,0,0,0,0,0,0,0,0,0,0,
639,111.2,53.89,38.61,-53.24,7.634,6.728,24.58,38.4,44.87,-2.024,-35.46,-17.18,1.582,-1.178,-11.81,-9.095,0,0,0,0,0,0,0,0,0,0,0,0,0,0,0,0,
640,101.3,26.97,91.49,-35.73,-0.8077,-0.5212,32.39,17.04,19.9,-4.115,-20.54,-20.36,15.13,2.144,10.39,5.045,0,0,0,0,0,0,0,0,0,0,0,0,0,0,0,0,
641,80.03,63.69,114.5,28.68,53.98,18.73,47.78,17.5,29.43,-16.18,4.203,-1.117,33.28,6.979,25.71,22.47,0,0,0,0,0,0,0,0,0,0,0,0,0,0,0,0,
642,32.54,61.79,81.93,32.67,49.41,31.81,36.8,18.52,30.0,-38.87,-7.523,-20.65,10.58,-23.56,0.1457,-7.2,0,0,0,0,0,0,0,0,0,0,0,0,0,0,0,0,
643,-28.66,54.11,16.47,-19.06,15.55,-12.79,24.43,8.433,11.25,-52.0,-17.63,-35.04,-15.1,-47.56,-17.36,-28.38,0,0,0,0,0,0,0,0,0,0,0,0,0,0,0,0,
644,4.988,95.83,-4.113,-25.65,18.31,-32.41,25.43,21.31,11.59,-37.12,-13.64,-10.18,-5.698,-26.95,-0.5766,-10.36,0,0,0,0,0,0,0,0,0,0,0,0,0,0,0,0,
645,106.5,133.9,21.52,24.81,10.32,-19.77,21.48,45.67,14.32,-16.58,-18.13,-7.12,3.446,-12.99,3.212,-9.86,0,0,0,0,0,0,0,0,0,0,0,0,0,0,0,0,
646,124.6,142.4,15.79,33.32,-20.21,-26.45,16.82,40.62,-8.118,-19.12,-19.14,-17.23,-11.43,-19.23,-9.085,-18.47,0,0,0,0,0,0,0,0,0,0,0,0,0,0,0,0,
647,49.86,63.41,-2.877,-7.844,-25.93,15.14,20.6,16.24,-21.15,-16.38,-11.36,-1.141,-21.58,-11.58,0.5548,-1.608,0,0,0,0,0,0,0,0,0,0,0,0,0,0,0,0,
648,1.527,-39.35,14.11,2.513,-2.519,66.74,18.8,4.329,-13.12,-0.3653,-15.67,5.875,-20.27,-7.694,4.134,4.231,0,0,0,0,0,0,0,0,0,0,0,0,0,0,0,0,
649,25.09,36.01,26.1,50.49,26.6,34.22,14.98,6.567,-11.7,-4.63,-22.46,0.2763,-15.47,-10.13,-9.496,-1.268,0,0,0,0,0,0,0,0,0,0,0,0,0,0,0,0,
650,53.32,154.5,35.18,55.26,55.77,24.69,27.11,16.79,2.042,0.3517,-7.612,5.085,11.86,9.801,14.34,18.61,0,0,0,0,0,0,0,0,0,0,0,0,0,0,0,0,
651,44.71,110.1,67.75,30.58,68.99,64.32,37.99,20.95,35.06,30.9,7.588,0.4835,40.39,24.03,45.09,28.35,0,0,0,0,0,0,0,0,0,0,0,0,0,0,0,0,
652,38.52,82.42,46.06,-5.829,35.2,27.62,26.83,1.556,39.89,25.54,1.379,-8.17,28.92,10.44,23.03,2.966,0,0,0,0,0,0,0,0,0,0,0,0,0,0,0,0,
653,46.84,119.5,-34.79,-38.68,-19.4,-21.06,8.917,-4.091,20.14,-7.717,-8.257,-4.434,9.932,3.044,6.207,-10.18,0,0,0,0,0,0,0,0,0,0,0,0,0,0,0,0,
654,51.33,65.01,-41.09,-15.8,-29.69,15.19,-0.8109,35.8,10.27,-5.413,-19.61,3.939,11.45,12.11,19.56,-0.759,0,0,0,0,0,0,0,0,0,0,0,0,0,0,0,0,
655,69.42,25.16,33.08,24.51,11.21,49.35,0.9929,59.94,0.6849,16.54,-35.23,18.2,6.878,16.27,3.208,-0.9714,0,0,0,0,0,0,0,0,0,0,0,0,0,0,0,0,
656,82.48,75.17,60.75,22.34,55.2,42.01,9.236,23.86,-7.737,10.7,-36.88,13.28,-3.885,1.068,-18.76,-11.06,0,0,0,0,0,0,0,0,0,0,0,0,0,0,0,0,
657,67.46,100.1,25.07,26.06,50.86,38.61,3.149,-16.09,-8.303,-22.42,-32.4,-17.08,-8.959,-25.48,-2.533,-16.49,0,0,0,0,0,0,0,0,0,0,0,0,0,0,0,0,T2
658,65.31,97.78,-0.7322,42.88,6.533,37.44,-12.77,-8.263,-17.13,-39.75,-29.96,-14.94,-12.01,-28.4,8.894,-9.311,0,0,0,0,0,0,0,0,0,0,0,0,0,0,0,0,
659,38.47,85.53,-2.956,16.96,-6.437,29.79,-18.58,15.99,-26.31,-15.88,-26.86,11.08,-8.941,-6.347,-5.781,6.207,0,0,0,0,0,0,0,0,0,0,0,0,0,0,0,0,
660,-29.28,65.95,-9.397,-10.24,10.14,-1.995,-21.91,2.135,-30.18,4.755,-37.64,12.18,-5.274,5.816,-9.424,17.43,0,0,0,0,0,0,0,0,0,0,0,0,0,0,0,0,
661,1.492,84.91,-29.36,5.194,-3.268,-48.74,-19.57,-36.69,-34.76,-5.272,-38.43,18.36,4.754,13.33,16.76,33.74,0,0,0,0,0,0,0,0,0,0,0,0,0,0,0,0,
662,85.91,89.43,-47.96,8.256,-23.78,-42.97,-11.44,-50.59,-22.72,-9.477,-19.15,27.83,21.8,17.07,33.75,43.32,0,0,0,0,0,0,0,0,0,0,0,0,0,0,0,0,
663,51.84,78.35,-37.75,-5.719,-27.17,-24.43,-27.7,-43.67,-16.65,-14.95,-38.34,-2.336,4.34,-12.88,-0.4467,12.33,0,0,0,0,0,0,0,0,0,0,0,0,0,0,0,0,
664,4.287,109.8,-5.622,-2.05,-33.16,-60.42,-43.12,-35.16,-43.25,-42.77,-68.4,-21.03,-21.62,-38.75,-26.57,-13.88,0,0,0,0,0,0,0,0,0,0,0,0,0,0,0,0,
665,49.17,84.33,13.53,-15.94,-11.74,-51.68,-13.85,-19.53,-41.61,-43.06,-39.48,8.449,9.473,-11.62,10.99,12.23,0,0,0,0,0,0,0,0,0,0,0,0,0,0,0,0,
666,95.18,39.94,25.62,-15.64,30.07,29.44,8.963,-5.088,0.5743,-4.623,-15.33,23.27,41.64,17.72,33.04,33.7,0,0,0,0,0,0,0,0,0,0,0,0,0,0,0,0,
667,136.8,154.5,48.63,66.87,38.12,64.93,-8.916,14.41,8.469,18.91,-33.72,16.91,24.39,14.37,6.472,22.31,0,0,0,0,0,0,0,0,0,0,0,0,0,0,0,0,
668,197.7,302.6,69.51,143.1,50.0,68.25,-13.52,43.77,-5.405,30.44,-30.44,26.8,11.57,14.15,-2.112,15.25,0,0,0,0,0,0,0,0,0,0,0,0,0,0,0,0,
669,238.3,348.6,81.12,160.2,82.32,97.23,-0.9442,51.47,0.1052,46.72,-19.11,27.28,8.501,14.59,2.205,11.1,0,0,0,0,0,0,0,0,0,0,0,0,0,0,0,0,
670,269.5,403.6,90.1,204.3,90.52,130.7,4.734,58.71,-0.9085,46.41,-19.92,30.58,7.514,17.01,8.273,16.49,0,0,0,0,0,0,0,0,0,0,0,0,0,0,0,0,
671,333.3,456.8,124.9,262.0,137.2,197.7,41.27,93.53,18.24,54.09,17.73,71.92,49.78,56.68,47.73,53.64,0,0,0,0,0,0,0,0,0,0,0,0,0,0,0,0,
672,449.4,481.6,203.7,283.5,243.3,288.3,108.1,107.7,87.08,100.2,80.27,109.3,112.5,109.5,104.8,108.4,0,0,0,0,0,0,0,0,0,0,0,0,0,0,0,0,
673,533.2,574.7,262.6,305.5,298.9,347.6,170.9,116.4,158.0,163.5,146.2,151.0,174.6,162.9,182.0,185.5,0,0,0,0,0,0,0,0,0,0,0,0,0,0,0,0,
674,522.9,654.0,264.3,325.5,316.0,404.3,230.7,162.5,228.6,233.2,214.5,211.9,240.4,225.6,248.1,243.9,0,0,0,0,0,0,0,0,0,0,0,0,0,0,0,0,
675,557.3,651.4,271.1,345.9,344.1,414.2,232.8,168.6,274.9,264.9,189.5,177.5,216.1,206.3,185.6,176.5,0,0,0,0,0,0,0,0,0,0,0,0,0,0,0,0,
676,651.5,671.1,295.7,386.3,308.3,320.4,147.4,113.5,204.4,197.5,64.25,58.68,91.4,91.12,46.97,43.34,0,0,0,0,0,0,0,0,0,0,0,0,0,0,0,0,
677,639.6,650.2,288.1,391.9,222.4,249.1,80.05,87.47,80.74,105.7,-9.277,18.58,17.44,23.18,-2.064,-0.7574,0,0,0,0,0,0,0,0,0,0,0,0,0,0,0,0,
678,557.4,540.7,235.6,365.0,173.5,240.3,58.1,83.05,30.02,74.74,-19.84,34.01,6.262,14.89,-3.41,3.748,0,0,0,0,0,0,0,0,0,0,0,0,0,0,0,0,
679,507.5,491.1,158.9,354.3,158.0,199.6,12.77,62.92,8.551,55.19,-52.38,18.68,-22.14,-4.432,-35.22,-21.26,0,0,0,0,0,0,0,0,0,0,0,0,0,0,0,0,
680,440.7,424.1,100.2,320.4,157.2,178.7,-12.74,69.61,-12.51,45.94,-61.94,26.3,-21.59,12.18,-35.45,-20.18,0,0,0,0,0,0,0,0,0,0,0,0,0,0,0,0,
681,332.9,226.6,79.24,264.5,143.6,217.9,10.71,85.56,16.32,84.69,-34.45,44.38,5.162,42.62,-22.1,-6.379,0,0,0,0,0,0,0,0,0,0,0,0,0,0,0,0,
682,251.2,173.2,69.92,262.5,101.3,210.8,7.712,59.58,34.3,85.07,-49.05,9.175,-20.93,0.1835,-61.83,-41.48,0,0,0,0,0,0,0,0,0,0,0,0,0,0,0,0,
683,248.8,333.8,50.19,297.3,82.68,135.6,-23.65,33.14,-13.6,19.78,-87.25,-21.29,-56.01,-46.07,-91.49,-63.54,0,0,0,0,0,0,0,0,0,0,0,0,0,0,0,0,
684,257.1,346.1,1.589,267.0,74.49,77.13,-37.33,29.72,-57.92,-5.859,-88.9,-6.208,-50.09,-33.23,-69.3,-39.07,0,0,0,0,0,0,0,0,0,0,0,0,0,0,0,0,
685,208.1,198.9,-38.2,160.9,35.3,72.47,-34.96,11.23,-67.1,8.829,-77.92,0.9375,-50.69,-24.63,-53.25,-33.4,0,0,0,0,0,0,0,0,0,0,0,0,0,0,0,0,
686,192.8,146.9,8.293,101.3,24.71,79.38,-17.21,5.619,-69.16,5.343,-73.66,-11.75,-61.2,-30.81,-54.6,-43.72,0,0,0,0,0,0,0,0,0,0,0,0,0,0,0,0,
687,207.1,85.76,59.91,131.8,45.33,47.74,-6.957,32.23,-64.37,6.736,-66.68,-16.56,-61.79,-32.05,-57.51,-44.54,0,0,0,0,0,0,0,0,0,0,0,0,0,0,0,0,
688,125.7,-24.65,-2.373,151.4,12.36,14.42,-33.75,16.92,-66.01,0.0842,-81.24,-24.02,-77.63,-50.55,-77.19,-67.48,0,0,0,0,0,0,0,0,0,0,0,0,0,0,0,0,
689,16.89,22.98,-67.63,138.5,-35.21,44.33,-51.81,-19.44,-79.28,-26.73,-105.1,-30.27,-87.11,-49.26,-83.91,-84.35,0,0,0,0,0,0,0,0,0,0,0,0,0,0,0,0,
690,-5.918,93.0,-32.95,132.7,1.52,95.41,-26.43,12.56,-66.45,-3.433,-85.63,-4.343,-58.31,-6.817,-55.29,-55.75,0,0,0,0,0,0,0,0,0,0,0,0,0,0,0,0,
691,21.06,3.31,-8.86,96.12,65.52,67.55,-6.081,40.08,-42.01,41.36,-57.85,16.36,-39.11,2.436,-47.34,-40.44,0,0,0,0,0,0,0,0,0,0,0,0,0,0,0,0,
692,46.34,-58.08,-42.38,42.16,56.81,-23.21,-14.71,-3.186,-48.86,25.97,-71.24,-11.99,-48.46,-24.29,-64.31,-55.98,0,0,0,0,0,0,0,0,0,0,0,0,0,0,0,0,
693,26.3,-71.77,-48.33,43.23,13.32,-37.62,-15.51,-29.39,-56.72,7.146,-71.33,-30.03,-38.24,-22.26,-46.49,-45.97,0,0,0,0,0,0,0,0,0,0,0,0,0,0,0,0,
694,-30.41,-139.8,-19.84,72.57,-12.06,28.63,0.3644,-24.21,-39.92,17.27,-35.39,-4.979,-8.107,-5.785,-6.323,-17.87,0,0,0,0,0,0,0,0,0,0,0,0,0,0,0,0,
695,-45.93,-110.2,2.558,53.15,-27.51,28.77,6.336,-31.69,-23.92,7.956,-18.26,6.828,14.16,5.348,20.73,1.769,0,0,0,0,0,0,0,0,0,0,0,0,0,0,0,0,
696,-53.15,-63.67,4.4,-7.444,-24.06,-0.547,4.829,-21.3,-9.284,14.27,-11.4,1.863,35.55,26.05,45.15,21.27,0,0,0,0,0,0,0,0,0,0,0,0,0,0,0,0,
697,-115.3,-196.6,-29.66,-20.86,-14.89,43.81,17.29,-0.1644,14.88,47.98,15.57,10.45,55.66,37.03,61.45,29.38,0,0,0,0,0,0,0,0,0,0,0,0,0,0,0,0,
698,-151.7,-270.0,-63.16,25.95,-9.362,35.74,31.46,4.985,37.49,48.44,25.13,18.78,63.32,36.29,63.91,30.28,0,0,0,0,0,0,0,0,0,0,0,0,0,0,0,0,
699,-117.4,-203.0,-51.95,29.61,23.12,-58.76,25.48,5.99,42.29,33.71,10.78,33.67,63.82,45.13,75.97,48.15,0,0,0,0,0,0,0,0,0,0,0,0,0,0,0,0,
700,-102.5,-239.7,-26.89,-12.85,37.76,-56.5,18.33,-6.501,23.81,33.4,20.34,58.88,64.62,52.11,93.76,66.36,0,0,0,0,0,0,0,0,0,0,0,0,0,0,0,0,
701,-132.1,-266.3,-15.41,-7.135,3.908,16.6,26.02,-18.99,9.822,24.91,38.17,49.87,62.72,48.38,90.22,60.02,0,0,0,0,0,0,0,0,0,0,0,0,0,0,0,0,
702,-139.1,-169.1,-22.8,16.45,-9.29,-0.7306,21.28,-16.52,9.348,13.07,21.05,19.72,48.99,37.89,68.41,36.85,0,0,0,0,0,0,0,0,0,0,0,0,0,0,0,0,
703,-140.5,-179.5,-47.03,-2.738,-11.74,-35.01,2.992,-11.04,-6.254,8.855,3.831,25.3,35.43,29.03,53.68,21.46,0,0,0,0,0,0,0,0,0,0,0,0,0,0,0,0,
704,-194.0,-277.3,-46.14,-19.47,-31.28,20.86,7.985,23.77,-10.17,16.42,16.46,37.44,41.57,35.55,51.88,21.95,0,0,0,0,0,0,0,0,0,0,0,0,0,0,0,0,
705,-230.2,-272.3,-29.54,-10.12,-5.514,49.66,27.5,47.84,22.56,31.76,25.36,17.64,50.7,39.56,51.92,20.36,0,0,0,0,0,0,0,0,0,0,0,0,0,0,0,0,
706,-182.4,-252.1,-50.14,-10.69,13.88,-32.5,28.79,-7.031,36.75,23.62,26.48,2.424,51.11,28.6,54.41,15.57,0,0,0,0,0,0,0,0,0,0,0,0,0,0,0,0,
707,-141.7,-301.1,-70.61,-33.05,-52.99,-83.8,24.52,-44.52,23.01,9.794,35.8,7.741,56.82,30.09,56.75,18.1,0,0,0,0,0,0,0,0,0,0,0,0,0,0,0,0,
708,-163.1,-318.7,-53.73,-52.4,-76.6,-22.06,32.43,2.667,26.75,29.21,39.1,28.84,62.14,48.3,52.9,25.22,0,0,0,0,0,0,0,0,0,0,0,0,0,0,0,0,
709,-176.4,-272.0,-47.42,-41.35,10.39,24.44,31.7,31.7,34.01,51.71,34.1,60.42,58.87,58.78,52.13,37.71,0,0,0,0,0,0,0,0,0,0,0,0,0,0,0,0,
710,-167.1,-249.9,-64.15,-17.75,41.36,-11.53,4.253,5.044,18.57,44.75,16.79,44.79,44.93,45.63,44.63,34.49,0,0,0,0,0,0,0,0,0,0,0,0,0,0,0,0,
711,-165.7,-266.2,-61.2,-14.82,-33.1,-53.5,-23.77,-13.25,-6.785,10.58,-17.62,-3.187,21.42,21.38,28.25,13.07,0,0,0,0,0,0,0,0,0,0,0,0,0,0,0,0,
712,-164.0,-240.0,-39.44,-23.15,-64.76,-56.07,-18.71,-6.176,-22.02,-20.16,-25.87,11.34,21.45,25.09,42.12,29.04,0,0,0,0,0,0,0,0,0,0,0,0,0,0,0,0,
713,-178.2,-204.1,-41.03,-35.48,-25.1,-30.88,0.7331,6.724,-12.15,-2.158,1.419,43.63,44.64,44.13,65.7,60.07,0,0,0,0,0,0,0,0,0,0,0,0,0,0,0,0,
714,-206.3,-246.8,-60.49,-49.72,-17.77,-20.8,1.164,18.28,2.769,22.26,4.003,17.48,41.43,31.71,45.78,37.44,0,0,0,0,0,0,0,0,0,0,0,0,0,0,0,0,
715,-196.9,-294.2,-56.43,-38.18,-44.95,-52.68,-1.728,24.47,-1.346,2.781,-11.83,6.537,33.11,21.46,33.44,17.61,0,0,0,0,0,0,0,0,0,0,0,0,0,0,0,0,
716,-171.0,-265.4,-49.11,-18.99,-37.63,-70.57,10.16,13.95,9.484,7.595,9.529,40.5,60.71,46.15,66.24,45.99,0,0,0,0,0,0,0,0,0,0,0,0,0,0,0,0,
717,-187.7,-241.6,-70.48,-43.51,-17.03,-42.43,9.118,-14.37,34.62,39.86,27.5,36.84,70.71,48.17,69.75,49.69,0,0,0,0,0,0,0,0,0,0,0,0,0,0,0,0,
718,-221.3,-270.5,-93.31,-89.64,-32.48,-16.21,-15.58,-36.24,16.2,15.61,2.52,-2.725,42.05,17.49,40.16,24.28,0,0,0,0,0,0,0,0,0,0,0,0,0,0,0,0,
719,-223.1,-279.9,-109.8,-102.2,-57.86,-25.09,-21.54,-28.12,-12.47,-14.44,3.335,-2.226,40.1,13.42,49.77,32.47,0,0,0,0,0,0,0,0,0,0,0,0,0,0,0,0,
720,-216.4,-274.7,-126.3,-90.65,-73.06,-64.49,-1.267,-10.2,3.288,7.596,32.0,24.72,51.87,20.23,63.08,45.95,0,0,0,0,0,0,0,0,0,0,0,0,0,0,0,0,
721,-235.1,-313.0,-110.8,-90.92,-90.71,-89.32,-3.471,-24.32,2.993,4.035,12.47,15.0,23.9,3.05,31.14,27.39,0,0,0,0,0,0,0,0,0,0,0,0,0,0,0,0,
722,-231.1,-300.7,-69.51,-90.23,-89.36,-72.82,-22.58,-41.66,-30.27,-23.87,-21.27,-4.725,3.308,-1.638,10.65,13.88,0,0,0,0,0,0,0,0,0,0,0,0,0,0,0,0,
723,-175.7,-187.6,-59.79,-72.17,-71.9,-72.91,-23.09,-22.32,-32.35,-9.139,-20.93,2.335,13.52,4.921,18.25,14.99,0,0,0,0,0,0,0,0,0,0,0,0,0,0,0,0,
724,-161.3,-146.6,-92.17,-73.87,-74.76,-96.08,-33.08,-23.63,-30.73,-5.315,-23.82,1.085,0.4928,-7.924,11.73,12.18,0,0,0,0,0,0,0,0,0,0,0,0,0,0,0,0,
725,-209.0,-220.0,-111.6,-105.5,-78.32,-88.01,-57.21,-45.16,-54.93,-33.29,-37.74,1.756,-20.39,-7.736,-0.2221,13.59,0,0,0,0,0,0,0,0,0,0,0,0,0,0,0,0,
726,-218.5,-264.7,-96.65,-119.1,-69.92,-79.25,-54.83,-18.63,-55.04,-23.79,-43.95,19.96,-18.52,-0.2758,-9.171,2.965,0,0,0,0,0,0,0,0,0,0,0,0,0,0,0,0,
727,-207.5,-275.7,-100.6,-112.5,-84.04,-86.48,-44.68,-12.68,-46.01,-8.104,-4.85,2.168,-23.72,-23.65,-15.5,-20.98,0,0,0,0,0,0,0,0,0,0,0,0,0,0,0,0,
728,-235.9,-281.3,-122.3,-113.8,-101.0,-66.56,-48.02,-66.66,-56.92,-25.96,118.1,-26.99,-23.57,-30.54,5.011,-12.13,0,0,0,0,0,0,0,0,0,0,0,0,0,0,0,0,
729,-236.4,-257.3,-99.77,-103.8,-86.61,-51.51,-41.57,-72.36,-49.28,-22.49,222.9,-12.82,-4.689,-5.345,21.29,8.924,0,0,0,0,0,0,0,0,0,0,0,0,0,0,0,0,
730,-191.4,-256.8,-73.95,-80.67,-76.81,-77.34,-35.96,-40.2,-36.89,-10.98,207.2,-5.146,-13.21,-9.316,-5.434,-2.929,0,0,0,0,0,0,0,0,0,0,0,0,0,0,0,0,
731,-166.9,-257.7,-98.11,-78.17,-84.5,-104.3,-40.46,-47.86,-52.89,-33.82,165.6,-18.45,-37.48,-28.26,-22.65,-10.04,0,0,0,0,0,0,0,0,0,0,0,0,0,0,0,0,
732,-161.0,-202.8,-99.39,-86.7,-72.32,-107.5,-26.71,-41.6,-56.38,-40.68,187.8,-7.731,-23.63,-15.8,3.743,7.694,0,0,0,0,0,0,0,0,0,0,0,0,0,0,0,0,
733,-163.2,-184.3,-57.13,-84.53,-63.74,-92.89,-8.281,-11.12,-31.95,-13.9,219.2,4.537,1.841,-1.955,18.41,9.274,0,0,0,0,0,0,0,0,0,0,0,0,0,0,0,0,
734,-186.4,-213.9,-58.9,-93.45,-93.54,-77.09,-22.12,-23.12,-24.0,-5.216,206.0,-10.36,-9.097,-18.7,-7.662,-10.86,0,0,0,0,0,0,0,0,0,0,0,0,0,0,0,0,
735,-201.2,-208.5,-102.8,-112.6,-103.1,-74.69,-44.72,-32.29,-42.42,-21.31,174.3,-25.26,-29.92,-41.18,-26.82,-21.63,0,0,0,0,0,0,0,0,0,0,0,0,0,0,0,0,
736,-189.5,-213.7,-110.1,-99.93,-61.29,-66.96,-36.04,5.068,-50.72,-30.86,170.2,-20.3,-24.65,-42.73,-14.81,-19.11,0,0,0,0,0,0,0,0,0,0,0,0,0,0,0,0,
737,-177.2,-236.9,-85.96,-74.6,-44.06,-54.95,-18.58,13.08,-33.32,-25.23,175.3,-13.37,-17.18,-35.09,-10.8,-23.94,0,0,0,0,0,0,0,0,0,0,0,0,0,0,0,0,
738,-179.9,-208.6,-77.34,-88.24,-79.21,-63.09,-27.65,-19.93,-19.67,-20.84,151.6,-22.69,-26.41,-33.64,-25.3,-32.22,0,0,0,0,0,0,0,0,0,0,0,0,0,0,0,0,
739,-178.0,-186.6,-64.79,-101.4,-100.8,-75.89,-42.97,-26.96,-28.45,-29.46,128.6,-35.34,-32.49,-35.2,-29.93,-29.62,0,0,0,0,0,0,0,0,0,0,0,0,0,0,0,0,
740,-162.0,-223.1,-41.62,-82.78,-88.96,-85.15,-47.37,-17.96,-42.66,-40.74,123.2,-41.99,-37.29,-43.41,-32.52,-32.39,0,0,0,0,0,0,0,0,0,0,0,0,0,0,0,0,
741,-162.9,-235.6,-60.94,-93.27,-89.6,-103.3,-59.69,-19.91,-57.9,-45.53,101.7,-47.83,-52.22,-54.47,-45.77,-42.35,0,0,0,0,0,0,0,0,0,0,0,0,0,0,0,0,
742,-168.9,-176.7,-95.81,-108.8,-100.3,-109.8,-65.61,-18.21,-74.58,-44.74,79.92,-35.69,-54.37,-47.41,-43.71,-32.58,0,0,0,0,0,0,0,0,0,0,0,0,0,0,0,0,
743,-145.0,-128.8,-80.71,-55.78,-75.08,-93.03,-37.37,-2.688,-63.9,-34.42,100.2,-5.204,-28.28,-21.98,-11.32,-3.778,0,0,0,0,0,0,0,0,0,0,0,0,0,0,0,0,
744,-148.0,-163.2,-67.38,-20.55,-45.44,-75.98,-7.501,31.91,-26.22,-19.79,128.4,-0.0004,-6.655,-4.049,13.62,12.73,0,0,0,0,0,0,0,0,0,0,0,0,0,0,0,0,
745,-185.0,-185.7,-88.04,-64.26,-67.39,-67.71,-12.83,39.6,-17.34,-19.8,106.9,-29.99,-21.68,-13.15,-9.37,-4.156,0,0,0,0,0,0,0,0,0,0,0,0,0,0,0,0,
746,-150.4,-115.0,-80.03,-71.41,-82.87,-55.71,-23.24,-10.9,-43.59,-27.17,73.92,-43.75,-39.14,-26.71,-38.8,-25.98,0,0,0,0,0,0,0,0,0,0,0,0,0,0,0,0,
747,-72.64,-75.09,-53.03,-18.27,-47.12,-38.78,-9.152,-32.33,-42.53,-14.99,88.77,-21.31,-22.27,-18.23,-25.32,-20.1,0,0,0,0,0,0,0,0,0,0,0,0,0,0,0,0,
748,-62.71,-123.5,-45.49,-5.822,-33.23,-24.38,-0.6711,-3.625,-18.62,-4.249,101.2,-14.19,-11.96,-20.31,-16.23,-18.72,0,0,0,0,0,0,0,0,0,0,0,0,0,0,0,0,
749,-84.3,-143.0,-41.8,-25.25,-55.04,-9.194,-14.02,-5.431,-26.38,-22.53,68.08,-32.67,-27.86,-38.37,-33.06,-31.09,0,0,0,0,0,0,0,0,0,0,0,0,0,0,0,0,
750,-91.3,-126.0,-63.18,-23.94,-53.58,-8.628,-21.53,-13.86,-38.63,-26.65,48.4,-24.49,-29.92,-26.07,-29.68,-22.13,0,0,0,0,0,0,0,0,0,0,0,0,0,0,0,0,
751,-115.5,-146.1,-100.1,-24.41,-41.52,-30.46,-19.87,8.242,-26.04,-0.3232,61.21,-4.422,-25.7,-9.53,-19.77,-14.61,0,0,0,0,0,0,0,0,0,0,0,0,0,0,0,0,
752,-125.0,-176.0,-81.04,-38.43,-44.77,-27.57,-15.3,8.886,-26.48,7.643,68.34,-14.48,-33.39,-21.71,-17.91,-19.66,0,0,0,0,0,0,0,0,0,0,0,0,0,0,0,0,
753,-96.69,-143.1,-38.47,-50.41,-50.58,-14.08,3.375,-11.62,-30.38,0.444,78.78,-24.89,-27.3,-23.03,5.846,-4.042,0,0,0,0,0,0,0,0,0,0,0,0,0,0,0,0,
754,-94.07,-55.11,-43.91,-54.9,-55.26,-51.7,11.66,-8.45,-15.81,-5.419,90.77,-16.34,-18.6,-16.39,22.89,9.174,0,0,0,0,0,0,0,0,0,0,0,0,0,0,0,0,
755,-110.6,-36.19,-66.1,-44.0,-53.79,-79.16,-10.04,10.54,-23.9,-30.43,65.57,-10.97,-35.09,-23.98,5.76,2.949,0,0,0,0,0,0,0,0,0,0,0,0,0,0,0,0,
756,-83.3,-107.2,-67.62,-30.8,-50.33,-50.35,-18.2,13.55,-47.95,-44.15,26.74,-14.51,-52.25,-19.67,-10.51,3.956,0,0,0,0,0,0,0,0,0,0,0,0,0,0,0,0,
757,-54.64,-109.5,-48.47,-34.74,-52.93,-38.44,2.554,-1.928,-43.33,-24.6,26.63,-16.28,-45.23,-11.23,-14.37,1.062,0,0,0,0,0,0,0,0,0,0,0,0,0,0,0,0,
758,-73.71,-55.85,-14.22,-30.62,-38.8,-33.43,16.42,-6.634,-26.09,-17.53,52.45,-2.284,-23.49,-16.64,-8.146,-6.344,0,0,0,0,0,0,0,0,0,0,0,0,0,0,0,0,
759,-77.53,-84.9,-4.445,-14.43,-11.11,2.604,27.86,0.6267,-9.909,-20.6,73.42,9.467,-3.868,-14.5,12.6,8.86,0,0,0,0,0,0,0,0,0,0,0,0,0,0,0,0,
760,-44.62,-125.8,-30.38,-36.38,-8.394,-4.481,45.57,-7.181,6.617,-5.444,81.01,-8.171,-2.017,-10.03,18.17,23.69,0,0,0,0,0,0,0,0,0,0,0,0,0,0,0,0,
761,-33.17,-86.48,-40.17,-70.24,-25.1,-64.09,37.47,-10.01,-1.343,-2.871,64.94,-25.45,-19.4,-20.16,-2.506,9.289,0,0,0,0,0,0,0,0,0,0,0,0,0,0,0,0,
762,-32.23,-42.06,-17.17,-45.6,-28.51,-88.93,16.78,7.31,-21.49,-22.21,42.4,-26.03,-33.53,-32.83,-18.95,-14.27,0,0,0,0,0,0,0,0,0,0,0,0,0,0,0,0,
763,-22.51,-53.35,8.015,-21.86,-16.84,-59.79,23.74,4.67,-22.24,-29.01,44.2,-27.54,-23.73,-35.39,-19.01,-17.04,0,0,0,0,0,0,0,0,0,0,0,0,0,0,0,0,
764,-37.98,-80.76,22.89,-52.69,-1.671,-10.12,37.39,-8.603,-12.34,-17.16,57.73,-13.07,2.753,-21.16,-9.423,4.894,0,0,0,0,0,0,0,0,0,0,0,0,0,0,0,0,
765,-50.22,-64.67,34.52,-49.26,6.966,20.68,37.98,9.496,3.545,-2.981,62.41,6.579,17.74,-5.109,-1.267,20.5,0,0,0,0,0,0,0,0,0,0,0,0,0,0,0,0,
766,-24.16,-11.77,45.01,2.472,-3.842,-3.273,42.12,19.62,18.38,-2.417,58.61,-2.251,11.87,-11.51,0.2813,11.91,0,0,0,0,0,0,0,0,0,0,0,0,0,0,0,0,
767,-5.859,19.96,45.97,15.12,-17.86,-42.66,40.59,-7.335,10.44,-17.65,49.21,-15.86,7.354,-20.2,6.372,4.957,0,0,0,0,0,0,0,0,0,0,0,0,0,0,0,0,
768,-26.45,-15.45,36.79,-3.495,-4.751,-32.85,27.7,-16.2,-2.546,-21.7,42.33,-19.94,7.323,-11.68,5.977,0.0693,0,0,0,0,0,0,0,0,0,0,0,0,0,0,0,0,
769,-63.54,-101.8,34.65,-11.83,23.15,11.98,25.45,7.924,-0.3294,-2.469,34.41,-23.38,-4.018,-7.98,-10.45,-18.78,0,0,0,0,0,0,0,0,0,0,0,0,0,0,0,0,
770,-62.55,-107.6,47.29,-12.9,46.03,48.16,34.99,26.16,4.407,14.83,24.95,-12.94,-7.425,-11.4,-10.39,-19.51,0,0,0,0,0,0,0,0,0,0,0,0,0,0,0,0,
771,0.697,5.761,61.62,-1.938,56.89,48.83,47.32,35.65,13.16,16.73,35.21,1.557,10.56,-3.281,7.221,5.292,0,0,0,0,0,0,0,0,0,0,0,0,0,0,0,0,
772,45.12,64.15,64.13,3.059,35.5,18.19,55.33,38.39,24.68,15.55,44.68,6.613,17.47,7.181,7.877,10.48,0,0,0,0,0,0,0,0,0,0,0,0,0,0,0,0,
773,19.48,26.39,49.89,-14.2,7.91,8.403,46.96,20.46,19.66,15.4,26.48,6.213,4.168,0.0132,-0.5949,-5.043,0,0,0,0,0,0,0,0,0,0,0,0,0,0,0,0,
774,-25.03,-5.947,22.4,-21.12,12.35,15.99,36.33,2.994,6.09,7.819,26.9,-9.768,-3.161,-18.73,-2.274,-11.97,0,0,0,0,0,0,0,0,0,0,0,0,0,0,0,0,
775,-66.33,-45.11,-0.2958,-16.11,6.82,-6.896,32.38,19.3,-1.642,-0.7092,46.74,-22.1,-6.239,-24.45,-11.24,-12.21,0,0,0,0,0,0,0,0,0,0,0,0,0,0,0,0,
776,-81.31,-70.78,2.546,-22.06,-21.55,-13.64,18.08,45.04,-15.85,3.393,18.94,-9.719,-18.76,-15.95,-25.8,-12.5,0,0,0,0,0,0,0,0,0,0,0,0,0,0,0,0,
777,-37.33,-48.16,24.13,-15.06,-23.57,19.36,14.16,34.68,-31.7,9.897,-15.43,-5.652,-24.58,-12.97,-24.51,-15.13,0,0,0,0,0,0,0,0,0,0,0,0,0,0,0,0,
778,-14.93,-50.14,37.27,4.567,-16.78,16.44,29.24,19.36,-28.31,8.381,4.347,-17.43,-19.48,-17.03,-15.56,-25.42,0,0,0,0,0,0,0,0,0,0,0,0,0,0,0,0,
779,-62.98,-45.54,32.74,-7.859,-31.51,-18.7,14.61,36.48,-29.54,2.657,5.463,-23.8,-31.21,-28.31,-27.82,-36.33,0,0,0,0,0,0,0,0,0,0,0,0,0,0,0,0,
780,-72.19,21.28,22.6,-30.87,-34.78,-32.53,-11.94,27.04,-55.35,-17.36,-31.63,-29.42,-48.53,-47.86,-43.96,-40.47,0,0,0,0,0,0,0,0,0,0,0,0,0,0,0,0,
781,-11.81,34.21,22.83,-22.67,-18.86,-40.37,4.507,-21.17,-63.65,-46.43,-31.21,-22.74,-38.98,-51.12,-32.09,-39.22,0,0,0,0,0,0,0,0,0,0,0,0,0,0,0,0,
782,4.299,-39.75,39.77,-17.76,-13.18,-50.09,24.78,-25.1,-46.75,-50.95,-16.58,-4.194,-30.15,-34.54,-22.67,-35.43,0,0,0,0,0,0,0,0,0,0,0,0,0,0,0,0,
783,-37.67,-57.86,49.49,-28.85,-26.17,-55.82,14.98,-1.964,-45.66,-32.86,-27.12,-15.21,-40.95,-31.47,-38.35,-37.62,0,0,0,0,0,0,0,0,0,0,0,0,0,0,0,0,
784,-59.26,-11.34,20.89,-30.48,-57.73,-70.99,4.622,-18.19,-49.74,-26.86,-27.14,-45.38,-42.2,-48.43,-44.44,-44.57,0,0,0,0,0,0,0,0,0,0,0,0,0,0,0,0,
785,-61.2,-38.96,-18.91,-37.31,-79.9,-73.85,-4.964,-24.83,-44.85,-40.1,-24.21,-47.23,-41.36,-58.96,-34.19,-36.98,0,0,0,0,0,0,0,0,0,0,0,0,0,0,0,0,
786,-59.12,-103.8,-17.24,-39.77,-44.21,-44.44,-15.85,3.116,-53.46,-50.42,-36.58,-29.14,-52.8,-51.3,-35.08,-18.36,0,0,0,0,0,0,0,0,0,0,0,0,0,0,0,0,
787,-48.08,-76.97,3.688,-31.15,-5.212,-22.25,-17.88,-2.937,-66.83,-47.78,-45.81,-20.43,-59.68,-47.11,-49.7,-22.26,0,0,0,0,0,0,0,0,0,0,0,0,0,0,0,0,
788,-62.65,-36.94,-3.524,-39.5,-48.33,-47.89,-21.82,-41.57,-71.29,-53.66,-55.64,-25.78,-64.1,-62.22,-59.82,-50.07,0,0,0,0,0,0,0,0,0,0,0,0,0,0,0,0,
789,-81.55,-40.67,-18.54,-21.9,-89.33,-91.48,-19.64,-47.83,-70.98,-72.5,-56.58,-35.72,-59.8,-66.71,-52.31,-62.06,0,0,0,0,0,0,0,0,0,0,0,0,0,0,0,0,
790,-51.69,0.934,-22.25,18.18,-47.0,-80.2,-11.41,-20.47,-56.4,-65.97,-41.81,-31.03,-36.3,-43.82,-38.83,-46.37,0,0,0,0,0,0,0,0,0,0,0,0,0,0,0,0,
791,-20.47,15.92,-25.99,-1.561,-15.66,-26.66,-22.08,-5.547,-39.68,-35.68,-47.24,-18.65,-25.28,-30.32,-35.31,-30.73,0,0,0,0,0,0,0,0,0,0,0,0,0,0,0,0,
792,-26.21,-54.22,-21.57,-33.56,-30.8,-22.43,-36.8,-12.9,-43.57,-30.22,-66.72,-21.92,-34.82,-34.69,-31.35,-27.91,0,0,0,0,0,0,0,0,0,0,0,0,0,0,0,0,
793,-38.71,-65.82,-27.89,-33.73,-31.61,-51.72,-38.65,-13.23,-51.19,-38.03,-62.51,-18.32,-33.68,-23.11,-20.44,-25.93,0,0,0,0,0,0,0,0,0,0,0,0,0,0,0,0,
794,-48.95,-37.82,-55.18,-58.77,-31.86,-32.91,-35.12,-8.654,-42.71,-16.76,-42.36,3.259,-20.51,-1.865,-10.41,-19.87,0,0,0,0,0,0,0,0,0,0,0,0,0,0,0,0,
795,-36.58,-85.12,-44.94,-80.94,-39.18,-4.58,-19.84,-15.35,-27.43,8.908,-30.28,5.772,-14.7,-3.184,-7.686,-19.85,0,0,0,0,0,0,0,0,0,0,0,0,0,0,0,0,
796,-1.383,-97.55,-6.375,-78.74,-35.05,-21.97,-8.909,1.069,-22.33,5.886,-34.76,-1.509,-22.34,-17.36,-18.86,-26.22,0,0,0,0,0,0,0,0,0,0,0,0,0,0,0,0,
797,-10.79,13.76,-4.558,-68.71,-31.31,-44.2,-16.3,32.53,-25.63,-4.911,-39.58,10.8,-26.49,-13.99,-19.9,-18.53,0,0,0,0,0,0,0,0,0,0,0,0,0,0,0,0,
798,-59.25,97.25,-9.956,-24.82,-15.08,-41.86,-14.67,2.937,-16.44,-3.858,-27.73,16.55,-10.4,-0.0914,7.041,0.4041,0,0,0,0,0,0,0,0,0,0,0,0,0,0,0,0,
799,-68.79,10.67,-6.405,-29.73,-10.71,-23.46,-12.64,-62.33,-1.489,2.673,-30.4,5.323,-5.563,-3.305,5.966,-3.79,0,0,0,0,0,0,0,0,0,0,0,0,0,0,0,0,
800,-34.6,-108.1,-26.22,-100.9,-38.01,-12.82,-25.42,-74.45,-11.63,2.302,-58.81,-2.049,-31.95,-14.23,-35.24,-20.9,0,0,0,0,0,0,0,0,0,0,0,0,0,0,0,0,
801,2.052,-63.36,-11.7,-79.19,-24.71,-35.41,-15.91,-58.56,-31.52,-16.19,-62.62,-14.32,-42.33,-12.78,-39.36,-13.22,0,0,0,0,0,0,0,0,0,0,0,0,0,0,0,0,
802,10.34,-16.14,40.8,-33.37,-7.677,-44.76,3.228,-65.33,-30.17,-42.77,-41.96,-35.17,-27.3,-17.52,-14.1,-5.654,0,0,0,0,0,0,0,0,0,0,0,0,0,0,0,0,
803,-22.29,-120.2,20.4,-100.8,-51.46,-13.46,-7.485,-58.37,-26.01,-49.3,-34.73,-37.18,-23.94,-28.21,-13.83,-20.92,0,0,0,0,0,0,0,0,0,0,0,0,0,0,0,0,
804,-41.88,-113.7,-33.94,-121.1,-37.55,-17.72,-5.646,-30.18,-22.82,-27.49,-19.9,-16.71,-13.78,-13.0,-4.271,-20.1,0,0,0,0,0,0,0,0,0,0,0,0,0,0,0,0,
805,0.0254,65.27,-10.49,-31.29,23.57,-56.11,21.6,-37.39,2.663,-3.116,0.0841,-7.616,5.782,4.804,13.24,-6.4,0,0,0,0,0,0,0,0,0,0,0,0,0,0,0,0,
806,38.41,102.5,34.79,6.391,-11.79,-37.03,21.1,-66.15,16.33,-3.062,-10.24,-13.3,-6.999,-3.446,-1.007,-8.911,0,0,0,0,0,0,0,0,0,0,0,0,0,0,0,0,
807,20.22,16.41,54.16,-12.81,-36.98,18.77,25.72,-46.85,0.8555,-8.373,5.579,7.12,-4.1,12.45,20.9,18.95,0,0,0,0,0,0,0,0,0,0,0,0,0,0,0,0,
808,22.56,49.74,102.3,3.864,47.55,38.43,85.88,1.189,26.39,17.17,87.82,51.8,67.95,70.83,112.7,94.29,0,0,0,0,0,0,0,0,0,0,0,0,0,0,0,0,
809,82.81,109.9,149.9,29.26,92.85,36.12,132.2,15.74,95.12,56.85,140.7,72.03,120.2,97.77,158.4,126.6,0,0,0,0,0,0,0,0,0,0,0,0,0,0,0,0,
810,94.29,30.37,133.3,7.676,53.08,24.47,100.5,8.941,107.3,64.06,100.8,48.52,78.55,53.69,90.57,66.76,0,0,0,0,0,0,0,0,0,0,0,0,0,0,0,0,
811,19.77,-69.05,83.56,-32.64,23.37,-7.1,33.45,4.225,46.22,31.18,28.89,3.797,11.61,-8.683,1.508,-9.223,0,0,0,0,0,0,0,0,0,0,0,0,0,0,0,0,
812,-29.33,-57.59,45.31,-37.94,10.64,-7.241,-4.343,-2.335,-1.622,0.1796,-1.705,-12.77,-3.321,-26.13,-9.154,-21.26,0,0,0,0,0,0,0,0,0,0,0,0,0,0,0,0,
813,-17.89,-24.28,14.93,-28.51,-2.767,25.47,-4.827,0.5404,4.308,3.012,8.597,7.559,12.33,-9.963,15.08,-0.3053,0,0,0,0,0,0,0,0,0,0,0,0,0,0,0,0,
814,-8.602,-19.6,-12.04,-31.85,-11.73,-1.697,-11.86,-7.832,14.6,4.469,-2.343,1.521,3.235,-15.19,-8.525,-9.194,0,0,0,0,0,0,0,0,0,0,0,0,0,0,0,0,
815,-1.423,23.41,-3.228,-14.8,-26.14,-62.38,-35.89,-47.14,-9.419,-23.83,-33.95,-30.81,-16.5,-33.58,-32.77,-21.19,0,0,0,0,0,0,0,0,0,0,0,0,0,0,0,0,
816,8.781,56.77,45.27,9.837,-33.6,-59.89,-38.65,-60.81,-33.56,-39.12,-25.88,-27.95,-13.78,-30.71,-14.88,-9.245,0,0,0,0,0,0,0,0,0,0,0,0,0,0,0,0,
817,4.675,21.13,47.88,-8.926,-29.91,-40.5,-37.39,-35.6,-39.88,-30.29,-17.4,-9.854,-25.23,-32.68,-23.15,-16.42,0,0,0,0,0,0,0,0,0,0,0,0,0,0,0,0,
818,20.03,-24.32,-4.665,-37.26,-39.19,-49.73,-60.47,-28.17,-56.13,-32.27,-47.65,-11.2,-54.98,-46.95,-53.89,-40.36,0,0,0,0,0,0,0,0,0,0,0,0,0,0,0,0,
819,24.93,-44.31,-8.711,-27.86,-59.0,-41.84,-71.6,-29.84,-66.78,-35.98,-54.68,-16.09,-55.18,-46.6,-51.27,-48.77,0,0,0,0,0,0,0,0,0,0,0,0,0,0,0,0,
820,-36.88,-32.39,-1.258,-34.72,-72.06,-31.67,-75.59,-22.98,-63.3,-36.81,-52.53,-28.49,-53.43,-48.89,-48.75,-55.35,0,0,0,0,0,0,0,0,0,0,0,0,0,0,0,0,
821,-70.26,-30.75,-46.58,-91.41,-68.25,-40.07,-94.18,-36.48,-78.76,-46.91,-81.09,-41.26,-68.1,-51.73,-49.9,-47.53,0,0,0,0,0,0,0,0,0,0,0,0,0,0,0,0,
822,-25.8,-82.37,-31.23,-102.8,-46.19,-46.63,-82.22,-50.24,-79.41,-41.44,-76.37,-28.38,-52.49,-30.65,-21.33,-15.16,0,0,0,0,0,0,0,0,0,0,0,0,0,0,0,0,
823,-6.171,-65.31,27.0,-29.03,-34.43,-73.73,-49.6,-37.9,-43.32,-36.97,-38.57,-14.59,-27.54,-21.97,-9.515,-5.78,0,0,0,0,0,0,0,0,0,0,0,0,0,0,0,0,
824,-19.91,23.4,-9.017,17.54,-38.31,-94.17,-43.29,-20.38,-32.17,-64.45,-29.63,-24.51,-22.67,-31.57,-26.01,-17.71,0,0,0,0,0,0,0,0,0,0,0,0,0,0,0,0,
825,-17.87,-2.73,-28.72,-11.64,-22.0,-41.02,-28.65,-8.543,-28.71,-58.49,-22.65,-26.99,-3.001,-10.77,-10.75,-7.206,0,0,0,0,0,0,0,0,0,0,0,0,0,0,0,0,
826,-18.53,-61.73,50.67,-33.55,-2.598,22.94,-0.6537,-15.16,11.69,-0.6479,-1.491,-7.167,17.08,15.42,19.87,6.586,0,0,0,0,0,0,0,0,0,0,0,0,0,0,0,0,
827,-5.021,-2.472,74.69,-14.64,-10.64,4.001,-8.573,-35.83,23.63,12.31,-11.58,-7.487,-2.037,-1.979,5.433,-14.52,0,0,0,0,0,0,0,0,0,0,0,0,0,0,0,0,
828,18.69,42.17,30.61,-13.95,-19.15,-56.0,-39.03,-34.41,-14.02,-27.79,-51.41,-34.27,-37.94,-32.1,-33.33,-46.66,0,0,0,0,0,0,0,0,0,0,0,0,0,0,0,0,
829,-2.765,18.55,15.59,-43.94,-27.65,-67.4,-55.62,-24.57,-37.15,-38.47,-74.23,-27.32,-51.64,-27.72,-37.14,-36.2,0,0,0,0,0,0,0,0,0,0,0,0,0,0,0,0,
830,-28.33,20.62,5.238,-46.48,-42.62,-29.85,-50.32,-26.44,-29.68,-13.65,-60.62,-0.9572,-33.53,-1.084,-13.28,-2.298,0,0,0,0,0,0,0,0,0,0,0,0,0,0,0,0,
831,0.1583,16.51,6.1,-32.47,-28.39,-4.313,-32.95,-18.52,-4.784,2.567,-36.88,-18.64,-7.92,7.736,-0.8332,-4.577,0,0,0,0,0,0,0,0,0,0,0,0,0,0,0,0,
832,32.36,-17.04,28.85,-42.29,-0.3699,7.524,-27.22,-8.044,18.18,4.643,-25.52,-26.66,5.228,7.508,9.595,-9.808,0,0,0,0,0,0,0,0,0,0,0,0,0,0,0,0,
833,12.37,-26.09,11.9,-26.12,10.45,38.21,-28.66,-4.709,20.24,14.58,-16.39,14.02,14.99,24.28,22.23,16.81,0,0,0,0,0,0,0,0,0,0,0,0,0,0,0,0,
834,-27.89,-11.7,-9.394,11.91,18.53,40.12,-26.03,-4.246,22.76,26.15,-15.04,18.82,14.17,27.25,14.13,17.76,0,0,0,0,0,0,0,0,0,0,0,0,0,0,0,0,
835,-20.82,12.12,10.62,-3.212,7.366,-21.74,-35.85,-24.15,24.23,7.238,-35.22,-12.1,-2.881,7.78,-0.4177,-5.755,0,0,0,0,0,0,0,0,0,0,0,0,0,0,0,0,
836,19.02,24.61,7.915,-34.42,-23.82,-55.36,-45.34,-45.63,4.92,-16.28,-48.28,-1.236,-1.869,15.18,-2.58,1.408,0,0,0,0,0,0,0,0,0,0,0,0,0,0,0,0,
837,16.54,-12.73,-9.716,-27.27,-16.52,2.545,-28.89,-31.91,7.615,10.36,-27.44,22.59,31.31,47.69,5.66,18.24,0,0,0,0,0,0,0,0,0,0,0,0,0,0,0,0,
838,-14.07,-35.29,17.23,-9.608,22.01,53.87,-12.16,-3.428,47.0,53.34,-4.203,12.55,54.62,57.72,18.12,15.15,0,0,0,0,0,0,0,0,0,0,0,0,0,0,0,0,
839,-6.265,33.25,35.07,-5.075,20.75,19.62,-24.97,3.5,53.72,49.9,-13.02,0.0759,42.68,42.15,21.07,14.21,0,0,0,0,0,0,0,0,0,0,0,0,0,0,0,0,
840,24.92,86.22,4.702,-25.18,-10.3,-7.331,-39.62,-9.412,22.91,26.56,-19.85,13.87,39.71,39.39,35.05,31.96,0,0,0,0,0,0,0,0,0,0,0,0,0,0,0,0,
841,17.6,40.48,-6.473,-34.12,7.97,28.45,-25.55,-8.082,32.16,36.0,0.4669,33.28,59.83,55.33,54.86,40.57,0,0,0,0,0,0,0,0,0,0,0,0,0,0,0,0,
842,-24.53,13.26,17.5,10.39,62.33,36.16,-15.53,10.61,64.99,54.24,-0.2621,30.58,45.97,52.11,25.55,16.95,0,0,0,0,0,0,0,0,0,0,0,0,0,0,0,0,
843,-22.59,45.88,32.24,39.25,69.95,18.33,-25.91,11.06,52.13,48.06,-18.81,29.51,20.28,43.04,-2.084,9.557,0,0,0,0,0,0,0,0,0,0,0,0,0,0,0,0,
844,33.05,54.48,42.56,23.29,45.92,25.51,-16.85,14.69,41.03,49.0,0.6154,49.56,39.47,59.09,25.27,35.4,0,0,0,0,0,0,0,0,0,0,0,0,0,0,0,0,
845,49.44,43.84,42.15,21.84,30.2,-5.408,-0.4214,39.18,65.25,53.29,25.35,47.07,48.99,54.06,34.99,37.36,0,0,0,0,0,0,0,0,0,0,0,0,0,0,0,0,
846,19.14,10.9,14.89,2.556,-4.424,-26.74,-12.66,18.49,55.03,23.44,11.37,21.59,22.53,20.84,25.51,31.97,0,0,0,0,0,0,0,0,0,0,0,0,0,0,0,0,
847,8.929,-56.81,10.45,-48.85,-32.61,33.28,-34.44,-39.98,16.78,-0.8503,-16.54,14.06,4.464,8.755,30.79,44.95,0,0,0,0,0,0,0,0,0,0,0,0,0,0,0,0,
848,2.646,-56.32,40.59,-49.82,-16.17,29.05,-50.14,-47.16,-1.053,-2.862,-38.38,8.375,-10.34,3.179,10.46,33.13,0,0,0,0,0,0,0,0,0,0,0,0,0,0,0,0,
849,-26.98,12.99,60.1,-14.22,8.97,-31.5,-43.59,-13.61,-6.545,-14.57,-27.61,1.643,-3.601,8.306,4.872,26.48,0,0,0,0,0,0,0,0,0,0,0,0,0,0,0,0,
850,-47.21,19.82,66.9,0.373,30.98,31.92,-4.585,6.062,23.13,4.241,16.03,14.2,40.53,46.15,35.65,48.38,0,0,0,0,0,0,0,0,0,0,0,0,0,0,0,0,
851,-25.59,2.465,56.88,20.38,50.96,98.13,12.7,16.76,70.56,47.64,22.44,23.85,47.25,55.17,16.05,28.51,0,0,0,0,0,0,0,0,0,0,0,0,0,0,0,0,
852,32.85,74.08,33.8,36.98,40.71,22.84,-12.21,7.606,59.77,36.98,-10.22,23.51,9.417,19.53,-26.03,-13.39,0,0,0,0,0,0,0,0,0,0,0,0,0,0,0,0,
