%OpenBCI Raw EXG Data
%Number of channels = 16
%Sample Rate = 125 Hz
%Board = OpenBCI_GUI$BoardCytonSerialDaisy
Sample Index,EXG Channel 0,EXG Channel 1,EXG Channel 2,EXG Channel 3,EXG Channel 4,EXG Channel 5,EXG Channel 6,EXG Channel 7,EXG Channel 8,EXG Channel 9,EXG Channel 10,EXG Channel 11,EXG Channel 12,EXG Channel 13,EXG Channel 14,EXG Channel 15,Accel Channel 0,Accel Channel 1,Accel Channel 2,Other,Other.1,Other.2,Other.3,Other.4,Other.5,Other.6,Analog Channel 0,Analog Channel 1,Analog Channel 2,Timestamp,Other.7,Timestamp (Formatted),Annotations
1,0.0,0.0,0.0,0.0,0.0,0.0,-0.0,0.0,0.0,-0.0,-0.0,0.0,0.0,0.0,0.0,0.0,0,0,0,0,0,0,0,0,0,0,0,0,0,0,0,0,T0
2,-0.7167,-4.103,-3.385,-1.907,-1.403,-6.959,-7.011,-0.5251,-2.556,1.456,-3.836,-0.9378,-1.732,1.296,-4.043,-0.314,0,0,0,0,0,0,0,0,0,0,0,0,0,0,0,0,
3,-0.9412,-4.004,-5.504,-5.278,0.198,-5.109,-10.0,0.6573,-2.166,1.752,-7.809,-4.078,-4.255,-4.272,-9.101,-5.412,0,0,0,0,0,0,0,0,0,0,0,0,0,0,0,0,
4,-4.898,-8.636,-6.027,-8.884,-2.618,-1.569,-8.431,-2.091,-4.239,-3.588,-9.651,-3.196,-6.973,-7.714,-9.386,-6.488,0,0,0,0,0,0,0,0,0,0,0,0,0,0,0,0,
5,-6.939,-14.87,-4.726,-11.43,-6.643,-5.331,-6.627,-6.583,-7.221,-7.049,-7.506,0.1163,-6.693,-4.852,-5.161,-2.764,0,0,0,0,0,0,0,0,0,0,0,0,0,0,0,0,
6,-5.539,-14.28,-4.882,-15.83,-6.274,-10.83,-7.142,-4.676,-5.319,-3.709,-3.68,-0.3207,-4.51,-3.097,-3.41,-1.656,0,0,0,0,0,0,0,0,0,0,0,0,0,0,0,0,
7,-7.207,-13.43,-6.158,-18.52,-6.171,-12.21,-8.78,-2.179,-4.206,-3.791,-3.521,-0.8565,-4.099,-3.143,-3.348,-1.263,0,0,0,0,0,0,0,0,0,0,0,0,0,0,0,0,
8,-5.429,-11.85,-3.959,-13.31,-5.168,-10.12,-9.751,-5.147,-5.364,-6.734,-5.094,0.0339,-2.618,-1.324,-1.424,-0.3906,0,0,0,0,0,0,0,0,0,0,0,0,0,0,0,0,
9,-2.368,-6.775,-8.117,-13.59,-5.109,-6.521,-13.03,-8.936,-3.885,-5.439,-7.197,-5.436,-3.298,-4.036,-4.355,-5.754,0,0,0,0,0,0,0,0,0,0,0,0,0,0,0,0,
10,-12.56,-12.38,-21.58,-26.76,-13.51,-11.26,-21.3,-15.14,-8.496,-8.9,-15.46,-13.95,-11.57,-12.5,-12.46,-12.81,0,0,0,0,0,0,0,0,0,0,0,0,0,0,0,0,
11,-19.95,-23.08,-18.18,-30.47,-18.26,-22.68,-20.82,-18.59,-16.11,-15.87,-16.77,-11.01,-12.16,-11.59,-11.26,-8.954,0,0,0,0,0,0,0,0,0,0,0,0,0,0,0,0,
12,-9.726,-20.61,-0.2713,-22.18,-12.34,-22.56,-8.466,-10.87,-10.24,-11.92,-5.192,-3.184,-3.267,-4.256,-4.994,-3.414,0,0,0,0,0,0,0,0,0,0,0,0,0,0,0,0,
13,-7.842,-19.88,-3.979,-25.22,-14.0,-18.35,-9.175,-10.61,-6.741,-9.029,-7.383,-9.119,-8.367,-10.99,-10.03,-10.69,0,0,0,0,0,0,0,0,0,0,0,0,0,0,0,0,
14,-18.32,-25.98,-17.27,-32.07,-20.57,-24.74,-17.56,-22.71,-16.62,-18.64,-14.37,-19.06,-15.74,-20.88,-13.95,-17.7,0,0,0,0,0,0,0,0,0,0,0,0,0,0,0,0,
15,-15.18,-18.97,-11.62,-25.27,-14.89,-24.34,-9.181,-19.78,-15.34,-20.56,-0.876,-16.12,-5.917,-15.65,-6.168,-15.21,0,0,0,0,0,0,0,0,0,0,0,0,0,0,0,0,
16,-9.507,-12.76,-12.65,-16.93,-9.993,-12.27,-9.185,-7.541,-10.7,-13.86,-2.781,-10.79,-6.95,-13.01,-5.289,-16.46,0,0,0,0,0,0,0,0,0,0,0,0,0,0,0,0,
17,-18.7,-21.77,-32.65,-14.99,-15.25,-7.579,-32.26,-10.03,-25.38,-18.58,-32.78,-11.76,-25.75,-21.69,-12.7,-21.56,0,0,0,0,0,0,0,0,0,0,0,0,0,0,0,0,
18,-24.01,-23.28,-38.83,-12.39,-15.28,-6.381,-39.06,-15.56,-35.96,-23.94,-43.2,-10.59,-29.96,-22.82,-11.86,-21.22,0,0,0,0,0,0,0,0,0,0,0,0,0,0,0,0,
19,-18.92,-15.48,-29.01,-10.26,-11.29,-0.8209,-27.01,-14.26,-30.2,-17.65,-34.9,-7.657,-24.51,-17.88,-8.992,-21.2,0,0,0,0,0,0,0,0,0,0,0,0,0,0,0,0,
20,-19.59,-17.76,-28.54,-11.73,-16.01,-3.778,-30.49,-15.06,-30.25,-15.19,-38.34,-9.576,-30.69,-20.82,-13.24,-25.68,0,0,0,0,0,0,0,0,0,0,0,0,0,0,0,0,
21,-27.44,-26.57,-37.04,-16.1,-24.6,-15.45,-39.8,-14.86,-37.99,-20.54,-43.26,-12.75,-37.97,-24.96,-15.58,-27.67,0,0,0,0,0,0,0,0,0,0,0,0,0,0,0,0,
22,-32.69,-31.4,-41.1,-20.75,-27.44,-20.49,-32.98,-12.7,-42.3,-23.25,-41.29,-12.73,-37.62,-23.88,-13.47,-25.48,0,0,0,0,0,0,0,0,0,0,0,0,0,0,0,0,
23,-31.59,-31.12,-37.51,-20.22,-23.69,-17.44,-23.85,-15.13,-41.35,-24.57,-39.08,-12.33,-35.75,-24.02,-13.64,-24.68,0,0,0,0,0,0,0,0,0,0,0,0,0,0,0,0,
24,-27.97,-28.63,-30.17,-16.36,-17.73,-13.64,-25.48,-16.75,-36.53,-26.18,-36.38,-12.96,-32.65,-23.93,-13.6,-25.62,0,0,0,0,0,0,0,0,0,0,0,0,0,0,0,0,
25,-26.43,-27.44,-27.06,-16.11,-14.45,-10.15,-29.49,-14.16,-33.4,-23.52,-36.25,-11.42,-27.54,-18.65,-8.462,-23.85,0,0,0,0,0,0,0,0,0,0,0,0,0,0,0,0,
26,-24.85,-25.15,-32.44,-16.47,-13.33,-6.25,-26.75,-12.29,-31.51,-17.63,-35.92,-7.236,-22.43,-12.64,-2.244,-19.46,0,0,0,0,0,0,0,0,0,0,0,0,0,0,0,0,
27,-20.39,-19.46,-37.13,-11.48,-10.31,-1.981,-19.32,-11.02,-25.02,-12.26,-29.96,-4.031,-17.87,-8.821,-0.1789,-15.44,0,0,0,0,0,0,0,0,0,0,0,0,0,0,0,0,
28,-16.56,-16.64,-31.56,-7.643,-7.212,-0.7887,-17.94,-10.94,-19.44,-9.926,-27.41,-4.155,-15.79,-7.383,-1.567,-13.02,0,0,0,0,0,0,0,0,0,0,0,0,0,0,0,0,
29,-18.32,-22.05,-25.49,-12.09,-9.558,-7.756,-21.98,-12.67,-21.04,-13.47,-30.17,-4.66,-15.4,-8.76,-0.9126,-10.84,0,0,0,0,0,0,0,0,0,0,0,0,0,0,0,0,
30,-21.4,-25.65,-26.93,-13.27,-11.52,-11.33,-17.23,-10.11,-22.81,-16.51,-28.09,-0.3992,-11.51,-6.095,4.75,-5.91,0,0,0,0,0,0,0,0,0,0,0,0,0,0,0,0,
31,-15.45,-15.32,-23.78,-3.5,-5.04,0.2487,-8.902,-4.188,-17.22,-9.775,-22.28,5.658,-6.3,0.6697,9.065,-1.751,0,0,0,0,0,0,0,0,0,0,0,0,0,0,0,0,
32,-7.823,-5.967,-18.95,0.5122,-1.403,8.206,-11.54,-3.188,-11.11,-1.695,-21.52,6.324,-8.424,0.0896,5.701,-4.222,0,0,0,0,0,0,0,0,0,0,0,0,0,0,0,0,
33,-13.13,-13.61,-28.52,-6.892,-8.933,0.1677,-18.54,-6.401,-15.66,-3.1,-29.04,2.927,-17.45,-6.847,-2.659,-10.74,0,0,0,0,0,0,0,0,0,0,0,0,0,0,0,0,
34,-20.5,-21.3,-38.01,-10.39,-14.35,-5.505,-25.16,-8.274,-26.27,-7.99,-38.8,-0.7483,-23.69,-10.9,-9.106,-16.09,0,0,0,0,0,0,0,0,0,0,0,0,0,0,0,0,
35,-16.76,-17.0,-30.22,-8.661,-11.87,-1.828,-29.99,-7.384,-29.92,-9.883,-39.46,-2.332,-21.82,-10.67,-8.299,-16.45,0,0,0,0,0,0,0,0,0,0,0,0,0,0,0,0,
36,-12.14,-12.28,-21.8,-7.99,-9.374,2.434,-24.12,-4.713,-25.25,-8.164,-32.95,1.421,-17.8,-7.995,-5.176,-13.48,0,0,0,0,0,0,0,0,0,0,0,0,0,0,0,0,
37,-14.29,-12.51,-25.47,-7.412,-10.35,4.23,-23.64,-4.54,-21.3,-4.459,-33.13,4.31,-20.21,-8.285,-8.562,-15.85,0,0,0,0,0,0,0,0,0,0,0,0,0,0,0,0,
38,-19.08,-16.91,-33.05,-10.15,-15.53,-1.584,-38.11,-9.054,-24.14,-6.982,-38.45,-1.083,-26.07,-14.91,-12.29,-20.6,0,0,0,0,0,0,0,0,0,0,0,0,0,0,0,0,
39,-23.75,-22.92,-39.47,-15.26,-22.13,-13.28,-37.67,-13.23,-30.81,-17.17,-38.54,-7.63,-27.93,-21.02,-10.02,-19.5,0,0,0,0,0,0,0,0,0,0,0,0,0,0,0,0,
40,-26.22,-23.89,-42.7,-16.75,-25.26,-18.4,-24.64,-15.47,-36.53,-25.19,-38.03,-9.085,-28.02,-21.89,-8.949,-18.72,0,0,0,0,0,0,0,0,0,0,0,0,0,0,0,0,
41,-25.85,-21.75,-42.19,-16.83,-25.1,-15.44,-28.96,-18.46,-39.7,-26.51,-41.66,-8.546,-29.03,-19.9,-9.348,-20.39,0,0,0,0,0,0,0,0,0,0,0,0,0,0,0,0,
42,-23.82,-19.07,-41.04,-15.61,-21.09,-9.264,-35.67,-18.47,-37.56,-21.85,-41.36,-7.599,-27.67,-17.61,-5.967,-19.34,0,0,0,0,0,0,0,0,0,0,0,0,0,0,0,0,
43,-20.26,-12.94,-35.51,-11.1,-13.83,-0.7498,-25.59,-13.22,-30.11,-13.38,-34.75,-7.097,-23.53,-16.3,-2.748,-20.04,0,0,0,0,0,0,0,0,0,0,0,0,0,0,0,0,
44,-15.73,-8.262,-26.69,-8.188,-8.44,5.556,-14.78,-9.686,-22.1,-6.336,-29.27,-6.891,-19.35,-14.22,-2.868,-22.8,0,0,0,0,0,0,0,0,0,0,0,0,0,0,0,0,
45,-10.75,-7.614,-26.78,-6.919,-6.74,6.281,-13.45,-11.15,-17.66,-2.823,-28.42,-4.255,-17.88,-10.54,-4.285,-21.24,0,0,0,0,0,0,0,0,0,0,0,0,0,0,0,0,
46,-7.577,-5.573,-30.78,-3.814,-7.653,4.998,-15.45,-12.35,-20.04,-2.796,-29.64,-0.893,-19.67,-8.674,-5.418,-17.65,0,0,0,0,0,0,0,0,0,0,0,0,0,0,0,0,
47,-8.072,-4.954,-25.7,-2.793,-8.277,4.016,-16.73,-10.78,-24.54,-6.285,-30.61,0.0889,-21.09,-9.39,-6.264,-15.64,0,0,0,0,0,0,0,0,0,0,0,0,0,0,0,0,
48,-8.548,-8.511,-20.58,-5.415,-6.163,2.705,-17.2,-8.506,-22.31,-9.349,-31.45,0.1333,-20.36,-9.58,-7.819,-14.95,0,0,0,0,0,0,0,0,0,0,0,0,0,0,0,0,
49,-7.516,-8.912,-19.78,-4.75,-4.341,2.929,-14.37,-6.418,-17.65,-7.723,-30.15,1.004,-17.88,-7.069,-7.803,-15.3,0,0,0,0,0,0,0,0,0,0,0,0,0,0,0,0,
50,-7.338,-5.978,-13.79,1.214,-3.463,6.133,-8.064,-5.309,-16.2,-1.616,-25.58,2.56,-13.52,-3.389,-5.013,-14.51,0,0,0,0,0,0,0,0,0,0,0,0,0,0,0,0,
51,-6.689,-4.97,-11.15,4.248,-2.148,9.669,-7.681,-5.94,-14.73,4.335,-23.48,3.93,-11.17,-1.905,-2.924,-12.55,0,0,0,0,0,0,0,0,0,0,0,0,0,0,0,0,
52,-5.03,-1.709,-17.32,2.248,-2.625,12.06,-12.19,-6.216,-14.64,6.183,-24.55,4.457,-12.17,-1.274,0.1246,-11.14,0,0,0,0,0,0,0,0,0,0,0,0,0,0,0,0,
53,-4.991,2.247,-19.02,2.438,-2.787,12.17,-12.77,-5.822,-15.48,6.096,-23.27,4.655,-11.26,0.6482,5.186,-9.118,0,0,0,0,0,0,0,0,0,0,0,0,0,0,0,0,
54,-6.547,-2.283,-18.63,3.37,-1.373,7.718,-15.08,-7.951,-13.28,5.043,-21.74,4.804,-9.378,0.4475,5.702,-7.559,0,0,0,0,0,0,0,0,0,0,0,0,0,0,0,0,
55,-6.76,-7.209,-20.3,1.258,-2.213,4.096,-15.06,-10.69,-13.06,1.227,-20.51,4.293,-10.5,-2.833,2.577,-8.464,0,0,0,0,0,0,0,0,0,0,0,0,0,0,0,0,
56,-4.407,-3.094,-14.03,1.206,-2.174,6.491,-4.897,-9.311,-15.48,-1.509,-16.52,2.815,-11.24,-5.296,2.665,-8.418,0,0,0,0,0,0,0,0,0,0,0,0,0,0,0,0,
57,-2.749,-0.8095,-8.587,1.136,0.5238,8.115,-3.795,-7.786,-14.15,-1.712,-16.89,1.053,-10.57,-6.079,4.045,-5.879,0,0,0,0,0,0,0,0,0,0,0,0,0,0,0,0,
58,-4.244,-4.925,-15.41,-4.369,-1.784,4.131,-16.37,-11.1,-13.46,-4.619,-23.54,-0.5782,-13.3,-7.545,2.561,-6.298,0,0,0,0,0,0,0,0,0,0,0,0,0,0,0,0,
59,-7.665,-8.44,-23.21,-9.575,-9.812,-2.473,-20.62,-13.53,-19.68,-9.865,-27.29,-3.118,-19.37,-10.11,-0.7057,-10.52,0,0,0,0,0,0,0,0,0,0,0,0,0,0,0,0,
60,-11.81,-11.62,-25.31,-11.29,-15.12,-8.12,-17.15,-11.0,-28.29,-13.08,-29.48,-5.61,-24.02,-10.63,-4.277,-11.86,0,0,0,0,0,0,0,0,0,0,0,0,0,0,0,0,
61,-13.96,-12.52,-24.43,-11.91,-14.71,-8.909,-20.8,-10.94,-32.42,-14.46,-34.05,-6.588,-26.03,-10.31,-8.084,-11.94,0,0,0,0,0,0,0,0,0,0,0,0,0,0,0,0,
62,-13.42,-10.13,-22.91,-11.61,-13.38,-6.998,-26.75,-16.96,-31.68,-16.58,-34.93,-8.927,-27.76,-15.9,-11.35,-17.48,0,0,0,0,0,0,0,0,0,0,0,0,0,0,0,0,
63,-12.18,-9.826,-23.39,-11.0,-12.53,-6.056,-20.13,-20.87,-30.5,-19.97,-30.47,-12.41,-27.76,-22.16,-12.09,-22.09,0,0,0,0,0,0,0,0,0,0,0,0,0,0,0,0,
64,-7.816,-6.678,-19.74,-8.793,-8.065,-2.936,-7.008,-18.69,-28.01,-20.72,-25.35,-12.49,-23.06,-18.05,-9.738,-19.45,0,0,0,0,0,0,0,0,0,0,0,0,0,0,0,0,
65,-4.376,-1.98,-13.5,-8.706,-4.795,-2.175,-8.889,-16.56,-22.16,-17.13,-22.54,-10.81,-18.48,-10.84,-6.525,-17.42,0,0,0,0,0,0,0,0,0,0,0,0,0,0,0,0,
66,-7.65,-7.402,-16.83,-14.97,-9.42,-8.222,-18.02,-15.4,-20.62,-14.56,-23.86,-10.13,-19.38,-10.37,-4.772,-18.5,0,0,0,0,0,0,0,0,0,0,0,0,0,0,0,0,
67,-7.226,-11.59,-20.61,-15.59,-11.8,-10.17,-16.7,-11.34,-24.5,-13.77,-26.94,-8.5,-21.24,-10.41,-4.512,-15.82,0,0,0,0,0,0,0,0,0,0,0,0,0,0,0,0,
68,-2.542,-6.427,-15.77,-10.94,-5.906,-6.389,-17.8,-9.276,-23.04,-10.51,-27.11,-6.647,-19.01,-8.049,-3.344,-10.39,0,0,0,0,0,0,0,0,0,0,0,0,0,0,0,0,
69,-5.244,-7.938,-14.65,-16.27,-3.15,-5.092,-21.72,-12.33,-17.63,-7.585,-24.94,-6.716,-15.05,-9.135,-1.171,-7.915,0,0,0,0,0,0,0,0,0,0,0,0,0,0,0,0,
70,-5.041,-10.37,-16.89,-17.3,-5.739,-3.222,-14.45,-13.86,-17.31,-9.398,-24.35,-8.969,-13.84,-13.66,-2.304,-9.376,0,0,0,0,0,0,0,0,0,0,0,0,0,0,0,0,
71,2.927,-1.578,-14.12,-2.87,-6.32,-2.084,-11.57,-12.7,-20.18,-14.24,-27.35,-12.62,-16.48,-16.66,-7.155,-12.7,0,0,0,0,0,0,0,0,0,0,0,0,0,0,0,0,
72,3.727,2.925,-12.58,5.914,-5.53,-4.602,-19.91,-10.39,-21.91,-16.37,-31.92,-12.56,-19.51,-14.27,-10.84,-13.77,0,0,0,0,0,0,0,0,0,0,0,0,0,0,0,0,
73,3.389,2.256,-15.68,8.681,-3.957,-0.2437,-23.44,-3.78,-21.54,-10.16,-33.46,-6.85,-20.07,-7.882,-11.32,-10.57,0,0,0,0,0,0,0,0,0,0,0,0,0,0,0,0,
74,9.553,8.743,-19.25,17.18,-1.339,8.666,-23.05,2.243,-18.88,-0.7009,-31.92,-3.4,-20.46,-4.735,-11.14,-8.175,0,0,0,0,0,0,0,0,0,0,0,0,0,0,0,0,
75,8.579,11.23,-19.79,19.02,-1.845,8.96,-22.76,1.339,-18.01,1.171,-31.9,-5.573,-22.79,-7.987,-14.12,-11.94,0,0,0,0,0,0,0,0,0,0,0,0,0,0,0,0,
76,2.664,6.075,-16.6,13.84,-4.227,6.219,-22.15,-1.467,-20.45,-2.863,-34.01,-7.608,-25.81,-14.24,-19.65,-18.61,0,0,0,0,0,0,0,0,0,0,0,0,0,0,0,0,
77,2.955,6.668,-15.44,14.44,-4.703,7.127,-26.74,-2.673,-22.38,-6.697,-35.87,-8.312,-28.8,-20.2,-22.18,-22.0,0,0,0,0,0,0,0,0,0,0,0,0,0,0,0,0,
78,3.564,9.603,-18.41,14.56,-6.162,5.883,-30.43,-3.644,-25.04,-10.43,-37.7,-9.315,-30.9,-22.51,-19.81,-21.21,0,0,0,0,0,0,0,0,0,0,0,0,0,0,0,0,
79,1.811,6.167,-22.76,8.216,-10.08,2.145,-27.84,-3.388,-29.38,-12.32,-38.33,-7.831,-29.29,-19.53,-14.16,-17.24,0,0,0,0,0,0,0,0,0,0,0,0,0,0,0,0,
80,1.229,0.5854,-26.92,1.343,-11.11,-1.541,-24.95,-3.179,-29.17,-12.29,-34.79,-5.386,-24.25,-16.02,-6.659,-12.55,0,0,0,0,0,0,0,0,0,0,0,0,0,0,0,0,
81,0.4357,-1.54,-22.84,-2.279,-6.565,-5.313,-18.62,-4.962,-23.39,-13.81,-28.53,-7.516,-19.83,-16.36,-0.379,-11.48,0,0,0,0,0,0,0,0,0,0,0,0,0,0,0,0,
82,0.6847,0.5903,-12.4,-1.716,-3.954,-6.685,-11.86,-7.645,-19.39,-15.75,-24.08,-11.91,-17.35,-18.14,3.216,-12.42,0,0,0,0,0,0,0,0,0,0,0,0,0,0,0,0,
83,1.597,1.781,-13.53,-0.2285,-9.435,-6.466,-18.45,-10.03,-20.86,-17.37,-25.81,-14.28,-16.82,-18.73,3.074,-12.88,0,0,0,0,0,0,0,0,0,0,0,0,0,0,0,0,
84,-0.8152,-3.601,-23.45,-3.215,-14.99,-8.406,-28.22,-9.665,-24.7,-19.06,-31.8,-16.41,-18.83,-19.41,-1.361,-15.84,0,0,0,0,0,0,0,0,0,0,0,0,0,0,0,0,
85,-4.339,-10.82,-24.88,-8.945,-13.98,-11.36,-21.77,-6.709,-26.9,-18.27,-31.06,-18.46,-19.36,-20.29,-3.747,-19.49,0,0,0,0,0,0,0,0,0,0,0,0,0,0,0,0,
86,-5.774,-12.68,-20.87,-10.8,-12.2,-11.76,-9.044,-5.63,-26.35,-16.16,-23.52,-18.84,-16.07,-20.26,-2.842,-21.31,0,0,0,0,0,0,0,0,0,0,0,0,0,0,0,0,
87,-4.937,-9.038,-18.81,-5.086,-10.27,-7.864,-6.643,-4.568,-22.87,-13.89,-21.74,-18.3,-13.6,-19.26,-4.837,-23.13,0,0,0,0,0,0,0,0,0,0,0,0,0,0,0,0,
88,0.5607,-1.209,-13.24,4.005,-3.031,-1.829,-5.21,-0.1877,-15.88,-8.878,-21.79,-15.38,-11.15,-15.84,-4.754,-20.4,0,0,0,0,0,0,0,0,0,0,0,0,0,0,0,0,
89,9.56,6.837,-3.317,8.067,4.112,1.688,2.476,0.5267,-8.94,-5.154,-16.15,-10.87,-6.88,-11.4,-0.3737,-14.29,0,0,0,0,0,0,0,0,0,0,0,0,0,0,0,0,
90,13.76,8.512,0.2888,6.823,2.986,1.076,0.3746,-4.549,-8.678,-7.392,-17.32,-10.71,-8.834,-11.38,-3.045,-15.49,0,0,0,0,0,0,0,0,0,0,0,0,0,0,0,0,
91,10.86,7.354,-7.057,7.098,-2.098,-0.9973,-11.34,-5.03,-14.3,-9.852,-26.06,-13.03,-16.17,-13.45,-9.517,-18.68,0,0,0,0,0,0,0,0,0,0,0,0,0,0,0,0,
92,8.29,9.372,-13.48,8.746,-3.077,-1.776,-12.4,-0.772,-17.32,-6.901,-26.32,-10.86,-16.92,-11.15,-7.958,-15.62,0,0,0,0,0,0,0,0,0,0,0,0,0,0,0,0,
93,7.435,7.237,-12.7,6.119,-3.635,-3.282,-6.442,-0.9318,-16.07,-2.808,-23.08,-8.351,-14.25,-9.123,-5.022,-15.59,0,0,0,0,0,0,0,0,0,0,0,0,0,0,0,0,
94,4.633,-0.612,-14.63,1.67,-8.836,-7.895,-6.942,-2.95,-18.02,-4.44,-27.51,-11.5,-17.57,-13.42,-8.052,-20.37,0,0,0,0,0,0,0,0,0,0,0,0,0,0,0,0,
95,4.516,-1.851,-19.41,1.171,-11.1,-11.17,-10.16,-3.347,-23.43,-10.49,-31.08,-15.78,-21.26,-19.32,-11.13,-22.16,0,0,0,0,0,0,0,0,0,0,0,0,0,0,0,0,
96,7.245,1.736,-20.14,0.5799,-7.857,-11.29,-13.38,-5.798,-24.76,-14.91,-28.51,-17.41,-19.65,-21.86,-11.11,-22.01,0,0,0,0,0,0,0,0,0,0,0,0,0,0,0,0,
97,4.917,-0.0061,-21.81,-3.769,-7.642,-12.38,-15.49,-7.495,-21.64,-16.88,-26.02,-16.11,-16.78,-19.68,-9.786,-18.99,0,0,0,0,0,0,0,0,0,0,0,0,0,0,0,0,
98,2.448,-1.176,-24.59,-5.533,-9.244,-12.58,-14.66,-7.061,-19.07,-16.31,-25.21,-10.82,-16.05,-12.95,-8.645,-12.6,0,0,0,0,0,0,0,0,0,0,0,0,0,0,0,0,
99,5.146,1.868,-24.32,-3.7,-8.897,-9.889,-18.16,-8.992,-19.92,-11.92,-25.98,-7.328,-19.26,-8.505,-10.43,-11.94,0,0,0,0,0,0,0,0,0,0,0,0,0,0,0,0,
100,3.467,0.5251,-28.46,-4.621,-11.67,-8.494,-26.19,-9.912,-24.52,-9.181,-28.27,-8.854,-24.26,-9.702,-13.65,-15.59,0,0,0,0,0,0,0,0,0,0,0,0,0,0,0,0,
101,-1.478,-3.154,-35.87,-6.788,-15.1,-8.418,-31.37,-8.15,-27.1,-10.76,-27.89,-6.882,-24.04,-8.473,-12.75,-12.93,0,0,0,0,0,0,0,0,0,0,0,0,0,0,0,0,
102,0.6946,-2.568,-33.1,-7.447,-13.4,-9.066,-31.22,-9.244,-23.95,-10.92,-25.42,-3.1,-21.11,-5.442,-10.31,-8.793,0,0,0,0,0,0,0,0,0,0,0,0,0,0,0,0,
103,3.35,-4.17,-22.82,-10.12,-12.0,-13.03,-24.09,-11.01,-23.24,-10.83,-26.41,-6.776,-24.17,-10.31,-12.79,-12.48,0,0,0,0,0,0,0,0,0,0,0,0,0,0,0,0,
104,-0.5028,-9.263,-19.99,-12.21,-14.8,-15.88,-19.41,-9.913,-28.62,-14.58,-30.39,-10.77,-29.7,-17.37,-15.74,-16.83,0,0,0,0,0,0,0,0,0,0,0,0,0,0,0,0,
105,-2.085,-7.342,-25.94,-8.15,-17.09,-12.55,-23.54,-8.149,-31.95,-15.74,-33.67,-8.992,-30.43,-16.01,-14.12,-14.91,0,0,0,0,0,0,0,0,0,0,0,0,0,0,0,0,
106,2.121,-0.0684,-28.87,-2.591,-15.83,-7.165,-23.27,-4.616,-30.8,-10.52,-34.93,-8.641,-28.23,-11.26,-13.23,-12.57,0,0,0,0,0,0,0,0,0,0,0,0,0,0,0,0,
107,5.94,3.246,-25.02,-0.524,-12.61,-2.985,-23.78,-0.6244,-28.3,-5.451,-34.38,-8.691,-25.86,-9.061,-14.28,-10.98,0,0,0,0,0,0,0,0,0,0,0,0,0,0,0,0,
108,8.347,6.131,-22.02,2.733,-9.883,2.027,-34.91,-1.927,-24.09,-3.434,-34.71,-5.886,-24.5,-8.608,-14.41,-8.292,0,0,0,0,0,0,0,0,0,0,0,0,0,0,0,0,
109,11.1,12.53,-20.46,9.761,-7.311,7.091,-35.7,-5.445,-20.85,-2.436,-35.28,-7.515,-24.53,-11.61,-15.48,-10.3,0,0,0,0,0,0,0,0,0,0,0,0,0,0,0,0,
110,13.77,17.96,-14.76,15.08,-3.097,10.14,-22.68,-3.735,-19.95,-2.97,-30.01,-12.54,-21.77,-15.74,-13.41,-13.15,0,0,0,0,0,0,0,0,0,0,0,0,0,0,0,0,
111,17.03,21.65,-8.983,15.79,1.587,12.82,-14.72,1.959,-15.9,-3.644,-21.63,-10.93,-16.74,-14.89,-5.853,-8.26,0,0,0,0,0,0,0,0,0,0,0,0,0,0,0,0,
112,19.21,21.84,-9.617,13.23,3.141,13.68,-13.11,4.242,-11.41,-1.62,-20.4,-6.044,-16.97,-12.57,-4.86,-5.727,0,0,0,0,0,0,0,0,0,0,0,0,0,0,0,0,
113,16.22,14.57,-12.43,8.061,0.4719,8.53,-16.14,-0.0384,-14.1,-0.4008,-24.21,-7.948,-21.9,-14.33,-11.87,-12.14,0,0,0,0,0,0,0,0,0,0,0,0,0,0,0,0,
114,10.14,7.226,-11.66,4.202,-3.175,1.671,-15.92,-5.011,-19.16,-3.853,-24.01,-13.32,-25.92,-18.11,-14.05,-16.31,0,0,0,0,0,0,0,0,0,0,0,0,0,0,0,0,
115,4.782,5.484,-13.38,3.696,-6.939,-1.98,-9.775,-6.281,-21.63,-9.83,-23.78,-14.27,-29.94,-22.47,-12.92,-15.83,0,0,0,0,0,0,0,0,0,0,0,0,0,0,0,0,
116,0.1594,3.203,-21.32,2.532,-11.6,-4.72,-19.03,-8.01,-24.58,-14.85,-27.65,-12.73,-32.21,-25.34,-13.48,-14.82,0,0,0,0,0,0,0,0,0,0,0,0,0,0,0,0,
117,0.7875,2.241,-22.26,3.778,-11.14,-3.885,-29.82,-10.17,-24.85,-14.92,-26.6,-12.12,-28.24,-22.47,-10.28,-11.42,0,0,0,0,0,0,0,0,0,0,0,0,0,0,0,0,
118,8.856,7.43,-13.05,9.08,-5.811,0.7503,-17.08,-9.067,-21.89,-11.31,-22.37,-11.38,-25.3,-19.6,-8.504,-9.948,0,0,0,0,0,0,0,0,0,0,0,0,0,0,0,0,
119,14.41,12.34,-8.699,9.043,-6.118,0.5901,-12.88,-7.945,-24.53,-12.99,-25.8,-10.44,-29.04,-22.07,-13.59,-11.86,0,0,0,0,0,0,0,0,0,0,0,0,0,0,0,0,
120,13.2,15.16,-10.11,6.185,-9.514,-1.069,-28.13,-7.58,-29.67,-17.46,-30.36,-10.23,-30.93,-22.07,-15.58,-9.735,0,0,0,0,0,0,0,0,0,0,0,0,0,0,0,0,
121,11.96,16.85,-11.91,6.769,-9.497,0.1224,-29.78,-7.217,-29.65,-16.16,-31.1,-11.98,-30.54,-19.67,-15.64,-8.197,0,0,0,0,0,0,0,0,0,0,0,0,0,0,0,0,
122,12.55,13.45,-13.72,4.116,-9.788,-3.794,-20.13,-10.01,-30.16,-15.97,-32.6,-13.87,-32.75,-20.66,-19.47,-11.67,0,0,0,0,0,0,0,0,0,0,0,0,0,0,0,0,
123,15.02,11.78,-7.362,3.094,-7.7,-7.609,-15.09,-9.587,-29.9,-18.96,-27.67,-10.44,-29.03,-18.02,-16.56,-10.06,0,0,0,0,0,0,0,0,0,0,0,0,0,0,0,0,
124,19.07,15.6,-2.444,8.105,-5.518,-4.975,-15.48,-3.661,-23.95,-16.3,-19.1,-5.492,-21.05,-13.12,-8.777,-4.74,0,0,0,0,0,0,0,0,0,0,0,0,0,0,0,0,
125,18.47,15.38,-13.16,7.083,-12.1,-6.106,-21.17,-5.306,-24.22,-14.53,-19.57,-6.665,-20.76,-15.37,-7.747,-5.038,0,0,0,0,0,0,0,0,0,0,0,0,0,0,0,0,
126,16.2,16.24,-15.7,6.8,-14.07,-6.693,-21.71,-10.54,-30.14,-18.01,-20.06,-8.67,-21.07,-16.13,-6.605,-6.544,0,0,0,0,0,0,0,0,0,0,0,0,0,0,0,0,
127,23.61,27.01,-1.634,17.9,-3.537,1.951,-19.14,-4.956,-25.43,-14.72,-16.13,-5.98,-16.56,-10.32,-2.741,-5.966,0,0,0,0,0,0,0,0,0,0,0,0,0,0,0,0,
128,39.44,41.99,6.036,29.21,4.799,9.846,-20.15,3.715,-17.21,-6.14,-15.45,-3.402,-15.08,-7.563,-3.179,-5.57,0,0,0,0,0,0,0,0,0,0,0,0,0,0,0,0,
129,58.53,61.87,16.39,41.16,13.3,17.08,-9.847,6.339,-15.41,-2.524,-11.18,-3.751,-13.92,-7.04,-3.205,-3.935,0,0,0,0,0,0,0,0,0,0,0,0,0,0,0,0,
130,82.99,85.27,37.97,56.67,28.35,29.46,1.891,7.118,-9.544,-1.252,-4.635,-4.351,-8.819,-4.125,1.044,-1.659,0,0,0,0,0,0,0,0,0,0,0,0,0,0,0,0,
131,110.2,103.5,52.82,66.05,40.31,40.07,-1.424,8.536,0.4521,1.892,-2.766,-1.843,-1.371,-0.0528,8.259,2.471,0,0,0,0,0,0,0,0,0,0,0,0,0,0,0,0,
132,133.4,123.1,68.64,76.86,50.31,49.56,1.784,12.13,6.276,7.987,3.289,2.777,7.48,4.687,15.82,8.053,0,0,0,0,0,0,0,0,0,0,0,0,0,0,0,0,
133,148.3,144.0,90.2,93.15,60.33,60.14,10.67,16.33,9.243,16.1,9.189,3.946,10.12,5.977,15.96,7.697,0,0,0,0,0,0,0,0,0,0,0,0,0,0,0,0,
134,152.3,150.9,98.93,100.2,65.12,66.34,7.583,16.63,10.42,20.39,8.054,2.856,8.106,4.362,13.85,5.87,0,0,0,0,0,0,0,0,0,0,0,0,0,0,0,0,
135,150.7,148.5,105.3,101.0,71.52,70.56,9.076,16.82,13.58,21.31,11.19,5.856,12.25,6.923,17.8,9.851,0,0,0,0,0,0,0,0,0,0,0,0,0,0,0,0,
136,150.6,148.5,121.8,105.3,82.79,75.79,18.39,21.75,22.1,24.41,15.06,12.67,16.38,12.03,18.96,12.94,0,0,0,0,0,0,0,0,0,0,0,0,0,0,0,0,
137,150.6,148.8,132.2,109.5,92.62,82.14,25.18,29.21,29.97,29.31,15.61,18.62,17.12,16.85,18.37,14.88,0,0,0,0,0,0,0,0,0,0,0,0,0,0,0,0,
138,150.8,148.3,132.2,109.9,97.08,88.72,35.85,33.31,34.37,33.64,21.88,18.64,19.85,19.29,19.77,15.33,0,0,0,0,0,0,0,0,0,0,0,0,0,0,0,0,
139,151.4,147.3,126.5,104.8,91.64,87.55,37.34,31.09,33.44,34.62,20.95,13.0,15.77,13.95,10.72,5.899,0,0,0,0,0,0,0,0,0,0,0,0,0,0,0,0,
140,145.9,144.7,115.3,98.06,84.28,82.94,24.31,29.2,27.03,33.19,8.361,9.136,7.508,7.957,-0.806,-2.318,0,0,0,0,0,0,0,0,0,0,0,0,0,0,0,0,
141,131.7,137.3,102.8,93.54,82.03,82.66,20.23,28.15,24.76,34.37,3.227,5.833,6.287,6.258,-1.906,-1.965,0,0,0,0,0,0,0,0,0,0,0,0,0,0,0,0,
142,111.6,117.6,84.49,82.57,68.55,71.87,17.63,19.33,20.98,31.01,-1.663,-1.617,0.3778,-1.557,-6.61,-8.148,0,0,0,0,0,0,0,0,0,0,0,0,0,0,0,0,
143,89.64,92.64,62.9,66.89,45.94,51.0,5.019,11.27,5.331,18.26,-10.86,-3.6,-8.898,-9.244,-11.03,-12.98,0,0,0,0,0,0,0,0,0,0,0,0,0,0,0,0,
144,71.79,75.64,52.75,56.92,35.63,41.41,2.169,12.77,-3.677,11.62,-5.962,2.485,-5.171,-4.873,-2.351,-3.975,0,0,0,0,0,0,0,0,0,0,0,0,0,0,0,0,
145,56.87,59.26,46.26,46.3,29.63,36.69,5.479,12.16,0.012,13.13,0.1401,2.826,-2.547,-1.742,0.0459,-1.079,0,0,0,0,0,0,0,0,0,0,0,0,0,0,0,0,
146,41.55,40.72,34.96,33.76,19.61,25.21,1.431,8.209,-4.359,8.461,-7.567,-2.663,-10.99,-6.659,-7.498,-7.231,0,0,0,0,0,0,0,0,0,0,0,0,0,0,0,0,
147,33.16,33.12,30.3,30.16,18.75,19.31,-0.6299,9.025,-11.96,3.804,-9.731,-2.656,-12.33,-7.497,-4.817,-4.24,0,0,0,0,0,0,0,0,0,0,0,0,0,0,0,0,
148,32.25,32.63,27.92,30.67,21.94,21.17,-0.5209,9.895,-9.039,7.239,-3.609,3.436,-4.753,-2.269,3.825,3.523,0,0,0,0,0,0,0,0,0,0,0,0,0,0,0,0,
149,27.98,27.09,18.15,25.92,17.7,20.63,0.3298,10.5,-5.38,9.651,-0.166,10.56,1.534,4.637,10.9,10.12,0,0,0,0,0,0,0,0,0,0,0,0,0,0,0,0,
150,19.95,19.17,9.777,19.53,13.09,17.26,4.442,12.82,-4.55,9.978,4.907,12.36,6.815,9.92,18.5,16.12,0,0,0,0,0,0,0,0,0,0,0,0,0,0,0,0,
151,12.57,12.7,7.811,16.42,11.28,14.18,2.841,11.05,-3.096,11.26,8.687,7.465,9.473,9.28,18.58,14.79,0,0,0,0,0,0,0,0,0,0,0,0,0,0,0,0,
152,6.182,8.517,8.792,18.14,9.593,14.0,1.607,9.585,-3.349,10.05,6.431,5.637,8.79,6.595,11.67,10.73,0,0,0,0,0,0,0,0,0,0,0,0,0,0,0,0,
153,3.201,7.488,7.444,20.72,8.061,14.87,5.569,11.52,-2.018,7.782,1.42,6.497,4.313,3.196,4.397,7.445,0,0,0,0,0,0,0,0,0,0,0,0,0,0,0,0,
154,-0.2347,3.469,-1.319,16.31,3.416,9.934,-0.0765,8.709,-3.479,3.951,-6.132,1.402,-5.854,-4.606,-3.344,-0.245,0,0,0,0,0,0,0,0,0,0,0,0,0,0,0,0,
155,-7.329,-5.059,-8.588,8.168,-0.5919,2.323,-6.187,5.635,-11.88,-1.526,-8.292,-2.204,-10.79,-8.238,-3.169,-1.569,0,0,0,0,0,0,0,0,0,0,0,0,0,0,0,0,
156,-9.733,-11.69,-4.95,4.391,3.207,-1.203,-1.926,7.923,-11.83,-1.023,-0.4493,1.756,-5.027,-2.394,6.006,7.66,0,0,0,0,0,0,0,0,0,0,0,0,0,0,0,0,
157,-8.024,-15.83,1.771,4.26,9.338,-0.8075,1.157,8.949,-2.803,3.905,8.173,6.684,2.297,5.761,14.86,15.81,0,0,0,0,0,0,0,0,0,0,0,0,0,0,0,0,
158,-7.451,-14.34,5.433,7.74,13.26,6.167,9.335,11.85,1.647,9.67,16.83,12.42,11.37,14.41,25.95,24.19,0,0,0,0,0,0,0,0,0,0,0,0,0,0,0,0,
159,-2.783,-4.07,6.483,12.97,16.52,17.19,17.85,18.43,7.33,19.55,21.75,17.41,19.43,20.47,32.14,30.05,0,0,0,0,0,0,0,0,0,0,0,0,0,0,0,0,
160,1.021,1.344,1.808,11.47,14.8,19.78,6.052,17.64,13.36,24.81,13.34,14.67,15.96,17.65,22.15,22.8,0,0,0,0,0,0,0,0,0,0,0,0,0,0,0,0,
161,-4.656,-6.298,-6.497,5.206,7.873,12.83,-5.17,12.31,7.534,18.79,3.305,8.499,7.867,10.86,11.49,11.77,0,0,0,0,0,0,0,0,0,0,0,0,0,0,0,0,
162,-11.4,-14.55,-11.91,2.197,2.899,6.614,-0.1177,11.65,-1.741,12.3,1.407,4.88,3.466,6.676,9.187,7.583,0,0,0,0,0,0,0,0,0,0,0,0,0,0,0,0,
163,-14.42,-15.06,-13.83,2.589,1.149,6.384,1.188,11.02,-4.787,10.22,-0.7655,2.317,-1.58,4.714,4.716,5.519,0,0,0,0,0,0,0,0,0,0,0,0,0,0,0,0,
164,-18.26,-12.3,-15.21,5.285,-0.1165,8.69,-2.721,8.359,-7.03,8.306,-4.098,0.8592,-6.899,2.148,-0.7649,1.967,0,0,0,0,0,0,0,0,0,0,0,0,0,0,0,0,
165,-22.82,-13.98,-19.26,5.007,-2.664,5.412,-8.445,6.118,-10.4,4.202,-7.165,-0.571,-10.8,-2.814,-3.227,-1.189,0,0,0,0,0,0,0,0,0,0,0,0,0,0,0,0,
166,-28.38,-22.36,-24.93,-1.941,-7.025,-1.932,-16.04,3.269,-12.82,-1.756,-10.52,-2.498,-12.18,-4.602,-3.079,0.8715,0,0,0,0,0,0,0,0,0,0,0,0,0,0,0,0,
167,-34.1,-29.63,-28.01,-6.086,-10.16,-4.101,-12.58,3.248,-13.46,-2.769,-8.911,-1.402,-8.419,-0.5306,1.103,6.947,0,0,0,0,0,0,0,0,0,0,0,0,0,0,0,0,
168,-37.86,-33.29,-31.12,-7.632,-11.89,-4.754,-9.13,4.283,-12.8,0.4518,-7.613,-0.7388,-7.599,-0.6094,0.4406,5.23,0,0,0,0,0,0,0,0,0,0,0,0,0,0,0,0,
169,-42.1,-38.09,-35.71,-15.01,-15.52,-9.448,-18.43,-0.949,-15.11,-3.56,-13.74,-4.838,-14.88,-7.624,-9.159,-4.466,0,0,0,0,0,0,0,0,0,0,0,0,0,0,0,0,
170,-44.47,-39.55,-35.21,-18.92,-17.1,-11.74,-22.74,-5.465,-19.15,-10.86,-18.41,-6.525,-19.42,-11.44,-13.67,-7.556,0,0,0,0,0,0,0,0,0,0,0,0,0,0,0,0,
171,-40.78,-35.79,-31.32,-14.77,-11.84,-10.87,-20.53,-2.942,-17.15,-10.32,-17.06,-2.702,-17.19,-9.085,-10.22,-2.677,0,0,0,0,0,0,0,0,0,0,0,0,0,0,0,0,
172,-36.41,-34.76,-29.71,-12.45,-5.558,-11.14,-19.01,-1.716,-11.3,-6.22,-15.12,-1.887,-15.33,-7.133,-9.691,-1.672,0,0,0,0,0,0,0,0,0,0,0,0,0,0,0,0,
173,-36.21,-36.67,-26.64,-10.74,-4.519,-10.15,-13.42,-3.667,-10.04,-4.353,-12.96,-5.058,-13.4,-7.604,-10.53,-3.877,0,0,0,0,0,0,0,0,0,0,0,0,0,0,0,0,
174,-37.02,-36.88,-22.91,-8.485,-6.194,-8.216,-12.96,-4.652,-9.454,-3.327,-9.858,-4.663,-7.86,-5.668,-6.899,-0.2797,0,0,0,0,0,0,0,0,0,0,0,0,0,0,0,0,
175,-35.02,-35.24,-22.86,-10.87,-6.485,-6.726,-14.66,-5.141,-4.193,-2.165,-8.202,-2.28,-3.978,-2.365,-4.587,4.171,0,0,0,0,0,0,0,0,0,0,0,0,0,0,0,0,
176,-33.06,-33.6,-23.14,-13.03,-6.83,-4.758,-6.86,-3.029,-3.028,-1.193,-9.793,-3.079,-7.108,-4.261,-7.637,2.371,0,0,0,0,0,0,0,0,0,0,0,0,0,0,0,0,
177,-37.48,-35.43,-24.46,-13.07,-10.53,-7.081,-9.478,-0.4292,-9.648,-3.248,-14.41,-3.399,-12.68,-7.58,-9.62,1.793,0,0,0,0,0,0,0,0,0,0,0,0,0,0,0,0,
178,-43.34,-37.95,-26.77,-13.23,-12.71,-11.27,-22.99,-1.278,-14.11,-7.09,-16.56,-0.3477,-12.88,-4.474,-6.364,6.218,0,0,0,0,0,0,0,0,0,0,0,0,0,0,0,0,
179,-41.02,-34.61,-22.28,-8.317,-6.41,-6.784,-17.35,2.145,-11.46,-3.988,-10.31,3.656,-5.932,2.209,-0.6371,9.438,0,0,0,0,0,0,0,0,0,0,0,0,0,0,0,0,
180,-35.92,-30.46,-15.75,-2.843,0.1614,0.0363,-1.444,9.342,-4.281,4.686,-0.9736,6.357,2.18,6.213,4.381,10.29,0,0,0,0,0,0,0,0,0,0,0,0,0,0,0,0,
181,-34.77,-30.73,-16.7,-4.171,-2.2,-0.6574,0.5315,8.983,1.737,7.247,1.249,4.698,3.512,5.716,7.025,10.33,0,0,0,0,0,0,0,0,0,0,0,0,0,0,0,0,
182,-34.5,-29.96,-19.63,-4.158,-6.028,-1.692,-4.841,5.992,0.1612,3.779,-1.908,2.601,-0.6126,4.526,8.669,11.17,0,0,0,0,0,0,0,0,0,0,0,0,0,0,0,0,
183,-35.5,-27.68,-19.71,-2.148,-6.215,-0.6446,-6.668,7.304,-5.738,3.193,-1.891,7.778,-2.001,7.812,12.16,15.21,0,0,0,0,0,0,0,0,0,0,0,0,0,0,0,0,
184,-36.4,-27.03,-19.21,-5.263,-5.44,-2.406,-1.301,6.309,-8.304,4.85,0.6675,10.87,-0.066,9.478,14.6,16.75,0,0,0,0,0,0,0,0,0,0,0,0,0,0,0,0,
185,-33.21,-25.85,-18.9,-6.322,-2.804,-3.093,5.712,3.398,-7.181,2.383,0.9618,2.69,-0.198,2.788,11.89,10.97,0,0,0,0,0,0,0,0,0,0,0,0,0,0,0,0,
186,-32.93,-26.64,-19.73,-3.562,-3.13,-2.175,0.005,3.16,-5.703,-2.232,0.0784,-4.197,-2.833,-3.113,8.494,5.342,0,0,0,0,0,0,0,0,0,0,0,0,0,0,0,0,
187,-37.62,-31.98,-19.25,-6.548,-9.883,-4.682,-9.713,2.262,-7.479,-3.648,-0.8085,-4.522,-5.205,-3.634,8.588,2.977,0,0,0,0,0,0,0,0,0,0,0,0,0,0,0,0,
188,-39.25,-35.77,-16.38,-11.26,-13.99,-9.738,-6.625,-0.3621,-12.53,-5.762,-3.475,-7.215,-7.137,-6.552,7.54,-0.9899,0,0,0,0,0,0,0,0,0,0,0,0,0,0,0,0,
189,-40.93,-36.82,-17.65,-11.85,-13.84,-14.61,-3.086,-3.167,-15.83,-11.11,-6.415,-8.877,-8.388,-8.95,4.693,-2.827,0,0,0,0,0,0,0,0,0,0,0,0,0,0,0,0,
190,-45.19,-38.45,-22.08,-13.67,-14.1,-14.94,-7.007,-5.441,-15.08,-11.48,-5.832,-5.436,-6.279,-5.348,5.72,0.7322,0,0,0,0,0,0,0,0,0,0,0,0,0,0,0,0,
191,-43.43,-36.65,-23.87,-14.53,-11.17,-8.532,-5.156,-4.351,-10.79,-6.696,-2.455,-3.256,-1.583,-2.666,7.819,2.18,0,0,0,0,0,0,0,0,0,0,0,0,0,0,0,0,
192,-37.96,-31.46,-26.31,-9.583,-7.585,-2.878,-2.447,-0.6897,-5.061,-5.316,-1.355,-3.258,0.8428,-3.035,5.584,-0.0355,0,0,0,0,0,0,0,0,0,0,0,0,0,0,0,0,
193,-37.89,-31.08,-29.7,-5.753,-10.39,-3.217,-8.652,0.695,-3.377,-5.768,-4.294,-5.368,-0.2195,-3.488,1.898,-1.299,0,0,0,0,0,0,0,0,0,0,0,0,0,0,0,0,
194,-40.12,-35.73,-29.9,-7.092,-15.22,-7.744,-9.523,-2.015,-6.869,-6.586,-6.561,-10.03,-2.646,-6.122,-1.094,-3.528,0,0,0,0,0,0,0,0,0,0,0,0,0,0,0,0,
195,-39.79,-39.47,-30.82,-10.01,-17.29,-14.07,-2.407,-5.728,-11.0,-11.2,-5.308,-9.956,-4.382,-6.795,-2.685,-5.324,0,0,0,0,0,0,0,0,0,0,0,0,0,0,0,0,
196,-40.43,-40.75,-33.48,-13.95,-17.9,-17.2,-1.706,-5.246,-13.12,-13.49,-3.712,-5.804,-2.78,-1.836,1.297,-1.317,0,0,0,0,0,0,0,0,0,0,0,0,0,0,0,0,
197,-43.35,-39.43,-31.43,-16.7,-15.8,-15.58,-0.4407,-1.253,-11.62,-10.16,-1.911,-4.865,1.933,1.181,8.729,4.497,0,0,0,0,0,0,0,0,0,0,0,0,0,0,0,0,
198,-42.68,-35.99,-26.45,-14.2,-11.69,-13.12,5.929,0.7388,-6.878,-8.025,2.552,-2.542,6.077,1.609,11.62,7.438,0,0,0,0,0,0,0,0,0,0,0,0,0,0,0,0,
199,-37.39,-32.12,-25.58,-9.428,-10.66,-10.1,1.301,0.1341,-3.493,-6.799,4.829,3.103,7.04,4.154,9.124,9.082,0,0,0,0,0,0,0,0,0,0,0,0,0,0,0,0,
200,-35.7,-28.96,-27.04,-6.064,-12.22,-7.72,-8.242,-0.5208,-3.445,-4.816,1.424,4.705,4.433,3.946,6.693,9.108,0,0,0,0,0,0,0,0,0,0,0,0,0,0,0,0,
201,-38.77,-29.34,-25.86,-3.64,-12.09,-8.717,-5.7,0.9277,-4.742,-5.867,-0.2307,4.766,2.053,1.716,7.945,8.486,0,0,0,0,0,0,0,0,0,0,0,0,0,0,0,0,
202,-38.14,-33.03,-22.84,-4.6,-10.62,-10.62,1.475,4.139,-5.148,-6.336,5.029,7.491,4.967,5.077,11.88,10.14,0,0,0,0,0,0,0,0,0,0,0,0,0,0,0,0,
203,-33.9,-34.34,-19.55,-9.848,-9.116,-11.92,6.129,4.311,-2.425,-2.706,11.35,6.899,9.492,8.593,13.22,10.68,0,0,0,0,0,0,0,0,0,0,0,0,0,0,0,0,
204,-32.65,-32.71,-17.49,-12.33,-8.288,-12.49,8.84,2.224,1.0,-1.037,10.83,3.008,7.556,4.713,8.67,6.363,0,0,0,0,0,0,0,0,0,0,0,0,0,0,0,0,
205,-34.32,-31.78,-22.58,-8.874,-11.7,-11.77,3.755,1.897,-1.075,-3.178,2.104,1.455,-0.6337,-1.507,1.681,-0.0515,0,0,0,0,0,0,0,0,0,0,0,0,0,0,0,0,
206,-36.42,-30.08,-33.13,-5.13,-17.81,-11.6,-7.779,0.3373,-7.302,-5.476,-8.524,0.2184,-8.98,-4.642,-3.874,-4.189,0,0,0,0,0,0,0,0,0,0,0,0,0,0,0,0,
207,-36.68,-25.64,-33.26,-2.954,-17.83,-8.924,-16.45,-0.4773,-10.5,-6.42,-13.27,-1.003,-12.44,-4.205,-6.506,-3.82,0,0,0,0,0,0,0,0,0,0,0,0,0,0,0,0,
208,-33.47,-22.91,-21.88,-1.945,-12.22,-4.048,-15.14,2.315,-9.486,-4.638,-11.61,0.1645,-10.44,-2.134,-5.686,-2.336,0,0,0,0,0,0,0,0,0,0,0,0,0,0,0,0,
209,-33.14,-27.71,-20.59,-6.748,-12.1,-8.495,-5.412,0.0933,-8.853,-3.728,-10.56,-0.9017,-8.66,-3.059,-5.161,-5.204,0,0,0,0,0,0,0,0,0,0,0,0,0,0,0,0,
210,-39.13,-35.46,-31.58,-14.25,-18.07,-17.86,-1.241,-5.291,-10.43,-7.475,-12.55,-3.219,-8.998,-4.951,-6.042,-8.616,0,0,0,0,0,0,0,0,0,0,0,0,0,0,0,0,
211,-42.75,-36.19,-35.56,-14.07,-20.74,-15.98,-5.48,-3.848,-11.23,-8.167,-10.75,-0.6946,-6.898,-2.691,-3.068,-7.085,0,0,0,0,0,0,0,0,0,0,0,0,0,0,0,0,
212,-41.25,-32.31,-33.47,-8.607,-20.65,-10.72,-6.913,-2.779,-10.55,-4.204,-6.934,0.6456,-5.805,-2.127,-0.488,-6.027,0,0,0,0,0,0,0,0,0,0,0,0,0,0,0,0,
213,-40.59,-32.05,-35.89,-7.004,-22.97,-14.27,-8.685,-6.355,-12.75,-6.161,-11.67,-3.678,-10.77,-7.204,-5.985,-9.885,0,0,0,0,0,0,0,0,0,0,0,0,0,0,0,0,
214,-40.74,-33.91,-37.75,-8.923,-24.19,-16.65,-14.66,-5.779,-17.83,-11.85,-18.86,-6.729,-14.44,-10.44,-10.94,-13.26,0,0,0,0,0,0,0,0,0,0,0,0,0,0,0,0,
215,-39.77,-32.53,-36.29,-10.83,-20.88,-12.01,-14.94,-3.931,-18.24,-12.0,-17.56,-7.648,-12.56,-9.605,-9.274,-12.64,0,0,0,0,0,0,0,0,0,0,0,0,0,0,0,0,
216,-39.68,-28.72,-37.1,-13.07,-17.62,-10.71,-12.24,-6.985,-13.1,-9.924,-17.15,-10.53,-13.14,-10.0,-11.36,-12.87,0,0,0,0,0,0,0,0,0,0,0,0,0,0,0,0,
217,-43.01,-31.08,-41.93,-15.88,-21.29,-17.47,-15.07,-9.402,-14.53,-11.08,-23.23,-12.91,-18.28,-12.15,-17.86,-16.72,0,0,0,0,0,0,0,0,0,0,0,0,0,0,0,0,
218,-47.18,-38.88,-44.47,-15.51,-27.57,-22.92,-15.55,-8.089,-23.87,-13.96,-24.21,-10.86,-19.27,-11.52,-18.2,-17.66,0,0,0,0,0,0,0,0,0,0,0,0,0,0,0,0,
219,-43.64,-36.37,-37.54,-9.864,-24.33,-19.77,-12.34,-6.94,-24.56,-14.56,-20.56,-7.429,-15.21,-7.879,-15.63,-13.84,0,0,0,0,0,0,0,0,0,0,0,0,0,0,0,0,
220,-36.67,-27.51,-32.07,-6.257,-18.84,-15.43,-13.78,-7.332,-17.95,-11.56,-21.39,-8.392,-13.79,-6.487,-15.6,-11.8,0,0,0,0,0,0,0,0,0,0,0,0,0,0,0,0,
221,-36.83,-27.23,-33.9,-7.26,-21.48,-14.73,-11.24,-5.291,-18.03,-8.41,-20.71,-9.046,-12.1,-5.921,-11.68,-9.368,0,0,0,0,0,0,0,0,0,0,0,0,0,0,0,0,
222,-34.1,-24.15,-26.46,-3.396,-17.78,-11.07,-1.596,0.4748,-15.24,-5.97,-14.24,-3.292,-5.081,-1.227,-5.924,-3.888,0,0,0,0,0,0,0,0,0,0,0,0,0,0,0,0,
223,-26.72,-16.48,-19.85,3.16,-7.989,-6.868,-2.694,4.032,-5.313,-3.099,-10.47,0.9664,-1.101,2.383,-6.037,-2.309,0,0,0,0,0,0,0,0,0,0,0,0,0,0,0,0,
224,-29.69,-20.62,-29.29,2.064,-9.559,-7.541,-10.04,4.392,-4.588,-2.086,-10.29,-0.7845,-2.302,0.9147,-6.607,-3.942,0,0,0,0,0,0,0,0,0,0,0,0,0,0,0,0,
225,-31.45,-23.27,-26.87,-0.8791,-10.89,-6.759,-3.655,5.006,-8.768,-2.793,-8.498,-3.075,-0.4175,-1.346,-4.65,-4.936,0,0,0,0,0,0,0,0,0,0,0,0,0,0,0,0,
226,-21.58,-13.62,-10.25,0.5744,-2.192,-3.615,6.158,3.109,-4.874,-3.623,-5.841,-5.364,3.518,-2.581,-4.222,-7.001,0,0,0,0,0,0,0,0,0,0,0,0,0,0,0,0,
227,-17.6,-10.67,-8.965,0.1351,1.528,-2.349,5.645,-0.3041,0.9589,-4.396,-3.156,-7.91,5.701,-2.459,-3.287,-7.785,0,0,0,0,0,0,0,0,0,0,0,0,0,0,0,0,
228,-16.95,-13.23,-10.25,-2.392,0.7553,-0.9977,5.309,-0.3765,3.303,-4.175,-1.334,-9.796,6.304,-2.653,-2.583,-8.785,0,0,0,0,0,0,0,0,0,0,0,0,0,0,0,0,
229,-8.311,-9.326,0.8066,-2.137,3.328,-2.607,9.432,0.198,2.271,-5.747,-0.8232,-12.14,4.011,-6.743,-3.959,-12.42,0,0,0,0,0,0,0,0,0,0,0,0,0,0,0,0,
230,-5.883,-9.818,5.009,-2.01,2.202,-9.688,10.42,-1.812,-1.701,-10.72,-0.0745,-14.18,0.0526,-12.17,-3.799,-12.51,0,0,0,0,0,0,0,0,0,0,0,0,0,0,0,0,
231,-13.09,-16.01,-2.307,-4.61,-4.013,-14.16,6.646,-6.285,-5.265,-14.94,-2.795,-16.03,-2.913,-15.28,-3.339,-10.25,0,0,0,0,0,0,0,0,0,0,0,0,0,0,0,0,
232,-16.51,-16.08,-8.31,-6.124,-6.561,-12.97,0.919,-9.9,-7.219,-16.16,-7.184,-15.39,-2.39,-14.55,-2.042,-8.442,0,0,0,0,0,0,0,0,0,0,0,0,0,0,0,0,
233,-14.91,-14.74,-6.957,-5.761,-2.546,-11.3,-1.149,-8.043,-4.697,-12.83,-4.645,-11.31,1.874,-10.54,2.083,-3.799,0,0,0,0,0,0,0,0,0,0,0,0,0,0,0,0,
234,-13.86,-18.89,-3.721,-8.662,-0.1278,-12.7,2.074,-7.115,0.5566,-8.131,-1.621,-12.1,2.744,-10.06,1.451,-2.97,0,0,0,0,0,0,0,0,0,0,0,0,0,0,0,0,
235,-17.32,-24.13,-7.577,-15.48,-4.89,-19.07,3.03,-11.99,-0.5742,-12.04,-4.964,-15.94,-0.7503,-14.23,-3.358,-8.303,0,0,0,0,0,0,0,0,0,0,0,0,0,0,0,0,
236,-23.17,-27.44,-11.74,-21.07,-9.298,-27.24,1.623,-13.53,-4.711,-21.44,-7.185,-15.31,-2.712,-17.32,-5.355,-11.39,0,0,0,0,0,0,0,0,0,0,0,0,0,0,0,0,
237,-24.74,-28.84,-9.757,-24.22,-10.06,-30.94,2.811,-11.78,-6.966,-25.24,-8.295,-17.03,-5.682,-20.03,-8.748,-13.04,0,0,0,0,0,0,0,0,0,0,0,0,0,0,0,0,
238,-24.54,-30.11,-9.058,-26.09,-12.14,-32.25,0.7636,-13.49,-10.94,-25.31,-9.914,-19.88,-8.478,-21.08,-11.34,-13.21,0,0,0,0,0,0,0,0,0,0,0,0,0,0,0,0,
239,-26.56,-33.66,-9.305,-25.62,-14.74,-35.63,-3.168,-13.23,-11.61,-25.37,-6.938,-15.95,-5.844,-17.85,-7.764,-9.657,0,0,0,0,0,0,0,0,0,0,0,0,0,0,0,0,
240,-28.19,-35.57,-10.79,-23.87,-17.59,-36.95,1.019,-9.898,-9.642,-23.56,-5.035,-13.9,-4.152,-16.01,-6.867,-9.473,0,0,0,0,0,0,0,0,0,0,0,0,0,0,0,0,
241,-29.15,-32.93,-17.29,-22.27,-20.12,-32.44,4.669,-10.21,-12.92,-21.44,-7.689,-16.55,-6.0,-16.44,-9.99,-11.94,0,0,0,0,0,0,0,0,0,0,0,0,0,0,0,0,
242,-28.98,-30.77,-19.11,-21.15,-17.6,-27.48,1.163,-12.12,-14.39,-20.92,-7.978,-16.03,-6.08,-15.18,-9.519,-11.68,0,0,0,0,0,0,0,0,0,0,0,0,0,0,0,0,
243,-27.88,-31.1,-15.6,-22.69,-14.06,-26.72,3.457,-10.97,-10.69,-20.38,-7.219,-14.21,-5.611,-12.87,-7.795,-11.69,0,0,0,0,0,0,0,0,0,0,0,0,0,0,0,0,
244,-28.37,-30.88,-16.25,-24.47,-14.05,-26.07,7.954,-7.482,-8.344,-17.13,-6.538,-12.0,-4.523,-9.248,-5.574,-10.14,0,0,0,0,0,0,0,0,0,0,0,0,0,0,0,0,
245,-25.89,-28.45,-14.69,-20.15,-12.79,-21.43,3.676,-4.278,-5.949,-11.82,-3.107,-9.026,-2.044,-6.676,-1.447,-6.139,0,0,0,0,0,0,0,0,0,0,0,0,0,0,0,0,
246,-18.98,-23.43,-8.822,-12.61,-10.55,-16.92,2.211,-3.469,-4.677,-8.883,-2.503,-9.995,-2.929,-9.086,-0.7244,-6.53,0,0,0,0,0,0,0,0,0,0,0,0,0,0,0,0,
247,-17.43,-20.96,-9.294,-11.08,-12.06,-17.88,7.067,-5.381,-7.324,-9.351,-4.856,-12.49,-5.332,-13.12,-2.745,-9.746,0,0,0,0,0,0,0,0,0,0,0,0,0,0,0,0,
248,-22.65,-25.65,-15.25,-16.1,-15.47,-22.4,7.883,-8.742,-9.289,-12.86,-2.467,-12.62,-3.96,-14.89,-1.576,-9.422,0,0,0,0,0,0,0,0,0,0,0,0,0,0,0,0,
249,-24.7,-28.04,-18.1,-17.39,-15.0,-22.98,5.77,-8.943,-7.799,-16.72,2.264,-9.354,0.2782,-10.52,2.681,-3.975,0,0,0,0,0,0,0,0,0,0,0,0,0,0,0,0,
250,-20.08,-20.6,-12.34,-9.802,-7.806,-15.85,3.164,-3.6,-0.9183,-10.59,1.905,-1.541,4.404,-0.1227,4.325,2.21,0,0,0,0,0,0,0,0,0,0,0,0,0,0,0,0,
251,-14.83,-13.55,-2.318,-3.927,-0.3489,-9.045,3.913,0.0124,6.343,1.334,-3.085,0.7615,3.704,2.552,-2.242,-0.8128,0,0,0,0,0,0,0,0,0,0,0,0,0,0,0,0,
252,-13.73,-13.86,-2.741,-5.446,0.2207,-9.88,10.32,-1.311,3.91,1.07,-5.482,-6.545,-0.4243,-4.455,-10.26,-9.164,0,0,0,0,0,0,0,0,0,0,0,0,0,0,0,0,
253,-13.0,-13.1,-9.197,-3.03,-0.5616,-9.46,11.65,-1.37,1.554,-4.655,-2.129,-7.558,1.296,-4.794,-8.165,-7.967,0,0,0,0,0,0,0,0,0,0,0,0,0,0,0,0,
254,-8.13,-5.719,-3.096,3.411,3.072,-1.635,13.88,0.6166,8.011,-1.266,2.541,-0.2575,6.271,-0.015,-1.338,-2.104,0,0,0,0,0,0,0,0,0,0,0,0,0,0,0,0,
255,-4.349,0.6874,7.071,0.6951,4.543,0.5384,24.78,1.436,8.577,1.067,5.764,1.109,5.478,-1.813,0.0467,-3.507,0,0,0,0,0,0,0,0,0,0,0,0,0,0,0,0,
256,-8.793,-4.927,3.49,-8.688,-3.256,-11.35,20.91,-1.435,-0.0056,-5.057,2.913,-4.625,0.6578,-7.269,-4.424,-8.662,0,0,0,0,0,0,0,0,0,0,0,0,0,0,0,0,
257,-19.85,-20.75,-9.076,-15.67,-16.18,-26.24,4.036,-9.103,-7.953,-13.38,-9.51,-11.51,-6.249,-13.81,-12.72,-14.69,0,0,0,0,0,0,0,0,0,0,0,0,0,0,0,0,
258,-29.44,-30.44,-21.05,-19.62,-24.35,-32.42,0.2352,-13.89,-16.62,-21.58,-18.27,-16.17,-14.56,-20.77,-18.9,-22.39,0,0,0,0,0,0,0,0,0,0,0,0,0,0,0,0,
259,-30.88,-27.53,-27.3,-19.03,-25.83,-31.39,-1.623,-12.05,-22.89,-25.5,-14.93,-16.05,-18.04,-22.31,-18.12,-25.26,0,0,0,0,0,0,0,0,0,0,0,0,0,0,0,0,
260,-25.57,-22.45,-22.63,-15.83,-24.64,-29.3,-6.666,-10.58,-20.62,-22.94,-10.65,-12.81,-15.88,-19.0,-14.96,-19.78,0,0,0,0,0,0,0,0,0,0,0,0,0,0,0,0,
261,-21.42,-20.56,-13.82,-16.26,-21.54,-27.24,-1.06,-9.281,-16.97,-19.3,-9.876,-9.11,-13.95,-15.26,-13.42,-13.31,0,0,0,0,0,0,0,0,0,0,0,0,0,0,0,0,
262,-24.01,-21.66,-14.78,-19.63,-20.14,-26.39,-0.6523,-7.736,-16.96,-16.42,-9.172,-7.31,-13.29,-12.02,-12.19,-10.55,0,0,0,0,0,0,0,0,0,0,0,0,0,0,0,0,
263,-27.75,-24.17,-21.17,-21.23,-21.14,-26.72,-7.132,-11.04,-15.82,-14.6,-8.123,-7.756,-9.016,-8.569,-7.725,-5.458,0,0,0,0,0,0,0,0,0,0,0,0,0,0,0,0,
264,-24.25,-20.32,-19.06,-18.16,-18.15,-23.28,-1.614,-13.48,-11.25,-13.52,-5.482,-7.069,-1.82,-4.14,-1.597,1.407,0,0,0,0,0,0,0,0,0,0,0,0,0,0,0,0,
265,-20.92,-16.11,-15.39,-15.24,-16.58,-21.62,2.396,-11.94,-8.52,-12.0,-5.367,-6.787,-0.3146,-2.862,-1.643,0.4582,0,0,0,0,0,0,0,0,0,0,0,0,0,0,0,0,
266,-24.81,-23.02,-18.99,-19.64,-19.86,-27.58,-1.949,-13.52,-10.32,-13.83,-8.238,-8.272,-2.015,-5.306,-3.75,-3.313,0,0,0,0,0,0,0,0,0,0,0,0,0,0,0,0,
267,-24.08,-26.03,-17.41,-22.65,-16.1,-26.86,-2.068,-14.96,-8.243,-15.41,-6.122,-7.395,1.96,-4.284,-0.8203,-1.545,0,0,0,0,0,0,0,0,0,0,0,0,0,0,0,0,
268,-18.32,-16.8,-10.54,-16.85,-10.15,-16.65,-3.063,-11.83,-1.29,-10.85,-2.836,-5.248,4.97,-1.368,-0.8516,-1.216,0,0,0,0,0,0,0,0,0,0,0,0,0,0,0,0,
269,-19.83,-13.51,-10.86,-13.49,-12.01,-13.12,-0.9169,-9.07,-0.0556,-7.92,-2.492,-3.199,3.078,-0.9965,-2.841,-2.776,0,0,0,0,0,0,0,0,0,0,0,0,0,0,0,0,
270,-20.23,-15.87,-10.67,-15.02,-9.947,-14.35,9.955,-6.965,-2.035,-9.029,1.181,-0.1319,3.946,-0.2545,1.38,-0.9097,0,0,0,0,0,0,0,0,0,0,0,0,0,0,0,0,
271,-12.72,-12.35,-4.563,-12.79,-3.848,-13.58,12.05,-4.544,-0.9355,-9.0,4.375,1.314,4.733,-0.3523,4.286,-0.5426,0,0,0,0,0,0,0,0,0,0,0,0,0,0,0,0,
272,-9.082,-11.6,-0.6579,-9.46,-4.69,-15.58,8.084,-3.343,-1.758,-10.31,3.615,3.519,3.237,-0.6154,4.995,0.7566,0,0,0,0,0,0,0,0,0,0,0,0,0,0,0,0,
273,-8.26,-15.02,2.803,-7.89,-4.819,-16.31,13.7,-0.975,-3.075,-10.9,7.167,8.521,7.068,4.749,12.12,8.922,0,0,0,0,0,0,0,0,0,0,0,0,0,0,0,0,
274,-4.182,-11.51,6.434,-5.711,-1.905,-14.42,19.71,1.908,-0.3311,-8.31,13.99,10.66,13.35,10.98,19.66,15.15,0,0,0,0,0,0,0,0,0,0,0,0,0,0,0,0,
275,-4.91,-6.873,4.682,-6.491,-4.239,-16.59,20.49,3.739,1.784,-7.918,15.97,11.41,14.53,12.11,20.73,14.83,0,0,0,0,0,0,0,0,0,0,0,0,0,0,0,0,
276,-8.469,-8.493,1.238,-9.06,-5.946,-15.5,21.9,7.357,1.655,-6.38,14.48,14.71,12.88,12.44,18.65,14.43,0,0,0,0,0,0,0,0,0,0,0,0,0,0,0,0,
277,-4.349,-6.666,-0.2831,-5.689,-4.243,-8.04,20.17,9.21,1.73,-1.238,13.4,15.03,10.59,11.89,13.83,12.36,0,0,0,0,0,0,0,0,0,0,0,0,0,0,0,0,
278,-1.24,-1.871,-2.182,-1.106,-8.055,-9.002,13.93,4.713,-0.3884,-2.672,8.755,9.658,4.945,5.77,5.031,4.813,0,0,0,0,0,0,0,0,0,0,0,0,0,0,0,0,
279,-9.19,-7.77,-2.934,-4.356,-13.57,-19.24,7.763,0.1488,-5.867,-11.14,-2.168,4.801,-1.447,-0.4121,-1.836,-0.241,0,0,0,0,0,0,0,0,0,0,0,0,0,0,0,0,
280,-14.93,-16.51,0.1215,-7.538,-10.97,-22.19,3.197,0.523,-8.894,-14.53,-8.449,4.731,-0.6035,0.2673,-0.1278,3.116,0,0,0,0,0,0,0,0,0,0,0,0,0,0,0,0,
281,-9.39,-12.72,3.742,-3.192,-5.085,-15.93,3.419,1.392,-4.995,-10.33,-4.078,3.787,3.995,0.6089,3.049,5.456,0,0,0,0,0,0,0,0,0,0,0,0,0,0,0,0,
282,-5.977,-7.965,2.969,-2.621,-5.212,-14.34,4.851,-2.624,-0.9962,-8.885,-3.454,-3.872,0.4499,-6.759,-3.276,-1.304,0,0,0,0,0,0,0,0,0,0,0,0,0,0,0,0,
283,-10.25,-13.11,-1.798,-9.882,-10.29,-20.0,-3.502,-10.5,-4.651,-15.72,-11.02,-11.7,-7.618,-14.47,-11.91,-10.24,0,0,0,0,0,0,0,0,0,0,0,0,0,0,0,0,
284,-11.22,-15.51,-5.427,-12.41,-12.24,-22.23,-13.37,-13.82,-9.838,-21.2,-12.31,-12.39,-9.0,-15.04,-11.5,-12.14,0,0,0,0,0,0,0,0,0,0,0,0,0,0,0,0,
285,-6.555,-10.3,-1.972,-8.85,-7.462,-18.82,-6.455,-9.016,-8.556,-17.29,-5.771,-8.179,-4.126,-10.45,-4.174,-6.449,0,0,0,0,0,0,0,0,0,0,0,0,0,0,0,0,
286,-3.228,-7.409,6.018,-7.327,-3.623,-15.82,6.405,-5.568,-4.024,-11.26,-0.3772,-3.977,3.059,-4.474,5.406,0.552,0,0,0,0,0,0,0,0,0,0,0,0,0,0,0,0,
287,-3.231,-8.24,6.322,-7.297,-6.629,-14.03,3.057,-8.225,-1.319,-9.799,1.97,-3.221,8.08,-0.7231,12.33,3.174,0,0,0,0,0,0,0,0,0,0,0,0,0,0,0,0,
288,-3.96,-7.69,1.025,-7.835,-8.165,-13.5,-7.239,-9.143,-1.062,-9.11,0.8391,-3.361,6.623,0.1127,11.98,3.203,0,0,0,0,0,0,0,0,0,0,0,0,0,0,0,0,
289,-3.498,-7.083,2.412,-11.61,-4.121,-15.83,-6.654,-7.095,-1.914,-7.218,-1.616,-2.232,4.502,0.5886,8.807,2.582,0,0,0,0,0,0,0,0,0,0,0,0,0,0,0,0,
290,-4.016,-11.08,2.252,-16.71,-3.898,-18.15,-5.754,-8.793,-1.1,-7.364,-2.507,-6.033,5.669,-0.4008,6.309,-0.636,0,0,0,0,0,0,0,0,0,0,0,0,0,0,0,0,
291,-8.254,-17.35,-5.852,-19.02,-8.202,-18.56,-13.88,-11.79,0.9062,-8.514,-4.349,-11.65,4.479,-2.689,2.597,-3.191,0,0,0,0,0,0,0,0,0,0,0,0,0,0,0,0,
292,-11.42,-17.29,-6.786,-17.61,-8.898,-18.31,-13.69,-9.974,0.3223,-6.894,-3.327,-9.24,2.279,-2.391,1.362,-2.107,0,0,0,0,0,0,0,0,0,0,0,0,0,0,0,0,
293,-7.495,-10.31,0.5662,-14.77,-6.218,-16.28,0.2033,-6.515,-1.523,-5.077,4.899,-4.123,3.658,-0.572,5.65,0.1503,0,0,0,0,0,0,0,0,0,0,0,0,0,0,0,0,
294,-0.2875,-4.847,4.994,-12.06,-1.905,-11.96,9.154,-4.506,-0.8106,-5.724,11.84,-0.691,6.018,2.341,12.17,5.791,0,0,0,0,0,0,0,0,0,0,0,0,0,0,0,0,
295,5.471,-1.502,10.19,-8.442,4.819,-6.253,8.156,-0.765,3.235,-2.98,14.43,6.353,9.235,9.537,18.66,14.75,0,0,0,0,0,0,0,0,0,0,0,0,0,0,0,0,
296,11.28,4.13,16.69,-5.512,9.903,-0.5145,6.361,3.544,9.54,4.641,17.69,12.32,12.66,16.44,22.45,18.58,0,0,0,0,0,0,0,0,0,0,0,0,0,0,0,0,
297,14.2,6.328,16.08,-6.566,11.03,-0.3048,7.622,4.375,11.76,7.843,17.86,11.49,11.15,17.08,20.95,16.62,0,0,0,0,0,0,0,0,0,0,0,0,0,0,0,0,
298,10.74,2.128,11.6,-10.03,9.727,-6.671,9.94,2.09,6.779,3.599,13.2,6.909,7.144,12.91,15.2,11.57,0,0,0,0,0,0,0,0,0,0,0,0,0,0,0,0,
299,6.25,-0.5766,9.973,-11.81,5.055,-12.32,4.989,-2.754,3.543,-2.413,8.672,-1.146,4.265,4.907,5.583,0.1712,0,0,0,0,0,0,0,0,0,0,0,0,0,0,0,0,
300,2.624,-2.95,10.23,-10.35,-0.1667,-16.01,-4.28,-7.074,3.454,-7.689,4.513,-7.579,0.9201,-2.548,-3.23,-8.931,0,0,0,0,0,0,0,0,0,0,0,0,0,0,0,0,
301,-1.896,-9.371,11.75,-9.439,-0.136,-19.87,-3.318,-6.705,0.4137,-9.963,1.605,-4.862,0.5815,-2.191,-4.27,-5.496,0,0,0,0,0,0,0,0,0,0,0,0,0,0,0,0,
302,-2.55,-11.1,13.0,-12.98,2.013,-19.81,1.097,-6.458,0.3271,-7.661,1.594,-1.737,2.739,0.4569,-3.673,-2.697,0,0,0,0,0,0,0,0,0,0,0,0,0,0,0,0,
303,1.794,-5.095,11.72,-14.03,1.73,-15.22,-1.019,-8.348,4.035,-5.292,1.707,-4.245,0.6545,-0.706,-7.207,-8.096,0,0,0,0,0,0,0,0,0,0,0,0,0,0,0,0,
304,5.397,0.0359,11.94,-6.781,1.999,-9.983,0.5086,-6.03,2.03,-3.791,1.931,-2.223,-1.837,0.5282,-6.102,-7.38,0,0,0,0,0,0,0,0,0,0,0,0,0,0,0,0,
305,6.456,2.178,15.3,0.2474,2.896,-5.238,5.661,-0.8207,-2.321,-0.6544,4.033,5.157,-0.2174,4.771,1.564,0.7214,0,0,0,0,0,0,0,0,0,0,0,0,0,0,0,0,
306,7.437,2.993,16.64,2.536,1.697,-3.743,4.629,2.573,-2.011,0.8506,7.099,9.757,1.454,6.918,6.277,4.136,0,0,0,0,0,0,0,0,0,0,0,0,0,0,0,0,
307,8.19,0.5266,15.14,2.918,0.0706,-7.397,-1.369,2.675,0.0839,-0.2494,8.041,10.48,1.584,6.571,5.198,2.08,0,0,0,0,0,0,0,0,0,0,0,0,0,0,0,0,
308,4.474,-4.392,12.79,-1.037,-2.025,-10.99,-7.307,-1.462,-0.1774,-1.477,4.084,7.27,-0.4491,3.044,2.63,-0.2743,0,0,0,0,0,0,0,0,0,0,0,0,0,0,0,0,
309,-1.9,-6.912,7.571,-5.689,-5.833,-11.11,-9.853,-3.826,-3.904,-4.281,0.1695,3.324,-3.396,0.0478,2.547,0.2451,0,0,0,0,0,0,0,0,0,0,0,0,0,0,0,0,
310,-5.299,-7.236,-0.9697,-5.219,-9.755,-12.65,-11.54,-2.619,-6.337,-7.618,1.625,3.064,-2.028,2.043,4.747,2.9,0,0,0,0,0,0,0,0,0,0,0,0,0,0,0,0,
311,-8.883,-10.42,-7.062,-4.836,-11.84,-16.32,-11.18,-3.855,-3.655,-7.805,6.296,1.973,2.896,3.818,7.082,3.771,0,0,0,0,0,0,0,0,0,0,0,0,0,0,0,0,
312,-10.16,-12.76,-4.374,-4.969,-8.739,-14.48,-1.732,-3.527,0.2498,-4.81,12.3,-0.0117,7.47,3.67,9.843,3.972,0,0,0,0,0,0,0,0,0,0,0,0,0,0,0,0,
313,-2.647,-9.485,2.764,-3.778,-2.637,-10.15,3.239,-2.701,4.277,-1.525,13.27,0.7457,8.698,3.207,9.93,3.568,0,0,0,0,0,0,0,0,0,0,0,0,0,0,0,0,
314,1.239,-8.922,4.334,-7.963,-1.732,-13.65,-4.963,-9.564,6.452,-3.823,5.451,-1.793,4.071,-1.806,4.671,-1.067,0,0,0,0,0,0,0,0,0,0,0,0,0,0,0,0,
315,-3.517,-12.98,3.176,-13.81,-3.963,-20.13,-6.577,-13.33,1.931,-11.61,1.37,-6.285,-0.8891,-7.066,0.9104,-4.721,0,0,0,0,0,0,0,0,0,0,0,0,0,0,0,0,
316,-2.447,-12.62,7.217,-12.32,-3.147,-21.54,-2.083,-7.928,-2.098,-14.82,4.518,-4.508,-0.5474,-4.908,2.834,-1.639,0,0,0,0,0,0,0,0,0,0,0,0,0,0,0,0,
317,2.284,-8.615,11.84,-8.199,-1.081,-19.85,-5.627,-6.193,1.135,-11.31,4.722,-2.503,1.712,-1.317,4.538,1.732,0,0,0,0,0,0,0,0,0,0,0,0,0,0,0,0,
318,2.001,-5.353,10.73,-5.548,0.8042,-14.79,-6.969,-7.55,4.29,-8.46,3.095,-4.747,3.113,-1.532,1.829,-0.7968,0,0,0,0,0,0,0,0,0,0,0,0,0,0,0,0,
319,2.764,-1.96,7.612,-2.116,1.244,-7.61,-2.171,-5.43,4.233,-7.004,2.441,-4.569,3.403,-2.147,-1.676,-5.008,0,0,0,0,0,0,0,0,0,0,0,0,0,0,0,0,
320,5.654,1.678,7.306,0.2129,0.2504,-4.171,-1.687,-4.596,5.525,-4.886,0.7969,-4.315,2.245,-3.387,-1.968,-6.379,0,0,0,0,0,0,0,0,0,0,0,0,0,0,0,0,
321,6.597,4.24,7.578,0.2279,2.027,-5.006,-6.185,-5.39,6.073,-5.215,-0.0213,-7.263,0.6983,-6.057,-1.663,-7.19,0,0,0,0,0,0,0,0,0,0,0,0,0,0,0,0,
322,6.436,2.543,6.37,1.563,2.909,-7.52,-10.3,-5.616,2.234,-7.665,-0.8888,-5.708,-0.7651,-5.869,-2.966,-8.013,0,0,0,0,0,0,0,0,0,0,0,0,0,0,0,0,
323,6.008,-0.4525,7.818,6.074,-0.1067,-7.09,-10.39,-7.164,-1.318,-6.358,-2.244,-1.563,-1.13,-3.059,-4.171,-7.499,0,0,0,0,0,0,0,0,0,0,0,0,0,0,0,0,
324,6.745,2.608,10.09,9.683,0.0082,-2.396,-12.46,-7.24,-0.3921,-1.848,-3.347,-3.329,-0.3712,-2.541,-6.781,-8.628,0,0,0,0,0,0,0,0,0,0,0,0,0,0,0,0,
325,7.035,5.987,7.521,9.41,2.028,-1.346,-18.42,-3.6,1.713,0.26,-6.207,-5.039,-0.3138,-2.668,-9.475,-9.383,0,0,0,0,0,0,0,0,0,0,0,0,0,0,0,0,
326,6.013,4.894,7.051,9.024,1.859,-2.878,-14.81,-1.019,3.618,1.017,-6.017,-2.769,0.9416,-0.6518,-7.643,-5.875,0,0,0,0,0,0,0,0,0,0,0,0,0,0,0,0,
327,9.704,6.984,12.65,9.669,4.821,1.739,-5.761,-1.998,6.707,2.158,0.3245,-2.669,4.611,0.5781,-4.211,-3.623,0,0,0,0,0,0,0,0,0,0,0,0,0,0,0,0,
328,15.22,10.96,16.72,9.334,9.205,6.792,-4.494,-2.117,9.232,1.992,5.795,-1.147,7.218,1.912,-1.455,-3.533,0,0,0,0,0,0,0,0,0,0,0,0,0,0,0,0,
329,15.17,10.32,20.39,10.33,8.844,5.975,-4.258,0.9171,11.19,3.482,7.095,4.247,7.252,4.824,2.318,-1.048,0,0,0,0,0,0,0,0,0,0,0,0,0,0,0,0,
330,14.42,8.249,24.58,11.68,7.393,6.199,-2.694,3.161,11.97,6.717,6.878,5.605,7.254,5.492,4.556,1.366,0,0,0,0,0,0,0,0,0,0,0,0,0,0,0,0,
331,15.85,9.308,22.17,11.01,7.946,8.938,-0.4769,4.001,10.3,6.844,9.395,5.219,10.34,5.781,5.399,3.885,0,0,0,0,0,0,0,0,0,0,0,0,0,0,0,0,
332,17.46,14.79,17.96,13.79,8.928,9.194,7.009,7.077,12.28,6.873,14.71,8.207,15.3,8.531,8.213,7.357,0,0,0,0,0,0,0,0,0,0,0,0,0,0,0,0,
333,22.56,22.15,20.43,20.72,12.09,10.94,10.14,10.7,18.56,10.23,16.08,9.999,18.25,10.07,11.02,7.082,0,0,0,0,0,0,0,0,0,0,0,0,0,0,0,0,
334,28.4,26.24,27.14,23.49,17.59,16.48,6.702,10.84,21.47,13.13,15.31,11.05,18.8,10.82,9.661,4.897,0,0,0,0,0,0,0,0,0,0,0,0,0,0,0,0,
335,28.55,25.37,33.13,19.47,19.83,15.89,6.473,8.436,22.5,13.16,16.81,12.24,16.36,11.38,3.768,3.099,0,0,0,0,0,0,0,0,0,0,0,0,0,0,0,0,
336,26.08,20.26,33.73,13.67,17.35,7.654,8.327,7.433,23.07,9.806,15.38,10.05,12.09,9.298,-0.04,0.5922,0,0,0,0,0,0,0,0,0,0,0,0,0,0,0,0,
337,25.35,15.52,30.65,12.93,16.36,4.505,13.32,9.597,19.58,6.232,14.39,9.973,12.39,9.172,3.086,2.799,0,0,0,0,0,0,0,0,0,0,0,0,0,0,0,0,
338,25.57,16.41,29.35,19.25,17.7,8.489,14.96,11.26,17.83,7.776,18.23,12.93,15.39,12.08,5.673,7.367,0,0,0,0,0,0,0,0,0,0,0,0,0,0,0,0,
339,24.21,18.74,24.96,22.65,14.89,10.46,4.031,9.951,19.58,9.901,17.31,10.33,14.94,12.46,4.066,6.143,0,0,0,0,0,0,0,0,0,0,0,0,0,0,0,0,
340,20.4,18.07,18.89,16.02,10.45,10.07,1.771,10.47,17.46,8.913,13.34,8.877,16.84,14.74,6.518,6.926,0,0,0,0,0,0,0,0,0,0,0,0,0,0,0,0,
341,17.69,17.26,21.6,9.813,11.75,11.13,11.62,14.24,15.77,11.74,14.78,14.69,22.85,20.55,10.74,12.4,0,0,0,0,0,0,0,0,0,0,0,0,0,0,0,0,
342,18.23,17.28,26.37,11.54,13.91,10.65,7.302,15.67,19.11,15.68,13.9,14.05,21.92,18.7,6.504,9.685,0,0,0,0,0,0,0,0,0,0,0,0,0,0,0,0,
343,20.49,17.16,26.6,13.48,12.21,6.787,2.276,14.25,19.62,11.94,10.7,7.351,15.53,11.46,1.191,3.429,0,0,0,0,0,0,0,0,0,0,0,0,0,0,0,0,
344,23.96,16.37,29.96,11.93,13.19,4.257,13.07,12.74,18.27,7.239,15.18,8.388,15.79,10.66,5.153,5.687,0,0,0,0,0,0,0,0,0,0,0,0,0,0,0,0,
345,25.75,14.5,31.84,10.93,16.42,4.761,14.48,9.787,21.01,7.17,18.96,9.74,18.7,10.63,7.851,7.353,0,0,0,0,0,0,0,0,0,0,0,0,0,0,0,0,
346,24.56,16.29,27.36,12.37,15.52,6.168,5.644,7.691,21.71,6.032,14.65,6.755,16.23,7.175,3.882,4.442,0,0,0,0,0,0,0,0,0,0,0,0,0,0,0,0,
347,26.62,24.56,27.11,16.82,15.23,11.17,9.173,11.4,19.28,6.841,13.64,12.26,15.87,11.09,6.473,7.772,0,0,0,0,0,0,0,0,0,0,0,0,0,0,0,0,
348,31.31,30.79,28.55,20.13,17.98,17.61,15.51,16.26,20.08,12.54,17.33,20.18,20.16,18.79,13.24,12.78,0,0,0,0,0,0,0,0,0,0,0,0,0,0,0,0,
349,30.13,28.17,23.91,17.7,17.25,15.9,11.41,15.82,20.97,12.96,16.02,17.13,20.36,18.0,10.72,10.19,0,0,0,0,0,0,0,0,0,0,0,0,0,0,0,0,
350,25.89,23.71,24.19,14.98,15.39,9.901,6.206,13.53,20.59,7.03,12.82,11.77,17.55,14.11,6.416,6.649,0,0,0,0,0,0,0,0,0,0,0,0,0,0,0,0,
351,26.41,24.93,31.67,15.02,16.61,10.03,6.646,12.89,22.78,3.762,13.05,9.945,15.92,12.54,8.289,5.842,0,0,0,0,0,0,0,0,0,0,0,0,0,0,0,0,
352,28.84,28.52,33.73,14.73,16.9,13.88,10.76,12.1,23.28,3.524,12.95,6.665,13.45,10.25,8.796,5.072,0,0,0,0,0,0,0,0,0,0,0,0,0,0,0,0,
353,31.34,31.32,33.04,17.82,18.31,18.5,16.45,12.49,21.46,6.266,12.49,6.566,13.95,11.65,9.11,7.471,0,0,0,0,0,0,0,0,0,0,0,0,0,0,0,0,
354,36.87,34.07,37.12,21.91,23.91,23.14,19.97,15.54,24.18,13.02,15.35,12.01,19.32,17.9,14.75,12.05,0,0,0,0,0,0,0,0,0,0,0,0,0,0,0,0,
355,39.39,33.81,39.78,18.07,26.4,21.9,17.57,16.67,29.43,17.06,19.97,13.49,22.48,20.68,19.13,12.55,0,0,0,0,0,0,0,0,0,0,0,0,0,0,0,0,
356,35.87,31.54,37.13,14.69,23.69,17.98,13.1,13.74,31.25,16.34,23.48,9.012,22.74,19.13,18.75,9.867,0,0,0,0,0,0,0,0,0,0,0,0,0,0,0,0,
357,36.13,32.29,33.95,19.71,21.65,18.68,12.78,12.12,29.52,15.53,24.82,6.69,23.99,18.17,19.04,8.532,0,0,0,0,0,0,0,0,0,0,0,0,0,0,0,0,
358,39.55,33.38,32.73,22.23,20.4,19.19,14.28,14.22,27.01,14.34,24.22,8.258,25.42,18.27,21.67,9.742,0,0,0,0,0,0,0,0,0,0,0,0,0,0,0,0,
359,39.09,34.86,33.35,21.15,19.79,18.31,17.0,15.92,27.15,12.58,25.95,9.927,27.64,18.48,25.27,12.69,0,0,0,0,0,0,0,0,0,0,0,0,0,0,0,0,
360,43.47,43.33,36.5,25.42,23.49,22.44,23.06,15.99,30.1,13.09,31.88,12.71,31.36,19.39,29.32,16.34,0,0,0,0,0,0,0,0,0,0,0,0,0,0,0,0,
361,56.78,55.75,43.03,30.95,29.37,27.97,23.47,15.21,33.2,15.33,34.96,15.56,31.98,20.19,30.39,18.79,0,0,0,0,0,0,0,0,0,0,0,0,0,0,0,0,
362,68.75,65.83,52.18,35.67,33.93,31.51,18.88,12.99,34.44,17.37,31.78,14.67,27.57,20.23,27.52,19.61,0,0,0,0,0,0,0,0,0,0,0,0,0,0,0,0,
363,81.15,78.11,64.15,45.39,42.08,40.98,25.33,15.54,34.35,20.84,30.8,17.4,26.98,25.4,28.87,24.87,0,0,0,0,0,0,0,0,0,0,0,0,0,0,0,0,
364,104.3,101.6,83.63,60.96,57.72,58.16,37.16,26.1,40.7,29.25,36.73,27.62,36.3,37.35,35.99,35.54,0,0,0,0,0,0,0,0,0,0,0,0,0,0,0,0,
365,134.8,135.3,109.1,84.25,73.59,75.18,37.74,33.39,53.36,39.19,40.63,31.39,41.59,42.42,35.75,38.29,0,0,0,0,0,0,0,0,0,0,0,0,0,0,0,0,
366,158.6,160.9,128.1,110.8,82.95,88.83,34.06,34.51,56.08,42.4,35.75,25.94,32.72,36.28,26.56,30.02,0,0,0,0,0,0,0,0,0,0,0,0,0,0,0,0,
367,166.6,165.9,135.7,124.8,91.17,100.2,38.16,38.82,49.52,41.54,30.41,25.32,26.31,33.36,23.54,25.63,0,0,0,0,0,0,0,0,0,0,0,0,0,0,0,0,
368,164.6,162.8,138.5,125.8,102.7,109.7,45.4,43.37,51.17,45.41,32.67,30.75,32.03,36.85,27.86,29.31,0,0,0,0,0,0,0,0,0,0,0,0,0,0,0,0,
369,163.4,163.2,139.1,126.2,110.0,116.4,46.14,41.94,57.82,51.74,36.55,32.7,37.16,38.26,28.7,32.6,0,0,0,0,0,0,0,0,0,0,0,0,0,0,0,0,
370,164.8,163.7,139.1,126.0,110.1,117.2,42.45,38.73,59.56,53.12,37.05,28.19,38.44,36.84,27.36,32.46,0,0,0,0,0,0,0,0,0,0,0,0,0,0,0,0,
371,165.7,164.1,139.5,122.9,108.5,110.7,46.4,36.9,60.56,49.19,37.98,23.22,40.43,35.27,29.66,31.18,0,0,0,0,0,0,0,0,0,0,0,0,0,0,0,0,
372,163.8,162.8,134.7,121.5,103.7,101.9,53.99,39.09,60.16,45.74,39.82,26.59,40.7,36.01,34.46,32.25,0,0,0,0,0,0,0,0,0,0,0,0,0,0,0,0,
373,156.9,155.4,125.7,121.3,93.1,95.73,49.16,45.54,56.88,46.97,41.34,33.35,41.26,39.45,38.84,34.7,0,0,0,0,0,0,0,0,0,0,0,0,0,0,0,0,
374,145.5,144.1,118.8,115.9,85.56,91.01,41.7,47.09,56.72,48.53,41.76,32.02,42.48,39.85,38.65,32.52,0,0,0,0,0,0,0,0,0,0,0,0,0,0,0,0,
375,132.9,130.9,111.4,103.8,83.76,85.57,47.75,42.7,55.82,45.64,37.25,27.58,38.21,36.19,33.22,27.4,0,0,0,0,0,0,0,0,0,0,0,0,0,0,0,0,
376,123.4,118.4,102.2,91.67,79.58,80.01,50.13,40.94,49.71,42.3,31.98,26.6,32.43,33.98,29.93,26.24,0,0,0,0,0,0,0,0,0,0,0,0,0,0,0,0,
377,115.4,109.0,94.03,81.51,71.59,72.51,37.21,38.55,45.56,40.04,31.75,23.92,30.06,32.35,29.85,26.22,0,0,0,0,0,0,0,0,0,0,0,0,0,0,0,0,
378,101.5,95.26,82.71,68.04,63.46,61.14,31.27,30.31,42.74,33.97,28.81,19.23,26.33,27.6,25.76,21.22,0,0,0,0,0,0,0,0,0,0,0,0,0,0,0,0,
379,85.4,79.72,69.35,55.46,56.86,52.05,36.08,24.09,36.35,26.32,20.47,16.33,21.92,22.02,19.41,14.19,0,0,0,0,0,0,0,0,0,0,0,0,0,0,0,0,
380,75.54,72.12,61.45,50.43,51.74,48.75,29.26,23.58,31.56,22.94,14.75,14.49,19.44,17.83,15.65,9.612,0,0,0,0,0,0,0,0,0,0,0,0,0,0,0,0,
381,64.54,60.84,53.88,44.38,43.77,43.29,15.68,22.05,28.64,20.75,12.64,13.71,15.46,13.35,10.56,6.043,0,0,0,0,0,0,0,0,0,0,0,0,0,0,0,0,
382,49.06,42.36,43.39,33.54,34.08,34.23,13.93,18.29,23.61,16.86,11.42,13.87,11.62,10.48,4.01,3.757,0,0,0,0,0,0,0,0,0,0,0,0,0,0,0,0,
383,39.39,33.63,37.5,27.89,30.36,30.11,16.54,16.52,20.57,15.59,8.569,12.78,9.498,11.31,-0.0326,3.785,0,0,0,0,0,0,0,0,0,0,0,0,0,0,0,0,
384,33.21,28.94,32.6,25.02,28.04,28.89,13.86,15.66,19.75,16.23,4.298,10.55,5.767,10.22,-3.023,2.275,0,0,0,0,0,0,0,0,0,0,0,0,0,0,0,0,
385,22.87,15.95,23.07,16.8,20.25,23.74,10.86,11.98,17.35,13.28,6.981,9.404,4.598,6.125,-1.833,1.136,0,0,0,0,0,0,0,0,0,0,0,0,0,0,0,0,
386,13.45,6.464,15.53,10.47,13.87,19.03,8.786,7.601,15.8,8.994,14.14,9.4,9.515,5.968,6.05,5.416,0,0,0,0,0,0,0,0,0,0,0,0,0,0,0,0,
387,7.138,3.517,11.95,9.363,12.8,17.39,8.297,7.384,15.41,7.978,13.81,7.792,13.08,7.702,10.53,8.038,0,0,0,0,0,0,0,0,0,0,0,0,0,0,0,0,
388,1.412,-2.405,11.6,5.696,13.71,14.79,12.07,8.671,14.45,8.919,11.19,5.018,12.58,6.488,9.017,3.982,0,0,0,0,0,0,0,0,0,0,0,0,0,0,0,0,
389,-0.5977,-6.809,15.15,1.784,16.01,13.89,13.49,7.173,15.3,10.3,13.11,5.017,13.13,7.199,10.36,2.178,0,0,0,0,0,0,0,0,0,0,0,0,0,0,0,0,
390,0.7429,-6.214,14.42,3.15,17.28,16.82,10.35,7.32,17.22,12.79,13.33,6.296,14.56,10.53,13.18,5.425,0,0,0,0,0,0,0,0,0,0,0,0,0,0,0,0,
391,1.318,-4.865,8.831,6.252,17.73,19.5,12.57,10.36,18.16,15.54,12.52,5.862,15.12,11.31,13.12,7.109,0,0,0,0,0,0,0,0,0,0,0,0,0,0,0,0,
392,0.6212,-2.478,8.409,8.581,21.31,22.84,18.02,10.29,20.84,17.27,14.08,6.908,16.99,12.26,13.54,7.966,0,0,0,0,0,0,0,0,0,0,0,0,0,0,0,0,
393,-2.57,-3.274,10.46,7.882,22.96,25.0,15.41,8.432,24.0,18.59,13.85,9.147,18.84,15.22,13.62,9.454,0,0,0,0,0,0,0,0,0,0,0,0,0,0,0,0,
394,-7.584,-11.76,9.408,2.087,18.85,18.44,10.05,8.79,22.37,19.16,11.58,7.451,16.85,14.55,9.947,5.814,0,0,0,0,0,0,0,0,0,0,0,0,0,0,0,0,
395,-10.3,-19.33,7.466,-2.626,15.53,9.749,9.031,9.846,18.71,17.4,9.101,4.122,13.86,11.59,4.54,-0.9521,0,0,0,0,0,0,0,0,0,0,0,0,0,0,0,0,
396,-12.03,-20.25,3.242,-3.28,13.41,9.594,7.303,11.1,18.59,15.93,6.135,3.58,13.58,12.01,-0.3704,-3.641,0,0,0,0,0,0,0,0,0,0,0,0,0,0,0,0,
397,-14.92,-19.98,-0.7767,-3.57,9.611,12.12,6.628,11.38,18.49,17.56,4.347,3.467,11.97,11.32,-4.953,-6.522,0,0,0,0,0,0,0,0,0,0,0,0,0,0,0,0,
398,-16.46,-20.14,0.6693,-2.446,8.712,11.47,8.166,9.814,15.11,18.45,2.897,3.096,7.226,6.729,-8.735,-11.59,0,0,0,0,0,0,0,0,0,0,0,0,0,0,0,0,
399,-18.68,-20.03,-0.1516,-1.766,9.07,10.92,4.206,9.617,13.09,16.59,0.957,3.83,5.122,5.821,-9.009,-10.32,0,0,0,0,0,0,0,0,0,0,0,0,0,0,0,0,
400,-24.72,-24.57,-8.011,-5.936,5.178,9.439,0.7852,8.63,13.21,15.45,1.508,2.124,6.915,8.944,-4.353,-4.066,0,0,0,0,0,0,0,0,0,0,0,0,0,0,0,0,
401,-29.58,-32.91,-13.07,-10.02,1.866,4.971,5.395,4.046,11.45,15.07,3.002,-0.9971,8.105,9.361,0.449,-0.2599,0,0,0,0,0,0,0,0,0,0,0,0,0,0,0,0,
402,-31.9,-37.11,-14.25,-11.62,0.0549,0.1574,6.606,1.343,8.056,12.68,1.889,0.3577,6.824,7.5,0.9082,1.062,0,0,0,0,0,0,0,0,0,0,0,0,0,0,0,0,
403,-37.48,-38.87,-20.2,-14.01,-6.713,-3.842,0.2187,0.7141,4.072,7.89,0.122,0.5681,2.935,3.392,-0.5085,-1.741,0,0,0,0,0,0,0,0,0,0,0,0,0,0,0,0,
404,-44.14,-43.82,-25.89,-14.72,-13.59,-7.235,-3.27,-1.788,-0.8243,2.145,-0.1678,-5.188,-1.244,-3.447,-0.451,-6.809,0,0,0,0,0,0,0,0,0,0,0,0,0,0,0,0,
405,-46.46,-46.18,-24.3,-14.4,-13.99,-8.441,-1.355,-1.762,-3.984,-0.5296,1.32,-4.583,-0.1274,-3.89,1.833,-4.518,0,0,0,0,0,0,0,0,0,0,0,0,0,0,0,0,
406,-47.02,-42.26,-24.54,-16.45,-13.24,-6.927,1.316,0.9514,-2.324,2.352,4.599,3.066,4.547,2.691,4.36,1.37,0,0,0,0,0,0,0,0,0,0,0,0,0,0,0,0,
407,-47.15,-40.67,-28.51,-17.63,-13.66,-6.995,2.631,-0.7108,1.342,4.496,5.72,-0.1551,3.851,1.92,1.712,-1.813,0,0,0,0,0,0,0,0,0,0,0,0,0,0,0,0,
408,-45.09,-44.26,-24.58,-18.48,-11.16,-11.04,2.942,-4.384,0.3794,-0.2522,1.719,-8.907,-1.553,-5.412,-5.369,-9.065,0,0,0,0,0,0,0,0,0,0,0,0,0,0,0,0,
409,-41.27,-44.06,-15.87,-19.23,-6.147,-10.73,4.729,-3.987,-3.059,-4.738,-1.034,-4.968,-2.304,-4.933,-7.476,-7.07,0,0,0,0,0,0,0,0,0,0,0,0,0,0,0,0,
410,-35.59,-37.38,-13.64,-14.21,-1.532,-2.889,9.515,-1.779,-0.0768,-1.137,2.303,0.3439,1.458,0.2538,-4.445,-0.6135,0,0,0,0,0,0,0,0,0,0,0,0,0,0,0,0,
411,-33.16,-34.4,-17.05,-11.26,-1.731,-0.118,12.17,-1.283,5.091,3.233,3.46,-5.546,1.485,-0.8781,-7.12,-2.572,0,0,0,0,0,0,0,0,0,0,0,0,0,0,0,0,
412,-39.54,-39.89,-23.28,-18.63,-8.11,-5.144,5.011,-2.541,2.252,1.909,-1.665,-7.905,-1.496,-3.575,-13.9,-7.638,0,0,0,0,0,0,0,0,0,0,0,0,0,0,0,0,
413,-45.08,-43.61,-29.09,-23.92,-10.97,-7.117,-4.577,-5.008,-1.921,0.6436,-2.641,-2.041,-0.7318,-1.541,-12.83,-5.303,0,0,0,0,0,0,0,0,0,0,0,0,0,0,0,0,
414,-42.38,-41.86,-27.03,-23.18,-6.997,-8.074,-0.2748,-8.355,0.5803,-0.1796,1.345,-2.374,0.4368,-1.905,-7.868,-3.102,0,0,0,0,0,0,0,0,0,0,0,0,0,0,0,0,
415,-40.14,-42.95,-18.94,-25.26,-5.867,-12.92,10.73,-11.61,0.6629,-5.577,-0.0363,-8.809,-3.67,-8.123,-9.239,-6.336,0,0,0,0,0,0,0,0,0,0,0,0,0,0,0,0,
416,-39.83,-43.54,-14.87,-24.48,-6.521,-13.33,10.92,-11.97,-3.928,-9.831,-2.548,-11.21,-6.168,-11.08,-10.5,-5.85,0,0,0,0,0,0,0,0,0,0,0,0,0,0,0,0,
417,-37.22,-38.74,-18.29,-18.98,-5.008,-9.32,7.546,-9.62,-1.83,-7.783,0.8723,-10.81,-3.059,-8.456,-6.406,-2.973,0,0,0,0,0,0,0,0,0,0,0,0,0,0,0,0,
418,-38.91,-39.45,-23.57,-19.6,-9.343,-10.38,10.11,-9.523,2.181,-6.448,3.066,-11.82,-2.89,-8.208,-4.77,-5.515,0,0,0,0,0,0,0,0,0,0,0,0,0,0,0,0,
419,-45.01,-45.59,-26.71,-23.85,-16.77,-14.09,8.995,-12.03,-3.632,-9.598,1.035,-12.34,-7.037,-10.73,-7.037,-8.144,0,0,0,0,0,0,0,0,0,0,0,0,0,0,0,0,
420,-47.7,-46.37,-32.91,-26.25,-17.66,-16.35,1.598,-12.93,-10.55,-13.18,-1.027,-11.5,-9.416,-12.38,-8.959,-7.833,0,0,0,0,0,0,0,0,0,0,0,0,0,0,0,0,
421,-48.8,-46.61,-40.57,-29.39,-16.08,-19.16,-1.164,-12.18,-10.04,-15.55,-2.377,-11.11,-10.1,-14.4,-11.31,-9.796,0,0,0,0,0,0,0,0,0,0,0,0,0,0,0,0,
422,-47.66,-48.4,-37.28,-29.5,-13.46,-17.93,3.876,-12.55,-7.652,-15.08,-1.771,-11.73,-9.732,-15.57,-14.38,-12.36,0,0,0,0,0,0,0,0,0,0,0,0,0,0,0,0,
423,-40.67,-44.69,-28.61,-26.56,-8.428,-13.0,8.15,-14.65,-5.355,-11.68,-1.52,-13.48,-9.198,-15.05,-17.79,-13.49,0,0,0,0,0,0,0,0,0,0,0,0,0,0,0,0,
424,-36.8,-41.08,-29.06,-26.94,-9.189,-14.78,6.396,-15.49,-4.373,-11.94,-5.23,-16.31,-11.68,-16.7,-21.43,-16.65,0,0,0,0,0,0,0,0,0,0,0,0,0,0,0,0,
425,-41.57,-42.78,-32.63,-28.62,-16.21,-21.39,4.711,-13.52,-7.983,-16.9,-8.223,-18.39,-15.15,-20.61,-23.2,-20.61,0,0,0,0,0,0,0,0,0,0,0,0,0,0,0,0,
426,-46.91,-44.75,-33.7,-30.35,-21.03,-22.83,4.901,-12.75,-11.69,-20.2,-9.233,-18.64,-16.31,-23.22,-23.21,-22.33,0,0,0,0,0,0,0,0,0,0,0,0,0,0,0,0,
427,-46.4,-44.69,-36.75,-32.12,-20.26,-19.38,1.424,-13.73,-10.5,-20.28,-10.14,-18.16,-14.91,-21.79,-22.88,-22.43,0,0,0,0,0,0,0,0,0,0,0,0,0,0,0,0,
428,-41.52,-43.71,-37.2,-30.74,-14.29,-16.5,-1.288,-13.15,-5.886,-17.52,-7.148,-17.44,-12.69,-17.54,-22.81,-21.54,0,0,0,0,0,0,0,0,0,0,0,0,0,0,0,0,
429,-39.6,-45.76,-33.99,-31.68,-9.937,-17.47,0.831,-13.66,-3.267,-13.24,-4.004,-16.28,-12.87,-15.86,-21.89,-20.14,0,0,0,0,0,0,0,0,0,0,0,0,0,0,0,0,
430,-43.32,-49.88,-33.89,-36.11,-12.44,-19.69,3.915,-16.6,-5.539,-11.92,-4.647,-14.95,-10.9,-15.07,-14.91,-16.6,0,0,0,0,0,0,0,0,0,0,0,0,0,0,0,0,
431,-45.85,-48.13,-35.64,-33.54,-14.83,-17.17,8.75,-15.59,-5.488,-11.69,0.4192,-11.82,-1.387,-8.673,-2.226,-7.665,0,0,0,0,0,0,0,0,0,0,0,0,0,0,0,0,
432,-43.91,-42.85,-35.17,-24.34,-12.93,-10.75,13.04,-7.591,1.125,-7.38,13.23,-4.833,9.25,0.8126,9.487,4.403,0,0,0,0,0,0,0,0,0,0,0,0,0,0,0,0,
433,-38.24,-37.96,-28.46,-16.29,-8.789,-4.726,16.79,0.6434,8.368,-0.5916,24.78,2.751,17.43,8.479,19.81,14.03,0,0,0,0,0,0,0,0,0,0,0,0,0,0,0,0,
434,-33.45,-31.85,-20.04,-13.14,-4.907,-3.055,23.95,0.3343,14.19,4.362,28.77,4.449,21.06,10.88,24.43,15.88,0,0,0,0,0,0,0,0,0,0,0,0,0,0,0,0,
435,-40.39,-34.06,-28.52,-18.23,-9.917,-9.993,18.14,-7.22,13.56,2.687,18.81,-1.191,10.13,2.414,13.17,5.905,0,0,0,0,0,0,0,0,0,0,0,0,0,0,0,0,
436,-53.61,-46.73,-48.24,-26.87,-22.19,-19.18,-3.008,-13.03,-0.516,-6.325,0.2164,-9.393,-8.768,-11.35,-5.086,-7.788,0,0,0,0,0,0,0,0,0,0,0,0,0,0,0,0,
437,-54.66,-51.76,-51.13,-30.16,-23.32,-19.57,-9.443,-14.34,-13.0,-13.11,-9.745,-15.03,-17.42,-17.91,-13.88,-12.71,0,0,0,0,0,0,0,0,0,0,0,0,0,0,0,0,
438,-46.79,-45.64,-41.99,-30.14,-14.67,-16.02,-2.519,-14.36,-10.21,-12.81,-11.88,-18.69,-19.87,-20.29,-17.94,-14.37,0,0,0,0,0,0,0,0,0,0,0,0,0,0,0,0,
439,-46.23,-44.24,-41.75,-33.14,-16.81,-19.48,-4.528,-15.3,-8.778,-14.27,-16.23,-22.77,-24.61,-24.53,-23.62,-20.1,0,0,0,0,0,0,0,0,0,0,0,0,0,0,0,0,
440,-51.26,-48.55,-43.16,-35.86,-24.78,-23.84,-8.528,-16.27,-15.64,-18.93,-17.14,-22.76,-22.59,-22.62,-21.93,-20.45,0,0,0,0,0,0,0,0,0,0,0,0,0,0,0,0,
441,-49.65,-46.09,-37.66,-30.76,-20.83,-18.37,-7.429,-13.28,-13.29,-16.05,-11.72,-16.46,-12.76,-13.75,-14.03,-14.89,0,0,0,0,0,0,0,0,0,0,0,0,0,0,0,0,
442,-43.87,-40.71,-35.23,-23.82,-13.91,-11.68,-2.783,-8.011,-5.143,-7.659,-8.139,-12.6,-7.48,-9.747,-12.89,-16.0,0,0,0,0,0,0,0,0,0,0,0,0,0,0,0,0,
443,-44.57,-41.63,-37.11,-24.88,-14.68,-12.99,6.202,-7.4,-4.957,-5.069,-6.911,-15.16,-7.543,-11.17,-16.27,-20.66,0,0,0,0,0,0,0,0,0,0,0,0,0,0,0,0,
444,-48.54,-41.67,-37.36,-27.41,-15.58,-14.93,6.206,-10.47,-4.67,-6.186,-5.918,-18.68,-7.418,-12.9,-15.21,-20.04,0,0,0,0,0,0,0,0,0,0,0,0,0,0,0,0,
445,-49.18,-40.97,-39.73,-28.16,-18.5,-17.81,-4.199,-13.05,-4.654,-8.096,-7.861,-20.75,-9.968,-16.59,-12.53,-18.14,0,0,0,0,0,0,0,0,0,0,0,0,0,0,0,0,
446,-47.35,-45.81,-41.03,-33.41,-25.89,-24.88,-6.145,-15.39,-13.48,-14.11,-9.599,-20.37,-14.25,-17.64,-10.71,-16.73,0,0,0,0,0,0,0,0,0,0,0,0,0,0,0,0,
447,-42.46,-44.93,-34.71,-37.21,-27.09,-25.77,-1.14,-16.7,-19.32,-17.36,-6.81,-17.01,-14.05,-12.71,-8.088,-14.34,0,0,0,0,0,0,0,0,0,0,0,0,0,0,0,0,
448,-38.72,-39.31,-32.41,-35.83,-24.51,-21.94,-1.54,-16.0,-18.6,-14.56,-3.778,-13.82,-11.44,-9.969,-7.394,-14.09,0,0,0,0,0,0,0,0,0,0,0,0,0,0,0,0,
449,-40.26,-41.91,-37.92,-34.02,-25.29,-21.16,-6.216,-13.57,-19.54,-12.99,-4.658,-11.74,-12.23,-10.67,-9.243,-15.05,0,0,0,0,0,0,0,0,0,0,0,0,0,0,0,0,
450,-42.16,-43.24,-39.8,-29.5,-25.87,-19.04,-10.1,-10.61,-18.61,-11.84,-8.473,-12.08,-19.01,-12.67,-12.36,-16.25,0,0,0,0,0,0,0,0,0,0,0,0,0,0,0,0,
451,-46.74,-40.24,-44.05,-27.84,-29.89,-21.04,-9.989,-10.58,-21.56,-12.66,-12.8,-16.3,-28.14,-18.62,-17.36,-18.59,0,0,0,0,0,0,0,0,0,0,0,0,0,0,0,0,
452,-53.81,-43.89,-53.47,-35.08,-36.21,-29.68,-8.539,-12.74,-29.97,-19.28,-13.92,-17.49,-28.35,-20.86,-19.27,-16.59,0,0,0,0,0,0,0,0,0,0,0,0,0,0,0,0,
453,-53.43,-46.98,-52.93,-39.04,-34.62,-30.25,-7.817,-13.03,-26.09,-20.84,-11.21,-13.04,-19.37,-15.99,-15.32,-11.21,0,0,0,0,0,0,0,0,0,0,0,0,0,0,0,0,
454,-50.93,-46.13,-47.89,-37.62,-32.61,-26.69,-6.879,-12.15,-17.93,-16.36,-10.98,-11.56,-15.01,-15.5,-13.58,-10.81,0,0,0,0,0,0,0,0,0,0,0,0,0,0,0,0,
455,-52.22,-49.21,-50.4,-39.12,-36.6,-30.07,-13.76,-11.2,-22.47,-17.75,-17.35,-14.76,-17.53,-18.02,-16.93,-12.57,0,0,0,0,0,0,0,0,0,0,0,0,0,0,0,0,
456,-48.38,-48.76,-49.58,-37.11,-35.39,-30.37,-20.98,-10.11,-25.91,-18.87,-23.62,-16.27,-19.7,-15.38,-18.93,-11.75,0,0,0,0,0,0,0,0,0,0,0,0,0,0,0,0,
457,-42.6,-41.8,-43.09,-30.94,-30.52,-26.44,-11.28,-11.87,-23.9,-13.93,-22.64,-15.65,-21.79,-14.14,-18.88,-12.28,0,0,0,0,0,0,0,0,0,0,0,0,0,0,0,0,
458,-44.18,-40.71,-45.19,-31.1,-32.82,-28.57,-5.771,-16.85,-27.86,-14.3,-20.81,-17.22,-25.89,-18.67,-20.84,-15.61,0,0,0,0,0,0,0,0,0,0,0,0,0,0,0,0,
459,-49.24,-45.37,-55.4,-35.74,-38.25,-32.35,-18.16,-20.82,-32.75,-21.12,-25.27,-21.31,-30.03,-23.26,-23.17,-19.0,0,0,0,0,0,0,0,0,0,0,0,0,0,0,0,0,
460,-53.35,-46.55,-59.81,-39.22,-40.32,-32.12,-18.78,-22.85,-32.84,-24.92,-26.31,-22.98,-29.15,-24.16,-20.58,-19.17,0,0,0,0,0,0,0,0,0,0,0,0,0,0,0,0,
461,-55.52,-46.58,-54.78,-41.8,-40.2,-31.58,-6.738,-24.64,-29.05,-24.79,-16.58,-21.44,-22.3,-22.25,-14.55,-16.25,0,0,0,0,0,0,0,0,0,0,0,0,0,0,0,0,
462,-54.77,-50.61,-50.0,-41.58,-38.77,-32.09,-4.174,-24.73,-22.57,-24.1,-9.06,-21.54,-19.6,-21.79,-13.19,-16.44,0,0,0,0,0,0,0,0,0,0,0,0,0,0,0,0,
463,-51.33,-52.96,-48.82,-37.67,-35.52,-31.81,-3.31,-22.37,-21.34,-23.38,-11.12,-22.15,-23.81,-22.88,-15.06,-19.2,0,0,0,0,0,0,0,0,0,0,0,0,0,0,0,0,
464,-44.1,-47.39,-43.47,-32.85,-30.46,-29.03,-1.367,-20.34,-23.73,-21.74,-11.57,-19.81,-23.23,-20.93,-10.95,-18.45,0,0,0,0,0,0,0,0,0,0,0,0,0,0,0,0,
465,-36.36,-39.4,-36.0,-29.65,-25.95,-24.71,-5.433,-19.07,-19.7,-19.67,-8.465,-17.66,-17.37,-18.22,-4.853,-17.55,0,0,0,0,0,0,0,0,0,0,0,0,0,0,0,0,
466,-35.44,-35.42,-37.14,-28.5,-26.8,-22.62,-8.811,-17.37,-16.53,-18.25,-10.17,-17.38,-14.91,-17.89,-4.891,-18.47,0,0,0,0,0,0,0,0,0,0,0,0,0,0,0,0,
467,-40.27,-34.57,-44.29,-27.72,-31.92,-22.1,-11.86,-15.59,-22.2,-16.24,-11.99,-15.29,-12.87,-16.1,-4.581,-14.34,0,0,0,0,0,0,0,0,0,0,0,0,0,0,0,0,
468,-43.64,-35.55,-46.2,-26.96,-33.46,-19.17,-12.46,-11.89,-25.92,-12.86,-7.751,-8.531,-6.38,-10.56,1.889,-4.236,0,0,0,0,0,0,0,0,0,0,0,0,0,0,0,0,
469,-41.62,-34.72,-40.95,-24.91,-28.36,-14.1,-4.414,-7.048,-19.26,-8.359,-2.468,-0.0599,0.929,-3.664,7.89,5.122,0,0,0,0,0,0,0,0,0,0,0,0,0,0,0,0,
470,-36.32,-28.89,-34.84,-20.25,-21.19,-11.0,-0.1169,-6.977,-9.191,-3.753,0.5109,1.743,3.101,-0.8154,7.19,7.491,0,0,0,0,0,0,0,0,0,0,0,0,0,0,0,0,
471,-33.16,-25.21,-31.33,-19.4,-16.19,-11.29,-0.8396,-9.688,-5.635,-3.771,-0.2304,-2.804,-1.878,-4.086,1.874,3.637,0,0,0,0,0,0,0,0,0,0,0,0,0,0,0,0,
472,-32.47,-27.24,-28.46,-24.37,-13.8,-12.41,3.972,-8.767,-7.765,-7.907,-4.06,-2.548,-6.552,-5.348,-0.6986,3.087,0,0,0,0,0,0,0,0,0,0,0,0,0,0,0,0,
473,-30.83,-27.99,-26.06,-26.5,-14.44,-14.43,3.406,-7.901,-8.834,-8.63,-5.135,2.008,-5.82,-1.578,1.028,6.928,0,0,0,0,0,0,0,0,0,0,0,0,0,0,0,0,
474,-29.33,-26.22,-28.41,-24.39,-19.18,-17.52,-7.981,-10.68,-11.56,-7.366,-7.337,0.1917,-8.22,-2.519,-1.487,4.18,0,0,0,0,0,0,0,0,0,0,0,0,0,0,0,0,
475,-30.47,-24.46,-36.62,-21.89,-25.66,-16.94,-17.79,-12.3,-19.85,-9.784,-15.76,-5.741,-15.17,-9.11,-8.668,-3.865,0,0,0,0,0,0,0,0,0,0,0,0,0,0,0,0,
476,-34.32,-23.8,-44.44,-19.13,-30.21,-15.09,-19.29,-11.06,-25.98,-12.03,-19.02,-6.589,-15.68,-11.37,-10.17,-6.505,0,0,0,0,0,0,0,0,0,0,0,0,0,0,0,0,
477,-39.43,-27.73,-45.79,-19.66,-32.83,-18.33,-13.01,-9.555,-24.79,-10.69,-14.8,-4.33,-11.31,-8.592,-8.014,-6.352,0,0,0,0,0,0,0,0,0,0,0,0,0,0,0,0,
478,-43.26,-33.35,-43.47,-23.29,-34.27,-21.66,-12.02,-8.47,-21.61,-9.549,-16.34,-4.982,-11.38,-6.705,-10.65,-9.014,0,0,0,0,0,0,0,0,0,0,0,0,0,0,0,0,
479,-45.48,-35.02,-43.3,-23.93,-34.01,-21.06,-21.65,-7.515,-20.55,-9.912,-21.16,-5.732,-12.83,-4.867,-12.04,-9.417,0,0,0,0,0,0,0,0,0,0,0,0,0,0,0,0,
480,-46.26,-33.82,-41.68,-22.51,-30.79,-19.31,-19.32,-5.901,-19.74,-8.323,-18.82,-2.632,-10.25,-0.4383,-6.283,-4.828,0,0,0,0,0,0,0,0,0,0,0,0,0,0,0,0,
481,-42.81,-30.22,-33.54,-21.48,-24.03,-16.54,-4.668,-3.622,-16.4,-3.995,-12.52,0.6553,-5.724,3.721,0.382,1.006,0,0,0,0,0,0,0,0,0,0,0,0,0,0,0,0,
482,-36.89,-28.35,-25.86,-21.59,-19.72,-16.95,-2.341,-2.68,-12.63,-1.503,-8.855,1.245,-2.982,3.435,2.849,4.353,0,0,0,0,0,0,0,0,0,0,0,0,0,0,0,0,
483,-36.49,-34.37,-25.53,-25.86,-23.47,-22.94,-7.184,-4.627,-13.6,-4.745,-10.83,-0.1561,-5.857,-2.026,-1.18,0.9983,0,0,0,0,0,0,0,0,0,0,0,0,0,0,0,0,
484,-41.84,-40.19,-27.5,-29.86,-28.72,-26.29,-9.224,-8.594,-18.64,-11.15,-16.48,-3.353,-11.89,-7.06,-9.167,-5.246,0,0,0,0,0,0,0,0,0,0,0,0,0,0,0,0,
485,-43.74,-38.21,-28.51,-28.36,-30.73,-25.57,-15.55,-10.55,-22.2,-14.03,-17.88,-4.183,-12.6,-4.991,-11.28,-4.499,0,0,0,0,0,0,0,0,0,0,0,0,0,0,0,0,
486,-42.14,-35.31,-32.0,-27.81,-35.27,-25.82,-18.78,-9.016,-24.46,-12.05,-16.11,-1.119,-11.5,-1.803,-9.336,-1.584,0,0,0,0,0,0,0,0,0,0,0,0,0,0,0,0,
487,-45.75,-36.13,-35.24,-30.75,-39.92,-26.13,-15.9,-8.646,-28.57,-11.81,-18.83,-2.078,-15.71,-6.771,-12.22,-6.043,0,0,0,0,0,0,0,0,0,0,0,0,0,0,0,0,
488,-51.01,-37.68,-34.48,-30.7,-37.32,-27.57,-18.6,-10.34,-30.33,-15.54,-22.49,-8.755,-18.56,-14.41,-15.9,-12.8,0,0,0,0,0,0,0,0,0,0,0,0,0,0,0,0,
489,-49.28,-36.83,-34.3,-27.77,-33.49,-30.64,-21.6,-10.74,-27.22,-18.84,-23.05,-13.04,-17.99,-17.59,-17.29,-15.82,0,0,0,0,0,0,0,0,0,0,0,0,0,0,0,0,
490,-44.3,-33.77,-35.07,-26.42,-33.89,-30.14,-19.52,-11.14,-25.58,-20.83,-25.38,-11.9,-20.52,-17.64,-19.16,-15.07,0,0,0,0,0,0,0,0,0,0,0,0,0,0,0,0,
491,-41.54,-32.8,-33.45,-27.29,-33.98,-27.76,-23.33,-12.71,-27.32,-21.54,-31.87,-9.857,-24.5,-16.16,-19.81,-11.72,0,0,0,0,0,0,0,0,0,0,0,0,0,0,0,0,
492,-42.4,-35.58,-35.77,-30.57,-34.86,-29.2,-33.12,-14.12,-31.13,-21.34,-39.48,-10.96,-27.73,-15.75,-20.07,-9.816,0,0,0,0,0,0,0,0,0,0,0,0,0,0,0,0,
493,-47.88,-39.35,-43.39,-34.28,-38.54,-31.5,-37.17,-15.43,-37.73,-23.05,-40.93,-12.2,-28.73,-15.57,-18.86,-8.8,0,0,0,0,0,0,0,0,0,0,0,0,0,0,0,0,
494,-51.65,-40.5,-46.11,-34.36,-38.79,-30.22,-32.81,-14.97,-40.29,-23.23,-32.63,-9.879,-23.24,-11.24,-12.53,-5.646,0,0,0,0,0,0,0,0,0,0,0,0,0,0,0,0,
495,-47.63,-36.62,-43.41,-31.54,-34.4,-27.39,-26.51,-12.04,-35.03,-19.54,-23.44,-8.012,-15.95,-6.778,-6.74,-2.395,0,0,0,0,0,0,0,0,0,0,0,0,0,0,0,0,
496,-41.28,-32.38,-41.35,-27.99,-30.58,-24.82,-23.0,-9.505,-29.19,-18.11,-18.98,-7.926,-11.95,-5.97,-4.72,0.9245,0,0,0,0,0,0,0,0,0,0,0,0,0,0,0,0,
497,-37.98,-31.31,-38.58,-22.87,-28.57,-21.4,-23.25,-7.572,-25.11,-18.41,-16.21,-7.236,-9.783,-6.785,-4.521,1.714,0,0,0,0,0,0,0,0,0,0,0,0,0,0,0,0,
498,-35.98,-27.86,-34.79,-18.58,-26.95,-18.15,-26.08,-6.178,-21.93,-16.17,-16.42,-8.97,-10.7,-9.466,-7.55,-3.873,0,0,0,0,0,0,0,0,0,0,0,0,0,0,0,0,
499,-34.83,-25.02,-33.21,-19.36,-25.43,-18.21,-25.43,-7.149,-21.28,-13.63,-17.95,-12.39,-11.88,-11.27,-8.925,-8.777,0,0,0,0,0,0,0,0,0,0,0,0,0,0,0,0,
500,-36.34,-29.74,-32.53,-21.86,-25.88,-21.0,-20.24,-8.597,-21.8,-12.39,-16.0,-13.37,-10.66,-11.16,-5.851,-9.285,0,0,0,0,0,0,0,0,0,0,0,0,0,0,0,0,
501,-37.04,-32.19,-29.33,-21.17,-27.78,-21.91,-17.95,-8.877,-23.71,-13.79,-14.94,-14.44,-12.72,-14.32,-5.96,-9.911,0,0,0,0,0,0,0,0,0,0,0,0,0,0,0,0,
502,-33.71,-26.98,-27.15,-21.1,-27.63,-19.99,-17.46,-11.31,-26.85,-18.21,-18.37,-16.9,-16.73,-18.25,-9.661,-10.87,0,0,0,0,0,0,0,0,0,0,0,0,0,0,0,0,
503,-32.67,-25.19,-32.06,-24.38,-27.59,-19.87,-17.67,-15.72,-28.21,-21.2,-22.65,-18.05,-17.72,-18.23,-12.56,-13.13,0,0,0,0,0,0,0,0,0,0,0,0,0,0,0,0,
504,-35.44,-27.43,-36.75,-26.63,-29.0,-22.6,-24.78,-16.24,-28.15,-21.66,-25.97,-16.64,-18.05,-15.83,-14.86,-14.53,0,0,0,0,0,0,0,0,0,0,0,0,0,0,0,0,
505,-33.97,-26.74,-33.24,-28.94,-27.58,-24.54,-30.09,-12.54,-26.29,-20.23,-27.86,-12.42,-16.97,-11.31,-14.15,-9.234,0,0,0,0,0,0,0,0,0,0,0,0,0,0,0,0,
506,-30.14,-25.42,-29.86,-33.47,-24.81,-24.58,-24.95,-9.499,-22.65,-16.1,-25.94,-8.426,-11.95,-6.92,-9.408,-4.061,0,0,0,0,0,0,0,0,0,0,0,0,0,0,0,0,
507,-29.71,-24.12,-28.06,-33.3,-22.87,-23.41,-20.35,-8.072,-19.33,-12.94,-20.17,-8.024,-6.276,-6.657,-5.583,-5.481,0,0,0,0,0,0,0,0,0,0,0,0,0,0,0,0,
508,-28.84,-22.9,-22.55,-28.05,-20.36,-22.42,-20.89,-9.23,-15.38,-13.3,-16.94,-10.46,-4.85,-9.707,-6.265,-7.44,0,0,0,0,0,0,0,0,0,0,0,0,0,0,0,0,
509,-27.33,-25.52,-22.66,-26.0,-21.52,-23.18,-22.56,-13.22,-15.35,-15.75,-20.81,-13.2,-8.706,-13.31,-9.062,-7.482,0,0,0,0,0,0,0,0,0,0,0,0,0,0,0,0,
510,-27.91,-26.47,-28.74,-26.38,-25.82,-22.21,-25.24,-13.04,-21.85,-17.36,-24.41,-12.05,-11.71,-12.55,-8.889,-6.675,0,0,0,0,0,0,0,0,0,0,0,0,0,0,0,0,
511,-27.49,-21.09,-29.7,-24.63,-26.92,-17.59,-24.85,-8.125,-23.03,-13.48,-22.07,-8.103,-10.16,-7.681,-6.86,-4.923,0,0,0,0,0,0,0,0,0,0,0,0,0,0,0,0,
512,-28.7,-18.75,-31.9,-22.66,-29.01,-17.04,-25.45,-8.149,-19.41,-10.1,-20.79,-8.681,-9.81,-8.034,-6.652,-4.69,0,0,0,0,0,0,0,0,0,0,0,0,0,0,0,0,
513,-36.08,-24.56,-38.73,-23.94,-34.63,-24.43,-34.87,-12.41,-23.78,-17.16,-21.92,-10.56,-10.47,-11.65,-4.3,-3.596,0,0,0,0,0,0,0,0,0,0,0,0,0,0,0,0,
514,-41.02,-30.66,-38.95,-27.19,-34.92,-29.34,-39.02,-12.28,-27.03,-23.38,-18.49,-6.782,-7.363,-8.846,0.7435,0.1454,0,0,0,0,0,0,0,0,0,0,0,0,0,0,0,0,
515,-36.84,-30.33,-34.08,-26.47,-30.27,-24.24,-28.63,-9.751,-20.56,-17.35,-14.46,-3.619,-6.557,-5.831,0.7934,-0.1788,0,0,0,0,0,0,0,0,0,0,0,0,0,0,0,0,
516,-32.33,-25.64,-31.31,-22.64,-29.11,-18.34,-19.42,-11.47,-19.65,-12.35,-15.52,-5.298,-10.49,-9.8,-2.541,-3.825,0,0,0,0,0,0,0,0,0,0,0,0,0,0,0,0,
517,-31.31,-21.98,-27.72,-22.13,-28.28,-18.34,-18.6,-15.19,-24.94,-14.69,-16.15,-7.266,-10.8,-13.4,-2.339,-4.344,0,0,0,0,0,0,0,0,0,0,0,0,0,0,0,0,
518,-26.68,-20.42,-22.98,-23.37,-23.62,-17.53,-20.2,-15.07,-22.68,-14.31,-15.96,-9.988,-9.82,-14.02,-2.91,-5.649,0,0,0,0,0,0,0,0,0,0,0,0,0,0,0,0,
519,-22.64,-21.1,-21.95,-25.99,-23.01,-17.67,-22.11,-13.5,-21.14,-14.91,-18.09,-13.13,-13.07,-15.74,-6.604,-9.256,0,0,0,0,0,0,0,0,0,0,0,0,0,0,0,0,
520,-26.32,-24.85,-24.34,-31.25,-27.43,-24.49,-20.69,-15.21,-26.01,-21.36,-15.68,-12.1,-11.43,-14.74,-4.459,-7.357,0,0,0,0,0,0,0,0,0,0,0,0,0,0,0,0,
521,-27.61,-26.1,-23.43,-31.47,-26.39,-26.94,-15.26,-16.42,-23.24,-22.21,-9.371,-8.601,-3.457,-9.186,2.863,-0.1885,0,0,0,0,0,0,0,0,0,0,0,0,0,0,0,0,
522,-21.3,-22.58,-17.01,-28.57,-21.62,-20.34,-12.84,-15.26,-15.46,-17.04,-9.602,-5.089,-1.506,-4.765,4.667,5.201,0,0,0,0,0,0,0,0,0,0,0,0,0,0,0,0,
523,-18.08,-22.31,-13.18,-30.83,-22.31,-17.18,-14.23,-15.81,-16.0,-16.06,-12.73,-0.6328,-4.313,-2.216,2.941,7.534,0,0,0,0,0,0,0,0,0,0,0,0,0,0,0,0,
524,-19.31,-25.3,-14.54,-31.47,-23.44,-18.35,-13.82,-15.85,-19.28,-15.4,-10.82,1.249,-3.522,-0.9301,4.386,7.619,0,0,0,0,0,0,0,0,0,0,0,0,0,0,0,0,
525,-17.8,-23.72,-12.9,-28.92,-18.28,-17.12,-11.5,-14.38,-17.72,-12.6,-9.322,-2.374,-2.99,-4.577,3.94,4.121,0,0,0,0,0,0,0,0,0,0,0,0,0,0,0,0,
526,-13.64,-19.76,-7.665,-31.03,-12.66,-16.24,-9.798,-16.56,-14.75,-14.82,-11.35,-6.848,-5.371,-10.42,-0.3435,-0.8504,0,0,0,0,0,0,0,0,0,0,0,0,0,0,0,0,
527,-8.054,-17.78,-5.158,-32.31,-9.353,-14.95,-5.371,-17.66,-11.54,-17.69,-9.04,-6.269,-4.345,-10.4,0.2669,-0.3243,0,0,0,0,0,0,0,0,0,0,0,0,0,0,0,0,
528,-3.068,-15.74,-5.699,-29.25,-5.187,-9.495,0.2327,-12.57,-6.113,-13.3,-1.685,-1.854,1.361,-5.065,6.275,5.988,0,0,0,0,0,0,0,0,0,0,0,0,0,0,0,0,
529,-3.993,-14.57,-8.152,-30.1,-5.066,-6.196,-3.785,-10.62,-1.616,-7.715,-1.258,-0.4983,3.724,-2.469,7.803,8.457,0,0,0,0,0,0,0,0,0,0,0,0,0,0,0,0,
530,-8.933,-17.35,-12.34,-35.72,-12.5,-10.98,-11.93,-15.02,-4.865,-8.778,-9.93,-2.595,-1.553,-4.681,3.219,5.545,0,0,0,0,0,0,0,0,0,0,0,0,0,0,0,0,
531,-12.99,-23.51,-16.99,-41.34,-19.92,-20.35,-11.5,-18.09,-15.98,-15.26,-16.19,-3.309,-9.266,-7.931,-1.902,3.376,0,0,0,0,0,0,0,0,0,0,0,0,0,0,0,0,
532,-17.62,-29.04,-22.88,-43.94,-23.68,-27.98,-13.3,-19.72,-27.26,-23.02,-18.59,-5.636,-16.2,-13.19,-7.246,-1.154,0,0,0,0,0,0,0,0,0,0,0,0,0,0,0,0,
533,-20.95,-26.82,-26.86,-39.92,-24.38,-27.78,-19.88,-20.69,-32.39,-28.05,-21.08,-10.55,-21.28,-18.98,-11.61,-7.964,0,0,0,0,0,0,0,0,0,0,0,0,0,0,0,0,
534,-18.8,-18.48,-23.98,-33.87,-19.7,-19.35,-16.07,-19.01,-28.96,-25.93,-19.27,-10.4,-19.96,-17.15,-11.52,-7.857,0,0,0,0,0,0,0,0,0,0,0,0,0,0,0,0,
535,-16.92,-17.73,-21.29,-35.26,-15.94,-14.23,-12.82,-19.71,-22.06,-18.88,-16.25,-7.537,-16.41,-12.14,-11.43,-4.778,0,0,0,0,0,0,0,0,0,0,0,0,0,0,0,0,
536,-20.42,-25.28,-25.22,-39.88,-19.67,-20.17,-19.41,-22.18,-21.22,-16.58,-18.06,-10.54,-17.39,-15.52,-13.88,-8.099,0,0,0,0,0,0,0,0,0,0,0,0,0,0,0,0,
537,-24.16,-28.59,-29.52,-39.24,-24.24,-27.08,-17.74,-19.56,-24.51,-20.67,-17.76,-14.71,-16.78,-20.78,-13.14,-11.76,0,0,0,0,0,0,0,0,0,0,0,0,0,0,0,0,
538,-26.77,-29.04,-31.93,-38.29,-26.13,-27.34,-11.78,-17.4,-24.59,-22.59,-13.85,-12.79,-12.96,-18.0,-10.12,-9.421,0,0,0,0,0,0,0,0,0,0,0,0,0,0,0,0,
539,-31.91,-33.2,-34.33,-40.55,-27.27,-28.89,-13.96,-20.91,-22.78,-21.28,-13.21,-9.914,-12.82,-13.98,-9.337,-6.707,0,0,0,0,0,0,0,0,0,0,0,0,0,0,0,0,
540,-35.18,-36.13,-33.35,-40.25,-26.04,-34.26,-10.86,-23.61,-21.9,-23.04,-13.7,-11.63,-14.49,-15.47,-9.712,-7.513,0,0,0,0,0,0,0,0,0,0,0,0,0,0,0,0,
541,-31.98,-36.02,-31.34,-38.73,-25.64,-36.12,-4.622,-23.15,-23.6,-26.86,-14.53,-12.71,-16.53,-18.05,-13.01,-9.149,0,0,0,0,0,0,0,0,0,0,0,0,0,0,0,0,
542,-28.19,-36.16,-32.44,-40.31,-27.88,-34.78,-9.045,-21.76,-27.46,-27.09,-18.8,-10.18,-20.18,-18.78,-18.21,-10.14,0,0,0,0,0,0,0,0,0,0,0,0,0,0,0,0,
543,-28.33,-34.27,-32.61,-41.0,-27.62,-33.56,-11.78,-20.37,-26.71,-23.58,-19.48,-11.05,-18.36,-19.33,-16.37,-10.61,0,0,0,0,0,0,0,0,0,0,0,0,0,0,0,0,
544,-29.16,-30.54,-31.85,-38.44,-26.72,-30.37,-6.796,-21.58,-21.55,-19.79,-14.22,-15.9,-11.84,-19.54,-10.3,-10.35,0,0,0,0,0,0,0,0,0,0,0,0,0,0,0,0,
545,-29.45,-29.64,-32.71,-35.77,-28.15,-27.76,-6.827,-24.25,-19.81,-18.31,-12.29,-18.12,-10.74,-19.2,-9.024,-10.02,0,0,0,0,0,0,0,0,0,0,0,0,0,0,0,0,
546,-30.43,-30.85,-29.71,-35.23,-26.6,-29.12,-7.535,-24.49,-19.2,-19.7,-11.54,-18.03,-11.21,-18.86,-7.037,-8.517,0,0,0,0,0,0,0,0,0,0,0,0,0,0,0,0,
547,-30.35,-31.38,-23.19,-36.36,-21.97,-29.02,-0.394,-23.36,-15.37,-20.19,-6.505,-16.08,-6.964,-16.73,-2.292,-5.229,0,0,0,0,0,0,0,0,0,0,0,0,0,0,0,0,
548,-29.84,-31.34,-22.75,-36.47,-20.88,-26.63,3.111,-23.65,-13.9,-17.8,-6.277,-12.48,-5.647,-14.61,-3.737,-4.92,0,0,0,0,0,0,0,0,0,0,0,0,0,0,0,0,
549,-30.23,-29.38,-26.51,-35.62,-21.63,-26.44,-0.7991,-24.65,-15.28,-16.97,-11.36,-12.52,-8.811,-15.99,-7.245,-6.952,0,0,0,0,0,0,0,0,0,0,0,0,0,0,0,0,
550,-26.11,-24.38,-23.28,-35.93,-16.58,-23.38,1.77,-22.92,-12.52,-17.02,-10.58,-11.63,-7.998,-15.44,-5.221,-3.799,0,0,0,0,0,0,0,0,0,0,0,0,0,0,0,0,
551,-17.43,-19.7,-14.89,-35.38,-9.982,-16.15,6.647,-18.69,-8.478,-13.18,-8.107,-3.91,-4.166,-8.877,-3.381,1.6,0,0,0,0,0,0,0,0,0,0,0,0,0,0,0,0,
552,-15.94,-19.4,-12.0,-33.26,-11.46,-13.98,0.3007,-16.69,-9.226,-8.244,-9.558,0.5863,-1.137,-2.641,-3.178,1.919,0,0,0,0,0,0,0,0,0,0,0,0,0,0,0,0,
553,-22.09,-23.81,-15.11,-32.51,-14.17,-15.47,-2.385,-17.04,-7.226,-3.657,-6.916,-2.281,3.141,-1.318,-2.062,-0.6656,0,0,0,0,0,0,0,0,0,0,0,0,0,0,0,0,
554,-22.5,-26.56,-17.71,-32.15,-9.281,-13.1,7.521,-17.92,1.914,1.846,-2.286,-4.935,5.466,-3.497,-4.413,-3.604,0,0,0,0,0,0,0,0,0,0,0,0,0,0,0,0,
555,-16.6,-21.17,-16.45,-29.44,-5.096,-10.01,9.072,-19.66,5.188,3.332,-3.579,-5.776,3.135,-5.17,-7.309,-5.182,0,0,0,0,0,0,0,0,0,0,0,0,0,0,0,0,
556,-13.65,-15.08,-11.42,-25.7,-5.653,-9.92,3.61,-19.08,-1.5,0.726,-4.545,-4.431,1.821,-4.238,-4.442,-3.199,0,0,0,0,0,0,0,0,0,0,0,0,0,0,0,0,
557,-13.32,-16.01,-6.371,-23.62,-3.3,-9.923,7.664,-16.31,-4.08,-2.111,-1.847,-3.368,1.509,-6.963,-1.741,-4.043,0,0,0,0,0,0,0,0,0,0,0,0,0,0,0,0,
558,-13.47,-15.93,-6.061,-24.16,-0.1297,-8.78,9.72,-17.39,-0.8194,-7.848,-1.57,-8.798,-1.77,-14.84,-2.579,-9.408,0,0,0,0,0,0,0,0,0,0,0,0,0,0,0,0,
559,-15.66,-14.56,-10.15,-27.28,-2.482,-9.758,3.354,-21.35,-2.158,-13.15,-2.797,-13.87,-2.434,-17.05,-1.176,-9.164,0,0,0,0,0,0,0,0,0,0,0,0,0,0,0,0,
560,-17.29,-19.4,-13.33,-29.9,-5.58,-12.63,-0.1334,-21.69,-3.134,-10.91,-2.165,-10.63,3.52,-11.5,1.835,-4.443,0,0,0,0,0,0,0,0,0,0,0,0,0,0,0,0,
561,-18.29,-21.25,-13.38,-26.44,-6.678,-11.87,-1.945,-16.66,1.974,-5.853,-2.438,-5.733,7.497,-7.398,1.472,-4.452,0,0,0,0,0,0,0,0,0,0,0,0,0,0,0,0,
562,-21.66,-16.18,-15.07,-19.32,-10.53,-8.384,-2.506,-11.71,0.3841,-3.708,-5.546,-4.825,2.693,-8.286,-2.235,-7.392,0,0,0,0,0,0,0,0,0,0,0,0,0,0,0,0,
563,-22.49,-14.91,-16.47,-17.39,-12.6,-7.373,4.512,-12.4,-9.485,-3.657,-7.544,-7.838,-4.245,-13.12,-7.323,-10.54,0,0,0,0,0,0,0,0,0,0,0,0,0,0,0,0,
564,-16.38,-15.05,-8.725,-19.15,-5.433,-6.891,13.35,-14.06,-10.44,-6.135,-3.774,-11.41,-5.109,-18.57,-9.68,-12.89,0,0,0,0,0,0,0,0,0,0,0,0,0,0,0,0,
565,-8.323,-11.05,1.731,-17.32,4.11,-4.631,16.79,-11.75,-1.944,-9.093,3.773,-7.233,-0.6702,-17.08,-2.928,-6.899,0,0,0,0,0,0,0,0,0,0,0,0,0,0,0,0,
566,-2.732,-7.203,5.165,-13.46,8.727,-1.458,19.17,-9.36,4.753,-6.113,11.24,2.626,6.038,-7.947,9.71,6.022,0,0,0,0,0,0,0,0,0,0,0,0,0,0,0,0,
567,-0.9792,-5.039,7.634,-11.73,9.956,1.219,23.01,-6.396,9.31,1.717,16.41,6.908,10.46,-0.927,14.57,12.78,0,0,0,0,0,0,0,0,0,0,0,0,0,0,0,0,
568,-5.861,-7.78,6.131,-12.87,5.327,-1.686,17.99,-2.653,8.036,4.079,12.0,5.771,5.755,-1.153,7.194,10.54,0,0,0,0,0,0,0,0,0,0,0,0,0,0,0,0,
569,-15.49,-16.41,-7.641,-16.58,-6.053,-9.873,1.186,-5.619,-3.63,-2.812,-3.552,2.849,-5.59,-5.411,-4.363,4.386,0,0,0,0,0,0,0,0,0,0,0,0,0,0,0,0,
570,-20.88,-21.38,-17.95,-19.55,-15.17,-15.26,-10.27,-11.32,-15.26,-10.63,-17.54,-3.179,-14.59,-11.29,-14.36,-4.596,0,0,0,0,0,0,0,0,0,0,0,0,0,0,0,0,
571,-17.89,-18.95,-13.84,-17.98,-15.82,-14.17,-10.33,-10.95,-18.9,-12.78,-22.13,-7.487,-17.69,-15.85,-19.42,-12.07,0,0,0,0,0,0,0,0,0,0,0,0,0,0,0,0,
572,-13.08,-13.06,-8.584,-13.13,-10.71,-8.594,-7.938,-11.42,-16.44,-11.42,-21.13,-8.489,-15.64,-17.19,-19.27,-15.35,0,0,0,0,0,0,0,0,0,0,0,0,0,0,0,0,
573,-11.68,-8.651,-7.139,-11.12,-6.107,-5.88,-3.103,-16.71,-10.43,-11.71,-19.52,-12.9,-13.94,-20.44,-21.17,-20.01,0,0,0,0,0,0,0,0,0,0,0,0,0,0,0,0,
574,-12.11,-12.7,-7.227,-16.08,-6.54,-10.99,-0.3844,-17.77,-9.777,-15.61,-19.94,-16.13,-17.44,-24.82,-24.51,-23.44,0,0,0,0,0,0,0,0,0,0,0,0,0,0,0,0,
575,-13.68,-19.5,-13.45,-20.99,-10.53,-15.35,-5.561,-13.68,-18.76,-18.17,-19.88,-10.93,-20.41,-22.16,-22.22,-19.4,0,0,0,0,0,0,0,0,0,0,0,0,0,0,0,0,
576,-16.14,-17.13,-19.92,-17.09,-14.2,-14.4,-10.44,-11.68,-24.43,-15.43,-18.14,-5.69,-19.04,-16.56,-19.86,-15.62,0,0,0,0,0,0,0,0,0,0,0,0,0,0,0,0,
577,-17.95,-12.83,-18.48,-12.0,-15.63,-14.56,-12.16,-12.0,-19.87,-12.26,-19.0,-6.087,-17.49,-16.22,-21.44,-16.69,0,0,0,0,0,0,0,0,0,0,0,0,0,0,0,0,
578,-18.58,-15.27,-15.0,-14.82,-13.48,-14.9,-8.453,-11.59,-14.09,-12.22,-19.42,-7.032,-16.06,-17.71,-20.9,-17.02,0,0,0,0,0,0,0,0,0,0,0,0,0,0,0,0,
579,-15.93,-16.53,-12.29,-17.36,-8.598,-12.64,1.822,-10.97,-11.83,-12.26,-16.34,-7.927,-15.27,-18.21,-21.27,-18.95,0,0,0,0,0,0,0,0,0,0,0,0,0,0,0,0,
580,-11.1,-13.46,-9.056,-14.21,-4.905,-10.61,1.442,-10.96,-10.93,-11.16,-17.5,-10.1,-18.05,-19.58,-25.96,-22.88,0,0,0,0,0,0,0,0,0,0,0,0,0,0,0,0,
581,-9.525,-10.53,-9.231,-11.77,-4.076,-7.134,-6.823,-10.6,-11.25,-9.639,-21.12,-12.03,-20.12,-20.29,-28.02,-22.16,0,0,0,0,0,0,0,0,0,0,0,0,0,0,0,0,
582,-10.29,-7.022,-11.27,-10.13,-5.307,-2.777,-2.651,-9.453,-11.79,-7.402,-18.42,-12.86,-18.66,-19.38,-26.82,-19.98,0,0,0,0,0,0,0,0,0,0,0,0,0,0,0,0,
583,-12.39,-6.811,-14.54,-9.239,-10.17,-5.301,-0.5103,-9.324,-12.6,-6.61,-16.13,-11.1,-19.09,-18.13,-26.0,-19.48,0,0,0,0,0,0,0,0,0,0,0,0,0,0,0,0,
584,-19.24,-14.22,-23.18,-14.88,-18.17,-13.35,-11.63,-11.6,-17.82,-10.05,-19.91,-9.282,-23.01,-18.05,-24.95,-17.6,0,0,0,0,0,0,0,0,0,0,0,0,0,0,0,0,
585,-24.08,-18.8,-26.67,-20.46,-20.93,-16.01,-15.38,-13.53,-25.23,-14.77,-21.88,-10.11,-26.65,-19.71,-25.12,-17.17,0,0,0,0,0,0,0,0,0,0,0,0,0,0,0,0,
586,-17.93,-14.21,-15.42,-17.03,-14.09,-11.88,-9.565,-12.29,-26.68,-15.48,-21.21,-8.545,-28.39,-20.6,-26.03,-17.58,0,0,0,0,0,0,0,0,0,0,0,0,0,0,0,0,
587,-7.93,-9.248,-3.044,-11.8,-6.931,-8.565,-5.8,-11.05,-23.4,-13.7,-22.26,-6.092,-27.56,-20.5,-24.91,-15.69,0,0,0,0,0,0,0,0,0,0,0,0,0,0,0,0,
588,-4.759,-7.0,-1.605,-10.27,-6.607,-7.259,-3.348,-12.88,-20.83,-13.73,-20.6,-8.976,-23.09,-20.86,-22.54,-15.72,0,0,0,0,0,0,0,0,0,0,0,0,0,0,0,0,
589,-7.8,-6.357,-8.85,-9.388,-8.365,-6.588,-4.83,-14.49,-15.55,-13.31,-15.47,-11.19,-16.34,-18.79,-18.76,-15.07,0,0,0,0,0,0,0,0,0,0,0,0,0,0,0,0,
590,-11.96,-10.51,-17.83,-9.873,-9.863,-9.392,-9.329,-13.59,-8.538,-10.62,-13.81,-9.6,-12.15,-15.35,-15.22,-9.569,0,0,0,0,0,0,0,0,0,0,0,0,0,0,0,0,
591,-15.52,-14.73,-17.38,-11.39,-13.6,-13.06,-9.652,-12.79,-10.08,-10.09,-14.97,-9.527,-13.05,-14.85,-14.83,-5.508,0,0,0,0,0,0,0,0,0,0,0,0,0,0,0,0,
592,-17.89,-13.3,-10.32,-11.84,-15.8,-12.66,-9.678,-13.55,-17.26,-12.34,-14.43,-9.444,-15.15,-14.63,-14.23,-4.034,0,0,0,0,0,0,0,0,0,0,0,0,0,0,0,0,
593,-16.29,-9.284,-11.55,-11.2,-12.87,-9.663,-11.67,-14.7,-18.73,-13.33,-14.97,-9.405,-16.31,-14.22,-13.4,-3.72,0,0,0,0,0,0,0,0,0,0,0,0,0,0,0,0,
594,-10.49,-3.693,-13.56,-8.088,-8.542,-4.742,-11.5,-14.93,-16.53,-12.03,-16.96,-11.01,-17.3,-16.25,-14.73,-7.223,0,0,0,0,0,0,0,0,0,0,0,0,0,0,0,0,
595,-7.013,-0.1529,-7.652,-6.476,-6.013,-0.4375,-10.62,-14.42,-13.67,-9.197,-13.96,-9.243,-14.44,-16.36,-13.35,-8.774,0,0,0,0,0,0,0,0,0,0,0,0,0,0,0,0,
596,-9.63,-5.017,-8.555,-9.844,-5.526,-2.571,-8.384,-13.98,-7.777,-7.811,-7.622,-6.608,-8.422,-13.24,-10.94,-6.654,0,0,0,0,0,0,0,0,0,0,0,0,0,0,0,0,
597,-11.34,-10.05,-12.97,-10.83,-5.427,-5.593,-5.154,-11.97,-4.255,-9.676,-6.341,-6.755,-6.225,-11.23,-12.86,-8.037,0,0,0,0,0,0,0,0,0,0,0,0,0,0,0,0,
598,-7.588,-7.219,-5.398,-9.731,-3.485,-3.005,-6.926,-9.139,-4.222,-8.633,-7.933,-3.317,-6.205,-8.864,-11.79,-6.833,0,0,0,0,0,0,0,0,0,0,0,0,0,0,0,0,
599,-5.244,-4.207,1.341,-11.41,-1.944,-0.8505,-9.347,-8.862,-2.384,-3.561,-5.516,2.001,-4.189,-4.141,-5.565,2.411,0,0,0,0,0,0,0,0,0,0,0,0,0,0,0,0,
600,-5.336,-2.107,-0.6477,-6.871,-1.385,1.135,-8.091,-7.822,-2.883,-1.007,-3.234,3.387,-3.987,0.5722,-3.243,7.559,0,0,0,0,0,0,0,0,0,0,0,0,0,0,0,0,
601,-1.587,3.359,0.1085,1.238,0.897,6.652,-10.32,-5.64,-5.801,2.433,-5.927,3.789,-6.573,2.772,-4.938,4.014,0,0,0,0,0,0,0,0,0,0,0,0,0,0,0,0,
602,1.082,4.098,1.252,-1.144,1.821,7.596,-11.69,-8.49,-4.42,8.422,-7.832,3.475,-8.069,0.9024,-6.332,1.449,0,0,0,0,0,0,0,0,0,0,0,0,0,0,0,0,
603,0.2725,1.13,2.248,-3.789,1.643,5.449,-4.269,-9.129,-2.396,8.556,-6.02,2.665,-7.558,-1.607,-6.787,3.123,0,0,0,0,0,0,0,0,0,0,0,0,0,0,0,0,
604,4.317,5.822,8.561,0.8906,4.964,8.236,0.2244,-1.733,-2.119,6.05,-5.143,3.61,-5.593,-1.662,-4.684,4.019,0,0,0,0,0,0,0,0,0,0,0,0,0,0,0,0,
605,7.895,9.51,9.71,-2.061,6.293,5.832,-3.874,-0.2352,-0.4671,5.531,-4.426,1.597,-2.63,-3.743,-2.519,1.368,0,0,0,0,0,0,0,0,0,0,0,0,0,0,0,0,
606,6.149,6.224,6.874,-6.066,4.613,-1.704,-4.687,-4.829,0.2351,1.273,-0.2133,-1.15,0.858,-6.301,-2.106,-0.3537,0,0,0,0,0,0,0,0,0,0,0,0,0,0,0,0,
607,9.915,10.34,11.14,2.183,8.205,2.735,0.1151,-1.89,1.981,-0.4796,3.611,1.924,2.869,-3.521,-0.3365,2.292,0,0,0,0,0,0,0,0,0,0,0,0,0,0,0,0,
608,14.31,17.19,11.04,5.595,10.63,10.01,1.575,0.5346,5.529,4.525,-0.2891,1.013,-1.944,-3.863,-3.215,0.7784,0,0,0,0,0,0,0,0,0,0,0,0,0,0,0,0,
609,11.88,16.24,4.754,2.047,5.559,6.853,-5.776,-4.539,1.48,2.472,-11.21,-7.195,-10.85,-11.8,-12.54,-7.151,0,0,0,0,0,0,0,0,0,0,0,0,0,0,0,0,
610,19.43,24.17,11.66,10.83,7.819,10.29,-12.95,-4.344,-4.3,-3.86,-15.35,-6.435,-9.496,-12.21,-12.05,-6.167,0,0,0,0,0,0,0,0,0,0,0,0,0,0,0,0,
611,41.11,45.2,30.98,22.81,23.24,24.11,-3.825,1.747,4.877,0.5984,-5.977,2.057,2.665,-3.413,-2.68,3.009,0,0,0,0,0,0,0,0,0,0,0,0,0,0,0,0,
612,62.48,63.9,48.63,28.47,36.61,31.55,9.455,4.347,19.45,7.651,0.2846,2.115,8.48,-1.718,-4.189,2.176,0,0,0,0,0,0,0,0,0,0,0,0,0,0,0,0,
613,83.19,84.04,63.19,43.0,43.83,37.79,6.607,6.409,21.56,8.563,-3.479,-1.121,6.006,-4.534,-10.67,-4.599,0,0,0,0,0,0,0,0,0,0,0,0,0,0,0,0,
614,106.6,111.2,78.34,64.45,53.73,50.7,4.279,10.94,19.08,12.07,-1.985,1.365,5.614,-2.376,-8.152,-5.996,0,0,0,0,0,0,0,0,0,0,0,0,0,0,0,0,
615,129.8,135.4,93.28,80.6,64.58,60.77,12.35,14.16,20.62,17.3,3.545,2.122,2.954,-3.225,-6.986,-8.976,0,0,0,0,0,0,0,0,0,0,0,0,0,0,0,0,
616,148.6,149.7,105.9,95.47,72.87,70.41,14.45,16.19,19.98,19.46,2.075,0.6923,-3.873,-6.179,-11.02,-12.81,0,0,0,0,0,0,0,0,0,0,0,0,0,0,0,0,
617,154.8,152.6,119.3,110.0,84.5,86.76,16.35,20.34,21.21,26.26,0.9216,2.838,-3.855,-1.197,-10.08,-10.09,0,0,0,0,0,0,0,0,0,0,0,0,0,0,0,0,
618,151.1,149.2,133.4,121.0,98.84,99.96,24.97,26.45,30.47,36.12,5.168,5.362,2.621,5.346,-5.111,-5.115,0,0,0,0,0,0,0,0,0,0,0,0,0,0,0,0,
619,150.7,149.4,139.9,128.9,109.0,104.3,28.44,30.69,40.86,41.05,11.11,8.793,10.44,9.73,2.506,2.648,0,0,0,0,0,0,0,0,0,0,0,0,0,0,0,0,
620,152.5,151.0,138.2,130.2,113.9,105.6,30.44,31.94,50.09,46.07,18.39,14.52,20.8,16.78,12.72,12.65,0,0,0,0,0,0,0,0,0,0,0,0,0,0,0,0,
621,151.4,149.7,136.4,128.6,112.5,107.1,34.81,34.53,56.83,50.87,21.18,16.87,26.97,20.68,16.14,15.04,0,0,0,0,0,0,0,0,0,0,0,0,0,0,0,0,
622,151.2,149.9,137.8,130.5,108.9,110.8,34.65,39.51,55.2,50.11,17.75,18.17,26.04,21.31,13.67,14.9,0,0,0,0,0,0,0,0,0,0,0,0,0,0,0,0,
623,152.2,150.5,140.1,132.1,111.4,116.7,34.42,43.28,53.52,52.44,17.34,22.49,27.35,26.85,15.0,19.61,0,0,0,0,0,0,0,0,0,0,0,0,0,0,0,0,
624,151.1,149.4,137.4,132.6,115.3,121.2,34.8,46.57,59.52,60.8,19.61,24.33,31.13,32.95,18.57,21.77,0,0,0,0,0,0,0,0,0,0,0,0,0,0,0,0,
625,150.2,150.2,134.1,133.9,114.7,125.3,33.06,49.91,63.76,66.54,19.34,22.73,32.36,34.35,20.58,21.36,0,0,0,0,0,0,0,0,0,0,0,0,0,0,0,0,
626,151.2,150.2,136.2,131.0,114.1,126.3,36.61,48.35,62.94,68.92,18.81,20.76,32.61,32.69,19.05,20.01,0,0,0,0,0,0,0,0,0,0,0,0,0,0,0,0,
627,150.2,145.8,132.7,125.6,111.8,118.9,44.33,44.63,63.28,68.74,19.24,18.46,32.34,29.46,13.34,14.08,0,0,0,0,0,0,0,0,0,0,0,0,0,0,0,0,
628,145.4,140.3,125.8,121.5,108.0,112.1,48.48,46.8,66.2,66.3,21.01,18.55,33.09,30.18,10.83,10.98,0,0,0,0,0,0,0,0,0,0,0,0,0,0,0,0,
629,140.4,135.3,129.8,116.1,107.9,110.8,46.48,49.18,69.53,65.37,22.72,20.79,35.82,34.51,11.16,11.68,0,0,0,0,0,0,0,0,0,0,0,0,0,0,0,0,
630,137.7,131.7,131.6,113.0,104.9,108.0,42.17,46.04,68.88,63.73,22.23,23.16,36.55,35.69,9.92,9.962,0,0,0,0,0,0,0,0,0,0,0,0,0,0,0,0,
631,136.0,131.4,125.4,113.1,100.2,106.4,47.15,45.9,65.65,62.21,27.03,28.85,38.34,38.04,17.78,15.69,0,0,0,0,0,0,0,0,0,0,0,0,0,0,0,0,
632,137.0,132.4,128.7,109.9,105.3,108.1,56.64,48.51,68.23,65.17,36.89,34.74,44.15,42.86,32.44,28.96,0,0,0,0,0,0,0,0,0,0,0,0,0,0,0,0,
633,142.3,135.0,134.7,109.4,112.0,106.9,56.57,46.14,73.26,65.23,39.03,36.04,46.86,42.58,35.82,34.85,0,0,0,0,0,0,0,0,0,0,0,0,0,0,0,0,
634,147.9,140.5,133.4,115.8,112.2,107.4,56.64,45.13,73.49,61.37,38.09,37.96,47.24,42.06,34.12,37.0,0,0,0,0,0,0,0,0,0,0,0,0,0,0,0,0,
635,150.1,144.4,134.8,117.9,113.3,113.3,59.37,50.14,73.53,64.26,41.46,40.11,49.49,45.57,36.59,40.78,0,0,0,0,0,0,0,0,0,0,0,0,0,0,0,0,
636,149.9,146.7,135.1,118.2,112.8,117.2,53.52,55.18,74.12,69.99,38.62,37.92,47.17,45.3,32.49,39.0,0,0,0,0,0,0,0,0,0,0,0,0,0,0,0,0,
637,149.1,148.9,131.7,122.1,109.7,117.1,51.84,56.64,70.95,69.76,31.73,35.16,40.49,41.38,24.38,33.45,0,0,0,0,0,0,0,0,0,0,0,0,0,0,0,0,
638,148.6,146.2,133.5,118.1,110.8,115.1,58.26,51.75,66.91,66.62,30.76,30.91,34.86,36.5,19.94,25.81,0,0,0,0,0,0,0,0,0,0,0,0,0,0,0,0,
639,148.5,142.5,135.5,113.8,112.1,111.9,56.23,45.22,63.35,61.84,27.35,24.11,28.09,28.35,12.13,14.1,0,0,0,0,0,0,0,0,0,0,0,0,0,0,0,0,
640,147.9,144.2,132.8,122.4,109.8,109.9,51.62,47.2,60.3,55.75,19.49,23.57,23.69,23.03,5.595,7.867,0,0,0,0,0,0,0,0,0,0,0,0,0,0,0,0,
641,144.7,144.9,127.3,124.0,106.0,108.2,49.95,50.16,60.31,53.69,16.5,25.81,25.7,23.43,7.511,8.274,0,0,0,0,0,0,0,0,0,0,0,0,0,0,0,0,
642,140.1,141.9,118.9,115.5,100.5,107.7,45.77,46.11,60.74,54.9,15.55,21.43,27.57,22.66,7.72,4.857,0,0,0,0,0,0,0,0,0,0,0,0,0,0,0,0,
643,139.7,142.6,119.5,120.5,100.8,112.7,50.2,45.85,61.26,56.59,14.79,20.33,28.34,24.0,5.635,2.331,0,0,0,0,0,0,0,0,0,0,0,0,0,0,0,0,
644,144.3,145.7,128.8,128.8,107.6,117.8,58.08,50.81,63.72,61.02,18.86,28.02,31.12,31.56,8.592,6.282,0,0,0,0,0,0,0,0,0,0,0,0,0,0,0,0,
645,147.5,144.8,128.3,124.3,110.0,116.9,53.76,52.28,64.19,66.57,24.94,32.85,34.38,37.12,13.27,9.176,0,0,0,0,0,0,0,0,0,0,0,0,0,0,0,0,
646,147.8,144.2,127.7,122.6,113.1,116.1,55.44,53.66,67.22,69.77,31.71,34.1,41.43,39.01,20.93,12.76,0,0,0,0,0,0,0,0,0,0,0,0,0,0,0,0,
647,148.8,147.7,137.2,124.4,119.4,117.3,67.95,55.94,77.98,71.15,40.73,38.42,52.29,41.7,33.18,22.98,0,0,0,0,0,0,0,0,0,0,0,0,0,0,0,0,
648,147.4,145.2,136.4,116.5,115.7,112.2,67.24,53.25,84.64,70.05,46.42,42.41,59.04,43.12,41.07,33.44,0,0,0,0,0,0,0,0,0,0,0,0,0,0,0,0,
649,141.5,136.3,126.9,110.3,106.1,104.9,59.32,50.4,82.59,67.76,45.9,44.5,60.05,44.13,42.34,39.86,0,0,0,0,0,0,0,0,0,0,0,0,0,0,0,0,
650,137.5,134.6,128.4,112.1,103.2,104.7,60.69,52.51,79.12,68.85,44.02,47.5,56.55,47.11,40.96,44.04,0,0,0,0,0,0,0,0,0,0,0,0,0,0,0,0,
651,136.7,136.1,131.3,112.1,102.2,105.4,64.14,54.46,73.1,70.61,43.76,48.7,49.95,47.23,37.49,44.13,0,0,0,0,0,0,0,0,0,0,0,0,0,0,0,0,
652,132.9,130.1,123.1,111.4,97.58,100.2,64.39,54.16,65.37,66.14,43.13,45.14,45.37,42.07,33.51,39.07,0,0,0,0,0,0,0,0,0,0,0,0,0,0,0,0,
653,127.5,126.7,114.0,113.8,92.45,95.79,60.89,54.91,60.12,57.42,39.3,40.11,43.03,37.45,29.52,32.12,0,0,0,0,0,0,0,0,0,0,0,0,0,0,0,0,
654,128.5,130.8,111.6,114.9,91.56,97.65,55.27,56.64,57.91,55.24,35.25,38.88,44.02,40.89,27.1,28.26,0,0,0,0,0,0,0,0,0,0,0,0,0,0,0,0,
655,136.2,134.5,114.7,115.7,99.17,104.7,57.16,57.3,65.06,65.31,34.98,38.62,49.89,47.96,26.34,24.43,0,0,0,0,0,0,0,0,0,0,0,0,0,0,0,0,
656,143.9,140.5,123.3,120.2,110.8,113.6,63.08,56.48,78.11,76.44,32.4,30.08,48.1,42.26,17.99,8.779,0,0,0,0,0,0,0,0,0,0,0,0,0,0,0,0,
657,149.5,149.4,135.4,123.9,120.1,120.2,63.05,55.12,82.73,76.01,23.45,16.76,34.66,24.77,4.167,-12.65,0,0,0,0,0,0,0,0,0,0,0,0,0,0,0,0,
658,151.1,149.8,140.1,119.1,124.5,121.0,61.58,52.96,81.43,69.7,15.67,10.41,23.69,12.03,-1.623,-21.65,0,0,0,0,0,0,0,0,0,0,0,0,0,0,0,0,
659,143.8,139.7,129.7,108.2,116.5,111.1,58.08,48.62,76.12,63.08,11.2,9.812,16.44,4.814,-3.262,-21.39,0,0,0,0,0,0,0,0,0,0,0,0,0,0,0,0,
660,130.9,125.9,115.1,101.4,97.14,92.87,45.84,45.23,60.56,51.51,8.294,13.03,12.3,4.154,-2.778,-15.6,0,0,0,0,0,0,0,0,0,0,0,0,0,0,0,0,
661,120.3,113.1,106.1,100.7,83.68,81.32,35.08,47.72,49.23,43.31,13.62,25.33,22.7,20.44,12.22,5.053,0,0,0,0,0,0,0,0,0,0,0,0,0,0,0,0,
662,113.2,107.1,98.76,100.8,82.88,83.42,37.93,52.83,53.3,49.54,27.48,39.75,41.81,42.64,34.44,30.39,0,0,0,0,0,0,0,0,0,0,0,0,0,0,0,0,
663,110.6,109.3,97.78,98.78,86.42,89.31,49.41,54.1,60.57,60.08,42.05,46.56,55.73,54.57,49.36,46.45,0,0,0,0,0,0,0,0,0,0,0,0,0,0,0,0,
664,113.1,111.0,104.6,95.17,88.44,91.75,57.41,52.66,66.68,64.79,54.76,50.21,64.67,59.89,59.63,58.39,0,0,0,0,0,0,0,0,0,0,0,0,0,0,0,0,
665,113.3,109.2,104.1,94.39,88.02,92.11,54.77,52.97,71.54,66.98,60.39,53.77,67.21,60.42,63.8,64.85,0,0,0,0,0,0,0,0,0,0,0,0,0,0,0,0,
666,113.2,111.4,103.1,98.7,91.23,94.53,50.79,54.98,71.92,67.79,58.36,54.74,66.43,57.18,61.74,63.58,0,0,0,0,0,0,0,0,0,0,0,0,0,0,0,0,
667,123.2,120.5,119.1,103.9,102.3,101.2,60.65,56.75,76.23,67.99,60.99,54.05,71.83,58.1,62.14,63.13,0,0,0,0,0,0,0,0,0,0,0,0,0,0,0,0,
668,135.9,129.3,133.2,108.0,110.5,107.2,74.18,58.94,83.17,70.11,64.18,51.23,74.53,59.05,56.95,59.64,0,0,0,0,0,0,0,0,0,0,0,0,0,0,0,0,
669,140.2,133.0,129.1,112.0,111.7,110.4,76.46,61.96,83.57,72.45,56.42,47.18,68.91,56.13,41.76,48.96,0,0,0,0,0,0,0,0,0,0,0,0,0,0,0,0,
670,142.0,135.2,128.0,115.0,116.8,115.4,78.26,63.79,88.65,76.72,51.48,45.15,68.83,57.05,33.79,40.31,0,0,0,0,0,0,0,0,0,0,0,0,0,0,0,0,
671,144.5,137.4,134.8,117.1,121.8,118.8,80.57,63.71,99.02,83.1,52.51,39.81,69.39,55.6,30.29,29.46,0,0,0,0,0,0,0,0,0,0,0,0,0,0,0,0,
672,139.3,134.9,126.7,118.7,114.3,114.6,68.9,61.52,93.81,81.71,40.24,27.42,55.54,41.61,16.44,9.201,0,0,0,0,0,0,0,0,0,0,0,0,0,0,0,0,
673,125.6,127.9,107.0,116.9,100.5,107.7,55.3,56.72,76.77,71.44,25.18,17.36,40.01,26.97,6.645,-6.445,0,0,0,0,0,0,0,0,0,0,0,0,0,0,0,0,
674,113.5,118.8,97.96,108.2,92.06,100.7,53.79,51.42,66.74,62.4,26.12,12.67,34.59,19.86,10.6,-10.4,0,0,0,0,0,0,0,0,0,0,0,0,0,0,0,0,
675,106.4,108.3,94.95,96.53,85.19,89.51,50.06,45.37,59.66,53.72,26.81,4.815,27.4,9.787,11.72,-13.53,0,0,0,0,0,0,0,0,0,0,0,0,0,0,0,0,
676,97.1,100.0,85.78,90.06,76.42,77.0,40.87,37.14,48.94,40.26,20.63,-2.788,18.36,-0.069,11.24,-13.54,0,0,0,0,0,0,0,0,0,0,0,0,0,0,0,0,
677,88.81,93.65,81.75,86.75,73.95,69.88,40.85,33.25,45.73,30.11,22.6,1.924,19.38,5.38,20.72,-1.808,0,0,0,0,0,0,0,0,0,0,0,0,0,0,0,0,
678,89.31,87.17,86.65,81.68,79.01,68.33,47.25,37.1,52.24,31.78,26.01,14.85,24.16,19.45,27.73,11.06,0,0,0,0,0,0,0,0,0,0,0,0,0,0,0,0,
679,88.59,83.03,85.24,77.37,79.48,68.17,47.9,40.16,54.44,39.89,23.71,22.23,26.23,26.48,26.34,14.94,0,0,0,0,0,0,0,0,0,0,0,0,0,0,0,0,
680,76.36,74.76,74.55,72.21,70.91,65.64,41.59,39.56,51.22,44.99,27.5,22.76,32.21,27.8,27.24,16.01,0,0,0,0,0,0,0,0,0,0,0,0,0,0,0,0,
681,59.96,58.44,62.47,66.14,60.46,61.1,37.37,40.32,50.83,45.59,35.66,23.75,39.29,28.72,27.36,18.68,0,0,0,0,0,0,0,0,0,0,0,0,0,0,0,0,
682,47.88,47.95,55.21,63.84,53.89,57.42,45.15,39.76,50.91,44.7,40.12,25.31,41.67,28.31,22.59,20.71,0,0,0,0,0,0,0,0,0,0,0,0,0,0,0,0,
683,41.12,44.07,54.84,57.97,51.02,52.63,54.41,33.92,49.9,41.41,41.68,22.5,41.19,25.87,16.64,19.22,0,0,0,0,0,0,0,0,0,0,0,0,0,0,0,0,
684,37.06,35.45,53.99,47.08,47.68,44.88,50.5,28.34,49.1,34.58,38.9,18.38,38.8,23.03,9.441,14.6,0,0,0,0,0,0,0,0,0,0,0,0,0,0,0,0,
685,32.91,29.51,52.43,43.78,44.66,40.48,49.03,28.45,47.13,30.21,38.37,18.6,39.84,23.03,8.975,13.45,0,0,0,0,0,0,0,0,0,0,0,0,0,0,0,0,
686,26.33,25.39,51.15,42.48,43.85,40.2,54.76,31.57,47.26,30.89,43.96,18.23,44.49,24.36,17.08,14.23,0,0,0,0,0,0,0,0,0,0,0,0,0,0,0,0,
687,14.92,9.874,37.54,34.21,38.54,37.41,45.86,32.72,46.55,31.55,41.57,14.46,42.47,24.16,19.04,9.693,0,0,0,0,0,0,0,0,0,0,0,0,0,0,0,0,
688,4.535,-1.115,21.54,31.21,31.06,35.83,34.4,30.84,40.8,33.75,33.53,13.65,39.34,26.38,17.85,5.913,0,0,0,0,0,0,0,0,0,0,0,0,0,0,0,0,
689,-1.41,1.669,20.43,32.3,29.48,36.3,39.14,26.78,39.74,37.47,34.29,13.29,42.04,27.95,22.98,6.524,0,0,0,0,0,0,0,0,0,0,0,0,0,0,0,0,T2
690,-12.13,-6.743,16.19,21.89,27.17,29.44,40.86,20.93,42.79,32.86,37.5,8.492,39.89,21.76,25.76,5.085,0,0,0,0,0,0,0,0,0,0,0,0,0,0,0,0,
691,-22.5,-23.01,4.345,9.392,23.57,21.95,37.02,16.33,42.48,24.81,38.4,5.37,34.06,14.73,25.82,4.234,0,0,0,0,0,0,0,0,0,0,0,0,0,0,0,0,
692,-24.24,-25.92,-0.7405,7.369,22.75,21.21,37.62,15.02,44.03,24.65,38.34,4.881,29.98,10.76,26.15,6.373,0,0,0,0,0,0,0,0,0,0,0,0,0,0,0,0,
693,-36.37,-34.15,-14.39,0.9682,10.64,12.19,24.05,11.83,38.46,21.47,25.84,1.098,16.89,3.458,16.49,4.083,0,0,0,0,0,0,0,0,0,0,0,0,0,0,0,0,
694,-64.59,-60.29,-39.88,-17.89,-13.0,-7.832,-3.082,3.792,15.91,8.011,2.483,-4.762,-4.091,-4.501,-0.9922,-3.777,0,0,0,0,0,0,0,0,0,0,0,0,0,0,0,0,
695,-85.52,-81.23,-54.19,-33.5,-28.09,-22.26,-15.6,-2.841,-4.0,-2.976,-12.46,-6.559,-18.76,-5.547,-12.8,-7.705,0,0,0,0,0,0,0,0,0,0,0,0,0,0,0,0,
696,-93.85,-89.36,-61.38,-40.24,-34.92,-28.86,-13.49,-3.608,-12.57,-7.353,-15.71,-0.0863,-23.4,1.306,-16.28,-0.3378,0,0,0,0,0,0,0,0,0,0,0,0,0,0,0,0,
697,-99.09,-95.38,-73.9,-46.8,-42.83,-34.95,-16.7,-1.238,-19.85,-8.903,-15.12,9.288,-18.37,10.46,-13.12,11.32,0,0,0,0,0,0,0,0,0,0,0,0,0,0,0,0,
698,-100.9,-100.2,-82.37,-52.91,-47.43,-40.3,-22.87,0.687,-19.31,-7.356,-8.887,11.59,-5.701,13.78,-6.001,16.03,0,0,0,0,0,0,0,0,0,0,0,0,0,0,0,0,
699,-100.3,-101.3,-81.12,-54.73,-47.11,-41.28,-14.67,0.6574,-8.508,-6.184,3.819,9.326,7.572,12.64,-0.6814,16.22,0,0,0,0,0,0,0,0,0,0,0,0,0,0,0,0,
700,-100.3,-99.71,-77.24,-54.92,-45.48,-37.34,2.193,-0.3595,-0.1538,-4.558,14.86,8.273,18.45,13.49,3.038,15.5,0,0,0,0,0,0,0,0,0,0,0,0,0,0,0,0,
701,-99.45,-98.96,-76.65,-54.36,-42.04,-31.99,8.341,0.0194,6.413,2.86,19.84,5.777,26.11,14.03,7.986,10.17,0,0,0,0,0,0,0,0,0,0,0,0,0,0,0,0,
702,-98.32,-98.82,-77.9,-52.22,-37.32,-25.67,6.274,2.145,14.92,10.58,19.94,2.668,27.46,11.89,10.8,2.604,0,0,0,0,0,0,0,0,0,0,0,0,0,0,0,0,
703,-98.36,-96.11,-80.22,-51.81,-35.78,-19.96,1.061,3.612,16.56,12.76,15.46,1.586,23.02,8.985,9.513,-2.958,0,0,0,0,0,0,0,0,0,0,0,0,0,0,0,0,
704,-99.65,-96.12,-88.83,-56.54,-41.55,-25.48,-11.37,1.769,8.931,10.84,8.406,-1.395,15.7,3.685,6.485,-8.084,0,0,0,0,0,0,0,0,0,0,0,0,0,0,0,0,
705,-101.3,-101.3,-100.1,-64.39,-52.12,-40.19,-20.18,-2.192,-1.266,3.649,0.4496,-5.738,6.205,-2.265,1.935,-10.67,0,0,0,0,0,0,0,0,0,0,0,0,0,0,0,0,
706,-101.6,-103.1,-104.3,-69.57,-59.9,-47.19,-20.32,-4.106,-11.05,-5.006,-7.879,-4.184,-2.574,-0.9797,-1.657,-5.581,0,0,0,0,0,0,0,0,0,0,0,0,0,0,0,0,
707,-101.6,-101.2,-105.1,-71.33,-65.59,-48.76,-25.22,-4.366,-19.1,-7.201,-12.64,1.414,-6.231,5.681,-1.428,2.568,0,0,0,0,0,0,0,0,0,0,0,0,0,0,0,0,
708,-102.4,-102.0,-107.9,-76.2,-75.9,-58.06,-32.99,-6.879,-24.9,-8.082,-12.98,1.676,-5.744,7.102,-1.449,5.067,0,0,0,0,0,0,0,0,0,0,0,0,0,0,0,0,
709,-102.8,-103.0,-108.6,-84.7,-86.66,-69.38,-32.57,-10.42,-30.26,-14.12,-11.58,-1.446,-4.42,3.727,-2.341,4.93,0,0,0,0,0,0,0,0,0,0,0,0,0,0,0,0,
710,-102.4,-102.0,-107.4,-88.37,-89.14,-73.4,-29.72,-10.77,-33.4,-18.76,-8.225,0.2988,-2.808,3.797,-0.6696,7.855,0,0,0,0,0,0,0,0,0,0,0,0,0,0,0,0,
711,-101.9,-101.7,-106.8,-86.46,-85.32,-72.39,-29.61,-8.533,-30.5,-17.41,-3.083,5.303,-0.4804,8.446,2.228,12.3,0,0,0,0,0,0,0,0,0,0,0,0,0,0,0,0,
712,-101.5,-102.3,-104.3,-86.48,-80.35,-69.29,-24.58,-7.462,-23.28,-13.46,2.663,9.079,1.174,14.71,5.306,18.14,0,0,0,0,0,0,0,0,0,0,0,0,0,0,0,0,
713,-100.9,-101.6,-100.8,-87.76,-75.46,-67.03,-17.69,-8.84,-18.12,-11.27,4.729,9.114,-1.678,17.1,5.267,20.98,0,0,0,0,0,0,0,0,0,0,0,0,0,0,0,0,
714,-99.75,-99.46,-98.3,-87.74,-72.45,-69.52,-20.45,-12.2,-17.72,-14.8,0.8582,4.413,-6.126,12.12,2.079,16.26,0,0,0,0,0,0,0,0,0,0,0,0,0,0,0,0,
715,-98.61,-99.51,-94.69,-91.41,-71.8,-74.36,-23.11,-16.71,-16.54,-20.69,2.385,1.742,-1.936,7.885,6.634,14.17,0,0,0,0,0,0,0,0,0,0,0,0,0,0,0,0,
716,-99.09,-101.7,-92.46,-95.41,-72.94,-76.82,-15.42,-18.53,-11.99,-21.09,11.51,3.194,7.486,8.53,15.46,16.73,0,0,0,0,0,0,0,0,0,0,0,0,0,0,0,0,
717,-100.6,-101.4,-97.39,-93.81,-77.28,-77.04,-12.27,-16.2,-12.32,-18.5,13.77,1.984,11.02,7.644,16.67,14.31,0,0,0,0,0,0,0,0,0,0,0,0,0,0,0,0,
718,-101.9,-100.6,-104.8,-95.74,-81.91,-76.47,-17.86,-15.8,-17.95,-18.02,13.06,0.2791,13.09,7.243,18.29,12.53,0,0,0,0,0,0,0,0,0,0,0,0,0,0,0,0,
719,-102.1,-101.0,-106.0,-98.64,-81.21,-74.3,-19.21,-18.17,-17.16,-16.37,17.51,-0.9324,15.58,7.804,19.97,12.62,0,0,0,0,0,0,0,0,0,0,0,0,0,0,0,0,
720,-99.59,-97.93,-103.0,-88.86,-77.75,-72.04,-18.77,-17.47,-13.02,-15.17,13.36,-9.803,7.314,-1.564,8.607,2.948,0,0,0,0,0,0,0,0,0,0,0,0,0,0,0,0,
721,-96.27,-94.46,-101.9,-81.17,-78.03,-75.05,-22.28,-17.44,-18.84,-22.0,0.4454,-21.02,-6.871,-16.72,-3.829,-9.196,0,0,0,0,0,0,0,0,0,0,0,0,0,0,0,0,
722,-96.82,-97.13,-102.7,-88.26,-81.78,-82.38,-27.42,-22.27,-28.13,-32.25,-4.443,-22.25,-11.33,-20.62,-3.474,-10.29,0,0,0,0,0,0,0,0,0,0,0,0,0,0,0,0,
723,-99.02,-99.79,-103.5,-91.3,-85.76,-86.26,-35.24,-24.35,-29.62,-35.0,-3.629,-17.0,-9.076,-14.8,-1.141,-6.133,0,0,0,0,0,0,0,0,0,0,0,0,0,0,0,0,
724,-99.07,-98.04,-104.8,-86.45,-88.55,-85.51,-40.55,-21.28,-30.95,-32.79,-5.917,-13.64,-9.532,-12.19,-3.078,-4.352,0,0,0,0,0,0,0,0,0,0,0,0,0,0,0,0,
725,-98.02,-96.15,-105.2,-85.35,-87.0,-82.35,-37.47,-18.44,-34.78,-32.41,-7.47,-11.61,-10.22,-12.06,-3.842,-2.514,0,0,0,0,0,0,0,0,0,0,0,0,0,0,0,0,
726,-96.1,-94.22,-101.5,-83.1,-81.93,-76.66,-35.02,-15.85,-31.57,-30.32,-6.734,-8.729,-10.91,-9.559,-4.928,-0.2075,0,0,0,0,0,0,0,0,0,0,0,0,0,0,0,0,
727,-94.97,-93.56,-97.79,-80.39,-82.33,-76.09,-38.53,-14.86,-28.91,-27.54,-9.303,-7.66,-17.68,-10.99,-10.79,-2.741,0,0,0,0,0,0,0,0,0,0,0,0,0,0,0,0,
728,-97.5,-97.59,-99.31,-83.88,-89.69,-84.88,-40.43,-18.55,-38.46,-33.27,-15.36,-10.15,-25.51,-17.89,-16.76,-8.568,0,0,0,0,0,0,0,0,0,0,0,0,0,0,0,0,
729,-99.52,-99.26,-99.99,-84.51,-93.94,-89.09,-38.59,-21.63,-47.74,-41.23,-16.03,-11.91,-23.54,-18.39,-14.4,-7.695,0,0,0,0,0,0,0,0,0,0,0,0,0,0,0,0,
730,-96.87,-93.13,-95.54,-78.64,-91.06,-82.04,-38.65,-20.06,-45.32,-37.49,-9.456,-10.34,-14.74,-9.957,-7.406,-1.015,0,0,0,0,0,0,0,0,0,0,0,0,0,0,0,0,
731,-92.74,-87.54,-92.38,-76.09,-85.49,-76.46,-42.79,-18.95,-39.01,-28.89,-7.376,-9.734,-9.094,-4.223,-6.096,0.6465,0,0,0,0,0,0,0,0,0,0,0,0,0,0,0,0,
732,-89.18,-87.16,-90.62,-78.39,-79.88,-76.36,-45.23,-20.34,-33.65,-27.61,-11.36,-11.61,-7.901,-4.363,-8.437,-2.111,0,0,0,0,0,0,0,0,0,0,0,0,0,0,0,0,
733,-84.83,-86.38,-84.15,-79.26,-74.86,-74.06,-38.49,-20.09,-28.55,-28.78,-10.42,-11.69,-7.928,-3.973,-7.331,-1.533,0,0,0,0,0,0,0,0,0,0,0,0,0,0,0,0,
734,-81.41,-83.51,-77.46,-76.97,-72.19,-71.22,-29.05,-18.65,-28.24,-28.4,-6.577,-9.654,-7.769,-2.602,-4.326,2.09,0,0,0,0,0,0,0,0,0,0,0,0,0,0,0,0,
735,-79.97,-79.95,-77.29,-72.67,-71.96,-71.04,-28.93,-18.73,-31.2,-29.83,-6.554,-8.757,-5.835,-1.88,-2.317,4.428,0,0,0,0,0,0,0,0,0,0,0,0,0,0,0,0,
736,-76.23,-74.09,-77.96,-66.16,-69.46,-66.88,-31.05,-17.25,-27.86,-27.24,-6.25,-8.816,-0.7555,1.194,-0.5241,4.846,0,0,0,0,0,0,0,0,0,0,0,0,0,0,0,0,
737,-70.78,-68.43,-74.7,-59.99,-63.06,-58.19,-26.96,-13.47,-19.33,-17.79,-5.388,-8.562,5.264,6.186,1.654,6.739,0,0,0,0,0,0,0,0,0,0,0,0,0,0,0,0,
738,-69.26,-66.51,-72.58,-57.67,-57.99,-53.38,-25.66,-11.88,-15.24,-12.15,-6.566,-7.22,9.542,10.07,5.772,13.58,0,0,0,0,0,0,0,0,0,0,0,0,0,0,0,0,
739,-67.73,-65.46,-71.44,-58.24,-54.04,-52.53,-26.76,-11.68,-13.32,-11.83,-3.844,-3.324,13.9,14.03,12.99,22.74,0,0,0,0,0,0,0,0,0,0,0,0,0,0,0,0,
740,-63.47,-65.1,-68.62,-61.23,-49.97,-52.85,-22.44,-11.2,-7.706,-10.86,1.049,-0.4402,16.1,15.24,16.3,25.66,0,0,0,0,0,0,0,0,0,0,0,0,0,0,0,0,
741,-64.92,-67.14,-68.53,-64.89,-52.22,-58.4,-20.31,-13.77,-6.735,-14.9,-3.034,-3.39,8.894,8.76,8.835,19.68,0,0,0,0,0,0,0,0,0,0,0,0,0,0,0,0,
742,-69.9,-68.62,-69.45,-67.37,-57.96,-66.21,-21.83,-18.63,-14.35,-24.81,-10.16,-6.386,-0.2392,2.242,1.781,14.53,0,0,0,0,0,0,0,0,0,0,0,0,0,0,0,0,
743,-69.4,-71.08,-67.91,-73.35,-57.96,-68.22,-19.47,-21.09,-18.54,-29.43,-6.206,-3.51,0.9338,2.968,5.701,14.95,0,0,0,0,0,0,0,0,0,0,0,0,0,0,0,0,
744,-66.46,-74.35,-69.4,-76.85,-57.08,-66.32,-19.66,-20.72,-17.59,-28.3,-0.7122,-2.606,1.768,1.617,5.795,10.2,0,0,0,0,0,0,0,0,0,0,0,0,0,0,0,0,
745,-63.88,-70.13,-73.66,-66.19,-61.14,-64.12,-26.57,-20.29,-22.19,-28.91,-8.298,-9.042,-8.174,-7.313,-6.675,-2.746,0,0,0,0,0,0,0,0,0,0,0,0,0,0,0,0,
746,-63.09,-63.94,-77.46,-54.68,-65.28,-61.51,-34.99,-20.67,-30.46,-30.2,-18.5,-14.42,-16.29,-14.08,-14.42,-10.99,0,0,0,0,0,0,0,0,0,0,0,0,0,0,0,0,
747,-68.79,-68.48,-83.25,-55.47,-67.75,-61.37,-44.81,-19.5,-34.42,-29.35,-20.69,-14.25,-16.46,-13.99,-11.79,-10.54,0,0,0,0,0,0,0,0,0,0,0,0,0,0,0,0,
748,-75.13,-76.73,-88.42,-57.02,-71.3,-63.49,-50.25,-17.61,-35.85,-28.24,-21.13,-11.88,-16.34,-10.92,-9.156,-7.048,0,0,0,0,0,0,0,0,0,0,0,0,0,0,0,0,
749,-76.84,-78.94,-91.28,-55.13,-75.01,-65.14,-46.79,-19.14,-36.6,-27.97,-21.47,-7.674,-15.37,-6.84,-6.329,-1.826,0,0,0,0,0,0,0,0,0,0,0,0,0,0,0,0,
750,-80.08,-79.85,-93.35,-56.61,-77.09,-68.73,-47.01,-21.5,-35.99,-28.01,-21.21,-5.642,-14.31,-6.745,-4.399,0.7877,0,0,0,0,0,0,0,0,0,0,0,0,0,0,0,0,
751,-83.62,-82.85,-90.82,-58.97,-78.14,-73.22,-52.06,-20.93,-38.72,-29.37,-23.51,-10.51,-18.87,-14.06,-8.369,-2.167,0,0,0,0,0,0,0,0,0,0,0,0,0,0,0,0,
752,-82.34,-84.76,-86.73,-59.37,-77.65,-73.64,-46.13,-21.1,-44.0,-32.75,-22.9,-15.16,-23.1,-21.16,-11.51,-4.835,0,0,0,0,0,0,0,0,0,0,0,0,0,0,0,0,
753,-80.19,-83.81,-86.3,-58.32,-73.96,-71.94,-35.11,-22.68,-42.65,-35.61,-18.95,-15.06,-21.23,-22.75,-10.73,-5.847,0,0,0,0,0,0,0,0,0,0,0,0,0,0,0,0,
754,-79.38,-81.28,-84.49,-54.85,-70.37,-70.58,-36.95,-21.44,-36.26,-34.66,-18.53,-13.84,-17.99,-20.34,-10.02,-5.244,0,0,0,0,0,0,0,0,0,0,0,0,0,0,0,0,
755,-77.93,-78.07,-83.34,-51.18,-70.74,-66.8,-44.06,-18.41,-34.01,-29.2,-16.3,-10.86,-15.06,-14.5,-6.648,-0.5223,0,0,0,0,0,0,0,0,0,0,0,0,0,0,0,0,
756,-76.13,-73.65,-85.82,-49.14,-71.68,-62.49,-43.32,-16.2,-35.12,-23.62,-11.52,-7.797,-13.55,-11.07,-3.193,1.284,0,0,0,0,0,0,0,0,0,0,0,0,0,0,0,0,
757,-74.5,-71.62,-80.99,-47.0,-70.55,-62.59,-42.81,-13.86,-36.14,-23.75,-12.86,-6.978,-17.02,-13.92,-5.094,-2.736,0,0,0,0,0,0,0,0,0,0,0,0,0,0,0,0,
758,-74.67,-74.57,-71.38,-45.32,-69.83,-65.45,-45.56,-12.56,-38.12,-26.64,-14.85,-5.869,-21.61,-16.84,-6.948,-5.352,0,0,0,0,0,0,0,0,0,0,0,0,0,0,0,0,
759,-77.78,-77.37,-73.05,-47.05,-70.7,-68.43,-43.05,-15.14,-40.2,-27.77,-14.09,-9.096,-25.12,-20.4,-9.035,-8.885,0,0,0,0,0,0,0,0,0,0,0,0,0,0,0,0,
760,-79.7,-78.78,-79.47,-51.57,-71.93,-72.14,-41.22,-18.51,-42.65,-31.65,-18.37,-15.52,-30.34,-25.96,-14.86,-13.1,0,0,0,0,0,0,0,0,0,0,0,0,0,0,0,0,
761,-76.55,-79.46,-75.76,-54.3,-70.1,-72.55,-43.29,-17.7,-44.81,-35.93,-21.41,-13.46,-30.63,-24.4,-14.82,-9.404,0,0,0,0,0,0,0,0,0,0,0,0,0,0,0,0,
762,-71.1,-75.51,-70.7,-54.02,-65.35,-67.84,-40.29,-15.99,-41.05,-32.51,-18.44,-9.777,-24.26,-19.75,-10.71,-6.486,0,0,0,0,0,0,0,0,0,0,0,0,0,0,0,0,
763,-69.35,-73.65,-75.56,-53.95,-66.62,-68.35,-41.37,-18.11,-37.59,-29.55,-22.75,-14.53,-25.95,-23.45,-17.36,-13.32,0,0,0,0,0,0,0,0,0,0,0,0,0,0,0,0,
764,-73.0,-80.69,-81.56,-54.82,-75.36,-77.04,-52.58,-20.27,-47.18,-35.49,-33.09,-16.9,-35.89,-27.49,-26.65,-16.63,0,0,0,0,0,0,0,0,0,0,0,0,0,0,0,0,
765,-77.94,-85.11,-82.0,-56.16,-81.78,-82.84,-55.67,-19.95,-60.33,-42.05,-34.97,-14.24,-38.33,-26.27,-25.38,-12.56,0,0,0,0,0,0,0,0,0,0,0,0,0,0,0,0,
766,-81.14,-82.34,-83.68,-58.38,-84.52,-84.01,-50.58,-21.0,-63.4,-44.32,-32.88,-14.97,-35.68,-28.22,-23.26,-12.64,0,0,0,0,0,0,0,0,0,0,0,0,0,0,0,0,
767,-81.74,-80.65,-84.87,-58.19,-84.74,-83.97,-49.89,-22.29,-61.92,-44.52,-32.17,-14.87,-34.85,-28.96,-22.57,-13.26,0,0,0,0,0,0,0,0,0,0,0,0,0,0,0,0,
768,-77.96,-77.56,-77.17,-54.42,-77.45,-78.43,-45.26,-19.45,-56.48,-40.85,-24.64,-10.04,-27.88,-20.51,-14.44,-6.505,0,0,0,0,0,0,0,0,0,0,0,0,0,0,0,0,
769,-73.14,-72.56,-67.5,-52.55,-68.08,-71.11,-34.72,-14.57,-44.42,-34.83,-15.98,-4.365,-17.95,-10.51,-6.653,1.706,0,0,0,0,0,0,0,0,0,0,0,0,0,0,0,0,
770,-73.39,-73.77,-66.44,-53.14,-65.87,-69.66,-29.97,-11.39,-38.8,-31.19,-16.01,1.151,-15.45,-4.664,-4.927,6.892,0,0,0,0,0,0,0,0,0,0,0,0,0,0,0,0,
771,-74.55,-75.32,-69.65,-50.61,-66.7,-69.06,-29.73,-10.09,-41.82,-29.53,-15.79,4.405,-14.42,-1.674,-2.263,9.318,0,0,0,0,0,0,0,0,0,0,0,0,0,0,0,0,
772,-69.49,-68.82,-69.98,-44.5,-66.25,-65.62,-27.38,-8.963,-41.4,-27.99,-12.58,4.474,-12.83,-2.042,-1.121,8.52,0,0,0,0,0,0,0,0,0,0,0,0,0,0,0,0,
773,-63.66,-62.82,-67.97,-38.79,-66.69,-63.39,-24.72,-6.508,-41.22,-25.88,-14.9,4.743,-17.5,-3.527,-4.079,7.887,0,0,0,0,0,0,0,0,0,0,0,0,0,0,0,0,
774,-64.19,-62.74,-67.4,-36.34,-68.09,-62.09,-27.67,-4.92,-46.96,-24.16,-18.55,3.588,-22.44,-5.369,-4.556,7.685,0,0,0,0,0,0,0,0,0,0,0,0,0,0,0,0,
775,-65.7,-61.14,-69.25,-37.15,-70.44,-60.47,-33.08,-6.959,-51.49,-25.49,-16.78,0.0491,-21.43,-9.367,-1.73,5.614,0,0,0,0,0,0,0,0,0,0,0,0,0,0,0,0,
776,-65.47,-58.91,-70.08,-39.05,-74.03,-61.71,-32.73,-11.07,-53.12,-28.71,-13.74,-2.421,-20.2,-11.89,1.633,5.983,0,0,0,0,0,0,0,0,0,0,0,0,0,0,0,0,
777,-71.17,-63.82,-70.68,-42.24,-77.65,-66.82,-34.35,-15.36,-55.22,-31.12,-14.06,-5.763,-21.83,-12.64,3.298,8.158,0,0,0,0,0,0,0,0,0,0,0,0,0,0,0,0,
778,-78.69,-69.53,-73.6,-45.97,-79.57,-70.29,-39.5,-18.18,-56.8,-33.3,-16.29,-9.266,-23.3,-14.65,1.761,6.929,0,0,0,0,0,0,0,0,0,0,0,0,0,0,0,0,
779,-75.7,-67.4,-72.44,-46.15,-76.27,-68.09,-35.08,-18.38,-56.19,-34.26,-16.3,-8.168,-23.08,-15.79,0.8773,5.207,0,0,0,0,0,0,0,0,0,0,0,0,0,0,0,0,
780,-68.36,-63.67,-66.63,-44.97,-68.78,-64.89,-33.23,-19.25,-52.46,-33.59,-16.83,-8.25,-23.67,-18.07,0.0074,3.26,0,0,0,0,0,0,0,0,0,0,0,0,0,0,0,0,
781,-66.18,-62.64,-65.03,-46.66,-63.59,-63.03,-41.5,-21.52,-47.64,-34.29,-21.37,-12.39,-25.89,-22.68,-3.773,-0.9043,0,0,0,0,0,0,0,0,0,0,0,0,0,0,0,0,
782,-63.14,-60.61,-65.23,-47.02,-61.39,-59.61,-37.84,-22.2,-45.59,-34.96,-22.59,-12.49,-25.34,-22.45,-4.955,-1.286,0,0,0,0,0,0,0,0,0,0,0,0,0,0,0,0,
783,-58.16,-58.09,-62.78,-44.63,-59.5,-58.01,-29.98,-23.14,-45.55,-33.81,-19.42,-9.675,-21.87,-18.03,-2.801,2.355,0,0,0,0,0,0,0,0,0,0,0,0,0,0,0,0,
784,-56.27,-54.87,-62.39,-44.13,-58.06,-59.03,-36.26,-24.07,-44.13,-33.31,-18.11,-8.057,-18.48,-13.92,-0.4137,4.729,0,0,0,0,0,0,0,0,0,0,0,0,0,0,0,0,
785,-53.95,-51.01,-62.4,-43.35,-56.54,-56.24,-37.15,-21.01,-40.25,-31.13,-13.84,-4.017,-14.3,-8.489,4.025,7.299,0,0,0,0,0,0,0,0,0,0,0,0,0,0,0,0,
786,-51.5,-50.38,-59.81,-38.75,-55.17,-51.96,-27.26,-17.53,-35.9,-25.9,-7.274,-0.8939,-12.54,-5.687,5.897,8.986,0,0,0,0,0,0,0,0,0,0,0,0,0,0,0,0,
787,-54.42,-50.28,-58.84,-34.68,-55.99,-50.75,-25.89,-16.83,-34.37,-23.13,-8.748,-2.183,-15.7,-7.798,2.818,6.888,0,0,0,0,0,0,0,0,0,0,0,0,0,0,0,0,
788,-59.37,-49.74,-59.58,-34.11,-58.88,-50.69,-30.79,-16.04,-36.07,-23.15,-13.71,-2.685,-17.24,-8.279,2.117,4.623,0,0,0,0,0,0,0,0,0,0,0,0,0,0,0,0,
789,-60.6,-52.87,-59.45,-34.48,-60.68,-52.21,-30.58,-16.86,-37.1,-23.1,-12.18,-3.237,-13.75,-7.117,3.207,3.584,0,0,0,0,0,0,0,0,0,0,0,0,0,0,0,0,
790,-58.66,-53.91,-57.57,-35.35,-58.59,-53.74,-26.19,-19.94,-34.11,-23.27,-8.48,-6.027,-9.724,-7.468,2.109,2.388,0,0,0,0,0,0,0,0,0,0,0,0,0,0,0,0,
791,-57.58,-51.94,-54.02,-38.2,-56.27,-53.4,-25.09,-19.98,-31.29,-23.06,-10.9,-7.42,-9.707,-8.252,0.6243,1.715,0,0,0,0,0,0,0,0,0,0,0,0,0,0,0,0,
792,-58.65,-54.45,-53.44,-39.81,-56.84,-55.19,-29.48,-18.12,-33.38,-24.08,-15.65,-7.855,-12.46,-9.681,-0.53,0.9917,0,0,0,0,0,0,0,0,0,0,0,0,0,0,0,0,
793,-57.15,-54.0,-56.34,-36.33,-55.55,-54.67,-30.98,-18.36,-34.93,-25.2,-13.22,-7.119,-12.71,-9.368,0.5611,0.9219,0,0,0,0,0,0,0,0,0,0,0,0,0,0,0,0,
794,-52.63,-46.54,-56.59,-31.77,-53.16,-47.26,-30.48,-17.91,-34.11,-21.03,-9.73,-4.214,-13.05,-6.643,2.463,1.808,0,0,0,0,0,0,0,0,0,0,0,0,0,0,0,0,
795,-49.84,-43.56,-53.91,-31.47,-54.24,-43.6,-35.01,-15.72,-37.92,-17.7,-15.13,-4.517,-18.54,-7.489,-1.07,0.1073,0,0,0,0,0,0,0,0,0,0,0,0,0,0,0,0,
796,-46.6,-44.03,-51.39,-33.65,-53.94,-46.91,-38.32,-15.64,-43.08,-21.54,-19.84,-7.749,-23.7,-11.01,-6.58,-3.604,0,0,0,0,0,0,0,0,0,0,0,0,0,0,0,0,
797,-42.3,-42.21,-49.51,-35.75,-50.59,-47.9,-38.19,-18.15,-42.6,-24.5,-17.61,-9.276,-24.71,-12.88,-8.329,-6.366,0,0,0,0,0,0,0,0,0,0,0,0,0,0,0,0,
798,-40.92,-42.55,-46.52,-36.83,-47.87,-45.79,-36.67,-19.86,-39.67,-24.33,-17.02,-10.97,-24.34,-15.46,-9.096,-8.592,0,0,0,0,0,0,0,0,0,0,0,0,0,0,0,0,
799,-39.06,-42.88,-40.25,-34.03,-45.27,-44.79,-30.62,-18.21,-37.9,-25.71,-18.64,-11.37,-24.27,-17.61,-10.5,-8.553,0,0,0,0,0,0,0,0,0,0,0,0,0,0,0,0,
800,-36.97,-40.85,-36.58,-29.27,-46.46,-45.89,-28.59,-14.74,-40.1,-25.92,-20.04,-7.876,-26.56,-16.15,-11.97,-5.78,0,0,0,0,0,0,0,0,0,0,0,0,0,0,0,0,
801,-39.06,-40.28,-40.25,-27.81,-51.07,-47.07,-33.39,-13.55,-45.09,-24.97,-22.79,-5.986,-27.71,-14.01,-13.26,-5.112,0,0,0,0,0,0,0,0,0,0,0,0,0,0,0,0,
802,-38.87,-37.6,-42.17,-27.9,-49.49,-44.67,-32.32,-14.69,-43.8,-25.89,-23.93,-7.62,-24.13,-13.46,-13.89,-8.037,0,0,0,0,0,0,0,0,0,0,0,0,0,0,0,0,
803,-35.72,-33.87,-38.23,-27.09,-44.52,-41.34,-30.27,-14.88,-38.52,-26.6,-23.95,-9.447,-23.7,-14.9,-15.81,-11.78,0,0,0,0,0,0,0,0,0,0,0,0,0,0,0,0,
804,-36.23,-36.18,-35.33,-27.59,-42.95,-40.59,-35.41,-15.03,-37.43,-26.55,-25.36,-11.36,-27.56,-18.64,-18.12,-14.33,0,0,0,0,0,0,0,0,0,0,0,0,0,0,0,0,
805,-35.16,-38.87,-35.29,-28.94,-41.4,-40.6,-36.98,-18.28,-36.23,-27.3,-25.36,-13.23,-28.7,-22.56,-18.51,-15.28,0,0,0,0,0,0,0,0,0,0,0,0,0,0,0,0,
806,-32.83,-37.25,-35.74,-28.58,-41.35,-42.39,-34.05,-21.74,-35.71,-29.63,-24.39,-13.81,-29.74,-24.96,-19.49,-15.61,0,0,0,0,0,0,0,0,0,0,0,0,0,0,0,0,
807,-36.63,-35.96,-34.76,-25.9,-43.85,-44.92,-35.44,-20.09,-39.98,-33.19,-24.08,-12.82,-31.03,-24.45,-21.29,-15.18,0,0,0,0,0,0,0,0,0,0,0,0,0,0,0,0,
808,-40.38,-35.83,-34.84,-24.23,-45.36,-46.17,-37.91,-16.02,-41.29,-34.25,-23.62,-10.87,-28.92,-20.76,-22.27,-14.23,0,0,0,0,0,0,0,0,0,0,0,0,0,0,0,0,
809,-42.75,-39.46,-40.89,-28.07,-50.07,-51.51,-37.6,-15.51,-40.48,-33.38,-23.07,-9.957,-26.99,-17.81,-21.87,-14.56,0,0,0,0,0,0,0,0,0,0,0,0,0,0,0,0,
810,-47.72,-46.47,-43.59,-32.05,-53.96,-57.34,-35.43,-16.46,-42.59,-34.93,-18.57,-9.746,-23.52,-16.6,-16.76,-14.03,0,0,0,0,0,0,0,0,0,0,0,0,0,0,0,0,
811,-45.2,-45.49,-34.84,-28.74,-47.06,-53.72,-28.8,-15.0,-37.82,-35.39,-9.066,-7.718,-15.97,-14.59,-8.871,-10.07,0,0,0,0,0,0,0,0,0,0,0,0,0,0,0,0,
812,-36.01,-37.6,-27.76,-24.3,-39.11,-46.5,-19.26,-12.58,-27.19,-31.67,-1.738,-3.248,-11.58,-12.11,-2.44,-3.871,0,0,0,0,0,0,0,0,0,0,0,0,0,0,0,0,
813,-32.43,-33.21,-27.71,-23.39,-37.75,-42.11,-15.82,-10.04,-23.99,-27.41,2.035,1.837,-10.56,-9.109,5.111,2.892,0,0,0,0,0,0,0,0,0,0,0,0,0,0,0,0,
814,-30.55,-30.05,-27.52,-22.28,-35.12,-37.86,-21.07,-9.132,-24.96,-23.56,3.421,2.549,-9.441,-7.266,8.905,4.773,0,0,0,0,0,0,0,0,0,0,0,0,0,0,0,0,
815,-30.6,-30.42,-31.99,-24.23,-34.77,-37.84,-28.22,-13.35,-25.68,-22.01,-2.424,-2.354,-12.83,-10.3,2.015,-1.3,0,0,0,0,0,0,0,0,0,0,0,0,0,0,0,0,
816,-38.0,-39.0,-39.31,-29.42,-39.91,-42.72,-33.86,-17.87,-30.43,-24.95,-11.91,-5.899,-18.63,-13.92,-6.231,-7.437,0,0,0,0,0,0,0,0,0,0,0,0,0,0,0,0,
817,-39.65,-41.54,-37.67,-29.57,-39.75,-43.82,-37.42,-17.06,-33.81,-26.38,-15.89,-6.764,-21.16,-14.45,-9.989,-10.86,0,0,0,0,0,0,0,0,0,0,0,0,0,0,0,0,
818,-34.82,-35.24,-34.92,-29.05,-37.82,-43.65,-36.86,-17.3,-33.85,-26.04,-17.87,-10.76,-24.53,-18.05,-15.63,-17.17,0,0,0,0,0,0,0,0,0,0,0,0,0,0,0,0,
819,-38.41,-36.97,-38.87,-34.87,-42.78,-48.64,-37.96,-22.38,-37.76,-31.48,-22.45,-16.47,-29.53,-25.16,-20.86,-23.54,0,0,0,0,0,0,0,0,0,0,0,0,0,0,0,0,
820,-41.41,-42.37,-38.45,-38.16,-44.56,-52.64,-42.4,-24.6,-41.15,-37.41,-22.51,-19.09,-29.88,-28.11,-19.15,-24.35,0,0,0,0,0,0,0,0,0,0,0,0,0,0,0,0,
821,-35.96,-39.64,-33.54,-34.96,-40.81,-51.52,-37.25,-21.25,-39.31,-35.78,-15.9,-18.27,-25.26,-25.53,-12.43,-19.61,0,0,0,0,0,0,0,0,0,0,0,0,0,0,0,0,
822,-35.18,-37.12,-31.37,-33.56,-40.63,-49.5,-26.38,-18.26,-37.82,-32.23,-10.6,-14.84,-20.38,-21.3,-6.062,-11.61,0,0,0,0,0,0,0,0,0,0,0,0,0,0,0,0,
823,-36.74,-38.53,-26.85,-34.5,-39.42,-47.57,-27.77,-17.54,-35.82,-30.31,-9.375,-11.7,-18.76,-18.37,-5.019,-7.436,0,0,0,0,0,0,0,0,0,0,0,0,0,0,0,0,
824,-32.47,-38.01,-22.68,-32.73,-34.8,-45.17,-33.85,-16.83,-32.5,-27.65,-10.66,-12.32,-20.69,-18.8,-9.27,-10.88,0,0,0,0,0,0,0,0,0,0,0,0,0,0,0,0,
825,-29.75,-34.05,-24.66,-28.16,-33.5,-41.86,-31.45,-16.77,-34.01,-26.75,-14.34,-14.92,-22.8,-21.26,-12.53,-14.46,0,0,0,0,0,0,0,0,0,0,0,0,0,0,0,0,
826,-26.05,-24.22,-22.91,-23.05,-30.22,-34.74,-27.74,-18.44,-35.7,-26.69,-16.02,-16.31,-22.74,-21.39,-12.2,-14.21,0,0,0,0,0,0,0,0,0,0,0,0,0,0,0,0,
827,-15.32,-13.55,-16.83,-21.28,-22.04,-26.98,-26.97,-18.98,-30.03,-22.78,-13.27,-16.6,-22.26,-19.48,-12.16,-14.73,0,0,0,0,0,0,0,0,0,0,0,0,0,0,0,0,
828,-9.713,-12.39,-16.27,-24.28,-20.9,-26.83,-27.8,-18.16,-26.28,-20.23,-12.69,-17.67,-24.96,-21.95,-16.66,-18.67,0,0,0,0,0,0,0,0,0,0,0,0,0,0,0,0,
829,-15.29,-16.73,-17.08,-28.41,-28.73,-34.44,-31.81,-20.9,-33.13,-26.08,-17.22,-20.15,-31.87,-29.28,-25.73,-24.33,0,0,0,0,0,0,0,0,0,0,0,0,0,0,0,0,
830,-20.91,-20.19,-17.65,-30.98,-34.37,-42.24,-36.09,-24.27,-41.18,-34.7,-22.52,-20.92,-37.85,-32.73,-33.82,-27.69,0,0,0,0,0,0,0,0,0,0,0,0,0,0,0,0,
831,-21.11,-23.35,-23.32,-29.91,-34.16,-44.09,-39.9,-20.51,-41.8,-37.19,-26.76,-17.94,-38.78,-30.59,-36.65,-27.14,0,0,0,0,0,0,0,0,0,0,0,0,0,0,0,0,
832,-20.97,-23.99,-27.76,-25.74,-33.63,-41.14,-43.11,-15.45,-41.38,-34.6,-30.44,-15.87,-39.6,-30.51,-36.79,-26.77,0,0,0,0,0,0,0,0,0,0,0,0,0,0,0,0,
833,-22.88,-22.61,-26.96,-23.23,-34.82,-38.17,-40.23,-16.31,-44.37,-32.75,-31.88,-17.03,-42.58,-32.43,-36.53,-27.86,0,0,0,0,0,0,0,0,0,0,0,0,0,0,0,0,
834,-21.53,-19.04,-22.77,-20.43,-32.04,-33.07,-32.53,-15.42,-43.57,-30.98,-27.47,-16.67,-39.72,-29.97,-33.0,-26.8,0,0,0,0,0,0,0,0,0,0,0,0,0,0,0,0,
835,-15.0,-10.03,-13.01,-14.91,-25.0,-24.82,-25.33,-11.16,-36.02,-26.2,-17.43,-15.02,-29.93,-25.78,-26.17,-24.79,0,0,0,0,0,0,0,0,0,0,0,0,0,0,0,0,
836,-11.24,-4.636,-4.952,-13.8,-21.73,-22.35,-21.28,-12.42,-28.51,-22.91,-10.04,-16.67,-24.21,-26.43,-22.29,-25.51,0,0,0,0,0,0,0,0,0,0,0,0,0,0,0,0,
837,-13.95,-8.897,-5.28,-16.67,-21.74,-26.66,-23.38,-16.14,-26.29,-25.48,-12.1,-18.96,-27.35,-29.74,-25.08,-27.05,0,0,0,0,0,0,0,0,0,0,0,0,0,0,0,0,
