%OpenBCI Raw EXG Data
%Number of channels = 16
%Sample Rate = 125 Hz
%Board = OpenBCI_GUI$BoardCytonSerialDaisy
Sample Index,EXG Channel 0,EXG Channel 1,EXG Channel 2,EXG Channel 3,EXG Channel 4,EXG Channel 5,EXG Channel 6,EXG Channel 7,EXG Channel 8,EXG Channel 9,EXG Channel 10,EXG Channel 11,EXG Channel 12,EXG Channel 13,EXG Channel 14,EXG Channel 15,Accel Channel 0,Accel Channel 1,Accel Channel 2,Other,Other.1,Other.2,Other.3,Other.4,Other.5,Other.6,Analog Channel 0,Analog Channel 1,Analog Channel 2,Timestamp,Other.7,Timestamp (Formatted),Annotations
1,0.0,0.0,0.0,0.0,0.0,-0.0,-0.0,0.0,0.0,0.0,0.0,0.0,0.0,0.0,0.0,0.0,0,0,0,0,0,0,0,0,0,0,0,0,0,0,0,0,T0
2,13.18,10.35,14.56,9.795,14.79,11.79,11.37,7.715,9.002,9.865,10.05,6.373,9.042,7.715,9.462,7.273,0,0,0,0,0,0,0,0,0,0,0,0,0,0,0,0,
3,9.875,7.435,15.83,6.873,13.59,8.561,14.4,2.152,11.54,6.698,10.82,1.074,5.012,0.5462,7.746,5.993,0,0,0,0,0,0,0,0,0,0,0,0,0,0,0,0,
4,2.761,2.521,11.02,4.642,8.334,4.636,12.94,1.433,8.463,1.634,9.92,1.901,2.937,-0.4961,6.047,6.799,0,0,0,0,0,0,0,0,0,0,0,0,0,0,0,0,
5,2.7,2.757,9.771,8.344,7.112,6.77,9.616,5.954,5.615,3.194,9.194,9.031,4.541,5.7,5.658,8.606,0,0,0,0,0,0,0,0,0,0,0,0,0,0,0,0,
6,1.992,3.685,9.479,7.712,3.16,4.608,6.325,2.124,3.441,3.262,8.314,7.619,1.42,2.751,2.54,5.771,0,0,0,0,0,0,0,0,0,0,0,0,0,0,0,0,
7,-0.6839,4.149,9.317,3.34,-1.31,-2.344,5.359,-2.368,-1.778,-2.489,9.356,1.694,-1.266,-3.999,1.455,2.746,0,0,0,0,0,0,0,0,0,0,0,0,0,0,0,0,
8,2.312,4.803,12.79,4.24,0.9742,-6.165,4.53,-2.9,-6.532,-8.899,7.514,-1.747,-3.151,-9.07,-0.0282,-1.25,0,0,0,0,0,0,0,0,0,0,0,0,0,0,0,0,
9,9.274,8.013,17.54,12.29,7.048,-3.257,5.045,-3.771,-4.879,-10.89,5.68,-1.529,-5.991,-12.99,-2.938,-3.999,0,0,0,0,0,0,0,0,0,0,0,0,0,0,0,0,
10,13.33,12.82,20.7,19.74,10.31,1.79,6.698,-1.992,-0.746,-7.882,6.824,0.3894,-7.696,-12.87,-4.693,-2.993,0,0,0,0,0,0,0,0,0,0,0,0,0,0,0,0,
11,13.4,12.14,20.95,20.0,9.027,0.7397,4.344,-0.8759,-1.97,-6.35,1.884,-3.351,-12.58,-14.89,-9.029,-6.672,0,0,0,0,0,0,0,0,0,0,0,0,0,0,0,0,
12,9.827,5.694,15.81,15.74,3.494,-6.679,-0.1151,-5.63,-8.674,-13.01,-5.623,-10.03,-18.3,-21.26,-12.36,-12.42,0,0,0,0,0,0,0,0,0,0,0,0,0,0,0,0,
13,4.325,0.2099,10.8,12.75,-3.09,-12.69,-2.494,-9.11,-14.88,-21.38,-5.511,-9.98,-17.66,-22.42,-11.06,-11.97,0,0,0,0,0,0,0,0,0,0,0,0,0,0,0,0,
14,3.378,-0.0673,13.48,14.84,-4.238,-12.25,-1.928,-6.871,-16.52,-21.51,-3.551,-6.938,-16.17,-20.19,-12.32,-11.92,0,0,0,0,0,0,0,0,0,0,0,0,0,0,0,0,
15,6.879,3.142,18.74,19.45,-1.473,-8.919,1.132,-5.224,-15.34,-18.07,-4.96,-8.798,-18.25,-22.3,-15.15,-14.93,0,0,0,0,0,0,0,0,0,0,0,0,0,0,0,0,
16,6.714,3.54,18.71,19.8,-2.533,-8.747,0.7273,-8.551,-15.69,-18.56,-6.612,-13.37,-19.77,-24.42,-14.99,-16.44,0,0,0,0,0,0,0,0,0,0,0,0,0,0,0,0,
17,3.551,1.923,14.66,19.25,-5.178,-9.536,-3.198,-10.33,-17.61,-19.32,-7.506,-15.55,-20.02,-22.2,-15.6,-17.74,0,0,0,0,0,0,0,0,0,0,0,0,0,0,0,0,
18,4.015,3.877,12.04,22.47,-3.582,-6.533,-1.862,-4.357,-16.92,-16.7,-7.075,-13.83,-19.03,-17.91,-15.45,-16.66,0,0,0,0,0,0,0,0,0,0,0,0,0,0,0,0,
19,6.144,5.407,13.21,23.44,-1.073,-2.914,1.812,-0.1149,-13.66,-12.67,-6.405,-10.14,-15.78,-13.55,-12.22,-12.5,0,0,0,0,0,0,0,0,0,0,0,0,0,0,0,0,
20,7.09,4.494,15.11,23.18,-0.0457,-2.396,2.132,-3.96,-11.55,-8.682,-7.042,-7.797,-11.99,-11.09,-10.13,-11.37,0,0,0,0,0,0,0,0,0,0,0,0,0,0,0,0,
21,10.29,7.302,17.25,27.63,3.234,-1.919,6.125,-4.869,-8.436,-5.128,-5.424,-6.295,-6.754,-8.653,-7.173,-9.451,0,0,0,0,0,0,0,0,0,0,0,0,0,0,0,0,
22,14.62,11.51,22.87,31.75,7.836,1.475,13.26,-0.8429,-2.413,-2.054,-0.9705,-3.377,-0.7468,-3.392,-2.296,-3.618,0,0,0,0,0,0,0,0,0,0,0,0,0,0,0,0,
23,15.9,13.21,27.47,33.87,9.372,5.662,13.61,0.9878,-0.0395,0.2887,1.815,-0.9155,-0.3804,-0.6924,-2.602,-2.742,0,0,0,0,0,0,0,0,0,0,0,0,0,0,0,0,
24,17.01,17.09,25.81,37.65,9.405,8.459,10.02,3.305,-2.675,2.266,0.9429,-1.053,-5.052,-2.638,-7.86,-5.586,0,0,0,0,0,0,0,0,0,0,0,0,0,0,0,0,
25,19.72,20.9,23.3,38.38,10.21,10.07,9.781,3.369,-3.349,4.656,-3.355,-3.84,-7.964,-3.838,-12.05,-5.696,0,0,0,0,0,0,0,0,0,0,0,0,0,0,0,0,
26,21.09,19.53,25.67,36.36,11.16,10.96,13.52,-1.188,-0.5572,5.867,-4.256,-6.382,-5.554,-2.874,-10.92,-5.125,0,0,0,0,0,0,0,0,0,0,0,0,0,0,0,0,
27,24.59,21.03,33.31,40.36,15.81,13.68,23.27,2.178,6.914,8.121,5.824,-2.869,3.272,1.104,-3.166,-1.735,0,0,0,0,0,0,0,0,0,0,0,0,0,0,0,0,
28,30.76,27.32,40.27,46.16,21.97,17.05,31.87,9.896,17.94,13.64,14.28,2.368,9.581,5.003,0.4224,1.564,0,0,0,0,0,0,0,0,0,0,0,0,0,0,0,0,
29,29.84,25.91,36.72,43.57,18.8,13.39,27.19,6.914,17.96,12.77,8.973,1.552,4.818,2.415,-4.382,-1.653,0,0,0,0,0,0,0,0,0,0,0,0,0,0,0,0,
30,25.55,20.5,30.46,38.69,12.98,7.307,23.72,3.3,7.574,4.6,7.12,3.165,2.877,1.869,-1.104,0.6052,0,0,0,0,0,0,0,0,0,0,0,0,0,0,0,0,
31,31.16,25.03,37.32,41.89,18.66,10.17,35.86,8.633,8.63,4.538,17.66,9.916,10.92,8.95,8.932,10.41,0,0,0,0,0,0,0,0,0,0,0,0,0,0,0,0,
32,39.13,30.96,46.97,48.35,25.67,15.09,43.64,12.18,18.24,10.81,22.54,10.37,13.44,11.75,10.15,12.67,0,0,0,0,0,0,0,0,0,0,0,0,0,0,0,0,
33,39.4,28.66,47.31,50.15,25.16,15.62,40.24,12.23,19.83,11.44,21.86,9.897,12.31,11.37,12.67,14.39,0,0,0,0,0,0,0,0,0,0,0,0,0,0,0,0,
34,40.25,28.57,49.63,49.61,26.87,18.44,42.39,13.33,20.19,11.29,26.81,15.27,17.2,15.35,21.1,21.57,0,0,0,0,0,0,0,0,0,0,0,0,0,0,0,0,
35,43.02,32.73,55.05,50.24,29.59,21.01,45.41,13.05,22.26,12.99,28.27,16.07,18.55,16.68,20.71,22.0,0,0,0,0,0,0,0,0,0,0,0,0,0,0,0,0,
36,43.2,34.26,55.92,51.99,29.55,21.0,47.23,13.73,20.64,13.08,28.04,14.61,18.5,15.82,19.33,21.42,0,0,0,0,0,0,0,0,0,0,0,0,0,0,0,0,
37,45.69,35.45,57.73,52.6,32.6,22.52,55.84,14.42,23.76,15.04,34.48,16.2,22.7,14.58,22.93,22.7,0,0,0,0,0,0,0,0,0,0,0,0,0,0,0,0,
38,46.06,34.27,56.64,48.12,31.34,18.17,53.99,9.579,25.95,12.76,32.15,12.34,17.44,5.865,16.75,14.8,0,0,0,0,0,0,0,0,0,0,0,0,0,0,0,0,
39,40.41,29.82,49.7,43.42,24.55,11.01,42.3,7.297,16.85,3.113,23.48,9.72,9.766,0.9538,10.58,11.87,0,0,0,0,0,0,0,0,0,0,0,0,0,0,0,0,
40,41.2,30.92,51.15,45.74,27.43,15.31,45.94,11.08,15.12,2.766,27.91,14.01,14.71,7.536,16.36,19.62,0,0,0,0,0,0,0,0,0,0,0,0,0,0,0,0,
41,46.45,34.29,56.08,48.71,33.0,20.85,53.52,9.454,23.5,10.06,33.52,12.01,17.66,9.47,20.46,19.29,0,0,0,0,0,0,0,0,0,0,0,0,0,0,0,0,
42,47.04,35.12,55.77,49.6,31.77,19.65,53.41,6.06,23.54,9.965,34.1,10.77,18.45,9.995,26.58,20.72,0,0,0,0,0,0,0,0,0,0,0,0,0,0,0,0,
43,51.18,40.03,61.73,53.31,34.75,22.83,57.67,10.61,24.75,11.59,40.75,19.05,27.14,17.79,36.91,30.42,0,0,0,0,0,0,0,0,0,0,0,0,0,0,0,0,
44,53.54,42.31,62.1,52.68,34.51,23.61,53.67,12.59,29.77,16.92,39.15,18.54,24.75,15.75,30.55,25.06,0,0,0,0,0,0,0,0,0,0,0,0,0,0,0,0,
45,43.51,35.66,47.33,47.5,23.72,16.24,39.97,7.353,21.67,12.83,27.88,11.74,13.01,6.298,18.59,13.89,0,0,0,0,0,0,0,0,0,0,0,0,0,0,0,0,
46,37.82,32.64,45.8,49.02,21.87,15.35,40.55,6.713,14.68,8.748,28.6,16.17,14.64,7.747,21.84,17.17,0,0,0,0,0,0,0,0,0,0,0,0,0,0,0,0,
47,42.51,35.11,55.84,52.72,28.66,20.61,46.48,11.28,21.03,13.0,33.22,22.36,19.17,12.63,24.38,20.05,0,0,0,0,0,0,0,0,0,0,0,0,0,0,0,0,
48,44.65,37.18,54.76,55.05,30.62,24.16,46.95,14.67,24.69,16.22,32.31,23.65,18.55,15.41,22.29,19.12,0,0,0,0,0,0,0,0,0,0,0,0,0,0,0,0,
49,48.18,42.45,56.59,60.38,33.44,27.16,51.81,16.45,25.59,18.24,36.06,24.5,22.16,18.75,27.14,23.16,0,0,0,0,0,0,0,0,0,0,0,0,0,0,0,0,
50,54.32,47.44,63.07,60.67,34.86,25.5,51.31,14.43,26.79,18.24,38.29,21.4,23.41,16.24,30.39,23.93,0,0,0,0,0,0,0,0,0,0,0,0,0,0,0,0,
51,59.11,52.4,62.31,60.17,33.92,24.96,46.18,11.52,23.33,14.53,37.09,22.15,25.5,17.18,34.49,27.6,0,0,0,0,0,0,0,0,0,0,0,0,0,0,0,0,
52,77.96,71.08,73.87,74.66,46.21,38.42,54.88,16.73,29.11,20.02,45.96,34.35,40.03,31.68,50.07,44.64,0,0,0,0,0,0,0,0,0,0,0,0,0,0,0,0,
53,108.8,99.39,98.62,94.03,65.93,57.2,66.95,26.84,46.41,35.76,58.76,45.63,53.16,45.13,62.54,58.33,0,0,0,0,0,0,0,0,0,0,0,0,0,0,0,0,
54,124.5,118.2,111.9,105.4,77.39,69.92,70.06,32.35,56.37,47.87,61.92,49.0,54.27,49.73,61.84,57.91,0,0,0,0,0,0,0,0,0,0,0,0,0,0,0,0,
55,124.5,124.0,117.7,114.1,87.63,81.21,72.84,35.68,59.31,54.66,59.02,48.78,53.36,52.27,60.2,55.32,0,0,0,0,0,0,0,0,0,0,0,0,0,0,0,0,
56,125.3,124.8,124.3,118.5,101.2,95.42,78.79,42.74,65.46,60.83,61.01,49.82,58.36,56.15,65.56,59.15,0,0,0,0,0,0,0,0,0,0,0,0,0,0,0,0,
57,125.6,124.1,124.6,115.8,109.3,108.7,87.23,48.81,75.72,67.9,70.21,54.12,67.9,61.36,73.01,64.82,0,0,0,0,0,0,0,0,0,0,0,0,0,0,0,0,
58,124.4,124.2,123.5,114.8,111.2,114.1,92.31,48.58,85.81,73.75,75.07,54.94,72.25,62.48,74.21,64.8,0,0,0,0,0,0,0,0,0,0,0,0,0,0,0,0,
59,126.4,125.9,125.9,116.9,111.4,111.4,86.93,48.38,86.91,73.82,70.27,53.37,68.03,59.22,69.87,62.71,0,0,0,0,0,0,0,0,0,0,0,0,0,0,0,0,
60,127.4,126.5,125.6,116.2,110.1,107.6,81.95,52.82,80.92,71.56,67.08,58.68,65.74,60.07,69.78,66.38,0,0,0,0,0,0,0,0,0,0,0,0,0,0,0,0,
61,125.8,125.2,123.1,113.3,107.1,104.1,85.57,54.52,79.13,71.68,70.19,63.94,68.35,63.61,74.75,72.36,0,0,0,0,0,0,0,0,0,0,0,0,0,0,0,0,
62,125.2,123.1,121.2,110.3,104.3,100.4,90.06,50.7,81.11,71.64,74.83,64.57,71.22,66.38,78.45,77.23,0,0,0,0,0,0,0,0,0,0,0,0,0,0,0,0,
63,119.5,116.0,115.9,103.3,99.82,97.22,91.91,48.19,81.98,71.77,79.29,68.25,74.19,70.65,80.64,82.2,0,0,0,0,0,0,0,0,0,0,0,0,0,0,0,0,
64,106.4,103.0,106.4,93.47,91.47,91.96,89.13,48.13,80.88,72.62,80.18,68.9,74.58,71.64,80.49,81.93,0,0,0,0,0,0,0,0,0,0,0,0,0,0,0,0,
65,93.93,90.19,95.29,86.16,82.94,84.26,79.76,46.55,76.55,70.95,74.53,62.3,69.91,67.22,75.0,75.0,0,0,0,0,0,0,0,0,0,0,0,0,0,0,0,0,
66,83.01,78.27,84.22,77.28,75.33,76.59,72.16,44.49,70.45,67.1,68.08,61.5,65.06,64.56,69.01,71.01,0,0,0,0,0,0,0,0,0,0,0,0,0,0,0,0,
67,71.67,66.57,78.48,66.06,68.85,70.68,72.68,43.8,65.86,63.38,68.1,67.2,64.92,65.68,68.66,73.73,0,0,0,0,0,0,0,0,0,0,0,0,0,0,0,0,
68,63.44,60.05,78.89,61.88,67.87,69.7,77.66,43.17,66.12,62.21,73.07,67.9,68.03,66.92,71.19,76.35,0,0,0,0,0,0,0,0,0,0,0,0,0,0,0,0,
69,58.29,57.51,79.06,62.75,70.51,71.44,82.02,43.05,71.62,64.06,75.6,65.14,69.33,66.19,71.26,74.05,0,0,0,0,0,0,0,0,0,0,0,0,0,0,0,0,
70,52.44,51.27,75.86,57.49,68.45,66.79,80.92,42.57,73.64,62.44,72.6,63.45,65.94,62.24,66.96,68.12,0,0,0,0,0,0,0,0,0,0,0,0,0,0,0,0,
71,40.34,37.88,65.45,47.57,58.81,54.85,74.51,37.7,66.56,54.09,67.89,58.81,60.43,56.16,61.66,62.72,0,0,0,0,0,0,0,0,0,0,0,0,0,0,0,0,
72,24.45,24.01,52.02,41.06,49.8,47.11,71.9,32.27,59.53,48.2,67.48,53.32,58.97,53.55,62.29,61.9,0,0,0,0,0,0,0,0,0,0,0,0,0,0,0,0,
73,18.45,17.76,50.27,36.02,49.91,47.53,74.23,31.84,59.89,51.01,70.26,52.73,61.05,56.04,65.54,63.08,0,0,0,0,0,0,0,0,0,0,0,0,0,0,0,0,
74,19.23,14.28,52.31,27.97,51.51,46.44,70.72,30.64,60.81,53.38,67.46,52.57,58.72,56.61,62.39,60.71,0,0,0,0,0,0,0,0,0,0,0,0,0,0,0,0,
75,14.01,9.334,45.06,22.34,48.29,43.03,63.79,26.4,58.5,49.26,60.53,49.27,53.63,52.92,57.08,56.53,0,0,0,0,0,0,0,0,0,0,0,0,0,0,0,0,
76,8.281,6.499,41.75,20.46,47.84,42.62,63.46,25.56,58.55,46.26,59.15,46.49,52.51,50.22,54.85,53.47,0,0,0,0,0,0,0,0,0,0,0,0,0,0,0,0,
77,4.037,1.407,43.09,14.98,47.19,39.6,63.8,27.17,58.69,45.35,61.91,46.44,52.79,50.43,54.28,53.16,0,0,0,0,0,0,0,0,0,0,0,0,0,0,0,0,
78,-4.045,-6.961,36.29,9.295,39.4,33.32,59.58,26.54,55.24,42.39,63.45,48.83,53.22,52.26,57.75,56.96,0,0,0,0,0,0,0,0,0,0,0,0,0,0,0,0,
79,-12.03,-12.86,28.52,7.785,31.42,29.31,55.2,23.91,52.7,41.59,62.22,49.58,54.12,52.89,61.12,58.44,0,0,0,0,0,0,0,0,0,0,0,0,0,0,0,0,
80,-19.19,-18.35,25.38,5.505,28.09,26.35,51.93,23.21,49.97,42.27,59.27,47.83,54.73,53.13,61.23,57.64,0,0,0,0,0,0,0,0,0,0,0,0,0,0,0,0,
81,-21.27,-19.91,26.66,5.013,30.24,27.5,53.5,27.08,48.55,42.1,61.11,49.35,58.69,56.58,65.37,61.9,0,0,0,0,0,0,0,0,0,0,0,0,0,0,0,0,
82,-14.57,-14.62,31.96,6.359,34.49,31.89,56.22,28.12,52.54,44.37,63.18,48.77,58.31,54.44,65.31,61.0,0,0,0,0,0,0,0,0,0,0,0,0,0,0,0,0,
83,-13.49,-13.3,29.48,3.1,31.64,29.71,49.42,22.59,49.93,42.9,55.74,41.3,47.2,43.07,54.34,50.67,0,0,0,0,0,0,0,0,0,0,0,0,0,0,0,0,
84,-18.63,-16.79,23.09,0.919,26.71,24.07,43.33,20.78,39.89,35.38,50.15,38.01,41.2,37.17,49.27,46.4,0,0,0,0,0,0,0,0,0,0,0,0,0,0,0,0,
85,-19.36,-20.85,23.11,0.8149,24.1,18.34,44.23,21.89,36.83,30.29,50.79,37.87,41.26,35.32,49.1,44.36,0,0,0,0,0,0,0,0,0,0,0,0,0,0,0,0,
86,-25.34,-28.53,15.94,-4.008,14.7,8.45,38.59,17.34,32.43,24.2,44.19,31.95,33.85,27.32,41.09,35.73,0,0,0,0,0,0,0,0,0,0,0,0,0,0,0,0,
87,-34.05,-32.03,6.688,-5.41,7.94,5.132,33.92,14.97,22.73,17.36,38.27,29.44,30.29,24.89,37.46,34.01,0,0,0,0,0,0,0,0,0,0,0,0,0,0,0,0,
88,-31.65,-28.15,12.72,-0.387,13.98,11.91,39.46,18.91,24.52,20.86,42.24,33.61,35.61,30.86,41.05,39.03,0,0,0,0,0,0,0,0,0,0,0,0,0,0,0,0,
89,-30.04,-29.16,16.03,-0.6207,16.27,11.26,39.22,18.86,30.3,25.46,42.04,32.7,33.69,29.5,37.32,35.94,0,0,0,0,0,0,0,0,0,0,0,0,0,0,0,0,
90,-35.19,-33.43,7.979,-5.073,11.06,3.841,34.49,14.44,26.09,19.24,38.24,27.3,28.73,23.05,32.73,30.3,0,0,0,0,0,0,0,0,0,0,0,0,0,0,0,0,
91,-34.57,-32.52,5.349,-5.06,10.86,3.713,35.89,13.35,23.39,13.33,40.18,26.31,30.78,22.69,36.29,32.18,0,0,0,0,0,0,0,0,0,0,0,0,0,0,0,0,
92,-31.34,-30.13,3.748,-1.665,12.08,5.888,33.36,16.01,25.08,13.84,39.61,28.33,31.17,24.8,39.02,35.53,0,0,0,0,0,0,0,0,0,0,0,0,0,0,0,0,
93,-32.48,-29.07,-2.509,-0.242,10.18,3.246,27.83,17.88,22.62,13.99,36.65,26.84,28.03,23.99,37.29,34.01,0,0,0,0,0,0,0,0,0,0,0,0,0,0,0,0,
94,-34.75,-30.14,-3.663,-3.34,9.035,-0.0186,28.51,15.92,19.73,12.76,38.31,23.68,26.87,21.98,34.4,30.88,0,0,0,0,0,0,0,0,0,0,0,0,0,0,0,0,
95,-36.62,-33.2,-0.7093,-5.771,8.883,-0.8698,30.24,14.15,19.46,12.06,39.56,25.76,26.71,21.94,32.58,31.51,0,0,0,0,0,0,0,0,0,0,0,0,0,0,0,0,
96,-35.56,-32.22,1.754,-3.653,10.03,1.185,32.39,14.69,20.36,12.85,39.87,28.25,27.34,23.18,33.57,33.65,0,0,0,0,0,0,0,0,0,0,0,0,0,0,0,0,
97,-34.92,-31.14,0.3716,-5.463,8.15,0.8619,33.28,10.85,20.37,12.67,38.71,22.48,25.18,19.87,31.18,30.15,0,0,0,0,0,0,0,0,0,0,0,0,0,0,0,0,
98,-41.88,-37.82,-6.599,-12.04,0.5317,-6.067,28.01,7.596,14.64,7.613,32.92,17.42,19.37,15.45,26.02,25.52,0,0,0,0,0,0,0,0,0,0,0,0,0,0,0,0,
99,-47.05,-42.99,-8.699,-12.78,-2.195,-9.803,25.46,13.52,9.443,5.012,30.1,19.82,17.47,17.32,26.41,25.51,0,0,0,0,0,0,0,0,0,0,0,0,0,0,0,0,
100,-44.85,-41.03,-8.04,-10.74,-0.8083,-7.637,23.89,14.46,9.403,7.492,26.92,17.84,13.72,15.26,23.08,20.31,0,0,0,0,0,0,0,0,0,0,0,0,0,0,0,0,
101,-44.13,-39.01,-13.8,-11.21,-3.554,-7.404,18.58,6.282,4.706,4.858,18.29,12.62,6.437,8.034,16.39,13.2,0,0,0,0,0,0,0,0,0,0,0,0,0,0,0,0,
102,-41.73,-36.49,-13.07,-10.42,-1.792,-5.943,22.5,7.125,1.376,3.133,18.14,14.07,10.21,11.14,21.86,17.71,0,0,0,0,0,0,0,0,0,0,0,0,0,0,0,0,
103,-39.81,-37.62,-10.49,-15.15,0.3672,-6.28,24.33,10.81,5.93,7.493,19.06,11.13,14.2,13.94,24.45,19.84,0,0,0,0,0,0,0,0,0,0,0,0,0,0,0,0,
104,-49.02,-47.55,-22.98,-23.66,-7.379,-12.84,11.83,7.552,2.723,3.798,10.05,4.168,8.04,7.447,17.17,14.58,0,0,0,0,0,0,0,0,0,0,0,0,0,0,0,0,
105,-52.29,-48.05,-27.49,-18.06,-6.151,-9.091,13.21,13.92,-0.0456,0.7466,13.69,10.05,12.2,11.08,22.42,20.71,0,0,0,0,0,0,0,0,0,0,0,0,0,0,0,0,
106,-42.25,-35.55,-16.75,-9.11,3.881,1.325,24.72,20.82,11.23,10.7,23.25,15.1,17.9,16.14,26.36,25.11,0,0,0,0,0,0,0,0,0,0,0,0,0,0,0,0,
107,-44.02,-35.17,-21.64,-14.58,-3.163,-3.636,14.59,7.061,10.29,10.83,11.63,5.902,5.527,6.015,13.51,14.44,0,0,0,0,0,0,0,0,0,0,0,0,0,0,0,0,
108,-52.28,-42.65,-31.95,-17.09,-12.96,-10.11,3.907,-2.671,-5.052,0.0107,2.339,2.867,-0.0748,3.988,10.88,12.6,0,0,0,0,0,0,0,0,0,0,0,0,0,0,0,0,
109,-45.99,-38.12,-23.98,-11.0,-5.994,-3.881,12.4,6.93,-4.272,3.213,11.16,8.857,8.096,13.1,16.81,18.91,0,0,0,0,0,0,0,0,0,0,0,0,0,0,0,0,
110,-41.03,-34.88,-19.08,-13.04,-2.566,-2.114,14.12,9.165,2.279,8.801,10.29,6.833,4.892,9.453,8.513,13.08,0,0,0,0,0,0,0,0,0,0,0,0,0,0,0,0,
111,-46.15,-41.25,-27.09,-16.75,-8.202,-5.824,5.609,2.001,-4.044,2.052,-0.4172,3.05,-3.127,3.11,-0.1429,6.698,0,0,0,0,0,0,0,0,0,0,0,0,0,0,0,0,
112,-45.82,-41.48,-29.11,-15.02,-7.347,-4.029,6.299,3.66,-7.253,0.3249,0.1366,5.843,-0.757,7.874,2.019,9.005,0,0,0,0,0,0,0,0,0,0,0,0,0,0,0,0,
113,-42.27,-36.37,-24.94,-17.21,-3.591,-3.108,13.36,7.581,-1.75,6.776,7.275,7.152,4.146,11.21,5.496,9.977,0,0,0,0,0,0,0,0,0,0,0,0,0,0,0,0,
114,-42.22,-35.13,-22.68,-18.07,-2.761,-4.398,17.39,7.838,2.487,8.518,11.75,6.714,7.776,10.49,8.763,10.54,0,0,0,0,0,0,0,0,0,0,0,0,0,0,0,0,
115,-40.41,-34.11,-21.04,-13.9,-1.591,-3.278,18.4,10.16,5.504,7.379,14.28,8.943,11.8,11.98,11.79,12.98,0,0,0,0,0,0,0,0,0,0,0,0,0,0,0,0,
116,-37.53,-32.63,-20.47,-15.26,-0.2782,-2.515,20.34,11.87,8.36,7.623,16.8,9.687,15.71,13.26,15.31,13.09,0,0,0,0,0,0,0,0,0,0,0,0,0,0,0,0,
117,-32.79,-29.56,-17.58,-16.18,3.603,1.442,26.99,12.78,12.99,10.26,23.51,9.477,22.17,15.43,22.07,13.87,0,0,0,0,0,0,0,0,0,0,0,0,0,0,0,0,
118,-27.16,-24.95,-12.35,-11.49,7.159,6.337,30.74,14.67,18.88,15.87,28.15,11.34,24.7,17.4,22.52,15.33,0,0,0,0,0,0,0,0,0,0,0,0,0,0,0,0,
119,-33.72,-31.68,-16.0,-15.68,1.109,-1.118,23.68,12.23,14.84,14.74,20.93,10.79,16.57,13.57,15.14,14.17,0,0,0,0,0,0,0,0,0,0,0,0,0,0,0,0,
120,-43.89,-41.74,-21.4,-21.62,-3.398,-8.532,20.67,11.18,6.562,7.448,18.58,12.15,13.77,14.63,18.7,18.43,0,0,0,0,0,0,0,0,0,0,0,0,0,0,0,0,
121,-37.41,-33.03,-14.42,-11.41,4.804,1.255,30.92,18.65,13.11,11.59,31.75,20.47,23.2,25.31,29.78,26.09,0,0,0,0,0,0,0,0,0,0,0,0,0,0,0,0,
122,-32.8,-25.97,-12.63,-5.591,5.76,4.915,32.7,20.8,20.47,18.7,33.08,20.87,21.47,23.87,24.13,20.85,0,0,0,0,0,0,0,0,0,0,0,0,0,0,0,0,
123,-45.65,-41.17,-24.0,-20.67,-6.678,-10.74,20.69,11.98,8.612,8.625,19.12,11.97,8.339,11.11,12.17,12.01,0,0,0,0,0,0,0,0,0,0,0,0,0,0,0,0,
124,-50.35,-50.23,-25.74,-30.45,-9.176,-18.03,17.55,9.514,-1.143,-1.083,18.3,12.71,8.446,11.29,14.86,15.72,0,0,0,0,0,0,0,0,0,0,0,0,0,0,0,0,
125,-42.11,-41.03,-21.19,-21.89,-3.065,-10.42,21.57,17.21,5.186,5.124,22.04,17.87,14.01,15.97,16.83,17.22,0,0,0,0,0,0,0,0,0,0,0,0,0,0,0,0,
126,-41.08,-34.75,-23.33,-12.67,-3.37,-5.841,19.77,21.27,8.235,9.608,16.06,15.02,11.09,11.17,11.56,11.35,0,0,0,0,0,0,0,0,0,0,0,0,0,0,0,0,
127,-43.98,-35.54,-20.9,-11.33,-4.913,-6.384,17.93,17.4,5.437,6.987,16.4,12.08,10.39,8.881,13.12,11.97,0,0,0,0,0,0,0,0,0,0,0,0,0,0,0,0,
128,-48.51,-41.0,-21.52,-14.75,-9.131,-11.84,14.13,11.35,4.22,4.124,17.38,9.94,10.14,8.666,13.45,11.89,0,0,0,0,0,0,0,0,0,0,0,0,0,0,0,0,
129,-56.59,-48.2,-33.07,-17.74,-16.75,-18.74,7.577,9.824,-1.149,-1.179,9.775,5.48,6.849,5.127,9.813,7.179,0,0,0,0,0,0,0,0,0,0,0,0,0,0,0,0,
130,-52.45,-44.36,-31.67,-17.35,-12.97,-15.99,9.335,14.42,-2.639,-2.116,10.64,5.708,10.68,7.205,13.72,9.087,0,0,0,0,0,0,0,0,0,0,0,0,0,0,0,0,
131,-43.08,-38.04,-22.03,-19.52,-7.021,-13.06,9.802,16.56,3.713,2.349,13.36,7.171,11.53,8.899,12.42,9.23,0,0,0,0,0,0,0,0,0,0,0,0,0,0,0,0,
132,-50.15,-45.0,-30.0,-24.55,-16.1,-20.66,-0.9726,11.24,-0.8249,-1.341,3.343,2.031,-0.3515,1.191,0.092,0.726,0,0,0,0,0,0,0,0,0,0,0,0,0,0,0,0,
133,-58.72,-51.82,-40.86,-25.17,-24.41,-24.97,-7.466,6.703,-12.87,-7.7,-2.661,-2.651,-8.269,-4.018,-3.106,-1.711,0,0,0,0,0,0,0,0,0,0,0,0,0,0,0,0,
134,-52.17,-46.3,-35.7,-20.04,-19.19,-18.47,-2.075,9.188,-11.86,-4.079,3.614,1.062,-3.602,0.9558,5.394,6.565,0,0,0,0,0,0,0,0,0,0,0,0,0,0,0,0,
135,-44.88,-38.93,-28.12,-13.88,-13.41,-11.84,5.203,12.03,-3.428,2.259,9.174,6.478,3.923,7.474,11.84,14.44,0,0,0,0,0,0,0,0,0,0,0,0,0,0,0,0,
136,-47.07,-38.69,-29.45,-15.45,-14.73,-12.3,5.627,8.525,-1.958,2.963,8.014,5.667,6.394,8.347,12.11,15.1,0,0,0,0,0,0,0,0,0,0,0,0,0,0,0,0,
137,-49.24,-39.79,-29.67,-20.25,-13.78,-12.07,3.462,6.504,-2.879,3.105,7.809,6.314,8.327,10.52,12.71,14.31,0,0,0,0,0,0,0,0,0,0,0,0,0,0,0,0,
138,-41.49,-33.08,-19.93,-14.09,-2.991,-1.262,10.86,11.96,5.501,11.33,17.13,11.84,17.6,20.22,18.91,17.96,0,0,0,0,0,0,0,0,0,0,0,0,0,0,0,0,
139,-33.93,-26.96,-14.9,-9.744,3.802,6.883,15.98,14.13,17.55,22.09,21.33,9.346,19.92,21.91,17.32,14.54,0,0,0,0,0,0,0,0,0,0,0,0,0,0,0,0,
140,-41.48,-33.44,-27.01,-18.31,-5.878,-1.541,2.225,10.21,13.06,18.55,7.72,1.94,5.178,9.386,2.79,2.267,0,0,0,0,0,0,0,0,0,0,0,0,0,0,0,0,
141,-50.04,-39.23,-35.97,-19.36,-13.0,-8.053,-6.905,10.43,-1.809,6.806,2.232,3.668,0.0012,5.386,1.859,3.568,0,0,0,0,0,0,0,0,0,0,0,0,0,0,0,0,
142,-44.18,-33.57,-26.98,-10.87,-3.885,0.0149,5.454,13.88,0.5716,7.939,16.24,9.816,13.45,13.98,17.44,16.24,0,0,0,0,0,0,0,0,0,0,0,0,0,0,0,0,
143,-36.66,-27.91,-15.1,-8.466,6.556,8.344,17.04,15.74,15.04,17.31,24.05,15.8,20.28,17.72,21.02,17.43,0,0,0,0,0,0,0,0,0,0,0,0,0,0,0,0,
144,-34.62,-26.9,-11.7,-9.853,10.58,10.74,16.29,14.61,20.78,20.28,21.17,18.21,18.0,16.33,13.66,11.67,0,0,0,0,0,0,0,0,0,0,0,0,0,0,0,0,
145,-36.42,-30.1,-17.66,-15.69,8.841,8.995,9.292,7.737,20.07,16.87,18.48,7.096,16.98,13.59,11.31,9.386,0,0,0,0,0,0,0,0,0,0,0,0,0,0,0,0,
146,-42.7,-36.0,-25.39,-23.11,2.693,4.985,5.159,4.45,16.7,11.58,16.78,-2.395,15.67,10.93,12.65,7.862,0,0,0,0,0,0,0,0,0,0,0,0,0,0,0,0,
147,-38.92,-30.91,-17.89,-18.32,5.793,8.538,16.96,10.81,14.99,11.89,22.56,3.888,18.89,14.55,16.6,8.619,0,0,0,0,0,0,0,0,0,0,0,0,0,0,0,0,
148,-26.98,-20.73,-5.516,-12.86,14.31,14.13,30.79,12.11,21.75,16.39,29.15,4.944,22.36,14.62,17.47,7.401,0,0,0,0,0,0,0,0,0,0,0,0,0,0,0,0,
149,-29.82,-24.33,-9.445,-19.52,10.17,8.449,27.66,5.334,22.81,10.73,23.46,-3.581,15.56,3.995,10.38,0.7047,0,0,0,0,0,0,0,0,0,0,0,0,0,0,0,0,
150,-34.84,-27.97,-12.35,-23.83,5.7,3.056,26.41,1.633,14.34,0.5844,18.92,-6.908,9.46,-2.584,5.976,-3.304,0,0,0,0,0,0,0,0,0,0,0,0,0,0,0,0,
151,-27.46,-23.42,-5.218,-24.13,9.9,3.64,31.16,-1.303,12.45,-0.4259,18.79,-10.74,7.671,-3.974,2.999,-6.871,0,0,0,0,0,0,0,0,0,0,0,0,0,0,0,0,
152,-29.89,-29.86,-11.04,-30.66,4.342,-3.859,21.14,-5.94,9.941,-2.447,8.863,-16.03,0.6122,-9.457,-6.071,-13.11,0,0,0,0,0,0,0,0,0,0,0,0,0,0,0,0,
153,-41.68,-40.11,-24.58,-35.37,-7.604,-13.84,7.733,-7.013,-0.188,-10.32,-0.457,-16.88,-4.488,-13.28,-10.81,-13.76,0,0,0,0,0,0,0,0,0,0,0,0,0,0,0,0,
154,-42.08,-37.18,-25.55,-32.35,-9.514,-13.37,7.942,-4.954,-4.487,-12.5,3.274,-13.54,-1.331,-9.521,-5.595,-7.216,0,0,0,0,0,0,0,0,0,0,0,0,0,0,0,0,
155,-36.71,-32.71,-18.87,-29.97,-6.55,-9.604,13.78,-1.819,-2.442,-6.985,11.09,-0.6919,3.645,-1.061,1.397,1.378,0,0,0,0,0,0,0,0,0,0,0,0,0,0,0,0,
156,-35.83,-34.76,-15.18,-31.37,-7.149,-11.14,14.21,-0.4718,-1.252,-1.516,10.56,6.303,2.636,0.3988,-0.1832,1.255,0,0,0,0,0,0,0,0,0,0,0,0,0,0,0,0,
157,-40.41,-37.69,-20.28,-32.17,-11.88,-16.49,4.372,-3.43,-4.995,-5.145,-0.0158,-6.472,-6.634,-9.463,-9.813,-8.637,0,0,0,0,0,0,0,0,0,0,0,0,0,0,0,0,
158,-46.19,-39.52,-25.88,-32.5,-14.27,-19.6,-1.537,-5.911,-11.75,-14.09,-3.685,-13.27,-10.73,-13.23,-11.08,-10.16,0,0,0,0,0,0,0,0,0,0,0,0,0,0,0,0,
159,-43.51,-38.9,-18.31,-34.96,-8.661,-18.72,7.178,-6.173,-8.714,-14.48,3.329,-9.703,-6.391,-11.11,-6.804,-8.547,0,0,0,0,0,0,0,0,0,0,0,0,0,0,0,0,
160,-37.64,-37.36,-10.72,-35.04,-4.389,-19.18,10.98,-6.673,-1.972,-11.4,1.535,-13.28,-8.649,-17.18,-12.42,-17.99,0,0,0,0,0,0,0,0,0,0,0,0,0,0,0,0,
161,-39.3,-38.75,-14.53,-30.92,-8.095,-20.81,5.211,-6.6,-5.28,-12.57,-4.773,-16.53,-12.47,-20.19,-16.81,-23.42,0,0,0,0,0,0,0,0,0,0,0,0,0,0,0,0,
162,-45.69,-43.79,-20.11,-30.5,-15.06,-22.46,3.338,-7.717,-9.874,-12.2,-3.096,-19.85,-8.131,-15.92,-12.75,-21.08,0,0,0,0,0,0,0,0,0,0,0,0,0,0,0,0,
163,-47.33,-45.7,-20.5,-30.09,-15.55,-21.72,6.74,-5.5,-8.618,-10.28,2.036,-16.04,0.6736,-8.985,-7.032,-16.02,0,0,0,0,0,0,0,0,0,0,0,0,0,0,0,0,
164,-35.78,-35.27,-11.17,-20.36,-1.711,-10.65,14.47,6.365,1.69,-2.36,9.95,4.942,9.883,3.026,-1.815,-7.254,0,0,0,0,0,0,0,0,0,0,0,0,0,0,0,0,
165,-27.0,-27.33,-7.221,-13.73,5.467,-2.998,11.99,11.33,12.44,7.313,9.729,2.378,4.728,-0.4201,-8.31,-12.94,0,0,0,0,0,0,0,0,0,0,0,0,0,0,0,0,
166,-35.77,-34.93,-19.92,-17.58,-5.889,-9.37,-0.0654,1.577,3.595,0.2953,0.3174,-21.81,-8.319,-15.12,-16.46,-21.22,0,0,0,0,0,0,0,0,0,0,0,0,0,0,0,0,
167,-33.76,-33.72,-16.87,-14.72,-3.138,-4.766,9.564,0.9677,-1.115,-3.496,6.572,-9.7,-1.126,-4.558,-4.094,-4.021,0,0,0,0,0,0,0,0,0,0,0,0,0,0,0,0,
168,-18.99,-21.17,-1.647,-5.245,9.437,7.97,21.65,10.4,14.8,12.0,14.53,9.692,6.499,7.844,2.717,4.413,0,0,0,0,0,0,0,0,0,0,0,0,0,0,0,0,
169,-27.84,-26.49,-15.45,-10.13,-3.685,-1.508,1.484,3.651,11.03,11.12,-4.194,-13.46,-11.05,-11.48,-17.7,-18.77,0,0,0,0,0,0,0,0,0,0,0,0,0,0,0,0,
170,-52.54,-46.8,-43.2,-30.77,-27.95,-24.04,-26.22,-17.17,-13.77,-11.9,-33.38,-43.03,-33.52,-36.11,-43.66,-41.72,0,0,0,0,0,0,0,0,0,0,0,0,0,0,0,0,
171,-73.99,-67.54,-64.94,-50.44,-46.49,-42.43,-46.49,-31.84,-32.16,-30.29,-55.65,-51.28,-49.34,-48.14,-60.38,-52.54,0,0,0,0,0,0,0,0,0,0,0,0,0,0,0,0,
172,-88.55,-80.13,-81.5,-56.51,-59.59,-52.11,-60.01,-36.12,-48.92,-41.35,-62.99,-50.62,-54.1,-50.05,-60.88,-53.21,0,0,0,0,0,0,0,0,0,0,0,0,0,0,0,0,
173,-81.92,-73.83,-75.19,-53.89,-55.69,-46.92,-57.08,-37.32,-53.46,-41.55,-54.78,-48.84,-45.61,-45.04,-53.48,-49.72,0,0,0,0,0,0,0,0,0,0,0,0,0,0,0,0,
174,-76.16,-71.05,-69.79,-59.93,-54.31,-47.05,-60.44,-42.33,-48.36,-39.41,-56.56,-54.06,-48.53,-50.23,-59.97,-57.66,0,0,0,0,0,0,0,0,0,0,0,0,0,0,0,0,
175,-87.95,-80.09,-85.65,-65.73,-64.33,-56.21,-68.79,-44.49,-57.08,-49.84,-63.2,-55.55,-55.85,-55.02,-62.03,-58.27,0,0,0,0,0,0,0,0,0,0,0,0,0,0,0,0,
176,-77.33,-66.51,-76.16,-51.32,-50.68,-43.34,-51.41,-34.82,-52.81,-46.15,-49.22,-42.11,-41.62,-40.89,-46.62,-42.07,0,0,0,0,0,0,0,0,0,0,0,0,0,0,0,0,
177,-56.25,-49.7,-52.66,-41.6,-32.01,-29.36,-40.92,-28.4,-30.91,-27.72,-39.65,-38.54,-33.66,-36.37,-45.09,-42.48,0,0,0,0,0,0,0,0,0,0,0,0,0,0,0,0,
178,-67.73,-65.36,-64.62,-56.58,-43.62,-43.93,-57.14,-36.96,-33.79,-32.9,-49.1,-49.81,-46.02,-50.32,-55.36,-55.37,0,0,0,0,0,0,0,0,0,0,0,0,0,0,0,0,
179,-80.14,-77.52,-78.11,-64.2,-52.68,-51.72,-58.59,-44.39,-45.81,-44.42,-51.47,-52.33,-49.18,-53.22,-54.69,-54.32,0,0,0,0,0,0,0,0,0,0,0,0,0,0,0,0,
180,-74.45,-70.63,-72.12,-56.05,-47.08,-43.07,-51.21,-43.12,-43.08,-37.75,-50.5,-50.66,-48.32,-49.19,-54.56,-51.76,0,0,0,0,0,0,0,0,0,0,0,0,0,0,0,0,
181,-77.0,-72.83,-75.75,-57.65,-51.72,-46.48,-57.68,-42.85,-49.25,-37.36,-54.58,-53.22,-54.68,-50.92,-53.97,-51.82,0,0,0,0,0,0,0,0,0,0,0,0,0,0,0,0,
182,-78.13,-76.05,-76.87,-64.83,-55.24,-52.59,-54.94,-44.88,-57.34,-43.97,-49.93,-51.33,-51.12,-48.21,-44.91,-45.16,0,0,0,0,0,0,0,0,0,0,0,0,0,0,0,0,
183,-75.34,-76.97,-72.83,-69.73,-55.16,-56.0,-50.27,-47.79,-52.41,-43.86,-49.63,-49.89,-47.28,-47.06,-47.07,-45.45,0,0,0,0,0,0,0,0,0,0,0,0,0,0,0,0,
184,-88.25,-89.46,-86.72,-76.67,-67.49,-67.37,-64.49,-51.2,-56.51,-49.09,-61.64,-51.63,-55.51,-52.02,-56.45,-50.9,0,0,0,0,0,0,0,0,0,0,0,0,0,0,0,0,
185,-94.42,-90.75,-92.88,-72.26,-71.36,-66.31,-68.18,-48.09,-65.18,-51.8,-60.33,-46.62,-54.84,-47.43,-50.71,-44.52,0,0,0,0,0,0,0,0,0,0,0,0,0,0,0,0,
186,-79.5,-74.64,-76.94,-60.64,-57.38,-50.98,-51.72,-40.85,-56.86,-39.65,-48.64,-41.32,-46.02,-39.59,-44.04,-38.38,0,0,0,0,0,0,0,0,0,0,0,0,0,0,0,0,
187,-74.0,-73.63,-74.97,-67.83,-55.65,-53.47,-50.11,-43.79,-49.76,-35.87,-50.8,-47.62,-51.52,-47.07,-52.93,-45.98,0,0,0,0,0,0,0,0,0,0,0,0,0,0,0,0,
188,-85.26,-86.84,-89.73,-85.95,-71.36,-72.33,-67.06,-56.38,-62.54,-51.23,-61.32,-59.7,-66.26,-61.93,-64.85,-56.86,0,0,0,0,0,0,0,0,0,0,0,0,0,0,0,0,
189,-92.09,-91.2,-94.22,-91.12,-82.57,-83.43,-76.05,-62.65,-79.13,-65.5,-66.04,-65.93,-72.72,-68.25,-67.07,-60.84,0,0,0,0,0,0,0,0,0,0,0,0,0,0,0,0,
190,-89.63,-88.76,-89.27,-86.52,-83.14,-84.12,-73.0,-60.58,-82.46,-69.06,-64.07,-63.8,-68.34,-65.69,-59.92,-57.0,0,0,0,0,0,0,0,0,0,0,0,0,0,0,0,0,
191,-84.4,-85.65,-84.62,-83.58,-78.08,-79.35,-69.85,-60.48,-76.15,-67.03,-59.52,-59.67,-60.29,-60.53,-52.55,-50.65,0,0,0,0,0,0,0,0,0,0,0,0,0,0,0,0,
192,-79.74,-79.86,-80.18,-80.72,-70.74,-70.0,-66.08,-59.8,-68.15,-60.8,-57.71,-58.52,-54.92,-56.38,-53.55,-50.16,0,0,0,0,0,0,0,0,0,0,0,0,0,0,0,0,
193,-79.99,-77.92,-81.88,-77.98,-69.63,-65.12,-62.34,-57.76,-62.46,-54.67,-62.72,-62.99,-58.98,-59.77,-64.08,-59.8,0,0,0,0,0,0,0,0,0,0,0,0,0,0,0,0,
194,-87.22,-84.67,-92.92,-82.78,-80.53,-73.56,-71.26,-65.84,-69.47,-60.95,-74.04,-72.48,-75.37,-72.0,-77.74,-72.95,0,0,0,0,0,0,0,0,0,0,0,0,0,0,0,0,
195,-88.88,-85.46,-95.14,-85.88,-87.57,-80.72,-80.54,-73.01,-85.44,-72.94,-77.63,-73.62,-84.29,-75.27,-78.48,-73.46,0,0,0,0,0,0,0,0,0,0,0,0,0,0,0,0,
196,-77.95,-74.45,-81.42,-77.07,-79.45,-75.21,-70.04,-65.21,-85.14,-69.77,-69.16,-67.37,-75.95,-69.6,-70.31,-67.57,0,0,0,0,0,0,0,0,0,0,0,0,0,0,0,0,
197,-77.76,-76.44,-79.9,-78.6,-79.16,-79.89,-65.77,-64.95,-77.5,-66.41,-73.35,-73.42,-77.95,-79.29,-77.07,-76.0,0,0,0,0,0,0,0,0,0,0,0,0,0,0,0,0,
198,-91.63,-91.82,-92.17,-92.15,-90.97,-95.15,-79.86,-75.89,-87.25,-80.07,-85.92,-78.68,-87.3,-87.91,-84.41,-80.82,0,0,0,0,0,0,0,0,0,0,0,0,0,0,0,0,
199,-87.02,-87.78,-85.57,-85.72,-85.48,-88.38,-76.94,-68.96,-89.75,-80.38,-78.08,-66.48,-76.25,-72.06,-73.37,-67.26,0,0,0,0,0,0,0,0,0,0,0,0,0,0,0,0,
200,-73.59,-74.93,-72.39,-73.13,-72.48,-72.92,-61.5,-54.57,-73.67,-63.07,-67.67,-60.43,-66.72,-61.94,-68.85,-62.47,0,0,0,0,0,0,0,0,0,0,0,0,0,0,0,0,
201,-79.6,-79.81,-77.49,-79.52,-75.82,-75.23,-61.5,-57.4,-70.5,-62.05,-70.77,-64.05,-73.77,-67.58,-74.25,-66.95,0,0,0,0,0,0,0,0,0,0,0,0,0,0,0,0,
202,-82.66,-81.51,-79.95,-81.17,-77.23,-76.07,-66.48,-64.31,-75.67,-67.4,-70.44,-61.33,-75.93,-66.53,-73.15,-65.14,0,0,0,0,0,0,0,0,0,0,0,0,0,0,0,0,
203,-74.28,-73.12,-75.11,-74.2,-73.75,-73.02,-73.19,-66.06,-76.08,-65.15,-75.02,-65.09,-80.53,-70.0,-77.84,-70.34,0,0,0,0,0,0,0,0,0,0,0,0,0,0,0,0,
204,-78.29,-76.05,-80.29,-78.35,-81.37,-81.16,-81.94,-66.75,-85.51,-72.63,-83.59,-71.88,-88.29,-78.83,-81.42,-73.49,0,0,0,0,0,0,0,0,0,0,0,0,0,0,0,0,
205,-82.89,-79.02,-82.82,-79.94,-83.14,-82.39,-73.81,-61.71,-88.11,-77.78,-73.16,-64.0,-76.73,-71.69,-68.24,-60.07,0,0,0,0,0,0,0,0,0,0,0,0,0,0,0,0,
206,-75.17,-71.52,-75.54,-73.58,-72.23,-73.27,-61.69,-56.7,-72.08,-68.61,-62.74,-57.77,-63.31,-63.26,-59.53,-53.12,0,0,0,0,0,0,0,0,0,0,0,0,0,0,0,0,
207,-72.92,-71.1,-74.04,-77.43,-69.39,-76.08,-65.94,-58.85,-65.17,-67.32,-69.55,-61.02,-66.0,-67.11,-60.73,-56.16,0,0,0,0,0,0,0,0,0,0,0,0,0,0,0,0,
208,-75.24,-76.73,-77.19,-85.19,-72.86,-84.44,-69.22,-59.43,-70.68,-74.43,-71.05,-60.78,-66.09,-69.52,-56.51,-54.83,0,0,0,0,0,0,0,0,0,0,0,0,0,0,0,0,
209,-67.1,-71.89,-70.42,-80.27,-67.16,-79.58,-60.08,-55.1,-69.37,-74.71,-60.69,-61.39,-58.48,-68.71,-52.08,-56.49,0,0,0,0,0,0,0,0,0,0,0,0,0,0,0,0,
210,-53.12,-58.7,-53.87,-69.6,-55.02,-67.36,-50.17,-51.78,-60.3,-70.24,-52.03,-65.61,-54.48,-68.63,-52.27,-61.08,0,0,0,0,0,0,0,0,0,0,0,0,0,0,0,0,
211,-48.77,-53.75,-47.72,-68.17,-52.43,-65.45,-51.15,-53.89,-53.53,-65.87,-55.22,-69.04,-60.1,-70.21,-58.22,-66.05,0,0,0,0,0,0,0,0,0,0,0,0,0,0,0,0,
212,-58.07,-61.99,-59.52,-72.11,-63.67,-74.35,-61.67,-58.14,-60.19,-67.36,-67.36,-73.39,-71.12,-74.71,-68.66,-75.07,0,0,0,0,0,0,0,0,0,0,0,0,0,0,0,0,
213,-65.15,-65.81,-66.32,-67.52,-69.54,-75.93,-63.62,-54.63,-70.54,-71.9,-68.44,-70.83,-71.24,-72.29,-67.58,-74.26,0,0,0,0,0,0,0,0,0,0,0,0,0,0,0,0,
214,-58.6,-55.96,-59.76,-56.88,-61.89,-66.64,-54.65,-46.94,-65.94,-66.81,-60.26,-59.92,-63.35,-63.23,-60.26,-65.47,0,0,0,0,0,0,0,0,0,0,0,0,0,0,0,0,
215,-50.45,-48.15,-58.53,-52.07,-58.93,-61.91,-56.22,-45.96,-61.55,-59.83,-63.57,-55.2,-65.3,-61.48,-64.36,-66.63,0,0,0,0,0,0,0,0,0,0,0,0,0,0,0,0,
216,-53.11,-51.74,-66.76,-55.43,-65.93,-65.07,-68.09,-47.42,-69.93,-62.54,-69.38,-54.17,-68.27,-61.6,-64.04,-63.78,0,0,0,0,0,0,0,0,0,0,0,0,0,0,0,0,
217,-58.16,-55.27,-69.58,-59.12,-67.8,-65.62,-68.73,-46.21,-71.7,-63.97,-62.77,-46.71,-60.38,-53.85,-50.42,-47.99,0,0,0,0,0,0,0,0,0,0,0,0,0,0,0,0,
218,-51.85,-49.87,-61.52,-56.69,-61.67,-60.7,-60.88,-45.58,-64.07,-58.88,-56.14,-43.15,-55.85,-49.76,-47.16,-43.16,0,0,0,0,0,0,0,0,0,0,0,0,0,0,0,0,
219,-45.78,-47.65,-58.84,-57.43,-61.64,-60.62,-65.34,-46.88,-65.58,-59.88,-60.27,-50.24,-63.75,-56.99,-56.86,-50.93,0,0,0,0,0,0,0,0,0,0,0,0,0,0,0,0,
220,-51.9,-53.79,-65.93,-61.47,-66.98,-64.96,-72.66,-47.77,-73.9,-66.9,-64.06,-53.88,-70.1,-61.98,-58.85,-50.56,0,0,0,0,0,0,0,0,0,0,0,0,0,0,0,0,
221,-50.94,-50.93,-62.35,-54.48,-63.19,-61.02,-65.44,-46.58,-73.56,-66.0,-60.81,-51.34,-67.28,-59.65,-54.88,-47.54,0,0,0,0,0,0,0,0,0,0,0,0,0,0,0,0,
222,-45.72,-47.46,-56.8,-53.02,-60.57,-59.73,-65.3,-48.21,-71.35,-63.71,-63.51,-55.36,-65.73,-61.5,-55.37,-52.22,0,0,0,0,0,0,0,0,0,0,0,0,0,0,0,0,
223,-53.16,-56.04,-63.18,-63.17,-65.26,-66.03,-73.34,-48.72,-75.49,-69.27,-66.3,-55.88,-60.1,-58.56,-48.31,-48.31,0,0,0,0,0,0,0,0,0,0,0,0,0,0,0,0,
224,-47.7,-48.56,-55.5,-52.83,-54.64,-55.59,-58.17,-38.01,-65.57,-62.48,-49.91,-42.41,-40.33,-40.92,-32.3,-34.7,0,0,0,0,0,0,0,0,0,0,0,0,0,0,0,0,
225,-31.49,-32.12,-40.29,-39.18,-40.25,-41.37,-42.15,-33.27,-43.81,-45.16,-35.56,-37.52,-29.91,-33.68,-30.31,-34.78,0,0,0,0,0,0,0,0,0,0,0,0,0,0,0,0,
226,-36.39,-38.22,-43.72,-49.77,-45.02,-47.61,-49.43,-42.37,-41.94,-46.04,-41.12,-44.61,-38.88,-42.08,-39.7,-42.01,0,0,0,0,0,0,0,0,0,0,0,0,0,0,0,0,
227,-37.75,-39.58,-42.21,-50.56,-46.11,-50.45,-48.52,-40.17,-49.28,-52.48,-44.33,-44.0,-44.57,-44.64,-42.51,-41.93,0,0,0,0,0,0,0,0,0,0,0,0,0,0,0,0,
228,-27.43,-29.63,-34.61,-40.71,-41.33,-46.74,-41.84,-32.78,-47.18,-50.22,-43.69,-45.24,-47.28,-49.41,-44.86,-48.41,0,0,0,0,0,0,0,0,0,0,0,0,0,0,0,0,
229,-35.53,-36.04,-42.6,-45.02,-47.88,-51.41,-48.1,-36.29,-51.06,-55.5,-46.46,-49.78,-48.96,-54.88,-43.97,-53.42,0,0,0,0,0,0,0,0,0,0,0,0,0,0,0,0,
230,-38.31,-33.93,-41.29,-39.42,-44.4,-43.59,-42.55,-31.06,-50.34,-53.94,-39.08,-40.69,-36.43,-41.84,-31.1,-41.43,0,0,0,0,0,0,0,0,0,0,0,0,0,0,0,0,
231,-23.97,-18.38,-28.73,-28.27,-31.71,-29.32,-30.19,-21.3,-33.78,-36.58,-32.35,-34.97,-26.98,-32.61,-25.24,-37.16,0,0,0,0,0,0,0,0,0,0,0,0,0,0,0,0,
232,-25.59,-21.94,-31.75,-35.63,-34.7,-33.11,-34.67,-25.3,-30.56,-32.91,-36.29,-40.92,-31.64,-39.23,-28.48,-43.56,0,0,0,0,0,0,0,0,0,0,0,0,0,0,0,0,
233,-30.0,-26.15,-33.17,-37.25,-37.27,-36.35,-35.6,-27.08,-39.17,-38.09,-31.75,-36.78,-30.28,-36.03,-22.7,-35.68,0,0,0,0,0,0,0,0,0,0,0,0,0,0,0,0,
234,-24.24,-21.48,-29.01,-32.94,-33.5,-34.44,-32.28,-26.19,-37.35,-34.45,-27.5,-31.78,-29.94,-32.0,-22.13,-29.49,0,0,0,0,0,0,0,0,0,0,0,0,0,0,0,0,
235,-31.35,-29.32,-40.07,-40.11,-41.03,-40.9,-44.43,-32.26,-40.03,-38.33,-37.85,-35.3,-39.29,-38.95,-30.83,-33.77,0,0,0,0,0,0,0,0,0,0,0,0,0,0,0,0,
236,-33.06,-27.43,-41.84,-33.5,-41.21,-35.86,-45.19,-26.15,-45.16,-42.83,-36.39,-25.82,-32.89,-31.0,-21.72,-21.85,0,0,0,0,0,0,0,0,0,0,0,0,0,0,0,0,
237,-16.57,-9.646,-25.18,-17.52,-27.23,-20.56,-28.42,-13.67,-32.07,-30.19,-23.97,-14.73,-19.29,-17.45,-10.26,-8.962,0,0,0,0,0,0,0,0,0,0,0,0,0,0,0,0,
238,-18.88,-11.57,-28.88,-22.44,-29.36,-22.88,-35.41,-18.02,-25.01,-23.73,-31.19,-22.94,-27.93,-24.49,-21.21,-18.67,0,0,0,0,0,0,0,0,0,0,0,0,0,0,0,0,
239,-30.85,-19.42,-41.32,-26.54,-36.0,-25.7,-48.31,-19.55,-35.47,-29.67,-35.58,-23.13,-31.52,-24.23,-20.92,-17.91,0,0,0,0,0,0,0,0,0,0,0,0,0,0,0,0,
240,-17.95,-7.92,-29.14,-16.19,-21.99,-11.78,-30.38,-7.856,-28.29,-21.0,-17.01,-8.243,-12.19,-5.714,-2.501,-0.5582,0,0,0,0,0,0,0,0,0,0,0,0,0,0,0,0,
241,-9.53,-4.63,-22.73,-18.5,-16.28,-10.62,-21.66,-9.008,-13.33,-10.27,-16.07,-12.33,-10.6,-6.673,-7.527,-5.446,0,0,0,0,0,0,0,0,0,0,0,0,0,0,0,0,
242,-19.85,-13.34,-32.96,-24.53,-27.54,-22.04,-35.29,-15.95,-23.04,-19.62,-31.89,-26.02,-24.4,-19.59,-20.18,-18.42,0,0,0,0,0,0,0,0,0,0,0,0,0,0,0,0,
243,-13.85,-6.487,-24.97,-14.44,-24.01,-16.59,-29.19,-9.194,-29.38,-23.5,-24.86,-23.05,-18.13,-15.6,-11.71,-13.08,0,0,0,0,0,0,0,0,0,0,0,0,0,0,0,0,
244,-5.474,-1.477,-16.28,-12.41,-18.39,-10.81,-21.77,-9.626,-19.52,-15.5,-20.63,-23.63,-16.33,-17.54,-14.3,-17.49,0,0,0,0,0,0,0,0,0,0,0,0,0,0,0,0,
245,-14.99,-10.06,-24.21,-20.28,-25.3,-17.24,-30.18,-19.58,-23.06,-21.26,-34.41,-30.94,-29.5,-28.85,-27.05,-30.98,0,0,0,0,0,0,0,0,0,0,0,0,0,0,0,0,
246,-11.03,-4.08,-17.21,-12.35,-19.69,-11.96,-23.12,-14.79,-25.96,-25.58,-27.86,-21.14,-23.66,-21.5,-17.46,-23.26,0,0,0,0,0,0,0,0,0,0,0,0,0,0,0,0,
247,-3.921,2.987,-11.23,-7.141,-15.68,-8.207,-20.89,-8.966,-17.47,-16.39,-17.95,-11.5,-16.0,-14.25,-10.21,-15.25,0,0,0,0,0,0,0,0,0,0,0,0,0,0,0,0,
248,-16.4,-7.904,-24.06,-14.92,-27.97,-19.13,-34.06,-11.85,-23.07,-18.03,-26.66,-13.36,-21.39,-17.52,-14.31,-17.53,0,0,0,0,0,0,0,0,0,0,0,0,0,0,0,0,
249,-10.6,-3.882,-14.3,-7.122,-21.77,-14.14,-20.38,-3.078,-23.0,-18.8,-17.65,-4.987,-9.974,-6.055,-2.463,-5.994,0,0,0,0,0,0,0,0,0,0,0,0,0,0,0,0,
250,3.991,5.899,-0.3225,-0.1856,-11.63,-5.898,-5.493,3.304,-7.393,-6.965,-5.583,1.003,-2.705,1.196,2.255,1.461,0,0,0,0,0,0,0,0,0,0,0,0,0,0,0,0,
251,-12.56,-9.412,-20.32,-13.1,-26.69,-18.16,-22.87,-5.328,-15.75,-11.27,-20.33,-5.677,-18.64,-8.949,-9.304,-5.601,0,0,0,0,0,0,0,0,0,0,0,0,0,0,0,0,
252,-15.67,-10.65,-23.99,-8.403,-25.39,-15.22,-29.23,-0.9155,-28.0,-18.58,-20.6,-0.3543,-16.42,-4.129,-2.013,1.129,0,0,0,0,0,0,0,0,0,0,0,0,0,0,0,0,
253,10.03,9.796,-1.141,8.085,-5.015,0.8473,-14.83,10.42,-12.39,-5.835,-1.824,8.646,-1.275,6.757,9.809,11.08,0,0,0,0,0,0,0,0,0,0,0,0,0,0,0,0,
254,9.668,5.417,-2.852,-0.6419,-8.341,-6.479,-10.94,4.633,-5.015,-3.039,-2.439,6.879,-2.857,3.324,6.26,8.17,0,0,0,0,0,0,0,0,0,0,0,0,0,0,0,0,
255,-1.522,-3.233,-10.73,-5.638,-14.74,-13.09,-18.09,1.929,-9.736,-11.71,-8.059,9.199,-2.697,3.456,5.981,6.997,0,0,0,0,0,0,0,0,0,0,0,0,0,0,0,0,
256,8.735,10.6,-1.605,10.33,-6.514,-3.211,-24.55,10.55,-3.569,-8.198,-4.132,8.673,0.4332,4.032,4.633,2.76,0,0,0,0,0,0,0,0,0,0,0,0,0,0,0,0,
257,13.14,16.09,2.901,14.63,-4.449,0.6185,-13.14,12.62,-3.831,-6.187,-1.303,3.332,-1.377,1.213,3.325,-0.5498,0,0,0,0,0,0,0,0,0,0,0,0,0,0,0,0,
258,14.78,15.61,11.18,12.83,2.033,6.476,12.45,14.43,-3.675,-4.917,4.686,10.86,7.184,10.44,15.51,10.58,0,0,0,0,0,0,0,0,0,0,0,0,0,0,0,0,
259,26.9,25.08,22.66,21.06,13.81,16.58,17.09,20.2,11.54,6.779,6.336,14.57,13.04,14.48,18.49,12.55,0,0,0,0,0,0,0,0,0,0,0,0,0,0,0,0,
260,23.49,23.64,14.31,21.14,8.54,12.14,4.994,18.3,14.2,8.231,-1.152,4.697,6.067,4.657,10.55,2.976,0,0,0,0,0,0,0,0,0,0,0,0,0,0,0,0,
261,13.08,16.41,6.579,14.06,0.9174,5.493,2.385,14.99,4.876,0.3136,1.582,5.143,7.598,4.904,17.53,8.037,0,0,0,0,0,0,0,0,0,0,0,0,0,0,0,0,
262,20.89,22.56,15.36,15.86,5.41,9.034,2.366,18.68,7.119,3.607,12.15,14.37,14.15,11.91,26.64,16.25,0,0,0,0,0,0,0,0,0,0,0,0,0,0,0,0,
263,27.39,27.11,18.66,19.49,6.717,10.09,-1.322,21.49,9.948,8.668,13.28,16.65,11.31,11.6,22.97,13.18,0,0,0,0,0,0,0,0,0,0,0,0,0,0,0,0,
264,19.32,20.55,13.04,15.63,1.964,5.36,-5.838,19.88,5.317,6.075,7.162,15.23,7.13,10.18,18.79,10.32,0,0,0,0,0,0,0,0,0,0,0,0,0,0,0,0,
265,15.12,15.79,12.17,12.01,2.513,4.981,-7.995,20.15,5.161,6.117,5.975,18.47,10.82,14.08,21.39,14.45,0,0,0,0,0,0,0,0,0,0,0,0,0,0,0,0,
266,23.93,21.98,18.52,20.16,11.46,15.04,1.232,25.26,13.42,14.36,15.08,30.73,22.02,25.41,30.6,26.61,0,0,0,0,0,0,0,0,0,0,0,0,0,0,0,0,
267,32.19,31.26,23.53,29.55,17.48,23.05,9.414,29.37,22.28,23.72,20.84,39.53,27.33,33.93,36.66,35.96,0,0,0,0,0,0,0,0,0,0,0,0,0,0,0,0,
268,26.68,27.74,18.07,21.97,10.69,14.6,3.457,28.68,19.98,22.61,14.83,33.08,19.79,29.41,32.35,31.39,0,0,0,0,0,0,0,0,0,0,0,0,0,0,0,0,
269,19.64,20.37,13.29,13.74,4.662,7.028,1.774,30.03,12.8,16.37,15.22,29.85,19.12,28.52,33.18,30.39,0,0,0,0,0,0,0,0,0,0,0,0,0,0,0,0,
270,24.75,25.61,20.76,21.04,9.766,14.85,9.185,35.43,17.68,21.07,24.34,38.41,30.13,38.26,41.99,40.51,0,0,0,0,0,0,0,0,0,0,0,0,0,0,0,0,
271,29.48,29.6,26.33,25.74,13.64,20.42,9.779,37.49,25.83,29.62,24.52,40.57,32.83,40.23,41.06,41.98,0,0,0,0,0,0,0,0,0,0,0,0,0,0,0,0,
272,29.45,26.5,25.48,25.32,14.51,19.83,8.687,37.12,24.72,29.3,22.52,38.45,30.4,37.86,37.93,39.08,0,0,0,0,0,0,0,0,0,0,0,0,0,0,0,0,
273,35.61,31.43,30.88,31.62,20.2,24.76,14.53,39.43,25.82,29.51,29.72,43.95,36.37,45.37,46.89,47.1,0,0,0,0,0,0,0,0,0,0,0,0,0,0,0,0,
274,39.82,36.82,35.32,33.15,22.41,26.89,16.09,40.01,31.34,34.17,33.07,45.57,38.54,49.23,49.51,49.84,0,0,0,0,0,0,0,0,0,0,0,0,0,0,0,0,
275,34.39,32.26,29.97,28.69,18.46,22.52,13.43,37.2,29.29,32.27,29.61,40.37,32.38,42.37,40.81,42.2,0,0,0,0,0,0,0,0,0,0,0,0,0,0,0,0,
276,35.12,32.9,32.21,33.94,22.81,25.97,21.96,38.52,28.49,29.29,35.22,43.3,36.13,42.72,45.64,45.51,0,0,0,0,0,0,0,0,0,0,0,0,0,0,0,0,
277,44.44,41.82,44.11,41.28,31.59,33.3,30.45,41.65,37.69,35.16,43.12,47.11,44.1,47.1,54.47,51.04,0,0,0,0,0,0,0,0,0,0,0,0,0,0,0,0,
278,42.29,40.14,40.96,36.17,27.47,28.8,22.11,36.91,38.99,35.96,39.0,40.77,39.67,41.44,47.47,44.36,0,0,0,0,0,0,0,0,0,0,0,0,0,0,0,0,
279,32.64,30.27,29.88,28.86,21.13,21.28,18.56,32.21,31.15,27.26,38.32,40.92,37.98,40.59,46.9,46.15,0,0,0,0,0,0,0,0,0,0,0,0,0,0,0,0,
280,35.42,32.57,35.08,32.43,26.79,24.7,28.27,38.53,33.66,27.95,46.08,50.79,45.59,49.84,56.9,56.91,0,0,0,0,0,0,0,0,0,0,0,0,0,0,0,0,
281,40.68,40.55,40.54,38.21,30.55,30.35,28.46,44.65,38.92,35.01,45.45,53.14,46.54,51.65,56.3,56.55,0,0,0,0,0,0,0,0,0,0,0,0,0,0,0,0,
282,38.42,39.51,34.76,37.98,29.47,31.65,26.59,42.3,37.39,34.64,42.05,51.05,45.3,48.97,52.83,52.63,0,0,0,0,0,0,0,0,0,0,0,0,0,0,0,0,
283,41.62,40.28,36.35,39.56,33.58,34.1,32.32,41.04,39.33,35.51,40.92,50.64,45.84,48.66,50.24,50.42,0,0,0,0,0,0,0,0,0,0,0,0,0,0,0,0,
284,44.59,44.29,39.41,41.87,33.91,35.4,28.23,42.15,40.07,39.29,35.56,48.61,42.23,46.9,45.47,48.47,0,0,0,0,0,0,0,0,0,0,0,0,0,0,0,0,
285,39.49,39.93,33.56,38.48,29.46,33.9,23.57,40.57,37.72,38.21,38.51,50.91,46.16,50.37,53.4,56.2,0,0,0,0,0,0,0,0,0,0,0,0,0,0,0,0,
286,41.25,37.52,34.71,38.59,31.62,34.87,30.69,40.59,42.55,38.31,48.2,55.18,55.68,56.59,64.06,63.06,0,0,0,0,0,0,0,0,0,0,0,0,0,0,0,0,
287,47.24,43.0,42.28,43.42,34.94,37.88,33.27,43.84,46.17,41.16,49.04,53.64,55.38,56.45,61.49,59.69,0,0,0,0,0,0,0,0,0,0,0,0,0,0,0,0,
288,44.78,43.72,43.28,42.89,34.29,40.29,31.13,46.5,45.05,42.96,47.85,51.56,51.57,55.92,57.45,57.63,0,0,0,0,0,0,0,0,0,0,0,0,0,0,0,0,
289,41.42,40.92,41.75,42.33,33.31,40.93,29.35,48.59,45.19,45.24,43.31,48.86,47.05,53.98,52.18,52.93,0,0,0,0,0,0,0,0,0,0,0,0,0,0,0,0,
290,43.62,43.14,43.25,45.71,34.21,41.15,25.98,48.81,41.63,45.0,34.73,44.35,41.69,48.89,46.4,44.59,0,0,0,0,0,0,0,0,0,0,0,0,0,0,0,0,
291,49.24,47.37,47.83,44.78,40.38,43.95,33.15,44.13,42.55,42.61,40.17,42.48,45.27,48.03,49.33,43.2,0,0,0,0,0,0,0,0,0,0,0,0,0,0,0,0,
292,53.66,47.82,50.66,41.9,44.28,43.86,41.79,39.67,50.13,41.42,48.46,40.32,49.07,46.19,50.48,42.84,0,0,0,0,0,0,0,0,0,0,0,0,0,0,0,0,
293,53.22,45.55,47.97,43.8,40.55,40.36,36.4,42.77,48.58,40.03,46.41,42.63,48.28,44.77,51.92,44.77,0,0,0,0,0,0,0,0,0,0,0,0,0,0,0,0,
294,53.23,46.33,47.2,46.19,41.41,43.13,35.17,47.92,48.1,42.69,49.49,52.04,52.91,51.7,59.91,51.51,0,0,0,0,0,0,0,0,0,0,0,0,0,0,0,0,
295,52.67,48.86,48.26,46.62,44.47,47.32,38.86,48.18,53.64,48.14,51.04,54.1,53.24,55.19,58.09,50.29,0,0,0,0,0,0,0,0,0,0,0,0,0,0,0,0,
296,47.51,48.89,45.21,48.52,40.95,45.98,33.8,50.15,48.24,48.16,44.53,52.54,48.87,54.42,55.33,51.15,0,0,0,0,0,0,0,0,0,0,0,0,0,0,0,0,
297,47.29,49.78,45.02,50.37,41.58,46.64,35.41,55.43,45.2,47.46,48.89,59.75,55.87,60.7,66.71,64.45,0,0,0,0,0,0,0,0,0,0,0,0,0,0,0,0,
298,53.66,52.36,50.18,50.37,46.88,50.07,45.91,56.04,54.39,49.6,58.84,65.23,64.54,65.24,73.37,71.88,0,0,0,0,0,0,0,0,0,0,0,0,0,0,0,0,
299,56.39,53.63,53.01,50.94,46.44,51.37,48.79,53.8,57.34,50.21,59.54,62.55,64.4,62.43,69.57,69.29,0,0,0,0,0,0,0,0,0,0,0,0,0,0,0,0,
300,52.37,52.07,49.4,49.74,42.54,49.74,45.63,51.65,54.79,49.63,55.55,57.87,62.0,59.02,65.28,65.64,0,0,0,0,0,0,0,0,0,0,0,0,0,0,0,0,
301,46.77,47.62,42.51,46.35,39.5,45.5,43.15,47.77,52.91,47.39,51.16,55.63,58.55,57.39,61.57,62.53,0,0,0,0,0,0,0,0,0,0,0,0,0,0,0,0,
302,47.3,46.37,42.31,46.26,38.88,43.16,45.7,46.56,48.41,45.29,52.37,58.63,57.34,58.88,63.89,63.76,0,0,0,0,0,0,0,0,0,0,0,0,0,0,0,0,
303,49.01,47.22,46.42,43.8,38.33,40.05,50.53,46.43,46.53,44.29,58.03,58.51,57.66,57.3,67.04,63.36,0,0,0,0,0,0,0,0,0,0,0,0,0,0,0,0,
304,43.76,41.31,42.98,34.99,33.36,31.18,48.2,41.42,44.21,37.11,55.9,51.1,52.05,48.31,61.27,55.92,0,0,0,0,0,0,0,0,0,0,0,0,0,0,0,0,
305,43.23,37.58,39.91,35.03,31.4,29.63,47.58,39.11,38.99,30.32,51.73,48.93,48.0,43.84,56.93,52.05,0,0,0,0,0,0,0,0,0,0,0,0,0,0,0,0,
306,50.06,43.5,43.26,44.68,35.08,38.21,52.05,42.18,39.23,34.78,51.39,49.51,47.94,44.62,54.71,49.77,0,0,0,0,0,0,0,0,0,0,0,0,0,0,0,0,
307,49.72,45.01,41.02,45.17,33.93,39.21,45.85,41.1,38.3,38.6,45.27,43.16,42.3,40.19,46.08,42.51,0,0,0,0,0,0,0,0,0,0,0,0,0,0,0,0,
308,48.24,42.01,38.15,40.45,33.07,35.92,39.98,38.93,34.16,35.9,41.36,40.22,39.97,37.31,43.23,40.83,0,0,0,0,0,0,0,0,0,0,0,0,0,0,0,0,
309,55.0,46.53,45.37,42.74,40.75,40.48,48.31,40.85,39.52,38.14,48.12,43.45,46.27,41.4,48.62,43.7,0,0,0,0,0,0,0,0,0,0,0,0,0,0,0,0,
310,57.18,49.13,49.02,41.69,42.95,41.48,48.71,38.66,44.18,41.24,47.91,42.36,44.39,42.7,45.96,40.33,0,0,0,0,0,0,0,0,0,0,0,0,0,0,0,0,
311,50.84,43.5,41.98,36.61,34.34,35.19,36.91,35.8,35.77,36.98,38.36,41.84,35.63,41.58,40.65,38.32,0,0,0,0,0,0,0,0,0,0,0,0,0,0,0,0,
312,46.68,41.46,36.57,40.39,29.31,35.07,32.69,42.14,29.14,35.47,36.59,47.13,35.06,44.51,42.99,42.53,0,0,0,0,0,0,0,0,0,0,0,0,0,0,0,0,
313,43.65,41.22,34.3,43.14,28.54,37.96,29.56,46.44,29.36,39.61,36.95,49.05,36.24,45.17,41.77,43.76,0,0,0,0,0,0,0,0,0,0,0,0,0,0,0,0,
314,39.54,38.26,32.21,37.22,26.42,36.62,23.92,41.85,27.01,39.29,31.22,44.97,32.53,39.78,35.4,41.2,0,0,0,0,0,0,0,0,0,0,0,0,0,0,0,0,
315,38.56,39.92,32.67,35.44,27.11,35.38,28.91,38.76,25.64,34.87,30.06,39.53,29.84,34.12,32.84,37.9,0,0,0,0,0,0,0,0,0,0,0,0,0,0,0,0,
316,35.59,39.08,30.71,36.24,27.61,31.62,33.95,37.28,26.06,30.68,33.96,37.39,29.54,33.32,33.75,37.41,0,0,0,0,0,0,0,0,0,0,0,0,0,0,0,0,
317,33.65,34.58,32.5,38.02,29.05,29.88,33.28,38.67,26.97,30.86,38.25,44.82,36.82,42.63,42.15,47.91,0,0,0,0,0,0,0,0,0,0,0,0,0,0,0,0,
318,42.71,41.92,45.22,48.77,37.79,39.29,39.49,47.94,36.57,41.51,44.11,53.51,49.34,54.62,52.9,58.81,0,0,0,0,0,0,0,0,0,0,0,0,0,0,0,0,
319,46.94,48.02,46.54,52.23,39.7,43.83,42.62,51.13,44.87,49.74,45.46,52.82,50.71,54.71,52.33,57.36,0,0,0,0,0,0,0,0,0,0,0,0,0,0,0,0,
320,41.69,43.05,37.34,43.76,35.01,40.62,41.73,46.98,42.2,46.01,47.65,56.08,49.84,54.41,53.81,59.5,0,0,0,0,0,0,0,0,0,0,0,0,0,0,0,0,
321,50.11,49.1,46.0,46.66,44.0,48.79,51.29,52.14,47.15,49.41,56.28,64.06,57.42,61.63,60.93,65.27,0,0,0,0,0,0,0,0,0,0,0,0,0,0,0,0,
322,58.93,55.48,52.2,50.5,49.74,52.7,50.62,55.09,54.66,57.04,50.82,56.09,51.78,55.29,50.61,53.88,0,0,0,0,0,0,0,0,0,0,0,0,0,0,0,0,
323,46.23,42.2,36.63,38.23,36.49,38.23,32.7,43.56,43.15,46.95,32.96,41.99,36.08,39.64,34.06,39.15,0,0,0,0,0,0,0,0,0,0,0,0,0,0,0,0,
324,37.24,34.95,32.26,31.4,30.5,31.3,27.8,35.32,32.31,35.44,28.38,39.57,34.72,37.21,31.96,37.28,0,0,0,0,0,0,0,0,0,0,0,0,0,0,0,0,
325,41.98,39.9,40.62,34.36,35.01,34.01,32.24,35.09,36.39,37.06,29.69,36.18,35.72,36.81,29.93,33.45,0,0,0,0,0,0,0,0,0,0,0,0,0,0,0,0,
326,38.66,33.49,35.51,29.24,30.59,26.39,28.09,31.47,35.16,33.04,24.78,29.22,28.48,29.33,24.96,28.13,0,0,0,0,0,0,0,0,0,0,0,0,0,0,0,0,
327,30.84,24.85,27.77,22.7,24.03,17.83,24.2,28.29,27.24,24.0,23.36,29.72,25.57,27.81,26.81,30.66,0,0,0,0,0,0,0,0,0,0,0,0,0,0,0,0,
328,29.93,26.65,25.75,24.17,22.19,18.33,22.3,29.82,23.51,24.13,24.79,31.63,25.8,30.15,28.01,31.92,0,0,0,0,0,0,0,0,0,0,0,0,0,0,0,0,
329,30.67,28.01,22.34,27.66,21.6,21.26,21.22,30.69,22.87,26.64,26.88,32.91,27.66,30.97,29.13,32.79,0,0,0,0,0,0,0,0,0,0,0,0,0,0,0,0,
330,32.08,28.56,24.77,30.89,25.82,26.79,26.85,30.94,28.1,28.08,32.4,37.63,34.78,34.87,34.49,38.76,0,0,0,0,0,0,0,0,0,0,0,0,0,0,0,0,
331,34.54,32.13,30.19,32.39,30.26,32.32,31.14,32.23,35.35,32.13,33.74,38.0,37.4,36.61,35.02,40.24,0,0,0,0,0,0,0,0,0,0,0,0,0,0,0,0,
332,35.18,32.79,28.78,29.7,29.15,31.92,30.39,31.22,35.13,32.57,31.76,34.85,35.18,34.62,32.5,37.86,0,0,0,0,0,0,0,0,0,0,0,0,0,0,0,0,
333,37.84,34.12,29.3,29.71,30.73,33.62,33.62,29.94,34.86,31.47,34.37,36.45,37.99,37.21,34.16,39.52,0,0,0,0,0,0,0,0,0,0,0,0,0,0,0,0,
334,43.81,41.03,34.97,35.96,35.58,39.96,38.69,32.25,39.14,36.49,36.03,37.04,39.65,39.21,33.69,38.58,0,0,0,0,0,0,0,0,0,0,0,0,0,0,0,0,
335,45.34,43.2,35.81,36.92,33.81,38.1,36.98,31.43,37.29,37.99,33.01,32.98,34.44,33.94,28.77,32.61,0,0,0,0,0,0,0,0,0,0,0,0,0,0,0,0,
336,41.07,37.51,33.36,29.39,28.44,31.09,31.7,26.1,30.12,30.89,30.46,31.99,31.2,31.05,26.36,30.74,0,0,0,0,0,0,0,0,0,0,0,0,0,0,0,0,
337,40.06,37.27,35.04,28.2,28.98,33.65,32.47,27.04,29.96,30.2,29.57,34.52,33.17,35.04,27.4,32.5,0,0,0,0,0,0,0,0,0,0,0,0,0,0,0,0,
338,42.2,43.14,35.64,34.04,30.65,38.51,34.69,31.19,34.96,37.63,28.69,33.64,34.12,36.47,27.47,30.79,0,0,0,0,0,0,0,0,0,0,0,0,0,0,0,0,
339,39.12,43.86,29.69,33.9,26.79,35.32,28.46,29.14,34.29,38.77,27.45,29.75,32.39,33.16,24.68,27.45,0,0,0,0,0,0,0,0,0,0,0,0,0,0,0,0,
340,36.87,42.7,25.84,31.51,24.96,33.33,22.99,27.73,30.52,35.51,25.95,27.46,30.3,31.23,20.47,25.25,0,0,0,0,0,0,0,0,0,0,0,0,0,0,0,0,
341,41.48,44.04,27.92,31.6,27.8,33.43,23.01,28.2,30.26,34.78,22.87,24.98,26.73,29.18,16.48,20.7,0,0,0,0,0,0,0,0,0,0,0,0,0,0,0,0,
342,39.71,39.1,26.47,27.33,24.95,26.62,18.62,23.98,27.5,30.17,18.73,21.9,22.26,25.57,15.11,17.11,0,0,0,0,0,0,0,0,0,0,0,0,0,0,0,0,
343,30.18,30.31,22.18,24.43,18.02,20.27,17.88,23.52,20.55,24.2,20.12,25.01,22.09,26.63,18.93,21.21,0,0,0,0,0,0,0,0,0,0,0,0,0,0,0,0,
344,29.29,30.08,22.61,28.46,17.95,22.11,25.24,28.4,19.43,26.93,25.35,30.59,24.47,29.3,21.77,24.35,0,0,0,0,0,0,0,0,0,0,0,0,0,0,0,0,
345,34.68,34.67,22.85,29.08,21.15,25.94,23.58,26.19,22.82,31.16,23.4,27.84,23.04,25.53,17.18,18.82,0,0,0,0,0,0,0,0,0,0,0,0,0,0,0,0,
346,36.27,36.21,20.94,26.84,20.96,29.57,18.16,22.5,21.27,29.59,19.29,23.71,21.99,22.91,15.07,16.51,0,0,0,0,0,0,0,0,0,0,0,0,0,0,0,0,
347,39.14,38.2,23.82,29.65,22.25,33.81,23.8,26.6,19.23,30.19,24.28,26.73,26.87,27.68,21.71,22.02,0,0,0,0,0,0,0,0,0,0,0,0,0,0,0,0,
348,42.64,40.43,28.81,31.53,27.11,34.68,28.53,28.22,24.01,33.75,31.08,26.95,31.47,30.3,25.43,23.37,0,0,0,0,0,0,0,0,0,0,0,0,0,0,0,0,
349,41.44,39.03,30.02,29.85,31.12,33.06,29.08,24.91,30.62,33.95,32.16,22.41,31.82,28.41,23.26,21.09,0,0,0,0,0,0,0,0,0,0,0,0,0,0,0,0,
350,41.81,37.93,29.83,29.48,33.43,32.64,36.05,25.97,33.88,33.82,31.51,23.76,31.74,28.46,23.15,23.15,0,0,0,0,0,0,0,0,0,0,0,0,0,0,0,0,
351,45.95,41.43,30.84,29.73,35.12,34.28,39.64,27.91,34.72,35.67,29.82,26.67,31.18,28.65,23.06,24.11,0,0,0,0,0,0,0,0,0,0,0,0,0,0,0,0,
352,50.18,48.68,34.19,32.45,37.31,38.66,33.77,26.51,34.29,36.61,28.48,24.44,30.6,27.88,21.94,21.42,0,0,0,0,0,0,0,0,0,0,0,0,0,0,0,0,
353,55.95,54.74,39.62,37.52,40.69,41.57,31.92,27.7,35.26,37.23,32.02,25.08,33.79,29.09,24.6,22.04,0,0,0,0,0,0,0,0,0,0,0,0,0,0,0,0,
354,60.89,55.68,43.36,37.2,42.9,39.52,35.77,30.54,39.09,37.13,36.7,28.13,37.57,28.3,27.16,23.36,0,0,0,0,0,0,0,0,0,0,0,0,0,0,0,0,
355,60.1,55.34,43.54,33.79,41.94,37.84,37.92,29.84,41.74,35.16,38.07,24.75,37.89,23.75,26.6,20.06,0,0,0,0,0,0,0,0,0,0,0,0,0,0,0,0,
356,53.29,52.86,38.69,32.44,36.44,35.93,37.08,27.33,40.55,33.5,37.14,19.56,36.22,21.11,25.84,17.06,0,0,0,0,0,0,0,0,0,0,0,0,0,0,0,0,
357,42.27,43.02,28.11,27.79,27.15,29.22,29.62,24.34,35.79,31.09,32.76,18.52,31.48,20.49,22.47,16.82,0,0,0,0,0,0,0,0,0,0,0,0,0,0,0,0,
358,35.27,36.99,21.34,21.38,22.51,25.03,20.52,21.39,28.52,26.82,28.02,19.69,26.0,20.47,19.2,17.44,0,0,0,0,0,0,0,0,0,0,0,0,0,0,0,0,
359,38.8,41.96,25.79,20.9,25.7,25.66,23.49,22.05,25.08,25.21,30.09,23.37,26.3,23.67,22.92,20.17,0,0,0,0,0,0,0,0,0,0,0,0,0,0,0,0,
360,44.13,43.3,31.38,22.64,26.6,22.26,30.71,24.88,26.62,25.91,33.07,26.71,26.48,25.73,25.22,22.46,0,0,0,0,0,0,0,0,0,0,0,0,0,0,0,0,
361,42.44,38.21,28.22,20.55,21.16,16.33,25.32,24.45,22.1,22.49,27.53,24.72,19.3,21.5,19.09,20.32,0,0,0,0,0,0,0,0,0,0,0,0,0,0,0,0,
362,37.59,37.59,20.89,17.34,16.46,14.71,14.3,21.84,11.87,16.03,19.62,20.88,13.93,16.54,13.98,16.04,0,0,0,0,0,0,0,0,0,0,0,0,0,0,0,0,
363,34.65,38.28,14.79,18.43,16.18,16.84,9.659,22.07,10.23,14.67,16.92,19.8,16.3,16.11,14.64,13.09,0,0,0,0,0,0,0,0,0,0,0,0,0,0,0,0,
364,32.78,36.23,9.705,24.7,17.93,20.93,8.101,25.83,15.72,20.04,17.02,21.98,19.25,18.9,17.7,14.44,0,0,0,0,0,0,0,0,0,0,0,0,0,0,0,0,
365,30.62,35.88,6.92,29.71,18.08,23.72,7.454,28.67,16.93,24.22,18.26,24.43,20.63,21.77,21.01,18.61,0,0,0,0,0,0,0,0,0,0,0,0,0,0,0,0,
366,29.18,34.92,6.651,26.55,15.58,20.86,8.795,25.63,15.95,21.5,19.06,21.44,21.07,21.15,19.32,18.05,0,0,0,0,0,0,0,0,0,0,0,0,0,0,0,0,
367,28.1,31.41,5.348,18.9,12.42,14.79,6.473,18.65,15.04,15.18,15.18,16.2,16.42,17.86,11.98,14.33,0,0,0,0,0,0,0,0,0,0,0,0,0,0,0,0,
368,27.35,31.91,3.996,16.73,11.08,12.57,0.763,16.14,10.27,11.06,8.045,16.48,9.681,15.99,6.27,14.22,0,0,0,0,0,0,0,0,0,0,0,0,0,0,0,0,
369,29.5,35.2,5.174,19.43,12.73,16.16,-0.686,18.52,6.415,11.56,2.117,18.01,7.104,15.64,4.008,14.13,0,0,0,0,0,0,0,0,0,0,0,0,0,0,0,0,
370,32.15,33.45,5.594,18.85,15.01,19.33,-1.22,18.33,6.856,15.37,-1.243,15.23,5.848,15.15,3.202,12.05,0,0,0,0,0,0,0,0,0,0,0,0,0,0,0,0,
371,33.35,32.22,6.018,18.46,16.86,19.57,-5.163,17.28,7.537,18.42,-2.236,11.8,4.938,12.87,2.533,10.93,0,0,0,0,0,0,0,0,0,0,0,0,0,0,0,0,
372,37.17,37.72,10.46,22.26,20.71,20.84,-4.346,18.56,11.05,17.7,-2.618,8.398,7.759,6.824,-0.0149,7.375,0,0,0,0,0,0,0,0,0,0,0,0,0,0,0,0,
373,39.42,38.78,15.03,20.73,22.59,19.44,2.404,14.65,17.04,12.65,-1.367,3.373,11.49,0.2929,0.5403,3.311,0,0,0,0,0,0,0,0,0,0,0,0,0,0,0,0,
374,37.34,34.73,18.19,15.94,20.33,14.57,7.636,8.359,18.06,6.717,5.693,2.168,15.25,0.3459,9.315,7.498,0,0,0,0,0,0,0,0,0,0,0,0,0,0,0,0,
375,42.26,41.95,22.98,21.29,22.06,17.7,12.01,12.01,17.76,7.821,13.88,8.691,20.96,8.217,17.81,16.47,0,0,0,0,0,0,0,0,0,0,0,0,0,0,0,0,
376,52.97,55.7,27.01,31.7,27.78,27.33,15.17,19.22,20.59,16.21,14.59,16.62,22.87,17.13,18.4,20.88,0,0,0,0,0,0,0,0,0,0,0,0,0,0,0,0,
377,57.65,61.7,30.99,37.15,30.39,31.91,14.12,19.7,20.04,22.37,11.44,19.3,19.79,21.35,16.5,20.63,0,0,0,0,0,0,0,0,0,0,0,0,0,0,0,0,
378,62.98,68.8,37.75,41.32,32.42,34.86,14.92,19.36,17.08,23.95,12.47,18.3,19.82,22.61,16.96,19.92,0,0,0,0,0,0,0,0,0,0,0,0,0,0,0,0,
379,77.37,85.77,45.89,49.29,38.47,42.42,21.09,20.88,19.6,25.26,17.68,17.32,23.87,24.33,18.58,21.22,0,0,0,0,0,0,0,0,0,0,0,0,0,0,0,0,
380,95.18,106.8,57.53,62.61,48.27,53.27,27.9,21.82,27.51,27.99,23.83,17.19,28.4,26.72,21.58,23.83,0,0,0,0,0,0,0,0,0,0,0,0,0,0,0,0,
381,114.5,128.8,71.35,77.46,59.72,66.84,33.96,25.09,36.85,34.71,27.57,17.11,31.76,27.91,24.0,23.55,0,0,0,0,0,0,0,0,0,0,0,0,0,0,0,0,
382,134.7,148.1,83.92,89.23,70.27,79.66,38.31,28.13,43.13,42.96,26.18,15.78,29.78,25.47,20.27,19.23,0,0,0,0,0,0,0,0,0,0,0,0,0,0,0,0,
383,147.0,155.9,99.41,103.2,79.22,87.56,38.25,28.24,43.45,44.78,23.84,15.59,26.03,22.36,14.47,16.55,0,0,0,0,0,0,0,0,0,0,0,0,0,0,0,0,
384,148.4,154.1,111.7,118.2,84.44,91.73,38.17,31.78,43.04,43.33,26.99,20.05,29.83,24.7,16.28,19.54,0,0,0,0,0,0,0,0,0,0,0,0,0,0,0,0,
385,147.1,153.5,113.1,122.9,85.32,93.2,43.03,38.1,47.44,45.88,32.55,24.42,35.56,29.34,20.47,22.96,0,0,0,0,0,0,0,0,0,0,0,0,0,0,0,0,
386,148.4,155.4,114.3,118.0,86.29,91.51,46.21,39.22,52.53,48.25,32.69,22.56,32.65,29.06,16.15,20.42,0,0,0,0,0,0,0,0,0,0,0,0,0,0,0,0,
387,147.4,150.3,115.6,110.6,84.69,86.17,40.7,35.81,51.14,45.47,26.99,17.55,24.28,24.61,7.662,14.52,0,0,0,0,0,0,0,0,0,0,0,0,0,0,0,0,
388,138.8,137.5,106.9,102.7,76.53,78.16,32.82,32.56,43.03,40.22,20.99,13.49,17.55,20.06,4.467,10.64,0,0,0,0,0,0,0,0,0,0,0,0,0,0,0,0,
389,124.5,125.2,96.65,97.13,68.49,71.33,29.52,29.26,35.06,36.39,18.8,10.26,15.58,17.0,7.492,9.516,0,0,0,0,0,0,0,0,0,0,0,0,0,0,0,0,
390,109.1,112.0,89.09,90.26,62.67,65.35,27.84,25.04,32.27,34.09,19.65,8.086,18.06,14.27,11.71,9.21,0,0,0,0,0,0,0,0,0,0,0,0,0,0,0,0,
391,96.81,97.05,78.45,78.38,56.31,58.99,25.91,21.74,32.2,30.79,19.7,6.957,19.38,11.01,11.35,7.646,0,0,0,0,0,0,0,0,0,0,0,0,0,0,0,0,
392,89.71,89.74,70.5,71.42,53.9,57.69,24.63,20.84,32.33,28.72,17.72,7.018,17.57,10.73,7.451,6.197,0,0,0,0,0,0,0,0,0,0,0,0,0,0,0,0,
393,84.71,87.52,66.11,71.43,54.68,60.48,22.13,21.18,34.44,31.02,15.4,8.977,16.71,14.06,5.395,7.388,0,0,0,0,0,0,0,0,0,0,0,0,0,0,0,0,
394,75.23,78.67,57.65,66.4,51.02,58.73,19.9,22.04,36.4,32.52,14.33,11.94,16.5,15.98,4.73,9.094,0,0,0,0,0,0,0,0,0,0,0,0,0,0,0,0,
395,60.66,65.42,48.15,58.68,43.09,53.76,19.82,23.77,32.62,31.55,15.84,15.79,16.13,17.1,4.569,10.35,0,0,0,0,0,0,0,0,0,0,0,0,0,0,0,0,
396,49.69,56.99,41.41,57.98,36.38,51.62,17.47,24.8,25.46,33.5,17.89,19.86,18.06,20.64,6.515,12.4,0,0,0,0,0,0,0,0,0,0,0,0,0,0,0,0,
397,47.29,54.31,37.06,57.33,34.52,51.52,13.63,24.83,23.09,36.91,16.15,21.43,19.56,23.54,6.868,12.03,0,0,0,0,0,0,0,0,0,0,0,0,0,0,0,0,
398,45.53,50.76,36.26,49.64,35.94,50.71,13.48,25.13,25.99,38.2,11.02,20.79,16.23,23.65,1.883,8.088,0,0,0,0,0,0,0,0,0,0,0,0,0,0,0,0,
399,38.92,41.94,34.82,42.91,35.38,47.41,12.24,24.41,27.08,38.05,5.921,19.15,11.37,23.35,-3.502,5.688,0,0,0,0,0,0,0,0,0,0,0,0,0,0,0,0,
400,34.25,34.6,31.29,41.98,34.31,43.61,7.793,22.91,25.25,36.19,3.812,16.32,11.06,23.54,-3.071,6.761,0,0,0,0,0,0,0,0,0,0,0,0,0,0,0,0,
401,33.8,33.88,31.07,39.7,36.21,43.05,9.106,21.4,25.82,34.1,5.218,14.45,12.77,22.56,-0.1748,7.413,0,0,0,0,0,0,0,0,0,0,0,0,0,0,0,0,
402,30.3,30.6,30.63,31.3,35.02,40.65,12.4,16.63,26.28,32.34,4.776,13.9,9.97,19.49,-1.183,5.369,0,0,0,0,0,0,0,0,0,0,0,0,0,0,0,0,
403,23.3,21.5,26.08,22.86,28.37,32.69,6.317,11.05,20.63,28.44,0.1401,12.07,5.904,15.7,-3.904,2.641,0,0,0,0,0,0,0,0,0,0,0,0,0,0,0,0,
404,19.44,16.72,22.73,21.15,23.66,27.14,-0.2319,10.94,15.09,24.86,-2.841,9.004,5.231,11.58,-6.03,-0.2139,0,0,0,0,0,0,0,0,0,0,0,0,0,0,0,0,
405,19.35,16.62,19.73,22.27,21.77,25.16,1.938,11.16,16.12,22.61,-2.669,5.589,3.35,6.207,-9.364,-3.233,0,0,0,0,0,0,0,0,0,0,0,0,0,0,0,0,
406,17.2,12.41,14.1,19.68,17.51,18.99,2.445,6.528,15.69,17.22,-2.296,2.774,0.5907,1.936,-8.663,-2.581,0,0,0,0,0,0,0,0,0,0,0,0,0,0,0,0,
407,9.352,4.835,10.23,14.65,11.58,11.0,-0.5917,3.244,9.115,10.52,-0.6023,2.111,2.772,1.472,-1.955,1.185,0,0,0,0,0,0,0,0,0,0,0,0,0,0,0,0,
408,0.9166,-0.0941,8.174,10.36,7.651,7.221,2.249,2.111,4.826,7.323,1.425,2.563,6.115,3.448,0.8503,2.545,0,0,0,0,0,0,0,0,0,0,0,0,0,0,0,0,
409,-1.034,-2.343,5.593,7.13,5.898,5.197,5.769,-1.794,5.365,6.474,-0.2928,1.422,5.198,4.097,-2.421,1.274,0,0,0,0,0,0,0,0,0,0,0,0,0,0,0,0,
410,-1.264,-5.265,3.119,3.694,3.753,1.528,2.982,-5.106,3.942,5.604,-3.941,-2.381,2.03,0.8261,-5.365,-1.121,0,0,0,0,0,0,0,0,0,0,0,0,0,0,0,0,
411,-6.179,-9.696,-0.3535,-1.364,1.805,-3.017,1.475,-4.931,0.4213,3.708,-4.407,-5.779,-0.3634,-2.963,-6.74,-3.112,0,0,0,0,0,0,0,0,0,0,0,0,0,0,0,0,
412,-8.642,-13.11,-0.911,-5.325,4.23,-5.806,5.032,-4.578,0.2266,0.0754,-1.359,-5.15,0.3142,-2.268,-5.37,-1.529,0,0,0,0,0,0,0,0,0,0,0,0,0,0,0,0,
413,-4.624,-13.8,5.314,-5.822,8.777,-5.246,9.18,-4.492,3.498,-3.03,2.196,-3.933,3.81,0.0827,-1.198,0.4643,0,0,0,0,0,0,0,0,0,0,0,0,0,0,0,0,
414,-3.457,-14.15,9.023,-6.976,8.123,-4.504,12.92,-4.695,6.282,-2.669,4.572,-5.817,5.425,-0.7844,0.4259,-0.9634,0,0,0,0,0,0,0,0,0,0,0,0,0,0,0,0,
415,-9.13,-17.9,3.682,-10.53,2.517,-6.897,13.83,-7.698,4.853,-2.062,4.493,-7.366,3.513,-3.723,-1.352,-2.811,0,0,0,0,0,0,0,0,0,0,0,0,0,0,0,0,
416,-15.05,-23.38,-2.692,-11.93,-1.274,-8.641,10.56,-10.57,0.3454,-4.564,1.839,-6.306,2.088,-4.918,-2.724,-3.809,0,0,0,0,0,0,0,0,0,0,0,0,0,0,0,0,
417,-16.5,-24.17,-3.346,-9.536,0.7708,-5.445,9.77,-8.575,0.8207,-4.131,0.4383,-4.62,3.209,-2.979,-3.107,-4.393,0,0,0,0,0,0,0,0,0,0,0,0,0,0,0,0,
418,-14.09,-20.91,-0.5897,-7.322,6.344,-0.5902,11.84,-5.843,7.992,1.669,1.364,-4.065,4.297,-1.066,-3.988,-4.173,0,0,0,0,0,0,0,0,0,0,0,0,0,0,0,0,
419,-10.7,-20.54,1.304,-7.794,10.05,1.668,10.69,-6.467,12.31,4.277,0.3552,-4.153,4.076,-1.882,-5.466,-4.321,0,0,0,0,0,0,0,0,0,0,0,0,0,0,0,0,
420,-10.61,-22.22,-0.3134,-9.17,9.254,0.7124,7.591,-5.911,9.596,1.863,-2.345,-3.779,3.205,-4.275,-6.318,-4.176,0,0,0,0,0,0,0,0,0,0,0,0,0,0,0,0,
421,-16.76,-23.02,-6.103,-11.01,3.987,-4.178,3.431,-5.132,3.534,-1.144,-4.412,-5.854,-0.319,-8.441,-8.213,-4.918,0,0,0,0,0,0,0,0,0,0,0,0,0,0,0,0,
422,-23.71,-25.41,-11.36,-11.99,-2.01,-9.216,-0.7353,-8.852,-2.846,-5.045,-7.111,-10.29,-5.061,-12.45,-12.24,-8.316,0,0,0,0,0,0,0,0,0,0,0,0,0,0,0,0,
423,-23.3,-26.87,-10.62,-8.094,-2.092,-7.86,1.779,-9.992,-4.384,-6.223,-7.561,-9.289,-4.294,-10.48,-11.93,-7.953,0,0,0,0,0,0,0,0,0,0,0,0,0,0,0,0,
424,-19.78,-24.96,-9.462,-4.888,0.5023,-5.023,5.8,-6.4,-0.5426,-1.803,-4.243,-3.785,-0.7619,-5.34,-6.569,-2.933,0,0,0,0,0,0,0,0,0,0,0,0,0,0,0,0,
425,-20.48,-25.37,-13.67,-9.679,-2.788,-9.002,1.178,-8.806,-0.7626,-0.3271,-4.123,-3.57,-2.992,-5.06,-5.418,-2.836,0,0,0,0,0,0,0,0,0,0,0,0,0,0,0,0,
426,-21.07,-28.31,-15.09,-14.72,-7.024,-15.35,-4.938,-15.52,-6.416,-5.912,-7.728,-7.712,-6.633,-8.361,-7.688,-6.642,0,0,0,0,0,0,0,0,0,0,0,0,0,0,0,0,
427,-17.95,-28.32,-9.604,-13.96,-4.112,-17.17,-4.032,-16.66,-7.913,-11.2,-8.494,-8.61,-4.524,-9.683,-7.205,-6.36,0,0,0,0,0,0,0,0,0,0,0,0,0,0,0,0,
428,-14.86,-26.77,-4.413,-12.2,1.409,-15.25,0.1839,-13.96,-3.739,-11.43,-6.641,-6.217,-1.617,-8.322,-7.049,-3.942,0,0,0,0,0,0,0,0,0,0,0,0,0,0,0,0,
429,-13.41,-27.22,-1.87,-11.22,3.081,-13.47,2.6,-11.7,-0.3666,-8.409,-5.065,-4.471,-2.094,-6.303,-7.976,-3.383,0,0,0,0,0,0,0,0,0,0,0,0,0,0,0,0,
430,-13.5,-29.53,-1.787,-11.77,1.269,-14.77,1.431,-10.66,-0.0356,-5.824,-4.165,-4.347,-2.381,-5.283,-6.524,-3.255,0,0,0,0,0,0,0,0,0,0,0,0,0,0,0,0,
431,-15.74,-32.78,-3.777,-15.09,-1.422,-17.82,0.387,-11.61,-0.516,-5.6,-4.036,-5.751,-1.941,-6.051,-5.625,-3.022,0,0,0,0,0,0,0,0,0,0,0,0,0,0,0,0,
432,-20.44,-37.0,-4.281,-19.32,-4.838,-21.61,1.409,-14.63,-2.026,-8.482,-6.193,-10.58,-5.067,-11.01,-9.771,-6.65,0,0,0,0,0,0,0,0,0,0,0,0,0,0,0,0,
433,-26.11,-41.49,-6.117,-24.18,-10.06,-27.92,-1.915,-20.35,-8.71,-16.18,-13.64,-18.51,-12.52,-20.97,-18.05,-16.35,0,0,0,0,0,0,0,0,0,0,0,0,0,0,0,0,
434,-27.67,-43.17,-10.04,-26.74,-12.84,-31.25,-6.876,-24.19,-16.77,-23.89,-19.73,-22.91,-17.2,-26.67,-23.08,-22.84,0,0,0,0,0,0,0,0,0,0,0,0,0,0,0,0,
435,-25.42,-41.53,-8.811,-23.82,-9.782,-26.47,-4.199,-21.04,-14.76,-22.2,-13.98,-19.05,-13.7,-20.78,-19.66,-17.34,0,0,0,0,0,0,0,0,0,0,0,0,0,0,0,0,
436,-26.52,-40.48,-7.093,-20.63,-7.573,-20.7,0.38,-18.82,-6.801,-14.24,-6.341,-13.05,-9.334,-13.56,-16.35,-10.63,0,0,0,0,0,0,0,0,0,0,0,0,0,0,0,0,
437,-30.1,-40.75,-10.96,-19.1,-9.069,-18.74,-0.2252,-21.11,-6.074,-10.06,-10.28,-13.2,-11.48,-14.54,-20.88,-13.99,0,0,0,0,0,0,0,0,0,0,0,0,0,0,0,0,
438,-30.58,-40.76,-11.27,-15.96,-8.758,-17.51,-2.166,-18.77,-8.87,-9.455,-17.0,-15.93,-14.62,-16.31,-25.25,-18.39,0,0,0,0,0,0,0,0,0,0,0,0,0,0,0,0,
439,-29.06,-39.79,-7.692,-12.97,-7.463,-15.32,-4.682,-13.62,-8.486,-8.71,-17.78,-13.69,-13.83,-13.48,-23.91,-16.86,0,0,0,0,0,0,0,0,0,0,0,0,0,0,0,0,
440,-26.22,-34.96,-8.738,-9.225,-6.446,-10.08,-7.516,-12.94,-8.6,-7.607,-16.98,-11.06,-11.89,-11.99,-22.44,-16.94,0,0,0,0,0,0,0,0,0,0,0,0,0,0,0,0,
441,-22.17,-27.55,-10.34,-3.676,-2.974,-3.354,-6.78,-13.33,-8.03,-5.744,-15.11,-13.33,-9.646,-13.29,-21.11,-18.67,0,0,0,0,0,0,0,0,0,0,0,0,0,0,0,0,
442,-22.09,-25.15,-10.32,-4.178,-2.768,-2.137,-4.53,-13.94,-5.67,-4.526,-10.73,-13.88,-6.889,-12.9,-16.12,-14.89,0,0,0,0,0,0,0,0,0,0,0,0,0,0,0,0,
443,-27.8,-29.72,-14.55,-12.21,-9.548,-6.347,-4.457,-16.72,-7.003,-5.387,-8.769,-11.18,-7.096,-11.97,-13.56,-11.03,0,0,0,0,0,0,0,0,0,0,0,0,0,0,0,0,
444,-34.33,-36.02,-20.5,-18.52,-15.38,-11.12,-6.417,-17.54,-11.01,-7.305,-11.59,-11.6,-11.64,-13.67,-18.29,-14.0,0,0,0,0,0,0,0,0,0,0,0,0,0,0,0,0,
445,-36.3,-39.42,-22.47,-19.14,-16.86,-14.84,-9.582,-15.86,-14.29,-10.37,-13.78,-13.15,-16.15,-16.05,-22.04,-17.7,0,0,0,0,0,0,0,0,0,0,0,0,0,0,0,0,
446,-32.52,-39.09,-21.32,-17.79,-16.87,-16.25,-12.1,-14.71,-17.79,-14.0,-13.09,-14.13,-17.89,-17.99,-20.97,-19.39,0,0,0,0,0,0,0,0,0,0,0,0,0,0,0,0,
447,-28.97,-38.09,-20.2,-18.97,-16.58,-17.25,-13.19,-13.76,-20.68,-16.95,-14.61,-17.11,-19.09,-20.19,-20.99,-21.94,0,0,0,0,0,0,0,0,0,0,0,0,0,0,0,0,
448,-30.45,-39.18,-19.5,-21.94,-17.18,-20.61,-11.88,-13.65,-22.11,-19.31,-17.37,-17.18,-18.98,-19.89,-20.71,-20.95,0,0,0,0,0,0,0,0,0,0,0,0,0,0,0,0,
449,-32.11,-41.78,-17.13,-22.75,-17.0,-22.48,-6.982,-13.89,-21.49,-19.29,-15.66,-14.1,-16.05,-17.36,-18.37,-17.24,0,0,0,0,0,0,0,0,0,0,0,0,0,0,0,0,
450,-30.69,-43.09,-15.74,-24.02,-14.98,-20.8,-4.506,-11.9,-18.3,-17.21,-13.9,-16.25,-15.55,-17.73,-20.16,-18.79,0,0,0,0,0,0,0,0,0,0,0,0,0,0,0,0,
451,-29.88,-39.87,-18.07,-27.28,-15.32,-20.29,-7.932,-11.26,-17.34,-17.5,-17.24,-22.75,-20.37,-22.22,-25.51,-23.75,0,0,0,0,0,0,0,0,0,0,0,0,0,0,0,0,
452,-31.77,-36.59,-19.84,-27.66,-19.27,-24.28,-11.7,-16.66,-22.39,-22.35,-22.36,-29.43,-27.04,-28.89,-30.0,-28.2,0,0,0,0,0,0,0,0,0,0,0,0,0,0,0,0,
453,-37.05,-42.06,-21.75,-28.98,-25.2,-31.41,-14.46,-22.85,-31.11,-30.74,-26.64,-34.18,-31.73,-33.38,-32.81,-30.79,0,0,0,0,0,0,0,0,0,0,0,0,0,0,0,0,
454,-42.97,-50.42,-25.02,-35.57,-29.67,-36.06,-14.63,-22.69,-36.98,-36.16,-26.76,-30.88,-29.22,-29.81,-29.76,-26.81,0,0,0,0,0,0,0,0,0,0,0,0,0,0,0,0,
455,-43.16,-50.57,-22.82,-38.71,-27.12,-34.81,-9.409,-19.84,-32.91,-32.17,-21.38,-24.41,-21.55,-23.13,-23.53,-21.98,0,0,0,0,0,0,0,0,0,0,0,0,0,0,0,0,
456,-40.57,-47.86,-19.26,-35.96,-23.16,-32.47,-7.927,-20.24,-25.56,-26.36,-19.14,-25.91,-20.5,-23.16,-25.04,-25.54,0,0,0,0,0,0,0,0,0,0,0,0,0,0,0,0,
457,-41.72,-48.98,-21.55,-34.37,-25.91,-32.2,-13.2,-21.91,-27.53,-26.95,-22.51,-30.18,-26.45,-27.78,-31.17,-29.99,0,0,0,0,0,0,0,0,0,0,0,0,0,0,0,0,
458,-43.18,-49.82,-22.01,-33.94,-28.4,-32.22,-14.99,-22.93,-32.17,-28.77,-23.35,-31.24,-29.84,-31.5,-32.3,-29.65,0,0,0,0,0,0,0,0,0,0,0,0,0,0,0,0,
459,-44.26,-51.16,-22.29,-35.21,-28.58,-34.51,-15.85,-25.34,-31.67,-30.24,-22.4,-33.48,-30.14,-34.08,-31.35,-30.13,0,0,0,0,0,0,0,0,0,0,0,0,0,0,0,0,
460,-49.28,-56.12,-30.07,-40.97,-33.44,-39.26,-21.52,-29.34,-33.73,-34.34,-23.66,-35.11,-28.97,-34.38,-31.42,-29.87,0,0,0,0,0,0,0,0,0,0,0,0,0,0,0,0,
461,-52.67,-58.58,-33.36,-43.94,-35.94,-41.01,-23.08,-33.32,-35.71,-36.83,-22.94,-34.72,-24.9,-33.35,-30.1,-27.76,0,0,0,0,0,0,0,0,0,0,0,0,0,0,0,0,
462,-48.97,-53.63,-27.54,-38.45,-29.9,-37.6,-17.42,-33.16,-29.27,-35.62,-19.83,-37.23,-21.66,-34.41,-28.9,-29.43,0,0,0,0,0,0,0,0,0,0,0,0,0,0,0,0,
463,-42.29,-44.56,-23.87,-31.1,-22.95,-29.97,-11.53,-26.21,-21.86,-32.24,-17.12,-38.1,-20.36,-34.86,-27.26,-30.86,0,0,0,0,0,0,0,0,0,0,0,0,0,0,0,0,
464,-34.4,-36.54,-19.4,-28.13,-16.82,-21.48,-7.089,-20.24,-17.96,-26.49,-12.68,-32.88,-17.24,-31.95,-22.37,-26.87,0,0,0,0,0,0,0,0,0,0,0,0,0,0,0,0,
465,-28.59,-34.45,-13.54,-30.26,-12.4,-19.66,-3.486,-22.29,-14.57,-23.32,-8.67,-29.58,-14.72,-29.4,-18.1,-22.74,0,0,0,0,0,0,0,0,0,0,0,0,0,0,0,0,
466,-30.57,-37.27,-16.33,-33.79,-14.2,-23.32,1.004,-25.39,-14.1,-24.99,-6.752,-28.42,-12.66,-26.47,-14.3,-17.76,0,0,0,0,0,0,0,0,0,0,0,0,0,0,0,0,
467,-32.68,-36.57,-19.01,-32.95,-14.82,-22.57,7.688,-22.9,-12.1,-24.18,-0.6161,-22.62,-5.91,-19.45,-6.729,-9.201,0,0,0,0,0,0,0,0,0,0,0,0,0,0,0,0,
468,-29.8,-32.97,-16.86,-31.59,-13.03,-20.97,6.889,-19.82,-6.079,-21.12,2.998,-19.74,-3.53,-15.81,-4.994,-7.871,0,0,0,0,0,0,0,0,0,0,0,0,0,0,0,0,
469,-33.01,-36.25,-24.53,-34.76,-19.88,-27.31,-6.653,-20.95,-9.861,-23.4,-9.199,-25.45,-14.98,-22.22,-16.92,-17.8,0,0,0,0,0,0,0,0,0,0,0,0,0,0,0,0,
470,-41.82,-44.45,-35.45,-37.34,-28.71,-34.27,-18.88,-25.43,-23.06,-28.51,-26.42,-30.08,-27.78,-30.31,-30.14,-26.48,0,0,0,0,0,0,0,0,0,0,0,0,0,0,0,0,
471,-46.87,-50.22,-37.72,-40.8,-30.26,-36.06,-23.24,-31.15,-30.28,-30.86,-33.4,-30.77,-31.75,-33.3,-34.97,-28.77,0,0,0,0,0,0,0,0,0,0,0,0,0,0,0,0,
472,-50.99,-54.02,-42.71,-46.21,-32.51,-37.38,-28.08,-34.19,-33.22,-32.25,-33.91,-32.88,-32.2,-34.27,-35.37,-29.24,0,0,0,0,0,0,0,0,0,0,0,0,0,0,0,0,
473,-51.98,-52.05,-47.37,-42.96,-34.04,-35.89,-31.27,-33.51,-35.21,-33.2,-32.05,-34.85,-31.24,-34.46,-34.45,-29.02,0,0,0,0,0,0,0,0,0,0,0,0,0,0,0,0,
474,-46.32,-43.01,-40.64,-36.09,-29.68,-31.2,-28.9,-32.87,-31.21,-32.13,-28.42,-33.92,-29.12,-32.97,-32.8,-27.95,0,0,0,0,0,0,0,0,0,0,0,0,0,0,0,0,
475,-43.59,-39.45,-35.73,-37.43,-28.58,-30.86,-27.15,-31.18,-28.36,-31.1,-27.57,-31.66,-28.62,-31.79,-31.02,-26.84,0,0,0,0,0,0,0,0,0,0,0,0,0,0,0,0,
476,-43.2,-43.47,-37.15,-38.66,-30.0,-32.15,-25.37,-26.5,-30.95,-31.13,-29.01,-30.88,-28.1,-32.45,-29.67,-26.03,0,0,0,0,0,0,0,0,0,0,0,0,0,0,0,0,
477,-38.45,-42.85,-34.6,-36.03,-25.88,-29.31,-22.09,-23.68,-30.34,-30.06,-29.53,-32.4,-26.86,-32.83,-29.89,-26.24,0,0,0,0,0,0,0,0,0,0,0,0,0,0,0,0,
478,-36.77,-38.16,-33.45,-35.86,-23.18,-26.42,-23.08,-24.54,-27.73,-27.61,-28.85,-33.2,-26.44,-31.72,-29.73,-27.37,0,0,0,0,0,0,0,0,0,0,0,0,0,0,0,0,
479,-40.22,-37.73,-37.4,-35.38,-26.23,-26.24,-25.32,-26.09,-28.59,-26.66,-26.31,-32.47,-25.14,-31.76,-27.14,-27.59,0,0,0,0,0,0,0,0,0,0,0,0,0,0,0,0,
480,-40.93,-39.42,-38.33,-34.07,-27.18,-27.02,-22.87,-26.79,-27.89,-28.58,-23.01,-31.69,-21.74,-31.51,-23.99,-25.13,0,0,0,0,0,0,0,0,0,0,0,0,0,0,0,0,
481,-38.83,-39.87,-36.38,-35.35,-24.87,-28.37,-19.71,-26.42,-22.99,-30.0,-21.99,-30.71,-18.7,-28.64,-22.49,-22.41,0,0,0,0,0,0,0,0,0,0,0,0,0,0,0,0,
482,-37.48,-40.68,-35.29,-36.71,-24.64,-29.47,-19.6,-27.8,-20.24,-29.97,-24.07,-31.47,-19.58,-28.68,-23.68,-23.68,0,0,0,0,0,0,0,0,0,0,0,0,0,0,0,0,
483,-36.1,-38.79,-33.1,-36.33,-24.63,-27.8,-21.15,-30.7,-22.63,-30.79,-27.08,-32.98,-23.02,-31.58,-25.57,-26.05,0,0,0,0,0,0,0,0,0,0,0,0,0,0,0,0,
484,-32.94,-32.74,-29.8,-34.87,-21.36,-23.96,-21.09,-29.87,-24.67,-29.99,-28.01,-31.08,-24.01,-30.53,-25.61,-25.36,0,0,0,0,0,0,0,0,0,0,0,0,0,0,0,0,
485,-31.48,-30.3,-29.48,-34.24,-20.31,-22.68,-18.91,-27.59,-24.12,-27.72,-27.18,-28.58,-23.39,-28.11,-25.66,-24.42,0,0,0,0,0,0,0,0,0,0,0,0,0,0,0,0,
486,-35.28,-32.95,-33.11,-35.42,-23.55,-22.62,-19.44,-27.65,-24.16,-27.35,-26.56,-28.18,-23.33,-27.57,-26.15,-25.09,0,0,0,0,0,0,0,0,0,0,0,0,0,0,0,0,
487,-38.48,-34.74,-36.08,-36.15,-23.87,-19.72,-22.45,-27.39,-22.64,-24.87,-26.11,-28.58,-22.13,-27.29,-26.26,-27.4,0,0,0,0,0,0,0,0,0,0,0,0,0,0,0,0,
488,-36.47,-34.75,-36.0,-36.05,-20.98,-17.43,-22.09,-28.13,-19.42,-21.31,-26.53,-30.45,-21.39,-28.68,-27.66,-31.72,0,0,0,0,0,0,0,0,0,0,0,0,0,0,0,0,
489,-30.98,-30.09,-32.97,-33.18,-16.89,-14.14,-18.1,-29.99,-17.77,-21.3,-26.73,-30.76,-20.59,-28.58,-28.1,-33.08,0,0,0,0,0,0,0,0,0,0,0,0,0,0,0,0,
490,-23.04,-21.25,-26.25,-27.17,-9.171,-6.597,-14.06,-27.62,-12.89,-17.12,-24.41,-28.56,-17.04,-24.76,-27.07,-30.65,0,0,0,0,0,0,0,0,0,0,0,0,0,0,0,0,
491,-20.04,-20.17,-22.82,-27.37,-7.097,-6.402,-14.67,-24.64,-8.214,-10.86,-24.9,-31.0,-17.93,-25.87,-31.04,-32.8,0,0,0,0,0,0,0,0,0,0,0,0,0,0,0,0,
492,-26.65,-27.01,-28.9,-34.55,-16.57,-16.02,-20.78,-26.78,-15.29,-16.07,-31.55,-35.49,-25.93,-31.62,-36.93,-37.28,0,0,0,0,0,0,0,0,0,0,0,0,0,0,0,0,
493,-32.06,-30.27,-34.58,-37.33,-22.21,-19.75,-23.34,-28.13,-24.59,-23.74,-34.69,-32.73,-28.53,-30.78,-34.25,-32.99,0,0,0,0,0,0,0,0,0,0,0,0,0,0,0,0,
494,-32.04,-29.95,-33.77,-34.78,-18.83,-16.43,-21.07,-25.04,-22.67,-21.11,-30.54,-26.97,-23.2,-24.93,-26.46,-23.51,0,0,0,0,0,0,0,0,0,0,0,0,0,0,0,0,
495,-33.56,-30.35,-33.93,-32.68,-18.56,-17.2,-22.77,-23.8,-17.57,-18.75,-27.93,-26.26,-20.23,-22.42,-22.77,-19.38,0,0,0,0,0,0,0,0,0,0,0,0,0,0,0,0,
496,-35.4,-32.31,-34.67,-31.79,-21.53,-21.57,-23.49,-25.19,-16.33,-21.96,-26.7,-27.63,-19.57,-21.68,-20.4,-18.86,0,0,0,0,0,0,0,0,0,0,0,0,0,0,0,0,
497,-34.91,-35.96,-32.05,-31.98,-22.32,-24.38,-18.01,-24.05,-16.35,-22.24,-21.83,-27.2,-18.04,-21.11,-16.78,-18.28,0,0,0,0,0,0,0,0,0,0,0,0,0,0,0,0,
498,-35.22,-37.09,-30.29,-32.86,-23.78,-26.11,-16.98,-24.1,-19.02,-21.91,-18.73,-28.08,-20.26,-24.46,-17.24,-20.89,0,0,0,0,0,0,0,0,0,0,0,0,0,0,0,0,
499,-35.74,-34.75,-29.12,-34.45,-24.91,-28.05,-20.67,-28.91,-22.91,-26.62,-18.82,-30.81,-23.19,-28.55,-19.8,-25.47,0,0,0,0,0,0,0,0,0,0,0,0,0,0,0,0,
500,-34.67,-34.34,-25.97,-35.69,-22.99,-29.01,-19.44,-30.49,-21.74,-29.73,-16.7,-29.85,-20.04,-27.14,-18.26,-26.34,0,0,0,0,0,0,0,0,0,0,0,0,0,0,0,0,
501,-34.43,-36.26,-25.32,-33.76,-21.96,-28.37,-16.51,-27.9,-17.34,-26.95,-15.28,-25.79,-16.38,-23.91,-15.95,-23.73,0,0,0,0,0,0,0,0,0,0,0,0,0,0,0,0,
502,-34.98,-36.74,-28.48,-32.33,-22.95,-27.82,-16.33,-29.2,-16.04,-24.16,-16.54,-25.73,-17.19,-24.59,-16.56,-21.34,0,0,0,0,0,0,0,0,0,0,0,0,0,0,0,0,
503,-33.05,-34.98,-31.36,-35.05,-23.45,-27.84,-16.85,-30.41,-18.03,-24.53,-15.98,-28.33,-18.58,-26.78,-17.02,-19.6,0,0,0,0,0,0,0,0,0,0,0,0,0,0,0,0,
504,-30.69,-33.89,-32.6,-37.41,-25.09,-28.15,-18.6,-27.26,-21.49,-26.68,-16.12,-27.11,-19.87,-26.94,-16.7,-17.96,0,0,0,0,0,0,0,0,0,0,0,0,0,0,0,0,
505,-31.37,-34.98,-32.53,-37.82,-27.06,-29.09,-20.72,-27.8,-24.55,-29.16,-20.42,-24.58,-22.08,-25.86,-19.06,-18.45,0,0,0,0,0,0,0,0,0,0,0,0,0,0,0,0,
506,-31.12,-34.24,-31.31,-37.53,-24.9,-28.52,-21.45,-31.28,-23.61,-28.53,-24.81,-25.4,-23.94,-25.45,-26.3,-21.87,0,0,0,0,0,0,0,0,0,0,0,0,0,0,0,0,
507,-28.4,-30.78,-29.96,-35.21,-21.08,-25.43,-22.35,-29.32,-20.73,-24.72,-28.48,-26.37,-26.78,-25.64,-35.61,-25.09,0,0,0,0,0,0,0,0,0,0,0,0,0,0,0,0,
508,-26.16,-26.9,-27.96,-31.79,-18.43,-20.5,-21.64,-25.0,-19.62,-21.18,-31.97,-24.83,-28.34,-24.69,-39.56,-25.63,0,0,0,0,0,0,0,0,0,0,0,0,0,0,0,0,
509,-21.05,-20.41,-22.76,-27.3,-13.28,-12.69,-17.6,-23.47,-16.05,-16.21,-30.67,-23.03,-23.26,-21.67,-34.58,-23.15,0,0,0,0,0,0,0,0,0,0,0,0,0,0,0,0,
510,-15.15,-15.68,-17.77,-23.71,-8.918,-8.345,-16.28,-23.9,-11.03,-10.7,-28.02,-21.73,-17.33,-18.35,-27.28,-19.07,0,0,0,0,0,0,0,0,0,0,0,0,0,0,0,0,
511,-18.02,-19.59,-21.32,-26.58,-12.36,-13.75,-20.97,-25.31,-12.53,-11.43,-31.41,-20.77,-18.58,-17.4,-24.96,-17.22,0,0,0,0,0,0,0,0,0,0,0,0,0,0,0,0,
512,-24.82,-24.74,-29.68,-30.41,-18.58,-19.25,-24.67,-25.73,-16.94,-15.88,-33.32,-20.92,-20.96,-18.93,-23.32,-17.79,0,0,0,0,0,0,0,0,0,0,0,0,0,0,0,0,
513,-27.97,-27.42,-33.57,-28.79,-22.15,-19.65,-25.63,-26.26,-18.31,-17.19,-29.27,-22.04,-21.07,-22.09,-19.18,-20.01,0,0,0,0,0,0,0,0,0,0,0,0,0,0,0,0,
514,-32.78,-32.53,-37.18,-28.8,-26.55,-21.76,-30.79,-30.1,-21.97,-18.59,-31.68,-25.63,-27.21,-28.21,-22.66,-28.44,0,0,0,0,0,0,0,0,0,0,0,0,0,0,0,0,
515,-36.75,-33.25,-41.4,-30.9,-29.81,-21.62,-36.0,-32.87,-28.78,-22.23,-39.42,-30.74,-36.4,-34.57,-31.99,-38.15,0,0,0,0,0,0,0,0,0,0,0,0,0,0,0,0,
516,-32.62,-27.01,-37.45,-29.03,-27.49,-16.98,-33.25,-30.78,-31.14,-22.26,-38.13,-30.92,-38.19,-35.3,-32.13,-37.75,0,0,0,0,0,0,0,0,0,0,0,0,0,0,0,0,
517,-28.9,-24.49,-32.2,-28.2,-25.68,-18.89,-30.97,-28.47,-29.58,-20.21,-34.02,-27.92,-38.13,-34.35,-30.15,-34.19,0,0,0,0,0,0,0,0,0,0,0,0,0,0,0,0,
518,-32.28,-27.22,-35.87,-32.07,-29.25,-26.92,-35.2,-28.84,-31.64,-24.07,-36.95,-28.52,-40.97,-36.28,-35.04,-34.79,0,0,0,0,0,0,0,0,0,0,0,0,0,0,0,0,
519,-34.58,-31.64,-38.53,-34.54,-31.4,-30.21,-34.94,-28.2,-34.85,-28.9,-35.06,-26.25,-35.7,-32.01,-30.51,-28.34,0,0,0,0,0,0,0,0,0,0,0,0,0,0,0,0,
520,-31.99,-34.97,-32.36,-32.5,-27.52,-26.26,-26.1,-24.15,-29.29,-23.27,-23.76,-17.63,-21.27,-19.64,-16.49,-16.38,0,0,0,0,0,0,0,0,0,0,0,0,0,0,0,0,
521,-30.13,-31.78,-26.35,-30.9,-23.39,-19.5,-20.17,-22.4,-19.45,-13.28,-16.68,-14.16,-11.75,-14.29,-13.04,-13.69,0,0,0,0,0,0,0,0,0,0,0,0,0,0,0,0,
522,-30.21,-27.7,-25.92,-33.17,-23.34,-16.94,-22.52,-26.25,-17.65,-12.54,-16.3,-16.44,-10.87,-19.21,-16.38,-16.24,0,0,0,0,0,0,0,0,0,0,0,0,0,0,0,0,
523,-29.32,-28.93,-25.69,-32.7,-24.49,-20.23,-24.53,-27.84,-19.99,-18.01,-15.7,-16.0,-11.93,-22.71,-15.96,-15.77,0,0,0,0,0,0,0,0,0,0,0,0,0,0,0,0,
524,-27.74,-27.94,-22.04,-26.95,-23.25,-22.54,-20.61,-25.44,-18.13,-21.16,-14.76,-16.31,-11.75,-23.1,-17.26,-16.65,0,0,0,0,0,0,0,0,0,0,0,0,0,0,0,0,
525,-24.57,-23.59,-16.28,-24.74,-17.02,-19.43,-15.23,-24.34,-12.8,-21.24,-12.73,-18.14,-9.26,-23.18,-19.72,-18.96,0,0,0,0,0,0,0,0,0,0,0,0,0,0,0,0,
526,-17.84,-20.04,-10.07,-24.44,-6.863,-10.67,-10.51,-20.75,-3.927,-15.76,-10.55,-15.44,-6.436,-20.01,-20.02,-20.03,0,0,0,0,0,0,0,0,0,0,0,0,0,0,0,0,
527,-12.92,-15.62,-7.593,-19.59,-1.164,-1.517,-6.563,-15.35,3.876,-5.996,-13.34,-12.12,-8.393,-17.12,-22.09,-22.39,0,0,0,0,0,0,0,0,0,0,0,0,0,0,0,0,
528,-15.27,-14.97,-12.38,-18.19,-4.917,-1.171,-8.084,-15.21,1.641,-3.145,-17.81,-12.25,-14.12,-20.24,-24.07,-25.09,0,0,0,0,0,0,0,0,0,0,0,0,0,0,0,0,
529,-20.1,-18.72,-18.23,-22.0,-11.87,-6.931,-13.72,-15.37,-6.478,-9.127,-19.91,-12.52,-18.55,-25.04,-23.67,-25.78,0,0,0,0,0,0,0,0,0,0,0,0,0,0,0,0,
530,-21.64,-18.0,-19.01,-22.76,-15.66,-11.72,-16.31,-13.25,-11.8,-15.57,-22.28,-13.42,-20.42,-26.69,-23.8,-25.87,0,0,0,0,0,0,0,0,0,0,0,0,0,0,0,0,
531,-21.49,-18.77,-19.26,-24.4,-17.42,-18.1,-16.32,-15.07,-14.41,-20.76,-23.28,-15.4,-20.14,-26.12,-23.03,-25.95,0,0,0,0,0,0,0,0,0,0,0,0,0,0,0,0,
532,-21.29,-26.29,-19.51,-27.81,-17.45,-21.98,-14.88,-17.37,-14.35,-23.17,-20.62,-15.44,-17.45,-24.23,-19.38,-24.74,0,0,0,0,0,0,0,0,0,0,0,0,0,0,0,0,
533,-17.75,-24.99,-14.01,-23.51,-12.13,-15.74,-8.38,-16.24,-9.453,-18.2,-15.63,-15.59,-13.24,-22.95,-13.61,-21.94,0,0,0,0,0,0,0,0,0,0,0,0,0,0,0,0,
534,-12.06,-14.45,-9.195,-17.32,-5.614,-8.863,-3.057,-16.32,-3.967,-12.42,-9.902,-17.18,-11.08,-23.59,-7.78,-18.61,0,0,0,0,0,0,0,0,0,0,0,0,0,0,0,0,
535,-12.79,-13.92,-14.25,-19.86,-7.992,-11.76,-8.106,-16.81,-5.68,-14.49,-8.723,-14.36,-13.81,-21.74,-7.517,-14.64,0,0,0,0,0,0,0,0,0,0,0,0,0,0,0,0,
536,-20.62,-22.78,-22.01,-25.0,-17.82,-20.4,-15.59,-15.63,-13.65,-19.22,-12.98,-8.04,-18.1,-15.84,-12.8,-10.19,0,0,0,0,0,0,0,0,0,0,0,0,0,0,0,0,
537,-27.92,-29.61,-24.74,-27.51,-26.53,-28.83,-16.7,-15.61,-20.87,-21.08,-15.37,-6.686,-19.81,-11.71,-15.4,-8.329,0,0,0,0,0,0,0,0,0,0,0,0,0,0,0,0,
538,-31.98,-33.85,-26.74,-29.73,-31.78,-32.28,-17.24,-15.82,-25.95,-22.45,-14.09,-8.606,-18.4,-10.5,-12.71,-8.248,0,0,0,0,0,0,0,0,0,0,0,0,0,0,0,0,
539,-31.53,-33.06,-28.7,-29.28,-31.95,-27.21,-17.92,-15.71,-27.35,-21.72,-11.8,-8.911,-13.76,-9.455,-9.703,-6.808,0,0,0,0,0,0,0,0,0,0,0,0,0,0,0,0,
540,-26.19,-25.77,-26.17,-24.54,-26.52,-17.88,-14.28,-17.26,-22.75,-17.24,-9.743,-10.34,-8.784,-10.43,-8.907,-5.911,0,0,0,0,0,0,0,0,0,0,0,0,0,0,0,0,
541,-21.36,-19.35,-21.82,-19.25,-20.97,-10.55,-12.35,-17.2,-18.14,-14.0,-9.12,-11.79,-6.721,-12.14,-7.217,-5.29,0,0,0,0,0,0,0,0,0,0,0,0,0,0,0,0,
542,-19.51,-17.15,-20.22,-17.29,-18.22,-7.664,-14.39,-15.71,-15.82,-13.66,-8.296,-12.77,-5.742,-12.69,-4.156,-3.959,0,0,0,0,0,0,0,0,0,0,0,0,0,0,0,0,
543,-18.56,-16.37,-18.74,-19.06,-16.29,-9.151,-12.75,-18.84,-11.74,-15.09,-6.45,-16.3,-5.484,-16.1,-4.194,-4.937,0,0,0,0,0,0,0,0,0,0,0,0,0,0,0,0,
544,-17.26,-14.67,-13.5,-19.57,-14.08,-11.46,-6.466,-23.56,-9.192,-18.68,-5.447,-15.92,-6.065,-18.93,-5.287,-5.644,0,0,0,0,0,0,0,0,0,0,0,0,0,0,0,0,
545,-14.46,-12.45,-8.619,-16.46,-12.15,-10.78,-1.991,-23.07,-10.31,-19.53,-5.114,-11.91,-5.987,-16.82,-4.053,-5.413,0,0,0,0,0,0,0,0,0,0,0,0,0,0,0,0,
546,-10.77,-11.75,-9.024,-13.55,-10.82,-6.278,-3.098,-18.71,-11.23,-13.99,-6.269,-13.54,-8.721,-16.88,-5.92,-9.727,0,0,0,0,0,0,0,0,0,0,0,0,0,0,0,0,
547,-7.128,-9.861,-9.726,-11.31,-8.752,0.029,-6.551,-13.88,-11.71,-8.284,-8.973,-14.17,-14.88,-18.55,-11.02,-13.32,0,0,0,0,0,0,0,0,0,0,0,0,0,0,0,0,
548,-4.978,-5.85,-8.485,-8.613,-6.614,2.844,-7.848,-10.58,-11.66,-6.646,-10.79,-9.882,-18.99,-15.44,-14.36,-11.52,0,0,0,0,0,0,0,0,0,0,0,0,0,0,0,0,
549,-6.689,-4.553,-10.47,-6.024,-6.267,2.051,-8.777,-9.12,-10.42,-5.564,-12.77,-9.691,-20.69,-12.74,-17.94,-11.7,0,0,0,0,0,0,0,0,0,0,0,0,0,0,0,0,
550,-7.821,-3.411,-10.22,-2.465,-5.2,3.594,-8.666,-8.209,-9.701,-3.167,-14.45,-10.05,-20.54,-12.51,-19.86,-13.21,0,0,0,0,0,0,0,0,0,0,0,0,0,0,0,0,
551,-6.558,-1.155,-3.765,-1.107,-4.709,4.035,-4.409,-9.567,-9.767,-2.622,-13.0,-7.727,-17.73,-10.59,-16.24,-11.03,0,0,0,0,0,0,0,0,0,0,0,0,0,0,0,0,
552,-10.14,-5.922,-3.623,-5.859,-9.392,-2.731,-2.0,-12.32,-11.36,-6.008,-11.06,-8.232,-15.25,-8.977,-12.56,-8.601,0,0,0,0,0,0,0,0,0,0,0,0,0,0,0,0,
553,-14.91,-14.35,-9.333,-11.41,-13.16,-9.575,-3.218,-11.81,-13.69,-9.585,-9.251,-6.624,-11.69,-7.548,-10.28,-6.189,0,0,0,0,0,0,0,0,0,0,0,0,0,0,0,0,
554,-12.53,-15.81,-5.807,-11.91,-10.71,-9.825,-0.492,-9.92,-12.24,-9.744,-4.512,-2.588,-4.72,-5.078,-6.205,-3.238,0,0,0,0,0,0,0,0,0,0,0,0,0,0,0,0,
555,-8.446,-11.28,1.183,-7.674,-8.372,-6.984,3.136,-8.762,-8.26,-8.55,-0.6162,-4.215,-1.01,-5.449,-4.669,-4.283,0,0,0,0,0,0,0,0,0,0,0,0,0,0,0,0,
556,-7.125,-5.106,-1.579,-2.024,-8.493,-4.577,0.1733,-6.545,-6.745,-7.766,-2.225,-6.333,-3.142,-6.876,-7.621,-6.788,0,0,0,0,0,0,0,0,0,0,0,0,0,0,0,0,
557,-7.039,-1.566,-7.337,0.972,-8.907,-4.385,-4.804,-5.687,-8.2,-7.006,-6.24,-4.649,-4.831,-5.549,-9.78,-5.357,0,0,0,0,0,0,0,0,0,0,0,0,0,0,0,0,
558,-9.13,-4.027,-8.262,2.037,-10.93,-5.417,-5.301,-5.533,-10.46,-6.242,-6.85,-4.747,-3.406,-4.907,-7.798,-2.63,0,0,0,0,0,0,0,0,0,0,0,0,0,0,0,0,
559,-10.59,-6.883,-8.496,2.1,-12.24,-4.208,-2.922,-3.001,-9.684,-4.5,-3.324,-5.666,-1.011,-7.1,-3.138,-1.967,0,0,0,0,0,0,0,0,0,0,0,0,0,0,0,0,
560,-9.146,-6.964,-9.592,-1.721,-11.0,-4.002,-2.834,-2.959,-6.103,-4.173,-2.346,-7.014,-1.751,-11.46,-2.317,-4.93,0,0,0,0,0,0,0,0,0,0,0,0,0,0,0,0,
561,-7.241,-6.797,-7.478,-4.714,-10.32,-7.05,-4.705,-5.479,-6.246,-8.732,-6.129,-11.94,-6.636,-17.45,-6.656,-11.28,0,0,0,0,0,0,0,0,0,0,0,0,0,0,0,0,
562,-3.646,-3.609,-1.2,-2.044,-8.427,-7.274,-2.43,-4.623,-8.177,-12.58,-6.947,-14.56,-9.4,-20.76,-7.373,-14.24,0,0,0,0,0,0,0,0,0,0,0,0,0,0,0,0,
563,-0.9009,-0.7987,3.312,-1.75,-5.48,-6.777,-0.2442,-4.86,-6.641,-11.95,-6.593,-13.5,-10.87,-21.47,-6.708,-12.99,0,0,0,0,0,0,0,0,0,0,0,0,0,0,0,0,
564,-6.183,-6.57,-0.1958,-6.036,-8.385,-11.46,-7.657,-8.822,-8.922,-13.51,-13.21,-15.33,-17.57,-25.1,-12.82,-14.67,0,0,0,0,0,0,0,0,0,0,0,0,0,0,0,0,
565,-14.55,-13.73,-7.091,-6.031,-13.81,-13.88,-14.71,-9.015,-15.12,-16.39,-18.21,-14.14,-21.56,-26.58,-15.62,-14.01,0,0,0,0,0,0,0,0,0,0,0,0,0,0,0,0,
566,-17.08,-14.23,-8.975,-3.533,-14.03,-11.66,-10.41,-6.787,-13.66,-14.24,-14.46,-6.163,-17.45,-20.7,-10.31,-5.888,0,0,0,0,0,0,0,0,0,0,0,0,0,0,0,0,
567,-16.14,-14.17,-8.002,-5.847,-13.86,-14.02,-6.144,-8.308,-10.68,-13.23,-11.47,-4.115,-16.06,-16.64,-9.024,-1.456,0,0,0,0,0,0,0,0,0,0,0,0,0,0,0,0,
568,-15.32,-16.12,-7.716,-9.755,-16.53,-17.51,-7.572,-10.41,-16.01,-17.23,-10.82,-8.663,-17.41,-17.44,-9.543,-2.085,0,0,0,0,0,0,0,0,0,0,0,0,0,0,0,0,
569,-14.32,-16.17,-5.703,-10.94,-16.42,-14.96,-6.443,-10.24,-19.44,-18.39,-8.038,-8.522,-13.76,-15.76,-5.305,1.312,0,0,0,0,0,0,0,0,0,0,0,0,0,0,0,0,
570,-13.13,-14.37,-3.045,-9.843,-13.21,-11.95,-3.821,-7.997,-15.98,-15.09,-6.747,-4.858,-10.11,-12.01,-3.525,5.288,0,0,0,0,0,0,0,0,0,0,0,0,0,0,0,0,
571,-10.48,-12.41,-1.059,-7.597,-10.05,-11.04,-1.137,-4.742,-12.54,-10.34,-6.222,-1.09,-8.873,-9.166,-3.7,6.416,0,0,0,0,0,0,0,0,0,0,0,0,0,0,0,0,
572,-9.14,-13.05,1.79,-8.575,-7.894,-10.79,3.369,-6.498,-9.652,-6.267,-4.227,2.473,-6.658,-7.766,-1.299,7.208,0,0,0,0,0,0,0,0,0,0,0,0,0,0,0,0,
573,-11.35,-16.45,2.64,-12.89,-7.151,-13.53,3.896,-10.6,-7.617,-7.932,-3.216,1.727,-5.434,-9.483,-0.4665,5.403,0,0,0,0,0,0,0,0,0,0,0,0,0,0,0,0,
574,-9.137,-16.77,2.15,-11.79,-5.068,-15.31,3.35,-7.111,-6.469,-11.52,-1.076,0.4277,-3.832,-9.7,0.1324,3.481,0,0,0,0,0,0,0,0,0,0,0,0,0,0,0,0,
575,-2.805,-12.74,5.647,-3.625,-0.8287,-10.77,9.152,-1.111,-1.911,-8.06,2.976,5.064,1.16,-3.349,3.657,7.38,0,0,0,0,0,0,0,0,0,0,0,0,0,0,0,0,
576,-1.854,-7.474,9.463,3.825,1.978,-3.311,12.75,0.498,3.818,-0.2525,5.447,9.373,5.756,3.261,5.295,11.69,0,0,0,0,0,0,0,0,0,0,0,0,0,0,0,0,
577,-0.8088,-1.83,9.363,6.413,4.703,2.424,9.84,1.695,7.099,5.63,5.256,7.183,6.267,2.778,2.106,8.805,0,0,0,0,0,0,0,0,0,0,0,0,0,0,0,0,
578,5.227,1.277,9.787,5.128,9.105,4.748,10.24,1.772,9.132,6.562,3.427,4.031,4.204,-1.325,-1.244,4.706,0,0,0,0,0,0,0,0,0,0,0,0,0,0,0,0,
579,7.471,0.8326,11.9,2.873,10.83,4.293,14.46,0.7485,9.494,3.206,4.832,5.075,3.715,-2.107,0.7332,7.551,0,0,0,0,0,0,0,0,0,0,0,0,0,0,0,0,
580,5.348,-0.8371,12.28,0.3726,8.171,1.868,15.01,1.684,7.915,1.142,8.563,6.502,4.324,-1.155,4.364,10.75,0,0,0,0,0,0,0,0,0,0,0,0,0,0,0,0,
581,2.163,-4.92,10.34,-3.524,3.563,-2.943,12.03,0.8265,4.117,-0.7311,6.197,5.511,2.591,-2.561,4.664,8.94,0,0,0,0,0,0,0,0,0,0,0,0,0,0,0,0,
582,-4.213,-9.618,6.411,-5.197,-0.5589,-6.572,9.437,-0.0484,-0.5148,-4.452,2.879,5.596,2.223,-3.125,6.323,9.469,0,0,0,0,0,0,0,0,0,0,0,0,0,0,0,0,
583,-8.666,-10.65,1.248,-2.769,-1.685,-6.184,8.703,2.059,-0.0277,-4.16,5.802,7.168,5.596,-1.085,9.195,11.99,0,0,0,0,0,0,0,0,0,0,0,0,0,0,0,0,
584,-7.517,-9.654,-3.122,-0.6672,-0.8768,-4.821,9.64,1.345,4.36,-1.71,6.729,8.624,8.201,1.07,8.403,11.88,0,0,0,0,0,0,0,0,0,0,0,0,0,0,0,0,
585,-7.057,-8.861,-5.867,-1.099,-1.72,-4.57,9.395,-0.1299,5.876,-1.483,4.471,10.61,8.939,3.037,7.638,12.59,0,0,0,0,0,0,0,0,0,0,0,0,0,0,0,0,
586,-8.455,-9.12,-6.554,-3.416,-3.542,-6.432,7.2,1.162,4.596,-0.5989,6.779,10.69,7.899,3.279,7.378,11.63,0,0,0,0,0,0,0,0,0,0,0,0,0,0,0,0,
587,-7.159,-9.832,-4.041,-4.387,-3.309,-8.64,8.904,-0.0098,3.067,-1.042,10.64,8.075,5.805,1.423,5.12,7.439,0,0,0,0,0,0,0,0,0,0,0,0,0,0,0,0,
588,-4.546,-8.992,-0.7075,-1.738,-2.232,-7.029,13.11,-2.421,2.739,-3.455,10.16,5.674,5.343,-0.0158,4.248,6.576,0,0,0,0,0,0,0,0,0,0,0,0,0,0,0,0,
589,-5.183,-9.373,-0.9642,-0.9353,-3.7,-5.595,11.25,-2.496,2.649,-3.217,7.111,3.924,3.962,-1.391,4.071,7.185,0,0,0,0,0,0,0,0,0,0,0,0,0,0,0,0,
590,-7.974,-10.36,-3.064,-2.418,-5.607,-7.008,8.813,-0.4279,0.7044,-1.662,6.174,4.387,3.409,-0.7108,4.831,7.604,0,0,0,0,0,0,0,0,0,0,0,0,0,0,0,0,
591,-7.99,-7.808,-2.83,-0.2578,-3.959,-5.803,12.54,3.942,2.284,0.3136,8.797,6.895,8.783,3.603,9.854,10.94,0,0,0,0,0,0,0,0,0,0,0,0,0,0,0,0,
592,-4.696,-6.942,-0.6809,1.663,-1.306,-4.348,14.53,4.553,8.307,2.614,11.35,6.223,11.11,4.378,12.21,10.73,0,0,0,0,0,0,0,0,0,0,0,0,0,0,0,0,
593,-2.255,-9.485,1.939,-0.7408,-1.024,-7.123,13.53,0.1437,8.559,0.454,10.84,2.251,5.676,-0.6906,9.259,6.131,0,0,0,0,0,0,0,0,0,0,0,0,0,0,0,0,
594,-2.918,-10.35,3.065,-3.598,-2.009,-9.518,13.8,-0.6437,4.486,-4.297,8.829,-0.3094,3.629,-3.646,9.427,6.306,0,0,0,0,0,0,0,0,0,0,0,0,0,0,0,0,
595,-3.766,-11.35,1.602,-6.492,-3.1,-9.404,11.73,-0.3082,4.591,-5.386,7.202,1.172,4.939,-2.068,9.996,8.287,0,0,0,0,0,0,0,0,0,0,0,0,0,0,0,0,
596,-1.917,-11.1,0.858,-8.794,-2.922,-8.727,9.168,-3.481,4.438,-4.178,5.331,4.996,2.077,-0.5585,5.057,6.242,0,0,0,0,0,0,0,0,0,0,0,0,0,0,0,0,
597,0.3953,-7.284,1.119,-6.878,-0.6011,-7.901,8.573,-3.131,2.108,-3.887,2.897,6.005,0.5096,0.1378,1.945,5.629,0,0,0,0,0,0,0,0,0,0,0,0,0,0,0,0,
598,0.1122,-7.284,-0.3168,-4.707,0.359,-8.679,4.835,0.066,3.002,-4.449,1.214,5.415,2.736,1.385,3.494,7.558,0,0,0,0,0,0,0,0,0,0,0,0,0,0,0,0,
599,-3.589,-11.44,-1.796,-7.081,-2.47,-11.14,0.6659,0.1603,2.695,-5.772,0.2316,7.208,1.302,0.5103,3.347,6.545,0,0,0,0,0,0,0,0,0,0,0,0,0,0,0,0,
600,-8.505,-13.29,-2.693,-8.616,-5.395,-11.63,0.6841,0.4644,-2.155,-6.667,-0.6865,6.382,-3.116,-2.715,1.928,4.245,0,0,0,0,0,0,0,0,0,0,0,0,0,0,0,0,
601,-9.255,-13.25,-3.73,-6.679,-5.115,-9.289,0.408,0.2354,-4.283,-5.959,-1.162,1.978,-4.337,-2.886,2.306,4.777,0,0,0,0,0,0,0,0,0,0,0,0,0,0,0,0,
602,-5.644,-10.71,-1.703,-6.72,-2.722,-6.678,-1.074,-3.269,-2.588,-5.405,-1.444,1.583,-2.397,0.5253,3.502,6.552,0,0,0,0,0,0,0,0,0,0,0,0,0,0,0,0,
603,-1.617,-5.5,3.241,-7.746,0.6359,-4.896,-0.5543,-3.312,-1.027,-5.156,-0.7412,3.391,0.097,2.39,4.92,6.806,0,0,0,0,0,0,0,0,0,0,0,0,0,0,0,0,
604,1.606,-4.817,5.067,-8.528,2.99,-5.537,0.3014,-0.8442,1.48,-4.649,0.8833,1.874,0.5979,0.8065,5.023,4.969,0,0,0,0,0,0,0,0,0,0,0,0,0,0,0,0,
605,0.273,-10.81,1.511,-13.48,0.3929,-10.77,-0.701,-3.01,2.197,-7.51,1.381,1.714,-2.001,-2.414,3.882,2.903,0,0,0,0,0,0,0,0,0,0,0,0,0,0,0,0,
606,-5.489,-15.38,-2.773,-16.42,-5.39,-16.16,-2.886,-5.049,-2.973,-13.22,1.933,3.564,-4.823,-5.499,3.573,1.633,0,0,0,0,0,0,0,0,0,0,0,0,0,0,0,0,
607,-7.086,-14.07,-3.601,-12.31,-8.046,-16.29,-4.963,-4.907,-8.582,-16.71,0.7381,-0.4437,-7.392,-8.62,0.0624,-1.835,0,0,0,0,0,0,0,0,0,0,0,0,0,0,0,0,
608,-4.192,-11.02,-2.527,-8.914,-6.509,-12.96,-5.87,-5.845,-9.456,-17.57,-4.931,-4.845,-10.39,-10.09,-5.783,-4.738,0,0,0,0,0,0,0,0,0,0,0,0,0,0,0,0,
609,-1.403,-7.205,-1.242,-5.624,-2.595,-6.503,-4.718,-2.524,-6.8,-13.53,-4.896,1.413,-8.278,-5.594,-3.122,0.2509,0,0,0,0,0,0,0,0,0,0,0,0,0,0,0,0,
610,3.046,-1.528,2.204,-1.801,2.671,1.884,-1.056,2.426,-0.7814,-3.815,3.634,8.408,-1.619,0.8033,3.856,6.775,0,0,0,0,0,0,0,0,0,0,0,0,0,0,0,0,
611,6.05,-1.016,5.53,-6.332,5.511,3.098,2.473,0.1687,5.084,0.7464,4.426,5.649,-0.7185,0.8399,1.437,5.012,0,0,0,0,0,0,0,0,0,0,0,0,0,0,0,0,
612,2.408,-7.142,3.267,-11.95,3.532,-3.281,1.858,-2.91,4.059,-3.563,-1.484,3.866,-3.944,-1.955,-3.704,1.364,0,0,0,0,0,0,0,0,0,0,0,0,0,0,0,0,
613,-2.352,-9.105,-1.174,-8.444,0.3917,-7.567,-0.4037,-1.728,0.094,-7.222,1.338,6.755,-2.536,-2.176,-2.45,1.025,0,0,0,0,0,0,0,0,0,0,0,0,0,0,0,0,
614,-2.979,-6.623,-2.78,-5.79,-1.378,-8.891,-0.3283,-1.5,-0.0294,-8.33,4.776,3.794,-2.516,-3.784,-4.381,-3.054,0,0,0,0,0,0,0,0,0,0,0,0,0,0,0,0,
615,-3.998,-7.626,-6.704,-8.404,-3.871,-9.433,-2.91,-1.676,-0.9034,-9.554,-1.99,-1.755,-8.118,-6.229,-10.19,-8.628,0,0,0,0,0,0,0,0,0,0,0,0,0,0,0,0,
616,-6.949,-8.247,-12.8,-7.954,-5.654,-6.205,-9.907,-0.602,-3.797,-7.424,-6.912,-0.182,-8.684,-3.375,-7.66,-5.436,0,0,0,0,0,0,0,0,0,0,0,0,0,0,0,0,
617,-6.167,-5.337,-12.17,-5.059,-3.038,-2.028,-11.32,-0.0115,-2.282,-2.536,-4.053,2.539,-3.502,0.7583,-1.707,1.198,0,0,0,0,0,0,0,0,0,0,0,0,0,0,0,0,
618,-4.207,-5.528,-8.278,-6.026,-0.275,-2.402,-5.056,0.3609,0.6333,-0.9496,-1.175,-0.3912,-1.637,0.2546,-1.733,1.502,0,0,0,0,0,0,0,0,0,0,0,0,0,0,0,0,
619,-7.593,-9.462,-8.047,-10.77,-1.662,-4.935,-0.6514,-0.8012,0.881,-2.53,1.474,-1.52,0.0434,0.9451,-0.2897,1.502,0,0,0,0,0,0,0,0,0,0,0,0,0,0,0,0,
620,-10.62,-12.31,-8.005,-13.82,-3.135,-6.29,-0.3286,-2.835,3.5,-2.601,4.253,2.932,4.786,5.182,4.566,5.325,0,0,0,0,0,0,0,0,0,0,0,0,0,0,0,0,
621,-9.924,-14.11,-9.266,-12.35,-3.735,-6.971,-0.3136,-0.7546,7.316,-0.8892,3.823,5.27,6.657,6.803,5.247,6.738,0,0,0,0,0,0,0,0,0,0,0,0,0,0,0,0,
622,-10.85,-15.7,-12.14,-11.35,-5.101,-6.217,-0.992,3.966,7.645,1.713,3.238,4.731,5.583,8.0,4.145,7.103,0,0,0,0,0,0,0,0,0,0,0,0,0,0,0,0,
623,-10.5,-15.86,-9.708,-13.77,-4.444,-3.929,-4.144,5.151,7.291,5.813,2.587,5.933,3.772,11.22,2.363,8.191,0,0,0,0,0,0,0,0,0,0,0,0,0,0,0,0,
624,-8.163,-14.41,-6.586,-14.23,-3.132,-2.141,-8.26,3.645,6.567,8.157,-1.417,5.884,-0.2287,10.17,-3.912,4.66,0,0,0,0,0,0,0,0,0,0,0,0,0,0,0,0,
625,-9.574,-11.98,-7.877,-11.89,-3.703,-1.133,-8.061,3.783,4.883,7.202,-2.783,4.488,-2.372,6.758,-6.824,1.51,0,0,0,0,0,0,0,0,0,0,0,0,0,0,0,0,
626,-10.1,-9.844,-6.621,-12.31,-3.308,-1.687,-2.851,4.276,6.68,6.709,2.022,5.966,1.272,7.092,-0.5645,5.942,0,0,0,0,0,0,0,0,0,0,0,0,0,0,0,0,
627,-8.277,-9.601,-4.103,-13.93,-2.434,-4.618,0.3008,2.971,10.39,6.045,6.684,6.792,7.036,7.986,6.453,10.74,0,0,0,0,0,0,0,0,0,0,0,0,0,0,0,0,
628,-11.2,-11.48,-4.93,-13.52,-3.029,-6.363,0.5783,2.407,11.81,4.221,9.453,5.928,12.04,9.072,11.12,12.04,0,0,0,0,0,0,0,0,0,0,0,0,0,0,0,0,
629,-13.85,-13.25,-3.679,-14.62,-2.705,-4.374,4.596,3.994,13.61,6.136,15.64,10.06,18.74,15.16,19.9,18.0,0,0,0,0,0,0,0,0,0,0,0,0,0,0,0,0,
630,-9.341,-10.98,1.701,-15.25,0.6978,-0.1755,12.56,6.201,17.93,11.91,27.81,18.07,28.7,23.89,31.91,29.09,0,0,0,0,0,0,0,0,0,0,0,0,0,0,0,0,
631,-2.822,-4.949,6.921,-10.81,5.7,3.964,17.01,7.692,22.99,16.2,36.74,21.51,33.98,27.08,35.61,32.76,0,0,0,0,0,0,0,0,0,0,0,0,0,0,0,0,
632,-1.334,-2.558,5.684,-8.168,4.043,3.465,10.38,6.324,22.37,15.44,28.6,17.18,25.14,20.34,24.69,23.02,0,0,0,0,0,0,0,0,0,0,0,0,0,0,0,0,
633,-7.444,-7.586,-4.991,-10.38,-7.365,-2.973,-4.369,2.686,10.3,8.028,10.43,9.537,10.44,10.33,10.6,11.71,0,0,0,0,0,0,0,0,0,0,0,0,0,0,0,0,
634,-14.12,-13.01,-13.62,-10.26,-14.18,-7.905,-13.44,0.7129,-1.887,0.0979,1.781,5.293,4.711,6.666,6.17,8.848,0,0,0,0,0,0,0,0,0,0,0,0,0,0,0,0,
635,-12.88,-13.71,-11.84,-10.96,-10.05,-8.305,-12.94,-1.15,-0.86,0.168,1.645,4.1,5.988,5.988,5.34,7.219,0,0,0,0,0,0,0,0,0,0,0,0,0,0,0,0,
636,-9.598,-13.65,-9.093,-16.47,-6.757,-8.943,-11.78,-5.681,3.982,2.852,-0.3608,1.249,5.962,2.557,-0.2246,1.851,0,0,0,0,0,0,0,0,0,0,0,0,0,0,0,0,
637,-9.158,-13.64,-7.834,-16.98,-5.963,-9.502,-11.29,-8.243,4.518,0.7476,-1.756,-1.498,4.873,0.6006,-4.423,-0.6979,0,0,0,0,0,0,0,0,0,0,0,0,0,0,0,0,
638,-8.329,-12.01,-3.633,-12.81,-3.985,-9.852,-8.824,-7.228,6.851,-2.254,-0.6782,-2.652,3.547,-0.2946,-3.953,-0.6018,0,0,0,0,0,0,0,0,0,0,0,0,0,0,0,0,
639,-10.8,-13.07,-4.011,-14.38,-6.615,-14.03,-8.906,-6.414,6.542,-5.645,-1.04,-3.703,0.2474,-3.227,-4.272,-1.544,0,0,0,0,0,0,0,0,0,0,0,0,0,0,0,0,
640,-14.56,-14.47,-8.419,-15.12,-10.1,-15.99,-11.2,-3.634,-0.9096,-9.043,-1.337,0.0506,-2.232,-0.3875,-3.721,1.678,0,0,0,0,0,0,0,0,0,0,0,0,0,0,0,0,
641,-11.92,-9.493,-6.646,-8.847,-7.612,-9.378,-10.8,1.85,-4.67,-4.249,0.0856,8.484,-0.908,9.472,0.5392,8.621,0,0,0,0,0,0,0,0,0,0,0,0,0,0,0,0,
642,-11.19,-5.155,-5.028,-5.97,-6.725,-2.682,-10.68,4.568,-2.412,4.319,0.1707,11.9,-0.3551,14.22,1.53,9.513,0,0,0,0,0,0,0,0,0,0,0,0,0,0,0,0,
643,-14.89,-5.747,-7.841,-6.449,-7.204,-0.1558,-11.87,4.723,-0.2771,6.501,-0.8992,8.963,-3.433,10.57,-3.35,3.447,0,0,0,0,0,0,0,0,0,0,0,0,0,0,0,0,
644,-11.07,-4.51,-5.495,-3.028,-1.912,1.729,-10.35,3.266,3.383,6.787,-0.8208,4.841,-5.192,3.672,-8.132,-3.513,0,0,0,0,0,0,0,0,0,0,0,0,0,0,0,0,
645,-5.854,-4.79,-2.998,-3.074,0.2453,-1.909,-9.825,-1.557,6.28,4.604,-1.604,1.058,-5.508,-3.96,-11.22,-9.212,0,0,0,0,0,0,0,0,0,0,0,0,0,0,0,0,
646,-9.053,-9.293,-7.372,-8.397,-4.821,-10.68,-13.28,-4.035,3.284,-5.464,-3.756,-0.4073,-7.506,-8.302,-11.44,-11.38,0,0,0,0,0,0,0,0,0,0,0,0,0,0,0,0,
647,-12.12,-10.36,-8.051,-9.685,-7.141,-14.88,-15.88,-2.007,-1.846,-13.18,-2.124,1.061,-5.418,-7.105,-4.702,-7.126,0,0,0,0,0,0,0,0,0,0,0,0,0,0,0,0,
648,-13.3,-10.64,-3.829,-10.41,-7.678,-15.24,-15.76,-2.119,-4.783,-12.87,4.325,4.027,2.871,-3.062,4.28,0.8259,0,0,0,0,0,0,0,0,0,0,0,0,0,0,0,0,
649,-16.31,-14.31,-1.984,-14.46,-9.384,-15.2,-12.59,-2.381,-2.991,-10.57,9.73,8.391,8.528,2.315,7.826,6.52,0,0,0,0,0,0,0,0,0,0,0,0,0,0,0,0,
650,-15.55,-14.3,0.9814,-12.02,-6.813,-11.58,-7.171,2.232,4.177,-4.416,11.79,12.18,9.098,7.843,8.52,8.768,0,0,0,0,0,0,0,0,0,0,0,0,0,0,0,0,
651,-11.67,-9.745,4.322,-3.139,-3.732,-5.439,-6.249,6.799,9.425,5.143,11.55,12.87,7.918,10.88,7.969,9.214,0,0,0,0,0,0,0,0,0,0,0,0,0,0,0,0,
652,-8.514,-4.727,3.87,0.6429,-4.248,-0.0378,-9.89,6.753,7.946,9.662,6.515,9.569,2.361,8.918,0.9347,5.119,0,0,0,0,0,0,0,0,0,0,0,0,0,0,0,0,
653,-5.202,0.5376,3.805,-0.2054,-2.945,2.106,-10.4,3.901,3.253,7.879,-1.422,4.574,-6.714,2.805,-8.18,-2.114,0,0,0,0,0,0,0,0,0,0,0,0,0,0,0,0,
654,-5.694,2.155,3.717,0.5925,-2.478,-2.031,-8.43,1.516,-2.611,2.832,-3.841,4.099,-11.73,-0.9214,-9.959,-4.142,0,0,0,0,0,0,0,0,0,0,0,0,0,0,0,0,
655,-8.281,-1.191,1.273,0.6262,-6.349,-7.498,-8.122,1.829,-7.53,-2.726,-1.533,6.547,-11.43,-0.1326,-8.053,-2.284,0,0,0,0,0,0,0,0,0,0,0,0,0,0,0,0,
656,-5.006,-2.498,1.277,-1.525,-6.005,-7.636,-7.182,3.774,-6.724,-4.578,-1.449,4.968,-9.43,-0.1001,-7.112,-2.231,0,0,0,0,0,0,0,0,0,0,0,0,0,0,0,0,
657,-0.1997,0.7961,3.25,-1.4,-0.1387,-5.018,-4.464,4.072,-1.069,-3.009,-1.755,2.621,-7.121,-1.345,-4.335,-1.929,0,0,0,0,0,0,0,0,0,0,0,0,0,0,0,0,
658,1.52,4.831,3.767,1.273,3.392,-1.843,-3.344,2.615,3.933,-0.4775,-1.024,2.438,-7.053,-2.397,-4.368,-4.173,0,0,0,0,0,0,0,0,0,0,0,0,0,0,0,0,
659,3.978,6.573,5.429,1.412,5.009,0.7727,-3.865,2.616,6.501,2.0,-2.856,0.7911,-10.41,-5.565,-10.52,-11.29,0,0,0,0,0,0,0,0,0,0,0,0,0,0,0,0,
660,4.721,4.019,7.535,-2.421,6.535,-2.291,-1.544,3.941,6.618,0.9445,-3.359,1.066,-12.34,-8.592,-12.68,-13.74,0,0,0,0,0,0,0,0,0,0,0,0,0,0,0,0,
661,2.425,-0.7077,7.961,-5.443,6.054,-8.057,3.265,2.647,3.485,-3.476,1.125,4.185,-9.587,-8.388,-8.139,-10.89,0,0,0,0,0,0,0,0,0,0,0,0,0,0,0,0,
662,2.186,-2.677,9.292,-5.74,5.9,-9.535,5.005,-0.9823,0.5634,-7.29,5.412,2.221,-4.734,-8.533,-4.792,-11.32,0,0,0,0,0,0,0,0,0,0,0,0,0,0,0,0,
663,2.611,-2.341,9.917,-5.848,6.672,-9.38,5.27,-1.891,1.713,-11.2,8.792,-1.041,0.8328,-8.488,-1.217,-10.4,0,0,0,0,0,0,0,0,0,0,0,0,0,0,0,0,
664,3.373,-0.1096,8.745,-3.428,6.479,-7.918,9.302,1.716,4.905,-11.67,14.04,2.864,7.472,-3.348,4.615,-4.376,0,0,0,0,0,0,0,0,0,0,0,0,0,0,0,0,
665,7.157,4.99,10.42,1.407,7.46,-3.434,12.53,5.04,8.016,-4.482,16.55,6.128,11.24,2.02,4.835,-2.429,0,0,0,0,0,0,0,0,0,0,0,0,0,0,0,0,
666,7.509,5.787,11.93,1.918,8.272,-3.971,10.85,4.741,9.807,0.0889,14.06,3.855,9.647,2.26,-0.2235,-4.229,0,0,0,0,0,0,0,0,0,0,0,0,0,0,0,0,
667,3.601,0.8108,10.06,1.149,6.594,-8.949,10.65,5.327,8.983,-1.59,12.27,4.286,8.132,3.132,-1.33,-2.226,0,0,0,0,0,0,0,0,0,0,0,0,0,0,0,0,
668,4.049,0.5252,12.25,3.132,6.324,-8.666,13.47,7.38,8.446,0.2383,12.65,6.121,9.166,5.591,-0.0273,-1.148,0,0,0,0,0,0,0,0,0,0,0,0,0,0,0,0,
669,6.603,3.6,17.36,0.7663,7.029,-7.854,13.18,5.069,8.764,0.8514,11.17,4.039,7.048,3.59,-3.288,-5.113,0,0,0,0,0,0,0,0,0,0,0,0,0,0,0,0,
670,7.045,2.804,16.36,-3.659,5.575,-10.94,9.406,1.43,6.656,-5.02,6.952,2.105,-0.2391,-1.391,-9.684,-9.369,0,0,0,0,0,0,0,0,0,0,0,0,0,0,0,0,
671,8.921,3.896,12.22,-1.859,4.748,-9.942,4.255,0.9354,2.612,-7.803,1.826,-0.1056,-8.589,-6.633,-15.04,-13.26,0,0,0,0,0,0,0,0,0,0,0,0,0,0,0,0,
672,11.22,9.655,10.5,2.654,4.912,-4.621,-1.108,0.4463,-2.485,-7.17,-3.091,-3.483,-14.86,-11.04,-18.43,-16.6,0,0,0,0,0,0,0,0,0,0,0,0,0,0,0,0,
673,11.92,13.51,9.556,6.132,3.967,-1.095,-3.645,1.481,-6.609,-5.972,-7.794,-2.507,-18.44,-10.29,-20.86,-17.05,0,0,0,0,0,0,0,0,0,0,0,0,0,0,0,0,T2
674,10.88,12.53,7.147,6.762,1.781,-1.111,-6.65,4.146,-7.417,-1.107,-12.85,-0.9599,-21.44,-8.253,-23.5,-17.87,0,0,0,0,0,0,0,0,0,0,0,0,0,0,0,0,
675,5.601,8.518,1.456,2.873,-3.324,-4.334,-13.99,1.786,-10.23,-0.1528,-17.11,-4.046,-25.66,-12.25,-25.78,-20.31,0,0,0,0,0,0,0,0,0,0,0,0,0,0,0,0,
676,0.3916,6.51,-3.243,0.5398,-7.34,-6.491,-17.18,-3.167,-14.72,-5.722,-19.35,-6.824,-28.08,-17.09,-27.44,-21.32,0,0,0,0,0,0,0,0,0,0,0,0,0,0,0,0,
677,1.415,8.578,1.239,0.8461,-2.621,-4.913,-11.74,-4.445,-11.5,-7.117,-20.13,-8.168,-25.34,-16.27,-27.87,-20.82,0,0,0,0,0,0,0,0,0,0,0,0,0,0,0,0,
678,4.917,10.43,10.4,0.6393,6.243,-1.451,-5.16,-3.189,-2.882,-3.784,-18.02,-8.068,-19.0,-10.8,-24.75,-17.74,0,0,0,0,0,0,0,0,0,0,0,0,0,0,0,0,
679,7.79,11.84,15.09,4.255,10.63,4.323,0.8075,0.2,3.846,0.4831,-12.85,-2.243,-12.78,-2.088,-20.28,-12.2,0,0,0,0,0,0,0,0,0,0,0,0,0,0,0,0,
680,11.23,12.74,16.59,7.697,10.98,8.282,7.619,5.469,8.892,6.401,-8.252,5.762,-7.399,6.782,-16.63,-8.209,0,0,0,0,0,0,0,0,0,0,0,0,0,0,0,0,
681,11.95,8.981,16.04,4.547,9.114,5.132,10.74,8.638,10.9,9.834,-3.801,10.11,-0.4165,12.15,-10.19,-4.423,0,0,0,0,0,0,0,0,0,0,0,0,0,0,0,0,
682,7.861,5.568,12.07,3.842,6.141,1.766,9.557,9.309,10.9,10.28,1.488,10.99,7.002,14.01,-3.644,0.2418,0,0,0,0,0,0,0,0,0,0,0,0,0,0,0,0,
683,3.628,8.662,9.05,8.719,5.318,3.599,8.243,10.15,12.98,11.75,3.648,9.155,10.47,13.02,-2.884,0.8388,0,0,0,0,0,0,0,0,0,0,0,0,0,0,0,0,
684,3.681,12.58,9.641,11.27,7.771,6.807,9.353,10.14,14.79,12.05,5.466,8.532,13.84,13.6,-0.442,1.478,0,0,0,0,0,0,0,0,0,0,0,0,0,0,0,0,
685,9.172,14.32,13.58,11.49,14.68,10.99,15.0,8.289,19.06,12.08,14.07,11.82,23.66,20.28,9.562,8.582,0,0,0,0,0,0,0,0,0,0,0,0,0,0,0,0,
686,17.85,16.44,21.91,11.78,25.42,15.99,23.32,8.411,30.79,16.47,24.55,12.71,32.73,25.19,16.13,12.06,0,0,0,0,0,0,0,0,0,0,0,0,0,0,0,0,
687,24.29,19.4,30.32,13.81,32.02,19.67,28.77,11.69,39.03,21.42,27.86,10.29,32.5,22.18,14.38,7.445,0,0,0,0,0,0,0,0,0,0,0,0,0,0,0,0,
688,27.87,25.52,33.92,19.39,31.92,23.5,29.86,13.37,36.65,23.23,24.94,11.68,28.95,20.23,14.24,8.474,0,0,0,0,0,0,0,0,0,0,0,0,0,0,0,0,
689,30.24,29.34,33.08,20.62,30.54,24.7,27.88,12.74,34.33,24.26,20.84,14.72,27.38,21.89,17.01,15.04,0,0,0,0,0,0,0,0,0,0,0,0,0,0,0,0,
690,26.19,21.25,26.57,14.45,26.59,19.66,23.74,13.7,34.36,23.49,18.37,14.46,24.82,20.18,17.28,15.59,0,0,0,0,0,0,0,0,0,0,0,0,0,0,0,0,
691,17.64,12.57,19.59,12.23,20.4,15.27,19.14,15.53,30.42,20.77,17.06,13.86,20.69,17.73,16.7,13.0,0,0,0,0,0,0,0,0,0,0,0,0,0,0,0,0,
692,15.72,15.86,21.69,14.63,19.26,15.16,15.33,14.53,25.63,19.73,11.95,11.97,13.44,16.13,12.39,8.724,0,0,0,0,0,0,0,0,0,0,0,0,0,0,0,0,
693,17.41,19.67,24.07,12.74,19.43,13.67,12.39,11.39,20.89,17.71,2.757,6.789,2.99,11.56,2.374,0.6335,0,0,0,0,0,0,0,0,0,0,0,0,0,0,0,0,
694,14.33,16.51,16.9,9.815,14.11,11.49,9.442,10.2,13.29,13.35,-2.371,4.367,-1.807,9.796,-1.829,-2.016,0,0,0,0,0,0,0,0,0,0,0,0,0,0,0,0,
695,11.71,14.62,12.31,10.57,9.966,12.67,6.726,11.46,9.294,13.09,-1.594,5.865,1.219,13.13,1.923,0.9436,0,0,0,0,0,0,0,0,0,0,0,0,0,0,0,0,
696,13.66,16.77,16.02,12.25,11.15,14.97,6.39,12.19,11.78,16.1,-1.276,6.941,3.889,14.54,2.763,0.7122,0,0,0,0,0,0,0,0,0,0,0,0,0,0,0,0,
697,15.87,19.13,17.51,14.24,12.12,15.29,6.788,11.82,13.95,16.69,-2.072,7.93,5.378,15.08,1.207,0.7328,0,0,0,0,0,0,0,0,0,0,0,0,0,0,0,0,
698,15.17,18.69,15.35,14.17,10.9,12.4,3.8,10.85,13.87,15.77,-1.375,7.613,7.968,15.97,1.748,2.167,0,0,0,0,0,0,0,0,0,0,0,0,0,0,0,0,
699,12.8,17.07,13.36,9.776,9.328,8.293,-0.0396,9.477,13.18,13.83,-0.7099,5.034,8.826,13.37,1.877,1.015,0,0,0,0,0,0,0,0,0,0,0,0,0,0,0,0,
700,13.39,18.56,11.31,7.79,8.704,7.789,1.222,9.809,12.39,12.11,-0.414,4.37,8.858,11.33,1.941,1.371,0,0,0,0,0,0,0,0,0,0,0,0,0,0,0,0,
701,15.02,19.92,11.1,11.44,8.465,9.569,5.436,10.85,12.76,13.96,0.1271,3.941,9.749,11.48,2.826,2.767,0,0,0,0,0,0,0,0,0,0,0,0,0,0,0,0,
702,12.3,19.6,11.05,16.1,5.653,10.3,5.146,9.549,10.98,14.4,0.3318,0.765,9.696,9.518,4.501,1.447,0,0,0,0,0,0,0,0,0,0,0,0,0,0,0,0,
703,12.33,23.71,10.52,20.54,4.312,13.24,3.02,9.127,7.864,11.56,3.94,1.837,12.44,11.1,10.02,2.887,0,0,0,0,0,0,0,0,0,0,0,0,0,0,0,0,
704,19.39,28.01,15.96,22.95,10.85,17.19,6.596,11.86,13.13,14.04,10.59,8.28,18.16,17.45,14.72,7.598,0,0,0,0,0,0,0,0,0,0,0,0,0,0,0,0,
705,23.56,26.23,22.56,20.17,17.09,15.36,9.855,12.0,20.55,18.15,10.18,9.226,15.64,15.77,10.61,7.962,0,0,0,0,0,0,0,0,0,0,0,0,0,0,0,0,
706,22.65,24.85,21.24,14.85,14.84,10.02,7.205,7.716,15.5,12.87,4.12,3.783,5.625,6.332,3.476,4.185,0,0,0,0,0,0,0,0,0,0,0,0,0,0,0,0,
707,21.94,25.24,18.7,11.74,11.14,7.277,5.313,5.006,7.018,4.881,2.928,0.5901,-0.275,0.0338,-0.9131,0.4816,0,0,0,0,0,0,0,0,0,0,0,0,0,0,0,0,
708,20.93,24.29,18.82,13.8,9.925,7.156,3.221,5.707,5.217,2.861,1.512,0.1363,-4.327,-2.768,-5.883,-1.728,0,0,0,0,0,0,0,0,0,0,0,0,0,0,0,0,
709,20.2,25.39,16.8,16.54,8.734,8.947,-1.572,6.871,2.396,3.458,-3.845,1.457,-7.752,-0.7114,-6.445,0.6829,0,0,0,0,0,0,0,0,0,0,0,0,0,0,0,0,
710,19.48,25.15,14.93,12.46,9.471,11.35,-2.404,7.587,0.2977,6.093,-3.163,4.978,-4.016,5.766,-0.4089,4.93,0,0,0,0,0,0,0,0,0,0,0,0,0,0,0,0,
711,16.68,21.65,13.58,10.76,10.35,11.78,-2.679,7.088,3.192,8.027,0.1358,5.064,-0.9264,5.604,-0.3721,3.216,0,0,0,0,0,0,0,0,0,0,0,0,0,0,0,0,
712,16.69,25.77,10.65,21.4,9.192,13.07,-6.49,7.091,2.677,3.988,-2.724,3.635,-3.307,2.74,-5.831,1.012,0,0,0,0,0,0,0,0,0,0,0,0,0,0,0,0,
713,22.62,36.89,11.15,33.14,11.18,18.27,-6.414,12.36,0.8826,3.428,-4.673,8.22,-0.8431,8.467,-5.361,5.838,0,0,0,0,0,0,0,0,0,0,0,0,0,0,0,0,
714,31.35,45.27,15.85,40.02,17.06,24.16,-3.36,18.98,5.742,11.69,-3.233,13.24,4.164,13.98,-3.822,10.04,0,0,0,0,0,0,0,0,0,0,0,0,0,0,0,0,
715,43.34,54.9,22.42,49.89,22.86,29.04,-0.2205,19.93,11.47,17.18,-4.237,13.27,3.657,13.13,-6.97,8.851,0,0,0,0,0,0,0,0,0,0,0,0,0,0,0,0,
716,57.56,68.42,31.02,60.67,27.01,34.55,5.718,19.47,13.11,18.43,-4.83,11.46,3.748,12.38,-8.9,5.926,0,0,0,0,0,0,0,0,0,0,0,0,0,0,0,0,
717,67.18,77.85,35.67,66.79,28.16,39.92,8.355,21.37,13.92,21.59,-2.212,8.272,9.249,12.39,-7.657,2.409,0,0,0,0,0,0,0,0,0,0,0,0,0,0,0,0,
718,70.56,82.11,35.5,70.39,29.77,44.06,7.374,22.62,17.77,23.73,1.102,7.398,16.33,14.43,-5.023,2.408,0,0,0,0,0,0,0,0,0,0,0,0,0,0,0,0,
719,72.47,85.72,39.67,73.02,35.82,47.04,12.5,24.36,25.48,25.37,4.462,10.43,20.42,18.92,-2.453,5.79,0,0,0,0,0,0,0,0,0,0,0,0,0,0,0,0,
720,72.39,86.17,44.59,71.65,39.18,46.5,18.63,25.29,30.29,28.09,5.717,7.991,19.12,18.37,-2.975,3.067,0,0,0,0,0,0,0,0,0,0,0,0,0,0,0,0,
721,66.28,78.78,41.92,63.2,34.98,41.09,17.38,20.62,27.86,26.62,3.634,1.199,15.93,13.58,-4.604,-3.61,0,0,0,0,0,0,0,0,0,0,0,0,0,0,0,0,
722,59.25,68.87,39.31,53.77,30.88,35.73,16.49,15.88,24.79,23.6,3.767,1.255,15.59,12.18,-2.236,-3.523,0,0,0,0,0,0,0,0,0,0,0,0,0,0,0,0,
723,56.19,63.28,39.29,49.38,29.59,32.91,19.41,14.86,24.09,23.82,7.415,4.763,15.32,12.46,2.812,0.9917,0,0,0,0,0,0,0,0,0,0,0,0,0,0,0,0,
724,50.43,57.25,33.0,43.23,25.28,28.29,17.1,11.71,21.34,21.03,7.587,4.587,11.12,10.37,5.549,2.613,0,0,0,0,0,0,0,0,0,0,0,0,0,0,0,0,
725,42.21,49.78,26.38,35.09,20.15,23.35,10.3,8.483,16.53,15.22,4.473,5.007,6.394,9.246,4.641,1.558,0,0,0,0,0,0,0,0,0,0,0,0,0,0,0,0,
726,38.62,46.03,25.29,31.02,18.04,21.48,7.605,8.389,12.09,13.73,3.092,6.25,3.907,10.57,1.562,-1.018,0,0,0,0,0,0,0,0,0,0,0,0,0,0,0,0,
727,35.03,39.79,18.53,25.77,13.85,17.98,6.612,6.479,6.95,12.61,1.022,5.194,0.6133,10.87,-1.101,-3.064,0,0,0,0,0,0,0,0,0,0,0,0,0,0,0,0,
728,29.62,31.71,9.568,21.38,9.165,14.99,4.576,5.952,2.776,10.13,-0.5171,8.117,-1.439,12.42,-0.3861,-0.1075,0,0,0,0,0,0,0,0,0,0,0,0,0,0,0,0,
729,29.07,32.93,11.9,24.3,10.81,18.43,5.149,9.372,3.428,13.31,2.658,13.54,0.2069,15.42,0.5403,3.026,0,0,0,0,0,0,0,0,0,0,0,0,0,0,0,0,
730,31.48,36.68,16.94,25.67,13.58,21.7,5.34,8.349,4.75,15.97,5.072,11.65,-0.0174,12.51,-2.272,-0.1442,0,0,0,0,0,0,0,0,0,0,0,0,0,0,0,0,
731,32.8,35.0,16.25,23.52,12.98,21.41,3.724,4.837,2.556,11.92,4.63,9.092,-1.424,7.997,-3.477,-1.855,0,0,0,0,0,0,0,0,0,0,0,0,0,0,0,0,
732,31.64,33.53,14.71,22.25,12.29,20.44,3.053,5.27,1.251,9.411,3.962,11.77,-0.5608,8.78,-2.184,1.306,0,0,0,0,0,0,0,0,0,0,0,0,0,0,0,0,
733,25.93,30.6,10.69,16.39,10.24,16.66,-0.3043,5.103,0.8209,8.047,1.651,10.81,-1.025,9.247,-2.542,2.728,0,0,0,0,0,0,0,0,0,0,0,0,0,0,0,0,
734,21.17,25.85,5.221,10.48,8.293,14.27,-3.61,3.954,-0.3066,5.315,3.005,8.629,0.3437,10.82,1.062,5.132,0,0,0,0,0,0,0,0,0,0,0,0,0,0,0,0,
735,20.32,24.63,4.059,10.63,9.575,16.38,-2.068,3.939,2.658,8.306,8.203,10.08,4.41,14.4,5.975,7.088,0,0,0,0,0,0,0,0,0,0,0,0,0,0,0,0,
736,16.59,22.47,2.915,9.714,8.082,15.39,-3.972,1.875,4.707,10.94,5.199,6.464,1.927,9.414,0.837,-0.0574,0,0,0,0,0,0,0,0,0,0,0,0,0,0,0,0,
737,10.77,18.22,-0.8538,8.813,3.297,11.66,-9.056,-0.4585,-0.5595,5.517,-1.401,-1.072,-2.666,1.359,-5.752,-8.114,0,0,0,0,0,0,0,0,0,0,0,0,0,0,0,0,
738,8.457,15.77,-2.579,9.616,2.359,9.408,-6.841,-0.568,-2.895,1.44,-0.0815,-3.461,-0.9174,2.266,-3.538,-7.899,0,0,0,0,0,0,0,0,0,0,0,0,0,0,0,0,
739,8.405,11.92,-0.8629,6.434,3.304,6.38,-2.201,1.56,1.06,1.876,1.745,-2.035,0.2423,5.489,-1.26,-5.052,0,0,0,0,0,0,0,0,0,0,0,0,0,0,0,0,
740,7.188,6.991,1.78,3.633,0.9004,3.517,-3.803,5.543,0.9314,1.243,-1.294,-0.5894,-2.123,5.704,-2.806,-2.223,0,0,0,0,0,0,0,0,0,0,0,0,0,0,0,0,
741,3.005,3.822,1.544,3.202,-2.505,1.063,-6.621,5.767,-2.185,0.3907,-2.597,0.5791,-2.848,6.578,-2.225,0.8932,0,0,0,0,0,0,0,0,0,0,0,0,0,0,0,0,
742,-0.7084,1.758,-1.343,2.46,-3.818,-1.215,-7.078,3.479,-2.24,0.7072,-1.488,2.183,-2.735,6.813,1.172,2.218,0,0,0,0,0,0,0,0,0,0,0,0,0,0,0,0,
743,-1.029,2.298,-4.66,6.239,-6.147,-0.1847,-11.24,4.928,-4.286,1.22,-2.692,2.822,-4.468,4.062,3.348,2.327,0,0,0,0,0,0,0,0,0,0,0,0,0,0,0,0,
744,-3.175,3.184,-9.762,10.72,-10.8,1.263,-17.52,5.179,-10.5,0.9561,-5.223,0.9673,-5.814,1.664,2.917,2.022,0,0,0,0,0,0,0,0,0,0,0,0,0,0,0,0,
745,-5.925,2.259,-12.62,10.78,-11.3,1.751,-15.61,3.951,-11.88,1.024,-2.926,2.014,-1.611,4.61,4.959,3.355,0,0,0,0,0,0,0,0,0,0,0,0,0,0,0,0,
746,-4.218,2.216,-10.2,12.23,-8.224,3.253,-9.673,5.884,-5.509,3.61,3.16,6.453,5.768,9.783,9.841,6.719,0,0,0,0,0,0,0,0,0,0,0,0,0,0,0,0,
747,-5.397,0.1292,-10.07,12.99,-9.631,1.634,-9.498,5.093,-0.8769,5.153,5.179,7.509,7.081,10.44,10.17,7.711,0,0,0,0,0,0,0,0,0,0,0,0,0,0,0,0,
748,-9.995,-2.362,-11.65,12.51,-10.65,1.408,-8.109,2.718,-1.045,5.755,5.071,8.261,4.091,9.783,8.191,6.563,0,0,0,0,0,0,0,0,0,0,0,0,0,0,0,0,
749,-7.745,1.32,-8.6,17.43,-5.302,8.871,-3.443,3.779,-0.0029,10.4,7.102,9.975,2.843,9.849,8.275,5.254,0,0,0,0,0,0,0,0,0,0,0,0,0,0,0,0,
750,-4.034,3.021,-5.65,19.54,-2.399,12.16,-4.369,2.828,-0.1839,12.2,7.129,8.003,0.955,7.28,7.106,4.159,0,0,0,0,0,0,0,0,0,0,0,0,0,0,0,0,
751,-6.012,-0.9837,-4.676,13.51,-4.425,7.403,-5.041,1.91,-4.013,7.318,7.529,9.577,0.7835,7.553,8.104,7.038,0,0,0,0,0,0,0,0,0,0,0,0,0,0,0,0,
752,-5.919,0.0802,-3.458,10.64,-4.411,6.626,-1.941,4.026,-4.094,5.798,10.09,15.59,3.302,11.66,10.8,10.6,0,0,0,0,0,0,0,0,0,0,0,0,0,0,0,0,
753,-4.382,3.193,-6.436,12.12,-4.671,9.314,-6.594,2.384,-3.175,7.245,5.109,15.15,-1.163,11.11,5.937,8.592,0,0,0,0,0,0,0,0,0,0,0,0,0,0,0,0,
754,-6.887,1.855,-10.65,11.45,-8.093,9.933,-14.48,0.2333,-10.18,5.329,-3.799,12.57,-9.76,8.542,0.4565,6.835,0,0,0,0,0,0,0,0,0,0,0,0,0,0,0,0,
755,-6.663,3.791,-9.264,10.84,-9.185,11.78,-11.89,1.905,-16.9,4.355,-2.482,14.01,-9.857,8.906,4.134,9.05,0,0,0,0,0,0,0,0,0,0,0,0,0,0,0,0,
756,-2.743,9.066,-6.424,11.97,-5.774,15.07,-4.676,1.769,-13.71,6.243,4.898,14.12,-3.804,8.968,9.098,10.76,0,0,0,0,0,0,0,0,0,0,0,0,0,0,0,0,
757,-1.262,10.94,-3.203,12.59,-1.434,16.69,-2.45,1.09,-7.337,8.539,8.198,14.08,0.5522,9.077,10.3,11.04,0,0,0,0,0,0,0,0,0,0,0,0,0,0,0,0,
758,-1.437,9.644,2.037,10.44,-0.9112,13.9,-3.289,0.8626,-5.352,10.25,7.957,13.54,1.471,7.954,9.942,8.845,0,0,0,0,0,0,0,0,0,0,0,0,0,0,0,0,
759,-5.42,3.171,0.2278,4.965,-7.187,4.623,-5.135,-3.349,-8.92,6.56,5.813,6.58,-2.071,1.953,7.241,4.17,0,0,0,0,0,0,0,0,0,0,0,0,0,0,0,0,
760,-13.18,-6.45,-9.499,0.7767,-15.45,-5.081,-8.371,-7.471,-16.59,-2.217,3.429,-0.7916,-7.734,-3.823,4.084,0.9222,0,0,0,0,0,0,0,0,0,0,0,0,0,0,0,0,
761,-16.47,-10.57,-14.47,0.1994,-19.69,-9.554,-12.27,-8.457,-23.1,-7.458,2.145,-3.274,-12.12,-6.901,1.438,-2.449,0,0,0,0,0,0,0,0,0,0,0,0,0,0,0,0,
762,-18.18,-12.18,-14.81,-0.6081,-22.91,-14.05,-16.38,-9.734,-27.02,-9.495,-1.054,-6.115,-16.93,-11.9,-3.232,-7.207,0,0,0,0,0,0,0,0,0,0,0,0,0,0,0,0,
763,-23.51,-16.69,-19.45,-2.044,-27.63,-20.82,-20.11,-11.06,-32.06,-14.92,-5.543,-7.752,-21.84,-16.11,-7.469,-8.395,0,0,0,0,0,0,0,0,0,0,0,0,0,0,0,0,
764,-26.5,-19.71,-25.88,-2.318,-30.79,-24.84,-22.79,-12.49,-36.13,-20.65,-8.304,-4.858,-23.52,-14.95,-8.675,-6.504,0,0,0,0,0,0,0,0,0,0,0,0,0,0,0,0,
765,-27.86,-19.95,-28.6,-2.944,-32.05,-25.21,-23.84,-13.85,-36.7,-21.68,-10.76,-3.249,-23.5,-12.31,-8.405,-6.102,0,0,0,0,0,0,0,0,0,0,0,0,0,0,0,0,
766,-28.76,-18.14,-26.93,-3.744,-30.56,-22.79,-21.88,-12.32,-36.11,-21.07,-10.89,-4.006,-23.65,-10.82,-5.681,-5.692,0,0,0,0,0,0,0,0,0,0,0,0,0,0,0,0,
767,-22.93,-13.9,-21.69,-3.427,-25.17,-19.09,-18.18,-10.71,-33.33,-20.57,-6.493,-2.735,-21.97,-8.955,-1.181,-3.489,0,0,0,0,0,0,0,0,0,0,0,0,0,0,0,0,
768,-18.94,-12.79,-20.12,-4.312,-23.93,-19.49,-17.47,-12.76,-29.89,-19.34,-5.369,-2.211,-21.05,-9.226,-0.8219,-2.871,0,0,0,0,0,0,0,0,0,0,0,0,0,0,0,0,
769,-25.42,-16.86,-26.52,-8.433,-30.62,-23.25,-19.53,-15.91,-32.55,-20.28,-9.788,-4.636,-24.63,-12.66,-3.327,-4.644,0,0,0,0,0,0,0,0,0,0,0,0,0,0,0,0,
770,-29.72,-21.16,-30.61,-14.02,-34.76,-24.56,-18.57,-17.47,-37.66,-22.1,-9.69,-5.689,-27.0,-14.15,-1.383,-4.966,0,0,0,0,0,0,0,0,0,0,0,0,0,0,0,0,
771,-27.33,-23.59,-27.02,-18.21,-32.91,-24.49,-15.07,-17.09,-38.03,-20.54,-5.109,-4.637,-24.22,-12.31,2.734,-3.005,0,0,0,0,0,0,0,0,0,0,0,0,0,0,0,0,
772,-25.32,-21.68,-23.3,-18.8,-31.35,-23.12,-14.38,-15.2,-36.95,-17.73,-4.699,-3.319,-21.95,-9.207,3.502,-1.44,0,0,0,0,0,0,0,0,0,0,0,0,0,0,0,0,
773,-19.8,-15.44,-21.77,-15.76,-28.94,-17.61,-15.45,-13.41,-36.28,-14.82,-7.537,-2.823,-22.62,-6.474,1.851,-3.142,0,0,0,0,0,0,0,0,0,0,0,0,0,0,0,0,
774,-14.48,-13.65,-22.26,-13.79,-25.95,-14.71,-15.71,-14.36,-34.38,-12.86,-11.74,-7.027,-24.12,-8.739,-1.546,-8.323,0,0,0,0,0,0,0,0,0,0,0,0,0,0,0,0,
775,-19.21,-18.03,-26.51,-15.39,-27.89,-17.63,-15.75,-17.72,-34.24,-16.28,-16.36,-12.68,-23.38,-12.99,-2.234,-9.89,0,0,0,0,0,0,0,0,0,0,0,0,0,0,0,0,
776,-21.56,-18.53,-27.47,-14.82,-29.09,-16.72,-13.11,-17.73,-33.64,-18.91,-13.69,-10.67,-16.16,-9.789,5.054,-3.992,0,0,0,0,0,0,0,0,0,0,0,0,0,0,0,0,
777,-12.68,-14.3,-21.33,-12.04,-23.58,-12.61,-7.556,-14.73,-27.63,-14.5,-6.353,-6.429,-8.389,-5.242,11.55,1.3,0,0,0,0,0,0,0,0,0,0,0,0,0,0,0,0,
778,-8.244,-13.96,-17.32,-15.1,-20.14,-15.38,-5.686,-16.71,-23.05,-12.89,-5.533,-9.058,-8.931,-8.308,11.64,3.572,0,0,0,0,0,0,0,0,0,0,0,0,0,0,0,0,
779,-11.64,-15.77,-18.14,-19.81,-23.09,-20.53,-7.492,-20.78,-25.77,-17.13,-6.91,-11.75,-10.17,-11.12,14.38,8.166,0,0,0,0,0,0,0,0,0,0,0,0,0,0,0,0,
780,-10.6,-13.5,-16.98,-17.57,-24.07,-20.14,-5.426,-19.52,-27.19,-18.28,-2.463,-9.21,-4.619,-9.228,19.99,12.11,0,0,0,0,0,0,0,0,0,0,0,0,0,0,0,0,
781,-7.101,-10.92,-12.74,-14.86,-20.43,-18.7,-0.5167,-17.86,-21.03,-17.61,2.72,-7.425,0.2364,-8.316,20.79,11.67,0,0,0,0,0,0,0,0,0,0,0,0,0,0,0,0,
782,-6.483,-10.16,-8.203,-16.81,-17.42,-19.1,0.6532,-20.28,-14.4,-19.15,3.212,-8.671,-0.9299,-9.967,16.64,7.725,0,0,0,0,0,0,0,0,0,0,0,0,0,0,0,0,
783,-6.396,-9.868,-6.314,-17.87,-17.97,-20.39,-1.386,-23.36,-14.73,-20.58,-0.4855,-11.17,-5.918,-14.17,9.464,0.6507,0,0,0,0,0,0,0,0,0,0,0,0,0,0,0,0,
784,-8.91,-14.71,-9.336,-17.26,-21.42,-24.97,-3.669,-25.35,-20.3,-23.17,-5.652,-13.78,-10.85,-18.08,3.833,-3.144,0,0,0,0,0,0,0,0,0,0,0,0,0,0,0,0,
785,-12.11,-19.78,-11.49,-16.75,-23.3,-28.23,-4.79,-26.2,-23.93,-26.51,-8.5,-14.32,-11.14,-17.3,3.213,-1.476,0,0,0,0,0,0,0,0,0,0,0,0,0,0,0,0,
786,-10.17,-16.43,-9.758,-15.56,-21.63,-25.2,-4.397,-26.79,-22.75,-26.92,-9.054,-15.6,-9.911,-18.15,0.5054,-5.294,0,0,0,0,0,0,0,0,0,0,0,0,0,0,0,0,
787,-10.02,-15.31,-12.42,-15.0,-22.41,-23.78,-6.388,-28.28,-22.76,-28.38,-10.18,-21.52,-13.14,-24.52,-5.562,-14.3,0,0,0,0,0,0,0,0,0,0,0,0,0,0,0,0,
788,-13.46,-19.12,-15.9,-13.5,-24.57,-24.5,-8.948,-28.62,-25.7,-31.61,-11.17,-25.57,-15.14,-26.9,-5.84,-16.39,0,0,0,0,0,0,0,0,0,0,0,0,0,0,0,0,
789,-9.657,-13.98,-9.055,-9.419,-20.18,-19.17,-4.192,-26.86,-23.77,-28.82,-8.754,-22.48,-11.15,-22.13,-0.8085,-12.56,0,0,0,0,0,0,0,0,0,0,0,0,0,0,0,0,
790,-3.59,-6.304,-1.054,-7.48,-13.63,-13.27,3.779,-23.44,-17.41,-22.06,-1.27,-16.68,-6.157,-15.5,5.44,-6.997,0,0,0,0,0,0,0,0,0,0,0,0,0,0,0,0,
791,-2.782,-4.499,0.7959,-6.729,-9.187,-9.157,9.257,-18.0,-11.8,-17.0,9.103,-9.53,0.4409,-6.494,14.45,2.947,0,0,0,0,0,0,0,0,0,0,0,0,0,0,0,0,
792,2.147,1.581,4.958,-2.6,-2.98,-0.8771,14.01,-13.89,-4.097,-9.76,14.21,-3.718,7.046,1.174,18.75,10.07,0,0,0,0,0,0,0,0,0,0,0,0,0,0,0,0,
793,6.926,5.615,6.134,-0.8152,-2.279,1.016,10.55,-13.74,-0.3063,-4.547,7.344,-6.361,2.38,-0.8907,11.28,6.288,0,0,0,0,0,0,0,0,0,0,0,0,0,0,0,0,
794,-0.1782,-2.843,-1.988,-4.017,-10.45,-7.565,-1.558,-14.23,-8.877,-9.559,-3.949,-10.32,-8.66,-6.898,2.094,0.2103,0,0,0,0,0,0,0,0,0,0,0,0,0,0,0,0,
795,-8.355,-9.895,-8.191,-5.686,-15.33,-10.94,-6.504,-15.01,-17.58,-15.75,-9.318,-8.565,-13.63,-9.082,-3.84,-3.776,0,0,0,0,0,0,0,0,0,0,0,0,0,0,0,0,
796,-10.48,-10.13,-10.51,-6.267,-16.81,-9.988,-5.759,-17.85,-19.5,-16.54,-12.89,-11.96,-18.64,-13.31,-12.03,-12.47,0,0,0,0,0,0,0,0,0,0,0,0,0,0,0,0,
797,-12.29,-11.7,-12.79,-7.104,-19.38,-11.98,-8.598,-17.87,-23.21,-17.95,-17.51,-18.73,-24.67,-18.67,-16.51,-19.84,0,0,0,0,0,0,0,0,0,0,0,0,0,0,0,0,
798,-10.65,-11.79,-10.72,-4.955,-17.43,-9.64,-8.373,-13.33,-25.19,-17.65,-17.91,-15.94,-23.7,-17.22,-13.67,-17.74,0,0,0,0,0,0,0,0,0,0,0,0,0,0,0,0,
799,-8.285,-10.21,-9.073,-3.587,-15.05,-5.648,-5.186,-11.33,-22.94,-13.67,-16.83,-11.25,-22.31,-14.05,-11.92,-14.0,0,0,0,0,0,0,0,0,0,0,0,0,0,0,0,0,
800,-12.26,-9.931,-11.83,-3.313,-16.44,-5.66,-3.246,-12.67,-23.31,-12.49,-15.36,-11.92,-21.75,-13.62,-9.426,-11.91,0,0,0,0,0,0,0,0,0,0,0,0,0,0,0,0,
801,-14.56,-7.307,-12.58,0.9492,-15.39,-4.065,3.149,-12.84,-21.79,-12.99,-9.459,-11.3,-15.27,-12.93,-3.794,-8.227,0,0,0,0,0,0,0,0,0,0,0,0,0,0,0,0,
802,-12.14,-6.813,-12.99,1.621,-14.77,-3.899,7.933,-14.6,-17.91,-13.9,-5.656,-11.0,-11.17,-14.65,-2.853,-7.488,0,0,0,0,0,0,0,0,0,0,0,0,0,0,0,0,
803,-10.51,-10.72,-13.69,-4.623,-15.5,-7.348,3.738,-18.36,-18.53,-17.49,-6.302,-11.89,-12.75,-16.98,-3.847,-8.418,0,0,0,0,0,0,0,0,0,0,0,0,0,0,0,0,
804,-6.734,-9.712,-9.467,-6.54,-10.98,-6.887,2.763,-17.94,-17.36,-18.07,-4.26,-9.021,-13.22,-14.26,-2.205,-6.217,0,0,0,0,0,0,0,0,0,0,0,0,0,0,0,0,
805,-2.499,-5.668,-6.09,-5.261,-7.276,-5.413,8.27,-14.73,-14.21,-15.45,-2.678,-6.831,-15.03,-11.23,-3.248,-6.241,0,0,0,0,0,0,0,0,0,0,0,0,0,0,0,0,
806,-2.313,-4.593,-7.077,-7.146,-8.258,-5.889,9.296,-13.61,-16.78,-15.85,-3.658,-7.457,-15.46,-9.925,-3.491,-8.178,0,0,0,0,0,0,0,0,0,0,0,0,0,0,0,0,
807,-0.6189,-2.09,-6.44,-5.766,-6.654,-3.021,8.825,-13.4,-16.73,-15.27,-0.1576,-6.582,-8.896,-7.509,1.464,-6.335,0,0,0,0,0,0,0,0,0,0,0,0,0,0,0,0,
808,3.235,0.4383,-4.28,-2.237,-3.777,-0.3778,13.22,-13.33,-10.06,-12.37,6.074,-6.076,-3.515,-7.299,4.471,-5.397,0,0,0,0,0,0,0,0,0,0,0,0,0,0,0,0,
809,4.293,-1.165,-2.55,-3.892,-3.092,-1.241,16.09,-12.81,-6.892,-12.34,8.35,-6.704,-3.491,-8.108,3.335,-8.118,0,0,0,0,0,0,0,0,0,0,0,0,0,0,0,0,
810,3.752,-2.352,-1.806,-5.411,-2.063,-0.1316,14.79,-9.354,-7.133,-10.87,6.539,-6.029,-4.149,-5.57,1.462,-9.436,0,0,0,0,0,0,0,0,0,0,0,0,0,0,0,0,
811,3.063,-0.5118,-2.821,-3.026,0.303,3.712,14.25,-5.906,-4.711,-4.278,4.251,-4.041,-3.541,-1.579,0.7556,-7.641,0,0,0,0,0,0,0,0,0,0,0,0,0,0,0,0,
812,3.593,2.151,-1.734,-0.7162,4.751,7.19,14.8,-5.758,-0.3443,1.524,5.062,0.4062,0.1918,3.098,3.079,-3.64,0,0,0,0,0,0,0,0,0,0,0,0,0,0,0,0,
813,5.744,2.715,-0.2335,1.04,7.596,8.194,15.0,-5.622,2.974,2.935,6.453,4.598,3.841,6.729,4.027,0.533,0,0,0,0,0,0,0,0,0,0,0,0,0,0,0,0,
814,4.746,0.0631,-2.859,0.9749,4.497,6.068,14.93,-4.369,3.022,2.425,4.503,4.301,3.213,7.05,1.012,2.633,0,0,0,0,0,0,0,0,0,0,0,0,0,0,0,0,
815,1.905,-1.022,-3.342,-1.252,2.374,4.604,14.0,-4.436,1.931,4.045,4.358,4.034,4.045,9.201,1.482,3.733,0,0,0,0,0,0,0,0,0,0,0,0,0,0,0,0,
816,2.412,0.2742,0.0775,-1.798,4.376,5.295,15.51,-4.563,3.11,7.559,9.016,5.668,7.634,13.17,5.939,3.985,0,0,0,0,0,0,0,0,0,0,0,0,0,0,0,0,
817,3.4,-0.8877,1.332,-1.812,4.802,6.864,21.41,-2.865,4.955,8.927,12.8,5.424,10.02,13.62,9.022,4.208,0,0,0,0,0,0,0,0,0,0,0,0,0,0,0,0,
818,4.344,0.2815,2.728,-0.8986,6.484,12.31,25.15,-0.2228,7.712,10.15,14.58,6.535,14.93,15.11,12.74,7.746,0,0,0,0,0,0,0,0,0,0,0,0,0,0,0,0,
819,7.672,7.238,5.314,4.309,10.9,19.17,23.13,1.444,12.69,13.87,14.7,8.217,19.11,18.05,14.26,9.964,0,0,0,0,0,0,0,0,0,0,0,0,0,0,0,0,
820,8.08,9.084,3.613,6.583,10.34,18.97,18.91,-0.981,13.77,13.85,8.969,2.832,13.54,13.7,7.597,5.077,0,0,0,0,0,0,0,0,0,0,0,0,0,0,0,0,
821,5.713,4.118,0.0836,2.12,7.082,14.39,16.01,-6.771,9.013,8.456,2.936,-3.144,6.629,7.425,2.295,1.615,0,0,0,0,0,0,0,0,0,0,0,0,0,0,0,0,
822,8.512,4.458,1.37,0.0115,8.554,13.24,17.62,-9.398,7.525,5.603,5.567,-0.9012,8.378,8.91,6.846,6.163,0,0,0,0,0,0,0,0,0,0,0,0,0,0,0,0,
823,13.54,9.118,5.006,1.109,10.08,13.36,20.01,-8.36,9.783,5.926,8.608,0.7325,9.898,10.4,10.38,8.644,0,0,0,0,0,0,0,0,0,0,0,0,0,0,0,0,
824,13.76,8.255,4.007,-0.6448,7.013,11.58,15.64,-9.243,6.338,3.805,4.16,-3.199,4.686,6.445,6.064,3.892,0,0,0,0,0,0,0,0,0,0,0,0,0,0,0,0,
825,11.56,3.57,0.6882,-3.742,4.631,10.16,10.29,-9.88,0.5501,1.428,1.441,-3.577,0.4886,6.006,3.106,1.964,0,0,0,0,0,0,0,0,0,0,0,0,0,0,0,0,
826,9.45,0.462,1.798,-5.94,5.247,8.535,10.58,-6.825,1.135,2.491,4.049,0.7852,0.8595,9.561,4.202,5.398,0,0,0,0,0,0,0,0,0,0,0,0,0,0,0,0,
827,5.108,-2.731,2.156,-7.493,2.969,3.584,8.39,-5.881,1.859,2.095,4.046,2.233,-0.1305,7.595,3.381,5.383,0,0,0,0,0,0,0,0,0,0,0,0,0,0,0,0,
828,-1.423,-7.314,-3.781,-7.065,-3.85,-2.348,1.307,-7.853,-3.968,-2.978,2.067,1.538,-3.309,3.279,3.102,4.009,0,0,0,0,0,0,0,0,0,0,0,0,0,0,0,0,
829,-2.967,-7.444,-6.217,-3.598,-5.558,-0.4294,-0.9046,-5.367,-7.923,-4.638,3.136,5.589,-1.795,7.17,6.863,9.369,0,0,0,0,0,0,0,0,0,0,0,0,0,0,0,0,
830,5.458,0.5127,-0.0964,1.531,3.647,11.69,3.316,-0.59,-2.097,3.224,4.197,12.67,4.537,14.92,9.505,15.26,0,0,0,0,0,0,0,0,0,0,0,0,0,0,0,0,
831,13.65,7.876,5.308,4.161,13.98,21.67,7.691,0.0947,7.874,12.53,4.199,14.45,9.177,16.43,10.38,14.84,0,0,0,0,0,0,0,0,0,0,0,0,0,0,0,0,
832,12.5,7.607,6.886,3.111,17.3,21.52,10.74,-0.5688,14.58,15.4,8.206,11.06,12.72,15.05,14.34,13.59,0,0,0,0,0,0,0,0,0,0,0,0,0,0,0,0,
833,10.02,5.676,7.985,2.91,17.61,18.38,12.65,-0.9355,18.64,15.21,13.86,7.937,16.52,14.75,17.66,11.76,0,0,0,0,0,0,0,0,0,0,0,0,0,0,0,0,
834,11.18,5.831,7.421,4.476,17.41,16.37,12.74,-3.053,20.56,14.06,15.03,4.962,16.67,11.37,15.69,6.301,0,0,0,0,0,0,0,0,0,0,0,0,0,0,0,0,
835,10.97,4.889,6.564,4.399,15.83,13.95,12.93,-3.747,19.62,10.69,14.6,2.947,15.16,8.068,12.85,4.008,0,0,0,0,0,0,0,0,0,0,0,0,0,0,0,0,
836,8.332,2.152,7.21,2.96,13.74,12.4,12.13,-2.245,18.74,7.998,12.94,3.595,13.51,8.552,9.743,4.297,0,0,0,0,0,0,0,0,0,0,0,0,0,0,0,0,
837,3.885,-2.712,4.266,1.051,9.717,8.973,6.921,-3.353,15.76,5.5,4.797,2.341,7.261,6.178,3.139,-0.4786,0,0,0,0,0,0,0,0,0,0,0,0,0,0,0,0,
838,-1.178,-9.06,-1.888,-3.553,3.763,1.458,0.9884,-6.519,7.522,0.6191,-2.981,-0.0899,1.621,2.58,-0.5561,-3.003,0,0,0,0,0,0,0,0,0,0,0,0,0,0,0,0,
839,-3.581,-11.69,-4.278,-8.826,-0.007,-2.999,-1.337,-7.515,1.752,-1.542,-2.12,2.761,3.178,5.298,2.384,1.824,0,0,0,0,0,0,0,0,0,0,0,0,0,0,0,0,
840,-3.247,-7.916,-4.218,-8.297,-0.425,-1.367,-1.738,-5.897,2.098,0.8905,0.1815,6.09,4.775,7.789,3.612,3.262,0,0,0,0,0,0,0,0,0,0,0,0,0,0,0,0,
841,-1.139,-2.736,-5.774,-3.878,0.528,0.2389,-1.124,-3.928,1.676,1.308,-1.762,3.32,1.528,4.525,0.3719,-0.1045,0,0,0,0,0,0,0,0,0,0,0,0,0,0,0,0,
842,0.4991,-2.271,-6.948,-4.02,0.7431,-0.1427,-1.023,-4.412,-1.208,-0.9397,-4.634,0.5122,-3.245,2.1,-2.901,-1.227,0,0,0,0,0,0,0,0,0,0,0,0,0,0,0,0,
843,-1.28,-4.084,-7.662,-7.397,-1.243,-0.317,-3.668,-6.248,-4.934,-1.533,-7.153,1.675,-7.714,2.184,-5.146,-1.47,0,0,0,0,0,0,0,0,0,0,0,0,0,0,0,0,
844,-3.418,-2.799,-9.812,-7.459,-4.113,-1.367,-5.606,-5.655,-9.298,-1.645,-8.04,1.719,-8.932,1.418,-4.766,-1.137,0,0,0,0,0,0,0,0,0,0,0,0,0,0,0,0,
845,-4.109,-2.065,-11.37,-6.917,-6.027,-3.844,-4.94,-5.435,-11.05,-3.479,-6.211,-0.8183,-6.68,0.5292,-2.43,0.4709,0,0,0,0,0,0,0,0,0,0,0,0,0,0,0,0,
846,-6.144,-5.403,-11.3,-9.657,-7.442,-5.695,-5.268,-7.284,-10.56,-5.7,-4.851,-1.953,-6.835,0.3372,-2.544,-0.0101,0,0,0,0,0,0,0,0,0,0,0,0,0,0,0,0,
847,-7.666,-8.253,-11.93,-11.33,-9.67,-6.752,-7.015,-4.952,-11.55,-6.326,-5.706,-0.4093,-10.4,-0.0174,-4.416,-1.329,0,0,0,0,0,0,0,0,0,0,0,0,0,0,0,0,
848,-7.85,-9.047,-13.28,-9.778,-13.43,-8.362,-7.977,-1.258,-13.74,-5.63,-8.345,-0.346,-15.08,-2.713,-7.963,-4.354,0,0,0,0,0,0,0,0,0,0,0,0,0,0,0,0,
849,-10.59,-9.813,-12.96,-8.989,-16.51,-10.8,-7.81,-3.789,-18.01,-7.827,-11.36,-4.484,-20.51,-8.309,-13.97,-11.94,0,0,0,0,0,0,0,0,0,0,0,0,0,0,0,0,
850,-12.17,-8.604,-10.63,-8.123,-15.04,-11.94,-6.639,-5.939,-22.8,-13.8,-10.96,-7.72,-22.4,-11.78,-15.37,-15.5,0,0,0,0,0,0,0,0,0,0,0,0,0,0,0,0,
851,-5.978,-3.974,-7.835,-4.515,-10.12,-9.34,-5.266,-4.566,-21.1,-16.78,-7.463,-7.058,-18.94,-11.55,-11.24,-11.27,0,0,0,0,0,0,0,0,0,0,0,0,0,0,0,0,
852,1.605,-0.5483,-6.044,-3.938,-6.514,-7.406,-5.118,-7.59,-15.46,-15.48,-5.497,-7.401,-15.85,-11.57,-10.45,-9.509,0,0,0,0,0,0,0,0,0,0,0,0,0,0,0,0,
853,1.575,-3.298,-5.618,-8.401,-5.06,-10.43,-6.129,-10.44,-13.25,-15.0,-5.763,-8.595,-14.33,-10.23,-12.25,-12.09,0,0,0,0,0,0,0,0,0,0,0,0,0,0,0,0,
