%OpenBCI Raw EXG Data
%Number of channels = 16
%Sample Rate = 125 Hz
%Board = OpenBCI_GUI$BoardCytonSerialDaisy
Sample Index,EXG Channel 0,EXG Channel 1,EXG Channel 2,EXG Channel 3,EXG Channel 4,EXG Channel 5,EXG Channel 6,EXG Channel 7,EXG Channel 8,EXG Channel 9,EXG Channel 10,EXG Channel 11,EXG Channel 12,EXG Channel 13,EXG Channel 14,EXG Channel 15,Accel Channel 0,Accel Channel 1,Accel Channel 2,Other,Other.1,Other.2,Other.3,Other.4,Other.5,Other.6,Analog Channel 0,Analog Channel 1,Analog Channel 2,Timestamp,Other.7,Timestamp (Formatted),Annotations
1,0.0,-0.0,-0.0,-0.0,0.0,0.0,-0.0,-0.0,-0.0,-0.0,-0.0,0.0,0.0,-0.0,0.0,0.0,0,0,0,0,0,0,0,0,0,0,0,0,0,0,0,0,T0
2,-0.9411,-2.655,1.544,-0.7276,-2.479,5.782,1.777,1.514,-6.39,2.402,-9.892,0.383,-11.22,-2.712,-11.14,-6.25,0,0,0,0,0,0,0,0,0,0,0,0,0,0,0,0,
3,-1.171,-4.363,-3.62,-0.4919,-6.024,4.405,-6.986,2.183,-13.12,3.631,-12.15,1.364,-11.03,-0.5826,-12.03,-5.02,0,0,0,0,0,0,0,0,0,0,0,0,0,0,0,0,
4,5.164,5.759,7.473,6.36,2.618,9.289,-4.994,3.947,-6.715,8.75,-8.882,2.441,-4.286,3.833,-8.057,-1.333,0,0,0,0,0,0,0,0,0,0,0,0,0,0,0,0,
5,14.16,22.21,17.06,15.3,15.56,21.92,3.109,5.447,4.577,14.4,-5.832,3.947,1.338,9.249,-4.619,1.293,0,0,0,0,0,0,0,0,0,0,0,0,0,0,0,0,
6,19.57,29.1,8.041,21.41,17.64,30.72,0.677,3.185,8.157,18.29,-3.971,5.85,4.226,13.03,-2.439,2.339,0,0,0,0,0,0,0,0,0,0,0,0,0,0,0,0,
7,22.7,28.71,7.696,26.04,17.59,34.13,0.0092,0.7022,11.87,24.28,-3.232,7.03,3.975,11.72,-2.834,1.778,0,0,0,0,0,0,0,0,0,0,0,0,0,0,0,0,
8,20.23,23.04,8.482,23.56,13.29,27.94,-5.815,1.644,10.32,21.9,-7.345,3.973,-1.243,5.974,-5.078,1.793,0,0,0,0,0,0,0,0,0,0,0,0,0,0,0,0,
9,12.71,10.8,-2.805,13.89,0.4917,13.84,-20.03,2.475,-1.766,7.309,-11.69,-0.9223,-6.135,0.6898,-4.571,2.946,0,0,0,0,0,0,0,0,0,0,0,0,0,0,0,0,
10,9.679,8.041,0.213,7.663,1.596,8.654,-8.041,3.084,-4.08,2.992,-4.198,3.519,0.955,4.92,3.976,8.527,0,0,0,0,0,0,0,0,0,0,0,0,0,0,0,0,
11,10.39,14.97,6.968,6.891,10.5,10.14,9.053,4.611,3.363,10.87,6.676,9.897,11.38,11.47,11.97,15.84,0,0,0,0,0,0,0,0,0,0,0,0,0,0,0,0,
12,14.7,15.54,5.435,9.858,8.382,12.66,-6.36,2.956,6.228,10.3,7.403,4.162,11.02,5.888,8.471,14.47,0,0,0,0,0,0,0,0,0,0,0,0,0,0,0,0,
13,23.27,15.58,19.77,13.62,14.39,21.43,-10.0,-0.6105,12.81,7.169,9.093,1.325,11.71,1.37,5.992,11.08,0,0,0,0,0,0,0,0,0,0,0,0,0,0,0,0,
14,16.36,12.0,21.05,7.976,16.23,13.54,4.572,-1.481,11.7,7.005,12.34,5.977,12.05,3.267,8.576,12.48,0,0,0,0,0,0,0,0,0,0,0,0,0,0,0,0,
15,0.2334,1.997,-2.657,3.594,-1.477,-6.979,-2.624,0.5604,-5.867,1.642,6.697,3.563,1.139,-0.579,3.156,9.82,0,0,0,0,0,0,0,0,0,0,0,0,0,0,0,0,
16,15.56,17.93,16.07,22.69,16.76,15.94,9.141,6.397,5.571,10.54,12.19,10.65,8.215,10.08,4.644,12.03,0,0,0,0,0,0,0,0,0,0,0,0,0,0,0,0,
17,47.69,50.2,64.18,44.59,68.08,65.12,48.58,15.01,48.33,36.21,32.62,31.96,38.96,39.45,21.19,26.16,0,0,0,0,0,0,0,0,0,0,0,0,0,0,0,0,
18,49.58,49.32,67.81,39.93,77.07,73.98,50.14,22.25,62.08,43.23,34.95,36.2,46.65,47.49,24.86,31.53,0,0,0,0,0,0,0,0,0,0,0,0,0,0,0,0,
19,35.7,31.3,50.82,30.4,58.6,59.64,32.59,24.9,48.33,34.7,24.07,29.74,32.22,37.32,18.68,28.61,0,0,0,0,0,0,0,0,0,0,0,0,0,0,0,0,
20,36.15,32.07,54.09,37.65,61.73,61.15,39.31,21.75,45.29,35.18,28.38,37.12,35.12,41.99,27.09,36.18,0,0,0,0,0,0,0,0,0,0,0,0,0,0,0,0,
21,40.67,38.29,57.69,43.77,68.13,67.9,45.02,20.28,50.03,39.05,37.65,44.79,47.61,52.47,36.37,44.94,0,0,0,0,0,0,0,0,0,0,0,0,0,0,0,0,
22,39.93,39.4,59.11,40.36,67.14,72.05,46.88,26.28,54.49,43.33,37.9,43.6,48.4,54.3,34.46,43.88,0,0,0,0,0,0,0,0,0,0,0,0,0,0,0,0,
23,39.0,40.11,67.49,38.74,69.38,73.36,54.71,31.84,55.98,48.44,38.03,43.94,46.69,54.36,34.61,41.26,0,0,0,0,0,0,0,0,0,0,0,0,0,0,0,0,
24,38.74,37.96,67.86,37.49,67.71,68.99,49.55,32.54,52.56,45.15,39.79,43.1,47.99,51.88,36.28,38.99,0,0,0,0,0,0,0,0,0,0,0,0,0,0,0,0,
25,37.56,34.73,60.58,31.98,63.37,66.03,41.97,29.9,52.64,37.16,39.37,38.15,44.32,45.22,34.27,36.14,0,0,0,0,0,0,0,0,0,0,0,0,0,0,0,0,
26,35.23,33.07,62.28,29.12,63.49,65.24,49.5,25.82,51.0,33.89,41.45,38.93,40.3,43.79,36.12,38.4,0,0,0,0,0,0,0,0,0,0,0,0,0,0,0,0,
27,34.69,33.82,68.29,29.89,63.95,64.77,55.34,27.28,46.07,38.38,45.66,44.93,43.16,47.74,38.21,41.72,0,0,0,0,0,0,0,0,0,0,0,0,0,0,0,0,
28,32.06,32.69,59.68,23.94,59.21,62.08,47.76,28.01,46.86,42.83,40.48,40.36,39.84,42.15,27.87,34.82,0,0,0,0,0,0,0,0,0,0,0,0,0,0,0,0,
29,18.97,19.69,39.7,10.45,46.99,47.64,30.82,17.58,38.77,33.33,24.25,25.56,24.3,27.3,11.51,21.48,0,0,0,0,0,0,0,0,0,0,0,0,0,0,0,0,
30,4.87,4.939,29.24,0.9003,34.5,31.2,14.87,11.2,21.65,20.22,12.0,18.33,14.64,20.8,4.343,14.69,0,0,0,0,0,0,0,0,0,0,0,0,0,0,0,0,
31,0.4411,1.984,26.94,-0.1798,29.17,26.47,11.04,14.95,17.25,17.59,7.333,17.05,11.62,19.91,1.42,12.45,0,0,0,0,0,0,0,0,0,0,0,0,0,0,0,0,
32,-0.9835,0.988,20.88,4.397,26.24,23.89,9.542,11.45,14.21,13.75,0.6697,11.95,2.504,14.09,-6.002,7.574,0,0,0,0,0,0,0,0,0,0,0,0,0,0,0,0,
33,0.2386,1.747,20.63,12.31,25.93,24.08,3.677,8.48,5.923,8.356,-2.283,12.29,0.2163,14.07,-7.013,7.327,0,0,0,0,0,0,0,0,0,0,0,0,0,0,0,0,
34,7.178,11.59,29.88,17.4,32.01,33.54,8.055,18.55,11.72,12.03,5.5,20.33,11.35,22.49,2.245,14.28,0,0,0,0,0,0,0,0,0,0,0,0,0,0,0,0,
35,9.129,15.71,34.48,15.19,35.59,36.71,13.83,18.19,20.41,17.65,11.49,25.19,17.31,27.58,7.872,17.99,0,0,0,0,0,0,0,0,0,0,0,0,0,0,0,0,
36,3.876,9.211,34.19,11.41,33.01,31.39,4.788,5.525,18.18,22.44,10.3,28.0,16.69,31.21,8.745,19.39,0,0,0,0,0,0,0,0,0,0,0,0,0,0,0,0,
37,3.398,8.546,35.27,11.82,33.78,33.81,1.9,13.26,20.83,28.47,11.63,31.14,20.5,35.48,12.16,23.77,0,0,0,0,0,0,0,0,0,0,0,0,0,0,0,0,
38,8.817,13.71,34.2,12.45,37.85,38.77,10.76,28.71,25.99,26.96,14.99,28.52,23.16,33.24,13.4,23.45,0,0,0,0,0,0,0,0,0,0,0,0,0,0,0,0,
39,12.96,15.28,34.26,11.1,38.84,38.23,9.344,21.74,22.68,22.14,15.1,24.13,20.97,29.84,11.33,19.04,0,0,0,0,0,0,0,0,0,0,0,0,0,0,0,0,
40,16.2,18.7,40.27,16.39,41.16,42.8,8.986,15.27,22.52,28.01,16.45,27.18,22.01,34.42,12.71,20.89,0,0,0,0,0,0,0,0,0,0,0,0,0,0,0,0,
41,20.11,25.29,45.18,26.21,46.37,50.58,19.94,22.25,29.59,37.06,20.05,30.27,25.74,37.85,14.12,23.32,0,0,0,0,0,0,0,0,0,0,0,0,0,0,0,0,
42,19.96,22.53,44.3,22.34,44.53,47.12,18.08,17.84,32.6,32.9,18.18,23.01,22.43,30.43,9.769,18.29,0,0,0,0,0,0,0,0,0,0,0,0,0,0,0,0,
43,13.72,11.89,39.42,9.18,35.24,37.32,6.08,8.69,26.21,20.63,11.86,16.5,15.16,23.53,6.355,15.22,0,0,0,0,0,0,0,0,0,0,0,0,0,0,0,0,
44,9.825,10.81,34.58,9.265,31.65,35.68,5.084,13.7,18.09,18.04,11.82,21.47,17.05,28.05,9.851,19.39,0,0,0,0,0,0,0,0,0,0,0,0,0,0,0,0,
45,13.5,17.49,37.14,16.32,35.88,40.2,7.793,19.9,19.77,25.49,16.36,25.86,22.82,33.78,13.13,22.85,0,0,0,0,0,0,0,0,0,0,0,0,0,0,0,0,
46,15.1,15.48,44.38,14.96,36.68,40.51,8.449,18.33,23.44,28.36,15.25,23.46,19.7,32.62,11.17,23.63,0,0,0,0,0,0,0,0,0,0,0,0,0,0,0,0,
47,11.93,11.2,45.84,15.92,34.21,38.89,9.741,19.28,19.66,26.44,13.73,25.13,16.82,32.34,10.36,25.07,0,0,0,0,0,0,0,0,0,0,0,0,0,0,0,0,
48,14.79,17.59,43.03,23.25,36.61,42.7,5.077,25.9,22.08,29.26,17.04,29.22,20.47,33.88,11.55,23.7,0,0,0,0,0,0,0,0,0,0,0,0,0,0,0,0,
49,18.18,22.82,40.13,23.27,38.75,45.37,0.1047,23.57,29.13,32.19,15.51,25.78,19.51,30.12,8.194,17.22,0,0,0,0,0,0,0,0,0,0,0,0,0,0,0,0,
50,11.94,18.69,36.19,19.02,36.17,41.46,1.37,5.742,25.23,30.27,10.55,19.72,15.72,24.12,3.309,11.0,0,0,0,0,0,0,0,0,0,0,0,0,0,0,0,0,
51,8.599,17.09,35.66,20.59,36.12,40.89,-0.0744,1.087,20.87,28.51,10.86,17.55,15.55,19.75,1.878,7.082,0,0,0,0,0,0,0,0,0,0,0,0,0,0,0,0,
52,13.14,19.87,39.5,22.48,38.43,45.34,-2.174,22.05,23.67,24.3,10.65,16.12,12.49,14.64,-0.0131,2.592,0,0,0,0,0,0,0,0,0,0,0,0,0,0,0,0,
53,14.82,20.54,41.15,21.47,38.52,46.06,-1.092,29.85,22.95,18.38,7.312,15.41,7.575,13.01,-3.373,-0.3584,0,0,0,0,0,0,0,0,0,0,0,0,0,0,0,0,
54,16.67,22.16,41.14,23.08,38.83,45.01,-3.108,17.63,20.16,22.66,5.792,18.46,6.685,18.47,-5.189,1.393,0,0,0,0,0,0,0,0,0,0,0,0,0,0,0,0,
55,19.69,23.33,42.37,25.91,38.49,44.17,-2.561,22.4,19.23,30.47,4.691,22.21,6.347,23.14,-5.9,5.176,0,0,0,0,0,0,0,0,0,0,0,0,0,0,0,0,
56,15.35,18.26,40.82,23.92,35.04,38.46,0.5142,31.72,16.25,27.38,4.257,22.05,5.725,22.17,-5.127,8.055,0,0,0,0,0,0,0,0,0,0,0,0,0,0,0,0,
57,9.022,11.16,34.28,16.93,30.81,30.73,-3.835,16.19,13.19,19.95,5.562,17.73,6.5,18.72,-3.35,8.919,0,0,0,0,0,0,0,0,0,0,0,0,0,0,0,0,
58,4.988,6.005,28.67,10.06,27.03,25.95,-3.855,3.319,12.94,13.7,5.939,12.79,7.536,15.29,-2.531,8.602,0,0,0,0,0,0,0,0,0,0,0,0,0,0,0,0,
59,0.3353,2.931,31.14,8.425,26.42,24.85,5.906,13.05,15.66,9.928,9.018,13.4,11.63,16.76,1.849,12.61,0,0,0,0,0,0,0,0,0,0,0,0,0,0,0,0,
60,1.554,4.715,37.41,12.88,30.5,29.94,8.45,22.38,21.53,18.6,16.29,21.19,18.34,25.33,10.54,20.37,0,0,0,0,0,0,0,0,0,0,0,0,0,0,0,0,
61,4.568,6.854,35.71,17.09,31.48,34.24,6.269,24.52,25.3,30.29,18.62,26.14,18.96,30.31,12.12,20.96,0,0,0,0,0,0,0,0,0,0,0,0,0,0,0,0,
62,-2.265,1.699,27.64,12.92,25.22,25.51,9.224,26.43,20.18,26.52,13.83,22.07,12.01,26.25,5.074,14.41,0,0,0,0,0,0,0,0,0,0,0,0,0,0,0,0,
63,-8.27,-4.269,23.33,5.868,19.3,13.97,7.529,24.91,9.99,18.73,11.41,21.04,8.956,25.1,3.597,14.32,0,0,0,0,0,0,0,0,0,0,0,0,0,0,0,0,
64,-6.28,-3.97,19.52,8.366,17.55,16.14,-1.063,24.87,6.777,19.63,14.81,28.67,15.63,30.42,10.46,21.18,0,0,0,0,0,0,0,0,0,0,0,0,0,0,0,0,
65,-7.85,-3.965,12.28,14.66,16.42,22.72,-4.376,27.96,11.92,19.63,18.98,30.98,23.04,30.39,15.54,23.12,0,0,0,0,0,0,0,0,0,0,0,0,0,0,0,0,
66,-9.659,-5.553,12.98,13.22,16.99,22.67,3.178,24.22,16.58,16.88,22.66,25.14,26.1,25.46,17.75,20.46,0,0,0,0,0,0,0,0,0,0,0,0,0,0,0,0,
67,-4.95,-2.88,22.24,8.59,20.3,22.83,12.14,16.91,20.18,18.46,25.23,21.73,28.44,24.9,20.09,20.22,0,0,0,0,0,0,0,0,0,0,0,0,0,0,0,0,
68,-5.582,-2.369,23.42,5.753,20.25,23.5,9.378,16.24,22.75,20.97,23.27,21.2,28.05,25.92,20.24,20.89,0,0,0,0,0,0,0,0,0,0,0,0,0,0,0,0,
69,-11.66,-8.05,18.8,4.432,17.78,20.65,4.317,20.22,20.97,20.54,21.76,23.68,26.38,27.04,20.38,21.85,0,0,0,0,0,0,0,0,0,0,0,0,0,0,0,0,
70,-11.49,-9.786,20.67,5.462,19.09,19.35,10.08,21.76,21.68,20.57,24.48,30.35,28.9,32.38,22.26,24.68,0,0,0,0,0,0,0,0,0,0,0,0,0,0,0,0,
71,-10.74,-8.368,20.53,2.95,19.09,18.49,11.18,21.12,25.06,21.81,23.43,31.88,28.89,36.14,20.86,25.57,0,0,0,0,0,0,0,0,0,0,0,0,0,0,0,0,
72,-13.85,-11.28,16.64,-4.14,15.6,15.54,1.759,22.5,22.01,22.07,19.24,27.92,24.3,34.41,17.31,24.91,0,0,0,0,0,0,0,0,0,0,0,0,0,0,0,0,
73,-14.45,-13.82,20.35,-8.608,14.75,14.57,-2.558,19.51,16.68,20.64,16.95,25.57,21.23,30.2,14.06,23.88,0,0,0,0,0,0,0,0,0,0,0,0,0,0,0,0,
74,-15.5,-15.07,22.14,-12.62,13.37,13.5,-5.21,9.078,12.78,15.54,11.22,20.23,15.62,22.41,8.071,18.24,0,0,0,0,0,0,0,0,0,0,0,0,0,0,0,0,
75,-15.92,-15.38,17.01,-13.84,12.36,14.36,-8.667,4.633,10.47,9.381,7.771,14.8,12.2,17.99,6.072,15.06,0,0,0,0,0,0,0,0,0,0,0,0,0,0,0,0,
76,-9.693,-9.192,19.75,-7.272,17.33,21.07,-2.527,3.722,14.81,9.697,13.22,17.13,18.29,22.93,12.25,20.37,0,0,0,0,0,0,0,0,0,0,0,0,0,0,0,0,
77,-8.996,-7.28,23.69,-7.097,16.7,20.01,1.175,-4.561,14.53,11.03,11.03,16.39,17.34,22.6,13.07,20.84,0,0,0,0,0,0,0,0,0,0,0,0,0,0,0,0,
78,-19.42,-18.43,17.75,-16.39,6.954,7.604,-6.717,-5.65,2.634,3.753,-1.565,8.403,5.68,12.66,6.221,14.4,0,0,0,0,0,0,0,0,0,0,0,0,0,0,0,0,
79,-23.86,-25.62,15.79,-18.86,4.578,1.759,-7.72,2.363,-2.014,-3.831,-4.457,6.012,3.27,9.059,5.793,14.54,0,0,0,0,0,0,0,0,0,0,0,0,0,0,0,0,
80,-16.88,-19.99,22.14,-15.5,10.29,5.105,2.26,-0.593,3.773,-2.355,1.938,7.65,9.135,11.31,10.6,17.58,0,0,0,0,0,0,0,0,0,0,0,0,0,0,0,0,
81,-9.621,-11.97,25.28,-12.64,13.02,7.161,5.21,-7.238,7.523,2.091,2.685,4.915,10.03,8.601,8.709,14.45,0,0,0,0,0,0,0,0,0,0,0,0,0,0,0,0,
82,-9.601,-8.731,21.39,-9.476,11.23,6.837,-4.415,-4.272,7.908,2.175,-2.041,3.864,8.559,6.689,3.468,11.52,0,0,0,0,0,0,0,0,0,0,0,0,0,0,0,0,
83,-15.01,-10.19,14.33,-10.17,7.698,8.233,-13.13,-1.539,4.63,1.492,-2.601,8.872,12.08,13.85,7.084,15.49,0,0,0,0,0,0,0,0,0,0,0,0,0,0,0,0,
84,-14.32,-8.414,14.55,-9.188,9.364,14.44,-8.397,-0.9645,6.042,8.009,4.901,14.0,20.61,23.65,17.04,22.24,0,0,0,0,0,0,0,0,0,0,0,0,0,0,0,0,
85,-5.653,-1.96,23.22,-2.356,17.0,20.06,3.351,2.119,19.15,16.61,12.29,17.0,26.87,26.63,20.1,24.5,0,0,0,0,0,0,0,0,0,0,0,0,0,0,0,0,
86,-4.483,-3.986,24.65,-4.045,18.04,16.63,6.051,1.134,25.76,16.58,10.72,19.34,25.2,24.22,15.28,21.12,0,0,0,0,0,0,0,0,0,0,0,0,0,0,0,0,
87,-12.3,-12.42,17.4,-13.84,11.39,10.82,-1.359,-4.083,18.28,13.53,4.737,19.12,19.3,22.31,10.41,17.18,0,0,0,0,0,0,0,0,0,0,0,0,0,0,0,0,
88,-14.84,-12.73,13.15,-15.01,8.553,12.02,-6.86,-3.42,12.78,14.08,3.026,18.8,17.17,22.78,9.427,17.79,0,0,0,0,0,0,0,0,0,0,0,0,0,0,0,0,
89,-11.04,-7.743,12.07,-8.099,10.38,15.5,-7.878,2.926,14.65,14.33,6.644,22.78,21.4,25.8,13.14,22.08,0,0,0,0,0,0,0,0,0,0,0,0,0,0,0,0,
90,-9.196,-5.942,12.43,-5.069,11.62,15.8,-10.78,3.233,17.82,14.97,8.924,24.4,21.93,27.08,14.6,21.92,0,0,0,0,0,0,0,0,0,0,0,0,0,0,0,0,
91,-9.928,-6.81,15.12,-8.091,12.72,16.94,-9.193,0.4555,17.06,16.59,6.682,22.3,15.42,24.68,10.66,18.32,0,0,0,0,0,0,0,0,0,0,0,0,0,0,0,0,
92,-6.955,-4.899,19.19,-6.045,16.4,23.25,3.388,8.6,15.89,18.61,10.04,27.9,18.0,27.71,13.1,23.75,0,0,0,0,0,0,0,0,0,0,0,0,0,0,0,0,
93,1.314,2.983,24.65,3.244,21.63,29.79,9.54,16.13,23.21,25.01,19.45,35.32,27.44,35.46,18.78,31.93,0,0,0,0,0,0,0,0,0,0,0,0,0,0,0,0,
94,3.662,5.055,25.37,0.8591,22.71,28.9,1.742,8.037,28.71,30.26,18.98,31.17,24.73,35.15,13.84,27.81,0,0,0,0,0,0,0,0,0,0,0,0,0,0,0,0,
95,-4.69,-5.528,19.2,-13.3,19.1,22.26,0.2408,1.315,21.26,26.3,13.98,25.61,19.68,29.9,11.19,22.14,0,0,0,0,0,0,0,0,0,0,0,0,0,0,0,0,
96,-7.307,-9.284,19.18,-15.58,19.13,17.63,7.305,5.34,17.26,19.7,20.06,25.36,25.32,28.53,19.64,24.44,0,0,0,0,0,0,0,0,0,0,0,0,0,0,0,0,
97,1.573,0.2786,27.09,-8.761,23.5,19.57,8.362,7.413,24.19,18.33,24.61,19.88,26.8,26.23,19.63,21.89,0,0,0,0,0,0,0,0,0,0,0,0,0,0,0,0,
98,4.0,2.885,28.05,-8.794,21.49,23.91,7.137,7.824,24.68,19.91,17.3,14.03,19.06,22.13,10.27,14.59,0,0,0,0,0,0,0,0,0,0,0,0,0,0,0,0,
99,-4.148,-3.576,20.48,-9.176,12.52,22.31,6.241,8.862,15.69,18.68,12.36,17.56,15.12,21.89,8.915,14.42,0,0,0,0,0,0,0,0,0,0,0,0,0,0,0,0,
100,-8.216,-4.785,16.42,-6.433,9.111,18.41,0.0429,4.313,10.78,14.37,12.99,20.66,15.71,23.09,10.99,17.19,0,0,0,0,0,0,0,0,0,0,0,0,0,0,0,0,
101,-5.076,-1.974,19.01,-7.938,14.04,20.77,-1.689,0.4704,12.92,13.29,12.15,18.72,15.39,23.05,9.425,17.78,0,0,0,0,0,0,0,0,0,0,0,0,0,0,0,0,
102,-2.376,-2.092,20.02,-10.98,17.11,22.62,5.006,2.337,15.5,14.6,12.98,18.64,15.55,21.37,9.838,18.14,0,0,0,0,0,0,0,0,0,0,0,0,0,0,0,0,
103,-2.528,-4.029,16.47,-12.27,14.14,17.02,4.783,0.8337,13.28,9.724,13.36,17.04,14.48,15.07,8.774,13.97,0,0,0,0,0,0,0,0,0,0,0,0,0,0,0,0,
104,-1.96,-3.258,16.0,-12.46,11.29,12.99,-0.0206,-2.166,7.183,2.159,9.153,12.31,9.904,9.238,2.856,7.181,0,0,0,0,0,0,0,0,0,0,0,0,0,0,0,0,
105,0.0983,0.5472,19.22,-9.61,11.43,14.3,5.695,2.109,4.168,1.921,7.077,11.91,6.583,11.11,-0.5829,7.486,0,0,0,0,0,0,0,0,0,0,0,0,0,0,0,0,
106,-2.05,-0.0871,17.72,-7.386,10.5,13.18,11.85,6.686,5.668,5.944,8.054,15.55,7.274,16.63,1.287,13.7,0,0,0,0,0,0,0,0,0,0,0,0,0,0,0,0,
107,-5.673,-3.275,13.2,-7.474,9.492,12.77,7.027,6.261,7.904,8.236,8.431,19.08,10.09,21.44,5.83,18.65,0,0,0,0,0,0,0,0,0,0,0,0,0,0,0,0,
108,-1.752,1.638,11.71,-4.163,12.39,18.59,4.709,5.784,11.36,9.818,10.35,19.35,12.48,22.24,7.908,17.45,0,0,0,0,0,0,0,0,0,0,0,0,0,0,0,0,
109,2.695,6.4,12.01,-1.187,14.42,20.93,8.812,4.94,13.03,9.931,11.7,14.34,12.01,16.79,5.181,10.93,0,0,0,0,0,0,0,0,0,0,0,0,0,0,0,0,
110,-0.1714,1.304,12.71,-4.172,12.32,17.1,7.782,6.584,11.54,9.449,11.17,11.6,12.14,14.74,5.61,8.991,0,0,0,0,0,0,0,0,0,0,0,0,0,0,0,0,
111,-2.881,-2.088,11.74,-6.727,11.05,17.1,6.199,13.06,14.31,10.95,12.17,14.66,15.24,19.1,9.77,12.78,0,0,0,0,0,0,0,0,0,0,0,0,0,0,0,0,
112,-1.659,1.984,9.855,-3.167,12.87,22.61,12.41,15.03,18.29,13.87,13.18,18.09,16.31,21.67,11.06,14.93,0,0,0,0,0,0,0,0,0,0,0,0,0,0,0,0,
113,1.526,6.609,12.74,3.434,17.02,29.69,18.58,11.99,18.37,20.98,14.55,21.26,17.37,24.14,13.85,17.43,0,0,0,0,0,0,0,0,0,0,0,0,0,0,0,0,
114,2.909,6.7,13.74,4.452,18.87,31.06,18.7,8.979,20.23,25.41,17.93,19.58,21.85,24.66,17.66,19.85,0,0,0,0,0,0,0,0,0,0,0,0,0,0,0,0,
115,-2.02,1.708,10.29,-0.2671,14.88,24.93,17.75,6.736,21.38,17.37,20.12,13.48,24.77,20.32,17.6,19.65,0,0,0,0,0,0,0,0,0,0,0,0,0,0,0,0,
116,-4.912,1.163,16.19,1.79,13.47,25.94,16.57,11.9,21.39,14.67,21.14,16.26,25.68,22.39,18.68,21.65,0,0,0,0,0,0,0,0,0,0,0,0,0,0,0,0,
117,-3.616,3.966,19.11,5.112,13.88,28.85,9.702,17.91,23.52,23.69,18.76,20.91,23.79,26.37,17.68,21.44,0,0,0,0,0,0,0,0,0,0,0,0,0,0,0,0,
118,-10.06,-4.972,2.522,-4.092,6.381,16.02,3.147,14.05,16.83,20.06,11.75,16.09,17.92,21.33,12.46,16.97,0,0,0,0,0,0,0,0,0,0,0,0,0,0,0,0,
119,-15.18,-12.57,-5.358,-9.747,2.395,8.188,7.595,13.6,7.969,10.7,11.45,16.13,18.22,20.39,14.6,19.69,0,0,0,0,0,0,0,0,0,0,0,0,0,0,0,0,
120,-9.069,-4.093,5.308,-2.991,7.987,18.36,12.25,19.15,13.11,15.23,17.2,21.18,23.44,24.27,18.25,24.11,0,0,0,0,0,0,0,0,0,0,0,0,0,0,0,0,
121,-7.308,-1.484,6.428,-3.207,8.5,20.23,7.454,18.44,17.04,16.5,14.91,16.35,20.87,18.62,12.33,18.39,0,0,0,0,0,0,0,0,0,0,0,0,0,0,0,0,
122,-10.99,-8.266,4.037,-8.021,6.926,13.36,7.254,15.69,14.28,8.995,8.685,10.38,16.93,12.2,7.656,12.21,0,0,0,0,0,0,0,0,0,0,0,0,0,0,0,0,
123,-8.694,-3.795,11.49,-3.385,10.92,16.56,13.51,12.35,17.81,9.989,7.513,11.41,18.35,13.74,7.894,12.15,0,0,0,0,0,0,0,0,0,0,0,0,0,0,0,0,
124,-4.377,3.613,14.6,1.002,12.69,21.76,16.56,8.019,18.64,15.2,9.381,12.4,18.1,15.94,6.825,12.46,0,0,0,0,0,0,0,0,0,0,0,0,0,0,0,0,
125,1.833,4.135,17.83,-0.6379,14.27,22.58,20.79,12.1,16.7,16.74,14.31,13.81,18.81,17.2,7.427,12.15,0,0,0,0,0,0,0,0,0,0,0,0,0,0,0,0,
126,7.236,5.845,23.68,-2.667,16.35,22.66,20.02,16.81,22.66,17.82,15.96,13.87,20.79,15.19,5.609,8.883,0,0,0,0,0,0,0,0,0,0,0,0,0,0,0,0,
127,0.0523,3.014,15.48,-6.334,10.16,16.5,8.28,11.01,22.17,13.68,7.876,7.537,14.95,7.79,-1.775,2.432,0,0,0,0,0,0,0,0,0,0,0,0,0,0,0,0,
128,-9.139,-4.537,7.346,-8.62,3.537,8.096,3.198,4.962,13.05,4.902,2.876,1.751,9.838,4.208,-3.65,0.6956,0,0,0,0,0,0,0,0,0,0,0,0,0,0,0,0,
129,-8.484,-4.54,13.64,-6.504,2.688,6.524,6.747,4.224,11.5,1.106,6.558,-0.2399,13.55,5.448,-0.7377,2.675,0,0,0,0,0,0,0,0,0,0,0,0,0,0,0,0,
130,-8.27,-3.229,16.51,-5.97,0.0883,7.359,8.395,4.982,11.43,2.323,8.245,-0.1478,14.02,5.736,-0.5252,3.471,0,0,0,0,0,0,0,0,0,0,0,0,0,0,0,0,
131,-7.16,-4.182,15.48,-4.951,0.8537,10.51,11.04,12.2,9.606,7.364,8.563,5.406,11.08,8.564,0.8531,5.391,0,0,0,0,0,0,0,0,0,0,0,0,0,0,0,0,
132,-1.029,-0.9845,18.32,-1.748,7.558,15.91,10.32,21.59,15.32,13.19,10.12,7.934,12.91,9.823,0.7571,4.789,0,0,0,0,0,0,0,0,0,0,0,0,0,0,0,0,
133,-1.258,-1.576,16.5,-5.016,8.964,12.75,9.252,16.07,17.84,9.136,8.238,2.382,13.19,5.778,-2.722,1.653,0,0,0,0,0,0,0,0,0,0,0,0,0,0,0,0,
134,-4.011,-4.879,15.84,-9.922,7.369,6.388,16.37,4.992,12.06,3.334,6.36,5.026,12.0,9.075,-0.2579,5.722,0,0,0,0,0,0,0,0,0,0,0,0,0,0,0,0,
135,-3.092,-3.582,18.98,-7.027,6.559,7.216,13.53,10.75,11.08,7.911,6.64,13.32,12.65,15.49,3.621,10.26,0,0,0,0,0,0,0,0,0,0,0,0,0,0,0,0,
136,-8.633,-7.324,11.19,-3.889,0.0469,6.28,1.97,18.96,8.972,7.076,6.364,10.09,8.022,10.29,1.34,5.842,0,0,0,0,0,0,0,0,0,0,0,0,0,0,0,0,
137,-14.17,-9.877,0.88,-3.584,-4.38,3.938,4.852,13.3,0.3835,-0.9712,7.082,5.016,3.443,4.449,0.5543,2.602,0,0,0,0,0,0,0,0,0,0,0,0,0,0,0,0,
138,-10.28,-2.374,2.926,-2.586,-0.9105,6.595,6.127,10.79,-0.3417,1.422,4.879,6.49,4.471,3.717,0.3657,2.645,0,0,0,0,0,0,0,0,0,0,0,0,0,0,0,0,
139,-8.512,-3.698,6.307,-6.503,-2.049,3.922,-5.839,11.95,2.227,2.033,-1.466,5.434,0.3887,-2.746,-4.125,-1.135,0,0,0,0,0,0,0,0,0,0,0,0,0,0,0,0,
140,-10.01,-11.77,3.263,-12.15,-6.82,-2.358,-9.278,3.677,-3.011,-7.113,-2.378,4.499,-5.374,-7.693,-5.677,-3.218,0,0,0,0,0,0,0,0,0,0,0,0,0,0,0,0,
141,-8.895,-8.493,0.3463,-10.09,-5.214,-1.059,-4.741,0.6914,-4.593,-6.6,1.757,6.497,-1.608,-3.359,-3.014,-0.283,0,0,0,0,0,0,0,0,0,0,0,0,0,0,0,0,
142,-11.72,-6.125,-0.9368,-7.875,-4.716,0.9422,-4.7,6.482,-0.1981,-0.7358,3.413,5.303,3.592,0.3008,-1.558,2.096,0,0,0,0,0,0,0,0,0,0,0,0,0,0,0,0,
143,-17.66,-11.1,-3.742,-11.52,-10.99,0.6515,-7.324,3.516,-1.305,-1.568,2.241,3.304,2.447,-0.6662,-1.534,2.013,0,0,0,0,0,0,0,0,0,0,0,0,0,0,0,0,
144,-19.62,-10.05,-6.411,-9.254,-13.78,4.984,-9.317,1.02,-4.927,-0.1925,0.7257,4.232,1.746,-1.064,-0.4561,2.295,0,0,0,0,0,0,0,0,0,0,0,0,0,0,0,0,
145,-16.7,-4.684,-2.827,1.067,-7.745,9.755,-3.416,6.888,-2.231,0.9691,1.967,6.479,5.581,1.601,2.902,5.426,0,0,0,0,0,0,0,0,0,0,0,0,0,0,0,0,
146,-10.61,-2.007,3.561,2.926,-2.224,10.04,3.906,1.413,3.565,-0.5659,1.614,6.918,6.242,3.427,1.829,6.462,0,0,0,0,0,0,0,0,0,0,0,0,0,0,0,0,
147,-7.227,-1.47,3.607,-5.38,-3.155,9.368,-3.417,-9.769,3.436,4.046,-5.844,1.633,0.9378,-0.3241,-5.542,2.12,0,0,0,0,0,0,0,0,0,0,0,0,0,0,0,0,
148,-7.435,-2.596,3.902,-7.951,-3.765,7.944,-10.59,-4.656,0.0399,3.483,-8.66,-4.841,0.6273,-4.549,-6.022,0.5036,0,0,0,0,0,0,0,0,0,0,0,0,0,0,0,0,
149,-5.322,-2.7,10.16,-4.681,-1.988,4.878,-2.421,3.15,1.962,-5.963,-1.396,-4.731,5.508,-4.475,0.0952,2.66,0,0,0,0,0,0,0,0,0,0,0,0,0,0,0,0,
150,-2.714,0.1619,11.92,-3.598,-2.441,5.805,2.185,-0.2222,4.15,-4.674,1.625,-2.465,4.437,-4.762,-0.6322,1.14,0,0,0,0,0,0,0,0,0,0,0,0,0,0,0,0,
151,-3.3,2.371,6.598,-2.303,-4.128,9.717,-7.934,-2.248,1.321,-0.8357,-2.836,-4.821,-0.2234,-7.248,-5.873,-2.522,0,0,0,0,0,0,0,0,0,0,0,0,0,0,0,0,
152,-5.202,0.5305,2.361,-1.884,-6.481,7.157,-13.78,-1.612,-1.535,-9.461,-5.834,-8.041,-3.206,-8.456,-8.113,-4.445,0,0,0,0,0,0,0,0,0,0,0,0,0,0,0,0,
153,-5.537,-2.75,3.818,-2.153,-7.59,2.251,-3.288,-4.918,-2.67,-12.62,-5.992,-7.802,-4.562,-5.842,-7.202,-5.377,0,0,0,0,0,0,0,0,0,0,0,0,0,0,0,0,
154,-3.946,-4.088,8.973,0.9494,-3.845,3.071,1.348,-5.404,-1.183,-5.122,-5.468,-6.23,-1.208,-0.9338,-3.676,-5.686,0,0,0,0,0,0,0,0,0,0,0,0,0,0,0,0,
155,-4.571,-5.32,9.535,0.3651,-1.644,3.033,-12.54,-0.6841,2.837,-0.9872,-4.325,-3.966,2.722,0.2388,-0.7239,-5.428,0,0,0,0,0,0,0,0,0,0,0,0,0,0,0,0,
156,-7.04,-7.343,5.412,-5.359,-4.561,-0.3496,-15.63,-1.222,3.538,-0.4584,-3.554,-2.166,0.825,-3.876,-0.813,-4.764,0,0,0,0,0,0,0,0,0,0,0,0,0,0,0,0,
157,-7.908,-9.412,3.537,-7.614,-7.404,-2.711,-2.682,-9.647,-0.6106,-5.451,-5.708,-3.68,-2.162,-5.996,-1.52,-2.828,0,0,0,0,0,0,0,0,0,0,0,0,0,0,0,0,
158,-9.95,-10.08,3.268,-5.974,-8.602,-4.607,-2.922,-10.61,-4.862,-12.18,-8.471,-2.144,-1.613,-0.8613,-0.8469,1.968,0,0,0,0,0,0,0,0,0,0,0,0,0,0,0,0,
159,-11.62,-6.459,4.733,-2.212,-7.557,-4.446,-11.25,-0.6723,-3.991,-8.204,-7.148,3.655,-0.1373,3.957,-0.5279,5.652,0,0,0,0,0,0,0,0,0,0,0,0,0,0,0,0,
160,-11.41,-5.87,3.386,-1.025,-7.779,-3.73,-13.98,-0.2536,-0.5776,-5.871,-6.662,1.648,-1.637,-0.3494,-3.849,1.905,0,0,0,0,0,0,0,0,0,0,0,0,0,0,0,0,
161,-13.75,-12.18,-5.976,-6.316,-11.56,-5.417,-17.83,-11.0,-2.325,-10.98,-8.609,-4.581,-3.078,-4.694,-6.42,-1.776,0,0,0,0,0,0,0,0,0,0,0,0,0,0,0,0,
162,-12.69,-11.07,-6.274,-8.65,-9.464,-3.444,-16.34,-14.39,-3.141,-6.349,-4.371,-3.277,2.507,0.0498,-1.273,3.031,0,0,0,0,0,0,0,0,0,0,0,0,0,0,0,0,
163,-5.861,-3.188,6.255,-6.219,-2.883,1.22,-9.632,-9.922,3.827,-0.5971,2.668,0.1513,10.65,4.759,5.569,8.254,0,0,0,0,0,0,0,0,0,0,0,0,0,0,0,0,
164,-4.646,-2.39,8.533,-5.287,-2.414,1.221,-8.272,-6.316,8.692,-4.991,4.602,1.417,12.73,4.521,6.613,9.379,0,0,0,0,0,0,0,0,0,0,0,0,0,0,0,0,
165,-6.883,-3.256,4.291,-2.189,-3.231,0.1309,-6.137,-5.969,7.319,-4.357,5.101,3.631,10.58,4.366,4.831,10.86,0,0,0,0,0,0,0,0,0,0,0,0,0,0,0,0,
166,-4.06,-2.704,7.736,-1.546,-1.497,1.098,-4.723,-8.531,6.267,0.8248,4.562,4.681,7.934,3.766,1.962,10.12,0,0,0,0,0,0,0,0,0,0,0,0,0,0,0,0,
167,-3.597,-8.849,4.779,-10.83,-3.817,-1.585,-9.296,-11.64,5.512,-0.9532,0.9595,1.613,4.481,0.7721,-3.154,4.009,0,0,0,0,0,0,0,0,0,0,0,0,0,0,0,0,
168,-10.43,-15.55,-7.306,-19.42,-9.876,-9.388,-11.52,-15.52,1.083,-5.159,-1.315,-5.121,-0.4244,-3.4,-7.395,-2.858,0,0,0,0,0,0,0,0,0,0,0,0,0,0,0,0,
169,-15.29,-15.63,-10.18,-19.96,-13.31,-15.02,-11.66,-17.81,-5.922,-7.606,-1.685,-8.279,-5.255,-5.791,-8.05,-5.067,0,0,0,0,0,0,0,0,0,0,0,0,0,0,0,0,
170,-13.67,-16.21,-7.31,-18.03,-12.62,-15.39,-12.23,-15.79,-9.772,-9.688,-3.571,-3.603,-7.562,-4.846,-7.765,-3.814,0,0,0,0,0,0,0,0,0,0,0,0,0,0,0,0,
171,-12.15,-19.65,-13.28,-15.73,-12.06,-14.87,-11.08,-13.4,-9.124,-11.56,-5.846,0.2246,-7.807,-2.996,-7.783,-2.666,0,0,0,0,0,0,0,0,0,0,0,0,0,0,0,0,
172,-11.65,-17.19,-17.74,-11.4,-12.04,-12.21,-10.69,-9.183,-7.613,-10.89,-4.738,1.427,-6.456,-0.5523,-5.632,-0.3734,0,0,0,0,0,0,0,0,0,0,0,0,0,0,0,0,
173,-7.619,-8.341,-8.675,-7.169,-9.546,-7.15,-9.495,-5.474,-7.026,-6.353,-1.461,4.134,-4.542,1.415,-3.377,2.213,0,0,0,0,0,0,0,0,0,0,0,0,0,0,0,0,
174,-3.148,-2.935,0.604,-4.643,-6.105,-4.569,-6.298,-8.904,-7.676,-2.199,2.223,6.409,-1.381,4.045,0.5123,5.274,0,0,0,0,0,0,0,0,0,0,0,0,0,0,0,0,
175,1.722,0.5576,4.502,1.825,1.37,0.1466,1.941,-7.827,-1.72,4.171,12.28,12.47,8.952,14.57,12.45,14.81,0,0,0,0,0,0,0,0,0,0,0,0,0,0,0,0,
176,9.84,6.981,12.27,10.48,12.6,6.119,15.79,0.5534,14.12,13.55,22.88,18.07,17.94,22.05,19.68,21.33,0,0,0,0,0,0,0,0,0,0,0,0,0,0,0,0,
177,11.45,7.296,14.86,7.244,12.77,2.835,14.93,0.2121,18.52,11.31,16.54,11.2,11.69,12.54,9.953,12.74,0,0,0,0,0,0,0,0,0,0,0,0,0,0,0,0,
178,3.372,1.152,5.835,-3.126,2.774,-3.244,-0.2258,-5.522,5.484,-0.2432,2.601,4.769,3.559,4.392,1.442,4.593,0,0,0,0,0,0,0,0,0,0,0,0,0,0,0,0,
179,-1.852,-1.072,-1.151,-3.747,-1.205,-4.731,-3.179,-6.786,0.2283,-3.007,-0.4532,8.176,4.325,7.882,2.878,6.036,0,0,0,0,0,0,0,0,0,0,0,0,0,0,0,0,
180,-1.817,-2.564,-3.576,-1.586,-2.252,-8.415,-5.523,-7.144,3.252,-0.6006,-2.14,7.577,1.021,6.157,-0.5795,2.563,0,0,0,0,0,0,0,0,0,0,0,0,0,0,0,0,
181,-2.862,-6.225,-6.141,-5.684,-6.789,-11.89,-20.89,-8.447,-3.506,-1.943,-7.758,4.736,-5.979,-0.0178,-6.664,-4.821,0,0,0,0,0,0,0,0,0,0,0,0,0,0,0,0,
182,-4.002,-5.548,-6.901,-7.388,-7.438,-10.06,-22.18,-11.67,-10.64,-3.154,-6.921,5.42,-7.619,-2.248,-6.897,-6.204,0,0,0,0,0,0,0,0,0,0,0,0,0,0,0,0,
183,-2.268,-2.193,-6.614,-6.423,-4.1,-8.516,-7.939,-13.64,-7.674,-5.514,-3.57,1.99,-7.308,-5.629,-5.838,-4.472,0,0,0,0,0,0,0,0,0,0,0,0,0,0,0,0,
184,1.795,0.3332,-2.375,-6.302,-2.415,-7.961,-3.663,-9.94,-3.438,-10.26,-1.612,2.382,-3.245,-3.953,-0.6943,2.267,0,0,0,0,0,0,0,0,0,0,0,0,0,0,0,0,
185,3.91,3.374,3.545,-2.855,-2.007,-4.676,-6.014,-9.381,0.1281,-8.216,3.954,12.3,5.516,8.095,9.075,13.48,0,0,0,0,0,0,0,0,0,0,0,0,0,0,0,0,
186,0.6637,3.069,-0.6086,-2.338,-3.59,-2.06,-4.634,-11.53,3.007,1.528,7.429,15.5,9.422,15.57,13.34,17.09,0,0,0,0,0,0,0,0,0,0,0,0,0,0,0,0,
187,-1.592,0.1415,-5.979,-6.595,-4.098,-1.841,-2.927,-4.477,1.923,6.988,7.617,11.01,11.44,14.89,15.28,15.99,0,0,0,0,0,0,0,0,0,0,0,0,0,0,0,0,
188,4.476,4.099,1.395,-2.31,3.655,1.55,-1.37,1.969,7.342,7.502,12.7,12.42,19.41,18.54,21.06,20.61,0,0,0,0,0,0,0,0,0,0,0,0,0,0,0,0,
189,12.75,11.9,10.05,4.005,12.6,6.309,3.041,-3.78,20.05,11.95,17.54,16.32,25.23,24.36,24.0,24.81,0,0,0,0,0,0,0,0,0,0,0,0,0,0,0,0,
190,14.49,13.27,11.19,-0.3874,12.06,5.249,10.12,-7.66,22.55,14.81,16.45,15.05,24.18,23.5,22.65,23.33,0,0,0,0,0,0,0,0,0,0,0,0,0,0,0,0,
191,12.41,11.32,9.868,-1.801,7.77,2.768,9.824,-1.373,17.94,9.566,13.72,12.29,21.63,20.42,20.74,21.25,0,0,0,0,0,0,0,0,0,0,0,0,0,0,0,0,
192,11.4,10.04,7.906,3.511,6.278,2.954,0.1545,2.245,17.25,5.83,10.02,13.2,18.78,21.9,19.66,21.82,0,0,0,0,0,0,0,0,0,0,0,0,0,0,0,0,
193,11.89,8.101,10.75,2.854,7.133,3.168,0.7839,-0.0337,15.79,10.04,9.591,18.48,20.67,27.85,23.77,26.91,0,0,0,0,0,0,0,0,0,0,0,0,0,0,0,0,
194,14.77,9.657,18.41,3.471,10.96,7.402,8.513,3.151,18.35,17.4,15.96,24.11,29.57,33.8,29.57,32.83,0,0,0,0,0,0,0,0,0,0,0,0,0,0,0,0,
195,17.33,13.41,17.97,8.31,13.26,13.3,2.789,8.546,26.26,21.61,18.31,24.14,31.92,33.7,28.51,31.06,0,0,0,0,0,0,0,0,0,0,0,0,0,0,0,0,
196,14.88,13.17,10.4,5.047,9.43,12.1,-2.061,4.628,24.26,19.67,13.38,18.56,24.63,28.52,24.39,24.9,0,0,0,0,0,0,0,0,0,0,0,0,0,0,0,0,
197,9.488,11.09,5.443,0.2841,2.823,7.868,2.287,-0.2521,15.45,15.14,9.763,13.68,18.65,23.9,21.01,22.39,0,0,0,0,0,0,0,0,0,0,0,0,0,0,0,0,
198,4.945,8.101,1.132,1.2,-3.112,4.014,-3.041,1.076,9.125,10.97,7.923,13.09,13.59,20.17,16.08,21.14,0,0,0,0,0,0,0,0,0,0,0,0,0,0,0,0,
199,3.626,4.243,-2.243,-1.265,-4.751,-0.9791,-9.887,-2.283,2.531,7.057,7.451,13.79,9.723,17.17,13.88,19.18,0,0,0,0,0,0,0,0,0,0,0,0,0,0,0,0,
200,5.663,2.445,-2.386,-4.233,-2.516,-3.568,-6.474,-5.875,3.236,4.945,9.173,13.14,11.76,15.35,15.07,18.74,0,0,0,0,0,0,0,0,0,0,0,0,0,0,0,0,
201,5.25,0.5804,-2.378,-1.484,-4.027,-4.883,-3.874,1.079,9.691,2.315,8.382,12.02,11.25,11.19,11.67,16.27,0,0,0,0,0,0,0,0,0,0,0,0,0,0,0,0,
202,2.152,1.46,0.1442,0.5608,-8.105,-5.266,-0.7681,2.474,5.111,-1.11,4.912,10.01,3.599,5.155,4.314,9.532,0,0,0,0,0,0,0,0,0,0,0,0,0,0,0,0,
203,1.649,6.792,4.1,1.605,-8.992,-1.943,1.0,-7.023,-4.352,-0.9991,1.739,5.935,-1.823,1.709,1.395,5.887,0,0,0,0,0,0,0,0,0,0,0,0,0,0,0,0,
204,2.129,5.938,3.842,4.897,-8.325,-0.6701,-6.412,-6.673,-6.099,-1.098,0.5859,2.111,-1.26,1.127,3.699,8.783,0,0,0,0,0,0,0,0,0,0,0,0,0,0,0,0,
205,4.785,1.875,3.391,5.938,-6.64,-2.883,-9.854,-1.984,-4.507,-3.495,2.469,0.6895,0.4751,1.257,3.588,9.289,0,0,0,0,0,0,0,0,0,0,0,0,0,0,0,0,
206,7.905,2.97,0.4722,2.196,-7.601,-5.665,-10.85,-10.36,-3.594,-5.102,-0.367,-0.1506,-2.207,-0.9177,-2.193,2.951,0,0,0,0,0,0,0,0,0,0,0,0,0,0,0,0,
207,0.3714,-0.5745,-9.371,-4.701,-15.07,-11.46,-19.82,-15.56,-7.89,-9.706,-8.812,-0.8841,-7.976,-5.196,-6.359,-0.9293,0,0,0,0,0,0,0,0,0,0,0,0,0,0,0,0,
208,-6.535,-4.497,-10.53,-8.414,-16.21,-12.83,-17.63,-8.38,-13.92,-13.67,-7.35,-0.0173,-6.584,-4.942,-2.939,2.657,0,0,0,0,0,0,0,0,0,0,0,0,0,0,0,0,
209,3.724,4.253,0.1064,-2.87,-5.655,-5.066,-5.071,-7.917,-6.678,-8.723,2.223,-0.7796,1.628,-0.6196,3.01,6.171,0,0,0,0,0,0,0,0,0,0,0,0,0,0,0,0,
210,12.5,9.864,4.636,2.113,-0.7149,-2.173,-4.575,-13.25,3.077,-4.471,4.566,-4.285,4.801,-0.1143,5.627,6.227,0,0,0,0,0,0,0,0,0,0,0,0,0,0,0,0,
211,9.678,3.683,6.985,-0.4491,-3.854,-5.641,-3.015,-10.35,-1.091,-7.682,5.464,-4.209,3.928,-0.8314,6.637,7.223,0,0,0,0,0,0,0,0,0,0,0,0,0,0,0,0,
212,10.66,2.657,10.58,0.3406,-3.425,-4.81,3.95,-6.468,-2.275,-9.157,9.875,-1.494,4.93,1.403,6.849,7.908,0,0,0,0,0,0,0,0,0,0,0,0,0,0,0,0,
213,9.732,5.583,-0.5117,3.721,-4.967,-5.079,-3.368,-6.686,3.232,-9.246,7.951,-1.405,4.04,1.481,5.202,6.321,0,0,0,0,0,0,0,0,0,0,0,0,0,0,0,0,
214,3.792,4.067,-8.771,2.643,-8.631,-7.097,-6.322,-4.292,-0.5412,-11.14,6.324,1.565,3.941,2.223,6.446,8.3,0,0,0,0,0,0,0,0,0,0,0,0,0,0,0,0,
215,9.646,6.683,6.684,3.737,-3.005,-1.595,5.756,-2.394,-1.2,-5.793,11.55,6.866,8.067,7.328,9.657,11.77,0,0,0,0,0,0,0,0,0,0,0,0,0,0,0,0,
216,16.08,9.617,12.54,2.514,0.2679,1.478,2.128,-5.924,6.292,2.222,8.033,3.262,5.827,5.138,5.556,6.612,0,0,0,0,0,0,0,0,0,0,0,0,0,0,0,0,
217,9.597,5.333,-2.676,-4.458,-7.374,-3.384,-8.934,-9.973,2.277,-2.371,-0.9116,-3.444,-1.741,-4.644,-0.1501,-1.091,0,0,0,0,0,0,0,0,0,0,0,0,0,0,0,0,
218,10.2,6.676,-2.953,-0.8018,-6.977,-0.8771,-1.097,-9.262,-3.981,-10.71,3.671,-1.554,-0.7916,-6.673,2.556,-0.4617,0,0,0,0,0,0,0,0,0,0,0,0,0,0,0,0,
219,18.56,12.81,6.168,7.427,0.9772,4.539,5.101,-5.01,1.372,-9.008,10.27,0.9209,3.009,-2.735,4.034,1.425,0,0,0,0,0,0,0,0,0,0,0,0,0,0,0,0,
220,16.6,10.45,0.0555,4.124,-0.2965,1.198,-3.539,-1.845,2.197,-4.086,6.365,-0.2838,1.237,-0.0467,1.117,0.8133,0,0,0,0,0,0,0,0,0,0,0,0,0,0,0,0,
221,14.15,9.694,-4.315,3.026,-2.422,2.297,-9.768,0.015,-1.919,0.3609,5.051,3.358,2.065,5.383,4.207,4.85,0,0,0,0,0,0,0,0,0,0,0,0,0,0,0,0,
222,18.02,15.11,0.3937,6.915,0.8934,7.918,-9.444,0.6153,1.119,4.902,5.956,6.924,4.47,8.108,6.463,8.135,0,0,0,0,0,0,0,0,0,0,0,0,0,0,0,0,
223,16.46,13.4,-1.375,3.218,0.1214,4.774,-8.623,-3.225,2.777,4.044,1.296,3.862,1.875,3.929,1.573,5.177,0,0,0,0,0,0,0,0,0,0,0,0,0,0,0,0,
224,14.23,10.8,-3.946,3.25,-0.0568,4.977,-9.834,-4.332,2.502,3.545,1.77,2.887,1.256,3.93,1.549,4.44,0,0,0,0,0,0,0,0,0,0,0,0,0,0,0,0,
225,17.7,15.72,0.2179,10.12,5.32,13.69,-10.77,1.976,7.962,6.807,7.643,4.988,4.944,6.95,5.575,5.925,0,0,0,0,0,0,0,0,0,0,0,0,0,0,0,0,
226,18.58,17.43,3.742,7.554,7.382,14.66,-6.324,0.6358,9.854,5.058,7.26,3.895,6.649,5.037,4.509,3.86,0,0,0,0,0,0,0,0,0,0,0,0,0,0,0,0,
227,16.6,14.6,5.124,0.1805,5.133,10.04,-3.36,-8.967,7.062,4.182,3.973,3.964,6.622,5.652,3.804,2.708,0,0,0,0,0,0,0,0,0,0,0,0,0,0,0,0,
228,15.82,13.98,4.631,0.7876,4.523,9.147,-5.516,-5.438,9.112,8.722,2.951,5.765,5.598,9.032,4.955,2.753,0,0,0,0,0,0,0,0,0,0,0,0,0,0,0,0,
229,15.17,14.11,1.774,6.112,6.858,7.838,-1.284,6.426,10.09,6.737,2.585,3.069,2.155,5.671,2.224,-0.9466,0,0,0,0,0,0,0,0,0,0,0,0,0,0,0,0,
230,14.02,12.06,0.5521,7.231,8.657,4.162,2.339,3.113,5.969,0.5243,2.225,-0.7553,-1.605,0.1594,-1.701,-5.143,0,0,0,0,0,0,0,0,0,0,0,0,0,0,0,0,
231,9.123,5.704,-0.8798,0.9606,4.513,-0.1836,-8.957,-7.973,3.187,-1.623,-0.8058,-0.3568,-4.436,-1.131,-3.254,-5.792,0,0,0,0,0,0,0,0,0,0,0,0,0,0,0,0,
232,4.331,0.7283,-2.358,-3.517,-0.4036,-1.915,-16.46,-6.637,0.7906,-3.381,-3.325,2.359,-5.949,-0.6316,-2.543,-3.572,0,0,0,0,0,0,0,0,0,0,0,0,0,0,0,0,
233,6.614,2.259,0.0537,-2.629,0.2213,-1.344,-8.491,-1.443,-1.897,-5.475,-0.2692,3.776,-6.187,-0.397,-2.035,-2.205,0,0,0,0,0,0,0,0,0,0,0,0,0,0,0,0,
234,6.126,-0.1736,-3.514,-6.945,-3.189,-7.167,-8.519,-4.919,-3.895,-10.3,0.1234,1.063,-8.861,-4.028,-6.051,-5.904,0,0,0,0,0,0,0,0,0,0,0,0,0,0,0,0,
235,0.3887,-4.634,-13.59,-10.84,-10.76,-13.55,-18.87,-7.722,-10.14,-17.48,-5.336,-3.474,-13.01,-9.426,-10.27,-9.916,0,0,0,0,0,0,0,0,0,0,0,0,0,0,0,0,
236,2.547,0.4206,-12.48,-6.125,-8.686,-9.699,-20.05,-6.896,-15.14,-15.29,-7.016,-4.387,-12.55,-8.274,-9.117,-9.342,0,0,0,0,0,0,0,0,0,0,0,0,0,0,0,0,
237,7.281,2.395,-6.7,-5.914,-2.705,-7.212,-16.98,-8.033,-11.26,-9.125,-4.583,-3.312,-10.48,-5.545,-7.947,-9.866,0,0,0,0,0,0,0,0,0,0,0,0,0,0,0,0,
238,5.284,-3.039,-11.1,-9.382,-4.864,-10.44,-15.76,-5.166,-9.736,-11.58,-4.128,-3.461,-13.09,-7.775,-9.374,-11.63,0,0,0,0,0,0,0,0,0,0,0,0,0,0,0,0,
239,4.197,-0.7578,-12.88,-7.297,-8.573,-9.403,-12.67,-3.239,-15.53,-12.86,-6.707,-4.276,-16.62,-9.348,-11.26,-10.79,0,0,0,0,0,0,0,0,0,0,0,0,0,0,0,0,
240,4.373,1.709,-9.351,-9.323,-8.316,-9.397,-16.54,-10.24,-16.86,-10.62,-11.18,-6.98,-16.69,-11.23,-14.39,-11.94,0,0,0,0,0,0,0,0,0,0,0,0,0,0,0,0,
241,1.78,-3.594,-14.05,-11.43,-7.913,-11.77,-24.25,-8.488,-14.59,-14.7,-11.99,-7.671,-14.54,-13.74,-13.56,-11.96,0,0,0,0,0,0,0,0,0,0,0,0,0,0,0,0,
242,2.287,-3.448,-17.76,-5.088,-6.471,-8.058,-21.62,0.7893,-14.74,-15.66,-6.616,-0.8035,-10.02,-7.827,-6.393,-4.688,0,0,0,0,0,0,0,0,0,0,0,0,0,0,0,0,
243,4.629,-0.6755,-11.86,-7.855,-2.785,-6.257,-15.19,-5.264,-10.58,-9.805,-3.628,4.366,-6.066,-0.6045,-4.011,-0.6912,0,0,0,0,0,0,0,0,0,0,0,0,0,0,0,0,
244,2.072,-5.206,-11.09,-18.64,-2.385,-10.74,-14.62,-10.08,-4.678,-10.85,-6.892,1.937,-8.321,-2.737,-8.269,-4.335,0,0,0,0,0,0,0,0,0,0,0,0,0,0,0,0,
245,-1.272,-8.373,-19.57,-15.39,-6.627,-11.77,-20.94,1.286,-7.852,-12.91,-10.42,2.068,-13.51,-4.642,-8.435,-4.969,0,0,0,0,0,0,0,0,0,0,0,0,0,0,0,0,
246,-1.434,-7.304,-23.22,-8.227,-9.343,-12.34,-30.76,2.574,-13.88,-9.008,-11.73,3.707,-15.23,-4.377,-5.293,-3.631,0,0,0,0,0,0,0,0,0,0,0,0,0,0,0,0,
247,-2.643,-8.32,-18.77,-14.68,-10.28,-16.09,-30.28,-7.648,-15.18,-13.33,-11.02,-0.2978,-13.92,-8.324,-4.6,-4.733,0,0,0,0,0,0,0,0,0,0,0,0,0,0,0,0,
248,-4.038,-7.76,-16.69,-23.17,-12.83,-13.48,-22.23,-7.785,-16.6,-18.89,-9.462,-1.732,-12.79,-8.084,-4.709,-4.204,0,0,0,0,0,0,0,0,0,0,0,0,0,0,0,0,
249,-3.377,-5.748,-20.86,-22.86,-14.21,-8.014,-24.3,-3.658,-17.54,-10.88,-11.8,0.5379,-14.79,-4.92,-7.26,-6.321,0,0,0,0,0,0,0,0,0,0,0,0,0,0,0,0,
250,-7.152,-10.09,-24.94,-19.59,-14.5,-12.18,-27.25,-3.386,-15.85,-9.055,-16.12,-2.813,-18.98,-9.947,-12.54,-12.93,0,0,0,0,0,0,0,0,0,0,0,0,0,0,0,0,
251,-13.56,-15.28,-24.18,-19.18,-16.24,-19.5,-21.8,-4.308,-16.27,-18.73,-17.62,-8.748,-20.95,-14.7,-14.9,-14.97,0,0,0,0,0,0,0,0,0,0,0,0,0,0,0,0,
252,-12.7,-12.98,-19.67,-21.96,-16.91,-19.86,-24.08,-7.88,-19.64,-17.37,-20.38,-12.43,-22.72,-13.77,-16.67,-14.97,0,0,0,0,0,0,0,0,0,0,0,0,0,0,0,0,
253,-9.334,-10.25,-17.55,-23.58,-17.36,-19.01,-32.47,-10.29,-23.99,-14.29,-24.36,-14.09,-26.72,-16.29,-19.86,-18.02,0,0,0,0,0,0,0,0,0,0,0,0,0,0,0,0,
254,-9.224,-10.3,-20.77,-18.45,-18.07,-19.45,-31.47,-9.639,-25.59,-23.38,-24.51,-11.77,-28.0,-18.82,-18.47,-18.4,0,0,0,0,0,0,0,0,0,0,0,0,0,0,0,0,
255,-6.898,-6.489,-22.3,-10.47,-15.32,-15.11,-26.57,-10.31,-20.54,-24.84,-23.77,-9.042,-25.42,-15.49,-14.4,-16.93,0,0,0,0,0,0,0,0,0,0,0,0,0,0,0,0,
256,-4.062,-1.904,-20.1,-8.636,-11.48,-8.426,-25.3,-9.703,-15.45,-14.15,-20.03,-7.899,-20.01,-9.997,-9.905,-14.42,0,0,0,0,0,0,0,0,0,0,0,0,0,0,0,0,
257,-3.255,-0.3815,-17.9,-8.094,-7.201,-4.367,-22.73,-4.505,-11.97,-7.029,-8.752,-2.937,-10.08,-2.358,-1.422,-5.948,0,0,0,0,0,0,0,0,0,0,0,0,0,0,0,0,
258,-0.4488,3.063,-12.42,-0.3107,-1.508,-1.54,-16.22,2.439,-3.416,-2.637,-2.405,1.514,-3.914,3.45,2.05,-0.8078,0,0,0,0,0,0,0,0,0,0,0,0,0,0,0,0,
259,-0.3585,5.699,-8.992,2.453,-2.318,-2.055,-12.5,1.114,0.0464,0.1195,-8.517,-1.17,-9.407,0.0366,-5.534,-6.333,0,0,0,0,0,0,0,0,0,0,0,0,0,0,0,0,
260,-4.717,2.039,-15.66,-9.761,-7.329,-7.812,-16.65,-13.93,-7.027,-5.571,-13.58,-4.185,-15.45,-5.791,-9.887,-9.345,0,0,0,0,0,0,0,0,0,0,0,0,0,0,0,0,
261,-2.864,-2.89,-18.31,-19.03,-4.914,-12.61,-18.36,-24.44,-8.192,-13.32,-10.67,-2.628,-12.41,-5.838,-5.333,-4.8,0,0,0,0,0,0,0,0,0,0,0,0,0,0,0,0,
262,3.171,-4.536,-9.971,-13.8,-1.325,-13.39,-13.94,-19.08,-3.408,-12.75,-8.041,-1.173,-8.473,-4.77,-2.246,-3.4,0,0,0,0,0,0,0,0,0,0,0,0,0,0,0,0,
263,0.529,-3.838,-7.074,-8.484,-5.205,-13.52,-17.18,-13.93,-5.582,-8.929,-9.912,-2.316,-10.47,-7.237,-4.221,-7.259,0,0,0,0,0,0,0,0,0,0,0,0,0,0,0,0,
264,-7.224,-3.881,-13.3,-11.58,-10.32,-15.13,-23.43,-14.69,-11.65,-12.4,-13.56,-5.943,-15.84,-12.05,-9.924,-12.38,0,0,0,0,0,0,0,0,0,0,0,0,0,0,0,0,
265,-9.08,-7.664,-18.37,-16.19,-13.76,-18.76,-20.93,-16.59,-18.22,-20.41,-17.16,-11.27,-22.1,-16.92,-16.67,-17.97,0,0,0,0,0,0,0,0,0,0,0,0,0,0,0,0,
266,-6.864,-9.872,-17.55,-17.17,-16.02,-21.74,-18.62,-19.63,-23.49,-22.33,-18.09,-12.7,-24.15,-17.73,-16.66,-19.22,0,0,0,0,0,0,0,0,0,0,0,0,0,0,0,0,
267,-6.147,-7.501,-12.18,-16.31,-15.41,-22.43,-19.1,-16.48,-20.98,-19.25,-15.16,-8.741,-19.61,-13.96,-12.71,-15.44,0,0,0,0,0,0,0,0,0,0,0,0,0,0,0,0,
268,-8.901,-9.694,-12.59,-18.9,-17.9,-26.24,-20.59,-13.22,-19.07,-20.87,-15.99,-8.114,-20.03,-13.46,-16.34,-16.42,0,0,0,0,0,0,0,0,0,0,0,0,0,0,0,0,
269,-15.33,-15.09,-20.74,-23.46,-24.68,-31.81,-28.41,-21.53,-26.11,-26.0,-23.06,-12.17,-28.32,-17.98,-21.8,-21.16,0,0,0,0,0,0,0,0,0,0,0,0,0,0,0,0,
270,-18.45,-14.1,-21.42,-25.1,-25.24,-31.94,-32.77,-25.7,-29.46,-26.14,-24.58,-13.6,-28.8,-19.85,-18.48,-20.53,0,0,0,0,0,0,0,0,0,0,0,0,0,0,0,0,
271,-15.78,-13.36,-16.02,-28.12,-21.49,-31.42,-27.22,-22.94,-25.4,-24.7,-19.25,-15.95,-21.73,-20.38,-14.61,-20.06,0,0,0,0,0,0,0,0,0,0,0,0,0,0,0,0,
272,-16.19,-17.03,-17.95,-30.62,-22.91,-33.21,-22.16,-28.68,-25.96,-28.13,-17.56,-21.31,-19.72,-23.39,-15.69,-23.52,0,0,0,0,0,0,0,0,0,0,0,0,0,0,0,0,
273,-17.07,-15.73,-19.88,-25.48,-24.24,-31.09,-20.11,-32.49,-28.81,-29.47,-18.29,-20.37,-18.36,-22.92,-15.11,-22.6,0,0,0,0,0,0,0,0,0,0,0,0,0,0,0,0,
274,-11.33,-11.0,-14.3,-23.41,-20.22,-29.0,-19.97,-30.03,-25.49,-26.3,-18.64,-16.04,-14.98,-19.83,-14.7,-19.38,0,0,0,0,0,0,0,0,0,0,0,0,0,0,0,0,
275,-6.794,-8.303,-9.934,-27.0,-15.74,-29.29,-18.7,-30.69,-20.86,-26.25,-20.39,-15.29,-15.24,-18.57,-15.82,-17.48,0,0,0,0,0,0,0,0,0,0,0,0,0,0,0,0,
276,-5.23,-4.467,-8.319,-21.41,-11.76,-24.37,-12.27,-24.17,-18.92,-25.08,-18.2,-11.18,-13.3,-13.87,-11.58,-11.87,0,0,0,0,0,0,0,0,0,0,0,0,0,0,0,0,
277,-2.243,-3.251,-6.221,-15.58,-9.625,-19.9,-12.94,-16.65,-17.4,-19.47,-13.53,-6.303,-8.501,-9.052,-5.979,-7.919,0,0,0,0,0,0,0,0,0,0,0,0,0,0,0,0,
278,-4.226,-7.185,-7.744,-20.84,-12.48,-23.27,-21.44,-24.04,-17.35,-19.1,-13.71,-8.974,-8.564,-11.1,-5.482,-10.61,0,0,0,0,0,0,0,0,0,0,0,0,0,0,0,0,
279,-6.809,-6.017,-8.949,-20.58,-12.75,-23.49,-19.18,-27.17,-16.63,-20.28,-12.9,-10.14,-8.63,-11.51,-5.147,-11.79,0,0,0,0,0,0,0,0,0,0,0,0,0,0,0,0,
280,-0.0253,1.342,-2.652,-13.88,-6.196,-15.34,-12.84,-20.95,-10.92,-14.08,-9.092,-6.835,-6.194,-8.506,-5.205,-10.76,0,0,0,0,0,0,0,0,0,0,0,0,0,0,0,0,
281,5.205,4.676,1.887,-14.86,-2.019,-8.835,-15.45,-25.71,-6.395,-9.869,-10.76,-8.412,-6.923,-10.02,-10.05,-12.2,0,0,0,0,0,0,0,0,0,0,0,0,0,0,0,0,
282,4.332,5.471,0.026,-15.76,-1.421,-6.706,-16.03,-29.63,-6.944,-10.55,-15.62,-10.82,-8.031,-11.68,-15.22,-13.89,0,0,0,0,0,0,0,0,0,0,0,0,0,0,0,0,
283,8.784,10.33,1.864,-11.63,1.635,-4.541,-14.3,-19.69,-4.852,-8.805,-17.66,-8.74,-7.348,-10.83,-16.95,-15.28,0,0,0,0,0,0,0,0,0,0,0,0,0,0,0,0,
284,14.16,14.72,2.949,-8.34,4.188,-2.098,-16.62,-13.18,-0.5971,-8.906,-16.99,-6.681,-5.636,-10.28,-15.65,-14.78,0,0,0,0,0,0,0,0,0,0,0,0,0,0,0,0,
285,13.22,14.89,-2.396,-3.487,3.931,0.1837,-13.21,-12.53,-1.299,-9.039,-13.91,-4.415,-2.135,-6.951,-13.22,-10.96,0,0,0,0,0,0,0,0,0,0,0,0,0,0,0,0,
286,11.4,12.98,-1.858,-3.595,2.22,-1.634,-9.345,-11.11,-4.633,-4.695,-13.64,-2.761,-4.479,-6.505,-14.95,-10.81,0,0,0,0,0,0,0,0,0,0,0,0,0,0,0,0,
287,8.341,8.031,1.568,-12.14,-1.609,-10.25,-14.07,-16.28,-7.458,-8.127,-16.2,-3.301,-11.19,-11.2,-16.15,-11.77,0,0,0,0,0,0,0,0,0,0,0,0,0,0,0,0,
288,6.954,5.576,-0.4957,-11.96,-1.973,-12.7,-10.83,-18.11,-7.439,-14.67,-10.5,0.3057,-6.997,-6.854,-7.714,-4.776,0,0,0,0,0,0,0,0,0,0,0,0,0,0,0,0,
289,11.42,10.76,2.555,-6.043,1.067,-6.502,-3.187,-7.665,-3.665,-8.829,-3.429,3.394,-0.8324,0.0149,-1.826,-1.092,0,0,0,0,0,0,0,0,0,0,0,0,0,0,0,0,
290,7.387,9.717,3.499,-11.03,-4.716,-11.13,-13.26,-7.448,-7.956,-7.542,-10.48,-3.224,-9.131,-6.34,-7.826,-8.054,0,0,0,0,0,0,0,0,0,0,0,0,0,0,0,0,
291,-3.866,0.6014,-7.64,-14.87,-13.15,-20.13,-24.89,-18.66,-20.04,-17.63,-17.88,-6.567,-14.9,-9.697,-8.355,-8.406,0,0,0,0,0,0,0,0,0,0,0,0,0,0,0,0,
292,-0.6435,1.314,-10.29,-8.524,-8.678,-13.76,-18.75,-15.93,-18.85,-14.96,-9.974,1.857,-4.977,-0.5251,0.8362,0.5281,0,0,0,0,0,0,0,0,0,0,0,0,0,0,0,0,
293,8.339,5.726,-2.76,-5.399,-0.7576,-7.568,-10.47,-6.581,-6.232,-5.241,-0.7516,6.261,3.09,3.016,2.901,3.0,0,0,0,0,0,0,0,0,0,0,0,0,0,0,0,0,
294,6.692,2.182,-1.049,-7.856,-0.2706,-12.03,-8.624,-6.322,-0.797,-7.759,-1.061,1.868,2.025,0.0594,-0.8209,0.9136,0,0,0,0,0,0,0,0,0,0,0,0,0,0,0,0,
295,5.398,2.487,2.196,-10.31,-1.382,-12.59,-8.172,-4.915,-1.482,-10.21,-2.581,-0.2849,1.628,0.6119,-0.6164,1.368,0,0,0,0,0,0,0,0,0,0,0,0,0,0,0,0,
296,5.915,5.832,3.473,-12.3,-3.999,-12.43,-12.76,-2.775,-3.867,-8.621,-3.253,-1.639,0.5834,-1.747,-1.865,-1.743,0,0,0,0,0,0,0,0,0,0,0,0,0,0,0,0,
297,0.7081,2.963,-7.21,-12.1,-8.185,-14.38,-20.01,-9.412,-8.143,-14.26,-7.771,-7.134,-5.088,-7.503,-7.665,-7.984,0,0,0,0,0,0,0,0,0,0,0,0,0,0,0,0,
298,0.241,4.347,-11.36,-9.274,-5.814,-5.113,-18.69,-15.64,-7.799,-15.4,-11.52,-9.955,-8.814,-7.349,-10.93,-8.606,0,0,0,0,0,0,0,0,0,0,0,0,0,0,0,0,
299,7.309,12.19,-3.351,-3.372,0.6775,6.582,-11.36,-14.66,-3.889,-4.755,-8.759,-7.215,-6.88,-3.921,-8.499,-4.546,0,0,0,0,0,0,0,0,0,0,0,0,0,0,0,0,
300,10.57,13.98,0.7369,1.264,2.253,3.387,-10.66,-11.96,-2.693,0.5249,-2.82,-4.929,-2.892,-3.132,-4.538,-2.758,0,0,0,0,0,0,0,0,0,0,0,0,0,0,0,0,
301,9.408,9.158,1.453,-4.695,-0.1664,-6.052,-12.49,-8.49,-1.25,-2.063,1.028,-4.646,-0.2222,-3.637,-3.803,-5.034,0,0,0,0,0,0,0,0,0,0,0,0,0,0,0,0,
302,7.07,3.489,0.7721,-12.71,-3.244,-8.549,-9.1,-7.168,-0.8191,-2.741,-0.9761,-5.918,-2.611,-6.59,-6.665,-9.405,0,0,0,0,0,0,0,0,0,0,0,0,0,0,0,0,
303,3.606,1.301,-5.007,-7.712,-6.879,-5.008,-11.92,-11.75,-7.81,-7.252,-6.868,-8.402,-7.325,-10.25,-8.054,-11.09,0,0,0,0,0,0,0,0,0,0,0,0,0,0,0,0,
304,6.626,8.213,-4.905,3.891,-5.086,2.288,-16.73,-12.4,-13.06,-12.76,-4.827,-6.111,-3.143,-5.562,-2.973,-5.296,0,0,0,0,0,0,0,0,0,0,0,0,0,0,0,0,
305,18.99,19.42,5.463,9.738,6.037,11.46,-6.33,-5.522,-4.133,-4.011,4.853,-0.9964,5.531,2.627,2.862,1.18,0,0,0,0,0,0,0,0,0,0,0,0,0,0,0,0,
306,26.33,23.11,11.5,9.053,14.15,15.74,1.219,-1.641,7.507,7.868,6.486,-2.582,3.974,1.613,0.8547,-0.6901,0,0,0,0,0,0,0,0,0,0,0,0,0,0,0,0,
307,21.94,21.4,10.82,7.711,11.04,14.09,-7.516,1.301,7.034,5.813,2.108,-5.871,-0.5254,-1.791,-2.427,-3.55,0,0,0,0,0,0,0,0,0,0,0,0,0,0,0,0,
308,18.54,23.02,14.71,9.886,7.73,12.8,-10.49,5.039,3.949,3.264,2.231,-4.414,2.194,0.0314,-0.4045,-1.754,0,0,0,0,0,0,0,0,0,0,0,0,0,0,0,0,
309,20.02,22.88,18.83,9.686,7.343,10.55,-7.083,0.156,5.443,7.579,0.1004,-4.62,1.993,-1.468,-2.052,-3.946,0,0,0,0,0,0,0,0,0,0,0,0,0,0,0,0,
310,18.02,16.21,12.66,2.059,2.135,4.138,-13.68,-6.082,0.5132,3.204,-6.318,-7.696,-4.245,-7.523,-9.523,-10.15,0,0,0,0,0,0,0,0,0,0,0,0,0,0,0,0,
311,15.81,14.67,6.602,-2.941,-0.802,1.291,-19.76,-7.112,-7.71,-7.109,-7.107,-10.46,-6.529,-10.95,-12.33,-11.89,0,0,0,0,0,0,0,0,0,0,0,0,0,0,0,0,
312,19.0,22.37,11.64,1.499,4.751,5.776,-15.01,-10.75,-4.443,-6.679,-3.633,-13.04,-4.843,-11.19,-10.41,-11.08,0,0,0,0,0,0,0,0,0,0,0,0,0,0,0,0,
313,19.79,24.51,14.53,4.044,6.93,7.876,-12.4,-11.32,2.627,-1.182,-4.44,-13.77,-6.147,-10.95,-12.78,-13.49,0,0,0,0,0,0,0,0,0,0,0,0,0,0,0,0,
314,15.59,17.8,8.693,-1.827,3.018,2.164,-15.81,-6.257,1.368,-3.054,-7.831,-14.33,-9.035,-11.79,-17.2,-16.39,0,0,0,0,0,0,0,0,0,0,0,0,0,0,0,0,
315,14.74,13.92,9.591,-6.244,2.57,-4.798,-11.67,-4.351,0.623,-6.269,-6.988,-15.84,-7.935,-11.68,-15.78,-14.89,0,0,0,0,0,0,0,0,0,0,0,0,0,0,0,0,
316,13.57,11.26,15.12,-7.702,1.214,-9.415,-6.372,-4.691,1.673,-5.887,-5.315,-15.69,-7.322,-11.42,-13.82,-13.73,0,0,0,0,0,0,0,0,0,0,0,0,0,0,0,0,
317,5.332,4.716,10.52,-13.06,-5.524,-14.05,-14.05,-10.2,-6.261,-8.473,-6.611,-17.09,-10.73,-15.81,-15.3,-17.21,0,0,0,0,0,0,0,0,0,0,0,0,0,0,0,0,
318,3.083,4.029,6.198,-15.67,-5.966,-14.79,-17.67,-16.43,-12.83,-11.3,-2.81,-19.76,-7.816,-18.35,-10.68,-17.03,0,0,0,0,0,0,0,0,0,0,0,0,0,0,0,0,
319,12.88,11.78,10.23,-9.897,1.222,-8.083,-11.53,-8.78,-5.851,-7.187,2.987,-17.83,0.3722,-12.88,-3.246,-11.47,0,0,0,0,0,0,0,0,0,0,0,0,0,0,0,0,
320,17.46,16.58,9.632,-4.566,3.027,-3.059,-16.08,-2.982,1.494,-1.616,-0.8413,-14.18,0.3214,-8.317,-4.559,-9.27,0,0,0,0,0,0,0,0,0,0,0,0,0,0,0,0,
321,11.19,12.56,6.166,-7.264,-2.385,-8.795,-21.7,-14.4,-0.6228,-1.947,-5.964,-13.64,-3.5,-8.106,-7.181,-8.419,0,0,0,0,0,0,0,0,0,0,0,0,0,0,0,0,
322,4.134,2.328,7.907,-16.47,-8.234,-20.05,-14.55,-22.9,-6.193,-7.662,-4.819,-14.12,-3.046,-6.929,-4.29,-4.481,0,0,0,0,0,0,0,0,0,0,0,0,0,0,0,0,
323,1.04,-4.981,7.48,-22.21,-10.42,-25.4,-10.55,-16.8,-9.962,-11.91,-4.074,-11.84,-3.329,-4.407,-1.695,-0.5091,0,0,0,0,0,0,0,0,0,0,0,0,0,0,0,0,
324,4.779,-1.579,5.592,-17.81,-7.146,-21.53,-12.36,-6.618,-9.365,-9.648,-1.012,-6.106,-2.736,-0.0428,2.602,4.856,0,0,0,0,0,0,0,0,0,0,0,0,0,0,0,0,
325,13.76,9.069,11.1,-8.514,0.7176,-11.68,-8.114,-3.386,-4.677,-4.221,9.949,0.8232,6.363,8.652,13.88,14.14,0,0,0,0,0,0,0,0,0,0,0,0,0,0,0,0,
326,22.45,22.25,19.69,0.5309,11.9,1.675,2.225,-8.073,4.499,8.033,21.64,6.22,18.92,17.81,23.56,20.51,0,0,0,0,0,0,0,0,0,0,0,0,0,0,0,0,
327,29.26,30.09,20.1,3.015,18.83,9.308,5.274,-6.755,15.28,25.44,20.13,2.325,18.3,14.53,16.16,12.89,0,0,0,0,0,0,0,0,0,0,0,0,0,0,0,0,
328,27.47,23.16,10.81,-2.834,12.34,1.833,-11.1,2.018,13.7,20.68,3.283,-12.78,2.088,-3.224,-3.943,-5.174,0,0,0,0,0,0,0,0,0,0,0,0,0,0,0,0,
329,16.25,12.62,4.405,-4.958,2.522,-10.5,-25.59,-0.3354,1.548,-5.143,-9.368,-21.78,-9.119,-13.83,-14.41,-14.67,0,0,0,0,0,0,0,0,0,0,0,0,0,0,0,0,
330,9.94,10.65,7.536,-5.015,1.359,-15.06,-17.25,-11.41,-2.853,-13.72,-9.167,-18.39,-7.844,-9.349,-14.19,-13.25,0,0,0,0,0,0,0,0,0,0,0,0,0,0,0,0,
331,10.46,9.006,9.894,-10.65,1.945,-15.27,-10.11,-12.48,-1.713,-5.86,-9.16,-17.06,-6.889,-7.484,-17.04,-15.25,0,0,0,0,0,0,0,0,0,0,0,0,0,0,0,0,
332,9.919,5.779,8.377,-11.58,0.831,-14.17,-15.01,-7.659,-2.974,-5.164,-9.39,-19.72,-7.618,-11.51,-19.02,-20.3,0,0,0,0,0,0,0,0,0,0,0,0,0,0,0,0,
333,12.11,7.606,10.73,-9.534,2.212,-12.19,-13.83,-9.903,-1.973,-5.714,-6.019,-20.77,-6.702,-13.04,-16.34,-21.07,0,0,0,0,0,0,0,0,0,0,0,0,0,0,0,0,
334,17.02,12.78,15.65,-10.91,4.654,-12.73,-9.734,-12.53,-0.6683,-3.286,-5.234,-19.56,-6.56,-11.61,-14.52,-18.06,0,0,0,0,0,0,0,0,0,0,0,0,0,0,0,0,
335,16.89,17.43,16.99,-8.018,6.312,-13.0,-10.52,-9.332,-1.408,-1.884,-4.953,-13.38,-5.611,-6.371,-13.74,-14.47,0,0,0,0,0,0,0,0,0,0,0,0,0,0,0,0,
336,12.78,17.48,12.86,-8.082,3.7,-11.3,-12.59,-8.494,-3.776,2.172,-6.158,-9.827,-6.577,-4.0,-15.62,-15.71,0,0,0,0,0,0,0,0,0,0,0,0,0,0,0,0,
337,9.815,13.72,6.626,-12.8,-2.703,-11.88,-13.68,-9.287,-11.13,2.089,-11.9,-15.32,-11.66,-11.17,-19.55,-19.79,0,0,0,0,0,0,0,0,0,0,0,0,0,0,0,0,
338,9.231,13.0,6.255,-8.763,-2.227,-13.1,-9.014,-6.158,-14.21,-2.987,-11.32,-16.93,-12.91,-14.17,-19.49,-18.16,0,0,0,0,0,0,0,0,0,0,0,0,0,0,0,0,
339,10.81,13.85,10.23,-7.067,3.849,-12.55,-5.851,-3.861,-6.11,0.718,-5.757,-10.41,-8.994,-6.176,-17.72,-13.94,0,0,0,0,0,0,0,0,0,0,0,0,0,0,0,0,
340,12.29,13.47,9.098,-11.65,4.133,-12.08,-11.31,-3.185,-0.459,7.346,-7.904,-6.683,-6.718,-0.7851,-17.27,-13.22,0,0,0,0,0,0,0,0,0,0,0,0,0,0,0,0,
341,11.71,15.26,8.983,-7.511,2.322,-9.736,-9.473,-3.511,-1.637,5.173,-11.52,-8.169,-7.434,-2.224,-15.71,-13.48,0,0,0,0,0,0,0,0,0,0,0,0,0,0,0,0,
342,12.19,17.53,17.9,-6.672,4.684,-7.36,-2.598,-7.435,-1.493,2.664,-8.331,-11.54,-7.311,-4.182,-13.41,-12.49,0,0,0,0,0,0,0,0,0,0,0,0,0,0,0,0,
343,15.72,17.39,23.52,-14.7,6.235,-11.2,-7.803,-11.47,-1.118,3.511,-5.174,-14.03,-4.569,-6.361,-11.31,-10.23,0,0,0,0,0,0,0,0,0,0,0,0,0,0,0,0,
344,18.26,16.43,22.3,-13.84,6.113,-15.34,-8.328,-16.76,-1.972,1.083,-6.248,-13.77,-4.556,-8.366,-10.79,-8.304,0,0,0,0,0,0,0,0,0,0,0,0,0,0,0,0,
345,18.24,15.91,25.9,-10.21,7.248,-12.92,5.168,-21.73,-2.172,-0.395,-7.733,-12.31,-8.841,-6.347,-12.29,-7.764,0,0,0,0,0,0,0,0,0,0,0,0,0,0,0,0,
346,17.66,17.06,28.79,-10.15,6.992,-10.68,6.955,-15.56,-2.84,3.964,-6.947,-8.15,-8.946,-0.9973,-10.73,-4.855,0,0,0,0,0,0,0,0,0,0,0,0,0,0,0,0,
347,17.15,20.42,25.69,-1.564,5.596,-10.35,-3.017,-5.486,-3.156,6.962,-4.53,-1.866,-4.043,2.122,-6.398,-0.7964,0,0,0,0,0,0,0,0,0,0,0,0,0,0,0,0,
348,19.95,24.78,25.85,6.379,5.87,-7.633,-2.959,-4.515,-3.179,4.283,-2.953,-2.881,-2.393,-1.263,-6.98,-3.463,0,0,0,0,0,0,0,0,0,0,0,0,0,0,0,0,
349,26.39,28.2,27.39,3.823,6.351,-6.945,-0.2851,-9.197,-4.53,0.2119,-3.801,-11.35,-5.308,-8.947,-11.48,-11.26,0,0,0,0,0,0,0,0,0,0,0,0,0,0,0,0,
350,33.6,32.79,32.44,7.246,10.51,-6.942,-0.9599,-13.96,-3.58,-2.357,-2.805,-14.25,-6.546,-12.18,-10.45,-13.39,0,0,0,0,0,0,0,0,0,0,0,0,0,0,0,0,
351,47.86,47.51,49.94,21.02,22.44,1.711,10.53,-11.07,2.772,-0.9646,5.01,-8.413,-0.6876,-5.862,-2.321,-6.769,0,0,0,0,0,0,0,0,0,0,0,0,0,0,0,0,
352,68.09,69.09,63.93,31.72,34.02,15.35,23.26,-2.289,11.86,6.631,12.47,-3.712,8.264,2.737,3.875,-0.0749,0,0,0,0,0,0,0,0,0,0,0,0,0,0,0,0,
353,83.39,83.56,68.42,41.25,41.6,25.75,18.76,-2.226,19.55,15.12,11.76,-4.167,11.18,4.301,3.54,0.0044,0,0,0,0,0,0,0,0,0,0,0,0,0,0,0,0,
354,104.4,100.7,87.23,58.5,53.75,37.33,18.03,0.1869,23.98,19.85,11.11,-3.493,10.68,2.347,2.798,-1.918,0,0,0,0,0,0,0,0,0,0,0,0,0,0,0,0,
355,137.6,132.2,115.9,79.09,71.38,55.23,31.03,15.8,28.64,25.47,15.6,0.999,14.93,5.668,5.315,-0.3887,0,0,0,0,0,0,0,0,0,0,0,0,0,0,0,0,
356,157.0,154.4,128.4,96.93,88.19,72.23,37.33,21.88,37.99,33.88,17.88,4.891,20.66,11.97,7.328,1.824,0,0,0,0,0,0,0,0,0,0,0,0,0,0,0,0,
357,155.4,154.4,128.6,112.6,100.0,80.84,41.27,19.41,48.28,39.95,19.06,7.983,22.96,15.51,8.745,3.982,0,0,0,0,0,0,0,0,0,0,0,0,0,0,0,0,
358,154.3,152.4,129.1,124.7,104.1,87.1,48.86,27.88,52.49,42.76,23.53,12.67,26.08,20.67,13.73,10.29,0,0,0,0,0,0,0,0,0,0,0,0,0,0,0,0,
359,155.6,154.1,128.8,130.7,106.7,97.7,48.59,32.34,52.93,47.25,27.78,16.97,32.71,29.94,21.3,17.6,0,0,0,0,0,0,0,0,0,0,0,0,0,0,0,0,
360,153.5,152.7,130.1,133.2,113.5,107.6,54.22,29.62,57.9,57.08,33.05,20.53,38.71,36.2,26.86,20.41,0,0,0,0,0,0,0,0,0,0,0,0,0,0,0,0,
361,154.1,152.6,131.2,132.6,115.5,112.1,65.77,38.74,65.55,67.26,38.23,23.14,40.68,38.09,28.36,22.73,0,0,0,0,0,0,0,0,0,0,0,0,0,0,0,0,
362,155.0,153.3,128.2,129.4,110.5,112.4,57.51,45.79,66.32,67.74,34.64,21.6,38.75,39.87,25.9,26.46,0,0,0,0,0,0,0,0,0,0,0,0,0,0,0,0,
363,154.5,152.7,130.0,127.5,110.7,109.5,50.6,39.73,62.86,61.73,28.68,18.55,36.37,40.85,22.15,25.53,0,0,0,0,0,0,0,0,0,0,0,0,0,0,0,0,
364,155.7,153.3,130.7,124.5,112.6,104.7,63.49,38.64,64.57,61.69,30.99,17.47,36.96,40.12,20.1,20.69,0,0,0,0,0,0,0,0,0,0,0,0,0,0,0,0,
365,149.8,147.0,114.7,115.3,102.7,99.11,61.84,42.31,66.63,64.44,31.26,15.28,35.8,36.87,16.73,16.15,0,0,0,0,0,0,0,0,0,0,0,0,0,0,0,0,
366,132.1,131.0,97.98,104.8,86.04,91.57,45.43,41.39,59.71,59.17,23.53,12.56,29.19,29.69,10.76,10.44,0,0,0,0,0,0,0,0,0,0,0,0,0,0,0,0,
367,114.9,115.6,95.95,96.79,74.85,81.78,42.46,37.17,48.76,50.96,20.88,13.1,26.26,25.06,10.13,7.51,0,0,0,0,0,0,0,0,0,0,0,0,0,0,0,0,
368,102.4,100.9,90.87,86.19,68.26,70.37,41.94,26.8,43.39,47.72,23.87,12.63,27.9,24.25,13.27,9.016,0,0,0,0,0,0,0,0,0,0,0,0,0,0,0,0,
369,88.89,84.2,76.53,72.37,59.89,59.04,35.06,17.05,40.31,41.67,19.23,3.326,20.11,14.28,6.514,3.038,0,0,0,0,0,0,0,0,0,0,0,0,0,0,0,0,
370,75.77,71.72,66.34,60.83,50.45,50.85,31.39,14.66,31.38,28.07,9.869,-9.073,6.965,-1.341,-5.048,-7.583,0,0,0,0,0,0,0,0,0,0,0,0,0,0,0,0,
371,66.23,63.98,59.97,55.6,45.05,47.78,27.36,10.44,23.2,20.33,7.985,-8.473,5.731,-1.737,-4.277,-5.359,0,0,0,0,0,0,0,0,0,0,0,0,0,0,0,0,
372,57.81,57.54,51.77,56.17,42.05,47.32,23.83,8.898,24.27,25.38,11.49,1.628,11.99,9.545,3.215,2.449,0,0,0,0,0,0,0,0,0,0,0,0,0,0,0,0,
373,48.19,49.74,44.49,53.55,36.0,44.48,27.05,15.97,26.16,31.47,12.47,2.625,13.97,13.08,5.132,1.053,0,0,0,0,0,0,0,0,0,0,0,0,0,0,0,0,
374,38.8,38.61,40.4,41.84,29.99,38.01,28.89,16.33,24.49,30.87,10.36,-4.144,14.17,8.242,4.549,-2.907,0,0,0,0,0,0,0,0,0,0,0,0,0,0,0,0,
375,30.49,27.83,37.07,29.18,26.8,27.77,23.03,6.64,24.97,24.58,6.345,-8.819,11.86,0.3994,0.3108,-7.049,0,0,0,0,0,0,0,0,0,0,0,0,0,0,0,0,
376,19.43,17.25,30.45,21.4,20.25,14.28,18.37,-1.494,20.87,12.54,1.895,-11.95,3.656,-8.068,-9.315,-13.63,0,0,0,0,0,0,0,0,0,0,0,0,0,0,0,0,
377,7.107,5.882,22.22,16.83,12.28,8.168,21.89,-4.157,10.45,2.723,0.3999,-10.38,-1.702,-7.243,-13.01,-13.17,0,0,0,0,0,0,0,0,0,0,0,0,0,0,0,0,
378,3.908,3.062,19.42,16.42,12.78,14.61,22.52,-1.55,9.314,6.487,-0.9976,-6.479,-1.483,0.6024,-12.11,-9.796,0,0,0,0,0,0,0,0,0,0,0,0,0,0,0,0,
379,4.48,4.392,19.4,14.34,15.05,16.05,11.38,0.2571,13.64,14.82,-8.641,-11.55,-6.433,-1.94,-18.98,-15.76,0,0,0,0,0,0,0,0,0,0,0,0,0,0,0,0,
380,-7.949,-7.076,10.82,3.12,6.2,3.451,3.913,-3.476,5.072,9.228,-15.68,-18.28,-14.12,-12.21,-24.11,-19.92,0,0,0,0,0,0,0,0,0,0,0,0,0,0,0,0,
381,-23.2,-22.44,-3.146,-6.126,-4.39,-6.796,10.56,-4.373,-6.284,-3.726,-8.961,-14.23,-10.83,-13.15,-14.81,-12.62,0,0,0,0,0,0,0,0,0,0,0,0,0,0,0,0,
382,-24.86,-26.48,-8.087,-5.247,-4.993,-9.514,15.9,-1.12,-2.857,-5.34,3.212,-9.308,-1.81,-8.424,-4.794,-7.484,0,0,0,0,0,0,0,0,0,0,0,0,0,0,0,0,
383,-27.05,-29.54,-6.518,-7.093,-5.589,-14.67,12.14,-4.126,2.984,-2.216,3.931,-13.14,-0.3182,-10.1,-6.599,-11.39,0,0,0,0,0,0,0,0,0,0,0,0,0,0,0,0,
384,-36.57,-36.78,-8.75,-14.81,-9.9,-17.62,11.33,-10.79,0.716,-5.769,1.475,-17.45,-1.015,-13.1,-10.41,-15.14,0,0,0,0,0,0,0,0,0,0,0,0,0,0,0,0,
385,-38.73,-40.03,-11.86,-18.42,-8.774,-15.04,13.37,-12.03,1.552,-7.068,5.422,-17.54,-0.0569,-12.91,-9.668,-15.36,0,0,0,0,0,0,0,0,0,0,0,0,0,0,0,0,
386,-38.91,-45.04,-14.35,-20.99,-8.805,-18.7,6.048,-13.09,2.906,-7.068,3.336,-18.46,-6.045,-15.69,-9.976,-14.67,0,0,0,0,0,0,0,0,0,0,0,0,0,0,0,0,
387,-46.9,-54.34,-19.92,-25.59,-16.61,-26.69,-3.93,-17.47,-5.983,-14.02,-5.993,-19.26,-15.07,-18.69,-12.23,-13.03,0,0,0,0,0,0,0,0,0,0,0,0,0,0,0,0,
388,-53.0,-57.12,-27.34,-25.81,-22.97,-29.31,-5.404,-18.23,-15.59,-18.44,-10.23,-17.21,-18.17,-17.45,-13.28,-11.77,0,0,0,0,0,0,0,0,0,0,0,0,0,0,0,0,
389,-55.03,-55.47,-34.01,-24.27,-24.89,-30.05,-5.201,-18.53,-17.59,-19.17,-8.689,-15.39,-15.95,-16.51,-9.58,-9.574,0,0,0,0,0,0,0,0,0,0,0,0,0,0,0,0,
390,-54.34,-54.42,-32.88,-24.51,-22.15,-27.07,-1.788,-20.41,-13.83,-21.05,-2.273,-12.24,-6.771,-12.79,1.179,-2.083,0,0,0,0,0,0,0,0,0,0,0,0,0,0,0,0,
391,-46.76,-49.37,-23.2,-23.49,-14.67,-18.91,7.484,-13.91,-4.257,-14.18,4.803,-7.173,2.986,-5.821,8.871,3.691,0,0,0,0,0,0,0,0,0,0,0,0,0,0,0,0,
392,-43.39,-47.35,-19.3,-26.07,-13.27,-19.4,5.735,-7.707,1.004,-6.668,1.736,-8.53,0.2285,-8.237,5.031,-1.04,0,0,0,0,0,0,0,0,0,0,0,0,0,0,0,0,
393,-49.58,-54.06,-21.19,-32.92,-16.42,-26.14,1.827,-14.47,-4.138,-12.01,-2.979,-15.47,-5.969,-16.17,1.375,-7.829,0,0,0,0,0,0,0,0,0,0,0,0,0,0,0,0,
394,-50.06,-55.5,-18.78,-31.83,-12.84,-22.42,15.32,-17.64,-5.496,-12.86,2.696,-17.74,-3.229,-15.87,5.148,-7.052,0,0,0,0,0,0,0,0,0,0,0,0,0,0,0,0,
395,-44.54,-48.42,-19.02,-24.76,-10.69,-14.76,19.34,-11.68,-1.426,-6.125,4.721,-16.59,-1.787,-13.88,5.908,-3.921,0,0,0,0,0,0,0,0,0,0,0,0,0,0,0,0,
396,-43.61,-46.49,-25.39,-25.81,-15.06,-16.47,4.574,-15.36,-3.665,-10.01,-3.059,-18.43,-7.543,-17.03,1.008,-4.679,0,0,0,0,0,0,0,0,0,0,0,0,0,0,0,0,
397,-45.09,-50.95,-31.4,-32.5,-17.33,-23.25,3.545,-24.38,-7.366,-16.43,-4.009,-20.67,-11.32,-18.88,-1.738,-7.083,0,0,0,0,0,0,0,0,0,0,0,0,0,0,0,0,
398,-48.12,-54.66,-35.53,-35.15,-19.83,-29.18,6.264,-24.3,-8.029,-17.43,0.487,-19.15,-10.51,-18.09,-2.099,-8.067,0,0,0,0,0,0,0,0,0,0,0,0,0,0,0,0,
399,-51.35,-56.73,-33.61,-35.23,-24.12,-33.49,-6.096,-22.11,-12.43,-20.73,-2.496,-16.43,-10.16,-17.07,-4.729,-10.06,0,0,0,0,0,0,0,0,0,0,0,0,0,0,0,0,
400,-49.18,-58.25,-29.88,-36.25,-25.13,-36.46,-9.175,-24.05,-18.64,-19.55,-8.556,-18.77,-14.42,-18.79,-10.86,-16.43,0,0,0,0,0,0,0,0,0,0,0,0,0,0,0,0,
401,-49.71,-61.45,-37.44,-37.57,-27.76,-39.0,-6.752,-26.49,-23.26,-16.85,-14.49,-24.57,-21.2,-24.45,-15.14,-21.2,0,0,0,0,0,0,0,0,0,0,0,0,0,0,0,0,
402,-55.24,-64.13,-46.06,-35.8,-30.49,-36.45,-16.92,-24.79,-25.88,-22.94,-15.15,-22.51,-18.1,-22.85,-7.532,-15.14,0,0,0,0,0,0,0,0,0,0,0,0,0,0,0,0,
403,-52.6,-59.34,-41.97,-29.37,-25.26,-28.24,-14.45,-16.56,-19.52,-21.18,0.781,-13.72,-4.505,-12.02,6.692,-5.175,0,0,0,0,0,0,0,0,0,0,0,0,0,0,0,0,
404,-48.66,-52.9,-38.82,-26.43,-21.95,-26.01,0.1326,-11.4,-10.81,-11.26,12.6,-11.29,-0.8981,-8.587,9.046,-4.179,0,0,0,0,0,0,0,0,0,0,0,0,0,0,0,0,
405,-54.07,-54.22,-44.36,-30.21,-26.92,-30.63,-4.713,-13.55,-14.2,-13.39,0.9193,-12.21,-9.087,-11.77,2.592,-7.026,0,0,0,0,0,0,0,0,0,0,0,0,0,0,0,0,
406,-56.55,-57.5,-46.1,-32.04,-28.94,-32.13,-12.78,-13.43,-19.1,-16.48,-8.515,-9.885,-12.12,-11.14,0.4593,-6.441,0,0,0,0,0,0,0,0,0,0,0,0,0,0,0,0,
407,-54.8,-58.53,-43.08,-31.68,-28.05,-32.84,-5.186,-14.39,-17.23,-14.06,-5.88,-11.41,-14.0,-12.85,-2.617,-7.569,0,0,0,0,0,0,0,0,0,0,0,0,0,0,0,0,
408,-55.79,-59.62,-44.15,-30.87,-29.7,-34.52,-4.44,-18.09,-19.77,-19.13,-6.966,-14.45,-18.95,-15.25,-5.93,-9.062,0,0,0,0,0,0,0,0,0,0,0,0,0,0,0,0,
409,-52.6,-57.96,-47.79,-25.99,-28.19,-31.96,-12.73,-13.64,-21.35,-20.88,-5.799,-12.76,-15.95,-11.1,-1.086,-6.312,0,0,0,0,0,0,0,0,0,0,0,0,0,0,0,0,
410,-49.91,-54.03,-50.6,-23.16,-25.39,-28.94,-11.5,-9.326,-16.09,-15.08,-1.482,-11.54,-10.58,-7.733,4.362,-3.259,0,0,0,0,0,0,0,0,0,0,0,0,0,0,0,0,
411,-52.39,-49.19,-51.62,-22.64,-25.65,-25.96,-6.077,-12.73,-15.73,-12.55,-2.105,-9.608,-9.597,-5.686,6.528,-0.9034,0,0,0,0,0,0,0,0,0,0,0,0,0,0,0,0,
412,-49.91,-44.09,-48.34,-17.62,-23.75,-20.61,-7.627,-12.22,-15.45,-6.537,-1.224,-9.207,-6.066,-3.561,8.525,-0.4541,0,0,0,0,0,0,0,0,0,0,0,0,0,0,0,0,
413,-49.66,-47.12,-45.03,-16.98,-21.83,-20.66,-11.73,-9.454,-8.736,-4.136,0.0389,-17.23,-3.462,-7.577,8.29,-2.38,0,0,0,0,0,0,0,0,0,0,0,0,0,0,0,0,
414,-54.26,-52.85,-45.03,-21.12,-21.23,-21.54,-7.601,-9.099,-5.221,-12.57,2.412,-18.25,-1.738,-6.767,11.65,2.069,0,0,0,0,0,0,0,0,0,0,0,0,0,0,0,0,
415,-47.13,-46.31,-41.61,-17.37,-14.55,-14.07,5.144,-5.848,-0.684,-7.796,11.99,-7.058,4.54,3.452,17.23,8.509,0,0,0,0,0,0,0,0,0,0,0,0,0,0,0,0,
416,-38.14,-37.0,-36.11,-10.99,-7.516,-8.785,10.46,-5.153,7.599,5.57,14.62,-3.574,5.308,6.036,14.97,6.154,0,0,0,0,0,0,0,0,0,0,0,0,0,0,0,0,
417,-39.93,-35.86,-35.9,-9.033,-8.024,-7.5,3.209,-6.269,8.041,4.653,8.184,-3.42,1.337,5.901,14.58,5.816,0,0,0,0,0,0,0,0,0,0,0,0,0,0,0,0,
418,-38.92,-34.96,-37.5,-8.973,-9.583,-2.224,-0.6247,1.069,5.006,6.55,9.616,4.797,4.057,14.35,20.3,12.16,0,0,0,0,0,0,0,0,0,0,0,0,0,0,0,0,
419,-36.82,-32.97,-38.49,-10.11,-9.901,0.5576,3.409,8.875,5.013,17.75,14.2,7.115,6.854,18.06,20.19,13.55,0,0,0,0,0,0,0,0,0,0,0,0,0,0,0,0,
420,-40.56,-32.87,-41.74,-6.364,-11.55,0.6914,4.683,8.391,2.465,18.39,12.76,1.678,5.383,13.11,17.28,11.35,0,0,0,0,0,0,0,0,0,0,0,0,0,0,0,0,
421,-41.46,-33.65,-45.47,-0.0478,-12.79,2.615,1.583,5.235,-0.415,12.43,10.34,0.2114,4.343,8.55,14.83,9.107,0,0,0,0,0,0,0,0,0,0,0,0,0,0,0,0,
422,-42.31,-35.92,-46.81,-2.712,-14.0,-0.288,-0.2552,1.591,-0.951,9.294,9.134,0.4185,2.201,5.257,9.213,4.855,0,0,0,0,0,0,0,0,0,0,0,0,0,0,0,0,
423,-43.33,-34.47,-42.9,-7.115,-14.23,-3.316,0.6232,-0.9867,-1.635,7.27,8.377,0.3125,0.1198,4.825,6.765,3.737,0,0,0,0,0,0,0,0,0,0,0,0,0,0,0,0,
424,-35.38,-27.84,-34.69,-5.319,-10.49,0.4842,0.9935,-0.1895,-0.8214,7.423,5.612,1.662,-1.76,5.424,6.015,4.444,0,0,0,0,0,0,0,0,0,0,0,0,0,0,0,0,
425,-27.56,-24.67,-30.59,-4.768,-5.354,1.706,-1.805,-0.377,1.698,5.812,1.329,1.434,-5.82,3.01,1.646,1.833,0,0,0,0,0,0,0,0,0,0,0,0,0,0,0,0,
426,-28.54,-26.54,-33.7,-6.239,-4.465,-1.483,-5.115,0.2413,3.243,4.019,1.689,0.2717,-7.249,2.411,0.5381,0.2046,0,0,0,0,0,0,0,0,0,0,0,0,0,0,0,0,
427,-32.66,-30.02,-39.77,-6.063,-9.52,-1.91,-6.769,4.619,-0.0669,7.585,2.738,-1.197,-6.057,3.208,2.5,0.1223,0,0,0,0,0,0,0,0,0,0,0,0,0,0,0,0,
428,-36.52,-30.91,-42.13,-5.399,-13.55,-0.5238,-7.847,4.5,-6.699,7.555,1.941,-4.019,-4.254,2.054,4.273,1.028,0,0,0,0,0,0,0,0,0,0,0,0,0,0,0,0,
429,-36.04,-26.75,-35.95,-6.052,-10.72,0.7964,-5.107,2.818,-5.847,4.597,9.268,-2.867,3.035,4.318,11.1,7.686,0,0,0,0,0,0,0,0,0,0,0,0,0,0,0,0,
430,-30.31,-24.03,-29.93,-6.5,-6.34,4.369,1.868,10.51,1.465,9.456,20.77,2.993,11.83,10.26,19.48,15.67,0,0,0,0,0,0,0,0,0,0,0,0,0,0,0,0,
431,-24.81,-21.84,-30.49,-0.2613,-3.423,10.04,5.0,18.17,4.622,14.54,23.37,5.3,14.09,14.1,21.78,17.34,0,0,0,0,0,0,0,0,0,0,0,0,0,0,0,0,
432,-21.05,-16.21,-28.88,6.545,-0.4474,10.23,5.36,15.6,5.753,12.32,20.32,2.408,11.52,13.06,19.28,14.02,0,0,0,0,0,0,0,0,0,0,0,0,0,0,0,0,
433,-20.14,-15.5,-25.68,2.286,0.9873,4.118,9.766,8.213,8.753,8.844,17.96,-0.3089,8.695,8.61,14.84,9.551,0,0,0,0,0,0,0,0,0,0,0,0,0,0,0,0,
434,-18.91,-15.09,-25.3,0.1911,4.301,6.988,11.12,2.215,12.07,9.069,15.41,0.0508,9.417,8.838,12.6,8.105,0,0,0,0,0,0,0,0,0,0,0,0,0,0,0,0,
435,-13.35,-7.749,-21.67,8.276,9.216,16.25,4.451,4.658,15.13,13.18,13.72,2.373,11.11,13.05,13.89,9.168,0,0,0,0,0,0,0,0,0,0,0,0,0,0,0,0,
436,-12.89,-8.653,-19.23,8.378,6.993,11.37,-0.9928,11.22,14.4,12.7,13.44,1.61,8.615,9.939,13.09,6.528,0,0,0,0,0,0,0,0,0,0,0,0,0,0,0,0,
437,-17.23,-16.3,-22.16,2.325,2.658,2.704,0.3918,10.46,11.36,4.115,14.34,-2.407,9.485,5.363,12.01,3.728,0,0,0,0,0,0,0,0,0,0,0,0,0,0,0,0,
438,-13.76,-13.22,-20.09,7.809,4.608,7.791,4.518,11.56,12.31,1.436,16.16,-4.338,14.19,7.483,12.86,4.716,0,0,0,0,0,0,0,0,0,0,0,0,0,0,0,0,
439,-10.65,-8.357,-17.79,15.8,4.618,10.49,2.304,13.1,12.86,5.987,13.24,-7.663,7.995,4.868,6.804,0.9264,0,0,0,0,0,0,0,0,0,0,0,0,0,0,0,0,
440,-15.26,-10.49,-24.6,13.77,0.801,4.866,-5.775,3.225,8.634,5.871,6.15,-11.91,-3.081,-0.8694,-1.798,-5.011,0,0,0,0,0,0,0,0,0,0,0,0,0,0,0,0,
441,-14.19,-8.567,-26.27,12.19,2.832,7.567,-5.248,4.253,6.039,5.91,3.9,-7.58,-4.748,1.973,-2.006,-3.157,0,0,0,0,0,0,0,0,0,0,0,0,0,0,0,0,
442,-8.125,-4.832,-19.09,14.77,6.951,11.98,0.4573,17.98,7.0,6.818,3.513,-3.784,-6.848,2.608,-3.71,-1.581,0,0,0,0,0,0,0,0,0,0,0,0,0,0,0,0,
443,-8.546,-8.87,-18.15,9.555,5.199,5.5,-1.021,12.46,6.445,-0.7911,0.5984,-7.637,-11.33,-1.131,-8.194,-2.577,0,0,0,0,0,0,0,0,0,0,0,0,0,0,0,0,
444,-10.23,-13.66,-19.44,-0.0118,3.087,-0.567,-0.3056,1.361,4.908,-5.941,3.278,-4.001,-5.793,5.023,-1.361,3.691,0,0,0,0,0,0,0,0,0,0,0,0,0,0,0,0,
445,-10.04,-13.34,-17.43,-0.5282,2.84,-1.333,2.791,3.955,3.974,-2.143,9.458,2.09,0.8843,9.924,7.962,8.826,0,0,0,0,0,0,0,0,0,0,0,0,0,0,0,0,
446,-14.58,-14.91,-23.55,2.248,-1.544,-4.408,-0.2234,2.214,0.4564,-3.741,11.14,-2.897,0.3434,2.874,9.703,5.518,0,0,0,0,0,0,0,0,0,0,0,0,0,0,0,0,
447,-19.81,-19.71,-31.95,-0.2475,-6.625,-6.387,0.8376,-0.8219,-3.368,-7.501,13.92,-5.118,2.785,-0.7182,14.29,4.207,0,0,0,0,0,0,0,0,0,0,0,0,0,0,0,0,
448,-20.31,-20.57,-30.65,-0.1546,-7.215,-5.127,1.942,2.382,-3.411,-4.624,18.33,-1.774,6.074,0.0571,20.09,5.033,0,0,0,0,0,0,0,0,0,0,0,0,0,0,0,0,
449,-21.32,-18.7,-31.38,3.601,-8.469,-6.576,-6.392,0.5459,-4.695,-5.527,16.98,-3.142,2.714,-2.431,19.03,3.82,0,0,0,0,0,0,0,0,0,0,0,0,0,0,0,0,
450,-23.61,-21.24,-36.18,0.8685,-10.84,-9.199,-7.337,2.128,-8.405,-8.868,12.9,-0.2106,-0.4792,1.11,16.33,6.159,0,0,0,0,0,0,0,0,0,0,0,0,0,0,0,0,
451,-22.68,-25.6,-30.3,-4.791,-8.411,-9.94,0.6824,10.83,-6.919,-4.757,11.3,7.611,0.2173,9.372,14.43,10.51,0,0,0,0,0,0,0,0,0,0,0,0,0,0,0,0,
452,-20.56,-26.06,-21.94,-3.618,-5.485,-11.33,0.2618,12.35,-1.25,-0.3171,9.839,9.272,0.5657,11.69,11.84,12.28,0,0,0,0,0,0,0,0,0,0,0,0,0,0,0,0,
453,-22.27,-27.75,-27.68,-1.129,-9.561,-13.85,-6.467,11.03,-0.6464,0.2488,4.579,7.665,-1.864,10.49,8.118,11.28,0,0,0,0,0,0,0,0,0,0,0,0,0,0,0,0,
454,-28.81,-33.22,-36.72,-3.654,-15.74,-16.46,-11.85,12.14,-5.738,-0.104,-1.897,3.009,-5.694,6.545,1.246,3.971,0,0,0,0,0,0,0,0,0,0,0,0,0,0,0,0,
455,-35.22,-33.87,-34.65,-5.725,-17.18,-18.49,-14.71,8.495,-8.435,-4.458,-2.507,-5.636,-6.207,-0.5367,-4.324,-5.842,0,0,0,0,0,0,0,0,0,0,0,0,0,0,0,0,
456,-35.45,-29.07,-30.63,-4.894,-16.18,-16.41,-14.22,5.32,-6.673,-8.448,0.3012,-6.704,-2.52,-1.428,-3.7,-7.244,0,0,0,0,0,0,0,0,0,0,0,0,0,0,0,0,
457,-29.32,-23.83,-30.13,-1.456,-11.41,-7.571,-11.16,10.43,-3.174,-3.964,2.409,0.4285,3.003,3.974,0.3614,-2.657,0,0,0,0,0,0,0,0,0,0,0,0,0,0,0,0,
458,-18.92,-15.93,-21.54,5.306,0.6622,1.175,-2.865,15.28,5.465,2.023,8.675,3.313,9.561,4.695,5.099,-1.393,0,0,0,0,0,0,0,0,0,0,0,0,0,0,0,0,
459,-7.971,-9.054,-6.943,8.227,11.3,2.987,7.028,11.14,17.41,1.088,14.46,1.509,13.24,2.753,7.352,-1.407,0,0,0,0,0,0,0,0,0,0,0,0,0,0,0,0,
460,-1.549,-5.99,1.73,7.714,16.22,7.531,9.849,7.458,23.31,2.376,12.67,3.565,13.49,8.68,6.947,4.007,0,0,0,0,0,0,0,0,0,0,0,0,0,0,0,0,
461,2.292,0.9991,5.277,13.62,21.72,18.6,11.17,13.77,25.14,13.61,12.12,8.371,15.09,17.3,9.849,11.44,0,0,0,0,0,0,0,0,0,0,0,0,0,0,0,0,
462,3.39,5.246,3.829,16.72,21.95,19.49,12.65,19.14,26.1,20.51,14.65,7.822,16.05,16.88,14.35,13.09,0,0,0,0,0,0,0,0,0,0,0,0,0,0,0,0,
463,-2.693,-2.51,-0.9755,8.03,13.38,11.79,6.314,16.28,20.88,15.53,12.43,5.278,15.07,14.1,15.19,12.06,0,0,0,0,0,0,0,0,0,0,0,0,0,0,0,0,
464,-5.887,-6.367,-0.8355,5.377,9.794,14.79,1.577,16.69,14.23,14.95,10.61,10.49,17.4,19.57,16.52,14.89,0,0,0,0,0,0,0,0,0,0,0,0,0,0,0,0,
465,1.94,3.088,-1.014,15.93,13.95,23.98,5.743,23.12,15.07,22.56,13.53,18.11,21.37,25.95,19.64,16.84,0,0,0,0,0,0,0,0,0,0,0,0,0,0,0,0,
466,6.797,9.918,-5.952,20.04,15.4,26.06,5.34,24.24,19.68,26.73,13.55,18.43,20.77,25.23,18.22,13.36,0,0,0,0,0,0,0,0,0,0,0,0,0,0,0,0,
467,1.181,4.231,-7.131,11.28,12.47,22.22,0.3711,18.75,20.6,26.82,7.981,14.36,14.94,20.15,11.2,8.268,0,0,0,0,0,0,0,0,0,0,0,0,0,0,0,0,
468,-4.748,-5.864,-6.029,3.763,9.055,14.5,2.9,16.07,17.18,22.13,2.236,9.793,7.387,12.18,3.467,3.02,0,0,0,0,0,0,0,0,0,0,0,0,0,0,0,0,
469,-7.165,-10.64,-7.332,1.407,6.616,5.954,5.199,17.25,14.96,11.88,1.221,7.063,3.717,5.519,0.2605,-0.3359,0,0,0,0,0,0,0,0,0,0,0,0,0,0,0,0,
470,-10.05,-11.02,-9.877,-2.006,2.378,2.278,0.9987,16.4,13.77,7.206,4.526,9.724,5.552,7.503,3.311,3.338,0,0,0,0,0,0,0,0,0,0,0,0,0,0,0,0,
471,-13.97,-13.34,-14.41,-3.032,-4.201,1.684,4.052,14.54,7.251,9.791,8.936,13.41,8.961,13.81,9.669,10.9,0,0,0,0,0,0,0,0,0,0,0,0,0,0,0,0,
472,-15.03,-13.76,-13.71,1.835,-3.859,3.438,14.46,13.93,3.563,11.68,15.74,15.83,14.3,17.91,17.69,17.46,0,0,0,0,0,0,0,0,0,0,0,0,0,0,0,0,
473,-8.985,-4.835,-4.289,5.401,5.028,11.65,15.86,15.66,12.34,16.63,23.25,21.35,22.42,22.61,25.43,23.12,0,0,0,0,0,0,0,0,0,0,0,0,0,0,0,0,
474,-0.6926,4.333,1.882,5.532,9.962,19.58,12.09,23.05,21.35,25.11,24.41,24.16,26.18,25.53,27.18,23.48,0,0,0,0,0,0,0,0,0,0,0,0,0,0,0,0,
475,-0.4764,0.6358,1.776,5.808,6.803,14.99,15.1,27.9,20.64,24.9,20.4,19.05,21.33,20.5,21.35,16.29,0,0,0,0,0,0,0,0,0,0,0,0,0,0,0,0,
476,-9.056,-10.36,-1.759,2.415,0.1894,2.292,12.65,20.34,15.03,13.53,13.13,12.16,11.85,11.31,10.12,7.318,0,0,0,0,0,0,0,0,0,0,0,0,0,0,0,0,
477,-17.66,-17.02,-10.79,-4.426,-6.011,-4.919,-2.502,10.55,8.67,1.488,2.445,5.766,2.747,4.714,-0.9017,0.9104,0,0,0,0,0,0,0,0,0,0,0,0,0,0,0,0,
478,-17.29,-16.52,-15.6,-4.982,-4.805,-3.981,-8.203,8.195,7.319,-2.708,0.1377,2.737,-0.53,4.889,-0.7518,1.587,0,0,0,0,0,0,0,0,0,0,0,0,0,0,0,0,
479,-8.891,-9.963,-8.311,-0.068,2.312,1.765,1.407,8.811,10.46,3.491,7.465,7.143,1.82,11.91,7.918,8.373,0,0,0,0,0,0,0,0,0,0,0,0,0,0,0,0,
480,-3.943,-4.169,0.3386,0.1133,4.152,8.337,3.9,9.985,7.773,13.41,7.435,10.54,2.228,16.29,10.59,10.4,0,0,0,0,0,0,0,0,0,0,0,0,0,0,0,0,
481,-4.513,-4.919,2.946,-3.247,2.504,9.494,-0.5435,11.87,3.159,14.54,3.73,9.057,2.3,12.63,9.998,8.797,0,0,0,0,0,0,0,0,0,0,0,0,0,0,0,0,
482,-2.808,-6.085,1.953,-2.811,4.411,6.832,3.468,14.83,6.288,8.087,10.84,10.47,9.267,10.2,15.08,13.37,0,0,0,0,0,0,0,0,0,0,0,0,0,0,0,0,
483,-0.4264,-3.523,0.5602,1.155,6.641,7.682,10.53,19.57,11.6,7.221,20.65,14.08,18.1,14.3,19.63,18.3,0,0,0,0,0,0,0,0,0,0,0,0,0,0,0,0,
484,0.6548,0.0835,3.004,4.306,9.062,11.4,14.42,19.92,14.71,12.46,23.72,14.57,20.69,16.93,18.25,15.07,0,0,0,0,0,0,0,0,0,0,0,0,0,0,0,0,
485,3.732,3.041,7.363,2.832,12.83,13.1,17.78,13.84,17.08,14.5,25.12,12.66,19.25,14.03,15.69,9.165,0,0,0,0,0,0,0,0,0,0,0,0,0,0,0,0,
486,6.73,3.942,9.924,0.7136,14.9,13.79,21.99,12.98,17.7,13.9,28.73,12.71,20.25,13.66,17.41,8.341,0,0,0,0,0,0,0,0,0,0,0,0,0,0,0,0,
487,10.67,7.355,14.12,5.39,19.68,17.87,29.6,20.1,21.38,17.51,31.99,17.18,24.08,19.04,21.67,11.65,0,0,0,0,0,0,0,0,0,0,0,0,0,0,0,0,
488,16.42,14.62,17.14,8.911,26.55,22.32,31.92,21.4,28.77,25.16,30.09,19.49,24.04,21.82,21.14,12.95,0,0,0,0,0,0,0,0,0,0,0,0,0,0,0,0,
489,17.11,16.13,14.78,5.949,26.16,21.39,23.22,15.3,28.62,29.69,24.15,16.05,18.71,18.37,16.48,10.19,0,0,0,0,0,0,0,0,0,0,0,0,0,0,0,0,
490,13.76,13.19,12.57,7.835,21.66,18.79,18.24,13.88,20.9,26.26,19.14,12.91,13.37,11.6,12.64,5.716,0,0,0,0,0,0,0,0,0,0,0,0,0,0,0,0,
491,8.401,9.819,8.514,9.424,16.11,14.7,18.93,15.28,14.91,17.41,14.89,10.02,8.461,4.099,9.137,2.595,0,0,0,0,0,0,0,0,0,0,0,0,0,0,0,0,
492,-0.2213,0.8758,2.189,0.9451,6.696,5.592,18.65,14.28,8.996,9.318,14.34,9.384,6.412,4.11,10.29,6.466,0,0,0,0,0,0,0,0,0,0,0,0,0,0,0,0,
493,-1.458,-4.585,3.497,-2.45,2.374,2.296,18.9,17.04,4.153,8.347,17.85,16.62,10.45,13.37,15.3,14.59,0,0,0,0,0,0,0,0,0,0,0,0,0,0,0,0,
494,2.927,-0.699,4.145,2.276,4.641,6.269,9.087,19.05,7.148,13.78,13.8,20.65,10.96,18.1,11.23,14.47,0,0,0,0,0,0,0,0,0,0,0,0,0,0,0,0,
495,-1.543,-0.6524,-1.224,1.645,5.074,4.216,-2.446,15.02,11.41,16.79,5.112,15.86,5.572,15.38,2.399,8.586,0,0,0,0,0,0,0,0,0,0,0,0,0,0,0,0,
496,-3.833,-2.852,4.835,0.9822,8.98,3.342,8.205,17.29,11.27,16.5,5.914,14.33,5.913,13.79,1.919,8.04,0,0,0,0,0,0,0,0,0,0,0,0,0,0,0,0,
497,2.914,-0.4778,11.8,4.369,13.81,9.795,18.42,21.57,12.45,15.96,8.97,13.95,8.892,10.95,3.756,9.099,0,0,0,0,0,0,0,0,0,0,0,0,0,0,0,0,
498,0.6046,-1.348,-0.2233,4.978,8.156,8.98,8.821,11.8,13.08,11.06,7.562,10.42,8.91,7.678,6.009,8.922,0,0,0,0,0,0,0,0,0,0,0,0,0,0,0,0,
499,-8.165,-4.765,-8.513,4.795,1.362,2.247,4.875,3.192,11.49,6.532,11.36,12.48,13.7,10.64,14.32,11.68,0,0,0,0,0,0,0,0,0,0,0,0,0,0,0,0,
500,-10.23,-6.452,-1.039,4.237,0.8732,0.3824,8.908,9.817,12.52,8.34,16.72,13.39,17.06,10.99,18.08,11.09,0,0,0,0,0,0,0,0,0,0,0,0,0,0,0,0,
501,-10.46,-7.675,3.885,4.103,1.494,1.478,7.495,15.6,12.03,7.451,16.0,5.751,10.89,3.728,13.83,4.997,0,0,0,0,0,0,0,0,0,0,0,0,0,0,0,0,
502,-6.772,-3.604,9.09,9.513,7.523,6.138,10.31,15.41,12.21,4.388,16.84,3.709,9.764,1.64,14.17,4.233,0,0,0,0,0,0,0,0,0,0,0,0,0,0,0,0,
503,3.517,3.614,18.21,12.39,16.12,11.89,15.89,17.47,20.82,7.407,20.02,8.369,17.46,6.379,16.86,7.974,0,0,0,0,0,0,0,0,0,0,0,0,0,0,0,0,
504,7.668,6.095,18.01,8.856,15.6,11.55,15.36,17.09,24.45,8.95,19.75,7.427,20.71,9.476,15.91,7.928,0,0,0,0,0,0,0,0,0,0,0,0,0,0,0,0,
505,4.559,5.261,14.32,7.649,11.1,8.803,15.72,12.76,17.28,6.406,20.21,6.681,21.84,12.75,18.02,8.011,0,0,0,0,0,0,0,0,0,0,0,0,0,0,0,0,
506,2.941,1.953,16.47,5.189,9.637,7.231,18.29,10.46,16.83,8.097,22.13,11.18,24.75,16.51,20.25,10.41,0,0,0,0,0,0,0,0,0,0,0,0,0,0,0,0,
507,2.569,-0.0312,16.3,0.8652,8.903,8.376,17.07,10.05,20.95,11.48,20.4,12.27,21.28,16.13,16.13,9.904,0,0,0,0,0,0,0,0,0,0,0,0,0,0,0,0,
508,4.942,5.469,16.29,5.923,12.13,15.11,15.34,12.78,18.24,13.01,18.7,10.94,15.06,14.83,14.61,9.715,0,0,0,0,0,0,0,0,0,0,0,0,0,0,0,0,
509,11.2,10.73,26.24,14.21,20.87,20.49,20.58,18.66,20.27,15.89,22.37,13.65,16.44,17.22,19.32,14.26,0,0,0,0,0,0,0,0,0,0,0,0,0,0,0,0,
510,16.05,12.42,35.72,14.45,28.53,22.78,28.38,20.49,30.34,19.19,26.6,18.44,21.8,22.59,22.22,18.96,0,0,0,0,0,0,0,0,0,0,0,0,0,0,0,0,
511,21.05,19.18,31.61,13.76,32.52,30.26,26.36,18.93,34.71,22.33,25.87,23.61,25.88,28.6,23.68,21.77,0,0,0,0,0,0,0,0,0,0,0,0,0,0,0,0,
512,27.35,27.59,24.03,17.23,34.13,37.29,20.08,20.18,34.59,26.4,23.78,26.43,30.14,30.94,25.75,23.52,0,0,0,0,0,0,0,0,0,0,0,0,0,0,0,0,
513,26.25,28.48,24.77,18.01,31.81,34.66,22.04,20.99,35.9,26.96,24.74,23.08,32.44,28.09,24.9,22.66,0,0,0,0,0,0,0,0,0,0,0,0,0,0,0,0,
514,20.47,23.24,27.87,15.01,27.48,29.41,27.85,18.95,35.45,23.21,29.09,21.3,33.55,27.38,26.3,23.32,0,0,0,0,0,0,0,0,0,0,0,0,0,0,0,0,
515,22.38,19.1,31.04,14.9,28.67,29.98,34.77,20.28,37.6,24.47,36.18,25.76,36.95,31.65,31.53,26.16,0,0,0,0,0,0,0,0,0,0,0,0,0,0,0,0,
516,26.32,20.26,35.83,16.7,33.06,32.84,38.48,23.13,42.71,30.52,36.81,24.47,33.03,29.63,26.29,20.07,0,0,0,0,0,0,0,0,0,0,0,0,0,0,0,0,
517,24.06,22.67,34.35,16.15,33.04,33.81,29.87,19.19,39.93,29.33,26.41,17.44,21.27,20.27,14.29,9.256,0,0,0,0,0,0,0,0,0,0,0,0,0,0,0,0,
518,25.58,25.05,30.88,18.33,34.29,36.49,25.85,15.02,36.1,26.36,21.49,18.18,19.8,18.15,14.85,9.302,0,0,0,0,0,0,0,0,0,0,0,0,0,0,0,0,
519,29.53,28.1,32.94,20.31,35.43,36.53,31.94,17.44,37.78,28.98,23.09,20.33,21.68,19.57,17.31,11.26,0,0,0,0,0,0,0,0,0,0,0,0,0,0,0,0,
520,21.36,21.76,26.75,13.25,24.2,25.65,21.97,17.35,28.47,22.25,14.55,16.75,11.84,14.7,8.642,6.234,0,0,0,0,0,0,0,0,0,0,0,0,0,0,0,0,
521,9.407,8.742,13.34,9.713,11.97,15.74,6.859,15.8,14.51,11.49,7.126,19.34,8.027,15.02,5.781,7.394,0,0,0,0,0,0,0,0,0,0,0,0,0,0,0,0,
522,5.376,5.254,12.48,14.96,10.73,15.02,7.55,18.39,15.8,15.34,10.0,24.1,12.67,19.38,9.033,11.75,0,0,0,0,0,0,0,0,0,0,0,0,0,0,0,0,
523,1.359,5.42,19.09,11.72,8.927,12.83,5.726,15.2,16.59,17.35,8.079,20.12,7.306,15.8,5.822,9.343,0,0,0,0,0,0,0,0,0,0,0,0,0,0,0,0,
524,-1.291,1.147,21.4,6.773,7.293,10.98,4.03,10.96,9.524,11.97,6.353,18.49,3.171,14.71,6.434,10.06,0,0,0,0,0,0,0,0,0,0,0,0,0,0,0,0,
525,1.908,1.108,20.68,12.36,9.352,12.72,10.16,17.11,10.21,15.39,8.314,20.25,5.841,17.09,9.491,12.99,0,0,0,0,0,0,0,0,0,0,0,0,0,0,0,0,
526,-0.4306,2.634,12.83,11.78,3.367,10.34,2.666,20.0,9.326,14.35,0.1249,18.07,2.571,14.94,5.492,12.06,0,0,0,0,0,0,0,0,0,0,0,0,0,0,0,0,
527,-6.475,0.6163,3.581,5.992,-3.224,9.322,-2.749,17.05,3.774,8.978,-3.675,23.02,4.672,21.0,7.873,16.35,0,0,0,0,0,0,0,0,0,0,0,0,0,0,0,0,
528,-5.307,0.7265,4.698,11.03,-0.8369,10.1,9.371,21.22,8.037,18.08,5.693,30.57,12.46,29.18,14.46,19.88,0,0,0,0,0,0,0,0,0,0,0,0,0,0,0,0,
529,-5.943,-0.641,3.575,13.72,-4.21,2.682,4.533,22.86,8.28,20.46,5.097,25.21,6.409,20.66,9.546,13.11,0,0,0,0,0,0,0,0,0,0,0,0,0,0,0,0,
530,-14.11,-7.02,-5.916,6.54,-13.42,-3.891,-11.24,16.54,-4.333,7.213,-2.279,19.65,-2.216,11.23,4.202,8.56,0,0,0,0,0,0,0,0,0,0,0,0,0,0,0,0,
531,-18.01,-9.438,-4.939,5.878,-13.15,-2.865,-6.423,14.69,-9.884,4.507,-0.1849,22.5,-0.1883,13.08,6.709,10.0,0,0,0,0,0,0,0,0,0,0,0,0,0,0,0,0,
532,-13.29,-5.178,6.098,11.11,-6.45,-2.205,1.339,13.97,-4.983,8.058,3.469,21.17,1.653,13.78,7.958,9.692,0,0,0,0,0,0,0,0,0,0,0,0,0,0,0,0,
533,-7.975,-2.861,9.052,9.238,-3.14,-2.185,4.778,7.052,0.4871,5.524,6.779,15.56,3.269,11.54,9.091,9.898,0,0,0,0,0,0,0,0,0,0,0,0,0,0,0,0,
534,-9.118,-7.664,4.996,1.624,-5.178,-4.045,13.03,1.085,3.785,5.305,11.69,12.98,6.812,9.275,11.56,10.49,0,0,0,0,0,0,0,0,0,0,0,0,0,0,0,0,
535,-14.22,-12.85,3.519,-3.065,-9.249,-8.866,8.902,0.8294,1.118,4.726,9.396,11.5,3.828,4.928,9.108,6.901,0,0,0,0,0,0,0,0,0,0,0,0,0,0,0,0,
536,-14.44,-10.55,4.086,-0.9433,-9.655,-8.292,-1.734,3.455,-4.13,0.9434,2.333,9.239,-1.474,1.615,5.072,2.74,0,0,0,0,0,0,0,0,0,0,0,0,0,0,0,0,
537,-10.93,-5.562,1.231,2.582,-7.799,-4.715,-0.7066,5.258,-4.555,0.5518,-1.735,9.357,-1.168,2.512,6.297,4.248,0,0,0,0,0,0,0,0,0,0,0,0,0,0,0,0,
538,-10.42,-4.619,-6.485,0.5033,-7.887,-6.415,-1.317,4.549,-3.395,1.99,-3.009,12.97,0.2078,7.187,9.132,9.605,0,0,0,0,0,0,0,0,0,0,0,0,0,0,0,0,
539,-9.458,-5.292,-9.765,-2.306,-7.425,-8.888,-3.933,2.179,-4.276,3.224,-1.94,13.48,-1.15,10.85,8.098,11.13,0,0,0,0,0,0,0,0,0,0,0,0,0,0,0,0,
540,-6.859,-4.866,-4.71,-0.6223,-6.453,-7.893,0.3827,2.633,-5.852,3.541,-1.189,10.94,-2.792,10.0,6.816,9.941,0,0,0,0,0,0,0,0,0,0,0,0,0,0,0,0,
541,-8.885,-4.17,-2.741,-0.2092,-7.59,-7.568,0.9079,9.704,-6.211,0.4192,-1.271,15.0,-1.905,10.12,9.614,13.07,0,0,0,0,0,0,0,0,0,0,0,0,0,0,0,0,
542,-13.37,-4.929,-4.959,-2.361,-9.12,-10.08,0.2333,12.69,-3.625,-1.262,1.535,19.6,0.0317,11.59,12.01,16.62,0,0,0,0,0,0,0,0,0,0,0,0,0,0,0,0,
543,-15.97,-8.555,-5.463,-3.636,-11.72,-11.62,1.775,4.429,-3.622,1.402,2.24,15.47,-2.282,9.338,10.15,15.74,0,0,0,0,0,0,0,0,0,0,0,0,0,0,0,0,
544,-16.96,-11.01,-8.792,-7.068,-14.02,-8.838,-5.854,1.37,-10.55,1.903,-2.049,13.85,-4.9,9.165,8.997,15.82,0,0,0,0,0,0,0,0,0,0,0,0,0,0,0,0,
545,-12.39,-6.457,-11.11,-9.234,-9.005,-4.092,-11.77,6.12,-12.34,0.6295,-1.748,19.64,1.775,15.11,13.25,19.18,0,0,0,0,0,0,0,0,0,0,0,0,0,0,0,0,
546,-5.323,0.3505,-6.674,-3.455,-1.276,-0.5224,-2.307,3.488,-1.648,4.465,5.018,22.14,11.32,18.61,19.21,21.54,0,0,0,0,0,0,0,0,0,0,0,0,0,0,0,0,
547,-5.976,0.8025,-3.234,0.8899,-0.7797,0.5958,8.825,0.2091,7.403,7.795,9.524,19.42,12.46,15.48,20.97,21.71,0,0,0,0,0,0,0,0,0,0,0,0,0,0,0,0,
548,-8.662,-1.871,-1.338,-2.437,-3.501,-1.765,10.38,2.587,6.051,2.88,9.154,16.46,9.993,11.58,18.78,21.66,0,0,0,0,0,0,0,0,0,0,0,0,0,0,0,0,
549,-5.955,-2.38,1.651,-3.769,-4.028,-4.239,8.426,1.246,2.622,-2.333,7.46,15.08,9.973,10.19,16.5,20.85,0,0,0,0,0,0,0,0,0,0,0,0,0,0,0,0,
550,-5.787,-3.127,2.788,-1.972,-2.981,-2.512,12.23,1.113,3.341,-1.593,8.235,15.23,10.03,9.822,15.96,18.33,0,0,0,0,0,0,0,0,0,0,0,0,0,0,0,0,
551,-8.006,-3.603,5.896,-3.91,-0.1303,-0.261,18.11,4.454,6.885,0.5099,10.77,15.29,9.5,10.56,16.67,16.86,0,0,0,0,0,0,0,0,0,0,0,0,0,0,0,0,
552,-6.005,-3.541,8.209,-8.302,-0.154,-3.103,13.94,1.975,8.621,0.822,10.51,14.88,8.845,11.69,17.19,17.17,0,0,0,0,0,0,0,0,0,0,0,0,0,0,0,0,
553,-5.122,-5.0,3.672,-10.56,-3.896,-8.187,8.957,1.254,6.569,-1.915,10.28,14.46,9.253,11.02,17.08,16.43,0,0,0,0,0,0,0,0,0,0,0,0,0,0,0,0,
554,-6.45,-3.728,1.574,-7.884,-3.382,-8.626,15.42,5.806,6.65,-3.054,13.74,14.03,11.91,10.52,16.37,15.64,0,0,0,0,0,0,0,0,0,0,0,0,0,0,0,0,
555,-5.086,-2.711,6.316,-4.336,-0.964,-3.658,19.2,4.138,10.85,2.155,14.95,14.99,12.7,11.67,15.62,16.26,0,0,0,0,0,0,0,0,0,0,0,0,0,0,0,0,
556,-5.277,-8.439,11.18,-7.113,-1.843,0.55,16.94,1.071,13.19,3.766,13.07,15.68,10.5,12.15,16.75,17.08,0,0,0,0,0,0,0,0,0,0,0,0,0,0,0,0,
557,-8.459,-12.0,12.1,-12.11,-2.031,-2.201,19.57,0.3101,10.98,-1.873,11.81,12.92,9.205,11.27,17.22,17.72,0,0,0,0,0,0,0,0,0,0,0,0,0,0,0,0,
558,-9.808,-10.53,7.417,-14.34,-2.649,-9.263,16.18,-7.107,5.774,-4.723,7.793,9.722,7.162,8.24,13.52,16.39,0,0,0,0,0,0,0,0,0,0,0,0,0,0,0,0,
559,-9.013,-9.997,4.559,-14.72,-4.097,-10.31,4.571,-10.49,3.069,-5.159,4.491,8.265,3.181,3.042,10.9,12.99,0,0,0,0,0,0,0,0,0,0,0,0,0,0,0,0,
560,-5.44,-4.816,8.876,-9.241,-0.8666,-4.563,5.705,-1.303,6.644,-4.854,8.674,6.037,1.356,0.2523,12.07,11.77,0,0,0,0,0,0,0,0,0,0,0,0,0,0,0,0,
561,-1.118,0.2517,9.259,-4.194,1.047,-3.726,16.23,2.446,8.275,-1.052,11.13,5.091,0.295,0.3983,10.81,11.99,0,0,0,0,0,0,0,0,0,0,0,0,0,0,0,0,
562,-2.733,-5.965,3.092,-11.21,-4.818,-10.41,15.77,-3.891,1.998,-1.772,5.22,6.972,-3.212,-1.119,7.267,10.32,0,0,0,0,0,0,0,0,0,0,0,0,0,0,0,0,
563,-5.726,-10.5,1.688,-16.33,-9.024,-13.89,8.6,-6.218,-3.976,-7.883,1.643,7.062,-3.926,-3.239,7.361,9.594,0,0,0,0,0,0,0,0,0,0,0,0,0,0,0,0,
564,-3.075,-6.052,5.871,-9.527,-6.39,-10.68,7.937,-2.918,-3.881,-7.974,4.662,6.395,-0.7167,-2.625,9.659,11.26,0,0,0,0,0,0,0,0,0,0,0,0,0,0,0,0,
565,-1.67,-5.317,7.136,-7.635,-4.427,-8.666,9.093,-0.3316,-3.199,-4.548,4.956,8.323,-2.735,-2.202,8.527,11.02,0,0,0,0,0,0,0,0,0,0,0,0,0,0,0,0,
566,-4.057,-6.023,3.667,-11.06,-4.814,-9.586,4.146,0.1881,-5.675,-5.498,0.0936,8.344,-8.999,-5.028,4.028,7.56,0,0,0,0,0,0,0,0,0,0,0,0,0,0,0,0,
567,-3.789,-2.862,1.469,-8.875,-4.438,-8.484,-1.032,1.367,-7.036,-7.276,-2.703,6.989,-8.876,-6.901,1.922,5.15,0,0,0,0,0,0,0,0,0,0,0,0,0,0,0,0,
568,-3.953,-5.117,0.2992,-10.13,-6.237,-8.101,-0.8984,2.003,-5.914,-6.804,-0.7724,9.754,-4.194,-4.418,3.836,5.436,0,0,0,0,0,0,0,0,0,0,0,0,0,0,0,0,
569,-8.092,-10.19,-5.045,-13.76,-9.94,-10.88,-2.446,-3.464,-5.985,-6.25,0.8981,10.99,-3.161,-3.538,3.711,4.061,0,0,0,0,0,0,0,0,0,0,0,0,0,0,0,0,
570,-9.499,-8.532,-7.035,-8.998,-10.88,-9.717,-6.835,-7.888,-5.721,-7.093,-1.615,7.284,-4.587,-6.174,0.7865,1.859,0,0,0,0,0,0,0,0,0,0,0,0,0,0,0,0,
571,-4.722,-4.004,2.02,-5.074,-9.605,-3.468,-4.115,-2.205,-2.302,-5.529,-4.349,7.779,-3.031,-2.54,2.2,5.989,0,0,0,0,0,0,0,0,0,0,0,0,0,0,0,0,
572,1.801,-0.0339,13.11,-5.002,-5.206,0.3741,3.627,4.598,2.401,3.69,-1.852,12.21,1.361,6.135,6.103,11.92,0,0,0,0,0,0,0,0,0,0,0,0,0,0,0,0,
573,3.369,1.943,15.52,-1.459,1.438,-0.3848,5.583,6.519,5.345,10.24,1.651,10.66,1.501,5.877,4.092,9.539,0,0,0,0,0,0,0,0,0,0,0,0,0,0,0,0,
574,-1.959,-1.707,8.647,-1.119,1.005,-2.749,3.416,7.489,3.185,2.161,0.5559,6.006,-3.422,-0.6024,-0.3844,4.028,0,0,0,0,0,0,0,0,0,0,0,0,0,0,0,0,
575,-4.721,-4.253,4.272,-2.595,-2.465,-2.613,4.384,8.195,0.0741,-4.556,0.2574,7.431,-2.105,0.8929,0.7547,3.437,0,0,0,0,0,0,0,0,0,0,0,0,0,0,0,0,
576,1.264,-0.1846,12.53,2.974,3.945,2.744,7.428,12.37,5.635,4.854,4.769,13.32,7.206,9.089,4.942,4.756,0,0,0,0,0,0,0,0,0,0,0,0,0,0,0,0,
577,6.346,3.295,19.65,7.188,11.7,9.194,7.657,18.02,14.75,15.03,7.496,16.23,11.81,12.64,6.531,5.112,0,0,0,0,0,0,0,0,0,0,0,0,0,0,0,0,
578,4.624,3.733,14.51,5.594,9.831,9.822,7.567,13.75,16.0,14.47,6.364,13.94,7.986,8.308,6.324,5.814,0,0,0,0,0,0,0,0,0,0,0,0,0,0,0,0,
579,3.559,4.291,11.34,4.138,6.849,4.699,12.93,5.357,12.4,10.42,7.383,11.64,4.151,3.894,7.505,8.384,0,0,0,0,0,0,0,0,0,0,0,0,0,0,0,0,
580,6.225,3.925,14.6,2.409,6.581,1.391,16.59,7.348,9.793,8.223,9.269,13.75,4.468,6.138,9.442,12.6,0,0,0,0,0,0,0,0,0,0,0,0,0,0,0,0,
581,7.093,2.776,13.48,4.343,3.921,4.501,10.86,12.88,7.327,10.33,6.52,16.19,5.406,10.41,9.666,15.61,0,0,0,0,0,0,0,0,0,0,0,0,0,0,0,0,
582,5.269,4.027,10.16,13.09,3.336,10.46,8.679,11.36,6.732,15.58,4.695,16.39,5.708,12.49,10.11,18.19,0,0,0,0,0,0,0,0,0,0,0,0,0,0,0,0,
583,7.164,10.2,10.59,17.84,9.506,15.48,17.73,9.818,11.01,17.2,9.482,17.48,8.171,14.05,12.13,21.0,0,0,0,0,0,0,0,0,0,0,0,0,0,0,0,0,
584,13.76,16.03,12.43,13.6,16.06,16.64,22.45,10.53,16.97,15.1,12.88,16.95,11.16,13.03,12.53,19.54,0,0,0,0,0,0,0,0,0,0,0,0,0,0,0,0,
585,16.84,12.75,15.0,8.782,17.82,12.37,20.23,7.078,19.76,14.25,11.61,15.57,12.62,12.59,12.99,17.88,0,0,0,0,0,0,0,0,0,0,0,0,0,0,0,0,
586,14.71,8.045,17.3,8.421,17.08,10.59,24.75,8.589,19.17,17.06,12.7,20.16,14.61,18.46,15.58,21.36,0,0,0,0,0,0,0,0,0,0,0,0,0,0,0,0,
587,13.49,11.21,15.24,9.733,15.96,15.82,28.21,19.15,16.83,21.75,13.99,24.28,15.29,22.26,15.83,21.94,0,0,0,0,0,0,0,0,0,0,0,0,0,0,0,0,
588,14.81,13.21,13.02,11.95,16.36,21.33,20.64,21.47,16.01,23.39,13.1,23.68,14.17,21.09,14.29,18.66,0,0,0,0,0,0,0,0,0,0,0,0,0,0,0,0,
589,19.0,13.46,17.15,18.07,20.61,26.51,16.82,17.95,20.19,24.99,14.86,26.65,14.33,22.36,12.71,17.05,0,0,0,0,0,0,0,0,0,0,0,0,0,0,0,0,
590,23.0,19.7,20.43,22.22,24.2,30.6,19.6,23.45,23.49,29.0,14.17,25.86,12.41,19.26,7.527,10.84,0,0,0,0,0,0,0,0,0,0,0,0,0,0,0,0,
591,20.85,23.11,17.96,18.24,22.96,27.77,16.72,23.43,20.34,26.18,8.939,15.63,9.283,10.41,3.914,2.842,0,0,0,0,0,0,0,0,0,0,0,0,0,0,0,0,
592,18.45,18.7,15.86,14.96,20.6,23.99,13.21,10.43,18.23,20.77,7.542,12.33,9.887,9.961,5.904,3.815,0,0,0,0,0,0,0,0,0,0,0,0,0,0,0,0,
593,17.31,12.87,9.679,13.23,16.52,21.78,12.14,6.161,18.14,23.41,5.864,17.06,7.382,14.11,4.716,5.953,0,0,0,0,0,0,0,0,0,0,0,0,0,0,0,0,
594,8.358,6.799,-2.006,5.237,9.566,14.67,8.528,12.24,13.14,22.16,1.925,17.43,1.621,12.23,1.486,3.63,0,0,0,0,0,0,0,0,0,0,0,0,0,0,0,0,
595,1.195,4.973,-4.274,1.12,7.043,10.83,9.064,12.56,9.059,12.7,4.023,16.55,1.44,9.959,2.762,4.192,0,0,0,0,0,0,0,0,0,0,0,0,0,0,0,0,
596,3.859,8.074,0.3057,4.019,6.635,13.26,10.04,9.308,8.313,9.125,3.233,16.21,-1.022,8.387,1.617,4.977,0,0,0,0,0,0,0,0,0,0,0,0,0,0,0,0,
597,1.454,5.534,-1.633,-0.6492,-0.5829,8.967,1.15,7.33,2.441,9.157,-5.731,14.06,-9.263,3.993,-2.006,3.236,0,0,0,0,0,0,0,0,0,0,0,0,0,0,0,0,
598,-7.339,-2.077,-5.695,-9.743,-8.84,-0.6945,-4.769,2.141,-4.624,4.914,-8.013,12.79,-11.14,0.4805,-1.028,2.643,0,0,0,0,0,0,0,0,0,0,0,0,0,0,0,0,
599,-12.32,-8.227,-9.194,-13.28,-12.13,-8.029,0.8488,-3.265,-7.443,0.4427,-4.923,8.844,-10.09,-3.291,-0.9993,-0.7089,0,0,0,0,0,0,0,0,0,0,0,0,0,0,0,0,
600,-13.86,-12.23,-11.17,-14.38,-13.15,-12.43,6.551,-1.573,-10.17,-2.573,-5.208,3.699,-12.41,-7.624,-2.908,-4.866,0,0,0,0,0,0,0,0,0,0,0,0,0,0,0,0,
601,-11.02,-10.75,-4.725,-13.59,-11.55,-10.3,9.252,1.775,-10.18,-4.269,-2.556,6.506,-10.67,-6.444,-0.2422,-1.687,0,0,0,0,0,0,0,0,0,0,0,0,0,0,0,0,
602,-9.429,-7.581,-0.1546,-11.01,-11.36,-5.099,11.25,-2.095,-7.989,-2.813,1.333,11.84,-6.924,-2.373,2.58,3.122,0,0,0,0,0,0,0,0,0,0,0,0,0,0,0,0,
603,-15.38,-9.519,-5.547,-11.2,-16.49,-4.586,8.453,-3.466,-10.62,0.6636,0.5457,10.81,-7.21,-2.298,1.2,1.568,0,0,0,0,0,0,0,0,0,0,0,0,0,0,0,0,
604,-17.64,-12.27,-7.755,-16.81,-20.18,-9.478,2.472,4.692,-13.52,0.5907,-1.932,6.154,-10.08,-6.638,-3.527,-4.357,0,0,0,0,0,0,0,0,0,0,0,0,0,0,0,0,
605,-15.18,-14.88,-5.029,-25.13,-20.9,-17.5,1.282,6.099,-14.61,-6.669,-5.76,3.396,-14.42,-9.991,-8.985,-8.157,0,0,0,0,0,0,0,0,0,0,0,0,0,0,0,0,
606,-15.1,-15.16,-3.438,-22.47,-19.65,-16.5,8.806,1.835,-16.93,-9.218,-4.536,6.941,-11.74,-4.587,-5.069,-3.263,0,0,0,0,0,0,0,0,0,0,0,0,0,0,0,0,
607,-9.95,-6.043,1.492,-7.932,-12.35,-1.593,18.72,8.852,-11.29,1.385,7.279,13.31,1.697,6.017,7.028,5.602,0,0,0,0,0,0,0,0,0,0,0,0,0,0,0,0,
608,-2.712,3.278,8.616,-2.167,-4.189,10.2,22.91,14.57,2.839,11.72,17.26,15.76,13.16,13.04,13.95,10.41,0,0,0,0,0,0,0,0,0,0,0,0,0,0,0,0,
609,0.4273,6.738,16.5,-2.819,1.523,15.77,27.99,12.64,13.22,19.29,20.9,19.08,19.61,20.2,17.09,15.73,0,0,0,0,0,0,0,0,0,0,0,0,0,0,0,0,
610,8.037,12.32,25.3,4.458,8.233,21.2,35.58,19.52,19.98,29.24,22.98,23.55,23.14,25.5,17.69,19.71,0,0,0,0,0,0,0,0,0,0,0,0,0,0,0,0,
611,11.54,12.7,22.33,5.165,6.472,17.18,26.77,22.69,22.19,27.34,16.77,20.08,16.69,19.56,9.525,14.0,0,0,0,0,0,0,0,0,0,0,0,0,0,0,0,0,
612,0.4362,3.997,7.685,-5.356,-5.68,8.662,6.308,9.818,13.04,15.49,6.049,13.19,6.393,11.02,1.905,7.461,0,0,0,0,0,0,0,0,0,0,0,0,0,0,0,0,
613,-7.016,1.712,1.616,-7.383,-11.63,8.362,2.469,2.433,1.591,13.46,2.681,9.956,3.691,8.61,0.297,7.344,0,0,0,0,0,0,0,0,0,0,0,0,0,0,0,0,
614,-4.421,3.708,4.921,-4.223,-10.22,8.19,8.062,4.541,-1.372,14.72,0.9879,6.1,4.042,5.94,-3.87,6.08,0,0,0,0,0,0,0,0,0,0,0,0,0,0,0,0,
615,-5.747,-0.7016,2.67,-7.639,-10.7,4.963,3.372,2.801,0.5012,9.017,-2.272,2.875,2.273,3.587,-6.6,3.689,0,0,0,0,0,0,0,0,0,0,0,0,0,0,0,0,
616,-8.997,-2.956,-3.499,-8.896,-11.66,3.667,-0.7662,1.571,0.7554,5.184,-2.363,2.468,-2.693,2.41,-5.314,2.518,0,0,0,0,0,0,0,0,0,0,0,0,0,0,0,0,
617,-8.909,-1.054,-4.803,-8.452,-13.74,-0.5881,0.3499,2.522,-4.658,2.633,-4.929,-1.634,-11.86,-5.947,-10.49,-3.313,0,0,0,0,0,0,0,0,0,0,0,0,0,0,0,0,
618,-8.445,-2.856,-3.01,-13.89,-17.09,-6.193,-1.817,-2.287,-12.33,-3.835,-9.683,-7.961,-18.62,-16.86,-17.82,-10.89,0,0,0,0,0,0,0,0,0,0,0,0,0,0,0,0,
619,-5.547,-4.318,-1.485,-16.4,-16.27,-7.687,-2.308,-9.495,-13.96,-7.352,-8.221,-9.437,-19.18,-19.75,-16.96,-13.04,0,0,0,0,0,0,0,0,0,0,0,0,0,0,0,0,
620,-3.313,-4.323,1.37,-14.64,-13.58,-7.989,2.101,-10.13,-11.65,-7.064,-3.99,-8.686,-17.77,-18.55,-12.55,-12.41,0,0,0,0,0,0,0,0,0,0,0,0,0,0,0,0,
621,-4.508,-5.105,4.085,-14.58,-10.54,-4.028,7.995,-6.225,-9.13,-7.449,-1.229,-8.006,-13.55,-16.2,-7.077,-9.444,0,0,0,0,0,0,0,0,0,0,0,0,0,0,0,0,
622,0.1842,1.51,2.872,-9.705,-4.418,6.113,10.61,-5.315,-2.934,-2.857,1.498,-4.56,-6.555,-9.446,-0.0244,-2.819,0,0,0,0,0,0,0,0,0,0,0,0,0,0,0,0,
623,8.678,11.88,2.453,-3.981,-0.2513,12.05,7.341,-4.168,4.721,6.276,2.89,0.075,-1.909,-3.042,2.115,0.6943,0,0,0,0,0,0,0,0,0,0,0,0,0,0,0,0,
624,11.21,13.17,9.349,-5.489,1.876,11.31,12.89,1.277,10.42,9.188,5.713,4.023,1.605,-0.786,0.5697,-0.3085,0,0,0,0,0,0,0,0,0,0,0,0,0,0,0,0,
625,10.39,9.262,15.65,-5.713,4.861,9.059,27.44,3.936,14.19,8.443,9.489,5.968,3.422,-0.1489,-0.4304,-0.9531,0,0,0,0,0,0,0,0,0,0,0,0,0,0,0,0,
626,5.187,3.161,12.15,-6.502,0.0761,2.871,26.23,2.37,10.29,9.739,6.602,2.007,-0.0345,-1.655,-3.543,-2.385,0,0,0,0,0,0,0,0,0,0,0,0,0,0,0,0,
627,-3.988,-6.286,6.727,-10.72,-9.133,-3.499,17.52,0.8094,1.773,6.574,3.72,-1.744,0.4224,-1.995,-3.666,-2.213,0,0,0,0,0,0,0,0,0,0,0,0,0,0,0,0,
628,-4.312,-6.475,5.95,-3.914,-7.763,0.7669,22.43,0.8477,3.37,3.637,9.636,5.261,9.402,4.96,2.539,4.329,0,0,0,0,0,0,0,0,0,0,0,0,0,0,0,0,
629,2.436,2.925,6.192,7.067,-0.6794,9.618,28.58,8.237,13.24,12.4,14.73,15.69,14.62,13.03,5.405,9.369,0,0,0,0,0,0,0,0,0,0,0,0,0,0,0,0,
630,3.44,4.986,9.237,3.991,1.206,8.939,26.82,16.12,18.04,22.57,12.95,15.95,12.19,12.2,2.155,4.377,0,0,0,0,0,0,0,0,0,0,0,0,0,0,0,0,
631,-0.3342,0.6652,11.8,-2.99,-1.069,3.235,21.37,11.2,16.56,20.91,8.957,9.377,7.462,5.424,-2.687,-4.688,0,0,0,0,0,0,0,0,0,0,0,0,0,0,0,0,
632,-3.254,0.9684,6.407,-1.037,-4.76,3.98,17.26,6.502,13.05,15.58,6.097,8.366,3.078,3.678,-5.184,-6.482,0,0,0,0,0,0,0,0,0,0,0,0,0,0,0,0,
633,-2.875,3.112,3.508,4.035,-5.693,6.503,24.11,11.7,10.62,17.06,8.888,15.08,4.758,9.519,-0.4655,0.6242,0,0,0,0,0,0,0,0,0,0,0,0,0,0,0,0,
634,-0.0494,1.484,9.382,4.38,-2.985,5.298,30.05,15.87,13.47,21.51,15.21,20.18,11.46,14.01,5.849,7.132,0,0,0,0,0,0,0,0,0,0,0,0,0,0,0,0,
635,1.106,-0.2067,13.34,1.272,-1.401,7.532,22.97,19.75,18.57,22.28,16.95,18.56,14.12,13.47,6.618,7.683,0,0,0,0,0,0,0,0,0,0,0,0,0,0,0,0,
636,1.389,1.077,12.86,2.175,-0.6628,10.63,21.18,19.18,17.52,19.76,14.87,14.38,12.03,12.09,5.961,5.512,0,0,0,0,0,0,0,0,0,0,0,0,0,0,0,0,
637,0.637,0.5669,9.302,5.496,-0.9395,6.125,23.87,7.17,11.35,15.55,10.54,9.867,7.076,8.701,2.803,1.669,0,0,0,0,0,0,0,0,0,0,0,0,0,0,0,0,
638,-2.657,-0.5539,6.14,4.962,-3.223,3.197,16.41,3.783,8.19,10.15,3.005,5.455,-0.19,2.375,-5.039,-2.916,0,0,0,0,0,0,0,0,0,0,0,0,0,0,0,0,
639,-2.563,2.132,12.84,4.82,-3.619,5.556,10.18,8.592,6.3,6.048,-3.697,3.023,-5.921,-3.061,-11.38,-6.0,0,0,0,0,0,0,0,0,0,0,0,0,0,0,0,0,
640,0.8318,1.399,21.14,6.217,-2.696,3.351,7.503,-0.056,0.1591,4.694,-7.085,0.4686,-9.318,-6.94,-14.95,-8.896,0,0,0,0,0,0,0,0,0,0,0,0,0,0,0,0,
641,2.951,-1.281,19.49,4.904,-1.162,2.414,3.384,-4.968,-2.465,3.857,-6.255,-2.626,-10.07,-8.159,-15.4,-9.957,0,0,0,0,0,0,0,0,0,0,0,0,0,0,0,0,
642,7.935,5.048,16.67,4.426,2.869,7.535,7.815,3.807,2.176,1.261,-1.938,-1.854,-7.189,-5.551,-10.93,-6.731,0,0,0,0,0,0,0,0,0,0,0,0,0,0,0,0,
643,13.73,11.7,19.41,6.536,5.13,7.337,14.8,2.181,3.3,-1.221,0.9622,0.8011,-4.207,-3.887,-7.291,-4.275,0,0,0,0,0,0,0,0,0,0,0,0,0,0,0,0,
644,13.75,10.46,27.57,8.105,6.068,3.778,14.98,-3.652,2.04,-1.477,3.741,-0.2657,-1.853,-5.186,-6.552,-5.441,0,0,0,0,0,0,0,0,0,0,0,0,0,0,0,0,
645,13.06,10.17,36.15,10.47,9.314,6.44,16.61,3.476,6.173,-1.227,8.417,-2.0,2.711,-3.625,-3.425,-4.598,0,0,0,0,0,0,0,0,0,0,0,0,0,0,0,0,
646,15.38,12.25,33.62,15.01,10.02,11.66,19.17,10.57,10.27,1.836,10.6,0.2717,9.699,3.071,3.247,1.084,0,0,0,0,0,0,0,0,0,0,0,0,0,0,0,0,
647,16.28,13.56,27.48,17.42,8.027,13.99,18.07,9.635,13.44,8.025,10.99,1.799,15.31,7.107,9.163,5.559,0,0,0,0,0,0,0,0,0,0,0,0,0,0,0,0,
648,12.79,12.92,29.15,13.9,6.123,10.64,15.4,6.261,16.56,6.769,11.41,0.743,14.89,6.023,11.47,6.934,0,0,0,0,0,0,0,0,0,0,0,0,0,0,0,0,
649,6.285,6.497,27.02,9.938,1.662,4.221,12.18,4.487,12.57,1.091,12.11,5.843,15.19,10.02,15.19,12.99,0,0,0,0,0,0,0,0,0,0,0,0,0,0,0,0,
650,3.406,1.402,21.64,11.2,-1.265,3.409,13.71,7.041,9.522,4.686,15.51,13.92,21.66,16.58,20.39,20.01,0,0,0,0,0,0,0,0,0,0,0,0,0,0,0,0,
651,5.335,3.528,24.82,11.19,-0.9952,3.565,17.75,8.148,13.56,7.686,15.27,10.25,20.6,11.66,16.3,16.14,0,0,0,0,0,0,0,0,0,0,0,0,0,0,0,0,
652,4.01,2.635,24.97,5.826,-4.7,-4.04,15.21,4.36,9.879,-0.1882,8.604,0.7197,11.19,2.607,7.598,9.966,0,0,0,0,0,0,0,0,0,0,0,0,0,0,0,0,
653,0.8965,-3.778,17.47,0.0342,-8.689,-11.0,11.85,2.332,2.045,-5.414,7.002,-0.0249,9.66,2.057,6.92,10.87,0,0,0,0,0,0,0,0,0,0,0,0,0,0,0,0,
654,1.591,-8.296,18.34,-4.336,-7.591,-11.04,10.17,3.356,3.887,-2.993,9.583,1.537,10.63,2.697,7.247,8.469,0,0,0,0,0,0,0,0,0,0,0,0,0,0,0,0,
655,0.5061,-9.749,23.83,-4.978,-8.461,-9.728,3.179,4.713,4.73,-1.648,5.725,-1.799,5.509,0.1874,3.256,2.257,0,0,0,0,0,0,0,0,0,0,0,0,0,0,0,0,
656,-3.745,-8.378,20.01,-1.829,-12.55,-8.704,-2.152,4.316,0.3778,-3.061,-1.692,-3.876,2.173,-1.563,1.155,0.1984,0,0,0,0,0,0,0,0,0,0,0,0,0,0,0,0,
657,-3.706,-5.842,16.24,-0.8136,-12.29,-7.108,2.054,2.592,-0.225,-4.407,-4.709,-4.102,0.8004,-3.358,0.2289,-1.671,0,0,0,0,0,0,0,0,0,0,0,0,0,0,0,0,
658,1.983,-4.549,22.11,0.7057,-6.483,-4.963,10.22,5.591,0.6261,-1.779,-0.5256,-4.435,0.4645,-2.733,0.3831,-2.723,0,0,0,0,0,0,0,0,0,0,0,0,0,0,0,0,
659,7.618,-2.088,25.5,4.461,-1.757,-1.91,14.63,8.966,3.177,3.356,5.038,-2.644,3.112,-0.138,1.362,-1.572,0,0,0,0,0,0,0,0,0,0,0,0,0,0,0,0,
660,7.537,0.7391,20.53,3.568,-3.259,-0.8726,12.16,4.04,5.436,3.755,4.07,-1.885,1.309,-2.195,-2.388,-5.484,0,0,0,0,0,0,0,0,0,0,0,0,0,0,0,0,
661,4.478,0.8891,17.72,2.776,-5.574,-1.046,8.371,1.482,0.6283,2.329,1.916,-3.918,-2.599,-5.084,-6.133,-9.147,0,0,0,0,0,0,0,0,0,0,0,0,0,0,0,0,
662,6.422,1.248,17.82,6.836,-2.713,1.883,7.23,8.875,-0.2632,3.58,1.907,-3.486,-2.537,-4.183,-5.803,-5.957,0,0,0,0,0,0,0,0,0,0,0,0,0,0,0,0,
663,10.47,3.973,13.83,7.511,-0.7283,4.416,4.135,12.52,4.591,3.677,-2.132,-0.9462,-5.978,-3.764,-7.588,-4.606,0,0,0,0,0,0,0,0,0,0,0,0,0,0,0,0,
664,9.692,6.178,8.512,5.704,-2.824,2.77,3.717,8.663,0.5915,3.731,-5.469,-1.29,-10.36,-3.165,-8.91,-6.168,0,0,0,0,0,0,0,0,0,0,0,0,0,0,0,0,
665,6.714,4.951,6.851,5.815,-3.884,-0.235,9.556,10.19,-4.777,4.075,-4.973,-2.766,-9.078,-1.382,-7.162,-5.191,0,0,0,0,0,0,0,0,0,0,0,0,0,0,0,0,
666,2.803,-0.1168,8.209,2.607,-5.732,-3.232,6.754,14.4,-5.332,-0.1895,-8.58,-1.877,-9.758,-3.043,-8.785,-5.131,0,0,0,0,0,0,0,0,0,0,0,0,0,0,0,0,
667,-4.138,-7.365,4.761,-3.489,-11.55,-6.65,-6.204,8.985,-12.05,-6.104,-13.65,-1.428,-13.0,-7.662,-11.69,-6.662,0,0,0,0,0,0,0,0,0,0,0,0,0,0,0,0,
668,-8.807,-12.45,-7.379,-6.91,-15.9,-10.08,-9.155,2.435,-17.77,-9.925,-14.41,-3.046,-14.89,-11.39,-11.66,-6.192,0,0,0,0,0,0,0,0,0,0,0,0,0,0,0,0,
669,-7.645,-10.96,-12.4,-5.837,-15.35,-11.87,-4.092,4.231,-15.28,-11.99,-14.46,-3.257,-18.56,-12.57,-11.28,-4.224,0,0,0,0,0,0,0,0,0,0,0,0,0,0,0,0,
670,-6.949,-7.405,-5.359,-2.692,-14.24,-9.645,-9.396,5.189,-15.36,-10.94,-15.15,-2.508,-20.7,-11.51,-10.26,-2.725,0,0,0,0,0,0,0,0,0,0,0,0,0,0,0,0,
671,-8.614,-8.169,-5.652,-2.187,-15.69,-6.577,-15.64,4.733,-17.27,-10.15,-16.33,-3.325,-19.5,-10.89,-9.778,-3.115,0,0,0,0,0,0,0,0,0,0,0,0,0,0,0,0,
672,-6.49,-6.651,-11.0,0.6777,-16.2,-5.778,-10.36,8.204,-16.16,-9.716,-18.24,-2.954,-19.51,-10.04,-11.08,-3.113,0,0,0,0,0,0,0,0,0,0,0,0,0,0,0,0,
673,-2.104,0.2512,-6.934,7.852,-13.15,-3.737,-8.849,8.466,-15.47,-2.807,-17.66,-0.038,-17.86,-7.18,-9.599,-0.3146,0,0,0,0,0,0,0,0,0,0,0,0,0,0,0,0,
674,-2.212,1.53,-2.452,4.59,-10.83,-3.416,-11.43,6.61,-12.77,2.474,-14.91,1.963,-13.69,-6.517,-7.901,-0.027,0,0,0,0,0,0,0,0,0,0,0,0,0,0,0,0,
675,-5.505,-4.845,-2.258,-6.155,-12.96,-9.242,-5.465,8.701,-9.565,-3.766,-13.16,1.234,-12.18,-8.915,-11.46,-4.718,0,0,0,0,0,0,0,0,0,0,0,0,0,0,0,0,
676,-9.258,-10.79,-2.886,-5.425,-17.44,-12.25,-5.872,8.46,-12.33,-8.843,-12.07,0.1348,-12.19,-8.714,-13.59,-7.525,0,0,0,0,0,0,0,0,0,0,0,0,0,0,0,0,
677,-12.52,-12.59,-8.953,1.647,-19.75,-7.819,-12.94,6.362,-15.82,-4.957,-9.606,2.125,-10.57,-5.042,-9.219,-5.856,0,0,0,0,0,0,0,0,0,0,0,0,0,0,0,0,
678,-10.06,-7.784,-11.06,4.414,-16.17,-3.322,-5.822,9.747,-14.2,-1.874,-6.189,4.654,-7.691,-2.245,-4.862,-5.042,0,0,0,0,0,0,0,0,0,0,0,0,0,0,0,0,
679,-2.842,-0.6299,-2.573,5.746,-10.11,-1.748,1.171,14.65,-10.63,-0.3913,-4.964,2.397,-4.877,-3.248,-4.178,-7.166,0,0,0,0,0,0,0,0,0,0,0,0,0,0,0,0,
680,-0.1223,-1.064,-1.332,3.071,-9.076,-3.74,-1.938,14.06,-7.115,1.633,-3.358,-0.2166,-1.899,-6.195,-2.556,-7.152,0,0,0,0,0,0,0,0,0,0,0,0,0,0,0,0,
681,-3.15,-6.831,-8.793,-3.982,-11.04,-8.595,3.153,7.544,-3.624,-1.787,2.264,1.686,1.581,-6.512,0.2921,-3.252,0,0,0,0,0,0,0,0,0,0,0,0,0,0,0,0,
682,-5.838,-9.439,-9.542,-7.734,-11.29,-9.889,4.735,0.8825,-3.878,-6.15,2.559,1.688,-0.0559,-4.808,-1.615,-2.152,0,0,0,0,0,0,0,0,0,0,0,0,0,0,0,0,
683,-4.38,-6.759,-9.572,-5.63,-11.28,-6.647,-7.967,0.3501,-9.487,-4.451,-3.882,-2.119,-4.768,-3.889,-4.207,-4.459,0,0,0,0,0,0,0,0,0,0,0,0,0,0,0,0,
684,1.252,-0.3819,-14.93,0.7274,-8.569,-2.799,-9.746,3.823,-9.759,-2.396,-1.68,-3.268,0.0521,-2.144,0.4909,-3.559,0,0,0,0,0,0,0,0,0,0,0,0,0,0,0,0,
685,4.346,2.256,-13.92,2.845,-3.87,-0.2988,-1.415,6.193,-0.4856,-1.187,4.319,-3.078,5.718,-1.456,2.724,-3.324,0,0,0,0,0,0,0,0,0,0,0,0,0,0,0,0,
686,-0.1692,-3.619,-7.795,-6.193,-5.881,-2.502,-5.457,5.047,1.551,0.8582,-1.48,-4.8,-2.099,-5.112,-4.326,-8.167,0,0,0,0,0,0,0,0,0,0,0,0,0,0,0,0,
687,-3.996,-8.481,-8.884,-14.13,-10.09,-7.273,-12.94,0.3814,-4.997,-1.956,-7.508,-4.242,-7.815,-7.22,-6.929,-8.649,0,0,0,0,0,0,0,0,0,0,0,0,0,0,0,0,
688,-1.044,-6.454,-13.26,-11.36,-7.764,-7.917,-9.967,-0.9437,-4.077,-7.038,-3.583,-1.739,-3.284,-5.265,-2.709,-2.948,0,0,0,0,0,0,0,0,0,0,0,0,0,0,0,0,
689,1.954,-4.627,-11.39,-6.805,-5.667,-6.149,-7.112,3.863,-2.35,-8.353,-2.27,-2.868,-3.692,-6.91,-3.608,-2.667,0,0,0,0,0,0,0,0,0,0,0,0,0,0,0,0,T2
690,2.567,-4.072,-6.739,-5.518,-5.723,-5.03,-11.29,5.779,-6.086,-9.159,-5.766,-6.258,-6.805,-11.47,-7.791,-8.22,0,0,0,0,0,0,0,0,0,0,0,0,0,0,0,0,
691,3.712,-0.335,-6.097,-4.662,-2.886,-2.543,-10.55,3.334,-4.16,-8.741,-6.204,-7.481,-4.867,-11.01,-9.826,-10.5,0,0,0,0,0,0,0,0,0,0,0,0,0,0,0,0,
692,3.32,2.597,-8.521,-4.411,-3.292,-0.0449,-3.841,2.891,-2.882,-5.625,-7.179,-6.793,-6.63,-8.499,-12.04,-8.858,0,0,0,0,0,0,0,0,0,0,0,0,0,0,0,0,
693,2.084,1.402,-10.55,-4.392,-8.027,0.1664,-4.693,1.341,-9.356,-5.879,-10.29,-5.613,-11.06,-9.568,-12.82,-7.514,0,0,0,0,0,0,0,0,0,0,0,0,0,0,0,0,
694,1.776,0.0175,-12.07,-4.371,-8.541,-0.5881,-5.558,-3.825,-10.81,-8.232,-9.852,-5.449,-9.149,-10.94,-11.2,-8.773,0,0,0,0,0,0,0,0,0,0,0,0,0,0,0,0,
695,-1.264,-2.073,-12.69,-6.994,-7.213,-2.988,3.023,-6.418,-6.353,-8.79,-8.107,-9.221,-7.114,-13.14,-12.02,-14.11,0,0,0,0,0,0,0,0,0,0,0,0,0,0,0,0,
696,-5.508,-7.346,-11.97,-10.7,-10.36,-8.319,3.182,-4.862,-6.879,-13.14,-10.65,-14.56,-11.64,-19.35,-15.5,-19.91,0,0,0,0,0,0,0,0,0,0,0,0,0,0,0,0,
697,-7.116,-11.2,-15.0,-11.17,-15.69,-12.88,-7.515,-4.209,-12.73,-19.48,-13.85,-13.71,-15.1,-21.22,-15.73,-18.77,0,0,0,0,0,0,0,0,0,0,0,0,0,0,0,0,
698,-8.914,-11.58,-22.34,-11.0,-19.32,-13.86,-9.768,-7.4,-17.19,-17.94,-11.55,-8.495,-13.09,-15.62,-11.11,-12.83,0,0,0,0,0,0,0,0,0,0,0,0,0,0,0,0,
699,-10.82,-11.7,-24.36,-13.07,-20.78,-14.82,-6.604,-10.67,-17.48,-14.79,-8.598,-9.518,-14.66,-15.96,-8.961,-12.73,0,0,0,0,0,0,0,0,0,0,0,0,0,0,0,0,
700,-11.94,-12.72,-22.99,-13.56,-23.64,-19.1,-9.309,-8.733,-21.14,-23.0,-13.28,-15.22,-22.57,-24.15,-13.53,-18.47,0,0,0,0,0,0,0,0,0,0,0,0,0,0,0,0,
701,-16.58,-16.63,-27.21,-13.56,-28.64,-24.02,-10.65,-6.29,-29.07,-33.33,-18.6,-15.21,-25.78,-26.05,-17.03,-19.82,0,0,0,0,0,0,0,0,0,0,0,0,0,0,0,0,
702,-21.41,-20.77,-28.03,-15.95,-30.07,-24.74,-4.94,-9.909,-29.39,-29.56,-15.86,-11.31,-23.48,-21.8,-16.26,-17.16,0,0,0,0,0,0,0,0,0,0,0,0,0,0,0,0,
703,-20.05,-18.05,-23.59,-16.01,-29.49,-21.96,-5.165,-12.82,-27.0,-20.85,-15.52,-11.65,-25.79,-22.89,-18.8,-18.72,0,0,0,0,0,0,0,0,0,0,0,0,0,0,0,0,
704,-17.31,-14.34,-27.91,-14.71,-31.31,-20.74,-16.94,-8.354,-31.45,-22.21,-21.54,-14.23,-29.14,-26.44,-23.15,-22.05,0,0,0,0,0,0,0,0,0,0,0,0,0,0,0,0,
705,-17.95,-17.06,-31.89,-17.79,-30.08,-21.89,-19.36,-4.777,-31.24,-24.83,-21.86,-14.8,-27.42,-24.24,-23.79,-22.63,0,0,0,0,0,0,0,0,0,0,0,0,0,0,0,0,
706,-21.02,-20.02,-27.3,-21.55,-28.36,-23.88,-10.54,-9.596,-27.45,-21.71,-22.1,-16.1,-29.09,-22.27,-26.32,-24.56,0,0,0,0,0,0,0,0,0,0,0,0,0,0,0,0,
707,-26.62,-21.05,-31.22,-20.3,-33.72,-25.44,-14.39,-14.99,-32.86,-22.32,-29.51,-17.85,-33.51,-25.18,-29.82,-27.31,0,0,0,0,0,0,0,0,0,0,0,0,0,0,0,0,
708,-30.39,-22.34,-36.7,-15.03,-35.3,-22.66,-19.56,-13.65,-34.75,-23.81,-29.24,-16.77,-30.29,-25.34,-27.75,-27.31,0,0,0,0,0,0,0,0,0,0,0,0,0,0,0,0,
709,-28.37,-21.06,-29.62,-13.02,-28.11,-18.77,-9.578,-12.13,-26.17,-18.95,-22.8,-16.12,-27.36,-22.83,-27.59,-28.13,0,0,0,0,0,0,0,0,0,0,0,0,0,0,0,0,
710,-26.62,-20.89,-28.93,-19.08,-26.52,-20.63,-8.764,-13.72,-25.49,-16.76,-24.48,-15.98,-31.5,-23.28,-30.82,-27.99,0,0,0,0,0,0,0,0,0,0,0,0,0,0,0,0,
711,-26.91,-24.91,-34.22,-24.37,-29.43,-22.31,-18.95,-10.55,-31.43,-18.19,-23.67,-10.76,-28.22,-20.88,-24.73,-21.04,0,0,0,0,0,0,0,0,0,0,0,0,0,0,0,0,
712,-23.12,-25.88,-26.2,-22.83,-25.32,-19.77,-14.93,-3.221,-26.26,-14.49,-13.5,-6.092,-15.69,-14.78,-13.37,-13.84,0,0,0,0,0,0,0,0,0,0,0,0,0,0,0,0,
713,-18.87,-23.64,-19.98,-23.53,-21.17,-21.53,-7.79,-4.17,-15.78,-12.87,-8.703,-9.809,-10.92,-15.87,-11.01,-14.71,0,0,0,0,0,0,0,0,0,0,0,0,0,0,0,0,
714,-21.22,-24.75,-26.71,-28.84,-24.36,-27.27,-12.79,-14.12,-15.73,-20.44,-11.81,-13.58,-14.36,-21.1,-13.47,-18.12,0,0,0,0,0,0,0,0,0,0,0,0,0,0,0,0,
715,-23.45,-25.6,-27.27,-29.29,-25.51,-25.75,-12.15,-15.37,-21.28,-23.8,-12.02,-8.866,-12.72,-17.34,-10.47,-15.66,0,0,0,0,0,0,0,0,0,0,0,0,0,0,0,0,
716,-18.92,-22.02,-19.14,-22.84,-20.47,-16.76,-2.074,-5.747,-19.21,-13.79,-8.64,-3.811,-7.894,-9.872,-7.238,-11.54,0,0,0,0,0,0,0,0,0,0,0,0,0,0,0,0,
717,-16.49,-19.68,-19.28,-17.58,-19.66,-12.92,-2.792,-6.341,-14.82,-5.69,-9.738,-6.671,-10.53,-11.63,-11.67,-13.49,0,0,0,0,0,0,0,0,0,0,0,0,0,0,0,0,
718,-21.38,-21.87,-27.92,-18.42,-25.17,-17.23,-11.94,-15.2,-19.09,-12.33,-15.61,-10.81,-17.64,-17.53,-17.73,-17.2,0,0,0,0,0,0,0,0,0,0,0,0,0,0,0,0,
719,-23.39,-25.66,-28.78,-22.08,-27.31,-20.01,-13.44,-16.53,-25.47,-21.55,-18.76,-10.13,-21.1,-19.35,-20.3,-18.16,0,0,0,0,0,0,0,0,0,0,0,0,0,0,0,0,
720,-18.74,-27.2,-20.0,-23.52,-25.95,-20.54,-12.08,-18.82,-27.38,-21.49,-18.61,-8.262,-20.74,-18.83,-21.76,-17.33,0,0,0,0,0,0,0,0,0,0,0,0,0,0,0,0,
721,-15.66,-22.16,-17.13,-18.42,-24.64,-21.35,-12.02,-21.5,-26.49,-15.87,-17.36,-6.005,-16.55,-14.44,-18.15,-10.86,0,0,0,0,0,0,0,0,0,0,0,0,0,0,0,0,
722,-14.13,-13.65,-19.69,-7.749,-20.19,-16.06,-7.52,-13.99,-20.42,-9.232,-14.33,-3.605,-11.94,-8.977,-11.46,-3.243,0,0,0,0,0,0,0,0,0,0,0,0,0,0,0,0,
723,-8.584,-9.604,-16.63,-0.9154,-16.18,-6.083,-5.767,-8.115,-14.07,-5.107,-13.18,-3.435,-11.55,-9.017,-10.36,-2.142,0,0,0,0,0,0,0,0,0,0,0,0,0,0,0,0,
724,-5.026,-8.695,-15.14,-0.788,-16.3,0.3304,-10.31,-5.975,-12.92,-3.598,-13.43,-1.536,-8.714,-7.167,-8.74,0.8445,0,0,0,0,0,0,0,0,0,0,0,0,0,0,0,0,
725,-9.539,-9.082,-19.29,-1.736,-15.91,0.0522,-13.17,-2.377,-11.48,-1.812,-12.79,-0.2821,-5.979,-4.162,-5.846,3.736,0,0,0,0,0,0,0,0,0,0,0,0,0,0,0,0,
726,-11.91,-12.44,-18.98,-0.8944,-17.33,-6.952,-15.92,-7.385,-14.46,-5.037,-17.43,-6.537,-14.4,-11.3,-11.46,-4.338,0,0,0,0,0,0,0,0,0,0,0,0,0,0,0,0,
727,-4.288,-12.7,-16.89,5.272,-21.32,-12.11,-19.94,-13.57,-23.82,-12.28,-24.36,-11.99,-22.79,-18.85,-17.88,-12.6,0,0,0,0,0,0,0,0,0,0,0,0,0,0,0,0,
728,1.714,-7.501,-20.93,13.06,-20.97,-10.46,-20.9,-11.95,-25.86,-14.35,-25.81,-12.42,-21.99,-18.61,-19.84,-15.79,0,0,0,0,0,0,0,0,0,0,0,0,0,0,0,0,
729,-1.961,-3.309,-26.26,11.97,-20.43,-11.31,-22.68,-11.67,-23.74,-14.17,-26.72,-14.36,-21.39,-17.77,-23.46,-20.94,0,0,0,0,0,0,0,0,0,0,0,0,0,0,0,0,
730,-5.389,-2.054,-26.88,8.021,-22.1,-13.66,-28.59,-8.842,-24.51,-13.2,-27.48,-12.9,-19.44,-12.9,-22.6,-20.87,0,0,0,0,0,0,0,0,0,0,0,0,0,0,0,0,
731,-3.55,-3.245,-24.28,9.502,-18.81,-11.72,-32.07,-5.12,-19.86,-8.673,-25.69,-7.733,-15.98,-6.488,-18.94,-17.29,0,0,0,0,0,0,0,0,0,0,0,0,0,0,0,0,
732,-2.791,-4.963,-25.67,9.065,-16.95,-11.69,-28.44,-9.743,-17.1,-8.297,-27.83,-7.486,-19.82,-7.77,-21.34,-19.67,0,0,0,0,0,0,0,0,0,0,0,0,0,0,0,0,
733,-1.98,-2.783,-31.31,6.866,-19.66,-10.66,-25.55,-10.47,-23.49,-10.31,-29.4,-6.191,-21.32,-6.854,-18.88,-18.28,0,0,0,0,0,0,0,0,0,0,0,0,0,0,0,0,
734,3.575,0.6073,-29.42,9.975,-14.46,-5.387,-28.94,-7.542,-23.3,-6.132,-23.11,-1.892,-14.29,-1.985,-9.897,-12.2,0,0,0,0,0,0,0,0,0,0,0,0,0,0,0,0,
735,6.567,-0.2214,-24.18,12.59,-7.235,-7.399,-27.48,-10.8,-16.45,-3.603,-18.92,-4.55,-12.84,-5.31,-8.865,-13.42,0,0,0,0,0,0,0,0,0,0,0,0,0,0,0,0,
736,-0.1168,-5.319,-29.66,7.275,-10.99,-14.13,-21.89,-9.112,-17.63,-8.133,-22.14,-9.777,-18.22,-11.51,-12.38,-17.45,0,0,0,0,0,0,0,0,0,0,0,0,0,0,0,0,
737,-8.287,-11.8,-35.65,-0.8357,-16.58,-14.42,-30.29,-7.735,-24.06,-13.24,-26.64,-10.4,-21.61,-14.02,-14.27,-19.23,0,0,0,0,0,0,0,0,0,0,0,0,0,0,0,0,
738,-9.661,-14.22,-33.46,-0.5329,-16.96,-13.73,-43.91,-19.19,-28.37,-15.2,-30.14,-11.66,-23.94,-16.27,-17.72,-21.51,0,0,0,0,0,0,0,0,0,0,0,0,0,0,0,0,
739,-8.732,-11.08,-33.62,7.852,-15.75,-15.26,-41.06,-24.73,-27.77,-13.36,-29.4,-14.8,-24.16,-16.71,-17.56,-21.56,0,0,0,0,0,0,0,0,0,0,0,0,0,0,0,0,
740,-10.74,-8.622,-36.65,10.35,-14.49,-15.9,-32.56,-18.05,-23.17,-13.64,-24.01,-17.03,-21.45,-17.39,-13.03,-21.22,0,0,0,0,0,0,0,0,0,0,0,0,0,0,0,0,
741,-14.23,-9.715,-39.86,5.603,-17.81,-18.04,-35.19,-18.87,-24.35,-19.99,-22.48,-18.35,-21.61,-20.59,-12.61,-24.01,0,0,0,0,0,0,0,0,0,0,0,0,0,0,0,0,
742,-16.25,-12.38,-43.9,4.785,-22.68,-17.98,-41.71,-24.64,-30.39,-21.61,-25.8,-16.44,-23.39,-19.68,-15.11,-23.79,0,0,0,0,0,0,0,0,0,0,0,0,0,0,0,0,
743,-17.1,-15.92,-42.47,3.866,-20.82,-13.06,-42.71,-20.46,-30.65,-16.05,-27.01,-12.16,-22.22,-15.21,-15.41,-17.87,0,0,0,0,0,0,0,0,0,0,0,0,0,0,0,0,
744,-20.06,-17.98,-41.86,-0.9082,-18.87,-11.03,-38.5,-14.49,-27.72,-13.7,-25.61,-11.16,-20.32,-13.18,-14.63,-11.79,0,0,0,0,0,0,0,0,0,0,0,0,0,0,0,0,
745,-23.35,-16.19,-48.72,3.538,-19.54,-11.01,-33.62,-16.04,-23.64,-13.24,-24.69,-10.43,-20.22,-12.42,-15.58,-9.872,0,0,0,0,0,0,0,0,0,0,0,0,0,0,0,0,
746,-20.84,-13.53,-48.67,13.07,-16.1,-8.262,-33.1,-14.21,-19.09,-10.8,-25.28,-4.549,-22.92,-11.44,-18.94,-11.56,0,0,0,0,0,0,0,0,0,0,0,0,0,0,0,0,
747,-15.83,-14.34,-41.08,7.378,-14.46,-9.739,-34.74,-7.653,-24.26,-10.98,-26.84,-2.878,-26.6,-11.87,-21.17,-13.46,0,0,0,0,0,0,0,0,0,0,0,0,0,0,0,0,
748,-16.92,-17.94,-42.01,-4.55,-17.87,-15.88,-33.21,-10.0,-31.95,-14.37,-26.66,-8.652,-24.69,-12.64,-18.98,-13.24,0,0,0,0,0,0,0,0,0,0,0,0,0,0,0,0,
749,-19.94,-18.03,-47.49,0.2621,-17.59,-14.13,-28.01,-14.67,-26.67,-15.23,-21.93,-5.437,-17.25,-8.843,-13.31,-8.801,0,0,0,0,0,0,0,0,0,0,0,0,0,0,0,0,
750,-16.38,-13.21,-44.28,11.52,-13.72,-5.221,-22.24,-9.37,-18.51,-8.58,-16.69,2.694,-13.61,-2.396,-8.775,-3.676,0,0,0,0,0,0,0,0,0,0,0,0,0,0,0,0,
751,-14.37,-13.19,-39.61,7.98,-13.78,-5.254,-23.59,-5.864,-19.26,-1.399,-19.41,-3.22,-17.34,-3.515,-10.95,-6.286,0,0,0,0,0,0,0,0,0,0,0,0,0,0,0,0,
752,-22.86,-21.09,-48.22,-1.345,-19.51,-15.19,-31.99,-12.01,-24.3,-5.05,-25.54,-9.589,-20.66,-8.797,-14.22,-9.98,0,0,0,0,0,0,0,0,0,0,0,0,0,0,0,0,
753,-31.2,-27.97,-59.91,-3.433,-26.18,-22.4,-34.49,-19.02,-29.27,-12.7,-23.46,-4.072,-17.99,-8.213,-9.789,-5.426,0,0,0,0,0,0,0,0,0,0,0,0,0,0,0,0,
754,-32.52,-31.78,-55.55,-6.826,-29.17,-26.74,-31.15,-22.64,-31.65,-16.91,-18.91,-2.813,-14.51,-7.404,-4.799,-1.369,0,0,0,0,0,0,0,0,0,0,0,0,0,0,0,0,
755,-33.09,-33.79,-47.01,-11.63,-29.11,-29.42,-30.98,-20.39,-31.42,-21.66,-19.27,-5.107,-13.49,-8.102,-3.618,0.5734,0,0,0,0,0,0,0,0,0,0,0,0,0,0,0,0,
756,-31.39,-31.46,-48.57,-8.03,-26.54,-25.52,-27.99,-14.16,-30.49,-21.79,-15.45,-1.456,-9.983,-3.561,2.663,8.257,0,0,0,0,0,0,0,0,0,0,0,0,0,0,0,0,
757,-25.75,-27.15,-43.86,-1.259,-20.36,-20.08,-16.21,-11.86,-26.1,-15.93,-3.14,3.405,-1.38,4.08,14.97,17.84,0,0,0,0,0,0,0,0,0,0,0,0,0,0,0,0,
758,-20.01,-20.2,-29.23,5.541,-13.17,-14.08,-3.608,-8.105,-17.96,-10.01,9.888,11.2,7.895,12.4,24.33,24.17,0,0,0,0,0,0,0,0,0,0,0,0,0,0,0,0,
759,-13.89,-11.08,-26.48,12.38,-10.25,-6.182,-3.217,-2.831,-11.85,-2.461,12.17,13.57,7.077,12.85,20.56,20.42,0,0,0,0,0,0,0,0,0,0,0,0,0,0,0,0,
760,-14.26,-11.53,-35.29,8.366,-14.92,-8.962,-15.09,-10.75,-15.27,-3.918,-1.526,-0.9733,-6.851,-2.841,4.54,3.933,0,0,0,0,0,0,0,0,0,0,0,0,0,0,0,0,
761,-23.69,-18.51,-38.97,-1.133,-21.7,-19.0,-20.81,-22.09,-27.71,-19.05,-15.96,-12.7,-18.1,-16.75,-6.618,-8.035,0,0,0,0,0,0,0,0,0,0,0,0,0,0,0,0,
762,-27.58,-19.82,-40.69,-4.539,-23.97,-22.77,-20.51,-23.16,-36.13,-27.58,-20.3,-15.36,-21.81,-21.3,-10.63,-12.03,0,0,0,0,0,0,0,0,0,0,0,0,0,0,0,0,
763,-25.7,-23.59,-46.48,-11.54,-26.65,-27.6,-30.88,-30.84,-39.23,-30.31,-26.17,-24.88,-30.54,-31.4,-18.34,-20.28,0,0,0,0,0,0,0,0,0,0,0,0,0,0,0,0,
764,-28.78,-31.19,-50.43,-18.87,-31.81,-31.32,-38.29,-44.42,-46.8,-36.68,-33.25,-28.71,-38.7,-37.24,-21.74,-22.25,0,0,0,0,0,0,0,0,0,0,0,0,0,0,0,0,
765,-31.97,-29.16,-53.43,-13.25,-33.5,-25.9,-32.27,-39.66,-50.98,-34.97,-32.79,-20.5,-36.58,-30.17,-17.08,-14.27,0,0,0,0,0,0,0,0,0,0,0,0,0,0,0,0,
766,-32.04,-23.06,-55.41,-6.453,-33.11,-25.74,-33.59,-23.25,-46.93,-30.93,-32.15,-19.19,-33.6,-26.93,-15.46,-12.67,0,0,0,0,0,0,0,0,0,0,0,0,0,0,0,0,
767,-32.45,-24.44,-52.07,-8.115,-33.71,-31.99,-41.36,-19.3,-46.8,-34.02,-33.23,-21.05,-34.03,-27.53,-15.43,-14.91,0,0,0,0,0,0,0,0,0,0,0,0,0,0,0,0,
768,-32.4,-29.09,-53.07,-11.98,-34.69,-32.07,-38.02,-27.89,-49.34,-34.47,-30.4,-18.4,-33.46,-25.21,-13.99,-14.05,0,0,0,0,0,0,0,0,0,0,0,0,0,0,0,0,
769,-31.53,-29.64,-57.31,-12.77,-34.55,-29.32,-26.86,-31.68,-45.8,-35.15,-24.39,-18.01,-28.72,-22.66,-11.33,-11.96,0,0,0,0,0,0,0,0,0,0,0,0,0,0,0,0,
770,-27.97,-25.01,-50.9,-6.586,-28.92,-24.82,-18.18,-25.89,-37.82,-32.56,-14.75,-13.54,-17.48,-13.35,-2.196,-4.157,0,0,0,0,0,0,0,0,0,0,0,0,0,0,0,0,
771,-26.84,-25.19,-47.65,-4.803,-24.55,-22.66,-22.32,-24.54,-29.95,-19.96,-9.739,-6.461,-11.94,-4.914,3.937,2.199,0,0,0,0,0,0,0,0,0,0,0,0,0,0,0,0,
772,-38.28,-37.49,-57.85,-18.78,-33.2,-33.6,-35.82,-27.93,-31.05,-21.96,-16.78,-9.483,-19.69,-10.82,-0.8694,-1.839,0,0,0,0,0,0,0,0,0,0,0,0,0,0,0,0,
773,-49.79,-46.79,-61.76,-28.31,-43.08,-42.96,-36.34,-23.02,-41.01,-36.38,-19.13,-12.32,-21.61,-14.38,-2.334,-4.028,0,0,0,0,0,0,0,0,0,0,0,0,0,0,0,0,
774,-46.33,-42.44,-57.38,-22.6,-39.24,-36.71,-28.14,-18.63,-41.8,-31.56,-11.19,-7.526,-13.06,-8.86,0.2004,-1.879,0,0,0,0,0,0,0,0,0,0,0,0,0,0,0,0,
775,-40.67,-37.93,-57.01,-21.29,-32.22,-30.67,-31.02,-25.67,-32.47,-21.97,-11.01,-8.625,-11.93,-10.34,-4.616,-5.355,0,0,0,0,0,0,0,0,0,0,0,0,0,0,0,0,
776,-43.09,-40.22,-56.47,-26.19,-32.78,-33.28,-34.36,-32.22,-30.96,-26.27,-16.9,-14.72,-15.44,-14.21,-8.435,-8.321,0,0,0,0,0,0,0,0,0,0,0,0,0,0,0,0,
777,-44.68,-41.08,-52.73,-23.81,-33.67,-35.69,-29.19,-27.94,-34.71,-27.19,-15.89,-13.88,-12.68,-11.23,-4.438,-4.584,0,0,0,0,0,0,0,0,0,0,0,0,0,0,0,0,
778,-42.64,-38.74,-48.07,-18.54,-30.2,-34.79,-28.71,-17.49,-31.52,-24.16,-11.62,-8.251,-9.477,-7.872,-0.497,0.0091,0,0,0,0,0,0,0,0,0,0,0,0,0,0,0,0,
779,-42.36,-35.62,-43.73,-14.56,-27.78,-30.45,-31.63,-12.0,-27.26,-24.17,-7.35,-4.003,-8.944,-5.653,0.5887,2.163,0,0,0,0,0,0,0,0,0,0,0,0,0,0,0,0,
780,-40.6,-30.25,-41.19,-7.151,-25.67,-23.96,-24.3,-14.82,-26.41,-19.16,-3.064,-2.094,-7.9,-4.633,-0.2984,1.132,0,0,0,0,0,0,0,0,0,0,0,0,0,0,0,0,
781,-33.12,-25.51,-35.21,-3.856,-20.44,-21.35,-11.57,-17.97,-22.89,-15.31,-4.615,-2.961,-7.843,-7.229,-2.85,-1.935,0,0,0,0,0,0,0,0,0,0,0,0,0,0,0,0,
782,-27.28,-25.59,-28.1,-10.01,-18.94,-23.56,-11.54,-18.65,-19.43,-19.71,-10.3,-5.872,-9.466,-10.06,-4.578,-3.722,0,0,0,0,0,0,0,0,0,0,0,0,0,0,0,0,
783,-27.83,-26.37,-31.09,-11.89,-23.1,-27.01,-25.63,-18.51,-21.22,-23.67,-13.61,-9.627,-13.45,-13.93,-8.18,-6.72,0,0,0,0,0,0,0,0,0,0,0,0,0,0,0,0,
784,-28.97,-25.73,-37.45,-6.411,-24.38,-30.06,-34.82,-19.53,-25.12,-25.73,-16.5,-13.69,-20.23,-19.84,-14.99,-11.6,0,0,0,0,0,0,0,0,0,0,0,0,0,0,0,0,
785,-28.77,-26.81,-37.05,-5.918,-22.82,-28.13,-30.55,-24.99,-29.59,-26.05,-19.0,-14.6,-23.27,-19.55,-16.55,-10.88,0,0,0,0,0,0,0,0,0,0,0,0,0,0,0,0,
786,-27.97,-25.4,-34.16,-6.799,-21.75,-18.36,-24.91,-22.97,-32.11,-18.95,-16.15,-9.803,-18.62,-12.03,-10.98,-4.672,0,0,0,0,0,0,0,0,0,0,0,0,0,0,0,0,
787,-25.47,-19.79,-29.29,-1.971,-18.53,-11.2,-25.26,-7.579,-27.35,-11.55,-10.73,-5.103,-11.7,-6.617,-6.221,-1.668,0,0,0,0,0,0,0,0,0,0,0,0,0,0,0,0,
788,-24.45,-18.68,-26.35,-1.06,-16.19,-16.56,-26.28,-4.466,-19.29,-14.87,-8.684,-7.629,-8.118,-7.441,-4.98,-3.435,0,0,0,0,0,0,0,0,0,0,0,0,0,0,0,0,
789,-26.27,-22.92,-34.94,-8.306,-19.65,-26.2,-27.09,-22.25,-17.17,-23.62,-10.38,-15.05,-9.518,-12.26,-7.905,-7.767,0,0,0,0,0,0,0,0,0,0,0,0,0,0,0,0,
790,-28.31,-25.56,-42.79,-13.38,-24.49,-27.13,-29.56,-32.58,-21.3,-27.13,-13.8,-18.05,-12.36,-15.06,-13.13,-12.11,0,0,0,0,0,0,0,0,0,0,0,0,0,0,0,0,
791,-27.56,-23.28,-34.84,-8.091,-22.83,-17.93,-25.9,-23.09,-22.7,-22.06,-13.05,-11.09,-9.956,-9.161,-10.17,-8.543,0,0,0,0,0,0,0,0,0,0,0,0,0,0,0,0,
792,-20.45,-15.26,-23.14,1.076,-14.59,-5.876,-15.6,-10.92,-16.8,-10.78,-4.732,-1.385,-3.961,0.276,-0.2964,0.9959,0,0,0,0,0,0,0,0,0,0,0,0,0,0,0,0,
793,-14.22,-9.951,-20.98,-1.02,-10.11,-1.202,-14.76,-9.621,-12.41,-3.924,-0.1956,-1.147,-3.393,0.1264,1.127,1.736,0,0,0,0,0,0,0,0,0,0,0,0,0,0,0,0,
794,-18.21,-15.74,-26.54,-11.06,-14.75,-7.24,-24.09,-14.18,-15.8,-10.78,-6.908,-7.359,-8.55,-7.974,-4.38,-5.356,0,0,0,0,0,0,0,0,0,0,0,0,0,0,0,0,
795,-22.92,-21.35,-33.76,-11.3,-18.95,-12.91,-26.68,-13.0,-19.08,-19.16,-11.77,-8.151,-10.96,-10.99,-5.231,-7.329,0,0,0,0,0,0,0,0,0,0,0,0,0,0,0,0,
796,-20.87,-18.11,-34.68,-4.285,-17.24,-10.36,-23.41,-8.369,-18.02,-15.67,-9.036,-6.299,-11.03,-9.525,-6.035,-7.18,0,0,0,0,0,0,0,0,0,0,0,0,0,0,0,0,
797,-19.78,-14.56,-30.82,-2.953,-16.29,-7.88,-24.47,-9.833,-19.16,-12.94,-10.4,-8.134,-14.8,-10.56,-10.57,-9.834,0,0,0,0,0,0,0,0,0,0,0,0,0,0,0,0,
798,-19.99,-13.03,-30.71,-5.134,-17.57,-9.284,-26.25,-11.26,-22.74,-16.3,-15.31,-5.978,-15.82,-8.806,-9.607,-7.415,0,0,0,0,0,0,0,0,0,0,0,0,0,0,0,0,
799,-18.03,-12.59,-32.61,-5.767,-17.85,-9.108,-27.71,-6.169,-22.13,-11.93,-15.7,0.4871,-11.11,-5.126,-5.177,-2.835,0,0,0,0,0,0,0,0,0,0,0,0,0,0,0,0,
800,-19.8,-18.06,-35.91,-5.714,-20.83,-11.34,-34.44,-3.798,-21.4,-10.6,-17.46,-1.339,-12.8,-10.27,-7.799,-6.497,0,0,0,0,0,0,0,0,0,0,0,0,0,0,0,0,
801,-25.82,-23.32,-41.44,-5.287,-26.62,-17.4,-40.96,-6.071,-27.39,-24.22,-22.39,-8.478,-19.4,-16.97,-12.55,-11.03,0,0,0,0,0,0,0,0,0,0,0,0,0,0,0,0,
802,-28.88,-22.62,-41.15,-5.295,-28.5,-18.2,-41.53,-8.411,-33.07,-29.37,-23.82,-10.12,-21.27,-15.23,-13.36,-9.531,0,0,0,0,0,0,0,0,0,0,0,0,0,0,0,0,
803,-28.84,-24.04,-38.29,-6.456,-27.93,-16.76,-42.34,-12.97,-33.2,-21.93,-24.17,-10.08,-22.93,-13.42,-14.35,-9.414,0,0,0,0,0,0,0,0,0,0,0,0,0,0,0,0,
804,-27.6,-25.84,-40.44,-7.087,-27.41,-17.7,-42.79,-10.43,-30.12,-21.73,-22.54,-11.24,-22.45,-12.69,-12.64,-10.04,0,0,0,0,0,0,0,0,0,0,0,0,0,0,0,0,
805,-23.84,-21.72,-39.37,-6.816,-24.16,-14.41,-36.74,2.606,-24.01,-20.65,-16.48,-10.98,-17.55,-9.992,-9.19,-9.362,0,0,0,0,0,0,0,0,0,0,0,0,0,0,0,0,
806,-23.71,-21.86,-36.83,-8.426,-24.34,-13.81,-33.28,2.937,-24.36,-15.93,-17.76,-12.92,-20.41,-13.68,-14.44,-14.57,0,0,0,0,0,0,0,0,0,0,0,0,0,0,0,0,
807,-31.76,-29.46,-43.51,-12.49,-30.72,-23.54,-37.22,-9.574,-34.14,-22.09,-25.37,-15.58,-25.61,-18.6,-20.0,-19.46,0,0,0,0,0,0,0,0,0,0,0,0,0,0,0,0,
808,-37.12,-33.86,-49.42,-14.89,-32.25,-29.13,-36.19,-9.047,-34.82,-26.89,-23.92,-12.69,-22.43,-15.19,-15.04,-15.16,0,0,0,0,0,0,0,0,0,0,0,0,0,0,0,0,
809,-34.65,-34.52,-47.63,-14.64,-29.74,-25.95,-32.54,-0.0259,-28.03,-22.68,-20.11,-8.512,-23.59,-13.91,-13.06,-12.32,0,0,0,0,0,0,0,0,0,0,0,0,0,0,0,0,
810,-34.22,-34.04,-48.86,-13.92,-32.14,-25.51,-37.1,1.417,-31.69,-23.29,-24.71,-8.39,-29.4,-16.89,-18.21,-14.71,0,0,0,0,0,0,0,0,0,0,0,0,0,0,0,0,
811,-36.71,-30.45,-50.13,-10.56,-34.4,-25.71,-41.34,-0.4729,-37.35,-24.4,-28.03,-9.229,-26.0,-14.16,-16.98,-13.03,0,0,0,0,0,0,0,0,0,0,0,0,0,0,0,0,
812,-34.81,-27.13,-43.34,-5.76,-31.92,-21.01,-39.91,-3.757,-34.03,-21.33,-25.31,-8.483,-20.15,-10.89,-12.4,-10.9,0,0,0,0,0,0,0,0,0,0,0,0,0,0,0,0,
813,-30.74,-25.34,-40.07,-5.85,-29.67,-17.25,-40.36,-5.396,-29.31,-21.63,-23.93,-8.097,-21.25,-12.24,-14.25,-13.58,0,0,0,0,0,0,0,0,0,0,0,0,0,0,0,0,
814,-31.18,-24.82,-47.51,-8.495,-31.06,-18.7,-43.11,1.105,-29.1,-21.45,-26.42,-10.45,-25.01,-13.19,-18.37,-15.58,0,0,0,0,0,0,0,0,0,0,0,0,0,0,0,0,
815,-35.79,-28.07,-53.95,-7.525,-34.29,-21.3,-45.68,3.587,-33.07,-20.15,-27.88,-12.74,-25.34,-13.33,-18.83,-15.33,0,0,0,0,0,0,0,0,0,0,0,0,0,0,0,0,
816,-34.74,-26.4,-49.67,-5.517,-31.68,-17.23,-43.29,-3.226,-32.57,-19.47,-23.43,-9.233,-19.09,-11.05,-15.95,-13.34,0,0,0,0,0,0,0,0,0,0,0,0,0,0,0,0,
817,-24.84,-16.11,-39.28,-5.921,-23.39,-8.649,-33.01,-1.969,-22.0,-12.66,-19.68,-4.754,-14.85,-6.426,-15.0,-10.2,0,0,0,0,0,0,0,0,0,0,0,0,0,0,0,0,
818,-20.77,-13.4,-34.82,-4.945,-21.79,-7.769,-29.01,6.713,-17.7,-9.419,-23.73,-8.219,-19.41,-7.264,-18.49,-11.22,0,0,0,0,0,0,0,0,0,0,0,0,0,0,0,0,
819,-25.85,-19.04,-35.81,-0.2647,-24.17,-10.91,-34.92,6.912,-25.03,-16.83,-25.52,-12.65,-19.4,-9.819,-18.97,-14.05,0,0,0,0,0,0,0,0,0,0,0,0,0,0,0,0,
820,-25.06,-19.46,-34.01,1.685,-20.24,-8.998,-34.89,3.016,-24.0,-17.3,-21.39,-11.08,-13.5,-7.976,-16.64,-14.31,0,0,0,0,0,0,0,0,0,0,0,0,0,0,0,0,
821,-20.57,-19.18,-34.9,-1.807,-18.03,-9.775,-30.88,4.08,-16.45,-11.24,-21.23,-11.75,-15.81,-8.962,-19.11,-16.41,0,0,0,0,0,0,0,0,0,0,0,0,0,0,0,0,
822,-20.72,-19.48,-37.14,-3.49,-19.48,-9.84,-30.03,3.811,-17.66,-11.21,-20.73,-15.32,-17.8,-10.39,-19.77,-18.27,0,0,0,0,0,0,0,0,0,0,0,0,0,0,0,0,
823,-18.71,-13.58,-31.89,-3.96,-15.65,-1.376,-26.61,-2.184,-17.1,-8.252,-16.37,-16.31,-12.82,-7.217,-15.89,-17.34,0,0,0,0,0,0,0,0,0,0,0,0,0,0,0,0,
824,-15.93,-12.01,-31.11,-7.194,-13.44,-1.399,-22.51,-5.676,-11.02,-4.074,-17.06,-18.02,-13.91,-7.618,-15.84,-18.26,0,0,0,0,0,0,0,0,0,0,0,0,0,0,0,0,
825,-16.91,-16.66,-35.37,-5.538,-15.79,-9.675,-19.94,-0.6282,-12.94,-8.22,-17.07,-16.77,-14.96,-7.271,-13.63,-15.23,0,0,0,0,0,0,0,0,0,0,0,0,0,0,0,0,
826,-15.99,-15.42,-29.92,-0.5367,-14.74,-7.113,-19.95,4.531,-15.6,-8.066,-10.68,-10.19,-7.185,0.0953,-6.06,-6.368,0,0,0,0,0,0,0,0,0,0,0,0,0,0,0,0,
827,-17.84,-16.33,-27.5,-3.597,-16.6,-7.492,-25.07,1.413,-12.43,-3.982,-7.182,-9.47,-3.122,2.627,-2.717,-2.471,0,0,0,0,0,0,0,0,0,0,0,0,0,0,0,0,
828,-24.96,-25.05,-34.11,-10.07,-22.6,-19.04,-21.22,-4.432,-13.03,-8.259,-4.466,-12.09,-1.837,0.8559,-0.1398,-1.404,0,0,0,0,0,0,0,0,0,0,0,0,0,0,0,0,
829,-26.06,-28.37,-33.73,-12.69,-22.14,-19.15,-11.43,-6.909,-11.33,-9.05,-0.4921,-9.321,1.952,3.154,2.969,0.1701,0,0,0,0,0,0,0,0,0,0,0,0,0,0,0,0,
830,-25.35,-27.06,-34.3,-14.62,-22.72,-11.79,-24.31,-6.763,-7.116,-4.519,-6.632,-9.651,-4.757,1.335,-3.358,-4.626,0,0,0,0,0,0,0,0,0,0,0,0,0,0,0,0,
831,-32.64,-29.58,-44.93,-16.41,-31.75,-15.19,-47.44,-5.672,-18.05,-11.08,-18.18,-15.22,-17.97,-5.151,-12.02,-9.906,0,0,0,0,0,0,0,0,0,0,0,0,0,0,0,0,
832,-38.65,-31.35,-52.8,-16.66,-36.35,-19.88,-47.89,-6.957,-32.8,-19.12,-19.81,-16.65,-17.35,-4.731,-9.857,-7.096,0,0,0,0,0,0,0,0,0,0,0,0,0,0,0,0,
833,-36.7,-29.91,-54.17,-14.34,-32.39,-18.71,-35.18,-8.998,-28.78,-14.45,-13.37,-14.05,-5.823,0.9099,-1.384,-2.266,0,0,0,0,0,0,0,0,0,0,0,0,0,0,0,0,
834,-32.19,-28.31,-50.2,-10.21,-28.2,-17.2,-28.31,-3.951,-18.57,-9.066,-9.713,-10.99,0.1873,3.659,2.517,-0.9158,0,0,0,0,0,0,0,0,0,0,0,0,0,0,0,0,
835,-27.72,-25.25,-41.47,-9.534,-24.53,-11.64,-27.21,4.299,-17.0,-8.525,-11.78,-8.708,-1.371,4.628,-0.4392,-2.072,0,0,0,0,0,0,0,0,0,0,0,0,0,0,0,0,
836,-25.0,-20.31,-40.14,-10.37,-21.54,-3.201,-29.83,5.441,-15.39,-3.905,-13.25,-10.88,-2.999,5.86,-2.776,-4.517,0,0,0,0,0,0,0,0,0,0,0,0,0,0,0,0,
837,-25.61,-18.0,-47.65,-8.719,-23.18,-3.41,-31.8,3.554,-13.31,-1.948,-11.11,-16.85,-2.671,3.471,-1.2,-6.69,0,0,0,0,0,0,0,0,0,0,0,0,0,0,0,0,
838,-26.02,-20.23,-48.91,-8.961,-26.9,-10.52,-32.86,2.437,-18.53,-11.05,-10.47,-19.65,-2.601,-0.6758,-1.596,-6.367,0,0,0,0,0,0,0,0,0,0,0,0,0,0,0,0,
839,-24.86,-21.76,-42.04,-9.881,-27.72,-13.87,-36.11,-3.086,-22.35,-16.48,-10.79,-16.94,-2.739,0.0457,-3.826,-4.465,0,0,0,0,0,0,0,0,0,0,0,0,0,0,0,0,
840,-24.75,-18.3,-38.97,-7.559,-25.93,-13.52,-32.15,-4.356,-18.45,-11.0,-8.954,-14.62,-3.742,1.011,-4.449,-6.077,0,0,0,0,0,0,0,0,0,0,0,0,0,0,0,0,
841,-25.14,-14.11,-42.56,-6.387,-24.31,-11.84,-21.35,3.797,-16.73,-8.772,-8.936,-15.1,-5.906,-1.786,-5.349,-9.155,0,0,0,0,0,0,0,0,0,0,0,0,0,0,0,0,
842,-26.19,-14.88,-45.82,-8.438,-25.31,-8.975,-21.64,2.598,-19.35,-10.45,-10.94,-13.63,-6.115,-0.7904,-5.838,-6.442,0,0,0,0,0,0,0,0,0,0,0,0,0,0,0,0,
843,-30.29,-18.72,-45.96,-12.43,-27.74,-10.34,-30.96,-7.38,-20.26,-8.447,-11.51,-10.41,-4.808,2.849,-4.808,-2.604,0,0,0,0,0,0,0,0,0,0,0,0,0,0,0,0,
844,-33.6,-20.4,-46.22,-16.09,-27.14,-13.28,-33.61,-4.681,-19.34,-8.09,-11.31,-8.94,-4.726,2.564,-3.883,-2.656,0,0,0,0,0,0,0,0,0,0,0,0,0,0,0,0,
845,-31.46,-18.59,-46.45,-14.14,-23.99,-10.11,-31.32,1.919,-16.87,-8.848,-9.735,-7.691,-4.743,2.696,-2.505,-1.184,0,0,0,0,0,0,0,0,0,0,0,0,0,0,0,0,
846,-27.46,-14.94,-42.44,-11.96,-21.71,-7.802,-30.26,-2.895,-15.69,-6.582,-7.614,-7.918,-5.31,3.162,-2.637,-0.5258,0,0,0,0,0,0,0,0,0,0,0,0,0,0,0,0,
847,-26.6,-14.4,-38.84,-19.72,-21.58,-12.39,-30.56,-6.173,-19.04,-7.319,-9.03,-12.0,-7.87,-1.715,-6.074,-4.844,0,0,0,0,0,0,0,0,0,0,0,0,0,0,0,0,
848,-29.27,-20.31,-43.69,-27.14,-25.19,-18.0,-31.6,-2.143,-22.51,-10.89,-10.39,-13.74,-9.024,-4.994,-7.356,-6.089,0,0,0,0,0,0,0,0,0,0,0,0,0,0,0,0,
849,-30.8,-23.05,-45.92,-19.81,-27.09,-19.49,-28.12,-0.0288,-23.07,-10.6,-6.455,-9.861,-7.119,-1.18,-5.202,-3.203,0,0,0,0,0,0,0,0,0,0,0,0,0,0,0,0,
850,-26.6,-16.61,-35.39,-8.375,-20.41,-14.63,-21.38,-0.3363,-19.26,-6.737,-3.534,-7.446,-5.921,0.1389,-5.871,-4.566,0,0,0,0,0,0,0,0,0,0,0,0,0,0,0,0,
851,-21.92,-13.63,-29.37,-7.827,-15.33,-9.781,-22.46,-4.47,-12.5,-5.118,-7.782,-9.559,-7.06,-4.135,-9.159,-8.053,0,0,0,0,0,0,0,0,0,0,0,0,0,0,0,0,
