%OpenBCI Raw EXG Data
%Number of channels = 16
%Sample Rate = 125 Hz
%Board = OpenBCI_GUI$BoardCytonSerialDaisy
Sample Index,EXG Channel 0,EXG Channel 1,EXG Channel 2,EXG Channel 3,EXG Channel 4,EXG Channel 5,EXG Channel 6,EXG Channel 7,EXG Channel 8,EXG Channel 9,EXG Channel 10,EXG Channel 11,EXG Channel 12,EXG Channel 13,EXG Channel 14,EXG Channel 15,Accel Channel 0,Accel Channel 1,Accel Channel 2,Other,Other,Other,Other,Other,Other,Other,Analog Channel 0,Analog Channel 1,Analog Channel 2,Timestamp,Other,Timestamp (Formatted),Annotations
1,0,0,0,0,0,0,-0,0,-0,0,0,0,0,0,0,0,0,0,0,0,0,0,0,0,0,0,0,0,0,0,0,0,T0
2,9.002,9.865,13.18,10.35,14.56,14.79,11.79,9.795,11.37,7.715,10.05,9.042,7.715,6.373,9.462,7.273,0,0,0,0,0,0,0,0,0,0,0,0,0,0,0,0,
3,11.54,6.698,9.875,7.435,15.83,13.59,8.561,6.873,14.4,2.152,10.82,5.012,0.5462,1.074,7.746,5.993,0,0,0,0,0,0,0,0,0,0,0,0,0,0,0,0,
4,8.463,1.634,2.761,2.521,11.02,8.334,4.636,4.642,12.94,1.433,9.92,2.937,-0.4961,1.901,6.047,6.799,0,0,0,0,0,0,0,0,0,0,0,0,0,0,0,0,
5,5.615,3.194,2.7,2.757,9.771,7.112,6.77,8.344,9.616,5.954,9.194,4.541,5.7,9.031,5.658,8.606,0,0,0,0,0,0,0,0,0,0,0,0,0,0,0,0,
6,3.441,3.262,1.992,3.685,9.479,3.16,4.608,7.712,6.325,2.124,8.314,1.42,2.751,7.619,2.54,5.771,0,0,0,0,0,0,0,0,0,0,0,0,0,0,0,0,
7,-1.778,-2.489,-0.6839,4.149,9.317,-1.31,-2.344,3.34,5.359,-2.368,9.356,-1.266,-3.999,1.694,1.455,2.746,0,0,0,0,0,0,0,0,0,0,0,0,0,0,0,0,
8,-6.532,-8.899,2.312,4.803,12.79,0.9742,-6.165,4.24,4.53,-2.9,7.514,-3.151,-9.07,-1.747,-0.0282,-1.25,0,0,0,0,0,0,0,0,0,0,0,0,0,0,0,0,
9,-4.879,-10.89,9.274,8.013,17.54,7.048,-3.257,12.29,5.045,-3.771,5.68,-5.991,-12.99,-1.529,-2.938,-3.999,0,0,0,0,0,0,0,0,0,0,0,0,0,0,0,0,
10,-0.746,-7.882,13.33,12.82,20.7,10.31,1.79,19.74,6.698,-1.992,6.824,-7.696,-12.87,0.3894,-4.693,-2.993,0,0,0,0,0,0,0,0,0,0,0,0,0,0,0,0,
11,-1.97,-6.35,13.4,12.14,20.95,9.027,0.7397,20,4.344,-0.8759,1.884,-12.58,-14.89,-3.351,-9.029,-6.672,0,0,0,0,0,0,0,0,0,0,0,0,0,0,0,0,
12,-8.674,-13.01,9.827,5.694,15.81,3.494,-6.679,15.74,-0.1151,-5.63,-5.623,-18.3,-21.26,-10.03,-12.36,-12.42,0,0,0,0,0,0,0,0,0,0,0,0,0,0,0,0,
13,-14.88,-21.38,4.325,0.2099,10.8,-3.09,-12.69,12.75,-2.494,-9.11,-5.511,-17.66,-22.42,-9.98,-11.06,-11.97,0,0,0,0,0,0,0,0,0,0,0,0,0,0,0,0,
14,-16.52,-21.51,3.378,-0.0673,13.48,-4.238,-12.25,14.84,-1.928,-6.871,-3.551,-16.17,-20.19,-6.938,-12.32,-11.92,0,0,0,0,0,0,0,0,0,0,0,0,0,0,0,0,
15,-15.34,-18.07,6.879,3.142,18.74,-1.473,-8.919,19.45,1.132,-5.224,-4.96,-18.25,-22.3,-8.798,-15.15,-14.93,0,0,0,0,0,0,0,0,0,0,0,0,0,0,0,0,
16,-15.69,-18.56,6.714,3.54,18.71,-2.533,-8.747,19.8,0.7273,-8.551,-6.612,-19.77,-24.42,-13.37,-14.99,-16.44,0,0,0,0,0,0,0,0,0,0,0,0,0,0,0,0,
17,-17.61,-19.32,3.551,1.923,14.66,-5.178,-9.536,19.25,-3.198,-10.33,-7.506,-20.02,-22.2,-15.55,-15.6,-17.74,0,0,0,0,0,0,0,0,0,0,0,0,0,0,0,0,
18,-16.92,-16.7,4.015,3.877,12.04,-3.582,-6.533,22.47,-1.862,-4.357,-7.075,-19.03,-17.91,-13.83,-15.45,-16.66,0,0,0,0,0,0,0,0,0,0,0,0,0,0,0,0,
19,-13.66,-12.67,6.144,5.407,13.21,-1.073,-2.914,23.44,1.812,-0.1149,-6.405,-15.78,-13.55,-10.14,-12.22,-12.5,0,0,0,0,0,0,0,0,0,0,0,0,0,0,0,0,
20,-11.55,-8.682,7.09,4.494,15.11,-0.0457,-2.396,23.18,2.132,-3.96,-7.042,-11.99,-11.09,-7.797,-10.13,-11.37,0,0,0,0,0,0,0,0,0,0,0,0,0,0,0,0,
21,-8.436,-5.128,10.29,7.302,17.25,3.234,-1.919,27.63,6.125,-4.869,-5.424,-6.754,-8.653,-6.295,-7.173,-9.451,0,0,0,0,0,0,0,0,0,0,0,0,0,0,0,0,
22,-2.413,-2.054,14.62,11.51,22.87,7.836,1.475,31.75,13.26,-0.8429,-0.9705,-0.7468,-3.392,-3.377,-2.296,-3.618,0,0,0,0,0,0,0,0,0,0,0,0,0,0,0,0,
23,-0.0395,0.2887,15.9,13.21,27.47,9.372,5.662,33.87,13.61,0.9878,1.815,-0.3804,-0.6924,-0.9155,-2.602,-2.742,0,0,0,0,0,0,0,0,0,0,0,0,0,0,0,0,
24,-2.675,2.266,17.01,17.09,25.81,9.405,8.459,37.65,10.02,3.305,0.9429,-5.052,-2.638,-1.053,-7.86,-5.586,0,0,0,0,0,0,0,0,0,0,0,0,0,0,0,0,
25,-3.349,4.656,19.72,20.9,23.3,10.21,10.07,38.38,9.781,3.369,-3.355,-7.964,-3.838,-3.84,-12.05,-5.696,0,0,0,0,0,0,0,0,0,0,0,0,0,0,0,0,
26,-0.5572,5.867,21.09,19.53,25.67,11.16,10.96,36.36,13.52,-1.188,-4.256,-5.554,-2.874,-6.382,-10.92,-5.125,0,0,0,0,0,0,0,0,0,0,0,0,0,0,0,0,
27,6.914,8.121,24.59,21.03,33.31,15.81,13.68,40.36,23.27,2.178,5.824,3.272,1.104,-2.869,-3.166,-1.735,0,0,0,0,0,0,0,0,0,0,0,0,0,0,0,0,
28,17.94,13.64,30.76,27.32,40.27,21.97,17.05,46.16,31.87,9.896,14.28,9.581,5.003,2.368,0.4224,1.564,0,0,0,0,0,0,0,0,0,0,0,0,0,0,0,0,
29,17.96,12.77,29.84,25.91,36.72,18.8,13.39,43.57,27.19,6.914,8.973,4.818,2.415,1.552,-4.382,-1.653,0,0,0,0,0,0,0,0,0,0,0,0,0,0,0,0,
30,7.574,4.6,25.55,20.5,30.46,12.98,7.307,38.69,23.72,3.3,7.12,2.877,1.869,3.165,-1.104,0.6052,0,0,0,0,0,0,0,0,0,0,0,0,0,0,0,0,
31,8.63,4.538,31.16,25.03,37.32,18.66,10.17,41.89,35.86,8.633,17.66,10.92,8.95,9.916,8.932,10.41,0,0,0,0,0,0,0,0,0,0,0,0,0,0,0,0,
32,18.24,10.81,39.13,30.96,46.97,25.67,15.09,48.35,43.64,12.18,22.54,13.44,11.75,10.37,10.15,12.67,0,0,0,0,0,0,0,0,0,0,0,0,0,0,0,0,
33,19.83,11.44,39.4,28.66,47.31,25.16,15.62,50.15,40.24,12.23,21.86,12.31,11.37,9.897,12.67,14.39,0,0,0,0,0,0,0,0,0,0,0,0,0,0,0,0,
34,20.19,11.29,40.25,28.57,49.63,26.87,18.44,49.61,42.39,13.33,26.81,17.2,15.35,15.27,21.1,21.57,0,0,0,0,0,0,0,0,0,0,0,0,0,0,0,0,
35,22.26,12.99,43.02,32.73,55.05,29.59,21.01,50.24,45.41,13.05,28.27,18.55,16.68,16.07,20.71,22,0,0,0,0,0,0,0,0,0,0,0,0,0,0,0,0,
36,20.64,13.08,43.2,34.26,55.92,29.55,21,51.99,47.23,13.73,28.04,18.5,15.82,14.61,19.33,21.42,0,0,0,0,0,0,0,0,0,0,0,0,0,0,0,0,
37,23.76,15.04,45.69,35.45,57.73,32.6,22.52,52.6,55.84,14.42,34.48,22.7,14.58,16.2,22.93,22.7,0,0,0,0,0,0,0,0,0,0,0,0,0,0,0,0,
38,25.95,12.76,46.06,34.27,56.64,31.34,18.17,48.12,53.99,9.579,32.15,17.44,5.865,12.34,16.75,14.8,0,0,0,0,0,0,0,0,0,0,0,0,0,0,0,0,
39,16.85,3.113,40.41,29.82,49.7,24.55,11.01,43.42,42.3,7.297,23.48,9.766,0.9538,9.72,10.58,11.87,0,0,0,0,0,0,0,0,0,0,0,0,0,0,0,0,
40,15.12,2.766,41.2,30.92,51.15,27.43,15.31,45.74,45.94,11.08,27.91,14.71,7.536,14.01,16.36,19.62,0,0,0,0,0,0,0,0,0,0,0,0,0,0,0,0,
41,23.5,10.06,46.45,34.29,56.08,33,20.85,48.71,53.52,9.454,33.52,17.66,9.47,12.01,20.46,19.29,0,0,0,0,0,0,0,0,0,0,0,0,0,0,0,0,
42,23.54,9.965,47.04,35.12,55.77,31.77,19.65,49.6,53.41,6.06,34.1,18.45,9.995,10.77,26.58,20.72,0,0,0,0,0,0,0,0,0,0,0,0,0,0,0,0,
43,24.75,11.59,51.18,40.03,61.73,34.75,22.83,53.31,57.67,10.61,40.75,27.14,17.79,19.05,36.91,30.42,0,0,0,0,0,0,0,0,0,0,0,0,0,0,0,0,
44,29.77,16.92,53.54,42.31,62.1,34.51,23.61,52.68,53.67,12.59,39.15,24.75,15.75,18.54,30.55,25.06,0,0,0,0,0,0,0,0,0,0,0,0,0,0,0,0,
45,21.67,12.83,43.51,35.66,47.33,23.72,16.24,47.5,39.97,7.353,27.88,13.01,6.298,11.74,18.59,13.89,0,0,0,0,0,0,0,0,0,0,0,0,0,0,0,0,
46,14.68,8.748,37.82,32.64,45.8,21.87,15.35,49.02,40.55,6.713,28.6,14.64,7.747,16.17,21.84,17.17,0,0,0,0,0,0,0,0,0,0,0,0,0,0,0,0,
47,21.03,13,42.51,35.11,55.84,28.66,20.61,52.72,46.48,11.28,33.22,19.17,12.63,22.36,24.38,20.05,0,0,0,0,0,0,0,0,0,0,0,0,0,0,0,0,
48,24.69,16.22,44.65,37.18,54.76,30.62,24.16,55.05,46.95,14.67,32.31,18.55,15.41,23.65,22.29,19.12,0,0,0,0,0,0,0,0,0,0,0,0,0,0,0,0,
49,25.59,18.24,48.18,42.45,56.59,33.44,27.16,60.38,51.81,16.45,36.06,22.16,18.75,24.5,27.14,23.16,0,0,0,0,0,0,0,0,0,0,0,0,0,0,0,0,
50,26.79,18.24,54.32,47.44,63.07,34.86,25.5,60.67,51.31,14.43,38.29,23.41,16.24,21.4,30.39,23.93,0,0,0,0,0,0,0,0,0,0,0,0,0,0,0,0,
51,23.33,14.53,59.11,52.4,62.31,33.92,24.96,60.17,46.18,11.52,37.09,25.5,17.18,22.15,34.49,27.6,0,0,0,0,0,0,0,0,0,0,0,0,0,0,0,0,
52,29.11,20.02,77.96,71.08,73.87,46.21,38.42,74.66,54.88,16.73,45.96,40.03,31.68,34.35,50.07,44.64,0,0,0,0,0,0,0,0,0,0,0,0,0,0,0,0,
53,46.41,35.76,108.8,99.39,98.62,65.93,57.2,94.03,66.95,26.84,58.76,53.16,45.13,45.63,62.54,58.33,0,0,0,0,0,0,0,0,0,0,0,0,0,0,0,0,
54,56.37,47.87,124.5,118.2,111.9,77.39,69.92,105.4,70.06,32.35,61.92,54.27,49.73,49,61.84,57.91,0,0,0,0,0,0,0,0,0,0,0,0,0,0,0,0,
55,59.31,54.66,124.5,124,117.7,87.63,81.21,114.1,72.84,35.68,59.02,53.36,52.27,48.78,60.2,55.32,0,0,0,0,0,0,0,0,0,0,0,0,0,0,0,0,
56,65.46,60.83,125.3,124.8,124.3,101.2,95.42,118.5,78.79,42.74,61.01,58.36,56.15,49.82,65.56,59.15,0,0,0,0,0,0,0,0,0,0,0,0,0,0,0,0,
57,75.72,67.9,125.6,124.1,124.6,109.3,108.7,115.8,87.23,48.81,70.21,67.9,61.36,54.12,73.01,64.82,0,0,0,0,0,0,0,0,0,0,0,0,0,0,0,0,
58,85.81,73.75,124.4,124.2,123.5,111.2,114.1,114.8,92.31,48.58,75.07,72.25,62.48,54.94,74.21,64.8,0,0,0,0,0,0,0,0,0,0,0,0,0,0,0,0,
59,86.91,73.82,126.4,125.9,125.9,111.4,111.4,116.9,86.93,48.38,70.27,68.03,59.22,53.37,69.87,62.71,0,0,0,0,0,0,0,0,0,0,0,0,0,0,0,0,
60,80.92,71.56,127.4,126.5,125.6,110.1,107.6,116.2,81.95,52.82,67.08,65.74,60.07,58.68,69.78,66.38,0,0,0,0,0,0,0,0,0,0,0,0,0,0,0,0,
61,79.13,71.68,125.8,125.2,123.1,107.1,104.1,113.3,85.57,54.52,70.19,68.35,63.61,63.94,74.75,72.36,0,0,0,0,0,0,0,0,0,0,0,0,0,0,0,0,
62,81.11,71.64,125.2,123.1,121.2,104.3,100.4,110.3,90.06,50.7,74.83,71.22,66.38,64.57,78.45,77.23,0,0,0,0,0,0,0,0,0,0,0,0,0,0,0,0,
63,81.98,71.77,119.5,116,115.9,99.82,97.22,103.3,91.91,48.19,79.29,74.19,70.65,68.25,80.64,82.2,0,0,0,0,0,0,0,0,0,0,0,0,0,0,0,0,
64,80.88,72.62,106.4,103,106.4,91.47,91.96,93.47,89.13,48.13,80.18,74.58,71.64,68.9,80.49,81.93,0,0,0,0,0,0,0,0,0,0,0,0,0,0,0,0,
65,76.55,70.95,93.93,90.19,95.29,82.94,84.26,86.16,79.76,46.55,74.53,69.91,67.22,62.3,75,75,0,0,0,0,0,0,0,0,0,0,0,0,0,0,0,0,
66,70.45,67.1,83.01,78.27,84.22,75.33,76.59,77.28,72.16,44.49,68.08,65.06,64.56,61.5,69.01,71.01,0,0,0,0,0,0,0,0,0,0,0,0,0,0,0,0,
67,65.86,63.38,71.67,66.57,78.48,68.85,70.68,66.06,72.68,43.8,68.1,64.92,65.68,67.2,68.66,73.73,0,0,0,0,0,0,0,0,0,0,0,0,0,0,0,0,
68,66.12,62.21,63.44,60.05,78.89,67.87,69.7,61.88,77.66,43.17,73.07,68.03,66.92,67.9,71.19,76.35,0,0,0,0,0,0,0,0,0,0,0,0,0,0,0,0,
69,71.62,64.06,58.29,57.51,79.06,70.51,71.44,62.75,82.02,43.05,75.6,69.33,66.19,65.14,71.26,74.05,0,0,0,0,0,0,0,0,0,0,0,0,0,0,0,0,
70,73.64,62.44,52.44,51.27,75.86,68.45,66.79,57.49,80.92,42.57,72.6,65.94,62.24,63.45,66.96,68.12,0,0,0,0,0,0,0,0,0,0,0,0,0,0,0,0,
71,66.56,54.09,40.34,37.88,65.45,58.81,54.85,47.57,74.51,37.7,67.89,60.43,56.16,58.81,61.66,62.72,0,0,0,0,0,0,0,0,0,0,0,0,0,0,0,0,
72,59.53,48.2,24.45,24.01,52.02,49.8,47.11,41.06,71.9,32.27,67.48,58.97,53.55,53.32,62.29,61.9,0,0,0,0,0,0,0,0,0,0,0,0,0,0,0,0,
73,59.89,51.01,18.45,17.76,50.27,49.91,47.53,36.02,74.23,31.84,70.26,61.05,56.04,52.73,65.54,63.08,0,0,0,0,0,0,0,0,0,0,0,0,0,0,0,0,
74,60.81,53.38,19.23,14.28,52.31,51.51,46.44,27.97,70.72,30.64,67.46,58.72,56.61,52.57,62.39,60.71,0,0,0,0,0,0,0,0,0,0,0,0,0,0,0,0,
75,58.5,49.26,14.01,9.334,45.06,48.29,43.03,22.34,63.79,26.4,60.53,53.63,52.92,49.27,57.08,56.53,0,0,0,0,0,0,0,0,0,0,0,0,0,0,0,0,
76,58.55,46.26,8.281,6.499,41.75,47.84,42.62,20.46,63.46,25.56,59.15,52.51,50.22,46.49,54.85,53.47,0,0,0,0,0,0,0,0,0,0,0,0,0,0,0,0,
77,58.69,45.35,4.037,1.407,43.09,47.19,39.6,14.98,63.8,27.17,61.91,52.79,50.43,46.44,54.28,53.16,0,0,0,0,0,0,0,0,0,0,0,0,0,0,0,0,
78,55.24,42.39,-4.045,-6.961,36.29,39.4,33.32,9.295,59.58,26.54,63.45,53.22,52.26,48.83,57.75,56.96,0,0,0,0,0,0,0,0,0,0,0,0,0,0,0,0,
79,52.7,41.59,-12.03,-12.86,28.52,31.42,29.31,7.785,55.2,23.91,62.22,54.12,52.89,49.58,61.12,58.44,0,0,0,0,0,0,0,0,0,0,0,0,0,0,0,0,
80,49.97,42.27,-19.19,-18.35,25.38,28.09,26.35,5.505,51.93,23.21,59.27,54.73,53.13,47.83,61.23,57.64,0,0,0,0,0,0,0,0,0,0,0,0,0,0,0,0,
81,48.55,42.1,-21.27,-19.91,26.66,30.24,27.5,5.013,53.5,27.08,61.11,58.69,56.58,49.35,65.37,61.9,0,0,0,0,0,0,0,0,0,0,0,0,0,0,0,0,
82,52.54,44.37,-14.57,-14.62,31.96,34.49,31.89,6.359,56.22,28.12,63.18,58.31,54.44,48.77,65.31,61,0,0,0,0,0,0,0,0,0,0,0,0,0,0,0,0,
83,49.93,42.9,-13.49,-13.3,29.48,31.64,29.71,3.1,49.42,22.59,55.74,47.2,43.07,41.3,54.34,50.67,0,0,0,0,0,0,0,0,0,0,0,0,0,0,0,0,
84,39.89,35.38,-18.63,-16.79,23.09,26.71,24.07,0.919,43.33,20.78,50.15,41.2,37.17,38.01,49.27,46.4,0,0,0,0,0,0,0,0,0,0,0,0,0,0,0,0,
85,36.83,30.29,-19.36,-20.85,23.11,24.1,18.34,0.8149,44.23,21.89,50.79,41.26,35.32,37.87,49.1,44.36,0,0,0,0,0,0,0,0,0,0,0,0,0,0,0,0,
86,32.43,24.2,-25.34,-28.53,15.94,14.7,8.45,-4.008,38.59,17.34,44.19,33.85,27.32,31.95,41.09,35.73,0,0,0,0,0,0,0,0,0,0,0,0,0,0,0,0,
87,22.73,17.36,-34.05,-32.03,6.688,7.94,5.132,-5.41,33.92,14.97,38.27,30.29,24.89,29.44,37.46,34.01,0,0,0,0,0,0,0,0,0,0,0,0,0,0,0,0,
88,24.52,20.86,-31.65,-28.15,12.72,13.98,11.91,-0.387,39.46,18.91,42.24,35.61,30.86,33.61,41.05,39.03,0,0,0,0,0,0,0,0,0,0,0,0,0,0,0,0,
89,30.3,25.46,-30.04,-29.16,16.03,16.27,11.26,-0.6207,39.22,18.86,42.04,33.69,29.5,32.7,37.32,35.94,0,0,0,0,0,0,0,0,0,0,0,0,0,0,0,0,
90,26.09,19.24,-35.19,-33.43,7.979,11.06,3.841,-5.073,34.49,14.44,38.24,28.73,23.05,27.3,32.73,30.3,0,0,0,0,0,0,0,0,0,0,0,0,0,0,0,0,
91,23.39,13.33,-34.57,-32.52,5.349,10.86,3.713,-5.06,35.89,13.35,40.18,30.78,22.69,26.31,36.29,32.18,0,0,0,0,0,0,0,0,0,0,0,0,0,0,0,0,
92,25.08,13.84,-31.34,-30.13,3.748,12.08,5.888,-1.665,33.36,16.01,39.61,31.17,24.8,28.33,39.02,35.53,0,0,0,0,0,0,0,0,0,0,0,0,0,0,0,0,
93,22.62,13.99,-32.48,-29.07,-2.509,10.18,3.246,-0.242,27.83,17.88,36.65,28.03,23.99,26.84,37.29,34.01,0,0,0,0,0,0,0,0,0,0,0,0,0,0,0,0,
94,19.73,12.76,-34.75,-30.14,-3.663,9.035,-0.0186,-3.34,28.51,15.92,38.31,26.87,21.98,23.68,34.4,30.88,0,0,0,0,0,0,0,0,0,0,0,0,0,0,0,0,
95,19.46,12.06,-36.62,-33.2,-0.7093,8.883,-0.8698,-5.771,30.24,14.15,39.56,26.71,21.94,25.76,32.58,31.51,0,0,0,0,0,0,0,0,0,0,0,0,0,0,0,0,
96,20.36,12.85,-35.56,-32.22,1.754,10.03,1.185,-3.653,32.39,14.69,39.87,27.34,23.18,28.25,33.57,33.65,0,0,0,0,0,0,0,0,0,0,0,0,0,0,0,0,
97,20.37,12.67,-34.92,-31.14,0.3716,8.15,0.8619,-5.463,33.28,10.85,38.71,25.18,19.87,22.48,31.18,30.15,0,0,0,0,0,0,0,0,0,0,0,0,0,0,0,0,
98,14.64,7.613,-41.88,-37.82,-6.599,0.5317,-6.067,-12.04,28.01,7.596,32.92,19.37,15.45,17.42,26.02,25.52,0,0,0,0,0,0,0,0,0,0,0,0,0,0,0,0,
99,9.443,5.012,-47.05,-42.99,-8.699,-2.195,-9.803,-12.78,25.46,13.52,30.1,17.47,17.32,19.82,26.41,25.51,0,0,0,0,0,0,0,0,0,0,0,0,0,0,0,0,
100,9.403,7.492,-44.85,-41.03,-8.04,-0.8083,-7.637,-10.74,23.89,14.46,26.92,13.72,15.26,17.84,23.08,20.31,0,0,0,0,0,0,0,0,0,0,0,0,0,0,0,0,
101,4.706,4.858,-44.13,-39.01,-13.8,-3.554,-7.404,-11.21,18.58,6.282,18.29,6.437,8.034,12.62,16.39,13.2,0,0,0,0,0,0,0,0,0,0,0,0,0,0,0,0,
102,1.376,3.133,-41.73,-36.49,-13.07,-1.792,-5.943,-10.42,22.5,7.125,18.14,10.21,11.14,14.07,21.86,17.71,0,0,0,0,0,0,0,0,0,0,0,0,0,0,0,0,
103,5.93,7.493,-39.81,-37.62,-10.49,0.3672,-6.28,-15.15,24.33,10.81,19.06,14.2,13.94,11.13,24.45,19.84,0,0,0,0,0,0,0,0,0,0,0,0,0,0,0,0,
104,2.723,3.798,-49.02,-47.55,-22.98,-7.379,-12.84,-23.66,11.83,7.552,10.05,8.04,7.447,4.168,17.17,14.58,0,0,0,0,0,0,0,0,0,0,0,0,0,0,0,0,
105,-0.0456,0.7466,-52.29,-48.05,-27.49,-6.151,-9.091,-18.06,13.21,13.92,13.69,12.2,11.08,10.05,22.42,20.71,0,0,0,0,0,0,0,0,0,0,0,0,0,0,0,0,
106,11.23,10.7,-42.25,-35.55,-16.75,3.881,1.325,-9.11,24.72,20.82,23.25,17.9,16.14,15.1,26.36,25.11,0,0,0,0,0,0,0,0,0,0,0,0,0,0,0,0,
107,10.29,10.83,-44.02,-35.17,-21.64,-3.163,-3.636,-14.58,14.59,7.061,11.63,5.527,6.015,5.902,13.51,14.44,0,0,0,0,0,0,0,0,0,0,0,0,0,0,0,0,
108,-5.052,0.0107,-52.28,-42.65,-31.95,-12.96,-10.11,-17.09,3.907,-2.671,2.339,-0.0748,3.988,2.867,10.88,12.6,0,0,0,0,0,0,0,0,0,0,0,0,0,0,0,0,
109,-4.272,3.213,-45.99,-38.12,-23.98,-5.994,-3.881,-11,12.4,6.93,11.16,8.096,13.1,8.857,16.81,18.91,0,0,0,0,0,0,0,0,0,0,0,0,0,0,0,0,
110,2.279,8.801,-41.03,-34.88,-19.08,-2.566,-2.114,-13.04,14.12,9.165,10.29,4.892,9.453,6.833,8.513,13.08,0,0,0,0,0,0,0,0,0,0,0,0,0,0,0,0,
111,-4.044,2.052,-46.15,-41.25,-27.09,-8.202,-5.824,-16.75,5.609,2.001,-0.4172,-3.127,3.11,3.05,-0.1429,6.698,0,0,0,0,0,0,0,0,0,0,0,0,0,0,0,0,
112,-7.253,0.3249,-45.82,-41.48,-29.11,-7.347,-4.029,-15.02,6.299,3.66,0.1366,-0.757,7.874,5.843,2.019,9.005,0,0,0,0,0,0,0,0,0,0,0,0,0,0,0,0,
113,-1.75,6.776,-42.27,-36.37,-24.94,-3.591,-3.108,-17.21,13.36,7.581,7.275,4.146,11.21,7.152,5.496,9.977,0,0,0,0,0,0,0,0,0,0,0,0,0,0,0,0,
114,2.487,8.518,-42.22,-35.13,-22.68,-2.761,-4.398,-18.07,17.39,7.838,11.75,7.776,10.49,6.714,8.763,10.54,0,0,0,0,0,0,0,0,0,0,0,0,0,0,0,0,
115,5.504,7.379,-40.41,-34.11,-21.04,-1.591,-3.278,-13.9,18.4,10.16,14.28,11.8,11.98,8.943,11.79,12.98,0,0,0,0,0,0,0,0,0,0,0,0,0,0,0,0,
116,8.36,7.623,-37.53,-32.63,-20.47,-0.2782,-2.515,-15.26,20.34,11.87,16.8,15.71,13.26,9.687,15.31,13.09,0,0,0,0,0,0,0,0,0,0,0,0,0,0,0,0,
117,12.99,10.26,-32.79,-29.56,-17.58,3.603,1.442,-16.18,26.99,12.78,23.51,22.17,15.43,9.477,22.07,13.87,0,0,0,0,0,0,0,0,0,0,0,0,0,0,0,0,
118,18.88,15.87,-27.16,-24.95,-12.35,7.159,6.337,-11.49,30.74,14.67,28.15,24.7,17.4,11.34,22.52,15.33,0,0,0,0,0,0,0,0,0,0,0,0,0,0,0,0,
119,14.84,14.74,-33.72,-31.68,-16,1.109,-1.118,-15.68,23.68,12.23,20.93,16.57,13.57,10.79,15.14,14.17,0,0,0,0,0,0,0,0,0,0,0,0,0,0,0,0,
120,6.562,7.448,-43.89,-41.74,-21.4,-3.398,-8.532,-21.62,20.67,11.18,18.58,13.77,14.63,12.15,18.7,18.43,0,0,0,0,0,0,0,0,0,0,0,0,0,0,0,0,
121,13.11,11.59,-37.41,-33.03,-14.42,4.804,1.255,-11.41,30.92,18.65,31.75,23.2,25.31,20.47,29.78,26.09,0,0,0,0,0,0,0,0,0,0,0,0,0,0,0,0,
122,20.47,18.7,-32.8,-25.97,-12.63,5.76,4.915,-5.591,32.7,20.8,33.08,21.47,23.87,20.87,24.13,20.85,0,0,0,0,0,0,0,0,0,0,0,0,0,0,0,0,
123,8.612,8.625,-45.65,-41.17,-24,-6.678,-10.74,-20.67,20.69,11.98,19.12,8.339,11.11,11.97,12.17,12.01,0,0,0,0,0,0,0,0,0,0,0,0,0,0,0,0,
124,-1.143,-1.083,-50.35,-50.23,-25.74,-9.176,-18.03,-30.45,17.55,9.514,18.3,8.446,11.29,12.71,14.86,15.72,0,0,0,0,0,0,0,0,0,0,0,0,0,0,0,0,
125,5.186,5.124,-42.11,-41.03,-21.19,-3.065,-10.42,-21.89,21.57,17.21,22.04,14.01,15.97,17.87,16.83,17.22,0,0,0,0,0,0,0,0,0,0,0,0,0,0,0,0,
126,8.235,9.608,-41.08,-34.75,-23.33,-3.37,-5.841,-12.67,19.77,21.27,16.06,11.09,11.17,15.02,11.56,11.35,0,0,0,0,0,0,0,0,0,0,0,0,0,0,0,0,
127,5.437,6.987,-43.98,-35.54,-20.9,-4.913,-6.384,-11.33,17.93,17.4,16.4,10.39,8.881,12.08,13.12,11.97,0,0,0,0,0,0,0,0,0,0,0,0,0,0,0,0,
128,4.22,4.124,-48.51,-41,-21.52,-9.131,-11.84,-14.75,14.13,11.35,17.38,10.14,8.666,9.94,13.45,11.89,0,0,0,0,0,0,0,0,0,0,0,0,0,0,0,0,
129,-1.149,-1.179,-56.59,-48.2,-33.07,-16.75,-18.74,-17.74,7.577,9.824,9.775,6.849,5.127,5.48,9.813,7.179,0,0,0,0,0,0,0,0,0,0,0,0,0,0,0,0,
130,-2.639,-2.116,-52.45,-44.36,-31.67,-12.97,-15.99,-17.35,9.335,14.42,10.64,10.68,7.205,5.708,13.72,9.087,0,0,0,0,0,0,0,0,0,0,0,0,0,0,0,0,
131,3.713,2.349,-43.08,-38.04,-22.03,-7.021,-13.06,-19.52,9.802,16.56,13.36,11.53,8.899,7.171,12.42,9.23,0,0,0,0,0,0,0,0,0,0,0,0,0,0,0,0,
132,-0.8249,-1.341,-50.15,-45,-30,-16.1,-20.66,-24.55,-0.9726,11.24,3.343,-0.3515,1.191,2.031,0.092,0.726,0,0,0,0,0,0,0,0,0,0,0,0,0,0,0,0,
133,-12.87,-7.7,-58.72,-51.82,-40.86,-24.41,-24.97,-25.17,-7.466,6.703,-2.661,-8.269,-4.018,-2.651,-3.106,-1.711,0,0,0,0,0,0,0,0,0,0,0,0,0,0,0,0,
134,-11.86,-4.079,-52.17,-46.3,-35.7,-19.19,-18.47,-20.04,-2.075,9.188,3.614,-3.602,0.9558,1.062,5.394,6.565,0,0,0,0,0,0,0,0,0,0,0,0,0,0,0,0,
135,-3.428,2.259,-44.88,-38.93,-28.12,-13.41,-11.84,-13.88,5.203,12.03,9.174,3.923,7.474,6.478,11.84,14.44,0,0,0,0,0,0,0,0,0,0,0,0,0,0,0,0,
136,-1.958,2.963,-47.07,-38.69,-29.45,-14.73,-12.3,-15.45,5.627,8.525,8.014,6.394,8.347,5.667,12.11,15.1,0,0,0,0,0,0,0,0,0,0,0,0,0,0,0,0,
137,-2.879,3.105,-49.24,-39.79,-29.67,-13.78,-12.07,-20.25,3.462,6.504,7.809,8.327,10.52,6.314,12.71,14.31,0,0,0,0,0,0,0,0,0,0,0,0,0,0,0,0,
138,5.501,11.33,-41.49,-33.08,-19.93,-2.991,-1.262,-14.09,10.86,11.96,17.13,17.6,20.22,11.84,18.91,17.96,0,0,0,0,0,0,0,0,0,0,0,0,0,0,0,0,
139,17.55,22.09,-33.93,-26.96,-14.9,3.802,6.883,-9.744,15.98,14.13,21.33,19.92,21.91,9.346,17.32,14.54,0,0,0,0,0,0,0,0,0,0,0,0,0,0,0,0,
140,13.06,18.55,-41.48,-33.44,-27.01,-5.878,-1.541,-18.31,2.225,10.21,7.72,5.178,9.386,1.94,2.79,2.267,0,0,0,0,0,0,0,0,0,0,0,0,0,0,0,0,
141,-1.809,6.806,-50.04,-39.23,-35.97,-13,-8.053,-19.36,-6.905,10.43,2.232,0.0012,5.386,3.668,1.859,3.568,0,0,0,0,0,0,0,0,0,0,0,0,0,0,0,0,
142,0.5716,7.939,-44.18,-33.57,-26.98,-3.885,0.0149,-10.87,5.454,13.88,16.24,13.45,13.98,9.816,17.44,16.24,0,0,0,0,0,0,0,0,0,0,0,0,0,0,0,0,
143,15.04,17.31,-36.66,-27.91,-15.1,6.556,8.344,-8.466,17.04,15.74,24.05,20.28,17.72,15.8,21.02,17.43,0,0,0,0,0,0,0,0,0,0,0,0,0,0,0,0,
144,20.78,20.28,-34.62,-26.9,-11.7,10.58,10.74,-9.853,16.29,14.61,21.17,18,16.33,18.21,13.66,11.67,0,0,0,0,0,0,0,0,0,0,0,0,0,0,0,0,
145,20.07,16.87,-36.42,-30.1,-17.66,8.841,8.995,-15.69,9.292,7.737,18.48,16.98,13.59,7.096,11.31,9.386,0,0,0,0,0,0,0,0,0,0,0,0,0,0,0,0,
146,16.7,11.58,-42.7,-36,-25.39,2.693,4.985,-23.11,5.159,4.45,16.78,15.67,10.93,-2.395,12.65,7.862,0,0,0,0,0,0,0,0,0,0,0,0,0,0,0,0,
147,14.99,11.89,-38.92,-30.91,-17.89,5.793,8.538,-18.32,16.96,10.81,22.56,18.89,14.55,3.888,16.6,8.619,0,0,0,0,0,0,0,0,0,0,0,0,0,0,0,0,
148,21.75,16.39,-26.98,-20.73,-5.516,14.31,14.13,-12.86,30.79,12.11,29.15,22.36,14.62,4.944,17.47,7.401,0,0,0,0,0,0,0,0,0,0,0,0,0,0,0,0,
149,22.81,10.73,-29.82,-24.33,-9.445,10.17,8.449,-19.52,27.66,5.334,23.46,15.56,3.995,-3.581,10.38,0.7047,0,0,0,0,0,0,0,0,0,0,0,0,0,0,0,0,
150,14.34,0.5844,-34.84,-27.97,-12.35,5.7,3.056,-23.83,26.41,1.633,18.92,9.46,-2.584,-6.908,5.976,-3.304,0,0,0,0,0,0,0,0,0,0,0,0,0,0,0,0,
151,12.45,-0.4259,-27.46,-23.42,-5.218,9.9,3.64,-24.13,31.16,-1.303,18.79,7.671,-3.974,-10.74,2.999,-6.871,0,0,0,0,0,0,0,0,0,0,0,0,0,0,0,0,
152,9.941,-2.447,-29.89,-29.86,-11.04,4.342,-3.859,-30.66,21.14,-5.94,8.863,0.6122,-9.457,-16.03,-6.071,-13.11,0,0,0,0,0,0,0,0,0,0,0,0,0,0,0,0,
153,-0.188,-10.32,-41.68,-40.11,-24.58,-7.604,-13.84,-35.37,7.733,-7.013,-0.457,-4.488,-13.28,-16.88,-10.81,-13.76,0,0,0,0,0,0,0,0,0,0,0,0,0,0,0,0,
154,-4.487,-12.5,-42.08,-37.18,-25.55,-9.514,-13.37,-32.35,7.942,-4.954,3.274,-1.331,-9.521,-13.54,-5.595,-7.216,0,0,0,0,0,0,0,0,0,0,0,0,0,0,0,0,
155,-2.442,-6.985,-36.71,-32.71,-18.87,-6.55,-9.604,-29.97,13.78,-1.819,11.09,3.645,-1.061,-0.6919,1.397,1.378,0,0,0,0,0,0,0,0,0,0,0,0,0,0,0,0,
156,-1.252,-1.516,-35.83,-34.76,-15.18,-7.149,-11.14,-31.37,14.21,-0.4718,10.56,2.636,0.3988,6.303,-0.1832,1.255,0,0,0,0,0,0,0,0,0,0,0,0,0,0,0,0,
157,-4.995,-5.145,-40.41,-37.69,-20.28,-11.88,-16.49,-32.17,4.372,-3.43,-0.0158,-6.634,-9.463,-6.472,-9.813,-8.637,0,0,0,0,0,0,0,0,0,0,0,0,0,0,0,0,
158,-11.75,-14.09,-46.19,-39.52,-25.88,-14.27,-19.6,-32.5,-1.537,-5.911,-3.685,-10.73,-13.23,-13.27,-11.08,-10.16,0,0,0,0,0,0,0,0,0,0,0,0,0,0,0,0,
159,-8.714,-14.48,-43.51,-38.9,-18.31,-8.661,-18.72,-34.96,7.178,-6.173,3.329,-6.391,-11.11,-9.703,-6.804,-8.547,0,0,0,0,0,0,0,0,0,0,0,0,0,0,0,0,
160,-1.972,-11.4,-37.64,-37.36,-10.72,-4.389,-19.18,-35.04,10.98,-6.673,1.535,-8.649,-17.18,-13.28,-12.42,-17.99,0,0,0,0,0,0,0,0,0,0,0,0,0,0,0,0,
161,-5.28,-12.57,-39.3,-38.75,-14.53,-8.095,-20.81,-30.92,5.211,-6.6,-4.773,-12.47,-20.19,-16.53,-16.81,-23.42,0,0,0,0,0,0,0,0,0,0,0,0,0,0,0,0,
162,-9.874,-12.2,-45.69,-43.79,-20.11,-15.06,-22.46,-30.5,3.338,-7.717,-3.096,-8.131,-15.92,-19.85,-12.75,-21.08,0,0,0,0,0,0,0,0,0,0,0,0,0,0,0,0,
163,-8.618,-10.28,-47.33,-45.7,-20.5,-15.55,-21.72,-30.09,6.74,-5.5,2.036,0.6736,-8.985,-16.04,-7.032,-16.02,0,0,0,0,0,0,0,0,0,0,0,0,0,0,0,0,
164,1.69,-2.36,-35.78,-35.27,-11.17,-1.711,-10.65,-20.36,14.47,6.365,9.95,9.883,3.026,4.942,-1.815,-7.254,0,0,0,0,0,0,0,0,0,0,0,0,0,0,0,0,
165,12.44,7.313,-27,-27.33,-7.221,5.467,-2.998,-13.73,11.99,11.33,9.729,4.728,-0.4201,2.378,-8.31,-12.94,0,0,0,0,0,0,0,0,0,0,0,0,0,0,0,0,
166,3.595,0.2953,-35.77,-34.93,-19.92,-5.889,-9.37,-17.58,-0.0654,1.577,0.3174,-8.319,-15.12,-21.81,-16.46,-21.22,0,0,0,0,0,0,0,0,0,0,0,0,0,0,0,0,
167,-1.115,-3.496,-33.76,-33.72,-16.87,-3.138,-4.766,-14.72,9.564,0.9677,6.572,-1.126,-4.558,-9.7,-4.094,-4.021,0,0,0,0,0,0,0,0,0,0,0,0,0,0,0,0,
168,14.8,12,-18.99,-21.17,-1.647,9.437,7.97,-5.245,21.65,10.4,14.53,6.499,7.844,9.692,2.717,4.413,0,0,0,0,0,0,0,0,0,0,0,0,0,0,0,0,
169,11.03,11.12,-27.84,-26.49,-15.45,-3.685,-1.508,-10.13,1.484,3.651,-4.194,-11.05,-11.48,-13.46,-17.7,-18.77,0,0,0,0,0,0,0,0,0,0,0,0,0,0,0,0,
170,-13.77,-11.9,-52.54,-46.8,-43.2,-27.95,-24.04,-30.77,-26.22,-17.17,-33.38,-33.52,-36.11,-43.03,-43.66,-41.72,0,0,0,0,0,0,0,0,0,0,0,0,0,0,0,0,
171,-32.16,-30.29,-73.99,-67.54,-64.94,-46.49,-42.43,-50.44,-46.49,-31.84,-55.65,-49.34,-48.14,-51.28,-60.38,-52.54,0,0,0,0,0,0,0,0,0,0,0,0,0,0,0,0,
172,-48.92,-41.35,-88.55,-80.13,-81.5,-59.59,-52.11,-56.51,-60.01,-36.12,-62.99,-54.1,-50.05,-50.62,-60.88,-53.21,0,0,0,0,0,0,0,0,0,0,0,0,0,0,0,0,
173,-53.46,-41.55,-81.92,-73.83,-75.19,-55.69,-46.92,-53.89,-57.08,-37.32,-54.78,-45.61,-45.04,-48.84,-53.48,-49.72,0,0,0,0,0,0,0,0,0,0,0,0,0,0,0,0,
174,-48.36,-39.41,-76.16,-71.05,-69.79,-54.31,-47.05,-59.93,-60.44,-42.33,-56.56,-48.53,-50.23,-54.06,-59.97,-57.66,0,0,0,0,0,0,0,0,0,0,0,0,0,0,0,0,
175,-57.08,-49.84,-87.95,-80.09,-85.65,-64.33,-56.21,-65.73,-68.79,-44.49,-63.2,-55.85,-55.02,-55.55,-62.03,-58.27,0,0,0,0,0,0,0,0,0,0,0,0,0,0,0,0,
176,-52.81,-46.15,-77.33,-66.51,-76.16,-50.68,-43.34,-51.32,-51.41,-34.82,-49.22,-41.62,-40.89,-42.11,-46.62,-42.07,0,0,0,0,0,0,0,0,0,0,0,0,0,0,0,0,
177,-30.91,-27.72,-56.25,-49.7,-52.66,-32.01,-29.36,-41.6,-40.92,-28.4,-39.65,-33.66,-36.37,-38.54,-45.09,-42.48,0,0,0,0,0,0,0,0,0,0,0,0,0,0,0,0,
178,-33.79,-32.9,-67.73,-65.36,-64.62,-43.62,-43.93,-56.58,-57.14,-36.96,-49.1,-46.02,-50.32,-49.81,-55.36,-55.37,0,0,0,0,0,0,0,0,0,0,0,0,0,0,0,0,
179,-45.81,-44.42,-80.14,-77.52,-78.11,-52.68,-51.72,-64.2,-58.59,-44.39,-51.47,-49.18,-53.22,-52.33,-54.69,-54.32,0,0,0,0,0,0,0,0,0,0,0,0,0,0,0,0,
180,-43.08,-37.75,-74.45,-70.63,-72.12,-47.08,-43.07,-56.05,-51.21,-43.12,-50.5,-48.32,-49.19,-50.66,-54.56,-51.76,0,0,0,0,0,0,0,0,0,0,0,0,0,0,0,0,
181,-49.25,-37.36,-77,-72.83,-75.75,-51.72,-46.48,-57.65,-57.68,-42.85,-54.58,-54.68,-50.92,-53.22,-53.97,-51.82,0,0,0,0,0,0,0,0,0,0,0,0,0,0,0,0,
182,-57.34,-43.97,-78.13,-76.05,-76.87,-55.24,-52.59,-64.83,-54.94,-44.88,-49.93,-51.12,-48.21,-51.33,-44.91,-45.16,0,0,0,0,0,0,0,0,0,0,0,0,0,0,0,0,
183,-52.41,-43.86,-75.34,-76.97,-72.83,-55.16,-56,-69.73,-50.27,-47.79,-49.63,-47.28,-47.06,-49.89,-47.07,-45.45,0,0,0,0,0,0,0,0,0,0,0,0,0,0,0,0,
184,-56.51,-49.09,-88.25,-89.46,-86.72,-67.49,-67.37,-76.67,-64.49,-51.2,-61.64,-55.51,-52.02,-51.63,-56.45,-50.9,0,0,0,0,0,0,0,0,0,0,0,0,0,0,0,0,
185,-65.18,-51.8,-94.42,-90.75,-92.88,-71.36,-66.31,-72.26,-68.18,-48.09,-60.33,-54.84,-47.43,-46.62,-50.71,-44.52,0,0,0,0,0,0,0,0,0,0,0,0,0,0,0,0,
186,-56.86,-39.65,-79.5,-74.64,-76.94,-57.38,-50.98,-60.64,-51.72,-40.85,-48.64,-46.02,-39.59,-41.32,-44.04,-38.38,0,0,0,0,0,0,0,0,0,0,0,0,0,0,0,0,
187,-49.76,-35.87,-74,-73.63,-74.97,-55.65,-53.47,-67.83,-50.11,-43.79,-50.8,-51.52,-47.07,-47.62,-52.93,-45.98,0,0,0,0,0,0,0,0,0,0,0,0,0,0,0,0,
188,-62.54,-51.23,-85.26,-86.84,-89.73,-71.36,-72.33,-85.95,-67.06,-56.38,-61.32,-66.26,-61.93,-59.7,-64.85,-56.86,0,0,0,0,0,0,0,0,0,0,0,0,0,0,0,0,
189,-79.13,-65.5,-92.09,-91.2,-94.22,-82.57,-83.43,-91.12,-76.05,-62.65,-66.04,-72.72,-68.25,-65.93,-67.07,-60.84,0,0,0,0,0,0,0,0,0,0,0,0,0,0,0,0,
190,-82.46,-69.06,-89.63,-88.76,-89.27,-83.14,-84.12,-86.52,-73,-60.58,-64.07,-68.34,-65.69,-63.8,-59.92,-57,0,0,0,0,0,0,0,0,0,0,0,0,0,0,0,0,
191,-76.15,-67.03,-84.4,-85.65,-84.62,-78.08,-79.35,-83.58,-69.85,-60.48,-59.52,-60.29,-60.53,-59.67,-52.55,-50.65,0,0,0,0,0,0,0,0,0,0,0,0,0,0,0,0,
192,-68.15,-60.8,-79.74,-79.86,-80.18,-70.74,-70,-80.72,-66.08,-59.8,-57.71,-54.92,-56.38,-58.52,-53.55,-50.16,0,0,0,0,0,0,0,0,0,0,0,0,0,0,0,0,
193,-62.46,-54.67,-79.99,-77.92,-81.88,-69.63,-65.12,-77.98,-62.34,-57.76,-62.72,-58.98,-59.77,-62.99,-64.08,-59.8,0,0,0,0,0,0,0,0,0,0,0,0,0,0,0,0,
194,-69.47,-60.95,-87.22,-84.67,-92.92,-80.53,-73.56,-82.78,-71.26,-65.84,-74.04,-75.37,-72,-72.48,-77.74,-72.95,0,0,0,0,0,0,0,0,0,0,0,0,0,0,0,0,
195,-85.44,-72.94,-88.88,-85.46,-95.14,-87.57,-80.72,-85.88,-80.54,-73.01,-77.63,-84.29,-75.27,-73.62,-78.48,-73.46,0,0,0,0,0,0,0,0,0,0,0,0,0,0,0,0,
196,-85.14,-69.77,-77.95,-74.45,-81.42,-79.45,-75.21,-77.07,-70.04,-65.21,-69.16,-75.95,-69.6,-67.37,-70.31,-67.57,0,0,0,0,0,0,0,0,0,0,0,0,0,0,0,0,
197,-77.5,-66.41,-77.76,-76.44,-79.9,-79.16,-79.89,-78.6,-65.77,-64.95,-73.35,-77.95,-79.29,-73.42,-77.07,-76,0,0,0,0,0,0,0,0,0,0,0,0,0,0,0,0,
198,-87.25,-80.07,-91.63,-91.82,-92.17,-90.97,-95.15,-92.15,-79.86,-75.89,-85.92,-87.3,-87.91,-78.68,-84.41,-80.82,0,0,0,0,0,0,0,0,0,0,0,0,0,0,0,0,
199,-89.75,-80.38,-87.02,-87.78,-85.57,-85.48,-88.38,-85.72,-76.94,-68.96,-78.08,-76.25,-72.06,-66.48,-73.37,-67.26,0,0,0,0,0,0,0,0,0,0,0,0,0,0,0,0,
200,-73.67,-63.07,-73.59,-74.93,-72.39,-72.48,-72.92,-73.13,-61.5,-54.57,-67.67,-66.72,-61.94,-60.43,-68.85,-62.47,0,0,0,0,0,0,0,0,0,0,0,0,0,0,0,0,
201,-70.5,-62.05,-79.6,-79.81,-77.49,-75.82,-75.23,-79.52,-61.5,-57.4,-70.77,-73.77,-67.58,-64.05,-74.25,-66.95,0,0,0,0,0,0,0,0,0,0,0,0,0,0,0,0,
202,-75.67,-67.4,-82.66,-81.51,-79.95,-77.23,-76.07,-81.17,-66.48,-64.31,-70.44,-75.93,-66.53,-61.33,-73.15,-65.14,0,0,0,0,0,0,0,0,0,0,0,0,0,0,0,0,
203,-76.08,-65.15,-74.28,-73.12,-75.11,-73.75,-73.02,-74.2,-73.19,-66.06,-75.02,-80.53,-70,-65.09,-77.84,-70.34,0,0,0,0,0,0,0,0,0,0,0,0,0,0,0,0,
204,-85.51,-72.63,-78.29,-76.05,-80.29,-81.37,-81.16,-78.35,-81.94,-66.75,-83.59,-88.29,-78.83,-71.88,-81.42,-73.49,0,0,0,0,0,0,0,0,0,0,0,0,0,0,0,0,
205,-88.11,-77.78,-82.89,-79.02,-82.82,-83.14,-82.39,-79.94,-73.81,-61.71,-73.16,-76.73,-71.69,-64,-68.24,-60.07,0,0,0,0,0,0,0,0,0,0,0,0,0,0,0,0,
206,-72.08,-68.61,-75.17,-71.52,-75.54,-72.23,-73.27,-73.58,-61.69,-56.7,-62.74,-63.31,-63.26,-57.77,-59.53,-53.12,0,0,0,0,0,0,0,0,0,0,0,0,0,0,0,0,
207,-65.17,-67.32,-72.92,-71.1,-74.04,-69.39,-76.08,-77.43,-65.94,-58.85,-69.55,-66,-67.11,-61.02,-60.73,-56.16,0,0,0,0,0,0,0,0,0,0,0,0,0,0,0,0,
208,-70.68,-74.43,-75.24,-76.73,-77.19,-72.86,-84.44,-85.19,-69.22,-59.43,-71.05,-66.09,-69.52,-60.78,-56.51,-54.83,0,0,0,0,0,0,0,0,0,0,0,0,0,0,0,0,
209,-69.37,-74.71,-67.1,-71.89,-70.42,-67.16,-79.58,-80.27,-60.08,-55.1,-60.69,-58.48,-68.71,-61.39,-52.08,-56.49,0,0,0,0,0,0,0,0,0,0,0,0,0,0,0,0,
210,-60.3,-70.24,-53.12,-58.7,-53.87,-55.02,-67.36,-69.6,-50.17,-51.78,-52.03,-54.48,-68.63,-65.61,-52.27,-61.08,0,0,0,0,0,0,0,0,0,0,0,0,0,0,0,0,
211,-53.53,-65.87,-48.77,-53.75,-47.72,-52.43,-65.45,-68.17,-51.15,-53.89,-55.22,-60.1,-70.21,-69.04,-58.22,-66.05,0,0,0,0,0,0,0,0,0,0,0,0,0,0,0,0,
212,-60.19,-67.36,-58.07,-61.99,-59.52,-63.67,-74.35,-72.11,-61.67,-58.14,-67.36,-71.12,-74.71,-73.39,-68.66,-75.07,0,0,0,0,0,0,0,0,0,0,0,0,0,0,0,0,
213,-70.54,-71.9,-65.15,-65.81,-66.32,-69.54,-75.93,-67.52,-63.62,-54.63,-68.44,-71.24,-72.29,-70.83,-67.58,-74.26,0,0,0,0,0,0,0,0,0,0,0,0,0,0,0,0,
214,-65.94,-66.81,-58.6,-55.96,-59.76,-61.89,-66.64,-56.88,-54.65,-46.94,-60.26,-63.35,-63.23,-59.92,-60.26,-65.47,0,0,0,0,0,0,0,0,0,0,0,0,0,0,0,0,
215,-61.55,-59.83,-50.45,-48.15,-58.53,-58.93,-61.91,-52.07,-56.22,-45.96,-63.57,-65.3,-61.48,-55.2,-64.36,-66.63,0,0,0,0,0,0,0,0,0,0,0,0,0,0,0,0,
216,-69.93,-62.54,-53.11,-51.74,-66.76,-65.93,-65.07,-55.43,-68.09,-47.42,-69.38,-68.27,-61.6,-54.17,-64.04,-63.78,0,0,0,0,0,0,0,0,0,0,0,0,0,0,0,0,
217,-71.7,-63.97,-58.16,-55.27,-69.58,-67.8,-65.62,-59.12,-68.73,-46.21,-62.77,-60.38,-53.85,-46.71,-50.42,-47.99,0,0,0,0,0,0,0,0,0,0,0,0,0,0,0,0,
218,-64.07,-58.88,-51.85,-49.87,-61.52,-61.67,-60.7,-56.69,-60.88,-45.58,-56.14,-55.85,-49.76,-43.15,-47.16,-43.16,0,0,0,0,0,0,0,0,0,0,0,0,0,0,0,0,
219,-65.58,-59.88,-45.78,-47.65,-58.84,-61.64,-60.62,-57.43,-65.34,-46.88,-60.27,-63.75,-56.99,-50.24,-56.86,-50.93,0,0,0,0,0,0,0,0,0,0,0,0,0,0,0,0,
220,-73.9,-66.9,-51.9,-53.79,-65.93,-66.98,-64.96,-61.47,-72.66,-47.77,-64.06,-70.1,-61.98,-53.88,-58.85,-50.56,0,0,0,0,0,0,0,0,0,0,0,0,0,0,0,0,
221,-73.56,-66,-50.94,-50.93,-62.35,-63.19,-61.02,-54.48,-65.44,-46.58,-60.81,-67.28,-59.65,-51.34,-54.88,-47.54,0,0,0,0,0,0,0,0,0,0,0,0,0,0,0,0,
222,-71.35,-63.71,-45.72,-47.46,-56.8,-60.57,-59.73,-53.02,-65.3,-48.21,-63.51,-65.73,-61.5,-55.36,-55.37,-52.22,0,0,0,0,0,0,0,0,0,0,0,0,0,0,0,0,
223,-75.49,-69.27,-53.16,-56.04,-63.18,-65.26,-66.03,-63.17,-73.34,-48.72,-66.3,-60.1,-58.56,-55.88,-48.31,-48.31,0,0,0,0,0,0,0,0,0,0,0,0,0,0,0,0,
224,-65.57,-62.48,-47.7,-48.56,-55.5,-54.64,-55.59,-52.83,-58.17,-38.01,-49.91,-40.33,-40.92,-42.41,-32.3,-34.7,0,0,0,0,0,0,0,0,0,0,0,0,0,0,0,0,
225,-43.81,-45.16,-31.49,-32.12,-40.29,-40.25,-41.37,-39.18,-42.15,-33.27,-35.56,-29.91,-33.68,-37.52,-30.31,-34.78,0,0,0,0,0,0,0,0,0,0,0,0,0,0,0,0,
226,-41.94,-46.04,-36.39,-38.22,-43.72,-45.02,-47.61,-49.77,-49.43,-42.37,-41.12,-38.88,-42.08,-44.61,-39.7,-42.01,0,0,0,0,0,0,0,0,0,0,0,0,0,0,0,0,
227,-49.28,-52.48,-37.75,-39.58,-42.21,-46.11,-50.45,-50.56,-48.52,-40.17,-44.33,-44.57,-44.64,-44,-42.51,-41.93,0,0,0,0,0,0,0,0,0,0,0,0,0,0,0,0,
228,-47.18,-50.22,-27.43,-29.63,-34.61,-41.33,-46.74,-40.71,-41.84,-32.78,-43.69,-47.28,-49.41,-45.24,-44.86,-48.41,0,0,0,0,0,0,0,0,0,0,0,0,0,0,0,0,
229,-51.06,-55.5,-35.53,-36.04,-42.6,-47.88,-51.41,-45.02,-48.1,-36.29,-46.46,-48.96,-54.88,-49.78,-43.97,-53.42,0,0,0,0,0,0,0,0,0,0,0,0,0,0,0,0,
230,-50.34,-53.94,-38.31,-33.93,-41.29,-44.4,-43.59,-39.42,-42.55,-31.06,-39.08,-36.43,-41.84,-40.69,-31.1,-41.43,0,0,0,0,0,0,0,0,0,0,0,0,0,0,0,0,
231,-33.78,-36.58,-23.97,-18.38,-28.73,-31.71,-29.32,-28.27,-30.19,-21.3,-32.35,-26.98,-32.61,-34.97,-25.24,-37.16,0,0,0,0,0,0,0,0,0,0,0,0,0,0,0,0,
232,-30.56,-32.91,-25.59,-21.94,-31.75,-34.7,-33.11,-35.63,-34.67,-25.3,-36.29,-31.64,-39.23,-40.92,-28.48,-43.56,0,0,0,0,0,0,0,0,0,0,0,0,0,0,0,0,
233,-39.17,-38.09,-30,-26.15,-33.17,-37.27,-36.35,-37.25,-35.6,-27.08,-31.75,-30.28,-36.03,-36.78,-22.7,-35.68,0,0,0,0,0,0,0,0,0,0,0,0,0,0,0,0,
234,-37.35,-34.45,-24.24,-21.48,-29.01,-33.5,-34.44,-32.94,-32.28,-26.19,-27.5,-29.94,-32,-31.78,-22.13,-29.49,0,0,0,0,0,0,0,0,0,0,0,0,0,0,0,0,
235,-40.03,-38.33,-31.35,-29.32,-40.07,-41.03,-40.9,-40.11,-44.43,-32.26,-37.85,-39.29,-38.95,-35.3,-30.83,-33.77,0,0,0,0,0,0,0,0,0,0,0,0,0,0,0,0,
236,-45.16,-42.83,-33.06,-27.43,-41.84,-41.21,-35.86,-33.5,-45.19,-26.15,-36.39,-32.89,-31,-25.82,-21.72,-21.85,0,0,0,0,0,0,0,0,0,0,0,0,0,0,0,0,
237,-32.07,-30.19,-16.57,-9.646,-25.18,-27.23,-20.56,-17.52,-28.42,-13.67,-23.97,-19.29,-17.45,-14.73,-10.26,-8.962,0,0,0,0,0,0,0,0,0,0,0,0,0,0,0,0,
238,-25.01,-23.73,-18.88,-11.57,-28.88,-29.36,-22.88,-22.44,-35.41,-18.02,-31.19,-27.93,-24.49,-22.94,-21.21,-18.67,0,0,0,0,0,0,0,0,0,0,0,0,0,0,0,0,
239,-35.47,-29.67,-30.85,-19.42,-41.32,-36,-25.7,-26.54,-48.31,-19.55,-35.58,-31.52,-24.23,-23.13,-20.92,-17.91,0,0,0,0,0,0,0,0,0,0,0,0,0,0,0,0,
240,-28.29,-21,-17.95,-7.92,-29.14,-21.99,-11.78,-16.19,-30.38,-7.856,-17.01,-12.19,-5.714,-8.243,-2.501,-0.5582,0,0,0,0,0,0,0,0,0,0,0,0,0,0,0,0,
241,-13.33,-10.27,-9.53,-4.63,-22.73,-16.28,-10.62,-18.5,-21.66,-9.008,-16.07,-10.6,-6.673,-12.33,-7.527,-5.446,0,0,0,0,0,0,0,0,0,0,0,0,0,0,0,0,
242,-23.04,-19.62,-19.85,-13.34,-32.96,-27.54,-22.04,-24.53,-35.29,-15.95,-31.89,-24.4,-19.59,-26.02,-20.18,-18.42,0,0,0,0,0,0,0,0,0,0,0,0,0,0,0,0,
243,-29.38,-23.5,-13.85,-6.487,-24.97,-24.01,-16.59,-14.44,-29.19,-9.194,-24.86,-18.13,-15.6,-23.05,-11.71,-13.08,0,0,0,0,0,0,0,0,0,0,0,0,0,0,0,0,
244,-19.52,-15.5,-5.474,-1.477,-16.28,-18.39,-10.81,-12.41,-21.77,-9.626,-20.63,-16.33,-17.54,-23.63,-14.3,-17.49,0,0,0,0,0,0,0,0,0,0,0,0,0,0,0,0,
245,-23.06,-21.26,-14.99,-10.06,-24.21,-25.3,-17.24,-20.28,-30.18,-19.58,-34.41,-29.5,-28.85,-30.94,-27.05,-30.98,0,0,0,0,0,0,0,0,0,0,0,0,0,0,0,0,
246,-25.96,-25.58,-11.03,-4.08,-17.21,-19.69,-11.96,-12.35,-23.12,-14.79,-27.86,-23.66,-21.5,-21.14,-17.46,-23.26,0,0,0,0,0,0,0,0,0,0,0,0,0,0,0,0,
247,-17.47,-16.39,-3.921,2.987,-11.23,-15.68,-8.207,-7.141,-20.89,-8.966,-17.95,-16,-14.25,-11.5,-10.21,-15.25,0,0,0,0,0,0,0,0,0,0,0,0,0,0,0,0,
248,-23.07,-18.03,-16.4,-7.904,-24.06,-27.97,-19.13,-14.92,-34.06,-11.85,-26.66,-21.39,-17.52,-13.36,-14.31,-17.53,0,0,0,0,0,0,0,0,0,0,0,0,0,0,0,0,
249,-23,-18.8,-10.6,-3.882,-14.3,-21.77,-14.14,-7.122,-20.38,-3.078,-17.65,-9.974,-6.055,-4.987,-2.463,-5.994,0,0,0,0,0,0,0,0,0,0,0,0,0,0,0,0,
250,-7.393,-6.965,3.991,5.899,-0.3225,-11.63,-5.898,-0.1856,-5.493,3.304,-5.583,-2.705,1.196,1.003,2.255,1.461,0,0,0,0,0,0,0,0,0,0,0,0,0,0,0,0,
251,-15.75,-11.27,-12.56,-9.412,-20.32,-26.69,-18.16,-13.1,-22.87,-5.328,-20.33,-18.64,-8.949,-5.677,-9.304,-5.601,0,0,0,0,0,0,0,0,0,0,0,0,0,0,0,0,
252,-28,-18.58,-15.67,-10.65,-23.99,-25.39,-15.22,-8.403,-29.23,-0.9155,-20.6,-16.42,-4.129,-0.3543,-2.013,1.129,0,0,0,0,0,0,0,0,0,0,0,0,0,0,0,0,
253,-12.39,-5.835,10.03,9.796,-1.141,-5.015,0.8473,8.085,-14.83,10.42,-1.824,-1.275,6.757,8.646,9.809,11.08,0,0,0,0,0,0,0,0,0,0,0,0,0,0,0,0,
254,-5.015,-3.039,9.668,5.417,-2.852,-8.341,-6.479,-0.6419,-10.94,4.633,-2.439,-2.857,3.324,6.879,6.26,8.17,0,0,0,0,0,0,0,0,0,0,0,0,0,0,0,0,
255,-9.736,-11.71,-1.522,-3.233,-10.73,-14.74,-13.09,-5.638,-18.09,1.929,-8.059,-2.697,3.456,9.199,5.981,6.997,0,0,0,0,0,0,0,0,0,0,0,0,0,0,0,0,
256,-3.569,-8.198,8.735,10.6,-1.605,-6.514,-3.211,10.33,-24.55,10.55,-4.132,0.4332,4.032,8.673,4.633,2.76,0,0,0,0,0,0,0,0,0,0,0,0,0,0,0,0,
257,-3.831,-6.187,13.14,16.09,2.901,-4.449,0.6185,14.63,-13.14,12.62,-1.303,-1.377,1.213,3.332,3.325,-0.5498,0,0,0,0,0,0,0,0,0,0,0,0,0,0,0,0,
258,-3.675,-4.917,14.78,15.61,11.18,2.033,6.476,12.83,12.45,14.43,4.686,7.184,10.44,10.86,15.51,10.58,0,0,0,0,0,0,0,0,0,0,0,0,0,0,0,0,
259,11.54,6.779,26.9,25.08,22.66,13.81,16.58,21.06,17.09,20.2,6.336,13.04,14.48,14.57,18.49,12.55,0,0,0,0,0,0,0,0,0,0,0,0,0,0,0,0,
260,14.2,8.231,23.49,23.64,14.31,8.54,12.14,21.14,4.994,18.3,-1.152,6.067,4.657,4.697,10.55,2.976,0,0,0,0,0,0,0,0,0,0,0,0,0,0,0,0,
261,4.876,0.3136,13.08,16.41,6.579,0.9174,5.493,14.06,2.385,14.99,1.582,7.598,4.904,5.143,17.53,8.037,0,0,0,0,0,0,0,0,0,0,0,0,0,0,0,0,
262,7.119,3.607,20.89,22.56,15.36,5.41,9.034,15.86,2.366,18.68,12.15,14.15,11.91,14.37,26.64,16.25,0,0,0,0,0,0,0,0,0,0,0,0,0,0,0,0,
263,9.948,8.668,27.39,27.11,18.66,6.717,10.09,19.49,-1.322,21.49,13.28,11.31,11.6,16.65,22.97,13.18,0,0,0,0,0,0,0,0,0,0,0,0,0,0,0,0,
264,5.317,6.075,19.32,20.55,13.04,1.964,5.36,15.63,-5.838,19.88,7.162,7.13,10.18,15.23,18.79,10.32,0,0,0,0,0,0,0,0,0,0,0,0,0,0,0,0,
265,5.161,6.117,15.12,15.79,12.17,2.513,4.981,12.01,-7.995,20.15,5.975,10.82,14.08,18.47,21.39,14.45,0,0,0,0,0,0,0,0,0,0,0,0,0,0,0,0,
266,13.42,14.36,23.93,21.98,18.52,11.46,15.04,20.16,1.232,25.26,15.08,22.02,25.41,30.73,30.6,26.61,0,0,0,0,0,0,0,0,0,0,0,0,0,0,0,0,
267,22.28,23.72,32.19,31.26,23.53,17.48,23.05,29.55,9.414,29.37,20.84,27.33,33.93,39.53,36.66,35.96,0,0,0,0,0,0,0,0,0,0,0,0,0,0,0,0,
268,19.98,22.61,26.68,27.74,18.07,10.69,14.6,21.97,3.457,28.68,14.83,19.79,29.41,33.08,32.35,31.39,0,0,0,0,0,0,0,0,0,0,0,0,0,0,0,0,
269,12.8,16.37,19.64,20.37,13.29,4.662,7.028,13.74,1.774,30.03,15.22,19.12,28.52,29.85,33.18,30.39,0,0,0,0,0,0,0,0,0,0,0,0,0,0,0,0,
270,17.68,21.07,24.75,25.61,20.76,9.766,14.85,21.04,9.185,35.43,24.34,30.13,38.26,38.41,41.99,40.51,0,0,0,0,0,0,0,0,0,0,0,0,0,0,0,0,
271,25.83,29.62,29.48,29.6,26.33,13.64,20.42,25.74,9.779,37.49,24.52,32.83,40.23,40.57,41.06,41.98,0,0,0,0,0,0,0,0,0,0,0,0,0,0,0,0,
272,24.72,29.3,29.45,26.5,25.48,14.51,19.83,25.32,8.687,37.12,22.52,30.4,37.86,38.45,37.93,39.08,0,0,0,0,0,0,0,0,0,0,0,0,0,0,0,0,
273,25.82,29.51,35.61,31.43,30.88,20.2,24.76,31.62,14.53,39.43,29.72,36.37,45.37,43.95,46.89,47.1,0,0,0,0,0,0,0,0,0,0,0,0,0,0,0,0,
274,31.34,34.17,39.82,36.82,35.32,22.41,26.89,33.15,16.09,40.01,33.07,38.54,49.23,45.57,49.51,49.84,0,0,0,0,0,0,0,0,0,0,0,0,0,0,0,0,
275,29.29,32.27,34.39,32.26,29.97,18.46,22.52,28.69,13.43,37.2,29.61,32.38,42.37,40.37,40.81,42.2,0,0,0,0,0,0,0,0,0,0,0,0,0,0,0,0,
276,28.49,29.29,35.12,32.9,32.21,22.81,25.97,33.94,21.96,38.52,35.22,36.13,42.72,43.3,45.64,45.51,0,0,0,0,0,0,0,0,0,0,0,0,0,0,0,0,
277,37.69,35.16,44.44,41.82,44.11,31.59,33.3,41.28,30.45,41.65,43.12,44.1,47.1,47.11,54.47,51.04,0,0,0,0,0,0,0,0,0,0,0,0,0,0,0,0,
278,38.99,35.96,42.29,40.14,40.96,27.47,28.8,36.17,22.11,36.91,39,39.67,41.44,40.77,47.47,44.36,0,0,0,0,0,0,0,0,0,0,0,0,0,0,0,0,
279,31.15,27.26,32.64,30.27,29.88,21.13,21.28,28.86,18.56,32.21,38.32,37.98,40.59,40.92,46.9,46.15,0,0,0,0,0,0,0,0,0,0,0,0,0,0,0,0,
280,33.66,27.95,35.42,32.57,35.08,26.79,24.7,32.43,28.27,38.53,46.08,45.59,49.84,50.79,56.9,56.91,0,0,0,0,0,0,0,0,0,0,0,0,0,0,0,0,
281,38.92,35.01,40.68,40.55,40.54,30.55,30.35,38.21,28.46,44.65,45.45,46.54,51.65,53.14,56.3,56.55,0,0,0,0,0,0,0,0,0,0,0,0,0,0,0,0,
282,37.39,34.64,38.42,39.51,34.76,29.47,31.65,37.98,26.59,42.3,42.05,45.3,48.97,51.05,52.83,52.63,0,0,0,0,0,0,0,0,0,0,0,0,0,0,0,0,
283,39.33,35.51,41.62,40.28,36.35,33.58,34.1,39.56,32.32,41.04,40.92,45.84,48.66,50.64,50.24,50.42,0,0,0,0,0,0,0,0,0,0,0,0,0,0,0,0,
284,40.07,39.29,44.59,44.29,39.41,33.91,35.4,41.87,28.23,42.15,35.56,42.23,46.9,48.61,45.47,48.47,0,0,0,0,0,0,0,0,0,0,0,0,0,0,0,0,
285,37.72,38.21,39.49,39.93,33.56,29.46,33.9,38.48,23.57,40.57,38.51,46.16,50.37,50.91,53.4,56.2,0,0,0,0,0,0,0,0,0,0,0,0,0,0,0,0,
286,42.55,38.31,41.25,37.52,34.71,31.62,34.87,38.59,30.69,40.59,48.2,55.68,56.59,55.18,64.06,63.06,0,0,0,0,0,0,0,0,0,0,0,0,0,0,0,0,
287,46.17,41.16,47.24,43,42.28,34.94,37.88,43.42,33.27,43.84,49.04,55.38,56.45,53.64,61.49,59.69,0,0,0,0,0,0,0,0,0,0,0,0,0,0,0,0,
288,45.05,42.96,44.78,43.72,43.28,34.29,40.29,42.89,31.13,46.5,47.85,51.57,55.92,51.56,57.45,57.63,0,0,0,0,0,0,0,0,0,0,0,0,0,0,0,0,
289,45.19,45.24,41.42,40.92,41.75,33.31,40.93,42.33,29.35,48.59,43.31,47.05,53.98,48.86,52.18,52.93,0,0,0,0,0,0,0,0,0,0,0,0,0,0,0,0,
290,41.63,45,43.62,43.14,43.25,34.21,41.15,45.71,25.98,48.81,34.73,41.69,48.89,44.35,46.4,44.59,0,0,0,0,0,0,0,0,0,0,0,0,0,0,0,0,
291,42.55,42.61,49.24,47.37,47.83,40.38,43.95,44.78,33.15,44.13,40.17,45.27,48.03,42.48,49.33,43.2,0,0,0,0,0,0,0,0,0,0,0,0,0,0,0,0,
292,50.13,41.42,53.66,47.82,50.66,44.28,43.86,41.9,41.79,39.67,48.46,49.07,46.19,40.32,50.48,42.84,0,0,0,0,0,0,0,0,0,0,0,0,0,0,0,0,
293,48.58,40.03,53.22,45.55,47.97,40.55,40.36,43.8,36.4,42.77,46.41,48.28,44.77,42.63,51.92,44.77,0,0,0,0,0,0,0,0,0,0,0,0,0,0,0,0,
294,48.1,42.69,53.23,46.33,47.2,41.41,43.13,46.19,35.17,47.92,49.49,52.91,51.7,52.04,59.91,51.51,0,0,0,0,0,0,0,0,0,0,0,0,0,0,0,0,
295,53.64,48.14,52.67,48.86,48.26,44.47,47.32,46.62,38.86,48.18,51.04,53.24,55.19,54.1,58.09,50.29,0,0,0,0,0,0,0,0,0,0,0,0,0,0,0,0,
296,48.24,48.16,47.51,48.89,45.21,40.95,45.98,48.52,33.8,50.15,44.53,48.87,54.42,52.54,55.33,51.15,0,0,0,0,0,0,0,0,0,0,0,0,0,0,0,0,
297,45.2,47.46,47.29,49.78,45.02,41.58,46.64,50.37,35.41,55.43,48.89,55.87,60.7,59.75,66.71,64.45,0,0,0,0,0,0,0,0,0,0,0,0,0,0,0,0,
298,54.39,49.6,53.66,52.36,50.18,46.88,50.07,50.37,45.91,56.04,58.84,64.54,65.24,65.23,73.37,71.88,0,0,0,0,0,0,0,0,0,0,0,0,0,0,0,0,
299,57.34,50.21,56.39,53.63,53.01,46.44,51.37,50.94,48.79,53.8,59.54,64.4,62.43,62.55,69.57,69.29,0,0,0,0,0,0,0,0,0,0,0,0,0,0,0,0,
300,54.79,49.63,52.37,52.07,49.4,42.54,49.74,49.74,45.63,51.65,55.55,62,59.02,57.87,65.28,65.64,0,0,0,0,0,0,0,0,0,0,0,0,0,0,0,0,
301,52.91,47.39,46.77,47.62,42.51,39.5,45.5,46.35,43.15,47.77,51.16,58.55,57.39,55.63,61.57,62.53,0,0,0,0,0,0,0,0,0,0,0,0,0,0,0,0,
302,48.41,45.29,47.3,46.37,42.31,38.88,43.16,46.26,45.7,46.56,52.37,57.34,58.88,58.63,63.89,63.76,0,0,0,0,0,0,0,0,0,0,0,0,0,0,0,0,
303,46.53,44.29,49.01,47.22,46.42,38.33,40.05,43.8,50.53,46.43,58.03,57.66,57.3,58.51,67.04,63.36,0,0,0,0,0,0,0,0,0,0,0,0,0,0,0,0,
304,44.21,37.11,43.76,41.31,42.98,33.36,31.18,34.99,48.2,41.42,55.9,52.05,48.31,51.1,61.27,55.92,0,0,0,0,0,0,0,0,0,0,0,0,0,0,0,0,
305,38.99,30.32,43.23,37.58,39.91,31.4,29.63,35.03,47.58,39.11,51.73,48,43.84,48.93,56.93,52.05,0,0,0,0,0,0,0,0,0,0,0,0,0,0,0,0,
306,39.23,34.78,50.06,43.5,43.26,35.08,38.21,44.68,52.05,42.18,51.39,47.94,44.62,49.51,54.71,49.77,0,0,0,0,0,0,0,0,0,0,0,0,0,0,0,0,
307,38.3,38.6,49.72,45.01,41.02,33.93,39.21,45.17,45.85,41.1,45.27,42.3,40.19,43.16,46.08,42.51,0,0,0,0,0,0,0,0,0,0,0,0,0,0,0,0,
308,34.16,35.9,48.24,42.01,38.15,33.07,35.92,40.45,39.98,38.93,41.36,39.97,37.31,40.22,43.23,40.83,0,0,0,0,0,0,0,0,0,0,0,0,0,0,0,0,
309,39.52,38.14,55,46.53,45.37,40.75,40.48,42.74,48.31,40.85,48.12,46.27,41.4,43.45,48.62,43.7,0,0,0,0,0,0,0,0,0,0,0,0,0,0,0,0,
310,44.18,41.24,57.18,49.13,49.02,42.95,41.48,41.69,48.71,38.66,47.91,44.39,42.7,42.36,45.96,40.33,0,0,0,0,0,0,0,0,0,0,0,0,0,0,0,0,
311,35.77,36.98,50.84,43.5,41.98,34.34,35.19,36.61,36.91,35.8,38.36,35.63,41.58,41.84,40.65,38.32,0,0,0,0,0,0,0,0,0,0,0,0,0,0,0,0,
312,29.14,35.47,46.68,41.46,36.57,29.31,35.07,40.39,32.69,42.14,36.59,35.06,44.51,47.13,42.99,42.53,0,0,0,0,0,0,0,0,0,0,0,0,0,0,0,0,
313,29.36,39.61,43.65,41.22,34.3,28.54,37.96,43.14,29.56,46.44,36.95,36.24,45.17,49.05,41.77,43.76,0,0,0,0,0,0,0,0,0,0,0,0,0,0,0,0,
314,27.01,39.29,39.54,38.26,32.21,26.42,36.62,37.22,23.92,41.85,31.22,32.53,39.78,44.97,35.4,41.2,0,0,0,0,0,0,0,0,0,0,0,0,0,0,0,0,
315,25.64,34.87,38.56,39.92,32.67,27.11,35.38,35.44,28.91,38.76,30.06,29.84,34.12,39.53,32.84,37.9,0,0,0,0,0,0,0,0,0,0,0,0,0,0,0,0,
316,26.06,30.68,35.59,39.08,30.71,27.61,31.62,36.24,33.95,37.28,33.96,29.54,33.32,37.39,33.75,37.41,0,0,0,0,0,0,0,0,0,0,0,0,0,0,0,0,
317,26.97,30.86,33.65,34.58,32.5,29.05,29.88,38.02,33.28,38.67,38.25,36.82,42.63,44.82,42.15,47.91,0,0,0,0,0,0,0,0,0,0,0,0,0,0,0,0,
318,36.57,41.51,42.71,41.92,45.22,37.79,39.29,48.77,39.49,47.94,44.11,49.34,54.62,53.51,52.9,58.81,0,0,0,0,0,0,0,0,0,0,0,0,0,0,0,0,
319,44.87,49.74,46.94,48.02,46.54,39.7,43.83,52.23,42.62,51.13,45.46,50.71,54.71,52.82,52.33,57.36,0,0,0,0,0,0,0,0,0,0,0,0,0,0,0,0,
320,42.2,46.01,41.69,43.05,37.34,35.01,40.62,43.76,41.73,46.98,47.65,49.84,54.41,56.08,53.81,59.5,0,0,0,0,0,0,0,0,0,0,0,0,0,0,0,0,
321,47.15,49.41,50.11,49.1,46,44,48.79,46.66,51.29,52.14,56.28,57.42,61.63,64.06,60.93,65.27,0,0,0,0,0,0,0,0,0,0,0,0,0,0,0,0,
322,54.66,57.04,58.93,55.48,52.2,49.74,52.7,50.5,50.62,55.09,50.82,51.78,55.29,56.09,50.61,53.88,0,0,0,0,0,0,0,0,0,0,0,0,0,0,0,0,
323,43.15,46.95,46.23,42.2,36.63,36.49,38.23,38.23,32.7,43.56,32.96,36.08,39.64,41.99,34.06,39.15,0,0,0,0,0,0,0,0,0,0,0,0,0,0,0,0,
324,32.31,35.44,37.24,34.95,32.26,30.5,31.3,31.4,27.8,35.32,28.38,34.72,37.21,39.57,31.96,37.28,0,0,0,0,0,0,0,0,0,0,0,0,0,0,0,0,
325,36.39,37.06,41.98,39.9,40.62,35.01,34.01,34.36,32.24,35.09,29.69,35.72,36.81,36.18,29.93,33.45,0,0,0,0,0,0,0,0,0,0,0,0,0,0,0,0,
326,35.16,33.04,38.66,33.49,35.51,30.59,26.39,29.24,28.09,31.47,24.78,28.48,29.33,29.22,24.96,28.13,0,0,0,0,0,0,0,0,0,0,0,0,0,0,0,0,
327,27.24,24,30.84,24.85,27.77,24.03,17.83,22.7,24.2,28.29,23.36,25.57,27.81,29.72,26.81,30.66,0,0,0,0,0,0,0,0,0,0,0,0,0,0,0,0,
328,23.51,24.13,29.93,26.65,25.75,22.19,18.33,24.17,22.3,29.82,24.79,25.8,30.15,31.63,28.01,31.92,0,0,0,0,0,0,0,0,0,0,0,0,0,0,0,0,
329,22.87,26.64,30.67,28.01,22.34,21.6,21.26,27.66,21.22,30.69,26.88,27.66,30.97,32.91,29.13,32.79,0,0,0,0,0,0,0,0,0,0,0,0,0,0,0,0,
330,28.1,28.08,32.08,28.56,24.77,25.82,26.79,30.89,26.85,30.94,32.4,34.78,34.87,37.63,34.49,38.76,0,0,0,0,0,0,0,0,0,0,0,0,0,0,0,0,
331,35.35,32.13,34.54,32.13,30.19,30.26,32.32,32.39,31.14,32.23,33.74,37.4,36.61,38,35.02,40.24,0,0,0,0,0,0,0,0,0,0,0,0,0,0,0,0,
332,35.13,32.57,35.18,32.79,28.78,29.15,31.92,29.7,30.39,31.22,31.76,35.18,34.62,34.85,32.5,37.86,0,0,0,0,0,0,0,0,0,0,0,0,0,0,0,0,
333,34.86,31.47,37.84,34.12,29.3,30.73,33.62,29.71,33.62,29.94,34.37,37.99,37.21,36.45,34.16,39.52,0,0,0,0,0,0,0,0,0,0,0,0,0,0,0,0,
334,39.14,36.49,43.81,41.03,34.97,35.58,39.96,35.96,38.69,32.25,36.03,39.65,39.21,37.04,33.69,38.58,0,0,0,0,0,0,0,0,0,0,0,0,0,0,0,0,
335,37.29,37.99,45.34,43.2,35.81,33.81,38.1,36.92,36.98,31.43,33.01,34.44,33.94,32.98,28.77,32.61,0,0,0,0,0,0,0,0,0,0,0,0,0,0,0,0,
336,30.12,30.89,41.07,37.51,33.36,28.44,31.09,29.39,31.7,26.1,30.46,31.2,31.05,31.99,26.36,30.74,0,0,0,0,0,0,0,0,0,0,0,0,0,0,0,0,
337,29.96,30.2,40.06,37.27,35.04,28.98,33.65,28.2,32.47,27.04,29.57,33.17,35.04,34.52,27.4,32.5,0,0,0,0,0,0,0,0,0,0,0,0,0,0,0,0,
338,34.96,37.63,42.2,43.14,35.64,30.65,38.51,34.04,34.69,31.19,28.69,34.12,36.47,33.64,27.47,30.79,0,0,0,0,0,0,0,0,0,0,0,0,0,0,0,0,
339,34.29,38.77,39.12,43.86,29.69,26.79,35.32,33.9,28.46,29.14,27.45,32.39,33.16,29.75,24.68,27.45,0,0,0,0,0,0,0,0,0,0,0,0,0,0,0,0,
340,30.52,35.51,36.87,42.7,25.84,24.96,33.33,31.51,22.99,27.73,25.95,30.3,31.23,27.46,20.47,25.25,0,0,0,0,0,0,0,0,0,0,0,0,0,0,0,0,
341,30.26,34.78,41.48,44.04,27.92,27.8,33.43,31.6,23.01,28.2,22.87,26.73,29.18,24.98,16.48,20.7,0,0,0,0,0,0,0,0,0,0,0,0,0,0,0,0,
342,27.5,30.17,39.71,39.1,26.47,24.95,26.62,27.33,18.62,23.98,18.73,22.26,25.57,21.9,15.11,17.11,0,0,0,0,0,0,0,0,0,0,0,0,0,0,0,0,
343,20.55,24.2,30.18,30.31,22.18,18.02,20.27,24.43,17.88,23.52,20.12,22.09,26.63,25.01,18.93,21.21,0,0,0,0,0,0,0,0,0,0,0,0,0,0,0,0,
344,19.43,26.93,29.29,30.08,22.61,17.95,22.11,28.46,25.24,28.4,25.35,24.47,29.3,30.59,21.77,24.35,0,0,0,0,0,0,0,0,0,0,0,0,0,0,0,0,
345,22.82,31.16,34.68,34.67,22.85,21.15,25.94,29.08,23.58,26.19,23.4,23.04,25.53,27.84,17.18,18.82,0,0,0,0,0,0,0,0,0,0,0,0,0,0,0,0,
346,21.27,29.59,36.27,36.21,20.94,20.96,29.57,26.84,18.16,22.5,19.29,21.99,22.91,23.71,15.07,16.51,0,0,0,0,0,0,0,0,0,0,0,0,0,0,0,0,
347,19.23,30.19,39.14,38.2,23.82,22.25,33.81,29.65,23.8,26.6,24.28,26.87,27.68,26.73,21.71,22.02,0,0,0,0,0,0,0,0,0,0,0,0,0,0,0,0,
348,24.01,33.75,42.64,40.43,28.81,27.11,34.68,31.53,28.53,28.22,31.08,31.47,30.3,26.95,25.43,23.37,0,0,0,0,0,0,0,0,0,0,0,0,0,0,0,0,
349,30.62,33.95,41.44,39.03,30.02,31.12,33.06,29.85,29.08,24.91,32.16,31.82,28.41,22.41,23.26,21.09,0,0,0,0,0,0,0,0,0,0,0,0,0,0,0,0,
350,33.88,33.82,41.81,37.93,29.83,33.43,32.64,29.48,36.05,25.97,31.51,31.74,28.46,23.76,23.15,23.15,0,0,0,0,0,0,0,0,0,0,0,0,0,0,0,0,
351,34.72,35.67,45.95,41.43,30.84,35.12,34.28,29.73,39.64,27.91,29.82,31.18,28.65,26.67,23.06,24.11,0,0,0,0,0,0,0,0,0,0,0,0,0,0,0,0,
352,34.29,36.61,50.18,48.68,34.19,37.31,38.66,32.45,33.77,26.51,28.48,30.6,27.88,24.44,21.94,21.42,0,0,0,0,0,0,0,0,0,0,0,0,0,0,0,0,
353,35.26,37.23,55.95,54.74,39.62,40.69,41.57,37.52,31.92,27.7,32.02,33.79,29.09,25.08,24.6,22.04,0,0,0,0,0,0,0,0,0,0,0,0,0,0,0,0,
354,39.09,37.13,60.89,55.68,43.36,42.9,39.52,37.2,35.77,30.54,36.7,37.57,28.3,28.13,27.16,23.36,0,0,0,0,0,0,0,0,0,0,0,0,0,0,0,0,
355,41.74,35.16,60.1,55.34,43.54,41.94,37.84,33.79,37.92,29.84,38.07,37.89,23.75,24.75,26.6,20.06,0,0,0,0,0,0,0,0,0,0,0,0,0,0,0,0,
356,40.55,33.5,53.29,52.86,38.69,36.44,35.93,32.44,37.08,27.33,37.14,36.22,21.11,19.56,25.84,17.06,0,0,0,0,0,0,0,0,0,0,0,0,0,0,0,0,
357,35.79,31.09,42.27,43.02,28.11,27.15,29.22,27.79,29.62,24.34,32.76,31.48,20.49,18.52,22.47,16.82,0,0,0,0,0,0,0,0,0,0,0,0,0,0,0,0,
358,28.52,26.82,35.27,36.99,21.34,22.51,25.03,21.38,20.52,21.39,28.02,26,20.47,19.69,19.2,17.44,0,0,0,0,0,0,0,0,0,0,0,0,0,0,0,0,
359,25.08,25.21,38.8,41.96,25.79,25.7,25.66,20.9,23.49,22.05,30.09,26.3,23.67,23.37,22.92,20.17,0,0,0,0,0,0,0,0,0,0,0,0,0,0,0,0,
360,26.62,25.91,44.13,43.3,31.38,26.6,22.26,22.64,30.71,24.88,33.07,26.48,25.73,26.71,25.22,22.46,0,0,0,0,0,0,0,0,0,0,0,0,0,0,0,0,
361,22.1,22.49,42.44,38.21,28.22,21.16,16.33,20.55,25.32,24.45,27.53,19.3,21.5,24.72,19.09,20.32,0,0,0,0,0,0,0,0,0,0,0,0,0,0,0,0,
362,11.87,16.03,37.59,37.59,20.89,16.46,14.71,17.34,14.3,21.84,19.62,13.93,16.54,20.88,13.98,16.04,0,0,0,0,0,0,0,0,0,0,0,0,0,0,0,0,
363,10.23,14.67,34.65,38.28,14.79,16.18,16.84,18.43,9.659,22.07,16.92,16.3,16.11,19.8,14.64,13.09,0,0,0,0,0,0,0,0,0,0,0,0,0,0,0,0,
364,15.72,20.04,32.78,36.23,9.705,17.93,20.93,24.7,8.101,25.83,17.02,19.25,18.9,21.98,17.7,14.44,0,0,0,0,0,0,0,0,0,0,0,0,0,0,0,0,
365,16.93,24.22,30.62,35.88,6.92,18.08,23.72,29.71,7.454,28.67,18.26,20.63,21.77,24.43,21.01,18.61,0,0,0,0,0,0,0,0,0,0,0,0,0,0,0,0,
366,15.95,21.5,29.18,34.92,6.651,15.58,20.86,26.55,8.795,25.63,19.06,21.07,21.15,21.44,19.32,18.05,0,0,0,0,0,0,0,0,0,0,0,0,0,0,0,0,
367,15.04,15.18,28.1,31.41,5.348,12.42,14.79,18.9,6.473,18.65,15.18,16.42,17.86,16.2,11.98,14.33,0,0,0,0,0,0,0,0,0,0,0,0,0,0,0,0,
368,10.27,11.06,27.35,31.91,3.996,11.08,12.57,16.73,0.763,16.14,8.045,9.681,15.99,16.48,6.27,14.22,0,0,0,0,0,0,0,0,0,0,0,0,0,0,0,0,
369,6.415,11.56,29.5,35.2,5.174,12.73,16.16,19.43,-0.686,18.52,2.117,7.104,15.64,18.01,4.008,14.13,0,0,0,0,0,0,0,0,0,0,0,0,0,0,0,0,
370,6.856,15.37,32.15,33.45,5.594,15.01,19.33,18.85,-1.22,18.33,-1.243,5.848,15.15,15.23,3.202,12.05,0,0,0,0,0,0,0,0,0,0,0,0,0,0,0,0,
371,7.537,18.42,33.35,32.22,6.018,16.86,19.57,18.46,-5.163,17.28,-2.236,4.938,12.87,11.8,2.533,10.93,0,0,0,0,0,0,0,0,0,0,0,0,0,0,0,0,
372,11.05,17.7,37.17,37.72,10.46,20.71,20.84,22.26,-4.346,18.56,-2.618,7.759,6.824,8.398,-0.0149,7.375,0,0,0,0,0,0,0,0,0,0,0,0,0,0,0,0,
373,17.04,12.65,39.42,38.78,15.03,22.59,19.44,20.73,2.404,14.65,-1.367,11.49,0.2929,3.373,0.5403,3.311,0,0,0,0,0,0,0,0,0,0,0,0,0,0,0,0,
374,18.06,6.717,37.34,34.73,18.19,20.33,14.57,15.94,7.636,8.359,5.693,15.25,0.3459,2.168,9.315,7.498,0,0,0,0,0,0,0,0,0,0,0,0,0,0,0,0,
375,17.76,7.821,42.26,41.95,22.98,22.06,17.7,21.29,12.01,12.01,13.88,20.96,8.217,8.691,17.81,16.47,0,0,0,0,0,0,0,0,0,0,0,0,0,0,0,0,
376,20.59,16.21,52.97,55.7,27.01,27.78,27.33,31.7,15.17,19.22,14.59,22.87,17.13,16.62,18.4,20.88,0,0,0,0,0,0,0,0,0,0,0,0,0,0,0,0,
377,20.04,22.37,57.65,61.7,30.99,30.39,31.91,37.15,14.12,19.7,11.44,19.79,21.35,19.3,16.5,20.63,0,0,0,0,0,0,0,0,0,0,0,0,0,0,0,0,
378,17.08,23.95,62.98,68.8,37.75,32.42,34.86,41.32,14.92,19.36,12.47,19.82,22.61,18.3,16.96,19.92,0,0,0,0,0,0,0,0,0,0,0,0,0,0,0,0,
379,19.6,25.26,77.37,85.77,45.89,38.47,42.42,49.29,21.09,20.88,17.68,23.87,24.33,17.32,18.58,21.22,0,0,0,0,0,0,0,0,0,0,0,0,0,0,0,0,
380,27.51,27.99,95.18,106.8,57.53,48.27,53.27,62.61,27.9,21.82,23.83,28.4,26.72,17.19,21.58,23.83,0,0,0,0,0,0,0,0,0,0,0,0,0,0,0,0,
381,36.85,34.71,114.5,128.8,71.35,59.72,66.84,77.46,33.96,25.09,27.57,31.76,27.91,17.11,24,23.55,0,0,0,0,0,0,0,0,0,0,0,0,0,0,0,0,
382,43.13,42.96,134.7,148.1,83.92,70.27,79.66,89.23,38.31,28.13,26.18,29.78,25.47,15.78,20.27,19.23,0,0,0,0,0,0,0,0,0,0,0,0,0,0,0,0,
383,43.45,44.78,147,155.9,99.41,79.22,87.56,103.2,38.25,28.24,23.84,26.03,22.36,15.59,14.47,16.55,0,0,0,0,0,0,0,0,0,0,0,0,0,0,0,0,
384,43.04,43.33,148.4,154.1,111.7,84.44,91.73,118.2,38.17,31.78,26.99,29.83,24.7,20.05,16.28,19.54,0,0,0,0,0,0,0,0,0,0,0,0,0,0,0,0,
385,47.44,45.88,147.1,153.5,113.1,85.32,93.2,122.9,43.03,38.1,32.55,35.56,29.34,24.42,20.47,22.96,0,0,0,0,0,0,0,0,0,0,0,0,0,0,0,0,
386,52.53,48.25,148.4,155.4,114.3,86.29,91.51,118,46.21,39.22,32.69,32.65,29.06,22.56,16.15,20.42,0,0,0,0,0,0,0,0,0,0,0,0,0,0,0,0,
387,51.14,45.47,147.4,150.3,115.6,84.69,86.17,110.6,40.7,35.81,26.99,24.28,24.61,17.55,7.662,14.52,0,0,0,0,0,0,0,0,0,0,0,0,0,0,0,0,
388,43.03,40.22,138.8,137.5,106.9,76.53,78.16,102.7,32.82,32.56,20.99,17.55,20.06,13.49,4.467,10.64,0,0,0,0,0,0,0,0,0,0,0,0,0,0,0,0,
389,35.06,36.39,124.5,125.2,96.65,68.49,71.33,97.13,29.52,29.26,18.8,15.58,17,10.26,7.492,9.516,0,0,0,0,0,0,0,0,0,0,0,0,0,0,0,0,
390,32.27,34.09,109.1,112,89.09,62.67,65.35,90.26,27.84,25.04,19.65,18.06,14.27,8.086,11.71,9.21,0,0,0,0,0,0,0,0,0,0,0,0,0,0,0,0,
391,32.2,30.79,96.81,97.05,78.45,56.31,58.99,78.38,25.91,21.74,19.7,19.38,11.01,6.957,11.35,7.646,0,0,0,0,0,0,0,0,0,0,0,0,0,0,0,0,
392,32.33,28.72,89.71,89.74,70.5,53.9,57.69,71.42,24.63,20.84,17.72,17.57,10.73,7.018,7.451,6.197,0,0,0,0,0,0,0,0,0,0,0,0,0,0,0,0,
393,34.44,31.02,84.71,87.52,66.11,54.68,60.48,71.43,22.13,21.18,15.4,16.71,14.06,8.977,5.395,7.388,0,0,0,0,0,0,0,0,0,0,0,0,0,0,0,0,
394,36.4,32.52,75.23,78.67,57.65,51.02,58.73,66.4,19.9,22.04,14.33,16.5,15.98,11.94,4.73,9.094,0,0,0,0,0,0,0,0,0,0,0,0,0,0,0,0,
395,32.62,31.55,60.66,65.42,48.15,43.09,53.76,58.68,19.82,23.77,15.84,16.13,17.1,15.79,4.569,10.35,0,0,0,0,0,0,0,0,0,0,0,0,0,0,0,0,
396,25.46,33.5,49.69,56.99,41.41,36.38,51.62,57.98,17.47,24.8,17.89,18.06,20.64,19.86,6.515,12.4,0,0,0,0,0,0,0,0,0,0,0,0,0,0,0,0,
397,23.09,36.91,47.29,54.31,37.06,34.52,51.52,57.33,13.63,24.83,16.15,19.56,23.54,21.43,6.868,12.03,0,0,0,0,0,0,0,0,0,0,0,0,0,0,0,0,
398,25.99,38.2,45.53,50.76,36.26,35.94,50.71,49.64,13.48,25.13,11.02,16.23,23.65,20.79,1.883,8.088,0,0,0,0,0,0,0,0,0,0,0,0,0,0,0,0,
399,27.08,38.05,38.92,41.94,34.82,35.38,47.41,42.91,12.24,24.41,5.921,11.37,23.35,19.15,-3.502,5.688,0,0,0,0,0,0,0,0,0,0,0,0,0,0,0,0,
400,25.25,36.19,34.25,34.6,31.29,34.31,43.61,41.98,7.793,22.91,3.812,11.06,23.54,16.32,-3.071,6.761,0,0,0,0,0,0,0,0,0,0,0,0,0,0,0,0,
401,25.82,34.1,33.8,33.88,31.07,36.21,43.05,39.7,9.106,21.4,5.218,12.77,22.56,14.45,-0.1748,7.413,0,0,0,0,0,0,0,0,0,0,0,0,0,0,0,0,
402,26.28,32.34,30.3,30.6,30.63,35.02,40.65,31.3,12.4,16.63,4.776,9.97,19.49,13.9,-1.183,5.369,0,0,0,0,0,0,0,0,0,0,0,0,0,0,0,0,
403,20.63,28.44,23.3,21.5,26.08,28.37,32.69,22.86,6.317,11.05,0.1401,5.904,15.7,12.07,-3.904,2.641,0,0,0,0,0,0,0,0,0,0,0,0,0,0,0,0,
404,15.09,24.86,19.44,16.72,22.73,23.66,27.14,21.15,-0.2319,10.94,-2.841,5.231,11.58,9.004,-6.03,-0.2139,0,0,0,0,0,0,0,0,0,0,0,0,0,0,0,0,
405,16.12,22.61,19.35,16.62,19.73,21.77,25.16,22.27,1.938,11.16,-2.669,3.35,6.207,5.589,-9.364,-3.233,0,0,0,0,0,0,0,0,0,0,0,0,0,0,0,0,
406,15.69,17.22,17.2,12.41,14.1,17.51,18.99,19.68,2.445,6.528,-2.296,0.5907,1.936,2.774,-8.663,-2.581,0,0,0,0,0,0,0,0,0,0,0,0,0,0,0,0,
407,9.115,10.52,9.352,4.835,10.23,11.58,11,14.65,-0.5917,3.244,-0.6023,2.772,1.472,2.111,-1.955,1.185,0,0,0,0,0,0,0,0,0,0,0,0,0,0,0,0,
408,4.826,7.323,0.9166,-0.0941,8.174,7.651,7.221,10.36,2.249,2.111,1.425,6.115,3.448,2.563,0.8503,2.545,0,0,0,0,0,0,0,0,0,0,0,0,0,0,0,0,
409,5.365,6.474,-1.034,-2.343,5.593,5.898,5.197,7.13,5.769,-1.794,-0.2928,5.198,4.097,1.422,-2.421,1.274,0,0,0,0,0,0,0,0,0,0,0,0,0,0,0,0,
410,3.942,5.604,-1.264,-5.265,3.119,3.753,1.528,3.694,2.982,-5.106,-3.941,2.03,0.8261,-2.381,-5.365,-1.121,0,0,0,0,0,0,0,0,0,0,0,0,0,0,0,0,
411,0.4213,3.708,-6.179,-9.696,-0.3535,1.805,-3.017,-1.364,1.475,-4.931,-4.407,-0.3634,-2.963,-5.779,-6.74,-3.112,0,0,0,0,0,0,0,0,0,0,0,0,0,0,0,0,
412,0.2266,0.0754,-8.642,-13.11,-0.911,4.23,-5.806,-5.325,5.032,-4.578,-1.359,0.3142,-2.268,-5.15,-5.37,-1.529,0,0,0,0,0,0,0,0,0,0,0,0,0,0,0,0,
413,3.498,-3.03,-4.624,-13.8,5.314,8.777,-5.246,-5.822,9.18,-4.492,2.196,3.81,0.0827,-3.933,-1.198,0.4643,0,0,0,0,0,0,0,0,0,0,0,0,0,0,0,0,
414,6.282,-2.669,-3.457,-14.15,9.023,8.123,-4.504,-6.976,12.92,-4.695,4.572,5.425,-0.7844,-5.817,0.4259,-0.9634,0,0,0,0,0,0,0,0,0,0,0,0,0,0,0,0,
415,4.853,-2.062,-9.13,-17.9,3.682,2.517,-6.897,-10.53,13.83,-7.698,4.493,3.513,-3.723,-7.366,-1.352,-2.811,0,0,0,0,0,0,0,0,0,0,0,0,0,0,0,0,
416,0.3454,-4.564,-15.05,-23.38,-2.692,-1.274,-8.641,-11.93,10.56,-10.57,1.839,2.088,-4.918,-6.306,-2.724,-3.809,0,0,0,0,0,0,0,0,0,0,0,0,0,0,0,0,
417,0.8207,-4.131,-16.5,-24.17,-3.346,0.7708,-5.445,-9.536,9.77,-8.575,0.4383,3.209,-2.979,-4.62,-3.107,-4.393,0,0,0,0,0,0,0,0,0,0,0,0,0,0,0,0,
418,7.992,1.669,-14.09,-20.91,-0.5897,6.344,-0.5902,-7.322,11.84,-5.843,1.364,4.297,-1.066,-4.065,-3.988,-4.173,0,0,0,0,0,0,0,0,0,0,0,0,0,0,0,0,
419,12.31,4.277,-10.7,-20.54,1.304,10.05,1.668,-7.794,10.69,-6.467,0.3552,4.076,-1.882,-4.153,-5.466,-4.321,0,0,0,0,0,0,0,0,0,0,0,0,0,0,0,0,
420,9.596,1.863,-10.61,-22.22,-0.3134,9.254,0.7124,-9.17,7.591,-5.911,-2.345,3.205,-4.275,-3.779,-6.318,-4.176,0,0,0,0,0,0,0,0,0,0,0,0,0,0,0,0,
421,3.534,-1.144,-16.76,-23.02,-6.103,3.987,-4.178,-11.01,3.431,-5.132,-4.412,-0.319,-8.441,-5.854,-8.213,-4.918,0,0,0,0,0,0,0,0,0,0,0,0,0,0,0,0,
422,-2.846,-5.045,-23.71,-25.41,-11.36,-2.01,-9.216,-11.99,-0.7353,-8.852,-7.111,-5.061,-12.45,-10.29,-12.24,-8.316,0,0,0,0,0,0,0,0,0,0,0,0,0,0,0,0,
423,-4.384,-6.223,-23.3,-26.87,-10.62,-2.092,-7.86,-8.094,1.779,-9.992,-7.561,-4.294,-10.48,-9.289,-11.93,-7.953,0,0,0,0,0,0,0,0,0,0,0,0,0,0,0,0,
424,-0.5426,-1.803,-19.78,-24.96,-9.462,0.5023,-5.023,-4.888,5.8,-6.4,-4.243,-0.7619,-5.34,-3.785,-6.569,-2.933,0,0,0,0,0,0,0,0,0,0,0,0,0,0,0,0,
425,-0.7626,-0.3271,-20.48,-25.37,-13.67,-2.788,-9.002,-9.679,1.178,-8.806,-4.123,-2.992,-5.06,-3.57,-5.418,-2.836,0,0,0,0,0,0,0,0,0,0,0,0,0,0,0,0,
426,-6.416,-5.912,-21.07,-28.31,-15.09,-7.024,-15.35,-14.72,-4.938,-15.52,-7.728,-6.633,-8.361,-7.712,-7.688,-6.642,0,0,0,0,0,0,0,0,0,0,0,0,0,0,0,0,
427,-7.913,-11.2,-17.95,-28.32,-9.604,-4.112,-17.17,-13.96,-4.032,-16.66,-8.494,-4.524,-9.683,-8.61,-7.205,-6.36,0,0,0,0,0,0,0,0,0,0,0,0,0,0,0,0,
428,-3.739,-11.43,-14.86,-26.77,-4.413,1.409,-15.25,-12.2,0.1839,-13.96,-6.641,-1.617,-8.322,-6.217,-7.049,-3.942,0,0,0,0,0,0,0,0,0,0,0,0,0,0,0,0,
429,-0.3666,-8.409,-13.41,-27.22,-1.87,3.081,-13.47,-11.22,2.6,-11.7,-5.065,-2.094,-6.303,-4.471,-7.976,-3.383,0,0,0,0,0,0,0,0,0,0,0,0,0,0,0,0,
430,-0.0356,-5.824,-13.5,-29.53,-1.787,1.269,-14.77,-11.77,1.431,-10.66,-4.165,-2.381,-5.283,-4.347,-6.524,-3.255,0,0,0,0,0,0,0,0,0,0,0,0,0,0,0,0,
431,-0.516,-5.6,-15.74,-32.78,-3.777,-1.422,-17.82,-15.09,0.387,-11.61,-4.036,-1.941,-6.051,-5.751,-5.625,-3.022,0,0,0,0,0,0,0,0,0,0,0,0,0,0,0,0,
432,-2.026,-8.482,-20.44,-37,-4.281,-4.838,-21.61,-19.32,1.409,-14.63,-6.193,-5.067,-11.01,-10.58,-9.771,-6.65,0,0,0,0,0,0,0,0,0,0,0,0,0,0,0,0,
433,-8.71,-16.18,-26.11,-41.49,-6.117,-10.06,-27.92,-24.18,-1.915,-20.35,-13.64,-12.52,-20.97,-18.51,-18.05,-16.35,0,0,0,0,0,0,0,0,0,0,0,0,0,0,0,0,
434,-16.77,-23.89,-27.67,-43.17,-10.04,-12.84,-31.25,-26.74,-6.876,-24.19,-19.73,-17.2,-26.67,-22.91,-23.08,-22.84,0,0,0,0,0,0,0,0,0,0,0,0,0,0,0,0,
435,-14.76,-22.2,-25.42,-41.53,-8.811,-9.782,-26.47,-23.82,-4.199,-21.04,-13.98,-13.7,-20.78,-19.05,-19.66,-17.34,0,0,0,0,0,0,0,0,0,0,0,0,0,0,0,0,
436,-6.801,-14.24,-26.52,-40.48,-7.093,-7.573,-20.7,-20.63,0.38,-18.82,-6.341,-9.334,-13.56,-13.05,-16.35,-10.63,0,0,0,0,0,0,0,0,0,0,0,0,0,0,0,0,
437,-6.074,-10.06,-30.1,-40.75,-10.96,-9.069,-18.74,-19.1,-0.2252,-21.11,-10.28,-11.48,-14.54,-13.2,-20.88,-13.99,0,0,0,0,0,0,0,0,0,0,0,0,0,0,0,0,
438,-8.87,-9.455,-30.58,-40.76,-11.27,-8.758,-17.51,-15.96,-2.166,-18.77,-17,-14.62,-16.31,-15.93,-25.25,-18.39,0,0,0,0,0,0,0,0,0,0,0,0,0,0,0,0,
439,-8.486,-8.71,-29.06,-39.79,-7.692,-7.463,-15.32,-12.97,-4.682,-13.62,-17.78,-13.83,-13.48,-13.69,-23.91,-16.86,0,0,0,0,0,0,0,0,0,0,0,0,0,0,0,0,
440,-8.6,-7.607,-26.22,-34.96,-8.738,-6.446,-10.08,-9.225,-7.516,-12.94,-16.98,-11.89,-11.99,-11.06,-22.44,-16.94,0,0,0,0,0,0,0,0,0,0,0,0,0,0,0,0,
441,-8.03,-5.744,-22.17,-27.55,-10.34,-2.974,-3.354,-3.676,-6.78,-13.33,-15.11,-9.646,-13.29,-13.33,-21.11,-18.67,0,0,0,0,0,0,0,0,0,0,0,0,0,0,0,0,
442,-5.67,-4.526,-22.09,-25.15,-10.32,-2.768,-2.137,-4.178,-4.53,-13.94,-10.73,-6.889,-12.9,-13.88,-16.12,-14.89,0,0,0,0,0,0,0,0,0,0,0,0,0,0,0,0,
443,-7.003,-5.387,-27.8,-29.72,-14.55,-9.548,-6.347,-12.21,-4.457,-16.72,-8.769,-7.096,-11.97,-11.18,-13.56,-11.03,0,0,0,0,0,0,0,0,0,0,0,0,0,0,0,0,
444,-11.01,-7.305,-34.33,-36.02,-20.5,-15.38,-11.12,-18.52,-6.417,-17.54,-11.59,-11.64,-13.67,-11.6,-18.29,-14,0,0,0,0,0,0,0,0,0,0,0,0,0,0,0,0,
445,-14.29,-10.37,-36.3,-39.42,-22.47,-16.86,-14.84,-19.14,-9.582,-15.86,-13.78,-16.15,-16.05,-13.15,-22.04,-17.7,0,0,0,0,0,0,0,0,0,0,0,0,0,0,0,0,
446,-17.79,-14,-32.52,-39.09,-21.32,-16.87,-16.25,-17.79,-12.1,-14.71,-13.09,-17.89,-17.99,-14.13,-20.97,-19.39,0,0,0,0,0,0,0,0,0,0,0,0,0,0,0,0,
447,-20.68,-16.95,-28.97,-38.09,-20.2,-16.58,-17.25,-18.97,-13.19,-13.76,-14.61,-19.09,-20.19,-17.11,-20.99,-21.94,0,0,0,0,0,0,0,0,0,0,0,0,0,0,0,0,
448,-22.11,-19.31,-30.45,-39.18,-19.5,-17.18,-20.61,-21.94,-11.88,-13.65,-17.37,-18.98,-19.89,-17.18,-20.71,-20.95,0,0,0,0,0,0,0,0,0,0,0,0,0,0,0,0,
449,-21.49,-19.29,-32.11,-41.78,-17.13,-17,-22.48,-22.75,-6.982,-13.89,-15.66,-16.05,-17.36,-14.1,-18.37,-17.24,0,0,0,0,0,0,0,0,0,0,0,0,0,0,0,0,
450,-18.3,-17.21,-30.69,-43.09,-15.74,-14.98,-20.8,-24.02,-4.506,-11.9,-13.9,-15.55,-17.73,-16.25,-20.16,-18.79,0,0,0,0,0,0,0,0,0,0,0,0,0,0,0,0,
451,-17.34,-17.5,-29.88,-39.87,-18.07,-15.32,-20.29,-27.28,-7.932,-11.26,-17.24,-20.37,-22.22,-22.75,-25.51,-23.75,0,0,0,0,0,0,0,0,0,0,0,0,0,0,0,0,
452,-22.39,-22.35,-31.77,-36.59,-19.84,-19.27,-24.28,-27.66,-11.7,-16.66,-22.36,-27.04,-28.89,-29.43,-30,-28.2,0,0,0,0,0,0,0,0,0,0,0,0,0,0,0,0,
453,-31.11,-30.74,-37.05,-42.06,-21.75,-25.2,-31.41,-28.98,-14.46,-22.85,-26.64,-31.73,-33.38,-34.18,-32.81,-30.79,0,0,0,0,0,0,0,0,0,0,0,0,0,0,0,0,
454,-36.98,-36.16,-42.97,-50.42,-25.02,-29.67,-36.06,-35.57,-14.63,-22.69,-26.76,-29.22,-29.81,-30.88,-29.76,-26.81,0,0,0,0,0,0,0,0,0,0,0,0,0,0,0,0,
455,-32.91,-32.17,-43.16,-50.57,-22.82,-27.12,-34.81,-38.71,-9.409,-19.84,-21.38,-21.55,-23.13,-24.41,-23.53,-21.98,0,0,0,0,0,0,0,0,0,0,0,0,0,0,0,0,
456,-25.56,-26.36,-40.57,-47.86,-19.26,-23.16,-32.47,-35.96,-7.927,-20.24,-19.14,-20.5,-23.16,-25.91,-25.04,-25.54,0,0,0,0,0,0,0,0,0,0,0,0,0,0,0,0,
457,-27.53,-26.95,-41.72,-48.98,-21.55,-25.91,-32.2,-34.37,-13.2,-21.91,-22.51,-26.45,-27.78,-30.18,-31.17,-29.99,0,0,0,0,0,0,0,0,0,0,0,0,0,0,0,0,
458,-32.17,-28.77,-43.18,-49.82,-22.01,-28.4,-32.22,-33.94,-14.99,-22.93,-23.35,-29.84,-31.5,-31.24,-32.3,-29.65,0,0,0,0,0,0,0,0,0,0,0,0,0,0,0,0,
459,-31.67,-30.24,-44.26,-51.16,-22.29,-28.58,-34.51,-35.21,-15.85,-25.34,-22.4,-30.14,-34.08,-33.48,-31.35,-30.13,0,0,0,0,0,0,0,0,0,0,0,0,0,0,0,0,
460,-33.73,-34.34,-49.28,-56.12,-30.07,-33.44,-39.26,-40.97,-21.52,-29.34,-23.66,-28.97,-34.38,-35.11,-31.42,-29.87,0,0,0,0,0,0,0,0,0,0,0,0,0,0,0,0,
461,-35.71,-36.83,-52.67,-58.58,-33.36,-35.94,-41.01,-43.94,-23.08,-33.32,-22.94,-24.9,-33.35,-34.72,-30.1,-27.76,0,0,0,0,0,0,0,0,0,0,0,0,0,0,0,0,
462,-29.27,-35.62,-48.97,-53.63,-27.54,-29.9,-37.6,-38.45,-17.42,-33.16,-19.83,-21.66,-34.41,-37.23,-28.9,-29.43,0,0,0,0,0,0,0,0,0,0,0,0,0,0,0,0,
463,-21.86,-32.24,-42.29,-44.56,-23.87,-22.95,-29.97,-31.1,-11.53,-26.21,-17.12,-20.36,-34.86,-38.1,-27.26,-30.86,0,0,0,0,0,0,0,0,0,0,0,0,0,0,0,0,
464,-17.96,-26.49,-34.4,-36.54,-19.4,-16.82,-21.48,-28.13,-7.089,-20.24,-12.68,-17.24,-31.95,-32.88,-22.37,-26.87,0,0,0,0,0,0,0,0,0,0,0,0,0,0,0,0,
465,-14.57,-23.32,-28.59,-34.45,-13.54,-12.4,-19.66,-30.26,-3.486,-22.29,-8.67,-14.72,-29.4,-29.58,-18.1,-22.74,0,0,0,0,0,0,0,0,0,0,0,0,0,0,0,0,
466,-14.1,-24.99,-30.57,-37.27,-16.33,-14.2,-23.32,-33.79,1.004,-25.39,-6.752,-12.66,-26.47,-28.42,-14.3,-17.76,0,0,0,0,0,0,0,0,0,0,0,0,0,0,0,0,
467,-12.1,-24.18,-32.68,-36.57,-19.01,-14.82,-22.57,-32.95,7.688,-22.9,-0.6161,-5.91,-19.45,-22.62,-6.729,-9.201,0,0,0,0,0,0,0,0,0,0,0,0,0,0,0,0,
468,-6.079,-21.12,-29.8,-32.97,-16.86,-13.03,-20.97,-31.59,6.889,-19.82,2.998,-3.53,-15.81,-19.74,-4.994,-7.871,0,0,0,0,0,0,0,0,0,0,0,0,0,0,0,0,
469,-9.861,-23.4,-33.01,-36.25,-24.53,-19.88,-27.31,-34.76,-6.653,-20.95,-9.199,-14.98,-22.22,-25.45,-16.92,-17.8,0,0,0,0,0,0,0,0,0,0,0,0,0,0,0,0,
470,-23.06,-28.51,-41.82,-44.45,-35.45,-28.71,-34.27,-37.34,-18.88,-25.43,-26.42,-27.78,-30.31,-30.08,-30.14,-26.48,0,0,0,0,0,0,0,0,0,0,0,0,0,0,0,0,
471,-30.28,-30.86,-46.87,-50.22,-37.72,-30.26,-36.06,-40.8,-23.24,-31.15,-33.4,-31.75,-33.3,-30.77,-34.97,-28.77,0,0,0,0,0,0,0,0,0,0,0,0,0,0,0,0,
472,-33.22,-32.25,-50.99,-54.02,-42.71,-32.51,-37.38,-46.21,-28.08,-34.19,-33.91,-32.2,-34.27,-32.88,-35.37,-29.24,0,0,0,0,0,0,0,0,0,0,0,0,0,0,0,0,
473,-35.21,-33.2,-51.98,-52.05,-47.37,-34.04,-35.89,-42.96,-31.27,-33.51,-32.05,-31.24,-34.46,-34.85,-34.45,-29.02,0,0,0,0,0,0,0,0,0,0,0,0,0,0,0,0,
474,-31.21,-32.13,-46.32,-43.01,-40.64,-29.68,-31.2,-36.09,-28.9,-32.87,-28.42,-29.12,-32.97,-33.92,-32.8,-27.95,0,0,0,0,0,0,0,0,0,0,0,0,0,0,0,0,
475,-28.36,-31.1,-43.59,-39.45,-35.73,-28.58,-30.86,-37.43,-27.15,-31.18,-27.57,-28.62,-31.79,-31.66,-31.02,-26.84,0,0,0,0,0,0,0,0,0,0,0,0,0,0,0,0,
476,-30.95,-31.13,-43.2,-43.47,-37.15,-30,-32.15,-38.66,-25.37,-26.5,-29.01,-28.1,-32.45,-30.88,-29.67,-26.03,0,0,0,0,0,0,0,0,0,0,0,0,0,0,0,0,
477,-30.34,-30.06,-38.45,-42.85,-34.6,-25.88,-29.31,-36.03,-22.09,-23.68,-29.53,-26.86,-32.83,-32.4,-29.89,-26.24,0,0,0,0,0,0,0,0,0,0,0,0,0,0,0,0,
478,-27.73,-27.61,-36.77,-38.16,-33.45,-23.18,-26.42,-35.86,-23.08,-24.54,-28.85,-26.44,-31.72,-33.2,-29.73,-27.37,0,0,0,0,0,0,0,0,0,0,0,0,0,0,0,0,
479,-28.59,-26.66,-40.22,-37.73,-37.4,-26.23,-26.24,-35.38,-25.32,-26.09,-26.31,-25.14,-31.76,-32.47,-27.14,-27.59,0,0,0,0,0,0,0,0,0,0,0,0,0,0,0,0,
480,-27.89,-28.58,-40.93,-39.42,-38.33,-27.18,-27.02,-34.07,-22.87,-26.79,-23.01,-21.74,-31.51,-31.69,-23.99,-25.13,0,0,0,0,0,0,0,0,0,0,0,0,0,0,0,0,
481,-22.99,-30,-38.83,-39.87,-36.38,-24.87,-28.37,-35.35,-19.71,-26.42,-21.99,-18.7,-28.64,-30.71,-22.49,-22.41,0,0,0,0,0,0,0,0,0,0,0,0,0,0,0,0,
482,-20.24,-29.97,-37.48,-40.68,-35.29,-24.64,-29.47,-36.71,-19.6,-27.8,-24.07,-19.58,-28.68,-31.47,-23.68,-23.68,0,0,0,0,0,0,0,0,0,0,0,0,0,0,0,0,
483,-22.63,-30.79,-36.1,-38.79,-33.1,-24.63,-27.8,-36.33,-21.15,-30.7,-27.08,-23.02,-31.58,-32.98,-25.57,-26.05,0,0,0,0,0,0,0,0,0,0,0,0,0,0,0,0,
484,-24.67,-29.99,-32.94,-32.74,-29.8,-21.36,-23.96,-34.87,-21.09,-29.87,-28.01,-24.01,-30.53,-31.08,-25.61,-25.36,0,0,0,0,0,0,0,0,0,0,0,0,0,0,0,0,
485,-24.12,-27.72,-31.48,-30.3,-29.48,-20.31,-22.68,-34.24,-18.91,-27.59,-27.18,-23.39,-28.11,-28.58,-25.66,-24.42,0,0,0,0,0,0,0,0,0,0,0,0,0,0,0,0,
486,-24.16,-27.35,-35.28,-32.95,-33.11,-23.55,-22.62,-35.42,-19.44,-27.65,-26.56,-23.33,-27.57,-28.18,-26.15,-25.09,0,0,0,0,0,0,0,0,0,0,0,0,0,0,0,0,
487,-22.64,-24.87,-38.48,-34.74,-36.08,-23.87,-19.72,-36.15,-22.45,-27.39,-26.11,-22.13,-27.29,-28.58,-26.26,-27.4,0,0,0,0,0,0,0,0,0,0,0,0,0,0,0,0,
488,-19.42,-21.31,-36.47,-34.75,-36,-20.98,-17.43,-36.05,-22.09,-28.13,-26.53,-21.39,-28.68,-30.45,-27.66,-31.72,0,0,0,0,0,0,0,0,0,0,0,0,0,0,0,0,
489,-17.77,-21.3,-30.98,-30.09,-32.97,-16.89,-14.14,-33.18,-18.1,-29.99,-26.73,-20.59,-28.58,-30.76,-28.1,-33.08,0,0,0,0,0,0,0,0,0,0,0,0,0,0,0,0,
490,-12.89,-17.12,-23.04,-21.25,-26.25,-9.171,-6.597,-27.17,-14.06,-27.62,-24.41,-17.04,-24.76,-28.56,-27.07,-30.65,0,0,0,0,0,0,0,0,0,0,0,0,0,0,0,0,
491,-8.214,-10.86,-20.04,-20.17,-22.82,-7.097,-6.402,-27.37,-14.67,-24.64,-24.9,-17.93,-25.87,-31,-31.04,-32.8,0,0,0,0,0,0,0,0,0,0,0,0,0,0,0,0,
492,-15.29,-16.07,-26.65,-27.01,-28.9,-16.57,-16.02,-34.55,-20.78,-26.78,-31.55,-25.93,-31.62,-35.49,-36.93,-37.28,0,0,0,0,0,0,0,0,0,0,0,0,0,0,0,0,
493,-24.59,-23.74,-32.06,-30.27,-34.58,-22.21,-19.75,-37.33,-23.34,-28.13,-34.69,-28.53,-30.78,-32.73,-34.25,-32.99,0,0,0,0,0,0,0,0,0,0,0,0,0,0,0,0,
494,-22.67,-21.11,-32.04,-29.95,-33.77,-18.83,-16.43,-34.78,-21.07,-25.04,-30.54,-23.2,-24.93,-26.97,-26.46,-23.51,0,0,0,0,0,0,0,0,0,0,0,0,0,0,0,0,
495,-17.57,-18.75,-33.56,-30.35,-33.93,-18.56,-17.2,-32.68,-22.77,-23.8,-27.93,-20.23,-22.42,-26.26,-22.77,-19.38,0,0,0,0,0,0,0,0,0,0,0,0,0,0,0,0,
496,-16.33,-21.96,-35.4,-32.31,-34.67,-21.53,-21.57,-31.79,-23.49,-25.19,-26.7,-19.57,-21.68,-27.63,-20.4,-18.86,0,0,0,0,0,0,0,0,0,0,0,0,0,0,0,0,
497,-16.35,-22.24,-34.91,-35.96,-32.05,-22.32,-24.38,-31.98,-18.01,-24.05,-21.83,-18.04,-21.11,-27.2,-16.78,-18.28,0,0,0,0,0,0,0,0,0,0,0,0,0,0,0,0,
498,-19.02,-21.91,-35.22,-37.09,-30.29,-23.78,-26.11,-32.86,-16.98,-24.1,-18.73,-20.26,-24.46,-28.08,-17.24,-20.89,0,0,0,0,0,0,0,0,0,0,0,0,0,0,0,0,
499,-22.91,-26.62,-35.74,-34.75,-29.12,-24.91,-28.05,-34.45,-20.67,-28.91,-18.82,-23.19,-28.55,-30.81,-19.8,-25.47,0,0,0,0,0,0,0,0,0,0,0,0,0,0,0,0,
500,-21.74,-29.73,-34.67,-34.34,-25.97,-22.99,-29.01,-35.69,-19.44,-30.49,-16.7,-20.04,-27.14,-29.85,-18.26,-26.34,0,0,0,0,0,0,0,0,0,0,0,0,0,0,0,0,
501,-17.34,-26.95,-34.43,-36.26,-25.32,-21.96,-28.37,-33.76,-16.51,-27.9,-15.28,-16.38,-23.91,-25.79,-15.95,-23.73,0,0,0,0,0,0,0,0,0,0,0,0,0,0,0,0,
502,-16.04,-24.16,-34.98,-36.74,-28.48,-22.95,-27.82,-32.33,-16.33,-29.2,-16.54,-17.19,-24.59,-25.73,-16.56,-21.34,0,0,0,0,0,0,0,0,0,0,0,0,0,0,0,0,
503,-18.03,-24.53,-33.05,-34.98,-31.36,-23.45,-27.84,-35.05,-16.85,-30.41,-15.98,-18.58,-26.78,-28.33,-17.02,-19.6,0,0,0,0,0,0,0,0,0,0,0,0,0,0,0,0,
504,-21.49,-26.68,-30.69,-33.89,-32.6,-25.09,-28.15,-37.41,-18.6,-27.26,-16.12,-19.87,-26.94,-27.11,-16.7,-17.96,0,0,0,0,0,0,0,0,0,0,0,0,0,0,0,0,
505,-24.55,-29.16,-31.37,-34.98,-32.53,-27.06,-29.09,-37.82,-20.72,-27.8,-20.42,-22.08,-25.86,-24.58,-19.06,-18.45,0,0,0,0,0,0,0,0,0,0,0,0,0,0,0,0,
506,-23.61,-28.53,-31.12,-34.24,-31.31,-24.9,-28.52,-37.53,-21.45,-31.28,-24.81,-23.94,-25.45,-25.4,-26.3,-21.87,0,0,0,0,0,0,0,0,0,0,0,0,0,0,0,0,
507,-20.73,-24.72,-28.4,-30.78,-29.96,-21.08,-25.43,-35.21,-22.35,-29.32,-28.48,-26.78,-25.64,-26.37,-35.61,-25.09,0,0,0,0,0,0,0,0,0,0,0,0,0,0,0,0,
508,-19.62,-21.18,-26.16,-26.9,-27.96,-18.43,-20.5,-31.79,-21.64,-25,-31.97,-28.34,-24.69,-24.83,-39.56,-25.63,0,0,0,0,0,0,0,0,0,0,0,0,0,0,0,0,
509,-16.05,-16.21,-21.05,-20.41,-22.76,-13.28,-12.69,-27.3,-17.6,-23.47,-30.67,-23.26,-21.67,-23.03,-34.58,-23.15,0,0,0,0,0,0,0,0,0,0,0,0,0,0,0,0,
510,-11.03,-10.7,-15.15,-15.68,-17.77,-8.918,-8.345,-23.71,-16.28,-23.9,-28.02,-17.33,-18.35,-21.73,-27.28,-19.07,0,0,0,0,0,0,0,0,0,0,0,0,0,0,0,0,
511,-12.53,-11.43,-18.02,-19.59,-21.32,-12.36,-13.75,-26.58,-20.97,-25.31,-31.41,-18.58,-17.4,-20.77,-24.96,-17.22,0,0,0,0,0,0,0,0,0,0,0,0,0,0,0,0,
512,-16.94,-15.88,-24.82,-24.74,-29.68,-18.58,-19.25,-30.41,-24.67,-25.73,-33.32,-20.96,-18.93,-20.92,-23.32,-17.79,0,0,0,0,0,0,0,0,0,0,0,0,0,0,0,0,
513,-18.31,-17.19,-27.97,-27.42,-33.57,-22.15,-19.65,-28.79,-25.63,-26.26,-29.27,-21.07,-22.09,-22.04,-19.18,-20.01,0,0,0,0,0,0,0,0,0,0,0,0,0,0,0,0,
514,-21.97,-18.59,-32.78,-32.53,-37.18,-26.55,-21.76,-28.8,-30.79,-30.1,-31.68,-27.21,-28.21,-25.63,-22.66,-28.44,0,0,0,0,0,0,0,0,0,0,0,0,0,0,0,0,
515,-28.78,-22.23,-36.75,-33.25,-41.4,-29.81,-21.62,-30.9,-36,-32.87,-39.42,-36.4,-34.57,-30.74,-31.99,-38.15,0,0,0,0,0,0,0,0,0,0,0,0,0,0,0,0,
516,-31.14,-22.26,-32.62,-27.01,-37.45,-27.49,-16.98,-29.03,-33.25,-30.78,-38.13,-38.19,-35.3,-30.92,-32.13,-37.75,0,0,0,0,0,0,0,0,0,0,0,0,0,0,0,0,
517,-29.58,-20.21,-28.9,-24.49,-32.2,-25.68,-18.89,-28.2,-30.97,-28.47,-34.02,-38.13,-34.35,-27.92,-30.15,-34.19,0,0,0,0,0,0,0,0,0,0,0,0,0,0,0,0,
518,-31.64,-24.07,-32.28,-27.22,-35.87,-29.25,-26.92,-32.07,-35.2,-28.84,-36.95,-40.97,-36.28,-28.52,-35.04,-34.79,0,0,0,0,0,0,0,0,0,0,0,0,0,0,0,0,
519,-34.85,-28.9,-34.58,-31.64,-38.53,-31.4,-30.21,-34.54,-34.94,-28.2,-35.06,-35.7,-32.01,-26.25,-30.51,-28.34,0,0,0,0,0,0,0,0,0,0,0,0,0,0,0,0,
520,-29.29,-23.27,-31.99,-34.97,-32.36,-27.52,-26.26,-32.5,-26.1,-24.15,-23.76,-21.27,-19.64,-17.63,-16.49,-16.38,0,0,0,0,0,0,0,0,0,0,0,0,0,0,0,0,
521,-19.45,-13.28,-30.13,-31.78,-26.35,-23.39,-19.5,-30.9,-20.17,-22.4,-16.68,-11.75,-14.29,-14.16,-13.04,-13.69,0,0,0,0,0,0,0,0,0,0,0,0,0,0,0,0,
522,-17.65,-12.54,-30.21,-27.7,-25.92,-23.34,-16.94,-33.17,-22.52,-26.25,-16.3,-10.87,-19.21,-16.44,-16.38,-16.24,0,0,0,0,0,0,0,0,0,0,0,0,0,0,0,0,
523,-19.99,-18.01,-29.32,-28.93,-25.69,-24.49,-20.23,-32.7,-24.53,-27.84,-15.7,-11.93,-22.71,-16,-15.96,-15.77,0,0,0,0,0,0,0,0,0,0,0,0,0,0,0,0,
524,-18.13,-21.16,-27.74,-27.94,-22.04,-23.25,-22.54,-26.95,-20.61,-25.44,-14.76,-11.75,-23.1,-16.31,-17.26,-16.65,0,0,0,0,0,0,0,0,0,0,0,0,0,0,0,0,
525,-12.8,-21.24,-24.57,-23.59,-16.28,-17.02,-19.43,-24.74,-15.23,-24.34,-12.73,-9.26,-23.18,-18.14,-19.72,-18.96,0,0,0,0,0,0,0,0,0,0,0,0,0,0,0,0,
526,-3.927,-15.76,-17.84,-20.04,-10.07,-6.863,-10.67,-24.44,-10.51,-20.75,-10.55,-6.436,-20.01,-15.44,-20.02,-20.03,0,0,0,0,0,0,0,0,0,0,0,0,0,0,0,0,
527,3.876,-5.996,-12.92,-15.62,-7.593,-1.164,-1.517,-19.59,-6.563,-15.35,-13.34,-8.393,-17.12,-12.12,-22.09,-22.39,0,0,0,0,0,0,0,0,0,0,0,0,0,0,0,0,
528,1.641,-3.145,-15.27,-14.97,-12.38,-4.917,-1.171,-18.19,-8.084,-15.21,-17.81,-14.12,-20.24,-12.25,-24.07,-25.09,0,0,0,0,0,0,0,0,0,0,0,0,0,0,0,0,
529,-6.478,-9.127,-20.1,-18.72,-18.23,-11.87,-6.931,-22,-13.72,-15.37,-19.91,-18.55,-25.04,-12.52,-23.67,-25.78,0,0,0,0,0,0,0,0,0,0,0,0,0,0,0,0,
530,-11.8,-15.57,-21.64,-18,-19.01,-15.66,-11.72,-22.76,-16.31,-13.25,-22.28,-20.42,-26.69,-13.42,-23.8,-25.87,0,0,0,0,0,0,0,0,0,0,0,0,0,0,0,0,
531,-14.41,-20.76,-21.49,-18.77,-19.26,-17.42,-18.1,-24.4,-16.32,-15.07,-23.28,-20.14,-26.12,-15.4,-23.03,-25.95,0,0,0,0,0,0,0,0,0,0,0,0,0,0,0,0,
532,-14.35,-23.17,-21.29,-26.29,-19.51,-17.45,-21.98,-27.81,-14.88,-17.37,-20.62,-17.45,-24.23,-15.44,-19.38,-24.74,0,0,0,0,0,0,0,0,0,0,0,0,0,0,0,0,
533,-9.453,-18.2,-17.75,-24.99,-14.01,-12.13,-15.74,-23.51,-8.38,-16.24,-15.63,-13.24,-22.95,-15.59,-13.61,-21.94,0,0,0,0,0,0,0,0,0,0,0,0,0,0,0,0,
534,-3.967,-12.42,-12.06,-14.45,-9.195,-5.614,-8.863,-17.32,-3.057,-16.32,-9.902,-11.08,-23.59,-17.18,-7.78,-18.61,0,0,0,0,0,0,0,0,0,0,0,0,0,0,0,0,
535,-5.68,-14.49,-12.79,-13.92,-14.25,-7.992,-11.76,-19.86,-8.106,-16.81,-8.723,-13.81,-21.74,-14.36,-7.517,-14.64,0,0,0,0,0,0,0,0,0,0,0,0,0,0,0,0,
536,-13.65,-19.22,-20.62,-22.78,-22.01,-17.82,-20.4,-25,-15.59,-15.63,-12.98,-18.1,-15.84,-8.04,-12.8,-10.19,0,0,0,0,0,0,0,0,0,0,0,0,0,0,0,0,
537,-20.87,-21.08,-27.92,-29.61,-24.74,-26.53,-28.83,-27.51,-16.7,-15.61,-15.37,-19.81,-11.71,-6.686,-15.4,-8.329,0,0,0,0,0,0,0,0,0,0,0,0,0,0,0,0,
538,-25.95,-22.45,-31.98,-33.85,-26.74,-31.78,-32.28,-29.73,-17.24,-15.82,-14.09,-18.4,-10.5,-8.606,-12.71,-8.248,0,0,0,0,0,0,0,0,0,0,0,0,0,0,0,0,
539,-27.35,-21.72,-31.53,-33.06,-28.7,-31.95,-27.21,-29.28,-17.92,-15.71,-11.8,-13.76,-9.455,-8.911,-9.703,-6.808,0,0,0,0,0,0,0,0,0,0,0,0,0,0,0,0,
540,-22.75,-17.24,-26.19,-25.77,-26.17,-26.52,-17.88,-24.54,-14.28,-17.26,-9.743,-8.784,-10.43,-10.34,-8.907,-5.911,0,0,0,0,0,0,0,0,0,0,0,0,0,0,0,0,
541,-18.14,-14,-21.36,-19.35,-21.82,-20.97,-10.55,-19.25,-12.35,-17.2,-9.12,-6.721,-12.14,-11.79,-7.217,-5.29,0,0,0,0,0,0,0,0,0,0,0,0,0,0,0,0,
542,-15.82,-13.66,-19.51,-17.15,-20.22,-18.22,-7.664,-17.29,-14.39,-15.71,-8.296,-5.742,-12.69,-12.77,-4.156,-3.959,0,0,0,0,0,0,0,0,0,0,0,0,0,0,0,0,
543,-11.74,-15.09,-18.56,-16.37,-18.74,-16.29,-9.151,-19.06,-12.75,-18.84,-6.45,-5.484,-16.1,-16.3,-4.194,-4.937,0,0,0,0,0,0,0,0,0,0,0,0,0,0,0,0,
544,-9.192,-18.68,-17.26,-14.67,-13.5,-14.08,-11.46,-19.57,-6.466,-23.56,-5.447,-6.065,-18.93,-15.92,-5.287,-5.644,0,0,0,0,0,0,0,0,0,0,0,0,0,0,0,0,
545,-10.31,-19.53,-14.46,-12.45,-8.619,-12.15,-10.78,-16.46,-1.991,-23.07,-5.114,-5.987,-16.82,-11.91,-4.053,-5.413,0,0,0,0,0,0,0,0,0,0,0,0,0,0,0,0,
546,-11.23,-13.99,-10.77,-11.75,-9.024,-10.82,-6.278,-13.55,-3.098,-18.71,-6.269,-8.721,-16.88,-13.54,-5.92,-9.727,0,0,0,0,0,0,0,0,0,0,0,0,0,0,0,0,
547,-11.71,-8.284,-7.128,-9.861,-9.726,-8.752,0.029,-11.31,-6.551,-13.88,-8.973,-14.88,-18.55,-14.17,-11.02,-13.32,0,0,0,0,0,0,0,0,0,0,0,0,0,0,0,0,
548,-11.66,-6.646,-4.978,-5.85,-8.485,-6.614,2.844,-8.613,-7.848,-10.58,-10.79,-18.99,-15.44,-9.882,-14.36,-11.52,0,0,0,0,0,0,0,0,0,0,0,0,0,0,0,0,
549,-10.42,-5.564,-6.689,-4.553,-10.47,-6.267,2.051,-6.024,-8.777,-9.12,-12.77,-20.69,-12.74,-9.691,-17.94,-11.7,0,0,0,0,0,0,0,0,0,0,0,0,0,0,0,0,
550,-9.701,-3.167,-7.821,-3.411,-10.22,-5.2,3.594,-2.465,-8.666,-8.209,-14.45,-20.54,-12.51,-10.05,-19.86,-13.21,0,0,0,0,0,0,0,0,0,0,0,0,0,0,0,0,
551,-9.767,-2.622,-6.558,-1.155,-3.765,-4.709,4.035,-1.107,-4.409,-9.567,-13,-17.73,-10.59,-7.727,-16.24,-11.03,0,0,0,0,0,0,0,0,0,0,0,0,0,0,0,0,
552,-11.36,-6.008,-10.14,-5.922,-3.623,-9.392,-2.731,-5.859,-2,-12.32,-11.06,-15.25,-8.977,-8.232,-12.56,-8.601,0,0,0,0,0,0,0,0,0,0,0,0,0,0,0,0,
553,-13.69,-9.585,-14.91,-14.35,-9.333,-13.16,-9.575,-11.41,-3.218,-11.81,-9.251,-11.69,-7.548,-6.624,-10.28,-6.189,0,0,0,0,0,0,0,0,0,0,0,0,0,0,0,0,
554,-12.24,-9.744,-12.53,-15.81,-5.807,-10.71,-9.825,-11.91,-0.492,-9.92,-4.512,-4.72,-5.078,-2.588,-6.205,-3.238,0,0,0,0,0,0,0,0,0,0,0,0,0,0,0,0,
555,-8.26,-8.55,-8.446,-11.28,1.183,-8.372,-6.984,-7.674,3.136,-8.762,-0.6162,-1.01,-5.449,-4.215,-4.669,-4.283,0,0,0,0,0,0,0,0,0,0,0,0,0,0,0,0,
556,-6.745,-7.766,-7.125,-5.106,-1.579,-8.493,-4.577,-2.024,0.1733,-6.545,-2.225,-3.142,-6.876,-6.333,-7.621,-6.788,0,0,0,0,0,0,0,0,0,0,0,0,0,0,0,0,
557,-8.2,-7.006,-7.039,-1.566,-7.337,-8.907,-4.385,0.972,-4.804,-5.687,-6.24,-4.831,-5.549,-4.649,-9.78,-5.357,0,0,0,0,0,0,0,0,0,0,0,0,0,0,0,0,
558,-10.46,-6.242,-9.13,-4.027,-8.262,-10.93,-5.417,2.037,-5.301,-5.533,-6.85,-3.406,-4.907,-4.747,-7.798,-2.63,0,0,0,0,0,0,0,0,0,0,0,0,0,0,0,0,
559,-9.684,-4.5,-10.59,-6.883,-8.496,-12.24,-4.208,2.1,-2.922,-3.001,-3.324,-1.011,-7.1,-5.666,-3.138,-1.967,0,0,0,0,0,0,0,0,0,0,0,0,0,0,0,0,
560,-6.103,-4.173,-9.146,-6.964,-9.592,-11,-4.002,-1.721,-2.834,-2.959,-2.346,-1.751,-11.46,-7.014,-2.317,-4.93,0,0,0,0,0,0,0,0,0,0,0,0,0,0,0,0,
561,-6.246,-8.732,-7.241,-6.797,-7.478,-10.32,-7.05,-4.714,-4.705,-5.479,-6.129,-6.636,-17.45,-11.94,-6.656,-11.28,0,0,0,0,0,0,0,0,0,0,0,0,0,0,0,0,
562,-8.177,-12.58,-3.646,-3.609,-1.2,-8.427,-7.274,-2.044,-2.43,-4.623,-6.947,-9.4,-20.76,-14.56,-7.373,-14.24,0,0,0,0,0,0,0,0,0,0,0,0,0,0,0,0,
563,-6.641,-11.95,-0.9009,-0.7987,3.312,-5.48,-6.777,-1.75,-0.2442,-4.86,-6.593,-10.87,-21.47,-13.5,-6.708,-12.99,0,0,0,0,0,0,0,0,0,0,0,0,0,0,0,0,
564,-8.922,-13.51,-6.183,-6.57,-0.1958,-8.385,-11.46,-6.036,-7.657,-8.822,-13.21,-17.57,-25.1,-15.33,-12.82,-14.67,0,0,0,0,0,0,0,0,0,0,0,0,0,0,0,0,
565,-15.12,-16.39,-14.55,-13.73,-7.091,-13.81,-13.88,-6.031,-14.71,-9.015,-18.21,-21.56,-26.58,-14.14,-15.62,-14.01,0,0,0,0,0,0,0,0,0,0,0,0,0,0,0,0,
566,-13.66,-14.24,-17.08,-14.23,-8.975,-14.03,-11.66,-3.533,-10.41,-6.787,-14.46,-17.45,-20.7,-6.163,-10.31,-5.888,0,0,0,0,0,0,0,0,0,0,0,0,0,0,0,0,
567,-10.68,-13.23,-16.14,-14.17,-8.002,-13.86,-14.02,-5.847,-6.144,-8.308,-11.47,-16.06,-16.64,-4.115,-9.024,-1.456,0,0,0,0,0,0,0,0,0,0,0,0,0,0,0,0,
568,-16.01,-17.23,-15.32,-16.12,-7.716,-16.53,-17.51,-9.755,-7.572,-10.41,-10.82,-17.41,-17.44,-8.663,-9.543,-2.085,0,0,0,0,0,0,0,0,0,0,0,0,0,0,0,0,
569,-19.44,-18.39,-14.32,-16.17,-5.703,-16.42,-14.96,-10.94,-6.443,-10.24,-8.038,-13.76,-15.76,-8.522,-5.305,1.312,0,0,0,0,0,0,0,0,0,0,0,0,0,0,0,0,
570,-15.98,-15.09,-13.13,-14.37,-3.045,-13.21,-11.95,-9.843,-3.821,-7.997,-6.747,-10.11,-12.01,-4.858,-3.525,5.288,0,0,0,0,0,0,0,0,0,0,0,0,0,0,0,0,
571,-12.54,-10.34,-10.48,-12.41,-1.059,-10.05,-11.04,-7.597,-1.137,-4.742,-6.222,-8.873,-9.166,-1.09,-3.7,6.416,0,0,0,0,0,0,0,0,0,0,0,0,0,0,0,0,
572,-9.652,-6.267,-9.14,-13.05,1.79,-7.894,-10.79,-8.575,3.369,-6.498,-4.227,-6.658,-7.766,2.473,-1.299,7.208,0,0,0,0,0,0,0,0,0,0,0,0,0,0,0,0,
573,-7.617,-7.932,-11.35,-16.45,2.64,-7.151,-13.53,-12.89,3.896,-10.6,-3.216,-5.434,-9.483,1.727,-0.4665,5.403,0,0,0,0,0,0,0,0,0,0,0,0,0,0,0,0,
574,-6.469,-11.52,-9.137,-16.77,2.15,-5.068,-15.31,-11.79,3.35,-7.111,-1.076,-3.832,-9.7,0.4277,0.1324,3.481,0,0,0,0,0,0,0,0,0,0,0,0,0,0,0,0,
575,-1.911,-8.06,-2.805,-12.74,5.647,-0.8287,-10.77,-3.625,9.152,-1.111,2.976,1.16,-3.349,5.064,3.657,7.38,0,0,0,0,0,0,0,0,0,0,0,0,0,0,0,0,
576,3.818,-0.2525,-1.854,-7.474,9.463,1.978,-3.311,3.825,12.75,0.498,5.447,5.756,3.261,9.373,5.295,11.69,0,0,0,0,0,0,0,0,0,0,0,0,0,0,0,0,
577,7.099,5.63,-0.8088,-1.83,9.363,4.703,2.424,6.413,9.84,1.695,5.256,6.267,2.778,7.183,2.106,8.805,0,0,0,0,0,0,0,0,0,0,0,0,0,0,0,0,
578,9.132,6.562,5.227,1.277,9.787,9.105,4.748,5.128,10.24,1.772,3.427,4.204,-1.325,4.031,-1.244,4.706,0,0,0,0,0,0,0,0,0,0,0,0,0,0,0,0,
579,9.494,3.206,7.471,0.8326,11.9,10.83,4.293,2.873,14.46,0.7485,4.832,3.715,-2.107,5.075,0.7332,7.551,0,0,0,0,0,0,0,0,0,0,0,0,0,0,0,0,
580,7.915,1.142,5.348,-0.8371,12.28,8.171,1.868,0.3726,15.01,1.684,8.563,4.324,-1.155,6.502,4.364,10.75,0,0,0,0,0,0,0,0,0,0,0,0,0,0,0,0,
581,4.117,-0.7311,2.163,-4.92,10.34,3.563,-2.943,-3.524,12.03,0.8265,6.197,2.591,-2.561,5.511,4.664,8.94,0,0,0,0,0,0,0,0,0,0,0,0,0,0,0,0,
582,-0.5148,-4.452,-4.213,-9.618,6.411,-0.5589,-6.572,-5.197,9.437,-0.0484,2.879,2.223,-3.125,5.596,6.323,9.469,0,0,0,0,0,0,0,0,0,0,0,0,0,0,0,0,
583,-0.0277,-4.16,-8.666,-10.65,1.248,-1.685,-6.184,-2.769,8.703,2.059,5.802,5.596,-1.085,7.168,9.195,11.99,0,0,0,0,0,0,0,0,0,0,0,0,0,0,0,0,
584,4.36,-1.71,-7.517,-9.654,-3.122,-0.8768,-4.821,-0.6672,9.64,1.345,6.729,8.201,1.07,8.624,8.403,11.88,0,0,0,0,0,0,0,0,0,0,0,0,0,0,0,0,
585,5.876,-1.483,-7.057,-8.861,-5.867,-1.72,-4.57,-1.099,9.395,-0.1299,4.471,8.939,3.037,10.61,7.638,12.59,0,0,0,0,0,0,0,0,0,0,0,0,0,0,0,0,
586,4.596,-0.5989,-8.455,-9.12,-6.554,-3.542,-6.432,-3.416,7.2,1.162,6.779,7.899,3.279,10.69,7.378,11.63,0,0,0,0,0,0,0,0,0,0,0,0,0,0,0,0,
587,3.067,-1.042,-7.159,-9.832,-4.041,-3.309,-8.64,-4.387,8.904,-0.0098,10.64,5.805,1.423,8.075,5.12,7.439,0,0,0,0,0,0,0,0,0,0,0,0,0,0,0,0,
588,2.739,-3.455,-4.546,-8.992,-0.7075,-2.232,-7.029,-1.738,13.11,-2.421,10.16,5.343,-0.0158,5.674,4.248,6.576,0,0,0,0,0,0,0,0,0,0,0,0,0,0,0,0,
589,2.649,-3.217,-5.183,-9.373,-0.9642,-3.7,-5.595,-0.9353,11.25,-2.496,7.111,3.962,-1.391,3.924,4.071,7.185,0,0,0,0,0,0,0,0,0,0,0,0,0,0,0,0,
590,0.7044,-1.662,-7.974,-10.36,-3.064,-5.607,-7.008,-2.418,8.813,-0.4279,6.174,3.409,-0.7108,4.387,4.831,7.604,0,0,0,0,0,0,0,0,0,0,0,0,0,0,0,0,
591,2.284,0.3136,-7.99,-7.808,-2.83,-3.959,-5.803,-0.2578,12.54,3.942,8.797,8.783,3.603,6.895,9.854,10.94,0,0,0,0,0,0,0,0,0,0,0,0,0,0,0,0,
592,8.307,2.614,-4.696,-6.942,-0.6809,-1.306,-4.348,1.663,14.53,4.553,11.35,11.11,4.378,6.223,12.21,10.73,0,0,0,0,0,0,0,0,0,0,0,0,0,0,0,0,
593,8.559,0.454,-2.255,-9.485,1.939,-1.024,-7.123,-0.7408,13.53,0.1437,10.84,5.676,-0.6906,2.251,9.259,6.131,0,0,0,0,0,0,0,0,0,0,0,0,0,0,0,0,
594,4.486,-4.297,-2.918,-10.35,3.065,-2.009,-9.518,-3.598,13.8,-0.6437,8.829,3.629,-3.646,-0.3094,9.427,6.306,0,0,0,0,0,0,0,0,0,0,0,0,0,0,0,0,
595,4.591,-5.386,-3.766,-11.35,1.602,-3.1,-9.404,-6.492,11.73,-0.3082,7.202,4.939,-2.068,1.172,9.996,8.287,0,0,0,0,0,0,0,0,0,0,0,0,0,0,0,0,
596,4.438,-4.178,-1.917,-11.1,0.858,-2.922,-8.727,-8.794,9.168,-3.481,5.331,2.077,-0.5585,4.996,5.057,6.242,0,0,0,0,0,0,0,0,0,0,0,0,0,0,0,0,
597,2.108,-3.887,0.3953,-7.284,1.119,-0.6011,-7.901,-6.878,8.573,-3.131,2.897,0.5096,0.1378,6.005,1.945,5.629,0,0,0,0,0,0,0,0,0,0,0,0,0,0,0,0,
598,3.002,-4.449,0.1122,-7.284,-0.3168,0.359,-8.679,-4.707,4.835,0.066,1.214,2.736,1.385,5.415,3.494,7.558,0,0,0,0,0,0,0,0,0,0,0,0,0,0,0,0,
599,2.695,-5.772,-3.589,-11.44,-1.796,-2.47,-11.14,-7.081,0.6659,0.1603,0.2316,1.302,0.5103,7.208,3.347,6.545,0,0,0,0,0,0,0,0,0,0,0,0,0,0,0,0,
600,-2.155,-6.667,-8.505,-13.29,-2.693,-5.395,-11.63,-8.616,0.6841,0.4644,-0.6865,-3.116,-2.715,6.382,1.928,4.245,0,0,0,0,0,0,0,0,0,0,0,0,0,0,0,0,
601,-4.283,-5.959,-9.255,-13.25,-3.73,-5.115,-9.289,-6.679,0.408,0.2354,-1.162,-4.337,-2.886,1.978,2.306,4.777,0,0,0,0,0,0,0,0,0,0,0,0,0,0,0,0,
602,-2.588,-5.405,-5.644,-10.71,-1.703,-2.722,-6.678,-6.72,-1.074,-3.269,-1.444,-2.397,0.5253,1.583,3.502,6.552,0,0,0,0,0,0,0,0,0,0,0,0,0,0,0,0,
603,-1.027,-5.156,-1.617,-5.5,3.241,0.6359,-4.896,-7.746,-0.5543,-3.312,-0.7412,0.097,2.39,3.391,4.92,6.806,0,0,0,0,0,0,0,0,0,0,0,0,0,0,0,0,
604,1.48,-4.649,1.606,-4.817,5.067,2.99,-5.537,-8.528,0.3014,-0.8442,0.8833,0.5979,0.8065,1.874,5.023,4.969,0,0,0,0,0,0,0,0,0,0,0,0,0,0,0,0,
605,2.197,-7.51,0.273,-10.81,1.511,0.3929,-10.77,-13.48,-0.701,-3.01,1.381,-2.001,-2.414,1.714,3.882,2.903,0,0,0,0,0,0,0,0,0,0,0,0,0,0,0,0,
606,-2.973,-13.22,-5.489,-15.38,-2.773,-5.39,-16.16,-16.42,-2.886,-5.049,1.933,-4.823,-5.499,3.564,3.573,1.633,0,0,0,0,0,0,0,0,0,0,0,0,0,0,0,0,
607,-8.582,-16.71,-7.086,-14.07,-3.601,-8.046,-16.29,-12.31,-4.963,-4.907,0.7381,-7.392,-8.62,-0.4437,0.0624,-1.835,0,0,0,0,0,0,0,0,0,0,0,0,0,0,0,0,
608,-9.456,-17.57,-4.192,-11.02,-2.527,-6.509,-12.96,-8.914,-5.87,-5.845,-4.931,-10.39,-10.09,-4.845,-5.783,-4.738,0,0,0,0,0,0,0,0,0,0,0,0,0,0,0,0,
609,-6.8,-13.53,-1.403,-7.205,-1.242,-2.595,-6.503,-5.624,-4.718,-2.524,-4.896,-8.278,-5.594,1.413,-3.122,0.2509,0,0,0,0,0,0,0,0,0,0,0,0,0,0,0,0,
610,-0.7814,-3.815,3.046,-1.528,2.204,2.671,1.884,-1.801,-1.056,2.426,3.634,-1.619,0.8033,8.408,3.856,6.775,0,0,0,0,0,0,0,0,0,0,0,0,0,0,0,0,
611,5.084,0.7464,6.05,-1.016,5.53,5.511,3.098,-6.332,2.473,0.1687,4.426,-0.7185,0.8399,5.649,1.437,5.012,0,0,0,0,0,0,0,0,0,0,0,0,0,0,0,0,
612,4.059,-3.563,2.408,-7.142,3.267,3.532,-3.281,-11.95,1.858,-2.91,-1.484,-3.944,-1.955,3.866,-3.704,1.364,0,0,0,0,0,0,0,0,0,0,0,0,0,0,0,0,
613,0.094,-7.222,-2.352,-9.105,-1.174,0.3917,-7.567,-8.444,-0.4037,-1.728,1.338,-2.536,-2.176,6.755,-2.45,1.025,0,0,0,0,0,0,0,0,0,0,0,0,0,0,0,0,
614,-0.0294,-8.33,-2.979,-6.623,-2.78,-1.378,-8.891,-5.79,-0.3283,-1.5,4.776,-2.516,-3.784,3.794,-4.381,-3.054,0,0,0,0,0,0,0,0,0,0,0,0,0,0,0,0,
615,-0.9034,-9.554,-3.998,-7.626,-6.704,-3.871,-9.433,-8.404,-2.91,-1.676,-1.99,-8.118,-6.229,-1.755,-10.19,-8.628,0,0,0,0,0,0,0,0,0,0,0,0,0,0,0,0,
616,-3.797,-7.424,-6.949,-8.247,-12.8,-5.654,-6.205,-7.954,-9.907,-0.602,-6.912,-8.684,-3.375,-0.182,-7.66,-5.436,0,0,0,0,0,0,0,0,0,0,0,0,0,0,0,0,
617,-2.282,-2.536,-6.167,-5.337,-12.17,-3.038,-2.028,-5.059,-11.32,-0.0115,-4.053,-3.502,0.7583,2.539,-1.707,1.198,0,0,0,0,0,0,0,0,0,0,0,0,0,0,0,0,
618,0.6333,-0.9496,-4.207,-5.528,-8.278,-0.275,-2.402,-6.026,-5.056,0.3609,-1.175,-1.637,0.2546,-0.3912,-1.733,1.502,0,0,0,0,0,0,0,0,0,0,0,0,0,0,0,0,
619,0.881,-2.53,-7.593,-9.462,-8.047,-1.662,-4.935,-10.77,-0.6514,-0.8012,1.474,0.0434,0.9451,-1.52,-0.2897,1.502,0,0,0,0,0,0,0,0,0,0,0,0,0,0,0,0,
620,3.5,-2.601,-10.62,-12.31,-8.005,-3.135,-6.29,-13.82,-0.3286,-2.835,4.253,4.786,5.182,2.932,4.566,5.325,0,0,0,0,0,0,0,0,0,0,0,0,0,0,0,0,
621,7.316,-0.8892,-9.924,-14.11,-9.266,-3.735,-6.971,-12.35,-0.3136,-0.7546,3.823,6.657,6.803,5.27,5.247,6.738,0,0,0,0,0,0,0,0,0,0,0,0,0,0,0,0,
622,7.645,1.713,-10.85,-15.7,-12.14,-5.101,-6.217,-11.35,-0.992,3.966,3.238,5.583,8,4.731,4.145,7.103,0,0,0,0,0,0,0,0,0,0,0,0,0,0,0,0,
623,7.291,5.813,-10.5,-15.86,-9.708,-4.444,-3.929,-13.77,-4.144,5.151,2.587,3.772,11.22,5.933,2.363,8.191,0,0,0,0,0,0,0,0,0,0,0,0,0,0,0,0,
624,6.567,8.157,-8.163,-14.41,-6.586,-3.132,-2.141,-14.23,-8.26,3.645,-1.417,-0.2287,10.17,5.884,-3.912,4.66,0,0,0,0,0,0,0,0,0,0,0,0,0,0,0,0,
625,4.883,7.202,-9.574,-11.98,-7.877,-3.703,-1.133,-11.89,-8.061,3.783,-2.783,-2.372,6.758,4.488,-6.824,1.51,0,0,0,0,0,0,0,0,0,0,0,0,0,0,0,0,
626,6.68,6.709,-10.1,-9.844,-6.621,-3.308,-1.687,-12.31,-2.851,4.276,2.022,1.272,7.092,5.966,-0.5645,5.942,0,0,0,0,0,0,0,0,0,0,0,0,0,0,0,0,
627,10.39,6.045,-8.277,-9.601,-4.103,-2.434,-4.618,-13.93,0.3008,2.971,6.684,7.036,7.986,6.792,6.453,10.74,0,0,0,0,0,0,0,0,0,0,0,0,0,0,0,0,
628,11.81,4.221,-11.2,-11.48,-4.93,-3.029,-6.363,-13.52,0.5783,2.407,9.453,12.04,9.072,5.928,11.12,12.04,0,0,0,0,0,0,0,0,0,0,0,0,0,0,0,0,
629,13.61,6.136,-13.85,-13.25,-3.679,-2.705,-4.374,-14.62,4.596,3.994,15.64,18.74,15.16,10.06,19.9,18,0,0,0,0,0,0,0,0,0,0,0,0,0,0,0,0,
630,17.93,11.91,-9.341,-10.98,1.701,0.6978,-0.1755,-15.25,12.56,6.201,27.81,28.7,23.89,18.07,31.91,29.09,0,0,0,0,0,0,0,0,0,0,0,0,0,0,0,0,
631,22.99,16.2,-2.822,-4.949,6.921,5.7,3.964,-10.81,17.01,7.692,36.74,33.98,27.08,21.51,35.61,32.76,0,0,0,0,0,0,0,0,0,0,0,0,0,0,0,0,
632,22.37,15.44,-1.334,-2.558,5.684,4.043,3.465,-8.168,10.38,6.324,28.6,25.14,20.34,17.18,24.69,23.02,0,0,0,0,0,0,0,0,0,0,0,0,0,0,0,0,
633,10.3,8.028,-7.444,-7.586,-4.991,-7.365,-2.973,-10.38,-4.369,2.686,10.43,10.44,10.33,9.537,10.6,11.71,0,0,0,0,0,0,0,0,0,0,0,0,0,0,0,0,
634,-1.887,0.0979,-14.12,-13.01,-13.62,-14.18,-7.905,-10.26,-13.44,0.7129,1.781,4.711,6.666,5.293,6.17,8.848,0,0,0,0,0,0,0,0,0,0,0,0,0,0,0,0,
635,-0.86,0.168,-12.88,-13.71,-11.84,-10.05,-8.305,-10.96,-12.94,-1.15,1.645,5.988,5.988,4.1,5.34,7.219,0,0,0,0,0,0,0,0,0,0,0,0,0,0,0,0,
636,3.982,2.852,-9.598,-13.65,-9.093,-6.757,-8.943,-16.47,-11.78,-5.681,-0.3608,5.962,2.557,1.249,-0.2246,1.851,0,0,0,0,0,0,0,0,0,0,0,0,0,0,0,0,
637,4.518,0.7476,-9.158,-13.64,-7.834,-5.963,-9.502,-16.98,-11.29,-8.243,-1.756,4.873,0.6006,-1.498,-4.423,-0.6979,0,0,0,0,0,0,0,0,0,0,0,0,0,0,0,0,
638,6.851,-2.254,-8.329,-12.01,-3.633,-3.985,-9.852,-12.81,-8.824,-7.228,-0.6782,3.547,-0.2946,-2.652,-3.953,-0.6018,0,0,0,0,0,0,0,0,0,0,0,0,0,0,0,0,
639,6.542,-5.645,-10.8,-13.07,-4.011,-6.615,-14.03,-14.38,-8.906,-6.414,-1.04,0.2474,-3.227,-3.703,-4.272,-1.544,0,0,0,0,0,0,0,0,0,0,0,0,0,0,0,0,
640,-0.9096,-9.043,-14.56,-14.47,-8.419,-10.1,-15.99,-15.12,-11.2,-3.634,-1.337,-2.232,-0.3875,0.0506,-3.721,1.678,0,0,0,0,0,0,0,0,0,0,0,0,0,0,0,0,
641,-4.67,-4.249,-11.92,-9.493,-6.646,-7.612,-9.378,-8.847,-10.8,1.85,0.0856,-0.908,9.472,8.484,0.5392,8.621,0,0,0,0,0,0,0,0,0,0,0,0,0,0,0,0,
642,-2.412,4.319,-11.19,-5.155,-5.028,-6.725,-2.682,-5.97,-10.68,4.568,0.1707,-0.3551,14.22,11.9,1.53,9.513,0,0,0,0,0,0,0,0,0,0,0,0,0,0,0,0,
643,-0.2771,6.501,-14.89,-5.747,-7.841,-7.204,-0.1558,-6.449,-11.87,4.723,-0.8992,-3.433,10.57,8.963,-3.35,3.447,0,0,0,0,0,0,0,0,0,0,0,0,0,0,0,0,
644,3.383,6.787,-11.07,-4.51,-5.495,-1.912,1.729,-3.028,-10.35,3.266,-0.8208,-5.192,3.672,4.841,-8.132,-3.513,0,0,0,0,0,0,0,0,0,0,0,0,0,0,0,0,
645,6.28,4.604,-5.854,-4.79,-2.998,0.2453,-1.909,-3.074,-9.825,-1.557,-1.604,-5.508,-3.96,1.058,-11.22,-9.212,0,0,0,0,0,0,0,0,0,0,0,0,0,0,0,0,
646,3.284,-5.464,-9.053,-9.293,-7.372,-4.821,-10.68,-8.397,-13.28,-4.035,-3.756,-7.506,-8.302,-0.4073,-11.44,-11.38,0,0,0,0,0,0,0,0,0,0,0,0,0,0,0,0,
647,-1.846,-13.18,-12.12,-10.36,-8.051,-7.141,-14.88,-9.685,-15.88,-2.007,-2.124,-5.418,-7.105,1.061,-4.702,-7.126,0,0,0,0,0,0,0,0,0,0,0,0,0,0,0,0,
648,-4.783,-12.87,-13.3,-10.64,-3.829,-7.678,-15.24,-10.41,-15.76,-2.119,4.325,2.871,-3.062,4.027,4.28,0.8259,0,0,0,0,0,0,0,0,0,0,0,0,0,0,0,0,
649,-2.991,-10.57,-16.31,-14.31,-1.984,-9.384,-15.2,-14.46,-12.59,-2.381,9.73,8.528,2.315,8.391,7.826,6.52,0,0,0,0,0,0,0,0,0,0,0,0,0,0,0,0,
650,4.177,-4.416,-15.55,-14.3,0.9814,-6.813,-11.58,-12.02,-7.171,2.232,11.79,9.098,7.843,12.18,8.52,8.768,0,0,0,0,0,0,0,0,0,0,0,0,0,0,0,0,
651,9.425,5.143,-11.67,-9.745,4.322,-3.732,-5.439,-3.139,-6.249,6.799,11.55,7.918,10.88,12.87,7.969,9.214,0,0,0,0,0,0,0,0,0,0,0,0,0,0,0,0,
652,7.946,9.662,-8.514,-4.727,3.87,-4.248,-0.0378,0.6429,-9.89,6.753,6.515,2.361,8.918,9.569,0.9347,5.119,0,0,0,0,0,0,0,0,0,0,0,0,0,0,0,0,
653,3.253,7.879,-5.202,0.5376,3.805,-2.945,2.106,-0.2054,-10.4,3.901,-1.422,-6.714,2.805,4.574,-8.18,-2.114,0,0,0,0,0,0,0,0,0,0,0,0,0,0,0,0,
654,-2.611,2.832,-5.694,2.155,3.717,-2.478,-2.031,0.5925,-8.43,1.516,-3.841,-11.73,-0.9214,4.099,-9.959,-4.142,0,0,0,0,0,0,0,0,0,0,0,0,0,0,0,0,
655,-7.53,-2.726,-8.281,-1.191,1.273,-6.349,-7.498,0.6262,-8.122,1.829,-1.533,-11.43,-0.1326,6.547,-8.053,-2.284,0,0,0,0,0,0,0,0,0,0,0,0,0,0,0,0,
656,-6.724,-4.578,-5.006,-2.498,1.277,-6.005,-7.636,-1.525,-7.182,3.774,-1.449,-9.43,-0.1001,4.968,-7.112,-2.231,0,0,0,0,0,0,0,0,0,0,0,0,0,0,0,0,
657,-1.069,-3.009,-0.1997,0.7961,3.25,-0.1387,-5.018,-1.4,-4.464,4.072,-1.755,-7.121,-1.345,2.621,-4.335,-1.929,0,0,0,0,0,0,0,0,0,0,0,0,0,0,0,0,
658,3.933,-0.4775,1.52,4.831,3.767,3.392,-1.843,1.273,-3.344,2.615,-1.024,-7.053,-2.397,2.438,-4.368,-4.173,0,0,0,0,0,0,0,0,0,0,0,0,0,0,0,0,
659,6.501,2,3.978,6.573,5.429,5.009,0.7727,1.412,-3.865,2.616,-2.856,-10.41,-5.565,0.7911,-10.52,-11.29,0,0,0,0,0,0,0,0,0,0,0,0,0,0,0,0,
660,6.618,0.9445,4.721,4.019,7.535,6.535,-2.291,-2.421,-1.544,3.941,-3.359,-12.34,-8.592,1.066,-12.68,-13.74,0,0,0,0,0,0,0,0,0,0,0,0,0,0,0,0,
661,3.485,-3.476,2.425,-0.7077,7.961,6.054,-8.057,-5.443,3.265,2.647,1.125,-9.587,-8.388,4.185,-8.139,-10.89,0,0,0,0,0,0,0,0,0,0,0,0,0,0,0,0,
662,0.5634,-7.29,2.186,-2.677,9.292,5.9,-9.535,-5.74,5.005,-0.9823,5.412,-4.734,-8.533,2.221,-4.792,-11.32,0,0,0,0,0,0,0,0,0,0,0,0,0,0,0,0,
663,1.713,-11.2,2.611,-2.341,9.917,6.672,-9.38,-5.848,5.27,-1.891,8.792,0.8328,-8.488,-1.041,-1.217,-10.4,0,0,0,0,0,0,0,0,0,0,0,0,0,0,0,0,
664,4.905,-11.67,3.373,-0.1096,8.745,6.479,-7.918,-3.428,9.302,1.716,14.04,7.472,-3.348,2.864,4.615,-4.376,0,0,0,0,0,0,0,0,0,0,0,0,0,0,0,0,
665,8.016,-4.482,7.157,4.99,10.42,7.46,-3.434,1.407,12.53,5.04,16.55,11.24,2.02,6.128,4.835,-2.429,0,0,0,0,0,0,0,0,0,0,0,0,0,0,0,0,
666,9.807,0.0889,7.509,5.787,11.93,8.272,-3.971,1.918,10.85,4.741,14.06,9.647,2.26,3.855,-0.2235,-4.229,0,0,0,0,0,0,0,0,0,0,0,0,0,0,0,0,
667,8.983,-1.59,3.601,0.8108,10.06,6.594,-8.949,1.149,10.65,5.327,12.27,8.132,3.132,4.286,-1.33,-2.226,0,0,0,0,0,0,0,0,0,0,0,0,0,0,0,0,
668,8.446,0.2383,4.049,0.5252,12.25,6.324,-8.666,3.132,13.47,7.38,12.65,9.166,5.591,6.121,-0.0273,-1.148,0,0,0,0,0,0,0,0,0,0,0,0,0,0,0,0,
669,8.764,0.8514,6.603,3.6,17.36,7.029,-7.854,0.7663,13.18,5.069,11.17,7.048,3.59,4.039,-3.288,-5.113,0,0,0,0,0,0,0,0,0,0,0,0,0,0,0,0,
670,6.656,-5.02,7.045,2.804,16.36,5.575,-10.94,-3.659,9.406,1.43,6.952,-0.2391,-1.391,2.105,-9.684,-9.369,0,0,0,0,0,0,0,0,0,0,0,0,0,0,0,0,
671,2.612,-7.803,8.921,3.896,12.22,4.748,-9.942,-1.859,4.255,0.9354,1.826,-8.589,-6.633,-0.1056,-15.04,-13.26,0,0,0,0,0,0,0,0,0,0,0,0,0,0,0,0,
672,-2.485,-7.17,11.22,9.655,10.5,4.912,-4.621,2.654,-1.108,0.4463,-3.091,-14.86,-11.04,-3.483,-18.43,-16.6,0,0,0,0,0,0,0,0,0,0,0,0,0,0,0,0,
673,-6.609,-5.972,11.92,13.51,9.556,3.967,-1.095,6.132,-3.645,1.481,-7.794,-18.44,-10.29,-2.507,-20.86,-17.05,0,0,0,0,0,0,0,0,0,0,0,0,0,0,0,0,T2
674,-7.417,-1.107,10.88,12.53,7.147,1.781,-1.111,6.762,-6.65,4.146,-12.85,-21.44,-8.253,-0.9599,-23.5,-17.87,0,0,0,0,0,0,0,0,0,0,0,0,0,0,0,0,
675,-10.23,-0.1528,5.601,8.518,1.456,-3.324,-4.334,2.873,-13.99,1.786,-17.11,-25.66,-12.25,-4.046,-25.78,-20.31,0,0,0,0,0,0,0,0,0,0,0,0,0,0,0,0,
676,-14.72,-5.722,0.3916,6.51,-3.243,-7.34,-6.491,0.5398,-17.18,-3.167,-19.35,-28.08,-17.09,-6.824,-27.44,-21.32,0,0,0,0,0,0,0,0,0,0,0,0,0,0,0,0,
677,-11.5,-7.117,1.415,8.578,1.239,-2.621,-4.913,0.8461,-11.74,-4.445,-20.13,-25.34,-16.27,-8.168,-27.87,-20.82,0,0,0,0,0,0,0,0,0,0,0,0,0,0,0,0,
678,-2.882,-3.784,4.917,10.43,10.4,6.243,-1.451,0.6393,-5.16,-3.189,-18.02,-19,-10.8,-8.068,-24.75,-17.74,0,0,0,0,0,0,0,0,0,0,0,0,0,0,0,0,
679,3.846,0.4831,7.79,11.84,15.09,10.63,4.323,4.255,0.8075,0.2,-12.85,-12.78,-2.088,-2.243,-20.28,-12.2,0,0,0,0,0,0,0,0,0,0,0,0,0,0,0,0,
680,8.892,6.401,11.23,12.74,16.59,10.98,8.282,7.697,7.619,5.469,-8.252,-7.399,6.782,5.762,-16.63,-8.209,0,0,0,0,0,0,0,0,0,0,0,0,0,0,0,0,
681,10.9,9.834,11.95,8.981,16.04,9.114,5.132,4.547,10.74,8.638,-3.801,-0.4165,12.15,10.11,-10.19,-4.423,0,0,0,0,0,0,0,0,0,0,0,0,0,0,0,0,
682,10.9,10.28,7.861,5.568,12.07,6.141,1.766,3.842,9.557,9.309,1.488,7.002,14.01,10.99,-3.644,0.2418,0,0,0,0,0,0,0,0,0,0,0,0,0,0,0,0,
683,12.98,11.75,3.628,8.662,9.05,5.318,3.599,8.719,8.243,10.15,3.648,10.47,13.02,9.155,-2.884,0.8388,0,0,0,0,0,0,0,0,0,0,0,0,0,0,0,0,
684,14.79,12.05,3.681,12.58,9.641,7.771,6.807,11.27,9.353,10.14,5.466,13.84,13.6,8.532,-0.442,1.478,0,0,0,0,0,0,0,0,0,0,0,0,0,0,0,0,
685,19.06,12.08,9.172,14.32,13.58,14.68,10.99,11.49,15,8.289,14.07,23.66,20.28,11.82,9.562,8.582,0,0,0,0,0,0,0,0,0,0,0,0,0,0,0,0,
686,30.79,16.47,17.85,16.44,21.91,25.42,15.99,11.78,23.32,8.411,24.55,32.73,25.19,12.71,16.13,12.06,0,0,0,0,0,0,0,0,0,0,0,0,0,0,0,0,
687,39.03,21.42,24.29,19.4,30.32,32.02,19.67,13.81,28.77,11.69,27.86,32.5,22.18,10.29,14.38,7.445,0,0,0,0,0,0,0,0,0,0,0,0,0,0,0,0,
688,36.65,23.23,27.87,25.52,33.92,31.92,23.5,19.39,29.86,13.37,24.94,28.95,20.23,11.68,14.24,8.474,0,0,0,0,0,0,0,0,0,0,0,0,0,0,0,0,
689,34.33,24.26,30.24,29.34,33.08,30.54,24.7,20.62,27.88,12.74,20.84,27.38,21.89,14.72,17.01,15.04,0,0,0,0,0,0,0,0,0,0,0,0,0,0,0,0,
690,34.36,23.49,26.19,21.25,26.57,26.59,19.66,14.45,23.74,13.7,18.37,24.82,20.18,14.46,17.28,15.59,0,0,0,0,0,0,0,0,0,0,0,0,0,0,0,0,
691,30.42,20.77,17.64,12.57,19.59,20.4,15.27,12.23,19.14,15.53,17.06,20.69,17.73,13.86,16.7,13,0,0,0,0,0,0,0,0,0,0,0,0,0,0,0,0,
692,25.63,19.73,15.72,15.86,21.69,19.26,15.16,14.63,15.33,14.53,11.95,13.44,16.13,11.97,12.39,8.724,0,0,0,0,0,0,0,0,0,0,0,0,0,0,0,0,
693,20.89,17.71,17.41,19.67,24.07,19.43,13.67,12.74,12.39,11.39,2.757,2.99,11.56,6.789,2.374,0.6335,0,0,0,0,0,0,0,0,0,0,0,0,0,0,0,0,
694,13.29,13.35,14.33,16.51,16.9,14.11,11.49,9.815,9.442,10.2,-2.371,-1.807,9.796,4.367,-1.829,-2.016,0,0,0,0,0,0,0,0,0,0,0,0,0,0,0,0,
695,9.294,13.09,11.71,14.62,12.31,9.966,12.67,10.57,6.726,11.46,-1.594,1.219,13.13,5.865,1.923,0.9436,0,0,0,0,0,0,0,0,0,0,0,0,0,0,0,0,
696,11.78,16.1,13.66,16.77,16.02,11.15,14.97,12.25,6.39,12.19,-1.276,3.889,14.54,6.941,2.763,0.7122,0,0,0,0,0,0,0,0,0,0,0,0,0,0,0,0,
697,13.95,16.69,15.87,19.13,17.51,12.12,15.29,14.24,6.788,11.82,-2.072,5.378,15.08,7.93,1.207,0.7328,0,0,0,0,0,0,0,0,0,0,0,0,0,0,0,0,
698,13.87,15.77,15.17,18.69,15.35,10.9,12.4,14.17,3.8,10.85,-1.375,7.968,15.97,7.613,1.748,2.167,0,0,0,0,0,0,0,0,0,0,0,0,0,0,0,0,
699,13.18,13.83,12.8,17.07,13.36,9.328,8.293,9.776,-0.0396,9.477,-0.7099,8.826,13.37,5.034,1.877,1.015,0,0,0,0,0,0,0,0,0,0,0,0,0,0,0,0,
700,12.39,12.11,13.39,18.56,11.31,8.704,7.789,7.79,1.222,9.809,-0.414,8.858,11.33,4.37,1.941,1.371,0,0,0,0,0,0,0,0,0,0,0,0,0,0,0,0,
701,12.76,13.96,15.02,19.92,11.1,8.465,9.569,11.44,5.436,10.85,0.1271,9.749,11.48,3.941,2.826,2.767,0,0,0,0,0,0,0,0,0,0,0,0,0,0,0,0,
702,10.98,14.4,12.3,19.6,11.05,5.653,10.3,16.1,5.146,9.549,0.3318,9.696,9.518,0.765,4.501,1.447,0,0,0,0,0,0,0,0,0,0,0,0,0,0,0,0,
703,7.864,11.56,12.33,23.71,10.52,4.312,13.24,20.54,3.02,9.127,3.94,12.44,11.1,1.837,10.02,2.887,0,0,0,0,0,0,0,0,0,0,0,0,0,0,0,0,
704,13.13,14.04,19.39,28.01,15.96,10.85,17.19,22.95,6.596,11.86,10.59,18.16,17.45,8.28,14.72,7.598,0,0,0,0,0,0,0,0,0,0,0,0,0,0,0,0,
705,20.55,18.15,23.56,26.23,22.56,17.09,15.36,20.17,9.855,12,10.18,15.64,15.77,9.226,10.61,7.962,0,0,0,0,0,0,0,0,0,0,0,0,0,0,0,0,
706,15.5,12.87,22.65,24.85,21.24,14.84,10.02,14.85,7.205,7.716,4.12,5.625,6.332,3.783,3.476,4.185,0,0,0,0,0,0,0,0,0,0,0,0,0,0,0,0,
707,7.018,4.881,21.94,25.24,18.7,11.14,7.277,11.74,5.313,5.006,2.928,-0.275,0.0338,0.5901,-0.9131,0.4816,0,0,0,0,0,0,0,0,0,0,0,0,0,0,0,0,
708,5.217,2.861,20.93,24.29,18.82,9.925,7.156,13.8,3.221,5.707,1.512,-4.327,-2.768,0.1363,-5.883,-1.728,0,0,0,0,0,0,0,0,0,0,0,0,0,0,0,0,
709,2.396,3.458,20.2,25.39,16.8,8.734,8.947,16.54,-1.572,6.871,-3.845,-7.752,-0.7114,1.457,-6.445,0.6829,0,0,0,0,0,0,0,0,0,0,0,0,0,0,0,0,
710,0.2977,6.093,19.48,25.15,14.93,9.471,11.35,12.46,-2.404,7.587,-3.163,-4.016,5.766,4.978,-0.4089,4.93,0,0,0,0,0,0,0,0,0,0,0,0,0,0,0,0,
711,3.192,8.027,16.68,21.65,13.58,10.35,11.78,10.76,-2.679,7.088,0.1358,-0.9264,5.604,5.064,-0.3721,3.216,0,0,0,0,0,0,0,0,0,0,0,0,0,0,0,0,
712,2.677,3.988,16.69,25.77,10.65,9.192,13.07,21.4,-6.49,7.091,-2.724,-3.307,2.74,3.635,-5.831,1.012,0,0,0,0,0,0,0,0,0,0,0,0,0,0,0,0,
713,0.8826,3.428,22.62,36.89,11.15,11.18,18.27,33.14,-6.414,12.36,-4.673,-0.8431,8.467,8.22,-5.361,5.838,0,0,0,0,0,0,0,0,0,0,0,0,0,0,0,0,
714,5.742,11.69,31.35,45.27,15.85,17.06,24.16,40.02,-3.36,18.98,-3.233,4.164,13.98,13.24,-3.822,10.04,0,0,0,0,0,0,0,0,0,0,0,0,0,0,0,0,
715,11.47,17.18,43.34,54.9,22.42,22.86,29.04,49.89,-0.2205,19.93,-4.237,3.657,13.13,13.27,-6.97,8.851,0,0,0,0,0,0,0,0,0,0,0,0,0,0,0,0,
716,13.11,18.43,57.56,68.42,31.02,27.01,34.55,60.67,5.718,19.47,-4.83,3.748,12.38,11.46,-8.9,5.926,0,0,0,0,0,0,0,0,0,0,0,0,0,0,0,0,
717,13.92,21.59,67.18,77.85,35.67,28.16,39.92,66.79,8.355,21.37,-2.212,9.249,12.39,8.272,-7.657,2.409,0,0,0,0,0,0,0,0,0,0,0,0,0,0,0,0,
718,17.77,23.73,70.56,82.11,35.5,29.77,44.06,70.39,7.374,22.62,1.102,16.33,14.43,7.398,-5.023,2.408,0,0,0,0,0,0,0,0,0,0,0,0,0,0,0,0,
719,25.48,25.37,72.47,85.72,39.67,35.82,47.04,73.02,12.5,24.36,4.462,20.42,18.92,10.43,-2.453,5.79,0,0,0,0,0,0,0,0,0,0,0,0,0,0,0,0,
720,30.29,28.09,72.39,86.17,44.59,39.18,46.5,71.65,18.63,25.29,5.717,19.12,18.37,7.991,-2.975,3.067,0,0,0,0,0,0,0,0,0,0,0,0,0,0,0,0,
721,27.86,26.62,66.28,78.78,41.92,34.98,41.09,63.2,17.38,20.62,3.634,15.93,13.58,1.199,-4.604,-3.61,0,0,0,0,0,0,0,0,0,0,0,0,0,0,0,0,
722,24.79,23.6,59.25,68.87,39.31,30.88,35.73,53.77,16.49,15.88,3.767,15.59,12.18,1.255,-2.236,-3.523,0,0,0,0,0,0,0,0,0,0,0,0,0,0,0,0,
723,24.09,23.82,56.19,63.28,39.29,29.59,32.91,49.38,19.41,14.86,7.415,15.32,12.46,4.763,2.812,0.9917,0,0,0,0,0,0,0,0,0,0,0,0,0,0,0,0,
724,21.34,21.03,50.43,57.25,33,25.28,28.29,43.23,17.1,11.71,7.587,11.12,10.37,4.587,5.549,2.613,0,0,0,0,0,0,0,0,0,0,0,0,0,0,0,0,
725,16.53,15.22,42.21,49.78,26.38,20.15,23.35,35.09,10.3,8.483,4.473,6.394,9.246,5.007,4.641,1.558,0,0,0,0,0,0,0,0,0,0,0,0,0,0,0,0,
726,12.09,13.73,38.62,46.03,25.29,18.04,21.48,31.02,7.605,8.389,3.092,3.907,10.57,6.25,1.562,-1.018,0,0,0,0,0,0,0,0,0,0,0,0,0,0,0,0,
727,6.95,12.61,35.03,39.79,18.53,13.85,17.98,25.77,6.612,6.479,1.022,0.6133,10.87,5.194,-1.101,-3.064,0,0,0,0,0,0,0,0,0,0,0,0,0,0,0,0,
728,2.776,10.13,29.62,31.71,9.568,9.165,14.99,21.38,4.576,5.952,-0.5171,-1.439,12.42,8.117,-0.3861,-0.1075,0,0,0,0,0,0,0,0,0,0,0,0,0,0,0,0,
729,3.428,13.31,29.07,32.93,11.9,10.81,18.43,24.3,5.149,9.372,2.658,0.2069,15.42,13.54,0.5403,3.026,0,0,0,0,0,0,0,0,0,0,0,0,0,0,0,0,
730,4.75,15.97,31.48,36.68,16.94,13.58,21.7,25.67,5.34,8.349,5.072,-0.0174,12.51,11.65,-2.272,-0.1442,0,0,0,0,0,0,0,0,0,0,0,0,0,0,0,0,
731,2.556,11.92,32.8,35,16.25,12.98,21.41,23.52,3.724,4.837,4.63,-1.424,7.997,9.092,-3.477,-1.855,0,0,0,0,0,0,0,0,0,0,0,0,0,0,0,0,
732,1.251,9.411,31.64,33.53,14.71,12.29,20.44,22.25,3.053,5.27,3.962,-0.5608,8.78,11.77,-2.184,1.306,0,0,0,0,0,0,0,0,0,0,0,0,0,0,0,0,
733,0.8209,8.047,25.93,30.6,10.69,10.24,16.66,16.39,-0.3043,5.103,1.651,-1.025,9.247,10.81,-2.542,2.728,0,0,0,0,0,0,0,0,0,0,0,0,0,0,0,0,
734,-0.3066,5.315,21.17,25.85,5.221,8.293,14.27,10.48,-3.61,3.954,3.005,0.3437,10.82,8.629,1.062,5.132,0,0,0,0,0,0,0,0,0,0,0,0,0,0,0,0,
735,2.658,8.306,20.32,24.63,4.059,9.575,16.38,10.63,-2.068,3.939,8.203,4.41,14.4,10.08,5.975,7.088,0,0,0,0,0,0,0,0,0,0,0,0,0,0,0,0,
736,4.707,10.94,16.59,22.47,2.915,8.082,15.39,9.714,-3.972,1.875,5.199,1.927,9.414,6.464,0.837,-0.0574,0,0,0,0,0,0,0,0,0,0,0,0,0,0,0,0,
737,-0.5595,5.517,10.77,18.22,-0.8538,3.297,11.66,8.813,-9.056,-0.4585,-1.401,-2.666,1.359,-1.072,-5.752,-8.114,0,0,0,0,0,0,0,0,0,0,0,0,0,0,0,0,
738,-2.895,1.44,8.457,15.77,-2.579,2.359,9.408,9.616,-6.841,-0.568,-0.0815,-0.9174,2.266,-3.461,-3.538,-7.899,0,0,0,0,0,0,0,0,0,0,0,0,0,0,0,0,
739,1.06,1.876,8.405,11.92,-0.8629,3.304,6.38,6.434,-2.201,1.56,1.745,0.2423,5.489,-2.035,-1.26,-5.052,0,0,0,0,0,0,0,0,0,0,0,0,0,0,0,0,
740,0.9314,1.243,7.188,6.991,1.78,0.9004,3.517,3.633,-3.803,5.543,-1.294,-2.123,5.704,-0.5894,-2.806,-2.223,0,0,0,0,0,0,0,0,0,0,0,0,0,0,0,0,
741,-2.185,0.3907,3.005,3.822,1.544,-2.505,1.063,3.202,-6.621,5.767,-2.597,-2.848,6.578,0.5791,-2.225,0.8932,0,0,0,0,0,0,0,0,0,0,0,0,0,0,0,0,
742,-2.24,0.7072,-0.7084,1.758,-1.343,-3.818,-1.215,2.46,-7.078,3.479,-1.488,-2.735,6.813,2.183,1.172,2.218,0,0,0,0,0,0,0,0,0,0,0,0,0,0,0,0,
743,-4.286,1.22,-1.029,2.298,-4.66,-6.147,-0.1847,6.239,-11.24,4.928,-2.692,-4.468,4.062,2.822,3.348,2.327,0,0,0,0,0,0,0,0,0,0,0,0,0,0,0,0,
744,-10.5,0.9561,-3.175,3.184,-9.762,-10.8,1.263,10.72,-17.52,5.179,-5.223,-5.814,1.664,0.9673,2.917,2.022,0,0,0,0,0,0,0,0,0,0,0,0,0,0,0,0,
745,-11.88,1.024,-5.925,2.259,-12.62,-11.3,1.751,10.78,-15.61,3.951,-2.926,-1.611,4.61,2.014,4.959,3.355,0,0,0,0,0,0,0,0,0,0,0,0,0,0,0,0,
746,-5.509,3.61,-4.218,2.216,-10.2,-8.224,3.253,12.23,-9.673,5.884,3.16,5.768,9.783,6.453,9.841,6.719,0,0,0,0,0,0,0,0,0,0,0,0,0,0,0,0,
747,-0.8769,5.153,-5.397,0.1292,-10.07,-9.631,1.634,12.99,-9.498,5.093,5.179,7.081,10.44,7.509,10.17,7.711,0,0,0,0,0,0,0,0,0,0,0,0,0,0,0,0,
748,-1.045,5.755,-9.995,-2.362,-11.65,-10.65,1.408,12.51,-8.109,2.718,5.071,4.091,9.783,8.261,8.191,6.563,0,0,0,0,0,0,0,0,0,0,0,0,0,0,0,0,
749,-0.0029,10.4,-7.745,1.32,-8.6,-5.302,8.871,17.43,-3.443,3.779,7.102,2.843,9.849,9.975,8.275,5.254,0,0,0,0,0,0,0,0,0,0,0,0,0,0,0,0,
750,-0.1839,12.2,-4.034,3.021,-5.65,-2.399,12.16,19.54,-4.369,2.828,7.129,0.955,7.28,8.003,7.106,4.159,0,0,0,0,0,0,0,0,0,0,0,0,0,0,0,0,
751,-4.013,7.318,-6.012,-0.9837,-4.676,-4.425,7.403,13.51,-5.041,1.91,7.529,0.7835,7.553,9.577,8.104,7.038,0,0,0,0,0,0,0,0,0,0,0,0,0,0,0,0,
752,-4.094,5.798,-5.919,0.0802,-3.458,-4.411,6.626,10.64,-1.941,4.026,10.09,3.302,11.66,15.59,10.8,10.6,0,0,0,0,0,0,0,0,0,0,0,0,0,0,0,0,
753,-3.175,7.245,-4.382,3.193,-6.436,-4.671,9.314,12.12,-6.594,2.384,5.109,-1.163,11.11,15.15,5.937,8.592,0,0,0,0,0,0,0,0,0,0,0,0,0,0,0,0,
754,-10.18,5.329,-6.887,1.855,-10.65,-8.093,9.933,11.45,-14.48,0.2333,-3.799,-9.76,8.542,12.57,0.4565,6.835,0,0,0,0,0,0,0,0,0,0,0,0,0,0,0,0,
755,-16.9,4.355,-6.663,3.791,-9.264,-9.185,11.78,10.84,-11.89,1.905,-2.482,-9.857,8.906,14.01,4.134,9.05,0,0,0,0,0,0,0,0,0,0,0,0,0,0,0,0,
756,-13.71,6.243,-2.743,9.066,-6.424,-5.774,15.07,11.97,-4.676,1.769,4.898,-3.804,8.968,14.12,9.098,10.76,0,0,0,0,0,0,0,0,0,0,0,0,0,0,0,0,
757,-7.337,8.539,-1.262,10.94,-3.203,-1.434,16.69,12.59,-2.45,1.09,8.198,0.5522,9.077,14.08,10.3,11.04,0,0,0,0,0,0,0,0,0,0,0,0,0,0,0,0,
758,-5.352,10.25,-1.437,9.644,2.037,-0.9112,13.9,10.44,-3.289,0.8626,7.957,1.471,7.954,13.54,9.942,8.845,0,0,0,0,0,0,0,0,0,0,0,0,0,0,0,0,
759,-8.92,6.56,-5.42,3.171,0.2278,-7.187,4.623,4.965,-5.135,-3.349,5.813,-2.071,1.953,6.58,7.241,4.17,0,0,0,0,0,0,0,0,0,0,0,0,0,0,0,0,
760,-16.59,-2.217,-13.18,-6.45,-9.499,-15.45,-5.081,0.7767,-8.371,-7.471,3.429,-7.734,-3.823,-0.7916,4.084,0.9222,0,0,0,0,0,0,0,0,0,0,0,0,0,0,0,0,
761,-23.1,-7.458,-16.47,-10.57,-14.47,-19.69,-9.554,0.1994,-12.27,-8.457,2.145,-12.12,-6.901,-3.274,1.438,-2.449,0,0,0,0,0,0,0,0,0,0,0,0,0,0,0,0,
762,-27.02,-9.495,-18.18,-12.18,-14.81,-22.91,-14.05,-0.6081,-16.38,-9.734,-1.054,-16.93,-11.9,-6.115,-3.232,-7.207,0,0,0,0,0,0,0,0,0,0,0,0,0,0,0,0,
763,-32.06,-14.92,-23.51,-16.69,-19.45,-27.63,-20.82,-2.044,-20.11,-11.06,-5.543,-21.84,-16.11,-7.752,-7.469,-8.395,0,0,0,0,0,0,0,0,0,0,0,0,0,0,0,0,
764,-36.13,-20.65,-26.5,-19.71,-25.88,-30.79,-24.84,-2.318,-22.79,-12.49,-8.304,-23.52,-14.95,-4.858,-8.675,-6.504,0,0,0,0,0,0,0,0,0,0,0,0,0,0,0,0,
765,-36.7,-21.68,-27.86,-19.95,-28.6,-32.05,-25.21,-2.944,-23.84,-13.85,-10.76,-23.5,-12.31,-3.249,-8.405,-6.102,0,0,0,0,0,0,0,0,0,0,0,0,0,0,0,0,
766,-36.11,-21.07,-28.76,-18.14,-26.93,-30.56,-22.79,-3.744,-21.88,-12.32,-10.89,-23.65,-10.82,-4.006,-5.681,-5.692,0,0,0,0,0,0,0,0,0,0,0,0,0,0,0,0,
767,-33.33,-20.57,-22.93,-13.9,-21.69,-25.17,-19.09,-3.427,-18.18,-10.71,-6.493,-21.97,-8.955,-2.735,-1.181,-3.489,0,0,0,0,0,0,0,0,0,0,0,0,0,0,0,0,
768,-29.89,-19.34,-18.94,-12.79,-20.12,-23.93,-19.49,-4.312,-17.47,-12.76,-5.369,-21.05,-9.226,-2.211,-0.8219,-2.871,0,0,0,0,0,0,0,0,0,0,0,0,0,0,0,0,
769,-32.55,-20.28,-25.42,-16.86,-26.52,-30.62,-23.25,-8.433,-19.53,-15.91,-9.788,-24.63,-12.66,-4.636,-3.327,-4.644,0,0,0,0,0,0,0,0,0,0,0,0,0,0,0,0,
770,-37.66,-22.1,-29.72,-21.16,-30.61,-34.76,-24.56,-14.02,-18.57,-17.47,-9.69,-27,-14.15,-5.689,-1.383,-4.966,0,0,0,0,0,0,0,0,0,0,0,0,0,0,0,0,
771,-38.03,-20.54,-27.33,-23.59,-27.02,-32.91,-24.49,-18.21,-15.07,-17.09,-5.109,-24.22,-12.31,-4.637,2.734,-3.005,0,0,0,0,0,0,0,0,0,0,0,0,0,0,0,0,
772,-36.95,-17.73,-25.32,-21.68,-23.3,-31.35,-23.12,-18.8,-14.38,-15.2,-4.699,-21.95,-9.207,-3.319,3.502,-1.44,0,0,0,0,0,0,0,0,0,0,0,0,0,0,0,0,
773,-36.28,-14.82,-19.8,-15.44,-21.77,-28.94,-17.61,-15.76,-15.45,-13.41,-7.537,-22.62,-6.474,-2.823,1.851,-3.142,0,0,0,0,0,0,0,0,0,0,0,0,0,0,0,0,
774,-34.38,-12.86,-14.48,-13.65,-22.26,-25.95,-14.71,-13.79,-15.71,-14.36,-11.74,-24.12,-8.739,-7.027,-1.546,-8.323,0,0,0,0,0,0,0,0,0,0,0,0,0,0,0,0,
775,-34.24,-16.28,-19.21,-18.03,-26.51,-27.89,-17.63,-15.39,-15.75,-17.72,-16.36,-23.38,-12.99,-12.68,-2.234,-9.89,0,0,0,0,0,0,0,0,0,0,0,0,0,0,0,0,
776,-33.64,-18.91,-21.56,-18.53,-27.47,-29.09,-16.72,-14.82,-13.11,-17.73,-13.69,-16.16,-9.789,-10.67,5.054,-3.992,0,0,0,0,0,0,0,0,0,0,0,0,0,0,0,0,
777,-27.63,-14.5,-12.68,-14.3,-21.33,-23.58,-12.61,-12.04,-7.556,-14.73,-6.353,-8.389,-5.242,-6.429,11.55,1.3,0,0,0,0,0,0,0,0,0,0,0,0,0,0,0,0,
778,-23.05,-12.89,-8.244,-13.96,-17.32,-20.14,-15.38,-15.1,-5.686,-16.71,-5.533,-8.931,-8.308,-9.058,11.64,3.572,0,0,0,0,0,0,0,0,0,0,0,0,0,0,0,0,
779,-25.77,-17.13,-11.64,-15.77,-18.14,-23.09,-20.53,-19.81,-7.492,-20.78,-6.91,-10.17,-11.12,-11.75,14.38,8.166,0,0,0,0,0,0,0,0,0,0,0,0,0,0,0,0,
780,-27.19,-18.28,-10.6,-13.5,-16.98,-24.07,-20.14,-17.57,-5.426,-19.52,-2.463,-4.619,-9.228,-9.21,19.99,12.11,0,0,0,0,0,0,0,0,0,0,0,0,0,0,0,0,
781,-21.03,-17.61,-7.101,-10.92,-12.74,-20.43,-18.7,-14.86,-0.5167,-17.86,2.72,0.2364,-8.316,-7.425,20.79,11.67,0,0,0,0,0,0,0,0,0,0,0,0,0,0,0,0,
782,-14.4,-19.15,-6.483,-10.16,-8.203,-17.42,-19.1,-16.81,0.6532,-20.28,3.212,-0.9299,-9.967,-8.671,16.64,7.725,0,0,0,0,0,0,0,0,0,0,0,0,0,0,0,0,
783,-14.73,-20.58,-6.396,-9.868,-6.314,-17.97,-20.39,-17.87,-1.386,-23.36,-0.4855,-5.918,-14.17,-11.17,9.464,0.6507,0,0,0,0,0,0,0,0,0,0,0,0,0,0,0,0,
784,-20.3,-23.17,-8.91,-14.71,-9.336,-21.42,-24.97,-17.26,-3.669,-25.35,-5.652,-10.85,-18.08,-13.78,3.833,-3.144,0,0,0,0,0,0,0,0,0,0,0,0,0,0,0,0,
785,-23.93,-26.51,-12.11,-19.78,-11.49,-23.3,-28.23,-16.75,-4.79,-26.2,-8.5,-11.14,-17.3,-14.32,3.213,-1.476,0,0,0,0,0,0,0,0,0,0,0,0,0,0,0,0,
786,-22.75,-26.92,-10.17,-16.43,-9.758,-21.63,-25.2,-15.56,-4.397,-26.79,-9.054,-9.911,-18.15,-15.6,0.5054,-5.294,0,0,0,0,0,0,0,0,0,0,0,0,0,0,0,0,
787,-22.76,-28.38,-10.02,-15.31,-12.42,-22.41,-23.78,-15,-6.388,-28.28,-10.18,-13.14,-24.52,-21.52,-5.562,-14.3,0,0,0,0,0,0,0,0,0,0,0,0,0,0,0,0,
788,-25.7,-31.61,-13.46,-19.12,-15.9,-24.57,-24.5,-13.5,-8.948,-28.62,-11.17,-15.14,-26.9,-25.57,-5.84,-16.39,0,0,0,0,0,0,0,0,0,0,0,0,0,0,0,0,
789,-23.77,-28.82,-9.657,-13.98,-9.055,-20.18,-19.17,-9.419,-4.192,-26.86,-8.754,-11.15,-22.13,-22.48,-0.8085,-12.56,0,0,0,0,0,0,0,0,0,0,0,0,0,0,0,0,
790,-17.41,-22.06,-3.59,-6.304,-1.054,-13.63,-13.27,-7.48,3.779,-23.44,-1.27,-6.157,-15.5,-16.68,5.44,-6.997,0,0,0,0,0,0,0,0,0,0,0,0,0,0,0,0,
791,-11.8,-17,-2.782,-4.499,0.7959,-9.187,-9.157,-6.729,9.257,-18,9.103,0.4409,-6.494,-9.53,14.45,2.947,0,0,0,0,0,0,0,0,0,0,0,0,0,0,0,0,
792,-4.097,-9.76,2.147,1.581,4.958,-2.98,-0.8771,-2.6,14.01,-13.89,14.21,7.046,1.174,-3.718,18.75,10.07,0,0,0,0,0,0,0,0,0,0,0,0,0,0,0,0,
793,-0.3063,-4.547,6.926,5.615,6.134,-2.279,1.016,-0.8152,10.55,-13.74,7.344,2.38,-0.8907,-6.361,11.28,6.288,0,0,0,0,0,0,0,0,0,0,0,0,0,0,0,0,
794,-8.877,-9.559,-0.1782,-2.843,-1.988,-10.45,-7.565,-4.017,-1.558,-14.23,-3.949,-8.66,-6.898,-10.32,2.094,0.2103,0,0,0,0,0,0,0,0,0,0,0,0,0,0,0,0,
795,-17.58,-15.75,-8.355,-9.895,-8.191,-15.33,-10.94,-5.686,-6.504,-15.01,-9.318,-13.63,-9.082,-8.565,-3.84,-3.776,0,0,0,0,0,0,0,0,0,0,0,0,0,0,0,0,
796,-19.5,-16.54,-10.48,-10.13,-10.51,-16.81,-9.988,-6.267,-5.759,-17.85,-12.89,-18.64,-13.31,-11.96,-12.03,-12.47,0,0,0,0,0,0,0,0,0,0,0,0,0,0,0,0,
797,-23.21,-17.95,-12.29,-11.7,-12.79,-19.38,-11.98,-7.104,-8.598,-17.87,-17.51,-24.67,-18.67,-18.73,-16.51,-19.84,0,0,0,0,0,0,0,0,0,0,0,0,0,0,0,0,
798,-25.19,-17.65,-10.65,-11.79,-10.72,-17.43,-9.64,-4.955,-8.373,-13.33,-17.91,-23.7,-17.22,-15.94,-13.67,-17.74,0,0,0,0,0,0,0,0,0,0,0,0,0,0,0,0,
799,-22.94,-13.67,-8.285,-10.21,-9.073,-15.05,-5.648,-3.587,-5.186,-11.33,-16.83,-22.31,-14.05,-11.25,-11.92,-14,0,0,0,0,0,0,0,0,0,0,0,0,0,0,0,0,
800,-23.31,-12.49,-12.26,-9.931,-11.83,-16.44,-5.66,-3.313,-3.246,-12.67,-15.36,-21.75,-13.62,-11.92,-9.426,-11.91,0,0,0,0,0,0,0,0,0,0,0,0,0,0,0,0,
801,-21.79,-12.99,-14.56,-7.307,-12.58,-15.39,-4.065,0.9492,3.149,-12.84,-9.459,-15.27,-12.93,-11.3,-3.794,-8.227,0,0,0,0,0,0,0,0,0,0,0,0,0,0,0,0,
802,-17.91,-13.9,-12.14,-6.813,-12.99,-14.77,-3.899,1.621,7.933,-14.6,-5.656,-11.17,-14.65,-11,-2.853,-7.488,0,0,0,0,0,0,0,0,0,0,0,0,0,0,0,0,
803,-18.53,-17.49,-10.51,-10.72,-13.69,-15.5,-7.348,-4.623,3.738,-18.36,-6.302,-12.75,-16.98,-11.89,-3.847,-8.418,0,0,0,0,0,0,0,0,0,0,0,0,0,0,0,0,
804,-17.36,-18.07,-6.734,-9.712,-9.467,-10.98,-6.887,-6.54,2.763,-17.94,-4.26,-13.22,-14.26,-9.021,-2.205,-6.217,0,0,0,0,0,0,0,0,0,0,0,0,0,0,0,0,
805,-14.21,-15.45,-2.499,-5.668,-6.09,-7.276,-5.413,-5.261,8.27,-14.73,-2.678,-15.03,-11.23,-6.831,-3.248,-6.241,0,0,0,0,0,0,0,0,0,0,0,0,0,0,0,0,
806,-16.78,-15.85,-2.313,-4.593,-7.077,-8.258,-5.889,-7.146,9.296,-13.61,-3.658,-15.46,-9.925,-7.457,-3.491,-8.178,0,0,0,0,0,0,0,0,0,0,0,0,0,0,0,0,
807,-16.73,-15.27,-0.6189,-2.09,-6.44,-6.654,-3.021,-5.766,8.825,-13.4,-0.1576,-8.896,-7.509,-6.582,1.464,-6.335,0,0,0,0,0,0,0,0,0,0,0,0,0,0,0,0,
808,-10.06,-12.37,3.235,0.4383,-4.28,-3.777,-0.3778,-2.237,13.22,-13.33,6.074,-3.515,-7.299,-6.076,4.471,-5.397,0,0,0,0,0,0,0,0,0,0,0,0,0,0,0,0,
809,-6.892,-12.34,4.293,-1.165,-2.55,-3.092,-1.241,-3.892,16.09,-12.81,8.35,-3.491,-8.108,-6.704,3.335,-8.118,0,0,0,0,0,0,0,0,0,0,0,0,0,0,0,0,
810,-7.133,-10.87,3.752,-2.352,-1.806,-2.063,-0.1316,-5.411,14.79,-9.354,6.539,-4.149,-5.57,-6.029,1.462,-9.436,0,0,0,0,0,0,0,0,0,0,0,0,0,0,0,0,
811,-4.711,-4.278,3.063,-0.5118,-2.821,0.303,3.712,-3.026,14.25,-5.906,4.251,-3.541,-1.579,-4.041,0.7556,-7.641,0,0,0,0,0,0,0,0,0,0,0,0,0,0,0,0,
812,-0.3443,1.524,3.593,2.151,-1.734,4.751,7.19,-0.7162,14.8,-5.758,5.062,0.1918,3.098,0.4062,3.079,-3.64,0,0,0,0,0,0,0,0,0,0,0,0,0,0,0,0,
813,2.974,2.935,5.744,2.715,-0.2335,7.596,8.194,1.04,15,-5.622,6.453,3.841,6.729,4.598,4.027,0.533,0,0,0,0,0,0,0,0,0,0,0,0,0,0,0,0,
814,3.022,2.425,4.746,0.0631,-2.859,4.497,6.068,0.9749,14.93,-4.369,4.503,3.213,7.05,4.301,1.012,2.633,0,0,0,0,0,0,0,0,0,0,0,0,0,0,0,0,
815,1.931,4.045,1.905,-1.022,-3.342,2.374,4.604,-1.252,14,-4.436,4.358,4.045,9.201,4.034,1.482,3.733,0,0,0,0,0,0,0,0,0,0,0,0,0,0,0,0,
816,3.11,7.559,2.412,0.2742,0.0775,4.376,5.295,-1.798,15.51,-4.563,9.016,7.634,13.17,5.668,5.939,3.985,0,0,0,0,0,0,0,0,0,0,0,0,0,0,0,0,
817,4.955,8.927,3.4,-0.8877,1.332,4.802,6.864,-1.812,21.41,-2.865,12.8,10.02,13.62,5.424,9.022,4.208,0,0,0,0,0,0,0,0,0,0,0,0,0,0,0,0,
818,7.712,10.15,4.344,0.2815,2.728,6.484,12.31,-0.8986,25.15,-0.2228,14.58,14.93,15.11,6.535,12.74,7.746,0,0,0,0,0,0,0,0,0,0,0,0,0,0,0,0,
819,12.69,13.87,7.672,7.238,5.314,10.9,19.17,4.309,23.13,1.444,14.7,19.11,18.05,8.217,14.26,9.964,0,0,0,0,0,0,0,0,0,0,0,0,0,0,0,0,
820,13.77,13.85,8.08,9.084,3.613,10.34,18.97,6.583,18.91,-0.981,8.969,13.54,13.7,2.832,7.597,5.077,0,0,0,0,0,0,0,0,0,0,0,0,0,0,0,0,
821,9.013,8.456,5.713,4.118,0.0836,7.082,14.39,2.12,16.01,-6.771,2.936,6.629,7.425,-3.144,2.295,1.615,0,0,0,0,0,0,0,0,0,0,0,0,0,0,0,0,
822,7.525,5.603,8.512,4.458,1.37,8.554,13.24,0.0115,17.62,-9.398,5.567,8.378,8.91,-0.9012,6.846,6.163,0,0,0,0,0,0,0,0,0,0,0,0,0,0,0,0,
823,9.783,5.926,13.54,9.118,5.006,10.08,13.36,1.109,20.01,-8.36,8.608,9.898,10.4,0.7325,10.38,8.644,0,0,0,0,0,0,0,0,0,0,0,0,0,0,0,0,
824,6.338,3.805,13.76,8.255,4.007,7.013,11.58,-0.6448,15.64,-9.243,4.16,4.686,6.445,-3.199,6.064,3.892,0,0,0,0,0,0,0,0,0,0,0,0,0,0,0,0,
825,0.5501,1.428,11.56,3.57,0.6882,4.631,10.16,-3.742,10.29,-9.88,1.441,0.4886,6.006,-3.577,3.106,1.964,0,0,0,0,0,0,0,0,0,0,0,0,0,0,0,0,
826,1.135,2.491,9.45,0.462,1.798,5.247,8.535,-5.94,10.58,-6.825,4.049,0.8595,9.561,0.7852,4.202,5.398,0,0,0,0,0,0,0,0,0,0,0,0,0,0,0,0,
827,1.859,2.095,5.108,-2.731,2.156,2.969,3.584,-7.493,8.39,-5.881,4.046,-0.1305,7.595,2.233,3.381,5.383,0,0,0,0,0,0,0,0,0,0,0,0,0,0,0,0,
828,-3.968,-2.978,-1.423,-7.314,-3.781,-3.85,-2.348,-7.065,1.307,-7.853,2.067,-3.309,3.279,1.538,3.102,4.009,0,0,0,0,0,0,0,0,0,0,0,0,0,0,0,0,
829,-7.923,-4.638,-2.967,-7.444,-6.217,-5.558,-0.4294,-3.598,-0.9046,-5.367,3.136,-1.795,7.17,5.589,6.863,9.369,0,0,0,0,0,0,0,0,0,0,0,0,0,0,0,0,
830,-2.097,3.224,5.458,0.5127,-0.0964,3.647,11.69,1.531,3.316,-0.59,4.197,4.537,14.92,12.67,9.505,15.26,0,0,0,0,0,0,0,0,0,0,0,0,0,0,0,0,
831,7.874,12.53,13.65,7.876,5.308,13.98,21.67,4.161,7.691,0.0947,4.199,9.177,16.43,14.45,10.38,14.84,0,0,0,0,0,0,0,0,0,0,0,0,0,0,0,0,
832,14.58,15.4,12.5,7.607,6.886,17.3,21.52,3.111,10.74,-0.5688,8.206,12.72,15.05,11.06,14.34,13.59,0,0,0,0,0,0,0,0,0,0,0,0,0,0,0,0,
833,18.64,15.21,10.02,5.676,7.985,17.61,18.38,2.91,12.65,-0.9355,13.86,16.52,14.75,7.937,17.66,11.76,0,0,0,0,0,0,0,0,0,0,0,0,0,0,0,0,
834,20.56,14.06,11.18,5.831,7.421,17.41,16.37,4.476,12.74,-3.053,15.03,16.67,11.37,4.962,15.69,6.301,0,0,0,0,0,0,0,0,0,0,0,0,0,0,0,0,
835,19.62,10.69,10.97,4.889,6.564,15.83,13.95,4.399,12.93,-3.747,14.6,15.16,8.068,2.947,12.85,4.008,0,0,0,0,0,0,0,0,0,0,0,0,0,0,0,0,
836,18.74,7.998,8.332,2.152,7.21,13.74,12.4,2.96,12.13,-2.245,12.94,13.51,8.552,3.595,9.743,4.297,0,0,0,0,0,0,0,0,0,0,0,0,0,0,0,0,
837,15.76,5.5,3.885,-2.712,4.266,9.717,8.973,1.051,6.921,-3.353,4.797,7.261,6.178,2.341,3.139,-0.4786,0,0,0,0,0,0,0,0,0,0,0,0,0,0,0,0,
838,7.522,0.6191,-1.178,-9.06,-1.888,3.763,1.458,-3.553,0.9884,-6.519,-2.981,1.621,2.58,-0.0899,-0.5561,-3.003,0,0,0,0,0,0,0,0,0,0,0,0,0,0,0,0,
839,1.752,-1.542,-3.581,-11.69,-4.278,-0.007,-2.999,-8.826,-1.337,-7.515,-2.12,3.178,5.298,2.761,2.384,1.824,0,0,0,0,0,0,0,0,0,0,0,0,0,0,0,0,
840,2.098,0.8905,-3.247,-7.916,-4.218,-0.425,-1.367,-8.297,-1.738,-5.897,0.1815,4.775,7.789,6.09,3.612,3.262,0,0,0,0,0,0,0,0,0,0,0,0,0,0,0,0,
841,1.676,1.308,-1.139,-2.736,-5.774,0.528,0.2389,-3.878,-1.124,-3.928,-1.762,1.528,4.525,3.32,0.3719,-0.1045,0,0,0,0,0,0,0,0,0,0,0,0,0,0,0,0,
842,-1.208,-0.9397,0.4991,-2.271,-6.948,0.7431,-0.1427,-4.02,-1.023,-4.412,-4.634,-3.245,2.1,0.5122,-2.901,-1.227,0,0,0,0,0,0,0,0,0,0,0,0,0,0,0,0,
843,-4.934,-1.533,-1.28,-4.084,-7.662,-1.243,-0.317,-7.397,-3.668,-6.248,-7.153,-7.714,2.184,1.675,-5.146,-1.47,0,0,0,0,0,0,0,0,0,0,0,0,0,0,0,0,
844,-9.298,-1.645,-3.418,-2.799,-9.812,-4.113,-1.367,-7.459,-5.606,-5.655,-8.04,-8.932,1.418,1.719,-4.766,-1.137,0,0,0,0,0,0,0,0,0,0,0,0,0,0,0,0,
845,-11.05,-3.479,-4.109,-2.065,-11.37,-6.027,-3.844,-6.917,-4.94,-5.435,-6.211,-6.68,0.5292,-0.8183,-2.43,0.4709,0,0,0,0,0,0,0,0,0,0,0,0,0,0,0,0,
846,-10.56,-5.7,-6.144,-5.403,-11.3,-7.442,-5.695,-9.657,-5.268,-7.284,-4.851,-6.835,0.3372,-1.953,-2.544,-0.0101,0,0,0,0,0,0,0,0,0,0,0,0,0,0,0,0,
847,-11.55,-6.326,-7.666,-8.253,-11.93,-9.67,-6.752,-11.33,-7.015,-4.952,-5.706,-10.4,-0.0174,-0.4093,-4.416,-1.329,0,0,0,0,0,0,0,0,0,0,0,0,0,0,0,0,
848,-13.74,-5.63,-7.85,-9.047,-13.28,-13.43,-8.362,-9.778,-7.977,-1.258,-8.345,-15.08,-2.713,-0.346,-7.963,-4.354,0,0,0,0,0,0,0,0,0,0,0,0,0,0,0,0,
849,-18.01,-7.827,-10.59,-9.813,-12.96,-16.51,-10.8,-8.989,-7.81,-3.789,-11.36,-20.51,-8.309,-4.484,-13.97,-11.94,0,0,0,0,0,0,0,0,0,0,0,0,0,0,0,0,
850,-22.8,-13.8,-12.17,-8.604,-10.63,-15.04,-11.94,-8.123,-6.639,-5.939,-10.96,-22.4,-11.78,-7.72,-15.37,-15.5,0,0,0,0,0,0,0,0,0,0,0,0,0,0,0,0,
851,-21.1,-16.78,-5.978,-3.974,-7.835,-10.12,-9.34,-4.515,-5.266,-4.566,-7.463,-18.94,-11.55,-7.058,-11.24,-11.27,0,0,0,0,0,0,0,0,0,0,0,0,0,0,0,0,
852,-15.46,-15.48,1.605,-0.5483,-6.044,-6.514,-7.406,-3.938,-5.118,-7.59,-5.497,-15.85,-11.57,-7.401,-10.45,-9.509,0,0,0,0,0,0,0,0,0,0,0,0,0,0,0,0,
853,-13.25,-15,1.575,-3.298,-5.618,-5.06,-10.43,-8.401,-6.129,-10.44,-5.763,-14.33,-10.23,-8.595,-12.25,-12.09,0,0,0,0,0,0,0,0,0,0,0,0,0,0,0,0,
854,-10.94,-12.81,-1.131,-6.808,-4.532,-3.608,-10.29,-7.82,-7.139,-5.121,-6.102,-10.64,-4.921,-5.945,-10.1,-12.26,0,0,0,0,0,0,0,0,0,0,0,0,0,0,0,0,
855,-6.958,-5.884,-0.5457,-3.082,-2.4,-3.238,-2.774,-0.1992,-8.325,1.204,-5.862,-7.297,-0.6986,-2.753,-7.269,-10.93,0,0,0,0,0,0,0,0,0,0,0,0,0,0,0,0,
