%OpenBCI Raw EXG Data
%Number of channels = 16
%Sample Rate = 125 Hz
%Board = OpenBCI_GUI$BoardCytonSerialDaisy
Sample Index,EXG Channel 0,EXG Channel 1,EXG Channel 2,EXG Channel 3,EXG Channel 4,EXG Channel 5,EXG Channel 6,EXG Channel 7,EXG Channel 8,EXG Channel 9,EXG Channel 10,EXG Channel 11,EXG Channel 12,EXG Channel 13,EXG Channel 14,EXG Channel 15,Accel Channel 0,Accel Channel 1,Accel Channel 2,Other,Other,Other,Other,Other,Other,Other,Analog Channel 0,Analog Channel 1,Analog Channel 2,Timestamp,Other,Timestamp (Formatted),Annotations
1,-0,0,0,-0,-0,-0,0,-0,-0,0,-0,0,0,-0,-0,-0,0,0,0,0,0,0,0,0,0,0,0,0,0,0,0,0,T0
2,-7.544,-4.123,2.53,8.167,-14.87,0.4255,3.185,-10.21,-3.324,17.13,-5.144,-7.095,18.5,22.05,9.417,15.78,0,0,0,0,0,0,0,0,0,0,0,0,0,0,0,0,
3,-12.3,15.93,17.53,5.191,-5.354,-0.0059,15.69,22.29,-12.44,38.5,-5.665,-10.98,31.23,31.31,14.16,28.63,0,0,0,0,0,0,0,0,0,0,0,0,0,0,0,0,
4,-13.74,33.3,37.24,15.41,6.049,-7.546,20.69,27.11,-2.241,41.53,-4.106,-8.652,33.44,27.92,12,31.65,0,0,0,0,0,0,0,0,0,0,0,0,0,0,0,0,
5,-21.94,28.54,20.57,18.62,-12.32,-21.1,10.49,-3.873,4.511,28.1,-12.9,-14.67,23.14,13.86,2.084,20.75,0,0,0,0,0,0,0,0,0,0,0,0,0,0,0,0,
6,-34.3,17.56,-9.582,2.402,-21.19,-20.06,6.399,-6.071,-10.61,22.71,-15.95,-18.6,17.64,5.954,-7.809,6.584,0,0,0,0,0,0,0,0,0,0,0,0,0,0,0,0,
7,-28.79,14.62,-9.138,-2.943,-4.897,-6.385,12.06,-0.459,-8.821,20.21,5.231,0.0647,24.36,10.15,-5.11,3.903,0,0,0,0,0,0,0,0,0,0,0,0,0,0,0,0,
8,-11.22,14.9,-10.08,-5.203,-12.87,-0.7418,9.273,-10.9,11.91,15.35,25.12,19.35,21.85,2.952,8.164,8.531,0,0,0,0,0,0,0,0,0,0,0,0,0,0,0,0,
9,2.764,13.72,-10.04,-4.705,-12.06,16.17,9.094,4.635,36.25,25.2,36.04,32.62,14.35,-5.673,21.04,10.01,0,0,0,0,0,0,0,0,0,0,0,0,0,0,0,0,
10,25.19,18.5,15.41,11.41,27.84,40.59,18.73,21.86,62.47,30.2,47.96,47.16,17.52,4.079,27.13,10.88,0,0,0,0,0,0,0,0,0,0,0,0,0,0,0,0,
11,33.21,20.62,12.41,-0.9102,22.87,17.93,7.595,-5.474,42.2,7.044,36.43,35.99,16.85,8.134,21.31,13.11,0,0,0,0,0,0,0,0,0,0,0,0,0,0,0,0,
12,0.4736,10.7,-21.12,-35.74,-23.74,-26.35,-17.75,-25.18,-11.46,-0.2595,12.25,12.77,18.13,8.51,9.785,16.67,0,0,0,0,0,0,0,0,0,0,0,0,0,0,0,0,
13,-19.78,10.96,-24.91,-29.7,-27.67,-27.18,-20.86,-11.48,-16.31,24.56,7.697,10.23,32.09,22.98,3.865,23.85,0,0,0,0,0,0,0,0,0,0,0,0,0,0,0,0,
14,-7.189,22.76,-27.38,-12.38,-22.68,-15.54,-12.85,-12.75,-8.599,30.84,-0.8705,3.521,36.36,29.2,-1.778,29.8,0,0,0,0,0,0,0,0,0,0,0,0,0,0,0,0,
15,-5.375,24.14,-55.43,-24.57,-40.09,-18.65,-7.742,-16.8,-25.95,21.35,-10.02,-2.496,36.71,29.93,-5.876,35.64,0,0,0,0,0,0,0,0,0,0,0,0,0,0,0,0,
16,1.531,23.62,-51.53,-26.46,-29.37,-6.18,0.5216,-1.244,-3.479,27.06,5.338,12.3,42.06,34.54,1.375,43.49,0,0,0,0,0,0,0,0,0,0,0,0,0,0,0,0,
17,17.02,21.9,-12.01,-13.85,-12.96,1.748,-5.796,-5.989,20.45,24.53,3.304,2.635,22.72,15.6,3.053,33.89,0,0,0,0,0,0,0,0,0,0,0,0,0,0,0,0,
18,-9.63,3.69,4.953,-17.12,-28.4,-16.79,-23.34,-22.87,-16.41,5.404,-26.42,-32.35,-7.232,-8.93,-14.53,2.769,0,0,0,0,0,0,0,0,0,0,0,0,0,0,0,0,
19,-45.37,-11.18,-11.82,-27.52,-31.93,-26.26,-17.97,-16.53,-37.79,1.001,-34.63,-37.34,-6.13,-4.609,-29.55,-17.09,0,0,0,0,0,0,0,0,0,0,0,0,0,0,0,0,
20,-34.37,-2.682,-41.72,-36.14,-19.15,-20.28,1.29,-15.7,-22.56,16.76,-21.46,-18.39,12.26,4.21,-23.75,-7.782,0,0,0,0,0,0,0,0,0,0,0,0,0,0,0,0,
21,-10.33,11.7,-57.32,-38.14,-25.27,-17.48,-2.396,-29.91,-20.82,24.21,-4.55,0.2908,23.81,6.848,-1.843,16.26,0,0,0,0,0,0,0,0,0,0,0,0,0,0,0,0,
22,0.8628,13.74,-43.26,-26.71,-30.46,-14.82,-26.02,-29.9,-5.011,11.81,20.65,24.06,34.71,22.52,27.06,40.01,0,0,0,0,0,0,0,0,0,0,0,0,0,0,0,0,
23,12.95,10.28,-34.79,-21.3,-19.3,-13.35,-33.45,-24.89,25.4,7.419,39.94,43.9,47.02,37.67,52.88,56.76,0,0,0,0,0,0,0,0,0,0,0,0,0,0,0,0,
24,20.6,14.22,-37.03,-27.06,-16.67,-7.988,-18.37,-21.96,23.77,18.48,40.64,48.01,51.28,35.98,63.84,62.89,0,0,0,0,0,0,0,0,0,0,0,0,0,0,0,0,
25,19.92,20.82,-12.08,-26.72,-29.08,3.057,-12.26,-9.618,8.442,21.79,27.52,38.45,47.3,30.35,54.22,58.99,0,0,0,0,0,0,0,0,0,0,0,0,0,0,0,0,
26,13.19,20.24,9.886,-24.57,-37.68,-7.206,-20.67,-9.81,2.165,21.31,6.815,19.14,40.93,24.56,30.57,47.46,0,0,0,0,0,0,0,0,0,0,0,0,0,0,0,0,
27,-4.204,10.87,-4.843,-26.26,-34.48,-35.61,-26.77,-31.44,-11.48,16.34,-10.97,-1.623,26.53,9.882,6.418,29.69,0,0,0,0,0,0,0,0,0,0,0,0,0,0,0,0,
28,-24.78,-9.918,-38.76,-35.52,-38,-48.79,-35.17,-42.43,-35.59,1.551,-25.58,-20.17,5.513,-4.947,-11.22,9.718,0,0,0,0,0,0,0,0,0,0,0,0,0,0,0,0,
29,-38.68,-29.45,-84.75,-56.6,-55.48,-51.21,-41.94,-34.96,-56.17,9.263,-40.03,-33.79,2.735,-6.706,-22.43,-2.038,0,0,0,0,0,0,0,0,0,0,0,0,0,0,0,0,
30,-41.59,-19.69,-88.05,-57.35,-59.22,-52.85,-30.46,-23.85,-49.83,32.3,-38.4,-29.16,26.93,5.777,-24.41,5.009,0,0,0,0,0,0,0,0,0,0,0,0,0,0,0,0,
31,-29.55,13.41,-23.54,-31.1,-46.45,-40.64,-12.68,-13.79,-19.4,26.23,-21.06,-11.22,48.57,21.3,-13.74,25.92,0,0,0,0,0,0,0,0,0,0,0,0,0,0,0,0,
32,-16.23,29.65,-3.028,-26.33,-46.93,-25.86,-9.988,-12.74,-10.67,6.758,-12.87,-5.011,43.79,18.54,0.9413,38.67,0,0,0,0,0,0,0,0,0,0,0,0,0,0,0,0,
33,-16.98,19.58,-43.47,-31.99,-54.84,-27.15,-18.55,-18.91,-28.59,4.229,-15.68,-10.57,29.79,5.57,3.247,32.91,0,0,0,0,0,0,0,0,0,0,0,0,0,0,0,0,
34,-19.63,12.54,-44.07,-16.25,-48.21,-32.1,-21.42,-23.09,-33.12,7.689,-16.48,-11.93,25.76,8.451,-8.224,23.88,0,0,0,0,0,0,0,0,0,0,0,0,0,0,0,0,
35,-12.9,12.03,-37.35,-26.25,-41.3,-30.16,-16.9,-33.49,-24.89,5.339,-14.6,-7.838,21.79,12.36,-16.37,23.62,0,0,0,0,0,0,0,0,0,0,0,0,0,0,0,0,
36,-4.525,4.529,-80.59,-62.46,-46.35,-24.78,-15,-41.68,-21.37,4.304,-5.459,5.133,25.65,10.77,-8.342,29.1,0,0,0,0,0,0,0,0,0,0,0,0,0,0,0,0,
37,2.695,12.76,-100.1,-56.37,-45.31,-17.33,-10.99,-28.41,-14.36,14.18,10.24,25.47,50.33,23.83,10.51,38.88,0,0,0,0,0,0,0,0,0,0,0,0,0,0,0,0,
38,9.028,37.72,-51.24,-31,-37.81,-15.47,-1.779,-14.84,-5.924,24.88,18.44,35.78,64.12,30.81,27.72,50.17,0,0,0,0,0,0,0,0,0,0,0,0,0,0,0,0,
39,9.715,37.98,-11.63,-38.83,-40.34,-19.13,-2.668,-20.37,-5.612,24.87,22.77,38.37,56.49,20.81,38.73,55.32,0,0,0,0,0,0,0,0,0,0,0,0,0,0,0,0,
40,8.477,23.4,-37.52,-46.69,-42.59,-15.26,-13.52,-25.59,-9.128,23.95,30.09,43.09,56.42,20.15,41.83,51.87,0,0,0,0,0,0,0,0,0,0,0,0,0,0,0,0,
41,10.83,24.61,-56.4,-34.56,-38.57,-7.968,-18.33,-20.97,-13.13,20.16,29.08,40.57,58.44,18.37,34.38,42.01,0,0,0,0,0,0,0,0,0,0,0,0,0,0,0,0,
42,13.75,23.2,-33.46,-31.54,-38.99,-4.804,-14.34,-20.56,-8.968,9.55,21.74,33.99,52.72,6.843,24.14,32.91,0,0,0,0,0,0,0,0,0,0,0,0,0,0,0,0,
43,14.56,17.55,-50.57,-40.42,-34.86,-2.417,-8.273,-28.44,8.119,10.46,17.08,30.25,51.36,8.223,17.92,31.11,0,0,0,0,0,0,0,0,0,0,0,0,0,0,0,0,
44,9.508,24.71,-77.27,-47.53,-28.3,-9.233,-9.358,-28.49,9.338,22.74,6.924,17.07,44.32,13.15,6.953,28.34,0,0,0,0,0,0,0,0,0,0,0,0,0,0,0,0,
45,-3.77,26.46,-41.34,-49.67,-33.44,-25.39,-18.59,-14.08,-19.22,27.41,-7.739,-0.2242,28.5,6.487,-9.936,16.51,0,0,0,0,0,0,0,0,0,0,0,0,0,0,0,0,
46,-15.72,15.64,-29.42,-48.46,-35.68,-32.95,-24.25,-7.791,-36.57,16.65,-13.59,-4.115,21.63,-1.584,-18.33,6.075,0,0,0,0,0,0,0,0,0,0,0,0,0,0,0,0,
47,-20.07,4.468,-57.33,-49.6,-28.48,-32.45,-28.2,-21.82,-25.58,-3.557,-10.62,-1.545,19.29,-9.232,-13.41,6.066,0,0,0,0,0,0,0,0,0,0,0,0,0,0,0,0,
48,-24.27,-9.667,-42.21,-51.09,-23.64,-34.29,-37.07,-39.2,-15.84,-8.31,-4.437,0.5879,17.41,-9.604,-2.018,11.59,0,0,0,0,0,0,0,0,0,0,0,0,0,0,0,0,
49,-28.11,-13.7,-34.81,-51.38,-23.38,-36.93,-38.88,-44.25,-2.259,11.05,5.771,11.8,30.62,7.351,11.67,20.11,0,0,0,0,0,0,0,0,0,0,0,0,0,0,0,0,
50,-20.68,5.153,-66.07,-54.77,-27.14,-36.53,-32.64,-33.25,20.61,25.97,18.51,28.87,51.96,22.97,25.15,32.94,0,0,0,0,0,0,0,0,0,0,0,0,0,0,0,0,
51,-6.284,19.36,-67.7,-54.57,-24.44,-31.1,-31.88,-23.84,10.19,22.47,25.59,35.81,57.52,22.86,34.35,44.83,0,0,0,0,0,0,0,0,0,0,0,0,0,0,0,0,
52,-3.004,12.07,-55.64,-53.52,-23.95,-28.44,-33.56,-33.6,-21.16,12.51,21.25,30.33,47.97,19.04,36.68,50.29,0,0,0,0,0,0,0,0,0,0,0,0,0,0,0,0,
53,-12.08,3.861,-62.73,-60.96,-49.69,-38.05,-32.14,-36.16,-19.07,6.855,9.738,21.44,42.74,18.1,32.6,49.77,0,0,0,0,0,0,0,0,0,0,0,0,0,0,0,0,
54,-20.48,6.467,-58.82,-61.44,-65.78,-52.08,-30.99,-14.98,-12.06,12.37,-3.289,10.57,44.17,15.64,22.1,41.9,0,0,0,0,0,0,0,0,0,0,0,0,0,0,0,0,
55,-27.26,9.836,-44.56,-51.47,-48.31,-62.89,-29.83,-4.397,-35,21.14,-16.25,-3.857,38.83,8.995,3.651,22.7,0,0,0,0,0,0,0,0,0,0,0,0,0,0,0,0,
56,-32.18,4.912,-44.81,-49.19,-44.14,-64.67,-28.51,-14.04,-43.54,21.75,-23.31,-12.52,29.24,2.259,-16.03,-1.544,0,0,0,0,0,0,0,0,0,0,0,0,0,0,0,0,
57,-26.71,-1.011,-62.54,-51.38,-49.72,-48.47,-24.18,-15.7,-22.27,24.11,-21.64,-10.6,27.96,4.688,-22.79,-13.88,0,0,0,0,0,0,0,0,0,0,0,0,0,0,0,0,
58,-21.15,3.631,-80.39,-55.91,-38.16,-34.52,-19.36,-11.71,-19.38,33.58,-22.99,-13.27,29.36,8.729,-16.88,-9.576,0,0,0,0,0,0,0,0,0,0,0,0,0,0,0,0,
59,-28.39,8.76,-79.77,-66.96,-46.37,-44.31,-26.53,-23.62,-40.22,36.3,-30.46,-23.15,30.1,5.622,-11.14,-0.0956,0,0,0,0,0,0,0,0,0,0,0,0,0,0,0,0,
60,-28.48,7.289,-64.65,-65.4,-64.07,-50.98,-31.53,-33.97,-34.96,30.48,-26.49,-16.92,44.91,15.03,-5.226,11.9,0,0,0,0,0,0,0,0,0,0,0,0,0,0,0,0,
61,-9.119,16.14,-44.81,-49.61,-41.66,-34.06,-17.6,-15.54,-6.093,24.69,-11.46,3.303,63.07,33.26,5.093,27.79,0,0,0,0,0,0,0,0,0,0,0,0,0,0,0,0,
62,3.919,28.5,-44.29,-45.82,-21.14,-20.98,-12.74,0.1781,-10.92,15.95,-7.257,9.857,57.09,27.02,10.16,35.36,0,0,0,0,0,0,0,0,0,0,0,0,0,0,0,0,
63,-0.2,22.61,-79.03,-57.05,-39.47,-26.68,-23.43,-20.17,-35.18,9.817,-7.543,10.27,47.11,13.97,8.913,33.91,0,0,0,0,0,0,0,0,0,0,0,0,0,0,0,0,
64,3.205,20.21,-94.22,-66.48,-43,-28.22,-15.58,-35.93,-17.56,19.16,8.734,26.44,60.79,23.48,15.47,40.41,0,0,0,0,0,0,0,0,0,0,0,0,0,0,0,0,
65,20.7,37.89,-66.2,-61.55,-20.55,-15.86,1.615,-19.28,18.47,28.64,26.91,42.56,71.44,28.92,30.72,53.13,0,0,0,0,0,0,0,0,0,0,0,0,0,0,0,0,
66,30.3,45.64,-56.78,-44.87,-15.16,-6.168,2.199,-3.555,19.61,24.36,27.54,42.19,64.06,21.87,43.23,58.03,0,0,0,0,0,0,0,0,0,0,0,0,0,0,0,0,
67,27.55,37.81,-63.89,-41.45,-19.01,-9.111,-2.655,-1.49,0.5205,23.94,21.56,37.24,63.14,26.77,47.96,57.51,0,0,0,0,0,0,0,0,0,0,0,0,0,0,0,0,
68,22.35,35.94,-50.43,-58.48,-18.68,-20.6,-9.384,-4.989,-8.181,30.61,16.85,33.78,65.42,31.39,43.81,55.86,0,0,0,0,0,0,0,0,0,0,0,0,0,0,0,0,
69,15.32,32.72,-51.86,-63.04,-24.68,-26.2,-16.46,-11.03,-6.999,28.52,12.66,31.07,58.4,24.83,33.71,48.93,0,0,0,0,0,0,0,0,0,0,0,0,0,0,0,0,
70,12.93,22.3,-68.83,-44.8,-26.51,-17.48,-12.17,-5.881,-7.163,18.41,13.42,30.86,51.88,21.88,26.35,37.95,0,0,0,0,0,0,0,0,0,0,0,0,0,0,0,0,
71,11.56,12.72,-64.4,-39.36,-31.83,-16.64,-16.94,-4.809,-8.852,13.35,10.62,22.09,39.78,13.71,23.72,26.61,0,0,0,0,0,0,0,0,0,0,0,0,0,0,0,0,
72,-4.322,1.133,-63.11,-50.47,-45.92,-31.03,-31.54,-24.08,-4.623,27.31,2.134,8.022,24.47,-1.008,22.61,17.49,0,0,0,0,0,0,0,0,0,0,0,0,0,0,0,0,
73,-14.33,-3.159,-63.61,-40.96,-29.63,-29.59,-19.77,-23.61,-1.218,45.32,5.91,10.72,25.56,-1.552,24.36,16.46,0,0,0,0,0,0,0,0,0,0,0,0,0,0,0,0,
74,-3.789,0.6041,-32.98,-24.42,3.705,-15.38,-4.348,-3.19,0.9307,31.67,14.35,18.26,23.73,-2.931,25.35,20.94,0,0,0,0,0,0,0,0,0,0,0,0,0,0,0,0,
75,-2.362,-10.29,-10.65,-34.99,4.831,-13.25,-14.99,-14.13,12.98,8.177,7.856,11.06,8.985,-16.74,17.96,19.56,0,0,0,0,0,0,0,0,0,0,0,0,0,0,0,0,
76,-7.109,-18.49,-23.62,-38.19,-7.214,-10.84,-12.96,-35.26,13.09,14.8,-0.1066,6.363,12.44,-14.6,8.255,12.58,0,0,0,0,0,0,0,0,0,0,0,0,0,0,0,0,
77,3.597,-3.388,-34.37,-22.29,-14.4,-7.931,1.084,-30.89,-9.364,23.23,0.0213,6.92,20.46,-3.483,5.189,6.973,0,0,0,0,0,0,0,0,0,0,0,0,0,0,0,0,
78,3.15,-0.4478,-35.28,-40.89,-29.76,-20.96,-12.81,-25.59,-15.7,12.76,-5.479,-3.473,6.671,-10.28,2.913,1.515,0,0,0,0,0,0,0,0,0,0,0,0,0,0,0,0,
79,-15.1,-10.84,-43.34,-66.61,-31.01,-26.73,-24.86,-14.74,-4.451,15.1,-11.76,-9.073,3.795,-11.65,-2.289,-1.832,0,0,0,0,0,0,0,0,0,0,0,0,0,0,0,0,
80,-14.68,5.359,-51.19,-34.71,-12.94,-9.165,-5.653,10.59,-9.398,31.13,-5.239,1.851,19.65,2.611,-3.163,1.879,0,0,0,0,0,0,0,0,0,0,0,0,0,0,0,0,
81,0.0477,26.47,-35.83,0.092,-9.231,1.004,10.11,11.1,-18.82,34.45,3.156,8.178,20.18,3.522,0.2298,6.633,0,0,0,0,0,0,0,0,0,0,0,0,0,0,0,0,
82,0.7516,19.88,-2.078,-13.97,-17.27,-11.79,5.967,-3.689,-12.62,30.05,3.648,4.777,15.37,-0.0729,2.491,9.33,0,0,0,0,0,0,0,0,0,0,0,0,0,0,0,0,
83,-4.858,10.03,-5.427,-23.44,-17.56,-24.18,-4.08,-3.311,-3.002,30.6,3.909,3.6,21.07,9.243,4.592,14.68,0,0,0,0,0,0,0,0,0,0,0,0,0,0,0,0,
84,-7.678,10.95,-42.81,-13.76,-18.96,-25.63,-13.35,-11.25,1.158,33.07,3.4,1.524,19.57,11.08,5.25,16.54,0,0,0,0,0,0,0,0,0,0,0,0,0,0,0,0,
85,-14.51,14.76,-40.97,-19.25,-22.18,-27.42,-8.022,-18.15,1.151,38.97,0.9007,-0.1727,18.77,8.691,3.401,10.89,0,0,0,0,0,0,0,0,0,0,0,0,0,0,0,0,
86,-13.48,28.55,-16.67,-21.98,-11.82,-21.96,11.62,2.116,-0.6544,47.34,7.502,8.194,32.31,21.32,7.673,10.24,0,0,0,0,0,0,0,0,0,0,0,0,0,0,0,0,
87,1.428,44.09,-18.9,-10.08,2.668,-1.104,18.9,18.79,4.007,48.4,20.18,18.99,38.81,31.53,19.4,18.36,0,0,0,0,0,0,0,0,0,0,0,0,0,0,0,0,
88,8.736,43.74,-26.93,-7.721,-1.665,9.643,12.28,18.29,14.15,48.24,24.61,21,30.88,28.07,24.48,22.78,0,0,0,0,0,0,0,0,0,0,0,0,0,0,0,0,
89,4.4,33.75,-32.85,-11.12,-14.43,-1.66,10.35,14.39,11.78,53.23,20.82,16.27,21.88,22.74,15.8,16.43,0,0,0,0,0,0,0,0,0,0,0,0,0,0,0,0,
90,0.9849,24.64,-20.14,-7.211,-9.653,-10.32,12.02,7.022,-0.6903,49.23,15.91,9.442,14.43,16.86,2.992,4.31,0,0,0,0,0,0,0,0,0,0,0,0,0,0,0,0,
91,-5.735,23.62,15.46,-4.852,3.401,-8.678,13.68,7.532,0.6134,39.13,12.44,3.317,12.17,13.02,-2.847,-2.759,0,0,0,0,0,0,0,0,0,0,0,0,0,0,0,0,
92,-17.72,29.05,2.638,-9.713,3.307,-9.185,14.93,11.39,4.035,39.54,9.801,-0.1536,16.71,15.68,-0.5926,1.386,0,0,0,0,0,0,0,0,0,0,0,0,0,0,0,0,
93,-20.67,26.12,-35.17,-13.5,1.072,-5.109,11.44,3.862,0.4336,40.56,14.4,7.237,24.97,20.03,7.592,12.98,0,0,0,0,0,0,0,0,0,0,0,0,0,0,0,0,
94,-3.761,24.44,-19.9,-6.439,10.33,13.37,13.05,6.009,25.02,35.34,33.93,30.88,36.32,23.69,22.65,25.69,0,0,0,0,0,0,0,0,0,0,0,0,0,0,0,0,
95,21.05,36.23,-13.85,0.6101,16.44,32.06,23.82,23.08,55.55,37.07,51.27,48.42,37.26,23.11,38.75,32.07,0,0,0,0,0,0,0,0,0,0,0,0,0,0,0,0,
96,26.52,38.15,-46.91,-11.99,6.073,30.92,23.33,25.93,38.57,38.27,47.35,40.62,25.87,19.72,43.15,28.47,0,0,0,0,0,0,0,0,0,0,0,0,0,0,0,0,
97,8.17,26.28,-43.24,-31.41,-12.22,9.006,6.328,5.229,14.59,29.01,32.89,24.18,23.99,22.99,33.73,23,0,0,0,0,0,0,0,0,0,0,0,0,0,0,0,0,
98,-12.28,22.77,-12.82,-37.49,-23.35,-14.48,-9.384,-17.64,15.55,32.92,22.11,15.85,29.53,28.57,21.01,21.44,0,0,0,0,0,0,0,0,0,0,0,0,0,0,0,0,
99,-20.67,24.56,-14.68,-40.61,-23.94,-23.57,-17.92,-20.72,2.001,49.77,18.18,12.63,26.42,28.23,14.89,20.23,0,0,0,0,0,0,0,0,0,0,0,0,0,0,0,0,
100,-23.06,18.64,-50.49,-49.39,-25.28,-27.28,-25.31,-15.31,-13.97,31.77,16.08,6.689,16.12,21.23,14.33,16.73,0,0,0,0,0,0,0,0,0,0,0,0,0,0,0,0,
101,-33.54,2.243,-82.07,-55.56,-32.86,-37.3,-31.6,-20.29,-4.061,-13.74,6.717,-4.524,1.692,8.744,10.62,8.232,0,0,0,0,0,0,0,0,0,0,0,0,0,0,0,0,
102,-47.49,-14.07,-80.28,-56.13,-40.94,-47.53,-36.02,-28.11,-5.465,-20.34,-3.929,-14.3,-9.712,2.101,2.947,-4.67,0,0,0,0,0,0,0,0,0,0,0,0,0,0,0,0,
103,-51.46,-13.14,-74.88,-54.19,-47.55,-55.06,-39.75,-29.68,-28.25,6.238,-9.147,-20.48,-9.946,5.316,-3.469,-13.84,0,0,0,0,0,0,0,0,0,0,0,0,0,0,0,0,
104,-51.02,-2.902,-75.47,-53.42,-44.64,-56.77,-31.63,-15.18,-28.51,17.87,-11.55,-23.13,-3.978,9.936,-8.998,-15.23,0,0,0,0,0,0,0,0,0,0,0,0,0,0,0,0,
105,-46.38,5.663,-45.09,-51.17,-30.78,-44.87,-7.637,5.066,-12.89,26.92,-11.37,-20.91,2.238,18.17,-14.5,-12.26,0,0,0,0,0,0,0,0,0,0,0,0,0,0,0,0,
106,-39.4,15.95,-28.39,-43.17,-33.51,-36.31,-0.3804,-5.533,-27.08,38.01,-21.82,-28.81,-0.9827,22.39,-22.8,-13.63,0,0,0,0,0,0,0,0,0,0,0,0,0,0,0,0,
107,-53.16,11.39,-68.23,-44.45,-55.25,-49.62,-25.28,-21.31,-49.25,26.34,-42.85,-46.34,-16.93,10.78,-37.83,-27.49,0,0,0,0,0,0,0,0,0,0,0,0,0,0,0,0,
108,-74.69,-7.701,-89.51,-57.2,-59.68,-62.32,-37.28,-2.324,-36.15,16.5,-41.9,-43.73,-21.14,5.072,-47.09,-42.28,0,0,0,0,0,0,0,0,0,0,0,0,0,0,0,0,
109,-65.69,-4.193,-61.38,-51.33,-46.23,-47.52,-12.44,8.175,-19.19,29.37,-17.42,-21.12,-1.492,18.74,-33.76,-37.72,0,0,0,0,0,0,0,0,0,0,0,0,0,0,0,0,
110,-39.84,17.98,-56.2,-35.57,-41.75,-23.34,5.057,-7.349,-24.91,35.81,-1.278,-7.665,12.61,25.39,-8.164,-21.67,0,0,0,0,0,0,0,0,0,0,0,0,0,0,0,0,
111,-32.81,20.11,-91.39,-46.45,-43.4,-21.18,-8.9,-7.788,-22.9,29.05,-0.0259,-9.801,3.518,15.8,2.709,-18.06,0,0,0,0,0,0,0,0,0,0,0,0,0,0,0,0,
112,-39.14,10.5,-101.6,-61.42,-39.09,-29.55,-17.55,3.596,-7.784,27.61,1.983,-9.219,1.885,18.27,-4.125,-23.38,0,0,0,0,0,0,0,0,0,0,0,0,0,0,0,0,
113,-36.85,22.02,-65.21,-56.01,-35.57,-28.8,-4.325,6.284,0.9291,28.35,9.212,1.142,24.98,39.25,-6.265,-17.09,0,0,0,0,0,0,0,0,0,0,0,0,0,0,0,0,
114,-32.01,42.7,-40.11,-52.29,-35.6,-30.38,6.159,8.153,8.827,24.99,11.41,5.239,38.95,49.24,2.65,-2.702,0,0,0,0,0,0,0,0,0,0,0,0,0,0,0,0,
115,-28.05,48.88,-38.94,-36.02,-15.22,-18.79,15.62,20.99,34.13,30.77,21.14,13.82,41.65,49.7,14.98,8.647,0,0,0,0,0,0,0,0,0,0,0,0,0,0,0,0,
116,4.638,62.74,-5.157,5.952,33.88,30.74,38.52,42.9,78.69,54.76,63.67,55.89,71.98,71.73,41.69,30.1,0,0,0,0,0,0,0,0,0,0,0,0,0,0,0,0,
117,60.97,99.83,37.66,24.52,69.83,82.65,62.12,52.96,119,83.47,114.2,105.1,114.5,106.6,88.96,70.57,0,0,0,0,0,0,0,0,0,0,0,0,0,0,0,0,
118,96.51,131.1,22.51,15.84,75.67,109.2,83.75,54.31,141.9,103.9,141,129.8,133.3,127.3,137.7,113,0,0,0,0,0,0,0,0,0,0,0,0,0,0,0,0,
119,109.2,137.7,-9.015,13.89,75.62,114.5,95.68,61.77,142.1,104.4,144.8,134.3,126.5,122.7,163.1,132.8,0,0,0,0,0,0,0,0,0,0,0,0,0,0,0,0,
120,98.66,113.4,-9.41,-8.41,51.04,74.81,61.63,37.56,92.66,67.59,103.8,95.41,84.28,81.84,136.9,107.2,0,0,0,0,0,0,0,0,0,0,0,0,0,0,0,0,
121,42.84,58.76,-21.01,-53.65,-7.303,4.779,0.9359,-19.9,18.54,21.36,27.68,22.61,26.47,32.79,60.12,42.45,0,0,0,0,0,0,0,0,0,0,0,0,0,0,0,0,
122,-14.75,19.52,-56.38,-71.69,-42.59,-27.47,-22.56,-41.34,-10.48,8.77,-8.615,-9.679,9.1,22.27,-6.389,-10.38,0,0,0,0,0,0,0,0,0,0,0,0,0,0,0,0,
123,-24.73,18.79,-83.59,-70.73,-42.91,-25.28,-18.26,-34.61,-9.939,7.672,0.8825,1.054,20.01,30.34,-17.15,-18.99,0,0,0,0,0,0,0,0,0,0,0,0,0,0,0,0,
124,-21.91,15.31,-97.98,-82.8,-49.47,-37.38,-30.18,-47.7,-22.98,3.144,1.029,1.841,18.72,26.08,1.967,-5.756,0,0,0,0,0,0,0,0,0,0,0,0,0,0,0,0,
125,-30.43,6.051,-99.03,-93.32,-55.12,-48.48,-44.54,-46.05,-21.2,15.48,-1.993,-0.138,17.92,26.73,14.6,3.323,0,0,0,0,0,0,0,0,0,0,0,0,0,0,0,0,
126,-26.44,15.43,-91.59,-89.63,-42.72,-35.34,-42.38,-22.13,3.872,15.72,9.767,8.017,22.98,35.61,15.67,4.141,0,0,0,0,0,0,0,0,0,0,0,0,0,0,0,0,
127,-19.66,16.8,-90.06,-84.36,-37.69,-29.7,-42.48,-29.29,12.31,-8.172,10.06,3.03,15.41,34.6,8.987,-3.756,0,0,0,0,0,0,0,0,0,0,0,0,0,0,0,0,
128,-33.2,0.0994,-88.96,-84.95,-53.22,-45.22,-49.32,-48.17,-3.686,-10.67,-6.581,-15.4,-0.2125,22.99,-4.303,-19,0,0,0,0,0,0,0,0,0,0,0,0,0,0,0,0,
129,-51.5,-4.947,-83.04,-80.36,-65.52,-53.13,-46.98,-39.28,-19.94,1.896,-16.66,-26.58,-8.743,12.58,-19.18,-31.39,0,0,0,0,0,0,0,0,0,0,0,0,0,0,0,0,
130,-56.36,-0.8611,-71.56,-66.22,-54.47,-49.51,-37.66,-35.25,-15.51,-2.821,-13.9,-23.7,-3.466,15.76,-26.69,-29.25,0,0,0,0,0,0,0,0,0,0,0,0,0,0,0,0,
131,-47.4,0.4188,-63.6,-62.01,-34.21,-46.81,-30.98,-46.13,4.382,-11.82,-2.42,-10.45,11.48,28.32,-21,-13.74,0,0,0,0,0,0,0,0,0,0,0,0,0,0,0,0,
132,-25,10.07,-76.49,-63.92,-24.59,-33.21,-20.5,-35,12.21,-12.46,15.95,6.171,24.54,34.64,-3.552,4.224,0,0,0,0,0,0,0,0,0,0,0,0,0,0,0,0,
133,-1.647,26.35,-72.42,-45.25,-15.39,-10.24,-1.18,-6.48,7.62,-3.457,25.87,13.85,30.37,34.78,14.18,16.22,0,0,0,0,0,0,0,0,0,0,0,0,0,0,0,0,
134,3.664,34.24,-38.49,-23.65,-5.301,-1.611,11.93,6.174,8.432,8.615,15.46,6.251,26.64,31.56,15.9,15.4,0,0,0,0,0,0,0,0,0,0,0,0,0,0,0,0,
135,-0.6432,31.59,-45.47,-30.54,-9.69,-1.377,9.821,1.774,12.6,8.067,5.891,0.756,17.92,23.55,3.123,3.249,0,0,0,0,0,0,0,0,0,0,0,0,0,0,0,0,
136,8.129,33.23,-57.96,-41.89,-4.783,13.13,14.96,3.987,21.07,10.57,16.53,13.63,19.54,20.17,-4.616,-5.788,0,0,0,0,0,0,0,0,0,0,0,0,0,0,0,0,
137,26.62,48.17,1.667,-27.04,21.96,29.69,32.52,15.05,29.1,21.56,27.56,26.26,27.21,22.18,-1.861,-5.814,0,0,0,0,0,0,0,0,0,0,0,0,0,0,0,0,
138,32.38,52.46,29.5,-15.94,21.9,26.38,25.51,10.34,16.72,8.17,21.6,22.48,25.46,19.14,-0.0107,-4.151,0,0,0,0,0,0,0,0,0,0,0,0,0,0,0,0,
139,27.33,35.03,-25.64,-31.85,-1.627,23.69,0.2036,-7.486,5.973,-11.73,21.55,25.09,30.47,22.13,2.331,0.6529,0,0,0,0,0,0,0,0,0,0,0,0,0,0,0,0,
140,36.28,32.26,-33.18,-33.86,13.66,41.65,3.157,-15.67,25.05,0.1173,44.87,47.79,52.77,40.34,18.55,16.37,0,0,0,0,0,0,0,0,0,0,0,0,0,0,0,0,
141,51.87,49.31,6.741,-18.14,40.91,50.46,17.29,-18.46,37.21,13.61,63.38,63.34,60.46,49.4,41.27,34.51,0,0,0,0,0,0,0,0,0,0,0,0,0,0,0,0,
142,48.82,51.81,-5.2,-24.9,26.54,40.38,14.94,-13.67,28.63,12.49,57.61,58.74,49.5,41.91,47.7,38.05,0,0,0,0,0,0,0,0,0,0,0,0,0,0,0,0,
143,41.81,50.01,-28.86,-25.15,14.82,40.57,23.88,6.651,40.8,23.48,49.88,53.46,52.15,39.31,38.4,28.27,0,0,0,0,0,0,0,0,0,0,0,0,0,0,0,0,
144,39.89,59.56,-14.55,-0.4017,25.56,37.32,37.17,22.25,49.93,27.74,44,45.37,56.53,35.93,25.9,15.57,0,0,0,0,0,0,0,0,0,0,0,0,0,0,0,0,
145,22.14,55.46,9.225,0.9033,15.49,16.47,28.07,28.73,12.18,12.27,24.07,23.23,43.11,23.38,6.906,0.081,0,0,0,0,0,0,0,0,0,0,0,0,0,0,0,0,
146,6.111,41.36,23.95,-9.02,2.643,13.39,24.71,30.53,-17.93,13.87,6.207,6.943,35.39,19.15,-14.88,-13.69,0,0,0,0,0,0,0,0,0,0,0,0,0,0,0,0,
147,14.09,40.67,16.29,5.793,9.993,24.3,32.18,23.08,-1.142,23.22,6.067,7.427,37.6,23.66,-22.88,-15.13,0,0,0,0,0,0,0,0,0,0,0,0,0,0,0,0,
148,19.47,42.45,10.81,22.34,12.6,19.22,26.08,33.92,10.61,11.38,10.77,9.574,34.22,28.61,-16.06,-6.937,0,0,0,0,0,0,0,0,0,0,0,0,0,0,0,0,
149,12.16,39.27,34.56,30.99,16.89,13.68,27.72,55.54,2.12,2.53,9.241,5.978,27.89,31.43,-7.735,-1.235,0,0,0,0,0,0,0,0,0,0,0,0,0,0,0,0,
150,4.887,35.27,30.5,31.31,19.95,11.11,34.95,38.57,-2.022,0.8051,-1.511,-5.179,14.1,19.28,-10.25,-8.354,0,0,0,0,0,0,0,0,0,0,0,0,0,0,0,0,
151,-10.38,19.32,-4.136,15.68,-3.013,-5.34,8.701,8.3,-19.33,-13.55,-16,-20.68,-4.509,0.8208,-25.19,-27.22,0,0,0,0,0,0,0,0,0,0,0,0,0,0,0,0,
152,-29.26,-2.779,-10.43,6.426,-22.23,-20.22,-18.87,-4.555,-38.39,-19.99,-17.79,-22.71,-6.825,-0.5723,-36.27,-38.04,0,0,0,0,0,0,0,0,0,0,0,0,0,0,0,0,
153,-27.94,-3.411,-11.74,7.284,-10.94,-12.79,-0.1288,-17.01,-13.46,-9.301,2.062,-1.146,5.941,11.6,-26.24,-24.89,0,0,0,0,0,0,0,0,0,0,0,0,0,0,0,0,
154,-3.279,15.89,-1.477,7.29,10.52,12.14,22.98,-5.361,15,-5.419,22.8,20.15,14.31,20.94,-3.779,-1.092,0,0,0,0,0,0,0,0,0,0,0,0,0,0,0,0,
155,15.12,21.02,43.71,15.31,16.05,22.97,9.118,22.66,-14.16,-7.165,9.547,8.559,10.41,17.19,2.409,6.436,0,0,0,0,0,0,0,0,0,0,0,0,0,0,0,0,
156,3.043,9.152,41.06,14.4,-2.808,8.001,-3.683,15.48,-44.58,3.03,-14.57,-10.17,11,15.23,-10.93,-2.447,0,0,0,0,0,0,0,0,0,0,0,0,0,0,0,0,
157,-6.61,15.91,-1.362,1.423,-8.647,10.79,9.699,0.7247,-15.46,17.09,2.326,7.785,31.47,33.16,-11.1,0.8968,0,0,0,0,0,0,0,0,0,0,0,0,0,0,0,0,
158,10.99,32.54,3.206,5.194,8.764,28.98,11.93,2.11,11.76,14.33,24.33,25.14,41.45,38.34,6.973,19.9,0,0,0,0,0,0,0,0,0,0,0,0,0,0,0,0,
159,11.25,18.13,1.569,-1.364,-2.476,10.39,-14.51,-15.25,-8.398,0.3464,7.873,7.911,19.46,14.33,10.53,25.23,0,0,0,0,0,0,0,0,0,0,0,0,0,0,0,0,
160,-7.777,-8.968,-26.52,-36.64,-18.27,-13.73,-34,-40.38,-14.34,-6.482,3.513,5.444,6.983,7.026,0.2428,16.44,0,0,0,0,0,0,0,0,0,0,0,0,0,0,0,0,
161,3.116,-11.08,-7.13,-43.23,7.31,-0.3169,-22.5,-42.38,14.07,-13.22,28.82,29.54,23.32,23.72,4.966,19.84,0,0,0,0,0,0,0,0,0,0,0,0,0,0,0,0,
162,20,-1.897,17.67,-16.26,19.06,9.513,-4.652,-25.45,16.69,-24.13,32.81,32.94,27.39,25.56,20.08,32.09,0,0,0,0,0,0,0,0,0,0,0,0,0,0,0,0,
163,9.368,-5.683,7.48,-6.049,-0.8188,1.444,-9.787,-10.06,-1.24,-22.78,16.87,18.35,9.145,14.87,23.13,32.47,0,0,0,0,0,0,0,0,0,0,0,0,0,0,0,0,
164,3.977,-15.73,15.49,-1.119,-4.863,2.727,-22.4,-11.31,10.49,-15.15,12.55,13.21,4.493,14.95,14.9,23.6,0,0,0,0,0,0,0,0,0,0,0,0,0,0,0,0,
165,10.08,-14.99,13.97,9.548,-3.793,2.578,-18.28,-9.432,24.83,-16.07,12.39,10.91,14.76,18.81,8.196,18,0,0,0,0,0,0,0,0,0,0,0,0,0,0,0,0,
166,7.374,-5.778,-16.66,0.888,-8.385,2.195,-5.961,2.453,13.13,-10.72,11.26,12.15,20.48,18.3,10.48,18.98,0,0,0,0,0,0,0,0,0,0,0,0,0,0,0,0,
167,14.86,5.011,4.997,0.6062,6.843,23.28,9.642,-1.787,7.649,3.032,19.4,28.35,34.12,24.11,24.19,28.23,0,0,0,0,0,0,0,0,0,0,0,0,0,0,0,0,
168,35.42,22.09,48.17,24.2,25.75,39.47,25.12,-8.585,0.4767,-2.469,23.44,37.61,51.68,31.56,40.14,41.86,0,0,0,0,0,0,0,0,0,0,0,0,0,0,0,0,
169,39.39,32.29,26.22,23.41,24.93,30.47,21.39,-4.122,-22.85,-15.21,13.28,25.37,49.13,29.65,43.48,48.28,0,0,0,0,0,0,0,0,0,0,0,0,0,0,0,0,
170,29.38,21.79,1.418,5.562,19.62,21.65,7.208,-9.745,-21.54,0.3241,5.432,15.4,39.44,26.9,33.41,44.64,0,0,0,0,0,0,0,0,0,0,0,0,0,0,0,0,
171,16.56,7.803,8.325,4.71,10.42,9.2,-1.295,-19.23,-11.64,16.31,-1.221,9.683,34.45,22.72,16.92,34.46,0,0,0,0,0,0,0,0,0,0,0,0,0,0,0,0,
172,-3.764,0.6409,-5.509,-3.933,-8.947,-12.27,-10.54,-20.33,-25.68,2.042,-9.987,0.1553,25.85,13.63,0.6337,21.04,0,0,0,0,0,0,0,0,0,0,0,0,0,0,0,0,
173,-12.16,-7.119,-2.466,-19.07,-13.21,-10.57,-18.66,-21.81,-18.37,-11.54,-5.217,0.7125,14.77,6.093,-6.398,10.37,0,0,0,0,0,0,0,0,0,0,0,0,0,0,0,0,
174,-6.537,-22.73,20.21,-17.78,-8.411,-5.922,-33.55,-27.97,-2.824,-19.79,-3.981,-3.247,-1.638,-7.595,-7.684,0.5767,0,0,0,0,0,0,0,0,0,0,0,0,0,0,0,0,
175,-17.35,-41.13,3.183,-11.99,-21.79,-28.2,-52.46,-32.16,-23.51,-34.79,-14.7,-16.15,-9.531,-18.58,-10.25,-8.17,0,0,0,0,0,0,0,0,0,0,0,0,0,0,0,0,
176,-22.83,-35.49,9.071,7.448,-15.66,-28.78,-39.54,-14.95,-21.33,-26.06,-4.457,-4.966,3.776,-12.2,-5.335,-4.049,0,0,0,0,0,0,0,0,0,0,0,0,0,0,0,0,
177,0.4116,-17.53,47.52,30.59,17.2,-2.96,-20.09,4.606,10.08,-10.52,7.572,7.09,1.321,-16.44,2.098,3.211,0,0,0,0,0,0,0,0,0,0,0,0,0,0,0,0,
178,4.543,-33.76,20.5,11.65,8.394,-8.953,-41.5,-17.3,-3.849,-33.94,-12.13,-13.88,-24.84,-37.33,-6.948,-7.409,0,0,0,0,0,0,0,0,0,0,0,0,0,0,0,0,
179,-21.47,-65.18,-24.03,-21.09,-24.51,-31.55,-64.27,-49.65,-32.57,-57.35,-30.72,-33.4,-33.92,-43.4,-23.63,-24.6,0,0,0,0,0,0,0,0,0,0,0,0,0,0,0,0,
180,-31.92,-70.22,-14.6,-27.77,-17.84,-35,-58.87,-57.07,-28.47,-42.19,-29.63,-31.85,-21.48,-33.23,-25.65,-26.79,0,0,0,0,0,0,0,0,0,0,0,0,0,0,0,0,
181,-23.99,-55.68,4.935,-30.31,0.4094,-32.01,-51.46,-58.09,-26.5,-21.77,-18.56,-17.14,2.227,-12.04,-6.702,-7.778,0,0,0,0,0,0,0,0,0,0,0,0,0,0,0,0,
182,-11.9,-29.55,17.95,-23.2,1.129,-19.1,-41.11,-38.67,-26.71,-12.81,4.995,10.86,30.9,14.64,26.89,27.94,0,0,0,0,0,0,0,0,0,0,0,0,0,0,0,0,
183,1.622,-8.842,3.463,-8.324,-6.146,-2.017,-30.18,-10.55,-17.63,-9.542,14.24,21.31,36.07,17.39,51.34,53.37,0,0,0,0,0,0,0,0,0,0,0,0,0,0,0,0,
184,-2.78,-19.26,-37.5,-20.25,-20.5,-11.67,-37.1,-22.4,-29.35,-19.08,-4.95,0.6917,19.61,0.794,43.74,44.74,0,0,0,0,0,0,0,0,0,0,0,0,0,0,0,0,
185,-17.4,-33.98,-22.18,-25.06,-17.94,-25.67,-40,-30.65,-39.38,-24.9,-13.83,-10.51,13.83,-1.903,18.06,21.25,0,0,0,0,0,0,0,0,0,0,0,0,0,0,0,0,
186,-17.54,-28.25,7.038,-4.222,-5.935,-17.39,-24.91,-10.27,-20.52,-15.36,-7.919,-8.35,13.24,1.022,0.7981,7.012,0,0,0,0,0,0,0,0,0,0,0,0,0,0,0,0,
187,-22.16,-28.02,-31.15,-12.01,-25.35,-15.39,-18.4,-19.49,-18.55,-12.23,-9.509,-14.98,5.733,-2.259,-4.269,0.6517,0,0,0,0,0,0,0,0,0,0,0,0,0,0,0,0,
188,-32.75,-30.13,-34.69,-23.94,-33.91,-15.93,-18.34,-24.94,-30.48,-9.044,-1.172,-8.83,11.39,8.267,1.327,5.051,0,0,0,0,0,0,0,0,0,0,0,0,0,0,0,0,
189,-18.2,-10.46,27.26,4.376,0.6681,3.97,-3.281,5.796,-16.38,4.545,12.26,7.644,23.83,20.18,13.44,18.23,0,0,0,0,0,0,0,0,0,0,0,0,0,0,0,0,
190,-6.123,0.0471,26.85,13.43,14.2,11,4.179,-3.144,-18.3,4.582,-4.219,-4.118,14.88,5.351,12.76,17.41,0,0,0,0,0,0,0,0,0,0,0,0,0,0,0,0,
191,-24.57,-16.4,-26.69,-10.28,-1.96,-1.567,-13.54,-26.6,-37.66,3.522,-23.52,-18.8,7.564,-6.07,-1.644,3.725,0,0,0,0,0,0,0,0,0,0,0,0,0,0,0,0,
192,-29.58,-16.83,-32.48,-12.17,-1.066,0.3765,-22.81,2.803,-14.92,14.97,-8.453,-0.7231,26.23,9.604,-4.614,3.569,0,0,0,0,0,0,0,0,0,0,0,0,0,0,0,0,
193,-14.17,3.481,-6.945,-7.416,4.852,3.363,-7.792,12.71,7.303,6.366,9.906,15.81,41.91,20.52,7.354,17.22,0,0,0,0,0,0,0,0,0,0,0,0,0,0,0,0,
194,-14.18,13.2,4.416,-6.329,11.9,0.6642,4.752,-14.24,1.77,-5.398,15.08,17.53,44.66,19.84,18.93,29.14,0,0,0,0,0,0,0,0,0,0,0,0,0,0,0,0,
195,-12.52,18.02,19.44,14.54,32.16,10.17,0.9789,-5.623,25.09,6.167,24.16,24.09,44.74,20.6,26.25,34.1,0,0,0,0,0,0,0,0,0,0,0,0,0,0,0,0,
196,-3.418,13.64,33.18,18,24.7,6.275,-10.77,3.361,35.09,3.825,21.8,18.5,30.54,11.36,24.34,25.74,0,0,0,0,0,0,0,0,0,0,0,0,0,0,0,0,
197,-13.3,-7.416,10.93,-3.802,-5.501,-10.37,-17.58,-24.55,-3.625,-5.548,10.7,6.395,22.76,6.676,14.09,11.07,0,0,0,0,0,0,0,0,0,0,0,0,0,0,0,0,
198,-16.15,-4.617,-10.72,0.6223,4.078,0.449,-9.291,-29,-8.78,12.77,16.73,14.21,44.99,24.37,12.64,11.99,0,0,0,0,0,0,0,0,0,0,0,0,0,0,0,0,
199,0.2883,21.09,14.16,11.91,21.59,13.18,2.127,5.489,10.17,29.16,11.14,9.987,53.19,30.39,13.32,19.46,0,0,0,0,0,0,0,0,0,0,0,0,0,0,0,0,
200,-11.05,18.22,34.09,1.109,-3.623,-7.211,-1.294,28.47,-7.685,28.7,-20.96,-19.39,31.09,15.83,-6.088,8.433,0,0,0,0,0,0,0,0,0,0,0,0,0,0,0,0,
201,-41.96,3.252,20.86,8.632,-14.7,-25.22,-5.995,22.52,-13.66,26.64,-31.41,-27.08,26.78,16.96,-28.3,-8.377,0,0,0,0,0,0,0,0,0,0,0,0,0,0,0,0,
202,-44.83,9.132,12.14,29.73,0.3339,-21.26,-2.598,12.9,-1.508,7.986,-22.63,-20.5,29.54,19.05,-30.41,-12.44,0,0,0,0,0,0,0,0,0,0,0,0,0,0,0,0,
203,-43.02,-0.4313,-3.331,19.86,-20.9,-26.9,-15.63,6.45,-29.91,-18.95,-37.43,-39.06,-0.6131,-7.193,-30.63,-18.87,0,0,0,0,0,0,0,0,0,0,0,0,0,0,0,0,
204,-63.91,-32.18,-15.45,2.992,-40.74,-41.86,-33.46,-8.731,-52.7,-21.05,-47.27,-47.66,-21.17,-21.74,-35.5,-30.4,0,0,0,0,0,0,0,0,0,0,0,0,0,0,0,0,
205,-63.23,-34.71,11.9,10.2,-5.514,-31.02,-13.72,-5.952,-15.49,-9.597,-17.87,-15.19,1.241,-3.208,-20.11,-24.08,0,0,0,0,0,0,0,0,0,0,0,0,0,0,0,0,
206,-25.23,-8.291,25.73,21.81,29.69,-2.309,18.27,24.28,16.77,-0.3904,12.16,13.14,23.55,8.184,11.86,-1.137,0,0,0,0,0,0,0,0,0,0,0,0,0,0,0,0,
207,0.25,7.813,19.45,32.4,30.18,8.562,19.8,31.69,7.672,15.29,16.49,14.73,28.36,5.114,30.88,16.19,0,0,0,0,0,0,0,0,0,0,0,0,0,0,0,0,
208,1.618,6.971,42.46,42.16,23.13,8.575,12.73,14.52,11.34,16.33,16.45,15.9,28.4,1.538,29.31,18.31,0,0,0,0,0,0,0,0,0,0,0,0,0,0,0,0,
209,9.035,-3.619,38.67,37.78,24.17,19.22,13.43,17.26,28.1,-8.455,20.26,19.91,20.85,-7.169,19.03,9.525,0,0,0,0,0,0,0,0,0,0,0,0,0,0,0,0,
210,17.46,-11.09,13.01,39.63,35.4,24.29,4.866,29.42,19.9,-19.25,20.37,17.18,18.79,-9.062,12.85,2.778,0,0,0,0,0,0,0,0,0,0,0,0,0,0,0,0,
211,5.388,-8.611,47.33,51.01,32.14,3.691,-11.81,19.03,7.749,-14.55,12.83,7.788,21.18,-6.183,13.4,2.214,0,0,0,0,0,0,0,0,0,0,0,0,0,0,0,0,
212,-17.55,-16.52,65.39,38.05,2.987,-23.74,-19.37,-2.067,0.7634,-21.34,-4.167,-9.027,7.083,-15.86,8.554,-4.609,0,0,0,0,0,0,0,0,0,0,0,0,0,0,0,0,
213,-26.93,-27.73,18.91,23.5,-11.73,-26.3,-6.871,-0.0972,-12.27,-18.34,-22.01,-23.82,-5.568,-19.41,-7.914,-17.09,0,0,0,0,0,0,0,0,0,0,0,0,0,0,0,0,
214,-21.62,-17.57,10.16,34.46,-5.156,-14.22,10.15,23.23,-6.975,-2.315,-32.57,-30.87,-4.611,-9.939,-26.44,-22.17,0,0,0,0,0,0,0,0,0,0,0,0,0,0,0,0,
215,-22.38,-8.419,31.02,37.73,0.5751,-19.56,7.749,32.05,-4.475,2.978,-39.06,-38.43,-8.698,-8.151,-39.13,-21.85,0,0,0,0,0,0,0,0,0,0,0,0,0,0,0,0,
216,-33.27,-14.01,17.29,32.68,5.842,-30.55,-0.7812,22.13,-38.7,8.332,-39.43,-41.37,-10.42,-8.799,-42.9,-21,0,0,0,0,0,0,0,0,0,0,0,0,0,0,0,0,
217,-38.77,-13.91,8.141,34.81,-6.745,-25.19,-1.736,17.19,-51.56,11.99,-27.86,-31.55,-1.067,-3.644,-33.11,-13.98,0,0,0,0,0,0,0,0,0,0,0,0,0,0,0,0,
218,-38.81,-15.08,13.74,19.34,-35.78,-28.14,-11.95,14.55,-25.3,2.96,-17.27,-24.95,-0.7244,-4.258,-15.6,-3.816,0,0,0,0,0,0,0,0,0,0,0,0,0,0,0,0,
219,-49.43,-31.49,3.038,-4.234,-45.75,-56.08,-32.4,-4.552,-27.76,-6.517,-25,-34.73,-14.76,-11.5,-8.19,-3.451,0,0,0,0,0,0,0,0,0,0,0,0,0,0,0,0,
220,-66.17,-48.82,-10.64,-8.629,-41.54,-74.81,-45.09,-29.82,-43.47,-20.43,-31.39,-39,-22.92,-11.08,-10.75,-8.335,0,0,0,0,0,0,0,0,0,0,0,0,0,0,0,0,
221,-61.69,-52.3,-13.78,-12.92,-37.78,-62.99,-46.58,-25.11,-23.89,-29.36,-15.55,-23.79,-15.4,-0.7876,-4.671,-0.6373,0,0,0,0,0,0,0,0,0,0,0,0,0,0,0,0,
222,-43.3,-46.79,-14.23,-24.06,-32.27,-50.83,-47.08,-4.206,-11.15,-17.62,-7.411,-17.27,-6.119,1.73,7.314,12.93,0,0,0,0,0,0,0,0,0,0,0,0,0,0,0,0,
223,-43.02,-43.15,-19.1,-20.06,-29.9,-50.39,-45.01,-13.27,-19.22,-14.23,-12.8,-18.92,0.6572,-3.276,11.91,13.76,0,0,0,0,0,0,0,0,0,0,0,0,0,0,0,0,
224,-37.24,-30.74,-14.28,-3.98,-11.85,-27.74,-22.33,-17.95,0.6603,-14.09,7.217,5.407,18.89,5.306,18.8,12.69,0,0,0,0,0,0,0,0,0,0,0,0,0,0,0,0,
225,-1.957,-1.465,15.37,9.956,20.58,9.956,7.931,13.39,23.48,7.761,29.29,29.06,36.62,18.93,31.04,23.02,0,0,0,0,0,0,0,0,0,0,0,0,0,0,0,0,
226,15.88,13.91,35.89,23.62,23.91,19.03,10.58,22.08,0.5158,9.463,14.31,17.26,32.35,16.63,31.02,28.74,0,0,0,0,0,0,0,0,0,0,0,0,0,0,0,0,
227,2.191,5.118,29.19,33.19,15.12,13.62,4.654,5.044,-22.23,-9.55,4.938,11.15,26.32,11.47,21.1,22.46,0,0,0,0,0,0,0,0,0,0,0,0,0,0,0,0,
228,1.314,6.806,32.21,31.37,29.93,19.62,20.77,11.01,-3.247,5.556,23.46,28.64,36.11,18.84,17.82,20.33,0,0,0,0,0,0,0,0,0,0,0,0,0,0,0,0,
229,9.215,15.38,40.9,29.84,29.65,13.64,25.49,16.23,9.79,22.32,22.46,25.02,36.19,25.06,16,24.6,0,0,0,0,0,0,0,0,0,0,0,0,0,0,0,0,
230,-1.791,0.075,24.56,32.63,1.841,-3.153,1.115,9.854,-10.08,1.228,-0.1332,2.37,20.52,20.83,6.22,23.84,0,0,0,0,0,0,0,0,0,0,0,0,0,0,0,0,
231,-13.26,-13.03,11.89,29.61,0.5399,1.447,-6.327,21.6,-17.66,-4.549,-0.6938,3.135,20.01,19.51,-1.327,21.09,0,0,0,0,0,0,0,0,0,0,0,0,0,0,0,0,
232,-3.918,7.109,41.41,31.84,30.6,17.11,15.43,34.13,6.313,20.84,16.99,20.96,35.91,25.69,3.661,24.9,0,0,0,0,0,0,0,0,0,0,0,0,0,0,0,0,
233,12.26,27.71,77.71,42.26,42.99,21.2,30.38,36.11,25.8,29.64,27.11,30.4,43.81,27.43,18.57,33.35,0,0,0,0,0,0,0,0,0,0,0,0,0,0,0,0,
234,18.52,24.82,55.61,40.06,28.4,26.21,33.4,39.45,25.75,21.52,34.26,34.79,39.5,20.73,36.62,40.66,0,0,0,0,0,0,0,0,0,0,0,0,0,0,0,0,
235,21.49,18.77,7.779,36.45,24.09,38.6,36.55,29.97,28.24,18.41,40.48,35.06,28.93,14.05,47.37,41.84,0,0,0,0,0,0,0,0,0,0,0,0,0,0,0,0,
236,28.58,16.84,20.89,49.85,43.25,46.5,36.56,23.25,40.03,17.45,38.07,29.09,22.15,17,43.8,36.89,0,0,0,0,0,0,0,0,0,0,0,0,0,0,0,0,
237,28.6,18.57,61.36,56.45,51.35,49.27,39.86,41.9,44.85,22.33,33.87,26.73,26.61,21.82,32.78,30.84,0,0,0,0,0,0,0,0,0,0,0,0,0,0,0,0,
238,15.16,28.28,52.4,44.08,34.15,43.94,50.93,48.34,31.82,30.52,29.67,25.69,31.21,16.22,22.78,24.19,0,0,0,0,0,0,0,0,0,0,0,0,0,0,0,0,
239,3.051,32.31,31.74,36.87,23.71,28.76,54.21,37.43,10.2,28.18,25.91,23.57,33.75,17.64,18.03,20.82,0,0,0,0,0,0,0,0,0,0,0,0,0,0,0,0,
240,6.681,26.5,46.52,45.71,27.99,22.62,41.48,44.73,7.218,21.79,31.23,27.19,36.93,30.67,21.73,27.83,0,0,0,0,0,0,0,0,0,0,0,0,0,0,0,0,
241,14.3,22.07,62.47,55.41,26.47,29.21,27.63,47.58,27.29,19.63,35.89,27.32,26.99,26.15,26.64,34.55,0,0,0,0,0,0,0,0,0,0,0,0,0,0,0,0,
242,6.339,14.36,46.1,46.55,22.74,29.19,25.38,32.66,31.27,13.89,30.54,17.92,7.562,7.449,22.69,27.03,0,0,0,0,0,0,0,0,0,0,0,0,0,0,0,0,
243,-8.713,-0.9717,10.73,24.05,19.95,16.16,19.59,29.13,9.231,2.112,22.39,7.364,-5.996,-3.123,12.46,10.39,0,0,0,0,0,0,0,0,0,0,0,0,0,0,0,0,
244,-15.01,-11.82,0.1394,22.06,10.82,2.55,11.15,21.15,5.351,-2.6,15.21,1.609,-11.5,-5.229,4.259,-4.381,0,0,0,0,0,0,0,0,0,0,0,0,0,0,0,0,
245,-12.58,-5.449,32.21,41.83,8.699,9.514,30.57,5.117,22.22,8.058,17.17,6.846,-8.341,0.0057,3.056,-10.76,0,0,0,0,0,0,0,0,0,0,0,0,0,0,0,0,
246,-3.312,10.16,61.91,45.69,16.48,30.93,52.97,23.78,16.8,18.41,22.68,12.25,-5.561,3.163,4.213,-10.42,0,0,0,0,0,0,0,0,0,0,0,0,0,0,0,0,
247,3.243,15.13,57,40.57,20.04,31.7,38.93,55.76,-3.909,20.63,13.05,4.323,-3.899,1.958,0.7937,-11.2,0,0,0,0,0,0,0,0,0,0,0,0,0,0,0,0,
248,-2.473,15.83,36.27,46.74,19.68,13.25,24.96,47.35,-12.3,23.35,1.224,-4.136,5.074,8.749,-1.54,-13.54,0,0,0,0,0,0,0,0,0,0,0,0,0,0,0,0,
249,-14.07,19.92,16.27,37.8,9.794,1.357,31.67,19.37,-18.48,18.41,-5.677,-12.83,1.05,7.727,-2.822,-17.37,0,0,0,0,0,0,0,0,0,0,0,0,0,0,0,0,
250,-25.42,13.96,5.792,23.03,-6.777,-0.7384,31.95,18.66,-25.88,14.25,-21.15,-25.92,-12.1,-2.562,-12.47,-22.94,0,0,0,0,0,0,0,0,0,0,0,0,0,0,0,0,
251,-31.9,9.232,3.75,31.57,-9.692,-0.2093,25.72,37.27,-35.5,24.21,-31.03,-28.32,-4.755,3.707,-21.81,-20.27,0,0,0,0,0,0,0,0,0,0,0,0,0,0,0,0,
252,-36.21,11.57,-7.102,22.55,-14.55,-15.45,10.82,32.18,-54.68,11.12,-32.09,-31.42,-5.652,6.453,-23.67,-12.56,0,0,0,0,0,0,0,0,0,0,0,0,0,0,0,0,
253,-46.85,-6.043,-14.91,-9.647,-29.33,-41.89,-13.6,-2.119,-50.1,-22.94,-35.87,-40.7,-30.59,-10.08,-28.65,-15.36,0,0,0,0,0,0,0,0,0,0,0,0,0,0,0,0,
254,-47.24,-29.81,2.753,-3.141,-21.51,-38.62,-20.92,-17.98,-11.65,-23.87,-22.64,-26.77,-33.44,-13.01,-31.11,-19.38,0,0,0,0,0,0,0,0,0,0,0,0,0,0,0,0,
255,-28.94,-26.16,30.68,28.43,-0.0298,-13.14,-12.45,6.403,10.55,-10.32,3.07,-2.196,-16.1,-1.385,-18.99,-10.65,0,0,0,0,0,0,0,0,0,0,0,0,0,0,0,0,
256,-13.51,-9.752,50.63,36.06,13.77,0.1271,-2.529,32.96,12.27,-11.03,10.96,2.391,-14.25,0.6514,-4.685,-2.384,0,0,0,0,0,0,0,0,0,0,0,0,0,0,0,0,
257,0.7385,0.9821,55,37.29,34.97,16.77,12.75,37.85,30.54,3.537,18.71,9.908,-13.01,3.265,4.702,-1.533,0,0,0,0,0,0,0,0,0,0,0,0,0,0,0,0,
258,27.35,11.66,46.63,50.95,57.21,49.09,29.29,38.88,64.24,24.02,51.9,41.24,7.183,20.45,26.07,9.832,0,0,0,0,0,0,0,0,0,0,0,0,0,0,0,0,
259,55.67,23.68,61.7,65.4,76.5,74.72,44.11,44.05,93.73,27.01,90.08,73.35,30.86,41.54,64.61,37.7,0,0,0,0,0,0,0,0,0,0,0,0,0,0,0,0,
260,71.31,34.2,100.7,73.66,98.09,77.3,51.03,50.42,102.3,33.96,104.8,82.65,38.35,50.43,97.06,62.17,0,0,0,0,0,0,0,0,0,0,0,0,0,0,0,0,
261,64.36,37.24,98.99,65.03,80.68,54.53,38.66,48.95,78.55,38.77,88.75,65.56,24.22,41.27,98.6,64.67,0,0,0,0,0,0,0,0,0,0,0,0,0,0,0,0,
262,31.4,18.35,43.27,29.37,17.77,12.89,11.31,6.451,31.02,11.71,48.46,27.35,-3.686,19.65,66.52,43.16,0,0,0,0,0,0,0,0,0,0,0,0,0,0,0,0,
263,-13.85,-23.4,-9.518,-13.7,-24.71,-29.08,-24.82,-50.89,-14.96,-29.97,4.303,-12.62,-29.35,-2.012,19.77,9.695,0,0,0,0,0,0,0,0,0,0,0,0,0,0,0,0,
264,-42.98,-52.51,-28.28,-24.04,-21.45,-43.21,-44.61,-36.54,-28.77,-39.34,-15.25,-26.67,-35.53,-9.521,-13.36,-13.83,0,0,0,0,0,0,0,0,0,0,0,0,0,0,0,0,
265,-41.2,-40.33,-30.34,-5.436,-13.05,-29.32,-26.54,13.72,-13.76,-9.113,-9.446,-19.64,-25.55,-2.888,-18.15,-16.32,0,0,0,0,0,0,0,0,0,0,0,0,0,0,0,0,
266,-35.61,-19.58,-35.14,-3.612,-25.3,-22.68,-10.52,3.82,-4.705,9.813,-3.496,-17.68,-22.76,0.1651,-6.852,-11.38,0,0,0,0,0,0,0,0,0,0,0,0,0,0,0,0,
267,-39.17,-18.25,-23.46,-8.123,-26.35,-19.66,-10.25,-12.82,-7.704,-3.263,1.955,-13.31,-24.18,-3.237,4.232,-12,0,0,0,0,0,0,0,0,0,0,0,0,0,0,0,0,
268,-24.1,-8.198,13.84,10.9,2.594,3.784,11.23,22.1,-11.23,-7.157,14.19,2.532,-14.15,-0.9866,11.4,-14.69,0,0,0,0,0,0,0,0,0,0,0,0,0,0,0,0,
269,-1.925,9.145,31.33,19.59,14.8,20.95,30.98,36.19,-10.55,2.709,16.38,7.877,-7.485,2.039,10.38,-16.61,0,0,0,0,0,0,0,0,0,0,0,0,0,0,0,0,
270,1.218,4.863,19.91,14.85,3.474,18.11,24.04,6.808,1.201,4.209,8.947,1.658,-7.598,3.39,0.7793,-16.31,0,0,0,0,0,0,0,0,0,0,0,0,0,0,0,0,
271,5.165,1.998,8.743,25.81,7.709,17.75,21.23,-8.516,10.96,9.48,7.617,-0.5276,-1.19,12.05,-5.948,-9.486,0,0,0,0,0,0,0,0,0,0,0,0,0,0,0,0,
272,7.245,9.997,-8.613,17.9,4.936,12.39,16.17,-1.274,7.538,9.719,6.88,-4.992,-4.379,14.88,-6.851,-3.519,0,0,0,0,0,0,0,0,0,0,0,0,0,0,0,0,
273,-10.98,-4.157,-18.92,-11.46,-16.29,-5.214,-5.749,5.355,3.914,-8.916,1.964,-15.32,-21.05,3.956,-12.12,-8.492,0,0,0,0,0,0,0,0,0,0,0,0,0,0,0,0,
274,-24.88,-24.52,-16.74,-18.88,-18.2,-18.54,-19.8,-6.438,-5.482,-18.58,-6.125,-27.26,-30.53,-2.853,-25.66,-19.36,0,0,0,0,0,0,0,0,0,0,0,0,0,0,0,0,
275,-29.32,-26.63,-34.56,-30.44,-14.96,-28.66,-30.87,-33.83,-22.01,-19.35,-19.62,-41.27,-41.63,-9.184,-40.95,-30.65,0,0,0,0,0,0,0,0,0,0,0,0,0,0,0,0,
276,-46.4,-37.25,-34.19,-53.19,-31.05,-40.76,-47.92,-39.86,-22.69,-34.01,-32.34,-53.04,-62.7,-27.28,-53,-44.92,0,0,0,0,0,0,0,0,0,0,0,0,0,0,0,0,
277,-62.67,-55.2,-8.18,-45.05,-42.47,-46.52,-48.2,-24.12,-18.99,-48.28,-43.66,-61.56,-73.87,-41.11,-64.09,-60.05,0,0,0,0,0,0,0,0,0,0,0,0,0,0,0,0,
278,-59.58,-50.05,-34.87,-31.58,-32.97,-34.3,-34.14,-16.95,-27.98,-44.22,-48.37,-60.18,-64.27,-36.62,-69.67,-66.1,0,0,0,0,0,0,0,0,0,0,0,0,0,0,0,0,
279,-41.98,-28.44,-61.32,-28.73,-11.98,-4.913,-17.81,-6.754,-25.23,-19.49,-31.49,-38.76,-39.8,-19.96,-55.86,-53.64,0,0,0,0,0,0,0,0,0,0,0,0,0,0,0,0,
280,-21.28,-9.312,-14.54,-6.786,0.4045,7.841,2.231,6.354,-9.976,9.356,-13.24,-19.54,-20.24,-5.904,-28.9,-28.86,0,0,0,0,0,0,0,0,0,0,0,0,0,0,0,0,
281,-12.9,-1,7.931,1.365,1.058,-4.419,9.875,-1.38,-4.791,7.265,-12.62,-18.25,-20.54,-3.205,-12.33,-11.71,0,0,0,0,0,0,0,0,0,0,0,0,0,0,0,0,
282,-15.59,-6.881,-17.61,-20.78,10,-2.034,0.0881,-8.648,2.012,-18.61,-10.2,-17.84,-28.13,-7.237,-11.33,-11.73,0,0,0,0,0,0,0,0,0,0,0,0,0,0,0,0,
283,-20.51,-18.88,-0.6611,-24.03,15.65,0.3889,-9.88,-3.902,7.57,-30.08,-11.87,-23.7,-34.38,-16.65,-18.03,-24.33,0,0,0,0,0,0,0,0,0,0,0,0,0,0,0,0,
284,-33.58,-28.07,22.6,-14.34,0.5561,-21.97,-16.1,-15.09,-7.737,-27.57,-24.36,-36.31,-38.56,-27.47,-25.63,-38.51,0,0,0,0,0,0,0,0,0,0,0,0,0,0,0,0,
285,-36.86,-26.88,-8.022,-21.19,-8.392,-16.99,-16.14,-32.15,-16.64,-28.91,-17.97,-28.9,-34.27,-29.6,-25.09,-41.37,0,0,0,0,0,0,0,0,0,0,0,0,0,0,0,0,
286,-16.25,-17.22,-32.51,-25.33,-2.529,10.33,-10.73,-31.13,-6.987,-34.72,-5.815,-16.93,-32.43,-29.49,-20.24,-35.98,0,0,0,0,0,0,0,0,0,0,0,0,0,0,0,0,
287,-10.77,-17.38,-19.08,-20.91,-4.335,-4.22,-16.9,-28.02,-7.721,-36.68,-15.48,-23.92,-38.08,-30.55,-22.37,-35.02,0,0,0,0,0,0,0,0,0,0,0,0,0,0,0,0,
288,-29.26,-26.65,-19.03,-21.98,-12.17,-29.01,-32.87,-30.9,-10.63,-29.95,-21.27,-28.86,-37.08,-25.85,-25.85,-36.59,0,0,0,0,0,0,0,0,0,0,0,0,0,0,0,0,
289,-33.24,-30.79,-33.73,-22.94,-15.32,-23.02,-38.48,-28.99,-3.39,-25.1,-13.78,-24.15,-32.58,-20.86,-23.79,-34.84,0,0,0,0,0,0,0,0,0,0,0,0,0,0,0,0,
290,-25.65,-32.34,-10.19,-17,-12.56,-16.19,-32.39,-32.94,-3.404,-29.38,-9.61,-19.16,-31.36,-18.41,-20.05,-31.08,0,0,0,0,0,0,0,0,0,0,0,0,0,0,0,0,
291,-25.31,-31.36,21.12,-13.71,-8.074,-14.32,-26.35,-43.69,-4.783,-36.79,-5.619,-14.07,-29.28,-19.12,-15.3,-26.84,0,0,0,0,0,0,0,0,0,0,0,0,0,0,0,0,
292,-26.25,-27.03,-5.233,-21.43,-12.07,-11.34,-22.25,-33.17,2.059,-44.47,-5.056,-14.97,-26.44,-25.72,-10.44,-25.15,0,0,0,0,0,0,0,0,0,0,0,0,0,0,0,0,
293,-27,-23.54,-31.18,-26.02,-14.73,-13.12,-12.53,-10.28,5.161,-43.33,-8.349,-15.67,-20.81,-27.92,-8.674,-27.07,0,0,0,0,0,0,0,0,0,0,0,0,0,0,0,0,
294,-22.64,-12.98,-2.52,-16.67,-3.253,-3.734,2.014,-10.03,1.007,-29.63,-3.554,-8.03,-14.25,-25.6,-8.297,-29.13,0,0,0,0,0,0,0,0,0,0,0,0,0,0,0,0,
295,-12.86,-1.439,10.87,-8.883,5.361,8.308,7.283,-16.36,-5.094,-19.25,0.4432,-6.008,-12.14,-26.59,-6.686,-28.94,0,0,0,0,0,0,0,0,0,0,0,0,0,0,0,0,
296,-11.82,-6.348,-2.34,-6.27,8.576,4.418,-1.832,-7.859,-6.601,-16.96,-1.4,-7.761,-9.094,-23.55,-1.446,-24.1,0,0,0,0,0,0,0,0,0,0,0,0,0,0,0,0,
297,-7.946,-14.35,9.084,-2.64,15.17,6.03,-13.63,-5.833,1.411,-21.82,2.79,-0.8578,-6.621,-20.74,7.334,-16.06,0,0,0,0,0,0,0,0,0,0,0,0,0,0,0,0,
298,9.363,-11.99,8.687,-8.559,5.905,15.93,-14.62,-16.15,18.67,-31.19,9.502,5.842,-9.362,-23.99,12.14,-11.33,0,0,0,0,0,0,0,0,0,0,0,0,0,0,0,0,
299,16.67,-7.772,-22.34,-19.22,-11.66,12.55,-2.454,-26.36,34.27,-19.99,11.21,8.372,-5.387,-16.39,10.6,-9.69,0,0,0,0,0,0,0,0,0,0,0,0,0,0,0,0,
300,10.29,-0.7047,-33.89,-19.35,-7.657,4.87,4.081,-30.71,24.23,3.583,5.529,7.345,3.86,-4.397,8.17,-8.421,0,0,0,0,0,0,0,0,0,0,0,0,0,0,0,0,
301,5.33,1.367,-21.19,-17.02,-1.118,4.859,-8.821,-18.9,-0.7667,-5.361,-11.5,-6.115,-0.598,-12.7,1.112,-12,0,0,0,0,0,0,0,0,0,0,0,0,0,0,0,0,
302,-2.418,-11.38,-6.725,-17.29,-6.267,6.992,-13.19,-1.36,-0.2269,-27.63,-24.79,-19.48,-8.828,-23.53,-13.79,-19.28,0,0,0,0,0,0,0,0,0,0,0,0,0,0,0,0,
303,-8.513,-11.49,-1.419,-11.72,-2.276,8.765,3.824,-2.209,12.94,-21.16,-23.55,-19.37,-6.007,-19.53,-25.66,-23.01,0,0,0,0,0,0,0,0,0,0,0,0,0,0,0,0,
304,-6.191,0.0423,-9.756,-6.662,-0.4391,3.426,-0.9724,-17.73,5.96,-14.96,-28.92,-24.45,-11.78,-25.25,-31.69,-27.77,0,0,0,0,0,0,0,0,0,0,0,0,0,0,0,0,
305,-10.45,-14.96,-17.35,-15.17,-11.19,-8.935,-26.41,-27.06,-5.461,-27.13,-37.86,-32.11,-22.98,-34.14,-36.27,-34.92,0,0,0,0,0,0,0,0,0,0,0,0,0,0,0,0,
306,-18.26,-31.73,-25.47,-28,-11.64,-11.93,-21.09,-20.25,-4.339,-25.15,-26.27,-22.24,-15.77,-21.18,-30.29,-30.12,0,0,0,0,0,0,0,0,0,0,0,0,0,0,0,0,
307,-14.46,-20.98,-32.55,-25.82,-5.568,-6.406,-4.757,-17.6,3.709,-15.86,-14.83,-15,-10.65,-12.66,-14.3,-15.94,0,0,0,0,0,0,0,0,0,0,0,0,0,0,0,0,
308,-8.325,-16.83,-18.47,-14.56,-5.381,-1.371,-12.76,-28.13,11.76,-20.87,-15.63,-16.74,-14.13,-16.61,-2.633,-8.53,0,0,0,0,0,0,0,0,0,0,0,0,0,0,0,0,
309,-4.032,-18.99,-7.159,-13.01,-0.7384,7.472,-15.83,-17.61,12.8,-19.76,-3.229,-4.624,-3.594,-9.298,6.91,-3.41,0,0,0,0,0,0,0,0,0,0,0,0,0,0,0,0,
310,0.493,-10.44,-12.73,-21.91,3.155,8.543,-14.45,-3.123,13.33,-12.16,2.864,-0.7307,-6.727,-13.56,12.62,0.4799,0,0,0,0,0,0,0,0,0,0,0,0,0,0,0,0,
311,-9.466,-18.65,-10.44,-33.64,-2.952,-6.322,-29.09,-26.95,14.3,-21.61,-19.19,-20.21,-33.96,-35.52,-0.5442,-11.56,0,0,0,0,0,0,0,0,0,0,0,0,0,0,0,0,
312,-27.38,-31.42,-12.81,-36.11,-9.213,-10.68,-28.46,-38.64,3.253,-32.08,-27.5,-22.86,-34.96,-35.37,-19.3,-29.44,0,0,0,0,0,0,0,0,0,0,0,0,0,0,0,0,
313,-22.61,-15.44,-20.61,-18.59,-4.271,6.192,-6.946,-13.53,2.792,-20.27,-8.605,-1.043,-10.78,-21.48,-18.16,-30.31,0,0,0,0,0,0,0,0,0,0,0,0,0,0,0,0,
314,2.8,2.638,-15.02,-0.7004,7.658,20.73,0.9308,-9.415,19.5,-5.407,-1.405,8.601,-7.176,-25.32,-5.813,-21.64,0,0,0,0,0,0,0,0,0,0,0,0,0,0,0,0,
315,12.03,-2.864,-14.9,-5.971,-0.1515,16.15,-7.851,-21.16,4.17,-10.2,-14.31,-4.094,-21.94,-34.12,-3.782,-21.94,0,0,0,0,0,0,0,0,0,0,0,0,0,0,0,0,
316,-5.082,-12.23,-13.79,-16.66,-22.09,1.81,-15.13,-16.96,-20.52,-15.75,-23.92,-16.04,-23.35,-25.85,-10.73,-26.89,0,0,0,0,0,0,0,0,0,0,0,0,0,0,0,0,
317,-12.35,-3.263,-8.925,-10.96,-13.55,1.285,-8.486,-9.321,6.426,-1.366,-20.01,-13.12,-9.799,-9.242,-14.52,-25.88,0,0,0,0,0,0,0,0,0,0,0,0,0,0,0,0,
318,-3.115,8.874,-28.81,-8.85,4.434,5.583,-1.036,-1.158,17.9,5.782,-21.5,-18.18,-12.25,-11.71,-18.62,-27.56,0,0,0,0,0,0,0,0,0,0,0,0,0,0,0,0,
319,-16.45,-6.139,-38.42,-29.21,-9.727,-10.58,-14.72,-6.616,-30.25,-13.46,-40.2,-39.01,-30.91,-27.68,-32.69,-39.59,0,0,0,0,0,0,0,0,0,0,0,0,0,0,0,0,
320,-36.93,-23.33,-30.57,-45.36,-20.08,-20.53,-25.69,-29.35,-36.11,-27.55,-45.27,-37.94,-27.16,-22.62,-44.24,-44.92,0,0,0,0,0,0,0,0,0,0,0,0,0,0,0,0,
321,-26.07,-11.29,-56.75,-40.44,-17.24,-12.61,-18.48,-32.82,2.53,-24.53,-30.78,-21.39,-12.66,-8.883,-38.74,-33.44,0,0,0,0,0,0,0,0,0,0,0,0,0,0,0,0,
322,-19,-6.647,-65.61,-35.06,-36,-26.27,-23.99,-21.67,-11.63,-25.06,-32,-28.18,-24.62,-18.21,-30.23,-23.85,0,0,0,0,0,0,0,0,0,0,0,0,0,0,0,0,
323,-33.09,-19.81,-22.37,-27.78,-46.64,-41.86,-37.11,-13.04,-33.48,-28.15,-36.34,-33.13,-37.64,-31.07,-30.44,-26.92,0,0,0,0,0,0,0,0,0,0,0,0,0,0,0,0,
324,-29.96,-15.72,-11.3,-13.9,-27.11,-25.27,-33.15,-3.599,-11.13,-27.43,-26.34,-21.22,-32.49,-31.15,-32.74,-34.97,0,0,0,0,0,0,0,0,0,0,0,0,0,0,0,0,
325,-21.49,-7.591,-30.55,-16.01,-17.22,-16.19,-25.13,-16.36,-6.694,-25.79,-30.98,-27.16,-36.71,-33.83,-39.37,-45.62,0,0,0,0,0,0,0,0,0,0,0,0,0,0,0,0,
326,-27.12,-9.495,-24.14,-27.99,-23.75,-23.31,-21.76,-33.67,-14.74,-21.26,-35.55,-33,-42.07,-31.34,-45.91,-50.55,0,0,0,0,0,0,0,0,0,0,0,0,0,0,0,0,
327,-23.31,-6.012,-29.04,-36.91,-25.95,-18.6,-24.92,-24.57,-6.403,-19.83,-18.58,-17.83,-33.3,-20.02,-36.37,-39.05,0,0,0,0,0,0,0,0,0,0,0,0,0,0,0,0,
328,-21.26,-8.674,-53.55,-51.12,-25.68,-22.02,-35.85,-26.55,-19.19,-21.55,-19.63,-18.22,-34.07,-22.63,-23.73,-27.84,0,0,0,0,0,0,0,0,0,0,0,0,0,0,0,0,
329,-31.57,-13.89,-57.61,-54.14,-28.42,-32.53,-34.7,-35.24,-26.62,-17.14,-32.56,-26.55,-36.09,-28.76,-25.82,-30.06,0,0,0,0,0,0,0,0,0,0,0,0,0,0,0,0,
330,-26.7,-1.519,-50.97,-42.78,-39.26,-24.64,-26.05,-20.57,-5.554,-16.97,-22.96,-16.52,-19.36,-20.03,-28.34,-28.64,0,0,0,0,0,0,0,0,0,0,0,0,0,0,0,0,
331,-17.88,8.865,-46.7,-38.45,-47.39,-20.16,-25.38,-12.89,-10.98,-19.32,-19.21,-13.52,-4.595,-11.18,-23.6,-17.85,0,0,0,0,0,0,0,0,0,0,0,0,0,0,0,0,
332,-19.41,13.86,-50.14,-29.57,-31.68,-21.84,-14.74,-3.252,-25.39,-3.553,-25.65,-16.55,3.646,-3.204,-21,-8.919,0,0,0,0,0,0,0,0,0,0,0,0,0,0,0,0,
333,-11.92,25.42,-65.58,-17.53,-20.68,-11.84,-6.223,16.98,-19.14,9.434,-21.85,-13.95,5.858,2.283,-22.97,-5.902,0,0,0,0,0,0,0,0,0,0,0,0,0,0,0,0,
334,-15.16,16.98,-58.59,-25.1,-45.06,-23.36,-19.85,-1.082,-35.55,-3.372,-29.76,-26.52,-12.04,-8.839,-32.53,-13.57,0,0,0,0,0,0,0,0,0,0,0,0,0,0,0,0,
335,-39.76,-2.176,-32.03,-33.56,-61.5,-53.24,-18.76,-27.27,-48.12,-8.783,-37.15,-33.59,-22.16,-14.08,-42.72,-25.36,0,0,0,0,0,0,0,0,0,0,0,0,0,0,0,0,
336,-40.27,5.259,-37.24,-26.23,-43.59,-42.66,-2.243,-12.08,-17.35,3.147,-18.66,-14.87,-10,-4.453,-37.01,-22.68,0,0,0,0,0,0,0,0,0,0,0,0,0,0,0,0,
337,-14.44,14.97,-51.34,-19.9,-30.89,-6.786,-4.505,5.415,7.66,-3.042,-7.603,-3.179,-4.423,-3.82,-24.66,-11.08,0,0,0,0,0,0,0,0,0,0,0,0,0,0,0,0,
338,6.97,18.11,-25.72,-15.65,-23.52,11.08,5.57,13.64,19.09,-11.31,-12.09,0.098,6.275,-0.8648,-22.23,-5.48,0,0,0,0,0,0,0,0,0,0,0,0,0,0,0,0,
339,27.52,42.6,-5.669,-5.537,4.008,24.71,33.32,27.6,32.16,9.024,-10.83,7.075,25.84,6.348,-24.79,-4.434,0,0,0,0,0,0,0,0,0,0,0,0,0,0,0,0,
340,32.21,51.02,-29.32,-3.198,15.71,23.37,19.31,16.94,9.987,11.25,-18.14,-2.598,14.56,-5.817,-29.22,-10.09,0,0,0,0,0,0,0,0,0,0,0,0,0,0,0,0,
341,5.983,18.33,-34.85,-15.68,-9.53,-5.037,-16.47,-18.02,-23.17,-28.14,-29.74,-16.72,-9.144,-15.3,-34.55,-21.83,0,0,0,0,0,0,0,0,0,0,0,0,0,0,0,0,
342,-10.34,1.756,-5.695,-23.93,-28.37,-10.89,-13.7,-36.62,-14.58,-43.84,-21.99,-13.49,-9.29,-7.985,-29.67,-25.44,0,0,0,0,0,0,0,0,0,0,0,0,0,0,0,0,
343,-5.796,9.186,-14.47,-24.37,-24.9,1.793,-4.614,-26.78,-1.448,-26.77,-14.9,-16.39,-18.13,-16.45,-18.53,-23.03,0,0,0,0,0,0,0,0,0,0,0,0,0,0,0,0,
344,-17.39,-3.681,-48.01,-28.67,-19.06,-15.58,-23.09,-3.97,-10.25,-32.54,-24.48,-31.5,-43.7,-33.96,-18.54,-27.95,0,0,0,0,0,0,0,0,0,0,0,0,0,0,0,0,
345,-33.73,-14.23,-38.93,-22.7,-14.89,-31.19,-28.65,7.807,-3.676,-36.03,-24.4,-30.55,-38.8,-23.66,-25.41,-30.08,0,0,0,0,0,0,0,0,0,0,0,0,0,0,0,0,
346,-27.22,4.954,-21.41,-12.74,-17.15,-17.37,-12.32,-2.076,8.025,-6.975,-10.81,-17.77,-14.91,-2.102,-23.12,-17.58,0,0,0,0,0,0,0,0,0,0,0,0,0,0,0,0,
347,-18.1,10.68,-39.64,-26.81,-25.56,-11.06,-11.13,-12.64,-9.085,-1.628,-11.85,-17.78,-21.82,-6.313,-17.47,-7.921,0,0,0,0,0,0,0,0,0,0,0,0,0,0,0,0,
348,-19.14,-13.22,-53.13,-32.93,-24.38,-15.82,-21.53,-11.02,-19.42,-20.49,-24.92,-23.81,-38.17,-21.03,-22.57,-15.3,0,0,0,0,0,0,0,0,0,0,0,0,0,0,0,0,
349,-20.72,-24.34,-34.16,-13.73,-23.51,-17.7,-23.03,-16.51,-0.7155,-10.68,-31.28,-26.49,-30.56,-17.64,-35.21,-25.41,0,0,0,0,0,0,0,0,0,0,0,0,0,0,0,0,
350,-28.26,-16.28,-23.49,-19.63,-38,-26.78,-19.07,-27.56,-0.0173,-0.4346,-33.01,-31.49,-21.66,-6.457,-43.85,-24.66,0,0,0,0,0,0,0,0,0,0,0,0,0,0,0,0,
351,-33.42,-9.249,-39.91,-33.94,-38.82,-30.34,-11.37,-15.38,-12.16,-11.86,-27,-26.51,-17.05,-0.6676,-41.91,-16.14,0,0,0,0,0,0,0,0,0,0,0,0,0,0,0,0,
352,-20.51,4.228,-24.73,-7.934,-7.972,-20.4,-4.594,8.163,11.07,-10.26,-15.86,-12.71,-7.942,-1.211,-33.74,-9.419,0,0,0,0,0,0,0,0,0,0,0,0,0,0,0,0,
353,-10.13,17.07,16.99,10.52,13.67,-14.27,-6.096,8.032,32.24,-4.674,-19.27,-15.82,-11.9,-9.896,-32.02,-13.34,0,0,0,0,0,0,0,0,0,0,0,0,0,0,0,0,
354,-12.28,12.74,-0.9463,-6.997,-0.1166,-4.797,-9.656,-9.21,12.62,-10.26,-29.46,-25.86,-19.98,-14.14,-37.75,-23.34,0,0,0,0,0,0,0,0,0,0,0,0,0,0,0,0,
355,-9.957,8.68,-40.21,-15.18,-19.88,4.975,-18.26,-21.44,-2.434,-10.52,-31.23,-24.85,-15.86,-7.987,-40.26,-25.58,0,0,0,0,0,0,0,0,0,0,0,0,0,0,0,0,
356,-11.86,12.08,-32.4,-17.13,-25.05,-10.72,-31.38,-23.85,0.5825,-9.782,-28.34,-21.55,-12.09,-1.09,-33.79,-16.33,0,0,0,0,0,0,0,0,0,0,0,0,0,0,0,0,
357,-17.05,15.93,-29.38,-27.61,-16.35,-23.55,-25.96,-18.33,5.33,-2.247,-10.93,-6.742,-1.608,10.26,-15.28,1.323,0,0,0,0,0,0,0,0,0,0,0,0,0,0,0,0,
358,0.2939,32.5,-24.3,-19.23,9.466,-0.9628,-3.316,-11.23,29.66,18.92,15.24,19.23,17.46,19.92,9.004,19.67,0,0,0,0,0,0,0,0,0,0,0,0,0,0,0,0,
359,21.84,48.99,8.444,-4.114,22.16,16.54,8.345,-4.468,43.24,18.84,17.83,23.94,17.79,11.8,19,23.34,0,0,0,0,0,0,0,0,0,0,0,0,0,0,0,0,
360,20.67,39.83,-0.1213,-4.32,-0.886,6.783,4.656,1.898,15.79,-3.781,7.33,13.94,7.505,3.587,11.43,11.46,0,0,0,0,0,0,0,0,0,0,0,0,0,0,0,0,
361,20.6,28.33,-17.85,3.473,-3.932,9.418,3.04,0.6822,9.793,-7.869,15.63,20.35,13.52,14.26,6.941,4.047,0,0,0,0,0,0,0,0,0,0,0,0,0,0,0,0,
362,34.28,32.83,12.92,12.48,27.55,29.11,4.998,-5.464,32.09,2.076,25.64,27.42,21.74,24.33,11.7,8.841,0,0,0,0,0,0,0,0,0,0,0,0,0,0,0,0,
363,34.57,27.67,9.357,-8.418,21.6,26.07,-6.291,-9.843,21.77,-1.572,15.42,14.25,15.43,20.42,11.07,12.26,0,0,0,0,0,0,0,0,0,0,0,0,0,0,0,0,
364,18.49,17.38,-24.19,-30.71,-4.057,5.739,-22.19,-15.79,18.15,-4.806,11.97,8.599,13.69,21.35,5.957,11.82,0,0,0,0,0,0,0,0,0,0,0,0,0,0,0,0,
365,17.16,30.44,-3.129,-15.89,14.25,5.918,-15.88,-22.84,46.18,7.605,27.07,22.55,21.06,28.84,10.84,17.37,0,0,0,0,0,0,0,0,0,0,0,0,0,0,0,0,
366,24.78,38.74,15.66,3.963,22.06,8.415,-2.053,-23.04,30.07,6.694,22.08,17.41,9.261,18.38,17.34,18.98,0,0,0,0,0,0,0,0,0,0,0,0,0,0,0,0,
367,7.339,13.87,-10.62,-8.097,-7.69,-11.19,-2.949,-11.43,-4.118,-12.28,-2.145,-5.659,-13.41,-1.633,10.09,3.699,0,0,0,0,0,0,0,0,0,0,0,0,0,0,0,0,
368,-8.896,-3.115,-22.69,-17.49,-3.046,-8.791,-2.239,3.775,18.61,-6.637,1.651,-0.9038,-11.39,-1.536,4.383,-9.723,0,0,0,0,0,0,0,0,0,0,0,0,0,0,0,0,
369,12.34,7.397,-12.81,7.03,26.86,22.79,5.822,7.329,37.97,10.33,24.04,19.69,-0.01,9.838,17.86,-1.854,0,0,0,0,0,0,0,0,0,0,0,0,0,0,0,0,
370,34.35,12.67,15.25,28.04,32.41,31.03,10.33,0.1147,22.59,-1.942,27.13,20.54,-5.429,11.4,34.05,13.25,0,0,0,0,0,0,0,0,0,0,0,0,0,0,0,0,
371,34.46,13.13,50.64,15.76,29.48,27.47,12.48,-4.643,31.56,-13.5,20.39,15.7,-8.423,11.87,31.53,16.74,0,0,0,0,0,0,0,0,0,0,0,0,0,0,0,0,
372,35.02,25.85,26.68,-3.015,20.74,38.71,13.05,-5.142,39.74,-6.126,15.77,16.24,6.015,23.39,17.38,11.3,0,0,0,0,0,0,0,0,0,0,0,0,0,0,0,0,
373,32.15,43.69,-19.16,-3.283,10.89,36.67,15.56,-12.41,14.94,-1.483,6.556,11.61,23.46,34.9,9.963,5.635,0,0,0,0,0,0,0,0,0,0,0,0,0,0,0,0,
374,22.76,59.28,-7.515,0.0852,21.61,20.83,17.95,-22.06,4.048,9.933,0.7532,8.24,30.39,33.27,13.4,2.923,0,0,0,0,0,0,0,0,0,0,0,0,0,0,0,0,
375,19.74,60,7.964,-7.615,27.84,18.82,13.11,-11.3,12.73,16.15,7.872,15.63,28.98,28.52,22.33,7.094,0,0,0,0,0,0,0,0,0,0,0,0,0,0,0,0,
376,21.1,45,11.41,-7.323,22.86,29.86,14.29,8.683,21.29,-0.9164,22.39,27.91,26.42,29.45,31.93,15.75,0,0,0,0,0,0,0,0,0,0,0,0,0,0,0,0,
377,25.82,38.69,33.29,5.8,19.87,34.41,17.17,7.241,27.47,1.643,29.21,29.86,20.51,28.05,34.57,15.83,0,0,0,0,0,0,0,0,0,0,0,0,0,0,0,0,
378,25.3,41.6,10.6,3.635,0.1928,19.69,5.514,-2.249,14.67,26.15,20.28,17.49,14.86,29.16,26.62,5.898,0,0,0,0,0,0,0,0,0,0,0,0,0,0,0,0,
379,13.47,43.22,-33.49,-7.469,-13.28,6.427,4.85,-3.627,5.755,24.86,10.06,9.892,18.69,36.7,15.6,-2.237,0,0,0,0,0,0,0,0,0,0,0,0,0,0,0,0,
380,11.95,50.95,-12.3,-3.414,-2.029,12.83,20.36,-6.276,16.31,11.4,11.06,15.92,21.65,36,8.302,-5.73,0,0,0,0,0,0,0,0,0,0,0,0,0,0,0,0,
381,22.56,55.82,14.71,-1.091,-1.06,17.79,20.85,-2.587,8.113,11.67,18.41,25.16,17.7,31.39,8.353,-3.962,0,0,0,0,0,0,0,0,0,0,0,0,0,0,0,0,
382,29.5,47.26,0.0008,-6.164,5.307,17.58,14.87,10.35,6.995,14.57,28.58,34.4,17.06,36,20.8,7.221,0,0,0,0,0,0,0,0,0,0,0,0,0,0,0,0,
383,35.83,37.38,1.224,1.024,29.29,20.88,14.02,16.61,37.14,19.74,38.87,41.46,16.73,39.51,40.66,19.67,0,0,0,0,0,0,0,0,0,0,0,0,0,0,0,0,
384,37.81,33.47,24.84,10.3,29.87,17.63,9.947,16.56,41.73,22.52,44.3,43.93,15.67,36.29,53.01,24.41,0,0,0,0,0,0,0,0,0,0,0,0,0,0,0,0,
385,37.64,38.41,29.08,11.19,19.53,24.09,18.57,22.97,33.22,14.93,42.72,44.34,23.67,33.3,51.34,26.19,0,0,0,0,0,0,0,0,0,0,0,0,0,0,0,0,
386,47.55,52.43,10.54,11.69,19.46,46.3,35.87,34.15,46.65,18.48,33.9,38.36,33.46,28.58,40.5,26.14,0,0,0,0,0,0,0,0,0,0,0,0,0,0,0,0,
387,50.29,61.55,2.921,5.772,10.99,43.04,33.72,24.52,36.84,34.1,24.45,27.82,34.93,21.89,27.04,19.68,0,0,0,0,0,0,0,0,0,0,0,0,0,0,0,0,
388,34.88,59.03,4.556,-1.966,2.057,9.834,18.73,-6.004,7.793,26.62,14.44,17.01,29.38,18.66,13.54,10.24,0,0,0,0,0,0,0,0,0,0,0,0,0,0,0,0,
389,14.76,48.82,-25.72,-4.559,-3.005,-16.54,0.8353,-16.26,-7.142,-1.658,-5.328,-2.09,13.59,15.47,-1.574,1.05,0,0,0,0,0,0,0,0,0,0,0,0,0,0,0,0,
390,-4.739,32.67,-57.37,-20.56,-10.68,-22.78,-17.99,-9.294,-21.14,-13.63,-16.95,-13.8,-6.334,8.203,-12.79,-7.212,0,0,0,0,0,0,0,0,0,0,0,0,0,0,0,0,
391,-6.697,17.28,-42.07,-33.65,-6.229,-9.853,-18.08,-10.63,-12.52,-10.86,1.694,4.268,-13.85,1.006,-6.168,-7.485,0,0,0,0,0,0,0,0,0,0,0,0,0,0,0,0,
392,17.5,7.676,-14.2,-16.23,8.564,11.37,-5.556,-7.679,22.6,-15.71,26.12,24.95,-12.51,-2.593,16.46,0.9847,0,0,0,0,0,0,0,0,0,0,0,0,0,0,0,0,
393,35.06,4.942,-0.8729,-8.508,21.23,20.52,-5.548,-9.092,30.56,-15.46,28.15,23.27,-12.78,-0.7116,35.2,7.934,0,0,0,0,0,0,0,0,0,0,0,0,0,0,0,0,
394,30.7,11.94,-9.619,-30.85,14.55,17.8,-9.178,-17.8,14.71,-2.908,21.35,19.99,-9.563,6.568,42.24,10.85,0,0,0,0,0,0,0,0,0,0,0,0,0,0,0,0,
395,23.57,22.2,-35.23,-37.06,-13.73,13.58,-3.013,-7.443,11.25,3.735,27.7,29.62,0.5574,14.3,47.94,15.57,0,0,0,0,0,0,0,0,0,0,0,0,0,0,0,0,
396,24.49,30.78,-16.37,-22.86,-6.936,13.18,6.405,-3.009,12.32,9.944,43.7,42.97,10.62,20.07,58.65,23.43,0,0,0,0,0,0,0,0,0,0,0,0,0,0,0,0,
397,31.32,39.47,22.88,-23.04,33.95,20.49,15.1,-15.11,4.466,14.61,48.4,48.18,14.06,23.74,67.3,30.74,0,0,0,0,0,0,0,0,0,0,0,0,0,0,0,0,
398,34.64,41.34,0.4052,-30.78,33.26,29.28,23.38,-5.55,6.491,-3.075,42.74,45.33,15.39,26.8,68.36,35.24,0,0,0,0,0,0,0,0,0,0,0,0,0,0,0,0,
399,35.94,39.51,-18.15,-19.76,17.26,36.9,33.58,10.53,34.18,-15.42,45.73,47.16,24.27,33.17,67.86,39.27,0,0,0,0,0,0,0,0,0,0,0,0,0,0,0,0,
400,43.6,42.18,13.89,0.6699,32.94,44.46,41.18,12.21,43.53,0.9191,43.03,45.98,33.3,36.69,66.17,40.94,0,0,0,0,0,0,0,0,0,0,0,0,0,0,0,0,
401,43.56,41.58,15.38,0.9801,33.99,43.32,35.71,11.43,13.05,9.478,27.19,33.62,34.26,33.94,58.32,35.82,0,0,0,0,0,0,0,0,0,0,0,0,0,0,0,0,
402,38.81,45.6,5.442,-6.835,26.45,44.46,33.49,4.161,10.54,11.49,34.75,35.76,40.13,39.35,57.78,34.46,0,0,0,0,0,0,0,0,0,0,0,0,0,0,0,0,
403,51.43,64.57,28.24,5.512,46.25,62.83,53.36,16.21,46.27,38.63,65.34,57.57,59.27,60.84,77.78,51.37,0,0,0,0,0,0,0,0,0,0,0,0,0,0,0,0,
404,69.79,83.69,24.69,21.55,63.29,82.19,75.19,54.46,74.29,65.78,92.42,83.16,86.84,90.19,109.2,84.62,0,0,0,0,0,0,0,0,0,0,0,0,0,0,0,0,
405,91.7,105.2,26.47,35.78,84.78,96.4,88.68,60.08,111,75.11,123.7,114.3,111.7,112,139.9,121,0,0,0,0,0,0,0,0,0,0,0,0,0,0,0,0,
406,120.6,127.9,77.01,56.59,115.6,103.1,104.8,45.32,129.8,84.07,133.5,121.6,110.1,108.6,150.4,137.1,0,0,0,0,0,0,0,0,0,0,0,0,0,0,0,0,
407,109.1,115.5,72.08,44.5,85.07,74.58,96.19,51.87,75.01,73.67,81.99,72.72,71.77,77.98,114,108.5,0,0,0,0,0,0,0,0,0,0,0,0,0,0,0,0,
408,50.06,68.63,1.524,-0.2555,5.356,22.39,45.3,40.97,7.646,32.63,13.63,11.05,19.7,37.16,41.33,44.13,0,0,0,0,0,0,0,0,0,0,0,0,0,0,0,0,
409,6.288,30.36,-31.85,-16.63,-30.1,-4.591,6.595,16.94,-9.687,3.827,-13.83,-12.35,-12.82,9.655,-17.62,-12.04,0,0,0,0,0,0,0,0,0,0,0,0,0,0,0,0,
410,-1.797,16.59,-37.37,-9.399,-18.82,-0.1291,13.51,15.51,-6.854,3.828,-8.916,-5.137,-14.45,4.33,-28.18,-28.07,0,0,0,0,0,0,0,0,0,0,0,0,0,0,0,0,
411,7.301,18.93,-35.05,-14.51,-6.796,8.621,25.57,5.733,-12.04,5.526,1.174,5.407,-10.35,2.646,-2.328,-17.79,0,0,0,0,0,0,0,0,0,0,0,0,0,0,0,0,
412,17.81,19.72,-4.029,-14.52,-0.9085,5.072,17.63,1.321,-19.55,3.758,4.698,6.522,-16.92,-2.183,22.31,-9.377,0,0,0,0,0,0,0,0,0,0,0,0,0,0,0,0,
413,11.41,6.139,7.146,-4.154,-4.581,-5.95,5.754,27.31,-8.753,3.998,10.49,10.73,-11.05,7.045,32.95,-0.7754,0,0,0,0,0,0,0,0,0,0,0,0,0,0,0,0,
414,2.282,-1.626,-11.42,-6.253,-9.402,-4.887,0.1757,24.25,14.91,-1.379,25.9,26.64,11.27,24.38,44.68,18.76,0,0,0,0,0,0,0,0,0,0,0,0,0,0,0,0,
415,9.18,10.39,-10.67,-9.283,3.144,6.72,2.931,-0.0349,6.838,-1.722,25.04,27.14,22.25,30.39,50.35,33.43,0,0,0,0,0,0,0,0,0,0,0,0,0,0,0,0,
416,10.13,20.66,-9.604,-3.074,10.58,5.708,8.842,2.419,-29.44,10.29,-0.6225,4.068,18.72,26.84,30.34,25.3,0,0,0,0,0,0,0,0,0,0,0,0,0,0,0,0,
417,3.07,22.12,-24.43,-14.43,-3.505,-4.273,10.85,-9.962,-41.88,12.19,-17.01,-9.57,16.82,22.93,-0.5727,2.813,0,0,0,0,0,0,0,0,0,0,0,0,0,0,0,0,
418,9.508,26.46,-25.67,-29.69,-12.75,-2.277,14.88,-22.48,-25.68,0.4413,-19.9,-11.55,13.85,18.92,-20.21,-17.45,0,0,0,0,0,0,0,0,0,0,0,0,0,0,0,0,
419,13.74,25.55,-21.02,-8.309,-17.29,1.769,15.69,6.42,-19.38,-9.007,-32.36,-24.03,0.801,8.72,-33.3,-32.38,0,0,0,0,0,0,0,0,0,0,0,0,0,0,0,0,
420,2.1,16.95,-18.14,13.76,-24.07,-6.167,6.551,9.092,-32.01,-13.89,-38.01,-27.51,-6.273,0.3145,-40.26,-40.63,0,0,0,0,0,0,0,0,0,0,0,0,0,0,0,0,
421,1.25,21.18,3.518,3.302,-0.9643,-3.486,6.809,-11.38,-29.13,-10.29,-20.72,-8.553,5.533,6.144,-31.6,-35.25,0,0,0,0,0,0,0,0,0,0,0,0,0,0,0,0,
422,15.66,32.59,25.81,3.338,30.76,17.77,18.52,11.29,-2.863,-2.626,-10.31,-2.698,10.18,9.54,-19.12,-22.91,0,0,0,0,0,0,0,0,0,0,0,0,0,0,0,0,
423,17.09,27.82,28.03,19.38,19.61,29.43,23.12,29.06,11.21,-2.455,-12.62,-10.63,-0.0174,4.288,-15.25,-16.84,0,0,0,0,0,0,0,0,0,0,0,0,0,0,0,0,
424,13.5,20.27,31.91,24.86,9.463,27.67,23.55,17.26,7.956,-3.693,-3.578,-2.382,-2.893,6.605,-12.25,-16.94,0,0,0,0,0,0,0,0,0,0,0,0,0,0,0,0,
425,22.14,22.44,28.11,27.09,30.07,24.69,20.74,12.37,-0.1021,-7.356,-5.308,-2.709,-12.91,0.5695,-14.62,-26.36,0,0,0,0,0,0,0,0,0,0,0,0,0,0,0,0,
426,21.05,16.3,4.495,16.44,24.22,20.1,12.94,2.988,-13.17,-7.873,-27.7,-20.23,-30.27,-15.44,-30.3,-45.08,0,0,0,0,0,0,0,0,0,0,0,0,0,0,0,0,
427,15.09,10.72,10.93,3.809,4.608,22.8,16.48,6.255,-10.81,10.59,-24.98,-12.36,-17.85,-6.654,-37.77,-49.33,0,0,0,0,0,0,0,0,0,0,0,0,0,0,0,0,
428,25.21,20.34,45.77,22.15,15.79,26.49,24.28,23.91,0.4175,13.96,-7.673,1.909,-2.298,7.222,-27.07,-34.01,0,0,0,0,0,0,0,0,0,0,0,0,0,0,0,0,
429,21.9,17.65,50.11,33.55,18.35,15.39,16.4,7.36,-8.061,-17.09,-17.35,-10.74,-18.22,-5.859,-22.24,-26.93,0,0,0,0,0,0,0,0,0,0,0,0,0,0,0,0,
430,6.088,2.179,29.38,20.1,7.063,10.34,9.944,-0.2465,-4.742,-26.96,-21.13,-11.3,-21.84,-11.47,-27.15,-31.82,0,0,0,0,0,0,0,0,0,0,0,0,0,0,0,0,
431,15.13,7.13,10.02,24.38,19.8,15.11,14.89,25.92,18.94,-8.689,-5.594,2.86,-7.575,-0.8832,-23.79,-30.77,0,0,0,0,0,0,0,0,0,0,0,0,0,0,0,0,
432,18.78,11.15,6.932,23.81,25.11,-0.91,4.47,10.49,7.563,-18.31,-13.69,-10.35,-22.12,-11.14,-18.31,-27.93,0,0,0,0,0,0,0,0,0,0,0,0,0,0,0,0,
433,-5.279,-12.2,23.16,-6.73,0.0663,-24.31,-16.6,-27.98,-27.75,-42.92,-30.28,-27.41,-41.02,-27.33,-22.56,-31.42,0,0,0,0,0,0,0,0,0,0,0,0,0,0,0,0,
434,-11.78,-21.62,15.14,-15.34,-18.97,-23.09,-10.39,-23.83,-29.63,-36.13,-21.73,-17.52,-27.16,-21,-25.54,-32.51,0,0,0,0,0,0,0,0,0,0,0,0,0,0,0,0,
435,3.913,-0.5956,5.388,11.45,-18.89,-10.44,10.38,-2.705,-8.942,-19.67,-12.04,-6.75,-13.61,-11.73,-19.72,-27.37,0,0,0,0,0,0,0,0,0,0,0,0,0,0,0,0,
436,11.09,7.17,34.66,26.43,-13.16,-5.686,5.691,4.721,-9.649,-26.18,-19.29,-13.63,-22.51,-13.19,-16.7,-25.86,0,0,0,0,0,0,0,0,0,0,0,0,0,0,0,0,
437,9.113,-6.083,12.98,9.881,-12.67,-6.377,-11.61,-5.841,-34.14,-39.81,-33.42,-29.31,-33.91,-18.42,-27.04,-35.6,0,0,0,0,0,0,0,0,0,0,0,0,0,0,0,0,
438,-2.726,-15.54,-49.67,-14.85,-23.8,-14.34,-14.21,-20.75,-43.7,-43.15,-42.21,-37.91,-35.39,-21.55,-43.28,-46.64,0,0,0,0,0,0,0,0,0,0,0,0,0,0,0,0,
439,-15.46,-21.23,-22.03,-14.67,-28.51,-27.76,-12.09,-8.629,-19.11,-37.14,-32.85,-28.68,-26.47,-13.5,-46.79,-41.2,0,0,0,0,0,0,0,0,0,0,0,0,0,0,0,0,
440,-10.6,-26.45,26.39,7.627,-15.43,-32.18,-22.58,3.62,-2.522,-28.78,-20.68,-19.96,-17.82,-4.346,-34.85,-24.37,0,0,0,0,0,0,0,0,0,0,0,0,0,0,0,0,
441,-11.31,-30.37,-3.788,11.82,-15.16,-31.16,-39.37,-18.26,-24.3,-31,-26.86,-26.7,-18.94,-9.199,-23.64,-15.21,0,0,0,0,0,0,0,0,0,0,0,0,0,0,0,0,
442,-27.89,-36.09,-15.83,-12.51,-33.36,-37.16,-36.9,-35.1,-43.99,-36.44,-29.07,-26.85,-17.23,-12.05,-18.12,-12.3,0,0,0,0,0,0,0,0,0,0,0,0,0,0,0,0,
443,-21.63,-34.22,21.41,-22.45,-28.98,-34.85,-17.15,-17.98,-31.11,-29.36,-11.91,-9.462,-8.96,-4.761,-10.53,-6.623,0,0,0,0,0,0,0,0,0,0,0,0,0,0,0,0,
444,4.385,-23.11,19.73,4.282,-6.51,-15.33,-12.76,5.365,-14.14,-24.38,-0.1197,3.825,-10.2,-7.08,-3.117,-3.921,0,0,0,0,0,0,0,0,0,0,0,0,0,0,0,0,
445,7.297,-22.33,-10.79,20.56,-5.503,-7.725,-21.29,-2.323,-14.05,-29.46,-5.856,-1.293,-23.71,-25.4,-3.042,-10.32,0,0,0,0,0,0,0,0,0,0,0,0,0,0,0,0,
446,-7.094,-36.06,5.172,4.307,-12.62,-20.99,-23.85,-29.46,-19.75,-27.98,-11.55,-9.155,-31.95,-37.12,-5.134,-18,0,0,0,0,0,0,0,0,0,0,0,0,0,0,0,0,
447,-5.117,-40.81,48.87,8.965,-3.752,-19.03,-19.92,-21.66,-22.18,-24,-0.4609,3.792,-19.4,-23.28,3.93,-11.38,0,0,0,0,0,0,0,0,0,0,0,0,0,0,0,0,
448,12.53,-25.86,35.78,32.68,6.007,8.151,-4.487,4.264,-12.62,-31.66,17.95,25.58,-1.284,-7.503,23.16,9.383,0,0,0,0,0,0,0,0,0,0,0,0,0,0,0,0,
449,23.31,-16.49,-4.203,23.26,6.619,23.88,5.658,-5.816,10.38,-39.81,19.5,26.86,0.0003,-13.19,32.15,21.5,0,0,0,0,0,0,0,0,0,0,0,0,0,0,0,0,
450,22.38,-23.09,24.93,10.67,3.945,14.59,-3.494,-18.96,16.78,-36.54,4.475,13.49,-2.582,-14.97,20.74,15.16,0,0,0,0,0,0,0,0,0,0,0,0,0,0,0,0,
451,16.51,-21.3,60.08,20.39,1.303,1.153,-5.417,-14.49,-10.86,-35.39,-15.11,-2.617,-2.511,-7.686,-1.261,3.083,0,0,0,0,0,0,0,0,0,0,0,0,0,0,0,0,
452,0.4849,-14.96,21.59,14.82,-7.708,-8.432,-2.812,-25.46,-35.01,-40.56,-38.11,-24.6,-12.11,-14.48,-25.79,-8.845,0,0,0,0,0,0,0,0,0,0,0,0,0,0,0,0,
453,-16.38,-21.21,-4.007,5.229,-31.21,-12.77,-7.39,-26.72,-28.5,-31.55,-46.67,-32.34,-15.12,-15.08,-42.69,-16.91,0,0,0,0,0,0,0,0,0,0,0,0,0,0,0,0,
454,-11.26,-22.28,11.98,6.308,-43.94,-9.289,-2.39,-3.837,-22.91,-14.73,-29.38,-15.13,-5.088,-0.2659,-36.43,-10.87,0,0,0,0,0,0,0,0,0,0,0,0,0,0,0,0,
455,-0.8372,-17.79,-0.8329,-2.918,-22.51,-8.001,-7.552,-4.36,-32.34,-11.76,-13.08,-0.9017,-2.602,0.6001,-12.36,5.281,0,0,0,0,0,0,0,0,0,0,0,0,0,0,0,0,
456,-4.488,-24.43,-13.45,0.7181,-2.179,-11.41,-28.38,-28.35,-22.82,-10.15,-6.115,3.753,0.1412,0.1131,9.957,19.98,0,0,0,0,0,0,0,0,0,0,0,0,0,0,0,0,
457,-3.241,-27.04,11.05,14.51,-13.32,-15.41,-28.18,-39.33,-2.319,-8.88,5.315,11.34,9.848,16.38,24.29,32.38,0,0,0,0,0,0,0,0,0,0,0,0,0,0,0,0,
458,-0.9856,-23.87,19.92,-0.8365,-32.73,-21.89,-24.01,-36.88,-9.07,-27.25,3.84,8.568,4.698,18.05,28.06,38.23,0,0,0,0,0,0,0,0,0,0,0,0,0,0,0,0,
459,-14.23,-31.33,-2.425,-12.43,-38.41,-24.17,-35.58,-33.1,-20.8,-44.7,-14.2,-4.413,-10.39,0.1234,18.96,30.28,0,0,0,0,0,0,0,0,0,0,0,0,0,0,0,0,
460,-21.53,-34.43,-13.91,-0.765,-33.11,-21.09,-31.38,-27.93,-14.88,-38.84,-16.21,-3.261,-10.26,-3.924,10.15,19.71,0,0,0,0,0,0,0,0,0,0,0,0,0,0,0,0,
461,-14.62,-23.76,-7.247,-4.721,-24.83,-21.2,-17.8,-25.3,-19.66,-29.9,-4.846,5.978,1.373,4.069,11.8,20.51,0,0,0,0,0,0,0,0,0,0,0,0,0,0,0,0,
462,-13.33,-16.88,-5.809,-9.241,-23.22,-22.05,-21.35,-32.03,-33.25,-28.27,-4.674,4.42,8.065,3.933,15.56,26.09,0,0,0,0,0,0,0,0,0,0,0,0,0,0,0,0,
463,-18.01,-16.2,-0.403,5.502,-28.75,-21.73,-24.59,-32.46,-31.64,-21.36,-8.246,-0.4069,9.47,2.773,14.82,28.1,0,0,0,0,0,0,0,0,0,0,0,0,0,0,0,0,
464,-20.68,-14.21,17.68,4.989,-30.35,-22.98,-17.78,-20.51,-22.19,-13.63,-10.88,-5.346,8.53,5.415,9.101,27.94,0,0,0,0,0,0,0,0,0,0,0,0,0,0,0,0,
465,-25.77,-14.81,13.88,-7.836,-30.74,-28.24,-15.96,-23.57,-13.84,-16.63,-24.86,-20.59,-2.412,-2.903,-6.56,18.76,0,0,0,0,0,0,0,0,0,0,0,0,0,0,0,0,
466,-35.98,-21.89,-2.517,-2.344,-37.59,-37.28,-20.11,-36.13,-17.86,-26.19,-45.27,-38.76,-23.96,-22.43,-32.45,-6.384,0,0,0,0,0,0,0,0,0,0,0,0,0,0,0,0,
467,-41.1,-30.47,8.691,7.54,-35.96,-33.39,-24.83,-34.81,-37.71,-33.2,-50.7,-39,-31.64,-28.38,-51.02,-29.76,0,0,0,0,0,0,0,0,0,0,0,0,0,0,0,0,
468,-26.56,-25.83,16.67,9.9,-17.68,-12.72,-20.25,-26.02,-36.4,-30.77,-27.26,-13.4,-7.895,-7.39,-38.44,-24.13,0,0,0,0,0,0,0,0,0,0,0,0,0,0,0,0,
469,-2.216,-5.589,3.14,20.88,-3.782,-0.9613,0.1567,-7.332,-9.121,-24.73,1.316,13.08,16.54,13.17,-1.93,8.237,0,0,0,0,0,0,0,0,0,0,0,0,0,0,0,0,
470,0.8075,1.768,4.483,28.04,-7.733,-9.1,5.456,2.438,-5.113,-29.43,0.4773,11.87,11.47,9.355,21.61,37.72,0,0,0,0,0,0,0,0,0,0,0,0,0,0,0,0,
471,-15.9,-13.05,22.24,12.48,-16.98,-22.6,-16.62,-21.44,-23.31,-31.57,-4.872,6.822,5.234,6.397,25.15,51.06,0,0,0,0,0,0,0,0,0,0,0,0,0,0,0,0,
472,-13.49,-18.97,36.41,3.489,-14.17,-20.44,-22.23,-33.32,-19.25,-20.58,15.18,24.37,16.07,16.21,34.07,57.98,0,0,0,0,0,0,0,0,0,0,0,0,0,0,0,0,
473,9.556,-13.6,29.85,14.7,-6.096,-4.199,-11.48,-22.21,-1.43,-24.3,25.64,32.06,13.56,9.829,48.01,57.73,0,0,0,0,0,0,0,0,0,0,0,0,0,0,0,0,
474,10.27,-19.97,8.906,10.31,-12.9,-5.567,-19.6,-33.76,-5.74,-42.29,13.76,18.49,0.432,-5.951,49.48,45.9,0,0,0,0,0,0,0,0,0,0,0,0,0,0,0,0,
475,-6.648,-24.97,11.97,-8.028,-18.29,-15.17,-23.44,-47.16,-16.46,-42.59,13.94,17.97,3.135,-6.281,41.92,35.33,0,0,0,0,0,0,0,0,0,0,0,0,0,0,0,0,
476,-2.043,-18.95,19.19,-3.632,-3.111,-0.9358,-10.18,-36.47,-1.423,-29.84,15.13,19.4,3.236,-8.54,29.96,30.91,0,0,0,0,0,0,0,0,0,0,0,0,0,0,0,0,
477,4.092,-23.78,7.194,14.21,2.824,4.25,-12.7,-22.88,12.47,-26.07,-7.284,-2.283,-12.31,-19.53,8.223,20.39,0,0,0,0,0,0,0,0,0,0,0,0,0,0,0,0,
478,-12.61,-36.59,13.04,14.1,-16.28,-19.83,-25.14,-19.51,-10.63,-38.74,-25.35,-18.06,-17.83,-18.37,-12.1,6.319,0,0,0,0,0,0,0,0,0,0,0,0,0,0,0,0,
479,-24.81,-38.61,7.244,-2.772,-41.46,-37.59,-23.97,-31.92,-37.23,-50.37,-25.06,-16.97,-9.459,-11.3,-14.19,2.299,0,0,0,0,0,0,0,0,0,0,0,0,0,0,0,0,
480,-32.27,-36.55,-31.8,-15.82,-65.36,-48.69,-20.5,-34.61,-33.91,-35.57,-32.6,-26.85,-8.801,-13.11,-8.635,4.084,0,0,0,0,0,0,0,0,0,0,0,0,0,0,0,0,
481,-46.89,-38.3,-30.21,-14.31,-73.54,-56.35,-29.36,-19.75,-31.01,-26.55,-42.02,-35.45,-14.52,-13.64,-11.18,3.287,0,0,0,0,0,0,0,0,0,0,0,0,0,0,0,0,
482,-44.75,-38.22,-2.594,-5.632,-56.76,-44.06,-41.91,-34.52,-46.35,-48.24,-31.83,-23.17,-12.32,-6.221,-13.7,4.658,0,0,0,0,0,0,0,0,0,0,0,0,0,0,0,0,
483,-36.46,-32.5,-15.79,-0.994,-40.92,-40.23,-35.28,-44.5,-51.05,-42.48,-21.22,-14.32,-5.756,0.4386,-11.31,8.44,0,0,0,0,0,0,0,0,0,0,0,0,0,0,0,0,
484,-41.26,-21.13,-32.7,-2.553,-38.3,-51.72,-12.54,-4.22,-32.1,-3.941,-19.49,-11.93,0.212,5.193,-11.3,11.76,0,0,0,0,0,0,0,0,0,0,0,0,0,0,0,0,
485,-29,-12.02,-18.53,-6.686,-39.01,-44.22,-10.35,6.537,-15.53,-0.6858,-11.84,-1.582,6.119,10.09,-10.39,18.37,0,0,0,0,0,0,0,0,0,0,0,0,0,0,0,0,
486,-10.5,-14.91,1.668,-9.112,-38.84,-37.56,-27.33,-29.62,-23.73,-20.15,-13.03,-3.744,4.551,7.883,-8.918,21.18,0,0,0,0,0,0,0,0,0,0,0,0,0,0,0,0,
487,-20.41,-17.54,9.533,-7.959,-30.28,-44.1,-20.28,-33.07,-30.11,-14.36,-20.16,-9.983,6.721,4.627,-10.32,16.18,0,0,0,0,0,0,0,0,0,0,0,0,0,0,0,0,
488,-19.56,-0.6801,5.494,0.7424,-17.09,-24.4,4.489,-12,-11.28,-3.132,-4.106,7.982,25.69,12.27,-1.442,20.77,0,0,0,0,0,0,0,0,0,0,0,0,0,0,0,0,
489,8.34,16.05,1.288,15.92,-11.95,5.036,2.48,-7.681,-7.539,-9.995,3.506,13.38,28.73,12.25,12,32.44,0,0,0,0,0,0,0,0,0,0,0,0,0,0,0,0,
490,13.97,5.393,0.3182,22.49,-6.965,4.172,-11.79,-7.434,-24.89,-20.28,-18.54,-7.565,9.342,-1.908,5.245,29.04,0,0,0,0,0,0,0,0,0,0,0,0,0,0,0,0,
491,5.654,-3.046,13.57,18.17,2.895,0.0462,3.771,1.446,-12.75,-19.1,-16.03,-1.561,13.5,0.1043,-6.591,20.49,0,0,0,0,0,0,0,0,0,0,0,0,0,0,0,0,
492,17.09,13.38,42.81,14.03,9.696,11.42,25.71,11.1,8.22,-12.55,9.036,20.41,26.46,7.234,0.199,22.04,0,0,0,0,0,0,0,0,0,0,0,0,0,0,0,0,
493,22.13,12.53,33.86,9.692,12.11,9.264,15.95,7.002,0.398,-16.5,5.33,12.41,7.374,-11.56,5.422,18.17,0,0,0,0,0,0,0,0,0,0,0,0,0,0,0,0,
494,9.072,-10.25,-3.695,13.35,1.133,-6.199,-2.958,-0.2586,-2.405,-23.93,-5.394,0.3697,-6.208,-22.66,-2.972,6.682,0,0,0,0,0,0,0,0,0,0,0,0,0,0,0,0,
495,2.933,-7.812,11.66,30.65,-20.93,-7.339,-1.117,6.264,7.592,-16.46,1.037,5.431,9.619,-4.499,-5.756,6.45,0,0,0,0,0,0,0,0,0,0,0,0,0,0,0,0,
496,3.73,6.494,43.04,38.29,-21.08,-3.808,8.176,2.439,5.821,-5.559,-1.996,3.52,12.34,1.912,-2.505,11.94,0,0,0,0,0,0,0,0,0,0,0,0,0,0,0,0,
497,-0.6063,-2.067,21.13,27.89,-1.353,-16.14,2.065,-11.51,-1.616,-7.236,-12.9,-6.063,-2.375,-6.984,-6.681,5.666,0,0,0,0,0,0,0,0,0,0,0,0,0,0,0,0,
498,-9.697,-12.12,-9.479,11.49,-0.9978,-20.97,-10.08,-5.49,-12.32,-10.9,-14.71,-9.37,-2.705,-0.7024,-14.58,-5.849,0,0,0,0,0,0,0,0,0,0,0,0,0,0,0,0,
499,-13.97,-6.888,-10.3,-3.698,-11.04,-4.339,-4.344,1.12,-19.86,-9.712,-14.21,-7.581,5.214,9.922,-18.84,-8.333,0,0,0,0,0,0,0,0,0,0,0,0,0,0,0,0,
500,-5.116,-1.561,12.58,1.375,-0.0702,-1.188,4.614,-6.234,-12.64,-13.07,-14.23,-7.037,2.541,9.22,-19.12,-4.975,0,0,0,0,0,0,0,0,0,0,0,0,0,0,0,0,
501,1.042,-2.458,45.15,23.21,16.2,-13.46,-2.249,-0.2886,-9.532,-15.92,-12.1,-10.67,-2.815,10.06,-14.39,-3.493,0,0,0,0,0,0,0,0,0,0,0,0,0,0,0,0,
502,-4.063,-1.818,52.53,29.61,17.71,-4.591,1.45,15.94,-10.29,-3.763,-4.454,-6.491,5.819,22.32,-1.349,3.594,0,0,0,0,0,0,0,0,0,0,0,0,0,0,0,0,
503,-0.407,4.473,44.28,27.15,11.52,8.241,12.4,11.18,-0.5639,4.356,3.538,3.606,15.85,31.57,15.54,20.16,0,0,0,0,0,0,0,0,0,0,0,0,0,0,0,0,
504,3.123,-1.124,37.31,28.4,0.2038,-7.358,-5.13,-7.357,-5.859,-12.86,-11.55,-8.084,-1.602,14.62,15.22,24.49,0,0,0,0,0,0,0,0,0,0,0,0,0,0,0,0,
505,-12.58,-25.49,5.126,22.18,-8.213,-21.04,-21.16,3.354,-25.25,-18.68,-38.14,-28.49,-24.23,-9.893,-10.37,5.839,0,0,0,0,0,0,0,0,0,0,0,0,0,0,0,0,
506,-19.14,-31.77,-7.276,23,-0.8825,-9.078,-3.426,26.18,-19.47,5.114,-37.29,-24.75,-14.78,-6.266,-31.81,-9.469,0,0,0,0,0,0,0,0,0,0,0,0,0,0,0,0,
507,-7.045,-14.81,35.46,31.22,1.92,-6.387,7.577,3.937,-3.998,9.259,-21.93,-17.21,-3.31,3.308,-27.61,-7.386,0,0,0,0,0,0,0,0,0,0,0,0,0,0,0,0,
508,-7.934,-14.94,44.33,27.23,-12.08,-21.69,-0.6473,-12.67,-10.83,-6.58,-16.15,-18.75,-10.64,-3.366,-12.35,-4.234,0,0,0,0,0,0,0,0,0,0,0,0,0,0,0,0,
509,-9.433,-19.58,10.56,33.05,-6.061,-14.59,10.98,30.72,-15.54,2.11,-7.316,-8.524,-4.669,-1.859,-0.5489,-4.223,0,0,0,0,0,0,0,0,0,0,0,0,0,0,0,0,
510,8.651,-2.707,23.62,47.43,21.48,6.873,34.45,54.31,-7.565,14.48,-3.902,-3.545,3.321,1.831,2.597,-4.33,0,0,0,0,0,0,0,0,0,0,0,0,0,0,0,0,
511,11.88,2.748,53.5,40.85,17.22,3.128,30.46,36.85,-11.32,6.447,-13.99,-14.31,-10.87,-8.64,-4.993,-11.95,0,0,0,0,0,0,0,0,0,0,0,0,0,0,0,0,
512,-1.53,-7.891,42.62,44.39,-9.676,-0.3779,14.58,44.83,-13.4,8.366,-6.904,-6.418,-10.83,-5.949,-6.261,-17.9,0,0,0,0,0,0,0,0,0,0,0,0,0,0,0,0,
513,6.129,3.265,32.64,68.82,-2.979,15.91,24.94,52.75,-0.8997,25.64,8.173,8.657,11.64,9.615,7.281,-9.019,0,0,0,0,0,0,0,0,0,0,0,0,0,0,0,0,
514,12.29,21.56,39.3,64.42,24.25,10.45,41.27,35.01,-4.521,30.83,-10.06,-8.466,10.31,5.191,7.647,-2.976,0,0,0,0,0,0,0,0,0,0,0,0,0,0,0,0,
515,-10.85,14.49,38.19,41.35,26.45,-10.86,29.39,29.97,-26.25,19.8,-40.78,-34.37,-13.05,-7.492,-17.43,-14.63,0,0,0,0,0,0,0,0,0,0,0,0,0,0,0,0,
516,-31.16,-2.682,32.37,38.9,1.639,-15.25,9.497,30.76,-40.11,7.756,-47.84,-39.29,-19.6,-4.588,-38.93,-27,0,0,0,0,0,0,0,0,0,0,0,0,0,0,0,0,
517,-34.39,-11.41,17.11,39.76,-25.18,-24.7,4.097,28.73,-47.16,3.029,-46.81,-39.38,-13.15,-0.2938,-41.23,-27.16,0,0,0,0,0,0,0,0,0,0,0,0,0,0,0,0,
518,-32.97,-15.48,2.979,31.4,-30.29,-36.98,2.227,31,-51.52,2.512,-50.9,-43.42,-16.13,-5.022,-37.4,-24.74,0,0,0,0,0,0,0,0,0,0,0,0,0,0,0,0,
519,-29.31,-20.8,10.88,28.1,-25.39,-31.26,-4.526,15.37,-57.51,-0.8759,-52.25,-47.67,-26.29,-8.945,-35.6,-28.57,0,0,0,0,0,0,0,0,0,0,0,0,0,0,0,0,
520,-37.97,-30.14,7.318,28.54,-36.73,-35.89,-13.45,5.416,-71.71,-6.127,-50.21,-50.15,-31.42,-9.332,-34.68,-34.03,0,0,0,0,0,0,0,0,0,0,0,0,0,0,0,0,
521,-46.01,-31.64,-2.16,29.04,-34.62,-42.78,-10.99,30.5,-60.65,0.3121,-33.94,-33.77,-22.73,-4.503,-27.79,-28.86,0,0,0,0,0,0,0,0,0,0,0,0,0,0,0,0,
522,-18.09,-19.61,29.38,33.11,1.825,-17.39,3.095,39.86,-12.35,11.09,-4.853,-6.277,-10.25,1.45,-7.254,-10.56,0,0,0,0,0,0,0,0,0,0,0,0,0,0,0,0,
523,8.413,-22.14,43.14,36.17,17.7,0.6966,-0.9968,16.56,9.102,-0.4236,3.344,-2.495,-15.65,-5.745,14.85,4.522,0,0,0,0,0,0,0,0,0,0,0,0,0,0,0,0,
524,-7.306,-39.98,7.181,33.31,-6.068,-11.85,-12.28,12.27,-9.37,-8.121,-5.993,-8.837,-20.94,-12.08,21.54,6.457,0,0,0,0,0,0,0,0,0,0,0,0,0,0,0,0,
525,-16.24,-30.71,12.26,35.81,-14.61,-9.013,6.455,32.84,-5.502,16.64,-1.693,2.567,-1.82,-0.4525,18.57,5.92,0,0,0,0,0,0,0,0,0,0,0,0,0,0,0,0,
526,4.352,-1.663,51.43,53.82,9.113,9.698,27.14,48.64,11.82,24.02,4.744,11.53,12.84,3.662,16.77,9.713,0,0,0,0,0,0,0,0,0,0,0,0,0,0,0,0,
527,11.37,7.188,58.97,68.96,31.4,11.62,26.77,55.06,3.335,4.155,5.259,11.46,9.031,-6.356,17.84,13.23,0,0,0,0,0,0,0,0,0,0,0,0,0,0,0,0,
528,9.247,7.896,66.56,71.7,37.56,15.54,38.69,59.6,-2.207,9.314,15.38,19.78,13.22,-0.3975,21.11,14.87,0,0,0,0,0,0,0,0,0,0,0,0,0,0,0,0,
529,23.23,16.35,74.34,81.24,37.46,31.56,54.41,67.88,1.981,21.83,21.47,24.91,20.95,15.73,21.16,14.35,0,0,0,0,0,0,0,0,0,0,0,0,0,0,0,0,
530,28.16,14.47,58.39,86.55,36.14,26.86,43.06,65.15,-5.021,16.53,14.43,18.19,14.04,15.35,15.64,7.835,0,0,0,0,0,0,0,0,0,0,0,0,0,0,0,0,
531,12.39,2.687,43.16,64.62,24.66,5.614,24.48,34.11,-4.003,19.89,5.671,6.157,-2.265,3.396,7.438,-7.138,0,0,0,0,0,0,0,0,0,0,0,0,0,0,0,0,
532,-4.406,-12.71,23.2,37.55,-1.543,-4.814,9.015,8.693,-4.556,18.74,-12.11,-16.36,-23.06,-5.42,-7.995,-27.46,0,0,0,0,0,0,0,0,0,0,0,0,0,0,0,0,
533,-24.74,-39.74,15.95,17.95,-26.09,-22.58,-17.76,11.21,-29.5,-1.187,-32.98,-39.83,-41.76,-11.27,-28.82,-45.19,0,0,0,0,0,0,0,0,0,0,0,0,0,0,0,0,
534,-46.59,-62.3,19.45,-12.12,-34.17,-54.41,-41.28,-1.557,-42.64,-5.968,-37.39,-47.22,-50.59,-17.61,-40.16,-53.67,0,0,0,0,0,0,0,0,0,0,0,0,0,0,0,0,
535,-52.09,-65.34,-32.83,-38.54,-37.21,-65.87,-50.77,-33.38,-35.8,3.619,-38.26,-48,-54.54,-20.25,-40.35,-52.57,0,0,0,0,0,0,0,0,0,0,0,0,0,0,0,0,
536,-51.91,-67.37,-69.79,-37.32,-49.73,-58.57,-61.32,-37.03,-43.87,-2.482,-45.56,-50.27,-54.97,-15.21,-40.48,-46.88,0,0,0,0,0,0,0,0,0,0,0,0,0,0,0,0,
537,-53.8,-70.11,-30.86,-25.06,-55.68,-51.9,-66.11,-18.51,-51.39,-10.28,-40.35,-41.89,-46.12,-7.459,-38.83,-39.06,0,0,0,0,0,0,0,0,0,0,0,0,0,0,0,0,
538,-38.71,-55.97,-27.47,-16.74,-32.66,-35.2,-47.7,-11.6,-30.88,3.269,-12.93,-15.32,-28.41,-1.033,-22.61,-23.47,0,0,0,0,0,0,0,0,0,0,0,0,0,0,0,0,
539,-13.55,-36.31,-32.16,-2.653,2.309,-15.32,-20.86,-15.37,-0.5124,9.975,22.11,15.32,-9.432,4.117,8.663,0.6216,0,0,0,0,0,0,0,0,0,0,0,0,0,0,0,0,
540,5.495,-25.66,31.35,9.641,23.78,-2.894,-4.255,-8.226,18.46,-7.645,42.05,30.38,1.074,4.572,35.77,20.19,0,0,0,0,0,0,0,0,0,0,0,0,0,0,0,0,
541,27.55,-15.22,57.01,14.37,38.09,18.24,7.676,18.95,25.52,-4.429,43.9,33.9,1.921,-1.628,42.81,25.99,0,0,0,0,0,0,0,0,0,0,0,0,0,0,0,0,
542,39.33,-6.974,33.26,32.02,43.85,33.15,16.8,35.05,24.29,19.38,41.37,34.95,-2.136,-8.955,34,20.71,0,0,0,0,0,0,0,0,0,0,0,0,0,0,0,0,
543,23.23,-13.37,31.55,50.04,28.62,20.92,16.64,22.35,19.92,4.324,32.92,26.01,-9.168,-9.939,19.31,8.88,0,0,0,0,0,0,0,0,0,0,0,0,0,0,0,0,
544,9.567,-25.36,23.33,40.86,11.51,10.39,14.51,16.71,19.71,-23.71,20.62,14.9,-10.44,-2.352,6.623,-1.655,0,0,0,0,0,0,0,0,0,0,0,0,0,0,0,0,
545,12.97,-22.49,25.91,30.11,11.41,14.47,18.04,24.07,18.21,-5.132,18.94,15.03,-1.086,8.135,3.93,-2.194,0,0,0,0,0,0,0,0,0,0,0,0,0,0,0,0,
546,6.829,-9.12,46.51,37.02,15.88,13.8,21.28,25.24,7.274,22.1,16.35,12.18,1.407,10.58,5.848,0.2616,0,0,0,0,0,0,0,0,0,0,0,0,0,0,0,0,
547,-6.49,-10.07,29.03,41.8,10.66,11.59,20.14,36.95,2.932,18.49,2.49,1.942,-8.498,4.976,0.0577,-6.633,0,0,0,0,0,0,0,0,0,0,0,0,0,0,0,0,
548,-6.492,-19,14.55,43.05,1.985,13.22,20.94,51.61,9.976,17.75,-1.13,1.72,-7.705,8.442,-7.637,-14.28,0,0,0,0,0,0,0,0,0,0,0,0,0,0,0,0,
549,2.358,-9.498,31.67,44.41,10.75,14.83,29.96,45.42,9.187,32.08,12.63,12.02,7.179,24.02,-4.072,-7.397,0,0,0,0,0,0,0,0,0,0,0,0,0,0,0,0,
550,15.75,6.371,24.56,40.17,32.59,27.32,43.35,43.66,18.17,41.06,33.39,30.02,23.11,40.12,13.33,12.05,0,0,0,0,0,0,0,0,0,0,0,0,0,0,0,0,
551,41.66,20.63,14.03,43.3,46.26,57.89,61.35,65.52,57.29,62.51,66.03,64.9,51.51,64.57,45.54,39.57,0,0,0,0,0,0,0,0,0,0,0,0,0,0,0,0,
552,83.71,57.59,52.55,69.33,72.2,100.1,93.13,90.4,92.72,108.8,107.7,107.2,91.04,98.46,89.16,75.65,0,0,0,0,0,0,0,0,0,0,0,0,0,0,0,0,
553,125.8,96.19,101.6,106.9,112,129.1,119,95.9,106.6,132.7,131.6,126,106.2,113.5,124.7,106.7,0,0,0,0,0,0,0,0,0,0,0,0,0,0,0,0,
554,125.6,88.99,94.59,104,100.7,100.4,98.58,75.76,96.33,101.1,108.9,98.13,79.23,91.66,125.1,106.7,0,0,0,0,0,0,0,0,0,0,0,0,0,0,0,0,
555,65.21,38.97,33.33,28.62,23.67,18.57,35.8,39.1,29.39,39.88,41.38,33.51,24.79,41.17,77.88,64.61,0,0,0,0,0,0,0,0,0,0,0,0,0,0,0,0,
556,-4.567,-21.11,-27.95,-44.74,-45.52,-39.48,-22.39,-6.412,-51.47,-10.03,-17.57,-17.97,-20.74,-4.329,10.47,6.09,0,0,0,0,0,0,0,0,0,0,0,0,0,0,0,0,
557,-23.08,-49.79,-55.08,-38.14,-49.32,-31.44,-39.16,-31.27,-50.54,-15.87,-20.8,-18.44,-21.12,-7.451,-24.53,-24.05,0,0,0,0,0,0,0,0,0,0,0,0,0,0,0,0,
558,2.885,-28.45,-40.5,-2.39,-12.33,-3.855,-16.84,0.5621,-8.53,12.26,3.989,4.783,2.762,12.39,-12.28,-14.58,0,0,0,0,0,0,0,0,0,0,0,0,0,0,0,0,
559,22.44,-4.044,-2.045,-4.816,-1.627,-2.397,4.993,34.13,-16.39,24.55,10.44,8.638,3.113,8.378,10.9,2.261,0,0,0,0,0,0,0,0,0,0,0,0,0,0,0,0,
560,19.82,-10.48,12.94,-17.49,-14.42,-6.916,1.25,9.934,-34.84,15.52,6.143,2.849,-9.196,-9.512,16.89,3.478,0,0,0,0,0,0,0,0,0,0,0,0,0,0,0,0,
561,21.49,-18.71,-4.287,-7.538,1.732,5.505,-6.298,-11.79,-16.24,13.63,10.43,8.977,-7.56,-11.78,11.12,-3.404,0,0,0,0,0,0,0,0,0,0,0,0,0,0,0,0,
562,28.81,-17.93,-18.6,-0.4296,21.65,9.958,-1.161,5.736,-6.223,15.7,10.26,8.818,-11.74,-12.27,0.8809,-11.83,0,0,0,0,0,0,0,0,0,0,0,0,0,0,0,0,
563,20.28,-23.64,-17.07,-6.398,8.69,-6.162,4.35,17.94,-25.51,10.64,-1.037,-5.899,-27.51,-21.73,-13.31,-22.72,0,0,0,0,0,0,0,0,0,0,0,0,0,0,0,0,
564,7.522,-29.04,-11.47,-2.149,-7.368,-17.93,2.165,18.13,-37.98,3.281,-6.305,-10.66,-27.68,-20.9,-20.57,-26.43,0,0,0,0,0,0,0,0,0,0,0,0,0,0,0,0,
565,7.018,-30.8,-23.33,-4.445,-23.91,-18.66,-9.076,11.39,-26.05,-1.316,-3.725,-5.784,-19.53,-11.98,-13.21,-17.71,0,0,0,0,0,0,0,0,0,0,0,0,0,0,0,0,
566,9.295,-37.12,-42.61,-29.02,-45.47,-17.1,-21.82,-4.242,-0.0375,-5.886,0.2934,-3.385,-20.97,-10.47,-0.7703,-7.637,0,0,0,0,0,0,0,0,0,0,0,0,0,0,0,0,
567,18.58,-38.01,-15.43,-21.8,-27.31,-6.795,-16.69,-0.7876,20.44,-10.93,16.32,10.63,-12.13,-6.188,12.07,1.481,0,0,0,0,0,0,0,0,0,0,0,0,0,0,0,0,
568,40.46,-25.83,31.11,22.02,23.28,10.36,1.194,12.05,19.23,-4.896,36.48,30.71,9.061,4.566,27.97,16.07,0,0,0,0,0,0,0,0,0,0,0,0,0,0,0,0,
569,53.23,-14.3,15.46,26.35,44.06,18.62,7.968,6.311,5.728,4.802,39.17,34.66,17.52,10.26,38.38,29.71,0,0,0,0,0,0,0,0,0,0,0,0,0,0,0,0,
570,49.55,-12.38,-11.6,0.6323,30.05,15.96,3.977,3.258,-0.4342,-0.5005,31.27,29.13,13.92,11.04,34.42,32.46,0,0,0,0,0,0,0,0,0,0,0,0,0,0,0,0,
571,42.9,-17.28,13.43,2.24,20.79,16.86,2.907,11.21,-0.8579,-4.108,21.75,20.58,6.643,9.495,19.95,22.18,0,0,0,0,0,0,0,0,0,0,0,0,0,0,0,0,
572,36.63,-22.88,15.85,4.419,24.26,25.57,10.22,15.1,-2.216,5.41,9.332,6.529,-3.763,10.5,5.541,4.539,0,0,0,0,0,0,0,0,0,0,0,0,0,0,0,0,
573,28.08,-20.73,-9.784,-3.992,12.1,16.13,18.26,17.05,-8.099,12.4,-3.767,-8.979,-14.86,12.06,-4.354,-10.22,0,0,0,0,0,0,0,0,0,0,0,0,0,0,0,0,
574,8.134,-17.53,4.914,6.231,-23.13,-22.37,10.06,10.63,-33.15,16.89,-25.49,-30.07,-29.89,3.488,-19.7,-21.75,0,0,0,0,0,0,0,0,0,0,0,0,0,0,0,0,
575,-21.41,-23.69,-0.3389,0.1564,-44.15,-49.9,-6.021,-3.948,-62.5,18.73,-45.32,-45.85,-37.41,3.368,-40.1,-31.07,0,0,0,0,0,0,0,0,0,0,0,0,0,0,0,0,
576,-33.17,-28.41,-46.79,-30.75,-36.95,-48.79,-9.918,-2.119,-56.31,14.83,-39.92,-39.36,-28.56,18.7,-44.76,-29.92,0,0,0,0,0,0,0,0,0,0,0,0,0,0,0,0,
577,-26.14,-30.35,-46.96,-28.71,-32.62,-46.52,-11.69,13.15,-34.51,14.09,-28.84,-29.02,-26.4,15.69,-33.35,-23.29,0,0,0,0,0,0,0,0,0,0,0,0,0,0,0,0,
578,-23.46,-39.25,-35.86,-11.96,-37.47,-42.78,-15.67,9.563,-37.46,7.912,-30.19,-27.02,-34.26,-3.704,-26.51,-23.85,0,0,0,0,0,0,0,0,0,0,0,0,0,0,0,0,
579,-20.31,-44.3,-56.4,-20.83,-35.14,-32.09,-11.24,-11.43,-46.06,-8.23,-28.5,-22.67,-35.17,-15.37,-27.64,-28.49,0,0,0,0,0,0,0,0,0,0,0,0,0,0,0,0,
580,-8.136,-40.51,-31.2,-15.7,-28.8,-27.27,-5.91,-12.66,-39.72,-17.22,-19.41,-13.69,-32.41,-22.79,-25.81,-29.27,0,0,0,0,0,0,0,0,0,0,0,0,0,0,0,0,
581,10.38,-35.76,10.81,4.491,-18.07,-8.128,0.2016,5.42,-24.82,-20.33,-2.818,3.711,-25.81,-23.41,-14.86,-20.82,0,0,0,0,0,0,0,0,0,0,0,0,0,0,0,0,
582,29.52,-30.23,-7.14,-3.003,-0.8233,21.24,9.854,7.653,-8.632,-22.67,13.94,18.91,-19.15,-21.55,-2.355,-5.757,0,0,0,0,0,0,0,0,0,0,0,0,0,0,0,0,
583,26.99,-31.41,-14.42,-11.36,5.379,13.69,6.368,2.284,-8.299,-18.2,12.03,13.69,-24.62,-29.98,-2.624,0.1413,0,0,0,0,0,0,0,0,0,0,0,0,0,0,0,0,
584,8.672,-37.07,15.6,2.778,1.686,-6.494,-4.783,5.9,-12.33,-13.96,6.45,7.172,-26.81,-30.79,-11.46,-4.615,0,0,0,0,0,0,0,0,0,0,0,0,0,0,0,0,
585,11.01,-28.5,7.41,9.202,8.13,6.312,0.2359,-3.418,3.776,-15.82,12.11,11.62,-17.86,-18.75,-15.7,-5.424,0,0,0,0,0,0,0,0,0,0,0,0,0,0,0,0,
586,23.26,-16.32,-17.57,3.411,7.423,16.1,12.66,-15.49,9.797,-21.32,10.51,8.704,-16.72,-15.02,-17.76,-3.564,0,0,0,0,0,0,0,0,0,0,0,0,0,0,0,0,
587,15.97,-21.07,-12.11,-5.021,-22,-4.141,5.15,-7.597,-10.36,-23.6,-0.2011,-1.457,-23.33,-18,-23.45,-8.489,0,0,0,0,0,0,0,0,0,0,0,0,0,0,0,0,
588,-2.413,-30.79,-6.041,-15.05,-43.8,-26.01,-16.38,-7.952,-30.07,-8.49,-13.62,-14.18,-28.19,-18.92,-35.1,-20.12,0,0,0,0,0,0,0,0,0,0,0,0,0,0,0,0,
589,-18.1,-32.42,-15.08,-16.78,-30.89,-35.19,-21.52,-19.02,-49.1,9.505,-30.48,-29.86,-31.45,-18.48,-51.78,-34.25,0,0,0,0,0,0,0,0,0,0,0,0,0,0,0,0,
590,-25.35,-33.86,-41.06,-22.53,-23.54,-37.82,-17.14,-11.37,-62.53,5.789,-35.79,-34.89,-31.01,-13.1,-60.85,-42.86,0,0,0,0,0,0,0,0,0,0,0,0,0,0,0,0,
591,-27.9,-39.6,-66.3,-40.99,-44.88,-42.16,-28.19,-4.133,-60.35,3.379,-34.13,-35.87,-33.89,-10.43,-58.48,-44.19,0,0,0,0,0,0,0,0,0,0,0,0,0,0,0,0,
592,-40.34,-44.6,-55.02,-47.34,-65.32,-53.43,-40.66,-14.2,-62.51,15.23,-45.75,-48.85,-45.33,-20.21,-60.25,-49.6,0,0,0,0,0,0,0,0,0,0,0,0,0,0,0,0,
593,-51.63,-47.68,-60.91,-42.61,-68.63,-58.83,-41.83,-20.45,-62.56,11.76,-56.23,-56.51,-50.47,-29.67,-69.7,-59.85,0,0,0,0,0,0,0,0,0,0,0,0,0,0,0,0,
594,-44.47,-49.1,-101.4,-43.79,-56.45,-50.13,-40.88,-20.29,-53.13,-2.51,-51.57,-49.91,-48.26,-31.56,-73.75,-62.27,0,0,0,0,0,0,0,0,0,0,0,0,0,0,0,0,
595,-38.12,-47.38,-76.19,-40.46,-37.93,-45.78,-38.63,-20.48,-53.29,-4.321,-43.29,-45.79,-51.49,-35.2,-65.85,-55.01,0,0,0,0,0,0,0,0,0,0,0,0,0,0,0,0,
596,-43.44,-45.49,-21.83,-33.07,-36.92,-50.94,-37.75,-22.43,-40.31,-4.819,-36.02,-42.83,-49.96,-37.18,-49.93,-44.94,0,0,0,0,0,0,0,0,0,0,0,0,0,0,0,0,
597,-38.95,-43.87,-45.38,-38.96,-48.09,-42.51,-34,-30.25,-14.84,-11.96,-34.21,-36.59,-40.25,-36.93,-37.94,-38.21,0,0,0,0,0,0,0,0,0,0,0,0,0,0,0,0,
598,-22.58,-40.46,-76.5,-50.19,-47.62,-24.57,-22.36,-24.41,-22.24,-19.36,-37.11,-32.9,-38.54,-44.05,-37.53,-37.91,0,0,0,0,0,0,0,0,0,0,0,0,0,0,0,0,
599,-8.26,-35.3,-48.05,-36.76,-35.21,-17.93,-14.22,3.74,-27.45,-19.73,-23.21,-19.25,-31.39,-43.42,-35.17,-33.1,0,0,0,0,0,0,0,0,0,0,0,0,0,0,0,0,
600,10.22,-21.33,-15.08,1.951,-9.149,-6.633,0.8011,20.73,2.106,-6.319,1.804,4.666,-8.412,-26.86,-18.57,-14.31,0,0,0,0,0,0,0,0,0,0,0,0,0,0,0,0,
601,25.39,-4.965,-2.135,20.08,14.42,7.975,19.49,15.97,10.32,1.742,4.377,9.152,-0.841,-19.93,-1.74,2.499,0,0,0,0,0,0,0,0,0,0,0,0,0,0,0,0,
602,12.88,-7.595,3.633,2.631,-0.1493,-6.603,6.319,8.549,-5.483,-4.024,-12.74,-7.607,-12.45,-25.79,-1.194,1.728,0,0,0,0,0,0,0,0,0,0,0,0,0,0,0,0,
603,-10.75,-17.86,-3.365,-12.56,-33,-29.45,-13.64,0.7584,-10.35,3.429,-25.45,-20.27,-15.26,-27.21,-13.49,-7.961,0,0,0,0,0,0,0,0,0,0,0,0,0,0,0,0,
604,-15.84,-15.81,-33.89,-15.54,-44.73,-26.05,-4.502,-4.382,-24.49,14.67,-28.6,-21.57,-11.54,-26.78,-25.33,-12.79,0,0,0,0,0,0,0,0,0,0,0,0,0,0,0,0,
605,-11.37,-15.77,-65.52,-17.93,-38.46,-18.76,0.4552,-1.587,-35.88,1.076,-23.56,-16.65,-11.17,-26.53,-25.66,-9.149,0,0,0,0,0,0,0,0,0,0,0,0,0,0,0,0,
606,-10.61,-25.98,-50.22,-16.86,-26.69,-26.68,-9.5,-4.211,-19.92,-24.35,-19.28,-13.93,-10.77,-25.9,-15.48,-3.636,0,0,0,0,0,0,0,0,0,0,0,0,0,0,0,0,
607,-11.42,-34.17,-21.76,-19.97,-22.48,-29.82,-12.89,-16.53,-14.2,-44.22,-23.58,-16.32,-10.9,-28.81,-7.938,-4.075,0,0,0,0,0,0,0,0,0,0,0,0,0,0,0,0,
608,-10.19,-34.6,-39.44,-27.29,-27.21,-16.17,-18,-27.66,-28.85,-48.53,-25.95,-15.29,-10.2,-29.29,-10.82,-7.416,0,0,0,0,0,0,0,0,0,0,0,0,0,0,0,0,
609,-8.145,-32.26,-52.88,-33.25,-29.41,-11,-26.84,-37.19,-37.83,-33.49,-27.48,-15.83,-10.47,-27.39,-19.1,-9.55,0,0,0,0,0,0,0,0,0,0,0,0,0,0,0,0,
610,-14.26,-35.49,-33.59,-46.86,-41.41,-26.27,-29.95,-39.71,-42.89,-18.53,-31.52,-17.2,-6.37,-22.12,-21.55,-9.381,0,0,0,0,0,0,0,0,0,0,0,0,0,0,0,0,
611,-13.65,-29.62,-31.96,-45.4,-50.92,-18.8,-23.5,-21.82,-33.95,-8.164,-18.12,1.344,16.67,-2.764,-9.412,1.541,0,0,0,0,0,0,0,0,0,0,0,0,0,0,0,0,
612,11.09,-1.899,-37.47,-11.31,-31.19,12.44,-4.296,3.477,-6.792,2.3,-2.058,17.02,32.43,6.898,6.373,18.05,0,0,0,0,0,0,0,0,0,0,0,0,0,0,0,0,
613,17.12,8.985,-24.69,10.52,-20.79,1.721,4.656,15.65,-10.25,4.057,-24.48,-10.24,10.68,-15.43,0.723,14.84,0,0,0,0,0,0,0,0,0,0,0,0,0,0,0,0,
614,-18.29,-13.09,-18.21,2.42,-33.45,-38.18,-8.854,15.67,-58.39,6.848,-59.42,-46.17,-12.31,-30.76,-24.89,-8.264,0,0,0,0,0,0,0,0,0,0,0,0,0,0,0,0,
615,-38.46,-24.65,-23.6,-2.452,-28.02,-42.31,-14.19,6.158,-80.52,8.653,-57.44,-44.45,-9.075,-22.11,-39.13,-23.22,0,0,0,0,0,0,0,0,0,0,0,0,0,0,0,0,
616,-26.07,-22.98,-33.81,-7.422,-27.33,-27.72,-10.15,-1.147,-40.75,-11.24,-36.1,-28.07,-10.41,-28.39,-29.77,-24.02,0,0,0,0,0,0,0,0,0,0,0,0,0,0,0,0,
617,-20.41,-36.58,-38.68,-23.38,-50,-26.76,-17.72,5.133,-5.538,-31.49,-27.76,-23.92,-26.63,-48.34,-16.71,-27.97,0,0,0,0,0,0,0,0,0,0,0,0,0,0,0,0,
618,-18.4,-49.03,-23.73,-19.58,-43.73,-20.85,-20.25,4.521,-14.98,-31.93,-26.19,-22.52,-37.08,-52.49,-15.03,-39.16,0,0,0,0,0,0,0,0,0,0,0,0,0,0,0,0,
619,-6.864,-44.76,-20.84,2.122,-17.09,-10.14,-12.54,-4.165,-20.43,-33.23,-24.28,-21.09,-37.93,-48.45,-19.48,-45.87,0,0,0,0,0,0,0,0,0,0,0,0,0,0,0,0,
620,-7.199,-38.98,-42.11,-4.681,-23.12,-15.49,-16.16,-2.578,-8.388,-36.47,-24.76,-23.43,-34.9,-46.41,-20.66,-40.88,0,0,0,0,0,0,0,0,0,0,0,0,0,0,0,0,
621,-19.9,-38.8,-36.39,-29.29,-32.56,-27.89,-25.17,-5.991,-8.414,-29.42,-20.9,-21.98,-31.94,-42.6,-15.39,-29.54,0,0,0,0,0,0,0,0,0,0,0,0,0,0,0,0,
622,-22.68,-40.98,-18.77,-27.29,-6.496,-26.71,-27.58,-8.983,-2.761,-25.04,-9.063,-13.65,-28.38,-39.62,-5.355,-20.1,0,0,0,0,0,0,0,0,0,0,0,0,0,0,0,0,
623,-13.77,-39.81,-41.1,-20.91,15.84,-13.88,-32.19,3.592,15.11,-24.7,1.693,-3.094,-18.63,-36.97,5.347,-14.4,0,0,0,0,0,0,0,0,0,0,0,0,0,0,0,0,
624,-3.032,-30.16,-51.62,-30.78,5.318,-7.361,-34.41,0.4514,15.83,-13.73,5.726,5.774,-9.317,-32.88,12.02,-12.87,0,0,0,0,0,0,0,0,0,0,0,0,0,0,0,0,
625,0.906,-19.32,-18.62,-25,-5.632,-11.89,-24.59,-16.22,11.39,-9.199,6.142,7.906,-9.479,-28.79,12.37,-15.78,0,0,0,0,0,0,0,0,0,0,0,0,0,0,0,0,
626,-5.264,-18.8,-19,-22.16,-8.949,-16.16,-24.83,-25.6,14.21,-31.05,1.689,0.2212,-17.07,-28,7.294,-20.97,0,0,0,0,0,0,0,0,0,0,0,0,0,0,0,0,
627,-13.04,-31.41,-54.53,-55.01,-30.88,-21.52,-45.48,-48.39,-0.7665,-47.11,-9.766,-11.37,-27.83,-32.58,-1.125,-27.89,0,0,0,0,0,0,0,0,0,0,0,0,0,0,0,0,
628,-18.65,-43.9,-57.08,-74.01,-42.93,-31.05,-48.16,-56.61,-21.06,-29.91,-17.46,-16.3,-30.65,-30.6,-8.464,-31.59,0,0,0,0,0,0,0,0,0,0,0,0,0,0,0,0,
629,-21.29,-37.5,-55.05,-51.63,-15.31,-28.31,-28.9,-22.39,-13.24,-11.12,-14.55,-14,-21.92,-21.5,-10.01,-25.59,0,0,0,0,0,0,0,0,0,0,0,0,0,0,0,0,
630,-16.73,-21.43,-75.25,-37.3,-4.394,-16.79,-31.88,-7.627,5.674,-13.61,-12.5,-13.92,-16.58,-22.82,-7.829,-17.51,0,0,0,0,0,0,0,0,0,0,0,0,0,0,0,0,
631,-15.64,-16.13,-62.77,-50.06,-28.76,-16.28,-38.76,-18.54,11.4,-11.84,-17.52,-16.63,-16.33,-27.05,-8.845,-16.12,0,0,0,0,0,0,0,0,0,0,0,0,0,0,0,0,
632,-17.51,-13.52,-24.17,-55.53,-21.4,-12.65,-15.01,-1.781,9.187,5.46,-20.85,-14.39,-14.58,-23.65,-15.71,-17.46,0,0,0,0,0,0,0,0,0,0,0,0,0,0,0,0,
633,-5.995,-6.179,-17.26,-37.1,8.812,0.9243,-0.248,7.658,0.9577,11.83,-17.52,-7.177,-15.9,-25.23,-22.28,-18.86,0,0,0,0,0,0,0,0,0,0,0,0,0,0,0,0,
634,1.165,-5.845,-36.07,-22.89,4.649,1.857,-8,-19.71,-4.669,-2.959,-13.32,-1.638,-18.26,-30.96,-22.36,-21.91,0,0,0,0,0,0,0,0,0,0,0,0,0,0,0,0,
635,-10,-12.22,-51.77,-33.33,-10.61,-4.861,-8.242,-30.37,3.381,-16.68,-14,-2.452,-19,-32.53,-20.35,-24.95,0,0,0,0,0,0,0,0,0,0,0,0,0,0,0,0,
636,-15.83,-16.22,-51.16,-38.02,-12.37,-7.208,-6.611,-9.14,2.943,-18.21,-13.64,-5.133,-18.71,-32.61,-17.9,-23.83,0,0,0,0,0,0,0,0,0,0,0,0,0,0,0,0,
637,-15.89,-13.65,-33.35,-21.62,-13.69,-9.763,3.926,8.782,-12.23,-14.51,-10.37,-4.691,-13.89,-32.9,-8.931,-18.05,0,0,0,0,0,0,0,0,0,0,0,0,0,0,0,0,
638,-21.46,-4.823,-28.29,-16.82,-6.921,-2.626,25,10.43,-8.753,-10.22,-15.41,-6.679,-10.39,-33.97,-0.0849,-14.4,0,0,0,0,0,0,0,0,0,0,0,0,0,0,0,0,
639,-19.89,-1.58,-33.65,-26.29,1.479,7.574,12.72,4.055,8.023,-13.12,-20.49,-8.048,-6.431,-28.28,2.608,-11.73,0,0,0,0,0,0,0,0,0,0,0,0,0,0,0,0,
640,-14.25,-6.661,-17.22,-26.27,-4.401,-0.0357,-15.72,3.042,0.6556,-20.01,-12.78,-2.805,4.719,-14.59,9.421,-0.209,0,0,0,0,0,0,0,0,0,0,0,0,0,0,0,0,
641,-20.54,-9.686,-21.14,-27.55,-13.95,-13.82,-15.54,-0.9646,-22.07,-15.92,-13.65,-7.167,3.104,-13.03,14.43,10.91,0,0,0,0,0,0,0,0,0,0,0,0,0,0,0,0,
642,-39.79,-18.53,-68.66,-41.47,-25.9,-28.71,-20.68,-25.01,-34.11,-13.06,-32.65,-25.63,-14.26,-23.1,1.512,5.913,0,0,0,0,0,0,0,0,0,0,0,0,0,0,0,0,
643,-60.63,-34.43,-85.62,-52.83,-43.49,-49.88,-44.3,-44.11,-45.36,-24.8,-44.66,-36.22,-19.37,-24.97,-15.92,-5.997,0,0,0,0,0,0,0,0,0,0,0,0,0,0,0,0,
644,-61.79,-36.06,-67.69,-54.46,-55.26,-52.65,-44.32,-40.18,-53.93,-32.85,-41.84,-35.57,-15.87,-23.03,-19.03,-10.06,0,0,0,0,0,0,0,0,0,0,0,0,0,0,0,0,
645,-45.86,-29.66,-67.07,-54.2,-51.49,-37.12,-31.82,-39.19,-36.64,-34.2,-39.8,-39.32,-23.6,-28.2,-16.51,-10.47,0,0,0,0,0,0,0,0,0,0,0,0,0,0,0,0,
646,-44.39,-35.7,-60.36,-60.05,-35.32,-41.69,-42.71,-47.03,-22.9,-40.95,-47.2,-50.3,-35.24,-35.87,-23.05,-17.5,0,0,0,0,0,0,0,0,0,0,0,0,0,0,0,0,
647,-58.03,-43.14,-52.83,-70.71,-34.15,-64.72,-61.52,-48.53,-45.27,-39.89,-52.66,-55.15,-39.52,-39.15,-35.64,-27.69,0,0,0,0,0,0,0,0,0,0,0,0,0,0,0,0,
648,-58.33,-40.77,-78.21,-74.06,-52.97,-72.06,-64.93,-41.93,-52.02,-28.62,-38.59,-40.71,-34.94,-36.26,-39.07,-26.63,0,0,0,0,0,0,0,0,0,0,0,0,0,0,0,0,
649,-37.69,-36.48,-87.43,-63.49,-49.79,-58.67,-62.02,-29.84,-15.17,-29.26,-14.31,-15.19,-23.24,-30.73,-26.63,-11.49,0,0,0,0,0,0,0,0,0,0,0,0,0,0,0,0,
650,-9.593,-30,-62.48,-49.25,-21.69,-38.52,-55.89,-25.71,8.493,-33.81,1.706,4.11,-9.116,-25.08,-6.837,5.648,0,0,0,0,0,0,0,0,0,0,0,0,0,0,0,0,
651,12.92,-14.66,-48.94,-48.13,-3.99,-15.02,-33.84,-30.75,5.981,-17.02,13.01,17.81,9.126,-16.96,11.91,18.41,0,0,0,0,0,0,0,0,0,0,0,0,0,0,0,0,
652,29.29,10.34,-41.18,-52.35,6.965,13.35,-6.926,-20.28,16.36,9.385,24.44,33.43,35.63,-3.439,26.33,30.59,0,0,0,0,0,0,0,0,0,0,0,0,0,0,0,0,
653,46.56,39.54,-25.22,-35.39,22.28,41.77,10.2,1.409,35.16,19.17,35.07,48.13,60.23,13.09,35.78,44.13,0,0,0,0,0,0,0,0,0,0,0,0,0,0,0,0,
654,58.12,57.41,-18.47,-16.22,28.19,53.48,26.81,13.89,38.21,13.33,40.64,50.25,65.18,19.19,41.21,51.57,0,0,0,0,0,0,0,0,0,0,0,0,0,0,0,0,
655,49.57,53.34,-23.56,-29.59,20.56,39.11,34.74,19.98,26.15,8.819,32.79,36.33,50.53,10.61,38.19,43.65,0,0,0,0,0,0,0,0,0,0,0,0,0,0,0,0,
656,28.96,40.44,-37.02,-42.54,8.996,24.44,22.15,17.84,15.43,13.03,21.31,23.5,38.68,8.04,25.71,26.87,0,0,0,0,0,0,0,0,0,0,0,0,0,0,0,0,
657,20.03,37.85,-46.8,-24.7,3.918,28.53,17.02,14.63,17.12,20.32,15.13,19.47,43.09,20.81,13.88,16.95,0,0,0,0,0,0,0,0,0,0,0,0,0,0,0,0,
658,24.29,47.42,-32.92,-7.351,9.132,29.89,35.99,25.16,17.74,28.83,5.883,13.44,48.55,29.43,7.828,15,0,0,0,0,0,0,0,0,0,0,0,0,0,0,0,0,
659,22.94,56.48,-14.24,-5.246,10.44,23.18,51.85,23.74,10.51,37.67,-0.693,6.768,38.08,23.02,6.598,11.54,0,0,0,0,0,0,0,0,0,0,0,0,0,0,0,0,
660,10.83,49.21,-25.54,-7.819,-3.803,21.03,42.41,1.82,5.123,31.98,-6.139,-2.777,17.9,11.28,7.175,3.386,0,0,0,0,0,0,0,0,0,0,0,0,0,0,0,0,
661,-1.791,26.63,-43.24,-10.28,-16.94,12.13,21.12,1.081,-10.79,15.37,-24.95,-23.35,3.892,0.8339,-0.7973,-7.457,0,0,0,0,0,0,0,0,0,0,0,0,0,0,0,0,
662,-5.329,13.08,-23.97,-2.655,-14.45,2.468,18.36,23.51,-27.54,13.84,-31.53,-29.95,4.069,-5.031,-12.9,-14.69,0,0,0,0,0,0,0,0,0,0,0,0,0,0,0,0,
663,5.046,17.02,-2.576,4.296,-6.628,11.53,34.51,31.87,-1.717,18.11,-2.808,-4.06,14.35,-2.506,-6.279,-7.976,0,0,0,0,0,0,0,0,0,0,0,0,0,0,0,0,
664,22.71,17.85,-17.37,1.155,4.764,19,35.74,20.88,40.68,7.538,26.3,22.34,18.91,-2.495,17.14,9.263,0,0,0,0,0,0,0,0,0,0,0,0,0,0,0,0,
665,32.05,8.486,-21.29,6.249,20.49,10.94,16.19,10.22,40.39,-0.9535,26.93,23.48,8.778,-13.49,30.22,17.31,0,0,0,0,0,0,0,0,0,0,0,0,0,0,0,0,
666,26.78,-0.3941,-5.24,5.317,20.88,5.478,3.3,8.749,19.96,-2.747,14.2,12.27,-2.163,-19.48,24.94,10.79,0,0,0,0,0,0,0,0,0,0,0,0,0,0,0,0,
667,16.83,-4.438,-12.03,-14.19,8.499,6.068,5.671,6.246,16.02,-10.12,7.571,6.041,2.045,-13.15,17.82,6.931,0,0,0,0,0,0,0,0,0,0,0,0,0,0,0,0,
668,15.64,2.368,-18.29,-14.23,5.351,11.84,15.53,6.213,10.63,-6.498,8.789,7.544,15.77,-7.847,21.35,14.43,0,0,0,0,0,0,0,0,0,0,0,0,0,0,0,0,
669,20.87,19.37,-11.65,4.53,3.997,23.6,25.22,22.04,-2.474,8.956,5.255,6.079,23.14,-4.742,27.44,21.45,0,0,0,0,0,0,0,0,0,0,0,0,0,0,0,0,
670,19.17,30.58,-16.69,8.672,-0.5678,22.95,25.16,29.12,-2.419,14.53,-5.304,-1.576,23.49,1.963,22.4,18.82,0,0,0,0,0,0,0,0,0,0,0,0,0,0,0,0,
671,10.93,33.9,-6.864,8.626,2.982,6.224,23.05,20.67,10.13,20.72,-9.676,-5.491,23.92,5.906,9.127,11.31,0,0,0,0,0,0,0,0,0,0,0,0,0,0,0,0,
672,1.284,34.23,5.577,6.465,-3.124,-9.845,29.41,27.14,9.65,30.03,-15.19,-13.13,17.31,1.833,-2.899,3.686,0,0,0,0,0,0,0,0,0,0,0,0,0,0,0,0,
673,-15,24.41,-27.74,-11.42,-29.13,-24.18,25.52,26.32,-13.35,25.85,-30.93,-30.1,1.844,-3.663,-11.91,-4.135,0,0,0,0,0,0,0,0,0,0,0,0,0,0,0,0,T1
674,-32.97,9.272,-56.95,-22.5,-39.47,-38.07,2.714,2.491,-31.89,24.44,-36.84,-37.1,-9.806,-4.606,-17.25,-11.28,0,0,0,0,0,0,0,0,0,0,0,0,0,0,0,0,
675,-39.96,-3.036,-40.82,-22.19,-27.49,-42.89,-16.05,-1.001,-27.39,24.9,-27.59,-30.8,-16.65,-5.592,-19.64,-17.25,0,0,0,0,0,0,0,0,0,0,0,0,0,0,0,0,
676,-34.39,-15.69,-33.85,-33.22,-31.28,-34.89,-24.98,9.488,-17.63,3.358,-17.9,-21.5,-18.92,-9.496,-19.88,-19.58,0,0,0,0,0,0,0,0,0,0,0,0,0,0,0,0,
677,-19.61,-20.01,-56.62,-41.95,-43.41,-19.02,-32.69,-1.934,-19.62,-12.29,-9.24,-10.59,-15.11,-13.16,-15.48,-16.37,0,0,0,0,0,0,0,0,0,0,0,0,0,0,0,0,
678,-6.194,-14.65,-70.15,-33.24,-29.03,-10.28,-28.04,-17.75,-26.37,-2.56,-3.343,-6.253,-17.23,-15.97,-9.782,-14.41,0,0,0,0,0,0,0,0,0,0,0,0,0,0,0,0,
679,-1.655,-13.91,-44.98,-23.29,-9.322,-15.31,-10.09,-13.73,-17.61,3.196,-0.3695,-7.418,-21.76,-15.55,-7.2,-15.93,0,0,0,0,0,0,0,0,0,0,0,0,0,0,0,0,
680,2.251,-10.78,-4.425,-19.05,-12.35,-21.51,-0.5841,2.354,7.031,6.2,1.273,-7.44,-16.35,-12.2,-7.537,-14.54,0,0,0,0,0,0,0,0,0,0,0,0,0,0,0,0,
681,2.805,-0.4641,-13.25,-16.09,-17.11,-18.4,0.943,6.468,17.42,16.88,-7.101,-13.55,-9.263,-10.49,-12.44,-11.77,0,0,0,0,0,0,0,0,0,0,0,0,0,0,0,0,
682,2.075,4.105,-39.97,-10.79,-6.003,0.8689,14.26,2.265,7.48,17.03,-10.87,-12.58,-1.858,-7.014,-15.49,-7.874,0,0,0,0,0,0,0,0,0,0,0,0,0,0,0,0,
683,22.54,8.751,-2.761,-2.874,8.541,29.41,32.38,16.82,5.195,11.48,4.341,4.184,6.364,-2.51,-8.254,1.469,0,0,0,0,0,0,0,0,0,0,0,0,0,0,0,0,
684,44.48,15.71,26.38,-1.424,8.911,34.85,32.9,29.17,14.16,11.08,8.871,6.697,2.424,-3.583,-2.321,6.45,0,0,0,0,0,0,0,0,0,0,0,0,0,0,0,0,
685,31.06,10.86,-14.59,-2.442,-2.466,12.32,19.66,24.01,12.5,6.894,-3.094,-6.624,-5.036,-7.865,-7.724,-1.303,0,0,0,0,0,0,0,0,0,0,0,0,0,0,0,0,
686,8.903,3.605,-28.46,1.166,-1.486,-3.764,12.93,32.37,-3.586,10.12,-3.29,-9.993,-2.805,-14.68,-14.07,-13.07,0,0,0,0,0,0,0,0,0,0,0,0,0,0,0,0,
687,6.493,7.27,3.02,0.189,9.359,-3.099,17.12,30.26,-13.11,28.43,-0.0602,-9.521,-2.228,-20.94,-15.91,-23.51,0,0,0,0,0,0,0,0,0,0,0,0,0,0,0,0,
688,5.549,10.19,8.727,-0.7317,8.222,-1.771,17.57,-5.82,-6.06,30.89,-3.441,-9.72,-6.625,-18.14,-18.04,-32.24,0,0,0,0,0,0,0,0,0,0,0,0,0,0,0,0,
689,4.833,0.9031,-3.033,0.4234,4.298,-3.276,1.327,-18.63,1.597,2.5,1.893,-1.537,-9.438,-15.56,-17.83,-33.12,0,0,0,0,0,0,0,0,0,0,0,0,0,0,0,0,
690,15,-18.26,-20.08,-11.75,-3.744,-4.885,-20.9,0.9293,7.501,-23.01,7.345,3.573,-11.19,-20.05,-13.02,-26.38,0,0,0,0,0,0,0,0,0,0,0,0,0,0,0,0,
691,17.68,-33,-40.61,-29.3,-28.6,-15.32,-30.94,-1.216,14.75,-21.4,-1.049,-3.752,-8.208,-18.4,-11.81,-20.22,0,0,0,0,0,0,0,0,0,0,0,0,0,0,0,0,
692,1.235,-31.44,-42.7,-40.19,-38.91,-35.37,-33.16,-22.37,0.401,-17.01,-12.57,-16.42,-3.719,-12.81,-17.58,-17.67,0,0,0,0,0,0,0,0,0,0,0,0,0,0,0,0,
693,-16.15,-24.09,-49.09,-42.91,-26.17,-41.3,-33.62,-25.54,-28.93,-27.92,-19.43,-27.46,-7.604,-15,-21.02,-17.69,0,0,0,0,0,0,0,0,0,0,0,0,0,0,0,0,
694,-19.73,-20.04,-55.93,-29.02,-27.54,-28.79,-25.21,-10.21,-37.09,-26.72,-25.47,-32.93,-11.33,-17.89,-19.73,-20.89,0,0,0,0,0,0,0,0,0,0,0,0,0,0,0,0,
695,-18.02,-12.14,-30.63,-13.09,-34.72,-24.45,-11.27,0.2918,-31.69,-1.982,-35.14,-37.77,-9.531,-17.62,-24.97,-28.23,0,0,0,0,0,0,0,0,0,0,0,0,0,0,0,0,
696,-20.22,-4.428,-15.27,-10.21,-22.69,-25.24,0.7067,1.711,-30.15,12.52,-41.75,-42.04,-14.25,-20.51,-37.76,-37.49,0,0,0,0,0,0,0,0,0,0,0,0,0,0,0,0,
697,-17.09,-2.717,-26.86,-5.076,-9.254,-11.39,11.1,8.015,-22.29,10.28,-34.58,-34.55,-23.46,-25.65,-46.27,-44.12,0,0,0,0,0,0,0,0,0,0,0,0,0,0,0,0,
698,-6.142,1.768,-18.02,5.74,-9.613,4.145,19.14,17.61,-13.56,18.59,-31.13,-28.97,-29.03,-32.13,-51.53,-50.28,0,0,0,0,0,0,0,0,0,0,0,0,0,0,0,0,
699,-5.173,5.428,9.516,19.93,-15.23,7.954,28.6,28.4,-14.45,27.04,-44.62,-40.72,-30.76,-32.86,-60.39,-58.58,0,0,0,0,0,0,0,0,0,0,0,0,0,0,0,0,
700,-13.64,1.158,33.42,35.31,-4.813,13.11,43.32,45.45,-6.143,20.9,-38.69,-37.51,-17.28,-14.09,-57.86,-54.2,0,0,0,0,0,0,0,0,0,0,0,0,0,0,0,0,
701,-2.039,5.975,46.54,35.73,31.67,33.37,57.28,53.52,31.15,28.39,7.532,4.647,12.71,13.37,-23.99,-22.44,0,0,0,0,0,0,0,0,0,0,0,0,0,0,0,0,
702,39.24,30.71,47.49,38.87,64.81,61.95,69.35,51.32,83.94,54.02,65.98,61.05,46.39,36.88,36.46,29.12,0,0,0,0,0,0,0,0,0,0,0,0,0,0,0,0,
703,86.61,63.96,69.34,66.39,82.78,86.01,85,62.33,124.5,72.89,116.7,108.1,82.96,64.18,100.8,83.59,0,0,0,0,0,0,0,0,0,0,0,0,0,0,0,0,
704,115.6,88.26,87.31,79.63,94.37,98.41,91.16,75.19,130.1,78.08,135.2,121.1,95.21,73.8,136.8,115.3,0,0,0,0,0,0,0,0,0,0,0,0,0,0,0,0,
705,100.9,75.07,28.04,48.96,58.62,72.55,58.49,54.76,78.37,57.25,91.71,75.39,50.88,40.17,116.9,96.78,0,0,0,0,0,0,0,0,0,0,0,0,0,0,0,0,
706,38.09,21.98,-33.8,5.632,-17.19,8.204,0.0505,7.645,7.571,17.95,28.44,12.26,-5.39,-1.877,57.54,42.88,0,0,0,0,0,0,0,0,0,0,0,0,0,0,0,0,
707,-11.81,-18.62,-7.978,-9.307,-35.94,-23.09,-22.96,-14.43,-2.835,1.494,5.062,-10.14,-23.05,-17.74,5.69,-2.138,0,0,0,0,0,0,0,0,0,0,0,0,0,0,0,0,
708,-7.877,-21.8,11.67,3.936,-0.7054,-1.104,-1.34,8.279,12.39,3.289,1.081,-10.01,-22.27,-21.97,-18.66,-21.81,0,0,0,0,0,0,0,0,0,0,0,0,0,0,0,0,
709,0.7665,-17.58,-9.697,11.89,6.013,14.42,17.54,26.41,-5.181,-0.7013,-7.946,-15.13,-21.49,-26.3,-23.82,-24.26,0,0,0,0,0,0,0,0,0,0,0,0,0,0,0,0,
710,-6.79,-12.62,9.781,14.33,1.312,17.12,28.34,21.79,8.129,3.403,-2.479,-10.6,-15.67,-24.36,-18.27,-17.47,0,0,0,0,0,0,0,0,0,0,0,0,0,0,0,0,
711,3.398,1.34,27.86,34.25,17.72,24.13,43.16,32.85,46.96,12.23,6.225,-3.693,-12.95,-18.37,-12.43,-11.41,0,0,0,0,0,0,0,0,0,0,0,0,0,0,0,0,
712,14.62,7.825,9.236,47.47,26,21.82,45.36,48.37,25.2,10.33,-4.66,-12.95,-13.09,-16.03,-14.84,-12.08,0,0,0,0,0,0,0,0,0,0,0,0,0,0,0,0,
713,4.957,6.723,26.59,37.91,27.63,25.23,43.59,46.13,-4.84,9.61,-12.27,-17.07,-6.532,-13.69,-18.87,-14.76,0,0,0,0,0,0,0,0,0,0,0,0,0,0,0,0,
714,4.322,13.17,60.38,42.24,34.24,40.85,55.73,54.88,21.26,15.35,4.875,2.874,3.237,-3.285,-10.64,-10.46,0,0,0,0,0,0,0,0,0,0,0,0,0,0,0,0,
715,21.15,18.74,63.54,62.4,34.04,45.63,61.24,65.54,46.63,23.21,28.51,26.22,8.654,6.674,10.51,2.98,0,0,0,0,0,0,0,0,0,0,0,0,0,0,0,0,
716,30.35,14.56,53.09,56.23,30.26,39.86,49.84,47.96,35.21,29.42,31.41,26.13,5.277,4.854,24.3,12.59,0,0,0,0,0,0,0,0,0,0,0,0,0,0,0,0,
717,23.49,10.28,20.41,24.21,20.61,26.54,41.2,29.77,10.54,27.59,16.46,11.79,1.301,1.169,15.67,9.097,0,0,0,0,0,0,0,0,0,0,0,0,0,0,0,0,
718,18.46,18.24,-0.8354,8.624,10.91,21.5,45.22,32.2,8.561,31.64,15.13,16.93,16.54,12.05,2.513,7.321,0,0,0,0,0,0,0,0,0,0,0,0,0,0,0,0,
719,32.58,41.56,17.31,19.35,21.56,48.33,58.72,38.1,35,48.12,30.36,36.14,41.31,32.4,7.238,20.45,0,0,0,0,0,0,0,0,0,0,0,0,0,0,0,0,
720,44.96,58.53,2.907,29.56,33.31,66.98,68.65,42.88,34.73,52.8,28.29,31.5,39.46,34.41,18.44,32.87,0,0,0,0,0,0,0,0,0,0,0,0,0,0,0,0,
721,30.4,46.07,-21.36,35.2,28.67,43.06,57.08,51.03,2.949,45.87,7.094,8.51,15.13,14.01,14.78,26.44,0,0,0,0,0,0,0,0,0,0,0,0,0,0,0,0,
722,8.431,24.22,14.93,38.85,14.86,14.09,33.58,52.28,-3.031,40.81,-7.66,-5.668,2.245,3.61,-0.9942,10.54,0,0,0,0,0,0,0,0,0,0,0,0,0,0,0,0,
723,-2.743,15.42,31.23,23.33,-13.23,3.08,25.54,38.64,2.17,21.62,-18.18,-18.79,-2.364,6.846,-16.36,0.7773,0,0,0,0,0,0,0,0,0,0,0,0,0,0,0,0,
724,-10.57,6.322,-6.56,5.793,-31.63,1.19,31.47,28.72,-15.57,-0.5952,-32.62,-35.24,-12.55,2.758,-27.99,-6.132,0,0,0,0,0,0,0,0,0,0,0,0,0,0,0,0,
725,-15.25,-2.573,-15.67,5.124,-20.89,0.9699,31.57,34.92,-31.27,10.16,-41.06,-41.04,-16.84,-1.521,-35.59,-16.14,0,0,0,0,0,0,0,0,0,0,0,0,0,0,0,0,
726,-16.4,1.718,-2.718,-3.771,-12.48,-4.847,28.17,36.16,-30.97,32.39,-36.88,-35.99,-12.52,1.936,-35.13,-21.87,0,0,0,0,0,0,0,0,0,0,0,0,0,0,0,0,
727,-12.08,5.889,-3.755,-8.605,2.788,4.853,33.5,29.67,-15.87,30.48,-18.29,-18.77,-3.487,6.141,-22.23,-13.82,0,0,0,0,0,0,0,0,0,0,0,0,0,0,0,0,
728,8.142,2.159,3.817,7.784,38.64,35.88,37.4,27.41,21.14,19.35,6.155,8.755,7.997,6.289,-2.526,4.075,0,0,0,0,0,0,0,0,0,0,0,0,0,0,0,0,
729,29.57,-3.163,7.561,2.13,43.56,39.8,25.89,15.5,51.72,13.24,18.71,25.6,8.833,-0.2649,9.982,16.44,0,0,0,0,0,0,0,0,0,0,0,0,0,0,0,0,
730,33.57,-7.704,-2.652,-17.07,25.44,19.79,12.68,-1.92,47.08,12.24,27.26,32.35,7.094,0.5134,15.29,19.19,0,0,0,0,0,0,0,0,0,0,0,0,0,0,0,0,
731,40.24,0.7932,5.748,-8.931,37.95,28.44,11.79,-5.291,38.88,25.88,44.79,43.78,18.1,15.29,24.71,22.61,0,0,0,0,0,0,0,0,0,0,0,0,0,0,0,0,
732,55.1,18.5,17.79,-8.24,52.85,46.39,11.23,-2.856,50.36,43.5,51.97,47.56,27.51,24.16,33.95,27.09,0,0,0,0,0,0,0,0,0,0,0,0,0,0,0,0,
733,54.24,23.75,7.017,-24.88,47.95,40.11,8.134,-3.968,53.64,46.79,45.1,42.06,33.71,28.92,33.67,27.33,0,0,0,0,0,0,0,0,0,0,0,0,0,0,0,0,
734,50.48,27.92,6.829,-23.31,58.97,41.25,17.82,-10.52,46,43.1,48.24,45.98,45.19,39.41,31.62,27.3,0,0,0,0,0,0,0,0,0,0,0,0,0,0,0,0,
735,57.78,41.16,25.98,-23.66,76.5,58.27,35.99,-19.26,43.5,40.96,53.06,48.6,46.1,39.09,33.8,26.66,0,0,0,0,0,0,0,0,0,0,0,0,0,0,0,0,
736,51.3,43.5,32.36,-33.65,71.95,62.63,44.73,-14.25,35.12,41.73,41.47,38.28,39.81,30.7,32,21.64,0,0,0,0,0,0,0,0,0,0,0,0,0,0,0,0,
737,44.88,43.5,26.48,-19.56,66.77,69.97,47.6,2.806,37.35,50.24,35.74,38.88,48.19,36.48,26.28,20.26,0,0,0,0,0,0,0,0,0,0,0,0,0,0,0,0,
738,69.61,59.52,14.88,3.564,79.93,95.1,60.19,15.48,67.1,60.2,49.58,56,61.19,48.73,27.67,28.11,0,0,0,0,0,0,0,0,0,0,0,0,0,0,0,0,
739,91.81,67.64,10.95,8.004,95.76,105.4,75.21,15.8,83.72,60.08,60.97,65.76,62.99,49.36,37.59,37.76,0,0,0,0,0,0,0,0,0,0,0,0,0,0,0,0,
740,88.16,56.04,42.12,6.915,100.8,100.4,76.7,8.502,83.5,56.03,66.83,71.28,65.42,46.78,50.19,45.64,0,0,0,0,0,0,0,0,0,0,0,0,0,0,0,0,
741,90.13,50.81,67.86,8.317,97.13,106,73.7,12.51,99.36,56.79,76.63,83,73.79,50.67,60.06,52.16,0,0,0,0,0,0,0,0,0,0,0,0,0,0,0,0,
742,94.15,51.85,46.42,0.8034,83.26,97.72,69.09,18.67,96.87,47.48,71.56,78.12,68.43,48.58,56.12,49.81,0,0,0,0,0,0,0,0,0,0,0,0,0,0,0,0,
743,72.16,37.02,20.56,-14.52,61.11,68.32,50.17,3.309,57.8,24.85,50.74,55.17,49.92,39.48,35.92,37.77,0,0,0,0,0,0,0,0,0,0,0,0,0,0,0,0,
744,48.15,22.64,13.54,-16.84,55.64,64.39,37.99,-6.649,42.14,28.2,45.41,49.35,48.42,40.35,18.05,29.95,0,0,0,0,0,0,0,0,0,0,0,0,0,0,0,0,
745,50.2,35.11,20.15,-3.108,72.32,79.55,51.14,5.175,59.55,63.06,52.83,60.34,65.54,50.26,17.48,34.21,0,0,0,0,0,0,0,0,0,0,0,0,0,0,0,0,
746,55.5,55.86,35.71,-0.1087,75.35,75.53,59.41,6.975,61.02,71.35,53.03,62.62,76.58,58.08,30,45.93,0,0,0,0,0,0,0,0,0,0,0,0,0,0,0,0,
747,45.72,56.57,17.63,-8.859,60.17,64.81,47.03,-4.728,50.53,42.89,49.46,55.05,75.3,57.64,40.97,54.86,0,0,0,0,0,0,0,0,0,0,0,0,0,0,0,0,
748,33.98,42.09,-9.641,-8.668,55.56,54.18,33.27,-13.53,52.24,28.15,36.75,40.31,66.81,48.23,35.62,49.28,0,0,0,0,0,0,0,0,0,0,0,0,0,0,0,0,
749,28.2,33.4,16.77,-6.595,59.01,40.73,28.77,-15.65,51.61,34.83,20.11,27.17,61.84,47.36,20.65,35.85,0,0,0,0,0,0,0,0,0,0,0,0,0,0,0,0,
750,29.99,39.65,36.85,-10.15,56.33,44.02,32.78,-5.796,42.3,38.52,23.73,29.49,64.34,56.44,17.8,35.35,0,0,0,0,0,0,0,0,0,0,0,0,0,0,0,0,
751,30.76,42.73,10.88,-14.01,47.06,44.94,33.74,-0.4056,34.19,34.57,29.02,30.29,54.69,49.37,23.16,44.23,0,0,0,0,0,0,0,0,0,0,0,0,0,0,0,0,
752,15.03,26.17,3.482,-16.55,36.92,26.7,21.96,-10.5,30.23,23.27,21.45,24.94,39.97,36.22,22.61,45.59,0,0,0,0,0,0,0,0,0,0,0,0,0,0,0,0,
753,4.252,11.31,14.76,-6.428,35.56,23.36,9.149,-12.52,35.09,11.98,29.36,34.07,44.19,38.55,25.55,43.15,0,0,0,0,0,0,0,0,0,0,0,0,0,0,0,0,
754,13.17,7.246,13.52,6.731,30.47,23.3,-0.1122,-13.81,32.42,6.852,36.4,36.51,41.47,34.62,30.59,38.89,0,0,0,0,0,0,0,0,0,0,0,0,0,0,0,0,
755,7.167,-8.148,8.845,-5.356,13.57,1.692,-8.62,-30.53,12.42,-0.1403,16.18,17.18,20.54,20.44,19.3,23.98,0,0,0,0,0,0,0,0,0,0,0,0,0,0,0,0,
756,-12.03,-21.52,-8.818,-23.11,11.87,-3.563,-8.07,-30.89,10.53,-0.2984,4.073,10.38,18.26,18.29,1.194,9.223,0,0,0,0,0,0,0,0,0,0,0,0,0,0,0,0,
757,-9.821,-12.12,-12.18,-15.76,27.9,10.14,-4.165,-17.46,21.94,8.33,10.8,18.12,26.97,16.41,-5.366,7.577,0,0,0,0,0,0,0,0,0,0,0,0,0,0,0,0,
758,3.002,-4,33.31,-0.2126,41.27,12.18,-3.417,-30.05,17.57,0.5852,13.53,20.92,23.15,9.92,-4.288,9.748,0,0,0,0,0,0,0,0,0,0,0,0,0,0,0,0,
759,12.2,-5.018,64.74,3.18,47.38,17.53,2.32,-45.83,32.37,-12.32,20.54,28.08,26.27,17.76,2.217,11.96,0,0,0,0,0,0,0,0,0,0,0,0,0,0,0,0,
760,19.1,-0.878,51.52,2.239,38.57,24.5,1.059,-35.66,60.28,-6.924,29.11,33.66,33.16,25.04,12.52,18.93,0,0,0,0,0,0,0,0,0,0,0,0,0,0,0,0,
761,13.4,-3.496,41.07,6.156,30.28,15.89,-13.19,-29.41,48.73,-6.704,27.6,28.95,28.45,18.03,15.99,23.6,0,0,0,0,0,0,0,0,0,0,0,0,0,0,0,0,
762,8.565,-11.6,26.61,6.6,45.13,14.03,-12.49,-32.59,33.1,-12,30,29.32,30.82,17.57,14.63,21.94,0,0,0,0,0,0,0,0,0,0,0,0,0,0,0,0,
763,18.51,-4.462,10.19,3.568,53.45,21.58,5.297,-16.7,41.47,7.527,30.65,29.1,36.49,22.05,12.59,17.53,0,0,0,0,0,0,0,0,0,0,0,0,0,0,0,0,
764,18.8,6.289,31.38,16.52,41.18,19.72,12.79,5.37,30.57,27.31,16.55,15.63,25.45,12.79,2.066,8.095,0,0,0,0,0,0,0,0,0,0,0,0,0,0,0,0,
765,6.152,3.923,53.31,35.08,40.85,23.11,13.68,5.158,12.76,19.41,7.132,5.056,15.27,2.027,-11.81,-2.695,0,0,0,0,0,0,0,0,0,0,0,0,0,0,0,0,
766,7.362,1.415,54.22,35.29,54.83,37.15,22.5,-4.7,22.52,11.31,10.82,7.918,17.4,5.372,-15.48,-3.374,0,0,0,0,0,0,0,0,0,0,0,0,0,0,0,0,
767,17,0.6611,70.56,33.09,60.63,34.29,19.96,-3.902,31.88,8.527,8.444,8.625,10.84,6.688,-15.64,1.332,0,0,0,0,0,0,0,0,0,0,0,0,0,0,0,0,
768,10.25,-14.85,67.15,33.68,49.41,9.796,-3.892,-5.233,18.02,-1.837,-2.778,-1.448,-3.01,-3.68,-22.68,-2.407,0,0,0,0,0,0,0,0,0,0,0,0,0,0,0,0,
769,-3.15,-25.82,28.78,19.53,30.31,-3.102,-12.35,-14.29,1.528,7.939,-2.091,-2.524,4.655,1.149,-23.9,-5.968,0,0,0,0,0,0,0,0,0,0,0,0,0,0,0,0,
770,1.759,-3.723,27,8.917,27.34,9.808,8.221,-12.08,7.493,32.57,14.24,14.04,27.78,25.19,-7.916,7.338,0,0,0,0,0,0,0,0,0,0,0,0,0,0,0,0,
771,12.64,17.14,52.94,17.53,36.68,15.94,14.17,-7.891,28.88,25.87,25.15,23.14,31.98,32.64,9.525,27.59,0,0,0,0,0,0,0,0,0,0,0,0,0,0,0,0,
772,7.577,2.556,41.04,21.43,33.16,2.116,-6.621,-19.67,34.01,5.18,23.15,17.01,19.92,21.4,13.11,36.26,0,0,0,0,0,0,0,0,0,0,0,0,0,0,0,0,
773,2.358,-15.52,11.48,8.856,29.5,0.0751,-17.24,-30.35,21.74,2.279,17.08,12.7,12.65,13,8.859,33.05,0,0,0,0,0,0,0,0,0,0,0,0,0,0,0,0,
774,10.34,-17.38,17.36,-1.993,40.3,10.58,-13.32,-31.04,16.44,-4.19,14.03,12.45,6.901,6.629,5.791,24.92,0,0,0,0,0,0,0,0,0,0,0,0,0,0,0,0,
775,13.73,-19.9,48.98,5.258,42.54,5.788,-13.9,-27.95,17.71,-10.73,19.3,12.6,0.8692,4.824,7.715,17.96,0,0,0,0,0,0,0,0,0,0,0,0,0,0,0,0,
776,5.858,-21.85,54.02,21.07,31.52,-4.722,-13.9,-22.72,16.31,2.119,25.17,13.57,-0.3788,7.864,14.13,15.31,0,0,0,0,0,0,0,0,0,0,0,0,0,0,0,0,
777,0.4337,-23.07,30.53,18.42,25.59,-6.201,-13.88,-28.18,13.2,6.156,22.49,12.3,-0.7277,4.738,18.56,12.8,0,0,0,0,0,0,0,0,0,0,0,0,0,0,0,0,
778,-2.134,-35.14,22.51,-0.3497,20.51,-13.27,-28.81,-36.43,3.308,-10.91,15.65,5.45,-3.601,0.4314,15.93,8.264,0,0,0,0,0,0,0,0,0,0,0,0,0,0,0,0,
779,-13.57,-47.91,25.77,-2.352,15.43,-26.52,-45.12,-28.36,-7.47,-16.29,2.546,-8.166,-7.863,2.03,4.915,4.018,0,0,0,0,0,0,0,0,0,0,0,0,0,0,0,0,
780,-31.02,-44.72,23.02,7.106,16.05,-35.42,-39.94,-27.44,-4.362,-5.924,-14.42,-20.65,-7.655,5.949,-9.793,0.656,0,0,0,0,0,0,0,0,0,0,0,0,0,0,0,0,
781,-42.66,-33.33,15.11,-6.364,3.011,-44.18,-29.96,-42.32,-2.427,-6.353,-20.42,-23.38,-2.202,6.78,-17.09,0.0695,0,0,0,0,0,0,0,0,0,0,0,0,0,0,0,0,
782,-44.31,-30.04,-14.12,-21.33,-11.8,-39.94,-32.89,-40.89,-11.73,-11.71,-13.93,-17.85,0.7981,2.571,-13.4,4.695,0,0,0,0,0,0,0,0,0,0,0,0,0,0,0,0,
783,-36.57,-32.34,-20.13,-1.387,9.189,-18.58,-36.25,-26.26,-9.812,-7.567,-5.193,-11.21,-0.5564,1.862,-5.396,11.51,0,0,0,0,0,0,0,0,0,0,0,0,0,0,0,0,
784,-34.36,-35.26,42.84,19.01,30.04,-21.19,-39.7,-25.73,-4.306,-12.5,-7.593,-16.53,-7.514,3.568,-2.857,12.44,0,0,0,0,0,0,0,0,0,0,0,0,0,0,0,0,
785,-47.7,-39.67,77.66,11.37,13.99,-41.59,-38.85,-31.31,-12.39,-18.4,-19.04,-26.14,-11.88,1.285,-10.27,6.181,0,0,0,0,0,0,0,0,0,0,0,0,0,0,0,0,
786,-48.7,-30.51,35.39,12.06,8.732,-29.44,-17.44,-20.73,-8.812,0.2391,-17.87,-18.3,-1.659,3.754,-16.11,3.342,0,0,0,0,0,0,0,0,0,0,0,0,0,0,0,0,
787,-29.51,-11.21,24.7,30.57,26.61,-11.82,-6.407,-5.942,5.023,8.567,-10.47,-10.24,4.043,5.7,-11,7.611,0,0,0,0,0,0,0,0,0,0,0,0,0,0,0,0,
788,-23.55,-12.53,55.2,30.38,24,-19.35,-26.67,-16.74,1.976,-11.41,-14.72,-17.85,-6.453,-2.096,-5.199,9.543,0,0,0,0,0,0,0,0,0,0,0,0,0,0,0,0,
789,-30.85,-28.49,33.27,8.035,6.504,-16.47,-37.4,-37.76,-5.733,-18.41,-19.83,-22.92,-15,-8.729,-8.165,3.455,0,0,0,0,0,0,0,0,0,0,0,0,0,0,0,0,
790,-33.98,-34.57,-3.432,-3.644,4.341,-8.663,-27.45,-30.57,-5.643,-11.32,-18.36,-20.97,-16.63,-10.61,-13.89,-5.737,0,0,0,0,0,0,0,0,0,0,0,0,0,0,0,0,
791,-32.84,-28.46,23.81,10.51,26.64,-12.62,-19.49,-13.03,4.496,-10.43,-6.768,-9.247,-9.092,-7.292,-9.072,-6.042,0,0,0,0,0,0,0,0,0,0,0,0,0,0,0,0,
792,-20.32,-15.72,66.03,27.23,53.36,-6.305,-20.73,-23.13,24.25,-8.961,9.938,6.759,2.237,-0.7745,6.357,4.795,0,0,0,0,0,0,0,0,0,0,0,0,0,0,0,0,
793,-13.36,-16.14,63.79,19.21,41.53,-8.771,-36.84,-42.95,24.27,-8.219,3.303,-2.175,-2.433,-1.089,12.91,12.56,0,0,0,0,0,0,0,0,0,0,0,0,0,0,0,0,
794,-30.8,-29.23,35.53,-1.737,10.11,-25.41,-44.05,-40.49,7.234,-5.747,-13.31,-17.2,-8.248,3.165,7.436,14.84,0,0,0,0,0,0,0,0,0,0,0,0,0,0,0,0,
795,-39.58,-25.01,6.419,-7.404,12.36,-17.98,-26.97,-29.47,4.31,-1.197,-5.829,-8.658,-3.624,13.7,8.285,20.49,0,0,0,0,0,0,0,0,0,0,0,0,0,0,0,0,
796,-32.63,-19.28,1.019,1.141,20.55,-9.348,-29.71,-30.37,-2.676,-7.84,0.3429,-8.309,-9.689,7.473,13.52,22.55,0,0,0,0,0,0,0,0,0,0,0,0,0,0,0,0,
797,-41.86,-32.48,23.35,4.554,4.146,-26.68,-50.88,-31.93,-19.67,-14.62,-15.01,-25.29,-17.11,-5.906,8.229,14.16,0,0,0,0,0,0,0,0,0,0,0,0,0,0,0,0,
798,-52.74,-35.28,22.36,0.3384,1.068,-33.71,-45.63,-28.12,-14.6,-11.49,-23.65,-27.12,-10.8,-5.842,-2.471,5.432,0,0,0,0,0,0,0,0,0,0,0,0,0,0,0,0,
799,-39.52,-25.5,-1.894,4.224,21.26,-16.37,-32.09,-29.7,7.03,-6.35,-12.53,-12.81,-6.823,-2.521,-2.456,5.917,0,0,0,0,0,0,0,0,0,0,0,0,0,0,0,0,
800,-19.83,-24.01,11.98,17.49,32.47,-1.23,-32.93,-34.48,17.86,-4.302,2.057,-2.503,-10.51,-5.39,11.03,12.54,0,0,0,0,0,0,0,0,0,0,0,0,0,0,0,0,
801,-16.86,-25.18,50.55,18.46,26.61,-6.084,-36.58,-37.76,6.896,-19.67,5.369,-5.068,-13.41,-7.192,22.09,16.66,0,0,0,0,0,0,0,0,0,0,0,0,0,0,0,0,
802,-24.28,-28.53,57.74,5.478,18.5,-18.73,-45.38,-39.05,-10.89,-36.37,2.231,-11.25,-9.472,-1.632,18.91,17.61,0,0,0,0,0,0,0,0,0,0,0,0,0,0,0,0,
803,-22.47,-31.34,37.03,3.058,15.99,-16.19,-48.45,-32.81,-6.433,-16.78,-0.2523,-11.69,-2.884,1.769,7.443,16.76,0,0,0,0,0,0,0,0,0,0,0,0,0,0,0,0,
804,-15.71,-20.09,30.44,12.01,16.8,-4.693,-27.8,-23.34,9.163,8.599,-4.897,-11.18,-5.092,-4.447,-5.1,8.761,0,0,0,0,0,0,0,0,0,0,0,0,0,0,0,0,
805,-14.11,-5.379,53.75,14.5,23.67,3.445,-5.095,-15.59,11.89,2.364,-1.21,-4.782,-9.043,-7.586,-11.36,0.0177,0,0,0,0,0,0,0,0,0,0,0,0,0,0,0,0,
806,-11.11,-4.313,63.52,16.24,30.63,4.771,-5.262,-7.702,9.957,-0.8162,6.284,1.524,-9.43,-7.684,-4.955,1.769,0,0,0,0,0,0,0,0,0,0,0,0,0,0,0,0,
807,-16.72,-12.91,33.83,23.7,22.01,-8.579,-16.27,-11.54,4.007,14.26,-5.413,-11.68,-12.69,-12.6,4.018,5.604,0,0,0,0,0,0,0,0,0,0,0,0,0,0,0,0,
808,-35.55,-20.03,11.33,19.67,9.974,-21.06,-20.3,-25.82,-5.43,10.68,-18.36,-25.46,-10.76,-10.33,4.741,4.498,0,0,0,0,0,0,0,0,0,0,0,0,0,0,0,0,
809,-42.47,-24.39,15.68,7.78,11.91,-19.14,-20,-22.09,-5.814,-8.279,-13.68,-20.7,-3.231,-1.223,0.7941,4.302,0,0,0,0,0,0,0,0,0,0,0,0,0,0,0,0,
810,-27.49,-24.1,28.98,18.35,26.39,-6.623,-9.584,-2.786,-1.691,-1.578,-5.46,-9.059,4.191,5.204,-2.151,4.707,0,0,0,0,0,0,0,0,0,0,0,0,0,0,0,0,
811,-0.6894,-8.652,55.36,40.44,48.29,19.27,11.35,-1.178,6.123,18.63,1.664,1.155,11.38,10.13,-1.792,3.741,0,0,0,0,0,0,0,0,0,0,0,0,0,0,0,0,
812,9.909,3.69,72.74,35.53,47.47,23.17,5.725,-11.45,14.27,12.7,-4.034,-5.839,3.145,5.596,-2.655,2.023,0,0,0,0,0,0,0,0,0,0,0,0,0,0,0,0,
813,-16.42,-7.933,53.57,21.02,17.79,-9.146,-19.66,-5.916,2.279,0.86,-22.39,-24.74,-9.678,-2.623,-7.873,-1.067,0,0,0,0,0,0,0,0,0,0,0,0,0,0,0,0,
814,-38.32,-9.849,25.02,27.49,8.784,-18.15,-16.21,-1.321,-24.04,6.316,-22.83,-23.44,-3.457,-0.9691,-7.499,-1.936,0,0,0,0,0,0,0,0,0,0,0,0,0,0,0,0,
815,-33.28,1.705,18.82,25.33,13.78,-10.82,-8.675,-14.57,-38.67,2.776,-15.9,-16.34,-2.812,-4.539,-1.871,-1.236,0,0,0,0,0,0,0,0,0,0,0,0,0,0,0,0,
816,-33.65,-9.636,26.62,6.496,0.55,-21.41,-22.37,-16.93,-29.3,-2.08,-17.69,-17.82,-6.468,-6.925,-3.289,-1.117,0,0,0,0,0,0,0,0,0,0,0,0,0,0,0,0,
817,-25.03,-7.808,16.91,11.12,5.289,-5.609,-19.2,-4.295,-4.122,16.98,-4.764,-4.218,15.03,12.31,-4.854,8.018,0,0,0,0,0,0,0,0,0,0,0,0,0,0,0,0,
818,0.1119,24.94,1.218,23.51,24.77,18.84,-7.423,-4.979,13.29,25.87,11.86,10.17,25.71,21.5,3.717,24.54,0,0,0,0,0,0,0,0,0,0,0,0,0,0,0,0,
819,1.152,21.81,30.34,14.59,18.9,1.637,-12.86,-14.23,23.05,8.514,14.98,9.948,7.203,6.487,14.14,30.85,0,0,0,0,0,0,0,0,0,0,0,0,0,0,0,0,
820,-5.348,-9.337,71.38,15.32,17.3,-10.11,-16.43,-21.07,33.16,2.382,22.06,14.86,2.815,5.849,20.32,27.77,0,0,0,0,0,0,0,0,0,0,0,0,0,0,0,0,
821,2.005,-10.54,55.75,19.98,25.77,-3.726,-21.3,-26.44,20.29,6.793,23.01,14.77,9.991,17.92,22.81,26.49,0,0,0,0,0,0,0,0,0,0,0,0,0,0,0,0,
822,-4.467,-3.341,15.82,-1.831,10.38,-12.48,-28.82,-16.44,-3.598,-0.7267,11.09,3.826,7.946,15.37,20.44,23.84,0,0,0,0,0,0,0,0,0,0,0,0,0,0,0,0,
823,-10.83,-4.916,5.377,-6.503,1.853,-9.557,-16.54,-3.393,4.243,-2.381,10.81,4.819,10.2,8.024,17.02,17.48,0,0,0,0,0,0,0,0,0,0,0,0,0,0,0,0,
824,-0.2221,5.215,22.09,21.51,19.48,3.855,-1.405,-8.469,19.31,7.514,14.79,9.272,12.11,6.461,15.6,11.79,0,0,0,0,0,0,0,0,0,0,0,0,0,0,0,0,
825,3.7,15.74,43.63,28.21,31.34,4.695,1.801,1.016,10.17,10.65,13.88,9.867,10.09,9.079,15.18,8.422,0,0,0,0,0,0,0,0,0,0,0,0,0,0,0,0,
826,4.477,18.9,48.47,19.83,35.32,16.66,6.59,25.81,8.053,13.74,20.12,15.03,12.06,12.07,15.74,8.473,0,0,0,0,0,0,0,0,0,0,0,0,0,0,0,0,
827,3.379,16.57,41.26,22.44,28.56,23.41,1.533,6.933,15.95,12.42,13.37,3.655,2.536,4.36,9.316,8.037,0,0,0,0,0,0,0,0,0,0,0,0,0,0,0,0,
828,-11.46,-0.1407,28.24,11.52,4.52,3.964,-13.51,-34.4,7.824,-4.59,-10.71,-20.26,-7.851,0.7886,-8.773,4.406,0,0,0,0,0,0,0,0,0,0,0,0,0,0,0,0,
829,-17.76,-9.342,9.159,0.9513,-4.935,-2.707,-16.69,-34.72,1.568,-3.224,-17.19,-22.72,3.445,13.18,-22.67,5.638,0,0,0,0,0,0,0,0,0,0,0,0,0,0,0,0,
830,-15.86,1.323,14.52,13.07,2.287,0.6548,-17.73,-20.73,6.135,20.67,-6.712,-12.39,11.44,14.13,-17.72,12.81,0,0,0,0,0,0,0,0,0,0,0,0,0,0,0,0,
831,-20.28,7.461,35.88,13.61,9.321,-3.494,-16.87,-18.52,10.29,26.29,9.304,1.417,10.38,7.99,2.833,20.83,0,0,0,0,0,0,0,0,0,0,0,0,0,0,0,0,
832,-5.963,13.12,37.25,8.814,31.72,12.42,0.6814,-1.424,27.73,23.08,30.15,21.13,16.75,14.4,23.4,29.19,0,0,0,0,0,0,0,0,0,0,0,0,0,0,0,0,
833,13.62,20.56,42.85,30.29,47.17,30.71,6.412,13.44,44.27,19.83,29.98,20.32,10.54,7.986,26,28.03,0,0,0,0,0,0,0,0,0,0,0,0,0,0,0,0,
834,4.431,8.99,55.93,39.74,33.19,24.94,-8.904,4.065,36.62,-2.802,18.86,9.911,-3.379,-9.741,15.41,13.99,0,0,0,0,0,0,0,0,0,0,0,0,0,0,0,0,
835,-1.169,-0.9728,51.12,19.43,31.9,23.21,-10.03,-4.53,33.17,-9.237,30.2,20.79,1.311,-10.42,12.57,6.05,0,0,0,0,0,0,0,0,0,0,0,0,0,0,0,0,
836,8.705,5.286,43.52,15.28,38,21.04,-5.931,-6.626,32.12,12.02,33.45,21.77,3.696,-8.056,17.68,9.776,0,0,0,0,0,0,0,0,0,0,0,0,0,0,0,0,
837,-2.542,0.3764,27.13,23.91,11.44,-2.963,-18.49,-13.49,1.637,7.659,9.8,-1.55,-8.773,-13.35,18.33,10.36,0,0,0,0,0,0,0,0,0,0,0,0,0,0,0,0,
838,-23.23,-9.592,8.188,11.56,-11.96,-21.63,-26.42,-18.09,-21.48,-5.004,-5.464,-13.56,-13.86,-13.45,10.67,4.255,0,0,0,0,0,0,0,0,0,0,0,0,0,0,0,0,
839,-21.67,-6.394,23.69,1.648,-7.359,-15.4,-23.2,-13.91,-1.831,12.14,-7.821,-13.28,-11.79,-12.61,-3.76,-1.301,0,0,0,0,0,0,0,0,0,0,0,0,0,0,0,0,
840,-10.35,-7.919,34.25,12.61,-6.7,-3.715,-23.47,-7.125,16.12,12.77,-15.3,-21.64,-17.28,-19.2,-18.5,-5.066,0,0,0,0,0,0,0,0,0,0,0,0,0,0,0,0,
841,-17.35,-16.11,13.87,16.55,-9.358,-11.27,-25.66,-7.058,-2.893,-12.17,-27.24,-34.89,-24.75,-25.99,-29.81,-10.64,0,0,0,0,0,0,0,0,0,0,0,0,0,0,0,0,
842,-37.96,-11.76,14.57,14.69,-4.441,-27.77,-23.76,-2.795,-24.78,-7.575,-32.47,-36.41,-18.45,-18.5,-35.48,-13.34,0,0,0,0,0,0,0,0,0,0,0,0,0,0,0,0,
843,-35.07,-0.6126,25.65,22.31,-7.095,-20.31,-17.21,8.575,-17.02,13.33,-21.56,-22.97,-5.559,-4.801,-25.01,-3.805,0,0,0,0,0,0,0,0,0,0,0,0,0,0,0,0,
844,-12.38,-2.28,9.733,11.92,-15.27,-8.191,-15.3,-2.321,-3.331,6.638,-11.31,-16.26,-9.841,-13.31,-3.344,8.661,0,0,0,0,0,0,0,0,0,0,0,0,0,0,0,0,
845,-12.93,-16.14,0.641,-10.37,-18.46,-19.69,-21.6,-21.38,-8.119,-6.926,-14.69,-21.91,-20.98,-30.24,6.924,8.824,0,0,0,0,0,0,0,0,0,0,0,0,0,0,0,0,
846,-22.18,-19.92,17.91,6.887,-14.01,-16.1,-18.4,-6.002,-14.18,1.433,-9.72,-18.75,-14.67,-21.9,4.263,4.914,0,0,0,0,0,0,0,0,0,0,0,0,0,0,0,0,
847,-10.05,-7.75,26.04,34.94,0.7983,5.064,-12.7,13.04,-12.84,8.899,-2.195,-16.31,-11.98,-11.97,-1.782,4.007,0,0,0,0,0,0,0,0,0,0,0,0,0,0,0,0,
848,-12.79,-9.695,2.793,8.962,3.486,-12.63,-30.94,-11.31,-19.36,-9.977,-19.71,-34.11,-33.69,-26.41,-17.12,-5.455,0,0,0,0,0,0,0,0,0,0,0,0,0,0,0,0,
849,-42.79,-31.77,-16.79,-26.91,-19.64,-40.59,-47.87,-44.42,-22.59,-22.19,-32.09,-40.79,-42.28,-30.52,-32.16,-15.81,0,0,0,0,0,0,0,0,0,0,0,0,0,0,0,0,
850,-40.34,-27.41,6.396,-4.936,-20.62,-10.71,-24.19,-24.48,7.153,11.54,0.0852,-6.342,-8.32,-3.558,-16.46,-1.615,0,0,0,0,0,0,0,0,0,0,0,0,0,0,0,0,
851,9.561,14.9,40.6,39.25,23.71,41.76,18.29,34.48,57.18,52.59,49.29,39.88,34.46,26.25,28.86,34.5,0,0,0,0,0,0,0,0,0,0,0,0,0,0,0,0,
852,53.07,51.28,62.38,65.31,61.53,62.11,47.77,70.98,91.77,60.96,84.07,70.51,61.73,50.2,75.85,72.58,0,0,0,0,0,0,0,0,0,0,0,0,0,0,0,0,
853,73.34,72.87,97.84,88.42,71.1,69.66,67.2,80.48,107.4,68.43,108.1,90.57,83.73,73.35,112.3,104.5,0,0,0,0,0,0,0,0,0,0,0,0,0,0,0,0,
854,78.34,86.73,107.8,86.16,65.13,65.96,61.95,75.57,92.13,76.95,99.36,79.71,79.06,68.78,122.3,113.6,0,0,0,0,0,0,0,0,0,0,0,0,0,0,0,0,
