%OpenBCI Raw EXG Data
%Number of channels = 16
%Sample Rate = 125 Hz
%Board = OpenBCI_GUI$BoardCytonSerialDaisy
Sample Index,EXG Channel 0,EXG Channel 1,EXG Channel 2,EXG Channel 3,EXG Channel 4,EXG Channel 5,EXG Channel 6,EXG Channel 7,EXG Channel 8,EXG Channel 9,EXG Channel 10,EXG Channel 11,EXG Channel 12,EXG Channel 13,EXG Channel 14,EXG Channel 15,Accel Channel 0,Accel Channel 1,Accel Channel 2,Other,Other.1,Other.2,Other.3,Other.4,Other.5,Other.6,Analog Channel 0,Analog Channel 1,Analog Channel 2,Timestamp,Other.7,Timestamp (Formatted),Annotations
1,-0.0,-0.0,0.0,-0.0,-0.0,-0.0,0.0,-0.0,-0.0,-0.0,0.0,0.0,-0.0,0.0,0.0,0.0,0,0,0,0,0,0,0,0,0,0,0,0,0,0,0,0,T0
2,-13.11,1.124,-1.208,-0.4394,-0.4404,2.075,36.98,-6.783,-8.85,1.64,0.4833,-2.086,-0.6006,0.8168,-10.06,-5.822,0,0,0,0,0,0,0,0,0,0,0,0,0,0,0,0,
3,1.211,-3.825,5.838,12.89,7.12,9.962,17.58,-8.526,-2.933,0.0478,-5.03,-3.821,-0.08,-1.65,-8.797,-7.435,0,0,0,0,0,0,0,0,0,0,0,0,0,0,0,0,
4,20.01,-5.956,11.93,10.81,12.76,16.9,9.669,-6.413,4.591,7.033,-5.625,-5.197,5.654,-0.8408,0.3275,-4.048,0,0,0,0,0,0,0,0,0,0,0,0,0,0,0,0,
5,12.45,-1.217,7.893,0.4163,7.676,12.9,26.83,-3.816,-0.5439,9.577,-7.094,-10.74,4.935,-8.197,-1.561,-7.692,0,0,0,0,0,0,0,0,0,0,0,0,0,0,0,0,
6,-0.4491,-0.3007,0.078,3.481,-0.3948,2.061,19.99,-0.3401,-6.522,-3.343,-9.266,-17.09,-1.741,-21.09,-11.01,-15.77,0,0,0,0,0,0,0,0,0,0,0,0,0,0,0,0,
7,-1.571,-3.194,-6.373,-0.1044,-6.213,-5.567,5.892,-0.4541,-9.815,-13.39,-11.37,-19.83,-4.871,-20.87,-18.52,-17.2,0,0,0,0,0,0,0,0,0,0,0,0,0,0,0,0,
8,-3.573,-0.666,-5.625,-7.192,-4.918,-3.162,6.2,-1.821,-16.73,-12.86,-19.78,-17.61,-4.876,-11.15,-21.69,-12.04,0,0,0,0,0,0,0,0,0,0,0,0,0,0,0,0,
9,0.1336,0.5485,3.881,0.9478,4.327,4.652,6.519,1.628,-12.76,-5.942,-14.84,-9.473,1.612,-2.809,-13.25,-5.263,0,0,0,0,0,0,0,0,0,0,0,0,0,0,0,0,
10,3.39,-7.786,0.1559,2.474,0.248,0.7636,3.572,-7.52,-5.058,-0.9383,-3.798,-9.419,3.196,-5.434,-13.69,-12.2,0,0,0,0,0,0,0,0,0,0,0,0,0,0,0,0,
11,-6.579,-14.6,-13.4,-6.779,-12.44,-7.944,4.372,-21.09,-15.57,-9.571,-13.54,-18.57,-5.161,-15.47,-27.37,-25.84,0,0,0,0,0,0,0,0,0,0,0,0,0,0,0,0,
12,-6.605,-8.777,-6.696,-6.361,-5.774,-4.355,9.053,-4.692,-20.31,-15.64,-17.41,-17.1,-1.103,-14.67,-20.73,-19.89,0,0,0,0,0,0,0,0,0,0,0,0,0,0,0,0,
13,-0.8765,-5.676,0.3508,-5.091,-0.9464,-5.337,6.417,7.163,-10.3,-8.17,-8.665,-13.89,6.114,-13.09,-12.8,-12.68,0,0,0,0,0,0,0,0,0,0,0,0,0,0,0,0,
14,-10.49,-24.09,-14.3,-8.208,-16.05,-16.2,0.1609,-17.01,-15.77,-11.42,-19.05,-24.5,-1.918,-23.95,-28.09,-22.49,0,0,0,0,0,0,0,0,0,0,0,0,0,0,0,0,
15,-15.69,-36.62,-21.29,-8.775,-21.61,-16.9,4.543,-24.29,-26.16,-23.59,-27.52,-33.69,-4.344,-29.38,-30.13,-22.76,0,0,0,0,0,0,0,0,0,0,0,0,0,0,0,0,
16,-11.01,-12.0,-14.86,-13.83,-15.17,-14.22,4.604,-11.79,-22.58,-23.38,-7.836,-30.23,5.847,-23.43,-15.2,-9.409,0,0,0,0,0,0,0,0,0,0,0,0,0,0,0,0,
17,-9.411,8.757,-13.21,-19.51,-13.63,-18.08,2.024,-25.25,-19.47,-20.21,9.098,-22.22,12.02,-18.69,-14.72,-4.942,0,0,0,0,0,0,0,0,0,0,0,0,0,0,0,0,
18,-9.203,-13.12,-10.29,-18.64,-10.37,-19.62,14.8,-34.14,-18.58,-23.09,0.6427,-19.49,10.1,-19.6,-20.61,-8.695,0,0,0,0,0,0,0,0,0,0,0,0,0,0,0,0,
19,-12.89,-32.58,-5.182,-17.16,-5.588,-17.58,14.08,-17.09,-18.1,-24.38,-9.454,-22.21,4.179,-23.23,-17.62,-8.415,0,0,0,0,0,0,0,0,0,0,0,0,0,0,0,0,
20,-11.39,-17.84,-6.968,-15.72,-7.197,-15.68,-2.557,-10.55,-23.16,-24.14,-4.7,-24.03,-0.5858,-25.45,-14.21,-4.585,0,0,0,0,0,0,0,0,0,0,0,0,0,0,0,0,
21,-2.067,-6.967,-14.31,-18.21,-14.13,-20.26,1.317,-17.07,-26.58,-28.02,-6.246,-26.8,-5.069,-27.88,-16.71,-4.366,0,0,0,0,0,0,0,0,0,0,0,0,0,0,0,0,
22,-5.929,-17.71,-19.48,-25.3,-19.5,-28.83,3.048,-26.06,-27.32,-34.6,-18.44,-30.6,-10.44,-31.28,-20.03,-6.831,0,0,0,0,0,0,0,0,0,0,0,0,0,0,0,0,
23,-12.12,-28.3,-15.6,-25.7,-15.82,-27.14,-7.984,-35.09,-28.26,-36.4,-16.84,-30.07,-9.757,-32.19,-18.12,-7.023,0,0,0,0,0,0,0,0,0,0,0,0,0,0,0,0,
24,-3.797,-29.61,-8.458,-23.22,-9.163,-22.41,6.542,-28.96,-27.22,-34.4,-8.693,-26.66,-4.432,-29.81,-9.45,-2.968,0,0,0,0,0,0,0,0,0,0,0,0,0,0,0,0,
25,1.255,-21.68,-5.557,-23.21,-6.428,-23.54,17.38,-23.67,-25.63,-33.22,-15.15,-20.07,-1.854,-23.9,-2.704,3.91,0,0,0,0,0,0,0,0,0,0,0,0,0,0,0,0,
26,-1.075,-10.6,-5.756,-19.1,-5.782,-20.44,-8.145,-31.85,-22.53,-30.45,-23.95,-14.64,-4.674,-21.82,-9.998,4.531,0,0,0,0,0,0,0,0,0,0,0,0,0,0,0,0,
27,0.4685,-8.571,-9.158,-14.28,-8.488,-15.31,-12.44,-26.5,-20.59,-29.06,-18.78,-16.87,-9.135,-24.62,-16.38,1.725,0,0,0,0,0,0,0,0,0,0,0,0,0,0,0,0,
28,8.596,-7.276,-8.216,-12.78,-7.828,-12.88,14.29,-16.78,-20.92,-27.88,-8.133,-17.86,-7.512,-20.18,-5.937,5.727,0,0,0,0,0,0,0,0,0,0,0,0,0,0,0,0,
29,20.66,1.343,-1.752,-16.21,-2.192,-12.76,11.9,-24.79,-17.83,-22.31,-7.362,-19.05,-7.695,-17.68,-3.469,4.391,0,0,0,0,0,0,0,0,0,0,0,0,0,0,0,0,
30,23.53,-1.742,-3.572,-23.97,-4.103,-17.75,0.3828,-28.77,-18.84,-23.3,-9.834,-25.26,-15.84,-23.0,-11.22,0.3835,0,0,0,0,0,0,0,0,0,0,0,0,0,0,0,0,
31,18.38,-18.6,-5.517,-20.08,-5.44,-14.22,17.62,-22.96,-23.27,-27.14,0.1138,-20.16,-14.16,-16.11,1.408,14.24,0,0,0,0,0,0,0,0,0,0,0,0,0,0,0,0,
32,20.29,-19.54,3.731,-7.662,3.796,-1.363,22.64,-22.1,-14.91,-19.79,11.12,-11.04,-1.895,-5.567,15.72,26.54,0,0,0,0,0,0,0,0,0,0,0,0,0,0,0,0,
33,20.08,-0.5166,7.144,-8.45,7.178,-2.857,9.688,-24.39,-3.709,-15.99,5.46,-18.16,0.4366,-11.41,6.485,18.02,0,0,0,0,0,0,0,0,0,0,0,0,0,0,0,0,
34,12.33,11.07,-0.1386,-11.26,-0.049,-10.15,8.222,-31.61,-7.518,-22.19,-12.84,-23.64,-8.265,-20.25,-3.794,7.039,0,0,0,0,0,0,0,0,0,0,0,0,0,0,0,0,
35,13.74,8.379,-3.458,-5.744,-4.048,-4.299,-7.936,-36.3,-17.84,-23.56,-28.35,-19.25,-16.75,-23.77,-7.157,-1.095,0,0,0,0,0,0,0,0,0,0,0,0,0,0,0,0,
36,22.01,2.147,-2.449,-12.29,-2.981,-0.1848,-28.6,-28.47,-22.31,-23.63,-24.28,-22.07,-17.17,-24.5,-8.917,-5.336,0,0,0,0,0,0,0,0,0,0,0,0,0,0,0,0,
37,26.72,-3.149,0.0925,-22.17,0.5359,-1.991,-7.396,-28.31,-17.87,-24.75,-7.192,-22.76,-7.094,-15.93,2.553,6.631,0,0,0,0,0,0,0,0,0,0,0,0,0,0,0,0,
38,32.16,-1.462,7.421,-10.06,7.863,3.553,15.05,-34.16,-7.764,-18.75,-2.688,-16.71,0.7265,-8.322,13.7,15.5,0,0,0,0,0,0,0,0,0,0,0,0,0,0,0,0,
39,32.09,2.225,11.07,2.7,10.99,7.252,1.965,-19.11,-4.183,-15.45,-6.753,-21.59,-2.866,-14.45,7.335,4.937,0,0,0,0,0,0,0,0,0,0,0,0,0,0,0,0,
40,23.11,-0.3499,7.218,-3.016,7.441,4.258,1.268,-6.145,-10.74,-19.02,-1.887,-25.95,-2.636,-18.09,5.676,2.209,0,0,0,0,0,0,0,0,0,0,0,0,0,0,0,0,
41,21.22,3.487,8.408,-4.25,9.071,8.748,20.32,-24.07,-12.77,-15.42,4.206,-19.36,7.774,-10.77,14.14,11.63,0,0,0,0,0,0,0,0,0,0,0,0,0,0,0,0,
42,23.48,10.3,10.93,1.391,11.28,14.34,14.96,-38.48,-5.265,-8.905,5.527,-18.99,10.54,-7.719,12.23,10.48,0,0,0,0,0,0,0,0,0,0,0,0,0,0,0,0,
43,21.4,6.396,6.402,-1.512,6.533,9.67,-3.416,-23.94,-0.7256,-10.65,5.693,-16.6,5.453,-9.064,9.015,9.783,0,0,0,0,0,0,0,0,0,0,0,0,0,0,0,0,
44,30.18,10.36,9.973,-0.5486,10.46,6.715,-1.04,-12.64,-1.298,-12.56,-0.9672,-4.759,6.372,-7.713,12.5,14.56,0,0,0,0,0,0,0,0,0,0,0,0,0,0,0,0,
45,45.14,22.91,23.23,6.985,23.69,12.18,11.79,-19.64,1.913,-10.86,-3.694,-5.285,11.02,-8.282,11.87,9.875,0,0,0,0,0,0,0,0,0,0,0,0,0,0,0,0,
46,45.72,17.01,29.18,6.667,29.38,18.64,20.08,-21.72,11.74,-9.473,12.72,-11.82,17.23,-7.621,14.41,8.651,0,0,0,0,0,0,0,0,0,0,0,0,0,0,0,0,
47,37.71,4.254,27.49,5.29,27.59,19.25,24.32,-20.12,19.97,-6.512,21.52,-9.957,19.64,-6.167,17.46,12.28,0,0,0,0,0,0,0,0,0,0,0,0,0,0,0,0,
48,32.19,12.65,25.67,9.563,25.56,15.96,21.75,-28.32,13.93,-4.252,7.701,-10.52,10.96,-10.41,9.894,7.165,0,0,0,0,0,0,0,0,0,0,0,0,0,0,0,0,
49,33.4,31.66,27.48,12.31,27.37,18.92,21.09,-31.85,3.697,-2.533,2.568,-11.01,7.185,-11.03,7.85,8.449,0,0,0,0,0,0,0,0,0,0,0,0,0,0,0,0,
50,38.77,28.99,28.37,11.71,28.41,20.01,24.16,-24.24,6.839,-1.31,8.278,-10.33,11.53,-8.778,10.84,11.93,0,0,0,0,0,0,0,0,0,0,0,0,0,0,0,0,
51,37.13,5.021,23.02,9.742,23.28,11.36,16.39,-15.72,10.03,-7.261,4.723,-14.91,9.415,-12.51,5.553,4.344,0,0,0,0,0,0,0,0,0,0,0,0,0,0,0,0,
52,36.54,0.373,22.84,8.253,23.13,10.25,12.09,-7.115,5.918,-11.31,-0.1179,-13.84,8.231,-13.74,3.866,4.444,0,0,0,0,0,0,0,0,0,0,0,0,0,0,0,0,
53,40.16,17.26,23.97,5.332,23.56,10.16,16.12,-5.539,4.638,-9.572,-4.838,-12.43,5.609,-15.79,1.744,3.866,0,0,0,0,0,0,0,0,0,0,0,0,0,0,0,0,
54,30.4,15.49,12.72,0.1817,12.51,-1.526,4.38,-16.63,-2.219,-16.72,-11.1,-20.47,-6.93,-23.83,-8.904,-9.864,0,0,0,0,0,0,0,0,0,0,0,0,0,0,0,0,
55,20.22,4.492,5.495,0.2683,6.171,-2.922,-0.6488,-26.58,-11.83,-23.22,-7.226,-22.49,-9.976,-23.51,-10.05,-10.54,0,0,0,0,0,0,0,0,0,0,0,0,0,0,0,0,
56,22.94,10.36,6.032,4.675,6.026,3.964,14.31,-25.4,-10.74,-18.17,-2.448,-17.73,-4.118,-18.29,-5.939,-3.278,0,0,0,0,0,0,0,0,0,0,0,0,0,0,0,0,
57,20.09,12.71,1.495,5.294,1.205,0.3396,7.504,-18.09,-11.52,-17.33,-5.838,-16.2,-8.713,-19.87,-10.61,-7.713,0,0,0,0,0,0,0,0,0,0,0,0,0,0,0,0,
58,17.66,1.805,2.163,0.6112,2.481,-4.072,-8.898,-22.28,-17.82,-22.48,-5.894,-17.12,-14.87,-23.53,-12.06,-9.83,0,0,0,0,0,0,0,0,0,0,0,0,0,0,0,0,
59,26.45,-7.194,4.477,-6.121,3.986,-7.473,-4.166,-39.64,-20.59,-26.8,-4.485,-24.48,-16.11,-27.49,-10.69,-10.34,0,0,0,0,0,0,0,0,0,0,0,0,0,0,0,0,
60,29.45,-8.427,-1.866,-6.689,-2.532,-13.27,-5.83,-37.65,-25.25,-32.84,-11.2,-30.2,-20.8,-28.17,-15.21,-15.2,0,0,0,0,0,0,0,0,0,0,0,0,0,0,0,0,
61,26.98,0.85,-3.242,-3.096,-3.144,-14.66,-12.14,-20.18,-26.52,-35.46,-18.56,-23.47,-23.16,-23.02,-13.39,-10.94,0,0,0,0,0,0,0,0,0,0,0,0,0,0,0,0,
62,25.01,6.594,-3.182,-6.148,-3.74,-17.14,-4.043,-22.23,-20.03,-34.93,-13.84,-17.44,-17.68,-21.76,-2.764,-2.607,0,0,0,0,0,0,0,0,0,0,0,0,0,0,0,0,
63,18.09,-4.898,-7.295,-10.05,-7.621,-19.68,0.6035,-23.46,-19.76,-37.7,-3.167,-15.55,-11.65,-22.98,3.928,-0.7802,0,0,0,0,0,0,0,0,0,0,0,0,0,0,0,0,
64,20.21,-10.99,2.201,-7.53,3.293,-14.1,10.96,-11.02,-18.68,-37.51,-2.066,-8.918,-7.827,-18.77,5.181,-1.466,0,0,0,0,0,0,0,0,0,0,0,0,0,0,0,0,
65,33.27,-3.865,15.51,-2.209,15.95,-8.448,27.78,-17.92,-5.381,-30.07,-4.497,-3.73,-4.0,-11.45,3.983,-4.178,0,0,0,0,0,0,0,0,0,0,0,0,0,0,0,0,
66,35.43,-4.099,11.12,0.9226,10.38,-6.757,16.0,-27.54,0.3573,-20.33,0.458,-1.02,1.087,-0.5948,6.98,-2.586,0,0,0,0,0,0,0,0,0,0,0,0,0,0,0,0,
67,33.54,-5.289,5.568,-2.069,5.561,-1.611,0.8438,-12.28,-4.906,-10.69,6.763,4.074,10.82,11.15,20.23,7.19,0,0,0,0,0,0,0,0,0,0,0,0,0,0,0,0,
68,41.69,5.43,11.87,1.339,12.9,7.687,13.98,-2.817,1.395,-1.993,10.46,5.163,19.84,15.34,27.18,11.29,0,0,0,0,0,0,0,0,0,0,0,0,0,0,0,0,
69,48.05,18.76,16.85,14.57,17.75,11.82,21.97,-13.49,11.95,1.396,11.48,4.787,17.49,15.86,21.22,10.32,0,0,0,0,0,0,0,0,0,0,0,0,0,0,0,0,
70,49.63,24.84,20.34,13.18,20.66,7.302,20.67,-23.62,11.07,-2.705,12.68,11.08,13.35,18.42,22.91,14.9,0,0,0,0,0,0,0,0,0,0,0,0,0,0,0,0,
71,49.31,15.29,24.79,1.898,25.24,5.446,28.22,-22.07,11.38,-6.212,18.74,15.69,17.05,18.38,28.86,16.09,0,0,0,0,0,0,0,0,0,0,0,0,0,0,0,0,
72,40.68,-3.576,18.93,0.3095,19.69,8.259,26.56,-9.646,13.67,-3.607,19.7,14.08,16.76,14.25,26.0,12.1,0,0,0,0,0,0,0,0,0,0,0,0,0,0,0,0,
73,34.94,-9.728,10.91,-3.042,11.03,8.514,19.2,-6.853,7.239,-2.271,11.72,13.16,11.31,8.503,23.56,12.38,0,0,0,0,0,0,0,0,0,0,0,0,0,0,0,0,
74,42.32,-1.883,14.24,-4.934,14.04,12.2,18.42,-20.11,3.653,-4.706,6.437,11.41,9.648,4.595,19.11,11.42,0,0,0,0,0,0,0,0,0,0,0,0,0,0,0,0,
75,47.87,13.47,17.5,7.759,17.85,18.63,8.912,-16.21,8.56,-4.163,4.08,9.415,9.893,8.047,11.07,9.387,0,0,0,0,0,0,0,0,0,0,0,0,0,0,0,0,
76,46.68,30.84,15.86,16.46,16.23,17.66,4.265,1.03,10.78,-1.97,1.006,10.72,10.8,11.38,10.04,11.27,0,0,0,0,0,0,0,0,0,0,0,0,0,0,0,0,
77,47.79,29.45,17.0,11.17,17.68,14.57,23.56,-4.979,8.703,-5.23,-2.259,7.164,8.911,5.559,8.104,8.202,0,0,0,0,0,0,0,0,0,0,0,0,0,0,0,0,
78,51.46,18.6,20.57,7.065,21.83,15.8,35.57,-18.67,8.718,-8.835,-5.973,1.412,3.88,3.956,7.441,5.66,0,0,0,0,0,0,0,0,0,0,0,0,0,0,0,0,
79,56.6,25.1,27.01,8.742,27.53,16.76,21.06,-19.84,13.72,-3.73,-3.401,5.539,5.995,9.603,15.55,12.4,0,0,0,0,0,0,0,0,0,0,0,0,0,0,0,0,
80,58.38,26.3,31.0,7.026,31.46,14.88,9.759,-25.47,15.83,0.2603,4.11,9.025,9.437,4.184,10.73,11.56,0,0,0,0,0,0,0,0,0,0,0,0,0,0,0,0,
81,49.72,7.341,23.78,-1.613,25.2,10.88,17.57,-29.18,8.109,-6.963,2.827,0.9772,3.667,-8.835,-5.667,0.0035,0,0,0,0,0,0,0,0,0,0,0,0,0,0,0,0,
82,37.93,-0.8732,12.85,-8.513,13.24,3.991,21.79,-23.91,0.5908,-16.19,-7.297,-7.159,-3.036,-15.63,-8.766,-5.813,0,0,0,0,0,0,0,0,0,0,0,0,0,0,0,0,
83,35.14,6.617,7.022,-5.49,6.503,-2.72,9.735,-26.71,-2.61,-21.92,-12.81,-7.285,-5.841,-16.97,-4.091,-5.672,0,0,0,0,0,0,0,0,0,0,0,0,0,0,0,0,
84,41.45,13.18,7.896,5.663,8.358,1.135,2.67,-24.78,-5.791,-21.24,-6.656,-2.81,-4.098,-10.1,1.182,-2.612,0,0,0,0,0,0,0,0,0,0,0,0,0,0,0,0,
85,44.95,21.42,15.62,17.0,15.86,15.5,16.61,-9.714,-1.421,-7.551,3.652,2.101,5.097,2.269,10.27,3.513,0,0,0,0,0,0,0,0,0,0,0,0,0,0,0,0,
86,40.36,28.24,23.05,16.7,22.7,22.04,27.16,-6.326,9.76,3.812,6.064,2.927,10.98,6.552,13.13,5.198,0,0,0,0,0,0,0,0,0,0,0,0,0,0,0,0,
87,41.43,23.12,25.51,6.716,25.83,15.85,11.21,-9.756,14.89,-1.882,1.14,1.971,6.632,4.058,9.262,5.335,0,0,0,0,0,0,0,0,0,0,0,0,0,0,0,0,
88,50.52,16.0,25.6,9.605,25.75,14.5,3.875,-5.096,14.16,-5.802,0.269,7.944,5.205,4.696,9.95,13.22,0,0,0,0,0,0,0,0,0,0,0,0,0,0,0,0,
89,53.08,22.67,23.4,25.39,23.38,21.68,29.33,-6.523,14.23,4.05,8.066,17.15,12.06,10.29,14.11,21.18,0,0,0,0,0,0,0,0,0,0,0,0,0,0,0,0,
90,54.09,33.94,20.65,27.18,21.34,22.9,33.93,-11.52,14.19,11.25,9.385,17.38,13.51,16.09,13.6,18.16,0,0,0,0,0,0,0,0,0,0,0,0,0,0,0,0,
91,61.88,38.45,22.27,20.06,23.13,19.18,3.868,-3.329,10.98,9.315,-7.71,12.22,5.96,16.17,7.355,9.623,0,0,0,0,0,0,0,0,0,0,0,0,0,0,0,0,
92,75.32,56.05,33.13,31.94,34.5,25.36,3.578,8.736,9.898,9.868,-16.48,13.14,6.553,14.96,6.361,7.253,0,0,0,0,0,0,0,0,0,0,0,0,0,0,0,0,
93,112.8,100.6,57.62,60.97,59.51,44.37,34.17,14.25,21.35,18.17,4.969,17.59,20.29,19.44,15.79,11.88,0,0,0,0,0,0,0,0,0,0,0,0,0,0,0,0,
94,175.7,155.5,90.6,91.94,91.71,69.33,48.58,24.2,40.87,31.2,23.12,20.25,29.49,25.22,20.61,16.3,0,0,0,0,0,0,0,0,0,0,0,0,0,0,0,0,
95,230.4,209.5,119.5,115.9,120.1,91.98,52.38,37.7,54.58,45.51,17.61,26.1,32.09,31.64,18.38,21.11,0,0,0,0,0,0,0,0,0,0,0,0,0,0,0,0,
96,277.9,259.3,143.5,130.9,144.4,110.0,63.7,37.01,65.17,58.44,21.01,34.39,41.95,41.14,24.91,30.05,0,0,0,0,0,0,0,0,0,0,0,0,0,0,0,0,
97,333.8,300.5,169.8,153.4,170.8,131.0,79.82,28.68,78.5,69.01,33.38,31.78,47.22,42.44,28.8,31.92,0,0,0,0,0,0,0,0,0,0,0,0,0,0,0,0,
98,369.1,331.7,192.3,181.6,193.9,149.2,85.22,30.16,82.49,72.89,20.57,20.74,34.51,32.87,15.04,20.79,0,0,0,0,0,0,0,0,0,0,0,0,0,0,0,0,
99,367.9,344.6,207.7,194.1,209.6,155.8,67.36,38.31,78.06,70.88,6.067,23.69,29.98,32.78,12.17,18.31,0,0,0,0,0,0,0,0,0,0,0,0,0,0,0,0,
100,361.5,339.6,226.2,204.9,227.9,167.8,59.0,50.83,87.79,77.49,23.56,34.95,44.99,44.74,31.33,31.49,0,0,0,0,0,0,0,0,0,0,0,0,0,0,0,0,
101,365.2,337.2,239.2,222.7,240.4,184.3,79.34,59.25,102.9,90.52,37.63,32.01,48.84,47.49,38.53,37.35,0,0,0,0,0,0,0,0,0,0,0,0,0,0,0,0,
102,366.6,340.2,234.5,224.4,235.8,184.8,90.21,52.13,99.13,93.24,28.93,32.65,43.74,46.87,37.78,38.14,0,0,0,0,0,0,0,0,0,0,0,0,0,0,0,0,
103,363.7,338.6,234.1,220.5,236.7,184.4,89.22,53.01,96.89,97.06,30.35,47.8,55.1,59.78,50.91,46.52,0,0,0,0,0,0,0,0,0,0,0,0,0,0,0,0,
104,363.2,335.2,244.3,226.1,247.3,193.6,93.89,67.61,109.9,109.8,36.24,46.84,60.09,65.27,48.23,41.42,0,0,0,0,0,0,0,0,0,0,0,0,0,0,0,0,
105,361.4,327.7,242.8,221.5,244.2,192.4,87.57,66.71,110.2,109.1,31.19,35.62,46.36,52.93,28.56,25.78,0,0,0,0,0,0,0,0,0,0,0,0,0,0,0,0,
106,354.2,315.0,236.2,209.3,237.7,185.5,88.75,63.01,102.1,99.77,38.48,39.99,48.45,50.73,34.26,31.02,0,0,0,0,0,0,0,0,0,0,0,0,0,0,0,0,
107,344.5,310.1,234.2,207.5,236.0,181.7,104.0,70.82,107.5,102.3,42.1,37.96,58.92,56.98,43.39,38.53,0,0,0,0,0,0,0,0,0,0,0,0,0,0,0,0,
108,325.1,305.5,220.5,206.5,221.2,169.3,83.47,66.95,107.4,102.4,20.03,26.66,48.57,51.61,28.27,30.58,0,0,0,0,0,0,0,0,0,0,0,0,0,0,0,0,
109,299.3,289.5,202.2,198.9,203.4,157.9,53.67,60.46,96.85,95.61,14.8,35.22,42.36,49.73,27.34,37.0,0,0,0,0,0,0,0,0,0,0,0,0,0,0,0,0,
110,286.5,276.9,196.6,193.6,198.6,156.7,68.06,63.9,95.9,96.17,25.32,43.11,49.28,53.12,36.64,45.0,0,0,0,0,0,0,0,0,0,0,0,0,0,0,0,0,
111,274.4,262.5,190.6,185.9,191.4,152.4,80.14,57.62,92.23,90.66,8.186,30.13,40.86,44.28,21.99,26.15,0,0,0,0,0,0,0,0,0,0,0,0,0,0,0,0,
112,252.8,230.7,177.6,169.0,178.3,146.9,71.29,47.79,80.57,78.25,-2.096,26.76,32.72,41.04,15.66,16.35,0,0,0,0,0,0,0,0,0,0,0,0,0,0,0,0,
113,241.5,206.2,168.8,155.3,170.5,142.6,78.66,44.18,83.79,80.6,17.58,34.76,41.42,49.78,30.46,26.46,0,0,0,0,0,0,0,0,0,0,0,0,0,0,0,0,
114,225.6,198.1,160.2,148.3,161.1,127.7,81.02,41.33,87.92,81.51,21.42,31.21,39.89,46.16,30.12,23.75,0,0,0,0,0,0,0,0,0,0,0,0,0,0,0,0,
115,192.1,182.0,146.0,138.8,146.6,113.8,65.77,52.98,74.63,68.04,12.48,29.12,30.31,38.9,23.27,18.8,0,0,0,0,0,0,0,0,0,0,0,0,0,0,0,0,
116,164.4,154.9,129.4,127.3,130.4,109.1,54.9,60.85,65.75,62.55,13.22,32.16,28.53,37.56,24.88,18.82,0,0,0,0,0,0,0,0,0,0,0,0,0,0,0,0,
117,138.8,124.4,112.1,107.8,112.6,93.22,41.75,33.8,59.65,57.55,8.181,24.71,21.28,26.38,21.32,8.128,0,0,0,0,0,0,0,0,0,0,0,0,0,0,0,0,
118,116.3,99.53,102.3,82.78,102.5,72.99,36.56,12.54,44.9,42.4,8.466,19.43,16.12,18.26,21.51,5.335,0,0,0,0,0,0,0,0,0,0,0,0,0,0,0,0,
119,108.2,79.27,96.87,70.94,97.05,67.34,51.34,22.5,42.79,39.4,17.34,22.55,23.08,21.98,27.92,13.77,0,0,0,0,0,0,0,0,0,0,0,0,0,0,0,0,
120,86.1,43.93,81.94,61.25,82.31,60.03,57.61,22.23,46.55,40.9,11.24,19.35,24.49,18.8,26.77,11.97,0,0,0,0,0,0,0,0,0,0,0,0,0,0,0,0,
121,59.3,15.23,74.11,44.47,75.22,48.41,47.02,8.482,40.02,32.48,6.934,15.17,22.87,14.69,23.3,8.423,0,0,0,0,0,0,0,0,0,0,0,0,0,0,0,0,
122,53.29,18.5,76.38,41.14,77.66,46.25,35.34,6.577,40.85,31.33,6.686,12.16,20.63,11.46,12.99,2.731,0,0,0,0,0,0,0,0,0,0,0,0,0,0,0,0,
123,33.26,16.27,58.8,44.76,59.96,42.2,32.02,9.039,38.0,30.97,-12.46,1.918,5.752,-3.679,-4.027,-12.52,0,0,0,0,0,0,0,0,0,0,0,0,0,0,0,0,
124,7.118,0.3823,40.12,42.29,41.54,36.87,36.64,8.771,21.49,21.56,-18.06,-3.852,-1.177,-11.99,-3.796,-16.69,0,0,0,0,0,0,0,0,0,0,0,0,0,0,0,0,
125,7.274,-4.755,48.4,42.01,49.15,39.14,36.19,7.187,23.63,20.22,2.653,-3.584,8.33,-8.245,3.244,-13.76,0,0,0,0,0,0,0,0,0,0,0,0,0,0,0,0,
126,-1.056,-18.24,50.78,30.95,50.68,32.49,37.57,5.593,33.35,19.96,5.004,-9.129,6.062,-13.09,-2.057,-19.24,0,0,0,0,0,0,0,0,0,0,0,0,0,0,0,0,
127,-18.06,-40.74,36.21,8.378,36.67,20.11,41.09,6.954,22.23,9.404,-4.949,-11.2,-3.961,-18.21,-0.0926,-16.76,0,0,0,0,0,0,0,0,0,0,0,0,0,0,0,0,
128,-17.08,-53.63,30.13,5.852,30.86,19.87,23.79,1.175,14.03,3.853,-1.905,-9.404,-6.506,-18.85,6.692,-13.7,0,0,0,0,0,0,0,0,0,0,0,0,0,0,0,0,
129,-29.34,-69.49,23.42,15.53,23.48,17.63,10.61,-11.8,12.47,3.183,-8.089,-16.77,-15.76,-28.23,-3.425,-30.5,0,0,0,0,0,0,0,0,0,0,0,0,0,0,0,0,
130,-51.01,-76.81,11.05,7.841,11.96,7.851,21.33,-16.35,0.0973,-2.015,-18.96,-21.1,-24.88,-32.26,-11.3,-41.28,0,0,0,0,0,0,0,0,0,0,0,0,0,0,0,0,
131,-48.95,-62.77,14.15,0.1908,16.8,10.08,23.08,-9.882,-0.2876,-1.828,-9.789,-12.99,-13.04,-19.17,-1.827,-27.84,0,0,0,0,0,0,0,0,0,0,0,0,0,0,0,0,
132,-47.21,-60.14,25.61,11.4,27.44,20.26,21.3,2.167,16.81,8.97,-3.913,-5.557,4.5,-5.672,7.729,-9.835,0,0,0,0,0,0,0,0,0,0,0,0,0,0,0,0,
133,-53.17,-73.16,25.94,13.86,26.08,20.19,26.59,5.517,21.76,19.21,-14.32,-1.643,8.848,0.2672,17.38,5.305,0,0,0,0,0,0,0,0,0,0,0,0,0,0,0,0,
134,-50.87,-79.96,18.73,-4.589,19.35,10.85,14.02,-3.176,15.22,18.37,-17.07,-0.0503,4.139,0.9119,27.39,12.64,0,0,0,0,0,0,0,0,0,0,0,0,0,0,0,0,
135,-63.86,-90.71,7.476,-14.99,8.044,0.7463,-0.6787,-3.369,10.22,6.84,-13.96,-5.727,-6.257,-3.594,20.03,1.015,0,0,0,0,0,0,0,0,0,0,0,0,0,0,0,0,
136,-84.88,-105.0,-8.705,-12.51,-9.207,-5.837,-0.1526,-7.703,1.801,-4.314,-15.9,-10.74,-16.11,-5.392,10.81,-9.489,0,0,0,0,0,0,0,0,0,0,0,0,0,0,0,0,
137,-82.29,-110.0,-17.28,-17.24,-16.85,-8.981,-2.284,-25.61,-5.693,-7.561,-13.92,-8.364,-16.31,-0.6248,20.09,-0.2084,0,0,0,0,0,0,0,0,0,0,0,0,0,0,0,0,
138,-80.24,-116.1,-10.82,-20.32,-9.558,-10.05,0.0356,-15.61,-6.156,-7.626,-9.576,-4.717,-11.63,6.648,25.53,10.21,0,0,0,0,0,0,0,0,0,0,0,0,0,0,0,0,
139,-90.24,-118.7,-4.547,-12.64,-4.192,-7.779,9.571,4.715,-3.261,-7.142,-9.021,-2.236,-8.072,13.16,19.64,10.32,0,0,0,0,0,0,0,0,0,0,0,0,0,0,0,0,
140,-95.3,-114.6,-12.75,-19.77,-12.6,-11.82,8.096,-15.17,1.482,-7.354,-10.73,-5.239,-8.443,7.957,18.06,6.806,0,0,0,0,0,0,0,0,0,0,0,0,0,0,0,0,
141,-110.8,-127.8,-24.78,-43.39,-24.26,-25.48,3.908,-31.52,-1.494,-15.02,-12.98,-13.73,-11.66,-3.377,17.86,3.779,0,0,0,0,0,0,0,0,0,0,0,0,0,0,0,0,
142,-118.8,-136.3,-22.14,-44.75,-21.64,-22.09,0.3196,-15.17,-9.616,-17.38,-8.877,-11.23,-5.37,6.375,21.72,7.403,0,0,0,0,0,0,0,0,0,0,0,0,0,0,0,0,
143,-92.8,-113.7,-13.57,-25.57,-13.26,-3.739,-12.17,-13.63,-2.806,-2.299,-3.194,0.0674,2.125,22.4,28.32,9.981,0,0,0,0,0,0,0,0,0,0,0,0,0,0,0,0,
144,-83.02,-103.9,-17.59,-24.51,-17.58,-6.944,-10.9,-21.18,4.145,0.6333,-3.746,2.874,-6.721,14.81,22.49,2.577,0,0,0,0,0,0,0,0,0,0,0,0,0,0,0,0,
145,-98.52,-115.9,-19.59,-35.05,-19.0,-17.03,12.49,-7.682,-2.267,-15.17,0.167,6.047,-11.61,9.243,18.15,2.333,0,0,0,0,0,0,0,0,0,0,0,0,0,0,0,0,
146,-90.74,-113.6,-10.29,-30.51,-9.108,-7.982,19.54,0.5864,2.826,-12.1,-0.1447,11.69,-5.985,17.57,20.52,7.09,0,0,0,0,0,0,0,0,0,0,0,0,0,0,0,0,
147,-86.53,-112.9,-15.58,-23.7,-15.11,-7.927,0.7735,-7.502,7.122,-0.5739,-13.4,3.18,-14.55,9.728,8.283,-2.047,0,0,0,0,0,0,0,0,0,0,0,0,0,0,0,0,
148,-107.4,-125.1,-30.46,-32.89,-29.87,-23.9,-7.842,-11.34,-10.05,-8.54,-12.42,-4.969,-22.4,-3.595,-0.9005,-7.113,0,0,0,0,0,0,0,0,0,0,0,0,0,0,0,0,
149,-108.0,-128.9,-27.58,-45.52,-25.95,-27.98,2.393,-11.57,-15.01,-12.88,-3.022,0.8161,-13.76,-2.236,8.69,0.5806,0,0,0,0,0,0,0,0,0,0,0,0,0,0,0,0,
150,-95.05,-126.7,-24.74,-46.61,-23.05,-25.84,3.785,-18.42,-7.416,-9.417,-10.37,1.673,-13.49,-4.405,11.92,1.122,0,0,0,0,0,0,0,0,0,0,0,0,0,0,0,0,
151,-101.7,-123.9,-32.57,-46.27,-31.15,-30.5,-7.198,-26.77,-15.21,-18.0,-7.55,2.87,-12.7,-5.84,17.12,7.191,0,0,0,0,0,0,0,0,0,0,0,0,0,0,0,0,
152,-104.3,-121.0,-25.17,-49.59,-24.28,-29.52,-0.2596,-22.61,-10.93,-18.98,11.1,17.46,8.772,8.214,37.73,25.79,0,0,0,0,0,0,0,0,0,0,0,0,0,0,0,0,
153,-90.62,-117.9,-13.26,-41.27,-12.99,-22.89,18.03,-12.19,9.723,-5.232,5.409,18.45,14.16,11.8,34.92,20.85,0,0,0,0,0,0,0,0,0,0,0,0,0,0,0,0,
154,-90.56,-107.7,-21.59,-30.56,-20.62,-25.28,6.699,-13.7,2.189,-6.493,-13.53,-0.6844,-9.426,-5.767,9.811,-3.441,0,0,0,0,0,0,0,0,0,0,0,0,0,0,0,0,
155,-102.9,-110.5,-28.58,-34.52,-27.35,-30.03,-11.98,-15.4,-18.59,-17.86,-7.593,-6.696,-15.14,-12.3,13.04,-5.174,0,0,0,0,0,0,0,0,0,0,0,0,0,0,0,0,
156,-100.9,-131.7,-20.89,-38.83,-20.96,-24.88,-1.318,-13.25,-11.92,-13.44,7.898,2.531,0.1839,-0.2618,30.53,5.021,0,0,0,0,0,0,0,0,0,0,0,0,0,0,0,0,
157,-95.37,-132.0,-18.68,-40.42,-18.39,-21.27,5.454,-23.53,0.9871,-5.318,7.785,6.492,0.8442,7.188,25.39,1.643,0,0,0,0,0,0,0,0,0,0,0,0,0,0,0,0,
158,-99.75,-113.5,-21.52,-46.53,-19.63,-24.49,4.41,-23.34,-2.299,-8.858,4.062,7.474,-3.853,9.975,20.89,1.521,0,0,0,0,0,0,0,0,0,0,0,0,0,0,0,0,
159,-92.9,-109.6,-18.81,-46.33,-17.58,-22.97,15.71,-4.674,-3.122,-9.211,5.612,9.963,0.8028,16.59,29.76,9.249,0,0,0,0,0,0,0,0,0,0,0,0,0,0,0,0,
160,-77.2,-109.3,-17.38,-40.27,-17.32,-18.63,6.373,-3.645,1.946,-1.013,6.758,13.64,2.53,18.82,33.29,11.38,0,0,0,0,0,0,0,0,0,0,0,0,0,0,0,0,
161,-77.01,-98.78,-16.47,-32.41,-15.54,-14.37,-3.756,-7.807,2.826,4.037,11.42,23.65,7.715,19.01,37.29,17.08,0,0,0,0,0,0,0,0,0,0,0,0,0,0,0,0,
162,-85.15,-94.83,-13.28,-25.52,-11.87,-8.198,18.75,4.897,7.353,5.718,11.81,30.83,15.33,22.09,42.01,24.32,0,0,0,0,0,0,0,0,0,0,0,0,0,0,0,0,
163,-84.75,-106.8,-14.65,-32.46,-14.03,-8.485,12.27,4.997,12.52,6.507,-2.353,24.81,7.849,20.07,36.67,18.76,0,0,0,0,0,0,0,0,0,0,0,0,0,0,0,0,
164,-76.91,-117.8,-15.27,-37.15,-14.69,-10.48,-19.39,-7.925,8.994,5.984,-5.595,17.83,4.548,18.79,35.99,13.8,0,0,0,0,0,0,0,0,0,0,0,0,0,0,0,0,
165,-73.49,-110.8,-12.38,-25.78,-11.74,-6.221,-4.047,-7.223,9.629,7.739,10.22,17.23,14.72,22.04,41.82,16.9,0,0,0,0,0,0,0,0,0,0,0,0,0,0,0,0,
166,-82.7,-101.0,-17.45,-27.95,-17.13,-10.25,17.96,0.1154,13.77,5.831,11.24,16.94,10.43,17.11,37.88,13.22,0,0,0,0,0,0,0,0,0,0,0,0,0,0,0,0,
167,-91.77,-104.7,-24.92,-40.05,-23.87,-20.04,-0.3368,5.595,6.809,-2.436,-1.653,18.63,0.8092,12.33,30.21,5.435,0,0,0,0,0,0,0,0,0,0,0,0,0,0,0,0,
168,-87.96,-103.3,-22.62,-29.61,-20.74,-15.95,-6.798,9.851,2.725,-1.379,-4.172,21.51,5.299,17.97,26.01,5.024,0,0,0,0,0,0,0,0,0,0,0,0,0,0,0,0,
169,-81.04,-91.85,-19.85,-17.8,-18.47,-9.161,14.23,4.696,8.607,7.279,-5.607,18.29,4.319,17.71,23.7,8.263,0,0,0,0,0,0,0,0,0,0,0,0,0,0,0,0,
170,-81.24,-94.46,-24.59,-29.4,-23.9,-15.0,14.98,-5.266,5.494,3.576,-8.689,11.22,-3.435,9.855,26.65,7.418,0,0,0,0,0,0,0,0,0,0,0,0,0,0,0,0,
171,-85.53,-103.4,-27.9,-40.08,-27.47,-19.61,-6.728,-7.604,-1.668,-5.787,-4.539,4.382,-3.459,6.299,27.23,-0.4332,0,0,0,0,0,0,0,0,0,0,0,0,0,0,0,0,
172,-87.71,-99.66,-25.94,-34.96,-25.23,-15.88,-11.34,-6.014,-0.4762,-5.546,-9.71,-2.97,-4.626,1.601,19.91,-8.972,0,0,0,0,0,0,0,0,0,0,0,0,0,0,0,0,
173,-86.6,-102.4,-25.36,-26.89,-24.02,-13.36,3.131,-3.146,-0.1891,-4.059,-21.68,-6.655,-4.552,-2.702,16.38,-9.258,0,0,0,0,0,0,0,0,0,0,0,0,0,0,0,0,
174,-83.68,-115.0,-28.18,-23.86,-27.33,-12.68,7.448,7.71,1.558,-6.004,-14.54,-5.245,3.611,0.0662,18.37,-6.42,0,0,0,0,0,0,0,0,0,0,0,0,0,0,0,0,
175,-80.11,-107.8,-29.99,-25.31,-29.87,-13.5,-3.308,15.74,8.315,-5.831,-0.8346,-3.867,4.532,-0.4783,19.71,-7.573,0,0,0,0,0,0,0,0,0,0,0,0,0,0,0,0,
176,-77.12,-87.34,-26.98,-21.65,-25.85,-16.51,-6.654,10.03,6.704,-4.961,-1.624,0.1521,-1.117,-2.157,22.42,-6.663,0,0,0,0,0,0,0,0,0,0,0,0,0,0,0,0,
177,-71.78,-79.76,-21.37,-12.62,-19.5,-15.13,9.282,7.335,0.8395,-1.943,-7.206,6.607,-0.676,4.62,22.31,-2.541,0,0,0,0,0,0,0,0,0,0,0,0,0,0,0,0,
178,-68.52,-79.33,-21.88,-18.66,-20.66,-15.12,12.2,7.688,0.6905,-0.5157,-13.41,3.455,-1.731,3.859,16.69,-3.25,0,0,0,0,0,0,0,0,0,0,0,0,0,0,0,0,
179,-75.43,-82.28,-28.19,-32.67,-27.27,-22.88,-17.44,-3.615,-1.657,-9.016,-19.84,-4.767,-6.791,-7.365,15.67,-5.436,0,0,0,0,0,0,0,0,0,0,0,0,0,0,0,0,
180,-79.42,-90.68,-30.56,-30.48,-30.48,-25.79,-26.07,-9.523,-7.282,-14.96,-20.89,-4.772,-10.95,-7.459,16.84,-3.544,0,0,0,0,0,0,0,0,0,0,0,0,0,0,0,0,
181,-74.2,-86.72,-31.79,-25.58,-32.78,-22.31,-1.7,-9.334,-12.78,-11.6,-25.76,-4.245,-18.3,-0.2159,10.45,-3.765,0,0,0,0,0,0,0,0,0,0,0,0,0,0,0,0,
182,-74.04,-79.25,-37.01,-28.68,-36.93,-21.01,-2.202,-19.65,-18.76,-11.22,-32.79,-3.772,-21.99,1.926,3.924,-4.394,0,0,0,0,0,0,0,0,0,0,0,0,0,0,0,0,
183,-76.28,-94.35,-39.67,-28.1,-38.69,-19.41,-14.54,-14.43,-19.71,-9.996,-28.55,5.315,-17.98,3.457,1.399,0.2139,0,0,0,0,0,0,0,0,0,0,0,0,0,0,0,0,
184,-76.34,-103.4,-39.37,-28.42,-39.34,-21.05,-6.854,6.462,-18.69,-7.084,-22.1,7.198,-18.39,-0.3538,-2.064,0.2844,0,0,0,0,0,0,0,0,0,0,0,0,0,0,0,0,
185,-80.12,-83.42,-41.15,-29.85,-41.05,-27.68,-8.166,0.9337,-21.49,-14.92,-24.54,-5.093,-22.22,-11.46,-4.652,-8.716,0,0,0,0,0,0,0,0,0,0,0,0,0,0,0,0,
186,-80.84,-74.2,-44.21,-29.66,-43.29,-29.99,-20.45,-14.37,-24.1,-23.56,-32.99,-13.4,-25.51,-18.4,-8.222,-15.96,0,0,0,0,0,0,0,0,0,0,0,0,0,0,0,0,
187,-78.6,-83.98,-43.78,-39.18,-42.76,-28.61,-28.85,-8.612,-27.31,-24.03,-37.03,-13.36,-28.55,-19.98,-9.952,-14.71,0,0,0,0,0,0,0,0,0,0,0,0,0,0,0,0,
188,-78.27,-80.94,-34.35,-43.32,-33.13,-24.37,-28.58,-4.302,-24.6,-24.22,-26.49,-8.798,-20.01,-16.45,-1.624,-7.722,0,0,0,0,0,0,0,0,0,0,0,0,0,0,0,0,
189,-67.53,-70.58,-24.52,-27.26,-23.89,-14.03,-4.578,-9.468,-10.33,-17.23,-17.87,-3.66,-8.15,-8.869,4.874,-4.633,0,0,0,0,0,0,0,0,0,0,0,0,0,0,0,0,
190,-53.98,-64.42,-26.33,-20.51,-26.87,-9.451,11.01,-12.21,-3.495,-3.902,-22.99,-6.753,-10.42,-9.128,3.776,-9.822,0,0,0,0,0,0,0,0,0,0,0,0,0,0,0,0,
191,-61.75,-66.82,-30.64,-33.94,-30.91,-18.43,-3.317,-16.95,-7.536,-4.817,-19.24,-9.66,-12.32,-15.28,7.642,-12.62,0,0,0,0,0,0,0,0,0,0,0,0,0,0,0,0,
192,-74.88,-85.27,-30.37,-39.44,-30.37,-26.22,-1.84,-12.38,-8.391,-15.46,-10.65,-5.662,-8.49,-16.06,9.689,-8.312,0,0,0,0,0,0,0,0,0,0,0,0,0,0,0,0,
193,-70.67,-88.52,-31.87,-34.04,-32.56,-23.13,6.388,6.08,-12.46,-16.42,-19.02,-7.863,-12.16,-14.09,2.344,-4.976,0,0,0,0,0,0,0,0,0,0,0,0,0,0,0,0,
194,-70.37,-67.12,-35.6,-35.53,-36.0,-21.62,-11.25,7.208,-17.53,-12.04,-26.06,-12.59,-13.81,-12.35,-1.762,-4.221,0,0,0,0,0,0,0,0,0,0,0,0,0,0,0,0,
195,-79.13,-63.48,-39.0,-39.4,-38.69,-28.84,-15.57,-7.262,-12.91,-12.67,-20.02,-8.08,-7.635,-9.851,0.694,-2.443,0,0,0,0,0,0,0,0,0,0,0,0,0,0,0,0,
196,-69.15,-68.37,-36.83,-36.13,-36.86,-30.53,-1.265,-3.686,-9.214,-13.08,-16.33,-3.746,-5.563,-8.674,4.426,-1.442,0,0,0,0,0,0,0,0,0,0,0,0,0,0,0,0,
197,-56.78,-55.8,-29.37,-30.72,-29.6,-21.93,-5.689,5.354,-8.571,-7.759,-14.77,-7.894,-8.036,-8.891,5.783,-5.229,0,0,0,0,0,0,0,0,0,0,0,0,0,0,0,0,
198,-68.15,-51.65,-32.55,-28.53,-32.17,-19.64,-12.1,0.7635,-7.734,-6.153,-17.49,-16.03,-12.09,-10.95,0.2523,-10.96,0,0,0,0,0,0,0,0,0,0,0,0,0,0,0,0,
199,-76.7,-54.54,-44.06,-32.66,-43.4,-26.09,-8.136,1.961,-16.26,-16.36,-28.63,-20.69,-16.62,-13.04,-4.976,-10.61,0,0,0,0,0,0,0,0,0,0,0,0,0,0,0,0,
200,-69.35,-42.56,-41.68,-38.78,-41.54,-24.85,-15.92,1.903,-23.43,-24.49,-26.83,-17.91,-16.83,-10.61,-2.195,-6.59,0,0,0,0,0,0,0,0,0,0,0,0,0,0,0,0,
201,-63.41,-36.19,-29.78,-36.83,-30.63,-17.53,-24.96,-14.49,-17.01,-20.17,-13.34,-13.12,-15.37,-7.826,2.882,-5.737,0,0,0,0,0,0,0,0,0,0,0,0,0,0,0,0,
202,-59.85,-45.5,-31.02,-35.39,-32.4,-21.51,-20.03,-14.49,-14.12,-17.38,-16.76,-8.667,-15.67,-7.555,7.33,-3.203,0,0,0,0,0,0,0,0,0,0,0,0,0,0,0,0,
203,-62.16,-45.64,-43.51,-42.68,-44.03,-33.58,-15.19,4.807,-19.48,-20.26,-26.99,-3.403,-18.25,-5.905,9.426,0.8305,0,0,0,0,0,0,0,0,0,0,0,0,0,0,0,0,
204,-70.77,-30.37,-46.88,-45.61,-46.32,-36.75,-12.15,5.857,-20.48,-18.54,-22.4,-4.562,-23.7,-5.67,5.916,-1.068,0,0,0,0,0,0,0,0,0,0,0,0,0,0,0,0,
205,-69.41,-23.25,-40.57,-43.01,-40.28,-31.94,-5.973,0.4273,-19.63,-16.51,-14.95,-10.3,-22.86,-7.4,3.293,-3.404,0,0,0,0,0,0,0,0,0,0,0,0,0,0,0,0,
206,-63.63,-33.89,-40.83,-45.49,-40.98,-31.17,-6.322,5.649,-20.12,-17.91,-15.22,-11.7,-15.79,-7.043,2.299,-4.159,0,0,0,0,0,0,0,0,0,0,0,0,0,0,0,0,
207,-66.95,-43.16,-44.58,-50.84,-44.52,-35.72,-13.9,0.2804,-19.16,-18.53,-22.19,-12.66,-16.62,-9.564,-3.596,-10.24,0,0,0,0,0,0,0,0,0,0,0,0,0,0,0,0,
208,-69.97,-42.74,-41.03,-50.87,-41.14,-35.12,-24.15,-6.239,-19.38,-20.05,-26.65,-14.32,-16.52,-14.87,-5.127,-12.81,0,0,0,0,0,0,0,0,0,0,0,0,0,0,0,0,
209,-64.02,-38.57,-35.84,-39.29,-35.66,-24.26,-31.51,5.425,-16.55,-17.9,-10.71,-12.78,-2.743,-15.03,4.639,-5.046,0,0,0,0,0,0,0,0,0,0,0,0,0,0,0,0,
210,-52.25,-26.24,-30.02,-24.39,-28.26,-15.41,-16.0,12.51,-4.875,-10.41,10.6,-11.83,8.589,-12.15,13.79,2.342,0,0,0,0,0,0,0,0,0,0,0,0,0,0,0,0,
211,-42.26,-10.58,-20.95,-22.35,-18.85,-15.35,15.26,1.068,5.133,-8.043,10.53,-10.71,7.407,-9.431,14.4,6.148,0,0,0,0,0,0,0,0,0,0,0,0,0,0,0,0,
212,-38.43,-4.115,-17.74,-27.76,-17.59,-12.3,20.89,-12.0,3.676,-6.47,4.986,-7.255,3.216,-6.241,7.523,9.105,0,0,0,0,0,0,0,0,0,0,0,0,0,0,0,0,
213,-30.84,-3.282,-16.13,-25.77,-16.66,-1.838,5.253,-8.668,1.25,1.727,9.539,-5.127,4.457,-4.69,0.845,10.24,0,0,0,0,0,0,0,0,0,0,0,0,0,0,0,0,
214,-19.3,-3.509,-5.883,-16.31,-5.123,6.415,7.807,10.68,8.994,6.686,9.282,-3.69,10.55,-4.061,2.326,9.213,0,0,0,0,0,0,0,0,0,0,0,0,0,0,0,0,
215,-27.33,-2.913,-4.651,-12.78,-4.484,2.294,12.85,14.98,12.6,2.772,-5.105,-7.426,2.994,-8.349,-3.369,-2.235,0,0,0,0,0,0,0,0,0,0,0,0,0,0,0,0,
216,-51.97,-1.539,-22.02,-22.17,-23.43,-12.07,-13.1,-5.378,-2.943,-7.221,-23.51,-19.66,-20.08,-20.84,-21.75,-20.15,0,0,0,0,0,0,0,0,0,0,0,0,0,0,0,0,
217,-57.11,-10.22,-32.36,-28.36,-32.61,-17.63,-35.6,-9.806,-16.74,-16.43,-26.24,-24.81,-23.73,-27.41,-23.07,-20.69,0,0,0,0,0,0,0,0,0,0,0,0,0,0,0,0,
218,-43.33,-24.44,-28.59,-29.2,-27.78,-14.73,-20.41,3.285,-9.59,-17.44,-14.87,-19.16,-7.031,-23.9,-8.322,-9.626,0,0,0,0,0,0,0,0,0,0,0,0,0,0,0,0,
219,-42.06,-28.39,-28.97,-42.68,-29.54,-23.35,-6.586,-4.969,-2.286,-19.49,-11.82,-19.22,-3.044,-23.32,-6.712,-10.55,0,0,0,0,0,0,0,0,0,0,0,0,0,0,0,0,
220,-50.39,-31.32,-30.07,-50.23,-30.64,-29.92,-14.23,-19.72,-7.002,-26.62,-13.21,-23.18,-6.777,-23.64,-10.18,-15.62,0,0,0,0,0,0,0,0,0,0,0,0,0,0,0,0,
221,-53.56,-38.71,-28.1,-34.42,-27.61,-19.0,-9.522,-14.47,-8.281,-24.32,-9.157,-19.88,-5.865,-20.93,-7.402,-13.36,0,0,0,0,0,0,0,0,0,0,0,0,0,0,0,0,
222,-56.49,-31.81,-32.89,-26.38,-33.28,-15.68,2.154,-9.349,-6.689,-17.53,-10.89,-14.97,-8.534,-21.16,-8.683,-10.77,0,0,0,0,0,0,0,0,0,0,0,0,0,0,0,0,
223,-55.35,-14.28,-32.71,-34.49,-33.55,-26.34,-1.437,-13.69,-7.812,-19.34,-13.28,-15.42,-6.858,-20.3,-10.03,-12.64,0,0,0,0,0,0,0,0,0,0,0,0,0,0,0,0,
224,-51.04,-12.15,-24.79,-33.53,-24.82,-28.17,-11.26,-15.68,-5.504,-20.65,-11.59,-20.13,-0.9104,-20.06,-10.45,-19.78,0,0,0,0,0,0,0,0,0,0,0,0,0,0,0,0,
225,-56.32,-25.78,-31.21,-30.2,-31.35,-23.43,-32.16,-14.73,-8.005,-18.64,-20.72,-24.4,-7.62,-28.32,-16.9,-25.13,0,0,0,0,0,0,0,0,0,0,0,0,0,0,0,0,
226,-59.11,-34.42,-40.5,-38.64,-40.37,-22.32,-44.29,-10.16,-16.28,-19.3,-29.88,-23.11,-14.79,-31.47,-19.02,-20.9,0,0,0,0,0,0,0,0,0,0,0,0,0,0,0,0,
227,-54.89,-30.72,-33.06,-40.86,-32.19,-19.27,-13.29,-5.75,-12.33,-16.54,-21.86,-21.21,-8.01,-24.29,-15.31,-18.36,0,0,0,0,0,0,0,0,0,0,0,0,0,0,0,0,
228,-61.21,-23.33,-28.5,-27.61,-28.52,-15.46,7.163,-7.378,-4.42,-13.03,-11.64,-24.63,-3.559,-26.47,-16.12,-25.06,0,0,0,0,0,0,0,0,0,0,0,0,0,0,0,0,
229,-61.12,-19.41,-31.71,-20.68,-32.69,-15.32,-14.04,-6.554,-6.319,-16.74,-9.599,-27.35,-7.815,-37.55,-16.96,-29.59,0,0,0,0,0,0,0,0,0,0,0,0,0,0,0,0,
230,-45.12,-18.65,-28.67,-31.01,-29.68,-19.24,-13.46,-4.877,-6.15,-20.42,-13.66,-29.68,-11.37,-41.93,-19.18,-29.21,0,0,0,0,0,0,0,0,0,0,0,0,0,0,0,0,
231,-51.36,-21.32,-33.17,-44.14,-34.41,-31.57,-2.051,-11.86,-9.231,-23.82,-25.93,-35.05,-15.49,-40.45,-28.87,-29.78,0,0,0,0,0,0,0,0,0,0,0,0,0,0,0,0,
232,-74.15,-30.15,-45.98,-50.38,-46.55,-44.15,-26.63,-16.73,-22.57,-31.41,-33.72,-31.22,-18.1,-34.09,-31.63,-26.95,0,0,0,0,0,0,0,0,0,0,0,0,0,0,0,0,
233,-71.95,-43.52,-42.69,-46.21,-42.34,-41.19,-35.73,-13.72,-21.83,-32.37,-27.98,-19.25,-14.47,-26.26,-24.86,-20.01,0,0,0,0,0,0,0,0,0,0,0,0,0,0,0,0,
234,-62.41,-49.46,-34.26,-30.81,-34.65,-31.98,-9.698,-10.95,-11.21,-27.03,-24.92,-19.02,-14.22,-29.33,-27.03,-18.85,0,0,0,0,0,0,0,0,0,0,0,0,0,0,0,0,
235,-67.34,-34.44,-40.36,-21.86,-40.92,-31.26,-3.748,-5.944,-17.43,-27.54,-27.52,-23.94,-18.76,-34.89,-33.49,-23.42,0,0,0,0,0,0,0,0,0,0,0,0,0,0,0,0,
236,-63.05,-15.54,-40.65,-29.27,-40.29,-30.82,-17.18,-3.043,-22.28,-27.65,-22.99,-18.56,-15.37,-29.4,-29.77,-25.34,0,0,0,0,0,0,0,0,0,0,0,0,0,0,0,0,
237,-52.78,-21.83,-27.67,-35.44,-27.99,-26.66,-17.02,-10.6,-9.627,-21.82,-15.93,-15.14,-5.299,-23.58,-23.2,-23.28,0,0,0,0,0,0,0,0,0,0,0,0,0,0,0,0,
238,-56.8,-31.89,-25.34,-35.73,-26.08,-27.53,-9.671,-13.02,-3.051,-19.07,-12.81,-17.18,2.151,-20.87,-15.62,-15.05,0,0,0,0,0,0,0,0,0,0,0,0,0,0,0,0,
239,-57.72,-17.69,-30.88,-39.15,-30.28,-28.86,-10.39,-6.363,-6.84,-18.81,-8.405,-12.19,6.477,-11.42,-1.576,-0.4983,0,0,0,0,0,0,0,0,0,0,0,0,0,0,0,0,
240,-47.68,-10.19,-26.81,-34.4,-26.34,-22.4,-14.23,-7.858,-5.237,-13.76,-5.497,-8.788,7.679,-1.721,4.446,8.063,0,0,0,0,0,0,0,0,0,0,0,0,0,0,0,0,
241,-47.74,-28.11,-22.89,-21.14,-23.59,-17.44,-9.007,-10.21,-0.834,-8.059,-11.59,-14.07,4.226,-0.3435,-5.036,6.79,0,0,0,0,0,0,0,0,0,0,0,0,0,0,0,0,
242,-53.9,-40.08,-29.14,-24.44,-29.39,-23.2,-2.321,-5.229,-1.474,-11.18,-19.21,-14.15,-1.877,-2.7,-12.05,5.1,0,0,0,0,0,0,0,0,0,0,0,0,0,0,0,0,
243,-47.86,-32.95,-35.64,-36.65,-35.47,-29.3,-5.196,-4.405,-6.244,-20.65,-15.23,-8.657,-6.821,-6.436,-12.41,1.046,0,0,0,0,0,0,0,0,0,0,0,0,0,0,0,0,
244,-42.8,-21.12,-35.1,-30.89,-35.48,-27.16,-6.1,-2.065,-9.182,-24.59,-8.098,-9.672,-10.57,-14.61,-21.96,-11.63,0,0,0,0,0,0,0,0,0,0,0,0,0,0,0,0,
245,-53.8,-16.6,-33.01,-26.98,-33.4,-29.18,-7.416,3.761,-11.08,-26.0,-12.2,-13.98,-16.94,-25.44,-35.83,-23.06,0,0,0,0,0,0,0,0,0,0,0,0,0,0,0,0,
246,-61.97,-24.98,-34.9,-42.16,-34.91,-38.69,-21.61,-1.162,-20.05,-32.27,-13.98,-13.38,-19.96,-29.27,-32.83,-20.86,0,0,0,0,0,0,0,0,0,0,0,0,0,0,0,0,
247,-56.14,-36.92,-35.99,-44.39,-35.86,-39.62,-29.56,-7.801,-25.83,-32.95,-6.896,-11.64,-13.48,-24.33,-21.81,-13.69,0,0,0,0,0,0,0,0,0,0,0,0,0,0,0,0,
248,-55.01,-39.44,-35.42,-30.56,-35.56,-35.0,-18.56,-9.127,-18.98,-29.02,-10.84,-15.1,-9.983,-21.84,-24.85,-15.74,0,0,0,0,0,0,0,0,0,0,0,0,0,0,0,0,
249,-59.22,-33.11,-40.23,-30.1,-40.44,-36.68,-9.732,-14.05,-16.37,-30.76,-17.15,-17.52,-11.47,-18.89,-27.44,-15.69,0,0,0,0,0,0,0,0,0,0,0,0,0,0,0,0,
250,-53.33,-26.57,-43.54,-30.53,-43.06,-34.19,-13.22,-10.45,-19.02,-24.84,-11.43,-10.12,-6.562,-6.711,-18.03,-4.272,0,0,0,0,0,0,0,0,0,0,0,0,0,0,0,0,
251,-46.5,-28.33,-39.52,-21.4,-39.22,-25.81,-11.89,0.752,-15.3,-12.47,-16.88,-2.213,-5.483,0.5317,-18.84,1.313,0,0,0,0,0,0,0,0,0,0,0,0,0,0,0,0,
252,-46.89,-28.35,-35.25,-24.75,-35.79,-23.19,1.603,-3.311,-13.72,-13.95,-24.93,-1.14,-9.057,-0.8267,-21.04,4.227,0,0,0,0,0,0,0,0,0,0,0,0,0,0,0,0,
253,-43.23,-11.18,-24.92,-29.49,-25.04,-18.33,4.066,-4.728,-8.367,-14.35,-5.665,6.252,2.226,6.975,-3.964,18.21,0,0,0,0,0,0,0,0,0,0,0,0,0,0,0,0,
254,-36.66,1.444,-12.68,-18.58,-13.05,-8.667,-15.17,11.34,7.249,-2.535,9.843,15.0,13.67,14.37,1.026,18.75,0,0,0,0,0,0,0,0,0,0,0,0,0,0,0,0,
255,-36.67,-9.924,-19.82,-12.39,-21.33,-8.825,-24.3,5.816,8.024,-3.541,-0.9506,4.288,5.522,3.921,-15.66,-0.0715,0,0,0,0,0,0,0,0,0,0,0,0,0,0,0,0,
256,-38.62,-14.44,-31.07,-11.76,-31.49,-14.23,-8.637,-18.89,-4.335,-15.78,-6.911,-10.19,-4.241,-7.41,-18.4,-4.357,0,0,0,0,0,0,0,0,0,0,0,0,0,0,0,0,
257,-36.33,-1.451,-25.4,-8.242,-24.44,-17.05,-1.407,-14.02,-6.559,-20.13,-5.891,-8.592,-9.704,-9.053,-14.37,1.67,0,0,0,0,0,0,0,0,0,0,0,0,0,0,0,0,
258,-35.62,-6.807,-23.2,-18.62,-22.81,-24.97,-15.35,1.664,-11.28,-26.25,-13.63,-7.797,-20.08,-14.24,-24.56,-3.667,0,0,0,0,0,0,0,0,0,0,0,0,0,0,0,0,
259,-40.32,-20.67,-29.76,-29.19,-29.5,-29.91,-17.36,-4.66,-22.55,-33.56,-20.5,-11.05,-24.09,-20.39,-33.3,-6.616,0,0,0,0,0,0,0,0,0,0,0,0,0,0,0,0,
260,-40.47,-9.663,-27.06,-20.56,-26.36,-23.07,0.1643,-4.716,-19.48,-28.24,-22.15,-6.402,-18.69,-20.66,-34.48,-4.139,0,0,0,0,0,0,0,0,0,0,0,0,0,0,0,0,
261,-34.02,-4.389,-22.51,-19.39,-22.14,-19.88,0.8951,2.542,-9.924,-23.69,-15.76,-6.697,-15.25,-24.1,-32.11,-9.587,0,0,0,0,0,0,0,0,0,0,0,0,0,0,0,0,
262,-33.84,-16.94,-22.81,-24.28,-22.44,-22.17,-19.83,-5.669,-9.077,-26.55,-5.071,-12.8,-14.35,-29.54,-26.55,-15.32,0,0,0,0,0,0,0,0,0,0,0,0,0,0,0,0,
263,-37.03,-6.939,-17.93,-11.72,-17.24,-18.45,-24.79,-7.887,-9.994,-21.45,-9.807,-7.535,-15.17,-27.9,-27.78,-16.21,0,0,0,0,0,0,0,0,0,0,0,0,0,0,0,0,
264,-33.02,2.696,-14.7,-8.64,-14.51,-18.15,-9.374,-0.5417,-10.93,-16.0,-17.35,-0.5259,-15.35,-23.06,-28.39,-17.09,0,0,0,0,0,0,0,0,0,0,0,0,0,0,0,0,
265,-31.65,-17.39,-23.2,-25.87,-23.49,-26.28,-5.3,-3.446,-14.3,-22.32,-10.87,-2.824,-9.326,-18.42,-15.29,-12.02,0,0,0,0,0,0,0,0,0,0,0,0,0,0,0,0,
266,-38.51,-20.0,-30.2,-31.98,-29.92,-28.15,-14.22,-2.313,-14.39,-24.38,-9.58,-1.675,-2.128,-10.14,-2.44,0.5874,0,0,0,0,0,0,0,0,0,0,0,0,0,0,0,0,
267,-39.68,-5.123,-23.38,-25.67,-22.83,-20.26,-8.106,7.308,-9.677,-15.27,-9.709,7.662,2.507,1.134,1.115,11.43,0,0,0,0,0,0,0,0,0,0,0,0,0,0,0,0,
268,-31.61,-13.02,-14.59,-21.03,-15.1,-13.0,4.688,7.057,-4.746,-7.852,-2.76,14.78,5.866,9.73,-0.9733,15.44,0,0,0,0,0,0,0,0,0,0,0,0,0,0,0,0,
269,-25.79,-15.16,-15.83,-17.31,-16.56,-12.0,-4.989,1.699,-3.4,-4.907,-9.485,12.68,5.821,12.34,-6.501,14.16,0,0,0,0,0,0,0,0,0,0,0,0,0,0,0,0,
270,-24.37,-0.37,-16.55,-12.63,-15.76,-12.2,-14.81,3.952,-1.243,-3.272,-13.51,5.369,8.812,12.53,-3.898,13.19,0,0,0,0,0,0,0,0,0,0,0,0,0,0,0,0,
271,-20.88,0.167,-10.52,-7.236,-9.44,-8.347,-1.463,7.805,7.508,-2.426,2.821,0.2919,16.41,10.73,5.455,13.1,0,0,0,0,0,0,0,0,0,0,0,0,0,0,0,0,
272,-17.97,-1.315,-10.95,-13.03,-11.21,-8.093,3.367,-0.8799,10.75,-3.527,3.846,-6.309,11.97,-1.354,1.882,4.474,0,0,0,0,0,0,0,0,0,0,0,0,0,0,0,0,
273,-22.89,-4.389,-20.23,-29.06,-20.78,-15.42,-10.42,-16.55,-1.186,-12.44,-13.77,-17.09,-4.5,-19.36,-12.58,-12.21,0,0,0,0,0,0,0,0,0,0,0,0,0,0,0,0,
274,-32.2,-27.41,-27.18,-30.77,-27.07,-19.98,-19.48,-15.78,-13.3,-24.35,-21.41,-21.72,-13.24,-27.5,-20.07,-20.4,0,0,0,0,0,0,0,0,0,0,0,0,0,0,0,0,
275,-36.96,-35.75,-29.65,-22.13,-29.51,-20.86,-18.14,-4.053,-15.45,-26.73,-23.7,-18.78,-11.68,-26.25,-18.76,-16.41,0,0,0,0,0,0,0,0,0,0,0,0,0,0,0,0,
276,-36.62,-18.3,-30.97,-20.45,-31.39,-25.47,-7.609,-4.937,-13.86,-24.18,-20.35,-15.81,-10.34,-23.93,-19.06,-13.88,0,0,0,0,0,0,0,0,0,0,0,0,0,0,0,0,
277,-36.76,-16.28,-32.56,-20.95,-33.22,-30.2,-5.202,-10.37,-13.32,-24.42,-10.61,-10.76,-11.26,-19.55,-24.54,-13.97,0,0,0,0,0,0,0,0,0,0,0,0,0,0,0,0,
278,-38.51,-26.66,-34.47,-23.23,-34.77,-30.69,-19.77,-8.248,-17.09,-23.68,-16.2,-5.65,-13.37,-17.34,-29.53,-11.79,0,0,0,0,0,0,0,0,0,0,0,0,0,0,0,0,
279,-38.8,-22.16,-35.88,-23.62,-35.83,-30.58,-21.43,-8.257,-22.56,-23.69,-26.24,-8.687,-17.0,-25.44,-32.48,-16.57,0,0,0,0,0,0,0,0,0,0,0,0,0,0,0,0,
280,-35.49,-12.84,-34.56,-17.16,-34.58,-30.44,-12.47,-7.874,-21.67,-26.64,-19.84,-12.69,-17.72,-35.05,-32.81,-26.07,0,0,0,0,0,0,0,0,0,0,0,0,0,0,0,0,
281,-28.97,-14.96,-27.3,-18.28,-27.39,-27.09,-12.77,-1.522,-16.32,-25.2,-15.37,-8.875,-11.94,-31.88,-25.72,-23.75,0,0,0,0,0,0,0,0,0,0,0,0,0,0,0,0,
282,-24.43,-18.9,-20.0,-22.71,-20.03,-23.29,-7.498,-3.763,-11.33,-18.51,-19.11,-4.043,-5.609,-18.75,-16.96,-13.31,0,0,0,0,0,0,0,0,0,0,0,0,0,0,0,0,
283,-23.81,-9.257,-17.57,-15.56,-17.53,-21.38,-1.886,-11.54,-5.117,-13.1,-15.06,0.1232,-1.938,-4.062,-13.39,-5.132,0,0,0,0,0,0,0,0,0,0,0,0,0,0,0,0,
284,-22.86,-4.583,-12.07,-11.01,-12.26,-16.65,-2.781,-5.664,2.859,-9.336,-9.022,6.555,4.127,8.663,-10.16,3.446,0,0,0,0,0,0,0,0,0,0,0,0,0,0,0,0,
285,-24.34,-24.4,-10.67,-18.3,-11.49,-13.12,2.388,4.422,8.736,-6.735,-8.868,5.551,8.975,11.48,-7.787,9.078,0,0,0,0,0,0,0,0,0,0,0,0,0,0,0,0,
286,-28.12,-30.46,-21.78,-24.84,-22.07,-19.57,-1.075,6.042,7.783,-9.005,-4.823,-4.39,7.45,3.397,-8.611,5.797,0,0,0,0,0,0,0,0,0,0,0,0,0,0,0,0,
287,-26.01,-3.124,-23.44,-21.3,-22.26,-26.06,-6.628,2.332,4.128,-13.53,0.6688,-10.77,5.536,-4.476,-9.809,-2.506,0,0,0,0,0,0,0,0,0,0,0,0,0,0,0,0,
288,-22.76,10.18,-12.58,-11.72,-11.72,-21.7,5.878,-9.244,4.39,-12.93,-5.226,-13.25,2.906,-11.77,-12.99,-9.717,0,0,0,0,0,0,0,0,0,0,0,0,0,0,0,0,
289,-22.78,-1.606,-12.05,-10.85,-12.23,-16.67,8.243,-17.36,1.428,-10.49,-13.56,-15.79,-3.121,-21.89,-14.67,-11.11,0,0,0,0,0,0,0,0,0,0,0,0,0,0,0,0,
290,-21.79,-1.649,-16.69,-17.5,-16.33,-19.75,-2.286,-13.8,-5.734,-15.26,-13.33,-14.57,-5.348,-26.67,-14.16,-10.65,0,0,0,0,0,0,0,0,0,0,0,0,0,0,0,0,
291,-24.96,7.385,-18.32,-16.34,-17.93,-22.81,-0.3708,-18.42,-6.106,-22.49,-18.34,-12.16,-7.26,-25.53,-23.95,-16.79,0,0,0,0,0,0,0,0,0,0,0,0,0,0,0,0,
292,-27.59,0.0549,-24.13,-10.96,-24.65,-18.52,-2.923,-24.31,-6.784,-20.85,-29.46,-11.94,-16.12,-26.02,-38.02,-23.99,0,0,0,0,0,0,0,0,0,0,0,0,0,0,0,0,
293,-18.26,-12.09,-24.9,-8.167,-25.21,-14.14,-13.81,-13.33,-13.3,-15.4,-28.21,-11.41,-20.72,-27.64,-38.05,-24.73,0,0,0,0,0,0,0,0,0,0,0,0,0,0,0,0,
294,-11.72,-6.651,-17.93,-7.479,-18.07,-16.42,-13.23,-5.657,-10.88,-17.12,-22.17,-10.97,-16.23,-27.89,-30.31,-22.47,0,0,0,0,0,0,0,0,0,0,0,0,0,0,0,0,
295,-17.65,-0.7675,-15.99,-10.97,-16.62,-15.06,-6.185,-7.17,-3.38,-18.29,-23.35,-7.972,-14.58,-24.48,-26.68,-20.23,0,0,0,0,0,0,0,0,0,0,0,0,0,0,0,0,
296,-19.83,-8.821,-14.16,-8.537,-14.75,-5.464,3.711,-3.871,-3.179,-9.827,-20.89,-0.9648,-17.87,-16.45,-25.62,-19.53,0,0,0,0,0,0,0,0,0,0,0,0,0,0,0,0,
297,-17.2,-5.79,-10.73,-0.399,-11.28,-3.958,9.333,-2.153,-2.899,-5.137,-19.02,2.617,-20.36,-9.54,-25.77,-19.5,0,0,0,0,0,0,0,0,0,0,0,0,0,0,0,0,
298,-22.68,6.512,-17.98,-6.59,-18.36,-15.06,-3.6,-3.603,-7.628,-13.36,-26.1,2.817,-21.23,-6.014,-25.41,-16.89,0,0,0,0,0,0,0,0,0,0,0,0,0,0,0,0,
299,-28.42,3.43,-26.76,-18.97,-26.58,-23.11,-12.16,-7.679,-23.43,-20.27,-23.84,0.6602,-17.81,-4.708,-21.55,-16.37,0,0,0,0,0,0,0,0,0,0,0,0,0,0,0,0,
300,-21.7,-4.444,-22.61,-18.87,-22.84,-23.61,1.445,-18.47,-28.05,-19.47,-10.82,-9.971,-10.79,-6.865,-15.25,-18.25,0,0,0,0,0,0,0,0,0,0,0,0,0,0,0,0,
301,-12.36,-8.21,-16.33,-16.38,-17.15,-24.41,7.143,-20.46,-19.25,-20.56,-11.12,-18.95,-10.67,-8.311,-12.37,-15.13,0,0,0,0,0,0,0,0,0,0,0,0,0,0,0,0,
302,-15.45,-11.69,-17.05,-19.47,-17.33,-25.88,-5.395,-13.79,-20.21,-24.47,-21.53,-16.34,-17.92,-6.056,-18.34,-11.03,0,0,0,0,0,0,0,0,0,0,0,0,0,0,0,0,
303,-25.58,-11.93,-15.88,-20.95,-15.74,-22.85,-4.763,-15.18,-24.94,-24.54,-20.45,-15.01,-16.11,-1.262,-24.67,-7.635,0,0,0,0,0,0,0,0,0,0,0,0,0,0,0,0,
304,-23.23,-11.81,-8.682,-14.71,-8.786,-16.78,13.26,-8.67,-16.89,-17.95,-9.857,-18.85,-3.568,5.351,-23.53,-1.526,0,0,0,0,0,0,0,0,0,0,0,0,0,0,0,0,
305,-6.391,-1.609,-2.339,-1.17,-2.446,-14.49,19.26,7.854,-6.99,-8.974,-4.669,-19.19,-0.5047,3.201,-24.54,-4.53,0,0,0,0,0,0,0,0,0,0,0,0,0,0,0,0,
306,-0.4783,15.25,-1.8,5.862,-1.716,-15.36,13.26,1.366,-7.086,-6.663,-8.568,-17.64,-9.843,-11.35,-29.08,-17.27,0,0,0,0,0,0,0,0,0,0,0,0,0,0,0,0,
307,-11.72,10.32,-7.205,-2.8,-7.384,-16.37,12.81,-19.25,-11.02,-11.17,-18.29,-18.26,-17.08,-24.08,-32.06,-24.0,0,0,0,0,0,0,0,0,0,0,0,0,0,0,0,0,
308,-15.63,-2.943,-15.81,-16.37,-16.74,-23.14,1.724,-22.17,-15.89,-18.34,-28.58,-23.13,-22.65,-32.81,-37.76,-26.17,0,0,0,0,0,0,0,0,0,0,0,0,0,0,0,0,
309,-14.19,-5.183,-20.1,-21.67,-21.26,-29.58,-21.17,-15.04,-23.64,-27.03,-29.69,-25.82,-28.39,-36.39,-39.08,-24.67,0,0,0,0,0,0,0,0,0,0,0,0,0,0,0,0,
310,-21.58,-10.43,-16.59,-15.57,-17.5,-22.6,-18.31,-11.67,-26.76,-26.94,-23.87,-16.6,-29.99,-26.92,-35.78,-16.99,0,0,0,0,0,0,0,0,0,0,0,0,0,0,0,0,
311,-23.11,-11.37,-15.27,-9.971,-16.46,-17.8,-0.6758,-15.52,-25.5,-19.48,-28.62,-9.306,-36.41,-22.73,-44.08,-17.86,0,0,0,0,0,0,0,0,0,0,0,0,0,0,0,0,
312,-19.41,-6.93,-21.47,-13.91,-22.45,-26.86,-9.13,-24.2,-32.03,-24.08,-40.81,-12.49,-48.28,-33.12,-51.83,-24.21,0,0,0,0,0,0,0,0,0,0,0,0,0,0,0,0,
313,-26.26,-14.88,-26.98,-16.4,-26.96,-30.46,-23.78,-19.78,-42.16,-33.92,-41.82,-10.78,-52.65,-36.92,-47.72,-22.78,0,0,0,0,0,0,0,0,0,0,0,0,0,0,0,0,
314,-32.82,-21.48,-31.53,-17.21,-31.77,-30.83,-16.83,-14.04,-48.9,-35.26,-40.41,-11.43,-55.93,-40.26,-52.39,-28.82,0,0,0,0,0,0,0,0,0,0,0,0,0,0,0,0,
315,-31.89,-16.68,-37.45,-22.98,-38.26,-39.54,-9.046,-30.46,-57.41,-40.06,-49.16,-23.58,-61.74,-51.93,-57.79,-39.44,0,0,0,0,0,0,0,0,0,0,0,0,0,0,0,0,
316,-31.02,-13.75,-36.01,-23.46,-36.18,-37.05,-20.09,-39.38,-58.06,-42.82,-53.29,-27.15,-55.04,-46.92,-42.37,-31.4,0,0,0,0,0,0,0,0,0,0,0,0,0,0,0,0,
317,-31.17,-14.17,-28.18,-20.06,-28.31,-26.09,-37.52,-28.12,-46.08,-32.67,-45.42,-26.37,-43.8,-32.62,-29.0,-21.69,0,0,0,0,0,0,0,0,0,0,0,0,0,0,0,0,
318,-30.37,-9.305,-22.96,-14.54,-23.74,-27.37,-30.44,-24.02,-40.33,-29.93,-34.38,-35.34,-42.35,-33.72,-30.92,-24.94,0,0,0,0,0,0,0,0,0,0,0,0,0,0,0,0,
319,-23.33,2.876,-19.56,-0.4335,-19.95,-23.49,-0.1981,-15.84,-37.39,-32.09,-22.31,-31.15,-35.62,-29.13,-26.39,-18.35,0,0,0,0,0,0,0,0,0,0,0,0,0,0,0,0,
320,-18.12,1.21,-17.81,-2.005,-17.61,-10.96,13.26,-1.894,-23.82,-18.6,-12.8,-13.86,-20.97,-15.1,-16.96,-6.886,0,0,0,0,0,0,0,0,0,0,0,0,0,0,0,0,
321,-24.4,-21.65,-17.63,-21.96,-17.76,-15.67,10.02,-12.63,-17.66,-12.24,-11.2,-16.43,-19.74,-22.95,-17.79,-14.8,0,0,0,0,0,0,0,0,0,0,0,0,0,0,0,0,
322,-18.94,-24.87,-15.32,-19.12,-16.46,-27.4,5.366,-27.8,-27.95,-27.33,-17.44,-29.17,-30.86,-39.7,-22.95,-28.05,0,0,0,0,0,0,0,0,0,0,0,0,0,0,0,0,
323,-2.142,-3.821,-16.6,-1.909,-18.48,-27.65,-18.46,-22.23,-38.53,-35.34,-31.57,-25.17,-37.6,-38.95,-26.37,-28.18,0,0,0,0,0,0,0,0,0,0,0,0,0,0,0,0,
324,-6.558,-2.125,-24.74,-2.63,-25.93,-26.36,-41.67,-19.79,-45.09,-30.98,-41.13,-16.32,-36.29,-33.2,-24.6,-21.53,0,0,0,0,0,0,0,0,0,0,0,0,0,0,0,0,
325,-17.76,-9.532,-28.98,-6.713,-29.0,-25.12,-33.27,-23.54,-46.54,-28.46,-31.74,-15.06,-29.22,-27.52,-14.69,-14.56,0,0,0,0,0,0,0,0,0,0,0,0,0,0,0,0,
326,-13.61,4.26,-23.94,-5.873,-23.93,-21.43,-13.86,-15.96,-38.55,-23.5,-21.11,-14.32,-23.32,-20.15,-15.19,-14.01,0,0,0,0,0,0,0,0,0,0,0,0,0,0,0,0,
327,-8.905,16.73,-16.71,-6.576,-16.89,-22.23,-0.3512,-6.053,-32.63,-20.69,-29.19,-12.92,-26.92,-23.93,-34.15,-20.64,0,0,0,0,0,0,0,0,0,0,0,0,0,0,0,0,
328,-0.7983,15.47,-12.44,1.157,-12.34,-22.03,-0.6973,-2.86,-36.07,-26.9,-39.4,-8.021,-32.21,-26.87,-42.6,-19.68,0,0,0,0,0,0,0,0,0,0,0,0,0,0,0,0,
329,14.32,22.08,-9.103,8.167,-9.345,-16.39,-15.05,-4.837,-37.83,-26.97,-35.31,2.055,-28.81,-15.09,-30.7,-12.43,0,0,0,0,0,0,0,0,0,0,0,0,0,0,0,0,
330,18.13,27.92,-4.971,1.478,-5.735,-13.64,-17.0,-9.325,-32.57,-18.33,-29.03,5.137,-22.86,-9.035,-19.93,-11.21,0,0,0,0,0,0,0,0,0,0,0,0,0,0,0,0,
331,17.2,16.5,-2.212,0.0161,-2.744,-11.62,-13.82,-4.755,-26.88,-13.64,-32.19,1.246,-18.57,-11.45,-14.35,-8.01,0,0,0,0,0,0,0,0,0,0,0,0,0,0,0,0,
332,22.52,11.01,-1.784,8.372,-2.121,-4.077,-19.71,4.062,-24.59,-10.12,-37.12,1.159,-10.13,-5.174,-8.509,1.118,0,0,0,0,0,0,0,0,0,0,0,0,0,0,0,0,
333,22.62,22.64,1.841,6.926,1.873,3.992,-9.76,2.551,-20.0,-4.253,-29.29,0.944,2.511,2.869,-3.602,6.022,0,0,0,0,0,0,0,0,0,0,0,0,0,0,0,0,
334,21.8,35.23,13.99,3.112,14.86,10.75,8.41,4.932,-7.481,1.855,-11.56,-0.259,12.88,6.888,1.382,6.844,0,0,0,0,0,0,0,0,0,0,0,0,0,0,0,0,
335,30.18,48.48,24.5,14.88,24.74,18.23,12.66,17.21,5.094,11.92,-7.108,4.197,15.42,12.62,-0.3041,6.139,0,0,0,0,0,0,0,0,0,0,0,0,0,0,0,0,
336,38.36,54.99,23.37,26.05,22.57,23.56,11.06,24.08,10.68,20.17,-15.76,8.287,12.06,14.99,-8.798,4.357,0,0,0,0,0,0,0,0,0,0,0,0,0,0,0,0,
337,43.66,44.83,24.82,21.87,24.97,26.81,1.978,26.93,14.34,18.81,-13.99,6.532,10.21,12.73,-11.95,4.661,0,0,0,0,0,0,0,0,0,0,0,0,0,0,0,0,
338,48.42,40.74,32.45,20.14,32.91,27.25,-5.568,24.33,13.7,15.42,-10.24,4.82,8.825,11.71,-13.59,3.985,0,0,0,0,0,0,0,0,0,0,0,0,0,0,0,0,
339,45.07,44.2,25.55,22.87,24.9,20.53,2.707,21.45,4.59,11.73,-17.85,5.917,5.939,11.1,-13.97,4.0,0,0,0,0,0,0,0,0,0,0,0,0,0,0,0,0,
340,36.15,32.56,10.08,12.07,9.989,12.48,4.771,32.42,-2.835,3.519,-16.69,4.664,5.02,9.887,-5.236,9.449,0,0,0,0,0,0,0,0,0,0,0,0,0,0,0,0,
341,27.61,20.82,6.736,0.301,7.268,8.826,-4.797,27.69,-5.164,-1.56,-8.013,-1.146,0.9344,9.456,-2.681,11.13,0,0,0,0,0,0,0,0,0,0,0,0,0,0,0,0,
342,14.72,21.4,5.732,2.066,5.313,2.346,-4.625,3.95,-10.38,-2.784,-12.22,-3.154,-7.416,11.21,-8.333,8.313,0,0,0,0,0,0,0,0,0,0,0,0,0,0,0,0,
343,4.405,17.59,-3.02,0.5664,-3.593,-6.949,4.94,12.22,-16.69,-7.606,-17.44,3.102,-9.366,15.13,-3.263,12.73,0,0,0,0,0,0,0,0,0,0,0,0,0,0,0,0,
344,8.091,12.8,-7.895,-5.868,-7.862,-8.773,12.93,33.3,-17.62,-9.177,-9.65,10.2,-3.933,18.67,4.421,20.14,0,0,0,0,0,0,0,0,0,0,0,0,0,0,0,0,
345,17.7,14.9,-2.861,-3.673,-2.548,-4.596,10.17,20.88,-13.3,-3.116,5.249,13.98,3.351,20.79,5.372,19.95,0,0,0,0,0,0,0,0,0,0,0,0,0,0,0,0,
346,22.69,13.99,3.313,-2.687,3.59,-5.505,-2.623,3.328,-8.804,-1.541,14.94,12.32,6.734,18.04,5.52,10.62,0,0,0,0,0,0,0,0,0,0,0,0,0,0,0,0,
347,22.09,12.33,1.576,-8.764,1.167,-11.11,-5.57,8.424,-9.819,-7.837,8.554,5.587,3.564,11.65,1.094,-0.8636,0,0,0,0,0,0,0,0,0,0,0,0,0,0,0,0,
348,18.72,15.78,-0.874,-8.51,-1.386,-7.917,7.138,22.53,-10.24,-9.134,4.117,3.088,7.654,14.05,0.0951,-1.069,0,0,0,0,0,0,0,0,0,0,0,0,0,0,0,0,
349,18.16,19.13,7.357,-2.589,7.513,4.888,18.98,28.37,0.4241,-0.5282,17.43,2.28,20.17,22.77,7.557,5.037,0,0,0,0,0,0,0,0,0,0,0,0,0,0,0,0,
350,19.51,23.79,16.21,0.7687,16.03,9.603,22.31,23.31,12.34,6.679,24.62,-3.514,21.26,23.55,4.51,0.9913,0,0,0,0,0,0,0,0,0,0,0,0,0,0,0,0,
351,17.72,26.93,14.2,4.968,13.28,2.958,20.39,23.1,11.18,6.161,18.83,-4.505,14.69,19.23,-4.233,-5.796,0,0,0,0,0,0,0,0,0,0,0,0,0,0,0,0,
352,16.02,17.43,7.56,7.694,6.24,-0.751,13.09,23.48,2.366,5.615,11.49,-2.086,11.23,15.8,-4.003,-6.76,0,0,0,0,0,0,0,0,0,0,0,0,0,0,0,0,
353,15.96,6.473,0.577,5.108,-1.164,0.1073,2.001,11.98,-5.629,7.714,-0.751,-4.862,4.663,12.81,-5.78,-9.444,0,0,0,0,0,0,0,0,0,0,0,0,0,0,0,0,
354,12.44,9.295,-5.702,6.092,-7.106,-2.756,-2.128,12.13,-10.59,5.974,-3.227,-4.134,0.2861,11.62,-9.215,-13.29,0,0,0,0,0,0,0,0,0,0,0,0,0,0,0,0,
355,7.352,10.44,-8.259,6.34,-9.009,-10.48,-1.323,25.12,-11.08,-1.156,6.002,-1.291,-0.7916,6.747,-8.596,-16.92,0,0,0,0,0,0,0,0,0,0,0,0,0,0,0,0,
356,6.939,1.518,-10.49,-3.526,-10.86,-17.03,-11.71,19.03,-14.17,-9.393,1.223,-3.594,-8.712,-0.3509,-12.12,-20.16,0,0,0,0,0,0,0,0,0,0,0,0,0,0,0,0,
357,6.404,2.238,-12.17,-4.779,-11.98,-14.51,-16.68,5.834,-22.36,-11.36,-3.329,-1.015,-10.68,3.421,-12.33,-14.86,0,0,0,0,0,0,0,0,0,0,0,0,0,0,0,0,
358,-0.883,10.54,-8.888,6.525,-9.104,-6.977,3.714,12.79,-22.16,-4.797,6.41,3.19,-1.114,9.592,-3.924,-7.939,0,0,0,0,0,0,0,0,0,0,0,0,0,0,0,0,
359,-5.025,5.87,-5.199,5.198,-6.328,-7.478,15.1,22.16,-13.41,-2.568,5.509,-3.129,-0.6029,2.212,-2.967,-12.02,0,0,0,0,0,0,0,0,0,0,0,0,0,0,0,0,
360,2.221,-2.143,-5.059,-2.727,-5.844,-14.12,2.139,14.84,-11.34,-10.81,-0.0829,-9.331,-9.248,-7.707,-10.71,-17.54,0,0,0,0,0,0,0,0,0,0,0,0,0,0,0,0,
361,8.265,-1.262,-7.778,-3.96,-8.283,-18.72,-2.692,7.473,-16.24,-15.58,5.321,-7.416,-13.16,-7.936,-11.45,-13.68,0,0,0,0,0,0,0,0,0,0,0,0,0,0,0,0,
362,6.389,-2.354,-10.29,-10.87,-10.98,-22.31,-1.389,10.62,-18.79,-12.26,6.364,-4.186,-12.98,-4.09,-0.9602,-4.113,0,0,0,0,0,0,0,0,0,0,0,0,0,0,0,0,
363,9.756,-1.032,-3.85,-14.44,-4.05,-22.0,-1.55,11.61,-15.07,-9.173,8.032,-0.5675,-8.959,-0.5518,11.34,2.744,0,0,0,0,0,0,0,0,0,0,0,0,0,0,0,0,
364,19.0,7.892,5.71,-6.742,5.414,-17.27,9.608,9.262,-7.59,-6.066,17.59,1.436,-3.199,-0.0754,17.03,0.9454,0,0,0,0,0,0,0,0,0,0,0,0,0,0,0,0,
365,17.06,9.563,4.171,-4.364,3.568,-14.45,9.493,7.22,-4.085,-2.545,15.02,-1.524,-0.7659,-3.928,18.07,-3.817,0,0,0,0,0,0,0,0,0,0,0,0,0,0,0,0,
366,8.445,9.467,3.662,0.7755,4.042,-7.638,-1.133,-2.606,-0.3797,0.1944,7.47,-4.548,3.501,-5.405,15.45,-5.441,0,0,0,0,0,0,0,0,0,0,0,0,0,0,0,0,
367,12.38,10.45,11.21,9.546,11.53,0.9393,9.861,-9.173,8.524,5.34,14.26,-5.977,6.358,-5.792,8.093,-7.393,0,0,0,0,0,0,0,0,0,0,0,0,0,0,0,0,
368,17.67,-2.393,6.984,-0.0728,5.753,-5.433,14.69,3.694,6.821,6.095,20.9,-5.373,0.4759,-9.677,6.888,-5.195,0,0,0,0,0,0,0,0,0,0,0,0,0,0,0,0,
369,8.909,-4.127,-3.739,-10.28,-4.911,-14.51,-0.7007,16.94,-4.071,-0.8796,18.73,0.5454,-1.96,-8.665,13.9,3.365,0,0,0,0,0,0,0,0,0,0,0,0,0,0,0,0,
370,5.804,17.41,-0.8868,-3.171,-0.7302,-8.051,0.4128,15.19,-4.429,-1.583,16.56,6.212,3.173,-4.002,12.91,5.506,0,0,0,0,0,0,0,0,0,0,0,0,0,0,0,0,
371,15.38,20.68,4.563,2.54,5.18,-2.064,4.236,12.05,-2.524,3.467,10.97,5.827,0.6937,-9.263,2.145,-1.194,0,0,0,0,0,0,0,0,0,0,0,0,0,0,0,0,
372,14.32,9.101,2.336,1.894,2.533,-6.456,-10.7,8.184,-8.749,-1.156,1.403,1.417,-12.15,-21.3,-7.862,-9.787,0,0,0,0,0,0,0,0,0,0,0,0,0,0,0,0,
373,7.497,12.29,-0.0072,-1.815,-0.3316,-9.182,-17.41,1.789,-14.91,-11.01,-1.82,-3.528,-21.59,-26.05,-9.854,-15.51,0,0,0,0,0,0,0,0,0,0,0,0,0,0,0,0,
374,18.97,14.26,0.414,-0.8116,0.4913,-3.84,-6.715,7.194,-17.12,-10.06,4.288,-3.804,-15.5,-19.48,3.538,-9.359,0,0,0,0,0,0,0,0,0,0,0,0,0,0,0,0,
375,34.94,14.05,6.755,15.09,7.561,7.67,1.888,10.15,-9.503,0.9641,11.35,-2.527,-3.216,-11.78,16.82,0.1178,0,0,0,0,0,0,0,0,0,0,0,0,0,0,0,0,
376,31.33,22.96,16.32,18.17,16.3,13.86,-4.941,-2.203,1.622,7.928,8.449,-4.7,-3.589,-11.68,8.302,-2.977,0,0,0,0,0,0,0,0,0,0,0,0,0,0,0,0,
377,25.52,25.19,18.16,4.372,16.97,10.24,-14.17,2.822,0.4549,8.046,1.953,0.3145,-4.36,-8.9,1.314,-2.281,0,0,0,0,0,0,0,0,0,0,0,0,0,0,0,0,
378,35.08,27.98,14.51,12.44,13.63,9.95,-5.173,21.14,0.6449,10.16,7.586,9.417,7.352,-0.3229,15.55,9.668,0,0,0,0,0,0,0,0,0,0,0,0,0,0,0,0,
379,36.55,40.37,9.691,21.64,9.248,8.141,6.715,14.77,6.547,9.703,16.49,5.021,8.928,-1.512,23.46,9.567,0,0,0,0,0,0,0,0,0,0,0,0,0,0,0,0,
380,23.62,33.04,3.544,4.764,2.867,-4.372,6.105,4.33,-0.5568,-0.4714,13.71,-2.183,-2.287,-8.741,17.72,1.484,0,0,0,0,0,0,0,0,0,0,0,0,0,0,0,0,
381,23.28,3.089,2.775,-4.417,2.32,-10.11,2.375,2.866,-7.5,-8.675,7.853,-0.7693,-5.302,-10.25,16.83,1.992,0,0,0,0,0,0,0,0,0,0,0,0,0,0,0,0,
382,28.82,-12.03,3.783,-4.49,3.84,-6.749,0.4201,-15.03,-3.904,-7.854,8.165,-2.578,-5.907,-12.35,15.33,1.163,0,0,0,0,0,0,0,0,0,0,0,0,0,0,0,0,
383,20.0,-1.218,-0.2296,-8.989,-0.2269,-8.129,6.658,-18.02,-6.257,-4.45,12.02,-3.567,-7.868,-12.82,14.05,-0.6894,0,0,0,0,0,0,0,0,0,0,0,0,0,0,0,0,
384,15.04,8.975,0.1807,3.853,-0.2163,-7.242,7.342,10.13,-7.929,-0.2773,13.01,1.46,-3.297,-8.453,19.85,2.631,0,0,0,0,0,0,0,0,0,0,0,0,0,0,0,0,
385,23.27,5.483,3.566,15.14,2.773,-4.098,-9.738,8.715,-3.807,1.057,4.106,-2.194,-4.067,-12.45,16.26,-0.8212,0,0,0,0,0,0,0,0,0,0,0,0,0,0,0,0,
386,25.29,7.461,-1.052,-0.5273,-2.287,-9.11,-8.787,-16.28,-7.431,-3.774,-2.53,-8.547,-9.104,-19.24,9.54,-4.622,0,0,0,0,0,0,0,0,0,0,0,0,0,0,0,0,
387,21.02,17.09,-6.511,-11.96,-7.775,-15.69,2.685,-7.17,-9.907,-6.191,8.504,-2.99,-4.264,-13.79,17.49,3.009,0,0,0,0,0,0,0,0,0,0,0,0,0,0,0,0,
388,18.75,4.496,-10.13,-10.53,-10.83,-22.09,-13.68,7.136,-7.213,-5.299,15.85,0.0099,-3.704,-9.855,20.14,4.866,0,0,0,0,0,0,0,0,0,0,0,0,0,0,0,0,
389,8.329,-25.56,-20.54,-15.31,-21.13,-29.72,-22.51,-7.787,-14.64,-10.77,2.799,-8.59,-12.84,-17.27,11.13,-2.673,0,0,0,0,0,0,0,0,0,0,0,0,0,0,0,0,
390,-4.948,-26.26,-27.93,-16.21,-28.72,-27.11,-10.31,-17.43,-22.42,-17.32,-5.744,-12.91,-12.15,-19.36,10.0,-1.51,0,0,0,0,0,0,0,0,0,0,0,0,0,0,0,0,
391,-1.776,0.73,-21.82,-11.49,-21.9,-18.9,-12.26,-8.603,-16.82,-14.03,3.258,-7.739,-3.288,-11.05,14.94,5.941,0,0,0,0,0,0,0,0,0,0,0,0,0,0,0,0,
392,6.016,3.446,-14.97,-13.83,-14.52,-18.04,-13.49,-0.9131,-10.75,-6.622,11.7,-4.269,2.095,-5.025,21.0,8.999,0,0,0,0,0,0,0,0,0,0,0,0,0,0,0,0,
393,5.045,-15.5,-13.36,-14.64,-13.75,-17.03,-9.065,0.4254,-11.31,-4.755,9.065,-5.284,3.218,-5.875,23.04,8.008,0,0,0,0,0,0,0,0,0,0,0,0,0,0,0,0,
394,11.22,-13.09,-7.293,-8.487,-8.243,-11.33,-20.0,-0.1681,-11.13,-6.73,3.68,-3.578,-1.299,-9.778,14.1,5.519,0,0,0,0,0,0,0,0,0,0,0,0,0,0,0,0,
395,19.44,2.381,-0.5901,-5.692,-0.9386,-9.05,-26.61,5.902,-8.5,-5.639,7.938,2.069,-3.427,-11.1,12.51,6.477,0,0,0,0,0,0,0,0,0,0,0,0,0,0,0,0,
396,14.08,6.119,0.1664,-6.989,0.4599,-8.55,-19.49,12.55,-4.6,0.8667,16.85,4.877,2.398,-7.531,19.47,10.28,0,0,0,0,0,0,0,0,0,0,0,0,0,0,0,0,
397,11.56,2.673,1.754,-4.045,2.003,-4.248,-11.11,5.067,-0.7973,7.628,16.58,2.569,3.181,-7.276,14.08,10.54,0,0,0,0,0,0,0,0,0,0,0,0,0,0,0,0,
398,12.12,-2.844,-0.7489,1.041,-1.044,-3.557,-1.965,-3.069,-1.57,7.824,12.58,1.135,-2.645,-13.6,12.19,11.25,0,0,0,0,0,0,0,0,0,0,0,0,0,0,0,0,
399,3.433,-2.202,-10.62,0.1663,-10.72,-10.29,-0.2671,-0.2022,-5.027,2.349,13.69,6.116,-1.984,-12.69,27.2,17.94,0,0,0,0,0,0,0,0,0,0,0,0,0,0,0,0,
400,7.552,7.082,-6.055,2.056,-5.124,-7.091,1.521,5.61,-1.077,2.397,21.03,14.66,7.89,-0.2535,42.42,26.56,0,0,0,0,0,0,0,0,0,0,0,0,0,0,0,0,
401,24.48,9.262,11.47,10.25,12.28,7.924,12.7,16.73,10.36,12.47,33.31,17.44,16.49,4.598,51.55,29.39,0,0,0,0,0,0,0,0,0,0,0,0,0,0,0,0,
402,25.48,7.779,14.39,5.184,14.28,9.951,4.117,25.25,15.34,17.16,35.15,14.38,12.55,-2.665,48.43,23.69,0,0,0,0,0,0,0,0,0,0,0,0,0,0,0,0,
403,21.93,13.6,9.923,-4.57,9.844,5.345,-13.81,16.05,12.53,12.73,29.55,18.06,7.917,0.689,38.68,21.57,0,0,0,0,0,0,0,0,0,0,0,0,0,0,0,0,
404,28.23,17.95,15.52,3.792,15.34,13.51,7.694,7.089,16.19,16.35,41.53,27.99,19.07,15.22,47.01,30.37,0,0,0,0,0,0,0,0,0,0,0,0,0,0,0,0,
405,28.34,15.56,20.81,10.48,19.61,15.58,37.64,15.26,25.24,20.84,55.02,26.32,27.79,16.16,56.82,32.33,0,0,0,0,0,0,0,0,0,0,0,0,0,0,0,0,
406,25.23,9.529,19.51,3.458,17.65,5.72,21.38,18.85,27.26,11.4,44.03,10.43,19.61,5.052,41.41,18.38,0,0,0,0,0,0,0,0,0,0,0,0,0,0,0,0,
407,27.6,7.672,13.37,1.008,11.78,2.875,-6.238,-3.302,21.2,3.708,26.67,-3.455,9.872,-2.183,24.43,4.488,0,0,0,0,0,0,0,0,0,0,0,0,0,0,0,0,
408,24.5,12.91,6.415,3.426,5.725,4.098,-2.349,-27.68,11.88,3.375,20.33,-6.903,4.102,-6.655,24.44,2.695,0,0,0,0,0,0,0,0,0,0,0,0,0,0,0,0,
409,18.43,9.826,9.945,4.104,9.617,6.398,7.054,-18.27,6.19,0.9339,22.72,-2.617,1.912,-5.943,28.16,12.83,0,0,0,0,0,0,0,0,0,0,0,0,0,0,0,0,
410,16.8,-2.693,14.68,-1.496,14.27,9.917,-0.0697,7.648,8.479,4.614,28.38,6.154,9.676,3.774,31.63,26.66,0,0,0,0,0,0,0,0,0,0,0,0,0,0,0,0,
411,15.24,-7.021,10.46,-12.41,11.02,6.559,-4.626,13.53,12.41,13.52,29.83,15.97,20.5,12.85,38.11,34.01,0,0,0,0,0,0,0,0,0,0,0,0,0,0,0,0,
412,19.58,0.2995,13.42,-8.041,14.36,6.815,4.516,7.577,15.36,15.97,32.81,20.83,25.03,15.21,41.02,35.2,0,0,0,0,0,0,0,0,0,0,0,0,0,0,0,0,
413,29.0,11.54,20.5,5.84,20.16,14.18,15.5,4.928,17.96,16.4,40.15,17.69,25.4,12.58,37.11,32.94,0,0,0,0,0,0,0,0,0,0,0,0,0,0,0,0,
414,28.97,14.46,18.59,5.403,17.98,15.15,18.17,3.641,17.36,18.58,40.48,14.17,28.25,11.66,38.34,29.05,0,0,0,0,0,0,0,0,0,0,0,0,0,0,0,0,
415,26.18,10.42,18.41,1.234,18.39,13.84,15.24,7.02,20.52,20.35,40.11,15.08,34.63,15.96,48.45,28.33,0,0,0,0,0,0,0,0,0,0,0,0,0,0,0,0,
416,27.97,15.7,17.6,0.6961,17.47,10.87,12.04,8.972,25.95,19.52,43.63,12.39,30.79,12.88,47.09,24.99,0,0,0,0,0,0,0,0,0,0,0,0,0,0,0,0,
417,23.23,17.1,8.996,-2.003,8.893,3.638,4.699,3.139,17.42,12.9,35.76,8.082,14.33,2.051,30.77,14.83,0,0,0,0,0,0,0,0,0,0,0,0,0,0,0,0,
418,18.13,2.953,7.251,-0.0083,6.867,4.702,-5.352,-0.1604,4.954,8.707,24.02,11.32,7.016,-0.9473,22.18,10.53,0,0,0,0,0,0,0,0,0,0,0,0,0,0,0,0,
419,21.93,-0.3892,12.48,1.141,11.63,7.75,-3.251,3.264,8.461,10.69,26.92,14.7,11.24,-1.24,25.02,14.78,0,0,0,0,0,0,0,0,0,0,0,0,0,0,0,0,
420,21.31,9.683,11.63,-3.605,11.29,1.39,5.37,9.152,14.18,8.857,31.26,12.21,9.81,-3.845,27.42,15.44,0,0,0,0,0,0,0,0,0,0,0,0,0,0,0,0,
421,13.77,11.15,5.151,-2.36,4.879,-2.472,-1.727,10.6,5.73,6.132,21.33,6.305,2.416,-2.034,22.57,8.122,0,0,0,0,0,0,0,0,0,0,0,0,0,0,0,0,
422,10.17,4.221,-2.397,3.309,-3.169,-0.5628,-14.51,3.788,-5.838,5.702,10.45,-4.986,-3.995,-5.918,10.01,-2.263,0,0,0,0,0,0,0,0,0,0,0,0,0,0,0,0,
423,9.751,-2.995,-3.904,0.357,-4.545,-1.026,-11.38,-1.765,-7.572,0.1747,13.41,-10.72,-5.997,-15.14,5.935,-5.199,0,0,0,0,0,0,0,0,0,0,0,0,0,0,0,0,
424,12.38,-0.1146,3.985,-12.56,3.132,-3.588,-2.861,-1.458,-1.649,-3.772,20.87,-1.125,-2.43,-12.15,11.51,1.579,0,0,0,0,0,0,0,0,0,0,0,0,0,0,0,0,
425,17.87,5.433,9.116,-17.45,7.948,-5.64,-4.7,1.315,3.351,-1.613,17.72,6.593,-2.084,-4.921,2.533,3.545,0,0,0,0,0,0,0,0,0,0,0,0,0,0,0,0,
426,16.38,-11.42,5.268,-4.423,4.827,-4.59,-13.54,4.2,3.369,-1.665,11.4,6.128,-5.082,-2.75,-6.419,0.4632,0,0,0,0,0,0,0,0,0,0,0,0,0,0,0,0,
427,11.73,-22.08,6.128,4.922,6.303,1.581,-15.29,5.517,4.317,2.172,19.97,10.1,1.894,5.192,12.24,6.106,0,0,0,0,0,0,0,0,0,0,0,0,0,0,0,0,
428,17.33,2.117,16.32,3.963,15.93,10.6,0.0519,13.56,10.57,12.78,34.96,13.49,13.11,12.8,30.78,12.35,0,0,0,0,0,0,0,0,0,0,0,0,0,0,0,0,
429,27.09,16.0,18.17,7.269,16.97,14.59,13.45,19.95,12.88,14.28,34.26,11.16,14.68,11.3,28.34,10.54,0,0,0,0,0,0,0,0,0,0,0,0,0,0,0,0,
430,31.18,10.33,11.16,6.944,10.2,10.3,6.53,7.582,7.763,9.136,26.27,12.78,14.3,14.36,27.98,13.81,0,0,0,0,0,0,0,0,0,0,0,0,0,0,0,0,
431,31.43,16.83,15.6,1.852,15.16,10.19,1.688,2.168,7.691,13.05,27.27,17.42,18.15,22.6,32.97,22.63,0,0,0,0,0,0,0,0,0,0,0,0,0,0,0,0,
432,29.06,15.5,25.12,5.508,24.11,17.32,9.496,16.4,12.61,20.01,27.25,18.45,18.6,21.8,30.82,23.96,0,0,0,0,0,0,0,0,0,0,0,0,0,0,0,0,
433,27.84,8.793,22.79,8.068,21.6,17.38,8.238,21.8,12.02,20.73,24.77,17.3,16.68,16.01,28.07,19.09,0,0,0,0,0,0,0,0,0,0,0,0,0,0,0,0,
434,28.18,18.78,16.59,4.274,16.31,12.75,-0.5112,17.24,10.16,19.62,30.36,17.35,16.44,14.95,30.61,15.25,0,0,0,0,0,0,0,0,0,0,0,0,0,0,0,0,
435,22.03,13.13,12.64,7.678,12.58,14.77,-1.869,11.42,9.753,19.02,34.9,22.86,15.72,17.38,36.0,17.04,0,0,0,0,0,0,0,0,0,0,0,0,0,0,0,0,
436,14.09,0.3322,7.476,13.86,7.191,16.35,3.266,6.223,6.089,18.69,34.77,30.72,16.77,20.69,36.74,23.24,0,0,0,0,0,0,0,0,0,0,0,0,0,0,0,0,
437,12.86,16.71,5.553,9.194,5.456,9.127,11.53,10.82,5.024,17.48,37.39,32.13,19.98,21.52,27.6,23.74,0,0,0,0,0,0,0,0,0,0,0,0,0,0,0,0,
438,17.43,25.05,11.03,0.4169,10.66,1.617,14.9,8.554,8.603,12.55,35.84,29.57,21.36,17.82,23.55,20.93,0,0,0,0,0,0,0,0,0,0,0,0,0,0,0,0,
439,28.0,10.56,20.23,0.8053,19.38,3.678,13.17,-0.1501,10.01,8.12,32.28,26.93,23.19,14.59,33.14,24.88,0,0,0,0,0,0,0,0,0,0,0,0,0,0,0,0,
440,34.31,11.75,24.24,7.202,23.52,10.03,18.53,10.22,12.12,9.456,37.83,23.71,27.33,16.12,39.47,27.86,0,0,0,0,0,0,0,0,0,0,0,0,0,0,0,0,
441,28.31,21.33,21.44,11.27,20.86,12.84,21.11,15.71,17.59,15.99,40.18,24.35,30.53,18.63,36.06,23.78,0,0,0,0,0,0,0,0,0,0,0,0,0,0,0,0,
442,25.05,17.65,19.41,11.3,18.63,12.73,12.17,3.113,18.29,21.42,31.48,24.16,30.6,16.17,31.96,20.34,0,0,0,0,0,0,0,0,0,0,0,0,0,0,0,0,
443,26.54,10.3,15.11,4.75,14.32,8.027,8.451,-1.169,12.18,16.42,28.79,17.95,26.73,11.98,30.02,19.61,0,0,0,0,0,0,0,0,0,0,0,0,0,0,0,0,
444,21.29,10.6,4.638,-2.352,4.229,0.7584,8.823,-7.26,6.271,8.668,32.23,18.13,20.55,11.69,28.99,20.0,0,0,0,0,0,0,0,0,0,0,0,0,0,0,0,0,
445,19.06,21.12,-1.251,1.159,-1.425,-0.0852,4.303,-17.34,1.937,11.82,25.68,25.13,17.37,11.23,27.73,22.58,0,0,0,0,0,0,0,0,0,0,0,0,0,0,0,0,
446,25.09,26.16,1.268,5.514,1.088,1.802,5.071,-7.913,-0.565,15.58,17.44,24.96,19.08,8.123,25.85,24.14,0,0,0,0,0,0,0,0,0,0,0,0,0,0,0,0,
447,23.49,8.818,2.857,-1.198,2.644,-1.738,5.562,3.431,2.095,9.852,17.34,19.6,18.47,2.51,20.78,19.34,0,0,0,0,0,0,0,0,0,0,0,0,0,0,0,0,
448,14.05,-11.08,2.512,-6.415,2.245,-3.937,-1.441,-1.005,4.172,3.678,16.99,16.8,14.76,-5.79,14.69,12.83,0,0,0,0,0,0,0,0,0,0,0,0,0,0,0,0,
449,16.98,-3.977,8.754,-0.4892,8.591,2.369,0.43,-3.441,4.001,5.431,21.84,18.12,19.04,-4.719,18.71,14.95,0,0,0,0,0,0,0,0,0,0,0,0,0,0,0,0,
450,28.12,17.13,14.24,2.07,14.06,7.176,5.681,3.713,7.383,13.59,28.32,21.14,21.97,4.973,22.1,17.81,0,0,0,0,0,0,0,0,0,0,0,0,0,0,0,0,
451,23.33,14.78,4.582,-6.506,4.173,1.317,-2.876,5.105,3.093,15.07,16.54,19.85,10.51,1.999,8.841,10.7,0,0,0,0,0,0,0,0,0,0,0,0,0,0,0,0,
452,15.11,-0.9356,-3.895,-8.866,-3.79,-2.758,-8.04,-9.223,-7.05,7.603,10.84,17.97,9.13,-8.62,3.794,8.652,0,0,0,0,0,0,0,0,0,0,0,0,0,0,0,0,
453,22.83,7.859,3.29,-1.042,3.686,1.42,1.794,-18.84,0.2846,8.217,32.09,18.6,23.54,-12.65,18.61,15.59,0,0,0,0,0,0,0,0,0,0,0,0,0,0,0,0,
454,22.84,16.73,5.802,-1.767,4.899,-0.2383,9.884,-13.02,9.506,10.36,39.17,13.34,20.16,-20.64,20.3,12.26,0,0,0,0,0,0,0,0,0,0,0,0,0,0,0,0,
455,12.47,-4.124,1.973,-7.279,0.5634,-4.627,10.58,-15.77,0.2644,0.079,20.23,7.67,6.489,-29.37,6.362,3.939,0,0,0,0,0,0,0,0,0,0,0,0,0,0,0,0,
456,18.21,-11.1,8.559,-1.094,8.346,2.035,5.811,-16.88,-1.829,-3.214,13.95,12.89,11.08,-22.68,5.897,7.665,0,0,0,0,0,0,0,0,0,0,0,0,0,0,0,0,
457,28.37,13.04,15.31,7.667,15.2,11.8,-5.08,2.205,7.99,8.59,25.38,21.26,19.07,-8.168,15.83,16.55,0,0,0,0,0,0,0,0,0,0,0,0,0,0,0,0,
458,29.48,26.64,14.14,6.616,13.71,15.46,-8.572,6.782,8.041,15.71,31.0,24.01,16.31,0.4177,17.28,20.59,0,0,0,0,0,0,0,0,0,0,0,0,0,0,0,0,
459,32.05,25.15,12.11,2.727,13.08,15.41,0.2763,-4.916,6.511,13.95,20.22,23.32,13.92,0.8992,11.44,20.45,0,0,0,0,0,0,0,0,0,0,0,0,0,0,0,0,
460,33.36,23.26,11.13,3.905,12.71,13.89,3.167,0.254,10.17,12.0,3.267,23.94,13.81,-2.111,6.146,18.5,0,0,0,0,0,0,0,0,0,0,0,0,0,0,0,0,
461,36.7,19.62,16.64,7.755,16.48,14.59,-4.173,5.473,9.309,12.34,1.931,27.74,13.24,-0.1457,5.042,17.31,0,0,0,0,0,0,0,0,0,0,0,0,0,0,0,0,
462,43.75,27.27,23.36,12.09,22.16,18.59,-6.266,0.8284,7.715,14.65,12.56,28.13,14.43,6.293,11.1,17.63,0,0,0,0,0,0,0,0,0,0,0,0,0,0,0,0,
463,36.91,36.74,16.44,18.39,16.02,21.8,-0.8766,3.44,7.74,17.0,14.35,22.0,14.98,8.44,18.3,18.83,0,0,0,0,0,0,0,0,0,0,0,0,0,0,0,0,
464,29.05,23.96,7.916,21.5,7.939,22.17,0.1202,4.958,5.695,17.84,14.26,18.33,13.24,4.419,16.37,18.12,0,0,0,0,0,0,0,0,0,0,0,0,0,0,0,0,
465,35.21,13.78,10.31,15.96,9.773,17.79,-6.162,6.945,4.161,16.16,20.82,18.23,9.898,-3.028,8.805,10.4,0,0,0,0,0,0,0,0,0,0,0,0,0,0,0,0,
466,29.84,20.72,8.169,6.117,7.12,6.919,-11.95,13.07,-0.922,10.57,16.13,13.21,2.699,-11.77,0.179,-0.6943,0,0,0,0,0,0,0,0,0,0,0,0,0,0,0,0,
467,16.33,16.64,-2.017,-3.785,-3.278,-5.312,-15.03,3.825,-12.05,2.299,-0.6736,5.761,-6.543,-18.77,-9.966,-6.172,0,0,0,0,0,0,0,0,0,0,0,0,0,0,0,0,
468,17.91,2.349,-7.703,-11.27,-9.19,-11.63,-20.92,-9.485,-19.6,-5.785,-8.791,2.354,-13.48,-23.72,-12.17,-8.022,0,0,0,0,0,0,0,0,0,0,0,0,0,0,0,0,
469,13.85,-3.896,-13.02,-14.96,-14.8,-15.18,-29.11,-8.289,-23.95,-11.64,-12.94,-1.386,-22.19,-28.68,-9.637,-12.57,0,0,0,0,0,0,0,0,0,0,0,0,0,0,0,0,
470,-3.609,-4.859,-23.96,-16.0,-25.86,-20.77,-32.52,-7.827,-32.95,-16.42,-23.23,-6.222,-32.1,-31.21,-15.23,-15.45,0,0,0,0,0,0,0,0,0,0,0,0,0,0,0,0,
471,-8.677,-4.607,-31.55,-8.131,-33.09,-20.39,-31.04,-12.2,-39.45,-20.44,-23.68,-4.906,-31.54,-27.99,-13.96,-10.63,0,0,0,0,0,0,0,0,0,0,0,0,0,0,0,0,
472,0.9074,-3.315,-28.41,6.402,-29.35,-11.74,-31.6,-12.03,-34.7,-18.11,-15.53,-0.8579,-24.26,-22.75,-3.866,-4.795,0,0,0,0,0,0,0,0,0,0,0,0,0,0,0,0,
473,13.01,0.2669,-17.6,7.595,-18.34,-6.576,-33.23,-6.348,-25.43,-10.26,-18.93,-1.106,-24.37,-19.22,-11.99,-6.172,0,0,0,0,0,0,0,0,0,0,0,0,0,0,0,0,
474,18.13,5.34,-9.82,-3.253,-10.37,-7.551,-28.47,-0.4269,-20.44,-6.272,-24.41,-1.475,-26.45,-15.47,-24.56,-8.033,0,0,0,0,0,0,0,0,0,0,0,0,0,0,0,0,
475,14.38,8.422,-9.505,-7.455,-9.774,-10.33,-21.16,-8.315,-18.75,-6.283,-16.91,-0.9707,-22.77,-13.74,-15.37,-4.723,0,0,0,0,0,0,0,0,0,0,0,0,0,0,0,0,
476,15.58,9.511,-8.587,-10.4,-9.582,-16.85,-20.33,-22.53,-16.35,-7.972,-8.582,-6.403,-22.03,-20.22,-7.908,-8.091,0,0,0,0,0,0,0,0,0,0,0,0,0,0,0,0,
477,15.19,4.447,-8.42,-17.08,-10.14,-24.16,-24.16,-20.46,-16.05,-15.98,-11.87,-15.46,-25.95,-30.26,-14.74,-20.7,0,0,0,0,0,0,0,0,0,0,0,0,0,0,0,0,
478,3.172,0.6799,-13.83,-11.64,-14.66,-23.77,-25.84,-14.09,-21.21,-23.62,-21.29,-18.98,-25.83,-33.88,-14.2,-24.42,0,0,0,0,0,0,0,0,0,0,0,0,0,0,0,0,
479,1.704,3.982,-16.19,-1.333,-16.69,-19.71,-20.25,-19.72,-25.82,-22.72,-23.5,-19.05,-24.91,-33.44,-10.6,-18.74,0,0,0,0,0,0,0,0,0,0,0,0,0,0,0,0,
480,11.55,-6.729,-16.44,-6.214,-17.84,-21.79,-14.19,-23.02,-26.7,-23.27,-16.26,-22.93,-29.36,-32.45,-16.69,-19.17,0,0,0,0,0,0,0,0,0,0,0,0,0,0,0,0,
481,13.98,-15.63,-17.94,-9.413,-18.75,-21.84,-21.57,-12.14,-26.35,-24.3,-10.65,-23.67,-30.16,-23.84,-17.6,-19.04,0,0,0,0,0,0,0,0,0,0,0,0,0,0,0,0,
482,14.74,4.015,-11.98,-0.1892,-11.88,-14.09,-29.49,-0.5926,-22.51,-15.17,-13.1,-16.56,-25.81,-13.76,-12.23,-12.26,0,0,0,0,0,0,0,0,0,0,0,0,0,0,0,0,
483,11.67,9.579,-8.305,-4.45,-9.109,-16.96,-24.7,-11.77,-22.34,-12.11,-25.79,-16.64,-33.22,-20.05,-22.16,-16.85,0,0,0,0,0,0,0,0,0,0,0,0,0,0,0,0,
484,4.424,-4.446,-13.42,-13.4,-14.8,-27.83,-26.49,-32.91,-32.8,-23.61,-40.21,-25.53,-46.84,-33.46,-39.37,-31.52,0,0,0,0,0,0,0,0,0,0,0,0,0,0,0,0,
485,12.24,11.92,-5.296,2.177,-5.966,-20.38,-27.41,-24.66,-34.77,-26.75,-35.85,-24.83,-42.84,-32.9,-37.36,-32.38,0,0,0,0,0,0,0,0,0,0,0,0,0,0,0,0,
486,23.69,27.58,10.79,10.87,10.22,-8.785,-9.725,-4.9,-22.34,-21.7,-23.5,-18.73,-33.33,-27.71,-27.9,-24.22,0,0,0,0,0,0,0,0,0,0,0,0,0,0,0,0,
487,20.74,6.582,7.553,-12.11,6.52,-18.25,-10.99,-18.28,-20.32,-27.09,-29.06,-22.49,-39.64,-32.37,-32.12,-25.75,0,0,0,0,0,0,0,0,0,0,0,0,0,0,0,0,
488,18.68,-3.647,-3.562,-23.8,-4.414,-28.19,-37.47,-40.32,-28.73,-34.26,-36.04,-28.13,-45.04,-36.64,-34.64,-30.22,0,0,0,0,0,0,0,0,0,0,0,0,0,0,0,0,
489,18.58,5.179,-3.063,-11.53,-3.307,-25.09,-38.24,-33.41,-29.43,-34.82,-27.7,-30.23,-40.59,-35.61,-29.67,-31.54,0,0,0,0,0,0,0,0,0,0,0,0,0,0,0,0,
490,13.01,0.462,0.6595,-7.064,0.8617,-24.71,-19.77,-20.15,-29.16,-37.39,-23.21,-35.66,-42.23,-36.6,-35.02,-36.17,0,0,0,0,0,0,0,0,0,0,0,0,0,0,0,0,
491,18.5,6.442,2.34,-3.353,2.734,-23.51,-16.0,-21.56,-31.71,-37.35,-27.05,-36.86,-45.55,-35.26,-44.78,-39.32,0,0,0,0,0,0,0,0,0,0,0,0,0,0,0,0,
492,27.39,28.62,4.515,6.351,4.658,-17.61,-16.82,-20.88,-27.7,-31.17,-27.99,-30.01,-43.11,-30.26,-50.53,-39.69,0,0,0,0,0,0,0,0,0,0,0,0,0,0,0,0,
493,18.72,21.71,5.163,1.763,5.043,-18.03,-17.79,-14.28,-23.37,-30.14,-29.01,-29.38,-42.3,-27.76,-57.91,-42.41,0,0,0,0,0,0,0,0,0,0,0,0,0,0,0,0,
494,17.64,5.338,6.997,-2.473,6.9,-15.45,-22.57,-17.11,-22.49,-30.38,-28.52,-36.04,-37.81,-24.03,-54.72,-39.95,0,0,0,0,0,0,0,0,0,0,0,0,0,0,0,0,
495,34.28,20.94,8.015,3.97,7.324,-9.598,-20.72,-25.2,-19.12,-26.59,-21.92,-40.06,-29.16,-21.64,-38.34,-34.61,0,0,0,0,0,0,0,0,0,0,0,0,0,0,0,0,
496,34.01,33.4,2.284,-2.614,1.251,-18.67,-15.9,-23.51,-18.98,-32.36,-18.16,-41.74,-27.39,-25.85,-30.38,-36.61,0,0,0,0,0,0,0,0,0,0,0,0,0,0,0,0,
497,23.77,24.67,-0.5005,-9.012,-0.786,-24.99,-16.24,-14.87,-21.32,-41.01,-19.61,-41.83,-26.66,-26.4,-32.06,-37.45,0,0,0,0,0,0,0,0,0,0,0,0,0,0,0,0,
498,28.52,20.8,4.049,0.7768,3.485,-13.83,-17.74,-10.09,-18.24,-34.04,-16.04,-38.58,-22.59,-22.58,-31.94,-32.63,0,0,0,0,0,0,0,0,0,0,0,0,0,0,0,0,
499,31.39,13.67,6.164,3.729,5.042,-9.063,-10.86,-12.04,-16.17,-23.55,-10.27,-33.8,-21.31,-21.94,-34.14,-30.19,0,0,0,0,0,0,0,0,0,0,0,0,0,0,0,0,
500,28.27,6.297,8.638,6.548,8.532,-9.288,1.887,-14.67,-16.49,-21.14,-16.88,-32.12,-24.53,-21.96,-44.01,-33.2,0,0,0,0,0,0,0,0,0,0,0,0,0,0,0,0,
501,30.94,19.28,12.42,19.67,12.37,-0.6771,-6.221,-9.381,-16.34,-20.9,-28.81,-36.46,-34.27,-25.92,-52.35,-39.23,0,0,0,0,0,0,0,0,0,0,0,0,0,0,0,0,
502,34.22,32.91,8.919,17.14,7.678,1.246,-28.51,-5.087,-21.6,-23.86,-25.93,-38.03,-40.63,-32.27,-44.73,-36.76,0,0,0,0,0,0,0,0,0,0,0,0,0,0,0,0,
503,39.27,33.22,6.198,6.746,4.922,-4.36,-23.87,-15.84,-26.05,-27.75,-17.69,-31.56,-34.43,-29.82,-30.01,-25.53,0,0,0,0,0,0,0,0,0,0,0,0,0,0,0,0,
504,43.57,31.38,11.6,12.35,10.68,-2.975,-6.586,-24.04,-23.22,-27.29,-19.01,-27.56,-30.99,-23.62,-27.83,-22.94,0,0,0,0,0,0,0,0,0,0,0,0,0,0,0,0,
505,40.67,31.52,14.46,19.65,13.44,-0.9842,-7.213,-12.86,-20.53,-25.19,-20.32,-28.4,-34.62,-22.71,-32.56,-25.65,0,0,0,0,0,0,0,0,0,0,0,0,0,0,0,0,
506,36.08,30.09,8.47,16.64,7.364,-7.262,-11.42,-3.354,-20.36,-24.3,-24.73,-31.61,-37.23,-28.05,-38.75,-26.15,0,0,0,0,0,0,0,0,0,0,0,0,0,0,0,0,
507,28.29,16.29,-0.0403,7.257,-0.5879,-14.08,-13.64,-7.659,-24.32,-28.72,-34.38,-38.88,-40.74,-35.11,-49.57,-32.14,0,0,0,0,0,0,0,0,0,0,0,0,0,0,0,0,
508,25.48,4.87,-0.9744,1.612,-0.6394,-11.05,-15.61,-11.62,-29.0,-32.52,-29.42,-42.32,-39.43,-33.04,-52.53,-36.11,0,0,0,0,0,0,0,0,0,0,0,0,0,0,0,0,
509,36.36,19.65,1.552,8.78,0.987,-7.475,-15.07,-17.56,-27.32,-29.45,-23.35,-42.27,-37.2,-29.53,-47.97,-34.94,0,0,0,0,0,0,0,0,0,0,0,0,0,0,0,0,
510,39.08,32.61,-4.524,12.54,-6.247,-13.88,-23.09,-31.31,-30.15,-32.97,-32.13,-44.15,-41.22,-33.05,-45.26,-37.06,0,0,0,0,0,0,0,0,0,0,0,0,0,0,0,0,
511,31.84,25.56,-7.521,5.399,-8.452,-14.92,-22.82,-32.04,-33.88,-36.98,-26.95,-38.66,-33.44,-26.21,-38.43,-33.25,0,0,0,0,0,0,0,0,0,0,0,0,0,0,0,0,
512,33.74,21.36,0.0962,3.51,-0.9175,-9.423,-8.681,-11.04,-23.65,-27.32,-15.15,-31.85,-21.87,-14.42,-37.37,-25.93,0,0,0,0,0,0,0,0,0,0,0,0,0,0,0,0,
513,37.39,20.94,-0.0991,6.144,-1.417,-12.17,-16.33,4.349,-19.93,-23.08,-25.55,-34.11,-27.01,-15.48,-44.67,-26.23,0,0,0,0,0,0,0,0,0,0,0,0,0,0,0,0,
514,40.29,26.21,-2.015,9.381,-1.536,-10.46,-22.58,0.9789,-26.41,-23.33,-27.68,-33.21,-24.47,-14.37,-37.17,-23.0,0,0,0,0,0,0,0,0,0,0,0,0,0,0,0,0,
515,48.98,39.86,11.01,12.48,11.84,-3.02,0.6238,-2.349,-17.15,-12.68,-12.07,-31.72,-11.95,-10.31,-26.5,-18.91,0,0,0,0,0,0,0,0,0,0,0,0,0,0,0,0,
516,54.26,34.25,18.44,11.81,18.03,-5.976,2.075,0.552,-9.064,-12.09,-16.48,-36.59,-18.87,-16.37,-32.01,-24.35,0,0,0,0,0,0,0,0,0,0,0,0,0,0,0,0,
517,55.15,20.56,10.86,19.14,10.57,-5.707,-16.44,0.4371,-18.84,-20.48,-28.14,-32.14,-29.02,-16.98,-34.89,-25.29,0,0,0,0,0,0,0,0,0,0,0,0,0,0,0,0,
518,56.64,35.01,11.0,27.8,10.51,1.91,-9.073,-0.2335,-19.48,-14.41,-22.37,-21.49,-23.82,-9.268,-34.36,-20.24,0,0,0,0,0,0,0,0,0,0,0,0,0,0,0,0,
519,57.83,56.14,17.79,24.22,16.74,1.141,-10.45,3.722,-11.81,-9.431,-22.14,-19.95,-22.29,-9.322,-43.96,-20.85,0,0,0,0,0,0,0,0,0,0,0,0,0,0,0,0,
520,65.75,61.68,17.89,32.16,17.17,2.774,-30.18,9.102,-17.61,-13.68,-30.36,-20.41,-26.03,-12.66,-51.16,-22.7,0,0,0,0,0,0,0,0,0,0,0,0,0,0,0,0,
521,83.74,72.03,22.06,52.5,21.09,16.0,-18.78,12.3,-21.19,-8.721,-29.81,-17.86,-21.76,-12.12,-50.94,-24.85,0,0,0,0,0,0,0,0,0,0,0,0,0,0,0,0,
522,103.7,94.64,34.11,61.42,33.48,29.9,-2.276,17.7,-8.638,2.42,-29.78,-16.37,-13.47,-8.989,-47.14,-27.54,0,0,0,0,0,0,0,0,0,0,0,0,0,0,0,0,
523,123.1,120.0,47.31,67.2,48.21,39.35,-11.79,26.68,3.592,8.533,-24.13,-13.16,-5.579,-4.529,-33.54,-21.69,0,0,0,0,0,0,0,0,0,0,0,0,0,0,0,0,
524,147.4,141.8,69.86,72.3,70.27,44.27,3.512,25.85,11.25,9.659,1.569,-6.144,5.262,-2.411,-18.09,-10.88,0,0,0,0,0,0,0,0,0,0,0,0,0,0,0,0,
525,177.6,159.4,95.95,75.57,94.89,52.56,41.43,20.16,25.36,11.71,18.34,0.5968,18.54,3.039,-13.43,-4.1,0,0,0,0,0,0,0,0,0,0,0,0,0,0,0,0,
526,208.4,186.6,105.8,93.87,105.2,68.34,36.39,26.88,38.29,21.97,10.11,-0.3111,27.64,12.54,-14.01,0.4147,0,0,0,0,0,0,0,0,0,0,0,0,0,0,0,0,
527,237.0,222.5,109.5,112.7,109.4,77.32,10.35,25.81,38.47,30.03,8.455,-6.326,29.64,12.12,-9.797,4.899,0,0,0,0,0,0,0,0,0,0,0,0,0,0,0,0,
528,264.1,243.7,124.4,117.5,123.9,82.18,22.26,14.68,38.01,27.28,20.49,-4.702,31.75,9.925,0.3935,10.34,0,0,0,0,0,0,0,0,0,0,0,0,0,0,0,0,
529,284.5,251.5,143.0,127.5,142.7,96.97,43.82,32.06,48.0,31.06,21.41,2.476,36.61,20.66,6.081,15.13,0,0,0,0,0,0,0,0,0,0,0,0,0,0,0,0,
530,292.9,260.4,158.9,135.7,158.5,110.1,44.25,57.98,58.36,45.64,13.91,7.892,39.06,29.37,1.924,14.2,0,0,0,0,0,0,0,0,0,0,0,0,0,0,0,0,
531,295.8,272.6,172.5,133.3,172.1,113.6,50.92,55.36,63.96,54.05,16.35,14.81,40.34,27.34,-0.0223,11.29,0,0,0,0,0,0,0,0,0,0,0,0,0,0,0,0,
532,300.5,292.2,179.9,144.5,180.6,117.1,60.16,53.86,69.93,53.92,24.95,18.68,42.18,26.37,5.271,14.35,0,0,0,0,0,0,0,0,0,0,0,0,0,0,0,0,
533,302.3,307.0,184.4,158.1,186.1,119.9,58.77,58.56,74.34,53.51,29.21,17.53,44.27,28.21,11.56,21.67,0,0,0,0,0,0,0,0,0,0,0,0,0,0,0,0,
534,298.7,304.1,193.2,148.4,194.7,119.6,72.89,45.95,77.44,55.14,29.65,21.04,48.69,28.98,17.3,26.03,0,0,0,0,0,0,0,0,0,0,0,0,0,0,0,0,
535,298.3,302.9,201.2,141.4,202.0,121.0,83.15,45.18,82.05,55.86,28.33,26.41,49.51,30.2,20.24,26.12,0,0,0,0,0,0,0,0,0,0,0,0,0,0,0,0,
536,301.6,307.8,201.7,154.9,202.2,124.8,61.64,60.53,81.87,54.82,27.29,30.01,44.84,34.19,19.58,27.97,0,0,0,0,0,0,0,0,0,0,0,0,0,0,0,0,
537,302.2,305.9,204.7,172.7,206.3,135.5,58.99,57.48,80.32,60.59,27.44,37.11,46.29,41.03,17.5,31.13,0,0,0,0,0,0,0,0,0,0,0,0,0,0,0,0,
538,301.8,308.6,216.7,184.4,219.6,148.8,81.08,55.73,88.36,72.65,24.58,39.93,51.75,42.6,15.22,29.38,0,0,0,0,0,0,0,0,0,0,0,0,0,0,0,0,
539,301.7,313.4,223.3,174.8,225.4,147.9,73.19,67.83,95.0,74.43,25.81,34.0,52.0,37.42,20.16,29.31,0,0,0,0,0,0,0,0,0,0,0,0,0,0,0,0,
540,302.0,304.1,223.0,160.9,225.3,144.5,68.51,62.05,92.89,67.89,41.86,34.17,54.97,40.9,30.97,38.84,0,0,0,0,0,0,0,0,0,0,0,0,0,0,0,0,
541,303.4,298.6,233.5,182.4,237.7,159.5,101.5,50.56,100.2,73.24,57.49,44.06,63.09,53.16,33.73,48.24,0,0,0,0,0,0,0,0,0,0,0,0,0,0,0,0,
542,300.3,308.7,244.6,200.2,248.4,172.4,113.6,57.45,114.1,86.35,55.14,48.37,65.11,54.78,27.72,46.98,0,0,0,0,0,0,0,0,0,0,0,0,0,0,0,0,
543,295.4,313.1,235.2,184.0,238.0,167.9,96.82,63.57,111.8,87.06,44.95,43.95,62.21,47.8,21.3,41.03,0,0,0,0,0,0,0,0,0,0,0,0,0,0,0,0,
544,299.5,310.0,222.9,190.5,227.2,169.7,96.36,63.95,104.4,83.25,42.19,42.81,66.11,51.63,23.37,42.52,0,0,0,0,0,0,0,0,0,0,0,0,0,0,0,0,
545,304.0,309.5,228.0,210.1,233.0,180.1,100.7,74.17,112.6,91.8,48.51,43.25,76.4,61.98,37.51,47.51,0,0,0,0,0,0,0,0,0,0,0,0,0,0,0,0,
546,299.2,304.7,233.9,197.9,237.5,179.9,96.34,88.58,123.3,98.95,54.42,37.73,80.89,61.81,44.04,42.35,0,0,0,0,0,0,0,0,0,0,0,0,0,0,0,0,
547,295.5,298.6,226.4,192.5,229.6,174.5,98.58,86.24,122.4,93.82,49.87,38.55,76.25,58.03,34.76,36.02,0,0,0,0,0,0,0,0,0,0,0,0,0,0,0,0,
548,288.5,286.3,215.0,194.8,218.4,171.3,100.2,65.31,115.2,91.45,42.31,51.62,72.21,64.23,35.9,46.56,0,0,0,0,0,0,0,0,0,0,0,0,0,0,0,0,
549,268.3,252.9,207.4,175.2,210.1,168.2,95.69,60.32,107.9,94.15,46.91,61.92,75.2,72.79,50.98,63.18,0,0,0,0,0,0,0,0,0,0,0,0,0,0,0,0,
550,259.8,238.1,207.4,175.5,210.7,170.3,97.27,81.58,108.0,94.19,61.21,63.3,82.63,75.13,54.22,65.06,0,0,0,0,0,0,0,0,0,0,0,0,0,0,0,0,
551,273.0,269.7,215.3,189.3,219.6,172.9,106.8,90.23,117.8,96.69,71.06,57.2,88.67,77.01,46.17,55.27,0,0,0,0,0,0,0,0,0,0,0,0,0,0,0,0,
552,273.5,285.9,216.0,169.5,219.3,168.3,111.3,83.03,126.2,101.2,69.77,46.69,90.34,81.49,46.28,49.06,0,0,0,0,0,0,0,0,0,0,0,0,0,0,0,0,
553,255.2,260.7,201.6,157.0,203.9,162.4,97.85,83.17,125.3,101.1,63.51,43.48,88.96,82.47,52.48,47.37,0,0,0,0,0,0,0,0,0,0,0,0,0,0,0,0,
554,240.3,240.5,186.2,171.1,189.0,157.3,87.71,79.29,118.7,96.25,62.11,46.71,84.87,77.29,51.63,44.19,0,0,0,0,0,0,0,0,0,0,0,0,0,0,0,0,
555,227.6,227.4,178.9,158.6,181.2,152.3,103.4,70.45,111.2,90.32,64.83,47.18,78.49,72.22,47.53,45.68,0,0,0,0,0,0,0,0,0,0,0,0,0,0,0,0,
556,212.2,204.3,172.4,133.8,173.6,148.2,103.6,65.39,105.0,88.76,63.04,48.65,70.02,69.6,46.16,51.22,0,0,0,0,0,0,0,0,0,0,0,0,0,0,0,0,
557,195.4,186.9,158.3,142.6,159.9,139.8,67.17,50.8,96.35,87.71,52.33,49.48,57.65,64.13,38.55,47.27,0,0,0,0,0,0,0,0,0,0,0,0,0,0,0,0,
558,176.2,179.4,142.7,154.2,144.6,130.5,52.82,39.03,84.01,79.78,36.21,43.52,47.37,57.46,26.6,37.91,0,0,0,0,0,0,0,0,0,0,0,0,0,0,0,0,
559,164.4,177.4,135.6,134.9,136.9,125.2,72.11,51.12,76.55,72.65,28.16,35.25,46.32,53.63,25.27,30.86,0,0,0,0,0,0,0,0,0,0,0,0,0,0,0,0,
560,154.4,178.2,129.8,118.2,130.8,116.2,72.59,62.09,77.04,70.21,35.91,24.22,47.65,47.17,29.79,18.75,0,0,0,0,0,0,0,0,0,0,0,0,0,0,0,0,
561,130.3,162.4,116.1,125.4,117.4,106.5,55.1,47.0,76.37,63.62,41.63,12.47,43.53,37.29,26.99,8.813,0,0,0,0,0,0,0,0,0,0,0,0,0,0,0,0,
562,106.9,129.2,101.7,125.7,103.5,102.5,46.7,26.29,67.6,53.47,33.5,15.39,37.71,36.27,22.93,15.33,0,0,0,0,0,0,0,0,0,0,0,0,0,0,0,0,
563,98.8,111.0,93.89,113.2,95.53,99.51,45.22,30.11,59.21,50.48,28.65,30.79,36.31,49.38,25.21,28.62,0,0,0,0,0,0,0,0,0,0,0,0,0,0,0,0,
564,88.41,108.0,90.26,110.0,91.66,98.59,47.04,48.93,61.48,57.26,29.64,37.46,35.47,58.24,23.41,31.58,0,0,0,0,0,0,0,0,0,0,0,0,0,0,0,0,
565,62.21,83.43,82.11,103.2,84.15,94.78,44.31,48.98,61.5,60.51,23.42,32.9,28.37,48.03,10.82,22.35,0,0,0,0,0,0,0,0,0,0,0,0,0,0,0,0,
566,34.65,52.48,64.8,87.26,66.89,81.24,38.5,34.0,49.9,53.43,19.62,28.47,22.36,35.69,0.1073,11.19,0,0,0,0,0,0,0,0,0,0,0,0,0,0,0,0,
567,22.51,51.52,49.9,84.33,51.04,70.46,41.33,33.65,41.99,47.73,18.67,21.64,20.83,31.52,-2.489,3.455,0,0,0,0,0,0,0,0,0,0,0,0,0,0,0,0,
568,13.22,47.57,42.97,79.56,44.2,63.43,29.97,39.94,36.71,42.58,4.873,9.528,13.08,20.45,-5.111,-5.521,0,0,0,0,0,0,0,0,0,0,0,0,0,0,0,0,
569,-9.719,17.76,34.18,59.75,36.02,49.1,5.884,27.28,24.08,30.33,-3.039,2.276,6.048,7.536,-5.406,-11.98,0,0,0,0,0,0,0,0,0,0,0,0,0,0,0,0,
570,-33.1,-5.383,22.85,51.23,24.42,37.33,14.86,10.86,18.31,21.06,11.12,3.274,10.63,8.12,-0.8749,-7.207,0,0,0,0,0,0,0,0,0,0,0,0,0,0,0,0,
571,-46.3,-19.87,15.43,53.41,16.99,36.96,37.83,15.53,22.69,18.87,16.45,5.648,13.47,12.65,-6.3,-0.3964,0,0,0,0,0,0,0,0,0,0,0,0,0,0,0,0,
572,-56.69,-31.67,12.73,49.35,14.49,40.59,32.97,22.53,23.02,20.36,0.49,5.124,8.757,12.58,-24.53,-5.944,0,0,0,0,0,0,0,0,0,0,0,0,0,0,0,0,
573,-67.76,-29.88,11.07,45.25,12.51,40.38,24.88,17.95,20.14,25.32,-7.127,2.975,7.677,13.21,-31.14,-14.11,0,0,0,0,0,0,0,0,0,0,0,0,0,0,0,0,
574,-80.77,-39.93,6.617,37.23,8.452,32.86,26.31,24.3,19.59,24.41,0.6466,4.264,11.15,15.57,-11.44,-5.249,0,0,0,0,0,0,0,0,0,0,0,0,0,0,0,0,
575,-91.67,-70.92,1.552,23.68,3.969,24.77,21.84,31.93,20.0,18.78,7.236,6.256,14.14,15.89,14.38,10.42,0,0,0,0,0,0,0,0,0,0,0,0,0,0,0,0,
576,-97.87,-83.02,-3.419,20.7,-1.612,22.9,21.39,14.09,18.84,19.5,12.6,3.857,18.4,13.48,23.03,9.928,0,0,0,0,0,0,0,0,0,0,0,0,0,0,0,0,
577,-111.8,-75.69,-10.6,21.36,-9.128,21.13,21.21,-6.631,16.57,19.83,9.684,3.888,20.39,11.4,13.38,-2.071,0,0,0,0,0,0,0,0,0,0,0,0,0,0,0,0,
578,-132.8,-92.29,-18.45,11.73,-16.69,14.95,5.924,-7.81,13.46,14.42,-18.24,4.91,7.232,6.867,-11.23,-14.46,0,0,0,0,0,0,0,0,0,0,0,0,0,0,0,0,
579,-145.7,-125.8,-28.65,3.104,-27.12,7.978,-9.596,3.231,2.758,8.462,-43.27,1.732,-10.88,0.5554,-33.37,-21.16,0,0,0,0,0,0,0,0,0,0,0,0,0,0,0,0,
580,-151.6,-127.6,-38.56,-2.393,-36.93,4.049,-9.787,14.75,-7.815,5.199,-30.13,3.318,-7.507,4.271,-26.92,-11.27,0,0,0,0,0,0,0,0,0,0,0,0,0,0,0,0,
581,-159.3,-115.7,-43.95,-14.79,-42.15,0.997,-0.3222,5.929,-5.566,6.91,-9.959,2.755,1.33,8.805,-11.57,-0.3708,0,0,0,0,0,0,0,0,0,0,0,0,0,0,0,0,
582,-171.0,-140.7,-54.37,-19.92,-53.17,-6.415,0.084,-14.82,-8.174,4.414,-15.1,-9.758,-8.817,-0.5642,-14.69,-8.233,0,0,0,0,0,0,0,0,0,0,0,0,0,0,0,0,
583,-180.2,-168.1,-66.67,-12.49,-65.38,-14.64,-17.16,-15.1,-20.56,-7.164,-22.23,-16.08,-14.94,-6.814,-12.43,-13.34,0,0,0,0,0,0,0,0,0,0,0,0,0,0,0,0,
584,-182.1,-160.0,-67.59,-19.56,-65.71,-21.06,-24.99,-9.966,-22.04,-13.64,-21.67,-12.06,-9.215,-2.862,1.183,-3.789,0,0,0,0,0,0,0,0,0,0,0,0,0,0,0,0,
585,-187.9,-156.9,-68.06,-36.8,-66.85,-29.77,-15.44,-19.11,-22.14,-15.65,-29.33,-10.52,-13.73,-1.957,-1.419,3.621,0,0,0,0,0,0,0,0,0,0,0,0,0,0,0,0,
586,-199.4,-174.7,-75.96,-36.98,-75.55,-35.4,-22.27,-21.51,-32.17,-21.3,-37.48,-8.073,-20.34,0.5606,-10.28,7.922,0,0,0,0,0,0,0,0,0,0,0,0,0,0,0,0,
587,-201.8,-182.3,-81.79,-34.61,-81.38,-35.41,-36.12,-14.97,-37.18,-21.34,-38.62,-7.379,-17.85,5.768,-9.386,9.145,0,0,0,0,0,0,0,0,0,0,0,0,0,0,0,0,
588,-199.4,-173.8,-87.97,-41.12,-87.8,-37.97,-31.54,-19.45,-37.98,-16.63,-44.28,-13.26,-17.2,4.052,-13.74,1.567,0,0,0,0,0,0,0,0,0,0,0,0,0,0,0,0,
589,-199.2,-164.9,-95.21,-42.14,-95.18,-41.36,-35.02,-30.07,-41.55,-17.77,-50.14,-12.0,-17.75,2.346,-22.51,-3.345,0,0,0,0,0,0,0,0,0,0,0,0,0,0,0,0,
590,-189.9,-168.9,-93.42,-45.28,-92.4,-41.4,-43.29,-30.01,-42.19,-20.86,-39.53,-1.216,-14.5,6.74,-20.49,-0.6515,0,0,0,0,0,0,0,0,0,0,0,0,0,0,0,0,
591,-180.6,-178.6,-87.27,-50.4,-85.69,-43.22,-29.87,-27.92,-40.23,-21.48,-22.98,3.147,-14.32,8.229,-14.79,-1.945,0,0,0,0,0,0,0,0,0,0,0,0,0,0,0,0,
592,-186.9,-177.1,-89.83,-47.1,-89.44,-49.52,-26.8,-37.4,-39.76,-24.42,-24.52,-3.877,-21.78,1.304,-18.99,-9.954,0,0,0,0,0,0,0,0,0,0,0,0,0,0,0,0,
593,-195.7,-175.2,-100.9,-54.36,-101.0,-58.06,-38.67,-41.54,-44.49,-32.15,-34.63,-9.911,-29.03,-5.335,-24.96,-14.98,0,0,0,0,0,0,0,0,0,0,0,0,0,0,0,0,
594,-195.9,-180.8,-109.9,-68.61,-108.5,-63.37,-29.36,-34.39,-51.01,-36.88,-32.61,-6.758,-25.84,-2.715,-18.82,-10.99,0,0,0,0,0,0,0,0,0,0,0,0,0,0,0,0,
595,-192.5,-176.7,-109.6,-64.7,-107.9,-62.17,-21.1,-34.47,-46.77,-31.17,-28.29,-5.792,-20.73,-0.8763,-11.96,-8.45,0,0,0,0,0,0,0,0,0,0,0,0,0,0,0,0,
596,-188.0,-163.2,-105.1,-57.93,-104.3,-61.29,-32.6,-35.22,-39.79,-26.79,-31.11,-12.7,-25.22,-7.64,-16.21,-14.96,0,0,0,0,0,0,0,0,0,0,0,0,0,0,0,0,
597,-184.4,-156.5,-105.1,-62.33,-103.7,-63.22,-39.67,-32.88,-45.97,-33.81,-30.63,-14.32,-27.35,-9.725,-13.49,-16.33,0,0,0,0,0,0,0,0,0,0,0,0,0,0,0,0,
598,-179.4,-159.4,-109.2,-64.71,-107.4,-61.67,-40.71,-41.24,-53.0,-37.64,-22.81,-10.31,-19.85,-3.849,1.045,-8.018,0,0,0,0,0,0,0,0,0,0,0,0,0,0,0,0,
599,-174.0,-166.2,-112.0,-64.41,-111.3,-60.07,-36.36,-49.8,-50.45,-31.96,-14.25,-11.17,-14.93,-0.8518,3.781,-5.056,0,0,0,0,0,0,0,0,0,0,0,0,0,0,0,0,
600,-178.6,-165.5,-112.1,-65.42,-111.6,-63.53,-27.48,-52.64,-48.76,-30.56,-13.41,-13.92,-15.0,-1.98,-5.492,-10.06,0,0,0,0,0,0,0,0,0,0,0,0,0,0,0,0,
601,-184.3,-155.3,-109.9,-65.75,-109.0,-65.31,-29.86,-54.42,-47.86,-33.53,-18.96,-13.7,-14.08,-5.382,-6.617,-13.96,0,0,0,0,0,0,0,0,0,0,0,0,0,0,0,0,
602,-177.9,-153.0,-106.9,-64.86,-106.5,-62.33,-32.2,-45.51,-42.85,-31.65,-18.35,-9.51,-12.44,-5.976,1.869,-10.2,0,0,0,0,0,0,0,0,0,0,0,0,0,0,0,0,
603,-169.2,-157.4,-102.6,-58.85,-101.9,-56.61,-27.34,-34.9,-40.14,-26.02,-11.1,-0.343,-8.118,3.499,11.74,1.132,0,0,0,0,0,0,0,0,0,0,0,0,0,0,0,0,
604,-159.5,-144.8,-95.33,-50.31,-93.64,-46.84,-25.72,-31.67,-38.12,-18.13,-5.26,4.999,-1.151,11.37,18.51,7.863,0,0,0,0,0,0,0,0,0,0,0,0,0,0,0,0,
605,-146.7,-125.1,-89.9,-47.09,-88.3,-40.15,-19.68,-24.99,-32.5,-11.61,-4.56,-0.0718,1.062,5.756,17.96,4.771,0,0,0,0,0,0,0,0,0,0,0,0,0,0,0,0,
606,-143.9,-124.5,-90.7,-47.35,-90.15,-41.89,-19.54,-25.46,-30.18,-12.88,-10.65,-5.451,0.6356,0.8138,14.74,3.828,0,0,0,0,0,0,0,0,0,0,0,0,0,0,0,0,
607,-146.5,-133.7,-93.75,-45.9,-93.77,-41.26,-31.4,-35.48,-30.96,-15.03,-13.99,-3.592,3.219,6.762,15.26,6.796,0,0,0,0,0,0,0,0,0,0,0,0,0,0,0,0,
608,-148.5,-139.3,-96.55,-44.83,-96.5,-39.16,-32.1,-31.99,-31.99,-12.24,-13.02,0.8011,-0.3637,10.36,11.6,4.256,0,0,0,0,0,0,0,0,0,0,0,0,0,0,0,0,
609,-157.4,-142.1,-99.75,-48.8,-99.34,-47.78,-33.7,-24.4,-38.04,-14.29,-20.36,2.863,-10.95,3.923,3.311,-0.8427,0,0,0,0,0,0,0,0,0,0,0,0,0,0,0,0,
610,-159.9,-135.2,-99.85,-48.39,-98.95,-54.73,-38.87,-33.34,-41.02,-20.84,-22.21,1.72,-11.54,-2.272,4.28,-0.4979,0,0,0,0,0,0,0,0,0,0,0,0,0,0,0,0,
611,-151.3,-128.1,-95.75,-36.72,-94.58,-47.04,-21.16,-41.64,-33.2,-19.41,-9.008,1.105,-4.487,-3.003,7.251,3.027,0,0,0,0,0,0,0,0,0,0,0,0,0,0,0,0,
612,-154.0,-133.9,-93.99,-38.95,-93.48,-45.93,-13.59,-32.67,-30.52,-15.87,-8.47,1.844,-7.521,-8.403,0.1087,3.427,0,0,0,0,0,0,0,0,0,0,0,0,0,0,0,0,
613,-165.5,-142.5,-101.3,-60.16,-101.9,-64.45,-34.37,-26.0,-41.51,-25.25,-20.23,-2.995,-17.01,-22.43,-2.227,-0.1311,0,0,0,0,0,0,0,0,0,0,0,0,0,0,0,0,
614,-169.0,-152.4,-114.7,-65.89,-114.6,-79.88,-39.21,-38.07,-52.68,-39.84,-18.12,-9.935,-22.15,-33.57,1.491,-4.537,0,0,0,0,0,0,0,0,0,0,0,0,0,0,0,0,
615,-163.8,-158.8,-121.1,-62.0,-119.8,-81.42,-31.22,-46.19,-57.09,-45.72,-11.41,-10.41,-25.98,-37.04,-4.145,-7.022,0,0,0,0,0,0,0,0,0,0,0,0,0,0,0,0,
616,-151.8,-147.9,-113.3,-69.28,-112.5,-80.2,-27.34,-35.33,-56.73,-47.98,-12.02,-11.1,-28.52,-37.86,-7.87,-6.253,0,0,0,0,0,0,0,0,0,0,0,0,0,0,0,0,
617,-140.4,-137.4,-99.34,-62.84,-99.65,-73.47,-16.81,-27.72,-50.57,-48.59,-9.914,-12.67,-25.29,-36.18,-4.258,-4.996,0,0,0,0,0,0,0,0,0,0,0,0,0,0,0,0,
618,-138.6,-135.0,-93.72,-48.03,-94.1,-64.17,-22.63,-27.43,-43.66,-42.95,-7.362,-6.978,-21.6,-34.25,-8.603,-6.25,0,0,0,0,0,0,0,0,0,0,0,0,0,0,0,0,
619,-139.2,-123.8,-98.65,-58.49,-99.09,-69.72,-42.03,-23.76,-44.27,-41.43,-13.47,-4.957,-23.46,-35.53,-14.96,-7.009,0,0,0,0,0,0,0,0,0,0,0,0,0,0,0,0,
620,-138.6,-122.9,-101.2,-72.44,-101.3,-80.03,-38.67,-33.37,-48.58,-47.19,-25.39,-13.28,-27.98,-35.19,-16.4,-6.95,0,0,0,0,0,0,0,0,0,0,0,0,0,0,0,0,
621,-141.4,-137.1,-97.46,-70.16,-97.05,-76.64,-31.6,-51.02,-49.54,-47.6,-31.56,-16.49,-30.33,-33.12,-20.64,-9.593,0,0,0,0,0,0,0,0,0,0,0,0,0,0,0,0,
622,-139.3,-133.3,-97.77,-70.8,-98.08,-69.24,-38.16,-46.79,-47.65,-44.05,-25.87,-14.66,-30.05,-34.98,-23.44,-13.26,0,0,0,0,0,0,0,0,0,0,0,0,0,0,0,0,
623,-128.0,-123.3,-101.9,-69.48,-102.9,-66.15,-41.98,-37.91,-46.7,-43.87,-22.47,-19.38,-30.39,-37.22,-23.31,-15.43,0,0,0,0,0,0,0,0,0,0,0,0,0,0,0,0,
624,-121.1,-126.3,-100.7,-58.91,-101.7,-61.94,-44.58,-44.79,-49.95,-41.91,-27.26,-19.24,-30.08,-32.37,-23.24,-13.14,0,0,0,0,0,0,0,0,0,0,0,0,0,0,0,0,
625,-126.1,-117.9,-95.27,-54.69,-96.68,-56.7,-40.15,-39.96,-51.64,-32.85,-25.75,-7.105,-26.48,-24.12,-19.99,-7.342,0,0,0,0,0,0,0,0,0,0,0,0,0,0,0,0,
626,-131.0,-106.4,-94.72,-54.28,-95.89,-55.4,-33.31,-24.01,-46.57,-24.3,-23.56,-3.19,-27.66,-25.09,-21.19,-8.696,0,0,0,0,0,0,0,0,0,0,0,0,0,0,0,0,
627,-122.2,-112.4,-98.49,-49.85,-99.2,-58.2,-40.97,-26.34,-45.0,-28.36,-24.78,-10.39,-30.8,-30.61,-22.55,-11.4,0,0,0,0,0,0,0,0,0,0,0,0,0,0,0,0,
628,-109.7,-110.8,-95.43,-49.2,-96.04,-55.84,-35.08,-30.3,-44.81,-33.68,-12.57,-9.42,-20.4,-23.86,-12.31,-3.093,0,0,0,0,0,0,0,0,0,0,0,0,0,0,0,0,
629,-111.4,-101.2,-85.25,-51.82,-85.6,-49.21,-21.66,-20.51,-34.91,-25.18,-4.73,-7.499,-12.91,-19.54,-12.94,-2.254,0,0,0,0,0,0,0,0,0,0,0,0,0,0,0,0,
630,-115.2,-102.9,-82.32,-49.31,-83.33,-52.14,-42.42,-19.26,-32.07,-22.56,-20.19,-13.86,-26.08,-33.09,-27.75,-13.78,0,0,0,0,0,0,0,0,0,0,0,0,0,0,0,0,
631,-112.3,-102.7,-91.22,-44.75,-93.05,-55.38,-60.26,-22.16,-42.03,-31.51,-28.09,-8.483,-31.44,-36.56,-25.35,-12.28,0,0,0,0,0,0,0,0,0,0,0,0,0,0,0,0,
632,-123.5,-105.6,-101.8,-47.51,-102.4,-48.35,-52.27,-17.76,-42.73,-27.4,-21.91,2.127,-22.01,-24.46,-18.64,-7.458,0,0,0,0,0,0,0,0,0,0,0,0,0,0,0,0,
633,-134.0,-113.4,-101.4,-50.28,-101.3,-48.63,-49.56,-25.48,-40.64,-20.07,-22.34,-7.848,-27.79,-28.1,-28.12,-17.93,0,0,0,0,0,0,0,0,0,0,0,0,0,0,0,0,
634,-109.9,-95.4,-84.13,-40.12,-84.95,-52.44,-28.19,-35.28,-45.62,-26.28,-15.57,-18.95,-36.28,-38.19,-30.31,-23.54,0,0,0,0,0,0,0,0,0,0,0,0,0,0,0,0,
635,-76.37,-75.86,-60.89,-34.1,-61.49,-41.46,5.208,-25.58,-36.59,-26.57,-1.477,-13.34,-25.39,-32.63,-24.72,-19.33,0,0,0,0,0,0,0,0,0,0,0,0,0,0,0,0,
636,-65.59,-86.62,-47.66,-48.17,-47.81,-34.85,1.062,-20.94,-19.26,-19.9,-1.032,-12.76,-17.99,-28.22,-28.66,-20.16,0,0,0,0,0,0,0,0,0,0,0,0,0,0,0,0,
637,-64.88,-85.97,-44.03,-60.43,-44.48,-43.9,-2.151,-26.25,-17.63,-23.99,-2.311,-17.49,-20.81,-30.49,-27.31,-17.13,0,0,0,0,0,0,0,0,0,0,0,0,0,0,0,0,
638,-63.67,-72.56,-42.3,-59.91,-42.36,-46.7,15.13,-19.18,-19.48,-28.22,2.645,-10.02,-14.41,-23.72,-15.03,-4.832,0,0,0,0,0,0,0,0,0,0,0,0,0,0,0,0,
639,-64.78,-87.59,-43.51,-62.95,-44.1,-43.13,8.312,-18.09,-14.27,-22.15,6.403,0.1896,-4.643,-13.16,-4.409,4.555,0,0,0,0,0,0,0,0,0,0,0,0,0,0,0,0,
640,-66.28,-100.6,-48.49,-67.07,-50.58,-46.42,2.515,-26.05,-13.95,-18.62,16.1,0.9257,-2.448,-12.03,1.812,5.314,0,0,0,0,0,0,0,0,0,0,0,0,0,0,0,0,
641,-66.53,-87.38,-52.29,-61.24,-53.54,-49.84,15.32,-16.51,-16.94,-22.67,18.14,-4.051,-5.244,-20.64,-3.186,-0.9643,0,0,0,0,0,0,0,0,0,0,0,0,0,0,0,0,
642,-66.85,-82.28,-54.84,-56.54,-54.45,-51.28,8.661,-11.98,-18.82,-26.42,0.1469,-8.255,-11.56,-30.51,-13.5,-4.501,0,0,0,0,0,0,0,0,0,0,0,0,0,0,0,0,
643,-71.69,-90.48,-58.27,-63.45,-58.1,-54.89,1.443,-24.51,-21.65,-27.95,-5.478,-9.383,-12.97,-31.76,-10.5,-0.124,0,0,0,0,0,0,0,0,0,0,0,0,0,0,0,0,
644,-76.43,-100.2,-60.06,-72.31,-60.7,-55.4,13.14,-20.59,-19.95,-29.34,6.146,-13.04,-7.346,-29.37,-8.752,-2.063,0,0,0,0,0,0,0,0,0,0,0,0,0,0,0,0,
645,-73.21,-109.2,-61.58,-72.96,-62.77,-54.63,16.13,-15.29,-16.9,-31.46,2.574,-18.25,-6.599,-32.53,-19.38,-11.01,0,0,0,0,0,0,0,0,0,0,0,0,0,0,0,0,
646,-72.12,-97.98,-61.43,-66.62,-62.52,-55.27,11.77,-32.21,-16.81,-33.69,-5.65,-15.32,-6.627,-33.91,-17.79,-10.56,0,0,0,0,0,0,0,0,0,0,0,0,0,0,0,0,
647,-73.75,-76.28,-51.38,-57.01,-51.96,-50.14,6.468,-38.67,-11.24,-31.08,1.403,-9.449,-1.892,-31.73,-4.293,-6.439,0,0,0,0,0,0,0,0,0,0,0,0,0,0,0,0,
648,-65.45,-75.55,-41.42,-53.52,-42.47,-45.51,-1.241,-25.16,-7.101,-26.02,4.793,-8.541,-4.138,-34.84,0.1726,-9.319,0,0,0,0,0,0,0,0,0,0,0,0,0,0,0,0,
649,-57.78,-80.29,-45.24,-60.53,-46.55,-48.64,2.208,-13.18,-13.4,-28.52,-3.889,-7.381,-12.18,-37.64,-0.6551,-10.8,0,0,0,0,0,0,0,0,0,0,0,0,0,0,0,0,
650,-56.29,-74.06,-46.79,-58.69,-47.19,-44.31,6.212,-1.431,-16.3,-30.84,-11.34,-7.423,-14.59,-32.88,-3.463,-8.647,0,0,0,0,0,0,0,0,0,0,0,0,0,0,0,0,
651,-48.33,-70.66,-37.43,-45.18,-37.53,-31.75,6.341,5.203,-11.66,-21.89,-14.87,-13.39,-11.39,-27.93,-9.429,-8.197,0,0,0,0,0,0,0,0,0,0,0,0,0,0,0,0,
652,-46.05,-69.9,-39.15,-47.25,-39.51,-32.71,17.08,-4.969,-9.117,-15.54,-19.4,-18.97,-7.547,-27.84,-9.03,-7.735,0,0,0,0,0,0,0,0,0,0,0,0,0,0,0,0,
653,-58.12,-73.28,-51.5,-59.79,-51.76,-42.74,12.66,-15.62,-9.761,-20.83,-23.9,-18.38,-6.643,-27.46,-2.837,-6.075,0,0,0,0,0,0,0,0,0,0,0,0,0,0,0,0,
654,-62.79,-87.1,-49.95,-59.66,-50.17,-41.64,-12.16,-13.28,-11.47,-23.23,-20.02,-11.89,-4.65,-21.56,3.342,-1.923,0,0,0,0,0,0,0,0,0,0,0,0,0,0,0,0,
655,-58.3,-92.97,-39.17,-56.2,-39.44,-35.0,-9.529,-11.26,-8.515,-16.14,-10.21,-4.08,1.399,-14.4,9.879,4.424,0,0,0,0,0,0,0,0,0,0,0,0,0,0,0,0,
656,-55.33,-80.45,-34.3,-54.31,-34.57,-33.22,16.08,-14.87,1.159,-9.17,-7.67,-0.8183,5.044,-12.21,15.42,8.614,0,0,0,0,0,0,0,0,0,0,0,0,0,0,0,0,
657,-46.05,-65.04,-27.01,-48.06,-27.3,-31.06,21.7,-14.7,9.589,-7.436,-7.547,-2.008,9.22,-12.0,18.07,11.42,0,0,0,0,0,0,0,0,0,0,0,0,0,0,0,0,T1
658,-37.19,-59.29,-18.31,-47.36,-18.35,-27.32,17.9,-15.28,15.32,-6.524,-6.312,-6.33,13.53,-13.47,9.782,9.226,0,0,0,0,0,0,0,0,0,0,0,0,0,0,0,0,
659,-39.12,-63.99,-20.08,-48.19,-19.77,-24.22,26.13,-20.55,17.2,-4.233,-12.91,-10.48,7.718,-16.98,-5.837,-1.106,0,0,0,0,0,0,0,0,0,0,0,0,0,0,0,0,
660,-40.76,-70.06,-22.16,-42.94,-21.76,-20.17,27.06,-15.92,13.7,-4.407,-14.55,-6.002,3.43,-12.28,-3.629,-4.236,0,0,0,0,0,0,0,0,0,0,0,0,0,0,0,0,
661,-40.55,-65.64,-16.19,-44.3,-16.14,-18.11,13.95,-1.451,15.04,-5.386,-6.23,3.991,8.279,-1.632,9.525,2.788,0,0,0,0,0,0,0,0,0,0,0,0,0,0,0,0,
662,-40.61,-54.39,-13.24,-47.42,-13.89,-17.28,10.9,1.771,19.09,-2.812,-6.047,6.982,6.857,-0.9457,6.473,1.296,0,0,0,0,0,0,0,0,0,0,0,0,0,0,0,0,
663,-38.12,-55.47,-17.7,-42.09,-18.23,-12.69,17.7,-8.216,14.02,-1.587,-7.365,3.971,2.407,-8.588,2.064,-6.119,0,0,0,0,0,0,0,0,0,0,0,0,0,0,0,0,
664,-41.51,-69.88,-22.87,-43.4,-22.16,-9.049,13.35,-12.41,8.939,-3.309,-5.824,3.161,3.28,-13.55,8.871,-5.715,0,0,0,0,0,0,0,0,0,0,0,0,0,0,0,0,
665,-42.91,-70.25,-22.75,-52.71,-21.62,-10.51,1.364,-8.503,11.63,-2.333,-13.65,3.046,2.671,-13.9,8.435,-3.383,0,0,0,0,0,0,0,0,0,0,0,0,0,0,0,0,
666,-33.34,-52.86,-19.36,-49.85,-19.08,-11.0,0.9549,-6.106,13.06,-0.5709,-11.01,0.6258,5.589,-9.728,5.366,-4.3,0,0,0,0,0,0,0,0,0,0,0,0,0,0,0,0,
667,-31.71,-41.99,-18.61,-31.88,-18.42,-5.209,18.71,1.048,14.3,1.014,8.952,-0.3415,12.31,-5.254,7.761,-6.26,0,0,0,0,0,0,0,0,0,0,0,0,0,0,0,0,
668,-36.94,-40.83,-16.62,-21.45,-16.01,0.7172,31.0,6.806,19.98,3.652,10.75,-0.2174,7.323,-9.584,-0.307,-13.51,0,0,0,0,0,0,0,0,0,0,0,0,0,0,0,0,
669,-37.11,-49.08,-13.28,-37.53,-13.57,-6.071,12.1,-7.855,18.96,-2.551,-4.909,-2.435,-4.806,-18.79,-10.61,-21.99,0,0,0,0,0,0,0,0,0,0,0,0,0,0,0,0,
670,-43.36,-68.37,-17.93,-57.86,-18.93,-20.11,-6.37,-22.8,7.894,-15.52,-8.178,-2.054,-9.611,-19.13,-7.818,-20.93,0,0,0,0,0,0,0,0,0,0,0,0,0,0,0,0,
671,-52.42,-72.05,-28.02,-54.57,-28.4,-22.68,2.597,-18.99,0.5403,-17.08,-6.072,1.877,-10.78,-11.01,-7.632,-14.86,0,0,0,0,0,0,0,0,0,0,0,0,0,0,0,0,
672,-55.21,-56.09,-35.46,-46.99,-35.64,-17.14,0.0983,-15.59,-0.8399,-10.42,-10.76,1.703,-10.41,-3.222,-8.344,-9.486,0,0,0,0,0,0,0,0,0,0,0,0,0,0,0,0,
673,-51.67,-51.97,-35.47,-48.0,-35.56,-15.19,-15.68,-13.08,-1.347,-8.47,-10.12,-2.316,-2.93,2.588,2.173,-4.403,0,0,0,0,0,0,0,0,0,0,0,0,0,0,0,0,
674,-36.45,-52.19,-27.69,-40.39,-27.04,-12.83,-5.79,-5.497,5.047,-5.898,-4.696,-4.985,4.19,5.768,3.285,-7.026,0,0,0,0,0,0,0,0,0,0,0,0,0,0,0,0,
675,-28.99,-35.91,-23.53,-33.48,-22.67,-8.628,10.59,-6.364,15.69,0.9777,-7.415,-4.237,2.381,6.955,-6.459,-14.82,0,0,0,0,0,0,0,0,0,0,0,0,0,0,0,0,
676,-38.55,-32.63,-24.36,-39.41,-23.49,-8.971,11.04,-10.27,15.94,2.058,-16.45,-2.411,-5.007,5.648,-7.365,-18.36,0,0,0,0,0,0,0,0,0,0,0,0,0,0,0,0,
677,-36.52,-57.09,-22.76,-42.69,-22.05,-15.04,7.195,-8.791,6.332,-7.699,-20.43,-1.004,-10.64,3.622,-5.451,-18.35,0,0,0,0,0,0,0,0,0,0,0,0,0,0,0,0,
678,-37.18,-65.06,-26.26,-43.2,-26.41,-18.77,-4.26,-4.995,3.328,-11.77,-9.451,8.492,-1.965,17.09,5.535,-5.421,0,0,0,0,0,0,0,0,0,0,0,0,0,0,0,0,
679,-58.0,-48.9,-32.36,-51.36,-32.46,-17.94,-13.52,-3.921,11.3,0.5996,6.005,15.58,12.38,33.03,23.02,11.21,0,0,0,0,0,0,0,0,0,0,0,0,0,0,0,0,
680,-53.31,-51.14,-30.12,-57.62,-29.41,-26.19,-0.2382,-17.59,11.83,0.4258,2.265,0.0705,4.843,16.95,12.36,0.6764,0,0,0,0,0,0,0,0,0,0,0,0,0,0,0,0,
681,-21.58,-56.43,-22.98,-51.55,-22.15,-32.2,20.92,-24.52,5.634,-17.75,-5.249,-7.705,-1.621,2.968,0.345,-10.17,0,0,0,0,0,0,0,0,0,0,0,0,0,0,0,0,
682,-10.86,-33.99,-6.198,-39.23,-5.182,-10.39,27.31,-4.056,20.58,-9.401,5.952,11.18,19.43,24.64,19.91,5.365,0,0,0,0,0,0,0,0,0,0,0,0,0,0,0,0,
683,-10.98,-21.84,15.82,-35.85,16.32,6.664,18.45,-0.6523,39.85,11.6,9.539,12.49,22.28,27.48,19.57,2.653,0,0,0,0,0,0,0,0,0,0,0,0,0,0,0,0,
684,1.23,-30.54,17.11,-45.34,16.27,-12.6,15.79,-20.81,26.63,-5.415,0.966,-2.147,-1.598,2.58,1.205,-13.68,0,0,0,0,0,0,0,0,0,0,0,0,0,0,0,0,
685,9.857,-23.71,6.267,-50.41,5.949,-26.05,28.95,-14.83,10.37,-27.47,8.961,8.406,1.022,9.053,20.71,3.991,0,0,0,0,0,0,0,0,0,0,0,0,0,0,0,0,
686,10.46,-17.02,6.572,-42.78,7.341,-13.97,29.77,-3.457,18.38,-15.77,14.64,20.45,14.93,27.01,37.79,19.73,0,0,0,0,0,0,0,0,0,0,0,0,0,0,0,0,
687,12.02,-27.28,4.461,-39.58,4.54,-11.13,16.93,-17.79,18.39,-7.977,3.173,10.5,6.263,14.57,19.28,5.001,0,0,0,0,0,0,0,0,0,0,0,0,0,0,0,0,
688,14.06,-27.85,-3.112,-43.21,-3.503,-14.41,20.95,-18.86,7.325,-16.8,6.252,6.858,6.015,6.069,18.94,4.007,0,0,0,0,0,0,0,0,0,0,0,0,0,0,0,0,
689,15.16,-23.72,2.891,-34.5,2.886,-2.296,28.18,-1.742,12.7,-10.58,17.01,13.11,18.43,14.78,33.01,14.09,0,0,0,0,0,0,0,0,0,0,0,0,0,0,0,0,
690,11.69,-28.01,12.21,-23.14,12.03,6.488,21.51,-1.579,20.77,-0.9771,8.67,9.52,15.16,9.143,18.4,1.798,0,0,0,0,0,0,0,0,0,0,0,0,0,0,0,0,
691,6.246,-18.65,10.75,-27.27,10.64,3.44,19.33,-4.436,18.99,-8.815,4.982,1.664,13.13,0.4487,4.228,-9.857,0,0,0,0,0,0,0,0,0,0,0,0,0,0,0,0,
692,10.34,-0.481,14.59,-24.95,15.35,11.18,24.73,3.592,27.72,-6.899,18.33,1.239,25.9,10.19,14.35,-3.012,0,0,0,0,0,0,0,0,0,0,0,0,0,0,0,0,
693,19.94,1.419,29.75,-11.92,30.83,26.93,35.8,-1.915,44.56,14.35,23.35,5.832,31.68,19.77,21.02,2.515,0,0,0,0,0,0,0,0,0,0,0,0,0,0,0,0,
694,24.84,0.0252,37.8,-15.23,38.44,30.26,51.12,-12.33,50.89,23.52,24.17,10.75,31.69,22.24,18.24,4.773,0,0,0,0,0,0,0,0,0,0,0,0,0,0,0,0,
695,31.19,6.801,35.4,-16.73,36.43,31.16,51.09,0.901,54.84,21.64,34.37,16.67,39.99,30.27,18.67,11.7,0,0,0,0,0,0,0,0,0,0,0,0,0,0,0,0,
696,38.02,2.648,37.95,-1.429,39.79,40.66,45.08,18.89,63.36,30.72,35.86,21.68,45.85,36.36,22.26,16.63,0,0,0,0,0,0,0,0,0,0,0,0,0,0,0,0,
697,30.66,-13.87,41.27,-7.655,42.14,37.71,50.52,17.05,62.61,36.39,27.54,21.74,42.29,35.02,28.14,18.39,0,0,0,0,0,0,0,0,0,0,0,0,0,0,0,0,
698,16.16,-19.42,30.53,-29.35,30.37,19.59,42.99,9.305,53.42,28.37,27.88,23.65,39.85,38.74,29.7,22.26,0,0,0,0,0,0,0,0,0,0,0,0,0,0,0,0,
699,14.63,-5.819,22.95,-25.58,24.03,17.45,26.39,7.304,53.33,28.65,29.37,30.21,40.45,46.42,23.54,26.42,0,0,0,0,0,0,0,0,0,0,0,0,0,0,0,0,
700,20.72,9.476,33.66,-15.84,35.25,29.6,33.89,7.985,59.69,38.56,23.76,30.73,35.9,45.92,20.61,27.07,0,0,0,0,0,0,0,0,0,0,0,0,0,0,0,0,
701,22.97,7.812,38.29,-20.83,38.49,27.37,43.54,11.5,56.87,37.83,17.72,29.22,27.69,42.05,21.89,26.57,0,0,0,0,0,0,0,0,0,0,0,0,0,0,0,0,
702,28.31,-4.803,28.79,-17.88,28.54,19.91,27.62,10.35,50.59,31.26,7.248,31.08,22.49,43.21,19.74,26.36,0,0,0,0,0,0,0,0,0,0,0,0,0,0,0,0,
703,32.17,-10.13,22.16,-11.17,22.05,22.61,9.446,0.6603,47.55,29.65,-4.335,22.67,15.21,40.79,14.03,19.59,0,0,0,0,0,0,0,0,0,0,0,0,0,0,0,0,
704,21.55,-6.545,15.86,-16.19,15.88,21.66,9.665,-4.271,36.34,23.86,-3.916,10.75,4.713,32.75,7.69,8.761,0,0,0,0,0,0,0,0,0,0,0,0,0,0,0,0,
705,10.6,-2.112,12.35,-15.06,13.2,17.85,19.79,-1.507,23.92,15.28,-2.9,10.34,1.81,29.49,4.828,4.497,0,0,0,0,0,0,0,0,0,0,0,0,0,0,0,0,
706,12.89,1.52,17.87,-7.385,18.69,18.47,20.06,3.731,24.69,13.91,-11.98,8.105,4.082,27.5,6.19,2.12,0,0,0,0,0,0,0,0,0,0,0,0,0,0,0,0,
707,17.19,4.867,18.16,-14.32,18.34,14.36,10.7,12.52,28.25,14.23,-11.17,5.206,6.963,26.36,10.3,-0.0119,0,0,0,0,0,0,0,0,0,0,0,0,0,0,0,0,
708,19.06,5.234,15.9,-22.86,16.48,12.33,16.55,13.01,32.08,16.41,3.65,11.89,14.18,33.07,16.25,3.054,0,0,0,0,0,0,0,0,0,0,0,0,0,0,0,0,
709,21.68,3.457,20.36,-14.26,20.66,18.15,29.18,2.338,38.77,22.93,9.508,9.778,16.74,33.01,18.55,-0.1785,0,0,0,0,0,0,0,0,0,0,0,0,0,0,0,0,
710,25.59,9.397,20.71,-4.849,20.28,17.09,26.96,-0.3419,36.33,21.53,9.03,-0.8859,14.05,21.58,18.44,-9.45,0,0,0,0,0,0,0,0,0,0,0,0,0,0,0,0,
711,33.63,21.97,18.81,-6.257,19.13,10.9,26.9,-0.7958,30.71,12.97,10.35,-3.385,14.65,16.02,18.78,-9.798,0,0,0,0,0,0,0,0,0,0,0,0,0,0,0,0,
712,36.96,23.32,18.52,-8.431,19.02,10.6,28.26,-7.542,28.89,7.918,-1.584,-2.659,9.636,16.7,15.67,-3.378,0,0,0,0,0,0,0,0,0,0,0,0,0,0,0,0,
713,32.77,15.68,15.38,-11.66,14.83,12.79,18.03,-3.456,23.6,6.402,-11.55,5.345,5.382,22.78,17.35,6.441,0,0,0,0,0,0,0,0,0,0,0,0,0,0,0,0,
714,33.75,16.75,17.17,-17.94,16.6,12.15,17.1,1.387,24.23,9.486,1.571,17.16,12.54,32.8,23.37,12.9,0,0,0,0,0,0,0,0,0,0,0,0,0,0,0,0,
715,30.95,18.86,17.88,-15.43,17.3,8.399,22.23,-5.736,27.24,12.51,7.344,11.26,11.86,29.31,18.0,4.114,0,0,0,0,0,0,0,0,0,0,0,0,0,0,0,0,
716,21.13,11.77,8.46,-9.4,7.044,7.459,16.1,-1.614,18.68,9.611,-3.344,2.406,5.255,19.56,12.65,-4.086,0,0,0,0,0,0,0,0,0,0,0,0,0,0,0,0,
717,24.73,8.875,3.837,-16.88,3.094,9.966,14.52,10.49,15.93,9.16,-2.504,5.488,9.356,19.26,19.34,-0.4075,0,0,0,0,0,0,0,0,0,0,0,0,0,0,0,0,
718,31.16,13.83,5.789,-21.45,6.525,9.68,18.0,8.691,20.7,11.54,0.723,3.877,10.88,18.24,23.49,1.25,0,0,0,0,0,0,0,0,0,0,0,0,0,0,0,0,
719,26.78,18.2,7.711,-6.055,7.877,12.28,17.47,1.631,16.82,12.55,-2.036,2.31,8.534,17.9,24.36,4.15,0,0,0,0,0,0,0,0,0,0,0,0,0,0,0,0,
720,28.32,21.63,13.57,1.247,12.38,16.56,19.55,-2.283,17.47,15.46,4.746,7.28,11.21,23.31,26.69,10.83,0,0,0,0,0,0,0,0,0,0,0,0,0,0,0,0,
721,27.71,14.65,13.47,-12.05,12.6,12.06,13.21,-1.145,21.37,13.44,5.498,6.344,7.298,24.84,23.09,9.08,0,0,0,0,0,0,0,0,0,0,0,0,0,0,0,0,
722,12.14,-3.25,5.671,-16.29,5.498,8.44,-0.5089,7.236,11.81,7.875,-7.161,5.965,2.726,28.36,22.87,8.369,0,0,0,0,0,0,0,0,0,0,0,0,0,0,0,0,
723,4.112,-4.554,4.822,-8.658,4.02,10.27,5.05,9.793,6.75,11.18,-3.325,9.957,11.19,35.54,35.69,16.54,0,0,0,0,0,0,0,0,0,0,0,0,0,0,0,0,
724,9.177,8.444,4.539,-7.679,3.243,6.965,22.57,6.074,16.45,15.35,15.21,8.092,19.33,33.64,43.68,16.93,0,0,0,0,0,0,0,0,0,0,0,0,0,0,0,0,
725,11.68,7.781,0.519,-8.242,-0.1244,3.433,28.09,10.57,21.46,15.25,19.36,6.374,19.57,30.56,35.2,6.136,0,0,0,0,0,0,0,0,0,0,0,0,0,0,0,0,
726,14.41,2.675,4.88,-11.33,4.503,3.038,25.1,17.38,19.27,19.67,10.87,8.736,18.04,32.79,26.66,-0.9241,0,0,0,0,0,0,0,0,0,0,0,0,0,0,0,0,
727,17.7,4.411,8.337,-23.48,7.676,-1.91,19.02,14.13,17.81,21.09,6.005,8.911,14.0,29.97,29.19,0.7821,0,0,0,0,0,0,0,0,0,0,0,0,0,0,0,0,
728,13.26,2.271,1.297,-26.18,1.064,-5.761,12.7,6.099,15.98,15.83,6.431,9.507,13.27,27.56,33.83,5.894,0,0,0,0,0,0,0,0,0,0,0,0,0,0,0,0,
729,7.838,-0.4319,1.036,-15.29,1.199,-1.013,16.84,5.939,19.76,17.01,7.826,9.977,19.66,31.79,34.52,9.802,0,0,0,0,0,0,0,0,0,0,0,0,0,0,0,0,
730,6.669,-7.975,8.982,-12.98,8.917,5.294,20.47,10.88,28.51,20.76,7.551,5.327,19.64,29.39,31.16,9.15,0,0,0,0,0,0,0,0,0,0,0,0,0,0,0,0,
731,4.854,-21.9,8.337,-18.46,8.412,5.314,12.09,4.264,27.36,16.4,8.267,0.8166,14.85,21.21,28.03,6.269,0,0,0,0,0,0,0,0,0,0,0,0,0,0,0,0,
732,8.09,-12.9,6.254,-17.52,6.237,1.063,16.5,-9.797,23.2,12.49,13.51,1.604,21.16,22.96,32.74,8.059,0,0,0,0,0,0,0,0,0,0,0,0,0,0,0,0,
733,17.82,9.587,11.7,-14.68,10.76,-2.03,31.8,-10.61,30.17,13.64,15.19,2.661,26.2,27.57,30.93,7.673,0,0,0,0,0,0,0,0,0,0,0,0,0,0,0,0,
734,17.39,6.622,12.52,-13.32,11.55,-4.233,22.18,-2.364,31.8,9.83,9.395,1.905,16.89,22.14,13.31,-2.042,0,0,0,0,0,0,0,0,0,0,0,0,0,0,0,0,
735,6.936,-3.736,8.436,-10.94,8.426,-7.981,8.805,-2.114,21.62,2.506,8.866,5.909,10.96,18.08,6.222,-6.277,0,0,0,0,0,0,0,0,0,0,0,0,0,0,0,0,
736,5.4,-0.1974,6.775,-11.0,6.917,-11.44,20.03,-4.87,18.31,1.403,13.57,9.778,10.43,20.35,9.994,-2.849,0,0,0,0,0,0,0,0,0,0,0,0,0,0,0,0,
737,9.672,-1.537,1.2,-8.711,1.114,-9.989,16.6,-2.289,16.39,2.98,11.22,3.053,1.894,18.41,4.09,-4.399,0,0,0,0,0,0,0,0,0,0,0,0,0,0,0,0,
738,5.391,-1.241,-3.345,-0.7904,-3.156,-1.658,-7.017,-1.538,7.909,4.516,9.48,-0.8796,-2.156,18.72,7.157,-0.6776,0,0,0,0,0,0,0,0,0,0,0,0,0,0,0,0,
739,0.6209,7.421,2.978,0.0389,2.926,6.139,-2.869,0.601,8.723,11.0,15.99,7.113,2.717,24.7,20.43,7.62,0,0,0,0,0,0,0,0,0,0,0,0,0,0,0,0,
740,4.106,-0.0806,7.06,-5.617,6.169,6.045,17.07,8.155,13.22,15.62,19.54,8.658,2.532,23.89,17.72,2.095,0,0,0,0,0,0,0,0,0,0,0,0,0,0,0,0,
741,5.088,-9.763,1.518,-5.766,0.6228,1.813,16.02,1.24,7.929,12.26,17.77,1.142,3.175,22.13,12.48,-4.878,0,0,0,0,0,0,0,0,0,0,0,0,0,0,0,0,
742,3.284,6.226,-0.7,-3.529,-0.7612,-1.467,10.53,-14.28,6.475,9.656,16.7,-0.4023,7.512,26.56,15.9,-1.856,0,0,0,0,0,0,0,0,0,0,0,0,0,0,0,0,
743,8.754,22.18,2.864,0.1531,3.146,0.6819,14.92,-5.645,11.89,12.55,18.78,4.929,8.667,29.53,16.4,1.174,0,0,0,0,0,0,0,0,0,0,0,0,0,0,0,0,
744,12.37,17.22,6.473,4.628,6.311,8.141,21.06,13.36,14.66,18.22,26.82,11.13,13.92,33.84,19.21,5.036,0,0,0,0,0,0,0,0,0,0,0,0,0,0,0,0,
745,10.63,5.697,9.575,-1.054,8.855,7.601,24.49,14.61,18.25,20.14,28.44,10.41,15.31,36.99,18.46,4.782,0,0,0,0,0,0,0,0,0,0,0,0,0,0,0,0,
746,11.29,-4.273,5.307,-6.066,4.34,-0.7659,8.169,10.3,17.64,13.07,17.81,6.354,6.021,34.29,14.14,1.619,0,0,0,0,0,0,0,0,0,0,0,0,0,0,0,0,
747,-1.847,-7.046,-6.691,1.319,-7.769,-1.426,-15.95,9.349,9.279,9.572,18.46,13.06,7.687,36.29,24.75,10.76,0,0,0,0,0,0,0,0,0,0,0,0,0,0,0,0,
748,-26.21,-4.428,-10.9,0.8638,-12.39,-0.1422,-4.934,3.513,6.3,14.11,25.63,17.52,10.82,32.39,24.19,11.59,0,0,0,0,0,0,0,0,0,0,0,0,0,0,0,0,
749,-24.23,-6.611,-6.971,-6.881,-8.431,-6.737,17.23,-4.67,6.12,9.097,15.73,10.79,-3.183,17.43,1.72,-3.457,0,0,0,0,0,0,0,0,0,0,0,0,0,0,0,0,
750,-4.013,-4.9,-6.295,-5.429,-6.659,-13.27,10.93,-6.408,2.119,0.9903,9.647,13.55,-4.644,19.5,3.957,1.149,0,0,0,0,0,0,0,0,0,0,0,0,0,0,0,0,
751,0.9343,-3.16,-4.144,-11.53,-4.336,-15.56,7.433,-0.3319,3.325,5.765,14.22,18.2,8.516,28.32,20.68,12.4,0,0,0,0,0,0,0,0,0,0,0,0,0,0,0,0,
752,3.399,-12.22,1.193,-19.49,0.2797,-10.41,15.65,2.86,4.383,8.316,3.598,10.16,4.861,19.44,14.06,2.568,0,0,0,0,0,0,0,0,0,0,0,0,0,0,0,0,
753,15.55,-5.633,1.81,-3.31,2.218,2.118,6.972,-1.001,-0.7024,3.821,-3.156,9.034,0.0573,16.0,11.62,-0.4378,0,0,0,0,0,0,0,0,0,0,0,0,0,0,0,0,
754,20.06,15.56,4.338,8.299,6.112,8.269,0.8706,0.3773,2.23,7.54,14.32,16.4,10.82,22.79,26.56,11.61,0,0,0,0,0,0,0,0,0,0,0,0,0,0,0,0,
755,17.06,14.96,14.09,-1.647,14.39,9.676,16.98,7.19,13.09,14.91,27.9,21.37,18.8,23.34,32.28,18.55,0,0,0,0,0,0,0,0,0,0,0,0,0,0,0,0,
756,18.09,9.769,18.59,-2.34,17.83,15.06,27.8,7.198,18.93,18.42,28.15,30.29,21.11,28.87,30.37,25.56,0,0,0,0,0,0,0,0,0,0,0,0,0,0,0,0,
757,18.3,20.09,11.97,-0.6233,11.78,13.7,18.91,3.571,19.65,22.78,30.75,34.23,23.57,35.88,32.47,31.71,0,0,0,0,0,0,0,0,0,0,0,0,0,0,0,0,
758,10.99,13.94,1.934,-8.911,1.416,6.18,9.07,6.109,17.89,26.11,32.32,26.42,23.3,31.45,31.69,25.92,0,0,0,0,0,0,0,0,0,0,0,0,0,0,0,0,
759,-2.454,-11.34,-8.963,-9.069,-9.995,1.86,4.769,8.901,12.4,23.9,21.17,19.5,17.81,24.87,17.71,14.02,0,0,0,0,0,0,0,0,0,0,0,0,0,0,0,0,
760,-15.68,-23.58,-21.51,-14.19,-22.4,-5.444,-6.864,3.829,1.904,15.22,0.6051,13.18,4.304,16.35,-0.6027,5.663,0,0,0,0,0,0,0,0,0,0,0,0,0,0,0,0,
761,-17.82,-18.41,-26.78,-30.14,-27.45,-12.23,-20.38,-2.768,-8.481,3.408,-9.344,5.916,-6.316,7.124,-0.4391,5.549,0,0,0,0,0,0,0,0,0,0,0,0,0,0,0,0,
762,-9.977,-9.072,-19.4,-28.14,-19.42,-12.2,-23.11,-8.238,-9.191,-2.651,-4.796,3.394,-5.198,6.261,4.915,6.038,0,0,0,0,0,0,0,0,0,0,0,0,0,0,0,0,
763,-7.537,-5.543,-11.25,-12.76,-10.98,-12.07,-18.55,-12.05,-5.967,-1.78,-3.872,3.514,-4.554,6.527,-6.043,0.371,0,0,0,0,0,0,0,0,0,0,0,0,0,0,0,0,
764,-9.639,-8.839,-9.001,-3.162,-8.919,-8.128,-8.08,-8.636,-5.886,1.505,-2.43,8.209,-4.323,9.426,-7.056,3.039,0,0,0,0,0,0,0,0,0,0,0,0,0,0,0,0,
765,-5.586,-9.556,-7.348,-3.43,-7.027,-3.208,-4.555,-11.62,-2.06,5.608,5.037,15.51,1.092,18.8,6.184,13.17,0,0,0,0,0,0,0,0,0,0,0,0,0,0,0,0,
766,-4.85,-10.1,-10.43,-18.55,-10.5,-9.363,-18.45,-21.5,0.542,5.224,3.135,16.5,1.161,19.6,3.96,12.51,0,0,0,0,0,0,0,0,0,0,0,0,0,0,0,0,
767,-12.35,-17.89,-18.53,-28.79,-19.09,-11.46,-23.22,-12.4,-3.375,2.523,0.375,16.11,-2.33,14.95,0.5758,8.974,0,0,0,0,0,0,0,0,0,0,0,0,0,0,0,0,
768,-12.96,-22.1,-19.34,-17.74,-19.28,-1.829,-16.5,-0.0173,-2.803,6.586,5.135,17.17,-2.352,16.32,7.576,12.33,0,0,0,0,0,0,0,0,0,0,0,0,0,0,0,0,
769,-8.077,-15.53,-16.09,-10.87,-16.01,-1.999,-21.1,-5.364,0.6118,10.77,1.852,15.96,-2.893,16.68,4.137,15.07,0,0,0,0,0,0,0,0,0,0,0,0,0,0,0,0,
770,-12.74,-9.461,-17.64,-17.37,-18.11,-10.09,-22.47,-5.941,1.404,9.599,3.307,18.01,0.9168,16.97,2.715,17.81,0,0,0,0,0,0,0,0,0,0,0,0,0,0,0,0,
771,-19.95,-12.24,-15.16,-19.6,-15.39,-9.958,-16.52,-2.58,5.524,9.931,18.23,19.3,8.448,17.62,11.91,17.72,0,0,0,0,0,0,0,0,0,0,0,0,0,0,0,0,
772,-15.67,-19.19,-6.038,-17.0,-6.457,-9.529,-16.71,-7.687,8.261,7.816,16.9,12.74,8.597,11.94,9.08,10.79,0,0,0,0,0,0,0,0,0,0,0,0,0,0,0,0,
773,-9.821,-19.08,-0.5139,-12.45,-1.549,-12.77,-8.411,-8.624,6.837,3.627,5.616,10.42,8.046,10.49,5.66,11.57,0,0,0,0,0,0,0,0,0,0,0,0,0,0,0,0,
774,-12.64,-12.14,0.6371,-7.2,-0.0208,-10.98,4.079,-6.543,9.295,9.11,10.63,14.74,12.13,14.5,15.19,21.9,0,0,0,0,0,0,0,0,0,0,0,0,0,0,0,0,
775,-11.13,-13.79,-2.001,-12.04,-1.888,-9.978,-3.79,-3.477,10.07,13.71,10.69,12.5,9.121,10.66,14.95,26.23,0,0,0,0,0,0,0,0,0,0,0,0,0,0,0,0,
776,-3.3,-18.51,-11.14,-20.45,-10.76,-14.68,-20.45,-0.6659,2.854,5.727,-2.477,6.784,0.7741,6.795,5.375,25.02,0,0,0,0,0,0,0,0,0,0,0,0,0,0,0,0,
777,-4.364,-10.99,-18.02,-16.07,-17.99,-14.79,-21.52,-9.108,-3.455,0.7113,-3.126,5.021,-1.875,8.899,0.5713,21.76,0,0,0,0,0,0,0,0,0,0,0,0,0,0,0,0,
778,-8.691,-12.3,-18.43,-10.94,-19.03,-12.67,-14.94,-8.258,-4.506,2.095,1.571,3.255,-1.047,8.101,-3.846,15.95,0,0,0,0,0,0,0,0,0,0,0,0,0,0,0,0,
779,-9.058,-27.99,-21.63,-18.73,-22.43,-19.84,-21.37,7.921,-4.55,-2.537,-0.8173,3.846,0.4025,7.787,-0.6978,16.99,0,0,0,0,0,0,0,0,0,0,0,0,0,0,0,0,
780,-17.4,-26.64,-26.69,-24.77,-27.65,-28.92,-29.44,1.061,-6.251,-7.452,1.764,7.322,0.9863,7.299,6.201,19.73,0,0,0,0,0,0,0,0,0,0,0,0,0,0,0,0,
781,-26.17,-23.57,-27.63,-20.52,-28.94,-29.89,-23.65,-18.57,-10.44,-7.56,4.001,3.08,-3.642,0.1253,-1.433,11.89,0,0,0,0,0,0,0,0,0,0,0,0,0,0,0,0,
782,-19.9,-37.75,-24.2,-13.73,-24.58,-24.63,-17.69,-11.49,-12.17,-7.971,4.052,-5.66,-4.63,-1.993,-5.683,7.033,0,0,0,0,0,0,0,0,0,0,0,0,0,0,0,0,
783,-14.46,-30.44,-14.53,-8.411,-13.64,-17.47,-10.61,1.711,-4.897,-5.725,13.61,-7.728,3.128,2.304,2.577,9.895,0,0,0,0,0,0,0,0,0,0,0,0,0,0,0,0,
784,-20.31,-8.653,-10.1,-8.74,-10.34,-19.4,-2.038,-5.771,1.302,-5.438,16.18,-6.461,3.466,-0.7979,-0.7308,7.667,0,0,0,0,0,0,0,0,0,0,0,0,0,0,0,0,
785,-21.32,-12.44,-22.07,-11.97,-23.55,-31.6,-10.71,-11.41,-6.152,-14.54,5.603,-4.527,-4.405,-4.326,-7.741,8.754,0,0,0,0,0,0,0,0,0,0,0,0,0,0,0,0,
786,-15.76,-18.32,-30.33,-11.89,-30.1,-34.63,-16.93,-2.306,-13.03,-19.98,2.584,-1.599,-5.295,-3.239,-5.083,13.9,0,0,0,0,0,0,0,0,0,0,0,0,0,0,0,0,
787,-14.16,-15.97,-23.02,-16.51,-21.81,-28.34,-10.48,-1.072,-7.25,-17.1,1.482,-4.537,-4.313,-9.653,-6.033,7.495,0,0,0,0,0,0,0,0,0,0,0,0,0,0,0,0,
788,-12.97,-27.24,-16.87,-24.17,-17.59,-30.03,-18.87,-11.59,-4.779,-19.82,-1.99,-9.569,-6.843,-17.35,-4.377,1.494,0,0,0,0,0,0,0,0,0,0,0,0,0,0,0,0,
789,-10.56,-35.24,-15.3,-23.09,-16.91,-34.02,-22.59,-11.86,-9.341,-25.24,4.802,-6.482,-5.066,-15.08,3.039,4.813,0,0,0,0,0,0,0,0,0,0,0,0,0,0,0,0,
790,-11.0,-33.89,-13.97,-22.18,-14.89,-30.56,-7.472,0.3411,-8.914,-23.08,4.232,-0.8041,-2.747,-12.84,-0.0885,2.208,0,0,0,0,0,0,0,0,0,0,0,0,0,0,0,0,
791,-9.972,-33.49,-15.36,-26.26,-15.9,-26.25,-6.942,11.72,-7.364,-18.69,-10.39,-0.1822,-3.113,-14.37,-4.324,-1.412,0,0,0,0,0,0,0,0,0,0,0,0,0,0,0,0,
792,-5.41,-18.47,-9.556,-20.57,-9.325,-21.08,-10.9,16.48,-3.575,-14.37,-5.983,-1.561,1.701,-10.93,2.497,4.723,0,0,0,0,0,0,0,0,0,0,0,0,0,0,0,0,
793,-1.188,-0.3935,3.425,-8.294,3.671,-13.39,-1.905,13.21,7.766,-7.813,17.71,-2.195,9.303,-6.692,12.59,10.3,0,0,0,0,0,0,0,0,0,0,0,0,0,0,0,0,
794,0.356,-4.44,3.298,-8.497,2.663,-13.53,-0.575,9.182,10.97,-7.779,27.13,-1.109,12.76,-7.332,23.1,12.29,0,0,0,0,0,0,0,0,0,0,0,0,0,0,0,0,
795,-0.7094,-13.06,-5.253,-17.14,-4.951,-19.8,0.215,10.43,4.385,-13.92,18.97,3.667,12.6,-4.316,26.05,16.06,0,0,0,0,0,0,0,0,0,0,0,0,0,0,0,0,
796,0.0599,-12.66,-3.033,-17.67,-1.797,-20.68,6.405,10.88,5.378,-12.19,13.03,8.942,8.289,1.592,18.0,17.14,0,0,0,0,0,0,0,0,0,0,0,0,0,0,0,0,
797,-0.1774,-18.26,-0.6673,-15.1,-0.2836,-20.81,-2.406,8.414,7.425,-8.075,15.62,10.44,3.435,-1.036,16.01,13.8,0,0,0,0,0,0,0,0,0,0,0,0,0,0,0,0,
798,-7.995,-31.44,-7.662,-16.21,-7.351,-21.03,-11.84,3.721,1.967,-11.7,16.19,11.49,3.877,-5.639,17.31,11.17,0,0,0,0,0,0,0,0,0,0,0,0,0,0,0,0,
799,-12.07,-31.73,-8.509,-11.27,-8.225,-13.72,-2.545,0.9687,-0.1996,-10.66,7.671,13.45,2.343,-3.737,6.968,8.225,0,0,0,0,0,0,0,0,0,0,0,0,0,0,0,0,
800,-5.799,-11.96,-3.596,-3.792,-4.31,-10.2,2.721,8.24,-0.2976,-4.947,1.329,11.45,-4.354,-4.581,-1.709,2.975,0,0,0,0,0,0,0,0,0,0,0,0,0,0,0,0,
801,-1.417,1.401,-6.281,-5.948,-6.715,-15.18,-10.43,11.85,-5.385,-8.843,-0.0518,7.308,-6.167,-8.723,-1.032,0.8753,0,0,0,0,0,0,0,0,0,0,0,0,0,0,0,0,
802,-0.7846,-7.479,-11.71,-13.26,-11.82,-17.02,-19.01,1.354,-10.96,-15.93,-9.034,5.678,-5.767,-8.969,-2.946,3.764,0,0,0,0,0,0,0,0,0,0,0,0,0,0,0,0,
803,-2.006,-15.02,-15.37,-18.3,-16.48,-21.85,-9.928,-4.121,-16.36,-20.73,-13.86,4.695,-8.833,-8.978,-2.371,6.602,0,0,0,0,0,0,0,0,0,0,0,0,0,0,0,0,
804,-11.56,-12.33,-19.25,-19.48,-20.4,-31.75,-5.569,-1.024,-20.46,-26.93,-2.097,3.867,-6.754,-8.072,4.761,9.134,0,0,0,0,0,0,0,0,0,0,0,0,0,0,0,0,
805,-21.63,-17.39,-18.96,-18.3,-19.26,-33.3,-14.15,1.761,-17.84,-26.98,4.546,6.238,-1.274,-2.168,6.691,14.22,0,0,0,0,0,0,0,0,0,0,0,0,0,0,0,0,
806,-19.59,-27.24,-16.85,-17.52,-16.78,-29.89,-14.51,5.737,-14.05,-21.91,-0.2018,10.16,-1.116,1.83,5.482,17.15,0,0,0,0,0,0,0,0,0,0,0,0,0,0,0,0,
807,-15.72,-30.99,-19.84,-17.73,-20.12,-28.62,-10.53,-2.431,-16.28,-21.28,-3.633,7.428,-3.63,-2.168,3.037,8.813,0,0,0,0,0,0,0,0,0,0,0,0,0,0,0,0,
808,-26.13,-31.99,-26.59,-23.68,-27.76,-30.23,-17.3,-15.22,-21.6,-24.11,-10.48,-2.759,-8.745,-8.614,-6.306,-5.094,0,0,0,0,0,0,0,0,0,0,0,0,0,0,0,0,
809,-43.59,-25.72,-32.2,-29.38,-33.2,-37.33,-21.92,-2.666,-25.72,-29.61,-11.58,-7.535,-13.6,-9.173,-8.752,-6.422,0,0,0,0,0,0,0,0,0,0,0,0,0,0,0,0,
810,-51.0,-15.06,-32.72,-20.63,-32.87,-39.55,-18.33,7.453,-26.4,-32.08,3.375,-4.515,-9.521,-6.139,-1.098,1.863,0,0,0,0,0,0,0,0,0,0,0,0,0,0,0,0,
811,-47.05,-15.63,-28.79,-12.79,-29.23,-31.98,-15.53,-9.881,-22.96,-23.64,9.934,-2.358,-3.868,-4.214,-2.383,4.555,0,0,0,0,0,0,0,0,0,0,0,0,0,0,0,0,
812,-38.23,-16.68,-21.74,-18.2,-22.18,-25.98,-14.56,-10.22,-18.4,-14.27,2.064,2.763,-5.301,1.492,-5.382,6.772,0,0,0,0,0,0,0,0,0,0,0,0,0,0,0,0,
813,-28.58,-9.235,-11.94,-13.57,-11.91,-18.05,-14.4,12.27,-15.17,-9.743,-0.1529,11.73,-5.988,6.863,2.73,10.79,0,0,0,0,0,0,0,0,0,0,0,0,0,0,0,0,
814,-23.95,-8.812,-7.277,0.735,-7.683,-7.352,-11.43,15.32,-11.98,-3.944,0.3864,14.77,-1.275,1.223,6.219,7.142,0,0,0,0,0,0,0,0,0,0,0,0,0,0,0,0,
815,-26.13,-7.562,-9.399,-0.1736,-9.858,-9.425,-6.457,6.652,-9.008,-2.901,-1.128,13.65,4.235,-5.094,3.297,4.93,0,0,0,0,0,0,0,0,0,0,0,0,0,0,0,0,
816,-27.66,-0.317,-9.567,-8.192,-9.683,-15.35,-6.382,8.118,-6.499,-7.234,4.503,14.21,7.675,-0.1945,9.749,12.53,0,0,0,0,0,0,0,0,0,0,0,0,0,0,0,0,
817,-22.99,-7.856,-9.231,-11.53,-9.177,-11.5,-6.634,10.17,-1.222,-6.601,13.64,13.8,8.747,4.046,17.55,14.99,0,0,0,0,0,0,0,0,0,0,0,0,0,0,0,0,
818,-19.97,-17.05,-10.84,-19.23,-9.974,-14.39,-3.782,7.767,1.022,-7.189,14.55,9.917,5.988,-3.152,12.3,5.875,0,0,0,0,0,0,0,0,0,0,0,0,0,0,0,0,
819,-23.73,-8.023,-7.156,-17.58,-6.481,-21.73,-0.9298,5.698,-5.807,-12.14,6.255,6.256,-0.3601,-11.45,3.777,-0.9928,0,0,0,0,0,0,0,0,0,0,0,0,0,0,0,0,
820,-23.11,3.364,2.021,2.974,1.402,-11.6,1.52,7.175,-6.47,-8.757,1.863,9.116,-1.515,-9.637,7.453,1.698,0,0,0,0,0,0,0,0,0,0,0,0,0,0,0,0,
821,-18.33,7.751,8.211,8.335,7.55,-0.7108,-1.112,11.49,3.995,-2.458,9.345,13.18,6.13,-5.027,17.69,6.883,0,0,0,0,0,0,0,0,0,0,0,0,0,0,0,0,
822,-20.2,0.7429,5.134,-7.288,4.608,-7.026,-9.437,13.1,5.356,-5.196,8.182,9.886,7.155,-7.414,15.59,8.361,0,0,0,0,0,0,0,0,0,0,0,0,0,0,0,0,
823,-22.58,-14.23,-3.661,-11.56,-4.239,-12.91,-19.52,9.732,-3.377,-9.319,-11.27,8.768,-2.82,-9.641,3.899,8.978,0,0,0,0,0,0,0,0,0,0,0,0,0,0,0,0,
824,-22.24,-11.8,-5.007,-10.88,-4.596,-13.26,-21.63,1.76,-5.478,-10.35,-13.85,13.93,-3.284,-3.91,4.829,12.9,0,0,0,0,0,0,0,0,0,0,0,0,0,0,0,0,
825,-21.88,-2.424,1.861,-15.16,2.283,-13.91,-2.938,-0.1749,-0.0914,-11.42,8.781,11.84,6.534,0.9292,13.14,15.51,0,0,0,0,0,0,0,0,0,0,0,0,0,0,0,0,
826,-16.33,-11.24,0.9356,-8.953,0.371,-10.03,8.843,11.88,2.478,-10.22,14.71,4.72,4.925,-1.481,9.304,11.05,0,0,0,0,0,0,0,0,0,0,0,0,0,0,0,0,
827,-15.3,-17.07,-8.835,-7.499,-9.32,-10.46,-11.65,11.39,-4.604,-8.085,2.375,4.087,-4.093,-2.635,4.239,3.993,0,0,0,0,0,0,0,0,0,0,0,0,0,0,0,0,
828,-26.92,-10.99,-14.62,-19.34,-15.38,-21.83,-24.82,-11.81,-14.99,-9.332,1.226,2.999,-5.419,-2.206,5.331,-2.105,0,0,0,0,0,0,0,0,0,0,0,0,0,0,0,0,
829,-36.27,-13.76,-20.23,-20.43,-21.45,-32.9,-17.24,-18.93,-19.71,-16.13,0.4102,-3.752,-6.738,-8.25,-0.389,-8.03,0,0,0,0,0,0,0,0,0,0,0,0,0,0,0,0,
830,-37.38,-19.32,-30.5,-16.69,-30.45,-38.65,-20.33,-5.277,-24.11,-25.49,-5.527,-5.442,-11.13,-12.02,-2.225,-6.045,0,0,0,0,0,0,0,0,0,0,0,0,0,0,0,0,
831,-36.85,-14.37,-31.59,-15.91,-30.73,-34.66,-22.14,-1.383,-27.37,-25.61,2.646,1.553,-7.888,-3.913,12.98,6.973,0,0,0,0,0,0,0,0,0,0,0,0,0,0,0,0,
832,-37.67,-11.05,-22.99,-3.675,-22.93,-21.14,-12.24,2.748,-20.45,-15.56,14.34,8.535,-0.3322,5.883,25.83,17.63,0,0,0,0,0,0,0,0,0,0,0,0,0,0,0,0,
833,-38.87,-23.22,-22.16,1.432,-22.3,-17.44,-11.01,13.21,-13.63,-10.37,11.36,9.742,-1.105,6.058,19.61,15.29,0,0,0,0,0,0,0,0,0,0,0,0,0,0,0,0,
834,-34.75,-33.63,-27.19,-12.56,-27.13,-26.23,-11.73,5.9,-19.0,-15.2,0.2182,6.162,-9.457,-2.488,4.142,5.704,0,0,0,0,0,0,0,0,0,0,0,0,0,0,0,0,
835,-27.57,-15.94,-23.7,-14.24,-23.84,-25.46,-7.227,-0.2301,-24.67,-19.92,-6.482,2.721,-11.05,-8.684,-3.266,1.528,0,0,0,0,0,0,0,0,0,0,0,0,0,0,0,0,
836,-22.94,2.382,-14.97,-3.753,-14.78,-13.66,-10.17,12.47,-18.62,-16.42,-3.498,-0.1554,-5.737,-7.924,-5.61,-0.7225,0,0,0,0,0,0,0,0,0,0,0,0,0,0,0,0,
837,-18.26,-10.59,-11.89,-5.062,-11.28,-7.854,-19.3,3.279,-12.08,-10.4,-2.417,-7.024,-11.1,-11.48,-15.34,-12.28,0,0,0,0,0,0,0,0,0,0,0,0,0,0,0,0,
838,-16.05,-13.37,-12.02,-5.29,-11.5,-7.888,-25.39,-21.74,-15.3,-9.155,-8.267,-9.897,-20.92,-16.57,-18.22,-19.1,0,0,0,0,0,0,0,0,0,0,0,0,0,0,0,0,
839,-16.2,9.421,-10.44,-0.0912,-10.12,-6.182,-21.93,-13.64,-17.79,-8.464,-7.744,-0.1453,-18.96,-12.69,-9.479,-12.55,0,0,0,0,0,0,0,0,0,0,0,0,0,0,0,0,
840,-15.64,5.462,-13.89,-4.15,-14.16,-6.539,-13.89,3.886,-16.51,-8.943,-9.627,8.31,-18.65,-10.91,-15.01,-11.69,0,0,0,0,0,0,0,0,0,0,0,0,0,0,0,0,
841,-21.78,-15.38,-20.92,-1.652,-21.67,-8.135,-13.93,1.658,-19.9,-13.29,-19.15,6.193,-23.46,-10.91,-23.28,-10.89,0,0,0,0,0,0,0,0,0,0,0,0,0,0,0,0,
842,-27.6,-8.652,-18.23,10.27,-18.51,-4.67,-17.63,1.783,-21.21,-12.57,-12.03,4.024,-17.31,-1.28,-8.254,4.832,0,0,0,0,0,0,0,0,0,0,0,0,0,0,0,0,
843,-20.28,1.181,-10.92,8.395,-10.58,-1.726,-21.46,2.809,-16.46,-8.382,3.207,4.563,-9.986,3.734,4.636,13.82,0,0,0,0,0,0,0,0,0,0,0,0,0,0,0,0,
844,-13.53,-3.592,-11.02,4.376,-10.41,-3.935,-24.43,1.225,-14.77,-9.354,4.254,5.292,-10.7,-0.5765,0.4559,8.054,0,0,0,0,0,0,0,0,0,0,0,0,0,0,0,0,
845,-14.11,-1.771,-11.04,7.898,-10.57,-4.041,-12.88,7.168,-13.21,-9.196,7.886,10.35,-5.554,2.291,2.885,8.297,0,0,0,0,0,0,0,0,0,0,0,0,0,0,0,0,
846,-9.459,-0.2125,-4.703,1.974,-5.157,1.605,-4.23,5.674,-6.617,-3.907,15.75,16.31,3.358,8.849,10.96,14.18,0,0,0,0,0,0,0,0,0,0,0,0,0,0,0,0,
847,-5.353,-1.379,0.3729,-1.855,-0.2148,6.972,-24.34,3.46,-2.807,1.401,10.41,15.42,2.249,9.416,6.415,13.6,0,0,0,0,0,0,0,0,0,0,0,0,0,0,0,0,
848,-10.92,7.994,-1.339,3.734,-0.5566,4.349,-41.23,8.117,-5.901,2.156,4.024,8.815,-6.699,4.938,-8.628,5.144,0,0,0,0,0,0,0,0,0,0,0,0,0,0,0,0,
