%OpenBCI Raw EXG Data
%Number of channels = 16
%Sample Rate = 125 Hz
%Board = OpenBCI_GUI$BoardCytonSerialDaisy
Sample Index,EXG Channel 0,EXG Channel 1,EXG Channel 2,EXG Channel 3,EXG Channel 4,EXG Channel 5,EXG Channel 6,EXG Channel 7,EXG Channel 8,EXG Channel 9,EXG Channel 10,EXG Channel 11,EXG Channel 12,EXG Channel 13,EXG Channel 14,EXG Channel 15,Accel Channel 0,Accel Channel 1,Accel Channel 2,Other,Other.1,Other.2,Other.3,Other.4,Other.5,Other.6,Analog Channel 0,Analog Channel 1,Analog Channel 2,Timestamp,Other.7,Timestamp (Formatted),Annotations
1,-0.0,-0.0,0.0,-0.0,-0.0,-0.0,0.0,-0.0,-0.0,-0.0,-0.0,0.0,0.0,-0.0,-0.0,-0.0,0,0,0,0,0,0,0,0,0,0,0,0,0,0,0,0,T0
2,-38.2,-37.5,-31.88,-28.66,6.627,28.58,-26.15,-5.364,-29.4,3.304,-18.54,16.45,-8.922,-3.58,-33.74,-36.54,0,0,0,0,0,0,0,0,0,0,0,0,0,0,0,0,
3,-103.8,-80.35,-31.47,28.49,54.3,79.57,5.162,20.2,-7.913,15.04,20.36,45.15,30.89,36.13,-26.33,-18.49,0,0,0,0,0,0,0,0,0,0,0,0,0,0,0,0,
4,-66.65,-96.04,-0.3123,16.39,69.77,103.6,14.69,38.38,35.88,33.81,39.79,31.35,53.07,42.79,5.216,19.36,0,0,0,0,0,0,0,0,0,0,0,0,0,0,0,0,
5,15.0,-87.56,6.362,-15.46,45.67,80.99,3.907,35.63,35.81,25.33,13.64,0.133,27.22,9.969,14.64,25.14,0,0,0,0,0,0,0,0,0,0,0,0,0,0,0,0,
6,5.96,-68.75,-30.87,36.85,47.22,-3.293,35.28,49.74,13.17,5.752,8.998,28.4,17.36,18.64,4.074,19.16,0,0,0,0,0,0,0,0,0,0,0,0,0,0,0,0,
7,-37.74,-16.6,-43.25,48.51,45.25,-47.79,33.58,49.26,15.48,13.69,12.86,60.66,22.5,38.0,0.3626,29.34,0,0,0,0,0,0,0,0,0,0,0,0,0,0,0,0,
8,-78.67,-24.8,-17.07,-1.552,12.34,57.66,-15.84,13.6,3.922,15.95,-6.443,25.57,0.7816,10.66,-6.523,27.43,0,0,0,0,0,0,0,0,0,0,0,0,0,0,0,0,
9,-97.54,-141.2,-12.3,-41.49,13.77,115.7,-0.8233,20.86,-23.43,7.803,-1.095,0.2989,-4.803,-2.173,-18.2,6.388,0,0,0,0,0,0,0,0,0,0,0,0,0,0,0,0,
10,-39.52,-146.3,-10.94,-57.95,51.48,27.88,26.11,43.08,-4.839,24.85,16.33,22.34,16.56,18.57,-14.98,1.135,0,0,0,0,0,0,0,0,0,0,0,0,0,0,0,0,
11,6.326,-23.78,-0.1966,-1.204,47.46,-12.85,-21.75,-3.503,18.69,27.09,-14.96,6.337,-4.029,-0.8572,-18.85,-2.512,0,0,0,0,0,0,0,0,0,0,0,0,0,0,0,0,
12,-26.8,-28.23,-39.64,56.1,7.171,-5.051,-36.37,-23.02,-12.93,-7.432,-42.19,-24.26,-39.43,-33.74,-47.29,-32.94,0,0,0,0,0,0,0,0,0,0,0,0,0,0,0,0,
13,-63.03,-94.61,-80.21,10.19,5.385,14.83,19.26,39.49,-33.17,-12.2,-7.703,15.64,-16.63,-3.276,-55.76,-44.16,0,0,0,0,0,0,0,0,0,0,0,0,0,0,0,0,
14,-49.42,-19.53,-32.6,0.0789,38.28,97.59,39.93,63.96,-0.8481,18.52,29.4,47.66,16.56,34.6,-22.6,-5.592,0,0,0,0,0,0,0,0,0,0,0,0,0,0,0,0,
15,20.11,73.81,33.09,76.06,40.72,81.82,22.27,32.76,18.87,17.55,33.85,9.049,9.204,15.83,8.44,27.65,0,0,0,0,0,0,0,0,0,0,0,0,0,0,0,0,
16,41.64,14.72,31.46,60.27,15.67,-15.11,12.02,19.37,2.3,-7.957,27.78,-0.7212,-0.2667,-0.6111,5.855,24.04,0,0,0,0,0,0,0,0,0,0,0,0,0,0,0,0,
17,-58.82,-86.33,-0.4365,-31.69,14.12,24.16,-1.1,16.54,-8.661,-3.093,3.367,35.6,2.24,16.42,-17.43,12.21,0,0,0,0,0,0,0,0,0,0,0,0,0,0,0,0,
18,-105.5,-84.79,-19.25,-33.61,43.87,53.46,-3.099,18.23,4.109,22.38,-13.36,34.66,5.656,20.8,-36.84,2.747,0,0,0,0,0,0,0,0,0,0,0,0,0,0,0,0,
19,-42.66,-88.55,-33.26,17.47,74.08,-3.579,15.84,32.47,25.37,32.08,14.13,19.87,12.97,11.85,-40.15,-8.094,0,0,0,0,0,0,0,0,0,0,0,0,0,0,0,0,
20,-36.26,-129.9,-39.53,2.628,61.02,43.88,20.77,37.41,23.42,23.05,26.54,32.06,2.76,11.06,-36.54,-12.09,0,0,0,0,0,0,0,0,0,0,0,0,0,0,0,0,
21,-48.2,-13.76,-15.58,-13.77,9.001,56.21,10.5,35.1,-10.42,9.545,0.8681,33.96,-13.45,10.64,-37.56,-9.415,0,0,0,0,0,0,0,0,0,0,0,0,0,0,0,0,
22,14.41,150.6,10.63,52.14,-1.951,-25.63,9.216,30.88,-25.35,10.94,6.435,28.33,4.776,17.87,-34.31,0.6921,0,0,0,0,0,0,0,0,0,0,0,0,0,0,0,0,
23,17.03,74.86,-5.419,60.29,37.5,66.91,15.54,31.23,1.077,24.88,31.88,36.93,23.29,29.6,-17.53,19.03,0,0,0,0,0,0,0,0,0,0,0,0,0,0,0,0,
24,-84.9,-103.7,-12.88,-47.75,43.59,161.7,22.35,45.74,13.29,27.56,27.35,31.18,14.56,22.71,0.8719,27.79,0,0,0,0,0,0,0,0,0,0,0,0,0,0,0,0,
25,-94.48,-110.6,21.12,-41.67,18.88,23.65,9.484,26.38,-3.955,19.51,15.76,10.45,14.47,9.443,1.838,19.18,0,0,0,0,0,0,0,0,0,0,0,0,0,0,0,0,
26,9.948,10.73,0.636,64.63,26.43,-46.18,-22.77,-17.21,-4.723,6.036,3.302,2.671,13.69,3.894,-19.62,6.604,0,0,0,0,0,0,0,0,0,0,0,0,0,0,0,0,
27,-5.2,62.36,-72.82,3.626,53.88,17.25,-8.745,12.66,12.9,-5.829,-5.941,10.23,4.089,4.919,-39.82,2.052,0,0,0,0,0,0,0,0,0,0,0,0,0,0,0,0,
28,-98.18,-3.481,-52.1,-81.18,62.33,1.537,49.71,74.91,24.54,9.011,21.56,33.2,22.03,22.91,-26.81,15.82,0,0,0,0,0,0,0,0,0,0,0,0,0,0,0,0,
29,-38.62,-26.61,40.91,31.44,39.71,36.77,50.47,58.52,24.63,23.82,42.12,52.41,36.98,35.55,8.119,41.79,0,0,0,0,0,0,0,0,0,0,0,0,0,0,0,0,
30,50.98,54.71,53.45,104.6,1.868,120.8,1.099,11.49,7.318,5.796,17.01,42.52,19.61,22.01,25.54,50.98,0,0,0,0,0,0,0,0,0,0,0,0,0,0,0,0,
31,14.94,72.6,15.68,34.64,12.27,57.07,4.386,18.66,-0.93,9.123,6.331,34.95,19.88,20.3,19.03,35.63,0,0,0,0,0,0,0,0,0,0,0,0,0,0,0,0,
32,-10.04,-14.23,21.11,31.99,71.81,15.7,47.64,55.37,27.33,44.61,23.43,51.05,37.27,37.38,7.216,20.58,0,0,0,0,0,0,0,0,0,0,0,0,0,0,0,0,
33,26.83,-29.61,18.83,57.51,70.12,83.89,48.29,57.42,42.56,45.95,23.69,51.45,31.15,34.89,0.8918,21.88,0,0,0,0,0,0,0,0,0,0,0,0,0,0,0,0,
34,21.24,54.29,-19.27,-12.58,8.312,47.59,8.574,15.59,12.39,25.19,9.503,22.01,13.75,13.17,-1.235,25.01,0,0,0,0,0,0,0,0,0,0,0,0,0,0,0,0,
35,-60.51,55.18,-40.02,-69.94,10.08,-30.01,-11.86,-2.648,-11.42,23.01,-7.13,-1.246,-1.049,-5.319,-12.7,8.017,0,0,0,0,0,0,0,0,0,0,0,0,0,0,0,0,
36,-123.1,-28.22,-32.22,-25.71,50.47,10.17,5.574,28.37,-5.34,18.54,-19.46,6.136,-6.675,-7.91,-30.55,-18.7,0,0,0,0,0,0,0,0,0,0,0,0,0,0,0,0,
37,-62.86,-31.28,3.931,70.98,33.49,67.66,24.09,43.1,2.154,6.375,-20.0,19.29,3.079,-2.082,-32.48,-27.22,0,0,0,0,0,0,0,0,0,0,0,0,0,0,0,0,
38,26.5,-19.36,43.68,96.85,6.729,77.93,21.7,32.31,5.133,-0.0565,-19.68,2.528,7.265,-9.825,-26.73,-21.89,0,0,0,0,0,0,0,0,0,0,0,0,0,0,0,0,
39,39.45,-52.5,23.5,-2.042,17.24,65.63,16.32,36.29,11.42,-0.9668,-11.89,-14.85,6.479,-15.32,-32.58,-20.08,0,0,0,0,0,0,0,0,0,0,0,0,0,0,0,0,
40,21.41,29.72,-26.25,-47.35,27.16,24.13,12.62,34.38,14.44,6.987,-2.25,10.04,13.88,1.839,-37.12,-13.36,0,0,0,0,0,0,0,0,0,0,0,0,0,0,0,0,
41,-16.24,141.7,-28.8,42.82,30.86,8.224,6.172,18.24,9.472,15.32,-10.34,39.65,19.66,17.93,-27.97,7.452,0,0,0,0,0,0,0,0,0,0,0,0,0,0,0,0,
42,-27.87,67.03,-4.241,60.64,34.7,24.19,8.405,23.1,6.0,25.78,-0.871,33.5,30.03,22.55,-11.93,26.71,0,0,0,0,0,0,0,0,0,0,0,0,0,0,0,0,
43,-6.598,-53.9,-1.478,-14.48,41.28,7.918,15.49,41.1,13.42,44.05,27.07,20.7,41.25,24.25,-1.126,23.43,0,0,0,0,0,0,0,0,0,0,0,0,0,0,0,0,
44,-58.02,-33.97,-9.262,8.634,61.53,23.23,20.83,43.58,22.49,38.76,23.95,21.34,35.63,19.52,-6.513,0.9903,0,0,0,0,0,0,0,0,0,0,0,0,0,0,0,0,
45,-50.46,42.93,3.722,80.82,50.01,90.74,27.11,36.07,17.1,16.65,11.02,23.23,27.11,14.74,-21.3,-17.43,0,0,0,0,0,0,0,0,0,0,0,0,0,0,0,0,
46,72.41,43.59,21.63,66.23,2.285,87.16,20.91,35.68,-1.516,21.8,8.299,39.28,18.48,20.2,-31.95,-20.61,0,0,0,0,0,0,0,0,0,0,0,0,0,0,0,0,
47,39.53,-15.77,4.648,20.86,9.163,48.65,13.21,44.46,-11.07,38.51,1.069,65.16,9.696,31.23,-34.94,-9.117,0,0,0,0,0,0,0,0,0,0,0,0,0,0,0,0,
48,-61.21,-19.24,-26.05,17.3,53.68,68.73,24.54,45.74,0.8325,40.27,10.62,46.87,17.53,26.07,-26.57,8.678,0,0,0,0,0,0,0,0,0,0,0,0,0,0,0,0,
49,15.7,24.55,-24.58,45.85,46.53,63.79,21.96,33.85,9.789,31.39,18.59,-3.325,18.86,-1.278,-16.21,5.632,0,0,0,0,0,0,0,0,0,0,0,0,0,0,0,0,
50,58.71,9.706,-5.684,52.67,28.43,26.82,0.7235,29.49,2.805,18.62,-3.338,-12.37,1.702,-13.12,-22.59,-26.73,0,0,0,0,0,0,0,0,0,0,0,0,0,0,0,0,
51,-42.39,-22.43,-12.12,-1.531,35.95,30.53,-5.388,25.06,-1.975,18.96,-22.32,-3.805,-9.45,-8.705,-43.51,-62.63,0,0,0,0,0,0,0,0,0,0,0,0,0,0,0,0,
52,-79.18,2.447,-45.05,-25.06,20.18,16.18,-14.29,4.898,-8.789,17.31,-34.19,-22.95,-18.02,-20.73,-64.32,-85.27,0,0,0,0,0,0,0,0,0,0,0,0,0,0,0,0,
53,-32.36,41.83,-53.23,38.45,10.65,-5.341,-20.21,8.051,-14.7,-6.333,-31.42,-19.09,-13.35,-17.03,-65.9,-83.87,0,0,0,0,0,0,0,0,0,0,0,0,0,0,0,0,
54,-1.647,52.61,-13.49,75.79,35.53,46.3,9.179,39.36,0.4518,-11.07,6.936,16.65,16.3,13.91,-36.93,-51.96,0,0,0,0,0,0,0,0,0,0,0,0,0,0,0,0,
55,22.24,5.791,23.69,64.86,37.1,98.87,32.45,47.84,10.53,10.73,31.45,38.48,39.09,31.09,0.4606,-11.12,0,0,0,0,0,0,0,0,0,0,0,0,0,0,0,0,
56,46.41,-69.5,24.96,65.13,42.73,106.1,33.51,50.04,16.95,32.64,39.55,63.6,60.92,52.75,25.44,26.52,0,0,0,0,0,0,0,0,0,0,0,0,0,0,0,0,
57,14.13,-39.2,0.7013,35.65,92.0,100.6,43.56,71.27,58.86,66.33,66.45,88.12,83.77,77.72,38.58,61.54,0,0,0,0,0,0,0,0,0,0,0,0,0,0,0,0,
58,-55.48,73.59,-23.32,-4.185,86.54,40.03,30.26,62.57,72.78,80.04,48.87,65.52,56.13,53.18,24.63,62.71,0,0,0,0,0,0,0,0,0,0,0,0,0,0,0,0,
59,-28.75,79.93,-10.29,6.205,8.072,-19.0,-10.5,21.14,7.71,46.33,-10.75,22.37,8.834,13.99,-18.62,16.33,0,0,0,0,0,0,0,0,0,0,0,0,0,0,0,0,
60,41.21,12.72,-0.3036,33.19,-4.388,32.61,-11.35,8.613,-28.71,30.26,-6.61,15.11,16.52,19.96,-45.69,-26.47,0,0,0,0,0,0,0,0,0,0,0,0,0,0,0,0,
61,-10.09,-0.7377,-40.7,67.93,61.88,89.13,20.95,30.63,15.16,47.85,37.41,32.09,42.47,39.08,-31.19,-23.98,0,0,0,0,0,0,0,0,0,0,0,0,0,0,0,0,
62,-47.8,-48.91,-45.59,74.82,69.21,77.31,25.07,47.06,37.81,45.21,30.47,29.15,27.14,29.97,-10.09,-5.653,0,0,0,0,0,0,0,0,0,0,0,0,0,0,0,0,
63,28.4,-94.88,7.086,8.214,9.301,84.99,10.91,52.43,6.87,28.28,-0.6873,18.73,2.371,14.77,-13.18,-11.9,0,0,0,0,0,0,0,0,0,0,0,0,0,0,0,0,
64,36.85,46.41,19.04,-5.52,-2.452,62.36,12.49,55.27,-6.718,28.76,3.794,38.7,11.95,24.21,-22.24,-24.93,0,0,0,0,0,0,0,0,0,0,0,0,0,0,0,0,
65,-3.3,185.0,1.039,67.02,33.04,-21.47,7.214,34.61,10.51,36.79,26.53,45.36,30.34,27.97,-14.21,-20.58,0,0,0,0,0,0,0,0,0,0,0,0,0,0,0,0,
66,19.34,84.74,-18.41,60.6,45.43,-12.22,-11.75,4.508,19.36,25.34,26.08,2.248,21.63,-3.468,-4.908,-21.63,0,0,0,0,0,0,0,0,0,0,0,0,0,0,0,0,
67,-9.187,-39.6,-60.17,1.226,51.15,64.74,-4.467,17.68,15.92,3.299,17.17,-14.88,14.78,-12.9,-13.15,-34.14,0,0,0,0,0,0,0,0,0,0,0,0,0,0,0,0,
68,-74.07,-58.75,-48.98,14.13,64.55,62.62,16.68,42.84,22.3,19.48,31.31,20.64,38.28,25.82,-19.89,-29.56,0,0,0,0,0,0,0,0,0,0,0,0,0,0,0,0,
69,-50.66,-122.3,4.439,35.82,58.42,54.32,15.43,30.13,38.16,54.74,37.26,33.73,51.99,40.69,-5.782,-13.24,0,0,0,0,0,0,0,0,0,0,0,0,0,0,0,0,
70,-12.41,-126.4,-18.26,37.13,42.39,88.89,12.97,27.32,33.41,36.49,13.68,22.96,35.96,23.8,12.71,-7.129,0,0,0,0,0,0,0,0,0,0,0,0,0,0,0,0,
71,-7.912,54.13,-46.54,58.17,27.42,51.41,16.61,47.91,6.645,4.54,11.58,35.06,29.84,32.38,16.74,-1.537,0,0,0,0,0,0,0,0,0,0,0,0,0,0,0,0,
72,14.3,137.6,-13.0,13.33,8.998,-15.64,7.83,41.23,-2.597,23.95,33.34,37.31,33.32,39.67,6.351,6.54,0,0,0,0,0,0,0,0,0,0,0,0,0,0,0,0,
73,16.64,-16.81,-22.14,-64.83,-3.221,14.31,-0.8792,22.77,0.6794,31.91,26.0,13.37,18.46,15.99,-12.05,0.8328,0,0,0,0,0,0,0,0,0,0,0,0,0,0,0,0,
74,-13.95,-98.97,-40.48,-1.822,-0.1116,51.14,-3.748,24.7,-5.465,3.741,14.84,23.6,16.14,17.32,-20.29,-4.394,0,0,0,0,0,0,0,0,0,0,0,0,0,0,0,0,
75,-20.79,3.774,6.367,93.69,20.96,2.536,-0.1773,35.42,9.248,11.73,36.14,62.77,41.55,47.52,-6.121,15.71,0,0,0,0,0,0,0,0,0,0,0,0,0,0,0,0,
76,-27.41,54.6,5.07,54.82,36.17,-13.55,23.19,48.9,30.81,35.82,51.52,68.01,46.8,48.43,12.3,42.17,0,0,0,0,0,0,0,0,0,0,0,0,0,0,0,0,
77,-38.86,36.07,-39.78,31.56,30.88,50.11,49.96,66.1,16.87,27.29,54.19,58.36,39.26,39.15,24.69,50.14,0,0,0,0,0,0,0,0,0,0,0,0,0,0,0,0,
78,16.44,56.19,1.593,65.71,43.4,87.1,53.55,77.84,16.83,33.32,63.26,60.72,57.8,49.69,37.74,45.3,0,0,0,0,0,0,0,0,0,0,0,0,0,0,0,0,
79,60.2,8.775,40.19,18.4,71.57,84.42,30.81,57.48,49.64,52.71,49.46,36.66,60.08,38.55,35.04,25.84,0,0,0,0,0,0,0,0,0,0,0,0,0,0,0,0,
80,-10.24,-81.5,-14.95,-12.43,69.85,85.44,2.554,10.0,46.06,34.58,23.83,-0.512,27.07,7.964,10.06,-7.083,0,0,0,0,0,0,0,0,0,0,0,0,0,0,0,0,
81,-43.27,-61.41,-24.04,37.97,42.72,74.9,-1.572,1.018,13.01,16.65,27.9,1.151,13.46,3.083,-7.179,-24.35,0,0,0,0,0,0,0,0,0,0,0,0,0,0,0,0,
82,12.62,-34.92,37.08,33.6,13.77,47.87,4.738,25.46,0.5793,21.2,27.55,21.59,14.38,5.881,-9.399,-21.04,0,0,0,0,0,0,0,0,0,0,0,0,0,0,0,0,
83,-13.73,-35.26,26.46,7.997,6.424,6.903,4.214,24.61,0.1746,5.964,10.59,25.84,10.74,3.622,-9.95,-12.92,0,0,0,0,0,0,0,0,0,0,0,0,0,0,0,0,
84,-42.48,53.01,-16.39,27.32,27.25,-32.39,21.54,32.24,10.06,-4.197,29.23,27.71,34.93,23.42,3.799,11.62,0,0,0,0,0,0,0,0,0,0,0,0,0,0,0,0,
85,29.63,77.0,-0.5061,8.007,31.1,-29.95,34.43,54.39,24.64,19.61,51.6,32.98,51.87,38.53,26.77,42.67,0,0,0,0,0,0,0,0,0,0,0,0,0,0,0,0,
86,22.76,-8.752,-1.508,-15.73,20.95,8.729,16.56,37.65,14.09,27.75,27.69,25.45,22.02,23.08,23.6,38.99,0,0,0,0,0,0,0,0,0,0,0,0,0,0,0,0,
87,-32.79,-15.73,-26.32,25.64,38.68,52.89,15.28,24.76,4.773,14.44,19.8,12.66,12.11,14.69,1.87,10.12,0,0,0,0,0,0,0,0,0,0,0,0,0,0,0,0,
88,12.65,-40.13,-8.438,41.09,40.66,62.65,18.38,29.78,21.97,13.6,40.98,6.255,27.92,10.53,-6.682,-7.63,0,0,0,0,0,0,0,0,0,0,0,0,0,0,0,0,
89,19.33,-90.13,-4.742,-1.573,0.3064,13.33,-11.0,2.805,16.98,3.75,22.76,2.059,3.979,-12.56,-9.778,-15.93,0,0,0,0,0,0,0,0,0,0,0,0,0,0,0,0,
90,-49.04,13.62,-26.89,-16.63,-21.5,-20.77,-12.55,0.1756,-16.58,-14.8,-6.109,9.422,-20.12,-16.21,-19.13,-18.85,0,0,0,0,0,0,0,0,0,0,0,0,0,0,0,0,
91,-69.03,13.1,-15.81,-5.642,-9.201,12.05,2.472,26.46,-21.64,-8.71,-6.207,21.63,-2.743,1.935,-26.99,-11.83,0,0,0,0,0,0,0,0,0,0,0,0,0,0,0,0,
92,-88.63,-163.6,-18.35,-7.234,16.49,49.4,-27.33,-2.911,2.992,5.457,-1.984,16.34,14.76,7.95,-29.52,-3.058,0,0,0,0,0,0,0,0,0,0,0,0,0,0,0,0,
93,-96.11,-79.41,-40.4,8.954,45.6,30.52,-23.06,-18.94,22.68,17.28,24.98,11.88,22.09,14.8,-21.45,5.918,0,0,0,0,0,0,0,0,0,0,0,0,0,0,0,0,
94,-16.72,111.8,-24.02,15.46,21.83,-51.97,28.11,28.69,16.57,23.08,43.97,10.28,11.85,7.588,-14.47,4.923,0,0,0,0,0,0,0,0,0,0,0,0,0,0,0,0,
95,24.69,-7.556,-20.88,-25.54,-39.14,-100.1,18.26,37.37,-22.92,-6.244,0.7386,-2.952,-16.79,-19.57,-29.11,-16.07,0,0,0,0,0,0,0,0,0,0,0,0,0,0,0,0,
96,-35.92,-123.6,-49.8,-20.38,-24.02,-17.91,-8.096,19.44,-38.9,-25.54,-21.95,10.74,-10.15,-6.21,-43.21,-21.42,0,0,0,0,0,0,0,0,0,0,0,0,0,0,0,0,
97,-70.37,-15.79,-38.01,40.4,18.56,76.16,9.156,32.5,-5.227,2.436,-0.397,37.02,6.489,20.14,-41.37,1.548,0,0,0,0,0,0,0,0,0,0,0,0,0,0,0,0,
98,-34.91,-19.68,1.795,30.62,-17.48,79.54,1.585,23.5,-3.99,8.024,-10.9,16.55,-13.34,0.0657,-47.51,7.775,0,0,0,0,0,0,0,0,0,0,0,0,0,0,0,0,
99,2.515,-115.0,18.0,-24.3,-35.93,63.72,-12.34,10.49,-24.82,-10.28,-12.38,-4.615,-6.351,-10.9,-49.85,-1.994,0,0,0,0,0,0,0,0,0,0,0,0,0,0,0,0,
100,-3.154,-23.43,7.944,-31.0,11.52,31.81,0.28,23.38,7.443,-3.529,10.17,11.46,23.33,6.072,-27.33,9.314,0,0,0,0,0,0,0,0,0,0,0,0,0,0,0,0,
101,-40.81,68.62,-18.92,-12.51,26.81,-29.8,-17.19,-2.587,31.8,-0.6479,-3.643,9.945,9.363,3.793,-9.757,27.79,0,0,0,0,0,0,0,0,0,0,0,0,0,0,0,0,
102,-56.84,-39.05,-36.35,3.163,17.17,-61.15,-26.32,-32.57,10.43,1.916,-7.76,-8.283,-7.178,-3.035,-14.35,28.27,0,0,0,0,0,0,0,0,0,0,0,0,0,0,0,0,
103,-42.14,-101.1,-33.91,-8.466,12.81,-62.44,14.1,3.233,-1.273,16.08,15.02,-2.156,-1.5,-1.438,-22.45,19.1,0,0,0,0,0,0,0,0,0,0,0,0,0,0,0,0,
104,-32.97,-17.87,-33.96,-34.35,-8.872,-35.89,26.31,32.75,-10.18,-2.306,14.89,6.768,-4.04,-4.831,-25.11,14.19,0,0,0,0,0,0,0,0,0,0,0,0,0,0,0,0,
105,-26.91,5.819,-28.35,12.69,-20.1,8.31,-1.604,4.838,-20.83,-29.39,17.8,-1.389,1.282,-1.921,-22.85,18.5,0,0,0,0,0,0,0,0,0,0,0,0,0,0,0,0,
106,-31.69,-38.85,-8.629,50.65,-28.24,26.48,-20.53,-17.11,-16.4,-19.64,13.57,0.446,7.956,5.662,-20.07,26.13,0,0,0,0,0,0,0,0,0,0,0,0,0,0,0,0,
107,-48.45,-75.81,-15.21,-43.84,-41.23,58.53,-28.55,2.989,-19.44,-0.0579,-23.86,11.71,-0.8371,4.278,-24.35,26.19,0,0,0,0,0,0,0,0,0,0,0,0,0,0,0,0,
108,-21.07,-91.46,-44.75,-91.65,-16.49,67.68,-17.27,23.49,-15.16,-0.3876,-25.5,-1.589,2.379,-5.157,-32.24,17.63,0,0,0,0,0,0,0,0,0,0,0,0,0,0,0,0,
109,22.17,-4.557,-24.45,22.63,0.7324,-42.41,4.128,16.57,1.456,-18.74,1.002,-14.07,9.276,-8.961,-33.76,11.86,0,0,0,0,0,0,0,0,0,0,0,0,0,0,0,0,
110,-2.989,64.28,10.76,76.4,-16.43,-125.8,-3.469,6.944,-4.288,-24.87,-16.47,7.674,0.7726,1.238,-25.84,20.53,0,0,0,0,0,0,0,0,0,0,0,0,0,0,0,0,
111,-75.24,-32.58,-49.89,-6.369,-2.099,-47.56,-26.74,-0.9465,-10.21,-9.875,-35.96,14.44,-1.228,4.486,-19.55,34.07,0,0,0,0,0,0,0,0,0,0,0,0,0,0,0,0,
112,-127.9,-95.54,-108.9,-45.6,19.6,39.92,-28.24,-12.81,-1.872,-4.301,-17.76,-2.819,7.88,2.987,-23.54,38.22,0,0,0,0,0,0,0,0,0,0,0,0,0,0,0,0,
113,-88.53,-56.66,-29.08,-13.59,-6.367,24.51,-13.07,-5.195,-4.661,4.994,-3.19,-0.8582,13.58,13.19,-25.39,39.27,0,0,0,0,0,0,0,0,0,0,0,0,0,0,0,0,
114,32.48,-52.15,34.82,-4.306,-36.56,-9.633,-10.19,1.175,-12.05,17.76,-4.295,-5.409,7.573,2.933,-24.73,30.17,0,0,0,0,0,0,0,0,0,0,0,0,0,0,0,0,
115,61.39,-28.46,-20.05,-11.09,-33.4,-6.396,-20.91,-10.14,-18.4,-1.942,-17.27,-13.73,-11.31,-17.72,-42.1,0.1208,0,0,0,0,0,0,0,0,0,0,0,0,0,0,0,0,
116,-19.2,9.452,-33.89,-1.253,-22.75,-0.2563,-21.26,-0.8779,-25.18,-16.76,-39.29,3.696,-23.65,-6.282,-67.46,-17.17,0,0,0,0,0,0,0,0,0,0,0,0,0,0,0,0,
117,-50.11,-5.572,-9.749,11.53,-11.3,-1.522,-18.64,3.777,-19.84,-11.01,-31.47,-3.536,-10.98,3.084,-68.66,0.4097,0,0,0,0,0,0,0,0,0,0,0,0,0,0,0,0,
118,-64.04,-28.52,-54.44,-3.345,28.12,5.337,-26.98,-14.59,3.613,-14.91,2.007,-22.28,15.24,-0.387,-47.52,21.8,0,0,0,0,0,0,0,0,0,0,0,0,0,0,0,0,
119,-104.1,-102.9,-67.16,-48.4,42.81,-1.489,-27.38,-2.6,28.96,4.223,6.137,-4.507,15.94,6.803,-36.49,24.64,0,0,0,0,0,0,0,0,0,0,0,0,0,0,0,0,
120,-62.95,-161.2,-31.46,-60.51,-26.9,-21.46,-22.46,7.465,4.452,20.76,-18.23,-11.7,-26.65,-9.133,-57.16,11.6,0,0,0,0,0,0,0,0,0,0,0,0,0,0,0,0,
121,16.92,-55.48,-46.29,-8.245,-67.3,-15.93,-21.81,-13.78,-52.03,-17.02,-34.38,-29.73,-52.12,-26.16,-90.59,-3.667,0,0,0,0,0,0,0,0,0,0,0,0,0,0,0,0,
122,27.86,42.97,-29.46,43.32,-9.246,18.15,-6.254,5.838,-35.34,-29.78,-27.91,14.52,-15.64,7.4,-90.32,9.011,0,0,0,0,0,0,0,0,0,0,0,0,0,0,0,0,
123,13.85,15.45,36.87,45.35,20.86,45.46,8.693,36.68,21.75,2.497,-9.911,34.55,11.23,25.15,-50.48,42.51,0,0,0,0,0,0,0,0,0,0,0,0,0,0,0,0,
124,13.14,0.3227,24.12,16.21,-6.245,11.77,-8.589,2.689,6.774,-4.049,-18.74,-23.7,-18.41,-13.16,-26.65,40.7,0,0,0,0,0,0,0,0,0,0,0,0,0,0,0,0,
125,-8.462,-2.908,-27.56,-8.519,-6.511,-47.55,-30.87,-27.07,-26.84,-23.89,-41.66,-45.23,-33.76,-27.5,-43.94,4.122,0,0,0,0,0,0,0,0,0,0,0,0,0,0,0,0,
126,-54.27,-41.05,-42.95,-16.71,12.1,-17.02,-22.62,-3.091,-5.624,-5.995,-20.52,3.805,-5.425,7.32,-53.84,0.3158,0,0,0,0,0,0,0,0,0,0,0,0,0,0,0,0,
127,-81.04,-75.99,-49.43,-32.83,20.46,30.1,-5.481,11.21,13.74,14.94,6.971,25.8,7.992,24.87,-32.53,34.97,0,0,0,0,0,0,0,0,0,0,0,0,0,0,0,0,
128,-62.68,-100.2,-37.26,-52.44,11.25,-24.33,-16.39,-0.483,1.236,17.24,-16.87,-0.8345,-6.974,4.532,-21.57,43.98,0,0,0,0,0,0,0,0,0,0,0,0,0,0,0,0,
129,-29.46,-68.72,-38.66,-25.15,-15.17,-47.61,-42.65,-9.523,-10.56,0.663,-41.78,-10.49,-17.32,-9.117,-36.28,19.67,0,0,0,0,0,0,0,0,0,0,0,0,0,0,0,0,
130,-8.966,8.668,-64.94,34.86,-12.56,18.79,-42.76,-21.36,-12.29,-22.15,-28.5,-2.486,-16.32,-3.33,-46.01,8.355,0,0,0,0,0,0,0,0,0,0,0,0,0,0,0,0,
131,3.336,25.95,-25.03,41.37,7.184,25.96,-18.22,-25.29,-6.658,-18.05,-10.49,-20.05,-16.42,-11.9,-46.78,7.366,0,0,0,0,0,0,0,0,0,0,0,0,0,0,0,0,
132,1.487,-7.673,24.18,-12.3,-15.69,-13.35,-6.098,-6.137,-8.482,-8.872,-14.29,-30.38,-30.17,-28.55,-56.69,-8.968,0,0,0,0,0,0,0,0,0,0,0,0,0,0,0,0,
133,-23.11,-33.53,5.465,-31.91,-29.08,7.722,-10.55,10.25,-24.72,-17.77,-30.6,2.238,-41.18,-13.62,-64.55,-20.07,0,0,0,0,0,0,0,0,0,0,0,0,0,0,0,0,
134,-48.76,-64.56,15.46,-10.88,18.61,32.29,-10.59,12.97,-16.52,-3.186,-30.92,20.54,-22.88,9.283,-51.1,-10.1,0,0,0,0,0,0,0,0,0,0,0,0,0,0,0,0,
135,-28.28,-85.7,31.4,-36.76,40.44,-9.144,-14.18,3.335,11.17,16.56,-24.01,-11.17,-7.979,-5.129,-30.19,-3.195,0,0,0,0,0,0,0,0,0,0,0,0,0,0,0,0,
136,32.18,-59.25,-8.245,-68.96,-4.717,-50.33,-20.68,-14.83,-0.6842,-7.8,-30.81,-28.72,-16.53,-20.49,-19.79,-4.414,0,0,0,0,0,0,0,0,0,0,0,0,0,0,0,0,
137,44.97,8.479,9.388,-13.69,-15.96,-11.05,5.337,1.703,-23.05,-24.59,-12.92,4.201,0.2523,3.121,-8.274,4.685,0,0,0,0,0,0,0,0,0,0,0,0,0,0,0,0,
138,-5.648,63.99,56.08,42.87,40.49,48.93,32.36,27.11,6.547,-4.246,21.06,20.61,34.69,20.16,7.829,16.34,0,0,0,0,0,0,0,0,0,0,0,0,0,0,0,0,
139,-34.2,43.23,10.84,7.65,63.85,24.59,1.83,-7.581,44.32,0.9069,4.118,-14.37,30.88,1.911,4.198,12.73,0,0,0,0,0,0,0,0,0,0,0,0,0,0,0,0,
140,-22.98,-7.306,-20.48,-25.59,22.57,-10.7,-20.77,-30.12,36.07,-10.4,-26.74,-35.82,7.616,-13.87,-21.04,-1.699,0,0,0,0,0,0,0,0,0,0,0,0,0,0,0,0,
141,-1.717,-4.373,32.75,-9.547,-5.577,35.01,8.267,-0.971,7.09,-11.24,-16.29,-21.43,-0.8447,-14.6,-39.12,-14.36,0,0,0,0,0,0,0,0,0,0,0,0,0,0,0,0,
142,19.17,-29.74,52.0,-38.73,0.892,33.76,5.132,-12.85,-9.802,-3.918,-9.463,-13.85,-5.393,-13.15,-39.19,-15.44,0,0,0,0,0,0,0,0,0,0,0,0,0,0,0,0,
143,-5.253,-94.57,20.62,-80.58,5.514,-54.0,-17.87,-28.67,-9.8,10.07,-16.74,-8.247,-5.776,-7.19,-34.61,-3.882,0,0,0,0,0,0,0,0,0,0,0,0,0,0,0,0,
144,-31.69,-32.07,16.22,-24.14,4.179,-49.36,7.361,7.357,-5.229,6.285,-8.191,-3.496,-1.501,-10.68,-37.85,0.0793,0,0,0,0,0,0,0,0,0,0,0,0,0,0,0,0,
145,21.96,51.63,20.34,38.74,1.708,32.83,15.54,1.094,-11.01,-22.94,-10.78,-22.28,-6.94,-27.08,-50.63,-16.47,0,0,0,0,0,0,0,0,0,0,0,0,0,0,0,0,
146,2.289,-37.27,1.95,0.3748,9.64,33.6,-11.19,-28.89,-13.14,-23.22,-21.73,-15.85,-3.069,-18.0,-56.57,-22.39,0,0,0,0,0,0,0,0,0,0,0,0,0,0,0,0,
147,-129.3,-87.36,-1.906,-39.87,32.37,-10.47,-3.18,-2.012,3.979,11.53,-4.941,24.46,22.82,8.527,-41.1,6.456,0,0,0,0,0,0,0,0,0,0,0,0,0,0,0,0,
148,-74.23,3.552,16.19,-15.42,16.36,-14.38,-0.0718,6.561,12.96,15.14,2.739,10.69,29.07,-3.012,-26.69,26.24,0,0,0,0,0,0,0,0,0,0,0,0,0,0,0,0,
149,106.9,4.45,19.66,2.95,-30.23,20.19,-28.2,-22.34,-5.526,-14.09,-19.43,-25.52,11.79,-22.95,-33.66,7.402,0,0,0,0,0,0,0,0,0,0,0,0,0,0,0,0,
150,75.93,-45.92,13.7,-22.79,-13.22,44.64,-17.71,-13.04,-11.61,-7.701,-23.92,0.5155,15.85,0.946,-38.81,-0.4946,0,0,0,0,0,0,0,0,0,0,0,0,0,0,0,0,
151,-27.48,-18.01,22.64,-59.52,26.32,-14.64,5.167,2.043,10.84,22.69,-26.02,8.667,14.56,3.856,-39.82,9.405,0,0,0,0,0,0,0,0,0,0,0,0,0,0,0,0,
152,-21.79,-21.67,16.64,-50.21,1.55,-70.8,-18.94,-14.66,4.565,-0.987,-56.8,-34.92,-24.52,-42.05,-64.49,-19.85,0,0,0,0,0,0,0,0,0,0,0,0,0,0,0,0,
153,-52.2,-36.07,-29.52,-0.6543,-5.526,1.308,-30.08,-19.92,-30.73,-44.89,-56.49,-26.03,-33.23,-41.8,-82.87,-57.18,0,0,0,0,0,0,0,0,0,0,0,0,0,0,0,0,
154,-71.85,-5.456,-42.44,7.381,31.14,74.74,4.28,-6.332,-22.09,-24.4,-8.077,9.406,14.21,3.854,-49.59,-34.6,0,0,0,0,0,0,0,0,0,0,0,0,0,0,0,0,
155,-11.75,-37.43,33.03,-27.28,17.84,42.24,23.26,4.057,14.75,15.77,20.57,0.3659,41.81,10.95,-1.435,10.11,0,0,0,0,0,0,0,0,0,0,0,0,0,0,0,0,
156,-4.845,-71.14,81.87,-33.07,-0.6586,-1.312,14.22,6.384,16.06,12.73,11.7,-3.2,22.62,-5.368,3.983,17.58,0,0,0,0,0,0,0,0,0,0,0,0,0,0,0,0,
157,-1.02,-8.98,20.73,-6.228,17.72,-14.71,1.006,-9.274,-4.052,-4.028,-16.87,-5.857,-6.609,-16.91,-31.41,-9.722,0,0,0,0,0,0,0,0,0,0,0,0,0,0,0,0,
158,47.84,28.94,-19.34,11.04,-0.5535,-26.12,-23.37,-34.04,-19.22,-15.81,-49.87,-37.7,-22.18,-34.2,-70.14,-48.35,0,0,0,0,0,0,0,0,0,0,0,0,0,0,0,0,
159,11.22,-7.068,26.39,-6.42,-10.76,-19.54,-36.05,-38.09,-23.68,-23.0,-50.51,-43.53,-19.14,-34.12,-80.81,-65.46,0,0,0,0,0,0,0,0,0,0,0,0,0,0,0,0,
160,-54.63,-35.42,31.6,-37.17,22.42,17.18,-13.83,-22.88,-13.64,-15.75,-30.09,-28.14,-15.4,-23.28,-67.81,-52.86,0,0,0,0,0,0,0,0,0,0,0,0,0,0,0,0,
161,-23.73,-21.35,-16.17,-31.04,6.445,43.82,-0.7388,-10.25,-14.08,-15.71,-26.04,-21.91,-14.26,-22.14,-55.82,-41.32,0,0,0,0,0,0,0,0,0,0,0,0,0,0,0,0,
162,19.13,0.3105,-11.1,-9.484,-13.98,19.53,-10.61,1.079,-15.53,-17.88,-11.94,6.772,14.93,1.499,-37.85,-30.19,0,0,0,0,0,0,0,0,0,0,0,0,0,0,0,0,
163,-11.92,-37.59,21.23,-27.06,27.81,-0.6537,-0.9735,16.49,13.31,13.25,15.4,22.98,51.13,27.31,-5.334,-8.768,0,0,0,0,0,0,0,0,0,0,0,0,0,0,0,0,
164,-26.74,-47.63,26.15,-37.54,33.01,19.11,18.28,17.22,26.87,31.08,12.77,-12.43,44.07,4.527,7.59,-7.222,0,0,0,0,0,0,0,0,0,0,0,0,0,0,0,0,
165,45.76,53.43,38.87,10.83,-3.301,-6.045,13.47,-6.788,2.512,-8.309,-0.7591,-22.35,23.24,-13.94,-10.8,-24.52,0,0,0,0,0,0,0,0,0,0,0,0,0,0,0,0,
166,69.95,60.01,36.18,45.66,6.99,-54.93,0.4261,-26.99,-2.492,-22.87,6.964,20.74,32.42,17.3,-22.38,-19.66,0,0,0,0,0,0,0,0,0,0,0,0,0,0,0,0,
167,-18.56,-17.43,-6.816,21.5,33.84,-9.598,-0.6202,-16.82,18.3,20.95,15.55,34.49,42.25,33.56,-17.44,-1.439,0,0,0,0,0,0,0,0,0,0,0,0,0,0,0,0,
168,-35.33,49.45,-4.421,5.363,31.27,69.54,10.61,7.412,25.33,24.93,18.49,9.777,32.31,11.14,-16.6,-2.104,0,0,0,0,0,0,0,0,0,0,0,0,0,0,0,0,
169,37.3,39.26,37.19,2.515,13.66,69.42,18.01,8.645,15.38,-10.67,18.38,8.477,25.39,6.448,-16.45,-7.017,0,0,0,0,0,0,0,0,0,0,0,0,0,0,0,0,
170,21.82,-119.0,21.46,-25.56,-1.196,33.66,-7.981,-22.13,2.48,-1.535,-8.808,8.402,12.65,7.546,-21.93,-7.142,0,0,0,0,0,0,0,0,0,0,0,0,0,0,0,0,
171,-46.43,-37.42,-10.06,-31.46,6.811,14.44,-29.53,-34.17,-2.03,9.412,-36.34,-16.35,-5.748,-14.52,-45.74,-24.94,0,0,0,0,0,0,0,0,0,0,0,0,0,0,0,0,
172,-48.07,106.9,10.46,-14.04,40.19,-6.617,18.29,11.73,14.12,-6.015,4.245,4.61,20.63,3.084,-47.09,-33.53,0,0,0,0,0,0,0,0,0,0,0,0,0,0,0,0,
173,0.5034,-27.65,48.02,-25.39,63.63,-17.31,57.43,41.56,45.26,23.54,59.64,56.03,58.4,51.07,-4.979,4.502,0,0,0,0,0,0,0,0,0,0,0,0,0,0,0,0,
174,52.56,-80.59,67.14,-16.85,35.5,-3.098,3.232,0.358,47.1,43.72,18.94,30.43,22.18,28.04,11.87,31.59,0,0,0,0,0,0,0,0,0,0,0,0,0,0,0,0,
175,52.84,79.04,53.86,21.62,-12.02,21.92,-33.13,-21.17,4.171,-11.46,-41.91,-26.82,-21.2,-20.67,-21.99,0.0051,0,0,0,0,0,0,0,0,0,0,0,0,0,0,0,0,
176,7.779,55.16,34.17,10.08,4.716,53.79,18.54,13.34,-10.27,-27.35,-1.258,-16.34,13.76,-0.3831,-34.21,-24.55,0,0,0,0,0,0,0,0,0,0,0,0,0,0,0,0,
177,11.13,-88.25,45.84,-20.42,51.51,50.48,48.44,19.31,26.17,20.47,54.65,8.874,43.73,24.18,-0.0399,0.2661,0,0,0,0,0,0,0,0,0,0,0,0,0,0,0,0,
178,24.13,-39.12,41.82,-30.33,39.47,-4.439,19.03,-11.47,36.11,14.17,32.2,-8.125,16.1,-3.252,25.53,19.23,0,0,0,0,0,0,0,0,0,0,0,0,0,0,0,0,
179,-38.6,51.94,15.83,-75.33,5.577,-15.68,-3.987,-30.63,10.5,-23.98,-0.8741,-23.78,-3.795,-27.92,12.45,-3.699,0,0,0,0,0,0,0,0,0,0,0,0,0,0,0,0,
180,-66.06,10.66,33.34,-90.12,5.014,17.77,-0.2189,-29.8,-2.965,-15.96,8.244,-9.114,4.805,-17.39,-14.69,-32.55,0,0,0,0,0,0,0,0,0,0,0,0,0,0,0,0,
181,15.98,-6.388,56.3,3.442,20.36,-9.328,17.61,-13.49,4.287,9.35,27.04,10.64,19.12,8.38,-20.12,-25.88,0,0,0,0,0,0,0,0,0,0,0,0,0,0,0,0,
182,69.87,31.73,37.01,59.19,35.14,-44.28,21.73,-7.514,28.38,19.83,21.14,11.47,22.06,17.7,-5.77,6.131,0,0,0,0,0,0,0,0,0,0,0,0,0,0,0,0,
183,25.03,12.94,26.83,0.9894,41.03,-0.9399,11.11,-10.52,34.56,14.93,1.731,11.17,7.242,9.383,-2.97,26.17,0,0,0,0,0,0,0,0,0,0,0,0,0,0,0,0,
184,-28.39,-21.85,38.0,-39.89,42.5,50.84,23.15,10.86,10.51,9.917,6.56,28.2,12.0,17.0,-8.321,26.97,0,0,0,0,0,0,0,0,0,0,0,0,0,0,0,0,
185,-17.25,-72.16,42.65,-48.93,40.55,59.75,36.88,26.44,16.75,24.65,25.07,31.38,38.2,26.42,-1.25,19.14,0,0,0,0,0,0,0,0,0,0,0,0,0,0,0,0,
186,39.85,-118.6,46.16,-70.32,15.07,43.6,29.01,12.88,37.26,21.44,28.2,6.395,31.4,4.366,0.6338,1.643,0,0,0,0,0,0,0,0,0,0,0,0,0,0,0,0,
187,53.94,-20.58,37.76,-43.33,-1.131,-5.61,25.12,-6.255,16.54,-11.1,25.43,-11.77,8.811,-16.83,-13.67,-18.17,0,0,0,0,0,0,0,0,0,0,0,0,0,0,0,0,
188,3.13,100.5,10.39,-4.384,26.92,-64.17,9.78,-33.36,11.83,-7.715,9.844,-10.93,13.77,-9.366,-20.97,-23.82,0,0,0,0,0,0,0,0,0,0,0,0,0,0,0,0,
189,-33.8,74.36,-7.303,-5.918,40.39,-59.38,-16.23,-48.33,34.04,16.79,-20.26,-11.79,8.689,-5.975,-20.84,-17.11,0,0,0,0,0,0,0,0,0,0,0,0,0,0,0,0,
190,-37.69,7.39,-3.917,6.296,5.045,18.01,-6.787,-24.78,2.706,-3.795,-23.48,-14.91,-19.12,-17.81,-28.93,-13.31,0,0,0,0,0,0,0,0,0,0,0,0,0,0,0,0,
191,-1.665,-60.47,16.46,-14.28,-15.95,68.35,24.35,9.285,-33.37,-23.44,5.462,1.588,-9.446,-3.651,-26.9,-9.825,0,0,0,0,0,0,0,0,0,0,0,0,0,0,0,0,
192,71.03,-86.22,42.51,-69.76,1.087,29.02,35.7,25.25,6.239,5.373,22.85,19.2,23.87,26.56,-4.606,4.567,0,0,0,0,0,0,0,0,0,0,0,0,0,0,0,0,
193,68.49,6.226,47.25,-39.24,1.088,-17.67,18.0,4.775,34.16,17.42,5.377,-0.6305,8.817,13.77,1.834,11.83,0,0,0,0,0,0,0,0,0,0,0,0,0,0,0,0,
194,-5.32,27.32,28.48,-9.385,-7.13,-11.98,-4.419,-24.05,-4.546,-3.793,-14.48,-11.09,-15.32,-4.939,-14.82,4.262,0,0,0,0,0,0,0,0,0,0,0,0,0,0,0,0,
195,-45.55,-28.62,3.38,-54.37,38.72,-10.19,12.98,-1.165,-6.502,11.8,13.28,30.92,24.74,31.04,-4.261,17.75,0,0,0,0,0,0,0,0,0,0,0,0,0,0,0,0,
196,-43.37,51.91,7.443,-10.17,87.77,-16.72,53.57,29.07,54.91,50.08,66.93,50.87,78.45,58.67,46.19,51.69,0,0,0,0,0,0,0,0,0,0,0,0,0,0,0,0,
197,41.3,91.76,65.87,78.14,64.56,30.5,66.12,17.06,81.12,48.72,74.07,21.57,75.78,35.7,81.41,60.84,0,0,0,0,0,0,0,0,0,0,0,0,0,0,0,0,
198,123.3,-28.52,85.44,26.99,29.48,90.81,50.8,7.624,49.11,25.34,28.07,14.06,36.03,17.35,65.32,43.88,0,0,0,0,0,0,0,0,0,0,0,0,0,0,0,0,
199,38.52,-34.9,21.93,-41.45,31.64,70.47,18.54,-4.368,20.12,15.77,-4.294,30.57,9.918,20.89,27.02,28.58,0,0,0,0,0,0,0,0,0,0,0,0,0,0,0,0,
200,-20.01,66.86,17.6,1.88,34.54,23.92,-1.642,-24.64,22.12,24.41,10.82,32.22,15.81,27.53,7.307,20.37,0,0,0,0,0,0,0,0,0,0,0,0,0,0,0,0,
201,47.4,43.4,70.35,23.37,39.57,46.13,23.12,-3.293,32.34,39.84,24.51,24.28,21.43,29.29,3.249,16.94,0,0,0,0,0,0,0,0,0,0,0,0,0,0,0,0,
202,4.29,-31.67,45.26,-31.32,51.73,51.27,43.27,20.95,26.53,39.0,7.998,17.11,14.13,23.6,-0.1382,17.37,0,0,0,0,0,0,0,0,0,0,0,0,0,0,0,0,
203,-46.78,-20.65,6.47,-56.83,42.75,-17.57,27.67,5.217,22.9,38.41,-1.14,11.68,20.92,22.26,2.561,16.11,0,0,0,0,0,0,0,0,0,0,0,0,0,0,0,0,
204,63.09,5.4,5.758,-37.76,12.87,-35.13,17.95,-9.468,24.85,42.97,-9.886,-7.938,10.66,5.338,-2.126,0.0835,0,0,0,0,0,0,0,0,0,0,0,0,0,0,0,0,
205,96.05,10.71,-15.11,-5.254,-16.3,14.02,9.544,-17.63,-4.907,3.87,-33.06,-30.84,-23.29,-26.56,-23.16,-27.5,0,0,0,0,0,0,0,0,0,0,0,0,0,0,0,0,
206,0.0043,59.02,8.521,34.79,-5.237,27.35,-3.385,-18.76,-24.13,-32.14,-20.8,-5.433,-10.47,-8.204,-22.97,-27.49,0,0,0,0,0,0,0,0,0,0,0,0,0,0,0,0,
207,-12.06,78.96,71.25,9.646,38.62,24.36,11.73,3.024,13.22,8.171,2.83,26.96,8.498,24.84,-4.871,0.9588,0,0,0,0,0,0,0,0,0,0,0,0,0,0,0,0,
208,36.67,-13.78,58.72,-60.63,32.04,34.65,28.53,11.08,18.04,36.84,-24.84,2.111,-29.98,-3.842,-18.86,1.921,0,0,0,0,0,0,0,0,0,0,0,0,0,0,0,0,
209,17.06,-61.79,24.97,-29.42,-0.3623,8.937,17.22,-2.187,-23.43,-0.5945,-39.94,-12.74,-35.98,-21.45,-38.79,-19.72,0,0,0,0,0,0,0,0,0,0,0,0,0,0,0,0,
210,-23.62,6.914,27.93,43.95,30.55,-28.14,11.82,-5.554,-1.396,-8.385,1.061,13.11,13.15,13.59,-13.88,-8.885,0,0,0,0,0,0,0,0,0,0,0,0,0,0,0,0,
211,10.51,3.091,11.36,9.471,58.21,0.6073,22.09,-5.093,47.66,25.89,13.69,9.883,14.36,17.45,14.79,20.09,0,0,0,0,0,0,0,0,0,0,0,0,0,0,0,0,
212,37.52,-50.34,-10.44,-57.33,15.98,48.78,17.12,-6.632,24.97,21.93,-26.81,-15.62,-24.76,-13.32,-3.986,18.84,0,0,0,0,0,0,0,0,0,0,0,0,0,0,0,0,
213,-23.13,12.41,-5.215,-53.26,-13.13,18.3,6.75,-2.055,-18.13,-6.125,-35.66,-7.221,-20.69,-9.156,-34.9,-0.5689,0,0,0,0,0,0,0,0,0,0,0,0,0,0,0,0,
214,-11.96,60.93,19.26,-2.244,13.8,-18.25,25.62,8.117,-8.47,9.025,10.69,27.85,21.81,26.9,-20.7,3.926,0,0,0,0,0,0,0,0,0,0,0,0,0,0,0,0,
215,80.66,10.37,45.86,23.31,32.18,19.17,35.82,9.944,26.95,42.51,26.39,36.32,31.03,33.1,20.19,24.51,0,0,0,0,0,0,0,0,0,0,0,0,0,0,0,0,
216,43.75,-0.4142,22.81,-30.3,8.758,15.02,-2.84,-7.555,22.99,19.94,-17.46,1.323,-9.375,-6.099,22.53,16.27,0,0,0,0,0,0,0,0,0,0,0,0,0,0,0,0,
217,-35.64,-23.78,-19.07,-67.68,-9.948,-41.47,-16.18,-9.734,-17.19,-23.69,-32.04,-16.22,-25.59,-26.49,-13.96,-14.68,0,0,0,0,0,0,0,0,0,0,0,0,0,0,0,0,
218,-6.354,-105.5,-2.291,-8.623,4.522,-11.04,19.62,4.888,-20.38,-7.846,2.817,6.386,4.019,-4.234,-34.02,-17.81,0,0,0,0,0,0,0,0,0,0,0,0,0,0,0,0,
219,11.02,-59.73,23.02,20.33,11.7,46.93,19.39,-14.72,10.51,25.3,12.97,15.74,18.27,9.953,-26.65,9.398,0,0,0,0,0,0,0,0,0,0,0,0,0,0,0,0,
220,-12.57,80.81,18.78,-27.1,6.063,15.0,2.574,-28.16,15.27,19.79,-2.37,4.555,9.972,5.074,-17.27,24.72,0,0,0,0,0,0,0,0,0,0,0,0,0,0,0,0,
221,-15.8,100.2,23.07,-50.11,17.53,-21.48,25.26,9.45,4.253,3.986,1.954,-1.451,8.068,1.108,-11.45,14.71,0,0,0,0,0,0,0,0,0,0,0,0,0,0,0,0,
222,-17.34,18.38,20.87,-29.81,28.33,21.93,45.7,31.76,4.191,-3.513,32.92,10.32,24.96,12.31,5.799,12.98,0,0,0,0,0,0,0,0,0,0,0,0,0,0,0,0,
223,14.48,-32.0,18.88,7.564,38.58,54.85,49.26,16.55,26.25,14.56,62.98,39.04,55.12,43.19,37.66,45.48,0,0,0,0,0,0,0,0,0,0,0,0,0,0,0,0,
224,40.43,-21.02,43.14,24.47,46.98,6.0,36.7,3.589,56.59,48.62,40.06,40.83,44.06,44.48,46.14,72.58,0,0,0,0,0,0,0,0,0,0,0,0,0,0,0,0,
225,0.2427,-12.45,48.91,-14.95,9.749,-9.28,2.823,-1.68,32.65,29.72,-5.275,15.58,-3.385,6.407,8.267,48.92,0,0,0,0,0,0,0,0,0,0,0,0,0,0,0,0,
226,9.073,-52.34,28.1,-49.34,-27.94,43.79,3.843,1.522,-17.81,-13.17,5.966,9.142,-10.58,-8.46,-28.77,4.661,0,0,0,0,0,0,0,0,0,0,0,0,0,0,0,0,
227,60.76,-41.69,8.644,-24.99,-6.227,5.919,23.33,-2.522,-15.17,-9.272,22.25,-4.455,-2.958,-9.251,-33.94,-20.6,0,0,0,0,0,0,0,0,0,0,0,0,0,0,0,0,
228,10.28,53.85,-14.27,8.687,21.2,-69.17,4.915,-19.05,0.0606,-3.995,2.738,-21.53,-17.52,-16.2,-28.89,-26.53,0,0,0,0,0,0,0,0,0,0,0,0,0,0,0,0,
229,-53.97,67.79,-2.351,-6.433,30.83,-0.6673,6.984,-7.478,2.225,-5.663,21.98,12.5,-2.528,11.54,-12.3,-4.385,0,0,0,0,0,0,0,0,0,0,0,0,0,0,0,0,
230,-16.43,-21.56,46.87,-48.3,34.74,78.96,34.67,15.01,26.63,29.42,55.61,40.06,21.99,38.27,18.46,35.39,0,0,0,0,0,0,0,0,0,0,0,0,0,0,0,0,
231,-4.509,-62.53,32.97,-46.23,9.394,9.421,24.39,8.698,30.67,41.09,35.98,10.34,4.419,12.65,29.41,47.19,0,0,0,0,0,0,0,0,0,0,0,0,0,0,0,0,
232,-56.96,-47.15,-24.91,-17.45,-6.655,-60.57,15.5,3.636,0.6862,3.404,20.83,2.181,-8.911,-2.999,14.22,31.4,0,0,0,0,0,0,0,0,0,0,0,0,0,0,0,0,
233,-16.07,-13.8,0.5675,-12.02,13.28,8.162,23.91,6.72,-1.505,-5.064,38.39,32.12,7.856,21.2,3.15,23.25,0,0,0,0,0,0,0,0,0,0,0,0,0,0,0,0,
234,83.85,54.24,56.82,14.74,15.11,76.44,11.14,-0.0384,18.06,13.32,40.32,29.0,14.07,26.26,4.919,20.78,0,0,0,0,0,0,0,0,0,0,0,0,0,0,0,0,
235,59.83,63.87,32.12,45.67,12.15,2.321,12.64,1.527,24.37,5.386,37.49,11.89,8.893,15.8,8.88,16.8,0,0,0,0,0,0,0,0,0,0,0,0,0,0,0,0,
236,-22.95,-14.52,7.371,10.93,35.57,-51.76,34.82,5.992,29.16,3.252,54.24,23.97,13.98,27.16,10.56,21.46,0,0,0,0,0,0,0,0,0,0,0,0,0,0,0,0,
237,-20.44,-16.76,38.62,-27.11,33.7,35.42,33.0,2.837,33.35,23.73,58.45,19.26,10.95,25.64,6.492,18.81,0,0,0,0,0,0,0,0,0,0,0,0,0,0,0,0,
238,-6.073,35.86,38.12,-26.03,3.378,67.75,15.92,-1.102,19.28,13.73,30.77,-17.73,-9.863,-4.875,-4.812,-7.346,0,0,0,0,0,0,0,0,0,0,0,0,0,0,0,0,
239,-14.49,-24.67,19.16,-37.64,-9.344,-4.682,-1.294,-23.14,-5.335,-16.25,5.103,-33.92,-21.56,-19.76,-16.48,-34.18,0,0,0,0,0,0,0,0,0,0,0,0,0,0,0,0,
240,35.43,-70.83,40.53,-49.91,-14.9,-29.61,-7.441,-40.02,-18.21,-16.35,9.097,-18.97,-16.86,-10.68,-20.12,-41.02,0,0,0,0,0,0,0,0,0,0,0,0,0,0,0,0,
241,65.94,24.75,32.99,-37.08,-8.36,-35.08,11.01,-15.84,-13.02,-8.967,22.12,5.621,-2.301,8.527,-6.319,-25.22,0,0,0,0,0,0,0,0,0,0,0,0,0,0,0,0,
242,-9.793,63.03,-17.2,-16.56,34.11,-56.42,21.11,3.215,9.291,-5.178,26.22,24.13,22.51,32.49,24.05,9.362,0,0,0,0,0,0,0,0,0,0,0,0,0,0,0,0,
243,-72.26,-8.222,-16.44,4.133,59.19,-34.02,14.96,-2.009,37.81,18.58,28.54,15.17,25.11,30.22,40.23,30.03,0,0,0,0,0,0,0,0,0,0,0,0,0,0,0,0,
244,-50.19,-27.45,19.14,8.882,26.8,16.5,17.87,0.1083,34.68,25.36,23.58,-5.447,-6.272,5.231,21.67,13.3,0,0,0,0,0,0,0,0,0,0,0,0,0,0,0,0,
245,-12.03,-19.22,10.34,-1.9,-9.098,64.59,11.15,-5.365,-3.154,-3.683,15.2,-2.788,-16.85,3.89,-0.8611,-4.174,0,0,0,0,0,0,0,0,0,0,0,0,0,0,0,0,
246,33.91,-10.19,-5.59,0.4834,-14.3,54.63,-0.7269,-11.1,-16.38,-18.69,24.97,6.71,2.918,15.24,0.4222,6.018,0,0,0,0,0,0,0,0,0,0,0,0,0,0,0,0,
247,78.2,58.11,18.53,5.106,-13.02,-13.15,8.558,2.954,6.062,-10.05,40.01,-2.037,4.016,8.236,8.8,17.69,0,0,0,0,0,0,0,0,0,0,0,0,0,0,0,0,
248,52.55,76.68,26.67,-14.04,-10.74,-4.882,7.424,-1.309,8.175,0.1442,31.21,-4.309,-12.18,5.549,8.029,16.66,0,0,0,0,0,0,0,0,0,0,0,0,0,0,0,0,
249,-11.17,-6.122,-2.977,-38.4,4.563,37.69,-13.48,-16.85,-8.094,10.19,5.37,9.757,-17.99,16.32,2.385,16.94,0,0,0,0,0,0,0,0,0,0,0,0,0,0,0,0,
250,-34.26,-49.84,-30.24,-40.92,15.53,-24.36,-23.24,-17.39,-1.218,8.452,-12.82,-1.607,-24.81,8.56,-8.723,13.66,0,0,0,0,0,0,0,0,0,0,0,0,0,0,0,0,
251,-23.68,-7.87,-55.15,-25.3,-7.553,-88.12,-25.33,-31.48,-3.34,-8.547,-11.98,-19.8,-40.33,-9.991,-24.69,-2.094,0,0,0,0,0,0,0,0,0,0,0,0,0,0,0,0,
252,-10.39,35.01,-49.07,8.802,-35.41,-46.48,-14.99,-29.48,-35.02,-17.04,7.356,14.44,-37.68,1.964,-28.08,-12.61,0,0,0,0,0,0,0,0,0,0,0,0,0,0,0,0,
253,-19.37,-20.07,9.749,44.75,-18.45,16.92,8.066,9.053,-31.86,-3.59,24.12,34.47,-17.0,20.64,-11.7,-7.767,0,0,0,0,0,0,0,0,0,0,0,0,0,0,0,0,
254,-49.1,-115.0,17.44,10.12,-4.59,16.26,2.196,5.606,-4.373,8.946,6.373,-18.19,-21.6,-1.259,-0.9247,-7.009,0,0,0,0,0,0,0,0,0,0,0,0,0,0,0,0,
255,-40.13,-55.14,-44.33,-70.51,-37.81,-24.17,-23.22,-28.42,-26.01,-9.89,-27.47,-44.58,-48.27,-25.54,-14.66,-18.55,0,0,0,0,0,0,0,0,0,0,0,0,0,0,0,0,
256,3.645,56.64,-45.32,-57.98,-47.99,-24.09,-27.82,-20.96,-50.42,-35.65,-30.88,-24.58,-53.08,-18.28,-36.18,-30.56,0,0,0,0,0,0,0,0,0,0,0,0,0,0,0,0,
257,-1.088,37.1,-0.6674,24.78,-17.92,-8.724,-24.77,-10.33,-27.98,-37.26,-22.22,-38.92,-43.73,-21.9,-48.7,-45.27,0,0,0,0,0,0,0,0,0,0,0,0,0,0,0,0,
258,-42.59,35.47,-15.02,38.83,-10.51,-36.56,-25.55,-19.94,-14.64,-43.05,-28.43,-44.03,-39.59,-31.09,-50.7,-60.07,0,0,0,0,0,0,0,0,0,0,0,0,0,0,0,0,
259,-46.4,11.66,-47.16,-3.161,-11.92,-33.77,-30.72,-22.31,-15.48,-43.82,-18.83,-2.52,-28.87,-5.631,-36.58,-47.2,0,0,0,0,0,0,0,0,0,0,0,0,0,0,0,0,
260,-39.54,-151.4,-33.26,-29.73,1.774,-7.614,-41.67,-32.09,-3.054,-6.239,1.042,12.28,-20.87,18.77,-9.244,-5.321,0,0,0,0,0,0,0,0,0,0,0,0,0,0,0,0,
261,-37.56,-119.4,-5.699,-40.14,-9.39,-36.19,-23.99,-26.72,-8.683,14.03,-1.678,-8.117,-24.48,9.541,9.542,20.67,0,0,0,0,0,0,0,0,0,0,0,0,0,0,0,0,
262,32.97,118.3,3.125,-29.97,-39.68,-33.56,12.57,8.578,-27.26,-12.45,0.4434,-22.65,-21.32,-6.635,4.56,3.024,0,0,0,0,0,0,0,0,0,0,0,0,0,0,0,0,
263,83.47,131.0,5.719,11.26,-26.03,25.88,11.55,9.244,-21.96,-29.13,16.32,-32.16,-11.27,-14.74,-13.43,-30.01,0,0,0,0,0,0,0,0,0,0,0,0,0,0,0,0,
264,-20.95,9.392,5.436,46.83,26.72,39.32,-7.486,-16.35,-3.5,-24.18,6.863,-32.58,-13.12,-18.52,-24.06,-43.32,0,0,0,0,0,0,0,0,0,0,0,0,0,0,0,0,
265,-92.41,11.69,-16.62,22.19,34.63,16.4,-6.779,-10.02,0.0532,-17.19,-13.13,-22.13,-27.56,-18.79,-28.8,-45.47,0,0,0,0,0,0,0,0,0,0,0,0,0,0,0,0,
266,7.909,17.41,-27.0,-17.68,-3.596,-1.732,-4.05,0.662,-14.36,-9.279,-5.328,-13.96,-28.77,-13.63,-36.04,-51.47,0,0,0,0,0,0,0,0,0,0,0,0,0,0,0,0,
267,51.21,-24.6,9.945,12.72,-8.292,-20.13,-7.417,-11.24,-19.43,-10.38,5.712,-14.15,-16.88,-4.659,-36.08,-50.67,0,0,0,0,0,0,0,0,0,0,0,0,0,0,0,0,
268,-17.0,-46.89,17.16,22.8,-7.63,-36.62,-15.04,-23.41,-18.03,-15.14,-16.09,-23.08,-33.8,-7.235,-35.35,-46.9,0,0,0,0,0,0,0,0,0,0,0,0,0,0,0,0,
269,0.3476,-6.709,-33.24,-55.07,-41.22,-51.66,-29.33,-25.35,-39.16,-16.35,-41.85,-23.6,-58.78,-14.79,-49.2,-53.05,0,0,0,0,0,0,0,0,0,0,0,0,0,0,0,0,
270,40.05,99.85,-44.96,-57.92,-34.6,-34.85,-37.13,-19.96,-43.49,-23.14,-28.11,-18.57,-44.5,-10.48,-54.24,-56.26,0,0,0,0,0,0,0,0,0,0,0,0,0,0,0,0,
271,-27.76,81.16,-25.52,36.18,-1.889,4.65,-35.92,-17.18,-21.64,-28.19,-5.571,-30.74,-39.38,-14.41,-39.11,-51.03,0,0,0,0,0,0,0,0,0,0,0,0,0,0,0,0,
272,-66.5,-53.25,-35.37,54.24,-16.97,19.08,-31.23,-18.11,-34.94,-28.96,-13.84,-38.07,-61.93,-28.58,-35.74,-52.83,0,0,0,0,0,0,0,0,0,0,0,0,0,0,0,0,
273,-1.651,-33.71,-31.46,4.985,-35.31,15.05,-25.85,-13.7,-49.38,-33.72,-25.77,-30.39,-60.62,-32.27,-49.63,-63.62,0,0,0,0,0,0,0,0,0,0,0,0,0,0,0,0,
274,23.88,5.942,-22.07,-24.67,-42.66,-33.12,-34.8,-16.52,-36.78,-40.95,-35.6,-26.2,-60.6,-33.4,-59.94,-67.67,0,0,0,0,0,0,0,0,0,0,0,0,0,0,0,0,
275,-29.09,-69.52,-50.73,-36.81,-54.59,-81.53,-50.78,-29.87,-53.88,-44.26,-48.81,-9.432,-66.69,-22.99,-56.01,-47.52,0,0,0,0,0,0,0,0,0,0,0,0,0,0,0,0,
276,-40.11,-0.3237,-50.23,-10.77,-15.0,-26.17,-34.69,-22.95,-52.4,-26.93,-16.19,10.88,-25.65,6.582,-23.28,-8.074,0,0,0,0,0,0,0,0,0,0,0,0,0,0,0,0,
277,-0.8968,105.5,-5.213,24.98,22.53,11.48,10.06,11.71,-3.111,-3.062,37.02,9.098,6.015,16.53,22.98,17.38,0,0,0,0,0,0,0,0,0,0,0,0,0,0,0,0,
278,-6.729,28.1,-0.9078,6.301,-16.5,-27.83,19.52,22.72,-5.321,-12.09,30.48,-0.8962,-18.89,-0.5183,32.23,6.758,0,0,0,0,0,0,0,0,0,0,0,0,0,0,0,0,
279,-14.8,4.654,-13.67,-24.16,-37.3,4.353,-19.51,-17.19,-32.41,-24.75,2.605,-16.52,-25.84,-7.127,5.49,-25.21,0,0,0,0,0,0,0,0,0,0,0,0,0,0,0,0,
280,31.42,9.561,21.53,-26.91,-6.777,38.99,-21.15,-28.26,-5.447,8.958,13.43,-11.75,1.945,15.72,-5.411,-37.19,0,0,0,0,0,0,0,0,0,0,0,0,0,0,0,0,
281,22.2,-115.3,30.26,-11.94,10.68,-11.62,32.64,26.6,16.39,54.96,31.76,26.46,14.38,42.44,14.99,-7.985,0,0,0,0,0,0,0,0,0,0,0,0,0,0,0,0,
282,-29.66,-77.26,-31.51,21.18,14.22,-34.9,22.69,27.75,5.514,40.55,15.46,9.147,-2.577,17.43,26.82,10.78,0,0,0,0,0,0,0,0,0,0,0,0,0,0,0,0,
283,8.257,112.7,-61.02,31.37,-11.87,-26.1,-60.27,-44.96,-11.15,-31.56,-34.71,-55.81,-37.09,-33.83,-1.732,-29.31,0,0,0,0,0,0,0,0,0,0,0,0,0,0,0,0,
284,22.97,113.5,-36.56,12.73,-39.7,-12.31,-66.01,-45.13,-33.71,-57.98,-54.96,-42.56,-39.35,-18.18,-28.45,-70.46,0,0,0,0,0,0,0,0,0,0,0,0,0,0,0,0,
285,-55.41,36.51,-30.14,24.08,-4.426,11.53,-1.106,11.71,-26.58,-4.994,-11.46,13.29,0.4228,32.0,1.096,-48.63,0,0,0,0,0,0,0,0,0,0,0,0,0,0,0,0,
286,-39.02,44.72,-19.51,39.53,14.63,15.92,0.4646,5.7,1.122,22.37,16.33,15.39,9.09,31.77,44.69,-2.319,0,0,0,0,0,0,0,0,0,0,0,0,0,0,0,0,
287,25.15,5.165,2.67,9.483,-7.165,63.25,-15.1,-3.223,-3.85,8.808,8.042,7.815,-8.671,19.88,45.38,20.09,0,0,0,0,0,0,0,0,0,0,0,0,0,0,0,0,
288,-17.09,-100.3,-11.58,-31.72,12.34,83.27,19.55,29.02,-7.894,25.02,21.17,13.49,-3.672,23.51,30.65,23.14,0,0,0,0,0,0,0,0,0,0,0,0,0,0,0,0,
289,-4.375,-124.3,-13.49,-35.84,5.984,-37.1,9.345,7.656,0.6741,28.13,24.34,-8.548,-10.68,1.291,25.72,9.194,0,0,0,0,0,0,0,0,0,0,0,0,0,0,0,0,
290,91.16,12.09,10.15,8.905,-48.14,-82.26,-38.81,-41.4,-17.97,-9.347,0.9578,-29.9,-29.75,-19.23,17.33,-13.8,0,0,0,0,0,0,0,0,0,0,0,0,0,0,0,0,
291,50.26,143.3,-18.28,44.14,-41.19,-2.226,-28.85,-33.83,-31.55,-27.54,0.1824,-16.4,-24.65,-9.226,9.291,-18.14,0,0,0,0,0,0,0,0,0,0,0,0,0,0,0,0,
292,-57.2,78.43,-55.73,26.42,-9.539,-17.12,-15.01,-16.58,-22.98,-30.55,5.223,9.668,-19.88,1.834,10.75,-4.55,0,0,0,0,0,0,0,0,0,0,0,0,0,0,0,0,
293,-64.7,-10.57,-35.64,14.42,7.096,-16.03,-26.84,-8.429,-11.44,-20.65,8.19,23.92,-5.271,18.83,28.15,6.617,0,0,0,0,0,0,0,0,0,0,0,0,0,0,0,0,
294,-45.24,23.45,-8.662,5.967,47.78,87.09,1.736,18.25,22.4,20.27,30.15,1.657,25.99,26.57,52.31,3.948,0,0,0,0,0,0,0,0,0,0,0,0,0,0,0,0,
295,-12.64,7.211,13.72,-24.11,33.27,63.37,23.51,16.37,39.03,21.41,20.13,-36.55,10.78,-6.136,44.88,-16.18,0,0,0,0,0,0,0,0,0,0,0,0,0,0,0,0,
296,58.55,-76.85,34.49,-13.5,-26.71,-46.46,-2.791,-6.452,0.5926,-19.94,-16.49,-19.71,-19.69,-14.36,18.16,-26.85,0,0,0,0,0,0,0,0,0,0,0,0,0,0,0,0,
297,48.61,-74.5,1.897,-13.09,4.307,-38.56,-4.047,3.027,-10.61,-6.442,-4.605,12.81,-3.505,15.79,21.48,-11.43,0,0,0,0,0,0,0,0,0,0,0,0,0,0,0,0,
298,2.876,0.2492,-34.93,-52.6,49.52,4.795,10.36,-1.668,16.76,23.1,11.94,-22.29,-4.25,-2.4,32.61,-13.03,0,0,0,0,0,0,0,0,0,0,0,0,0,0,0,0,
299,50.55,60.17,-9.823,2.173,1.59,-4.144,-9.802,-32.99,-2.784,-5.823,-18.83,-50.17,-33.9,-33.26,21.26,-40.78,0,0,0,0,0,0,0,0,0,0,0,0,0,0,0,0,
300,46.64,74.77,5.06,84.24,-27.37,4.5,-17.44,-24.39,-35.92,-23.19,-28.8,-11.35,-25.82,-5.183,16.04,-41.32,0,0,0,0,0,0,0,0,0,0,0,0,0,0,0,0,
301,-41.12,71.67,-17.57,64.67,3.62,21.81,-2.111,0.8236,-20.69,1.089,-8.697,4.385,-10.07,15.4,20.49,-14.21,0,0,0,0,0,0,0,0,0,0,0,0,0,0,0,0,
302,4.026,68.1,-12.12,48.91,2.013,10.48,-8.905,-5.888,-5.027,4.481,-13.36,-23.68,-17.61,-2.173,14.53,-3.954,0,0,0,0,0,0,0,0,0,0,0,0,0,0,0,0,
303,99.29,25.18,0.6032,39.72,-14.45,23.59,-17.22,-12.4,-9.671,-0.8953,-12.03,-26.81,-10.46,-2.342,10.85,-14.66,0,0,0,0,0,0,0,0,0,0,0,0,0,0,0,0,
304,53.4,-24.26,-29.92,-14.49,10.2,48.17,-13.04,-8.073,1.428,18.29,16.15,-2.221,2.447,11.75,16.41,-27.16,0,0,0,0,0,0,0,0,0,0,0,0,0,0,0,0,
305,-15.4,-29.96,-58.8,-9.427,36.43,11.54,-20.76,-8.478,15.26,33.87,22.68,12.69,-2.192,13.02,17.86,-30.9,0,0,0,0,0,0,0,0,0,0,0,0,0,0,0,0,
306,-37.67,-22.94,-39.27,17.19,19.18,-29.39,-21.14,2.037,4.046,24.12,5.727,-0.2308,-12.32,2.0,12.52,-27.9,0,0,0,0,0,0,0,0,0,0,0,0,0,0,0,0,
307,-62.62,2.886,-17.33,8.547,-18.33,-2.114,-5.782,12.23,-20.96,-7.073,2.238,-8.329,-22.31,-7.578,10.05,-24.48,0,0,0,0,0,0,0,0,0,0,0,0,0,0,0,0,
308,-22.04,39.59,-36.48,59.02,-23.25,34.35,-0.1672,6.716,-30.27,-23.79,14.11,22.92,-20.1,6.457,22.48,-8.291,0,0,0,0,0,0,0,0,0,0,0,0,0,0,0,0,
309,48.87,38.38,-54.18,80.74,-13.98,29.32,-5.929,4.848,-17.65,-4.354,8.142,19.24,-18.4,6.566,35.91,12.84,0,0,0,0,0,0,0,0,0,0,0,0,0,0,0,0,
310,29.01,14.59,-45.25,-12.51,-48.03,-0.2863,-26.51,-3.146,-28.46,-12.27,-27.52,-48.0,-49.48,-39.4,18.08,-4.278,0,0,0,0,0,0,0,0,0,0,0,0,0,0,0,0,
311,-32.95,-23.37,-39.6,-47.54,-63.35,-27.52,-41.93,-15.12,-63.78,-43.38,-34.68,-56.74,-63.36,-47.98,-10.83,-44.56,0,0,0,0,0,0,0,0,0,0,0,0,0,0,0,0,
312,-51.99,-44.15,-40.18,12.78,-8.127,-23.88,-20.21,-1.379,-47.64,-10.03,3.429,-5.915,-24.91,-1.739,-1.143,-47.54,0,0,0,0,0,0,0,0,0,0,0,0,0,0,0,0,
313,-16.83,-0.3048,-48.01,40.37,11.64,-2.365,-9.917,5.438,-3.213,23.77,13.57,-5.254,-8.968,1.911,33.88,-22.23,0,0,0,0,0,0,0,0,0,0,0,0,0,0,0,0,
314,36.93,21.54,-58.56,46.45,-19.52,6.66,-28.72,-5.946,-8.782,-14.04,0.2766,-11.46,-26.14,-16.75,49.38,-8.199,0,0,0,0,0,0,0,0,0,0,0,0,0,0,0,0,
315,26.48,-18.35,-40.97,46.42,-3.909,10.98,-17.61,4.199,-15.81,-19.77,10.06,17.68,-16.75,3.123,40.78,0.1193,0,0,0,0,0,0,0,0,0,0,0,0,0,0,0,0,
316,-34.03,-32.32,-25.94,-0.2712,20.35,25.83,0.0567,6.155,3.673,20.56,8.359,15.14,-4.619,11.52,23.96,8.684,0,0,0,0,0,0,0,0,0,0,0,0,0,0,0,0,
317,-44.59,-11.35,-42.68,-15.64,7.643,52.58,-6.808,-5.288,-5.074,14.01,1.629,6.732,-7.713,3.157,11.98,12.77,0,0,0,0,0,0,0,0,0,0,0,0,0,0,0,0,
318,-12.35,26.48,-40.66,50.16,6.339,47.19,-0.7239,15.9,-9.277,-4.173,18.89,21.65,1.893,10.48,11.95,16.07,0,0,0,0,0,0,0,0,0,0,0,0,0,0,0,0,
319,-4.411,54.23,-20.08,67.0,-2.204,-11.44,-4.482,21.82,8.789,5.195,5.548,-11.11,-8.645,-9.89,8.595,1.46,0,0,0,0,0,0,0,0,0,0,0,0,0,0,0,0,
320,-12.55,8.986,-31.02,-3.812,-31.17,-32.04,-33.22,-12.67,-15.49,-5.997,-29.12,-56.94,-43.54,-44.3,-8.428,-35.31,0,0,0,0,0,0,0,0,0,0,0,0,0,0,0,0,
321,18.83,-27.75,-51.62,-11.32,-28.09,-5.462,-32.67,-19.15,-44.85,-22.08,-14.23,-33.83,-35.42,-24.07,-13.0,-48.17,0,0,0,0,0,0,0,0,0,0,0,0,0,0,0,0,
322,58.07,20.01,-32.07,51.13,-3.994,-13.13,-8.839,2.672,-18.87,0.1865,12.51,-2.715,-0.429,11.53,8.076,-20.31,0,0,0,0,0,0,0,0,0,0,0,0,0,0,0,0,
323,14.92,19.61,0.5598,46.37,6.877,0.0444,-2.538,9.732,3.443,22.93,3.296,-9.969,-3.387,3.882,22.06,3.561,0,0,0,0,0,0,0,0,0,0,0,0,0,0,0,0,
324,-46.43,-66.88,-24.91,-5.341,8.635,44.35,-17.73,-3.977,-9.819,8.088,-4.33,-6.003,-20.58,-10.7,11.24,1.068,0,0,0,0,0,0,0,0,0,0,0,0,0,0,0,0,
325,-53.87,-100.1,-74.14,-26.45,4.892,15.66,-40.73,-26.16,-17.11,-6.55,-2.557,2.514,-14.68,-5.802,-2.143,-8.366,0,0,0,0,0,0,0,0,0,0,0,0,0,0,0,0,
326,-79.3,-65.52,-62.11,-23.36,1.004,-37.34,-37.11,-20.79,-15.13,5.483,-11.57,-14.11,-7.958,-8.387,-7.319,-14.94,0,0,0,0,0,0,0,0,0,0,0,0,0,0,0,0,
327,-49.26,-17.36,-31.26,23.49,-17.08,-29.98,-6.543,9.097,-20.08,1.879,-7.916,-19.0,-8.769,-17.39,-8.083,-18.62,0,0,0,0,0,0,0,0,0,0,0,0,0,0,0,0,
328,76.55,55.96,-21.65,79.44,-50.93,12.24,6.117,18.72,-24.45,-22.08,8.666,5.157,-2.424,-9.844,0.3692,-12.73,0,0,0,0,0,0,0,0,0,0,0,0,0,0,0,0,
329,75.15,91.44,-2.852,47.05,-41.85,47.49,0.46,19.79,-20.56,-11.24,7.547,23.91,4.414,5.268,14.27,3.212,0,0,0,0,0,0,0,0,0,0,0,0,0,0,0,0,
330,-15.96,53.75,-15.23,-4.949,8.355,10.71,5.267,30.88,-5.016,19.72,5.307,17.71,7.258,4.852,26.82,18.88,0,0,0,0,0,0,0,0,0,0,0,0,0,0,0,0,
331,7.896,21.54,-51.44,27.76,16.67,-54.01,7.855,18.93,8.789,6.175,5.646,-7.101,2.961,-14.36,33.87,20.34,0,0,0,0,0,0,0,0,0,0,0,0,0,0,0,0,
332,14.28,-36.73,-48.95,54.04,-12.65,-19.46,-21.56,-18.83,-2.127,-32.28,-22.24,-28.16,-17.14,-32.14,17.34,3.642,0,0,0,0,0,0,0,0,0,0,0,0,0,0,0,0,
333,-49.56,-102.0,-53.21,7.65,-15.16,34.55,-50.41,-28.24,-16.67,-32.91,-39.04,-28.59,-29.02,-33.41,-17.92,-18.68,0,0,0,0,0,0,0,0,0,0,0,0,0,0,0,0,
334,-35.56,-24.66,-56.68,-8.719,-9.775,9.954,-21.82,3.017,-8.871,-13.17,-6.572,-15.79,-10.58,-26.2,-25.73,-30.53,0,0,0,0,0,0,0,0,0,0,0,0,0,0,0,0,
335,-6.193,74.74,-4.689,43.88,-16.41,-8.287,24.05,19.83,0.101,-8.414,32.84,20.31,21.93,0.818,19.55,-9.094,0,0,0,0,0,0,0,0,0,0,0,0,0,0,0,0,
336,-4.418,45.79,33.67,67.54,15.02,11.68,34.85,19.34,15.78,19.25,57.23,70.37,49.42,48.71,84.78,50.47,0,0,0,0,0,0,0,0,0,0,0,0,0,0,0,0,
337,39.4,21.78,33.11,33.59,56.45,35.2,35.83,29.72,48.05,59.01,51.2,53.52,42.9,46.17,102.3,82.6,0,0,0,0,0,0,0,0,0,0,0,0,0,0,0,0,
338,53.7,8.132,10.56,17.31,24.92,34.05,19.37,15.66,35.46,32.7,2.244,-23.36,-2.767,-16.76,46.83,33.24,0,0,0,0,0,0,0,0,0,0,0,0,0,0,0,0,
339,5.399,-42.3,-55.32,15.34,-20.26,-22.15,-10.99,-4.707,-19.29,-16.77,-22.77,-36.13,-26.98,-37.74,-14.19,-33.77,0,0,0,0,0,0,0,0,0,0,0,0,0,0,0,0,
340,-33.4,-27.49,-74.68,-18.32,-1.627,-43.61,-9.078,9.361,-27.48,-8.544,-21.05,0.9878,-21.89,-15.9,-22.76,-49.35,0,0,0,0,0,0,0,0,0,0,0,0,0,0,0,0,
341,-44.02,-33.25,-32.84,-27.94,-1.58,20.74,-17.14,-2.943,-12.69,0.3618,-55.27,-13.13,-40.36,-30.77,-15.41,-43.13,0,0,0,0,0,0,0,0,0,0,0,0,0,0,0,0,
342,-16.84,-96.22,-51.56,13.95,-46.31,37.8,-40.72,-22.3,-33.53,-23.96,-54.23,-23.77,-46.23,-39.55,-18.31,-36.98,0,0,0,0,0,0,0,0,0,0,0,0,0,0,0,0,
343,26.87,-4.463,-61.35,56.14,-34.22,-17.32,-12.45,13.17,-29.49,-23.99,8.456,11.38,-4.826,-5.272,0.301,-8.434,0,0,0,0,0,0,0,0,0,0,0,0,0,0,0,0,
344,24.1,141.0,-4.452,69.02,-0.0672,-41.87,1.326,16.18,2.229,-13.36,2.455,7.152,4.786,-3.791,29.02,18.62,0,0,0,0,0,0,0,0,0,0,0,0,0,0,0,0,
345,-35.92,48.83,-16.19,5.032,-24.79,-31.27,-36.31,-16.22,-18.77,-24.16,-51.45,-14.45,-28.55,-27.04,25.85,11.06,0,0,0,0,0,0,0,0,0,0,0,0,0,0,0,0,
346,-100.8,-128.8,-59.9,-73.15,-19.22,-2.9,-21.01,13.64,-40.29,-13.66,-23.54,16.63,-16.86,-1.901,15.25,2.538,0,0,0,0,0,0,0,0,0,0,0,0,0,0,0,0,
347,-67.5,-85.47,-12.42,-14.26,28.19,28.94,27.35,42.47,-2.599,19.49,32.68,32.2,17.41,25.93,37.94,20.52,0,0,0,0,0,0,0,0,0,0,0,0,0,0,0,0,
348,54.02,65.9,42.91,68.95,-3.327,3.723,21.09,16.49,5.039,15.71,20.69,2.706,-1.696,3.063,62.57,29.62,0,0,0,0,0,0,0,0,0,0,0,0,0,0,0,0,
349,83.16,69.89,13.52,49.83,-50.82,-41.63,-4.244,0.746,-28.25,-20.28,-14.3,-0.9471,-32.67,-16.45,50.02,10.76,0,0,0,0,0,0,0,0,0,0,0,0,0,0,0,0,
350,5.495,-10.41,-50.73,50.15,-16.54,-12.7,-5.067,3.96,-16.95,-24.35,-16.21,17.02,-27.03,-2.011,27.7,0.3357,0,0,0,0,0,0,0,0,0,0,0,0,0,0,0,0,
351,-23.58,-30.92,-59.26,31.8,7.163,36.69,5.586,9.778,0.152,6.243,-11.03,13.45,-21.14,6.502,22.88,15.38,0,0,0,0,0,0,0,0,0,0,0,0,0,0,0,0,
352,-11.11,-19.32,-8.733,-53.43,-5.517,11.92,-0.6087,10.38,-18.74,10.9,-26.98,2.966,-24.8,-2.609,16.81,24.45,0,0,0,0,0,0,0,0,0,0,0,0,0,0,0,0,
353,-24.25,0.8869,9.242,-12.02,7.748,-35.45,-18.08,0.1724,-14.8,-10.38,-32.53,7.252,-12.12,-1.823,10.64,15.74,0,0,0,0,0,0,0,0,0,0,0,0,0,0,0,0,
354,-32.39,7.642,-13.95,86.1,6.47,-37.24,3.584,17.84,1.913,-9.913,-8.065,16.64,0.2599,8.252,26.56,15.05,0,0,0,0,0,0,0,0,0,0,0,0,0,0,0,0,
355,-25.01,-24.4,-11.0,47.21,-21.16,-14.18,25.26,30.13,-8.207,-3.647,-3.151,12.54,-8.199,4.004,44.72,24.94,0,0,0,0,0,0,0,0,0,0,0,0,0,0,0,0,
356,-7.699,-15.45,8.397,3.353,-29.91,20.16,-14.08,-10.37,-14.7,-13.27,-36.73,1.061,-23.64,-7.685,38.15,20.21,0,0,0,0,0,0,0,0,0,0,0,0,0,0,0,0,
357,15.78,14.44,2.091,3.377,-29.77,32.39,-31.84,-14.68,-19.38,-14.88,-58.85,-3.0,-34.5,-12.96,18.49,-3.474,0,0,0,0,0,0,0,0,0,0,0,0,0,0,0,0,
358,8.986,-26.2,-40.17,-30.32,-9.698,-0.9954,5.771,35.03,-31.5,-15.6,-40.4,0.5626,-28.75,-11.72,3.808,-24.96,0,0,0,0,0,0,0,0,0,0,0,0,0,0,0,0,
359,-15.76,-42.59,-63.98,12.73,31.83,7.466,18.23,43.84,-10.78,-14.67,0.0707,20.26,0.3311,7.154,7.669,-21.86,0,0,0,0,0,0,0,0,0,0,0,0,0,0,0,0,
360,-15.57,6.299,-15.69,84.11,21.82,29.13,1.969,18.52,14.44,6.423,4.863,32.34,6.281,16.64,25.77,-0.9196,0,0,0,0,0,0,0,0,0,0,0,0,0,0,0,0,
361,-7.612,11.51,7.182,22.8,-38.21,-49.88,-24.91,-7.017,-17.58,-0.5309,-47.23,0.8272,-33.9,-13.8,19.79,2.297,0,0,0,0,0,0,0,0,0,0,0,0,0,0,0,0,
362,-27.8,-1.098,-42.09,-16.56,-55.03,-85.02,-47.61,-21.82,-53.52,-31.18,-63.01,-13.72,-46.28,-19.28,-7.977,-10.39,0,0,0,0,0,0,0,0,0,0,0,0,0,0,0,0,
363,-67.8,8.359,-38.14,46.1,-10.24,16.48,-9.593,16.39,-30.76,-7.947,-9.714,25.27,-11.48,18.25,-5.947,-5.157,0,0,0,0,0,0,0,0,0,0,0,0,0,0,0,0,
364,-61.2,-26.65,-3.255,20.26,20.84,64.16,31.42,54.84,-5.389,18.16,4.719,35.61,-5.818,15.68,16.28,3.676,0,0,0,0,0,0,0,0,0,0,0,0,0,0,0,0,
365,21.31,-57.27,-28.07,-41.0,-0.7039,30.48,2.253,31.22,-18.1,-11.66,-27.49,13.66,-18.39,-3.445,14.46,-2.211,0,0,0,0,0,0,0,0,0,0,0,0,0,0,0,0,
366,68.47,-8.25,-23.94,21.66,-19.16,24.21,-9.617,21.85,-18.46,-16.57,-19.42,23.9,3.821,20.3,6.357,7.118,0,0,0,0,0,0,0,0,0,0,0,0,0,0,0,0,
367,9.979,36.83,10.36,80.36,2.336,22.27,13.93,34.37,3.537,5.537,4.374,29.46,19.87,25.3,15.68,26.53,0,0,0,0,0,0,0,0,0,0,0,0,0,0,0,0,
368,-37.4,20.72,-14.79,41.61,11.67,15.43,-6.185,-0.2432,6.353,-5.505,0.8225,10.35,11.77,0.4401,22.6,18.11,0,0,0,0,0,0,0,0,0,0,0,0,0,0,0,0,
369,-6.219,4.417,-18.1,-4.299,-6.958,-0.1479,-22.3,-17.36,0.8354,4.258,-0.3925,11.44,16.56,4.86,17.07,-0.6204,0,0,0,0,0,0,0,0,0,0,0,0,0,0,0,0,
370,4.883,5.745,19.71,-29.7,-8.445,-36.51,2.54,20.8,6.804,33.42,-7.485,2.108,9.247,1.724,4.61,-3.744,0,0,0,0,0,0,0,0,0,0,0,0,0,0,0,0,
371,-50.3,-9.493,-12.72,-23.22,-8.888,-43.44,-0.0479,22.51,-7.396,-1.216,-34.2,-34.69,-25.82,-32.85,-12.03,-9.316,0,0,0,0,0,0,0,0,0,0,0,0,0,0,0,0,
372,-71.65,-31.16,-54.99,29.13,-31.62,-24.39,-19.29,-6.582,-40.85,-45.57,-32.4,-27.85,-27.29,-29.67,-13.98,-13.64,0,0,0,0,0,0,0,0,0,0,0,0,0,0,0,0,
373,-1.866,-38.59,-23.43,44.63,-27.68,11.02,-9.561,0.8164,-35.05,-20.16,-2.299,15.29,13.58,9.57,10.12,8.554,0,0,0,0,0,0,0,0,0,0,0,0,0,0,0,0,
374,25.78,-40.52,-3.103,3.595,9.778,39.5,-2.18,12.62,9.15,14.26,1.791,25.46,31.02,17.77,31.17,34.83,0,0,0,0,0,0,0,0,0,0,0,0,0,0,0,0,
375,-66.43,-48.28,-22.89,2.247,21.24,-4.966,-1.969,17.77,24.81,11.19,-6.951,18.61,17.54,3.125,22.99,28.86,0,0,0,0,0,0,0,0,0,0,0,0,0,0,0,0,
376,-81.59,-60.89,-28.02,37.19,-2.554,-22.56,14.94,42.83,4.357,8.338,-1.576,19.08,13.2,0.4214,-0.0521,3.82,0,0,0,0,0,0,0,0,0,0,0,0,0,0,0,0,
377,47.22,-45.63,-16.35,12.92,-20.66,27.73,17.89,42.47,-8.314,14.45,-7.698,7.26,13.78,-0.3588,-12.35,-8.733,0,0,0,0,0,0,0,0,0,0,0,0,0,0,0,0,
378,74.77,22.22,3.485,-30.82,-13.25,-1.584,-5.374,11.03,-7.158,10.56,-14.32,-2.519,7.358,-4.666,-4.381,-0.646,0,0,0,0,0,0,0,0,0,0,0,0,0,0,0,0,
379,-21.11,70.8,15.92,10.5,-2.614,-37.14,-16.26,1.672,-8.425,-6.496,-3.824,-3.158,1.556,-10.05,10.02,15.7,0,0,0,0,0,0,0,0,0,0,0,0,0,0,0,0,
380,-27.81,23.49,4.424,61.1,-14.44,4.426,-10.15,-1.136,-18.46,-28.65,-16.69,-11.97,-8.117,-19.3,4.222,18.64,0,0,0,0,0,0,0,0,0,0,0,0,0,0,0,0,
381,4.394,-46.15,-12.3,27.71,-19.47,-8.823,-4.257,-2.088,-26.41,-28.91,-42.65,-9.535,-10.28,-17.48,-17.94,2.725,0,0,0,0,0,0,0,0,0,0,0,0,0,0,0,0,
382,-47.57,-34.88,-22.11,1.42,6.215,-12.95,3.793,24.13,-12.06,-5.463,-30.82,4.763,8.173,-4.589,-24.97,-10.43,0,0,0,0,0,0,0,0,0,0,0,0,0,0,0,0,
383,-63.87,-6.466,-8.417,13.01,16.44,59.85,2.96,31.81,5.229,8.676,-8.607,3.378,21.2,0.975,-12.05,-4.943,0,0,0,0,0,0,0,0,0,0,0,0,0,0,0,0,
384,1.247,-56.94,6.462,-13.67,-1.363,49.58,-9.066,10.67,-0.7039,15.86,-12.54,-5.624,15.94,-1.328,1.94,8.078,0,0,0,0,0,0,0,0,0,0,0,0,0,0,0,0,
385,9.495,-96.62,-37.73,-27.91,-8.563,-17.65,-9.745,4.731,-8.402,14.53,-22.51,-19.86,2.907,-16.23,3.023,5.583,0,0,0,0,0,0,0,0,0,0,0,0,0,0,0,0,
386,-13.01,-27.31,-60.35,10.48,-20.15,-44.92,-13.09,-7.275,-15.02,-17.5,-31.65,-36.35,-17.45,-36.76,-16.94,-16.95,0,0,0,0,0,0,0,0,0,0,0,0,0,0,0,0,
387,28.67,48.27,4.681,16.9,-41.81,-77.18,-31.8,-21.28,-35.71,-37.67,-42.6,-23.34,-25.83,-29.72,-41.92,-31.75,0,0,0,0,0,0,0,0,0,0,0,0,0,0,0,0,
388,13.88,33.9,23.13,2.123,-19.24,-32.92,-23.0,4.994,-35.72,-12.32,-25.71,3.754,-2.121,-1.051,-39.17,-15.27,0,0,0,0,0,0,0,0,0,0,0,0,0,0,0,0,
389,-55.06,-20.61,-15.36,32.57,25.38,83.56,13.99,29.98,-0.6942,14.43,15.68,12.4,28.0,17.08,-11.63,17.3,0,0,0,0,0,0,0,0,0,0,0,0,0,0,0,0,
390,24.53,-43.84,10.57,58.8,11.14,71.56,27.07,26.35,19.54,20.13,27.18,21.16,35.45,21.57,8.649,38.17,0,0,0,0,0,0,0,0,0,0,0,0,0,0,0,0,
391,125.4,11.12,38.46,40.12,-25.82,0.0837,20.74,28.99,9.538,15.01,14.09,27.16,29.23,16.13,10.19,39.73,0,0,0,0,0,0,0,0,0,0,0,0,0,0,0,0,
392,45.05,84.41,9.207,14.8,-7.272,14.55,13.9,20.7,5.031,6.667,21.24,4.087,24.2,1.407,0.2419,27.33,0,0,0,0,0,0,0,0,0,0,0,0,0,0,0,0,
393,-26.92,57.1,-14.72,6.491,14.57,-2.943,-11.24,-13.29,7.722,3.493,16.51,-29.48,12.63,-17.28,-17.31,5.717,0,0,0,0,0,0,0,0,0,0,0,0,0,0,0,0,
394,-21.92,-11.69,-41.93,6.08,-16.93,-47.92,-38.81,-32.38,-9.999,-12.52,-26.02,-47.5,-12.69,-34.82,-39.24,-18.08,0,0,0,0,0,0,0,0,0,0,0,0,0,0,0,0,
395,-83.6,-45.9,-62.23,-13.52,-41.24,-21.95,-43.97,-29.43,-38.92,-30.55,-52.05,-46.61,-36.57,-38.89,-59.65,-34.53,0,0,0,0,0,0,0,0,0,0,0,0,0,0,0,0,
396,-84.28,-87.43,-29.96,-39.83,-39.03,-25.96,-38.99,-19.49,-51.93,-12.59,-42.77,-30.84,-45.71,-29.51,-71.99,-38.94,0,0,0,0,0,0,0,0,0,0,0,0,0,0,0,0,
397,21.6,-82.86,-6.23,-24.02,-52.8,-40.57,-31.45,-2.468,-55.56,-1.793,-33.49,-17.4,-46.97,-25.12,-72.76,-33.0,0,0,0,0,0,0,0,0,0,0,0,0,0,0,0,0,
398,9.41,-44.68,-17.26,-0.9397,-42.95,39.0,-31.56,6.482,-56.39,-25.3,-29.35,-10.92,-40.65,-22.88,-64.29,-20.65,0,0,0,0,0,0,0,0,0,0,0,0,0,0,0,0,
399,-61.61,-79.36,-14.77,-1.148,10.21,62.3,-39.87,4.29,-32.97,-18.69,-13.72,-1.905,-17.71,-11.22,-47.17,-4.127,0,0,0,0,0,0,0,0,0,0,0,0,0,0,0,0,
400,-0.2582,-56.24,-16.24,33.36,19.01,-35.74,-24.84,6.957,-1.491,10.86,4.291,-3.793,1.885,-5.87,-26.78,12.21,0,0,0,0,0,0,0,0,0,0,0,0,0,0,0,0,
401,62.83,83.72,-28.7,68.87,-24.64,-65.14,4.534,12.98,-7.256,1.445,5.287,-14.09,0.4711,-11.34,-17.4,21.76,0,0,0,0,0,0,0,0,0,0,0,0,0,0,0,0,
402,5.174,125.1,-21.0,32.09,-25.6,6.61,12.37,17.84,-20.4,-14.41,8.742,-5.194,9.171,-2.037,-13.55,30.88,0,0,0,0,0,0,0,0,0,0,0,0,0,0,0,0,
403,-27.75,41.62,-4.693,-3.651,12.47,51.62,6.052,12.65,5.706,7.895,29.35,10.6,32.26,18.64,-0.5678,47.27,0,0,0,0,0,0,0,0,0,0,0,0,0,0,0,0,
404,39.19,-33.45,18.11,21.88,7.068,44.79,-5.084,-7.667,23.4,29.22,30.85,6.673,26.38,16.46,3.372,52.23,0,0,0,0,0,0,0,0,0,0,0,0,0,0,0,0,
405,55.76,-47.32,38.79,36.23,-28.48,0.4167,-19.37,-14.59,-1.198,9.967,14.09,-14.55,4.885,-9.783,-20.8,27.3,0,0,0,0,0,0,0,0,0,0,0,0,0,0,0,0,
406,-38.21,4.995,16.46,3.955,-17.4,-58.53,-13.92,2.332,-13.12,-16.15,19.14,-31.77,9.989,-22.95,-50.28,-7.542,0,0,0,0,0,0,0,0,0,0,0,0,0,0,0,0,
407,-83.18,-21.16,-25.15,-11.68,29.76,-35.21,6.577,14.48,8.263,0.7366,28.03,-15.79,18.83,-5.726,-56.5,-16.22,0,0,0,0,0,0,0,0,0,0,0,0,0,0,0,0,
408,-25.48,-129.4,-39.25,3.367,28.03,51.65,-4.594,5.622,12.37,22.82,6.252,4.864,-1.592,2.825,-46.58,2.691,0,0,0,0,0,0,0,0,0,0,0,0,0,0,0,0,
409,24.45,-55.73,-26.91,-3.41,-33.28,44.64,-43.01,-10.42,-21.37,-11.88,-19.86,-16.65,-25.01,-18.85,-42.34,14.53,0,0,0,0,0,0,0,0,0,0,0,0,0,0,0,0,
410,43.61,67.88,-1.388,-11.46,-70.31,-27.51,-40.91,-6.318,-47.92,-46.52,-6.124,-25.44,-14.94,-18.33,-41.06,10.8,0,0,0,0,0,0,0,0,0,0,0,0,0,0,0,0,
411,14.09,-27.72,-8.857,4.148,-53.89,-33.75,-17.09,-2.562,-39.05,-21.33,23.69,3.799,7.365,8.829,-32.78,16.07,0,0,0,0,0,0,0,0,0,0,0,0,0,0,0,0,
412,-57.35,-78.47,-56.96,-1.259,-36.31,-20.42,-36.14,-30.43,-25.67,0.8084,23.65,1.743,11.85,6.139,-26.55,27.03,0,0,0,0,0,0,0,0,0,0,0,0,0,0,0,0,
413,-32.02,26.06,-52.11,-1.155,-24.57,-22.89,-33.28,-27.63,-15.06,-4.626,31.05,-9.373,21.49,-0.6458,-19.38,31.32,0,0,0,0,0,0,0,0,0,0,0,0,0,0,0,0,
414,16.14,13.26,9.661,8.015,1.85,-6.131,14.01,21.95,8.383,6.393,54.37,9.814,31.58,14.1,-6.937,36.82,0,0,0,0,0,0,0,0,0,0,0,0,0,0,0,0,
415,-55.46,-56.1,21.61,-35.31,5.313,-23.29,-0.1436,26.16,11.28,8.554,21.36,-0.3896,4.647,0.1089,-17.75,29.4,0,0,0,0,0,0,0,0,0,0,0,0,0,0,0,0,
416,-53.28,-37.26,-17.32,-22.89,-21.55,-52.0,-40.49,-4.043,-14.66,-11.34,-20.47,-25.66,-19.81,-20.65,-50.43,1.151,0,0,0,0,0,0,0,0,0,0,0,0,0,0,0,0,
417,45.41,-11.13,-28.1,83.13,-15.14,-1.821,-15.25,-1.086,-19.49,-4.113,16.55,-8.133,-1.508,1.049,-58.49,-10.44,0,0,0,0,0,0,0,0,0,0,0,0,0,0,0,0,
418,17.02,20.27,-0.6595,80.02,12.68,56.06,9.364,8.875,1.173,15.82,54.4,6.198,10.7,16.81,-39.32,8.249,0,0,0,0,0,0,0,0,0,0,0,0,0,0,0,0,
419,-8.827,37.1,17.16,-5.22,-6.951,40.68,-4.731,9.361,7.372,5.892,35.35,-6.863,-2.871,3.317,-24.41,28.47,0,0,0,0,0,0,0,0,0,0,0,0,0,0,0,0,
420,62.33,12.88,-1.95,-5.408,-29.66,17.11,-6.846,10.26,0.0957,-6.371,28.47,-13.34,-1.796,1.806,-15.53,37.89,0,0,0,0,0,0,0,0,0,0,0,0,0,0,0,0,
421,10.66,-4.183,-30.23,-18.25,-4.147,9.125,-6.025,-5.887,5.966,2.869,37.47,-23.94,4.601,1.553,-13.26,36.32,0,0,0,0,0,0,0,0,0,0,0,0,0,0,0,0,
422,-82.94,-67.96,-33.83,-62.83,-2.179,-38.69,-27.96,-22.71,6.975,-2.096,20.04,-28.04,-10.57,-13.49,-28.83,22.27,0,0,0,0,0,0,0,0,0,0,0,0,0,0,0,0,
423,-4.906,-95.86,-19.16,5.987,-34.12,-75.3,-46.71,-15.29,-13.15,-23.45,15.84,2.524,-11.47,-6.067,-43.79,14.3,0,0,0,0,0,0,0,0,0,0,0,0,0,0,0,0,
424,76.59,14.98,-10.81,89.17,-32.43,-24.05,-34.05,-0.5997,-14.6,-15.34,47.53,13.63,14.27,12.61,-35.43,24.87,0,0,0,0,0,0,0,0,0,0,0,0,0,0,0,0,
425,10.86,48.83,-18.68,49.73,-15.94,34.79,-3.376,9.996,-0.3874,-1.263,67.63,-10.5,21.5,3.865,-16.2,38.23,0,0,0,0,0,0,0,0,0,0,0,0,0,0,0,0,
426,-42.36,-14.75,-18.38,-11.86,-3.09,29.92,10.84,17.23,-3.549,-13.08,66.5,-0.8048,17.71,5.161,-0.2958,48.55,0,0,0,0,0,0,0,0,0,0,0,0,0,0,0,0,
427,-6.465,-3.593,-4.176,-20.38,12.06,-0.3815,-2.21,8.841,4.64,0.8203,62.73,15.34,27.25,23.56,11.38,54.44,0,0,0,0,0,0,0,0,0,0,0,0,0,0,0,0,
428,-7.898,-13.16,-7.854,-12.07,-1.429,-30.55,-19.07,-5.745,18.35,24.3,58.3,-9.117,28.03,10.41,12.01,36.72,0,0,0,0,0,0,0,0,0,0,0,0,0,0,0,0,
429,-29.97,-36.38,-5.89,-3.861,-12.71,-16.26,-10.9,-2.624,10.16,4.138,67.54,-9.196,26.24,-1.97,4.037,6.04,0,0,0,0,0,0,0,0,0,0,0,0,0,0,0,0,
430,27.2,-2.685,9.518,-6.752,-8.65,27.98,-1.917,-1.664,8.515,-5.58,63.85,4.797,18.47,0.4504,-10.12,-9.758,0,0,0,0,0,0,0,0,0,0,0,0,0,0,0,0,
431,33.76,-25.25,-27.92,-17.63,-38.8,-0.8306,-24.32,-13.46,-5.0,-6.375,22.52,-26.16,-14.4,-26.67,-35.86,-21.51,0,0,0,0,0,0,0,0,0,0,0,0,0,0,0,0,
432,-52.81,-13.88,-68.37,-8.404,-46.25,-29.95,-29.7,-4.238,-32.06,-37.26,21.63,-28.63,-11.98,-26.45,-42.59,-25.53,0,0,0,0,0,0,0,0,0,0,0,0,0,0,0,0,
433,-36.66,48.47,-26.56,23.13,-0.8981,24.1,-4.21,11.73,-8.32,-23.75,70.14,14.08,31.76,21.12,-10.55,0.5322,0,0,0,0,0,0,0,0,0,0,0,0,0,0,0,0,
434,13.54,-45.51,11.35,36.06,4.5,23.12,-4.847,8.096,19.52,16.96,66.66,12.46,29.89,18.37,7.711,19.8,0,0,0,0,0,0,0,0,0,0,0,0,0,0,0,0,
435,-49.6,-107.4,0.1346,-7.928,-25.95,-40.44,-19.07,4.681,-4.702,-2.22,29.97,-13.46,3.432,-16.69,-16.87,-1.13,0,0,0,0,0,0,0,0,0,0,0,0,0,0,0,0,
436,-45.17,23.53,-0.656,-44.68,-33.41,-31.05,-27.87,-13.05,-14.55,-18.74,27.31,-23.54,6.103,-18.98,-47.05,-26.78,0,0,0,0,0,0,0,0,0,0,0,0,0,0,0,0,
437,49.95,45.78,-16.32,1.349,-29.99,-9.288,-40.47,-37.89,-4.981,-8.794,29.73,-38.64,5.094,-23.44,-61.51,-32.7,0,0,0,0,0,0,0,0,0,0,0,0,0,0,0,0,
438,25.66,-39.77,-27.16,43.25,-13.78,-47.37,-14.29,-14.11,-14.91,-26.73,38.95,-24.21,10.75,-17.24,-51.5,-21.76,0,0,0,0,0,0,0,0,0,0,0,0,0,0,0,0,
439,-41.43,12.97,22.12,15.69,21.03,-31.67,26.71,19.92,1.8,-12.27,77.06,20.98,48.59,26.58,-7.378,16.58,0,0,0,0,0,0,0,0,0,0,0,0,0,0,0,0,
440,0.2829,60.95,27.61,-1.369,44.2,72.66,19.97,17.36,45.08,46.23,90.92,27.12,65.0,41.63,29.44,58.95,0,0,0,0,0,0,0,0,0,0,0,0,0,0,0,0,
441,44.81,-7.389,-32.63,13.12,33.24,104.2,12.74,20.76,45.17,46.74,60.08,7.968,40.25,14.07,11.77,51.68,0,0,0,0,0,0,0,0,0,0,0,0,0,0,0,0,
442,3.926,-21.98,-23.96,14.23,-2.934,8.539,10.41,17.69,11.31,4.932,34.83,11.26,19.84,2.855,-32.99,5.843,0,0,0,0,0,0,0,0,0,0,0,0,0,0,0,0,
443,-28.89,10.95,18.76,-3.756,-28.78,-44.01,-33.85,-14.22,-7.355,3.103,31.11,15.17,17.47,8.952,-50.36,-16.14,0,0,0,0,0,0,0,0,0,0,0,0,0,0,0,0,
444,-2.469,-10.88,-4.575,-5.69,-27.23,5.032,-49.25,-12.29,-12.32,18.17,31.04,2.818,20.73,4.66,-35.11,-6.13,0,0,0,0,0,0,0,0,0,0,0,0,0,0,0,0,
445,-9.601,-32.3,-28.79,41.65,-14.91,22.87,-9.877,15.92,-7.888,4.421,33.59,-7.583,22.16,-6.611,-19.19,-4.963,0,0,0,0,0,0,0,0,0,0,0,0,0,0,0,0,
446,-54.51,-32.21,-6.152,44.65,-11.47,-14.17,-4.683,9.072,-2.024,-15.27,33.23,-6.615,13.57,-12.58,-21.69,-15.9,0,0,0,0,0,0,0,0,0,0,0,0,0,0,0,0,
447,-31.86,-13.01,7.311,-31.48,-10.64,-25.66,-13.03,4.725,-13.09,-11.37,29.64,0.5429,15.1,-4.585,-28.36,-10.74,0,0,0,0,0,0,0,0,0,0,0,0,0,0,0,0,
448,3.675,55.53,-5.573,-11.98,15.23,1.398,19.32,26.36,-4.132,7.853,47.76,5.579,44.03,14.81,-17.36,9.904,0,0,0,0,0,0,0,0,0,0,0,0,0,0,0,0,
449,-3.703,69.63,-2.213,60.3,33.1,32.22,27.0,20.66,33.76,29.59,73.26,12.18,61.64,29.53,2.603,26.23,0,0,0,0,0,0,0,0,0,0,0,0,0,0,0,0,
450,46.97,-1.21,36.19,10.98,11.18,33.33,3.887,5.436,41.0,44.63,68.29,19.71,53.69,30.38,7.264,30.23,0,0,0,0,0,0,0,0,0,0,0,0,0,0,0,0,
451,92.87,-2.956,66.01,-10.78,17.69,21.3,14.08,20.58,34.13,34.58,55.19,11.42,50.75,19.3,-3.243,18.06,0,0,0,0,0,0,0,0,0,0,0,0,0,0,0,0,
452,11.35,30.39,41.5,50.65,38.79,33.19,16.93,19.3,38.63,5.641,52.67,-1.252,39.52,4.492,-15.07,-5.962,0,0,0,0,0,0,0,0,0,0,0,0,0,0,0,0,
453,-54.62,-16.28,-1.221,14.72,-3.17,45.41,-9.119,-0.2181,11.59,-6.814,40.93,7.001,19.01,1.291,-19.04,-19.18,0,0,0,0,0,0,0,0,0,0,0,0,0,0,0,0,
454,11.73,-20.11,1.072,-16.72,-28.77,34.81,-4.566,11.35,-9.668,7.785,36.54,22.87,29.47,14.41,-5.259,-7.093,0,0,0,0,0,0,0,0,0,0,0,0,0,0,0,0,
455,65.49,74.29,3.959,61.77,15.47,3.169,0.0268,11.98,15.75,26.22,42.41,21.92,40.19,20.78,13.91,13.36,0,0,0,0,0,0,0,0,0,0,0,0,0,0,0,0,
456,-21.42,90.42,-57.62,52.19,36.17,-36.88,-28.07,-18.52,19.51,25.99,21.76,-1.837,7.61,-2.453,2.361,8.948,0,0,0,0,0,0,0,0,0,0,0,0,0,0,0,0,
457,-112.8,-14.88,-86.62,-47.32,4.897,-34.04,-28.8,-13.91,-15.38,6.654,-4.868,-24.56,-18.59,-29.04,-38.29,-25.86,0,0,0,0,0,0,0,0,0,0,0,0,0,0,0,0,
458,-19.33,-57.64,-11.13,-29.01,-27.95,-2.665,-5.766,16.6,-31.21,-5.453,6.678,-1.345,5.466,-11.16,-58.59,-43.46,0,0,0,0,0,0,0,0,0,0,0,0,0,0,0,0,
459,101.4,12.79,48.6,64.77,-21.77,9.532,7.543,31.61,-5.946,11.34,39.89,41.98,43.05,29.01,-35.79,-11.47,0,0,0,0,0,0,0,0,0,0,0,0,0,0,0,0,
460,24.77,7.255,34.6,67.28,14.72,52.05,18.84,32.71,27.87,33.17,47.74,24.19,41.64,24.91,-8.62,20.44,0,0,0,0,0,0,0,0,0,0,0,0,0,0,0,0,
461,-61.62,-79.06,-0.331,7.859,14.89,96.11,-1.354,2.709,15.18,26.37,18.15,-24.69,11.87,-5.726,-13.56,7.742,0,0,0,0,0,0,0,0,0,0,0,0,0,0,0,0,
462,3.324,-18.54,-30.2,4.06,-5.758,50.97,-23.2,-12.05,-11.38,11.8,5.143,-12.24,14.2,2.196,-26.9,-12.27,0,0,0,0,0,0,0,0,0,0,0,0,0,0,0,0,
463,41.06,116.8,-7.226,37.61,6.618,-8.615,9.202,27.53,12.26,14.98,27.78,17.89,35.98,19.09,-21.55,-13.32,0,0,0,0,0,0,0,0,0,0,0,0,0,0,0,0,
464,8.562,97.62,31.65,28.59,8.843,-21.35,14.69,24.72,24.39,9.306,22.2,-5.266,20.48,-0.0642,-21.2,-23.03,0,0,0,0,0,0,0,0,0,0,0,0,0,0,0,0,
465,22.04,36.13,10.9,12.09,9.6,-23.95,-14.64,-6.598,3.161,-0.8618,9.509,-12.82,13.48,-1.629,-30.32,-34.19,0,0,0,0,0,0,0,0,0,0,0,0,0,0,0,0,
466,42.96,47.93,21.66,41.14,43.11,2.844,15.61,26.28,23.96,15.59,46.87,17.77,44.15,24.3,-16.55,-19.15,0,0,0,0,0,0,0,0,0,0,0,0,0,0,0,0,
467,12.59,24.25,55.22,57.31,37.79,34.98,35.62,32.15,40.76,21.62,58.09,7.609,38.27,14.72,5.45,-4.502,0,0,0,0,0,0,0,0,0,0,0,0,0,0,0,0,
468,-14.29,-19.23,-1.948,19.53,0.8094,43.09,-2.97,-11.07,6.906,6.701,16.23,-5.793,7.708,-0.1253,0.7287,-13.94,0,0,0,0,0,0,0,0,0,0,0,0,0,0,0,0,
469,11.65,-46.25,-35.87,-24.54,-6.81,66.49,-6.645,1.563,-2.962,15.0,3.391,22.45,9.97,14.99,-18.33,-27.03,0,0,0,0,0,0,0,0,0,0,0,0,0,0,0,0,
470,35.73,-81.48,1.25,-26.88,-30.35,52.26,2.804,15.89,-2.006,14.85,4.882,19.02,3.894,9.834,-32.51,-38.65,0,0,0,0,0,0,0,0,0,0,0,0,0,0,0,0,
471,5.026,-4.077,-27.5,19.44,-59.08,-14.37,-20.05,-6.013,-33.69,-11.03,-18.25,-2.615,-19.79,-4.151,-43.25,-54.48,0,0,0,0,0,0,0,0,0,0,0,0,0,0,0,0,
472,-21.12,127.1,-69.71,56.21,-32.82,-41.93,-23.58,1.672,-39.88,-9.267,-28.76,7.085,-19.45,5.467,-50.35,-63.16,0,0,0,0,0,0,0,0,0,0,0,0,0,0,0,0,
473,-31.77,94.83,-39.23,44.63,9.706,-27.62,-9.726,9.521,-12.34,7.17,-4.212,10.55,1.382,14.78,-40.08,-55.68,0,0,0,0,0,0,0,0,0,0,0,0,0,0,0,0,
474,-37.43,24.84,-5.573,53.14,31.23,24.06,14.17,11.99,16.17,20.95,49.27,27.1,37.49,36.89,5.344,-20.84,0,0,0,0,0,0,0,0,0,0,0,0,0,0,0,0,
475,28.78,11.56,17.44,65.25,28.41,77.24,45.57,46.48,44.11,51.28,78.64,62.22,59.33,61.26,54.97,27.53,0,0,0,0,0,0,0,0,0,0,0,0,0,0,0,0,
476,60.6,-76.96,40.55,0.6858,13.41,44.63,27.94,59.26,41.77,56.61,38.09,50.99,36.08,44.93,50.43,38.46,0,0,0,0,0,0,0,0,0,0,0,0,0,0,0,0,
477,-23.69,-85.85,35.37,-21.63,33.08,26.05,0.7638,38.35,26.33,35.87,6.992,27.22,23.7,29.1,9.594,13.88,0,0,0,0,0,0,0,0,0,0,0,0,0,0,0,0,
478,-24.18,61.61,30.97,60.52,60.29,64.57,29.17,29.54,43.83,40.53,32.67,23.22,40.7,30.81,-12.3,-0.3793,0,0,0,0,0,0,0,0,0,0,0,0,0,0,0,0,
479,54.6,93.89,37.69,72.43,42.69,28.17,43.57,23.91,49.14,40.25,26.34,-6.452,25.68,4.933,-22.51,-13.61,0,0,0,0,0,0,0,0,0,0,0,0,0,0,0,0,
480,34.24,19.84,-0.2099,7.697,15.12,7.301,7.127,7.87,19.29,12.74,-31.62,-34.01,-15.55,-24.22,-46.92,-47.2,0,0,0,0,0,0,0,0,0,0,0,0,0,0,0,0,
481,-7.323,-7.774,-67.82,3.77,0.6377,74.45,-15.95,-5.184,3.984,0.4793,-48.39,-20.45,-24.99,-14.89,-66.91,-67.66,0,0,0,0,0,0,0,0,0,0,0,0,0,0,0,0,
482,-1.054,-24.52,-55.97,25.32,0.1615,53.25,-3.014,0.0389,14.69,12.94,-1.115,5.488,3.284,14.53,-51.45,-44.4,0,0,0,0,0,0,0,0,0,0,0,0,0,0,0,0,
483,21.24,31.09,35.41,32.9,14.85,-29.73,11.07,5.66,26.87,24.15,30.65,17.5,21.49,26.06,-12.78,-4.65,0,0,0,0,0,0,0,0,0,0,0,0,0,0,0,0,
484,49.11,108.3,62.12,43.48,14.34,-15.38,10.99,-8.67,22.93,15.73,17.36,7.523,13.21,14.81,7.198,8.351,0,0,0,0,0,0,0,0,0,0,0,0,0,0,0,0,
485,-3.818,19.98,15.22,10.92,20.02,32.51,17.0,3.064,19.9,11.68,13.62,4.634,19.77,21.11,3.679,0.691,0,0,0,0,0,0,0,0,0,0,0,0,0,0,0,0,
486,-66.31,-67.75,12.19,-19.82,47.73,24.66,22.26,36.4,39.17,37.42,21.77,31.31,32.98,42.17,-3.768,-1.083,0,0,0,0,0,0,0,0,0,0,0,0,0,0,0,0,
487,16.61,11.53,41.79,26.64,43.79,9.721,14.19,32.6,45.59,48.55,12.79,45.29,18.26,36.34,-16.65,-4.287,0,0,0,0,0,0,0,0,0,0,0,0,0,0,0,0,
488,103.7,67.71,47.19,60.52,29.93,45.17,27.4,30.93,32.94,34.3,11.13,35.26,5.834,24.77,-27.67,-11.89,0,0,0,0,0,0,0,0,0,0,0,0,0,0,0,0,
489,75.11,12.8,28.78,30.0,33.98,82.45,45.73,42.73,32.75,37.41,12.8,29.0,-0.8751,21.83,-25.16,-11.06,0,0,0,0,0,0,0,0,0,0,0,0,0,0,0,0,
490,35.07,-24.1,-2.15,19.04,7.525,38.28,30.07,20.38,20.07,33.22,7.997,21.01,-14.95,6.889,-20.27,-9.266,0,0,0,0,0,0,0,0,0,0,0,0,0,0,0,0,
491,16.59,38.66,9.129,40.58,-11.14,-28.36,19.78,7.74,3.987,8.72,27.77,15.05,2.57,2.861,-12.07,-5.667,0,0,0,0,0,0,0,0,0,0,0,0,0,0,0,0,
492,-6.561,109.0,46.48,39.93,18.15,-20.26,15.72,9.205,24.57,2.911,30.6,14.46,21.39,6.773,-2.633,5.29,0,0,0,0,0,0,0,0,0,0,0,0,0,0,0,0,
493,-28.36,8.49,16.36,1.396,21.74,22.95,-5.543,-16.5,29.56,5.72,-18.41,1.055,-10.29,-9.632,-18.79,-0.2444,0,0,0,0,0,0,0,0,0,0,0,0,0,0,0,0,
494,-27.81,-119.4,-23.54,-46.05,6.096,32.92,2.968,-9.209,3.644,12.59,-34.32,-2.987,-25.27,-8.39,-45.84,-20.22,0,0,0,0,0,0,0,0,0,0,0,0,0,0,0,0,
495,19.45,-17.37,7.105,-35.62,33.79,9.213,27.89,28.37,18.41,35.44,-2.485,14.66,2.674,16.03,-43.96,-20.34,0,0,0,0,0,0,0,0,0,0,0,0,0,0,0,0,
496,54.11,82.41,35.5,25.35,45.47,-2.705,19.57,19.35,43.93,32.8,-11.12,11.1,-2.718,8.028,-34.18,-12.32,0,0,0,0,0,0,0,0,0,0,0,0,0,0,0,0,
497,36.96,-2.559,26.4,37.38,8.274,18.9,13.28,5.491,18.27,5.424,-37.06,-9.709,-24.84,-10.91,-45.97,-23.64,0,0,0,0,0,0,0,0,0,0,0,0,0,0,0,0,
498,22.18,-24.84,15.87,-1.991,7.222,23.21,23.19,22.94,6.748,7.012,-9.258,-3.153,-1.047,7.774,-49.82,-29.93,0,0,0,0,0,0,0,0,0,0,0,0,0,0,0,0,
499,9.621,4.684,6.864,-8.057,48.93,20.33,27.62,25.28,43.32,26.31,28.92,26.39,28.51,38.5,-21.83,-2.103,0,0,0,0,0,0,0,0,0,0,0,0,0,0,0,0,
500,13.83,-21.41,24.44,34.65,53.08,70.09,41.67,24.35,57.24,34.76,30.37,54.72,31.56,56.11,17.12,43.74,0,0,0,0,0,0,0,0,0,0,0,0,0,0,0,0,
501,69.41,54.77,71.38,58.11,19.28,81.68,46.28,30.16,40.03,43.38,9.989,60.12,29.18,54.78,32.88,66.26,0,0,0,0,0,0,0,0,0,0,0,0,0,0,0,0,
502,65.66,105.8,64.48,2.505,7.117,-13.93,16.67,9.982,28.22,48.4,-23.08,39.66,11.98,30.84,4.341,42.87,0,0,0,0,0,0,0,0,0,0,0,0,0,0,0,0,
503,-28.56,-17.89,-5.015,-50.64,34.74,-63.21,0.826,1.55,22.84,46.95,-35.5,34.86,-3.284,21.69,-38.81,8.928,0,0,0,0,0,0,0,0,0,0,0,0,0,0,0,0,
504,-38.58,-40.87,-18.92,6.409,51.36,2.309,9.782,18.15,30.83,43.86,-15.45,31.36,7.495,24.2,-48.83,5.111,0,0,0,0,0,0,0,0,0,0,0,0,0,0,0,0,
505,46.35,61.83,36.23,72.55,13.48,40.89,5.711,6.431,31.94,18.79,-10.37,-4.109,12.96,1.165,-36.84,11.06,0,0,0,0,0,0,0,0,0,0,0,0,0,0,0,0,
506,48.74,44.18,33.5,39.89,-10.16,30.17,20.72,5.944,15.67,-2.987,-3.016,-1.612,23.24,1.78,-24.4,16.0,0,0,0,0,0,0,0,0,0,0,0,0,0,0,0,0,
507,-28.47,-21.28,-33.07,-13.02,22.95,36.18,47.85,32.43,29.29,19.39,13.43,30.73,42.08,25.83,-6.816,34.52,0,0,0,0,0,0,0,0,0,0,0,0,0,0,0,0,
508,-34.96,-12.34,-48.91,-21.82,22.88,8.148,10.69,6.415,41.09,25.46,-19.18,9.159,19.91,4.338,-3.697,38.66,0,0,0,0,0,0,0,0,0,0,0,0,0,0,0,0,
509,33.92,6.189,-0.0481,-6.141,-20.07,-19.97,-31.06,-21.46,5.837,-9.065,-46.61,0.5743,-7.224,-9.916,-22.05,23.73,0,0,0,0,0,0,0,0,0,0,0,0,0,0,0,0,
510,46.77,-15.73,36.46,-13.46,-33.12,7.24,-8.245,5.998,-17.73,-11.98,-28.58,22.48,-8.698,3.903,-37.66,19.37,0,0,0,0,0,0,0,0,0,0,0,0,0,0,0,0,
511,-20.37,-72.88,16.42,-60.81,-21.06,-31.36,-2.618,2.197,-19.27,-2.498,-38.99,-8.066,-20.86,-16.7,-46.66,7.263,0,0,0,0,0,0,0,0,0,0,0,0,0,0,0,0,
512,-44.84,-72.1,-16.6,-48.68,14.2,-74.62,-14.17,-18.59,-8.915,-10.47,-38.24,-9.684,-2.126,-8.596,-38.32,-2.527,0,0,0,0,0,0,0,0,0,0,0,0,0,0,0,0,
513,4.413,22.18,6.38,32.43,50.27,31.39,23.05,11.37,42.37,20.21,14.71,51.52,45.12,43.83,-2.571,33.98,0,0,0,0,0,0,0,0,0,0,0,0,0,0,0,0,
514,30.16,41.73,38.8,43.92,28.87,88.35,53.84,34.71,69.56,52.0,27.61,49.22,40.73,39.14,26.58,73.5,0,0,0,0,0,0,0,0,0,0,0,0,0,0,0,0,
515,0.0597,-21.85,13.56,10.74,4.918,-2.789,38.11,17.32,40.24,27.75,-6.727,1.542,13.25,4.242,25.23,62.01,0,0,0,0,0,0,0,0,0,0,0,0,0,0,0,0,
516,-46.35,6.594,-10.72,2.814,12.85,-31.9,9.573,-5.666,21.55,7.945,-32.88,-1.231,-0.2269,0.0723,1.763,28.33,0,0,0,0,0,0,0,0,0,0,0,0,0,0,0,0,
517,-33.74,26.19,6.099,-37.52,-3.808,-0.8573,-1.604,0.9785,9.643,20.74,-37.56,30.25,-6.654,15.26,-20.78,16.92,0,0,0,0,0,0,0,0,0,0,0,0,0,0,0,0,
518,55.31,-70.34,25.16,-49.72,-8.434,4.95,14.01,29.21,4.303,37.1,-9.034,55.8,17.4,43.21,-9.007,40.09,0,0,0,0,0,0,0,0,0,0,0,0,0,0,0,0,
519,63.29,-58.11,40.97,14.14,28.74,32.62,20.54,18.34,29.57,42.73,14.27,43.14,35.36,46.09,22.93,65.68,0,0,0,0,0,0,0,0,0,0,0,0,0,0,0,0,
520,-12.42,73.26,53.7,27.05,46.83,21.51,20.24,-2.795,41.93,31.33,10.42,27.32,22.33,26.17,30.62,59.56,0,0,0,0,0,0,0,0,0,0,0,0,0,0,0,0,
521,17.06,63.49,44.44,-2.73,35.74,-36.35,29.33,8.757,40.55,23.92,2.811,34.25,17.55,23.51,14.6,37.39,0,0,0,0,0,0,0,0,0,0,0,0,0,0,0,0,
522,49.69,-32.73,28.24,-7.168,16.93,-18.83,4.468,-3.031,37.64,16.62,-27.69,6.328,2.783,4.969,-10.95,8.502,0,0,0,0,0,0,0,0,0,0,0,0,0,0,0,0,
523,-25.37,-43.49,26.72,-54.36,13.58,21.98,2.571,0.3412,16.23,-0.3879,-37.78,-22.29,-9.412,-10.89,-31.09,-23.67,0,0,0,0,0,0,0,0,0,0,0,0,0,0,0,0,
524,-26.51,-11.65,29.64,-91.88,37.56,-6.27,54.21,33.39,22.68,11.76,7.431,-12.19,8.566,3.796,-26.45,-28.96,0,0,0,0,0,0,0,0,0,0,0,0,0,0,0,0,
525,25.17,11.3,28.52,-34.89,32.25,-20.04,29.24,-10.27,40.57,17.07,12.77,-28.14,-5.251,-18.1,-23.5,-22.86,0,0,0,0,0,0,0,0,0,0,0,0,0,0,0,0,
526,11.02,-1.277,45.94,6.25,-4.752,2.277,-17.73,-44.24,11.16,-22.31,-8.519,-33.53,-25.48,-39.09,-36.34,-33.68,0,0,0,0,0,0,0,0,0,0,0,0,0,0,0,0,
527,24.86,-12.28,74.73,2.196,-5.683,-23.83,31.63,13.38,-0.5439,-25.9,18.2,6.1,5.877,0.8299,-24.58,-27.9,0,0,0,0,0,0,0,0,0,0,0,0,0,0,0,0,
528,37.92,55.57,60.28,23.86,17.37,-36.41,39.76,16.35,24.44,3.213,16.49,16.5,15.33,21.47,3.661,5.076,0,0,0,0,0,0,0,0,0,0,0,0,0,0,0,0,
529,-3.956,61.02,18.95,13.79,31.97,23.39,-11.9,-19.94,29.95,2.595,-15.24,22.91,1.915,18.85,10.27,32.36,0,0,0,0,0,0,0,0,0,0,0,0,0,0,0,0,
530,17.17,-36.94,19.39,-31.09,38.51,22.07,21.54,10.17,40.95,18.3,11.82,47.6,26.64,40.17,15.58,46.81,0,0,0,0,0,0,0,0,0,0,0,0,0,0,0,0,
531,60.73,-38.94,45.71,-40.84,20.04,-46.96,59.01,18.45,51.38,43.63,29.09,26.77,25.25,30.53,25.02,42.53,0,0,0,0,0,0,0,0,0,0,0,0,0,0,0,0,
532,-3.602,-51.09,41.04,-66.61,-4.296,-44.04,14.14,-12.61,24.41,18.51,-24.79,-1.02,-25.71,-5.922,-1.323,9.909,0,0,0,0,0,0,0,0,0,0,0,0,0,0,0,0,
533,-79.67,-164.1,8.068,-92.58,-0.6383,-4.632,-7.507,-3.583,4.738,-8.718,-53.93,10.02,-44.02,-6.062,-46.99,-21.48,0,0,0,0,0,0,0,0,0,0,0,0,0,0,0,0,
534,-19.5,-73.53,6.323,-29.86,7.416,3.094,17.12,10.19,9.959,-3.413,-19.08,13.86,-24.21,8.42,-52.53,-17.68,0,0,0,0,0,0,0,0,0,0,0,0,0,0,0,0,
535,72.1,129.4,50.2,27.9,-0.8545,-5.536,16.41,-9.443,8.201,-4.924,0.1144,-3.703,-20.87,1.118,-22.42,6.655,0,0,0,0,0,0,0,0,0,0,0,0,0,0,0,0,
536,14.01,52.91,45.23,0.5876,-10.55,-39.21,-4.376,-34.53,-2.85,-16.93,-22.17,-20.1,-34.82,-13.41,-7.863,10.43,0,0,0,0,0,0,0,0,0,0,0,0,0,0,0,0,
537,-60.39,-95.25,-10.49,-29.35,-11.07,-50.03,-5.193,-32.78,-9.777,-20.02,-34.26,-14.37,-32.7,-11.04,-17.45,-11.8,0,0,0,0,0,0,0,0,0,0,0,0,0,0,0,0,
538,12.52,-41.8,5.729,-50.94,-15.58,-29.7,2.511,-12.25,-1.183,-15.49,-30.94,-6.21,-22.5,-8.615,-31.03,-33.44,0,0,0,0,0,0,0,0,0,0,0,0,0,0,0,0,
539,49.22,-45.41,47.13,-82.63,-36.95,-52.09,-14.14,-27.95,-0.9198,-19.11,-35.33,-32.72,-32.09,-30.72,-47.68,-49.13,0,0,0,0,0,0,0,0,0,0,0,0,0,0,0,0,
540,-35.89,-148.3,25.59,-59.23,-29.29,-60.04,-17.57,-39.78,-15.43,-26.1,-12.4,-26.34,-22.55,-21.66,-49.23,-47.67,0,0,0,0,0,0,0,0,0,0,0,0,0,0,0,0,
541,-62.11,-46.18,27.83,-5.361,33.09,-8.204,32.12,19.83,17.55,-4.995,35.67,35.39,24.23,35.53,-10.69,-4.324,0,0,0,0,0,0,0,0,0,0,0,0,0,0,0,0,
542,-7.17,126.8,52.02,2.852,49.85,8.367,52.42,43.51,63.4,17.14,30.98,30.64,27.96,38.52,24.81,34.98,0,0,0,0,0,0,0,0,0,0,0,0,0,0,0,0,
543,19.81,56.34,26.69,5.289,-10.45,-30.69,11.15,-10.97,31.05,-3.523,-6.748,-16.57,-8.945,-4.642,10.83,13.21,0,0,0,0,0,0,0,0,0,0,0,0,0,0,0,0,
544,-4.515,-66.44,15.51,13.42,-14.86,-54.15,12.55,-11.99,-2.073,-18.45,4.099,7.563,-2.747,7.265,-14.21,-21.09,0,0,0,0,0,0,0,0,0,0,0,0,0,0,0,0,
545,-41.08,-58.06,23.05,-44.27,34.98,-27.38,35.09,11.7,27.96,2.094,11.83,26.15,5.668,26.41,-17.42,-20.46,0,0,0,0,0,0,0,0,0,0,0,0,0,0,0,0,
546,-41.67,-95.78,8.284,-103.6,7.084,12.05,-13.33,-30.42,25.55,11.65,-34.26,-6.026,-29.17,-0.3668,-25.72,-18.74,0,0,0,0,0,0,0,0,0,0,0,0,0,0,0,0,
547,-14.09,-88.77,22.54,-57.87,-46.85,2.31,-39.41,-41.55,-13.63,2.974,-44.73,-1.732,-39.31,-8.885,-45.19,-26.88,0,0,0,0,0,0,0,0,0,0,0,0,0,0,0,0,
548,10.44,106.3,36.31,-0.9435,-28.84,-45.13,11.61,-2.624,-13.93,-11.19,-6.373,2.997,-26.54,-5.498,-53.67,-28.73,0,0,0,0,0,0,0,0,0,0,0,0,0,0,0,0,
549,16.49,174.9,14.27,-7.566,-5.085,-67.33,18.28,-14.81,-6.316,-32.32,-9.231,-29.8,-34.98,-21.03,-44.62,-33.84,0,0,0,0,0,0,0,0,0,0,0,0,0,0,0,0,
550,-7.901,51.48,30.98,-3.276,-10.37,-29.53,-17.88,-31.47,-10.2,-32.07,-33.06,-18.69,-27.88,-9.006,-21.15,-34.2,0,0,0,0,0,0,0,0,0,0,0,0,0,0,0,0,
551,-12.93,16.49,52.18,-24.83,-5.955,12.92,-5.279,0.0418,4.914,-10.27,-30.61,6.833,-14.16,8.0,-1.253,-21.23,0,0,0,0,0,0,0,0,0,0,0,0,0,0,0,0,
552,9.669,-13.62,13.72,-97.57,-7.983,-22.01,12.29,9.541,8.604,-4.885,-32.75,-18.71,-32.89,-17.04,-7.29,-22.76,0,0,0,0,0,0,0,0,0,0,0,0,0,0,0,0,
553,-6.285,-74.96,-3.551,-74.45,-15.21,-49.84,4.02,-8.352,-7.085,-12.83,-25.82,-28.15,-37.02,-29.22,-24.02,-37.42,0,0,0,0,0,0,0,0,0,0,0,0,0,0,0,0,
554,-6.588,48.25,34.18,22.96,-3.647,-0.7878,17.86,-12.1,1.71,-12.88,9.274,-2.011,-9.446,-3.224,-19.73,-24.32,0,0,0,0,0,0,0,0,0,0,0,0,0,0,0,0,
555,42.78,165.1,72.51,33.93,10.69,-3.879,34.98,-9.944,23.59,0.0621,19.56,9.145,0.7523,14.47,2.086,20.16,0,0,0,0,0,0,0,0,0,0,0,0,0,0,0,0,
556,22.87,48.5,75.87,-8.687,19.82,-52.47,17.76,-7.885,26.45,14.1,-7.571,16.29,-11.9,12.17,11.41,53.81,0,0,0,0,0,0,0,0,0,0,0,0,0,0,0,0,
557,-49.48,-56.6,24.94,-30.83,12.79,-25.46,-10.27,-16.01,13.08,2.635,-30.21,26.94,-21.19,6.361,-4.405,51.0,0,0,0,0,0,0,0,0,0,0,0,0,0,0,0,0,
558,-44.07,-17.45,-13.4,-46.94,-9.524,10.35,-6.975,-19.63,-1.54,-10.18,-30.86,25.29,-11.02,9.496,-25.34,30.71,0,0,0,0,0,0,0,0,0,0,0,0,0,0,0,0,
559,-7.449,-3.876,15.51,-51.7,-2.27,3.153,25.22,12.03,3.612,12.6,-18.77,9.885,6.898,12.8,-30.01,13.96,0,0,0,0,0,0,0,0,0,0,0,0,0,0,0,0,
560,-22.39,-27.53,25.98,-42.66,16.25,-12.14,23.85,17.49,18.63,23.9,-16.85,-19.36,1.754,-5.19,-23.52,-1.323,0,0,0,0,0,0,0,0,0,0,0,0,0,0,0,0,
561,-15.77,43.12,12.55,-13.66,-2.104,-52.14,-6.655,-23.87,14.38,2.645,-20.58,-27.56,-6.241,-17.41,-17.41,-5.885,0,0,0,0,0,0,0,0,0,0,0,0,0,0,0,0,
562,39.5,135.2,39.32,15.89,-19.3,-57.82,4.251,-23.48,9.348,-0.3712,-4.24,-3.05,9.75,-3.856,-10.56,10.36,0,0,0,0,0,0,0,0,0,0,0,0,0,0,0,0,
563,43.88,69.33,41.28,-7.56,-9.009,8.162,24.07,2.629,18.01,3.227,10.84,-1.13,17.99,-2.035,-1.549,25.36,0,0,0,0,0,0,0,0,0,0,0,0,0,0,0,0,
564,3.353,-42.64,14.86,-27.09,5.127,23.93,18.91,-0.0422,17.81,-9.701,0.181,-17.04,11.08,-9.981,6.03,26.88,0,0,0,0,0,0,0,0,0,0,0,0,0,0,0,0,
565,-13.47,-35.69,22.63,-22.19,16.45,-35.59,23.99,-1.48,10.35,-4.367,-28.01,-8.51,2.986,-5.322,2.866,26.69,0,0,0,0,0,0,0,0,0,0,0,0,0,0,0,0,
566,-46.09,-50.9,9.133,-75.73,8.21,-53.42,-0.196,-17.26,3.708,8.44,-60.67,-0.4056,-16.51,-8.744,-19.34,20.59,0,0,0,0,0,0,0,0,0,0,0,0,0,0,0,0,
567,-58.33,-62.55,-3.931,-80.24,-16.51,-11.08,-39.24,-36.14,-5.213,0.6845,-54.57,-0.9209,-20.71,-12.09,-38.8,10.89,0,0,0,0,0,0,0,0,0,0,0,0,0,0,0,0,
568,20.55,89.58,33.39,33.41,-19.78,7.685,-5.896,-1.022,-7.468,-7.586,-14.38,14.47,3.232,3.004,-26.76,17.45,0,0,0,0,0,0,0,0,0,0,0,0,0,0,0,0,
569,50.9,144.9,19.12,64.32,0.1541,-3.249,31.93,23.47,1.371,-5.197,-10.96,23.39,13.76,13.43,-1.319,32.65,0,0,0,0,0,0,0,0,0,0,0,0,0,0,0,0,
570,-15.1,9.865,-8.809,-3.812,18.64,18.58,16.37,0.7418,20.3,8.506,-16.46,6.029,11.64,9.516,8.593,36.6,0,0,0,0,0,0,0,0,0,0,0,0,0,0,0,0,
571,-16.83,-11.6,42.0,-28.07,4.715,22.82,6.776,-10.31,22.67,13.78,2.054,-12.66,7.387,-5.019,5.618,28.44,0,0,0,0,0,0,0,0,0,0,0,0,0,0,0,0,
572,7.483,-8.588,26.54,-49.04,-24.02,-42.33,-4.352,-16.17,-8.973,-12.28,-15.87,-13.98,-6.81,-19.33,-6.417,12.92,0,0,0,0,0,0,0,0,0,0,0,0,0,0,0,0,
573,-25.93,-84.07,-50.66,-55.36,-3.464,-62.46,-5.738,-13.5,-8.877,-20.44,-29.31,-13.0,0.6849,-14.93,-21.04,2.848,0,0,0,0,0,0,0,0,0,0,0,0,0,0,0,0,
574,-0.8034,22.15,-9.699,-6.312,9.226,-32.67,20.31,0.4736,24.95,-3.19,1.952,-23.45,17.6,-14.34,-20.46,9.762,0,0,0,0,0,0,0,0,0,0,0,0,0,0,0,0,
575,46.5,141.4,51.66,-15.87,-28.26,-56.46,2.762,-21.22,7.819,-18.88,-8.736,-21.58,6.026,-20.64,-7.777,26.53,0,0,0,0,0,0,0,0,0,0,0,0,0,0,0,0,
576,-5.148,26.03,24.32,-47.81,5.48,-32.41,-13.65,-28.14,-8.12,-21.42,-26.32,-0.1538,5.638,-3.531,1.958,42.76,0,0,0,0,0,0,0,0,0,0,0,0,0,0,0,0,
577,-44.72,-16.44,8.584,6.273,61.71,68.83,24.21,1.808,25.75,16.63,8.464,-0.4975,12.56,-1.264,-0.5287,40.79,0,0,0,0,0,0,0,0,0,0,0,0,0,0,0,0,
578,-15.8,42.59,-11.4,13.38,-5.55,55.9,14.01,-7.66,11.64,7.454,-4.801,-19.85,-19.34,-31.32,-20.72,12.86,0,0,0,0,0,0,0,0,0,0,0,0,0,0,0,0,
579,-10.49,-68.83,-49.88,-78.27,-63.48,-51.09,-21.28,-14.94,-34.72,-28.5,-45.48,-10.55,-34.27,-26.34,-33.67,2.588,0,0,0,0,0,0,0,0,0,0,0,0,0,0,0,0,
580,-4.956,-111.8,1.095,-68.66,-12.6,-76.81,3.311,10.1,-20.97,-11.37,-7.7,14.66,1.836,10.01,-8.289,40.59,0,0,0,0,0,0,0,0,0,0,0,0,0,0,0,0,
581,28.12,71.92,58.1,53.31,14.97,-25.92,9.588,-6.1,11.06,7.449,22.47,13.77,15.67,10.92,23.86,75.58,0,0,0,0,0,0,0,0,0,0,0,0,0,0,0,0,
582,23.21,108.6,7.885,50.73,-7.115,17.61,-17.56,-26.33,10.36,-15.97,-18.87,0.5923,-14.73,-14.08,11.7,55.95,0,0,0,0,0,0,0,0,0,0,0,0,0,0,0,0,
583,-21.67,-50.93,-19.98,-64.3,-12.49,16.95,-7.543,-6.603,-8.024,-23.55,-28.34,10.61,-24.69,-9.341,-18.82,15.11,0,0,0,0,0,0,0,0,0,0,0,0,0,0,0,0,
584,-37.39,-64.93,22.62,-55.45,-4.377,-5.201,13.39,0.202,-10.93,11.26,16.06,30.22,5.591,21.7,-7.756,13.04,0,0,0,0,0,0,0,0,0,0,0,0,0,0,0,0,
585,18.7,47.02,17.98,22.39,5.478,-2.692,19.93,1.314,17.64,30.0,24.05,13.81,15.62,17.96,25.38,36.93,0,0,0,0,0,0,0,0,0,0,0,0,0,0,0,0,
586,64.24,55.13,-13.48,-7.02,5.555,-1.714,18.81,7.176,21.83,-3.045,-6.743,-25.45,-8.329,-19.4,22.27,32.66,0,0,0,0,0,0,0,0,0,0,0,0,0,0,0,0,
587,-5.939,-10.2,-2.707,-37.15,2.619,-17.46,1.091,-10.11,-7.454,-26.95,-10.49,-25.67,-4.864,-21.05,-0.6209,13.9,0,0,0,0,0,0,0,0,0,0,0,0,0,0,0,0,
588,-78.2,-35.69,7.043,-0.4466,12.99,-21.06,-2.794,-14.37,-3.264,-9.511,2.164,0.2905,14.68,-1.469,-0.6807,27.5,0,0,0,0,0,0,0,0,0,0,0,0,0,0,0,0,
589,-45.11,-29.94,-2.425,-7.114,5.782,-31.86,12.25,-0.7345,5.092,-11.33,-0.359,-6.884,1.772,-13.97,6.291,49.64,0,0,0,0,0,0,0,0,0,0,0,0,0,0,0,0,
590,-20.51,-6.146,-3.661,-26.1,-19.64,-29.73,4.989,-16.23,-16.62,-30.4,7.066,-25.32,-5.697,-23.13,2.628,40.87,0,0,0,0,0,0,0,0,0,0,0,0,0,0,0,0,
591,-9.389,51.19,12.82,-5.952,-25.62,8.505,-2.346,-25.0,-14.72,-19.78,16.79,-10.41,7.28,-7.274,2.446,24.11,0,0,0,0,0,0,0,0,0,0,0,0,0,0,0,0,
592,55.99,73.75,35.58,-12.97,-17.55,-0.6921,12.3,-0.5757,-0.2885,-11.2,-0.2456,6.57,-1.357,-5.168,3.601,21.91,0,0,0,0,0,0,0,0,0,0,0,0,0,0,0,0,
593,59.62,-17.81,12.68,-34.96,-8.073,-48.48,4.438,-5.053,-7.929,-16.61,-17.65,-3.256,-13.65,-12.49,-1.279,20.5,0,0,0,0,0,0,0,0,0,0,0,0,0,0,0,0,
594,-15.32,-117.5,-34.98,-35.65,2.162,-20.8,-18.42,-30.58,-6.955,-6.429,-19.49,-6.322,-2.293,-5.385,-0.0679,21.48,0,0,0,0,0,0,0,0,0,0,0,0,0,0,0,0,
595,-65.21,-77.22,-16.09,-41.93,7.925,37.53,-5.03,-13.15,1.341,-2.784,-13.81,5.922,10.03,2.063,9.898,32.54,0,0,0,0,0,0,0,0,0,0,0,0,0,0,0,0,
596,-89.64,29.2,21.65,-29.83,17.86,13.17,19.2,9.319,3.03,-11.33,3.834,-2.54,12.83,-0.55,18.59,34.9,0,0,0,0,0,0,0,0,0,0,0,0,0,0,0,0,
597,-37.0,58.91,9.18,4.897,23.19,-42.35,8.415,-10.23,15.39,-7.985,10.11,-16.34,4.928,-2.494,21.12,22.9,0,0,0,0,0,0,0,0,0,0,0,0,0,0,0,0,
598,61.67,33.41,9.184,0.7371,-0.0497,-40.19,-11.49,-23.15,13.62,-8.993,-8.386,0.906,-13.59,1.677,12.38,18.21,0,0,0,0,0,0,0,0,0,0,0,0,0,0,0,0,
599,45.9,34.68,28.73,-9.504,-23.81,-23.7,0.3004,-3.804,-14.79,-14.6,-12.38,17.9,-12.26,8.58,-1.9,27.64,0,0,0,0,0,0,0,0,0,0,0,0,0,0,0,0,
600,21.0,32.03,24.36,11.61,-8.977,-30.08,28.85,13.24,-14.16,-1.785,7.628,13.09,11.09,13.99,-2.542,40.35,0,0,0,0,0,0,0,0,0,0,0,0,0,0,0,0,
601,37.85,-59.58,9.448,-36.07,11.36,-7.132,30.59,10.08,10.2,12.48,14.13,10.34,7.894,8.38,6.373,46.63,0,0,0,0,0,0,0,0,0,0,0,0,0,0,0,0,
602,-95.25,-162.8,-28.27,-119.7,0.2102,20.75,2.142,-14.47,-3.798,3.965,-0.6228,-7.028,-21.02,-14.0,1.576,38.74,0,0,0,0,0,0,0,0,0,0,0,0,0,0,0,0,
603,-173.0,-100.7,-62.8,-54.47,-9.028,-9.502,-13.69,-37.65,-26.26,-21.37,-9.571,-36.09,-24.92,-30.43,-14.53,22.79,0,0,0,0,0,0,0,0,0,0,0,0,0,0,0,0,
604,20.81,43.92,-28.63,59.47,-1.285,-33.05,0.8357,-22.85,-10.48,-36.75,-6.876,-20.32,-9.876,-20.76,-19.96,17.63,0,0,0,0,0,0,0,0,0,0,0,0,0,0,0,0,
605,116.1,64.11,11.4,14.87,-14.16,-15.88,5.152,-2.695,-3.236,-29.72,-20.61,8.574,-17.02,-12.02,-14.25,26.8,0,0,0,0,0,0,0,0,0,0,0,0,0,0,0,0,
606,-11.03,38.06,-5.702,-53.9,-34.38,-29.5,-20.97,-21.22,-22.77,-24.16,-48.54,-10.35,-31.86,-19.73,-16.69,36.22,0,0,0,0,0,0,0,0,0,0,0,0,0,0,0,0,
607,-41.13,36.72,-13.06,-27.98,-16.26,-32.53,-23.15,-25.47,-19.9,-20.76,-39.45,-27.94,-20.57,-14.4,-23.11,41.16,0,0,0,0,0,0,0,0,0,0,0,0,0,0,0,0,
608,-7.557,-68.52,8.438,-35.56,9.635,30.88,11.69,7.844,-2.109,-8.244,-4.006,-19.58,-5.238,-6.177,-11.04,43.78,0,0,0,0,0,0,0,0,0,0,0,0,0,0,0,0,
609,-48.26,-129.8,-0.0592,-52.67,-8.787,28.2,6.184,-0.3167,-10.85,-21.28,-11.73,-32.98,-17.43,-25.65,4.547,32.04,0,0,0,0,0,0,0,0,0,0,0,0,0,0,0,0,
610,-18.71,25.26,-32.82,3.305,-41.49,-88.63,-31.96,-45.68,-29.31,-45.46,-39.02,-47.89,-32.54,-37.49,-4.178,5.484,0,0,0,0,0,0,0,0,0,0,0,0,0,0,0,0,
611,55.65,79.36,-43.15,15.76,-38.75,-122.8,-20.21,-44.16,-30.14,-28.11,-32.55,-32.67,-29.57,-22.95,-20.0,-8.568,0,0,0,0,0,0,0,0,0,0,0,0,0,0,0,0,
612,0.7125,-76.49,-33.54,-28.54,-13.63,-12.51,7.29,-14.17,-28.04,-17.44,-26.93,-16.32,-26.07,-17.63,-20.76,0.6671,0,0,0,0,0,0,0,0,0,0,0,0,0,0,0,0,
613,-81.86,-41.97,-18.55,-10.61,7.188,48.04,8.747,2.0,-25.36,-40.1,-10.21,1.284,-6.234,-4.452,-5.141,24.79,0,0,0,0,0,0,0,0,0,0,0,0,0,0,0,0,
614,-12.72,154.4,28.48,33.75,23.64,13.29,41.24,31.22,5.93,-15.54,59.5,33.77,44.6,37.33,35.09,64.96,0,0,0,0,0,0,0,0,0,0,0,0,0,0,0,0,
615,105.7,96.46,79.23,28.9,34.48,28.56,74.19,50.19,50.36,38.51,89.83,50.33,65.57,51.95,79.3,101.7,0,0,0,0,0,0,0,0,0,0,0,0,0,0,0,0,
616,82.78,-94.79,43.98,-2.564,31.43,59.41,30.54,15.28,50.13,29.15,29.99,33.8,27.6,20.87,78.2,98.24,0,0,0,0,0,0,0,0,0,0,0,0,0,0,0,0,
617,-12.27,-65.29,-20.47,-18.51,12.93,11.23,-13.35,-14.76,9.713,-4.91,-3.869,13.75,0.8283,3.087,43.18,66.25,0,0,0,0,0,0,0,0,0,0,0,0,0,0,0,0,
618,-16.52,26.64,1.108,6.33,-4.863,-8.459,19.33,7.91,-7.533,3.891,22.34,10.01,15.13,13.24,28.71,50.23,0,0,0,0,0,0,0,0,0,0,0,0,0,0,0,0,
619,19.04,-49.59,23.1,18.08,-9.294,21.6,43.01,15.8,-3.076,13.61,14.18,-4.077,8.398,2.272,28.29,45.86,0,0,0,0,0,0,0,0,0,0,0,0,0,0,0,0,
620,9.803,-86.86,-20.82,-27.2,-15.39,-15.3,1.389,-21.71,-23.2,-9.456,-32.84,-29.21,-30.08,-30.59,1.865,17.03,0,0,0,0,0,0,0,0,0,0,0,0,0,0,0,0,
621,5.369,32.7,-22.36,-32.3,-21.68,-55.72,-22.16,-26.98,-37.04,-28.58,-46.71,-19.56,-38.59,-32.67,-34.45,-19.95,0,0,0,0,0,0,0,0,0,0,0,0,0,0,0,0,
622,-10.44,55.35,0.5674,3.048,-13.44,-33.68,-3.118,6.165,-15.2,-26.61,-33.47,1.875,-26.48,-15.88,-45.91,-23.93,0,0,0,0,0,0,0,0,0,0,0,0,0,0,0,0,
623,-85.85,-53.45,-36.92,-27.11,-8.537,-30.26,-11.04,2.825,-16.42,-26.86,-35.71,-12.71,-37.23,-23.01,-39.51,-7.231,0,0,0,0,0,0,0,0,0,0,0,0,0,0,0,0,
624,-98.83,-38.79,-41.63,-32.18,-9.671,-17.83,-18.51,-14.06,-37.65,-34.38,-25.72,-25.53,-32.18,-25.5,-26.73,1.894,0,0,0,0,0,0,0,0,0,0,0,0,0,0,0,0,
625,21.47,58.07,11.16,35.93,-8.614,31.7,9.534,-5.165,-15.6,-31.45,8.433,-20.23,-2.457,-13.06,-10.38,4.428,0,0,0,0,0,0,0,0,0,0,0,0,0,0,0,0,
626,100.6,19.48,-3.052,21.08,-24.45,17.12,-3.136,-16.65,5.287,-23.73,1.953,-33.54,-9.641,-25.36,-9.853,-3.682,0,0,0,0,0,0,0,0,0,0,0,0,0,0,0,0,
627,49.0,-64.46,-52.68,-38.69,-36.47,-29.65,-32.62,-33.97,-20.72,-30.21,-30.15,-50.73,-34.64,-41.73,-27.84,-24.69,0,0,0,0,0,0,0,0,0,0,0,0,0,0,0,0,
628,-4.936,-55.27,-25.51,-16.93,-14.8,-4.799,2.433,-13.62,-31.14,-33.15,-7.748,-39.46,-21.67,-24.75,-36.04,-31.75,0,0,0,0,0,0,0,0,0,0,0,0,0,0,0,0,
629,-21.55,-35.37,28.34,-0.8776,7.273,25.01,26.42,-1.615,-2.728,-6.585,26.34,-8.151,1.38,2.165,-22.36,-7.984,0,0,0,0,0,0,0,0,0,0,0,0,0,0,0,0,
630,-39.29,-23.87,27.13,-14.97,9.855,-8.296,4.55,-9.463,15.38,17.8,13.02,6.775,-3.619,5.537,-6.215,19.49,0,0,0,0,0,0,0,0,0,0,0,0,0,0,0,0,
631,-27.72,9.443,-3.446,9.37,5.384,-28.84,6.301,0.0365,3.387,-1.563,9.026,-6.854,-20.48,-12.01,-5.863,17.92,0,0,0,0,0,0,0,0,0,0,0,0,0,0,0,0,
632,-8.689,10.65,-16.08,27.17,-2.417,-0.2139,3.204,7.312,-12.91,-29.08,29.06,-2.974,-20.98,-15.4,-10.65,1.72,0,0,0,0,0,0,0,0,0,0,0,0,0,0,0,0,
633,-5.251,11.52,-11.27,22.88,-0.226,9.375,-17.54,3.349,-6.805,-20.68,19.06,19.83,-12.37,1.951,-1.67,6.144,0,0,0,0,0,0,0,0,0,0,0,0,0,0,0,0,
634,14.56,5.328,-9.266,1.983,1.315,-1.941,-4.372,7.229,-0.7441,-6.608,-4.24,11.72,-23.31,2.921,10.98,28.86,0,0,0,0,0,0,0,0,0,0,0,0,0,0,0,0,
635,1.972,-66.02,3.328,-56.71,-20.95,16.35,7.332,6.744,-20.21,-5.596,1.239,-1.202,-39.04,-7.514,11.58,47.05,0,0,0,0,0,0,0,0,0,0,0,0,0,0,0,0,
636,-35.22,-62.16,25.81,-62.81,-33.48,18.54,-1.12,2.536,-30.37,0.3446,19.22,6.05,-30.01,-5.051,9.168,47.73,0,0,0,0,0,0,0,0,0,0,0,0,0,0,0,0,
637,4.088,35.82,2.395,1.961,-10.12,-26.63,11.67,8.918,-12.34,-4.705,29.79,-5.572,-12.5,-6.627,11.82,24.44,0,0,0,0,0,0,0,0,0,0,0,0,0,0,0,0,
638,43.53,44.32,-38.89,20.52,12.13,-45.28,22.96,6.257,3.851,-16.18,38.16,-24.35,-3.877,-13.2,13.74,-5.165,0,0,0,0,0,0,0,0,0,0,0,0,0,0,0,0,
639,-6.82,17.75,-11.35,13.58,5.949,-24.47,6.329,-20.31,1.382,-6.92,36.29,-19.49,-5.015,-11.71,10.37,-11.53,0,0,0,0,0,0,0,0,0,0,0,0,0,0,0,0,
640,-12.62,36.26,30.95,27.52,-5.208,-12.98,-5.75,-33.04,-9.147,-3.804,24.15,-8.037,-13.16,-8.993,4.402,1.665,0,0,0,0,0,0,0,0,0,0,0,0,0,0,0,0,
641,53.68,5.205,18.74,8.665,6.643,23.97,15.5,3.694,-3.456,-8.086,35.17,6.757,-5.388,2.052,7.42,16.1,0,0,0,0,0,0,0,0,0,0,0,0,0,0,0,0,
642,33.07,-39.03,14.72,-8.474,22.69,94.31,42.94,40.46,15.96,14.18,57.58,24.5,12.4,16.34,23.72,30.31,0,0,0,0,0,0,0,0,0,0,0,0,0,0,0,0,
643,-27.76,-47.33,33.81,0.1656,9.257,73.07,18.07,21.42,14.22,22.92,32.91,18.15,1.33,2.751,35.87,35.0,0,0,0,0,0,0,0,0,0,0,0,0,0,0,0,0,
644,3.103,-77.92,13.93,-28.61,-14.07,-35.84,-25.53,-5.205,-6.313,-8.804,-7.384,-4.717,-18.99,-21.29,32.43,16.69,0,0,0,0,0,0,0,0,0,0,0,0,0,0,0,0,
645,24.58,-70.91,-28.55,-39.4,-3.193,-39.35,-6.303,7.079,-7.778,-17.43,10.95,-5.077,-3.226,-10.59,29.24,-1.237,0,0,0,0,0,0,0,0,0,0,0,0,0,0,0,0,
646,-20.53,37.44,-34.4,16.75,26.59,23.95,24.26,15.0,15.61,9.729,38.47,0.4317,11.67,3.645,33.94,1.084,0,0,0,0,0,0,0,0,0,0,0,0,0,0,0,0,
647,-32.57,115.9,-6.183,26.33,7.681,-38.26,-6.572,-13.37,10.62,-0.4273,4.055,-29.69,-31.39,-32.92,16.42,-13.35,0,0,0,0,0,0,0,0,0,0,0,0,0,0,0,0,
648,-26.62,38.31,6.723,-27.69,-47.86,-102.1,-37.91,-44.06,-49.67,-49.0,-28.58,-52.24,-75.97,-65.74,-33.79,-55.29,0,0,0,0,0,0,0,0,0,0,0,0,0,0,0,0,
649,-25.49,-72.95,-8.996,-32.92,-30.59,-20.25,-13.92,-31.42,-68.07,-48.7,6.668,-16.47,-35.89,-26.47,-53.37,-60.92,0,0,0,0,0,0,0,0,0,0,0,0,0,0,0,0,
650,15.87,-50.9,-4.75,4.626,44.45,51.85,29.99,16.46,6.207,4.028,53.97,26.51,32.52,24.04,1.726,-9.971,0,0,0,0,0,0,0,0,0,0,0,0,0,0,0,0,
651,49.78,1.011,36.99,21.47,39.19,30.56,42.26,31.83,45.27,22.32,51.59,26.16,29.25,19.24,61.05,35.95,0,0,0,0,0,0,0,0,0,0,0,0,0,0,0,0,
652,46.76,-21.92,47.06,7.307,-23.23,1.443,6.466,-6.9,-2.481,-1.329,17.82,-2.954,-14.1,-9.143,45.12,33.05,0,0,0,0,0,0,0,0,0,0,0,0,0,0,0,0,
653,15.9,-5.729,-14.21,-46.44,-25.92,8.772,-28.6,-29.25,-33.35,-9.314,-5.46,-30.47,-26.46,-25.83,-14.14,-9.667,0,0,0,0,0,0,0,0,0,0,0,0,0,0,0,0,
654,-36.23,32.43,-55.14,-69.8,1.761,32.05,-14.86,-2.089,-20.17,-3.714,0.8051,-26.69,-14.89,-25.57,-43.27,-51.95,0,0,0,0,0,0,0,0,0,0,0,0,0,0,0,0,
655,-15.1,-4.526,-8.412,5.994,5.306,-18.74,13.3,16.33,-6.571,-10.81,24.85,-2.579,-2.793,-8.052,-25.5,-49.68,0,0,0,0,0,0,0,0,0,0,0,0,0,0,0,0,
656,43.27,-15.97,33.49,54.3,13.91,-96.01,24.27,3.342,5.905,-9.548,41.01,18.29,15.01,17.94,13.8,-5.268,0,0,0,0,0,0,0,0,0,0,0,0,0,0,0,0,
657,4.676,15.78,19.01,4.286,33.1,-24.66,30.26,3.683,22.18,20.96,43.72,42.86,37.76,40.04,48.01,36.08,0,0,0,0,0,0,0,0,0,0,0,0,0,0,0,0,T1
658,-25.04,-27.18,14.06,-14.42,41.53,73.27,22.48,14.22,33.97,37.38,40.18,30.47,43.78,31.2,58.84,38.36,0,0,0,0,0,0,0,0,0,0,0,0,0,0,0,0,
659,22.33,-74.58,11.61,19.88,28.78,33.72,0.362,-5.036,26.34,6.54,32.74,-21.33,24.73,-3.999,41.79,4.789,0,0,0,0,0,0,0,0,0,0,0,0,0,0,0,0,
660,16.16,-2.445,-12.7,28.99,-2.751,8.722,-10.79,-25.56,0.7023,-12.61,24.55,-11.73,6.024,-9.126,16.0,-22.72,0,0,0,0,0,0,0,0,0,0,0,0,0,0,0,0,
661,-20.4,90.39,-11.68,-0.1703,-18.47,13.59,-0.6192,-2.039,-10.59,2.868,18.7,25.94,-0.084,2.634,6.983,-22.22,0,0,0,0,0,0,0,0,0,0,0,0,0,0,0,0,
662,-3.704,50.38,7.865,-71.54,-9.561,-52.27,18.9,26.82,-5.801,-8.536,21.41,-11.08,-1.266,-15.98,10.21,-21.31,0,0,0,0,0,0,0,0,0,0,0,0,0,0,0,0,
663,25.33,-33.59,11.15,-96.58,0.1421,-40.44,10.23,9.479,0.343,-28.23,30.37,-36.02,14.44,-16.59,10.49,-22.83,0,0,0,0,0,0,0,0,0,0,0,0,0,0,0,0,
664,28.85,-16.55,-0.3367,2.824,15.84,42.81,-26.58,-26.39,17.25,-7.923,23.9,-3.504,34.9,13.89,17.51,-6.563,0,0,0,0,0,0,0,0,0,0,0,0,0,0,0,0,
665,-12.95,-27.07,-16.98,68.72,19.02,-0.6153,-28.92,-38.71,20.5,3.683,11.92,-18.95,28.18,6.978,32.68,-0.8161,0,0,0,0,0,0,0,0,0,0,0,0,0,0,0,0,
666,-46.74,-108.2,0.2219,12.26,-9.873,-61.13,6.946,-25.05,-4.029,-8.344,27.55,-43.69,16.5,-13.66,35.89,-23.51,0,0,0,0,0,0,0,0,0,0,0,0,0,0,0,0,
667,-10.19,-37.33,25.78,-31.23,-24.57,-3.963,20.51,1.954,-13.92,-8.987,31.31,-8.474,5.342,-8.008,18.85,-45.08,0,0,0,0,0,0,0,0,0,0,0,0,0,0,0,0,
668,-22.37,99.03,-19.74,-22.55,-20.57,10.87,-7.271,3.118,-21.98,-28.5,-21.95,-11.21,-36.27,-26.45,-16.44,-66.6,0,0,0,0,0,0,0,0,0,0,0,0,0,0,0,0,
669,-91.74,71.88,-52.72,-14.86,-26.77,-60.92,-36.64,-27.86,-52.0,-61.47,-55.3,-52.08,-55.23,-50.16,-46.63,-90.22,0,0,0,0,0,0,0,0,0,0,0,0,0,0,0,0,
670,-13.88,22.11,13.06,-17.98,-16.45,-61.6,-21.73,-24.56,-43.02,-39.54,-13.31,-30.46,-12.57,-23.46,-34.48,-78.93,0,0,0,0,0,0,0,0,0,0,0,0,0,0,0,0,
671,112.2,13.82,40.59,-44.31,0.5026,10.79,1.221,4.336,1.874,7.031,18.46,-4.963,10.4,-6.848,0.5048,-46.21,0,0,0,0,0,0,0,0,0,0,0,0,0,0,0,0,
672,18.28,-50.01,-26.9,-43.46,-4.747,31.67,-20.62,-5.644,5.825,-2.799,4.634,-26.07,-5.528,-28.99,12.0,-38.82,0,0,0,0,0,0,0,0,0,0,0,0,0,0,0,0,
673,-116.6,-31.97,-45.51,23.06,-3.457,-16.84,-30.73,-19.2,-11.39,-43.13,9.192,-19.27,0.9891,-26.02,9.242,-45.81,0,0,0,0,0,0,0,0,0,0,0,0,0,0,0,0,
674,-25.37,60.39,-6.474,44.59,-2.051,-68.63,-5.415,-11.64,-10.23,-45.08,22.24,-1.694,7.768,-8.476,11.04,-46.72,0,0,0,0,0,0,0,0,0,0,0,0,0,0,0,0,
675,78.2,16.14,-10.1,-19.04,-20.26,-67.48,-6.339,-21.42,-20.25,-17.62,9.17,-19.6,-9.58,-10.94,10.14,-47.36,0,0,0,0,0,0,0,0,0,0,0,0,0,0,0,0,
676,6.331,-65.14,-17.64,-48.69,-26.94,-3.79,-16.03,-23.07,-32.79,-6.081,4.478,-16.67,-10.28,-6.919,10.62,-44.96,0,0,0,0,0,0,0,0,0,0,0,0,0,0,0,0,
677,-35.62,-24.21,8.554,-14.31,-19.45,38.99,-1.454,1.226,-22.68,-14.95,12.7,7.891,-0.6132,-5.015,13.06,-45.8,0,0,0,0,0,0,0,0,0,0,0,0,0,0,0,0,
678,6.224,49.77,15.29,12.92,-16.58,-6.648,4.546,8.132,-19.98,-23.32,8.429,0.5032,-6.946,-22.92,7.556,-56.73,0,0,0,0,0,0,0,0,0,0,0,0,0,0,0,0,
679,-13.08,91.05,9.027,4.77,-14.6,-54.68,-2.073,-2.105,-31.16,-30.5,9.655,-25.05,-11.6,-37.57,-1.958,-60.85,0,0,0,0,0,0,0,0,0,0,0,0,0,0,0,0,
680,-33.21,65.59,-6.863,-25.93,-10.61,-38.12,-10.05,-11.39,-27.94,-54.5,20.22,-45.6,-9.884,-51.55,-11.65,-59.49,0,0,0,0,0,0,0,0,0,0,0,0,0,0,0,0,
681,-4.492,-53.6,-48.79,-28.7,-5.445,-18.0,-23.24,-28.16,-18.46,-80.02,8.985,-49.41,-12.88,-59.67,-19.32,-66.5,0,0,0,0,0,0,0,0,0,0,0,0,0,0,0,0,
682,-1.595,-113.0,-48.3,1.339,-20.63,-14.86,-34.99,-43.49,-27.11,-65.25,-23.85,-40.12,-23.29,-46.45,-24.43,-74.95,0,0,0,0,0,0,0,0,0,0,0,0,0,0,0,0,
683,-5.4,-36.64,-20.49,-18.54,-52.85,-25.06,-47.84,-47.81,-49.08,-33.98,-43.16,-50.94,-37.28,-42.55,-40.83,-83.52,0,0,0,0,0,0,0,0,0,0,0,0,0,0,0,0,
684,-23.93,12.11,-41.51,-59.39,-40.4,-63.93,-47.05,-39.92,-49.65,-31.45,-30.02,-54.23,-30.01,-40.69,-58.9,-87.19,0,0,0,0,0,0,0,0,0,0,0,0,0,0,0,0,
685,-70.93,0.0257,-42.8,-37.13,1.577,-60.28,-16.85,-13.88,-16.16,-26.24,-10.13,-26.21,-6.772,-15.82,-46.93,-71.62,0,0,0,0,0,0,0,0,0,0,0,0,0,0,0,0,
686,-42.72,21.55,-4.984,-9.159,-4.693,0.807,0.8377,7.249,1.114,-9.29,-8.284,-22.46,-4.773,-8.206,-11.8,-55.12,0,0,0,0,0,0,0,0,0,0,0,0,0,0,0,0,
687,36.45,12.91,5.42,1.008,-30.15,19.77,-7.049,1.369,-17.91,-16.26,-3.703,-33.86,-8.354,-18.08,16.99,-53.43,0,0,0,0,0,0,0,0,0,0,0,0,0,0,0,0,
688,31.87,-62.8,8.606,19.75,-19.58,8.509,-5.123,-10.03,-24.88,-23.42,1.299,-25.95,-8.951,-18.53,21.07,-54.27,0,0,0,0,0,0,0,0,0,0,0,0,0,0,0,0,
689,-21.51,-67.8,-16.81,-1.926,-7.356,7.271,-13.11,-15.83,-18.94,-22.43,-22.37,-22.69,-29.25,-27.06,-2.357,-57.71,0,0,0,0,0,0,0,0,0,0,0,0,0,0,0,0,
690,-9.573,33.03,-55.41,-16.41,-15.43,-34.85,-37.0,-19.9,-21.12,-33.91,-30.16,-3.975,-26.74,-20.23,-14.15,-51.97,0,0,0,0,0,0,0,0,0,0,0,0,0,0,0,0,
691,37.08,69.97,-12.01,11.03,-22.5,-70.76,-24.21,-7.459,-11.0,-25.15,4.88,11.14,4.754,-0.874,8.555,-30.37,0,0,0,0,0,0,0,0,0,0,0,0,0,0,0,0,
692,15.7,1.008,13.35,-22.32,-25.58,-24.98,4.988,6.623,-8.627,-11.49,6.067,-30.6,-3.189,-23.6,15.14,-35.15,0,0,0,0,0,0,0,0,0,0,0,0,0,0,0,0,
693,-24.94,17.94,-32.34,-51.07,-17.57,20.8,-2.933,-7.277,-24.16,-32.66,-27.22,-46.89,-20.78,-40.2,-9.818,-62.39,0,0,0,0,0,0,0,0,0,0,0,0,0,0,0,0,
694,6.467,66.06,-9.83,-1.554,2.617,4.14,-23.09,-22.84,-9.384,-31.07,-20.34,-13.35,-2.97,-16.65,-17.77,-58.46,0,0,0,0,0,0,0,0,0,0,0,0,0,0,0,0,
695,16.68,-68.94,8.357,-16.71,2.633,-17.39,-28.66,-13.27,7.426,1.133,-6.912,-24.78,-4.06,-19.94,-7.691,-34.94,0,0,0,0,0,0,0,0,0,0,0,0,0,0,0,0,
696,-42.06,-99.38,-52.74,-51.03,-18.38,-28.44,-24.36,-6.099,-20.89,-13.34,-24.97,-39.02,-26.6,-35.44,-4.145,-18.63,0,0,0,0,0,0,0,0,0,0,0,0,0,0,0,0,
697,-55.51,155.6,-34.98,18.82,-27.65,-59.03,-17.04,-17.6,-40.97,-53.44,-32.39,-13.25,-29.96,-26.3,-1.196,-7.219,0,0,0,0,0,0,0,0,0,0,0,0,0,0,0,0,
698,-19.04,193.1,22.93,38.57,-30.47,-74.62,-32.12,-28.33,-29.73,-57.92,-36.12,-29.34,-33.41,-36.97,-6.088,-27.68,0,0,0,0,0,0,0,0,0,0,0,0,0,0,0,0,
699,10.38,-14.43,-8.638,-17.97,-47.66,-41.33,-56.42,-37.75,-33.52,-52.54,-48.72,-63.94,-40.36,-58.02,-24.61,-77.11,0,0,0,0,0,0,0,0,0,0,0,0,0,0,0,0,
700,27.7,4.138,-30.29,-21.51,-63.33,1.373,-44.82,-50.03,-51.61,-54.27,-34.71,-41.04,-30.52,-42.74,-31.96,-94.86,0,0,0,0,0,0,0,0,0,0,0,0,0,0,0,0,
701,-13.14,30.99,-17.09,-62.66,-45.59,11.91,-17.46,-33.55,-47.61,-28.94,-11.18,-0.1859,-13.85,-11.7,-18.06,-66.34,0,0,0,0,0,0,0,0,0,0,0,0,0,0,0,0,
702,-70.96,-104.4,-47.24,-125.2,-0.8694,-17.83,-5.536,11.16,-20.06,1.552,-5.395,10.56,-1.331,-0.4764,2.793,-31.25,0,0,0,0,0,0,0,0,0,0,0,0,0,0,0,0,
703,-44.26,-20.45,-57.97,-47.34,19.47,-50.5,2.527,26.71,-2.385,-12.32,4.286,-3.47,3.67,-9.244,17.89,-16.92,0,0,0,0,0,0,0,0,0,0,0,0,0,0,0,0,
704,-4.486,140.0,-11.89,44.53,-0.8439,-17.23,5.066,6.639,-6.217,-33.42,12.46,-20.78,2.833,-13.76,23.98,-19.46,0,0,0,0,0,0,0,0,0,0,0,0,0,0,0,0,
705,-20.9,99.39,24.49,24.46,-20.08,26.85,-3.553,-10.66,-7.311,-19.77,0.8616,-21.48,1.209,-5.882,29.59,-16.33,0,0,0,0,0,0,0,0,0,0,0,0,0,0,0,0,
706,-25.84,73.29,25.84,-10.5,-24.49,-29.33,-20.31,-27.17,-7.567,-9.933,-15.37,-21.25,-8.239,-9.672,33.77,-6.057,0,0,0,0,0,0,0,0,0,0,0,0,0,0,0,0,
707,-13.78,26.93,-0.9262,-42.91,-26.49,-89.2,-38.52,-36.67,-19.67,-18.56,-25.08,-30.4,-17.1,-22.04,24.24,-6.451,0,0,0,0,0,0,0,0,0,0,0,0,0,0,0,0,
708,-20.8,-90.71,-18.44,-52.46,-10.82,-30.28,-27.73,-19.08,-19.79,-18.97,-17.92,-15.92,-3.624,-12.48,16.18,-4.642,0,0,0,0,0,0,0,0,0,0,0,0,0,0,0,0,
709,-25.59,-29.44,10.51,-7.388,11.83,34.72,6.281,-4.881,-1.581,-12.42,16.89,20.01,22.83,13.5,34.03,16.03,0,0,0,0,0,0,0,0,0,0,0,0,0,0,0,0,
710,-7.752,79.92,24.57,-10.87,1.776,5.286,17.76,-6.178,10.19,-0.1731,46.63,31.84,37.7,28.79,61.39,30.01,0,0,0,0,0,0,0,0,0,0,0,0,0,0,0,0,
711,14.26,63.92,-8.292,-30.45,-15.44,-25.16,10.89,1.098,11.79,13.08,34.64,15.78,31.79,25.92,64.6,14.23,0,0,0,0,0,0,0,0,0,0,0,0,0,0,0,0,
712,-18.79,52.39,-13.92,3.899,-1.702,8.637,1.326,-6.069,7.306,12.44,5.212,0.5655,10.74,14.46,40.5,-14.93,0,0,0,0,0,0,0,0,0,0,0,0,0,0,0,0,
713,-62.09,8.445,-1.592,-24.09,0.2199,22.4,-15.84,-28.98,-7.18,13.22,-5.168,-3.749,-5.523,8.364,16.44,-30.57,0,0,0,0,0,0,0,0,0,0,0,0,0,0,0,0,
714,-5.933,-18.82,-41.31,-65.82,-27.32,-37.49,-21.72,-22.19,-18.34,15.0,-8.623,-2.701,-7.548,6.858,14.37,-25.38,0,0,0,0,0,0,0,0,0,0,0,0,0,0,0,0,
715,18.63,63.94,-84.26,-5.044,-34.91,-73.84,-17.09,-9.313,-14.95,-5.109,-15.33,-6.852,-6.268,-1.289,21.42,-16.68,0,0,0,0,0,0,0,0,0,0,0,0,0,0,0,0,
716,-62.45,42.62,-57.42,32.15,-28.76,-17.24,-15.22,-16.38,-12.57,-21.27,0.5668,-8.379,2.413,-2.633,21.0,-14.35,0,0,0,0,0,0,0,0,0,0,0,0,0,0,0,0,
717,-29.84,-29.58,-3.059,6.977,-36.45,30.67,-7.955,-7.162,-17.37,-7.354,22.54,10.54,19.03,16.33,26.69,-1.485,0,0,0,0,0,0,0,0,0,0,0,0,0,0,0,0,
718,43.81,50.58,5.167,10.2,-29.1,-10.14,-13.68,4.92,-14.07,11.22,3.757,23.95,17.44,28.39,42.26,19.08,0,0,0,0,0,0,0,0,0,0,0,0,0,0,0,0,
719,-50.39,76.89,-18.57,15.84,-1.249,-38.0,-26.07,-1.413,-1.827,16.95,-19.99,8.446,4.022,19.35,49.58,21.7,0,0,0,0,0,0,0,0,0,0,0,0,0,0,0,0,
720,-87.02,-30.54,-23.35,3.298,16.56,27.85,-11.41,2.015,7.714,17.24,-3.472,-1.436,4.531,13.73,47.26,13.02,0,0,0,0,0,0,0,0,0,0,0,0,0,0,0,0,
721,11.84,-63.72,-23.07,-19.19,14.45,69.08,-5.414,2.513,9.32,17.1,7.232,9.484,1.628,15.22,38.48,11.1,0,0,0,0,0,0,0,0,0,0,0,0,0,0,0,0,
722,-0.3255,-5.809,-31.17,-42.29,-8.229,-11.54,-24.69,-12.45,-0.3189,15.98,-7.628,10.2,-12.95,8.601,20.54,8.021,0,0,0,0,0,0,0,0,0,0,0,0,0,0,0,0,
723,-33.55,36.71,-32.15,-13.67,-34.18,-89.49,-26.16,-17.82,-15.82,7.736,-8.247,-4.455,-14.59,0.1665,5.671,0.4134,0,0,0,0,0,0,0,0,0,0,0,0,0,0,0,0,
724,37.66,22.22,-55.03,30.4,-28.11,-49.63,-15.84,-16.42,-16.49,1.824,2.197,-6.513,-2.579,2.073,2.329,-2.717,0,0,0,0,0,0,0,0,0,0,0,0,0,0,0,0,
725,19.06,7.638,-78.22,28.78,-0.2742,20.58,-17.43,-13.99,2.182,11.84,-1.33,9.488,2.98,5.576,1.448,-5.241,0,0,0,0,0,0,0,0,0,0,0,0,0,0,0,0,
726,-78.8,44.87,-39.29,13.91,-5.503,32.56,-32.11,-17.07,3.079,12.36,-26.18,12.04,-13.28,-6.854,-4.306,-17.31,0,0,0,0,0,0,0,0,0,0,0,0,0,0,0,0,
727,-63.12,41.03,-0.759,-2.733,-44.66,22.62,-46.38,-26.9,-32.21,-7.693,-53.65,-6.208,-37.78,-23.08,-12.58,-32.06,0,0,0,0,0,0,0,0,0,0,0,0,0,0,0,0,
728,6.546,-18.53,-16.17,-15.11,-48.72,14.2,-25.78,-5.607,-51.02,-10.47,-37.53,-9.886,-32.56,-17.06,-10.17,-28.76,0,0,0,0,0,0,0,0,0,0,0,0,0,0,0,0,
729,11.24,-40.43,-33.2,-5.521,-7.739,-5.169,2.101,23.96,-22.3,5.712,-2.037,3.227,-11.01,-2.104,7.717,-4.992,0,0,0,0,0,0,0,0,0,0,0,0,0,0,0,0,
730,-8.098,-34.99,-39.7,0.777,3.41,-16.81,-15.41,3.981,0.9355,8.479,-14.72,2.656,-17.34,-4.08,18.48,14.29,0,0,0,0,0,0,0,0,0,0,0,0,0,0,0,0,
731,-15.95,-1.28,-34.35,2.091,-28.82,-22.67,-39.23,-19.28,-15.89,0.6588,-38.34,-3.198,-32.25,-13.02,9.13,11.1,0,0,0,0,0,0,0,0,0,0,0,0,0,0,0,0,
732,-40.54,36.75,-22.66,-3.444,-27.55,-19.0,-26.81,3.098,-28.48,1.068,-14.9,12.26,-13.14,-0.3184,3.467,3.106,0,0,0,0,0,0,0,0,0,0,0,0,0,0,0,0,
733,-68.47,-8.422,-54.18,-17.3,25.23,29.85,5.962,32.09,3.986,23.47,19.02,34.12,20.65,30.32,18.88,19.43,0,0,0,0,0,0,0,0,0,0,0,0,0,0,0,0,
734,-55.0,-29.19,-69.76,-0.4817,35.43,46.84,21.4,28.41,32.12,49.21,15.13,27.26,11.38,28.66,30.05,41.45,0,0,0,0,0,0,0,0,0,0,0,0,0,0,0,0,
735,-8.795,46.49,-7.474,18.49,-28.08,-27.72,-15.35,-4.455,-7.66,31.5,-13.74,5.512,-31.13,-4.289,13.76,29.08,0,0,0,0,0,0,0,0,0,0,0,0,0,0,0,0,
736,37.59,30.77,30.78,6.703,-44.02,-32.84,-43.44,-19.36,-44.53,10.27,-3.436,10.99,-22.85,3.333,1.532,8.753,0,0,0,0,0,0,0,0,0,0,0,0,0,0,0,0,
737,65.72,-74.33,14.08,5.504,23.7,67.28,0.4018,9.002,1.395,45.34,48.72,27.23,24.39,33.52,22.14,20.35,0,0,0,0,0,0,0,0,0,0,0,0,0,0,0,0,
738,41.2,-55.41,20.24,11.88,42.41,83.06,23.91,27.36,38.19,56.2,47.35,23.74,17.49,18.36,41.48,35.43,0,0,0,0,0,0,0,0,0,0,0,0,0,0,0,0,
739,-16.14,62.88,23.31,21.15,-8.666,31.7,-11.36,14.87,3.37,1.142,4.334,21.34,-12.54,0.8643,34.11,32.84,0,0,0,0,0,0,0,0,0,0,0,0,0,0,0,0,
740,-35.5,120.7,-15.49,43.65,-21.7,16.21,-16.13,6.31,-16.58,-17.3,4.907,13.91,-7.756,7.569,18.92,24.95,0,0,0,0,0,0,0,0,0,0,0,0,0,0,0,0,
741,-26.39,94.06,-46.32,38.82,-3.831,-19.7,-6.091,-1.587,-7.59,3.505,-0.4781,-20.05,-20.18,-13.44,-1.038,0.0688,0,0,0,0,0,0,0,0,0,0,0,0,0,0,0,0,
742,-7.679,48.11,-40.37,15.63,-17.0,-37.55,-22.96,-11.4,-20.95,-9.376,-28.12,-33.89,-45.56,-31.72,-21.4,-31.04,0,0,0,0,0,0,0,0,0,0,0,0,0,0,0,0,
743,25.38,27.11,-20.46,-3.997,-30.21,-5.903,-27.34,-13.58,-27.07,-10.06,-11.91,-5.612,-31.95,-6.76,-17.3,-27.84,0,0,0,0,0,0,0,0,0,0,0,0,0,0,0,0,
744,7.739,-16.37,-6.918,-36.72,-9.258,-26.11,-28.66,-14.96,-12.08,23.92,-4.444,15.39,-18.95,9.621,0.1774,-2.042,0,0,0,0,0,0,0,0,0,0,0,0,0,0,0,0,
745,-29.66,-92.83,0.3379,-38.92,8.022,-29.33,-25.16,0.0265,-7.091,28.05,-26.67,9.87,-28.01,0.0924,3.96,7.363,0,0,0,0,0,0,0,0,0,0,0,0,0,0,0,0,
746,6.469,-76.4,-1.366,-6.248,-20.34,35.25,-1.609,6.111,-15.34,4.673,-14.26,-12.06,-37.1,-17.21,-5.875,-9.383,0,0,0,0,0,0,0,0,0,0,0,0,0,0,0,0,
747,3.22,34.27,-12.92,0.7765,-57.94,22.06,-21.94,-29.51,-40.45,-19.35,-10.11,-29.4,-51.6,-36.03,-22.14,-35.8,0,0,0,0,0,0,0,0,0,0,0,0,0,0,0,0,
748,-69.19,92.16,-0.2466,-6.554,-28.47,-15.28,-44.21,-21.21,-49.54,-32.56,-19.96,-6.659,-38.91,-16.99,-20.68,-32.66,0,0,0,0,0,0,0,0,0,0,0,0,0,0,0,0,
749,-13.49,69.95,34.79,-15.34,29.69,33.36,11.95,39.29,-3.698,-1.51,14.33,16.96,-2.099,15.05,12.2,0.5426,0,0,0,0,0,0,0,0,0,0,0,0,0,0,0,0,
750,95.83,26.13,27.74,-22.95,12.71,30.75,34.17,26.83,19.6,25.79,21.93,-8.455,-15.55,-7.945,29.06,5.014,0,0,0,0,0,0,0,0,0,0,0,0,0,0,0,0,
751,53.71,17.94,-6.827,13.66,-27.35,-34.77,-12.88,-20.21,-17.47,-6.14,-16.19,-17.17,-40.36,-23.02,9.92,-15.48,0,0,0,0,0,0,0,0,0,0,0,0,0,0,0,0,
752,1.235,55.0,6.0,62.29,8.305,-14.94,-4.118,-0.1239,-17.56,-17.25,-2.673,21.17,-7.52,20.86,10.01,1.352,0,0,0,0,0,0,0,0,0,0,0,0,0,0,0,0,
753,31.95,45.02,41.46,54.63,55.52,45.78,38.48,27.09,25.95,21.36,42.87,35.39,22.67,45.71,46.76,40.93,0,0,0,0,0,0,0,0,0,0,0,0,0,0,0,0,
754,7.302,1.61,44.35,6.23,51.49,65.81,40.02,22.86,41.74,37.07,55.69,26.16,19.93,40.06,80.02,53.7,0,0,0,0,0,0,0,0,0,0,0,0,0,0,0,0,
755,-3.23,21.26,43.51,-24.14,41.49,78.35,33.5,22.67,43.85,39.07,52.19,37.95,22.2,49.76,90.12,48.83,0,0,0,0,0,0,0,0,0,0,0,0,0,0,0,0,
756,57.82,35.5,48.01,4.875,29.24,57.03,31.38,17.47,42.28,43.96,42.68,39.2,13.53,43.05,75.16,39.22,0,0,0,0,0,0,0,0,0,0,0,0,0,0,0,0,
757,11.35,-2.103,6.315,29.61,-5.644,-26.69,11.71,-1.897,11.51,10.89,11.88,2.11,-19.54,1.657,32.62,7.732,0,0,0,0,0,0,0,0,0,0,0,0,0,0,0,0,
758,-73.97,-9.787,-50.28,-35.69,-23.39,-71.79,-23.43,-25.07,-21.7,-27.13,-29.68,-26.68,-36.78,-22.67,-16.07,-35.4,0,0,0,0,0,0,0,0,0,0,0,0,0,0,0,0,
759,-8.058,27.03,-28.81,-72.71,-1.267,-14.71,-34.5,-25.78,-15.4,-12.47,-30.08,-4.336,-12.65,-0.0667,-25.53,-40.55,0,0,0,0,0,0,0,0,0,0,0,0,0,0,0,0,
760,64.72,70.09,29.05,13.02,22.4,56.6,9.383,12.66,16.85,16.87,18.53,29.66,16.41,25.32,18.09,4.945,0,0,0,0,0,0,0,0,0,0,0,0,0,0,0,0,
761,22.82,76.57,20.64,61.19,15.51,60.95,39.25,31.09,21.89,6.273,35.18,22.0,6.076,10.01,60.99,40.59,0,0,0,0,0,0,0,0,0,0,0,0,0,0,0,0,
762,-19.83,36.42,-6.458,19.37,-5.696,16.12,8.731,1.7,-3.112,-19.94,2.937,0.4773,-16.32,-9.26,53.69,30.51,0,0,0,0,0,0,0,0,0,0,0,0,0,0,0,0,
763,-23.64,15.15,9.641,7.815,-22.09,-17.42,-13.54,-14.33,-15.24,-23.13,-22.94,2.051,-19.18,-2.276,18.05,13.84,0,0,0,0,0,0,0,0,0,0,0,0,0,0,0,0,
764,-17.36,26.64,8.377,2.406,-30.11,-0.7801,-3.621,0.2187,-18.09,-16.87,-33.58,7.721,-17.87,1.588,-4.144,13.05,0,0,0,0,0,0,0,0,0,0,0,0,0,0,0,0,
765,-9.399,20.01,-18.21,-21.45,-16.13,21.07,5.131,12.92,-13.01,-11.39,-17.86,3.616,-7.81,-0.8824,0.3219,11.41,0,0,0,0,0,0,0,0,0,0,0,0,0,0,0,0,
766,-19.34,-47.21,-16.47,-10.13,2.893,21.57,10.99,14.07,7.881,-3.209,9.796,-2.629,1.917,0.14,21.22,5.986,0,0,0,0,0,0,0,0,0,0,0,0,0,0,0,0,
767,-5.316,-126.2,0.2397,-17.69,3.922,52.85,14.41,11.22,4.172,-2.307,-1.546,-1.442,-8.108,1.139,34.33,-0.1745,0,0,0,0,0,0,0,0,0,0,0,0,0,0,0,0,
768,46.18,-39.38,13.9,-39.04,14.51,46.44,14.17,10.01,-4.524,7.681,-7.114,10.9,-2.052,13.93,33.34,-2.776,0,0,0,0,0,0,0,0,0,0,0,0,0,0,0,0,
769,34.46,122.4,13.7,-4.177,28.69,-50.38,5.136,3.46,20.58,23.53,16.58,11.92,13.11,19.7,31.93,3.457,0,0,0,0,0,0,0,0,0,0,0,0,0,0,0,0,
770,-44.19,67.04,-8.855,16.58,14.77,-65.76,-10.08,-0.6377,18.06,3.589,0.1383,-5.875,-5.876,0.3214,26.41,2.902,0,0,0,0,0,0,0,0,0,0,0,0,0,0,0,0,
771,-48.65,-8.83,-1.131,6.19,-2.002,23.65,-3.73,6.784,-13.6,-22.04,-23.35,-10.09,-18.95,-4.202,14.14,-7.5,0,0,0,0,0,0,0,0,0,0,0,0,0,0,0,0,
772,40.89,99.73,33.48,31.58,-4.127,53.23,6.338,1.239,-9.251,-10.02,-7.561,3.37,-3.901,13.44,12.62,-4.444,0,0,0,0,0,0,0,0,0,0,0,0,0,0,0,0,
773,73.79,66.14,28.45,45.79,6.698,49.82,-3.549,-7.71,3.594,3.766,-12.2,12.56,-2.698,18.53,21.64,7.763,0,0,0,0,0,0,0,0,0,0,0,0,0,0,0,0,
774,4.628,-73.01,8.556,14.96,32.19,65.41,6.378,7.926,4.518,7.736,-16.41,21.91,-4.105,17.68,26.81,8.851,0,0,0,0,0,0,0,0,0,0,0,0,0,0,0,0,
775,-32.11,17.58,-3.594,-20.15,33.97,48.35,31.44,20.35,16.12,21.22,19.95,26.0,8.569,19.88,31.67,6.676,0,0,0,0,0,0,0,0,0,0,0,0,0,0,0,0,
776,20.8,110.4,-23.71,-26.18,10.34,22.92,25.99,18.5,11.62,18.58,21.29,11.7,4.202,11.45,38.59,8.999,0,0,0,0,0,0,0,0,0,0,0,0,0,0,0,0,
777,62.61,42.79,-1.003,10.53,12.06,0.9517,7.429,19.62,-3.86,-3.717,-9.925,6.576,-9.152,5.939,39.4,7.999,0,0,0,0,0,0,0,0,0,0,0,0,0,0,0,0,
778,48.6,50.49,50.26,34.1,20.52,-15.98,2.067,13.44,10.08,-6.728,-5.064,19.13,-4.689,17.13,36.43,5.906,0,0,0,0,0,0,0,0,0,0,0,0,0,0,0,0,
779,47.36,89.32,47.25,24.19,5.373,6.061,4.933,10.31,26.26,7.355,-4.793,16.05,-1.58,23.73,31.18,4.397,0,0,0,0,0,0,0,0,0,0,0,0,0,0,0,0,
780,46.16,23.6,12.86,12.31,1.411,17.33,11.39,21.5,11.78,9.283,-25.21,0.8232,-13.69,13.07,18.34,-7.088,0,0,0,0,0,0,0,0,0,0,0,0,0,0,0,0,
781,-18.06,-72.07,-10.18,-43.23,8.345,26.92,10.16,19.37,-10.47,1.317,-17.77,-5.173,-25.16,0.685,6.33,-26.71,0,0,0,0,0,0,0,0,0,0,0,0,0,0,0,0,
782,-33.4,-100.4,-16.8,-64.84,-2.103,73.03,1.23,4.616,-16.09,-5.661,-9.059,-2.766,-22.16,4.354,7.797,-31.85,0,0,0,0,0,0,0,0,0,0,0,0,0,0,0,0,
783,54.82,37.73,4.44,36.1,7.974,46.96,1.303,-1.893,0.9175,-6.094,-14.17,10.86,-1.503,24.73,23.14,-7.058,0,0,0,0,0,0,0,0,0,0,0,0,0,0,0,0,
784,35.61,193.8,0.5496,65.21,50.35,-20.63,6.746,-3.126,26.74,7.647,-5.14,17.73,10.94,31.55,39.99,22.46,0,0,0,0,0,0,0,0,0,0,0,0,0,0,0,0,
785,-70.12,120.4,-38.88,-15.5,43.88,9.041,3.512,2.373,23.78,9.107,-13.75,1.426,-6.565,9.919,37.91,16.74,0,0,0,0,0,0,0,0,0,0,0,0,0,0,0,0,
786,12.23,-5.637,-9.655,2.508,-7.731,31.1,2.61,17.88,-3.433,-13.28,-27.69,5.681,-8.609,11.03,24.89,-5.618,0,0,0,0,0,0,0,0,0,0,0,0,0,0,0,0,
787,153.8,-3.519,69.19,47.33,7.405,-21.36,24.85,34.85,8.967,1.774,12.66,39.02,28.8,50.4,34.03,2.509,0,0,0,0,0,0,0,0,0,0,0,0,0,0,0,0,
788,91.14,32.54,78.57,11.62,61.88,-16.09,46.6,36.96,56.58,46.64,43.49,35.17,38.84,53.85,52.51,22.55,0,0,0,0,0,0,0,0,0,0,0,0,0,0,0,0,
789,-0.1878,96.7,46.3,14.66,41.62,39.6,31.22,14.55,55.47,29.4,8.611,-0.6067,6.462,16.05,43.6,15.66,0,0,0,0,0,0,0,0,0,0,0,0,0,0,0,0,
790,41.11,117.4,46.2,40.49,1.329,51.22,12.46,-1.739,15.69,-14.82,-6.995,-2.545,-0.8243,10.85,22.63,-0.8474,0,0,0,0,0,0,0,0,0,0,0,0,0,0,0,0,
791,59.1,40.77,46.09,30.0,21.15,36.08,19.15,3.743,15.57,-2.018,13.33,11.31,10.84,24.41,15.24,-7.256,0,0,0,0,0,0,0,0,0,0,0,0,0,0,0,0,
792,10.34,24.53,27.8,42.27,39.04,45.22,14.48,-1.666,30.42,17.81,4.14,10.46,1.771,20.45,17.93,-5.413,0,0,0,0,0,0,0,0,0,0,0,0,0,0,0,0,
793,0.1677,4.478,27.66,43.01,43.91,82.83,8.984,-3.277,22.23,18.12,1.852,28.25,8.154,36.26,35.58,16.33,0,0,0,0,0,0,0,0,0,0,0,0,0,0,0,0,
794,16.69,-61.64,31.6,16.9,80.03,86.8,29.79,21.7,37.42,41.63,23.19,42.69,31.15,53.99,57.88,40.14,0,0,0,0,0,0,0,0,0,0,0,0,0,0,0,0,
795,36.26,58.08,24.41,37.29,89.11,57.68,31.97,28.37,63.43,47.61,9.212,19.61,22.36,31.96,52.38,23.63,0,0,0,0,0,0,0,0,0,0,0,0,0,0,0,0,
796,77.81,197.0,49.39,63.73,62.47,79.58,10.92,14.36,50.27,24.11,-4.495,12.65,7.314,20.8,32.42,-14.5,0,0,0,0,0,0,0,0,0,0,0,0,0,0,0,0,
797,64.69,94.63,79.16,41.18,76.07,80.83,3.391,13.37,35.51,32.21,0.8555,16.13,1.092,22.74,19.23,-40.57,0,0,0,0,0,0,0,0,0,0,0,0,0,0,0,0,
798,2.851,24.34,61.71,32.65,91.08,13.02,0.0612,14.47,34.4,38.34,-27.49,-8.88,-21.36,-2.05,-6.436,-64.08,0,0,0,0,0,0,0,0,0,0,0,0,0,0,0,0,
799,82.72,128.1,82.53,93.23,71.66,58.34,18.46,31.63,26.74,19.54,-16.15,9.247,-6.747,12.45,-19.07,-56.68,0,0,0,0,0,0,0,0,0,0,0,0,0,0,0,0,
800,259.6,213.6,155.1,174.1,88.27,180.4,60.24,62.6,48.97,37.34,62.38,61.51,50.22,65.76,26.28,10.08,0,0,0,0,0,0,0,0,0,0,0,0,0,0,0,0,
801,265.5,243.3,149.7,191.8,122.6,156.1,55.81,53.57,83.03,60.17,69.87,46.17,59.39,60.66,79.73,63.56,0,0,0,0,0,0,0,0,0,0,0,0,0,0,0,0,
802,181.9,218.8,119.4,171.5,118.3,115.3,27.81,31.9,79.95,50.24,24.08,15.8,42.74,40.93,82.33,55.87,0,0,0,0,0,0,0,0,0,0,0,0,0,0,0,0,
803,214.9,149.1,157.7,172.6,112.4,184.1,41.68,36.4,77.36,64.78,29.58,31.39,48.91,59.2,59.02,37.0,0,0,0,0,0,0,0,0,0,0,0,0,0,0,0,0,
804,187.9,110.0,141.2,145.9,109.4,169.5,44.79,30.34,70.77,81.71,26.38,34.4,29.08,49.93,36.41,23.0,0,0,0,0,0,0,0,0,0,0,0,0,0,0,0,0,
805,55.2,73.71,79.14,101.6,94.22,107.1,24.2,35.35,35.19,61.69,3.073,39.12,9.03,38.41,21.41,7.375,0,0,0,0,0,0,0,0,0,0,0,0,0,0,0,0,
806,114.6,94.32,113.1,136.3,100.9,146.0,39.63,70.53,39.35,66.04,24.98,65.71,37.04,69.08,34.61,22.83,0,0,0,0,0,0,0,0,0,0,0,0,0,0,0,0,
807,269.3,214.4,149.2,192.8,109.3,126.2,47.56,65.85,71.7,82.56,35.3,43.5,44.62,64.99,57.76,48.58,0,0,0,0,0,0,0,0,0,0,0,0,0,0,0,0,
808,212.7,219.8,108.1,164.2,81.92,42.17,15.22,27.14,50.03,50.62,7.654,-7.571,13.26,21.77,45.76,31.36,0,0,0,0,0,0,0,0,0,0,0,0,0,0,0,0,
809,118.8,107.7,87.77,102.8,49.3,71.89,1.3,14.25,15.22,23.34,7.731,-7.249,6.22,12.97,12.92,-1.709,0,0,0,0,0,0,0,0,0,0,0,0,0,0,0,0,
810,136.3,84.79,78.27,80.76,42.68,100.3,-1.964,11.85,15.14,37.69,16.34,26.01,18.15,26.37,6.078,0.8717,0,0,0,0,0,0,0,0,0,0,0,0,0,0,0,0,
811,88.3,70.58,50.01,90.04,60.96,64.66,-13.61,13.94,20.9,45.43,0.1397,38.34,18.63,29.15,22.4,31.37,0,0,0,0,0,0,0,0,0,0,0,0,0,0,0,0,
812,45.91,23.72,51.55,109.8,68.59,93.28,1.912,28.69,26.94,33.12,-3.537,11.66,9.544,15.42,24.89,47.04,0,0,0,0,0,0,0,0,0,0,0,0,0,0,0,0,
813,109.0,77.47,45.63,102.8,30.39,87.5,10.88,19.89,19.17,9.265,-3.054,-28.96,-12.42,-17.81,2.193,19.7,0,0,0,0,0,0,0,0,0,0,0,0,0,0,0,0,
814,102.5,119.9,19.61,55.31,-3.778,6.965,-14.19,-5.556,-14.55,-18.06,-24.93,-31.19,-28.94,-30.9,-24.27,-23.81,0,0,0,0,0,0,0,0,0,0,0,0,0,0,0,0,
815,67.1,60.94,32.48,26.79,19.67,37.23,-18.43,-2.621,-20.36,-8.534,-30.62,0.0886,-9.332,-1.85,-27.51,-26.99,0,0,0,0,0,0,0,0,0,0,0,0,0,0,0,0,
816,94.6,30.88,48.16,42.25,53.94,102.2,-8.754,13.88,15.19,29.56,-16.25,13.52,17.69,15.07,-5.902,8.435,0,0,0,0,0,0,0,0,0,0,0,0,0,0,0,0,
817,37.8,15.41,23.32,57.95,46.37,39.49,-23.96,9.808,26.84,28.11,-27.41,-5.116,5.749,-10.8,5.351,21.39,0,0,0,0,0,0,0,0,0,0,0,0,0,0,0,0,
818,-13.8,-17.0,15.55,61.04,16.15,-14.19,-26.94,1.014,-2.386,-9.679,-43.75,-30.2,-18.91,-34.52,-14.15,-8.924,0,0,0,0,0,0,0,0,0,0,0,0,0,0,0,0,
819,60.24,0.949,53.22,56.95,10.48,24.12,-1.426,9.161,-18.59,-14.53,-29.4,-22.87,-8.661,-18.47,-29.36,-31.92,0,0,0,0,0,0,0,0,0,0,0,0,0,0,0,0,
820,66.71,-3.069,63.98,43.43,36.19,46.56,11.26,17.59,3.36,16.86,-13.15,16.66,17.67,13.23,-12.46,-11.95,0,0,0,0,0,0,0,0,0,0,0,0,0,0,0,0,
821,42.38,-16.34,25.2,44.38,50.12,30.4,9.463,20.53,28.07,30.15,-7.854,40.81,26.3,29.84,11.87,24.77,0,0,0,0,0,0,0,0,0,0,0,0,0,0,0,0,
822,105.4,49.89,28.5,56.27,44.71,-7.211,21.67,32.91,28.04,28.91,6.961,39.43,27.86,38.99,23.61,43.41,0,0,0,0,0,0,0,0,0,0,0,0,0,0,0,0,
823,54.88,32.92,60.76,44.87,50.82,-44.93,24.82,31.89,21.81,48.68,17.67,32.88,33.15,43.48,32.96,38.35,0,0,0,0,0,0,0,0,0,0,0,0,0,0,0,0,
824,-47.26,-76.61,27.75,25.56,54.28,0.1269,-10.75,1.67,25.94,58.84,5.567,20.19,28.97,32.35,37.68,24.0,0,0,0,0,0,0,0,0,0,0,0,0,0,0,0,0,
825,26.53,-45.02,6.639,30.73,39.1,81.97,-31.84,-13.32,22.43,28.14,-10.99,7.59,12.24,16.35,25.48,17.06,0,0,0,0,0,0,0,0,0,0,0,0,0,0,0,0,
826,87.07,34.97,55.23,47.49,31.52,85.46,6.244,11.19,5.114,2.424,-5.625,1.773,5.241,9.488,9.011,16.39,0,0,0,0,0,0,0,0,0,0,0,0,0,0,0,0,
827,25.54,-11.68,69.6,27.99,37.14,65.69,38.18,34.93,4.742,14.33,12.27,-4.606,15.11,8.547,5.311,11.49,0,0,0,0,0,0,0,0,0,0,0,0,0,0,0,0,
828,13.9,-69.18,43.35,-32.23,34.01,60.67,11.66,18.78,15.15,27.36,3.833,-9.879,11.43,3.22,2.724,-1.934,0,0,0,0,0,0,0,0,0,0,0,0,0,0,0,0,
829,30.93,-44.53,24.56,-32.73,24.67,8.675,-16.33,-7.95,-1.0,14.04,-20.37,-11.98,0.0731,-4.48,-9.158,-20.62,0,0,0,0,0,0,0,0,0,0,0,0,0,0,0,0,
830,12.17,18.71,-3.305,53.35,34.6,-28.72,3.934,6.052,-6.399,-2.838,-9.016,-8.478,16.98,1.39,-13.35,-23.24,0,0,0,0,0,0,0,0,0,0,0,0,0,0,0,0,
831,-2.574,19.23,-5.491,75.58,47.42,-0.8798,23.33,22.64,21.21,-5.022,12.92,0.8332,24.14,7.188,-5.011,-3.356,0,0,0,0,0,0,0,0,0,0,0,0,0,0,0,0,
832,-10.36,-73.79,20.47,6.683,24.07,-5.061,6.12,4.071,10.2,-4.599,-0.3717,2.959,-4.189,-5.033,-5.352,1.928,0,0,0,0,0,0,0,0,0,0,0,0,0,0,0,0,
833,35.6,-90.81,29.85,-5.056,1.159,-37.52,9.169,9.141,-22.61,-0.2771,-9.903,-0.515,-8.554,-6.359,-17.77,-16.34,0,0,0,0,0,0,0,0,0,0,0,0,0,0,0,0,
834,79.95,-6.949,44.45,26.48,6.273,-8.165,23.05,19.08,-10.73,8.756,-13.18,-9.988,-2.039,-0.4277,-29.91,-26.74,0,0,0,0,0,0,0,0,0,0,0,0,0,0,0,0,
835,-14.05,-6.474,39.5,-8.615,-11.91,14.75,-28.51,-32.01,-17.86,-3.027,-56.43,-41.98,-34.99,-25.56,-46.06,-38.77,0,0,0,0,0,0,0,0,0,0,0,0,0,0,0,0,
836,-105.1,-75.4,-10.05,-49.37,-28.8,-41.88,-65.77,-52.96,-57.05,-21.86,-77.49,-67.37,-43.6,-45.59,-62.11,-65.87,0,0,0,0,0,0,0,0,0,0,0,0,0,0,0,0,
837,-44.0,-93.68,-22.73,-19.06,3.408,-65.47,-7.064,6.623,-39.57,-14.42,-31.58,-45.02,-0.4692,-20.86,-55.13,-69.46,0,0,0,0,0,0,0,0,0,0,0,0,0,0,0,0,
838,36.55,-40.36,5.136,26.13,22.35,2.781,27.05,27.48,-0.2432,-0.9989,-7.532,-5.794,19.43,9.764,-29.32,-36.94,0,0,0,0,0,0,0,0,0,0,0,0,0,0,0,0,
839,48.42,32.54,15.84,44.54,21.03,42.57,-7.107,-7.344,1.472,10.81,-19.47,9.024,14.03,23.37,-7.367,-3.827,0,0,0,0,0,0,0,0,0,0,0,0,0,0,0,0,
840,11.95,7.448,22.96,44.46,46.93,14.46,-5.425,-8.678,7.692,33.12,-4.328,7.393,20.43,29.55,9.112,12.32,0,0,0,0,0,0,0,0,0,0,0,0,0,0,0,0,
841,-41.8,-71.71,14.32,21.0,50.88,13.96,24.17,13.94,20.39,34.25,13.58,7.346,23.9,25.88,20.08,13.12,0,0,0,0,0,0,0,0,0,0,0,0,0,0,0,0,
842,-29.03,-59.65,-7.75,1.064,19.81,40.87,28.27,21.73,18.25,15.98,11.09,17.07,23.05,20.3,19.36,4.109,0,0,0,0,0,0,0,0,0,0,0,0,0,0,0,0,
843,14.7,-34.61,10.26,2.179,7.867,9.282,22.27,18.98,12.53,12.09,3.805,16.28,11.21,3.527,8.394,-9.663,0,0,0,0,0,0,0,0,0,0,0,0,0,0,0,0,
844,-12.37,-56.48,25.3,-19.98,7.403,-40.3,4.896,-1.451,-11.24,-0.0309,-12.14,-18.45,-17.73,-31.93,-13.84,-35.86,0,0,0,0,0,0,0,0,0,0,0,0,0,0,0,0,
845,-55.56,-61.0,-6.062,-39.79,12.44,-15.68,-19.47,-30.11,-27.69,-17.15,-12.76,-39.44,-11.24,-34.48,-31.52,-58.84,0,0,0,0,0,0,0,0,0,0,0,0,0,0,0,0,
846,-62.87,-106.7,-24.11,-4.777,16.68,5.221,-29.31,-32.23,-3.04,-3.959,-3.606,-17.45,18.23,-6.376,-21.6,-49.76,0,0,0,0,0,0,0,0,0,0,0,0,0,0,0,0,
847,-50.31,-167.4,-19.0,1.256,-21.74,-44.05,-26.26,-7.735,-2.358,1.122,-22.87,-13.5,-3.236,-14.61,-7.686,-32.13,0,0,0,0,0,0,0,0,0,0,0,0,0,0,0,0,
848,-14.04,-104.2,-16.64,-38.97,-56.25,-56.6,-5.505,9.728,-40.3,-18.69,-24.75,-28.56,-32.49,-31.72,-13.88,-32.67,0,0,0,0,0,0,0,0,0,0,0,0,0,0,0,0,
849,-10.16,13.05,-13.99,-7.92,-36.21,-34.87,7.875,-2.634,-47.16,-22.42,-0.0846,-13.97,-19.6,-18.32,-19.4,-31.73,0,0,0,0,0,0,0,0,0,0,0,0,0,0,0,0,
850,-64.39,24.53,-50.35,27.76,-26.34,-52.38,-21.47,-27.5,-41.2,-26.54,-19.51,-3.649,-19.74,-18.24,-19.23,-25.56,0,0,0,0,0,0,0,0,0,0,0,0,0,0,0,0,
851,-102.3,-82.43,-103.8,-36.53,-32.34,-34.54,-42.66,-27.52,-49.99,-32.2,-44.35,-15.37,-31.73,-25.97,-23.29,-26.68,0,0,0,0,0,0,0,0,0,0,0,0,0,0,0,0,
852,-96.82,-162.0,-76.2,-56.65,-10.9,-0.852,-22.0,-12.87,-39.05,-6.552,-16.71,-17.36,-18.63,-16.34,-21.1,-26.16,0,0,0,0,0,0,0,0,0,0,0,0,0,0,0,0,
853,-55.41,-107.6,-16.76,15.8,-10.96,-33.25,-16.3,-21.96,-29.22,1.695,1.971,-20.02,-12.12,-18.71,-14.92,-18.99,0,0,0,0,0,0,0,0,0,0,0,0,0,0,0,0,
854,0.1696,-61.27,-25.31,26.39,-27.98,-56.39,-25.5,-27.69,-32.13,-19.99,-12.87,-18.49,-13.61,-20.17,-13.33,-7.777,0,0,0,0,0,0,0,0,0,0,0,0,0,0,0,0,
855,1.638,-102.4,-43.1,-14.05,-7.524,-63.02,-6.726,-0.5508,-13.65,-9.962,-19.41,-6.068,-4.733,-10.19,-11.46,-1.763,0,0,0,0,0,0,0,0,0,0,0,0,0,0,0,0,
