%OpenBCI Raw EXG Data
%Number of channels = 16
%Sample Rate = 125 Hz
%Board = OpenBCI_GUI$BoardCytonSerialDaisy
Sample Index,EXG Channel 0,EXG Channel 1,EXG Channel 2,EXG Channel 3,EXG Channel 4,EXG Channel 5,EXG Channel 6,EXG Channel 7,EXG Channel 8,EXG Channel 9,EXG Channel 10,EXG Channel 11,EXG Channel 12,EXG Channel 13,EXG Channel 14,EXG Channel 15,Accel Channel 0,Accel Channel 1,Accel Channel 2,Other,Other,Other,Other,Other,Other,Other,Analog Channel 0,Analog Channel 1,Analog Channel 2,Timestamp,Other,Timestamp (Formatted),Annotations
1,0,0,0,0,0,0,-0,-0,0,0,0,0,0,0,-0,0,0,0,0,0,0,0,0,0,0,0,0,0,0,0,0,0,T0
2,-27.96,-13.3,23.6,1.879,26.51,-19.48,4.547,16.54,11.37,7.421,-1.918,-4.521,-8.55,-8.565,-1.685,-6.931,0,0,0,0,0,0,0,0,0,0,0,0,0,0,0,0,
3,1.12,-0.9711,35.71,9.847,27.82,0.2001,18.29,17,16.48,12.6,42.39,26.84,15.5,20.32,5.811,5.917,0,0,0,0,0,0,0,0,0,0,0,0,0,0,0,0,
4,25.1,4.373,22.21,14.2,2.187,3.676,12.09,15.34,3.265,6.366,56.43,24.96,7.867,3.843,10.84,15.4,0,0,0,0,0,0,0,0,0,0,0,0,0,0,0,0,
5,-12.07,-5.048,16.2,12.5,-0.6937,-12.09,6.469,19.56,15.28,12.1,25.26,9.62,-3.556,-14.37,7.575,11.66,0,0,0,0,0,0,0,0,0,0,0,0,0,0,0,0,
6,-32.54,3.551,32.9,5.813,15.65,-5.252,21.55,17.07,37.73,24.84,22.74,28.09,19.56,23.1,6.85,16.21,0,0,0,0,0,0,0,0,0,0,0,0,0,0,0,0,
7,3.902,12.93,29.47,1.298,2.176,8.758,15.5,12.3,16.57,16.44,34.62,31.59,12.93,23.77,8.282,25.27,0,0,0,0,0,0,0,0,0,0,0,0,0,0,0,0,
8,23.58,-1.368,19.72,13,-6.248,16.23,-2.885,16.95,4.606,9.859,25.98,21.05,-12.43,-15.94,5.434,22.32,0,0,0,0,0,0,0,0,0,0,0,0,0,0,0,0,
9,2.612,-11.69,31.91,13.11,7.484,4.519,1.81,12.56,17.51,5.703,14.53,12.18,-13.79,-26.81,-0.7837,12.49,0,0,0,0,0,0,0,0,0,0,0,0,0,0,0,0,
10,-38.11,-17.57,16.88,-18.34,-10.16,-38.86,-1.923,-5.162,-2.261,-15.57,-10.8,-22.87,-20.84,-22.19,-14.72,-1.874,0,0,0,0,0,0,0,0,0,0,0,0,0,0,0,0,
11,-63.38,-26.32,-6.325,-19.8,-23.92,-48.44,-8.523,0.653,-9.541,-9.833,-11.96,-21.92,-13.16,-1.367,-23.34,-9.801,0,0,0,0,0,0,0,0,0,0,0,0,0,0,0,0,
12,-17.35,-2.762,28.7,24.32,12.7,4.084,22.97,28.1,27.84,24.27,57.7,38.53,19.58,20.53,-0.3811,7.265,0,0,0,0,0,0,0,0,0,0,0,0,0,0,0,0,
13,41.21,29.33,60.86,37.85,35.59,34.87,46.23,33.71,36.48,23.51,88.39,48.59,13.93,-0.7594,31.71,24.11,0,0,0,0,0,0,0,0,0,0,0,0,0,0,0,0,
14,24.75,16.25,38.57,16.92,15.72,15.76,22.59,17.26,10.55,2.427,23.06,7.797,-11.7,-15.21,33.12,16.11,0,0,0,0,0,0,0,0,0,0,0,0,0,0,0,0,
15,-13.1,-4.967,16.72,7.282,-8.081,-9.022,3.256,5.91,-0.5572,1.605,-17.58,-0.177,-8.425,5.478,16.59,6.498,0,0,0,0,0,0,0,0,0,0,0,0,0,0,0,0,
16,-25.53,1.944,11.65,-7.669,-18.24,-21.55,11.04,3.665,-3.713,2.01,8.535,4.226,-6.598,9.464,5.195,1.906,0,0,0,0,0,0,0,0,0,0,0,0,0,0,0,0,
17,-26.49,3.339,7.199,-23.66,-10.17,-13.56,9.617,0.1429,-8.197,-1.508,34.81,-0.6538,-15.6,-1.548,-3.511,-11.9,0,0,0,0,0,0,0,0,0,0,0,0,0,0,0,0,
18,-5.485,-10.14,11.77,-4.494,-0.3653,-3.03,-2.804,-2.866,0.0086,6.398,34.36,6.576,-12.19,-7.042,-1.988,-18.62,0,0,0,0,0,0,0,0,0,0,0,0,0,0,0,0,
19,8.872,-9.553,22.49,18.42,-0.0034,-12.78,5.291,12.51,18.5,17.45,20.52,10.08,3.603,2.26,17.73,-0.1424,0,0,0,0,0,0,0,0,0,0,0,0,0,0,0,0,
20,-10.5,8.066,25.97,3.632,0.7019,-14.04,19.59,25.81,25.44,19.39,23.31,3.874,21.33,28.07,33.43,27.29,0,0,0,0,0,0,0,0,0,0,0,0,0,0,0,0,
21,-21.3,16.43,14.31,-12.71,-11.77,-0.8087,12.2,6.943,15.34,15.17,39.61,8.803,23.6,21.59,26.52,36.43,0,0,0,0,0,0,0,0,0,0,0,0,0,0,0,0,
22,-4.672,10.24,14.16,9.708,-11.53,5.306,8.396,-0.1858,15.26,16.19,31.88,18.43,14.3,-2.907,10.76,25.96,0,0,0,0,0,0,0,0,0,0,0,0,0,0,0,0,
23,9.691,2.978,32.23,25.73,19.37,2.606,8.226,10.47,13.85,9.905,3.836,0.2371,-2.375,1.153,-9.736,7.255,0,0,0,0,0,0,0,0,0,0,0,0,0,0,0,0,
24,-11.37,-19.02,9.203,-8.848,8.829,-21.49,-15.68,-16.93,-16.43,-13.19,-20.39,-37.53,-33.53,-13.72,-44.95,-24.14,0,0,0,0,0,0,0,0,0,0,0,0,0,0,0,0,
25,-43.62,-37.05,-18.42,-31.66,-15.15,-34.04,-21.27,-34.05,-20.43,-9.909,-12.25,-26.84,-27.41,-26.75,-56.95,-42.67,0,0,0,0,0,0,0,0,0,0,0,0,0,0,0,0,
26,-19.65,-4.297,24.81,-0.58,26.88,2.466,1.384,-1.611,21.75,20.62,35.96,24.85,21.76,13.55,-4.9,-3.356,0,0,0,0,0,0,0,0,0,0,0,0,0,0,0,0,
27,15.83,23.68,50,19.3,48.93,17.67,-0.9368,3.496,39.46,21.4,60.96,35.19,28.31,28.16,62.2,58.56,0,0,0,0,0,0,0,0,0,0,0,0,0,0,0,0,
28,3.901,2.706,23.3,13.81,25.68,2.008,3.602,-9.921,40.32,12.19,58.78,28.94,12.01,11.49,81.1,78.13,0,0,0,0,0,0,0,0,0,0,0,0,0,0,0,0,
29,20.59,8.606,42.38,28.76,51.1,29.31,36.91,11,54.38,22.76,88.31,52.31,28,25.35,65.02,63.4,0,0,0,0,0,0,0,0,0,0,0,0,0,0,0,0,
30,55.29,35.1,63.26,34.93,69.9,46.92,30.64,10.07,38.44,13.46,92.89,52.73,28.86,24.96,47.77,46.45,0,0,0,0,0,0,0,0,0,0,0,0,0,0,0,0,
31,27.64,15.99,27.2,9.344,28.08,11.78,-1.123,-20.44,18.91,-1.014,31.78,26.92,15.47,10.71,40.34,39.31,0,0,0,0,0,0,0,0,0,0,0,0,0,0,0,0,
32,-5.404,-4.705,9.508,-5.869,4.616,-8.213,-4.268,-21.35,34.54,9.027,-9.635,7.784,11.33,13.33,35.83,37.28,0,0,0,0,0,0,0,0,0,0,0,0,0,0,0,0,
33,-22.59,-11.17,4.943,-14.93,-2.657,-18.24,-12.26,-18.79,17.89,-2.649,-11.31,-22.21,-18.93,-11.51,13.62,17.27,0,0,0,0,0,0,0,0,0,0,0,0,0,0,0,0,
34,-42.89,-35.97,-20.38,-36.43,-19.42,-33.97,-28.45,-36.41,-20.86,-25.21,-2.991,-27.29,-34.06,-28.86,-12.46,-6.425,0,0,0,0,0,0,0,0,0,0,0,0,0,0,0,0,
35,-9.531,-33.21,-9.271,-34.54,-2.467,-17.68,-15.59,-33.61,4.715,-2.152,28.01,12.19,2.462,7.897,-5.286,6.253,0,0,0,0,0,0,0,0,0,0,0,0,0,0,0,0,
36,17.09,-0.4427,21.38,-4.931,19.96,-1.899,0.0205,-12.32,46.12,24.64,51.86,22.02,18.4,27.2,19.33,34.4,0,0,0,0,0,0,0,0,0,0,0,0,0,0,0,0,
37,-20.21,2.633,21.24,16.63,19.66,-5.351,-3.003,-3.422,33.7,12.69,43.83,4.932,3.166,6.697,29.84,39.34,0,0,0,0,0,0,0,0,0,0,0,0,0,0,0,0,
38,-22.54,-10.1,18.9,11.17,26.6,-3.743,-5.255,-11,9.402,-3.789,17.91,2.813,-3.049,-8.198,27.68,27.01,0,0,0,0,0,0,0,0,0,0,0,0,0,0,0,0,
39,-11.42,-16.56,6.632,-23.69,6.059,-23.51,-10.14,-30.61,-5.04,-13.84,-22.6,-10.62,-12.98,-13.97,8.876,8.224,0,0,0,0,0,0,0,0,0,0,0,0,0,0,0,0,
40,-33.48,-20.21,-16.56,-36.48,-32.07,-35.65,-14.49,-33.67,-8.918,-12.76,-15.04,-0.9175,-3.842,1.734,-8.546,2.944,0,0,0,0,0,0,0,0,0,0,0,0,0,0,0,0,
41,0.7764,2.245,7.837,5.696,-5.041,3.277,-0.0521,-3.14,20.84,14.9,51.77,44.42,32.01,36.14,13.21,35.53,0,0,0,0,0,0,0,0,0,0,0,0,0,0,0,0,
42,36.57,24.23,33.82,17.76,26.57,15.18,4.524,4.864,34.39,21.56,52.52,25.69,19.23,27.38,34.16,61.99,0,0,0,0,0,0,0,0,0,0,0,0,0,0,0,0,
43,-15.12,-4.914,-5.457,-24.62,-12.69,-26.21,-23.37,-32.06,1.021,-10.51,-8,-31.16,-30.18,-18.99,1.462,31.79,0,0,0,0,0,0,0,0,0,0,0,0,0,0,0,0,
44,-55.18,-41.97,-35.38,-38,-36.57,-44.14,-37.56,-46.77,-8.681,-17.68,-22.35,-27.97,-30.28,-26.21,-38.01,-5.333,0,0,0,0,0,0,0,0,0,0,0,0,0,0,0,0,
45,-39.2,-35.64,-16.02,-35.17,-11.64,-29.18,-17.96,-28.13,6.079,-2.203,-11.84,-6.498,-0.9728,1.728,-34.55,7.38,0,0,0,0,0,0,0,0,0,0,0,0,0,0,0,0,
46,-12.22,-12.55,-0.1185,-39.3,6.396,-5.394,-1.51,-19.07,7.76,1.049,13.55,12.4,16.99,21.04,-1.099,48.02,0,0,0,0,0,0,0,0,0,0,0,0,0,0,0,0,
47,20.64,11.81,23.88,9.837,34.09,28.86,18.83,2.461,44.44,25.9,76.59,62.27,50.4,46.1,52.86,93.77,0,0,0,0,0,0,0,0,0,0,0,0,0,0,0,0,
48,45.42,48.4,69.95,75.91,74.16,59.11,56.03,39.65,97.61,59.65,115.4,96.67,81.04,67.33,110.9,133.7,0,0,0,0,0,0,0,0,0,0,0,0,0,0,0,0,
49,63.68,67.56,77.87,71.53,73.46,65.03,57.47,32.29,84.41,45.22,113.9,89.07,66.1,51.38,131.6,132.2,0,0,0,0,0,0,0,0,0,0,0,0,0,0,0,0,
50,61.61,43,33.89,22.29,34.25,33.31,15.91,-5.876,39.41,13.05,88.13,58.69,31.06,26.37,100.1,87.46,0,0,0,0,0,0,0,0,0,0,0,0,0,0,0,0,
51,12.55,5.21,-3.578,-10.13,-0.813,-8.216,-8.565,-17.96,24.63,5.293,25.12,14.35,4.902,9.643,37.96,39.9,0,0,0,0,0,0,0,0,0,0,0,0,0,0,0,0,
52,-16.17,-14.51,-10.15,-16.99,-9.602,-13.35,-11.94,-21.02,19.27,0.175,-15.76,-8.494,-14.39,-9.914,-20.15,7.444,0,0,0,0,0,0,0,0,0,0,0,0,0,0,0,0,
53,-9.383,-18.43,-8.455,-20.95,-0.8034,-8.55,-17.06,-30.26,8.785,-7.192,-4.082,-4.846,-16.24,-7.683,-44.92,-5.267,0,0,0,0,0,0,0,0,0,0,0,0,0,0,0,0,
54,-26.23,-13.77,-6.014,-26.38,-0.1278,-17.46,-14.33,-23.86,6.116,-3.398,7.756,-0.9442,-3.111,7.481,-34.17,9.813,0,0,0,0,0,0,0,0,0,0,0,0,0,0,0,0,
55,-23.51,-10.33,-2.217,-18.5,-10.99,-13.27,-12.25,-18.96,7.683,-1.002,14.23,8.682,0.0404,0.1575,-8.864,34.04,0,0,0,0,0,0,0,0,0,0,0,0,0,0,0,0,
56,-0.3643,-14.28,-10.64,-13.94,-18.53,-12.27,-19.89,-29.56,6.761,-4.782,16.25,8.027,-9.865,-11.54,2.227,33.63,0,0,0,0,0,0,0,0,0,0,0,0,0,0,0,0,
57,-16.79,-14.38,-19.62,-21.25,-16.18,-18.52,-20.14,-30.35,4.86,-3.317,6.055,-2.874,-14.04,-11.11,-12.1,8.799,0,0,0,0,0,0,0,0,0,0,0,0,0,0,0,0,
58,-13.12,-4.403,-2.805,-9.763,-0.6534,1.975,-3.211,-13.06,11.02,8.288,8.065,16.73,4.561,7.966,-21.61,0.9991,0,0,0,0,0,0,0,0,0,0,0,0,0,0,0,0,
59,18.84,11.38,23.83,15.01,22.38,19.96,22.75,7.013,29.6,24.39,17.28,39.13,30.39,40.83,-2.332,29.7,0,0,0,0,0,0,0,0,0,0,0,0,0,0,0,0,
60,6.338,19.3,26.74,14.79,26.44,9.141,18.51,3.517,37.51,24.63,26.01,27.67,21.88,30.03,15.11,53.18,0,0,0,0,0,0,0,0,0,0,0,0,0,0,0,0,
61,-2.811,5.301,11.94,-8.393,3.75,5.239,-16.14,-18.3,24.22,10.11,36.31,20.72,2.024,-1.382,6.502,44.89,0,0,0,0,0,0,0,0,0,0,0,0,0,0,0,0,
62,19.27,0.4372,13.82,-9.413,1.507,17.43,-1.113,-3.604,23.39,14.6,27.14,30.41,24.24,29.14,-0.9104,38.66,0,0,0,0,0,0,0,0,0,0,0,0,0,0,0,0,
63,15.36,25.59,32.03,22.1,31.83,24.69,46.65,29.4,36.9,29.13,10.38,22.7,41.54,54.35,3.506,45.65,0,0,0,0,0,0,0,0,0,0,0,0,0,0,0,0,
64,-1.169,27.75,32.93,29.2,34.63,17.85,33.16,13.14,28.09,19.75,2.612,-0.9554,5.279,5.664,-7.639,35.82,0,0,0,0,0,0,0,0,0,0,0,0,0,0,0,0,
65,-11.32,-2.97,21.84,3.39,18.88,3.645,3.033,-13.22,14.89,8.883,-5.925,-7.49,-20.27,-24.06,-27.76,13.27,0,0,0,0,0,0,0,0,0,0,0,0,0,0,0,0,
66,-8.439,-5.361,24.28,5.492,31.46,9.694,18.78,0.5926,26.97,19.31,1.553,15.42,2.732,10.61,-22.2,7.309,0,0,0,0,0,0,0,0,0,0,0,0,0,0,0,0,
67,33.37,18.01,29.9,28.46,31.46,31.41,30.63,14.33,34.94,25.64,24.54,34.5,20.59,32.05,-0.6878,16.29,0,0,0,0,0,0,0,0,0,0,0,0,0,0,0,0,
68,41.67,17.76,26.66,23.38,11.73,24.19,17.07,2.214,22.66,14.66,29.86,15.41,3.201,-0.1858,0.4397,16.29,0,0,0,0,0,0,0,0,0,0,0,0,0,0,0,0,
69,-10.5,-1.738,20.32,4.974,21.72,5.134,3.402,-13.98,16.13,3.635,17.24,-8.139,-13.16,-30.55,-15.44,2.755,0,0,0,0,0,0,0,0,0,0,0,0,0,0,0,0,
70,-1.775,-0.9132,21.26,11.35,36.63,22.82,10.56,-2.967,29.94,10.64,14.58,9.872,1.888,-12.7,-17.29,-0.7047,0,0,0,0,0,0,0,0,0,0,0,0,0,0,0,0,
71,43.13,19.44,29.78,32.04,29.26,37.04,36.36,27.26,43.48,22.28,26.07,24.79,6.226,-4.633,-9.043,8.378,0,0,0,0,0,0,0,0,0,0,0,0,0,0,0,0,
72,9.401,10.68,16.9,18.26,13.62,4.479,18.61,12.13,20.61,5.453,10.17,-13.86,-35.26,-40.86,-26.06,-6.41,0,0,0,0,0,0,0,0,0,0,0,0,0,0,0,0,
73,-26.7,-23.5,-12.17,-17.8,-6.375,-16.84,-32.09,-30.84,-9.017,-12.15,-22.24,-39.44,-51.25,-41,-57.17,-38.94,0,0,0,0,0,0,0,0,0,0,0,0,0,0,0,0,
74,7.904,-12.63,2.565,-1.364,8.507,14.64,-7.879,-7.693,25.53,19.7,20.56,13.93,11.61,20.04,-36.6,-17.98,0,0,0,0,0,0,0,0,0,0,0,0,0,0,0,0,
75,46.68,41.56,51.74,46.38,59.43,51.41,61.54,47.91,80.71,57.05,97.65,70.58,72.62,66.95,42.17,69.15,0,0,0,0,0,0,0,0,0,0,0,0,0,0,0,0,
76,48.57,59.51,57.22,45.54,57.62,48.12,61.37,42.78,67.98,42.73,80.54,45.36,53.36,56.14,87.13,122.7,0,0,0,0,0,0,0,0,0,0,0,0,0,0,0,0,
77,22.97,24.3,21.55,22.85,12.16,22.18,19.47,7.339,30.8,16.69,35.26,2.021,4.347,12.65,48.73,78.22,0,0,0,0,0,0,0,0,0,0,0,0,0,0,0,0,
78,16.67,-0.8923,14.33,24.52,14.58,23.45,9.77,1.739,34.97,18.23,50.81,17.64,2.128,-5.47,-2.089,9.157,0,0,0,0,0,0,0,0,0,0,0,0,0,0,0,0,
79,51.76,13.77,31.21,20.25,34.06,44.41,14.19,7.905,38.9,15.79,34.67,30.21,19.16,10.57,-6.767,-3.325,0,0,0,0,0,0,0,0,0,0,0,0,0,0,0,0,
80,42.83,20.69,21.94,2.215,11.77,26.74,4.83,0.7872,14.56,-2.042,-21.73,-7.212,4.872,13.22,-0.5276,16.26,0,0,0,0,0,0,0,0,0,0,0,0,0,0,0,0,
81,-18.5,-3.422,7.179,-4.228,-3.52,-10.6,-2.372,-5.711,10.25,0.6737,-13.63,-26.68,-8.059,8.654,-9.865,23.34,0,0,0,0,0,0,0,0,0,0,0,0,0,0,0,0,
82,-27.95,-12.39,16.47,-3.907,14.63,-10.23,1.06,-1.221,34.32,21.8,26.87,-6.301,8.46,23.95,-6.607,24.55,0,0,0,0,0,0,0,0,0,0,0,0,0,0,0,0,
83,5.069,5.585,21.42,0.3056,27.1,9.479,2.445,1.832,38.68,22.78,30.75,8.483,20.16,25.17,15.42,32.04,0,0,0,0,0,0,0,0,0,0,0,0,0,0,0,0,
84,19.19,10.66,17.01,12.02,25.84,17.7,-3.866,-2.598,22.04,8.239,24.73,8.792,10.02,-0.1287,24.98,31.89,0,0,0,0,0,0,0,0,0,0,0,0,0,0,0,0,
85,23.62,-1.01,18.04,16.78,20,18.25,-8.768,-2.673,19.41,7.765,36.17,5.374,5.234,-3.87,18.12,18.6,0,0,0,0,0,0,0,0,0,0,0,0,0,0,0,0,
86,21.28,0.6657,20.65,18.93,18.16,19.27,4.542,7.825,30.32,19,60.48,14.79,24.75,21.64,25.05,20.49,0,0,0,0,0,0,0,0,0,0,0,0,0,0,0,0,
87,22.25,19.4,36.21,24.91,33.38,28.86,29.79,14.78,42.94,27.41,64.86,35.19,41.34,29.32,42.38,41.81,0,0,0,0,0,0,0,0,0,0,0,0,0,0,0,0,
88,38.82,28.08,48.59,15.65,42.92,31.47,30.91,5.94,56.36,29.77,42.55,32.31,32.77,21.67,36.86,41.83,0,0,0,0,0,0,0,0,0,0,0,0,0,0,0,0,
89,38.43,22.72,31.82,6.579,35.85,21.27,15.07,-0.6211,61.19,28.04,53.73,25.48,30.43,31.13,23.64,26.37,0,0,0,0,0,0,0,0,0,0,0,0,0,0,0,0,
90,26.98,25.57,23.92,19.18,37.28,27.1,16.32,5.746,50.02,21.28,72.52,35.92,33.97,24.75,33.68,31.71,0,0,0,0,0,0,0,0,0,0,0,0,0,0,0,0,
91,25.14,20.41,28.45,16.45,30.76,31.09,7.492,-4.817,26.47,3.007,25.77,16.57,8.087,-11.76,40.27,33.51,0,0,0,0,0,0,0,0,0,0,0,0,0,0,0,0,
92,7.037,-8.181,4.257,-11.59,3.876,7.346,-20.35,-29.79,9.45,-13.11,-15.16,-14.45,-10.42,-18.05,22.44,14.48,0,0,0,0,0,0,0,0,0,0,0,0,0,0,0,0,
93,-4.147,-16.21,-12.9,-22.94,-3.407,-2.27,-17.66,-25.4,14.4,-5.757,4.915,-0.9957,10.94,10.25,9.132,6.919,0,0,0,0,0,0,0,0,0,0,0,0,0,0,0,0,
94,19.21,6.881,3.203,-17.7,5.27,10.65,-1.258,-8.002,14.5,3.539,16.79,15.35,20.63,16.53,9.737,6.949,0,0,0,0,0,0,0,0,0,0,0,0,0,0,0,0,
95,21.51,13.96,2.909,-18,-2.956,4.571,-11.5,-17.48,0.2434,-1.686,13.5,6.535,4.469,1.16,8.743,-5.041,0,0,0,0,0,0,0,0,0,0,0,0,0,0,0,0,
96,-4.189,5.397,-13.17,-14.89,-6.603,-8.883,-18.44,-25.18,10.73,5.325,25.27,8.497,5.516,2.572,9.294,-9.227,0,0,0,0,0,0,0,0,0,0,0,0,0,0,0,0,
97,-5.628,9.721,-8.803,-8.417,5.486,-4.418,-14.18,-11.51,29.07,16.54,22.9,10.91,17.44,20.09,11.03,0.9817,0,0,0,0,0,0,0,0,0,0,0,0,0,0,0,0,
98,4.834,15.53,1.68,-11.11,10.55,5.426,-13.55,-7.01,19.38,8.812,13.49,3.184,18.73,32.17,6.183,11.91,0,0,0,0,0,0,0,0,0,0,0,0,0,0,0,0,
99,11.11,14.87,11.83,-10.34,22.41,19.2,6.046,-7.191,21.71,10.41,24.27,13.53,27.23,41.21,5.885,27.5,0,0,0,0,0,0,0,0,0,0,0,0,0,0,0,0,
100,29.64,17.3,26.82,-1.807,37.88,32.8,22.33,-0.7671,36.46,19.68,31.27,26.58,35.92,43.05,14.34,42.93,0,0,0,0,0,0,0,0,0,0,0,0,0,0,0,0,
101,34.21,12.5,17.19,-7.526,15.7,19.99,-1.365,-14.29,16.84,3.48,27.86,18.14,21.48,19.56,19.14,42.57,0,0,0,0,0,0,0,0,0,0,0,0,0,0,0,0,
102,9.808,1.459,-8.881,-17.88,-9.827,-3.221,-17.32,-28.79,2.533,-7.431,27.32,9.839,11.89,-0.0562,18.48,31.15,0,0,0,0,0,0,0,0,0,0,0,0,0,0,0,0,
103,4.287,11.48,-0.4853,-7.167,11.93,8.294,4.565,-6.412,23.68,9.314,24.3,20.18,32.86,19.62,14.73,22,0,0,0,0,0,0,0,0,0,0,0,0,0,0,0,0,
104,39.21,39.69,32.24,13.14,40.18,43.26,23.64,16.21,34.54,19.16,37.75,42.22,55.44,43.92,14.62,27.2,0,0,0,0,0,0,0,0,0,0,0,0,0,0,0,0,
105,63.27,48.9,38.25,19.59,42.09,50.61,21,5.511,32.52,15.32,53.21,39.77,44.89,29.15,21.99,40,0,0,0,0,0,0,0,0,0,0,0,0,0,0,0,0,
106,35.7,26.98,15.31,-6.38,28.9,21.55,6.864,-9.758,32.51,8.71,18.97,4.965,13.36,-1.333,13.21,27.23,0,0,0,0,0,0,0,0,0,0,0,0,0,0,0,0,
107,5.691,6.74,4.97,-40.03,10.7,1.557,-0.4947,-9.673,24.45,2.079,-8.884,5.613,9.845,2.502,-9.332,1.71,0,0,0,0,0,0,0,0,0,0,0,0,0,0,0,0,
108,17.48,11.35,16.79,-21.82,7.463,8.996,3.287,-8.229,17.19,1.43,9.478,28.36,25.73,21.67,-10.38,5.068,0,0,0,0,0,0,0,0,0,0,0,0,0,0,0,0,
109,10.53,11.72,6.723,8.145,-1.245,3.961,-11.4,-19.22,-1.652,-9.888,-7.327,-2.403,8.616,6.832,-5.569,8.862,0,0,0,0,0,0,0,0,0,0,0,0,0,0,0,0,
110,-26.04,-4.454,-18.84,-3.298,-25.39,-7.966,-22.23,-22.2,-26.2,-20.59,-23.04,-12.54,-3.276,-3.64,-11.93,-6.082,0,0,0,0,0,0,0,0,0,0,0,0,0,0,0,0,
111,-8.465,1.778,-2.935,4.117,-6.699,11.49,6.718,1.575,-5.669,2.706,25.81,38.22,22.91,19.56,-1.644,2.423,0,0,0,0,0,0,0,0,0,0,0,0,0,0,0,0,
112,30.39,21.59,19.37,13.75,19.94,19.02,11.89,7.067,23.17,18.21,27.84,35.1,23.12,23.11,7.956,17.85,0,0,0,0,0,0,0,0,0,0,0,0,0,0,0,0,
113,13.86,13.16,-0.0738,-26.05,-7.831,-4.767,-18.37,-18.81,3.14,-0.6071,-22.57,-3.309,6.166,15.29,-8.513,5.971,0,0,0,0,0,0,0,0,0,0,0,0,0,0,0,0,
114,-0.0098,4.695,-5.232,-22.93,-9.959,1.737,-0.8999,-11.59,-11.55,-2.751,-8.877,13.1,23.41,24.59,-14.02,4.151,0,0,0,0,0,0,0,0,0,0,0,0,0,0,0,0,
115,19.04,25.91,19.82,27.13,32.84,24.61,39.12,21.56,13.45,14.02,27.39,34.71,36.13,13.23,3.653,21.9,0,0,0,0,0,0,0,0,0,0,0,0,0,0,0,0,
116,24.25,39.5,24.02,22.1,35.27,21.81,33.77,22.42,32.91,16.45,22.86,32.17,29.17,0.3077,14.75,25.06,0,0,0,0,0,0,0,0,0,0,0,0,0,0,0,0,
117,29.75,25.27,14.41,8.352,18.03,21.97,15.2,9.442,26.86,11.37,14.57,30.21,27.5,17.73,10.9,14.55,0,0,0,0,0,0,0,0,0,0,0,0,0,0,0,0,
118,31.45,13.38,13.1,25.18,22.44,22.29,13.61,8.1,19.13,9.26,25.16,20.98,20.08,21.25,-1.135,2.699,0,0,0,0,0,0,0,0,0,0,0,0,0,0,0,0,
119,3.388,18.41,13.38,11.06,21.61,9.834,17.3,4.929,27.66,13.91,45.36,23.81,13.99,10.87,-6.875,-2.537,0,0,0,0,0,0,0,0,0,0,0,0,0,0,0,0,
120,5.977,22.53,19.06,-0.5659,21.58,18.42,23.29,8.498,29.75,17.47,35.24,36.48,19.22,18.58,1.739,8.249,0,0,0,0,0,0,0,0,0,0,0,0,0,0,0,0,
121,37.85,21.32,24.68,24.97,25.93,28.71,23.38,18.94,5.757,4.433,-10.1,18.26,11.71,16.71,5.103,17.86,0,0,0,0,0,0,0,0,0,0,0,0,0,0,0,0,
122,8.35,14.53,11.84,19.35,9.728,3.135,7.47,6.414,-15.22,-9.094,-26.38,-10.68,-11.83,-4.896,-11.14,2.188,0,0,0,0,0,0,0,0,0,0,0,0,0,0,0,0,
123,-34.75,-7.984,-8.037,-10.35,-3.885,-12,-8.841,-15.67,-15,-6.698,-13.58,-10.8,-21.21,-9.629,-34.43,-29.31,0,0,0,0,0,0,0,0,0,0,0,0,0,0,0,0,
124,2.356,-13.21,-5.218,-0.5576,6.596,13.3,1.461,-6.726,-3.786,0.8911,-11.15,7.673,-1.632,3.885,-44.89,-42.75,0,0,0,0,0,0,0,0,0,0,0,0,0,0,0,0,
125,37.69,14.14,7.812,11.28,8.007,21.37,18.65,8.611,9.058,4.778,-16.34,7.548,10.88,1.883,-40.83,-27.46,0,0,0,0,0,0,0,0,0,0,0,0,0,0,0,0,
126,-6.08,14.27,-0.5388,-10.17,-3.396,-5.112,7.025,-4.021,7.598,2.09,-33.83,-14.78,-6.044,-15.2,-38.08,-14.07,0,0,0,0,0,0,0,0,0,0,0,0,0,0,0,0,
127,-36.85,-5.932,-5.499,-12.19,3.119,-9.075,-0.4513,-10.45,-5.531,-3.772,-41.63,-12.31,-12.5,-18.36,-37.55,-20.51,0,0,0,0,0,0,0,0,0,0,0,0,0,0,0,0,
128,-2.679,6.077,8.232,13.48,8.953,8.429,10.78,3.58,-9.088,-1.765,-10.09,15.66,1.782,1.782,-30.57,-25.49,0,0,0,0,0,0,0,0,0,0,0,0,0,0,0,0,
129,22.18,16.28,7.73,22.37,3.359,11.15,4.145,13.35,7.763,17.13,24.83,30.86,18.94,42.01,-13.37,-6.698,0,0,0,0,0,0,0,0,0,0,0,0,0,0,0,0,
130,20.86,18,12.27,17.88,24.91,21.22,10.19,22.02,36.56,40.27,45.87,51.43,44.76,71.36,22.86,31.5,0,0,0,0,0,0,0,0,0,0,0,0,0,0,0,0,
131,38.01,40.29,36.63,16.13,49.43,37.43,41.94,20.41,37.9,32.24,66.46,77.7,48.43,43.67,57.13,52.92,0,0,0,0,0,0,0,0,0,0,0,0,0,0,0,0,
132,60.52,38.63,32.66,18.93,35.73,33.3,38.6,8.063,12.83,5.67,60.1,64.71,16.13,-3.698,46.81,31.53,0,0,0,0,0,0,0,0,0,0,0,0,0,0,0,0,
133,56.9,12.96,15.63,30.66,29.52,31.44,15.28,17.66,14.3,7.123,19.28,23.7,2.548,-1.5,3.947,-2.986,0,0,0,0,0,0,0,0,0,0,0,0,0,0,0,0,
134,25.25,15.85,18.66,29.36,36.67,24.85,14.12,20.43,25.22,15.69,-14.89,-0.8625,15.11,24.81,-24.47,-13.52,0,0,0,0,0,0,0,0,0,0,0,0,0,0,0,0,
135,-14.06,23.3,7.541,9.997,14.37,-3.919,11.62,-3.601,13.1,4.673,-20.5,-0.6117,14.77,21.21,-25.07,-5.549,0,0,0,0,0,0,0,0,0,0,0,0,0,0,0,0,
136,-20.18,9.722,-2.14,12.89,3.869,-7.788,8.743,2.061,10.76,2.388,-9.214,7.28,0.4137,-6.949,-16.21,-3.452,0,0,0,0,0,0,0,0,0,0,0,0,0,0,0,0,
137,13.23,4.451,23.86,38.59,31.21,20.96,24.69,25.85,23.16,12.52,13.17,20.27,1.314,-14.23,-10.22,-11.23,0,0,0,0,0,0,0,0,0,0,0,0,0,0,0,0,
138,48.12,24.79,40.68,43.52,44.59,41.63,42.59,20.14,33.38,18.9,34.72,42.06,26.04,16.38,1.401,-6.49,0,0,0,0,0,0,0,0,0,0,0,0,0,0,0,0,
139,50.13,40.7,19.97,13.31,26.27,35.19,32.33,5.567,22.57,9.474,14.9,29.14,14.93,14.87,3.099,-0.2293,0,0,0,0,0,0,0,0,0,0,0,0,0,0,0,0,
140,2.497,2.702,-14.54,-25.59,-9.155,-7.425,-12.6,-12.09,-30.19,-22.04,-33.84,-25.22,-44.31,-40.54,-35.46,-33.15,0,0,0,0,0,0,0,0,0,0,0,0,0,0,0,0,
141,-35.23,-41.61,-29.07,-30.07,-28.62,-28.26,-28.67,-19.92,-47.64,-24.37,-32.22,-24.47,-38.93,-33.46,-66.18,-61.1,0,0,0,0,0,0,0,0,0,0,0,0,0,0,0,0,
142,13.09,-3.945,1.074,7.083,4.426,19.69,18.86,17.29,12.41,18.38,13.68,38.22,33.17,42.47,-24.54,-11.08,0,0,0,0,0,0,0,0,0,0,0,0,0,0,0,0,
143,57.8,46.56,32.14,35.07,33.61,36.5,45.1,45.4,37.41,30.67,22.86,51.14,45.09,51.27,40.1,56.37,0,0,0,0,0,0,0,0,0,0,0,0,0,0,0,0,
144,11.41,34.78,22.92,29.48,10.91,-4.644,24.58,28.22,15.25,16.31,13.09,27.35,22.32,20.36,55.74,50.03,0,0,0,0,0,0,0,0,0,0,0,0,0,0,0,0,
145,-3.51,37.26,21.25,24.27,4.159,10.85,26.62,27.37,27.52,29.77,38.68,49.11,41.88,42.77,39.22,7.273,0,0,0,0,0,0,0,0,0,0,0,0,0,0,0,0,
146,54.83,58.7,30.95,24.89,17.4,48.08,33.77,36,23.26,28.47,37.86,59.86,34.81,35.2,16.9,-17.5,0,0,0,0,0,0,0,0,0,0,0,0,0,0,0,0,
147,42.82,27.28,2.89,8.805,-13.85,11.86,11.24,12.06,-23.02,-4.723,-27.9,11.59,-9.967,-20.1,-19.04,-42.63,0,0,0,0,0,0,0,0,0,0,0,0,0,0,0,0,
148,-21.82,0.8643,-19.79,-0.0002,-33.15,-18.34,7.523,1.836,-30.57,-9.306,-56.29,-5.535,2.681,-1.194,-44.19,-53.91,0,0,0,0,0,0,0,0,0,0,0,0,0,0,0,0,
149,-11.94,26.03,6.823,21.37,9.37,13.54,30.8,23.44,-3.408,10.3,-14.79,29.42,36.25,39.35,-26.31,-18.34,0,0,0,0,0,0,0,0,0,0,0,0,0,0,0,0,
150,21.37,27.44,28.21,35.61,31.55,30.92,36.54,28.48,5.76,11.25,-0.7737,26.88,8.274,-1.68,2.708,14.04,0,0,0,0,0,0,0,0,0,0,0,0,0,0,0,0,
151,8.223,-1.297,20.48,18.83,13.61,15.8,28.82,17.52,5.579,5.193,-16.81,-2.029,-18.21,-27.7,5.071,3.287,0,0,0,0,0,0,0,0,0,0,0,0,0,0,0,0,
152,6.182,2.035,21.38,5.034,19.21,20.19,35.01,20.86,11.78,10.9,1.414,10.97,1.913,2.857,2.083,-5.342,0,0,0,0,0,0,0,0,0,0,0,0,0,0,0,0,
153,26.97,16.88,27.21,15.02,25.5,36.9,40.84,24.84,13.68,13.69,23.06,33.58,9.817,1.882,12.62,5.375,0,0,0,0,0,0,0,0,0,0,0,0,0,0,0,0,
154,25.38,12.33,15.25,25.02,-0.0224,25.42,23.01,13.35,5.978,8.427,22.42,31.88,8.515,-0.9786,23.26,10.09,0,0,0,0,0,0,0,0,0,0,0,0,0,0,0,0,
155,15.75,17.12,5.105,22.96,-8.902,4.602,9.713,9.981,2.898,11.47,29.95,33.83,26.19,28.92,26.72,17.06,0,0,0,0,0,0,0,0,0,0,0,0,0,0,0,0,
156,12.65,25.54,8.113,19.73,2.252,7.769,20.19,16.19,3.579,12.96,23.46,25.98,19.01,14.36,13.4,23.33,0,0,0,0,0,0,0,0,0,0,0,0,0,0,0,0,
157,-4.622,14.14,7.154,15.16,-2.773,11.99,17.82,10.52,-0.255,3.981,-5.14,0.1148,0.6102,-11.09,-13.69,8.597,0,0,0,0,0,0,0,0,0,0,0,0,0,0,0,0,
158,-6.472,20.95,13.66,18.29,6.161,16.66,16.18,22.29,11.16,15.14,5.857,13.41,32.53,38.42,-11.6,6.476,0,0,0,0,0,0,0,0,0,0,0,0,0,0,0,0,
159,40.37,49.82,26.86,28.76,28.35,38.04,40.43,42.96,17.37,26.83,33.3,42.52,51.95,57.98,20.94,35.39,0,0,0,0,0,0,0,0,0,0,0,0,0,0,0,0,
160,53.34,30.16,0.3798,5.011,3.141,18.77,24.39,3.398,-11.64,-2.299,6.857,7.769,-6.621,-25.26,17.76,30.92,0,0,0,0,0,0,0,0,0,0,0,0,0,0,0,0,
161,-15.23,-20.01,-34.13,-25.47,-30.22,-28.42,-18.91,-36.16,-14.28,-13.22,-10.03,-23.81,-34.01,-46.53,-24.7,-18.37,0,0,0,0,0,0,0,0,0,0,0,0,0,0,0,0,
162,-27.92,-5.875,0.9152,11.76,0.5266,0.3259,6.139,8.106,21.78,20.14,35.25,24.55,29.01,38.94,-30.03,-20.93,0,0,0,0,0,0,0,0,0,0,0,0,0,0,0,0,
163,50.82,39.13,47.7,52.15,38.45,51.98,44.98,39.63,23.28,22.66,58.94,60.55,55.01,48.21,16.53,37.83,0,0,0,0,0,0,0,0,0,0,0,0,0,0,0,0,
164,62.17,26.8,33.04,24.16,31.2,32.74,29.57,10.62,15.96,5.2,45.07,42.57,20.06,-7.101,54.72,72.1,0,0,0,0,0,0,0,0,0,0,0,0,0,0,0,0,
165,18.49,3.78,17.95,8.841,23.35,14.88,23.56,9.588,36.26,17.04,47.61,36.94,22.7,12.05,54.08,59.81,0,0,0,0,0,0,0,0,0,0,0,0,0,0,0,0,
166,23.97,14.27,23.81,25.11,20.72,24.3,28.55,21.86,25.73,14.89,35.02,23.28,23.63,26.46,24.67,31.62,0,0,0,0,0,0,0,0,0,0,0,0,0,0,0,0,
167,17.24,4.208,5.941,7.61,2.247,9.459,8.6,2.147,-7.361,-6.657,0.5264,-14.21,-12.17,-11.61,-13.63,0.2926,0,0,0,0,0,0,0,0,0,0,0,0,0,0,0,0,
168,-9.149,-12.24,-4.589,-3.923,-6.417,5.009,3.86,-1.339,-5.242,-3.747,-6.882,-18.06,-5.427,1.324,-28.74,-3.538,0,0,0,0,0,0,0,0,0,0,0,0,0,0,0,0,
169,-1.374,7.751,11.41,21.79,1.112,15.14,15.8,14.16,12.78,6.132,11.74,8.888,20.2,27.7,-6.905,23.41,0,0,0,0,0,0,0,0,0,0,0,0,0,0,0,0,
170,10.59,19.29,19.21,30.9,13.06,13.17,18.44,16.91,17.77,8.575,43.46,35.35,10.19,9.887,23.4,28.9,0,0,0,0,0,0,0,0,0,0,0,0,0,0,0,0,
171,35.88,9.62,12.03,13.36,20.2,23.79,11.98,13.16,9.013,9.808,47.37,36.11,2.911,4.713,23.56,4.631,0,0,0,0,0,0,0,0,0,0,0,0,0,0,0,0,
172,40.35,5.228,-12.61,-8.279,-0.3045,14.1,-12.95,-1.913,-4.385,-1.987,-1.037,0.9397,-4.059,-5.151,-8.602,-13.95,0,0,0,0,0,0,0,0,0,0,0,0,0,0,0,0,
173,-17.48,-5.413,-29.75,-21.89,-20.79,-19.73,-21.35,-15.31,2.641,-5.403,-8.082,-1.285,-13.05,-20.47,-27.26,-16.86,0,0,0,0,0,0,0,0,0,0,0,0,0,0,0,0,
174,-18.55,-7.781,-14.95,-25,-11.97,-14.64,1.219,-10.71,10.25,7.981,30.03,30.01,5.38,16.66,-10.51,-8.249,0,0,0,0,0,0,0,0,0,0,0,0,0,0,0,0,
175,23.36,4.307,-19.48,-30.2,-14.87,-12.66,-6.385,-13.61,-11.52,2.614,13.22,13.66,12.55,41.22,1.788,5.685,0,0,0,0,0,0,0,0,0,0,0,0,0,0,0,0,
176,-9.043,-1.357,-31.42,-14.31,-21.94,-30.85,-22.22,-14.99,-13.79,-4.497,-7.826,-8.034,-2.324,8.555,-3.356,16.7,0,0,0,0,0,0,0,0,0,0,0,0,0,0,0,0,
177,-28.53,-7.317,1.463,19.54,-1.561,-8.248,1.635,0.3864,14.02,6.251,3.557,1.101,-5.954,-14.03,-2.148,19.12,0,0,0,0,0,0,0,0,0,0,0,0,0,0,0,0,
178,-1.833,-1.609,13.08,8.732,4.546,10.39,13.55,0.0641,4.967,-2.018,-9.232,-8.631,-12.53,-15.85,-1.96,9.068,0,0,0,0,0,0,0,0,0,0,0,0,0,0,0,0,
179,4.351,-9.531,-14.5,-15.98,-7.048,-1.32,0.1899,-10.5,-22.33,-16.74,3.439,-7.028,-14.28,-8.316,-5.03,5.653,0,0,0,0,0,0,0,0,0,0,0,0,0,0,0,0,
180,17.94,-14.97,-21.12,-3.074,-16.47,-6.699,-9.527,-11.47,-15.27,-7.315,25.96,2.9,-7.543,9.889,-4.257,19.05,0,0,0,0,0,0,0,0,0,0,0,0,0,0,0,0,
181,-5.258,-14.17,-36.12,-11.39,-45.78,-34.36,-24.88,-20.23,-5.938,-2.669,-17.92,-28.04,-21.38,5.485,-17.99,14.96,0,0,0,0,0,0,0,0,0,0,0,0,0,0,0,0,
182,-60.54,-20.18,-47.04,-36.34,-44.02,-44.3,-21.36,-19.52,2.5,-0.4075,-14.58,-18.74,-13.01,-1.003,-23.93,-3.315,0,0,0,0,0,0,0,0,0,0,0,0,0,0,0,0,
183,-6.306,2.385,3.946,-3.62,22.2,19.06,11.93,11.37,34.93,20.58,71.94,52.27,32.4,21.04,15.01,12.96,0,0,0,0,0,0,0,0,0,0,0,0,0,0,0,0,
184,82.95,38.49,43.71,41.32,55.24,56.94,27.42,30.65,50.45,27.97,90.05,67.62,37.53,23.82,54.85,46.95,0,0,0,0,0,0,0,0,0,0,0,0,0,0,0,0,
185,57.19,25.8,21.4,28.69,26.77,26.59,21.8,11.58,42.3,16.4,40.82,28.99,9.654,1.206,52.92,49.89,0,0,0,0,0,0,0,0,0,0,0,0,0,0,0,0,
186,9.678,-2.046,2.773,1.71,8.263,11.05,16.18,-8.278,37.97,10.59,20.24,17.16,8.946,1.805,36.17,34.1,0,0,0,0,0,0,0,0,0,0,0,0,0,0,0,0,
187,22.95,0.3065,0.9306,1.245,2.713,14.9,2.491,-3.704,13.58,0.1578,17.18,13.83,6.646,12.7,18.9,21.84,0,0,0,0,0,0,0,0,0,0,0,0,0,0,0,0,
188,18.91,-9.05,-14.28,-5.511,-9.773,-3.675,-11.15,-3.393,-10.79,-7.468,2.048,-14.8,-20.65,2.845,-9.062,3.508,0,0,0,0,0,0,0,0,0,0,0,0,0,0,0,0,
189,-20.67,-29.96,-19.62,-15.79,-8.349,-18.42,-7.084,-11.02,9.139,8.287,-16.14,-31.56,-30.98,-8.171,-35.19,-17.91,0,0,0,0,0,0,0,0,0,0,0,0,0,0,0,0,
190,-20.3,-16.22,-1.685,1.245,5.35,-3.334,4.66,1.749,27.34,20.22,-11.76,-11.38,-15.1,-1.756,-43.81,-25.03,0,0,0,0,0,0,0,0,0,0,0,0,0,0,0,0,
191,8.882,1.627,-1.547,2.486,2.216,1.258,-0.9121,6.118,10.28,8.681,10.89,-0.8823,-4.277,6.697,-35.74,-16.79,0,0,0,0,0,0,0,0,0,0,0,0,0,0,0,0,
192,-10.75,-8.619,-27.72,-18.8,-19.23,-25.8,-17.06,-11.94,-2.6,-0.6708,-0.0449,-23.15,-4.701,3.226,-22.51,-6.28,0,0,0,0,0,0,0,0,0,0,0,0,0,0,0,0,
193,-42.92,-12.4,-28.83,1.419,-20.34,-31.05,-7.828,-1.212,4.948,5.391,-33.55,-25.85,-2.984,-3.315,-16.29,-0.7352,0,0,0,0,0,0,0,0,0,0,0,0,0,0,0,0,
194,-17.34,0.6837,-0.7114,19.91,7.22,-3.504,12.6,18.21,14.65,11.09,-21.39,1.915,4.54,4.637,-14.26,5.739,0,0,0,0,0,0,0,0,0,0,0,0,0,0,0,0,
195,12.6,8.16,8.11,-8.793,15.4,0.2447,5.895,1.036,13.89,9.286,14.23,7.23,8.372,21.63,-13.06,12.79,0,0,0,0,0,0,0,0,0,0,0,0,0,0,0,0,
196,-0.4338,1.787,-4.431,-9.26,-2.689,-16.97,-6.742,-8.359,7.5,7.477,11.05,-7.24,1.046,18.34,-16.14,11.38,0,0,0,0,0,0,0,0,0,0,0,0,0,0,0,0,
197,-6.7,-12,-8.015,16.54,-2.666,-11.6,-7.231,3.718,11.63,7.825,2.052,0.8028,-4.253,-1.525,-12.62,6.746,0,0,0,0,0,0,0,0,0,0,0,0,0,0,0,0,
198,3.291,-14.55,1.49,11.7,12.9,-0.3741,-16.1,-1.928,20.73,6.479,12.26,2.958,-5.534,-9.409,-7.436,1.963,0,0,0,0,0,0,0,0,0,0,0,0,0,0,0,0,
199,-18.51,-11.91,2.678,4.201,7.299,-15.56,-24.97,-12.5,12.24,-1.432,-13.91,-34.94,-18.1,-9.89,-28.41,-10.7,0,0,0,0,0,0,0,0,0,0,0,0,0,0,0,0,
200,-40.52,-22.34,-15.63,-0.1457,-15.2,-27.37,-15.09,-10.23,-10.16,-12.31,-41.67,-47.65,-19.74,-6.182,-52.1,-14.94,0,0,0,0,0,0,0,0,0,0,0,0,0,0,0,0,
201,-6.571,-21.57,-20.77,-6.293,-16.73,-6.467,4.011,0.4139,-11.82,-5.367,6.429,-4.763,3.624,7.422,-29.94,5.852,0,0,0,0,0,0,0,0,0,0,0,0,0,0,0,0,
202,19.64,0.9177,2.477,10.81,9.727,6.796,17.38,20.69,14.72,17,46.26,12.12,14.36,13.09,13.62,27.45,0,0,0,0,0,0,0,0,0,0,0,0,0,0,0,0,
203,-10.07,12.04,8.365,13.48,19.66,-12.17,13.11,24.13,23.05,22.02,8.593,-13.78,6.09,15.15,21.76,23.86,0,0,0,0,0,0,0,0,0,0,0,0,0,0,0,0,
204,-29.3,2.74,-9.775,-4.731,0.9954,-26.3,-1.071,4.625,6.312,15.2,-15.42,-25,0.188,18.16,-9.757,-1.358,0,0,0,0,0,0,0,0,0,0,0,0,0,0,0,0,
205,-22.3,-5.724,-8.095,10.69,-2.769,-18.06,-1.725,3.977,7.022,17.54,-3.755,-28.56,-12.09,-3.72,-47.88,-33.37,0,0,0,0,0,0,0,0,0,0,0,0,0,0,0,0,
206,-22.19,-7.973,-4.443,20.09,-4.812,-9.755,-2.031,8.834,0.1919,7.485,-28.35,-47.34,-31.12,-25.61,-68.68,-58.15,0,0,0,0,0,0,0,0,0,0,0,0,0,0,0,0,
207,-25.74,-19.22,-26.56,-6.46,-30.47,-17.95,-13.75,-7.487,-26.31,-5.865,-50.44,-51.83,-29.03,-3.744,-63.1,-59.73,0,0,0,0,0,0,0,0,0,0,0,0,0,0,0,0,
208,-28.21,-17.05,-16.71,7.197,-14,-13.88,4.556,4.468,2.606,19.96,1.112,-13.25,10.56,35.86,-21.31,-22.42,0,0,0,0,0,0,0,0,0,0,0,0,0,0,0,0,
209,0.8002,29.04,34.91,45.29,40.89,25.15,44.1,40.13,51.95,44.6,51.37,26.21,40.33,43.07,32.91,27.24,0,0,0,0,0,0,0,0,0,0,0,0,0,0,0,0,
210,40.17,45.25,39.27,27.74,34.56,33.77,33.39,28.11,21.11,16.79,21.11,3.165,4.9,8.773,33.61,24.75,0,0,0,0,0,0,0,0,0,0,0,0,0,0,0,0,
211,11.25,-10.69,4.042,10.44,-2.626,-4.449,-3.492,-0.8937,-18.27,-7.813,-8.01,-31.75,-32.75,-22.78,-16.3,-24.9,0,0,0,0,0,0,0,0,0,0,0,0,0,0,0,0,
212,-22.89,-30.83,2.879,35.84,-2.168,-6.679,1.852,6.436,3.249,5.436,17.57,-14.57,-10.95,-15.25,-38.81,-51.72,0,0,0,0,0,0,0,0,0,0,0,0,0,0,0,0,
213,-0.842,5.676,6.789,26.04,-7.28,9.534,13.89,13.12,13.69,12.41,24.56,-2.913,7.024,4.854,-19.89,-40.75,0,0,0,0,0,0,0,0,0,0,0,0,0,0,0,0,
214,-4.296,9.948,-4.08,-4.635,-13.83,-5.886,-2.913,11,8.224,13.55,3.054,-19.57,-2.016,13.07,-4.376,-23.09,0,0,0,0,0,0,0,0,0,0,0,0,0,0,0,0,
215,-27.39,-2.507,-0.3423,7.812,-1.087,-12.57,-9.638,21.23,12.06,18.34,-8.886,-25.33,-2.394,12.14,-9.934,-15.8,0,0,0,0,0,0,0,0,0,0,0,0,0,0,0,0,
216,-24.71,-0.889,-4.913,15.83,-23.22,-15.4,3.543,23.48,-11.25,3.855,-16.29,-28.79,-5.181,3.446,-26.67,-20.87,0,0,0,0,0,0,0,0,0,0,0,0,0,0,0,0,
217,-28.57,-6.663,-7.406,13.69,-47.21,-25.83,13.35,23.23,-22.1,-1.45,-9.062,-27.83,-4.93,2.638,-30.19,-20.71,0,0,0,0,0,0,0,0,0,0,0,0,0,0,0,0,
218,-20.35,-3.078,14.37,38.51,-24.11,-8.216,17.13,32.17,3.477,16.54,-5.835,-25.09,-0.0709,4.885,-21.96,-15.18,0,0,0,0,0,0,0,0,0,0,0,0,0,0,0,0,
219,-5.657,4.26,9.44,36.71,-18.42,3.861,20.99,32.04,5.588,20.47,-18.44,-30.5,-10.65,-4.034,-30.78,-28.94,0,0,0,0,0,0,0,0,0,0,0,0,0,0,0,0,
220,-19.24,1.861,-3.599,15.3,-26.79,-5.338,28.18,36.98,8.832,23.11,15.02,-0.6775,0.541,8.813,-33.47,-38.58,0,0,0,0,0,0,0,0,0,0,0,0,0,0,0,0,
221,-7.534,21.54,26.6,38.3,1.475,11.52,33.79,53.66,31.94,33.97,59.33,32.26,29.5,36.46,-3.512,-13.03,0,0,0,0,0,0,0,0,0,0,0,0,0,0,0,0,
222,19.92,36.21,40.27,51.31,11.55,27.87,30.84,49.14,15.03,21.3,26.88,0.9883,11.59,16.15,12.22,7.459,0,0,0,0,0,0,0,0,0,0,0,0,0,0,0,0,
223,3.05,7.815,13.6,21.29,-19.48,6.172,19.16,27.49,-16.14,1.994,-18.68,-30.1,-22.95,-25.91,-9.869,-12.75,0,0,0,0,0,0,0,0,0,0,0,0,0,0,0,0,
224,-21.04,-13.89,3.067,15.79,-33.36,-17.74,7.874,22.59,-16.18,2.348,-13.8,-21.09,-14.31,-10.28,-29.98,-41.64,0,0,0,0,0,0,0,0,0,0,0,0,0,0,0,0,
225,-28.52,-2.88,4.071,30.41,-25.48,-19.22,12.14,32.65,-11.15,9.78,-2.765,-14.65,10.62,34.37,-27.81,-42.56,0,0,0,0,0,0,0,0,0,0,0,0,0,0,0,0,
226,-21.82,8.059,1.575,22.39,-19.28,-5.32,20.13,30.88,-5.521,16.17,9.513,3.377,17.72,30.5,-9.723,-20.9,0,0,0,0,0,0,0,0,0,0,0,0,0,0,0,0,
227,11.35,9.074,15.37,17.31,-10.94,10.54,15.35,22.66,1.349,16.16,32.19,22.49,11.08,-1.046,9.916,-3.102,0,0,0,0,0,0,0,0,0,0,0,0,0,0,0,0,
228,14.43,4.175,18.65,19.14,-14.6,2.684,11.73,29.1,-3.598,10.22,25.52,-2.512,-2.375,-6.875,8.974,-5.055,0,0,0,0,0,0,0,0,0,0,0,0,0,0,0,0,
229,-30.89,-4.417,-5.673,3.223,-34.46,-20.52,3.61,27.5,-5.96,10.6,8.487,-24.74,-12.51,-2.089,-3.391,-19.65,0,0,0,0,0,0,0,0,0,0,0,0,0,0,0,0,
230,-37.89,-8.664,-9.839,-2.838,-32.98,-14.58,-11.02,11.45,-0.4635,13.84,21.38,-10.99,-14.95,-9.552,-5.812,-32.55,0,0,0,0,0,0,0,0,0,0,0,0,0,0,0,0,
231,-5.255,-11.99,5.7,8.441,-14.72,1.831,-2.451,15.2,1.765,10.42,21.37,-10.27,-21.31,-19.16,-15.9,-44.35,0,0,0,0,0,0,0,0,0,0,0,0,0,0,0,0,
232,-6.815,-14.21,-1.83,5.463,-17.69,-12.9,11.19,21.35,-2.017,4.422,3.528,-17.4,-20.67,-10.4,-35.02,-52.65,0,0,0,0,0,0,0,0,0,0,0,0,0,0,0,0,
233,-13.34,-5.937,-13.4,7.21,-24.91,-15.63,3.061,11.41,-11.15,3.742,13.33,-2.724,1.286,19.27,-26.07,-36.99,0,0,0,0,0,0,0,0,0,0,0,0,0,0,0,0,
234,5.585,-2.376,-15.16,15.93,-26.49,-0.4516,-2.986,11.29,-19.86,4.032,10.15,-6.356,8.605,26.07,0.0274,-6.551,0,0,0,0,0,0,0,0,0,0,0,0,0,0,0,0,
235,-18.79,-14.68,-21.39,0.8665,-35.95,-23.17,-0.2528,11.52,-17.8,1.222,-12.5,-24.98,-5.064,5.356,7.31,3.709,0,0,0,0,0,0,0,0,0,0,0,0,0,0,0,0,
236,-56.51,-11.98,-6.323,3.34,-24.12,-31.45,7.52,14.71,-2.494,5.813,10.27,-2.325,5.895,10.13,14.82,1.796,0,0,0,0,0,0,0,0,0,0,0,0,0,0,0,0,
237,-17.3,10.18,14.43,29.64,-5.436,4.28,19.12,36.69,0.9163,7.147,28.81,21.91,15.07,12.37,30.78,3.744,0,0,0,0,0,0,0,0,0,0,0,0,0,0,0,0,
238,10.1,5.536,-3.562,11.3,-21.93,-6.004,5.882,26.18,-20.44,-8.691,-7.075,-5.741,-16.41,-28.17,16.79,-14.22,0,0,0,0,0,0,0,0,0,0,0,0,0,0,0,0,
239,-32.43,-24.65,-19.73,-18.9,-31.59,-35.63,-20.18,-11.52,-23.78,-11.78,-25.03,-29.31,-32.19,-44.92,-22.73,-46.89,0,0,0,0,0,0,0,0,0,0,0,0,0,0,0,0,
240,-23.4,-29.65,-8.894,-5.354,-18.99,-8.668,-14.31,-2.909,-3.635,3.433,-9.281,-13.5,-6.669,-10,-41.37,-48.7,0,0,0,0,0,0,0,0,0,0,0,0,0,0,0,0,
241,21.33,-12.87,-7.118,1.078,-23.78,2.628,0.3602,20.22,-8.836,2.087,-9.973,-5.885,2.735,7.894,-28.77,-18.5,0,0,0,0,0,0,0,0,0,0,0,0,0,0,0,0,
242,-14.12,-14.67,-8.356,-13.52,-25.09,-30.74,-14.43,7.298,-23.31,-6.681,-16.59,-18.45,-16.91,-12.42,-9.041,-1.979,0,0,0,0,0,0,0,0,0,0,0,0,0,0,0,0,
243,-54.01,-24.66,-1.285,-6.334,-8.606,-29.23,-29.93,-1.751,-11.98,-1.146,-1.714,-13.68,-20.8,-21.73,2.696,-12.02,0,0,0,0,0,0,0,0,0,0,0,0,0,0,0,0,
244,-15.7,-15.78,-2.917,1.965,-8.639,-1.634,-18.43,3.547,-6.149,0.7935,18.52,7.048,-2.88,-4.282,10.27,-14.74,0,0,0,0,0,0,0,0,0,0,0,0,0,0,0,0,
245,13.13,-6.384,-7.317,-10.85,-22.59,-2.014,-1.39,3.807,-16.01,-3.534,28.51,13.42,3.635,8.221,16.16,-1.449,0,0,0,0,0,0,0,0,0,0,0,0,0,0,0,0,
246,-12.65,-8.493,-4.518,-14.31,-21.7,-10.68,5.357,13.59,-8.59,3.672,42.14,8.515,-2.662,8.764,11.7,-1.711,0,0,0,0,0,0,0,0,0,0,0,0,0,0,0,0,
247,-29.7,-8.772,-5.89,-11.62,-12.23,-14.16,-3.028,11.51,-1.307,4.825,31.78,-4.674,-11.47,1.879,-4.814,-22.33,0,0,0,0,0,0,0,0,0,0,0,0,0,0,0,0,
248,-25.08,-22.28,-23.48,-25.94,-27.32,-32.47,-30.64,-21.13,-26.55,-15.79,-27.65,-30.92,-25.59,-15.2,-20.5,-43.33,0,0,0,0,0,0,0,0,0,0,0,0,0,0,0,0,
249,-28.3,-41.24,-34.23,-26.64,-49.81,-39.89,-37.46,-23.58,-38.01,-17.67,-47.35,-26.69,-15.35,-7.931,-21.04,-43.71,0,0,0,0,0,0,0,0,0,0,0,0,0,0,0,0,
250,-19.2,-18.48,-6.412,-4.411,-25.26,-10.19,-0.2453,17.39,-3.965,10.26,-0.4363,14.85,17.76,20.06,-7.12,-15.41,0,0,0,0,0,0,0,0,0,0,0,0,0,0,0,0,
251,7.167,13.44,15.98,-9.04,5.027,11.44,20.6,23.6,3.458,8.398,7.068,20.32,12.58,8.664,1.475,9.289,0,0,0,0,0,0,0,0,0,0,0,0,0,0,0,0,
252,0.6927,-5.713,-13.13,-34.57,-26.79,-9.439,-7.761,-13,-37.38,-21.84,-24.33,-11.55,-14.91,-13.86,-8.883,-2.204,0,0,0,0,0,0,0,0,0,0,0,0,0,0,0,0,
253,-29.27,-29.81,-37.75,-29.48,-59.58,-34.52,-38.8,-24.66,-46.07,-18.08,-27.24,-16.65,-8.874,3.088,-26.72,-26.03,0,0,0,0,0,0,0,0,0,0,0,0,0,0,0,0,
254,-26.7,-16.81,-23.44,-11.23,-38.29,-30.95,-39.34,-7.051,-22.7,3.58,-21.76,-8.602,-2.384,9.887,-36.72,-34.47,0,0,0,0,0,0,0,0,0,0,0,0,0,0,0,0,
255,-26.16,-14.36,-17.46,-19.23,-19.59,-23.09,-21.04,-1.486,-26.2,-0.5316,-20.71,-21.84,-21.39,-15.24,-37.41,-34.24,0,0,0,0,0,0,0,0,0,0,0,0,0,0,0,0,
256,-53.62,-29.52,-19.1,-23.07,-15.98,-23.48,-5.778,-3.39,-26.46,-5.863,-8.181,-18.71,-20.18,-21.55,-25.39,-21.95,0,0,0,0,0,0,0,0,0,0,0,0,0,0,0,0,
257,-25.5,-14.56,3.556,7.703,8.254,-3.549,3.189,6.859,2.284,3.342,3.918,17.1,6.667,-3.997,2.061,8.519,0,0,0,0,0,0,0,0,0,0,0,0,0,0,0,0,
258,32.82,7.229,15.08,22.12,10.74,14.41,7.91,10.46,7.828,0.6109,3.1,27.25,6.465,-0.9138,18.37,24.29,0,0,0,0,0,0,0,0,0,0,0,0,0,0,0,0,
259,3.108,-14.72,-10.24,-12.36,-25.24,-13.24,-5.313,-3.884,-13.75,-11.67,-1.774,3.329,-21.66,-18.63,1.289,1.472,0,0,0,0,0,0,0,0,0,0,0,0,0,0,0,0,
260,-42.04,-39.47,-27.83,-31.48,-28.52,-35.1,-22.48,-10.03,-13.95,-10.42,5.691,1.153,-21.86,-25.81,-17.88,-17.93,0,0,0,0,0,0,0,0,0,0,0,0,0,0,0,0,
261,-14.53,-19.97,-15.86,-7.425,-2.259,-14.28,-15.74,-1.846,-3.585,-1.77,6.818,15,6.667,-6.46,-7.748,5.707,0,0,0,0,0,0,0,0,0,0,0,0,0,0,0,0,
262,-3.895,-0.8358,-2.338,2.907,-1.646,-3.699,-2.913,3.665,-9.113,1.12,-13.26,16.01,17.84,11.83,16.56,40.75,0,0,0,0,0,0,0,0,0,0,0,0,0,0,0,0,
263,-17.52,-7.398,2.895,-5.637,-2.822,-6.093,3.317,11.65,-10.9,1.595,-15.22,13.5,8.301,4.919,30.46,45.37,0,0,0,0,0,0,0,0,0,0,0,0,0,0,0,0,
264,-0.4181,-8.147,6.132,1.091,4.346,-0.825,9.548,18.4,-13.68,-4.439,-7.497,-3.295,-14.09,-19.16,14.46,17.26,0,0,0,0,0,0,0,0,0,0,0,0,0,0,0,0,
265,-16.98,-19.22,-5.127,-3.693,-19.18,-22.09,-10.01,1.409,-40.99,-22.63,-38.68,-35.28,-52.21,-50.04,-36.41,-34.3,0,0,0,0,0,0,0,0,0,0,0,0,0,0,0,0,
266,-65.09,-50.43,-31.34,-31.07,-51.34,-50.44,-46.53,-21.59,-58.02,-31.01,-70.62,-47.04,-63.56,-61.49,-84.29,-81.06,0,0,0,0,0,0,0,0,0,0,0,0,0,0,0,0,
267,-55.83,-41.31,-31.31,-23.07,-42.09,-30.81,-36.02,-13.3,-33.31,-10.52,-48.03,-18.81,-12.95,-16.54,-77.97,-70.35,0,0,0,0,0,0,0,0,0,0,0,0,0,0,0,0,
268,-5.76,7.029,4.41,14.54,-2.905,7.271,10.77,9.465,-3.369,13.35,0.1314,30.84,37.1,34.26,-17.54,-3.775,0,0,0,0,0,0,0,0,0,0,0,0,0,0,0,0,
269,20.14,15.36,12.97,2.431,14.77,11.42,19.85,6.138,1.249,10.33,24.61,37.37,16.87,11.17,28.8,36.75,0,0,0,0,0,0,0,0,0,0,0,0,0,0,0,0,
270,4.818,-18.39,-15.78,-37.81,-5.548,-9.337,-7.4,-13.86,-8.705,-6.522,18.3,-12.16,-25.09,-26.43,9.183,11.65,0,0,0,0,0,0,0,0,0,0,0,0,0,0,0,0,
271,-32.82,-33.66,-21.27,-26.82,-25.06,-25.13,-20.84,-18.42,-22.17,-14.39,3.496,-32.78,-21.68,-10.1,-29.21,-17.42,0,0,0,0,0,0,0,0,0,0,0,0,0,0,0,0,
272,-45.16,-23.27,-4.802,9.437,-13.99,-18.32,-9.543,-3.974,-22.68,-9.877,8.767,-5.975,0.2649,2.261,-23.74,-3.297,0,0,0,0,0,0,0,0,0,0,0,0,0,0,0,0,
273,-5.981,-6.427,10.25,27.31,17.81,9.714,14.77,19.24,1.458,5.79,29.86,12.67,11.57,-1.014,6.63,29.31,0,0,0,0,0,0,0,0,0,0,0,0,0,0,0,0,
274,33.29,6.824,30.06,36.85,38.09,19.91,24.27,30.69,16.8,15.35,18.65,10.26,10.27,9.256,17.15,43.32,0,0,0,0,0,0,0,0,0,0,0,0,0,0,0,0,
275,12.07,-4.024,22.97,25,19.49,-3.281,-0.0491,14.52,-3.054,1.321,-27.4,-11.97,-17,-9.144,-4.79,19.18,0,0,0,0,0,0,0,0,0,0,0,0,0,0,0,0,
276,-27.69,-26.54,-13.2,-4.662,-8.999,-14.1,-18.77,-3.837,-23.47,-12.55,-46.04,-28.45,-32.57,-31.68,-38.84,-20.45,0,0,0,0,0,0,0,0,0,0,0,0,0,0,0,0,
277,-24.3,-22.6,-21.19,-15.89,-8.644,-8.481,-9.24,-5.482,-17.37,-6.104,-21.4,-3.427,-6.13,-5.748,-42.71,-24.1,0,0,0,0,0,0,0,0,0,0,0,0,0,0,0,0,
278,-9.599,-7.88,-4.927,-12.46,-2.288,-17.97,-11.28,-7.939,-10.83,-1.87,2.946,14.57,2.64,2.276,-13.34,-1.515,0,0,0,0,0,0,0,0,0,0,0,0,0,0,0,0,
279,-13.32,-17.09,-10.42,-14.28,-13.75,-28.65,-34.75,-15.31,-21.99,-11.5,-13.31,-18.04,-23.34,-29.26,-1.238,-4.898,0,0,0,0,0,0,0,0,0,0,0,0,0,0,0,0,
280,-29.7,-33.67,-29.23,-22.5,-28.65,-36.92,-42.29,-18.57,-27.85,-14.56,-45.98,-43.2,-25.92,-28.64,-18.35,-26.69,0,0,0,0,0,0,0,0,0,0,0,0,0,0,0,0,
281,-48.86,-29.68,-23.96,-22.75,-24.1,-38.94,-21.4,-12.51,-18.83,-6.87,-22.22,-24.21,-9.14,-8.71,-26.53,-30.28,0,0,0,0,0,0,0,0,0,0,0,0,0,0,0,0,
282,-30.36,-19.65,-6.909,-8.548,-3.266,-18.1,-2.529,1.077,-21.46,-8.907,7.075,-13.49,-14.83,-14.74,-27.75,-25.96,0,0,0,0,0,0,0,0,0,0,0,0,0,0,0,0,
283,-5.853,-24.56,-16.68,-5.258,-3.285,-16.6,-6.171,4.074,-29.57,-13.19,-35.92,-24.56,-15.2,-7.256,-40.57,-26.42,0,0,0,0,0,0,0,0,0,0,0,0,0,0,0,0,
284,-28.83,-19.94,-23.89,-10.54,-17.74,-30.9,-7.451,-0.6927,-11.88,3.341,-46.03,-6.815,18.54,29.24,-32.2,-6.58,0,0,0,0,0,0,0,0,0,0,0,0,0,0,0,0,
285,-18.79,4.35,1.851,2.67,-6.964,-4.016,4.705,3.902,6.252,16.51,8.086,21.35,30.35,26.78,5.704,26.77,0,0,0,0,0,0,0,0,0,0,0,0,0,0,0,0,
286,33.31,7.473,16.82,20.68,11.61,19.6,7.684,7.426,4.138,8.053,20.31,17.68,-0.23,-17.13,25.51,29.26,0,0,0,0,0,0,0,0,0,0,0,0,0,0,0,0,
287,21.54,-6.803,9.658,23.61,14.05,3.488,1.433,4.347,7.203,4.413,12.67,7.698,-11.04,-28.44,16.87,4.944,0,0,0,0,0,0,0,0,0,0,0,0,0,0,0,0,
288,-20.63,-9.722,-4.166,-2.576,1.822,-11.84,-8.192,-3.151,-4.145,-1.393,0.388,-10.21,-4.723,-17.75,-4.451,-15.53,0,0,0,0,0,0,0,0,0,0,0,0,0,0,0,0,
289,-23.06,-18.16,-23.82,-37.16,-14.45,-21.84,-14.92,-9.529,-32.34,-14.93,-31.71,-30.59,-6.597,-18.39,-31.86,-23.37,0,0,0,0,0,0,0,0,0,0,0,0,0,0,0,0,
290,-11.09,-15.32,-6.839,-8.163,1.849,-14.18,1.539,9.15,-17.31,-1.168,4.3,-4.532,12.96,-1.065,-31.69,-5.273,0,0,0,0,0,0,0,0,0,0,0,0,0,0,0,0,
291,-4.123,7.716,25.98,43.98,23.09,3.628,12.52,23.94,7.054,11.15,42.78,4.475,11.9,0.3025,-7.611,16.35,0,0,0,0,0,0,0,0,0,0,0,0,0,0,0,0,
292,-29.49,-14.1,-2.818,18.14,-11.78,-31,-17.67,-8.704,-25.89,-17.16,-32.99,-55.82,-40.64,-37.97,-21.56,-11.67,0,0,0,0,0,0,0,0,0,0,0,0,0,0,0,0,
293,-71.2,-55.99,-38.74,-20.78,-41.66,-66.1,-43.54,-30.22,-49.91,-28.08,-74.71,-68.16,-45.09,-27.99,-60.69,-53.08,0,0,0,0,0,0,0,0,0,0,0,0,0,0,0,0,
294,-44.3,-32.6,-18.5,-2.122,-13.12,-26.22,-27.57,-0.811,-15.74,3.139,-3.628,-4.937,7.926,19.86,-55.51,-35.25,0,0,0,0,0,0,0,0,0,0,0,0,0,0,0,0,
295,9.364,3.656,-3.906,5.035,2.851,2.573,-4.943,13.5,6.606,14.66,27.14,16.16,13.22,7.582,-19,8.804,0,0,0,0,0,0,0,0,0,0,0,0,0,0,0,0,
296,1.932,-9.682,-13.96,-10.88,-17.44,-23.84,-0.7858,-1.528,-11.87,-2.821,-5.577,-5.143,-13.29,-28.22,-5.854,16.07,0,0,0,0,0,0,0,0,0,0,0,0,0,0,0,0,
297,-9.244,-18,-8.674,1.049,-20.78,-26.07,-0.7488,2.917,-25.65,-9.376,-6.169,-7.709,-11.69,-28.44,-13.95,-3.894,0,0,0,0,0,0,0,0,0,0,0,0,0,0,0,0,
298,-6.105,-7.952,-5.265,13,-12.35,-14.35,-2.411,8.275,-22.01,-5.137,10.08,-19.28,-12.63,-21.82,-23.61,-27.96,0,0,0,0,0,0,0,0,0,0,0,0,0,0,0,0,
299,-42.54,-16.61,-20.01,-3.314,-22.02,-35.9,-12.01,-7.993,-15.87,0.5612,11.86,-31.23,-10.14,0.5945,-28.52,-38.59,0,0,0,0,0,0,0,0,0,0,0,0,0,0,0,0,
300,-47.56,-12.21,-21.59,-10.79,-21.1,-37.99,-8.309,-0.8333,-4.949,12.39,29,2.229,30.1,45.19,-3.409,2.497,0,0,0,0,0,0,0,0,0,0,0,0,0,0,0,0,
301,6.765,17,-2.652,6.49,6.988,-4.395,14.07,26.4,5.308,16.51,35.24,21.42,49.58,49.73,44.01,73.36,0,0,0,0,0,0,0,0,0,0,0,0,0,0,0,0,
302,7.684,16.81,7.765,15.63,18.11,6.392,17.47,20.2,0.5118,6.965,-1.619,-12.32,13.62,9.765,47.32,85.33,0,0,0,0,0,0,0,0,0,0,0,0,0,0,0,0,
303,-27.15,-5.716,6.616,10.07,4.714,-5.223,3.412,6.036,-8.097,1.1,-18.51,-25.8,-17.7,-24.56,-0.9035,27.43,0,0,0,0,0,0,0,0,0,0,0,0,0,0,0,0,
304,-10.84,-7.856,11.79,20.57,2.421,-6.394,12.45,21.11,-9.166,-1.273,-2.533,-14.84,-21.56,-37.46,-35.36,-25.49,0,0,0,0,0,0,0,0,0,0,0,0,0,0,0,0,
305,5.086,-4.779,10.89,31.67,-1.958,-2.551,26.14,22.9,-17.75,-7.232,-12.94,-25.59,-16.83,-19.17,-37.28,-33.25,0,0,0,0,0,0,0,0,0,0,0,0,0,0,0,0,
306,-10.02,-10.4,-12.03,-1.098,-21.47,-10.22,1.851,-4.536,-35.01,-11.05,-21.14,-26.45,-9.474,2.035,-33.55,-10.93,0,0,0,0,0,0,0,0,0,0,0,0,0,0,0,0,
307,-14.03,-12.92,-30.14,-38.09,-23.53,-26.28,-28.71,-15.36,-35.45,-11.06,5.931,-9.81,-11.39,-18.37,-33.49,9.391,0,0,0,0,0,0,0,0,0,0,0,0,0,0,0,0,
308,-12.42,-14.57,-19.68,-15.97,-10.97,-28.2,-19.9,-2.851,-13.32,-5.142,18.76,-13.19,-15.91,-36.05,-33.2,10.91,0,0,0,0,0,0,0,0,0,0,0,0,0,0,0,0,
309,-25.2,-23.31,-12.62,14.63,-16.69,-29.11,-9.22,-5.446,-0.959,-2.173,4.737,-25.12,-18.07,-27.91,-28.25,6.883,0,0,0,0,0,0,0,0,0,0,0,0,0,0,0,0,
310,-45.35,-38.84,-25.91,0.6329,-28.47,-45.33,-23.62,-18.72,-15,-13.15,2.915,-14.54,-22.85,-30.54,-16.55,9.36,0,0,0,0,0,0,0,0,0,0,0,0,0,0,0,0,
311,-31.61,-34.38,-15.31,-0.682,-15.44,-26.04,-10.41,-3.728,-19.12,-12.49,26.28,15.13,-3.934,-15.14,1.801,21.21,0,0,0,0,0,0,0,0,0,0,0,0,0,0,0,0,
312,16.86,-0.7758,14.36,21.72,9.693,14.96,21.66,14.79,6.332,7.688,44.21,24.55,21.24,15.22,18.42,40.61,0,0,0,0,0,0,0,0,0,0,0,0,0,0,0,0,
313,24.76,13.56,15.16,13.83,16.39,13.57,15.12,2.408,23.73,13.51,31.54,9.301,15.87,12.53,18,50.07,0,0,0,0,0,0,0,0,0,0,0,0,0,0,0,0,
314,15.95,6.953,12.93,9.857,11.09,19.42,8.177,2.924,18.33,7.299,22.39,17.37,18.4,15.84,13.98,47.83,0,0,0,0,0,0,0,0,0,0,0,0,0,0,0,0,
315,40.27,17.67,25.29,32.71,12.03,41.65,24.27,17.83,16.54,8.199,36.11,33.35,30.13,31.16,24.38,46.07,0,0,0,0,0,0,0,0,0,0,0,0,0,0,0,0,
316,31.57,20.39,17.14,24.15,16.75,16.75,16.86,2.426,18.21,5.973,36.76,23.61,17.8,17.27,24.51,37.77,0,0,0,0,0,0,0,0,0,0,0,0,0,0,0,0,
317,13.07,8.699,5.52,1.656,19.43,-1.587,7.429,-3.238,9.017,1.881,18.66,17.7,14.84,6.794,6.085,26.91,0,0,0,0,0,0,0,0,0,0,0,0,0,0,0,0,
318,26.36,10.72,4.462,7.172,8.612,8.18,13.45,15.24,0.883,2.098,-2.289,4.523,17.44,1.017,-3.776,24.38,0,0,0,0,0,0,0,0,0,0,0,0,0,0,0,0,
319,-3.684,4.371,-7.914,0.9769,-10.14,-9.194,-4.284,4.881,3.631,-1.089,-13.55,-18.18,2.868,-16.11,-4.239,21.54,0,0,0,0,0,0,0,0,0,0,0,0,0,0,0,0,
320,-18.41,-0.7544,-2.853,-5.714,2.288,-1.158,-6.786,0.5754,13.91,4.35,16.03,13.86,19.42,3.715,6.165,29.33,0,0,0,0,0,0,0,0,0,0,0,0,0,0,0,0,
321,47.89,32.28,29.64,32.77,36.82,43.35,40.22,37.93,33.88,27.02,66.04,64.01,58.7,42.66,39.77,58.95,0,0,0,0,0,0,0,0,0,0,0,0,0,0,0,0,
322,65.47,58.21,40.29,57.52,39.74,44.69,61.57,50.69,47.43,37.57,65,47.06,56.14,40.81,57.93,73.22,0,0,0,0,0,0,0,0,0,0,0,0,0,0,0,0,
323,14.37,36.48,22.6,30.3,18.5,23.13,30.17,21.42,29.65,17.95,16.45,4.245,20.87,5.921,26.21,44.09,0,0,0,0,0,0,0,0,0,0,0,0,0,0,0,0,
324,-0.1486,3.015,7.437,13.37,9.599,12.26,8.602,3.214,4.368,-4.707,0.6847,0.5247,-6.679,-35.87,-13.21,-1.449,0,0,0,0,0,0,0,0,0,0,0,0,0,0,0,0,
325,19.55,-10.34,6.471,8.996,11.69,0.7566,16.04,5.12,5.026,-6.954,36.59,18.29,-9.958,-47.48,-20.41,-23.78,0,0,0,0,0,0,0,0,0,0,0,0,0,0,0,0,
326,28.5,-5.944,7.769,-21.55,9.032,2.493,15.33,3.714,7.354,-4.294,37.74,11.76,0.6409,-19.42,-14,-14.93,0,0,0,0,0,0,0,0,0,0,0,0,0,0,0,0,
327,-0.8025,-2.482,-8.574,-32.27,-10.48,-6.353,-8.342,-8.645,-9.246,-9.188,-20.49,-16.68,0.6206,-0.1892,-11.95,0.0083,0,0,0,0,0,0,0,0,0,0,0,0,0,0,0,0,
328,-26.52,-3.176,-17.48,5.534,-16.55,-15.67,-13.84,-7.646,-11.1,-1.675,-27.88,-4.166,11.36,14.72,-3.712,8.98,0,0,0,0,0,0,0,0,0,0,0,0,0,0,0,0,
329,29.16,14.67,12.16,35.81,22.08,27.68,21.55,23.51,13.69,18.23,28.11,38.2,41.48,34.33,13.23,27.5,0,0,0,0,0,0,0,0,0,0,0,0,0,0,0,0,
330,64.93,27.77,28.97,25.26,34.91,41.54,36.49,31.92,22.51,14.39,24.6,18.21,34.46,11.96,21.45,44.83,0,0,0,0,0,0,0,0,0,0,0,0,0,0,0,0,
331,-12.43,0.1284,1.308,-2.677,-6.231,-18.65,1.989,-6.7,2.189,-8.825,-23.37,-27.66,3.34,-12.66,13.67,35.95,0,0,0,0,0,0,0,0,0,0,0,0,0,0,0,0,
332,-49.63,-19.94,-9.202,-9.938,-10.54,-29.89,-20.09,-21.42,-9.51,-11.51,-20.01,-13.15,6.629,6.068,2.808,15.2,0,0,0,0,0,0,0,0,0,0,0,0,0,0,0,0,
333,5.698,-6.07,8.678,6.888,9.935,5.159,-12.42,0.9217,-6.692,-4.664,-5.261,0.9786,9.693,-1.885,-5.191,2.055,0,0,0,0,0,0,0,0,0,0,0,0,0,0,0,0,
334,7.818,-9.036,3.905,5.365,-10.31,-7.216,-8.035,3.772,-13.24,-12.08,-9.162,-21.02,-3.557,-30.54,-13.08,-2.977,0,0,0,0,0,0,0,0,0,0,0,0,0,0,0,0,
335,-26.87,-19.97,-12.88,-14.6,-22.88,-18.98,-4.247,-6.222,-15.75,-11.33,6.181,-16.03,8.269,-12.28,-16.36,3.177,0,0,0,0,0,0,0,0,0,0,0,0,0,0,0,0,
336,-11.88,-9.011,-15.41,-13.79,-15.4,-6.036,-1.837,-5.459,-0.8913,0.8636,1.481,-2.43,13.39,3.515,-16.13,6.928,0,0,0,0,0,0,0,0,0,0,0,0,0,0,0,0,
337,-10.15,-10.48,-15.53,-8.31,-22.4,-20.44,-8.023,-4.343,6.735,0.8701,-24.63,-9.418,-5.083,-11.38,-14.36,-2.497,0,0,0,0,0,0,0,0,0,0,0,0,0,0,0,0,
338,-26.19,-19.58,-11.66,-16.89,-16.74,-25.3,-6.237,-2.307,1.496,-1.415,-6.372,2.174,2.17,-9.97,-1.998,-1.992,0,0,0,0,0,0,0,0,0,0,0,0,0,0,0,0,
339,11.69,-4.88,3.469,-7.689,0.1274,10.01,4.556,5.677,5.601,8.156,15.61,16.75,19.3,-3.297,14.75,12.05,0,0,0,0,0,0,0,0,0,0,0,0,0,0,0,0,
340,39.84,9.381,21.43,20.62,10.73,28.55,14.82,19.78,19.12,17.39,11.51,11.44,19.2,1.722,21.19,21.75,0,0,0,0,0,0,0,0,0,0,0,0,0,0,0,0,
341,5.269,9.19,25.74,23.5,21.9,14.44,18.32,22.09,24.34,16.77,24.09,14.24,23.03,14.87,21.93,29.48,0,0,0,0,0,0,0,0,0,0,0,0,0,0,0,0,
342,1.794,3.717,10.6,-7.114,9.527,10.64,7.463,-3.255,16.77,9.058,16.95,14.48,20.07,3.577,17.4,26.49,0,0,0,0,0,0,0,0,0,0,0,0,0,0,0,0,
343,42.59,-2.421,7.899,-21.81,-12.55,22.72,0.6722,-14.16,5.728,2.96,-6.549,4.689,11.57,-8.433,3.143,6.083,0,0,0,0,0,0,0,0,0,0,0,0,0,0,0,0,
344,32.39,9.28,24.61,1.77,-3.198,21.14,9.506,6.096,7.462,6.723,21.32,13.74,24.63,18.03,-1.658,0.3233,0,0,0,0,0,0,0,0,0,0,0,0,0,0,0,0,
345,-2.002,27.25,26.04,25.4,16.94,14.62,15.73,13.91,25.04,15.68,41.02,26.31,39.19,36.75,14.8,21.99,0,0,0,0,0,0,0,0,0,0,0,0,0,0,0,0,
346,9.956,23.06,19.99,29.2,22.19,20.82,14.88,11.08,26.26,12.54,7.359,16.35,37.48,20.97,30.09,42.48,0,0,0,0,0,0,0,0,0,0,0,0,0,0,0,0,
347,18.56,9.391,14.77,17.06,8.895,13.52,4.317,7.907,3.415,-4.241,-11.44,2.202,28.07,-6.026,26.93,41.73,0,0,0,0,0,0,0,0,0,0,0,0,0,0,0,0,
348,-0.3717,-4.204,-0.7176,-10.59,-6.162,-4.159,-11.21,-7.081,2.695,-9.101,-11.15,5.779,15.59,-22.13,18.14,23.69,0,0,0,0,0,0,0,0,0,0,0,0,0,0,0,0,
349,3.677,-10.94,1.911,-20.12,-1.06,-0.7695,-6.367,-6.42,15.42,0.4119,-16.28,20.24,21.35,-0.5081,18.22,9.105,0,0,0,0,0,0,0,0,0,0,0,0,0,0,0,0,
350,19.91,7.834,9.483,-6.668,-13.68,6.473,2.643,3.705,-4.124,-0.1784,-14.34,16.36,37.99,29.95,19.43,11.63,0,0,0,0,0,0,0,0,0,0,0,0,0,0,0,0,
351,14.41,19.49,-11.66,-15.37,-39.64,4.113,-7.146,-10.48,-17.46,-2.86,-19.08,-8.837,24.98,13.47,11.12,15.14,0,0,0,0,0,0,0,0,0,0,0,0,0,0,0,0,
352,-5.234,-4.055,-10.19,-24.03,-8.193,5.263,-7.87,-13.87,2.909,5.147,-15.88,-12.72,5.639,-13.96,4.384,7.059,0,0,0,0,0,0,0,0,0,0,0,0,0,0,0,0,
353,-12.58,-15.45,19.6,-0.7641,34.73,7.333,1.612,6.957,13.56,9.925,16.3,14.32,20.69,-1.078,14.23,2.93,0,0,0,0,0,0,0,0,0,0,0,0,0,0,0,0,
354,15.32,4.361,15.29,11.97,22.61,14.34,0.3219,9.526,20.17,15.03,32.43,29.33,38.9,22.93,30.55,12.47,0,0,0,0,0,0,0,0,0,0,0,0,0,0,0,0,
355,43.81,15.99,7.01,8.331,20.33,28.03,6.418,0.9803,35.25,22.41,23.08,24.86,31.52,20.89,33.13,19.78,0,0,0,0,0,0,0,0,0,0,0,0,0,0,0,0,
356,41.85,15.21,29.21,7.347,47.09,34.4,16.05,2.989,29.94,17.61,27.15,28.98,20.61,-1.222,25.71,14.03,0,0,0,0,0,0,0,0,0,0,0,0,0,0,0,0,
357,37.67,18.08,33.47,-3.861,43.58,31.82,8.167,1.935,31.16,16.23,37.14,34.14,23.59,-10.03,27.14,10.03,0,0,0,0,0,0,0,0,0,0,0,0,0,0,0,0,
358,28.59,20.83,26.9,10.95,34.05,29.58,10.68,2.487,51.86,24.97,34.4,28.82,36.41,15.25,34.63,17.67,0,0,0,0,0,0,0,0,0,0,0,0,0,0,0,0,
359,24.73,22.08,40.92,54.07,43.62,32.75,25.27,6.878,28.52,10.33,18.51,23.52,34.65,29.69,24.5,18.5,0,0,0,0,0,0,0,0,0,0,0,0,0,0,0,0,
360,43.02,7.86,25.05,35.57,21.46,21.91,4.061,-11.14,-24.02,-21.11,-10.71,3.202,3.069,-2.254,-8.833,-2.443,0,0,0,0,0,0,0,0,0,0,0,0,0,0,0,0,
361,14.57,-21.47,-17.22,-23.9,-12.52,-6.541,-30.51,-35.43,-21.72,-20.56,-21.38,-25.53,-7.481,-14.72,-33.78,-24.94,0,0,0,0,0,0,0,0,0,0,0,0,0,0,0,0,
362,-38.15,-15.84,-4.625,-22.43,6.109,-3.889,-17.07,-23.72,18.98,5.883,6.001,-15.35,30.38,18.97,-16.82,-19.41,0,0,0,0,0,0,0,0,0,0,0,0,0,0,0,0,
363,-10.08,20.65,36.64,14.13,40.66,29.23,16.54,1.666,32.4,13.24,28.52,16.86,48.19,18.65,30.02,9.024,0,0,0,0,0,0,0,0,0,0,0,0,0,0,0,0,
364,40.27,23.17,35.05,24.15,47.4,40.29,17.16,2.54,26.61,5.41,25.68,23.4,27.62,-11.08,63.82,31.41,0,0,0,0,0,0,0,0,0,0,0,0,0,0,0,0,
365,33.8,3.622,21.04,20.68,47.34,31.78,3.974,-4.384,23.67,3.512,13.34,16.88,21.6,-3.675,60,33.69,0,0,0,0,0,0,0,0,0,0,0,0,0,0,0,0,
366,22.92,4.257,21.61,14,37.7,23.88,3.535,-5.676,14.61,-1.235,-7.559,16.13,23,3.492,26.51,18.24,0,0,0,0,0,0,0,0,0,0,0,0,0,0,0,0,
367,34.35,8.362,18.39,4.354,21.58,20.39,2.553,-9.999,10.66,-3.66,-9.976,19.09,15.71,-12.73,-4.66,-2.46,0,0,0,0,0,0,0,0,0,0,0,0,0,0,0,0,
368,31.53,5.958,19.81,1.346,23.22,20.1,-5.432,-10.08,11.99,-1.24,13.8,18.61,15.15,-8.506,-6.703,-11.56,0,0,0,0,0,0,0,0,0,0,0,0,0,0,0,0,
369,-0.1627,-0.5707,11.98,-1.883,13.16,1.683,-10.82,-10.57,-8.039,-15.95,7.908,-0.1072,7.225,-2.491,4.893,-12.77,0,0,0,0,0,0,0,0,0,0,0,0,0,0,0,0,
370,-24.71,-14.81,-18.29,-11.36,-19.15,-17.75,-10.45,-23.94,-25.41,-26.45,-22.83,-17.87,1.42,-7.42,2.466,-16.73,0,0,0,0,0,0,0,0,0,0,0,0,0,0,0,0,
371,-13.03,-9.77,-21.09,-17.76,-17.33,-2.372,-0.9009,-25.82,-7.339,-6.526,-23.04,-5.097,22.8,10.58,-1.653,-12.5,0,0,0,0,0,0,0,0,0,0,0,0,0,0,0,0,
372,2.709,16.82,10.77,-6.589,24.55,21.89,16.95,-3.164,16.84,10.22,2.156,19.45,35.56,28.18,13.71,0.8052,0,0,0,0,0,0,0,0,0,0,0,0,0,0,0,0,
373,13.28,26.33,27.03,19.53,49.98,33.39,23.82,8.196,31.35,14.34,30.72,34.52,25.57,24.12,33.33,4.041,0,0,0,0,0,0,0,0,0,0,0,0,0,0,0,0,
374,38.29,23.27,32.07,33.51,44.19,44.3,15.39,-0.8564,42.92,23.57,46.37,44.68,29.37,24.16,37.16,2.831,0,0,0,0,0,0,0,0,0,0,0,0,0,0,0,0,
375,49.73,25.19,41.52,26.82,32.2,44.81,11.7,-2.297,24.9,12.42,30.13,44.87,34.56,15.39,32.39,14.05,0,0,0,0,0,0,0,0,0,0,0,0,0,0,0,0,
376,30.09,11.55,28.22,12.69,19.51,25.91,7.982,-5.822,-8.718,-16.09,5.789,25.26,14.06,-14.37,26.27,22.91,0,0,0,0,0,0,0,0,0,0,0,0,0,0,0,0,
377,1.874,-9.722,4.852,1.54,11.12,10.17,-2.321,-21.44,-3.395,-16.21,1.26,3.826,-0.7263,-21.3,16.29,13.11,0,0,0,0,0,0,0,0,0,0,0,0,0,0,0,0,
378,-5.272,-3.465,9.049,2.96,16.13,17.35,1.439,-22.8,12.48,-3.531,7.557,5.484,9.468,3.404,9.908,-1.421,0,0,0,0,0,0,0,0,0,0,0,0,0,0,0,0,
379,10.06,9.788,12.94,-3.558,11.28,22.02,1.927,-22.19,-9.53,-15.8,12.1,8.835,12.42,6.293,7.093,-5.149,0,0,0,0,0,0,0,0,0,0,0,0,0,0,0,0,
380,1.276,-4.346,-6.256,-29.48,-5.814,2.053,-25.02,-37.04,-25.04,-29.03,6.919,-7.808,3.664,-19.77,-3.74,0.0565,0,0,0,0,0,0,0,0,0,0,0,0,0,0,0,0,
381,-14.11,-15.42,-5.897,-23.47,4.249,-3.679,-35.08,-31.44,-1.945,-18.81,2.886,-3.511,13.53,-19.47,-7.346,6.939,0,0,0,0,0,0,0,0,0,0,0,0,0,0,0,0,
382,16.1,1.431,14.71,8.919,29.35,16.06,-9.7,-10.72,17.43,-5.907,19.97,31.07,32.1,8.732,16.22,13.34,0,0,0,0,0,0,0,0,0,0,0,0,0,0,0,0,
383,27.67,9.275,9.982,-0.6356,24.63,19.03,1.206,-15.43,12.03,-8.458,28.87,35.09,29.3,10.52,38.3,17.82,0,0,0,0,0,0,0,0,0,0,0,0,0,0,0,0,
384,-3.446,-4.024,-3.3,-16.86,7.392,11.31,-8.315,-21.91,-0.5674,-15.82,5.904,10.29,19.58,-5.188,25.18,13.63,0,0,0,0,0,0,0,0,0,0,0,0,0,0,0,0,
385,6.485,-0.9428,9.856,8.044,16.31,15.6,-4.894,-6.502,3.333,-6.238,2.25,15.3,27.28,7.792,3.035,7.752,0,0,0,0,0,0,0,0,0,0,0,0,0,0,0,0,
386,28.7,16.42,22.11,3.097,28.97,11.3,1.618,-0.1385,25.97,11.58,24.92,30.04,31.39,22.31,6.581,12.77,0,0,0,0,0,0,0,0,0,0,0,0,0,0,0,0,
387,1.354,10.28,4.591,-37.98,7.133,-3.698,-4.624,-8.803,17.62,1.535,4.451,8.82,14.11,3.714,11.18,10.12,0,0,0,0,0,0,0,0,0,0,0,0,0,0,0,0,
388,-10.86,-8.169,-17.83,-23.48,-20.01,-5.885,-9.382,-8.567,-29.04,-24.79,-36.28,-11.05,5.783,-6.187,-9.199,-10.57,0,0,0,0,0,0,0,0,0,0,0,0,0,0,0,0,
389,8.563,-7.639,-20.02,11.95,-16.48,-2.068,-9.454,-7.801,-40.43,-23.63,-27.91,1.788,15.29,7.42,-21.86,-18.55,0,0,0,0,0,0,0,0,0,0,0,0,0,0,0,0,
390,-5.942,-3.813,-13.85,-8.051,-4.026,-7.535,-11.48,-20.29,-9.12,-6.354,-10.37,15.05,15.17,-0.4598,-1.508,-4.317,0,0,0,0,0,0,0,0,0,0,0,0,0,0,0,0,
391,-19.11,-7.784,-7.35,-21.53,5.114,-5.184,-15.9,-30.04,2.079,-8.18,-16.22,20.95,14.34,-20.66,23.18,8.392,0,0,0,0,0,0,0,0,0,0,0,0,0,0,0,0,
392,22.37,-1.206,0.2653,-4.415,7.973,12.17,-24.67,-28.53,-10.76,-20.76,-0.6699,32.92,26.71,-13.52,29.45,9.564,0,0,0,0,0,0,0,0,0,0,0,0,0,0,0,0,
393,44.48,9.456,3.798,-12.48,0.8097,17.63,-19.78,-19.18,-4.938,-14.77,29.94,38.61,32.52,4.38,29.85,2.152,0,0,0,0,0,0,0,0,0,0,0,0,0,0,0,0,
394,2.315,10.91,12.09,-8.499,17.31,6.664,3.339,-6.064,22.69,3.433,26.86,30.24,25.64,1.129,30.99,-7.995,0,0,0,0,0,0,0,0,0,0,0,0,0,0,0,0,
395,-19.82,5.047,14.9,12.71,38.58,3.023,5.282,-9.408,24.26,-5.304,-5.959,14.87,15.53,-17.42,23.2,-14.9,0,0,0,0,0,0,0,0,0,0,0,0,0,0,0,0,
396,17.57,-3.298,0.6662,-11.17,22.91,17.2,-5.498,-20.87,-4.501,-28.16,-15.39,13.5,15.83,-17.37,10.9,-18.51,0,0,0,0,0,0,0,0,0,0,0,0,0,0,0,0,
397,42.15,5.197,7.159,-20.33,19.68,31.11,5.715,-12.21,-2.181,-15.36,14.98,32.36,31.47,7.603,9.097,-13.72,0,0,0,0,0,0,0,0,0,0,0,0,0,0,0,0,
398,16.69,21.82,23.22,13.65,34.2,17.91,6.812,-6.807,25.59,7.771,26.94,34.78,38.6,20.33,17.56,5.729,0,0,0,0,0,0,0,0,0,0,0,0,0,0,0,0,
399,0.1661,16.44,10.89,9.717,22.71,4.356,-5.591,-10.51,27.71,3.557,9.542,22.6,36.79,20.41,29.84,29.13,0,0,0,0,0,0,0,0,0,0,0,0,0,0,0,0,
400,24.94,10.8,13.87,1.384,20.34,21.76,2.301,2.301,16.99,-0.808,7.599,25.79,37.46,26.02,38.29,30.51,0,0,0,0,0,0,0,0,0,0,0,0,0,0,0,0,
401,31.15,13.62,24.95,21.75,26.05,21.21,0.84,-1.498,4.719,-1.27,-3.914,18.57,21.01,7.972,26.53,-0.6797,0,0,0,0,0,0,0,0,0,0,0,0,0,0,0,0,
402,1.464,-0.2742,-2.255,3.086,11.2,-5.247,-18.01,-26.49,-8.355,-10.78,-28.92,0.579,4.806,-25.46,2.185,-31.2,0,0,0,0,0,0,0,0,0,0,0,0,0,0,0,0,
403,-4.737,-6.337,-13.47,-20.45,10.61,-3.38,-24.05,-26.11,-1.692,-12.36,-16.1,3.238,11.94,-27.16,-3.653,-29.24,0,0,0,0,0,0,0,0,0,0,0,0,0,0,0,0,
404,7.684,5.667,0.0618,-5.168,12.15,6.412,-22.44,-16.68,4.482,-8.603,2.729,11.46,18,-7.883,11.06,-9.577,0,0,0,0,0,0,0,0,0,0,0,0,0,0,0,0,
405,8.102,8.832,-3.315,-6.445,3.68,5.093,-1.29,-9.63,3.413,-3.822,0.066,25.06,22.86,5.23,29.28,7.35,0,0,0,0,0,0,0,0,0,0,0,0,0,0,0,0,
406,10.44,8.294,7.251,-17.2,17.89,11.24,18.86,2.892,8.17,0.3214,9.267,36.98,9.22,0.1741,37.39,5.895,0,0,0,0,0,0,0,0,0,0,0,0,0,0,0,0,
407,1.509,-4.116,12.26,-10.26,15.56,-0.8589,-15.03,-18.03,-12.17,-14.42,8.022,17.47,-44.37,-19.67,19.02,-27.17,0,0,0,0,0,0,0,0,0,0,0,0,0,0,0,0,
408,-6.178,-22.31,-12.25,-5.564,-6.465,-14.19,-38.82,-44.19,-22.34,-17.85,-9.266,10.26,-61.75,-12.04,-2.792,-50.04,0,0,0,0,0,0,0,0,0,0,0,0,0,0,0,0,
409,12.17,-6.657,-8.967,5.83,8.832,-2.304,-10.15,-22.98,19.39,6.078,-4.406,23.73,-32.58,13.62,12.46,-24.48,0,0,0,0,0,0,0,0,0,0,0,0,0,0,0,0,
410,-1.098,4.772,1.427,8.264,17.88,-11.45,-9.954,-10.9,25.6,0.8172,-6.782,1.375,-44.14,4.122,35.3,0.7871,0,0,0,0,0,0,0,0,0,0,0,0,0,0,0,0,
411,-30.79,-17.03,-14.08,-15.88,-1.925,-20.48,-30.9,-29.12,-15.52,-25.16,-31.22,-17.49,-66.64,-16.16,24.98,-7.169,0,0,0,0,0,0,0,0,0,0,0,0,0,0,0,0,
412,-10.69,-22.62,-13.05,-20.69,2.836,-1.282,-26.42,-30.92,-20.17,-26.85,-35.2,-9.876,-58.93,-20.31,3.538,-11.49,0,0,0,0,0,0,0,0,0,0,0,0,0,0,0,0,
413,-6.333,-22.47,-8.736,-10.66,10.73,-12.95,-31.73,-32.05,-9.194,-26.08,-17.78,-17.02,-63.12,-22.52,-5.37,-1.365,0,0,0,0,0,0,0,0,0,0,0,0,0,0,0,0,
414,-19.58,-25.56,-7.66,-17.68,7.321,-18.48,-25.11,-35.58,1.686,-17.93,8.01,5.671,-54.78,-9.067,5.906,10.04,0,0,0,0,0,0,0,0,0,0,0,0,0,0,0,0,
415,29.14,7.939,16.31,-9.209,19.63,27.79,13.16,-9.952,25.72,4.445,34.15,50.86,-24.75,8.998,36.55,27.62,0,0,0,0,0,0,0,0,0,0,0,0,0,0,0,0,
416,55.34,30.4,18.23,8.923,15.21,31.73,16.72,10.99,8.958,-2.099,34.76,33.02,-27.58,14.53,48.14,37.47,0,0,0,0,0,0,0,0,0,0,0,0,0,0,0,0,
417,10.14,7.979,-1.563,1.089,1.101,-7.68,-5.052,0.1685,-17.47,-12.67,15.64,-1.866,-40.19,26.01,26.78,21.11,0,0,0,0,0,0,0,0,0,0,0,0,0,0,0,0,
418,-10.66,-0.2617,6.773,-0.1361,13.98,-8.347,-3.088,-2.511,7.119,5.643,-7.025,0.0456,-36.51,20.84,10.63,-4.67,0,0,0,0,0,0,0,0,0,0,0,0,0,0,0,0,
419,-18.41,7.745,11.34,13.75,6.91,-8.414,-5.944,18.15,19.58,10.62,-20.99,0.8248,-35.85,3.712,10.04,-9.721,0,0,0,0,0,0,0,0,0,0,0,0,0,0,0,0,
420,-34.53,9.009,2.601,3.314,-13.92,-21.15,-17.57,30.43,12.3,8.297,3.491,13.26,-23.63,23.37,16.71,15.37,0,0,0,0,0,0,0,0,0,0,0,0,0,0,0,0,
421,3.178,19.9,17.38,-5.393,12.76,3.765,-4.989,21.84,31.73,21.49,33.71,35.98,-15.62,34.69,30.72,39.57,0,0,0,0,0,0,0,0,0,0,0,0,0,0,0,0,
422,38.89,21.39,22.7,15.35,29.4,18.93,10.83,8.799,26.77,11.14,17.66,17.83,-41.14,-3.567,24.62,25.52,0,0,0,0,0,0,0,0,0,0,0,0,0,0,0,0,
423,7.696,-1.87,-4.72,12.01,-13.46,-12.4,-0.8001,-0.8777,-11.96,-18.31,-10.51,-16.57,-66.15,-37.9,-10.96,-10.54,0,0,0,0,0,0,0,0,0,0,0,0,0,0,0,0,
424,-19.79,-22.02,-18.03,-21.61,-39.93,-27.69,-16.65,-5.698,-25.29,-26.11,-25.01,-22.4,-67.92,-40.55,-34.15,-28.34,0,0,0,0,0,0,0,0,0,0,0,0,0,0,0,0,
425,-18.65,-23.64,-7.089,-21.88,-24.38,-15.59,-11.98,-1.708,-25.03,-21.41,-31.82,-8.798,-56.82,-22.75,-25.92,-22.15,0,0,0,0,0,0,0,0,0,0,0,0,0,0,0,0,
426,-22.51,-12.3,-8.04,-1.188,-21.18,-20.55,-8.864,1.431,-30.29,-17.43,-15.36,3.693,-44.52,-5.67,-8.6,-10.11,0,0,0,0,0,0,0,0,0,0,0,0,0,0,0,0,
427,-13.1,-0.6676,-12.52,0.5606,-21.58,-23.05,-11.11,2.749,-16.73,-5.245,1.319,2.482,-43.21,-4.351,2.274,-2.963,0,0,0,0,0,0,0,0,0,0,0,0,0,0,0,0,
428,2.927,3.318,3.307,3.826,0.3158,-3.203,0.1863,9.766,5.964,7.795,1.995,-2.136,-45.98,0.8227,4.945,3.43,0,0,0,0,0,0,0,0,0,0,0,0,0,0,0,0,
429,-12.31,-4.717,6.541,-3.538,0.2875,-9.065,-1.605,7.378,5.474,2.731,10.59,-1.233,-54.55,-5.66,0.5655,7.662,0,0,0,0,0,0,0,0,0,0,0,0,0,0,0,0,
430,-34.62,-23.58,-18.02,-34.83,-36.41,-38.83,-17.87,-4.347,-16.71,-15.74,-5.987,-15.77,-75,-33.88,-8.531,-7.383,0,0,0,0,0,0,0,0,0,0,0,0,0,0,0,0,
431,-36.08,-31.38,-34.45,-43.24,-63.41,-44.02,-19.55,-13.49,-41.49,-25.87,-64.76,-50.17,-84.75,-32.02,-26.45,-41.28,0,0,0,0,0,0,0,0,0,0,0,0,0,0,0,0,
432,-51.87,-30.55,-43.86,-38.72,-70,-46.73,-34.36,-24.98,-53.43,-23.89,-91.83,-70.55,-74.62,-8.921,-49.54,-58.52,0,0,0,0,0,0,0,0,0,0,0,0,0,0,0,0,
433,-71.07,-32.3,-43.54,-40.07,-54.08,-49.86,-47.63,-15.03,-38.67,-15.44,-55.36,-42.63,-49.33,-1.727,-46.32,-27.61,0,0,0,0,0,0,0,0,0,0,0,0,0,0,0,0,
434,-29.81,-15.02,-12.07,-10.06,-18.81,-20.92,-16.88,13.62,-19.24,-8.81,-10.64,2.457,-27.64,0.0122,-6.876,25.18,0,0,0,0,0,0,0,0,0,0,0,0,0,0,0,0,
435,16.29,-0.6753,4.645,4.794,-15.03,-7.652,4.234,10.84,-16.81,-7.822,7.456,6.176,-33.74,-6.869,25.71,43.96,0,0,0,0,0,0,0,0,0,0,0,0,0,0,0,0,
436,-2.608,-4.277,1.856,-22.38,-15.61,-10.21,6.449,8.662,13.59,11.89,20.98,8.314,-30.75,-3.699,34.88,34.94,0,0,0,0,0,0,0,0,0,0,0,0,0,0,0,0,
437,1.964,14.85,27.85,-6.051,24.1,20.32,27.41,31.69,50.1,30.19,26.4,32.39,-20.03,7.1,36.68,29.8,0,0,0,0,0,0,0,0,0,0,0,0,0,0,0,0,
438,30.71,10.65,21.62,19.99,11.25,10.64,9.879,10.93,4.746,-4.761,-6.649,-1.044,-56.91,-23.29,11.7,7.183,0,0,0,0,0,0,0,0,0,0,0,0,0,0,0,0,
439,-17.53,-40.27,-29.65,-7.539,-45.28,-40.83,-30.43,-19.48,-42.47,-31.55,-26.81,-43.56,-70.32,-31.58,-23.52,-20.91,0,0,0,0,0,0,0,0,0,0,0,0,0,0,0,0,
440,-44.09,-31.01,-16.69,-4.614,-18.77,-19.06,-2.16,13.42,-0.3251,3.919,9.117,0.6824,-16.88,20.22,-1.993,2.66,0,0,0,0,0,0,0,0,0,0,0,0,0,0,0,0,
441,10.43,16.49,23.91,19.44,18.27,18.14,32.03,34.11,22.39,17.74,24.37,26.32,-8.87,22.64,44.54,45.83,0,0,0,0,0,0,0,0,0,0,0,0,0,0,0,0,
442,9.049,2.323,6.091,-6.004,-15.78,-6.305,4.505,12.53,-7.995,-6.421,1.47,-16.85,-39.1,-9.223,32.8,41.46,0,0,0,0,0,0,0,0,0,0,0,0,0,0,0,0,
443,-14.41,-12.06,-4.404,-12.07,-24.01,-9.831,-10.54,17.09,-5.964,-1.608,-0.7688,-22.46,-23.12,9.679,-9.72,11.45,0,0,0,0,0,0,0,0,0,0,0,0,0,0,0,0,
444,10.8,7.032,2.369,4.643,-10.93,-0.155,5.88,20.23,-3.835,4.206,-22.24,-17.32,-20.39,11.29,-24.81,-6.61,0,0,0,0,0,0,0,0,0,0,0,0,0,0,0,0,
445,-23.38,-5.287,-31.6,-20.76,-43.72,-35.18,-3.039,-9.108,-31.05,-15.17,-70.87,-52.74,-55.33,-26.36,-27.55,-20.6,0,0,0,0,0,0,0,0,0,0,0,0,0,0,0,0,
446,-69.49,-29.15,-56.15,-38.72,-66.31,-53.58,-26.21,-20.77,-40.83,-21.2,-65.44,-56,-59.5,-26.47,-32.72,-29.31,0,0,0,0,0,0,0,0,0,0,0,0,0,0,0,0,
447,-38.42,-29.44,-42.66,-36.55,-55.37,-46.43,-28.52,-14.41,-39.7,-13.66,-37.97,-37.81,-42.03,-0.1607,-27.97,-20.71,0,0,0,0,0,0,0,0,0,0,0,0,0,0,0,0,
448,-44.8,-21.18,-33.77,-41.98,-46.52,-53.79,-16.88,-11.38,-34.55,-6.905,-42.05,-42.12,-36.49,11.06,-16.25,-5.927,0,0,0,0,0,0,0,0,0,0,0,0,0,0,0,0,
449,-66.37,-8.868,-26.55,-20.64,-41.76,-43.26,-12.43,-3.704,-29.69,-8.831,-31.84,-28.63,-42.18,-1.206,-4.827,-6.314,0,0,0,0,0,0,0,0,0,0,0,0,0,0,0,0,
450,-15.52,-15.35,-23.41,-14.18,-48.41,-27.62,-24.16,-8.902,-46.43,-23.93,-18.82,-21.15,-60.19,-35.41,-3.092,-27.04,0,0,0,0,0,0,0,0,0,0,0,0,0,0,0,0,
451,-11.87,-33.77,-29.53,-44,-42.13,-33.45,-23.45,-12.94,-31.81,-15.34,-26.81,-40.56,-58.83,-42.43,-19.95,-44.05,0,0,0,0,0,0,0,0,0,0,0,0,0,0,0,0,
452,-44.08,-15.2,-11.16,-20.43,-0.8725,-13.18,7.947,13.56,15.25,10.59,-9.205,-23.51,-24.55,-4.088,-30.07,-23,0,0,0,0,0,0,0,0,0,0,0,0,0,0,0,0,
453,3.767,7.398,5.513,12.96,7.65,10.88,14.52,17.73,6.143,0.3335,11.69,3.2,-8.034,17.3,-7.908,28.3,0,0,0,0,0,0,0,0,0,0,0,0,0,0,0,0,
454,22.23,-8.376,-14.81,-18.97,-28.92,-10.91,-21.19,-15.47,-23.01,-18.41,7.046,-8.551,-21.13,1.036,20.27,55.01,0,0,0,0,0,0,0,0,0,0,0,0,0,0,0,0,
455,-20.67,-16.61,-21.44,-22.55,-33.78,-19.51,-28.18,-16.56,-7.328,-8.415,18.38,-8.454,-28.17,-15.83,20.61,29.99,0,0,0,0,0,0,0,0,0,0,0,0,0,0,0,0,
456,4.215,-1.016,3.175,17.04,-6.101,9.113,2.764,8.813,8.898,5.306,27.71,8.007,-19.78,-11.21,4.189,-5.885,0,0,0,0,0,0,0,0,0,0,0,0,0,0,0,0,
457,44.24,12.81,21.19,19.57,17.84,24.31,24.47,19.63,21.74,19.4,18.39,13.85,-4.184,9.27,1.19,-4.953,0,0,0,0,0,0,0,0,0,0,0,0,0,0,0,0,
458,25.74,23.65,25.11,15.57,29.28,24.92,30.48,25.22,37.66,23.77,27,22.32,-3.163,13.22,12.32,21.53,0,0,0,0,0,0,0,0,0,0,0,0,0,0,0,0,
459,12.81,13.11,8.058,11.61,6.039,15.3,12.18,9.023,15.29,-1.712,25.84,10.87,-26.71,-4.296,9.448,28.57,0,0,0,0,0,0,0,0,0,0,0,0,0,0,0,0,
460,1.257,-15.85,-20.25,-26.33,-26.63,-11.2,-15.97,-21.25,-9.964,-16.63,-6.682,-19.75,-39.32,-9.137,-16.14,5.83,0,0,0,0,0,0,0,0,0,0,0,0,0,0,0,0,
461,-23.65,-17.89,-22.78,-35.43,-25.47,-23.02,-8.939,-9.969,-5.17,-7.122,-27.44,-22.24,-29.16,-3.86,-38.76,-15.56,0,0,0,0,0,0,0,0,0,0,0,0,0,0,0,0,
462,-9.517,-2.365,-8.905,0.2837,-17.72,-9.673,7.855,16.79,-8.329,-5.944,-20.32,-7.104,-17.49,4.324,-35.91,-10.81,0,0,0,0,0,0,0,0,0,0,0,0,0,0,0,0,
463,16.35,2.871,4.822,16.54,-9.47,7.89,7.563,15.9,-3.996,0.9785,1.581,-0.9687,-5.23,19.24,-14.46,12.74,0,0,0,0,0,0,0,0,0,0,0,0,0,0,0,0,
464,1.728,8.059,17.84,13.48,11.8,12.35,13.46,14.4,15.52,13.33,8.66,-2.289,-7.728,2.688,-3.107,24.63,0,0,0,0,0,0,0,0,0,0,0,0,0,0,0,0,
465,-16.67,1.702,2.731,1.408,3.459,-6.704,6.728,10.03,2.109,0.0089,-13.94,-13.24,-30.93,-29.09,-16.52,5.99,0,0,0,0,0,0,0,0,0,0,0,0,0,0,0,0,
466,-15.43,-18.13,-24.94,-25.22,-27.62,-26.7,-14.95,-9.466,-19.11,-13.7,-33.1,-26.39,-37.63,-10.44,-37.48,-21.28,0,0,0,0,0,0,0,0,0,0,0,0,0,0,0,0,
467,-28.12,-20.99,-23.74,-33.88,-33.08,-28.08,-14.89,-11.38,-11.75,-7.365,-38.63,-29.4,-29.72,13.15,-47.33,-25.82,0,0,0,0,0,0,0,0,0,0,0,0,0,0,0,0,
468,-30.9,-13.25,-11.68,-17.67,-25.59,-18.67,-12.63,5.104,-6.561,-3.817,-27.13,-11.36,-31.17,-12.93,-36.61,-8.331,0,0,0,0,0,0,0,0,0,0,0,0,0,0,0,0,
469,10.98,-10.99,-1.69,1.619,-19.22,-2.993,-19.68,11.68,-4.978,-3.395,3.443,8.663,-34.99,-36.61,-10.24,6.42,0,0,0,0,0,0,0,0,0,0,0,0,0,0,0,0,
470,11.54,-16.65,-6.325,6.978,-24.72,-16.44,-18.62,-2.987,-9.583,-11.42,-12.65,-19.19,-50.21,-39.62,-5.245,-4.48,0,0,0,0,0,0,0,0,0,0,0,0,0,0,0,0,
471,-58.41,-39.97,-51.39,-27.58,-58.78,-62.08,-27.86,-29.58,-42.48,-33.55,-64.88,-60.89,-66.97,-42.32,-33.93,-34.05,0,0,0,0,0,0,0,0,0,0,0,0,0,0,0,0,
472,-72.47,-51.06,-73.75,-62.3,-66.51,-60.78,-35.03,-29.21,-49.96,-29.24,-54.24,-54,-51.49,-25.91,-55.03,-49.86,0,0,0,0,0,0,0,0,0,0,0,0,0,0,0,0,
473,-31.45,-25.36,-34.3,-32.87,-24.05,-23.12,-16.74,-0.4345,-9.875,1.01,-19.01,-35.75,-31.49,-6.655,-51.89,-40.2,0,0,0,0,0,0,0,0,0,0,0,0,0,0,0,0,
474,-31.38,-6.852,-15.17,1.123,-5.774,-21.34,-7.342,7.673,3.342,6.888,-17.98,-19.9,-29.23,-8.277,-37.02,-16.09,0,0,0,0,0,0,0,0,0,0,0,0,0,0,0,0,
475,-19.42,-8.741,-26.2,-14.3,-21.75,-18.97,-10.43,2.66,-9.755,0.3714,6.191,15.31,-15.29,1.646,-9.264,12.83,0,0,0,0,0,0,0,0,0,0,0,0,0,0,0,0,
476,19.94,1.101,-11.32,-14.17,-18.94,1.866,1.524,12.93,4.536,11.26,26.1,18.83,1.619,22.84,13.52,31.74,0,0,0,0,0,0,0,0,0,0,0,0,0,0,0,0,
477,2.905,14.77,2.085,6.574,-1.837,-4.097,12.52,15.27,21.4,17.72,-10.05,-7.482,2.226,23.53,8.717,34.58,0,0,0,0,0,0,0,0,0,0,0,0,0,0,0,0,
478,-24.22,16.32,-4.102,-3.515,4.407,-10.42,8.704,6.773,10.25,8.319,-24.77,-3.571,0.3592,14.52,-7.802,31.48,0,0,0,0,0,0,0,0,0,0,0,0,0,0,0,0,
479,-1.639,8.519,-5.305,-13.99,-3.732,-0.1969,-1.409,4.854,-9.604,-1.675,-6.287,4.6,-5.299,9.36,-16.8,22.2,0,0,0,0,0,0,0,0,0,0,0,0,0,0,0,0,
480,15.97,-2.344,-6.007,-7.534,-9.982,-0.1106,-9.462,1.719,-9.025,-0.8668,-3.113,2.028,-9.252,9.101,-11.02,14.09,0,0,0,0,0,0,0,0,0,0,0,0,0,0,0,0,
481,18.62,4.849,0.8923,-4.785,4.861,6.769,-7.174,3.429,17.29,12.08,24.38,20.19,3.127,21.11,12.23,29.36,0,0,0,0,0,0,0,0,0,0,0,0,0,0,0,0,
482,19.16,21.62,13.77,5.744,14.14,11.25,-4.32,12.81,29.78,18.32,47.33,23.93,7.616,27.16,28.14,49.31,0,0,0,0,0,0,0,0,0,0,0,0,0,0,0,0,
483,-6.481,12.53,1.849,-3.203,-0.9262,-7.271,-6.314,8.289,11.46,8.688,6.119,-1.518,-8.612,12.54,12.52,32.44,0,0,0,0,0,0,0,0,0,0,0,0,0,0,0,0,
484,-19.84,-9.226,-18.56,-43,-12.41,-12.55,-3.936,-6.232,-4.283,-1.349,-19.88,-9.16,-22.46,-1.856,-18.33,-7.856,0,0,0,0,0,0,0,0,0,0,0,0,0,0,0,0,
485,-3.326,-17.69,-24.85,-44.71,-26.47,-12.24,-7.465,-12.56,-12.06,-7.814,-3.602,-6.619,-29.55,-12.57,-35.47,-28.32,0,0,0,0,0,0,0,0,0,0,0,0,0,0,0,0,
486,-9.195,-16.95,-30.56,-11.51,-43.81,-25.37,-14.09,-7.963,-16.72,-9.723,-6.613,-7.997,-30.43,-24.75,-26,-22.43,0,0,0,0,0,0,0,0,0,0,0,0,0,0,0,0,
487,-8.267,-5.946,-21.63,3.381,-20.28,-8.418,-5.689,4.742,-5.32,-2.008,-6.508,4.67,-19.36,-19.41,-2.46,-11.46,0,0,0,0,0,0,0,0,0,0,0,0,0,0,0,0,
488,18.99,4.712,5.072,10.99,14.2,19.77,2.533,12.35,7.375,4.492,-0.755,3.047,-14.55,-6.418,2.596,-12.89,0,0,0,0,0,0,0,0,0,0,0,0,0,0,0,0,
489,4.756,-1.655,4.938,0.8866,-0.6769,7.463,0.2779,7.642,1.795,0.3659,-19.93,-18.04,-22.18,-9.991,-17.5,-24.3,0,0,0,0,0,0,0,0,0,0,0,0,0,0,0,0,
490,-18.23,-8.396,-24.33,-32.78,-28.52,-15.26,-2.502,-0.6272,-17.28,-10.98,-18.98,-17.08,-22.09,-9.336,-33.2,-26.37,0,0,0,0,0,0,0,0,0,0,0,0,0,0,0,0,
491,-5.495,-6.361,-35.81,-31.96,-26.37,-23.18,-10.16,-8.202,-24.68,-13.4,-0.5739,-10.54,-14.03,4.426,-28.97,-15.5,0,0,0,0,0,0,0,0,0,0,0,0,0,0,0,0,
492,-13.95,-2.044,-16.99,-4.796,-7.417,-16.4,-13.04,-6.182,3.144,5.889,-4.561,-8.862,-5.513,7.701,-13.11,-5.451,0,0,0,0,0,0,0,0,0,0,0,0,0,0,0,0,
493,-14.76,10.04,1.113,-3.049,12.4,8.121,-0.7006,6.125,26.4,18.42,8.113,10.57,2.191,8.335,3.746,-1.15,0,0,0,0,0,0,0,0,0,0,0,0,0,0,0,0,
494,16.85,14.33,-6.177,-7.502,4.919,8.569,-1.206,6.769,3.614,2.566,31.05,11.07,-5.607,11.37,6.541,-7.149,0,0,0,0,0,0,0,0,0,0,0,0,0,0,0,0,
495,7.342,-1.164,-24.83,-7.84,-27.76,-16.24,-20.98,-1.735,-17.49,-8.193,11.46,-12.76,-23.34,-2.29,-6.663,-22.96,0,0,0,0,0,0,0,0,0,0,0,0,0,0,0,0,
496,-11.08,-6.202,-25.92,-20.04,-26.12,-10.82,-21.16,2.07,-3.218,3.834,-12.32,-11.71,-19.59,-5.577,-11.68,-25.55,0,0,0,0,0,0,0,0,0,0,0,0,0,0,0,0,
497,-0.3492,7.612,-10.45,-14.74,2.371,2.921,4.401,11.1,10.2,15.2,-4.107,-4.989,-0.1596,21.22,0.8998,-6.787,0,0,0,0,0,0,0,0,0,0,0,0,0,0,0,0,
498,-12.2,11.36,-2.618,4.18,-2.956,-6.953,14.66,10.19,2.604,10.59,1.451,-12.27,-4.645,20.23,12,1.843,0,0,0,0,0,0,0,0,0,0,0,0,0,0,0,0,
499,-21.94,-5.147,-16.17,-11.71,-28.09,-12.88,-4.627,-0.7902,-15.46,-6.51,-8.146,-16.31,-34.7,-21.35,9.655,-22.15,0,0,0,0,0,0,0,0,0,0,0,0,0,0,0,0,
500,-14.01,-23.21,-32.52,-32.08,-37.95,-14.16,-17.59,-8.347,-26.17,-15.92,-18.53,-23.73,-41.59,-31.57,0.2181,-49.19,0,0,0,0,0,0,0,0,0,0,0,0,0,0,0,0,
501,-6.606,-13.31,-16.05,-12.12,-26.5,-4.081,3.1,9.856,-17.83,-3.73,-11.48,-7.248,-5.919,1.761,0.7383,-35.9,0,0,0,0,0,0,0,0,0,0,0,0,0,0,0,0,
502,28.18,22.56,21.96,9.234,10.77,29.82,38.42,43.45,0.5021,16.14,24.91,34.42,27.7,31.57,20.7,6.981,0,0,0,0,0,0,0,0,0,0,0,0,0,0,0,0,
503,37.32,43.06,34.11,17.65,32.34,41.78,50.87,49.8,18.66,29.24,47.64,35.28,33.77,45.84,42.01,35.33,0,0,0,0,0,0,0,0,0,0,0,0,0,0,0,0,
504,9.455,39.23,21.24,35.45,3.39,27.56,32.58,27.01,20.13,25.01,26.92,18.47,27.19,37.84,46.88,36.22,0,0,0,0,0,0,0,0,0,0,0,0,0,0,0,0,
505,30.63,29.17,6.053,31.92,-26.6,23.1,12.58,10.62,-4.934,2.902,9.341,20.91,5.18,4.818,37.4,14.09,0,0,0,0,0,0,0,0,0,0,0,0,0,0,0,0,
506,30.32,8.472,-11.58,3.716,-27.53,10.78,5.726,7.743,-17.95,-7.202,13.5,0.9827,-19.22,-16.64,16.41,-24.54,0,0,0,0,0,0,0,0,0,0,0,0,0,0,0,0,
507,-24.2,-5.11,-12,-2.457,-21.8,-0.0545,-0.3399,8.979,-0.9205,3.657,13.34,-8.871,-12.64,-10.4,0.3576,-48.24,0,0,0,0,0,0,0,0,0,0,0,0,0,0,0,0,
508,-10.94,10.29,3.869,0.2408,-16.53,11.06,-4.371,10.64,1.453,4.564,4.65,13.04,-0.0053,-1.111,5.039,-42.83,0,0,0,0,0,0,0,0,0,0,0,0,0,0,0,0,
509,13.04,15.06,-9.782,-18.33,-24.74,-0.4097,-4.866,-0.7226,-21.38,-9.628,-14.58,-4.161,-15.8,-6.559,2.557,-41.43,0,0,0,0,0,0,0,0,0,0,0,0,0,0,0,0,
510,-26.81,-8.761,-36.75,-29.35,-45.73,-27.17,-9.532,-15.79,-31.28,-16.21,-24.79,-32.31,-31.66,-22.56,-23.83,-58.17,0,0,0,0,0,0,0,0,0,0,0,0,0,0,0,0,
511,-27.11,-16.12,-31.67,-18.77,-46.67,-19.2,-6.324,-7.142,-20.48,-9.547,-6.948,-20.38,-26.31,-23.64,-38.91,-67.21,0,0,0,0,0,0,0,0,0,0,0,0,0,0,0,0,
512,1.283,-1.446,-19.57,-14.77,-36.79,-1.027,3.64,5.946,-16.26,-3.824,-7.948,-17.23,-17.74,-8.379,-26.36,-57.8,0,0,0,0,0,0,0,0,0,0,0,0,0,0,0,0,
513,-5.568,3.929,-20.05,-14.48,-40.12,2.217,-1.439,-0.7684,-34.38,-13.39,-34.13,-22.7,-14.91,-13.14,-7.329,-43.09,0,0,0,0,0,0,0,0,0,0,0,0,0,0,0,0,
514,-5.611,-0.3946,-21.21,-7.188,-39.15,-0.4123,-9.27,-4.745,-49.71,-23.92,-31.64,-18.78,-13.52,-20.25,2.184,-35.4,0,0,0,0,0,0,0,0,0,0,0,0,0,0,0,0,
515,-14.86,-0.77,-26.1,-21.69,-24.71,-9.989,2.687,4.968,-28.37,-7.366,-14.86,-27.25,-3.084,10.93,-0.384,-35.94,0,0,0,0,0,0,0,0,0,0,0,0,0,0,0,0,
516,-33.69,12.4,-15.69,-38.53,-5.305,-3.95,21.16,12.27,6.073,17.39,-6.058,-12.1,16.79,31.44,2.15,-29.21,0,0,0,0,0,0,0,0,0,0,0,0,0,0,0,0,
517,5.846,29.6,8.835,-6.325,10.1,22.01,22.36,10.38,11.35,14.22,9.976,25.66,20.78,4.644,21.65,-9.148,0,0,0,0,0,0,0,0,0,0,0,0,0,0,0,0,
518,46.29,23.62,1.895,25.07,3.058,23.17,3.472,3.456,2.11,0.2093,5.334,19.17,6.158,-9.333,29.05,-0.9812,0,0,0,0,0,0,0,0,0,0,0,0,0,0,0,0,
519,12.14,4.013,-20.9,4.434,-20.24,-1.411,-11.96,0.8235,-6.028,-4.362,-22.44,-8.707,-1.615,5.465,7.086,-17.17,0,0,0,0,0,0,0,0,0,0,0,0,0,0,0,0,
520,-24.59,-2.533,-23.89,-17.37,-30.66,-14.93,-8.305,0.3697,-26.27,-13.02,-22.85,-10.69,-0.9559,4.705,-12.97,-31.47,0,0,0,0,0,0,0,0,0,0,0,0,0,0,0,0,
521,-7.649,-0.5759,-27.66,-20.08,-28.96,-13.71,-10.26,-5.837,-36.64,-17.01,-12.81,-12.71,-2.173,-5.614,-13.13,-27.6,0,0,0,0,0,0,0,0,0,0,0,0,0,0,0,0,
522,3.796,0.4017,-35.69,-29.33,-35.69,-16.69,-30.44,-11.74,-29.79,-12.48,-37.83,-32.57,-13.85,-19.15,-18.89,-29.47,0,0,0,0,0,0,0,0,0,0,0,0,0,0,0,0,
523,-31.49,-8.036,-41.21,-38.36,-49.09,-33.85,-37.66,-21.15,-39.53,-22.96,-64.17,-49.45,-35.09,-40.42,-44.69,-56.34,0,0,0,0,0,0,0,0,0,0,0,0,0,0,0,0,
524,-56.24,-20.99,-50.22,-41.61,-51.54,-41.07,-22.48,-31.24,-44.92,-27.7,-48.37,-38.69,-32.63,-26.78,-58.23,-78.27,0,0,0,0,0,0,0,0,0,0,0,0,0,0,0,0,
525,-27.76,-10.96,-41.96,-36.72,-44.01,-21.8,-9.518,-16.42,-28.35,-7.785,-22.64,-11.38,-7.279,9.055,-33.05,-62.46,0,0,0,0,0,0,0,0,0,0,0,0,0,0,0,0,
526,-8.895,7.793,-26.57,-24.24,-35.6,-11.88,-4.342,7.513,-23.77,3.518,-21.99,-6.263,0.3403,8.566,4.322,-28.48,0,0,0,0,0,0,0,0,0,0,0,0,0,0,0,0,
527,-25.07,7.498,-28.18,-17.66,-15.86,-12.85,-0.3575,6.832,-11.54,5.331,-18.09,-8.856,3.138,0.6824,26.02,-0.7668,0,0,0,0,0,0,0,0,0,0,0,0,0,0,0,0,
528,-6.049,6.865,-21.79,-12.35,2.669,3.544,0.2222,-0.6419,10.12,6.582,-3.288,0.7597,8.56,5.33,31.49,17.51,0,0,0,0,0,0,0,0,0,0,0,0,0,0,0,0,
529,19.43,3.072,-23.68,-22.12,-15.48,-2.946,-5.627,-2.927,-12.56,-10.44,-19.68,-20.41,-15.3,-9.506,8.694,5.66,0,0,0,0,0,0,0,0,0,0,0,0,0,0,0,0,
530,-24.9,-15.8,-54.9,-52.36,-45.36,-41,-21.25,-17.2,-40.6,-20.42,-54.76,-59.24,-37.4,-16.71,-36.77,-35.22,0,0,0,0,0,0,0,0,0,0,0,0,0,0,0,0,
531,-54.58,-19.36,-58.23,-48.28,-42.98,-42.66,-34.14,-29.04,-34.11,-11.47,-55.74,-47.07,-23.39,-4.443,-57.15,-55.06,0,0,0,0,0,0,0,0,0,0,0,0,0,0,0,0,
532,-6.918,-5.37,-32.62,-15.69,-25.84,-10.78,-23.8,-14.1,-36.13,-13.15,-28.64,-5.247,-1.23,0.6203,-34.22,-31.62,0,0,0,0,0,0,0,0,0,0,0,0,0,0,0,0,
533,26.78,9.322,-23.45,-12.2,-10.86,10,-5.969,11.63,-29.37,-7.131,-6.229,11.41,17.78,16.34,-0.5118,6.289,0,0,0,0,0,0,0,0,0,0,0,0,0,0,0,0,
534,22.43,25.38,-14.19,-18.83,3.429,19.88,-4.792,14.99,-1.481,9.886,2.61,7.841,22.44,25.54,12.98,23.38,0,0,0,0,0,0,0,0,0,0,0,0,0,0,0,0,
535,18.06,21.19,-11.12,-13.51,0.7211,11.22,-5.773,-1.973,-3.707,2.271,-4.647,-3.106,0.4649,0.5195,2.757,7.535,0,0,0,0,0,0,0,0,0,0,0,0,0,0,0,0,
536,-0.544,0.7758,-26.58,-11.7,-10.38,-10.82,1.19,-8.177,-16.65,-9.895,-17.95,-16.89,-16.83,-17.05,-8.834,-17.07,0,0,0,0,0,0,0,0,0,0,0,0,0,0,0,0,
537,-18.36,-9.967,-30.9,-17.59,-17.74,-23.31,-6.79,-9.838,-17.22,-13.19,-23.41,-32.59,-30.5,-27.16,-9.413,-31.83,0,0,0,0,0,0,0,0,0,0,0,0,0,0,0,0,
538,-28.74,-31.74,-45.01,-45.45,-37.74,-39.5,-33.15,-29.24,-36,-27.26,-33.35,-57.02,-52.72,-47.62,-17.35,-48.58,0,0,0,0,0,0,0,0,0,0,0,0,0,0,0,0,
539,-46.98,-52.19,-73.13,-70.06,-52.75,-49.59,-42.57,-36.1,-50.96,-29.54,-53.41,-66.81,-45.38,-41.15,-34.36,-57.83,0,0,0,0,0,0,0,0,0,0,0,0,0,0,0,0,
540,-35.18,-32.9,-62.13,-47.93,-41.6,-31.26,-22.16,-13.25,-40.26,-14.29,-57.32,-45.15,-16.32,-17.52,-37.08,-37.99,0,0,0,0,0,0,0,0,0,0,0,0,0,0,0,0,
541,-9.165,-6.882,-31.18,-18.52,-24.35,-13.34,-3.955,1.893,-26.05,-6.992,-32.25,-21.95,-3.773,-7.389,-17.77,-4.376,0,0,0,0,0,0,0,0,0,0,0,0,0,0,0,0,
542,-15.01,0.9248,-17.54,-7.081,-8.366,-6.146,-3.66,1.797,-12.74,-2.595,-7.462,-12.96,-4.494,-8.007,9.935,12.98,0,0,0,0,0,0,0,0,0,0,0,0,0,0,0,0,
543,-15.84,-0.1616,-10.56,2.738,-3.187,-2.816,-7.466,2.705,-10.21,-2.849,-10.98,-10.99,-19.82,-23.27,15.21,-0.398,0,0,0,0,0,0,0,0,0,0,0,0,0,0,0,0,
544,-4.051,-15.68,-18.12,-17.04,-16.83,-12.56,-11.6,-0.3354,-17.56,-8.485,-19.23,-8.401,-25.08,-16.69,-10.26,-25.28,0,0,0,0,0,0,0,0,0,0,0,0,0,0,0,0,
545,-2.398,-16.4,-27.76,-43,-15.99,-12.91,-15.01,0.0955,-11.4,-2.305,-10.28,0.0184,1.576,16.27,-21.77,-24.77,0,0,0,0,0,0,0,0,0,0,0,0,0,0,0,0,
546,-2.679,0.6894,-21.98,-24.11,-10.78,-9.383,-16.9,2.037,-10.08,-1.55,-19.53,-10.44,0.9519,1.853,-7.907,-13.8,0,0,0,0,0,0,0,0,0,0,0,0,0,0,0,0,
547,-19.79,-13.84,-32.12,-8.371,-32.97,-30.17,-21.63,-11.08,-22.53,-12.47,-45.55,-32.84,-26.2,-26.87,-8.694,-27.68,0,0,0,0,0,0,0,0,0,0,0,0,0,0,0,0,
548,-31.54,-28.4,-46.47,-20.08,-37.2,-33.31,-19.09,-14.15,-24.78,-11.86,-39.97,-19.78,-17.19,-11.43,-17.72,-43.29,0,0,0,0,0,0,0,0,0,0,0,0,0,0,0,0,
549,-14.61,-7.585,-36.19,-20.12,-16.43,-14.49,-6.35,2.948,-30.77,-13.04,-25.7,-4.484,-6.786,-12.38,-12.53,-36.05,0,0,0,0,0,0,0,0,0,0,0,0,0,0,0,0,
550,-13.57,0.4559,-28.48,-15.42,-20.46,-16.86,6.345,7.261,-39.86,-18.38,-29.37,-20.14,-16.47,-22.79,-8.912,-20.38,0,0,0,0,0,0,0,0,0,0,0,0,0,0,0,0,
551,-5.929,-0.9893,-21.52,-11.98,-22.51,-5.269,16.79,5.286,-27.12,-6.87,-26.92,-21.38,-9.594,-1.098,-8.412,-6.302,0,0,0,0,0,0,0,0,0,0,0,0,0,0,0,0,
552,15.6,8.676,-9.275,-6.787,-11.41,13.44,8.636,8.501,-21,-1.22,-40.57,-24.5,-13.52,-4.38,-10.44,-7.599,0,0,0,0,0,0,0,0,0,0,0,0,0,0,0,0,
553,-24.21,-3.16,-25.26,-15.06,-28,-18.4,-13.69,-0.3665,-30.83,-8.185,-64.27,-45.04,-22.15,-18.06,-21.94,-23.56,0,0,0,0,0,0,0,0,0,0,0,0,0,0,0,0,
554,-52.55,-9.102,-38.43,-9.607,-30.99,-34,-7.621,-1.281,-21.46,-1.018,-38.42,-18.28,9.486,6.003,-13.53,-14.46,0,0,0,0,0,0,0,0,0,0,0,0,0,0,0,0,
555,10.9,16.57,-13.93,13.3,0.8964,11.02,11.33,13.91,-11.56,2.768,-0.5205,23.62,23.87,4.271,15.18,14.72,0,0,0,0,0,0,0,0,0,0,0,0,0,0,0,0,
556,39.68,14.86,-8.691,6.988,-2.144,23.44,1.852,9.736,-19.02,-6.58,-3.607,9.986,-8.536,-29.91,15.69,12.83,0,0,0,0,0,0,0,0,0,0,0,0,0,0,0,0,
557,-7.189,-9.061,-35.19,-10.93,-29.67,-14.26,-11.06,-5.697,-16.21,-4.079,-16.11,-8.234,-14.37,-22.22,-4.364,-7.12,0,0,0,0,0,0,0,0,0,0,0,0,0,0,0,0,
558,-19.92,0.2581,-39.32,-12.9,-27.88,-27.57,-10.12,-9.263,-19.32,-5.263,-24.56,1.212,9.177,9.403,-6.573,-0.0493,0,0,0,0,0,0,0,0,0,0,0,0,0,0,0,0,
559,2.439,15.5,-26.21,-21.7,-23.91,-10.65,-7.103,-7.154,-37.2,-16.59,-27.75,4.744,12.26,11.96,-0.8894,17.42,0,0,0,0,0,0,0,0,0,0,0,0,0,0,0,0,
560,8.759,14.61,-16.89,-22.11,-23.49,5.186,7.439,10.6,-25.82,-4.59,-18.15,4.047,8.844,2.813,0.3431,14.51,0,0,0,0,0,0,0,0,0,0,0,0,0,0,0,0,
561,7.979,20.65,-3.688,3.571,-2.974,11.72,17.11,31.75,-6.604,10.09,-21.68,-3.239,7.29,2.16,0.8157,1.075,0,0,0,0,0,0,0,0,0,0,0,0,0,0,0,0,
562,6.307,13.7,-0.8211,24.88,5.639,7.305,6.322,23.56,-14.22,1.778,-29.64,-22.75,-10.57,-4.522,-9.215,-11.52,0,0,0,0,0,0,0,0,0,0,0,0,0,0,0,0,
563,6.267,-6.591,-6.119,34.25,-3.108,3.802,10.92,13.42,-1.289,8.81,-17.42,-24.85,-16.2,-4.079,-25.07,-19.57,0,0,0,0,0,0,0,0,0,0,0,0,0,0,0,0,
564,6.42,0.9043,-3.336,27.4,-3.973,4.648,24.88,17.7,16.33,20.73,-21.6,-15.83,-0.8032,12.55,-28.9,-13.11,0,0,0,0,0,0,0,0,0,0,0,0,0,0,0,0,
565,-4.314,8.147,-18.27,-12.94,-21.03,-10.89,4.885,0.2779,-22.43,-4.938,-52.32,-27.64,-11.65,-2.218,-24.82,-4.165,0,0,0,0,0,0,0,0,0,0,0,0,0,0,0,0,
566,-10.85,-13.49,-41.2,-39.06,-37.01,-27.68,-17.12,-15.37,-48.42,-20.74,-51.26,-32.29,-28.34,-36.82,-16.5,-5.129,0,0,0,0,0,0,0,0,0,0,0,0,0,0,0,0,
567,-3.849,-12.78,-24.66,-14.07,-3.883,-8.536,-0.5268,8.279,-10.61,2.213,-10.63,1.621,-3,-23.26,1.609,6.504,0,0,0,0,0,0,0,0,0,0,0,0,0,0,0,0,
568,8.969,9.024,-2.117,-1.249,17.11,13.66,8.399,19.4,3.882,5.015,1.236,24.94,12.78,2.226,10.88,28.08,0,0,0,0,0,0,0,0,0,0,0,0,0,0,0,0,
569,24.7,-0.0871,-15.16,-18.03,-14.65,-3.614,-14.27,-3.824,-21.14,-12.4,-24.38,0.8375,-5.089,-4.657,-5.053,25.38,0,0,0,0,0,0,0,0,0,0,0,0,0,0,0,0,
570,21.5,-8.177,-19.65,-6.323,-18.03,-12.3,-7.461,1.283,-15.04,-1.703,-20.3,-10.29,8.883,9.094,-16.11,15.48,0,0,0,0,0,0,0,0,0,0,0,0,0,0,0,0,
571,5.679,20.68,2.529,10.99,10.91,16.49,32.26,33.31,9.204,18.28,6.9,18.12,39.27,35,5.344,29.66,0,0,0,0,0,0,0,0,0,0,0,0,0,0,0,0,
572,8.665,36.57,9.697,1.637,5.226,24.35,32.45,31.12,14.43,18.21,-4.448,16.72,21.26,12.08,28.43,36.57,0,0,0,0,0,0,0,0,0,0,0,0,0,0,0,0,
573,5.568,15.66,-2.805,5.153,-8.114,5.281,4.522,9.492,9.403,7.68,-32.24,-14.38,-9.49,-24.61,18.23,12.54,0,0,0,0,0,0,0,0,0,0,0,0,0,0,0,0,
574,-0.5653,-0.8068,-10.95,2.411,-8.837,6.637,1.275,9.419,-9.807,-6.912,-32.16,-11.46,-9.06,-26.84,-5.282,-6.875,0,0,0,0,0,0,0,0,0,0,0,0,0,0,0,0,
575,14.91,-3.662,-17.33,-31.08,-26.75,2.055,-7.5,6.588,-30.84,-16.45,-36.04,-8.419,-12.44,-21.92,-17.53,-8.903,0,0,0,0,0,0,0,0,0,0,0,0,0,0,0,0,
576,-8.51,-16.28,-29.79,-37.74,-33.29,-31.56,-28.1,-10.91,-23.01,-11.81,-58.05,-34.87,-29.19,-29.6,-25.89,-20.59,0,0,0,0,0,0,0,0,0,0,0,0,0,0,0,0,
577,-49.68,-29.5,-38.61,-24.51,-23.06,-43.83,-15.15,-13.96,-15.55,-10.74,-48.38,-31.49,-25.72,-31.31,-28.56,-32.68,0,0,0,0,0,0,0,0,0,0,0,0,0,0,0,0,
578,-22.46,-28.33,-42.23,-35.8,-40.05,-31.47,-1.835,-11.6,-32.73,-18.13,-21.25,-15.13,-9.502,-15.87,-21.34,-18.2,0,0,0,0,0,0,0,0,0,0,0,0,0,0,0,0,
579,-4.221,-21.35,-42.64,-29.87,-46.44,-29.17,-16.81,-13.71,-28.26,-9.795,-34.79,-32.69,-1.174,6.225,-18.72,7.95,0,0,0,0,0,0,0,0,0,0,0,0,0,0,0,0,
580,-34.8,-13.52,-28.8,-2.861,-15.32,-22.93,-13.75,-1.196,-6.332,1.835,-53.82,-37.65,-5.715,2.156,-20.62,16,0,0,0,0,0,0,0,0,0,0,0,0,0,0,0,0,
581,-30.09,-18.67,-26.54,-15.97,-25.32,-24.28,-10.99,-3.289,-27.28,-15.65,-55.01,-36.7,-32.91,-30.08,-28.09,-6.522,0,0,0,0,0,0,0,0,0,0,0,0,0,0,0,0,
582,-29.33,-39.22,-59.37,-48.4,-68.87,-48.98,-36.5,-30.8,-52.64,-28.38,-77.52,-61.12,-43.98,-27.87,-51.55,-39.75,0,0,0,0,0,0,0,0,0,0,0,0,0,0,0,0,
583,-47.24,-27.92,-58.99,-40.76,-42.76,-36.37,-23.16,-18.18,-20.48,-0.8028,-71.26,-36.44,1.014,11.8,-54.57,-32.11,0,0,0,0,0,0,0,0,0,0,0,0,0,0,0,0,
584,3.131,17.97,-0.7179,-3.027,17.42,17.91,28,28.26,15.42,22.76,-4.33,33.33,40.64,14.81,-3.937,20.72,0,0,0,0,0,0,0,0,0,0,0,0,0,0,0,0,
585,57.27,36.38,25.54,29.53,17.57,37.08,37.88,40.6,18.95,19.32,36.71,50.73,32.99,-7.584,51.25,57,0,0,0,0,0,0,0,0,0,0,0,0,0,0,0,0,
586,39.59,24.61,4.353,35.92,-4.078,17.99,18.34,27.16,21.62,15.83,25.48,28.34,21.08,-3.844,58.7,48.47,0,0,0,0,0,0,0,0,0,0,0,0,0,0,0,0,
587,10.34,13.95,-13.26,3.078,-12.66,-5.433,6.699,12.5,2.183,2.362,-2.53,7.953,14.11,1.793,34.17,21.31,0,0,0,0,0,0,0,0,0,0,0,0,0,0,0,0,
588,-12.01,0.9231,-31.07,-34.88,-33.84,-25.62,-6.653,-3.988,-34.12,-17.75,-29.63,-14.1,3.544,-6.456,11.81,0.7503,0,0,0,0,0,0,0,0,0,0,0,0,0,0,0,0,
589,-22.36,-6.077,-34.31,-24.78,-32.89,-20.44,-7.843,-3.211,-24.98,-9.918,-33.01,-19.49,-0.2163,-13.33,1.596,-8.434,0,0,0,0,0,0,0,0,0,0,0,0,0,0,0,0,
590,-6.202,-2.814,-13.16,4.391,-8.486,-5.857,5.576,10.34,-3.68,3.249,-33.88,-23.4,-8.884,-16.34,-7.503,-17.82,0,0,0,0,0,0,0,0,0,0,0,0,0,0,0,0,
591,-15.33,-6.06,-13.37,-4.173,-19.33,-17.5,1.786,13.58,-15.89,-1.176,-43.32,-45.14,-15.88,-4.496,-24.28,-25.6,0,0,0,0,0,0,0,0,0,0,0,0,0,0,0,0,
592,-37.14,-8.419,-22.48,-20.58,-31.82,-23.96,-12.65,9.371,-13.27,3.031,-21.8,-43.33,-9.454,6.024,-36.77,-16.85,0,0,0,0,0,0,0,0,0,0,0,0,0,0,0,0,
593,-21.34,-4.611,-10.68,-5.287,-13.22,-6.912,-9.091,5.026,5.397,11.59,1.843,-18.52,-5.612,-4.085,-30.11,-2.91,0,0,0,0,0,0,0,0,0,0,0,0,0,0,0,0,
594,-2.296,4.62,-3.848,16,-6.001,10.16,15.97,14.41,8.463,15.46,2.517,3.259,14.92,7.611,-0.2946,10.98,0,0,0,0,0,0,0,0,0,0,0,0,0,0,0,0,
595,20.05,34.5,9.389,24.53,6.302,30.51,43.5,37.04,21.61,29.29,24.6,38.47,55.09,43.31,46.27,44.6,0,0,0,0,0,0,0,0,0,0,0,0,0,0,0,0,
596,51.32,55.7,22.64,15.66,22.2,30.51,38.52,32.12,21.51,24.63,34.69,53.56,55.76,45.57,75.95,78.56,0,0,0,0,0,0,0,0,0,0,0,0,0,0,0,0,
597,23.75,29.8,-16.81,-14.86,-18.13,-14.41,1.164,-0.2082,-18.84,-5.315,-7.132,16.34,28.68,33.72,59.27,76.35,0,0,0,0,0,0,0,0,0,0,0,0,0,0,0,0,
598,-26.31,6.141,-47.76,-24.3,-48.2,-33.91,-11.65,-5.334,-23.25,-2.778,-19.83,-1.77,33.43,44.27,29.65,54.35,0,0,0,0,0,0,0,0,0,0,0,0,0,0,0,0,
599,-8.624,21.81,-6.455,0.1471,-1.516,5.643,14.95,19.26,16.46,20.85,15.52,19.29,37.35,29.94,26.61,38.26,0,0,0,0,0,0,0,0,0,0,0,0,0,0,0,0,
600,26.61,28.18,21.23,3.673,24.37,28.83,31.12,31.85,18.99,13.07,14.07,16.52,13.55,-9.75,26.85,27.74,0,0,0,0,0,0,0,0,0,0,0,0,0,0,0,0,
601,24.37,15.94,2.894,-5.324,-3.586,11.05,22.7,23.67,2.076,1.204,-13.6,1.062,4.936,-14.08,11.86,27.87,0,0,0,0,0,0,0,0,0,0,0,0,0,0,0,0,
602,3.893,9.073,-8.007,2.244,-18.82,-12.55,2.668,1.388,-4.59,-1.805,-21.71,-7.83,-3.837,-12.86,-3.689,24.52,0,0,0,0,0,0,0,0,0,0,0,0,0,0,0,0,
603,-25.74,-12.72,-23.37,-8.443,-26.37,-28.01,-26.88,-18.21,-27.17,-17.38,-27.29,-24.94,-27.19,-31.73,-21.24,-5.513,0,0,0,0,0,0,0,0,0,0,0,0,0,0,0,0,
604,-28.46,-27.04,-33.81,-21.94,-28.01,-21.96,-35.65,-8.562,-24.91,-11.69,-17.79,-20.01,-15.74,-17.43,-31.19,-27.61,0,0,0,0,0,0,0,0,0,0,0,0,0,0,0,0,
605,-9.024,-9.134,-23.45,-13.37,-22.24,-17.56,-21.04,2.158,-2.338,4.364,-14.89,-16.89,-7.969,-4.791,-24.77,-20.58,0,0,0,0,0,0,0,0,0,0,0,0,0,0,0,0,
606,-28.73,-16.02,-36.76,-20.3,-41.53,-33.69,-16.04,-9.58,-27.03,-12.73,-43.18,-45.07,-39.75,-33.58,-32.22,-26.78,0,0,0,0,0,0,0,0,0,0,0,0,0,0,0,0,
607,-29.48,-30.05,-29.28,-14.18,-27.56,-12.36,5.449,7.091,-25.83,-5.942,-5.388,-24.69,-21.07,-21.4,-39.72,-31.6,0,0,0,0,0,0,0,0,0,0,0,0,0,0,0,0,
608,18.73,6.934,29.26,22.57,33.44,28.24,39.79,42.99,32.76,31.37,60.16,15.34,29.83,20.23,-9.427,5.846,0,0,0,0,0,0,0,0,0,0,0,0,0,0,0,0,
609,8.822,25.66,32.84,21.04,26.23,14.4,32.27,37.87,26.38,18.71,10.94,-17.04,15.67,4.528,15.6,31.4,0,0,0,0,0,0,0,0,0,0,0,0,0,0,0,0,
610,-17.98,3.496,-4.208,5.97,-18.77,4.322,21.09,24.5,-13.11,-5.369,-39.4,-29.6,1.028,-12.63,7.752,13.54,0,0,0,0,0,0,0,0,0,0,0,0,0,0,0,0,
611,25.43,13.3,8.293,22.82,-0.8209,28.63,29.79,24.81,3.965,9.384,-2.727,12.72,29.52,17.61,8.547,8.288,0,0,0,0,0,0,0,0,0,0,0,0,0,0,0,0,
612,37.2,25.06,12.73,18.68,14.32,13.87,8.744,6.761,1.492,7.501,-4.748,6.128,31.26,37.11,16.56,22.84,0,0,0,0,0,0,0,0,0,0,0,0,0,0,0,0,
613,-1.812,7.049,-8.463,-0.7313,-6.289,-9.291,-3.843,1.737,-19.17,-2.553,-15.36,-11.3,23.21,32.32,16.85,28.94,0,0,0,0,0,0,0,0,0,0,0,0,0,0,0,0,
614,2.278,9.358,3.836,-3.239,1.094,8.782,15.81,17.4,8.427,10.98,32.32,13.22,29.63,14.42,31.35,35.53,0,0,0,0,0,0,0,0,0,0,0,0,0,0,0,0,
615,17.07,14.74,10.81,-17.61,9.406,10.62,7.518,9.416,11.24,2.865,26.94,8.231,7.856,-17.73,38.99,29.71,0,0,0,0,0,0,0,0,0,0,0,0,0,0,0,0,
616,4.616,-3.282,-8.82,-22.81,-13.3,-14.99,-5.37,2.49,-23.34,-14.46,-28.62,-19.04,-11.71,-21.27,9.775,-3.243,0,0,0,0,0,0,0,0,0,0,0,0,0,0,0,0,
617,-6.317,-2.333,-9.051,4.856,-17.55,-17,5.623,15.82,-9.302,5.546,-13.72,-7.824,7.129,9.913,-17.18,-22.09,0,0,0,0,0,0,0,0,0,0,0,0,0,0,0,0,
618,-2.375,16.47,7.088,21.57,7.335,8.171,1.162,21.03,25.85,27.6,49.6,15.51,18.23,14.67,-8.666,-5.072,0,0,0,0,0,0,0,0,0,0,0,0,0,0,0,0,
619,18.95,14.33,15.23,13.24,22.5,19.27,0.7729,24.7,24.34,20.3,60.62,10.22,2.155,-11.91,8.237,11.03,0,0,0,0,0,0,0,0,0,0,0,0,0,0,0,0,
620,11.4,-6.342,5.951,-0.9935,12.52,-5.255,16.13,24.4,2.798,4.026,9.551,-10.88,-9.925,-15.03,6.293,3.428,0,0,0,0,0,0,0,0,0,0,0,0,0,0,0,0,
621,-19.49,-16.08,-6.136,-5.072,-4.863,-15.8,12.51,12.65,-12.41,-1.496,-23.72,-11.97,-1.767,9.154,-2.683,-7.824,0,0,0,0,0,0,0,0,0,0,0,0,0,0,0,0,
622,7.529,-0.9057,5.52,13.62,-6.545,9.898,9.2,16.67,-6.358,7.042,-7.162,2.337,8.513,14.48,0.4304,-5.253,0,0,0,0,0,0,0,0,0,0,0,0,0,0,0,0,
623,23.79,6.53,6.493,18.98,-8.45,3.824,8.211,17.73,-0.989,7.91,-0.945,-6.963,-5.295,-6.288,3.867,-4.774,0,0,0,0,0,0,0,0,0,0,0,0,0,0,0,0,
624,-28.12,-14.63,-22.88,-16.33,-30.08,-27.42,-12.96,-5.712,-19.58,-6.475,-18.83,-24.85,-21.11,-15.77,-9.521,-22.14,0,0,0,0,0,0,0,0,0,0,0,0,0,0,0,0,
625,-32.09,-20.46,-26.38,-37.13,-33.99,-19.09,-14.12,-8.13,-22.56,-5.349,-16.76,-18.53,-3.498,1.843,-22.65,-35.01,0,0,0,0,0,0,0,0,0,0,0,0,0,0,0,0,
626,-3.447,0.5256,-5.931,-17.53,-7.531,-6.307,5.148,11.51,-2.114,9.383,-2.194,-10.95,19.47,24.39,-15.75,-21.62,0,0,0,0,0,0,0,0,0,0,0,0,0,0,0,0,
627,-19.24,7.104,-5.445,-8.585,0.3037,-16.2,-6.26,10.24,-0.6625,10.5,3.313,-11.19,16.69,27.47,2.273,-2.102,0,0,0,0,0,0,0,0,0,0,0,0,0,0,0,0,
628,-9.6,1.944,-8.724,-18.89,-15.15,-14.61,-23.48,1.997,-9.431,5.896,12.38,-0.3691,9.467,15.19,17.24,1.081,0,0,0,0,0,0,0,0,0,0,0,0,0,0,0,0,
629,7.356,3.403,-6.075,-11.15,-20.24,-13.73,-10.96,9.252,-6.954,5.403,24.69,12.34,10.23,6.36,24.95,-3.296,0,0,0,0,0,0,0,0,0,0,0,0,0,0,0,0,
630,-17.57,0.5998,-6.471,7.634,-13.26,-17.52,2.839,16.72,-0.9396,5.16,21.04,17,2.709,-4.439,25.85,-5.938,0,0,0,0,0,0,0,0,0,0,0,0,0,0,0,0,
631,-15.81,-10.53,-7.728,-0.8756,-9.293,-15.27,-4.555,4.535,-0.5822,2.203,-3.523,6.334,-18.81,-25.2,15.21,-16.99,0,0,0,0,0,0,0,0,0,0,0,0,0,0,0,0,
632,-13.95,-28.33,-26.58,-37.51,-26.05,-33.36,-25.77,-20.89,-18.28,-10.88,-17.63,-14.16,-32.78,-32.07,-8.937,-36.28,0,0,0,0,0,0,0,0,0,0,0,0,0,0,0,0,
633,-29.8,-33.96,-38.57,-46.35,-42.78,-38.08,-35.01,-17.31,-27.54,-14.13,8.796,4.064,-11.65,-12.11,-17.37,-35.37,0,0,0,0,0,0,0,0,0,0,0,0,0,0,0,0,
634,7.598,-6.124,-6.525,-3.603,-18.56,-3.52,-15.65,14.54,-0.3673,8.795,30.18,41.17,22.34,8.381,13.02,-2.788,0,0,0,0,0,0,0,0,0,0,0,0,0,0,0,0,
635,15.73,12.84,13.97,25.55,5.175,-0.4169,2.628,18.7,13.99,18.92,7.278,23.53,20.85,4.381,45.31,22.43,0,0,0,0,0,0,0,0,0,0,0,0,0,0,0,0,
636,-22.26,-3.514,4.782,17.06,-0.415,-11.11,6.815,9.495,1.893,5.68,-2.564,2.676,2.471,-14.38,43.59,11.71,0,0,0,0,0,0,0,0,0,0,0,0,0,0,0,0,
637,22.17,-4.943,23.87,17.51,11.02,21.33,18.26,24.49,1.533,0.6793,8.429,21.8,6.371,-15.89,23.55,-8.679,0,0,0,0,0,0,0,0,0,0,0,0,0,0,0,0,
638,38.23,4.812,29.03,10.91,6.953,15.32,16.31,21.1,-13.47,-5.701,-21.68,-7.526,3.891,-1.094,-2.218,-21.77,0,0,0,0,0,0,0,0,0,0,0,0,0,0,0,0,
639,-62.71,-21.05,-19.57,-23.88,-40.13,-44.94,-14.18,-7.37,-40.29,-16.06,-50.47,-67.19,-24.3,-7.335,-35.04,-46.27,0,0,0,0,0,0,0,0,0,0,0,0,0,0,0,0,
640,-92.36,-45.94,-37.55,-40.97,-48.98,-56.09,-31.29,-7.718,-29.04,-6.742,-23.67,-55.21,-33.61,-24.2,-53.37,-70.33,0,0,0,0,0,0,0,0,0,0,0,0,0,0,0,0,
641,-38.4,-31.2,-12.17,-30.1,-23.24,-28.38,-19.12,9.942,-13.94,3.366,1.13,-15.97,-8.521,-9.404,-37.4,-56.36,0,0,0,0,0,0,0,0,0,0,0,0,0,0,0,0,
642,-23.95,-10.82,-3.885,-6.59,-20.67,-13.59,-2.129,17.44,-17.47,3.32,-1.944,-7.889,14.3,15.35,0.9199,-12.72,0,0,0,0,0,0,0,0,0,0,0,0,0,0,0,0,
643,3.366,-0.4552,8.146,25.62,-12.38,5.716,6.69,24.33,-1.472,13.18,-6.355,1.385,19.05,12.4,32.87,18.03,0,0,0,0,0,0,0,0,0,0,0,0,0,0,0,0,
644,29.63,8.215,21.6,22.42,-6.522,7.448,-1.708,18.31,5.682,13.27,-17.6,2.408,8.92,-3.409,33.47,12.59,0,0,0,0,0,0,0,0,0,0,0,0,0,0,0,0,
645,-13.98,-2.917,-2.079,-15.45,-29.33,-24.99,-21.48,-2.405,-17.24,-6.61,-20.53,-19.81,-13.04,-14.59,4.699,-24.48,0,0,0,0,0,0,0,0,0,0,0,0,0,0,0,0,
646,-39.77,-24.73,-18.5,-16.95,-41.68,-40.39,-23.8,-3.705,-21.58,-8.651,-11.76,-25.49,-21.22,-17.2,-20.9,-61.74,0,0,0,0,0,0,0,0,0,0,0,0,0,0,0,0,
647,-22.46,-22.32,-12.63,-3.115,-51.44,-33.74,-12.56,1.793,-23.17,-1.598,-33.95,-16.76,-10.64,-14.54,-23.08,-65.65,0,0,0,0,0,0,0,0,0,0,0,0,0,0,0,0,
648,-31.29,-15.27,-26.07,-32.8,-67.01,-34.77,-16.57,-13.57,-55.85,-19.15,-52.51,-20.12,-11.43,-22.83,-10.22,-42.93,0,0,0,0,0,0,0,0,0,0,0,0,0,0,0,0,
649,-28.35,-25.42,-20.01,-41.24,-35.39,-20.65,-19.9,-12.55,-54.53,-23.08,-9.749,-10.68,-7.947,-19.37,14.09,-14.11,0,0,0,0,0,0,0,0,0,0,0,0,0,0,0,0,
650,8.828,-15.88,27.05,9.882,20.24,13.04,4.392,19.79,2.767,10.85,35.12,17.87,21.13,16.38,48.09,19.47,0,0,0,0,0,0,0,0,0,0,0,0,0,0,0,0,
651,18.18,10.86,49.71,26.83,39.04,25.61,26.65,28.36,29.39,25.28,32.23,24.1,27.16,24.98,68.19,40.74,0,0,0,0,0,0,0,0,0,0,0,0,0,0,0,0,
652,6.714,3.361,40.38,-6.636,33.31,19.33,13.85,0.9851,8.938,5.574,17.74,5.114,-3.431,-10.25,54.1,22.97,0,0,0,0,0,0,0,0,0,0,0,0,0,0,0,0,
653,10.05,-22.89,34.95,-6.455,26.12,15.99,-10.21,-17.4,2.577,-1.847,1.481,-8.757,-12.74,-16.43,18.03,-16.02,0,0,0,0,0,0,0,0,0,0,0,0,0,0,0,0,
654,5.789,-23.35,23.89,13.46,26.06,2.584,-17.68,-21.04,3.078,-1.217,-15.57,-16.54,0.8174,3.184,-10.34,-39.15,0,0,0,0,0,0,0,0,0,0,0,0,0,0,0,0,
655,-13.75,-18.92,-2.817,-13.48,22.53,-22.57,-27.36,-38.09,-18.82,-15.64,-19.39,-29.56,-10.14,-12.41,-21.45,-50.5,0,0,0,0,0,0,0,0,0,0,0,0,0,0,0,0,
656,-33.77,-35.27,-26.3,-62.16,-3.949,-36.56,-49.03,-59.55,-32.73,-25.41,-28.75,-42.24,-31.85,-41.87,-28.68,-65.59,0,0,0,0,0,0,0,0,0,0,0,0,0,0,0,0,
657,-40.43,-41.31,-14.89,-62.28,-7.895,-22.36,-42.4,-49.04,-21.37,-21.01,-32.98,-41.39,-24.58,-44.96,-27.24,-64.77,0,0,0,0,0,0,0,0,0,0,0,0,0,0,0,0,T1
658,-14.65,-21.84,19.85,-11.13,24.67,7.188,-7.073,-20.17,-15.3,-18.1,-19.82,-34.43,-10.88,-39.58,-8.843,-43.5,0,0,0,0,0,0,0,0,0,0,0,0,0,0,0,0,
659,7.937,-15.86,22.5,19.96,25.39,12.73,-0.3417,-17.73,-21.8,-17.6,-21.79,-36.4,-16.22,-37.28,0.6884,-35.78,0,0,0,0,0,0,0,0,0,0,0,0,0,0,0,0,
660,-2.545,-25.13,17.06,8.289,17.13,4.144,-10.02,-20.86,-10.18,-9.86,-7.92,-20.95,-3.014,-17.43,-1.409,-34.2,0,0,0,0,0,0,0,0,0,0,0,0,0,0,0,0,
661,6.931,-8.585,44.25,7.043,48.33,18.96,6.646,0.5994,17.18,3.446,38,18.32,34.28,21.84,17.78,-2.061,0,0,0,0,0,0,0,0,0,0,0,0,0,0,0,0,
662,32.58,11.56,42.65,12.05,54.52,24.71,10.6,3.134,20.88,8.082,31.64,23.67,40.84,42.62,42.56,32.19,0,0,0,0,0,0,0,0,0,0,0,0,0,0,0,0,
663,18.95,-4.061,2.03,-19.29,19.05,-3.609,-18,-29.42,-2.188,-5.895,-15.64,-8.114,16.62,19.46,31.31,21.74,0,0,0,0,0,0,0,0,0,0,0,0,0,0,0,0,
664,-1.567,-21.73,-10.61,-50.11,3.017,-19.53,-30.82,-46.31,-20.26,-22.31,-12.19,-16.3,8.599,-7.321,-0.3867,-9.67,0,0,0,0,0,0,0,0,0,0,0,0,0,0,0,0,
665,3.35,-12.19,0.7262,-31.38,13.33,-3.076,-18.01,-31.76,-14.6,-15.55,18.25,2.154,17.39,-2.801,-9.023,-18.37,0,0,0,0,0,0,0,0,0,0,0,0,0,0,0,0,
666,1.25,-3.939,7.36,-7.511,22.64,7.402,-13.85,-23.77,0.0424,-4.271,11.86,-1.769,5.739,-10.74,2.393,-14.28,0,0,0,0,0,0,0,0,0,0,0,0,0,0,0,0,
667,-21.89,-23.42,-2.602,-36.09,3.539,-16.19,-36.96,-46.54,-10.04,-21.39,-23.19,-38.44,-28.73,-41.38,-8.165,-27.7,0,0,0,0,0,0,0,0,0,0,0,0,0,0,0,0,
668,-36.17,-48.53,-24.05,-58.43,-20.85,-35.65,-56.6,-60.85,-24.46,-31.36,-38.02,-49.15,-30.62,-28.36,-34.35,-40.8,0,0,0,0,0,0,0,0,0,0,0,0,0,0,0,0,
669,-11.05,-34.6,-5.949,-12.25,12.07,-7.891,-29.03,-29.27,0.062,-5.195,-1.163,-8.09,3.296,2.602,-21.45,-21.78,0,0,0,0,0,0,0,0,0,0,0,0,0,0,0,0,
670,12.49,-4.066,27.8,12.11,50.38,14.1,2.374,-8.28,21.1,2.044,36.18,6.909,-3.944,-28.82,14.61,-2.001,0,0,0,0,0,0,0,0,0,0,0,0,0,0,0,0,
671,-10.09,-13.41,8.693,-30.36,27.75,-7.729,-18.85,-31.61,4.57,-19.84,12.27,-23.98,-31.55,-56.23,13.89,-14.46,0,0,0,0,0,0,0,0,0,0,0,0,0,0,0,0,
672,-16.08,-25.7,-4.565,-29.79,19.18,-6.2,-36.55,-32.1,-2.19,-15.68,-16.1,-18.9,-2.312,-9.15,-2.789,-20.24,0,0,0,0,0,0,0,0,0,0,0,0,0,0,0,0,
673,16.94,-1.984,25.42,12.17,45.22,25.56,-12.88,-7.393,6.077,-1.198,3.373,4.076,22.58,17.59,-0.0112,1.718,0,0,0,0,0,0,0,0,0,0,0,0,0,0,0,0,
674,10.41,-0.8688,22.62,-1.062,28.31,14.18,-6.989,-19.62,0.3927,-10.4,1.581,-20.76,-8.304,-12.04,-5.051,11.27,0,0,0,0,0,0,0,0,0,0,0,0,0,0,0,0,
675,-22.02,-25.81,-1.517,-23.7,2.787,-14.2,-20.42,-35.29,-2.535,-12.23,-27.42,-29.69,-11.56,-5.975,-17.03,2.037,0,0,0,0,0,0,0,0,0,0,0,0,0,0,0,0,
676,-1.006,-10.43,19.94,2.801,37.77,11.55,-1.447,-9.404,10.03,3.624,-0.3386,15.65,25.58,25.41,-0.296,8.879,0,0,0,0,0,0,0,0,0,0,0,0,0,0,0,0,
677,33.4,17.61,45.11,16.12,65.04,36.99,17.36,3.364,20.1,5.16,30.11,24.64,29.4,18.2,25.6,30.52,0,0,0,0,0,0,0,0,0,0,0,0,0,0,0,0,
678,4.953,4.805,19,-14.82,16.25,2.007,-4.611,-26.07,5.038,-12.3,-3.21,-6.245,14.27,6.77,24.86,38.96,0,0,0,0,0,0,0,0,0,0,0,0,0,0,0,0,
679,-16.22,-9.758,-14.44,-36.39,-26.79,-12.11,-22.08,-41.3,-19.44,-20.43,-7.385,9.432,20.68,13.74,12.09,30.28,0,0,0,0,0,0,0,0,0,0,0,0,0,0,0,0,
680,35.45,-0.4795,-4.843,-20.22,11.08,22.34,-14.07,-26.2,-0.9399,-4.713,24.52,31.6,19.41,6.472,5.611,16.33,0,0,0,0,0,0,0,0,0,0,0,0,0,0,0,0,
681,45.82,-4.189,19.83,-3.545,64.78,14.99,-16.63,-25.19,37.94,7.689,8.093,6.874,-3.589,-14,-3.036,0.0447,0,0,0,0,0,0,0,0,0,0,0,0,0,0,0,0,
682,-8.413,-20.61,27.67,-10.28,79.8,-5.783,-28.79,-41.59,32.76,-2.45,0.8925,7.918,-13.64,-21.65,-12.15,-13.66,0,0,0,0,0,0,0,0,0,0,0,0,0,0,0,0,
683,5.957,-20.09,32.39,-12.58,78.69,18.63,-34.37,-53.36,14.69,-10.61,19.92,28.41,-8.592,-11.62,-15.38,-15.61,0,0,0,0,0,0,0,0,0,0,0,0,0,0,0,0,
684,30.6,-19.47,28.57,-16.29,60.74,7.993,-44.11,-71.32,15.43,-14.14,-16.81,-12.63,-25.37,-18.55,-29.14,-17.54,0,0,0,0,0,0,0,0,0,0,0,0,0,0,0,0,
685,-30.5,-40.82,6.245,-43.92,37.2,-37.38,-56.63,-90.49,1.54,-29.11,-41.63,-47.92,-48.01,-46.9,-53.83,-32.78,0,0,0,0,0,0,0,0,0,0,0,0,0,0,0,0,
686,-47.78,-48.79,2.632,-42.09,49.68,-22.17,-55.97,-80.13,-2.412,-27.25,9.235,-5.502,-23.91,-27.36,-50.2,-37.4,0,0,0,0,0,0,0,0,0,0,0,0,0,0,0,0,
687,12.63,-19.85,27.86,6.558,79.04,17.9,-40.5,-55.22,27.04,-5.504,28.56,25.56,11.32,17.7,-13.23,-15.33,0,0,0,0,0,0,0,0,0,0,0,0,0,0,0,0,
688,29.4,-4.736,38.59,23.56,84.08,20.52,-27.12,-54.71,30.3,-10.96,-9.038,1.768,-1.958,-5.451,7.015,5.113,0,0,0,0,0,0,0,0,0,0,0,0,0,0,0,0,
689,17.02,-23.66,35.36,3.345,80.19,21.04,-22.45,-61.73,10.9,-28.67,-7.719,4.315,-16.74,-39.13,3.911,11.27,0,0,0,0,0,0,0,0,0,0,0,0,0,0,0,0,
690,27.99,-23.3,54.12,7.232,91.73,33.02,-11.77,-44.56,25.51,-16.88,30.18,39.74,-1.016,-15.27,14.34,15.7,0,0,0,0,0,0,0,0,0,0,0,0,0,0,0,0,
691,27.19,-4.745,73.35,24.72,102.5,28.29,-2.845,-29.97,43.63,-2.595,38.41,37.05,-0.4631,-1.219,24.21,14.65,0,0,0,0,0,0,0,0,0,0,0,0,0,0,0,0,
692,14.68,-9.579,60.46,27.82,96.38,19.17,-8.132,-39.81,37.39,-5.777,18.94,14.6,-5.693,-10.71,10.01,14.97,0,0,0,0,0,0,0,0,0,0,0,0,0,0,0,0,
693,23.03,-15.76,47.41,28.25,91.96,28.96,-7.673,-43.45,38.63,-6.667,0.6686,21.77,5.825,-9.757,-0.3266,27.22,0,0,0,0,0,0,0,0,0,0,0,0,0,0,0,0,
694,34.55,-8.889,55.28,28.67,93.72,32.96,-5.787,-37.7,39.74,-9.711,-11.44,20.72,0.6995,-17.23,0.5183,27.71,0,0,0,0,0,0,0,0,0,0,0,0,0,0,0,0,
695,13.75,-18.39,52.09,17.5,80.35,12.15,-23.93,-48.62,24.06,-21.05,-18.92,-8.411,-18.84,-24.32,-16.31,6.408,0,0,0,0,0,0,0,0,0,0,0,0,0,0,0,0,
696,-16.18,-33.73,38.76,-4.527,68.09,4.405,-38.16,-57.78,14.87,-26.04,-21.43,-11.39,-22.45,-17.18,-40.77,-11.51,0,0,0,0,0,0,0,0,0,0,0,0,0,0,0,0,
697,-1.537,-25.85,47.44,-6.812,82.44,23.62,-26.94,-45.58,20.51,-20.25,-8.088,17.64,-9.352,-9.394,-35.77,-8.253,0,0,0,0,0,0,0,0,0,0,0,0,0,0,0,0,
698,30.64,-10.43,60.74,21.09,93.72,29.44,-10.63,-37.93,27.73,-13.66,17.83,30.03,4.499,-0.6057,-6.537,11.7,0,0,0,0,0,0,0,0,0,0,0,0,0,0,0,0,
699,22.62,-14.37,49.22,31.81,79.23,18.97,-6.227,-43.22,25.99,-17.59,24.48,26.07,1.33,-3.601,10.39,25.04,0,0,0,0,0,0,0,0,0,0,0,0,0,0,0,0,
700,5.502,-24.41,35.8,19.21,67.39,18.18,-10.94,-43.63,16.95,-25.03,11.47,29.18,-2.151,-7.536,10.82,26.62,0,0,0,0,0,0,0,0,0,0,0,0,0,0,0,0,
701,7.916,-18.98,35.27,13.44,64.46,12.03,-20.21,-46.29,11.99,-23.23,-6.949,18.47,8.779,12.04,8.789,36.23,0,0,0,0,0,0,0,0,0,0,0,0,0,0,0,0,
702,-6.26,-17.5,26.34,-1.258,52.85,-6.046,-26.02,-53,10.79,-20.95,-29.8,-5.98,0.4652,8.742,-6.477,35.06,0,0,0,0,0,0,0,0,0,0,0,0,0,0,0,0,
703,-22.63,-28.03,21.11,-9.792,50.23,-4.574,-18.67,-45.71,12.41,-22.27,-20.18,3.003,-18.81,-28.32,-25.55,3.906,0,0,0,0,0,0,0,0,0,0,0,0,0,0,0,0,
704,-0.4526,-23.28,36.98,12.45,64.33,14.6,-6.657,-36.39,20.65,-19.29,20.88,34.51,-7.964,-31.81,-14.45,-13.27,0,0,0,0,0,0,0,0,0,0,0,0,0,0,0,0,
705,34.54,-5.848,49.45,26.06,79.22,30.38,0.7324,-33.45,36.05,-9.459,39.64,46.64,15.71,-2.797,13.83,7.769,0,0,0,0,0,0,0,0,0,0,0,0,0,0,0,0,
706,55,8.815,56.17,26.48,100.1,50.56,12.09,-19.47,59.18,6.262,50.28,56.9,29.55,13.49,29.4,35.48,0,0,0,0,0,0,0,0,0,0,0,0,0,0,0,0,
707,56.25,21.22,65.48,27.93,105.9,58.07,18.52,-11.64,63.85,10.61,56.19,64.5,36.8,25.4,35.03,50.69,0,0,0,0,0,0,0,0,0,0,0,0,0,0,0,0,
708,29.48,22.75,54.38,11.5,77.45,29.56,7.545,-24.39,36.98,-2.351,24.84,43.36,31.7,37.38,26.02,47.7,0,0,0,0,0,0,0,0,0,0,0,0,0,0,0,0,
709,6.11,14.04,29.81,-1.032,60.7,1.839,-5.434,-36.33,21.07,-9.546,7.536,24.94,13.68,18.99,-1.299,19.84,0,0,0,0,0,0,0,0,0,0,0,0,0,0,0,0,
710,15.07,-0.3979,20.88,3.695,62.8,1.452,-14.13,-45.89,27.89,-8.321,26.56,32.2,-1.029,-16.38,-16.45,-8.246,0,0,0,0,0,0,0,0,0,0,0,0,0,0,0,0,
711,29.19,-10.98,30.57,10.76,61.56,15.73,-14.17,-41.17,41.02,-1.459,38.09,46.98,11.63,-12,0.8708,2.902,0,0,0,0,0,0,0,0,0,0,0,0,0,0,0,0,
712,37.22,10.88,52.29,30.88,84.63,40.99,4.674,-11.14,64.52,13.22,59.44,65.96,43.37,25.61,33.54,45.76,0,0,0,0,0,0,0,0,0,0,0,0,0,0,0,0,
713,51.63,41.97,64.41,42.13,105.5,55.84,19.32,-2.087,67.92,10.7,77.49,76.2,52.48,42.85,56.18,74.15,0,0,0,0,0,0,0,0,0,0,0,0,0,0,0,0,
714,59.8,35.37,52.56,27.11,78.37,40,13.84,-22.9,39.66,-7.402,40.73,54.7,34.26,32.29,51.3,67.63,0,0,0,0,0,0,0,0,0,0,0,0,0,0,0,0,
715,43.54,8.932,32.64,9.295,47.05,13.78,2.018,-35.08,23.97,-14.22,-0.4919,19.45,9.556,5.889,17.15,35.04,0,0,0,0,0,0,0,0,0,0,0,0,0,0,0,0,
716,10.64,-6.341,20.38,-7.729,45.4,2.419,-3.477,-34.79,29.54,-10.68,17.33,20.1,4.225,-7.496,-11.27,2.421,0,0,0,0,0,0,0,0,0,0,0,0,0,0,0,0,
717,5.421,9.088,37.08,5.13,67.6,20.03,14.47,-13.86,46.68,4.817,55.24,57.79,35.95,22.96,6.444,8.885,0,0,0,0,0,0,0,0,0,0,0,0,0,0,0,0,
718,34.84,39.02,59.23,33.37,83.74,37,29.72,2.16,51.6,10.85,41.21,51.89,39.03,33.86,36.68,31.44,0,0,0,0,0,0,0,0,0,0,0,0,0,0,0,0,
719,28.9,16.64,25.23,-2.366,45.81,12.92,1.191,-35.3,15.86,-15.92,-2.497,-2.292,-10.86,-4.772,17.55,7.842,0,0,0,0,0,0,0,0,0,0,0,0,0,0,0,0,
720,-1.692,-19.3,-6.295,-31.08,17.57,-0.0976,-14.13,-54.54,6.506,-17.57,19.52,8.193,-5.262,1.046,-18.29,-25.56,0,0,0,0,0,0,0,0,0,0,0,0,0,0,0,0,
721,28.11,16.53,34.93,23.61,64.88,33.24,21.83,-7.508,50.98,19.12,78.82,69.19,52.14,44.69,-7.513,-0.3956,0,0,0,0,0,0,0,0,0,0,0,0,0,0,0,0,
722,69.39,53.48,65.8,53.12,95.99,49.58,39.38,12.7,62.94,26,76.84,71.91,57.83,42.54,28.6,47.22,0,0,0,0,0,0,0,0,0,0,0,0,0,0,0,0,
723,48.17,39.05,54.75,31.73,79.64,40.06,27.98,-3.328,55.13,16.83,50.93,47.56,41.18,28.92,46.84,59.94,0,0,0,0,0,0,0,0,0,0,0,0,0,0,0,0,
724,29.64,32.22,53.93,20.47,73.05,35.13,30.03,-0.4658,63.96,17.51,43.61,42.16,37.34,28.87,36.1,41.21,0,0,0,0,0,0,0,0,0,0,0,0,0,0,0,0,
725,38.76,22.6,38.34,-3.268,55.98,20.81,23.58,-11.38,37.7,-0.8493,21.9,23.22,18.11,10.74,0.7412,16.19,0,0,0,0,0,0,0,0,0,0,0,0,0,0,0,0,
726,25.47,4.494,25.89,-1.337,44.88,18.78,5.606,-26.82,16.89,-7.794,6.92,16.79,17.4,3.572,-21.13,9.45,0,0,0,0,0,0,0,0,0,0,0,0,0,0,0,0,
727,22.8,22.29,56.66,47.03,66.42,38.47,7.316,-9.429,37.81,7.668,7.636,33.51,32.35,11.99,-9.005,18.9,0,0,0,0,0,0,0,0,0,0,0,0,0,0,0,0,
728,42.38,29.37,55.79,42.17,54.77,30.27,13.99,-4.813,26.87,-2.182,1.922,22.18,15.23,2.224,-1.984,15.96,0,0,0,0,0,0,0,0,0,0,0,0,0,0,0,0,
729,21.73,2.727,23.4,8.07,30.38,11.94,17.32,-13.9,15.55,-6.072,20.99,10.28,8.32,5.019,-6.957,5.05,0,0,0,0,0,0,0,0,0,0,0,0,0,0,0,0,
730,1.555,10.96,44.36,29.63,63.92,31.57,34.05,3.684,56.2,22.7,54.36,36.2,35.72,32.01,7.505,12.88,0,0,0,0,0,0,0,0,0,0,0,0,0,0,0,0,
731,40.17,39.49,75.45,51.65,99.67,55.53,47.7,15.57,73.47,31.61,64.11,56.4,45.77,38.61,29.3,32.59,0,0,0,0,0,0,0,0,0,0,0,0,0,0,0,0,
732,64.23,35.91,67.91,46.64,91.66,54,43.68,9.357,60.36,23.07,77.59,56.65,39.47,31.35,38.04,41.76,0,0,0,0,0,0,0,0,0,0,0,0,0,0,0,0,
733,49.72,30.13,65.26,50.35,79.59,51.31,38.76,13.21,64.46,24.9,83.91,56.47,41.35,37.55,38.63,38.77,0,0,0,0,0,0,0,0,0,0,0,0,0,0,0,0,
734,51,32.02,57.47,33.69,70.02,44.23,29.14,4.173,46.16,10.2,44.08,36.04,26.58,32.07,21.1,26.78,0,0,0,0,0,0,0,0,0,0,0,0,0,0,0,0,
735,30.63,7.724,21.28,-5.58,44.04,12.54,-0.1722,-28.54,3.495,-15.39,3.779,-0.2887,-6.33,3.464,-18.93,-2.323,0,0,0,0,0,0,0,0,0,0,0,0,0,0,0,0,
736,-17.18,-20.14,2.423,-14.91,19.81,-12.91,-22.37,-40.17,-7.726,-17.03,-0.51,-11.42,-18.46,-14.34,-53.56,-41.22,0,0,0,0,0,0,0,0,0,0,0,0,0,0,0,0,
737,-11.95,-15.99,16.27,4.854,27.31,-0.4985,-11.36,-20.26,10.78,-3.858,5.206,0.3325,-7.715,-11.96,-60.82,-58.34,0,0,0,0,0,0,0,0,0,0,0,0,0,0,0,0,
738,18.16,-0.1263,35.37,22.56,62.17,27.07,12.42,-1.785,41.42,11.41,30.4,19.53,8.43,1.706,-37.63,-35.56,0,0,0,0,0,0,0,0,0,0,0,0,0,0,0,0,
739,26.68,14.46,55.45,32.13,92.12,48.01,31.42,8.105,73.49,28.23,80.35,51.24,36.28,29.53,10.12,14.49,0,0,0,0,0,0,0,0,0,0,0,0,0,0,0,0,
740,54.74,33.66,65.23,35.54,100.2,56.98,42.39,17.62,73.59,27.7,95.71,66.39,53.87,39.7,52.79,56.5,0,0,0,0,0,0,0,0,0,0,0,0,0,0,0,0,
741,68.82,35.33,51.86,33.6,91.33,44.58,34.2,15.37,52.17,12.78,70.96,48.63,37.12,12.69,60.35,55.99,0,0,0,0,0,0,0,0,0,0,0,0,0,0,0,0,
742,35.03,22.07,45.88,30.93,79.08,30.91,23.12,6.32,52.58,12.08,56.67,35.2,25.93,4.077,41.73,25.25,0,0,0,0,0,0,0,0,0,0,0,0,0,0,0,0,
743,24.59,26.04,61.37,36.66,76.01,35.8,32.06,15.76,56.03,18.33,33.61,26.14,36.36,32.56,15.17,6.3,0,0,0,0,0,0,0,0,0,0,0,0,0,0,0,0,
744,36.33,34.02,66.92,51.49,80,38.91,40.46,30.54,36.26,11.84,-1.919,10.02,34.34,39.56,-11.55,6.757,0,0,0,0,0,0,0,0,0,0,0,0,0,0,0,0,
745,22.35,26.18,61.21,56.79,88.5,34.98,33.68,23.1,23.79,3.761,11.4,18.39,22.85,9.35,-18.09,8.623,0,0,0,0,0,0,0,0,0,0,0,0,0,0,0,0,
746,16.86,17.92,68.42,49.93,101,38.55,32.7,16.2,26.35,2.325,41.95,33.64,15.49,-7.026,-2.795,1.865,0,0,0,0,0,0,0,0,0,0,0,0,0,0,0,0,
747,29.51,15.68,81.92,59.27,100.6,43.3,44.31,37.47,19.35,4.631,18.11,13.47,8.124,13.46,0.0252,-15.19,0,0,0,0,0,0,0,0,0,0,0,0,0,0,0,0,
748,26.97,16.72,95.23,88.56,95.01,45.16,57.88,66.09,15.94,14.4,-14.47,-8.68,9.023,25.15,-16.05,-26.73,0,0,0,0,0,0,0,0,0,0,0,0,0,0,0,0,
749,24.01,26.11,132.9,118.7,129.4,64.4,82.73,89.93,40.97,31.47,11.38,15.65,25.96,13.96,-14.99,-9.118,0,0,0,0,0,0,0,0,0,0,0,0,0,0,0,0,
750,54.81,48.02,198.3,155.7,191.8,110.5,122.3,124.2,77.66,49.9,67.78,66.36,53.28,28.63,16.23,30.05,0,0,0,0,0,0,0,0,0,0,0,0,0,0,0,0,
751,101.7,69.77,242.1,193.4,211.4,141.5,141.8,148.5,86.25,57.23,87,79.12,62.79,47.65,42.39,51.85,0,0,0,0,0,0,0,0,0,0,0,0,0,0,0,0,
752,99.3,66.46,244.2,213.6,192.3,126.5,134.9,148.2,68.18,51.66,61.55,44.68,47.41,40.38,35.86,41.4,0,0,0,0,0,0,0,0,0,0,0,0,0,0,0,0,
753,54.88,57.54,250.7,236,193.9,113.9,140.7,162.7,64,53.45,39.22,27.41,52.08,61.81,19.3,31.24,0,0,0,0,0,0,0,0,0,0,0,0,0,0,0,0,
754,52.9,72.85,269.5,248.6,204,128.9,151.7,183.7,68.32,57.51,35.78,42.06,65.87,79,19.13,38.54,0,0,0,0,0,0,0,0,0,0,0,0,0,0,0,0,
755,81.38,77.82,263.2,219,194,130.6,145.1,167.8,59.61,49.34,49.86,54.23,51,35.46,32.3,44.92,0,0,0,0,0,0,0,0,0,0,0,0,0,0,0,0,
756,79.75,64.5,246.6,206.2,186.9,126.2,150.7,154.4,66.13,51.09,80.57,64.55,51.91,22.77,55.47,53.58,0,0,0,0,0,0,0,0,0,0,0,0,0,0,0,0,
757,73.14,70.2,242.6,236.2,177.7,135.6,161.7,168,79.37,59.39,80.63,57.91,62.63,49.28,67.67,62.08,0,0,0,0,0,0,0,0,0,0,0,0,0,0,0,0,
758,69.54,65.92,225,217.8,147.2,122,137.5,154.9,58.32,46.43,43.29,20.37,26.45,23.72,31.54,35.71,0,0,0,0,0,0,0,0,0,0,0,0,0,0,0,0,
759,46.56,33.12,186,159.7,118.2,88.14,109,127,34.5,33.65,31.36,2.099,-1.285,-0.209,-25.97,-8.204,0,0,0,0,0,0,0,0,0,0,0,0,0,0,0,0,
760,38.91,24.92,159,162.5,109.3,79.58,110.1,128.3,42.34,39.35,46.56,21.41,16.47,16.69,-38.42,-16.59,0,0,0,0,0,0,0,0,0,0,0,0,0,0,0,0,
761,53.37,37.91,156.6,190,112.4,85.94,106.6,125.8,53.4,39.7,49.03,31.48,19.83,10.54,-11.3,1.511,0,0,0,0,0,0,0,0,0,0,0,0,0,0,0,0,
762,48.94,30.88,147,161.1,99.94,75.04,86.93,104.1,45.54,30.24,39.41,20.61,16.28,12.69,2.608,15.92,0,0,0,0,0,0,0,0,0,0,0,0,0,0,0,0,
763,35.98,27.15,120.1,121.5,65.76,64.77,81.36,94.55,26.84,26.08,31.42,18.31,36.68,49.78,-3.263,26.78,0,0,0,0,0,0,0,0,0,0,0,0,0,0,0,0,
764,39.34,40.49,110.1,117.8,56.86,70.6,81.83,88.7,16.12,26.15,24.13,19.57,35.96,45.92,-8.537,22.86,0,0,0,0,0,0,0,0,0,0,0,0,0,0,0,0,
765,30.78,31.9,106.6,105,67.61,56.57,61.76,68.66,18.14,21.64,5.365,-2.453,5.363,4.82,-18.6,-4.314,0,0,0,0,0,0,0,0,0,0,0,0,0,0,0,0,
766,-1.488,4.389,79.81,74.06,47.09,27.32,46.33,54.79,17.86,17.14,0.5826,-13.69,-1.123,-3.104,-32.44,-22.29,0,0,0,0,0,0,0,0,0,0,0,0,0,0,0,0,
767,0.6198,8.148,74.29,82.2,39.9,44.17,61.1,67.96,26.54,27.61,53.76,28.41,25.8,19.24,-19.81,-3.562,0,0,0,0,0,0,0,0,0,0,0,0,0,0,0,0,
768,52.94,40.22,102.2,114.6,71.8,79.88,72.79,88.31,45.81,40.5,101.1,63.07,46.03,37.92,19.2,32.06,0,0,0,0,0,0,0,0,0,0,0,0,0,0,0,0,
769,68.74,47.39,93.96,98.13,63.15,60.78,59.93,73.9,32.95,28.79,58.94,32.07,36.85,36.94,35.58,44.26,0,0,0,0,0,0,0,0,0,0,0,0,0,0,0,0,
770,22.79,25.52,57.2,59.1,23.93,25.82,50.28,39.78,9.273,14.44,6.127,-3.698,15.39,14.69,10.06,17.76,0,0,0,0,0,0,0,0,0,0,0,0,0,0,0,0,
771,-1.218,18.5,57.85,64.41,34,33.94,54.25,37.6,30.17,24.61,29.23,5.53,9.746,-1.518,-17.06,-19.5,0,0,0,0,0,0,0,0,0,0,0,0,0,0,0,0,
772,14.68,28.86,70.38,75.57,53.5,50.21,50.28,44.61,43.25,28.35,49.37,16.06,17.14,8.441,-21.37,-31.99,0,0,0,0,0,0,0,0,0,0,0,0,0,0,0,0,
773,25.13,28.13,52.43,55.49,31.39,44.66,39.1,26.96,13.55,16.36,22.78,11.04,23.68,34.43,-17.04,-17.88,0,0,0,0,0,0,0,0,0,0,0,0,0,0,0,0,
774,38.34,27.34,46.74,51.79,28.08,47.16,45.42,27.06,21.76,26.76,39.48,28.16,35.28,54.73,-2.394,6.289,0,0,0,0,0,0,0,0,0,0,0,0,0,0,0,0,
775,56.93,39.06,69.27,62.52,60.89,65.93,57.53,45.64,61.24,40.6,90,47.76,34.67,35.86,19.72,19.15,0,0,0,0,0,0,0,0,0,0,0,0,0,0,0,0,
776,44.52,33.42,62.75,48.42,59.09,61.77,40.18,29.87,43.33,16.89,76.23,24.98,4.721,-9.638,17.84,1.273,0,0,0,0,0,0,0,0,0,0,0,0,0,0,0,0,
777,13.83,9.999,32.41,36.92,28.83,33,14.78,4.771,9.166,-7.055,38.22,1.53,-10.53,-20.18,-0.7109,-25.09,0,0,0,0,0,0,0,0,0,0,0,0,0,0,0,0,
778,12.39,6.807,34.46,35.7,29.84,29.7,22.46,12.11,25.26,2.781,54.33,19.62,6.7,-3.425,-1.727,-25.91,0,0,0,0,0,0,0,0,0,0,0,0,0,0,0,0,
779,35.05,21.05,51.85,24.69,44.47,52.35,42,23.82,48.54,16.51,82.34,35.5,17,2.281,7.017,-17.01,0,0,0,0,0,0,0,0,0,0,0,0,0,0,0,0,
780,39.49,28.1,48.61,35.76,39.43,57.2,40.82,18.83,46.72,14.93,65.41,25.68,17.31,8.396,12.4,-16.86,0,0,0,0,0,0,0,0,0,0,0,0,0,0,0,0,
781,20.92,24.36,32.37,50.95,18.94,39.46,29.46,10.89,23.65,2.554,23.47,14.53,15.66,10.56,14.25,-19.23,0,0,0,0,0,0,0,0,0,0,0,0,0,0,0,0,
782,8.968,15.56,12.15,20,-4.331,21.78,25.63,12.59,-9.415,-5.57,13.69,4.367,9.833,16.66,-3.197,-31.96,0,0,0,0,0,0,0,0,0,0,0,0,0,0,0,0,
783,13.88,18.17,9.09,2.978,1.629,23.78,27.21,20.61,-6.609,8.39,37.48,-4.911,14.14,38.03,-32.03,-49.52,0,0,0,0,0,0,0,0,0,0,0,0,0,0,0,0,
784,16.08,22.18,21.94,25.84,19.39,32.77,18.67,9.034,18.76,15.6,38.13,-9.921,5.962,12.7,-42.32,-51.21,0,0,0,0,0,0,0,0,0,0,0,0,0,0,0,0,
785,-0.1133,-2.719,4.615,7.223,-3.593,15.4,-2.079,-16.56,10.8,-4.149,24.85,-13.1,-18.15,-36.15,-33.88,-44.02,0,0,0,0,0,0,0,0,0,0,0,0,0,0,0,0,
786,-9.015,-18.92,-18.37,-28.33,-18.64,3.021,-11.68,-15.21,1.713,-9.406,33.3,1.344,-3.897,-12.62,-16.82,-30.92,0,0,0,0,0,0,0,0,0,0,0,0,0,0,0,0,
787,12.58,6.732,-0.6901,-5.922,4.958,24.16,-1.511,0.4517,13.09,2.057,36.16,25.13,21.37,18.75,2.579,-9.644,0,0,0,0,0,0,0,0,0,0,0,0,0,0,0,0,
788,24.9,19.78,7.696,17.62,0.7746,28.44,12.14,-1.015,6.197,-0.5942,32,24.87,7.985,-4.993,4.998,-6.136,0,0,0,0,0,0,0,0,0,0,0,0,0,0,0,0,
789,11.37,9.086,-8.002,-0.3475,-9.145,19.1,23.28,-2.223,0.3647,0.9412,32.37,11.94,3.323,-7.934,-16.15,-25.68,0,0,0,0,0,0,0,0,0,0,0,0,0,0,0,0,
790,11.33,15.44,-3.764,-10.28,7.764,30.14,25.53,1.129,5.749,3.336,11.75,5.183,10.46,-1.862,-41.43,-42.88,0,0,0,0,0,0,0,0,0,0,0,0,0,0,0,0,
791,12.18,14.18,-5.921,-9.633,-12.89,19.67,9.67,-3.828,-10.2,-16,-6.814,-5.451,-13.92,-36.06,-49.21,-51.55,0,0,0,0,0,0,0,0,0,0,0,0,0,0,0,0,
792,-4.681,-6.37,-20.53,-13.11,-35.35,-2.06,-0.4676,-4.271,-8.129,-17.33,14.06,-8.573,-27.17,-38.98,-32.67,-49.37,0,0,0,0,0,0,0,0,0,0,0,0,0,0,0,0,
793,-3.801,-7.209,-11.78,-6.952,-6.001,8.525,2.888,-9.283,22.16,4.768,42.35,1.885,-9.879,1.106,-8.278,-31.19,0,0,0,0,0,0,0,0,0,0,0,0,0,0,0,0,
794,-0.1361,-6.717,-20.98,-22.91,-14.79,-2.474,-18.42,-34.26,6.943,-6.251,35.59,-3.724,-14.51,-2.067,3.243,-16.91,0,0,0,0,0,0,0,0,0,0,0,0,0,0,0,0,
795,-24.76,-25.81,-49.74,-58.59,-53.75,-32.16,-40.25,-40.44,-22.31,-26.59,13.88,-15.22,-22.68,-31.01,6.641,-19.64,0,0,0,0,0,0,0,0,0,0,0,0,0,0,0,0,
796,-20.52,-15.27,-25.42,-41.56,-23.54,0.1451,-5.441,-8.831,2.392,-7.347,26.49,4.912,8.759,-13.41,12.53,-20.37,0,0,0,0,0,0,0,0,0,0,0,0,0,0,0,0,
797,35.17,26.38,10.57,5.851,9.561,42.96,32.84,11.99,20.47,9.327,43.19,20.3,31.69,13.45,7.535,-11.11,0,0,0,0,0,0,0,0,0,0,0,0,0,0,0,0,
798,47.54,33.46,-10.81,10.1,-18.16,21.94,18.12,1.411,5.27,-0.2092,14.64,-8.775,11.43,-0.1044,-18.72,-11.76,0,0,0,0,0,0,0,0,0,0,0,0,0,0,0,0,
799,-3.483,9.471,-33.76,-1.955,-31.45,0.9906,1.145,-8.043,5.25,-2.238,3.319,-24.66,-6.838,-10.07,-42.96,-28.3,0,0,0,0,0,0,0,0,0,0,0,0,0,0,0,0,
800,-9.335,2.064,-30.55,-8.306,-26.4,7.629,0.7728,-10.51,-2.64,-2.485,30.26,-4.531,-10.62,-2.103,-41.12,-41.02,0,0,0,0,0,0,0,0,0,0,0,0,0,0,0,0,
801,18.36,-4.659,-50.11,-41.4,-51.22,-15.05,-17.43,-25.34,-25.64,-13.38,15.85,-15.57,-23.83,-10.49,-25.2,-40.1,0,0,0,0,0,0,0,0,0,0,0,0,0,0,0,0,
802,-24.66,-26.62,-75.81,-70.18,-67.79,-47.52,-40.56,-41.69,-27.77,-21.14,-19.21,-48.21,-27.24,-10.08,-18.41,-32.85,0,0,0,0,0,0,0,0,0,0,0,0,0,0,0,0,
803,-74.68,-29.07,-68.69,-56.35,-56.48,-43.64,-45.88,-37.95,-29.86,-23.2,-13.2,-35.91,-6.368,12.5,-18.58,-20.77,0,0,0,0,0,0,0,0,0,0,0,0,0,0,0,0,
804,-45.1,-9.386,-54.59,-40.84,-48.65,-24.33,-32.59,-23.41,-23.01,-11.61,1.273,-3.431,11.87,14.45,-12.25,-4.602,0,0,0,0,0,0,0,0,0,0,0,0,0,0,0,0,
805,-5.318,-1.288,-55.09,-48.06,-41.16,-10.18,-11.02,-19.34,5.223,1.446,-2.722,-4.83,6.86,-5.393,-9.919,-0.9769,0,0,0,0,0,0,0,0,0,0,0,0,0,0,0,0,
806,-0.3069,-11.82,-60.3,-49.58,-39.36,-10.78,-7.804,-24.1,-8.09,-14.05,-11.46,-27.74,-12.1,-17.7,-25.65,-18.99,0,0,0,0,0,0,0,0,0,0,0,0,0,0,0,0,
807,-10.34,-21.74,-63.61,-41.08,-58.24,-29.16,-18.04,-26.29,-35.22,-24.97,-0.8919,-28.56,-11.47,-8.088,-31.89,-31.18,0,0,0,0,0,0,0,0,0,0,0,0,0,0,0,0,
808,-26.44,-15.35,-56.74,-40.3,-59.69,-29.38,-17.89,-26.89,-7.818,-5.788,34.43,-2.933,8.118,16.5,-5.849,-14.67,0,0,0,0,0,0,0,0,0,0,0,0,0,0,0,0,
809,-20.98,-10.24,-47.54,-43.65,-35.43,-15.6,-22.71,-27.52,4.764,-3.213,24.66,-4.068,-2.121,13.56,14.31,1.73,0,0,0,0,0,0,0,0,0,0,0,0,0,0,0,0,
810,-14.78,-28.59,-59.9,-49.81,-38.25,-35.88,-43.41,-35.8,-31.13,-24.26,-43.71,-43.87,-34.62,-20.35,-1.06,-10.85,0,0,0,0,0,0,0,0,0,0,0,0,0,0,0,0,
811,-49.15,-48.11,-88.1,-74.45,-65.85,-70.3,-64.84,-64.01,-47.84,-35.99,-65.84,-65.23,-46.37,-39.5,-27.77,-38.35,0,0,0,0,0,0,0,0,0,0,0,0,0,0,0,0,
812,-76.36,-53.53,-105.9,-102.7,-76.43,-78.32,-74.25,-85.42,-44.3,-39.49,-39.69,-61.41,-49.82,-43.12,-48.86,-63.71,0,0,0,0,0,0,0,0,0,0,0,0,0,0,0,0,
813,-64.72,-53.22,-92.35,-89.88,-60.74,-58.2,-54.04,-64.86,-34.47,-27.92,-30.35,-45.01,-37.63,-28.02,-56.24,-66.93,0,0,0,0,0,0,0,0,0,0,0,0,0,0,0,0,
814,-29.39,-26.89,-44.99,-34.56,-15.92,-5.047,-9.845,-23.87,2.398,4.882,12.1,12.35,16.24,27.09,-24.11,-19.97,0,0,0,0,0,0,0,0,0,0,0,0,0,0,0,0,
815,29.4,19.68,-4.175,6.269,27.88,40.93,15.7,-1.916,33.69,23.95,73.87,62.12,52.47,61.03,35.84,46.68,0,0,0,0,0,0,0,0,0,0,0,0,0,0,0,0,
816,50.46,28.21,-9.604,-9.439,16.08,18.56,1.395,-13.89,24.69,9.127,44.06,31.05,23.32,24.35,65.15,60,0,0,0,0,0,0,0,0,0,0,0,0,0,0,0,0,
817,-2.905,-5.08,-42.94,-51.23,-26.18,-26.38,-26.81,-42.75,-3.031,-16.97,-24.19,-18.95,-11.32,-11.05,42.24,13.61,0,0,0,0,0,0,0,0,0,0,0,0,0,0,0,0,
818,-35.07,-22.3,-61.19,-62.8,-38.6,-26.35,-31.9,-47,-21.17,-27.4,-25.72,-16.21,-6.686,-0.4382,9.043,-28.45,0,0,0,0,0,0,0,0,0,0,0,0,0,0,0,0,
819,-14.47,-10.72,-52.67,-47.32,-28.22,-11.92,-17.56,-34.92,-13.24,-18.16,-4.618,2.576,4.105,4.107,3.849,-26.87,0,0,0,0,0,0,0,0,0,0,0,0,0,0,0,0,
820,-8.208,-3.779,-45.93,-37.77,-26.01,-14.85,-15.6,-40.86,8.999,-6.684,2.615,4.954,0.2521,-7.086,13.44,-5.163,0,0,0,0,0,0,0,0,0,0,0,0,0,0,0,0,
821,-13.69,-10.17,-63.13,-36.82,-39.7,-24.64,-26.61,-41.27,4.499,-8.628,-0.7954,-9.672,-11.27,-6.994,2.626,-5.454,0,0,0,0,0,0,0,0,0,0,0,0,0,0,0,0,
822,-28.78,-26.7,-87.23,-51,-67,-48.17,-42.01,-36.31,-30.96,-25.52,-43.67,-44.72,-34.73,-23.23,-34.85,-36.38,0,0,0,0,0,0,0,0,0,0,0,0,0,0,0,0,
823,-63.25,-50.88,-92.84,-76.2,-87.94,-67.09,-56.39,-48.29,-50.09,-37.63,-72.27,-58.45,-46.7,-47.16,-62.08,-61.98,0,0,0,0,0,0,0,0,0,0,0,0,0,0,0,0,
824,-48.69,-46.94,-68.3,-66.75,-75.58,-43.42,-37.98,-31.38,-25.64,-18.86,-32.4,-19,-16.44,-22.51,-39.13,-43.38,0,0,0,0,0,0,0,0,0,0,0,0,0,0,0,0,
825,1.103,-8.954,-33.15,-25.43,-44.03,-10.17,2.714,9.483,7.641,9.92,6.604,21.89,17.7,20.12,13.98,6.496,0,0,0,0,0,0,0,0,0,0,0,0,0,0,0,0,
826,5.399,10.63,-24.54,-8.835,-33.04,-4.374,11.5,11.03,14.1,14.27,27.63,28.65,21.81,31.45,41.03,40.99,0,0,0,0,0,0,0,0,0,0,0,0,0,0,0,0,
827,6.237,9.142,-32.86,-23.54,-41.43,-2.869,-6.909,-2.573,11.25,8.818,49.45,20.69,16.65,24.03,34.29,42.49,0,0,0,0,0,0,0,0,0,0,0,0,0,0,0,0,
828,9.858,6.685,-42.93,-46.25,-54.56,-14.76,-26.65,-11.62,0.7617,-4.531,2.89,-7.157,-6.684,-6.861,16.41,19.07,0,0,0,0,0,0,0,0,0,0,0,0,0,0,0,0,
829,-40.71,-21,-71.4,-65.18,-82.6,-51.69,-43.35,-38.57,-37.81,-36.64,-72.17,-43.28,-42.45,-39.07,-7.996,-17.27,0,0,0,0,0,0,0,0,0,0,0,0,0,0,0,0,
830,-67.97,-48.34,-87.38,-62.4,-100.7,-62.85,-37.88,-43.84,-58.04,-43.99,-57.05,-39.18,-37.57,-26.17,-20.1,-37.71,0,0,0,0,0,0,0,0,0,0,0,0,0,0,0,0,
831,-38.15,-36.33,-70.27,-51.81,-85.96,-48.31,-28.73,-27.18,-32.71,-18.84,-17.09,-19.14,-17.08,-11.52,-9.61,-32.48,0,0,0,0,0,0,0,0,0,0,0,0,0,0,0,0,
832,-36.43,-27.59,-70.27,-58.29,-80.95,-50.28,-45.67,-37.75,-23.51,-13.26,-29.23,-27.42,-25,-18.06,-9.318,-28.36,0,0,0,0,0,0,0,0,0,0,0,0,0,0,0,0,
833,-37.5,-31.57,-78.52,-54.4,-87.85,-43.34,-44.3,-38.73,-33.51,-17.02,-24.28,-22.71,-15.76,-0.7915,-15.17,-18.75,0,0,0,0,0,0,0,0,0,0,0,0,0,0,0,0,
834,-7.883,-11.67,-52.03,-31.4,-66.85,-18.08,-10.67,-9.081,-15.23,-1.806,-0.668,5.818,14.93,15.8,9.318,16.53,0,0,0,0,0,0,0,0,0,0,0,0,0,0,0,0,
835,-2.371,8.082,-25.62,-19.42,-42.79,-9.713,6.481,7.49,6.365,9.578,-8.673,9.524,17.54,11.28,36.43,38.22,0,0,0,0,0,0,0,0,0,0,0,0,0,0,0,0,
836,-3.715,7.082,-23.17,-10.21,-39.47,-8.003,6.958,13.3,1.583,7.476,-19.93,-3.26,4.596,10.66,24.94,18.09,0,0,0,0,0,0,0,0,0,0,0,0,0,0,0,0,
837,3.115,-1.106,-32.41,-6.875,-53.19,-9.079,-3.295,3.404,-21.85,-7.221,-30.98,-15.52,-7.738,-10.84,-8.266,-10.08,0,0,0,0,0,0,0,0,0,0,0,0,0,0,0,0,
838,-20.28,-16.78,-58.88,-33.67,-89.29,-29.29,-29.65,-31.51,-44.7,-24.13,-49.68,-31.33,-18.29,-33.43,-32.12,-20.92,0,0,0,0,0,0,0,0,0,0,0,0,0,0,0,0,
839,-36.6,-19.15,-70.7,-50.78,-94.12,-37.17,-32.02,-35.39,-28.82,-11.37,-35.15,-25.76,-6.822,-9.138,-25.36,-8.842,0,0,0,0,0,0,0,0,0,0,0,0,0,0,0,0,
840,-22.5,-2.927,-38.61,-30.11,-33.09,-18.06,-11.71,-8.445,9.237,9.262,8.002,-5.292,5.938,8.014,9.06,24.93,0,0,0,0,0,0,0,0,0,0,0,0,0,0,0,0,
841,-10.19,-1.211,-5.64,-7.647,15.64,4.077,-3.538,-3.646,22.44,8.223,48.09,10.17,9.52,7.046,35.95,55.15,0,0,0,0,0,0,0,0,0,0,0,0,0,0,0,0,
842,13.98,-0.8738,-2.194,1.043,8.733,18.68,4.202,-10.31,22.89,8.351,61.11,24.96,25.19,32.9,41.2,63.9,0,0,0,0,0,0,0,0,0,0,0,0,0,0,0,0,
843,25.65,2.863,-23.35,-13.26,-22.1,-0.435,-7.977,-28.75,2.067,-5.93,8.271,-0.5661,6.274,19.47,24.97,40.99,0,0,0,0,0,0,0,0,0,0,0,0,0,0,0,0,
844,-21.58,-30.03,-61.81,-49.78,-56.03,-48.6,-49.31,-61.57,-42.09,-41.49,-63.06,-62,-52.84,-50.08,-22.36,-21.29,0,0,0,0,0,0,0,0,0,0,0,0,0,0,0,0,
845,-64.14,-61.2,-72.55,-51.65,-56.27,-53.79,-52.88,-53.19,-35.95,-35.94,-56.85,-65.24,-52.25,-59.06,-60.81,-68.08,0,0,0,0,0,0,0,0,0,0,0,0,0,0,0,0,
846,-39.14,-30.19,-31.5,-9.796,-11.96,-8.379,-23.08,-14,13.19,4.872,-0.2799,-8.976,4.028,-4.491,-37.78,-39.09,0,0,0,0,0,0,0,0,0,0,0,0,0,0,0,0,
847,13.95,11.73,-1.819,7.471,10.25,16.77,-17.74,-5.567,23.56,15.15,25.03,15.9,17.06,15.57,11.06,20.34,0,0,0,0,0,0,0,0,0,0,0,0,0,0,0,0,
848,26.7,5.749,-22.22,-12.7,-14.46,0.9605,-17,-14.49,7.13,0.7136,17.81,-5.59,-5.698,6.252,26.21,40.73,0,0,0,0,0,0,0,0,0,0,0,0,0,0,0,0,
849,-11.94,-14.52,-41.42,-20.61,-29.74,-20.35,-6.113,-18.23,5.419,-3.508,9.483,-25.23,-11.45,7.91,11.81,25.98,0,0,0,0,0,0,0,0,0,0,0,0,0,0,0,0,
850,-39.41,-17.97,-35.99,-19.97,-23.87,-28.97,-15.59,-33.31,-3.199,-6.965,-11.81,-37.57,-21.1,-1.87,-13.24,-1.887,0,0,0,0,0,0,0,0,0,0,0,0,0,0,0,0,
851,-37.35,-26.81,-42.66,-49.15,-36.08,-32.85,-36.55,-48.83,-28.27,-20.19,-42.96,-47.83,-34.95,-13.5,-34.03,-24.5,0,0,0,0,0,0,0,0,0,0,0,0,0,0,0,0,
852,-34.28,-32.67,-46.85,-56,-42.75,-25.85,-32.74,-37.07,-24.21,-16.12,-23.99,-20.8,-8.313,11.79,-15.61,-5.156,0,0,0,0,0,0,0,0,0,0,0,0,0,0,0,0,
853,-12.19,-10.68,-26.3,-1.027,-20.72,-14.05,-14.25,-19.78,7.71,1.947,7.358,2.738,15.23,28.86,22.72,40.38,0,0,0,0,0,0,0,0,0,0,0,0,0,0,0,0,
854,-10.98,-7.234,-37.95,5.633,-35.56,-36.58,-26.42,-38.61,-10.17,-15.67,-43.99,-46.33,-23.08,-4.787,7.433,40.22,0,0,0,0,0,0,0,0,0,0,0,0,0,0,0,0,
855,-59.49,-41.09,-74.09,-49.7,-73.04,-58.63,-49.86,-59.62,-54.62,-42,-80.06,-65.53,-46.18,-23.91,-36.81,2.834,0,0,0,0,0,0,0,0,0,0,0,0,0,0,0,0,
856,-45.11,-39.59,-49.19,-31.31,-36.75,-18.03,-30.34,-35.1,-26.81,-17.49,-12.91,2.071,-8.967,-1.816,-22.69,2.78,0,0,0,0,0,0,0,0,0,0,0,0,0,0,0,0,
857,19.17,-4.54,-3.994,14.48,11.71,14.74,-5.105,-12.72,23.05,8.795,21.65,13.1,2.244,-2.395,19.47,29.18,0,0,0,0,0,0,0,0,0,0,0,0,0,0,0,0,
858,0.9449,-7.022,-16.59,-12.42,-15.22,-14.44,-16.61,-20.22,14.05,-3.847,-17.99,-39.1,-26.09,-26.03,13.34,21.31,0,0,0,0,0,0,0,0,0,0,0,0,0,0,0,0,
