%OpenBCI Raw EXG Data
%Number of channels = 16
%Sample Rate = 125 Hz
%Board = OpenBCI_GUI$BoardCytonSerialDaisy
Sample Index,EXG Channel 0,EXG Channel 1,EXG Channel 2,EXG Channel 3,EXG Channel 4,EXG Channel 5,EXG Channel 6,EXG Channel 7,EXG Channel 8,EXG Channel 9,EXG Channel 10,EXG Channel 11,EXG Channel 12,EXG Channel 13,EXG Channel 14,EXG Channel 15,Accel Channel 0,Accel Channel 1,Accel Channel 2,Other,Other.1,Other.2,Other.3,Other.4,Other.5,Other.6,Analog Channel 0,Analog Channel 1,Analog Channel 2,Timestamp,Other.7,Timestamp (Formatted),Annotations
1,-0.0,0.0,-0.0,0.0,-0.0,-0.0,-0.0,0.0,0.0,-0.0,-0.0,-0.0,-0.0,-0.0,-0.0,-0.0,0,0,0,0,0,0,0,0,0,0,0,0,0,0,0,0,T0
2,-3.281,-3.85,-2.174,-4.698,-2.76,-4.429,-3.742,-2.256,2.507,2.278,-2.265,-8.227,-7.068,-5.745,-8.944,-5.606,0,0,0,0,0,0,0,0,0,0,0,0,0,0,0,0,
3,-4.082,-0.6406,-0.6604,-2.696,-1.25,-2.791,-1.254,-2.477,-1.736,-0.4202,-4.897,-7.172,-8.038,-5.359,-9.695,-4.962,0,0,0,0,0,0,0,0,0,0,0,0,0,0,0,0,
4,-2.54,3.973,1.432,-3.944,0.9429,-1.271,0.2834,-1.618,-1.329,-1.756,-9.239,-7.659,-8.015,-6.723,-8.503,-4.779,0,0,0,0,0,0,0,0,0,0,0,0,0,0,0,0,
5,-3.232,2.799,2.076,-7.185,1.873,-3.703,-1.28,0.6355,2.104,-2.6,-8.476,-9.736,-8.198,-8.89,-6.831,-4.812,0,0,0,0,0,0,0,0,0,0,0,0,0,0,0,0,
6,-7.433,-0.6973,1.307,-3.59,1.305,-5.265,0.5492,0.7485,-0.0667,-4.435,-3.416,-7.273,-7.653,-7.994,-5.84,-4.39,0,0,0,0,0,0,0,0,0,0,0,0,0,0,0,0,
7,-9.843,-2.258,-3.209,-2.225,-3.142,-5.947,1.465,-5.055,-3.083,-4.997,-6.713,-9.282,-11.89,-11.08,-11.99,-11.23,0,0,0,0,0,0,0,0,0,0,0,0,0,0,0,0,
8,-8.384,-4.215,-8.738,-7.002,-8.558,-7.863,-4.192,-9.558,-5.544,-8.687,-15.86,-15.32,-19.16,-16.42,-20.06,-19.79,0,0,0,0,0,0,0,0,0,0,0,0,0,0,0,0,
9,-7.883,-6.668,-10.29,-7.744,-10.69,-8.062,-10.5,-7.101,-9.514,-12.8,-20.79,-13.38,-22.23,-16.74,-22.3,-18.6,0,0,0,0,0,0,0,0,0,0,0,0,0,0,0,0,
10,-9.877,-7.944,-10.4,-6.558,-10.82,-7.907,-12.94,-3.26,-10.68,-11.51,-22.04,-7.581,-20.61,-15.35,-19.21,-11.93,0,0,0,0,0,0,0,0,0,0,0,0,0,0,0,0,
11,-11.39,-9.953,-9.5,-6.397,-8.898,-9.859,-7.962,-1.958,-7.647,-10.16,-17.41,-8.543,-15.45,-14.17,-12.63,-8.809,0,0,0,0,0,0,0,0,0,0,0,0,0,0,0,0,
12,-10.48,-9.487,-4.215,-2.867,-4.054,-7.45,3.16,-0.8574,-4.165,-9.062,-7.482,-13.54,-10.65,-11.19,-8.218,-11.21,0,0,0,0,0,0,0,0,0,0,0,0,0,0,0,0,
13,-4.092,-4.019,1.335,-1.24,0.5971,0.3885,6.59,0.2936,-1.914,-5.342,-1.389,-15.45,-10.16,-9.143,-8.686,-15.2,0,0,0,0,0,0,0,0,0,0,0,0,0,0,0,0,
14,-0.8826,-3.633,0.1847,-3.329,-0.1889,0.2284,2.361,-2.542,-0.3375,-6.289,-0.6611,-16.26,-11.5,-12.13,-11.86,-16.26,0,0,0,0,0,0,0,0,0,0,0,0,0,0,0,0,
15,-11.44,-8.128,-7.446,-4.431,-7.934,-9.654,-1.071,-3.746,-3.456,-12.01,-6.118,-17.51,-15.56,-17.81,-16.92,-15.23,0,0,0,0,0,0,0,0,0,0,0,0,0,0,0,0,
16,-7.043,-1.422,-8.041,-3.585,-8.4,-5.222,-8.164,9.198,-8.525,-9.557,-9.646,-8.891,-16.06,-12.3,-11.68,-10.46,0,0,0,0,0,0,0,0,0,0,0,0,0,0,0,0,
17,32.41,16.56,8.985,3.547,9.438,19.52,-7.987,20.61,1.601,4.517,8.375,6.946,-1.224,5.97,7.875,-0.9544,0,0,0,0,0,0,0,0,0,0,0,0,0,0,0,0,
18,59.38,33.29,25.08,9.112,24.7,31.66,9.401,10.74,19.87,15.74,29.83,9.776,12.07,13.31,17.38,2.776,0,0,0,0,0,0,0,0,0,0,0,0,0,0,0,0,
19,46.63,40.54,24.47,3.781,23.02,22.09,22.48,6.559,19.83,13.87,24.5,2.681,7.495,6.397,10.79,-2.485,0,0,0,0,0,0,0,0,0,0,0,0,0,0,0,0,
20,34.97,34.54,21.87,3.92,20.49,19.48,22.48,20.87,11.36,8.754,12.45,1.127,1.538,4.905,5.923,-7.149,0,0,0,0,0,0,0,0,0,0,0,0,0,0,0,0,
21,39.12,26.93,19.98,8.187,18.36,23.93,13.45,18.84,10.5,8.703,11.25,0.9094,-0.6771,5.589,2.184,-8.476,0,0,0,0,0,0,0,0,0,0,0,0,0,0,0,0,
22,33.87,27.28,9.163,-0.7971,8.098,16.85,-8.645,3.183,5.944,8.009,6.68,2.23,-6.622,1.628,-3.052,-7.231,0,0,0,0,0,0,0,0,0,0,0,0,0,0,0,0,
23,24.27,26.11,0.7904,-6.607,0.9524,8.671,-20.39,4.717,1.083,5.747,2.486,8.803,-8.546,0.9639,-4.696,-5.628,0,0,0,0,0,0,0,0,0,0,0,0,0,0,0,0,
24,28.12,22.75,1.106,-3.575,1.014,9.951,-3.315,12.83,1.554,4.629,4.703,9.925,-7.399,0.0239,-6.289,-8.612,0,0,0,0,0,0,0,0,0,0,0,0,0,0,0,0,
25,30.46,19.51,2.292,-9.755,1.74,11.57,9.909,12.6,-3.544,1.862,1.306,5.273,-10.7,-4.794,-6.84,-11.77,0,0,0,0,0,0,0,0,0,0,0,0,0,0,0,0,
26,20.43,11.66,3.021,-12.98,2.632,9.106,-4.112,10.8,-8.175,-1.815,-6.171,0.9308,-14.77,-7.343,-7.092,-13.76,0,0,0,0,0,0,0,0,0,0,0,0,0,0,0,0,
27,18.78,11.64,1.69,-4.307,1.221,7.27,-19.9,9.698,-6.978,-3.774,-7.844,-4.811,-16.28,-7.766,-12.42,-19.62,0,0,0,0,0,0,0,0,0,0,0,0,0,0,0,0,
28,26.74,22.48,-0.0811,-2.742,-0.2326,8.584,-12.39,8.84,-6.365,-3.653,-6.133,-6.047,-12.67,-6.713,-14.29,-22.67,0,0,0,0,0,0,0,0,0,0,0,0,0,0,0,0,
29,20.66,21.19,-0.9723,-10.2,-0.8062,6.948,-0.1368,4.043,-3.846,-2.285,-7.821,-3.778,-8.671,-5.964,-12.72,-21.59,0,0,0,0,0,0,0,0,0,0,0,0,0,0,0,0,
30,11.08,8.513,-6.802,-13.25,-6.715,2.528,-10.57,-2.37,-6.635,-3.517,-11.73,-5.316,-12.66,-7.309,-16.27,-21.7,0,0,0,0,0,0,0,0,0,0,0,0,0,0,0,0,
31,18.67,8.165,-7.651,-7.82,-7.408,6.839,-27.29,5.509,-15.07,-3.909,-9.956,-2.038,-13.89,-4.616,-14.19,-15.85,0,0,0,0,0,0,0,0,0,0,0,0,0,0,0,0,
32,26.22,18.08,0.1502,-2.014,-0.0251,11.57,-24.4,16.36,-10.81,0.3798,-3.767,3.334,-7.098,-2.431,-4.894,-8.021,0,0,0,0,0,0,0,0,0,0,0,0,0,0,0,0,
33,21.93,18.08,-2.723,-4.972,-3.292,5.589,-8.351,8.204,-3.27,-0.401,-1.384,-0.59,-6.244,-6.637,-2.502,-9.161,0,0,0,0,0,0,0,0,0,0,0,0,0,0,0,0,
34,17.39,10.43,-8.321,-8.419,-8.328,5.383,2.618,0.7469,-7.293,-4.154,-4.015,-2.514,-10.45,-5.475,-3.8,-9.855,0,0,0,0,0,0,0,0,0,0,0,0,0,0,0,0,
35,15.43,11.41,0.108,-6.04,0.0453,12.69,-4.076,11.87,-9.604,1.004,-7.74,1.207,-9.694,0.8845,-3.363,-7.423,0,0,0,0,0,0,0,0,0,0,0,0,0,0,0,0,
36,18.18,18.45,4.966,-4.2,4.523,13.87,-13.84,21.64,-4.762,6.166,-5.064,0.258,-6.665,1.731,-5.098,-10.66,0,0,0,0,0,0,0,0,0,0,0,0,0,0,0,0,
37,22.72,22.63,0.0005,-1.504,-0.3162,15.48,-4.149,15.05,0.2302,4.321,-0.3166,-2.234,-7.603,-0.0201,-7.667,-14.98,0,0,0,0,0,0,0,0,0,0,0,0,0,0,0,0,
38,17.37,22.62,-0.0483,-2.858,-0.676,14.76,4.352,-0.5902,-0.4608,2.062,-7.327,-5.262,-11.06,-2.759,-9.797,-16.34,0,0,0,0,0,0,0,0,0,0,0,0,0,0,0,0,
39,17.03,15.82,4.732,-11.86,3.918,6.478,-0.2417,-4.597,-4.362,-0.1754,-11.74,-7.134,-7.856,-3.537,-9.373,-14.99,0,0,0,0,0,0,0,0,0,0,0,0,0,0,0,0,
40,30.7,10.92,7.205,-10.7,6.139,7.163,-1.083,11.41,0.3332,1.437,-3.909,-0.9142,-2.822,1.807,-5.512,-11.04,0,0,0,0,0,0,0,0,0,0,0,0,0,0,0,0,
41,32.41,17.84,3.322,0.2995,1.628,12.63,-8.826,17.68,1.54,5.864,-7.281,1.474,-8.883,1.842,-5.0,-12.33,0,0,0,0,0,0,0,0,0,0,0,0,0,0,0,0,
42,23.45,24.83,1.534,2.928,0.7023,8.886,-12.69,4.586,-7.999,2.349,-12.85,-5.184,-11.44,-3.98,-5.67,-16.57,0,0,0,0,0,0,0,0,0,0,0,0,0,0,0,0,
43,23.24,23.84,11.72,-1.879,11.7,6.492,5.489,2.558,-3.28,-1.881,-2.551,-6.292,-2.763,-5.034,-3.354,-15.39,0,0,0,0,0,0,0,0,0,0,0,0,0,0,0,0,
44,23.82,19.31,13.07,-9.191,12.39,7.996,-1.853,5.208,3.758,-1.487,-2.018,-3.208,-2.732,-6.374,-3.367,-13.63,0,0,0,0,0,0,0,0,0,0,0,0,0,0,0,0,
45,23.95,13.47,-2.157,-13.23,-2.021,9.779,-28.12,-1.033,-5.398,-3.536,-5.846,-1.319,-4.967,-5.17,-0.9668,-10.29,0,0,0,0,0,0,0,0,0,0,0,0,0,0,0,0,
46,23.71,12.62,-4.944,-7.646,-3.946,15.12,-6.96,5.037,-0.8266,-0.0932,7.772,1.774,0.8655,1.692,4.466,-4.876,0,0,0,0,0,0,0,0,0,0,0,0,0,0,0,0,
47,15.61,15.78,3.57,-6.094,3.018,14.36,19.86,10.76,9.688,5.302,7.158,0.2283,-3.374,-1.379,0.4152,-7.953,0,0,0,0,0,0,0,0,0,0,0,0,0,0,0,0,
48,18.2,16.58,4.952,-11.73,3.812,9.475,6.377,1.963,-1.438,-0.9229,-9.35,-1.915,-10.1,-7.016,-4.793,-11.57,0,0,0,0,0,0,0,0,0,0,0,0,0,0,0,0,
49,32.44,22.82,9.256,-8.86,8.747,13.99,4.753,4.545,-6.357,-3.233,-4.169,3.188,-2.385,0.2582,1.034,-5.473,0,0,0,0,0,0,0,0,0,0,0,0,0,0,0,0,
50,32.05,30.35,14.04,-3.632,12.84,17.61,11.09,9.903,1.603,5.072,9.136,5.643,3.88,5.515,6.104,-1.591,0,0,0,0,0,0,0,0,0,0,0,0,0,0,0,0,
51,25.22,24.81,7.745,-2.946,6.417,16.08,-4.697,5.547,1.355,7.928,9.439,3.165,2.532,2.837,4.18,-3.737,0,0,0,0,0,0,0,0,0,0,0,0,0,0,0,0,
52,23.82,17.57,2.53,-0.4853,2.132,17.03,-6.084,10.78,2.81,6.128,4.169,3.064,-0.7234,1.087,1.677,-5.431,0,0,0,0,0,0,0,0,0,0,0,0,0,0,0,0,
53,19.21,16.03,1.129,-5.747,0.8958,11.79,-0.4523,12.0,2.622,3.422,-3.181,2.793,-7.121,-1.542,1.032,-7.364,0,0,0,0,0,0,0,0,0,0,0,0,0,0,0,0,
54,21.44,11.17,-1.778,-13.47,-2.056,7.527,-10.9,3.874,-4.925,0.2702,-0.2975,1.143,-6.146,-1.641,2.777,-9.14,0,0,0,0,0,0,0,0,0,0,0,0,0,0,0,0,
55,30.7,12.92,0.7746,-6.596,0.2717,16.63,-6.341,8.188,-1.03,3.058,10.41,0.4758,0.6004,1.377,4.492,-9.153,0,0,0,0,0,0,0,0,0,0,0,0,0,0,0,0,
56,27.14,22.01,4.04,-6.748,3.072,18.22,6.67,7.351,4.976,4.845,7.837,2.264,-0.7839,0.2115,6.536,-5.686,0,0,0,0,0,0,0,0,0,0,0,0,0,0,0,0,
57,19.35,18.58,2.653,-17.17,1.932,7.597,8.981,-3.487,1.052,1.556,5.957,5.524,-2.42,-1.5,10.63,-1.241,0,0,0,0,0,0,0,0,0,0,0,0,0,0,0,0,
58,20.53,12.42,2.401,-4.975,1.595,5.043,11.08,0.5733,0.3347,0.36,14.17,2.071,-1.405,-4.386,9.182,-4.856,0,0,0,0,0,0,0,0,0,0,0,0,0,0,0,0,
59,21.98,19.57,0.2963,9.024,-0.5659,6.096,5.358,5.424,-2.661,-3.14,12.02,-4.316,-3.909,-9.335,4.316,-10.1,0,0,0,0,0,0,0,0,0,0,0,0,0,0,0,0,
60,27.49,24.05,1.645,-1.689,1.993,7.121,4.458,1.107,-7.604,-5.472,7.503,-0.1022,-0.5854,-3.994,7.574,-5.783,0,0,0,0,0,0,0,0,0,0,0,0,0,0,0,0,
61,37.5,20.63,13.24,-1.686,13.31,18.41,13.12,6.592,2.325,4.064,15.85,7.913,8.914,7.74,14.01,-0.8766,0,0,0,0,0,0,0,0,0,0,0,0,0,0,0,0,
62,32.02,23.88,16.92,12.37,15.16,26.87,1.793,12.53,15.82,13.19,21.77,8.233,13.31,9.589,14.39,-1.975,0,0,0,0,0,0,0,0,0,0,0,0,0,0,0,0,
63,21.35,29.72,8.955,7.881,7.326,19.54,-3.457,3.113,17.2,9.569,14.29,4.235,8.913,1.784,8.939,-5.87,0,0,0,0,0,0,0,0,0,0,0,0,0,0,0,0,
64,28.62,27.0,6.132,-1.073,5.08,11.36,9.807,-5.831,8.342,0.7091,5.831,1.112,-0.2803,-5.325,3.717,-10.37,0,0,0,0,0,0,0,0,0,0,0,0,0,0,0,0,
65,33.5,22.44,5.59,0.4373,4.061,12.94,2.17,0.3466,-4.048,-2.511,10.84,3.636,-0.0939,-2.189,8.214,-7.513,0,0,0,0,0,0,0,0,0,0,0,0,0,0,0,0,
66,23.21,25.05,4.191,1.063,3.378,16.22,-2.516,9.347,-3.651,3.761,17.65,9.186,8.254,6.284,15.04,-0.9972,0,0,0,0,0,0,0,0,0,0,0,0,0,0,0,0,
67,23.81,29.05,7.165,3.981,7.172,15.58,8.589,6.351,6.747,9.265,8.874,7.103,5.395,4.493,10.01,-5.39,0,0,0,0,0,0,0,0,0,0,0,0,0,0,0,0,
68,36.4,27.57,6.684,6.963,6.343,14.39,0.8229,-0.2954,4.331,4.586,1.867,1.258,-0.8767,-1.925,4.337,-11.73,0,0,0,0,0,0,0,0,0,0,0,0,0,0,0,0,
69,34.55,25.62,3.143,2.35,2.922,13.75,-0.809,-0.017,-1.965,0.5296,9.223,1.247,3.097,0.006,6.673,-7.536,0,0,0,0,0,0,0,0,0,0,0,0,0,0,0,0,
70,19.54,25.14,5.05,-0.3689,4.638,13.39,8.715,2.296,3.406,3.613,12.61,3.393,3.66,2.556,5.261,-3.619,0,0,0,0,0,0,0,0,0,0,0,0,0,0,0,0,
71,16.85,21.24,4.106,0.3823,3.176,15.93,-3.773,3.93,4.825,3.975,9.319,2.772,-2.201,-0.6613,1.871,-6.304,0,0,0,0,0,0,0,0,0,0,0,0,0,0,0,0,
72,29.96,17.98,-3.976,-0.079,-3.692,14.87,-4.377,3.182,-4.623,-0.498,8.897,-1.723,-4.064,-5.678,2.458,-11.22,0,0,0,0,0,0,0,0,0,0,0,0,0,0,0,0,
73,30.33,17.12,-8.853,-1.14,-7.572,3.778,16.25,-1.698,-10.73,-5.373,8.025,-7.865,-5.733,-10.97,-1.899,-18.92,0,0,0,0,0,0,0,0,0,0,0,0,0,0,0,0,
74,13.98,12.81,-6.925,-4.67,-6.718,-1.081,10.89,-0.445,-8.271,-9.285,8.229,-6.936,-7.852,-10.51,-7.255,-23.86,0,0,0,0,0,0,0,0,0,0,0,0,0,0,0,0,
75,15.8,12.57,-0.6008,-0.7525,-1.297,12.11,-6.431,8.68,-3.646,-5.98,9.8,0.5626,-5.617,-1.908,-4.752,-20.55,0,0,0,0,0,0,0,0,0,0,0,0,0,0,0,0,
76,29.29,18.3,4.938,11.53,4.148,21.38,-4.149,10.72,-3.251,2.584,0.9488,1.582,-8.883,0.4178,-7.488,-20.01,0,0,0,0,0,0,0,0,0,0,0,0,0,0,0,0,
77,17.72,15.25,-0.053,9.155,-0.7264,9.105,-2.41,3.599,-8.451,0.4981,-12.7,-4.72,-20.23,-7.932,-16.75,-24.49,0,0,0,0,0,0,0,0,0,0,0,0,0,0,0,0,
78,5.099,12.45,-8.775,0.2521,-8.585,-2.161,-12.98,2.119,-13.12,-8.283,-9.636,-5.343,-20.17,-9.58,-13.44,-19.64,0,0,0,0,0,0,0,0,0,0,0,0,0,0,0,0,
79,22.32,22.09,-3.928,7.844,-3.576,7.636,-14.76,9.755,-9.884,-5.041,2.552,0.1904,-8.799,-2.17,-4.972,-9.948,0,0,0,0,0,0,0,0,0,0,0,0,0,0,0,0,
80,36.16,23.82,4.59,11.76,3.789,15.62,-0.55,8.925,-4.777,2.193,2.069,0.4779,-8.766,-1.644,-7.864,-9.489,0,0,0,0,0,0,0,0,0,0,0,0,0,0,0,0,
81,28.0,15.75,1.427,1.017,0.7298,7.425,4.946,-4.768,-7.148,-0.4981,0.0101,-2.158,-13.78,-5.697,-9.008,-10.22,0,0,0,0,0,0,0,0,0,0,0,0,0,0,0,0,
82,20.26,15.91,-1.732,0.4183,-1.384,7.526,-8.675,-7.023,-7.685,-3.132,7.09,2.161,-7.743,-3.848,-1.417,-4.8,0,0,0,0,0,0,0,0,0,0,0,0,0,0,0,0,
83,16.77,16.74,-0.7321,9.04,-0.6613,17.4,-15.93,5.274,-2.556,-0.9285,10.52,8.255,-2.972,-1.377,1.935,-1.929,0,0,0,0,0,0,0,0,0,0,0,0,0,0,0,0,
84,14.66,15.68,-2.215,7.177,-2.582,14.35,-8.283,9.341,-2.076,0.0915,12.78,7.107,-3.379,-1.107,0.469,-4.254,0,0,0,0,0,0,0,0,0,0,0,0,0,0,0,0,
85,17.81,19.14,0.9208,-0.9082,0.7747,8.028,-2.721,9.209,0.5528,2.144,12.57,1.635,-1.506,0.532,-1.824,-8.075,0,0,0,0,0,0,0,0,0,0,0,0,0,0,0,0,
86,20.7,16.83,2.502,-1.359,2.217,10.31,-1.01,10.18,5.382,3.492,-1.42,-3.168,-5.207,-0.3578,-5.352,-11.25,0,0,0,0,0,0,0,0,0,0,0,0,0,0,0,0,
87,21.85,12.56,-6.714,6.007,-6.765,6.268,0.9741,-2.76,-3.222,-0.1913,-6.623,-6.677,-10.46,-4.859,-4.799,-11.9,0,0,0,0,0,0,0,0,0,0,0,0,0,0,0,0,
88,22.23,16.68,-9.413,8.24,-8.867,-1.964,-0.0042,-10.89,-12.25,-3.788,5.657,-8.428,-7.64,-7.184,-1.76,-13.33,0,0,0,0,0,0,0,0,0,0,0,0,0,0,0,0,
89,22.79,20.45,-1.766,2.003,-1.681,2.204,-3.917,2.756,-7.732,-4.469,7.654,-9.586,-6.212,-5.989,-2.657,-17.88,0,0,0,0,0,0,0,0,0,0,0,0,0,0,0,0,
90,25.98,21.62,1.033,2.309,0.6024,10.98,-8.76,5.267,-3.425,-3.868,4.977,-11.65,-6.1,-4.683,-3.607,-20.88,0,0,0,0,0,0,0,0,0,0,0,0,0,0,0,0,
91,24.54,23.29,1.672,9.641,1.589,9.455,-8.232,-6.345,-2.571,-2.781,11.09,-11.54,-1.881,-5.811,-1.813,-19.98,0,0,0,0,0,0,0,0,0,0,0,0,0,0,0,0,
92,20.05,20.02,1.654,6.805,1.47,1.841,-1.006,-5.094,-3.015,-4.203,10.08,-9.552,-3.531,-9.21,-0.8791,-18.07,0,0,0,0,0,0,0,0,0,0,0,0,0,0,0,0,
93,14.76,9.001,-7.135,-3.132,-7.385,-2.018,1.379,-3.197,-9.207,-8.364,7.237,-10.62,-8.637,-11.69,-0.8565,-17.79,0,0,0,0,0,0,0,0,0,0,0,0,0,0,0,0,
94,5.604,0.3362,-13.06,-2.105,-12.25,0.9325,0.2989,-2.466,-10.66,-9.039,11.97,-10.34,-5.834,-7.558,0.1779,-17.09,0,0,0,0,0,0,0,0,0,0,0,0,0,0,0,0,
95,17.31,13.14,-2.826,6.13,-1.869,8.963,4.219,8.741,-2.03,-2.108,8.377,-5.803,-2.234,1.377,0.1927,-13.4,0,0,0,0,0,0,0,0,0,0,0,0,0,0,0,0,
96,42.1,32.86,6.693,5.331,6.191,13.33,2.396,6.44,2.128,4.668,1.29,-5.82,-4.341,2.148,-3.028,-11.39,0,0,0,0,0,0,0,0,0,0,0,0,0,0,0,0,
97,31.95,24.63,0.7963,1.376,0.0808,7.092,-11.04,-7.661,-3.158,1.165,5.695,-8.148,-4.7,-5.658,-3.921,-12.37,0,0,0,0,0,0,0,0,0,0,0,0,0,0,0,0,
98,9.224,8.771,-4.005,4.221,-3.711,-1.224,-16.4,-8.516,-6.723,-5.792,10.87,-4.649,-0.0377,-8.063,3.128,-9.977,0,0,0,0,0,0,0,0,0,0,0,0,0,0,0,0,
99,10.96,12.37,0.2403,2.206,0.594,-0.8693,2.889,-8.081,-2.634,-5.761,12.45,-1.227,4.884,-4.938,10.25,-6.334,0,0,0,0,0,0,0,0,0,0,0,0,0,0,0,0,
100,14.09,12.72,0.267,-3.734,0.5804,5.251,19.64,-6.396,2.32,-2.594,17.77,0.5732,7.054,-2.175,9.306,-6.434,0,0,0,0,0,0,0,0,0,0,0,0,0,0,0,0,
101,15.57,9.852,-0.3296,2.492,0.0474,9.158,-5.657,8.419,3.625,1.327,19.52,5.22,8.688,2.843,6.732,-4.878,0,0,0,0,0,0,0,0,0,0,0,0,0,0,0,0,
102,25.78,19.6,3.972,9.229,3.166,8.089,-32.26,13.67,5.289,6.381,14.85,6.285,10.28,4.54,6.883,-0.742,0,0,0,0,0,0,0,0,0,0,0,0,0,0,0,0,
103,31.37,20.59,0.9597,1.342,-0.4322,4.309,-1.413,1.546,4.061,4.33,14.26,2.314,6.412,-2.74,4.485,-1.02,0,0,0,0,0,0,0,0,0,0,0,0,0,0,0,0,
104,26.29,8.75,-6.188,-7.085,-6.222,0.6374,29.33,-7.396,-3.41,-3.973,17.32,2.315,0.4739,-7.491,2.718,-2.818,0,0,0,0,0,0,0,0,0,0,0,0,0,0,0,0,
105,9.674,6.269,-3.26,-3.936,-2.518,-1.227,5.776,-6.596,-4.647,-5.338,15.5,5.013,2.571,-3.741,7.303,-1.088,0,0,0,0,0,0,0,0,0,0,0,0,0,0,0,0,
106,0.9593,11.92,4.699,3.741,4.694,-0.3858,-9.876,-2.079,2.679,-0.1292,10.33,3.216,6.814,-0.7286,11.55,0.0457,0,0,0,0,0,0,0,0,0,0,0,0,0,0,0,0,
107,12.41,13.57,3.996,2.442,3.606,0.0221,5.506,-1.153,3.423,1.952,11.66,2.426,7.079,0.537,13.68,2.595,0,0,0,0,0,0,0,0,0,0,0,0,0,0,0,0,
108,9.207,5.207,-7.064,-8.714,-6.912,-1.562,2.89,0.418,0.4239,3.03,18.99,8.409,9.438,3.168,16.43,8.825,0,0,0,0,0,0,0,0,0,0,0,0,0,0,0,0,
109,-1.234,-5.587,-13.61,-10.31,-13.07,-0.1578,-9.405,9.688,1.227,4.151,18.9,10.78,6.867,-0.1098,12.31,8.268,0,0,0,0,0,0,0,0,0,0,0,0,0,0,0,0,
110,19.48,1.206,-6.441,0.3926,-6.317,3.633,-2.003,12.07,-5.853,-1.273,14.9,5.994,-2.325,-6.642,7.169,3.062,0,0,0,0,0,0,0,0,0,0,0,0,0,0,0,0,
111,38.37,16.68,-0.0727,1.984,-0.4285,3.349,11.91,2.309,-13.45,-5.546,19.39,5.337,1.196,-3.912,14.02,5.325,0,0,0,0,0,0,0,0,0,0,0,0,0,0,0,0,
112,24.51,17.32,-1.243,-4.413,-1.192,1.024,11.81,-3.034,-2.217,0.3319,21.17,6.199,12.59,2.272,19.08,6.898,0,0,0,0,0,0,0,0,0,0,0,0,0,0,0,0,
113,4.526,13.51,0.874,-4.47,1.502,4.143,-7.919,-0.5958,11.01,5.382,17.62,2.313,13.44,3.148,13.09,1.985,0,0,0,0,0,0,0,0,0,0,0,0,0,0,0,0,
114,0.0536,16.61,3.302,-3.613,3.499,10.85,-20.05,2.464,10.82,4.966,21.51,1.284,11.02,4.127,9.812,0.631,0,0,0,0,0,0,0,0,0,0,0,0,0,0,0,0,
115,16.24,17.48,-0.1354,-2.547,-0.7362,10.95,-1.473,1.923,8.293,5.551,17.45,1.946,7.141,3.066,8.319,-0.0442,0,0,0,0,0,0,0,0,0,0,0,0,0,0,0,0,
116,34.67,16.53,-2.998,5.745,-3.529,4.141,13.39,1.315,-0.1991,2.413,-0.2893,0.3039,-4.248,-4.426,2.303,-4.767,0,0,0,0,0,0,0,0,0,0,0,0,0,0,0,0,
117,27.9,14.92,-5.068,7.471,-4.881,-0.428,2.101,8.169,-13.9,-5.498,-1.475,1.672,-8.226,-10.25,0.6846,-5.741,0,0,0,0,0,0,0,0,0,0,0,0,0,0,0,0,
118,12.31,10.39,-6.537,-4.501,-5.958,-0.6515,-9.775,12.31,-11.71,-8.984,13.84,1.962,0.2355,-9.319,4.266,-4.095,0,0,0,0,0,0,0,0,0,0,0,0,0,0,0,0,
119,12.17,9.263,-1.168,-7.691,-0.9572,4.315,-9.767,8.533,2.143,-6.159,17.8,-1.192,6.014,-4.235,6.086,-4.398,0,0,0,0,0,0,0,0,0,0,0,0,0,0,0,0,
120,20.55,9.83,3.494,2.73,2.954,12.12,1.629,7.054,9.034,-0.8865,12.29,-0.1067,6.205,-0.4001,5.935,-2.831,0,0,0,0,0,0,0,0,0,0,0,0,0,0,0,0,
121,24.94,9.348,-1.363,5.443,-1.966,9.92,16.16,1.545,7.743,1.597,9.788,3.222,4.112,-1.349,4.203,0.2275,0,0,0,0,0,0,0,0,0,0,0,0,0,0,0,0,
122,13.75,10.96,-5.381,-1.309,-5.082,-0.4833,3.898,-0.9492,-0.2075,-0.5768,4.378,5.237,-1.322,-2.847,2.625,1.28,0,0,0,0,0,0,0,0,0,0,0,0,0,0,0,0,
123,-2.806,7.178,-3.127,-7.889,-2.661,-6.343,-27.93,11.16,-9.82,-2.819,-2.723,5.738,-3.958,-4.687,4.783,-0.1761,0,0,0,0,0,0,0,0,0,0,0,0,0,0,0,0,
124,3.365,2.466,-2.203,-11.11,-2.8,-7.91,-25.93,5.415,-10.78,-4.317,5.372,0.6507,1.675,-7.456,10.36,-3.013,0,0,0,0,0,0,0,0,0,0,0,0,0,0,0,0,
125,20.34,10.09,-0.2905,-4.629,-1.108,-3.167,11.03,-14.34,-3.669,-4.147,21.31,-5.119,8.115,-4.385,14.42,-4.317,0,0,0,0,0,0,0,0,0,0,0,0,0,0,0,0,
126,22.77,15.04,4.665,2.296,4.488,5.295,21.46,-1.087,3.569,-1.199,14.1,-5.765,6.447,-1.509,10.05,-5.269,0,0,0,0,0,0,0,0,0,0,0,0,0,0,0,0,
127,17.59,8.144,3.79,-2.762,3.606,3.764,-5.008,18.68,5.169,-1.826,-7.237,-6.146,1.204,-5.543,-0.3379,-8.109,0,0,0,0,0,0,0,0,0,0,0,0,0,0,0,0,
128,9.306,5.829,0.0147,-5.805,-0.0364,0.4503,-15.25,7.519,1.869,-4.11,-7.783,-5.719,0.6941,-5.635,-6.542,-9.679,0,0,0,0,0,0,0,0,0,0,0,0,0,0,0,0,
129,1.842,8.043,-0.5472,-3.26,-0.4704,3.874,0.0073,-3.101,-1.486,-2.731,2.547,-3.351,1.544,-3.327,-6.788,-9.567,0,0,0,0,0,0,0,0,0,0,0,0,0,0,0,0,
130,7.828,6.309,-6.75,-6.032,-7.379,-0.3299,4.877,-3.28,-5.12,-4.297,1.424,-4.093,-0.1546,-7.963,-3.786,-8.811,0,0,0,0,0,0,0,0,0,0,0,0,0,0,0,0,
131,13.71,3.923,-16.06,-6.179,-16.33,-6.998,-6.282,-7.389,-9.494,-8.251,-3.497,-3.8,-1.845,-10.43,-0.4974,-6.24,0,0,0,0,0,0,0,0,0,0,0,0,0,0,0,0,
132,7.118,2.021,-14.6,-2.092,-13.61,-0.8751,-15.24,-1.617,-11.89,-7.13,-8.45,2.364,-4.105,-4.961,-1.957,-3.819,0,0,0,0,0,0,0,0,0,0,0,0,0,0,0,0,
133,4.186,4.559,-5.491,-2.331,-4.841,8.231,-14.61,8.44,-9.943,-1.417,-9.625,7.788,-3.398,1.947,-3.739,-1.6,0,0,0,0,0,0,0,0,0,0,0,0,0,0,0,0,
134,9.04,12.84,1.565,-1.152,1.037,11.31,-13.54,5.856,-2.038,5.798,-1.401,7.085,2.164,5.018,-1.788,-1.48,0,0,0,0,0,0,0,0,0,0,0,0,0,0,0,0,
135,10.15,14.3,0.5568,2.557,-0.3205,9.442,-17.3,3.103,2.316,6.33,-4.492,0.7628,0.5219,0.5236,-2.829,-9.553,0,0,0,0,0,0,0,0,0,0,0,0,0,0,0,0,
136,6.31,6.118,-8.149,1.186,-8.46,2.984,-15.37,4.154,-4.512,-1.614,-17.2,-7.572,-4.847,-5.88,-3.269,-18.21,0,0,0,0,0,0,0,0,0,0,0,0,0,0,0,0,
137,4.227,0.3522,-10.11,-3.733,-9.712,-0.0099,-12.93,-0.0472,-7.946,-4.869,-9.218,-11.77,0.2788,-6.351,1.62,-18.47,0,0,0,0,0,0,0,0,0,0,0,0,0,0,0,0,
138,7.545,2.22,-5.002,-4.017,-4.913,1.808,-12.63,-2.227,-3.93,-3.513,2.01,-9.056,2.78,-6.254,1.588,-16.84,0,0,0,0,0,0,0,0,0,0,0,0,0,0,0,0,
139,8.95,7.359,-7.636,1.815,-7.663,-1.852,0.2699,2.64,-7.418,-5.843,-5.553,-1.469,-4.017,-8.136,-2.018,-13.72,0,0,0,0,0,0,0,0,0,0,0,0,0,0,0,0,
140,3.633,10.22,-11.67,1.584,-10.79,-7.603,3.527,6.146,-13.97,-6.81,-8.251,5.018,-5.084,-7.598,-1.588,-7.939,0,0,0,0,0,0,0,0,0,0,0,0,0,0,0,0,
141,1.241,8.383,-10.88,-5.624,-10.11,-7.053,-13.04,2.541,-14.16,-5.76,-8.604,4.291,-7.539,-6.341,-5.131,-9.187,0,0,0,0,0,0,0,0,0,0,0,0,0,0,0,0,
142,3.385,3.101,-10.63,-5.093,-10.33,-3.522,-13.64,-3.457,-12.39,-5.294,-19.01,0.9591,-14.43,-3.893,-10.69,-13.44,0,0,0,0,0,0,0,0,0,0,0,0,0,0,0,0,
143,2.717,1.154,-1.778,-0.8593,-1.329,2.935,-7.989,0.1735,-3.603,-0.5093,-12.41,2.61,-7.25,1.356,-6.698,-11.12,0,0,0,0,0,0,0,0,0,0,0,0,0,0,0,0,
144,5.412,8.016,10.6,0.9969,9.946,10.75,-11.67,10.96,9.262,3.8,3.364,3.22,1.188,1.143,-0.9413,-10.55,0,0,0,0,0,0,0,0,0,0,0,0,0,0,0,0,
145,14.23,11.82,4.506,4.423,3.155,6.777,-4.045,7.869,4.268,-1.698,-6.726,-5.338,-6.897,-8.062,-2.92,-17.0,0,0,0,0,0,0,0,0,0,0,0,0,0,0,0,0,
146,12.97,2.605,-9.015,-1.215,-8.898,-5.85,-4.812,-7.495,-10.29,-11.46,-19.97,-16.62,-10.35,-14.98,-6.55,-23.59,0,0,0,0,0,0,0,0,0,0,0,0,0,0,0,0,
147,-0.4488,-4.179,-10.43,-10.67,-9.696,-8.793,-14.5,-10.42,-8.332,-14.32,-10.95,-18.96,-2.903,-13.01,-7.323,-25.87,0,0,0,0,0,0,0,0,0,0,0,0,0,0,0,0,
148,-5.338,-0.6354,-8.206,-5.576,-7.982,-5.981,-2.215,-2.808,-4.03,-10.7,-4.943,-11.88,-4.767,-9.948,-6.385,-21.71,0,0,0,0,0,0,0,0,0,0,0,0,0,0,0,0,
149,3.042,0.6819,-6.98,-0.8112,-6.439,-7.459,-3.32,-0.5663,-13.3,-8.963,-12.12,-4.756,-11.68,-9.66,-4.12,-13.52,0,0,0,0,0,0,0,0,0,0,0,0,0,0,0,0,
150,10.26,1.708,-0.8198,-2.524,-0.4291,-4.328,-21.48,1.755,-13.93,-8.319,-16.49,-2.139,-11.52,-6.804,-3.662,-8.81,0,0,0,0,0,0,0,0,0,0,0,0,0,0,0,0,
151,10.17,8.564,3.971,3.877,3.469,2.553,-9.136,3.193,-3.478,-4.17,-21.54,-2.425,-12.37,-3.054,-8.249,-10.01,0,0,0,0,0,0,0,0,0,0,0,0,0,0,0,0,
152,9.52,10.16,1.058,3.179,0.3909,2.877,-4.495,-5.274,-3.228,-1.823,-27.31,-5.548,-14.5,-2.817,-12.44,-13.99,0,0,0,0,0,0,0,0,0,0,0,0,0,0,0,0,
153,14.77,7.132,-2.762,-6.914,-3.138,2.898,-27.38,-8.896,-3.948,-2.347,-17.31,-8.326,-7.66,-2.875,-9.224,-16.49,0,0,0,0,0,0,0,0,0,0,0,0,0,0,0,0,
154,14.3,8.975,-2.313,-0.8911,-2.114,3.905,-15.26,-1.934,4.399,-1.875,-2.153,-8.764,0.737,-4.636,-3.658,-16.86,0,0,0,0,0,0,0,0,0,0,0,0,0,0,0,0,
155,3.184,4.655,-1.598,4.625,-0.857,-2.652,13.6,-3.617,6.56,-5.616,-2.69,-13.36,0.0551,-10.35,-1.984,-19.01,0,0,0,0,0,0,0,0,0,0,0,0,0,0,0,0,
156,5.497,-6.097,-2.795,-7.96,-2.641,-7.215,3.778,-11.09,1.194,-10.74,-6.843,-19.64,-2.199,-10.71,0.0021,-20.79,0,0,0,0,0,0,0,0,0,0,0,0,0,0,0,0,
157,14.91,-2.406,-4.33,-7.108,-4.655,-1.698,-18.36,-9.511,-4.283,-7.142,-6.691,-17.01,-1.31,-4.469,2.135,-17.1,0,0,0,0,0,0,0,0,0,0,0,0,0,0,0,0,
158,5.32,8.708,-4.171,7.876,-3.802,1.514,-22.49,-5.018,-10.58,-1.836,-11.97,-7.915,-1.832,-1.262,0.9141,-10.34,0,0,0,0,0,0,0,0,0,0,0,0,0,0,0,0,
159,0.5386,8.768,1.212,5.808,1.577,-0.1241,-7.509,-1.526,-8.455,-0.6217,-12.4,-0.1346,-1.404,0.7347,0.5094,-4.822,0,0,0,0,0,0,0,0,0,0,0,0,0,0,0,0,
160,9.73,6.273,3.986,-0.5841,3.674,2.493,8.402,3.326,1.298,2.423,-7.158,1.161,-2.09,2.047,-2.438,-6.056,0,0,0,0,0,0,0,0,0,0,0,0,0,0,0,0,
161,7.099,6.284,-5.198,2.326,-5.036,5.053,-8.311,3.699,-1.063,1.291,-12.53,-5.732,-8.579,-3.73,-10.95,-14.01,0,0,0,0,0,0,0,0,0,0,0,0,0,0,0,0,
162,7.257,4.696,-8.336,-1.86,-7.598,2.086,-21.41,0.2792,-8.072,-5.618,-10.72,-9.077,-7.476,-6.632,-10.05,-14.12,0,0,0,0,0,0,0,0,0,0,0,0,0,0,0,0,
163,14.84,6.538,4.024,-3.779,4.263,-0.5271,8.147,-1.726,1.798,-3.58,7.518,-5.588,5.344,-0.2709,0.1505,-6.949,0,0,0,0,0,0,0,0,0,0,0,0,0,0,0,0,
164,8.347,9.379,7.762,8.403,7.39,-0.4896,15.55,-4.528,12.59,2.447,8.999,-11.2,8.241,0.0139,-0.5518,-11.81,0,0,0,0,0,0,0,0,0,0,0,0,0,0,0,0,
165,5.222,8.281,1.403,11.33,0.7394,-0.0119,-9.602,-6.536,5.313,-2.147,-5.815,-20.38,-2.395,-6.076,-7.998,-20.81,0,0,0,0,0,0,0,0,0,0,0,0,0,0,0,0,
166,7.42,4.058,1.659,-0.7917,1.233,2.201,-3.548,0.2633,-3.731,-6.29,-9.473,-13.57,-8.604,-4.331,-7.147,-15.48,0,0,0,0,0,0,0,0,0,0,0,0,0,0,0,0,
167,-3.495,-4.219,-3.011,-5.145,-2.652,3.745,-5.634,12.0,-6.69,-1.836,-10.55,-2.242,-10.04,-1.966,-5.714,-9.602,0,0,0,0,0,0,0,0,0,0,0,0,0,0,0,0,
168,-3.795,-5.845,-12.22,0.4117,-11.61,-0.066,-40.22,10.49,-14.41,-2.565,-16.14,-2.95,-13.4,-7.763,-9.917,-14.1,0,0,0,0,0,0,0,0,0,0,0,0,0,0,0,0,
169,9.802,4.779,-3.874,1.808,-3.657,-4.38,-23.35,-2.941,-17.25,-9.168,-14.77,-5.411,-12.49,-10.04,-10.95,-14.98,0,0,0,0,0,0,0,0,0,0,0,0,0,0,0,0,
170,10.34,9.038,9.372,-1.425,9.269,-4.199,23.32,-5.099,-7.094,-8.712,-11.4,-4.332,-6.85,-6.328,-6.788,-10.79,0,0,0,0,0,0,0,0,0,0,0,0,0,0,0,0,
171,6.777,3.196,6.752,-5.172,6.616,-4.583,8.751,1.306,-1.549,-5.722,-7.174,-7.782,-3.91,-8.388,-2.586,-10.76,0,0,0,0,0,0,0,0,0,0,0,0,0,0,0,0,
172,5.886,4.301,3.834,-10.03,4.007,-6.06,-15.41,-0.093,-3.565,-10.07,1.006,-11.2,-3.682,-13.13,-0.3151,-11.19,0,0,0,0,0,0,0,0,0,0,0,0,0,0,0,0,
173,0.2432,11.84,9.249,-10.48,9.092,-3.986,7.368,-2.472,-0.2077,-13.67,-2.918,-10.36,-4.872,-11.32,-1.091,-10.1,0,0,0,0,0,0,0,0,0,0,0,0,0,0,0,0,
174,4.405,13.33,7.919,-4.042,6.803,-1.945,16.01,-4.972,1.237,-9.863,-14.11,-12.69,-6.765,-8.238,-4.298,-11.67,0,0,0,0,0,0,0,0,0,0,0,0,0,0,0,0,
175,14.84,8.693,2.156,-0.8783,1.512,-1.657,-0.0556,-11.34,-4.892,-6.832,-10.66,-14.89,-5.894,-8.181,-7.511,-13.76,0,0,0,0,0,0,0,0,0,0,0,0,0,0,0,0,
176,10.1,5.93,3.646,-3.219,4.005,-0.5074,2.686,-7.681,-6.115,-7.011,-6.84,-10.81,-6.611,-7.419,-11.6,-15.62,0,0,0,0,0,0,0,0,0,0,0,0,0,0,0,0,
177,3.615,7.476,6.181,-4.279,5.91,-2.929,4.432,2.855,-3.506,-6.491,-14.27,-7.798,-11.91,-7.688,-14.75,-16.86,0,0,0,0,0,0,0,0,0,0,0,0,0,0,0,0,
178,10.95,9.441,4.147,-4.465,3.334,-8.033,-2.016,5.008,-6.128,-8.143,-15.19,-7.062,-13.06,-10.34,-12.05,-12.58,0,0,0,0,0,0,0,0,0,0,0,0,0,0,0,0,
179,15.69,8.846,2.229,-4.009,2.038,-7.294,3.036,1.913,-8.104,-11.14,-13.85,-5.013,-10.72,-11.31,-9.395,-8.352,0,0,0,0,0,0,0,0,0,0,0,0,0,0,0,0,
180,12.17,6.743,2.692,-2.854,2.774,-2.921,-5.235,-3.065,-6.585,-10.4,-16.39,-6.963,-9.676,-9.601,-11.57,-11.43,0,0,0,0,0,0,0,0,0,0,0,0,0,0,0,0,
181,10.49,5.212,5.31,-5.997,5.291,-2.729,-21.64,-7.172,-5.428,-7.655,-6.958,-11.33,-2.498,-6.785,-8.424,-13.37,0,0,0,0,0,0,0,0,0,0,0,0,0,0,0,0,
182,3.459,0.7663,4.439,-12.98,4.386,-7.839,-7.03,-7.71,-1.915,-6.017,1.48,-12.57,5.407,-6.796,-1.122,-10.7,0,0,0,0,0,0,0,0,0,0,0,0,0,0,0,0,
183,-9.921,-7.261,-4.515,-17.6,-4.574,-14.76,13.71,-11.68,-0.419,-7.921,-7.853,-13.75,0.5826,-12.88,-2.219,-10.09,0,0,0,0,0,0,0,0,0,0,0,0,0,0,0,0,
184,-11.75,-7.925,-11.43,-15.94,-11.19,-19.47,3.202,-13.48,-10.5,-14.53,-14.89,-13.42,-8.307,-18.98,-6.552,-9.929,0,0,0,0,0,0,0,0,0,0,0,0,0,0,0,0,
185,-6.654,-3.685,-10.98,-13.6,-10.51,-20.58,-17.34,-8.904,-23.62,-19.77,-15.33,-9.523,-13.69,-19.24,-8.252,-9.065,0,0,0,0,0,0,0,0,0,0,0,0,0,0,0,0,
186,-10.69,-8.449,-10.52,-18.51,-9.811,-16.23,-19.24,-10.74,-24.94,-18.36,-24.25,-7.715,-21.48,-14.92,-12.76,-9.502,0,0,0,0,0,0,0,0,0,0,0,0,0,0,0,0,
187,-11.83,-10.93,-8.391,-18.63,-7.184,-6.173,-14.43,-11.89,-17.57,-11.45,-33.17,-6.755,-25.09,-6.61,-15.45,-7.266,0,0,0,0,0,0,0,0,0,0,0,0,0,0,0,0,
188,-2.071,0.0289,-0.931,-4.715,-0.2487,2.221,-20.24,-2.376,-10.88,-2.379,-30.02,-3.371,-16.2,2.159,-12.33,-4.322,0,0,0,0,0,0,0,0,0,0,0,0,0,0,0,0,
189,0.4816,6.931,6.547,1.998,6.023,5.126,-13.68,2.62,-2.926,4.078,-20.12,-2.853,-3.519,5.72,-8.858,-4.848,0,0,0,0,0,0,0,0,0,0,0,0,0,0,0,0,
190,-3.156,3.799,10.15,-5.986,9.468,4.897,10.03,-1.088,5.844,5.808,-12.53,-5.643,3.748,5.127,-3.215,-2.618,0,0,0,0,0,0,0,0,0,0,0,0,0,0,0,0,
191,5.573,2.989,8.164,-8.596,7.987,2.09,8.871,-4.165,5.846,4.94,-6.109,-5.236,6.918,4.155,5.48,4.185,0,0,0,0,0,0,0,0,0,0,0,0,0,0,0,0,
192,11.24,3.253,4.367,-8.264,4.413,0.6086,-6.45,-5.607,0.2149,4.366,4.521,-1.643,8.985,4.275,10.6,8.612,0,0,0,0,0,0,0,0,0,0,0,0,0,0,0,0,
193,-4.893,0.8773,5.486,-15.99,5.515,1.359,2.621,-6.161,0.6554,4.778,10.75,0.6078,8.558,3.611,11.02,8.922,0,0,0,0,0,0,0,0,0,0,0,0,0,0,0,0,
194,-13.24,0.4855,7.229,-15.41,7.149,-1.141,11.74,-6.967,3.942,2.691,7.312,2.704,4.784,0.395,9.01,8.135,0,0,0,0,0,0,0,0,0,0,0,0,0,0,0,0,
195,0.3329,0.0523,5.221,-4.678,5.261,-4.937,5.997,-5.766,2.149,-1.197,3.275,4.881,-1.359,-2.504,3.102,5.722,0,0,0,0,0,0,0,0,0,0,0,0,0,0,0,0,
196,2.095,-1.504,3.62,-6.614,3.711,-7.261,4.524,0.7485,-5.225,-2.981,-3.947,0.2721,-9.179,-5.135,-6.669,-1.423,0,0,0,0,0,0,0,0,0,0,0,0,0,0,0,0,
197,-5.496,0.8137,2.345,-13.67,2.01,-9.671,-0.6536,3.759,-13.13,-5.949,-15.29,-9.272,-12.33,-8.872,-13.39,-9.706,0,0,0,0,0,0,0,0,0,0,0,0,0,0,0,0,
198,1.944,-0.3021,-1.288,-9.126,-1.668,-10.59,-14.73,-5.893,-12.39,-9.803,-17.32,-14.57,-7.802,-10.11,-12.83,-12.8,0,0,0,0,0,0,0,0,0,0,0,0,0,0,0,0,
199,5.383,-7.802,-3.215,-7.865,-3.067,-9.11,-22.18,-19.42,-7.705,-9.47,-10.01,-16.1,-3.385,-7.974,-9.903,-12.1,0,0,0,0,0,0,0,0,0,0,0,0,0,0,0,0,
200,-0.8324,-5.168,2.879,-10.8,2.816,-3.433,-10.09,-16.75,-9.31,-5.928,-2.663,-14.64,0.4192,-3.77,-6.57,-9.416,0,0,0,0,0,0,0,0,0,0,0,0,0,0,0,0,
201,-3.698,0.631,8.251,-7.009,7.413,-1.594,13.17,-2.562,-9.253,-2.498,-0.5828,-12.19,1.741,-4.13,-5.938,-8.603,0,0,0,0,0,0,0,0,0,0,0,0,0,0,0,0,
202,-14.0,-8.842,-0.9949,-13.24,-1.384,-17.07,11.39,-4.676,-8.662,-7.522,-3.551,-15.99,-6.75,-14.89,-11.15,-13.43,0,0,0,0,0,0,0,0,0,0,0,0,0,0,0,0,
203,-16.97,-13.07,-9.344,-25.94,-8.703,-27.84,-9.15,-13.53,-14.37,-18.21,-1.008,-15.92,-8.45,-17.8,-7.46,-10.62,0,0,0,0,0,0,0,0,0,0,0,0,0,0,0,0,
204,-6.511,-5.626,-3.902,-23.15,-3.674,-16.15,-8.143,-7.887,-11.53,-14.02,0.4562,-7.115,1.522,-7.369,2.781,-0.4028,0,0,0,0,0,0,0,0,0,0,0,0,0,0,0,0,
205,-19.34,-13.92,-6.187,-20.47,-6.46,-14.83,-2.839,-9.816,-7.824,-5.594,-15.7,-10.64,-6.369,-10.48,-7.429,-7.337,0,0,0,0,0,0,0,0,0,0,0,0,0,0,0,0,
206,-27.13,-23.64,-12.13,-23.39,-11.63,-25.07,-7.349,-18.86,-20.28,-13.94,-24.98,-20.61,-19.16,-17.39,-21.38,-20.17,0,0,0,0,0,0,0,0,0,0,0,0,0,0,0,0,
207,7.339,-9.49,1.872,-14.59,2.125,-12.73,0.1922,-10.03,-17.78,-13.89,-6.583,-15.52,-2.997,-4.127,-10.42,-13.72,0,0,0,0,0,0,0,0,0,0,0,0,0,0,0,0,
208,21.08,5.08,14.84,-10.83,13.78,0.2788,6.57,-6.098,6.057,0.9423,6.211,-12.75,11.46,0.4995,-1.742,-9.04,0,0,0,0,0,0,0,0,0,0,0,0,0,0,0,0,
209,-4.229,4.195,8.94,-21.46,8.017,-10.68,5.729,-17.78,6.299,-3.838,-2.228,-21.57,-0.2169,-15.24,-9.97,-18.06,0,0,0,0,0,0,0,0,0,0,0,0,0,0,0,0,
210,-3.69,1.42,4.798,-24.52,4.573,-17.3,6.28,-17.67,-12.69,-18.82,-6.676,-20.81,-6.3,-18.83,-9.357,-17.59,0,0,0,0,0,0,0,0,0,0,0,0,0,0,0,0,
211,14.26,1.002,9.82,-19.9,9.291,-9.69,-4.393,-12.58,-15.88,-15.54,-3.28,-12.5,-0.4415,-9.942,-2.628,-9.145,0,0,0,0,0,0,0,0,0,0,0,0,0,0,0,0,
212,6.797,1.829,16.33,-17.37,15.7,-3.838,-4.229,-14.94,-7.758,-6.788,1.232,-9.143,0.381,-5.693,-3.379,-7.054,0,0,0,0,0,0,0,0,0,0,0,0,0,0,0,0,
213,-3.274,4.009,20.54,-19.34,20.22,-2.663,16.09,-13.16,0.713,-4.481,9.212,-8.453,0.9175,-3.382,-3.265,-6.492,0,0,0,0,0,0,0,0,0,0,0,0,0,0,0,0,
214,5.899,3.772,15.72,-29.66,15.18,-6.718,15.54,-11.15,4.161,-3.584,5.828,-12.76,-1.81,-4.749,-5.235,-8.431,0,0,0,0,0,0,0,0,0,0,0,0,0,0,0,0,
215,12.84,2.314,6.048,-32.71,5.448,-11.25,4.031,-14.11,-4.131,-6.085,-11.33,-18.93,-11.08,-9.235,-13.0,-15.43,0,0,0,0,0,0,0,0,0,0,0,0,0,0,0,0,
216,4.165,4.093,5.512,-19.13,5.261,-9.068,9.994,-17.46,-8.511,-8.942,-13.45,-17.11,-9.525,-7.829,-12.02,-16.53,0,0,0,0,0,0,0,0,0,0,0,0,0,0,0,0,
217,-2.588,6.851,14.3,-13.24,13.56,-6.062,14.82,-22.15,0.7873,-6.792,1.007,-13.95,0.9259,-6.333,-5.102,-12.94,0,0,0,0,0,0,0,0,0,0,0,0,0,0,0,0,
218,4.85,3.098,17.01,-24.99,15.66,-7.872,9.114,-25.08,3.009,-7.94,1.245,-17.39,-1.614,-13.47,-10.02,-17.27,0,0,0,0,0,0,0,0,0,0,0,0,0,0,0,0,
219,10.09,-3.697,7.043,-32.73,6.611,-12.32,0.5452,-23.07,-10.5,-16.61,-13.28,-19.05,-13.64,-19.18,-18.19,-21.59,0,0,0,0,0,0,0,0,0,0,0,0,0,0,0,0,
220,6.279,0.1155,4.259,-23.36,4.507,-10.8,-0.0686,-16.01,-17.32,-18.39,-15.74,-10.79,-14.41,-11.14,-12.58,-12.95,0,0,0,0,0,0,0,0,0,0,0,0,0,0,0,0,
221,6.715,8.685,15.29,-13.39,14.22,-2.7,2.492,-10.0,-5.968,-6.495,-7.145,-2.426,-5.637,-0.8382,-5.608,-6.411,0,0,0,0,0,0,0,0,0,0,0,0,0,0,0,0,
222,9.3,6.675,14.03,-17.99,12.12,-3.835,-9.782,-15.56,0.9144,-0.0077,-3.212,-7.39,-1.685,-3.66,-8.6,-13.45,0,0,0,0,0,0,0,0,0,0,0,0,0,0,0,0,
223,11.34,3.071,7.882,-19.35,6.713,-6.708,-0.167,-16.84,-3.668,-5.184,4.053,-14.15,1.711,-5.122,-6.9,-15.27,0,0,0,0,0,0,0,0,0,0,0,0,0,0,0,0,
224,15.83,6.976,22.18,-12.09,20.58,3.799,34.24,-4.784,4.442,-2.082,9.371,-9.861,6.156,3.701,-2.305,-8.877,0,0,0,0,0,0,0,0,0,0,0,0,0,0,0,0,
225,7.885,7.848,27.65,-16.8,25.1,4.668,16.09,-6.279,13.61,5.39,-7.182,-7.596,-0.7569,3.908,-8.894,-10.41,0,0,0,0,0,0,0,0,0,0,0,0,0,0,0,0,
226,-6.779,5.573,12.38,-19.79,11.03,-6.123,-18.98,-16.07,1.842,1.62,-19.46,-7.959,-5.89,0.0715,-9.247,-8.949,0,0,0,0,0,0,0,0,0,0,0,0,0,0,0,0,
227,0.0082,8.78,15.06,-9.668,14.56,-2.025,8.628,-10.56,-0.5424,1.31,-3.347,0.0959,7.42,6.805,5.868,3.408,0,0,0,0,0,0,0,0,0,0,0,0,0,0,0,0,
228,16.59,9.888,24.33,-14.4,22.63,1.227,36.86,-5.796,13.43,7.369,10.69,2.867,18.02,6.027,13.16,7.375,0,0,0,0,0,0,0,0,0,0,0,0,0,0,0,0,
229,17.41,1.391,15.36,-26.12,13.28,-8.824,27.8,-10.23,10.37,1.852,10.84,-4.347,13.27,-4.983,9.623,3.074,0,0,0,0,0,0,0,0,0,0,0,0,0,0,0,0,
230,9.986,-3.953,16.29,-17.41,14.39,-9.332,26.06,-13.89,1.692,-5.697,11.32,-5.975,6.195,-5.54,6.156,2.368,0,0,0,0,0,0,0,0,0,0,0,0,0,0,0,0,
231,5.593,3.595,24.2,-8.124,21.93,-3.561,18.4,-16.1,3.137,-3.689,4.371,-3.453,0.1262,-1.21,0.8694,1.222,0,0,0,0,0,0,0,0,0,0,0,0,0,0,0,0,
232,2.913,8.141,15.38,-13.11,13.97,-3.883,-0.4208,-11.49,-0.8742,-1.631,-2.293,-2.565,-0.6522,-0.2569,0.1168,1.254,0,0,0,0,0,0,0,0,0,0,0,0,0,0,0,0,
233,0.3226,0.907,11.81,-15.64,11.06,-3.744,3.06,-7.432,1.059,0.8211,7.572,-3.346,6.884,2.939,3.821,2.164,0,0,0,0,0,0,0,0,0,0,0,0,0,0,0,0,
234,1.01,1.781,17.37,-13.89,16.14,-4.65,15.21,-12.49,13.95,4.53,15.41,-7.325,10.41,4.124,2.021,-0.9355,0,0,0,0,0,0,0,0,0,0,0,0,0,0,0,0,
235,7.679,11.96,14.89,-12.81,14.31,-3.04,21.27,-7.295,12.51,4.355,9.825,-4.577,8.086,4.236,2.447,1.762,0,0,0,0,0,0,0,0,0,0,0,0,0,0,0,0,
236,10.41,11.02,15.72,-7.637,15.19,4.546,28.68,4.884,2.996,5.216,4.566,4.84,5.133,5.809,5.376,7.315,0,0,0,0,0,0,0,0,0,0,0,0,0,0,0,0,
237,6.319,6.947,17.32,-7.326,15.87,1.542,25.07,-0.9444,1.342,4.843,6.097,5.964,3.732,2.487,4.259,5.591,0,0,0,0,0,0,0,0,0,0,0,0,0,0,0,0,
238,7.375,8.951,11.66,-20.18,11.33,-7.368,14.52,-13.83,1.683,1.849,15.11,4.775,13.42,3.598,11.08,8.822,0,0,0,0,0,0,0,0,0,0,0,0,0,0,0,0,
239,8.942,3.335,13.7,-26.6,13.89,-3.459,18.98,-15.83,8.78,6.936,24.77,5.804,23.82,9.691,17.7,13.14,0,0,0,0,0,0,0,0,0,0,0,0,0,0,0,0,
240,3.931,-2.501,15.4,-14.63,14.25,-0.7215,25.4,-13.95,15.55,8.546,20.43,-1.622,12.64,0.8983,4.952,2.5,0,0,0,0,0,0,0,0,0,0,0,0,0,0,0,0,
241,-0.0298,2.933,6.158,-0.7469,5.559,-8.696,14.25,-13.11,1.412,-5.459,4.897,-7.573,-5.651,-11.91,-8.847,-7.441,0,0,0,0,0,0,0,0,0,0,0,0,0,0,0,0,
242,-3.773,4.553,3.673,4.665,3.992,-10.5,2.994,-9.33,-14.63,-13.31,-3.612,-3.312,-8.669,-9.136,-7.709,-5.131,0,0,0,0,0,0,0,0,0,0,0,0,0,0,0,0,
243,-3.74,1.169,6.691,3.482,6.616,-5.369,4.594,-0.9206,-10.36,-6.963,2.15,-0.8462,-2.884,-2.893,-3.466,-2.333,0,0,0,0,0,0,0,0,0,0,0,0,0,0,0,0,
244,4.236,3.661,5.223,0.2702,5.332,-3.09,6.8,5.202,-2.791,-2.188,8.711,-0.9378,1.853,-0.6516,-1.48,-1.758,0,0,0,0,0,0,0,0,0,0,0,0,0,0,0,0,
245,-2.551,1.45,5.073,-1.892,4.834,-4.728,9.117,-0.5022,-2.27,-0.6648,2.789,-0.6318,2.346,-0.9881,-1.242,-2.244,0,0,0,0,0,0,0,0,0,0,0,0,0,0,0,0,
246,-21.34,-9.53,0.4051,-9.866,-0.1744,-11.05,8.379,-9.216,-3.025,-2.6,-3.631,-2.72,0.0132,-6.748,-1.036,-2.589,0,0,0,0,0,0,0,0,0,0,0,0,0,0,0,0,
247,-13.37,-12.47,-6.461,-14.73,-5.852,-12.85,-1.401,-9.1,-5.462,-8.023,1.615,-1.068,2.445,-7.186,3.829,2.267,0,0,0,0,0,0,0,0,0,0,0,0,0,0,0,0,
248,8.127,-4.302,-0.3772,-4.25,-0.113,-6.264,6.59,-7.578,-4.296,-5.347,5.004,2.481,6.266,-0.1139,5.98,5.728,0,0,0,0,0,0,0,0,0,0,0,0,0,0,0,0,
249,0.7382,0.5812,5.395,-1.851,4.345,-6.935,24.72,-7.103,1.102,1.279,0.1848,0.0622,4.67,0.5629,1.589,2.392,0,0,0,0,0,0,0,0,0,0,0,0,0,0,0,0,
250,-17.12,-2.282,0.0528,-11.36,0.0489,-11.61,8.062,-5.574,1.47,-0.3893,-1.567,-2.689,3.698,-2.411,1.158,-0.1471,0,0,0,0,0,0,0,0,0,0,0,0,0,0,0,0,
251,-10.23,-3.661,1.963,-7.582,2.938,-6.909,-7.276,-9.916,2.297,-3.446,-0.7581,-3.271,4.446,-2.59,4.24,0.4291,0,0,0,0,0,0,0,0,0,0,0,0,0,0,0,0,
252,5.641,0.3824,12.28,-3.586,12.45,-3.698,17.41,-13.45,6.489,-2.878,-1.943,-4.846,1.712,-4.436,2.797,0.2604,0,0,0,0,0,0,0,0,0,0,0,0,0,0,0,0,
253,3.251,1.37,12.71,-10.43,12.48,-8.252,25.18,-10.15,0.7861,-4.903,0.4355,-5.102,-0.751,-6.831,-0.5226,-2.097,0,0,0,0,0,0,0,0,0,0,0,0,0,0,0,0,
254,-7.881,-2.738,4.249,-8.652,4.511,-11.11,8.01,-8.921,-8.181,-7.538,5.536,-3.832,1.472,-5.419,-0.1932,-3.614,0,0,0,0,0,0,0,0,0,0,0,0,0,0,0,0,
255,-4.463,-2.053,2.877,-5.435,3.637,-6.496,13.39,-6.694,-0.842,-3.724,6.089,-0.2734,7.374,0.7564,4.089,0.813,0,0,0,0,0,0,0,0,0,0,0,0,0,0,0,0,
256,6.203,0.8149,10.76,-9.564,11.12,6.249,13.89,-2.804,13.47,4.128,4.764,4.22,12.4,6.543,6.847,4.637,0,0,0,0,0,0,0,0,0,0,0,0,0,0,0,0,
257,6.193,-1.735,11.93,-3.445,11.35,13.6,-3.161,-2.862,13.63,6.663,6.697,2.591,9.895,4.886,3.587,-0.0862,0,0,0,0,0,0,0,0,0,0,0,0,0,0,0,0,
258,4.205,-1.125,2.633,7.441,2.538,5.329,3.463,0.423,2.019,3.479,7.752,0.6376,3.208,3.084,1.416,-2.221,0,0,0,0,0,0,0,0,0,0,0,0,0,0,0,0,
259,1.202,1.729,-0.1728,5.747,0.7212,0.4093,14.93,3.268,-5.175,4.707,7.373,6.883,3.752,9.153,6.715,5.946,0,0,0,0,0,0,0,0,0,0,0,0,0,0,0,0,
260,-12.44,-1.899,6.394,0.9358,6.534,7.748,7.26,0.2477,1.024,11.37,8.196,10.88,9.159,12.62,10.15,11.7,0,0,0,0,0,0,0,0,0,0,0,0,0,0,0,0,
261,-13.89,-1.174,7.045,0.6624,6.17,6.994,1.874,-1.371,9.966,11.6,4.487,5.845,7.42,5.717,5.335,8.105,0,0,0,0,0,0,0,0,0,0,0,0,0,0,0,0,
262,5.48,4.887,0.6066,-1.56,0.1023,-2.927,-6.171,-3.47,4.127,2.643,2.626,2.468,3.239,-1.005,2.727,4.527,0,0,0,0,0,0,0,0,0,0,0,0,0,0,0,0,
263,13.69,3.617,-0.2265,-2.21,-0.2905,-1.964,-8.842,0.499,-4.867,-1.511,10.64,6.518,7.775,2.527,6.714,6.237,0,0,0,0,0,0,0,0,0,0,0,0,0,0,0,0,
264,7.387,0.8086,3.408,0.1978,3.236,5.934,15.1,8.706,0.4357,4.992,7.412,11.14,10.4,8.162,7.458,8.073,0,0,0,0,0,0,0,0,0,0,0,0,0,0,0,0,
265,5.484,-0.8578,0.8138,-4.606,1.047,3.879,20.47,-2.858,3.537,7.825,-8.517,10.34,2.109,3.92,3.305,6.196,0,0,0,0,0,0,0,0,0,0,0,0,0,0,0,0,
266,2.717,-6.856,-2.945,-12.6,-2.01,-3.442,-11.43,-15.73,-2.996,0.5058,-8.586,6.149,-2.816,-3.759,-0.424,2.386,0,0,0,0,0,0,0,0,0,0,0,0,0,0,0,0,
267,-4.487,-9.863,-0.8789,-9.879,-0.0129,-4.513,-17.07,-5.0,-3.433,-4.913,-0.4724,4.259,0.0425,-3.242,-2.449,1.007,0,0,0,0,0,0,0,0,0,0,0,0,0,0,0,0,
268,-9.007,-8.569,1.301,-0.0412,1.613,-0.5906,15.48,2.803,0.874,-1.433,-0.2037,6.486,2.126,3.012,0.7378,4.269,0,0,0,0,0,0,0,0,0,0,0,0,0,0,0,0,
269,-10.57,-7.784,4.906,4.002,4.597,1.848,28.35,-1.062,5.725,5.399,1.869,7.779,5.077,6.571,6.017,6.908,0,0,0,0,0,0,0,0,0,0,0,0,0,0,0,0,
270,-7.63,-4.994,7.627,1.676,6.858,-1.168,6.948,-2.631,8.887,6.851,1.995,4.202,7.261,3.966,4.694,5.141,0,0,0,0,0,0,0,0,0,0,0,0,0,0,0,0,
271,0.2272,-2.004,-1.78,-0.6725,-1.87,-5.096,-11.07,-4.742,2.257,1.697,1.65,1.236,6.041,-0.3925,2.749,4.545,0,0,0,0,0,0,0,0,0,0,0,0,0,0,0,0,
272,4.573,-0.9434,-9.16,-4.542,-8.074,-3.852,-7.095,-2.994,-0.4534,-1.526,7.289,2.887,6.975,-1.317,4.638,6.519,0,0,0,0,0,0,0,0,0,0,0,0,0,0,0,0,
273,-1.297,-2.379,0.9451,-6.589,1.729,-1.694,5.621,-0.2653,7.373,-1.005,0.8331,3.185,5.976,-1.116,2.457,6.318,0,0,0,0,0,0,0,0,0,0,0,0,0,0,0,0,
274,-8.799,-7.769,8.253,0.4323,7.761,-3.316,16.21,-5.16,5.745,-1.78,-9.366,-0.0651,-0.0823,-2.384,-1.881,3.28,0,0,0,0,0,0,0,0,0,0,0,0,0,0,0,0,
275,-4.005,-7.95,1.103,0.1587,0.3268,-8.127,16.7,-5.607,-1.966,-2.874,-2.854,-1.62,-2.574,-3.559,-3.052,-1.609,0,0,0,0,0,0,0,0,0,0,0,0,0,0,0,0,
276,2.163,-1.311,-1.079,-12.13,-1.135,-9.376,7.762,-0.7958,-1.133,-2.253,1.488,0.2085,-0.3432,-1.016,-2.348,-3.626,0,0,0,0,0,0,0,0,0,0,0,0,0,0,0,0,
277,-6.651,-3.578,5.821,-9.065,5.957,0.3037,8.855,1.949,3.127,1.793,0.5892,2.335,1.606,4.672,-0.1599,0.1971,0,0,0,0,0,0,0,0,0,0,0,0,0,0,0,0,
278,-13.74,-12.64,2.952,2.165,2.577,5.124,10.23,1.267,4.654,5.167,5.438,1.293,-1.174,1.73,-2.02,0.7652,0,0,0,0,0,0,0,0,0,0,0,0,0,0,0,0,
279,-4.814,-11.69,-8.698,-1.78,-8.996,-7.206,-10.27,-10.16,-2.467,-2.589,2.236,-0.2813,-8.922,-8.856,-7.617,-2.438,0,0,0,0,0,0,0,0,0,0,0,0,0,0,0,0,
280,4.017,-5.617,-10.48,-5.15,-10.39,-12.81,-19.94,-14.8,-13.68,-10.49,-1.996,3.349,-10.43,-7.041,-4.619,1.012,0,0,0,0,0,0,0,0,0,0,0,0,0,0,0,0,
281,0.6398,-5.764,-5.378,-2.321,-5.416,-3.761,5.086,1.126,-10.95,-2.361,4.192,7.302,-3.064,3.502,3.092,5.288,0,0,0,0,0,0,0,0,0,0,0,0,0,0,0,0,
282,-7.878,-4.547,-4.171,-4.073,-3.962,-1.266,26.03,4.888,0.7027,5.365,2.574,4.598,0.9771,3.221,2.063,1.596,0,0,0,0,0,0,0,0,0,0,0,0,0,0,0,0,
283,-7.329,0.4133,1.027,-4.91,1.555,-5.097,14.66,-9.131,3.661,0.0535,-4.301,0.1986,-0.4644,-2.411,-3.31,-2.299,0,0,0,0,0,0,0,0,0,0,0,0,0,0,0,0,
284,3.781,0.3206,8.555,-4.994,8.287,-6.703,-9.509,-11.36,-0.278,-4.023,-2.211,-0.4137,-1.35,-3.073,-3.946,-0.3428,0,0,0,0,0,0,0,0,0,0,0,0,0,0,0,0,
285,9.177,0.5513,4.451,-2.898,3.59,-8.05,-12.81,-5.257,-2.574,-2.97,-0.8796,1.793,-0.4299,-1.664,-0.1127,3.613,0,0,0,0,0,0,0,0,0,0,0,0,0,0,0,0,
286,6.293,3.704,-1.348,2.018,-1.485,-3.99,6.503,-1.691,-0.5714,-1.011,0.0741,5.511,2.7,2.923,5.339,6.014,0,0,0,0,0,0,0,0,0,0,0,0,0,0,0,0,
287,5.354,0.6466,4.1,-2.204,4.326,2.655,15.29,-0.2447,2.74,5.267,5.652,7.268,5.115,7.564,7.799,5.313,0,0,0,0,0,0,0,0,0,0,0,0,0,0,0,0,
288,2.247,-3.559,2.696,-6.184,2.396,-2.331,7.588,-7.711,0.9834,6.989,1.926,1.876,-0.2639,0.4226,2.942,-0.4009,0,0,0,0,0,0,0,0,0,0,0,0,0,0,0,0,
289,-8.747,-7.538,-13.21,-3.769,-12.88,-15.79,-1.043,-15.45,-6.372,-5.492,-4.356,-7.419,-9.527,-12.99,-3.476,-8.019,0,0,0,0,0,0,0,0,0,0,0,0,0,0,0,0,
290,-19.85,-15.72,-16.15,-7.346,-14.47,-21.2,-15.81,-11.85,-11.32,-16.06,4.641,-9.655,-9.031,-14.55,-2.91,-8.488,0,0,0,0,0,0,0,0,0,0,0,0,0,0,0,0,
291,-15.88,-12.09,-4.602,-4.721,-3.273,-14.59,-22.42,-7.41,-7.304,-11.41,6.983,-4.979,-3.24,-7.911,-2.02,-4.496,0,0,0,0,0,0,0,0,0,0,0,0,0,0,0,0,
292,2.982,-0.5133,-5.75,3.462,-5.18,-7.803,-0.9091,-6.861,-2.818,-6.077,-9.519,-4.446,-7.179,-7.964,-6.373,-6.084,0,0,0,0,0,0,0,0,0,0,0,0,0,0,0,0,
293,12.03,-3.07,-7.456,-1.073,-6.881,-6.51,13.7,-3.536,-7.437,-8.359,-12.39,-5.946,-11.62,-8.564,-4.713,-6.465,0,0,0,0,0,0,0,0,0,0,0,0,0,0,0,0,
294,6.025,-3.145,4.452,0.8925,3.78,-2.713,-6.352,0.4894,-9.896,-6.245,1.052,-1.423,-5.346,-1.81,1.836,-0.685,0,0,0,0,0,0,0,0,0,0,0,0,0,0,0,0,
295,3.861,7.961,2.191,11.34,0.8247,2.803,-21.06,2.25,-2.475,0.6286,3.967,2.99,-0.9979,2.803,0.1237,0.1324,0,0,0,0,0,0,0,0,0,0,0,0,0,0,0,0,
296,4.064,4.102,-10.16,3.458,-9.62,2.444,-1.052,4.458,2.761,3.242,0.8943,2.611,-2.664,2.991,-3.731,-3.564,0,0,0,0,0,0,0,0,0,0,0,0,0,0,0,0,
297,2.477,-7.009,-2.111,-4.939,-0.8667,2.503,15.0,3.478,2.505,4.041,1.781,2.625,-0.6307,4.808,-0.9836,-2.517,0,0,0,0,0,0,0,0,0,0,0,0,0,0,0,0,
298,5.868,-3.479,11.13,1.566,10.96,7.713,2.258,-2.687,4.244,5.727,4.771,4.744,2.968,6.324,2.685,2.14,0,0,0,0,0,0,0,0,0,0,0,0,0,0,0,0,
299,6.012,1.09,9.429,1.813,8.717,8.507,-2.65,-1.286,5.09,6.297,8.076,7.081,1.14,5.559,2.707,5.361,0,0,0,0,0,0,0,0,0,0,0,0,0,0,0,0,
300,3.947,-1.138,1.94,1.922,1.383,1.972,9.832,6.096,0.944,5.005,2.158,7.39,-2.753,3.395,0.9049,4.521,0,0,0,0,0,0,0,0,0,0,0,0,0,0,0,0,
301,14.64,-0.3634,-1.794,9.399,-2.004,-4.622,8.705,0.6263,0.6447,1.844,-1.368,5.391,1.172,1.401,3.051,3.896,0,0,0,0,0,0,0,0,0,0,0,0,0,0,0,0,
302,19.43,0.9084,2.283,3.38,2.398,-10.32,-0.1476,-7.862,7.33,0.0802,8.535,2.903,6.169,-0.405,5.067,5.409,0,0,0,0,0,0,0,0,0,0,0,0,0,0,0,0,
303,-1.238,-1.604,2.49,-5.654,2.277,-13.54,-1.627,-4.131,4.689,-1.962,3.475,-0.4942,-3.916,-4.346,-2.429,2.772,0,0,0,0,0,0,0,0,0,0,0,0,0,0,0,0,
304,-13.24,-4.406,-5.335,-0.8956,-4.989,-4.883,-0.2019,-2.787,-6.002,-4.744,-6.946,0.2201,-9.143,-0.2297,-3.075,4.234,0,0,0,0,0,0,0,0,0,0,0,0,0,0,0,0,
305,3.536,-4.869,4.569,-6.398,5.13,8.484,8.636,-6.275,1.841,4.452,10.17,6.787,9.694,15.19,12.43,14.8,0,0,0,0,0,0,0,0,0,0,0,0,0,0,0,0,
306,14.46,-1.093,22.04,-18.15,20.43,7.645,13.64,-4.966,18.8,18.16,21.35,5.473,20.0,17.72,17.19,15.08,0,0,0,0,0,0,0,0,0,0,0,0,0,0,0,0,
307,12.98,7.195,14.3,-1.744,11.99,0.6693,6.818,-5.33,13.97,13.31,12.02,-2.947,8.622,4.507,6.236,4.719,0,0,0,0,0,0,0,0,0,0,0,0,0,0,0,0,
308,17.34,13.73,0.9569,20.94,0.229,1.607,8.874,-6.375,0.8038,0.8141,12.68,-3.183,1.588,-1.622,-0.6844,-0.9289,0,0,0,0,0,0,0,0,0,0,0,0,0,0,0,0,
309,9.674,8.877,-2.729,16.2,-3.077,0.8735,9.916,-3.426,-3.332,-2.054,5.604,-0.76,-3.3,-1.693,-4.815,-6.507,0,0,0,0,0,0,0,0,0,0,0,0,0,0,0,0,
310,-8.916,-1.923,-11.17,10.83,-10.77,-1.591,-2.508,1.73,-8.385,-1.849,-12.21,-1.888,-11.07,-1.286,-7.434,-9.726,0,0,0,0,0,0,0,0,0,0,0,0,0,0,0,0,
311,-10.1,-0.9828,-11.35,20.13,-9.744,1.002,-3.381,11.14,-8.431,0.0184,-6.014,1.754,-9.566,2.44,-5.007,-3.801,0,0,0,0,0,0,0,0,0,0,0,0,0,0,0,0,
312,-4.235,5.268,-2.446,17.54,-2.271,-1.06,2.492,11.99,-1.613,1.531,2.426,5.642,-8.39,0.1887,-5.69,-1.151,0,0,0,0,0,0,0,0,0,0,0,0,0,0,0,0,
313,-5.97,0.2705,-7.713,8.153,-8.62,-4.896,-5.215,-0.2344,-3.841,-3.015,-7.711,4.074,-11.34,-4.423,-7.088,-2.842,0,0,0,0,0,0,0,0,0,0,0,0,0,0,0,0,
314,-6.748,-2.744,-15.07,11.31,-14.41,-0.859,-15.57,0.0642,-7.156,-3.195,-9.061,5.162,-6.199,0.8937,-2.668,0.5284,0,0,0,0,0,0,0,0,0,0,0,0,0,0,0,0,
315,-4.844,4.026,-10.84,14.05,-9.497,3.658,-19.3,10.75,-3.62,3.575,-2.043,8.079,-1.153,6.232,0.8265,2.337,0,0,0,0,0,0,0,0,0,0,0,0,0,0,0,0,
316,1.801,2.64,-7.983,13.23,-7.178,5.946,-12.31,8.58,-4.491,5.513,-0.3157,4.91,-3.569,3.559,-1.744,-3.017,0,0,0,0,0,0,0,0,0,0,0,0,0,0,0,0,
317,9.415,-2.427,-5.67,17.33,-4.809,5.463,3.252,1.313,-4.752,2.008,2.85,-0.683,-5.272,0.0713,-8.301,-8.736,0,0,0,0,0,0,0,0,0,0,0,0,0,0,0,0,
318,7.24,4.524,0.9534,18.28,1.345,1.191,13.02,0.0636,2.974,-0.5118,4.432,-0.4101,-3.673,1.339,-9.182,-6.303,0,0,0,0,0,0,0,0,0,0,0,0,0,0,0,0,
319,-1.716,10.07,3.688,19.14,3.103,4.298,12.82,3.709,7.839,2.685,1.188,4.669,-0.3679,6.617,-0.4265,2.387,0,0,0,0,0,0,0,0,0,0,0,0,0,0,0,0,
320,-13.57,4.754,0.8603,23.36,0.4544,9.115,0.9473,10.01,3.292,8.431,0.3259,6.462,1.562,7.602,2.301,3.841,0,0,0,0,0,0,0,0,0,0,0,0,0,0,0,0,
321,-16.69,1.825,-2.854,17.8,-2.454,2.467,-11.14,9.333,-3.741,6.578,2.775,3.452,-0.2742,2.375,-4.989,-2.747,0,0,0,0,0,0,0,0,0,0,0,0,0,0,0,0,
322,-3.233,2.815,-5.666,9.829,-5.131,-2.801,-5.622,3.997,-4.333,0.4139,2.211,0.3214,-4.739,-1.256,-9.454,-6.126,0,0,0,0,0,0,0,0,0,0,0,0,0,0,0,0,
323,-0.3312,-0.1008,-7.975,12.41,-7.555,-0.9617,-1.307,2.376,-1.844,-1.956,-2.758,-1.273,-10.2,-2.608,-11.19,-6.364,0,0,0,0,0,0,0,0,0,0,0,0,0,0,0,0,
324,-10.59,-0.6866,-7.659,18.74,-7.071,2.054,-5.668,0.5537,-2.348,-1.692,-2.091,0.2138,-8.524,0.046,-10.05,-4.788,0,0,0,0,0,0,0,0,0,0,0,0,0,0,0,0,
325,-5.52,5.3,-2.922,23.49,-2.619,9.582,-5.421,4.944,-0.2109,2.436,1.085,2.865,-0.9776,5.85,-3.405,-0.8904,0,0,0,0,0,0,0,0,0,0,0,0,0,0,0,0,
326,2.592,6.78,-3.089,19.59,-3.354,10.08,-12.66,13.05,-0.4337,5.336,-4.923,0.5267,-3.041,2.022,-2.016,-1.09,0,0,0,0,0,0,0,0,0,0,0,0,0,0,0,0,
327,-0.3263,0.1276,-10.83,9.977,-10.66,-3.255,-17.14,3.428,-10.94,-1.363,-6.324,-3.344,-9.045,-7.277,-6.178,-3.131,0,0,0,0,0,0,0,0,0,0,0,0,0,0,0,0,
328,-5.353,-4.006,-12.46,11.11,-11.69,-10.59,-12.26,-11.05,-16.55,-7.849,-1.236,-3.394,-7.0,-7.979,-5.845,-1.274,0,0,0,0,0,0,0,0,0,0,0,0,0,0,0,0,
329,-19.52,-4.05,-10.89,11.81,-10.6,-8.223,-21.4,-4.468,-11.89,-7.096,-8.267,-2.65,-7.285,-6.002,-4.393,-0.2451,0,0,0,0,0,0,0,0,0,0,0,0,0,0,0,0,
330,-29.68,-6.276,-17.41,5.197,-16.91,-5.816,-12.2,9.69,-9.852,-6.13,-12.31,-0.3946,-9.421,-4.834,-2.157,0.8026,0,0,0,0,0,0,0,0,0,0,0,0,0,0,0,0,
331,-17.75,-7.783,-18.56,10.67,-16.94,-1.591,15.41,13.36,-6.828,-3.568,-0.2215,3.663,-1.728,0.6293,5.428,5.497,0,0,0,0,0,0,0,0,0,0,0,0,0,0,0,0,
332,-9.957,-7.224,-9.17,16.51,-7.915,0.2219,-5.649,10.38,1.511,1.75,7.235,3.543,5.747,2.984,9.198,7.594,0,0,0,0,0,0,0,0,0,0,0,0,0,0,0,0,
333,-15.68,-9.736,-10.7,9.325,-10.06,-3.457,-30.08,6.604,2.239,1.526,5.535,1.876,2.846,-0.8204,5.202,6.841,0,0,0,0,0,0,0,0,0,0,0,0,0,0,0,0,
334,-15.38,-11.5,-20.56,9.119,-19.07,-5.527,-3.371,5.085,-6.558,-2.156,4.799,5.526,-0.735,-0.7917,3.135,8.912,0,0,0,0,0,0,0,0,0,0,0,0,0,0,0,0,
335,-14.16,-6.586,-15.21,12.71,-13.97,-4.109,2.031,5.028,-10.29,-0.1427,5.906,9.774,0.6681,3.378,2.615,9.241,0,0,0,0,0,0,0,0,0,0,0,0,0,0,0,0,
336,-18.05,0.1279,-3.062,9.332,-3.178,2.179,-16.62,4.893,-5.259,4.608,8.66,7.601,1.571,4.632,-0.4291,4.624,0,0,0,0,0,0,0,0,0,0,0,0,0,0,0,0,
337,-16.02,2.148,-1.122,12.71,-1.13,10.31,-4.347,8.675,1.285,5.161,6.731,2.882,0.8796,4.245,-0.8229,1.059,0,0,0,0,0,0,0,0,0,0,0,0,0,0,0,0,
338,-5.597,-1.527,-0.7744,16.27,-0.8356,9.622,-1.467,11.0,6.594,3.645,-0.9696,2.102,0.5846,4.629,-0.7312,-0.1977,0,0,0,0,0,0,0,0,0,0,0,0,0,0,0,0,
339,3.69,-5.32,0.1236,10.46,-0.786,5.461,-14.19,4.661,5.813,3.574,-1.56,3.377,0.0309,4.873,-3.736,-0.1897,0,0,0,0,0,0,0,0,0,0,0,0,0,0,0,0,
340,5.514,-1.444,-1.649,12.82,-1.901,7.823,2.003,4.325,0.4949,4.861,5.692,2.913,0.7171,6.644,-1.799,2.451,0,0,0,0,0,0,0,0,0,0,0,0,0,0,0,0,
341,5.088,4.608,3.777,18.82,4.101,8.437,14.81,12.55,4.135,6.976,9.821,1.529,2.584,7.835,2.647,2.537,0,0,0,0,0,0,0,0,0,0,0,0,0,0,0,0,
342,0.8513,3.059,9.373,12.17,8.849,5.207,5.09,9.927,10.19,6.937,9.166,1.488,3.785,6.195,1.416,0.1529,0,0,0,0,0,0,0,0,0,0,0,0,0,0,0,0,
343,-9.602,0.7532,4.964,11.7,4.581,9.597,5.369,9.28,7.475,6.219,10.57,5.915,8.039,9.511,3.66,5.631,0,0,0,0,0,0,0,0,0,0,0,0,0,0,0,0,
344,-7.985,2.466,4.183,23.95,4.387,18.64,4.718,21.95,10.05,11.74,17.61,12.36,13.51,16.89,10.76,13.48,0,0,0,0,0,0,0,0,0,0,0,0,0,0,0,0,
345,2.916,-0.6564,5.204,20.36,4.994,20.11,-4.244,17.5,15.81,17.69,18.79,11.63,10.65,15.98,7.419,10.11,0,0,0,0,0,0,0,0,0,0,0,0,0,0,0,0,
346,0.5704,-4.766,-3.618,2.67,-3.435,15.34,2.085,3.884,7.588,14.3,4.487,4.998,1.07,9.345,-3.908,1.755,0,0,0,0,0,0,0,0,0,0,0,0,0,0,0,0,
347,-3.022,-0.971,-7.239,0.9526,-6.588,10.22,7.613,11.71,-2.147,7.808,-7.75,0.1548,-6.116,4.49,-8.472,-2.669,0,0,0,0,0,0,0,0,0,0,0,0,0,0,0,0,
348,-0.9848,-0.144,-2.012,11.27,-2.601,3.338,-6.143,12.22,-2.424,2.7,-5.181,-4.458,-9.249,-2.45,-7.274,-6.117,0,0,0,0,0,0,0,0,0,0,0,0,0,0,0,0,
349,-9.482,-6.445,-5.934,12.47,-6.493,-2.401,-16.5,-4.907,-5.291,-4.989,-1.855,-7.77,-9.04,-8.19,-5.976,-6.887,0,0,0,0,0,0,0,0,0,0,0,0,0,0,0,0,
350,-16.64,-8.474,-12.85,8.549,-11.35,-1.179,-11.35,-3.764,-8.421,-8.802,-1.079,-6.145,-5.012,-6.18,-3.172,-3.2,0,0,0,0,0,0,0,0,0,0,0,0,0,0,0,0,
351,-15.73,-12.12,-10.49,7.045,-8.964,-0.3776,-4.718,5.806,-4.248,-5.583,0.5954,-6.165,-3.836,-5.233,-3.183,-3.438,0,0,0,0,0,0,0,0,0,0,0,0,0,0,0,0,
352,-21.4,-20.36,-10.76,4.006,-10.5,-6.678,-6.814,3.801,-5.432,-6.598,-3.717,-8.79,-10.31,-9.602,-8.82,-7.559,0,0,0,0,0,0,0,0,0,0,0,0,0,0,0,0,
353,-21.1,-15.69,-15.33,2.851,-14.51,-8.588,-8.775,5.638,-12.55,-10.11,-3.355,-6.89,-13.45,-8.162,-9.569,-5.156,0,0,0,0,0,0,0,0,0,0,0,0,0,0,0,0,
354,-8.431,-6.359,-11.25,7.641,-10.22,-1.153,-2.179,6.942,-9.138,-5.587,3.536,-5.046,-10.12,-2.758,-6.075,-1.081,0,0,0,0,0,0,0,0,0,0,0,0,0,0,0,0,
355,-3.913,-10.56,-7.789,9.195,-7.897,0.5262,2.053,0.3138,-5.136,-2.558,-6.049,-8.011,-12.9,-5.505,-10.05,-5.279,0,0,0,0,0,0,0,0,0,0,0,0,0,0,0,0,
356,-5.229,-11.43,-12.8,4.487,-12.68,-5.205,4.195,1.411,-11.67,-7.915,-18.34,-8.913,-16.19,-8.971,-12.93,-7.387,0,0,0,0,0,0,0,0,0,0,0,0,0,0,0,0,
357,-5.143,-1.998,-8.819,5.043,-8.1,-2.638,4.55,4.547,-8.992,-8.101,-10.95,-7.4,-10.53,-4.544,-6.956,-1.425,0,0,0,0,0,0,0,0,0,0,0,0,0,0,0,0,
358,-12.04,-2.024,0.5489,8.387,0.8115,2.857,-11.0,-1.173,-0.2675,-3.236,-4.72,-8.717,-7.43,-2.75,-4.339,-0.1033,0,0,0,0,0,0,0,0,0,0,0,0,0,0,0,0,
359,-12.85,-9.044,-4.739,2.308,-4.074,-2.493,-15.9,-1.653,-6.182,-4.407,-6.052,-9.7,-7.327,-4.848,-5.075,-2.761,0,0,0,0,0,0,0,0,0,0,0,0,0,0,0,0,
360,0.566,-9.293,-13.11,-1.319,-11.89,-6.025,-1.281,3.081,-12.61,-4.745,-6.067,-9.607,-4.714,-2.916,-3.417,-1.41,0,0,0,0,0,0,0,0,0,0,0,0,0,0,0,0,
361,1.789,-8.456,-15.03,5.429,-14.3,0.0502,-17.88,-1.284,-12.69,-1.8,-14.43,-13.09,-10.0,-3.799,-6.674,-3.547,0,0,0,0,0,0,0,0,0,0,0,0,0,0,0,0,
362,-14.09,-11.59,-19.04,5.135,-17.81,1.825,-37.62,-6.586,-18.44,-5.276,-16.78,-15.21,-15.89,-7.414,-9.182,-7.016,0,0,0,0,0,0,0,0,0,0,0,0,0,0,0,0,
363,-20.09,-9.783,-10.9,1.693,-9.304,2.997,-5.949,-2.006,-13.41,-6.445,0.3411,-8.693,-4.035,0.6953,0.5623,1.765,0,0,0,0,0,0,0,0,0,0,0,0,0,0,0,0,
364,-9.228,-0.8977,10.87,9.275,10.35,13.34,16.17,6.136,9.675,5.753,10.55,0.915,13.13,14.97,11.7,14.77,0,0,0,0,0,0,0,0,0,0,0,0,0,0,0,0,
365,4.725,2.113,15.04,13.87,13.33,18.69,1.519,12.58,20.78,16.95,10.22,6.436,16.72,17.43,14.45,18.91,0,0,0,0,0,0,0,0,0,0,0,0,0,0,0,0,
366,10.15,-3.069,4.832,9.272,4.579,11.81,12.16,16.05,11.99,15.4,17.33,10.23,14.2,12.24,17.13,21.44,0,0,0,0,0,0,0,0,0,0,0,0,0,0,0,0,
367,4.154,-4.27,2.389,7.299,2.55,3.417,31.94,17.24,7.163,10.79,18.23,10.86,13.82,8.955,18.6,22.3,0,0,0,0,0,0,0,0,0,0,0,0,0,0,0,0,
368,-4.38,-2.943,-3.656,8.712,-4.017,-2.49,12.4,17.88,6.865,6.275,4.321,2.106,5.627,0.5755,8.66,10.47,0,0,0,0,0,0,0,0,0,0,0,0,0,0,0,0,
369,-8.951,-8.146,-14.39,5.997,-13.88,-5.151,-9.82,11.09,-4.633,-4.041,-5.922,-5.795,-8.02,-8.81,-1.428,-0.028,0,0,0,0,0,0,0,0,0,0,0,0,0,0,0,0,
370,-10.02,-15.89,-12.17,-6.806,-11.01,-3.736,0.5927,-1.586,-11.44,-9.009,-6.94,-1.109,-8.848,-3.89,1.115,5.681,0,0,0,0,0,0,0,0,0,0,0,0,0,0,0,0,
371,-9.405,-17.52,-5.451,-14.81,-4.531,-2.693,10.34,-4.413,0.9151,-0.647,-7.681,1.453,-3.743,3.453,0.6442,7.211,0,0,0,0,0,0,0,0,0,0,0,0,0,0,0,0,
372,-16.49,-12.54,-5.115,0.7514,-4.106,-3.87,-9.305,3.151,6.093,2.569,-10.48,-7.135,-8.358,-3.0,-8.445,-4.098,0,0,0,0,0,0,0,0,0,0,0,0,0,0,0,0,
373,-28.36,-10.85,-8.804,14.0,-8.079,-8.355,-25.7,7.937,-6.936,-6.099,-12.64,-11.11,-11.47,-10.5,-8.581,-7.252,0,0,0,0,0,0,0,0,0,0,0,0,0,0,0,0,
374,-25.0,-16.9,-20.68,2.128,-20.23,-16.33,-8.419,2.341,-17.83,-11.82,-12.19,-10.97,-9.099,-13.05,-5.359,-5.761,0,0,0,0,0,0,0,0,0,0,0,0,0,0,0,0,
375,-11.03,-19.65,-30.62,-8.423,-29.37,-18.75,0.6297,-6.947,-23.48,-15.32,-10.41,-17.61,-12.31,-18.09,-12.11,-14.14,0,0,0,0,0,0,0,0,0,0,0,0,0,0,0,0,
376,-7.189,-14.71,-23.75,-2.533,-22.01,-10.74,-23.96,-3.391,-25.44,-19.23,-7.518,-19.36,-13.89,-16.64,-14.67,-17.11,0,0,0,0,0,0,0,0,0,0,0,0,0,0,0,0,
377,-11.44,-11.32,-14.9,3.882,-13.71,-2.667,-23.71,3.915,-17.55,-13.43,-2.865,-12.45,-10.38,-7.824,-8.363,-9.248,0,0,0,0,0,0,0,0,0,0,0,0,0,0,0,0,
378,-13.93,-13.97,-15.34,2.321,-14.72,-2.935,6.03,-3.352,-9.293,-5.845,-2.808,-12.01,-13.1,-6.719,-8.853,-8.773,0,0,0,0,0,0,0,0,0,0,0,0,0,0,0,0,
379,-16.17,-16.61,-14.15,0.404,-13.75,-4.908,-0.5092,-5.078,-7.644,-7.393,-5.748,-14.54,-15.59,-7.311,-12.34,-11.04,0,0,0,0,0,0,0,0,0,0,0,0,0,0,0,0,
380,-20.81,-14.04,-11.18,6.59,-10.76,-1.802,-17.87,7.266,-4.848,-5.658,-2.757,-9.371,-9.871,-0.905,-8.081,-3.092,0,0,0,0,0,0,0,0,0,0,0,0,0,0,0,0,
381,-20.91,-13.83,-13.84,9.098,-13.24,-0.5082,-7.364,7.434,-3.859,0.1517,-5.841,-5.657,-8.735,-0.6959,-5.707,2.207,0,0,0,0,0,0,0,0,0,0,0,0,0,0,0,0,
382,-10.97,-18.57,-18.16,-0.0957,-16.96,-4.537,-20.21,0.1617,-12.41,-3.511,-18.15,-7.628,-12.87,-6.345,-7.909,-0.6264,0,0,0,0,0,0,0,0,0,0,0,0,0,0,0,0,
383,-8.14,-15.7,-16.37,0.1444,-14.59,-4.387,-37.88,4.383,-18.51,-7.67,-14.55,-5.666,-8.833,-4.523,-3.189,1.442,0,0,0,0,0,0,0,0,0,0,0,0,0,0,0,0,
384,-20.4,-8.585,-8.968,12.69,-7.77,-0.1046,-6.169,7.447,-10.98,-3.38,-1.378,-2.978,-2.664,-2.596,3.301,4.38,0,0,0,0,0,0,0,0,0,0,0,0,0,0,0,0,
385,-17.32,-8.586,-4.814,14.72,-4.334,-0.9334,12.89,0.6766,-3.666,-3.379,-1.078,-7.724,-2.259,-6.427,2.803,-0.2701,0,0,0,0,0,0,0,0,0,0,0,0,0,0,0,0,
386,3.803,-7.983,-4.323,6.214,-3.538,-2.329,-6.169,-3.814,-2.936,-7.198,1.555,-12.58,1.815,-4.769,2.73,-3.66,0,0,0,0,0,0,0,0,0,0,0,0,0,0,0,0,
387,3.298,-4.701,-1.34,2.712,-0.5791,1.859,-3.208,0.4147,3.763,-3.46,6.489,-13.29,4.393,-0.245,0.6974,-5.282,0,0,0,0,0,0,0,0,0,0,0,0,0,0,0,0,
388,-13.1,-7.993,-4.158,8.128,-3.821,2.772,3.78,5.878,7.169,-1.129,-8.219,-16.24,-10.28,-4.497,-12.04,-12.37,0,0,0,0,0,0,0,0,0,0,0,0,0,0,0,0,
389,-11.6,-14.94,-15.39,11.14,-14.73,-2.857,-19.29,3.928,-6.618,-8.128,-24.9,-18.12,-29.04,-12.03,-23.42,-16.88,0,0,0,0,0,0,0,0,0,0,0,0,0,0,0,0,
390,-5.585,-17.63,-18.06,2.108,-17.2,-6.553,-30.03,-1.732,-18.6,-13.92,-26.39,-13.68,-30.11,-14.41,-22.54,-12.55,0,0,0,0,0,0,0,0,0,0,0,0,0,0,0,0,
391,-12.03,-16.74,-12.1,-3.647,-11.5,-9.756,-10.51,-4.156,-16.75,-14.07,-25.49,-9.36,-19.36,-13.01,-16.01,-5.816,0,0,0,0,0,0,0,0,0,0,0,0,0,0,0,0,
392,-14.06,-16.04,-9.715,3.105,-8.947,-14.0,-0.0943,-4.688,-13.73,-11.83,-17.63,-7.933,-9.291,-8.23,-7.22,-0.3089,0,0,0,0,0,0,0,0,0,0,0,0,0,0,0,0,
393,-4.533,-10.2,-5.541,4.346,-5.098,-8.819,-10.83,-3.842,-9.259,-6.042,-1.877,-7.013,-1.076,-2.094,1.601,1.952,0,0,0,0,0,0,0,0,0,0,0,0,0,0,0,0,
394,5.333,1.051,-3.197,-0.1137,-3.708,-1.262,-12.12,-0.4005,-2.056,-1.683,-1.112,-9.064,0.0014,-2.502,1.979,-1.54,0,0,0,0,0,0,0,0,0,0,0,0,0,0,0,0,
395,5.101,-1.445,-11.98,1.595,-11.89,-6.35,-1.133,3.09,-5.969,-5.516,-11.4,-12.21,-8.621,-8.44,-5.073,-5.405,0,0,0,0,0,0,0,0,0,0,0,0,0,0,0,0,
396,-3.644,-14.27,-11.6,0.4954,-10.34,-7.766,-0.4217,4.93,-14.18,-9.99,-12.3,-10.19,-13.85,-8.316,-9.248,-3.18,0,0,0,0,0,0,0,0,0,0,0,0,0,0,0,0,
397,-7.154,-11.51,1.079,-2.637,1.368,3.535,-2.615,5.816,-8.364,-5.99,-8.354,-4.899,-8.856,-1.225,-7.5,2.216,0,0,0,0,0,0,0,0,0,0,0,0,0,0,0,0,
398,-8.99,-4.037,-4.178,3.377,-4.455,3.496,-2.928,6.448,-0.1686,0.3441,-7.018,-2.342,-2.886,1.442,-4.624,3.51,0,0,0,0,0,0,0,0,0,0,0,0,0,0,0,0,
399,-16.31,-7.917,-17.41,8.724,-16.08,-6.287,-6.415,6.463,-2.477,0.1624,-4.729,-3.157,2.184,-1.137,0.1403,2.362,0,0,0,0,0,0,0,0,0,0,0,0,0,0,0,0,
400,-13.6,-6.781,-11.52,5.679,-10.22,-4.909,3.087,4.644,-0.8072,-2.131,0.5671,-4.005,11.59,-0.5168,10.29,5.909,0,0,0,0,0,0,0,0,0,0,0,0,0,0,0,0,
401,-5.333,-1.89,-3.958,3.277,-4.158,-3.159,9.886,1.335,7.134,-0.6399,5.887,-3.399,16.05,0.892,14.08,7.854,0,0,0,0,0,0,0,0,0,0,0,0,0,0,0,0,
402,-6.284,-7.371,-6.543,4.958,-6.449,-6.71,-10.43,-1.158,4.045,-0.2348,0.6734,-2.62,7.187,-1.116,3.648,2.142,0,0,0,0,0,0,0,0,0,0,0,0,0,0,0,0,
403,-5.319,-16.36,-8.66,3.946,-8.034,-1.138,-23.18,-1.144,-6.802,-1.417,-10.69,-0.8783,0.6449,0.1474,-0.8616,2.405,0,0,0,0,0,0,0,0,0,0,0,0,0,0,0,0,
404,-5.362,-21.04,-12.97,-2.584,-12.43,4.058,-11.52,2.518,-9.475,2.236,-8.132,2.741,6.763,4.947,7.87,10.37,0,0,0,0,0,0,0,0,0,0,0,0,0,0,0,0,
405,-5.958,-12.7,-10.62,-1.664,-9.447,-0.0945,0.7741,8.775,-4.762,6.135,0.8166,4.6,12.04,5.759,10.11,10.12,0,0,0,0,0,0,0,0,0,0,0,0,0,0,0,0,
406,11.65,8.019,7.767,11.41,8.524,1.705,16.68,12.67,3.46,5.764,4.194,4.607,14.14,6.661,8.313,7.469,0,0,0,0,0,0,0,0,0,0,0,0,0,0,0,0,
407,18.11,14.22,17.62,13.24,16.88,8.197,21.51,13.27,14.53,8.177,11.97,5.428,18.22,10.32,12.74,11.2,0,0,0,0,0,0,0,0,0,0,0,0,0,0,0,0,
408,-3.276,3.689,7.684,0.6497,7.171,6.194,-5.604,11.31,14.09,9.658,11.67,2.276,11.9,5.903,9.933,9.045,0,0,0,0,0,0,0,0,0,0,0,0,0,0,0,0,
409,-1.78,2.78,0.3834,-3.706,0.9296,-0.5233,-8.866,2.104,-2.02,1.077,-4.384,-2.675,-0.4707,-3.604,2.643,4.919,0,0,0,0,0,0,0,0,0,0,0,0,0,0,0,0,
410,18.24,7.059,5.218,-7.204,5.516,-6.024,25.66,-6.092,-8.783,-5.321,-6.388,1.936,3.184,-1.724,7.308,11.98,0,0,0,0,0,0,0,0,0,0,0,0,0,0,0,0,
411,9.474,3.951,11.86,-15.95,11.48,-4.473,23.32,0.9498,3.611,2.329,6.031,9.936,16.63,9.013,15.23,18.62,0,0,0,0,0,0,0,0,0,0,0,0,0,0,0,0,
412,1.814,8.053,15.43,-4.383,14.71,10.3,9.056,11.66,18.09,13.04,11.93,8.961,23.92,15.06,16.97,15.65,0,0,0,0,0,0,0,0,0,0,0,0,0,0,0,0,
413,24.09,20.52,17.6,16.56,16.26,21.31,32.71,11.6,23.88,15.36,15.98,2.731,23.32,12.4,15.23,8.805,0,0,0,0,0,0,0,0,0,0,0,0,0,0,0,0,
414,34.12,19.54,16.54,8.818,14.76,11.44,20.38,7.473,15.27,9.414,12.66,-3.585,15.0,5.376,9.462,2.158,0,0,0,0,0,0,0,0,0,0,0,0,0,0,0,0,
415,19.62,6.359,13.98,-9.016,12.66,1.77,-15.99,7.182,2.515,3.695,4.806,-5.218,10.72,5.687,6.99,3.617,0,0,0,0,0,0,0,0,0,0,0,0,0,0,0,0,
416,12.89,3.566,16.31,-3.233,15.59,9.878,12.65,9.421,10.44,7.929,17.75,1.132,17.73,12.68,10.67,10.99,0,0,0,0,0,0,0,0,0,0,0,0,0,0,0,0,
417,12.42,10.41,18.61,2.421,18.14,13.51,38.19,3.998,24.65,12.58,29.81,6.454,20.02,11.16,10.19,12.63,0,0,0,0,0,0,0,0,0,0,0,0,0,0,0,0,
418,10.36,11.67,17.6,-9.829,17.04,4.289,10.68,-4.814,18.25,8.171,16.31,9.755,16.33,8.391,10.2,16.36,0,0,0,0,0,0,0,0,0,0,0,0,0,0,0,0,
419,20.09,11.75,19.74,-12.74,18.25,3.275,12.0,1.307,8.515,9.218,10.41,14.14,17.56,13.92,14.79,21.98,0,0,0,0,0,0,0,0,0,0,0,0,0,0,0,0,
420,24.39,13.07,17.54,-5.28,15.81,7.274,32.52,3.714,8.726,14.22,17.25,8.87,16.22,11.51,12.21,13.76,0,0,0,0,0,0,0,0,0,0,0,0,0,0,0,0,
421,11.53,7.97,9.405,-6.814,9.193,5.412,14.26,-10.23,8.307,8.526,11.37,1.147,12.65,4.994,8.61,6.568,0,0,0,0,0,0,0,0,0,0,0,0,0,0,0,0,
422,12.34,5.749,11.59,-7.593,11.63,8.991,0.5489,-5.861,10.26,6.566,8.099,6.096,15.3,9.693,13.63,13.63,0,0,0,0,0,0,0,0,0,0,0,0,0,0,0,0,
423,16.77,9.259,16.44,-6.594,15.23,11.08,17.03,9.073,13.19,11.96,12.65,7.631,14.45,8.732,13.27,13.88,0,0,0,0,0,0,0,0,0,0,0,0,0,0,0,0,
424,-0.6955,4.695,10.23,-11.57,9.552,-0.8471,15.24,4.07,7.511,4.72,9.033,-3.146,6.833,-2.849,4.967,4.782,0,0,0,0,0,0,0,0,0,0,0,0,0,0,0,0,
425,-2.566,-1.042,4.984,-9.72,5.29,-7.903,-6.351,1.034,0.5472,-5.736,8.887,-9.429,2.955,-5.875,1.423,2.166,0,0,0,0,0,0,0,0,0,0,0,0,0,0,0,0,
426,17.11,2.93,3.522,-5.575,3.366,-1.782,-1.909,3.864,-1.538,-4.335,10.96,-7.112,3.664,-2.084,1.801,3.639,0,0,0,0,0,0,0,0,0,0,0,0,0,0,0,0,
427,12.61,5.936,3.284,-8.249,3.211,4.305,12.4,-1.16,0.5384,-0.2263,5.765,-1.68,8.26,1.934,4.871,7.399,0,0,0,0,0,0,0,0,0,0,0,0,0,0,0,0,
428,-0.0407,4.916,12.3,-4.116,12.32,7.435,2.282,2.947,7.608,3.897,10.61,3.372,14.86,6.788,12.1,14.5,0,0,0,0,0,0,0,0,0,0,0,0,0,0,0,0,
429,10.39,7.421,16.14,-0.2945,15.06,5.165,-1.337,7.163,8.63,6.95,17.74,3.715,14.72,5.777,15.72,17.33,0,0,0,0,0,0,0,0,0,0,0,0,0,0,0,0,
430,13.96,8.866,4.767,-6.902,3.714,-0.6146,12.16,0.4985,-0.156,4.315,11.71,3.724,12.56,2.797,14.97,16.07,0,0,0,0,0,0,0,0,0,0,0,0,0,0,0,0,
431,-4.81,3.788,3.33,-8.323,3.362,-0.4249,9.94,0.6097,-1.374,3.037,9.896,3.394,15.64,3.112,14.19,14.04,0,0,0,0,0,0,0,0,0,0,0,0,0,0,0,0,
432,-15.19,-1.179,13.0,-6.729,12.8,-3.008,0.5579,-5.976,4.831,1.787,9.944,-3.454,14.34,-1.318,10.18,9.374,0,0,0,0,0,0,0,0,0,0,0,0,0,0,0,0,
433,-0.3054,0.8667,9.544,-8.275,8.743,-11.48,5.853,-16.96,3.259,-3.877,5.566,-6.676,8.469,-4.642,6.019,5.934,0,0,0,0,0,0,0,0,0,0,0,0,0,0,0,0,
434,23.58,7.798,2.121,-3.108,1.795,-7.632,12.1,-1.361,-0.7989,-2.763,9.946,-1.941,7.392,0.8603,5.779,5.055,0,0,0,0,0,0,0,0,0,0,0,0,0,0,0,0,
435,26.25,10.48,4.634,-2.816,4.838,3.47,-3.63,9.97,-0.5087,3.287,6.5,-3.293,5.63,3.093,2.866,1.224,0,0,0,0,0,0,0,0,0,0,0,0,0,0,0,0,
436,0.916,3.153,6.273,-11.8,6.08,3.206,-24.95,-5.856,0.1101,2.576,-7.012,-6.976,4.406,1.727,0.298,-0.153,0,0,0,0,0,0,0,0,0,0,0,0,0,0,0,0,
437,-12.87,-2.696,8.325,-6.936,7.345,0.5206,-6.861,-6.284,6.085,3.516,1.166,0.608,15.04,7.976,7.32,9.967,0,0,0,0,0,0,0,0,0,0,0,0,0,0,0,0,
438,2.589,3.912,16.14,4.246,15.02,6.353,27.69,8.025,16.18,11.67,15.45,11.28,26.09,15.21,15.56,23.24,0,0,0,0,0,0,0,0,0,0,0,0,0,0,0,0,
439,5.932,8.239,16.05,-0.2965,15.27,12.14,24.41,6.546,16.83,16.25,11.16,13.76,23.02,16.0,16.29,27.34,0,0,0,0,0,0,0,0,0,0,0,0,0,0,0,0,
440,-6.424,1.274,8.258,-7.822,7.672,11.9,5.653,3.758,11.42,15.32,9.27,11.67,17.87,15.68,16.43,25.56,0,0,0,0,0,0,0,0,0,0,0,0,0,0,0,0,
441,4.894,-0.6612,10.26,-7.431,10.07,8.989,0.1003,7.004,13.4,14.91,15.15,12.01,20.92,16.53,19.47,25.36,0,0,0,0,0,0,0,0,0,0,0,0,0,0,0,0,
442,21.55,4.794,17.22,-6.478,17.11,8.79,1.856,6.39,21.23,15.97,18.56,15.46,24.57,17.05,21.18,25.88,0,0,0,0,0,0,0,0,0,0,0,0,0,0,0,0,
443,15.51,5.592,12.38,-4.246,11.46,11.63,11.74,5.013,22.96,16.93,23.39,15.83,25.51,16.89,20.69,25.22,0,0,0,0,0,0,0,0,0,0,0,0,0,0,0,0,
444,11.67,4.362,6.085,-2.401,5.045,12.96,12.57,0.4484,14.78,16.8,22.55,14.52,27.35,18.87,21.12,27.15,0,0,0,0,0,0,0,0,0,0,0,0,0,0,0,0,
445,17.18,7.561,14.97,-2.748,14.69,16.12,3.134,0.3034,11.34,20.17,17.39,19.28,30.65,26.3,24.28,31.98,0,0,0,0,0,0,0,0,0,0,0,0,0,0,0,0,
446,15.43,14.24,24.2,3.984,23.73,22.16,9.939,10.9,22.1,27.92,22.2,20.33,33.8,29.09,24.02,29.35,0,0,0,0,0,0,0,0,0,0,0,0,0,0,0,0,
447,10.62,18.17,22.68,11.3,21.74,21.17,18.98,10.24,30.43,26.73,27.0,10.9,32.83,20.57,17.27,19.04,0,0,0,0,0,0,0,0,0,0,0,0,0,0,0,0,
448,6.985,14.42,26.41,5.708,25.52,17.36,18.46,2.931,27.44,17.46,25.7,8.277,28.02,17.28,15.45,17.87,0,0,0,0,0,0,0,0,0,0,0,0,0,0,0,0,
449,4.647,10.34,29.4,0.7277,28.13,20.03,28.33,9.398,25.37,18.27,25.64,14.73,26.69,23.5,19.93,24.71,0,0,0,0,0,0,0,0,0,0,0,0,0,0,0,0,
450,9.054,10.27,18.78,6.397,17.89,21.08,34.47,14.31,25.75,24.53,17.21,15.98,27.76,23.94,17.88,23.64,0,0,0,0,0,0,0,0,0,0,0,0,0,0,0,0,
451,15.92,8.155,16.82,5.843,16.81,18.82,14.55,14.32,23.93,22.8,5.451,15.59,23.98,20.28,11.61,18.66,0,0,0,0,0,0,0,0,0,0,0,0,0,0,0,0,
452,14.48,6.829,23.94,-1.771,22.74,18.04,-6.776,15.49,21.51,18.91,4.948,15.09,17.05,17.47,8.98,16.89,0,0,0,0,0,0,0,0,0,0,0,0,0,0,0,0,
453,7.028,11.0,16.33,1.35,14.48,14.63,-1.283,4.37,16.01,15.22,4.229,9.29,14.09,12.68,9.409,15.28,0,0,0,0,0,0,0,0,0,0,0,0,0,0,0,0,
454,7.938,14.26,10.25,6.956,10.15,12.22,13.68,-3.305,13.33,12.54,7.276,9.34,18.6,14.69,14.81,17.16,0,0,0,0,0,0,0,0,0,0,0,0,0,0,0,0,
455,12.38,10.62,16.14,1.241,16.1,11.83,7.908,6.061,19.25,17.58,19.84,16.2,21.91,20.3,18.68,19.58,0,0,0,0,0,0,0,0,0,0,0,0,0,0,0,0,
456,7.079,5.041,14.82,-3.154,13.7,6.432,-8.059,7.912,16.89,19.51,17.16,15.1,15.33,14.53,13.85,16.41,0,0,0,0,0,0,0,0,0,0,0,0,0,0,0,0,
457,9.674,6.156,13.47,-0.5888,12.86,3.936,-4.169,2.973,5.679,11.17,10.96,9.747,11.13,6.637,12.14,15.73,0,0,0,0,0,0,0,0,0,0,0,0,0,0,0,0,
458,19.74,7.984,15.91,0.6743,15.03,4.83,14.99,2.4,6.271,5.658,20.35,7.975,13.12,4.444,13.56,16.15,0,0,0,0,0,0,0,0,0,0,0,0,0,0,0,0,
459,6.668,4.7,8.023,0.6634,7.152,0.9461,18.75,-1.988,8.202,3.4,14.38,6.746,7.729,2.9,6.808,10.44,0,0,0,0,0,0,0,0,0,0,0,0,0,0,0,0,
460,-4.417,10.64,7.131,-0.4909,7.935,7.487,4.803,1.825,2.29,4.179,1.487,8.972,5.711,11.58,4.484,9.027,0,0,0,0,0,0,0,0,0,0,0,0,0,0,0,0,
461,17.07,22.13,22.85,2.105,22.72,23.73,6.287,12.58,11.34,17.42,11.28,12.36,15.43,24.75,11.76,13.21,0,0,0,0,0,0,0,0,0,0,0,0,0,0,0,0,
462,26.45,17.14,29.02,9.087,26.51,22.62,23.2,8.363,26.34,26.32,10.87,9.22,15.02,19.9,11.08,11.85,0,0,0,0,0,0,0,0,0,0,0,0,0,0,0,0,
463,9.973,8.296,18.98,4.976,17.17,10.48,18.34,6.094,18.35,15.4,-5.266,5.788,4.365,6.996,3.686,7.912,0,0,0,0,0,0,0,0,0,0,0,0,0,0,0,0,
464,12.29,12.21,7.741,-1.783,7.542,6.082,1.251,12.73,2.572,3.4,-2.705,3.796,0.1793,1.425,-1.129,3.603,0,0,0,0,0,0,0,0,0,0,0,0,0,0,0,0,
465,20.05,11.74,3.413,3.554,3.712,2.507,1.52,3.194,-1.83,-0.9962,2.796,-2.074,-1.861,-2.923,-6.062,-2.772,0,0,0,0,0,0,0,0,0,0,0,0,0,0,0,0,
466,5.868,5.87,8.949,4.817,9.424,2.223,1.046,-5.551,-1.121,-3.064,-1.718,-2.792,-1.435,-0.4327,-5.354,-2.653,0,0,0,0,0,0,0,0,0,0,0,0,0,0,0,0,
467,5.544,11.71,17.98,3.193,17.52,11.51,-4.329,4.448,7.099,4.097,0.4754,3.085,4.36,10.97,1.319,1.405,0,0,0,0,0,0,0,0,0,0,0,0,0,0,0,0,
468,24.52,18.91,20.59,8.367,19.12,15.5,6.444,8.053,17.63,13.22,1.415,2.913,4.88,13.96,2.013,-1.088,0,0,0,0,0,0,0,0,0,0,0,0,0,0,0,0,
469,22.16,14.86,17.48,4.77,16.72,11.63,11.76,5.705,14.34,11.01,0.5039,-0.3533,4.764,9.988,2.968,-1.985,0,0,0,0,0,0,0,0,0,0,0,0,0,0,0,0,
470,5.814,8.976,14.95,-1.098,14.81,11.29,0.6205,9.581,9.741,8.669,9.314,-0.4623,12.07,9.825,9.593,3.101,0,0,0,0,0,0,0,0,0,0,0,0,0,0,0,0,
471,2.091,7.071,16.25,3.689,15.34,10.33,9.881,5.95,16.24,9.538,11.41,-2.337,13.22,6.325,7.899,2.518,0,0,0,0,0,0,0,0,0,0,0,0,0,0,0,0,
472,8.394,6.717,17.77,1.947,16.53,6.876,29.44,-0.8272,16.94,3.287,1.589,-3.461,5.326,0.4213,0.944,-1.01,0,0,0,0,0,0,0,0,0,0,0,0,0,0,0,0,
473,20.4,6.562,14.82,-4.549,14.19,8.715,16.35,0.7739,9.84,-0.1015,-0.1653,0.0089,2.362,2.917,1.605,2.078,0,0,0,0,0,0,0,0,0,0,0,0,0,0,0,0,
474,24.57,6.164,9.19,2.356,8.661,10.8,3.288,5.564,8.528,6.026,5.208,2.362,3.288,7.701,1.915,4.637,0,0,0,0,0,0,0,0,0,0,0,0,0,0,0,0,
475,9.672,7.07,4.448,9.87,3.987,6.381,22.49,10.88,7.145,8.154,2.465,1.237,0.7566,7.123,-2.157,2.339,0,0,0,0,0,0,0,0,0,0,0,0,0,0,0,0,
476,-0.1445,7.556,4.867,2.901,5.351,3.638,15.58,11.44,2.531,6.031,-5.105,-0.1534,-0.7058,7.497,-2.244,2.08,0,0,0,0,0,0,0,0,0,0,0,0,0,0,0,0,
477,8.416,8.377,13.21,-0.1353,13.59,8.403,-21.93,10.77,4.315,8.524,-1.517,0.7698,3.29,10.94,1.745,5.26,0,0,0,0,0,0,0,0,0,0,0,0,0,0,0,0,
478,15.37,13.63,19.8,7.851,18.52,12.89,-11.79,12.85,9.832,11.87,13.64,4.807,11.37,13.25,9.876,11.54,0,0,0,0,0,0,0,0,0,0,0,0,0,0,0,0,
479,10.56,13.03,14.78,-1.848,12.95,10.64,24.69,5.325,15.45,13.5,21.05,10.55,19.29,15.0,19.89,19.18,0,0,0,0,0,0,0,0,0,0,0,0,0,0,0,0,
480,0.2336,3.246,5.906,-16.97,4.766,6.832,20.42,4.629,21.73,14.81,12.01,13.41,16.36,13.32,17.14,17.38,0,0,0,0,0,0,0,0,0,0,0,0,0,0,0,0,
481,-2.944,2.617,-0.0627,5.07,-0.9004,6.329,3.029,16.18,13.14,10.12,-4.004,6.843,0.0396,3.396,0.9456,5.0,0,0,0,0,0,0,0,0,0,0,0,0,0,0,0,0,
482,6.307,9.882,-6.196,29.15,-6.483,6.386,2.06,4.343,-10.84,-0.3958,-16.0,-4.574,-10.76,-4.514,-9.543,-3.729,0,0,0,0,0,0,0,0,0,0,0,0,0,0,0,0,
483,8.521,9.004,-6.994,15.02,-6.565,7.391,2.211,-5.854,-16.34,-3.984,-15.35,-9.025,-7.629,-1.548,-10.34,-5.844,0,0,0,0,0,0,0,0,0,0,0,0,0,0,0,0,
484,-0.7059,4.85,-2.29,8.102,-1.864,10.3,-5.336,16.31,-2.058,0.2885,-10.21,-9.572,-9.314,-0.0555,-14.1,-9.234,0,0,0,0,0,0,0,0,0,0,0,0,0,0,0,0,
485,2.018,5.56,-3.822,22.88,-3.218,9.714,-18.07,20.83,-3.033,-0.8544,-15.23,-9.975,-17.42,-4.309,-18.4,-10.46,0,0,0,0,0,0,0,0,0,0,0,0,0,0,0,0,
486,9.129,8.739,-5.206,21.29,-4.738,7.23,-12.81,3.721,-9.989,-3.957,-15.07,-4.227,-11.88,-1.899,-12.44,-4.269,0,0,0,0,0,0,0,0,0,0,0,0,0,0,0,0,
487,0.2074,8.503,-2.484,13.03,-3.106,7.16,-6.198,5.377,-1.535,0.5522,-0.4696,0.5264,-0.0728,2.357,-3.982,2.427,0,0,0,0,0,0,0,0,0,0,0,0,0,0,0,0,
488,-6.069,2.679,-9.657,14.28,-9.901,4.707,-36.63,9.216,-1.094,2.274,3.739,-0.7333,0.9667,0.4344,-1.082,5.988,0,0,0,0,0,0,0,0,0,0,0,0,0,0,0,0,
489,2.822,3.476,-14.18,11.07,-12.96,4.183,-38.56,7.747,-8.245,-0.1896,-3.143,1.827,0.2353,2.225,2.117,8.311,0,0,0,0,0,0,0,0,0,0,0,0,0,0,0,0,
490,10.64,10.96,-2.879,8.92,-2.19,11.06,16.77,9.221,0.2669,3.066,-1.853,2.214,-0.7445,4.006,0.2939,3.483,0,0,0,0,0,0,0,0,0,0,0,0,0,0,0,0,
491,12.32,8.318,3.058,14.44,2.521,11.73,27.96,1.65,3.736,1.989,-2.169,-6.478,-8.894,-2.369,-10.31,-6.965,0,0,0,0,0,0,0,0,0,0,0,0,0,0,0,0,
492,5.802,4.389,2.428,17.04,1.886,5.787,-5.663,4.427,-3.227,-3.587,-9.606,-9.027,-10.26,-1.943,-13.46,-9.677,0,0,0,0,0,0,0,0,0,0,0,0,0,0,0,0,
493,-9.646,6.998,4.305,15.74,3.826,6.67,-5.287,19.47,5.473,1.336,-10.85,-3.958,-3.729,4.738,-9.545,-7.88,0,0,0,0,0,0,0,0,0,0,0,0,0,0,0,0,
494,-13.8,0.456,-5.669,12.82,-6.053,3.474,0.6802,10.55,11.0,3.895,-9.803,-4.74,-5.98,-1.221,-12.15,-11.32,0,0,0,0,0,0,0,0,0,0,0,0,0,0,0,0,
495,-3.503,-5.646,-15.97,8.586,-15.69,-9.603,-12.58,-3.251,-6.032,-6.73,-11.98,-6.877,-9.376,-11.91,-12.62,-11.46,0,0,0,0,0,0,0,0,0,0,0,0,0,0,0,0,
496,-0.5,0.3112,-8.412,6.924,-7.667,-12.23,-7.916,5.064,-17.27,-13.4,-7.986,-4.742,-4.226,-12.12,-6.91,-6.424,0,0,0,0,0,0,0,0,0,0,0,0,0,0,0,0,
497,-2.892,2.404,-2.112,9.084,-1.726,-1.785,-0.8689,9.973,-11.13,-10.24,-0.4891,-5.6,-2.417,-6.495,-8.949,-9.219,0,0,0,0,0,0,0,0,0,0,0,0,0,0,0,0,
498,0.1618,2.949,-4.214,11.91,-4.745,5.67,-19.19,3.482,-4.03,-4.359,-3.588,-9.25,-7.15,-2.848,-16.97,-16.51,0,0,0,0,0,0,0,0,0,0,0,0,0,0,0,0,
499,-3.425,5.232,-6.026,8.031,-6.343,6.29,-28.04,-1.975,-1.795,-1.711,-14.24,-9.673,-10.69,-5.447,-18.56,-14.51,0,0,0,0,0,0,0,0,0,0,0,0,0,0,0,0,
500,-16.18,-2.729,-11.63,2.839,-10.31,3.162,-6.448,-2.011,-2.124,-7.287,-14.95,-7.725,-10.97,-9.954,-14.11,-5.935,0,0,0,0,0,0,0,0,0,0,0,0,0,0,0,0,
501,-18.6,-5.543,-15.65,8.377,-14.02,-2.662,5.238,8.668,-3.648,-11.04,-5.902,-7.045,-9.407,-8.154,-10.25,-2.366,0,0,0,0,0,0,0,0,0,0,0,0,0,0,0,0,
502,-7.16,2.206,-14.77,9.39,-14.25,-8.28,-10.56,10.43,-8.933,-6.856,-3.131,-10.03,-8.823,-6.389,-7.694,-4.921,0,0,0,0,0,0,0,0,0,0,0,0,0,0,0,0,
503,0.55,-1.855,-15.15,1.743,-14.72,-9.053,-20.38,-7.051,-15.67,-6.51,-4.51,-14.19,-8.153,-8.442,-3.972,-6.776,0,0,0,0,0,0,0,0,0,0,0,0,0,0,0,0,
504,-4.334,-6.952,-10.72,8.802,-10.05,-5.208,-16.64,-8.373,-12.71,-8.826,-2.428,-13.13,-6.715,-7.278,-3.281,-6.131,0,0,0,0,0,0,0,0,0,0,0,0,0,0,0,0,
505,-13.62,0.5944,-7.804,16.31,-7.452,-3.93,-14.25,6.531,-5.415,-7.416,-6.032,-8.97,-10.11,-7.268,-8.33,-4.899,0,0,0,0,0,0,0,0,0,0,0,0,0,0,0,0,
506,-13.44,1.368,-18.11,6.543,-17.39,-8.271,-11.89,3.601,-8.313,-9.074,-13.29,-8.044,-14.72,-11.84,-10.54,-2.196,0,0,0,0,0,0,0,0,0,0,0,0,0,0,0,0,
507,-4.676,-5.312,-22.6,3.485,-21.32,-12.94,-16.56,-5.41,-14.38,-12.18,-13.22,-6.812,-13.71,-11.62,-7.637,0.7417,0,0,0,0,0,0,0,0,0,0,0,0,0,0,0,0,
508,-8.832,-5.916,-12.85,5.513,-12.06,-11.46,-27.3,-3.908,-12.93,-9.682,-13.13,-3.726,-12.19,-6.074,-6.372,1.229,0,0,0,0,0,0,0,0,0,0,0,0,0,0,0,0,
509,-24.22,-4.05,-9.766,-0.0642,-9.463,-1.85,-24.22,0.9311,-8.069,-4.546,-13.56,-4.16,-8.152,-0.5773,-3.676,2.033,0,0,0,0,0,0,0,0,0,0,0,0,0,0,0,0,
510,-15.49,1.105,-10.6,6.937,-9.97,8.024,-8.192,12.28,-0.6558,2.101,-1.907,-3.491,5.247,6.96,5.187,5.78,0,0,0,0,0,0,0,0,0,0,0,0,0,0,0,0,
511,12.98,9.515,-0.8684,19.21,-0.2534,8.293,6.01,16.09,10.51,10.24,11.37,1.038,14.78,11.93,11.12,7.801,0,0,0,0,0,0,0,0,0,0,0,0,0,0,0,0,
512,11.72,5.485,0.6462,14.06,0.9291,0.5564,-0.0074,1.773,11.1,10.4,7.627,-0.1632,6.395,4.156,4.566,3.15,0,0,0,0,0,0,0,0,0,0,0,0,0,0,0,0,
513,-21.51,-13.3,-16.0,4.987,-15.15,-7.197,-28.35,-0.5382,-6.208,-1.071,-3.063,-2.351,-6.284,-7.702,-4.341,-1.72,0,0,0,0,0,0,0,0,0,0,0,0,0,0,0,0,
514,-37.08,-24.42,-21.79,0.3308,-20.52,-9.939,-29.3,6.417,-15.93,-9.222,-2.314,5.63,-3.794,-7.061,0.1866,3.106,0,0,0,0,0,0,0,0,0,0,0,0,0,0,0,0,
515,-20.19,-13.45,-9.356,-0.2908,-8.692,-5.896,11.13,-1.988,-2.659,-3.787,4.312,13.71,6.623,1.452,9.861,12.74,0,0,0,0,0,0,0,0,0,0,0,0,0,0,0,0,
516,-4.521,3.052,-3.256,9.085,-2.758,2.543,20.5,-0.9697,8.208,4.617,3.897,13.55,8.079,5.896,9.643,15.51,0,0,0,0,0,0,0,0,0,0,0,0,0,0,0,0,
517,-8.553,4.526,-5.072,12.1,-4.436,7.27,-18.54,11.28,4.427,6.644,-1.306,9.751,3.66,5.828,4.122,9.277,0,0,0,0,0,0,0,0,0,0,0,0,0,0,0,0,
518,-13.21,0.5802,-3.6,4.436,-3.364,4.058,-34.49,2.75,3.743,4.558,-6.804,2.467,1.222,2.984,-0.3187,0.7025,0,0,0,0,0,0,0,0,0,0,0,0,0,0,0,0,
519,-6.807,4.337,0.2164,4.679,0.3336,2.832,-8.432,-4.077,8.296,3.05,-8.718,-1.184,1.991,3.924,-0.1177,0.5611,0,0,0,0,0,0,0,0,0,0,0,0,0,0,0,0,
520,-2.567,4.712,5.42,3.77,5.213,9.731,10.45,11.39,11.46,7.896,1.106,4.737,8.808,12.08,7.019,6.218,0,0,0,0,0,0,0,0,0,0,0,0,0,0,0,0,
521,0.9622,2.712,5.726,1.089,4.997,13.55,5.391,18.92,14.17,13.75,9.724,4.665,10.44,11.77,6.253,0.6125,0,0,0,0,0,0,0,0,0,0,0,0,0,0,0,0,
522,9.102,10.25,-1.996,15.61,-1.957,8.41,-4.296,11.17,7.807,7.359,-1.622,-3.917,-4.46,-0.8192,-6.198,-10.17,0,0,0,0,0,0,0,0,0,0,0,0,0,0,0,0,
523,1.202,8.537,-8.107,25.24,-7.324,0.7448,-17.73,3.14,-8.338,-4.189,-13.92,-2.672,-15.36,-6.647,-10.13,-6.977,0,0,0,0,0,0,0,0,0,0,0,0,0,0,0,0,
524,-17.07,-7.657,-12.25,14.38,-11.75,-2.878,-28.98,-0.9013,-16.12,-5.754,-11.63,4.819,-9.928,-2.268,-7.718,-0.4776,0,0,0,0,0,0,0,0,0,0,0,0,0,0,0,0,
525,-17.88,-6.231,-14.67,10.65,-14.13,2.219,-16.88,5.422,-10.22,-0.647,-14.21,4.683,-9.227,0.8962,-13.75,-4.482,0,0,0,0,0,0,0,0,0,0,0,0,0,0,0,0,
526,-16.38,6.209,-11.41,13.9,-10.89,7.667,-5.847,8.888,-4.431,1.045,-20.07,1.286,-17.49,-1.42,-18.14,-8.432,0,0,0,0,0,0,0,0,0,0,0,0,0,0,0,0,
527,-22.18,1.429,-12.11,7.426,-11.48,2.915,-21.03,-5.957,-8.148,-3.471,-13.21,-2.188,-16.95,-6.758,-12.47,-7.484,0,0,0,0,0,0,0,0,0,0,0,0,0,0,0,0,
528,-19.63,-3.966,-17.61,3.68,-16.11,-1.186,-24.93,-12.67,-12.94,-7.9,-9.606,-7.763,-8.182,-7.62,-5.084,-7.723,0,0,0,0,0,0,0,0,0,0,0,0,0,0,0,0,
529,-20.25,-1.143,-18.29,6.637,-16.69,-0.331,-6.494,2.014,-8.155,-5.819,-15.64,-9.439,-3.469,-4.186,-1.147,-8.391,0,0,0,0,0,0,0,0,0,0,0,0,0,0,0,0,
530,-17.69,-5.905,-17.36,4.934,-15.9,-6.957,1.7,10.01,-4.459,-4.032,-15.05,-5.614,-5.506,-6.135,-2.266,-8.048,0,0,0,0,0,0,0,0,0,0,0,0,0,0,0,0,
531,0.1347,-8.295,-17.65,1.729,-15.86,-14.92,-5.768,5.096,-13.59,-8.061,-15.39,-2.836,-10.74,-11.14,-8.367,-8.696,0,0,0,0,0,0,0,0,0,0,0,0,0,0,0,0,
532,-1.806,-4.395,-20.8,4.082,-19.63,-11.87,-21.49,1.527,-23.13,-11.15,-22.13,-2.378,-12.95,-11.21,-14.09,-11.03,0,0,0,0,0,0,0,0,0,0,0,0,0,0,0,0,
533,-15.99,-6.131,-22.82,7.851,-21.82,-3.595,-20.75,-1.684,-19.08,-9.661,-18.65,-1.062,-7.97,-6.696,-13.84,-12.44,0,0,0,0,0,0,0,0,0,0,0,0,0,0,0,0,
534,-7.484,-2.707,-10.27,7.0,-9.016,1.752,3.626,-0.4155,-6.263,-4.371,-11.06,1.261,-2.824,-1.143,-8.389,-9.609,0,0,0,0,0,0,0,0,0,0,0,0,0,0,0,0,
535,-8.711,2.242,-2.172,3.997,-2.531,-2.833,-3.654,7.328,-1.425,-0.4638,-13.25,0.6064,-7.124,-4.25,-6.675,-7.578,0,0,0,0,0,0,0,0,0,0,0,0,0,0,0,0,
536,-29.14,-13.06,-21.52,-0.1316,-21.84,-16.95,-32.24,1.277,-13.33,-9.016,-13.91,-3.879,-14.92,-17.74,-10.63,-10.57,0,0,0,0,0,0,0,0,0,0,0,0,0,0,0,0,
537,-27.81,-27.67,-36.81,-7.232,-34.35,-21.59,-19.92,-14.2,-24.81,-21.63,-11.35,-4.488,-14.31,-21.41,-11.6,-10.92,0,0,0,0,0,0,0,0,0,0,0,0,0,0,0,0,
538,-12.22,-17.34,-27.25,-8.951,-24.76,-12.2,-4.208,-8.712,-19.5,-17.97,-19.32,-0.4763,-12.06,-11.92,-14.25,-10.53,0,0,0,0,0,0,0,0,0,0,0,0,0,0,0,0,
539,-9.803,-8.374,-18.76,-4.379,-17.88,-8.128,-14.06,2.441,-12.6,-8.838,-29.89,-2.677,-19.15,-11.16,-25.49,-18.57,0,0,0,0,0,0,0,0,0,0,0,0,0,0,0,0,
540,-16.39,-14.2,-17.78,-1.895,-16.63,-10.76,-10.92,-6.644,-16.33,-12.69,-28.72,-7.91,-24.6,-16.25,-30.22,-23.67,0,0,0,0,0,0,0,0,0,0,0,0,0,0,0,0,
541,-19.12,-11.77,-14.45,3.435,-13.53,-9.446,-10.23,-6.843,-17.41,-15.37,-24.06,-3.789,-19.44,-11.18,-21.2,-16.16,0,0,0,0,0,0,0,0,0,0,0,0,0,0,0,0,
542,-13.31,-6.231,-16.65,6.665,-16.22,-9.286,-23.14,6.741,-13.89,-8.312,-21.28,4.222,-13.65,-5.794,-11.13,-6.479,0,0,0,0,0,0,0,0,0,0,0,0,0,0,0,0,
543,-10.01,-14.4,-22.4,-2.367,-20.86,-9.604,-18.41,-0.8668,-14.72,-5.338,-12.06,8.947,-8.042,-4.25,-1.977,3.72,0,0,0,0,0,0,0,0,0,0,0,0,0,0,0,0,
544,-14.96,-17.37,-18.94,-4.68,-17.26,-2.111,-3.671,-6.056,-9.793,-2.31,-1.307,14.87,3.056,4.271,8.569,15.79,0,0,0,0,0,0,0,0,0,0,0,0,0,0,0,0,
545,-16.21,-6.217,-11.33,6.035,-10.77,4.197,7.215,12.18,3.014,7.342,5.861,17.95,11.22,10.14,12.96,18.22,0,0,0,0,0,0,0,0,0,0,0,0,0,0,0,0,
546,-11.15,0.2496,-7.866,9.075,-7.364,1.909,3.583,10.61,4.941,8.636,12.89,13.59,9.797,4.448,7.61,11.04,0,0,0,0,0,0,0,0,0,0,0,0,0,0,0,0,
547,-3.689,-0.2704,-6.078,6.697,-5.346,-0.2313,-22.84,-5.28,-1.635,1.586,5.053,10.11,0.4973,-0.4877,-6.548,2.878,0,0,0,0,0,0,0,0,0,0,0,0,0,0,0,0,
548,1.876,-2.745,-9.816,6.989,-9.375,-1.694,-26.04,1.123,-3.938,-1.097,-20.83,7.79,-13.98,-3.094,-21.85,-6.734,0,0,0,0,0,0,0,0,0,0,0,0,0,0,0,0,
549,-3.257,-8.505,-19.53,2.027,-18.79,-7.559,1.31,4.817,-10.56,-4.48,-33.42,0.4612,-22.59,-9.071,-23.21,-12.54,0,0,0,0,0,0,0,0,0,0,0,0,0,0,0,0,
550,-10.84,-10.94,-19.74,-3.525,-18.37,-10.95,-0.5299,-3.109,-19.21,-10.12,-23.02,-4.676,-17.68,-11.3,-13.27,-9.099,0,0,0,0,0,0,0,0,0,0,0,0,0,0,0,0,
551,-8.527,-11.75,-11.62,-3.276,-10.66,-9.044,-18.47,-1.711,-15.18,-10.29,-12.92,-2.613,-9.53,-8.957,-7.804,-5.297,0,0,0,0,0,0,0,0,0,0,0,0,0,0,0,0,
552,-9.117,-16.44,-11.18,-4.097,-11.14,-9.33,-10.98,-8.731,-8.124,-8.674,-11.24,-0.4612,-5.271,-8.586,-6.076,-4.732,0,0,0,0,0,0,0,0,0,0,0,0,0,0,0,0,
553,-20.39,-16.33,-13.06,-5.756,-12.8,-10.13,-3.187,-22.17,-6.411,-8.224,-7.542,1.188,-0.1834,-7.88,-2.644,-2.064,0,0,0,0,0,0,0,0,0,0,0,0,0,0,0,0,
554,-22.87,-13.02,-13.52,-3.604,-12.55,-5.928,-9.667,-15.51,-3.138,-7.027,-5.145,4.773,0.1135,-7.692,-4.464,-1.232,0,0,0,0,0,0,0,0,0,0,0,0,0,0,0,0,
555,-10.69,-15.03,-23.42,-2.532,-22.37,-4.375,-20.0,-8.563,-8.21,-9.524,-16.38,3.186,-11.41,-14.03,-13.05,-7.454,0,0,0,0,0,0,0,0,0,0,0,0,0,0,0,0,
556,-7.633,-17.13,-32.76,-8.163,-31.36,-13.21,-31.24,-16.89,-22.61,-16.64,-26.85,-5.143,-19.17,-21.81,-18.13,-14.54,0,0,0,0,0,0,0,0,0,0,0,0,0,0,0,0,
557,-18.78,-19.23,-27.87,-14.54,-26.27,-23.99,-25.82,-18.21,-21.79,-22.27,-19.31,-10.15,-14.38,-22.81,-16.07,-15.06,0,0,0,0,0,0,0,0,0,0,0,0,0,0,0,0,
558,-23.64,-22.35,-20.52,-13.89,-19.81,-25.17,-12.51,-9.032,-12.56,-22.7,-13.24,-8.594,-13.84,-19.88,-13.16,-10.91,0,0,0,0,0,0,0,0,0,0,0,0,0,0,0,0,
559,-20.27,-18.9,-19.92,-12.06,-19.39,-19.33,-16.04,-3.93,-19.6,-19.59,-18.49,-6.562,-18.9,-18.63,-12.73,-8.956,0,0,0,0,0,0,0,0,0,0,0,0,0,0,0,0,
560,-19.68,-16.21,-20.37,-13.41,-18.8,-16.13,-11.26,-8.294,-26.0,-17.96,-16.11,-6.234,-16.56,-18.78,-13.21,-10.21,0,0,0,0,0,0,0,0,0,0,0,0,0,0,0,0,
561,-22.91,-22.79,-19.26,-11.05,-17.46,-16.55,4.872,-16.93,-17.23,-18.21,-8.937,-5.429,-13.51,-17.54,-13.51,-10.01,0,0,0,0,0,0,0,0,0,0,0,0,0,0,0,0,
562,-22.85,-25.25,-18.2,-6.635,-16.9,-14.97,-6.078,-15.0,-13.27,-15.66,-9.951,-4.131,-13.26,-13.16,-12.6,-9.397,0,0,0,0,0,0,0,0,0,0,0,0,0,0,0,0,
563,-12.07,-17.95,-16.45,-6.735,-15.51,-12.38,-22.15,-4.777,-13.18,-10.86,-10.47,-4.968,-8.165,-9.836,-11.71,-12.56,0,0,0,0,0,0,0,0,0,0,0,0,0,0,0,0,
564,-6.555,-15.22,-14.84,-9.106,-14.46,-15.36,-13.7,-6.625,-8.302,-10.68,-7.579,-7.543,-8.675,-14.83,-15.43,-15.32,0,0,0,0,0,0,0,0,0,0,0,0,0,0,0,0,
565,-19.71,-21.58,-17.24,-11.58,-16.57,-21.16,-12.95,-17.46,-15.8,-17.59,-13.09,-6.682,-19.92,-21.69,-21.28,-12.49,0,0,0,0,0,0,0,0,0,0,0,0,0,0,0,0,
566,-26.72,-24.02,-20.12,-13.41,-18.37,-21.05,-21.42,-21.57,-25.85,-21.38,-21.7,-4.183,-22.46,-18.02,-20.76,-8.905,0,0,0,0,0,0,0,0,0,0,0,0,0,0,0,0,
567,-21.19,-16.77,-17.48,-11.4,-16.09,-17.2,-10.41,-18.05,-13.81,-15.3,-18.09,-7.669,-14.46,-11.44,-16.12,-10.1,0,0,0,0,0,0,0,0,0,0,0,0,0,0,0,0,
568,-18.26,-11.37,-14.42,-6.145,-13.64,-13.75,-0.3607,-10.83,-1.963,-11.17,-12.42,-12.04,-13.37,-13.16,-15.3,-12.87,0,0,0,0,0,0,0,0,0,0,0,0,0,0,0,0,
569,-7.356,-13.19,-13.74,-4.289,-12.1,-9.083,-10.37,-7.789,-8.235,-14.28,-15.2,-9.303,-15.06,-15.41,-14.99,-12.95,0,0,0,0,0,0,0,0,0,0,0,0,0,0,0,0,
570,1.953,-12.46,-12.71,-6.989,-11.32,-8.447,-19.89,-8.703,-11.78,-14.37,-12.49,-5.68,-10.19,-13.3,-11.65,-11.64,0,0,0,0,0,0,0,0,0,0,0,0,0,0,0,0,
571,-9.333,-8.052,-15.1,-3.498,-15.15,-12.37,-15.91,-3.927,-9.306,-12.21,-7.613,-6.419,-9.247,-13.91,-11.63,-11.88,0,0,0,0,0,0,0,0,0,0,0,0,0,0,0,0,
572,-16.84,-8.342,-19.32,4.107,-18.95,-9.961,-9.484,-4.177,-12.52,-15.01,-11.13,-8.664,-15.2,-17.54,-15.53,-13.96,0,0,0,0,0,0,0,0,0,0,0,0,0,0,0,0,
573,-13.41,-10.25,-21.74,1.374,-20.07,-4.998,-19.93,-9.094,-19.44,-18.9,-8.172,-9.445,-16.88,-18.1,-15.56,-13.8,0,0,0,0,0,0,0,0,0,0,0,0,0,0,0,0,
574,-17.12,-7.834,-24.28,-2.143,-22.47,-7.617,-31.85,-1.374,-24.93,-17.37,-1.234,-6.664,-13.34,-14.32,-11.44,-9.358,0,0,0,0,0,0,0,0,0,0,0,0,0,0,0,0,
575,-17.47,-7.818,-20.69,1.563,-19.35,-12.7,-12.29,-3.844,-20.67,-12.63,-6.663,-5.84,-10.52,-12.77,-10.76,-8.573,0,0,0,0,0,0,0,0,0,0,0,0,0,0,0,0,
576,-12.5,-13.42,-13.02,-2.66,-12.17,-16.21,1.997,-20.38,-10.5,-13.13,-14.52,-10.37,-9.637,-15.98,-14.71,-14.26,0,0,0,0,0,0,0,0,0,0,0,0,0,0,0,0,
577,-13.87,-13.52,-13.09,-6.314,-12.52,-17.16,-19.79,-11.23,-11.08,-16.62,-16.77,-9.918,-10.64,-15.22,-16.94,-15.56,0,0,0,0,0,0,0,0,0,0,0,0,0,0,0,0,
578,-10.26,-5.557,-13.51,4.147,-12.93,-9.679,-18.58,3.744,-14.88,-13.7,-17.29,-3.675,-13.54,-10.22,-16.45,-10.44,0,0,0,0,0,0,0,0,0,0,0,0,0,0,0,0,
579,-5.694,-2.854,-10.19,9.531,-9.51,-0.3252,9.181,-4.477,-10.91,-9.316,-16.61,-1.162,-15.15,-7.872,-16.36,-7.566,0,0,0,0,0,0,0,0,0,0,0,0,0,0,0,0,
580,-18.04,-7.883,-12.42,5.188,-11.68,-1.844,-1.073,-6.514,-8.811,-7.463,-17.71,-2.603,-12.02,-5.759,-15.65,-9.609,0,0,0,0,0,0,0,0,0,0,0,0,0,0,0,0,
581,-24.15,-9.944,-12.12,5.675,-11.75,-6.622,-24.27,-3.901,-7.485,-4.647,-14.19,-6.982,-8.315,-6.616,-14.59,-15.05,0,0,0,0,0,0,0,0,0,0,0,0,0,0,0,0,
582,-4.914,-9.706,-5.699,5.289,-5.708,-2.457,-11.22,-8.765,-3.525,-7.468,-3.665,-9.63,-8.883,-12.22,-13.81,-17.44,0,0,0,0,0,0,0,0,0,0,0,0,0,0,0,0,
583,4.056,-13.68,-8.573,-0.966,-8.21,0.8743,7.199,-0.5256,-5.81,-13.15,-4.045,-4.036,-9.983,-11.12,-12.19,-12.53,0,0,0,0,0,0,0,0,0,0,0,0,0,0,0,0,
584,-10.74,-13.28,-15.36,-0.7973,-14.61,-1.881,1.756,7.631,-10.31,-9.128,-14.37,1.324,-10.31,-4.402,-13.66,-8.732,0,0,0,0,0,0,0,0,0,0,0,0,0,0,0,0,
585,-10.7,-0.0314,-6.94,9.709,-6.216,3.293,-8.867,3.433,-7.806,-1.648,-15.41,2.025,-10.76,-1.308,-17.05,-7.85,0,0,0,0,0,0,0,0,0,0,0,0,0,0,0,0,
586,4.996,10.79,7.756,12.83,8.221,7.779,-2.256,0.8864,-1.095,0.2229,-6.592,2.247,-6.771,-0.9459,-14.49,-4.676,0,0,0,0,0,0,0,0,0,0,0,0,0,0,0,0,
587,4.673,5.034,8.444,-0.6771,8.274,-3.587,13.22,-9.083,5.623,-1.404,3.071,-1.022,0.3123,-2.745,-8.454,-2.573,0,0,0,0,0,0,0,0,0,0,0,0,0,0,0,0,
588,-2.613,-2.019,2.729,-5.741,2.264,-7.612,13.31,-14.37,10.16,-2.795,6.791,-1.173,3.366,-2.304,-4.788,-0.2275,0,0,0,0,0,0,0,0,0,0,0,0,0,0,0,0,
589,-3.927,1.48,4.747,6.144,4.456,3.633,4.89,1.972,8.567,-0.0199,4.266,6.245,-0.049,1.909,-3.656,2.693,0,0,0,0,0,0,0,0,0,0,0,0,0,0,0,0,
590,-8.939,2.277,4.075,6.065,3.702,4.275,3.72,5.917,-1.056,1.555,5.021,7.725,-6.356,0.1085,-4.562,-0.8767,0,0,0,0,0,0,0,0,0,0,0,0,0,0,0,0,
591,-8.191,-2.194,-2.544,-2.449,-2.878,-0.9393,-0.6289,-4.205,-8.829,-2.435,7.463,5.415,-6.661,-3.515,-3.232,-2.419,0,0,0,0,0,0,0,0,0,0,0,0,0,0,0,0,
592,3.591,-1.666,-1.193,2.74,-1.493,0.7388,-5.535,-1.255,-3.639,-2.761,4.688,7.428,-0.579,-2.161,-0.1168,3.974,0,0,0,0,0,0,0,0,0,0,0,0,0,0,0,0,
593,4.885,-1.57,1.442,4.096,0.9451,-2.712,3.148,-6.172,3.648,-1.855,3.311,4.759,0.7914,-4.635,-3.098,4.267,0,0,0,0,0,0,0,0,0,0,0,0,0,0,0,0,
594,-6.641,-7.029,-3.991,-5.529,-4.017,-6.045,9.907,-19.01,0.3085,-6.79,4.25,0.8572,-3.356,-7.831,-7.82,-0.8847,0,0,0,0,0,0,0,0,0,0,0,0,0,0,0,0,
595,-9.652,-8.286,-4.077,-4.75,-3.88,-1.623,0.9935,-10.95,-5.292,-7.763,2.798,3.042,-5.375,-5.276,-6.506,-0.1817,0,0,0,0,0,0,0,0,0,0,0,0,0,0,0,0,
596,-2.524,-3.034,1.274,0.1204,0.4909,-4.803,-4.306,-2.345,-6.522,-4.905,2.885,2.007,-5.018,-6.049,-4.769,1.413,0,0,0,0,0,0,0,0,0,0,0,0,0,0,0,0,
597,-2.654,-1.018,-3.402,-2.557,-4.309,-12.64,-0.326,-7.645,-8.343,-7.52,3.575,0.317,-3.659,-7.93,-4.174,2.049,0,0,0,0,0,0,0,0,0,0,0,0,0,0,0,0,
598,-8.532,-2.675,-10.86,0.1019,-10.66,-6.91,-3.979,-3.455,-10.41,-6.59,6.207,6.54,2.697,-0.2044,1.706,7.926,0,0,0,0,0,0,0,0,0,0,0,0,0,0,0,0,
599,-4.195,1.247,-4.459,5.264,-4.299,6.499,-0.8931,5.448,-4.399,4.146,15.89,12.31,13.3,10.07,8.051,12.49,0,0,0,0,0,0,0,0,0,0,0,0,0,0,0,0,
600,2.84,6.771,7.552,2.732,6.698,10.59,13.96,2.577,7.823,11.37,16.19,11.74,13.56,10.37,4.885,7.846,0,0,0,0,0,0,0,0,0,0,0,0,0,0,0,0,
601,-1.888,2.675,7.732,4.883,6.942,4.938,0.9443,-5.216,8.124,6.923,0.4148,8.174,-1.258,1.779,-3.428,1.47,0,0,0,0,0,0,0,0,0,0,0,0,0,0,0,0,
602,-8.205,-4.464,0.383,8.288,0.4695,0.6587,-19.96,-9.553,-4.83,-1.698,-6.29,4.263,-9.94,-5.132,-6.809,0.818,0,0,0,0,0,0,0,0,0,0,0,0,0,0,0,0,
603,-5.971,-4.114,-1.177,-2.347,-0.8448,0.9679,3.61,-6.939,-9.156,-5.61,-2.433,2.012,-3.717,-4.402,-6.103,0.9533,0,0,0,0,0,0,0,0,0,0,0,0,0,0,0,0,
604,-1.693,0.0006,2.527,-8.207,2.415,0.0105,26.46,-5.521,-0.8477,-3.418,-1.649,-0.4906,3.409,-0.5252,-3.817,-0.886,0,0,0,0,0,0,0,0,0,0,0,0,0,0,0,0,
605,-2.799,2.353,5.963,0.1626,5.545,-3.019,7.862,-11.3,6.61,-0.023,8.034,-3.156,7.144,0.1399,0.0417,-0.4228,0,0,0,0,0,0,0,0,0,0,0,0,0,0,0,0,
606,-5.229,1.665,7.125,-0.322,6.798,-4.064,-2.259,-7.667,6.872,-0.9169,15.12,-2.413,5.53,-2.837,-1.51,0.1375,0,0,0,0,0,0,0,0,0,0,0,0,0,0,0,0,
607,0.9541,-0.1426,3.767,-7.701,3.46,-3.341,5.95,-1.276,-0.1693,-4.573,-1.878,-2.789,-3.764,-5.197,-7.272,-1.067,0,0,0,0,0,0,0,0,0,0,0,0,0,0,0,0,
608,1.032,-0.9074,-3.966,-9.617,-4.234,-5.526,-4.171,-11.79,-7.174,-5.694,-11.78,-5.175,-7.019,-4.951,-4.275,2.303,0,0,0,0,0,0,0,0,0,0,0,0,0,0,0,0,
609,-16.45,-2.311,-10.81,-11.56,-10.34,-9.805,-17.49,-14.89,-7.918,-5.244,0.5237,-2.275,0.5509,-4.314,4.092,7.864,0,0,0,0,0,0,0,0,0,0,0,0,0,0,0,0,
610,-15.65,-2.237,-10.58,-8.44,-9.517,-6.816,-13.95,-2.386,-5.2,-4.773,5.731,1.368,6.474,-3.274,4.937,6.986,0,0,0,0,0,0,0,0,0,0,0,0,0,0,0,0,
611,7.126,-0.873,-5.162,-3.189,-5.004,0.284,-11.55,-2.865,-1.58,-2.772,4.541,-0.4608,4.89,-3.241,-0.2676,1.819,0,0,0,0,0,0,0,0,0,0,0,0,0,0,0,0,
612,7.755,-1.707,-3.214,-5.415,-4.003,-3.446,-12.12,-7.603,-5.058,-4.199,4.097,-1.54,-3.231,-8.146,-5.568,-2.264,0,0,0,0,0,0,0,0,0,0,0,0,0,0,0,0,
613,-5.066,-0.2846,-7.495,-3.331,-7.193,-11.47,-0.0074,-3.551,-16.16,-9.996,-0.0534,1.215,-7.152,-10.02,-5.33,-0.7387,0,0,0,0,0,0,0,0,0,0,0,0,0,0,0,0,
614,-8.916,-1.532,-11.45,-2.807,-9.683,-6.71,12.16,-3.981,-12.8,-7.114,11.28,6.822,4.603,0.7787,4.517,9.442,0,0,0,0,0,0,0,0,0,0,0,0,0,0,0,0,
615,-12.19,-8.133,-4.179,-11.77,-3.246,4.606,8.013,-2.055,6.546,6.128,27.09,12.62,15.92,11.34,11.21,15.5,0,0,0,0,0,0,0,0,0,0,0,0,0,0,0,0,
616,0.2359,-2.797,10.99,-8.672,10.16,6.505,6.965,0.893,13.7,10.87,15.48,9.597,9.109,6.015,3.237,6.301,0,0,0,0,0,0,0,0,0,0,0,0,0,0,0,0,
617,17.29,7.134,11.3,-2.542,10.58,-1.03,14.43,-5.439,2.753,1.492,0.7116,2.364,-1.511,-3.227,-4.646,-2.235,0,0,0,0,0,0,0,0,0,0,0,0,0,0,0,0,
618,4.759,4.382,-0.1193,-10.5,0.1138,-4.232,3.533,-1.04,-6.918,-3.199,4.004,5.16,0.2163,0.3706,1.139,2.159,0,0,0,0,0,0,0,0,0,0,0,0,0,0,0,0,
619,-2.461,4.894,5.34,-11.29,5.185,1.759,-12.38,7.03,-3.558,4.053,6.108,9.649,6.585,6.918,8.292,5.901,0,0,0,0,0,0,0,0,0,0,0,0,0,0,0,0,
620,19.23,11.59,19.68,-8.218,18.53,3.847,-2.148,-4.429,5.426,7.137,4.494,4.469,4.255,3.701,4.37,2.188,0,0,0,0,0,0,0,0,0,0,0,0,0,0,0,0,
621,28.77,13.93,21.19,-15.6,19.51,0.4548,13.33,-9.9,5.592,2.276,3.117,1.843,-1.662,1.613,-0.0778,1.952,0,0,0,0,0,0,0,0,0,0,0,0,0,0,0,0,
622,24.16,21.59,21.93,-15.52,20.03,5.866,11.51,-1.874,3.715,4.439,5.533,8.848,5.514,9.481,7.576,8.108,0,0,0,0,0,0,0,0,0,0,0,0,0,0,0,0,
623,29.52,27.42,26.85,-9.527,25.25,15.04,6.73,-3.723,13.2,13.63,20.97,14.3,19.32,15.98,18.03,12.2,0,0,0,0,0,0,0,0,0,0,0,0,0,0,0,0,
624,28.89,19.85,24.48,-10.67,23.29,13.33,13.95,-5.233,19.66,15.88,27.3,12.8,18.18,12.69,18.1,9.979,0,0,0,0,0,0,0,0,0,0,0,0,0,0,0,0,
625,18.5,13.98,21.9,-13.06,20.62,6.529,29.87,-5.789,12.77,9.591,12.35,8.678,7.63,5.585,11.38,4.124,0,0,0,0,0,0,0,0,0,0,0,0,0,0,0,0,
626,21.0,14.23,23.23,-16.17,21.85,6.288,28.54,-17.51,8.383,3.382,5.728,5.678,4.363,2.647,5.329,-0.4135,0,0,0,0,0,0,0,0,0,0,0,0,0,0,0,0,
627,21.68,15.5,20.31,-14.72,19.04,9.672,5.183,-16.61,11.42,2.44,11.28,5.966,5.033,4.482,3.526,0.3445,0,0,0,0,0,0,0,0,0,0,0,0,0,0,0,0,
628,0.0437,18.13,16.93,-9.805,15.64,5.686,4.384,-2.963,12.83,4.464,13.17,7.617,2.925,3.753,5.309,3.289,0,0,0,0,0,0,0,0,0,0,0,0,0,0,0,0,
629,-5.397,13.92,14.86,-17.41,13.54,-4.086,29.38,-5.141,9.612,2.017,12.07,5.845,-2.828,-2.956,2.232,1.406,0,0,0,0,0,0,0,0,0,0,0,0,0,0,0,0,
630,21.56,7.793,10.87,-22.76,9.516,-4.937,25.07,-8.889,0.8507,-4.55,3.447,2.124,-10.12,-6.925,-3.609,-2.514,0,0,0,0,0,0,0,0,0,0,0,0,0,0,0,0,
631,25.9,10.15,11.55,-17.6,10.39,0.8729,-6.6,-2.34,-7.953,-5.626,-3.214,1.144,-9.312,-2.868,-0.9534,-2.223,0,0,0,0,0,0,0,0,0,0,0,0,0,0,0,0,
632,3.096,7.915,15.01,-25.81,14.48,-0.5442,-9.441,-7.511,-4.746,-0.5124,7.691,2.744,0.9359,3.107,3.75,-0.4527,0,0,0,0,0,0,0,0,0,0,0,0,0,0,0,0,
633,5.824,2.652,14.83,-31.29,14.75,-1.782,15.82,-14.42,8.899,4.456,15.38,5.069,7.289,6.78,2.289,0.7139,0,0,0,0,0,0,0,0,0,0,0,0,0,0,0,0,
634,21.78,9.681,15.96,-15.02,15.49,4.037,16.19,-7.878,13.38,7.532,6.435,4.874,2.524,6.187,0.1985,0.8937,0,0,0,0,0,0,0,0,0,0,0,0,0,0,0,0,
635,12.52,12.92,15.23,-8.78,14.02,3.874,-9.047,-8.648,0.815,5.535,0.6152,2.793,-4.465,1.956,-0.0814,-1.012,0,0,0,0,0,0,0,0,0,0,0,0,0,0,0,0,
636,-0.4748,4.891,11.24,-16.73,9.9,-1.187,-8.991,-7.6,-3.777,1.689,8.368,8.07,-0.6988,3.738,4.056,2.084,0,0,0,0,0,0,0,0,0,0,0,0,0,0,0,0,
637,5.565,6.853,12.61,-16.55,11.37,0.5902,16.36,9.802,10.0,6.101,17.1,15.17,7.236,10.0,10.57,9.27,0,0,0,0,0,0,0,0,0,0,0,0,0,0,0,0,
638,7.735,10.76,11.01,-17.39,9.573,2.811,25.26,6.686,11.85,10.44,11.11,9.38,4.732,8.667,8.895,9.647,0,0,0,0,0,0,0,0,0,0,0,0,0,0,0,0,
639,-1.071,1.046,5.908,-19.79,4.786,2.359,20.16,-10.42,2.166,6.601,5.229,2.941,3.439,6.812,6.144,9.043,0,0,0,0,0,0,0,0,0,0,0,0,0,0,0,0,
640,7.187,-1.426,12.1,-16.28,11.65,5.422,22.07,1.195,9.06,6.945,16.56,6.519,9.711,9.067,7.966,9.724,0,0,0,0,0,0,0,0,0,0,0,0,0,0,0,0,
641,22.95,7.367,15.59,-20.69,15.33,4.178,12.91,7.826,12.92,8.358,14.72,5.554,4.48,4.064,1.088,0.9694,0,0,0,0,0,0,0,0,0,0,0,0,0,0,0,0,
642,12.07,6.421,8.416,-25.68,8.217,-2.105,-12.81,-13.87,-0.8973,1.849,-4.458,2.437,-5.31,0.3385,-6.562,-5.487,0,0,0,0,0,0,0,0,0,0,0,0,0,0,0,0,
643,-0.8933,3.115,11.95,-18.36,11.45,0.5273,-9.198,-19.0,-1.348,1.906,-3.125,7.025,-3.522,6.366,-2.971,-0.4361,0,0,0,0,0,0,0,0,0,0,0,0,0,0,0,0,
644,9.374,7.654,18.29,-17.56,17.22,5.553,17.3,-8.799,7.385,7.622,5.161,7.925,-3.335,6.876,-1.192,0.2905,0,0,0,0,0,0,0,0,0,0,0,0,0,0,0,0,
645,8.795,8.341,11.31,-23.05,10.81,1.805,3.678,-7.851,3.841,4.745,4.87,5.244,-2.141,3.636,0.8564,-1.638,0,0,0,0,0,0,0,0,0,0,0,0,0,0,0,0,
646,-4.406,8.235,9.823,-15.79,9.652,0.2169,-10.9,-0.8647,7.871,3.728,14.86,7.816,8.87,6.775,9.528,1.826,0,0,0,0,0,0,0,0,0,0,0,0,0,0,0,0,
647,2.765,13.67,16.35,-8.44,14.99,2.275,20.38,3.179,16.32,6.964,13.51,7.453,7.725,4.75,9.269,0.248,0,0,0,0,0,0,0,0,0,0,0,0,0,0,0,0,
648,14.06,12.23,10.43,-13.01,9.094,-2.62,20.27,-10.14,4.392,1.44,-2.668,3.505,-3.508,-2.288,5.387,-1.499,0,0,0,0,0,0,0,0,0,0,0,0,0,0,0,0,
649,12.04,6.27,2.036,-16.07,1.911,-6.634,-5.072,-13.2,-4.693,-3.163,5.653,4.392,0.2876,-0.6551,12.93,5.816,0,0,0,0,0,0,0,0,0,0,0,0,0,0,0,0,
650,12.97,7.481,9.95,-14.1,9.319,-1.836,16.17,-1.461,4.99,1.938,20.21,6.185,8.595,4.821,18.81,9.461,0,0,0,0,0,0,0,0,0,0,0,0,0,0,0,0,
651,10.16,6.21,20.51,-14.29,18.66,2.356,19.4,1.572,9.196,5.611,15.35,5.364,8.14,5.936,15.94,5.375,0,0,0,0,0,0,0,0,0,0,0,0,0,0,0,0,
652,-2.916,0.4403,17.89,-16.25,16.14,0.3043,-11.85,-1.052,7.569,5.231,13.18,3.745,6.264,4.569,11.19,1.159,0,0,0,0,0,0,0,0,0,0,0,0,0,0,0,0,
653,-2.928,3.249,11.84,-16.29,10.86,-3.825,3.156,-2.605,8.797,4.046,13.44,1.659,2.923,3.433,5.536,-0.896,0,0,0,0,0,0,0,0,0,0,0,0,0,0,0,0,
654,10.68,8.657,12.93,-11.87,12.56,-3.84,29.67,-6.779,7.422,3.001,10.92,3.894,4.354,7.128,7.359,5.137,0,0,0,0,0,0,0,0,0,0,0,0,0,0,0,0,
655,16.41,10.25,17.85,-8.043,17.36,2.723,21.51,-5.375,13.27,8.081,18.7,11.11,14.87,13.78,16.49,14.23,0,0,0,0,0,0,0,0,0,0,0,0,0,0,0,0,
656,12.79,14.06,19.15,-11.97,18.18,7.318,15.0,1.945,21.06,14.31,23.24,13.43,15.13,12.84,15.44,10.46,0,0,0,0,0,0,0,0,0,0,0,0,0,0,0,0,
657,6.557,11.24,12.49,-15.03,11.87,4.347,13.31,3.306,12.45,10.37,12.66,8.924,2.69,5.997,7.385,1.812,0,0,0,0,0,0,0,0,0,0,0,0,0,0,0,0,
658,2.879,1.141,6.425,-9.834,6.321,3.16,9.611,1.416,4.2,4.189,2.714,6.098,-2.06,3.813,7.346,3.71,0,0,0,0,0,0,0,0,0,0,0,0,0,0,0,0,
659,6.06,2.159,9.389,-10.43,9.054,5.884,16.34,-1.424,6.733,4.831,3.719,5.687,1.675,4.839,9.867,7.337,0,0,0,0,0,0,0,0,0,0,0,0,0,0,0,0,
660,6.598,6.567,9.585,-21.35,9.202,1.869,21.89,-12.72,5.819,5.019,9.385,3.126,1.941,3.073,6.787,3.953,0,0,0,0,0,0,0,0,0,0,0,0,0,0,0,0,
661,2.046,0.1935,2.865,-23.7,2.678,-6.607,7.072,-19.82,3.051,1.752,7.023,1.674,-2.285,0.7756,2.975,1.857,0,0,0,0,0,0,0,0,0,0,0,0,0,0,0,0,
662,3.046,-1.836,2.583,-17.71,2.223,-9.325,-14.86,-6.331,-0.9363,-0.1257,0.9788,3.261,-4.032,-0.2505,2.252,3.255,0,0,0,0,0,0,0,0,0,0,0,0,0,0,0,0,
663,0.4558,2.937,5.693,-21.46,5.36,-9.621,1.248,3.757,-4.914,-1.589,5.495,1.207,-0.2407,-2.52,1.5,0.4072,0,0,0,0,0,0,0,0,0,0,0,0,0,0,0,0,
664,-6.869,-0.5079,4.628,-23.75,4.434,-9.826,29.26,-12.05,3.503,-3.77,12.49,-2.667,2.816,-2.93,2.096,-1.669,0,0,0,0,0,0,0,0,0,0,0,0,0,0,0,0,
665,2.997,-3.867,5.752,-11.46,5.337,-4.444,5.469,-20.07,9.931,-1.813,15.95,0.35,2.806,2.639,8.26,5.114,0,0,0,0,0,0,0,0,0,0,0,0,0,0,0,0,
666,16.24,2.869,7.905,-7.534,7.655,0.9114,-5.3,-1.802,3.095,4.603,20.35,3.88,3.367,7.718,11.56,8.822,0,0,0,0,0,0,0,0,0,0,0,0,0,0,0,0,
667,13.08,9.99,9.76,-19.17,9.488,1.556,30.62,2.317,5.386,8.544,16.3,1.63,3.345,7.372,7.502,4.582,0,0,0,0,0,0,0,0,0,0,0,0,0,0,0,0,
668,16.24,13.51,15.52,-19.06,14.16,3.658,20.81,-9.056,14.27,8.025,6.742,3.052,3.329,6.056,7.633,5.79,0,0,0,0,0,0,0,0,0,0,0,0,0,0,0,0,
669,23.27,16.11,16.42,-5.184,15.08,2.97,-2.06,-2.018,9.33,5.215,7.494,6.536,4.32,3.751,11.57,8.703,0,0,0,0,0,0,0,0,0,0,0,0,0,0,0,0,
670,12.53,13.52,11.49,-6.99,11.41,-2.953,25.01,-0.088,2.682,1.108,17.32,4.048,6.197,1.574,14.61,8.015,0,0,0,0,0,0,0,0,0,0,0,0,0,0,0,0,
671,5.418,4.011,12.33,-27.93,11.62,-1.919,25.23,-13.34,7.391,2.467,27.74,5.149,12.67,6.263,21.22,13.16,0,0,0,0,0,0,0,0,0,0,0,0,0,0,0,0,
672,11.53,-2.47,13.48,-33.59,11.68,1.894,2.822,-4.28,14.2,9.16,27.9,7.541,14.32,8.664,17.71,11.3,0,0,0,0,0,0,0,0,0,0,0,0,0,0,0,0,
673,11.99,2.841,7.948,-15.15,7.188,-4.875,13.14,3.711,12.53,5.192,17.41,-3.928,0.7912,-2.183,-2.191,-7.024,0,0,0,0,0,0,0,0,0,0,0,0,0,0,0,0,
674,12.04,9.297,2.731,-6.902,2.708,-11.13,9.481,-15.39,-0.3738,-8.004,10.99,-13.66,-10.74,-9.912,-10.72,-14.53,0,0,0,0,0,0,0,0,0,0,0,0,0,0,0,0,
675,15.34,8.284,2.772,-9.056,2.36,-3.161,-3.639,-11.64,-9.856,-8.138,4.579,-5.075,-8.149,-1.444,-2.3,-5.526,0,0,0,0,0,0,0,0,0,0,0,0,0,0,0,0,
676,9.58,11.61,6.766,3.222,6.455,6.879,5.632,9.974,-2.652,3.315,-5.666,1.59,-5.044,5.815,-0.4484,-4.493,0,0,0,0,0,0,0,0,0,0,0,0,0,0,0,0,
677,0.5952,14.14,5.47,8.356,5.188,3.817,-1.42,-1.51,3.446,4.535,-4.254,-3.292,-5.707,0.9486,-2.36,-7.699,0,0,0,0,0,0,0,0,0,0,0,0,0,0,0,0,
678,2.572,4.675,-0.2717,-0.5734,-0.6126,-2.602,-8.996,-9.828,-0.1692,-1.596,6.082,-3.043,0.7055,0.1865,7.073,-0.3331,0,0,0,0,0,0,0,0,0,0,0,0,0,0,0,0,
679,11.27,3.848,4.338,6.782,4.106,0.6158,8.699,8.512,5.658,2.921,12.67,1.048,10.37,7.58,14.83,4.914,0,0,0,0,0,0,0,0,0,0,0,0,0,0,0,0,
680,7.573,10.86,6.352,11.13,5.862,1.802,3.01,3.694,11.43,8.956,9.036,-2.0,4.685,5.082,4.399,-2.663,0,0,0,0,0,0,0,0,0,0,0,0,0,0,0,0,
681,-5.516,2.759,-5.48,-3.622,-5.543,-3.409,-24.01,-14.44,-1.407,1.857,-4.55,-4.186,-11.68,-2.99,-7.818,-8.382,0,0,0,0,0,0,0,0,0,0,0,0,0,0,0,0,
682,-0.8533,0.6658,-3.96,0.6229,-3.485,2.182,-22.44,-7.144,-7.133,-2.279,-3.869,0.2188,-11.01,2.025,-1.769,-2.471,0,0,0,0,0,0,0,0,0,0,0,0,0,0,0,0,
683,11.3,12.98,5.368,14.93,5.084,11.48,1.036,3.866,6.156,5.22,12.31,2.007,3.207,8.685,9.32,3.419,0,0,0,0,0,0,0,0,0,0,0,0,0,0,0,0,
684,2.43,6.123,-7.386,4.473,-7.495,4.245,12.54,1.657,8.781,6.332,10.28,-1.641,5.118,2.963,11.91,3.222,0,0,0,0,0,0,0,0,0,0,0,0,0,0,0,0,
685,-6.968,-9.056,-18.53,-6.328,-17.2,-7.521,1.565,-3.056,-1.43,-0.125,-0.144,-2.188,-1.155,-2.586,12.29,3.894,0,0,0,0,0,0,0,0,0,0,0,0,0,0,0,0,
686,0.2653,-5.403,-8.765,-3.089,-7.808,-7.144,-10.83,-0.829,-4.426,-2.367,3.993,3.73,-3.959,-1.631,6.861,4.013,0,0,0,0,0,0,0,0,0,0,0,0,0,0,0,0,
687,-0.1308,-1.608,-4.342,-6.002,-4.619,-1.753,-3.217,8.616,-5.186,-1.928,2.484,6.917,-8.949,0.763,-5.601,-0.4615,0,0,0,0,0,0,0,0,0,0,0,0,0,0,0,0,
688,-7.338,-3.055,-6.847,-6.749,-6.666,1.351,1.326,5.542,-7.455,1.745,-6.039,1.918,-11.33,6.428,-8.209,-2.078,0,0,0,0,0,0,0,0,0,0,0,0,0,0,0,0,
689,-1.389,6.662,-0.8354,3.75,-0.2662,4.636,-8.39,-3.017,-0.0414,9.857,-0.8217,-0.2583,-2.127,13.09,1.192,3.916,0,0,0,0,0,0,0,0,0,0,0,0,0,0,0,0,T2
690,5.535,14.28,1.96,8.619,1.588,6.956,0.4877,6.136,12.29,13.88,7.47,4.554,8.417,13.12,8.868,9.531,0,0,0,0,0,0,0,0,0,0,0,0,0,0,0,0,
691,4.462,6.955,-2.436,4.662,-2.87,4.258,10.72,8.315,15.0,10.44,10.42,4.046,9.801,6.62,11.0,7.954,0,0,0,0,0,0,0,0,0,0,0,0,0,0,0,0,
692,8.763,0.2744,-1.101,1.272,-0.9216,0.5291,-13.73,-2.175,9.167,4.125,18.83,-1.4,7.177,-0.3855,9.608,3.613,0,0,0,0,0,0,0,0,0,0,0,0,0,0,0,0,
693,11.73,1.215,-0.0093,-2.865,-0.3137,-1.167,-24.31,0.3421,1.582,-1.631,21.76,-2.41,4.172,-4.708,5.847,1.418,0,0,0,0,0,0,0,0,0,0,0,0,0,0,0,0,
694,-0.9781,-0.8363,-7.772,-8.498,-7.768,-5.746,5.111,-2.747,-6.099,-5.809,7.353,-2.823,-2.267,-6.314,2.537,-0.1651,0,0,0,0,0,0,0,0,0,0,0,0,0,0,0,0,
695,-11.61,-4.383,-9.821,-7.063,-8.647,-7.586,15.28,-12.12,-5.889,-5.798,-2.958,-3.236,-6.284,-2.377,2.789,1.558,0,0,0,0,0,0,0,0,0,0,0,0,0,0,0,0,
696,-2.648,-0.6123,-1.087,0.6007,-0.9393,-2.276,-0.2536,1.494,3.714,0.9587,2.018,1.91,-2.328,4.527,7.911,9.871,0,0,0,0,0,0,0,0,0,0,0,0,0,0,0,0,
697,5.884,2.259,-0.0109,0.1703,-0.7465,-4.264,-2.381,10.61,5.617,5.831,4.95,5.712,1.714,4.004,13.2,15.39,0,0,0,0,0,0,0,0,0,0,0,0,0,0,0,0,
698,-1.777,-2.016,-6.651,-7.433,-5.622,-10.9,-2.809,-6.594,-0.8611,1.45,4.477,2.393,2.829,-0.8696,12.46,10.35,0,0,0,0,0,0,0,0,0,0,0,0,0,0,0,0,
699,-5.77,-1.125,-5.302,-8.29,-4.06,-6.117,-8.294,-12.55,0.189,-1.836,6.218,-0.6998,4.41,-0.5518,7.965,3.122,0,0,0,0,0,0,0,0,0,0,0,0,0,0,0,0,
700,3.262,5.368,-2.272,-4.033,-3.093,-1.759,-3.466,1.128,2.357,0.2562,1.158,0.4354,3.069,-0.3921,4.482,1.555,0,0,0,0,0,0,0,0,0,0,0,0,0,0,0,0,
701,6.172,4.386,-5.704,-1.806,-6.633,-7.367,-3.193,2.127,-2.791,-1.378,-3.573,1.875,-1.02,-4.333,1.137,1.386,0,0,0,0,0,0,0,0,0,0,0,0,0,0,0,0,
702,-1.696,-1.086,-7.796,-2.439,-7.563,-9.3,-15.42,-5.389,-6.458,-5.094,0.938,3.75,-4.38,-5.18,-1.52,0.3962,0,0,0,0,0,0,0,0,0,0,0,0,0,0,0,0,
703,-7.19,-3.685,-8.784,-5.702,-8.611,-6.7,-18.83,5.024,-7.79,-3.433,-0.7485,8.234,-7.113,-0.4823,-0.11,2.447,0,0,0,0,0,0,0,0,0,0,0,0,0,0,0,0,
704,-8.075,-6.001,-10.22,-6.029,-10.22,-7.158,-7.992,17.92,-6.595,1.615,-8.584,10.11,-5.838,3.85,2.836,4.754,0,0,0,0,0,0,0,0,0,0,0,0,0,0,0,0,
705,-10.62,-7.883,-7.81,-4.371,-7.362,-9.217,1.544,12.55,-0.0136,3.809,-3.824,8.441,0.5838,3.511,5.8,5.174,0,0,0,0,0,0,0,0,0,0,0,0,0,0,0,0,
706,-12.03,-8.262,-8.053,-7.853,-7.322,-11.66,4.197,9.657,2.111,2.74,8.698,11.91,7.821,3.135,13.44,9.873,0,0,0,0,0,0,0,0,0,0,0,0,0,0,0,0,
707,-4.842,-8.288,-12.52,-10.34,-11.87,-11.56,4.634,11.22,-0.8977,3.753,11.69,15.39,11.64,4.452,18.79,13.81,0,0,0,0,0,0,0,0,0,0,0,0,0,0,0,0,
708,-3.923,-7.986,-13.52,-9.992,-12.94,-11.47,0.6234,-3.683,-2.338,3.635,7.213,7.158,7.719,-0.4476,11.27,6.88,0,0,0,0,0,0,0,0,0,0,0,0,0,0,0,0,
709,-20.84,-11.42,-14.11,-14.29,-13.41,-18.47,-3.005,-16.21,-5.91,-3.032,8.299,-1.142,3.186,-5.958,3.692,0.0648,0,0,0,0,0,0,0,0,0,0,0,0,0,0,0,0,
710,-22.13,-16.55,-13.44,-16.53,-12.78,-19.99,1.701,-10.72,-3.619,-4.901,15.17,3.793,9.129,-0.147,8.124,4.227,0,0,0,0,0,0,0,0,0,0,0,0,0,0,0,0,
711,0.0826,-11.59,-8.169,-9.602,-7.641,-8.434,-1.208,-3.421,6.278,2.756,17.06,10.69,15.25,5.912,12.19,9.192,0,0,0,0,0,0,0,0,0,0,0,0,0,0,0,0,
712,3.967,-1.494,-7.7,-2.609,-6.902,-5.271,-13.36,5.894,3.323,4.721,11.78,8.882,11.04,1.599,8.986,7.849,0,0,0,0,0,0,0,0,0,0,0,0,0,0,0,0,
713,-4.959,-2.696,-8.417,-4.485,-7.891,-14.51,-10.42,13.48,-4.461,-1.056,4.563,2.975,4.054,-3.718,3.568,2.527,0,0,0,0,0,0,0,0,0,0,0,0,0,0,0,0,
714,-3.379,-10.01,-5.0,-9.366,-5.43,-17.38,-2.713,5.854,-1.412,-4.779,-4.728,-2.067,-4.486,-7.095,-4.856,-5.54,0,0,0,0,0,0,0,0,0,0,0,0,0,0,0,0,
715,-10.09,-11.16,-12.18,-7.37,-12.27,-17.22,-7.548,0.1515,-8.44,-8.487,-12.49,-3.622,-12.72,-11.43,-9.89,-9.386,0,0,0,0,0,0,0,0,0,0,0,0,0,0,0,0,
716,-18.9,-11.21,-22.01,-4.889,-20.83,-20.28,-7.866,3.019,-22.06,-11.95,-7.928,-2.211,-8.859,-11.66,-5.868,-7.093,0,0,0,0,0,0,0,0,0,0,0,0,0,0,0,0,
717,-11.93,-10.91,-15.11,-6.159,-13.99,-16.13,-5.631,-1.689,-15.79,-10.67,-0.8901,-4.471,-3.61,-10.64,-7.596,-10.16,0,0,0,0,0,0,0,0,0,0,0,0,0,0,0,0,
718,-1.092,-2.557,-7.135,-2.45,-6.952,-9.801,-9.618,-4.315,-8.596,-11.19,-10.91,-9.71,-12.09,-14.07,-16.9,-17.24,0,0,0,0,0,0,0,0,0,0,0,0,0,0,0,0,
719,12.68,4.494,-7.495,-2.37,-7.528,-12.39,1.782,-3.675,-14.75,-14.62,-19.07,-11.19,-15.4,-13.75,-15.11,-17.24,0,0,0,0,0,0,0,0,0,0,0,0,0,0,0,0,
720,22.67,2.79,-1.903,-8.148,-1.597,-13.44,19.17,-11.56,-9.941,-11.18,-7.519,-10.8,-4.255,-5.058,-6.346,-14.06,0,0,0,0,0,0,0,0,0,0,0,0,0,0,0,0,
721,19.09,4.663,5.14,-3.021,5.094,-4.94,7.529,-3.548,2.324,-1.004,-4.04,-7.369,1.503,4.634,-3.64,-9.433,0,0,0,0,0,0,0,0,0,0,0,0,0,0,0,0,
722,16.29,4.997,1.981,-3.789,1.229,0.8826,-17.65,16.11,3.228,7.208,-10.33,1.22,1.122,7.558,-1.336,-0.9911,0,0,0,0,0,0,0,0,0,0,0,0,0,0,0,0,
723,9.082,-7.052,-4.616,-17.07,-4.712,-4.574,-22.53,5.408,0.6649,5.678,-2.568,1.037,0.7304,-0.966,-3.268,-3.257,0,0,0,0,0,0,0,0,0,0,0,0,0,0,0,0,
724,3.119,-5.233,-5.07,-4.554,-4.573,-11.25,-14.84,-10.03,-3.615,-5.705,-4.965,-9.409,-9.566,-12.09,-16.67,-17.95,0,0,0,0,0,0,0,0,0,0,0,0,0,0,0,0,
725,18.91,15.68,-3.874,17.63,-4.391,-12.18,-14.45,2.737,-13.85,-12.94,-25.31,-11.7,-19.91,-12.18,-24.7,-22.8,0,0,0,0,0,0,0,0,0,0,0,0,0,0,0,0,
726,17.11,15.52,-8.729,7.808,-8.868,-13.9,-14.75,8.145,-16.52,-9.578,-23.42,-6.202,-13.06,-6.608,-17.72,-15.04,0,0,0,0,0,0,0,0,0,0,0,0,0,0,0,0,
727,-9.012,0.7502,-8.652,0.6477,-7.271,-11.93,-4.547,4.003,-6.085,-4.144,-4.937,-1.45,0.0224,-0.848,-7.849,-7.656,0,0,0,0,0,0,0,0,0,0,0,0,0,0,0,0,
728,-0.4309,5.183,1.158,15.79,1.775,-0.0166,6.069,14.91,5.655,2.859,1.018,5.104,6.448,7.665,-0.8176,-2.234,0,0,0,0,0,0,0,0,0,0,0,0,0,0,0,0,
729,22.85,9.853,1.627,16.66,1.41,6.194,10.8,17.55,10.45,9.498,4.988,9.08,8.293,10.32,4.703,0.9011,0,0,0,0,0,0,0,0,0,0,0,0,0,0,0,0,
730,17.56,5.3,-2.776,11.93,-2.458,1.368,14.33,11.57,9.876,8.881,11.4,8.783,9.269,7.758,8.63,2.457,0,0,0,0,0,0,0,0,0,0,0,0,0,0,0,0,
731,13.28,11.2,4.516,17.85,4.281,1.062,10.84,19.25,10.39,9.338,9.453,10.6,10.98,11.21,10.86,6.07,0,0,0,0,0,0,0,0,0,0,0,0,0,0,0,0,
732,14.99,10.29,8.035,9.469,7.623,5.82,4.666,18.72,12.25,13.7,4.063,10.8,10.69,14.26,8.868,8.464,0,0,0,0,0,0,0,0,0,0,0,0,0,0,0,0,
733,3.765,-1.963,4.663,-1.961,5.128,5.625,3.425,3.312,11.48,13.04,1.011,7.71,9.607,13.27,5.981,8.733,0,0,0,0,0,0,0,0,0,0,0,0,0,0,0,0,
734,2.22,3.328,9.794,6.095,9.419,1.235,-6.532,-0.166,11.56,12.75,0.7197,6.008,11.91,14.43,7.013,8.347,0,0,0,0,0,0,0,0,0,0,0,0,0,0,0,0,
735,14.36,10.48,9.714,9.348,8.47,-1.698,-14.5,4.659,12.37,14.43,0.3739,2.455,8.62,11.26,4.434,2.986,0,0,0,0,0,0,0,0,0,0,0,0,0,0,0,0,
736,12.3,-1.652,-2.545,0.5103,-2.409,-2.083,-0.6515,2.957,8.054,8.838,-4.392,-2.326,-2.669,4.206,-2.997,-3.709,0,0,0,0,0,0,0,0,0,0,0,0,0,0,0,0,
737,3.458,-5.176,-6.761,-0.4337,-5.641,-2.754,5.093,5.454,3.571,3.932,-6.175,0.3245,-5.546,6.12,-2.611,-1.159,0,0,0,0,0,0,0,0,0,0,0,0,0,0,0,0,
738,13.97,6.369,-0.3249,3.822,-0.229,-0.761,-9.281,16.04,6.665,9.097,-0.4974,9.562,2.252,13.78,5.081,8.196,0,0,0,0,0,0,0,0,0,0,0,0,0,0,0,0,
739,24.31,6.591,8.106,4.934,6.894,5.73,-7.272,14.29,13.69,15.37,4.82,13.41,6.677,15.85,8.35,11.91,0,0,0,0,0,0,0,0,0,0,0,0,0,0,0,0,
740,7.366,-1.635,14.23,2.325,12.84,6.585,8.075,1.626,15.92,15.01,6.739,5.905,4.356,11.28,7.358,6.686,0,0,0,0,0,0,0,0,0,0,0,0,0,0,0,0,
741,-4.641,-1.21,7.781,-3.416,7.068,-1.194,5.85,3.344,11.58,8.983,4.969,-3.759,0.366,3.707,6.921,0.6424,0,0,0,0,0,0,0,0,0,0,0,0,0,0,0,0,
742,13.32,4.941,-4.56,-4.323,-4.649,-8.922,-6.267,6.22,8.545,1.058,2.523,-7.129,-2.198,-2.018,4.932,-2.354,0,0,0,0,0,0,0,0,0,0,0,0,0,0,0,0,
743,27.92,9.242,-3.759,-0.2945,-3.574,-12.01,-11.92,-6.089,7.507,-3.08,3.819,-7.397,-2.765,-2.455,1.581,-4.765,0,0,0,0,0,0,0,0,0,0,0,0,0,0,0,0,
744,24.05,7.324,3.399,-0.2185,3.254,-9.248,-9.357,-3.933,1.802,-1.773,0.9407,-6.937,-2.198,-0.2141,1.019,-5.449,0,0,0,0,0,0,0,0,0,0,0,0,0,0,0,0,
745,16.57,-2.715,3.858,-4.414,3.15,-5.781,2.992,10.44,-0.502,1.048,-5.328,-5.142,-0.6383,0.8323,1.98,-4.153,0,0,0,0,0,0,0,0,0,0,0,0,0,0,0,0,
746,8.07,-10.48,0.1855,-8.347,-0.1168,-8.902,7.78,5.336,2.883,1.151,-4.452,-3.919,-1.085,-0.8172,1.383,-3.718,0,0,0,0,0,0,0,0,0,0,0,0,0,0,0,0,
747,4.735,-7.549,-7.004,-5.324,-6.538,-14.01,-8.201,-3.996,-3.019,-2.781,-3.1,-3.212,-4.799,-4.656,1.779,-2.88,0,0,0,0,0,0,0,0,0,0,0,0,0,0,0,0,
748,5.69,-3.743,-11.68,1.348,-11.17,-16.18,-11.54,-3.988,-9.054,-6.77,-3.435,-1.937,-5.011,-6.964,3.777,-1.11,0,0,0,0,0,0,0,0,0,0,0,0,0,0,0,0,
749,-2.326,-7.511,-6.446,-5.23,-5.895,-17.44,9.667,-6.88,-1.913,-6.866,-0.7242,-1.658,-2.358,-5.952,2.092,-1.851,0,0,0,0,0,0,0,0,0,0,0,0,0,0,0,0,
750,-6.815,-11.4,-3.027,-15.26,-2.427,-17.52,9.064,-4.018,-0.9359,-5.269,-4.749,-3.114,-3.525,-4.032,-1.787,-3.626,0,0,0,0,0,0,0,0,0,0,0,0,0,0,0,0,
751,6.633,-7.027,-5.171,-6.173,-4.983,-16.91,-15.92,6.801,-7.875,-3.353,-11.15,-2.506,-4.229,-2.137,-0.0395,-0.6258,0,0,0,0,0,0,0,0,0,0,0,0,0,0,0,0,
752,13.92,-2.603,-4.065,3.287,-3.903,-16.62,-17.62,11.02,-4.5,-0.9024,-7.071,2.332,-3.427,-1.942,4.137,4.248,0,0,0,0,0,0,0,0,0,0,0,0,0,0,0,0,
753,-4.556,-9.837,-5.867,-3.018,-5.308,-13.98,-0.1096,10.56,-1.41,-1.808,-4.865,3.753,-7.359,-4.243,1.849,1.844,0,0,0,0,0,0,0,0,0,0,0,0,0,0,0,0,
754,-16.27,-14.36,-11.46,-3.469,-10.86,-10.77,0.4743,8.551,-5.5,-5.34,-13.26,-2.164,-11.96,-4.971,-3.074,-4.237,0,0,0,0,0,0,0,0,0,0,0,0,0,0,0,0,
755,6.114,-3.748,-9.97,2.086,-9.471,-10.82,-11.92,4.754,-5.439,-5.491,-16.0,-5.08,-10.62,-3.224,-1.839,-3.782,0,0,0,0,0,0,0,0,0,0,0,0,0,0,0,0,
756,25.07,2.295,-1.505,-0.0176,-1.33,-6.451,-12.33,6.588,-2.672,-1.343,-3.002,-1.117,-3.656,0.6142,3.418,-0.728,0,0,0,0,0,0,0,0,0,0,0,0,0,0,0,0,
757,16.43,-0.1015,6.177,2.095,5.438,2.916,-0.5612,6.961,2.639,3.45,3.333,0.0004,0.0135,3.145,3.769,-2.724,0,0,0,0,0,0,0,0,0,0,0,0,0,0,0,0,
758,8.889,0.9446,2.133,6.15,1.469,-2.699,4.561,-3.26,4.377,0.4883,-16.21,-4.28,-9.852,-4.715,-1.623,-6.165,0,0,0,0,0,0,0,0,0,0,0,0,0,0,0,0,
759,4.87,-3.749,-5.508,3.52,-4.724,-15.89,5.418,-3.134,-7.066,-9.386,-25.96,-4.635,-15.62,-9.924,0.7747,-2.85,0,0,0,0,0,0,0,0,0,0,0,0,0,0,0,0,
760,4.45,-1.834,8.081,10.03,8.439,-5.508,15.12,16.06,-5.791,-5.455,-0.3002,3.128,1.804,4.766,17.05,8.644,0,0,0,0,0,0,0,0,0,0,0,0,0,0,0,0,
761,29.44,20.06,24.65,19.72,22.83,11.18,19.8,24.28,13.95,10.76,14.7,10.07,14.04,14.18,26.3,15.46,0,0,0,0,0,0,0,0,0,0,0,0,0,0,0,0,
762,44.53,25.35,16.73,16.88,14.94,6.029,10.57,16.12,12.87,10.14,-2.994,9.255,0.9372,1.896,15.48,9.414,0,0,0,0,0,0,0,0,0,0,0,0,0,0,0,0,
763,27.12,15.59,11.09,20.95,10.62,1.797,5.679,13.85,0.585,-1.905,-14.6,5.147,-7.605,-2.763,5.15,3.6,0,0,0,0,0,0,0,0,0,0,0,0,0,0,0,0,
764,36.89,37.6,24.45,35.68,23.74,14.75,12.82,13.81,11.0,1.195,-6.193,1.786,0.7262,8.812,7.267,3.22,0,0,0,0,0,0,0,0,0,0,0,0,0,0,0,0,
765,82.24,71.68,37.58,39.95,35.59,32.27,20.54,13.55,22.42,12.27,6.612,0.9987,5.536,15.94,10.52,1.191,0,0,0,0,0,0,0,0,0,0,0,0,0,0,0,0,
766,110.8,84.62,44.51,44.16,41.02,44.12,16.68,20.62,18.18,16.04,13.08,3.678,5.342,16.6,14.21,3.014,0,0,0,0,0,0,0,0,0,0,0,0,0,0,0,0,
767,124.9,101.4,44.65,61.09,41.26,41.59,6.581,23.88,16.63,16.26,8.128,4.406,8.908,17.62,19.83,8.293,0,0,0,0,0,0,0,0,0,0,0,0,0,0,0,0,
768,139.9,124.4,46.47,72.35,44.82,39.95,10.04,27.12,19.26,17.91,3.674,4.447,11.3,20.44,18.91,7.813,0,0,0,0,0,0,0,0,0,0,0,0,0,0,0,0,
769,143.7,132.3,66.29,73.24,63.62,56.83,21.48,36.74,21.04,23.02,6.686,10.14,9.889,26.18,15.59,7.673,0,0,0,0,0,0,0,0,0,0,0,0,0,0,0,0,
770,140.9,137.2,83.88,76.69,78.59,64.25,24.76,33.38,25.81,28.99,4.214,13.81,9.423,29.36,16.8,10.55,0,0,0,0,0,0,0,0,0,0,0,0,0,0,0,0,
771,138.1,141.9,78.23,81.47,73.46,52.96,29.5,26.48,28.86,29.08,-0.5813,11.2,10.93,27.0,17.76,10.35,0,0,0,0,0,0,0,0,0,0,0,0,0,0,0,0,
772,132.6,131.4,68.83,82.47,65.21,51.8,32.55,33.01,27.27,26.23,3.088,11.47,12.45,25.57,19.55,11.0,0,0,0,0,0,0,0,0,0,0,0,0,0,0,0,0,
773,124.9,112.3,66.05,72.81,61.83,52.99,22.03,29.25,26.27,25.99,7.233,12.7,13.01,26.66,22.95,11.78,0,0,0,0,0,0,0,0,0,0,0,0,0,0,0,0,
774,107.7,91.2,61.03,52.16,56.95,44.67,19.32,15.58,27.86,26.42,7.215,9.152,12.47,26.63,21.95,10.28,0,0,0,0,0,0,0,0,0,0,0,0,0,0,0,0,
775,85.92,73.03,54.7,44.13,51.51,45.65,27.45,20.3,28.91,26.02,7.596,7.505,11.03,24.16,20.21,14.44,0,0,0,0,0,0,0,0,0,0,0,0,0,0,0,0,
776,74.16,69.08,47.57,48.59,44.93,47.41,19.81,32.7,24.33,22.57,6.924,8.826,8.667,18.79,20.67,19.46,0,0,0,0,0,0,0,0,0,0,0,0,0,0,0,0,
777,63.06,67.47,41.11,43.84,39.17,37.16,10.69,30.43,17.24,16.09,4.38,8.041,6.792,15.02,17.09,15.95,0,0,0,0,0,0,0,0,0,0,0,0,0,0,0,0,
778,51.51,59.36,40.66,44.23,38.74,35.76,17.97,23.6,16.42,15.49,3.974,9.083,8.133,17.9,11.6,12.14,0,0,0,0,0,0,0,0,0,0,0,0,0,0,0,0,
779,51.34,54.85,39.5,49.06,37.12,41.81,17.01,29.09,18.26,20.75,6.299,14.67,12.51,22.78,12.04,13.82,0,0,0,0,0,0,0,0,0,0,0,0,0,0,0,0,
780,47.84,48.93,36.01,36.75,34.05,37.72,14.29,38.23,18.12,23.74,9.664,19.67,18.25,26.36,18.23,17.22,0,0,0,0,0,0,0,0,0,0,0,0,0,0,0,0,
781,36.17,41.37,38.9,33.01,36.92,34.53,32.46,35.25,23.11,27.44,15.28,20.07,22.79,29.14,21.39,18.85,0,0,0,0,0,0,0,0,0,0,0,0,0,0,0,0,
782,31.11,40.34,38.97,41.92,36.41,35.08,33.61,31.92,29.07,29.77,18.39,15.97,19.7,26.12,15.28,15.38,0,0,0,0,0,0,0,0,0,0,0,0,0,0,0,0,
783,26.1,36.14,30.96,32.56,29.44,31.03,7.273,39.16,24.08,24.12,11.19,13.05,10.94,22.15,9.69,12.41,0,0,0,0,0,0,0,0,0,0,0,0,0,0,0,0,
784,23.31,32.0,31.62,29.59,30.96,33.22,12.77,39.42,18.85,22.32,3.471,15.44,9.133,25.75,12.3,15.19,0,0,0,0,0,0,0,0,0,0,0,0,0,0,0,0,
785,34.45,36.77,38.06,43.98,36.21,37.42,40.16,31.25,25.46,27.2,6.849,17.4,14.13,26.69,13.57,16.34,0,0,0,0,0,0,0,0,0,0,0,0,0,0,0,0,
786,40.85,37.55,36.49,37.98,34.37,32.59,27.4,32.94,30.42,24.9,12.87,16.57,16.85,22.81,12.32,15.68,0,0,0,0,0,0,0,0,0,0,0,0,0,0,0,0,
787,33.94,36.15,36.27,27.19,34.97,35.14,5.923,36.94,27.4,22.73,14.51,16.03,19.07,26.51,14.06,17.11,0,0,0,0,0,0,0,0,0,0,0,0,0,0,0,0,
788,30.71,40.54,40.05,39.9,37.94,43.15,26.35,30.48,29.71,28.49,13.95,11.78,21.3,30.2,12.93,14.08,0,0,0,0,0,0,0,0,0,0,0,0,0,0,0,0,
789,33.34,40.76,37.85,47.37,35.01,37.97,42.43,27.16,34.57,29.02,12.97,6.114,18.9,26.11,10.71,9.455,0,0,0,0,0,0,0,0,0,0,0,0,0,0,0,0,
790,33.92,38.64,33.19,35.64,31.3,34.39,16.41,34.13,30.77,26.11,15.37,8.764,17.28,26.74,14.98,11.98,0,0,0,0,0,0,0,0,0,0,0,0,0,0,0,0,
791,24.29,37.11,30.52,28.5,29.37,41.72,-1.693,35.81,28.69,30.12,16.47,12.9,22.23,32.03,20.11,15.55,0,0,0,0,0,0,0,0,0,0,0,0,0,0,0,0,
792,7.635,29.1,30.17,32.03,28.96,41.04,19.31,29.31,34.7,32.46,10.96,9.787,27.45,30.5,22.28,15.65,0,0,0,0,0,0,0,0,0,0,0,0,0,0,0,0,
793,7.218,24.66,33.18,34.47,31.83,33.09,38.71,29.92,33.52,28.02,10.64,10.14,27.95,26.65,24.8,18.58,0,0,0,0,0,0,0,0,0,0,0,0,0,0,0,0,
794,21.07,30.87,33.87,35.15,32.16,32.66,30.3,37.13,25.02,26.57,17.47,17.45,26.71,27.85,24.75,22.44,0,0,0,0,0,0,0,0,0,0,0,0,0,0,0,0,
795,22.21,34.25,29.43,35.94,27.53,34.42,15.3,34.74,23.65,28.81,15.61,16.59,21.34,26.58,15.39,16.5,0,0,0,0,0,0,0,0,0,0,0,0,0,0,0,0,
796,11.21,27.66,22.85,30.46,21.45,28.9,7.868,22.55,21.98,24.5,4.065,6.941,9.29,19.24,0.521,3.842,0,0,0,0,0,0,0,0,0,0,0,0,0,0,0,0,
797,5.64,18.74,19.31,25.05,18.4,26.84,6.489,20.75,15.07,18.32,-2.912,6.907,4.829,20.81,-1.935,3.199,0,0,0,0,0,0,0,0,0,0,0,0,0,0,0,0,
798,12.38,19.12,25.78,31.62,24.13,38.73,12.61,34.85,20.75,25.13,1.208,16.46,14.48,32.6,9.489,14.2,0,0,0,0,0,0,0,0,0,0,0,0,0,0,0,0,
799,21.91,27.05,30.61,36.33,28.0,45.58,16.54,39.17,31.89,34.05,6.733,16.04,18.68,31.33,10.97,14.13,0,0,0,0,0,0,0,0,0,0,0,0,0,0,0,0,
800,14.47,26.48,20.81,28.96,18.93,32.65,9.229,27.18,24.3,26.63,3.027,6.716,11.71,18.74,1.733,3.8,0,0,0,0,0,0,0,0,0,0,0,0,0,0,0,0,
801,-1.591,19.74,16.08,27.64,15.52,23.4,4.042,27.72,12.74,17.66,-1.04,6.017,9.514,18.75,1.886,3.045,0,0,0,0,0,0,0,0,0,0,0,0,0,0,0,0,
802,-2.779,22.02,26.45,34.67,25.65,30.4,7.237,38.19,18.05,22.04,3.321,12.0,11.99,25.96,6.69,8.527,0,0,0,0,0,0,0,0,0,0,0,0,0,0,0,0,
803,-0.8794,24.36,27.36,32.33,25.62,31.79,6.913,32.32,25.13,25.96,4.88,13.68,9.712,23.95,4.553,8.866,0,0,0,0,0,0,0,0,0,0,0,0,0,0,0,0,
804,-6.61,14.33,13.76,24.28,12.1,24.11,4.381,22.43,21.55,21.61,-2.23,12.84,4.541,18.21,0.7403,9.029,0,0,0,0,0,0,0,0,0,0,0,0,0,0,0,0,
805,-2.312,5.06,8.377,21.56,7.508,25.19,5.636,25.62,15.83,17.32,-7.713,11.91,2.191,16.57,0.405,12.04,0,0,0,0,0,0,0,0,0,0,0,0,0,0,0,0,
806,8.601,6.383,15.32,19.65,14.71,30.49,0.867,29.54,13.0,17.2,-5.274,8.503,5.989,17.8,3.949,12.56,0,0,0,0,0,0,0,0,0,0,0,0,0,0,0,0,
807,6.415,9.368,19.0,16.03,18.14,25.15,-4.826,24.53,11.8,18.49,1.068,4.096,11.82,17.64,8.137,10.43,0,0,0,0,0,0,0,0,0,0,0,0,0,0,0,0,
808,-3.862,10.51,15.07,13.24,14.33,15.48,8.48,15.8,13.34,16.77,6.485,3.905,13.75,14.31,9.753,10.31,0,0,0,0,0,0,0,0,0,0,0,0,0,0,0,0,
809,-7.561,11.7,10.72,10.98,10.05,11.91,21.69,13.99,16.35,13.17,10.04,8.106,13.08,11.62,10.12,12.15,0,0,0,0,0,0,0,0,0,0,0,0,0,0,0,0,
810,-4.786,7.489,5.96,11.53,4.988,9.416,6.52,17.79,11.92,10.55,6.564,7.326,7.094,7.824,3.62,9.418,0,0,0,0,0,0,0,0,0,0,0,0,0,0,0,0,
811,-6.619,0.5081,-0.5961,14.51,-1.162,6.369,-9.435,15.23,-0.1884,5.32,-7.104,-0.6116,-4.114,1.726,-9.769,1.562,0,0,0,0,0,0,0,0,0,0,0,0,0,0,0,0,
812,-16.81,-0.6052,-0.9959,11.81,-0.8473,9.25,-3.147,12.75,-2.992,1.76,-14.59,-3.49,-6.297,4.335,-13.17,-1.065,0,0,0,0,0,0,0,0,0,0,0,0,0,0,0,0,
813,-22.16,-2.066,5.413,3.424,5.436,11.77,-1.439,15.94,5.32,8.271,-4.383,0.655,3.289,13.5,-4.61,4.426,0,0,0,0,0,0,0,0,0,0,0,0,0,0,0,0,
814,-15.1,-4.098,9.103,3.945,8.776,8.402,-6.956,14.64,8.662,15.12,7.242,3.878,12.22,15.27,3.174,9.295,0,0,0,0,0,0,0,0,0,0,0,0,0,0,0,0,
815,-8.648,3.386,9.575,14.96,9.172,10.07,3.806,16.99,10.44,14.86,8.963,7.833,17.17,15.15,8.639,9.919,0,0,0,0,0,0,0,0,0,0,0,0,0,0,0,0,
816,-12.2,7.335,9.314,16.7,9.027,16.03,20.85,28.25,17.71,16.9,9.102,12.17,18.36,18.87,9.066,7.535,0,0,0,0,0,0,0,0,0,0,0,0,0,0,0,0,
817,-16.14,-0.2497,5.319,8.722,5.279,13.32,22.41,28.47,17.69,19.45,11.9,10.84,13.8,16.3,2.216,3.443,0,0,0,0,0,0,0,0,0,0,0,0,0,0,0,0,
818,-12.51,-1.076,-0.1772,9.098,-0.1113,6.865,7.111,14.92,9.542,13.92,12.61,6.342,8.473,9.294,-1.615,2.21,0,0,0,0,0,0,0,0,0,0,0,0,0,0,0,0,
819,-7.414,3.89,-0.6696,15.95,-0.1264,7.747,-6.129,10.03,7.313,8.316,9.787,4.476,7.217,9.191,-0.3832,4.394,0,0,0,0,0,0,0,0,0,0,0,0,0,0,0,0,
820,-3.566,5.741,6.666,21.39,7.42,13.13,-3.103,23.4,10.16,10.99,11.1,6.451,9.504,14.13,0.935,5.851,0,0,0,0,0,0,0,0,0,0,0,0,0,0,0,0,
821,-1.604,7.306,13.67,19.83,13.14,13.54,-4.63,29.85,10.21,15.06,17.57,8.627,13.39,14.03,3.679,6.263,0,0,0,0,0,0,0,0,0,0,0,0,0,0,0,0,
822,-8.138,-0.6527,7.41,5.556,6.417,5.139,-11.34,9.924,6.832,11.39,15.08,7.576,14.21,6.695,3.735,6.508,0,0,0,0,0,0,0,0,0,0,0,0,0,0,0,0,
823,-14.95,-9.865,-2.394,-1.347,-2.176,-0.9213,7.718,-0.0095,2.22,4.058,6.601,8.83,11.95,3.672,1.656,8.832,0,0,0,0,0,0,0,0,0,0,0,0,0,0,0,0,
824,-12.19,-4.483,3.03,6.321,3.134,5.092,25.74,19.55,2.377,5.633,12.52,14.31,15.87,11.6,8.645,15.2,0,0,0,0,0,0,0,0,0,0,0,0,0,0,0,0,
825,-9.392,-2.944,15.24,2.906,14.42,12.81,12.45,25.86,12.57,15.02,25.66,15.18,25.27,18.26,17.22,17.77,0,0,0,0,0,0,0,0,0,0,0,0,0,0,0,0,
826,-6.452,-4.216,17.77,-0.0795,16.93,13.04,2.067,17.21,22.34,18.43,21.38,11.93,23.49,14.59,11.12,11.05,0,0,0,0,0,0,0,0,0,0,0,0,0,0,0,0,
827,-1.581,4.788,10.55,14.85,9.562,9.398,3.796,24.61,15.01,12.31,3.321,11.81,10.41,7.246,0.6984,5.345,0,0,0,0,0,0,0,0,0,0,0,0,0,0,0,0,
828,-5.549,3.516,3.353,18.6,2.638,7.086,7.263,24.95,0.6011,5.695,-5.4,11.71,7.538,4.86,1.582,7.202,0,0,0,0,0,0,0,0,0,0,0,0,0,0,0,0,
829,-11.06,-2.944,3.67,8.291,3.713,8.334,13.54,6.237,1.374,5.769,-1.571,7.217,13.26,6.213,4.261,7.372,0,0,0,0,0,0,0,0,0,0,0,0,0,0,0,0,
830,-14.37,-2.203,1.115,4.542,1.113,5.162,-5.674,-2.825,5.235,6.241,1.61,1.885,9.978,2.67,0.1399,2.38,0,0,0,0,0,0,0,0,0,0,0,0,0,0,0,0,
831,-24.6,-16.29,-9.408,-5.915,-9.018,-5.966,-23.88,0.9001,-3.183,-0.5291,0.1063,0.2499,6.673,-3.183,-1.157,1.375,0,0,0,0,0,0,0,0,0,0,0,0,0,0,0,0,
832,-30.85,-31.68,-10.89,-22.42,-10.11,-12.41,9.882,6.876,-5.627,-4.702,-5.85,0.6644,9.601,-3.78,0.2004,3.079,0,0,0,0,0,0,0,0,0,0,0,0,0,0,0,0,
833,-33.24,-28.63,-8.944,-24.56,-8.685,-14.12,27.93,4.406,-2.14,-3.827,-11.47,-2.149,4.74,-7.495,-4.378,-1.414,0,0,0,0,0,0,0,0,0,0,0,0,0,0,0,0,
834,-38.57,-30.31,-15.97,-18.67,-14.83,-15.92,-4.683,-11.26,-10.07,-9.856,-7.287,-5.118,-1.448,-12.67,-7.166,-4.547,0,0,0,0,0,0,0,0,0,0,0,0,0,0,0,0,
835,-31.31,-31.09,-12.65,-12.11,-10.76,-8.163,-11.39,-9.94,-12.04,-11.58,-3.395,-1.272,1.882,-4.955,-2.922,2.057,0,0,0,0,0,0,0,0,0,0,0,0,0,0,0,0,
836,-23.72,-19.68,-3.828,-6.746,-3.597,-0.0448,-1.926,8.898,-1.559,-0.6133,-7.705,2.719,2.584,1.444,-2.417,6.696,0,0,0,0,0,0,0,0,0,0,0,0,0,0,0,0,
837,-33.73,-24.03,-14.34,-13.55,-14.27,-6.707,-22.16,3.771,-5.775,-0.6747,-6.965,0.0067,-2.592,-7.976,-6.501,2.59,0,0,0,0,0,0,0,0,0,0,0,0,0,0,0,0,
838,-40.81,-36.85,-26.28,-22.22,-24.37,-13.12,-30.64,-9.374,-19.59,-12.18,-5.192,0.6989,-4.222,-14.3,-5.911,0.3023,0,0,0,0,0,0,0,0,0,0,0,0,0,0,0,0,
839,-44.08,-30.58,-24.04,-18.73,-21.79,-12.12,-18.62,-0.7082,-19.96,-12.62,-12.11,6.764,-3.635,-11.65,-3.141,2.188,0,0,0,0,0,0,0,0,0,0,0,0,0,0,0,0,
840,-48.48,-24.62,-21.71,-17.37,-19.82,-14.26,-12.41,3.752,-16.61,-10.73,-16.37,5.291,-4.616,-13.56,-3.511,1.868,0,0,0,0,0,0,0,0,0,0,0,0,0,0,0,0,
841,-36.76,-29.45,-17.53,-20.13,-16.36,-13.29,-1.819,1.608,-18.6,-14.81,-12.63,1.57,-3.162,-12.9,-1.671,3.323,0,0,0,0,0,0,0,0,0,0,0,0,0,0,0,0,
842,-29.8,-23.89,-10.96,-12.88,-11.12,-6.693,-3.527,12.21,-16.25,-9.583,-8.363,6.698,2.025,-3.718,2.839,8.139,0,0,0,0,0,0,0,0,0,0,0,0,0,0,0,0,
843,-41.97,-14.93,-13.31,-4.244,-12.92,-5.389,-26.61,12.74,-10.44,-0.3693,-10.3,8.639,4.744,0.3285,2.721,7.76,0,0,0,0,0,0,0,0,0,0,0,0,0,0,0,0,
844,-33.71,-16.04,-14.86,-2.456,-13.35,-4.204,-25.24,-2.219,-4.765,-0.432,-10.82,3.944,7.423,0.1191,3.54,6.479,0,0,0,0,0,0,0,0,0,0,0,0,0,0,0,0,
845,-9.08,-12.11,-7.77,0.3974,-7.237,3.148,-1.162,0.5253,4.216,1.264,0.7544,7.001,14.8,5.896,9.773,11.4,0,0,0,0,0,0,0,0,0,0,0,0,0,0,0,0,
846,-8.945,-4.106,-3.268,2.098,-3.59,6.637,-3.049,16.6,6.707,7.75,1.911,11.17,13.96,8.535,8.372,10.36,0,0,0,0,0,0,0,0,0,0,0,0,0,0,0,0,
847,-17.13,-5.876,-2.922,0.5529,-2.877,5.27,-22.0,13.64,-3.475,6.237,-14.39,5.463,5.064,2.833,0.2469,1.881,0,0,0,0,0,0,0,0,0,0,0,0,0,0,0,0,
848,-12.58,-6.143,-2.708,1.093,-2.45,7.676,-17.68,0.8276,-8.471,1.446,-13.14,2.744,5.785,1.758,-0.1667,2.319,0,0,0,0,0,0,0,0,0,0,0,0,0,0,0,0,
849,-12.4,-0.879,-3.215,-0.4474,-2.664,10.57,1.591,6.093,-3.482,4.17,-2.815,7.03,8.409,6.894,1.934,7.854,0,0,0,0,0,0,0,0,0,0,0,0,0,0,0,0,
850,-13.83,-1.848,-0.7007,-2.181,-0.2248,8.68,3.939,13.31,-1.409,8.121,-10.35,6.549,4.866,7.7,-1.369,6.409,0,0,0,0,0,0,0,0,0,0,0,0,0,0,0,0,
851,-12.16,-5.982,2.213,3.06,1.773,5.806,-5.27,3.476,1.565,6.599,-13.7,4.196,6.035,4.365,-4.322,4.322,0,0,0,0,0,0,0,0,0,0,0,0,0,0,0,0,
852,-22.56,-12.63,-0.2939,3.04,-1.001,3.408,-4.612,3.645,4.725,3.696,-3.67,6.864,8.449,3.454,-2.634,6.823,0,0,0,0,0,0,0,0,0,0,0,0,0,0,0,0,
