%OpenBCI Raw EXG Data
%Number of channels = 16
%Sample Rate = 125 Hz
%Board = OpenBCI_GUI$BoardCytonSerialDaisy
Sample Index,EXG Channel 0,EXG Channel 1,EXG Channel 2,EXG Channel 3,EXG Channel 4,EXG Channel 5,EXG Channel 6,EXG Channel 7,EXG Channel 8,EXG Channel 9,EXG Channel 10,EXG Channel 11,EXG Channel 12,EXG Channel 13,EXG Channel 14,EXG Channel 15,Accel Channel 0,Accel Channel 1,Accel Channel 2,Other,Other.1,Other.2,Other.3,Other.4,Other.5,Other.6,Analog Channel 0,Analog Channel 1,Analog Channel 2,Timestamp,Other.7,Timestamp (Formatted),Annotations
1,0.0,0.0,0.0,0.0,0.0,0.0,-0.0,-0.0,0.0,-0.0,-0.0,0.0,0.0,-0.0,-0.0,0.0,0,0,0,0,0,0,0,0,0,0,0,0,0,0,0,0,T0
2,7.914,32.21,9.804,2.495,4.317,4.64,-9.057,-10.42,2.272,-2.644,-2.276,-1.514,4.126,5.32,10.04,4.095,0,0,0,0,0,0,0,0,0,0,0,0,0,0,0,0,
3,41.42,64.14,46.65,3.821,-13.68,2.174,-13.34,-15.16,-0.0097,8.666,3.7,5.872,12.14,17.12,13.77,10.88,0,0,0,0,0,0,0,0,0,0,0,0,0,0,0,0,
4,62.66,65.0,37.03,18.41,6.15,-6.183,-14.26,-11.92,2.008,4.737,0.4411,3.18,8.312,7.415,10.09,7.737,0,0,0,0,0,0,0,0,0,0,0,0,0,0,0,0,
5,60.66,32.61,28.72,22.32,17.91,-8.953,-6.366,-9.096,2.301,-7.509,0.3932,0.8414,1.798,-1.334,9.454,6.838,0,0,0,0,0,0,0,0,0,0,0,0,0,0,0,0,
6,46.92,15.92,61.93,7.801,-3.644,-1.935,3.964,-12.32,2.561,-0.951,11.51,7.11,5.968,8.253,14.06,12.94,0,0,0,0,0,0,0,0,0,0,0,0,0,0,0,0,
7,24.68,28.47,54.63,8.592,12.12,3.168,0.7711,-12.22,9.922,7.496,12.83,3.722,8.206,8.471,14.35,10.08,0,0,0,0,0,0,0,0,0,0,0,0,0,0,0,0,
8,14.17,28.26,28.81,8.781,21.26,3.659,-6.141,-7.01,6.459,6.321,6.154,-1.237,4.812,6.535,11.49,5.208,0,0,0,0,0,0,0,0,0,0,0,0,0,0,0,0,
9,17.06,16.32,27.28,-5.025,-19.82,5.632,-7.741,-6.985,-5.903,5.649,0.1477,0.3924,3.167,8.63,10.14,4.589,0,0,0,0,0,0,0,0,0,0,0,0,0,0,0,0,
10,26.02,28.46,16.4,4.901,-39.92,0.7196,-16.68,-10.34,-3.342,0.692,-4.303,-1.808,2.74,-0.1675,7.476,1.555,0,0,0,0,0,0,0,0,0,0,0,0,0,0,0,0,
11,43.86,44.9,32.04,22.19,-21.49,-11.46,-22.43,-13.37,5.034,-5.619,-0.4079,-1.435,2.206,-3.625,5.762,0.8982,0,0,0,0,0,0,0,0,0,0,0,0,0,0,0,0,
12,49.91,37.83,65.57,16.18,0.6263,-12.86,-9.071,-18.43,2.719,-4.446,5.778,0.7607,1.997,1.524,8.184,3.741,0,0,0,0,0,0,0,0,0,0,0,0,0,0,0,0,
13,40.28,29.13,40.15,14.27,8.895,-1.705,2.299,-16.86,-2.61,-5.142,7.113,-2.482,3.875,1.385,10.54,7.434,0,0,0,0,0,0,0,0,0,0,0,0,0,0,0,0,
14,31.92,38.92,5.491,19.3,4.941,8.572,-0.6442,-8.246,-1.621,-2.543,8.216,4.331,9.544,9.823,12.8,14.95,0,0,0,0,0,0,0,0,0,0,0,0,0,0,0,0,
15,23.55,53.98,12.82,20.55,17.05,13.7,-5.204,-7.889,8.87,14.82,7.623,17.25,15.26,21.97,15.23,18.98,0,0,0,0,0,0,0,0,0,0,0,0,0,0,0,0,
16,27.39,40.59,19.67,26.58,20.61,15.56,-6.026,-12.23,19.73,23.71,4.867,11.26,13.4,14.9,11.36,12.07,0,0,0,0,0,0,0,0,0,0,0,0,0,0,0,0,
17,36.6,2.221,25.67,17.73,-14.65,10.58,-0.986,-9.177,13.9,12.19,3.62,-2.464,4.055,2.754,4.316,3.038,0,0,0,0,0,0,0,0,0,0,0,0,0,0,0,0,
18,26.64,-1.107,25.83,-3.825,-24.1,-3.01,-3.63,-5.886,1.54,4.364,0.6295,-2.406,0.3966,1.181,2.037,0.487,0,0,0,0,0,0,0,0,0,0,0,0,0,0,0,0,
19,32.8,35.53,1.772,-3.921,4.328,-8.084,-22.48,-9.17,4.324,4.58,-3.266,2.848,7.048,3.141,2.634,3.128,0,0,0,0,0,0,0,0,0,0,0,0,0,0,0,0,
20,53.34,52.34,8.722,6.291,2.556,5.18,-23.69,-11.24,11.8,6.462,1.494,5.95,13.12,10.26,6.846,8.648,0,0,0,0,0,0,0,0,0,0,0,0,0,0,0,0,
21,28.98,38.68,49.65,6.298,-14.01,11.06,-4.315,-5.938,8.317,16.37,11.26,7.694,13.98,15.95,13.07,11.8,0,0,0,0,0,0,0,0,0,0,0,0,0,0,0,0,
22,5.704,21.82,48.52,7.919,-0.7449,0.8384,2.65,0.1165,4.772,18.46,11.18,4.032,12.47,10.33,13.14,10.05,0,0,0,0,0,0,0,0,0,0,0,0,0,0,0,0,
23,36.18,16.71,13.03,11.4,13.96,0.8869,7.474,-1.36,10.28,7.306,6.429,2.096,13.23,11.52,12.16,12.69,0,0,0,0,0,0,0,0,0,0,0,0,0,0,0,0,
24,48.97,20.77,1.937,5.037,-1.737,5.15,9.892,-4.927,13.98,7.433,5.707,4.487,14.55,16.7,11.76,16.02,0,0,0,0,0,0,0,0,0,0,0,0,0,0,0,0,
25,20.27,16.52,13.38,3.467,-22.13,-10.1,-6.071,-3.559,4.253,6.317,1.461,-0.1565,4.623,3.54,5.003,8.324,0,0,0,0,0,0,0,0,0,0,0,0,0,0,0,0,
26,10.92,14.25,13.07,17.45,-14.39,-22.9,-10.5,-3.584,-10.61,-9.268,-0.7563,-6.888,-6.673,-6.023,3.26,3.268,0,0,0,0,0,0,0,0,0,0,0,0,0,0,0,0,
27,23.34,28.08,-5.495,11.65,-4.693,-11.74,-7.979,-9.329,-11.57,-9.039,-0.0624,-7.861,-1.442,-0.2282,8.138,6.679,0,0,0,0,0,0,0,0,0,0,0,0,0,0,0,0,
28,21.29,28.78,-13.48,-18.07,-11.87,-2.445,-25.48,-14.0,-0.4476,-0.0186,-7.928,-8.445,5.036,-3.143,5.21,3.878,0,0,0,0,0,0,0,0,0,0,0,0,0,0,0,0,
29,-5.391,6.851,-3.839,-17.63,-3.795,-11.29,-23.72,-15.57,4.354,-4.159,-6.973,-6.388,2.063,-4.416,4.424,1.955,0,0,0,0,0,0,0,0,0,0,0,0,0,0,0,0,
30,-21.71,-4.578,3.036,3.167,-4.674,-17.4,0.542,-17.87,-4.822,1.429,3.683,-0.7459,0.1412,4.129,9.289,6.022,0,0,0,0,0,0,0,0,0,0,0,0,0,0,0,0,
31,15.0,8.292,16.19,0.1282,-41.04,-11.35,-6.338,-16.9,-17.51,8.893,-2.426,0.3803,-0.8674,0.7646,3.666,2.746,0,0,0,0,0,0,0,0,0,0,0,0,0,0,0,0,
32,51.24,15.46,25.71,-0.6058,-43.04,-8.339,-26.66,-13.77,-10.91,-5.566,-6.358,-3.97,0.869,-5.423,-0.6939,-2.131,0,0,0,0,0,0,0,0,0,0,0,0,0,0,0,0,
33,31.37,-1.012,5.011,11.5,-3.955,-14.23,-16.32,-18.52,7.585,-14.09,6.71,-5.727,5.435,-1.098,6.782,0.415,0,0,0,0,0,0,0,0,0,0,0,0,0,0,0,0,
34,15.34,2.137,-5.665,8.059,-1.164,-18.06,1.612,-21.44,0.8178,-9.155,6.951,0.9258,2.192,0.7124,7.735,2.968,0,0,0,0,0,0,0,0,0,0,0,0,0,0,0,0,
35,17.58,25.61,0.3315,1.948,-24.53,-14.4,-6.091,-13.7,-14.35,-13.3,-2.675,2.908,-1.936,-1.865,2.753,3.46,0,0,0,0,0,0,0,0,0,0,0,0,0,0,0,0,
36,0.2477,11.65,-19.83,-0.785,-32.0,-13.56,-22.89,-10.89,-7.085,-16.65,-0.3829,-8.614,-1.681,-5.131,4.256,4.17,0,0,0,0,0,0,0,0,0,0,0,0,0,0,0,0,
37,4.009,2.126,-11.23,-17.39,-30.6,-19.4,-21.85,-8.144,-11.22,-14.28,2.13,-11.31,-5.025,-8.182,5.736,4.391,0,0,0,0,0,0,0,0,0,0,0,0,0,0,0,0,
38,17.41,30.53,42.71,-26.75,-14.72,-15.07,-13.09,5.039,-22.93,-14.02,-1.498,-1.655,-1.0,-5.724,5.79,4.307,0,0,0,0,0,0,0,0,0,0,0,0,0,0,0,0,
39,-2.811,14.43,36.63,-8.496,3.536,-3.818,-11.25,6.648,-0.5432,-9.192,-1.76,-3.138,8.743,-4.051,6.051,1.993,0,0,0,0,0,0,0,0,0,0,0,0,0,0,0,0,
40,7.728,-19.61,-5.994,11.87,-12.28,-11.58,-9.17,-0.6787,9.64,-9.374,-0.4123,-8.853,0.9332,-8.434,1.331,-2.76,0,0,0,0,0,0,0,0,0,0,0,0,0,0,0,0,
41,38.45,10.32,10.76,7.862,-31.18,-17.57,-8.373,5.355,-19.41,-17.03,2.016,-3.964,-7.831,-7.314,1.05,-2.461,0,0,0,0,0,0,0,0,0,0,0,0,0,0,0,0,
42,15.42,29.46,25.59,-7.478,-10.12,4.589,-8.721,7.54,-21.04,-10.36,7.25,0.3187,4.73,2.198,9.44,5.851,0,0,0,0,0,0,0,0,0,0,0,0,0,0,0,0,
43,9.057,5.085,0.7742,-5.71,13.2,12.61,-2.503,-2.367,4.384,-0.5472,6.744,-1.533,13.68,5.929,10.85,10.6,0,0,0,0,0,0,0,0,0,0,0,0,0,0,0,0,
44,46.84,18.38,10.27,9.068,3.949,-5.957,-3.214,-2.632,7.388,-4.581,2.277,-2.705,8.502,0.5131,5.387,7.127,0,0,0,0,0,0,0,0,0,0,0,0,0,0,0,0,
45,38.87,42.69,26.28,12.98,-16.54,-6.74,-13.07,5.181,4.364,-6.157,2.035,-1.6,4.83,-1.962,3.67,6.905,0,0,0,0,0,0,0,0,0,0,0,0,0,0,0,0,
46,9.299,22.06,-1.78,9.503,-28.55,-2.611,-13.06,8.504,1.949,-5.95,-0.6774,0.9407,-0.6593,0.31,4.241,11.17,0,0,0,0,0,0,0,0,0,0,0,0,0,0,0,0,
47,16.78,14.13,-3.929,12.55,-18.14,-12.12,-8.468,5.818,-10.93,-10.51,-2.579,4.495,-3.464,0.8219,6.793,12.17,0,0,0,0,0,0,0,0,0,0,0,0,0,0,0,0,
48,23.6,36.94,30.61,9.751,3.86,-2.411,-7.969,-1.512,-10.49,-6.185,3.686,6.215,3.542,0.7191,9.19,10.32,0,0,0,0,0,0,0,0,0,0,0,0,0,0,0,0,
49,15.37,26.35,30.18,-3.64,-0.5394,12.38,-5.552,-2.608,-2.744,-1.371,5.728,4.316,5.726,0.7432,7.272,7.246,0,0,0,0,0,0,0,0,0,0,0,0,0,0,0,0,
50,14.29,-5.549,7.171,-1.633,-8.641,4.198,-8.849,4.366,-2.435,-6.54,5.123,3.209,5.88,1.265,5.671,4.662,0,0,0,0,0,0,0,0,0,0,0,0,0,0,0,0,
51,25.65,-0.216,-0.232,12.48,-3.148,1.425,-15.18,5.674,5.828,-7.326,7.745,5.185,8.809,4.09,3.86,4.606,0,0,0,0,0,0,0,0,0,0,0,0,0,0,0,0,
52,43.96,25.84,2.389,8.235,-27.87,3.937,-8.935,3.611,4.428,-4.461,2.132,6.304,2.395,6.201,1.011,5.521,0,0,0,0,0,0,0,0,0,0,0,0,0,0,0,0,
53,36.62,34.95,8.752,-1.568,-39.06,-11.1,-4.466,3.554,-8.659,-4.606,-0.5851,6.06,-1.138,7.156,3.813,6.287,0,0,0,0,0,0,0,0,0,0,0,0,0,0,0,0,
54,-0.2131,21.92,5.941,-1.293,4.721,-16.05,-7.197,-1.871,0.9935,-3.223,10.19,4.336,5.973,6.099,8.2,5.555,0,0,0,0,0,0,0,0,0,0,0,0,0,0,0,0,
55,-11.23,-2.667,1.562,-4.663,13.88,0.6063,3.873,-5.607,8.286,-5.611,14.18,1.749,6.561,0.2612,8.25,4.989,0,0,0,0,0,0,0,0,0,0,0,0,0,0,0,0,
56,17.13,-1.262,5.157,2.228,-11.64,3.7,5.294,0.3678,-8.028,-10.17,7.109,3.333,1.882,-4.756,6.182,5.751,0,0,0,0,0,0,0,0,0,0,0,0,0,0,0,0,
57,40.5,30.32,-7.76,16.98,-6.139,-11.1,-22.95,0.282,-13.34,-8.863,3.025,5.072,-0.9132,-5.971,2.434,3.107,0,0,0,0,0,0,0,0,0,0,0,0,0,0,0,0,
58,36.02,35.6,-6.319,2.675,-25.38,-18.27,-28.39,-9.932,-11.42,-9.871,5.603,2.266,-1.897,-5.602,0.9778,0.4069,0,0,0,0,0,0,0,0,0,0,0,0,0,0,0,0,
59,21.11,9.006,32.12,-17.19,-55.18,-12.23,-1.196,-11.19,-14.48,-13.58,8.926,2.095,1.915,-3.258,3.3,1.049,0,0,0,0,0,0,0,0,0,0,0,0,0,0,0,0,
60,16.2,0.7528,37.19,-8.768,-12.47,-1.919,1.203,-2.116,-5.013,-11.75,4.768,3.141,4.929,-2.059,3.827,-0.9897,0,0,0,0,0,0,0,0,0,0,0,0,0,0,0,0,
61,13.38,19.81,11.6,2.211,26.77,2.324,-12.23,3.104,4.081,-8.903,-0.3852,-2.324,7.982,-1.571,3.927,-2.875,0,0,0,0,0,0,0,0,0,0,0,0,0,0,0,0,
62,9.035,31.34,10.67,10.89,6.986,1.183,-3.993,3.659,5.225,-4.789,3.836,-7.576,13.53,1.366,5.064,-0.8955,0,0,0,0,0,0,0,0,0,0,0,0,0,0,0,0,
63,17.01,13.33,3.083,20.74,-0.1402,6.827,0.7644,2.939,10.71,2.962,9.808,-6.274,9.267,0.8963,5.426,0.0627,0,0,0,0,0,0,0,0,0,0,0,0,0,0,0,0,
64,21.11,-7.847,-11.96,-0.8176,-2.655,6.689,-11.66,1.127,5.472,1.23,7.291,-4.7,1.623,-3.929,6.415,-0.3405,0,0,0,0,0,0,0,0,0,0,0,0,0,0,0,0,
65,17.66,3.674,4.87,-30.88,-24.5,-11.82,-11.18,-0.5278,-6.533,-11.31,0.5793,-4.229,4.662,-4.688,6.402,0.5854,0,0,0,0,0,0,0,0,0,0,0,0,0,0,0,0,
66,28.78,34.42,21.17,-13.59,-14.09,-19.81,5.71,-5.773,-2.847,-13.9,3.328,-0.7667,7.075,0.3272,6.124,4.9,0,0,0,0,0,0,0,0,0,0,0,0,0,0,0,0,
67,22.63,44.42,9.629,13.91,2.947,-9.279,7.275,-10.82,0.3049,-5.293,9.218,-0.132,1.388,3.464,6.247,7.988,0,0,0,0,0,0,0,0,0,0,0,0,0,0,0,0,
68,-4.883,18.17,-4.466,0.7238,-17.75,-6.819,-14.46,-8.168,-7.116,-6.801,1.952,-5.939,-5.67,-1.797,0.603,2.045,0,0,0,0,0,0,0,0,0,0,0,0,0,0,0,0,
69,9.31,-7.788,1.98,-8.611,-23.07,-9.055,-25.88,-11.24,-7.504,-17.6,-1.113,-9.519,-8.44,-9.067,-4.382,-3.446,0,0,0,0,0,0,0,0,0,0,0,0,0,0,0,0,
70,40.03,6.517,19.42,8.282,-4.909,-6.506,-13.44,-20.48,-1.935,-20.23,8.554,-9.547,-2.398,-8.654,1.191,0.4994,0,0,0,0,0,0,0,0,0,0,0,0,0,0,0,0,
71,29.17,27.06,16.64,-0.0544,-10.02,-5.432,-1.155,-13.53,-1.431,-16.34,8.578,-10.93,3.906,-6.068,6.567,3.522,0,0,0,0,0,0,0,0,0,0,0,0,0,0,0,0,
72,10.47,22.88,4.93,-18.8,-13.59,-2.163,3.807,-2.992,-6.208,-15.5,3.817,-10.67,0.2501,-7.691,3.756,0.5696,0,0,0,0,0,0,0,0,0,0,0,0,0,0,0,0,
73,4.465,21.27,-0.628,1.883,-1.23,-4.346,3.563,-9.467,-9.536,-16.91,4.499,-9.548,-1.056,-7.836,0.3546,-2.269,0,0,0,0,0,0,0,0,0,0,0,0,0,0,0,0,
74,-0.2693,15.31,-25.52,15.01,-12.03,-14.37,-5.726,-14.2,-5.244,-16.52,1.431,-11.38,4.27,-6.934,-1.437,-2.676,0,0,0,0,0,0,0,0,0,0,0,0,0,0,0,0,
75,8.87,-2.188,-32.61,-10.45,-29.81,-10.14,-12.97,-9.854,-3.397,-14.46,-0.4453,-11.34,-0.0564,-8.936,-2.809,-1.835,0,0,0,0,0,0,0,0,0,0,0,0,0,0,0,0,
76,22.85,7.629,13.46,-10.95,-27.73,-1.884,-14.47,-7.762,-10.53,-14.45,1.569,-7.415,-6.804,-6.04,-0.5562,-0.0993,0,0,0,0,0,0,0,0,0,0,0,0,0,0,0,0,
77,34.52,32.92,44.71,14.06,-27.61,-7.183,-9.689,-2.25,-12.7,-14.1,4.25,-4.671,-0.1811,-0.594,3.077,2.113,0,0,0,0,0,0,0,0,0,0,0,0,0,0,0,0,
78,41.72,39.98,32.05,8.422,-13.41,-1.921,8.51,4.211,-7.973,-11.62,9.934,-5.952,5.963,-3.529,3.803,2.816,0,0,0,0,0,0,0,0,0,0,0,0,0,0,0,0,
79,16.16,34.72,3.081,-3.206,23.18,10.57,17.27,-0.2968,-1.373,-12.53,8.251,-9.815,6.185,-2.0,3.682,2.957,0,0,0,0,0,0,0,0,0,0,0,0,0,0,0,0,
80,-12.24,15.2,-24.39,3.146,13.52,1.322,3.88,-9.009,8.674,-9.876,1.172,-10.53,9.431,7.583,3.082,2.781,0,0,0,0,0,0,0,0,0,0,0,0,0,0,0,0,
81,8.626,4.05,-3.84,-1.674,-28.89,-10.03,-3.745,-8.698,7.479,-2.269,4.886,-7.517,5.839,2.316,0.2339,-0.678,0,0,0,0,0,0,0,0,0,0,0,0,0,0,0,0,
82,37.2,25.77,32.35,-0.3763,-13.95,-5.464,-0.3336,-0.2787,-5.869,-8.136,9.35,-7.596,-2.341,-8.567,-1.101,-1.517,0,0,0,0,0,0,0,0,0,0,0,0,0,0,0,0,
83,27.32,29.15,5.67,14.47,10.07,-4.045,2.866,2.341,-6.913,-18.4,4.647,-6.109,-0.485,-3.292,0.3006,2.693,0,0,0,0,0,0,0,0,0,0,0,0,0,0,0,0,
84,4.338,-0.295,-14.29,-2.493,-23.51,-4.689,8.441,-0.8231,-0.862,-13.46,2.517,1.981,2.333,1.886,-0.0443,3.058,0,0,0,0,0,0,0,0,0,0,0,0,0,0,0,0,
85,-3.278,-4.717,11.72,-24.22,-27.41,0.4996,6.981,3.533,-2.677,-8.9,4.649,3.075,3.077,0.4048,0.9999,3.997,0,0,0,0,0,0,0,0,0,0,0,0,0,0,0,0,
86,11.31,19.36,1.312,1.147,18.36,-0.2692,-1.829,5.877,1.403,-9.123,6.497,-2.938,11.43,6.495,8.517,11.07,0,0,0,0,0,0,0,0,0,0,0,0,0,0,0,0,
87,35.05,40.19,-8.589,33.79,13.31,-9.161,2.383,-1.076,11.25,-3.676,9.872,0.1309,16.07,10.1,12.75,12.26,0,0,0,0,0,0,0,0,0,0,0,0,0,0,0,0,
88,38.2,43.13,29.26,29.71,-17.75,-15.11,12.27,-1.018,6.782,-6.346,9.675,5.341,8.561,3.706,7.387,6.523,0,0,0,0,0,0,0,0,0,0,0,0,0,0,0,0,
89,24.38,23.62,30.35,2.478,1.203,-6.92,1.294,2.244,-4.66,-12.48,5.952,3.67,5.472,2.742,5.065,5.691,0,0,0,0,0,0,0,0,0,0,0,0,0,0,0,0,
90,22.49,11.53,4.449,-10.19,13.89,3.805,-20.73,-2.346,-0.1131,-5.664,6.126,2.989,10.61,5.252,6.414,6.183,0,0,0,0,0,0,0,0,0,0,0,0,0,0,0,0,
91,25.03,22.97,21.19,12.19,-16.51,-4.237,-19.03,-3.175,9.063,-4.819,2.817,1.305,6.611,0.3101,0.4914,1.99,0,0,0,0,0,0,0,0,0,0,0,0,0,0,0,0,
92,12.1,32.77,27.75,19.38,-15.81,-6.498,3.866,2.879,1.274,-9.904,-0.8873,0.4999,2.131,1.416,-0.4964,3.587,0,0,0,0,0,0,0,0,0,0,0,0,0,0,0,0,
93,0.1275,33.35,-4.504,-11.04,28.51,9.447,15.86,6.22,-2.899,0.1422,10.23,6.609,15.08,10.96,8.718,11.39,0,0,0,0,0,0,0,0,0,0,0,0,0,0,0,0,
94,7.552,25.62,-15.89,-8.873,35.4,5.01,13.04,2.406,8.38,6.296,14.92,5.313,19.8,6.948,6.585,9.025,0,0,0,0,0,0,0,0,0,0,0,0,0,0,0,0,
95,25.59,19.88,3.137,18.51,-5.647,-8.928,5.686,-4.467,7.306,-1.734,-0.8069,-4.126,2.989,-4.86,-4.194,-0.0975,0,0,0,0,0,0,0,0,0,0,0,0,0,0,0,0,
96,36.68,29.67,20.82,8.72,-20.28,-2.561,-4.636,-2.615,-2.417,-4.631,-4.569,-5.062,-3.496,-5.75,-4.421,-1.275,0,0,0,0,0,0,0,0,0,0,0,0,0,0,0,0,
97,28.79,20.19,28.83,-4.107,3.804,-2.525,-5.728,1.659,-2.363,-6.865,5.594,-1.7,2.455,-3.643,-1.603,1.397,0,0,0,0,0,0,0,0,0,0,0,0,0,0,0,0,
98,15.21,-3.936,23.85,4.718,10.18,-12.01,1.502,-3.857,-3.867,-10.06,3.236,-0.9349,4.26,-1.769,-2.103,3.006,0,0,0,0,0,0,0,0,0,0,0,0,0,0,0,0,
99,18.51,14.78,4.721,9.967,-0.3135,-8.021,2.854,-1.324,-1.069,-2.451,1.446,1.114,11.46,4.681,4.021,6.586,0,0,0,0,0,0,0,0,0,0,0,0,0,0,0,0,
100,25.97,40.81,-6.02,9.938,14.17,3.683,8.626,13.87,10.73,5.653,13.22,5.011,20.06,10.89,12.58,10.99,0,0,0,0,0,0,0,0,0,0,0,0,0,0,0,0,
101,20.5,26.84,4.817,-11.44,32.09,16.74,14.21,16.96,13.08,9.395,16.25,9.059,18.42,16.55,10.4,12.66,0,0,0,0,0,0,0,0,0,0,0,0,0,0,0,0,
102,10.61,18.28,4.764,-30.44,13.88,14.97,0.2356,9.603,12.58,11.26,3.13,6.439,13.73,13.6,0.1517,7.153,0,0,0,0,0,0,0,0,0,0,0,0,0,0,0,0,
103,4.323,25.36,-7.496,3.2,-16.05,-9.445,-8.146,7.976,10.38,0.0805,-5.299,-1.972,7.117,-3.289,-5.621,-1.495,0,0,0,0,0,0,0,0,0,0,0,0,0,0,0,0,
104,11.49,21.76,17.95,27.86,-23.85,-19.28,-0.2621,8.607,-5.163,-15.65,-2.185,-3.698,-0.9638,-12.72,-5.47,-4.408,0,0,0,0,0,0,0,0,0,0,0,0,0,0,0,0,
105,28.44,22.75,47.83,2.101,-13.32,-9.255,-5.814,7.973,-13.51,-17.07,1.972,-1.458,-2.681,-7.68,-7.277,-4.376,0,0,0,0,0,0,0,0,0,0,0,0,0,0,0,0,
106,29.37,26.33,12.09,-2.005,11.37,-9.532,-9.938,6.876,-7.665,-9.484,4.918,-1.795,1.029,-2.719,-9.122,-2.688,0,0,0,0,0,0,0,0,0,0,0,0,0,0,0,0,
107,23.13,23.67,-28.0,22.76,38.28,-6.585,6.976,4.481,4.464,-1.457,6.342,1.728,8.898,2.434,-2.707,3.743,0,0,0,0,0,0,0,0,0,0,0,0,0,0,0,0,
108,25.37,29.39,2.439,24.85,31.14,9.0,15.7,5.268,26.23,5.022,8.421,8.261,17.9,8.681,9.03,11.05,0,0,0,0,0,0,0,0,0,0,0,0,0,0,0,0,
109,16.28,36.15,41.03,5.214,-7.011,9.771,12.38,11.18,25.55,4.526,16.7,10.48,16.85,8.82,15.64,17.11,0,0,0,0,0,0,0,0,0,0,0,0,0,0,0,0,
110,12.02,40.39,27.91,-12.46,-20.8,0.9194,11.84,15.19,-4.299,-1.135,17.92,9.065,9.371,6.477,13.91,18.95,0,0,0,0,0,0,0,0,0,0,0,0,0,0,0,0,
111,31.21,39.39,3.377,-8.493,5.264,4.434,4.407,11.08,-7.704,-2.558,7.211,8.306,8.776,7.775,7.437,13.44,0,0,0,0,0,0,0,0,0,0,0,0,0,0,0,0,
112,27.69,13.3,-2.394,2.614,23.26,5.549,-3.757,6.628,9.561,0.2411,1.703,7.522,8.607,7.31,-0.9614,6.247,0,0,0,0,0,0,0,0,0,0,0,0,0,0,0,0,
113,5.356,-1.287,-4.856,-5.231,7.085,-4.88,-4.586,11.33,3.163,-0.4743,-1.024,3.587,2.199,1.724,-6.442,1.604,0,0,0,0,0,0,0,0,0,0,0,0,0,0,0,0,
114,15.72,25.23,-0.6995,-2.72,-13.38,-7.513,-8.717,13.59,-8.161,-1.168,-6.954,2.031,2.842,1.489,-5.665,1.41,0,0,0,0,0,0,0,0,0,0,0,0,0,0,0,0,
115,24.76,37.42,12.78,14.55,-10.61,0.8356,-10.54,8.513,-6.514,4.223,-9.284,6.0,8.168,7.314,-5.691,4.04,0,0,0,0,0,0,0,0,0,0,0,0,0,0,0,0,
116,4.164,28.02,15.96,8.005,2.001,5.079,-5.452,10.97,-6.942,5.773,-10.48,5.363,2.171,4.916,-9.744,1.813,0,0,0,0,0,0,0,0,0,0,0,0,0,0,0,0,
117,7.378,38.26,10.6,-0.1824,5.164,1.183,-4.588,14.38,-6.436,-0.0329,-9.842,0.5015,-2.452,-1.113,-9.962,-1.359,0,0,0,0,0,0,0,0,0,0,0,0,0,0,0,0,
118,38.63,44.09,3.701,5.265,2.139,0.6974,-9.082,8.613,1.545,-1.144,-6.782,1.536,5.104,1.343,-6.348,0.137,0,0,0,0,0,0,0,0,0,0,0,0,0,0,0,0,
119,48.36,29.96,-5.518,-7.463,-4.388,9.933,-10.22,6.76,4.121,2.207,-5.89,2.537,5.811,3.1,-5.67,-1.274,0,0,0,0,0,0,0,0,0,0,0,0,0,0,0,0,
120,29.27,19.3,0.3313,-8.866,-7.175,10.23,-1.705,6.596,-4.581,1.065,-3.41,-0.8349,1.855,0.0573,-4.601,-2.999,0,0,0,0,0,0,0,0,0,0,0,0,0,0,0,0,
121,6.204,15.73,6.457,19.71,13.17,-0.5112,2.822,0.9794,-1.499,-0.8418,-1.745,1.937,12.23,2.623,1.605,2.968,0,0,0,0,0,0,0,0,0,0,0,0,0,0,0,0,
122,6.204,26.93,-9.842,17.62,32.35,5.201,-8.545,1.522,18.07,2.564,-1.945,6.375,17.98,5.588,3.506,5.695,0,0,0,0,0,0,0,0,0,0,0,0,0,0,0,0,
123,25.28,45.14,-7.97,-2.047,10.88,12.14,-12.05,4.621,12.57,2.684,-1.559,1.396,0.4473,-2.015,-6.118,-1.913,0,0,0,0,0,0,0,0,0,0,0,0,0,0,0,0,
124,24.93,39.21,8.144,11.85,-17.57,-3.514,-5.144,1.977,-16.47,-8.635,-7.296,-2.011,-13.36,-9.117,-13.62,-5.903,0,0,0,0,0,0,0,0,0,0,0,0,0,0,0,0,
125,5.961,19.47,-10.31,7.73,-12.93,-10.03,-12.5,2.93,-20.78,-16.14,-11.51,-0.1848,-7.534,-5.621,-10.91,-2.694,0,0,0,0,0,0,0,0,0,0,0,0,0,0,0,0,
126,1.495,11.18,-16.16,-21.64,0.1866,-3.039,-16.35,5.564,-7.502,-8.569,-10.01,-2.216,-3.285,-3.084,-9.705,-3.791,0,0,0,0,0,0,0,0,0,0,0,0,0,0,0,0,
127,12.2,15.81,17.26,-3.342,0.8831,-11.44,-5.654,0.8373,-5.273,-4.063,-13.05,0.9048,-5.103,-4.983,-10.51,-5.274,0,0,0,0,0,0,0,0,0,0,0,0,0,0,0,0,
128,24.94,31.35,21.05,27.84,-2.072,-17.09,-7.346,-2.947,-7.749,-7.93,-12.03,5.519,-1.773,-3.257,-6.583,-1.709,0,0,0,0,0,0,0,0,0,0,0,0,0,0,0,0,
129,32.63,45.59,4.832,17.15,6.045,-4.511,-11.23,3.927,-9.033,-4.336,-6.164,-3.783,1.342,-1.47,-4.932,-2.269,0,0,0,0,0,0,0,0,0,0,0,0,0,0,0,0,
130,26.16,41.22,10.54,5.284,27.31,7.474,2.513,12.72,-5.301,0.9951,-3.963,-8.616,1.808,-0.5984,-6.544,-4.672,0,0,0,0,0,0,0,0,0,0,0,0,0,0,0,0,
131,11.66,20.2,-2.595,-1.965,23.49,11.0,8.265,9.666,2.852,0.8775,-0.4417,-1.276,2.646,2.548,-6.915,-2.243,0,0,0,0,0,0,0,0,0,0,0,0,0,0,0,0,
132,10.07,11.19,-21.52,-13.37,-12.1,1.878,-5.325,2.65,2.549,5.657,-3.827,-0.7138,-1.257,4.327,-8.676,1.279,0,0,0,0,0,0,0,0,0,0,0,0,0,0,0,0,
133,24.11,37.05,4.589,9.087,-18.76,-11.94,-8.288,4.941,-2.588,8.291,-8.425,0.8875,-2.93,7.129,-5.701,7.115,0,0,0,0,0,0,0,0,0,0,0,0,0,0,0,0,
134,27.58,55.47,22.62,32.94,8.133,-6.136,7.222,6.895,-3.509,-0.7177,3.86,7.132,6.713,7.718,3.873,10.4,0,0,0,0,0,0,0,0,0,0,0,0,0,0,0,0,
135,17.19,27.96,-0.8791,8.77,20.32,9.678,10.28,2.455,-2.674,-7.185,10.94,2.831,11.32,-0.7733,5.263,3.704,0,0,0,0,0,0,0,0,0,0,0,0,0,0,0,0,
136,26.42,16.86,-8.528,-6.522,20.2,10.36,-0.9346,2.711,-2.257,-4.83,1.919,-1.015,1.609,-4.968,0.3097,-0.3705,0,0,0,0,0,0,0,0,0,0,0,0,0,0,0,0,
137,46.24,57.98,4.502,22.46,20.17,3.614,2.313,8.78,-0.2162,-1.307,-2.905,2.939,-0.3891,-1.127,2.009,3.66,0,0,0,0,0,0,0,0,0,0,0,0,0,0,0,0,
138,40.02,71.88,8.238,36.39,10.22,2.184,6.849,13.47,11.0,1.832,-4.085,2.513,10.55,-0.3312,3.155,4.732,0,0,0,0,0,0,0,0,0,0,0,0,0,0,0,0,
139,19.2,28.35,17.52,12.29,-1.333,1.298,-0.5373,14.42,18.67,3.089,-2.784,2.454,8.889,5.207,-1.714,3.969,0,0,0,0,0,0,0,0,0,0,0,0,0,0,0,0,
140,3.639,1.687,25.09,-9.146,2.28,1.722,6.266,14.07,2.037,1.734,4.345,7.036,-2.927,14.53,-3.609,5.821,0,0,0,0,0,0,0,0,0,0,0,0,0,0,0,0,
141,7.338,22.61,15.97,-9.35,13.76,10.65,7.237,17.36,-10.49,1.623,6.255,7.099,-0.059,10.05,-2.427,5.378,0,0,0,0,0,0,0,0,0,0,0,0,0,0,0,0,
142,40.56,49.89,18.23,3.84,9.254,19.31,-17.35,21.3,4.761,3.603,5.864,3.857,9.066,0.974,-1.004,3.62,0,0,0,0,0,0,0,0,0,0,0,0,0,0,0,0,
143,53.88,54.19,17.96,20.98,6.906,13.5,-10.82,20.86,14.05,6.544,11.26,4.518,8.849,3.929,2.968,6.225,0,0,0,0,0,0,0,0,0,0,0,0,0,0,0,0,
144,26.11,39.12,-19.83,25.64,29.97,2.352,21.66,18.85,4.706,7.221,12.17,8.04,7.096,8.884,4.568,9.194,0,0,0,0,0,0,0,0,0,0,0,0,0,0,0,0,
145,18.28,27.02,-37.65,12.4,20.14,3.481,6.854,16.24,0.43,5.107,6.185,9.105,8.438,8.815,2.642,8.448,0,0,0,0,0,0,0,0,0,0,0,0,0,0,0,0,
146,28.2,25.13,7.567,-3.867,-25.67,10.76,-25.72,14.49,3.191,7.043,6.101,7.077,11.76,11.65,3.762,9.513,0,0,0,0,0,0,0,0,0,0,0,0,0,0,0,0,
147,17.32,19.46,42.01,-5.69,-13.86,8.007,-10.77,16.04,3.653,9.762,11.1,4.76,14.25,13.3,4.265,9.764,0,0,0,0,0,0,0,0,0,0,0,0,0,0,0,0,
148,19.2,27.04,26.21,11.58,25.27,-1.007,16.61,15.42,2.636,4.885,7.662,2.778,10.84,8.46,0.6896,3.729,0,0,0,0,0,0,0,0,0,0,0,0,0,0,0,0,
149,39.9,56.15,13.92,24.07,12.1,-3.927,9.436,9.75,4.821,-0.0406,1.012,4.003,8.812,6.736,0.942,2.682,0,0,0,0,0,0,0,0,0,0,0,0,0,0,0,0,
150,44.7,64.55,24.0,16.04,-0.8136,-1.308,-5.471,3.707,10.38,1.422,6.945,8.583,14.01,9.267,7.116,9.681,0,0,0,0,0,0,0,0,0,0,0,0,0,0,0,0,
151,46.02,54.86,29.75,14.85,15.99,4.161,2.513,3.068,11.77,4.848,15.65,7.566,19.9,10.14,10.76,10.6,0,0,0,0,0,0,0,0,0,0,0,0,0,0,0,0,
152,48.18,56.78,22.91,26.42,16.55,12.55,11.31,8.928,10.09,8.572,11.42,1.093,19.5,10.26,6.265,4.783,0,0,0,0,0,0,0,0,0,0,0,0,0,0,0,0,
153,38.74,50.22,13.65,29.33,7.435,16.16,3.879,11.67,8.777,9.474,7.858,1.555,9.857,7.489,0.2992,3.182,0,0,0,0,0,0,0,0,0,0,0,0,0,0,0,0,
154,47.49,53.88,24.03,40.0,14.77,10.79,-1.345,9.651,1.859,7.294,13.55,8.865,3.226,8.007,1.347,7.322,0,0,0,0,0,0,0,0,0,0,0,0,0,0,0,0,
155,79.09,94.15,53.12,58.52,32.06,8.495,-6.426,15.38,-1.693,9.733,8.426,11.61,8.088,17.79,2.135,8.159,0,0,0,0,0,0,0,0,0,0,0,0,0,0,0,0,
156,85.44,104.2,59.72,44.13,38.77,25.86,-14.04,26.19,8.293,14.97,-3.32,10.02,8.599,19.18,-3.119,1.005,0,0,0,0,0,0,0,0,0,0,0,0,0,0,0,0,
157,68.22,76.88,41.01,18.55,32.4,51.54,-0.8899,30.92,14.13,17.1,3.307,8.933,2.612,9.031,-4.131,-3.882,0,0,0,0,0,0,0,0,0,0,0,0,0,0,0,0,
158,78.01,97.12,42.2,38.87,48.48,52.6,13.25,30.5,6.808,17.79,12.17,5.311,2.8,7.263,0.431,1.024,0,0,0,0,0,0,0,0,0,0,0,0,0,0,0,0,
159,112.6,142.8,57.3,81.64,83.79,44.16,4.288,25.11,8.317,17.42,7.354,2.348,6.499,13.03,1.879,7.353,0,0,0,0,0,0,0,0,0,0,0,0,0,0,0,0,
160,134.6,145.7,52.12,97.32,83.88,60.71,9.183,17.5,27.63,18.89,11.24,4.098,11.61,15.8,2.007,6.655,0,0,0,0,0,0,0,0,0,0,0,0,0,0,0,0,
161,141.2,134.0,55.4,92.95,57.43,73.08,30.21,21.32,38.57,23.62,21.02,5.634,17.62,17.11,3.842,2.807,0,0,0,0,0,0,0,0,0,0,0,0,0,0,0,0,
162,136.9,129.6,85.1,80.25,54.38,68.61,25.4,36.97,30.39,26.54,19.49,10.6,20.04,20.56,5.312,4.365,0,0,0,0,0,0,0,0,0,0,0,0,0,0,0,0,
163,122.5,120.6,95.88,66.59,65.49,82.99,10.7,44.86,30.01,33.21,19.99,20.28,24.23,27.09,7.996,9.288,0,0,0,0,0,0,0,0,0,0,0,0,0,0,0,0,
164,118.7,128.2,88.36,77.98,65.17,92.71,18.45,38.98,39.47,42.08,25.23,23.31,30.83,31.42,12.06,11.39,0,0,0,0,0,0,0,0,0,0,0,0,0,0,0,0,
165,129.4,141.3,93.18,95.54,64.82,74.52,26.8,36.37,37.21,37.92,23.41,21.39,31.24,31.09,12.68,12.97,0,0,0,0,0,0,0,0,0,0,0,0,0,0,0,0,
166,138.8,128.0,91.32,83.4,64.04,71.86,15.03,39.67,33.66,34.77,19.49,20.54,26.3,32.7,9.729,14.21,0,0,0,0,0,0,0,0,0,0,0,0,0,0,0,0,
167,134.8,109.2,85.02,65.88,55.19,81.77,7.304,35.83,35.68,47.23,17.68,17.34,23.73,34.08,8.366,14.05,0,0,0,0,0,0,0,0,0,0,0,0,0,0,0,0,
168,104.5,97.39,84.04,64.4,56.28,67.9,17.31,29.56,35.5,48.66,12.75,14.46,25.38,28.28,7.969,14.0,0,0,0,0,0,0,0,0,0,0,0,0,0,0,0,0,
169,76.64,84.93,66.01,72.05,56.07,53.13,16.63,27.47,42.81,32.17,6.43,14.17,23.8,21.19,5.366,11.29,0,0,0,0,0,0,0,0,0,0,0,0,0,0,0,0,
170,97.38,88.08,64.59,82.8,37.21,58.99,2.366,26.68,45.14,25.16,8.665,16.58,16.99,22.25,4.556,10.64,0,0,0,0,0,0,0,0,0,0,0,0,0,0,0,0,
171,125.7,104.1,92.94,70.97,33.3,65.52,6.682,31.46,30.86,29.49,16.54,22.77,15.07,29.6,7.079,15.64,0,0,0,0,0,0,0,0,0,0,0,0,0,0,0,0,
172,106.2,107.1,83.99,51.44,42.9,61.29,21.92,34.07,28.74,33.07,18.04,25.46,20.47,34.78,8.889,15.76,0,0,0,0,0,0,0,0,0,0,0,0,0,0,0,0,
173,71.95,86.21,50.68,66.52,40.78,52.74,22.94,24.53,33.59,35.63,20.66,23.4,24.26,32.87,10.21,10.44,0,0,0,0,0,0,0,0,0,0,0,0,0,0,0,0,
174,50.54,50.89,39.79,66.55,55.14,45.43,17.0,18.84,21.83,31.63,26.54,19.86,20.81,23.78,9.963,6.248,0,0,0,0,0,0,0,0,0,0,0,0,0,0,0,0,
175,31.35,34.52,27.87,22.49,68.17,40.14,14.45,19.8,16.33,21.0,21.83,12.84,16.03,13.57,6.795,2.303,0,0,0,0,0,0,0,0,0,0,0,0,0,0,0,0,
176,37.47,42.71,30.16,13.3,29.03,34.14,18.74,13.06,24.25,14.26,17.11,10.49,18.3,8.014,5.88,0.622,0,0,0,0,0,0,0,0,0,0,0,0,0,0,0,0,
177,66.93,39.68,58.58,41.12,-10.61,24.8,23.56,5.607,24.9,11.28,19.76,11.99,17.93,4.459,5.424,-0.4258,0,0,0,0,0,0,0,0,0,0,0,0,0,0,0,0,
178,61.58,33.57,59.71,38.7,10.48,19.63,12.69,2.81,21.02,11.18,13.44,4.328,8.095,4.481,-0.0731,-3.837,0,0,0,0,0,0,0,0,0,0,0,0,0,0,0,0,
179,24.69,43.45,33.87,27.7,45.3,30.29,0.7761,3.918,18.59,18.42,3.623,-1.554,3.776,8.752,-4.888,-3.606,0,0,0,0,0,0,0,0,0,0,0,0,0,0,0,0,
180,17.0,32.67,16.39,27.68,33.49,43.37,5.16,17.64,14.77,23.43,2.521,3.741,5.198,7.274,-5.936,-0.1452,0,0,0,0,0,0,0,0,0,0,0,0,0,0,0,0,
181,32.83,5.497,17.16,10.3,2.841,36.91,7.27,27.86,10.48,17.45,4.052,6.529,3.724,3.952,-6.964,0.8541,0,0,0,0,0,0,0,0,0,0,0,0,0,0,0,0,
182,28.03,15.07,35.56,8.038,5.665,20.26,9.519,15.22,9.572,10.36,8.792,3.552,7.752,6.224,-5.941,-0.3918,0,0,0,0,0,0,0,0,0,0,0,0,0,0,0,0,
183,13.91,32.67,33.51,31.52,18.35,8.791,24.31,2.126,14.13,5.335,16.13,0.7027,12.62,3.657,-3.279,-2.609,0,0,0,0,0,0,0,0,0,0,0,0,0,0,0,0,
184,11.99,6.016,12.5,20.08,11.83,3.295,22.38,3.704,15.28,-2.929,15.92,0.4044,8.723,-1.925,-3.079,-3.763,0,0,0,0,0,0,0,0,0,0,0,0,0,0,0,0,
185,5.58,-18.87,26.53,-8.657,14.54,5.929,-1.469,6.395,12.54,-6.312,10.45,4.474,4.917,-0.7257,-4.314,-4.152,0,0,0,0,0,0,0,0,0,0,0,0,0,0,0,0,
186,-4.2,-7.481,37.69,-9.108,10.39,8.601,-11.43,8.649,11.43,-2.883,5.53,6.08,-1.365,-0.4252,-8.688,-6.873,0,0,0,0,0,0,0,0,0,0,0,0,0,0,0,0,
187,2.109,-7.687,6.466,-14.62,-22.76,6.253,-5.261,10.37,0.452,-1.993,-3.388,2.311,-11.66,-1.765,-16.01,-8.636,0,0,0,0,0,0,0,0,0,0,0,0,0,0,0,0,
188,7.362,-20.91,-1.131,-16.81,-23.7,12.54,-0.1958,5.495,-8.152,3.718,-12.92,1.913,-9.249,3.59,-18.53,-6.184,0,0,0,0,0,0,0,0,0,0,0,0,0,0,0,0,
189,-7.802,-12.41,18.43,12.56,12.54,17.52,-2.158,4.056,7.312,16.73,-14.68,5.806,-0.9042,10.73,-16.83,-4.027,0,0,0,0,0,0,0,0,0,0,0,0,0,0,0,0,
190,-20.73,-9.305,3.577,12.78,15.9,8.182,-11.93,8.549,19.54,19.73,-12.39,9.549,-0.7318,15.12,-12.7,-2.335,0,0,0,0,0,0,0,0,0,0,0,0,0,0,0,0,
191,-12.86,-24.66,-13.14,-23.3,-4.726,6.169,-9.473,5.187,11.44,14.6,-5.256,10.46,4.634,17.72,-2.231,3.106,0,0,0,0,0,0,0,0,0,0,0,0,0,0,0,0,
192,-9.019,-32.61,8.67,-21.42,-7.394,7.543,5.816,0.692,6.923,11.93,10.38,7.072,16.96,14.03,6.077,6.489,0,0,0,0,0,0,0,0,0,0,0,0,0,0,0,0,
193,-28.04,-38.97,17.36,1.361,-4.045,-6.056,5.117,7.01,10.03,3.992,21.64,7.106,21.77,7.017,6.356,5.083,0,0,0,0,0,0,0,0,0,0,0,0,0,0,0,0,
194,-36.24,-36.53,-2.924,-5.033,-9.912,-12.19,4.334,6.339,8.48,-5.354,19.88,9.501,18.09,3.886,5.208,5.093,0,0,0,0,0,0,0,0,0,0,0,0,0,0,0,0,
195,-23.49,-15.14,-5.102,-11.86,-19.56,-9.694,15.89,-9.068,1.466,-6.22,9.601,0.6392,7.688,-2.5,-1.957,-0.9482,0,0,0,0,0,0,0,0,0,0,0,0,0,0,0,0,
196,-38.87,-25.49,-3.798,-9.784,-21.09,-13.79,4.536,-12.15,-0.8002,-7.519,0.0204,-8.062,-1.132,-10.48,-13.36,-13.01,0,0,0,0,0,0,0,0,0,0,0,0,0,0,0,0,
197,-65.02,-71.49,-21.35,-27.17,-10.18,-0.5894,-13.22,0.8707,6.96,-8.46,1.993,-2.073,1.193,-6.776,-13.92,-11.37,0,0,0,0,0,0,0,0,0,0,0,0,0,0,0,0,
198,-45.64,-81.37,-18.97,-41.35,-0.1214,17.02,-2.487,4.595,5.022,-2.727,4.453,0.7598,1.966,-1.482,-10.68,-3.669,0,0,0,0,0,0,0,0,0,0,0,0,0,0,0,0,
199,-23.36,-55.08,-5.445,-27.93,-5.379,-0.1079,4.154,1.16,-7.592,-1.883,-3.864,-2.141,-2.901,-3.322,-13.33,-7.513,0,0,0,0,0,0,0,0,0,0,0,0,0,0,0,0,
200,-31.29,-38.96,-10.59,-11.74,-26.34,-19.17,-3.602,2.117,-5.231,-5.22,-7.8,4.687,-1.502,-0.1644,-11.89,-9.944,0,0,0,0,0,0,0,0,0,0,0,0,0,0,0,0,
201,-38.1,-30.9,-10.18,-10.88,-34.82,-7.18,1.708,-0.1898,1.808,-0.6908,-8.564,7.896,0.4864,4.765,-8.757,-6.332,0,0,0,0,0,0,0,0,0,0,0,0,0,0,0,0,
202,-56.97,-34.37,-9.542,-24.55,-14.32,3.105,2.098,-3.246,-0.0727,5.43,-14.72,2.402,-1.384,4.558,-11.73,-7.275,0,0,0,0,0,0,0,0,0,0,0,0,0,0,0,0,
203,-65.7,-49.0,-15.24,-41.4,-5.671,-7.592,-14.28,-0.8376,2.717,4.873,-13.79,4.094,1.153,3.839,-10.73,-7.58,0,0,0,0,0,0,0,0,0,0,0,0,0,0,0,0,
204,-25.14,-47.92,-6.237,-38.79,-16.76,-14.77,-16.84,-0.5713,4.447,-1.352,-6.625,0.6107,6.519,-0.8475,-3.664,-4.56,0,0,0,0,0,0,0,0,0,0,0,0,0,0,0,0,
205,-13.63,-52.63,-11.66,-21.4,-13.68,-5.599,-3.034,-4.276,0.9591,-6.615,-0.8428,-15.65,7.66,-5.562,-2.262,-5.174,0,0,0,0,0,0,0,0,0,0,0,0,0,0,0,0,
206,-47.35,-68.58,-23.09,-10.08,-21.14,-2.626,7.838,-6.388,2.45,0.0506,5.866,-18.06,4.536,-2.534,-4.817,-6.236,0,0,0,0,0,0,0,0,0,0,0,0,0,0,0,0,
207,-48.7,-49.45,-1.517,-11.47,-38.35,-15.23,15.51,-2.975,3.268,8.812,9.44,-4.436,4.831,-0.0664,-3.648,-3.133,0,0,0,0,0,0,0,0,0,0,0,0,0,0,0,0,
208,-52.38,-31.76,-4.268,-30.31,-22.56,-21.22,12.38,2.43,4.796,-0.6303,7.597,-0.4826,7.856,-2.221,-4.427,-3.143,0,0,0,0,0,0,0,0,0,0,0,0,0,0,0,0,
209,-69.64,-60.01,-35.29,-50.42,-14.75,-21.79,-7.715,0.1772,9.348,-17.03,1.203,-5.151,3.289,-5.321,-8.799,-8.385,0,0,0,0,0,0,0,0,0,0,0,0,0,0,0,0,
210,-44.7,-75.33,-17.64,-48.58,-31.65,-30.34,-19.46,-6.51,2.789,-19.27,-4.334,-3.328,-3.5,-6.193,-8.588,-9.26,0,0,0,0,0,0,0,0,0,0,0,0,0,0,0,0,
211,-46.37,-65.13,-0.4193,-38.52,-21.54,-36.66,-10.62,-12.37,-13.37,-14.78,-3.556,-4.363,-9.665,-6.302,-10.41,-10.45,0,0,0,0,0,0,0,0,0,0,0,0,0,0,0,0,
212,-92.74,-73.17,-37.05,-37.99,-15.34,-38.88,-4.227,-20.81,-26.33,-20.85,-10.53,-16.76,-19.81,-17.29,-20.69,-19.99,0,0,0,0,0,0,0,0,0,0,0,0,0,0,0,0,
213,-71.59,-72.27,-46.5,-41.02,-37.01,-36.27,-10.31,-24.86,-25.6,-31.66,-22.27,-24.55,-17.36,-31.06,-24.9,-24.39,0,0,0,0,0,0,0,0,0,0,0,0,0,0,0,0,
214,-14.18,-44.11,-10.07,-38.4,-37.21,-25.1,-14.86,-21.86,-11.89,-27.39,-14.68,-22.58,-6.358,-27.54,-20.84,-20.3,0,0,0,0,0,0,0,0,0,0,0,0,0,0,0,0,
215,-22.47,-37.39,-2.766,-35.61,-29.31,-21.41,-8.673,-18.57,-12.64,-13.97,0.023,-19.91,-10.28,-17.3,-18.74,-16.6,0,0,0,0,0,0,0,0,0,0,0,0,0,0,0,0,
216,-56.66,-61.34,-25.88,-39.45,-36.4,-20.88,0.3948,-12.8,-24.23,-11.05,0.3747,-11.19,-11.29,-11.65,-11.0,-7.288,0,0,0,0,0,0,0,0,0,0,0,0,0,0,0,0,
217,-56.25,-65.88,-32.95,-30.84,-32.17,-14.57,-1.305,-11.51,-13.17,-10.71,-3.81,0.5017,-0.5674,-5.268,1.613,2.632,0,0,0,0,0,0,0,0,0,0,0,0,0,0,0,0,
218,-43.95,-45.47,-26.37,-21.0,-23.8,-25.95,-10.8,-18.06,-3.325,-9.296,-2.37,0.8523,-1.406,-5.343,4.897,1.741,0,0,0,0,0,0,0,0,0,0,0,0,0,0,0,0,
219,-53.72,-49.24,-29.77,-45.89,-22.21,-44.96,-15.05,-15.99,-17.42,-21.68,1.21,-2.45,-3.601,-11.33,5.349,0.2382,0,0,0,0,0,0,0,0,0,0,0,0,0,0,0,0,
220,-71.05,-69.25,-35.02,-55.68,-26.52,-39.85,-11.25,-10.94,-21.9,-30.66,-0.4748,-1.853,3.022,-10.2,6.725,0.9639,0,0,0,0,0,0,0,0,0,0,0,0,0,0,0,0,
221,-62.0,-59.07,-23.32,-21.94,-40.78,-24.95,-5.454,-14.11,-17.29,-17.72,-10.18,-5.728,-3.405,-9.364,-3.404,-5.361,0,0,0,0,0,0,0,0,0,0,0,0,0,0,0,0,
222,-45.19,-41.59,-16.92,-26.42,-33.73,-17.25,-7.274,-11.29,-21.86,-9.223,-18.0,-11.51,-16.59,-16.05,-15.64,-12.54,0,0,0,0,0,0,0,0,0,0,0,0,0,0,0,0,
223,-50.23,-49.44,-35.59,-60.15,-9.704,-13.19,-13.79,-6.083,-15.38,-16.16,-13.73,-10.08,-12.4,-14.23,-12.48,-10.67,0,0,0,0,0,0,0,0,0,0,0,0,0,0,0,0,
224,-50.52,-59.59,-38.88,-37.88,-15.96,-17.63,-10.33,-11.57,-3.893,-14.6,-0.6612,-2.604,-1.861,-1.095,-3.604,-3.492,0,0,0,0,0,0,0,0,0,0,0,0,0,0,0,0,
225,-33.73,-52.39,-14.23,2.293,-33.74,-31.68,-1.996,-18.09,-12.55,-7.188,8.134,-0.3715,-4.771,-0.0786,-4.431,-2.71,0,0,0,0,0,0,0,0,0,0,0,0,0,0,0,0,
226,-31.4,-40.27,-12.5,-5.224,-37.01,-42.71,-4.466,-21.48,-24.9,-14.47,4.181,-8.255,-12.78,-14.13,-11.48,-9.894,0,0,0,0,0,0,0,0,0,0,0,0,0,0,0,0,
227,-45.65,-48.64,-29.94,-31.16,-38.39,-38.12,-15.43,-23.75,-21.54,-26.26,-6.156,-8.07,-13.15,-19.24,-12.2,-11.62,0,0,0,0,0,0,0,0,0,0,0,0,0,0,0,0,
228,-48.67,-61.11,-22.51,-33.49,-33.36,-29.91,-18.65,-23.67,-17.17,-27.01,-10.59,3.985,-11.64,-14.57,-4.888,-6.228,0,0,0,0,0,0,0,0,0,0,0,0,0,0,0,0,
229,-46.16,-42.62,-12.3,-25.44,-27.72,-36.25,-9.025,-25.62,-26.84,-27.57,-9.336,1.665,-11.18,-15.74,-0.4434,-5.78,0,0,0,0,0,0,0,0,0,0,0,0,0,0,0,0,
230,-62.61,-41.34,-28.49,-42.74,-23.6,-32.57,-8.785,-23.5,-31.02,-29.45,-13.45,-9.878,-5.373,-14.38,-0.4082,-5.931,0,0,0,0,0,0,0,0,0,0,0,0,0,0,0,0,
231,-66.86,-70.63,-39.75,-56.17,-15.38,-13.7,-20.37,-15.35,-13.03,-18.56,-19.38,-4.961,0.5948,-4.835,1.905,1.915,0,0,0,0,0,0,0,0,0,0,0,0,0,0,0,0,
232,-31.25,-49.26,-28.54,-21.75,-26.66,-20.43,-14.96,-14.64,-4.101,-7.625,-13.76,2.564,-1.734,-1.794,2.701,8.066,0,0,0,0,0,0,0,0,0,0,0,0,0,0,0,0,
233,-19.52,-18.57,-21.9,-1.239,-28.58,-30.36,-6.479,-15.11,-16.87,-10.39,-3.977,-1.065,-5.917,-2.611,1.818,8.986,0,0,0,0,0,0,0,0,0,0,0,0,0,0,0,0,
234,-47.68,-47.49,-20.85,-29.12,0.8924,-10.26,-14.2,-8.365,-16.16,-10.47,-1.824,-0.5953,-2.953,2.322,5.855,11.75,0,0,0,0,0,0,0,0,0,0,0,0,0,0,0,0,
235,-41.99,-54.14,-10.65,-34.34,-10.15,-6.325,-6.086,-7.236,-3.418,-5.625,-0.3236,3.67,2.449,2.868,8.883,10.46,0,0,0,0,0,0,0,0,0,0,0,0,0,0,0,0,
236,-26.49,-35.8,-22.62,-16.73,-37.47,-19.65,13.44,-12.92,-5.391,-6.348,4.796,2.404,2.615,0.0485,6.753,3.31,0,0,0,0,0,0,0,0,0,0,0,0,0,0,0,0,
237,-49.79,-53.74,-52.01,-17.71,-8.129,-10.2,5.588,-17.23,-12.35,-4.219,5.591,1.766,4.147,2.981,6.516,0.9589,0,0,0,0,0,0,0,0,0,0,0,0,0,0,0,0,
238,-50.91,-41.94,-27.92,-18.33,-0.1071,-10.86,-14.94,-17.57,-10.46,-1.836,0.098,3.966,11.93,0.5291,7.775,1.773,0,0,0,0,0,0,0,0,0,0,0,0,0,0,0,0,
239,-28.96,-12.77,18.52,-28.34,-42.17,-29.44,-18.08,-12.66,-7.157,-10.24,-2.635,4.471,12.93,-7.691,6.013,0.5853,0,0,0,0,0,0,0,0,0,0,0,0,0,0,0,0,
240,-37.53,-40.61,-1.361,-42.03,-50.53,-23.7,-7.335,-13.19,-11.14,-16.26,-1.691,2.21,4.889,-6.633,3.858,1.004,0,0,0,0,0,0,0,0,0,0,0,0,0,0,0,0,
241,-34.53,-49.09,-35.38,-15.4,-29.86,-11.83,-4.572,-19.7,-13.53,-9.097,-5.589,-0.0756,3.688,-0.6418,4.841,3.912,0,0,0,0,0,0,0,0,0,0,0,0,0,0,0,0,
242,-16.94,-22.29,-21.4,1.693,-6.044,-16.6,-19.25,-14.17,-3.082,-1.341,-9.364,1.738,5.741,0.8463,6.741,7.514,0,0,0,0,0,0,0,0,0,0,0,0,0,0,0,0,
243,-43.32,-37.12,-17.96,-26.76,15.61,-17.46,-25.69,-6.44,-0.7938,-3.007,-8.192,3.291,-1.611,-0.334,5.401,8.498,0,0,0,0,0,0,0,0,0,0,0,0,0,0,0,0,
244,-66.7,-47.6,-37.12,-33.63,-4.568,-11.96,-16.37,-13.76,-16.54,-6.176,-9.128,1.399,-7.123,-1.265,3.423,6.292,0,0,0,0,0,0,0,0,0,0,0,0,0,0,0,0,
245,-40.08,-32.0,-29.1,-17.9,-36.22,-7.716,-16.55,-16.49,-22.56,-4.396,-7.541,2.499,-4.115,-0.4175,4.003,5.433,0,0,0,0,0,0,0,0,0,0,0,0,0,0,0,0,
246,-23.09,-40.74,-15.57,-23.22,-31.72,-5.458,-17.4,-4.809,-17.7,-3.519,-0.0052,5.631,-2.134,0.167,4.061,5.052,0,0,0,0,0,0,0,0,0,0,0,0,0,0,0,0,
247,-37.78,-46.68,-26.08,-25.41,-21.37,-5.772,-10.16,-2.242,-12.42,-1.739,2.731,7.803,2.041,0.4875,3.763,5.538,0,0,0,0,0,0,0,0,0,0,0,0,0,0,0,0,
248,-40.16,-38.66,-27.59,-13.8,-10.63,-5.489,-12.09,-12.45,1.448,1.949,-0.852,8.645,6.785,2.026,4.269,8.009,0,0,0,0,0,0,0,0,0,0,0,0,0,0,0,0,
249,-25.08,-33.12,-7.706,-8.629,0.3072,-12.14,-8.489,-14.96,5.233,-1.563,-2.654,3.49,2.256,2.311,5.062,7.335,0,0,0,0,0,0,0,0,0,0,0,0,0,0,0,0,
250,-19.3,-18.3,1.854,-9.021,-18.01,-19.67,4.609,-9.206,-9.762,-0.58,1.705,0.5364,2.422,6.429,10.81,8.437,0,0,0,0,0,0,0,0,0,0,0,0,0,0,0,0,
251,-22.74,-24.0,-0.8683,-11.65,-28.5,-6.752,1.413,-6.652,-9.728,11.94,7.585,6.475,15.13,14.18,20.24,14.78,0,0,0,0,0,0,0,0,0,0,0,0,0,0,0,0,
252,-17.67,-32.72,3.771,-9.221,4.901,8.823,-2.773,-4.268,7.515,13.72,9.517,8.261,21.67,14.43,24.44,16.0,0,0,0,0,0,0,0,0,0,0,0,0,0,0,0,0,
253,-15.61,-2.583,-4.568,0.584,33.39,6.247,4.774,-0.2991,12.83,8.718,9.324,6.84,17.55,13.25,22.33,12.83,0,0,0,0,0,0,0,0,0,0,0,0,0,0,0,0,
254,-35.61,-5.386,-42.73,0.6757,23.58,6.186,2.133,1.049,10.28,14.69,2.072,10.85,14.89,16.2,17.44,11.18,0,0,0,0,0,0,0,0,0,0,0,0,0,0,0,0,
255,-45.16,-43.94,-60.97,-4.888,-4.734,13.91,-3.88,1.919,15.65,16.72,-9.347,12.38,14.64,11.89,10.75,8.145,0,0,0,0,0,0,0,0,0,0,0,0,0,0,0,0,
256,-22.61,-34.01,-23.28,-1.317,-29.53,5.489,-5.102,-0.1656,11.1,7.619,-8.463,11.54,7.97,6.061,4.107,5.948,0,0,0,0,0,0,0,0,0,0,0,0,0,0,0,0,
257,-19.7,-18.87,9.623,-6.115,-27.4,-15.01,-12.22,-6.674,-10.37,0.8313,-1.102,13.68,-0.419,11.57,2.655,8.47,0,0,0,0,0,0,0,0,0,0,0,0,0,0,0,0,
258,-46.33,-33.27,-9.246,-26.15,-3.46,-14.77,-10.09,-8.328,-10.45,1.586,2.84,13.23,4.691,16.07,7.98,11.54,0,0,0,0,0,0,0,0,0,0,0,0,0,0,0,0,
259,-37.13,-25.79,-18.39,-28.0,-0.8933,2.464,2.447,-3.3,7.842,6.378,6.162,7.172,9.744,5.931,10.38,8.499,0,0,0,0,0,0,0,0,0,0,0,0,0,0,0,0,
260,-4.741,-19.14,5.329,-9.305,-6.384,0.3307,4.477,1.616,-0.2365,3.882,3.897,-1.042,0.7858,-5.551,7.515,3.357,0,0,0,0,0,0,0,0,0,0,0,0,0,0,0,0,
261,-13.9,-34.52,-9.976,-6.492,15.69,-10.6,6.396,-2.692,-9.942,-2.945,4.018,-0.3073,2.731,-1.956,10.92,7.218,0,0,0,0,0,0,0,0,0,0,0,0,0,0,0,0,
262,-37.84,-36.42,-48.87,-10.67,16.08,-5.027,7.447,-17.67,4.765,3.118,11.35,11.44,12.78,5.432,15.48,12.47,0,0,0,0,0,0,0,0,0,0,0,0,0,0,0,0,
263,-37.36,-32.33,-30.59,1.351,-20.7,-4.486,-9.315,-19.9,4.108,9.015,4.642,13.42,4.034,2.961,10.5,8.884,0,0,0,0,0,0,0,0,0,0,0,0,0,0,0,0,
264,-28.52,-26.86,15.85,7.94,-28.02,-10.39,-17.71,-2.239,-4.768,2.041,-8.737,5.762,-1.068,2.159,8.334,7.841,0,0,0,0,0,0,0,0,0,0,0,0,0,0,0,0,
265,-13.22,-9.564,19.39,4.326,-5.75,-5.451,-6.728,5.227,4.907,2.39,-5.138,8.869,9.64,7.159,10.98,7.913,0,0,0,0,0,0,0,0,0,0,0,0,0,0,0,0,
266,-10.58,-8.664,-15.25,-0.343,12.59,-5.503,-4.631,-0.9779,2.038,6.464,-0.0826,11.02,4.596,2.551,1.343,-5.004,0,0,0,0,0,0,0,0,0,0,0,0,0,0,0,0,
267,-34.73,-24.25,-34.86,-18.2,17.06,-2.681,-2.512,0.4234,-10.7,-2.033,-5.414,0.6328,-9.315,-8.465,-11.73,-18.56,0,0,0,0,0,0,0,0,0,0,0,0,0,0,0,0,
268,-32.36,-25.13,-15.87,-23.37,-8.835,11.1,6.842,3.885,-1.542,-2.865,-3.865,-1.617,-4.253,-7.62,-9.876,-18.09,0,0,0,0,0,0,0,0,0,0,0,0,0,0,0,0,
269,-9.533,-20.7,-5.011,3.438,-22.4,2.071,-1.317,1.203,8.857,7.91,1.894,5.59,3.822,0.0247,-4.948,-13.48,0,0,0,0,0,0,0,0,0,0,0,0,0,0,0,0,
270,-22.75,-25.35,-15.94,9.738,0.9476,-12.89,-7.469,2.158,1.03,5.257,-2.647,4.357,-0.5909,-1.078,-6.104,-10.1,0,0,0,0,0,0,0,0,0,0,0,0,0,0,0,0,
271,-35.58,-23.51,-3.544,-16.21,0.403,-0.6448,6.991,9.415,-5.761,-3.354,-3.568,2.515,-0.8004,-4.285,-1.835,-1.851,0,0,0,0,0,0,0,0,0,0,0,0,0,0,0,0,
272,-16.06,-14.85,13.1,-18.99,-8.933,6.756,6.79,12.93,0.8368,-2.046,6.159,9.414,6.271,0.0176,5.869,7.618,0,0,0,0,0,0,0,0,0,0,0,0,0,0,0,0,
273,-2.149,-21.16,16.77,3.07,8.804,2.486,-7.452,5.249,9.77,-0.1576,7.561,13.16,8.706,4.597,9.485,14.02,0,0,0,0,0,0,0,0,0,0,0,0,0,0,0,0,
274,-7.747,-34.51,23.37,7.332,5.359,1.425,-8.081,-6.308,7.754,-0.2584,3.719,10.66,8.938,4.654,13.35,18.7,0,0,0,0,0,0,0,0,0,0,0,0,0,0,0,0,
275,-25.04,-23.21,-6.064,-4.227,-15.94,-17.39,-6.996,-11.26,-0.6393,-1.21,5.723,9.535,6.838,3.415,14.09,16.38,0,0,0,0,0,0,0,0,0,0,0,0,0,0,0,0,
276,-29.77,-3.473,-33.62,-3.096,-23.21,-31.74,-7.534,-11.3,-5.044,-5.141,1.918,8.129,1.842,2.861,9.517,8.926,0,0,0,0,0,0,0,0,0,0,0,0,0,0,0,0,
277,-4.415,-13.87,7.136,4.823,-21.63,-13.47,-3.161,-7.631,-3.34,-3.272,-3.838,5.376,5.761,3.232,10.14,6.767,0,0,0,0,0,0,0,0,0,0,0,0,0,0,0,0,
278,4.447,-24.08,20.09,-2.211,3.861,-0.9812,-5.375,0.7604,4.617,1.932,2.288,6.793,12.8,4.984,14.32,6.038,0,0,0,0,0,0,0,0,0,0,0,0,0,0,0,0,
279,-16.99,-2.597,-24.13,-10.61,22.06,0.2382,-2.126,5.964,8.784,2.442,10.06,9.603,9.108,10.01,11.53,1.106,0,0,0,0,0,0,0,0,0,0,0,0,0,0,0,0,
280,-24.79,1.529,-15.15,-1.606,-6.201,12.12,13.13,4.276,3.218,7.477,9.477,6.178,4.225,11.8,5.338,-3.516,0,0,0,0,0,0,0,0,0,0,0,0,0,0,0,0,
281,-27.31,-26.32,20.26,8.303,-23.76,7.862,10.48,3.995,4.212,14.18,6.473,2.423,5.607,3.528,3.274,-5.744,0,0,0,0,0,0,0,0,0,0,0,0,0,0,0,0,
282,-35.75,-37.52,1.752,5.061,-10.96,-12.4,-7.434,7.397,9.146,7.994,5.978,7.887,5.116,-1.532,2.872,-3.721,0,0,0,0,0,0,0,0,0,0,0,0,0,0,0,0,
283,-27.52,-38.08,-29.36,-4.89,-8.08,-12.09,-10.13,4.68,1.489,-3.523,7.113,16.07,3.454,5.191,4.866,4.6,0,0,0,0,0,0,0,0,0,0,0,0,0,0,0,0,
284,-17.21,-41.34,-26.5,-12.6,-1.224,-1.21,-4.721,-3.775,0.7234,-4.62,11.93,18.83,10.28,12.45,16.76,16.24,0,0,0,0,0,0,0,0,0,0,0,0,0,0,0,0,
285,-12.68,-20.37,-4.912,-9.204,2.515,-8.825,-8.743,-3.9,12.23,0.6509,18.5,17.99,18.6,13.81,28.31,23.34,0,0,0,0,0,0,0,0,0,0,0,0,0,0,0,0,
286,-0.8713,-0.8629,4.968,-4.861,-24.41,-24.7,-11.85,3.814,4.346,-4.067,16.0,14.77,13.85,11.15,24.57,21.49,0,0,0,0,0,0,0,0,0,0,0,0,0,0,0,0,
287,-7.554,-12.62,-0.9223,-14.28,-30.49,-17.72,-5.309,7.426,-7.342,-13.95,10.96,12.73,8.139,10.91,18.82,21.31,0,0,0,0,0,0,0,0,0,0,0,0,0,0,0,0,
288,-31.97,-23.48,-2.581,-19.09,1.846,4.315,1.345,7.637,6.803,-7.335,12.81,14.61,12.34,16.24,21.31,25.49,0,0,0,0,0,0,0,0,0,0,0,0,0,0,0,0,
289,-27.03,-26.49,1.577,-8.178,3.642,2.624,2.64,8.762,14.79,8.195,11.79,14.7,12.97,18.31,21.7,22.46,0,0,0,0,0,0,0,0,0,0,0,0,0,0,0,0,
290,-3.068,-32.69,7.251,3.309,-15.02,-8.512,4.187,9.489,3.008,13.75,15.88,12.86,12.5,17.23,21.75,18.38,0,0,0,0,0,0,0,0,0,0,0,0,0,0,0,0,
291,0.8385,-22.95,4.235,14.6,6.653,3.08,8.151,8.536,1.709,16.56,25.74,13.77,16.52,19.51,22.98,18.69,0,0,0,0,0,0,0,0,0,0,0,0,0,0,0,0,
292,-3.109,-3.218,-14.54,17.94,21.79,5.165,10.65,5.814,8.474,17.44,17.91,13.47,16.41,19.52,18.68,14.59,0,0,0,0,0,0,0,0,0,0,0,0,0,0,0,0,
293,-7.834,-0.3152,-7.069,-2.388,-4.642,-14.11,13.6,6.612,11.85,7.798,12.09,8.189,20.33,14.83,16.77,10.25,0,0,0,0,0,0,0,0,0,0,0,0,0,0,0,0,
294,-22.45,-16.04,23.66,-19.3,-3.477,-7.255,18.19,10.53,19.85,0.8825,24.92,6.318,28.32,12.88,20.11,10.51,0,0,0,0,0,0,0,0,0,0,0,0,0,0,0,0,
295,-18.71,-30.06,17.82,-5.707,14.96,17.74,13.54,5.097,25.8,6.437,24.3,15.03,24.79,17.06,20.25,13.17,0,0,0,0,0,0,0,0,0,0,0,0,0,0,0,0,
296,3.375,-17.82,5.269,13.6,-4.087,9.411,2.148,-5.981,16.9,11.37,12.92,18.91,14.46,18.01,18.01,16.07,0,0,0,0,0,0,0,0,0,0,0,0,0,0,0,0,
297,3.371,2.174,12.88,13.66,-4.042,-15.96,-1.651,-7.57,-1.588,7.005,10.04,6.687,4.263,10.27,12.75,10.97,0,0,0,0,0,0,0,0,0,0,0,0,0,0,0,0,
298,-3.609,-17.68,-14.81,3.247,13.11,-15.56,-8.351,-6.217,-10.16,0.3446,2.245,-1.268,-3.918,8.085,5.501,4.371,0,0,0,0,0,0,0,0,0,0,0,0,0,0,0,0,
299,-6.831,-53.77,-46.36,-4.373,-21.26,-5.387,-20.92,-7.799,-6.103,-2.373,-4.457,2.581,-4.47,10.54,5.406,8.005,0,0,0,0,0,0,0,0,0,0,0,0,0,0,0,0,
300,-38.26,-39.55,-22.18,-11.53,-43.97,-8.266,-18.29,-1.291,-7.121,-2.714,0.7538,3.042,-1.637,3.871,8.956,11.56,0,0,0,0,0,0,0,0,0,0,0,0,0,0,0,0,
301,-52.28,-3.568,-0.1753,-22.52,-25.28,-8.022,-6.2,6.835,-6.127,-2.025,2.8,3.002,1.71,1.419,9.581,11.6,0,0,0,0,0,0,0,0,0,0,0,0,0,0,0,0,
302,-12.47,-23.23,-14.78,-23.07,-28.96,-2.168,2.096,3.209,3.979,-3.06,4.116,6.548,5.832,8.132,12.61,15.01,0,0,0,0,0,0,0,0,0,0,0,0,0,0,0,0,
303,2.513,-55.59,-22.9,-7.375,-10.33,-5.553,10.03,-2.134,1.464,-6.481,15.48,7.093,5.283,9.194,16.87,16.02,0,0,0,0,0,0,0,0,0,0,0,0,0,0,0,0,
304,-14.25,-21.85,-14.8,-2.198,30.44,-12.99,10.24,-2.484,-8.77,-4.737,20.0,5.199,0.6928,6.956,14.37,10.6,0,0,0,0,0,0,0,0,0,0,0,0,0,0,0,0,
305,-2.448,8.218,-3.329,-11.43,-1.502,-16.37,1.623,-3.291,-8.711,-3.902,7.198,-0.648,-2.973,2.504,7.159,2.934,0,0,0,0,0,0,0,0,0,0,0,0,0,0,0,0,
306,-4.285,-28.79,1.635,-5.084,-37.56,-12.84,-5.558,-3.054,-4.37,-9.887,-0.475,-5.626,-1.108,-2.081,3.939,-0.945,0,0,0,0,0,0,0,0,0,0,0,0,0,0,0,0,
307,-26.21,-40.83,-4.674,9.376,-5.557,-1.251,-4.627,-3.497,3.605,-1.514,7.492,-0.9639,3.859,4.631,6.695,0.174,0,0,0,0,0,0,0,0,0,0,0,0,0,0,0,0,
308,-4.014,1.931,-3.595,8.719,1.787,6.159,4.64,-3.428,10.14,16.07,10.39,2.623,3.944,9.23,7.837,-1.512,0,0,0,0,0,0,0,0,0,0,0,0,0,0,0,0,
309,18.84,9.544,-0.0782,5.263,-25.5,6.131,-0.3853,3.299,8.062,11.21,4.269,1.627,5.316,2.551,5.248,-4.294,0,0,0,0,0,0,0,0,0,0,0,0,0,0,0,0,
310,1.228,-15.86,-4.282,-0.6688,-18.99,12.31,-16.01,5.071,9.721,1.577,5.537,6.947,11.12,4.689,7.702,1.413,0,0,0,0,0,0,0,0,0,0,0,0,0,0,0,0,
311,-8.981,-20.17,7.534,-12.22,-0.5479,19.56,-7.292,0.4613,11.91,10.16,12.58,12.5,12.35,14.63,14.06,10.77,0,0,0,0,0,0,0,0,0,0,0,0,0,0,0,0,
312,-16.64,-23.35,11.22,-1.077,6.077,10.36,2.185,4.808,7.751,12.97,16.04,10.92,12.82,15.45,15.03,15.46,0,0,0,0,0,0,0,0,0,0,0,0,0,0,0,0,
313,-28.75,-30.42,-19.01,21.28,6.49,-6.786,-6.579,6.277,10.02,7.866,16.38,9.473,15.67,14.97,15.01,18.7,0,0,0,0,0,0,0,0,0,0,0,0,0,0,0,0,
314,-11.41,-19.1,-23.72,15.89,-5.48,-9.253,4.156,-2.025,13.57,12.52,14.47,10.19,15.85,18.82,18.45,22.0,0,0,0,0,0,0,0,0,0,0,0,0,0,0,0,0,
315,2.786,-18.22,1.913,-2.352,-7.585,0.2382,16.85,0.4929,10.88,11.59,13.54,8.908,17.17,14.61,19.59,19.92,0,0,0,0,0,0,0,0,0,0,0,0,0,0,0,0,
316,-3.07,-38.6,-2.465,-7.979,8.325,2.933,3.542,7.093,12.08,1.633,19.57,6.823,20.44,9.057,21.45,15.6,0,0,0,0,0,0,0,0,0,0,0,0,0,0,0,0,
317,3.43,-36.36,-14.92,-4.337,10.36,-2.788,4.021,-0.2896,11.22,2.11,25.93,4.936,20.89,14.95,25.89,15.13,0,0,0,0,0,0,0,0,0,0,0,0,0,0,0,0,
318,-9.561,-7.25,-6.537,-4.531,-1.165,-6.113,15.6,-9.424,4.697,6.817,21.68,0.5068,20.12,16.36,23.0,12.19,0,0,0,0,0,0,0,0,0,0,0,0,0,0,0,0,
319,-36.19,6.636,0.7509,-16.83,-6.319,-2.45,4.022,-10.87,8.555,7.167,15.17,-3.739,20.18,6.955,14.12,4.908,0,0,0,0,0,0,0,0,0,0,0,0,0,0,0,0,
320,-7.447,-5.337,9.544,-13.32,-12.12,-0.9774,-1.235,-10.1,16.45,10.51,14.41,-4.938,16.51,2.363,7.122,-0.3896,0,0,0,0,0,0,0,0,0,0,0,0,0,0,0,0,
321,26.58,-11.22,5.769,18.73,-20.49,-8.785,13.67,-9.104,9.089,10.78,10.28,-7.423,4.655,-0.2347,0.428,-5.49,0,0,0,0,0,0,0,0,0,0,0,0,0,0,0,0,
322,-1.296,-0.3039,-16.75,31.71,-16.0,-5.662,13.21,-11.14,-3.425,5.526,4.085,-8.625,-5.821,-3.934,-4.32,-9.78,0,0,0,0,0,0,0,0,0,0,0,0,0,0,0,0,
323,-20.13,-9.656,-3.766,12.6,-1.167,14.07,2.379,-14.97,-3.057,7.091,1.509,-5.555,-5.358,-1.604,-4.914,-9.306,0,0,0,0,0,0,0,0,0,0,0,0,0,0,0,0,
324,7.391,-32.38,24.57,-5.495,4.944,13.88,2.457,-11.44,3.445,10.58,-1.161,-4.941,-3.201,-0.1981,-4.805,-5.651,0,0,0,0,0,0,0,0,0,0,0,0,0,0,0,0,
325,13.46,-18.82,3.242,-12.75,-2.088,-5.112,0.3877,-4.502,2.648,8.355,0.8598,-1.795,-2.071,1.672,-0.585,2.065,0,0,0,0,0,0,0,0,0,0,0,0,0,0,0,0,
326,-15.94,-5.103,-24.5,-6.33,-5.895,-4.817,0.2744,-6.723,0.8763,10.85,3.479,8.783,5.215,10.13,7.142,10.0,0,0,0,0,0,0,0,0,0,0,0,0,0,0,0,0,
327,-31.99,-24.08,-23.75,6.416,8.851,-0.2365,8.038,-12.59,9.47,12.91,-3.546,9.033,8.662,10.84,7.01,10.24,0,0,0,0,0,0,0,0,0,0,0,0,0,0,0,0,
328,-23.66,-17.55,-30.26,6.314,20.98,-8.108,-3.146,-12.45,16.57,3.439,-4.897,-4.053,2.693,5.137,4.062,8.665,0,0,0,0,0,0,0,0,0,0,0,0,0,0,0,0,
329,-4.831,4.888,-22.96,-1.289,-7.103,1.125,-19.24,-14.85,7.418,4.397,4.822,-6.142,2.159,11.44,10.99,13.65,0,0,0,0,0,0,0,0,0,0,0,0,0,0,0,0,
330,14.38,0.4066,16.47,-6.617,-41.88,11.26,-8.818,-19.67,-5.43,20.97,5.79,3.634,7.47,18.49,17.01,18.54,0,0,0,0,0,0,0,0,0,0,0,0,0,0,0,0,
331,11.11,-4.169,30.83,-7.288,-19.83,-5.152,-0.524,-13.7,-6.181,17.03,-0.9122,2.375,6.442,8.987,13.47,13.22,0,0,0,0,0,0,0,0,0,0,0,0,0,0,0,0,
332,-11.56,-28.48,1.714,-9.408,20.52,-1.997,-3.284,-5.98,1.705,-1.188,0.1861,-6.03,4.658,-0.9951,11.6,2.599,0,0,0,0,0,0,0,0,0,0,0,0,0,0,0,0,
333,-21.1,-64.88,-30.94,-21.92,19.7,21.76,7.773,-8.726,8.436,2.851,4.325,-4.255,6.369,0.3952,10.27,-2.295,0,0,0,0,0,0,0,0,0,0,0,0,0,0,0,0,
334,-12.9,-25.48,-36.46,-14.37,5.217,3.807,9.387,-12.1,9.077,9.479,0.1194,-1.296,1.723,-1.34,2.045,-4.921,0,0,0,0,0,0,0,0,0,0,0,0,0,0,0,0,
335,9.329,35.88,-3.322,16.76,-11.72,-26.45,-4.543,-12.88,4.92,-2.35,-5.262,-5.715,-7.062,-6.577,-5.126,-11.62,0,0,0,0,0,0,0,0,0,0,0,0,0,0,0,0,
336,19.9,20.34,27.36,15.54,-31.85,-14.85,0.3341,-15.1,-3.052,-5.471,-3.038,-5.982,-10.16,-3.46,-7.178,-15.69,0,0,0,0,0,0,0,0,0,0,0,0,0,0,0,0,
337,-17.35,-5.603,12.38,-2.121,-9.861,0.4345,6.037,-13.0,-6.95,2.937,-2.707,-0.8672,-6.204,3.494,-7.196,-11.08,0,0,0,0,0,0,0,0,0,0,0,0,0,0,0,0,
338,-28.79,3.575,-0.317,6.766,20.69,-4.189,-9.303,-6.635,4.825,2.88,-8.019,-0.1802,-2.002,6.852,-7.647,-4.418,0,0,0,0,0,0,0,0,0,0,0,0,0,0,0,0,
339,20.5,-8.867,7.379,1.726,1.26,-1.32,-15.36,-1.071,11.78,-0.0838,-11.89,-3.613,-10.09,1.793,-13.43,-4.252,0,0,0,0,0,0,0,0,0,0,0,0,0,0,0,0,
340,12.05,-37.54,-15.0,-20.59,-11.32,6.826,-8.047,0.6688,-3.455,-2.371,-14.7,-3.297,-20.51,-5.859,-16.58,-3.719,0,0,0,0,0,0,0,0,0,0,0,0,0,0,0,0,
341,-27.39,-29.82,-26.7,-12.77,8.513,5.678,-4.913,-5.628,-8.827,-4.733,-12.75,3.302,-12.7,2.17,-6.612,4.8,0,0,0,0,0,0,0,0,0,0,0,0,0,0,0,0,
342,3.25,6.961,-1.129,0.6775,13.55,-1.666,4.973,-10.37,4.722,2.19,-4.199,6.79,-4.808,11.67,3.462,9.796,0,0,0,0,0,0,0,0,0,0,0,0,0,0,0,0,
343,6.526,20.43,-11.65,-6.248,9.897,-9.206,12.82,-4.763,2.963,7.163,-0.7875,2.247,-12.88,0.1786,3.06,7.402,0,0,0,0,0,0,0,0,0,0,0,0,0,0,0,0,
344,-25.59,3.39,-25.34,-3.212,-0.8087,-12.04,-1.091,-3.748,-13.11,-3.334,-4.619,-0.675,-15.75,-7.766,2.855,8.347,0,0,0,0,0,0,0,0,0,0,0,0,0,0,0,0,
345,9.579,-4.05,9.026,5.907,-28.32,-8.047,-14.79,-8.756,-18.26,-8.406,-7.808,0.1082,-9.329,0.7945,6.699,9.295,0,0,0,0,0,0,0,0,0,0,0,0,0,0,0,0,
346,15.05,-13.09,10.66,-7.12,-29.71,3.557,-14.11,-5.503,-15.2,1.709,-9.499,-2.995,-9.233,0.2899,4.765,3.327,0,0,0,0,0,0,0,0,0,0,0,0,0,0,0,0,
347,-36.85,-39.43,-14.97,-18.03,-4.492,10.4,-11.45,-5.391,-16.3,3.638,-9.545,-8.398,-12.78,-8.924,-1.277,-4.12,0,0,0,0,0,0,0,0,0,0,0,0,0,0,0,0,
348,-8.073,-24.83,5.005,5.331,-0.3723,-2.714,-6.762,-13.94,-15.16,-3.155,-4.874,-9.249,-9.798,-8.754,-0.4419,-7.317,0,0,0,0,0,0,0,0,0,0,0,0,0,0,0,0,
349,35.21,27.43,19.7,29.56,-9.592,-15.3,-4.671,-11.67,-3.609,0.1937,-0.3161,-6.386,-3.654,-5.932,0.8585,-7.939,0,0,0,0,0,0,0,0,0,0,0,0,0,0,0,0,
350,-10.3,28.12,-5.443,16.63,-4.489,-7.893,-5.938,-1.933,6.447,4.527,-3.697,-7.177,-5.448,-10.32,-7.145,-12.4,0,0,0,0,0,0,0,0,0,0,0,0,0,0,0,0,
351,-31.22,-13.9,-9.583,-1.384,3.91,-0.9124,-0.5715,0.4096,6.391,-1.535,-6.627,-11.39,-11.33,-14.95,-13.6,-19.43,0,0,0,0,0,0,0,0,0,0,0,0,0,0,0,0,
352,18.35,-16.11,24.81,0.8713,3.472,-4.045,-3.28,1.971,1.476,-6.513,-3.909,-11.66,-12.14,-13.35,-13.26,-20.66,0,0,0,0,0,0,0,0,0,0,0,0,0,0,0,0,
353,33.7,8.375,28.9,-5.218,8.382,-1.493,-9.709,4.768,-4.24,-3.451,-7.28,-7.8,-12.24,-7.027,-12.73,-14.1,0,0,0,0,0,0,0,0,0,0,0,0,0,0,0,0,
354,-7.685,-1.478,-33.06,-15.81,22.68,8.064,3.859,2.306,0.472,5.28,-8.592,-1.867,-9.146,1.77,-8.29,-3.381,0,0,0,0,0,0,0,0,0,0,0,0,0,0,0,0,
355,-36.74,-18.67,-59.36,-1.068,18.74,9.412,11.76,0.5212,9.46,13.09,-0.1094,2.099,-3.594,6.04,-3.207,1.894,0,0,0,0,0,0,0,0,0,0,0,0,0,0,0,0,
356,-13.3,4.247,6.713,12.3,-11.67,-0.4434,-1.943,3.476,1.352,10.98,-3.229,-2.899,-8.743,0.7161,-6.272,-2.107,0,0,0,0,0,0,0,0,0,0,0,0,0,0,0,0,
357,27.42,19.6,48.72,-5.04,-28.67,-3.221,-10.48,3.573,-3.559,5.281,-12.27,-7.225,-13.91,-3.676,-6.342,-1.994,0,0,0,0,0,0,0,0,0,0,0,0,0,0,0,0,
358,24.1,-7.733,25.51,-13.8,-6.035,3.018,-8.658,-0.608,6.722,4.905,-3.889,-2.565,-5.866,-1.729,2.244,3.158,0,0,0,0,0,0,0,0,0,0,0,0,0,0,0,0,
359,-6.433,-17.84,0.724,6.717,22.91,-1.523,1.089,-0.6468,3.879,2.322,7.619,-3.902,2.132,-3.323,5.567,-1.103,0,0,0,0,0,0,0,0,0,0,0,0,0,0,0,0,
360,-12.19,-2.952,-25.25,8.626,17.51,-8.004,11.41,5.143,-4.282,-4.704,8.135,-12.85,0.9193,-8.732,1.206,-11.04,0,0,0,0,0,0,0,0,0,0,0,0,0,0,0,0,
361,-3.67,-9.648,-21.99,-9.85,-8.892,-3.513,1.933,9.107,-4.775,-7.433,4.157,-14.05,-7.715,-11.21,-3.431,-16.08,0,0,0,0,0,0,0,0,0,0,0,0,0,0,0,0,
362,2.159,-6.336,29.47,-2.275,-17.13,-6.097,-9.874,6.13,-11.55,-6.067,-4.806,-10.71,-15.19,-12.28,-9.167,-18.5,0,0,0,0,0,0,0,0,0,0,0,0,0,0,0,0,
363,8.419,17.43,38.68,11.41,-2.921,-11.5,-4.064,-0.213,-7.943,-5.354,-12.6,-9.278,-12.25,-11.33,-13.74,-19.06,0,0,0,0,0,0,0,0,0,0,0,0,0,0,0,0,
364,5.863,9.745,4.028,6.763,6.009,-3.243,0.8634,0.0103,5.912,-2.596,-6.227,-5.923,-9.608,-5.962,-11.21,-14.6,0,0,0,0,0,0,0,0,0,0,0,0,0,0,0,0,
365,2.064,0.7419,-1.563,9.837,2.867,2.25,1.599,5.325,-2.597,1.644,5.16,-6.293,-12.51,-3.735,-6.252,-10.43,0,0,0,0,0,0,0,0,0,0,0,0,0,0,0,0,
366,-1.43,20.82,-4.931,8.477,6.221,1.443,9.163,1.305,-13.48,-0.4329,6.651,-13.18,-7.232,-9.378,-4.866,-12.22,0,0,0,0,0,0,0,0,0,0,0,0,0,0,0,0,
367,-11.48,9.818,-12.95,-9.72,9.607,4.644,16.87,-7.216,-1.492,-6.04,7.087,-15.04,2.206,-12.85,-4.14,-13.78,0,0,0,0,0,0,0,0,0,0,0,0,0,0,0,0,
368,-0.5726,-23.38,16.11,-12.24,2.678,-1.435,14.89,-5.835,5.048,-6.31,12.51,-10.4,2.113,-9.42,-2.343,-11.46,0,0,0,0,0,0,0,0,0,0,0,0,0,0,0,0,
369,21.55,-16.17,40.71,-4.546,-1.571,-11.63,2.587,-2.985,-3.032,-5.417,9.407,-7.649,-1.246,-7.236,-1.502,-10.44,0,0,0,0,0,0,0,0,0,0,0,0,0,0,0,0,
370,15.4,1.099,27.88,-4.099,-8.852,-7.432,-6.477,-5.419,-4.079,-7.085,1.531,-5.521,-0.2978,-6.062,-1.183,-8.441,0,0,0,0,0,0,0,0,0,0,0,0,0,0,0,0,
371,1.724,-3.163,12.99,0.7284,-7.075,-3.792,-1.363,-4.383,0.1657,-4.902,2.073,-1.102,-0.425,-1.528,0.1972,-2.971,0,0,0,0,0,0,0,0,0,0,0,0,0,0,0,0,
372,-2.471,4.986,-3.094,3.531,21.82,-9.085,4.348,0.177,3.369,-0.2356,2.824,0.8353,-1.698,0.407,1.053,-1.956,0,0,0,0,0,0,0,0,0,0,0,0,0,0,0,0,
373,-5.785,21.9,-10.99,6.093,17.93,-9.577,-0.8375,2.491,10.4,-0.88,-0.5731,-3.206,-1.595,-2.736,-1.561,-6.973,0,0,0,0,0,0,0,0,0,0,0,0,0,0,0,0,
374,-3.838,10.95,15.77,13.15,-25.19,-8.718,-3.76,1.083,6.968,-5.636,-2.455,-7.774,-6.452,-6.75,-3.659,-9.866,0,0,0,0,0,0,0,0,0,0,0,0,0,0,0,0,
375,-15.44,-24.27,17.94,-3.602,-23.37,-11.83,4.825,-2.232,-11.64,-10.51,-2.734,-5.818,-12.29,-10.5,-0.0622,-8.198,0,0,0,0,0,0,0,0,0,0,0,0,0,0,0,0,
376,-25.84,-45.3,-18.15,-26.4,3.068,-15.07,8.095,-3.028,-15.12,-15.74,1.003,-1.941,-10.17,-11.34,3.629,-6.692,0,0,0,0,0,0,0,0,0,0,0,0,0,0,0,0,
377,2.05,-25.26,-5.602,-9.354,0.6717,-21.66,-2.181,-1.511,-4.087,-18.46,4.141,-2.036,-7.566,-8.669,3.357,-6.886,0,0,0,0,0,0,0,0,0,0,0,0,0,0,0,0,
378,17.48,6.388,24.6,13.67,-0.012,-25.22,-3.086,0.5901,-7.079,-17.42,-0.1092,-0.9595,-6.047,-7.286,2.61,-7.112,0,0,0,0,0,0,0,0,0,0,0,0,0,0,0,0,
379,-1.632,11.16,2.359,1.464,1.307,-15.41,8.363,3.223,-10.31,-14.99,-1.977,1.387,-1.435,-4.632,-0.0155,-8.027,0,0,0,0,0,0,0,0,0,0,0,0,0,0,0,0,
380,-2.66,8.375,-14.29,-14.68,-4.121,-5.232,6.498,2.663,-0.9084,-4.978,0.8823,0.1876,-3.138,2.152,-5.247,-7.5,0,0,0,0,0,0,0,0,0,0,0,0,0,0,0,0,
381,0.5307,13.73,2.073,-7.626,-0.8236,-6.206,-2.349,1.359,0.061,9.473,-1.702,-0.152,-9.4,4.941,-7.986,-4.231,0,0,0,0,0,0,0,0,0,0,0,0,0,0,0,0,
382,-3.447,10.48,25.52,8.7,-16.18,-6.013,0.4095,5.493,-4.027,9.332,-4.479,2.001,-8.283,3.619,-6.353,-3.13,0,0,0,0,0,0,0,0,0,0,0,0,0,0,0,0,
383,10.38,-5.131,44.33,13.07,-32.78,-0.3192,2.189,7.825,0.6722,-0.7788,-0.392,1.45,-2.8,4.059,-2.759,-3.302,0,0,0,0,0,0,0,0,0,0,0,0,0,0,0,0,
384,3.93,-26.95,10.33,-3.307,-0.6636,-1.597,-0.5188,2.702,5.552,-3.106,1.416,-0.9818,1.831,-0.6649,0.2139,-2.115,0,0,0,0,0,0,0,0,0,0,0,0,0,0,0,0,
385,-16.42,-23.6,-32.84,-15.03,27.6,-7.97,1.819,-0.1955,8.837,-3.691,0.5376,-0.0937,4.8,-7.737,3.11,-2.222,0,0,0,0,0,0,0,0,0,0,0,0,0,0,0,0,
386,4.944,18.58,6.427,2.069,5.163,-10.44,0.6791,1.192,9.88,-7.574,4.889,3.161,3.469,-3.895,5.011,-1.887,0,0,0,0,0,0,0,0,0,0,0,0,0,0,0,0,
387,22.79,35.18,44.56,14.11,-17.63,-11.7,-0.4182,-0.9182,1.587,-5.858,6.713,1.611,-1.064,1.587,1.825,-1.189,0,0,0,0,0,0,0,0,0,0,0,0,0,0,0,0,
388,1.968,14.49,23.46,-2.747,-12.58,-7.162,4.931,-1.435,-4.497,1.277,5.098,-2.106,-3.155,-0.082,-0.804,-2.335,0,0,0,0,0,0,0,0,0,0,0,0,0,0,0,0,
389,-8.879,12.0,16.03,-8.391,2.271,6.679,-3.357,4.494,3.066,6.657,7.479,0.1252,-0.3341,0.4649,2.568,-2.514,0,0,0,0,0,0,0,0,0,0,0,0,0,0,0,0,
390,-2.913,0.9739,2.211,4.256,10.89,13.63,-16.67,8.883,9.242,6.718,3.128,1.573,-0.0063,1.488,3.843,-3.341,0,0,0,0,0,0,0,0,0,0,0,0,0,0,0,0,
391,9.027,-22.5,-22.56,0.5856,-1.111,8.066,-9.297,9.545,-1.124,4.05,-4.207,-1.945,-5.316,-0.8958,1.643,-5.712,0,0,0,0,0,0,0,0,0,0,0,0,0,0,0,0,
392,26.62,6.181,6.264,3.948,-11.62,-0.892,-4.796,5.486,-12.52,0.5625,-2.309,-3.636,-5.93,-2.324,0.5977,-6.989,0,0,0,0,0,0,0,0,0,0,0,0,0,0,0,0,
393,12.15,33.32,22.44,29.57,6.346,-10.72,-13.39,-4.294,-4.527,-8.348,-7.456,-4.144,-2.804,-4.251,-2.838,-8.374,0,0,0,0,0,0,0,0,0,0,0,0,0,0,0,0,
394,-19.31,4.434,0.1635,26.96,12.57,-10.19,-6.663,-6.253,5.485,-14.47,-14.52,-1.749,-5.816,-1.792,-5.605,-6.335,0,0,0,0,0,0,0,0,0,0,0,0,0,0,0,0,
395,-4.745,6.785,24.11,6.372,-10.06,7.85,6.232,1.204,-1.641,-3.531,-1.956,4.573,-7.466,8.069,-0.6466,0.7643,0,0,0,0,0,0,0,0,0,0,0,0,0,0,0,0,
396,20.75,35.91,33.16,13.97,-7.508,21.95,9.687,4.308,-3.474,12.78,11.53,8.448,1.021,14.4,8.357,8.093,0,0,0,0,0,0,0,0,0,0,0,0,0,0,0,0,
397,5.421,4.911,-12.48,11.25,15.07,19.8,13.56,6.749,9.822,18.79,11.7,15.6,9.258,16.49,14.83,14.41,0,0,0,0,0,0,0,0,0,0,0,0,0,0,0,0,
398,4.134,-15.93,0.9629,-17.06,6.184,12.2,8.228,10.76,11.28,19.21,9.79,21.53,7.154,15.6,13.79,13.31,0,0,0,0,0,0,0,0,0,0,0,0,0,0,0,0,
399,30.21,24.22,34.78,-14.91,-8.15,1.829,-4.252,5.934,-1.23,14.64,5.078,8.456,0.8127,5.504,5.366,2.357,0,0,0,0,0,0,0,0,0,0,0,0,0,0,0,0,
400,13.46,26.04,-1.454,13.36,4.429,-7.777,-5.255,-4.252,-5.39,2.675,-3.855,-7.978,-3.254,-3.892,-1.649,-6.2,0,0,0,0,0,0,0,0,0,0,0,0,0,0,0,0,
401,-16.41,1.346,-10.35,26.28,8.122,-5.162,-5.959,-10.17,-2.024,-3.506,-9.075,-6.867,-5.668,-2.272,-2.062,-7.762,0,0,0,0,0,0,0,0,0,0,0,0,0,0,0,0,
402,-0.53,19.44,27.1,21.86,-3.562,3.902,-7.794,-10.28,-1.027,1.15,-7.203,-2.711,-4.997,-0.3784,-0.5392,-7.444,0,0,0,0,0,0,0,0,0,0,0,0,0,0,0,0,
403,5.604,9.045,10.96,6.681,-1.128,3.51,-3.117,-9.16,-0.5785,0.0719,-6.382,-7.326,-5.571,-7.09,-3.505,-9.274,0,0,0,0,0,0,0,0,0,0,0,0,0,0,0,0,
404,-5.412,-22.7,-18.03,-4.09,5.118,-6.285,-7.572,-9.814,-1.757,-10.18,-10.5,-10.65,-10.47,-12.43,-6.937,-11.12,0,0,0,0,0,0,0,0,0,0,0,0,0,0,0,0,
405,17.02,11.15,-4.212,-1.787,9.545,-9.133,-10.77,-5.278,-4.508,-10.05,-7.943,-5.927,-9.39,-6.897,-3.207,-6.288,0,0,0,0,0,0,0,0,0,0,0,0,0,0,0,0,
406,18.09,33.45,2.05,-6.156,13.54,0.5147,-3.871,-2.544,-2.911,-0.3738,-8.292,-2.756,-8.522,-4.586,-3.649,-5.415,0,0,0,0,0,0,0,0,0,0,0,0,0,0,0,0,
407,-19.91,2.056,1.342,-14.13,-13.62,1.876,-15.44,-15.86,-5.928,-5.853,-23.55,-8.957,-18.75,-13.81,-13.33,-14.8,0,0,0,0,0,0,0,0,0,0,0,0,0,0,0,0,
408,-16.44,3.545,14.27,-8.663,-33.78,-9.508,-28.04,-23.81,-17.59,-19.89,-23.55,-10.79,-18.11,-12.21,-9.579,-12.67,0,0,0,0,0,0,0,0,0,0,0,0,0,0,0,0,
409,10.32,12.24,3.015,2.176,12.9,-9.917,-10.15,-10.97,-12.95,-14.54,-4.448,-2.922,-2.021,1.156,4.328,-1.429,0,0,0,0,0,0,0,0,0,0,0,0,0,0,0,0,
410,6.873,-7.979,-16.56,9.642,40.74,-4.816,2.143,-4.313,6.641,0.6557,-3.109,-2.66,0.2162,1.252,1.436,-3.767,0,0,0,0,0,0,0,0,0,0,0,0,0,0,0,0,
411,9.297,-0.6625,0.9435,7.149,-4.81,-10.87,-10.0,-10.82,7.203,3.226,-14.43,-8.273,-6.551,-4.234,-6.122,-7.919,0,0,0,0,0,0,0,0,0,0,0,0,0,0,0,0,
412,23.58,19.98,18.58,-3.454,-20.46,-12.83,-17.2,-9.872,-5.043,-0.7105,-14.59,-6.724,-4.285,-1.965,-1.858,-3.642,0,0,0,0,0,0,0,0,0,0,0,0,0,0,0,0,
413,8.099,19.64,7.863,-4.943,7.874,-4.206,-13.96,-5.435,-7.988,-2.674,-11.11,-6.79,-7.829,-7.201,-1.964,-6.708,0,0,0,0,0,0,0,0,0,0,0,0,0,0,0,0,
414,-18.38,12.35,1.624,-2.003,10.37,4.74,-5.827,-8.042,-8.353,-5.033,-12.2,-12.69,-16.16,-18.9,-7.143,-14.79,0,0,0,0,0,0,0,0,0,0,0,0,0,0,0,0,
415,-8.84,1.737,-0.6507,-3.994,14.73,8.38,0.7234,-8.422,-7.008,-9.995,-12.16,-13.03,-12.22,-19.17,-5.032,-14.96,0,0,0,0,0,0,0,0,0,0,0,0,0,0,0,0,
416,18.77,7.019,-5.11,-1.599,30.17,2.862,-9.034,-3.482,-3.724,-14.2,-9.56,-7.612,-8.538,-11.11,-1.56,-11.64,0,0,0,0,0,0,0,0,0,0,0,0,0,0,0,0,
417,17.49,19.47,10.58,1.896,16.98,1.679,-16.47,-2.598,-2.594,-6.139,-9.63,-3.861,-10.48,-5.602,-0.2079,-9.327,0,0,0,0,0,0,0,0,0,0,0,0,0,0,0,0,
418,7.039,9.32,23.48,4.389,-3.248,3.731,-6.659,-4.593,3.383,4.798,-11.44,-4.565,-5.753,-5.993,0.5059,-7.886,0,0,0,0,0,0,0,0,0,0,0,0,0,0,0,0,
419,14.8,11.0,12.26,11.11,-8.001,-14.24,-6.045,-1.835,2.727,-3.993,-7.805,-9.451,-3.815,-12.18,-0.7535,-9.63,0,0,0,0,0,0,0,0,0,0,0,0,0,0,0,0,
420,5.348,14.92,-0.0591,8.492,2.975,-26.32,-7.011,1.292,-10.14,-16.43,-0.7308,-10.98,-8.278,-16.77,1.293,-9.982,0,0,0,0,0,0,0,0,0,0,0,0,0,0,0,0,
421,-15.8,-14.74,-19.46,-3.006,21.65,-9.894,11.16,-1.734,-12.77,-12.61,0.3117,-6.516,-8.482,-15.86,3.696,-6.961,0,0,0,0,0,0,0,0,0,0,0,0,0,0,0,0,
422,-4.748,-11.77,-37.46,2.03,7.938,-4.792,10.33,-5.221,-8.226,-8.017,-6.817,-6.164,-11.38,-15.68,-2.154,-8.344,0,0,0,0,0,0,0,0,0,0,0,0,0,0,0,0,
423,13.18,28.11,-9.424,19.95,-25.0,-16.88,-17.8,-4.492,-11.04,-9.608,-13.55,-8.621,-18.63,-16.37,-9.002,-12.01,0,0,0,0,0,0,0,0,0,0,0,0,0,0,0,0,
424,5.244,18.76,30.49,13.72,-21.59,-15.41,-24.08,-5.077,-19.01,-12.57,-15.48,-6.674,-21.09,-14.51,-9.617,-10.08,0,0,0,0,0,0,0,0,0,0,0,0,0,0,0,0,
425,-12.54,-8.128,19.95,-15.24,7.283,-8.413,-11.81,-7.727,-25.67,-16.5,-17.85,-5.048,-18.06,-10.52,-6.383,-3.722,0,0,0,0,0,0,0,0,0,0,0,0,0,0,0,0,
426,-19.12,9.343,-7.205,-13.37,24.92,-7.608,-12.95,-5.025,-14.21,-12.83,-18.58,-0.5005,-10.48,-3.996,-2.171,2.074,0,0,0,0,0,0,0,0,0,0,0,0,0,0,0,0,
427,-1.998,27.69,-8.683,18.02,15.83,-8.733,-18.44,0.7295,0.6924,-7.236,-16.47,7.017,-9.648,-2.192,-2.533,0.4049,0,0,0,0,0,0,0,0,0,0,0,0,0,0,0,0,
428,16.91,11.52,-14.92,18.81,-10.98,-10.69,-18.49,0.6248,-11.04,-10.44,-16.6,1.121,-17.5,-8.384,-5.304,-7.041,0,0,0,0,0,0,0,0,0,0,0,0,0,0,0,0,
429,9.421,-12.43,-29.93,0.4482,-21.06,-5.647,-13.65,-2.02,-19.62,-8.446,-12.96,-10.81,-15.32,-11.2,-2.655,-10.3,0,0,0,0,0,0,0,0,0,0,0,0,0,0,0,0,
430,2.443,-13.22,-11.63,3.258,-13.05,3.188,-5.573,-3.634,-8.471,-0.8703,-8.06,-9.547,-9.48,-11.87,1.266,-11.7,0,0,0,0,0,0,0,0,0,0,0,0,0,0,0,0,
431,10.6,4.259,19.17,5.905,-2.175,1.538,-8.923,-8.495,-4.714,-0.6238,-9.473,-5.024,-8.846,-14.52,3.531,-12.98,0,0,0,0,0,0,0,0,0,0,0,0,0,0,0,0,
432,6.362,11.58,13.39,5.762,11.85,-5.222,-13.75,-8.374,-2.424,-0.0531,-5.797,-6.075,-2.486,-11.29,5.792,-9.905,0,0,0,0,0,0,0,0,0,0,0,0,0,0,0,0,
433,-5.057,13.08,-7.357,14.91,9.201,-8.243,-0.8301,1.878,-2.844,-2.846,-0.9773,-3.227,-0.4894,-8.189,4.51,-7.217,0,0,0,0,0,0,0,0,0,0,0,0,0,0,0,0,
434,-5.411,15.09,-13.95,6.248,-0.1807,-10.3,0.3014,5.19,-14.98,-16.19,-6.856,3.005,-3.673,-6.899,4.38,-2.138,0,0,0,0,0,0,0,0,0,0,0,0,0,0,0,0,
435,-6.524,-2.947,-16.95,-7.954,10.57,-10.53,-21.85,-1.174,-12.17,-19.51,-9.844,4.999,1.643,0.3938,8.047,7.5,0,0,0,0,0,0,0,0,0,0,0,0,0,0,0,0,
436,-9.368,-15.15,-17.31,4.673,4.328,-10.01,-22.47,-3.205,-3.25,-11.32,-6.659,4.569,1.872,0.7181,7.74,9.444,0,0,0,0,0,0,0,0,0,0,0,0,0,0,0,0,
437,0.4891,2.632,-14.81,15.41,-21.46,-11.87,-3.297,-3.68,-9.371,-8.486,-4.729,5.979,-0.9013,-1.91,8.934,7.948,0,0,0,0,0,0,0,0,0,0,0,0,0,0,0,0,
438,10.05,5.376,-11.64,-0.5826,-9.488,-6.08,-5.465,-3.022,-7.897,-1.427,0.1005,6.527,3.93,8.593,12.66,11.18,0,0,0,0,0,0,0,0,0,0,0,0,0,0,0,0,
439,-0.9373,-12.71,-4.754,-17.33,15.06,7.073,-13.55,5.026,-3.875,8.176,0.3671,2.347,-2.909,6.451,4.699,6.376,0,0,0,0,0,0,0,0,0,0,0,0,0,0,0,0,
440,-13.04,-9.984,-10.51,-3.471,-0.0612,4.699,-10.07,7.519,-10.26,0.9554,-8.066,-3.143,-12.73,-14.51,-5.072,-4.896,0,0,0,0,0,0,0,0,0,0,0,0,0,0,0,0,
441,-7.208,4.649,-22.77,30.53,-10.4,-8.391,-16.29,1.307,-3.911,-8.61,-9.746,-4.577,-5.076,-17.58,-1.686,-7.085,0,0,0,0,0,0,0,0,0,0,0,0,0,0,0,0,
442,-8.617,7.504,-15.31,33.99,18.28,-3.951,-18.51,2.539,4.641,-6.084,-3.94,-4.303,-1.825,-9.652,0.8119,-6.446,0,0,0,0,0,0,0,0,0,0,0,0,0,0,0,0,
443,-17.71,0.5067,-11.03,4.231,25.79,5.483,-3.473,4.854,-6.801,-8.654,-3.003,-7.456,-7.774,-14.17,-1.809,-10.5,0,0,0,0,0,0,0,0,0,0,0,0,0,0,0,0,
444,0.3839,-3.713,-22.34,-3.76,-9.498,-2.582,-3.217,-3.531,-13.31,-12.04,-5.746,-9.006,-4.071,-12.41,0.3774,-9.552,0,0,0,0,0,0,0,0,0,0,0,0,0,0,0,0,
445,13.08,8.031,-16.57,13.33,-18.34,-11.92,-13.48,-8.88,-5.26,-0.8532,-8.0,-4.259,-3.133,-3.33,-1.005,-6.713,0,0,0,0,0,0,0,0,0,0,0,0,0,0,0,0,
446,-22.24,9.987,-8.995,14.78,9.431,-12.11,-10.04,-4.971,-7.19,2.627,-12.99,-3.975,-13.85,-10.27,-8.519,-13.23,0,0,0,0,0,0,0,0,0,0,0,0,0,0,0,0,
447,-36.9,-16.55,-31.66,-7.293,5.585,-9.716,-13.47,-3.465,-16.45,-12.12,-18.46,-10.95,-19.31,-22.07,-11.17,-19.98,0,0,0,0,0,0,0,0,0,0,0,0,0,0,0,0,
448,5.187,-24.34,-43.73,-27.91,-19.44,-1.262,-26.15,-4.223,-15.42,-16.31,-16.15,-12.81,-16.88,-21.73,-10.66,-19.46,0,0,0,0,0,0,0,0,0,0,0,0,0,0,0,0,
449,11.54,-3.869,-18.96,-15.97,-5.578,5.123,-22.58,-4.288,-11.44,-7.026,-6.856,-10.61,-13.68,-18.82,-9.091,-17.36,0,0,0,0,0,0,0,0,0,0,0,0,0,0,0,0,
450,-24.25,1.615,-9.861,17.76,11.54,-5.154,-14.02,-10.28,-12.18,-7.827,-3.684,-10.76,-10.07,-17.91,-5.558,-12.94,0,0,0,0,0,0,0,0,0,0,0,0,0,0,0,0,
451,-13.09,0.8769,-22.71,24.73,-11.47,-19.21,-16.49,-13.46,-9.613,-13.68,-11.44,-8.442,-9.085,-14.2,-5.46,-8.239,0,0,0,0,0,0,0,0,0,0,0,0,0,0,0,0,
452,6.274,2.259,-14.96,5.412,-22.23,-20.01,-16.86,-2.808,-4.753,-10.78,-11.92,-2.274,-8.052,-9.014,-4.151,-6.328,0,0,0,0,0,0,0,0,0,0,0,0,0,0,0,0,
453,-22.85,-11.75,-19.42,0.8049,-5.22,-18.28,-12.2,2.846,-9.371,-9.519,-2.536,1.371,-5.33,-6.837,-0.7521,-3.909,0,0,0,0,0,0,0,0,0,0,0,0,0,0,0,0,
454,-30.39,-15.72,-43.09,10.46,-10.81,-23.16,-12.78,-5.075,-21.16,-15.72,-9.78,-2.309,-10.29,-11.04,-6.678,-7.463,0,0,0,0,0,0,0,0,0,0,0,0,0,0,0,0,
455,-6.497,-15.85,-26.88,4.954,-23.44,-20.84,-17.99,-5.204,-19.87,-16.93,-24.6,-9.135,-17.36,-17.3,-13.64,-15.71,0,0,0,0,0,0,0,0,0,0,0,0,0,0,0,0,
456,-12.33,-35.84,-11.87,-10.09,-9.36,-14.4,-22.84,1.107,-8.163,-12.29,-18.32,-11.2,-16.27,-18.56,-9.403,-14.49,0,0,0,0,0,0,0,0,0,0,0,0,0,0,0,0,
457,-16.89,-17.74,-31.07,-8.931,-0.0672,-17.11,-22.07,0.6205,-15.4,-10.28,-8.509,-8.819,-13.69,-14.37,-3.083,-7.888,0,0,0,0,0,0,0,0,0,0,0,0,0,0,0,0,
458,-1.103,20.34,-18.87,-10.08,-14.02,-11.3,-16.26,2.264,-28.24,-5.852,-11.37,-4.888,-11.27,-8.834,-2.152,-6.971,0,0,0,0,0,0,0,0,0,0,0,0,0,0,0,0,
459,-13.72,-14.63,-3.844,-26.38,-19.64,-1.771,-16.31,3.603,-17.09,-0.9197,-15.03,-4.393,-11.25,-11.36,-7.368,-11.54,0,0,0,0,0,0,0,0,0,0,0,0,0,0,0,0,
460,-31.08,-47.8,-27.02,-7.466,-2.966,-16.8,-16.34,-2.664,-10.2,-7.04,-16.3,-8.689,-15.43,-18.68,-13.09,-14.5,0,0,0,0,0,0,0,0,0,0,0,0,0,0,0,0,
461,-15.56,-2.854,-27.42,37.09,0.7444,-25.56,-7.284,-4.422,-19.14,-11.0,-9.628,-4.284,-9.528,-14.36,-8.53,-9.493,0,0,0,0,0,0,0,0,0,0,0,0,0,0,0,0,
462,-6.856,20.71,-9.171,35.78,-16.24,-8.695,-9.211,-3.055,-13.48,-1.547,-1.657,5.585,-1.82,-7.644,-4.799,-6.681,0,0,0,0,0,0,0,0,0,0,0,0,0,0,0,0,
463,-10.11,2.946,-5.545,13.68,-6.313,-9.547,-23.74,-3.722,-6.425,2.311,-11.19,1.219,-8.915,-11.45,-13.1,-12.54,0,0,0,0,0,0,0,0,0,0,0,0,0,0,0,0,
464,-2.903,3.321,-7.028,9.161,13.52,-18.56,-23.42,5.016,-10.51,-2.957,-19.26,-7.54,-12.22,-11.98,-15.85,-13.01,0,0,0,0,0,0,0,0,0,0,0,0,0,0,0,0,
465,-18.27,-13.06,-29.18,-8.003,-3.357,-2.92,-12.45,12.67,-6.71,-1.62,-11.2,-5.717,-7.69,-8.292,-9.008,-7.342,0,0,0,0,0,0,0,0,0,0,0,0,0,0,0,0,
466,-41.52,-32.82,-40.98,-13.83,-19.03,1.558,-12.23,2.856,-9.75,2.611,-8.23,-3.01,-10.95,-9.112,-7.65,-5.849,0,0,0,0,0,0,0,0,0,0,0,0,0,0,0,0,
467,-17.69,-6.507,-18.97,11.9,-22.14,-15.76,-19.9,-4.354,-21.57,3.175,-8.866,-2.241,-11.66,-7.431,-7.251,-5.348,0,0,0,0,0,0,0,0,0,0,0,0,0,0,0,0,
468,3.772,8.613,-24.45,16.65,-33.26,-16.65,-19.91,5.52,-13.18,3.864,-3.36,0.6316,-6.748,-6.514,-2.567,-3.503,0,0,0,0,0,0,0,0,0,0,0,0,0,0,0,0,
469,-12.79,-8.646,-36.51,5.199,-22.81,-6.763,-14.13,13.36,-3.387,2.247,-7.436,-0.2436,-8.286,-12.28,-3.329,-4.21,0,0,0,0,0,0,0,0,0,0,0,0,0,0,0,0,
470,0.6656,-3.113,-3.622,12.57,-11.59,-8.045,-27.95,8.342,-12.92,-1.605,-17.89,-3.476,-9.153,-12.94,-6.368,-5.842,0,0,0,0,0,0,0,0,0,0,0,0,0,0,0,0,
471,21.34,19.13,14.95,18.05,-14.23,-13.13,-47.18,0.8083,-12.98,-1.415,-13.3,-1.472,-4.924,-5.891,-3.165,-4.396,0,0,0,0,0,0,0,0,0,0,0,0,0,0,0,0,
472,-15.37,23.29,-11.33,11.48,6.833,-15.07,-27.35,-2.004,-1.373,-0.53,-3.743,0.3303,-5.015,-4.582,-2.199,-5.219,0,0,0,0,0,0,0,0,0,0,0,0,0,0,0,0,
473,-38.06,5.333,-42.71,4.535,1.078,-10.77,-0.6683,-0.7932,-5.239,-5.53,-7.517,-4.667,-7.468,-10.92,-7.125,-13.55,0,0,0,0,0,0,0,0,0,0,0,0,0,0,0,0,
474,-15.62,-13.6,-47.47,2.697,-29.53,-0.8497,-10.3,0.2823,-10.57,-9.196,-10.77,-8.246,-5.92,-12.0,-7.654,-18.05,0,0,0,0,0,0,0,0,0,0,0,0,0,0,0,0,
475,-6.835,-1.939,-10.62,8.681,-4.216,1.871,-16.8,-2.916,0.0151,-1.596,-6.557,-6.553,-7.025,-7.672,-7.304,-15.51,0,0,0,0,0,0,0,0,0,0,0,0,0,0,0,0,
476,8.17,14.61,15.8,12.26,-0.3509,-3.574,-8.854,-6.625,-0.7057,5.867,-11.22,-7.053,-15.34,-10.47,-14.84,-18.35,0,0,0,0,0,0,0,0,0,0,0,0,0,0,0,0,
477,21.86,-0.1852,-8.165,9.132,-47.53,-6.885,-18.1,-5.838,-17.2,-0.6368,-17.02,-7.659,-18.85,-15.58,-18.29,-20.04,0,0,0,0,0,0,0,0,0,0,0,0,0,0,0,0,
478,-8.298,2.268,-15.61,-0.1678,-23.17,-9.689,-26.0,-4.661,-16.15,-7.376,-10.51,-4.898,-11.48,-14.26,-11.17,-12.05,0,0,0,0,0,0,0,0,0,0,0,0,0,0,0,0,
479,-15.56,31.42,-4.446,-10.93,19.3,-11.06,-19.85,-5.214,-5.664,-6.251,-7.099,-4.138,-6.691,-13.77,-7.524,-6.292,0,0,0,0,0,0,0,0,0,0,0,0,0,0,0,0,
480,4.595,11.38,-41.79,-3.002,-16.24,-3.098,-16.58,-3.036,-9.165,-9.995,-9.939,-4.559,-9.27,-14.3,-7.624,-4.189,0,0,0,0,0,0,0,0,0,0,0,0,0,0,0,0,
481,-17.29,-32.2,-62.21,4.64,-36.75,4.589,-11.16,0.0135,-9.715,-12.21,-5.444,-4.722,-8.476,-12.24,-2.462,0.6777,0,0,0,0,0,0,0,0,0,0,0,0,0,0,0,0,
482,-23.21,-11.9,-7.881,-7.791,-6.271,-0.8664,-12.05,-0.1377,-1.988,-5.409,-1.565,-5.119,-4.072,-11.22,0.3919,2.23,0,0,0,0,0,0,0,0,0,0,0,0,0,0,0,0,
483,10.74,28.99,20.61,0.8528,9.743,-9.274,-25.4,0.4117,3.199,-1.113,-7.212,-0.7593,-3.443,-8.34,-2.153,-0.5968,0,0,0,0,0,0,0,0,0,0,0,0,0,0,0,0,
484,11.07,19.8,-8.465,22.63,2.652,-11.13,-21.18,2.481,9.541,1.645,-11.15,0.3316,-5.257,-8.915,-3.441,-3.767,0,0,0,0,0,0,0,0,0,0,0,0,0,0,0,0,
485,1.782,2.494,-10.48,12.09,-22.82,-11.39,-5.21,1.738,4.83,-0.9368,-7.322,-10.52,-5.693,-17.86,-4.29,-8.448,0,0,0,0,0,0,0,0,0,0,0,0,0,0,0,0,
486,7.177,16.33,-2.759,0.6769,-38.14,-7.806,-1.492,1.573,-7.321,-11.0,0.0421,-15.11,-2.405,-13.71,-1.769,-9.01,0,0,0,0,0,0,0,0,0,0,0,0,0,0,0,0,
487,-8.97,24.25,-32.62,9.132,-5.224,-1.316,0.0635,3.565,0.9365,-2.413,6.801,-7.636,1.224,0.1209,1.956,-4.883,0,0,0,0,0,0,0,0,0,0,0,0,0,0,0,0,
488,-12.71,5.043,-31.91,7.098,14.07,-2.996,-10.6,3.098,3.504,10.73,3.407,-9.583,-5.222,-9.222,-5.349,-9.455,0,0,0,0,0,0,0,0,0,0,0,0,0,0,0,0,
489,9.059,-4.328,12.27,-0.8879,-22.32,-9.599,-30.0,3.425,-19.14,-6.647,-8.588,-17.53,-14.43,-25.19,-13.32,-18.14,0,0,0,0,0,0,0,0,0,0,0,0,0,0,0,0,
490,11.15,15.6,12.98,-0.345,-40.29,-14.7,-18.52,2.53,-20.4,-21.09,-10.22,-14.29,-11.8,-18.76,-10.46,-17.43,0,0,0,0,0,0,0,0,0,0,0,0,0,0,0,0,
491,4.911,20.52,-11.89,4.062,-21.29,-16.1,-1.665,-5.886,-1.18,-9.998,-3.084,-9.539,-9.346,-12.94,-10.13,-15.97,0,0,0,0,0,0,0,0,0,0,0,0,0,0,0,0,
492,-7.122,-8.781,-8.642,6.963,-17.01,-6.88,-11.15,-8.113,-1.743,-5.803,-2.551,-8.589,-12.02,-16.73,-10.84,-14.98,0,0,0,0,0,0,0,0,0,0,0,0,0,0,0,0,
493,-36.65,-16.4,-24.34,3.308,-8.809,-0.982,-11.48,0.525,-5.058,-7.438,-5.454,-2.122,-6.244,-9.123,-3.973,-5.18,0,0,0,0,0,0,0,0,0,0,0,0,0,0,0,0,
494,-21.66,18.43,-46.69,8.076,8.72,-10.86,-9.659,2.017,-0.5732,0.1817,-9.518,2.443,-3.528,-0.0871,-2.489,0.7463,0,0,0,0,0,0,0,0,0,0,0,0,0,0,0,0,
495,32.33,35.6,-15.24,18.87,-18.9,-14.58,-26.89,-1.714,-9.757,2.301,-15.65,-0.3412,-12.16,-3.304,-6.741,-2.863,0,0,0,0,0,0,0,0,0,0,0,0,0,0,0,0,
496,22.58,7.3,14.53,3.928,-49.45,-7.731,-25.38,0.5827,-19.24,-3.462,-14.22,0.9431,-13.39,-5.51,-4.032,-2.358,0,0,0,0,0,0,0,0,0,0,0,0,0,0,0,0,
497,-20.0,-9.444,0.2234,-11.84,-16.8,-7.486,-10.66,2.753,-12.92,-5.991,-6.865,6.209,-7.197,-3.035,0.6503,-0.1162,0,0,0,0,0,0,0,0,0,0,0,0,0,0,0,0,
498,-5.494,10.31,-13.67,3.857,9.618,-8.739,-17.84,1.544,-4.094,-5.697,-5.454,5.241,-3.708,-3.872,1.237,-3.733,0,0,0,0,0,0,0,0,0,0,0,0,0,0,0,0,
499,-0.2483,6.982,-16.57,14.52,-6.485,-6.23,-25.16,-2.958,2.765,-4.69,-9.859,0.6041,1.436,-4.676,1.692,-6.863,0,0,0,0,0,0,0,0,0,0,0,0,0,0,0,0,
500,-39.84,-14.01,-25.72,13.23,3.379,-3.945,-15.36,-9.81,9.482,2.132,-10.25,1.377,4.749,0.1937,1.982,-5.046,0,0,0,0,0,0,0,0,0,0,0,0,0,0,0,0,
501,-29.47,7.993,-43.92,22.49,15.63,0.5912,-5.948,-8.258,7.514,13.75,-4.884,5.35,0.516,3.846,-0.6482,-3.63,0,0,0,0,0,0,0,0,0,0,0,0,0,0,0,0,
502,15.79,22.05,-40.57,16.36,-22.54,5.094,-13.67,-0.9884,-2.192,14.15,-5.145,4.396,-5.856,-1.903,-5.192,-8.199,0,0,0,0,0,0,0,0,0,0,0,0,0,0,0,0,
503,15.01,-7.604,2.605,-4.757,-44.39,4.5,-30.33,-2.24,-6.415,1.359,-10.56,0.5941,-9.618,-9.069,-8.697,-13.67,0,0,0,0,0,0,0,0,0,0,0,0,0,0,0,0,
504,-5.126,-3.377,12.49,-6.204,-21.23,-1.228,-21.11,-6.145,-3.466,-6.341,-10.31,0.5056,-7.089,-7.83,-9.069,-12.0,0,0,0,0,0,0,0,0,0,0,0,0,0,0,0,0,
505,-16.84,28.58,-19.1,4.935,-11.82,-5.987,-1.886,-2.958,-1.643,-6.25,-9.809,4.347,0.0838,-2.657,-6.474,-5.523,0,0,0,0,0,0,0,0,0,0,0,0,0,0,0,0,
506,-18.77,22.36,-15.29,14.49,-8.324,-2.699,-16.84,-0.2911,-1.126,-4.785,-12.16,8.965,0.4977,0.7357,-4.372,-0.664,0,0,0,0,0,0,0,0,0,0,0,0,0,0,0,0,
507,0.995,-0.4027,-16.55,10.42,4.766,3.062,-27.75,-2.38,-1.782,0.2121,-10.67,11.29,-6.946,2.903,-4.163,0.7134,0,0,0,0,0,0,0,0,0,0,0,0,0,0,0,0,
508,0.3503,-7.318,-35.64,-13.01,-9.461,5.793,-6.672,-5.955,-6.715,5.244,-8.949,11.57,-10.55,4.382,-2.075,2.717,0,0,0,0,0,0,0,0,0,0,0,0,0,0,0,0,
509,-22.49,1.896,-5.973,-10.61,-19.28,8.247,-2.99,-13.3,-10.53,4.584,-10.31,9.848,-10.47,1.296,-0.1291,5.167,0,0,0,0,0,0,0,0,0,0,0,0,0,0,0,0,
510,-8.721,12.87,7.399,19.23,7.624,4.855,-20.25,-18.7,-9.154,-1.373,-13.28,4.454,-15.99,-8.056,-3.496,0.6827,0,0,0,0,0,0,0,0,0,0,0,0,0,0,0,0,
511,5.0,3.356,-21.13,14.22,7.11,-8.437,-27.73,-13.45,-7.902,-9.743,-17.25,1.654,-23.34,-13.71,-6.865,-4.363,0,0,0,0,0,0,0,0,0,0,0,0,0,0,0,0,
512,-9.479,-5.404,-10.13,-6.077,-25.39,-16.48,-29.67,-9.727,-9.908,-14.11,-18.96,4.758,-21.87,-10.31,-4.918,-0.3899,0,0,0,0,0,0,0,0,0,0,0,0,0,0,0,0,
513,7.185,1.765,1.115,-0.948,-25.77,-3.602,-21.67,-14.58,-10.21,-11.94,-16.7,6.219,-12.1,-5.914,-0.9933,2.836,0,0,0,0,0,0,0,0,0,0,0,0,0,0,0,0,
514,17.06,5.704,-20.16,-3.439,-7.626,14.24,-5.865,-16.41,-6.371,-9.025,-10.04,5.698,-4.799,-3.83,2.436,0.2427,0,0,0,0,0,0,0,0,0,0,0,0,0,0,0,0,
515,-30.42,16.58,-16.02,-6.776,2.064,12.71,-4.218,-16.01,-3.488,-7.558,-3.99,6.324,-2.277,-2.648,4.065,-1.577,0,0,0,0,0,0,0,0,0,0,0,0,0,0,0,0,
516,-42.07,21.98,1.334,12.57,18.4,4.971,-9.461,-15.83,2.293,-4.379,-4.501,3.773,3.628,-3.264,0.7563,-6.176,0,0,0,0,0,0,0,0,0,0,0,0,0,0,0,0,
517,15.22,3.601,9.163,20.73,21.82,2.695,-6.893,-13.82,9.294,-2.362,-3.102,-2.07,4.633,-6.988,-6.4,-16.62,0,0,0,0,0,0,0,0,0,0,0,0,0,0,0,0,
518,43.06,6.09,12.13,16.32,-2.219,-4.606,0.7162,-18.2,1.31,-4.397,1.729,-5.089,-8.543,-12.94,-11.04,-22.66,0,0,0,0,0,0,0,0,0,0,0,0,0,0,0,0,
519,4.729,18.75,-8.798,2.508,-4.67,0.3959,7.927,-18.38,-3.908,-2.953,-0.4694,-1.39,-15.75,-13.66,-10.31,-17.27,0,0,0,0,0,0,0,0,0,0,0,0,0,0,0,0,
520,-39.28,-2.863,-24.11,-29.17,29.25,20.37,8.106,-7.224,10.23,0.7167,-2.737,6.077,-8.737,-9.128,-4.773,-7.141,0,0,0,0,0,0,0,0,0,0,0,0,0,0,0,0,
521,-29.7,-10.87,-3.372,-19.73,26.31,15.93,6.001,-13.77,9.647,-5.012,4.306,7.565,-3.391,-8.171,4.483,-1.122,0,0,0,0,0,0,0,0,0,0,0,0,0,0,0,0,
522,3.11,5.339,1.598,11.54,-20.33,-4.672,7.435,-32.38,-4.257,-14.46,9.422,0.5918,-2.223,-9.259,7.071,-1.946,0,0,0,0,0,0,0,0,0,0,0,0,0,0,0,0,
523,-10.35,-4.389,-28.08,-17.24,-15.85,-3.887,7.384,-31.32,-1.383,-16.88,5.477,-0.9748,-5.53,-9.701,0.9299,-4.476,0,0,0,0,0,0,0,0,0,0,0,0,0,0,0,0,
524,-30.44,-10.9,-23.59,-27.89,15.26,3.776,8.776,-28.31,0.6947,-14.37,6.032,10.37,-8.279,-6.997,3.894,0.6752,0,0,0,0,0,0,0,0,0,0,0,0,0,0,0,0,
525,-3.629,6.226,28.03,17.96,-6.174,0.8408,5.751,-32.81,0.1018,-7.56,12.29,18.14,1.069,2.907,11.96,6.261,0,0,0,0,0,0,0,0,0,0,0,0,0,0,0,0,
526,16.24,13.38,35.35,15.62,2.752,4.596,-5.066,-22.36,9.464,0.9119,7.388,12.36,5.679,6.545,8.557,1.215,0,0,0,0,0,0,0,0,0,0,0,0,0,0,0,0,
527,-0.8773,16.95,-13.14,-8.838,49.99,15.45,4.644,-11.1,7.226,2.662,4.02,7.761,-1.642,-1.57,8.183,0.5843,0,0,0,0,0,0,0,0,0,0,0,0,0,0,0,0,
528,-27.69,9.236,-12.25,-12.96,4.69,17.42,32.47,-13.25,3.92,-0.9578,18.59,10.94,2.711,-1.974,19.28,10.83,0,0,0,0,0,0,0,0,0,0,0,0,0,0,0,0,
529,-36.03,-16.91,41.5,-46.59,-49.12,19.31,39.54,-10.85,19.62,0.0664,28.48,15.84,16.53,9.37,27.96,17.59,0,0,0,0,0,0,0,0,0,0,0,0,0,0,0,0,
530,6.403,-6.1,66.36,-42.0,15.91,27.35,31.77,-9.62,27.94,8.155,28.02,22.18,21.88,16.84,31.43,20.24,0,0,0,0,0,0,0,0,0,0,0,0,0,0,0,0,
531,51.08,19.95,56.97,14.67,72.12,24.8,35.69,-21.72,23.88,11.89,30.75,23.41,19.74,13.84,26.83,16.57,0,0,0,0,0,0,0,0,0,0,0,0,0,0,0,0,
532,17.93,-6.738,17.6,-0.569,45.58,20.29,41.87,-30.16,29.78,7.856,26.17,16.22,16.75,8.492,14.9,5.055,0,0,0,0,0,0,0,0,0,0,0,0,0,0,0,0,
533,-19.44,-13.58,-14.59,-41.91,19.79,23.77,33.08,-28.15,36.66,6.596,16.29,13.9,14.57,8.581,10.22,1.512,0,0,0,0,0,0,0,0,0,0,0,0,0,0,0,0,
534,29.17,49.34,49.07,-20.9,5.046,10.29,21.25,-27.44,23.99,4.921,15.15,16.49,9.149,9.037,11.4,4.056,0,0,0,0,0,0,0,0,0,0,0,0,0,0,0,0,
535,47.32,56.88,107.4,-5.836,12.12,-1.163,31.58,-30.93,8.011,3.234,18.33,13.45,6.121,9.554,11.45,3.982,0,0,0,0,0,0,0,0,0,0,0,0,0,0,0,0,
536,-39.26,-13.36,32.85,-14.74,59.39,21.16,50.06,-33.79,17.34,14.32,21.07,14.19,12.87,13.93,14.62,8.927,0,0,0,0,0,0,0,0,0,0,0,0,0,0,0,0,
537,-47.87,-16.42,-19.4,-18.16,63.12,35.36,47.25,-31.14,31.06,19.95,20.67,21.96,18.65,12.98,17.87,14.06,0,0,0,0,0,0,0,0,0,0,0,0,0,0,0,0,
538,45.99,22.68,25.54,-41.77,20.66,34.01,43.38,-24.45,31.77,7.116,20.21,21.73,23.43,9.896,18.55,12.36,0,0,0,0,0,0,0,0,0,0,0,0,0,0,0,0,
539,20.32,-10.04,38.45,-58.66,28.38,49.31,49.33,-20.53,45.95,5.824,22.84,24.16,28.19,15.14,18.3,10.69,0,0,0,0,0,0,0,0,0,0,0,0,0,0,0,0,
540,-44.95,-18.37,56.74,-35.92,51.64,41.69,40.39,-19.61,49.36,16.7,18.97,39.8,19.28,18.41,17.18,12.79,0,0,0,0,0,0,0,0,0,0,0,0,0,0,0,0,
541,28.05,41.37,102.5,-17.91,25.44,12.58,34.46,-21.1,22.47,13.71,19.39,37.76,15.41,17.84,23.89,19.86,0,0,0,0,0,0,0,0,0,0,0,0,0,0,0,0,
542,61.1,31.14,71.89,-22.4,17.31,18.99,43.68,-25.32,27.81,11.08,31.58,20.37,31.09,22.02,34.07,24.84,0,0,0,0,0,0,0,0,0,0,0,0,0,0,0,0,
543,-1.446,-9.177,41.82,-23.99,50.01,24.31,38.48,-24.83,51.89,18.02,29.69,29.02,34.35,23.17,28.26,18.73,0,0,0,0,0,0,0,0,0,0,0,0,0,0,0,0,
544,3.765,22.33,56.32,-30.54,43.6,13.43,38.08,-20.4,32.16,15.24,20.67,42.71,25.46,21.39,19.36,15.04,0,0,0,0,0,0,0,0,0,0,0,0,0,0,0,0,
545,14.42,28.77,28.22,-45.88,23.67,44.45,59.94,-23.79,22.84,13.63,29.18,28.29,34.05,28.01,30.17,24.21,0,0,0,0,0,0,0,0,0,0,0,0,0,0,0,0,
546,3.314,-7.629,37.52,-33.87,55.58,67.98,61.51,-29.02,51.83,26.52,35.38,20.4,43.33,34.29,39.58,27.67,0,0,0,0,0,0,0,0,0,0,0,0,0,0,0,0,
547,48.6,-1.228,93.78,-7.074,59.29,30.35,47.85,-19.75,52.27,29.42,28.03,33.21,34.54,28.6,28.84,16.71,0,0,0,0,0,0,0,0,0,0,0,0,0,0,0,0,
548,32.28,8.168,63.57,-20.96,14.58,10.1,51.93,-7.99,36.15,18.05,24.77,33.04,29.37,22.79,23.11,14.43,0,0,0,0,0,0,0,0,0,0,0,0,0,0,0,0,
549,-33.72,3.426,25.94,-44.81,32.89,30.05,53.91,-16.19,45.73,16.76,26.95,26.12,35.48,27.26,32.49,27.7,0,0,0,0,0,0,0,0,0,0,0,0,0,0,0,0,
550,-1.794,7.897,45.36,-34.73,73.58,36.56,54.17,-26.86,50.84,23.02,31.48,36.1,38.32,32.86,36.85,34.21,0,0,0,0,0,0,0,0,0,0,0,0,0,0,0,0,
551,11.61,-14.34,22.47,-35.8,48.44,39.38,63.71,-19.17,46.85,24.38,37.03,38.92,38.92,33.25,38.21,33.34,0,0,0,0,0,0,0,0,0,0,0,0,0,0,0,0,
552,-31.73,-5.998,22.21,-45.74,27.2,37.41,50.78,-16.03,51.36,25.51,34.72,26.7,39.48,32.47,43.92,36.46,0,0,0,0,0,0,0,0,0,0,0,0,0,0,0,0,
553,21.86,49.02,97.9,-23.92,34.76,19.53,32.13,-22.2,42.15,27.72,31.95,39.19,35.09,33.81,40.85,34.64,0,0,0,0,0,0,0,0,0,0,0,0,0,0,0,0,
554,60.92,16.06,90.66,-18.57,37.96,30.91,51.31,-14.82,29.92,31.1,36.78,57.9,33.84,35.81,32.11,29.53,0,0,0,0,0,0,0,0,0,0,0,0,0,0,0,0,
555,-18.13,-41.99,3.805,-43.5,53.01,47.91,69.98,-10.01,44.74,33.25,36.75,33.73,38.27,31.08,33.19,31.57,0,0,0,0,0,0,0,0,0,0,0,0,0,0,0,0,
556,-25.6,8.194,19.78,-41.54,44.34,24.71,55.49,-20.08,56.5,23.12,33.32,10.2,39.0,23.23,39.11,34.93,0,0,0,0,0,0,0,0,0,0,0,0,0,0,0,0,
557,48.5,30.32,106.8,-27.59,16.63,26.35,45.6,-20.26,45.84,13.5,35.74,26.59,39.39,26.26,40.28,36.69,0,0,0,0,0,0,0,0,0,0,0,0,0,0,0,0,
558,43.78,-17.17,97.69,-28.72,35.48,58.74,52.03,-11.09,46.26,25.14,38.48,39.31,44.02,33.93,39.7,39.11,0,0,0,0,0,0,0,0,0,0,0,0,0,0,0,0,
559,18.48,19.47,25.26,-16.83,51.24,46.21,53.89,-10.85,58.46,37.51,44.31,35.35,45.35,32.96,41.81,40.48,0,0,0,0,0,0,0,0,0,0,0,0,0,0,0,0,
560,32.71,66.05,28.93,-3.738,37.45,23.03,55.39,-16.05,51.4,28.08,48.15,33.03,38.5,27.66,43.17,40.35,0,0,0,0,0,0,0,0,0,0,0,0,0,0,0,0,
561,17.3,6.176,71.86,-19.65,46.46,32.71,59.93,-15.38,34.68,16.29,37.45,32.44,31.48,25.11,40.51,37.27,0,0,0,0,0,0,0,0,0,0,0,0,0,0,0,0,
562,3.036,-22.26,51.1,-30.65,47.57,31.53,56.37,-6.993,35.84,19.3,32.29,40.87,35.37,26.94,39.35,34.2,0,0,0,0,0,0,0,0,0,0,0,0,0,0,0,0,
563,24.77,35.51,25.0,-10.55,39.4,23.39,49.13,-2.745,45.73,24.93,39.48,43.8,40.9,28.6,40.96,34.06,0,0,0,0,0,0,0,0,0,0,0,0,0,0,0,0,
564,30.19,42.1,56.08,-3.566,56.43,40.82,48.57,-4.573,43.25,25.07,36.11,28.8,35.02,26.11,39.75,32.75,0,0,0,0,0,0,0,0,0,0,0,0,0,0,0,0,
565,35.28,-2.608,77.24,-25.57,44.12,56.74,48.8,-2.16,32.35,26.27,29.41,28.11,29.09,26.46,37.51,31.69,0,0,0,0,0,0,0,0,0,0,0,0,0,0,0,0,
566,52.7,2.38,65.86,-27.47,21.44,46.9,47.8,-1.181,26.13,28.22,33.02,42.48,31.23,30.41,37.66,33.85,0,0,0,0,0,0,0,0,0,0,0,0,0,0,0,0,
567,24.07,24.68,49.45,-8.955,51.0,31.06,54.63,-2.87,33.11,25.85,39.9,40.74,34.71,30.98,38.97,36.45,0,0,0,0,0,0,0,0,0,0,0,0,0,0,0,0,
568,-18.66,18.32,14.15,-10.17,55.62,28.33,59.58,-4.078,47.09,21.28,42.97,31.44,34.41,27.87,38.63,36.96,0,0,0,0,0,0,0,0,0,0,0,0,0,0,0,0,
569,0.9757,22.27,9.385,-24.41,4.541,31.1,49.52,-11.46,40.55,16.78,33.82,35.02,26.82,22.25,34.3,33.54,0,0,0,0,0,0,0,0,0,0,0,0,0,0,0,0,
570,37.73,20.53,67.48,-33.76,-5.383,31.2,42.38,-11.78,18.12,13.08,24.87,42.62,21.04,19.03,31.86,29.66,0,0,0,0,0,0,0,0,0,0,0,0,0,0,0,0,
571,28.95,-4.519,76.08,-25.27,34.32,29.62,49.32,-6.541,20.22,13.59,33.18,36.52,25.61,21.88,35.02,30.2,0,0,0,0,0,0,0,0,0,0,0,0,0,0,0,0,
572,17.14,2.066,19.01,-1.39,48.89,20.56,52.16,-18.4,36.43,17.43,38.21,25.88,28.16,23.3,34.95,31.54,0,0,0,0,0,0,0,0,0,0,0,0,0,0,0,0,
573,26.4,16.03,18.72,-9.23,24.15,12.14,48.13,-24.59,29.79,17.01,30.78,28.23,24.56,20.27,30.77,30.69,0,0,0,0,0,0,0,0,0,0,0,0,0,0,0,0,
574,10.05,-2.821,53.32,-32.55,2.567,14.21,48.41,-13.84,16.35,8.958,30.04,32.72,23.94,18.61,32.0,32.49,0,0,0,0,0,0,0,0,0,0,0,0,0,0,0,0,
575,-15.59,3.951,39.04,-15.16,10.06,13.15,47.39,-15.65,16.9,2.88,34.84,34.69,25.62,20.48,36.83,38.81,0,0,0,0,0,0,0,0,0,0,0,0,0,0,0,0,
576,-1.786,18.49,17.66,-13.81,20.87,12.48,42.58,-17.06,16.14,5.027,33.17,39.04,23.79,20.33,35.45,39.39,0,0,0,0,0,0,0,0,0,0,0,0,0,0,0,0,
577,13.73,-18.65,16.61,-52.96,16.58,18.46,43.04,-8.024,8.752,5.545,27.4,32.56,18.0,16.08,29.86,31.81,0,0,0,0,0,0,0,0,0,0,0,0,0,0,0,0,
578,-4.93,-37.01,5.467,-45.76,21.25,12.77,49.09,-15.31,8.08,4.779,26.34,25.84,15.86,17.19,29.71,30.36,0,0,0,0,0,0,0,0,0,0,0,0,0,0,0,0,
579,-22.19,-2.675,-3.058,-11.5,21.16,1.56,50.3,-23.69,14.72,9.614,28.85,32.17,18.24,20.86,32.92,33.42,0,0,0,0,0,0,0,0,0,0,0,0,0,0,0,0,
580,-5.516,10.66,12.77,-22.02,-8.84,2.88,37.67,-14.33,15.34,9.006,29.61,30.36,18.83,17.19,34.4,31.96,0,0,0,0,0,0,0,0,0,0,0,0,0,0,0,0,
581,26.57,-7.261,30.7,-42.17,-12.74,13.63,27.01,-9.352,11.08,4.622,32.46,26.86,22.96,15.71,36.63,33.12,0,0,0,0,0,0,0,0,0,0,0,0,0,0,0,0,
582,12.01,-26.18,7.51,-48.2,27.7,26.51,39.47,-12.06,15.0,7.47,30.88,34.61,26.46,16.49,35.35,33.45,0,0,0,0,0,0,0,0,0,0,0,0,0,0,0,0,
583,-37.32,-36.41,-30.52,-47.22,25.25,21.04,49.62,-14.55,18.34,5.232,22.1,30.51,20.37,11.77,31.06,28.68,0,0,0,0,0,0,0,0,0,0,0,0,0,0,0,0,
584,-23.94,-13.57,-4.336,-22.78,-20.43,-6.668,38.8,-20.51,11.49,0.0378,25.5,24.31,18.44,13.58,33.69,29.7,0,0,0,0,0,0,0,0,0,0,0,0,0,0,0,0,
585,14.41,12.61,26.21,-14.23,-16.93,-17.6,43.42,-20.22,9.789,4.995,34.08,36.61,20.29,18.92,35.85,31.48,0,0,0,0,0,0,0,0,0,0,0,0,0,0,0,0,
586,-7.915,-14.4,-23.37,-41.6,16.36,-1.576,58.46,-11.78,14.88,4.107,27.89,39.41,14.31,14.53,31.03,26.9,0,0,0,0,0,0,0,0,0,0,0,0,0,0,0,0,
587,-8.965,-39.56,-27.25,-44.9,8.872,10.23,38.65,-11.32,11.36,-4.353,20.5,24.45,13.46,10.69,29.88,24.05,0,0,0,0,0,0,0,0,0,0,0,0,0,0,0,0,
588,25.06,-13.41,50.89,-36.11,-9.209,11.91,16.66,-17.11,3.559,-1.606,22.69,18.84,18.78,12.32,31.42,22.8,0,0,0,0,0,0,0,0,0,0,0,0,0,0,0,0,
589,-9.754,-12.02,25.18,-53.58,5.985,16.7,37.49,-14.58,5.963,5.586,27.51,25.19,17.86,13.52,29.67,21.76,0,0,0,0,0,0,0,0,0,0,0,0,0,0,0,0,
590,-49.77,-38.15,-73.98,-47.26,24.0,15.99,57.85,-8.378,17.87,7.792,28.06,32.22,16.26,15.75,27.72,23.22,0,0,0,0,0,0,0,0,0,0,0,0,0,0,0,0,
591,-11.68,-0.6435,-59.92,-18.07,-0.6307,-3.726,41.37,-12.59,21.84,6.278,19.39,33.13,14.67,15.77,25.72,23.63,0,0,0,0,0,0,0,0,0,0,0,0,0,0,0,0,
592,24.62,38.39,14.21,-21.86,-46.98,-21.57,15.59,-18.77,9.656,0.0672,13.42,26.6,11.4,14.2,27.16,25.84,0,0,0,0,0,0,0,0,0,0,0,0,0,0,0,0,
593,10.87,-15.98,32.62,-33.87,-39.79,-4.487,7.687,-13.46,2.768,1.711,20.28,27.09,16.26,20.66,32.5,33.04,0,0,0,0,0,0,0,0,0,0,0,0,0,0,0,0,
594,-26.08,-62.25,-1.63,-35.18,16.98,31.93,26.27,-7.751,15.96,16.07,26.65,34.41,24.71,29.0,32.28,37.22,0,0,0,0,0,0,0,0,0,0,0,0,0,0,0,0,
595,-45.51,-33.42,-57.0,-47.72,29.08,39.4,48.13,-8.344,29.24,22.34,25.58,31.76,24.57,25.6,29.25,35.08,0,0,0,0,0,0,0,0,0,0,0,0,0,0,0,0,
596,-9.299,-18.82,-48.74,-43.68,-9.505,14.11,32.22,-8.713,25.64,14.08,23.39,28.79,19.59,18.33,29.33,32.78,0,0,0,0,0,0,0,0,0,0,0,0,0,0,0,0,
597,21.17,-17.74,20.29,-17.49,-18.39,-1.409,8.454,-13.42,16.89,5.763,22.7,35.1,17.59,19.95,28.32,32.01,0,0,0,0,0,0,0,0,0,0,0,0,0,0,0,0,
598,-5.502,17.44,16.77,-12.31,9.75,7.894,26.55,-18.38,18.16,5.653,25.48,34.38,19.42,21.76,28.83,31.02,0,0,0,0,0,0,0,0,0,0,0,0,0,0,0,0,
599,-15.52,16.26,-29.96,-23.38,27.48,16.75,45.9,-15.22,24.04,12.42,30.67,25.57,21.85,16.7,30.56,31.51,0,0,0,0,0,0,0,0,0,0,0,0,0,0,0,0,
600,7.389,-24.67,-23.78,-23.44,19.22,14.16,35.7,-16.41,22.43,15.88,30.91,21.58,21.92,13.86,27.39,31.14,0,0,0,0,0,0,0,0,0,0,0,0,0,0,0,0,
601,16.42,-8.563,-8.795,-15.37,-6.456,11.63,33.84,-21.53,17.4,8.634,26.94,21.93,22.63,15.23,27.22,28.28,0,0,0,0,0,0,0,0,0,0,0,0,0,0,0,0,
602,24.54,28.29,3.541,-13.95,-21.78,16.61,39.72,-18.12,17.4,3.806,27.68,25.57,26.11,18.05,32.3,30.16,0,0,0,0,0,0,0,0,0,0,0,0,0,0,0,0,
603,22.82,12.73,17.22,-19.73,-0.8501,25.38,34.72,-16.68,22.02,13.1,30.22,32.46,28.07,24.2,32.26,35.81,0,0,0,0,0,0,0,0,0,0,0,0,0,0,0,0,
604,-1.029,1.184,-6.469,-15.75,28.79,25.9,33.13,-20.09,30.37,22.82,28.44,35.61,29.28,29.17,30.98,37.39,0,0,0,0,0,0,0,0,0,0,0,0,0,0,0,0,
605,4.178,13.65,-10.43,-10.46,20.16,18.23,29.82,-13.39,33.59,20.76,28.98,35.55,31.41,29.55,33.25,35.61,0,0,0,0,0,0,0,0,0,0,0,0,0,0,0,0,
606,44.83,12.35,29.17,-14.32,-11.38,16.39,24.9,-4.148,23.6,18.01,32.51,36.29,30.5,28.65,32.3,32.11,0,0,0,0,0,0,0,0,0,0,0,0,0,0,0,0,
607,55.32,23.58,31.13,-6.566,-4.314,22.73,31.7,-8.027,20.22,22.14,31.98,32.7,30.22,26.75,28.51,28.83,0,0,0,0,0,0,0,0,0,0,0,0,0,0,0,0,
608,16.8,31.49,1.393,-5.595,43.25,33.92,32.43,-14.02,33.75,24.57,29.87,31.54,32.85,26.74,26.22,29.05,0,0,0,0,0,0,0,0,0,0,0,0,0,0,0,0,
609,3.401,2.207,-8.436,-21.72,57.42,46.62,34.5,-8.806,39.31,24.91,31.96,40.12,33.56,31.97,27.77,32.04,0,0,0,0,0,0,0,0,0,0,0,0,0,0,0,0,
610,43.88,3.414,-2.795,-5.705,22.64,48.14,52.58,-3.202,35.14,29.21,37.04,39.21,36.17,33.65,32.29,36.02,0,0,0,0,0,0,0,0,0,0,0,0,0,0,0,0,
611,56.32,50.49,19.6,25.76,10.98,36.3,44.47,-4.376,38.08,31.57,35.28,33.98,37.34,29.76,30.87,35.81,0,0,0,0,0,0,0,0,0,0,0,0,0,0,0,0,
612,43.42,77.87,44.33,27.56,38.92,31.11,17.54,-2.168,37.25,29.81,28.04,45.29,32.05,33.98,27.0,33.61,0,0,0,0,0,0,0,0,0,0,0,0,0,0,0,0,
613,78.42,90.87,35.7,36.1,57.52,44.69,28.68,0.3944,32.81,30.92,32.41,44.34,34.71,39.26,30.67,36.6,0,0,0,0,0,0,0,0,0,0,0,0,0,0,0,0,
614,108.6,113.2,25.86,65.23,59.39,59.46,46.41,-2.744,36.07,31.09,41.61,26.2,41.09,28.65,30.48,34.31,0,0,0,0,0,0,0,0,0,0,0,0,0,0,0,0,
615,93.27,122.6,57.22,75.95,63.1,70.77,31.55,4.801,34.42,29.91,37.73,29.68,33.83,22.14,23.28,25.93,0,0,0,0,0,0,0,0,0,0,0,0,0,0,0,0,
616,90.7,103.8,84.97,69.01,74.3,98.29,24.42,23.56,32.9,40.28,29.83,43.71,26.49,34.81,23.39,26.61,0,0,0,0,0,0,0,0,0,0,0,0,0,0,0,0,
617,102.1,87.16,85.57,72.32,95.27,112.2,32.62,27.87,41.0,54.46,27.75,49.01,29.35,42.28,24.9,27.77,0,0,0,0,0,0,0,0,0,0,0,0,0,0,0,0,
618,103.9,109.1,96.29,87.93,110.0,85.99,32.35,18.5,43.26,53.05,31.5,46.83,33.85,38.47,21.37,23.25,0,0,0,0,0,0,0,0,0,0,0,0,0,0,0,0,
619,97.84,118.8,79.88,92.81,107.4,80.93,45.31,19.68,50.76,48.69,40.51,30.83,39.55,39.52,23.42,25.63,0,0,0,0,0,0,0,0,0,0,0,0,0,0,0,0,
620,78.09,80.21,22.46,86.6,105.0,110.6,65.97,31.79,68.45,60.04,43.34,34.01,43.31,46.13,27.53,29.28,0,0,0,0,0,0,0,0,0,0,0,0,0,0,0,0,
621,78.59,80.23,34.86,94.03,102.5,114.1,52.92,37.2,68.44,72.69,39.06,59.15,44.87,53.1,27.0,27.81,0,0,0,0,0,0,0,0,0,0,0,0,0,0,0,0,
622,107.4,120.3,103.7,100.8,85.67,105.2,29.9,34.84,66.92,69.96,41.09,44.61,50.85,50.57,27.72,29.11,0,0,0,0,0,0,0,0,0,0,0,0,0,0,0,0,
623,107.4,106.9,98.18,88.61,68.46,109.2,39.23,33.71,78.83,58.98,44.6,11.73,51.94,38.79,27.76,29.02,0,0,0,0,0,0,0,0,0,0,0,0,0,0,0,0,
624,87.94,86.62,56.45,91.42,64.42,100.2,54.3,31.25,69.82,53.09,41.81,19.72,44.35,38.52,24.94,23.96,0,0,0,0,0,0,0,0,0,0,0,0,0,0,0,0,
625,87.2,117.8,57.21,107.4,61.23,96.73,42.97,28.64,53.4,57.23,40.2,43.34,41.39,46.52,24.43,23.43,0,0,0,0,0,0,0,0,0,0,0,0,0,0,0,0,
626,89.06,122.0,65.86,85.33,53.32,113.8,22.95,34.83,62.18,66.18,37.93,44.29,43.9,49.28,25.25,28.68,0,0,0,0,0,0,0,0,0,0,0,0,0,0,0,0,
627,96.72,82.02,85.35,47.67,58.09,115.4,25.98,41.36,68.85,73.01,35.69,10.28,48.25,55.49,26.65,32.29,0,0,0,0,0,0,0,0,0,0,0,0,0,0,0,0,
628,95.91,62.33,85.12,52.19,80.3,104.0,52.51,37.47,67.74,73.76,47.62,-35.15,56.2,56.06,29.04,31.54,0,0,0,0,0,0,0,0,0,0,0,0,0,0,0,0,
629,53.15,52.97,1.774,74.73,79.14,99.12,57.25,31.55,78.72,64.8,56.12,-32.79,57.78,41.09,30.13,27.82,0,0,0,0,0,0,0,0,0,0,0,0,0,0,0,0,
630,39.39,55.14,-32.37,84.06,41.14,88.09,29.91,29.68,75.43,55.06,42.9,-0.5174,47.99,34.3,30.88,24.31,0,0,0,0,0,0,0,0,0,0,0,0,0,0,0,0,
631,81.3,101.6,51.57,92.29,35.34,76.77,24.74,30.07,52.32,55.5,40.0,-3.82,39.86,38.74,28.88,24.37,0,0,0,0,0,0,0,0,0,0,0,0,0,0,0,0,
632,80.53,106.8,64.36,85.69,67.96,85.93,35.2,32.19,44.24,57.77,49.25,-24.04,38.54,35.57,25.4,27.84,0,0,0,0,0,0,0,0,0,0,0,0,0,0,0,0,
633,47.38,24.69,-17.71,64.58,55.77,99.91,25.12,32.12,50.46,59.21,43.22,-20.86,41.39,34.47,29.04,32.38,0,0,0,0,0,0,0,0,0,0,0,0,0,0,0,0,
634,33.69,-3.643,-34.34,57.58,21.27,90.39,26.78,29.65,60.71,64.48,43.44,-7.519,47.69,42.78,34.76,36.23,0,0,0,0,0,0,0,0,0,0,0,0,0,0,0,0,
635,12.25,49.94,8.281,46.37,31.44,76.84,32.84,34.05,70.46,64.46,49.28,-1.653,48.3,44.66,35.22,36.54,0,0,0,0,0,0,0,0,0,0,0,0,0,0,0,0,
636,0.7,19.21,17.97,18.75,54.53,95.12,21.89,48.01,59.49,61.02,40.84,-3.738,41.87,39.08,29.57,29.82,0,0,0,0,0,0,0,0,0,0,0,0,0,0,0,0,
637,-26.95,-81.63,-32.97,14.76,57.74,108.8,37.2,53.68,46.13,59.88,44.7,-6.183,37.45,35.03,15.74,18.6,0,0,0,0,0,0,0,0,0,0,0,0,0,0,0,0,
638,-67.44,-57.55,-76.28,43.85,23.85,66.97,46.24,36.41,51.91,53.98,49.02,-1.899,32.57,32.54,11.03,14.31,0,0,0,0,0,0,0,0,0,0,0,0,0,0,0,0,
639,-5.642,37.98,-35.22,52.01,-23.32,29.46,16.77,20.05,47.43,52.94,35.82,-4.109,29.91,31.96,23.13,18.75,0,0,0,0,0,0,0,0,0,0,0,0,0,0,0,0,
640,19.11,-17.69,-23.09,0.4439,6.258,64.19,18.44,28.71,39.51,56.31,39.39,-23.67,32.88,27.53,24.12,17.06,0,0,0,0,0,0,0,0,0,0,0,0,0,0,0,0,
641,-108.9,-119.0,-95.58,-46.49,46.26,93.08,21.26,38.08,46.92,44.22,39.07,-30.58,29.27,19.25,13.75,9.711,0,0,0,0,0,0,0,0,0,0,0,0,0,0,0,0,
642,-118.2,-63.56,-91.76,-15.77,-3.972,51.65,-14.79,27.74,38.54,36.93,19.02,-8.254,24.44,23.88,11.59,8.615,0,0,0,0,0,0,0,0,0,0,0,0,0,0,0,0,
643,-16.85,-13.54,-41.22,25.57,-35.5,17.33,-7.163,15.26,23.3,46.77,21.64,-5.986,23.06,28.57,5.316,3.22,0,0,0,0,0,0,0,0,0,0,0,0,0,0,0,0,
644,-57.73,-66.77,-73.26,5.13,-28.75,11.12,8.973,5.902,18.57,33.56,22.49,-34.58,8.352,9.123,-6.894,-10.29,0,0,0,0,0,0,0,0,0,0,0,0,0,0,0,0,
645,-121.7,-72.18,-100.2,-28.26,-51.69,-1.165,-26.62,-3.882,2.605,5.298,5.498,-32.46,-3.044,-6.274,-11.19,-13.61,0,0,0,0,0,0,0,0,0,0,0,0,0,0,0,0,
646,-121.3,-64.35,-100.5,-46.19,-38.4,21.35,-20.37,6.809,2.364,10.14,18.02,-12.58,7.07,1.625,-14.42,-9.337,0,0,0,0,0,0,0,0,0,0,0,0,0,0,0,0,
647,-129.3,-73.79,-135.5,-78.87,-36.22,39.22,16.49,33.81,20.48,24.58,32.65,-28.8,9.605,2.104,-17.27,-11.87,0,0,0,0,0,0,0,0,0,0,0,0,0,0,0,0,
648,-75.24,-12.42,-126.1,-104.6,-75.34,4.737,2.727,32.02,8.908,14.97,15.53,-39.51,0.5589,-5.967,-15.08,-17.1,0,0,0,0,0,0,0,0,0,0,0,0,0,0,0,0,
649,-21.98,30.87,-89.35,-73.7,-31.98,-0.1207,-7.5,4.274,2.842,11.17,11.24,-22.24,0.9622,-3.34,-19.71,-19.11,0,0,0,0,0,0,0,0,0,0,0,0,0,0,0,0,
650,-41.16,24.06,-118.2,-26.14,-25.47,-3.063,-6.391,0.9168,16.81,16.76,16.18,-33.02,-5.062,-6.928,-29.53,-19.84,0,0,0,0,0,0,0,0,0,0,0,0,0,0,0,0,
651,-31.38,6.744,-108.5,-46.93,-119.8,-46.19,-33.09,16.78,-10.46,5.085,-4.874,-53.58,-21.55,-20.78,-28.32,-22.03,0,0,0,0,0,0,0,0,0,0,0,0,0,0,0,0,
652,-57.07,-76.98,-22.18,-63.82,-71.23,-37.7,-33.78,12.59,-41.01,-5.761,-14.41,-34.06,-22.26,-21.37,-20.29,-23.0,0,0,0,0,0,0,0,0,0,0,0,0,0,0,0,0,
653,-112.5,-99.62,-28.06,22.65,46.83,-29.83,-9.658,-2.642,-21.85,-4.646,11.62,-12.89,-9.966,-10.28,-18.93,-16.62,0,0,0,0,0,0,0,0,0,0,0,0,0,0,0,0,
654,-41.84,-25.03,-98.04,52.51,15.54,-62.24,-10.97,-2.707,-6.986,-3.656,35.29,-10.21,-1.925,-3.749,-22.63,-11.35,0,0,0,0,0,0,0,0,0,0,0,0,0,0,0,0,
655,3.93,-50.58,-60.19,-61.47,-17.26,-26.61,-10.3,11.26,-11.4,4.85,45.11,-3.034,0.412,-5.747,-25.98,-16.73,0,0,0,0,0,0,0,0,0,0,0,0,0,0,0,0,
656,-75.57,-55.74,-11.92,-93.49,20.99,-6.608,-2.97,19.23,-5.355,5.439,30.28,-15.03,-7.068,-13.52,-24.61,-20.92,0,0,0,0,0,0,0,0,0,0,0,0,0,0,0,0,
657,-75.5,51.63,-65.04,-3.677,20.82,-66.89,-21.36,7.681,-9.796,-9.032,-32.1,-31.88,-20.8,-15.35,-16.48,-19.38,0,0,0,0,0,0,0,0,0,0,0,0,0,0,0,0,T1
658,-17.9,30.79,-58.09,22.65,29.37,-66.7,-40.63,-3.916,-28.06,-0.4884,-65.52,-12.71,-21.17,-5.675,-14.47,-20.18,0,0,0,0,0,0,0,0,0,0,0,0,0,0,0,0,
659,-35.17,-61.91,21.44,-13.44,60.42,-14.19,-27.51,6.392,-29.68,17.17,-14.39,-11.5,-8.162,1.38,-20.32,-17.03,0,0,0,0,0,0,0,0,0,0,0,0,0,0,0,0,
660,-29.98,-55.24,-13.42,-61.91,39.61,19.78,-5.36,26.93,-17.67,10.17,6.86,-33.56,-5.066,-1.615,-19.25,-15.03,0,0,0,0,0,0,0,0,0,0,0,0,0,0,0,0,
661,42.11,-19.71,-61.07,-77.15,10.47,15.71,-17.41,33.66,-19.61,0.6263,-44.46,-15.41,-18.8,-11.84,-20.93,-29.62,0,0,0,0,0,0,0,0,0,0,0,0,0,0,0,0,
662,99.29,52.84,25.62,31.6,25.61,-74.51,-38.93,19.0,-39.68,-9.276,-49.48,-12.69,-25.73,-24.53,-29.41,-38.05,0,0,0,0,0,0,0,0,0,0,0,0,0,0,0,0,
663,88.84,84.2,33.48,90.39,49.96,-92.42,-15.73,16.23,-39.26,-15.36,-5.686,-38.34,-10.31,-18.91,-24.74,-24.4,0,0,0,0,0,0,0,0,0,0,0,0,0,0,0,0,
664,15.0,-25.57,-87.73,-22.57,46.32,50.32,4.619,43.06,-6.06,12.7,-6.111,-7.017,2.739,3.66,-20.05,-19.33,0,0,0,0,0,0,0,0,0,0,0,0,0,0,0,0,
665,-18.95,-42.88,-48.11,-21.29,22.79,57.06,-25.39,45.46,0.447,29.74,-30.83,10.51,-8.024,3.674,-29.35,-25.22,0,0,0,0,0,0,0,0,0,0,0,0,0,0,0,0,
666,18.97,64.6,86.29,102.4,12.79,-93.4,-43.76,22.97,-35.69,-0.8804,-36.08,-35.89,-21.43,-13.3,-28.16,-19.72,0,0,0,0,0,0,0,0,0,0,0,0,0,0,0,0,
667,22.51,61.01,29.3,39.55,17.6,-71.16,-28.07,37.79,-49.37,-14.09,-33.52,-29.7,-18.39,-8.347,-17.33,-17.32,0,0,0,0,0,0,0,0,0,0,0,0,0,0,0,0,
668,3.873,22.37,-65.27,-75.93,29.77,50.11,-15.47,54.57,-26.65,6.164,-19.06,6.251,-10.51,0.7617,-15.4,-22.38,0,0,0,0,0,0,0,0,0,0,0,0,0,0,0,0,
669,30.59,52.43,1.911,-6.961,54.11,12.65,-11.28,33.51,-17.36,5.375,-8.434,-15.69,-11.09,-9.0,-13.48,-19.18,0,0,0,0,0,0,0,0,0,0,0,0,0,0,0,0,
670,43.91,74.98,54.53,75.06,44.24,-75.0,-20.89,27.85,-31.01,-11.18,-24.34,-22.24,-17.57,-12.4,-15.61,-19.91,0,0,0,0,0,0,0,0,0,0,0,0,0,0,0,0,
671,1.457,92.91,-2.668,42.86,-5.625,-56.77,-23.28,39.93,-36.25,-12.53,-23.57,6.774,-18.52,-3.908,-29.65,-26.71,0,0,0,0,0,0,0,0,0,0,0,0,0,0,0,0,
672,-32.1,58.73,-28.49,-8.361,-7.314,5.106,-3.63,40.23,-28.0,-1.939,-7.205,-1.563,-16.32,-3.777,-29.09,-23.38,0,0,0,0,0,0,0,0,0,0,0,0,0,0,0,0,
673,14.67,-5.827,26.73,-13.86,22.86,14.86,-16.82,48.19,-32.71,7.783,-28.35,-22.31,-22.02,-10.91,-13.57,-20.11,0,0,0,0,0,0,0,0,0,0,0,0,0,0,0,0,
674,57.35,57.96,51.17,25.2,6.153,-33.01,-38.17,57.45,-48.38,-0.9648,-43.85,-12.12,-25.41,-16.09,-15.64,-24.46,0,0,0,0,0,0,0,0,0,0,0,0,0,0,0,0,
675,-34.79,110.4,-28.2,22.37,3.407,-37.21,-3.794,61.94,-39.94,-17.16,-22.55,-0.0279,-19.32,-13.63,-20.3,-21.16,0,0,0,0,0,0,0,0,0,0,0,0,0,0,0,0,
676,-92.67,33.56,-68.68,-37.26,23.23,11.43,4.244,70.65,-18.42,-6.724,-25.75,-2.78,-16.77,-6.092,-8.698,-10.43,0,0,0,0,0,0,0,0,0,0,0,0,0,0,0,0,
677,41.84,62.91,37.09,-6.546,-45.38,-23.67,-44.46,58.76,-25.25,5.433,-37.87,2.949,-16.26,-6.187,-14.43,-9.747,0,0,0,0,0,0,0,0,0,0,0,0,0,0,0,0,
678,104.8,143.4,81.15,61.74,-116.2,-71.91,-35.66,48.38,-40.77,-8.373,-16.61,20.79,-11.98,-6.804,-32.77,-17.52,0,0,0,0,0,0,0,0,0,0,0,0,0,0,0,0,
679,-21.05,51.84,-29.33,12.86,-54.44,-1.732,12.29,65.91,-32.77,-9.283,-10.44,12.75,-14.14,-2.821,-23.47,-16.13,0,0,0,0,0,0,0,0,0,0,0,0,0,0,0,0,
680,-65.63,-24.55,-61.89,-24.6,1.646,30.84,-3.593,60.58,-30.6,1.913,-27.25,-16.24,-23.6,-13.1,-10.96,-13.65,0,0,0,0,0,0,0,0,0,0,0,0,0,0,0,0,
681,20.67,27.69,25.85,32.82,-41.03,-47.68,-35.03,42.29,-48.97,-11.37,-24.12,-11.83,-27.61,-24.47,-19.66,-22.38,0,0,0,0,0,0,0,0,0,0,0,0,0,0,0,0,
682,61.48,77.87,57.91,72.72,-50.45,-97.47,-20.07,47.31,-53.11,-23.72,-17.24,-0.9828,-20.68,-16.02,-13.91,-20.0,0,0,0,0,0,0,0,0,0,0,0,0,0,0,0,0,
683,23.93,114.6,18.51,93.23,-8.428,-84.39,-9.603,35.89,-39.18,-18.6,-26.67,-19.9,-11.37,-9.847,6.974,-5.85,0,0,0,0,0,0,0,0,0,0,0,0,0,0,0,0,
684,-45.37,64.97,-19.84,70.11,-12.23,-14.64,-17.99,35.02,-31.37,-15.06,-30.32,-9.905,-6.927,-7.082,5.486,-7.556,0,0,0,0,0,0,0,0,0,0,0,0,0,0,0,0,
685,-89.91,-47.5,-35.36,-36.4,-44.84,58.27,-7.26,76.58,-27.59,-3.343,-19.87,16.06,-2.535,5.487,-8.443,-12.82,0,0,0,0,0,0,0,0,0,0,0,0,0,0,0,0,
686,-72.12,18.16,-30.81,-68.77,-37.58,15.61,-1.96,77.66,-23.46,8.941,-14.41,-0.5273,-1.04,5.623,-8.754,-8.171,0,0,0,0,0,0,0,0,0,0,0,0,0,0,0,0,
687,-18.23,140.3,-13.54,24.61,-8.504,-62.66,-25.59,38.77,-29.88,1.37,-21.32,-7.5,-9.41,-3.145,-7.334,-12.4,0,0,0,0,0,0,0,0,0,0,0,0,0,0,0,0,
688,43.24,86.67,32.55,98.1,-34.42,-68.39,-32.29,35.3,-45.34,-3.701,-25.26,-2.583,-16.88,-2.775,-14.33,-20.7,0,0,0,0,0,0,0,0,0,0,0,0,0,0,0,0,
689,40.98,23.27,61.13,92.79,-70.74,-58.03,-11.63,43.25,-50.44,-2.331,-25.25,-38.31,-17.4,-12.32,-16.67,-20.26,0,0,0,0,0,0,0,0,0,0,0,0,0,0,0,0,
690,-41.88,26.71,-2.975,26.04,-21.17,-35.36,-7.091,42.84,-36.71,-13.66,-33.37,-51.32,-19.61,-26.12,-12.94,-20.85,0,0,0,0,0,0,0,0,0,0,0,0,0,0,0,0,
691,-56.42,-4.758,-62.23,-35.24,6.904,-2.045,-18.98,53.8,-27.73,-19.03,-40.34,-20.78,-22.22,-20.16,-11.79,-21.04,0,0,0,0,0,0,0,0,0,0,0,0,0,0,0,0,
692,11.12,-7.263,3.68,-8.05,-44.89,-17.4,-30.17,48.93,-36.84,-8.762,-39.91,-22.33,-20.59,-13.5,-12.01,-17.08,0,0,0,0,0,0,0,0,0,0,0,0,0,0,0,0,
693,31.58,38.34,90.82,43.18,-39.18,-44.06,-31.88,27.62,-42.62,-9.403,-35.03,-43.42,-17.86,-20.79,-15.54,-19.69,0,0,0,0,0,0,0,0,0,0,0,0,0,0,0,0,
694,23.83,44.71,47.49,19.91,-0.9542,-23.67,8.819,32.29,-36.33,-20.22,-12.44,-39.55,-12.79,-22.29,-24.23,-24.92,0,0,0,0,0,0,0,0,0,0,0,0,0,0,0,0,
695,4.092,22.45,-53.66,-17.49,6.47,6.978,46.42,49.55,-19.59,-16.55,0.9868,-27.54,-10.06,-14.45,-26.02,-22.62,0,0,0,0,0,0,0,0,0,0,0,0,0,0,0,0,
696,-18.19,54.19,-17.22,25.77,21.58,-39.88,-7.64,37.56,-7.167,-13.44,-37.03,-23.09,-21.43,-15.2,-19.86,-20.78,0,0,0,0,0,0,0,0,0,0,0,0,0,0,0,0,
697,36.87,101.0,102.5,42.8,-26.31,-98.45,-60.18,26.24,-32.36,-26.93,-59.07,-23.03,-28.6,-16.89,-17.54,-19.85,0,0,0,0,0,0,0,0,0,0,0,0,0,0,0,0,
698,37.06,2.602,70.73,-75.5,-58.75,0.6731,-4.114,48.89,-49.36,-17.79,-18.33,-24.02,-12.26,-4.131,-10.16,-9.358,0,0,0,0,0,0,0,0,0,0,0,0,0,0,0,0,
699,-62.91,-102.4,-35.52,-101.8,25.04,70.48,35.93,43.42,-11.85,8.057,-14.54,-28.32,-5.643,-2.118,1.432,-3.797,0,0,0,0,0,0,0,0,0,0,0,0,0,0,0,0,
700,-21.81,21.15,1.974,47.01,2.068,-79.67,-11.82,9.336,-9.06,-12.15,-48.21,-22.96,-22.33,-16.36,-15.12,-17.1,0,0,0,0,0,0,0,0,0,0,0,0,0,0,0,0,
701,56.99,100.7,78.62,47.89,-81.76,-117.4,-28.22,32.88,-56.41,-41.43,-17.3,0.5533,-23.31,-10.69,-41.46,-24.73,0,0,0,0,0,0,0,0,0,0,0,0,0,0,0,0,
702,-22.2,2.531,54.23,-55.18,0.4779,26.69,9.299,56.3,-49.34,-21.09,13.07,-3.614,-11.29,-0.3044,-24.52,-13.03,0,0,0,0,0,0,0,0,0,0,0,0,0,0,0,0,
703,-49.68,46.41,1.577,10.03,30.14,17.51,23.65,15.07,-15.62,-5.988,-25.42,-36.64,-14.27,-11.48,4.714,-6.695,0,0,0,0,0,0,0,0,0,0,0,0,0,0,0,0,
704,-9.978,125.2,-14.94,54.87,-42.84,-36.78,4.501,8.182,-20.76,-17.51,-53.12,-33.95,-19.39,-14.14,-1.157,-12.95,0,0,0,0,0,0,0,0,0,0,0,0,0,0,0,0,
705,-38.32,21.99,22.04,0.4242,0.3746,6.774,-18.64,41.56,-25.92,-14.06,-44.76,-12.47,-17.44,-6.254,-13.9,-15.41,0,0,0,0,0,0,0,0,0,0,0,0,0,0,0,0,
706,-2.106,-7.919,68.54,47.84,5.832,-29.46,-15.04,38.18,-27.28,-14.36,-26.94,-13.36,-16.9,-12.03,-20.52,-17.7,0,0,0,0,0,0,0,0,0,0,0,0,0,0,0,0,
707,45.94,68.5,59.42,71.08,-67.66,-66.94,-1.311,34.65,-39.59,-26.59,-14.63,-14.67,-18.32,-15.3,-27.37,-23.26,0,0,0,0,0,0,0,0,0,0,0,0,0,0,0,0,
708,-30.2,26.71,54.66,-19.94,-5.435,-7.153,-11.63,40.83,-37.12,-18.99,-33.17,-15.4,-18.27,-5.925,-12.78,-15.79,0,0,0,0,0,0,0,0,0,0,0,0,0,0,0,0,
709,-93.52,-70.26,45.29,-37.48,60.59,17.14,-7.425,30.61,-27.85,-4.462,-37.16,-15.88,-9.651,1.28,1.161,-3.954,0,0,0,0,0,0,0,0,0,0,0,0,0,0,0,0,
710,-104.2,-78.88,-24.28,-3.895,9.094,19.94,7.697,41.76,-23.89,-2.275,-8.743,-2.974,-1.574,2.241,-11.12,-8.645,0,0,0,0,0,0,0,0,0,0,0,0,0,0,0,0,
711,-102.2,-6.522,-25.0,-12.53,4.902,28.23,-9.719,55.45,-19.81,-4.106,-13.47,-4.107,-6.472,1.36,-12.19,-12.54,0,0,0,0,0,0,0,0,0,0,0,0,0,0,0,0,
712,-48.6,35.26,42.84,11.8,35.05,-9.881,-7.826,37.19,-21.97,-5.4,-27.84,-14.54,-8.418,2.962,1.221,-5.035,0,0,0,0,0,0,0,0,0,0,0,0,0,0,0,0,
713,-7.463,-0.4035,35.43,52.91,-6.366,-38.19,9.984,30.3,-25.36,-4.482,-22.35,-6.042,-7.266,3.655,-0.8298,-5.325,0,0,0,0,0,0,0,0,0,0,0,0,0,0,0,0,
714,12.47,11.98,35.48,43.14,-41.02,-45.83,-19.86,33.89,-32.84,-6.765,-34.84,-5.054,-15.58,-1.016,-6.349,-7.516,0,0,0,0,0,0,0,0,0,0,0,0,0,0,0,0,
715,57.83,69.09,77.31,32.28,-12.56,-59.28,-29.96,23.71,-43.26,-12.88,-29.63,-10.62,-11.66,0.0436,-7.767,0.0823,0,0,0,0,0,0,0,0,0,0,0,0,0,0,0,0,
716,29.43,37.5,36.74,21.68,12.25,-29.75,8.558,34.91,-28.28,-5.055,1.177,4.147,7.017,10.81,-8.514,3.753,0,0,0,0,0,0,0,0,0,0,0,0,0,0,0,0,
717,-63.25,-41.5,-14.3,-37.33,-4.762,25.02,6.672,57.19,-4.344,14.78,-9.982,7.186,7.641,14.4,0.7007,1.793,0,0,0,0,0,0,0,0,0,0,0,0,0,0,0,0,
718,-54.59,-74.32,16.43,-40.49,-27.9,26.0,-20.32,41.71,-9.84,17.96,-35.14,-12.27,-8.822,3.075,4.203,-0.0809,0,0,0,0,0,0,0,0,0,0,0,0,0,0,0,0,
719,31.23,-26.33,49.64,66.09,-30.23,-34.84,-14.5,14.98,-30.94,-3.882,-29.45,-18.54,-19.81,-10.04,-9.629,-7.611,0,0,0,0,0,0,0,0,0,0,0,0,0,0,0,0,
720,37.87,71.75,48.16,103.0,-26.25,-78.24,-3.487,16.91,-44.5,-20.92,-24.8,-10.91,-21.32,-10.82,-17.06,-13.44,0,0,0,0,0,0,0,0,0,0,0,0,0,0,0,0,
721,-7.372,91.98,30.53,38.09,-28.69,-55.34,-2.255,27.57,-41.85,-11.46,-19.56,-0.1898,-13.43,0.0629,-10.1,-6.634,0,0,0,0,0,0,0,0,0,0,0,0,0,0,0,0,
722,8.128,41.74,16.3,27.71,-39.39,-31.61,-8.18,30.49,-29.5,1.094,-9.001,6.906,-6.073,7.259,-4.488,0.1839,0,0,0,0,0,0,0,0,0,0,0,0,0,0,0,0,
723,31.17,6.945,26.69,37.37,-40.93,-29.27,-23.86,33.61,-30.77,0.292,-20.59,-3.153,-8.872,4.106,-6.193,-2.707,0,0,0,0,0,0,0,0,0,0,0,0,0,0,0,0,
724,-9.452,-61.25,12.23,1.038,-3.167,-3.316,-13.09,32.84,-26.04,4.915,-23.06,-11.96,-4.722,2.87,-11.2,-4.211,0,0,0,0,0,0,0,0,0,0,0,0,0,0,0,0,
725,-42.11,-76.16,-27.55,-1.076,16.96,-8.417,14.32,25.47,-4.84,7.08,-5.42,-5.292,-2.319,-0.4519,-16.24,-8.186,0,0,0,0,0,0,0,0,0,0,0,0,0,0,0,0,
726,-9.435,55.53,11.83,29.72,-42.26,-64.2,-3.573,21.08,-25.49,-15.15,-19.29,-2.445,-23.93,-12.52,-18.03,-20.19,0,0,0,0,0,0,0,0,0,0,0,0,0,0,0,0,
727,23.14,63.06,69.51,23.33,-58.93,-49.15,-31.1,28.44,-59.64,-28.53,-31.56,-6.973,-25.42,-6.122,-12.36,-15.28,0,0,0,0,0,0,0,0,0,0,0,0,0,0,0,0,
728,-18.78,-109.8,-12.22,-21.79,17.63,28.88,-10.26,43.03,-21.56,-6.76,-4.481,-22.75,2.111,8.909,-9.4,-1.232,0,0,0,0,0,0,0,0,0,0,0,0,0,0,0,0,
729,-46.97,-88.95,-93.19,-34.71,1.491,7.769,1.585,37.81,7.949,0.0359,-9.336,-52.17,-12.41,-12.92,-19.54,-13.49,0,0,0,0,0,0,0,0,0,0,0,0,0,0,0,0,
730,26.56,70.53,8.023,24.07,-83.55,-72.83,-19.33,14.65,-49.25,-30.78,-46.37,-58.73,-44.67,-35.98,-21.16,-25.27,0,0,0,0,0,0,0,0,0,0,0,0,0,0,0,0,
731,45.54,38.63,82.63,47.32,-30.92,-38.82,-10.84,13.43,-74.3,-38.33,-35.72,-38.97,-24.35,-15.23,-5.431,-9.901,0,0,0,0,0,0,0,0,0,0,0,0,0,0,0,0,
732,-31.46,-8.949,-9.413,16.24,49.62,19.86,10.25,18.87,-23.77,-10.55,0.5984,-33.94,1.315,1.193,-1.986,-1.863,0,0,0,0,0,0,0,0,0,0,0,0,0,0,0,0,
733,-4.569,78.52,-43.95,41.19,-2.759,-38.11,-4.536,6.227,-8.902,-5.958,-2.817,-35.08,-10.14,-10.81,-12.5,-10.97,0,0,0,0,0,0,0,0,0,0,0,0,0,0,0,0,
734,78.39,77.5,15.0,51.31,-63.65,-76.73,-26.68,12.77,-33.48,-22.6,-34.75,-25.34,-20.15,-15.13,-12.79,-14.12,0,0,0,0,0,0,0,0,0,0,0,0,0,0,0,0,
735,63.66,27.57,12.38,18.02,-53.54,-32.43,-33.53,22.68,-35.06,-21.58,-45.11,-31.51,-18.65,-11.7,-6.93,-9.913,0,0,0,0,0,0,0,0,0,0,0,0,0,0,0,0,
736,40.95,59.74,13.97,35.05,-30.93,-17.87,-32.33,0.8933,-29.73,-11.69,-27.3,-41.71,-18.8,-11.1,-6.485,-6.936,0,0,0,0,0,0,0,0,0,0,0,0,0,0,0,0,
737,42.96,30.54,41.55,2.189,-20.67,-11.04,-21.64,0.5538,-28.36,-1.994,-19.64,-26.09,-16.73,-3.709,-8.737,-8.805,0,0,0,0,0,0,0,0,0,0,0,0,0,0,0,0,
738,7.322,-8.455,4.576,-42.62,-23.56,-5.749,-18.88,21.37,-23.95,5.23,-27.07,-16.75,-16.01,-1.965,-10.28,-9.933,0,0,0,0,0,0,0,0,0,0,0,0,0,0,0,0,
739,-2.187,71.5,-5.576,48.72,-13.58,-50.09,-29.08,16.46,-24.3,-7.99,-27.29,-25.44,-16.96,-11.57,-10.09,-5.852,0,0,0,0,0,0,0,0,0,0,0,0,0,0,0,0,
740,18.41,46.86,14.92,57.53,-1.408,-35.56,-17.87,20.7,-15.96,-20.52,-18.88,-21.98,-13.38,-10.12,-9.329,-3.606,0,0,0,0,0,0,0,0,0,0,0,0,0,0,0,0,
741,-8.618,-106.0,-47.83,-40.33,-25.66,23.27,7.696,23.21,-7.273,-8.481,-5.378,-24.67,-8.645,-2.105,-6.996,-1.058,0,0,0,0,0,0,0,0,0,0,0,0,0,0,0,0,
742,-29.27,-65.07,-59.03,23.22,-21.63,-15.52,-1.486,-7.13,-15.73,-3.915,-4.207,-40.34,-6.377,-6.715,-4.738,0.7328,0,0,0,0,0,0,0,0,0,0,0,0,0,0,0,0,
743,16.47,74.83,26.56,60.28,5.092,-54.03,-30.65,-3.39,-15.84,-15.89,-22.36,-36.21,-10.59,-12.52,-7.788,-8.276,0,0,0,0,0,0,0,0,0,0,0,0,0,0,0,0,
744,67.02,30.97,21.67,-50.11,-49.39,-28.57,-31.25,19.19,-19.67,-19.35,-30.96,-30.8,-22.1,-12.48,-5.983,-13.8,0,0,0,0,0,0,0,0,0,0,0,0,0,0,0,0,
745,66.38,-37.01,-8.836,-8.48,-80.96,-47.26,-17.39,-4.016,-43.51,-19.84,-23.95,-34.52,-23.08,-12.86,4.069,-6.278,0,0,0,0,0,0,0,0,0,0,0,0,0,0,0,0,
746,10.43,-30.64,18.02,76.8,8.42,-52.57,-10.15,-10.68,-32.01,-19.6,-14.62,-24.37,-10.14,-10.61,2.365,-6.542,0,0,0,0,0,0,0,0,0,0,0,0,0,0,0,0,
747,-30.23,-57.55,-23.4,-4.552,26.3,-20.8,-6.74,9.831,-3.049,-14.47,-15.06,-28.16,-13.75,-16.8,-8.374,-16.56,0,0,0,0,0,0,0,0,0,0,0,0,0,0,0,0,
748,30.84,3.721,-35.2,-5.035,-73.09,-59.83,-27.19,-2.579,-28.49,-24.25,-33.17,-45.62,-30.39,-28.33,-6.841,-16.17,0,0,0,0,0,0,0,0,0,0,0,0,0,0,0,0,
749,84.31,83.05,42.26,67.27,-72.87,-69.59,-43.24,-4.088,-51.52,-34.95,-31.53,-36.96,-22.38,-16.81,0.8492,-6.997,0,0,0,0,0,0,0,0,0,0,0,0,0,0,0,0,
750,12.83,-46.37,-3.541,-24.42,-5.33,13.18,-5.554,19.41,-22.37,-17.48,-2.326,-30.77,-6.047,-3.328,-0.0002,-3.784,0,0,0,0,0,0,0,0,0,0,0,0,0,0,0,0,
751,-53.64,-133.4,-87.62,-94.34,-31.8,21.95,18.69,11.27,-10.87,-3.879,-4.367,-38.17,-14.0,-16.6,-7.16,-8.04,0,0,0,0,0,0,0,0,0,0,0,0,0,0,0,0,
752,-27.67,7.746,-20.07,0.5559,-53.07,-45.55,-21.86,-4.58,-30.89,-18.59,-30.16,-27.76,-25.03,-26.72,-13.7,-14.88,0,0,0,0,0,0,0,0,0,0,0,0,0,0,0,0,
753,28.93,115.1,43.54,60.71,-11.78,-71.04,-46.02,0.7916,-39.5,-29.8,-28.65,-29.61,-24.96,-23.82,-16.59,-19.96,0,0,0,0,0,0,0,0,0,0,0,0,0,0,0,0,
754,81.41,87.87,30.6,44.1,-24.59,-66.5,-25.91,2.851,-42.0,-28.37,-17.02,-49.59,-26.11,-27.55,-18.39,-19.2,0,0,0,0,0,0,0,0,0,0,0,0,0,0,0,0,
755,64.62,8.551,14.84,14.86,-62.06,-35.22,-14.1,8.548,-33.83,-28.52,-19.11,-39.35,-23.49,-27.75,-20.35,-16.65,0,0,0,0,0,0,0,0,0,0,0,0,0,0,0,0,
756,-22.6,-72.19,-48.78,-63.39,-39.1,17.26,-1.613,23.38,-11.72,-22.38,-18.68,-21.65,-16.39,-20.11,-17.59,-15.54,0,0,0,0,0,0,0,0,0,0,0,0,0,0,0,0,
757,-50.77,-56.6,-89.09,-81.03,0.2488,8.413,13.41,21.23,-9.719,-15.12,-14.41,-32.05,-15.63,-17.69,-12.03,-10.95,0,0,0,0,0,0,0,0,0,0,0,0,0,0,0,0,
758,3.065,28.43,-0.9211,40.69,1.357,-55.52,-12.04,5.535,-24.99,-22.59,-16.75,-35.74,-17.39,-17.2,-11.96,-6.079,0,0,0,0,0,0,0,0,0,0,0,0,0,0,0,0,
759,68.06,67.99,77.74,101.6,-41.92,-85.33,-46.95,-1.382,-29.75,-29.51,-17.65,-24.49,-16.82,-15.21,-16.66,-6.146,0,0,0,0,0,0,0,0,0,0,0,0,0,0,0,0,
760,98.75,69.33,48.88,48.3,-71.18,-68.78,-38.21,-2.65,-27.28,-23.78,-17.5,-28.51,-17.78,-15.63,-20.55,-6.093,0,0,0,0,0,0,0,0,0,0,0,0,0,0,0,0,
761,60.98,46.13,11.46,36.0,-38.16,-45.49,-13.57,-0.6171,-22.46,-19.42,-18.65,-27.66,-17.55,-13.94,-25.24,-5.957,0,0,0,0,0,0,0,0,0,0,0,0,0,0,0,0,
762,-0.3676,-24.51,-6.443,11.9,-14.45,-12.64,-2.449,16.96,-11.89,-15.96,-4.623,-4.522,-12.58,-8.174,-31.89,-10.07,0,0,0,0,0,0,0,0,0,0,0,0,0,0,0,0,
763,-12.43,-100.5,-39.07,-59.89,-30.47,23.17,-3.41,28.72,-6.37,-7.344,1.14,-5.791,-13.92,-10.12,-34.18,-15.46,0,0,0,0,0,0,0,0,0,0,0,0,0,0,0,0,
764,17.25,-103.7,-18.3,-24.37,-34.34,-2.93,-24.58,4.246,-18.55,-12.32,-29.18,-37.1,-26.35,-22.69,-33.01,-18.82,0,0,0,0,0,0,0,0,0,0,0,0,0,0,0,0,
765,44.67,-48.6,37.71,52.47,-35.23,-68.03,-41.7,-19.6,-35.26,-31.0,-42.94,-41.16,-33.33,-29.98,-36.56,-20.66,0,0,0,0,0,0,0,0,0,0,0,0,0,0,0,0,
766,36.44,-50.3,3.894,16.83,-31.56,-58.05,-26.73,-3.322,-34.17,-32.8,-19.15,-24.07,-29.25,-27.5,-40.18,-20.74,0,0,0,0,0,0,0,0,0,0,0,0,0,0,0,0,
767,11.28,-93.45,-41.97,-29.42,-14.13,-1.178,-14.61,16.85,-22.35,-20.09,-12.26,-25.24,-23.41,-23.39,-36.55,-17.19,0,0,0,0,0,0,0,0,0,0,0,0,0,0,0,0,
768,9.839,-56.67,-9.632,-9.852,-23.6,-5.375,-24.14,8.85,-13.33,-17.63,-21.59,-25.83,-19.34,-19.03,-33.27,-13.21,0,0,0,0,0,0,0,0,0,0,0,0,0,0,0,0,
769,24.1,3.809,-13.17,29.29,-41.59,-49.45,-25.92,-6.746,-11.62,-23.71,-19.61,-20.32,-22.43,-19.87,-35.16,-14.02,0,0,0,0,0,0,0,0,0,0,0,0,0,0,0,0,
770,48.25,-20.9,-20.45,67.59,-47.07,-67.81,-23.08,-10.57,-29.07,-32.81,-20.61,-28.67,-30.24,-25.82,-37.24,-15.43,0,0,0,0,0,0,0,0,0,0,0,0,0,0,0,0,
771,67.29,-82.0,39.2,30.3,-57.08,-42.21,-30.76,-1.147,-46.45,-36.31,-24.54,-26.13,-31.56,-24.39,-41.03,-15.94,0,0,0,0,0,0,0,0,0,0,0,0,0,0,0,0,
772,49.16,-106.4,16.13,-50.88,-39.74,-1.81,-30.54,11.37,-34.71,-22.44,-22.0,-8.255,-29.63,-19.79,-48.25,-20.82,0,0,0,0,0,0,0,0,0,0,0,0,0,0,0,0,
773,30.31,-96.38,-54.11,-15.32,-17.86,-13.1,-21.52,11.42,-19.16,-16.4,-23.99,-13.83,-28.15,-21.6,-50.25,-24.21,0,0,0,0,0,0,0,0,0,0,0,0,0,0,0,0,
774,38.11,-96.28,-13.38,57.2,-38.06,-56.73,-25.35,3.636,-20.92,-31.1,-29.53,-30.37,-25.81,-24.42,-43.84,-20.19,0,0,0,0,0,0,0,0,0,0,0,0,0,0,0,0,
775,41.02,-119.7,24.06,30.9,-44.77,-55.71,-30.27,4.338,-26.04,-33.75,-23.94,-25.88,-24.7,-25.1,-37.0,-14.53,0,0,0,0,0,0,0,0,0,0,0,0,0,0,0,0,
776,35.63,-127.8,-8.075,6.588,-32.13,-26.33,-18.86,10.63,-28.84,-20.35,-9.765,-15.08,-18.22,-20.96,-32.21,-9.389,0,0,0,0,0,0,0,0,0,0,0,0,0,0,0,0,
777,28.01,-123.3,-5.068,23.87,-41.2,-13.06,-11.24,8.914,-20.53,-12.31,-4.857,-8.903,-8.985,-11.66,-26.52,-4.079,0,0,0,0,0,0,0,0,0,0,0,0,0,0,0,0,
778,30.43,-122.1,4.761,17.43,-31.36,-19.41,-12.92,1.752,-7.454,-12.39,-10.23,-5.695,-10.93,-9.566,-22.85,-1.94,0,0,0,0,0,0,0,0,0,0,0,0,0,0,0,0,
779,54.92,-104.3,-28.45,1.897,-10.15,-32.25,-3.602,1.495,-12.18,-17.19,-12.17,-13.21,-15.88,-13.96,-23.92,-3.848,0,0,0,0,0,0,0,0,0,0,0,0,0,0,0,0,
780,60.01,-97.17,-39.18,-13.36,-34.62,-28.96,1.855,3.971,-17.91,-14.72,-11.24,-21.89,-14.47,-14.61,-28.52,-8.251,0,0,0,0,0,0,0,0,0,0,0,0,0,0,0,0,
781,47.11,-116.7,2.563,-2.882,-61.79,-31.32,-11.56,-1.149,-15.42,-9.132,-15.01,-23.42,-18.05,-19.84,-36.61,-13.74,0,0,0,0,0,0,0,0,0,0,0,0,0,0,0,0,
782,57.84,-123.7,31.94,38.27,-33.41,-47.01,-14.92,-3.176,-24.64,-21.95,-21.26,-23.11,-25.43,-27.18,-43.47,-16.58,0,0,0,0,0,0,0,0,0,0,0,0,0,0,0,0,
783,49.86,-120.6,-5.527,13.3,13.31,-22.04,-4.431,5.732,-26.67,-30.65,-21.14,-17.48,-21.96,-20.89,-42.93,-14.95,0,0,0,0,0,0,0,0,0,0,0,0,0,0,0,0,
784,8.153,-119.7,-60.43,-35.02,11.07,2.314,-8.573,4.846,-8.515,-16.72,-16.1,-16.82,-14.19,-15.59,-41.26,-15.06,0,0,0,0,0,0,0,0,0,0,0,0,0,0,0,0,
785,11.6,-110.3,-63.98,6.591,-47.02,-40.38,-20.22,-9.707,-2.491,-15.28,-18.57,-26.03,-17.6,-21.91,-45.1,-19.11,0,0,0,0,0,0,0,0,0,0,0,0,0,0,0,0,
786,64.37,-109.5,-16.03,35.69,-90.63,-66.64,-23.55,-8.434,-14.47,-29.05,-22.97,-22.22,-23.09,-20.41,-46.64,-18.47,0,0,0,0,0,0,0,0,0,0,0,0,0,0,0,0,
787,77.86,-125.4,38.12,-16.22,-57.27,-26.41,-24.87,6.568,-22.48,-25.59,-20.46,-12.32,-19.52,-14.79,-41.4,-13.61,0,0,0,0,0,0,0,0,0,0,0,0,0,0,0,0,
788,32.38,-127.2,17.82,-41.68,0.4613,1.491,-17.19,6.989,-22.73,-14.0,-20.22,-16.01,-17.94,-17.14,-36.52,-12.23,0,0,0,0,0,0,0,0,0,0,0,0,0,0,0,0,
789,8.743,-83.54,-55.53,-11.58,-10.98,-17.32,-3.775,-5.254,-21.47,-17.1,-20.45,-19.72,-19.12,-15.91,-33.83,-10.95,0,0,0,0,0,0,0,0,0,0,0,0,0,0,0,0,
790,42.16,-23.45,-49.91,31.98,-55.02,-51.21,-11.17,-20.15,-20.82,-27.22,-20.03,-16.12,-14.44,-14.95,-33.01,-9.232,0,0,0,0,0,0,0,0,0,0,0,0,0,0,0,0,
791,55.64,-35.36,3.972,48.55,-47.35,-53.7,-26.59,-21.96,-18.11,-27.98,-25.74,-8.232,-15.22,-20.84,-38.76,-13.01,0,0,0,0,0,0,0,0,0,0,0,0,0,0,0,0,
792,7.578,-109.9,-1.718,-5.473,-21.83,-4.013,-22.43,5.865,-16.65,-20.25,-24.2,-1.565,-23.18,-20.34,-44.99,-17.24,0,0,0,0,0,0,0,0,0,0,0,0,0,0,0,0,
793,-21.09,-116.3,-29.48,-53.17,-18.71,23.21,-13.71,17.57,-20.5,-17.45,-15.98,-13.83,-22.89,-17.03,-42.82,-16.89,0,0,0,0,0,0,0,0,0,0,0,0,0,0,0,0,
794,19.86,-44.25,-48.18,-14.49,-21.38,-17.59,-14.76,-12.54,-19.05,-21.33,-20.75,-31.8,-20.04,-20.74,-40.29,-19.01,0,0,0,0,0,0,0,0,0,0,0,0,0,0,0,0,
795,49.24,-23.78,-54.55,21.12,-45.76,-44.79,-22.4,-22.4,-13.8,-25.11,-28.85,-27.66,-20.61,-23.83,-40.31,-24.4,0,0,0,0,0,0,0,0,0,0,0,0,0,0,0,0,
796,18.35,-63.45,-11.57,9.235,-63.33,-31.02,-31.71,-9.064,-15.4,-28.44,-25.79,-15.68,-14.07,-20.85,-35.77,-23.19,0,0,0,0,0,0,0,0,0,0,0,0,0,0,0,0,
797,7.963,-67.51,20.18,11.51,-30.85,-32.78,-24.1,-17.96,-15.85,-26.7,-21.55,-14.14,-11.75,-16.26,-35.1,-17.99,0,0,0,0,0,0,0,0,0,0,0,0,0,0,0,0,
798,35.59,-65.95,-17.81,0.9797,-13.09,-29.1,-3.797,-18.74,-18.78,-20.23,-19.52,-14.93,-22.38,-16.93,-39.28,-17.07,0,0,0,0,0,0,0,0,0,0,0,0,0,0,0,0,
799,16.06,-105.7,-61.12,-35.16,-26.97,-1.557,1.065,-4.911,-27.12,-22.41,-11.56,-12.65,-22.64,-20.28,-32.64,-14.42,0,0,0,0,0,0,0,0,0,0,0,0,0,0,0,0,
800,-17.08,-88.67,-59.32,-16.12,-29.92,-16.02,-4.413,-16.61,-21.58,-31.26,-6.792,-11.95,-13.29,-20.06,-24.02,-10.4,0,0,0,0,0,0,0,0,0,0,0,0,0,0,0,0,
801,18.6,-10.86,-15.54,26.77,-52.45,-51.17,-4.143,-30.36,-12.5,-30.96,-13.03,-12.72,-12.25,-18.44,-25.36,-10.76,0,0,0,0,0,0,0,0,0,0,0,0,0,0,0,0,
802,40.84,-21.0,11.09,2.808,-51.65,-23.14,-0.8846,-21.46,-11.85,-19.42,-10.44,-6.968,-8.162,-11.62,-23.3,-7.216,0,0,0,0,0,0,0,0,0,0,0,0,0,0,0,0,
803,-12.46,-93.66,-39.52,-31.77,12.62,10.68,-4.086,-11.5,-0.9415,-10.69,-2.433,-0.1085,-2.912,-4.639,-19.26,-2.593,0,0,0,0,0,0,0,0,0,0,0,0,0,0,0,0,
804,-21.58,-73.49,-72.71,-13.46,11.79,-16.28,-17.49,-9.233,3.901,-16.23,-13.29,-5.489,-8.661,-10.52,-21.49,-3.306,0,0,0,0,0,0,0,0,0,0,0,0,0,0,0,0,
805,46.91,4.82,-22.21,4.928,-48.35,-28.69,-20.43,-13.57,-12.15,-23.14,-20.96,-10.54,-10.5,-12.26,-20.05,0.2048,0,0,0,0,0,0,0,0,0,0,0,0,0,0,0,0,
806,58.09,9.248,7.798,12.12,-35.25,-11.12,-11.51,-18.49,-17.65,-18.88,-12.43,-4.62,-9.459,-4.454,-18.95,1.162,0,0,0,0,0,0,0,0,0,0,0,0,0,0,0,0,
807,4.004,-42.97,-2.23,31.44,-17.77,-26.41,-12.82,-18.74,-12.23,-19.25,-13.58,-3.248,-14.67,-10.41,-24.01,-7.4,0,0,0,0,0,0,0,0,0,0,0,0,0,0,0,0,
808,-9.829,-64.47,-8.986,9.966,-43.23,-30.17,-1.783,-21.06,-14.31,-25.27,-13.45,-7.321,-13.52,-18.75,-22.83,-10.06,0,0,0,0,0,0,0,0,0,0,0,0,0,0,0,0,
809,7.328,-47.81,-29.87,-36.57,-18.36,0.879,14.77,-16.82,-12.84,-20.64,-3.216,-6.135,-11.08,-12.86,-18.24,-7.195,0,0,0,0,0,0,0,0,0,0,0,0,0,0,0,0,
810,22.44,-23.21,-17.26,-15.65,14.46,-3.361,-6.241,-9.789,-7.35,-16.11,-5.865,-3.792,-13.44,-9.552,-17.93,-6.643,0,0,0,0,0,0,0,0,0,0,0,0,0,0,0,0,
811,41.1,-18.11,12.83,19.39,-3.179,-20.0,-16.07,-18.43,-3.397,-17.19,-8.912,-1.954,-9.293,-11.9,-15.82,-5.157,0,0,0,0,0,0,0,0,0,0,0,0,0,0,0,0,
812,21.13,-48.52,-27.7,-1.684,-15.87,-8.613,7.95,-22.67,-0.5831,-14.47,-2.702,-2.09,-8.021,-12.56,-16.34,-6.921,0,0,0,0,0,0,0,0,0,0,0,0,0,0,0,0,
813,-15.42,-68.32,-46.03,-0.8921,-21.43,-16.35,-2.95,-15.09,-8.353,-19.51,-8.055,-8.202,-13.35,-15.17,-20.24,-8.465,0,0,0,0,0,0,0,0,0,0,0,0,0,0,0,0,
814,3.507,-56.18,3.884,13.41,-24.77,-24.76,-22.56,-19.13,-14.23,-27.62,-11.7,-7.552,-8.615,-13.48,-15.35,-2.324,0,0,0,0,0,0,0,0,0,0,0,0,0,0,0,0,
815,33.26,-61.67,2.76,-25.95,-9.919,-3.039,-4.442,-23.46,-3.08,-18.32,0.1778,2.343,-0.7109,-6.46,-8.822,-0.2578,0,0,0,0,0,0,0,0,0,0,0,0,0,0,0,0,
816,25.48,-71.73,-22.65,-34.73,-11.71,-3.773,0.676,-16.48,0.8363,-10.64,0.789,2.987,-3.786,-7.955,-12.47,-5.493,0,0,0,0,0,0,0,0,0,0,0,0,0,0,0,0,
817,5.766,-75.49,-26.35,-5.015,-12.97,-9.196,-3.624,-13.25,-9.007,-18.32,-10.58,0.1751,-9.386,-14.18,-16.76,-5.743,0,0,0,0,0,0,0,0,0,0,0,0,0,0,0,0,
818,-17.87,-98.27,-60.5,-22.69,4.218,5.247,7.968,-17.7,-4.901,-18.18,-7.945,4.711,-8.206,-13.18,-15.35,-3.107,0,0,0,0,0,0,0,0,0,0,0,0,0,0,0,0,
819,-16.55,-68.4,-48.36,-15.93,-19.83,-23.43,-4.512,-26.4,4.126,-12.58,-2.492,0.3463,-4.846,-12.62,-14.08,-5.117,0,0,0,0,0,0,0,0,0,0,0,0,0,0,0,0,
820,18.38,-17.75,27.08,22.53,-46.27,-42.95,-18.02,-27.28,-6.785,-17.19,-8.289,-8.69,-5.894,-14.07,-13.06,-5.917,0,0,0,0,0,0,0,0,0,0,0,0,0,0,0,0,
821,18.96,-74.95,17.68,-6.035,-7.532,9.505,7.008,-17.18,-14.46,-16.35,-8.04,-6.02,-9.371,-9.384,-10.94,-2.756,0,0,0,0,0,0,0,0,0,0,0,0,0,0,0,0,
822,-3.337,-107.3,-43.58,-13.33,5.884,13.96,19.37,-18.98,-4.619,-10.1,-5.603,-6.719,-10.56,-11.57,-10.84,-4.037,0,0,0,0,0,0,0,0,0,0,0,0,0,0,0,0,
823,14.32,-24.85,-31.19,35.32,-36.52,-35.87,-3.626,-27.31,-5.175,-16.15,-13.36,-13.19,-7.011,-20.86,-10.85,-7.979,0,0,0,0,0,0,0,0,0,0,0,0,0,0,0,0,
824,27.52,-18.6,-1.078,15.67,-28.17,-20.17,-18.98,-25.16,-6.48,-16.84,-11.7,-9.734,-1.638,-14.44,-8.781,-6.886,0,0,0,0,0,0,0,0,0,0,0,0,0,0,0,0,
825,-3.471,-78.55,-11.03,-21.02,6.523,-1.448,-7.317,-24.47,8.699,-6.619,-0.3494,-4.849,-5.055,-7.266,-9.346,-7.067,0,0,0,0,0,0,0,0,0,0,0,0,0,0,0,0,
826,-33.47,-72.79,-28.02,-10.86,-4.032,-22.31,11.96,-20.8,4.235,-14.37,-0.071,-4.884,-12.62,-19.05,-10.06,-9.98,0,0,0,0,0,0,0,0,0,0,0,0,0,0,0,0,
827,-29.84,-80.98,-42.6,-24.75,-8.675,-3.418,7.016,-14.84,-14.31,-27.15,-2.652,-4.753,-8.758,-23.7,-4.94,-6.325,0,0,0,0,0,0,0,0,0,0,0,0,0,0,0,0,
828,6.52,-102.8,-25.54,-28.2,-17.26,2.181,-17.98,-24.27,-9.246,-21.4,-2.745,-5.726,-4.236,-14.9,-3.83,-2.584,0,0,0,0,0,0,0,0,0,0,0,0,0,0,0,0,
829,31.59,-73.78,28.43,-1.355,-57.58,-33.75,-28.66,-26.07,-8.495,-19.44,-9.459,-4.195,-9.642,-15.18,-11.12,-8.298,0,0,0,0,0,0,0,0,0,0,0,0,0,0,0,0,
830,0.2942,-71.99,37.5,-5.06,-44.67,-24.62,-25.11,-16.98,-20.79,-22.11,-11.95,-4.532,-9.144,-18.05,-12.44,-13.48,0,0,0,0,0,0,0,0,0,0,0,0,0,0,0,0,
831,-33.98,-91.09,-4.801,-0.7488,6.673,-5.62,-16.28,-26.26,-11.26,-12.63,-4.418,-12.1,-2.962,-14.35,-8.802,-10.76,0,0,0,0,0,0,0,0,0,0,0,0,0,0,0,0,
832,-31.35,-76.02,-37.45,10.66,14.89,-14.2,1.026,-28.16,3.193,-9.919,-0.4724,-12.47,-5.51,-14.07,-10.89,-7.622,0,0,0,0,0,0,0,0,0,0,0,0,0,0,0,0,
833,-21.59,-62.45,-47.15,-9.149,2.896,-9.94,3.606,-15.85,2.075,-16.7,-3.111,-7.819,-10.53,-17.23,-11.09,-7.631,0,0,0,0,0,0,0,0,0,0,0,0,0,0,0,0,
834,13.3,-48.31,-4.571,-8.518,-24.45,-19.05,-15.32,-24.81,-4.396,-17.59,-10.14,-10.24,-12.5,-19.1,-8.793,-8.858,0,0,0,0,0,0,0,0,0,0,0,0,0,0,0,0,
835,30.27,-62.67,45.32,-21.01,-47.7,-13.64,-19.26,-24.94,-14.24,-20.02,-18.38,-7.038,-13.96,-17.39,-11.7,-10.37,0,0,0,0,0,0,0,0,0,0,0,0,0,0,0,0,
836,-41.28,-117.8,-11.81,-68.23,-14.62,34.86,2.019,-5.726,-9.5,-19.3,-13.05,-0.1982,-7.172,-10.2,-9.498,-8.382,0,0,0,0,0,0,0,0,0,0,0,0,0,0,0,0,
837,-65.27,-76.3,-75.03,-31.55,4.232,10.39,9.321,-21.84,6.038,-12.3,-3.173,-5.909,2.642,-8.252,-1.438,-5.128,0,0,0,0,0,0,0,0,0,0,0,0,0,0,0,0,
838,22.37,49.93,-6.22,46.48,-26.49,-68.18,-21.04,-47.46,-3.684,-19.05,-13.37,-10.11,-1.343,-14.14,-1.368,-6.037,0,0,0,0,0,0,0,0,0,0,0,0,0,0,0,0,
839,46.78,74.97,64.05,24.17,-36.71,-52.38,-41.07,-33.66,-14.57,-26.88,-21.51,-4.287,-8.324,-12.11,-2.549,-5.015,0,0,0,0,0,0,0,0,0,0,0,0,0,0,0,0,
840,3.772,6.87,31.02,-35.87,-21.45,11.18,-9.563,-18.57,2.143,-12.84,-7.806,-3.047,-3.167,-4.46,1.811,-1.619,0,0,0,0,0,0,0,0,0,0,0,0,0,0,0,0,
841,-1.221,-32.89,-11.52,-38.8,11.3,25.81,13.9,-19.36,10.29,0.4226,-4.442,-1.806,-0.0983,-3.251,-0.0595,-3.299,0,0,0,0,0,0,0,0,0,0,0,0,0,0,0,0,
842,-25.65,-40.51,-21.28,-13.05,24.45,21.2,-11.35,-15.47,2.747,-6.968,-17.4,1.996,-8.581,-4.527,-8.608,-6.68,0,0,0,0,0,0,0,0,0,0,0,0,0,0,0,0,
843,-41.62,-32.72,-29.09,8.06,-33.11,3.002,-29.55,-19.95,3.761,-19.56,-23.69,-8.253,-15.36,-11.06,-13.77,-11.31,0,0,0,0,0,0,0,0,0,0,0,0,0,0,0,0,
844,20.43,14.43,-15.3,13.2,-50.99,-36.65,-23.92,-26.52,1.305,-26.62,-27.25,-21.28,-14.56,-24.71,-14.07,-17.48,0,0,0,0,0,0,0,0,0,0,0,0,0,0,0,0,
845,41.15,47.08,23.34,-0.3496,9.947,-39.21,-19.4,-17.03,-11.19,-31.23,-25.25,-15.8,-13.68,-26.37,-10.1,-15.13,0,0,0,0,0,0,0,0,0,0,0,0,0,0,0,0,
846,-13.43,-21.35,24.58,-16.28,10.04,8.6,-4.109,-15.48,-14.48,-27.72,-11.27,-5.364,-11.16,-13.38,-3.408,-8.292,0,0,0,0,0,0,0,0,0,0,0,0,0,0,0,0,
847,-33.43,-84.07,-17.43,-20.41,-24.56,32.84,3.142,-27.26,-3.023,-14.53,-5.306,-3.754,-1.934,-6.287,-0.4443,-8.273,0,0,0,0,0,0,0,0,0,0,0,0,0,0,0,0,
848,-9.857,-3.688,-13.06,-8.913,-15.32,3.155,-24.1,-28.94,7.588,-9.267,-13.41,-5.809,0.7736,-8.142,-2.078,-9.993,0,0,0,0,0,0,0,0,0,0,0,0,0,0,0,0,
849,18.83,62.58,37.37,2.381,-26.6,-20.07,-37.98,-27.78,2.118,-15.39,-18.63,-9.866,-8.243,-8.939,-0.8988,-7.985,0,0,0,0,0,0,0,0,0,0,0,0,0,0,0,0,
850,14.62,0.0455,24.3,-6.426,-20.85,-6.753,-10.32,-30.4,-6.155,-15.69,-11.78,-10.8,-7.789,-8.754,3.745,-5.36,0,0,0,0,0,0,0,0,0,0,0,0,0,0,0,0,
