%OpenBCI Raw EXG Data
%Number of channels = 16
%Sample Rate = 125 Hz
%Board = OpenBCI_GUI$BoardCytonSerialDaisy
Sample Index,EXG Channel 0,EXG Channel 1,EXG Channel 2,EXG Channel 3,EXG Channel 4,EXG Channel 5,EXG Channel 6,EXG Channel 7,EXG Channel 8,EXG Channel 9,EXG Channel 10,EXG Channel 11,EXG Channel 12,EXG Channel 13,EXG Channel 14,EXG Channel 15,Accel Channel 0,Accel Channel 1,Accel Channel 2,Other,Other,Other,Other,Other,Other,Other,Analog Channel 0,Analog Channel 1,Analog Channel 2,Timestamp,Other,Timestamp (Formatted),Annotations
1,-0,0,0,-0,-0,0,0,0,-0,0,-0,0,0,0,0,-0,0,0,0,0,0,0,0,0,0,0,0,0,0,0,0,0,T0
2,33.81,25.64,14.85,26.04,26.6,18.58,16.41,22.73,16.44,16.79,15.42,10.22,18.47,-1.691,11.57,8.672,0,0,0,0,0,0,0,0,0,0,0,0,0,0,0,0,
3,20.04,26.57,-2.083,9.995,-3.755,-13.72,9.158,5.315,77.4,17.01,-6.067,-6.964,5.942,-5.489,-5.468,-9.658,0,0,0,0,0,0,0,0,0,0,0,0,0,0,0,0,
4,-0.4155,13.21,-12.06,-4.563,-24.91,-35.87,1.186,-13.63,61.78,13.36,-56.51,-30.98,-25.5,-22.03,-27.48,-35.55,0,0,0,0,0,0,0,0,0,0,0,0,0,0,0,0,
5,8.677,-6.801,-6.584,-2.892,-15.27,-32.39,-11.8,-17.27,-22.76,-13.16,-50.56,-43.37,-56.24,-50.3,-39.93,-53.76,0,0,0,0,0,0,0,0,0,0,0,0,0,0,0,0,
6,2.123,-31.68,-10.45,-7.982,-14.25,-41.13,-31.6,-20.21,-3.25,-26.81,-27.41,-47.49,-70.83,-58.4,-43.22,-54.87,0,0,0,0,0,0,0,0,0,0,0,0,0,0,0,0,
7,-25.19,-38.53,-2.6,-1.903,-8.828,-43.37,-29.04,-14.71,61.79,2.087,-55.53,-42.85,-62.95,-44.68,-28.93,-34.09,0,0,0,0,0,0,0,0,0,0,0,0,0,0,0,0,
8,-24.57,-24.08,13.15,13.88,-2.963,-31.46,-16.06,-7.543,29.95,-11.86,-28.9,-31.72,-50.29,-44.37,-13.55,-19.27,0,0,0,0,0,0,0,0,0,0,0,0,0,0,0,0,
9,-8.234,-11.88,5.924,15.8,-10.83,-22.95,-10.63,-5.002,25.13,-50.31,21.18,-15.79,-33.03,-37.58,-1.831,-7.796,0,0,0,0,0,0,0,0,0,0,0,0,0,0,0,0,
10,7.13,-2.48,6.576,21.5,4.461,-10.2,-4.406,3.743,73.9,-21.98,-43.73,-3.645,-8.34,-6.507,20.81,18.02,0,0,0,0,0,0,0,0,0,0,0,0,0,0,0,0,
11,25.51,-1.159,19.21,26.24,25.33,-9.367,-13.07,0.1373,18.03,-5.011,-84.65,-19.36,-13.75,-4.449,18.24,10.59,0,0,0,0,0,0,0,0,0,0,0,0,0,0,0,0,
12,16.56,-25.11,1.465,3.323,6.944,-31.93,-34.94,-23.08,-26.92,-39.13,-0.4364,-44.23,-44.57,-27.83,-17.14,-31.67,0,0,0,0,0,0,0,0,0,0,0,0,0,0,0,0,
13,-12.13,-46.16,-21.87,-19.13,-14.24,-46.65,-41.39,-32.22,48.5,-30.27,38.61,-39.29,-47.76,-23.34,-25.59,-37.46,0,0,0,0,0,0,0,0,0,0,0,0,0,0,0,0,
14,-25.08,-37.4,-27.02,-18.74,-14.95,-50.41,-39.26,-22.73,57.26,-1.853,2.682,-27.84,-32.33,-14.03,-11.53,-16.01,0,0,0,0,0,0,0,0,0,0,0,0,0,0,0,0,
15,-30.57,-21.62,-29.96,-11.29,-11.65,-50.82,-34.39,-14.62,17.77,-7.372,19.9,-22.41,-21.98,-14.04,-4.97,-2.696,0,0,0,0,0,0,0,0,0,0,0,0,0,0,0,0,
16,-18.41,-9.352,-9.325,6.267,9.471,-29.42,-17.24,-5.226,68.75,3.736,46.33,0.078,-2.904,4.79,8.92,15.86,0,0,0,0,0,0,0,0,0,0,0,0,0,0,0,0,
17,24.47,0.6365,22.48,26.49,33.98,-2.751,-8.681,1.393,67.53,19.75,-14.38,4.803,1.253,10.13,7.423,16.86,0,0,0,0,0,0,0,0,0,0,0,0,0,0,0,0,
18,46.55,-10.2,13.38,22.95,22.84,-8.298,-21.96,-10.19,-0.8668,-7.466,-50.94,-20.52,-24.91,-13.31,-16.41,-6.517,0,0,0,0,0,0,0,0,0,0,0,0,0,0,0,0,
19,21.83,-29.42,-14.66,6.954,-5.984,-31.21,-31.95,-25.96,21.12,-39.48,5.012,-25.72,-38.8,-18.89,-20.13,-13.16,0,0,0,0,0,0,0,0,0,0,0,0,0,0,0,0,
20,2.63,-25.35,-21.93,0.8829,-18.7,-28.33,-18.67,-23.59,39.82,-47.42,-30.33,-28.09,-37.21,-17.51,-22.65,-16.05,0,0,0,0,0,0,0,0,0,0,0,0,0,0,0,0,
21,13.66,-9.644,-13.2,5.656,-11.39,1.951,8.887,-6.58,5.261,-34.65,-119.4,-46.38,-43.12,-34.8,-37.97,-32.34,0,0,0,0,0,0,0,0,0,0,0,0,0,0,0,0,
22,21.93,-0.9707,13.66,27.29,13.16,30.78,31.77,17.44,41.87,2.503,-19.86,-32.12,-37.55,-34.51,-24.5,-33.04,0,0,0,0,0,0,0,0,0,0,0,0,0,0,0,0,
23,27.12,5.913,45.98,56.54,38.18,49.38,43.1,37.17,77.55,13.76,96.05,-2.575,-21.56,-15.71,2.416,-18.46,0,0,0,0,0,0,0,0,0,0,0,0,0,0,0,0,
24,46.55,8.127,51.05,62.85,42.79,53.97,41.21,33.41,36.99,-6.664,35.02,4.423,-12.96,-12.99,14.35,-0.7025,0,0,0,0,0,0,0,0,0,0,0,0,0,0,0,0,
25,54.48,7.914,40.45,52.8,36.85,37.44,28.28,19.22,32.53,19.84,-11.56,15.73,2.897,-10.53,25.8,20.46,0,0,0,0,0,0,0,0,0,0,0,0,0,0,0,0,
26,42.42,14.44,33.84,47.01,28.98,14.73,22.36,15.55,73.1,33.8,-11.89,17.95,12.48,2.004,22.3,22.12,0,0,0,0,0,0,0,0,0,0,0,0,0,0,0,0,
27,30.04,13.07,15.67,32.31,8.647,-1.694,28.1,10.02,73.2,-25.94,-19.82,-3.002,-5.398,1.496,1.717,2.358,0,0,0,0,0,0,0,0,0,0,0,0,0,0,0,0,
28,15.94,3.064,-1.117,17.79,-8.099,-7.405,28.06,7.198,40.4,-15.66,33.23,-1.67,-12.82,-1.947,-2.759,-6.539,0,0,0,0,0,0,0,0,0,0,0,0,0,0,0,0,
29,10.77,6.126,9.631,28.2,-2.287,2.512,20.59,20.13,24.44,44.57,23.22,7.563,-3.179,1.118,-4.893,-7.746,0,0,0,0,0,0,0,0,0,0,0,0,0,0,0,0,
30,24.86,16.51,20.13,38.3,7.448,10.39,17.06,25.14,35.22,-8.744,-31.25,-2.018,-10.73,-6.92,-18.83,-20.13,0,0,0,0,0,0,0,0,0,0,0,0,0,0,0,0,
31,41.67,29.83,16.76,34.23,11.7,12.54,24.18,20.8,45.49,-36.52,35.67,11.32,-6.998,-6.375,-14.4,-24.63,0,0,0,0,0,0,0,0,0,0,0,0,0,0,0,0,
32,58.7,51.59,25.1,40.6,16.49,24.83,38.18,29.07,53.69,65.16,16.63,31.8,18.77,15.12,-1.035,-15.22,0,0,0,0,0,0,0,0,0,0,0,0,0,0,0,0,
33,65.72,52.78,25.41,43.49,10.7,24.7,37.97,31.92,67.58,87.43,-115.2,17.28,13.31,16.18,-5.471,-16.15,0,0,0,0,0,0,0,0,0,0,0,0,0,0,0,0,
34,43.31,26.52,-4.468,20.54,-7.322,-3.479,15.93,14.92,55.49,6.353,-38.73,11.91,-3.478,3.181,-0.0406,-14.38,0,0,0,0,0,0,0,0,0,0,0,0,0,0,0,0,
35,13.5,12.83,-27.45,-2.831,-21.91,-27.95,-6.724,0.7326,26.02,-2.409,117,32.77,18.31,20.48,26.77,11.03,0,0,0,0,0,0,0,0,0,0,0,0,0,0,0,0,
36,4.973,15.91,-24.28,-6.785,-23.6,-30.11,-18.46,-0.2513,17.73,33.75,83.85,36.2,36.78,39.54,38.1,30.05,0,0,0,0,0,0,0,0,0,0,0,0,0,0,0,0,
37,16.25,10.4,-23.82,-10.82,-19.42,-24.48,-28.49,-1.459,27.41,17.79,5.679,23.25,15.3,20.61,25.31,20.21,0,0,0,0,0,0,0,0,0,0,0,0,0,0,0,0,
38,23.76,-3.016,-37.71,-26.49,-23.82,-26.48,-37.32,-6.851,50.88,-8.845,9.203,12.42,-13.16,-6.129,9.834,-1.182,0,0,0,0,0,0,0,0,0,0,0,0,0,0,0,0,
39,14.14,-9.479,-36.9,-26.97,-22,-25.29,-30.08,-2.699,69.91,0.364,29.61,-1.163,-25.82,-12.59,-2.08,-19.38,0,0,0,0,0,0,0,0,0,0,0,0,0,0,0,0,
40,15.75,-2.569,-13.67,-7.84,-3.929,-7.633,-13.21,7.239,55.63,5.432,12.17,-15.9,-25.96,-11.52,-11.32,-29.59,0,0,0,0,0,0,0,0,0,0,0,0,0,0,0,0,
41,29.98,7.609,-8.083,-6.917,-2.684,3.838,-11.19,5.968,35.33,-0.2796,-24.12,-17.6,-11,-1.357,-10.07,-25.7,0,0,0,0,0,0,0,0,0,0,0,0,0,0,0,0,
42,27.81,15.43,-16.47,-13.26,-11.05,4.863,-9.927,7.849,42.77,36.5,-13.74,5.095,14.9,24.32,3.477,-10.03,0,0,0,0,0,0,0,0,0,0,0,0,0,0,0,0,
43,31.11,30.61,-1.753,1.642,-1.619,15.87,7.561,18.6,65.34,57.59,10.75,27.53,26.28,30.45,8.155,-6.923,0,0,0,0,0,0,0,0,0,0,0,0,0,0,0,0,
44,39.67,43.38,4.383,5.434,-8.261,17.26,13.95,15.68,63.54,-1.583,11.52,19.74,14.53,4.85,-8.344,-29.61,0,0,0,0,0,0,0,0,0,0,0,0,0,0,0,0,
45,24.02,40.97,-13.35,-5.079,-25.36,6.377,7.986,11.49,25.68,-15.36,1.257,0.9625,5.261,-5.598,-25.41,-45.47,0,0,0,0,0,0,0,0,0,0,0,0,0,0,0,0,
46,18.62,31.73,-9.256,-0.7666,-9.458,10.82,11.34,18.76,11.1,43.51,-77.89,-15.27,-1.894,1.441,-32.98,-38.01,0,0,0,0,0,0,0,0,0,0,0,0,0,0,0,0,
47,26.25,17.67,4.694,2.186,4.5,13.05,13.71,19.3,36.63,24.07,-114,-31.25,-20.88,-6.785,-36.09,-30.91,0,0,0,0,0,0,0,0,0,0,0,0,0,0,0,0,
48,6.568,10.41,5.528,9.091,-1.128,6.591,19.46,23.1,31.59,-26.53,13.24,-30.2,-25.44,-9.909,-32.65,-27.79,0,0,0,0,0,0,0,0,0,0,0,0,0,0,0,0,
49,-9.443,23.08,18,32.81,6.266,11.53,33.91,34.29,5.217,7.191,67.67,-23.53,-11.81,-3.36,-31.43,-25.77,0,0,0,0,0,0,0,0,0,0,0,0,0,0,0,0,
50,-8.12,27.91,24.08,33.83,2.262,5.165,28.04,26.71,23.62,25.82,-22.45,-28.75,-12.48,-16.51,-32.03,-28.13,0,0,0,0,0,0,0,0,0,0,0,0,0,0,0,0,
51,-16.23,11.87,8.066,16.09,-15.74,-10.4,11.66,12.03,56.39,-15.14,-53.83,-25.01,-19.42,-26.35,-18.59,-18.58,0,0,0,0,0,0,0,0,0,0,0,0,0,0,0,0,
52,0.6823,7.728,11.19,20.65,-3.892,4.973,15.74,12.35,53.66,-11.77,-36.79,-1.963,-9.583,-9.243,1.651,-1.303,0,0,0,0,0,0,0,0,0,0,0,0,0,0,0,0,
53,39.04,22.35,23.43,26.23,6.627,22.43,16.22,12.16,32.12,17.59,-17.59,19.98,3.636,4.486,13.46,0.0597,0,0,0,0,0,0,0,0,0,0,0,0,0,0,0,0,
54,29.95,27.55,6.578,9.688,-9.86,4.759,-2.984,4.886,33.04,-4.443,11.43,17.4,4.423,3.486,17.53,-2.107,0,0,0,0,0,0,0,0,0,0,0,0,0,0,0,0,
55,-2.001,18.84,2.127,7.247,2.447,-1.535,-4.965,8.708,74.03,-11.94,8.184,9.249,6.101,12.85,23.88,11.03,0,0,0,0,0,0,0,0,0,0,0,0,0,0,0,0,
56,1.726,15.88,34.84,33.45,39.34,21.32,14.9,20.76,85.89,37.39,13.02,18.62,11.94,25.47,25.96,13.95,0,0,0,0,0,0,0,0,0,0,0,0,0,0,0,0,
57,7.75,14.07,39.62,37.92,31.91,15.42,12.64,14.76,28.72,33.65,-0.6438,3.135,-2.928,9.633,1.535,-13.29,0,0,0,0,0,0,0,0,0,0,0,0,0,0,0,0,
58,0.3728,2.613,9.14,12.4,-3.147,-10.97,-1.508,4.51,20.46,-19.82,-47.4,-24.1,-17.78,-10.24,-17.71,-28.86,0,0,0,0,0,0,0,0,0,0,0,0,0,0,0,0,
59,13.19,5.28,14.09,21.19,-2.917,2.968,19.48,25.04,68.21,6.821,-35.63,-4.036,3.176,1.267,1.137,-13.44,0,0,0,0,0,0,0,0,0,0,0,0,0,0,0,0,
60,20.77,23.96,45.48,57.88,19.84,34.68,49.74,46.33,30.43,50.85,-55.3,6.575,15.84,7.69,5.088,-15.41,0,0,0,0,0,0,0,0,0,0,0,0,0,0,0,0,
61,10.34,32.23,60.5,67.4,35.41,49.87,56.12,41.55,-12.04,15.57,-88.49,-10.93,0.0486,-6.355,-18.4,-34.97,0,0,0,0,0,0,0,0,0,0,0,0,0,0,0,0,
62,30.94,40.51,75.3,69.13,51.61,65.79,62.38,43.77,64.79,3.546,23.26,8.608,-1.289,-9.687,-25.28,-37.7,0,0,0,0,0,0,0,0,0,0,0,0,0,0,0,0,
63,61.31,46.68,71.58,67.06,49.49,63.61,60.06,44.18,118.1,41.39,80.21,21.31,1.394,-14.97,-30.63,-38.16,0,0,0,0,0,0,0,0,0,0,0,0,0,0,0,0,
64,55.54,35.16,36.57,41.35,24.82,41.06,41.86,27.19,61.95,45.17,-11.52,8,0.139,-20.65,-30.11,-31.38,0,0,0,0,0,0,0,0,0,0,0,0,0,0,0,0,
65,49.06,39.12,33.68,38.58,22.8,41.9,42.34,29.41,5.07,28.13,-2.523,25.14,12.02,-8.664,-4.525,-12.75,0,0,0,0,0,0,0,0,0,0,0,0,0,0,0,0,
66,43.39,48.19,46.39,48.85,25.17,36.14,37.42,30.09,6.071,3.159,56.87,27.08,0.036,-17.83,-2.661,-22.13,0,0,0,0,0,0,0,0,0,0,0,0,0,0,0,0,
67,7.065,18.7,10.7,13.52,-5.548,-4.087,5.525,2.353,44.36,-23.34,14.82,-3.03,-29.24,-39.46,-20.48,-40.57,0,0,0,0,0,0,0,0,0,0,0,0,0,0,0,0,
68,-10.86,-3.977,-12.59,-11.26,-16.67,-18.73,-0.3159,3.359,63.64,-5.284,0.3087,1.021,-24.01,-21.45,-9.171,-29.87,0,0,0,0,0,0,0,0,0,0,0,0,0,0,0,0,
69,10.25,8.704,14.81,16.83,6.039,-5.441,16.49,30.29,40.66,16.37,28.01,14.22,-11.78,0.7836,1.869,-21.05,0,0,0,0,0,0,0,0,0,0,0,0,0,0,0,0,
70,9.85,11.27,19.21,27.23,-0.5388,-17.1,10.21,22.07,40.19,5.11,-7.051,2.905,-16.15,-7.078,-4.752,-25.94,0,0,0,0,0,0,0,0,0,0,0,0,0,0,0,0,
71,-13.29,8.149,-1.288,7.599,-20.66,-30.52,1.727,4.832,59.32,5.978,-4.325,8.599,-7.908,-8.786,4.459,-22.41,0,0,0,0,0,0,0,0,0,0,0,0,0,0,0,0,
72,-12.9,17.42,6.508,7.593,-3.22,-10.93,9.919,11.43,42.82,20.74,62.86,29.23,6.584,3.929,20.53,-15.56,0,0,0,0,0,0,0,0,0,0,0,0,0,0,0,0,
73,5.198,20.87,26.44,18.67,20.65,18.09,20.95,12.12,21.44,37.45,-4.677,23.92,13.95,11.94,19.19,-11.63,0,0,0,0,0,0,0,0,0,0,0,0,0,0,0,0,
74,19.86,31.81,39.12,23.11,23.45,39.54,37.43,8.407,8.913,35.5,-116.5,6.342,25.37,18.41,12.12,-5.445,0,0,0,0,0,0,0,0,0,0,0,0,0,0,0,0,
75,36.72,59.46,56.05,39.28,33.96,61.1,57.61,26.29,14.06,-7.213,10.97,22.05,42.69,30.01,22.26,12.26,0,0,0,0,0,0,0,0,0,0,0,0,0,0,0,0,
76,51.07,80.59,72.76,68.53,53.26,75.77,75.15,52.8,84.92,-2.14,183.9,60.32,64.1,42.8,52.17,43.88,0,0,0,0,0,0,0,0,0,0,0,0,0,0,0,0,
77,40.3,90.83,78.56,81.62,52.01,68.73,84.98,61.73,122.6,59.56,112.7,61.05,70.56,39.6,62.62,52.05,0,0,0,0,0,0,0,0,0,0,0,0,0,0,0,0,
78,11.26,82.27,65.14,60.16,31.84,42.64,62.23,43.69,39.54,44.79,-7.918,20.59,39.75,14.51,21.87,12.05,0,0,0,0,0,0,0,0,0,0,0,0,0,0,0,0,
79,-10.15,42.77,32.14,18.93,7.408,2.679,5.354,4.732,-7.483,-4.642,0.3083,-7.532,4.304,-2.552,-23.78,-25.46,0,0,0,0,0,0,0,0,0,0,0,0,0,0,0,0,
80,-28.27,2.792,-0.7482,-17.06,-15.08,-39.37,-39.45,-29.92,27.49,11.39,16.52,-8.645,5.488,9.044,-19.05,-13.85,0,0,0,0,0,0,0,0,0,0,0,0,0,0,0,0,
81,-30.67,-1.173,-8.874,-24.47,-10.36,-36.4,-35.09,-28.83,5.202,25.32,-2.418,2.529,26.24,32.65,9.814,16.89,0,0,0,0,0,0,0,0,0,0,0,0,0,0,0,0,
82,5.597,19.55,12.41,3.822,23.53,12.54,-1.434,-1.34,-7.142,18.33,21.67,20.64,28.91,43.32,14.29,19.25,0,0,0,0,0,0,0,0,0,0,0,0,0,0,0,0,
83,15.06,24.72,27.32,24.54,28.62,21.88,8.843,10.7,69.95,20.66,52.03,17.63,5.795,30.01,-6.009,-6.294,0,0,0,0,0,0,0,0,0,0,0,0,0,0,0,0,
84,-34.45,8.945,13.89,11.5,-2.823,-14.35,-5.433,8.456,89.7,-0.8192,-3.277,-16.18,-15.71,13.11,-25.45,-24.29,0,0,0,0,0,0,0,0,0,0,0,0,0,0,0,0,
85,-41.66,4.38,9.35,6.382,-9.147,-18.28,-5.388,13.56,21.93,-4.695,-48.71,-31.57,-16.45,14.32,-29.96,-21.12,0,0,0,0,0,0,0,0,0,0,0,0,0,0,0,0,
86,-7.255,6.127,15.71,14.59,-3.939,-14.46,-1.263,13.03,-27.56,35.39,-12.9,-24.52,-18.51,11.55,-32.04,-22.41,0,0,0,0,0,0,0,0,0,0,0,0,0,0,0,0,
87,-42.39,-4.11,-0.9743,8.001,-34.43,-47.34,-5.162,12.25,-50.25,38.37,-54.29,-40.91,-32.51,-8.346,-43.09,-37.12,0,0,0,0,0,0,0,0,0,0,0,0,0,0,0,0,
88,-100.1,-3.055,-11.7,8.76,-55.69,-60.85,3.851,24.15,-40.85,0.1975,-116.8,-57.98,-37.3,-20.27,-43.87,-40.81,0,0,0,0,0,0,0,0,0,0,0,0,0,0,0,0,
89,-84.27,8.566,5.108,22.65,-31.08,-35.26,10.72,25.34,-6.462,-19.87,-18.14,-39.64,-28.32,-17.91,-23.7,-26,0,0,0,0,0,0,0,0,0,0,0,0,0,0,0,0,
90,-42.16,12.08,20.47,28.28,-1.03,-8.045,6.675,20.1,5.528,-9.402,57.88,-15.48,-12.48,-10.17,-6.394,-9.74,0,0,0,0,0,0,0,0,0,0,0,0,0,0,0,0,
91,-20.95,24.94,31.12,35.37,10.52,12.37,11.65,24.56,28.21,17.28,1.464,-7.994,4.954,3.208,-9.361,-4.401,0,0,0,0,0,0,0,0,0,0,0,0,0,0,0,0,
92,-10.27,39.71,32.44,36.91,4.926,7.621,8.643,21.04,42.72,18.62,-6.193,-11.14,13.39,15.14,-20.59,-6.668,0,0,0,0,0,0,0,0,0,0,0,0,0,0,0,0,
93,-22.53,33.34,9.962,20.29,-16.35,-26.09,-6.758,17.12,-12.37,-2.707,24.16,-20.57,11.81,17.79,-26.4,-9.284,0,0,0,0,0,0,0,0,0,0,0,0,0,0,0,0,
94,-45.45,21.45,-8.138,10.12,-27.68,-43.66,-12.83,22.42,-23.95,13.16,3.393,-26.54,0.48,10.2,-30.64,-16.82,0,0,0,0,0,0,0,0,0,0,0,0,0,0,0,0,
95,-44.38,8.766,-2.889,12.66,-15.29,-35.97,-21.78,15.34,47.92,42.92,-22.83,-27.76,-15.38,1.885,-32.27,-26.46,0,0,0,0,0,0,0,0,0,0,0,0,0,0,0,0,
96,-32.66,-6.734,2.942,12.42,-2.023,-29.41,-32.04,3.343,42.45,29.49,-37.49,-27.09,-15.54,7.285,-24.87,-26,0,0,0,0,0,0,0,0,0,0,0,0,0,0,0,0,
97,-31.32,-8.121,-2.137,5.669,-4.189,-28.1,-27.77,-1.206,-24.74,4.26,-23.12,-21.06,-5.6,11.85,-23.2,-23.97,0,0,0,0,0,0,0,0,0,0,0,0,0,0,0,0,
98,-35.15,-4.042,-10.38,-10.73,-18.62,-32.56,-28.35,-10.19,-23.32,0.4583,0.4379,-25.41,-11.56,-4.288,-38.66,-31.43,0,0,0,0,0,0,0,0,0,0,0,0,0,0,0,0,
99,-43.12,-6.47,-16.38,-25.66,-27.45,-36.88,-33.2,-16.18,0.7506,1.092,-40.97,-45.64,-30.82,-18.7,-51.78,-38.85,0,0,0,0,0,0,0,0,0,0,0,0,0,0,0,0,
100,-42.89,-2.191,-8.62,-15.7,-4.804,-18.03,-19.91,-8.823,9.295,2.525,-65.53,-44.63,-40.92,-8.932,-40.36,-31.82,0,0,0,0,0,0,0,0,0,0,0,0,0,0,0,0,
101,-23.11,3.501,15.83,9.635,32.01,11.23,-4.818,1.622,50.15,-9.104,12.89,-17.29,-38.56,-3.481,-16.31,-16.49,0,0,0,0,0,0,0,0,0,0,0,0,0,0,0,0,
102,-20.56,-3.933,21.28,13.5,31.05,6.304,-9.129,0.9068,86.43,-49.84,68.57,-12.78,-43.68,-28.58,-16.13,-21.67,0,0,0,0,0,0,0,0,0,0,0,0,0,0,0,0,
103,-44.2,-11.21,-3.958,-2.96,2.739,-19.45,-17.04,-11.15,54.9,-54.77,23.93,-30.23,-49.68,-42.36,-34.88,-38.65,0,0,0,0,0,0,0,0,0,0,0,0,0,0,0,0,
104,-40.78,-5.131,-10.27,-3.073,-1.611,-17.45,-10.07,-10.95,-11.57,2.135,-20.88,-25.63,-30.38,-11.32,-32.81,-28.89,0,0,0,0,0,0,0,0,0,0,0,0,0,0,0,0,
105,-15.96,3.256,6.658,9.428,9.981,-0.0777,3.529,6.082,-12.46,26.35,-10.7,-9.683,-9.563,15.24,-19.16,-12.09,0,0,0,0,0,0,0,0,0,0,0,0,0,0,0,0,
106,-8.947,7.123,9.192,12.32,14.91,11.42,13.11,11.81,54.8,14.97,17.59,-5.614,-14.21,4.943,-22.31,-20.25,0,0,0,0,0,0,0,0,0,0,0,0,0,0,0,0,
107,3.859,13.4,15.15,18.62,27.06,33.04,20.86,3.597,62.19,29.16,18.72,-4.238,-22.25,-11.02,-30.67,-33.69,0,0,0,0,0,0,0,0,0,0,0,0,0,0,0,0,
108,23.31,19.09,32.68,26.82,41.41,48.82,23.18,0.1369,26.72,15.23,-22.78,-5.562,-19.94,-11.82,-26.43,-32.64,0,0,0,0,0,0,0,0,0,0,0,0,0,0,0,0,
109,17.09,19,33.15,22.79,44.95,40.69,18.79,-0.2013,63.3,-23.36,-17.17,-1.636,-9.847,-1.519,-9.096,-18.15,0,0,0,0,0,0,0,0,0,0,0,0,0,0,0,0,
110,5.952,13.81,25.14,15.45,42.73,26.15,12.63,-8.808,83.73,-11.28,60.12,11.77,-0.8124,-1.535,1.056,-6.03,0,0,0,0,0,0,0,0,0,0,0,0,0,0,0,0,
111,9.57,5.472,22.41,6.208,34.23,10.47,5.269,-17.58,31.66,11.1,35.61,15.15,-0.783,-10.84,-0.6872,-1.585,0,0,0,0,0,0,0,0,0,0,0,0,0,0,0,0,
112,15.79,10.27,23.49,6.199,33.03,7.38,6.729,-8.518,37.41,13.48,-53.57,23.49,12.61,5.727,17.45,16.11,0,0,0,0,0,0,0,0,0,0,0,0,0,0,0,0,
113,18.43,24.59,28.17,23.37,42.13,22.15,13.21,0.5322,81.15,22.51,21.91,41.01,30.62,22.21,36.17,26.2,0,0,0,0,0,0,0,0,0,0,0,0,0,0,0,0,
114,8.091,15.03,16.61,19.4,28.25,16.98,1.438,-14.34,62.46,13.56,130.6,27.32,15.48,5.172,13.81,1.695,0,0,0,0,0,0,0,0,0,0,0,0,0,0,0,0,
115,-7.535,-6.776,-5.813,-4.254,2.553,-1.233,-14.61,-25.62,45.83,-9.559,76.78,-2.808,-6.946,-3.138,-12.61,-17.4,0,0,0,0,0,0,0,0,0,0,0,0,0,0,0,0,
116,-9.861,-7.766,-9.055,-4.547,3.127,1.787,-12.31,-16.28,50.24,-7.401,10.21,-13.14,-5.92,4.119,-14.81,-14.05,0,0,0,0,0,0,0,0,0,0,0,0,0,0,0,0,
117,-5.262,0.3715,-2.562,2.82,13.6,7.094,-5.119,-9.002,9.377,17.49,-6.198,-15.69,3.057,4.408,-14.44,-10.2,0,0,0,0,0,0,0,0,0,0,0,0,0,0,0,0,
118,3.584,4.726,3.252,-0.0225,13.01,4.917,-3.464,-8.817,-26.51,21.51,-48.61,-13.34,8.707,7.301,-10.63,-3.595,0,0,0,0,0,0,0,0,0,0,0,0,0,0,0,0,
119,12.57,4.97,9.403,4.011,6.784,5.555,-10.74,-13.15,-15.38,-24.41,-45.21,-4.046,3.164,-3.016,-3.713,0.8292,0,0,0,0,0,0,0,0,0,0,0,0,0,0,0,0,
120,14.83,-2.005,2.516,6.06,-0.4167,3.431,-22.2,-20.76,-4.848,-38.75,14.83,6.916,-0.3927,-18.06,2.743,4.374,0,0,0,0,0,0,0,0,0,0,0,0,0,0,0,0,
121,23.54,-1.171,-4.161,0.4184,-3.447,5.078,-18.57,-23.6,21.28,20.64,38.25,25.14,16.97,-4.764,16.02,19.74,0,0,0,0,0,0,0,0,0,0,0,0,0,0,0,0,
122,18.83,8.371,-3.916,-4.4,-13.7,3.202,-11.75,-31.14,61.45,23.57,19.23,27.12,24.81,4.284,17.22,23.27,0,0,0,0,0,0,0,0,0,0,0,0,0,0,0,0,
123,-9.935,9.39,-18.38,-13.64,-31.13,-12.37,-15.9,-40.4,38.4,-40.56,-0.2907,6.595,13.76,-3.853,7.745,12.3,0,0,0,0,0,0,0,0,0,0,0,0,0,0,0,0,
124,-8.943,9.708,-27.57,-17.49,-24.64,-14.71,-13.84,-34.88,-1.568,-36.91,5.143,4.826,13.89,0.3287,15,17.16,0,0,0,0,0,0,0,0,0,0,0,0,0,0,0,0,
125,14.21,15.16,-18.48,-11.45,-6.178,-4.175,-10.1,-27.79,18.33,0.3956,7.539,12.08,17.56,0.2608,20.67,22.33,0,0,0,0,0,0,0,0,0,0,0,0,0,0,0,0,
126,17.9,23,-17.53,-8.218,-2.116,5.705,-2.688,-20.48,20.69,-8.422,-16.8,4.946,19.13,-6.007,10.91,10.97,0,0,0,0,0,0,0,0,0,0,0,0,0,0,0,0,
127,35.53,40.47,-10.45,2.982,4.762,30.29,27.02,-3.079,-15.16,6.574,-39.64,9.681,32.46,7.035,10.57,9.556,0,0,0,0,0,0,0,0,0,0,0,0,0,0,0,0,
128,46.47,50.46,3.519,15.25,1.689,39.16,41.23,-0.0039,-6.845,54.84,-75,13.94,37.39,15.13,15.21,16.76,0,0,0,0,0,0,0,0,0,0,0,0,0,0,0,0,
129,3.517,39.27,-10.75,5.333,-23.33,12.58,23.4,-10.51,23.42,33.06,-70.32,1.803,26.66,4.092,13.07,11.71,0,0,0,0,0,0,0,0,0,0,0,0,0,0,0,0,
130,-9.413,36.53,-15.23,4.327,-14.27,18.37,31.95,-1.193,41.05,-22.97,52.32,22.32,33.03,10.79,26.6,15.82,0,0,0,0,0,0,0,0,0,0,0,0,0,0,0,0,
131,51.59,51.2,19.52,29.71,30.92,63.71,63.62,16.64,72.02,10.72,147.1,71.01,54.58,32.22,54.75,37.57,0,0,0,0,0,0,0,0,0,0,0,0,0,0,0,0,
132,86.66,54.9,29.78,35.25,38.38,68.34,58.68,13.69,78.6,66.58,113.4,78.98,50.7,21.26,59.33,37.73,0,0,0,0,0,0,0,0,0,0,0,0,0,0,0,0,
133,54,38.83,-3.137,9.305,1.954,25.75,26.52,-3.088,38.29,24.11,69.46,46.25,20.87,-12.59,33.95,13.52,0,0,0,0,0,0,0,0,0,0,0,0,0,0,0,0,
134,14.74,18.7,-29.82,-10.81,-24.75,-9.644,8.351,-11.66,8.984,-31.73,52.59,26.29,9.528,-15.67,18.55,8.761,0,0,0,0,0,0,0,0,0,0,0,0,0,0,0,0,
135,11.61,15.56,-30.44,-8.409,-21.84,-18.9,10.72,-3.468,11.78,-2.271,29.81,32.89,27.65,9.535,31,26.68,0,0,0,0,0,0,0,0,0,0,0,0,0,0,0,0,
136,29.52,30.24,-16.56,2.962,-8.176,-12.84,19.8,5.473,18.71,48.35,10.16,35.6,38.3,20.33,34.6,26.04,0,0,0,0,0,0,0,0,0,0,0,0,0,0,0,0,
137,25.99,32.32,-13.83,1.847,-8.927,-11.12,17.83,-1.006,8.534,45.49,-2.997,17.85,29.39,13.18,8.418,-1.855,0,0,0,0,0,0,0,0,0,0,0,0,0,0,0,0,
138,-0.0009,19.2,-22.42,-4.25,-16.57,-13.63,13.24,-5.914,-6.645,12.18,10.86,8.754,28.09,9.87,-6.273,-13.98,0,0,0,0,0,0,0,0,0,0,0,0,0,0,0,0,
139,-4.288,25.37,-10.26,7.752,-5.336,1.8,26.36,6.637,11.56,9.707,28.42,23.43,40.12,13.84,13.52,6.753,0,0,0,0,0,0,0,0,0,0,0,0,0,0,0,0,
140,18.38,45.34,5.426,18.38,11.3,23.15,38.33,16.77,53.69,27.96,15.78,27.73,40.21,15.76,24.98,16.66,0,0,0,0,0,0,0,0,0,0,0,0,0,0,0,0,
141,27.51,42.8,-0.4532,12.84,12.55,25.24,35.12,9.727,68.02,12.93,5.842,10.69,22.14,6.151,9.531,-1.201,0,0,0,0,0,0,0,0,0,0,0,0,0,0,0,0,
142,13.4,25.02,6.891,22.46,15.1,24.13,41.84,6.887,51.09,-3.739,11.99,6.427,10.77,-12.6,5.153,-9.393,0,0,0,0,0,0,0,0,0,0,0,0,0,0,0,0,
143,5.862,23.93,29.11,42.66,25.81,30,56.33,20.11,45.81,11.75,36.13,20.96,18.2,-17.89,15.94,0.3165,0,0,0,0,0,0,0,0,0,0,0,0,0,0,0,0,
144,9.854,30.78,28.07,36.08,27.43,25.19,48.38,20.62,44.82,15.85,22.79,18.87,24.38,-3.316,9.434,3.39,0,0,0,0,0,0,0,0,0,0,0,0,0,0,0,0,
145,13.35,21.23,20.16,20.74,26.14,21.34,28.19,3.793,-1.621,20.98,-73.01,3.604,24.54,10.78,1.534,6.596,0,0,0,0,0,0,0,0,0,0,0,0,0,0,0,0,
146,27.98,15.13,29.93,28.53,35.66,35.36,24.94,6.853,-25.22,51.09,-65.95,16.74,35.4,18.64,17.04,21.24,0,0,0,0,0,0,0,0,0,0,0,0,0,0,0,0,
147,34.81,24.75,28.57,31.28,29.81,32.96,24.21,15.39,35.85,39.35,79.66,27.67,29.99,9.209,13.77,11.9,0,0,0,0,0,0,0,0,0,0,0,0,0,0,0,0,
148,0.409,13.11,-0.0534,4.039,-8.097,-2.664,5.57,-6.823,31.64,-11.66,88.09,-10.74,-9.632,-25.56,-22.22,-26.01,0,0,0,0,0,0,0,0,0,0,0,0,0,0,0,0,
149,-26.04,-6.425,-14.97,-9.349,-23.29,-12.57,5.689,-13.94,-35.22,-5.401,-18.33,-29.23,-13.53,-30.12,-22.74,-20.69,0,0,0,0,0,0,0,0,0,0,0,0,0,0,0,0,
150,8.971,21.53,11.17,23.98,13.93,30.16,45.92,23.35,27.55,48.4,-30.24,10.53,33.89,8.689,12.53,24.71,0,0,0,0,0,0,0,0,0,0,0,0,0,0,0,0,
151,49.87,55.09,33.72,52.52,31.3,54.41,63.42,37.62,89.4,47.71,-3.312,21.18,40.24,8.908,10.69,18.69,0,0,0,0,0,0,0,0,0,0,0,0,0,0,0,0,
152,27.94,30.59,13.78,32.5,-2.962,22.87,29.59,6.143,16.59,-12.9,17.4,-7.124,4.066,-26.69,-12.91,-21.66,0,0,0,0,0,0,0,0,0,0,0,0,0,0,0,0,
153,-18.96,-0.935,-9.928,6.728,-21.4,-2.688,10.29,-9.479,-12.91,-25.33,28.29,-11.78,-0.2309,-28.31,-11.39,-23.86,0,0,0,0,0,0,0,0,0,0,0,0,0,0,0,0,
154,-19.89,7.563,-5.174,13.71,-11.31,5.4,25.96,7.778,-20.88,35.84,-39.4,-13.51,7.664,-16.65,-9.536,-16.48,0,0,0,0,0,0,0,0,0,0,0,0,0,0,0,0,
155,3.093,9.055,-4.665,20.55,-20.95,-2.235,21.31,15.52,-81.99,50.88,-74.49,-26.12,-8.768,-21.46,-16.32,-26.14,0,0,0,0,0,0,0,0,0,0,0,0,0,0,0,0,
156,-9.089,-18.33,-23.04,1.588,-42.76,-34.96,-11.04,-1.633,-57.68,-7.916,-17.86,-22.62,-20.57,-22.39,-11.98,-23.6,0,0,0,0,0,0,0,0,0,0,0,0,0,0,0,0,
157,-31.01,-30.46,-23.79,-8.561,-38.24,-38.82,-22.11,-10.76,-16.49,-27.54,-13.6,-16.97,-13.33,-18.71,-6.449,-12.22,0,0,0,0,0,0,0,0,0,0,0,0,0,0,0,0,
158,-3.972,-10.37,5.18,14.37,-2.279,0.4332,-0.9109,7.19,-24.32,-1.607,-36.17,-12.21,-3.887,-14.48,-6.071,-9.414,0,0,0,0,0,0,0,0,0,0,0,0,0,0,0,0,
159,40.29,5.601,25.14,32.96,24.87,20.46,10.87,19.81,44.7,-2.326,-27.96,-4.245,-3.564,-10.43,-7.59,-10.4,0,0,0,0,0,0,0,0,0,0,0,0,0,0,0,0,
160,24.01,-2.691,14.75,22.82,7.169,-8.143,-0.0137,10.46,65.63,0.1215,-54.68,-10.32,-3.422,-8.44,-6.505,-3.554,0,0,0,0,0,0,0,0,0,0,0,0,0,0,0,0,
161,-14.23,-3.478,3.681,15.39,-13.55,-23.8,0.7107,6.408,-30.61,30.23,-33.17,-7.961,12.67,3.736,4.934,12.63,0,0,0,0,0,0,0,0,0,0,0,0,0,0,0,0,
162,6.721,16.02,3.403,13.06,-5.944,-9.895,8.675,6.37,-32.32,22.84,58.83,4.482,23.94,8.106,4.542,13.99,0,0,0,0,0,0,0,0,0,0,0,0,0,0,0,0,
163,23.37,18.54,-6.194,-6.96,-8.289,-14.92,-1.042,-4.933,8.275,-18.27,57.73,-7.382,13.74,-6.987,-10.23,1.062,0,0,0,0,0,0,0,0,0,0,0,0,0,0,0,0,
164,2.43,7.83,-1.813,-9.597,-2.338,-8.03,6.267,-3.431,-25.11,-3.668,1.917,-6.097,17.6,0.0826,3.941,10.58,0,0,0,0,0,0,0,0,0,0,0,0,0,0,0,0,
165,31.5,23.22,32.59,24.27,33.71,36.61,41.53,18.56,15.64,42.83,15.14,28.58,41.23,22.78,34.56,32.42,0,0,0,0,0,0,0,0,0,0,0,0,0,0,0,0,
166,62.49,42.58,44.13,42.09,37.1,48.53,50.36,30.63,82.39,29.47,32.22,36.81,50.11,24.06,38.25,35.44,0,0,0,0,0,0,0,0,0,0,0,0,0,0,0,0,
167,28.87,35.03,23,27.68,13.36,25.05,30.08,21.26,16.45,6.054,12.77,21.83,48.81,27.7,31.1,30.68,0,0,0,0,0,0,0,0,0,0,0,0,0,0,0,0,
168,18.75,24.13,14.81,12.28,13.05,20.8,19.53,2.859,-27.54,23.28,15.47,26.88,45.39,29.33,28.01,23.99,0,0,0,0,0,0,0,0,0,0,0,0,0,0,0,0,
169,30.33,20.24,16.66,5.564,10.13,22.69,20.34,-5.605,46.3,22.56,36.34,33.66,31.17,3.049,20.8,13.01,0,0,0,0,0,0,0,0,0,0,0,0,0,0,0,0,
170,21.86,18.4,19.61,12.65,8.884,29.33,27.63,6.854,59.5,25.81,11.99,29.61,27.19,-5.54,23.09,14.01,0,0,0,0,0,0,0,0,0,0,0,0,0,0,0,0,
171,45.91,27.51,29.26,23.47,26.7,46.05,31.24,16.87,-1.412,43.72,-22.02,33.37,33.93,11.03,32.63,20.2,0,0,0,0,0,0,0,0,0,0,0,0,0,0,0,0,
172,56.04,28.75,20.05,10.56,20.03,34.23,14.67,4.043,6.72,4.885,31,41.26,24.66,4.954,29.63,16.04,0,0,0,0,0,0,0,0,0,0,0,0,0,0,0,0,
173,17.8,12.81,-0.6628,-9.81,1.377,10.82,0.6076,-8.61,30.99,-25.63,58.01,37.2,19.13,-3.985,21.68,14.62,0,0,0,0,0,0,0,0,0,0,0,0,0,0,0,0,
174,10.98,13.46,-2.019,-13.56,1.092,7.837,4.536,-5.645,11.71,5.473,-40.15,23.95,33.63,3.168,23.44,21.68,0,0,0,0,0,0,0,0,0,0,0,0,0,0,0,0,
175,9.819,27.58,-0.9844,-14,-8.608,1.173,6.149,-1.792,32.98,15.49,-45.67,21.78,42.13,4.206,33.03,29.1,0,0,0,0,0,0,0,0,0,0,0,0,0,0,0,0,
176,-7.858,24.24,-3.925,-13.37,-11.74,-0.9961,4.152,-3.167,37.85,10.51,75.11,29.51,36.95,5.835,33.74,31.57,0,0,0,0,0,0,0,0,0,0,0,0,0,0,0,0,
177,13.99,9.596,-2.111,-11.01,2.929,9.145,-0.767,-8.884,-36.38,10.21,80.06,22.63,24.77,1.622,16.32,22.43,0,0,0,0,0,0,0,0,0,0,0,0,0,0,0,0,
178,21.03,-4.149,-11.5,-16.72,-2.934,1.472,-12.64,-14.28,-39.98,-6.695,17.32,9.39,17.01,-10.09,7.113,15.5,0,0,0,0,0,0,0,0,0,0,0,0,0,0,0,0,
179,-1.027,-10.47,-15.3,-12.57,-2.826,-1.134,-8.596,-4.473,24.8,12.74,22.9,14.16,26.92,2.311,21.17,26.13,0,0,0,0,0,0,0,0,0,0,0,0,0,0,0,0,
180,18.17,-4.603,5.514,6.872,21.38,15.48,8.004,12.55,20.6,33.42,27.89,28.37,29.91,11.85,32.39,35.69,0,0,0,0,0,0,0,0,0,0,0,0,0,0,0,0,
181,27.19,-3.864,13.54,9.926,16.48,10.23,6.513,12.92,16.1,-4.193,24.07,33.78,17.32,-4.617,31.23,33.1,0,0,0,0,0,0,0,0,0,0,0,0,0,0,0,0,
182,6.735,-6.34,-2.921,-6.664,-6.865,-2.277,-2.223,-0.184,36.27,-5.177,18.57,26.15,17.84,-9.153,26.4,24.9,0,0,0,0,0,0,0,0,0,0,0,0,0,0,0,0,
183,15.38,4.954,-12.43,-17.72,-6.543,3.443,-1.548,-11.67,8.541,23.39,-3.027,14.57,16.16,-17.13,14.62,9.227,0,0,0,0,0,0,0,0,0,0,0,0,0,0,0,0,
184,11.29,6.8,-10.54,-14.65,1.887,0.7722,-2.78,-14.44,12.27,-16.19,29.85,10.51,1.744,-41.73,6.779,1.2,0,0,0,0,0,0,0,0,0,0,0,0,0,0,0,0,
185,1.175,-7.952,-4.142,-4.405,15.2,-0.3914,-4.891,-4.992,41.24,-37.34,42.62,11.41,12.82,-34.01,20.27,20.39,0,0,0,0,0,0,0,0,0,0,0,0,0,0,0,0,
186,39.4,-5.212,3.999,-0.6441,32.21,11.9,-3.336,3.87,6.22,12.46,-47.92,19.93,40.35,-6.697,46.32,49.96,0,0,0,0,0,0,0,0,0,0,0,0,0,0,0,0,
187,42.47,4.489,-4.102,-9.454,18.44,-2.591,-11.44,-5.141,-6.337,21.99,-57.38,35.28,40.11,-1.969,56.99,57.08,0,0,0,0,0,0,0,0,0,0,0,0,0,0,0,0,
188,-14.12,-14.2,-25.77,-22.21,-15.56,-36.01,-30.39,-23.54,24.48,-0.134,55.09,29.18,12.82,-11.02,34.25,33.08,0,0,0,0,0,0,0,0,0,0,0,0,0,0,0,0,
189,-32.28,-37,-28,-26.83,-21.18,-40.68,-34.88,-26.97,14.55,9.659,86.05,6.024,-12.45,-25.27,5.389,8.915,0,0,0,0,0,0,0,0,0,0,0,0,0,0,0,0,
190,-15.54,-23.05,-3.41,-8.106,4.014,-24.2,-11.65,-6.597,-0.2911,-6.528,41.81,3.739,-14.13,-27.45,5.758,6.528,0,0,0,0,0,0,0,0,0,0,0,0,0,0,0,0,
191,-11.55,5.077,17.83,23.02,19.65,-14.7,8.842,14.39,3.223,-25.48,9.956,1.748,-6.333,-12.57,4.808,-4.59,0,0,0,0,0,0,0,0,0,0,0,0,0,0,0,0,
192,-10.84,-0.7178,13.95,26.51,8.513,-11.81,1.063,8.696,-3.949,11.36,-54.54,-29.11,-18.84,-23.03,-25.16,-29.96,0,0,0,0,0,0,0,0,0,0,0,0,0,0,0,0,
193,-7.809,-28.91,-0.7739,8.816,0.9447,-7.991,-12.6,-9.59,-9.793,4.382,-71.92,-43.61,-36.8,-50.11,-36.42,-27.81,0,0,0,0,0,0,0,0,0,0,0,0,0,0,0,0,
194,-8.27,-40.37,-7.612,2.35,3.578,-12.18,-18.73,-14.08,-14.43,-42,6.852,-25.24,-38.28,-49.92,-11.83,-9.73,0,0,0,0,0,0,0,0,0,0,0,0,0,0,0,0,
195,-33.34,-43.79,-13.18,-4.946,-13.92,-34.45,-29.51,-11.87,-13.78,-13.02,25.49,-19.98,-33.11,-37.88,4.895,-9.892,0,0,0,0,0,0,0,0,0,0,0,0,0,0,0,0,
196,-72.27,-50.26,-15.05,-11.39,-25.74,-49.16,-33.31,-10.52,-4.744,11.74,13.78,-19.9,-22.54,-30.24,10.94,-9.031,0,0,0,0,0,0,0,0,0,0,0,0,0,0,0,0,
197,-63.05,-39.83,-3.543,0.8931,-2.274,-35.72,-22.74,-3.955,3.424,-9.487,39.92,-10.08,-15.37,-23.42,9.94,-6.842,0,0,0,0,0,0,0,0,0,0,0,0,0,0,0,0,
198,-23.69,-24.26,-1.058,2.824,9.413,-25.56,-17.59,-2.639,15.96,10.31,-53.72,-31.65,-30.98,-26.53,-19.79,-27.74,0,0,0,0,0,0,0,0,0,0,0,0,0,0,0,0,
199,-19.4,-31.67,-16.17,-13.24,-4.822,-34.1,-22.28,-12.52,-0.4714,-11.6,-142,-63.09,-52.2,-37.88,-46.68,-48.65,0,0,0,0,0,0,0,0,0,0,0,0,0,0,0,0,
200,-33.63,-50.68,-23.24,-17.51,-5.438,-34.63,-27.41,-17,-32.06,-90.03,-6.713,-50.26,-61.23,-62.89,-42.38,-50.69,0,0,0,0,0,0,0,0,0,0,0,0,0,0,0,0,
201,-27.85,-53.98,-11.53,-7.348,10.08,-14.68,-19.16,-2.725,-8.77,-52.46,93.49,-24.75,-57.68,-84.2,-37.4,-46.04,0,0,0,0,0,0,0,0,0,0,0,0,0,0,0,0,
202,-3.053,-32.95,11.28,14.78,24.22,8.377,7.039,20.09,17.36,38.06,17.81,-21.49,-38.45,-59.39,-39.58,-34.78,0,0,0,0,0,0,0,0,0,0,0,0,0,0,0,0,
203,10.87,-14.2,18.53,26.47,18.83,5.921,16.58,20.87,0.7708,15.92,-23.58,-30.72,-30.46,-37.09,-42.67,-29.81,0,0,0,0,0,0,0,0,0,0,0,0,0,0,0,0,
204,-3.972,-22.16,0.2221,5.017,-0.9336,-9.902,2.439,2.354,-0.0987,-30.12,-20.56,-38.7,-42.81,-59.84,-46.76,-36.76,0,0,0,0,0,0,0,0,0,0,0,0,0,0,0,0,
205,-14.75,-27.85,-1.354,0.8014,2.824,-3.018,3.949,4.764,-0.3541,-11.53,-17.49,-28.33,-40.25,-60.75,-37.47,-30.24,0,0,0,0,0,0,0,0,0,0,0,0,0,0,0,0,
206,-17.34,-19.52,11.23,24.55,11.93,-0.9635,7.511,14.86,-16.95,-9.947,0.3635,-20.52,-39.62,-48.3,-33.13,-25.96,0,0,0,0,0,0,0,0,0,0,0,0,0,0,0,0,
207,-28.16,-26.29,1.756,19.97,0.6442,-17.02,-7.775,0.9887,0.1191,-40.49,-20.12,-25.87,-56.66,-71.93,-36.43,-41.98,0,0,0,0,0,0,0,0,0,0,0,0,0,0,0,0,
208,-8.009,-28.9,-1.189,7.465,7.424,-5.056,-9.29,-6.28,25.87,-31.3,-1.457,-0.4105,-48.17,-74.45,-16.69,-42.55,0,0,0,0,0,0,0,0,0,0,0,0,0,0,0,0,
209,26.35,-10.86,4.619,9.54,21.12,9.133,-2.526,2.182,19.7,-9.67,28.36,22.53,-33.7,-56.72,-11.44,-33.6,0,0,0,0,0,0,0,0,0,0,0,0,0,0,0,0,
210,13.24,-13.36,-11.34,-5.716,7.06,-15.93,-12.76,-1.978,7.136,-26.45,-59.33,-9.248,-54.24,-76.24,-36.54,-50.94,0,0,0,0,0,0,0,0,0,0,0,0,0,0,0,0,
211,-21.22,-38.31,-24,-20.1,-8.715,-43.88,-27.16,-11.14,1.991,-30.4,-57.81,-32.18,-69.89,-85.99,-36.62,-65.24,0,0,0,0,0,0,0,0,0,0,0,0,0,0,0,0,
212,-45.74,-50.03,-32.59,-23.33,-21.35,-60.02,-45.59,-21.27,-5.454,-20.79,75.08,-19.83,-57.33,-57.79,-28.71,-44.76,0,0,0,0,0,0,0,0,0,0,0,0,0,0,0,0,
213,-51.83,-44.26,-44.2,-33.65,-27.62,-61.54,-54.63,-28.92,-23.13,-47.58,53.03,-17.76,-34.46,-34.27,-36.67,-12.02,0,0,0,0,0,0,0,0,0,0,0,0,0,0,0,0,
214,-19.02,-26.99,-22.94,-22.5,-6.879,-36.66,-29.98,-7.674,-28.76,-40.43,-26.24,-9.769,-6.523,-15.54,-14.35,14.12,0,0,0,0,0,0,0,0,0,0,0,0,0,0,0,0,
215,-3.01,-14.69,-2.023,-1.35,-0.9262,-35.32,-15.86,11.1,3.678,10.21,20.94,7.674,2.1,-5.304,18.28,28.2,0,0,0,0,0,0,0,0,0,0,0,0,0,0,0,0,
216,-50.23,-32.97,-27.54,-19.87,-31.12,-74.62,-44.69,-12.92,8.674,-15.52,23.52,-15.53,-27.1,-31.02,-3.339,8.638,0,0,0,0,0,0,0,0,0,0,0,0,0,0,0,0,
217,-91.98,-65.13,-49.76,-44.64,-48.27,-92.54,-66.03,-28.11,-51.02,-60.23,-61.65,-61.81,-58.98,-60.12,-51.1,-31.42,0,0,0,0,0,0,0,0,0,0,0,0,0,0,0,0,
218,-85.74,-72.88,-37.39,-31.29,-37.21,-77,-55.44,-3.794,-72.55,-13.31,-83.93,-68.6,-63.09,-53.25,-60.42,-41.89,0,0,0,0,0,0,0,0,0,0,0,0,0,0,0,0,
219,-75.78,-63.13,-27.89,-17.03,-26.12,-70.79,-49.53,4.2,-34.32,5.9,-36.19,-51.73,-61.99,-48.71,-49.74,-39.9,0,0,0,0,0,0,0,0,0,0,0,0,0,0,0,0,
220,-90.74,-60.79,-38.72,-29.11,-31.79,-79.97,-53.18,-9.529,-26.37,-52.33,-34.22,-60.07,-64.3,-63.72,-56.86,-51.01,0,0,0,0,0,0,0,0,0,0,0,0,0,0,0,0,
221,-95.56,-48.09,-40.29,-23.77,-32.8,-68.7,-36.81,6.05,-36.77,-45.14,-111.3,-64.9,-36.23,-42.37,-44.31,-25.92,0,0,0,0,0,0,0,0,0,0,0,0,0,0,0,0,
222,-62.52,-18.14,-14.96,9.614,-9.385,-34.9,-14.26,27.38,-38.75,-3.077,-109.3,-41.63,-6.575,-11.73,-16.27,4.18,0,0,0,0,0,0,0,0,0,0,0,0,0,0,0,0,
223,-40.42,-15.25,2.654,15.32,-0.8377,-22.63,-15.13,11.62,-70.69,-47.14,15.69,-36.82,-30.26,-44.56,-37.83,-33.14,0,0,0,0,0,0,0,0,0,0,0,0,0,0,0,0,
224,-50.12,-40.25,-0.9733,0.623,-13.24,-22.44,-20.09,-2.414,-88.07,-77.73,52.23,-45.26,-49.51,-68.65,-60.69,-56.86,0,0,0,0,0,0,0,0,0,0,0,0,0,0,0,0,
225,-34.85,-44.56,10.37,13.69,5.969,3.282,-12.48,12.67,-23.74,-8.148,-20.07,-25.3,-15.08,-22.12,-24.87,-14.36,0,0,0,0,0,0,0,0,0,0,0,0,0,0,0,0,
226,3.921,-24.86,34.98,28.48,38.58,26.66,-3.555,27.62,64.02,45.28,-33.64,-4.085,13.1,9.305,-0.3729,5.484,0,0,0,0,0,0,0,0,0,0,0,0,0,0,0,0,
227,16.83,-5.132,43.21,26.14,40.75,27.58,8.703,33.95,75.7,22.72,1.426,0.8355,12.2,-3.894,-10.89,-7.071,0,0,0,0,0,0,0,0,0,0,0,0,0,0,0,0,
228,7.249,3.8,36.57,30.65,30.57,25.17,18.62,35.37,21.33,-8.511,22.9,8.149,8.463,-10.78,-7.064,-1.092,0,0,0,0,0,0,0,0,0,0,0,0,0,0,0,0,
229,-0.1675,-0.8001,25.78,27.65,21.2,16.25,14.79,28.53,-14.79,-26.72,16.63,4.374,-3.19,-13.67,-5.852,2.114,0,0,0,0,0,0,0,0,0,0,0,0,0,0,0,0,
230,-0.6001,-5.269,19.45,12.38,13.73,5.252,7.689,24.12,-35.11,-35.14,-24.13,-11.05,-11.6,-16.4,-19.08,-5.282,0,0,0,0,0,0,0,0,0,0,0,0,0,0,0,0,
231,-3.559,-4.844,21.98,9.198,18.34,8.724,0.3999,20.62,-61.69,-12.54,-22.5,-12.8,-0.9354,-6.817,-17.63,-2.747,0,0,0,0,0,0,0,0,0,0,0,0,0,0,0,0,
232,-7.682,-11.2,19.25,6.512,17.2,11.23,-8.95,9.994,-28.43,2.714,4.591,-10.1,4.247,-4.988,-15.45,-2.345,0,0,0,0,0,0,0,0,0,0,0,0,0,0,0,0,
233,0.6661,-13.8,9.587,0.4637,5.594,6.277,-4.885,10.3,40.65,-17.87,-26.47,-5.682,3.375,-8.448,-13.59,2.216,0,0,0,0,0,0,0,0,0,0,0,0,0,0,0,0,
234,18.24,6.702,22.87,18.41,22.02,24.63,21.28,30.74,54.08,3.99,-0.5791,29.53,26.91,8.94,21.93,30.65,0,0,0,0,0,0,0,0,0,0,0,0,0,0,0,0,
235,39.88,35.4,55.88,43.97,56.76,57.49,46.31,39.63,41.53,55.24,67.98,62.82,49.9,22.29,49.51,44.21,0,0,0,0,0,0,0,0,0,0,0,0,0,0,0,0,
236,45.88,36.54,49.89,32.04,46.44,44.71,37,16.67,21.89,17.25,-12.26,39.62,33.23,5.491,21.85,17.51,0,0,0,0,0,0,0,0,0,0,0,0,0,0,0,0,
237,20.49,17.38,5.399,-1.1,6.967,3.258,8.967,-0.1437,-27.16,-36.31,-74.11,15.32,13.57,-2.554,3.13,4.837,0,0,0,0,0,0,0,0,0,0,0,0,0,0,0,0,
238,13.76,12.53,-10.5,-9.44,3.383,1.956,-3.889,8.423,-44.6,-1.377,49.26,34.21,15.15,7.822,22.47,18.85,0,0,0,0,0,0,0,0,0,0,0,0,0,0,0,0,
239,29.85,8.016,-3.92,-6.826,10.82,10.84,-15.16,5.351,-4.623,3.672,100.2,33.73,8.116,1.771,21.06,13.99,0,0,0,0,0,0,0,0,0,0,0,0,0,0,0,0,
240,11.04,-4.09,-9.281,-13.05,-1.924,-1.584,-21.98,-2.454,41.23,-36.74,21.18,17.99,10.41,4.15,13.3,9.929,0,0,0,0,0,0,0,0,0,0,0,0,0,0,0,0,
241,2.047,9.274,2.343,-2.362,7.671,16.06,1.427,11.98,60,0.7134,28.66,41.25,37.37,29.13,36.29,31.53,0,0,0,0,0,0,0,0,0,0,0,0,0,0,0,0,
242,40.43,31.88,29.81,17.66,37.19,52.54,28.55,20.6,44.88,41.6,78.95,68.07,52.09,36.3,54.53,47.25,0,0,0,0,0,0,0,0,0,0,0,0,0,0,0,0,
243,65.13,40.86,41.57,22.05,47.91,65.77,40.8,22.37,31.87,13.92,67.08,74.59,59.15,37.72,56.38,52.65,0,0,0,0,0,0,0,0,0,0,0,0,0,0,0,0,
244,83.45,57.81,46.41,28.06,46.31,76.55,52.31,35.57,33.75,20.17,45.89,79.04,65.11,40.55,52.23,49.51,0,0,0,0,0,0,0,0,0,0,0,0,0,0,0,0,
245,107.2,64.07,40.93,32.23,33.24,74.1,49.95,33.32,-0.368,43.9,37.81,69.72,47.59,18.1,36.01,30.39,0,0,0,0,0,0,0,0,0,0,0,0,0,0,0,0,
246,79.03,44.56,23.57,20.76,12.88,46.07,36.71,22.05,-33.04,6.094,43.63,58.99,35.35,13.18,32.63,28.58,0,0,0,0,0,0,0,0,0,0,0,0,0,0,0,0,
247,38.04,39.3,24.84,19.65,13.99,37.57,36.34,29.68,14.3,-9.036,56.04,59.58,41.69,37.66,44.84,42.16,0,0,0,0,0,0,0,0,0,0,0,0,0,0,0,0,
248,37.36,42.75,29.67,24.18,18.74,38.82,34.14,30.78,65.18,25.87,32.27,40.21,30.73,27.46,33.21,26.4,0,0,0,0,0,0,0,0,0,0,0,0,0,0,0,0,
249,21.57,24,10.6,8.902,-1.889,15.89,19.79,14.45,26.22,12.14,-16.74,9.785,14.68,-0.8587,7.845,2.818,0,0,0,0,0,0,0,0,0,0,0,0,0,0,0,0,
250,3.237,10.42,2.555,1.888,-15.69,11.15,15.66,11.36,-19.31,-8.583,-37.73,6.686,17.28,-2.398,3.357,6.417,0,0,0,0,0,0,0,0,0,0,0,0,0,0,0,0,
251,36.18,21.02,18.06,15.25,-1.971,34.4,19.97,22.89,-3.005,27.54,-11.01,17.76,19.13,-3.621,9.268,9.991,0,0,0,0,0,0,0,0,0,0,0,0,0,0,0,0,
252,46.05,26.75,14.11,9.427,0.5175,23.99,9.082,21.49,-20.91,21.96,18.03,11.22,13.83,-8.352,6.968,3.998,0,0,0,0,0,0,0,0,0,0,0,0,0,0,0,0,
253,-2.801,18.55,-7.418,-12.02,-19.02,-9.901,-3.074,9.562,-77.4,-18.04,5.332,-4.873,13.63,7.31,4.986,15.07,0,0,0,0,0,0,0,0,0,0,0,0,0,0,0,0,
254,-15.39,17.82,-9.257,-10.79,-23.03,-8.308,7.737,13.09,-51.46,14.1,-8.797,-7.353,16.78,25.38,11.33,31.64,0,0,0,0,0,0,0,0,0,0,0,0,0,0,0,0,
255,8.741,23.27,-5.856,-2.183,-19.02,-0.1509,13.68,20.92,-8.674,40.69,-1.277,-5.744,16.05,26.65,15.58,29.62,0,0,0,0,0,0,0,0,0,0,0,0,0,0,0,0,
256,-12.53,16.96,-20.94,-16.65,-35.37,-25.99,-4.106,9.354,-40.14,1.937,-5.234,-15.11,13.53,22.16,10.98,25.88,0,0,0,0,0,0,0,0,0,0,0,0,0,0,0,0,
257,-43.44,5.403,-32.33,-33.15,-41.83,-41.27,-15.64,-5.582,-28.74,-6.785,-19.63,-22.23,15.41,22.43,4.939,32.14,0,0,0,0,0,0,0,0,0,0,0,0,0,0,0,0,
258,-28.07,0.341,-33.45,-32.4,-27.79,-26.23,-20.31,-9.699,14.18,6.428,-32.61,-19.25,17.44,23.12,4.787,31.73,0,0,0,0,0,0,0,0,0,0,0,0,0,0,0,0,
259,-10.25,-2.044,-39.15,-30.64,-28.17,-19.04,-26.37,-4.463,-28.39,-12.09,-32.97,-9.988,16.54,20.79,13.83,27.13,0,0,0,0,0,0,0,0,0,0,0,0,0,0,0,0,
260,-13.36,1.468,-33.57,-28.41,-32.72,-19.24,-11.43,9.065,-52.04,-16.21,-14.83,-1.255,17.75,20.19,20.64,26.88,0,0,0,0,0,0,0,0,0,0,0,0,0,0,0,0,
261,-17.42,7.858,-17.45,-18.36,-25.21,-9.98,5.155,11.49,-19.01,-4.223,-1.635,-6.566,16.27,18.07,9.982,18.31,0,0,0,0,0,0,0,0,0,0,0,0,0,0,0,0,
262,-15.14,2.744,-11.52,-12.36,-15.68,8.075,3.076,7.898,-27.46,-0.9086,13.69,-7.334,14.66,15.92,3.994,12.22,0,0,0,0,0,0,0,0,0,0,0,0,0,0,0,0,
263,9.019,-1.671,2.901,-7.306,4.593,33.48,11.59,23.07,-9.647,18.06,1.164,6.226,16.56,20.22,12.96,19.13,0,0,0,0,0,0,0,0,0,0,0,0,0,0,0,0,
264,18.92,-0.3599,11.98,-5.018,9.35,29.1,10.91,24.75,17.77,23.38,-83.47,-13.01,-3.501,6.989,-2.252,1.9,0,0,0,0,0,0,0,0,0,0,0,0,0,0,0,0,
265,-23.83,-13.46,-20.47,-23.38,-21.22,-11.54,-20.46,-1.906,-36.35,-8.406,-91.04,-41.18,-29.84,-18.62,-22.36,-26.23,0,0,0,0,0,0,0,0,0,0,0,0,0,0,0,0,
266,-30.66,-17.35,-33.6,-32.78,-20.14,-13.52,-25.53,-5.533,-24.45,-18.61,52.33,-11.37,-13.16,-4.615,-1.795,-11.6,0,0,0,0,0,0,0,0,0,0,0,0,0,0,0,0,
267,13.26,-0.9924,0.5352,-14.56,10.05,13.8,-10.91,6.008,35.4,-12.43,84.53,0.7326,-1.851,17.64,-2.301,-3.74,0,0,0,0,0,0,0,0,0,0,0,0,0,0,0,0,
268,-10.64,-19.27,0.0224,-18.5,-10.18,-10.02,-33.22,-11.18,-41.59,-37.65,-55.19,-56.97,-43.96,-10.78,-48.7,-39.88,0,0,0,0,0,0,0,0,0,0,0,0,0,0,0,0,
269,-63.65,-55.85,-31.92,-45.57,-45.81,-47,-49.23,-25.04,-83.13,-48.63,-76.4,-70.36,-61.79,-33.79,-50.16,-42.79,0,0,0,0,0,0,0,0,0,0,0,0,0,0,0,0,
270,-51.36,-45.62,-34.7,-45.68,-39.78,-38.74,-26.89,-8.29,13.49,-14.13,8.814,-25.38,-29.66,-8.308,-11.08,-6.936,0,0,0,0,0,0,0,0,0,0,0,0,0,0,0,0,
271,-31.4,-22.62,-24.55,-27.96,-25.51,-19.95,-15.41,5.359,17.68,14.43,-6.261,-19.06,-19.84,9.969,-5.22,0.1536,0,0,0,0,0,0,0,0,0,0,0,0,0,0,0,0,
272,-27.96,-28.21,-16.13,-23.76,-18.01,-11.22,-22.86,-1.438,-46.6,6.284,-14.99,-28.85,-33.48,-3.892,-12.74,-13.01,0,0,0,0,0,0,0,0,0,0,0,0,0,0,0,0,
273,-13.5,-37.16,-9.549,-30.63,-8.571,-6.846,-33.27,-13.34,-22.96,-27.3,6.365,-21.78,-36.14,-16.69,-10.41,-19.46,0,0,0,0,0,0,0,0,0,0,0,0,0,0,0,0,
274,-12.64,-42.27,-14.99,-36.2,-5.141,-13.41,-49.76,-17.62,-20.58,-53.44,-100.2,-37.46,-41.54,-15.82,-20.02,-24.62,0,0,0,0,0,0,0,0,0,0,0,0,0,0,0,0,
275,-23.81,-50.52,-20.62,-42.06,-12.27,-30.96,-58.14,-21.48,-71.21,-48.8,-139.3,-54.54,-55.38,-22.74,-32.87,-30.85,0,0,0,0,0,0,0,0,0,0,0,0,0,0,0,0,
276,-43.48,-56.22,-27.56,-50.47,-30.97,-53.47,-54.45,-25.94,-31.82,-29.11,25.48,-38.61,-59.62,-34.89,-31.24,-34.38,0,0,0,0,0,0,0,0,0,0,0,0,0,0,0,0,
277,-63.77,-53.48,-26.62,-37.31,-32.97,-53.74,-46,-6.232,33.37,-2.817,75.4,-25,-50.17,-24.72,-26.32,-31.83,0,0,0,0,0,0,0,0,0,0,0,0,0,0,0,0,
278,-49.21,-44.26,-8.306,-14.81,-14.97,-36.04,-36.04,16.45,-22.62,10.64,-29.37,-34.46,-47.79,-19.99,-33.49,-35.1,0,0,0,0,0,0,0,0,0,0,0,0,0,0,0,0,
279,-38.8,-46.27,-11.46,-26.85,-17.11,-41.99,-32.66,5.62,-60.03,-21.42,-22.19,-33.85,-52.95,-39.72,-35.52,-37.24,0,0,0,0,0,0,0,0,0,0,0,0,0,0,0,0,
280,-40.02,-46.73,-19.62,-31.66,-9.322,-37.54,-23.14,2.722,29.57,-55.28,1.942,-16.03,-39.06,-33.54,-22.36,-22.36,0,0,0,0,0,0,0,0,0,0,0,0,0,0,0,0,
281,-3.269,-30.56,-6.744,-7.703,13.02,-12.76,-15.42,14.73,32.94,-40.01,-61.7,-22.71,-28.01,-14.55,-30.1,-26.87,0,0,0,0,0,0,0,0,0,0,0,0,0,0,0,0,
282,-8.425,-36.47,-26.89,-24.16,-22.67,-41.48,-36.12,-3.207,-76.17,-13.19,-48.79,-44.58,-42.14,-25.39,-46.62,-46.9,0,0,0,0,0,0,0,0,0,0,0,0,0,0,0,0,
283,-74.06,-50.54,-49.85,-48.05,-60.23,-76.15,-41.82,-10.92,-82.28,-26.62,-1.206,-30.22,-41.63,-29.41,-24.75,-31.26,0,0,0,0,0,0,0,0,0,0,0,0,0,0,0,0,
284,-63.44,-24.54,-16.02,-15.04,-24.99,-39.75,-10.09,15.36,-32.57,-54.56,-20.9,-4.999,-27.61,-19.03,-2.767,-15.64,0,0,0,0,0,0,0,0,0,0,0,0,0,0,0,0,
285,-12.54,-6.594,2.889,2.803,-5.916,-14.98,-4.108,17.43,-16.98,-21.86,-29.22,-20.16,-41.29,-26.23,-24.6,-39.83,0,0,0,0,0,0,0,0,0,0,0,0,0,0,0,0,
286,-38.89,-33.56,-23.44,-29.39,-39.65,-45.5,-33.07,-3.656,5.343,20.42,-55.53,-58.22,-70.88,-44.98,-56.72,-63.98,0,0,0,0,0,0,0,0,0,0,0,0,0,0,0,0,
287,-72.44,-52.76,-34.11,-43.73,-49.26,-57.63,-45.21,-6.912,-29.45,-34.56,-74.51,-65.5,-77.72,-54.21,-54.66,-56.68,0,0,0,0,0,0,0,0,0,0,0,0,0,0,0,0,
288,-48.46,-35.11,-18.09,-21.12,-21.49,-33.49,-28.83,6.547,-57.23,-70.22,3.726,-26.26,-46.43,-25.63,-20.01,-26.73,0,0,0,0,0,0,0,0,0,0,0,0,0,0,0,0,
289,-24.8,-11.1,1.203,-2.123,-3.539,-18.62,-15.33,13.9,10.86,-4.788,-33.41,-15.98,-20.22,8.628,-18.57,-21.44,0,0,0,0,0,0,0,0,0,0,0,0,0,0,0,0,
290,-33.39,-16.57,-1.708,-13.25,-22,-33.65,-29.53,1.08,-19.21,-1.94,-181.2,-64.7,-40.7,-14.96,-62.65,-54.06,0,0,0,0,0,0,0,0,0,0,0,0,0,0,0,0,
291,-45.62,-30.41,-17.48,-21.89,-41.04,-42.83,-36.8,-0.2576,-117.4,-53.62,-77.88,-61.65,-50.62,-35.68,-57.65,-52.33,0,0,0,0,0,0,0,0,0,0,0,0,0,0,0,0,
292,-30.84,-11.93,-2.494,3.932,-21.68,-18.76,-13.29,23.92,-37.21,-32.41,102.3,-3.337,-22.47,-8.137,-10.93,-14.38,0,0,0,0,0,0,0,0,0,0,0,0,0,0,0,0,
293,-5.003,2.062,13.29,15.68,-7.569,-4.417,-9.054,25.1,71.47,-13.28,18.35,-0.8778,-14.72,-2.291,-7.181,-6.103,0,0,0,0,0,0,0,0,0,0,0,0,0,0,0,0,
294,-2.258,-11.12,-3.485,-3.157,-18.69,-11.86,-19.72,10.89,15.51,-9.109,-55.07,-15.98,-17.72,-11.81,-9.855,-8.183,0,0,0,0,0,0,0,0,0,0,0,0,0,0,0,0,
295,-12.66,-5.172,-8.324,-3.278,-21.18,-10.23,-1.391,17.76,-63.74,24.3,15.08,-2.756,-8.455,-2.806,4.182,-4.26,0,0,0,0,0,0,0,0,0,0,0,0,0,0,0,0,
296,-20.4,8.539,-1.3,4.661,-29.14,-17.26,8.791,18.18,-82.62,-9.019,-28.92,-19.7,-15.78,-4.863,-11.55,-16.59,0,0,0,0,0,0,0,0,0,0,0,0,0,0,0,0,
297,-13.51,4.415,-5.973,5.707,-36.6,-24.23,0.0863,14.92,-69.05,-60.55,-79.09,-26.23,-11.43,3.501,-17.48,-11.7,0,0,0,0,0,0,0,0,0,0,0,0,0,0,0,0,
298,16.36,11.48,1.331,24.75,-18.74,-2.78,12.07,30.36,-9.467,-20.51,10.98,12.84,13.5,23.39,7.502,8.374,0,0,0,0,0,0,0,0,0,0,0,0,0,0,0,0,
299,22.14,17.77,7.865,34.41,-14.79,6.923,21.01,28.31,24.97,-4.135,8.246,8.576,3.106,7.6,-0.6397,-6.384,0,0,0,0,0,0,0,0,0,0,0,0,0,0,0,0,
300,-6.874,5.398,-5.018,13.87,-28.36,-4.549,10.57,7.598,-10.32,-32.67,-70.95,-26.18,-14.79,-3.509,-24.32,-26.53,0,0,0,0,0,0,0,0,0,0,0,0,0,0,0,0,
301,-10.25,2.421,-11.73,-3.647,-26.05,-7.738,5.898,5.165,-31.5,16.32,-22.98,-13.16,3.938,18.01,-14.39,-18.34,0,0,0,0,0,0,0,0,0,0,0,0,0,0,0,0,
302,0.662,0.0317,-16.61,-14.25,-27.24,-21.9,-1.669,3.792,-43.01,57.7,-27.66,-4.465,9.459,17.42,-10.87,-18.12,0,0,0,0,0,0,0,0,0,0,0,0,0,0,0,0,
303,-12.6,-14.96,-30.86,-24.58,-37.38,-42.88,-9.322,-8.848,-68.24,4.829,-142.3,-27.99,-9.095,0.4441,-24.59,-25.74,0,0,0,0,0,0,0,0,0,0,0,0,0,0,0,0,
304,-12.96,-9.574,-29.54,-16.06,-35.44,-34.21,7.705,-1.407,-11.81,-16.76,-69.12,-8.921,0.7396,12.28,-6.12,-6.363,0,0,0,0,0,0,0,0,0,0,0,0,0,0,0,0,
305,20.12,18.33,-10.02,6.816,-23.57,-4.17,30.82,21.54,76.78,16.25,103.2,37.84,26.82,34.51,26.71,19.7,0,0,0,0,0,0,0,0,0,0,0,0,0,0,0,0,
306,47.64,35.95,5.736,18.72,-4.747,21.22,36.77,25.07,47.11,8.743,84.51,36.76,24.2,33.78,24.82,17.83,0,0,0,0,0,0,0,0,0,0,0,0,0,0,0,0,
307,36.83,30.32,8.772,7.215,8.45,26.14,31.48,8.241,-23.01,0.5694,7.33,11.01,5.706,19.8,7.046,1.307,0,0,0,0,0,0,0,0,0,0,0,0,0,0,0,0,
308,12.37,8.296,-4.427,-19.09,-2.358,10.49,17.55,-10.28,-20.32,21.18,10.1,7.368,1.843,15.34,3.866,-2.616,0,0,0,0,0,0,0,0,0,0,0,0,0,0,0,0,
309,23.14,-3.311,-23.76,-30.95,-20.41,-2.266,4.791,-14.09,-8.237,-1.142,-3.59,11.83,9.529,18.27,8.792,6.842,0,0,0,0,0,0,0,0,0,0,0,0,0,0,0,0,
310,46.39,13.29,-19.61,-13.81,-15.39,1.414,8.497,0.7419,-5.842,-30.76,-9.401,19.33,18.2,25.55,21.43,18.82,0,0,0,0,0,0,0,0,0,0,0,0,0,0,0,0,
311,41.89,25.6,3.746,1.07,4.272,12.75,10.59,2.223,37.89,10.11,45.22,36.79,22.95,40.53,39.83,30.09,0,0,0,0,0,0,0,0,0,0,0,0,0,0,0,0,
312,39.93,11.5,8.781,-5.398,5.616,21.71,-0.9035,-13.22,79.85,66.05,61.4,36.72,14.82,35.97,38.08,28.22,0,0,0,0,0,0,0,0,0,0,0,0,0,0,0,0,
313,46.43,0.611,3.048,-2.832,-4.142,22.55,-2.339,-0.9918,50.53,50.47,7.495,12.28,-1.442,5.169,14.02,0.8313,0,0,0,0,0,0,0,0,0,0,0,0,0,0,0,0,
314,25.11,-1.968,5.96,5.572,-6.491,7.036,-5.437,14.83,-24.43,-19.5,2.469,-1.123,-12.29,-5.005,-4.535,-30.27,0,0,0,0,0,0,0,0,0,0,0,0,0,0,0,0,
315,-2.514,-14.44,-1.427,-10.43,-12.59,-16.27,-27.07,-3.689,-52.21,-31.16,29.05,-0.9305,-15.59,9.877,-10.38,-38.85,0,0,0,0,0,0,0,0,0,0,0,0,0,0,0,0,
316,9.325,-12.77,0.6825,-13.23,1.121,-5.293,-19.95,-5.069,-8.343,33.96,-50.9,-9.015,-10.69,12.51,-10.46,-30.43,0,0,0,0,0,0,0,0,0,0,0,0,0,0,0,0,
317,44.87,7.438,27.14,11.46,38.89,34.27,9.488,11.01,16.85,33.07,-92.77,-14.47,-6.184,8.265,-7.754,-22.64,0,0,0,0,0,0,0,0,0,0,0,0,0,0,0,0,
318,53.61,9.237,22.31,3.304,37.63,36.42,-4.667,-7.492,16.49,-17.89,44.13,-7.688,-12.4,10,-9.181,-23.26,0,0,0,0,0,0,0,0,0,0,0,0,0,0,0,0,
319,36.68,4.547,-1.2,-20.74,15.08,13.67,-27.13,-20.37,83.59,17.1,104.7,1.019,-9.465,8.739,-4.96,-16.87,0,0,0,0,0,0,0,0,0,0,0,0,0,0,0,0,
320,34.93,14.53,13.37,-6.567,30.21,21.74,-11.31,-5.131,120.9,34.81,29.81,11.61,10.57,14.57,12.93,6.207,0,0,0,0,0,0,0,0,0,0,0,0,0,0,0,0,
321,41.98,11.04,23.89,4.523,42.25,29.67,-8.209,-10.3,7.981,-28.57,36.82,15.23,15.67,30.45,16.98,15.63,0,0,0,0,0,0,0,0,0,0,0,0,0,0,0,0,
322,28.97,-5.926,2.036,-18.74,20.01,5.678,-28.49,-27.15,-56.1,-20.39,51.57,3.343,0.8767,30.15,6.495,8.105,0,0,0,0,0,0,0,0,0,0,0,0,0,0,0,0,
323,13.43,-4.496,-9.163,-35.15,1.365,-10.22,-29.14,-26.91,41.24,17.67,9.479,4.031,0.49,17.88,16.82,19.94,0,0,0,0,0,0,0,0,0,0,0,0,0,0,0,0,
324,29.71,12.29,-4.182,-24.4,7.687,7.913,-13.15,-17.61,67.84,-16.6,9.874,21.51,16.58,23.94,31.19,33.12,0,0,0,0,0,0,0,0,0,0,0,0,0,0,0,0,
325,62.27,17.29,3.29,-6.506,21.92,31.86,-0.949,-6.692,-20.11,-5.652,-0.7384,18.81,15.59,36.04,21.15,21.99,0,0,0,0,0,0,0,0,0,0,0,0,0,0,0,0,
326,56.72,0.2311,13.57,2.331,15.69,34.75,3.134,-3.698,-15.24,59.76,17.88,12.76,3.894,33.8,22.1,24.95,0,0,0,0,0,0,0,0,0,0,0,0,0,0,0,0,
327,21.12,-9.32,21.12,8.798,6.042,34.34,8.466,-3.516,68.77,54.03,87.14,29.01,9.869,27.57,39,35.26,0,0,0,0,0,0,0,0,0,0,0,0,0,0,0,0,
328,6.193,6.25,21.77,9.104,16.76,38.59,15.76,-2.779,66.28,-5.211,-2.325,14.04,2.259,1.784,16.28,-2.293,0,0,0,0,0,0,0,0,0,0,0,0,0,0,0,0,
329,2.636,10.07,9.147,-11.52,14.23,26.83,8.841,-15.29,-11.2,-46.93,-112.9,-25.39,-26.5,-36.49,-18.67,-39.74,0,0,0,0,0,0,0,0,0,0,0,0,0,0,0,0,
330,14.84,4.476,4.866,-14.92,11.22,25.18,12.19,-7.056,-26.46,-33.74,14.72,-3.399,-8.828,-16.84,6.907,-6.944,0,0,0,0,0,0,0,0,0,0,0,0,0,0,0,0,
331,55.43,21.75,28.5,16.54,35.31,43.33,35.21,28.19,16.67,40.74,109.7,30.68,31.27,35.12,38.5,26.58,0,0,0,0,0,0,0,0,0,0,0,0,0,0,0,0,
332,43.35,19.7,27.5,17.56,22.19,24.07,22.11,19.47,1.442,82.95,16.96,-2.248,17.95,29.24,17.33,7.928,0,0,0,0,0,0,0,0,0,0,0,0,0,0,0,0,
333,-20.74,-11.5,-6.717,-8.768,-19.42,-11.88,-9.7,-14.65,-17.5,29.07,1.48,-17.29,1.912,9.633,16.05,10.06,0,0,0,0,0,0,0,0,0,0,0,0,0,0,0,0,
334,-21.12,-10.63,-10.76,-9.844,-9.126,-6.103,-9.084,-11.61,36.56,-22.76,44.48,12.32,16.84,27.91,39.6,31.78,0,0,0,0,0,0,0,0,0,0,0,0,0,0,0,0,
335,11.41,-0.1228,-8.655,-25.72,2.896,-4.169,-18.75,-14.72,39.72,5.176,5.886,1.43,7.533,28.5,16.11,11.13,0,0,0,0,0,0,0,0,0,0,0,0,0,0,0,0,
336,-7.688,-15.65,-33.23,-56.81,-26.03,-26.74,-36.3,-33.46,-20.57,26.53,5.983,-12.73,-2.78,13.51,-0.8761,0.666,0,0,0,0,0,0,0,0,0,0,0,0,0,0,0,0,
337,-20.25,-11.5,-30.9,-37.11,-27.15,-22.36,-12.31,-18.14,-17.05,-14.58,25.32,10.38,12.53,17.4,26.3,27.82,0,0,0,0,0,0,0,0,0,0,0,0,0,0,0,0,
338,6.171,5.182,-11.21,-11.22,-6.465,-6.479,2.121,-5.706,16.96,-24.79,-11.19,7.939,9.247,11.66,24.7,26.03,0,0,0,0,0,0,0,0,0,0,0,0,0,0,0,0,
339,18.76,-1.27,-16.83,-25.8,-7.813,-7.185,-14.54,-20,13.42,20.21,10.31,-1.01,7.187,7.824,9.789,11.3,0,0,0,0,0,0,0,0,0,0,0,0,0,0,0,0,
340,16.56,0.9807,-12.19,-25.05,-1.145,-1.418,-5.858,-14.73,4.085,31.53,9.329,13.27,25.22,23.19,23.35,20.55,0,0,0,0,0,0,0,0,0,0,0,0,0,0,0,0,
341,16.01,12.3,0.6811,-11.64,8.903,0.5921,6.565,-3.596,19.11,7.543,-94.64,-3.038,13.46,12.31,13.45,8.506,0,0,0,0,0,0,0,0,0,0,0,0,0,0,0,0,
342,9.734,7.286,-14.47,-22.69,-5.876,-13.31,-7.74,-12.16,26.49,-2.542,-61.82,-23.27,-5.337,-10.84,-12.07,-18.85,0,0,0,0,0,0,0,0,0,0,0,0,0,0,0,0,
343,9.919,10.39,-23.65,-26.02,-17.87,-18.26,-12.25,-12.55,-34.83,-1.491,84.46,-0.9888,15.2,2.272,-0.65,-11.02,0,0,0,0,0,0,0,0,0,0,0,0,0,0,0,0,
344,7.841,20.04,-13.22,-19.05,-17.8,-19.45,-8.141,-9.58,-67.66,2.242,80.89,8.37,28.53,18.55,11.59,3.453,0,0,0,0,0,0,0,0,0,0,0,0,0,0,0,0,
345,-12.26,10.71,-10.93,-24.57,-13.22,-21.2,-12.93,-18.42,32.36,4.251,14.82,-10.62,11.96,11.84,-6.59,-10.59,0,0,0,0,0,0,0,0,0,0,0,0,0,0,0,0,
346,-12.25,-1.268,-3.423,-18.52,9.357,-3.703,-11.99,-17.94,70.24,13.08,12.31,-14.7,6.598,8.932,-23,-23.77,0,0,0,0,0,0,0,0,0,0,0,0,0,0,0,0,
347,5.402,-5.344,3.796,-10.12,23.21,7.772,-14.89,-15.08,-15.32,36.21,12.35,-9.2,11.94,5.596,-25.55,-21.84,0,0,0,0,0,0,0,0,0,0,0,0,0,0,0,0,
348,-8.191,-4.805,-13.54,-25.72,8.347,-3.893,-24.99,-25.75,9.229,28.66,15.68,-10.48,5.3,-7.997,-28.22,-24.99,0,0,0,0,0,0,0,0,0,0,0,0,0,0,0,0,
349,-11.55,7.789,-18.28,-26.97,6.9,0.5724,-16.28,-25.24,68.39,-24.25,-13.58,-11.92,-3.084,-7.731,-26.46,-24.84,0,0,0,0,0,0,0,0,0,0,0,0,0,0,0,0,
350,27.74,17.34,6.601,-0.7788,21.8,17.87,-1.083,-5.969,-6.304,-43.76,-42.01,1.245,1.552,12.24,-0.2313,0.9818,0,0,0,0,0,0,0,0,0,0,0,0,0,0,0,0,
351,36,10.88,15.51,10.61,15.07,11.94,-5.801,5.819,-22.51,11.59,37.27,31.82,16.92,31.6,41.37,35.33,0,0,0,0,0,0,0,0,0,0,0,0,0,0,0,0,
352,6.442,3.045,1.493,2.137,-0.554,-2.609,-20.77,-2.124,46.52,47.84,68.19,37,21.56,31.47,50.29,42.14,0,0,0,0,0,0,0,0,0,0,0,0,0,0,0,0,
353,-7.986,-7.174,-13.63,-17.62,-5.638,-14.6,-38.12,-24.78,3.91,2.991,-0.1576,2.382,3.612,12.52,21.09,23.11,0,0,0,0,0,0,0,0,0,0,0,0,0,0,0,0,
354,-28.34,-19.95,-28.25,-40.71,-9.159,-32.32,-49.7,-39.51,-40.63,-14.95,1.253,-19.99,-7.098,3.54,2.784,11.85,0,0,0,0,0,0,0,0,0,0,0,0,0,0,0,0,
355,-48.54,-13.17,-24,-25.68,-3.754,-31.05,-32.41,-23.11,9.24,27.58,-43.2,-27.83,-0.9209,6.02,-2.68,9.474,0,0,0,0,0,0,0,0,0,0,0,0,0,0,0,0,
356,-31.94,3.318,-3.12,10.31,5.7,-14.45,-7.699,-3.025,-15.56,12.45,-135.8,-48.05,-14.48,-11.81,-23.09,-12.17,0,0,0,0,0,0,0,0,0,0,0,0,0,0,0,0,
357,-28.08,-5.453,-12.08,-1.217,-6.422,-27.28,-23.99,-15.53,-74.53,-31.98,-35.05,-52.29,-45.58,-36.48,-38.9,-40.83,0,0,0,0,0,0,0,0,0,0,0,0,0,0,0,0,
358,-59.61,-34.9,-35.33,-31.71,-17.8,-51.53,-59.64,-36.36,-11.97,-28.66,69.39,-40.75,-61.63,-45.01,-36.37,-47.71,0,0,0,0,0,0,0,0,0,0,0,0,0,0,0,0,
359,-68.75,-52.79,-20.79,-22.25,0.4195,-44,-61.52,-37.07,36.28,-44.46,-5.218,-44.16,-64.79,-52.2,-33.65,-42.18,0,0,0,0,0,0,0,0,0,0,0,0,0,0,0,0,
360,-56.4,-48.1,-0.2407,-3.786,12.22,-29.05,-40.29,-28.02,-31.18,-53.73,-18.66,-38.86,-53.69,-40.65,-25.6,-29.41,0,0,0,0,0,0,0,0,0,0,0,0,0,0,0,0,
361,-50.88,-31.76,-4.973,-0.707,5.707,-25.48,-24.13,-11.71,-42.4,8.82,30.82,-9.495,-17.85,4.226,-3.471,-1.017,0,0,0,0,0,0,0,0,0,0,0,0,0,0,0,0,
362,-21.27,-15.19,1.804,10.3,23.65,-9.887,-10.71,6.268,43.95,37.58,4.358,9.575,7.974,22.02,9.854,15.73,0,0,0,0,0,0,0,0,0,0,0,0,0,0,0,0,
363,18.29,-12.35,4.773,11.3,35.35,-5.327,-16.12,-5.85,56.7,-14.87,-10.43,-4.222,-7.037,-9.305,-4.531,-0.8234,0,0,0,0,0,0,0,0,0,0,0,0,0,0,0,0,
364,-3.73,-31.78,-27.36,-15.23,-9.389,-37.64,-43.6,-33.67,-18.68,-36.77,-13.51,-30.07,-22.05,-18.87,-21.78,-11.07,0,0,0,0,0,0,0,0,0,0,0,0,0,0,0,0,
365,-54.89,-42.44,-35.46,-19.34,-39.25,-53.59,-43.42,-19.89,-57.83,16.75,-19.04,-28.1,-4.171,4.548,-13.56,6.584,0,0,0,0,0,0,0,0,0,0,0,0,0,0,0,0,
366,-54.81,-20.32,-8.994,6.071,-12.71,-38.74,-17.43,9.022,-35.89,36.09,-0.1245,-14.82,-2.051,-11.54,-11.68,3.981,0,0,0,0,0,0,0,0,0,0,0,0,0,0,0,0,
367,-42.24,-7.754,-15.87,-0.6051,-5.921,-45.7,-17.07,-8.007,12.31,-46.75,-34.9,-27.02,-31.35,-48.85,-30.64,-19.05,0,0,0,0,0,0,0,0,0,0,0,0,0,0,0,0,
368,-50.75,-19.37,-26.14,-15.19,-14.28,-48.56,-17.85,-20.44,23.4,-75.5,-32.97,-25.72,-31.65,-28.3,-24.31,-10.8,0,0,0,0,0,0,0,0,0,0,0,0,0,0,0,0,
369,-36.45,-16.18,1.124,11.01,6.828,-22.63,-0.5781,4.912,-43.69,20.17,24.03,-16.5,-23.4,-1.321,-19.8,-10.72,0,0,0,0,0,0,0,0,0,0,0,0,0,0,0,0,
370,-38,-20.15,-0.2193,15.32,-0.8618,-35.13,-17.57,-4.063,-71.57,36.56,-82.66,-60.07,-63.69,-38.8,-59.29,-53.77,0,0,0,0,0,0,0,0,0,0,0,0,0,0,0,0,
371,-82.53,-49.78,-30.15,-11.82,-34.89,-69.81,-44.82,-28.81,-12.72,-28.55,-167.1,-89.17,-86.47,-60.12,-70.68,-64.35,0,0,0,0,0,0,0,0,0,0,0,0,0,0,0,0,
372,-88.32,-49.68,-24.52,-1.013,-29.15,-60.72,-29.59,-7.251,-8.77,4.401,-18.69,-56.43,-52.38,-22.53,-44.3,-37.86,0,0,0,0,0,0,0,0,0,0,0,0,0,0,0,0,
373,-67.78,-28.33,-13.48,8.775,-20.66,-53.23,-21.83,0.2085,-50.1,35.26,27.13,-54.88,-42.93,-17.48,-58.57,-44.37,0,0,0,0,0,0,0,0,0,0,0,0,0,0,0,0,
374,-79.47,-37.44,-21.44,-11.9,-29.48,-64.64,-35.81,-20.05,-39.88,-33.06,-72.4,-74.94,-63.25,-51.68,-75.47,-55.99,0,0,0,0,0,0,0,0,0,0,0,0,0,0,0,0,
375,-75.98,-44.88,-14.78,-1.924,-16.97,-52.87,-24.29,-7.139,-36.91,-57.77,-29.02,-49.28,-51.61,-47.41,-48.01,-40.51,0,0,0,0,0,0,0,0,0,0,0,0,0,0,0,0,
376,-57.72,-30.93,-12.06,10.69,-13.56,-50.23,-18.67,-1.982,-51.64,-14.82,13.38,-40.19,-37.88,-29.9,-39.06,-38.02,0,0,0,0,0,0,0,0,0,0,0,0,0,0,0,0,
377,-67.31,-36.07,-28.97,-16.33,-32.18,-67.06,-43,-30.59,-40.55,-2.995,-55.42,-64.1,-51.22,-45.41,-55.29,-45.46,0,0,0,0,0,0,0,0,0,0,0,0,0,0,0,0,
378,-66.47,-48.75,-34.79,-26.46,-34.34,-61.47,-50.94,-32.37,-40.24,-13.29,-51.36,-56.2,-45.84,-45.05,-43.26,-34.27,0,0,0,0,0,0,0,0,0,0,0,0,0,0,0,0,
379,-48.08,-34.03,-30.73,-10.59,-27.02,-47.18,-40.19,-15.18,-36.55,-11.33,-13.62,-38.5,-22.76,-18.87,-17.77,-20.92,0,0,0,0,0,0,0,0,0,0,0,0,0,0,0,0,
380,-42.55,-15.4,-23.98,-4.785,-15.53,-36.95,-34.85,-16.9,-8.938,-10.79,-25.09,-36.84,-23.95,-21.99,-10.72,-19.22,0,0,0,0,0,0,0,0,0,0,0,0,0,0,0,0,
381,-35.82,-16.33,-6.581,1.864,5.022,-21.1,-27.5,-16.53,7.349,-0.9678,-15.43,-23.34,-29.71,-33.47,-12.32,-18.45,0,0,0,0,0,0,0,0,0,0,0,0,0,0,0,0,
382,-28.34,-13.55,7.755,10.94,14.08,-14.7,-16.87,-2.883,18.96,29.79,-3.396,-10.75,-12.9,-13.34,-9.274,-11.65,0,0,0,0,0,0,0,0,0,0,0,0,0,0,0,0,
383,-26.24,5.217,17.15,13.84,18.28,-13.58,-6.793,8.163,9.998,26.47,-16,-12.81,2.735,5.667,-5.017,-3.252,0,0,0,0,0,0,0,0,0,0,0,0,0,0,0,0,
384,-18.19,13.99,23.92,16.76,22.53,-9.696,-0.4282,8.474,-26.29,-15.77,-27.4,-10.77,3.113,5.352,-9.002,-2.135,0,0,0,0,0,0,0,0,0,0,0,0,0,0,0,0,
385,-16.37,6.624,14.12,14.48,11.22,-12.27,-1.709,2.561,-14.32,-3.337,-38.03,-7.834,1.184,-0.2827,-17.04,-5.674,0,0,0,0,0,0,0,0,0,0,0,0,0,0,0,0,
386,-21.45,7.013,5.816,12.71,1.948,-11.06,0.1661,1.377,7.805,33.47,-25.89,-13.98,-2.344,-13.65,-19.65,-8.725,0,0,0,0,0,0,0,0,0,0,0,0,0,0,0,0,
387,-28.86,4.669,7.899,13.1,-0.4004,-12.62,-3.103,-0.8499,-48.63,-9.429,-3.544,-24.39,-15.07,-26.77,-21.37,-13.93,0,0,0,0,0,0,0,0,0,0,0,0,0,0,0,0,
388,-48.26,-18.26,-2.695,2.655,-2.69,-24.17,-19.42,-6.517,-53.76,-45.12,-5.503,-25.94,-20.83,-20.73,-14.71,-6.025,0,0,0,0,0,0,0,0,0,0,0,0,0,0,0,0,
389,-43.85,-24.17,-1.099,6.882,18.58,-12.91,-16.55,1.015,50.12,16.03,-6.275,-13.16,-2.311,-0.4284,1.185,12.88,0,0,0,0,0,0,0,0,0,0,0,0,0,0,0,0,
390,-7.394,-1.82,24.54,31.08,36.85,6.829,-1.449,8.516,41.01,64.36,-8.975,-12.31,7.717,3.513,-5.546,2.579,0,0,0,0,0,0,0,0,0,0,0,0,0,0,0,0,
391,-6.591,3.069,29.83,30.58,20.94,1.185,-3.385,2.099,-46.84,42.01,-16.21,-20.99,-5.412,-9.068,-15.96,-11.36,0,0,0,0,0,0,0,0,0,0,0,0,0,0,0,0,
392,-18.63,6.693,32.49,25.75,28.41,13.42,13.13,11.58,31.05,16.66,11.99,1.04,7.235,8.724,12.66,20.65,0,0,0,0,0,0,0,0,0,0,0,0,0,0,0,0,
393,22.78,39.97,52.66,49.32,54.88,41.75,42.73,28.97,91.89,3.245,33.09,20.86,30.89,39.03,26.04,35.37,0,0,0,0,0,0,0,0,0,0,0,0,0,0,0,0,
394,38.05,43.78,32.15,45.86,24.49,18.48,24.88,11.97,-30.62,4.633,-3.059,-5.478,12.74,22.94,-11.64,-2.009,0,0,0,0,0,0,0,0,0,0,0,0,0,0,0,0,
395,-13.17,10.27,-8.543,9.545,-14.84,-12.5,-0.8995,-11.13,-68.12,24.85,-36.7,-23.76,-1.386,0.3111,-28.69,-10.25,0,0,0,0,0,0,0,0,0,0,0,0,0,0,0,0,
396,-14.88,16.82,3.064,8.505,2.205,14.31,18.11,-2.614,-3.719,10.29,-24.07,-8.02,18.31,10.16,-12.1,13.54,0,0,0,0,0,0,0,0,0,0,0,0,0,0,0,0,
397,35.5,42.95,27.7,30.34,19.07,40.41,34.16,8.429,-18.02,-10.05,-3.343,-4.356,24.87,12.21,-12.9,10.08,0,0,0,0,0,0,0,0,0,0,0,0,0,0,0,0,
398,40.46,33.08,32.71,40.14,18.07,38.71,36.98,14.85,3.704,26.03,-4.323,-5.633,23.32,6.287,-16.91,1.496,0,0,0,0,0,0,0,0,0,0,0,0,0,0,0,0,
399,20.94,23.38,49.35,52.44,30.07,42.44,51.22,27.77,52.75,35.64,-6.831,5.727,19.89,-0.8834,-12.04,-0.0951,0,0,0,0,0,0,0,0,0,0,0,0,0,0,0,0,
400,9.855,19.77,43.33,43.44,21.1,25.49,39.81,14.71,-5.608,-12.38,7.436,3.575,-8.847,-25.57,-13.29,-9.234,0,0,0,0,0,0,0,0,0,0,0,0,0,0,0,0,
401,-0.2816,5.063,9.111,16.41,1.406,5.314,22.54,-4.801,-31.43,-18.77,22.8,10.44,-7.644,-15.49,11.6,11.18,0,0,0,0,0,0,0,0,0,0,0,0,0,0,0,0,
402,22,26.47,19.64,31.63,21.49,36.76,52.35,18.35,26.25,10.7,35.2,43.3,38.51,32.68,48.96,40.59,0,0,0,0,0,0,0,0,0,0,0,0,0,0,0,0,
403,51.37,58.28,39.44,45.47,31.99,56.86,60.01,28.76,19.33,17.81,31.71,39.82,37.34,28.96,25.6,9.549,0,0,0,0,0,0,0,0,0,0,0,0,0,0,0,0,
404,40.71,33.84,8.474,8.376,3.896,28.64,16.54,-2.478,-1.569,20.91,-7.685,7.681,5.01,-0.6303,-16.84,-29.32,0,0,0,0,0,0,0,0,0,0,0,0,0,0,0,0,
405,31.45,15.5,3.018,3.539,7.615,32.98,16.47,-1.733,41.05,17.58,-10.66,15.93,19.25,13.86,-1.876,-11.1,0,0,0,0,0,0,0,0,0,0,0,0,0,0,0,0,
406,38.74,39.06,41.85,40.48,40,64.06,47.12,19.18,27.19,-8.602,43.69,27.34,30.01,19.8,13.25,4.507,0,0,0,0,0,0,0,0,0,0,0,0,0,0,0,0,
407,29.14,35.26,42.58,39.47,38.1,52.48,34.5,8.294,-21.02,-18.76,16.1,3.398,7.242,3.41,-8.465,-7.606,0,0,0,0,0,0,0,0,0,0,0,0,0,0,0,0,
408,13.61,12.55,18.28,24.53,22.03,25.04,12.96,3.994,29.57,13.22,-76.55,-9.966,0.4141,10.42,-13.64,-9.411,0,0,0,0,0,0,0,0,0,0,0,0,0,0,0,0,
409,11.8,6.001,11.51,23.57,23.28,17.89,1.9,7.504,35.16,38.82,-44.31,-8.224,-3.99,12.21,-4.728,-13.51,0,0,0,0,0,0,0,0,0,0,0,0,0,0,0,0,
410,19.43,-6.967,7.181,9.17,22.03,16.36,-13.31,-9.038,-53.82,7.16,77.94,-1.134,-15.53,4.218,1.569,-17.13,0,0,0,0,0,0,0,0,0,0,0,0,0,0,0,0,
411,14.62,-9.66,9.726,4.027,17.84,18.11,-3.589,-8.943,8.108,-38.97,104.2,17.52,-11.01,10.69,17.76,-2.215,0,0,0,0,0,0,0,0,0,0,0,0,0,0,0,0,
412,-5.404,1.034,12.86,12.8,21.59,23.5,10.92,2.816,95.82,-34.1,38.1,14.12,-14.13,6.656,21.21,3.426,0,0,0,0,0,0,0,0,0,0,0,0,0,0,0,0,
413,5.695,-11.14,1.824,8.822,21.15,25.77,-0.1796,-2.46,-10.34,-7.049,-3.199,2.444,-20.16,6.521,14.09,0.0688,0,0,0,0,0,0,0,0,0,0,0,0,0,0,0,0,
414,32.71,-16.92,-1.926,9.157,10.62,21.5,-1.465,2.322,-38.77,-14.44,-1.872,12.8,-9.837,19.3,13.97,-3.857,0,0,0,0,0,0,0,0,0,0,0,0,0,0,0,0,
415,12.95,5.617,-8.503,10.32,-6.388,5.116,6.895,11.21,27.96,-24.85,-6.662,1.085,-11.08,11.82,-0.8956,-21.49,0,0,0,0,0,0,0,0,0,0,0,0,0,0,0,0,
416,-15.09,17.02,-28.43,-5.065,-25.83,-12.16,4.061,1.869,-60.9,11.68,-15.65,-20.87,-14.03,17.38,-12.87,-24.14,0,0,0,0,0,0,0,0,0,0,0,0,0,0,0,0,
417,-11.6,9.109,-27.18,-14.99,-31.89,-11.69,6.595,-5.565,-71.84,35.48,2.389,-1.654,0.4235,42.92,1.283,-6.716,0,0,0,0,0,0,0,0,0,0,0,0,0,0,0,0,
418,-5.431,1.765,-7.801,-8.476,-11.75,9.836,14.63,-5.181,64.98,2.633,20.32,21.03,12.88,38.26,9.416,-2.084,0,0,0,0,0,0,0,0,0,0,0,0,0,0,0,0,
419,12.64,4.125,5.128,8.893,15.5,35.72,21.69,0.5123,27.17,8.305,0.7525,17.02,23.45,28.7,4.054,-0.1765,0,0,0,0,0,0,0,0,0,0,0,0,0,0,0,0,
420,28.77,10.51,12.26,23.08,19.82,35.8,25.36,8.964,-49.35,59.99,-11.96,11.23,23.34,31.26,1.29,1.521,0,0,0,0,0,0,0,0,0,0,0,0,0,0,0,0,
421,10.53,7.766,10.86,19.14,10.4,21.39,19.29,6.07,29.11,39.13,12.43,11.88,6.748,15.42,0.1466,-9.024,0,0,0,0,0,0,0,0,0,0,0,0,0,0,0,0,
422,6.117,9.89,7.641,15.9,9.348,24.28,18.85,4.492,30.02,-14.26,8.877,13.95,4.268,1.224,2.033,-13.93,0,0,0,0,0,0,0,0,0,0,0,0,0,0,0,0,
423,21.72,17.93,9.814,15.43,10.23,27.68,22.42,8.958,-42.11,-5.047,-23.47,12.53,8.87,3.503,5.062,-8.313,0,0,0,0,0,0,0,0,0,0,0,0,0,0,0,0,
424,23.2,9.305,14.46,10.25,20.82,36.04,24.93,7.794,0.5155,-5.743,-9.426,13.12,2.616,6.917,7.837,0.9445,0,0,0,0,0,0,0,0,0,0,0,0,0,0,0,0,
425,39.52,6.925,29.49,28.96,46.06,66.28,48.81,16.74,39.04,-41.93,-6.97,15.06,0.8675,10.87,4.851,5.03,0,0,0,0,0,0,0,0,0,0,0,0,0,0,0,0,
426,42.66,19.84,38.44,47.41,45.39,61.47,65.2,25.21,-4.99,-8.402,-65.04,-3.258,0.0129,11.18,-8.865,-4.996,0,0,0,0,0,0,0,0,0,0,0,0,0,0,0,0,
427,-2.001,13.41,22.63,26.12,16.79,12.81,39.9,11.52,-11.79,66.93,-41.03,-19.28,-1.343,12.57,-8.307,-4.544,0,0,0,0,0,0,0,0,0,0,0,0,0,0,0,0,
428,-20.5,-0.5182,5.724,7.313,0.9673,-9,12.94,-0.6393,4.317,60.1,71.19,-3.225,3.178,15.94,4.522,8.342,0,0,0,0,0,0,0,0,0,0,0,0,0,0,0,0,
429,-5.275,-3.778,-7.036,-0.6682,-9.623,-6.449,-1.364,-10.44,-28.57,8.402,70.56,3.466,0.3563,7.675,-5.285,1.795,0,0,0,0,0,0,0,0,0,0,0,0,0,0,0,0,
430,-10.44,-11.01,-23.65,-26.73,-23.15,-8.708,-19.29,-28.72,-44.19,-1.451,-20.62,-12.31,1.865,6.152,-14.92,-5.562,0,0,0,0,0,0,0,0,0,0,0,0,0,0,0,0,
431,-8.063,-8.45,-22.18,-31.32,-15.76,0.777,-16.46,-29.17,-11.11,-12.42,-21.81,-3.236,19.12,19.38,6.516,9.098,0,0,0,0,0,0,0,0,0,0,0,0,0,0,0,0,
432,11.58,6.354,-6.928,-5.392,2.054,13.41,3.707,-16.21,0.2073,-38,21.76,21.61,24.67,20.22,25.62,21.59,0,0,0,0,0,0,0,0,0,0,0,0,0,0,0,0,
433,21.01,2.041,-7.42,-1.78,5.419,13.39,2.617,-15.65,0.4338,-22.37,-0.2855,20.55,13.54,9.958,19.91,20.53,0,0,0,0,0,0,0,0,0,0,0,0,0,0,0,0,
434,26.35,-13.1,-20.3,-18.9,-4.136,9.583,-12.62,-19.52,15.61,3.253,-22.09,11.97,9.121,6.936,15.68,15.14,0,0,0,0,0,0,0,0,0,0,0,0,0,0,0,0,
435,18.25,-10.69,-25.35,-23.85,-16.85,4.773,-13.57,-20.15,-11.29,4.766,10.82,23.35,17.31,13.85,27.11,16.04,0,0,0,0,0,0,0,0,0,0,0,0,0,0,0,0,
436,3.905,0.8693,-13.32,-13.58,-20.38,8.746,-0.0096,-16.94,-31.17,21.75,42.09,36.18,30.21,22.97,36.16,31.6,0,0,0,0,0,0,0,0,0,0,0,0,0,0,0,0,
437,23.54,7.746,10.45,5.972,-8.454,30.12,20.73,-3.431,20.77,39.27,21.45,38.15,39.31,23.29,33.21,45.75,0,0,0,0,0,0,0,0,0,0,0,0,0,0,0,0,
438,56.7,18.32,28.29,23.49,7.461,50.18,44.2,11.28,24.75,16.5,-54.81,33.94,40.42,23.04,23.99,40.06,0,0,0,0,0,0,0,0,0,0,0,0,0,0,0,0,
439,55.84,27.09,28.3,24.62,9.495,49.27,48.71,11.56,-41.81,-5.325,-84.95,17.42,32.33,27.54,9.038,24.56,0,0,0,0,0,0,0,0,0,0,0,0,0,0,0,0,
440,30.13,14.35,16.83,14.85,-4.125,33.94,24.2,2.76,-32.68,11.2,23.95,8.997,19.98,24.48,2.26,17.39,0,0,0,0,0,0,0,0,0,0,0,0,0,0,0,0,
441,18.35,-4.316,8.515,5.895,-12.5,18.34,-2.597,-2.735,30.22,23.17,108.7,26.55,13.81,21.53,13.65,21.95,0,0,0,0,0,0,0,0,0,0,0,0,0,0,0,0,
442,26.2,-10.75,3.629,-7.048,-10.03,-3.635,-19.57,-11.93,25.41,4.965,41.64,32.06,6.977,20.17,18.79,26.06,0,0,0,0,0,0,0,0,0,0,0,0,0,0,0,0,
443,22.41,-19.47,-5.303,-17.28,-11.41,-24.14,-29.22,-23,-12.42,-7.792,4.108,20.94,-6.27,6.599,15.3,23.2,0,0,0,0,0,0,0,0,0,0,0,0,0,0,0,0,
444,6.504,-19.94,-10.5,-10.02,-12.51,-16.47,-19.4,-18.34,1.628,-20.73,57.97,29.45,-9.002,-2.628,22.24,21.38,0,0,0,0,0,0,0,0,0,0,0,0,0,0,0,0,
445,9.924,-0.3446,-4.753,-4.855,-3.525,3.646,-5.037,-12.15,40.55,-49.57,53.94,39.22,2.353,4.756,25.41,22.58,0,0,0,0,0,0,0,0,0,0,0,0,0,0,0,0,
446,35.58,12.49,14.4,-1.468,20.19,26.77,1.117,-12.8,39.98,-20.34,18.2,38.01,18.32,15.02,22.51,27.25,0,0,0,0,0,0,0,0,0,0,0,0,0,0,0,0,
447,70.89,20.5,44.46,25.55,52.83,67.38,17.46,-0.8467,23.04,65.6,37.24,50.86,30.99,22.38,27.88,36.83,0,0,0,0,0,0,0,0,0,0,0,0,0,0,0,0,
448,89.83,32.21,55.31,35.45,57.51,77.44,25.24,2.069,43.24,62.62,52.1,59.03,25.67,19.19,26.12,36.85,0,0,0,0,0,0,0,0,0,0,0,0,0,0,0,0,
449,69.59,27.19,39.73,9.038,36.07,45.53,15.6,-16.35,79.79,-20.5,34.49,50.51,16.35,8.559,22.49,28.86,0,0,0,0,0,0,0,0,0,0,0,0,0,0,0,0,
450,52.01,19.86,36.37,7.735,38.84,46.25,27.07,-16.67,92.83,-22.22,50.16,57.91,26.28,12.89,41.49,38.04,0,0,0,0,0,0,0,0,0,0,0,0,0,0,0,0,
451,63.08,21.72,42.01,24.43,48.61,64.96,42.89,-4.661,88.08,25.36,85.68,67.56,30.18,20.83,53.4,48.05,0,0,0,0,0,0,0,0,0,0,0,0,0,0,0,0,
452,57.04,12.51,24.55,14.24,21.66,46.16,29.88,-8.41,59.69,6.573,19.09,39.76,13.95,5.223,25.68,26.7,0,0,0,0,0,0,0,0,0,0,0,0,0,0,0,0,
453,30.72,8.232,2.146,6.205,-12.06,27.48,18.46,-7.75,-10.07,-4.257,-100,3.273,8.3,-13.98,-2.796,8.771,0,0,0,0,0,0,0,0,0,0,0,0,0,0,0,0,
454,22.57,20.71,4.419,17.86,-15.12,32.57,25.55,6.255,-47.29,36.08,-47,11.74,21.8,-4.072,9.487,27,0,0,0,0,0,0,0,0,0,0,0,0,0,0,0,0,
455,31.36,27.15,20.49,27.69,1.773,35.66,33.81,13.82,4.953,30.91,108,45.32,35.24,15.14,33.17,38.58,0,0,0,0,0,0,0,0,0,0,0,0,0,0,0,0,
456,36.79,25.97,20.67,26.47,10.63,29.37,34.61,9.331,33.32,-1.852,105.2,47.82,36.48,9.357,33.07,26.7,0,0,0,0,0,0,0,0,0,0,0,0,0,0,0,0,
457,26.72,22.8,6.958,13.6,6.709,17.81,28.37,3.615,19.08,0.9764,22.4,32.73,34.54,5.543,30.15,31.32,0,0,0,0,0,0,0,0,0,0,0,0,0,0,0,0,
458,21.2,22.81,10.8,5.33,15.16,19.18,26.43,5.626,84.94,-5.415,30.49,39.15,43.97,29.42,35.08,41.92,0,0,0,0,0,0,0,0,0,0,0,0,0,0,0,0,
459,40.45,32.27,16.95,3.001,23.99,27.93,22.54,5.758,112.5,-12.04,41.48,38.53,40.84,32.35,25.52,27.74,0,0,0,0,0,0,0,0,0,0,0,0,0,0,0,0,
460,37.19,28.08,-5.393,-9.887,0.235,9.264,5.698,2.246,-1.668,20.68,13.76,13.74,11.89,2.505,16.7,19.39,0,0,0,0,0,0,0,0,0,0,0,0,0,0,0,0,
461,-2.443,8.818,-21.36,-12.99,-23.92,-13.09,5.747,8.722,-49.46,40.89,14.97,3.679,0.5961,-4.996,27.69,33.61,0,0,0,0,0,0,0,0,0,0,0,0,0,0,0,0,
462,-15.05,9.127,-13.83,-1.857,-19.56,-9.402,24.72,12.16,-13.62,35.39,10.04,7.238,14.53,7.035,32.18,42.31,0,0,0,0,0,0,0,0,0,0,0,0,0,0,0,0,
463,-0.914,21.96,-15.83,-4.464,-14.78,-7.65,23.99,2.887,-43.44,32.78,-3.944,4.58,19.35,8.595,24.61,43.65,0,0,0,0,0,0,0,0,0,0,0,0,0,0,0,0,
464,6.196,19.81,-18.65,-10.87,-15.18,-9.815,13.64,-2.844,-25.4,7.548,2.735,10.83,17.5,6.313,20.6,41.17,0,0,0,0,0,0,0,0,0,0,0,0,0,0,0,0,
465,21.43,12.51,-6.282,-6.522,-7.949,-0.3172,17.58,-5.779,60.12,-27.94,-5.218,24.09,21.23,1.934,19.52,33.72,0,0,0,0,0,0,0,0,0,0,0,0,0,0,0,0,
466,30.45,18.09,0.2421,1.334,-3.154,6.802,22.58,-7.099,54.94,-21.35,25.94,38.26,33.3,8.731,36.91,50.8,0,0,0,0,0,0,0,0,0,0,0,0,0,0,0,0,
467,15.04,30.83,-4.393,7.125,-7.194,7.472,21.18,-4.967,31.78,9.386,70.98,50.12,51.22,28.37,62.42,78.66,0,0,0,0,0,0,0,0,0,0,0,0,0,0,0,0,
468,8.671,39.57,-10.28,-0.4338,-15.86,3.404,21.06,-10.22,39.92,21.57,-21.66,35.71,59.24,30.43,54.28,68.76,0,0,0,0,0,0,0,0,0,0,0,0,0,0,0,0,
469,18.21,52.65,-12.59,-7.15,-22.6,-4.233,29.86,-5.195,-32.41,28.62,-80,24.59,68.35,36.43,39.8,51.84,0,0,0,0,0,0,0,0,0,0,0,0,0,0,0,0,
470,25.68,71.73,-13.18,5.323,-26.33,-4.412,43.68,15,-80.13,52.83,64.33,52.94,86.34,57.28,49.48,60.03,0,0,0,0,0,0,0,0,0,0,0,0,0,0,0,0,
471,32.52,74.66,-21.02,7.38,-34.62,-1.361,45.96,10.56,0.5135,62.24,112,63.54,82.68,39.46,41.13,53.67,0,0,0,0,0,0,0,0,0,0,0,0,0,0,0,0,
472,36.89,62.37,-26.51,-5.508,-41.29,3.382,40.58,-7.094,42.67,33.67,-13.56,40.33,63.03,3.183,17.79,32.61,0,0,0,0,0,0,0,0,0,0,0,0,0,0,0,0,
473,45.58,55.29,-18.52,-0.1564,-32.85,18.67,42.51,1.293,8.619,20.41,-15.79,43.47,56.7,8.909,22.1,30.64,0,0,0,0,0,0,0,0,0,0,0,0,0,0,0,0,
474,54.97,52.54,-9.74,13.03,-15.66,29.03,46.79,13.06,15.16,38.99,58.05,52.26,49.28,24.35,27.83,29.6,0,0,0,0,0,0,0,0,0,0,0,0,0,0,0,0,
475,27.59,41.85,-13.1,6.315,-14.75,14.95,39.62,5.211,11.83,14.76,37.62,23.58,23.06,3.646,8.42,12.08,0,0,0,0,0,0,0,0,0,0,0,0,0,0,0,0,
476,-13.04,20.61,-28.38,-12.53,-29.97,-7.478,21.66,-1.169,-20.26,-40.96,12.23,2.875,1.268,-20.04,0.6084,3.812,0,0,0,0,0,0,0,0,0,0,0,0,0,0,0,0,
477,-1.765,9.511,-37.59,-22,-25.1,-9.73,13.38,1.439,-2.366,-28.19,5.103,12.34,10.13,-5.679,14.81,9.916,0,0,0,0,0,0,0,0,0,0,0,0,0,0,0,0,
478,12.72,13.24,-41.97,-30.4,-20.71,-11.19,8.575,-9.167,0.4028,25.58,-14.03,3.578,21.67,9.848,9.19,0.1939,0,0,0,0,0,0,0,0,0,0,0,0,0,0,0,0,
479,-29.7,1.364,-63.86,-53.37,-56.07,-31.97,-11.31,-28.06,-31.02,26.52,-7.289,-20.16,11.45,-2.407,-12.57,-14.62,0,0,0,0,0,0,0,0,0,0,0,0,0,0,0,0,
480,-41.32,-3.607,-65.46,-53.45,-63.46,-17.53,-5.583,-16.68,-7.946,8.905,-21.41,-11.15,19.25,5.091,-10.54,-1.761,0,0,0,0,0,0,0,0,0,0,0,0,0,0,0,0,
481,14.41,28.09,-30.94,-21.15,-21.66,29.83,29.14,7.248,6.126,30.65,-42.38,12.73,39.2,20.17,-1.23,10.92,0,0,0,0,0,0,0,0,0,0,0,0,0,0,0,0,
482,39.97,44.21,-22.79,-13.38,-14.62,30.33,31.44,4.951,-24.09,49.51,-7.389,22.39,33.89,4.885,0.5589,9.073,0,0,0,0,0,0,0,0,0,0,0,0,0,0,0,0,
483,36.86,37.5,-19.12,-14.42,-16.68,19,26.74,10.16,-4.669,29.55,-15.27,36.23,39.72,11.86,16.38,20.54,0,0,0,0,0,0,0,0,0,0,0,0,0,0,0,0,
484,47.67,44.26,11.22,6.048,7.448,38.05,42.52,20.61,31.54,-2.076,-44.52,43.75,50.61,27.38,23.68,22.49,0,0,0,0,0,0,0,0,0,0,0,0,0,0,0,0,
485,24.3,33.86,-0.3239,-1.519,-10.27,22.25,29.74,1.577,39.51,-12.29,60.49,39.61,33.82,9.188,25.55,21.64,0,0,0,0,0,0,0,0,0,0,0,0,0,0,0,0,
486,-1.037,16.56,-27.32,-22.64,-33.56,-8.554,10.43,3.796,65.89,16.44,161.6,55.51,44.56,29.69,68.12,66.25,0,0,0,0,0,0,0,0,0,0,0,0,0,0,0,0,
487,14.81,24.94,-19.6,-22.68,-16.6,-15.91,2.454,16.96,68.14,60.28,95.88,55.19,63.83,65.48,94,91.45,0,0,0,0,0,0,0,0,0,0,0,0,0,0,0,0,
488,-13.01,4.807,-48.64,-46.96,-39.97,-56.04,-40.31,-25.55,-8.563,46.48,-1.847,-2.806,14.44,24.79,37.79,36.44,0,0,0,0,0,0,0,0,0,0,0,0,0,0,0,0,
489,-68.93,-46.02,-87.8,-70.95,-77.64,-90.52,-70.69,-52.67,-113.6,-33.74,-65.02,-62.52,-45.75,-19.22,-30.1,-23.78,0,0,0,0,0,0,0,0,0,0,0,0,0,0,0,0,
490,-63.61,-66.78,-59.35,-47.56,-52.47,-61.6,-49.1,-21.01,-131.9,-64.11,-105.6,-75.2,-54.27,-6.851,-45.82,-40.59,0,0,0,0,0,0,0,0,0,0,0,0,0,0,0,0,
491,-53.46,-63.75,-32.29,-28.7,-28.2,-40.56,-35.23,-6.896,-14.7,1.146,-57.69,-55.28,-42.62,2.4,-35.85,-39.85,0,0,0,0,0,0,0,0,0,0,0,0,0,0,0,0,
492,-69.32,-48.3,-34.96,-24.43,-31.63,-43.08,-29.01,-7.287,55.3,19.97,-17.56,-35.42,-30.22,-8.915,-26.75,-32.33,0,0,0,0,0,0,0,0,0,0,0,0,0,0,0,0,
493,-50.89,-16.91,-16.94,-4.398,-17.62,-25.98,-6.769,11.45,-10.49,-48.49,-39.33,-29.6,-20.34,-21.31,-16.85,-22.85,0,0,0,0,0,0,0,0,0,0,0,0,0,0,0,0,
494,-25.36,7.626,-6.276,5.462,-9.056,-19.41,4.472,23.53,-8.573,-35.42,0.6527,-14.24,-8.261,-16.76,-4.952,-14.82,0,0,0,0,0,0,0,0,0,0,0,0,0,0,0,0,
495,-29.47,21.8,-14.1,6.13,-14.64,-28.18,9.13,26.54,27.63,59.65,2.698,2.189,11,4.843,0.7116,-6.791,0,0,0,0,0,0,0,0,0,0,0,0,0,0,0,0,
496,-27.6,22.28,-7.301,14.03,-7.421,-20.53,9.372,21.2,-44.37,65.43,-81.78,-11.82,9.917,-3.792,-1.211,-7.296,0,0,0,0,0,0,0,0,0,0,0,0,0,0,0,0,
497,-24.86,0.1127,-9.985,1.698,-10.15,-21.16,-13.55,2.778,-33.42,7.058,-25.41,-26.31,-12.53,-37.31,-6.177,-18.56,0,0,0,0,0,0,0,0,0,0,0,0,0,0,0,0,
498,-47.38,-20.26,-29.54,-20.85,-30.88,-37.7,-27.29,-4.171,49.15,-17.35,77.92,-26.33,-23.81,-40.11,-15.14,-31.03,0,0,0,0,0,0,0,0,0,0,0,0,0,0,0,0,
499,-45.72,-18.21,-15.83,-2.842,-23.56,-18.07,3.792,9.913,-12,-15.84,15.82,-23.37,-9.461,-17.69,-7.708,-22.2,0,0,0,0,0,0,0,0,0,0,0,0,0,0,0,0,
500,7.872,6.367,29.43,44.54,13.12,26.69,45.88,29.57,-42.53,13.27,-14.64,6.043,17.17,-0.7254,20.64,7.561,0,0,0,0,0,0,0,0,0,0,0,0,0,0,0,0,
501,13.15,22.51,38.58,52.59,15.3,13.98,38.77,24.59,34.16,11.55,51.54,21.11,7.63,-10.35,15.87,4.84,0,0,0,0,0,0,0,0,0,0,0,0,0,0,0,0,
502,-57.38,-7.113,7.009,19.57,-14.68,-28.74,-0.1754,-5.83,-10.24,-47.43,7.149,-17.17,-32.23,-41.23,-21.71,-27.79,0,0,0,0,0,0,0,0,0,0,0,0,0,0,0,0,
503,-58.39,-32.13,10.95,18.8,-3.655,-1.838,3.074,-4.152,-59.96,-37.89,-64.21,-24.23,-24.61,-34.11,-23,-19.33,0,0,0,0,0,0,0,0,0,0,0,0,0,0,0,0,
504,11.85,-10.83,51.03,51.01,30.95,47.99,32.77,25.82,47.47,11.17,-16.92,13.13,10.62,7.47,1.463,12.22,0,0,0,0,0,0,0,0,0,0,0,0,0,0,0,0,
505,21.23,-2.588,61.04,60.4,35.54,46.97,33.13,24.56,92.68,5.86,31,15.99,5.753,10.26,2.02,9.244,0,0,0,0,0,0,0,0,0,0,0,0,0,0,0,0,
506,11.41,-14.74,48.51,44.7,37.53,39.76,22.28,4.223,18.17,15.71,18.97,1.718,-11.09,-13.79,-7.351,-4.634,0,0,0,0,0,0,0,0,0,0,0,0,0,0,0,0,
507,17.64,-11.46,37.62,14.19,33.97,28.14,5.081,-11.45,7.137,2.996,11.68,-2.57,-19.05,-15.88,-12.21,-9.413,0,0,0,0,0,0,0,0,0,0,0,0,0,0,0,0,
508,-21.83,-13.39,29.81,-1.029,16.22,6.761,-14.74,-16.37,45.04,-47.36,36.01,-0.4458,-23.75,-2.911,-6.07,-9.984,0,0,0,0,0,0,0,0,0,0,0,0,0,0,0,0,
509,-27.02,-7.282,54.43,38.08,40.02,38.43,6.719,7.603,52.17,-5.546,72.6,32.45,-6.822,7.666,17.64,1.066,0,0,0,0,0,0,0,0,0,0,0,0,0,0,0,0,
510,32.84,14.74,83.71,66.11,69.31,78.04,32.45,20.34,43.18,33.55,49.72,51.02,3.629,1.348,20.91,1.568,0,0,0,0,0,0,0,0,0,0,0,0,0,0,0,0,
511,43.39,8.897,69.05,38.63,46.33,66.79,23.49,-0.2829,25.54,-19.42,3.779,31.47,0.6277,-8.168,8.358,-6.305,0,0,0,0,0,0,0,0,0,0,0,0,0,0,0,0,
512,29.22,4.766,59.23,30.03,39.5,68.57,30.33,-1.499,47.02,-25.07,33.29,43.06,23.45,4.989,24.01,6.029,0,0,0,0,0,0,0,0,0,0,0,0,0,0,0,0,
513,41.78,27.75,73.96,40.7,60.51,80.52,39.48,6.079,89.83,20.53,30.74,57.71,40.75,11.87,33.41,12.75,0,0,0,0,0,0,0,0,0,0,0,0,0,0,0,0,
514,34.09,31.22,67.28,23.94,49.66,64.55,22.11,-4.272,35.12,46.8,-20.08,35.7,37.38,9.304,22.03,14.52,0,0,0,0,0,0,0,0,0,0,0,0,0,0,0,0,
515,29.71,27.76,56.38,26.26,34.67,63.3,27.74,6.439,-36.05,48.04,10.48,33.67,44.34,23.8,24.15,32.07,0,0,0,0,0,0,0,0,0,0,0,0,0,0,0,0,
516,34.3,28.72,58.02,50.43,27.92,58.15,41.31,25.36,-1.592,7.013,-14.69,26.78,26.62,14.59,11.2,20.55,0,0,0,0,0,0,0,0,0,0,0,0,0,0,0,0,
517,-3.924,0.6647,43.73,42.69,-1.845,17.93,26.27,17.75,24.82,-7.348,-89.16,-5.297,-10.34,-18.53,-7.096,-6.861,0,0,0,0,0,0,0,0,0,0,0,0,0,0,0,0,
518,-32.58,-17.11,31.84,31.4,-12.61,4.746,24.06,11.4,13.97,8.905,26.52,9.77,-1.71,-13.1,20.83,10.75,0,0,0,0,0,0,0,0,0,0,0,0,0,0,0,0,
519,1.931,0.5717,47.88,42.68,24.78,30.56,37.96,14.17,45.04,-18,133.2,46.06,27.73,14.89,50.94,34.89,0,0,0,0,0,0,0,0,0,0,0,0,0,0,0,0,
520,42.55,9.255,63.61,43.1,54.61,44.94,40.08,13.03,45.89,-10.8,59.88,48.99,36.86,26.47,51.66,30.16,0,0,0,0,0,0,0,0,0,0,0,0,0,0,0,0,
521,37.79,14,57.34,33.43,45.41,40.57,37.94,16.49,10.04,16.73,44.86,48.68,40.1,27.97,55.86,31.31,0,0,0,0,0,0,0,0,0,0,0,0,0,0,0,0,
522,16.16,25.77,45.83,30.92,30.94,33.2,27.65,12.96,36.94,-18.03,70.31,52.46,38.58,23.1,60.44,41.94,0,0,0,0,0,0,0,0,0,0,0,0,0,0,0,0,
523,28.79,14.58,46.74,29.67,35.4,35.8,17.02,0.3044,84.1,0.0135,47.73,60.15,28.88,13.98,60.78,41.54,0,0,0,0,0,0,0,0,0,0,0,0,0,0,0,0,
524,51.44,-5.852,51.71,33.71,40.43,40.02,24.03,5.564,65.15,52.31,66.35,64.02,16.22,-2.07,55.61,28.52,0,0,0,0,0,0,0,0,0,0,0,0,0,0,0,0,
525,33.86,0.1135,50.34,41.67,35.34,27.55,31.41,20.32,16.17,6.726,34.46,33.4,11.76,-10.12,35.34,18.45,0,0,0,0,0,0,0,0,0,0,0,0,0,0,0,0,
526,11.2,19.59,49.61,39.52,35.03,19.66,31.26,17.51,13.52,-20.07,-5.223,10.79,23.55,11.92,26.25,23.2,0,0,0,0,0,0,0,0,0,0,0,0,0,0,0,0,
527,11.77,15.6,42.73,30.36,30.13,22.18,22.24,3.657,9.476,21.02,42.15,12.75,17.29,13.71,21.32,16.35,0,0,0,0,0,0,0,0,0,0,0,0,0,0,0,0,
528,2.015,-5.992,21.19,22.23,6.709,9.187,-0.1268,-2.032,-49.67,-0.5266,-4.244,-8.099,-8.803,-18.04,-1.044,-6.616,0,0,0,0,0,0,0,0,0,0,0,0,0,0,0,0,
529,-8.269,-2.421,13.46,19.37,-2.385,3.543,-3.17,5.596,-30.27,-32.58,-44.98,-6.894,-0.8027,-8.49,2.731,-3.025,0,0,0,0,0,0,0,0,0,0,0,0,0,0,0,0,
530,10.92,16.85,32.71,23.8,20.3,25.4,17.99,12.3,58.49,8.395,34.86,30.44,22.31,17.43,25.77,15.37,0,0,0,0,0,0,0,0,0,0,0,0,0,0,0,0,
531,42.11,14.13,41.18,20.22,35.3,37.03,20.33,2.667,25.26,31.4,-30.95,26.76,13.39,2.598,17.17,7.7,0,0,0,0,0,0,0,0,0,0,0,0,0,0,0,0,
532,47.93,5.439,20.75,-1.073,20.61,20.68,3.655,-13.51,-21.36,-3.064,-101.3,14.37,-0.2796,0.2064,10.98,-4.371,0,0,0,0,0,0,0,0,0,0,0,0,0,0,0,0,
533,14.56,4.313,4.733,-16.84,4.91,5.441,-5.514,-17.84,35.95,-25.77,66.59,38.98,4.658,19.69,28.55,4.435,0,0,0,0,0,0,0,0,0,0,0,0,0,0,0,0,
534,2.912,4.488,16.78,-5.706,17.49,21.79,-0.6157,-5.394,31.78,-6.331,136.2,45.9,13.26,16.51,28.05,12.88,0,0,0,0,0,0,0,0,0,0,0,0,0,0,0,0,
535,49.15,17.04,31.73,12.38,38.13,48.24,14.24,10.38,1.709,15.49,20.41,33.43,10.87,7.109,12.92,3.705,0,0,0,0,0,0,0,0,0,0,0,0,0,0,0,0,
536,55.18,22.11,23.52,9.601,27.01,34.15,20.21,7.757,45.58,1.929,5.76,28.59,-5.312,-0.4088,6.476,-8.312,0,0,0,0,0,0,0,0,0,0,0,0,0,0,0,0,
537,6.904,6.209,13.79,0.3757,8.959,10.73,13.6,-3.394,26.28,-7.963,30.35,15.1,-11.45,-9.081,0.1057,-5.673,0,0,0,0,0,0,0,0,0,0,0,0,0,0,0,0,
538,14.01,2.73,13.81,-2.811,14.1,19.87,11.24,-1.536,-24.79,10.36,-14.04,3.248,-6.957,-6.686,-10.58,-1.942,0,0,0,0,0,0,0,0,0,0,0,0,0,0,0,0,
539,31.15,3.628,-2.986,-16.55,0.91,12.18,9.704,1.991,1.574,3.123,-27.69,-1.218,-18.52,-13.73,-19.18,-10.79,0,0,0,0,0,0,0,0,0,0,0,0,0,0,0,0,
540,-3.256,-8.005,-16.35,-22.38,-23.19,-6.385,8.097,3.027,-8.906,-10.39,-31.42,-14.76,-25.92,-23.62,-20.52,-13.22,0,0,0,0,0,0,0,0,0,0,0,0,0,0,0,0,
541,-2.029,-6.63,1.888,-7.048,-9.535,8.303,10.04,3.681,-60.42,12.03,-62.66,-27.67,-24.37,-16.05,-20.38,-10.01,0,0,0,0,0,0,0,0,0,0,0,0,0,0,0,0,
542,4.257,-8.461,3.259,-13.86,-1.002,0.4992,-2.353,-14.09,-36.7,-12.7,-28.81,-33.92,-49.16,-30.12,-28.61,-25.8,0,0,0,0,0,0,0,0,0,0,0,0,0,0,0,0,
543,-47.13,-31.86,-27.78,-40.52,-21.69,-32.9,-25.92,-33.56,6.842,-92.44,20.81,-39.51,-70.79,-59.92,-34.81,-44.37,0,0,0,0,0,0,0,0,0,0,0,0,0,0,0,0,
544,-48.87,-37.83,-36.32,-40.46,-20.92,-23.46,-31.23,-23.33,4.449,-89.67,-60.96,-41.24,-50.81,-47.74,-29.24,-36.72,0,0,0,0,0,0,0,0,0,0,0,0,0,0,0,0,
545,-0.6845,-20.44,-18.53,-21.2,-9.012,-4.66,-13.28,-0.8849,-4.503,-6.054,-127.4,-33.11,-23.91,-11.4,-20.21,-16.39,0,0,0,0,0,0,0,0,0,0,0,0,0,0,0,0,
546,-2.94,-10.78,-9.972,-10.5,-15.69,-13.93,0.1268,7.621,-11.02,26.32,-11.95,-18.57,-23.79,-1.837,-21.76,-12.2,0,0,0,0,0,0,0,0,0,0,0,0,0,0,0,0,
547,-14.68,-18.75,-20.01,-16.6,-25.66,-26.16,-17.16,-3.44,-44.51,7.277,53.8,-24.21,-46.28,-20.37,-42.65,-29.19,0,0,0,0,0,0,0,0,0,0,0,0,0,0,0,0,
548,-27.29,-39.11,-43.11,-36.88,-45.45,-54.31,-48.35,-25.26,-96.8,-3.259,-35.18,-53.98,-65.07,-36.47,-61.72,-44.76,0,0,0,0,0,0,0,0,0,0,0,0,0,0,0,0,
549,-79.75,-49.29,-59.66,-55.84,-65.6,-87.03,-61.45,-36.19,-92.88,-39.79,-70.11,-71.33,-57.51,-27.46,-58.75,-41.54,0,0,0,0,0,0,0,0,0,0,0,0,0,0,0,0,
550,-81.45,-39.77,-51,-62.42,-41.17,-71.48,-56.36,-29.27,-14.75,-70.63,-68.06,-65.02,-38.88,-6.374,-50.38,-30.43,0,0,0,0,0,0,0,0,0,0,0,0,0,0,0,0,
551,-20.43,-31.4,-24.81,-46.17,-0.7008,-35.25,-39.68,-13.87,9.51,-21.49,-85.99,-49.63,-27.82,3.77,-44.05,-25.54,0,0,0,0,0,0,0,0,0,0,0,0,0,0,0,0,
552,-17.25,-26.93,-13.2,-21.24,-13.25,-39.24,-25.11,-6.062,-61.02,2.606,-38.77,-45.05,-28.74,-3.172,-42.66,-33.29,0,0,0,0,0,0,0,0,0,0,0,0,0,0,0,0,
553,-59.12,-22.02,-37.32,-32,-52.83,-65.67,-30.09,-11.54,-97.42,-36.87,-22.23,-61.89,-39.82,-16.69,-53.32,-46.34,0,0,0,0,0,0,0,0,0,0,0,0,0,0,0,0,
554,-67.4,-20.93,-51.81,-49.44,-49.66,-65.94,-29.87,-2.37,-56.19,1.604,-60.6,-63.07,-33.36,-8.162,-49.22,-43.28,0,0,0,0,0,0,0,0,0,0,0,0,0,0,0,0,
555,-48.4,-13.39,-16.51,-18.39,-12.5,-38.25,-10.85,20.41,-2.149,46.38,-35.26,-37.25,-12.34,11.23,-30.94,-34.44,0,0,0,0,0,0,0,0,0,0,0,0,0,0,0,0,
556,-13.48,-4.087,12.74,8.687,11.63,-15.39,-7.483,16.05,24.09,-19.67,-23.51,-30.43,-17.27,-1.288,-32.69,-40.86,0,0,0,0,0,0,0,0,0,0,0,0,0,0,0,0,
557,4.982,-11.16,-2.865,-14.35,10.12,-21.28,-25.58,-3.078,9.945,-43.53,-50.63,-40.94,-32.7,-18.2,-39.61,-48.95,0,0,0,0,0,0,0,0,0,0,0,0,0,0,0,0,
558,-21.69,-25,-22.37,-39.16,-8.653,-44.7,-40.66,-7.048,-32.45,9.651,-47.51,-48.9,-32.4,-7.664,-42.26,-58.14,0,0,0,0,0,0,0,0,0,0,0,0,0,0,0,0,
559,-43.03,-31.7,-32.2,-42.96,-33.45,-61.58,-48.81,-10.11,-88.98,9.915,-75.84,-68.18,-42.38,-18.39,-57,-75.31,0,0,0,0,0,0,0,0,0,0,0,0,0,0,0,0,
560,-55.5,-35.88,-48.45,-47.82,-52.57,-72.78,-54.65,-15.76,-99.14,-9.482,-78.88,-76.05,-62.65,-55.04,-59.81,-74.57,0,0,0,0,0,0,0,0,0,0,0,0,0,0,0,0,
561,-65.26,-36.58,-50.6,-45.72,-44.46,-66.09,-47.44,-8.476,-8.733,-18.68,-11.58,-47.87,-51.73,-45.19,-34.54,-42.93,0,0,0,0,0,0,0,0,0,0,0,0,0,0,0,0,
562,-5.114,-17.46,-15.67,-14.94,1.304,-19.6,-14.87,12.49,32.05,-43.53,-48.88,-21.26,-11.75,3.975,-6.559,-5.587,0,0,0,0,0,0,0,0,0,0,0,0,0,0,0,0,
563,53.32,9.89,22.85,18.39,29.98,10.62,7.51,24.23,-56.14,-27.79,-120.9,-24.17,0.3379,9.755,-2.178,-1.662,0,0,0,0,0,0,0,0,0,0,0,0,0,0,0,0,
564,-6.303,-1.575,10.3,1.587,-5.595,-28.38,-20.73,-1.812,-71.89,9.154,-13.74,-29.83,-25.46,-22.92,-19.47,-27.67,0,0,0,0,0,0,0,0,0,0,0,0,0,0,0,0,
565,-75.74,-36.2,-27.3,-37.55,-43.44,-63.14,-47.39,-35.09,11.46,3.097,96.02,-17.04,-27.78,-28.25,-21.69,-24.55,0,0,0,0,0,0,0,0,0,0,0,0,0,0,0,0,
566,-45.78,-30.97,-17.5,-24.07,-16.57,-29.54,-24.05,-23.18,32.08,-8.155,22.46,-7.924,-2.955,-13.08,-7.133,3.723,0,0,0,0,0,0,0,0,0,0,0,0,0,0,0,0,
567,16.35,-11.34,20.26,14.84,30.11,12.65,-2.831,5.392,-6.258,-4.053,-46.89,-14.63,-0.3273,-6.299,-7.667,3.678,0,0,0,0,0,0,0,0,0,0,0,0,0,0,0,0,
568,33.42,-21.26,22.55,12.41,30.71,7.55,-11.05,4.855,-54.07,-17.86,-4.878,-13.63,-6.234,-3.595,-1.963,1.425,0,0,0,0,0,0,0,0,0,0,0,0,0,0,0,0,
569,-0.2474,-21.87,3.157,-7.056,7.622,-15.67,-14.7,-7.773,-52.06,-52.72,25.54,-2.454,-5.027,-13.98,16.45,12.68,0,0,0,0,0,0,0,0,0,0,0,0,0,0,0,0,
570,-27.31,-9.095,-5.717,-10.38,4.241,-26.5,-19.89,-15.13,28.53,-64.54,27.98,-0.0315,-19.86,-27.39,5.241,-5.567,0,0,0,0,0,0,0,0,0,0,0,0,0,0,0,0,
571,-12.25,-25.48,-11.8,-14.43,3.757,-31.81,-38.3,-21.4,37.55,-19.62,18.07,-8.588,-34.05,-23.47,-18.69,-27.3,0,0,0,0,0,0,0,0,0,0,0,0,0,0,0,0,
572,-2.772,-42.68,-8.768,-10.98,-1.026,-23.77,-33.09,-12.21,-27.01,14.55,-36.66,-21.88,-28.57,-23.72,-17.13,-16.24,0,0,0,0,0,0,0,0,0,0,0,0,0,0,0,0,
573,-6.337,-24.66,15.01,16.56,18.22,4.99,2.631,13.67,-9.973,-16.51,-40.38,-27.82,-21.39,-26.08,-10.52,-11.79,0,0,0,0,0,0,0,0,0,0,0,0,0,0,0,0,
574,11.88,-7.852,32.37,35.53,42.5,20.49,19.42,22.28,7.941,-40.3,-8.31,-25.24,-15.87,-15.6,-17.15,-22.12,0,0,0,0,0,0,0,0,0,0,0,0,0,0,0,0,
575,18.96,-15.11,20.09,21.17,29.17,0.2415,1.36,7.561,-48.43,-26.19,-88.82,-31.93,-12.18,-20.2,-24.74,-18.38,0,0,0,0,0,0,0,0,0,0,0,0,0,0,0,0,
576,-23.56,-19.96,-7.448,-2.277,-13.54,-35.3,-16.01,-1.909,-56.91,-21.56,-122.1,-39.39,-18.23,-34.51,-28.01,-19.26,0,0,0,0,0,0,0,0,0,0,0,0,0,0,0,0,
577,-63.37,-13.96,-18.36,-7.87,-29.59,-43.65,-12.31,0.1163,-1.478,-21.2,27.58,-19.39,-14.25,-23.57,-20.49,-26.27,0,0,0,0,0,0,0,0,0,0,0,0,0,0,0,0,
578,-12.25,-1.19,10.4,10.41,18.48,3.119,8.819,11.72,30.42,-6.382,110.6,23.72,13.27,-0.0076,9.564,0.7959,0,0,0,0,0,0,0,0,0,0,0,0,0,0,0,0,
579,79.39,23.51,46.87,35.75,65.22,48.81,31.67,30.39,28.92,11.57,54.84,49.27,30.45,10.21,32.12,31.47,0,0,0,0,0,0,0,0,0,0,0,0,0,0,0,0,
580,72.2,32.61,41.5,38.04,43.27,34.35,30.25,29.45,22.47,15.02,34.24,33.05,17.99,7.759,12.41,15.45,0,0,0,0,0,0,0,0,0,0,0,0,0,0,0,0,
581,14.51,6.843,20.29,19.68,16.59,12.05,8.045,6.087,6.455,-5.862,33.16,13.22,7.616,2.151,-2.842,1.183,0,0,0,0,0,0,0,0,0,0,0,0,0,0,0,0,
582,21.62,-11.86,15.65,5.137,23.97,14.88,-5.557,-10.69,-7.529,-31.02,13.52,25.31,11.98,-4.116,22.12,22.53,0,0,0,0,0,0,0,0,0,0,0,0,0,0,0,0,
583,43.85,0.9095,10.97,1.511,20.31,15.48,3.029,-8.364,23.7,-39.85,21.21,42.23,19.65,0.4632,35.3,38.39,0,0,0,0,0,0,0,0,0,0,0,0,0,0,0,0,
584,54.66,23.79,16.35,11,22.68,26.28,24.1,10.51,45.3,-12.08,16.3,40.48,33.26,24.8,19.99,40.93,0,0,0,0,0,0,0,0,0,0,0,0,0,0,0,0,
585,64.58,33.58,25.49,19.29,31.11,26.25,25.86,20.53,2.479,45.31,5.274,28.23,32.55,27.62,9.664,33.62,0,0,0,0,0,0,0,0,0,0,0,0,0,0,0,0,
586,18.33,14.61,7.701,10.15,3.621,-3.721,6.071,5.623,-15.12,43.4,43.19,19.32,11.01,-5.204,7.422,13.79,0,0,0,0,0,0,0,0,0,0,0,0,0,0,0,0,
587,-15.46,-3.224,1.807,9.105,-7.736,4.162,8.298,2.118,-4.225,-16.71,36.88,24.25,7.568,-15.34,13.32,14.9,0,0,0,0,0,0,0,0,0,0,0,0,0,0,0,0,
588,30.92,12.93,17.44,18.71,15.1,30.63,23.83,15.68,-16.78,-27.14,-60.81,24.7,10.18,-10.15,19.97,24.04,0,0,0,0,0,0,0,0,0,0,0,0,0,0,0,0,
589,43.13,20.5,-0.2103,5.844,4.4,5.415,13.84,11.5,19.5,-14.38,-72.43,14.61,-8.441,-29.13,11.31,5.3,0,0,0,0,0,0,0,0,0,0,0,0,0,0,0,0,
590,23.22,3.779,-24.74,-10.86,-11.08,-8.27,3.625,2.333,52.72,-14.05,45.16,26.88,-7.811,-23.76,11.41,0.0803,0,0,0,0,0,0,0,0,0,0,0,0,0,0,0,0,
591,62.88,9.994,-16.18,-6.389,6.301,17.35,14.71,7.57,-9.403,18.95,84.15,50.26,20.85,13.96,28.83,25.22,0,0,0,0,0,0,0,0,0,0,0,0,0,0,0,0,
592,74.78,30.24,-11.22,-4.11,3.87,13.53,22.28,13.05,-40.09,17.53,25.4,45.2,29.08,16.47,28.19,28.42,0,0,0,0,0,0,0,0,0,0,0,0,0,0,0,0,
593,21.21,24.83,-15.65,-10.01,-9.64,-1.125,16.82,10.52,5.849,-18.32,29.93,23.69,10.23,-5.774,9.527,5.916,0,0,0,0,0,0,0,0,0,0,0,0,0,0,0,0,
594,1.421,0.7683,-8.825,-10.89,0.6585,2.929,3.614,-1.813,18.41,10.39,57.72,8.611,-8.151,-9.839,0.6741,-8.57,0,0,0,0,0,0,0,0,0,0,0,0,0,0,0,0,
595,-0.3525,-19.64,-13.54,-17.53,-5.979,-15.21,-14.21,-15.86,-2.523,6.424,13.71,-2.779,-15.88,-17.1,1.456,-12.76,0,0,0,0,0,0,0,0,0,0,0,0,0,0,0,0,
596,-21.95,-21.85,-32.11,-32.92,-26.58,-36.58,-25.14,-15.09,-3.987,-57.09,-25.55,-4.37,-6.979,-17.97,5.939,-4.618,0,0,0,0,0,0,0,0,0,0,0,0,0,0,0,0,
597,-6.588,-5.814,-29.63,-32.85,-14.8,-21.14,-24.28,-4.629,4.506,-20.23,-21.4,4.636,14.78,19.54,6.749,9.315,0,0,0,0,0,0,0,0,0,0,0,0,0,0,0,0,
598,15.45,-0.2368,-15.26,-18.23,-3.775,-13.39,-27.06,-3.712,-30.77,25.65,-32.79,-6.399,9.212,30.98,-13.87,-7.267,0,0,0,0,0,0,0,0,0,0,0,0,0,0,0,0,
599,-22.87,-20.96,-15.95,-13.97,-18.08,-31.48,-35.27,-10.73,-73.92,-35.7,-19.36,-27.29,-21.59,-9.245,-27.03,-32.16,0,0,0,0,0,0,0,0,0,0,0,0,0,0,0,0,
600,-45.18,-28.72,-2.727,-1.331,-4.858,-17.04,-16.65,1.988,-0.9184,-27.84,23.96,-9.646,-9.674,-8.858,-1.786,-13.7,0,0,0,0,0,0,0,0,0,0,0,0,0,0,0,0,
601,1.52,-0.1665,29.74,30.69,28.61,22.2,21.05,31.36,74.51,54.9,-38.33,8.472,19.93,16.43,6.632,0.0394,0,0,0,0,0,0,0,0,0,0,0,0,0,0,0,0,
602,28.25,14.81,28.81,32.38,24.91,20.89,18.53,30.48,-1.865,32.31,-103.4,-13.27,-8.262,-10.96,-20.09,-28.79,0,0,0,0,0,0,0,0,0,0,0,0,0,0,0,0,
603,4.009,-9.256,1.459,0.1059,7.385,-6.889,-20.43,-2.621,-40.42,-36.51,19.59,-16.85,-46.1,-35.29,-26.17,-44.29,0,0,0,0,0,0,0,0,0,0,0,0,0,0,0,0,
604,-9.931,-32.73,-8.533,-18.57,8.492,-16.74,-39.22,-21.54,24.69,-49.53,103.8,-3.592,-40.11,-23.08,-25.03,-36.48,0,0,0,0,0,0,0,0,0,0,0,0,0,0,0,0,
605,-3.246,-34.51,-3.763,-17.57,8.43,-15.19,-29.73,-13.27,13.06,-30.83,13.94,-12.86,-18.47,-12.68,-31.89,-25.88,0,0,0,0,0,0,0,0,0,0,0,0,0,0,0,0,
606,0.341,-22.47,3.603,-7.44,4.759,-14.89,-20.03,0.397,-16.77,11.46,-8.989,-10.78,0.51,1.467,-18.41,-9.394,0,0,0,0,0,0,0,0,0,0,0,0,0,0,0,0,
607,-4.784,-11.87,1.389,0.182,-2.908,-20.83,-20.24,3.04,3.608,17.46,5.742,-11.97,-4.761,-1.698,-20.13,-17.65,0,0,0,0,0,0,0,0,0,0,0,0,0,0,0,0,
608,-12.65,-13.5,-9.186,-6.228,-19.52,-31.6,-16.2,0.5178,-19.73,-36.31,-49.46,-34.73,-27.66,-28.93,-41.32,-40.66,0,0,0,0,0,0,0,0,0,0,0,0,0,0,0,0,
609,-16.61,-11.36,-6.063,-5.725,-22.72,-30.97,-6.748,6.565,-35.44,-46.29,-22.76,-21.88,-18.21,-22.53,-26.54,-28.67,0,0,0,0,0,0,0,0,0,0,0,0,0,0,0,0,
610,-17.38,-2.886,2.158,10.25,-7.624,-14.71,-5.093,18.69,-10.01,-14.97,34.45,9.01,3.556,0.5877,0.1265,-4.251,0,0,0,0,0,0,0,0,0,0,0,0,0,0,0,0,
611,-1.69,1.873,11.77,23.76,10.83,8.511,3.604,28.52,-10.94,-3.875,11.65,10.95,3.778,-3.012,2.073,0.8135,0,0,0,0,0,0,0,0,0,0,0,0,0,0,0,0,
612,21.32,14.91,31.07,31.49,24.95,23.07,20.6,32.25,-0.2127,11.2,0.9248,8.827,8.523,-9.179,-1.596,-4.563,0,0,0,0,0,0,0,0,0,0,0,0,0,0,0,0,
613,15.43,25.68,34.67,30.55,24.22,20.39,21.35,30.99,23.52,21.93,4.689,11,18.42,-5.172,3.499,-4.41,0,0,0,0,0,0,0,0,0,0,0,0,0,0,0,0,
614,2.831,18.8,20.07,16.61,9.911,14.62,17.29,23.67,4.511,19.36,25.3,15.85,19.03,2.744,23.51,18.26,0,0,0,0,0,0,0,0,0,0,0,0,0,0,0,0,
615,7.146,14.54,6.35,-0.2007,-4.014,9.859,14.4,3.154,-8.46,15.84,47.2,24.41,19.33,8.442,38.22,37.06,0,0,0,0,0,0,0,0,0,0,0,0,0,0,0,0,
616,3.125,15.24,-3.848,-9.541,-5.146,8.351,-0.0912,-13.62,25.25,-1.789,-38.66,12.7,16.92,4.399,22.87,21.74,0,0,0,0,0,0,0,0,0,0,0,0,0,0,0,0,
617,-3.42,9.953,-1.078,-13.64,1.256,15.22,-5.788,-8.654,53.3,14.2,-74.47,-6.89,9.347,6.579,-1.608,1.327,0,0,0,0,0,0,0,0,0,0,0,0,0,0,0,0,
618,-3.016,9.499,2.55,-13.44,-6.838,10.02,4.936,2.529,18.85,46.89,40.75,-15.34,2.547,9.346,-24.09,-10.85,0,0,0,0,0,0,0,0,0,0,0,0,0,0,0,0,
619,-4.308,13.32,-2.494,3.539,-15.42,-2.66,13.52,12.66,-53.79,4.63,50.29,-29.05,-5.386,-8.999,-45.47,-26.18,0,0,0,0,0,0,0,0,0,0,0,0,0,0,0,0,
620,-9.669,5.391,0.8015,17.29,-11.52,-9.417,10.12,14.67,-81.05,-30,-32.38,-40.01,-18.06,-28.27,-46.62,-31.87,0,0,0,0,0,0,0,0,0,0,0,0,0,0,0,0,
621,-42.64,-15.17,-7.918,-5.4,-24.95,-35.39,-10.87,-0.7389,-44.7,0.1293,-20.68,-37.39,-31.2,-32.07,-34.7,-25.26,0,0,0,0,0,0,0,0,0,0,0,0,0,0,0,0,
622,-81.26,-31.82,-29.7,-24.77,-37.35,-62.75,-28.82,-8.241,-3.151,-12.92,-25.89,-38.84,-34.48,-27.72,-29.41,-17.43,0,0,0,0,0,0,0,0,0,0,0,0,0,0,0,0,
623,-69.41,-34.32,-22.78,-8.109,-17.68,-55.91,-23.39,-4.701,-4.21,-36.75,-53.94,-40.71,-29.12,-18.76,-24.97,-10.58,0,0,0,0,0,0,0,0,0,0,0,0,0,0,0,0,
624,-40.44,-28.46,-7.66,-0.4791,-6.424,-45.85,-16.98,-8.637,-35.71,-8.94,-2.131,-27.47,-23.22,-22.7,-17.8,-8.707,0,0,0,0,0,0,0,0,0,0,0,0,0,0,0,0,
625,-43.6,-21.82,-19.25,-19.41,-21.18,-55.47,-26.32,-11.19,-37.59,-16.31,8.848,-17.58,-20.3,-43.82,-19.02,-18.67,0,0,0,0,0,0,0,0,0,0,0,0,0,0,0,0,
626,-51.81,-24.38,-31.86,-35.98,-26.03,-60.21,-41.34,-17.45,-0.7612,-38.44,-30.57,-24.29,-24.19,-46.37,-28.79,-33.88,0,0,0,0,0,0,0,0,0,0,0,0,0,0,0,0,
627,-29.29,-32.68,-24.79,-34.3,-9.576,-43.47,-44.11,-20.55,4.824,-7.54,-27.17,-23.9,-23.72,-19.6,-30.87,-35.7,0,0,0,0,0,0,0,0,0,0,0,0,0,0,0,0,
628,-0.0483,-27.77,-15.32,-18.97,-0.4924,-27.9,-28.44,0.991,-46.54,14.05,-77.61,-22.45,-13.47,-2.515,-31.05,-33.22,0,0,0,0,0,0,0,0,0,0,0,0,0,0,0,0,
629,-16.16,-20.43,-17.12,-9.04,-18.6,-39.8,-17.42,15.99,-59.44,22.37,-131.5,-38.24,-11.95,-13.45,-42.37,-43.89,0,0,0,0,0,0,0,0,0,0,0,0,0,0,0,0,
630,-48.84,-21.54,-18.17,-4.405,-32.64,-51.99,-19.27,11.32,7.074,33.53,-17.03,-34.95,-15.87,-28.53,-45.29,-48.01,0,0,0,0,0,0,0,0,0,0,0,0,0,0,0,0,
631,-47.12,-16.68,-18.7,-2.141,-32.11,-50.91,-22.58,8.933,3.622,-9.528,84.58,-19.73,-16.62,-32.22,-42.25,-46.82,0,0,0,0,0,0,0,0,0,0,0,0,0,0,0,0,
632,-47.85,-18.71,-29.73,-15.57,-43.29,-60.71,-29.16,0.5291,-65.31,-34.07,-9.009,-37.14,-22.48,-24.32,-46.5,-53.69,0,0,0,0,0,0,0,0,0,0,0,0,0,0,0,0,
633,-48.33,-28.67,-27.86,-19.93,-37.02,-52.83,-24.18,-1.568,-9.179,20.9,-76.58,-40.29,-19.83,-7.486,-28.1,-37.99,0,0,0,0,0,0,0,0,0,0,0,0,0,0,0,0,
634,-14.59,-18.67,-13.46,-4.237,-9.083,-21.16,-6.906,12.56,37.3,32.48,1.486,-11.02,-9.72,-2.82,-2.348,-16.84,0,0,0,0,0,0,0,0,0,0,0,0,0,0,0,0,
635,-3.433,-12.85,-20.87,-7.648,-11.05,-16.66,-11.25,8.415,-72.68,-2.244,31.12,-17.43,-19.26,-22.55,-17.76,-37.7,0,0,0,0,0,0,0,0,0,0,0,0,0,0,0,0,
636,-23.71,-27.36,-26.42,-18.36,-21.38,-20.38,-19.76,-2.687,-86.91,1.995,-22.98,-40.48,-30.81,-36.97,-40.08,-55.55,0,0,0,0,0,0,0,0,0,0,0,0,0,0,0,0,
637,-24.98,-19.59,-4.828,-8.286,-13.02,-4.854,-2.402,7.243,21.23,-9.808,-25.24,-27.89,-17.82,-19.58,-30.49,-35.47,0,0,0,0,0,0,0,0,0,0,0,0,0,0,0,0,
638,-21.47,3.933,13.14,-0.6721,-4.007,3.597,10.01,15.23,31.74,-17.4,2.573,-10.32,0.7723,8.575,-14.1,-22.04,0,0,0,0,0,0,0,0,0,0,0,0,0,0,0,0,
639,-5.251,9.767,21.26,6.144,20.61,15.34,11.27,18.2,18.24,26.54,-14.93,-7.628,5.318,10.21,-9.021,-23.5,0,0,0,0,0,0,0,0,0,0,0,0,0,0,0,0,
640,24.88,12.38,24.25,20.58,35.23,25.81,19.72,23.36,20.75,8.043,-32.55,-11.6,-5.45,-14.11,-16.21,-24.46,0,0,0,0,0,0,0,0,0,0,0,0,0,0,0,0,
641,-1.151,7.727,6.819,13.83,2.399,0.088,14.65,11.69,-35.71,-41.96,-6.433,-16.37,-14.99,-23.35,-18.56,-27.78,0,0,0,0,0,0,0,0,0,0,0,0,0,0,0,0,
642,-47.33,-5.87,-1.736,4.06,-8.194,-11.61,9.747,5.711,-8.821,12.45,32.02,6.746,4.217,1.919,7.355,-12.99,0,0,0,0,0,0,0,0,0,0,0,0,0,0,0,0,
643,-16.68,6.224,23.65,25.25,34.59,28.31,26.48,24.89,91.52,62.32,44.98,37.81,27.81,20.67,23.97,6.798,0,0,0,0,0,0,0,0,0,0,0,0,0,0,0,0,
644,32.19,13.37,34.01,35.36,53.11,46.5,16.77,22.83,63.59,18.39,29.21,26.27,13.24,4.004,3.472,-5.816,0,0,0,0,0,0,0,0,0,0,0,0,0,0,0,0,
645,24.28,-16.76,12.7,13.94,34.05,23.88,-11.29,1.985,5.868,-2.71,16.97,10.26,-5.35,-7.596,-5.511,-18.52,0,0,0,0,0,0,0,0,0,0,0,0,0,0,0,0,
646,17.04,-26.21,7.407,8.132,26.35,21.4,-0.5975,10.32,23.25,13.54,19.55,19.6,0.582,4.187,3.388,-11.68,0,0,0,0,0,0,0,0,0,0,0,0,0,0,0,0,
647,30,-11.52,15.96,17.65,24.73,29.3,10.77,19.21,-22.42,0.017,-0.9031,6.675,-6.086,-0.471,-4.163,-14.76,0,0,0,0,0,0,0,0,0,0,0,0,0,0,0,0,
648,10.06,-16.05,10.82,15.63,13.21,20.7,0.9109,7.61,-51.21,-7.863,-22.63,-12.85,-16.17,-12.81,-4.731,-11.67,0,0,0,0,0,0,0,0,0,0,0,0,0,0,0,0,
649,-18.76,-8.836,7.864,18.34,9.072,18.31,8.811,11.7,48.43,5.401,9.003,-0.0128,2.318,2.544,7.979,6.14,0,0,0,0,0,0,0,0,0,0,0,0,0,0,0,0,
650,-17.39,6.116,6.86,21.01,13.66,11.38,6.205,13.78,63.04,-1.919,26.34,1.185,15.58,16.53,3.056,9.864,0,0,0,0,0,0,0,0,0,0,0,0,0,0,0,0,
651,-16.1,-10.36,-4.888,8.454,14.41,-9.154,-12.27,-1.365,-11.7,-15.28,-11.85,-16.87,9.369,8.028,-4.096,9.115,0,0,0,0,0,0,0,0,0,0,0,0,0,0,0,0,
652,-15.45,-16.95,-7.295,6.64,12.83,-11.76,-1.948,6.657,16.43,2.857,-6.207,-11.19,9.218,3.406,-2.418,8.041,0,0,0,0,0,0,0,0,0,0,0,0,0,0,0,0,
653,-2.674,-1.278,-2.326,12.98,2.573,-12.32,4.189,20.22,18.2,24.27,7.279,-5.411,3.272,-1.206,-13.72,-11.08,0,0,0,0,0,0,0,0,0,0,0,0,0,0,0,0,
654,-14.48,-6.36,-12.74,1.199,-18.83,-31,-5.998,8.253,-39.23,5.828,-75.91,-20.46,-11.7,-18.24,-23.69,-24.04,0,0,0,0,0,0,0,0,0,0,0,0,0,0,0,0,
655,-24.35,-8.832,-16.68,1.627,-14.87,-20.1,17.13,11.59,18.81,-8.213,-94.19,-8.605,-0.7005,-14.56,-3.11,-5.447,0,0,0,0,0,0,0,0,0,0,0,0,0,0,0,0,
656,22.17,15.59,7.768,32.81,27.01,24.42,42.61,32.55,57.83,22.88,50.26,34.33,28.15,17.53,29.57,20.43,0,0,0,0,0,0,0,0,0,0,0,0,0,0,0,0,
657,53.81,27.58,24.13,42.36,44.71,32.36,23.91,25.76,-8.551,33.6,111.6,42.35,27.6,24.53,31.2,16.96,0,0,0,0,0,0,0,0,0,0,0,0,0,0,0,0,T2
658,18.75,15.85,6.88,17.04,11.19,2.346,-1.301,9.692,-4.949,2.988,19.68,9.917,6.68,-2.549,4.814,-9.215,0,0,0,0,0,0,0,0,0,0,0,0,0,0,0,0,
659,-5.278,13.81,-10.77,5.613,-16.09,-4.521,-3.551,10.68,9.055,-4.314,-12.16,-5.2,9.497,-9.228,-13.19,-20.86,0,0,0,0,0,0,0,0,0,0,0,0,0,0,0,0,
660,-0.9648,27.86,-11.2,7.261,-15.79,3.639,-0.1029,5.756,-43.73,11.23,8.348,-4.097,23.47,8.19,-20.59,-12.59,0,0,0,0,0,0,0,0,0,0,0,0,0,0,0,0,
661,-7.378,35.04,-12.06,-1.027,-12.49,-2.385,-0.1383,1.47,-8.721,15.49,-17.97,-6.459,23.33,15.93,-17.86,2.9,0,0,0,0,0,0,0,0,0,0,0,0,0,0,0,0,
662,-0.172,30.53,-14.29,-2.298,-5.675,-3.918,-3.039,12.73,61.73,14.31,-3.574,6.851,24.77,21.27,2.84,19.45,0,0,0,0,0,0,0,0,0,0,0,0,0,0,0,0,
663,10.23,24.45,-16.18,0.1836,-2.954,-5.349,-8.507,13.38,13.92,16.49,18.22,12.23,26.31,26.96,10.67,18.26,0,0,0,0,0,0,0,0,0,0,0,0,0,0,0,0,
664,3.1,17.49,-18.61,-3.345,-8.024,-8.053,-3.581,6.885,-40.08,14.27,-45.89,-7.301,15.23,17.97,-1.08,2.9,0,0,0,0,0,0,0,0,0,0,0,0,0,0,0,0,
665,10.08,8.508,-11.84,2.595,-4.923,8.517,10.49,9.021,-17.27,-4.488,-46.31,-6.114,3.383,10.2,-1.565,-4.671,0,0,0,0,0,0,0,0,0,0,0,0,0,0,0,0,
666,-4.133,-6.519,-9.015,3.974,-11.71,5.553,3.448,-2.696,-0.5157,-17.44,39.07,4.069,-9.332,12.09,0.1548,-10.11,0,0,0,0,0,0,0,0,0,0,0,0,0,0,0,0,
667,-47.6,-29.45,-21.67,-8.598,-27.18,-24.44,-22.33,-20.1,13.7,-12.79,21.75,-9.938,-24.55,6.036,-3.179,-14.29,0,0,0,0,0,0,0,0,0,0,0,0,0,0,0,0,
668,-27.1,-39.34,-18.65,-7.668,-9.414,-13.63,-24.12,-14.18,41.09,-19.66,-21.46,-5.715,-23,5.329,8.844,-6.139,0,0,0,0,0,0,0,0,0,0,0,0,0,0,0,0,
669,28.23,-21.22,14.96,7.916,27.56,22.09,-1.309,1.452,34.18,-16.03,19.31,15.15,-14.3,17.4,17.69,-1.097,0,0,0,0,0,0,0,0,0,0,0,0,0,0,0,0,
670,14.59,-4.778,29.05,8.917,26.98,13.35,-0.8677,0.5741,13.74,-10.82,16.54,-4.304,-30.95,1.712,-4.366,-16.96,0,0,0,0,0,0,0,0,0,0,0,0,0,0,0,0,
671,-35.65,-19.92,-11.79,-16.82,-17.8,-23.52,-28.26,-19.06,-4.992,-48.8,-10.01,-33.89,-49.07,-23.57,-24.97,-28.84,0,0,0,0,0,0,0,0,0,0,0,0,0,0,0,0,
672,-49.16,-32.83,-42.26,-28.83,-39.84,-30.84,-30.33,-25.26,-27.54,-39.31,-10.65,-22.74,-23.76,4.346,-8.002,-6.192,0,0,0,0,0,0,0,0,0,0,0,0,0,0,0,0,
673,-26.37,-10.96,-13.55,4.055,-6.779,-6.541,1.085,-6.724,-17.05,34.11,-85.79,-13.46,6.778,38.19,9.947,16.39,0,0,0,0,0,0,0,0,0,0,0,0,0,0,0,0,
674,-11.41,1.186,0.3456,19.61,3.128,-2.39,6.35,-8.271,-10.69,38.08,-110.8,-34.31,-4.606,17.72,-4.546,2.751,0,0,0,0,0,0,0,0,0,0,0,0,0,0,0,0,
675,-25.16,-16.82,-30.2,-7.661,-32.6,-27.07,-19.45,-24.89,-35.44,-0.2949,7.433,-41.38,-18.6,-1.635,-16,-10.41,0,0,0,0,0,0,0,0,0,0,0,0,0,0,0,0,
676,-30.24,-16.31,-35.61,-10.9,-37.64,-30.27,-22.35,-12.04,-33.12,-8.644,41.34,-29.33,-5.339,15.08,-6.59,0.4896,0,0,0,0,0,0,0,0,0,0,0,0,0,0,0,0,
677,-19.14,3.493,-18.4,0.841,-23.92,-16.94,-6.339,2.372,-26.57,-13.23,-17.6,-26.9,8.255,32.08,2.177,11.3,0,0,0,0,0,0,0,0,0,0,0,0,0,0,0,0,
678,-33.85,0.4803,-26.67,-20.03,-40.73,-32.87,-14.94,-13.27,-30.66,2.447,4.377,-30.81,1.211,28.15,1.794,7.177,0,0,0,0,0,0,0,0,0,0,0,0,0,0,0,0,
679,-62.76,-24.95,-47.94,-47.55,-57.28,-56.85,-39.77,-33.93,-14.27,7.532,8.518,-36.9,-16.29,13.8,-6.279,-3.465,0,0,0,0,0,0,0,0,0,0,0,0,0,0,0,0,
680,-50.88,-40.24,-55.45,-57.87,-44.9,-38.47,-39.2,-38.77,-21.76,-25.8,-49.86,-29.31,-7.952,17.35,0.6963,6.853,0,0,0,0,0,0,0,0,0,0,0,0,0,0,0,0,
681,4.635,-22.4,-42.93,-48.59,-16.75,0.8409,-18.17,-28.37,-17.07,-24.22,-24.02,5.186,21.72,30.7,30.7,32.1,0,0,0,0,0,0,0,0,0,0,0,0,0,0,0,0,
682,32.4,10.93,-24.67,-23.71,-5.093,3.117,-7.731,-11.02,28.18,-7.034,22.4,18.88,32.02,36.34,43.94,39.01,0,0,0,0,0,0,0,0,0,0,0,0,0,0,0,0,
683,0.9467,25.88,-22.54,-13.26,-20,-18.99,-0.5336,5.051,-2.234,-4.836,-17.75,-3.451,33.74,55.28,32.75,38.05,0,0,0,0,0,0,0,0,0,0,0,0,0,0,0,0,
684,-26.95,13.06,-36.93,-27.01,-32.73,-31.66,-4.776,3.301,-48.49,8.172,-29,-14.23,23.76,48.08,17.62,26.92,0,0,0,0,0,0,0,0,0,0,0,0,0,0,0,0,
685,-35.08,-17.61,-54.71,-44.15,-43.99,-50.14,-37.27,-19.71,-9.195,-21.4,-17.28,-18.18,-13.69,-6.134,0.6179,-1.486,0,0,0,0,0,0,0,0,0,0,0,0,0,0,0,0,
686,-45.92,-30.71,-53.86,-44.55,-53.66,-55.76,-47.29,-21.61,-19.25,-54.41,-82.31,-30.04,-24.3,-14.74,-5.659,-4.437,0,0,0,0,0,0,0,0,0,0,0,0,0,0,0,0,
687,-28.21,-17,-33.05,-27.87,-34,-26.2,-24.93,-0.3125,-59.14,-11.58,-66.4,-18.51,-5.857,19.09,-2.934,6.644,0,0,0,0,0,0,0,0,0,0,0,0,0,0,0,0,
688,-0.5972,-14.2,-20.6,-16.9,-6.878,-3.597,-14.27,3.969,15.56,10.62,61.13,9.35,-1.3,22.86,-0.205,2.456,0,0,0,0,0,0,0,0,0,0,0,0,0,0,0,0,
689,-0.0054,-5.154,-7.962,-7.292,4.897,5.196,12.24,17.07,87.45,-11.89,64.32,21.19,16.3,26.89,11.37,13.65,0,0,0,0,0,0,0,0,0,0,0,0,0,0,0,0,
690,11.25,22.93,9.236,9.111,9.158,14.3,45.35,40.99,51.69,0.316,-3.146,17.54,27.32,29.62,4.403,14.24,0,0,0,0,0,0,0,0,0,0,0,0,0,0,0,0,
691,31.33,14.79,-2.756,4.419,-3.846,6.835,29.8,26.65,1.398,12.43,0.6472,6.135,-1.547,7.685,-26.24,-18.57,0,0,0,0,0,0,0,0,0,0,0,0,0,0,0,0,
692,32.27,-0.5436,-12.73,-2.941,-11.27,9.664,22.95,16.67,-2.083,12.8,-15.97,5.295,0.0382,19.88,-23.94,-19.73,0,0,0,0,0,0,0,0,0,0,0,0,0,0,0,0,
693,42.31,36.28,17.71,24.16,8.18,39.17,58.79,51.32,19.97,52.15,-16.44,24.54,36.12,49.93,-4.306,-0.3857,0,0,0,0,0,0,0,0,0,0,0,0,0,0,0,0,
694,65.5,65.76,34.99,43.73,12.8,49.74,68.8,66.68,0.5842,85.36,3.298,21.4,28.07,25.76,-25.11,-19.31,0,0,0,0,0,0,0,0,0,0,0,0,0,0,0,0,
695,63.06,50.94,16.24,24.78,-8.52,30.66,55.93,42.49,-37.17,40.49,-77,-5.532,3.682,-6.39,-39.79,-25.54,0,0,0,0,0,0,0,0,0,0,0,0,0,0,0,0,
696,32.96,49.2,14.55,16.9,-12.52,23.39,68.19,36.82,24.79,-20.95,-75.4,14.67,27.43,18.26,5.419,21.43,0,0,0,0,0,0,0,0,0,0,0,0,0,0,0,0,
697,38.9,77.2,43.25,44.09,17.93,55.61,92.02,60.48,89.44,16.05,74.58,60.15,58.28,50.54,40.52,46.7,0,0,0,0,0,0,0,0,0,0,0,0,0,0,0,0,
698,87.02,81.71,51.86,49.26,37.4,81.33,87.07,58.5,25.74,72.4,80.42,43.29,33.29,25.23,7.776,8.911,0,0,0,0,0,0,0,0,0,0,0,0,0,0,0,0,
699,71.52,40.81,15.61,9.387,6.489,46.8,43.94,18.51,-12.32,19.76,-19.41,6.526,-8.592,-16.98,-19.67,-18.66,0,0,0,0,0,0,0,0,0,0,0,0,0,0,0,0,
700,15.49,16.26,-8.975,-5.112,-14.96,16.41,17.77,0.0073,30.5,-24.25,-0.3453,22.32,-0.188,-8.861,6.618,6.364,0,0,0,0,0,0,0,0,0,0,0,0,0,0,0,0,
701,36.94,38.25,13.44,20.12,16.64,40.3,38.4,10.26,22.2,14.21,34.35,46.61,26.84,19.8,30.75,29.92,0,0,0,0,0,0,0,0,0,0,0,0,0,0,0,0,
702,66.86,46.01,30.91,21.39,36.58,55.4,49.3,8.184,6.439,11.42,22.17,54.88,25.5,23.49,38.72,32.74,0,0,0,0,0,0,0,0,0,0,0,0,0,0,0,0,
703,39.35,27.87,27.46,14.75,23.18,48.72,32.27,11.59,25.72,-22.55,69.9,68.29,18.08,14.13,48.31,38.92,0,0,0,0,0,0,0,0,0,0,0,0,0,0,0,0,
704,28.7,18.13,28.91,25.21,13.48,47.26,15.52,21.25,20.38,-24.72,84.6,53.32,13.59,-3.766,26.89,28.45,0,0,0,0,0,0,0,0,0,0,0,0,0,0,0,0,
705,37.76,6.417,23.83,12.06,17.89,44.62,1.541,5.908,43.64,-24.35,-43.4,19.28,10.59,-13.72,-3.244,7.483,0,0,0,0,0,0,0,0,0,0,0,0,0,0,0,0,
706,54.41,7.09,23.61,2.185,41.73,59.21,7.855,2.493,78.84,9.134,-107.4,27.89,25.1,9.884,10.87,13.92,0,0,0,0,0,0,0,0,0,0,0,0,0,0,0,0,
707,79.78,32.49,33.32,22.32,49.61,70.37,28.02,19.8,35.18,42.66,27.67,45.75,30.84,25.91,22.82,17.18,0,0,0,0,0,0,0,0,0,0,0,0,0,0,0,0,
708,50.99,34.55,14.53,13.36,15.99,41.14,19.74,8.352,-3.843,4.423,108.3,29.18,17.7,15.58,9.747,5.39,0,0,0,0,0,0,0,0,0,0,0,0,0,0,0,0,
709,9.875,19.04,-4.041,-9.726,4.007,25.51,9.315,-2.478,4.891,-10.43,42.88,32.11,30.61,28.9,33.05,31.49,0,0,0,0,0,0,0,0,0,0,0,0,0,0,0,0,
710,28.05,29.18,11.03,3.352,19.08,36.17,25.09,15.2,9.424,5.378,51.72,62.4,54.2,46.98,65.47,63.71,0,0,0,0,0,0,0,0,0,0,0,0,0,0,0,0,
711,39.85,34.43,7.91,4.653,7.357,19.41,18.54,6.407,54.16,-43,74.06,56.11,41.04,21.96,43.37,40.99,0,0,0,0,0,0,0,0,0,0,0,0,0,0,0,0,
712,30.86,10.85,-12.41,-17.9,1.167,4.055,-12.76,-19.64,75.38,-47.25,-0.2685,33.23,26.96,6.706,26.23,24.59,0,0,0,0,0,0,0,0,0,0,0,0,0,0,0,0,
713,44.29,0.6146,-0.8664,-8.707,19.87,21.64,-13.85,-5.271,-17.47,39.12,8.278,43.69,44.49,32.66,53.23,55.51,0,0,0,0,0,0,0,0,0,0,0,0,0,0,0,0,
714,44.57,14.92,8.048,10.23,14.17,23.75,1.684,17.03,-60.88,52.39,28.4,46.1,48.5,33.32,55.7,65.17,0,0,0,0,0,0,0,0,0,0,0,0,0,0,0,0,
715,22.51,17.07,-18.8,-8.492,-9.274,-3.781,-5.95,8.225,13.76,-2.969,-76.13,22.08,30.79,8.261,34.92,49.27,0,0,0,0,0,0,0,0,0,0,0,0,0,0,0,0,
716,10.05,10.04,-35,-33.79,-10.48,-17.58,-10.96,3.647,69.22,-8.982,-43.44,26.96,35.34,18.45,46.47,59.54,0,0,0,0,0,0,0,0,0,0,0,0,0,0,0,0,
717,3.518,21.92,-21.36,-30.11,-3.229,-8.006,3.054,13.23,81.38,10.17,117.6,40.91,42.99,27.8,47.76,59.42,0,0,0,0,0,0,0,0,0,0,0,0,0,0,0,0,
718,-3.348,32.97,-18.78,-19.57,-16.1,-6.874,0.1643,5.277,14.33,17.8,67.37,3.618,18.46,-6.24,2.865,16.97,0,0,0,0,0,0,0,0,0,0,0,0,0,0,0,0,
719,-10.87,25.72,-31.55,-21.61,-35.78,-16.46,-14.6,-7.73,-124.7,7.032,-68.07,-30.46,3.596,-17.04,-18.87,-7.926,0,0,0,0,0,0,0,0,0,0,0,0,0,0,0,0,
720,-9.608,28.94,-22.68,-18.53,-32.27,-8.585,-4.224,1.916,-101.8,-27.42,-18.76,5.183,27.2,22.36,14.68,11.95,0,0,0,0,0,0,0,0,0,0,0,0,0,0,0,0,
721,15.85,45.34,-1.738,-9.031,-14.06,7.691,12.53,10.9,46.5,-13.05,48.4,46.17,46.96,42.06,39.53,30.28,0,0,0,0,0,0,0,0,0,0,0,0,0,0,0,0,
722,40.01,48.18,-6.924,-17.67,-12.54,5.562,7.686,-5.333,32.71,44.49,-9.097,27.84,40.47,25.73,20.43,25.12,0,0,0,0,0,0,0,0,0,0,0,0,0,0,0,0,
723,31.63,37.79,-28.43,-37.44,-29.56,-3.958,-3.462,-24.24,-29.19,30.34,-38.18,4.104,32.92,18.88,1.662,21.02,0,0,0,0,0,0,0,0,0,0,0,0,0,0,0,0,
724,17.4,30.85,-32.88,-40.62,-37.12,2.483,-7.627,-21.7,39.86,-7.836,-2.333,24.47,42.17,28.38,23.27,40.31,0,0,0,0,0,0,0,0,0,0,0,0,0,0,0,0,
725,36.37,41.33,-16.65,-30.62,-18.45,24.2,-2.158,-7.396,54.81,26.09,4.214,53.23,58.01,34.14,59.4,69.31,0,0,0,0,0,0,0,0,0,0,0,0,0,0,0,0,
726,57.69,55.61,-5.316,-29.02,-2.739,31.7,7.942,-6.303,-18.71,39.58,30.61,58.43,57.52,29.83,65.59,72.16,0,0,0,0,0,0,0,0,0,0,0,0,0,0,0,0,
727,31.41,42.45,-19.6,-39.82,-21.92,6.133,-2.093,-22.88,-17.76,-16.14,52.8,40.97,40.63,21.76,46.14,52.01,0,0,0,0,0,0,0,0,0,0,0,0,0,0,0,0,
728,-11.12,21.64,-39.35,-48.14,-46.3,-19.35,-26.55,-31.44,-3.636,-49.06,-48.81,6.315,30.35,21.32,32.13,43.57,0,0,0,0,0,0,0,0,0,0,0,0,0,0,0,0,
729,-24.69,20.52,-34.31,-43.57,-40.35,-18.45,-27.96,-24.47,-31.4,-37.55,-96.42,-12.26,30.65,28.13,30.75,45.03,0,0,0,0,0,0,0,0,0,0,0,0,0,0,0,0,
730,-14.28,19.21,-16.03,-32.21,-21.11,-6.601,-12.5,-20.87,-3.813,-5.745,38.86,4.901,32.73,32.94,32.54,43.03,0,0,0,0,0,0,0,0,0,0,0,0,0,0,0,0,
731,14.65,20.56,-10.15,-22.56,-13.33,6.515,-10.98,-17.89,23.55,23.12,88.29,14.41,31.19,31.63,26.81,43.54,0,0,0,0,0,0,0,0,0,0,0,0,0,0,0,0,
732,25.06,28.37,-15.82,-19.79,-20.76,5.15,-18.77,-13.92,-32.07,1.208,0.4497,-8.603,14.93,21.95,4.208,33.5,0,0,0,0,0,0,0,0,0,0,0,0,0,0,0,0,
733,-11.05,11.94,-16.77,-23.47,-26.79,-18.76,-18.74,-20.32,-50.28,-19.61,-25.11,-33.54,-7.42,8.407,-23.15,10.02,0,0,0,0,0,0,0,0,0,0,0,0,0,0,0,0,
734,-31.49,-10.8,-10.56,-23.01,-15.52,-29.14,-12.68,-18.11,11.9,17.09,-34.95,-39.7,-13.77,0.4396,-29.65,4.543,0,0,0,0,0,0,0,0,0,0,0,0,0,0,0,0,
735,-22.35,-11.38,-7.817,-15.99,-6.016,-20.87,-14.67,-3.45,32.85,18.75,-39.03,-28.38,-10.81,0.7526,-18.36,13.74,0,0,0,0,0,0,0,0,0,0,0,0,0,0,0,0,
736,-23.06,-14.42,-2,-9.074,-2.22,-19.27,-26.78,-7.995,15.12,-26.28,9.418,-14.97,-14.63,1.68,-15.6,5.814,0,0,0,0,0,0,0,0,0,0,0,0,0,0,0,0,
737,0.5517,-23.12,11.47,-1.304,17.87,-9.093,-28.38,-18.83,20.25,-17.09,-10.24,-13.5,-26.66,-9.757,-21.19,-8.738,0,0,0,0,0,0,0,0,0,0,0,0,0,0,0,0,
738,30.03,-25.68,9.968,2.812,26.6,3.716,-17.43,-11.07,-2.904,-0.7259,-20.07,-7.822,-40.14,-22.89,-17.06,-6.549,0,0,0,0,0,0,0,0,0,0,0,0,0,0,0,0,
739,3.325,-35.47,-5.85,-6.818,4.997,-11.07,-21.82,-21.24,-42.75,-46.39,40.37,-4.621,-45.19,-17.7,-18.5,-6.396,0,0,0,0,0,0,0,0,0,0,0,0,0,0,0,0,
740,-23.36,-48.64,-13.26,-22.01,-4.542,-28.41,-40.82,-65.16,-13.98,-67.76,-35.81,-27.31,-44.33,-13.27,-35.06,-20.46,0,0,0,0,0,0,0,0,0,0,0,0,0,0,0,0,
741,-11.39,-52.4,-15.13,-22.25,5.672,-24.78,-42.88,-86.9,45.84,-28.86,-113.4,-33.5,-38.63,-19.53,-28.73,-15.47,0,0,0,0,0,0,0,0,0,0,0,0,0,0,0,0,
742,-6.568,-46.64,-12.48,-9.295,11.66,-22.61,-32.43,-69.5,53.91,-7.358,25.31,-6.366,-26.32,-13.11,-1.784,8.251,0,0,0,0,0,0,0,0,0,0,0,0,0,0,0,0,
743,-8.156,-39.85,-6.026,-11.61,14.85,-28.23,-41.55,-64.5,13.31,-14.63,113.7,-5.614,-27.55,-4.833,4.663,10.88,0,0,0,0,0,0,0,0,0,0,0,0,0,0,0,0,
744,-0.6294,-41.67,-6.268,-21.6,15.88,-21.12,-49.51,-71.71,-29.01,-18.43,31.5,-21.55,-35.49,-4.388,13.62,10.81,0,0,0,0,0,0,0,0,0,0,0,0,0,0,0,0,
745,7.384,-34.21,3.753,-2.077,15.79,-2.288,-22.51,-54.21,-17.27,-28.01,-0.8919,-10.66,-22.62,13.68,38.58,30.87,0,0,0,0,0,0,0,0,0,0,0,0,0,0,0,0,
746,7.065,-19.35,13.15,13.93,7.142,-2.605,-6.807,-46.37,33.23,-28.78,28.65,-8.397,-18.4,31.51,31.89,32.09,0,0,0,0,0,0,0,0,0,0,0,0,0,0,0,0,
747,-9.304,-32.23,-11.26,-11.26,-15.54,-17.2,-25.6,-67.46,20.32,-9.796,11.55,-25.24,-37.78,16.51,4.016,11.95,0,0,0,0,0,0,0,0,0,0,0,0,0,0,0,0,
748,-13.94,-44.13,-19.52,-19.72,-15.61,-6.306,-14.86,-60.88,-33.4,-14.97,-16.22,-19.66,-33.76,-0.2539,0.4904,5.418,0,0,0,0,0,0,0,0,0,0,0,0,0,0,0,0,
749,1.293,-21.16,16.02,10.36,3.521,12.31,16.77,-30.32,-15.48,-33.67,24.73,-0.2129,-10.65,8.504,5.986,4.185,0,0,0,0,0,0,0,0,0,0,0,0,0,0,0,0,
750,0.5645,-12.58,26.81,22.54,-1.905,8.119,3.739,-33.3,6.532,-16.91,47.78,-5.404,-18.62,11.68,-8.072,-11.37,0,0,0,0,0,0,0,0,0,0,0,0,0,0,0,0,
751,-1.891,-34.97,12.49,14.8,-1.415,10.22,-21.94,-54.69,-35.14,4.998,-77.77,-33.56,-44.87,-6.617,-34.05,-38.26,0,0,0,0,0,0,0,0,0,0,0,0,0,0,0,0,
752,10.58,-37,25.36,16.77,32.43,31.59,-7.893,-47.84,-7.647,4.962,-125.6,-33.84,-39.38,-9.64,-37.56,-50.77,0,0,0,0,0,0,0,0,0,0,0,0,0,0,0,0,
753,16.68,-8.561,46.43,27.1,55.97,50.9,23.31,-20.53,88.33,9.339,61.28,5.088,-12.02,15.85,-14.54,-33.01,0,0,0,0,0,0,0,0,0,0,0,0,0,0,0,0,
754,17.62,6.997,43.33,32.7,39.56,44.92,25.83,-16.16,64.49,6.589,117.4,3.768,-18.56,23.6,-18.79,-27.49,0,0,0,0,0,0,0,0,0,0,0,0,0,0,0,0,
755,-0.2317,-13.49,10.36,9.224,-9.972,-2.427,-13.61,-42.42,-61.4,-31.61,-37.87,-51.96,-56.55,-9.623,-53.45,-53.6,0,0,0,0,0,0,0,0,0,0,0,0,0,0,0,0,
756,-40.9,-37.38,-31.52,-29.6,-48.95,-48.74,-49.92,-57.71,-97.27,-79.85,-69.1,-80.11,-72.31,-34.22,-63.34,-61.79,0,0,0,0,0,0,0,0,0,0,0,0,0,0,0,0,
757,-66.13,-35.18,-38.62,-36.46,-43.36,-53.41,-48.34,-50.62,-30.59,-61.07,-18.95,-74.89,-55.54,-6.741,-52.49,-42.5,0,0,0,0,0,0,0,0,0,0,0,0,0,0,0,0,
758,-75.97,-25.8,-23.36,-24.62,-32.26,-45.72,-37.09,-44.87,-11.1,34.33,-29.12,-67.62,-34.51,23.53,-44.88,-27.76,0,0,0,0,0,0,0,0,0,0,0,0,0,0,0,0,
759,-65.29,-23.54,-22.71,-23.33,-32.12,-33.79,-28.53,-41.14,-43.06,55.89,-27.9,-46.71,-33.18,-4.072,-31.08,-20.17,0,0,0,0,0,0,0,0,0,0,0,0,0,0,0,0,
760,-17.17,-22.67,-18.06,-15.03,-15.9,-8.22,-12.43,-33.22,-12.38,-19.05,-38.37,-23.22,-41.1,-26.83,-9.861,-8.91,0,0,0,0,0,0,0,0,0,0,0,0,0,0,0,0,
761,12.81,-16.15,-0.3613,0.4493,-0.5078,7.36,5.292,-17.07,28.84,1.926,-17.77,-1.347,-18.62,15.16,15.72,9.127,0,0,0,0,0,0,0,0,0,0,0,0,0,0,0,0,
762,-0.6278,-2.68,0.9923,-4.042,-1.545,4.425,16.71,-11.11,-2.781,44.64,41.27,11.79,2.376,28.64,22.82,12.21,0,0,0,0,0,0,0,0,0,0,0,0,0,0,0,0,
763,-20.52,-10.61,-21.87,-25.17,-11.69,-12.92,0.0306,-46.69,-28.48,-62.78,-35,-19.5,-25.33,-22.66,-8.073,-13.34,0,0,0,0,0,0,0,0,0,0,0,0,0,0,0,0,
764,-35.69,-31.93,-38.17,-26.94,-23.02,-17.87,-30.2,-67.82,-13.51,-88.42,-94.28,-42.44,-27.97,-25.99,-29.11,-25.4,0,0,0,0,0,0,0,0,0,0,0,0,0,0,0,0,
765,-19.99,-10.02,-19.09,-0.5066,-11.78,17.56,-18.09,-24.74,-0.8737,58.86,46.15,-7.268,21.23,17.41,-21.23,-15.01,0,0,0,0,0,0,0,0,0,0,0,0,0,0,0,0,
766,19.78,30.31,11.59,16.7,8.611,39.71,18.65,9.267,-4.612,96.5,99.19,5.282,31.17,18.72,-29.83,-22.72,0,0,0,0,0,0,0,0,0,0,0,0,0,0,0,0,
767,13.87,33.99,19.77,13.95,6.74,19.22,31.57,4.437,-29.68,41.95,-15.44,-25.06,5.751,10.63,-46.06,-36.32,0,0,0,0,0,0,0,0,0,0,0,0,0,0,0,0,
768,-20.41,22.31,13.96,11.09,1.236,10.4,25.83,-0.2964,-19.17,38.64,-33.29,-30.75,-4.086,20.74,-41.55,-36.54,0,0,0,0,0,0,0,0,0,0,0,0,0,0,0,0,
769,-27.39,10.52,0.8222,0.4796,1.049,11.8,7.765,-15.77,33.09,-12.97,4.622,-26.58,-23.07,2.951,-35.66,-41.02,0,0,0,0,0,0,0,0,0,0,0,0,0,0,0,0,
770,-30.28,-10.07,-19.6,-22.44,-9.459,-7.088,-15.83,-33.17,11.08,-59.55,-34.65,-42.78,-47.26,-24.13,-38.44,-46.17,0,0,0,0,0,0,0,0,0,0,0,0,0,0,0,0,
771,-41.38,-29.26,-32.53,-40.77,-25.62,-24.64,-25.58,-32,-65.17,2.072,-46.02,-48.98,-45.63,-13.16,-35.99,-38.74,0,0,0,0,0,0,0,0,0,0,0,0,0,0,0,0,
772,-43.49,-34.46,-28.3,-37.17,-30.36,-19.7,-15.2,-26.74,-60.7,46.51,0.7336,-25.21,-19.14,29.22,-12.47,-11.41,0,0,0,0,0,0,0,0,0,0,0,0,0,0,0,0,
773,-36.72,-16.55,-8.462,-9.685,-10.64,3.401,4.421,-11.23,11.91,25.07,18.21,4.631,9.346,51.55,16.84,18.44,0,0,0,0,0,0,0,0,0,0,0,0,0,0,0,0,
774,-22.17,-8.092,-0.0297,-1.145,5.414,11.3,-0.997,-6.904,21.86,0.2134,8.288,3.406,-0.2795,17.91,13.31,9.701,0,0,0,0,0,0,0,0,0,0,0,0,0,0,0,0,
775,-17.1,-30.77,-14.37,-23.25,-8.393,-6.544,-25.03,-29.84,-39.91,-3.514,8.057,-10.94,-22.57,-8.5,2.714,-7.805,0,0,0,0,0,0,0,0,0,0,0,0,0,0,0,0,
776,-21.23,-27,-15.71,-22.76,-14.24,-5.93,-22.16,-28.55,-21.94,14.73,8.362,-2.068,-8.854,8.486,18.35,4.805,0,0,0,0,0,0,0,0,0,0,0,0,0,0,0,0,
777,-6.321,-1.63,-9.058,-10.23,-7.589,4.441,-12.39,-13.65,57.42,-6.749,-5.274,-0.8366,-8.511,-3.115,18.86,-0.2099,0,0,0,0,0,0,0,0,0,0,0,0,0,0,0,0,
778,-3.328,-12.58,-13.33,-19.72,-16.67,-7.231,-12.25,-18.72,32.62,-42.18,-12.52,-19.05,-36.24,-23.91,-2.217,-24.73,0,0,0,0,0,0,0,0,0,0,0,0,0,0,0,0,
779,-37.23,-21.06,-0.4034,-18.43,-13.92,-8.182,4.7,-9.391,-29.4,3.704,10.59,-21.15,-35.72,0.4286,-11.91,-27.03,0,0,0,0,0,0,0,0,0,0,0,0,0,0,0,0,
780,-46.1,-5.383,7.236,-11.18,-3.014,-0.7266,12.25,-3.394,-43.23,37.39,12.73,-18.96,-22.69,3.96,-21.58,-31.85,0,0,0,0,0,0,0,0,0,0,0,0,0,0,0,0,
781,-17.53,-1.246,-17.63,-19.31,-14.51,-9.686,5.849,-21.53,-51.33,-7.013,-56.8,-25.12,-16.31,-13.55,-28.57,-39.2,0,0,0,0,0,0,0,0,0,0,0,0,0,0,0,0,
782,-11.32,12.43,-17.68,-9.448,-10.24,-0.8635,21.39,-14.09,11.4,-7.085,-94,-15.81,2.722,9.99,-17.56,-23.27,0,0,0,0,0,0,0,0,0,0,0,0,0,0,0,0,
783,-14.93,32.5,15.84,9.146,19.28,23.86,25.7,7.298,81.35,45.51,1.675,7.735,13.11,28.75,-3.329,-12.11,0,0,0,0,0,0,0,0,0,0,0,0,0,0,0,0,
784,6.997,20.05,23.66,3.22,25.52,23.48,-0.6879,0.6913,25.53,44.52,105.4,25.06,3.863,14.34,8.201,-13.35,0,0,0,0,0,0,0,0,0,0,0,0,0,0,0,0,
785,11.99,-0.0981,-0.2638,-14.46,8.969,5.27,-18.45,-18.28,-13.1,-1.973,80.14,16.09,-9.508,1.45,8.028,-11.08,0,0,0,0,0,0,0,0,0,0,0,0,0,0,0,0,
786,-21.88,-11.08,-25.51,-34.7,-4.703,-13.87,-23.95,-32.54,10.11,-30.19,8.511,-12.59,-23.71,-12.23,-1.83,-10.89,0,0,0,0,0,0,0,0,0,0,0,0,0,0,0,0,
787,-41.71,-25.53,-29.84,-41.72,-6.647,-23.89,-24.64,-32.23,-15.4,-38.12,1.35,-16.07,-27.27,-16.9,9.605,-5.77,0,0,0,0,0,0,0,0,0,0,0,0,0,0,0,0,
788,-21.6,-26.4,-8.997,-19.96,10.94,-10.01,-14.81,-21.69,-11.87,-24.81,19.66,2.395,-23.7,-1.086,19.15,-4.118,0,0,0,0,0,0,0,0,0,0,0,0,0,0,0,0,
789,-4.343,-17.77,8.466,-0.1173,27.09,3.338,-5.966,-18.31,37.22,18.26,20.99,3.673,-23,5.16,0.0462,-18.18,0,0,0,0,0,0,0,0,0,0,0,0,0,0,0,0,
790,-16.21,-12.27,3.159,4.767,19.84,-4.273,-0.0594,-6.621,40.13,26.11,34.11,6.773,-7.688,5.617,2.278,-13.55,0,0,0,0,0,0,0,0,0,0,0,0,0,0,0,0,
791,-12.83,7.664,-8.351,4.015,14.85,-2.126,3.614,3.411,20.42,-11.36,17.67,19.97,9.672,16.49,24.92,6.679,0,0,0,0,0,0,0,0,0,0,0,0,0,0,0,0,
792,21.17,20.59,-12.65,-13.91,24.39,12.08,-1.984,-17.92,1.602,-3.008,-35.76,12.65,2.934,17.76,15.54,1.774,0,0,0,0,0,0,0,0,0,0,0,0,0,0,0,0,
793,26.04,7.261,-4.183,-17.94,30.56,15.61,2.211,-21.76,4.398,24.37,4.48,9.63,-0.7178,15.75,1.252,-5.393,0,0,0,0,0,0,0,0,0,0,0,0,0,0,0,0,
794,5.701,9.353,24.49,23.22,37.84,26.63,23.12,19.06,33.03,13.44,56.46,20.54,6.299,18.66,-0.1068,-2.762,0,0,0,0,0,0,0,0,0,0,0,0,0,0,0,0,
795,7.579,16.35,41.69,46.39,38.45,35.25,22.85,30.02,12,8.045,-56.76,-0.265,-8.121,6.215,-20.59,-21.3,0,0,0,0,0,0,0,0,0,0,0,0,0,0,0,0,
796,1.861,-9.437,14.92,17.64,17.82,11.47,-5.735,-7.018,-23.76,-1.72,-102,-15.06,-21.37,3.128,-25.4,-27.88,0,0,0,0,0,0,0,0,0,0,0,0,0,0,0,0,
797,-7.867,-21.22,-7.047,-4.655,9.847,-3.257,-20.64,-25.48,5.305,-5.621,68.44,19.64,-9.212,18.62,2.153,-4.195,0,0,0,0,0,0,0,0,0,0,0,0,0,0,0,0,
798,18.02,-7.637,4.757,-11.85,18.91,5.343,-14.99,-21.5,36.7,27.91,124.2,31.82,-6.355,5.399,5.1,-1.594,0,0,0,0,0,0,0,0,0,0,0,0,0,0,0,0,
799,23.59,-15.63,1.815,-25.8,8.602,-8.137,-15.83,-25.82,21.46,10.43,11.57,8.952,-7.199,-8.341,1.017,-1.363,0,0,0,0,0,0,0,0,0,0,0,0,0,0,0,0,
800,-5.901,-15.97,-6.876,-14.83,2.455,-19.23,-20.26,-20.77,10.89,-30.64,19.73,19.55,13.36,13.84,26.37,26.81,0,0,0,0,0,0,0,0,0,0,0,0,0,0,0,0,
801,-0.4654,9.815,6.463,7.866,17.7,-0.9671,-15.3,-9.232,33.86,4.999,78.74,37.76,24.26,18.47,33.77,36.17,0,0,0,0,0,0,0,0,0,0,0,0,0,0,0,0,
802,20.32,16.62,4.321,-0.5916,15.1,2.698,-9.071,-15.63,29.41,18.45,4.051,19.14,18.33,9.175,14.3,28.28,0,0,0,0,0,0,0,0,0,0,0,0,0,0,0,0,
803,11.92,4.574,-11.45,-15.83,-5.825,-15.52,-11.79,-25.47,-32.49,-21.84,-55.59,-8.004,8.729,16.22,1.479,24.62,0,0,0,0,0,0,0,0,0,0,0,0,0,0,0,0,
804,-8.386,-12.43,-16.62,-23.82,-19.99,-29.12,-18.62,-29.29,-46.8,-14.48,-5.596,-20.49,-7.971,8.879,-4.218,12.35,0,0,0,0,0,0,0,0,0,0,0,0,0,0,0,0,
805,-30.21,-21.04,-15.99,-24.06,-18.48,-28.72,-11.01,-21.44,9.402,2.306,-10.11,-14.18,1.351,16.99,5.226,25.13,0,0,0,0,0,0,0,0,0,0,0,0,0,0,0,0,
806,-32.63,3.847,3.155,2.358,-1.254,-13.48,4.179,2.377,14.33,-5.806,-81.19,-5.328,24.26,53.49,12.17,46.38,0,0,0,0,0,0,0,0,0,0,0,0,0,0,0,0,
807,-16.26,11.82,12.53,7.389,-2.923,-11.58,-2.516,-2.846,-34.98,12.9,-40.55,-14.75,0.536,42.68,-11.58,13.69,0,0,0,0,0,0,0,0,0,0,0,0,0,0,0,0,
808,-24.47,-19.03,-13.62,-23.39,-25.85,-22.06,-10.17,-28.24,-62.74,20.32,60.28,-14.54,-25.69,5.967,-23.21,-16.12,0,0,0,0,0,0,0,0,0,0,0,0,0,0,0,0,
809,-28.4,-10.2,-15.79,-12.79,-20.8,-7.543,8.493,-9.187,-54.91,-13.37,38.63,1.452,-9.759,4.08,-8.356,-2.684,0,0,0,0,0,0,0,0,0,0,0,0,0,0,0,0,
810,-0.4412,20.53,6.158,12.4,-3.485,3.71,15.66,11.43,-7.659,-13.36,-17.3,5.181,1.279,7.672,-1.429,3.18,0,0,0,0,0,0,0,0,0,0,0,0,0,0,0,0,
811,4.521,9.409,3.971,-6.91,-1.574,-5.437,1.934,-6.122,34.96,29.75,25.51,16.4,8.27,13.47,11.88,11.77,0,0,0,0,0,0,0,0,0,0,0,0,0,0,0,0,
812,-4.776,5.031,5.084,-12.27,9.995,6.959,5.163,-5.363,34.33,28.3,49.94,30.24,21.28,24.15,19.95,23.46,0,0,0,0,0,0,0,0,0,0,0,0,0,0,0,0,
813,5.37,17.8,12.15,1.704,11.86,19.05,12.8,1.825,23.19,-20.25,-6.839,9.071,7.104,2.671,-6.244,6.051,0,0,0,0,0,0,0,0,0,0,0,0,0,0,0,0,
814,-0.7724,8.414,4.589,-11.73,-6.737,8.547,7.511,-12.79,-20.04,-30.24,-28.97,-5.839,3.541,-14.52,-11.93,11.98,0,0,0,0,0,0,0,0,0,0,0,0,0,0,0,0,
815,1.161,18.34,15.94,-10.71,5.948,20.8,14.53,-3.743,-70.26,14.69,13.55,22.41,40.68,14.13,21.9,52.22,0,0,0,0,0,0,0,0,0,0,0,0,0,0,0,0,
816,40.12,48.23,32.1,10.72,31.68,41.27,27.91,14.94,-6.545,60.65,44.83,41.63,52.99,33.48,30.59,52.14,0,0,0,0,0,0,0,0,0,0,0,0,0,0,0,0,
817,39.4,37.02,12.99,-2.164,15.93,25.84,21.72,4.805,84.41,47.31,18.81,21.63,20.91,9.822,12.75,21.52,0,0,0,0,0,0,0,0,0,0,0,0,0,0,0,0,
818,-5.913,7.598,-11.16,-27.34,-13.51,-2.488,3.299,-7.47,38.66,-24.24,-5.738,2.682,-2.952,-13.87,14.86,14.7,0,0,0,0,0,0,0,0,0,0,0,0,0,0,0,0,
819,-15.93,-1.629,-18.33,-26.26,-19.79,-20.5,-14.07,-12.97,-25.21,-40.98,39.5,9.457,-0.1438,-5.691,23.65,17.35,0,0,0,0,0,0,0,0,0,0,0,0,0,0,0,0,
820,1.654,-6.318,-18.21,-15.82,-10.09,-24.33,-18.99,-18.24,0.3447,14.11,18.92,7.101,12.13,13.75,6.703,8.207,0,0,0,0,0,0,0,0,0,0,0,0,0,0,0,0,
821,13.55,-1.673,-7.256,-9.772,1.302,-8.667,-2.267,-10.95,-13.6,12.53,-106.9,-13.14,21.71,15.34,-9.259,8.686,0,0,0,0,0,0,0,0,0,0,0,0,0,0,0,0,
822,30.27,18.86,3.936,-7.183,7.241,9.992,13.3,-1.737,-59.98,-10.05,-69.93,6.414,30.98,11.51,11.35,29.65,0,0,0,0,0,0,0,0,0,0,0,0,0,0,0,0,
823,46.77,29.9,7.999,-7.959,18.42,20.14,6.727,-2.476,-4.164,32.01,90.85,51.87,35.22,16.01,28.26,35.48,0,0,0,0,0,0,0,0,0,0,0,0,0,0,0,0,
824,52.09,21.22,14.7,-6.994,31.3,19.71,0.6416,-2.098,73,35.51,77.89,48.3,21.96,9.613,8.701,10.53,0,0,0,0,0,0,0,0,0,0,0,0,0,0,0,0,
825,45.8,10.86,16.15,-0.6466,23.9,6.947,12.43,6.521,69.5,3.122,15.51,29.55,14.14,-1.933,1.79,-4.571,0,0,0,0,0,0,0,0,0,0,0,0,0,0,0,0,
826,33.97,13.48,7.941,2.455,8.099,0.8837,16.96,8.648,41.39,28.57,57.46,38.45,20.95,-5.3,10.56,-5.141,0,0,0,0,0,0,0,0,0,0,0,0,0,0,0,0,
827,26.28,15.5,-0.5134,-9.293,0.0366,4.739,4.84,-7.16,-8.84,13.16,38.53,28.27,10.4,-12.8,-2.339,-11.17,0,0,0,0,0,0,0,0,0,0,0,0,0,0,0,0,
828,22.3,10.84,3.328,-11.73,4.699,11.11,7.636,-6.739,-55.07,-37.06,-20.13,14.21,7.251,-6.37,4.812,7.193,0,0,0,0,0,0,0,0,0,0,0,0,0,0,0,0,
829,31.61,19.24,21.96,12.07,22.09,23.73,18.21,16.87,-11.52,15.26,0.8079,25.89,29.68,9.98,27.28,29.17,0,0,0,0,0,0,0,0,0,0,0,0,0,0,0,0,
830,38.6,20.81,16.18,11.69,6.523,9.609,1.17,9.851,14.54,40.94,2.999,7.9,17.95,-9.357,-2.132,0.2657,0,0,0,0,0,0,0,0,0,0,0,0,0,0,0,0,
831,0.4876,-1.677,-14.76,-11.85,-36.04,-28.75,-9.033,-5.309,-37.63,-37.29,-64.22,-27.28,-6.402,-24.57,-26.84,-19.56,0,0,0,0,0,0,0,0,0,0,0,0,0,0,0,0,
832,-34.04,-2.08,-5.861,9.303,-23.86,-21.97,18.83,21.54,-15.11,-16.31,-97.16,-18.7,16.02,2.804,4.494,7.95,0,0,0,0,0,0,0,0,0,0,0,0,0,0,0,0,
833,-5.428,14.92,23.43,38.41,12.46,10.31,34.32,33.75,26.14,70.55,-24.67,3.045,27.71,7.539,16.25,12.22,0,0,0,0,0,0,0,0,0,0,0,0,0,0,0,0,
834,16.08,2.22,14.58,16.89,-0.3381,0.1492,16.86,6.447,-30.43,37.09,65,2.567,5.922,-11.42,-0.6957,-3.15,0,0,0,0,0,0,0,0,0,0,0,0,0,0,0,0,
835,-15.14,-13.95,-5.372,-9.601,-21.59,-31.31,-8.415,-5.752,-38.86,-13.71,36.99,-16.8,-0.8393,-8.517,-7.89,-4.825,0,0,0,0,0,0,0,0,0,0,0,0,0,0,0,0,
836,-42.8,-16.68,-23.52,-24.03,-29.73,-50.46,-36.88,-6.745,-14.53,3.111,-39.73,-50.2,-13.67,-21.17,-26.9,-24.53,0,0,0,0,0,0,0,0,0,0,0,0,0,0,0,0,
837,-43.92,-28.72,-42.34,-37.84,-40.24,-49.31,-40.07,-8.529,-65.26,-16.55,-41.81,-52.26,-28.16,-34.95,-26.19,-28.32,0,0,0,0,0,0,0,0,0,0,0,0,0,0,0,0,
838,-31.64,-26.9,-25.12,-23.07,-22.33,-25.12,-9.196,6.43,-17.81,-46.16,-12.22,-12.6,-4.697,0.227,13.65,9.514,0,0,0,0,0,0,0,0,0,0,0,0,0,0,0,0,
839,-20.36,-12.79,-4.838,-11.34,0.9315,-21.44,-9.387,0.4775,80.27,-24.86,-8.201,-3.336,2.073,13.18,14.65,11.78,0,0,0,0,0,0,0,0,0,0,0,0,0,0,0,0,
840,-31.09,-26.02,-24.77,-31.51,-11.71,-49.18,-44.68,-33.59,-10.08,-20.15,-15.74,-21.35,-21.05,-18.83,-8.451,-9.124,0,0,0,0,0,0,0,0,0,0,0,0,0,0,0,0,
841,-34.54,-32.91,-26.51,-22.29,-13.59,-44.2,-39.62,-23.42,-76.27,-8.314,14.55,2.745,0.2869,-3.616,18.26,14.13,0,0,0,0,0,0,0,0,0,0,0,0,0,0,0,0,
842,-4.069,-4.098,5.329,12.88,10.34,-4.971,0.6572,19.6,38.72,54.88,59.59,32,29.36,23.37,39.5,25.91,0,0,0,0,0,0,0,0,0,0,0,0,0,0,0,0,
843,14.61,6.697,10.98,10.28,15.9,11.27,10.45,17.85,55.91,36.54,-12.45,12.58,2.725,-14.69,18.6,3.132,0,0,0,0,0,0,0,0,0,0,0,0,0,0,0,0,
844,12.86,-7.59,1.746,-0.9309,15.83,11.62,-1.609,-0.3483,-23.02,-59.69,-108.2,3.739,-12.34,-29.87,20.31,12.43,0,0,0,0,0,0,0,0,0,0,0,0,0,0,0,0,
845,22.97,-3.279,11.27,10.61,25.34,16.07,1.079,11.8,10.15,-29.93,-11.28,24.75,7.754,9.651,30.87,26.31,0,0,0,0,0,0,0,0,0,0,0,0,0,0,0,0,
846,16.24,-0.6499,11.66,3.884,12.32,1.459,-2.849,10.76,20.7,48.21,108.7,14.27,-1.96,1.08,7.715,3.541,0,0,0,0,0,0,0,0,0,0,0,0,0,0,0,0,
847,-10.21,-9.342,1.218,-11.13,-5.858,-14.55,-16.36,-0.4013,-51.21,-11.97,46.92,-7.765,-20.31,-34.78,-5.523,-2.997,0,0,0,0,0,0,0,0,0,0,0,0,0,0,0,0,
848,-2.813,5.729,11,3.76,8.803,1.852,-4.693,22.46,-6.168,-41.39,-20.73,-0.2046,-10.31,-22.87,-2.102,9.373,0,0,0,0,0,0,0,0,0,0,0,0,0,0,0,0,
849,19.36,15.82,20.32,15.49,21.65,14.06,5.04,34.76,87.75,49.2,4.867,3.494,-8.124,-8.819,-11.24,5.416,0,0,0,0,0,0,0,0,0,0,0,0,0,0,0,0,
850,5.905,-8.14,3.098,2.058,4.507,-5.556,-21.66,8.72,24.06,42,5.06,-4.343,-15.55,-22.4,-9.104,6.064,0,0,0,0,0,0,0,0,0,0,0,0,0,0,0,0,
851,-25.85,-26.95,-14.19,-7.266,-6.664,-21.53,-40.22,-6.843,-67.29,-34.18,-10.71,-6.492,-20.34,-34.25,-2.272,3.745,0,0,0,0,0,0,0,0,0,0,0,0,0,0,0,0,
852,-44.7,-34.23,-11.17,-10.91,1.074,-20.26,-30.17,-6.997,-28.52,-13.43,-2.82,-14.84,-39.57,-41.14,-15.72,-15.45,0,0,0,0,0,0,0,0,0,0,0,0,0,0,0,0,
853,-46.09,-44.47,-4.987,-15.99,2.407,-22.37,-32.09,-9.181,-6.297,-3.392,-36.53,-25.36,-52.21,-40.7,-21.96,-15.64,0,0,0,0,0,0,0,0,0,0,0,0,0,0,0,0,
854,-35.61,-41.26,-6.726,-8.6,-1.805,-29.43,-44.04,-0.753,-42.08,-42.05,-69.73,-28,-45.63,-37.15,-16.22,-4.428,0,0,0,0,0,0,0,0,0,0,0,0,0,0,0,0,
855,-24.2,-30.43,-2.147,4.631,2.683,-28.53,-34.5,9.296,3.44,-17.52,-31.38,-25.98,-43.36,-41.75,-14.76,-6.992,0,0,0,0,0,0,0,0,0,0,0,0,0,0,0,0,
856,-17.83,-22.02,14.14,12.39,8.859,-17.51,-14.32,11.79,33.69,-11.34,-39.91,-25.55,-41.61,-40.15,-14.66,-11.39,0,0,0,0,0,0,0,0,0,0,0,0,0,0,0,0,
857,-18.6,-13.76,23.08,19,11.24,-8.085,-6.864,18.48,-33.15,-65.67,-108,-36.83,-41.27,-37.29,-25,-24.22,0,0,0,0,0,0,0,0,0,0,0,0,0,0,0,0,
