%OpenBCI Raw EXG Data
%Number of channels = 16
%Sample Rate = 125 Hz
%Board = OpenBCI_GUI$BoardCytonSerialDaisy
Sample Index,EXG Channel 0,EXG Channel 1,EXG Channel 2,EXG Channel 3,EXG Channel 4,EXG Channel 5,EXG Channel 6,EXG Channel 7,EXG Channel 8,EXG Channel 9,EXG Channel 10,EXG Channel 11,EXG Channel 12,EXG Channel 13,EXG Channel 14,EXG Channel 15,Accel Channel 0,Accel Channel 1,Accel Channel 2,Other,Other,Other,Other,Other,Other,Other,Analog Channel 0,Analog Channel 1,Analog Channel 2,Timestamp,Other,Timestamp (Formatted),Annotations
1,-0,0,0,0,-0,-0,-0,0,-0,-0,0,-0,0,-0,-0,0,0,0,0,0,0,0,0,0,0,0,0,0,0,0,0,0,T0
2,3.41,1.265,2.713,2.538,1.332,2.269,1.087,1.343,4.348,2.008,1.515,0.8983,1.648,2.241,1.082,2.761,0,0,0,0,0,0,0,0,0,0,0,0,0,0,0,0,
3,6.207,3.339,3.783,3.042,3.082,2.833,3.089,1.46,6.316,3.797,4.839,3.167,3.44,4.448,3.945,5.575,0,0,0,0,0,0,0,0,0,0,0,0,0,0,0,0,
4,8.94,5.357,5.835,3.571,5.088,3.739,5.299,1.733,6.643,3.958,7.82,6.188,4.457,5.351,6.181,7.673,0,0,0,0,0,0,0,0,0,0,0,0,0,0,0,0,
5,10.1,5.452,6.527,3.524,4.388,4.027,5.24,1.435,6.401,2.768,7.146,6.833,4.24,4.521,6.067,7.64,0,0,0,0,0,0,0,0,0,0,0,0,0,0,0,0,
6,10.44,4.665,5.438,2.7,5.942,4.451,4.285,0.5583,7.036,2.672,6.737,5.476,4.624,3.844,6.023,6.907,0,0,0,0,0,0,0,0,0,0,0,0,0,0,0,0,
7,12.01,5.982,6.786,4.081,12.86,8.002,6.614,2.773,9.188,3.897,8.172,5.091,6.078,4.935,7.348,7.67,0,0,0,0,0,0,0,0,0,0,0,0,0,0,0,0,
8,13.39,9.044,10.33,8.024,15.15,11.76,11.07,6.106,10.16,4.356,8.247,6.992,7.519,6.373,8.981,9.057,0,0,0,0,0,0,0,0,0,0,0,0,0,0,0,0,
9,14.48,10.88,12.7,10.11,12.49,13.43,12.84,5.292,9.634,3.838,9.913,10.55,8.97,5.938,10.06,9.55,0,0,0,0,0,0,0,0,0,0,0,0,0,0,0,0,
10,15.67,10.3,11.42,7.251,13.54,14.42,11.34,3.518,11.08,3.387,11.42,11.06,8.725,4.441,8.687,8.599,0,0,0,0,0,0,0,0,0,0,0,0,0,0,0,0,
11,15.48,9.132,11.17,6.864,15.88,14.45,10.5,3.775,13.22,3.44,9.236,8.215,7.49,4.587,6.483,8.173,0,0,0,0,0,0,0,0,0,0,0,0,0,0,0,0,
12,14.65,9.663,14.75,11.42,15.55,14.66,11.97,3.421,11.49,4.627,9.369,8.4,8.899,6.507,7.763,9.805,0,0,0,0,0,0,0,0,0,0,0,0,0,0,0,0,
13,14.15,10.9,14.53,10.47,14.22,16.22,13.29,4.18,7.896,5.957,10.62,9.67,9.699,7.515,9.467,9.879,0,0,0,0,0,0,0,0,0,0,0,0,0,0,0,0,
14,14.74,11.08,15.56,10.16,14.8,17.1,13.95,5.661,8.422,5.887,11.62,10.21,9.032,7.319,10.04,9.661,0,0,0,0,0,0,0,0,0,0,0,0,0,0,0,0,
15,15.94,11.62,19.73,15.75,15.94,15.97,14.99,4.662,11.04,6.48,15.67,13.32,11.6,7.375,12.37,12.33,0,0,0,0,0,0,0,0,0,0,0,0,0,0,0,0,
16,11.82,12.02,7.613,7.16,9.311,11.47,13.18,7.752,9.278,8.075,7.26,8.179,9.473,5.609,8.08,8.097,0,0,0,0,0,0,0,0,0,0,0,0,0,0,0,0,
17,2.869,9.099,-8.96,-7.981,0.9973,5.24,7.85,15.48,6.73,7.227,-14.54,-6.671,-0.8194,2.621,-4.021,-3.038,0,0,0,0,0,0,0,0,0,0,0,0,0,0,0,0,
18,1.379,6.909,0.1026,0.0738,8.602,7.837,9.199,19.03,10.87,6.911,-18.89,-7.467,-2.415,4.205,-6.076,-3.31,0,0,0,0,0,0,0,0,0,0,0,0,0,0,0,0,
19,12.03,13.27,30.13,28.04,28.88,24.76,25.11,26.46,18.9,12.3,-6.607,5.439,6.668,9.151,1.663,4.301,0,0,0,0,0,0,0,0,0,0,0,0,0,0,0,0,
20,25.23,24.79,74.78,69.32,50.87,45.34,46.84,46.44,26.25,19.6,-2.715,10.33,11.59,12.98,3.88,4.997,0,0,0,0,0,0,0,0,0,0,0,0,0,0,0,0,
21,34.24,33.24,121.5,117.1,72.4,61.76,63.46,66.15,34.09,25.25,-1.034,12.49,14.27,17.58,4.895,5.17,0,0,0,0,0,0,0,0,0,0,0,0,0,0,0,0,
22,43.1,38.87,137.4,140.6,88.42,77.23,75.96,78.25,40.1,30.49,5.992,19.46,19.1,21.21,9.513,9.495,0,0,0,0,0,0,0,0,0,0,0,0,0,0,0,0,
23,51.62,42.62,132.7,139.2,101.9,89.84,86.72,89.31,41.61,34.22,7.836,21.14,21.03,22.02,11.12,12.18,0,0,0,0,0,0,0,0,0,0,0,0,0,0,0,0,
24,54.63,45.81,135.5,139.4,120.1,100.2,98.75,102.5,45.65,39.04,9.191,23.62,26.25,27.88,15.21,17.93,0,0,0,0,0,0,0,0,0,0,0,0,0,0,0,0,
25,60.62,56.21,136.9,140.9,131.8,115.1,115.5,116.6,55.08,47.64,17.03,33.97,37.37,36.86,25.07,26.41,0,0,0,0,0,0,0,0,0,0,0,0,0,0,0,0,
26,72.47,68.51,135.1,140.5,126.2,122.5,124.6,123.9,58.26,51.35,20.5,37.24,40.23,37.01,27.98,27.3,0,0,0,0,0,0,0,0,0,0,0,0,0,0,0,0,
27,72.37,67.63,136.9,141.2,115.4,112.3,115.8,119.2,52.42,46.86,16.93,31.94,34.85,33.47,23.77,25.07,0,0,0,0,0,0,0,0,0,0,0,0,0,0,0,0,
28,62.73,59.96,128.6,131.5,110.6,101.7,102.4,110.1,50.01,43.31,15.27,30.89,33.84,35.21,22.68,26.78,0,0,0,0,0,0,0,0,0,0,0,0,0,0,0,0,
29,60.08,56.26,106.3,107.8,102.6,94.76,92.06,99.35,50.29,41.41,13.71,29.09,33.19,34.18,20.21,24.98,0,0,0,0,0,0,0,0,0,0,0,0,0,0,0,0,
30,55.77,50.66,80.23,81.33,87.28,81.24,80,86.75,44.86,37.62,8.992,22.81,28.11,28.19,14.1,18.91,0,0,0,0,0,0,0,0,0,0,0,0,0,0,0,0,
31,47.71,45.5,57.6,60.7,78.39,71.98,72.44,80.7,40.41,36.06,7.16,21.77,26.25,26.24,13.2,16.24,0,0,0,0,0,0,0,0,0,0,0,0,0,0,0,0,
32,48.11,45.4,39.64,43.83,72.12,68.72,68.51,76.19,40.24,34.5,7.065,21.56,24.54,24.77,12.98,12.76,0,0,0,0,0,0,0,0,0,0,0,0,0,0,0,0,
33,46,40.11,19.83,23.28,56.55,57.45,58.12,63.15,37.66,28.24,3.672,14.77,16.99,18.64,7.499,5.724,0,0,0,0,0,0,0,0,0,0,0,0,0,0,0,0,
34,35.99,31.78,-0.7757,1.601,44.26,46.62,47.45,50.73,35.64,23.97,2.947,12.37,14.63,17.15,7.687,5.393,0,0,0,0,0,0,0,0,0,0,0,0,0,0,0,0,
35,33.08,31.59,-17.01,-16.65,38.72,43.01,41.15,42.59,35.38,23.64,6.524,16.97,20.64,22.04,14.03,11.36,0,0,0,0,0,0,0,0,0,0,0,0,0,0,0,0,
36,34,32.79,-34.8,-36.18,27.22,35.73,32.79,32.53,30.38,21.5,6.077,16.84,22.24,22.73,14.12,12.02,0,0,0,0,0,0,0,0,0,0,0,0,0,0,0,0,
37,30.59,30.53,-53,-52.29,17.6,27.43,27.11,28.07,25.39,20.57,1.942,12.77,18.33,19.01,9.565,7.641,0,0,0,0,0,0,0,0,0,0,0,0,0,0,0,0,
38,26.98,29.52,-65.81,-60.25,13.28,22.24,26.03,30.16,25.19,21.79,-0.6015,9.989,15.05,16.93,6.138,4.455,0,0,0,0,0,0,0,0,0,0,0,0,0,0,0,0,
39,21.56,25.6,-79.08,-71.61,2.507,13.6,19.15,24.59,22.81,18.77,-2.282,6.239,11.06,15.37,2.929,2.855,0,0,0,0,0,0,0,0,0,0,0,0,0,0,0,0,
40,16.03,18,-92.41,-86.5,-6.74,6.123,9.111,13.38,18.22,14.34,-3.495,3.458,7.032,12.49,1.367,1.768,0,0,0,0,0,0,0,0,0,0,0,0,0,0,0,0,
41,14.08,13.21,-100.2,-94.2,-8.847,3.36,3.639,8.388,15.18,12.5,-4.391,2.785,4.73,8.836,0.8791,-0.0517,0,0,0,0,0,0,0,0,0,0,0,0,0,0,0,0,
42,10.34,10.08,-106.3,-98.84,-16.58,-2.466,-1.346,6.534,9.576,9.83,-6.969,0.8298,3.311,5.548,-0.2277,-1.806,0,0,0,0,0,0,0,0,0,0,0,0,0,0,0,0,
43,7.512,8.529,-111,-103.7,-26.24,-8.783,-5.617,2.939,3.622,8.158,-10.08,-0.53,3.987,4.933,-0.4451,-1.363,0,0,0,0,0,0,0,0,0,0,0,0,0,0,0,0,
44,7.675,10.37,-110.9,-103.9,-28.15,-10.41,-5.381,1.85,3.572,9.179,-12.01,-0.8248,4.056,5.203,-2.446,-1.911,0,0,0,0,0,0,0,0,0,0,0,0,0,0,0,0,
45,3.836,10.18,-110.9,-103,-30.39,-13.3,-5.998,2.242,4.99,8.023,-13.37,-3.591,0.3297,2.993,-7.282,-6.048,0,0,0,0,0,0,0,0,0,0,0,0,0,0,0,0,
46,-0.3604,5.65,-112.5,-105.4,-36.93,-19.02,-11.29,-2.091,3.324,4.683,-14.7,-7.391,-3.425,0.1519,-10.72,-10.43,0,0,0,0,0,0,0,0,0,0,0,0,0,0,0,0,
47,-2.578,-0.65,-112.2,-107,-41.65,-23.17,-17.66,-8.223,1.509,2.24,-15.89,-9.757,-5.704,-2.099,-12.77,-12.02,0,0,0,0,0,0,0,0,0,0,0,0,0,0,0,0,
48,-6.933,-5.858,-110.7,-106,-43.64,-25.64,-21.07,-8.788,1.1,1.883,-16.01,-11.09,-6.831,-4.08,-13.73,-10.81,0,0,0,0,0,0,0,0,0,0,0,0,0,0,0,0,
49,-9.029,-5.502,-109.3,-103.8,-45.42,-28.2,-20.76,-5.568,0.1502,4.461,-15.81,-12.12,-5.532,-3.813,-12.42,-9.326,0,0,0,0,0,0,0,0,0,0,0,0,0,0,0,0,
50,-9.098,-2.261,-108.9,-102.4,-47.62,-30.91,-20.24,-6.235,-2.621,6.048,-16.36,-12.67,-4.887,-2.58,-11.66,-8.775,0,0,0,0,0,0,0,0,0,0,0,0,0,0,0,0,
51,-9.135,-2.258,-109.2,-102.7,-49.05,-31.92,-21.62,-11.32,-4.755,3.982,-15.15,-11.88,-5.498,-2.718,-11.93,-6.791,0,0,0,0,0,0,0,0,0,0,0,0,0,0,0,0,
52,-6.992,-3.606,-107.5,-102,-49.51,-32,-23.4,-13.38,-5.121,2.819,-14.37,-12.53,-4.435,-2.466,-12.12,-5.085,0,0,0,0,0,0,0,0,0,0,0,0,0,0,0,0,
53,-10.68,-4.871,-105,-99.65,-51.32,-34.52,-25.14,-11.26,-7.706,3.474,-18.57,-15.78,-3.943,-2.287,-13.76,-6.759,0,0,0,0,0,0,0,0,0,0,0,0,0,0,0,0,
54,-17.75,-6.401,-103.4,-96.82,-53.23,-35.64,-25.11,-11.22,-10.4,3.412,-21.26,-15.65,-4.524,-4.041,-14.77,-8.331,0,0,0,0,0,0,0,0,0,0,0,0,0,0,0,0,
55,-14.23,-5.471,-99.16,-91.9,-51.63,-31.38,-22.22,-11.79,-8.032,3.728,-17.41,-11.91,-3.984,-5.681,-12.23,-7.647,0,0,0,0,0,0,0,0,0,0,0,0,0,0,0,0,
56,-8.27,-4.039,-94.41,-87.78,-48.99,-28.22,-21.24,-10.37,-5.603,3.694,-13.67,-9.766,-4.039,-6.013,-8.393,-7.409,0,0,0,0,0,0,0,0,0,0,0,0,0,0,0,0,
57,-9.8,-5.565,-94.85,-89.69,-49.6,-29.8,-24.36,-12.67,-5.807,1.521,-13.18,-9,-5.053,-6.811,-7.258,-8.814,0,0,0,0,0,0,0,0,0,0,0,0,0,0,0,0,
58,-11.14,-8.01,-96,-92.33,-51.43,-31.84,-27.21,-16.85,-4.735,-0.4275,-14.05,-10.12,-6.322,-8.901,-10.44,-10.62,0,0,0,0,0,0,0,0,0,0,0,0,0,0,0,0,
59,-11.65,-9.484,-93.06,-89.95,-51.05,-33.09,-27.1,-16.59,-6.037,-0.5307,-16.54,-13.44,-7.918,-10.21,-13.22,-10.08,0,0,0,0,0,0,0,0,0,0,0,0,0,0,0,0,
60,-14.68,-9.654,-90.81,-87.09,-51.43,-33.75,-25.16,-16.34,-10.47,0.4778,-18.23,-14.23,-7.425,-8.736,-11.24,-7.112,0,0,0,0,0,0,0,0,0,0,0,0,0,0,0,0,
61,-14.8,-8.407,-90.43,-85.44,-54.06,-32.46,-23.03,-17.04,-10.25,2.332,-17.44,-12.7,-5.972,-7.221,-9.383,-5.701,0,0,0,0,0,0,0,0,0,0,0,0,0,0,0,0,
62,-10.17,-7.176,-88.13,-82.38,-52.84,-30.84,-22.11,-14.62,-7.656,3.374,-16.91,-12.65,-6.647,-7.301,-10.26,-6.039,0,0,0,0,0,0,0,0,0,0,0,0,0,0,0,0,
63,-6.996,-6.629,-85.27,-80.29,-48.14,-30.94,-22.62,-14.04,-8.764,2.334,-16.52,-12.97,-6.63,-5.573,-9.857,-5.617,0,0,0,0,0,0,0,0,0,0,0,0,0,0,0,0,
64,-10.33,-6.734,-84.39,-79.73,-48.31,-32.62,-23.59,-16.57,-10.54,1.032,-16.83,-13.78,-6.221,-4.022,-10.05,-6.062,0,0,0,0,0,0,0,0,0,0,0,0,0,0,0,0,
65,-18.28,-9.062,-85.65,-79.59,-54.2,-37.27,-25.83,-17.85,-13.85,-0.3583,-22.07,-18.22,-10.22,-7.359,-14.04,-9.255,0,0,0,0,0,0,0,0,0,0,0,0,0,0,0,0,
66,-24.75,-13.38,-87.34,-81.76,-58.56,-42.36,-29.91,-20.96,-19.33,-2.51,-27.29,-22.6,-14.48,-10.99,-16.32,-12.15,0,0,0,0,0,0,0,0,0,0,0,0,0,0,0,0,
67,-24.78,-15.07,-84.57,-81.51,-54.09,-39.28,-30.74,-24.44,-16.6,-2.086,-23.33,-19.51,-12.33,-9.688,-12.35,-10.23,0,0,0,0,0,0,0,0,0,0,0,0,0,0,0,0,
68,-17.22,-12.13,-78.11,-74.56,-45.01,-30.67,-26.29,-22.01,-7.045,1.254,-15.6,-12.71,-8.3,-6.947,-7.524,-5.688,0,0,0,0,0,0,0,0,0,0,0,0,0,0,0,0,
69,-10.2,-9.844,-75.32,-70.21,-45.67,-29.26,-24.38,-18.72,-5.499,1.71,-14.28,-11.84,-8.645,-7.589,-8.078,-5.59,0,0,0,0,0,0,0,0,0,0,0,0,0,0,0,0,
70,-12.51,-11.63,-75.89,-72.51,-51.82,-33.04,-27.59,-19.63,-10.1,-1.561,-16.96,-15.02,-11.19,-11.4,-11.19,-9.381,0,0,0,0,0,0,0,0,0,0,0,0,0,0,0,0,
71,-16.81,-14.31,-74.67,-72.43,-48.79,-32.75,-29.43,-20.87,-11.24,-3.659,-18.02,-15.38,-12.72,-14.36,-12.75,-11.26,0,0,0,0,0,0,0,0,0,0,0,0,0,0,0,0,
72,-14.52,-15.75,-72.81,-69.46,-45.43,-32.35,-28.72,-20.74,-11.94,-3.465,-18.05,-14.61,-13.29,-14.39,-13.77,-10.8,0,0,0,0,0,0,0,0,0,0,0,0,0,0,0,0,
73,-12.9,-16.1,-72.19,-69.12,-49.5,-34.95,-27.91,-19.6,-13.03,-2.779,-18.32,-15.43,-12.72,-13.93,-13.25,-9.717,0,0,0,0,0,0,0,0,0,0,0,0,0,0,0,0,
74,-16.48,-15.4,-71.88,-68.34,-49.92,-35.11,-26.93,-18.88,-11.36,-2.654,-19.08,-16.58,-12.31,-14.75,-11.73,-9.731,0,0,0,0,0,0,0,0,0,0,0,0,0,0,0,0,
75,-19.16,-15.6,-71.67,-65.78,-48.36,-33.64,-26.69,-20.67,-11.82,-3.694,-21.63,-18.36,-13.92,-15.57,-14.7,-12.09,0,0,0,0,0,0,0,0,0,0,0,0,0,0,0,0,
76,-19.52,-16.11,-69.54,-63.98,-49.81,-33.49,-25.78,-19.64,-15.43,-3.911,-24.67,-20.51,-14.09,-14.67,-19.09,-12.9,0,0,0,0,0,0,0,0,0,0,0,0,0,0,0,0,
77,-19.56,-13.21,-64.23,-60.3,-45.25,-31.67,-21.56,-13.85,-15.84,-1.69,-24.04,-20.26,-10.3,-12.35,-17.97,-10.58,0,0,0,0,0,0,0,0,0,0,0,0,0,0,0,0,
78,-17.13,-9.57,-60.48,-55.98,-38.7,-28.3,-17.84,-12.5,-13.68,0.0734,-20.66,-17.63,-7.824,-11.23,-15.22,-9.618,0,0,0,0,0,0,0,0,0,0,0,0,0,0,0,0,
79,-13.09,-10.18,-60.89,-56.02,-39.73,-27.81,-19.25,-15.93,-13.3,-0.0455,-20.15,-16.9,-9.633,-12.09,-15.49,-10.3,0,0,0,0,0,0,0,0,0,0,0,0,0,0,0,0,
80,-14.03,-12.78,-62.52,-57.97,-41.33,-30.47,-23.91,-17.45,-14.65,-0.7055,-22.38,-19.96,-11.72,-13.29,-16.6,-10.86,0,0,0,0,0,0,0,0,0,0,0,0,0,0,0,0,
81,-18.95,-14.06,-62.71,-57.84,-40.74,-30.75,-25.88,-18.68,-16.15,-2.154,-21.83,-21.4,-12.53,-14.35,-16.29,-11.88,0,0,0,0,0,0,0,0,0,0,0,0,0,0,0,0,
82,-17.09,-14.23,-59.27,-54.9,-41.62,-26.15,-22.26,-19.18,-15.94,-4.329,-18.06,-18.49,-14.37,-15.36,-14.67,-12.13,0,0,0,0,0,0,0,0,0,0,0,0,0,0,0,0,
83,-11.05,-15,-55.53,-51.41,-39.99,-24.69,-20.06,-17.43,-14.21,-7.12,-16.62,-17.61,-16.49,-15.86,-13.93,-11.19,0,0,0,0,0,0,0,0,0,0,0,0,0,0,0,0,
84,-13.08,-16.84,-56.29,-51.18,-36.15,-28.95,-22.75,-17.32,-12.19,-8.632,-17.83,-18.14,-14.69,-13.49,-13.34,-8.863,0,0,0,0,0,0,0,0,0,0,0,0,0,0,0,0,
85,-16.02,-15.57,-55.57,-51.39,-35.05,-29.03,-22.07,-17.17,-9.178,-5.588,-16.57,-14.32,-10.6,-8.836,-11.09,-5.322,0,0,0,0,0,0,0,0,0,0,0,0,0,0,0,0,
86,-12.67,-12.8,-52.88,-50.68,-37.15,-26.57,-20.35,-17.08,-9.162,-4.195,-15.51,-13.46,-11.82,-9.004,-11.69,-6.03,0,0,0,0,0,0,0,0,0,0,0,0,0,0,0,0,
87,-13.45,-15.6,-54.88,-51.95,-39.03,-27.8,-23.14,-19.63,-12.77,-8.269,-17.49,-16.79,-14.6,-11.5,-13.58,-8.791,0,0,0,0,0,0,0,0,0,0,0,0,0,0,0,0,
88,-14.5,-16.29,-53.06,-48.62,-35.35,-24.64,-20.2,-16.39,-10.23,-6.326,-15.54,-12.59,-9.272,-6.628,-9.322,-4.742,0,0,0,0,0,0,0,0,0,0,0,0,0,0,0,0,
89,-8.194,-9.608,-46,-41.31,-31.29,-20.45,-13.75,-9.104,-5.223,1.357,-12.21,-7.959,-3.118,-1.081,-5.13,0.1319,0,0,0,0,0,0,0,0,0,0,0,0,0,0,0,0,
90,-8.637,-7.567,-48.11,-42.56,-35.61,-26.2,-16.15,-10.94,-9.534,1.563,-16.04,-13.58,-4.688,-2.944,-7.322,-1.2,0,0,0,0,0,0,0,0,0,0,0,0,0,0,0,0,
91,-16.76,-9.896,-53.74,-47.08,-40.34,-30.52,-19.56,-14.65,-15.1,-1.506,-19.56,-17.69,-6.777,-4.777,-8.999,-2.294,0,0,0,0,0,0,0,0,0,0,0,0,0,0,0,0,
92,-16.17,-8.979,-51.08,-44.65,-39.44,-25.91,-17.55,-10.96,-14.18,-0.0789,-17.43,-15.05,-5.624,-4.068,-8.325,-2.057,0,0,0,0,0,0,0,0,0,0,0,0,0,0,0,0,
93,-10.14,-8.145,-47.47,-41.64,-38.62,-23.52,-15.65,-10.55,-13.06,0.3521,-15.93,-13.86,-5.246,-4.947,-8.701,-3.574,0,0,0,0,0,0,0,0,0,0,0,0,0,0,0,0,
94,-10.61,-7.878,-47.64,-42.49,-37.93,-25.45,-16.78,-15.04,-12.78,-1.006,-14.8,-14.55,-6.426,-6.157,-9.125,-4.725,0,0,0,0,0,0,0,0,0,0,0,0,0,0,0,0,
95,-15.51,-9.822,-47.73,-43.63,-37.05,-26.31,-21,-14.39,-11.92,0.3357,-12.84,-15.06,-7.176,-5.845,-9.637,-5.45,0,0,0,0,0,0,0,0,0,0,0,0,0,0,0,0,
96,-16.09,-10.74,-45.15,-41.26,-35.85,-23.82,-16.29,-13.17,-9.96,2.848,-12.15,-13.48,-4.705,-3.162,-9.547,-4.614,0,0,0,0,0,0,0,0,0,0,0,0,0,0,0,0,
97,-9.809,-0.8984,-40.82,-36.57,-30.92,-18.69,-3.595,-16.81,-6.183,3.031,-11.42,-9.956,-3.11,-1.349,-8.31,-2.684,0,0,0,0,0,0,0,0,0,0,0,0,0,0,0,0,
98,-6.067,2.038,-40.34,-36.57,-27.64,-17.99,-9.845,-14.1,-5.903,1.175,-12.09,-10.65,-7.915,-4.752,-9.092,-5.134,0,0,0,0,0,0,0,0,0,0,0,0,0,0,0,0,
99,-9.863,-12.71,-41.58,-38.29,-28.59,-21.33,-24.94,-4.288,-7.442,0.888,-13.35,-12.33,-10.52,-7.252,-9.413,-7.463,0,0,0,0,0,0,0,0,0,0,0,0,0,0,0,0,
100,-10.75,-16.23,-39.78,-36.06,-28.23,-21.21,-20.07,-4.565,-5.47,2.554,-11.29,-9.497,-6.036,-4.741,-6.092,-3.906,0,0,0,0,0,0,0,0,0,0,0,0,0,0,0,0,
101,-7.458,-6.116,-41.43,-37.11,-29.94,-21.95,-13.79,-12.69,-6.337,3.586,-10.81,-9.615,-3.718,-3.241,-5.447,-2.33,0,0,0,0,0,0,0,0,0,0,0,0,0,0,0,0,
102,-10.01,-5.89,-44.36,-39.67,-34.47,-25.76,-18.5,-12.56,-9.018,4.32,-13.25,-13.16,-4.801,-3.966,-8.89,-5.037,0,0,0,0,0,0,0,0,0,0,0,0,0,0,0,0,
103,-12.21,-8.281,-39.82,-35.62,-33.9,-23.92,-16.28,-9.274,-6.364,3.635,-11.48,-11.98,-4.4,-4.433,-8.631,-4.334,0,0,0,0,0,0,0,0,0,0,0,0,0,0,0,0,
104,-5.435,-5.209,-35.7,-32.74,-31.06,-18.38,-12.13,-10.59,-4.137,0.6393,-8.005,-8.384,-3.779,-4.313,-4.801,-1.167,0,0,0,0,0,0,0,0,0,0,0,0,0,0,0,0,
105,-1.497,-5.34,-38.12,-34.4,-32.64,-18.24,-14.28,-11.21,-4.484,-1.169,-8.03,-6.708,-3.435,-3.369,-3.481,-1.339,0,0,0,0,0,0,0,0,0,0,0,0,0,0,0,0,
106,-6.526,-6.555,-39.48,-34.05,-33.17,-21.21,-14.69,-12.71,-3.091,-2.101,-7.503,-5.252,-2.757,-4.138,-3.111,-3.628,0,0,0,0,0,0,0,0,0,0,0,0,0,0,0,0,
107,-8.13,-5.762,-36.97,-33.53,-27.61,-20.43,-14.15,-15.03,-2.27,-2.551,-4.529,-2.641,-1.227,-5.497,-0.0739,-3.367,0,0,0,0,0,0,0,0,0,0,0,0,0,0,0,0,
108,-2.898,-4.138,-33.2,-32.91,-23.41,-16.09,-12.38,-11.63,-1.551,0.4316,-2.552,1.104,2.27,-2.79,2.51,-0.3603,0,0,0,0,0,0,0,0,0,0,0,0,0,0,0,0,
109,0.866,-0.5906,-29.66,-29.72,-25.02,-12.12,-7.056,-8.27,0.7162,2.415,-2.664,3.544,4.962,0.573,2.239,1.19,0,0,0,0,0,0,0,0,0,0,0,0,0,0,0,0,
110,2.654,1.866,-27.83,-28.16,-24.1,-9.667,-4.18,-8.269,2.267,1.599,-2.993,3.497,6.667,2.377,2.382,0.7099,0,0,0,0,0,0,0,0,0,0,0,0,0,0,0,0,
111,5.95,4.078,-26.7,-26.46,-19.15,-8.342,-2.67,-4.527,4.279,4.94,-2.296,3.899,10.02,5.155,3.146,0.8406,0,0,0,0,0,0,0,0,0,0,0,0,0,0,0,0,
112,7.373,8.344,-25.41,-22.62,-18.75,-8.649,-0.7061,-1.985,5.295,8.059,-2.063,4.428,10.7,4.778,1.855,0.626,0,0,0,0,0,0,0,0,0,0,0,0,0,0,0,0,
113,5.062,8.753,-24.96,-23.18,-21.78,-9.417,-2.771,-5.879,3.347,4.317,-2.022,4.06,8.019,1.56,1.359,-0.0966,0,0,0,0,0,0,0,0,0,0,0,0,0,0,0,0,
114,6.169,6.303,-24.48,-25.33,-22.06,-8.071,-4.507,-7.431,4.102,2.4,0.4329,5.099,8.25,2.342,2.806,0.6506,0,0,0,0,0,0,0,0,0,0,0,0,0,0,0,0,
115,11.06,6.706,-23.94,-23.16,-20.48,-6.302,-3.376,-5.214,6.653,4.25,2.26,5.002,8.025,3.1,1.678,0.4824,0,0,0,0,0,0,0,0,0,0,0,0,0,0,0,0,
116,8.176,5.274,-24.75,-23.04,-19.75,-8.033,-6.251,-5.664,5.515,1.85,0.6203,1.636,3.496,0.2123,-0.1146,-1.409,0,0,0,0,0,0,0,0,0,0,0,0,0,0,0,0,
117,0.233,1.137,-24.86,-25.55,-19.25,-10.39,-9.916,-7.064,5.294,0.0181,0.618,1.037,2.199,0.8121,1.441,-0.6098,0,0,0,0,0,0,0,0,0,0,0,0,0,0,0,0,
118,1.345,1.385,-21.75,-23.34,-17.22,-8.264,-7.491,-6.268,7.101,3.059,2.537,3.641,4.253,3.998,1.57,1.49,0,0,0,0,0,0,0,0,0,0,0,0,0,0,0,0,
119,5.876,3.148,-18.55,-20.45,-15.82,-5.387,-6.048,-6.765,5.08,2.182,0.2025,2.704,1.89,1.806,-2.232,-0.4469,0,0,0,0,0,0,0,0,0,0,0,0,0,0,0,0,
120,4.379,0.5716,-19.66,-22.66,-16.91,-5.687,-10.07,-11.2,2.904,-2.545,-3.027,0.8362,-0.7084,-2.321,-4.022,-2.917,0,0,0,0,0,0,0,0,0,0,0,0,0,0,0,0,
121,4.989,-1.01,-22.22,-24.83,-17.13,-5.99,-11.32,-13.35,5.018,-1.793,-0.7951,2.844,2.027,-0.9763,-1.706,-0.6539,0,0,0,0,0,0,0,0,0,0,0,0,0,0,0,0,
122,6.445,1.812,-22.26,-23.8,-19.11,-7.804,-9.066,-9.601,5.501,2.296,1.252,2.113,3.398,2.083,-0.6651,1.049,0,0,0,0,0,0,0,0,0,0,0,0,0,0,0,0,
123,-0.9102,2.409,-23.23,-22.98,-25.77,-13.51,-9.8,-8.481,2.244,2.723,-1.494,-3.049,1.105,1.585,-2.197,-1.527,0,0,0,0,0,0,0,0,0,0,0,0,0,0,0,0,
124,-5.593,-0.2816,-26.26,-23.05,-28.73,-16.42,-10.34,-11.04,1.428,2.018,-1.719,-2.645,1.587,1.645,-0.8348,-1.365,0,0,0,0,0,0,0,0,0,0,0,0,0,0,0,0,
125,-0.3852,-0.7109,-27.8,-24.08,-28.58,-16.17,-10.08,-10.05,2.568,3.325,1.322,0.6093,2.558,3.066,1.053,1.764,0,0,0,0,0,0,0,0,0,0,0,0,0,0,0,0,
126,-2.939,-1.859,-30.01,-27.46,-31.79,-20.01,-15.74,-9.563,-0.5349,3.24,-1.697,-4.669,-1.342,0.2606,-3.891,-0.0139,0,0,0,0,0,0,0,0,0,0,0,0,0,0,0,0,
127,-13.57,-6.836,-32.63,-29.27,-29.71,-24.04,-21.2,-10.69,-4.241,1.706,-7.72,-11.29,-4.59,-3.458,-9.673,-3.316,0,0,0,0,0,0,0,0,0,0,0,0,0,0,0,0,
128,-14.01,-8.612,-30.86,-26.77,-24.36,-23.94,-18.91,-7.547,-4.143,2.131,-9.117,-11.26,-4.884,-3.74,-10.66,-3.394,0,0,0,0,0,0,0,0,0,0,0,0,0,0,0,0,
129,-12.01,-7.15,-29.38,-25,-30.71,-26.15,-16.66,-5.139,-7.752,2.47,-12.47,-14,-8.506,-5.335,-13.52,-6.263,0,0,0,0,0,0,0,0,0,0,0,0,0,0,0,0,
130,-18.17,-8.723,-30.25,-23.77,-36.72,-28.18,-16.47,-5.23,-12.94,1.302,-18.11,-18.22,-12.78,-7.271,-16.37,-10.95,0,0,0,0,0,0,0,0,0,0,0,0,0,0,0,0,
131,-17.02,-9.033,-25.15,-18.46,-27.14,-22.21,-13.27,-3.192,-8.684,1.314,-16.41,-15.03,-12.67,-6.08,-14.81,-11.49,0,0,0,0,0,0,0,0,0,0,0,0,0,0,0,0,
132,-9.084,-6.922,-17.78,-14.73,-18.52,-16.48,-12.66,-3.949,-4.01,1.256,-12.87,-12.93,-12.72,-6.728,-16.27,-11.79,0,0,0,0,0,0,0,0,0,0,0,0,0,0,0,0,
133,-9.84,-8.196,-16.98,-16.48,-20.39,-17.99,-15.59,-6.573,-6.967,0.2785,-13.84,-14.55,-12.82,-8.399,-18.77,-13.25,0,0,0,0,0,0,0,0,0,0,0,0,0,0,0,0,
134,-9.872,-7.801,-17.08,-16.33,-21.42,-18.55,-13.43,-3.78,-6.542,1.234,-13.15,-11.07,-9.482,-5.668,-15.25,-11.92,0,0,0,0,0,0,0,0,0,0,0,0,0,0,0,0,
135,-4.185,-3.408,-14.99,-13.97,-21.17,-16.36,-9.382,-1.956,-4.232,2.188,-12.24,-8.213,-7.258,-2.428,-12.9,-10.05,0,0,0,0,0,0,0,0,0,0,0,0,0,0,0,0,
136,-6.144,-2.86,-15.43,-15.11,-21.55,-16.49,-10.51,-5.759,-6.925,1.173,-13.23,-9.928,-7.156,-1.771,-13.12,-8.88,0,0,0,0,0,0,0,0,0,0,0,0,0,0,0,0,
137,-9.871,-3.591,-15.78,-15.76,-19.01,-16.88,-12.13,-7.409,-6.367,2.239,-10.47,-8.467,-4.41,-0.2896,-8.956,-5.947,0,0,0,0,0,0,0,0,0,0,0,0,0,0,0,0,
138,-6.697,-0.5283,-13.97,-13.28,-19.82,-16.81,-10.41,-4.929,-2.688,6.006,-7.014,-5.064,0.6318,2.957,-5.119,-2.857,0,0,0,0,0,0,0,0,0,0,0,0,0,0,0,0,
139,-4.339,2.586,-12.53,-12.04,-23.08,-16.61,-8.208,-3.209,-1.507,8.217,-6.197,-2.543,4.811,5.831,-5.131,-1.905,0,0,0,0,0,0,0,0,0,0,0,0,0,0,0,0,
140,-1.519,5.074,-10.61,-11.61,-19.28,-13.65,-6.989,-4.249,0.4984,7.048,-5.226,-0.9966,4.538,5.061,-5.628,-3.49,0,0,0,0,0,0,0,0,0,0,0,0,0,0,0,0,
141,1.632,5.428,-9.834,-11.28,-16.29,-12.53,-7.33,-6.362,-0.1575,4.071,-7.51,-5.426,-0.4845,0.3473,-8.791,-6.372,0,0,0,0,0,0,0,0,0,0,0,0,0,0,0,0,
142,-3.183,1.182,-12.05,-12.44,-20.75,-15.94,-8.938,-5.6,-5.51,3,-12.06,-10.77,-3.012,-2.318,-13.19,-6.771,0,0,0,0,0,0,0,0,0,0,0,0,0,0,0,0,
143,-6.934,-1.156,-13.52,-12.57,-23.35,-16.61,-9.787,-3.476,-7.768,4.213,-12.5,-8.859,-1.782,-1.107,-14.56,-5.646,0,0,0,0,0,0,0,0,0,0,0,0,0,0,0,0,
144,-2.605,-0.2902,-13.27,-11.87,-21.98,-14.77,-10.49,-5.431,-7.144,2.691,-12.24,-7.47,-4.305,-1.439,-17.15,-7.92,0,0,0,0,0,0,0,0,0,0,0,0,0,0,0,0,
145,-2.24,-2.69,-11.52,-11.73,-19.57,-15.06,-12.11,-9.12,-6.933,-1.629,-13.58,-11.13,-8.918,-3.391,-20.22,-10.71,0,0,0,0,0,0,0,0,0,0,0,0,0,0,0,0,
146,-7.265,-5.665,-9.633,-11.9,-17.33,-14.33,-13.52,-12.76,-7.053,-4.325,-12.71,-12.21,-8.546,-2.593,-17.28,-8.05,0,0,0,0,0,0,0,0,0,0,0,0,0,0,0,0,
147,-8.015,-5.403,-12.87,-15.37,-19.53,-12.11,-14.37,-18.45,-8.512,-5.866,-10.17,-9.128,-5.883,-0.3325,-11.75,-2.556,0,0,0,0,0,0,0,0,0,0,0,0,0,0,0,0,
148,-4.903,-4.864,-15.1,-17.33,-19.16,-10.8,-13.65,-19.17,-6.408,-6.08,-6.784,-5.824,-5.001,0.8467,-8.033,0.5673,0,0,0,0,0,0,0,0,0,0,0,0,0,0,0,0,
149,-2.084,-3.828,-8.66,-11.96,-10.36,-9.226,-11.17,-13.4,-0.2732,-3.167,-3.734,-3.565,-3.339,2.383,-4.524,1.099,0,0,0,0,0,0,0,0,0,0,0,0,0,0,0,0,
150,-0.1771,-1.55,-5.726,-10.27,-7.156,-9.176,-10.8,-13.08,0.5391,-0.9069,-4.226,-2.882,-0.8991,3.809,-3.175,-0.1788,0,0,0,0,0,0,0,0,0,0,0,0,0,0,0,0,
151,-0.0338,-0.3256,-10.92,-15.07,-12.34,-11,-12.47,-16.65,-2.253,-0.416,-5.614,-3.115,-0.811,3.022,-5.254,-2.343,0,0,0,0,0,0,0,0,0,0,0,0,0,0,0,0,
152,-0.9543,0.145,-10.52,-13.99,-12.69,-9.65,-11.66,-15.02,-2.034,1.255,-4.964,-3.019,-1.647,2.034,-6.647,-2.758,0,0,0,0,0,0,0,0,0,0,0,0,0,0,0,0,
153,-0.1481,0.0915,-6.187,-10.55,-11.02,-7.297,-10.06,-13.71,-2.812,0.4476,-5.364,-4.085,-1.583,2.256,-6.66,-2.041,0,0,0,0,0,0,0,0,0,0,0,0,0,0,0,0,
154,0.2733,-1.274,-9.021,-13.41,-15.28,-10.03,-11.13,-15.67,-6,-3.896,-7.265,-6.492,-1.591,2.137,-7.386,-1.61,0,0,0,0,0,0,0,0,0,0,0,0,0,0,0,0,
155,-2.881,-1.057,-13.18,-15.4,-19.77,-12.95,-11.21,-15.09,-6.165,-4.215,-7.051,-5.377,-0.1188,3.683,-6.71,1.493,0,0,0,0,0,0,0,0,0,0,0,0,0,0,0,0,
156,-4.095,2.375,-11.62,-12.43,-19.95,-11.1,-8.745,-13.14,-3.785,-0.3816,-5.448,-0.9912,2.575,7.35,-4.712,4.737,0,0,0,0,0,0,0,0,0,0,0,0,0,0,0,0,
157,-1.79,4.455,-10.7,-11.54,-20.13,-11.74,-9.644,-12.74,-5.95,1.034,-7.799,-2.038,1.722,7.529,-7.026,1.338,0,0,0,0,0,0,0,0,0,0,0,0,0,0,0,0,
158,-3.767,2.337,-12.4,-14.29,-21.11,-16.11,-13.58,-12.92,-12.36,0.6816,-13.65,-8.059,-1.124,4.639,-11.58,-3.9,0,0,0,0,0,0,0,0,0,0,0,0,0,0,0,0,
159,-6.979,0.04,-8.819,-13.05,-16.67,-13.75,-12.22,-12.51,-12.43,1.472,-14.58,-8.982,-0.9683,3.862,-10.37,-3.943,0,0,0,0,0,0,0,0,0,0,0,0,0,0,0,0,
160,-2.898,0.5402,-1.077,-6.262,-9.891,-5.657,-6.311,-9.601,-5.368,2.47,-8.59,-4.937,-0.0181,3.813,-6.675,-2.278,0,0,0,0,0,0,0,0,0,0,0,0,0,0,0,0,
161,3.25,2.237,2.197,-1.777,-10.4,-2.376,-3.353,-5.713,-2.058,3.621,-3.891,-2.151,0.4718,4.158,-5.992,-0.8036,0,0,0,0,0,0,0,0,0,0,0,0,0,0,0,0,
162,4.575,4.452,2.075,-1.701,-13.23,-3.82,-2.461,-4.832,-3.531,4.989,-4.058,0.4148,3.735,7.795,-3.653,2.243,0,0,0,0,0,0,0,0,0,0,0,0,0,0,0,0,
163,4.997,6.913,2.638,-2.349,-11.24,-4.736,-1.093,-5.651,-4.485,5.493,-4.298,3.55,7.734,11.28,0.0245,4.354,0,0,0,0,0,0,0,0,0,0,0,0,0,0,0,0,
164,7.892,8.26,3.116,-2.967,-8.837,-3.98,-1.465,-6.427,-5.968,5.523,-3.994,2.569,7.985,11.04,-2.3,3.285,0,0,0,0,0,0,0,0,0,0,0,0,0,0,0,0,
165,7.002,8.827,4.835,-1.805,-7.367,-1.713,-2.319,-7.641,-8.251,5.378,-7.782,-3.152,5.046,8.835,-8.549,-0.0923,0,0,0,0,0,0,0,0,0,0,0,0,0,0,0,0,
166,0.226,8.812,7.725,1.383,-5.887,0.7931,-0.8751,-6.287,-7.361,5.351,-11.78,-5.936,3.198,6.894,-10.27,-1.847,0,0,0,0,0,0,0,0,0,0,0,0,0,0,0,0,
167,-0.5201,8.453,8.798,3.326,-5.772,2.403,1.561,-1.926,-2.475,6.386,-8.013,-1.511,5.846,8.003,-5.625,1.814,0,0,0,0,0,0,0,0,0,0,0,0,0,0,0,0,
168,6.998,9.538,8.667,4.042,-5.177,2.554,2.415,-0.5978,0.9091,6.76,-2.03,2.784,9.744,11.28,-0.7011,6.207,0,0,0,0,0,0,0,0,0,0,0,0,0,0,0,0,
169,9.373,10.59,8.486,3.471,-3.194,0.9548,0.7857,-3.796,0.3776,5.249,-1.362,2.351,9.658,11.79,0.0828,6.537,0,0,0,0,0,0,0,0,0,0,0,0,0,0,0,0,
170,6.901,9.93,8.755,1.512,0.0295,0.6686,-0.3947,-6.404,2.28,4.489,-0.1811,3.438,8.386,11.1,1.05,7.277,0,0,0,0,0,0,0,0,0,0,0,0,0,0,0,0,
171,8.987,10.58,10.62,2.092,2.504,3.035,1.121,-5.946,6.539,5.183,3.774,7.663,9.866,12.88,5.283,10.06,0,0,0,0,0,0,0,0,0,0,0,0,0,0,0,0,
172,12.01,12.5,12.17,4.796,1.138,4.269,2.026,-4.183,6.285,5.389,5.447,9.978,11.93,14.66,7.454,11.07,0,0,0,0,0,0,0,0,0,0,0,0,0,0,0,0,
173,11.5,13,11.59,5.733,-0.005,3.092,1.258,-3.879,5.157,4.722,6.535,10.59,12.68,14.83,5.31,10.56,0,0,0,0,0,0,0,0,0,0,0,0,0,0,0,0,
174,11.72,13.1,10.44,5.648,-0.9811,1.105,1.079,-6.298,6.593,3.281,6.446,10.79,11.78,14.37,3.057,9.373,0,0,0,0,0,0,0,0,0,0,0,0,0,0,0,0,
175,13.58,12.09,9.462,5.044,-5.264,-0.7203,0.2303,-8.623,5.479,2.126,1.685,8.941,9.904,14.16,2.783,7.668,0,0,0,0,0,0,0,0,0,0,0,0,0,0,0,0,
176,11.9,10.07,8.841,4.231,-5.424,-0.6308,-0.4781,-7.301,3.792,3.862,-0.6916,6.69,10.59,16.25,3.686,8.332,0,0,0,0,0,0,0,0,0,0,0,0,0,0,0,0,
177,7.136,11.93,9.92,6.731,-3.169,0.8839,1.972,-3.733,3.95,7.213,1.875,5.812,12.93,19.03,3.844,10.74,0,0,0,0,0,0,0,0,0,0,0,0,0,0,0,0,
178,5.149,14.13,10.95,9.82,-7.977,-0.2469,2.673,-3.056,1.315,7.035,1.099,4.141,11.63,18.53,1.894,10.58,0,0,0,0,0,0,0,0,0,0,0,0,0,0,0,0,
179,4.132,9.856,9.81,8.071,-11.39,-3.912,-1.445,-5.671,-0.235,3.929,-0.8724,2.465,8.881,16.79,0.387,8.503,0,0,0,0,0,0,0,0,0,0,0,0,0,0,0,0,
180,2.528,6.945,11.63,8.372,-7.673,-3.944,-1.233,-4.347,3.026,4.073,0.8446,3.217,9.493,16.58,0.2846,6.844,0,0,0,0,0,0,0,0,0,0,0,0,0,0,0,0,
181,5.415,11.07,18.3,15.18,-4.647,0.2393,4.804,0.8384,2.46,6.232,-0.6088,2.933,10.19,16.07,-1.757,4.675,0,0,0,0,0,0,0,0,0,0,0,0,0,0,0,0,
182,7.314,12.64,21.48,17.95,-3.006,1.149,5.111,0.532,-1.804,4.484,-5.362,-0.493,8.037,15.07,-5.016,2.424,0,0,0,0,0,0,0,0,0,0,0,0,0,0,0,0,
183,3.152,9.046,22.27,17.37,-1.543,-1.39,0.7837,-1.603,-0.8786,1.711,-6.452,-3.359,5.551,13.65,-7.194,0.4949,0,0,0,0,0,0,0,0,0,0,0,0,0,0,0,0,
184,3.313,6.904,30.91,25.78,1.109,0.7208,2.282,2.662,2.062,2.397,-6.298,-4.562,3.98,10.74,-8.5,-1.192,0,0,0,0,0,0,0,0,0,0,0,0,0,0,0,0,
185,9.085,6.519,44.43,38.77,10.17,8.495,8.303,6.305,4.671,4.283,-4.754,-2.939,5.133,10.58,-5.271,1.807,0,0,0,0,0,0,0,0,0,0,0,0,0,0,0,0,
186,11.85,8.173,55.31,49.27,19.48,15.95,14.61,8.119,10.87,6.015,1.162,2.539,9.743,14.29,1.177,8.229,0,0,0,0,0,0,0,0,0,0,0,0,0,0,0,0,
187,13.64,12.62,65.88,63.4,22.22,19.85,21.13,17.05,12.93,7.846,2.882,5.177,12.28,14.84,1.662,9.028,0,0,0,0,0,0,0,0,0,0,0,0,0,0,0,0,
188,16.56,15.44,79.45,81.44,27.4,22.9,26.8,28.57,9.186,9.867,0.1339,4.717,12.19,13.85,-0.1416,7.132,0,0,0,0,0,0,0,0,0,0,0,0,0,0,0,0,
189,17.95,17.42,97.68,99.4,38.66,29.49,33.73,35.64,14.12,13.49,5.327,9.938,15.4,17.82,4.755,10.68,0,0,0,0,0,0,0,0,0,0,0,0,0,0,0,0,
190,21.27,21.85,120.9,119.5,48.8,38.3,42.59,42.05,24.71,17.01,14.5,17.56,19.46,21.34,10.85,13.95,0,0,0,0,0,0,0,0,0,0,0,0,0,0,0,0,
191,28.97,25.24,144.1,141.6,58.84,46.67,50.15,49.76,27.48,18.99,17.7,20.83,20.34,20.6,13.02,12.41,0,0,0,0,0,0,0,0,0,0,0,0,0,0,0,0,
192,35.21,27.55,162.3,162.1,70.27,55.7,58.36,58.09,28.66,22.08,19.62,23.57,22.68,21.79,13.94,12.4,0,0,0,0,0,0,0,0,0,0,0,0,0,0,0,0,
193,38.27,33.24,172.6,175.5,76.87,64.08,68.97,68.7,33.28,25.42,22.1,27.03,27.6,24.66,13.98,14.6,0,0,0,0,0,0,0,0,0,0,0,0,0,0,0,0,
194,44.7,40.07,173.2,176.9,82.22,71.02,78.47,80.2,34.93,26.66,21.3,28.74,29.91,24.26,14.75,13.9,0,0,0,0,0,0,0,0,0,0,0,0,0,0,0,0,
195,51.53,43.3,170.6,174,93.99,78.47,84.8,86.15,36.13,28.22,20.73,29.34,30.09,24.05,17.88,12.94,0,0,0,0,0,0,0,0,0,0,0,0,0,0,0,0,
196,49.44,43.35,171.9,175.2,101.5,82.1,85.99,83.69,37.99,31.31,22.2,28.67,31.31,27.66,20.32,16.45,0,0,0,0,0,0,0,0,0,0,0,0,0,0,0,0,
197,43.73,42.02,171.8,174.1,94.42,77.53,81.82,79.96,34.09,32.77,22.07,27.1,31.94,30.1,21.01,20.07,0,0,0,0,0,0,0,0,0,0,0,0,0,0,0,0,
198,41.61,39.96,163.9,165.7,85.71,71.62,78.4,79.72,29.11,31.03,19.92,25.97,31.19,28.41,20.58,18.92,0,0,0,0,0,0,0,0,0,0,0,0,0,0,0,0,
199,41.17,39.76,153,155.5,86.03,71.33,78.06,77.96,29.06,29.41,17.05,24.36,30.08,26.29,17.72,15.82,0,0,0,0,0,0,0,0,0,0,0,0,0,0,0,0,
200,41.96,40.48,141.8,144,84.46,70.42,73.8,73.64,27.96,28.93,14.14,21.39,26.22,23.64,13.26,12.63,0,0,0,0,0,0,0,0,0,0,0,0,0,0,0,0,
201,39.43,36.31,127.8,129.6,74.46,62.7,64.87,70.04,24.54,26.5,12.96,18.81,21.9,20.87,11.48,10.74,0,0,0,0,0,0,0,0,0,0,0,0,0,0,0,0,
202,33.51,31.4,115.8,118.3,66.03,57.51,61.8,66.26,24.32,24.27,13.8,19.64,23.36,22.93,13.65,13.1,0,0,0,0,0,0,0,0,0,0,0,0,0,0,0,0,
203,35.05,32.69,108.1,110.6,63.32,59.41,63.5,61.11,25.14,24.01,13.71,21.36,25.03,24.21,14.27,13.53,0,0,0,0,0,0,0,0,0,0,0,0,0,0,0,0,
204,37.09,32.05,96.69,97.83,59.17,55.62,57.34,54.08,24.1,21.23,11.9,18.56,20.85,19.04,11.29,7.974,0,0,0,0,0,0,0,0,0,0,0,0,0,0,0,0,
205,29.25,26.42,82.92,82.22,53.42,45.96,47.67,46.31,24.9,17.9,12.24,15.53,18.65,17.29,10.94,6.124,0,0,0,0,0,0,0,0,0,0,0,0,0,0,0,0,
206,25.79,24.89,74.08,72.74,52.29,43.02,44.18,40.23,27.73,17.08,16.02,18.07,20.52,20.6,14.6,9.541,0,0,0,0,0,0,0,0,0,0,0,0,0,0,0,0,
207,30.56,24.35,67.06,64.97,52.25,41.9,39.52,34.35,29.25,14.26,19.4,21.16,19.38,19.74,17.07,10.2,0,0,0,0,0,0,0,0,0,0,0,0,0,0,0,0,
208,29.35,19.39,57.2,53.77,45.93,34.36,31.46,30.01,29.18,11.08,19.16,20.23,16.33,17.04,16.1,9.153,0,0,0,0,0,0,0,0,0,0,0,0,0,0,0,0,
209,23.61,15.73,45.51,42.93,37.47,27.09,27.11,29.08,25.2,10.57,14.39,16.9,13.37,15.27,11.99,7.395,0,0,0,0,0,0,0,0,0,0,0,0,0,0,0,0,
210,19.44,13.15,35,33.96,32.91,23.48,23.24,25.41,16.97,8.084,8.624,13.17,9.098,11.87,8.24,2.924,0,0,0,0,0,0,0,0,0,0,0,0,0,0,0,0,
211,14.13,9.136,29.03,27.75,29.04,19.7,18.1,20.37,12.61,5.2,7.583,10.75,7.182,10.62,9.127,1.254,0,0,0,0,0,0,0,0,0,0,0,0,0,0,0,0,
212,10.71,7.23,24.2,23.28,22.73,14.74,15.5,19.95,12.69,5.33,7.902,8.755,7.748,11.78,10.45,3.618,0,0,0,0,0,0,0,0,0,0,0,0,0,0,0,0,
213,11.18,6.109,14.82,15.12,14.21,9.32,12.65,17.53,8.818,4.649,3.516,5.626,6.837,11.9,7.519,4.003,0,0,0,0,0,0,0,0,0,0,0,0,0,0,0,0,
214,9.334,4.975,5.982,7.402,6.31,6.608,10.63,12.81,4.644,4.392,-0.9786,3.961,7.112,13.08,4.537,2.966,0,0,0,0,0,0,0,0,0,0,0,0,0,0,0,0,
215,6.099,7.033,2.63,5.839,5.517,8.201,12.46,14.4,5.867,6.289,-1.911,4.237,8.237,12.95,2.476,1.491,0,0,0,0,0,0,0,0,0,0,0,0,0,0,0,0,
216,6.55,7.799,-0.0835,3.206,7.908,8.877,11.05,15.48,5.716,4.759,-3.165,3.783,5.031,8.596,-1.181,-3.029,0,0,0,0,0,0,0,0,0,0,0,0,0,0,0,0,
217,6.941,3.612,-4.44,-3.183,4.276,6.093,5.315,10.03,3.729,1.171,-4.21,4.161,2.071,6.457,-1.421,-5.717,0,0,0,0,0,0,0,0,0,0,0,0,0,0,0,0,
218,5.02,0.7681,-7.95,-7.438,1.447,3.85,3.355,7.377,5.012,1.679,-3.545,6.116,4.354,7.926,2.237,-2.547,0,0,0,0,0,0,0,0,0,0,0,0,0,0,0,0,
219,4.898,1.852,-10.52,-9.763,4.383,3.387,4.261,8.633,4.511,3.356,-3.973,5.874,5.725,7.498,1.801,-0.0861,0,0,0,0,0,0,0,0,0,0,0,0,0,0,0,0,
220,4.935,2.336,-13.07,-12.09,3.51,2.358,3.395,6.25,1.999,2.529,-4.087,4.286,4.573,6.782,-0.2633,-0.2681,0,0,0,0,0,0,0,0,0,0,0,0,0,0,0,0,
221,2.729,2.301,-15.69,-14.07,-1.065,1.093,2.729,3.101,3.954,2.493,-1.928,6.071,6.75,8.774,2.834,1.971,0,0,0,0,0,0,0,0,0,0,0,0,0,0,0,0,
222,3.455,4.831,-17.38,-15.75,-1.664,1.622,3.782,5.21,5.315,4.384,-0.8156,9.841,9.237,9.56,5.935,3.514,0,0,0,0,0,0,0,0,0,0,0,0,0,0,0,0,
223,7.345,6.601,-17.18,-15.98,0.0916,2.647,4.534,8.935,1.569,4.67,-1.945,10.66,6.294,7.073,3.841,0.4161,0,0,0,0,0,0,0,0,0,0,0,0,0,0,0,0,
224,7.201,3.767,-16.81,-15.64,0.4314,1.534,3.482,9.248,-0.7559,3.291,-3.658,8.484,2.661,5.398,0.1736,-1.856,0,0,0,0,0,0,0,0,0,0,0,0,0,0,0,0,
225,2.67,1.223,-17.46,-16.19,-0.6159,0.1294,2.409,8.579,0.0439,3.58,-4.782,6.671,2.686,6.177,-1.238,-1.175,0,0,0,0,0,0,0,0,0,0,0,0,0,0,0,0,
226,0.4022,3.405,-17.31,-15.94,-0.0054,1.635,4.293,8.48,0.2486,4.633,-4.144,6.027,2.662,5.613,-1.025,-2.046,0,0,0,0,0,0,0,0,0,0,0,0,0,0,0,0,
227,3.02,5.494,-15.75,-15.71,2.671,3.792,6.619,6.855,0.147,3.15,-3.776,4.862,0.2621,1.843,-2.431,-5.076,0,0,0,0,0,0,0,0,0,0,0,0,0,0,0,0,
228,5.046,2.792,-16,-17.69,0.902,1.711,3.882,5.341,-0.3046,-0.0483,-6.306,2.913,-3.644,-2.944,-5.261,-7.841,0,0,0,0,0,0,0,0,0,0,0,0,0,0,0,0,
229,0.8387,-2.469,-21.57,-22.17,-4.813,-4.616,-3.211,3.565,-2.661,-2.841,-9.159,1.344,-7.388,-6.26,-5.457,-8.359,0,0,0,0,0,0,0,0,0,0,0,0,0,0,0,0,
230,-4.651,-5.722,-29.33,-28.47,-7.422,-9.657,-8.597,0.1679,-4.762,-4.3,-9.542,0.0196,-7.298,-6.096,-3.058,-6.406,0,0,0,0,0,0,0,0,0,0,0,0,0,0,0,0,
231,-5.158,-4.773,-31.8,-31.23,-8.845,-9.66,-8.403,1.148,-4.259,-3.474,-8.707,-1.256,-4.288,-3.762,-1.533,-5.631,0,0,0,0,0,0,0,0,0,0,0,0,0,0,0,0,
232,-4.78,-2.4,-28.98,-27.88,-10.14,-6.759,-5.061,4.797,-3.811,-2.522,-7.968,-0.5992,-3.772,-3.503,-1.693,-6.268,0,0,0,0,0,0,0,0,0,0,0,0,0,0,0,0,
233,-4.278,-2.466,-26.14,-25.09,-7.019,-3.914,-3.14,3.35,-4.405,-3.443,-6.712,2.439,-4.729,-4.569,-1.706,-4.495,0,0,0,0,0,0,0,0,0,0,0,0,0,0,0,0,
234,-0.2752,-3.36,-24.21,-24.7,-4.251,-2.942,-2.918,2.76,-2.754,-3.437,-5.755,3.891,-4.122,-4.196,-1.029,-3.421,0,0,0,0,0,0,0,0,0,0,0,0,0,0,0,0,
235,-0.2468,-2.901,-24.11,-24.12,-6.74,-5.327,-3.272,4.71,-1.041,-2.458,-7.041,1.749,-3.75,-4.059,-1.547,-5.319,0,0,0,0,0,0,0,0,0,0,0,0,0,0,0,0,
236,-5.608,-2.795,-26.72,-25.53,-8.434,-7.186,-3.521,1.312,-1.409,-2.462,-7.698,0.9204,-2.757,-3.583,-1.642,-3.357,0,0,0,0,0,0,0,0,0,0,0,0,0,0,0,0,
237,-3.549,-2.397,-26.73,-26.25,-6.831,-4.101,-1.623,-0.8892,1.652,-1.46,-4.908,3.558,-0.2278,-1.345,1.536,1.526,0,0,0,0,0,0,0,0,0,0,0,0,0,0,0,0,
238,3.369,-0.6886,-22.87,-23.11,-7.069,-0.6885,0.0799,2.626,6.328,-1.232,-3.064,4.267,-0.4231,-1.532,3.783,0.9262,0,0,0,0,0,0,0,0,0,0,0,0,0,0,0,0,
239,2.514,-1.072,-21.2,-21.53,-8.24,-0.1965,-1.002,3.277,6.403,-3.84,-2.664,3.333,-2.252,-4.053,3.051,-1.675,0,0,0,0,0,0,0,0,0,0,0,0,0,0,0,0,
240,1.49,-2.459,-20.84,-21.07,-4.885,1.907,0.2352,2.605,6.96,-3.92,0.7341,6.314,-0.7259,-3.829,3.436,-0.8752,0,0,0,0,0,0,0,0,0,0,0,0,0,0,0,0,
241,7.447,-0.2545,-18.4,-18.93,-0.0888,4.545,3.549,4.184,8.856,-1.692,2.345,8.619,1.274,-2.666,2.979,-1.677,0,0,0,0,0,0,0,0,0,0,0,0,0,0,0,0,
242,7.195,1.98,-18.04,-20.95,-1.393,2.991,2.377,4.588,5.195,-1.569,-1.358,4.906,0.7372,-3.023,-0.3491,-3.921,0,0,0,0,0,0,0,0,0,0,0,0,0,0,0,0,
243,0.7164,0.7516,-20.97,-25,-6.305,0.3419,-0.3595,5.149,1.138,-0.7326,-2.525,2.06,0.6616,-2.491,-1.352,-2.436,0,0,0,0,0,0,0,0,0,0,0,0,0,0,0,0,
244,2.197,-0.5981,-22.99,-24.3,-7.415,-0.5199,-1.207,3.893,1.648,-0.3021,-0.6916,2.764,0.6259,-1.959,-0.1922,-1.175,0,0,0,0,0,0,0,0,0,0,0,0,0,0,0,0,
245,3.823,-1.843,-22.54,-23.09,-5.17,-0.5028,-2.116,0.814,1.841,-2.526,-2.213,2.015,-0.4547,-1.546,-0.444,-2.102,0,0,0,0,0,0,0,0,0,0,0,0,0,0,0,0,
246,-1.22,-2.171,-18.59,-21.76,-1.372,2.581,0.0729,4.847,5.143,-0.8748,-2.04,2.98,0.8839,1.204,0.6589,0.6097,0,0,0,0,0,0,0,0,0,0,0,0,0,0,0,0,
247,1.353,0.8988,-14.45,-18.66,3.06,6.175,2.646,8.94,11.99,1.751,2.848,6.893,2.255,1.476,2.679,4.032,0,0,0,0,0,0,0,0,0,0,0,0,0,0,0,0,
248,7.466,0.9933,-17.2,-21.06,2.392,3.956,-1.593,2.903,10.56,-2.154,3.075,6.025,-0.8446,-2.835,1.448,1.693,0,0,0,0,0,0,0,0,0,0,0,0,0,0,0,0,
249,3.712,-3.412,-21.78,-25.38,-1.599,0.7653,-4.54,-0.2438,5.175,-3.672,-1.61,1.95,-2.94,-3.286,-0.28,-1.095,0,0,0,0,0,0,0,0,0,0,0,0,0,0,0,0,
250,-0.5369,-3.607,-21.1,-23.12,-2.861,1.252,-1.091,4.158,6.52,1.032,-2.446,1.111,-1.725,0.0536,-0.5858,-0.1183,0,0,0,0,0,0,0,0,0,0,0,0,0,0,0,0,
251,-0.5373,-1.701,-21.07,-21.12,-6.481,-0.3309,-0.0524,4.469,5.743,2.375,-1.054,0.8039,-2.903,-0.1792,-2.347,-0.0949,0,0,0,0,0,0,0,0,0,0,0,0,0,0,0,0,
252,-1.953,-2.808,-22.69,-21.96,-10.52,-3.066,-0.5952,3.05,1.087,1.789,-1.429,-0.6839,-3.966,-0.8661,-3.724,-1.258,0,0,0,0,0,0,0,0,0,0,0,0,0,0,0,0,
253,-2.507,-3.005,-22.59,-22.22,-8.635,-3.673,-0.8703,2.883,1.144,1.954,-1.764,-2.147,-2.421,-0.0961,-4.056,-1.701,0,0,0,0,0,0,0,0,0,0,0,0,0,0,0,0,
254,-3.966,-4.723,-27.32,-27.62,-12.53,-7.872,-7.268,-2.165,-1.533,-2.994,-3.076,-4.95,-4.487,-2.954,-6.272,-3.632,0,0,0,0,0,0,0,0,0,0,0,0,0,0,0,0,
255,-6.402,-9.407,-33.4,-33.38,-20.72,-12.17,-11.69,-5.153,-6.815,-7.212,-4.235,-5.662,-7.07,-4.774,-5.633,-4.387,0,0,0,0,0,0,0,0,0,0,0,0,0,0,0,0,
256,-3.691,-7.661,-28.33,-27.56,-15.89,-7.785,-5.013,0.7255,-1.194,-3.375,-0.3627,-1.223,-3.415,-0.1084,0.5228,-1.653,0,0,0,0,0,0,0,0,0,0,0,0,0,0,0,0,
257,-1.189,-1.164,-20.51,-19.86,-9.591,-3.071,0.3356,4.059,6.551,-0.524,4.428,2.192,-0.5794,3.229,3.981,-1.55,0,0,0,0,0,0,0,0,0,0,0,0,0,0,0,0,
258,-2.766,-0.7101,-22.54,-22.75,-13.95,-5.377,-2.961,-0.5188,4.163,-3.313,4.348,1.527,-2.643,1.373,3.227,-4.297,0,0,0,0,0,0,0,0,0,0,0,0,0,0,0,0,
259,-1.758,-3.786,-26.03,-27.07,-14.81,-6.602,-5.06,-2.796,1.545,-4.818,3.384,1.145,-3.232,0.6005,4.036,-3.833,0,0,0,0,0,0,0,0,0,0,0,0,0,0,0,0,
260,-0.2981,-4.826,-24.93,-25.18,-13.9,-6.38,-4.701,-1.272,2.175,-5.308,3.119,0.5098,-3.388,1.112,3.841,-3.079,0,0,0,0,0,0,0,0,0,0,0,0,0,0,0,0,
261,-3.762,-7.022,-26.38,-25.18,-19.16,-10.77,-8.269,-3.509,-0.1354,-7.963,1.031,-2.213,-5.941,0.3198,0.8338,-4.838,0,0,0,0,0,0,0,0,0,0,0,0,0,0,0,0,
262,-5.635,-8.806,-29.38,-29.45,-18.83,-13.13,-11.36,-5.821,-0.993,-7.955,1.744,-1.823,-5.007,2.012,1.435,-4.182,0,0,0,0,0,0,0,0,0,0,0,0,0,0,0,0,
263,-2.008,-5.445,-28.88,-31.25,-15.47,-10.61,-9.926,-4.328,0.3451,-4.857,5.712,1.705,-1.356,4.91,4.404,-2.609,0,0,0,0,0,0,0,0,0,0,0,0,0,0,0,0,
264,-1.792,-2.69,-29.04,-30.96,-19.33,-11.16,-9.322,-6.192,-2.034,-4.814,4.993,1.276,-2.137,3.515,2.884,-4.33,0,0,0,0,0,0,0,0,0,0,0,0,0,0,0,0,
265,-4.912,-4.185,-29.33,-29.85,-19.26,-11.33,-8.643,-8.323,-3.249,-5.567,1.902,-0.7758,-3.784,2.238,0.458,-5.562,0,0,0,0,0,0,0,0,0,0,0,0,0,0,0,0,
266,-1.667,-3.795,-26.76,-27.24,-14.48,-7.738,-5.619,-5.724,-0.7008,-4.438,1.283,-0.603,-3.304,3.738,0.1476,-6.109,0,0,0,0,0,0,0,0,0,0,0,0,0,0,0,0,
267,-0.7569,-3.799,-28.71,-29.1,-18.4,-10.2,-7.637,-9.118,-1.906,-7.162,-1.777,-3.165,-6.514,1.911,-3.003,-8.862,0,0,0,0,0,0,0,0,0,0,0,0,0,0,0,0,
268,-8.337,-7.694,-31.9,-32.2,-21.12,-14.14,-11.7,-13.47,-3.022,-9.945,-4.353,-5.294,-9.075,0.0916,-5.79,-8.852,0,0,0,0,0,0,0,0,0,0,0,0,0,0,0,0,
269,-7.899,-6.606,-25.83,-27.54,-13.19,-9.282,-8.788,-6.078,1.845,-6.251,-1.7,-1.998,-5.053,3.027,-3.596,-5.747,0,0,0,0,0,0,0,0,0,0,0,0,0,0,0,0,
270,-1.754,-2.817,-23.12,-26.25,-11.15,-7.556,-7.978,-4.26,1.848,-6.031,-1.942,-1.681,-3.912,2.83,-2.676,-6.279,0,0,0,0,0,0,0,0,0,0,0,0,0,0,0,0,
271,-4.699,-6.817,-30.83,-33.47,-17.33,-13.03,-13.23,-13.17,-4.678,-11.16,-4.317,-4.729,-7.303,-0.6,-3.909,-8.164,0,0,0,0,0,0,0,0,0,0,0,0,0,0,0,0,
272,-6.501,-9.416,-30.78,-32.1,-15.49,-11.43,-11.18,-10.43,-3.627,-8.898,-0.906,-2.4,-5.152,0.8989,-1.873,-6.556,0,0,0,0,0,0,0,0,0,0,0,0,0,0,0,0,
273,-1.089,-3.088,-22.2,-22.82,-8.302,-4.631,-3.252,-2.514,2.744,-3.286,1.959,1.619,-0.5509,4.147,1.455,-3.35,0,0,0,0,0,0,0,0,0,0,0,0,0,0,0,0,
274,2.007,1.422,-19.97,-20.98,-5.651,-3.01,-1.881,-5.864,2.16,-3.9,-0.185,2.215,0.2955,5.361,3.033,-0.9541,0,0,0,0,0,0,0,0,0,0,0,0,0,0,0,0,
275,1.012,0.3708,-23.31,-24.61,-8.674,-6.597,-6.374,-9.637,-3.147,-5.998,-2.397,0.6294,0.1909,6.015,2.67,-1.906,0,0,0,0,0,0,0,0,0,0,0,0,0,0,0,0,
276,-2.699,-2.004,-27.2,-27.5,-16.02,-11.64,-10.75,-10.03,-5.668,-8.165,-2.662,-1.368,-0.7169,4.354,2.08,-4.773,0,0,0,0,0,0,0,0,0,0,0,0,0,0,0,0,
277,-1.739,-4.593,-28.58,-29.25,-15.74,-11.01,-11.39,-12.34,-3.559,-10.99,1.382,1.381,-1.647,3.238,5.099,-3.557,0,0,0,0,0,0,0,0,0,0,0,0,0,0,0,0,
278,6.655,-4.691,-25.98,-28.51,-6.495,-5.809,-8.51,-10.9,0.1145,-9.669,6.628,5.494,-0.7297,5.447,7.454,-1.282,0,0,0,0,0,0,0,0,0,0,0,0,0,0,0,0,
279,5.851,-2.87,-25.62,-27.6,-8.097,-6.507,-7.502,-8.657,-0.3781,-7.627,4.322,1.692,-1.8,5.053,3.216,-3.243,0,0,0,0,0,0,0,0,0,0,0,0,0,0,0,0,
280,-2.832,-1.893,-27.02,-28.29,-17.15,-9.363,-8.562,-11.59,-4.303,-8.264,-0.8478,-3.262,-3.539,2.781,-1.177,-5.132,0,0,0,0,0,0,0,0,0,0,0,0,0,0,0,0,
281,-3.332,-1.175,-26.83,-29.53,-18.42,-9.392,-9.883,-13.36,-6.165,-7.373,-1.351,-3.146,-2.727,3.153,-1.488,-5.627,0,0,0,0,0,0,0,0,0,0,0,0,0,0,0,0,
282,-3.781,-3.669,-30.77,-32.71,-19.97,-13.4,-14.35,-13.25,-7.276,-6.979,-2.799,-5.377,-4.88,1.427,-2.842,-7.812,0,0,0,0,0,0,0,0,0,0,0,0,0,0,0,0,
283,-8.881,-8.938,-34.83,-34.3,-22.19,-17.15,-17.14,-14.6,-9.622,-8.571,-6.84,-8.976,-9.272,-2.166,-5.302,-9.566,0,0,0,0,0,0,0,0,0,0,0,0,0,0,0,0,
284,-8.292,-9.072,-31.3,-30.49,-17.99,-14.14,-12.35,-13.39,-7.628,-7.28,-5.773,-6.794,-8.058,-0.8869,-4.626,-9.098,0,0,0,0,0,0,0,0,0,0,0,0,0,0,0,0,
285,-4.437,-4.068,-27.33,-27.22,-15.71,-10.65,-7.785,-10.07,0.0529,-4.749,0.8406,-1.063,-3.432,2.878,-1.523,-7.284,0,0,0,0,0,0,0,0,0,0,0,0,0,0,0,0,
286,-2.019,-0.1163,-27.26,-27.51,-15.65,-9.858,-9.198,-9.499,3.749,-4.872,3.943,1.318,-1.678,3.471,-1.167,-6.088,0,0,0,0,0,0,0,0,0,0,0,0,0,0,0,0,
287,-3.07,-0.2951,-28.33,-27.87,-14.68,-12.04,-11.65,-10.61,-1.109,-6.823,-0.5237,-2.867,-3.69,0.7431,-5.588,-8.536,0,0,0,0,0,0,0,0,0,0,0,0,0,0,0,0,
288,-8.363,-4.712,-30.06,-27.72,-17.78,-15.35,-11.82,-10.48,-5.649,-9.173,-4.583,-7.749,-7.662,-2.57,-8.829,-11.77,0,0,0,0,0,0,0,0,0,0,0,0,0,0,0,0,
289,-6.754,-7.327,-27.87,-26.1,-18.21,-12.67,-9.298,-9.005,-4.447,-9.331,-3.04,-7.23,-9.504,-3.822,-7.088,-11.65,0,0,0,0,0,0,0,0,0,0,0,0,0,0,0,0,
290,-0.4119,-4.439,-22.91,-22.84,-14.4,-9.303,-5.386,-8.142,-2.811,-7.23,-2.373,-5.94,-7.704,-3.721,-4.545,-10.82,0,0,0,0,0,0,0,0,0,0,0,0,0,0,0,0,
291,-4.538,-2.225,-24.39,-22.38,-16.61,-13.15,-4.782,-8.528,-3.518,-5.899,-5.285,-6.768,-5.756,-2.973,-3.39,-9.537,0,0,0,0,0,0,0,0,0,0,0,0,0,0,0,0,
292,-10.48,-3.015,-28.93,-25.11,-19.76,-16.17,-8.373,-8.056,-5.274,-5.128,-7.211,-7.077,-5.166,-1.009,-3.3,-6.768,0,0,0,0,0,0,0,0,0,0,0,0,0,0,0,0,
293,-8.601,-3.802,-28.91,-26.74,-19.75,-15.96,-11.09,-6.903,-7.609,-4.867,-7.589,-8.056,-5.234,-0.5628,-4.833,-6.739,0,0,0,0,0,0,0,0,0,0,0,0,0,0,0,0,
294,-8.856,-4.651,-27.38,-25.6,-22.74,-17.45,-9.797,-6.434,-7.165,-4.734,-7.114,-8.445,-4.972,-0.7136,-4.956,-7.552,0,0,0,0,0,0,0,0,0,0,0,0,0,0,0,0,
295,-9.09,-3.804,-25.4,-22.35,-22.74,-15.3,-6.373,-5.398,-3.932,-2.413,-5.636,-5.519,-3.016,1.878,-2.069,-4.787,0,0,0,0,0,0,0,0,0,0,0,0,0,0,0,0,
296,-2.932,-0.9352,-22.38,-20.42,-18.09,-9.837,-4.876,-5.021,-4.275,-1.619,-5.366,-3.381,-1.392,2.689,-0.1666,-3.646,0,0,0,0,0,0,0,0,0,0,0,0,0,0,0,0,
297,-0.9004,-0.4148,-22.08,-22.24,-17.48,-9.718,-6.716,-6.479,-6.308,-4.521,-5.482,-4.079,-1.576,0.4395,-0.6511,-5.655,0,0,0,0,0,0,0,0,0,0,0,0,0,0,0,0,
298,-5.363,-1.307,-22.26,-23.09,-15.67,-12.5,-8.757,-6.167,-4.483,-5.002,-4.579,-5.009,-1.686,-0.2204,-1.817,-5.669,0,0,0,0,0,0,0,0,0,0,0,0,0,0,0,0,
299,-6.197,-2.222,-21.16,-21.58,-10.91,-13.5,-9.837,-5.016,-4.111,-3.659,-5.518,-6.525,-3.362,-1.923,-3.197,-5.718,0,0,0,0,0,0,0,0,0,0,0,0,0,0,0,0,
300,-4.239,-6.189,-23.07,-22.61,-12.46,-14.43,-11.97,-6.553,-5.787,-5.382,-6.548,-8.089,-6.787,-5.647,-4.091,-7.605,0,0,0,0,0,0,0,0,0,0,0,0,0,0,0,0,
301,-4.385,-8.69,-23.15,-22.91,-12.59,-12.98,-12.33,-6.838,-1.426,-6.375,-4.754,-7.868,-7.336,-7.016,-5.306,-8.642,0,0,0,0,0,0,0,0,0,0,0,0,0,0,0,0,
302,-4.17,-5.441,-17.36,-18.63,-6.357,-8.96,-8.667,-5.116,2.266,-4.686,-5.367,-8.355,-6.533,-7.756,-7.858,-10.74,0,0,0,0,0,0,0,0,0,0,0,0,0,0,0,0,
303,-3.757,-3.397,-15.59,-16.48,-7.522,-9.544,-6.825,-6.697,-3.137,-3.765,-8.144,-9.62,-6.874,-7.66,-7.764,-12.56,0,0,0,0,0,0,0,0,0,0,0,0,0,0,0,0,
304,-5.341,-4.236,-19.22,-18.61,-12.43,-13.75,-8.499,-9.064,-6.244,-2.634,-6.128,-7.821,-4.799,-3.735,-3.458,-9.612,0,0,0,0,0,0,0,0,0,0,0,0,0,0,0,0,
305,-5.883,-2.84,-19.02,-19.56,-9.156,-13.51,-8.005,-8.253,-2.266,-1.314,-3.345,-5.633,-2.434,-1.889,-1.24,-7.883,0,0,0,0,0,0,0,0,0,0,0,0,0,0,0,0,
306,-4.399,-1.474,-16.1,-18.03,-6.812,-9.319,-5.247,-7.17,-1.224,-2.394,-4.396,-6.311,-3.718,-5.221,-3.264,-11.28,0,0,0,0,0,0,0,0,0,0,0,0,0,0,0,0,
307,-2.724,-1.435,-14.52,-15.5,-9.412,-5.856,-3.52,-6.403,-1.369,-3.416,-2.933,-4.755,-3.892,-7.054,-3.24,-12.01,0,0,0,0,0,0,0,0,0,0,0,0,0,0,0,0,
308,0.9502,0.5968,-12.75,-14.09,-7.62,-3.065,-2.69,-5.182,2.522,-2.92,1.108,-0.0755,-1.536,-5.218,0.3414,-9.372,0,0,0,0,0,0,0,0,0,0,0,0,0,0,0,0,
309,4.502,1.638,-11.84,-14.77,-3.486,-1.606,-3.555,-5.594,4.149,-3.42,1.01,0.5851,-2.211,-3.718,1.192,-9.827,0,0,0,0,0,0,0,0,0,0,0,0,0,0,0,0,
310,2.353,-1.762,-13.58,-15.61,-4.139,-4.072,-6.824,-7.437,1.651,-4.346,-1.42,-2.767,-5.666,-4.319,-1.072,-10.49,0,0,0,0,0,0,0,0,0,0,0,0,0,0,0,0,
311,-1.085,-5.207,-15.84,-16.33,-7.107,-7.937,-8.878,-8.553,1.065,-4.07,-0.9177,-3.115,-6.576,-4.742,0.1288,-6.846,0,0,0,0,0,0,0,0,0,0,0,0,0,0,0,0,
312,0.1621,-4.24,-15.74,-16.28,-6.571,-7.98,-7.27,-7.485,4.172,-2.998,2.17,-0.0093,-4.077,-2.946,3.336,-3.436,0,0,0,0,0,0,0,0,0,0,0,0,0,0,0,0,
313,1.433,-1.148,-13.31,-13.97,-2.764,-4.807,-5.124,-5.115,7.585,-1.731,4.04,1.601,-1.86,-1.885,2.397,-3.811,0,0,0,0,0,0,0,0,0,0,0,0,0,0,0,0,
314,0.4193,0.325,-11.14,-11.95,0.4004,-2.624,-4.302,-4.031,7.943,-0.7682,3.257,1.696,-1.29,-2.952,0.8089,-4.628,0,0,0,0,0,0,0,0,0,0,0,0,0,0,0,0,
315,1.689,1.202,-10.81,-11.93,1.276,-3.293,-2.911,-3.798,5.963,0.0914,2.26,2.346,-1.207,-2.399,2.31,-4.554,0,0,0,0,0,0,0,0,0,0,0,0,0,0,0,0,
316,3.01,1.364,-12.66,-13.04,-2.142,-6.969,-3.313,-4.636,4.237,-0.0701,1.066,1.026,-2.956,-1.403,2.25,-5.787,0,0,0,0,0,0,0,0,0,0,0,0,0,0,0,0,
317,-0.7397,-2.23,-14.89,-14.74,-6.058,-10.58,-8.069,-7.695,2.872,-2.16,-1.281,-2.366,-5.792,-2.894,0.0902,-6.588,0,0,0,0,0,0,0,0,0,0,0,0,0,0,0,0,
318,-5.126,-6.024,-14.41,-15.71,-2.403,-10.41,-11.91,-9.556,1.04,-3.358,-1.851,-3.619,-5.886,-3.498,-0.5259,-5.606,0,0,0,0,0,0,0,0,0,0,0,0,0,0,0,0,
319,-4.885,-5.689,-13.39,-16.57,0.8991,-9.368,-11.33,-10.25,-0.9351,-2.802,-0.8717,-3.055,-5.172,-2.873,-0.6457,-6.793,0,0,0,0,0,0,0,0,0,0,0,0,0,0,0,0,
320,-3.479,-3.847,-13.32,-16.31,-3.438,-8.96,-7.771,-10.61,-0.4546,-1.984,-0.3732,-1.897,-5.339,-3.213,-0.3822,-8.498,0,0,0,0,0,0,0,0,0,0,0,0,0,0,0,0,
321,-2.461,-0.6289,-10.47,-11.8,-4.646,-5.771,-2.337,-5.729,3.052,0.175,1.641,1.567,-2.678,-1.085,1.738,-4.839,0,0,0,0,0,0,0,0,0,0,0,0,0,0,0,0,
322,1.843,2.896,-7.484,-8.608,-2.436,-2.817,-0.6513,-1.992,4.503,1.015,3.941,5.102,0.0903,2.177,3.231,-0.4742,0,0,0,0,0,0,0,0,0,0,0,0,0,0,0,0,
323,5.988,0.7703,-7.701,-10.74,-2.932,-2.143,-4.531,-7.719,3.911,-1.918,4.083,5.887,-0.9361,0.7182,3.187,-0.9404,0,0,0,0,0,0,0,0,0,0,0,0,0,0,0,0,
324,3.957,-2.615,-6.277,-10.68,-0.7289,0.4475,-5.384,-10.59,5.079,-2.649,3.459,4.764,-0.7877,-1.584,3.392,-1.345,0,0,0,0,0,0,0,0,0,0,0,0,0,0,0,0,
325,-0.8145,-0.6387,-5.104,-8.012,0.1053,0.5866,-3.457,-4.912,3.325,-0.1504,0.5875,1.182,0.1646,-1.184,2.236,-1.092,0,0,0,0,0,0,0,0,0,0,0,0,0,0,0,0,
326,-3.739,-0.0736,-9.358,-9.78,-5.25,-4.814,-4.795,-3.93,-1.642,-0.7073,-3.64,-3.367,-2.999,-2.65,-0.988,-3.21,0,0,0,0,0,0,0,0,0,0,0,0,0,0,0,0,
327,-4.645,-2.517,-11.83,-12.82,-7.239,-5.907,-4.75,-7.923,-1.177,-2.559,-2.781,-3.618,-4.515,-3.897,-2.285,-2.22,0,0,0,0,0,0,0,0,0,0,0,0,0,0,0,0,
328,-3.1,-1.754,-9.13,-12.5,-5.609,-2.646,-4.336,-7.995,2.335,-1.558,1.119,-0.615,-2.246,-1.757,-0.5909,0.8444,0,0,0,0,0,0,0,0,0,0,0,0,0,0,0,0,
329,-2.525,-3.121,-10.26,-13.29,-6.369,-5.393,-10.52,-8.277,1.109,-1.706,1.397,-0.2136,-4.261,-2.613,0.1173,-2.125,0,0,0,0,0,0,0,0,0,0,0,0,0,0,0,0,
330,-6.119,-9.096,-15.68,-16.99,-8.42,-10.95,-15.13,-12.75,-2.633,-4.929,0.1428,-2.007,-7.489,-6,-0.8633,-4.564,0,0,0,0,0,0,0,0,0,0,0,0,0,0,0,0,
331,-7.974,-9.548,-16.28,-17.48,-11.65,-10.51,-10.71,-14.11,-4.297,-5.853,0.7158,-1.835,-4.881,-5.01,0.0919,-0.3863,0,0,0,0,0,0,0,0,0,0,0,0,0,0,0,0,
332,-4.986,-4.899,-11.5,-12.61,-11.48,-5.916,-5.134,-8.752,-2.7,-3.281,1.198,-0.1732,-2.864,-3.511,2.156,0.5287,0,0,0,0,0,0,0,0,0,0,0,0,0,0,0,0,
333,-2.636,-3.674,-9.004,-9.402,-6.305,-3.664,-4.457,-5.654,-0.505,-2.585,0.148,0.1121,-4.69,-5.545,1.027,-2.758,0,0,0,0,0,0,0,0,0,0,0,0,0,0,0,0,
334,-2.349,-4.699,-12.77,-12.89,-7.857,-6.984,-8.213,-10.76,-2.087,-4.668,-1.075,-0.7493,-4.543,-6.303,-0.9102,-1.447,0,0,0,0,0,0,0,0,0,0,0,0,0,0,0,0,
335,-3.164,-5.931,-19.06,-18.2,-15.27,-12.89,-13.82,-15.17,-4.415,-5.842,-0.9091,-1.595,-3.497,-5.187,-0.0956,0.4141,0,0,0,0,0,0,0,0,0,0,0,0,0,0,0,0,
336,-7.552,-8.529,-21.99,-19.58,-15.96,-15.63,-16.17,-13.21,-3.773,-5.579,-1.073,-2.749,-4.385,-5.1,-0.5465,-2.143,0,0,0,0,0,0,0,0,0,0,0,0,0,0,0,0,
337,-11.95,-8.738,-20.76,-18.45,-12.35,-14.63,-14.03,-11.89,-3.665,-3.782,-2.822,-2.552,-3.491,-4.209,-1.951,-2.851,0,0,0,0,0,0,0,0,0,0,0,0,0,0,0,0,
338,-9.528,-5.138,-18.01,-16.84,-10.51,-12.06,-10.32,-12.2,-3.922,-0.6159,-2.837,-0.0608,-0.8982,-2.358,0.4037,-0.5063,0,0,0,0,0,0,0,0,0,0,0,0,0,0,0,0,
339,-4.838,-3.892,-15.47,-14.34,-10.39,-9.145,-8.006,-10.05,-3.624,-0.6757,-2.472,-0.6331,-2.274,-3.151,0.2525,-1.69,0,0,0,0,0,0,0,0,0,0,0,0,0,0,0,0,
340,-6.592,-7.893,-14.88,-14.21,-13.25,-9.077,-10.13,-9.833,-6.637,-4.749,-5.839,-6.55,-7.54,-5.807,-6.509,-6.328,0,0,0,0,0,0,0,0,0,0,0,0,0,0,0,0,
341,-12.63,-12.49,-16.8,-18.33,-13.79,-13.04,-14.8,-13.56,-9.538,-7.39,-7.556,-10.69,-10.49,-6.263,-10.22,-8.697,0,0,0,0,0,0,0,0,0,0,0,0,0,0,0,0,
342,-15.48,-13.82,-18.62,-20.48,-8.659,-16.44,-17.04,-15.22,-8.396,-7.012,-4.402,-9.439,-9.056,-4.469,-7.466,-8.092,0,0,0,0,0,0,0,0,0,0,0,0,0,0,0,0,
343,-13.94,-11.84,-18.58,-17.23,-8.231,-15.89,-15.38,-11.85,-8.166,-4.079,-2.759,-7.102,-6.219,-2.716,-4.478,-7.419,0,0,0,0,0,0,0,0,0,0,0,0,0,0,0,0,
344,-12.67,-7.382,-17.85,-14.02,-14.18,-13.67,-11.02,-6.564,-9.45,0.6934,-4.019,-6.532,-4.196,-1.557,-3.9,-7.014,0,0,0,0,0,0,0,0,0,0,0,0,0,0,0,0,
345,-12.78,-4.243,-17.86,-13.98,-15.74,-12.93,-8.472,-5.751,-9.908,1.312,-5.053,-7.246,-4.896,-1.63,-5.456,-6.633,0,0,0,0,0,0,0,0,0,0,0,0,0,0,0,0,
346,-9.926,-6.03,-17.59,-13.29,-12.41,-12.79,-10.04,-7.943,-9.919,-2.691,-4.417,-7.372,-7.729,-3.521,-6.026,-7.013,0,0,0,0,0,0,0,0,0,0,0,0,0,0,0,0,
347,-6.946,-8.662,-15.65,-10.58,-11.42,-12.04,-11.4,-4.899,-7.401,-3.381,-1.358,-6.128,-8.188,-5.326,-3.087,-7.315,0,0,0,0,0,0,0,0,0,0,0,0,0,0,0,0,
348,-11.07,-8.451,-16.03,-11.47,-14.9,-13.82,-12.81,-3.529,-5.803,-1.571,-0.1507,-5.674,-6.247,-4.798,-0.8104,-6.712,0,0,0,0,0,0,0,0,0,0,0,0,0,0,0,0,
349,-16.57,-8.318,-20.26,-15.88,-18.62,-18.28,-16.09,-9.493,-9.338,-1.966,-2.448,-5.855,-5.096,-2.972,-0.4805,-5.561,0,0,0,0,0,0,0,0,0,0,0,0,0,0,0,0,
350,-15.12,-7.925,-20.28,-14.91,-18.6,-18.77,-15.73,-8.614,-11.18,-1.609,-2.326,-4.555,-3.744,-2.629,1.052,-3.223,0,0,0,0,0,0,0,0,0,0,0,0,0,0,0,0,
351,-10.59,-5.466,-16.6,-10.87,-19.01,-14.4,-12.06,-3.463,-9.674,-0.7952,-0.851,-3.374,-3.002,-3.496,1.776,-0.7235,0,0,0,0,0,0,0,0,0,0,0,0,0,0,0,0,
352,-8.147,-5.294,-18.69,-13.11,-21.11,-12.1,-11.4,-8.258,-9.813,-2.236,-2.316,-3.786,-5.691,-3.556,0.2911,-1.402,0,0,0,0,0,0,0,0,0,0,0,0,0,0,0,0,
353,-8.969,-8.703,-20.64,-15.69,-17.08,-13.07,-12.56,-11.58,-8.742,-3.559,-3.199,-3.946,-7.797,-3.446,0.3845,-3.056,0,0,0,0,0,0,0,0,0,0,0,0,0,0,0,0,
354,-10.09,-10.16,-14.23,-12.21,-8.493,-12.68,-12.39,-7.13,-5.375,-4.684,-1.88,-2.611,-5.251,-3.814,3.166,-1.105,0,0,0,0,0,0,0,0,0,0,0,0,0,0,0,0,
355,-6.965,-8.004,-9.375,-9.823,-6.616,-11.93,-11.69,-6.875,-4.418,-5.265,-1.489,-1.676,-2.848,-4.427,5.059,0.0679,0,0,0,0,0,0,0,0,0,0,0,0,0,0,0,0,
356,-6.31,-6.54,-12.23,-10.62,-13.15,-14.63,-11.59,-8.338,-6.598,-3.495,-2.373,-2.97,-4.35,-6.185,3.886,-2.954,0,0,0,0,0,0,0,0,0,0,0,0,0,0,0,0,
357,-10.48,-7.853,-13.51,-9.907,-16.94,-16.46,-12.2,-7.402,-8.1,-3.634,-1.713,-3.456,-5.69,-7.646,2.469,-3.566,0,0,0,0,0,0,0,0,0,0,0,0,0,0,0,0,
358,-7.304,-9.68,-9.37,-8.534,-11.4,-13.47,-12.94,-9.317,-5.699,-6.38,0.9972,-1.939,-5.498,-7.76,2.392,-1.6,0,0,0,0,0,0,0,0,0,0,0,0,0,0,0,0,
359,-1.985,-10.6,-6.559,-8.357,-6.674,-11.23,-13.24,-11.12,-3.135,-7.055,1.13,-2.423,-6.327,-9.101,0.8695,-3.054,0,0,0,0,0,0,0,0,0,0,0,0,0,0,0,0,
360,-5.572,-9.927,-6.253,-7.092,-8.432,-10.65,-10.86,-9.625,-2.74,-6.406,-0.7454,-2.262,-5.135,-9.941,-0.1544,-3.949,0,0,0,0,0,0,0,0,0,0,0,0,0,0,0,0,
361,-6.019,-6.61,-4.439,-4.344,-8.302,-7.967,-6.681,-7.867,0.5098,-5.117,1.38,1.315,-1.389,-7.925,2.434,-1.899,0,0,0,0,0,0,0,0,0,0,0,0,0,0,0,0,
362,-1.114,-4.479,-4.4,-4.472,-7.207,-7.643,-7.209,-7.775,3.247,-3.558,3.921,0.9695,-2.053,-7.789,3.24,-3.116,0,0,0,0,0,0,0,0,0,0,0,0,0,0,0,0,
363,-2.447,-6.445,-6.052,-6.529,-6.758,-8.33,-9.428,-9.121,1.159,-4.878,1.776,-3.352,-5.816,-10.13,-0.3242,-5.798,0,0,0,0,0,0,0,0,0,0,0,0,0,0,0,0,
364,-4.595,-7.635,-2.468,-5.023,-2.194,-4.379,-7.186,-8.821,-0.0129,-6.283,-1.464,-4.561,-5.974,-10.27,-2.692,-4.208,0,0,0,0,0,0,0,0,0,0,0,0,0,0,0,0,
365,-3.928,-6.864,0.1757,-4.011,-2.627,-3.264,-7.16,-7.654,-1.836,-4.811,-3.718,-4.346,-4.421,-9.45,-1.729,-0.898,0,0,0,0,0,0,0,0,0,0,0,0,0,0,0,0,
366,-5.059,-6.841,-3.364,-5.947,-8.564,-5.211,-8.771,-8.54,-5.834,-3.192,-4.116,-3.554,-3.091,-9.071,0.6251,0.9465,0,0,0,0,0,0,0,0,0,0,0,0,0,0,0,0,
367,-3.804,-5.211,-3.009,-4.415,-6.792,-1.481,-4.539,-7.701,-5.481,-2.002,-2.434,-0.6968,-1.119,-8.084,2.122,0.8644,0,0,0,0,0,0,0,0,0,0,0,0,0,0,0,0,
368,-1.077,-3.469,-0.9197,-3.267,-5.945,-0.2677,-2.456,-6,-4.125,-2.278,-2.482,-0.0074,-1.762,-8.58,1.422,-0.9649,0,0,0,0,0,0,0,0,0,0,0,0,0,0,0,0,
369,-0.8685,-5.033,-4.394,-5.912,-10.63,-5.335,-5.465,-7.651,-4.226,-4.256,-2.619,-0.7288,-4.042,-9.455,1.276,-1.15,0,0,0,0,0,0,0,0,0,0,0,0,0,0,0,0,
370,0.2418,-5.121,-3.823,-3.315,-6.387,-4.16,-4.2,-7.204,-1.305,-3.278,-0.3585,0.1818,-2.978,-7.708,2.446,0.9032,0,0,0,0,0,0,0,0,0,0,0,0,0,0,0,0,
371,0.6263,-2.625,2.454,2.2,0.3827,1.529,-1.439,-3.137,-0.0521,-0.7615,-0.361,-0.4594,-0.8254,-6.633,1.836,0.9223,0,0,0,0,0,0,0,0,0,0,0,0,0,0,0,0,
372,-0.5681,-2.733,4.812,2.042,-0.3208,2.23,-1.789,-2.73,-2.142,-1.702,-2.235,-1.432,-1.039,-8.084,0.9711,-0.1777,0,0,0,0,0,0,0,0,0,0,0,0,0,0,0,0,
373,-0.1643,-4.533,3.263,0.1114,-0.3779,-0.0181,-1.844,-6.07,-3.44,-3.928,-2.749,-0.0951,-1.806,-9.065,1.409,0.9024,0,0,0,0,0,0,0,0,0,0,0,0,0,0,0,0,
374,-1.322,-5.227,-0.1721,-0.878,-1.922,-2.884,-2.732,-7.48,-5.867,-4.962,-4.209,0.0948,-2.052,-8.793,0.92,1.749,0,0,0,0,0,0,0,0,0,0,0,0,0,0,0,0,
375,-2.988,-4.984,-2.872,-1.223,-6.29,-4.78,-3.707,-6.076,-5.823,-4.429,-4.5,-0.2284,-1.688,-6.885,0.7558,1.999,0,0,0,0,0,0,0,0,0,0,0,0,0,0,0,0,
376,-1.115,-3.471,0.127,1.511,-2.149,-2.253,-1.75,-5.168,-1.272,-1.275,-0.7583,0.9728,-0.1637,-2.941,1.409,4.494,0,0,0,0,0,0,0,0,0,0,0,0,0,0,0,0,
377,0.3979,-2.197,3.603,3.311,3.77,0.8558,-1.121,-5.166,-2.375,1.488,0.7161,-0.032,0.3614,-0.7839,-0.0328,5.178,0,0,0,0,0,0,0,0,0,0,0,0,0,0,0,0,
378,-0.302,-2.985,1.931,1.046,-0.4137,-0.6174,-3.076,-3.389,-7.359,1.216,-1.551,-2.012,-0.9722,-2.575,-1.496,1.395,0,0,0,0,0,0,0,0,0,0,0,0,0,0,0,0,
379,-1.707,-3.63,0.2813,-0.6912,-2.992,-3.201,-3.765,-2.353,-5.097,0.8405,-0.2142,-0.2788,-1.07,-4.252,-0.4979,-0.1079,0,0,0,0,0,0,0,0,0,0,0,0,0,0,0,0,
380,-2.131,-2.902,1.556,-0.559,2.118,-2.06,-3.851,-5.321,-1.518,0.7921,2.587,1.423,-0.3258,-4.008,-0.0666,1.964,0,0,0,0,0,0,0,0,0,0,0,0,0,0,0,0,
381,0.9852,-3.31,2.849,-0.1925,1.848,0.5779,-4.566,-8.059,-4.157,-1.432,0.7204,0.3749,-0.641,-4.287,0.225,3.099,0,0,0,0,0,0,0,0,0,0,0,0,0,0,0,0,
382,2.35,-4.49,2.08,-0.7027,-2.994,0.3307,-5.391,-8.167,-4.499,-3.266,0.8312,1.473,0.9026,-3.374,3.763,5.446,0,0,0,0,0,0,0,0,0,0,0,0,0,0,0,0,
383,-1.367,-2.757,-0.6763,-3.218,-2.457,-1.705,-5.951,-7.689,-0.1292,-2.023,6.284,3.841,3.764,-0.3838,6.642,8.137,0,0,0,0,0,0,0,0,0,0,0,0,0,0,0,0,
384,-2.947,0.2666,-1.917,-4.335,-2.323,-2.631,-5.033,-7.1,-0.9043,-1.827,7.446,2.615,2.97,-1.11,4.14,5.638,0,0,0,0,0,0,0,0,0,0,0,0,0,0,0,0,
385,-2.749,-0.9669,-1.171,-3.806,-5.67,-3.248,-5.421,-9.478,-5.921,-5.487,3.646,0.8279,-0.1043,-4.993,1.059,2.243,0,0,0,0,0,0,0,0,0,0,0,0,0,0,0,0,
386,-4.521,-5.163,-3.399,-7.077,-4.708,-3.896,-9.435,-14.24,-6.222,-8.045,3.596,2.029,-0.725,-4.616,3.004,3.692,0,0,0,0,0,0,0,0,0,0,0,0,0,0,0,0,
387,-3.378,-5.622,-5.578,-8.854,-1.156,-2.598,-10.37,-13.01,-3.44,-5.657,6.359,3.722,1.818,-0.8833,6.721,6.377,0,0,0,0,0,0,0,0,0,0,0,0,0,0,0,0,
388,-0.6002,-1.728,-2.004,-2.911,-0.4084,-0.5921,-6.102,-7.718,-4.17,-2.502,5.656,2.863,4.143,0.4344,6.498,6.29,0,0,0,0,0,0,0,0,0,0,0,0,0,0,0,0,
389,-1.811,0.346,0.6949,1.254,-1.316,-1.099,-4.074,-6.535,-7.224,-2.273,1.887,-0.4041,2.696,-1.285,3.207,4.298,0,0,0,0,0,0,0,0,0,0,0,0,0,0,0,0,
390,-4.029,-1.09,-1.177,-0.6454,-2.195,-2.599,-4.472,-6.968,-6.082,-2.102,0.6165,-1.202,0.9363,-2.725,2.674,4.063,0,0,0,0,0,0,0,0,0,0,0,0,0,0,0,0,
391,-3.543,-1.181,-0.9521,-0.9043,-0.5087,-2.082,-3.423,-7.814,-1.461,-1.275,3.652,2.277,2.664,-1.54,5.3,6.1,0,0,0,0,0,0,0,0,0,0,0,0,0,0,0,0,
392,-1.063,0.6357,0.8824,0.6407,2.078,-0.9091,-2.565,-9.739,-2.041,-2.335,6.029,3.616,3.411,-0.2129,5.363,5.581,0,0,0,0,0,0,0,0,0,0,0,0,0,0,0,0,
393,-0.3227,0.7447,0.2181,0.403,-0.9358,-1.219,-2.241,-7.2,-6.867,-3.06,5.382,1.655,2.327,-0.4339,3.453,2.705,0,0,0,0,0,0,0,0,0,0,0,0,0,0,0,0,
394,-4.357,-0.0689,-0.9605,-0.6318,-5.932,-2.694,-2.586,-4.751,-7.755,-2.252,4.41,1.457,3.157,0.3287,4.375,2.15,0,0,0,0,0,0,0,0,0,0,0,0,0,0,0,0,
395,-6.962,0.5425,0.203,-0.2324,-3.429,-2.811,-3.584,-7.434,-5.659,-2.345,4.505,2.582,4.12,1.102,6.238,3.648,0,0,0,0,0,0,0,0,0,0,0,0,0,0,0,0,
396,-3.327,1.749,4.468,2.61,3.759,-0.6043,-2.272,-6.27,-2.971,-2.098,6.413,3.572,4.578,0.4426,6.393,5.33,0,0,0,0,0,0,0,0,0,0,0,0,0,0,0,0,
397,-1.346,1.072,5.042,1.594,3.44,-1.636,-2.55,-5.109,-0.8008,-1.99,8.425,3.771,4.956,-0.1738,5.482,4.471,0,0,0,0,0,0,0,0,0,0,0,0,0,0,0,0,
398,-4.589,-1.823,-2.387,-5.306,-5.051,-6.508,-6.991,-11.68,-3.418,-4,7.195,0.9909,2.284,-2.584,2.737,-0.8595,0,0,0,0,0,0,0,0,0,0,0,0,0,0,0,0,
399,-6.073,-2.785,-5.496,-6.651,-6.938,-5.91,-7.543,-12.86,-6.055,-4.883,5.644,-1.406,-0.3504,-6.114,0.2159,-4.186,0,0,0,0,0,0,0,0,0,0,0,0,0,0,0,0,
400,-3.819,-1.266,-1.501,-3.011,0.4902,-1.991,-5.777,-8.549,-3.787,-5.675,6.028,-0.6179,0.6351,-6.879,1.15,-2.281,0,0,0,0,0,0,0,0,0,0,0,0,0,0,0,0,
401,-2.765,-2.954,-2.718,-4.346,2.714,-4.498,-8.651,-11.66,-4.181,-9.028,4.401,-1.265,-0.0642,-7.425,2.266,-2.085,0,0,0,0,0,0,0,0,0,0,0,0,0,0,0,0,
402,-6.027,-6.967,-5.303,-4.963,-1.359,-8.006,-9.868,-12.51,-7.215,-9.72,1.466,-3.168,-3.054,-8.919,1.613,-3.146,0,0,0,0,0,0,0,0,0,0,0,0,0,0,0,0,
403,-9.312,-7.789,-3.791,-2.924,-2.269,-6.818,-7.989,-7.512,-6.653,-8.259,0.8118,-2.05,-2.808,-8.341,2.27,-0.6094,0,0,0,0,0,0,0,0,0,0,0,0,0,0,0,0,
404,-6.966,-7.042,-5.823,-6.573,-2.412,-7.537,-10.03,-10.52,-7.03,-9.871,0.7527,-0.3656,-1.137,-8.151,2.713,0.422,0,0,0,0,0,0,0,0,0,0,0,0,0,0,0,0,
405,-4.425,-6.803,-7.59,-9.62,-3.951,-9.553,-11.95,-14.8,-8.399,-10.3,0.8009,0.4913,-0.4621,-8.5,1.347,-1.17,0,0,0,0,0,0,0,0,0,0,0,0,0,0,0,0,
406,-5.563,-4.56,-3.787,-5.19,-1.008,-5.948,-9.056,-10.59,-4.384,-7.544,3.347,3.62,2.017,-5.351,2.017,0.5509,0,0,0,0,0,0,0,0,0,0,0,0,0,0,0,0,
407,-2.64,-1.385,-1.581,-1.297,5.716,-0.0752,-5.588,-7.11,-0.0358,-6.337,6.261,5.984,4.012,-2.77,2.657,1.078,0,0,0,0,0,0,0,0,0,0,0,0,0,0,0,0,
408,1.461,-0.3614,-0.2695,-0.4469,8.942,1.668,-3.297,-5.862,-1.601,-5.337,4.819,2.879,2.116,-4.217,-0.8256,-3.199,0,0,0,0,0,0,0,0,0,0,0,0,0,0,0,0,
409,-2.827,-0.5067,2.709,0.6109,5.665,-0.8705,-3.115,-4.265,-5.805,-3.017,-0.4451,-2.257,0.0039,-4.767,-2.491,-4.151,0,0,0,0,0,0,0,0,0,0,0,0,0,0,0,0,
410,-9.312,-1.498,0.2143,-2.027,0.1025,-5.746,-7.089,-7.819,-8.676,-3.206,-3.366,-4.549,-0.4398,-3.758,0.6944,-1.741,0,0,0,0,0,0,0,0,0,0,0,0,0,0,0,0,
411,-10.06,-3.632,-5.875,-7.565,-1.652,-8.365,-9.875,-11.17,-7.855,-4.356,-0.4952,-3.221,-0.0759,-3.693,3.281,-1.32,0,0,0,0,0,0,0,0,0,0,0,0,0,0,0,0,
412,-5.727,-2.659,-5.981,-7.412,0.706,-4.46,-6.3,-7.035,-4.239,-1.901,3.722,0.8027,3.263,-2.065,5.337,1.893,0,0,0,0,0,0,0,0,0,0,0,0,0,0,0,0,
413,0.3305,2.117,-2.012,-2.26,2.98,0.6254,-1.568,-3.393,-2.508,1.461,4.163,4.266,8.005,1.327,8.534,7.711,0,0,0,0,0,0,0,0,0,0,0,0,0,0,0,0,
414,1.559,4.991,-1.042,0.4126,3.3,1.434,-0.0408,-4.42,-2.537,2.18,3.154,5.272,9.949,2.989,9.646,8.532,0,0,0,0,0,0,0,0,0,0,0,0,0,0,0,0,
415,0.67,5.674,-1.676,0.6766,3.488,2.18,1.385,-4.406,-1.746,2.364,4.566,6.029,9.878,2.886,8.716,6.437,0,0,0,0,0,0,0,0,0,0,0,0,0,0,0,0,
416,4.132,6.607,-0.7769,0.9761,5.216,3.306,2.711,-3.673,-1.881,2.355,4.529,5.282,8.588,1.871,7.028,5.271,0,0,0,0,0,0,0,0,0,0,0,0,0,0,0,0,
417,2.58,5.643,-1.027,0.5659,6.374,0.9076,1.635,-4.659,-3.813,0.1308,-0.4862,0.2443,5.52,-1.324,3.364,2.814,0,0,0,0,0,0,0,0,0,0,0,0,0,0,0,0,
418,-5.828,2.934,-2.363,0.7025,5.256,-1.283,0.3236,-4.253,-5.801,-2.462,-4.003,-4.99,2.047,-5.935,-0.448,-0.1714,0,0,0,0,0,0,0,0,0,0,0,0,0,0,0,0,
419,-8.682,0.3158,-1.526,1.375,4.53,-1.15,-1.054,-2.688,-7.256,-3.872,-2.644,-6.425,-1.134,-8.664,-1.474,-1.955,0,0,0,0,0,0,0,0,0,0,0,0,0,0,0,0,
420,-8.203,-2.048,-0.2675,1.342,5.466,-1.298,-3.069,-3.44,-7.629,-4.715,-1.923,-5.253,-2.04,-7.963,0.4994,-2.432,0,0,0,0,0,0,0,0,0,0,0,0,0,0,0,0,
421,-7.946,-1.326,1.597,3.363,7.579,0.6155,-1.802,-3.846,-5.814,-3.368,-1.207,-2.21,0.8808,-4.928,3.559,-0.8029,0,0,0,0,0,0,0,0,0,0,0,0,0,0,0,0,
422,-3.775,1.4,4.518,4.811,10.12,2.533,-0.3264,-3.034,-4.027,-1.389,1.117,-0.4302,1.944,-2.521,3.255,-0.7234,0,0,0,0,0,0,0,0,0,0,0,0,0,0,0,0,
423,-4.547,-0.9633,1.268,-0.5607,8.135,-2.356,-5.77,-6.677,-6.945,-3.75,-0.7041,-3.983,-2.019,-3.988,-1.089,-4.612,0,0,0,0,0,0,0,0,0,0,0,0,0,0,0,0,
424,-12,-6.513,-4.712,-5.66,2.64,-7.765,-11.32,-11.07,-11.27,-6.736,-3.471,-7.7,-4.139,-6.731,-3.135,-5.967,0,0,0,0,0,0,0,0,0,0,0,0,0,0,0,0,
425,-13.3,-6.561,-1.789,-2.679,2.721,-5.431,-8.989,-7.974,-9.544,-3.881,-0.9034,-6.683,-1.978,-5.479,-1.945,-3.565,0,0,0,0,0,0,0,0,0,0,0,0,0,0,0,0,
426,-11.97,-2.664,1.998,0.1549,4.908,-2.768,-6.096,-3.657,-7.25,-0.1184,0.3875,-5.798,-1.003,-2.89,-2.903,-3.961,0,0,0,0,0,0,0,0,0,0,0,0,0,0,0,0,
427,-12.72,-1.326,-2.311,-2.182,1.627,-4.885,-7.456,-4.734,-10.07,-0.8368,-0.8569,-5.952,-1.3,-2.787,-3.707,-4.929,0,0,0,0,0,0,0,0,0,0,0,0,0,0,0,0,
428,-8.112,-1.395,-4.548,-3.684,0.2859,-5.518,-7.651,-5.999,-9.303,-2.235,1.54,-4.088,-0.5035,-2.936,-0.8698,-2.471,0,0,0,0,0,0,0,0,0,0,0,0,0,0,0,0,
429,-5.469,-0.9731,-2.221,-3.748,3.776,-4.276,-5.968,-5.22,-4.793,-2.262,2.641,-3.836,-0.7542,-2.717,0.2919,-1.611,0,0,0,0,0,0,0,0,0,0,0,0,0,0,0,0,
430,-10.96,-1.229,-1.467,-2.821,4.681,-3.571,-4.413,-3.139,-6.074,-1.444,0.0222,-5.36,-1.214,-2.359,-1.396,-3.108,0,0,0,0,0,0,0,0,0,0,0,0,0,0,0,0,
431,-11.64,-0.0386,0.8648,2.217,4.447,-0.3824,-2.066,0.2662,-8.344,0.3752,0.3461,-4.063,0.249,-1.444,-1.557,-2.663,0,0,0,0,0,0,0,0,0,0,0,0,0,0,0,0,
432,-6.313,2.054,3.563,5.487,5.531,2.304,-1.692,-0.9853,-5.787,-1.136,1.859,-2.657,0.6033,-2.061,-1.058,-1.566,0,0,0,0,0,0,0,0,0,0,0,0,0,0,0,0,
433,-4.467,0.1872,1.341,1.373,4.223,0.2405,-4.833,-6.214,-4.669,-5.301,1.691,-3.494,-0.5467,-2.657,0.0948,-1.212,0,0,0,0,0,0,0,0,0,0,0,0,0,0,0,0,
434,-4.682,-2.742,-0.9743,-1.87,1.657,-1.437,-5.917,-5.128,-6.047,-3.98,3.467,-3.099,-0.4141,-1.212,2.654,-0.8562,0,0,0,0,0,0,0,0,0,0,0,0,0,0,0,0,
435,-4.761,-1.282,0.0333,0.9081,0.84,-0.1603,-2.949,-0.7753,-5.674,0.2214,4.803,-1.372,0.3266,0.0055,2.792,-0.4966,0,0,0,0,0,0,0,0,0,0,0,0,0,0,0,0,
436,-4.206,1.757,0.9961,2.286,2.451,1.281,-0.7481,-2.365,-3.816,0.4558,3.494,0.0891,1.782,2.441,2.231,1.617,0,0,0,0,0,0,0,0,0,0,0,0,0,0,0,0,
437,-1.741,3.286,0.806,-0.6358,5.203,2.313,-1.26,-4.666,-1.879,-0.0239,4.599,1.354,3.248,4.761,4.292,3.985,0,0,0,0,0,0,0,0,0,0,0,0,0,0,0,0,
438,-0.7673,2.994,-0.4601,-1.93,3.532,1.341,-2.716,-3.962,-2.562,-0.529,6.649,1.271,0.7314,1.214,3.271,2.589,0,0,0,0,0,0,0,0,0,0,0,0,0,0,0,0,
439,-1.02,0.2177,-2.208,-0.6768,-1.266,-1.282,-4.197,-5.686,-6.074,-2.984,4.388,0.332,-2.623,-2.531,-1.364,0.3234,0,0,0,0,0,0,0,0,0,0,0,0,0,0,0,0,
440,-0.9567,-1.129,-2.519,-0.3394,0.1962,-1.736,-4.013,-6.524,-6.362,-2.554,1.757,0.1837,-1.328,-0.304,-1.259,0.9808,0,0,0,0,0,0,0,0,0,0,0,0,0,0,0,0,
441,-3.589,1.421,-1.111,0.9184,6.245,-1.059,-1.119,-3.139,-3.047,-0.0214,3.315,0.4732,0.3865,1.603,2.952,2.583,0,0,0,0,0,0,0,0,0,0,0,0,0,0,0,0,
442,-4.832,2.682,1.237,3.987,8.731,-0.9893,1.014,-2.969,-1.534,-0.5886,5.605,1.033,-0.33,1.166,3.724,2.983,0,0,0,0,0,0,0,0,0,0,0,0,0,0,0,0,
443,-1.583,2.376,2.769,4.847,9.392,0.0996,0.4457,-4.388,-1.762,-0.9804,4.549,0.6427,0.4527,2.006,1.672,2.172,0,0,0,0,0,0,0,0,0,0,0,0,0,0,0,0,
444,-0.3172,4.946,2.483,4.456,11.13,1.186,0.451,-0.37,-2.547,0.4101,2.365,-0.9984,2.648,2.732,2.034,2.312,0,0,0,0,0,0,0,0,0,0,0,0,0,0,0,0,
445,-0.5497,7,2.585,5.322,10.92,0.9922,0.9807,1.71,-4.005,-0.1388,3.447,-0.5801,3.334,2.889,3.452,3.864,0,0,0,0,0,0,0,0,0,0,0,0,0,0,0,0,
446,0.4681,4.077,2.817,3.884,9.204,-0.1616,-1.592,-3.05,-5.067,-1.428,4.828,-0.4354,0.9675,2.568,2.054,2.327,0,0,0,0,0,0,0,0,0,0,0,0,0,0,0,0,
447,-2.369,-0.7297,0.9485,0.8602,9.669,-1.877,-4.644,-6.029,-7.202,-1.157,1.695,-4.285,-2.978,0.4173,0.4832,-1.199,0,0,0,0,0,0,0,0,0,0,0,0,0,0,0,0,
448,-6.617,-1.539,0.0435,2.717,11.02,-0.6035,-2.451,-3.065,-8.344,1.212,-0.6237,-4.906,-1.944,0.0026,2.038,-0.7279,0,0,0,0,0,0,0,0,0,0,0,0,0,0,0,0,
449,-4.038,3.858,3.133,8.322,11.88,4.343,3.12,1.864,-3.302,5.447,2.665,0.7243,3.363,2.085,4.386,0.7646,0,0,0,0,0,0,0,0,0,0,0,0,0,0,0,0,
450,3.662,9.242,7.528,11.12,16.16,7.882,5.913,3.419,2.631,6.585,6.702,4.5,4.429,1.584,6.119,0.0584,0,0,0,0,0,0,0,0,0,0,0,0,0,0,0,0,
451,9.012,8.445,10.01,10.01,22.67,9.394,5.053,0.3276,3.376,3.595,8.569,5.529,3.86,0.1748,8.306,1.939,0,0,0,0,0,0,0,0,0,0,0,0,0,0,0,0,
452,7.665,5.984,9.333,8.161,24.19,9.868,3.401,-0.5442,3.788,3.043,10.02,7.023,6.469,1.155,10.12,5.811,0,0,0,0,0,0,0,0,0,0,0,0,0,0,0,0,
453,2.563,5.799,6.617,7.452,21.86,6.813,2.079,2.061,5.507,4.62,11.46,6.278,6.205,1.196,10.22,6.761,0,0,0,0,0,0,0,0,0,0,0,0,0,0,0,0,
454,0.8075,5.091,5.355,7.112,21.46,3.342,1.231,-0.0068,5.074,4.066,11.8,3.984,3.493,0.3796,8.35,6.228,0,0,0,0,0,0,0,0,0,0,0,0,0,0,0,0,
455,2.002,4.311,5.168,5.165,21.73,3.212,0.4807,-4.829,4.518,3.921,9.431,3.174,4.396,1.402,5.836,6.016,0,0,0,0,0,0,0,0,0,0,0,0,0,0,0,0,
456,0.5256,4.189,2.225,1.769,19.43,1.326,-1.937,-4.925,4.465,4.127,5.306,1.559,4.68,1.534,4.614,4.653,0,0,0,0,0,0,0,0,0,0,0,0,0,0,0,0,
457,-3.596,2.072,-0.9968,0.0305,16,-2.633,-4.884,-3.974,1.975,1.355,2.833,-1.393,1.978,0.1006,5.009,3.035,0,0,0,0,0,0,0,0,0,0,0,0,0,0,0,0,
458,-5.907,-0.0457,0.8211,1.53,15.03,-1.355,-4.043,-4.524,-0.453,0.4339,3.095,-1.696,1.645,0.4962,6.762,2.827,0,0,0,0,0,0,0,0,0,0,0,0,0,0,0,0,
459,-4.177,0.5975,3.898,3.467,15.9,1.75,-1.088,-1.341,-0.9716,4.866,4.098,-0.9586,2.019,1.125,7.31,2.148,0,0,0,0,0,0,0,0,0,0,0,0,0,0,0,0,
460,-3.278,0.9081,2.671,3.923,14.72,-0.7144,-1.386,2.331,-3.006,7.237,2.5,-4.479,0.086,-0.9067,4.535,-0.2919,0,0,0,0,0,0,0,0,0,0,0,0,0,0,0,0,
461,-6.564,0.5367,1.227,5.303,13.27,-2.666,-1.755,0.3646,-5.055,4.622,-0.4622,-7.247,0.9101,-2.1,3.748,-1.504,0,0,0,0,0,0,0,0,0,0,0,0,0,0,0,0,
462,-5.434,2.509,3.18,7.516,14.27,0.9041,1.738,-0.9615,-4.231,3.616,-0.1196,-3.313,3.756,-0.1022,6.15,-0.9674,0,0,0,0,0,0,0,0,0,0,0,0,0,0,0,0,
463,1.305,3.641,5.182,7.626,14.44,3.218,3.906,2.301,-3.955,5.328,1.056,-0.5354,2.08,1.081,5.327,-1.488,0,0,0,0,0,0,0,0,0,0,0,0,0,0,0,0,
464,1.27,1.668,6.458,7.982,13.02,2.524,3.301,4.046,-3.608,6.515,0.5755,-1.697,0.3405,0.4638,4.591,-1.159,0,0,0,0,0,0,0,0,0,0,0,0,0,0,0,0,
465,-2.556,1.802,8.029,10.33,13.39,3.931,4.168,3.49,0.229,7.722,2.473,0.8745,4.07,1.131,7.586,1.104,0,0,0,0,0,0,0,0,0,0,0,0,0,0,0,0,
466,0.9223,4.72,8.533,10.42,16.2,6.833,5.063,2.892,2.534,7.951,5.214,4.155,6.828,2.026,7.298,1.415,0,0,0,0,0,0,0,0,0,0,0,0,0,0,0,0,
467,4.891,6.051,8.795,9.206,18.34,7.773,4.446,1.826,0.447,6.059,6.022,4.066,5.827,1.812,5.555,0.8033,0,0,0,0,0,0,0,0,0,0,0,0,0,0,0,0,
468,3.014,6.165,9.463,10.63,17.67,6.809,4.114,1.94,-0.2857,4.924,8.081,5.535,6.241,2.594,8.298,1.657,0,0,0,0,0,0,0,0,0,0,0,0,0,0,0,0,
469,1.923,6.198,8.859,10.76,17.59,5.952,3.33,1.37,1.53,4.747,9.323,5.93,7.013,2.926,8.994,0.9581,0,0,0,0,0,0,0,0,0,0,0,0,0,0,0,0,
470,2.386,4.772,7.448,8.043,17.95,5.012,1.791,-1.039,1.53,3.214,6.425,1.106,3.411,-1.136,4.478,-2.165,0,0,0,0,0,0,0,0,0,0,0,0,0,0,0,0,
471,-0.8167,1.202,6.251,7.765,14.6,2.206,0.3554,0.4743,-0.6069,0.6729,3.669,-3.513,-3.14,-7.305,0.5356,-5.501,0,0,0,0,0,0,0,0,0,0,0,0,0,0,0,0,
472,-4.963,-2.789,5.327,9.249,11.97,0.2798,-0.8329,3.634,-2.426,-1.06,3.039,-4.792,-6.63,-8.999,-1.181,-6.994,0,0,0,0,0,0,0,0,0,0,0,0,0,0,0,0,
473,-3.833,-3.134,4.382,8.463,11.39,1.241,-0.4816,2.181,-3.943,0.0285,2.218,-4.308,-4.817,-6.131,-1.498,-5.566,0,0,0,0,0,0,0,0,0,0,0,0,0,0,0,0,
474,-0.3291,-0.0638,3.479,7.715,8.38,1.528,1.349,1.266,-4.651,3.688,2.36,-2.917,-1.894,-4.178,-0.2976,-4.072,0,0,0,0,0,0,0,0,0,0,0,0,0,0,0,0,
475,-0.7324,2.502,5.592,9.598,8.775,2.745,3.141,4.079,-2.308,6.858,4.931,-1.509,0.0665,-3.073,1.492,-3.923,0,0,0,0,0,0,0,0,0,0,0,0,0,0,0,0,
476,-1.819,4.556,9.215,11.08,12.83,7.091,3.96,4.827,-0.1638,8.077,6.545,-0.4445,1.717,-0.8935,1.932,-3.497,0,0,0,0,0,0,0,0,0,0,0,0,0,0,0,0,
477,-0.3427,5.157,8.037,9.63,13.08,8.49,2.868,2.096,-1.956,7.422,4.94,0.0997,1.271,-0.4202,0.1746,-3.704,0,0,0,0,0,0,0,0,0,0,0,0,0,0,0,0,
478,-0.0526,3.138,5.242,7.564,13.28,6.19,1.265,-0.3054,-3.329,5.102,4.155,0.4806,0.1853,-0.6926,-0.0004,-3.285,0,0,0,0,0,0,0,0,0,0,0,0,0,0,0,0,
479,-0.8221,2.195,4.91,6.591,12.1,4.344,0.5334,-0.4698,-3.642,2.848,5.603,0.7124,0.5476,0.8839,2.501,-1.362,0,0,0,0,0,0,0,0,0,0,0,0,0,0,0,0,
480,-2.149,2.025,2.565,5.197,5.449,1.736,-0.9015,0.1945,-6.651,2.277,4.458,-1.38,-0.7431,0.6682,1.383,-2.309,0,0,0,0,0,0,0,0,0,0,0,0,0,0,0,0,
481,-5.615,-0.3931,0.0547,3.215,3.51,-0.3881,-3.296,-0.9865,-8.437,2.554,0.9154,-4.677,-3.356,-2.373,-2.942,-4.493,0,0,0,0,0,0,0,0,0,0,0,0,0,0,0,0,
482,-6.467,-3.4,0.4164,1.277,6.51,-0.4838,-6.128,-3.457,-7.231,2.001,-0.2077,-5.334,-4.319,-4.635,-3.791,-3.762,0,0,0,0,0,0,0,0,0,0,0,0,0,0,0,0,
483,-4.713,-5.662,-0.7699,-0.4285,5.709,-1.894,-8.518,-4.353,-6.387,1.129,0.9958,-4.374,-4.62,-5.576,-3.215,-3.927,0,0,0,0,0,0,0,0,0,0,0,0,0,0,0,0,
484,-6.458,-6.223,-1.11,0.2368,5.975,-2.98,-7.886,-5.132,-5.013,0.8076,1.877,-4.328,-4.327,-5.957,-5.268,-6.048,0,0,0,0,0,0,0,0,0,0,0,0,0,0,0,0,
485,-6.246,-4.061,2.757,3.45,9.518,-0.3996,-4.8,-7.369,-3.992,0.2899,2.293,-4.123,-2.719,-6.199,-6.626,-6.641,0,0,0,0,0,0,0,0,0,0,0,0,0,0,0,0,
486,0.604,-0.8272,6.114,6.488,11.48,3.608,-1.207,-5.279,-3.406,1.119,3.775,-2.213,-0.7291,-5.658,-5.231,-6.04,0,0,0,0,0,0,0,0,0,0,0,0,0,0,0,0,
487,3.942,2.024,8.573,8.767,12.95,6.373,1.725,1.379,-0.5457,3.547,5.174,-0.5669,0.4978,-2.948,-4.261,-5.208,0,0,0,0,0,0,0,0,0,0,0,0,0,0,0,0,
488,-0.6106,1.288,9.892,8.817,13.64,5.369,-0.0045,1.387,-1.001,2.349,2.506,-3.122,-1.56,-2.186,-5.801,-5.875,0,0,0,0,0,0,0,0,0,0,0,0,0,0,0,0,
489,-4.937,-3.861,6.643,5.556,11.91,0.9695,-4.993,-4.827,-5.578,-1.7,-1.714,-7.739,-5.501,-6.345,-7.764,-8.668,0,0,0,0,0,0,0,0,0,0,0,0,0,0,0,0,
490,-5.6,-6.081,4.225,3.849,10.19,-0.7159,-5.908,-5.992,-4.711,-2.172,-1.028,-7.487,-5.196,-8.532,-7.012,-8.184,0,0,0,0,0,0,0,0,0,0,0,0,0,0,0,0,
491,-3.922,-3.811,6.291,4.834,9.738,2.131,-3.702,-4.221,0.3527,-0.626,2.226,-2.862,-1.382,-5.146,-3.82,-3.809,0,0,0,0,0,0,0,0,0,0,0,0,0,0,0,0,
492,0.2269,-2.364,7.101,4.064,10.45,5.079,-2.315,-4.673,3.478,-0.054,3.377,-0.0822,0.1172,-2.578,-1.862,-2.107,0,0,0,0,0,0,0,0,0,0,0,0,0,0,0,0,
493,3.397,-1.137,7.362,4.116,11.69,6.336,-0.2703,-3.655,4.878,1.06,3.738,-0.3039,-0.8725,-4.154,-2.903,-3.043,0,0,0,0,0,0,0,0,0,0,0,0,0,0,0,0,
494,2.894,-0.3623,11.03,8.26,11.91,7.098,1.778,-1.629,4.285,1.234,4.797,0.2167,-0.4183,-5.367,-2.915,-1.997,0,0,0,0,0,0,0,0,0,0,0,0,0,0,0,0,
495,2.494,-1.114,13.32,11.43,10.97,7.496,2.58,0.0204,5.424,0.6437,7.401,3.569,2.793,-2.599,1.186,0.5542,0,0,0,0,0,0,0,0,0,0,0,0,0,0,0,0,
496,3.253,0.6287,10.46,10.2,9.451,6.531,2.728,1.575,9.131,1.59,10.05,6.225,4.807,0.407,4.144,1.384,0,0,0,0,0,0,0,0,0,0,0,0,0,0,0,0,
497,3.703,2.98,7.48,7.427,8.763,5.724,1.492,-0.4503,7.166,1.394,8.325,4.631,2.728,-0.3922,1.869,0.065,0,0,0,0,0,0,0,0,0,0,0,0,0,0,0,0,
498,5.194,2.251,8.855,7.212,9.498,7.251,1.432,-1.43,2.66,0.4132,4.827,2.095,0.7098,-1.052,-1.343,-0.5402,0,0,0,0,0,0,0,0,0,0,0,0,0,0,0,0,
499,4.022,1.556,10.59,9.157,8.039,6.624,2.884,2.681,3.074,0.8815,3.914,0.8658,1.058,0.6835,-2.545,0.2067,0,0,0,0,0,0,0,0,0,0,0,0,0,0,0,0,
500,-2.644,-0.2306,7.499,7.227,2.704,0.2204,-0.2395,0.9914,2.289,-1.266,2.127,-2.134,0.3046,0.3307,-3.254,-0.0677,0,0,0,0,0,0,0,0,0,0,0,0,0,0,0,0,
501,-7.612,-4.479,2.081,0.8963,-2.942,-5.759,-5.98,-6.228,-1.18,-4.832,-0.6278,-6.038,-1.678,-1.379,-4.219,-0.4591,0,0,0,0,0,0,0,0,0,0,0,0,0,0,0,0,
502,-8.199,-5.58,-0.9326,-2.096,-5.174,-6.299,-6.794,-5.744,-1.077,-3.984,0.2931,-6.891,-2.507,-0.3913,-4.742,-0.2807,0,0,0,0,0,0,0,0,0,0,0,0,0,0,0,0,
503,-7.127,-3.433,0.8751,1.23,-1.151,-2.761,-3.319,-1.228,1.629,-1.738,3.588,-4.6,-2.353,0.8657,-2.928,-1.67,0,0,0,0,0,0,0,0,0,0,0,0,0,0,0,0,
504,-2.535,-1.943,7.525,6.837,6.304,2.472,0.4972,0.0088,4.725,-1.065,6.368,-1.218,-1.521,-0.0392,0.4598,-2.126,0,0,0,0,0,0,0,0,0,0,0,0,0,0,0,0,
505,2.203,-0.3573,12.77,10.7,7.964,5.637,2.833,3.287,6.878,0.7271,7.737,0.9438,-0.1812,-0.7816,1.392,0.1278,0,0,0,0,0,0,0,0,0,0,0,0,0,0,0,0,
506,1.954,1.242,12.27,11.74,4.235,6.081,3.989,7.476,6.067,2.676,6.655,0.7626,0.7801,-0.3537,0.3153,0.7846,0,0,0,0,0,0,0,0,0,0,0,0,0,0,0,0,
507,0.8006,1.672,10.08,10.99,3.231,6.487,5.176,6.053,5.341,2.409,5.123,-0.5137,0.2277,-0.1752,-0.153,0.0578,0,0,0,0,0,0,0,0,0,0,0,0,0,0,0,0,
508,0.6776,1.615,7.872,9.136,2.05,5.813,5.242,2.506,5.255,0.9277,4.934,-2.021,-2.076,-0.2318,-0.7167,0.8569,0,0,0,0,0,0,0,0,0,0,0,0,0,0,0,0,
509,0.3854,1.502,6.047,8.212,-2.496,5.108,4.999,2.308,2.241,0.5931,4.827,-2.871,-2.892,0.8831,-0.5338,1.65,0,0,0,0,0,0,0,0,0,0,0,0,0,0,0,0,
510,1.835,1.399,7.654,9.575,-2.55,6.75,5.482,3.541,-0.1786,2.288,5.592,-2.197,-0.5047,2.772,1.425,3.109,0,0,0,0,0,0,0,0,0,0,0,0,0,0,0,0,
511,1.915,0.6236,9.197,9.588,1.467,6.299,3.599,2.765,1.366,2.797,6.759,-2.187,0.955,3.777,2.171,5.465,0,0,0,0,0,0,0,0,0,0,0,0,0,0,0,0,
512,-2.139,-0.2392,6.786,7.584,0.1105,3.396,1.751,1.665,2.007,0.8848,4.997,-3.621,0.0533,3.963,1.172,4.787,0,0,0,0,0,0,0,0,0,0,0,0,0,0,0,0,
513,-4.085,0.942,4.607,6.834,-4.761,3.886,3.959,2.678,0.2695,0.5729,3.256,-2.667,0.3988,3.682,1.976,2.848,0,0,0,0,0,0,0,0,0,0,0,0,0,0,0,0,
514,-0.2003,2.971,5.876,6.968,-4.426,6.968,6.041,3.274,1.169,1.518,6.493,1.55,2.309,2.897,4.666,3.323,0,0,0,0,0,0,0,0,0,0,0,0,0,0,0,0,
515,4.502,3.646,8.597,7.384,-0.2479,8.387,5.18,1.761,4.137,0.1567,9.936,3.471,2.56,3.002,5.492,2.874,0,0,0,0,0,0,0,0,0,0,0,0,0,0,0,0,
516,4.442,2.703,8.659,7.049,-0.8459,6.349,2.717,0.0991,3.5,-1.169,7.583,0.2236,0.8859,4.407,3.918,0.4251,0,0,0,0,0,0,0,0,0,0,0,0,0,0,0,0,
517,0.9557,1.383,6.699,5.376,-4.425,3.428,1.592,-0.4733,1.933,0.5683,4.195,-2.124,1.063,5.593,3.658,0.5814,0,0,0,0,0,0,0,0,0,0,0,0,0,0,0,0,
518,0.0883,3.2,8.762,6.883,-1.697,5.327,4.883,1.015,4.524,2.556,5.1,-0.1959,3.5,5.872,5.397,3.341,0,0,0,0,0,0,0,0,0,0,0,0,0,0,0,0,
519,1.491,5.959,10.88,9.041,1.457,7.249,5.859,2.491,4.44,1.589,5.858,-0.6231,3.377,5.017,5.448,3.855,0,0,0,0,0,0,0,0,0,0,0,0,0,0,0,0,
520,-0.2068,3.369,6.041,5.503,-3.111,2.129,0.2659,-0.3718,-0.1546,-0.4764,3.568,-3.731,1.208,3.689,3.627,1.677,0,0,0,0,0,0,0,0,0,0,0,0,0,0,0,0,
521,-2.853,-0.1115,2.355,2.979,-4.206,-0.8135,-1.403,-3.471,1.999,-0.5191,3.076,-2.259,1.691,3.955,2.945,1.31,0,0,0,0,0,0,0,0,0,0,0,0,0,0,0,0,
522,-1.652,1.544,4.12,5.376,1.708,3.348,2.235,-0.3693,8.09,0.6303,4.859,0.3641,3.035,5.005,2.671,3.407,0,0,0,0,0,0,0,0,0,0,0,0,0,0,0,0,
523,0.4221,3.478,3.701,6.062,2.186,5.155,2.141,3.776,7.008,1.121,4.417,-0.976,2.542,4.499,1.356,3.945,0,0,0,0,0,0,0,0,0,0,0,0,0,0,0,0,
524,0.4467,2.946,3.383,6.108,-0.4375,4.485,0.8396,2.383,3.555,2.025,2.697,-1.47,2.657,4.5,0.6983,3.016,0,0,0,0,0,0,0,0,0,0,0,0,0,0,0,0,
525,0.515,3.382,7.216,8.035,1.166,5.948,2.217,-0.2292,2.011,4.6,2.793,-0.1532,4.546,7.084,1.267,3.985,0,0,0,0,0,0,0,0,0,0,0,0,0,0,0,0,
526,0.4627,5.445,7.948,7.92,1.04,5.84,3.267,0.6928,0.792,7.322,5.058,1.304,6.762,9.833,2.628,5.771,0,0,0,0,0,0,0,0,0,0,0,0,0,0,0,0,
527,1.374,7.426,4.802,6.608,-0.9209,5.238,4.179,1.842,4.772,7.484,8.795,4.711,7.771,10.84,4.73,5.32,0,0,0,0,0,0,0,0,0,0,0,0,0,0,0,0,
528,5.521,7.178,4.515,6.298,0.4447,7.614,4.508,0.675,9.753,5.006,9.881,4.912,5.923,8.948,4.782,2.898,0,0,0,0,0,0,0,0,0,0,0,0,0,0,0,0,
529,5.509,4.357,5.898,5.699,1.892,8.548,3.028,-0.0757,6.559,2.944,6.064,-0.7409,2.27,3.939,1.892,0.4112,0,0,0,0,0,0,0,0,0,0,0,0,0,0,0,0,
530,-0.7354,2.939,6.28,6.311,2.209,7.199,3.508,1.436,2.814,3.434,3.711,-2.436,1.101,1.633,0.5144,-0.5799,0,0,0,0,0,0,0,0,0,0,0,0,0,0,0,0,
531,-0.5653,4.83,7.07,8.337,1.978,7.275,5.483,3.216,4.967,5.207,5.23,1.306,3.01,4.466,1.234,-0.2073,0,0,0,0,0,0,0,0,0,0,0,0,0,0,0,0,
532,4.17,5.893,6.405,7.796,-0.7287,6.893,4.234,1.662,6.667,5.389,4.663,1.729,2.846,5.117,0.2453,-0.9855,0,0,0,0,0,0,0,0,0,0,0,0,0,0,0,0,
533,1.467,3.907,3.894,5.195,-0.9054,5.756,2.212,-1.922,6.522,3.898,2.265,0.1401,-0.2343,2.744,-1.529,-3.157,0,0,0,0,0,0,0,0,0,0,0,0,0,0,0,0,
534,-1.151,2.314,3.374,4.057,1.748,6.542,2.413,-1.463,5.628,3.622,1.72,0.7137,-1.658,3.187,-1.897,-4.086,0,0,0,0,0,0,0,0,0,0,0,0,0,0,0,0,
535,1.713,2.097,3.766,3.121,-0.9786,5.902,1.931,1.52,2.202,3.761,0.2924,-0.6041,-2.489,3.44,-2.401,-4.172,0,0,0,0,0,0,0,0,0,0,0,0,0,0,0,0,
536,-0.0316,0.733,3.461,2.085,-3.494,2.87,1.217,0.8543,0.7929,1.368,-2.361,-3.671,-4.895,0.4779,-2.961,-4.384,0,0,0,0,0,0,0,0,0,0,0,0,0,0,0,0,
537,-3.458,-0.385,4.852,3.671,-0.3018,2.794,2.189,-1.434,4.093,-0.8961,-2.375,-3.193,-4.745,-0.606,-2.308,-2.931,0,0,0,0,0,0,0,0,0,0,0,0,0,0,0,0,
538,-0.6411,0.644,6.73,5.555,-0.8001,5.545,2.662,-1.442,6.355,-0.0483,-0.7927,-0.9752,-1.76,1.262,-2.029,-0.7343,0,0,0,0,0,0,0,0,0,0,0,0,0,0,0,0,
539,1.413,2.155,7.937,5.918,-3.191,7.804,3.326,-0.2305,6.095,1.206,0.1446,-1.052,-0.1571,2.702,-2.18,0.0257,0,0,0,0,0,0,0,0,0,0,0,0,0,0,0,0,
540,-0.317,3.337,8.526,6.24,-1.628,8.534,4.614,-0.0236,5.937,0.9545,0.8169,-2.017,0.1473,3.062,-1.19,0.3787,0,0,0,0,0,0,0,0,0,0,0,0,0,0,0,0,
541,-0.4742,3.633,6.704,5.087,-1.734,7.583,4.033,-0.3139,6.458,1.066,0.4267,-1.981,0.6237,2.716,-0.8758,0.6831,0,0,0,0,0,0,0,0,0,0,0,0,0,0,0,0,
542,0.2264,3.401,6.999,4.645,-0.662,8.235,4.496,1.22,8.386,1.813,-1.2,-1.197,1.367,2.101,-2.56,0.3971,0,0,0,0,0,0,0,0,0,0,0,0,0,0,0,0,
543,0.3663,3.89,9.05,4.932,1.042,9.06,5.207,0.0912,7.705,0.3026,-3.703,-1.733,0.6546,0.7798,-4.492,-0.2467,0,0,0,0,0,0,0,0,0,0,0,0,0,0,0,0,
544,0.7177,2.153,5.606,1.553,-3.137,5.512,2.114,-4.016,2.757,-2.52,-6.776,-4.332,-2.803,-1.087,-4.693,-0.978,0,0,0,0,0,0,0,0,0,0,0,0,0,0,0,0,
545,0.9242,-0.2174,6.918,4.167,-0.1627,6.024,3.824,0.4116,4.47,-0.8139,-5.255,-2.909,-3.325,-0.1006,-0.6999,0.8688,0,0,0,0,0,0,0,0,0,0,0,0,0,0,0,0,
546,3.527,3.589,15.55,12.54,8.531,13.3,11.18,5.928,13.66,4.056,1.915,4.239,1.685,3.124,4.903,5.027,0,0,0,0,0,0,0,0,0,0,0,0,0,0,0,0,
547,8.19,8.363,12.15,7.805,3.285,14.26,10.82,-0.4519,15.75,5.007,4.173,6.211,3.676,3.219,3.544,4.38,0,0,0,0,0,0,0,0,0,0,0,0,0,0,0,0,
548,7.939,6.472,5.829,2.617,-1.522,10.79,7.836,-1.134,11.12,3.179,-0.6868,0.119,-0.0949,0.0789,-3.428,-1.5,0,0,0,0,0,0,0,0,0,0,0,0,0,0,0,0,
549,2.67,3.199,14.7,14.44,6.491,11.57,11,8.562,10.48,2.246,-1.815,-3.299,-3.245,-2.603,-5.649,-4.144,0,0,0,0,0,0,0,0,0,0,0,0,0,0,0,0,
550,0.4796,2.19,19.63,19.12,6.667,9.89,10.01,7.188,11.71,1.035,1.099,-1.858,-3.727,-2.623,-2.648,-1.365,0,0,0,0,0,0,0,0,0,0,0,0,0,0,0,0,
551,2.063,1.344,12.31,9.538,0.3097,6.292,4.638,-0.0398,11.17,1.004,1.66,-0.835,-1.976,0.7533,-0.0898,2.785,0,0,0,0,0,0,0,0,0,0,0,0,0,0,0,0,
552,1.799,1.702,9.617,7.175,2.186,7.907,4.073,-0.1765,11.21,2.84,2.56,0.3712,0.576,3.459,1.783,5.363,0,0,0,0,0,0,0,0,0,0,0,0,0,0,0,0,
553,1.102,1.987,7.654,6.222,2.387,7.293,2.571,-1.945,8.963,1.882,3.324,0.9955,-0.0623,0.8177,2.317,3.968,0,0,0,0,0,0,0,0,0,0,0,0,0,0,0,0,
554,1.472,-0.3511,-0.9529,-2.273,-3.91,0.7725,-3.04,-4.847,3.19,-1.603,0.0487,-1.29,-2.367,-3.404,-0.3224,-0.0234,0,0,0,0,0,0,0,0,0,0,0,0,0,0,0,0,
555,-2.146,-2.149,-4.16,-4.589,-6.324,-1.534,-4.242,-2.094,1.954,-2.394,-1.398,-1.692,-2.184,-3.801,-2.731,-1.793,0,0,0,0,0,0,0,0,0,0,0,0,0,0,0,0,
556,-4.596,-0.3989,1.955,1.786,-2.904,3.617,0.6752,1.46,6.391,-1.05,1.394,1.872,-0.9792,-2.241,-2.163,-1.366,0,0,0,0,0,0,0,0,0,0,0,0,0,0,0,0,
557,1.299,2.202,5.792,5.517,-0.8073,7.594,4.025,2.624,7.329,-2.171,1.697,2.638,-1.051,-2.492,-1.849,-1.779,0,0,0,0,0,0,0,0,0,0,0,0,0,0,0,0,
558,3.102,0.8852,2.439,2.721,-4.536,5.031,0.9266,0.6931,4.876,-5.543,-0.2413,-1.115,-2.459,-4.263,-2.985,-2.298,0,0,0,0,0,0,0,0,0,0,0,0,0,0,0,0,
559,-3.407,-2.722,1.255,0.1203,-6.753,3.096,-1.349,-2.438,5.784,-6.464,-0.4332,-2.348,-3.042,-4.44,-2.025,-1.216,0,0,0,0,0,0,0,0,0,0,0,0,0,0,0,0,
560,-2.699,-1.562,5.907,3.742,-1.662,7.296,4.012,-0.7631,7.588,-4.782,-0.7425,0.4336,-0.404,-2.8,0.255,0.0284,0,0,0,0,0,0,0,0,0,0,0,0,0,0,0,0,
561,2.823,1.979,5.851,5.734,0.895,8.792,6.515,1.67,6.769,-4.981,-1.908,0.8256,1.406,-3.191,-0.1592,-0.5646,0,0,0,0,0,0,0,0,0,0,0,0,0,0,0,0,
562,2.352,0.7649,1.154,1.253,-1.21,4.104,0.6315,-0.1671,6.784,-5.548,-0.8385,-1.373,-0.589,-4.739,-1.745,-2.037,0,0,0,0,0,0,0,0,0,0,0,0,0,0,0,0,
563,2.623,-0.7668,2.35,1.109,1.371,3.125,-1.14,-0.3724,9.091,-3.51,2.293,-1.151,-1.818,-4.046,-1.866,-2.423,0,0,0,0,0,0,0,0,0,0,0,0,0,0,0,0,
564,4.697,0.141,5.976,5.394,3.972,6.531,2.189,0.7945,10.36,-3.649,2.637,-1.011,-2.341,-4.507,-2.144,-2.402,0,0,0,0,0,0,0,0,0,0,0,0,0,0,0,0,
565,2.976,-2.622,5.29,4.124,0.3145,6.234,0.7064,-1.066,8.104,-6.154,-0.9529,-4.265,-4.598,-6.149,-3.49,-3.349,0,0,0,0,0,0,0,0,0,0,0,0,0,0,0,0,
566,1.557,-5.979,3.697,1.389,-2.251,2.738,-2.511,-1.549,4.486,-4.727,-3.423,-7.145,-4.78,-3.615,-5.151,-4.389,0,0,0,0,0,0,0,0,0,0,0,0,0,0,0,0,
567,-0.7547,-5.029,3.091,1.45,-2.388,0.4448,-3.894,-1.007,3.564,-3.134,-3.867,-8.44,-3.635,-1.403,-6.888,-4.731,0,0,0,0,0,0,0,0,0,0,0,0,0,0,0,0,
568,-6.362,-5.247,2.504,-0.4966,-4.809,-0.5334,-6.318,-4.375,4.499,-6.384,-4.8,-9.168,-4.75,-3.689,-7.271,-5.067,0,0,0,0,0,0,0,0,0,0,0,0,0,0,0,0,
569,-6.838,-6.223,2.168,-1.754,-5.763,-1.089,-5.933,-5.868,4.258,-7.899,-3.819,-6.756,-4.108,-3.646,-4.825,-5.12,0,0,0,0,0,0,0,0,0,0,0,0,0,0,0,0,
570,-2.103,-3.16,1.733,0.9191,-3.548,-0.7705,-1.74,-1.389,3.674,-5.219,-1.187,-2.57,-0.9598,-1.164,-1.608,-4.053,0,0,0,0,0,0,0,0,0,0,0,0,0,0,0,0,
571,-0.0127,-0.598,2.729,2.515,-2.344,1.544,0.2852,2.016,4.069,-4.18,-1.191,-0.9142,-0.3667,-1.868,-0.8074,-3.064,0,0,0,0,0,0,0,0,0,0,0,0,0,0,0,0,
572,1.761,-0.3468,6,3.34,-0.6795,5.175,0.9492,1.567,5.405,-4.671,-1.699,-0.4633,-0.8414,-2.918,-1.312,-3.459,0,0,0,0,0,0,0,0,0,0,0,0,0,0,0,0,
573,4.872,1.206,7.64,5.374,2.372,6.292,1.272,0.2753,7.962,-3.389,0.3216,0.6979,0.3403,-2.422,-0.5864,-3.723,0,0,0,0,0,0,0,0,0,0,0,0,0,0,0,0,
574,2.97,1.054,5.147,3.272,0.5289,2.641,-2.283,-1.532,8.983,-2.216,1.991,0.3681,-0.0815,-3.006,-0.3773,-2.864,0,0,0,0,0,0,0,0,0,0,0,0,0,0,0,0,
575,-1.776,-2.184,1.986,-1.121,-5.576,-1.672,-5.587,-2.359,5.461,-4.022,0.5406,-2.487,-2.875,-4.732,-3.145,-3.724,0,0,0,0,0,0,0,0,0,0,0,0,0,0,0,0,
576,-1.82,-3.739,2.192,0.2449,-6.109,-1.41,-3.731,-1.104,2.314,-6.963,-2.863,-5.285,-4.5,-7.431,-6.815,-6.708,0,0,0,0,0,0,0,0,0,0,0,0,0,0,0,0,
577,-0.9845,-3.029,4.094,3.741,-1.626,1.364,-1.316,0.1221,4.765,-5.989,-2.729,-4.694,-3.471,-7.431,-6.335,-6.258,0,0,0,0,0,0,0,0,0,0,0,0,0,0,0,0,
578,-2.567,-1.266,4.28,3.57,-2.129,2.184,-1.212,1.502,7.645,-1.522,2.5,-1.372,-1.183,-2.046,-1.565,-2.385,0,0,0,0,0,0,0,0,0,0,0,0,0,0,0,0,
579,-0.9071,0.7119,3.733,3.219,-6.131,1.689,-1.07,1.798,5.851,-0.3429,4.359,-0.2558,-0.1993,-0.166,0.2247,-2.36,0,0,0,0,0,0,0,0,0,0,0,0,0,0,0,0,
580,0.7025,0.1741,3.676,3.745,-6.024,0.9414,-0.5695,-0.7875,3.728,-2.252,0.9591,-1.966,-0.9618,-4.184,-2.196,-4.983,0,0,0,0,0,0,0,0,0,0,0,0,0,0,0,0,
581,-1.817,-0.2257,3.4,3.225,-3.748,0.4661,-0.091,-0.5605,5.608,-1.1,0.3533,-1.786,-1.216,-4.597,-2.283,-4.567,0,0,0,0,0,0,0,0,0,0,0,0,0,0,0,0,
582,-1.033,1.696,3.134,2.812,-3.467,1.248,-0.5005,3.061,9.545,0.921,2.274,-0.0101,-0.5681,-3.446,-0.5698,-3.771,0,0,0,0,0,0,0,0,0,0,0,0,0,0,0,0,
583,1.069,1.05,2.542,1.44,-5.049,1.077,-2.534,2.375,12.46,0.134,3.404,0.7916,0.7143,-5.431,0.2332,-3.595,0,0,0,0,0,0,0,0,0,0,0,0,0,0,0,0,
584,0.7171,0.1244,2.327,-0.9095,-5.416,1.361,-3.251,-0.8224,14.22,-0.3544,5.207,2.737,2.203,-5.416,1.192,-2.098,0,0,0,0,0,0,0,0,0,0,0,0,0,0,0,0,
585,4.322,2.29,3.405,-0.8853,-2.512,3.751,-2.817,-1.761,15.59,-1.337,5.091,4.017,0.7098,-5.156,-0.2653,-2.876,0,0,0,0,0,0,0,0,0,0,0,0,0,0,0,0,
586,4.101,0.4248,2.997,0.6274,-2.07,1.078,-4.332,-1.766,15.49,-3.631,3.44,1.365,-2.034,-7.013,-2.318,-4.17,0,0,0,0,0,0,0,0,0,0,0,0,0,0,0,0,
587,-2.001,-3.078,2.168,2.246,-3.9,-2.804,-3.95,0.4468,14.31,-1.75,4.68,0.5888,-0.4424,-5.62,0.1293,-1.235,0,0,0,0,0,0,0,0,0,0,0,0,0,0,0,0,
588,3.879,0.441,4.263,4.251,0.4934,2.874,-0.1747,2.623,14.83,1.72,5.206,3.723,2.659,-3.547,2.331,1.251,0,0,0,0,0,0,0,0,0,0,0,0,0,0,0,0,
589,10.84,4.218,5.429,3.913,3.463,6.754,0.4199,0.2429,16.51,0.2265,4.38,4.275,3.035,-4.773,2.156,1.553,0,0,0,0,0,0,0,0,0,0,0,0,0,0,0,0,
590,0.4258,2.416,4.329,2.274,-2.897,0.8331,-1.729,-0.9748,16.02,-2.775,6.729,2.898,2.394,-6.044,3.349,2.486,0,0,0,0,0,0,0,0,0,0,0,0,0,0,0,0,
591,-6.004,0.6741,4.702,3.597,-6.129,-0.6953,-0.8708,2.431,14.42,-3.598,7.665,3.512,1.102,-6.969,2.816,1.684,0,0,0,0,0,0,0,0,0,0,0,0,0,0,0,0,
592,1.572,1.248,5.138,5.957,-3.414,3.195,1.835,4.947,15.42,-2.459,4.748,4.171,0.4131,-6.525,1.19,1.583,0,0,0,0,0,0,0,0,0,0,0,0,0,0,0,0,
593,3.125,2.396,3.631,5.54,-5.106,1.571,1.706,3.97,16.44,-0.3924,2.793,3.604,2.264,-3.359,2.787,5.349,0,0,0,0,0,0,0,0,0,0,0,0,0,0,0,0,
594,-1.911,1.597,0.3702,1.749,-8.854,-2.902,-2.845,0.5918,14.01,-1.211,0.6929,2.185,3.146,-1.648,2.414,6.67,0,0,0,0,0,0,0,0,0,0,0,0,0,0,0,0,
595,-2.952,-1.38,-2.6,-1.827,-8.529,-3.87,-6.199,-1.201,12.93,-2.906,-2.127,0.1261,1.523,-1.976,-1.48,4.144,0,0,0,0,0,0,0,0,0,0,0,0,0,0,0,0,
596,-2.142,-2.136,-0.2852,-0.3169,-6.368,-1.821,-3.754,1.165,12.8,-2.304,-3.002,-1.694,-0.8472,-2.973,-3.15,1.842,0,0,0,0,0,0,0,0,0,0,0,0,0,0,0,0,
597,-1.388,-2.689,2.792,1.101,-6.047,-1.758,-3.498,2.094,7.757,-4.38,-3.452,-3.324,-3.661,-5.057,-2.761,-0.2664,0,0,0,0,0,0,0,0,0,0,0,0,0,0,0,0,
598,-1.534,-6.064,-1.38,-3.929,-7.71,-5.982,-8.994,-1.111,5.739,-6.988,-2.78,-3.323,-3.598,-4.659,-1.189,-0.0228,0,0,0,0,0,0,0,0,0,0,0,0,0,0,0,0,
599,-4.399,-6.475,-5.198,-7.777,-7.864,-7.947,-11.08,-3.806,10.94,-5.395,-0.9913,-1.261,-0.6783,-3.336,0.8879,1.873,0,0,0,0,0,0,0,0,0,0,0,0,0,0,0,0,
600,-6.502,-4.063,-1.405,-4.814,-5.194,-4.749,-8.503,-2.891,11.86,-5.464,-2.665,-0.7008,-0.7442,-5.726,-0.1248,0.2252,0,0,0,0,0,0,0,0,0,0,0,0,0,0,0,0,
601,-4.842,-3.005,3.755,-0.1965,-1.91,-1.281,-5.426,1.786,9.99,-6.164,-4.893,-0.923,-1.524,-6.08,-1.299,-1.393,0,0,0,0,0,0,0,0,0,0,0,0,0,0,0,0,
602,-1.701,-0.992,5.999,2.718,0.6727,0.662,-1.498,5.306,12.82,-3.23,-3.073,0.4418,0.4256,-2.932,-0.1135,-0.2814,0,0,0,0,0,0,0,0,0,0,0,0,0,0,0,0,
603,-0.5567,0.0261,5.972,3.194,0.5646,0.6537,-0.0463,4.06,14,-3.14,-1.284,0.4159,0.0278,-3.253,-1.136,-1.68,0,0,0,0,0,0,0,0,0,0,0,0,0,0,0,0,
604,-1.569,-1.788,4.665,2.688,-1.921,0.136,-1.514,3.499,13.53,-5.375,-1.84,-0.6681,-2.057,-4.587,-2.76,-3.674,0,0,0,0,0,0,0,0,0,0,0,0,0,0,0,0,
605,-0.8829,-1.001,5.334,4.353,-0.9751,3.4,-0.0694,4.21,16.87,-4.372,-2.477,0.8787,-1.054,-3.462,-1.067,-2.328,0,0,0,0,0,0,0,0,0,0,0,0,0,0,0,0,
606,3.12,1.543,8.833,6.134,4.323,7.904,3.115,2.198,19.56,-4.354,-2.063,3.211,-0.5295,-3.919,0.3049,-1.753,0,0,0,0,0,0,0,0,0,0,0,0,0,0,0,0,
607,5.599,0.5145,10.18,5.344,5.724,7.248,2.616,0.516,18.17,-6.902,-1.337,2.64,-3.138,-5.749,-1.15,-3.754,0,0,0,0,0,0,0,0,0,0,0,0,0,0,0,0,
608,3.035,-2.886,6.316,2.949,1.422,2.244,-1.273,-0.9909,15.13,-7.642,-2.566,0.3063,-4.295,-5.623,-2.821,-4.668,0,0,0,0,0,0,0,0,0,0,0,0,0,0,0,0,
609,0.8785,-3.259,4.247,1.584,1.931,0.8707,-2.295,-2.711,15,-4.854,-3.751,1.224,-0.9067,-2.661,-1.444,-2.388,0,0,0,0,0,0,0,0,0,0,0,0,0,0,0,0,
610,4.67,1.649,8.926,4.401,8.354,6.591,2.511,1.007,18.72,-0.6276,-1.574,5.371,3.223,0.9839,1.47,-0.4239,0,0,0,0,0,0,0,0,0,0,0,0,0,0,0,0,
611,9.671,4.466,10.05,6.611,8.973,9.881,4.351,4.462,18.71,-0.5524,0.0023,5.718,2.223,0.2806,0.6638,-3.333,0,0,0,0,0,0,0,0,0,0,0,0,0,0,0,0,
612,8.903,0.0296,3.412,2.269,4.679,4.416,-0.6903,1.092,14,-3.519,-1.203,1.938,-2.029,-3.262,-1.599,-6.62,0,0,0,0,0,0,0,0,0,0,0,0,0,0,0,0,
613,2.939,-2.834,0.0129,-1.612,2.939,-1.505,-2.885,0.0156,11.68,-2.73,-1.831,0.5411,-2.897,-3.8,-0.5148,-4.729,0,0,0,0,0,0,0,0,0,0,0,0,0,0,0,0,
614,-2.122,-0.1444,-0.3957,-1.69,0.0008,-2.825,-1.206,2.195,10.89,-1.476,-1.688,1.706,-0.4549,-2.874,0.8452,-2.056,0,0,0,0,0,0,0,0,0,0,0,0,0,0,0,0,
615,-1.325,1.248,-3.324,-3.683,-2.648,-1.937,-1.361,0.2036,9.581,-3.508,-2.137,1.976,0.8179,-3.101,0.4442,-2.074,0,0,0,0,0,0,0,0,0,0,0,0,0,0,0,0,
616,1.877,0.4068,-2.127,-3.934,0.1132,0.3998,-0.7871,-0.4769,9.678,-4.542,-3.777,0.5438,-0.9119,-4.161,-0.64,-2.667,0,0,0,0,0,0,0,0,0,0,0,0,0,0,0,0,
617,0.5087,-0.8835,1.739,-0.1767,0.3605,0.6732,-0.1862,2.282,8.528,-5.243,-5.654,-1.331,-3.171,-5.515,-1.83,-2.144,0,0,0,0,0,0,0,0,0,0,0,0,0,0,0,0,
618,-2.551,-2.014,0.8644,0.6714,-2.706,-1.012,-0.9335,1.61,5.29,-6.304,-4.621,-0.7257,-1.411,-3.425,-0.6187,0.7406,0,0,0,0,0,0,0,0,0,0,0,0,0,0,0,0,
619,-0.3293,0.5169,1.214,0.2751,-0.2562,1.651,1.581,0.1852,5.671,-3.961,-2.469,2.022,2.174,0.8795,1.195,3.189,0,0,0,0,0,0,0,0,0,0,0,0,0,0,0,0,
620,3.317,3.487,3.245,1.294,1.484,3.326,2.358,1.11,8.233,-1.732,-3.611,2.362,1.14,0.4947,-0.2454,0.9215,0,0,0,0,0,0,0,0,0,0,0,0,0,0,0,0,
621,0.954,1.294,-0.4731,-0.9166,-1.952,-2.002,-2.105,0.7193,4.929,-2.447,-6.151,-0.221,-1.981,-2.449,-2.165,-2.603,0,0,0,0,0,0,0,0,0,0,0,0,0,0,0,0,
622,-2.013,-0.4514,-2.478,-2.12,-0.6424,-3.096,-1.136,0.4313,3.279,-1.728,-5.5,-0.9254,-1.992,-3.49,-2.383,-2.746,0,0,0,0,0,0,0,0,0,0,0,0,0,0,0,0,
623,2.04,1.468,2.246,1.706,3.475,2.657,3.571,1.484,10.51,-1.246,-2.362,1.035,-1.595,-4.717,-2.094,-1.175,0,0,0,0,0,0,0,0,0,0,0,0,0,0,0,0,
624,4.441,1.366,3.244,2.238,3.268,2.826,1.462,1.404,5.137,-3.299,-3.056,0.5831,-2.334,-4.758,-1.623,0.1499,0,0,0,0,0,0,0,0,0,0,0,0,0,0,0,0,
625,-0.8556,0.6839,0.4023,-0.6426,4.254,-0.1008,-0.7473,2.195,-16.54,-2.797,-6.97,-1.435,-1.319,-1.978,-1.613,2.276,0,0,0,0,0,0,0,0,0,0,0,0,0,0,0,0,
626,-2.573,2.321,0.8847,0.2797,5.218,1.585,1.586,3.733,-21.41,-1.64,-5.482,-0.1865,-0.3768,-1.301,-1.623,4.802,0,0,0,0,0,0,0,0,0,0,0,0,0,0,0,0,
627,0.6291,0.7093,0.2807,0.5471,0.9804,1.891,0.5674,1.467,-10.67,-4.993,-2.347,0.3048,-2.425,-3.512,-1.304,4.62,0,0,0,0,0,0,0,0,0,0,0,0,0,0,0,0,
628,-0.6982,-2.662,-2.054,-2.793,0.2736,0.7275,-1.349,-2.237,-10.81,-6.267,-4.654,-1.42,-3.04,-2.895,-0.4595,2.953,0,0,0,0,0,0,0,0,0,0,0,0,0,0,0,0,
629,-1.79,-0.0649,-0.0452,-3.007,5.236,3.734,1.048,-1.713,-12.61,-1.498,-4.287,1.308,1.205,1.115,3.135,4.684,0,0,0,0,0,0,0,0,0,0,0,0,0,0,0,0,
630,1.839,3.988,1.783,-0.6459,5.282,5.643,1.863,1.191,-7.054,0.715,0.1451,5.138,4.296,2.307,7.067,7.619,0,0,0,0,0,0,0,0,0,0,0,0,0,0,0,0,
631,4.163,2.393,0.1994,-0.2415,2.542,4.976,0.1332,1.364,-5.662,-3.085,0.849,4.781,2.182,-0.909,7.349,7.822,0,0,0,0,0,0,0,0,0,0,0,0,0,0,0,0,
632,5.403,-0.1993,2.002,0.9016,5.376,7.286,1.16,-0.4676,-4.731,-6.215,1.482,5.002,-0.0144,-3.082,6.368,7.43,0,0,0,0,0,0,0,0,0,0,0,0,0,0,0,0,
633,6.559,0.2582,4.749,3.01,8.009,8.211,2.823,0.0873,-2.12,-5.283,2.651,4.729,-0.059,-3.145,4.998,5.962,0,0,0,0,0,0,0,0,0,0,0,0,0,0,0,0,
634,4.593,0.4777,1.501,2.424,4.75,4.233,1.589,2.199,-5.01,-3.731,-0.5535,1.045,-0.8569,-4.095,2.515,2.943,0,0,0,0,0,0,0,0,0,0,0,0,0,0,0,0,
635,2.001,-0.6861,-1.602,0.6965,3.42,1.964,-0.377,1.078,-5.715,-4.596,-1.71,-0.0599,-1.438,-4.434,2.425,3.455,0,0,0,0,0,0,0,0,0,0,0,0,0,0,0,0,
636,0.8185,-1.48,0.2165,-0.0929,7.795,2.685,-0.7116,-1.875,-1.024,-5.911,1.874,1.778,-0.7822,-3.166,4.875,6.513,0,0,0,0,0,0,0,0,0,0,0,0,0,0,0,0,
637,0.6475,-1.301,2.088,0.5175,9.998,3.333,1.343,-0.4969,-0.1262,-4.917,3.556,2.009,-1.216,-2.283,5.953,6.197,0,0,0,0,0,0,0,0,0,0,0,0,0,0,0,0,
638,2.694,-0.4286,3.108,3.647,8.406,5.261,4.396,3.502,-1.892,-3.795,3.429,2.216,-2.434,-1.79,5.034,3.321,0,0,0,0,0,0,0,0,0,0,0,0,0,0,0,0,
639,4.343,-0.5857,3.55,4.929,9.462,6.965,4.509,2.924,-2.189,-4.766,3.755,3.217,-2.501,-1.685,4.204,1.88,0,0,0,0,0,0,0,0,0,0,0,0,0,0,0,0,
640,4.062,-1.544,2.679,2.214,12.81,6.207,2.397,0.4161,-2.261,-4.678,3.163,3.013,-1.651,-2.119,4.152,2.336,0,0,0,0,0,0,0,0,0,0,0,0,0,0,0,0,
641,4.357,-0.3115,4.194,2.504,13.25,5.396,2.002,1.984,-2.753,-2.491,0.8719,0.9374,-1.36,-2.432,2.465,1.461,0,0,0,0,0,0,0,0,0,0,0,0,0,0,0,0,
642,2.598,0.6323,4.826,4.267,9.952,3.587,1.457,2.988,-6.132,-2.369,-2.451,-2.301,-2.491,-3.166,-0.7173,-2.242,0,0,0,0,0,0,0,0,0,0,0,0,0,0,0,0,
643,-1.92,-2.046,-0.6117,0.731,6.182,-0.1388,-0.3561,0.8053,-10.86,-3.993,-3.21,-3.296,-3.174,-3.321,-0.894,-4.548,0,0,0,0,0,0,0,0,0,0,0,0,0,0,0,0,
644,-1.855,-2.955,-3.112,-1.813,6.023,-0.5175,0.096,0.1685,-11.12,-3.753,-0.7476,-0.9762,-1.361,-1.812,1.441,-3.247,0,0,0,0,0,0,0,0,0,0,0,0,0,0,0,0,
645,2.933,0.3105,0.8751,0.2129,9.28,2.588,1.435,0.2402,-8.415,-2.985,0.5647,1.038,1.152,-0.5295,2.846,-1.262,0,0,0,0,0,0,0,0,0,0,0,0,0,0,0,0,
646,5.051,1.748,2.082,0.3249,10.71,3.916,1.349,0.053,-6.273,-2.843,1.041,2.139,1.951,-0.0975,4.237,0.0224,0,0,0,0,0,0,0,0,0,0,0,0,0,0,0,0,
647,5.555,0.9328,1.653,-0.0448,8.94,4.212,2.113,1.601,-5.648,-1.92,2.044,3.801,1.663,-0.2934,5.722,1.054,0,0,0,0,0,0,0,0,0,0,0,0,0,0,0,0,
648,8.463,1.983,3.934,2.091,8.837,6.063,3.336,2,-6.648,-1.195,2.241,5.281,2.333,-0.9025,6.602,2.333,0,0,0,0,0,0,0,0,0,0,0,0,0,0,0,0,
649,9.643,3.886,4.571,2.844,11.9,8.279,4.111,1.123,-4.676,-0.6997,3.454,5.958,3.78,0.1405,7.533,3.231,0,0,0,0,0,0,0,0,0,0,0,0,0,0,0,0,
650,7.625,5.153,4.8,2.963,14.13,9.84,6.168,1.866,-0.3706,0.5937,4.842,5.99,3.834,2.17,6.66,2.473,0,0,0,0,0,0,0,0,0,0,0,0,0,0,0,0,
651,8.283,6.692,7.57,4.599,14.18,10.55,8.126,2.131,-0.2532,1.16,4.848,7.27,3.541,2.969,5.772,3.126,0,0,0,0,0,0,0,0,0,0,0,0,0,0,0,0,
652,11.52,7.488,8.351,4.745,13.39,10.55,7.914,0.8268,-0.2369,0.691,7.805,10.86,5.26,3.721,9.392,6.784,0,0,0,0,0,0,0,0,0,0,0,0,0,0,0,0,
653,12.47,6.534,7,3.739,11.67,10.85,6.438,-0.627,2.675,0.0283,11.06,12.36,6.886,4.85,12.18,8.139,0,0,0,0,0,0,0,0,0,0,0,0,0,0,0,0,
654,11.77,5.577,6.738,4.144,9.963,11.32,5.348,-0.7411,1.899,-0.5257,8.553,9.753,6.245,5.03,9.096,6.088,0,0,0,0,0,0,0,0,0,0,0,0,0,0,0,0,
655,10.55,5.664,5.069,3.884,9.372,10.94,5.712,1.381,-0.2711,0.1565,5.607,7.642,4.787,4.559,6.379,4.6,0,0,0,0,0,0,0,0,0,0,0,0,0,0,0,0,
656,8.521,5.537,2.011,2.125,9.13,9.461,5.446,2.022,0.2286,0.4241,5.383,7.516,3.498,3.987,6.331,3.336,0,0,0,0,0,0,0,0,0,0,0,0,0,0,0,0,
657,8.255,3.677,1.115,1.048,9.261,6.582,1.829,-0.7413,-1.826,-2.38,3.391,6.685,1.512,2.73,4.82,1.504,0,0,0,0,0,0,0,0,0,0,0,0,0,0,0,0,
658,7.952,-0.2184,-0.1445,-1.04,8.383,2.933,-2.368,-3.828,-4.848,-5.787,1.353,4.926,-0.9961,0.8574,3.258,1.208,0,0,0,0,0,0,0,0,0,0,0,0,0,0,0,0,
659,4.348,-2.475,-2.514,-3.921,7.152,2.291,-2.364,-4.916,-3.329,-6.315,2.394,3.993,-1.057,0.4904,3.071,2.446,0,0,0,0,0,0,0,0,0,0,0,0,0,0,0,0,
660,2.947,0.8371,-0.486,-2.033,10.12,5.869,2.038,-1.485,-1.836,-4.452,3.161,3.704,1.624,1.375,1.666,2.336,0,0,0,0,0,0,0,0,0,0,0,0,0,0,0,0,
661,5.514,4.957,2.399,1.644,12.15,7.854,6.049,3,-4.468,-3.009,0.5348,1.648,1.675,-0.1462,-0.627,-0.915,0,0,0,0,0,0,0,0,0,0,0,0,0,0,0,0,
662,5.101,4.147,0.1069,0.4658,7.769,6.023,5.717,1.495,-6.867,-3.615,-3.538,-1.473,-1.499,-2.329,-1.997,-4.46,0,0,0,0,0,0,0,0,0,0,0,0,0,0,0,0,
663,2.346,1.824,0.1751,-0.1739,6.214,5.617,3.442,-1.385,-5.529,-4.734,-4.29,-1.637,-2.715,-0.9988,-1.826,-3.997,0,0,0,0,0,0,0,0,0,0,0,0,0,0,0,0,
664,2.149,0.7105,5.115,2.645,8.905,6.792,2.631,-0.9461,-3.002,-4.677,-1.286,0.7285,-2.142,1.035,0.667,-0.7602,0,0,0,0,0,0,0,0,0,0,0,0,0,0,0,0,
665,3.116,-0.1833,5.953,2.366,7.787,6.203,2.625,-0.8114,-1.853,-3.567,1.047,2.985,-1.228,1.693,4.058,1.385,0,0,0,0,0,0,0,0,0,0,0,0,0,0,0,0,
666,4.412,1.355,3.594,0.5949,6.118,5.72,3.09,-0.0842,-1.353,-2.215,2.044,5.537,1.835,3.51,5.194,2.678,0,0,0,0,0,0,0,0,0,0,0,0,0,0,0,0,
667,6.635,5.008,2.585,1.83,5.049,6.241,4.593,0.9301,-2.078,-1.626,3.7,7.895,5.552,5.742,4.709,4.76,0,0,0,0,0,0,0,0,0,0,0,0,0,0,0,0,
668,8.368,8.211,2.025,3.616,2.689,7.425,7.082,-0.1072,-3.337,-0.2908,5.494,9.9,8.219,6.803,6.262,6.431,0,0,0,0,0,0,0,0,0,0,0,0,0,0,0,0,
669,9.813,11.54,3.635,4.98,3.792,9.965,9.643,0.4122,-2.817,2.614,5.565,11.43,9.324,7.184,8.12,5.596,0,0,0,0,0,0,0,0,0,0,0,0,0,0,0,0,
670,10.17,11.45,3.634,3.713,2.595,9.511,8.646,0.1112,-5.138,2.948,1.767,8.569,6.414,6.267,5.858,2.805,0,0,0,0,0,0,0,0,0,0,0,0,0,0,0,0,
671,7.622,6.7,-1.431,-1.038,-3.568,5.94,5.272,-3.354,-10.33,1.48,-2.563,4.739,4.222,5.873,4.348,1.961,0,0,0,0,0,0,0,0,0,0,0,0,0,0,0,0,
672,5.598,7.228,-2.143,-0.8188,-2.014,6.653,6.598,-0.7735,-8.156,3.859,-0.9402,8.197,8.644,8.25,8.119,4.247,0,0,0,0,0,0,0,0,0,0,0,0,0,0,0,0,
673,6.365,13.13,1.188,3.405,2.55,8.856,9.482,6.237,-2.002,6.418,2.486,12.57,11.06,9.035,9.949,4.742,0,0,0,0,0,0,0,0,0,0,0,0,0,0,0,0,
674,7.176,11.95,-0.3452,1.373,-0.2807,7.636,7.142,5.432,-1.861,3.747,1.954,10.91,5.778,5.998,7.506,1.962,0,0,0,0,0,0,0,0,0,0,0,0,0,0,0,0,
675,8.707,6.392,-0.2666,-1.165,-0.3343,9.102,5.777,0.5514,-1.583,0.5051,1.857,10.24,2.197,4.097,5.98,0.1924,0,0,0,0,0,0,0,0,0,0,0,0,0,0,0,0,
676,10.31,5.994,3.659,1.895,2.959,11.32,7.912,0.0232,0.5909,-0.624,1.95,10.38,2.609,3.153,3.347,-0.4813,0,0,0,0,0,0,0,0,0,0,0,0,0,0,0,0,
677,7.19,5.383,1.447,0.8375,-0.3417,6.523,5.814,-0.5225,-3.955,-3.135,-2.315,5.394,0.4198,-0.3421,-0.8034,-1.879,0,0,0,0,0,0,0,0,0,0,0,0,0,0,0,0,
678,2.489,1.037,-3.896,-4.368,-4.545,0.9065,1.63,-3.057,-9.586,-5.106,-6.469,0.7188,-2.405,-2.409,-1.532,-2.005,0,0,0,0,0,0,0,0,0,0,0,0,0,0,0,0,
679,0.6111,-0.2735,-5.427,-5.016,-5.324,0.0938,1.348,-2.774,-7.844,-2.93,-6.532,0.0628,-1.575,-0.6165,0.0048,-0.7154,0,0,0,0,0,0,0,0,0,0,0,0,0,0,0,0,
680,0.3111,1.59,-5.054,-3.876,-5.124,1.342,2.69,-1.157,-4.503,-0.2566,-4.612,0.745,0.6191,0.4232,1.62,-0.4337,0,0,0,0,0,0,0,0,0,0,0,0,0,0,0,0,
681,4.423,2.281,-1.515,-2.972,-0.6404,5.559,5.138,-1.925,-3.661,-0.097,-2.631,2.615,1.624,-0.1779,2.338,-1.847,0,0,0,0,0,0,0,0,0,0,0,0,0,0,0,0,
682,8.978,2.487,3.011,-0.7582,3.006,8.296,7.267,-3.305,-3.7,-0.1884,-2.536,2.988,1.379,-0.16,0.0149,-3.989,0,0,0,0,0,0,0,0,0,0,0,0,0,0,0,0,
683,4.157,3.03,1.04,-1.809,-2.474,3.209,4.767,-3.077,-5.238,-0.1993,-2.942,1.194,0.9147,-0.8433,-0.9395,-5.031,0,0,0,0,0,0,0,0,0,0,0,0,0,0,0,0,
684,-0.7981,3.258,-2.531,-3.972,-7.081,0.0585,3.161,-1.413,-5.886,-0.3603,-1.21,2.074,1.428,-3.18,1.828,-4.773,0,0,0,0,0,0,0,0,0,0,0,0,0,0,0,0,
685,3.329,3.378,-0.4908,-1.67,-2.459,4.46,6.559,-0.2927,-4.171,0.885,-0.9472,3.557,1.572,-5.195,1.657,-4.865,0,0,0,0,0,0,0,0,0,0,0,0,0,0,0,0,
686,5.803,2.633,1.487,-0.8582,1.126,5.65,7.029,-1.466,-4.413,1.529,-2.623,3.05,0.1729,-4.722,-0.1187,-4.343,0,0,0,0,0,0,0,0,0,0,0,0,0,0,0,0,
687,4.222,0.8094,-0.11,-3.448,-0.494,3.341,4.204,-2.538,-4.74,0.6839,-0.0292,5.843,0.8664,-1.606,3.631,-0.8355,0,0,0,0,0,0,0,0,0,0,0,0,0,0,0,0,
688,6.139,0.7855,-1.504,-3.841,-0.0798,4.402,4.574,-2.543,-1.787,1.674,5.774,11.3,5.671,1.34,9.571,4.526,0,0,0,0,0,0,0,0,0,0,0,0,0,0,0,0,
689,8.859,3.933,-2.124,-4.433,1.153,5.014,5.159,-3.602,-0.6859,3.547,8.738,14.23,10.03,2.654,12.72,8.7,0,0,0,0,0,0,0,0,0,0,0,0,0,0,0,0,T2
690,10.32,7.213,-0.3191,-4.05,2.285,6.659,5.339,-1.962,-0.4569,4.373,9.547,15.56,10.98,3.684,13.96,10.15,0,0,0,0,0,0,0,0,0,0,0,0,0,0,0,0,
691,11.8,7.824,3.821,1.046,6.41,11.6,7.951,2.615,1.626,4.895,9.103,14.08,9.102,2.393,11.63,7.554,0,0,0,0,0,0,0,0,0,0,0,0,0,0,0,0,
692,10.06,5.283,1.436,0.0453,4.951,8.752,6.347,0.736,-1.397,3.085,5.059,9.166,5.245,-1.902,6.447,2.19,0,0,0,0,0,0,0,0,0,0,0,0,0,0,0,0,
693,8.058,2.54,-4.614,-7.144,-0.8823,1.853,1.83,-4.848,-4.238,0.5148,1.832,8.905,4.183,-2.593,5.677,-0.1001,0,0,0,0,0,0,0,0,0,0,0,0,0,0,0,0,
694,10.44,4.382,-1.337,-4.614,4.364,5.028,4.007,-3.529,1.775,0.9155,3.175,11.98,7.087,0.6611,7.977,0.5673,0,0,0,0,0,0,0,0,0,0,0,0,0,0,0,0,
695,10.33,7.431,2.729,0.6401,10.68,7.885,6.329,-1.108,4.095,0.3717,2.94,8.986,7.036,0.3924,6.194,-1.056,0,0,0,0,0,0,0,0,0,0,0,0,0,0,0,0,
696,5.794,5.761,-2.795,-3.637,4.472,3.184,3.334,-3.807,0.2741,-1.504,0.5596,5.572,3.97,-2.494,4.13,-2.696,0,0,0,0,0,0,0,0,0,0,0,0,0,0,0,0,
697,5.011,3.534,-4.315,-5.625,1.705,3.842,3.257,-4.444,2.779,-0.5243,0.6588,6.276,2.164,-3.894,3.786,-3.131,0,0,0,0,0,0,0,0,0,0,0,0,0,0,0,0,
698,5.798,3.191,1.265,-1.852,6.669,6.853,4.572,-2.457,4.726,-0.4331,-0.4575,2.675,0.067,-4.943,-0.7284,-5.465,0,0,0,0,0,0,0,0,0,0,0,0,0,0,0,0,
699,3.169,1.465,0.6763,-2.319,6.311,3.818,2.641,-3.705,0.8506,-2.614,-2.381,-1.654,-1.595,-5.177,-4.47,-6.21,0,0,0,0,0,0,0,0,0,0,0,0,0,0,0,0,
700,2.325,-0.0239,-3.949,-5.317,4.835,2.012,1.246,-6.41,1.137,-3.006,-0.4335,0.2517,-2.523,-5.475,-2.636,-5.92,0,0,0,0,0,0,0,0,0,0,0,0,0,0,0,0,
701,3.888,-1.006,-5.545,-7.731,7.254,1.878,-0.2457,-7.3,2.989,-2.795,0.9823,0.9619,-4.842,-7.275,-2.241,-8.75,0,0,0,0,0,0,0,0,0,0,0,0,0,0,0,0,
702,3.558,-2.237,-5.434,-9.507,8.541,0.0524,-1.597,-6.858,1.403,-2.673,0.6399,-0.7517,-4.55,-6.976,-2.482,-8.811,0,0,0,0,0,0,0,0,0,0,0,0,0,0,0,0,
703,2.236,-0.6701,-3.001,-7.521,8.253,0.8434,0.2367,-6.105,0.181,-1.972,0.5306,0.2208,-1.572,-5.776,0.1411,-5.752,0,0,0,0,0,0,0,0,0,0,0,0,0,0,0,0,
704,1.267,1.21,-0.1539,-4.262,5.889,1.999,1.625,-5.487,-3.192,-2.227,-3.463,0.2695,-0.5385,-6.025,0.3216,-5.806,0,0,0,0,0,0,0,0,0,0,0,0,0,0,0,0,
705,1.398,1.441,-1.167,-3.544,2.803,0.5856,1.799,-4.691,-6.815,-1.15,-6.628,-0.8733,1.363,-3.238,0.2301,-4.764,0,0,0,0,0,0,0,0,0,0,0,0,0,0,0,0,
706,2.598,4.529,-2.325,-3.718,5.082,1.855,4.129,-3.937,-2.682,1.986,-2.094,1.092,4.326,0.2244,4.133,-1.377,0,0,0,0,0,0,0,0,0,0,0,0,0,0,0,0,
707,4.203,9.023,0.5028,-2.848,11.04,6.479,7.161,-2.989,2.953,3.79,1.675,3.949,5.09,0.0807,5.998,-0.6379,0,0,0,0,0,0,0,0,0,0,0,0,0,0,0,0,
708,7.195,10.58,3.121,-1.24,13.6,8.418,8.008,-1.384,1.492,4.718,0.406,5.261,6.642,1.461,5.349,0.4057,0,0,0,0,0,0,0,0,0,0,0,0,0,0,0,0,
709,7.629,9.603,1.464,-2.067,11.86,5.417,5.417,-2.161,-1.39,4.48,0.9993,5.96,8.03,3.327,7.087,2.53,0,0,0,0,0,0,0,0,0,0,0,0,0,0,0,0,
710,3.675,7.046,-1.455,-4.814,9.427,2.093,2.613,-5.397,-0.3555,1.776,2.26,5.711,6.075,1.246,7.719,1.643,0,0,0,0,0,0,0,0,0,0,0,0,0,0,0,0,
711,2.797,5.425,-1.881,-3.459,7.408,2.1,4.548,-4.163,1.401,0.8553,0.6413,4.854,5.083,0.7683,4.993,0.4581,0,0,0,0,0,0,0,0,0,0,0,0,0,0,0,0,
712,5.499,6.861,0.6156,1.195,6.735,4.308,8.513,1.89,2.124,3.677,0.4247,5.194,5.394,2.389,3.386,1.007,0,0,0,0,0,0,0,0,0,0,0,0,0,0,0,0,
713,7.241,8.599,4.488,3.806,10.78,7.542,10.12,4.811,2.562,6.162,1.979,5.181,2.56,-0.1595,3.074,-0.2939,0,0,0,0,0,0,0,0,0,0,0,0,0,0,0,0,
714,7.565,7.475,5.49,4.038,14.78,8.283,8.889,3.251,1.152,5.24,0.1083,1.499,-1.341,-4.843,0.8866,-3.672,0,0,0,0,0,0,0,0,0,0,0,0,0,0,0,0,
715,2.717,3.503,2.46,1.833,10.91,3.795,4.284,0.2404,-2.901,1.222,-4.515,-3.054,-3.67,-7.944,-2.109,-5.719,0,0,0,0,0,0,0,0,0,0,0,0,0,0,0,0,
716,-3.685,0.0637,-0.5726,-2.324,5.594,-0.0502,0.1316,-3.074,-6.41,-1.674,-6.02,-2.799,-4.583,-8.076,-2.667,-3.934,0,0,0,0,0,0,0,0,0,0,0,0,0,0,0,0,
717,-1.724,0.2155,-1.859,-3.335,6.968,0.0421,0.8221,-2.229,-4.833,-0.0763,-2.459,0.8622,-1.827,-2.773,0.1472,1.037,0,0,0,0,0,0,0,0,0,0,0,0,0,0,0,0,
718,2.66,1.155,-1.04,-0.7711,11.2,0.3506,1.392,0.5335,0.7463,1.371,1.308,2.569,1.979,1.679,2.545,3.479,0,0,0,0,0,0,0,0,0,0,0,0,0,0,0,0,
719,1.659,-0.3859,0.7332,-1.239,14.2,1.511,-1.125,-4.003,2.606,-1.008,1.38,1.678,0.7236,-1.56,0.9209,0.6548,0,0,0,0,0,0,0,0,0,0,0,0,0,0,0,0,
720,1.136,-1.137,1.268,-2.885,15.51,5.479,-0.0736,-7.513,0.6461,-1.031,1.411,1.433,-0.843,-3.644,-0.3908,-0.6002,0,0,0,0,0,0,0,0,0,0,0,0,0,0,0,0,
721,3.392,1.803,3.286,0.802,13.87,8.312,4.384,-0.5106,2.407,3.271,3.825,2.233,2.087,-0.2526,1.358,2.142,0,0,0,0,0,0,0,0,0,0,0,0,0,0,0,0,
722,3.826,4.246,4.706,2.471,10.68,5.531,3.577,2.39,4.949,3.753,4.888,1.903,2.655,-0.9233,1.027,2.627,0,0,0,0,0,0,0,0,0,0,0,0,0,0,0,0,
723,2.141,3.287,0.1795,-2.815,9.924,0.5328,-0.7478,-2.919,3.712,1.088,5.515,2.504,0.5546,-3.235,-0.1039,2.686,0,0,0,0,0,0,0,0,0,0,0,0,0,0,0,0,
724,2.259,2.912,-3.334,-4.396,11.09,0.762,-0.9761,-1.858,4.38,2.928,8.678,5.173,1.65,0.2645,1.999,6.461,0,0,0,0,0,0,0,0,0,0,0,0,0,0,0,0,
725,4.607,4.134,-0.5891,-1.079,10.07,4.877,0.7288,1.639,6.162,4.979,9.491,5.001,2.385,2.401,2.662,8.375,0,0,0,0,0,0,0,0,0,0,0,0,0,0,0,0,
726,4.572,3.791,2.929,-0.2523,8.866,7.516,1.123,-0.7449,3.686,2.495,6.21,2.644,1.882,1.484,1.369,7.862,0,0,0,0,0,0,0,0,0,0,0,0,0,0,0,0,
727,2.976,2.697,3.665,-0.2791,9.623,8.112,1.156,-2.196,0.6932,0.6101,4.999,2.994,3.548,3.315,1.645,9.047,0,0,0,0,0,0,0,0,0,0,0,0,0,0,0,0,
728,4.884,1.458,-0.3252,-1.963,6.758,5.197,-0.7764,-2.651,-0.3607,-0.1908,6.844,4.364,3.568,2.465,1.233,8.96,0,0,0,0,0,0,0,0,0,0,0,0,0,0,0,0,
729,7.492,-0.0783,-5.541,-5.963,2.541,0.9296,-2.998,-4.527,0.0762,-1.328,8.771,5.384,2.881,-0.8888,1.863,8.95,0,0,0,0,0,0,0,0,0,0,0,0,0,0,0,0,
730,5.921,1.721,-3.875,-4.583,5.026,1.587,-1.176,-1.956,3.704,0.3108,9.955,6.372,5.798,1.962,4.451,12.15,0,0,0,0,0,0,0,0,0,0,0,0,0,0,0,0,
731,2.667,5.762,1.494,1.456,9.086,4.843,2.704,2.702,5.496,2.629,8.22,5.042,7.226,5.389,2.357,12.61,0,0,0,0,0,0,0,0,0,0,0,0,0,0,0,0,
732,3.668,6.812,4.641,5.249,9.402,6.794,5.432,3.026,0.9535,3.049,4.388,2.919,5.726,3.393,-1.843,10.33,0,0,0,0,0,0,0,0,0,0,0,0,0,0,0,0,
733,8.38,6.19,7.161,6.58,10.66,8.464,6.143,1.679,-2.956,3.412,3.095,1.864,5.772,2.513,-1.927,10.73,0,0,0,0,0,0,0,0,0,0,0,0,0,0,0,0,
734,7.762,6.335,7.988,5.39,12.44,8.325,4.495,1.092,-1.355,2.399,3.93,0.6664,5.553,3.614,-1.962,10.81,0,0,0,0,0,0,0,0,0,0,0,0,0,0,0,0,
735,1.674,5.809,5.519,1.693,11.43,6.608,2.509,-0.795,1.482,0.33,5.236,1.514,4.691,3.462,-2.388,10.29,0,0,0,0,0,0,0,0,0,0,0,0,0,0,0,0,
736,1.416,5.178,3.375,-0.9448,10.24,6.555,2.011,-3.074,2.234,0.5255,7.558,4.248,6.561,3.941,-0.3275,12.49,0,0,0,0,0,0,0,0,0,0,0,0,0,0,0,0,
737,5.984,5.818,4.704,-0.3514,9.941,7.674,3.631,-1.932,1.125,1.549,7.383,4.355,8.346,4.402,-0.4072,13.04,0,0,0,0,0,0,0,0,0,0,0,0,0,0,0,0,
738,4.923,6.491,6.546,2.053,7.811,7.428,6.317,1.228,-1.59,1.679,3.563,2.131,6.741,3.508,-2.694,11.13,0,0,0,0,0,0,0,0,0,0,0,0,0,0,0,0,
739,-0.0326,5.796,3.431,1.606,4.509,4.716,5.048,0.1011,-4.51,1.092,2.038,0.3609,4.707,3.758,-2.155,11.29,0,0,0,0,0,0,0,0,0,0,0,0,0,0,0,0,
740,-0.7606,3.473,-0.7484,-2.411,3.227,2.001,-0.2814,-3.675,-5.236,-1.112,3.447,-0.2675,3.598,4.652,-2.095,10.55,0,0,0,0,0,0,0,0,0,0,0,0,0,0,0,0,
741,0.9096,0.1796,0.3578,-3.873,3.34,1.21,-2.91,-3.448,-4.559,-2.967,2.918,-0.2256,1.404,3.221,-5.01,7.331,0,0,0,0,0,0,0,0,0,0,0,0,0,0,0,0,
742,-1.539,-1.632,1.973,-1.945,3.595,-0.0072,-1.729,-2.162,-4.882,-2.32,1.541,-0.4214,0.3568,1.792,-5.83,7.056,0,0,0,0,0,0,0,0,0,0,0,0,0,0,0,0,
743,-4.45,0.1611,1.109,-1.011,5.615,-0.6649,-0.4034,-3.242,-5.374,-0.9125,1.838,-0.7833,2.232,3.833,-5.784,7.963,0,0,0,0,0,0,0,0,0,0,0,0,0,0,0,0,
744,-2.498,3.005,1.249,-1.379,6.144,0.736,0.0503,-2.697,-5.232,0.6651,1.313,-2.252,2.649,5.791,-8.775,5.53,0,0,0,0,0,0,0,0,0,0,0,0,0,0,0,0,
745,-1.418,3.431,1.692,-2.053,1.5,0.8251,0.3583,-1.545,-5.443,2.83,-0.2687,-4.756,1.587,5.084,-9.397,4.14,0,0,0,0,0,0,0,0,0,0,0,0,0,0,0,0,
746,-3.525,2.906,2.041,-1.625,-2.373,-0.1228,1.538,-2.068,-5.967,3.854,-1.013,-5.494,2.006,4.775,-7.236,4.665,0,0,0,0,0,0,0,0,0,0,0,0,0,0,0,0,
747,-5.378,2.036,2.339,0.4846,-2.511,-0.9621,1.903,-1.073,-8.202,2.529,-3.801,-6.549,-0.0254,3.381,-9.364,1.79,0,0,0,0,0,0,0,0,0,0,0,0,0,0,0,0,
748,-8.596,-0.9435,0.2328,0.1806,-4.048,-2.872,-0.3167,-0.7091,-11.78,0.0296,-8.444,-9.011,-3.316,0.7606,-11.2,0.0102,0,0,0,0,0,0,0,0,0,0,0,0,0,0,0,0,
749,-9.546,-2.52,-1.804,-2.156,-5.872,-2.366,-0.8825,-2.946,-10.64,-0.7147,-7.891,-7.436,-1.163,2.975,-7.746,4.554,0,0,0,0,0,0,0,0,0,0,0,0,0,0,0,0,
750,-5.375,-0.3741,-1.104,-1.398,-4.074,0.4542,1.213,-2.703,-5.584,1.021,-2.362,-4.256,1.459,5.974,-6.396,8.054,0,0,0,0,0,0,0,0,0,0,0,0,0,0,0,0,
751,-4.995,0.0872,-0.899,-0.8071,-2.814,-0.8977,-0.3663,-2.217,-5.797,1.451,0.2815,-5.314,-0.5721,3.382,-8.076,7.559,0,0,0,0,0,0,0,0,0,0,0,0,0,0,0,0,
752,-8.695,-2.65,-4.291,-4.882,-6.611,-6.319,-5.26,-5.92,-11.03,-0.6087,-1.347,-6.939,-0.9354,2.075,-7.812,9.048,0,0,0,0,0,0,0,0,0,0,0,0,0,0,0,0,
753,-9.384,-3.55,-9.289,-8.357,-10.59,-10.23,-6.928,-7.711,-12.55,-1.745,-2.47,-6.656,1.7,4.971,-6.983,11.52,0,0,0,0,0,0,0,0,0,0,0,0,0,0,0,0,
754,-9.592,-1.676,-9.947,-7.566,-7.568,-10.04,-5.647,-5.869,-9.011,-1.518,-0.601,-5.874,2.066,6.256,-5.57,11.96,0,0,0,0,0,0,0,0,0,0,0,0,0,0,0,0,
755,-10.4,-0.5511,-7.201,-6.816,-2.538,-8.868,-5.676,-6.021,-6.619,-2.315,1.088,-5.165,-0.2576,5.174,-5.018,11.72,0,0,0,0,0,0,0,0,0,0,0,0,0,0,0,0,
756,-9.968,-2.187,-7.494,-6.938,-3.519,-10.61,-6.631,-6.284,-8.736,-4.438,-1.875,-7.548,-3.855,2.733,-9.855,8.623,0,0,0,0,0,0,0,0,0,0,0,0,0,0,0,0,
757,-10.91,-5.121,-6.79,-4.215,-3.764,-11.3,-6.091,-4.459,-11.99,-6.098,-6.809,-11.66,-7.267,0.5283,-15.26,3.044,0,0,0,0,0,0,0,0,0,0,0,0,0,0,0,0,
758,-11.46,-6.293,-2.32,-0.9945,1.272,-8.407,-4.857,-4.453,-13.07,-5.492,-9.27,-13.34,-7.566,1.871,-16.48,1.463,0,0,0,0,0,0,0,0,0,0,0,0,0,0,0,0,
759,-9.765,-4.621,-1.785,-0.7551,3.207,-7.035,-4.007,-4.805,-12.56,-2.97,-10.49,-14.3,-4.548,4.856,-16.91,4.004,0,0,0,0,0,0,0,0,0,0,0,0,0,0,0,0,
760,-8.767,-1.002,-2.99,-0.6761,2.229,-6.209,-2.091,-2.247,-10.71,-0.2306,-10.55,-13.61,-1.236,6.603,-16.25,5.55,0,0,0,0,0,0,0,0,0,0,0,0,0,0,0,0,
761,-6.682,1.689,-0.8985,-0.572,2.934,-3.903,-0.4309,-0.946,-9.435,1.135,-9.538,-10.52,-0.5542,7.418,-14.35,4.957,0,0,0,0,0,0,0,0,0,0,0,0,0,0,0,0,
762,-3.7,0.7031,-1.602,-1.897,1.921,-4.681,-1.004,-2.78,-11.04,0.3898,-9.769,-9.798,-1.304,7.562,-13.6,3.534,0,0,0,0,0,0,0,0,0,0,0,0,0,0,0,0,
763,-3.797,0.1205,-3.724,-0.839,1.569,-4.849,0.608,-2.979,-11.08,0.1888,-8.051,-8.178,0.5914,7.588,-10.98,2.822,0,0,0,0,0,0,0,0,0,0,0,0,0,0,0,0,
764,-1.256,3.578,-0.0125,3.174,5.736,1.213,5.991,-0.4543,-6.981,1.581,-3.771,-2.721,2.895,5.572,-7.78,2.981,0,0,0,0,0,0,0,0,0,0,0,0,0,0,0,0,
765,6.271,5.526,5.529,6.428,9.254,6.483,8.545,0.7111,-3.349,0.7501,-2.157,-0.5636,1.338,1.286,-8.652,2.134,0,0,0,0,0,0,0,0,0,0,0,0,0,0,0,0,
766,7.787,4.091,6.706,7.365,9.355,5.815,6.931,-0.1472,-1.745,-1.361,-1.587,-1.344,-0.8951,-0.2328,-9.462,-0.5109,0,0,0,0,0,0,0,0,0,0,0,0,0,0,0,0,
767,2.546,3.471,6.172,7.023,9.261,4.438,6.973,0.9346,-1.028,-0.8258,0.4004,-0.2696,-1.24,-0.3288,-8.051,-2.754,0,0,0,0,0,0,0,0,0,0,0,0,0,0,0,0,
768,2.978,3.498,10.36,8.964,13.38,7.665,10.09,2.514,0.447,0.6464,3.491,1.775,0.3419,-1.387,-5.705,-0.341,0,0,0,0,0,0,0,0,0,0,0,0,0,0,0,0,
769,9.948,4.686,15.81,11.31,19.09,12.66,12.05,0.5152,3.962,1.049,8.435,4.761,3.599,0.0448,-1.689,3.275,0,0,0,0,0,0,0,0,0,0,0,0,0,0,0,0,
770,11.46,6.244,13.23,10.05,16.85,11.26,10.16,1.143,4.057,0.2034,8.499,5.547,3.299,0.827,-1.05,0.206,0,0,0,0,0,0,0,0,0,0,0,0,0,0,0,0,
771,6.883,4.726,9.473,9.458,12.39,7.199,8.528,4.011,1.448,-0.3465,5.413,5.954,3.808,2.592,0.3402,0.622,0,0,0,0,0,0,0,0,0,0,0,0,0,0,0,0,
772,10.21,7.208,12.21,7.483,16.42,10.74,11.29,-2.931,5.5,2.965,12.44,14.1,13.75,12.29,10.95,11.73,0,0,0,0,0,0,0,0,0,0,0,0,0,0,0,0,
773,17.83,14.66,11.56,2.031,16.74,12.69,12.92,-7.502,7.846,5.829,16.97,16.74,16.76,15.9,12.68,12.11,0,0,0,0,0,0,0,0,0,0,0,0,0,0,0,0,
774,10.42,11.79,7.627,6.711,5.013,2.866,9.143,8.04,-3.386,3.247,3.923,2.333,2.916,5.149,-2.665,-1.751,0,0,0,0,0,0,0,0,0,0,0,0,0,0,0,0,
775,-4.637,1.523,8.793,18.36,-6.361,-6.369,6.085,23.49,-14.18,1.869,-6.132,-8.323,-5.248,-0.7838,-10.02,-6.074,0,0,0,0,0,0,0,0,0,0,0,0,0,0,0,0,
776,-8.755,-0.545,8.37,18.2,-11.58,-7.642,5.768,21.28,-13.17,3.003,-3.096,-6.813,-2.229,2.1,-6.451,-3.227,0,0,0,0,0,0,0,0,0,0,0,0,0,0,0,0,
777,-7.557,0.5939,6.309,13.95,-11.33,-7.38,4.893,16.71,-10.89,0.7591,-2.529,-7.633,-3.557,2.061,-7.841,-5.009,0,0,0,0,0,0,0,0,0,0,0,0,0,0,0,0,
778,-6.463,-1.168,10.77,18.26,-5.809,-5.381,6.46,19.22,-12.32,-0.674,-5.577,-9.591,-5.857,1.989,-10.1,-4.198,0,0,0,0,0,0,0,0,0,0,0,0,0,0,0,0,
779,-4.077,-0.4073,13.85,21.46,-3.748,-2.784,9.627,22.39,-13.16,1.257,-7.276,-9.194,-4.4,3.507,-11.15,-2.962,0,0,0,0,0,0,0,0,0,0,0,0,0,0,0,0,
780,-6.973,0.6926,10.65,19.14,-8.105,-4.516,8.647,21.92,-14.41,1.488,-9.115,-11.28,-5.101,2.442,-13.79,-6.255,0,0,0,0,0,0,0,0,0,0,0,0,0,0,0,0,
781,-10.91,0.0856,9.832,18.76,-11.45,-5.775,8.116,20.26,-16.53,2.336,-9.613,-11.78,-5.287,1.715,-12.29,-7.033,0,0,0,0,0,0,0,0,0,0,0,0,0,0,0,0,
782,-8.709,1.67,10.08,19.68,-14.7,-4.073,10.81,22.91,-17.65,6.144,-11.16,-9.929,-2.69,2.583,-9.696,-6.136,0,0,0,0,0,0,0,0,0,0,0,0,0,0,0,0,
783,-8.014,2.859,5.646,16.3,-19.73,-4.254,9.438,24.13,-18.27,7.471,-13.65,-10.42,-1.625,3.513,-9.934,-5.881,0,0,0,0,0,0,0,0,0,0,0,0,0,0,0,0,
784,-9.859,1.451,1.592,11.07,-19.91,-4.515,5.605,16.97,-17.18,5.132,-12.03,-10.47,-2.586,3.514,-8.352,-3.651,0,0,0,0,0,0,0,0,0,0,0,0,0,0,0,0,
785,-8.679,0.3284,1.798,9.818,-15.57,-2.214,5.072,12.07,-13.15,3.299,-9.341,-8.274,-3.267,2.679,-6.133,-2.365,0,0,0,0,0,0,0,0,0,0,0,0,0,0,0,0,
786,-5.895,-0.1029,4.066,11.13,-12.75,-0.0057,5.463,14.49,-8.739,4.079,-6.17,-4.781,-1.697,4.604,-4.55,-1.608,0,0,0,0,0,0,0,0,0,0,0,0,0,0,0,0,
787,-2.838,0.4535,6.242,11.15,-11.34,0.8548,6.499,14.86,-7.456,5.503,-2.289,-2.087,-0.4786,5.103,-3.543,-1.13,0,0,0,0,0,0,0,0,0,0,0,0,0,0,0,0,
788,-1.69,1.816,5.014,9.632,-11.68,0.2052,8.285,12.7,-11.03,4.65,-4.865,-3.67,-2.195,0.1904,-5.822,-4.665,0,0,0,0,0,0,0,0,0,0,0,0,0,0,0,0,
789,-0.7775,2.727,2.847,8.88,-12.95,1.177,9.204,13.56,-13.67,4.711,-7.144,-2.966,-0.3676,1.133,-5.567,-5.376,0,0,0,0,0,0,0,0,0,0,0,0,0,0,0,0,
790,5.341,5.814,7.524,12.73,-9.417,6.796,12.88,17.1,-8.436,8.617,-0.3556,3.771,4.936,8.271,-0.7121,-0.4841,0,0,0,0,0,0,0,0,0,0,0,0,0,0,0,0,
791,8.709,9.938,13.65,17.44,-4.349,10.34,16.87,19.58,-3.088,10.46,3.752,5.93,5.054,9.287,-0.1023,0.9875,0,0,0,0,0,0,0,0,0,0,0,0,0,0,0,0,
792,4.584,9.782,12.09,16.08,-4.135,8.616,15.59,18.04,-4.487,8.68,2.422,4.352,4.156,8.746,-0.4567,1.657,0,0,0,0,0,0,0,0,0,0,0,0,0,0,0,0,
793,4.486,9.133,9.504,14.55,-4.267,8.233,14.73,16.23,-4.615,9.596,5.17,7.489,7.803,11.69,4.346,6.703,0,0,0,0,0,0,0,0,0,0,0,0,0,0,0,0,
794,7.941,11.98,11.34,17.05,-3.23,8.38,15.78,18.05,-2.872,12.2,6.837,8.519,9.348,11.87,6.247,9.719,0,0,0,0,0,0,0,0,0,0,0,0,0,0,0,0,
795,5.565,11.98,12.59,16.78,-4.343,5.755,12.98,17.9,-4.66,11,4.241,4.638,6.948,11.09,3.873,8.912,0,0,0,0,0,0,0,0,0,0,0,0,0,0,0,0,
796,2.233,7.394,11.04,13.4,-4.73,4.312,9.33,12.67,-5.339,6.992,3.925,3.501,4.36,10.33,3.623,6.542,0,0,0,0,0,0,0,0,0,0,0,0,0,0,0,0,
797,2.734,3.979,6.483,9.165,-4.962,3.57,7.079,7.861,-5.215,3.721,3.19,3.471,1.761,6.163,2.78,2.775,0,0,0,0,0,0,0,0,0,0,0,0,0,0,0,0,
798,2.475,2.317,0.9399,3.703,-8.223,0.8792,4.067,6.881,-8.232,2.488,0.1522,1.862,-0.0223,3.895,0.5274,1.012,0,0,0,0,0,0,0,0,0,0,0,0,0,0,0,0,
799,0.6754,0.5114,-0.7618,2.179,-11.06,-0.7426,2.974,8.398,-9.72,2.114,-0.608,1.267,-1.775,4.231,0.2586,0.313,0,0,0,0,0,0,0,0,0,0,0,0,0,0,0,0,
800,-0.8979,-1.016,-0.416,4.466,-12.29,-0.9119,3.696,9.202,-9.895,0.75,-1.18,-0.1028,-4.64,2.619,-0.9657,-1.814,0,0,0,0,0,0,0,0,0,0,0,0,0,0,0,0,
801,-3.396,-2.083,-0.199,5.151,-12.96,-1.506,3.512,8.231,-11.37,0.1752,-2.959,-1.495,-4.572,3.084,-2.343,-0.4392,0,0,0,0,0,0,0,0,0,0,0,0,0,0,0,0,
802,-4.812,-1.975,1.252,5.672,-12.08,-2.115,3.416,8.824,-11.64,2.233,-3.47,-0.3401,-2.097,5.141,0.127,2.764,0,0,0,0,0,0,0,0,0,0,0,0,0,0,0,0,
803,-2.96,-1.088,-0.2906,4.797,-13.31,-4.161,2.532,9.932,-13.94,3.773,-4.861,-1.222,-1.889,3.82,2.316,1.868,0,0,0,0,0,0,0,0,0,0,0,0,0,0,0,0,
804,-3.304,-0.6555,-5.395,0.7055,-16.69,-7.187,1.518,7.86,-17.23,3.621,-6.09,-3.558,-0.5333,4.444,2.554,2.728,0,0,0,0,0,0,0,0,0,0,0,0,0,0,0,0,
805,-7.2,1.747,-6.617,-0.0084,-15.44,-7.04,3.591,7.513,-13.82,5.012,-3.096,-0.8499,4.421,8.268,4.35,7.787,0,0,0,0,0,0,0,0,0,0,0,0,0,0,0,0,
806,-6.674,5.77,-4.276,2.341,-12.76,-5.011,5.348,10.79,-9.743,6.664,0.1373,3.073,6.492,7.142,6.13,8.701,0,0,0,0,0,0,0,0,0,0,0,0,0,0,0,0,
807,-3.515,5.498,-3.583,2.004,-15.16,-5.222,3.725,10.84,-11.36,5.567,0.0506,2.441,4.329,3.478,7.078,6.094,0,0,0,0,0,0,0,0,0,0,0,0,0,0,0,0,
808,-4.968,2.224,-3.343,2.639,-17.01,-5.501,2.526,9.644,-11.7,5.146,0.1473,1.203,3.866,5,8.754,6.267,0,0,0,0,0,0,0,0,0,0,0,0,0,0,0,0,
809,-5.408,2.366,-2.56,5.444,-14.81,-3.616,3.337,12.07,-9.861,7.11,1.11,2.01,4.987,7.44,8.995,6.498,0,0,0,0,0,0,0,0,0,0,0,0,0,0,0,0,
810,-2.529,3.458,-3.332,4.93,-14.38,-3.071,3.975,12.9,-10.09,7.284,0.4117,1.884,3.338,5.275,7.398,4.16,0,0,0,0,0,0,0,0,0,0,0,0,0,0,0,0,
811,-3.615,1.49,-4.56,2.492,-16.34,-4.608,3.193,11.03,-10.18,6.105,-1.014,0.5046,0.7494,2.89,6.349,3.289,0,0,0,0,0,0,0,0,0,0,0,0,0,0,0,0,
812,-5.184,0.4089,-3.396,2.416,-15.71,-4.265,1.745,10.81,-9.228,7.087,-1.38,0.1214,1.497,2.917,5.844,4.641,0,0,0,0,0,0,0,0,0,0,0,0,0,0,0,0,
813,-3.1,1.957,-0.4042,4.09,-12.16,-2.951,1.804,10.93,-8.741,8.219,-1.852,-0.2947,2.947,1.364,4.469,3.752,0,0,0,0,0,0,0,0,0,0,0,0,0,0,0,0,
814,-4.411,1.97,0.3357,4.813,-10.62,-4.891,2.105,10.87,-9.653,6.952,-3.508,-3.211,0.2811,-1.86,1.513,0.1557,0,0,0,0,0,0,0,0,0,0,0,0,0,0,0,0,
815,-7.05,-0.2578,-1.998,3.479,-13.33,-7.231,0.3048,11.98,-11.49,5.216,-3.493,-4.921,-2.702,-2.527,-0.1106,-0.5552,0,0,0,0,0,0,0,0,0,0,0,0,0,0,0,0,
816,-3.201,-0.5336,-1.189,4.449,-13.44,-4.202,0.9648,13.39,-8.755,5.907,0.3545,-0.3443,0.1521,-0.2238,2.48,3.261,0,0,0,0,0,0,0,0,0,0,0,0,0,0,0,0,
817,0.6611,3.175,3.5,9.675,-7.374,0.8714,6.139,15.6,-3.454,9.15,2.699,4.028,4.419,1.873,3.639,4.613,0,0,0,0,0,0,0,0,0,0,0,0,0,0,0,0,
818,-1.917,6.69,3.552,11.36,-5.387,1.181,8.428,16.82,-6.826,10.96,-1.571,-0.0856,3.223,1.472,-0.9498,-0.0886,0,0,0,0,0,0,0,0,0,0,0,0,0,0,0,0,
819,-4.374,5.728,0.3133,8.338,-10.54,-0.5944,6.527,14.58,-13.45,8.896,-6.26,-5.233,0.4167,-0.0433,-3.807,-3.916,0,0,0,0,0,0,0,0,0,0,0,0,0,0,0,0,
820,-3.119,3.573,2.134,8.942,-11.97,0.8369,7.107,13.32,-10.67,7.228,-4.357,-2.763,1.425,0.5685,-1.647,-2.41,0,0,0,0,0,0,0,0,0,0,0,0,0,0,0,0,
821,-2.879,4.163,4.623,11.62,-9.971,2.114,9.065,15.77,-7.807,8.533,-2.404,-0.4607,2.215,1.717,-2.715,-0.8352,0,0,0,0,0,0,0,0,0,0,0,0,0,0,0,0,
822,-5.596,4.02,2.526,10.26,-12.7,-0.0926,7.217,16.82,-13.24,8.402,-6.873,-4.512,-1.147,-0.1731,-6.838,-2.158,0,0,0,0,0,0,0,0,0,0,0,0,0,0,0,0,
823,-8.584,0.3297,1.747,7.797,-14.83,-1.402,3.484,13.74,-14.16,5.474,-9.82,-6.625,-4.103,-2.518,-5.438,-2.268,0,0,0,0,0,0,0,0,0,0,0,0,0,0,0,0,
824,-8.392,-3.167,4.047,7.631,-10.06,0.3661,1.511,10.28,-8.114,4.188,-7.35,-4.349,-3.866,-3.03,-2.844,-0.6624,0,0,0,0,0,0,0,0,0,0,0,0,0,0,0,0,
825,-5.247,-4.257,4.154,7.3,-6.551,0.1914,0.2338,9.399,-8.11,4.747,-7.811,-5.596,-4.941,-4.529,-6.542,-1.582,0,0,0,0,0,0,0,0,0,0,0,0,0,0,0,0,
826,-5.36,-5.137,1.105,4.54,-9.875,-3.695,-1.829,8.783,-11.36,3.827,-9.767,-8.554,-7.237,-6.229,-8.613,-3.584,0,0,0,0,0,0,0,0,0,0,0,0,0,0,0,0,
827,-9.227,-5.326,-0.4486,2.762,-11.22,-5.075,-1.898,7.422,-7.834,2.922,-5.727,-6.108,-5.273,-5.146,-3.486,-1.35,0,0,0,0,0,0,0,0,0,0,0,0,0,0,0,0,
828,-7.755,-2.719,2.896,6.205,-7.073,-0.937,1.7,9.015,-2.61,4.776,-0.7398,-1.061,-0.6665,-2.675,1.106,4.057,0,0,0,0,0,0,0,0,0,0,0,0,0,0,0,0,
829,-1.089,0.597,7.185,10.44,-5.404,3.375,4.696,12.08,-0.7337,7.71,0.885,2.277,1.936,0.1187,2.083,8.042,0,0,0,0,0,0,0,0,0,0,0,0,0,0,0,0,
830,1.455,2.255,7.394,10.68,-5.016,4.273,4.66,11.16,1.328,8.996,2.653,3.908,2.555,2.35,2.632,9.783,0,0,0,0,0,0,0,0,0,0,0,0,0,0,0,0,
831,0.0083,2.114,5.439,9.475,-1.427,2.942,3.299,7.997,2.278,7.443,3.95,3.035,0.693,0.7588,2.401,9.189,0,0,0,0,0,0,0,0,0,0,0,0,0,0,0,0,
832,-1.367,-0.0876,4.013,6.69,-1.181,0.4585,0.9396,6.23,0.2075,4.085,3.873,1.302,-2.156,-3.16,1.701,5.779,0,0,0,0,0,0,0,0,0,0,0,0,0,0,0,0,
833,-2.665,-1.56,3.175,2.617,-4.2,-1.179,-0.2888,5.748,-0.5818,2.401,3.393,1.865,-1.314,-4.62,2.224,3.197,0,0,0,0,0,0,0,0,0,0,0,0,0,0,0,0,
834,-2.191,0.1957,3.404,2.531,-3.639,-0.6753,1.277,6.49,1.082,3.017,1.841,3.199,0.8788,-4.071,2.981,4.798,0,0,0,0,0,0,0,0,0,0,0,0,0,0,0,0,
835,-0.8761,1.076,4.84,5.114,-2.367,0.3474,1.813,6.579,2.337,2.353,1.13,2.249,-0.2981,-4.472,2.121,6.207,0,0,0,0,0,0,0,0,0,0,0,0,0,0,0,0,
836,-1.257,-1.225,5.98,5.764,-2.77,0.4174,0.309,5.33,1.312,0.0474,0.2513,-1.152,-2.928,-6.333,-0.9462,2.876,0,0,0,0,0,0,0,0,0,0,0,0,0,0,0,0,
837,-1.46,-3.014,3.824,4.691,-3.645,-1.554,-0.7144,5.903,-2.021,0.2735,-3.469,-3.549,-4.339,-7.277,-2.758,0.088,0,0,0,0,0,0,0,0,0,0,0,0,0,0,0,0,
838,-2.585,-2.28,0.0189,3.15,-5.881,-4.018,-0.8379,6.974,-3.457,3.891,-4.616,-2.068,-3.029,-4.456,-0.1016,3.045,0,0,0,0,0,0,0,0,0,0,0,0,0,0,0,0,
839,-5.586,0.4626,0.6218,3.763,-6.101,-3.374,0.9992,7.001,-2.12,6.587,-2.47,-0.6817,1.259,-0.1709,1.643,7.131,0,0,0,0,0,0,0,0,0,0,0,0,0,0,0,0,
840,-5.826,3.512,2.955,6.193,-4.189,-1.404,3.437,9.022,-3.52,6.303,-2.732,-1.994,4.207,1.336,-0.5744,8.713,0,0,0,0,0,0,0,0,0,0,0,0,0,0,0,0,
841,-2.508,4.61,2.436,6.11,-3.731,0.1809,3.434,9.954,-4.146,5.111,-0.9118,-0.5591,4.077,1.046,0.1753,9.731,0,0,0,0,0,0,0,0,0,0,0,0,0,0,0,0,
842,1.664,4.883,3.609,5.29,-1.252,3.322,3.469,6.784,1.514,3.924,5.832,3.809,3.86,1.206,4.194,10.12,0,0,0,0,0,0,0,0,0,0,0,0,0,0,0,0,
843,3.757,5.242,5.412,5.791,0.9903,4.472,4.193,5.341,4.799,3.062,9.326,4.628,3.041,1.96,5.111,10.07,0,0,0,0,0,0,0,0,0,0,0,0,0,0,0,0,
844,2.024,3.526,3.843,5.494,-1.708,2.233,2.831,6.571,2.293,3.283,8.257,2.831,0.432,2.452,4.67,10.31,0,0,0,0,0,0,0,0,0,0,0,0,0,0,0,0,
