%OpenBCI Raw EXG Data
%Number of channels = 16
%Sample Rate = 125 Hz
%Board = OpenBCI_GUI$BoardCytonSerialDaisy
Sample Index,EXG Channel 0,EXG Channel 1,EXG Channel 2,EXG Channel 3,EXG Channel 4,EXG Channel 5,EXG Channel 6,EXG Channel 7,EXG Channel 8,EXG Channel 9,EXG Channel 10,EXG Channel 11,EXG Channel 12,EXG Channel 13,EXG Channel 14,EXG Channel 15,Accel Channel 0,Accel Channel 1,Accel Channel 2,Other,Other,Other,Other,Other,Other,Other,Analog Channel 0,Analog Channel 1,Analog Channel 2,Timestamp,Other,Timestamp (Formatted),Annotations
1,-0,-0,-0,0,0,0,0,0,0,-0,-0,0,-0,-0,0,-0,0,0,0,0,0,0,0,0,0,0,0,0,0,0,0,0,T0
2,-5.739,-24.76,-42.39,-46.4,-47.94,-56.38,-50.49,-68.14,-47.38,-38.6,-60.28,-53.6,-56.82,-55.82,-53.85,-49.41,0,0,0,0,0,0,0,0,0,0,0,0,0,0,0,0,
3,-9.434,-20.45,-38.8,-38.32,-34.83,-59.22,-30.14,-64.82,-44.05,-24.45,-38.82,-34.27,-33.73,-35.12,-40.07,-29.97,0,0,0,0,0,0,0,0,0,0,0,0,0,0,0,0,
4,-16.7,-6.289,-35.98,-31.59,-33.93,-72.14,-22.41,-49.47,-70.55,-11.68,-58.62,-51.94,-38.2,-35.04,-62.52,-45.87,0,0,0,0,0,0,0,0,0,0,0,0,0,0,0,0,
5,-33.26,-20.07,-50.67,-43.61,-58.92,-73.13,-38.22,-43.2,-98.51,-12.17,-101.7,-85.38,-62.62,-54.89,-82.42,-68.81,0,0,0,0,0,0,0,0,0,0,0,0,0,0,0,0,
6,-32.98,-25.68,-43.36,-34.64,-54.25,-28.29,-28.85,-39.98,-83.76,-23.63,-96.32,-74.02,-49.4,-46.18,-61.01,-49.01,0,0,0,0,0,0,0,0,0,0,0,0,0,0,0,0,
7,-22.52,-14.61,-34.35,-30.14,-55.16,-17.59,-32.79,-58.72,-97.44,-40.45,-111.8,-84.77,-54.69,-49.53,-83.52,-55.87,0,0,0,0,0,0,0,0,0,0,0,0,0,0,0,0,
8,-26.15,-31.32,-38.54,-42.31,-76.08,-39.2,-47.79,-54.97,-108.5,-17.46,-123.5,-97.01,-65.09,-55.92,-95.35,-63.07,0,0,0,0,0,0,0,0,0,0,0,0,0,0,0,0,
9,-22.72,-42.75,-32.14,-41.47,-79.08,-39.21,-39.24,-30.11,-77.35,-8.912,-86.22,-72.7,-46.47,-48.83,-55.01,-41.16,0,0,0,0,0,0,0,0,0,0,0,0,0,0,0,0,
10,-16.03,-30.34,-39.07,-42.25,-91.35,-44.01,-35.78,-41.5,-83.29,-53.59,-74.97,-62.29,-38.81,-47.22,-47.2,-37.78,0,0,0,0,0,0,0,0,0,0,0,0,0,0,0,0,
11,-15.31,-31.77,-49.33,-43.67,-107.9,-51.15,-35.46,-53.06,-102.1,-62.53,-92.97,-58.93,-40.07,-39.18,-55.68,-35.53,0,0,0,0,0,0,0,0,0,0,0,0,0,0,0,0,
12,-8.238,-34.9,-26.89,-34.86,-91.31,-49.55,-21.77,-46.41,-70.16,-40.56,-83.73,-33.67,-23.75,-23.91,-22.48,-6.592,0,0,0,0,0,0,0,0,0,0,0,0,0,0,0,0,
13,-5.236,-22.8,-15.02,-41.03,-77.84,-69.49,-21.09,-59.28,-48.23,-50.81,-57.64,-6.201,0.6867,-9.204,17.9,24.58,0,0,0,0,0,0,0,0,0,0,0,0,0,0,0,0,
14,-5.487,-14.1,-34.05,-53.88,-86.86,-102.8,-33.18,-75.58,-66.72,-63.82,-46.77,-0.2224,10.31,-2.457,24.89,34.26,0,0,0,0,0,0,0,0,0,0,0,0,0,0,0,0,
15,-6.309,-9.61,-50.76,-57.86,-97.37,-122.7,-29.75,-85.49,-81.89,-53.95,-52.21,-6.184,13.23,-2.238,24.92,37.54,0,0,0,0,0,0,0,0,0,0,0,0,0,0,0,0,
16,-1.753,11.71,-60.51,-55.92,-102.4,-118.2,-10.27,-86.99,-83.26,-28.67,-55.53,5.86,31.47,13.15,37.53,51,0,0,0,0,0,0,0,0,0,0,0,0,0,0,0,0,
17,12.65,29.43,-62.49,-41.87,-93.85,-106.6,-7.11,-64.13,-90.53,-5.455,-65.33,8.443,29.75,16.41,23.81,43.88,0,0,0,0,0,0,0,0,0,0,0,0,0,0,0,0,
18,10.63,20.11,-48.04,-28.74,-74.89,-104.1,-8.767,-35.85,-96.31,2.808,-79.02,-10.36,13.88,8.59,3.474,29.4,0,0,0,0,0,0,0,0,0,0,0,0,0,0,0,0,
19,20.75,39.78,-24.99,-19.37,-56.81,-81.93,23.63,-9.133,-74.09,5.848,-77.51,-10.26,28.23,25.34,7.85,30.58,0,0,0,0,0,0,0,0,0,0,0,0,0,0,0,0,
20,40.49,69.43,-13.78,-11.97,-48.33,-68.54,32.35,1.474,-45.89,-3.711,-82.09,-17.55,20.53,13.73,-6.008,9.315,0,0,0,0,0,0,0,0,0,0,0,0,0,0,0,0,
21,11.25,34.3,-19.03,-24,-49.24,-94.3,-2.129,-30.42,-45.62,-4.712,-62.51,-16.67,1.438,-11.3,-0.1298,6.809,0,0,0,0,0,0,0,0,0,0,0,0,0,0,0,0,
22,15.72,16.96,-34.67,-43.79,-59.68,-104,0.1334,-60.02,-63.68,14.04,-13.63,24.24,25.65,9.193,32.66,32.18,0,0,0,0,0,0,0,0,0,0,0,0,0,0,0,0,
23,58.05,44.39,-63.11,-59.33,-101.6,-116.6,8.059,-46.78,-76.95,0.8977,-35.53,5.971,18.48,4.37,-3.099,-2.017,0,0,0,0,0,0,0,0,0,0,0,0,0,0,0,0,
24,-0.5501,31.4,-65.21,-60.62,-145,-153.2,-8.648,-10.92,-65.29,-10.55,-71.27,-46.4,-2.999,-13.45,-29.58,-24.59,0,0,0,0,0,0,0,0,0,0,0,0,0,0,0,0,
25,-52.27,33.3,-27.88,-34.56,-138.7,-144.5,12.22,17.98,-65.02,18.19,-18.49,-11.93,36.26,21.6,24.16,24.42,0,0,0,0,0,0,0,0,0,0,0,0,0,0,0,0,
26,29.24,71.99,-12.62,-13.27,-113.3,-107,39.03,21.43,-94.76,30.35,14.63,31.51,60.49,40.5,38.89,39.4,0,0,0,0,0,0,0,0,0,0,0,0,0,0,0,0,
27,84.66,83.55,-6.835,0.0109,-92.65,-82.83,44.35,16.81,-71.36,37.44,-14.53,21.1,59.35,40.62,19.69,32.36,0,0,0,0,0,0,0,0,0,0,0,0,0,0,0,0,
28,40.27,100.6,5.445,19.41,-79.78,-59.35,57.38,17.77,-29.8,47.5,-23.31,22.94,84.31,63.47,39.59,59.66,0,0,0,0,0,0,0,0,0,0,0,0,0,0,0,0,
29,19.8,110.1,-26.17,13.5,-104.1,-55.38,45.72,15.74,-71.29,25.36,-17.16,39.41,90.53,57.66,53.26,69.96,0,0,0,0,0,0,0,0,0,0,0,0,0,0,0,0,
30,57.78,82.97,-49.71,1.07,-145,-60.53,25.8,18.78,-107,21.95,-12.6,50.1,82.64,35.24,55.39,65.27,0,0,0,0,0,0,0,0,0,0,0,0,0,0,0,0,
31,76.14,83.68,-29.3,7.097,-163.2,-59.31,36.29,14.86,-78.46,43.35,-7.144,52.63,91.43,40.11,61.88,70.87,0,0,0,0,0,0,0,0,0,0,0,0,0,0,0,0,
32,43.97,99.59,-36.81,2.378,-154.1,-80.62,37.46,0.0958,-70.22,41.08,-22.79,27.78,82.27,44.69,41.51,59.95,0,0,0,0,0,0,0,0,0,0,0,0,0,0,0,0,
33,6.176,89.24,-53.09,-0.6351,-134.7,-97.19,31.81,1.537,-95.01,38,-48.26,-9.678,56.51,36.86,9.732,34.64,0,0,0,0,0,0,0,0,0,0,0,0,0,0,0,0,
34,-2.243,80.26,-36.49,10.49,-138,-79.28,39.9,9.355,-122.6,41.52,-58.31,-25.13,41.43,28.46,-3.401,21.44,0,0,0,0,0,0,0,0,0,0,0,0,0,0,0,0,
35,11.49,68.26,-34.28,6.62,-152.5,-75.79,29.79,8.941,-134.4,37.43,-55.45,-23.07,36.45,26.28,-9.448,25.06,0,0,0,0,0,0,0,0,0,0,0,0,0,0,0,0,
36,6.422,53.29,-54.99,-12.29,-148.8,-109.1,8.938,7.303,-107.1,37.47,-58.67,-30.47,38.99,37.3,-14.34,31.72,0,0,0,0,0,0,0,0,0,0,0,0,0,0,0,0,
37,-30.5,59.52,-57.77,-24.77,-140.6,-128.1,7.656,7.853,-82.93,46.72,-65.75,-36.45,40.87,43.58,-11.05,30.34,0,0,0,0,0,0,0,0,0,0,0,0,0,0,0,0,
38,-32.89,61.87,-44.19,-25.73,-141,-114.3,8.76,9.551,-98.32,54.18,-55.9,-24.54,32.71,27.82,-12.03,21.55,0,0,0,0,0,0,0,0,0,0,0,0,0,0,0,0,
39,0.3415,53.19,-47.85,-31.66,-147.3,-106.8,-1.399,-4.931,-106.5,27.72,-39.22,-19.42,30.02,18.06,-16.7,18.16,0,0,0,0,0,0,0,0,0,0,0,0,0,0,0,0,
40,-1.099,61.87,-58.34,-43.54,-140.6,-103,-4.6,-22.67,-98.68,-4.674,-30.76,-20.89,39.39,30.11,-7.879,26.86,0,0,0,0,0,0,0,0,0,0,0,0,0,0,0,0,
41,-4.757,64.72,-41.78,-36.54,-129.8,-82.51,3.759,-14.65,-118.3,27.4,-28.49,-14.42,33.91,26.18,-6.241,25.12,0,0,0,0,0,0,0,0,0,0,0,0,0,0,0,0,
42,27.9,51.79,-21.63,-15.27,-153.8,-61.31,16.72,-3.807,-128.5,71.93,-28.95,-12.26,23.25,10.33,-16.48,15.41,0,0,0,0,0,0,0,0,0,0,0,0,0,0,0,0,
43,41.78,61.44,-26.72,-3.202,-174.9,-49.69,24.03,-2.842,-87.63,48.7,-28.01,-15.52,31.22,13.52,-14.08,19.37,0,0,0,0,0,0,0,0,0,0,0,0,0,0,0,0,
44,6.886,62.35,-39.96,-9.441,-159.1,-65.28,5.521,-4.778,-65.61,1.476,-38.67,-27.89,26.72,4.41,-15.78,18.56,0,0,0,0,0,0,0,0,0,0,0,0,0,0,0,0,
45,-29.93,31.02,-37.8,-21.3,-149.4,-94.86,-13.44,-17.43,-89.81,-7.3,-54.29,-38.63,15.37,-10.95,-21.43,16.72,0,0,0,0,0,0,0,0,0,0,0,0,0,0,0,0,
46,-15.44,30.44,-19.35,-16.71,-150.8,-88.26,-3.153,-28.75,-98.36,6.66,-51.56,-27.59,25.29,4.716,-11.21,27.06,0,0,0,0,0,0,0,0,0,0,0,0,0,0,0,0,
47,12.66,47.06,-15.83,-14.27,-147.4,-73.49,-1.031,-35.98,-84.3,0.3635,-39.57,-15.84,26.92,17.02,2.278,29.7,0,0,0,0,0,0,0,0,0,0,0,0,0,0,0,0,
48,12.33,38.26,-27.27,-26.61,-138.2,-76.49,-12.68,-46.66,-79.03,-14.99,-17.35,-1.766,23.57,13.4,19.31,33.08,0,0,0,0,0,0,0,0,0,0,0,0,0,0,0,0,
49,37.29,39.77,-22.76,-29.41,-118.3,-63.92,-11.69,-46.54,-97.24,-0.675,4.725,20.7,30.5,12.42,33.75,36.52,0,0,0,0,0,0,0,0,0,0,0,0,0,0,0,0,
50,70.44,45.3,-21.78,-31.3,-105.2,-49.77,-12.86,-33.56,-109.9,14.98,1.704,18.96,29.37,10.26,38.17,29.03,0,0,0,0,0,0,0,0,0,0,0,0,0,0,0,0,
51,42.76,41.2,-33.92,-40.53,-95.46,-48.9,-16.28,-24.72,-69.53,-14.78,-1.948,1.685,32.56,22.11,40.88,28.83,0,0,0,0,0,0,0,0,0,0,0,0,0,0,0,0,
52,0.5411,45.3,-35.99,-42.09,-83.4,-56.46,-22.37,-29.95,-36.63,-42.81,-4.846,-13.21,30.13,31.45,18.45,19.53,0,0,0,0,0,0,0,0,0,0,0,0,0,0,0,0,
53,-7.514,28.04,-35.04,-37.93,-85,-80.4,-39.37,-23.91,-75.28,-5.637,-24.17,-26.75,5.712,9.406,-10.21,1.355,0,0,0,0,0,0,0,0,0,0,0,0,0,0,0,0,
54,2.843,-1.641,-38.34,-30.88,-77.05,-94.94,-46.05,4.301,-117.8,32.94,-32.82,-24.35,-3.814,-9.28,-3.112,7.811,0,0,0,0,0,0,0,0,0,0,0,0,0,0,0,0,
55,15.17,0.9949,-42.23,-31.2,-57.87,-90.01,-46.49,8.739,-112,7.126,-24.8,-15.67,5.968,-1.626,5.38,18.56,0,0,0,0,0,0,0,0,0,0,0,0,0,0,0,0,
56,14.87,18.37,-41.38,-38.85,-58.1,-86.07,-48.53,-2.622,-80.73,-12.3,-13.64,-10.23,11.11,8.056,1.1,17.06,0,0,0,0,0,0,0,0,0,0,0,0,0,0,0,0,
57,8.186,19.53,-39.34,-36.44,-66.38,-88.91,-44.73,4.045,-63.69,-0.1142,-16.71,-7.054,7.918,-1.59,5.317,12.12,0,0,0,0,0,0,0,0,0,0,0,0,0,0,0,0,
58,3.909,4.703,-50.42,-29.79,-64.96,-97.07,-44.84,-1.092,-79.09,-6.983,-40.25,-14.93,1.594,-11.54,12.12,4.896,0,0,0,0,0,0,0,0,0,0,0,0,0,0,0,0,
59,2.741,-0.7389,-51.08,-19.21,-53.39,-86.43,-41.37,-7.875,-87.74,-8.856,-45.47,-20.25,-0.3907,0.1543,14.41,3.193,0,0,0,0,0,0,0,0,0,0,0,0,0,0,0,0,
60,2.372,-2.335,-42.82,-15.58,-46.23,-69.43,-45.48,6.048,-75.35,-1.685,-39,-27.07,-13.45,-3.238,-1.82,-4.517,0,0,0,0,0,0,0,0,0,0,0,0,0,0,0,0,
61,-15.83,-28.37,-61.44,-37.02,-52.75,-88.85,-69.62,10.86,-77.96,-8.856,-44.11,-36.69,-28.58,-25.28,-18.06,-14.05,0,0,0,0,0,0,0,0,0,0,0,0,0,0,0,0,
62,-21.08,-41.59,-77.47,-50.16,-62.73,-109.3,-76.46,5.809,-100.2,-7.131,-32.53,-24.48,-21.17,-25.84,-6.866,-9.564,0,0,0,0,0,0,0,0,0,0,0,0,0,0,0,0,
63,2.424,-34.94,-78.3,-49.17,-82.42,-101.5,-73.94,-7.077,-107.9,-12.19,-21.82,-23.69,-24.47,-24.25,-3.946,-14.16,0,0,0,0,0,0,0,0,0,0,0,0,0,0,0,0,
64,-16.22,-46.39,-88.2,-55.63,-88.09,-92.17,-77.1,-23.21,-75.26,-19,-25.01,-44.96,-37.34,-24.85,-11.68,-18.15,0,0,0,0,0,0,0,0,0,0,0,0,0,0,0,0,
65,-48.41,-40.22,-87.13,-49.17,-61.82,-82.26,-58.25,-11.81,-53.65,2.85,-17.54,-40.31,-26.67,-9.948,-5.934,-4.872,0,0,0,0,0,0,0,0,0,0,0,0,0,0,0,0,
66,-11.98,-19.47,-78.6,-37.27,-61.1,-81.48,-45.81,6.307,-81.33,3.261,-33.15,-33.03,-23.28,-6.426,-12.99,-5.016,0,0,0,0,0,0,0,0,0,0,0,0,0,0,0,0,
67,12.37,-31.57,-82.08,-38.32,-83.47,-102.6,-55.75,7.999,-92.83,-20.8,-68.41,-49.54,-31.79,-6.463,-24.96,-9.236,0,0,0,0,0,0,0,0,0,0,0,0,0,0,0,0,
68,-27.4,-31.76,-92.38,-37.34,-80.31,-109,-47.74,12.78,-87.11,-13.19,-63.27,-46.61,-15.92,13.24,-11.12,10.97,0,0,0,0,0,0,0,0,0,0,0,0,0,0,0,0,
69,-23.78,3.877,-113,-32.43,-74.23,-83.4,-31.16,14.61,-104.3,9.739,-37.32,-20.69,11.43,30.75,9.895,34.65,0,0,0,0,0,0,0,0,0,0,0,0,0,0,0,0,
70,27.47,19.79,-126.6,-27.69,-80.96,-73.53,-32.89,-1.777,-103.7,20.99,-33.14,-7.683,26.65,38.7,22.79,42.14,0,0,0,0,0,0,0,0,0,0,0,0,0,0,0,0,
71,33.99,21.23,-117.9,-27.71,-87.48,-92.62,-29.4,-24.29,-81,24.13,-26.09,5.492,46.35,54.11,40.67,51.8,0,0,0,0,0,0,0,0,0,0,0,0,0,0,0,0,
72,34.63,63.28,-98.55,-27.66,-87.46,-80.78,0.4533,-29.86,-56.42,26.58,-5.804,32.95,74.65,70.06,53.09,67.83,0,0,0,0,0,0,0,0,0,0,0,0,0,0,0,0,
73,59.82,102.7,-83.37,-22.92,-84.94,-58.41,12.14,-25.66,-43.12,34.29,-15.64,34.28,69.69,57.9,38.17,61.04,0,0,0,0,0,0,0,0,0,0,0,0,0,0,0,0,
74,49.38,69.99,-92.57,-35.66,-96.88,-89.32,-19.04,-37.18,-67.21,34.47,-38.57,14.99,42.59,36.82,29.41,50.63,0,0,0,0,0,0,0,0,0,0,0,0,0,0,0,0,
75,36.8,43.07,-106.9,-49.39,-103.1,-108.6,-23.65,-41.91,-74.59,31.67,-23.52,17.51,48.02,46.17,39.37,61.02,0,0,0,0,0,0,0,0,0,0,0,0,0,0,0,0,
76,49.45,73.28,-104.2,-40.85,-98.93,-81.75,3.873,-23.25,-59.05,36.72,-19,14.22,52.39,50.37,19.46,48.21,0,0,0,0,0,0,0,0,0,0,0,0,0,0,0,0,
77,48.26,70.5,-107.5,-32.68,-116.3,-76.97,-0.7501,-8.518,-89.08,29.14,-43.86,5.107,31.54,30.69,2.636,26.32,0,0,0,0,0,0,0,0,0,0,0,0,0,0,0,0,
78,68.3,40.47,-109.9,-20.75,-126.5,-89.74,-8.365,-3.357,-98.45,14.47,-35.1,17.85,31.44,27.75,27.01,38.33,0,0,0,0,0,0,0,0,0,0,0,0,0,0,0,0,
79,83.81,49.91,-107,-10.33,-112.9,-93.34,9.208,-5.546,-54.27,21.98,-23.49,8.351,43.72,41.67,29.72,45.83,0,0,0,0,0,0,0,0,0,0,0,0,0,0,0,0,
80,39.2,69.14,-115.5,-22.53,-115.4,-95.75,15.33,-11.85,-51.3,35.05,-50.06,-15.85,46.95,55.13,10.05,41.2,0,0,0,0,0,0,0,0,0,0,0,0,0,0,0,0,
81,21.39,71.79,-120.9,-32.65,-133.4,-92.82,5.937,-9.448,-74.58,21.91,-70.04,-12.28,43.98,47.45,9.827,43.36,0,0,0,0,0,0,0,0,0,0,0,0,0,0,0,0,
82,45.23,59.79,-129.7,-39.28,-138,-98.75,-3.771,-7.326,-75.08,2.652,-80.8,-12.88,30.1,14.15,6.487,34.98,0,0,0,0,0,0,0,0,0,0,0,0,0,0,0,0,
83,36.14,49.97,-145.8,-50.52,-116.7,-104.1,-4.487,-5.99,-86.26,4.209,-102.1,-22.12,29.36,8.263,-2.717,28.85,0,0,0,0,0,0,0,0,0,0,0,0,0,0,0,0,
84,20.46,64.03,-142.8,-43.73,-85,-82.5,2.748,6.055,-94.85,12.58,-99.3,-12.41,45.42,31.4,5.797,41.17,0,0,0,0,0,0,0,0,0,0,0,0,0,0,0,0,
85,36.99,76.59,-126.6,-22.56,-61.79,-45.82,17.19,26.33,-63.06,20.36,-45.44,21.79,65.12,49.93,42.04,70.42,0,0,0,0,0,0,0,0,0,0,0,0,0,0,0,0,
86,91.87,98.47,-99.99,8.054,-28.68,0.2716,56.04,52.36,-0.2787,20.23,32.23,79.73,105.4,83.4,96.02,113.4,0,0,0,0,0,0,0,0,0,0,0,0,0,0,0,0,
87,154.7,146.2,-59,41.4,20.32,35.17,89.61,73.75,66.03,17.87,92.46,125.5,137.9,112.2,131.1,138.5,0,0,0,0,0,0,0,0,0,0,0,0,0,0,0,0,
88,165.4,149.9,-39.67,40.62,44.66,19.95,71.77,71.57,72.92,47.83,106.9,124.2,121,98.44,129,125.3,0,0,0,0,0,0,0,0,0,0,0,0,0,0,0,0,
89,139.9,92.02,-72.47,-2.25,4.849,-33.21,21.49,36.2,0.9306,55.16,54.22,76.92,77.46,70.69,93.59,89.42,0,0,0,0,0,0,0,0,0,0,0,0,0,0,0,0,
90,95.12,42.05,-125.5,-46.75,-56.04,-76.57,-19.22,4.701,-49.08,-0.1758,-9.371,19.59,46.62,53.86,53.62,61.48,0,0,0,0,0,0,0,0,0,0,0,0,0,0,0,0,
91,41.37,27.42,-134.6,-51.77,-51.85,-82.05,-26.92,22.9,-46.7,-16.98,-7.286,6.547,34.46,35.51,41.42,51.03,0,0,0,0,0,0,0,0,0,0,0,0,0,0,0,0,
92,45.6,22.58,-110.5,-33.53,-26.6,-72.93,-17.61,41.16,-59.12,7.612,2.572,10.22,18.77,14.26,27.48,29.33,0,0,0,0,0,0,0,0,0,0,0,0,0,0,0,0,
93,67.53,11.44,-106.8,-32.94,-48.79,-74.35,-18.35,28.59,-52.07,-2.52,-22.87,-16.4,0.1325,5.933,-2.049,2.283,0,0,0,0,0,0,0,0,0,0,0,0,0,0,0,0,
94,30.29,5.912,-109.9,-40.05,-62.13,-79.57,-20,39.39,-22.45,-11.19,-31.02,-34.89,-3.045,6.801,-13.01,-3.382,0,0,0,0,0,0,0,0,0,0,0,0,0,0,0,0,
95,-0.0179,7.027,-116.6,-45.27,-62.4,-94.76,-23.57,49.25,-52.31,-11.98,-35.3,-31.7,0.307,10.65,-10.21,-2.01,0,0,0,0,0,0,0,0,0,0,0,0,0,0,0,0,
96,10.43,6.755,-137.7,-59.19,-81.66,-105,-34.47,28.52,-82.45,-23.81,-55.07,-36.04,-0.8153,17.43,-15.72,-6.866,0,0,0,0,0,0,0,0,0,0,0,0,0,0,0,0,
97,-1.664,2.615,-134.5,-72.41,-85.55,-99.75,-39.49,27.9,-67.9,-16.31,-71.74,-48.57,-13.69,-4.054,-34.08,-21.11,0,0,0,0,0,0,0,0,0,0,0,0,0,0,0,0,
98,-30.69,-9.978,-118.8,-80.94,-97.54,-109.9,-41.16,37.2,-92.7,-12.65,-97.37,-55.66,-23.71,-34.68,-44.21,-28.09,0,0,0,0,0,0,0,0,0,0,0,0,0,0,0,0,
99,-24.06,-10.86,-124.9,-79.13,-127.1,-112.8,-39.86,28.01,-137,-15.69,-119.8,-51.81,-10.54,-25.6,-33.41,-16.59,0,0,0,0,0,0,0,0,0,0,0,0,0,0,0,0,
100,-3.654,-8.346,-131.6,-67.19,-123,-95.59,-36.12,20.42,-149.6,1.12,-135.5,-57.15,-5.841,-17.95,-38.37,-20.71,0,0,0,0,0,0,0,0,0,0,0,0,0,0,0,0,
101,-8.2,-17.04,-136,-64.61,-124.3,-100.6,-24.56,16.53,-158.7,0.6069,-152.3,-60.7,1.733,-10.83,-45.78,-20.63,0,0,0,0,0,0,0,0,0,0,0,0,0,0,0,0,
102,-7.91,18.42,-146.1,-68.17,-148.9,-110.7,4.3,21.49,-146.1,-11.13,-131.9,-35.48,32.73,22.1,-27.96,1.9,0,0,0,0,0,0,0,0,0,0,0,0,0,0,0,0,
103,3.693,54.43,-134.5,-65.14,-103.6,-108.9,12.19,38.01,-90.36,2.227,-81.39,-21.38,17.11,6.001,-28.29,-8.839,0,0,0,0,0,0,0,0,0,0,0,0,0,0,0,0,
104,16.69,9.031,-85.48,-40.14,10.44,-96.36,2.951,43.99,-35.39,14.37,-35.33,-8.917,-16.32,-30.14,-22.21,-17.16,0,0,0,0,0,0,0,0,0,0,0,0,0,0,0,0,
105,78.85,-11.51,-34.9,4.577,74.98,-43.41,30.38,37.78,-7.175,14.44,6.386,41.96,17.91,-2.141,24.8,21.93,0,0,0,0,0,0,0,0,0,0,0,0,0,0,0,0,
106,141.7,37.65,-29.34,18.13,76.7,8.565,54.89,31.33,26.53,9.58,24.15,58.82,47.11,14.32,37.21,32.5,0,0,0,0,0,0,0,0,0,0,0,0,0,0,0,0,
107,103.9,44.58,-56.85,-7.684,85.93,-0.9193,31.16,19.76,64.24,-13.13,19.34,19.41,21.59,-10.45,9.582,6.207,0,0,0,0,0,0,0,0,0,0,0,0,0,0,0,0,
108,41.46,13.86,-87.4,-31.33,86.69,-38.27,-1.387,-9.141,49.62,-31.34,28.54,6.736,5.322,-9.6,13.96,4.666,0,0,0,0,0,0,0,0,0,0,0,0,0,0,0,0,
109,46.55,1.644,-107.3,-41.62,74.91,-59.35,-14.6,-37.8,26.23,-23.16,53.04,22.81,8.803,-3.048,33.04,17.12,0,0,0,0,0,0,0,0,0,0,0,0,0,0,0,0,
110,65.13,-5.826,-99.44,-40.77,97.97,-65.97,-10.13,-36.59,51.79,-24.21,60.26,20.6,8.264,-15.23,22.85,18.23,0,0,0,0,0,0,0,0,0,0,0,0,0,0,0,0,
111,63.94,-4.979,-89.15,-41.85,109.9,-73.69,-0.8268,-26.62,45.83,-36.18,28.93,5.509,7.588,-13.71,3.133,13.35,0,0,0,0,0,0,0,0,0,0,0,0,0,0,0,0,
112,62.33,6.182,-100.8,-50.34,79.46,-82.78,-3.869,-40.19,-1.816,-21.79,-12.17,-10.52,4.152,-1.127,-6.341,4.385,0,0,0,0,0,0,0,0,0,0,0,0,0,0,0,0,
113,36.74,3.044,-112.5,-53.44,60.37,-88.04,-19.72,-64.8,-18.36,-15.12,-33.59,-35.8,-10.97,-6.869,-20.64,-10.34,0,0,0,0,0,0,0,0,0,0,0,0,0,0,0,0,
114,-15.89,-15,-122.3,-63.63,56.73,-92.86,-38.96,-64.97,-26.38,-28.33,-49.54,-59.32,-26.85,-21.65,-34.56,-19.56,0,0,0,0,0,0,0,0,0,0,0,0,0,0,0,0,
115,-35.71,-24.67,-127.5,-76.48,54.08,-89.13,-44.6,-36.06,-50.49,-10.17,-59.27,-56.89,-26.36,-19.01,-34.33,-17.95,0,0,0,0,0,0,0,0,0,0,0,0,0,0,0,0,
116,-5.516,-18.62,-126.9,-74.98,49.01,-86.52,-39.39,-26.53,-77.7,3.817,-57.21,-42.9,-23.71,-13.19,-35.8,-19.5,0,0,0,0,0,0,0,0,0,0,0,0,0,0,0,0,
117,16.93,-17.17,-140.5,-73.49,32.37,-99.67,-41.93,-40.56,-85.35,-11.12,-60.38,-47.51,-36.6,-24.74,-40.48,-23.94,0,0,0,0,0,0,0,0,0,0,0,0,0,0,0,0,
118,-5.862,-28.57,-146.2,-73.07,28.05,-102.4,-44.77,-39.4,-47.6,-7.39,-68.15,-64.48,-48.91,-37.74,-37.97,-23.55,0,0,0,0,0,0,0,0,0,0,0,0,0,0,0,0,
119,-42.5,-30,-131.4,-74.46,35.09,-94.35,-41.49,-46.94,-16.88,-18.98,-65.63,-63.8,-38.69,-29.46,-27.19,-13.22,0,0,0,0,0,0,0,0,0,0,0,0,0,0,0,0,
120,-38.09,-10.11,-122.8,-83.85,25.7,-99.97,-37.74,-61.49,-32.55,-51.25,-53.69,-40.99,-15.9,-8.873,-11.65,5.48,0,0,0,0,0,0,0,0,0,0,0,0,0,0,0,0,
121,-5.517,-5.2,-118.7,-86.77,6.548,-102.3,-35.57,-46.83,-48.42,-35.73,-48.91,-29.18,-12.58,-12.2,-10.82,5.16,0,0,0,0,0,0,0,0,0,0,0,0,0,0,0,0,
122,1.814,-25.32,-107.3,-77.57,5.973,-79.11,-29.46,-36.7,-38.79,-6.787,-42.76,-22.77,-12.06,-20.37,-7.545,3.029,0,0,0,0,0,0,0,0,0,0,0,0,0,0,0,0,
123,13.08,-10.21,-87.67,-55.68,38.91,-40.37,-8.812,-41.18,-18.73,-15.01,-17.87,7.717,15.39,10.8,18.42,31.7,0,0,0,0,0,0,0,0,0,0,0,0,0,0,0,0,
124,56.12,27.59,-75.29,-39.1,62.46,-8.83,1.329,-36.58,-13.65,-32.24,0.3209,31.23,33.12,36.39,31.44,50.39,0,0,0,0,0,0,0,0,0,0,0,0,0,0,0,0,
125,74.15,25.01,-76.29,-42.63,64.15,16.21,-8.027,-42.95,-3.105,-29.94,12.29,39.55,37.33,30.17,42.15,57.33,0,0,0,0,0,0,0,0,0,0,0,0,0,0,0,0,
126,61.06,28.76,-57.31,-28.48,96.17,41.27,9.9,-56.82,40.36,-1.656,40.96,62.21,65.02,42.66,72.01,86.48,0,0,0,0,0,0,0,0,0,0,0,0,0,0,0,0,
127,64.74,72.28,-30.08,3.109,127.4,50.2,49.26,-55.34,54.61,23.99,60.15,79.4,93.95,71.61,88.02,105.4,0,0,0,0,0,0,0,0,0,0,0,0,0,0,0,0,
128,82.61,101,-26.44,16.5,127,52.96,70.17,-44.17,37.9,34.76,65.37,79.68,102.4,82.05,95.91,101.9,0,0,0,0,0,0,0,0,0,0,0,0,0,0,0,0,
129,82.13,101.5,-19.74,28.1,137.1,59.31,80.07,-29.67,52.52,55.08,75.27,77.88,98.79,75.16,104.5,99.74,0,0,0,0,0,0,0,0,0,0,0,0,0,0,0,0,
130,72.03,100.3,-1.98,46.19,144.2,51.37,89.22,-13.43,53.4,54.68,82.78,84.06,95.55,71.54,106.1,103.2,0,0,0,0,0,0,0,0,0,0,0,0,0,0,0,0,
131,96.69,116,8.075,53.51,141.3,36.28,92,-4.558,30.49,23.26,86.74,94.85,97.19,77.86,108.2,99.97,0,0,0,0,0,0,0,0,0,0,0,0,0,0,0,0,
132,107.4,120.6,3.239,41.28,143.4,8.788,75.23,-16.3,46.63,32.84,78.3,69.45,72.32,68.05,83.35,69.68,0,0,0,0,0,0,0,0,0,0,0,0,0,0,0,0,
133,40.65,75.32,-13.85,12.85,120.3,-28.24,42.29,-30.06,65.45,79.01,63.1,28.7,35.09,46.31,47.22,44.01,0,0,0,0,0,0,0,0,0,0,0,0,0,0,0,0,
134,3.345,34.16,-18.46,-0.2064,90.89,-36.95,25.34,-25.2,43.62,73.74,62.24,32.4,29.62,36.82,45.99,50.56,0,0,0,0,0,0,0,0,0,0,0,0,0,0,0,0,
135,41.79,33.46,-18.49,10.22,89.59,-32.68,24.94,-34.4,25.56,25.33,60.89,38.78,25.64,25.56,47.39,49.23,0,0,0,0,0,0,0,0,0,0,0,0,0,0,0,0,
136,43.64,27.07,-32.03,18.45,101.2,-29.1,21.04,-57.02,29.4,6.66,61.34,21.54,11.8,15.56,39.42,40.57,0,0,0,0,0,0,0,0,0,0,0,0,0,0,0,0,
137,13.93,12.22,-34.59,15.55,114.5,-16.13,8.504,-58.6,22.66,3.998,72.07,15.98,10.15,11.85,39.46,41.79,0,0,0,0,0,0,0,0,0,0,0,0,0,0,0,0,
138,8.446,2.268,-34.63,4.218,114.8,-28.65,-11.6,-60.75,9.521,-12.54,65.61,9.643,3.162,-1.786,32.36,31.47,0,0,0,0,0,0,0,0,0,0,0,0,0,0,0,0,
139,-4.019,-10.68,-51.11,-3.991,99.98,-60.92,-24.79,-79.74,7.718,-23.8,37.8,-7.157,-6.795,-14.57,24.05,16.66,0,0,0,0,0,0,0,0,0,0,0,0,0,0,0,0,
140,-24.9,-21.77,-61.49,-14.71,92.37,-77.77,-36.31,-98.91,-2.03,-39.63,5.558,-23.11,-9.398,-20.02,14.03,6.803,0,0,0,0,0,0,0,0,0,0,0,0,0,0,0,0,
141,-37.47,-36.62,-54.59,-36.46,94.26,-79.15,-51.78,-104.5,-16.47,-47.72,-8.168,-30.01,-12.54,-19.55,-0.4084,0.1679,0,0,0,0,0,0,0,0,0,0,0,0,0,0,0,0,
142,-30.25,-43.4,-37.21,-40.73,93.48,-58.45,-45.49,-89.84,-21.37,-26.46,11.68,-13.11,-8.383,-12.78,2.976,4.607,0,0,0,0,0,0,0,0,0,0,0,0,0,0,0,0,
143,-0.2734,-22.21,-22.34,-34.11,86.38,-45.9,-29.83,-79.74,-18.58,-38.46,37.63,2.513,-1.002,-14.51,10.38,9.055,0,0,0,0,0,0,0,0,0,0,0,0,0,0,0,0,
144,0.666,-0.6645,-13.24,-38.64,89.32,-66.79,-29.85,-84.09,-4.124,-81.7,52.56,-0.5508,-3.138,-19.65,7.812,7.39,0,0,0,0,0,0,0,0,0,0,0,0,0,0,0,0,
145,-4.014,-7.532,-1.982,-28.96,100.7,-63.02,-28.63,-81.78,-12.66,-68.16,68.68,14.25,-8.712,-20.93,19.75,9.839,0,0,0,0,0,0,0,0,0,0,0,0,0,0,0,0,
146,52.92,-20.28,-0.0683,-9.028,107.8,-20.9,-17.41,-73.18,-16.18,-21.82,88.03,43.16,-3.327,-16.84,44.7,21.8,0,0,0,0,0,0,0,0,0,0,0,0,0,0,0,0,
147,72.54,-9.073,-6.844,-6.651,129.9,-7.403,-7.895,-63.2,49.88,-20.37,89.8,36.79,7.739,-2.468,44.31,31.29,0,0,0,0,0,0,0,0,0,0,0,0,0,0,0,0,
148,2.952,2.605,-7.396,-13.6,141.8,-31.75,-3.146,-57.32,68.89,-39.78,65.6,9.178,5.793,3.418,18.95,24.08,0,0,0,0,0,0,0,0,0,0,0,0,0,0,0,0,
149,-1.335,-0.0834,-2.984,-10.46,122.9,-37.3,9.732,-51.78,7.29,-23.51,62.38,12.25,5.405,7.759,14.21,19.12,0,0,0,0,0,0,0,0,0,0,0,0,0,0,0,0,
150,49.16,2.159,-5.16,-2.014,121.6,-32.2,14.25,-36.17,24.8,-4.764,73.43,12.53,2.481,13.42,15.69,13.1,0,0,0,0,0,0,0,0,0,0,0,0,0,0,0,0,
151,0.6461,-18.77,-26.12,-14.98,117.9,-65.22,-19.56,-40.48,75.95,-24.36,45.21,-21.95,-27.17,-13.89,-7.735,-11.36,0,0,0,0,0,0,0,0,0,0,0,0,0,0,0,0,
152,-55.88,-56.82,-44.79,-37.63,84.44,-100.2,-46.95,-67.98,47.81,-35.37,26.64,-33.12,-46.82,-47.17,-23.02,-23.86,0,0,0,0,0,0,0,0,0,0,0,0,0,0,0,0,
153,-27.81,-59.98,-52.93,-46.05,69.2,-110.1,-46.7,-80.27,10.77,-37.78,28.11,-30.91,-48.12,-55.72,-33.92,-25.83,0,0,0,0,0,0,0,0,0,0,0,0,0,0,0,0,
154,-27.66,-56.85,-71.58,-57.77,74.32,-121.3,-60.69,-78.23,4.911,-66.21,-4.832,-54.44,-59.25,-58.97,-49.24,-32.66,0,0,0,0,0,0,0,0,0,0,0,0,0,0,0,0,
155,-50.85,-64.57,-69.63,-63.21,83.23,-112.8,-64.83,-77.12,5.826,-73.01,-21.39,-57.15,-63.93,-61.82,-40.76,-29.75,0,0,0,0,0,0,0,0,0,0,0,0,0,0,0,0,
156,-35.45,-64.17,-52.41,-53.78,88.53,-96.2,-48.81,-87.51,-5.871,-62.14,-6.156,-44.33,-67.82,-72.96,-35.81,-33.94,0,0,0,0,0,0,0,0,0,0,0,0,0,0,0,0,
157,-33.69,-67.47,-63.32,-51.14,80.47,-101.2,-44.68,-101.4,-26.4,-71.95,-10.33,-43.16,-65.28,-70.46,-36.65,-32.75,0,0,0,0,0,0,0,0,0,0,0,0,0,0,0,0,
158,-43.43,-54.04,-66.12,-47.87,87.97,-95.58,-38.33,-100,-18.74,-74.38,-13.55,-29.76,-38.55,-41.98,-19.89,-11.22,0,0,0,0,0,0,0,0,0,0,0,0,0,0,0,0,
159,-38.7,-39.13,-62.92,-58.89,84.95,-92.95,-45.45,-112.4,-16.64,-82.65,1.236,-16.5,-32.57,-47.48,-14.64,-9.158,0,0,0,0,0,0,0,0,0,0,0,0,0,0,0,0,
160,-32.89,-55.46,-81.95,-90.19,44.59,-105.9,-72.03,-137.4,-24.64,-95.82,28.18,-2.141,-38.78,-66.71,-3.525,-7.287,0,0,0,0,0,0,0,0,0,0,0,0,0,0,0,0,
161,-22.24,-53.44,-84.48,-97.32,38.66,-103.9,-76.59,-134.9,1.904,-75.79,52.81,25.8,-15.73,-45.67,26.1,14.08,0,0,0,0,0,0,0,0,0,0,0,0,0,0,0,0,
162,2.196,-32.7,-84.81,-89.13,58.16,-96.68,-70.68,-126,-12.41,-60.69,55.44,49.91,10.75,-24.44,37.75,21.6,0,0,0,0,0,0,0,0,0,0,0,0,0,0,0,0,
163,69.22,-20.4,-97.64,-86.15,29.87,-75.13,-58.08,-128.3,-53.81,-57.34,63.32,72.31,29.12,-15.68,44.49,25.89,0,0,0,0,0,0,0,0,0,0,0,0,0,0,0,0,
164,109.2,0.5908,-89.58,-76.24,-1.006,-51.57,-33.27,-130.9,1.478,-41.74,61.32,64.49,33.14,-6.075,45.25,27.88,0,0,0,0,0,0,0,0,0,0,0,0,0,0,0,0,
165,26.43,3.818,-86.6,-70.69,25.59,-71.05,-31.31,-133.5,64.92,-55.34,26.1,24.95,20.87,-1.831,28.78,20.02,0,0,0,0,0,0,0,0,0,0,0,0,0,0,0,0,
166,-38.71,-1.034,-95.95,-67.31,57.61,-88.39,-36.7,-123.8,27.86,-82.48,16.39,15.72,23.41,12.93,24.27,27.41,0,0,0,0,0,0,0,0,0,0,0,0,0,0,0,0,
167,-3.525,14.79,-89.43,-61.06,41.85,-75.87,-28.06,-113.8,-1.406,-67.03,32.92,15.27,22.2,19.41,21.49,33.52,0,0,0,0,0,0,0,0,0,0,0,0,0,0,0,0,
168,-4.153,2.601,-83.28,-62.15,22.88,-70.58,-27.07,-122.1,30.81,-41.67,38.02,-3.841,2.546,-0.2872,11.09,25.88,0,0,0,0,0,0,0,0,0,0,0,0,0,0,0,0,
169,-29.19,-23.81,-81.31,-63.33,27.89,-69.22,-26.16,-129.8,26.13,-44.24,42.77,-2.038,2.064,-6.125,14.51,30.66,0,0,0,0,0,0,0,0,0,0,0,0,0,0,0,0,
170,1.682,-6.354,-65.71,-63.92,26.93,-65.23,-13.81,-120.8,-12.03,-38.17,33.38,8.82,20.87,13.61,22.68,44.31,0,0,0,0,0,0,0,0,0,0,0,0,0,0,0,0,
171,25.27,21.82,-39.71,-61.4,35.38,-62.44,-0.939,-95.25,6.817,-9.97,9.958,2.061,30.58,26.14,21.19,43.8,0,0,0,0,0,0,0,0,0,0,0,0,0,0,0,0,
172,-2.723,17.88,-30.59,-59.7,40.38,-68.52,0.0633,-76.11,27.49,-4.293,0.5259,-11.68,21.24,17.72,12.52,27.5,0,0,0,0,0,0,0,0,0,0,0,0,0,0,0,0,
173,-41.78,0.5114,-51.89,-75.75,-0.6209,-95.34,-12.26,-77.85,-17.86,-13.83,-5.774,-21.09,5.74,4.598,6.925,15.79,0,0,0,0,0,0,0,0,0,0,0,0,0,0,0,0,
174,-49.7,-7.993,-74.34,-94.47,-44.56,-124.4,-27.43,-81.7,-47.75,-10.82,-15.97,-25.7,-7.753,-8.803,2.712,5.281,0,0,0,0,0,0,0,0,0,0,0,0,0,0,0,0,
175,-43.59,-22.77,-89.57,-107.7,-65.22,-148.6,-46.75,-82.73,-47.71,-22.67,-9.449,-32.62,-28.77,-24.74,-6.35,-17.1,0,0,0,0,0,0,0,0,0,0,0,0,0,0,0,0,
176,-44.43,-42.92,-103,-120.8,-80.77,-163.8,-60.33,-75.67,-70.86,-39.69,18.07,-30.69,-42.46,-29.5,-6.373,-28.34,0,0,0,0,0,0,0,0,0,0,0,0,0,0,0,0,
177,-31.8,-42.81,-104.6,-127.2,-80.36,-158.8,-57.69,-66.42,-60.54,-37.89,42.14,-24.71,-45.95,-39.65,-7.607,-32.75,0,0,0,0,0,0,0,0,0,0,0,0,0,0,0,0,
178,-37.93,-35.99,-110.6,-131.4,-70.3,-148.2,-53.83,-77.13,-0.7057,-32.48,58.32,-29.1,-52.85,-54.49,-11.7,-40.85,0,0,0,0,0,0,0,0,0,0,0,0,0,0,0,0,
179,-61.52,-30.76,-115.2,-125.2,-58.68,-131.7,-50.05,-78.36,12.9,-19.87,72.55,-21.78,-49.73,-39.19,1.134,-33.81,0,0,0,0,0,0,0,0,0,0,0,0,0,0,0,0,
180,-37.45,-27.13,-99.05,-114.3,-52.19,-116.5,-56.6,-59.14,-28.58,-19.76,53.59,-16.82,-50.19,-27.66,-1.176,-32.94,0,0,0,0,0,0,0,0,0,0,0,0,0,0,0,0,
181,-15,-43.16,-74.88,-114.1,-53.16,-104.8,-68.35,-51.25,-33.37,-38.8,25.49,-29.09,-53.72,-33.52,-14.8,-35.5,0,0,0,0,0,0,0,0,0,0,0,0,0,0,0,0,
182,-38.28,-42.62,-43.89,-100.7,-27.89,-63.08,-48.59,-46.66,-1.012,-38.41,34.96,-29.73,-32.48,-17.88,-8.271,-17.07,0,0,0,0,0,0,0,0,0,0,0,0,0,0,0,0,
183,-47.91,-18.57,-27.05,-85.06,-1.557,-30.2,-31.26,-39.54,-2.693,-39.35,31.64,-36.51,-20.86,-9.864,-20.1,-10.35,0,0,0,0,0,0,0,0,0,0,0,0,0,0,0,0,
184,-34.3,-21.46,-32.73,-81.22,-6.208,-33.48,-36.17,-38.77,-7.664,-43.22,17.07,-42.91,-16.44,-9.954,-31.62,-0.9869,0,0,0,0,0,0,0,0,0,0,0,0,0,0,0,0,
185,-8.816,-9.588,-25.72,-68.74,8.747,-22.06,-12.29,-50.89,11.17,-26.49,47.21,-9.144,24.99,19.82,-2.152,34.13,0,0,0,0,0,0,0,0,0,0,0,0,0,0,0,0,
186,23.19,43.11,-27.23,-77.07,35.19,-21.33,13.11,-70.6,0.6068,-34.28,62.17,10.88,52.87,35.08,2.716,37.33,0,0,0,0,0,0,0,0,0,0,0,0,0,0,0,0,
187,14.88,55.5,-41.91,-90.04,27.95,-45.28,4.14,-50.23,-5.817,-40.47,26.29,-16.09,32.07,15.75,-28.3,11.51,0,0,0,0,0,0,0,0,0,0,0,0,0,0,0,0,
188,-15.98,24.3,-22.27,-52.45,14.6,-28.83,9.251,-6.578,15.71,8.969,20.24,-19.83,20.59,10.84,-23.99,15.48,0,0,0,0,0,0,0,0,0,0,0,0,0,0,0,0,
189,9.403,27.49,8.617,-11.98,7.525,8.184,39.27,5.719,0.0518,49.74,60.39,16.35,34.89,28.01,-3.687,30.21,0,0,0,0,0,0,0,0,0,0,0,0,0,0,0,0,
190,61.24,55.04,19.28,-3.884,-17.29,10.04,50.16,23.3,-15.5,41.81,66.89,20.2,28,31.78,-21.83,15.67,0,0,0,0,0,0,0,0,0,0,0,0,0,0,0,0,
191,39.38,43.78,18.75,-2.422,-46.72,-2.667,28.95,41.28,12.29,19.39,33.99,-12.96,0.1913,10.78,-35.1,-2.48,0,0,0,0,0,0,0,0,0,0,0,0,0,0,0,0,
192,-17.54,17.49,0.6523,-12.96,-54.05,-5.681,6.027,12.63,12.43,6.305,39.11,-11,-3.455,-6.029,-4.994,2.049,0,0,0,0,0,0,0,0,0,0,0,0,0,0,0,0,
193,-17.97,21.88,-31.36,-37.55,-61.82,-18.99,-5.644,-12.79,-18.94,8.056,71.07,8.45,2.087,-9.571,10.75,-0.4037,0,0,0,0,0,0,0,0,0,0,0,0,0,0,0,0,
194,-15.57,18.63,-57.3,-60.71,-86.7,-40.09,-23.01,-3.076,-23.71,8.411,76.87,-6.159,-15.53,-16.65,-1.767,-14.84,0,0,0,0,0,0,0,0,0,0,0,0,0,0,0,0,
195,-45.36,-8.175,-57.42,-66.94,-88.89,-33.07,-32.15,2.243,-17.38,2.348,78.38,-15.72,-31,-17.99,0.1702,-17.87,0,0,0,0,0,0,0,0,0,0,0,0,0,0,0,0,
196,-45.73,-20.12,-36.78,-56.35,-75.6,-19.26,-25.27,-10.37,-32.31,-3.089,74.81,-12.17,-36.97,-11.11,-2.469,-24.85,0,0,0,0,0,0,0,0,0,0,0,0,0,0,0,0,
197,-33.23,-22.83,-31.25,-59.06,-82.2,-27.59,-27.72,-23.44,-55.74,-14.07,56.6,-26.75,-47.89,-17.46,-15.1,-33.23,0,0,0,0,0,0,0,0,0,0,0,0,0,0,0,0,
198,-38.93,-34.22,-51.35,-79.83,-89.93,-27.65,-34.32,-26.39,-72.72,-24.57,51.63,-38.24,-55.86,-39.93,-12.42,-30.67,0,0,0,0,0,0,0,0,0,0,0,0,0,0,0,0,
199,-33.53,-40.5,-86.87,-95.58,-105.2,-23.7,-30.21,-26.32,-77.34,-29.18,47.89,-37.44,-56.22,-50.56,-11.64,-34.52,0,0,0,0,0,0,0,0,0,0,0,0,0,0,0,0,
200,-22.56,-30.89,-114.4,-93.01,-125.8,-26.61,-21.54,-22.43,-58.9,-28.11,42.73,-36.09,-45.09,-32.99,-18.78,-32.97,0,0,0,0,0,0,0,0,0,0,0,0,0,0,0,0,
201,-27.11,-22.64,-100.1,-74.58,-104.7,-15.12,-14.36,-14.51,-26.86,-23.41,48.29,-35.22,-27.35,-15.71,-26.78,-18.05,0,0,0,0,0,0,0,0,0,0,0,0,0,0,0,0,
202,-36.62,-20.35,-62.17,-61.44,-64.23,-9.257,-6.433,-12.98,5.447,-27.21,43.81,-31.35,-8.082,-2.175,-33.76,-7.859,0,0,0,0,0,0,0,0,0,0,0,0,0,0,0,0,
203,-30.34,8.335,-40.63,-56.37,-54.67,-15.57,6.773,-5.721,26.89,-25.52,34.66,-12.55,12.6,16.66,-28.24,-2.171,0,0,0,0,0,0,0,0,0,0,0,0,0,0,0,0,
204,-0.6509,34.08,-34.6,-44.96,-68.38,-7.069,15.39,2.068,13.41,1.551,33.55,12.49,14.68,4.858,-17.71,2.878,0,0,0,0,0,0,0,0,0,0,0,0,0,0,0,0,
205,42.44,20.15,-22.98,-26.42,-71.28,11.08,26.27,-4.692,0.9077,35.71,40.26,30.67,11.43,-10.93,-7.832,14.12,0,0,0,0,0,0,0,0,0,0,0,0,0,0,0,0,
206,67.06,26.57,-8.572,-12.72,-55.51,19.66,44.68,-4.245,27.8,44.26,44.33,31.64,20.17,9.73,-5.037,20.23,0,0,0,0,0,0,0,0,0,0,0,0,0,0,0,0,
207,31.7,47.35,-18.02,-26.04,-51.29,12.52,36.16,6.209,35.37,27.26,23.23,9.458,13.47,15.11,-10.83,8.907,0,0,0,0,0,0,0,0,0,0,0,0,0,0,0,0,
208,-20.3,31.61,-29.61,-47.19,-56.88,8.105,18.61,18.85,10.54,23.68,13.37,2.776,4.02,2.465,2.633,8.96,0,0,0,0,0,0,0,0,0,0,0,0,0,0,0,0,
209,-20.46,25.04,-18.38,-47.36,-61.2,5.267,24.11,27.74,3.702,27.47,30.59,10.42,1.431,5.179,15.63,9.43,0,0,0,0,0,0,0,0,0,0,0,0,0,0,0,0,
210,-19.39,23.61,-24.65,-61.96,-79.33,-23.18,8.624,8.009,-0.7181,5.816,22.11,-7.003,-23.49,-7.409,4.3,-12.01,0,0,0,0,0,0,0,0,0,0,0,0,0,0,0,0,
211,-44.13,-15.42,-42.51,-97.4,-88.68,-52.38,-31.09,-21.99,-26.69,-14.21,2.896,-24.32,-50.61,-36.62,-0.9822,-24.1,0,0,0,0,0,0,0,0,0,0,0,0,0,0,0,0,
212,-52.55,-47.12,-40.29,-117.2,-94.97,-67.11,-53.78,-41.4,-51.47,-25.96,-0.6406,-35.06,-61.78,-51.51,-9.027,-29.56,0,0,0,0,0,0,0,0,0,0,0,0,0,0,0,0,
213,-75.47,-51.16,-43.53,-125.9,-118.7,-91.82,-68.29,-66.67,-41.54,-42.16,-12.31,-58.05,-71.5,-52.73,-27.11,-42.26,0,0,0,0,0,0,0,0,0,0,0,0,0,0,0,0,
214,-120.5,-61.01,-54.88,-133.2,-120.6,-111.5,-84.39,-79.56,-14.94,-41.47,-27.71,-70.57,-74.43,-53.57,-33.52,-46.38,0,0,0,0,0,0,0,0,0,0,0,0,0,0,0,0,
215,-130.2,-66.84,-65.4,-135.2,-124.9,-113.1,-82.89,-68.81,-33.08,-45.68,-45,-71.6,-61.76,-49.07,-42.8,-42.75,0,0,0,0,0,0,0,0,0,0,0,0,0,0,0,0,
216,-105.9,-37.82,-77.48,-126.2,-154.2,-105,-56.61,-53.52,-61.01,-54.93,-63.44,-70.24,-39.24,-27.97,-54.13,-33.82,0,0,0,0,0,0,0,0,0,0,0,0,0,0,0,0,
217,-92.67,-14.49,-69.31,-107.6,-140.4,-93.05,-40.34,-32.87,-42.94,-25.53,-63.45,-63.11,-34.08,-22.86,-54.27,-27.56,0,0,0,0,0,0,0,0,0,0,0,0,0,0,0,0,
218,-93.43,-45.28,-46.7,-94.24,-107.4,-84.95,-49.22,-10.8,-39.6,2.062,-51.76,-50.95,-43.4,-40.88,-48.72,-22.21,0,0,0,0,0,0,0,0,0,0,0,0,0,0,0,0,
219,-68.56,-58.26,-37.01,-79.31,-123.3,-68.29,-38.59,-1.596,-60.33,-3.554,-46.55,-36.39,-31.93,-35.04,-44.19,-9.329,0,0,0,0,0,0,0,0,0,0,0,0,0,0,0,0,
220,-50.34,-18.57,-45.3,-68.3,-142.7,-49.89,-17.8,-6.2,-30.57,3.377,-56.88,-44.65,-21.21,-19.69,-52.35,-11.95,0,0,0,0,0,0,0,0,0,0,0,0,0,0,0,0,
221,-84.24,-7.103,-51.88,-70.71,-117.9,-39.03,-22.03,-9.179,14.46,17.33,-67.33,-54.27,-23.54,-19.71,-49.79,-18.04,0,0,0,0,0,0,0,0,0,0,0,0,0,0,0,0,
222,-78.63,-17.24,-37.33,-61.61,-89.81,-20.4,-20.87,-7.224,-8.567,7.926,-65.14,-31.07,-18.87,-20.99,-32.93,-14.9,0,0,0,0,0,0,0,0,0,0,0,0,0,0,0,0,
223,-21.82,-8.522,-25.68,-55.13,-95.24,-16.5,-9.692,-19.01,-40.5,2.877,-73.21,-30.74,-24.97,-26.48,-44.7,-29.48,0,0,0,0,0,0,0,0,0,0,0,0,0,0,0,0,
224,-29.71,-8.393,-21.11,-64.2,-100.8,-28.28,-5.923,-28.79,-4.049,9.959,-79.8,-56.02,-31.87,-24.9,-57.88,-35.4,0,0,0,0,0,0,0,0,0,0,0,0,0,0,0,0,
225,-62.16,-17.36,-1.96,-60.22,-98.28,-28.11,-4.512,-26.51,13.75,-4.271,-61.8,-50.18,-29.43,-26.77,-46.63,-25.3,0,0,0,0,0,0,0,0,0,0,0,0,0,0,0,0,
226,-45.95,-26.64,9.813,-53.69,-112.7,-29.17,-10.54,-34.42,-22.41,-23.22,-39.91,-37.29,-36.1,-46.02,-42.95,-29.89,0,0,0,0,0,0,0,0,0,0,0,0,0,0,0,0,
227,-32.93,-23.25,14.93,-48.52,-112.1,-23.04,-11.44,-25.32,-12.61,-24.7,-18.15,-31.53,-22.36,-31.77,-33.19,-18.98,0,0,0,0,0,0,0,0,0,0,0,0,0,0,0,0,
228,-31.3,3.014,25.27,-33.69,-90.09,-5.543,-3.25,14.97,26.05,-20.77,17.2,-6.055,9.806,6.35,-2.149,10.95,0,0,0,0,0,0,0,0,0,0,0,0,0,0,0,0,
229,-6.154,12.44,27.01,-26.67,-70.07,0.7157,0.2565,41.21,42.91,16.87,58.75,24.52,14.2,11.22,23.94,21.21,0,0,0,0,0,0,0,0,0,0,0,0,0,0,0,0,
230,18.31,-2.174,26.4,-30.1,-53.76,-6.117,-4.482,28.11,45.41,50.44,53.76,17.48,-9.43,-5.356,14.43,4.372,0,0,0,0,0,0,0,0,0,0,0,0,0,0,0,0,
231,-4.019,-24.1,0.1727,-54.68,-84.58,-46.06,-35.63,-15.23,-10.84,-0.4328,-24.31,-32.7,-40.22,-21.04,-28.35,-28.24,0,0,0,0,0,0,0,0,0,0,0,0,0,0,0,0,
232,-56.17,-48.62,-45.34,-90.21,-136.3,-91.52,-65.22,-44.28,-69.7,-41.77,-80.31,-62.64,-51.05,-25.56,-45.08,-42.44,0,0,0,0,0,0,0,0,0,0,0,0,0,0,0,0,
233,-77.48,-50.05,-44.99,-93.35,-137.8,-85.91,-58.83,-40,-53.41,-9.194,-76.45,-56.84,-44.26,-25.6,-37.67,-38.44,0,0,0,0,0,0,0,0,0,0,0,0,0,0,0,0,
234,-75.15,-41.44,-25.46,-81.71,-143.5,-71.75,-53.44,-37.5,-58.13,6.267,-90.72,-66.24,-46.71,-37.12,-60.68,-48.59,0,0,0,0,0,0,0,0,0,0,0,0,0,0,0,0,
235,-74.43,-35.39,-28.02,-70.75,-166.3,-76.88,-45.45,-30.73,-95.5,1.95,-113.1,-75.39,-44.95,-39.76,-81.71,-59.78,0,0,0,0,0,0,0,0,0,0,0,0,0,0,0,0,
236,-69.85,-18.97,-26.93,-51.16,-151.2,-76.56,-25.94,-19.55,-74.65,-1.924,-109.9,-72.43,-42.71,-39.16,-76.39,-65.66,0,0,0,0,0,0,0,0,0,0,0,0,0,0,0,0,
237,-82.1,-17.08,-21.81,-45.13,-133.2,-74.27,-26.57,-22.13,-40.02,-14.22,-103.4,-76.41,-43.04,-42.88,-70.8,-61.61,0,0,0,0,0,0,0,0,0,0,0,0,0,0,0,0,
238,-79.87,-9.099,-12.3,-36.91,-127.8,-63.52,-19.7,-7.501,-59.87,10.4,-92.46,-61.86,-20.87,-21.56,-59.87,-38.37,0,0,0,0,0,0,0,0,0,0,0,0,0,0,0,0,
239,-37.87,15.93,-7.153,-20.62,-118.8,-62.28,-14.25,3.365,-93.6,25.58,-97.17,-52.12,-17.3,-11.02,-58.69,-43.39,0,0,0,0,0,0,0,0,0,0,0,0,0,0,0,0,
240,-46.19,-12.59,-23.55,-31.94,-127.2,-84.77,-53.41,-21.7,-75.49,-13.14,-123.6,-78.87,-49.19,-42.81,-78.83,-74.49,0,0,0,0,0,0,0,0,0,0,0,0,0,0,0,0,
241,-98.91,-57.46,-23.7,-43.6,-133.1,-80.66,-72.91,-32.15,-32.12,-25.53,-119.3,-82.55,-48.03,-53.88,-78.36,-65.5,0,0,0,0,0,0,0,0,0,0,0,0,0,0,0,0,
242,-83.8,-31.82,-6.777,-31.25,-112,-55.73,-40.34,-24.83,-23.42,-6.769,-81.91,-49.04,-15.56,-25.15,-53.51,-35.39,0,0,0,0,0,0,0,0,0,0,0,0,0,0,0,0,
243,-39.68,-0.7784,-16.79,-30.81,-94.45,-66.57,-32.66,-41.09,-26.56,-8.559,-57.5,-39.99,-15.02,-22.03,-46.59,-38.25,0,0,0,0,0,0,0,0,0,0,0,0,0,0,0,0,
244,-49.93,-31.17,-41.65,-50.54,-106,-96.86,-65.91,-68.05,-35.79,-33.1,-58.3,-55.54,-37.98,-48.21,-55.95,-51.45,0,0,0,0,0,0,0,0,0,0,0,0,0,0,0,0,
245,-61.24,-51.93,-50.7,-59.1,-117.1,-93.64,-73.17,-75.22,-54.2,-66.46,-57.95,-52.64,-31.93,-34.23,-49.56,-36.61,0,0,0,0,0,0,0,0,0,0,0,0,0,0,0,0,
246,-50.73,-18.63,-46.5,-43.68,-107.6,-68.29,-45.58,-54.17,-33.95,-57.24,-43.38,-42.34,-10.42,3.61,-29.83,-15.12,0,0,0,0,0,0,0,0,0,0,0,0,0,0,0,0,
247,-68.81,-3.711,-45.75,-33,-112.8,-67.22,-37.36,-32.7,-20.96,-8.737,-29.44,-42.14,-18.1,-3.705,-13.28,-14.69,0,0,0,0,0,0,0,0,0,0,0,0,0,0,0,0,
248,-73.28,-28.9,-44.54,-44.2,-126.4,-71.04,-46.46,-35.45,-57.5,-5.431,-26.74,-37.16,-34.65,-25.64,-18.79,-26.75,0,0,0,0,0,0,0,0,0,0,0,0,0,0,0,0,
249,-48.35,-35.82,-39.49,-60.95,-128.7,-70.35,-46.26,-48.39,-77.87,-38.07,-55.37,-47.46,-38.56,-25.7,-58.34,-44.82,0,0,0,0,0,0,0,0,0,0,0,0,0,0,0,0,
250,-74.4,-32.33,-48.32,-75.11,-149.5,-101.7,-51.84,-66.03,-90.2,-39.54,-93.51,-68.36,-38.64,-24.22,-73.53,-49.06,0,0,0,0,0,0,0,0,0,0,0,0,0,0,0,0,
251,-98.09,-36.93,-54.41,-75.65,-157.1,-111.6,-52.76,-81.88,-111.9,-21.53,-77.17,-50.38,-24.35,-12.93,-38.81,-27.58,0,0,0,0,0,0,0,0,0,0,0,0,0,0,0,0,
252,-52.08,-27.84,-44.87,-62.1,-129.5,-63.54,-37.75,-66.16,-77.03,-10.01,-41.64,-29.39,-11.3,0.4475,-29.59,-17.8,0,0,0,0,0,0,0,0,0,0,0,0,0,0,0,0,
253,-39.1,-24.1,-43.64,-57.78,-125,-37.12,-33.79,-26.23,-19.65,-1.472,-40.5,-44.98,-20.18,-9.952,-48.05,-25.67,0,0,0,0,0,0,0,0,0,0,0,0,0,0,0,0,
254,-69.75,-36.89,-45.56,-65.46,-142.3,-47.84,-42.25,-14.17,-39.59,-11.91,-41.01,-56.63,-31.73,-24.09,-50.79,-30.64,0,0,0,0,0,0,0,0,0,0,0,0,0,0,0,0,
255,-59.63,-44.97,-47.95,-76.17,-144.4,-45.48,-47.82,-32.12,-86.43,-32.52,-37.08,-58.76,-37.46,-24.32,-59.25,-38.36,0,0,0,0,0,0,0,0,0,0,0,0,0,0,0,0,
256,-52.74,-46.94,-59.54,-79.86,-126.7,-27.41,-46.15,-29.56,-62.56,-30.7,-35.76,-61.97,-38.45,-24.03,-64.72,-41.43,0,0,0,0,0,0,0,0,0,0,0,0,0,0,0,0,
257,-69.01,-46.83,-66.24,-77.29,-106.6,-17.23,-44.9,-18.46,-33.22,-32.42,-19.22,-50.69,-38.01,-38.51,-49.87,-41.18,0,0,0,0,0,0,0,0,0,0,0,0,0,0,0,0,
258,-45.67,-51.57,-65.82,-83.82,-122,-28,-54.04,-29.86,-55.31,-45.02,-4.813,-38.71,-43.91,-55.25,-38.43,-47.13,0,0,0,0,0,0,0,0,0,0,0,0,0,0,0,0,
259,-22.74,-62.35,-55.6,-83.45,-154,-37.28,-58.14,-37.1,-46.78,-43.76,-13.6,-46.87,-47.54,-51.1,-36.01,-46.23,0,0,0,0,0,0,0,0,0,0,0,0,0,0,0,0,
260,-52.67,-66.44,-41.5,-71.43,-159.3,-25.15,-52.25,-40.39,-11.4,-64.32,-27.82,-58.9,-41,-34.07,-35.21,-34.85,0,0,0,0,0,0,0,0,0,0,0,0,0,0,0,0,
261,-62.19,-60.14,-43.74,-69.44,-157.6,-16.28,-47.68,-46.94,-11.9,-85.25,-17.75,-46.12,-26.72,-20.14,-27.88,-19.8,0,0,0,0,0,0,0,0,0,0,0,0,0,0,0,0,
262,-30.05,-57.79,-54.16,-71.5,-167.4,-32.67,-48.12,-42.92,-33.88,-53.63,-6.53,-30.71,-26.37,-23.68,-23.47,-21.39,0,0,0,0,0,0,0,0,0,0,0,0,0,0,0,0,
263,-27.28,-75.09,-63.16,-74.52,-177.9,-51.62,-58.1,-44.87,-80.91,-35.04,-23.09,-34.9,-38.83,-33.35,-28.34,-34.45,0,0,0,0,0,0,0,0,0,0,0,0,0,0,0,0,
264,-22.47,-79.16,-56.08,-68.1,-166.3,-36.16,-57.15,-37.04,-102.7,-52.76,-23.92,-23.13,-24.16,-18.31,-20.06,-21.88,0,0,0,0,0,0,0,0,0,0,0,0,0,0,0,0,
265,-1.863,-54.07,-29.61,-45.23,-129.6,-15.77,-42.72,-10.22,-31.97,-52.19,-14.11,-13.85,-8.958,-14.13,-20.75,-12.64,0,0,0,0,0,0,0,0,0,0,0,0,0,0,0,0,
266,-39.9,-48.31,-13.59,-34.52,-98.37,-21.49,-32.71,6.249,26.6,-36.67,-21.07,-27.93,-16.2,-27.13,-36.24,-21.47,0,0,0,0,0,0,0,0,0,0,0,0,0,0,0,0,
267,-54.89,-38.33,7.795,-20.58,-80.08,-0.3758,-0.2392,37.28,-2.216,-11.48,-0.0144,-11.98,-0.0604,-6.657,-26.14,-10.47,0,0,0,0,0,0,0,0,0,0,0,0,0,0,0,0,
268,13.27,-0.6921,29.16,5.605,-80.89,36.78,30.36,65.82,-33.93,5.487,14.08,5.447,8.993,-0.436,-20.33,-12.02,0,0,0,0,0,0,0,0,0,0,0,0,0,0,0,0,
269,30.68,-4.116,3.439,3.556,-95.96,29.9,11.45,49.47,-26.25,-12.28,-12,-10.02,-14.81,-25.52,-27.38,-30.66,0,0,0,0,0,0,0,0,0,0,0,0,0,0,0,0,
270,5.038,-27.97,-21.83,-7.59,-86.25,13.07,-5.899,47.23,-13.82,-21.54,-4.191,-0.57,-15.92,-12.56,-9.006,-19.83,0,0,0,0,0,0,0,0,0,0,0,0,0,0,0,0,
271,23.98,-16.71,-7.125,-3.05,-68.45,10.11,3.157,66.85,-0.1339,-11.7,19.94,16.57,-6.458,4.634,-0.1622,-9.445,0,0,0,0,0,0,0,0,0,0,0,0,0,0,0,0,
272,16.44,-8.935,4.622,-2.85,-62.49,8.236,4.432,56.55,28.98,-17.19,18.73,3.991,-14.87,-14.12,-12.01,-17.05,0,0,0,0,0,0,0,0,0,0,0,0,0,0,0,0,
273,-16.37,-18.2,-0.4653,-14.01,-53.87,14.38,-4.305,33.21,30.4,-21.39,33.03,1.438,-20.48,-24.77,-4.803,-16.59,0,0,0,0,0,0,0,0,0,0,0,0,0,0,0,0,
274,11.19,-26.22,-14.03,-39.88,-61.76,16.31,-13.75,6.075,-2.963,-14.26,47.81,18.87,-13.52,-13.34,14.82,-5.609,0,0,0,0,0,0,0,0,0,0,0,0,0,0,0,0,
275,55.06,-15.43,-20.38,-55.25,-64.21,26.28,-0.6844,-15.89,9.242,-19.26,43.98,37.53,18.02,10.94,32.58,19.08,0,0,0,0,0,0,0,0,0,0,0,0,0,0,0,0,
276,55.85,23.61,-22.57,-46.39,-42.91,49.43,23.8,-7.821,37.61,-31.34,50.37,46.26,48.37,31.42,46.54,40.37,0,0,0,0,0,0,0,0,0,0,0,0,0,0,0,0,
277,38.15,31.57,-49.9,-53.48,-48.56,43.46,9.947,-2.433,15.9,-20.97,51.21,32.97,36.75,27.48,43.69,35.85,0,0,0,0,0,0,0,0,0,0,0,0,0,0,0,0,
278,17.44,-1.983,-62.41,-59.13,-62.36,31.06,-4.724,-13.48,11.93,6.885,28.79,13.85,20.34,17.29,21.24,21.95,0,0,0,0,0,0,0,0,0,0,0,0,0,0,0,0,
279,11.73,1.027,-34.9,-31.12,-46.2,52.15,25.14,-10.5,30.94,18.44,16,16.89,31.08,18.63,5.207,16.21,0,0,0,0,0,0,0,0,0,0,0,0,0,0,0,0,
280,44.63,28.29,-26.42,-16.85,-41.97,61.62,43.16,-11.53,17.01,14.25,30.01,35.17,38.96,20.62,16.14,19.92,0,0,0,0,0,0,0,0,0,0,0,0,0,0,0,0,
281,61.14,22.18,-27.38,-24.41,-54.35,41.16,32.44,-27.19,8.151,17.99,43.93,47.84,40.08,22.98,36.6,33.41,0,0,0,0,0,0,0,0,0,0,0,0,0,0,0,0,
282,49.1,25.83,17.92,2.282,-40.16,49.41,53.46,-3.611,11.83,36.28,50.65,68.33,60.25,42.54,57.04,54.6,0,0,0,0,0,0,0,0,0,0,0,0,0,0,0,0,
283,77.41,58.74,60.39,40.28,-22.7,70.56,81.2,41.55,-10.42,40.68,46,76.02,63.01,49.73,55.38,47.04,0,0,0,0,0,0,0,0,0,0,0,0,0,0,0,0,
284,72.15,39.91,39.05,28.54,-44.29,34.54,53.12,31.32,-36.91,9.452,0.2553,23.79,15.27,11.43,10.94,-0.3026,0,0,0,0,0,0,0,0,0,0,0,0,0,0,0,0,
285,-11.85,-8.492,36.67,35.12,-47.43,15.15,42.5,30.53,-28.03,2.475,-44.25,-17.3,-5.169,-3.539,-8.822,-11.61,0,0,0,0,0,0,0,0,0,0,0,0,0,0,0,0,
286,-27.27,9.845,128.9,128.9,3.24,79.74,100.2,107.1,-8.94,40.8,-49.12,-3.284,16.09,19.34,1.827,5.578,0,0,0,0,0,0,0,0,0,0,0,0,0,0,0,0,
287,17.61,33,232.7,224.5,24.27,126.7,139,167,-40.93,51.03,-65,-11.89,0.217,1.132,-25.34,-19.8,0,0,0,0,0,0,0,0,0,0,0,0,0,0,0,0,
288,32.07,18.74,321.9,297.7,20.88,148.4,163.1,194.5,-67.27,36.96,-74.58,-16.65,-5.083,-9.942,-36.83,-29.31,0,0,0,0,0,0,0,0,0,0,0,0,0,0,0,0,
289,72.68,52.12,469.1,417.3,80.75,217,225.2,252.2,9.126,38.77,-51.49,16.8,33.67,25.1,-14.12,-2.664,0,0,0,0,0,0,0,0,0,0,0,0,0,0,0,0,
290,101.3,91.47,623.2,544.8,181.9,275.1,270.3,299.6,94.47,60.03,-48.03,19.77,37.9,27.91,-21.74,-4.057,0,0,0,0,0,0,0,0,0,0,0,0,0,0,0,0,
291,81.29,77.16,714.2,634.7,266.6,298,292.6,322.3,82.63,111.6,-46.67,17.86,30.88,21.36,-18.83,-2.303,0,0,0,0,0,0,0,0,0,0,0,0,0,0,0,0,
292,99.63,75.92,777,698.7,314,318.2,317.7,338.9,63.93,128.7,-28.94,34.87,46.62,40.42,1.473,9.758,0,0,0,0,0,0,0,0,0,0,0,0,0,0,0,0,
293,106.7,79.72,814.9,722.4,333.5,312.8,307.9,327.8,90.62,73.24,-35.23,16.89,35.34,30.18,-18.51,-9.534,0,0,0,0,0,0,0,0,0,0,0,0,0,0,0,0,
294,64.4,56.27,796.5,707.1,345.7,290.2,276.6,313.1,70.4,39.94,-39.34,0.4244,17.73,8.985,-33.33,-21.35,0,0,0,0,0,0,0,0,0,0,0,0,0,0,0,0,
295,64.44,48.24,747.6,664.9,322.9,267.6,253.7,306.8,19.8,47.22,-26.59,14.22,25.51,13.08,-12.08,-8.729,0,0,0,0,0,0,0,0,0,0,0,0,0,0,0,0,
296,73.84,49.05,714.3,608.4,278.1,241.8,229.4,281.4,35.07,34.02,-40.49,11.1,29.71,18.73,-4.955,-5.846,0,0,0,0,0,0,0,0,0,0,0,0,0,0,0,0,
297,47.82,42.24,681.2,562.7,255.7,229.1,215.5,254.4,48.67,14.35,-58.71,2.979,30.54,26.72,-14.86,-5.765,0,0,0,0,0,0,0,0,0,0,0,0,0,0,0,0,
298,51.71,51.88,620.6,521.8,234.5,218.4,212,246.6,12.92,24.16,-33.89,17.99,42.91,39.13,-9.442,7.58,0,0,0,0,0,0,0,0,0,0,0,0,0,0,0,0,
299,67.6,64.95,567.1,486.2,221.2,193,198.4,239,13.73,48.41,-10.8,29.94,50.99,35.6,-0.4783,18.3,0,0,0,0,0,0,0,0,0,0,0,0,0,0,0,0,
300,61.75,60.98,518.9,457,209.3,171.3,177.6,210.4,8.277,48.42,-38.61,31.18,45.15,26.48,-6.512,13.78,0,0,0,0,0,0,0,0,0,0,0,0,0,0,0,0,
301,90.65,59.54,448.1,409.8,156.4,170.9,164.2,183.4,-38.24,39.89,-59.77,38.86,40.33,28.54,-10.73,7.168,0,0,0,0,0,0,0,0,0,0,0,0,0,0,0,0,
302,118.4,65.66,395.2,360,118.7,175.8,154.9,187.9,-7.676,51.45,-46.75,31.45,34.06,23.51,-16.53,-2.442,0,0,0,0,0,0,0,0,0,0,0,0,0,0,0,0,
303,67.81,52.76,362.7,324.8,125.9,157.5,135.1,191.4,65.92,52.07,-48.72,4.648,14.68,7.864,-32.33,-20.54,0,0,0,0,0,0,0,0,0,0,0,0,0,0,0,0,
304,23.52,30.35,327,294.9,122.4,143.2,121.9,176.3,67.12,43.45,-43,4.551,3.519,4.417,-29.99,-26.11,0,0,0,0,0,0,0,0,0,0,0,0,0,0,0,0,
305,49.37,32.91,312.2,273.5,107.4,156.4,127.8,168.6,36.34,37.82,-16.22,20.28,7.703,4.092,-21.6,-26.01,0,0,0,0,0,0,0,0,0,0,0,0,0,0,0,0,
306,73.93,47.37,297.9,252.3,91.14,152.9,128.7,161.4,28.23,19.43,-23,14.89,5.727,-3.176,-35.19,-38.9,0,0,0,0,0,0,0,0,0,0,0,0,0,0,0,0,
307,73.56,38.73,255.2,225.4,68.73,120.3,112.8,143.7,43.86,24.82,-44.56,5.389,-10.43,-11.64,-47.97,-51.61,0,0,0,0,0,0,0,0,0,0,0,0,0,0,0,0,
308,61.1,2.034,210.6,196,59.98,96.59,79.98,123.2,58.61,45.04,-35.76,6.531,-29.5,-27.25,-42.85,-52.34,0,0,0,0,0,0,0,0,0,0,0,0,0,0,0,0,
309,56.87,-22.78,185.3,167.8,64.07,102.6,54.29,115.5,41.17,26.63,-15.77,21.15,-25.18,-30.99,-29.69,-39.38,0,0,0,0,0,0,0,0,0,0,0,0,0,0,0,0,
310,76.34,-12.9,167.6,147.1,54.97,98.8,50.08,113.3,21.24,-7.677,-25.33,19.59,-18.07,-28.47,-36.38,-39.09,0,0,0,0,0,0,0,0,0,0,0,0,0,0,0,0,
311,37.51,-27.02,124.3,114.3,30.08,43.12,22.31,78.22,12.55,-39.61,-62.29,-22.86,-44.95,-51.91,-59.77,-59.58,0,0,0,0,0,0,0,0,0,0,0,0,0,0,0,0,
312,-27.85,-66.59,76.17,87.29,27.36,10.12,-5.746,47.75,-10.65,-52.43,-70,-39.51,-60.78,-61.21,-57.02,-59.22,0,0,0,0,0,0,0,0,0,0,0,0,0,0,0,0,
313,-1.73,-57.5,70.33,98.64,43.64,36.9,14.67,63.89,-24.93,-30.74,-57.67,-30.54,-55.62,-45.35,-58.71,-63.79,0,0,0,0,0,0,0,0,0,0,0,0,0,0,0,0,
314,5.249,-42.23,71.53,96.55,29.75,30.27,13.12,60.19,-20.96,-40.86,-74.91,-60.96,-75.8,-56.92,-85.08,-99.29,0,0,0,0,0,0,0,0,0,0,0,0,0,0,0,0,
315,-55.73,-79.9,56.01,64.88,7.178,-4.654,-31.27,25.98,-40.28,-87.28,-86.61,-73.58,-90.48,-78.12,-73.47,-100.6,0,0,0,0,0,0,0,0,0,0,0,0,0,0,0,0,
316,-47.65,-105.1,46.89,48.78,-2.509,-15.64,-44.22,14.47,-76.21,-94.79,-83.92,-47.93,-76.15,-75.53,-48.04,-70.23,0,0,0,0,0,0,0,0,0,0,0,0,0,0,0,0,
317,-24.85,-83.26,37.83,41.24,-28.33,-35.05,-29.53,11.97,-75.66,-67.34,-100.3,-55.13,-64.4,-62.49,-61.35,-61.21,0,0,0,0,0,0,0,0,0,0,0,0,0,0,0,0,
318,-65.35,-64.06,38.19,37.94,-48.98,-48.64,-24.13,9.28,-52.35,-43.89,-111.1,-69.16,-53.25,-47.18,-68.9,-55.47,0,0,0,0,0,0,0,0,0,0,0,0,0,0,0,0,
319,-70.28,-59.45,54.05,49.8,-49.8,-26.23,-11.84,20.09,-52.81,-43.05,-105.1,-46.66,-30.75,-29.21,-51.56,-36.8,0,0,0,0,0,0,0,0,0,0,0,0,0,0,0,0,
320,-29.62,-35.49,61.07,62.2,-53.45,1.921,17.8,31.25,-49.4,-57.98,-103.4,-26.51,-15.04,-13.51,-44.77,-28.26,0,0,0,0,0,0,0,0,0,0,0,0,0,0,0,0,
321,-21.21,-16.96,54.74,67.08,-49.81,15.33,32.81,35.04,-31.73,-42.77,-108.2,-33.48,-29.04,-20.31,-54.22,-40.2,0,0,0,0,0,0,0,0,0,0,0,0,0,0,0,0,
322,-28.68,-43.27,43.26,64.89,-30.98,25.24,22.26,39.26,-35,-3.111,-105.4,-35.84,-48.86,-42.16,-54.7,-48.15,0,0,0,0,0,0,0,0,0,0,0,0,0,0,0,0,
323,-8.229,-54.91,45.71,62.05,-15.98,42.07,19.05,45.18,-40.37,3.938,-92.61,-21.96,-43.24,-42.91,-48.72,-44.32,0,0,0,0,0,0,0,0,0,0,0,0,0,0,0,0,
324,2.463,-30.57,61.15,53.62,-18.54,36.77,19.43,40.39,-38.28,-13.4,-96.55,-30.38,-46.2,-38.4,-64.05,-57.04,0,0,0,0,0,0,0,0,0,0,0,0,0,0,0,0,
325,-26.42,-34.97,62.55,34.17,-17.66,3.501,8.591,28.49,-35.64,-19.37,-110.8,-55.35,-65.72,-48.16,-79.38,-70.68,0,0,0,0,0,0,0,0,0,0,0,0,0,0,0,0,
326,-48.21,-53.52,54.09,22.72,-6.659,-13.23,1.857,18.44,-21.34,-30.95,-116.7,-66.99,-72.02,-59.15,-74.33,-65.84,0,0,0,0,0,0,0,0,0,0,0,0,0,0,0,0,
327,-55.46,-55.07,37.83,15.31,-26.93,-19.8,-8.76,4.994,-34.45,-41.4,-123.7,-75.16,-73.71,-66.68,-70.67,-62.77,0,0,0,0,0,0,0,0,0,0,0,0,0,0,0,0,
328,-54.54,-57.43,16.15,8.069,-55.88,-28.54,-22.09,9.228,-75.39,-20.5,-112.8,-70.8,-70.94,-61.1,-70.58,-59.53,0,0,0,0,0,0,0,0,0,0,0,0,0,0,0,0,
329,-35.35,-65.7,1.487,1.816,-58.81,-37.58,-37.92,17.93,-80.75,-18.18,-105.1,-68.4,-75.98,-63.51,-81.57,-67.16,0,0,0,0,0,0,0,0,0,0,0,0,0,0,0,0,
330,-56.64,-89.92,-21.51,-24.11,-74.62,-68.28,-68.61,-11.09,-56.92,-59.15,-122.8,-83.72,-94.54,-85.06,-86.71,-79.94,0,0,0,0,0,0,0,0,0,0,0,0,0,0,0,0,
331,-92.27,-99.71,-32.16,-36.51,-82.48,-76.92,-72.08,-34.52,-42.59,-74.27,-102.6,-66.51,-80.41,-77.3,-53.23,-59.95,0,0,0,0,0,0,0,0,0,0,0,0,0,0,0,0,
332,-65.19,-74.53,-17.49,-20.1,-61.72,-48.65,-51.86,-29.42,-45.48,-53.52,-70.9,-42.68,-58.03,-53.39,-37.24,-48.04,0,0,0,0,0,0,0,0,0,0,0,0,0,0,0,0,
333,-49.83,-67.19,-22.64,-22,-56.78,-49.74,-56.09,-36.52,-48.99,-43.04,-80.62,-51.35,-64.77,-52.53,-52.67,-64.82,0,0,0,0,0,0,0,0,0,0,0,0,0,0,0,0,
334,-56.54,-61.39,-29.02,-21.76,-45.79,-60.99,-52.83,-43.38,-35.83,-56.49,-70.33,-32.71,-57.2,-51.78,-36.68,-59.83,0,0,0,0,0,0,0,0,0,0,0,0,0,0,0,0,
335,-19.07,-35.88,-10.99,-8.854,-24.61,-50.93,-38.85,-39.22,-28.08,-66.94,-51.51,-7.086,-44.59,-49.69,-21.94,-51.72,0,0,0,0,0,0,0,0,0,0,0,0,0,0,0,0,
336,-6.47,-46.18,-6.939,-19.98,-34.23,-47.84,-49.06,-29.36,-28.06,-30.03,-71.3,-26.29,-58.43,-53.89,-46.59,-65.48,0,0,0,0,0,0,0,0,0,0,0,0,0,0,0,0,
337,-36.34,-73.26,-19.75,-26.14,-41.78,-43.63,-58.63,-4.357,-25.99,3.676,-90.14,-43.99,-71.97,-54.43,-70.06,-73.86,0,0,0,0,0,0,0,0,0,0,0,0,0,0,0,0,
338,-44.02,-72.42,-35.54,-16.1,-34.23,-34.1,-54.24,3.521,-42.8,-26.23,-100.4,-47.05,-72.29,-57.97,-76.42,-72.65,0,0,0,0,0,0,0,0,0,0,0,0,0,0,0,0,
339,-49.01,-57.19,-47.26,-17.63,-44.55,-23.5,-39.01,-13.85,-59.01,-45.05,-109,-58.3,-66.07,-58.41,-75.37,-70.48,0,0,0,0,0,0,0,0,0,0,0,0,0,0,0,0,
340,-56.2,-41.63,-36.08,-16.61,-59.97,0.754,-18.8,-14.95,-63.91,-26.38,-99.95,-63.1,-62.52,-50.24,-71.1,-70.85,0,0,0,0,0,0,0,0,0,0,0,0,0,0,0,0,
341,-41.46,-42.76,-19.11,-10.77,-58.93,15.47,-20.05,-0.7996,-74.02,-22.38,-91.34,-58.62,-63.26,-45.53,-67.73,-71.08,0,0,0,0,0,0,0,0,0,0,0,0,0,0,0,0,
342,-31.66,-52.95,-22.69,-18.01,-49.9,3.282,-33.88,-2.301,-60.84,-23.18,-92.71,-56.25,-59.93,-53.45,-66.92,-67.46,0,0,0,0,0,0,0,0,0,0,0,0,0,0,0,0,
343,-37.8,-54.39,-35.59,-34.09,-44.81,-11.67,-43.7,-20.5,-35.99,-31.5,-84.12,-48.68,-59.77,-67.9,-59.83,-62.07,0,0,0,0,0,0,0,0,0,0,0,0,0,0,0,0,
344,-33.58,-54.73,-32.19,-39.22,-33.36,-6.775,-45.89,-20.86,-33.91,-51.89,-59.85,-28.81,-57.95,-65.19,-33.71,-49.1,0,0,0,0,0,0,0,0,0,0,0,0,0,0,0,0,
345,-13.55,-44.57,-18.92,-24.8,-18.37,14.2,-30.6,0.6774,-31.6,-46.87,-38.59,-15.51,-56.26,-58.39,-16.96,-46.59,0,0,0,0,0,0,0,0,0,0,0,0,0,0,0,0,
346,6.733,-37.32,-24.96,-12.94,-24.55,33.84,-19.83,2.155,-22.35,-30.65,-24.03,-17.21,-70.22,-71.32,-32.09,-66.38,0,0,0,0,0,0,0,0,0,0,0,0,0,0,0,0,
347,23.4,-50.26,-25.71,-11.57,-25.57,51,-20.53,-9.838,-3.184,-45.42,-1.419,-17.39,-73.46,-75.74,-42.7,-73.4,0,0,0,0,0,0,0,0,0,0,0,0,0,0,0,0,
348,23.41,-44,9.84,-4.135,6.222,65.67,-6.493,1.967,35.97,-70.9,7.195,-19.88,-53.47,-59.11,-33.99,-61.18,0,0,0,0,0,0,0,0,0,0,0,0,0,0,0,0,
349,-7.003,-20.83,42.23,1.58,27.08,67.66,2.434,23.09,55.18,-50.06,-13.91,-27.58,-41.74,-44.25,-29.64,-54.07,0,0,0,0,0,0,0,0,0,0,0,0,0,0,0,0,
350,-31.97,-28.86,37.28,-14.56,7.097,53.32,-24.19,20.07,31.57,-10.68,-36.92,-32.5,-46.89,-46.58,-36.68,-52.97,0,0,0,0,0,0,0,0,0,0,0,0,0,0,0,0,
351,-21.89,-49.81,12.64,-41.96,-13.36,34.21,-55.19,5.419,-3.41,-26.2,-45.5,-33.32,-46.39,-55.17,-39.69,-44,0,0,0,0,0,0,0,0,0,0,0,0,0,0,0,0,
352,-0.8571,-37.53,-3.233,-50.27,-0.5536,34.44,-57.15,14.67,-21.65,-48.96,-38.38,-26.15,-31.08,-42.19,-36.47,-28.94,0,0,0,0,0,0,0,0,0,0,0,0,0,0,0,0,
353,-8.908,-22.55,-14.16,-55.69,3.41,33.3,-63.97,20.09,-22.25,-37.54,-38.64,-40.95,-33.36,-31.96,-55.28,-37.76,0,0,0,0,0,0,0,0,0,0,0,0,0,0,0,0,
354,-59.23,-51.4,-30.93,-81.24,-21.79,3.539,-88.92,-9.883,-22.06,-49.2,-67.18,-86.3,-60.65,-46.53,-84.77,-63.47,0,0,0,0,0,0,0,0,0,0,0,0,0,0,0,0,
355,-96.54,-78.65,-28.59,-88.52,-29.5,-14.43,-89.58,-28.27,-36.98,-65.54,-88.52,-108.5,-79.16,-53.4,-91.41,-72.68,0,0,0,0,0,0,0,0,0,0,0,0,0,0,0,0,
356,-84.34,-77.39,-19.77,-81.28,-35.78,-16.51,-87.76,-19.9,-65.14,-52.05,-80.23,-104.7,-95.68,-60,-94.17,-80.78,0,0,0,0,0,0,0,0,0,0,0,0,0,0,0,0,
357,-65.53,-87.01,-31.17,-87.25,-53.97,-24.48,-102.3,-8.227,-78.99,-42.03,-59.32,-95.6,-104.6,-65.39,-99.38,-89.87,0,0,0,0,0,0,0,0,0,0,0,0,0,0,0,0,
358,-51.9,-82.72,-30.49,-73.96,-40.48,-13.93,-87.03,5.888,-63.4,-30.34,-47.28,-81.21,-88.19,-49.71,-98.62,-90.56,0,0,0,0,0,0,0,0,0,0,0,0,0,0,0,0,
359,-50.18,-57.73,-29.36,-63.37,-34.5,-15.56,-75.93,-4.15,-42.84,-22.35,-57.78,-88.38,-89.74,-58.91,-98.47,-100.9,0,0,0,0,0,0,0,0,0,0,0,0,0,0,0,0,
360,-81.47,-64.4,-52.1,-84.35,-60.73,-51.43,-103.5,-30.99,-36.02,-53.31,-60.8,-95.06,-104.2,-83.59,-86.56,-101.7,0,0,0,0,0,0,0,0,0,0,0,0,0,0,0,0,
361,-83.85,-72.97,-55.49,-82.06,-63.95,-53.8,-105.8,-28.06,-32.99,-77.52,-33.85,-65.26,-84.85,-63.89,-77.67,-82.03,0,0,0,0,0,0,0,0,0,0,0,0,0,0,0,0,
362,-34.24,-54.27,-35.55,-57.15,-47.18,-18.37,-80.1,-14.51,-10.13,-39.66,1.045,-38.51,-57.54,-35.21,-77.49,-69.1,0,0,0,0,0,0,0,0,0,0,0,0,0,0,0,0,
363,-14.42,-43.91,-19.63,-55.3,-34.27,-10.93,-78.36,-25.36,14.91,-9.512,21.67,-35.61,-48.91,-38.31,-56.11,-63.13,0,0,0,0,0,0,0,0,0,0,0,0,0,0,0,0,
364,-39.09,-41.49,-12.35,-68.03,-32.26,-29.99,-89.66,-47.77,-3.667,-48.39,9.076,-37.07,-45.35,-41.04,-39.05,-58.11,0,0,0,0,0,0,0,0,0,0,0,0,0,0,0,0,
365,-49.08,-36.34,-18.78,-72.43,-42.31,-17.72,-81.49,-48.97,-19.97,-61.33,-6.595,-29.46,-37.89,-21.69,-36.09,-47.46,0,0,0,0,0,0,0,0,0,0,0,0,0,0,0,0,
366,-29.05,-33.99,-22.74,-66.78,-41.12,21.29,-64.94,-37.34,0.3248,-17.37,15.61,-12.16,-30.56,-9.342,-17.27,-30.89,0,0,0,0,0,0,0,0,0,0,0,0,0,0,0,0,
367,-10.83,-30.48,-22.06,-72.42,-44.29,17.13,-72.89,-57.04,-13.92,-25.94,33.72,-15.41,-33.41,-24.36,-13.77,-33.22,0,0,0,0,0,0,0,0,0,0,0,0,0,0,0,0,
368,-25.93,-34.39,-40.44,-86.84,-57.87,-27.39,-94.12,-79.3,-50.46,-68.48,21.12,-50.44,-41.09,-37.85,-45.05,-52.71,0,0,0,0,0,0,0,0,0,0,0,0,0,0,0,0,
369,-69.79,-52.58,-66.83,-80.23,-40.57,-48.86,-95.93,-59.67,-50.77,-62.19,7.819,-76.86,-41.73,-32.76,-61.16,-57.9,0,0,0,0,0,0,0,0,0,0,0,0,0,0,0,0,
370,-85.97,-57.29,-68.11,-54.33,4.496,-29.73,-71.76,-29.14,-41.58,-32.57,16.95,-51.41,-21.84,-14,-26.15,-25.62,0,0,0,0,0,0,0,0,0,0,0,0,0,0,0,0,
371,-30.16,-15.67,-34.79,-18.64,47.26,16.35,-24.03,-0.8082,-27.05,-0.0585,58.87,14.08,19.33,17.53,24.43,22.45,0,0,0,0,0,0,0,0,0,0,0,0,0,0,0,0,
372,48.07,40.95,0.599,11.66,63.99,63.2,15.56,33.02,15.06,35.83,101.5,56.61,47.46,43.17,41.92,39.64,0,0,0,0,0,0,0,0,0,0,0,0,0,0,0,0,
373,77.44,58.23,15.83,18.38,58.15,87.46,18.34,53.43,66.96,52.52,113,56.77,54.58,57.26,45.28,37.12,0,0,0,0,0,0,0,0,0,0,0,0,0,0,0,0,
374,47.39,48.74,8.21,8.161,44.93,73.51,0.6712,41.8,69.74,38.2,97.43,32.74,47.75,53.34,38.57,29.03,0,0,0,0,0,0,0,0,0,0,0,0,0,0,0,0,
375,-13.16,31.19,-44.24,-24.52,-7.834,25.23,-25.09,7.757,-0.9962,14.86,55.47,-2.619,18.34,22.05,1.337,4.186,0,0,0,0,0,0,0,0,0,0,0,0,0,0,0,0,
376,-32.25,6.547,-87.8,-55.97,-61.75,5.009,-37.34,3.821,-38.3,19.83,24.5,-9.087,1.794,7.876,-19.78,-8.188,0,0,0,0,0,0,0,0,0,0,0,0,0,0,0,0,
377,1.185,3.203,-59.93,-48.8,-42.93,19.13,-23.72,23.29,-8.025,12.9,31.37,4.078,8.18,16.31,-14.5,-11.19,0,0,0,0,0,0,0,0,0,0,0,0,0,0,0,0,
378,5.931,15.58,-32.77,-41.56,-17.83,11.24,-19.01,9.132,-17.48,-21.56,34.58,-8.52,-4.903,1.252,-21.19,-29.73,0,0,0,0,0,0,0,0,0,0,0,0,0,0,0,0,
379,1.446,4.784,-35.08,-48.98,-27.73,10.42,-27.57,-3.342,-34.65,3.421,28.41,-19.71,-27.53,-21.21,-25.62,-38.95,0,0,0,0,0,0,0,0,0,0,0,0,0,0,0,0,
380,20.24,-22.8,-18.35,-39.93,-14.23,30.47,-25.9,9.418,9.466,45.83,41.33,-15.84,-32.32,-24.02,-20.01,-34.31,0,0,0,0,0,0,0,0,0,0,0,0,0,0,0,0,
381,1.224,-25.71,-8.866,-31.28,10.75,30.45,-13.94,2.342,35.1,15.71,59.12,-16.27,-22.44,-13.91,-11.84,-25.28,0,0,0,0,0,0,0,0,0,0,0,0,0,0,0,0,
382,-15.19,-5.292,-22.23,-38.65,4.402,23.4,-8.284,-22.36,6.822,-19.32,55.12,-11.6,-14.74,-5.497,-2.352,-13.91,0,0,0,0,0,0,0,0,0,0,0,0,0,0,0,0,
383,15.06,-9.558,-32.1,-53.17,-16.91,18.8,-21.94,-43.13,-11.14,-17.57,44.06,-6.539,-19.1,-5.346,1.492,-9.223,0,0,0,0,0,0,0,0,0,0,0,0,0,0,0,0,
384,16.29,-20.07,-36.58,-64.69,-16.68,21.33,-30.12,-47.76,7.611,-14.97,53.32,-3.333,-13.72,4.588,13.65,1.914,0,0,0,0,0,0,0,0,0,0,0,0,0,0,0,0,
385,-5.909,-3.757,-39.03,-70.78,-7.825,35.02,-34.74,-47.59,16.62,-21.47,53.57,1.3,-7.042,7.617,21.26,10.31,0,0,0,0,0,0,0,0,0,0,0,0,0,0,0,0,
386,-0.7658,-8.865,-47.2,-84.14,-31.25,29.7,-61.4,-69.7,-2.902,-31.81,39.47,2.296,-14.11,-7.351,14,8.758,0,0,0,0,0,0,0,0,0,0,0,0,0,0,0,0,
387,5.705,-19.41,-56,-91.22,-61.65,22.4,-66.01,-77.46,-7.166,-24.22,60.15,14.28,-2.351,4.391,26.3,24.22,0,0,0,0,0,0,0,0,0,0,0,0,0,0,0,0,
388,9.681,4.459,-59.01,-88.29,-69.29,22.05,-47.36,-59.22,-14.23,-5.451,82.44,25.58,11.59,25.02,39.31,33.62,0,0,0,0,0,0,0,0,0,0,0,0,0,0,0,0,
389,27.24,7.799,-63.43,-93.41,-70.62,-1.374,-50.46,-59.42,-35.49,0.9985,69.14,17.02,5.833,21.1,28.57,21.08,0,0,0,0,0,0,0,0,0,0,0,0,0,0,0,0,
390,27.65,3.588,-60.05,-88.42,-64.36,-16.01,-42.54,-67.14,-11.9,1.561,64.83,7.663,14.36,24.61,24.48,17.97,0,0,0,0,0,0,0,0,0,0,0,0,0,0,0,0,
391,0.0501,31.66,-61.54,-77.59,-59.1,-7.19,-25.71,-63.16,16.86,1.16,73.38,9.146,25.46,33.47,29.86,20.67,0,0,0,0,0,0,0,0,0,0,0,0,0,0,0,0,
392,-2.838,34.54,-76.69,-78.55,-61.16,-4.218,-37.92,-47.61,1.728,25.58,70.14,18.2,18.47,26.53,27.4,17.94,0,0,0,0,0,0,0,0,0,0,0,0,0,0,0,0,
393,21.12,11.25,-76.45,-73.18,-53.37,-0.4285,-43.51,-23.96,-8.415,61.68,54.45,13.51,12.54,13.74,9.239,10.95,0,0,0,0,0,0,0,0,0,0,0,0,0,0,0,0,
394,9.179,18.46,-62.9,-66.13,-47.62,8.835,-23.58,-16.97,-15.75,52.04,37.55,-10.76,10.44,6.17,-11.68,3.772,0,0,0,0,0,0,0,0,0,0,0,0,0,0,0,0,
395,-8.774,39.46,-47.53,-61.86,-47.52,15.5,-8.62,-15.18,-32.18,26.71,44.65,-15.09,6.247,4.671,-8.387,5.966,0,0,0,0,0,0,0,0,0,0,0,0,0,0,0,0,
396,15.73,32.34,-34.77,-54.26,-34.73,16.48,-13.66,-4.247,-16.33,14.7,65.42,1.817,-0.5168,-4.982,8.537,4.935,0,0,0,0,0,0,0,0,0,0,0,0,0,0,0,0,
397,28.01,13.82,-37.15,-54.68,-8.962,19.85,-22.2,-0.5807,23.8,5.15,82.68,18.73,4.752,-6.832,32.14,6.464,0,0,0,0,0,0,0,0,0,0,0,0,0,0,0,0,
398,15.41,21.75,-36.65,-54.38,3.946,36.06,-15.23,5.001,34.79,18.01,98.49,38.1,27.26,20.55,62.37,22.19,0,0,0,0,0,0,0,0,0,0,0,0,0,0,0,0,
399,25.6,31.52,-32.42,-53.95,-20.68,40.2,-12.46,6.75,6.681,12.57,93.43,43.89,34.85,38.7,68.45,26.53,0,0,0,0,0,0,0,0,0,0,0,0,0,0,0,0,
400,42.29,16.08,-43.24,-62.31,-41.52,29.18,-20.75,-3.683,-1.301,-23.18,83.98,34.7,25.54,30.81,60.08,24.63,0,0,0,0,0,0,0,0,0,0,0,0,0,0,0,0,
401,28.58,8.548,-51.7,-64.32,-31.86,32.94,-16.43,-1.676,27.34,-12.47,97.39,32.72,26.67,28.2,70.33,39.89,0,0,0,0,0,0,0,0,0,0,0,0,0,0,0,0,
402,17.82,20.65,-47.55,-63.74,-28.97,49.36,-3.587,0.634,29.18,15.89,110.9,46.18,40.99,41.89,86.44,57.76,0,0,0,0,0,0,0,0,0,0,0,0,0,0,0,0,
403,53.79,35.19,-38.65,-64.98,-16.46,67.8,3.641,-20.41,9.102,10.31,111.6,59.97,51.14,52.17,80.03,55.29,0,0,0,0,0,0,0,0,0,0,0,0,0,0,0,0,
404,70.09,36.92,-33.61,-61.62,9.351,74.12,0.0396,-40.95,25.07,16.55,98.83,44.56,45.52,46.4,57.32,42.77,0,0,0,0,0,0,0,0,0,0,0,0,0,0,0,0,
405,16.95,28.9,-30.78,-55.93,5.498,64.84,-1.12,-29.65,65.08,25.33,88.51,27.94,53.7,59.21,60.62,57.75,0,0,0,0,0,0,0,0,0,0,0,0,0,0,0,0,
406,-6.257,45.98,-22.01,-45.45,-6.657,57.95,13.91,-2.527,66.25,11.56,101.2,46.18,78.92,89.38,78.15,80.42,0,0,0,0,0,0,0,0,0,0,0,0,0,0,0,0,
407,41.96,67.89,-33.26,-42.89,-14.5,37.71,19.04,-2.208,20.99,33.37,109.8,61.05,74.82,81.51,63.29,68.68,0,0,0,0,0,0,0,0,0,0,0,0,0,0,0,0,
408,75.64,55.46,-59.15,-48.81,-29.41,0.267,10.43,-19.9,23.59,75.56,111.3,58.18,59.29,62.24,48.54,58.11,0,0,0,0,0,0,0,0,0,0,0,0,0,0,0,0,
409,50.63,43.47,-57.65,-44.4,-28.99,-20.99,10.57,-21.35,81.54,62.55,129.2,59.62,64.34,72.43,64.28,68.89,0,0,0,0,0,0,0,0,0,0,0,0,0,0,0,0,
410,14.11,53.31,-42.4,-35.4,-15.05,-12.75,20.69,-4.188,81.27,44.77,143.5,70.73,72.72,77.99,82.13,77.16,0,0,0,0,0,0,0,0,0,0,0,0,0,0,0,0,
411,33.02,67.95,-28.25,-22.59,-6.35,6.069,37.2,16.1,54.38,65.49,134.7,81.55,73.63,62.97,81.63,75.13,0,0,0,0,0,0,0,0,0,0,0,0,0,0,0,0,
412,58.23,62.06,-21.41,-17.98,-24.85,-9.659,30.22,11.7,71.9,57.31,113,64.46,55.62,40.22,65.4,56.46,0,0,0,0,0,0,0,0,0,0,0,0,0,0,0,0,
413,26.94,30.87,-36.35,-35.49,-63.93,-46.52,1.721,-9.153,64.33,34.31,109.9,50.26,40.4,30.36,68.72,50.44,0,0,0,0,0,0,0,0,0,0,0,0,0,0,0,0,
414,15.23,27.08,-40.5,-46.47,-70.72,-55.04,-4.041,-17.55,36.27,36.41,124.1,65.37,48.94,36.79,88.34,65.45,0,0,0,0,0,0,0,0,0,0,0,0,0,0,0,0,
415,19.27,35.65,-34.22,-53.29,-59.33,-67.28,-14.8,-26.82,52.91,24.22,120.3,52.2,35.26,24.92,77.17,54.03,0,0,0,0,0,0,0,0,0,0,0,0,0,0,0,0,
416,-16.87,4.441,-44,-61.55,-55.35,-81.96,-36.55,-25.97,69.28,12.78,122.7,28.82,10.54,7.001,63.07,39.58,0,0,0,0,0,0,0,0,0,0,0,0,0,0,0,0,
417,-22.06,-9.177,-40.62,-46.93,-27.66,-60.13,-25.4,-3.543,50.99,21.36,134,39.29,21.37,18.98,70.85,56.52,0,0,0,0,0,0,0,0,0,0,0,0,0,0,0,0,
418,5.753,12.48,-27.17,-38.69,-6.819,-42.78,-16.86,7.539,31.89,25.92,111,44.3,41.57,45.35,72.29,74.56,0,0,0,0,0,0,0,0,0,0,0,0,0,0,0,0,
419,19.68,20.63,-26.84,-49.66,-19.24,-38.05,-27.3,8.187,26.45,23.91,91.55,46.29,57.15,62.45,72.43,85.14,0,0,0,0,0,0,0,0,0,0,0,0,0,0,0,0,
420,32.9,36.98,-20.58,-49.09,-21.76,-26.4,-20.19,2.301,26.84,-2.845,97.6,51.73,70.12,60.6,67.71,87.28,0,0,0,0,0,0,0,0,0,0,0,0,0,0,0,0,
421,23.3,60.34,-7.933,-45.08,-19.31,-25.91,-10.96,-9.611,19.49,-16.9,86.43,35.69,63.2,47.49,46.68,73.16,0,0,0,0,0,0,0,0,0,0,0,0,0,0,0,0,
422,16.04,46.45,-4.397,-44.13,-41.86,-22.12,-15.76,-3.45,3.582,20.69,61.47,19.98,46.82,36.14,24.64,52.6,0,0,0,0,0,0,0,0,0,0,0,0,0,0,0,0,
423,25.85,19.31,-8.891,-44.01,-65.8,-21.09,-19.26,8.198,1.267,33.33,49.21,15.29,42.85,31.47,11.96,40.06,0,0,0,0,0,0,0,0,0,0,0,0,0,0,0,0,
424,1.487,30.68,-8.111,-48.59,-65.81,-40.27,-10.29,16.39,-0.3851,18.01,66.98,23.04,55.89,39.65,20.66,49,0,0,0,0,0,0,0,0,0,0,0,0,0,0,0,0,
425,4.516,62.74,-0.8982,-48.46,-69.41,-52.74,0.0796,16.08,-27.71,18.24,90.95,40.89,61.31,35.94,30.64,52,0,0,0,0,0,0,0,0,0,0,0,0,0,0,0,0,
426,44.78,59.6,-3.837,-48.94,-91.65,-62.04,-9.425,-6.223,-32.22,-3.128,73.38,32.39,44.31,18.35,18.19,29.35,0,0,0,0,0,0,0,0,0,0,0,0,0,0,0,0,
427,14.62,34.92,-8.756,-51.42,-93.39,-74.41,-22.4,-5.353,8.097,-19.03,52.35,11.19,31.36,17.77,11.85,16.65,0,0,0,0,0,0,0,0,0,0,0,0,0,0,0,0,
428,-42.31,23.24,-20.56,-52.24,-84.52,-77.48,-25.89,13.05,18.04,-5.159,64.65,7.734,23.99,6.561,10.49,15.13,0,0,0,0,0,0,0,0,0,0,0,0,0,0,0,0,
429,-43.14,13.05,-52.76,-54.97,-100.7,-79.57,-26.98,0.2624,-16.75,-6.644,69.02,7.87,21.4,-8.427,2.275,13.08,0,0,0,0,0,0,0,0,0,0,0,0,0,0,0,0,
430,-16.75,22.88,-63.6,-44.92,-110.1,-72.61,-14.85,-0.6807,-44.66,-8.261,58.58,9.361,36.1,8.479,8.78,18.67,0,0,0,0,0,0,0,0,0,0,0,0,0,0,0,0,
431,5.672,46.38,-47.69,-33.34,-98.02,-59.28,-12.7,14.62,-44.18,1.278,53.69,6.237,31.07,1.901,15.49,11.84,0,0,0,0,0,0,0,0,0,0,0,0,0,0,0,0,
432,-5.093,24.8,-42.83,-39.24,-81.43,-62.1,-38.71,2.042,-3.402,-9.615,51.51,-5.518,3.302,-29.49,8.237,-1.426,0,0,0,0,0,0,0,0,0,0,0,0,0,0,0,0,
433,-39.48,-4.15,-35.11,-42.83,-59.77,-67.05,-49.01,-5.83,36.72,-42.47,54.25,-1.916,5.04,-20.94,3.516,3.585,0,0,0,0,0,0,0,0,0,0,0,0,0,0,0,0,
434,-27.52,20.48,-19.3,-40.99,-45.92,-54.05,-33.51,9.7,28.15,-59.26,57.68,13.62,26.78,1.915,-0.0502,11.82,0,0,0,0,0,0,0,0,0,0,0,0,0,0,0,0,
435,16.87,44.25,-17.83,-36.8,-36.79,-34.44,-21.35,29,11.52,-16.43,48.74,17.39,29.7,5.98,-5.788,13.03,0,0,0,0,0,0,0,0,0,0,0,0,0,0,0,0,
436,20.61,30.21,-21.44,-21.32,-12.08,-22.41,-8.65,51.45,16.28,39.01,39.67,14.68,24.23,7.432,-6.377,14.27,0,0,0,0,0,0,0,0,0,0,0,0,0,0,0,0,
437,4.217,29.94,-17.46,-4.739,15.16,-5.999,9.926,63.72,28.07,35.67,49.67,22.5,29.98,6.88,2.637,17.87,0,0,0,0,0,0,0,0,0,0,0,0,0,0,0,0,
438,12.95,46.7,-23.07,0.8145,21.44,8.935,10.9,50.65,26.04,11.79,58.78,34.66,33.06,2.556,20.21,22.85,0,0,0,0,0,0,0,0,0,0,0,0,0,0,0,0,
439,25.85,42.64,-43.94,-8.963,12.23,-1.177,-5.553,32.42,1.164,13.33,60.33,44.96,30.86,7.647,41.02,31.87,0,0,0,0,0,0,0,0,0,0,0,0,0,0,0,0,
440,33.77,40.93,-52.33,-22.35,11.08,-7.202,-15.99,37.55,9.191,19.95,75.93,50.32,38.5,23.03,44.65,41.36,0,0,0,0,0,0,0,0,0,0,0,0,0,0,0,0,
441,15.7,37.68,-60.46,-29.82,11.36,-7.85,-37.15,49.59,50.04,10.52,71.74,21.97,34.4,25.64,12.99,31.71,0,0,0,0,0,0,0,0,0,0,0,0,0,0,0,0,
442,-47.82,7.671,-84.23,-41.09,2.882,-35.76,-61.41,47.5,37.09,4.755,47.63,-9.401,23.18,20.73,-3.644,21.98,0,0,0,0,0,0,0,0,0,0,0,0,0,0,0,0,
443,-56.26,11.64,-72.32,-44.87,-0.042,-46.96,-47.8,46.34,-7.203,16.1,57.81,12.15,36.27,33.34,27.39,37.93,0,0,0,0,0,0,0,0,0,0,0,0,0,0,0,0,
444,-1.207,38.4,-47.52,-44.4,-9.852,-36.18,-45.86,30.7,-5.658,5.622,58.78,21.32,35.34,37.36,35.75,42.81,0,0,0,0,0,0,0,0,0,0,0,0,0,0,0,0,
445,-19.3,11.63,-68.45,-56.98,-21.25,-42.04,-78.23,-0.1973,18.43,-10.88,33.08,-10.48,11.77,20.81,7.14,30.15,0,0,0,0,0,0,0,0,0,0,0,0,0,0,0,0,
446,-49.08,-7.978,-73.95,-55.97,-11.66,-29.68,-71.8,0.4992,16.13,8.735,44.09,-7.997,10.44,10.36,-4.409,28.78,0,0,0,0,0,0,0,0,0,0,0,0,0,0,0,0,
447,-3.562,11.21,-41.48,-37.82,-1.191,-14.02,-49.51,18.96,16.31,13.7,55.54,3.864,10.33,0.0948,-8.505,26.04,0,0,0,0,0,0,0,0,0,0,0,0,0,0,0,0,
448,-2.027,0.5146,-28.31,-27.1,12.6,-37.12,-64.92,21.05,49.42,-3.606,40.72,-13.09,-0.3609,-9.004,-16.81,20.04,0,0,0,0,0,0,0,0,0,0,0,0,0,0,0,0,
449,-28.23,-14.47,-31.61,-21.05,18.59,-51.51,-75.66,11.96,51.8,-2.765,54.47,-4.016,6.947,-4.55,-14.79,20.55,0,0,0,0,0,0,0,0,0,0,0,0,0,0,0,0,
450,18.62,-2.078,-35.64,-19.67,-9.514,-44.79,-65.46,-0.2652,23.6,-2.347,70.76,19.57,15.69,-2.478,-15,16.37,0,0,0,0,0,0,0,0,0,0,0,0,0,0,0,0,
451,29.52,-0.1081,-39.34,-17.66,-16.43,-49.8,-54.56,1.323,45.86,5.851,48.18,4.39,13.12,-3.258,-25.04,7.71,0,0,0,0,0,0,0,0,0,0,0,0,0,0,0,0,
452,-33.31,12.94,-37.51,-8.223,5.348,-48.73,-33.04,5.539,55.03,25.25,35.5,-9.584,24.33,10.97,-24.24,7.793,0,0,0,0,0,0,0,0,0,0,0,0,0,0,0,0,
453,-23.82,58.93,-37.98,-2.741,1.907,-36.81,-9.933,1.79,3.528,26.46,59.65,15.21,41.35,27.75,-4.381,14.6,0,0,0,0,0,0,0,0,0,0,0,0,0,0,0,0,
454,32.69,62.09,-40.52,-4.065,-7.933,-48.5,-20.73,20.87,-3.938,30.83,72.79,21.04,23.41,16.44,3.502,3.933,0,0,0,0,0,0,0,0,0,0,0,0,0,0,0,0,
455,0.7679,3.757,-42.89,-7.888,1.364,-64.75,-43.39,40.07,42.03,50.95,69.55,0.5013,-1.295,1.328,7.168,-6.593,0,0,0,0,0,0,0,0,0,0,0,0,0,0,0,0,
456,-45.88,-3.263,-40.42,-3.817,33.01,-42.85,-24.19,26.18,67.09,58.01,88.33,19.39,16.41,14.77,37.55,10.69,0,0,0,0,0,0,0,0,0,0,0,0,0,0,0,0,
457,-14.86,36.63,-44.42,-3.462,55.69,-34.05,-10.62,9.248,52.92,30.17,83.97,31.93,13,6.317,34.84,-1.738,0,0,0,0,0,0,0,0,0,0,0,0,0,0,0,0,
458,-2.822,3.122,-74.71,-26.75,20.25,-70.9,-48.25,3.718,9.31,-8.116,34.84,-12.09,-38.1,-24.63,-13.89,-43.95,0,0,0,0,0,0,0,0,0,0,0,0,0,0,0,0,
459,-43.23,-49.79,-93.85,-35.7,-20.45,-85.14,-64.22,-1.122,-27.58,-11.56,16.19,-38.95,-54.42,-17.3,-27.97,-39.07,0,0,0,0,0,0,0,0,0,0,0,0,0,0,0,0,
460,-57.64,-39.97,-88.6,-17.26,-24.13,-82.49,-46.78,-6.634,-34.55,-7.514,18.5,-37.47,-41.06,-6.527,-24.61,-17.17,0,0,0,0,0,0,0,0,0,0,0,0,0,0,0,0,
461,-49.59,-33.17,-92.73,-8.486,-26.75,-104.2,-47.64,-2.524,-18.77,-11.73,2.458,-42.97,-38.3,-13.41,-36.54,-13.2,0,0,0,0,0,0,0,0,0,0,0,0,0,0,0,0,
462,-53.54,-40.85,-94.39,-8.342,-24.04,-119.6,-53.37,7.945,-1.248,-0.5761,1.889,-34.63,-27.3,-4.306,-31.26,3.771,0,0,0,0,0,0,0,0,0,0,0,0,0,0,0,0,
463,-66.71,-34.36,-95.02,-12.44,-22.16,-123.6,-52.95,-0.4908,-11.12,-8.398,0.5898,-27.71,-15.86,0.502,-28.24,17.48,0,0,0,0,0,0,0,0,0,0,0,0,0,0,0,0,
464,-71.83,-27.05,-99.08,-14.2,-31.97,-116.6,-36.18,-6.301,-34.34,-8.12,-22.93,-35.54,-6.161,4.825,-42.18,15.14,0,0,0,0,0,0,0,0,0,0,0,0,0,0,0,0,
465,-56.11,-6.552,-82.52,-3.223,-31.43,-103.3,-7.811,7.224,-60.23,21.45,-31.92,-35.49,5.868,19.26,-46.93,8.52,0,0,0,0,0,0,0,0,0,0,0,0,0,0,0,0,
466,-37.51,10.53,-68.15,1.577,-31.7,-107,-13.92,5.84,-79.4,-13.45,-23.75,-31.79,1.458,5.917,-47.98,-6.481,0,0,0,0,0,0,0,0,0,0,0,0,0,0,0,0,
467,-16.96,2.393,-63.48,13.78,-26.4,-85.37,-26.23,6.801,-54.7,-54.67,-21.21,-28.44,-8.634,-26.62,-55.03,-22.34,0,0,0,0,0,0,0,0,0,0,0,0,0,0,0,0,
468,-3.341,-8.556,-53.8,31.95,-6.712,-45.86,-9.776,18.57,-24.84,6.122,-18.76,-24.71,-15.92,-42.1,-54.2,-31.21,0,0,0,0,0,0,0,0,0,0,0,0,0,0,0,0,
469,-24.43,-13.67,-60.28,16.46,-5.906,-50.45,-5.653,0.2765,-19.71,48.55,-0.5626,-19.78,-21.49,-37.93,-37.62,-29.42,0,0,0,0,0,0,0,0,0,0,0,0,0,0,0,0,
470,-34.36,-9.979,-76.42,-10.19,-28.04,-69.64,-25.79,-23.96,-26.46,2.343,4.672,-17.85,-24.6,-38.71,-32.2,-29.41,0,0,0,0,0,0,0,0,0,0,0,0,0,0,0,0,
471,-16.51,-11.27,-87.07,-24.26,-54.2,-88.46,-49.33,-25,-77.99,-21.36,-29.27,-31.98,-33.14,-49.9,-45.82,-41.93,0,0,0,0,0,0,0,0,0,0,0,0,0,0,0,0,
472,-21.01,-17.66,-87.19,-33.23,-52.37,-110,-55.64,-26.49,-94.75,4.584,-49.08,-39.53,-28.67,-36.87,-41.87,-40,0,0,0,0,0,0,0,0,0,0,0,0,0,0,0,0,
473,-40.52,-6.065,-72,-33.15,-19.52,-103.1,-51.73,-36.2,-18.54,12.93,-46.01,-41.83,-23.28,-26.22,-37.63,-32.74,0,0,0,0,0,0,0,0,0,0,0,0,0,0,0,0,
474,-70.8,-16.57,-72.36,-43.21,-11.16,-103.8,-72.02,-54.83,-5.668,-3.82,-64.78,-65.76,-44.3,-49.05,-56.35,-39.68,0,0,0,0,0,0,0,0,0,0,0,0,0,0,0,0,
475,-103.5,-48.41,-84.83,-61.44,-25.81,-126.2,-90,-83.16,-71.24,-14.35,-74.6,-77.67,-54.68,-49.18,-62.36,-34.97,0,0,0,0,0,0,0,0,0,0,0,0,0,0,0,0,
476,-93.48,-47.53,-84.88,-63.27,-37.48,-120.9,-84.03,-96.1,-72.98,-13.47,-65.73,-68.11,-48.43,-31.17,-57.46,-25.93,0,0,0,0,0,0,0,0,0,0,0,0,0,0,0,0,
477,-74.11,-43.69,-88.03,-54.26,-49.59,-97.01,-81.76,-78.77,-45.56,-11.18,-70.41,-62.02,-42.47,-27.98,-50.98,-19.08,0,0,0,0,0,0,0,0,0,0,0,0,0,0,0,0,
478,-74,-38.11,-83.39,-39.52,-37.5,-79.63,-71.35,-70.11,-61.44,-24.6,-72.02,-45.64,-19.33,-9.586,-31.68,-0.8065,0,0,0,0,0,0,0,0,0,0,0,0,0,0,0,0,
479,-53.62,-3.311,-69.32,-29.73,-20.26,-57.61,-52.34,-88.5,-61.79,-34.74,-60.34,-24.34,-2.159,1.714,-20.28,8.23,0,0,0,0,0,0,0,0,0,0,0,0,0,0,0,0,
480,-29.42,12.37,-63.8,-18.1,-26.07,-20.76,-37.43,-74.34,-8.196,11.41,-33.98,-7.181,0.2413,-8.481,-10.84,14.98,0,0,0,0,0,0,0,0,0,0,0,0,0,0,0,0,
481,-22.98,11.26,-42.96,12.58,-20.22,10.32,-9.55,-30.13,25.61,63.53,-2.777,17.07,16.95,5.099,9.395,30.17,0,0,0,0,0,0,0,0,0,0,0,0,0,0,0,0,
482,-0.7852,30.17,-13.16,28.05,-7.69,6.523,12.23,-18.32,-8.348,51.37,-7.883,31.66,31.27,21.01,14.54,26.41,0,0,0,0,0,0,0,0,0,0,0,0,0,0,0,0,
483,27.79,48.57,-4.027,28.18,-3.563,-9.246,21.86,-11.07,-31.75,46.69,-31.96,24.95,30.14,6.681,6.466,12.64,0,0,0,0,0,0,0,0,0,0,0,0,0,0,0,0,
484,18.19,62.23,-6.797,44.03,6.695,-15.07,41.7,10.56,-6.586,78.57,-27.82,10.63,26.52,-4.462,4.222,9.426,0,0,0,0,0,0,0,0,0,0,0,0,0,0,0,0,
485,-8.126,65.62,-12.7,45.05,3.441,-28.5,39.13,3.829,1.924,72.81,-7.476,4.848,17.08,-2.92,7.118,7.339,0,0,0,0,0,0,0,0,0,0,0,0,0,0,0,0,
486,-4.923,38.93,-20.86,21.99,-16.47,-50.56,3.01,-23.07,-17.84,37.82,7.275,12.26,5.337,-11.54,12.86,3.765,0,0,0,0,0,0,0,0,0,0,0,0,0,0,0,0,
487,3.325,17.49,-31.46,7.746,-21.32,-75.94,-15.9,-41.87,-23.56,29.81,27.2,21.05,5.534,-12.57,22.49,7.285,0,0,0,0,0,0,0,0,0,0,0,0,0,0,0,0,
488,-9.378,24.2,-40.11,3.297,-9.813,-92.15,-12.2,-41.18,-14.68,48.63,49.08,21.29,9.388,4.085,26.26,11.2,0,0,0,0,0,0,0,0,0,0,0,0,0,0,0,0,
489,-20.25,16.95,-43.87,-2.661,-13.6,-83.26,-20.01,-28.06,-33.21,53.6,40.91,7.426,-3.334,-2.045,13.06,-1.493,0,0,0,0,0,0,0,0,0,0,0,0,0,0,0,0,
490,-20.29,-4.234,-56.17,-5.183,-36.74,-67.66,-30.67,-34.02,-68.16,32.26,19.74,-7.38,-16.48,-24.74,7.026,-14.57,0,0,0,0,0,0,0,0,0,0,0,0,0,0,0,0,
491,-15.41,-3.455,-69.26,-1.017,-42.4,-67.97,-32.93,-57.32,-48.93,27.12,22.38,-11.58,-13.29,-25.65,12.24,-12.11,0,0,0,0,0,0,0,0,0,0,0,0,0,0,0,0,
492,-22.47,-5.006,-71.66,-5.505,-28.17,-83.41,-40.35,-74.87,-8.196,30.98,18.82,-19.7,-7.984,-12.1,1.473,-6.527,0,0,0,0,0,0,0,0,0,0,0,0,0,0,0,0,
493,-35.41,-3.091,-66.72,-12.6,-10.78,-85.45,-29.41,-75.44,-16.99,-0.2552,5.499,-15.83,11.17,11.78,4.009,14,0,0,0,0,0,0,0,0,0,0,0,0,0,0,0,0,
494,-21.95,31.75,-51.29,-7.193,5.272,-69.23,-4.889,-64.22,-27.96,-25.47,8.222,-2.406,29.24,21.95,21.37,34.67,0,0,0,0,0,0,0,0,0,0,0,0,0,0,0,0,
495,-17.75,28.46,-44.15,-14.11,-3.852,-73.27,-15.82,-67.29,-10.02,4.427,1.232,-15.44,10.94,0.2466,11.89,27.53,0,0,0,0,0,0,0,0,0,0,0,0,0,0,0,0,
496,-30.97,-15.39,-42.66,-14.89,-14.47,-75.22,-23.91,-77.99,5.525,42.09,-11.57,-20.92,4.294,3.552,8.252,31.75,0,0,0,0,0,0,0,0,0,0,0,0,0,0,0,0,
497,-10.88,-4.458,-21.65,16.87,1.654,-56.36,4.307,-83.22,13.11,33.53,-11.08,-4.378,26.06,24.99,20.63,48.75,0,0,0,0,0,0,0,0,0,0,0,0,0,0,0,0,
498,1.974,31.3,-11.23,22.27,0.6717,-67.2,18.59,-91.35,4.06,17.28,-10.43,-0.1817,34.12,19.96,18.08,48.5,0,0,0,0,0,0,0,0,0,0,0,0,0,0,0,0,
499,-7.08,42.45,-21.68,-0.8596,-10.84,-83.48,17.37,-83.23,-12.58,26.5,-0.8465,14.18,46.12,26.4,23.01,57.1,0,0,0,0,0,0,0,0,0,0,0,0,0,0,0,0,
500,10.14,52.14,-16.87,3.782,-4.777,-63.84,20.69,-63.64,-10.75,21.97,9.554,39.93,66.63,40.62,35.53,68.55,0,0,0,0,0,0,0,0,0,0,0,0,0,0,0,0,
501,29.9,53.85,3.147,18.51,-8.677,-44.57,29.54,-50.85,-12.4,17.29,4.079,52.54,74.49,33.06,37.94,59.63,0,0,0,0,0,0,0,0,0,0,0,0,0,0,0,0,
502,52.55,59.88,16.17,19.99,-8.379,-37.14,50.95,-34.12,-29.04,38.71,3.642,65.89,77.44,29.82,46.95,53.68,0,0,0,0,0,0,0,0,0,0,0,0,0,0,0,0,
503,82,71.77,14.03,17.55,15.19,-34.53,51.79,-26.75,-22.24,45,14.3,73.73,70.3,35.84,63.48,61.5,0,0,0,0,0,0,0,0,0,0,0,0,0,0,0,0,
504,64.3,57.03,15.67,11.94,20.58,-43.77,30.82,-20.05,3.631,43.54,11.59,61.92,55.9,39.56,63.3,61.31,0,0,0,0,0,0,0,0,0,0,0,0,0,0,0,0,
505,15.12,40.21,22.89,-3.36,-14.33,-59.65,23.85,0.1304,-3.729,50.06,-22.22,30.96,38.43,25.09,29.87,33.8,0,0,0,0,0,0,0,0,0,0,0,0,0,0,0,0,
506,-21.53,32.01,6.793,-22.15,-48.96,-68.94,15.67,2.99,-26,45.21,-42.56,5.709,18.16,-4.833,7.218,12.6,0,0,0,0,0,0,0,0,0,0,0,0,0,0,0,0,
507,-27.76,20.41,-9.954,-13.52,-46.46,-59.37,8.787,0.3825,-21.1,39.28,-16.65,18.69,17.31,-11.95,27.83,24.61,0,0,0,0,0,0,0,0,0,0,0,0,0,0,0,0,
508,-5.031,20.61,-13.16,4.364,-39.02,-59.76,8.841,-1.415,-20.77,16.34,-18.23,21.74,12.86,-18.48,24.25,16.57,0,0,0,0,0,0,0,0,0,0,0,0,0,0,0,0,
509,-10.62,8.095,-34.27,-10.2,-39.68,-83.95,-9.493,-21.8,-25.3,-3.522,-49.25,-11.08,-16.2,-42.64,-12.48,-15.26,0,0,0,0,0,0,0,0,0,0,0,0,0,0,0,0,
510,-36.54,-19.4,-49.65,-23.83,-20.33,-88.31,-20.45,-22.53,-14.63,18.97,-37.41,-21.03,-29.91,-39.78,-20.01,-21.34,0,0,0,0,0,0,0,0,0,0,0,0,0,0,0,0,
511,-26.79,-13.6,-32.3,-17.53,-14.17,-78.68,-7.088,-4.957,-20.82,12.24,-27.38,-19,-28.94,-27.88,-20.87,-22.62,0,0,0,0,0,0,0,0,0,0,0,0,0,0,0,0,
512,-25.82,2.703,-4.736,-14.24,-32.36,-82.51,-6.641,-7.508,-27.34,-21.71,-49.23,-41.77,-43.05,-42.15,-46.91,-42.71,0,0,0,0,0,0,0,0,0,0,0,0,0,0,0,0,
513,-56.15,-23.74,2.95,-16.8,-40.72,-95.31,-28.9,-17.34,-33.88,-12.3,-60.76,-61.39,-62.29,-57.65,-74.07,-64.48,0,0,0,0,0,0,0,0,0,0,0,0,0,0,0,0,
514,-58.95,-57.47,-20.88,-31.92,-55.11,-120.8,-41.55,-32.5,-85.27,-4.586,-67.06,-57.45,-60.07,-54.42,-77.15,-67.56,0,0,0,0,0,0,0,0,0,0,0,0,0,0,0,0,
515,-29.64,-32.92,-28.56,-38.43,-66.82,-132.1,-19.59,-41.98,-114.1,-1.531,-65.56,-39.3,-30.91,-33.72,-57.96,-42.7,0,0,0,0,0,0,0,0,0,0,0,0,0,0,0,0,
516,-17.25,17.35,2.163,-15.17,-46.74,-108.7,9.16,-22.24,-60.64,24.84,-42.47,-24.77,-3.01,-6.069,-41.9,-11.24,0,0,0,0,0,0,0,0,0,0,0,0,0,0,0,0,
517,-26.77,36.36,29.36,11.47,-6.151,-75.36,24.59,3.629,20.49,29.97,0.8823,0.9711,24.81,29.17,-7.159,26.48,0,0,0,0,0,0,0,0,0,0,0,0,0,0,0,0,
518,-7.638,62.67,62.64,44.85,45.81,-34.43,56.73,35.31,82.73,39.1,65.04,58.88,69.62,69.15,61.37,76.85,0,0,0,0,0,0,0,0,0,0,0,0,0,0,0,0,
519,46.77,100.2,98.24,77.18,74.33,-0.6035,81.44,72.65,90.51,69.02,100.5,95.71,86.93,76.07,91.53,97,0,0,0,0,0,0,0,0,0,0,0,0,0,0,0,0,
520,72.94,80.16,83.82,59.8,50.99,-11.03,55.62,56.93,45.2,56.59,73.89,78.77,61.32,56.44,69.12,82.18,0,0,0,0,0,0,0,0,0,0,0,0,0,0,0,0,
521,51.85,32.87,52.63,15.52,16.1,-48.13,22.39,-2.827,18.62,20.69,32.16,57.44,45.15,57,54.64,73.54,0,0,0,0,0,0,0,0,0,0,0,0,0,0,0,0,
522,31.31,26.47,60,-1.208,4.949,-65.2,16.25,-26.98,26.27,10.89,10.52,50.6,41.02,56.4,40.76,64.79,0,0,0,0,0,0,0,0,0,0,0,0,0,0,0,0,
523,27.66,22.6,69.52,-6.019,5.413,-64.53,3.467,-25.46,15.04,3.356,0.521,30.92,16.24,22.58,5.194,37.13,0,0,0,0,0,0,0,0,0,0,0,0,0,0,0,0,
524,10.07,-6.595,46.77,-25.52,-10.57,-79.61,-21.28,-41.7,-16.99,-15.25,-7.348,2.371,-2.182,3.149,-14.62,19.65,0,0,0,0,0,0,0,0,0,0,0,0,0,0,0,0,
525,-17.18,-3.936,30.66,-35.97,-33.38,-97.76,-26.46,-41.24,-30.25,-21.34,-14.56,-15.45,8.931,19.96,-10.51,23.43,0,0,0,0,0,0,0,0,0,0,0,0,0,0,0,0,
526,-34.4,13.83,33.7,-31.14,-35.93,-102.7,-29.26,-22.37,-41.35,-5.565,-34.38,-38.26,-0.1833,11.19,-25.8,5.398,0,0,0,0,0,0,0,0,0,0,0,0,0,0,0,0,
527,-54.49,-15.32,19.65,-33.96,-39.98,-103.7,-39.97,-23.34,-71.03,24.15,-61.09,-59.49,-26.95,-17.69,-47.83,-22.19,0,0,0,0,0,0,0,0,0,0,0,0,0,0,0,0,
528,-49.31,-24.35,9.252,-25.52,-49.17,-74.62,-17.9,-25.77,-73.13,36.1,-61.9,-49.31,-17.24,-12.44,-40.68,-17.2,0,0,0,0,0,0,0,0,0,0,0,0,0,0,0,0,
529,-20.72,12.71,16.49,-12.85,-43.36,-42.65,2.656,-33.89,-52.26,0.9132,-60.51,-47.15,-14.03,-12.56,-34.66,-18.15,0,0,0,0,0,0,0,0,0,0,0,0,0,0,0,0,
530,-47.57,-0.8581,-1.279,-31.99,-45.9,-63.85,-23.66,-53.42,-56.68,-31.89,-76.3,-67.04,-39.54,-31,-37.89,-31.65,0,0,0,0,0,0,0,0,0,0,0,0,0,0,0,0,
531,-88.47,-37.51,-27.86,-42.13,-62.7,-84.95,-40.33,-42.87,-76.53,-23.98,-66.72,-58.28,-38.35,-27.48,-28.53,-22.04,0,0,0,0,0,0,0,0,0,0,0,0,0,0,0,0,
532,-62.18,-29.83,-39.25,-29.05,-73.6,-77.63,-33.54,-25.82,-103.3,-26.21,-51.41,-41.35,-30.03,-29.87,-25.5,-18.37,0,0,0,0,0,0,0,0,0,0,0,0,0,0,0,0,
533,-29.69,-20.11,-51.55,-32.31,-71.68,-79.87,-33.59,-24.04,-109.7,-38.17,-71.31,-49.41,-38.27,-40.91,-39.16,-30.01,0,0,0,0,0,0,0,0,0,0,0,0,0,0,0,0,
534,-45.61,-20.42,-49.01,-36.39,-66.08,-82.11,-30.96,-12.05,-69.96,-34.06,-95.19,-64.85,-44.3,-40.5,-65.37,-43.01,0,0,0,0,0,0,0,0,0,0,0,0,0,0,0,0,
535,-77.43,-23.72,-30.47,-36.29,-74.45,-71.13,-31.65,-5.931,-48.01,-36,-86.3,-63.65,-49.78,-45.18,-72.12,-52.27,0,0,0,0,0,0,0,0,0,0,0,0,0,0,0,0,
536,-67.36,-28.91,-14.42,-37.27,-70.74,-43.69,-23.74,7.716,-56.95,-28.39,-51.55,-28.52,-37.17,-36.36,-39.64,-35.3,0,0,0,0,0,0,0,0,0,0,0,0,0,0,0,0,
537,-22.53,-17.5,-16.27,-27.18,-49.07,-27.72,-6.921,30.9,-47.33,-21.46,-45.17,-14.31,-26.87,-29.81,-43.03,-30.42,0,0,0,0,0,0,0,0,0,0,0,0,0,0,0,0,
538,-25.82,-19.29,-49.02,-32.71,-49.03,-53.35,-17.41,16.84,-30.35,-29.76,-62.84,-40.47,-42.89,-45.16,-70.52,-48.37,0,0,0,0,0,0,0,0,0,0,0,0,0,0,0,0,
539,-38.27,-24.28,-64,-42.88,-38.39,-55.84,-24.05,1.012,-11.61,-17.92,-37.13,-25.65,-30,-25.78,-38.71,-26.61,0,0,0,0,0,0,0,0,0,0,0,0,0,0,0,0,
540,-0.4175,0.7203,-44.23,-28.43,-2.786,-29.39,-16.13,-3.007,2.879,-35.42,-18.89,-5.133,-4.454,3.695,-22.6,-4.444,0,0,0,0,0,0,0,0,0,0,0,0,0,0,0,0,
541,-9.407,1.407,-43.8,-24.72,-0.1231,-44.02,-32.37,-32.56,-18.23,-69.11,-58.44,-38.49,-18.55,-11.4,-56.28,-19.13,0,0,0,0,0,0,0,0,0,0,0,0,0,0,0,0,
542,-57.1,-29.47,-59.4,-41.14,-21.26,-64.52,-46.72,-39.55,-52.65,-19.58,-76,-54.07,-30.36,-20.47,-50.14,-12.76,0,0,0,0,0,0,0,0,0,0,0,0,0,0,0,0,
543,-48.88,-42.06,-76.53,-53.16,-29.75,-57.15,-45.47,-16.15,-58.76,20.84,-55.66,-41.56,-19.28,2.347,-23.18,5.838,0,0,0,0,0,0,0,0,0,0,0,0,0,0,0,0,
544,-33.01,-34.11,-94.1,-55.39,-37.27,-49.21,-41.17,-12.57,-42.2,-9.555,-53.19,-45.2,-11.39,20.16,-25.12,-1.018,0,0,0,0,0,0,0,0,0,0,0,0,0,0,0,0,
545,-41.1,-13.82,-85.85,-50.05,-56.74,-40.58,-23,-10.02,-41.96,0.9129,-72.92,-53.96,-16.26,11.43,-37.79,-17.62,0,0,0,0,0,0,0,0,0,0,0,0,0,0,0,0,
546,-42.79,1.379,-74.4,-48.74,-73.19,-36.46,-10.31,-0.0712,-59.23,30.39,-86.96,-60.76,-27.04,-6.424,-43.18,-26.59,0,0,0,0,0,0,0,0,0,0,0,0,0,0,0,0,
547,-46.63,3.822,-83.34,-51.21,-70.53,-43.8,-15.94,-6.028,-64.19,10.78,-79.89,-58.96,-26.64,-6.568,-29.56,-24.81,0,0,0,0,0,0,0,0,0,0,0,0,0,0,0,0,
548,-47.61,0.6057,-89.79,-54.81,-77.54,-59.44,-29.89,-18.3,-79.22,-7.473,-79.08,-50.7,-26.07,-5.991,-16.19,-24.89,0,0,0,0,0,0,0,0,0,0,0,0,0,0,0,0,
549,-43.37,-15.32,-87.26,-55.9,-97.21,-69.85,-44.77,-18.15,-95.65,-7.031,-84.36,-46.05,-30.42,-10.56,-17.23,-27.54,0,0,0,0,0,0,0,0,0,0,0,0,0,0,0,0,
550,-42.25,-18.48,-72.36,-39.16,-93.69,-53.48,-40.6,-5.615,-72.34,-5.189,-58.28,-31.29,-25.3,-7.671,-13.47,-25.47,0,0,0,0,0,0,0,0,0,0,0,0,0,0,0,0,
551,-35.76,-6.774,-52.27,-26.91,-95.12,-41.69,-28.27,3.455,-56.83,2.346,-35.33,-18.66,-28.08,-16.16,-11.55,-27.6,0,0,0,0,0,0,0,0,0,0,0,0,0,0,0,0,
552,-33.66,-10.42,-47.19,-26.54,-109.6,-49.06,-22.56,12.22,-62.78,-4.761,-46.6,-16.73,-28.11,-19.31,-7.525,-18.77,0,0,0,0,0,0,0,0,0,0,0,0,0,0,0,0,
553,-27.26,4.584,-43.06,-8.741,-95.36,-29.99,-2.717,31.79,-40.73,-23.45,-46.41,4.893,-0.252,2.85,17.35,9.207,0,0,0,0,0,0,0,0,0,0,0,0,0,0,0,0,
554,15,40.94,-18.41,4.338,-68.41,6.553,20.27,44.38,-7.529,-3.183,-12.78,41.07,20.38,14.42,40.86,27.23,0,0,0,0,0,0,0,0,0,0,0,0,0,0,0,0,
555,58.46,38.74,21.09,-0.3095,-38.63,16.42,20.67,39.6,24.32,35.56,24.7,57.49,16.64,9.281,50.75,31.09,0,0,0,0,0,0,0,0,0,0,0,0,0,0,0,0,
556,54.19,18.46,55.03,12.28,8.75,6.332,19.24,31.67,62.43,34.17,51.24,65.12,29.4,19.87,73.8,47.18,0,0,0,0,0,0,0,0,0,0,0,0,0,0,0,0,
557,53.23,45.37,75.59,38.33,34.69,6.233,41.39,36.12,77.66,39,80.61,88.23,67.34,49.48,102.6,72.27,0,0,0,0,0,0,0,0,0,0,0,0,0,0,0,0,
558,83.28,89.05,80.15,43.57,16.18,11.15,56.17,44.43,73.23,65.97,91.28,88.21,75.77,61.24,88.55,65.16,0,0,0,0,0,0,0,0,0,0,0,0,0,0,0,0,
559,71.63,76.73,79.57,42.19,13.42,11.06,44.35,48.55,76.81,55.28,69.77,54.66,51.75,50.61,54.61,40.27,0,0,0,0,0,0,0,0,0,0,0,0,0,0,0,0,
560,46.65,50.53,123.6,94.75,52.27,38.56,63.58,82.69,72.82,58.56,67.18,49.41,61.16,63.86,56.95,50.33,0,0,0,0,0,0,0,0,0,0,0,0,0,0,0,0,
561,67.07,75.92,184.4,176.3,54.08,79.11,113.2,136.1,46.39,98.71,60.63,45.53,79.94,81.67,52.53,59.19,0,0,0,0,0,0,0,0,0,0,0,0,0,0,0,0,
562,52.14,98.82,205.8,215.1,34.76,92.17,132.8,161.4,32.61,104.7,5.98,7.505,61.54,68.54,22.1,39.86,0,0,0,0,0,0,0,0,0,0,0,0,0,0,0,0,
563,25.45,96.11,291,281.7,99.42,121.8,156.1,195.4,40.48,115.1,-22.97,14.71,61.32,69.3,25.08,41.71,0,0,0,0,0,0,0,0,0,0,0,0,0,0,0,0,
564,87.35,116.1,464.9,422,187.9,181.9,213.3,262.1,48.11,150.3,-8.55,64.28,90.81,93.54,49.3,60.22,0,0,0,0,0,0,0,0,0,0,0,0,0,0,0,0,
565,148,143.4,583.4,534,238.9,241,260,314,93.54,153.8,-0.6121,87.19,102.7,105.5,65.44,70.31,0,0,0,0,0,0,0,0,0,0,0,0,0,0,0,0,
566,144.6,149.2,657.9,608.7,311.1,306.6,284.9,337.3,158.4,147.8,20.7,103.8,99.34,99.33,84.67,77.64,0,0,0,0,0,0,0,0,0,0,0,0,0,0,0,0,
567,157,145.9,736.8,678.6,367.6,344.9,309.7,348.5,162.2,135.7,49.71,122,96.57,87.97,93.96,77.97,0,0,0,0,0,0,0,0,0,0,0,0,0,0,0,0,
568,179.2,152.9,741.3,685.4,390.5,340.2,345.9,361.2,155.2,108.5,57.85,120.2,101.5,96.67,92.16,82.48,0,0,0,0,0,0,0,0,0,0,0,0,0,0,0,0,
569,163.7,158.7,708.5,658.3,439.2,356.9,368.6,374.5,176.8,125.9,68.04,115.8,105.3,106.3,92.71,93.32,0,0,0,0,0,0,0,0,0,0,0,0,0,0,0,0,
570,158.9,137.4,722.9,669.9,489.1,410.5,368.7,375.8,181.8,169.2,93.36,125.2,102.1,92.72,100.7,100.9,0,0,0,0,0,0,0,0,0,0,0,0,0,0,0,0,
571,196.8,132.7,730.7,677.3,529.9,452.5,390.1,381.6,192.3,164.4,108.9,133.2,109.6,98.52,110.7,107.9,0,0,0,0,0,0,0,0,0,0,0,0,0,0,0,0,
572,205.7,161.7,714,661.7,556.4,442.3,402.7,392.4,187,138.3,81.61,113.2,111.2,119.2,97.33,98.55,0,0,0,0,0,0,0,0,0,0,0,0,0,0,0,0,
573,165.3,160.2,726.9,672.9,528.6,404.8,366.3,374.6,154.3,148.3,37.22,86.66,101.1,117.3,79.64,83.98,0,0,0,0,0,0,0,0,0,0,0,0,0,0,0,0,
574,153.2,147.2,729.9,676.6,495.3,392,338.4,327.2,179.9,160.3,31.47,85.05,108.1,116.8,81.17,85.86,0,0,0,0,0,0,0,0,0,0,0,0,0,0,0,0,
575,164.9,153.5,670.6,624.5,479.3,372.3,317.3,283.8,193.4,128.2,43.66,87.95,114.4,122.5,73.23,80.19,0,0,0,0,0,0,0,0,0,0,0,0,0,0,0,0,
576,173,136.8,606.1,568.1,435,319.3,271.5,269.5,120.6,99.87,44.67,93.34,106.4,116.3,63.05,68.49,0,0,0,0,0,0,0,0,0,0,0,0,0,0,0,0,
577,197.7,116,570.3,521.7,387.5,275.2,240.9,254.9,115.4,107.3,44.73,99.74,102.8,109.2,62.92,64.85,0,0,0,0,0,0,0,0,0,0,0,0,0,0,0,0,
578,180.7,117.6,523.4,457.9,366.6,246.9,225.6,212.3,201.3,108.2,38.62,85.3,98.49,100.8,52.51,54.26,0,0,0,0,0,0,0,0,0,0,0,0,0,0,0,0,
579,124.9,111.8,468.6,415,354.6,226.3,201.7,178.2,214.5,95.43,39.31,78.03,87.45,83.72,46.78,39.98,0,0,0,0,0,0,0,0,0,0,0,0,0,0,0,0,
580,122,100.1,426.5,394.5,334,222.1,183.1,165.9,166.1,91.27,58.23,86.13,76.37,70.78,50.53,30.84,0,0,0,0,0,0,0,0,0,0,0,0,0,0,0,0,
581,128.8,98.13,385.2,363.8,294.9,220,172.5,157.9,152.7,91.99,57,76.8,66.59,62.68,41.56,22.3,0,0,0,0,0,0,0,0,0,0,0,0,0,0,0,0,
582,104.9,93.09,331.5,336.3,236.2,201.1,159.2,148.9,138.7,77.61,28.01,59.74,50.92,35.88,30.26,12.54,0,0,0,0,0,0,0,0,0,0,0,0,0,0,0,0,
583,111.1,75.19,273.9,303.6,182.5,181.7,144.4,127.2,119.5,53.82,33.99,56.84,35.51,9.403,37.31,12.64,0,0,0,0,0,0,0,0,0,0,0,0,0,0,0,0,
584,129.9,65.8,253.2,269.5,180.8,192.2,140.6,117.6,145.3,56.48,86.1,65.74,40.61,19.76,50.43,26.5,0,0,0,0,0,0,0,0,0,0,0,0,0,0,0,0,
585,120.1,73.08,250.6,247.7,201.9,197.1,134.4,133.7,152.6,56.15,93.73,67.89,45.1,29.72,40.32,23.21,0,0,0,0,0,0,0,0,0,0,0,0,0,0,0,0,
586,112.8,64.51,207.5,207.1,177.9,165,109.7,130.8,113.1,29.54,45.82,58.97,31.08,20.75,23.16,5.574,0,0,0,0,0,0,0,0,0,0,0,0,0,0,0,0,
587,125,45.99,161.6,167.6,147.3,144.2,97.69,107.4,101,36.46,35.5,62.91,26.81,26.57,30.12,7.089,0,0,0,0,0,0,0,0,0,0,0,0,0,0,0,0,
588,130.2,46.05,135.6,157.2,136.5,131.4,99.32,92.47,93.7,44.33,57.08,73.55,34.96,34.83,39.24,9.655,0,0,0,0,0,0,0,0,0,0,0,0,0,0,0,0,
589,110.7,56.25,101.5,142.5,107.9,112.3,92.7,89.98,65.5,6.251,53.17,68.01,44.55,41.52,36.65,3.076,0,0,0,0,0,0,0,0,0,0,0,0,0,0,0,0,
590,81.51,64.82,86.71,123.4,76.96,123.6,88.81,93.38,58.31,8.556,36.78,48.98,48.55,54.07,33.15,5.442,0,0,0,0,0,0,0,0,0,0,0,0,0,0,0,0,
591,57.19,53.47,76.38,108.6,54.67,122.1,72.97,92.67,54.43,60.65,21.54,24.93,39.52,55.25,25.82,14.25,0,0,0,0,0,0,0,0,0,0,0,0,0,0,0,0,
592,31.82,32.72,42.8,89.57,37.58,79.93,48.34,102.1,52.35,78.96,5.058,4.033,40.19,64.22,14.3,22.23,0,0,0,0,0,0,0,0,0,0,0,0,0,0,0,0,
593,2.675,36.49,28.81,72.71,28.28,51.87,43.31,109,55.04,59.7,-4.769,-12.39,44.25,73.4,2.128,19.42,0,0,0,0,0,0,0,0,0,0,0,0,0,0,0,0,
594,-3.168,35.63,20.56,50.95,1.657,43.56,36.61,76.3,25.53,36.72,10.07,-8.154,35.59,57.58,13.99,22.65,0,0,0,0,0,0,0,0,0,0,0,0,0,0,0,0,
595,34.23,19.48,-7.742,31.61,-18.42,48.58,24.34,39.12,21.38,28.01,56.4,26.64,41.39,54.34,53.43,49.69,0,0,0,0,0,0,0,0,0,0,0,0,0,0,0,0,
596,59.45,19.46,-18.13,31.12,-4.518,67.2,28.75,30.84,86.27,34.09,95.95,52.38,52.39,64.58,74.5,65.26,0,0,0,0,0,0,0,0,0,0,0,0,0,0,0,0,
597,47.73,23.09,-6.017,41.66,9.182,77.04,40.91,34.53,135.4,34.69,100.8,61.46,48.54,53.65,75.93,57.4,0,0,0,0,0,0,0,0,0,0,0,0,0,0,0,0,
598,59.88,23.43,3.839,49.52,11.11,74.62,39.01,41.55,117.7,20.07,76.61,65.5,35.27,25.93,62.87,32.41,0,0,0,0,0,0,0,0,0,0,0,0,0,0,0,0,
599,76.12,18.19,-1.392,35.65,1.455,55.53,11.81,43.14,86.83,8.856,56.43,49.19,11.72,0.5449,25.65,-6.278,0,0,0,0,0,0,0,0,0,0,0,0,0,0,0,0,
600,57.45,3.413,-13.76,21.14,-13.63,37.72,-5.88,47.48,102,23.05,85.5,44.41,6.357,2.565,15.56,-15.34,0,0,0,0,0,0,0,0,0,0,0,0,0,0,0,0,
601,55.22,7.79,-13.7,29.83,-20,38.83,5.325,55.64,112.9,35.75,108.4,60.62,20.25,14.56,35.3,-2.753,0,0,0,0,0,0,0,0,0,0,0,0,0,0,0,0,
602,73.89,16.26,-19.71,19.41,-37.01,22.43,-1.503,46.37,64.15,18.99,71.76,57.98,18.49,7.079,34.68,-7.403,0,0,0,0,0,0,0,0,0,0,0,0,0,0,0,0,
603,77.61,1.539,-46.99,-9.343,-52.58,-6.332,-27.33,35.33,42.49,4.681,49.7,47.11,17.36,9.459,27.9,-4.639,0,0,0,0,0,0,0,0,0,0,0,0,0,0,0,0,
604,55.23,-7.653,-67.41,-16.97,-41.74,-9.625,-32.95,28.69,83.95,13.51,56.59,38.26,24.41,23.57,29.33,11.93,0,0,0,0,0,0,0,0,0,0,0,0,0,0,0,0,
605,15.71,-0.1403,-61.37,-14.29,-23.8,13.16,-21.43,20.05,102.5,24.02,51.63,32.81,26.29,28.67,35.06,24.23,0,0,0,0,0,0,0,0,0,0,0,0,0,0,0,0,
606,17.65,8.18,-46.97,-8.593,-10.2,46.56,-12.13,24.96,77.81,6.854,54.01,43.2,31.47,37.18,42.99,30.64,0,0,0,0,0,0,0,0,0,0,0,0,0,0,0,0,
607,56.53,15.03,-47.34,0.9805,-3.986,60.44,-11.62,31.99,51.68,-9.349,50.94,45.1,34.41,42.61,36.74,29.09,0,0,0,0,0,0,0,0,0,0,0,0,0,0,0,0,
608,59.72,24.26,-44.87,9.438,4.869,58.05,-8.269,33.47,53.87,34.24,32.16,34.24,32.92,35.02,29.2,32.13,0,0,0,0,0,0,0,0,0,0,0,0,0,0,0,0,
609,39.96,23.22,-36.8,14.19,16.29,55.61,-7.729,25.53,57.93,63.65,25.91,30.35,34.56,26.93,30.25,40.47,0,0,0,0,0,0,0,0,0,0,0,0,0,0,0,0,
610,44.84,12.62,-46.48,7.71,0.386,44.73,-11.51,1.938,23.89,32.19,27.09,38.47,48.28,36.12,31.76,52.49,0,0,0,0,0,0,0,0,0,0,0,0,0,0,0,0,
611,75.17,35.03,-39.59,12.77,-7.659,59.5,12.99,0.2748,15.69,48.4,27.04,57.04,70.55,57.35,37.24,68.9,0,0,0,0,0,0,0,0,0,0,0,0,0,0,0,0,
612,84.92,63.98,-8.846,29.2,16.57,90.35,34.29,13.21,60.88,72.78,26.81,58.55,67.14,56.99,39.12,65.91,0,0,0,0,0,0,0,0,0,0,0,0,0,0,0,0,
613,57.72,46.45,4.143,22.16,16.64,86.41,21.39,3.235,77.75,20.74,37.2,59.12,57.86,49.23,49.84,64.21,0,0,0,0,0,0,0,0,0,0,0,0,0,0,0,0,
614,76.38,42.34,17.22,11.3,4.794,92.34,22.18,-5.006,64.82,2.111,65.87,93.8,77.4,56.59,77.1,84.78,0,0,0,0,0,0,0,0,0,0,0,0,0,0,0,0,
615,132.4,70.22,30.41,14.82,9.994,117.2,30.43,-2.064,68.15,37.2,90.94,123.7,98.02,63.85,106.4,103.1,0,0,0,0,0,0,0,0,0,0,0,0,0,0,0,0,
616,129.7,88.23,15.33,17.51,-11.08,108.9,33.9,3.871,79.11,46.42,120.9,142.9,123.8,91.55,149.2,130.2,0,0,0,0,0,0,0,0,0,0,0,0,0,0,0,0,
617,110.9,115.7,-0.6494,14.78,-31.15,96.7,58,7.022,93.62,51.9,150.4,157.2,136.7,113.7,162.1,136.2,0,0,0,0,0,0,0,0,0,0,0,0,0,0,0,0,
618,109.5,115.9,6.057,3.437,16.97,102.6,58.96,-8.985,108.8,48.96,131.9,124.3,89.48,75.04,111.7,83.76,0,0,0,0,0,0,0,0,0,0,0,0,0,0,0,0,
619,85.12,66.76,34.37,7.479,83.3,106.6,28.28,-8.614,111,29.26,95.92,87.49,51.57,43.99,86.89,55.75,0,0,0,0,0,0,0,0,0,0,0,0,0,0,0,0,
620,78.76,50.44,62.32,28.49,96.56,114.7,18.27,17.05,112.6,46.72,96.86,91.44,65.03,63.93,107.2,78.38,0,0,0,0,0,0,0,0,0,0,0,0,0,0,0,0,
621,85.43,61.31,54.67,18.42,86.56,114.5,16.99,13.54,118.7,59.12,109,85.23,66.59,71.77,103.1,80.6,0,0,0,0,0,0,0,0,0,0,0,0,0,0,0,0,
622,60.15,56.39,28.93,-6.156,75.46,96.7,11.47,-12.26,90.6,9.695,95.81,65.81,56.35,57.43,85.59,67.78,0,0,0,0,0,0,0,0,0,0,0,0,0,0,0,0,
623,72.32,65.66,16.45,-2.776,44.25,95.19,17.71,-23.57,41.49,-7.173,63.71,60.62,56.56,45.88,74.91,65.58,0,0,0,0,0,0,0,0,0,0,0,0,0,0,0,0,
624,111.3,73.95,16.88,7.566,32.59,113.4,22.18,-20.36,58.79,51.48,43.92,47.56,49.89,34.49,59.04,59.92,0,0,0,0,0,0,0,0,0,0,0,0,0,0,0,0,
625,62.66,59.93,20.69,4.781,59.25,112.7,17.77,-14.51,116,67.29,51.5,37.28,52.63,37.11,59.77,62.63,0,0,0,0,0,0,0,0,0,0,0,0,0,0,0,0,
626,5.414,61.76,10.75,-3.095,66.99,90.99,15.46,-17.28,107,29.05,70.94,64.22,74,60.63,78.64,79.04,0,0,0,0,0,0,0,0,0,0,0,0,0,0,0,0,
627,59.82,74.63,-15.19,-16.81,37.68,66.68,9.137,-25.63,62.8,28.81,69.84,90.21,78.66,67.71,78.87,78.93,0,0,0,0,0,0,0,0,0,0,0,0,0,0,0,0,
628,103.8,64.49,-36.95,-35.09,5.641,42.25,-2.75,-29.04,53.48,30.77,35.03,76.12,66.41,46.2,65.28,67.84,0,0,0,0,0,0,0,0,0,0,0,0,0,0,0,0,
629,65.11,53.06,-28.05,-34.12,4.641,42.25,1.818,-15.85,51.97,7.542,13.88,64.64,69.71,41.86,60.5,74.28,0,0,0,0,0,0,0,0,0,0,0,0,0,0,0,0,
630,62.32,54.74,-1.963,-20.34,28.03,60.31,14.16,0.8345,35.91,14.64,31.02,73.37,73.77,56.89,51.98,78.49,0,0,0,0,0,0,0,0,0,0,0,0,0,0,0,0,
631,93.75,48.46,-12.52,-27.4,44.16,60.12,11.67,-6.763,41.93,33.05,45.28,76.95,64.82,55.11,52.51,73.56,0,0,0,0,0,0,0,0,0,0,0,0,0,0,0,0,
632,88.29,49.41,-38.62,-32.5,58.3,68.93,16.92,-7.742,72.52,34.27,39.11,80.25,64.8,47.85,69.45,75.67,0,0,0,0,0,0,0,0,0,0,0,0,0,0,0,0,
633,78.22,56.89,-39.06,-30.28,50.89,83.29,23.93,8.82,65.58,31.11,23.74,73.27,62.5,48.4,61.86,65.03,0,0,0,0,0,0,0,0,0,0,0,0,0,0,0,0,
634,75.74,47.56,-46.94,-53.07,13.13,64.45,10.8,0.2046,35.9,28.27,20.94,58.25,57.84,56.07,50.24,57.68,0,0,0,0,0,0,0,0,0,0,0,0,0,0,0,0,
635,64.75,55.79,-58.05,-61.57,13.77,46.67,10.17,-13.64,46.15,39.99,24.49,51.88,64.06,63.15,55.07,66.53,0,0,0,0,0,0,0,0,0,0,0,0,0,0,0,0,
636,41.88,75.76,-48.1,-41.46,38.07,44.65,21.8,-7.704,45.2,52.8,4.986,27.57,53.62,51.14,36.02,49.7,0,0,0,0,0,0,0,0,0,0,0,0,0,0,0,0,
637,20.47,68.35,-29.59,-32.22,36.75,55.26,28.24,3.848,18.74,57.12,16.58,14.46,46.1,51.13,27.99,36.52,0,0,0,0,0,0,0,0,0,0,0,0,0,0,0,0,
638,47.18,68.65,-4.283,-23.95,51.52,81.7,42.83,23.11,34.24,66.42,58.79,46.39,66.76,70.95,55.28,59.2,0,0,0,0,0,0,0,0,0,0,0,0,0,0,0,0,
639,82.44,80.14,-1.513,-22.12,71.79,65.94,46.45,30.63,60.07,54.09,37.1,67.17,75.21,65.59,67.95,72.58,0,0,0,0,0,0,0,0,0,0,0,0,0,0,0,0,
640,60.09,74.54,-30.09,-35.71,60.12,25.36,37.64,19.34,67.17,35.38,8.398,68.78,66.03,48.73,70.63,68.36,0,0,0,0,0,0,0,0,0,0,0,0,0,0,0,0,
641,32.08,66.16,-46.4,-41.05,38.17,30.77,38.44,16.72,75.88,45.36,33.61,74.78,55.36,37.76,71.38,59.43,0,0,0,0,0,0,0,0,0,0,0,0,0,0,0,0,
642,39.94,62.07,-48.37,-46.5,23.48,42.01,40.77,18.39,61.8,36.82,37.56,77.67,53.7,35.33,69.93,56.58,0,0,0,0,0,0,0,0,0,0,0,0,0,0,0,0,
643,64.65,73.84,-45.07,-49.19,38.13,27.12,43.62,13.21,39.53,6.592,28.99,89.39,67.47,56.21,83.84,67.54,0,0,0,0,0,0,0,0,0,0,0,0,0,0,0,0,
644,81.08,77.96,-39.52,-43.17,65.08,14.34,41.28,12.72,43.19,24.03,44.47,89.94,56.04,55.38,78.4,58.47,0,0,0,0,0,0,0,0,0,0,0,0,0,0,0,0,
645,67.76,46.44,-33.5,-40.91,57.73,20.93,42.61,32.5,55.94,74.3,46.09,68.14,33.48,27.09,53.84,40.12,0,0,0,0,0,0,0,0,0,0,0,0,0,0,0,0,
646,54.18,42.67,-8.371,-28.23,37,48.56,58.9,49.14,57.61,67.46,28.04,52.28,42.61,24.36,42.49,38.24,0,0,0,0,0,0,0,0,0,0,0,0,0,0,0,0,
647,51.62,63.66,2.494,-25.1,21,57.27,43.31,18.54,38.23,8.319,7.734,31.61,41.72,26.09,24.22,27.21,0,0,0,0,0,0,0,0,0,0,0,0,0,0,0,0,
648,33.73,51.5,-17.19,-48.1,-3.03,40.59,9.247,-19.72,21.38,-0.6178,-1.738,16.29,29.25,17.21,17.54,23.06,0,0,0,0,0,0,0,0,0,0,0,0,0,0,0,0,
649,20.99,48.11,-21.6,-58.5,-32.13,40.56,13.97,-22.75,25.69,30.56,0.2864,24.66,35.55,18.12,38.4,34.56,0,0,0,0,0,0,0,0,0,0,0,0,0,0,0,0,
650,23.48,56.66,-35.27,-66.57,-62.21,36.43,18.27,-31.07,14.17,14.62,-1.377,25.95,30.9,12.77,40.83,26.6,0,0,0,0,0,0,0,0,0,0,0,0,0,0,0,0,
651,28.48,33.78,-78.46,-91.82,-74.86,3.188,-4.596,-50.84,-13.71,-12.39,-1.146,19.84,19.2,6.329,25.9,15.75,0,0,0,0,0,0,0,0,0,0,0,0,0,0,0,0,
652,32.83,13.26,-93.71,-99.5,-63.75,-21.23,-14.95,-55.69,-11.46,0.4405,3.662,22.11,25.19,20.34,27.35,24.63,0,0,0,0,0,0,0,0,0,0,0,0,0,0,0,0,
653,23.24,18.65,-76.2,-85.35,-47.91,-7.392,-9.233,-51.36,15.51,16.47,11.1,23.06,26.08,27.6,34.14,27.79,0,0,0,0,0,0,0,0,0,0,0,0,0,0,0,0,
654,7.723,15.61,-75.71,-85.58,-37.55,20.6,-15.85,-51.92,19.78,13.43,12.34,12.46,2.097,-4.657,18.63,6.067,0,0,0,0,0,0,0,0,0,0,0,0,0,0,0,0,
655,-5.088,-6.738,-92.72,-100.5,-29.84,37.39,-28.42,-59.72,11.92,0.0638,-5.987,-2.088,-16.52,-32.78,1.568,-9.203,0,0,0,0,0,0,0,0,0,0,0,0,0,0,0,0,
656,-7.085,-4.556,-84.04,-90.74,-9.384,55.45,-16.95,-48.72,26.82,-9.596,-15.43,8.73,0.0934,-11.31,15.24,8.478,0,0,0,0,0,0,0,0,0,0,0,0,0,0,0,0,
657,23.61,15.25,-68.2,-75.74,-4.908,55.81,-8.815,-30.84,22.6,-12.22,-8.005,30.1,11.42,2.195,22.43,17.05,0,0,0,0,0,0,0,0,0,0,0,0,0,0,0,0,T1
658,52.17,1.116,-87.61,-93.28,-35.25,34.68,-16.68,-41.77,6.741,-25.23,-2.666,25.41,0.4892,-10.14,3.957,4.639,0,0,0,0,0,0,0,0,0,0,0,0,0,0,0,0,
659,38.1,3.101,-89.51,-87.2,-30.87,48.79,11.26,-43.06,36.06,-46.68,0.0563,5.194,-1.025,-5.561,-9.423,1.155,0,0,0,0,0,0,0,0,0,0,0,0,0,0,0,0,
660,-0.6627,25.16,-57.64,-50.94,-2.687,66.8,30.61,-25.93,37.48,-47.99,-24.62,-21.8,-18.1,-18.99,-19.89,-7.481,0,0,0,0,0,0,0,0,0,0,0,0,0,0,0,0,
661,-31.46,-15.86,-55.76,-51.63,-16.7,48.34,-2.111,-25.45,-6.06,-16.85,-51.45,-33.78,-36.82,-36.45,-16.14,-8.321,0,0,0,0,0,0,0,0,0,0,0,0,0,0,0,0,
662,-21.97,-41.22,-63.83,-59.14,-27.51,54.86,-2.108,-19.13,0.9795,8.667,-26.31,-5.549,-4.225,-4.622,12.77,16.65,0,0,0,0,0,0,0,0,0,0,0,0,0,0,0,0,
663,26.07,18.28,-41.59,-37.64,-6.261,88.18,35,-3.955,29.43,11.61,16.37,42.28,41.37,26.97,50.03,44.03,0,0,0,0,0,0,0,0,0,0,0,0,0,0,0,0,
664,86.46,67.31,-12.13,-20.4,23.31,110.3,47.11,1.085,57.49,30.65,61.25,99.98,71.17,43.16,104.1,83.13,0,0,0,0,0,0,0,0,0,0,0,0,0,0,0,0,
665,124.5,79.33,-7.159,-23.91,48.99,116.8,41.54,-4.552,112.6,39.87,103.2,132.3,86.76,61.84,137.3,111.2,0,0,0,0,0,0,0,0,0,0,0,0,0,0,0,0,
666,90.41,71.84,-43.37,-53.51,29.02,84.04,15.25,-35.63,100.9,15.55,79.87,92.79,62.6,51.5,104.9,85.95,0,0,0,0,0,0,0,0,0,0,0,0,0,0,0,0,
667,21.72,30.37,-81.99,-89.88,-22.39,34.74,-24.35,-65.77,12.33,10.96,18.87,35.2,27.45,33.42,62.88,52.3,0,0,0,0,0,0,0,0,0,0,0,0,0,0,0,0,
668,-7.474,0.9627,-85.4,-97.62,-29.49,16.65,-34.11,-60.42,-21.13,7.274,-1.217,14.59,18.78,30.99,49.99,42.37,0,0,0,0,0,0,0,0,0,0,0,0,0,0,0,0,
669,-11.55,7.243,-83.39,-82.93,2.819,16,-18.02,-48.99,-6.543,-9.434,-3.917,12.69,14.67,19.18,34.88,26.32,0,0,0,0,0,0,0,0,0,0,0,0,0,0,0,0,
670,-2.487,7.465,-93.01,-73.96,7.122,8.512,-9.966,-55.37,-33.24,8.015,-31.45,6.043,1.745,9.533,5.265,1.249,0,0,0,0,0,0,0,0,0,0,0,0,0,0,0,0,
671,14.59,1.153,-97.19,-85.49,-23.03,2.339,-12.81,-66.7,-48.48,16.98,-47.99,-10.68,-4.658,14.69,-12.62,-5.483,0,0,0,0,0,0,0,0,0,0,0,0,0,0,0,0,
672,0.7439,13.52,-83.93,-96.12,-24.82,12.18,-9.405,-68.45,2.708,0.2737,-25.91,-19.17,-2.004,9.505,-4.574,5.162,0,0,0,0,0,0,0,0,0,0,0,0,0,0,0,0,
673,-30.22,12.88,-72.83,-94.44,-4.442,10.28,-19.38,-69.38,18.59,2.884,-12.73,-12.29,-6.439,-6.158,5.329,6.935,0,0,0,0,0,0,0,0,0,0,0,0,0,0,0,0,
674,-36.95,-20.08,-92.39,-104.2,-18.39,-14.75,-50.48,-80.14,-30.94,-10.82,-22.29,-2.234,-8.263,3.423,10.77,10.29,0,0,0,0,0,0,0,0,0,0,0,0,0,0,0,0,
675,-20.03,-29.85,-112.9,-108.1,-27.74,-15.21,-51.1,-82.48,-33.99,-38.55,-19,9.991,-2.56,21.56,14.6,18.46,0,0,0,0,0,0,0,0,0,0,0,0,0,0,0,0,
676,-1.557,-18.25,-107.3,-89.22,1.368,1.507,-25.72,-73.02,10.15,-22.67,-6.666,21.83,-15.25,1.379,11.52,6.834,0,0,0,0,0,0,0,0,0,0,0,0,0,0,0,0,
677,19.36,-26.57,-90.94,-73.54,28.69,17.46,-13.65,-63.79,33.74,-0.2888,12.84,41.2,-17.09,-14.76,31.77,6.36,0,0,0,0,0,0,0,0,0,0,0,0,0,0,0,0,
678,51.59,-13.84,-74.17,-67.82,41.42,51.7,-1.764,-59.48,37.74,-17.06,18.8,57.85,13.77,5.323,57.58,26.5,0,0,0,0,0,0,0,0,0,0,0,0,0,0,0,0,
679,60.66,18.47,-80.08,-74.4,40.87,62.07,-0.0393,-69.38,36.79,-29.68,-11.05,48.58,31.37,16.43,48.07,29.48,0,0,0,0,0,0,0,0,0,0,0,0,0,0,0,0,
680,36.26,21.71,-102.2,-87.73,25.66,34.37,-18.86,-85.44,52.18,-11.44,-11.47,41.86,37.04,22.51,46.78,29.67,0,0,0,0,0,0,0,0,0,0,0,0,0,0,0,0,
681,15.67,18.93,-109.1,-93.83,2.841,10.52,-27.17,-104.2,60.29,-6.48,18.63,48.87,48.2,33.95,63.27,34.53,0,0,0,0,0,0,0,0,0,0,0,0,0,0,0,0,
682,11.26,22.25,-109.9,-99.18,-8.943,-2.626,-17.3,-113.5,39.73,-17.04,20.29,59.34,53.39,30.95,70.39,37.89,0,0,0,0,0,0,0,0,0,0,0,0,0,0,0,0,
683,28.19,24,-99.58,-89.74,16.2,9.823,2.024,-81.49,53.1,-4.001,25.16,84.16,61.34,30.02,83.06,51.06,0,0,0,0,0,0,0,0,0,0,0,0,0,0,0,0,
684,47.97,36.53,-78.13,-65.48,32.54,35.83,20.79,-47.82,61.55,12.48,25.55,94.29,61.99,32.28,81.35,50.52,0,0,0,0,0,0,0,0,0,0,0,0,0,0,0,0,
685,52.3,42.81,-70.57,-56.63,7.073,37.18,28.3,-46.77,6.428,22.78,-7.814,76.89,45.63,26.71,49.66,32.05,0,0,0,0,0,0,0,0,0,0,0,0,0,0,0,0,
686,53.11,28.43,-66.1,-61.5,3.512,25.49,18.11,-41.12,0.465,34.88,-23.53,46.08,20.86,14.38,13.76,10.36,0,0,0,0,0,0,0,0,0,0,0,0,0,0,0,0,
687,6.287,1.804,-68.97,-72.56,23.18,5.565,-11.49,-36.57,53.45,23.52,-25.32,-6.156,-15.59,-9.601,-13.34,-17.05,0,0,0,0,0,0,0,0,0,0,0,0,0,0,0,0,
688,-68.58,-23.99,-86.84,-79.63,18.06,-16.02,-31.42,-40.32,37.78,12.43,-53,-43.73,-42.51,-21.28,-27.04,-30.15,0,0,0,0,0,0,0,0,0,0,0,0,0,0,0,0,
689,-77.07,-38.73,-98.99,-78.07,-0.4572,-26.1,-36.24,-33.55,-15.37,3.993,-82.91,-57.26,-53.51,-19.21,-46.6,-37.47,0,0,0,0,0,0,0,0,0,0,0,0,0,0,0,0,
690,-69.21,-51.53,-111.8,-88.64,-20.48,-45.35,-47.6,-34.45,-17.68,-34.37,-81.36,-83.16,-69.59,-32.27,-70.26,-54.18,0,0,0,0,0,0,0,0,0,0,0,0,0,0,0,0,
691,-86.14,-61.66,-117.3,-91.81,-35.06,-59.42,-42.42,-34.98,-2.46,-30.37,-56.51,-92.9,-80.16,-42.25,-68.11,-54.06,0,0,0,0,0,0,0,0,0,0,0,0,0,0,0,0,
692,-69.1,-63.48,-101.5,-74.36,-33.09,-46.11,-21.33,-21.08,-3.686,33.33,-46.81,-74.04,-74.93,-31.41,-54.56,-40.48,0,0,0,0,0,0,0,0,0,0,0,0,0,0,0,0,
693,-43.13,-56.07,-90.45,-70.71,-21.71,-26.17,-17.49,-19.41,5.74,41.93,-46.14,-52.05,-52.94,-14.02,-29.21,-19.99,0,0,0,0,0,0,0,0,0,0,0,0,0,0,0,0,
694,-38.53,-34.59,-97.9,-82.37,-13.38,-16.23,-24.18,-36.45,23.63,-10.33,-31.08,-26.13,-20.89,-1.568,7.041,9.106,0,0,0,0,0,0,0,0,0,0,0,0,0,0,0,0,
695,-34.61,-17.33,-116.5,-94.78,-15,-17.43,-25.2,-57.84,28.28,-22.89,-19.67,2.161,9.568,14.79,26.64,30.8,0,0,0,0,0,0,0,0,0,0,0,0,0,0,0,0,
696,-15.26,1.546,-123.4,-101.2,-3.629,-12.49,-12.62,-67.78,36.68,14.26,-0.9457,42.34,49.57,50.44,59.73,57.85,0,0,0,0,0,0,0,0,0,0,0,0,0,0,0,0,
697,24.88,38.52,-112.1,-97.11,23.62,-6.41,2.68,-64.55,50.98,32.11,21.94,77.35,79.37,76.87,95.07,82.36,0,0,0,0,0,0,0,0,0,0,0,0,0,0,0,0,
698,38.58,60.37,-114.6,-94.11,28.57,-11.36,9.662,-58.85,45.24,31.5,9.852,75.14,76.34,75.31,81.55,75.17,0,0,0,0,0,0,0,0,0,0,0,0,0,0,0,0,
699,39.79,57.69,-120.5,-88.29,16.01,5.332,18.02,-51.4,30.15,46.67,-9.226,72.41,65.13,70.59,70.78,61.27,0,0,0,0,0,0,0,0,0,0,0,0,0,0,0,0,
700,74.42,39.83,-107,-79.71,15.88,26.34,9.996,-55.69,38.01,34.42,-3.666,82.05,51.98,63.68,88.53,63.81,0,0,0,0,0,0,0,0,0,0,0,0,0,0,0,0,
701,71.93,15.25,-88.36,-72.35,42.49,26.4,-2.294,-60,58.55,2.986,7.238,77.7,45.09,60.48,82.09,69.47,0,0,0,0,0,0,0,0,0,0,0,0,0,0,0,0,
702,47.36,15.26,-67.54,-58.9,78.61,45.08,13.42,-38.86,58.68,18.84,9.728,72,51.43,65.72,62.92,67.48,0,0,0,0,0,0,0,0,0,0,0,0,0,0,0,0,
703,69.89,19.61,-56.31,-61.8,81.21,61.03,18.42,-27.13,66.85,41.69,6.138,63.18,42.09,56.56,62.85,61.6,0,0,0,0,0,0,0,0,0,0,0,0,0,0,0,0,
704,55.17,4.378,-59.89,-76.87,65.41,40.65,2.664,-37.56,89.58,30.93,10.74,41.19,17.79,37.6,55.56,48.04,0,0,0,0,0,0,0,0,0,0,0,0,0,0,0,0,
705,1.288,-18.06,-65.75,-74.1,50.65,18.1,-9.078,-38.52,50.23,16.64,18.41,23.2,-4.786,19.26,32.71,20.24,0,0,0,0,0,0,0,0,0,0,0,0,0,0,0,0,
706,6.749,-43.2,-75.22,-62.1,31.97,13.19,-15.45,-29.08,5.93,4.667,25,20.88,-8.387,17.18,31.37,15.87,0,0,0,0,0,0,0,0,0,0,0,0,0,0,0,0,
707,22.66,-22.85,-70.79,-38.21,49.28,26.52,6.968,-24.02,48.63,2.351,39.4,23.31,11.85,33.68,42.86,36.51,0,0,0,0,0,0,0,0,0,0,0,0,0,0,0,0,
708,-2.679,19.45,-61.66,-19.2,72.58,36.92,27.7,-32.42,64.52,17.17,34.27,12.57,10.09,23.41,36.39,30.2,0,0,0,0,0,0,0,0,0,0,0,0,0,0,0,0,
709,-8.686,-3.849,-69.18,-28.3,51.75,34.22,11.22,-23.34,29.54,36.95,24.85,8.741,-1.525,9.978,37,24.51,0,0,0,0,0,0,0,0,0,0,0,0,0,0,0,0,
710,12.87,-23.51,-58.24,-21.88,41.74,47.57,11.79,11.55,45.06,51.63,47.24,22.09,19.59,32.61,40.85,38.53,0,0,0,0,0,0,0,0,0,0,0,0,0,0,0,0,
711,20.37,7.158,-48.93,-6.946,30.85,55.2,27.01,1.637,43.83,49.69,53.81,26.16,37.14,43.92,26.52,35.7,0,0,0,0,0,0,0,0,0,0,0,0,0,0,0,0,
712,29.98,12.93,-80.25,-28.63,-13.34,39.21,19.98,-35.07,8.426,47.41,34.81,34.68,42.13,43.67,26.9,38.56,0,0,0,0,0,0,0,0,0,0,0,0,0,0,0,0,
713,46.9,9.48,-92.83,-52.33,-1.236,39.32,12.81,-32.72,40.73,48.22,38,48.51,49.02,52.88,38.06,48.53,0,0,0,0,0,0,0,0,0,0,0,0,0,0,0,0,
714,47.55,20.91,-55.92,-47.62,78.33,56.26,10.39,-37.6,90.66,28.57,64.81,53.33,49.58,52.73,49.24,49.23,0,0,0,0,0,0,0,0,0,0,0,0,0,0,0,0,
715,67.28,24.37,-15.01,-31.49,111.1,61.24,15.65,-65.87,86.18,15.43,97.15,76.87,64.72,62.1,75.43,66.64,0,0,0,0,0,0,0,0,0,0,0,0,0,0,0,0,
716,97.59,35.74,2.685,-28.04,70.95,42.02,26.97,-72.65,70.12,28.36,104.7,92.03,76.9,72.56,75.91,71.22,0,0,0,0,0,0,0,0,0,0,0,0,0,0,0,0,
717,78.72,41.44,8.409,-41.51,45.87,18.96,23.16,-65.98,57.05,40.77,80.28,70.19,63.27,60.99,50.33,51.16,0,0,0,0,0,0,0,0,0,0,0,0,0,0,0,0,
718,62.57,33.32,12.26,-43.02,61.74,20.64,23.73,-59.48,28.01,38.64,58.58,54.01,58.56,59.59,45.5,49.97,0,0,0,0,0,0,0,0,0,0,0,0,0,0,0,0,
719,71.64,31.65,-2.047,-35.68,54.3,15.76,31.33,-54.17,7.081,20.83,39.66,39.22,52.92,59.69,40.04,46.96,0,0,0,0,0,0,0,0,0,0,0,0,0,0,0,0,
720,34.49,15.87,-18.94,-39.26,30.28,-12.8,23.03,-55.59,12.32,2.81,19.78,9.713,25.63,31.21,18.37,24.8,0,0,0,0,0,0,0,0,0,0,0,0,0,0,0,0,
721,-10.68,-3.236,-9.368,-37.52,29.95,-25.13,19.09,-56.28,12.89,-2.488,9.383,-10.46,7.772,5.245,-0.6002,13,0,0,0,0,0,0,0,0,0,0,0,0,0,0,0,0,
722,-14.38,4.154,-5.299,-34.34,22.04,-19.38,23.86,-55.18,0.1765,2.897,-5.908,-24.92,5.484,5.641,-13.71,10.68,0,0,0,0,0,0,0,0,0,0,0,0,0,0,0,0,
723,-23.85,0.5937,-31.7,-51.5,-4.962,-26.87,8.834,-65.12,-11.05,8.879,-23.79,-34.87,-1.044,8.37,-17.17,2.485,0,0,0,0,0,0,0,0,0,0,0,0,0,0,0,0,
724,-34.7,-23.12,-72.24,-77.68,-35.04,-47.79,-12.11,-87.98,-25.21,-19.05,-21.36,-26.81,-5.208,5.513,-11.26,-4.837,0,0,0,0,0,0,0,0,0,0,0,0,0,0,0,0,
725,-25.74,-15.52,-98.37,-84.27,-62.19,-55.26,-10.54,-97.6,-18.79,-52.79,-1.578,-13.98,1.692,12.81,-0.4721,0.1546,0,0,0,0,0,0,0,0,0,0,0,0,0,0,0,0,
726,-32.98,-3.837,-94.82,-77.99,-65.92,-59.32,-16.86,-90.4,-2.691,-30.37,-0.0489,-16.32,-4.923,10.62,5.615,5.542,0,0,0,0,0,0,0,0,0,0,0,0,0,0,0,0,
727,-45.31,-43.05,-99.4,-85.64,-53.96,-82.05,-42.95,-95.86,-16.09,-0.48,-20.72,-21.35,-21.68,-1.699,8.199,10.96,0,0,0,0,0,0,0,0,0,0,0,0,0,0,0,0,
728,-25,-69.16,-123.2,-86.14,-52.3,-86.52,-38.08,-106.3,-8.317,-8.863,-20.28,-3.885,-10.49,11.94,24.35,31.82,0,0,0,0,0,0,0,0,0,0,0,0,0,0,0,0,
729,-6.773,-48.56,-132,-77.24,-60.6,-78.22,-23.53,-113,14.01,-21.24,-9.329,18.31,3.73,23.82,34.96,41.42,0,0,0,0,0,0,0,0,0,0,0,0,0,0,0,0,
730,-1.083,-45.47,-132.1,-89.85,-57.73,-87.12,-35.64,-119.3,-15.4,-27.86,-10.95,30.46,1.433,20.57,31.46,34.24,0,0,0,0,0,0,0,0,0,0,0,0,0,0,0,0,
731,39.1,-42.67,-124.4,-88.36,-31.51,-68.67,-21.09,-105.3,-28.16,-30.27,1.907,43.34,15.74,37.06,33.9,37.4,0,0,0,0,0,0,0,0,0,0,0,0,0,0,0,0,
732,63.52,-17.7,-101,-63.97,-12.46,-45.48,8.968,-92.41,17.09,-23.94,13.76,36.72,28.93,42.78,28.42,36.44,0,0,0,0,0,0,0,0,0,0,0,0,0,0,0,0,
733,18.23,-12.2,-81.8,-61.3,-11.71,-64.72,4.84,-103.2,46.45,-14.06,6.29,15.74,24.3,28.96,18.81,30.36,0,0,0,0,0,0,0,0,0,0,0,0,0,0,0,0,
734,-19.69,-9.222,-78.69,-65.5,-12.26,-73.12,-3.735,-111,41.42,-3.422,3.384,10.99,19.62,31.28,20.29,27.23,0,0,0,0,0,0,0,0,0,0,0,0,0,0,0,0,
735,-16.64,-2.277,-91.17,-62.18,-18.64,-58.44,-5.159,-105.6,27.52,-3.571,7.41,14.81,9.536,31.75,19.56,15.64,0,0,0,0,0,0,0,0,0,0,0,0,0,0,0,0,
736,3.217,-14.04,-86.87,-58.63,-14,-40.4,-5.319,-86,14.59,-6.35,14.86,19.36,-0.4557,22.48,17.82,6.876,0,0,0,0,0,0,0,0,0,0,0,0,0,0,0,0,
737,35.99,-26.71,-63.23,-52.27,-11.19,-20.38,0.3076,-69.29,2.598,1.121,1.344,6.03,-11.29,13.38,4.81,-4.804,0,0,0,0,0,0,0,0,0,0,0,0,0,0,0,0,
738,21.01,-33.26,-76.57,-56.38,-38.95,-38.42,-0.4576,-69.85,-8.061,0.8712,-47.4,-29.51,-24.05,5.04,-19.75,-18.31,0,0,0,0,0,0,0,0,0,0,0,0,0,0,0,0,
739,-43.34,-21.5,-99.76,-56.98,-51.83,-77.32,1.352,-55.15,-12.24,-8.126,-78.06,-47.56,-22.91,4.34,-27.74,-14.86,0,0,0,0,0,0,0,0,0,0,0,0,0,0,0,0,
740,-67.75,-13.67,-89.91,-50.66,-51.97,-80.28,-7.091,-42.27,-27.99,-11.31,-73.06,-53.18,-34.97,-12.82,-31.5,-22.01,0,0,0,0,0,0,0,0,0,0,0,0,0,0,0,0,
741,-58.11,-60.53,-85.25,-65.21,-65.54,-60.21,-37.34,-61.09,-45.22,-11.73,-61.73,-57.26,-57.32,-40.58,-32.73,-35.31,0,0,0,0,0,0,0,0,0,0,0,0,0,0,0,0,
742,-57.97,-95.16,-81.24,-77.49,-54.82,-43.51,-45.73,-74.32,-37.66,-16.95,-55.25,-44.45,-51.89,-40.66,-20.14,-28.44,0,0,0,0,0,0,0,0,0,0,0,0,0,0,0,0,
743,-53.77,-69.9,-66.49,-71.27,-44.4,-32.76,-36.95,-71.61,-40.57,-23.18,-60.82,-37.26,-45.89,-38.18,-23.89,-29.93,0,0,0,0,0,0,0,0,0,0,0,0,0,0,0,0,
744,-35.78,-60.81,-72.37,-69.23,-57.2,-22.68,-44.35,-68.84,-59.93,-29.42,-61.58,-36.36,-54.73,-53.31,-32.52,-36.15,0,0,0,0,0,0,0,0,0,0,0,0,0,0,0,0,
745,-19.52,-79.26,-81.44,-71.21,-56.28,-14.18,-52.14,-76.53,-51.26,-49.47,-47.65,-26.65,-57.67,-59.83,-16.59,-25.16,0,0,0,0,0,0,0,0,0,0,0,0,0,0,0,0,
746,-34.14,-80.58,-65.41,-65.45,-55.47,-8.013,-46.92,-93.59,-13.19,-60.85,-43.41,-29.45,-59.25,-53.12,-13.97,-20.76,0,0,0,0,0,0,0,0,0,0,0,0,0,0,0,0,
747,-69.6,-77.1,-45.82,-49.69,-57.88,-0.5068,-39.48,-83.4,12.26,-46.16,-51.77,-43.93,-62.87,-54.04,-43.67,-30.11,0,0,0,0,0,0,0,0,0,0,0,0,0,0,0,0,
748,-75.96,-86.97,-55.06,-44.4,-47.73,-15.08,-43.49,-57.81,-7.508,-43.37,-49.1,-46.64,-60.6,-61.45,-48.47,-25.35,0,0,0,0,0,0,0,0,0,0,0,0,0,0,0,0,
749,-53.62,-83.53,-75.37,-51.29,-44.08,-36.73,-40.35,-51.76,-26.99,-36.71,-20.54,-31.18,-39.61,-42.16,-8.577,0.7299,0,0,0,0,0,0,0,0,0,0,0,0,0,0,0,0,
750,-47.09,-53.22,-65.56,-41.17,-47.07,-22.9,-19.69,-56.57,-13.21,-14.79,-6.84,-22.92,-16.14,-14.15,5.732,9.406,0,0,0,0,0,0,0,0,0,0,0,0,0,0,0,0,
751,-57.12,-42.75,-48.19,-30.08,-53.61,-5.42,-19.56,-76.56,-25.46,-24.12,-34.37,-34.45,-17.49,-15.81,-11.94,-3.501,0,0,0,0,0,0,0,0,0,0,0,0,0,0,0,0,
752,-41.96,-52.39,-47.04,-26.89,-51.64,-3.13,-23.6,-87.52,-41.77,-31.34,-38.48,-27.66,-14.81,-11.17,1.87,3.712,0,0,0,0,0,0,0,0,0,0,0,0,0,0,0,0,
753,-23.76,-37.63,-42.74,-15.71,-25.8,-3.326,-7.316,-71.7,-8.835,-20.21,-21.77,-11.14,-6.947,0.0295,14.11,7.367,0,0,0,0,0,0,0,0,0,0,0,0,0,0,0,0,
754,-44.6,-32.9,-42.81,-22.57,-11.67,-16.2,-12.61,-73.32,5.936,-25.01,-44.71,-19.08,-22.5,-13.23,-8.469,-12.34,0,0,0,0,0,0,0,0,0,0,0,0,0,0,0,0,
755,-47.45,-49.34,-50.41,-39.69,-25.84,-12.88,-27.19,-76.74,-21.54,-17.73,-64.67,-22.79,-29.04,-10.49,-19.5,-16.4,0,0,0,0,0,0,0,0,0,0,0,0,0,0,0,0,
756,-15.07,-42.79,-55.03,-37.39,-44.31,5.882,-23.89,-62.07,-36.55,-29.67,-51.41,-19.2,-21.45,4.59,-23.52,-16.42,0,0,0,0,0,0,0,0,0,0,0,0,0,0,0,0,
757,-14.52,-36.87,-61.02,-34.42,-52.95,-6.426,-27.95,-61.6,-25.58,-66.63,-42.55,-31.67,-33.3,-15.01,-38.89,-31.35,0,0,0,0,0,0,0,0,0,0,0,0,0,0,0,0,
758,-46.35,-54.24,-64.13,-37.17,-49.24,-32.13,-34.42,-52,-8.633,-29.89,-45.41,-45.31,-53.53,-45.57,-43.98,-39.88,0,0,0,0,0,0,0,0,0,0,0,0,0,0,0,0,
759,-72.13,-67.61,-71.89,-38.8,-50.54,-44.21,-33.52,-35.72,-31.42,20.27,-47.18,-41.93,-60.7,-52.67,-37.03,-38.59,0,0,0,0,0,0,0,0,0,0,0,0,0,0,0,0,
760,-49.87,-62.91,-84.77,-39.74,-57.8,-45.88,-33.73,-61.33,-82.72,-13.06,-38.07,-25.35,-55.74,-46.12,-35.2,-38.12,0,0,0,0,0,0,0,0,0,0,0,0,0,0,0,0,
761,2.101,-54.13,-86.33,-43.62,-49.84,-46.71,-39.03,-91,-67.97,-47.02,-32.73,-32.98,-59.62,-51.33,-53.99,-54.08,0,0,0,0,0,0,0,0,0,0,0,0,0,0,0,0,
762,-25.43,-66.35,-81.13,-59.96,-31.69,-64.25,-55.34,-76.99,0.5355,-40.77,-43.72,-64.44,-73.25,-64.76,-71.38,-75.84,0,0,0,0,0,0,0,0,0,0,0,0,0,0,0,0,
763,-93.94,-84.12,-67.85,-66.89,-30,-83.96,-63.19,-58.32,8.499,-41.84,-45.34,-67.02,-71.07,-64.16,-62.48,-76.52,0,0,0,0,0,0,0,0,0,0,0,0,0,0,0,0,
764,-82.06,-83.5,-54.58,-54.34,-64.65,-82.25,-52.81,-66.18,-38.62,-45.69,-37.73,-53.64,-63.03,-57.6,-52.8,-67.89,0,0,0,0,0,0,0,0,0,0,0,0,0,0,0,0,
765,-42.86,-76.57,-58.31,-43.34,-96.47,-61.68,-41.79,-67.15,-51.89,-44.92,-36.61,-51.3,-57.89,-47.65,-46.32,-55.29,0,0,0,0,0,0,0,0,0,0,0,0,0,0,0,0,
766,-43.13,-61.37,-61.13,-32.09,-85.71,-41.27,-33.25,-52.48,-43.25,-56.17,-43.46,-48.48,-49.94,-38.17,-38.57,-41.73,0,0,0,0,0,0,0,0,0,0,0,0,0,0,0,0,
767,-53.8,-49.65,-51.1,-26.11,-77.71,-34.26,-30.11,-50.83,-48.03,-64.48,-57.15,-51.08,-52.29,-49.92,-42.54,-43.37,0,0,0,0,0,0,0,0,0,0,0,0,0,0,0,0,
768,-50.78,-53.55,-30.32,-24.8,-84.81,-17.01,-23.74,-47.24,-37.82,-59.28,-57.13,-47.49,-52.52,-56.8,-40.54,-44.45,0,0,0,0,0,0,0,0,0,0,0,0,0,0,0,0,
769,-36.28,-46.36,-14.9,-14.81,-75.57,-0.2853,-11.65,-33.06,-34.52,-68.54,-51.99,-35.22,-47.74,-47.48,-36.68,-43.64,0,0,0,0,0,0,0,0,0,0,0,0,0,0,0,0,
770,-33.82,-44.06,-24.71,-18.26,-66.51,-11.99,-18.44,-29.7,-54.47,-76.05,-50.45,-30.35,-54.03,-53.05,-38.33,-45.76,0,0,0,0,0,0,0,0,0,0,0,0,0,0,0,0,
771,-31.2,-54.73,-27.84,-32.71,-53.61,-5.843,-26.65,-26.92,-32.89,-60.69,-24.99,-17.2,-46.62,-52.16,-24.26,-31.65,0,0,0,0,0,0,0,0,0,0,0,0,0,0,0,0,
772,-16.07,-33.89,-17.46,-30.5,-28.15,18.82,-13.26,-22.6,18.53,-75.52,-3.99,-7.166,-24.32,-25.22,-10.02,-14.69,0,0,0,0,0,0,0,0,0,0,0,0,0,0,0,0,
773,-12.41,-7.286,-17.25,-19.29,-18.91,13.1,-2.613,-20.96,21.59,-93.34,-5.637,-8.767,-19.31,-11.76,-0.5102,-6.137,0,0,0,0,0,0,0,0,0,0,0,0,0,0,0,0,
774,12.33,-19.3,-0.4947,-10.77,-20.46,1.081,2.31,-15.96,-10.42,-49.45,6.807,0.1834,-25.44,-23.28,12.77,3.376,0,0,0,0,0,0,0,0,0,0,0,0,0,0,0,0,
775,44.43,-26.7,22.11,-6.56,-8.122,4.155,20.21,-19.39,5.779,-19.54,23.68,4.534,-17.43,-19.18,13.55,11.39,0,0,0,0,0,0,0,0,0,0,0,0,0,0,0,0,
776,16.27,-0.7604,21.51,-2.08,8.716,8.002,39.72,-14.77,73.34,-36.22,33.92,5.053,5.242,6.792,16.66,21.21,0,0,0,0,0,0,0,0,0,0,0,0,0,0,0,0,
777,-13.74,15.23,25.96,-0.2853,-2.111,2.928,38.11,5.926,82.58,-32.44,41.44,14.55,15.69,15.96,21.18,21.16,0,0,0,0,0,0,0,0,0,0,0,0,0,0,0,0,
778,3.23,12.5,36.3,-3.71,-28.13,-7.52,32.43,22.18,32.3,-13.7,33.67,14.15,13.53,16.11,6.447,8.867,0,0,0,0,0,0,0,0,0,0,0,0,0,0,0,0,
779,20.14,25.69,44.78,15.44,-14.22,4.137,47.57,53.09,33.31,-5.558,26.62,14.19,17.75,22.46,-0.7535,5.728,0,0,0,0,0,0,0,0,0,0,0,0,0,0,0,0,
780,35.14,28.88,66.04,42.71,20.4,19.84,53.38,84.97,46.97,-11.71,25.53,22.16,7.435,3.414,4.002,-3.09,0,0,0,0,0,0,0,0,0,0,0,0,0,0,0,0,
781,48.39,-0.3604,79.77,39.47,20.88,7.213,38.45,83.95,15.96,-30.63,18.05,16.69,-17.35,-22.59,-3.784,-22.6,0,0,0,0,0,0,0,0,0,0,0,0,0,0,0,0,
782,30.82,-12.28,72.91,32.53,-5.608,-3.979,34.63,83.45,7.507,-28.64,9.734,1.709,-25.19,-22.87,-15.21,-25.29,0,0,0,0,0,0,0,0,0,0,0,0,0,0,0,0,
783,3.041,1.544,67.14,38.37,-32.58,-4.047,38.92,99.69,18.41,-17.35,6.08,-2.504,-16.34,-17.51,-12.79,-10.79,0,0,0,0,0,0,0,0,0,0,0,0,0,0,0,0,
784,5.761,14.69,72.17,43.41,-41.47,-7.636,45.29,115.1,10.2,-30.67,22.59,10.91,0.5008,-6.416,2,5.108,0,0,0,0,0,0,0,0,0,0,0,0,0,0,0,0,
785,29.4,27.91,78,52.02,-41.63,-11.06,58.79,124.3,15.29,-26.93,43.01,21.4,14.21,10.5,13.53,13.3,0,0,0,0,0,0,0,0,0,0,0,0,0,0,0,0,
786,32.76,34.95,89.46,64.73,-45.12,-15.05,72.45,128.4,30.6,7.224,30.95,17.43,22.21,22.03,16.44,14.71,0,0,0,0,0,0,0,0,0,0,0,0,0,0,0,0,
787,27.57,45.28,114.6,86.88,-35.97,-9.431,85.04,141.9,19.23,0.8298,13.6,14.35,29.13,31.17,10.17,4.577,0,0,0,0,0,0,0,0,0,0,0,0,0,0,0,0,
788,44.22,56.01,123.8,106.4,-29.95,4.476,82.04,145.1,9.127,-38.15,19.77,7.833,13.84,16.82,-2.076,-16.69,0,0,0,0,0,0,0,0,0,0,0,0,0,0,0,0,
789,48.43,36.18,115.9,103.8,-20.58,4.727,67.73,119.3,43.35,-22.5,36.58,1.26,-9.414,-9.437,1.451,-18.68,0,0,0,0,0,0,0,0,0,0,0,0,0,0,0,0,
790,28.77,8.117,117.9,102.4,11.45,-8.828,65.46,111,63.59,13.4,51.13,8.381,-7.671,-5.619,6.927,-9.026,0,0,0,0,0,0,0,0,0,0,0,0,0,0,0,0,
791,33.95,4.583,105.1,105.4,13.04,-11.72,61.61,127.6,34.46,-10.17,53.56,13.91,1.408,8.305,-4.229,-14.51,0,0,0,0,0,0,0,0,0,0,0,0,0,0,0,0,
792,54.52,16.07,82.48,89.95,-11.25,9.89,53.66,116.9,38.32,-48.84,46.47,9.214,1.661,-2.616,-8.197,-17.7,0,0,0,0,0,0,0,0,0,0,0,0,0,0,0,0,
793,36.46,18.9,79.19,61.65,-17.91,15.38,47.09,77.15,60.67,-58.18,40.12,-1.349,-4.897,-26.49,-7.641,-17.32,0,0,0,0,0,0,0,0,0,0,0,0,0,0,0,0,
794,8.725,7.138,72.44,41.81,-34.54,-6.557,35.63,59.22,38.64,-47.82,42.7,-5.779,-5.634,-24.01,-6.999,-15.63,0,0,0,0,0,0,0,0,0,0,0,0,0,0,0,0,
795,22.09,10.75,62.36,44.12,-57.25,-3.555,31.87,67.87,16.35,-28.93,38.22,-6.96,-1.939,-4.913,-8.592,-15.9,0,0,0,0,0,0,0,0,0,0,0,0,0,0,0,0,
796,24.35,10.61,50.65,45.98,-71.61,8.703,22.99,61.67,-4.293,-32.72,6.529,-32.19,-25.71,-22.93,-33.76,-40.19,0,0,0,0,0,0,0,0,0,0,0,0,0,0,0,0,
797,-7.489,-19.34,29.24,37.77,-84.63,10.93,12.76,61.82,-21.09,-41.52,-6.344,-49.85,-44.77,-40.93,-46.87,-50.1,0,0,0,0,0,0,0,0,0,0,0,0,0,0,0,0,
798,-8.511,-17.63,29.97,45.36,-83.38,27.7,27.82,89.42,-12.19,-27.23,5.785,-36.92,-29.97,-15.6,-40.53,-33.69,0,0,0,0,0,0,0,0,0,0,0,0,0,0,0,0,
799,7.24,2.786,39.85,48.36,-97.03,25.82,29.61,97.3,-39.79,-16.62,-9.912,-40.34,-33.55,-6.656,-51.32,-41.09,0,0,0,0,0,0,0,0,0,0,0,0,0,0,0,0,
800,5.339,-10.09,36.64,37.73,-124.6,11.44,17.62,99.67,-70.28,-6.163,-16.81,-47.39,-39.67,-17.09,-42.62,-44.9,0,0,0,0,0,0,0,0,0,0,0,0,0,0,0,0,
801,5.683,1.887,33.48,38.58,-127.9,12.62,28.54,118,-55.71,-11.37,-15.8,-41.7,-17.14,-6.291,-26.95,-29.29,0,0,0,0,0,0,0,0,0,0,0,0,0,0,0,0,
802,-20.65,27.64,9.355,29.55,-141.7,-19.06,21.29,110,-76.41,-38.23,-62.99,-58.46,-19.31,-7.543,-49.99,-36.02,0,0,0,0,0,0,0,0,0,0,0,0,0,0,0,0,
803,-65.44,-0.2042,-10.84,16.42,-162.4,-60.39,-3.509,98.61,-100.8,-18.13,-79.59,-66.28,-43.99,-33.05,-55.05,-46.56,0,0,0,0,0,0,0,0,0,0,0,0,0,0,0,0,
804,-55.95,-28.29,11.79,26.66,-146.7,-54.38,4.414,103.5,-78.8,10.18,-33.09,-42.73,-45.66,-47.88,-39.45,-46.81,0,0,0,0,0,0,0,0,0,0,0,0,0,0,0,0,
805,-18.71,-15.08,17.67,28.41,-131.2,-43.66,21.15,80.87,-75.97,-22.59,-32.01,-36.22,-36.53,-47.64,-57.76,-56.7,0,0,0,0,0,0,0,0,0,0,0,0,0,0,0,0,
806,-26.23,-5.341,-15.08,14.18,-135.6,-55.54,18.83,51.02,-68.49,-44.84,-70.12,-47.98,-33.66,-48.96,-69.01,-58.71,0,0,0,0,0,0,0,0,0,0,0,0,0,0,0,0,
807,-51.81,-10.96,-21.74,20.32,-118.5,-53.51,22.14,60.13,-24.28,-25.83,-49.89,-35.73,-23.17,-41.63,-36.48,-35.96,0,0,0,0,0,0,0,0,0,0,0,0,0,0,0,0,
808,-26.18,-1.095,17.77,50.87,-70.03,-14.89,46.65,93.26,10.7,-12.57,15.37,0.7063,3.974,-10.07,5.421,-3.819,0,0,0,0,0,0,0,0,0,0,0,0,0,0,0,0,
809,34.4,27.29,63.91,81.94,-23.29,39.98,74.04,117,52.05,0.8333,57.46,33.54,31.7,20.07,42.11,25,0,0,0,0,0,0,0,0,0,0,0,0,0,0,0,0,
810,71.25,52.34,93.63,103.6,9.434,81.6,90.89,128.8,107.8,25.22,73.92,57.85,48.98,32.71,72.89,48.95,0,0,0,0,0,0,0,0,0,0,0,0,0,0,0,0,
811,74.43,64.25,102.7,110.2,27.1,93.02,92.48,133.7,113.1,29.57,65.47,56.12,48.37,31.31,61.25,46.71,0,0,0,0,0,0,0,0,0,0,0,0,0,0,0,0,
812,32.88,45.96,66.27,78.09,-6.434,56.45,61.37,108.1,48.25,3.477,11.35,9.177,19.76,6.735,11.34,13.96,0,0,0,0,0,0,0,0,0,0,0,0,0,0,0,0,
813,-23.34,5.546,10.31,30.25,-67.46,13.3,22.22,68.65,-19.47,-17.72,-42.12,-27.61,-5.41,-14.95,-13.89,-6.888,0,0,0,0,0,0,0,0,0,0,0,0,0,0,0,0,
814,-23.82,-10.91,-0.0042,18.25,-76.27,21.61,9.287,65.48,-34.26,-29.66,-54.82,-28.99,-11,-20.52,-17.2,-14.91,0,0,0,0,0,0,0,0,0,0,0,0,0,0,0,0,
815,-14.79,-13.75,12.84,22.19,-47.66,38.21,-0.3743,80,-21.56,-41.31,-51.56,-34.82,-16.32,-27.08,-24.07,-22.61,0,0,0,0,0,0,0,0,0,0,0,0,0,0,0,0,
816,-32.81,-16.81,19.24,22.15,-34.75,28.96,-2.464,81.28,-20.9,-27.62,-44.12,-29.5,-6.464,-12.4,-14.09,-9.492,0,0,0,0,0,0,0,0,0,0,0,0,0,0,0,0,
817,-19.27,4.955,31.86,27.36,-45.54,30.48,13.52,80.8,-34.07,-26.29,-51.56,-15.48,3.799,4.117,-9.685,-6.524,0,0,0,0,0,0,0,0,0,0,0,0,0,0,0,0,
818,1.885,17.66,28.04,24.83,-61.28,48.82,16.55,89.96,-44.56,-48.39,-69.38,-25.75,-13.13,-15.52,-21.66,-23.5,0,0,0,0,0,0,0,0,0,0,0,0,0,0,0,0,
819,-7.005,-1.836,12.23,25.53,-51.7,52.6,13.56,104.4,-41.44,-15.91,-55.89,-33.82,-22.16,-31.39,-18.77,-17.62,0,0,0,0,0,0,0,0,0,0,0,0,0,0,0,0,
820,-27.02,-20.03,2.524,28.79,-46.38,19.53,8.072,96.07,-47.7,18.25,-36.28,-33.68,-19.11,-30.12,-18.77,-9.866,0,0,0,0,0,0,0,0,0,0,0,0,0,0,0,0,
821,-48.11,-30.6,-16.46,14.61,-71.6,-20.03,-12.14,63.96,-79.37,-20.89,-29.62,-35,-25.6,-35.94,-24.93,-17.72,0,0,0,0,0,0,0,0,0,0,0,0,0,0,0,0,
822,-38.07,-32.82,-28.28,3.433,-82.15,-39.48,-20.36,42.22,-103.8,-49.59,-17.17,-28.22,-26.05,-38.3,-18.97,-16.65,0,0,0,0,0,0,0,0,0,0,0,0,0,0,0,0,
823,-25.36,-28.46,-24.33,-5.535,-75.41,-65.94,-18.94,37.38,-87.7,-40.14,-21.28,-35.51,-19.95,-30.11,-21.86,-12.64,0,0,0,0,0,0,0,0,0,0,0,0,0,0,0,0,
824,-59.93,-29.05,-21.03,-17.99,-66.98,-71.56,-24.89,46.1,-53.89,-39.35,-38.3,-53.02,-21.71,-21.7,-35.99,-15.78,0,0,0,0,0,0,0,0,0,0,0,0,0,0,0,0,
825,-69.16,-27.44,-17.97,-14.29,-45.47,-35.11,-22.74,53.16,-55.26,-29.99,-48.28,-52.7,-30.67,-24.43,-41.87,-23.51,0,0,0,0,0,0,0,0,0,0,0,0,0,0,0,0,
826,-30.82,-21.79,-16,-9.94,-25.86,-17.43,-9.586,45.68,-63.05,-18.58,-54.62,-43.07,-29.59,-27.45,-35.96,-26.92,0,0,0,0,0,0,0,0,0,0,0,0,0,0,0,0,
827,-21.14,-8.732,-2.924,-8.412,-14.81,-15.66,6.7,49.31,-27.37,-32.47,-49.95,-38.81,-15.4,-22.1,-39.68,-26.18,0,0,0,0,0,0,0,0,0,0,0,0,0,0,0,0,
828,-34.49,4.172,17.68,8.955,-10.6,4.756,17.74,59.58,2.977,-35.63,-48.2,-40.17,-9.769,-28.35,-57.37,-26.61,0,0,0,0,0,0,0,0,0,0,0,0,0,0,0,0,
829,-27.7,6.456,21.34,31.8,-1.635,24.26,25.59,53.29,9.838,-21.49,-44.1,-27.59,3.027,-24.88,-42.25,-7.515,0,0,0,0,0,0,0,0,0,0,0,0,0,0,0,0,
830,-4.656,27.49,15,41.71,22.05,31.88,35.39,36.68,13.44,-42.14,-16.77,-3.127,27.7,2.212,-9.62,10.5,0,0,0,0,0,0,0,0,0,0,0,0,0,0,0,0,
831,18.55,53.39,0.1051,26.73,18.66,28.19,32.37,24,-4.66,-54.86,0.6276,4.884,28.09,11.5,-8.277,1.629,0,0,0,0,0,0,0,0,0,0,0,0,0,0,0,0,
832,29.06,45,-10.94,10.2,0.8983,31.82,31.06,42.93,-4.955,-0.0932,1.869,9.618,21.6,10.42,-2.209,9.64,0,0,0,0,0,0,0,0,0,0,0,0,0,0,0,0,
833,23.33,33.61,3.325,17.62,11.16,52.12,43.49,70.41,14.49,23.42,9.69,16.2,26.32,19.25,16.02,26.72,0,0,0,0,0,0,0,0,0,0,0,0,0,0,0,0,
834,21.9,34.14,1.473,18.91,4.697,51.05,38.11,48.74,-4.399,-19.45,17.24,10.83,22.81,19.87,19.77,18.31,0,0,0,0,0,0,0,0,0,0,0,0,0,0,0,0,
835,36.41,25.65,-31.92,0.218,-17.13,25.61,18.79,5.023,-12.22,-24.25,19.71,10.95,20.37,16.18,28.97,13.49,0,0,0,0,0,0,0,0,0,0,0,0,0,0,0,0,
836,33.98,19.2,-47.43,-15.33,-7.569,11.6,11.86,-12.63,6.375,-2.33,10.71,16.66,23.37,18.47,36.97,15.9,0,0,0,0,0,0,0,0,0,0,0,0,0,0,0,0,
837,21.93,27.87,-36.35,-10.74,-0.2593,22.68,20.69,1.961,-5.539,0.8527,6.806,22.09,24.88,25.67,29.91,11.46,0,0,0,0,0,0,0,0,0,0,0,0,0,0,0,0,
838,41.17,42.6,-30.8,10.89,-22.64,40.96,36.12,33.91,-13.22,8.295,21.82,25.47,24.7,25.18,17,7.095,0,0,0,0,0,0,0,0,0,0,0,0,0,0,0,0,
839,46.63,44.45,-40.22,18.65,-42.1,39.91,39.15,51.6,-1.98,11.03,18.37,15.6,23.7,17.21,5.238,7.749,0,0,0,0,0,0,0,0,0,0,0,0,0,0,0,0,
840,23.9,41.56,-42.22,11.83,-35.5,37.56,39.88,55.3,-8.51,21.73,2.054,17.2,39.16,34.09,14.9,22.05,0,0,0,0,0,0,0,0,0,0,0,0,0,0,0,0,
841,29.63,56.86,-35.31,8.174,-31.61,42.26,48.12,48.17,-8.284,41.26,4.44,31.67,55.35,52.47,30.24,30.34,0,0,0,0,0,0,0,0,0,0,0,0,0,0,0,0,
842,32.5,66.86,-36.87,-4.511,-53.09,20.09,38.64,27.59,9.518,29.68,5.659,26.98,45.87,33.99,22.9,18.77,0,0,0,0,0,0,0,0,0,0,0,0,0,0,0,0,
843,8.27,50.78,-36.4,-17.78,-65.28,-13.56,15.55,23.36,6.088,7.043,-1.243,17.41,34.15,17.22,15.52,11.82,0,0,0,0,0,0,0,0,0,0,0,0,0,0,0,0,
844,6.574,30.84,-37.24,-24.57,-63.22,-22.98,1.352,21.16,-17.39,-10.08,-1.515,18.43,30.71,21.54,23.73,12.76,0,0,0,0,0,0,0,0,0,0,0,0,0,0,0,0,
845,23.86,24.23,-35.29,-28.14,-60.61,-11.63,1.432,5.416,-14.74,-19.4,0.7387,25.47,27.25,23.14,38.78,15.37,0,0,0,0,0,0,0,0,0,0,0,0,0,0,0,0,
846,33.14,28.08,-8.316,-11.55,-33.26,2.676,12.49,9.045,16.01,-6.312,-0.4961,36.17,29.98,23.91,52.12,18.96,0,0,0,0,0,0,0,0,0,0,0,0,0,0,0,0,
847,40.11,39.19,8.349,6.849,6.19,14.34,25.38,21.02,38.62,-2.069,12.28,46.37,42.08,38.06,65.88,26.23,0,0,0,0,0,0,0,0,0,0,0,0,0,0,0,0,
848,51.63,57.35,0.774,4.729,33.94,33.22,34.84,26.91,52,-6.682,37.75,54.65,50.11,48.52,76.6,38.17,0,0,0,0,0,0,0,0,0,0,0,0,0,0,0,0,
849,55.53,48.13,-7.202,-11.49,48.82,39.6,23.17,25.54,48.54,4.981,28.42,48.96,33.96,30.8,63.11,35.05,0,0,0,0,0,0,0,0,0,0,0,0,0,0,0,0,
850,55.5,12.51,-23.65,-26.71,47.76,39.05,7.535,7.314,32.34,14.34,10.53,52.51,30.88,29.81,55.64,39.53,0,0,0,0,0,0,0,0,0,0,0,0,0,0,0,0,
851,82.64,29.63,-23.39,-5.819,56.28,69.74,30.66,7.506,50.47,19.81,32.62,78.82,62.9,59.92,68.93,63.07,0,0,0,0,0,0,0,0,0,0,0,0,0,0,0,0,
852,89.4,64.45,-5.763,20.56,69.26,72.75,44.49,17.56,72.69,20.34,27.93,67.08,63.01,50.75,50.58,54.54,0,0,0,0,0,0,0,0,0,0,0,0,0,0,0,0,
853,41.85,39.35,-12.8,3.107,57.91,28.14,24.72,-6.096,52.27,12.86,-7.628,37.94,42.23,31.63,31.62,42.83,0,0,0,0,0,0,0,0,0,0,0,0,0,0,0,0,
