%OpenBCI Raw EXG Data
%Number of channels = 16
%Sample Rate = 125 Hz
%Board = OpenBCI_GUI$BoardCytonSerialDaisy
Sample Index,EXG Channel 0,EXG Channel 1,EXG Channel 2,EXG Channel 3,EXG Channel 4,EXG Channel 5,EXG Channel 6,EXG Channel 7,EXG Channel 8,EXG Channel 9,EXG Channel 10,EXG Channel 11,EXG Channel 12,EXG Channel 13,EXG Channel 14,EXG Channel 15,Accel Channel 0,Accel Channel 1,Accel Channel 2,Other,Other.1,Other.2,Other.3,Other.4,Other.5,Other.6,Analog Channel 0,Analog Channel 1,Analog Channel 2,Timestamp,Other.7,Timestamp (Formatted),Annotations
1,0.0,-0.0,0.0,-0.0,-0.0,-0.0,-0.0,0.0,-0.0,-0.0,0.0,0.0,-0.0,0.0,0.0,-0.0,0,0,0,0,0,0,0,0,0,0,0,0,0,0,0,0,T0
2,4.522,9.015,33.76,8.083,15.36,12.76,13.24,-28.59,9.613,-3.914,-26.43,-8.601,-12.29,-3.06,-19.44,0.2403,0,0,0,0,0,0,0,0,0,0,0,0,0,0,0,0,
3,20.97,13.36,69.84,30.0,43.69,38.39,42.22,-19.54,39.65,17.77,-14.71,-6.829,3.833,0.2626,-17.29,-4.715,0,0,0,0,0,0,0,0,0,0,0,0,0,0,0,0,
4,-2.557,13.6,61.06,34.17,51.88,45.2,31.46,-15.57,48.26,30.7,-18.72,-18.95,3.678,-11.88,-28.28,-30.5,0,0,0,0,0,0,0,0,0,0,0,0,0,0,0,0,
5,-13.17,-8.025,48.75,11.99,57.29,21.82,21.53,-13.87,47.34,36.59,-24.1,-24.98,0.6868,-10.51,-45.14,-46.23,0,0,0,0,0,0,0,0,0,0,0,0,0,0,0,0,
6,-31.92,-71.71,61.02,-23.95,59.78,-17.07,33.97,-12.45,64.77,43.87,-13.8,-27.32,1.536,-8.077,-61.84,-60.38,0,0,0,0,0,0,0,0,0,0,0,0,0,0,0,0,
7,-139.7,-145.1,35.48,-69.43,24.39,-63.2,15.31,-39.89,61.44,19.88,-36.77,-52.42,-32.7,-48.58,-94.64,-99.71,0,0,0,0,0,0,0,0,0,0,0,0,0,0,0,0,
8,-229.8,-199.2,-7.965,-112.1,-12.91,-107.8,4.816,-61.59,31.11,-17.74,-62.59,-61.96,-57.84,-74.47,-106.3,-118.3,0,0,0,0,0,0,0,0,0,0,0,0,0,0,0,0,
9,-258.3,-269.2,-16.23,-155.0,-29.26,-154.0,18.26,-63.62,13.96,-28.45,-56.26,-56.08,-45.74,-63.37,-94.13,-116.7,0,0,0,0,0,0,0,0,0,0,0,0,0,0,0,0,
10,-322.7,-356.7,-36.62,-205.9,-59.97,-204.8,-2.49,-77.83,4.661,-35.93,-64.71,-79.73,-54.13,-79.15,-106.4,-141.0,0,0,0,0,0,0,0,0,0,0,0,0,0,0,0,0,
11,-411.4,-416.8,-97.38,-246.4,-108.5,-245.5,-33.12,-93.04,-20.49,-63.99,-84.9,-99.95,-82.55,-103.6,-124.8,-158.5,0,0,0,0,0,0,0,0,0,0,0,0,0,0,0,0,
12,-485.7,-462.5,-144.0,-274.9,-152.6,-276.6,-37.86,-98.97,-48.85,-89.62,-78.93,-85.81,-90.97,-94.27,-116.8,-135.5,0,0,0,0,0,0,0,0,0,0,0,0,0,0,0,0,
13,-544.6,-517.8,-153.4,-303.3,-175.1,-306.2,-35.57,-103.6,-59.34,-96.94,-63.81,-74.69,-84.43,-81.95,-101.6,-110.1,0,0,0,0,0,0,0,0,0,0,0,0,0,0,0,0,
14,-576.0,-549.6,-157.0,-316.7,-182.2,-318.8,-28.07,-102.7,-54.42,-94.55,-57.36,-81.47,-73.72,-81.04,-89.9,-111.0,0,0,0,0,0,0,0,0,0,0,0,0,0,0,0,0,
15,-608.4,-566.1,-173.4,-325.7,-204.3,-327.5,-25.11,-105.9,-52.5,-94.26,-56.93,-88.47,-72.76,-81.34,-83.31,-118.3,0,0,0,0,0,0,0,0,0,0,0,0,0,0,0,0,
16,-654.4,-620.7,-205.2,-364.2,-236.0,-367.3,-47.34,-118.5,-67.02,-103.9,-68.67,-94.58,-94.69,-92.26,-95.84,-117.8,0,0,0,0,0,0,0,0,0,0,0,0,0,0,0,0,
17,-700.5,-684.1,-237.6,-404.5,-254.2,-409.6,-76.98,-125.5,-87.32,-119.6,-84.71,-101.5,-114.0,-105.0,-114.5,-121.2,0,0,0,0,0,0,0,0,0,0,0,0,0,0,0,0,
18,-747.7,-716.5,-241.8,-420.7,-272.6,-426.2,-90.7,-125.5,-96.56,-134.8,-87.83,-107.8,-114.3,-110.0,-117.9,-130.1,0,0,0,0,0,0,0,0,0,0,0,0,0,0,0,0,
19,-780.4,-755.7,-236.7,-440.6,-298.1,-447.2,-86.26,-129.0,-103.6,-148.7,-81.64,-118.6,-110.2,-119.7,-113.6,-135.7,0,0,0,0,0,0,0,0,0,0,0,0,0,0,0,0,
20,-802.7,-779.3,-252.3,-446.2,-305.4,-454.9,-69.67,-129.2,-109.9,-149.6,-75.08,-121.3,-98.06,-120.4,-109.4,-134.4,0,0,0,0,0,0,0,0,0,0,0,0,0,0,0,0,
21,-816.6,-758.1,-264.2,-428.0,-294.0,-435.3,-61.67,-117.6,-99.27,-132.7,-75.03,-106.4,-85.18,-103.2,-113.8,-131.8,0,0,0,0,0,0,0,0,0,0,0,0,0,0,0,0,
22,-816.8,-776.1,-259.6,-442.8,-291.3,-448.3,-69.5,-113.4,-88.5,-119.0,-89.39,-100.3,-95.62,-98.29,-137.0,-141.0,0,0,0,0,0,0,0,0,0,0,0,0,0,0,0,0,
23,-840.5,-824.8,-256.3,-471.9,-294.1,-480.0,-69.78,-120.2,-90.75,-113.1,-106.6,-110.1,-110.7,-107.1,-160.4,-152.8,0,0,0,0,0,0,0,0,0,0,0,0,0,0,0,0,
24,-865.0,-828.7,-261.0,-474.5,-290.9,-484.1,-68.65,-112.0,-89.57,-110.4,-116.0,-115.9,-115.8,-111.5,-171.5,-153.9,0,0,0,0,0,0,0,0,0,0,0,0,0,0,0,0,
25,-853.8,-845.5,-276.9,-489.6,-300.7,-498.6,-83.63,-99.7,-92.22,-118.2,-125.3,-118.4,-125.8,-111.6,-172.3,-149.8,0,0,0,0,0,0,0,0,0,0,0,0,0,0,0,0,
26,-866.6,-879.2,-293.2,-506.8,-317.2,-516.6,-86.48,-105.2,-100.8,-115.7,-131.9,-116.3,-128.2,-100.4,-152.7,-135.2,0,0,0,0,0,0,0,0,0,0,0,0,0,0,0,0,
27,-904.9,-861.8,-296.5,-497.2,-319.5,-506.9,-70.75,-109.3,-98.38,-97.37,-129.3,-115.6,-118.8,-94.57,-135.0,-127.6,0,0,0,0,0,0,0,0,0,0,0,0,0,0,0,0,
28,-905.0,-857.5,-296.3,-505.1,-326.0,-513.5,-68.23,-103.3,-97.19,-104.6,-121.4,-129.8,-116.6,-115.4,-144.8,-151.1,0,0,0,0,0,0,0,0,0,0,0,0,0,0,0,0,
29,-891.3,-900.1,-308.7,-533.4,-347.2,-542.6,-85.56,-101.8,-107.9,-134.8,-118.3,-132.0,-123.8,-132.1,-157.0,-170.3,0,0,0,0,0,0,0,0,0,0,0,0,0,0,0,0,
30,-909.3,-919.9,-341.2,-547.1,-372.4,-557.5,-113.2,-105.6,-126.1,-150.8,-132.0,-116.9,-142.1,-136.7,-163.0,-169.4,0,0,0,0,0,0,0,0,0,0,0,0,0,0,0,0,
31,-927.7,-907.9,-365.5,-550.2,-391.0,-560.7,-128.6,-106.6,-148.4,-154.3,-145.7,-119.8,-155.5,-149.2,-176.2,-182.7,0,0,0,0,0,0,0,0,0,0,0,0,0,0,0,0,
32,-905.8,-883.7,-351.0,-543.9,-380.1,-555.0,-116.6,-108.4,-150.9,-152.4,-135.2,-130.7,-140.7,-147.9,-184.0,-201.0,0,0,0,0,0,0,0,0,0,0,0,0,0,0,0,0,
33,-882.2,-863.7,-329.6,-535.1,-354.6,-546.0,-104.8,-118.9,-129.6,-142.5,-118.9,-129.3,-122.1,-130.5,-174.8,-194.8,0,0,0,0,0,0,0,0,0,0,0,0,0,0,0,0,
34,-881.0,-867.4,-327.4,-536.6,-350.5,-546.1,-99.54,-120.1,-115.3,-132.8,-110.1,-124.5,-112.0,-119.4,-155.9,-173.8,0,0,0,0,0,0,0,0,0,0,0,0,0,0,0,0,
35,-846.8,-859.7,-326.0,-531.2,-344.7,-540.9,-81.33,-100.7,-109.4,-122.8,-96.9,-113.9,-91.49,-104.3,-141.1,-156.2,0,0,0,0,0,0,0,0,0,0,0,0,0,0,0,0,
36,-813.7,-834.9,-321.1,-520.9,-325.6,-531.7,-64.96,-92.46,-95.31,-111.5,-81.67,-103.6,-71.42,-87.07,-128.1,-139.3,0,0,0,0,0,0,0,0,0,0,0,0,0,0,0,0,
37,-842.3,-832.2,-306.2,-523.1,-322.0,-533.9,-60.69,-101.9,-79.72,-105.3,-70.78,-105.8,-61.94,-80.56,-108.1,-124.0,0,0,0,0,0,0,0,0,0,0,0,0,0,0,0,0,
38,-857.5,-825.7,-284.3,-518.1,-321.7,-529.2,-60.45,-103.1,-74.29,-100.5,-69.24,-106.9,-62.59,-78.79,-103.8,-124.3,0,0,0,0,0,0,0,0,0,0,0,0,0,0,0,0,
39,-837.5,-801.5,-300.5,-511.5,-321.8,-522.4,-74.34,-107.1,-82.82,-104.7,-85.96,-108.4,-83.31,-90.7,-122.4,-132.1,0,0,0,0,0,0,0,0,0,0,0,0,0,0,0,0,
40,-834.0,-808.3,-343.7,-534.7,-347.2,-544.6,-100.1,-122.5,-104.6,-130.8,-109.1,-124.4,-107.1,-116.2,-135.2,-135.5,0,0,0,0,0,0,0,0,0,0,0,0,0,0,0,0,
41,-815.3,-825.8,-344.6,-547.7,-356.7,-558.0,-101.2,-124.7,-123.9,-150.8,-110.2,-125.6,-103.9,-118.0,-130.0,-131.8,0,0,0,0,0,0,0,0,0,0,0,0,0,0,0,0,
42,-792.5,-804.3,-316.9,-521.0,-332.4,-531.6,-74.63,-120.8,-118.3,-135.7,-87.04,-95.84,-86.19,-96.34,-110.2,-107.9,0,0,0,0,0,0,0,0,0,0,0,0,0,0,0,0,
43,-816.2,-789.2,-324.5,-518.4,-341.5,-528.7,-76.52,-131.2,-108.2,-120.1,-77.73,-85.74,-90.62,-97.65,-100.7,-96.99,0,0,0,0,0,0,0,0,0,0,0,0,0,0,0,0,
44,-831.8,-809.4,-352.0,-549.2,-368.8,-561.5,-107.0,-131.1,-128.8,-135.0,-94.33,-107.0,-108.6,-116.4,-118.9,-128.2,0,0,0,0,0,0,0,0,0,0,0,0,0,0,0,0,
45,-806.2,-805.1,-350.1,-550.2,-352.3,-563.8,-106.2,-113.8,-145.6,-147.1,-95.58,-105.1,-99.08,-110.3,-125.1,-138.5,0,0,0,0,0,0,0,0,0,0,0,0,0,0,0,0,
46,-784.4,-768.7,-328.7,-526.7,-334.5,-539.0,-89.59,-107.8,-127.1,-139.8,-80.01,-83.05,-77.39,-93.63,-105.9,-107.2,0,0,0,0,0,0,0,0,0,0,0,0,0,0,0,0,
47,-762.9,-749.3,-325.0,-509.4,-330.9,-521.7,-87.12,-99.53,-112.0,-135.5,-76.13,-73.85,-72.34,-86.07,-91.44,-88.22,0,0,0,0,0,0,0,0,0,0,0,0,0,0,0,0,
48,-735.3,-745.5,-340.3,-498.1,-306.4,-510.4,-79.26,-86.61,-106.8,-125.2,-70.8,-69.95,-60.54,-69.54,-83.03,-84.59,0,0,0,0,0,0,0,0,0,0,0,0,0,0,0,0,
49,-740.0,-741.5,-345.8,-499.2,-305.9,-510.6,-90.48,-98.48,-89.6,-102.2,-70.84,-75.17,-51.82,-56.96,-88.03,-84.18,0,0,0,0,0,0,0,0,0,0,0,0,0,0,0,0,
50,-747.4,-733.6,-327.6,-497.2,-328.7,-508.3,-116.0,-99.92,-87.52,-93.72,-87.71,-77.5,-66.94,-58.45,-103.4,-85.15,0,0,0,0,0,0,0,0,0,0,0,0,0,0,0,0,
51,-709.6,-714.8,-297.9,-481.7,-309.3,-491.4,-94.84,-78.22,-102.3,-94.83,-81.99,-56.15,-66.09,-50.06,-92.26,-70.82,0,0,0,0,0,0,0,0,0,0,0,0,0,0,0,0,
52,-682.5,-704.3,-281.4,-479.7,-290.7,-488.8,-61.81,-89.02,-100.6,-90.13,-58.32,-54.59,-47.69,-47.63,-70.52,-59.19,0,0,0,0,0,0,0,0,0,0,0,0,0,0,0,0,
53,-700.4,-700.9,-287.9,-478.3,-304.5,-489.4,-62.02,-110.8,-93.78,-99.16,-54.84,-83.46,-48.07,-70.3,-74.02,-73.31,0,0,0,0,0,0,0,0,0,0,0,0,0,0,0,0,
54,-698.8,-677.9,-283.6,-456.0,-289.7,-466.4,-55.48,-108.4,-92.11,-114.7,-57.32,-101.4,-55.11,-94.47,-90.65,-101.0,0,0,0,0,0,0,0,0,0,0,0,0,0,0,0,0,
55,-656.8,-660.6,-255.2,-443.7,-257.4,-451.1,-47.74,-116.3,-80.72,-114.7,-60.51,-119.5,-58.7,-110.4,-109.8,-125.4,0,0,0,0,0,0,0,0,0,0,0,0,0,0,0,0,
56,-632.1,-660.7,-248.6,-446.4,-251.9,-454.3,-63.16,-129.2,-70.47,-116.4,-76.52,-139.6,-66.33,-118.1,-126.9,-132.3,0,0,0,0,0,0,0,0,0,0,0,0,0,0,0,0,
57,-642.6,-647.3,-260.8,-440.3,-253.4,-449.9,-68.55,-127.4,-69.99,-118.2,-88.85,-135.1,-70.41,-114.0,-131.0,-127.2,0,0,0,0,0,0,0,0,0,0,0,0,0,0,0,0,
58,-634.0,-639.7,-256.7,-432.7,-252.1,-443.0,-63.33,-124.8,-67.56,-106.4,-90.48,-118.4,-65.74,-100.1,-121.9,-115.5,0,0,0,0,0,0,0,0,0,0,0,0,0,0,0,0,
59,-605.0,-648.8,-257.7,-426.8,-255.3,-437.3,-66.29,-113.1,-62.19,-98.09,-83.67,-96.88,-48.95,-67.07,-99.8,-83.13,0,0,0,0,0,0,0,0,0,0,0,0,0,0,0,0,
60,-618.1,-641.2,-259.2,-420.2,-254.4,-428.7,-55.65,-93.22,-53.71,-84.08,-68.75,-75.97,-32.26,-31.41,-77.63,-52.63,0,0,0,0,0,0,0,0,0,0,0,0,0,0,0,0,
61,-642.5,-638.4,-247.2,-427.7,-251.0,-435.0,-36.62,-86.69,-44.18,-58.53,-62.42,-78.34,-32.25,-26.71,-68.13,-48.39,0,0,0,0,0,0,0,0,0,0,0,0,0,0,0,0,
62,-634.2,-646.5,-253.3,-433.2,-248.2,-442.6,-33.06,-93.65,-38.2,-56.66,-62.5,-85.54,-25.7,-31.55,-52.53,-43.66,0,0,0,0,0,0,0,0,0,0,0,0,0,0,0,0,
63,-623.7,-615.6,-249.8,-414.6,-239.4,-425.1,-28.04,-101.5,-26.82,-62.92,-46.97,-75.72,-2.064,-22.04,-30.62,-31.8,0,0,0,0,0,0,0,0,0,0,0,0,0,0,0,0,
64,-596.2,-585.7,-229.6,-402.9,-227.2,-412.3,-24.06,-99.77,-18.79,-50.78,-30.11,-70.77,6.483,-24.9,-29.61,-35.05,0,0,0,0,0,0,0,0,0,0,0,0,0,0,0,0,
65,-576.1,-612.0,-258.3,-412.7,-226.3,-420.8,-45.19,-87.81,-30.77,-54.76,-37.35,-76.33,-3.857,-42.96,-38.78,-41.95,0,0,0,0,0,0,0,0,0,0,0,0,0,0,0,0,
66,-609.8,-628.5,-285.6,-413.5,-237.1,-421.1,-59.46,-77.67,-40.29,-71.37,-47.1,-75.44,-8.04,-43.87,-35.42,-35.59,0,0,0,0,0,0,0,0,0,0,0,0,0,0,0,0,
67,-610.2,-603.3,-248.8,-405.2,-239.4,-413.9,-43.77,-80.16,-28.93,-65.52,-42.21,-73.0,-9.052,-33.93,-40.32,-33.07,0,0,0,0,0,0,0,0,0,0,0,0,0,0,0,0,
68,-573.7,-594.4,-228.6,-402.4,-232.2,-412.0,-33.4,-85.61,-18.91,-55.12,-47.76,-71.59,-15.07,-34.07,-57.3,-38.58,0,0,0,0,0,0,0,0,0,0,0,0,0,0,0,0,
69,-582.8,-598.0,-242.1,-397.6,-225.6,-406.9,-26.38,-75.65,-20.36,-54.01,-45.5,-56.29,-1.777,-24.65,-44.32,-24.99,0,0,0,0,0,0,0,0,0,0,0,0,0,0,0,0,
70,-576.6,-581.0,-228.2,-394.7,-217.8,-403.4,-3.873,-67.48,-14.7,-49.91,-11.78,-41.12,25.89,-8.482,-17.22,-5.514,0,0,0,0,0,0,0,0,0,0,0,0,0,0,0,0,
71,-550.8,-572.6,-222.0,-402.0,-226.3,-409.2,-7.121,-76.04,-13.59,-55.44,-13.43,-52.55,11.28,-25.21,-36.45,-23.05,0,0,0,0,0,0,0,0,0,0,0,0,0,0,0,0,
72,-577.1,-583.0,-249.4,-409.2,-256.1,-416.1,-44.01,-77.53,-45.22,-78.97,-55.24,-66.91,-33.06,-51.13,-69.31,-53.37,0,0,0,0,0,0,0,0,0,0,0,0,0,0,0,0,
73,-591.7,-576.1,-253.5,-402.1,-259.4,-411.2,-53.05,-69.25,-66.03,-86.09,-46.3,-51.1,-32.9,-38.35,-55.11,-47.83,0,0,0,0,0,0,0,0,0,0,0,0,0,0,0,0,
74,-558.4,-558.8,-225.0,-385.8,-225.1,-394.6,-25.43,-62.04,-32.06,-55.61,-14.0,-27.19,-2.945,-15.95,-30.95,-29.76,0,0,0,0,0,0,0,0,0,0,0,0,0,0,0,0,
75,-533.8,-561.4,-205.3,-384.7,-202.6,-391.0,-11.29,-55.19,-2.616,-27.58,-24.98,-30.22,3.65,-17.06,-33.17,-34.76,0,0,0,0,0,0,0,0,0,0,0,0,0,0,0,0,
76,-520.7,-558.1,-206.7,-389.5,-200.8,-396.7,-22.37,-56.08,-9.245,-27.99,-33.22,-49.65,3.922,-21.99,-31.83,-43.15,0,0,0,0,0,0,0,0,0,0,0,0,0,0,0,0,
77,-506.5,-525.0,-213.4,-370.7,-193.4,-378.6,-30.36,-56.81,-5.011,-32.08,-21.21,-55.64,12.92,-23.35,-20.01,-39.46,0,0,0,0,0,0,0,0,0,0,0,0,0,0,0,0,
78,-504.7,-507.4,-208.9,-358.4,-191.6,-363.8,-20.85,-57.63,2.25,-41.49,-19.5,-52.23,13.86,-30.39,-16.99,-41.82,0,0,0,0,0,0,0,0,0,0,0,0,0,0,0,0,
79,-515.0,-530.1,-205.2,-375.1,-207.1,-380.3,-10.74,-67.05,-9.108,-55.43,-16.35,-53.84,6.011,-34.93,-24.98,-54.7,0,0,0,0,0,0,0,0,0,0,0,0,0,0,0,0,
80,-510.9,-533.4,-216.7,-367.3,-208.4,-375.0,-10.77,-54.92,-10.62,-36.53,-9.139,-44.18,-1.072,-27.05,-32.48,-58.33,0,0,0,0,0,0,0,0,0,0,0,0,0,0,0,0,
81,-485.3,-495.5,-210.4,-333.0,-187.9,-341.4,3.451,-29.87,-0.3377,-8.87,5.985,-21.32,9.844,-10.81,-15.44,-36.19,0,0,0,0,0,0,0,0,0,0,0,0,0,0,0,0,
82,-483.0,-482.6,-182.8,-335.0,-191.3,-342.2,23.05,-41.41,3.397,-25.9,28.96,-17.53,30.87,-7.885,8.406,-8.854,0,0,0,0,0,0,0,0,0,0,0,0,0,0,0,0,
83,-503.5,-498.7,-178.1,-351.3,-220.2,-358.1,9.366,-66.82,-0.0176,-61.13,21.24,-30.76,28.61,-23.16,-3.636,-9.707,0,0,0,0,0,0,0,0,0,0,0,0,0,0,0,0,
84,-500.9,-491.3,-185.0,-341.3,-223.4,-348.9,-8.393,-68.0,-1.769,-68.07,2.215,-35.78,18.99,-28.82,-23.27,-22.51,0,0,0,0,0,0,0,0,0,0,0,0,0,0,0,0,
85,-494.9,-488.7,-187.6,-345.1,-215.2,-353.4,-13.46,-69.24,0.2187,-61.31,-4.532,-52.1,6.321,-38.63,-39.25,-38.8,0,0,0,0,0,0,0,0,0,0,0,0,0,0,0,0,
86,-496.2,-495.7,-206.3,-356.5,-232.3,-364.4,-42.79,-82.81,-23.38,-76.81,-38.63,-78.93,-34.08,-68.25,-73.08,-64.81,0,0,0,0,0,0,0,0,0,0,0,0,0,0,0,0,
87,-470.4,-469.2,-214.8,-340.2,-232.4,-346.5,-55.62,-80.51,-59.45,-93.07,-52.24,-60.55,-41.44,-53.71,-60.38,-48.15,0,0,0,0,0,0,0,0,0,0,0,0,0,0,0,0,
88,-457.2,-469.1,-206.9,-341.2,-211.7,-346.9,-30.53,-68.38,-51.83,-70.99,-12.78,-22.64,-7.467,-9.571,-18.7,-14.61,0,0,0,0,0,0,0,0,0,0,0,0,0,0,0,0,
89,-486.0,-505.7,-215.7,-357.2,-228.8,-365.3,-40.62,-79.95,-43.24,-63.51,-22.77,-40.21,-34.73,-37.84,-58.96,-53.47,0,0,0,0,0,0,0,0,0,0,0,0,0,0,0,0,
90,-478.2,-477.6,-221.0,-331.2,-247.5,-340.5,-67.86,-93.07,-80.18,-110.9,-68.75,-70.13,-84.07,-89.82,-106.1,-91.56,0,0,0,0,0,0,0,0,0,0,0,0,0,0,0,0,
91,-438.7,-436.5,-227.7,-303.2,-233.4,-310.2,-70.0,-82.01,-98.1,-134.1,-64.17,-62.22,-72.94,-80.54,-81.64,-66.73,0,0,0,0,0,0,0,0,0,0,0,0,0,0,0,0,
92,-469.5,-468.5,-276.5,-314.2,-258.4,-320.1,-102.5,-87.21,-93.65,-112.5,-70.99,-70.28,-78.5,-78.78,-91.77,-71.6,0,0,0,0,0,0,0,0,0,0,0,0,0,0,0,0,
93,-521.8,-489.6,-336.3,-324.0,-306.1,-331.5,-147.9,-112.4,-123.5,-116.2,-110.0,-98.5,-116.3,-113.2,-139.1,-106.0,0,0,0,0,0,0,0,0,0,0,0,0,0,0,0,0,
94,-500.9,-465.0,-351.1,-311.9,-285.0,-320.2,-138.7,-102.8,-143.1,-128.5,-103.9,-88.15,-102.1,-111.5,-133.5,-96.47,0,0,0,0,0,0,0,0,0,0,0,0,0,0,0,0,
95,-468.0,-447.0,-308.7,-287.8,-235.3,-295.7,-107.7,-63.05,-107.5,-100.7,-70.53,-55.56,-60.26,-74.21,-105.3,-68.88,0,0,0,0,0,0,0,0,0,0,0,0,0,0,0,0,
96,-466.1,-430.8,-263.0,-269.1,-228.9,-276.4,-94.88,-44.46,-71.36,-64.99,-60.98,-53.97,-50.64,-56.69,-99.78,-68.38,0,0,0,0,0,0,0,0,0,0,0,0,0,0,0,0,
97,-455.9,-418.5,-278.2,-267.9,-237.8,-274.5,-90.61,-53.06,-74.06,-59.94,-69.1,-70.97,-62.22,-70.04,-109.7,-89.73,0,0,0,0,0,0,0,0,0,0,0,0,0,0,0,0,
98,-455.8,-423.8,-308.9,-271.3,-237.0,-277.7,-94.15,-61.48,-86.72,-79.9,-79.41,-66.61,-74.02,-87.97,-121.3,-101.1,0,0,0,0,0,0,0,0,0,0,0,0,0,0,0,0,
99,-479.5,-435.5,-300.5,-283.3,-244.3,-290.5,-100.8,-68.49,-88.85,-104.1,-83.55,-59.25,-80.83,-93.54,-118.3,-97.92,0,0,0,0,0,0,0,0,0,0,0,0,0,0,0,0,
100,-489.2,-449.3,-297.6,-298.0,-253.8,-306.6,-100.9,-79.49,-92.16,-115.2,-89.58,-74.81,-82.51,-92.7,-113.2,-105.0,0,0,0,0,0,0,0,0,0,0,0,0,0,0,0,0,
101,-476.6,-437.6,-303.8,-284.0,-243.4,-292.7,-96.92,-73.77,-88.14,-104.0,-93.47,-79.76,-71.8,-80.57,-110.7,-102.4,0,0,0,0,0,0,0,0,0,0,0,0,0,0,0,0,
102,-450.8,-396.3,-275.2,-260.0,-216.9,-267.7,-83.62,-53.45,-61.53,-70.58,-74.08,-61.83,-46.74,-51.19,-93.08,-80.06,0,0,0,0,0,0,0,0,0,0,0,0,0,0,0,0,
103,-420.0,-377.3,-239.9,-248.1,-196.4,-254.8,-62.05,-40.0,-38.63,-34.14,-54.85,-47.5,-29.71,-23.48,-80.86,-69.61,0,0,0,0,0,0,0,0,0,0,0,0,0,0,0,0,
104,-398.3,-380.8,-233.1,-233.2,-186.8,-238.4,-56.28,-30.7,-35.46,-14.2,-57.78,-38.92,-25.34,-12.37,-84.86,-63.48,0,0,0,0,0,0,0,0,0,0,0,0,0,0,0,0,
105,-386.5,-375.1,-239.2,-230.6,-181.4,-234.5,-68.41,-33.0,-32.2,-10.91,-60.97,-41.16,-18.15,-15.13,-78.26,-56.78,0,0,0,0,0,0,0,0,0,0,0,0,0,0,0,0,
106,-393.3,-372.7,-249.4,-245.5,-188.0,-250.4,-77.8,-47.85,-35.64,-24.3,-59.67,-49.9,-12.22,-15.27,-57.77,-55.6,0,0,0,0,0,0,0,0,0,0,0,0,0,0,0,0,
107,-419.7,-381.3,-258.9,-249.0,-206.2,-255.8,-79.76,-44.86,-53.0,-40.27,-52.73,-37.14,-5.042,1.603,-31.3,-29.88,0,0,0,0,0,0,0,0,0,0,0,0,0,0,0,0,
108,-420.7,-381.3,-248.6,-240.0,-210.1,-247.2,-63.09,-29.52,-52.12,-30.1,-27.48,-17.61,16.92,21.74,-1.541,8.662,0,0,0,0,0,0,0,0,0,0,0,0,0,0,0,0,
109,-391.6,-358.3,-235.0,-223.9,-201.8,-230.9,-34.65,-30.5,-35.31,-5.927,-10.25,-20.25,31.76,25.34,10.93,13.43,0,0,0,0,0,0,0,0,0,0,0,0,0,0,0,0,
110,-381.6,-328.0,-241.7,-204.6,-202.3,-210.3,-31.79,-38.27,-37.78,-4.297,-17.95,-32.14,20.74,13.37,5.418,-2.539,0,0,0,0,0,0,0,0,0,0,0,0,0,0,0,0,
111,-368.2,-325.1,-231.9,-201.2,-188.1,-204.7,-34.11,-35.04,-38.56,-20.74,-16.54,-33.86,17.17,4.348,10.04,-2.7,0,0,0,0,0,0,0,0,0,0,0,0,0,0,0,0,
112,-334.6,-336.1,-201.7,-202.6,-159.2,-206.9,-26.1,-29.59,-14.82,-26.08,-11.7,-29.94,22.77,5.093,8.669,-1.004,0,0,0,0,0,0,0,0,0,0,0,0,0,0,0,0,
113,-343.5,-326.2,-208.0,-195.0,-167.6,-201.2,-55.79,-37.81,-15.02,-26.21,-40.67,-41.22,-6.619,-12.48,-30.01,-32.59,0,0,0,0,0,0,0,0,0,0,0,0,0,0,0,0,
114,-362.1,-314.9,-225.9,-198.7,-197.2,-202.9,-86.66,-51.35,-51.0,-44.35,-67.04,-63.69,-39.23,-46.72,-64.71,-73.83,0,0,0,0,0,0,0,0,0,0,0,0,0,0,0,0,
115,-337.5,-314.1,-207.1,-205.5,-197.3,-209.2,-55.43,-51.96,-59.96,-57.64,-49.45,-66.19,-26.07,-52.96,-61.28,-76.58,0,0,0,0,0,0,0,0,0,0,0,0,0,0,0,0,
116,-339.1,-308.1,-198.9,-200.2,-188.5,-206.5,-25.29,-47.04,-39.17,-44.5,-31.63,-55.81,-16.65,-41.58,-61.9,-64.89,0,0,0,0,0,0,0,0,0,0,0,0,0,0,0,0,
117,-352.1,-309.2,-216.6,-202.3,-192.2,-208.1,-43.94,-51.57,-39.82,-40.96,-44.32,-63.86,-37.17,-49.95,-82.81,-81.23,0,0,0,0,0,0,0,0,0,0,0,0,0,0,0,0,
118,-322.5,-313.1,-214.4,-209.4,-197.1,-214.3,-69.01,-67.46,-55.28,-59.22,-60.53,-85.38,-45.81,-66.03,-97.85,-104.9,0,0,0,0,0,0,0,0,0,0,0,0,0,0,0,0,
119,-323.5,-315.3,-210.7,-218.2,-205.5,-224.8,-83.18,-86.18,-60.91,-72.26,-66.94,-93.94,-47.84,-75.4,-104.6,-106.2,0,0,0,0,0,0,0,0,0,0,0,0,0,0,0,0,
120,-342.0,-335.7,-219.6,-235.5,-205.2,-242.6,-85.73,-84.51,-61.79,-75.12,-58.54,-74.25,-50.5,-72.67,-92.85,-90.29,0,0,0,0,0,0,0,0,0,0,0,0,0,0,0,0,
121,-310.7,-332.8,-196.1,-223.6,-189.2,-231.1,-71.38,-61.06,-52.61,-62.81,-42.51,-46.86,-37.43,-57.59,-64.74,-75.07,0,0,0,0,0,0,0,0,0,0,0,0,0,0,0,0,
122,-299.1,-300.1,-171.9,-201.0,-192.4,-208.4,-72.41,-54.31,-44.74,-53.38,-59.05,-53.92,-49.26,-66.95,-71.53,-81.31,0,0,0,0,0,0,0,0,0,0,0,0,0,0,0,0,
123,-321.9,-317.0,-203.1,-226.8,-219.1,-232.0,-98.41,-73.89,-69.7,-81.03,-92.92,-83.85,-87.7,-97.33,-101.2,-102.2,0,0,0,0,0,0,0,0,0,0,0,0,0,0,0,0,
124,-314.0,-343.9,-227.3,-241.1,-227.1,-247.2,-107.2,-87.23,-101.1,-104.5,-87.03,-93.45,-84.53,-95.86,-83.22,-96.82,0,0,0,0,0,0,0,0,0,0,0,0,0,0,0,0,
125,-312.0,-315.4,-207.6,-210.2,-213.0,-218.4,-93.89,-88.66,-100.1,-91.6,-63.55,-91.82,-58.87,-79.2,-43.63,-65.86,0,0,0,0,0,0,0,0,0,0,0,0,0,0,0,0,
126,-344.4,-306.7,-199.4,-208.0,-202.6,-213.1,-81.43,-87.53,-85.4,-82.41,-54.33,-88.8,-51.74,-73.59,-33.08,-43.35,0,0,0,0,0,0,0,0,0,0,0,0,0,0,0,0,
127,-344.1,-320.6,-199.7,-216.0,-192.5,-219.9,-68.71,-73.19,-68.55,-72.77,-37.08,-65.57,-28.53,-47.43,-20.7,-22.85,0,0,0,0,0,0,0,0,0,0,0,0,0,0,0,0,
128,-293.8,-287.2,-184.5,-189.1,-172.2,-194.9,-67.98,-55.54,-43.16,-43.36,-27.83,-45.08,-6.046,-18.65,-9.509,-4.85,0,0,0,0,0,0,0,0,0,0,0,0,0,0,0,0,
129,-252.9,-254.7,-165.4,-169.6,-150.9,-174.4,-73.7,-45.1,-25.76,-20.74,-45.02,-45.76,-17.95,-18.86,-26.27,-7.355,0,0,0,0,0,0,0,0,0,0,0,0,0,0,0,0,
130,-241.7,-257.3,-143.1,-166.7,-142.5,-171.1,-59.28,-28.58,-23.17,-10.51,-56.43,-44.35,-24.04,-18.29,-34.1,-9.916,0,0,0,0,0,0,0,0,0,0,0,0,0,0,0,0,
131,-243.1,-251.9,-153.6,-162.7,-151.7,-168.7,-54.23,-26.81,-32.25,-10.74,-56.98,-46.42,-20.9,-15.67,-26.59,-9.385,0,0,0,0,0,0,0,0,0,0,0,0,0,0,0,0,
132,-250.4,-242.2,-186.2,-160.8,-155.6,-165.4,-68.04,-45.78,-42.8,-23.4,-54.94,-53.92,-30.06,-25.2,-30.35,-20.51,0,0,0,0,0,0,0,0,0,0,0,0,0,0,0,0,
133,-240.3,-237.3,-157.8,-148.9,-134.6,-151.6,-63.68,-42.68,-31.48,-25.94,-45.39,-45.74,-31.18,-23.48,-33.76,-25.29,0,0,0,0,0,0,0,0,0,0,0,0,0,0,0,0,
134,-226.1,-231.4,-128.9,-142.2,-114.7,-145.5,-63.24,-32.27,-17.44,-19.94,-48.01,-40.26,-35.53,-16.47,-40.68,-29.89,0,0,0,0,0,0,0,0,0,0,0,0,0,0,0,0,
135,-249.8,-245.7,-178.9,-158.0,-118.8,-161.5,-84.51,-42.81,-32.92,-24.99,-61.51,-46.27,-55.58,-24.58,-56.73,-48.71,0,0,0,0,0,0,0,0,0,0,0,0,0,0,0,0,
136,-262.1,-253.6,-201.7,-160.6,-129.7,-164.2,-96.3,-39.67,-56.15,-35.65,-61.99,-43.91,-63.17,-38.9,-60.72,-59.46,0,0,0,0,0,0,0,0,0,0,0,0,0,0,0,0,
137,-231.8,-220.2,-161.9,-144.4,-134.0,-148.7,-97.8,-23.02,-62.13,-43.0,-55.04,-43.38,-58.81,-50.66,-56.17,-56.26,0,0,0,0,0,0,0,0,0,0,0,0,0,0,0,0,
138,-226.0,-206.6,-155.2,-151.6,-139.9,-155.0,-96.22,-25.15,-55.58,-43.95,-42.94,-49.96,-56.29,-52.28,-50.16,-48.34,0,0,0,0,0,0,0,0,0,0,0,0,0,0,0,0,
139,-251.8,-246.8,-178.5,-182.1,-158.3,-185.4,-93.42,-36.26,-55.3,-48.62,-29.85,-49.52,-54.88,-50.76,-42.01,-38.8,0,0,0,0,0,0,0,0,0,0,0,0,0,0,0,0,
140,-271.7,-276.7,-192.5,-200.3,-186.4,-206.9,-98.54,-43.67,-76.77,-69.39,-36.03,-45.43,-59.57,-63.26,-42.86,-33.32,0,0,0,0,0,0,0,0,0,0,0,0,0,0,0,0,
141,-280.4,-274.4,-204.6,-200.0,-202.7,-208.4,-98.55,-51.27,-96.53,-86.37,-47.21,-46.6,-62.76,-71.95,-46.85,-29.56,0,0,0,0,0,0,0,0,0,0,0,0,0,0,0,0,
142,-263.9,-261.6,-193.6,-188.5,-192.4,-195.1,-89.34,-53.92,-92.99,-84.92,-42.58,-52.19,-55.08,-61.83,-45.01,-28.7,0,0,0,0,0,0,0,0,0,0,0,0,0,0,0,0,
143,-236.7,-232.3,-163.2,-163.1,-167.1,-168.9,-83.0,-43.77,-79.84,-76.08,-39.12,-52.7,-47.82,-52.03,-43.41,-33.17,0,0,0,0,0,0,0,0,0,0,0,0,0,0,0,0,
144,-226.9,-204.3,-158.0,-140.6,-151.3,-146.7,-83.23,-32.17,-58.49,-60.87,-53.99,-52.16,-55.4,-50.89,-52.09,-43.39,0,0,0,0,0,0,0,0,0,0,0,0,0,0,0,0,
145,-222.5,-205.3,-164.6,-141.1,-151.5,-145.3,-92.53,-30.83,-41.72,-47.88,-74.9,-59.58,-70.32,-49.37,-70.13,-56.68,0,0,0,0,0,0,0,0,0,0,0,0,0,0,0,0,
146,-219.8,-220.0,-154.9,-146.6,-152.1,-150.0,-91.86,-21.73,-52.17,-46.89,-70.91,-53.83,-61.67,-39.92,-61.57,-46.85,0,0,0,0,0,0,0,0,0,0,0,0,0,0,0,0,
147,-223.0,-215.7,-153.2,-134.5,-144.9,-138.4,-75.19,-9.674,-58.02,-34.98,-47.68,-39.02,-39.15,-26.82,-30.49,-22.8,0,0,0,0,0,0,0,0,0,0,0,0,0,0,0,0,
148,-214.9,-182.8,-154.4,-117.0,-131.8,-119.5,-72.94,-17.2,-44.67,-13.26,-49.75,-43.14,-47.3,-25.51,-39.98,-25.39,0,0,0,0,0,0,0,0,0,0,0,0,0,0,0,0,
149,-184.5,-158.0,-123.7,-114.8,-117.0,-116.3,-73.32,-18.71,-51.85,-17.91,-63.06,-44.27,-64.39,-34.09,-65.27,-31.58,0,0,0,0,0,0,0,0,0,0,0,0,0,0,0,0,
150,-155.0,-159.7,-90.64,-118.9,-108.2,-121.8,-51.51,-8.651,-66.26,-35.09,-46.07,-33.42,-51.05,-35.8,-42.58,-17.6,0,0,0,0,0,0,0,0,0,0,0,0,0,0,0,0,
151,-162.7,-158.6,-100.2,-120.9,-107.8,-123.9,-44.27,-17.8,-54.95,-36.74,-31.45,-37.7,-37.3,-33.66,-16.67,-12.94,0,0,0,0,0,0,0,0,0,0,0,0,0,0,0,0,
152,-192.0,-170.6,-133.7,-143.0,-120.0,-145.8,-70.21,-38.54,-53.27,-53.63,-43.96,-50.82,-43.85,-42.06,-25.78,-19.26,0,0,0,0,0,0,0,0,0,0,0,0,0,0,0,0,
153,-195.8,-207.3,-151.6,-169.6,-138.4,-174.0,-82.74,-56.2,-73.46,-88.23,-45.0,-59.95,-45.28,-49.52,-24.79,-17.1,0,0,0,0,0,0,0,0,0,0,0,0,0,0,0,0,
154,-180.3,-213.4,-145.5,-159.4,-138.6,-164.1,-67.23,-55.5,-76.67,-90.98,-30.31,-59.83,-38.24,-36.99,-6.424,-9.009,0,0,0,0,0,0,0,0,0,0,0,0,0,0,0,0,
155,-184.3,-193.2,-142.0,-143.6,-133.1,-147.9,-65.92,-31.59,-74.87,-73.17,-24.91,-51.03,-39.33,-27.5,-4.458,-10.39,0,0,0,0,0,0,0,0,0,0,0,0,0,0,0,0,
156,-198.3,-193.5,-152.9,-155.4,-144.9,-159.6,-82.59,-31.5,-91.72,-77.11,-25.85,-57.4,-47.63,-42.35,-16.48,-29.06,0,0,0,0,0,0,0,0,0,0,0,0,0,0,0,0,
157,-178.5,-192.9,-155.8,-156.3,-146.9,-160.1,-85.66,-53.32,-99.04,-85.3,-34.84,-65.25,-56.14,-49.41,-27.15,-42.15,0,0,0,0,0,0,0,0,0,0,0,0,0,0,0,0,
158,-145.0,-171.3,-151.4,-136.3,-127.4,-140.4,-84.94,-45.77,-86.59,-72.85,-49.86,-48.38,-61.56,-33.0,-34.27,-39.17,0,0,0,0,0,0,0,0,0,0,0,0,0,0,0,0,
159,-151.9,-157.6,-147.5,-126.3,-114.7,-131.1,-96.43,-28.04,-74.64,-53.12,-58.27,-39.65,-62.34,-24.32,-46.54,-47.24,0,0,0,0,0,0,0,0,0,0,0,0,0,0,0,0,
160,-175.0,-162.0,-139.0,-124.5,-118.1,-128.0,-104.4,-22.71,-71.73,-43.0,-72.17,-48.88,-65.75,-34.69,-70.41,-61.84,0,0,0,0,0,0,0,0,0,0,0,0,0,0,0,0,
161,-169.8,-163.8,-141.0,-118.8,-125.6,-121.9,-96.74,-15.75,-76.66,-42.84,-81.03,-49.33,-69.34,-46.0,-75.32,-54.67,0,0,0,0,0,0,0,0,0,0,0,0,0,0,0,0,
162,-145.0,-149.6,-138.6,-111.1,-121.4,-115.4,-77.02,-21.25,-73.65,-44.37,-63.28,-53.15,-60.91,-48.54,-52.26,-43.33,0,0,0,0,0,0,0,0,0,0,0,0,0,0,0,0,
163,-120.2,-123.9,-105.3,-100.3,-101.7,-104.3,-64.39,-30.73,-58.63,-45.93,-57.93,-61.1,-55.48,-47.24,-53.35,-49.89,0,0,0,0,0,0,0,0,0,0,0,0,0,0,0,0,
164,-107.2,-108.5,-82.36,-97.25,-83.13,-100.0,-67.14,-17.69,-52.33,-47.6,-74.37,-52.14,-60.74,-43.41,-72.91,-51.14,0,0,0,0,0,0,0,0,0,0,0,0,0,0,0,0,
165,-108.9,-125.3,-91.51,-110.8,-77.43,-113.7,-62.01,-11.89,-50.85,-44.58,-68.65,-54.55,-56.37,-41.31,-68.62,-51.08,0,0,0,0,0,0,0,0,0,0,0,0,0,0,0,0,
166,-129.6,-144.2,-92.19,-114.7,-83.05,-118.8,-48.65,-30.98,-45.88,-44.9,-60.29,-86.79,-55.26,-58.67,-70.23,-79.51,0,0,0,0,0,0,0,0,0,0,0,0,0,0,0,0,
167,-148.5,-126.3,-79.45,-99.77,-86.32,-104.0,-47.79,-46.29,-51.09,-55.1,-72.98,-105.6,-67.57,-81.57,-83.01,-101.4,0,0,0,0,0,0,0,0,0,0,0,0,0,0,0,0,
168,-120.4,-109.7,-78.43,-97.42,-78.72,-100.0,-51.43,-58.51,-58.06,-64.41,-70.9,-99.51,-62.89,-80.44,-73.8,-93.15,0,0,0,0,0,0,0,0,0,0,0,0,0,0,0,0,
169,-92.73,-118.1,-84.62,-104.7,-81.83,-107.4,-50.18,-68.12,-54.13,-73.63,-49.14,-93.89,-46.66,-73.11,-58.27,-87.89,0,0,0,0,0,0,0,0,0,0,0,0,0,0,0,0,
170,-118.9,-114.2,-89.83,-100.2,-96.8,-104.3,-52.35,-51.13,-52.83,-82.21,-33.85,-73.29,-41.81,-65.06,-40.59,-68.15,0,0,0,0,0,0,0,0,0,0,0,0,0,0,0,0,
171,-129.4,-110.1,-101.8,-102.1,-102.4,-105.8,-63.52,-37.2,-61.08,-72.84,-39.88,-42.79,-42.92,-40.72,-26.79,-30.1,0,0,0,0,0,0,0,0,0,0,0,0,0,0,0,0,
172,-115.1,-128.2,-117.1,-115.9,-115.2,-118.8,-77.77,-51.9,-78.18,-63.96,-62.86,-43.04,-53.96,-30.32,-41.59,-23.7,0,0,0,0,0,0,0,0,0,0,0,0,0,0,0,0,
173,-131.7,-136.7,-126.7,-118.7,-132.0,-122.0,-81.68,-50.92,-99.06,-80.5,-67.48,-50.0,-65.57,-36.62,-49.93,-29.36,0,0,0,0,0,0,0,0,0,0,0,0,0,0,0,0,
174,-138.9,-123.5,-125.2,-108.3,-120.5,-111.9,-77.46,-32.67,-97.71,-85.6,-52.81,-35.94,-59.7,-28.71,-42.62,-21.73,0,0,0,0,0,0,0,0,0,0,0,0,0,0,0,0,
175,-125.2,-106.1,-109.7,-96.67,-108.2,-100.6,-74.58,-31.83,-73.02,-64.57,-56.72,-35.81,-58.83,-30.92,-60.4,-32.21,0,0,0,0,0,0,0,0,0,0,0,0,0,0,0,0,
176,-132.2,-100.6,-109.5,-90.66,-114.5,-95.23,-65.68,-30.73,-65.47,-60.84,-69.24,-47.82,-68.17,-49.1,-78.19,-51.44,0,0,0,0,0,0,0,0,0,0,0,0,0,0,0,0,
177,-119.2,-99.74,-123.0,-82.78,-95.92,-86.32,-47.88,-20.83,-72.04,-67.76,-65.67,-42.02,-60.97,-46.14,-71.87,-57.48,0,0,0,0,0,0,0,0,0,0,0,0,0,0,0,0,
178,-69.07,-74.87,-89.97,-65.0,-59.81,-66.51,-32.07,-14.89,-49.64,-53.9,-58.99,-39.67,-50.13,-41.21,-73.13,-68.72,0,0,0,0,0,0,0,0,0,0,0,0,0,0,0,0,
179,-57.26,-54.54,-46.71,-57.74,-56.1,-58.59,-27.03,-6.672,-20.6,-40.25,-63.15,-56.8,-60.85,-62.8,-87.41,-91.21,0,0,0,0,0,0,0,0,0,0,0,0,0,0,0,0,
180,-75.96,-69.48,-56.39,-66.32,-71.46,-67.64,-25.23,-1.892,-32.53,-42.29,-64.87,-66.62,-72.82,-81.32,-90.58,-100.2,0,0,0,0,0,0,0,0,0,0,0,0,0,0,0,0,
181,-58.85,-78.27,-61.41,-68.28,-71.33,-69.46,-15.81,-4.426,-55.93,-50.64,-46.25,-60.74,-63.08,-77.24,-76.43,-84.65,0,0,0,0,0,0,0,0,0,0,0,0,0,0,0,0,
182,-60.47,-74.69,-59.32,-66.91,-66.57,-68.07,-18.79,-3.338,-51.55,-57.71,-29.89,-56.66,-49.94,-68.54,-65.08,-70.08,0,0,0,0,0,0,0,0,0,0,0,0,0,0,0,0,
183,-95.0,-76.61,-88.77,-70.41,-70.28,-72.38,-36.74,-0.2715,-42.39,-52.54,-35.95,-48.48,-49.14,-61.83,-63.6,-60.75,0,0,0,0,0,0,0,0,0,0,0,0,0,0,0,0,
184,-66.14,-67.53,-88.99,-68.99,-69.0,-70.82,-30.96,0.5782,-49.52,-48.44,-40.02,-28.3,-47.55,-49.57,-59.44,-40.34,0,0,0,0,0,0,0,0,0,0,0,0,0,0,0,0,
185,-34.17,-61.2,-69.83,-61.88,-64.04,-62.9,-14.31,2.453,-55.48,-56.12,-41.89,-18.65,-41.12,-35.05,-59.73,-28.79,0,0,0,0,0,0,0,0,0,0,0,0,0,0,0,0,
186,-70.44,-63.25,-80.69,-56.41,-73.46,-57.7,-21.2,5.87,-50.42,-50.47,-45.13,-21.89,-34.96,-24.51,-56.4,-27.04,0,0,0,0,0,0,0,0,0,0,0,0,0,0,0,0,
187,-74.9,-57.56,-75.91,-59.61,-82.76,-61.24,-24.68,1.685,-50.09,-37.25,-27.27,-18.64,-29.42,-19.44,-35.82,-17.52,0,0,0,0,0,0,0,0,0,0,0,0,0,0,0,0,
188,-51.6,-53.33,-61.13,-62.47,-69.44,-63.61,-13.79,-5.627,-54.37,-36.68,-16.0,-16.75,-31.24,-22.84,-31.19,-20.42,0,0,0,0,0,0,0,0,0,0,0,0,0,0,0,0,
189,-57.85,-39.66,-64.48,-52.35,-56.19,-52.92,-13.65,-0.7544,-45.86,-34.55,-28.14,-24.13,-36.82,-33.74,-44.95,-33.23,0,0,0,0,0,0,0,0,0,0,0,0,0,0,0,0,
190,-43.22,-21.95,-60.03,-44.28,-54.36,-44.91,-13.94,-0.6344,-35.95,-32.92,-20.79,-28.82,-33.43,-41.99,-38.79,-34.76,0,0,0,0,0,0,0,0,0,0,0,0,0,0,0,0,
191,-18.7,-26.1,-63.46,-38.2,-36.46,-39.87,-1.82,1.099,-35.81,-32.94,-0.338,-20.22,-20.69,-34.09,-19.29,-29.82,0,0,0,0,0,0,0,0,0,0,0,0,0,0,0,0,
192,-15.34,-26.06,-66.07,-21.79,-22.33,-24.64,3.574,32.34,-30.53,-17.93,-1.048,-3.465,-8.318,-17.77,-11.48,-21.04,0,0,0,0,0,0,0,0,0,0,0,0,0,0,0,0,
193,-18.12,-16.02,-40.65,-17.22,-44.44,-19.66,-6.441,44.56,-31.02,-10.03,-10.55,-2.835,-9.873,-18.35,-18.35,-19.82,0,0,0,0,0,0,0,0,0,0,0,0,0,0,0,0,
194,-22.6,-7.856,-31.82,-19.86,-52.3,-20.21,-10.7,24.93,-45.02,-15.91,-9.257,-10.93,-14.27,-23.07,-23.91,-24.13,0,0,0,0,0,0,0,0,0,0,0,0,0,0,0,0,
195,7.29,13.5,-33.91,-2.009,-15.59,-1.232,4.5,39.71,-36.74,-1.379,4.666,2.147,-1.416,-9.583,-16.49,-13.03,0,0,0,0,0,0,0,0,0,0,0,0,0,0,0,0,
196,38.88,20.26,-11.91,10.0,2.505,10.14,12.29,61.76,-9.84,16.56,13.64,11.45,5.78,-6.534,-19.68,-12.52,0,0,0,0,0,0,0,0,0,0,0,0,0,0,0,0,
197,4.449,7.241,-15.04,-0.6977,-21.34,-0.4078,-4.439,44.52,-10.96,7.364,9.442,0.0745,-2.065,-19.52,-28.95,-26.84,0,0,0,0,0,0,0,0,0,0,0,0,0,0,0,0,
198,-22.3,14.65,-39.6,-3.764,-31.62,-3.496,-9.797,33.14,-23.06,1.687,18.5,4.415,6.687,-9.806,-5.348,-8.164,0,0,0,0,0,0,0,0,0,0,0,0,0,0,0,0,
199,7.89,22.51,-24.17,5.847,-5.221,4.545,10.42,38.41,-0.4496,21.3,38.31,18.05,24.51,11.76,19.48,19.19,0,0,0,0,0,0,0,0,0,0,0,0,0,0,0,0,
200,27.01,15.02,-8.35,9.677,16.37,8.797,18.34,31.01,26.58,35.59,41.2,14.57,25.34,13.84,4.839,8.322,0,0,0,0,0,0,0,0,0,0,0,0,0,0,0,0,
201,8.802,10.23,-27.76,2.375,1.33,2.769,9.638,23.13,20.13,29.11,40.63,17.74,22.74,12.02,-7.167,-3.473,0,0,0,0,0,0,0,0,0,0,0,0,0,0,0,0,
202,-15.48,-1.155,-30.05,-8.692,-20.82,-8.944,10.87,27.28,11.09,28.11,46.4,29.86,26.16,17.71,0.5222,3.597,0,0,0,0,0,0,0,0,0,0,0,0,0,0,0,0,
203,-21.88,-10.63,-25.43,-15.46,-27.1,-15.01,9.112,23.72,7.694,30.55,38.01,19.99,17.56,9.241,-8.834,-6.079,0,0,0,0,0,0,0,0,0,0,0,0,0,0,0,0,
204,-27.24,-12.64,-48.71,-26.43,-40.38,-25.58,-1.395,5.415,-13.16,5.705,29.44,6.636,0.2596,-10.51,-16.75,-16.75,0,0,0,0,0,0,0,0,0,0,0,0,0,0,0,0,
205,-37.53,-23.24,-53.73,-36.56,-43.46,-37.82,5.932,0.55,-19.06,-14.52,47.19,13.38,2.796,-10.11,2.228,-2.067,0,0,0,0,0,0,0,0,0,0,0,0,0,0,0,0,
206,-21.13,-19.44,-41.4,-27.67,-19.31,-28.11,10.4,3.667,2.816,2.215,59.0,7.021,11.16,-3.981,3.067,1.374,0,0,0,0,0,0,0,0,0,0,0,0,0,0,0,0,
207,-19.01,-8.553,-55.79,-27.64,-24.69,-26.09,-12.72,-17.23,-0.5519,0.8484,37.87,-11.98,-6.675,-23.19,-24.63,-12.68,0,0,0,0,0,0,0,0,0,0,0,0,0,0,0,0,
208,-64.69,-30.5,-69.1,-47.73,-57.5,-47.97,-18.6,-28.25,-27.51,-29.8,28.6,0.0149,-16.02,-33.04,-28.28,-9.237,0,0,0,0,0,0,0,0,0,0,0,0,0,0,0,0,
209,-74.17,-41.66,-58.09,-43.19,-55.33,-44.08,7.362,-5.846,-24.29,-29.74,46.75,20.76,4.497,-15.8,-8.411,-0.2651,0,0,0,0,0,0,0,0,0,0,0,0,0,0,0,0,
210,-28.58,-10.85,-34.99,-25.16,-38.99,-24.72,20.34,12.98,2.998,-9.366,50.15,19.58,10.16,-10.44,0.1088,2.536,0,0,0,0,0,0,0,0,0,0,0,0,0,0,0,0,
211,-4.936,5.595,-18.46,-23.6,-31.34,-24.46,17.37,27.94,14.58,-1.693,47.23,23.81,1.751,-9.508,2.714,14.37,0,0,0,0,0,0,0,0,0,0,0,0,0,0,0,0,
212,-1.497,3.764,-33.21,-10.41,-5.09,-12.14,23.04,41.67,14.64,8.074,62.16,31.73,8.042,3.85,9.603,25.42,0,0,0,0,0,0,0,0,0,0,0,0,0,0,0,0,
213,6.993,8.767,-42.91,-5.063,6.167,-4.812,27.08,33.13,18.32,17.94,65.91,28.99,12.09,6.316,14.13,29.07,0,0,0,0,0,0,0,0,0,0,0,0,0,0,0,0,
214,-15.75,-10.28,-27.8,-35.5,-29.04,-33.83,7.676,23.41,9.608,21.62,47.88,33.33,6.159,3.482,10.55,29.03,0,0,0,0,0,0,0,0,0,0,0,0,0,0,0,0,
215,-51.65,-35.74,-46.54,-44.57,-55.7,-43.18,-24.29,24.79,-11.87,21.82,31.64,35.05,-2.955,1.273,-0.6542,19.69,0,0,0,0,0,0,0,0,0,0,0,0,0,0,0,0,
216,-39.29,-20.58,-70.57,-19.64,-38.22,-19.45,-27.66,24.95,-18.33,15.02,25.65,26.21,-13.91,-9.374,-6.109,15.27,0,0,0,0,0,0,0,0,0,0,0,0,0,0,0,0,
217,-10.73,4.327,-44.04,-9.514,-11.21,-10.06,-7.038,27.69,-10.25,19.71,21.38,23.43,-16.32,-9.155,-4.396,20.29,0,0,0,0,0,0,0,0,0,0,0,0,0,0,0,0,
218,-7.924,5.046,-30.93,-18.04,-9.634,-17.65,-16.87,15.69,-11.7,22.24,6.16,12.61,-20.46,-7.558,-11.84,11.42,0,0,0,0,0,0,0,0,0,0,0,0,0,0,0,0,
219,-7.505,-9.439,-52.76,-31.62,-26.72,-30.99,-38.54,-8.85,-23.23,-7.019,-6.281,-5.263,-31.69,-22.63,-20.5,-5.109,0,0,0,0,0,0,0,0,0,0,0,0,0,0,0,0,
220,-11.79,-21.52,-53.85,-33.62,-37.0,-34.07,-18.16,-6.451,-29.15,-22.24,2.527,-2.416,-31.4,-26.21,-17.85,-10.69,0,0,0,0,0,0,0,0,0,0,0,0,0,0,0,0,
221,-13.69,-13.75,-48.7,-20.12,-41.13,-20.7,0.4194,-0.2749,-34.42,-10.48,5.516,3.062,-36.07,-25.77,-20.05,-16.83,0,0,0,0,0,0,0,0,0,0,0,0,0,0,0,0,
222,4.481,-4.601,-58.83,-22.84,-47.21,-23.52,-15.63,-16.35,-49.63,-16.4,-7.901,-7.613,-54.97,-43.18,-31.32,-28.5,0,0,0,0,0,0,0,0,0,0,0,0,0,0,0,0,
223,-6.298,-13.77,-61.89,-34.99,-51.92,-36.36,-18.22,-13.41,-60.45,-20.36,-15.5,-16.14,-61.89,-53.14,-42.06,-40.15,0,0,0,0,0,0,0,0,0,0,0,0,0,0,0,0,
224,-49.38,-19.26,-69.86,-36.99,-71.1,-38.13,-18.09,-2.796,-71.6,-24.57,-26.59,-20.61,-66.4,-58.6,-53.79,-53.18,0,0,0,0,0,0,0,0,0,0,0,0,0,0,0,0,
225,-55.7,-15.16,-79.49,-43.61,-90.44,-44.34,-31.85,-12.43,-93.55,-56.45,-32.37,-14.65,-68.27,-63.11,-48.18,-45.47,0,0,0,0,0,0,0,0,0,0,0,0,0,0,0,0,
226,-22.9,-10.27,-54.57,-37.67,-65.91,-38.78,-7.442,7.235,-82.78,-50.18,-8.371,12.96,-42.12,-35.55,-21.28,-15.16,0,0,0,0,0,0,0,0,0,0,0,0,0,0,0,0,
227,-6.326,-5.004,-35.21,-16.88,-37.25,-18.56,23.85,40.51,-43.95,0.0917,5.134,20.77,-27.1,-11.28,-16.47,-12.93,0,0,0,0,0,0,0,0,0,0,0,0,0,0,0,0,
228,-23.5,-8.605,-59.82,-20.67,-51.25,-22.26,7.013,20.31,-45.59,0.5734,-11.94,-10.86,-48.22,-31.43,-30.91,-32.05,0,0,0,0,0,0,0,0,0,0,0,0,0,0,0,0,
229,-33.59,-16.18,-65.53,-31.84,-56.48,-32.38,1.241,-5.475,-64.55,-31.86,-14.93,-25.59,-53.69,-45.31,-24.47,-22.65,0,0,0,0,0,0,0,0,0,0,0,0,0,0,0,0,
230,-14.43,-9.113,-34.75,-20.36,-33.41,-20.33,28.72,8.755,-49.32,-30.56,-0.3908,-6.309,-36.63,-29.26,-14.53,-7.051,0,0,0,0,0,0,0,0,0,0,0,0,0,0,0,0,
231,0.6757,11.41,-24.47,-11.25,-23.83,-11.51,40.0,15.29,-29.96,-20.4,0.9968,-1.785,-36.45,-26.19,-26.4,-14.7,0,0,0,0,0,0,0,0,0,0,0,0,0,0,0,0,
232,-6.796,11.48,-37.81,-19.13,-25.43,-19.92,35.17,6.71,-27.48,-20.92,-11.24,-21.53,-46.66,-38.82,-44.05,-28.83,0,0,0,0,0,0,0,0,0,0,0,0,0,0,0,0,
233,-22.41,-14.13,-44.58,-18.94,-16.69,-20.62,30.44,13.86,-29.3,-6.744,-15.98,-26.72,-38.83,-33.01,-40.55,-32.21,0,0,0,0,0,0,0,0,0,0,0,0,0,0,0,0,
234,-11.6,4.17,-30.29,7.34,5.628,6.963,33.8,27.34,-24.32,17.15,1.19,-10.29,-11.19,-10.07,-10.94,-16.26,0,0,0,0,0,0,0,0,0,0,0,0,0,0,0,0,
235,26.37,55.01,-14.72,29.4,25.44,31.78,42.62,25.33,-6.267,24.95,12.85,-8.618,5.737,-3.707,1.948,-10.92,0,0,0,0,0,0,0,0,0,0,0,0,0,0,0,0,
236,20.52,39.48,-31.2,16.24,13.2,17.45,24.03,8.985,-4.178,15.31,-7.959,-25.32,-8.319,-17.49,-14.26,-33.12,0,0,0,0,0,0,0,0,0,0,0,0,0,0,0,0,
237,-22.31,0.6276,-43.83,0.3243,-12.69,-0.7562,-10.4,3.252,-30.26,2.888,-25.99,-23.52,-22.6,-19.2,-8.774,-30.3,0,0,0,0,0,0,0,0,0,0,0,0,0,0,0,0,
238,-27.73,9.515,-34.35,1.561,-13.68,1.641,-19.57,13.28,-43.88,-4.098,-15.83,-10.21,-16.33,-11.82,11.84,-5.476,0,0,0,0,0,0,0,0,0,0,0,0,0,0,0,0,
239,-16.27,2.853,-49.53,-12.07,-6.637,-11.46,-18.69,7.912,-41.35,-9.939,-4.013,-17.98,-16.04,-24.02,7.931,-8.242,0,0,0,0,0,0,0,0,0,0,0,0,0,0,0,0,
240,-13.87,-17.88,-52.38,-30.99,-10.29,-32.35,-18.95,-15.28,-51.87,-27.73,-4.449,-32.17,-30.14,-42.53,-3.345,-15.16,0,0,0,0,0,0,0,0,0,0,0,0,0,0,0,0,
241,3.843,8.452,-11.85,-19.86,-6.022,-22.44,-1.74,-24.16,-62.89,-48.75,-10.4,-29.31,-43.01,-43.62,-12.86,-12.42,0,0,0,0,0,0,0,0,0,0,0,0,0,0,0,0,
242,21.97,36.02,-8.488,1.492,3.075,-0.2827,7.527,-13.01,-61.26,-45.55,-21.0,-20.36,-58.82,-38.7,-29.74,-25.98,0,0,0,0,0,0,0,0,0,0,0,0,0,0,0,0,
243,6.414,28.36,-40.14,5.525,-9.067,4.952,-11.01,-2.273,-67.78,-30.6,-29.77,-20.26,-73.67,-38.29,-36.5,-39.48,0,0,0,0,0,0,0,0,0,0,0,0,0,0,0,0,
244,-19.59,31.55,-27.95,8.505,-22.3,6.813,-9.244,2.228,-74.56,-24.77,-23.3,-24.45,-64.86,-32.09,-27.53,-37.19,0,0,0,0,0,0,0,0,0,0,0,0,0,0,0,0,
245,12.18,56.49,5.308,19.44,2.414,17.15,26.59,1.177,-50.04,-8.55,-5.764,-24.1,-43.32,-21.28,-21.2,-36.05,0,0,0,0,0,0,0,0,0,0,0,0,0,0,0,0,
246,56.95,57.64,16.42,19.04,33.86,20.06,48.85,-11.68,-16.02,9.191,5.576,-20.63,-31.34,-17.16,-21.09,-36.31,0,0,0,0,0,0,0,0,0,0,0,0,0,0,0,0,
247,28.66,29.89,28.23,10.51,36.68,12.92,53.95,-17.3,-5.734,1.794,11.72,-15.82,-17.79,-14.36,-14.71,-30.16,0,0,0,0,0,0,0,0,0,0,0,0,0,0,0,0,
248,19.13,31.91,43.76,17.29,45.56,17.59,57.11,-3.197,3.777,-2.577,15.97,-18.07,-7.156,-11.71,-6.533,-30.11,0,0,0,0,0,0,0,0,0,0,0,0,0,0,0,0,
249,61.5,66.71,40.78,34.1,63.69,34.93,54.03,4.875,22.95,10.27,12.94,-29.77,-11.07,-15.15,-3.194,-31.7,0,0,0,0,0,0,0,0,0,0,0,0,0,0,0,0,
250,51.9,70.34,27.25,39.2,54.76,41.28,58.04,11.74,24.81,12.99,10.41,-22.13,-7.005,-9.413,9.178,-9.201,0,0,0,0,0,0,0,0,0,0,0,0,0,0,0,0,
251,30.3,44.97,10.62,27.08,36.13,27.77,45.85,19.83,11.5,10.75,-2.568,-2.157,-6.657,1.87,12.8,14.11,0,0,0,0,0,0,0,0,0,0,0,0,0,0,0,0,
252,27.87,32.75,-5.648,12.19,32.66,12.29,3.952,-0.023,-1.36,13.52,-36.43,-7.826,-31.22,-3.208,-11.7,7.832,0,0,0,0,0,0,0,0,0,0,0,0,0,0,0,0,
253,8.804,40.56,6.934,22.75,42.66,23.24,2.437,-8.75,-8.499,11.72,-44.88,-7.952,-35.21,-1.129,-17.77,9.047,0,0,0,0,0,0,0,0,0,0,0,0,0,0,0,0,
254,44.8,66.94,35.64,52.71,67.23,53.41,34.47,22.97,4.597,20.41,-14.41,16.43,-9.563,20.02,7.288,28.59,0,0,0,0,0,0,0,0,0,0,0,0,0,0,0,0,
255,94.95,79.75,26.13,52.1,75.59,53.65,23.46,35.11,23.23,37.88,-1.49,14.0,-5.506,22.19,11.92,27.01,0,0,0,0,0,0,0,0,0,0,0,0,0,0,0,0,
256,52.43,58.47,-4.445,25.52,40.77,26.56,-0.2235,15.64,12.66,35.09,-15.63,-8.232,-19.47,5.29,-6.786,10.06,0,0,0,0,0,0,0,0,0,0,0,0,0,0,0,0,
257,10.12,52.82,-9.898,24.95,9.578,24.94,1.767,-0.9966,-6.349,25.99,-21.2,-8.087,-25.57,-2.709,-17.88,1.564,0,0,0,0,0,0,0,0,0,0,0,0,0,0,0,0,
258,31.91,66.94,-11.72,34.92,16.44,35.64,-2.258,-12.44,-7.74,23.78,-17.06,-2.313,-30.02,-6.17,-14.54,1.714,0,0,0,0,0,0,0,0,0,0,0,0,0,0,0,0,
259,44.83,54.92,-25.5,21.03,18.75,21.62,-11.94,-12.2,-19.8,3.569,-16.9,-5.606,-31.5,-10.42,0.4503,6.913,0,0,0,0,0,0,0,0,0,0,0,0,0,0,0,0,
260,31.05,32.59,-28.95,4.603,-4.412,4.132,-19.67,-9.064,-44.14,-21.62,-21.48,-9.451,-30.17,-13.69,14.55,5.614,0,0,0,0,0,0,0,0,0,0,0,0,0,0,0,0,
261,14.98,18.96,-34.31,-3.817,-16.51,-4.258,-39.49,-21.78,-50.41,-26.18,-25.89,-14.68,-33.83,-19.41,17.23,-2.56,0,0,0,0,0,0,0,0,0,0,0,0,0,0,0,0,
262,9.844,15.05,-52.0,-3.412,-5.09,-4.279,-53.37,-28.48,-47.22,-25.74,-20.34,-13.84,-31.13,-18.66,17.94,-2.241,0,0,0,0,0,0,0,0,0,0,0,0,0,0,0,0,
263,30.34,43.77,-43.47,17.44,14.12,17.3,-43.79,-18.75,-39.4,-18.48,-5.927,-7.311,-17.63,-11.05,21.67,1.096,0,0,0,0,0,0,0,0,0,0,0,0,0,0,0,0,
264,66.63,71.15,-5.61,33.05,36.18,35.54,-29.15,-12.47,-16.22,2.502,-2.438,-10.09,-8.977,-10.69,17.19,-7.207,0,0,0,0,0,0,0,0,0,0,0,0,0,0,0,0,
265,82.82,55.58,8.018,30.66,46.17,33.43,-26.0,-5.657,0.9682,9.508,-13.6,-13.04,-8.345,-10.56,6.128,-14.83,0,0,0,0,0,0,0,0,0,0,0,0,0,0,0,0,
266,60.61,49.8,-6.776,36.86,36.22,38.87,-23.91,14.66,4.661,5.109,-12.26,-4.522,-4.849,1.049,10.35,-0.2469,0,0,0,0,0,0,0,0,0,0,0,0,0,0,0,0,
267,44.69,80.58,-4.48,49.37,32.8,51.78,-9.922,31.58,11.91,16.44,6.479,-1.807,1.216,9.575,26.51,17.45,0,0,0,0,0,0,0,0,0,0,0,0,0,0,0,0,
268,67.9,95.15,9.102,51.99,34.78,52.95,-6.986,25.35,10.59,26.57,5.701,-12.86,-3.201,-0.9895,23.71,4.198,0,0,0,0,0,0,0,0,0,0,0,0,0,0,0,0,
269,69.11,76.1,-0.1096,42.06,13.36,41.89,-31.77,5.341,-8.55,13.56,-20.82,-24.74,-17.76,-20.06,5.923,-18.45,0,0,0,0,0,0,0,0,0,0,0,0,0,0,0,0,
270,36.66,58.53,-8.3,34.9,-1.056,36.55,-36.77,-4.208,-16.14,0.8181,-28.72,-26.77,-17.58,-20.05,6.647,-10.57,0,0,0,0,0,0,0,0,0,0,0,0,0,0,0,0,
271,51.5,69.96,7.808,55.52,21.1,58.18,-7.486,13.06,5.138,12.73,-14.04,-15.17,-2.296,0.515,18.98,8.698,0,0,0,0,0,0,0,0,0,0,0,0,0,0,0,0,
272,78.95,89.9,3.604,69.34,26.6,71.83,-7.742,33.98,20.62,29.11,-20.57,-8.574,-8.081,6.645,8.891,1.484,0,0,0,0,0,0,0,0,0,0,0,0,0,0,0,0,
273,53.03,74.61,-25.61,41.02,5.462,43.44,-31.68,21.44,6.97,23.59,-36.4,-18.89,-22.77,-2.466,-3.914,-11.48,0,0,0,0,0,0,0,0,0,0,0,0,0,0,0,0,
274,56.0,45.67,-22.31,23.17,15.18,23.88,-23.78,4.753,4.436,12.78,-20.44,-17.47,-5.081,8.589,17.66,2.78,0,0,0,0,0,0,0,0,0,0,0,0,0,0,0,0,
275,82.64,53.94,-6.322,39.3,30.89,38.96,-11.15,13.37,23.57,16.95,2.339,-3.066,16.07,26.85,41.26,19.64,0,0,0,0,0,0,0,0,0,0,0,0,0,0,0,0,
276,39.21,71.32,-19.65,46.6,14.11,47.44,-13.47,10.37,19.31,22.32,4.764,-6.203,11.18,23.38,37.7,18.02,0,0,0,0,0,0,0,0,0,0,0,0,0,0,0,0,
277,9.588,58.5,-31.05,36.84,3.918,37.06,-10.86,-3.62,-1.581,16.69,3.545,-16.34,6.354,12.5,31.65,12.99,0,0,0,0,0,0,0,0,0,0,0,0,0,0,0,0,
278,37.9,50.86,-35.71,26.48,6.26,25.33,-17.62,0.2016,-9.324,5.646,-2.057,-13.18,4.11,7.671,30.74,10.67,0,0,0,0,0,0,0,0,0,0,0,0,0,0,0,0,
279,41.45,67.01,-33.98,25.66,12.73,25.93,-13.94,9.101,-7.782,4.039,-8.295,-2.108,4.476,11.83,36.68,19.95,0,0,0,0,0,0,0,0,0,0,0,0,0,0,0,0,
280,54.54,71.26,-1.385,34.07,38.77,35.32,8.519,19.76,6.801,19.43,-5.396,2.817,16.44,19.27,44.25,29.86,0,0,0,0,0,0,0,0,0,0,0,0,0,0,0,0,
281,72.51,59.17,6.209,31.76,43.5,31.83,-8.269,25.16,13.74,21.7,-17.33,-3.488,5.75,9.316,27.41,18.86,0,0,0,0,0,0,0,0,0,0,0,0,0,0,0,0,
282,32.26,50.35,-26.08,27.15,22.03,26.5,-28.61,18.56,-8.169,0.7187,-30.03,7.953,-17.57,2.791,18.84,24.79,0,0,0,0,0,0,0,0,0,0,0,0,0,0,0,0,
283,25.67,56.97,-10.67,46.55,35.57,46.06,8.458,32.96,-6.971,7.537,-14.19,34.53,-4.935,19.95,37.17,44.33,0,0,0,0,0,0,0,0,0,0,0,0,0,0,0,0,
284,71.35,84.45,22.97,61.87,53.19,62.6,31.63,52.26,22.44,38.7,-11.08,24.87,7.78,19.8,25.14,21.99,0,0,0,0,0,0,0,0,0,0,0,0,0,0,0,0,
285,62.36,89.3,1.266,44.12,28.14,46.11,12.14,36.32,13.53,35.6,-24.48,6.616,-2.353,7.127,8.596,8.613,0,0,0,0,0,0,0,0,0,0,0,0,0,0,0,0,
286,33.21,55.21,-14.58,32.77,12.71,33.98,15.9,25.42,-6.926,20.21,-4.553,29.6,10.6,28.68,45.11,47.46,0,0,0,0,0,0,0,0,0,0,0,0,0,0,0,0,
287,44.6,48.64,6.196,48.18,28.24,49.38,31.56,40.16,12.02,31.8,15.35,44.78,26.9,52.84,68.04,60.86,0,0,0,0,0,0,0,0,0,0,0,0,0,0,0,0,
288,50.24,70.75,15.22,51.37,38.27,54.37,19.84,38.32,22.46,39.71,-1.769,26.67,11.89,44.33,39.14,31.45,0,0,0,0,0,0,0,0,0,0,0,0,0,0,0,0,
289,46.11,78.19,22.8,47.29,46.19,50.07,12.32,29.0,9.965,35.35,-6.044,18.69,7.86,35.25,28.8,23.0,0,0,0,0,0,0,0,0,0,0,0,0,0,0,0,0,
290,73.72,93.75,36.97,64.18,59.03,65.42,29.49,40.92,21.52,36.77,11.79,19.49,25.23,35.97,45.58,30.13,0,0,0,0,0,0,0,0,0,0,0,0,0,0,0,0,
291,95.72,102.1,28.37,70.27,52.35,71.36,41.07,45.68,36.24,30.57,8.621,11.68,26.47,30.19,38.39,18.96,0,0,0,0,0,0,0,0,0,0,0,0,0,0,0,0,
292,64.9,74.86,15.85,50.71,30.04,52.55,30.51,31.84,19.62,17.06,-2.272,10.44,17.82,26.09,26.83,13.96,0,0,0,0,0,0,0,0,0,0,0,0,0,0,0,0,
293,35.46,57.76,14.91,32.16,18.06,34.11,13.72,26.59,-1.491,7.479,-1.782,13.13,11.39,25.4,35.76,26.49,0,0,0,0,0,0,0,0,0,0,0,0,0,0,0,0,
294,43.44,61.06,7.664,22.27,17.76,22.86,7.721,26.07,-10.97,-3.309,-14.09,12.37,-4.518,19.05,30.22,22.75,0,0,0,0,0,0,0,0,0,0,0,0,0,0,0,0,
295,54.19,65.53,16.49,33.81,30.13,34.11,15.64,23.63,-11.05,-2.432,-29.66,16.07,-13.72,12.08,17.1,11.59,0,0,0,0,0,0,0,0,0,0,0,0,0,0,0,0,
296,75.4,77.63,48.12,57.88,51.09,60.37,19.56,29.93,0.8903,11.05,-24.39,10.85,-7.668,2.813,22.52,16.04,0,0,0,0,0,0,0,0,0,0,0,0,0,0,0,0,
297,89.98,83.11,50.57,56.59,45.23,59.66,5.122,31.09,-0.3887,7.001,-20.32,-3.617,-12.48,-7.948,15.27,15.72,0,0,0,0,0,0,0,0,0,0,0,0,0,0,0,0,
298,63.45,90.51,31.02,52.61,17.67,54.44,0.4317,26.33,-18.67,-3.478,-18.45,1.676,-16.15,0.296,4.976,19.96,0,0,0,0,0,0,0,0,0,0,0,0,0,0,0,0,
299,63.34,108.7,49.2,70.54,18.02,72.5,24.17,32.08,-11.88,10.93,2.509,13.03,3.418,19.58,23.96,37.6,0,0,0,0,0,0,0,0,0,0,0,0,0,0,0,0,
300,99.71,99.46,77.47,71.0,31.18,72.56,35.84,33.31,9.907,22.56,11.32,3.925,10.36,17.39,28.66,27.45,0,0,0,0,0,0,0,0,0,0,0,0,0,0,0,0,
301,90.22,76.43,53.86,49.32,13.51,48.83,15.21,22.78,0.9855,3.449,-10.74,-6.753,-10.05,0.2887,3.947,-2.145,0,0,0,0,0,0,0,0,0,0,0,0,0,0,0,0,
302,62.44,69.17,22.95,39.62,-4.954,38.7,3.94,15.86,-19.88,-12.71,-29.34,-10.33,-22.15,-6.801,-10.52,-12.68,0,0,0,0,0,0,0,0,0,0,0,0,0,0,0,0,
303,86.06,64.1,46.62,46.17,14.7,46.81,18.7,15.31,-15.8,-1.935,-33.31,-10.95,-20.0,-4.778,-15.71,-16.35,0,0,0,0,0,0,0,0,0,0,0,0,0,0,0,0,
304,120.8,81.64,71.71,61.41,37.28,62.79,25.05,19.99,3.198,15.88,-30.89,0.8585,-16.68,-3.066,-17.42,-19.81,0,0,0,0,0,0,0,0,0,0,0,0,0,0,0,0,
305,102.8,111.8,47.85,69.82,24.13,70.92,14.82,26.08,15.49,24.46,-29.01,5.965,-15.62,-10.44,-14.34,-15.81,0,0,0,0,0,0,0,0,0,0,0,0,0,0,0,0,
306,79.09,97.44,25.69,55.38,2.473,57.15,6.476,20.34,7.549,11.36,-41.29,-12.73,-25.15,-29.7,-24.07,-18.55,0,0,0,0,0,0,0,0,0,0,0,0,0,0,0,0,
307,110.2,65.0,29.61,37.79,-3.728,39.98,-8.423,-2.482,-18.21,-22.04,-50.59,-26.69,-35.7,-42.69,-33.42,-23.49,0,0,0,0,0,0,0,0,0,0,0,0,0,0,0,0,
308,113.1,56.28,23.74,35.08,-12.86,35.2,-24.45,-18.49,-35.66,-35.02,-43.17,-20.6,-36.16,-38.1,-22.93,-8.301,0,0,0,0,0,0,0,0,0,0,0,0,0,0,0,0,
309,53.51,60.43,17.57,35.72,-16.66,33.92,-12.48,-3.798,-36.26,-16.99,-41.05,-13.82,-39.97,-31.13,-11.2,14.75,0,0,0,0,0,0,0,0,0,0,0,0,0,0,0,0,
310,54.02,83.28,35.77,36.4,-0.3428,35.62,4.91,5.899,-33.58,-10.58,-42.3,-14.93,-46.02,-31.32,-11.88,18.55,0,0,0,0,0,0,0,0,0,0,0,0,0,0,0,0,
311,100.5,89.56,45.46,31.46,0.5443,32.0,-9.333,-19.57,-32.72,-23.26,-41.63,-16.96,-45.78,-31.68,-21.63,10.79,0,0,0,0,0,0,0,0,0,0,0,0,0,0,0,0,
312,80.15,41.78,27.63,18.61,-16.97,18.29,-25.36,-33.58,-32.73,-24.87,-46.41,-20.25,-41.41,-27.21,-28.5,8.132,0,0,0,0,0,0,0,0,0,0,0,0,0,0,0,0,
313,53.99,29.83,27.1,30.93,-5.976,30.32,-11.31,-15.65,-19.29,-9.376,-41.4,-26.88,-28.98,-21.55,-22.25,4.739,0,0,0,0,0,0,0,0,0,0,0,0,0,0,0,0,
314,84.34,84.48,46.12,57.45,11.75,58.51,-3.26,-11.02,2.661,3.474,-39.83,-34.64,-23.02,-27.6,-21.15,-2.347,0,0,0,0,0,0,0,0,0,0,0,0,0,0,0,0,
315,98.15,97.69,40.14,53.4,1.507,54.76,-15.12,-21.21,-1.315,0.9684,-43.54,-35.91,-21.99,-32.78,-16.65,4.974,0,0,0,0,0,0,0,0,0,0,0,0,0,0,0,0,
316,100.5,85.94,50.3,59.1,22.3,59.42,12.3,-0.4386,3.045,9.962,-4.141,-10.15,14.87,1.826,22.62,40.07,0,0,0,0,0,0,0,0,0,0,0,0,0,0,0,0,
317,136.9,113.0,97.48,86.69,74.11,87.55,59.0,36.09,53.02,43.57,28.61,23.72,48.54,40.84,39.21,61.51,0,0,0,0,0,0,0,0,0,0,0,0,0,0,0,0,
318,139.9,101.1,92.54,66.82,67.53,68.29,37.5,30.41,71.22,48.58,-7.289,14.34,19.84,22.61,0.1676,36.56,0,0,0,0,0,0,0,0,0,0,0,0,0,0,0,0,
319,114.1,64.07,58.1,36.7,38.14,38.21,9.985,2.763,41.31,20.24,-11.87,-3.103,5.732,6.769,3.378,31.07,0,0,0,0,0,0,0,0,0,0,0,0,0,0,0,0,
320,134.6,91.7,77.07,55.33,52.92,57.65,48.81,1.936,48.76,21.3,42.83,16.71,44.74,37.77,48.57,60.13,0,0,0,0,0,0,0,0,0,0,0,0,0,0,0,0,
321,136.1,107.7,84.49,63.58,56.2,65.86,55.68,7.437,69.6,37.18,42.69,17.59,49.44,43.41,37.86,46.12,0,0,0,0,0,0,0,0,0,0,0,0,0,0,0,0,
322,107.1,81.45,62.77,53.19,51.87,55.68,20.03,9.427,52.03,33.33,10.76,-4.827,28.16,24.96,15.56,15.95,0,0,0,0,0,0,0,0,0,0,0,0,0,0,0,0,
323,138.6,99.15,85.51,64.42,83.09,68.97,37.99,20.44,45.22,43.94,23.09,2.349,35.54,29.96,28.17,17.13,0,0,0,0,0,0,0,0,0,0,0,0,0,0,0,0,
324,154.7,109.9,101.5,59.75,79.84,64.49,57.45,14.95,52.97,54.91,28.78,3.213,25.5,13.62,15.42,1.731,0,0,0,0,0,0,0,0,0,0,0,0,0,0,0,0,
325,99.48,63.09,62.18,30.7,28.45,33.03,25.3,-11.4,30.44,22.5,12.25,-24.79,-9.419,-32.58,-10.25,-26.61,0,0,0,0,0,0,0,0,0,0,0,0,0,0,0,0,
326,81.68,46.92,45.13,25.37,13.31,25.9,16.94,-29.5,6.288,-12.18,14.67,-33.24,-21.65,-53.17,-15.83,-33.5,0,0,0,0,0,0,0,0,0,0,0,0,0,0,0,0,
327,115.0,79.82,77.57,43.49,41.13,44.12,42.28,-23.9,17.13,-12.5,14.4,-18.31,-19.5,-44.89,-27.56,-29.74,0,0,0,0,0,0,0,0,0,0,0,0,0,0,0,0,
328,133.2,94.49,92.93,48.48,58.33,50.42,38.64,-11.37,32.07,-8.956,-0.3247,-12.16,-15.44,-31.31,-33.48,-18.64,0,0,0,0,0,0,0,0,0,0,0,0,0,0,0,0,
329,103.5,70.81,62.65,27.65,38.37,28.79,5.861,-25.8,14.42,-17.62,-6.253,-16.78,-7.889,-26.4,-25.63,-14.68,0,0,0,0,0,0,0,0,0,0,0,0,0,0,0,0,
330,35.39,44.68,30.52,8.475,4.889,7.319,-19.34,-43.53,-11.94,-23.25,-4.697,-8.07,-5.204,-24.26,-23.5,-16.32,0,0,0,0,0,0,0,0,0,0,0,0,0,0,0,0,
331,14.7,46.47,22.33,8.867,-4.777,9.008,-23.87,-28.98,-9.266,-14.23,5.725,17.89,3.331,-2.179,-12.61,5.146,0,0,0,0,0,0,0,0,0,0,0,0,0,0,0,0,
332,49.26,40.89,19.46,7.777,-1.278,9.846,-8.002,-11.52,3.16,3.386,26.28,33.51,22.59,27.79,9.529,30.57,0,0,0,0,0,0,0,0,0,0,0,0,0,0,0,0,
333,56.9,20.25,26.67,7.211,10.34,7.373,19.05,-5.051,10.01,16.82,38.31,35.94,41.79,49.19,26.36,39.77,0,0,0,0,0,0,0,0,0,0,0,0,0,0,0,0,
334,54.05,42.18,45.27,23.59,39.98,22.91,29.44,-6.814,33.1,33.34,38.89,34.78,56.25,64.51,32.93,40.75,0,0,0,0,0,0,0,0,0,0,0,0,0,0,0,0,
335,71.82,78.62,51.16,41.38,56.06,42.72,26.93,-19.64,54.64,51.95,42.13,28.03,60.68,61.92,29.3,41.01,0,0,0,0,0,0,0,0,0,0,0,0,0,0,0,0,
336,83.4,77.93,56.91,49.57,56.06,51.22,48.65,-12.81,57.83,54.05,51.22,32.54,60.84,54.1,34.44,56.62,0,0,0,0,0,0,0,0,0,0,0,0,0,0,0,0,
337,92.01,78.14,70.63,48.19,67.15,49.0,71.94,7.142,70.05,52.84,56.73,44.22,61.3,63.38,48.77,67.95,0,0,0,0,0,0,0,0,0,0,0,0,0,0,0,0,
338,100.4,87.65,67.36,41.46,69.45,42.43,59.48,13.94,76.22,61.33,55.9,47.41,56.02,72.04,49.35,60.2,0,0,0,0,0,0,0,0,0,0,0,0,0,0,0,0,
339,90.11,84.89,57.14,46.68,54.95,47.59,46.26,24.35,57.89,62.27,56.45,54.94,52.35,66.73,44.42,64.92,0,0,0,0,0,0,0,0,0,0,0,0,0,0,0,0,
340,68.0,83.33,54.88,52.23,44.19,53.7,43.43,18.75,48.52,50.37,47.11,39.25,41.76,39.62,31.61,51.74,0,0,0,0,0,0,0,0,0,0,0,0,0,0,0,0,
341,54.04,70.79,37.08,36.9,29.29,39.46,12.61,-20.4,37.37,23.0,14.18,-15.7,11.88,-10.86,-5.138,-8.134,0,0,0,0,0,0,0,0,0,0,0,0,0,0,0,0,
342,45.23,46.22,5.35,25.61,14.23,26.58,-21.04,-44.95,11.74,-6.745,-15.33,-41.63,-6.273,-39.45,-36.34,-41.4,0,0,0,0,0,0,0,0,0,0,0,0,0,0,0,0,
343,47.22,46.66,1.708,37.06,27.55,36.74,-12.86,-34.95,18.74,-0.2812,-15.83,-26.8,-0.6293,-29.22,-40.16,-26.06,0,0,0,0,0,0,0,0,0,0,0,0,0,0,0,0,
344,72.82,64.06,30.91,49.69,52.52,51.84,4.432,-20.31,35.94,19.21,-5.366,-26.22,1.833,-21.96,-34.05,-18.85,0,0,0,0,0,0,0,0,0,0,0,0,0,0,0,0,
345,84.35,75.92,54.92,55.19,54.16,57.67,2.958,-17.41,19.05,12.83,-1.605,-21.28,4.719,-16.62,-23.76,-14.02,0,0,0,0,0,0,0,0,0,0,0,0,0,0,0,0,
346,82.07,94.09,65.53,62.19,48.93,62.25,7.646,-12.08,17.86,16.34,2.845,10.8,18.31,11.44,-12.61,8.168,0,0,0,0,0,0,0,0,0,0,0,0,0,0,0,0,
347,96.14,101.1,66.73,59.02,49.06,59.94,10.21,-0.7666,35.3,34.04,8.171,23.16,23.98,34.42,-13.25,14.93,0,0,0,0,0,0,0,0,0,0,0,0,0,0,0,0,
348,71.92,67.87,49.75,38.13,35.77,39.58,0.008,-3.263,24.85,31.64,6.907,13.63,21.62,36.51,-12.65,12.82,0,0,0,0,0,0,0,0,0,0,0,0,0,0,0,0,
349,46.03,43.62,48.41,30.69,32.41,29.94,14.39,-1.45,26.4,40.26,12.95,26.31,30.74,46.93,8.899,36.42,0,0,0,0,0,0,0,0,0,0,0,0,0,0,0,0,
350,97.63,76.9,83.34,52.58,57.71,53.27,43.13,18.32,58.92,69.01,36.82,39.83,44.52,58.35,32.93,51.55,0,0,0,0,0,0,0,0,0,0,0,0,0,0,0,0,
351,111.5,101.6,93.9,60.04,66.49,63.47,37.1,14.2,67.96,62.5,49.82,23.23,42.72,42.77,32.11,31.56,0,0,0,0,0,0,0,0,0,0,0,0,0,0,0,0,
352,59.08,68.4,55.96,33.71,43.44,35.52,7.989,-8.823,49.27,28.07,37.54,12.84,33.57,29.12,18.51,22.23,0,0,0,0,0,0,0,0,0,0,0,0,0,0,0,0,
353,60.69,43.75,35.33,19.33,30.72,19.73,-0.5898,-7.888,41.02,22.1,36.67,21.5,37.41,38.84,14.7,29.82,0,0,0,0,0,0,0,0,0,0,0,0,0,0,0,0,
354,81.33,56.72,61.09,32.39,45.46,33.81,16.6,0.9308,51.31,39.3,49.99,11.32,36.71,31.46,5.965,11.6,0,0,0,0,0,0,0,0,0,0,0,0,0,0,0,0,
355,76.13,67.65,76.92,45.99,55.83,47.3,11.86,-2.923,50.77,43.31,31.48,-7.985,7.183,2.43,-22.68,-15.65,0,0,0,0,0,0,0,0,0,0,0,0,0,0,0,0,
356,77.73,71.46,47.81,55.1,35.01,56.18,-29.27,0.1014,20.02,38.52,-2.185,-1.516,-19.77,-5.383,-39.93,-12.87,0,0,0,0,0,0,0,0,0,0,0,0,0,0,0,0,
357,67.45,71.88,24.49,55.68,11.84,57.5,-33.81,7.553,-3.608,32.64,0.5323,2.702,-16.7,-2.412,-30.19,-4.005,0,0,0,0,0,0,0,0,0,0,0,0,0,0,0,0,
358,67.56,71.43,49.84,45.41,17.62,46.97,8.289,-7.753,4.188,13.06,15.97,-21.37,-9.98,-13.93,-25.64,-13.99,0,0,0,0,0,0,0,0,0,0,0,0,0,0,0,0,
359,90.21,77.92,80.83,45.8,27.16,46.97,16.86,-28.62,16.05,-0.7173,10.26,-36.1,-7.999,-18.0,-29.17,-17.96,0,0,0,0,0,0,0,0,0,0,0,0,0,0,0,0,
360,75.82,67.65,69.2,49.0,14.38,50.44,-10.72,-24.28,21.85,6.47,2.895,-29.47,-1.962,-13.15,-20.87,-12.93,0,0,0,0,0,0,0,0,0,0,0,0,0,0,0,0,
361,43.87,49.29,39.73,36.48,-8.124,37.56,-24.54,-19.53,21.79,5.07,2.225,-25.47,-3.567,-12.14,-9.012,-11.39,0,0,0,0,0,0,0,0,0,0,0,0,0,0,0,0,
362,48.5,56.07,35.55,29.04,-15.09,30.63,-20.02,-24.33,11.77,2.833,1.327,-17.51,-3.664,-0.0775,-0.5472,2.69,0,0,0,0,0,0,0,0,0,0,0,0,0,0,0,0,
363,64.2,55.21,49.3,27.32,-5.97,30.34,-13.54,-16.28,3.89,17.0,4.86,-10.46,4.432,7.814,3.303,15.41,0,0,0,0,0,0,0,0,0,0,0,0,0,0,0,0,
364,47.8,29.85,51.78,13.28,-7.556,14.72,-18.9,-13.94,-2.01,7.739,13.86,-12.12,7.612,-0.7475,6.697,14.47,0,0,0,0,0,0,0,0,0,0,0,0,0,0,0,0,
365,24.82,22.77,44.44,5.927,-12.44,4.279,-27.33,-25.19,-3.129,-19.06,24.73,-0.6289,15.18,3.243,17.36,22.73,0,0,0,0,0,0,0,0,0,0,0,0,0,0,0,0,
366,50.62,41.0,46.63,15.87,4.494,14.88,-20.66,-30.61,13.09,-15.86,25.63,4.28,19.94,6.228,12.07,16.79,0,0,0,0,0,0,0,0,0,0,0,0,0,0,0,0,
367,82.19,53.19,56.58,21.27,17.15,22.99,-9.769,-40.91,23.88,-3.565,11.81,-18.17,4.741,-12.21,-11.01,-9.536,0,0,0,0,0,0,0,0,0,0,0,0,0,0,0,0,
368,57.97,31.73,50.49,6.813,1.121,8.627,-6.135,-56.35,10.3,-12.45,1.194,-36.84,-8.162,-24.33,-18.12,-12.92,0,0,0,0,0,0,0,0,0,0,0,0,0,0,0,0,
369,32.65,-1.865,30.37,-14.42,-19.6,-14.8,0.3439,-57.54,-8.405,-26.67,7.034,-43.71,-6.385,-24.57,-9.425,-6.813,0,0,0,0,0,0,0,0,0,0,0,0,0,0,0,0,
370,40.38,15.49,34.68,-10.84,-15.82,-12.64,18.28,-49.4,-13.69,-29.41,25.02,-41.68,1.825,-19.32,3.827,-5.769,0,0,0,0,0,0,0,0,0,0,0,0,0,0,0,0,
371,46.78,49.98,62.89,7.474,11.91,6.41,33.64,-45.88,-2.748,-17.55,30.57,-33.08,7.881,-7.132,8.835,2.809,0,0,0,0,0,0,0,0,0,0,0,0,0,0,0,0,
372,60.32,29.32,75.37,5.239,31.85,5.323,31.74,-44.05,12.19,-5.276,17.08,-40.58,6.126,-0.7719,-1.111,2.531,0,0,0,0,0,0,0,0,0,0,0,0,0,0,0,0,
373,75.53,21.3,72.01,7.831,32.92,7.855,36.2,-32.86,24.22,-0.7306,25.23,-43.41,20.64,9.527,8.364,8.968,0,0,0,0,0,0,0,0,0,0,0,0,0,0,0,0,
374,65.16,69.74,74.29,34.5,42.83,35.23,58.05,-21.42,44.36,12.68,48.81,-23.0,47.57,27.45,28.62,34.45,0,0,0,0,0,0,0,0,0,0,0,0,0,0,0,0,
375,62.48,82.05,82.41,44.27,63.89,47.12,67.49,-16.5,64.98,35.6,46.01,-12.17,51.12,32.33,27.61,42.28,0,0,0,0,0,0,0,0,0,0,0,0,0,0,0,0,
376,75.65,56.32,83.5,37.76,73.58,41.04,62.39,-3.656,71.61,53.13,43.9,-9.48,53.14,34.4,36.04,35.73,0,0,0,0,0,0,0,0,0,0,0,0,0,0,0,0,
377,70.56,62.97,66.49,42.2,70.4,44.01,57.52,8.577,70.03,58.39,53.6,-1.776,64.37,38.46,45.91,34.82,0,0,0,0,0,0,0,0,0,0,0,0,0,0,0,0,
378,74.8,62.6,52.03,37.69,63.36,38.73,47.99,8.022,59.21,49.25,44.25,-3.309,53.11,32.39,29.29,32.43,0,0,0,0,0,0,0,0,0,0,0,0,0,0,0,0,
379,89.73,36.98,57.61,23.21,55.52,24.21,36.57,-0.4716,41.53,36.42,37.09,-7.055,38.67,29.8,26.7,29.89,0,0,0,0,0,0,0,0,0,0,0,0,0,0,0,0,
380,55.43,42.7,50.85,20.66,44.77,21.82,26.92,-18.15,32.23,26.01,38.63,-6.436,37.75,32.27,37.22,24.53,0,0,0,0,0,0,0,0,0,0,0,0,0,0,0,0,
381,20.42,49.62,27.19,13.19,34.89,14.54,17.11,-25.77,28.77,15.89,24.1,-4.977,28.32,29.97,30.48,18.2,0,0,0,0,0,0,0,0,0,0,0,0,0,0,0,0,
382,52.8,19.47,22.44,-1.397,36.38,-1.018,10.9,-18.9,24.7,16.68,15.13,4.095,17.49,28.85,29.6,22.54,0,0,0,0,0,0,0,0,0,0,0,0,0,0,0,0,
383,80.99,13.41,29.65,4.479,43.13,4.127,4.753,-23.57,19.01,20.02,18.13,12.11,14.25,27.52,29.59,26.71,0,0,0,0,0,0,0,0,0,0,0,0,0,0,0,0,
384,62.28,41.74,28.95,15.38,40.53,16.67,-1.283,-25.73,5.032,8.315,8.421,10.85,11.42,27.15,13.04,21.77,0,0,0,0,0,0,0,0,0,0,0,0,0,0,0,0,
385,44.26,40.1,29.3,6.815,33.05,9.691,5.88,-16.85,-4.279,2.075,0.4569,10.67,13.7,29.01,10.03,18.24,0,0,0,0,0,0,0,0,0,0,0,0,0,0,0,0,
386,39.89,14.97,36.27,3.779,35.16,6.325,26.01,-15.28,6.285,13.12,12.57,8.685,19.75,22.24,17.16,17.61,0,0,0,0,0,0,0,0,0,0,0,0,0,0,0,0,
387,48.02,12.65,48.32,17.11,46.39,19.37,38.9,-10.25,20.55,16.19,26.92,-3.061,29.55,16.21,7.233,10.83,0,0,0,0,0,0,0,0,0,0,0,0,0,0,0,0,
388,59.35,28.45,57.74,19.75,52.4,22.35,40.56,-4.617,28.34,6.554,28.56,-9.1,49.79,25.81,8.186,7.83,0,0,0,0,0,0,0,0,0,0,0,0,0,0,0,0,
389,61.9,45.98,61.22,20.1,55.87,22.43,54.31,-4.264,38.92,9.627,28.58,1.488,66.94,40.75,33.96,23.06,0,0,0,0,0,0,0,0,0,0,0,0,0,0,0,0,
390,88.32,59.4,75.7,38.74,72.24,40.62,74.87,8.714,52.21,34.57,32.48,8.969,65.18,46.18,38.12,25.8,0,0,0,0,0,0,0,0,0,0,0,0,0,0,0,0,
391,113.5,52.69,92.22,46.04,87.64,48.4,68.41,13.26,60.68,54.61,22.96,-0.9168,49.93,32.45,7.194,-9.156,0,0,0,0,0,0,0,0,0,0,0,0,0,0,0,0,
392,85.31,38.64,84.3,32.75,83.02,35.27,49.05,-6.075,58.58,42.39,8.121,-15.55,39.07,7.404,-13.14,-33.55,0,0,0,0,0,0,0,0,0,0,0,0,0,0,0,0,
393,73.81,53.06,70.58,34.07,76.58,35.44,49.56,-16.09,53.67,17.23,18.45,-16.64,48.02,4.523,4.592,-9.312,0,0,0,0,0,0,0,0,0,0,0,0,0,0,0,0,
394,110.0,73.98,67.25,40.47,80.55,41.8,50.89,-11.44,57.76,16.13,34.46,-0.8832,62.9,25.66,29.38,18.23,0,0,0,0,0,0,0,0,0,0,0,0,0,0,0,0,
395,102.2,60.07,59.01,29.56,78.06,31.6,39.19,-9.748,55.14,29.96,20.57,5.386,53.57,29.1,19.1,6.253,0,0,0,0,0,0,0,0,0,0,0,0,0,0,0,0,
396,65.42,37.63,57.5,22.98,68.35,23.17,39.06,-7.485,37.71,27.05,1.977,-7.955,33.45,14.46,2.769,-7.089,0,0,0,0,0,0,0,0,0,0,0,0,0,0,0,0,
397,80.21,38.83,69.55,25.66,64.38,23.97,48.12,-4.044,33.76,19.47,11.74,-9.24,37.08,15.81,23.86,11.34,0,0,0,0,0,0,0,0,0,0,0,0,0,0,0,0,
398,98.07,43.19,64.45,22.78,58.12,21.96,42.92,-3.075,43.68,30.13,25.46,-4.12,46.62,17.83,33.59,17.24,0,0,0,0,0,0,0,0,0,0,0,0,0,0,0,0,
399,71.16,29.37,38.92,11.07,38.17,10.95,26.35,-0.17,30.34,28.86,17.92,-17.52,32.62,0.5,3.317,-3.109,0,0,0,0,0,0,0,0,0,0,0,0,0,0,0,0,
400,45.4,8.694,29.3,-3.534,23.11,-3.759,21.22,5.628,1.953,4.592,19.66,-16.83,25.3,0.2483,0.0738,2.205,0,0,0,0,0,0,0,0,0,0,0,0,0,0,0,0,
401,48.65,8.881,53.45,5.955,37.32,6.477,45.34,14.1,11.27,9.662,50.47,9.616,49.61,28.31,32.54,30.47,0,0,0,0,0,0,0,0,0,0,0,0,0,0,0,0,
402,61.45,23.96,63.28,22.81,47.49,24.38,57.89,15.24,43.58,32.09,58.87,11.11,56.5,34.39,34.82,28.68,0,0,0,0,0,0,0,0,0,0,0,0,0,0,0,0,
403,45.24,15.54,17.41,3.541,18.82,5.788,12.52,-1.224,30.39,16.89,22.93,-15.87,21.8,12.89,10.41,2.283,0,0,0,0,0,0,0,0,0,0,0,0,0,0,0,0,
404,18.34,2.109,-5.052,0.0225,14.7,1.71,-12.27,-4.573,2.511,12.05,12.35,-15.47,11.99,17.69,14.72,6.614,0,0,0,0,0,0,0,0,0,0,0,0,0,0,0,0,
405,48.22,25.14,44.86,38.79,63.43,39.53,30.54,15.34,24.42,48.24,38.69,6.864,39.42,40.65,34.81,33.46,0,0,0,0,0,0,0,0,0,0,0,0,0,0,0,0,
406,81.86,48.27,62.97,42.03,74.76,43.94,30.06,12.04,40.55,55.86,27.05,-0.728,30.73,34.17,20.43,26.13,0,0,0,0,0,0,0,0,0,0,0,0,0,0,0,0,
407,53.17,29.25,24.1,16.41,43.52,19.22,-18.38,2.651,17.12,41.31,-4.694,-8.126,5.222,28.26,-0.0257,13.04,0,0,0,0,0,0,0,0,0,0,0,0,0,0,0,0,
408,37.85,3.585,18.26,21.23,47.82,22.42,-8.355,27.64,16.45,57.48,6.818,20.18,25.21,49.51,12.03,29.47,0,0,0,0,0,0,0,0,0,0,0,0,0,0,0,0,
409,58.2,22.63,42.53,38.25,71.02,38.86,23.36,38.65,34.11,72.97,23.97,27.77,46.96,52.15,18.02,24.21,0,0,0,0,0,0,0,0,0,0,0,0,0,0,0,0,
410,78.85,67.99,69.92,56.22,88.13,58.11,32.59,21.0,38.44,69.99,26.32,7.837,48.48,36.33,13.81,5.298,0,0,0,0,0,0,0,0,0,0,0,0,0,0,0,0,
411,117.8,80.6,110.2,73.94,117.2,76.56,61.82,13.4,59.13,71.26,48.63,8.049,67.61,36.02,26.65,11.72,0,0,0,0,0,0,0,0,0,0,0,0,0,0,0,0,
412,131.9,71.93,113.9,66.11,122.2,69.21,68.98,0.9391,82.17,65.44,54.32,3.139,71.14,29.91,24.01,4.461,0,0,0,0,0,0,0,0,0,0,0,0,0,0,0,0,
413,94.23,80.1,71.49,46.91,88.39,49.85,27.34,-16.3,65.33,45.94,24.43,-16.03,42.7,13.08,6.599,-10.91,0,0,0,0,0,0,0,0,0,0,0,0,0,0,0,0,
414,73.43,72.42,57.61,37.24,70.31,38.87,17.86,-15.82,38.67,29.92,18.76,-12.21,33.33,9.185,6.31,-3.543,0,0,0,0,0,0,0,0,0,0,0,0,0,0,0,0,
415,78.77,44.39,75.77,28.85,75.55,29.87,44.55,-14.51,36.62,19.22,32.13,-5.994,31.24,2.054,-5.113,-10.37,0,0,0,0,0,0,0,0,0,0,0,0,0,0,0,0,
416,69.76,38.21,76.55,20.57,63.5,20.96,43.48,-17.1,31.28,0.9705,24.06,-18.49,11.04,-13.16,-25.01,-28.26,0,0,0,0,0,0,0,0,0,0,0,0,0,0,0,0,
417,51.31,38.23,60.65,12.33,37.13,11.62,23.01,-20.55,5.166,-17.26,16.72,-23.84,5.023,-12.41,-14.36,-25.33,0,0,0,0,0,0,0,0,0,0,0,0,0,0,0,0,
418,48.68,24.01,36.32,0.3059,18.34,0.0317,3.813,-30.73,-15.29,-12.45,10.44,-21.76,3.18,-13.81,-5.768,-29.35,0,0,0,0,0,0,0,0,0,0,0,0,0,0,0,0,
419,44.92,1.939,3.192,-16.35,-5.604,-16.33,-23.04,-32.03,-29.05,-10.4,-17.78,-27.26,-22.9,-37.0,-23.36,-47.83,0,0,0,0,0,0,0,0,0,0,0,0,0,0,0,0,
420,9.969,-21.72,-8.435,-26.96,-24.67,-27.79,-31.68,-24.48,-47.72,-36.36,-29.76,-27.87,-32.1,-45.6,-19.83,-43.95,0,0,0,0,0,0,0,0,0,0,0,0,0,0,0,0,
421,5.48,-7.221,16.98,-10.41,-3.445,-10.69,-6.173,-27.2,-40.87,-42.01,-2.249,-19.03,-3.772,-27.26,9.207,-18.87,0,0,0,0,0,0,0,0,0,0,0,0,0,0,0,0,
422,52.95,37.94,43.52,13.41,26.26,13.93,12.18,-35.58,-8.638,-18.88,16.42,-19.38,14.21,-19.43,17.2,-2.318,0,0,0,0,0,0,0,0,0,0,0,0,0,0,0,0,
423,62.48,47.05,48.19,12.44,28.12,13.06,10.77,-35.19,2.719,-14.68,4.97,-28.48,6.663,-24.68,3.556,-3.303,0,0,0,0,0,0,0,0,0,0,0,0,0,0,0,0,
424,53.41,34.65,49.76,9.616,34.33,11.73,12.91,-28.84,-4.721,-15.35,-6.894,-30.89,1.583,-22.82,-8.702,-18.65,0,0,0,0,0,0,0,0,0,0,0,0,0,0,0,0,
425,68.19,33.14,51.61,15.44,44.93,18.48,11.77,-30.32,-5.181,-2.782,-5.971,-26.65,6.119,-16.52,-12.25,-26.91,0,0,0,0,0,0,0,0,0,0,0,0,0,0,0,0,
426,53.22,23.98,40.2,9.594,33.8,11.25,8.074,-35.3,-2.835,2.791,-1.096,-20.17,9.604,-7.175,-6.654,-9.324,0,0,0,0,0,0,0,0,0,0,0,0,0,0,0,0,
427,39.98,23.09,31.11,4.566,23.52,5.479,7.753,-30.46,-3.664,9.183,-9.483,-20.81,-3.591,-6.359,-16.06,-6.43,0,0,0,0,0,0,0,0,0,0,0,0,0,0,0,0,
428,53.54,20.79,28.86,-3.13,18.89,-2.342,-15.9,-28.05,-14.45,8.546,-34.81,-31.15,-29.97,-25.02,-36.52,-30.95,0,0,0,0,0,0,0,0,0,0,0,0,0,0,0,0,
429,28.61,-13.19,8.644,-29.03,4.122,-29.83,-43.46,-38.78,-33.17,-20.85,-41.5,-29.77,-32.41,-36.02,-20.16,-23.71,0,0,0,0,0,0,0,0,0,0,0,0,0,0,0,0,
430,0.1513,-18.4,-2.942,-33.72,4.732,-34.78,-22.15,-42.67,-31.47,-37.76,-14.63,-19.37,-8.741,-29.43,11.48,1.212,0,0,0,0,0,0,0,0,0,0,0,0,0,0,0,0,
431,27.91,12.42,25.09,-16.83,22.66,-15.41,15.58,-29.77,-8.974,-20.24,5.814,-20.88,-1.293,-29.04,5.877,-10.88,0,0,0,0,0,0,0,0,0,0,0,0,0,0,0,0,
432,48.68,-11.75,35.82,-31.6,10.08,-29.97,9.906,-27.42,-9.352,-16.64,-6.762,-26.7,-18.44,-37.53,-18.59,-33.65,0,0,0,0,0,0,0,0,0,0,0,0,0,0,0,0,
433,16.4,-58.73,11.79,-47.07,-19.08,-48.5,-12.78,-40.25,-35.82,-26.55,-31.08,-30.54,-29.54,-41.43,-33.2,-38.74,0,0,0,0,0,0,0,0,0,0,0,0,0,0,0,0,
434,-4.429,-36.94,16.36,-19.44,-2.199,-21.72,-5.845,-32.51,-36.11,-10.5,-34.24,-32.6,-17.64,-31.56,-32.24,-34.39,0,0,0,0,0,0,0,0,0,0,0,0,0,0,0,0,
435,16.54,7.022,36.85,3.333,31.02,2.663,7.187,-13.09,-8.278,8.321,-24.46,-25.91,-3.264,-14.49,-22.39,-26.08,0,0,0,0,0,0,0,0,0,0,0,0,0,0,0,0,
436,29.96,11.24,32.82,3.125,24.78,3.029,-6.151,-9.091,-1.539,12.43,-30.14,-13.01,-4.793,-4.555,-21.79,-19.66,0,0,0,0,0,0,0,0,0,0,0,0,0,0,0,0,
437,41.72,7.249,30.99,11.27,16.28,11.52,-21.89,0.8945,-9.733,27.98,-32.57,2.095,-3.421,4.359,-20.29,-15.37,0,0,0,0,0,0,0,0,0,0,0,0,0,0,0,0,
438,47.19,0.6795,27.79,6.766,16.54,7.651,-23.19,9.863,-5.954,37.82,-20.25,8.385,4.534,9.249,-9.58,-21.83,0,0,0,0,0,0,0,0,0,0,0,0,0,0,0,0,
439,12.7,-25.26,13.85,-16.51,2.152,-16.33,-24.35,-3.925,-0.3193,24.82,-18.82,3.489,7.7,3.499,-1.229,-30.65,0,0,0,0,0,0,0,0,0,0,0,0,0,0,0,0,
440,19.54,-16.47,31.7,-5.515,21.05,-6.371,-14.82,-8.211,14.37,22.62,-10.91,11.4,22.07,12.67,14.12,-12.7,0,0,0,0,0,0,0,0,0,0,0,0,0,0,0,0,
441,63.93,32.48,59.64,30.46,60.02,30.19,1.072,2.929,37.03,31.48,10.4,26.31,37.02,31.6,28.71,8.448,0,0,0,0,0,0,0,0,0,0,0,0,0,0,0,0,
442,42.85,36.17,46.82,29.85,49.07,31.45,-11.11,4.556,35.67,33.21,6.449,26.09,29.98,30.06,25.95,11.25,0,0,0,0,0,0,0,0,0,0,0,0,0,0,0,0,
443,34.61,10.68,36.54,10.6,36.89,13.1,-23.12,5.671,24.6,44.96,-1.947,20.45,27.12,26.26,23.95,15.36,0,0,0,0,0,0,0,0,0,0,0,0,0,0,0,0,
444,66.14,20.94,57.12,15.4,58.25,16.77,1.462,9.94,28.73,56.13,14.44,16.06,34.3,30.86,26.2,12.51,0,0,0,0,0,0,0,0,0,0,0,0,0,0,0,0,
445,46.36,30.27,62.9,21.83,58.28,22.0,12.74,6.32,28.99,42.63,21.63,17.5,27.78,26.44,25.1,9.328,0,0,0,0,0,0,0,0,0,0,0,0,0,0,0,0,
446,49.35,34.68,53.69,24.01,52.9,24.51,-7.636,-1.135,24.61,32.77,13.85,27.76,19.59,25.96,28.17,20.94,0,0,0,0,0,0,0,0,0,0,0,0,0,0,0,0,
447,85.98,55.17,57.35,35.67,67.48,36.6,-6.102,-1.26,25.56,38.85,14.6,29.69,21.95,34.7,31.9,20.05,0,0,0,0,0,0,0,0,0,0,0,0,0,0,0,0,
448,57.48,39.45,61.28,28.9,67.12,28.94,14.05,8.176,22.59,31.52,20.69,30.23,30.77,37.55,41.23,20.6,0,0,0,0,0,0,0,0,0,0,0,0,0,0,0,0,
449,41.57,14.46,60.49,10.07,61.96,9.082,19.32,9.813,27.62,23.67,28.52,37.48,46.08,41.14,57.09,42.61,0,0,0,0,0,0,0,0,0,0,0,0,0,0,0,0,
450,70.93,32.19,54.59,10.21,61.23,9.415,14.63,-6.392,36.91,28.29,29.25,26.32,44.33,39.49,48.54,40.2,0,0,0,0,0,0,0,0,0,0,0,0,0,0,0,0,
451,46.74,31.4,39.02,11.7,39.96,11.45,1.982,-19.47,17.83,8.267,15.2,12.28,17.67,25.02,21.86,19.52,0,0,0,0,0,0,0,0,0,0,0,0,0,0,0,0,
452,12.18,15.59,35.81,12.05,25.16,12.43,-4.434,-10.74,-5.51,-16.92,6.669,26.78,4.71,23.7,13.46,25.53,0,0,0,0,0,0,0,0,0,0,0,0,0,0,0,0,
453,26.47,27.73,35.6,15.5,28.87,17.15,4.402,0.8366,-0.9667,-4.345,0.4336,31.35,1.979,22.63,2.078,18.3,0,0,0,0,0,0,0,0,0,0,0,0,0,0,0,0,
454,21.35,11.68,15.35,0.1679,15.12,1.652,-2.27,-9.906,-1.391,-2.307,-18.75,6.211,-15.21,-2.678,-23.54,-16.65,0,0,0,0,0,0,0,0,0,0,0,0,0,0,0,0,
455,1.041,-16.37,11.52,-8.523,8.866,-9.113,-6.494,-20.85,-7.782,-26.26,-14.9,9.239,-5.941,-3.533,-11.93,-8.146,0,0,0,0,0,0,0,0,0,0,0,0,0,0,0,0,
456,30.56,5.493,34.64,6.783,38.58,5.675,22.74,-14.09,13.43,-19.3,20.64,40.19,31.1,26.31,22.11,25.13,0,0,0,0,0,0,0,0,0,0,0,0,0,0,0,0,
457,59.23,19.45,49.07,8.141,53.99,8.031,34.81,-13.91,33.84,-4.323,30.44,32.45,27.5,20.71,14.09,8.956,0,0,0,0,0,0,0,0,0,0,0,0,0,0,0,0,
458,34.31,5.782,47.92,4.768,34.7,4.063,6.288,-14.46,24.14,-19.63,4.709,5.146,-3.186,-5.891,-12.48,-16.39,0,0,0,0,0,0,0,0,0,0,0,0,0,0,0,0,
459,19.77,17.81,27.82,17.4,22.48,16.24,-18.55,-6.04,9.331,-23.83,-17.98,7.992,-11.69,-9.017,-21.86,-10.99,0,0,0,0,0,0,0,0,0,0,0,0,0,0,0,0,
460,44.81,27.9,11.6,17.4,32.87,18.25,-18.04,-9.464,8.633,-7.972,-24.65,10.98,-11.64,-10.76,-25.02,-11.12,0,0,0,0,0,0,0,0,0,0,0,0,0,0,0,0,
461,57.03,14.17,37.79,8.987,46.2,10.64,-0.2988,-13.74,19.52,-7.785,-13.09,2.582,-4.915,-14.4,-12.35,-9.876,0,0,0,0,0,0,0,0,0,0,0,0,0,0,0,0,
462,50.13,15.12,58.99,16.38,44.94,16.35,7.282,-11.49,27.24,-18.18,-0.243,13.31,6.252,-3.634,3.82,4.817,0,0,0,0,0,0,0,0,0,0,0,0,0,0,0,0,
463,49.01,21.85,33.81,22.13,34.27,22.29,-8.73,-14.29,19.68,-19.35,-6.947,32.5,-1.222,8.587,2.712,10.76,0,0,0,0,0,0,0,0,0,0,0,0,0,0,0,0,
464,42.94,13.31,15.93,14.51,31.39,15.56,-14.16,-9.491,14.91,-11.18,-5.068,43.36,-1.058,20.27,13.21,15.73,0,0,0,0,0,0,0,0,0,0,0,0,0,0,0,0,
465,34.44,4.804,29.16,4.73,32.54,4.299,1.309,-4.415,21.88,-0.9101,13.14,45.32,16.71,28.72,25.99,17.45,0,0,0,0,0,0,0,0,0,0,0,0,0,0,0,0,
466,44.26,-1.74,35.57,-4.906,28.26,-5.166,7.827,-9.171,18.85,-2.137,14.0,36.37,16.99,24.22,18.05,8.475,0,0,0,0,0,0,0,0,0,0,0,0,0,0,0,0,
467,41.0,-2.862,24.07,-7.287,24.18,-6.115,6.91,-6.388,9.392,-13.22,16.1,39.65,19.21,28.49,30.54,20.53,0,0,0,0,0,0,0,0,0,0,0,0,0,0,0,0,
468,11.37,11.1,19.47,7.277,24.32,6.966,17.78,2.928,17.06,-6.433,42.13,66.65,45.79,52.83,60.79,54.33,0,0,0,0,0,0,0,0,0,0,0,0,0,0,0,0,
469,11.42,15.13,25.26,16.27,25.17,15.7,25.29,17.54,29.46,18.85,52.74,86.9,55.31,70.07,56.4,70.58,0,0,0,0,0,0,0,0,0,0,0,0,0,0,0,0,
470,21.13,-7.19,10.95,2.128,18.07,2.744,6.553,36.45,22.65,30.32,31.04,84.01,29.31,64.48,27.56,53.95,0,0,0,0,0,0,0,0,0,0,0,0,0,0,0,0,
471,-1.576,-22.54,-15.69,-4.272,4.282,-6.239,-22.47,40.07,3.533,26.46,5.296,69.06,-1.758,48.47,11.07,26.21,0,0,0,0,0,0,0,0,0,0,0,0,0,0,0,0,
472,-0.8618,-13.83,-18.44,7.224,-2.957,3.604,-33.04,31.26,-13.52,24.85,-5.36,59.72,-13.83,40.83,16.8,24.45,0,0,0,0,0,0,0,0,0,0,0,0,0,0,0,0,
473,5.982,-14.08,-12.73,5.997,-3.72,4.237,-20.76,23.28,-20.3,23.59,5.546,65.73,-2.096,48.16,35.73,44.08,0,0,0,0,0,0,0,0,0,0,0,0,0,0,0,0,
474,-21.67,-25.08,-11.55,0.0748,2.031,-2.141,-0.7857,13.88,-11.14,21.92,19.43,58.72,13.03,49.5,34.4,37.54,0,0,0,0,0,0,0,0,0,0,0,0,0,0,0,0,
475,-5.531,-4.282,6.318,10.52,18.2,7.92,3.748,0.1874,0.5521,15.57,13.52,21.46,7.346,26.69,9.368,5.968,0,0,0,0,0,0,0,0,0,0,0,0,0,0,0,0,
476,40.35,28.2,27.28,16.48,31.02,16.61,1.311,-12.11,4.379,-2.512,17.48,2.996,2.707,9.72,9.683,-1.079,0,0,0,0,0,0,0,0,0,0,0,0,0,0,0,0,
477,44.33,22.04,36.37,8.099,35.66,8.359,19.31,-11.0,8.234,-13.88,44.74,21.11,20.35,22.81,33.66,14.26,0,0,0,0,0,0,0,0,0,0,0,0,0,0,0,0,
478,47.22,7.626,46.92,3.343,35.26,1.595,29.32,-7.774,10.69,-5.637,45.35,27.05,24.83,27.44,30.12,11.61,0,0,0,0,0,0,0,0,0,0,0,0,0,0,0,0,
479,43.99,11.97,42.7,3.041,21.52,2.05,5.205,-17.8,8.299,2.688,15.44,14.02,-0.544,0.4825,1.168,-7.439,0,0,0,0,0,0,0,0,0,0,0,0,0,0,0,0,
480,12.59,6.42,12.94,-1.805,10.09,-2.145,-10.19,-22.89,2.147,-7.525,-3.502,2.576,-21.77,-22.18,-23.66,-25.49,0,0,0,0,0,0,0,0,0,0,0,0,0,0,0,0,
481,15.09,-0.8841,-0.7153,-7.919,20.24,-9.522,2.731,-18.27,-5.407,-24.61,-13.56,-10.01,-24.47,-18.38,-27.74,-31.37,0,0,0,0,0,0,0,0,0,0,0,0,0,0,0,0,
482,35.1,0.5357,11.14,-9.437,28.38,-10.95,10.93,-17.04,-4.333,-21.94,-12.51,-4.856,-15.7,-1.54,0.0641,-10.35,0,0,0,0,0,0,0,0,0,0,0,0,0,0,0,0,
483,13.19,-2.769,5.027,-2.654,16.36,-3.336,6.106,-15.62,-4.704,-6.6,11.08,20.28,-3.925,10.67,23.32,10.86,0,0,0,0,0,0,0,0,0,0,0,0,0,0,0,0,
484,-14.03,7.42,-13.49,6.06,1.931,4.843,4.144,-12.06,-16.56,-7.536,18.54,27.74,-5.504,10.57,7.95,7.651,0,0,0,0,0,0,0,0,0,0,0,0,0,0,0,0,
485,-13.53,12.61,-14.9,-3.767,-4.685,-5.981,-0.8209,-11.14,-19.93,-18.04,-2.329,16.8,-15.42,3.458,-9.228,6.341,0,0,0,0,0,0,0,0,0,0,0,0,0,0,0,0,
486,-10.76,-16.91,-18.07,-23.88,-6.33,-26.33,-13.91,-15.56,-13.29,-18.45,-9.991,7.376,-17.88,-5.198,-11.6,4.566,0,0,0,0,0,0,0,0,0,0,0,0,0,0,0,0,
487,-15.1,-31.58,-25.29,-24.52,-5.335,-25.72,-17.65,-19.59,-10.36,-14.55,-8.854,-1.669,-22.54,-8.89,-26.21,-11.65,0,0,0,0,0,0,0,0,0,0,0,0,0,0,0,0,
488,-20.86,-21.37,-21.79,-17.29,-9.218,-17.73,-12.91,-17.75,-14.38,-13.29,-21.89,-7.901,-32.13,-0.6237,-40.71,-15.69,0,0,0,0,0,0,0,0,0,0,0,0,0,0,0,0,
489,-17.37,-19.36,-17.13,-10.98,-2.575,-12.94,-1.968,-14.87,-21.28,-8.027,-17.49,-1.986,-25.1,11.94,-25.5,0.6539,0,0,0,0,0,0,0,0,0,0,0,0,0,0,0,0,
490,13.21,-1.391,2.382,8.374,29.4,7.104,27.64,-5.498,-4.97,1.705,12.8,16.28,-2.659,21.41,5.4,17.93,0,0,0,0,0,0,0,0,0,0,0,0,0,0,0,0,
491,22.98,13.27,23.61,10.31,41.17,11.84,39.75,2.027,24.32,2.547,19.88,22.93,4.641,24.3,12.81,16.21,0,0,0,0,0,0,0,0,0,0,0,0,0,0,0,0,
492,-23.9,-8.16,0.545,-12.33,15.01,-12.54,13.95,-6.621,19.99,-6.386,1.895,6.964,-3.725,16.35,-1.802,-0.9699,0,0,0,0,0,0,0,0,0,0,0,0,0,0,0,0,
493,-40.98,-20.5,-27.88,-19.28,2.227,-21.92,0.5673,-9.891,0.226,-12.34,2.451,2.003,2.132,9.669,2.326,2.199,0,0,0,0,0,0,0,0,0,0,0,0,0,0,0,0,
494,-17.29,-22.36,-18.38,-20.83,6.716,-21.28,7.647,-9.106,-2.322,-13.94,20.68,10.65,22.17,16.63,26.04,23.09,0,0,0,0,0,0,0,0,0,0,0,0,0,0,0,0,
495,-21.86,-27.38,-7.663,-24.44,9.404,-24.61,10.51,-19.02,2.322,-9.035,29.19,3.762,32.96,28.63,35.12,28.91,0,0,0,0,0,0,0,0,0,0,0,0,0,0,0,0,
496,-15.5,-10.53,-11.56,-17.27,15.02,-19.72,6.4,-23.76,6.165,-5.835,17.08,-4.763,24.61,30.55,27.65,28.59,0,0,0,0,0,0,0,0,0,0,0,0,0,0,0,0,
497,-15.31,-9.767,-23.16,-23.86,1.433,-25.0,-14.4,-31.53,-3.578,-19.38,0.8149,1.621,7.689,23.45,24.28,37.96,0,0,0,0,0,0,0,0,0,0,0,0,0,0,0,0,
498,-54.14,-27.61,-32.09,-24.72,-6.304,-24.72,-19.82,-37.67,-14.08,-22.3,14.14,10.66,8.33,28.95,25.81,46.07,0,0,0,0,0,0,0,0,0,0,0,0,0,0,0,0,
499,-34.12,-13.65,-11.98,-2.295,30.01,-4.235,11.16,-22.64,5.109,-3.623,36.5,12.91,22.52,43.06,17.06,38.23,0,0,0,0,0,0,0,0,0,0,0,0,0,0,0,0,
500,2.398,-3.818,3.727,-7.972,41.48,-9.727,19.57,-17.79,20.48,1.456,26.58,5.771,20.69,35.4,6.238,19.44,0,0,0,0,0,0,0,0,0,0,0,0,0,0,0,0,
501,-26.89,-9.22,-18.35,-25.91,5.813,-25.85,0.3322,-21.97,8.137,-1.96,13.67,-5.952,9.417,13.09,2.367,1.222,0,0,0,0,0,0,0,0,0,0,0,0,0,0,0,0,
502,-33.72,-7.478,-29.09,-21.72,-10.97,-22.43,-8.436,-12.32,-4.447,-7.236,14.14,-23.33,-0.7988,-5.331,-18.63,-27.11,0,0,0,0,0,0,0,0,0,0,0,0,0,0,0,0,
503,-29.8,-31.31,-21.65,-31.51,-16.69,-33.79,-24.66,-17.07,-20.55,-32.79,5.099,-44.02,-14.13,-22.3,-38.75,-51.94,0,0,0,0,0,0,0,0,0,0,0,0,0,0,0,0,
504,-50.16,-39.66,-27.98,-36.43,-21.69,-38.41,-33.9,-25.61,-35.68,-43.91,11.72,-43.67,-10.48,-23.41,-18.51,-43.79,0,0,0,0,0,0,0,0,0,0,0,0,0,0,0,0,
505,-30.89,-10.14,-19.98,-18.37,-2.797,-18.8,-9.125,-10.81,-24.78,-23.18,35.36,-25.42,6.326,-9.274,-1.3,-28.18,0,0,0,0,0,0,0,0,0,0,0,0,0,0,0,0,
506,-30.13,-33.32,-7.289,-33.58,-1.82,-33.12,-1.028,-6.083,-14.15,-15.86,28.01,-20.46,1.39,-13.93,-19.68,-29.4,0,0,0,0,0,0,0,0,0,0,0,0,0,0,0,0,
507,-65.47,-77.68,-30.63,-59.84,-25.36,-60.87,-24.93,-20.05,-25.04,-29.55,6.546,-26.44,-14.84,-30.91,-27.5,-35.36,0,0,0,0,0,0,0,0,0,0,0,0,0,0,0,0,
508,-44.15,-56.42,-39.02,-40.35,-16.44,-43.38,-18.29,-20.07,-25.78,-37.45,10.35,-21.37,-12.97,-22.02,-8.013,-32.44,0,0,0,0,0,0,0,0,0,0,0,0,0,0,0,0,
509,-11.95,-28.43,-6.601,-18.05,5.639,-20.37,17.37,-7.898,-8.273,-26.3,20.94,-9.232,-5.241,0.6926,10.4,-8.354,0,0,0,0,0,0,0,0,0,0,0,0,0,0,0,0,
510,-27.12,-37.5,-4.105,-29.21,-7.148,-30.18,14.48,-12.29,-7.261,-9.404,14.8,-13.92,-17.74,-6.28,5.276,4.995,0,0,0,0,0,0,0,0,0,0,0,0,0,0,0,0,
511,-53.95,-46.23,-38.4,-46.24,-33.94,-47.51,-27.0,-33.84,-30.87,-28.87,-5.272,-30.66,-42.38,-31.55,-18.12,-17.99,0,0,0,0,0,0,0,0,0,0,0,0,0,0,0,0,
512,-75.97,-48.88,-52.99,-51.32,-40.24,-52.42,-50.19,-38.46,-44.42,-66.07,-17.66,-20.92,-43.25,-24.44,-18.3,-19.26,0,0,0,0,0,0,0,0,0,0,0,0,0,0,0,0,
513,-68.5,-49.46,-47.43,-41.99,-23.46,-42.1,-41.48,-14.85,-31.99,-54.91,-1.405,15.95,-13.41,11.7,14.87,16.51,0,0,0,0,0,0,0,0,0,0,0,0,0,0,0,0,
514,-36.23,-39.64,-48.63,-31.1,-9.236,-31.42,-32.14,4.432,-18.53,-21.63,20.67,35.24,12.17,29.9,39.11,29.2,0,0,0,0,0,0,0,0,0,0,0,0,0,0,0,0,
515,-40.12,-35.04,-64.67,-40.1,-26.06,-42.02,-42.83,-0.4241,-20.88,-19.24,18.52,22.13,15.78,19.9,35.95,12.71,0,0,0,0,0,0,0,0,0,0,0,0,0,0,0,0,
516,-71.23,-52.94,-79.36,-51.87,-48.38,-55.22,-51.56,-6.28,-29.59,-25.15,10.44,7.554,14.11,6.857,19.51,-3.149,0,0,0,0,0,0,0,0,0,0,0,0,0,0,0,0,
517,-65.87,-59.69,-63.82,-43.52,-32.76,-45.72,-36.11,0.6671,-34.04,-26.61,11.08,9.05,12.17,2.721,3.156,-14.49,0,0,0,0,0,0,0,0,0,0,0,0,0,0,0,0,
518,-32.22,-31.68,-40.45,-37.65,-10.27,-37.41,-29.46,-4.788,-32.08,-37.15,3.386,5.662,-4.108,-5.09,-6.451,-21.26,0,0,0,0,0,0,0,0,0,0,0,0,0,0,0,0,
519,-35.68,-35.87,-54.52,-50.97,-26.87,-51.93,-48.28,-19.63,-34.54,-49.58,-7.301,-9.827,-26.43,-23.94,-11.96,-22.69,0,0,0,0,0,0,0,0,0,0,0,0,0,0,0,0,
520,-68.86,-79.71,-80.8,-57.06,-49.31,-61.24,-52.1,-11.89,-52.68,-62.92,1.114,-15.04,-27.69,-32.97,-11.33,-19.08,0,0,0,0,0,0,0,0,0,0,0,0,0,0,0,0,
521,-58.86,-63.97,-72.37,-39.83,-37.83,-43.93,-33.58,5.483,-62.72,-66.11,18.84,-4.94,-13.22,-17.75,-2.854,-6.253,0,0,0,0,0,0,0,0,0,0,0,0,0,0,0,0,
522,-24.68,-15.17,-44.63,-22.7,-16.79,-25.29,-21.88,16.99,-41.56,-45.89,17.98,5.598,-15.96,-4.793,-5.795,2.299,0,0,0,0,0,0,0,0,0,0,0,0,0,0,0,0,
523,-28.11,-18.83,-33.46,-18.41,-8.321,-20.74,-22.09,33.72,-23.39,-34.29,-2.398,2.914,-37.02,-15.43,-27.26,-13.81,0,0,0,0,0,0,0,0,0,0,0,0,0,0,0,0,
524,-25.49,-23.2,-33.51,-10.84,3.167,-12.29,-24.79,43.98,-29.32,-41.26,-15.8,-9.086,-44.35,-24.61,-40.96,-33.84,0,0,0,0,0,0,0,0,0,0,0,0,0,0,0,0,
525,0.4456,-2.307,-28.11,-2.847,12.71,-3.601,-22.13,43.55,-24.35,-38.73,-11.78,-9.327,-31.97,-16.62,-38.22,-32.93,0,0,0,0,0,0,0,0,0,0,0,0,0,0,0,0,
526,-21.26,-6.774,-31.86,-8.197,-1.378,-9.751,-18.57,49.12,-7.3,-37.73,-3.387,1.472,-18.11,-8.446,-35.43,-28.59,0,0,0,0,0,0,0,0,0,0,0,0,0,0,0,0,
527,-52.47,-19.05,-53.01,-14.76,-15.69,-15.93,-27.49,58.39,-4.371,-41.11,2.438,14.23,0.039,3.707,-27.06,-24.78,0,0,0,0,0,0,0,0,0,0,0,0,0,0,0,0,
528,-32.31,-16.98,-63.64,-12.04,-1.796,-11.81,-41.2,63.22,2.144,-18.03,3.43,29.21,20.7,19.62,-8.198,-16.28,0,0,0,0,0,0,0,0,0,0,0,0,0,0,0,0,
529,-31.9,-18.32,-43.61,-3.405,17.65,-3.502,-38.45,62.57,20.53,13.67,5.065,31.96,26.04,18.05,8.273,-13.33,0,0,0,0,0,0,0,0,0,0,0,0,0,0,0,0,
530,-35.37,-18.92,-9.637,4.585,26.32,3.51,-18.99,56.0,24.16,17.01,19.05,26.62,26.35,17.95,28.41,4.248,0,0,0,0,0,0,0,0,0,0,0,0,0,0,0,0,
531,18.53,-12.15,2.192,-0.6978,31.75,-1.993,-11.64,40.69,11.95,0.4958,27.44,22.83,26.84,28.06,43.38,30.76,0,0,0,0,0,0,0,0,0,0,0,0,0,0,0,0,
532,23.28,-0.4625,-19.39,-9.951,27.71,-11.48,-29.61,18.95,1.025,-14.01,13.99,4.827,10.97,16.15,25.53,25.61,0,0,0,0,0,0,0,0,0,0,0,0,0,0,0,0,
533,-26.05,5.461,-35.63,-5.182,20.81,-6.496,-41.99,7.16,-2.292,-16.96,-1.504,-8.48,-7.038,-0.278,-4.396,9.883,0,0,0,0,0,0,0,0,0,0,0,0,0,0,0,0,
534,-9.445,-2.37,-26.33,-1.909,19.06,-2.651,-38.12,5.097,-1.464,-16.44,-15.48,-4.349,-19.91,-1.452,-21.92,0.9184,0,0,0,0,0,0,0,0,0,0,0,0,0,0,0,0,
535,11.84,-7.948,-27.59,-11.32,2.991,-12.67,-44.22,-0.063,-16.69,-28.7,-30.97,-16.12,-42.75,-15.59,-41.83,-22.09,0,0,0,0,0,0,0,0,0,0,0,0,0,0,0,0,
536,-8.323,-11.88,-39.36,-15.64,-15.97,-17.84,-52.04,-0.1167,-46.85,-43.11,-24.47,-28.94,-51.94,-30.11,-60.71,-38.09,0,0,0,0,0,0,0,0,0,0,0,0,0,0,0,0,
537,4.833,-17.27,-22.58,-9.823,-6.247,-11.33,-38.55,3.1,-49.36,-43.63,-4.665,-21.82,-38.02,-31.72,-67.95,-39.04,0,0,0,0,0,0,0,0,0,0,0,0,0,0,0,0,
538,17.89,-7.941,3.242,-8.4,12.09,-9.036,-18.43,-5.956,-23.33,-44.44,-4.162,-28.53,-34.95,-46.32,-72.66,-48.93,0,0,0,0,0,0,0,0,0,0,0,0,0,0,0,0,
539,2.691,-0.1684,6.219,-9.749,14.96,-10.94,-8.569,-14.3,-12.64,-49.56,-12.39,-40.2,-37.46,-48.95,-73.53,-54.62,0,0,0,0,0,0,0,0,0,0,0,0,0,0,0,0,
540,7.284,-2.011,4.702,0.2872,21.79,-0.8599,-6.169,-2.428,-9.264,-38.16,-8.0,-24.86,-22.46,-20.35,-63.45,-42.24,0,0,0,0,0,0,0,0,0,0,0,0,0,0,0,0,
541,15.53,2.412,9.075,8.827,37.32,9.418,-2.186,16.56,11.29,-16.97,7.627,-5.598,0.4459,-4.799,-38.84,-23.87,0,0,0,0,0,0,0,0,0,0,0,0,0,0,0,0,
542,12.86,-0.1869,13.33,4.381,37.8,5.188,8.805,25.21,26.65,-10.33,28.68,0.4301,20.55,-3.534,-3.13,-5.668,0,0,0,0,0,0,0,0,0,0,0,0,0,0,0,0,
543,9.068,-4.421,10.39,3.799,18.21,2.537,5.057,34.86,26.0,-13.55,37.95,2.704,24.08,8.236,20.96,10.74,0,0,0,0,0,0,0,0,0,0,0,0,0,0,0,0,
544,-12.73,-4.465,-11.01,-0.6681,-6.865,-3.049,-28.39,45.45,16.9,-15.41,24.2,-5.218,4.642,6.283,19.15,15.63,0,0,0,0,0,0,0,0,0,0,0,0,0,0,0,0,
545,-36.13,-22.18,-25.74,-11.88,-21.19,-13.96,-49.39,36.72,-3.649,-18.28,7.102,-19.79,-9.292,-12.33,4.819,2.885,0,0,0,0,0,0,0,0,0,0,0,0,0,0,0,0,
546,-27.32,-15.83,-12.8,3.215,-12.12,1.607,-32.31,24.43,-15.29,-18.56,-0.3128,-20.02,-5.319,-15.55,-0.4507,-5.297,0,0,0,0,0,0,0,0,0,0,0,0,0,0,0,0,
547,9.279,28.62,-0.2233,24.31,6.599,23.46,-17.35,30.07,-6.463,-11.19,-7.668,-12.11,-5.569,-8.971,2.593,1.181,0,0,0,0,0,0,0,0,0,0,0,0,0,0,0,0,
548,29.01,21.55,1.989,11.75,2.343,10.97,-22.94,37.15,-9.985,-4.966,-18.88,-15.98,-20.06,-15.22,-14.99,-10.1,0,0,0,0,0,0,0,0,0,0,0,0,0,0,0,0,
549,-7.013,-24.29,-3.142,-3.57,-23.23,-5.498,-27.94,34.52,-33.34,-13.21,-28.73,-25.96,-40.14,-27.49,-47.61,-32.63,0,0,0,0,0,0,0,0,0,0,0,0,0,0,0,0,
550,-47.37,-18.01,-21.51,-2.74,-38.16,-5.025,-36.1,29.79,-45.93,-25.65,-35.76,-31.41,-53.62,-33.85,-56.01,-30.18,0,0,0,0,0,0,0,0,0,0,0,0,0,0,0,0,
551,-35.8,-9.495,-34.1,-15.42,-41.3,-17.41,-55.58,27.3,-45.68,-24.34,-44.19,-32.25,-56.2,-39.49,-50.55,-21.8,0,0,0,0,0,0,0,0,0,0,0,0,0,0,0,0,
552,-26.5,-44.58,-37.16,-33.98,-50.38,-36.79,-64.53,22.49,-50.3,-25.91,-43.51,-24.1,-52.19,-43.82,-47.02,-23.97,0,0,0,0,0,0,0,0,0,0,0,0,0,0,0,0,
553,-39.52,-41.59,-36.38,-30.75,-49.71,-33.28,-49.07,15.25,-49.59,-36.41,-17.28,-15.14,-40.25,-38.93,-24.4,-18.3,0,0,0,0,0,0,0,0,0,0,0,0,0,0,0,0,
554,-24.92,-14.55,-21.38,-27.31,-34.49,-28.19,-31.21,17.24,-36.8,-35.56,7.013,-23.27,-26.5,-35.24,-3.897,-15.87,0,0,0,0,0,0,0,0,0,0,0,0,0,0,0,0,
555,-22.07,-42.03,-19.33,-42.06,-38.52,-44.34,-29.04,18.18,-34.01,-36.85,2.301,-37.92,-20.96,-37.48,-6.827,-25.19,0,0,0,0,0,0,0,0,0,0,0,0,0,0,0,0,
556,-53.63,-62.03,-40.02,-44.74,-53.9,-49.3,-26.69,12.02,-35.48,-39.86,-0.5034,-41.33,-12.22,-32.08,-1.369,-27.95,0,0,0,0,0,0,0,0,0,0,0,0,0,0,0,0,
557,-44.13,-35.79,-43.07,-30.27,-45.26,-33.85,-20.15,20.7,-19.96,-20.34,6.316,-41.05,1.536,-28.27,4.28,-32.76,0,0,0,0,0,0,0,0,0,0,0,0,0,0,0,0,
558,-11.53,-23.37,-31.67,-18.92,-27.11,-22.34,-25.6,27.17,-8.649,-7.845,-6.319,-38.85,0.2949,-36.84,-13.63,-46.11,0,0,0,0,0,0,0,0,0,0,0,0,0,0,0,0,
559,-11.39,-14.8,-26.75,-6.523,-19.07,-11.2,-33.92,13.41,-13.54,-17.33,-24.93,-31.49,-17.03,-42.65,-28.33,-50.13,0,0,0,0,0,0,0,0,0,0,0,0,0,0,0,0,
560,-11.64,-10.7,-26.34,-8.363,-21.28,-12.03,-36.48,8.958,-21.03,-20.09,-30.95,-29.95,-32.56,-41.45,-33.34,-48.55,0,0,0,0,0,0,0,0,0,0,0,0,0,0,0,0,
561,-9.021,-36.5,-34.51,-22.89,-33.73,-25.99,-39.61,20.81,-34.62,-22.09,-31.02,-19.33,-28.36,-28.35,-31.82,-37.64,0,0,0,0,0,0,0,0,0,0,0,0,0,0,0,0,
562,-10.72,-25.36,-37.22,-8.52,-34.97,-11.87,-39.2,36.25,-35.38,-20.29,-19.64,10.95,-2.946,-1.922,-9.333,-12.63,0,0,0,0,0,0,0,0,0,0,0,0,0,0,0,0,
563,-8.544,7.971,-30.76,5.949,-25.62,4.675,-38.05,44.5,-6.076,-0.9444,-1.546,18.97,15.63,4.311,6.784,-13.09,0,0,0,0,0,0,0,0,0,0,0,0,0,0,0,0,
564,-20.43,-18.45,-32.56,-12.48,-29.51,-12.7,-34.4,39.51,10.48,6.516,6.661,-0.4915,10.06,-12.14,-0.7257,-38.64,0,0,0,0,0,0,0,0,0,0,0,0,0,0,0,0,
565,-12.2,-34.07,-28.37,-13.14,-31.23,-15.33,-28.59,39.67,-6.929,-5.733,1.376,-12.03,-5.89,-22.05,-8.402,-47.55,0,0,0,0,0,0,0,0,0,0,0,0,0,0,0,0,
566,6.891,-1.344,-27.36,4.3,-32.37,1.115,-46.34,33.26,-28.75,-17.67,-16.18,-23.1,-17.12,-29.58,-12.47,-41.16,0,0,0,0,0,0,0,0,0,0,0,0,0,0,0,0,
567,-16.89,-6.691,-50.48,-3.042,-48.01,-5.089,-63.35,11.72,-39.1,-21.69,-23.36,-28.81,-11.34,-23.68,-2.18,-18.6,0,0,0,0,0,0,0,0,0,0,0,0,0,0,0,0,
568,-20.63,-27.89,-54.01,-10.69,-46.12,-11.71,-38.45,14.21,-30.5,-7.731,-2.742,-14.16,5.855,3.381,23.34,7.802,0,0,0,0,0,0,0,0,0,0,0,0,0,0,0,0,
569,-5.839,-13.38,-32.13,-3.488,-32.71,-4.172,-17.95,24.58,-12.17,5.02,14.28,-8.981,10.61,7.999,26.47,-1.412,0,0,0,0,0,0,0,0,0,0,0,0,0,0,0,0,
570,-30.21,-16.94,-32.19,-10.09,-38.21,-10.25,-28.69,12.41,-12.58,-5.532,8.821,-14.73,5.826,-7.235,10.17,-15.85,0,0,0,0,0,0,0,0,0,0,0,0,0,0,0,0,
571,-17.45,-33.36,-28.52,-17.92,-28.43,-18.48,-24.37,4.397,-17.72,-8.3,-0.3787,-15.62,2.637,-6.184,-2.03,-9.983,0,0,0,0,0,0,0,0,0,0,0,0,0,0,0,0,
572,18.83,-7.402,-2.425,-0.5143,-1.79,-2.88,-9.035,1.314,-7.006,4.545,-11.23,-25.41,-9.442,-8.585,-13.8,-20.29,0,0,0,0,0,0,0,0,0,0,0,0,0,0,0,0,
573,-5.543,17.49,-8.317,15.37,-8.372,12.89,-18.16,-2.046,-10.5,1.9,-26.71,-31.44,-29.77,-21.39,-19.31,-37.49,0,0,0,0,0,0,0,0,0,0,0,0,0,0,0,0,
574,-28.44,10.82,-31.65,13.69,-27.23,12.52,-32.61,7.308,-32.36,-5.512,-30.07,-18.9,-40.06,-14.55,-14.7,-32.74,0,0,0,0,0,0,0,0,0,0,0,0,0,0,0,0,
575,-14.14,20.09,-15.11,17.81,-15.47,16.78,-21.76,18.66,-29.79,6.354,-10.83,3.306,-24.72,10.84,2.291,-6.893,0,0,0,0,0,0,0,0,0,0,0,0,0,0,0,0,
576,-5.215,19.7,1.589,6.744,-5.792,6.235,2.614,26.13,-4.407,22.93,14.03,26.31,0.7002,26.24,20.82,17.95,0,0,0,0,0,0,0,0,0,0,0,0,0,0,0,0,
577,-11.82,-24.78,-21.86,-28.73,-26.89,-29.22,7.091,23.15,2.552,24.53,9.808,21.65,-8.896,9.524,0.988,-0.0532,0,0,0,0,0,0,0,0,0,0,0,0,0,0,0,0,
578,-17.53,-31.74,-41.59,-22.15,-41.56,-24.7,-11.04,16.58,-14.54,12.85,-23.4,-7.751,-44.16,-23.73,-32.55,-33.45,0,0,0,0,0,0,0,0,0,0,0,0,0,0,0,0,
579,-4.74,8.67,-40.48,16.0,-37.57,13.96,-20.18,31.77,-29.09,-1.483,-37.35,-18.93,-49.34,-35.3,-25.62,-28.98,0,0,0,0,0,0,0,0,0,0,0,0,0,0,0,0,
580,-12.99,2.994,-41.37,8.653,-47.98,9.466,-13.18,34.89,-27.9,-11.42,-21.38,-17.91,-33.18,-30.12,-7.849,-20.06,0,0,0,0,0,0,0,0,0,0,0,0,0,0,0,0,
581,-37.07,-20.09,-38.63,-12.7,-61.37,-12.35,-18.05,5.698,-28.37,-19.11,-17.78,-23.26,-35.01,-33.08,-8.625,-22.59,0,0,0,0,0,0,0,0,0,0,0,0,0,0,0,0,
582,-11.73,3.566,-30.32,0.1927,-52.95,-0.8467,-35.06,-4.175,-45.84,-27.41,-28.41,-20.76,-39.7,-34.25,-12.69,-14.23,0,0,0,0,0,0,0,0,0,0,0,0,0,0,0,0,
583,-2.857,14.04,-25.39,6.279,-42.72,5.837,-30.13,7.4,-54.02,-27.76,-25.11,-11.11,-27.45,-21.3,-15.9,-10.26,0,0,0,0,0,0,0,0,0,0,0,0,0,0,0,0,
584,-36.33,-15.74,-22.0,-8.565,-40.1,-10.4,-12.1,9.85,-35.83,-19.89,-23.24,-3.359,-17.65,-3.618,-12.69,-2.208,0,0,0,0,0,0,0,0,0,0,0,0,0,0,0,0,
585,-23.7,-21.49,-30.5,-11.32,-38.29,-15.03,-19.73,16.54,-23.53,-15.63,-33.45,3.144,-19.03,10.84,-7.891,19.96,0,0,0,0,0,0,0,0,0,0,0,0,0,0,0,0,
586,-10.58,-0.4974,-41.65,-3.598,-35.41,-5.625,-31.25,26.11,-22.8,-8.854,-30.09,2.681,-12.03,16.76,-17.62,16.41,0,0,0,0,0,0,0,0,0,0,0,0,0,0,0,0,
587,-29.6,3.035,-30.36,-1.169,-21.45,-1.87,-19.11,17.86,-11.88,0.109,-22.11,-10.94,-3.299,4.842,-33.9,-13.61,0,0,0,0,0,0,0,0,0,0,0,0,0,0,0,0,
588,-18.62,3.529,-25.31,2.324,-11.4,1.304,-14.11,7.255,-11.76,-8.344,-25.41,-24.72,-11.54,-14.33,-37.37,-21.2,0,0,0,0,0,0,0,0,0,0,0,0,0,0,0,0,
589,-14.09,11.35,-35.3,6.128,-16.87,6.033,-11.66,15.0,-24.18,-19.83,-8.609,-19.35,-9.745,-15.48,-15.22,-1.688,0,0,0,0,0,0,0,0,0,0,0,0,0,0,0,0,
590,-21.34,-3.377,-13.55,-0.691,-9.44,-1.295,13.27,21.55,-8.733,-13.2,17.96,-12.11,7.359,-9.02,7.757,0.2145,0,0,0,0,0,0,0,0,0,0,0,0,0,0,0,0,
591,-1.896,-15.77,2.102,-3.168,-2.615,-5.49,16.95,18.19,10.25,-8.598,4.882,-21.62,1.421,-14.92,1.883,-19.21,0,0,0,0,0,0,0,0,0,0,0,0,0,0,0,0,
592,-10.02,9.102,-33.37,15.04,-16.0,13.82,-5.348,32.84,-3.785,-6.95,-15.73,-18.86,-5.289,-10.09,4.257,-18.49,0,0,0,0,0,0,0,0,0,0,0,0,0,0,0,0,
593,-21.67,28.39,-35.38,31.36,-2.022,31.67,4.126,54.58,-1.874,15.93,-6.212,-2.12,8.887,7.042,20.92,-11.93,0,0,0,0,0,0,0,0,0,0,0,0,0,0,0,0,
594,10.58,16.26,2.322,28.05,23.8,28.38,14.1,58.25,21.92,35.53,-15.35,-10.32,-5.176,-2.561,-1.386,-35.33,0,0,0,0,0,0,0,0,0,0,0,0,0,0,0,0,
595,4.125,7.02,-15.42,23.67,0.5837,24.04,-16.56,65.58,6.679,19.13,-48.85,-28.16,-35.2,-22.28,-30.78,-51.86,0,0,0,0,0,0,0,0,0,0,0,0,0,0,0,0,
596,-15.64,12.96,-37.31,26.48,-17.95,26.69,-29.29,74.11,-13.16,3.544,-55.62,-17.89,-33.01,-11.64,-24.89,-36.55,0,0,0,0,0,0,0,0,0,0,0,0,0,0,0,0,
597,16.79,5.29,-17.21,18.29,-3.985,18.49,-21.54,62.19,1.007,18.5,-57.66,0.9524,-37.09,2.606,-35.29,-27.98,0,0,0,0,0,0,0,0,0,0,0,0,0,0,0,0,
598,-11.55,-23.52,-38.5,4.925,-27.7,4.293,-40.02,55.57,-13.35,20.7,-77.55,8.322,-58.82,-1.008,-60.09,-23.08,0,0,0,0,0,0,0,0,0,0,0,0,0,0,0,0,
599,-71.84,-27.27,-62.43,10.66,-53.65,8.057,-41.2,63.66,-41.31,-0.1655,-70.89,21.61,-49.62,4.463,-48.44,7.46,0,0,0,0,0,0,0,0,0,0,0,0,0,0,0,0,
600,-29.74,-1.54,-24.41,20.35,-28.29,18.2,-15.26,59.67,-23.18,-1.749,-40.77,30.56,-29.3,14.09,-31.89,30.5,0,0,0,0,0,0,0,0,0,0,0,0,0,0,0,0,
601,-5.479,-2.362,-7.584,17.79,-15.84,17.45,-10.14,50.94,-7.691,5.145,-16.53,26.06,-17.34,19.87,-18.24,39.25,0,0,0,0,0,0,0,0,0,0,0,0,0,0,0,0,
602,-36.44,-7.729,-12.86,26.75,-11.86,26.85,6.412,60.06,2.735,9.263,18.28,45.35,23.43,48.25,34.6,76.32,0,0,0,0,0,0,0,0,0,0,0,0,0,0,0,0,
603,8.142,15.35,9.322,38.36,17.03,39.55,30.7,70.8,50.94,34.18,37.12,62.92,59.67,65.18,67.27,88.75,0,0,0,0,0,0,0,0,0,0,0,0,0,0,0,0,
604,23.08,9.995,-4.24,18.35,1.79,20.33,-2.073,57.59,59.76,35.22,6.071,19.54,36.77,23.22,28.87,26.53,0,0,0,0,0,0,0,0,0,0,0,0,0,0,0,0,
605,-48.07,-24.27,-42.06,-8.266,-39.31,-7.151,-37.15,36.76,9.651,-9.463,-10.11,-21.65,12.94,-9.835,8.214,-12.09,0,0,0,0,0,0,0,0,0,0,0,0,0,0,0,0,
606,-49.12,-29.36,-36.17,-2.878,-28.13,-1.982,-16.27,36.47,7.602,-11.98,21.26,-1.444,37.26,18.92,39.41,8.838,0,0,0,0,0,0,0,0,0,0,0,0,0,0,0,0,
607,-12.06,-16.1,-29.62,16.04,-15.36,17.16,-2.87,46.01,42.64,31.91,34.29,13.17,49.29,35.9,42.43,-1.409,0,0,0,0,0,0,0,0,0,0,0,0,0,0,0,0,
608,-30.22,-15.97,-38.56,16.15,-30.41,16.58,-6.53,46.28,34.33,30.43,19.87,-2.302,23.88,8.671,17.61,-29.44,0,0,0,0,0,0,0,0,0,0,0,0,0,0,0,0,
609,-39.01,-22.92,-22.28,5.516,-19.0,5.404,18.49,42.07,16.33,0.4461,23.47,1.018,17.2,0.1053,23.83,-9.577,0,0,0,0,0,0,0,0,0,0,0,0,0,0,0,0,
610,-14.97,-8.873,-3.334,12.38,1.538,12.92,34.01,38.09,28.11,6.331,29.13,12.47,31.07,16.38,36.05,11.78,0,0,0,0,0,0,0,0,0,0,0,0,0,0,0,0,
611,-5.395,19.98,-1.588,31.32,-6.748,32.36,15.41,34.19,34.29,22.76,17.48,5.213,26.48,17.79,20.94,-1.507,0,0,0,0,0,0,0,0,0,0,0,0,0,0,0,0,
612,-17.09,10.75,1.441,32.53,-15.63,32.15,13.21,40.18,26.49,20.0,18.99,4.198,25.98,18.68,16.72,0.4789,0,0,0,0,0,0,0,0,0,0,0,0,0,0,0,0,
613,-11.99,-17.7,11.3,20.94,-2.332,19.67,31.81,57.12,33.11,20.89,37.76,19.31,47.96,33.67,35.05,22.51,0,0,0,0,0,0,0,0,0,0,0,0,0,0,0,0,
614,10.23,-7.998,25.43,20.65,15.09,20.57,35.95,62.87,50.37,31.84,48.26,22.13,56.96,38.97,40.19,20.87,0,0,0,0,0,0,0,0,0,0,0,0,0,0,0,0,
615,7.028,9.512,25.91,24.81,16.42,24.89,29.64,47.95,55.02,29.93,47.43,8.624,48.25,31.0,37.25,10.09,0,0,0,0,0,0,0,0,0,0,0,0,0,0,0,0,
616,5.719,9.026,10.46,23.23,10.19,22.73,22.71,37.49,45.63,19.94,42.36,4.499,48.67,26.98,47.43,16.99,0,0,0,0,0,0,0,0,0,0,0,0,0,0,0,0,
617,12.95,7.217,14.9,24.61,16.58,24.88,19.23,48.26,39.62,29.48,43.36,16.09,57.19,33.67,60.59,25.81,0,0,0,0,0,0,0,0,0,0,0,0,0,0,0,0,
618,-8.29,-2.423,31.98,25.68,29.27,26.43,25.76,58.83,45.83,42.37,50.42,24.55,56.86,41.95,61.47,28.8,0,0,0,0,0,0,0,0,0,0,0,0,0,0,0,0,
619,2.385,-0.6342,29.81,25.9,33.56,26.84,23.74,55.64,50.87,33.1,38.99,18.15,42.65,34.99,40.2,19.24,0,0,0,0,0,0,0,0,0,0,0,0,0,0,0,0,
620,40.76,21.15,28.57,37.61,35.21,38.74,13.84,62.06,46.55,30.96,19.7,13.44,32.48,23.78,14.61,-2.423,0,0,0,0,0,0,0,0,0,0,0,0,0,0,0,0,
621,31.42,21.74,38.82,45.01,37.54,45.08,22.08,72.87,46.82,41.85,23.11,22.1,35.15,25.47,12.28,-4.091,0,0,0,0,0,0,0,0,0,0,0,0,0,0,0,0,
622,21.42,12.6,35.26,34.07,26.82,34.02,28.84,52.88,51.86,32.26,25.19,19.89,28.81,22.55,16.84,9.222,0,0,0,0,0,0,0,0,0,0,0,0,0,0,0,0,
623,15.89,15.72,19.63,25.19,4.1,25.99,16.09,26.3,42.24,18.99,14.88,6.118,20.01,16.01,17.33,10.99,0,0,0,0,0,0,0,0,0,0,0,0,0,0,0,0,
624,-15.43,7.215,12.33,23.41,-1.732,22.26,11.17,20.08,23.29,20.19,19.76,7.933,26.43,19.73,17.8,8.64,0,0,0,0,0,0,0,0,0,0,0,0,0,0,0,0,
625,-3.647,7.626,18.67,25.02,15.49,22.28,20.58,5.509,18.45,13.62,25.98,12.24,26.82,16.13,6.487,5.546,0,0,0,0,0,0,0,0,0,0,0,0,0,0,0,0,
626,24.48,28.47,29.2,34.36,23.56,34.02,29.97,-6.144,22.41,7.119,24.22,13.0,25.43,15.27,10.3,13.84,0,0,0,0,0,0,0,0,0,0,0,0,0,0,0,0,
627,11.69,22.22,34.66,32.38,15.52,32.97,34.98,3.582,20.7,15.12,33.25,29.45,36.85,31.24,36.57,37.15,0,0,0,0,0,0,0,0,0,0,0,0,0,0,0,0,
628,13.73,-2.838,31.33,14.7,6.91,13.47,26.2,2.794,17.82,15.79,30.04,35.05,30.49,26.91,30.17,34.97,0,0,0,0,0,0,0,0,0,0,0,0,0,0,0,0,
629,14.74,-10.9,14.2,5.535,-7.013,4.61,8.638,-1.464,3.833,-1.221,6.145,15.89,11.63,7.532,5.778,14.89,0,0,0,0,0,0,0,0,0,0,0,0,0,0,0,0,
630,-6.234,-2.221,9.288,13.21,-8.907,13.12,10.72,8.167,-14.15,-9.737,-0.7257,11.32,17.25,15.88,9.95,16.7,0,0,0,0,0,0,0,0,0,0,0,0,0,0,0,0,
631,15.71,24.31,39.36,32.98,16.73,32.73,32.86,14.73,6.572,11.23,8.286,23.45,33.54,32.43,18.48,24.9,0,0,0,0,0,0,0,0,0,0,0,0,0,0,0,0,
632,43.27,33.93,55.3,43.07,21.84,43.74,41.85,23.28,36.87,31.1,13.22,25.16,38.67,28.87,20.86,26.54,0,0,0,0,0,0,0,0,0,0,0,0,0,0,0,0,
633,25.66,14.01,40.24,33.93,0.3404,34.49,38.37,26.7,24.13,18.21,19.22,21.12,33.24,17.1,23.51,24.82,0,0,0,0,0,0,0,0,0,0,0,0,0,0,0,0,
634,16.28,29.81,41.38,38.39,8.866,38.23,48.94,13.9,12.36,-0.0694,21.05,20.11,21.11,6.931,10.23,13.74,0,0,0,0,0,0,0,0,0,0,0,0,0,0,0,0,
635,25.15,58.95,49.67,49.88,32.13,51.63,56.76,11.73,24.47,-1.121,15.64,18.87,16.93,2.678,-0.3461,11.92,0,0,0,0,0,0,0,0,0,0,0,0,0,0,0,0,
636,38.48,36.71,46.96,33.86,34.24,36.99,48.38,15.06,25.16,4.033,16.14,15.96,17.51,2.161,8.973,22.92,0,0,0,0,0,0,0,0,0,0,0,0,0,0,0,0,
637,45.98,12.27,41.59,12.84,28.88,14.41,47.54,4.055,22.63,3.85,15.51,8.772,1.964,-3.384,13.01,20.44,0,0,0,0,0,0,0,0,0,0,0,0,0,0,0,0,
638,2.331,12.18,18.91,9.869,10.96,9.593,43.77,-2.77,14.26,-11.88,-1.946,-0.0478,-20.99,-9.409,2.598,10.17,0,0,0,0,0,0,0,0,0,0,0,0,0,0,0,0,
639,-38.16,10.36,2.43,15.16,-10.01,14.31,23.45,-2.322,-11.54,-23.77,-22.92,-6.312,-31.53,-17.22,-13.26,4.976,0,0,0,0,0,0,0,0,0,0,0,0,0,0,0,0,
640,-15.74,17.48,8.734,21.55,-7.625,21.37,16.97,-3.596,-23.98,-17.33,-18.27,-11.25,-24.25,-27.84,-21.38,-0.8598,0,0,0,0,0,0,0,0,0,0,0,0,0,0,0,0,
641,-10.34,14.96,4.655,17.51,-3.659,18.36,28.68,1.761,-22.05,-17.3,9.641,-6.252,0.7325,-19.04,-6.212,3.525,0,0,0,0,0,0,0,0,0,0,0,0,0,0,0,0,
642,-26.27,-0.6047,4.168,8.17,-5.541,9.796,31.67,7.799,-15.34,-6.965,20.15,4.965,22.18,2.993,4.71,12.18,0,0,0,0,0,0,0,0,0,0,0,0,0,0,0,0,
643,-14.42,6.033,6.584,11.16,-2.639,12.92,26.2,6.973,-0.9268,21.11,5.495,0.1209,22.45,8.168,-9.024,1.217,0,0,0,0,0,0,0,0,0,0,0,0,0,0,0,0,
644,-32.02,8.206,-11.57,16.6,-4.396,16.73,35.11,13.78,1.218,18.88,9.355,-2.463,30.03,15.1,1.184,0.8612,0,0,0,0,0,0,0,0,0,0,0,0,0,0,0,0,
645,-59.29,-2.709,-5.089,16.06,4.98,15.32,58.94,25.31,10.72,13.19,30.79,17.7,52.95,37.35,34.32,27.06,0,0,0,0,0,0,0,0,0,0,0,0,0,0,0,0,
646,-26.71,11.23,19.72,19.15,23.6,20.2,68.86,25.6,40.59,38.14,24.51,27.71,51.18,42.96,26.85,29.18,0,0,0,0,0,0,0,0,0,0,0,0,0,0,0,0,
647,2.152,22.4,11.53,21.82,17.7,23.58,63.83,28.96,41.59,39.89,3.61,22.79,33.83,37.32,5.24,12.96,0,0,0,0,0,0,0,0,0,0,0,0,0,0,0,0,
648,-21.03,0.3067,4.547,11.96,0.296,12.75,69.16,35.67,27.34,22.24,5.176,20.74,37.97,36.46,16.27,17.25,0,0,0,0,0,0,0,0,0,0,0,0,0,0,0,0,
649,-40.84,-16.32,18.91,3.609,-0.2519,3.788,77.25,26.38,39.22,24.04,15.43,7.246,43.99,21.02,19.72,16.56,0,0,0,0,0,0,0,0,0,0,0,0,0,0,0,0,
650,-24.56,4.254,22.73,21.45,11.7,20.28,67.94,27.56,45.2,23.02,13.78,-0.473,33.03,4.518,1.486,5.356,0,0,0,0,0,0,0,0,0,0,0,0,0,0,0,0,
651,-18.17,31.5,10.8,41.94,13.68,40.55,43.62,41.91,29.63,20.71,0.0246,10.28,16.55,-0.5208,-7.423,6.291,0,0,0,0,0,0,0,0,0,0,0,0,0,0,0,0,
652,-53.02,20.59,-5.764,28.62,-3.519,29.8,21.05,27.31,14.21,20.32,-16.52,3.402,-2.537,-17.81,-11.15,2.3,0,0,0,0,0,0,0,0,0,0,0,0,0,0,0,0,
653,-65.3,-6.341,-10.64,8.233,-10.63,10.28,9.303,5.855,3.225,0.1399,-25.29,-14.78,-19.45,-34.13,-25.54,-17.41,0,0,0,0,0,0,0,0,0,0,0,0,0,0,0,0,
654,-37.41,-2.709,-8.932,14.94,-0.6223,15.06,-0.5009,6.248,-5.642,-6.756,-38.51,-17.02,-31.54,-29.46,-43.45,-32.95,0,0,0,0,0,0,0,0,0,0,0,0,0,0,0,0,
655,-39.27,17.21,-20.15,28.55,-4.339,28.3,-2.889,4.855,-16.08,14.56,-51.97,-8.046,-34.54,-15.75,-37.41,-21.78,0,0,0,0,0,0,0,0,0,0,0,0,0,0,0,0,
656,-59.81,12.12,-32.57,16.13,-23.53,16.51,2.657,-0.7409,-23.55,17.75,-42.25,6.286,-22.94,-2.956,-14.66,-2.736,0,0,0,0,0,0,0,0,0,0,0,0,0,0,0,0,
657,-65.09,-24.29,-44.33,-18.6,-48.32,-19.81,-4.094,-6.366,-28.41,-3.899,-31.52,8.824,-17.68,-4.305,-15.71,-13.74,0,0,0,0,0,0,0,0,0,0,0,0,0,0,0,0,T2
658,-69.82,-41.17,-54.65,-33.85,-64.5,-36.02,0.7193,-13.04,-38.46,-23.33,-28.13,-0.9354,-15.36,-10.92,-17.18,-19.71,0,0,0,0,0,0,0,0,0,0,0,0,0,0,0,0,
659,-59.32,-10.16,-42.35,-19.42,-51.94,-19.75,33.28,-10.33,-30.77,-27.95,-6.299,1.079,5.716,-2.276,1.638,4.431,0,0,0,0,0,0,0,0,0,0,0,0,0,0,0,0,
660,-45.97,-2.813,-25.58,-17.44,-36.26,-17.51,53.4,-7.1,-4.005,-18.18,11.35,6.705,16.87,2.606,3.248,13.64,0,0,0,0,0,0,0,0,0,0,0,0,0,0,0,0,
661,-54.05,-36.76,-22.15,-26.47,-35.63,-28.3,62.84,-1.094,6.769,-9.396,16.26,12.04,13.02,4.431,8.368,16.42,0,0,0,0,0,0,0,0,0,0,0,0,0,0,0,0,
662,-52.71,-31.13,-17.03,-14.67,-28.22,-15.7,77.57,13.72,10.88,-3.228,30.1,22.36,22.38,17.93,29.44,26.37,0,0,0,0,0,0,0,0,0,0,0,0,0,0,0,0,
663,-40.61,-7.003,-16.49,-6.967,-23.2,-6.406,72.12,12.97,20.96,4.506,24.16,15.31,21.57,13.06,13.86,9.855,0,0,0,0,0,0,0,0,0,0,0,0,0,0,0,0,
664,-36.43,-15.75,-15.57,-15.8,-27.22,-15.94,65.08,5.017,21.14,1.202,6.214,2.189,7.772,-4.925,-5.914,-0.9536,0,0,0,0,0,0,0,0,0,0,0,0,0,0,0,0,
665,-25.95,2.969,6.239,0.4441,-13.43,0.1067,87.59,18.59,26.49,2.821,25.22,14.61,18.1,2.779,19.9,23.81,0,0,0,0,0,0,0,0,0,0,0,0,0,0,0,0,
666,-8.641,43.81,23.59,30.22,8.767,30.67,96.82,36.12,38.58,23.74,42.32,29.49,29.76,12.65,30.69,30.14,0,0,0,0,0,0,0,0,0,0,0,0,0,0,0,0,
667,-6.383,26.28,7.988,25.63,8.444,26.04,58.54,33.86,26.0,28.37,14.74,17.29,10.01,-4.329,-2.955,0.4737,0,0,0,0,0,0,0,0,0,0,0,0,0,0,0,0,
668,-24.59,-4.665,-19.06,13.2,-5.892,14.52,15.29,23.52,-1.401,11.74,-18.47,-3.761,-17.13,-25.11,-27.14,-22.87,0,0,0,0,0,0,0,0,0,0,0,0,0,0,0,0,
669,-27.15,17.11,-30.88,22.93,-13.09,25.66,2.517,16.24,-20.4,1.921,-37.32,-16.6,-34.89,-39.84,-34.19,-33.74,0,0,0,0,0,0,0,0,0,0,0,0,0,0,0,0,
670,-12.94,33.12,-37.85,15.73,-21.45,17.69,-4.575,-1.836,-38.6,-17.0,-53.31,-32.21,-49.53,-57.56,-47.71,-48.68,0,0,0,0,0,0,0,0,0,0,0,0,0,0,0,0,
671,-35.62,2.695,-52.36,-9.277,-38.66,-8.428,-15.39,-20.69,-51.29,-42.71,-49.43,-34.0,-46.74,-55.81,-43.03,-44.09,0,0,0,0,0,0,0,0,0,0,0,0,0,0,0,0,
672,-64.07,-17.11,-51.11,-6.517,-38.8,-5.376,0.1823,-9.937,-38.18,-30.5,-21.01,-0.892,-18.81,-24.26,-18.21,-14.17,0,0,0,0,0,0,0,0,0,0,0,0,0,0,0,0,
673,-51.06,2.852,-25.49,8.337,-14.87,9.702,31.62,9.617,-8.508,3.276,-5.362,21.38,1.404,-2.442,-19.93,-5.449,0,0,0,0,0,0,0,0,0,0,0,0,0,0,0,0,
674,-42.32,15.51,-13.61,2.11,-4.908,3.749,31.84,14.35,2.989,12.99,-15.41,8.353,-8.134,-6.405,-35.44,-16.45,0,0,0,0,0,0,0,0,0,0,0,0,0,0,0,0,
675,-43.05,0.1118,-24.14,-2.951,-15.46,-0.8395,8.317,24.02,-7.412,16.21,-14.47,8.581,-19.29,-7.794,-22.7,-6.709,0,0,0,0,0,0,0,0,0,0,0,0,0,0,0,0,
676,-39.37,-7.733,-21.97,7.044,-16.03,8.388,14.41,38.77,-6.056,30.43,5.766,31.84,-4.269,5.338,-1.535,17.3,0,0,0,0,0,0,0,0,0,0,0,0,0,0,0,0,
677,-55.81,-7.241,-10.18,7.307,-13.89,7.245,44.01,46.15,11.17,33.05,13.49,45.93,22.6,21.34,8.432,33.14,0,0,0,0,0,0,0,0,0,0,0,0,0,0,0,0,
678,-64.47,-13.23,-15.39,1.377,-25.42,0.5238,47.3,47.91,20.0,28.96,13.03,47.81,39.05,27.9,19.77,32.5,0,0,0,0,0,0,0,0,0,0,0,0,0,0,0,0,
679,-58.13,1.073,-23.84,11.35,-28.03,10.42,37.55,44.01,22.1,35.32,21.04,45.14,47.13,27.16,29.08,25.23,0,0,0,0,0,0,0,0,0,0,0,0,0,0,0,0,
680,-55.94,18.29,-15.47,15.97,-8.969,16.4,41.75,38.0,28.85,41.42,23.29,44.8,54.29,32.25,29.09,30.21,0,0,0,0,0,0,0,0,0,0,0,0,0,0,0,0,
681,-25.48,-1.898,-1.751,6.401,16.21,8.456,39.39,30.72,41.49,50.03,24.78,53.79,59.0,38.14,25.82,31.19,0,0,0,0,0,0,0,0,0,0,0,0,0,0,0,0,
682,0.8436,-10.73,-1.284,19.34,31.45,20.47,29.47,27.37,51.24,64.89,29.29,58.83,53.88,32.66,16.68,10.49,0,0,0,0,0,0,0,0,0,0,0,0,0,0,0,0,
683,-6.397,28.72,-5.872,47.4,32.4,47.22,20.51,33.78,41.27,63.24,6.526,46.1,32.03,18.27,-9.225,-15.94,0,0,0,0,0,0,0,0,0,0,0,0,0,0,0,0,
684,19.62,58.06,4.429,51.84,33.03,53.26,6.39,36.24,26.64,51.17,-29.56,28.2,8.004,0.8899,-41.34,-32.74,0,0,0,0,0,0,0,0,0,0,0,0,0,0,0,0,
685,33.19,43.6,1.716,36.64,26.14,39.53,-3.688,30.08,22.4,42.25,-44.69,11.39,-8.734,-16.98,-64.68,-40.26,0,0,0,0,0,0,0,0,0,0,0,0,0,0,0,0,
686,-28.34,22.01,-32.64,19.42,-5.733,21.04,-17.68,19.95,0.1757,15.95,-60.44,-13.35,-36.43,-33.15,-88.17,-49.69,0,0,0,0,0,0,0,0,0,0,0,0,0,0,0,0,
687,-45.03,19.55,-41.29,12.52,-23.29,12.87,-38.87,13.48,-28.32,-7.303,-79.9,-21.51,-57.62,-33.79,-98.42,-51.88,0,0,0,0,0,0,0,0,0,0,0,0,0,0,0,0,
688,-9.089,21.01,-24.89,17.1,-15.96,17.9,-43.75,22.66,-27.18,4.334,-77.26,-4.253,-47.95,-18.39,-78.86,-37.04,0,0,0,0,0,0,0,0,0,0,0,0,0,0,0,0,
689,-43.85,4.931,-42.32,7.889,-33.33,9.913,-45.43,23.9,-26.01,6.058,-71.29,-9.995,-44.03,-19.69,-63.09,-37.58,0,0,0,0,0,0,0,0,0,0,0,0,0,0,0,0,
690,-68.77,-13.61,-54.42,-7.299,-49.56,-5.799,-53.72,5.607,-38.82,-22.86,-77.11,-32.27,-56.5,-34.82,-62.92,-52.25,0,0,0,0,0,0,0,0,0,0,0,0,0,0,0,0,
691,-16.23,6.813,-23.67,8.954,-23.99,7.919,-44.52,0.3301,-32.37,-32.49,-76.5,-27.79,-53.04,-31.83,-56.05,-45.46,0,0,0,0,0,0,0,0,0,0,0,0,0,0,0,0,
692,-6.906,47.96,-1.847,34.3,-2.089,33.83,-28.52,9.044,-14.13,-16.32,-60.02,-19.17,-38.3,-24.19,-40.54,-29.37,0,0,0,0,0,0,0,0,0,0,0,0,0,0,0,0,
693,-34.26,40.6,-7.875,30.82,-6.594,33.05,-26.51,17.91,-9.927,-6.063,-35.05,-19.72,-25.66,-27.34,-17.93,-20.71,0,0,0,0,0,0,0,0,0,0,0,0,0,0,0,0,
694,-26.78,9.151,-23.79,22.29,-18.03,23.27,-35.05,19.33,-20.87,-8.368,-32.34,-20.66,-26.39,-35.08,-14.29,-23.4,0,0,0,0,0,0,0,0,0,0,0,0,0,0,0,0,
695,-24.53,21.0,-29.8,26.78,-22.15,26.34,-43.36,0.7549,-32.97,-18.44,-50.68,-33.62,-41.06,-42.66,-40.56,-34.73,0,0,0,0,0,0,0,0,0,0,0,0,0,0,0,0,
696,-11.78,35.46,-0.3331,24.61,4.122,25.88,-30.52,-9.291,-18.35,-15.88,-36.57,-33.12,-28.25,-29.25,-36.59,-23.07,0,0,0,0,0,0,0,0,0,0,0,0,0,0,0,0,
697,18.0,21.31,33.04,16.67,35.71,18.19,-7.955,-2.452,19.76,6.971,-10.78,-17.45,-3.116,-11.13,-10.18,-6.827,0,0,0,0,0,0,0,0,0,0,0,0,0,0,0,0,
698,13.01,21.35,31.78,13.15,31.79,13.68,-9.568,-12.86,34.37,9.524,-29.82,-29.57,-19.33,-26.08,-28.49,-27.22,0,0,0,0,0,0,0,0,0,0,0,0,0,0,0,0,
699,20.66,31.85,30.97,17.01,32.6,16.77,-13.08,-16.1,21.15,-9.317,-41.43,-36.88,-30.73,-34.37,-45.56,-38.2,0,0,0,0,0,0,0,0,0,0,0,0,0,0,0,0,
700,55.35,41.42,51.83,32.28,61.68,31.38,7.73,1.34,28.71,0.525,-8.566,-11.91,-5.924,-13.05,-18.22,-13.1,0,0,0,0,0,0,0,0,0,0,0,0,0,0,0,0,
701,56.14,53.81,60.57,34.41,72.49,35.7,20.87,-3.417,51.72,18.61,3.04,-3.849,-3.887,-8.003,-9.659,-2.552,0,0,0,0,0,0,0,0,0,0,0,0,0,0,0,0,
702,40.92,38.08,48.29,15.04,62.45,18.19,12.57,-14.89,43.64,10.43,-15.82,-6.921,-14.63,-4.337,-19.95,-5.452,0,0,0,0,0,0,0,0,0,0,0,0,0,0,0,0,
703,34.72,12.86,42.88,17.14,66.91,17.75,9.904,-1.528,33.14,26.5,-13.36,12.18,7.197,26.56,3.869,12.44,0,0,0,0,0,0,0,0,0,0,0,0,0,0,0,0,
704,35.97,28.16,46.05,44.17,75.74,43.29,12.4,14.87,55.1,71.82,1.415,28.26,27.13,45.06,29.58,31.31,0,0,0,0,0,0,0,0,0,0,0,0,0,0,0,0,
705,40.04,54.02,35.37,53.34,66.06,54.69,3.516,23.79,61.25,80.44,2.961,33.73,26.22,44.73,26.08,34.81,0,0,0,0,0,0,0,0,0,0,0,0,0,0,0,0,
706,23.76,38.76,20.96,33.83,48.74,36.78,-6.946,19.41,44.78,63.85,-0.3064,37.68,28.42,47.93,19.9,32.81,0,0,0,0,0,0,0,0,0,0,0,0,0,0,0,0,
707,17.25,5.665,16.53,11.93,35.75,14.76,-10.49,-2.024,47.63,58.08,-4.981,28.69,23.99,38.62,11.66,22.27,0,0,0,0,0,0,0,0,0,0,0,0,0,0,0,0,
708,26.19,7.98,3.295,12.74,20.78,15.15,-11.01,-5.246,43.82,42.56,-11.18,22.82,8.267,23.46,0.2511,14.5,0,0,0,0,0,0,0,0,0,0,0,0,0,0,0,0,
709,-1.771,15.58,-13.48,15.7,8.364,17.11,-3.436,4.069,19.14,22.82,-10.9,27.86,6.435,24.93,10.03,22.11,0,0,0,0,0,0,0,0,0,0,0,0,0,0,0,0,
710,-27.77,-19.4,-7.388,-1.071,12.09,-0.7898,16.33,-12.24,20.17,19.27,1.14,23.23,23.0,28.23,32.2,26.46,0,0,0,0,0,0,0,0,0,0,0,0,0,0,0,0,
711,-15.3,-36.35,13.65,-4.468,25.45,-4.214,40.54,-21.41,48.49,15.43,18.82,21.32,40.4,25.96,41.41,24.73,0,0,0,0,0,0,0,0,0,0,0,0,0,0,0,0,
712,-3.96,-1.97,25.46,9.13,32.46,9.39,51.02,-5.49,63.79,7.781,21.31,25.32,42.44,26.4,36.3,25.68,0,0,0,0,0,0,0,0,0,0,0,0,0,0,0,0,
713,17.77,20.19,23.91,14.56,38.41,14.96,43.69,5.55,62.2,12.71,14.79,23.47,36.77,34.75,36.42,29.85,0,0,0,0,0,0,0,0,0,0,0,0,0,0,0,0,
714,49.81,17.94,29.87,27.33,58.94,29.69,45.5,28.07,72.5,34.98,30.39,39.56,50.31,60.98,58.4,46.97,0,0,0,0,0,0,0,0,0,0,0,0,0,0,0,0,
715,40.98,12.33,45.82,37.76,77.78,40.58,52.85,46.48,92.67,60.2,46.23,58.31,69.56,83.74,74.17,56.89,0,0,0,0,0,0,0,0,0,0,0,0,0,0,0,0,
716,18.44,5.275,41.36,31.5,72.71,32.36,37.54,27.83,90.38,68.76,31.61,55.49,66.7,86.0,66.13,50.2,0,0,0,0,0,0,0,0,0,0,0,0,0,0,0,0,
717,34.74,15.61,30.44,45.22,71.02,46.41,28.62,32.99,85.09,79.44,21.06,77.42,69.06,106.5,73.19,69.48,0,0,0,0,0,0,0,0,0,0,0,0,0,0,0,0,
718,54.98,32.69,41.45,70.11,86.52,72.47,42.12,68.24,107.7,111.9,31.92,118.4,90.53,142.8,91.69,99.58,0,0,0,0,0,0,0,0,0,0,0,0,0,0,0,0,
719,54.51,39.57,44.88,70.14,85.55,71.94,37.9,69.59,120.5,128.9,41.43,127.7,101.6,150.4,90.5,100.5,0,0,0,0,0,0,0,0,0,0,0,0,0,0,0,0,
720,64.41,54.42,39.19,66.43,76.96,68.54,25.01,65.2,112.4,119.0,53.79,126.1,108.4,146.5,95.42,99.34,0,0,0,0,0,0,0,0,0,0,0,0,0,0,0,0,
721,62.67,57.09,45.66,64.98,83.65,67.95,24.92,75.03,117.4,117.8,64.14,121.9,115.8,145.1,102.8,98.1,0,0,0,0,0,0,0,0,0,0,0,0,0,0,0,0,
722,35.63,23.31,38.28,48.48,77.54,51.41,13.72,65.81,114.4,110.7,50.3,96.27,95.52,119.1,73.21,77.15,0,0,0,0,0,0,0,0,0,0,0,0,0,0,0,0,
723,38.54,5.932,30.68,44.73,62.77,47.01,7.018,57.36,88.2,79.76,30.21,75.6,63.94,85.79,37.1,58.55,0,0,0,0,0,0,0,0,0,0,0,0,0,0,0,0,
724,55.37,39.42,46.61,61.25,70.3,63.23,23.95,59.29,75.23,59.12,25.43,66.36,49.68,69.13,32.48,42.7,0,0,0,0,0,0,0,0,0,0,0,0,0,0,0,0,
725,50.43,58.95,47.5,56.65,78.45,59.95,31.8,50.92,77.03,50.55,27.72,53.94,40.25,54.67,36.19,21.7,0,0,0,0,0,0,0,0,0,0,0,0,0,0,0,0,
726,56.69,32.96,47.31,42.33,74.21,45.44,33.32,42.53,79.14,37.34,35.21,48.98,40.46,46.33,37.86,19.93,0,0,0,0,0,0,0,0,0,0,0,0,0,0,0,0,
727,63.6,38.17,71.4,60.94,76.82,61.67,44.61,38.46,86.02,36.98,46.0,48.06,55.04,50.63,49.19,34.57,0,0,0,0,0,0,0,0,0,0,0,0,0,0,0,0,
728,59.15,81.64,64.51,81.25,75.46,82.77,36.3,35.95,82.13,42.01,46.75,40.82,54.7,48.8,55.08,35.67,0,0,0,0,0,0,0,0,0,0,0,0,0,0,0,0,
729,58.12,71.73,32.06,59.06,60.21,63.19,13.82,40.33,66.88,37.98,41.54,32.26,42.41,40.51,45.11,22.68,0,0,0,0,0,0,0,0,0,0,0,0,0,0,0,0,
730,30.31,18.0,25.16,19.5,44.04,23.32,8.798,40.38,56.67,35.94,37.36,24.71,37.14,37.57,31.59,16.07,0,0,0,0,0,0,0,0,0,0,0,0,0,0,0,0,
731,3.555,-7.441,22.79,-3.254,28.98,-1.8,3.802,30.72,39.58,24.57,24.85,18.34,26.38,32.86,19.55,16.36,0,0,0,0,0,0,0,0,0,0,0,0,0,0,0,0,
732,24.64,-7.136,21.17,-6.896,24.33,-7.53,-7.965,21.39,25.13,8.909,14.33,10.69,19.12,24.98,17.81,13.73,0,0,0,0,0,0,0,0,0,0,0,0,0,0,0,0,
733,32.47,-2.607,31.85,-1.017,31.83,-1.69,1.039,15.38,32.29,13.81,24.62,6.774,34.08,29.53,35.95,17.31,0,0,0,0,0,0,0,0,0,0,0,0,0,0,0,0,
734,-5.651,-1.772,23.53,1.343,21.19,1.823,17.92,15.75,37.02,22.77,38.65,18.99,49.22,47.46,55.22,29.47,0,0,0,0,0,0,0,0,0,0,0,0,0,0,0,0,
735,-30.43,-2.939,11.02,1.345,1.567,2.145,19.75,27.44,38.98,35.46,41.33,32.48,48.54,57.04,55.38,31.74,0,0,0,0,0,0,0,0,0,0,0,0,0,0,0,0,
736,-12.79,3.838,24.5,6.353,11.39,7.328,29.41,39.18,52.29,59.49,46.83,28.7,43.69,49.93,45.67,27.09,0,0,0,0,0,0,0,0,0,0,0,0,0,0,0,0,
737,11.03,-1.458,41.15,9.741,33.78,10.49,55.99,38.4,60.1,58.8,57.82,26.3,47.63,45.71,47.96,36.12,0,0,0,0,0,0,0,0,0,0,0,0,0,0,0,0,
738,16.05,-10.82,49.72,12.81,44.21,13.23,70.02,39.18,74.48,44.71,67.26,39.53,67.6,56.46,64.47,49.6,0,0,0,0,0,0,0,0,0,0,0,0,0,0,0,0,
739,31.26,8.742,52.02,22.12,53.35,23.11,68.55,50.74,98.39,58.77,81.59,53.84,90.29,75.54,79.17,53.98,0,0,0,0,0,0,0,0,0,0,0,0,0,0,0,0,
740,58.53,27.23,52.52,30.59,61.92,31.51,77.22,56.99,100.1,81.33,99.31,59.3,101.1,93.71,90.92,65.03,0,0,0,0,0,0,0,0,0,0,0,0,0,0,0,0,
741,58.72,28.08,62.83,33.13,63.89,34.66,89.05,54.02,99.82,90.45,101.4,51.39,106.1,95.36,95.55,71.64,0,0,0,0,0,0,0,0,0,0,0,0,0,0,0,0,
742,38.15,27.01,59.15,25.7,57.7,28.64,77.83,44.41,110.4,87.58,83.81,31.55,101.8,76.82,80.02,49.22,0,0,0,0,0,0,0,0,0,0,0,0,0,0,0,0,
743,19.83,6.659,37.62,8.91,41.26,10.24,51.33,27.88,96.82,69.31,65.2,18.65,80.55,56.1,61.43,30.53,0,0,0,0,0,0,0,0,0,0,0,0,0,0,0,0,
744,4.86,-7.883,25.39,1.565,20.15,1.039,25.44,19.67,68.44,44.99,49.16,14.09,50.39,37.06,47.46,31.63,0,0,0,0,0,0,0,0,0,0,0,0,0,0,0,0,
745,2.197,12.16,9.306,4.654,2.214,5.279,1.945,21.09,45.09,26.15,35.72,6.633,26.99,22.02,32.19,26.4,0,0,0,0,0,0,0,0,0,0,0,0,0,0,0,0,
746,15.31,17.61,4.25,0.0988,1.222,1.153,-3.087,16.34,25.06,19.35,41.77,2.943,23.41,19.29,34.29,25.38,0,0,0,0,0,0,0,0,0,0,0,0,0,0,0,0,
747,33.87,3.946,39.79,-2.581,14.35,-2.34,8.385,7.46,23.89,18.43,46.99,-5.395,18.14,4.798,33.2,23.65,0,0,0,0,0,0,0,0,0,0,0,0,0,0,0,0,
748,46.54,15.76,64.19,7.011,12.21,7.41,5.2,1.645,24.21,-0.5511,21.05,-23.63,-13.12,-29.25,2.934,-1.809,0,0,0,0,0,0,0,0,0,0,0,0,0,0,0,0,
749,34.91,36.33,45.27,12.75,-3.631,13.33,-10.96,-5.65,-3.335,-29.69,-6.792,-29.09,-38.33,-47.64,-16.41,-19.45,0,0,0,0,0,0,0,0,0,0,0,0,0,0,0,0,
750,0.3547,40.09,17.06,9.276,-15.68,9.873,-20.6,-16.91,-28.6,-42.63,-15.97,-28.52,-36.89,-49.57,-14.65,-15.43,0,0,0,0,0,0,0,0,0,0,0,0,0,0,0,0,
751,-9.575,30.77,2.09,1.235,-25.01,2.095,-23.1,-19.86,-29.04,-46.17,-19.85,-34.36,-32.94,-54.22,-17.11,-14.73,0,0,0,0,0,0,0,0,0,0,0,0,0,0,0,0,
752,11.11,10.18,12.65,-6.972,-19.87,-6.465,-19.92,-9.338,-26.68,-49.52,-16.9,-30.16,-28.02,-49.47,-16.07,-15.23,0,0,0,0,0,0,0,0,0,0,0,0,0,0,0,0,
753,4.714,4.305,31.26,-0.2265,-4.86,-0.0758,-19.5,-1.867,-26.65,-42.83,-15.44,-21.97,-15.88,-30.24,-11.32,-6.576,0,0,0,0,0,0,0,0,0,0,0,0,0,0,0,0,
754,-3.899,23.14,26.75,9.703,-3.904,10.35,-23.52,1.292,-20.08,-25.62,-14.83,-19.18,-8.927,-12.72,-6.514,5.043,0,0,0,0,0,0,0,0,0,0,0,0,0,0,0,0,
755,19.06,18.21,19.7,-3.598,-4.619,-2.959,-20.27,9.26,-15.45,-16.99,1.45,-8.614,-5.147,-5.837,6.832,9.16,0,0,0,0,0,0,0,0,0,0,0,0,0,0,0,0,
756,12.71,-0.1452,28.18,-11.92,10.67,-12.2,-18.36,14.45,-9.721,-20.4,12.71,11.46,6.224,-1.461,25.65,21.54,0,0,0,0,0,0,0,0,0,0,0,0,0,0,0,0,
757,3.455,25.46,37.96,3.324,29.5,2.937,-24.3,11.65,9.151,-13.15,10.67,27.35,15.1,1.534,38.41,50.09,0,0,0,0,0,0,0,0,0,0,0,0,0,0,0,0,
758,22.42,33.63,38.12,-8.56,25.12,-8.46,-30.09,-4.552,15.59,-7.768,10.08,17.96,0.725,-14.61,24.01,45.91,0,0,0,0,0,0,0,0,0,0,0,0,0,0,0,0,
759,-4.414,-21.77,19.99,-45.62,-6.613,-46.03,-39.12,-25.31,-7.085,-24.7,1.127,-5.529,-21.21,-33.67,0.0129,18.23,0,0,0,0,0,0,0,0,0,0,0,0,0,0,0,0,
760,-24.8,-34.29,3.482,-42.42,-25.08,-43.68,-46.52,-22.83,-22.24,-29.76,-2.728,-5.76,-16.84,-25.15,7.568,27.29,0,0,0,0,0,0,0,0,0,0,0,0,0,0,0,0,
761,2.446,2.68,10.37,-21.42,-20.6,-22.86,-44.39,-12.79,-19.87,-21.73,11.28,-0.9134,-6.447,-18.27,13.42,34.32,0,0,0,0,0,0,0,0,0,0,0,0,0,0,0,0,
762,-16.04,-16.96,16.82,-38.43,-25.98,-39.7,-37.34,-23.72,-22.52,-37.69,17.01,-13.38,-11.87,-31.83,-3.207,11.02,0,0,0,0,0,0,0,0,0,0,0,0,0,0,0,0,
763,-32.31,-44.35,18.31,-53.4,-30.29,-54.43,-22.89,-32.57,-18.32,-49.79,19.11,-13.65,-3.935,-30.36,1.892,5.245,0,0,0,0,0,0,0,0,0,0,0,0,0,0,0,0,
764,-5.367,-14.52,26.07,-35.43,-22.6,-36.7,-11.43,-22.2,-7.995,-33.9,23.93,-3.539,10.09,-13.42,11.39,7.836,0,0,0,0,0,0,0,0,0,0,0,0,0,0,0,0,
765,-21.73,-6.532,22.35,-27.67,-21.66,-29.13,-15.45,-13.09,-15.0,-21.98,13.24,-1.259,-2.006,-7.74,-2.023,1.519,0,0,0,0,0,0,0,0,0,0,0,0,0,0,0,0,
766,-39.46,-34.82,16.14,-35.56,-17.46,-35.73,-17.23,-12.78,-19.74,-14.75,7.424,7.831,-15.22,-7.207,-1.711,7.517,0,0,0,0,0,0,0,0,0,0,0,0,0,0,0,0,
767,-31.8,-36.84,14.7,-33.35,-16.79,-32.98,-20.07,-8.422,-9.832,-1.882,13.55,14.21,-10.54,-5.954,10.53,10.69,0,0,0,0,0,0,0,0,0,0,0,0,0,0,0,0,
768,-60.54,-30.69,-4.794,-31.37,-35.31,-32.88,-39.34,-8.959,-15.21,-6.057,7.734,3.49,-10.79,-10.72,11.58,5.886,0,0,0,0,0,0,0,0,0,0,0,0,0,0,0,0,
769,-59.26,-31.54,-7.944,-28.5,-32.46,-29.52,-43.64,-26.2,-25.63,-17.16,6.508,3.781,-12.9,-9.12,19.69,19.81,0,0,0,0,0,0,0,0,0,0,0,0,0,0,0,0,
770,-7.225,-7.966,26.52,-11.19,-5.329,-8.706,-25.77,-32.53,-9.849,-3.998,12.22,20.04,-5.595,4.465,29.28,39.85,0,0,0,0,0,0,0,0,0,0,0,0,0,0,0,0,
771,2.39,14.89,38.35,-1.375,-0.4184,1.42,-21.67,-26.1,5.797,11.94,3.402,20.54,-5.702,7.427,23.94,42.37,0,0,0,0,0,0,0,0,0,0,0,0,0,0,0,0,
772,-13.99,2.11,26.94,-14.31,-2.415,-14.05,-16.05,-35.36,0.5463,1.184,7.351,12.64,-9.966,0.3569,26.75,45.83,0,0,0,0,0,0,0,0,0,0,0,0,0,0,0,0,
773,-14.53,-15.95,37.58,-27.5,8.321,-28.66,7.711,-34.57,1.353,-13.92,27.14,15.95,-1.836,2.528,37.03,55.56,0,0,0,0,0,0,0,0,0,0,0,0,0,0,0,0,
774,-3.332,-9.216,49.05,-18.85,12.7,-20.4,9.683,-17.4,10.57,-11.35,22.13,7.218,1.954,-2.832,29.53,43.71,0,0,0,0,0,0,0,0,0,0,0,0,0,0,0,0,
775,36.98,7.958,42.7,1.862,19.12,1.756,-6.877,-25.11,12.28,-4.615,11.95,-12.19,-5.104,-19.45,21.38,27.52,0,0,0,0,0,0,0,0,0,0,0,0,0,0,0,0,
776,50.54,8.299,27.18,4.046,21.52,5.865,-7.139,-39.21,11.64,-2.161,20.3,-11.75,-3.909,-19.84,21.42,32.7,0,0,0,0,0,0,0,0,0,0,0,0,0,0,0,0,
777,0.1835,-6.016,4.449,-12.46,2.171,-11.78,-9.957,-34.69,4.398,-1.226,13.52,-7.228,-3.83,-16.3,8.062,26.76,0,0,0,0,0,0,0,0,0,0,0,0,0,0,0,0,
778,-22.78,-13.0,-7.55,-21.95,-9.258,-23.19,-25.31,-31.18,-11.96,-4.909,-4.52,-14.78,-17.87,-23.02,-1.181,11.74,0,0,0,0,0,0,0,0,0,0,0,0,0,0,0,0,
779,-21.01,-21.06,-10.54,-25.72,-11.19,-27.08,-32.76,-28.33,-24.21,-8.86,-4.606,-19.96,-28.91,-23.21,8.418,17.45,0,0,0,0,0,0,0,0,0,0,0,0,0,0,0,0,
780,-43.95,-32.71,-17.93,-28.3,-26.34,-29.08,-36.63,-31.04,-33.82,-8.733,-0.5935,-23.75,-28.45,-26.78,13.85,18.74,0,0,0,0,0,0,0,0,0,0,0,0,0,0,0,0,
781,-17.56,-23.79,-11.07,-22.42,-31.17,-22.42,-33.61,-49.61,-38.73,-12.63,7.529,-17.45,-17.12,-32.25,23.11,17.79,0,0,0,0,0,0,0,0,0,0,0,0,0,0,0,0,
782,27.51,-15.53,7.859,-22.87,-21.42,-22.5,-13.28,-55.74,-22.99,-15.23,31.08,6.644,6.641,-14.43,43.19,39.3,0,0,0,0,0,0,0,0,0,0,0,0,0,0,0,0,
783,0.0008,-37.08,15.45,-43.81,-22.54,-43.17,-6.012,-47.65,-0.3434,-13.46,40.18,15.99,18.35,-2.499,40.79,46.2,0,0,0,0,0,0,0,0,0,0,0,0,0,0,0,0,
784,-21.98,-57.64,12.14,-68.17,-33.0,-67.67,-22.67,-59.99,-5.873,-31.72,27.59,6.317,3.093,-15.41,22.18,34.47,0,0,0,0,0,0,0,0,0,0,0,0,0,0,0,0,
785,-3.346,-48.52,9.667,-64.48,-36.99,-65.71,-19.48,-76.21,-28.26,-54.95,26.29,12.06,-4.383,-7.697,26.15,49.32,0,0,0,0,0,0,0,0,0,0,0,0,0,0,0,0,
786,0.1916,-29.88,17.72,-38.25,-24.59,-39.74,1.645,-67.4,-22.73,-38.15,27.83,22.64,3.358,12.37,34.65,59.65,0,0,0,0,0,0,0,0,0,0,0,0,0,0,0,0,
787,6.798,-28.68,24.22,-34.35,-15.5,-33.91,-4.608,-63.76,-7.928,-15.21,8.916,13.43,-10.41,-2.002,14.15,27.39,0,0,0,0,0,0,0,0,0,0,0,0,0,0,0,0,
788,14.01,-33.03,16.5,-47.34,-25.38,-46.61,-14.24,-71.48,-22.15,-29.81,0.9086,8.202,-24.31,-19.58,0.3355,10.9,0,0,0,0,0,0,0,0,0,0,0,0,0,0,0,0,
789,5.345,-33.96,12.33,-46.96,-28.38,-46.9,-2.275,-64.05,-28.06,-45.25,18.56,6.986,-10.62,-19.44,15.13,23.41,0,0,0,0,0,0,0,0,0,0,0,0,0,0,0,0,
790,-2.365,-46.85,6.55,-50.28,-32.63,-51.16,-12.45,-70.77,-20.08,-49.25,13.98,-26.32,-20.54,-42.39,2.718,-4.558,0,0,0,0,0,0,0,0,0,0,0,0,0,0,0,0,
791,-16.28,-44.08,-9.849,-47.9,-50.84,-50.12,-30.53,-89.26,-42.81,-60.17,-12.82,-57.57,-49.81,-62.96,-29.65,-41.48,0,0,0,0,0,0,0,0,0,0,0,0,0,0,0,0,
792,-5.701,-20.24,0.7544,-25.72,-40.0,-26.99,-14.71,-69.0,-50.95,-51.51,-7.605,-42.55,-31.47,-37.15,-13.62,-20.98,0,0,0,0,0,0,0,0,0,0,0,0,0,0,0,0,
793,36.58,-18.69,35.33,-17.94,-10.14,-17.74,-3.559,-45.67,-11.52,-24.75,13.29,-22.45,-0.5001,-11.82,12.63,-0.1655,0,0,0,0,0,0,0,0,0,0,0,0,0,0,0,0,
794,42.18,-12.65,39.62,-19.19,-11.37,-19.67,-7.505,-53.31,3.052,-17.13,4.803,-17.34,-10.39,-14.36,-4.656,-12.07,0,0,0,0,0,0,0,0,0,0,0,0,0,0,0,0,
795,22.39,-0.3167,23.13,-19.53,-28.17,-20.58,-0.3152,-55.14,-17.3,-23.84,-10.43,-8.959,-24.89,-14.85,-17.2,-8.789,0,0,0,0,0,0,0,0,0,0,0,0,0,0,0,0,
796,23.47,-23.54,24.14,-36.69,-40.21,-37.69,-7.266,-57.68,-23.39,-31.01,-10.6,-13.32,-27.75,-18.0,-5.877,2.365,0,0,0,0,0,0,0,0,0,0,0,0,0,0,0,0,
797,21.39,-29.65,17.17,-43.97,-57.1,-44.98,-29.96,-70.13,-33.83,-40.83,-11.41,-17.92,-37.79,-30.49,-3.211,2.45,0,0,0,0,0,0,0,0,0,0,0,0,0,0,0,0,
798,-1.413,-20.18,-11.28,-42.27,-73.25,-43.32,-38.98,-66.11,-57.91,-48.89,-13.24,-2.857,-46.79,-35.31,-4.799,7.477,0,0,0,0,0,0,0,0,0,0,0,0,0,0,0,0,
799,-34.24,-52.44,-22.63,-62.05,-83.7,-63.24,-38.58,-58.55,-62.85,-57.22,-16.52,0.3674,-52.66,-37.99,-9.353,5.59,0,0,0,0,0,0,0,0,0,0,0,0,0,0,0,0,
800,-58.17,-75.5,-21.98,-77.07,-93.85,-77.85,-32.62,-58.81,-63.12,-65.87,-27.41,-8.26,-60.17,-43.94,-23.53,-8.113,0,0,0,0,0,0,0,0,0,0,0,0,0,0,0,0,
801,-55.65,-75.33,-25.55,-74.93,-95.54,-77.0,-21.24,-56.03,-74.68,-65.06,-27.64,-11.97,-58.06,-46.62,-25.36,-11.65,0,0,0,0,0,0,0,0,0,0,0,0,0,0,0,0,
802,-28.96,-68.92,-6.218,-64.34,-74.8,-68.92,-13.08,-57.9,-63.39,-58.47,-14.37,-26.45,-43.63,-48.92,-15.33,-9.486,0,0,0,0,0,0,0,0,0,0,0,0,0,0,0,0,
803,8.268,-24.33,16.39,-38.56,-47.37,-41.25,-4.865,-57.37,-31.96,-49.69,-8.238,-34.54,-28.81,-46.94,-12.11,-15.58,0,0,0,0,0,0,0,0,0,0,0,0,0,0,0,0,
804,24.35,-0.5142,9.319,-23.22,-42.71,-22.14,3.988,-41.97,-23.11,-34.55,-5.226,-23.09,-25.95,-39.45,-8.923,-22.07,0,0,0,0,0,0,0,0,0,0,0,0,0,0,0,0,
805,8.296,-28.31,5.533,-27.57,-45.51,-26.61,9.28,-30.04,-30.41,-26.46,-0.4761,-20.99,-34.02,-36.51,-8.372,-21.85,0,0,0,0,0,0,0,0,0,0,0,0,0,0,0,0,
806,6.062,-28.21,20.88,-22.77,-24.46,-23.35,14.1,-30.9,-23.9,-28.97,1.012,-16.98,-34.72,-29.32,-11.12,-13.48,0,0,0,0,0,0,0,0,0,0,0,0,0,0,0,0,
807,38.37,-2.849,35.74,-15.24,2.398,-16.24,14.92,-34.7,-10.79,-22.11,7.266,-0.3214,-26.89,-18.12,-0.6653,0.681,0,0,0,0,0,0,0,0,0,0,0,0,0,0,0,0,
808,52.08,1.657,35.81,-23.2,0.0078,-23.87,-1.251,-42.66,-12.88,-19.44,2.378,-4.388,-34.53,-29.19,-1.154,0.9786,0,0,0,0,0,0,0,0,0,0,0,0,0,0,0,0,
809,15.92,-12.63,16.05,-32.38,-20.24,-32.53,-22.83,-45.54,-33.31,-37.18,-16.22,-4.068,-47.98,-42.85,-16.78,-6.708,0,0,0,0,0,0,0,0,0,0,0,0,0,0,0,0,
810,-6.683,-27.07,10.24,-24.98,-22.48,-25.37,-14.82,-29.09,-46.52,-39.43,-2.552,30.28,-33.77,-23.8,-0.1948,7.157,0,0,0,0,0,0,0,0,0,0,0,0,0,0,0,0,
811,14.68,-20.73,20.19,-18.18,-20.11,-18.14,-0.1529,-20.24,-36.07,-23.51,19.81,38.11,-16.46,-10.86,18.42,14.83,0,0,0,0,0,0,0,0,0,0,0,0,0,0,0,0,
812,9.962,-25.35,-6.619,-38.4,-44.4,-37.71,-26.16,-37.83,-33.99,-33.74,-8.428,12.47,-33.57,-28.73,-2.065,-1.176,0,0,0,0,0,0,0,0,0,0,0,0,0,0,0,0,
813,-20.98,-53.15,-38.37,-59.8,-63.5,-60.55,-48.73,-53.7,-53.32,-58.18,-39.34,17.23,-53.01,-30.81,-6.896,7.356,0,0,0,0,0,0,0,0,0,0,0,0,0,0,0,0,
814,-22.94,-48.71,-22.03,-51.11,-49.74,-52.9,-34.28,-56.0,-56.84,-57.16,-28.57,34.08,-46.28,-12.54,10.65,28.72,0,0,0,0,0,0,0,0,0,0,0,0,0,0,0,0,
815,-6.994,-20.92,-2.022,-27.97,-33.19,-29.47,-33.74,-49.53,-41.69,-32.74,-17.29,29.24,-36.57,-6.439,6.161,19.29,0,0,0,0,0,0,0,0,0,0,0,0,0,0,0,0,
816,23.68,-0.6349,-1.159,-6.003,-26.56,-7.317,-37.75,-40.01,-33.81,-6.839,-13.24,18.37,-33.7,-10.12,-5.122,-1.948,0,0,0,0,0,0,0,0,0,0,0,0,0,0,0,0,
817,41.34,12.41,7.158,-3.925,-24.09,-3.314,-9.103,-50.24,-27.54,-4.571,-0.2017,-3.293,-30.99,-23.54,-14.4,-22.32,0,0,0,0,0,0,0,0,0,0,0,0,0,0,0,0,
818,5.102,-9.432,11.74,-28.85,-29.62,-26.64,7.407,-66.72,-23.4,-27.93,3.434,-16.19,-31.74,-38.26,-20.37,-29.24,0,0,0,0,0,0,0,0,0,0,0,0,0,0,0,0,
819,-4.612,-35.33,11.16,-32.2,-26.85,-32.15,4.091,-55.38,-30.9,-37.28,3.055,9.293,-30.21,-26.65,-1.539,-3.714,0,0,0,0,0,0,0,0,0,0,0,0,0,0,0,0,
820,37.58,-15.7,23.69,-6.684,-11.16,-8.47,23.22,-33.48,-28.15,-16.62,15.81,28.25,-22.49,-10.18,14.99,9.962,0,0,0,0,0,0,0,0,0,0,0,0,0,0,0,0,
821,27.92,3.977,28.53,-5.442,-10.83,-5.809,30.96,-32.65,-16.14,-5.965,19.54,12.27,-22.12,-19.16,6.568,-11.75,0,0,0,0,0,0,0,0,0,0,0,0,0,0,0,0,
822,-12.75,7.768,20.59,-12.83,-22.85,-12.0,7.741,-47.56,-19.86,-20.39,8.62,0.8355,-24.14,-24.85,5.246,-21.01,0,0,0,0,0,0,0,0,0,0,0,0,0,0,0,0,
823,5.915,16.16,27.79,-1.365,-18.53,-1.12,6.227,-44.31,-14.1,-20.63,10.56,13.24,-8.121,-9.381,18.03,-2.616,0,0,0,0,0,0,0,0,0,0,0,0,0,0,0,0,
824,32.41,-3.189,25.94,-12.31,-14.28,-12.54,11.93,-23.56,8.412,-4.113,17.3,28.26,7.163,-0.701,25.26,16.62,0,0,0,0,0,0,0,0,0,0,0,0,0,0,0,0,
825,4.15,-28.58,-4.021,-32.91,-26.61,-33.08,-7.596,-27.87,7.06,-1.98,15.84,28.33,0.9379,-3.345,29.64,27.1,0,0,0,0,0,0,0,0,0,0,0,0,0,0,0,0,
826,-27.11,-17.63,-11.57,-22.2,-22.87,-23.21,-4.784,-41.93,3.322,0.604,30.69,25.26,1.71,2.636,36.09,31.91,0,0,0,0,0,0,0,0,0,0,0,0,0,0,0,0,
827,-36.13,-17.64,4.501,-21.68,-9.316,-24.18,21.13,-34.06,19.7,6.414,46.22,31.73,12.51,10.06,36.43,31.31,0,0,0,0,0,0,0,0,0,0,0,0,0,0,0,0,
828,-39.33,-26.68,3.485,-30.86,-19.24,-33.03,23.71,-26.71,10.59,-8.391,27.77,33.54,2.62,8.105,29.78,26.69,0,0,0,0,0,0,0,0,0,0,0,0,0,0,0,0,
829,-7.433,1.801,4.349,-6.251,-24.95,-6.204,18.03,-17.63,-13.99,-14.32,8.846,29.1,-10.77,6.841,26.95,21.04,0,0,0,0,0,0,0,0,0,0,0,0,0,0,0,0,
830,22.18,14.11,15.11,6.95,-12.63,7.773,24.76,-11.01,-8.886,1.517,14.32,31.84,-0.1696,9.267,33.6,21.24,0,0,0,0,0,0,0,0,0,0,0,0,0,0,0,0,
831,-0.5672,-1.31,20.88,-2.73,-4.178,-2.751,40.3,-31.29,10.29,6.529,16.2,31.19,17.8,9.397,37.5,25.93,0,0,0,0,0,0,0,0,0,0,0,0,0,0,0,0,
832,-2.399,18.75,32.38,12.23,8.505,12.72,51.02,-37.2,24.82,9.083,6.883,17.95,17.62,4.036,22.29,10.35,0,0,0,0,0,0,0,0,0,0,0,0,0,0,0,0,
833,23.22,34.44,42.09,23.43,22.97,24.57,41.8,-12.28,32.4,19.4,0.8876,15.47,6.565,3.987,8.126,-15.53,0,0,0,0,0,0,0,0,0,0,0,0,0,0,0,0,
834,28.33,21.24,49.59,22.6,33.64,23.22,41.04,-0.0889,39.26,31.67,5.83,33.21,15.03,23.04,19.6,-9.779,0,0,0,0,0,0,0,0,0,0,0,0,0,0,0,0,
835,54.66,38.71,61.96,44.89,51.68,46.16,49.19,-3.215,60.46,56.39,13.46,37.03,29.84,34.65,24.23,1.474,0,0,0,0,0,0,0,0,0,0,0,0,0,0,0,0,
836,73.38,60.37,55.28,60.1,56.45,62.1,37.4,-5.853,66.41,69.7,14.13,31.02,23.98,26.6,15.36,-0.9656,0,0,0,0,0,0,0,0,0,0,0,0,0,0,0,0,
837,44.71,49.02,43.44,52.55,41.89,54.52,44.95,2.763,43.44,58.44,21.06,52.23,24.8,33.42,29.0,16.75,0,0,0,0,0,0,0,0,0,0,0,0,0,0,0,0,
838,27.66,40.62,46.2,45.57,31.63,48.74,61.05,19.66,34.93,57.16,17.33,59.22,22.25,32.44,24.51,16.4,0,0,0,0,0,0,0,0,0,0,0,0,0,0,0,0,
839,27.52,37.04,37.83,36.04,25.67,38.73,29.34,13.52,30.73,54.5,-17.13,28.89,-16.03,-0.6236,-18.82,-11.01,0,0,0,0,0,0,0,0,0,0,0,0,0,0,0,0,
840,35.04,28.51,28.28,26.32,21.54,27.17,6.553,-0.8089,5.267,32.8,-29.06,30.85,-37.99,-8.188,-26.59,4.921,0,0,0,0,0,0,0,0,0,0,0,0,0,0,0,0,
841,50.3,24.37,27.93,19.6,14.2,21.7,15.35,4.118,-7.225,24.83,-19.68,53.25,-32.57,3.744,-16.41,18.18,0,0,0,0,0,0,0,0,0,0,0,0,0,0,0,0,
842,38.78,24.75,15.4,19.44,3.878,22.11,-6.671,-0.1378,-10.14,26.54,-50.53,35.74,-50.45,-16.24,-50.63,-18.52,0,0,0,0,0,0,0,0,0,0,0,0,0,0,0,0,
843,28.11,34.13,12.48,35.11,13.1,36.54,-28.35,-14.24,-27.34,17.22,-70.35,17.9,-59.67,-28.33,-67.05,-26.4,0,0,0,0,0,0,0,0,0,0,0,0,0,0,0,0,
844,30.73,33.69,25.21,37.4,27.47,40.33,-17.28,-11.2,-29.39,12.46,-41.2,23.05,-43.21,-18.43,-39.08,-8.496,0,0,0,0,0,0,0,0,0,0,0,0,0,0,0,0,
845,28.75,17.86,18.27,18.58,25.05,22.04,-21.76,-10.13,-19.15,3.728,-39.92,16.91,-52.09,-31.0,-43.78,-24.42,0,0,0,0,0,0,0,0,0,0,0,0,0,0,0,0,
846,48.42,21.82,2.499,13.19,24.33,14.58,-39.0,-25.94,-30.33,-17.35,-66.55,12.59,-71.77,-42.71,-73.19,-39.34,0,0,0,0,0,0,0,0,0,0,0,0,0,0,0,0,
847,48.58,31.7,-3.064,15.19,23.48,16.21,-39.75,-29.63,-41.66,-18.43,-62.28,29.39,-64.3,-26.42,-62.75,-29.14,0,0,0,0,0,0,0,0,0,0,0,0,0,0,0,0,
848,10.81,23.26,-9.875,11.74,13.63,12.49,-34.03,-13.57,-27.51,-1.271,-42.41,46.08,-44.48,-12.57,-35.05,-19.37,0,0,0,0,0,0,0,0,0,0,0,0,0,0,0,0,
849,0.5812,23.34,-12.9,12.57,7.564,13.19,-25.72,-10.89,-7.001,2.065,-31.33,49.52,-33.2,-9.966,-30.79,-10.65,0,0,0,0,0,0,0,0,0,0,0,0,0,0,0,0,
