%OpenBCI Raw EXG Data
%Number of channels = 16
%Sample Rate = 125 Hz
%Board = OpenBCI_GUI$BoardCytonSerialDaisy
Sample Index,EXG Channel 0,EXG Channel 1,EXG Channel 2,EXG Channel 3,EXG Channel 4,EXG Channel 5,EXG Channel 6,EXG Channel 7,EXG Channel 8,EXG Channel 9,EXG Channel 10,EXG Channel 11,EXG Channel 12,EXG Channel 13,EXG Channel 14,EXG Channel 15,Accel Channel 0,Accel Channel 1,Accel Channel 2,Other,Other.1,Other.2,Other.3,Other.4,Other.5,Other.6,Analog Channel 0,Analog Channel 1,Analog Channel 2,Timestamp,Other.7,Timestamp (Formatted),Annotations
1,0.0,-0.0,-0.0,0.0,-0.0,-0.0,0.0,-0.0,0.0,0.0,-0.0,0.0,0.0,0.0,0.0,-0.0,0,0,0,0,0,0,0,0,0,0,0,0,0,0,0,0,T0
2,20.63,32.51,-5.13,16.12,-12.31,16.05,12.69,16.67,27.34,25.54,17.4,7.46,19.17,6.072,-2.14,0.5339,0,0,0,0,0,0,0,0,0,0,0,0,0,0,0,0,
3,-2.035,11.69,5.215,15.53,-10.93,15.11,17.03,0.1715,25.71,21.26,38.64,-2.851,26.16,3.854,4.559,0.1446,0,0,0,0,0,0,0,0,0,0,0,0,0,0,0,0,
4,20.72,39.02,48.96,10.25,27.6,9.568,32.58,4.666,36.99,17.21,59.48,-5.253,47.85,15.55,19.24,12.3,0,0,0,0,0,0,0,0,0,0,0,0,0,0,0,0,
5,68.9,51.46,81.83,18.49,54.49,18.3,46.1,16.68,67.12,39.96,56.09,0.6875,65.59,27.67,27.75,13.85,0,0,0,0,0,0,0,0,0,0,0,0,0,0,0,0,
6,65.45,-5.594,78.02,21.22,37.21,21.98,46.42,8.27,72.45,50.67,43.94,-8.993,55.29,18.8,26.05,-1.045,0,0,0,0,0,0,0,0,0,0,0,0,0,0,0,0,
7,41.87,8.051,70.34,10.41,43.81,11.72,49.4,0.667,59.61,33.31,50.89,-16.9,49.41,14.73,28.53,6.191,0,0,0,0,0,0,0,0,0,0,0,0,0,0,0,0,
8,36.88,73.88,56.22,11.04,71.15,12.26,41.98,-15.45,59.22,29.04,50.69,-6.529,54.54,22.63,31.44,22.25,0,0,0,0,0,0,0,0,0,0,0,0,0,0,0,0,
9,61.32,72.87,40.3,19.58,47.52,19.61,19.4,-15.88,60.94,34.27,35.13,-3.838,43.92,18.28,16.09,9.899,0,0,0,0,0,0,0,0,0,0,0,0,0,0,0,0,
10,99.68,52.63,58.79,24.69,27.05,23.16,11.34,20.73,53.93,31.46,34.97,-9.209,28.82,15.61,2.773,0.9831,0,0,0,0,0,0,0,0,0,0,0,0,0,0,0,0,
11,106.7,57.15,80.5,33.92,55.01,32.49,15.27,34.46,48.53,47.73,44.22,7.601,27.92,32.94,11.61,18.91,0,0,0,0,0,0,0,0,0,0,0,0,0,0,0,0,
12,81.9,47.16,66.73,45.2,53.42,44.16,5.277,27.35,42.75,67.04,40.12,34.79,28.39,43.49,9.161,24.2,0,0,0,0,0,0,0,0,0,0,0,0,0,0,0,0,
13,63.87,32.82,49.56,52.62,28.67,51.93,-10.18,43.78,41.7,60.3,32.9,42.83,24.36,35.85,-4.491,14.55,0,0,0,0,0,0,0,0,0,0,0,0,0,0,0,0,
14,74.14,54.25,43.46,38.33,30.65,39.6,-6.526,51.09,51.85,56.22,39.49,38.04,24.21,30.95,10.35,19.03,0,0,0,0,0,0,0,0,0,0,0,0,0,0,0,0,
15,81.3,88.37,39.03,9.053,16.59,9.918,13.93,47.53,47.21,57.18,55.36,39.38,27.32,34.42,33.48,27.47,0,0,0,0,0,0,0,0,0,0,0,0,0,0,0,0,
16,51.03,75.68,47.65,21.81,9.387,20.14,25.2,61.62,34.56,52.5,64.19,50.74,34.31,45.07,37.25,39.0,0,0,0,0,0,0,0,0,0,0,0,0,0,0,0,0,
17,46.66,45.32,54.07,62.14,47.58,61.64,19.11,56.86,44.45,66.53,61.0,60.07,44.62,59.6,41.98,57.56,0,0,0,0,0,0,0,0,0,0,0,0,0,0,0,0,
18,104.5,69.22,51.97,69.88,59.99,71.07,25.32,41.84,55.58,87.29,66.2,62.11,60.64,69.16,57.75,62.27,0,0,0,0,0,0,0,0,0,0,0,0,0,0,0,0,
19,139.7,99.97,74.21,72.51,59.33,73.25,54.17,64.28,73.59,97.3,92.51,63.09,93.41,77.96,72.2,58.48,0,0,0,0,0,0,0,0,0,0,0,0,0,0,0,0,
20,125.6,73.61,96.74,78.45,91.91,80.24,63.21,80.28,119.7,110.6,108.3,54.33,119.2,81.45,72.78,56.28,0,0,0,0,0,0,0,0,0,0,0,0,0,0,0,0,
21,118.7,56.97,79.29,51.69,79.22,54.2,44.11,63.83,136.4,112.4,99.57,42.03,113.3,74.56,73.67,57.66,0,0,0,0,0,0,0,0,0,0,0,0,0,0,0,0,
22,121.2,98.09,55.72,39.34,33.3,41.37,36.11,63.26,108.5,96.86,102.9,45.79,104.5,71.46,90.37,71.05,0,0,0,0,0,0,0,0,0,0,0,0,0,0,0,0,
23,104.5,120.5,48.83,66.01,39.01,68.96,27.95,74.22,90.66,89.2,112.1,44.65,98.95,63.34,86.63,67.68,0,0,0,0,0,0,0,0,0,0,0,0,0,0,0,0,
24,91.96,92.89,43.07,70.3,41.16,73.09,-1.542,72.85,79.34,83.73,91.65,33.17,76.3,45.2,59.46,49.77,0,0,0,0,0,0,0,0,0,0,0,0,0,0,0,0,
25,115.2,84.41,42.06,46.01,16.84,47.03,-15.3,64.42,62.47,66.97,70.96,41.78,57.79,44.48,57.17,68.74,0,0,0,0,0,0,0,0,0,0,0,0,0,0,0,0,
26,123.8,81.43,45.14,26.81,23.07,27.81,-1.079,46.62,57.08,53.18,74.83,56.96,53.26,56.02,66.79,94.97,0,0,0,0,0,0,0,0,0,0,0,0,0,0,0,0,
27,82.77,33.43,47.46,12.9,18.23,14.46,9.286,42.37,48.55,52.34,73.59,57.84,48.63,59.44,64.04,82.87,0,0,0,0,0,0,0,0,0,0,0,0,0,0,0,0,
28,72.74,27.02,57.01,14.83,-5.87,14.86,15.78,58.04,37.49,54.72,73.51,61.06,54.45,62.06,68.54,69.87,0,0,0,0,0,0,0,0,0,0,0,0,0,0,0,0,
29,107.8,86.92,67.5,36.57,15.16,35.24,32.6,56.17,47.78,50.46,97.0,66.14,67.38,57.65,74.27,73.44,0,0,0,0,0,0,0,0,0,0,0,0,0,0,0,0,
30,94.04,95.1,63.05,44.89,25.5,44.94,41.78,48.15,57.81,40.05,113.3,61.65,67.96,42.3,71.58,71.08,0,0,0,0,0,0,0,0,0,0,0,0,0,0,0,0,
31,51.16,64.47,44.22,26.58,-15.14,27.58,33.83,59.07,45.7,27.66,109.3,61.75,65.7,41.09,76.83,74.21,0,0,0,0,0,0,0,0,0,0,0,0,0,0,0,0,
32,63.19,61.85,34.25,5.768,-21.77,5.389,32.64,62.32,40.5,25.31,105.3,73.82,62.86,51.01,78.75,87.92,0,0,0,0,0,0,0,0,0,0,0,0,0,0,0,0,
33,92.6,46.09,40.26,4.78,-2.784,3.999,31.81,43.19,45.57,36.97,83.16,74.01,41.52,44.61,57.68,77.7,0,0,0,0,0,0,0,0,0,0,0,0,0,0,0,0,
34,89.36,41.31,41.08,22.02,-13.82,21.99,9.686,31.74,31.13,42.31,47.17,55.72,24.87,38.85,45.26,55.65,0,0,0,0,0,0,0,0,0,0,0,0,0,0,0,0,
35,105.7,82.84,51.55,36.31,1.65,36.65,5.399,52.34,30.32,45.45,48.35,51.73,46.36,63.29,65.57,73.87,0,0,0,0,0,0,0,0,0,0,0,0,0,0,0,0,
36,142.7,103.3,83.44,47.46,53.12,48.08,35.32,72.2,72.35,68.85,69.12,66.89,73.48,92.22,74.78,98.79,0,0,0,0,0,0,0,0,0,0,0,0,0,0,0,0,
37,131.2,106.7,89.94,71.68,72.98,71.39,42.88,65.02,96.17,90.66,64.61,71.63,71.77,93.3,55.89,79.25,0,0,0,0,0,0,0,0,0,0,0,0,0,0,0,0,
38,110.3,133.3,67.75,81.06,55.19,80.59,21.39,66.81,76.29,85.82,56.81,60.98,62.15,78.14,47.52,56.8,0,0,0,0,0,0,0,0,0,0,0,0,0,0,0,0,
39,129.7,126.5,58.76,53.15,20.73,54.96,14.13,75.42,57.89,72.1,61.67,50.08,58.96,67.02,51.09,57.1,0,0,0,0,0,0,0,0,0,0,0,0,0,0,0,0,
40,129.9,70.19,55.64,32.53,1.075,34.38,19.03,59.71,51.89,68.01,66.7,52.76,60.47,67.42,53.79,58.24,0,0,0,0,0,0,0,0,0,0,0,0,0,0,0,0,
41,104.2,44.24,47.3,34.58,18.4,34.36,16.52,49.1,50.53,66.68,75.36,59.75,64.9,65.88,60.32,59.87,0,0,0,0,0,0,0,0,0,0,0,0,0,0,0,0,
42,94.54,75.61,48.13,23.86,24.15,23.44,15.54,57.94,53.45,54.44,88.97,49.85,64.02,50.78,71.36,62.9,0,0,0,0,0,0,0,0,0,0,0,0,0,0,0,0,
43,88.72,91.87,55.88,14.07,6.067,13.0,21.97,62.37,54.53,43.28,99.52,45.62,70.85,52.55,91.97,68.14,0,0,0,0,0,0,0,0,0,0,0,0,0,0,0,0,
44,87.4,63.92,64.75,30.29,10.15,28.71,13.71,62.73,60.58,56.34,91.79,57.28,82.58,75.69,92.48,67.52,0,0,0,0,0,0,0,0,0,0,0,0,0,0,0,0,
45,93.42,57.01,74.02,44.0,29.8,44.82,-7.596,66.71,67.37,73.89,68.94,52.19,70.19,79.54,60.9,53.15,0,0,0,0,0,0,0,0,0,0,0,0,0,0,0,0,
46,105.5,81.02,76.95,42.55,43.33,44.17,-1.096,67.71,65.64,69.15,67.81,49.89,60.66,81.73,61.2,62.99,0,0,0,0,0,0,0,0,0,0,0,0,0,0,0,0,
47,135.9,81.05,70.06,44.28,42.09,44.5,28.16,51.2,73.76,66.66,84.59,73.31,79.36,113.1,86.92,98.13,0,0,0,0,0,0,0,0,0,0,0,0,0,0,0,0,
48,142.1,71.37,62.73,43.05,19.34,43.35,39.45,40.75,84.94,82.16,86.41,81.52,85.97,132.1,81.83,107.3,0,0,0,0,0,0,0,0,0,0,0,0,0,0,0,0,
49,112.1,89.78,66.06,38.17,0.339,37.71,31.63,71.2,71.08,84.19,84.4,66.94,75.48,116.5,76.13,93.8,0,0,0,0,0,0,0,0,0,0,0,0,0,0,0,0,
50,107.6,104.8,71.52,46.9,-0.6975,45.27,20.56,89.19,58.42,70.06,87.07,59.61,81.81,103.4,82.77,82.62,0,0,0,0,0,0,0,0,0,0,0,0,0,0,0,0,
51,126.9,85.07,72.6,52.33,12.77,52.36,18.67,66.14,77.56,72.81,85.41,57.81,94.55,105.2,77.77,75.94,0,0,0,0,0,0,0,0,0,0,0,0,0,0,0,0,
52,134.4,69.48,78.5,42.98,42.58,44.27,24.25,67.12,95.21,86.19,85.33,52.53,93.05,100.3,78.26,72.77,0,0,0,0,0,0,0,0,0,0,0,0,0,0,0,0,
53,133.2,84.07,81.18,44.99,64.79,45.91,17.95,76.15,91.52,86.39,81.97,45.01,88.01,84.3,77.28,58.59,0,0,0,0,0,0,0,0,0,0,0,0,0,0,0,0,
54,130.0,94.09,80.55,55.29,64.12,56.22,16.86,52.12,95.15,77.92,77.17,37.97,92.44,74.32,66.11,42.15,0,0,0,0,0,0,0,0,0,0,0,0,0,0,0,0,
55,143.5,100.1,97.86,61.6,48.82,61.89,35.23,49.34,106.8,67.09,84.86,36.11,99.13,74.85,68.92,46.38,0,0,0,0,0,0,0,0,0,0,0,0,0,0,0,0,
56,172.8,115.4,114.5,68.43,31.06,68.39,35.34,64.28,102.4,56.5,87.37,37.71,92.5,70.42,67.41,49.2,0,0,0,0,0,0,0,0,0,0,0,0,0,0,0,0,
57,172.4,110.3,103.2,51.38,33.85,51.71,19.45,43.26,79.03,47.43,73.03,38.34,74.5,57.07,49.58,38.35,0,0,0,0,0,0,0,0,0,0,0,0,0,0,0,0,
58,141.1,95.15,87.7,27.0,35.93,26.05,29.87,28.41,52.63,40.13,60.65,35.69,59.4,44.93,46.13,35.68,0,0,0,0,0,0,0,0,0,0,0,0,0,0,0,0,
59,132.3,84.58,86.69,50.11,17.09,48.12,53.41,55.14,48.26,48.74,55.72,32.15,52.29,38.02,53.33,37.29,0,0,0,0,0,0,0,0,0,0,0,0,0,0,0,0,
60,147.4,67.81,87.89,79.83,30.83,79.67,55.2,73.87,61.3,63.84,55.16,34.28,53.47,41.87,60.36,35.47,0,0,0,0,0,0,0,0,0,0,0,0,0,0,0,0,
61,155.2,84.46,87.35,68.57,65.33,70.35,43.69,63.91,65.76,59.84,56.41,35.88,57.36,55.56,73.05,43.07,0,0,0,0,0,0,0,0,0,0,0,0,0,0,0,0,
62,170.7,129.6,86.18,59.46,53.44,60.24,41.98,48.85,67.74,51.62,49.33,28.98,51.77,57.99,66.31,47.32,0,0,0,0,0,0,0,0,0,0,0,0,0,0,0,0,
63,176.9,143.1,84.0,61.82,37.56,60.77,42.57,35.55,64.2,49.87,42.38,23.72,41.91,44.63,42.15,32.09,0,0,0,0,0,0,0,0,0,0,0,0,0,0,0,0,
64,142.4,131.4,83.6,51.1,52.94,50.78,33.12,37.69,46.54,40.21,54.91,26.89,46.71,37.34,46.22,24.05,0,0,0,0,0,0,0,0,0,0,0,0,0,0,0,0,
65,131.5,120.9,86.9,52.96,48.04,53.51,36.0,53.83,48.94,34.39,74.74,30.33,61.44,41.39,58.12,28.25,0,0,0,0,0,0,0,0,0,0,0,0,0,0,0,0,
66,164.6,133.7,91.31,73.57,41.64,73.51,48.31,46.69,66.62,46.56,69.05,31.3,58.42,47.5,35.29,16.02,0,0,0,0,0,0,0,0,0,0,0,0,0,0,0,0,
67,160.7,151.1,80.78,71.71,65.54,72.6,33.4,35.01,55.9,65.04,46.24,40.79,44.23,61.26,29.79,14.84,0,0,0,0,0,0,0,0,0,0,0,0,0,0,0,0,
68,118.3,100.7,61.1,45.18,59.49,46.79,26.4,57.09,45.16,77.35,60.52,61.73,64.51,87.21,79.61,50.64,0,0,0,0,0,0,0,0,0,0,0,0,0,0,0,0,
69,111.8,62.05,73.65,39.5,27.58,39.66,65.73,77.84,72.24,79.63,107.2,71.6,105.3,102.5,110.7,67.92,0,0,0,0,0,0,0,0,0,0,0,0,0,0,0,0,
70,155.5,139.0,109.4,64.65,35.97,64.12,90.42,84.28,99.15,77.77,122.2,66.84,109.5,93.17,91.28,55.64,0,0,0,0,0,0,0,0,0,0,0,0,0,0,0,0,
71,179.6,189.6,122.3,91.5,58.41,90.99,81.93,101.2,104.8,87.08,120.2,81.26,105.3,91.53,92.15,74.97,0,0,0,0,0,0,0,0,0,0,0,0,0,0,0,0,
72,156.9,149.3,119.7,109.9,68.15,110.6,86.83,105.3,114.1,105.0,140.7,102.2,125.0,103.7,119.2,106.9,0,0,0,0,0,0,0,0,0,0,0,0,0,0,0,0,
73,151.0,151.5,114.0,102.9,87.47,106.2,84.17,88.01,113.0,102.7,143.6,88.82,121.0,93.17,115.8,97.37,0,0,0,0,0,0,0,0,0,0,0,0,0,0,0,0,
74,134.0,154.1,97.41,60.31,93.55,63.81,68.6,81.08,95.13,87.71,128.6,77.26,110.9,83.31,105.9,85.57,0,0,0,0,0,0,0,0,0,0,0,0,0,0,0,0,
75,80.54,81.64,91.78,40.46,82.54,42.41,77.18,81.02,102.6,99.23,129.3,88.46,127.3,95.62,109.0,93.35,0,0,0,0,0,0,0,0,0,0,0,0,0,0,0,0,
76,110.5,74.96,97.46,74.43,81.34,74.77,72.96,61.52,115.2,104.2,104.1,66.0,101.3,74.44,80.46,69.56,0,0,0,0,0,0,0,0,0,0,0,0,0,0,0,0,
77,188.3,163.2,85.58,105.9,67.91,104.7,38.1,31.92,88.19,65.72,61.89,30.49,49.31,34.07,51.59,39.25,0,0,0,0,0,0,0,0,0,0,0,0,0,0,0,0,
78,171.0,178.9,62.17,103.0,34.85,103.5,23.28,27.11,60.48,40.47,69.27,42.93,59.79,39.59,65.7,57.83,0,0,0,0,0,0,0,0,0,0,0,0,0,0,0,0,
79,108.5,113.0,40.01,88.95,10.63,91.15,23.86,42.98,55.26,50.66,86.81,62.42,82.91,57.57,68.88,80.68,0,0,0,0,0,0,0,0,0,0,0,0,0,0,0,0,
80,69.96,89.91,21.28,76.86,11.9,77.2,14.62,49.74,45.26,54.11,75.6,57.95,69.79,56.77,60.46,77.5,0,0,0,0,0,0,0,0,0,0,0,0,0,0,0,0,
81,67.11,99.96,13.7,56.87,25.39,58.1,4.205,47.28,33.24,49.97,77.03,56.47,66.92,61.42,74.63,73.36,0,0,0,0,0,0,0,0,0,0,0,0,0,0,0,0,
82,92.24,76.27,4.256,31.57,-5.313,34.28,-7.797,39.75,28.7,47.87,78.49,53.55,68.47,62.95,66.37,62.91,0,0,0,0,0,0,0,0,0,0,0,0,0,0,0,0,
83,72.6,50.72,-13.2,31.98,-58.1,31.44,-8.261,39.47,33.8,51.09,71.31,58.27,67.81,67.55,58.07,65.91,0,0,0,0,0,0,0,0,0,0,0,0,0,0,0,0,
84,56.73,61.96,-8.191,61.88,-32.88,60.04,12.16,53.39,50.21,68.58,102.1,83.81,97.54,94.18,106.1,102.6,0,0,0,0,0,0,0,0,0,0,0,0,0,0,0,0,
85,97.98,83.74,16.26,70.23,19.31,70.56,22.31,50.82,58.82,74.26,131.1,91.85,119.1,107.5,135.3,118.4,0,0,0,0,0,0,0,0,0,0,0,0,0,0,0,0,
86,75.36,83.33,15.38,38.11,3.358,38.18,17.95,48.75,52.38,60.58,115.1,75.19,103.3,94.42,110.3,99.0,0,0,0,0,0,0,0,0,0,0,0,0,0,0,0,0,
87,27.11,57.07,0.7354,25.13,-10.19,23.26,30.17,63.63,48.4,59.52,115.0,64.45,97.0,90.32,103.1,90.91,0,0,0,0,0,0,0,0,0,0,0,0,0,0,0,0,
88,81.6,51.84,18.59,60.07,20.44,58.28,49.38,43.5,60.09,68.38,127.9,58.97,101.9,98.49,104.9,91.97,0,0,0,0,0,0,0,0,0,0,0,0,0,0,0,0,
89,126.1,101.1,43.38,73.1,31.28,73.48,42.21,24.46,73.74,70.56,103.4,52.78,89.4,97.02,83.77,83.91,0,0,0,0,0,0,0,0,0,0,0,0,0,0,0,0,
90,88.82,124.3,33.82,41.32,23.44,42.49,25.87,56.61,64.31,71.48,82.96,50.91,83.25,88.17,78.28,78.58,0,0,0,0,0,0,0,0,0,0,0,0,0,0,0,0,
91,89.88,75.98,18.59,44.64,26.32,44.09,26.63,65.04,56.55,72.04,79.07,49.09,89.74,84.22,82.18,76.23,0,0,0,0,0,0,0,0,0,0,0,0,0,0,0,0,
92,126.9,71.16,23.06,82.39,31.88,82.24,18.14,45.24,70.39,68.02,57.08,46.04,82.35,80.8,70.85,74.4,0,0,0,0,0,0,0,0,0,0,0,0,0,0,0,0,
93,93.87,127.2,26.25,85.23,39.3,87.62,6.101,57.69,63.76,62.94,57.97,51.91,81.58,81.0,88.62,91.85,0,0,0,0,0,0,0,0,0,0,0,0,0,0,0,0,
94,47.27,115.4,15.58,73.41,34.53,75.75,29.1,62.54,47.18,65.5,89.36,62.69,101.3,91.97,124.1,115.9,0,0,0,0,0,0,0,0,0,0,0,0,0,0,0,0,
95,70.65,71.99,0.5635,68.31,5.633,69.07,44.55,39.77,59.95,71.39,81.71,58.38,93.97,90.08,102.9,105.0,0,0,0,0,0,0,0,0,0,0,0,0,0,0,0,0,
96,90.02,88.74,-4.837,45.64,-16.27,45.65,22.29,35.22,60.08,66.14,47.77,51.8,62.41,74.71,61.05,80.44,0,0,0,0,0,0,0,0,0,0,0,0,0,0,0,0,
97,81.54,86.3,2.633,38.13,-8.737,37.5,20.8,47.04,38.8,56.65,49.11,64.93,67.64,81.32,67.11,84.63,0,0,0,0,0,0,0,0,0,0,0,0,0,0,0,0,
98,93.69,63.48,9.091,59.82,12.69,59.41,40.77,46.22,46.62,59.08,65.15,75.2,92.71,97.29,73.91,93.78,0,0,0,0,0,0,0,0,0,0,0,0,0,0,0,0,
99,75.25,96.62,0.1547,61.56,18.56,62.45,31.91,25.22,57.81,70.55,49.57,69.36,80.06,90.21,42.32,81.41,0,0,0,0,0,0,0,0,0,0,0,0,0,0,0,0,
100,40.73,105.7,-22.95,47.99,-3.009,48.89,10.02,3.507,33.58,68.96,20.52,61.07,50.73,70.56,17.06,57.28,0,0,0,0,0,0,0,0,0,0,0,0,0,0,0,0,
101,61.6,72.34,-38.31,46.55,-26.24,46.36,3.334,11.26,11.91,43.97,21.9,55.5,47.64,60.96,25.47,40.56,0,0,0,0,0,0,0,0,0,0,0,0,0,0,0,0,
102,68.09,75.64,-32.71,38.4,-41.79,38.55,4.108,28.49,16.66,34.04,41.95,57.66,53.6,64.29,37.32,39.71,0,0,0,0,0,0,0,0,0,0,0,0,0,0,0,0,
103,46.97,73.61,-22.28,25.94,-63.54,26.56,4.529,12.85,23.79,47.96,35.45,46.24,37.41,48.91,13.67,21.08,0,0,0,0,0,0,0,0,0,0,0,0,0,0,0,0,
104,76.85,72.5,-11.54,31.49,-57.25,30.36,8.837,-14.95,23.08,25.85,21.07,13.0,17.28,9.189,-7.588,-6.235,0,0,0,0,0,0,0,0,0,0,0,0,0,0,0,0,
105,92.73,103.6,4.794,44.59,-5.288,42.84,28.17,-21.61,25.77,-8.296,43.92,10.17,24.96,5.726,28.94,21.18,0,0,0,0,0,0,0,0,0,0,0,0,0,0,0,0,
106,50.07,76.68,10.88,47.27,24.17,48.05,47.74,-23.67,34.3,14.2,61.43,26.18,32.39,30.5,49.36,54.73,0,0,0,0,0,0,0,0,0,0,0,0,0,0,0,0,
107,47.78,44.34,3.075,33.0,-2.42,34.45,38.08,-24.58,26.57,32.05,28.32,3.211,10.33,14.55,7.646,30.31,0,0,0,0,0,0,0,0,0,0,0,0,0,0,0,0,
108,79.46,93.98,-0.2243,21.82,-23.75,21.28,27.83,-10.08,3.27,2.747,13.91,-14.87,10.93,-5.385,10.54,21.75,0,0,0,0,0,0,0,0,0,0,0,0,0,0,0,0,
109,69.29,106.1,9.847,38.85,-9.441,38.46,49.6,-7.837,12.69,-3.888,57.07,5.313,52.05,13.55,62.71,50.76,0,0,0,0,0,0,0,0,0,0,0,0,0,0,0,0,
110,73.31,76.11,18.92,47.4,-9.321,47.69,59.18,-33.71,40.52,4.928,74.0,5.782,61.46,13.94,54.56,42.25,0,0,0,0,0,0,0,0,0,0,0,0,0,0,0,0,
111,95.89,94.43,1.014,24.52,-30.52,23.33,39.28,-42.9,23.39,-11.17,42.37,-12.43,40.21,-3.382,20.77,15.95,0,0,0,0,0,0,0,0,0,0,0,0,0,0,0,0,
112,45.31,91.96,-30.43,18.67,-25.04,17.41,36.53,-14.71,0.2001,-6.034,38.52,-2.803,51.68,15.99,38.1,26.87,0,0,0,0,0,0,0,0,0,0,0,0,0,0,0,0,
113,12.7,67.22,-28.96,39.21,-9.319,38.79,49.03,4.315,17.25,19.95,64.41,11.12,70.65,38.62,56.67,40.41,0,0,0,0,0,0,0,0,0,0,0,0,0,0,0,0,
114,92.37,83.27,3.581,61.6,-4.405,60.45,60.55,1.308,30.44,19.05,69.44,9.483,66.32,36.46,44.84,33.28,0,0,0,0,0,0,0,0,0,0,0,0,0,0,0,0,
115,135.2,86.43,21.06,72.18,15.48,72.07,81.43,16.65,40.33,15.62,56.44,22.16,67.9,46.1,37.2,34.51,0,0,0,0,0,0,0,0,0,0,0,0,0,0,0,0,
116,90.36,69.37,8.369,43.22,21.97,44.59,71.44,28.91,58.46,30.04,38.01,39.08,60.25,51.65,24.4,33.52,0,0,0,0,0,0,0,0,0,0,0,0,0,0,0,0,
117,71.08,79.74,-3.519,10.61,4.287,11.07,25.54,7.076,39.83,30.23,22.41,31.62,32.27,28.31,2.888,18.53,0,0,0,0,0,0,0,0,0,0,0,0,0,0,0,0,
118,65.95,101.1,0.286,23.99,-0.1471,24.9,19.77,-2.245,9.846,11.74,24.55,19.54,26.93,17.49,5.663,20.17,0,0,0,0,0,0,0,0,0,0,0,0,0,0,0,0,
119,65.1,100.6,-5.114,35.67,-7.95,36.22,41.31,-1.484,11.8,-0.437,21.21,15.86,28.04,22.53,11.13,25.34,0,0,0,0,0,0,0,0,0,0,0,0,0,0,0,0,
120,105.5,65.09,-17.45,30.14,0.4332,27.58,29.26,-26.79,8.107,-0.5156,2.128,11.91,1.122,10.52,-6.367,8.404,0,0,0,0,0,0,0,0,0,0,0,0,0,0,0,0,
121,107.5,45.19,-16.46,32.34,27.73,30.44,14.55,-34.72,-11.9,-2.561,-1.418,10.81,-19.61,-2.033,-19.58,-7.824,0,0,0,0,0,0,0,0,0,0,0,0,0,0,0,0,
122,60.18,84.29,-21.25,21.19,-19.38,20.72,17.02,-14.09,-25.81,-12.47,-1.893,1.217,-20.02,-5.579,-28.1,-23.0,0,0,0,0,0,0,0,0,0,0,0,0,0,0,0,0,
123,51.03,98.67,-36.98,17.85,-79.13,15.01,6.848,-6.255,-34.83,-20.92,-17.2,-18.93,-18.75,-14.8,-38.7,-42.53,0,0,0,0,0,0,0,0,0,0,0,0,0,0,0,0,
124,49.4,50.03,-43.63,23.36,-49.43,21.12,-8.354,-12.2,-27.43,-23.87,-16.26,-26.53,-10.6,-21.42,-29.81,-45.74,0,0,0,0,0,0,0,0,0,0,0,0,0,0,0,0,
125,37.43,29.83,-44.73,-9.286,-38.17,-9.522,-11.58,-23.13,-12.21,-24.14,-1.011,-26.51,1.719,-23.89,-14.18,-41.94,0,0,0,0,0,0,0,0,0,0,0,0,0,0,0,0,
126,64.18,53.89,-39.98,-18.26,-66.02,-20.95,-7.971,-27.63,-16.73,-26.52,2.787,-32.45,5.15,-32.59,-15.69,-44.66,0,0,0,0,0,0,0,0,0,0,0,0,0,0,0,0,
127,77.76,50.81,-30.54,24.8,-42.23,20.6,-6.924,-27.66,-19.94,-36.75,-1.493,-39.92,-2.437,-43.42,-26.27,-48.87,0,0,0,0,0,0,0,0,0,0,0,0,0,0,0,0,
128,57.8,28.1,-29.51,28.28,-28.84,25.49,-16.11,-38.96,-10.56,-42.95,-11.35,-41.85,-10.71,-41.63,-28.02,-46.86,0,0,0,0,0,0,0,0,0,0,0,0,0,0,0,0,
129,59.15,47.29,-26.04,9.575,-51.44,7.131,-24.06,-34.91,-15.18,-31.89,-20.04,-27.19,-5.223,-22.26,-21.89,-30.55,0,0,0,0,0,0,0,0,0,0,0,0,0,0,0,0,
130,44.92,84.86,-20.2,23.41,-41.39,20.57,-23.04,-20.27,-19.7,-15.39,-27.1,-18.17,-9.994,-19.7,-45.98,-34.7,0,0,0,0,0,0,0,0,0,0,0,0,0,0,0,0,
131,18.21,84.38,-27.82,25.42,-32.69,22.84,-29.39,-26.46,-10.27,-8.686,-47.03,-40.85,-43.8,-50.75,-92.15,-74.17,0,0,0,0,0,0,0,0,0,0,0,0,0,0,0,0,
132,51.19,74.95,-35.68,16.26,-52.28,15.65,-36.62,-19.52,-19.14,-13.11,-56.46,-49.94,-61.79,-63.53,-89.74,-83.21,0,0,0,0,0,0,0,0,0,0,0,0,0,0,0,0,
133,91.22,66.76,-38.47,15.7,-50.88,16.74,-26.65,1.686,-36.83,-18.07,-42.95,-24.2,-52.81,-44.37,-61.59,-54.69,0,0,0,0,0,0,0,0,0,0,0,0,0,0,0,0,
134,78.92,45.09,-38.71,0.7197,-32.09,-0.4121,-20.97,-5.288,-31.43,-15.83,-41.36,-17.23,-58.79,-40.55,-69.61,-49.12,0,0,0,0,0,0,0,0,0,0,0,0,0,0,0,0,
135,60.8,74.1,-14.78,4.735,-27.38,1.819,-27.83,-22.15,-27.75,-17.62,-45.64,-34.2,-67.5,-50.38,-72.34,-61.68,0,0,0,0,0,0,0,0,0,0,0,0,0,0,0,0,
136,81.16,121.1,27.69,42.53,-18.69,40.94,-10.31,-24.13,-34.51,-25.59,-30.56,-36.81,-48.42,-48.62,-50.58,-63.6,0,0,0,0,0,0,0,0,0,0,0,0,0,0,0,0,
137,138.4,97.61,58.46,56.08,19.23,55.03,24.36,-17.38,-24.26,-25.32,-16.42,-31.1,-27.16,-48.0,-52.53,-64.48,0,0,0,0,0,0,0,0,0,0,0,0,0,0,0,0,
138,177.3,99.41,71.54,42.16,53.53,41.67,28.57,-12.03,-9.857,-23.76,-14.34,-31.87,-25.33,-51.51,-66.82,-69.81,0,0,0,0,0,0,0,0,0,0,0,0,0,0,0,0,
139,173.3,153.0,63.99,33.62,34.18,34.0,12.65,-18.68,-8.153,-33.17,-15.17,-31.31,-22.83,-44.62,-60.85,-66.23,0,0,0,0,0,0,0,0,0,0,0,0,0,0,0,0,
140,165.6,134.3,43.26,28.56,-6.218,27.73,3.444,-19.38,-5.587,-35.49,-23.09,-23.1,-11.57,-31.13,-47.25,-47.5,0,0,0,0,0,0,0,0,0,0,0,0,0,0,0,0,
141,142.1,96.67,37.23,32.28,1.449,31.51,-13.13,5.675,-2.388,-14.11,-32.58,-8.375,-8.196,-18.32,-37.92,-35.03,0,0,0,0,0,0,0,0,0,0,0,0,0,0,0,0,
142,126.9,122.3,43.7,48.65,32.37,48.99,-26.86,33.69,-7.473,6.857,-29.57,-1.22,-11.86,-7.213,-34.66,-44.29,0,0,0,0,0,0,0,0,0,0,0,0,0,0,0,0,
143,177.4,146.2,48.24,61.15,24.89,60.5,-14.24,38.33,-13.41,3.209,-23.67,-10.15,-17.62,-8.156,-40.68,-51.5,0,0,0,0,0,0,0,0,0,0,0,0,0,0,0,0,
144,221.5,165.6,57.11,71.73,7.096,71.61,-4.38,25.6,-9.183,-6.188,-31.11,-16.27,-35.1,-22.75,-48.06,-45.72,0,0,0,0,0,0,0,0,0,0,0,0,0,0,0,0,
145,216.8,195.0,68.15,89.75,25.36,91.2,-13.55,15.34,-0.9888,-7.079,-33.63,-11.92,-44.75,-28.28,-46.13,-45.75,0,0,0,0,0,0,0,0,0,0,0,0,0,0,0,0,
146,239.5,204.3,94.63,109.4,60.17,109.9,-0.9317,11.65,2.46,-9.346,-5.375,-10.92,-25.56,-19.91,-36.55,-50.51,0,0,0,0,0,0,0,0,0,0,0,0,0,0,0,0,
147,305.0,237.6,143.7,131.4,89.96,131.7,26.08,15.56,10.46,-9.002,18.65,-13.79,-15.38,-24.32,-37.89,-54.0,0,0,0,0,0,0,0,0,0,0,0,0,0,0,0,0,
148,364.8,300.0,160.2,156.4,108.1,157.5,10.42,31.66,15.91,-6.544,-3.818,-18.28,-33.38,-40.52,-59.71,-65.05,0,0,0,0,0,0,0,0,0,0,0,0,0,0,0,0,
149,382.8,336.6,141.3,173.8,117.6,174.3,-16.82,37.06,9.03,-6.627,-29.38,-23.49,-34.77,-39.07,-71.87,-70.78,0,0,0,0,0,0,0,0,0,0,0,0,0,0,0,0,
150,414.0,387.2,173.8,200.4,154.2,201.7,5.934,32.77,21.39,5.628,-13.1,-15.55,-6.224,-19.87,-50.01,-52.36,0,0,0,0,0,0,0,0,0,0,0,0,0,0,0,0,
151,558.4,489.6,265.0,262.3,217.5,266.3,43.85,64.3,65.19,32.65,12.31,7.959,23.49,3.388,-20.41,-22.1,0,0,0,0,0,0,0,0,0,0,0,0,0,0,0,0,
152,723.0,606.7,333.7,331.8,263.3,337.5,63.0,103.7,108.4,66.71,24.41,31.25,45.09,28.2,-5.896,4.016,0,0,0,0,0,0,0,0,0,0,0,0,0,0,0,0,
153,755.2,703.0,349.5,374.0,292.3,381.1,77.54,91.08,128.9,97.86,33.59,42.74,52.38,42.84,7.847,25.53,0,0,0,0,0,0,0,0,0,0,0,0,0,0,0,0,
154,731.5,732.1,361.7,400.3,328.6,409.1,80.12,83.22,128.8,107.3,37.71,48.53,49.86,50.39,32.23,44.39,0,0,0,0,0,0,0,0,0,0,0,0,0,0,0,0,
155,745.7,694.9,408.4,416.5,362.5,427.6,77.16,129.1,138.5,113.6,47.72,60.1,62.35,67.24,57.78,55.32,0,0,0,0,0,0,0,0,0,0,0,0,0,0,0,0,
156,741.4,680.6,448.5,430.3,377.9,443.6,81.93,150.2,167.3,136.0,70.13,68.46,79.77,79.39,74.41,56.23,0,0,0,0,0,0,0,0,0,0,0,0,0,0,0,0,
157,722.7,712.4,460.1,469.3,392.9,483.0,88.47,125.9,181.2,146.5,90.83,75.33,89.5,85.33,90.62,67.64,0,0,0,0,0,0,0,0,0,0,0,0,0,0,0,0,
158,745.6,733.8,477.4,505.3,412.7,518.8,103.3,128.2,183.7,145.6,109.7,92.64,105.0,99.72,109.6,85.72,0,0,0,0,0,0,0,0,0,0,0,0,0,0,0,0,
159,750.7,729.6,479.1,503.7,401.6,517.7,103.5,141.0,186.3,148.3,110.1,91.78,103.4,99.2,111.5,79.21,0,0,0,0,0,0,0,0,0,0,0,0,0,0,0,0,
160,701.0,715.9,463.1,508.0,402.8,523.7,87.99,130.5,180.3,143.9,86.26,74.38,84.35,88.77,99.27,74.28,0,0,0,0,0,0,0,0,0,0,0,0,0,0,0,0,
161,675.3,694.5,481.2,525.3,459.5,544.0,109.0,129.0,198.0,152.4,77.52,82.35,90.95,101.2,83.99,85.54,0,0,0,0,0,0,0,0,0,0,0,0,0,0,0,0,
162,674.9,645.1,485.0,506.7,454.8,526.0,126.6,133.5,228.9,173.9,76.68,92.34,99.55,109.6,59.85,71.31,0,0,0,0,0,0,0,0,0,0,0,0,0,0,0,0,
163,646.2,576.6,440.3,478.4,376.1,495.9,98.47,138.8,215.4,169.1,66.64,88.45,89.62,104.0,57.38,57.94,0,0,0,0,0,0,0,0,0,0,0,0,0,0,0,0,
164,619.7,565.2,425.5,475.5,368.4,492.7,91.62,151.4,192.4,160.5,78.57,95.95,95.56,108.4,80.03,67.31,0,0,0,0,0,0,0,0,0,0,0,0,0,0,0,0,
165,585.6,596.7,431.4,464.1,388.6,480.5,102.7,130.0,194.9,166.6,90.57,84.2,100.1,96.12,71.64,50.43,0,0,0,0,0,0,0,0,0,0,0,0,0,0,0,0,
166,501.8,563.3,403.7,441.1,363.2,456.6,96.99,99.89,186.1,150.8,83.88,54.84,94.88,73.07,57.29,34.58,0,0,0,0,0,0,0,0,0,0,0,0,0,0,0,0,
167,440.3,505.0,381.9,434.5,370.6,452.2,112.4,121.4,175.5,132.9,98.31,59.89,111.1,81.36,83.08,54.66,0,0,0,0,0,0,0,0,0,0,0,0,0,0,0,0,
168,456.2,497.9,377.3,442.5,367.1,460.2,124.3,140.9,183.5,144.8,107.7,73.35,119.6,92.02,94.82,60.35,0,0,0,0,0,0,0,0,0,0,0,0,0,0,0,0,
169,477.5,482.4,366.0,455.9,311.1,471.8,111.8,126.3,187.0,157.4,86.0,70.39,108.8,88.24,74.76,50.86,0,0,0,0,0,0,0,0,0,0,0,0,0,0,0,0,
170,455.7,456.6,361.9,449.3,321.7,468.1,121.0,131.5,191.2,162.8,76.94,74.14,111.0,95.21,66.29,52.31,0,0,0,0,0,0,0,0,0,0,0,0,0,0,0,0,
171,422.0,448.1,345.9,409.7,356.5,428.7,119.2,139.1,199.8,165.5,74.43,67.95,107.6,92.75,61.35,44.19,0,0,0,0,0,0,0,0,0,0,0,0,0,0,0,0,
172,372.5,400.5,302.9,381.1,307.3,395.1,86.76,113.0,192.0,152.1,64.99,53.47,96.31,78.04,51.52,31.53,0,0,0,0,0,0,0,0,0,0,0,0,0,0,0,0,
173,294.8,354.8,277.4,372.6,273.3,387.0,80.77,103.2,181.2,143.2,74.84,61.52,101.6,78.84,51.54,28.0,0,0,0,0,0,0,0,0,0,0,0,0,0,0,0,0,
174,256.2,364.5,270.0,346.1,286.2,362.5,74.95,119.2,176.1,140.7,76.02,67.0,98.11,74.15,47.39,18.89,0,0,0,0,0,0,0,0,0,0,0,0,0,0,0,0,
175,267.2,341.9,248.1,309.5,257.9,323.3,42.11,100.3,162.0,118.6,49.38,48.81,77.68,55.94,32.78,5.233,0,0,0,0,0,0,0,0,0,0,0,0,0,0,0,0,
176,244.7,269.2,225.5,279.3,228.1,292.6,38.36,66.5,150.3,100.9,39.32,34.9,67.89,55.82,26.35,5.298,0,0,0,0,0,0,0,0,0,0,0,0,0,0,0,0,
177,190.0,217.9,210.8,254.6,227.9,267.4,55.61,79.46,141.3,103.3,51.32,36.52,67.17,67.04,33.71,19.67,0,0,0,0,0,0,0,0,0,0,0,0,0,0,0,0,
178,150.3,177.8,197.2,252.7,209.0,262.6,56.28,105.1,125.2,105.1,52.44,38.71,64.03,64.54,39.37,20.66,0,0,0,0,0,0,0,0,0,0,0,0,0,0,0,0,
179,113.5,132.8,185.8,244.8,192.0,256.4,51.72,95.24,120.6,106.5,37.39,31.72,52.25,48.05,27.43,-2.596,0,0,0,0,0,0,0,0,0,0,0,0,0,0,0,0,
180,64.8,103.5,156.9,190.7,176.1,203.9,31.61,79.81,110.3,93.04,21.54,25.52,34.9,32.77,17.3,-11.13,0,0,0,0,0,0,0,0,0,0,0,0,0,0,0,0,
181,20.56,75.46,122.2,136.7,131.0,146.3,7.117,80.37,73.01,59.12,19.87,36.56,33.94,39.41,34.76,13.56,0,0,0,0,0,0,0,0,0,0,0,0,0,0,0,0,
182,10.36,39.34,119.0,118.5,105.2,126.6,14.86,72.6,50.07,48.12,23.38,51.59,42.12,55.96,46.4,31.77,0,0,0,0,0,0,0,0,0,0,0,0,0,0,0,0,
183,-1.724,13.0,113.3,108.1,104.5,116.1,19.04,57.06,49.41,60.12,13.06,52.04,34.23,52.81,25.81,24.2,0,0,0,0,0,0,0,0,0,0,0,0,0,0,0,0,
184,-56.51,-23.22,76.47,98.92,86.4,106.0,-5.305,49.49,37.52,58.27,0.7893,43.67,24.17,40.0,10.53,14.72,0,0,0,0,0,0,0,0,0,0,0,0,0,0,0,0,
185,-86.03,-77.21,52.59,87.84,70.75,96.39,-13.24,32.97,23.0,44.68,-3.055,22.09,20.74,24.21,3.478,2.131,0,0,0,0,0,0,0,0,0,0,0,0,0,0,0,0,
186,-93.53,-94.6,51.42,63.19,58.75,71.46,1.929,14.01,16.55,29.09,-6.052,-4.728,8.901,-0.1217,-18.72,-18.71,0,0,0,0,0,0,0,0,0,0,0,0,0,0,0,0,
187,-128.8,-93.15,44.49,46.51,37.74,52.05,9.305,25.6,18.69,20.87,1.007,-4.867,-0.217,-8.387,-26.09,-20.14,0,0,0,0,0,0,0,0,0,0,0,0,0,0,0,0,
188,-126.4,-137.2,37.45,43.25,37.83,48.43,8.803,38.1,31.31,24.58,10.97,-0.099,0.3282,-9.045,-20.67,-18.58,0,0,0,0,0,0,0,0,0,0,0,0,0,0,0,0,
189,-132.7,-167.2,32.33,20.02,45.43,25.12,3.571,21.39,27.16,14.79,-1.756,-20.59,-8.84,-32.1,-35.6,-45.59,0,0,0,0,0,0,0,0,0,0,0,0,0,0,0,0,
190,-209.7,-158.8,15.01,-25.35,33.95,-20.63,-11.76,6.587,7.702,-4.324,-13.91,-27.96,-16.47,-46.31,-37.56,-60.95,0,0,0,0,0,0,0,0,0,0,0,0,0,0,0,0,
191,-219.0,-196.8,1.821,-44.77,32.76,-40.32,-18.57,6.378,15.14,0.7525,-2.193,-9.801,0.4044,-32.26,-15.25,-45.93,0,0,0,0,0,0,0,0,0,0,0,0,0,0,0,0,
192,-173.9,-243.1,5.682,-22.78,42.17,-20.24,-11.83,15.18,41.37,17.04,1.777,0.665,17.81,-17.45,-10.98,-32.94,0,0,0,0,0,0,0,0,0,0,0,0,0,0,0,0,
193,-208.8,-245.6,-3.791,-19.45,19.21,-16.85,-26.04,15.83,41.75,17.83,-12.6,7.283,6.571,-6.75,-18.31,-25.59,0,0,0,0,0,0,0,0,0,0,0,0,0,0,0,0,
194,-255.8,-261.7,-31.45,-62.7,-28.62,-58.73,-50.97,-11.73,14.36,9.105,-24.64,13.74,-16.82,-4.45,-19.8,-27.84,0,0,0,0,0,0,0,0,0,0,0,0,0,0,0,0,
195,-270.2,-268.2,-40.88,-90.83,-46.81,-89.13,-43.21,-22.38,-4.737,-2.043,-31.89,8.016,-23.45,-14.81,-21.6,-35.34,0,0,0,0,0,0,0,0,0,0,0,0,0,0,0,0,
196,-293.7,-258.1,-42.95,-72.71,-33.3,-72.98,-29.91,-7.077,-5.413,-15.09,-29.59,6.098,-14.12,-13.43,-12.17,-19.27,0,0,0,0,0,0,0,0,0,0,0,0,0,0,0,0,
197,-277.3,-307.4,-59.18,-64.25,-37.48,-62.96,-36.26,-16.99,-8.52,-25.9,-21.34,10.09,-9.723,-6.083,3.084,-1.393,0,0,0,0,0,0,0,0,0,0,0,0,0,0,0,0,
198,-234.6,-345.0,-56.39,-97.84,-51.5,-95.9,-32.01,-22.46,-13.04,-34.29,-21.98,4.541,-11.41,-12.24,11.06,-6.194,0,0,0,0,0,0,0,0,0,0,0,0,0,0,0,0,
199,-244.1,-285.6,-37.2,-116.3,-39.88,-116.3,-26.7,-2.422,-10.24,-33.4,-8.396,2.66,1.047,-9.768,29.3,-2.376,0,0,0,0,0,0,0,0,0,0,0,0,0,0,0,0,
200,-260.8,-225.6,-42.22,-83.44,-31.28,-84.43,-33.69,2.303,-9.148,-14.45,27.43,7.963,17.77,1.782,50.13,12.14,0,0,0,0,0,0,0,0,0,0,0,0,0,0,0,0,
201,-243.6,-231.0,-54.63,-58.31,-48.93,-57.56,-27.41,-3.934,-14.49,4.779,40.57,3.829,10.57,-2.491,49.76,11.96,0,0,0,0,0,0,0,0,0,0,0,0,0,0,0,0,
202,-257.7,-249.3,-50.37,-72.09,-59.64,-69.89,-21.74,-12.47,-28.6,3.138,23.21,-2.321,-7.563,-9.5,42.42,6.875,0,0,0,0,0,0,0,0,0,0,0,0,0,0,0,0,
203,-290.3,-253.4,-52.04,-85.63,-51.21,-83.79,-39.3,-24.91,-43.9,-11.96,0.0593,-9.582,-23.87,-16.84,26.2,-4.583,0,0,0,0,0,0,0,0,0,0,0,0,0,0,0,0,
204,-268.3,-261.9,-72.39,-89.09,-48.48,-87.02,-59.76,-33.58,-47.95,-27.37,-28.13,-26.9,-47.12,-36.25,-10.6,-31.49,0,0,0,0,0,0,0,0,0,0,0,0,0,0,0,0,
205,-231.6,-276.1,-85.47,-89.22,-50.69,-87.04,-59.3,-47.08,-44.83,-31.25,-39.17,-23.42,-44.42,-29.15,-19.31,-28.93,0,0,0,0,0,0,0,0,0,0,0,0,0,0,0,0,
206,-220.0,-271.7,-64.04,-88.26,-41.53,-87.28,-30.73,-43.43,-24.86,-11.95,-10.43,7.525,-2.344,11.05,16.0,13.22,0,0,0,0,0,0,0,0,0,0,0,0,0,0,0,0,
207,-223.1,-243.1,-35.59,-99.46,-36.89,-98.97,-4.45,-14.67,7.63,11.3,17.89,15.65,20.5,23.28,30.13,25.72,0,0,0,0,0,0,0,0,0,0,0,0,0,0,0,0,
208,-263.6,-222.0,-49.11,-101.1,-41.17,-100.9,-17.39,-0.353,8.549,7.756,11.81,6.003,8.939,8.535,18.85,12.41,0,0,0,0,0,0,0,0,0,0,0,0,0,0,0,0,
209,-281.9,-230.1,-79.51,-80.71,-32.86,-81.09,-40.08,-2.503,-15.26,-12.52,-2.14,21.93,1.931,14.06,28.08,32.1,0,0,0,0,0,0,0,0,0,0,0,0,0,0,0,0,
210,-234.9,-247.9,-76.8,-78.94,-26.16,-77.9,-32.78,-16.01,-19.24,-17.52,2.094,37.62,4.536,29.8,36.8,50.55,0,0,0,0,0,0,0,0,0,0,0,0,0,0,0,0,
211,-236.9,-257.3,-61.82,-100.1,-28.27,-97.68,-20.9,-34.76,-13.12,-10.51,6.91,18.4,4.975,31.14,24.48,30.48,0,0,0,0,0,0,0,0,0,0,0,0,0,0,0,0,
212,-278.7,-272.2,-68.27,-106.3,-26.66,-105.4,-28.47,-22.95,-15.66,-14.86,-2.817,-5.223,2.063,25.8,25.95,16.2,0,0,0,0,0,0,0,0,0,0,0,0,0,0,0,0,
213,-262.9,-291.0,-81.35,-95.96,-42.96,-95.77,-25.98,4.233,-15.18,-14.74,1.309,4.95,7.175,30.67,50.14,30.28,0,0,0,0,0,0,0,0,0,0,0,0,0,0,0,0,
214,-256.8,-277.8,-84.38,-99.2,-64.08,-97.24,-12.06,10.18,-11.62,4.586,20.76,30.58,23.46,42.03,57.95,41.06,0,0,0,0,0,0,0,0,0,0,0,0,0,0,0,0,
215,-269.3,-231.9,-85.8,-122.4,-67.0,-120.8,-32.31,6.821,-13.86,8.302,10.2,26.21,17.96,32.65,33.83,24.41,0,0,0,0,0,0,0,0,0,0,0,0,0,0,0,0,
216,-237.7,-221.3,-94.79,-141.5,-81.42,-141.8,-67.87,1.389,-21.82,-10.51,-18.81,-1.898,-10.18,2.613,9.605,-5.313,0,0,0,0,0,0,0,0,0,0,0,0,0,0,0,0,
217,-249.5,-283.8,-108.4,-150.0,-85.76,-151.3,-68.06,-22.36,-34.21,-26.9,-30.94,-22.05,-25.69,-26.31,-6.256,-24.43,0,0,0,0,0,0,0,0,0,0,0,0,0,0,0,0,
218,-300.3,-329.2,-113.3,-149.6,-66.82,-153.3,-58.76,-51.81,-44.64,-48.98,-40.28,-35.93,-37.7,-48.74,-24.08,-31.78,0,0,0,0,0,0,0,0,0,0,0,0,0,0,0,0,
219,-268.2,-281.4,-104.3,-129.8,-85.01,-135.0,-66.49,-39.95,-46.87,-64.98,-43.93,-39.27,-51.98,-53.91,-20.65,-29.65,0,0,0,0,0,0,0,0,0,0,0,0,0,0,0,0,
220,-232.4,-227.6,-103.7,-112.8,-112.9,-115.1,-73.08,-9.955,-51.05,-54.46,-39.66,-32.42,-50.5,-45.92,-8.288,-23.55,0,0,0,0,0,0,0,0,0,0,0,0,0,0,0,0,
221,-264.3,-233.2,-119.7,-118.1,-89.73,-119.4,-75.04,-32.8,-58.55,-49.2,-48.54,-32.87,-42.36,-37.8,-16.05,-18.25,0,0,0,0,0,0,0,0,0,0,0,0,0,0,0,0,
222,-256.3,-248.0,-123.0,-128.3,-63.22,-131.3,-73.38,-58.43,-53.09,-53.91,-49.38,-26.08,-32.58,-16.6,-15.38,-8.739,0,0,0,0,0,0,0,0,0,0,0,0,0,0,0,0,
223,-223.5,-262.1,-113.2,-139.2,-75.17,-141.6,-73.57,-30.06,-44.73,-41.59,-36.15,-14.41,-22.54,-0.4407,-3.833,-4.439,0,0,0,0,0,0,0,0,0,0,0,0,0,0,0,0,
224,-228.8,-270.4,-110.0,-137.9,-87.27,-140.1,-77.09,-14.49,-44.37,-26.36,-28.96,-17.52,-14.65,-2.937,8.417,6.614,0,0,0,0,0,0,0,0,0,0,0,0,0,0,0,0,
225,-226.0,-240.3,-106.9,-120.3,-72.84,-123.4,-67.67,-28.39,-32.68,-23.56,-13.36,-14.12,2.448,8.066,34.95,34.09,0,0,0,0,0,0,0,0,0,0,0,0,0,0,0,0,
226,-245.8,-215.8,-112.8,-129.0,-69.65,-130.2,-63.96,-33.99,-24.27,-31.67,-2.578,-10.24,9.069,14.48,38.9,32.06,0,0,0,0,0,0,0,0,0,0,0,0,0,0,0,0,
227,-273.2,-227.9,-120.4,-147.7,-84.67,-148.2,-75.28,-40.71,-37.46,-39.82,-7.026,-23.36,1.811,2.99,25.17,13.94,0,0,0,0,0,0,0,0,0,0,0,0,0,0,0,0,
228,-219.2,-238.3,-100.4,-131.5,-68.94,-134.1,-70.95,-42.72,-33.54,-25.0,3.058,-22.24,13.28,13.0,42.88,31.55,0,0,0,0,0,0,0,0,0,0,0,0,0,0,0,0,
229,-186.0,-230.6,-97.5,-123.3,-64.14,-126.2,-65.87,-36.68,-14.47,-10.31,6.562,-6.785,18.25,22.74,50.98,46.9,0,0,0,0,0,0,0,0,0,0,0,0,0,0,0,0,
230,-228.3,-221.9,-132.6,-140.3,-114.0,-142.0,-78.35,-29.46,-25.16,-24.92,-8.794,0.081,0.1574,12.11,35.37,38.24,0,0,0,0,0,0,0,0,0,0,0,0,0,0,0,0,
231,-238.1,-234.9,-134.4,-132.7,-127.7,-135.0,-86.97,-5.103,-45.74,-34.01,-10.76,7.253,-3.616,16.82,38.63,37.67,0,0,0,0,0,0,0,0,0,0,0,0,0,0,0,0,
232,-229.3,-240.8,-109.3,-116.0,-87.3,-118.4,-90.2,5.976,-45.65,-23.65,-13.01,13.3,-1.879,22.86,37.43,37.69,0,0,0,0,0,0,0,0,0,0,0,0,0,0,0,0,
233,-223.4,-204.4,-115.3,-127.8,-78.65,-128.7,-91.11,-26.92,-39.61,-22.01,-25.53,5.799,-14.63,6.54,15.5,21.62,0,0,0,0,0,0,0,0,0,0,0,0,0,0,0,0,
234,-194.3,-191.4,-125.6,-142.6,-96.69,-143.1,-96.45,-56.77,-40.19,-33.5,-32.51,-14.08,-27.04,-11.83,-5.061,-4.312,0,0,0,0,0,0,0,0,0,0,0,0,0,0,0,0,
235,-192.8,-215.2,-119.8,-144.3,-102.6,-146.4,-109.6,-47.87,-53.65,-50.36,-33.47,-22.54,-29.55,-15.65,-7.805,-8.855,0,0,0,0,0,0,0,0,0,0,0,0,0,0,0,0,
236,-208.7,-210.6,-131.8,-152.4,-107.5,-155.7,-101.5,-27.87,-70.63,-58.26,-24.2,-4.255,-22.47,-7.416,7.095,11.08,0,0,0,0,0,0,0,0,0,0,0,0,0,0,0,0,
237,-225.8,-214.6,-161.8,-157.9,-126.5,-160.9,-89.2,-32.66,-73.61,-51.45,-28.93,-2.913,-28.54,-17.5,-9.841,-7.01,0,0,0,0,0,0,0,0,0,0,0,0,0,0,0,0,
238,-251.7,-235.7,-166.5,-141.0,-144.4,-144.5,-98.01,-46.59,-75.88,-52.88,-54.27,-29.29,-47.37,-43.01,-48.99,-42.43,0,0,0,0,0,0,0,0,0,0,0,0,0,0,0,0,
239,-208.9,-207.6,-128.0,-121.7,-120.1,-125.8,-81.05,-30.45,-74.25,-57.92,-46.74,-29.77,-39.46,-33.82,-33.98,-23.64,0,0,0,0,0,0,0,0,0,0,0,0,0,0,0,0,
240,-150.4,-177.7,-97.75,-116.9,-79.39,-120.0,-48.4,-11.72,-57.28,-51.87,-19.53,-17.05,-23.53,-11.88,1.96,-2.244,0,0,0,0,0,0,0,0,0,0,0,0,0,0,0,0,
241,-186.8,-197.0,-116.0,-111.8,-90.59,-114.5,-57.11,-28.43,-60.57,-56.05,-20.47,-23.94,-28.48,-17.18,5.8,-11.82,0,0,0,0,0,0,0,0,0,0,0,0,0,0,0,0,
242,-223.0,-213.5,-136.2,-112.4,-111.8,-114.9,-74.68,-42.3,-79.04,-62.08,-31.19,-23.9,-31.17,-19.19,2.987,-6.409,0,0,0,0,0,0,0,0,0,0,0,0,0,0,0,0,
243,-221.0,-200.2,-128.3,-133.8,-88.88,-135.8,-73.24,-28.84,-71.94,-48.96,-44.13,-23.8,-34.85,-17.33,-11.12,-11.87,0,0,0,0,0,0,0,0,0,0,0,0,0,0,0,0,
244,-235.5,-180.3,-127.2,-145.1,-74.68,-147.8,-76.19,-24.5,-63.01,-42.97,-51.94,-41.31,-35.27,-27.55,-25.86,-37.13,0,0,0,0,0,0,0,0,0,0,0,0,0,0,0,0,
245,-191.6,-181.3,-128.0,-125.4,-82.19,-127.8,-72.04,-42.4,-55.82,-48.1,-25.37,-43.39,-9.161,-23.98,-7.647,-27.66,0,0,0,0,0,0,0,0,0,0,0,0,0,0,0,0,
246,-122.9,-194.9,-109.3,-118.7,-73.74,-119.1,-66.49,-58.82,-30.27,-47.02,-5.725,-30.66,0.3497,-19.35,-5.554,-13.17,0,0,0,0,0,0,0,0,0,0,0,0,0,0,0,0,
247,-150.2,-191.1,-99.51,-136.6,-82.58,-137.5,-82.55,-59.57,-37.6,-57.09,-35.09,-34.34,-29.61,-36.14,-41.01,-33.83,0,0,0,0,0,0,0,0,0,0,0,0,0,0,0,0,
248,-174.8,-187.3,-108.1,-130.8,-110.7,-133.2,-84.39,-49.55,-75.46,-71.98,-60.49,-40.84,-45.04,-43.67,-49.04,-39.37,0,0,0,0,0,0,0,0,0,0,0,0,0,0,0,0,
249,-159.6,-192.4,-114.1,-116.1,-93.61,-117.3,-65.64,-44.61,-76.53,-69.6,-40.38,-31.17,-31.1,-31.36,-20.8,-13.69,0,0,0,0,0,0,0,0,0,0,0,0,0,0,0,0,
250,-216.1,-182.3,-115.5,-133.0,-57.45,-133.9,-67.47,-49.77,-64.61,-67.64,-14.9,-15.97,-20.96,-21.21,-3.339,1.09,0,0,0,0,0,0,0,0,0,0,0,0,0,0,0,0,
251,-234.1,-175.3,-111.3,-147.2,-65.51,-149.9,-71.46,-51.6,-69.96,-71.02,-22.56,-9.946,-28.66,-24.71,-10.25,-6.144,0,0,0,0,0,0,0,0,0,0,0,0,0,0,0,0,
252,-155.4,-186.7,-114.2,-149.9,-96.83,-153.4,-61.87,-56.93,-73.37,-71.17,-39.23,-21.67,-46.2,-45.44,-23.33,-26.49,0,0,0,0,0,0,0,0,0,0,0,0,0,0,0,0,
253,-158.9,-198.7,-133.9,-169.5,-120.9,-173.5,-70.3,-77.08,-93.51,-78.07,-38.04,-39.57,-55.15,-63.72,-23.33,-42.36,0,0,0,0,0,0,0,0,0,0,0,0,0,0,0,0,
254,-195.4,-200.4,-135.8,-169.6,-124.4,-174.9,-83.71,-79.91,-116.3,-81.92,-37.75,-41.74,-52.09,-57.73,-18.37,-33.83,0,0,0,0,0,0,0,0,0,0,0,0,0,0,0,0,
255,-174.5,-190.9,-118.9,-142.5,-96.6,-147.6,-76.53,-52.53,-99.14,-73.41,-33.24,-30.63,-41.36,-40.32,-9.501,-10.03,0,0,0,0,0,0,0,0,0,0,0,0,0,0,0,0,
256,-213.7,-194.6,-120.3,-143.0,-71.79,-146.3,-67.35,-39.44,-76.68,-67.52,-4.184,-21.36,-19.57,-28.29,19.97,12.88,0,0,0,0,0,0,0,0,0,0,0,0,0,0,0,0,
257,-236.9,-210.1,-126.7,-159.1,-80.78,-162.0,-72.61,-54.88,-82.29,-72.51,-1.833,-25.46,-17.04,-33.22,24.44,14.08,0,0,0,0,0,0,0,0,0,0,0,0,0,0,0,0,
258,-170.3,-191.8,-123.7,-152.8,-105.8,-156.4,-87.74,-65.11,-94.18,-91.18,-44.24,-40.39,-45.8,-53.07,-16.69,-10.18,0,0,0,0,0,0,0,0,0,0,0,0,0,0,0,0,
259,-154.1,-158.6,-127.1,-139.9,-123.0,-143.6,-89.88,-55.52,-94.78,-102.5,-50.72,-43.45,-48.02,-58.74,-22.25,-14.36,0,0,0,0,0,0,0,0,0,0,0,0,0,0,0,0,
260,-158.2,-163.5,-132.7,-133.8,-121.2,-137.3,-73.82,-44.76,-80.68,-82.38,-18.83,-35.72,-22.09,-50.57,7.331,1.51,0,0,0,0,0,0,0,0,0,0,0,0,0,0,0,0,
261,-149.0,-186.7,-131.9,-132.2,-103.3,-134.3,-68.25,-43.4,-69.46,-60.68,-12.69,-29.31,-16.92,-41.04,11.32,2.393,0,0,0,0,0,0,0,0,0,0,0,0,0,0,0,0,
262,-204.3,-177.9,-121.6,-136.2,-84.86,-137.2,-65.64,-36.57,-72.99,-54.26,-10.03,-15.26,-9.416,-17.14,17.15,7.293,0,0,0,0,0,0,0,0,0,0,0,0,0,0,0,0,
263,-207.3,-141.8,-106.8,-130.0,-78.9,-133.4,-48.81,-29.65,-69.54,-45.41,2.935,-10.54,6.833,-5.261,22.3,7.717,0,0,0,0,0,0,0,0,0,0,0,0,0,0,0,0,
264,-119.9,-138.2,-102.7,-107.2,-86.96,-111.5,-43.86,-37.09,-59.48,-45.51,-5.842,-18.95,-1.887,-18.63,5.337,-9.047,0,0,0,0,0,0,0,0,0,0,0,0,0,0,0,0,
265,-100.5,-165.6,-100.2,-96.43,-96.61,-98.67,-51.5,-36.17,-59.54,-48.41,-13.91,-7.604,-7.03,-12.15,6.476,-4.06,0,0,0,0,0,0,0,0,0,0,0,0,0,0,0,0,
266,-131.7,-155.3,-93.22,-109.1,-88.16,-111.9,-47.09,-33.18,-60.79,-36.5,-14.91,-0.852,1.104,-3.828,5.163,-2.39,0,0,0,0,0,0,0,0,0,0,0,0,0,0,0,0,
267,-118.2,-126.5,-89.86,-106.8,-54.18,-110.8,-31.15,-53.33,-56.67,-34.1,-29.96,-20.32,-4.962,-25.17,-16.22,-27.64,0,0,0,0,0,0,0,0,0,0,0,0,0,0,0,0,
268,-109.0,-118.2,-77.38,-77.75,-40.86,-79.88,-14.08,-55.95,-49.58,-41.3,-29.79,-25.25,-2.519,-31.78,-9.46,-28.92,0,0,0,0,0,0,0,0,0,0,0,0,0,0,0,0,
269,-145.7,-106.9,-63.42,-74.6,-85.54,-76.37,-12.66,-27.37,-44.51,-44.95,-21.62,-21.32,2.011,-26.9,-3.875,-20.66,0,0,0,0,0,0,0,0,0,0,0,0,0,0,0,0,
270,-156.2,-121.1,-74.85,-113.8,-108.9,-116.6,-32.8,-23.31,-53.52,-61.73,-48.15,-37.39,-27.35,-51.7,-33.39,-42.65,0,0,0,0,0,0,0,0,0,0,0,0,0,0,0,0,
271,-116.3,-150.8,-99.51,-133.1,-73.58,-136.0,-53.43,-45.65,-73.67,-75.3,-74.86,-52.32,-53.81,-74.77,-49.73,-60.16,0,0,0,0,0,0,0,0,0,0,0,0,0,0,0,0,
272,-110.3,-122.8,-107.7,-106.9,-78.57,-111.2,-57.51,-46.21,-85.43,-68.98,-55.88,-45.13,-39.8,-63.19,-31.8,-44.11,0,0,0,0,0,0,0,0,0,0,0,0,0,0,0,0,
273,-135.1,-107.1,-99.33,-92.09,-113.9,-95.96,-48.4,-27.42,-74.41,-67.9,-23.3,-25.47,-17.31,-44.62,-5.296,-19.37,0,0,0,0,0,0,0,0,0,0,0,0,0,0,0,0,
274,-155.0,-159.6,-103.0,-109.7,-98.45,-111.4,-46.72,-30.24,-60.1,-74.17,-26.0,-27.9,-24.87,-53.24,-7.432,-25.56,0,0,0,0,0,0,0,0,0,0,0,0,0,0,0,0,
275,-200.2,-169.5,-116.4,-112.5,-90.57,-115.8,-51.77,-46.31,-76.74,-79.81,-48.28,-54.12,-48.49,-74.85,-36.82,-47.93,0,0,0,0,0,0,0,0,0,0,0,0,0,0,0,0,
276,-190.5,-116.0,-102.8,-100.0,-104.2,-104.4,-32.18,-42.36,-92.94,-84.23,-44.32,-57.21,-45.24,-70.36,-40.15,-43.17,0,0,0,0,0,0,0,0,0,0,0,0,0,0,0,0,
277,-113.4,-90.36,-85.26,-110.2,-78.1,-112.8,-9.695,-45.71,-70.68,-73.96,-31.94,-45.99,-27.22,-54.75,-21.71,-33.07,0,0,0,0,0,0,0,0,0,0,0,0,0,0,0,0,
278,-124.1,-118.0,-99.94,-120.5,-75.18,-124.4,-23.53,-55.27,-59.99,-64.18,-37.2,-46.22,-26.59,-53.86,-12.96,-33.13,0,0,0,0,0,0,0,0,0,0,0,0,0,0,0,0,
279,-176.0,-162.8,-105.6,-109.2,-111.3,-114.5,-27.79,-17.75,-71.69,-63.45,-22.52,-33.75,-15.1,-43.21,2.084,-20.44,0,0,0,0,0,0,0,0,0,0,0,0,0,0,0,0,
280,-147.8,-154.3,-88.27,-106.3,-95.43,-109.0,2.462,15.6,-49.84,-45.17,4.16,-25.67,4.557,-30.09,5.977,-17.3,0,0,0,0,0,0,0,0,0,0,0,0,0,0,0,0,
281,-122.5,-109.7,-86.61,-107.3,-68.79,-109.3,7.385,-10.12,-29.44,-32.09,-6.643,-34.83,-10.43,-36.49,-16.67,-24.47,0,0,0,0,0,0,0,0,0,0,0,0,0,0,0,0,
282,-151.8,-136.2,-89.67,-97.54,-84.86,-100.3,-13.57,-14.05,-54.86,-47.83,-25.4,-21.29,-27.06,-31.32,-22.75,-9.911,0,0,0,0,0,0,0,0,0,0,0,0,0,0,0,0,
283,-172.6,-171.1,-77.43,-96.71,-75.03,-99.36,-9.849,24.52,-67.37,-51.62,-19.2,-4.57,-14.46,-16.33,-9.294,2.292,0,0,0,0,0,0,0,0,0,0,0,0,0,0,0,0,
284,-143.3,-110.2,-68.32,-88.85,-42.11,-92.5,-0.9795,22.05,-47.05,-34.67,-16.0,-14.08,-12.47,-22.68,-10.66,-5.133,0,0,0,0,0,0,0,0,0,0,0,0,0,0,0,0,
285,-93.5,-60.33,-68.97,-67.93,-41.97,-70.35,-11.21,-8.566,-41.75,-24.18,-25.64,-25.68,-29.49,-34.46,-30.67,-21.05,0,0,0,0,0,0,0,0,0,0,0,0,0,0,0,0,
286,-93.15,-83.12,-75.05,-72.74,-59.6,-72.62,-17.82,-4.22,-57.06,-25.73,-39.32,-41.57,-44.05,-44.35,-53.86,-47.31,0,0,0,0,0,0,0,0,0,0,0,0,0,0,0,0,
287,-112.7,-96.57,-82.62,-79.08,-81.45,-81.47,-20.43,4.994,-71.98,-37.09,-47.55,-49.72,-51.13,-50.46,-54.18,-49.58,0,0,0,0,0,0,0,0,0,0,0,0,0,0,0,0,
288,-99.25,-91.9,-81.12,-61.33,-91.9,-66.16,-22.61,-11.83,-72.12,-35.54,-35.05,-24.1,-41.67,-30.44,-34.9,-17.31,0,0,0,0,0,0,0,0,0,0,0,0,0,0,0,0,
289,-110.0,-81.5,-74.88,-62.55,-68.18,-65.69,-13.21,-16.9,-57.53,-20.87,-26.12,-17.06,-35.76,-20.76,-40.1,-20.97,0,0,0,0,0,0,0,0,0,0,0,0,0,0,0,0,
290,-141.0,-62.83,-77.27,-74.13,-57.29,-76.59,-8.569,-15.75,-55.63,-37.57,-42.45,-51.66,-57.97,-55.7,-65.14,-62.68,0,0,0,0,0,0,0,0,0,0,0,0,0,0,0,0,
291,-124.5,-87.14,-83.76,-69.41,-85.33,-71.88,-6.458,-41.34,-69.62,-70.22,-40.93,-61.68,-65.0,-73.78,-58.45,-59.47,0,0,0,0,0,0,0,0,0,0,0,0,0,0,0,0,
292,-87.73,-121.5,-73.39,-73.24,-87.56,-75.69,21.74,-51.02,-67.39,-73.62,-5.902,-40.58,-32.04,-47.85,-22.21,-15.17,0,0,0,0,0,0,0,0,0,0,0,0,0,0,0,0,
293,-75.75,-88.83,-54.47,-80.29,-55.73,-83.9,43.01,-25.94,-48.09,-68.79,6.663,-42.55,-14.82,-39.68,-8.429,-3.043,0,0,0,0,0,0,0,0,0,0,0,0,0,0,0,0,
294,-103.6,-70.04,-75.64,-90.79,-66.18,-94.2,12.63,-21.85,-47.75,-78.62,-19.19,-63.08,-36.63,-61.06,-29.95,-28.56,0,0,0,0,0,0,0,0,0,0,0,0,0,0,0,0,
295,-156.0,-122.5,-115.7,-117.3,-105.4,-120.8,-21.04,-35.92,-72.96,-86.6,-35.01,-63.82,-52.61,-64.33,-41.76,-42.71,0,0,0,0,0,0,0,0,0,0,0,0,0,0,0,0,
296,-155.1,-130.3,-101.1,-108.3,-103.3,-113.0,-6.119,-23.87,-83.58,-79.43,-29.43,-46.36,-46.52,-47.48,-24.18,-28.86,0,0,0,0,0,0,0,0,0,0,0,0,0,0,0,0,
297,-103.6,-84.84,-71.97,-66.35,-103.7,-69.86,10.69,-4.11,-72.89,-67.64,-34.43,-36.97,-46.24,-42.02,-18.2,-16.58,0,0,0,0,0,0,0,0,0,0,0,0,0,0,0,0,
298,-92.97,-92.91,-77.86,-65.54,-128.8,-68.49,-3.248,-7.051,-73.72,-69.89,-42.4,-37.69,-52.24,-45.14,-30.98,-20.67,0,0,0,0,0,0,0,0,0,0,0,0,0,0,0,0,
299,-100.1,-97.03,-56.07,-79.08,-97.24,-82.31,4.633,-13.48,-66.74,-67.34,-25.16,-32.54,-37.64,-37.73,-21.03,-15.79,0,0,0,0,0,0,0,0,0,0,0,0,0,0,0,0,
300,-70.99,-49.48,-18.32,-52.0,-48.63,-53.03,34.24,-1.973,-30.64,-39.97,-4.865,-26.68,-14.34,-28.91,-5.335,-1.352,0,0,0,0,0,0,0,0,0,0,0,0,0,0,0,0,
301,-57.32,-60.03,-29.38,-32.89,-59.95,-32.65,23.7,6.314,-11.14,-23.76,-12.63,-29.53,-16.02,-30.9,-21.15,-3.882,0,0,0,0,0,0,0,0,0,0,0,0,0,0,0,0,
302,-77.23,-93.74,-38.12,-53.11,-62.18,-53.55,1.76,-4.983,-22.05,-32.16,-24.21,-27.46,-24.97,-27.11,-33.42,-10.82,0,0,0,0,0,0,0,0,0,0,0,0,0,0,0,0,
303,-89.14,-46.87,-18.28,-62.2,-36.73,-63.45,26.84,-9.341,-19.8,-29.39,-9.388,-15.93,-9.114,-7.936,-13.16,2.2,0,0,0,0,0,0,0,0,0,0,0,0,0,0,0,0,
304,-76.81,-14.35,-17.62,-34.45,-30.72,-37.39,56.29,1.961,2.647,-14.06,11.21,-11.37,8.894,5.272,13.02,23.36,0,0,0,0,0,0,0,0,0,0,0,0,0,0,0,0,
305,-43.37,-32.16,-19.32,1.566,-19.86,-1.009,49.09,6.99,11.77,-7.942,15.11,-18.24,7.892,1.869,25.28,27.07,0,0,0,0,0,0,0,0,0,0,0,0,0,0,0,0,
306,-28.86,-13.28,-10.5,4.367,-17.05,4.195,34.78,10.45,-1.461,-7.177,12.23,-29.03,6.359,-3.538,19.78,9.799,0,0,0,0,0,0,0,0,0,0,0,0,0,0,0,0,
307,-39.93,-10.37,-22.58,-34.1,-40.46,-34.73,20.56,18.39,-13.66,-5.834,3.168,-38.52,3.025,-6.427,3.381,-2.01,0,0,0,0,0,0,0,0,0,0,0,0,0,0,0,0,
308,-29.99,-48.05,-30.8,-46.57,-40.24,-48.83,4.076,13.6,-16.88,-8.447,-6.857,-35.26,-5.953,-7.832,-4.375,2.41,0,0,0,0,0,0,0,0,0,0,0,0,0,0,0,0,
309,-29.31,-35.34,-13.55,-7.124,-19.88,-8.372,5.9,3.89,-15.26,-10.86,4.147,-14.04,2.016,1.76,-3.308,7.688,0,0,0,0,0,0,0,0,0,0,0,0,0,0,0,0,
310,-50.14,-15.24,-16.76,-6.063,-8.105,-5.611,1.529,0.9445,-4.383,-5.365,13.77,3.939,10.22,13.18,-2.962,16.45,0,0,0,0,0,0,0,0,0,0,0,0,0,0,0,0,
311,-38.38,-35.88,-45.27,-42.87,-7.461,-43.25,-16.46,-10.12,-2.126,1.08,1.873,3.555,-2.584,11.11,-0.0268,22.86,0,0,0,0,0,0,0,0,0,0,0,0,0,0,0,0,
312,-35.66,-21.19,-44.43,-26.02,-33.58,-28.21,6.172,-15.95,-12.09,0.078,8.861,-0.0668,4.587,12.39,6.006,11.54,0,0,0,0,0,0,0,0,0,0,0,0,0,0,0,0,
313,-60.43,4.192,-14.42,-2.298,-53.6,-3.572,42.78,-5.342,-0.9501,3.221,33.07,0.6802,35.7,25.6,11.31,5.79,0,0,0,0,0,0,0,0,0,0,0,0,0,0,0,0,
314,-41.85,-15.65,-2.584,-22.52,-29.32,-22.54,33.88,-14.34,20.93,19.88,28.85,-3.123,40.19,27.96,13.35,13.43,0,0,0,0,0,0,0,0,0,0,0,0,0,0,0,0,
315,-11.36,-14.71,-16.96,-17.95,-0.0732,-19.24,24.6,-33.2,25.24,29.92,14.11,-8.382,28.96,17.53,14.06,8.782,0,0,0,0,0,0,0,0,0,0,0,0,0,0,0,0,
316,-24.55,11.75,-29.51,3.288,14.46,2.2,41.77,-17.45,28.31,20.29,21.2,-7.581,38.34,15.74,22.17,3.744,0,0,0,0,0,0,0,0,0,0,0,0,0,0,0,0,
317,-33.88,0.3157,-20.9,-6.125,29.29,-4.722,46.24,11.87,38.43,19.54,30.45,0.7872,48.55,23.29,28.64,15.25,0,0,0,0,0,0,0,0,0,0,0,0,0,0,0,0,
318,-9.732,-17.83,-17.06,-9.232,21.71,-7.411,34.71,19.26,38.89,37.72,19.44,10.28,35.43,23.41,15.68,18.98,0,0,0,0,0,0,0,0,0,0,0,0,0,0,0,0,
319,0.6981,-2.78,-46.89,0.5771,-12.07,0.0713,18.52,2.697,21.6,37.83,-1.975,7.401,13.57,12.75,-0.3963,8.168,0,0,0,0,0,0,0,0,0,0,0,0,0,0,0,0,
320,-24.15,4.886,-58.9,-6.582,-22.17,-8.84,13.22,-21.56,0.6141,16.14,-10.41,2.413,4.527,3.784,-1.206,7.202,0,0,0,0,0,0,0,0,0,0,0,0,0,0,0,0,
321,-27.5,-18.17,-17.03,-19.64,0.2291,-20.61,33.72,-27.0,-0.2925,7.374,-10.44,12.41,1.889,0.9045,-10.32,10.48,0,0,0,0,0,0,0,0,0,0,0,0,0,0,0,0,
322,-9.368,-24.06,8.773,-23.2,-0.3486,-22.63,43.37,-23.17,6.302,10.44,-24.99,17.03,-14.73,-3.756,-35.5,-1.561,0,0,0,0,0,0,0,0,0,0,0,0,0,0,0,0,
323,-27.4,9.621,-17.24,-20.73,-26.27,-21.41,24.48,-26.77,-1.599,5.308,-42.84,1.673,-37.95,-13.16,-46.03,-13.23,0,0,0,0,0,0,0,0,0,0,0,0,0,0,0,0,
324,-31.05,19.0,-40.01,-23.35,-27.76,-25.16,12.97,-24.81,-8.586,-2.478,-47.11,-14.91,-46.42,-24.83,-46.34,-19.55,0,0,0,0,0,0,0,0,0,0,0,0,0,0,0,0,
325,-4.25,-21.49,-28.48,-28.72,-13.27,-30.39,17.1,-23.58,-11.07,-3.711,-47.63,-25.12,-43.6,-36.45,-59.47,-40.4,0,0,0,0,0,0,0,0,0,0,0,0,0,0,0,0,
326,-24.07,-41.43,-12.61,-24.46,-8.181,-26.55,17.89,-23.52,-22.33,-8.037,-49.85,-37.4,-47.0,-46.32,-70.49,-63.45,0,0,0,0,0,0,0,0,0,0,0,0,0,0,0,0,
327,-40.65,-13.73,-21.71,-14.39,-11.53,-16.13,11.2,-18.12,-30.07,-18.2,-53.57,-49.76,-53.48,-50.17,-70.27,-71.14,0,0,0,0,0,0,0,0,0,0,0,0,0,0,0,0,
328,-13.16,16.9,-29.58,3.823,-29.02,3.287,11.35,-24.52,-23.86,-11.59,-55.07,-47.08,-44.05,-41.5,-66.74,-70.97,0,0,0,0,0,0,0,0,0,0,0,0,0,0,0,0,
329,-19.85,22.71,-15.82,16.61,-34.4,16.43,22.63,-24.51,-17.45,10.32,-52.49,-32.07,-34.05,-32.66,-61.97,-65.35,0,0,0,0,0,0,0,0,0,0,0,0,0,0,0,0,
330,-46.66,0.9323,-24.49,-3.143,-19.71,-3.87,19.37,-3.451,-21.51,12.78,-59.62,-29.69,-47.47,-36.16,-64.28,-53.55,0,0,0,0,0,0,0,0,0,0,0,0,0,0,0,0,
331,-40.89,-24.5,-51.25,-12.22,-35.51,-13.71,8.514,9.965,-24.02,2.688,-57.53,-26.57,-47.49,-25.5,-54.11,-29.33,0,0,0,0,0,0,0,0,0,0,0,0,0,0,0,0,
332,-27.16,-15.86,-33.27,18.35,-54.35,18.27,32.0,21.26,-9.883,16.43,-15.48,4.02,-11.09,10.91,-8.552,8.128,0,0,0,0,0,0,0,0,0,0,0,0,0,0,0,0,
333,-15.49,19.48,9.681,30.14,-16.91,32.99,73.2,37.47,14.8,50.87,22.44,29.22,13.52,34.74,24.38,27.62,0,0,0,0,0,0,0,0,0,0,0,0,0,0,0,0,
334,4.016,49.63,19.88,17.21,19.45,19.6,81.57,33.52,33.42,74.72,8.715,21.08,1.446,25.4,-2.145,9.955,0,0,0,0,0,0,0,0,0,0,0,0,0,0,0,0,
335,12.37,54.59,3.023,12.99,3.018,12.59,54.98,14.0,26.49,61.92,-31.35,2.906,-31.03,-0.6798,-59.89,-22.75,0,0,0,0,0,0,0,0,0,0,0,0,0,0,0,0,
336,-18.63,24.06,-20.35,-2.442,-24.23,-3.906,26.75,-1.413,-10.99,24.9,-68.35,-9.002,-68.09,-22.4,-95.66,-39.88,0,0,0,0,0,0,0,0,0,0,0,0,0,0,0,0,
337,-55.35,-1.05,-36.56,-16.11,-41.09,-17.59,18.82,-10.16,-43.62,9.635,-86.74,-15.85,-84.55,-31.83,-93.71,-40.13,0,0,0,0,0,0,0,0,0,0,0,0,0,0,0,0,
338,-37.55,13.1,-28.89,-7.004,-59.27,-7.473,22.35,-14.21,-46.3,10.22,-78.45,-21.36,-82.34,-45.19,-93.07,-49.18,0,0,0,0,0,0,0,0,0,0,0,0,0,0,0,0,
339,-7.167,-0.0453,-14.51,-17.83,-63.83,-17.11,24.01,-16.94,-41.74,-12.87,-70.48,-25.84,-85.69,-63.24,-107.7,-55.96,0,0,0,0,0,0,0,0,0,0,0,0,0,0,0,0,
340,-11.6,-50.54,-15.86,-42.53,-50.03,-43.36,28.99,-26.27,-43.82,-36.29,-67.17,-21.39,-81.38,-64.32,-93.17,-36.71,0,0,0,0,0,0,0,0,0,0,0,0,0,0,0,0,
341,-16.69,-38.98,-20.81,-33.51,-43.49,-36.42,32.15,-42.38,-43.97,-37.73,-44.28,-14.01,-64.24,-60.06,-56.01,-23.05,0,0,0,0,0,0,0,0,0,0,0,0,0,0,0,0,
342,-25.67,11.71,-30.87,-22.9,-54.64,-25.86,19.73,-41.37,-47.31,-50.42,-23.03,-12.83,-57.63,-61.85,-34.13,-26.24,0,0,0,0,0,0,0,0,0,0,0,0,0,0,0,0,
343,-41.07,10.13,-52.06,-46.92,-69.51,-50.02,5.265,-17.18,-53.56,-64.08,-18.34,-11.8,-52.34,-50.84,-12.54,-19.11,0,0,0,0,0,0,0,0,0,0,0,0,0,0,0,0,
344,-29.18,-14.82,-53.28,-67.14,-73.61,-70.65,8.588,-0.407,-48.56,-46.79,-8.214,-9.78,-37.29,-37.87,5.415,-14.13,0,0,0,0,0,0,0,0,0,0,0,0,0,0,0,0,
345,-21.13,-29.1,-36.32,-57.08,-68.69,-60.58,15.65,-4.087,-42.2,-35.15,-8.692,-8.022,-36.69,-41.45,-5.939,-22.9,0,0,0,0,0,0,0,0,0,0,0,0,0,0,0,0,
346,-36.48,-25.97,-42.11,-34.65,-69.97,-39.1,3.372,-11.0,-49.83,-46.13,-35.35,-5.835,-54.34,-41.6,-27.49,-30.01,0,0,0,0,0,0,0,0,0,0,0,0,0,0,0,0,
347,-35.66,8.331,-58.33,-9.982,-68.11,-15.08,-14.03,2.285,-56.3,-40.7,-52.35,-5.614,-63.32,-31.62,-39.11,-33.77,0,0,0,0,0,0,0,0,0,0,0,0,0,0,0,0,
348,-32.72,11.4,-51.8,8.019,-49.7,4.913,-11.38,14.88,-50.23,-22.45,-44.41,-6.195,-56.44,-30.31,-41.66,-31.98,0,0,0,0,0,0,0,0,0,0,0,0,0,0,0,0,
349,-44.3,-11.18,-31.09,4.612,-42.18,4.049,-0.8905,-7.178,-37.1,-14.49,-35.52,-9.209,-50.04,-36.9,-38.5,-22.51,0,0,0,0,0,0,0,0,0,0,0,0,0,0,0,0,
350,-17.78,26.78,-15.28,-2.743,-40.22,-2.889,1.988,-9.187,-17.27,-8.99,-37.0,-13.39,-49.95,-40.32,-44.07,-18.86,0,0,0,0,0,0,0,0,0,0,0,0,0,0,0,0,
351,37.69,54.33,-7.891,5.88,-1.354,5.769,16.23,14.98,2.517,-1.151,-38.47,-13.52,-47.63,-41.67,-61.25,-28.36,0,0,0,0,0,0,0,0,0,0,0,0,0,0,0,0,
352,49.6,29.2,3.46,9.079,36.4,9.818,42.73,-17.27,16.83,12.32,-31.61,-16.75,-43.97,-44.33,-77.95,-45.84,0,0,0,0,0,0,0,0,0,0,0,0,0,0,0,0,
353,38.99,47.86,19.39,2.3,20.12,2.467,43.05,-46.51,25.93,25.02,-28.0,-28.75,-46.75,-52.16,-88.17,-65.53,0,0,0,0,0,0,0,0,0,0,0,0,0,0,0,0,
354,39.66,54.64,20.26,6.479,0.3442,5.387,21.87,-13.2,18.01,13.73,-35.99,-45.29,-50.56,-66.43,-87.3,-82.27,0,0,0,0,0,0,0,0,0,0,0,0,0,0,0,0,
355,10.44,2.019,12.7,5.564,14.67,4.218,28.64,-15.44,0.9672,-11.66,-35.69,-54.42,-42.39,-69.15,-72.71,-81.12,0,0,0,0,0,0,0,0,0,0,0,0,0,0,0,0,
356,-16.72,9.481,10.47,-2.686,9.992,-4.565,49.88,-48.92,0.9253,-22.9,-13.12,-45.34,-19.14,-51.84,-38.14,-56.67,0,0,0,0,0,0,0,0,0,0,0,0,0,0,0,0,
357,9.059,32.79,6.35,10.18,-19.77,9.439,43.55,-45.6,11.86,-23.24,12.0,-38.5,3.464,-44.63,2.051,-41.47,0,0,0,0,0,0,0,0,0,0,0,0,0,0,0,0,
358,18.19,-11.0,4.342,11.38,-17.22,13.41,36.7,-48.55,12.91,-29.35,16.85,-45.11,6.872,-54.35,4.927,-48.4,0,0,0,0,0,0,0,0,0,0,0,0,0,0,0,0,
359,-14.82,-5.31,1.686,-25.39,0.965,-24.47,47.26,-58.89,5.638,-35.62,10.89,-33.61,-0.5849,-46.1,-11.35,-37.19,0,0,0,0,0,0,0,0,0,0,0,0,0,0,0,0,
360,-15.11,39.17,-10.59,-42.25,-8.938,-43.87,41.72,-51.19,-1.431,-26.2,12.5,-6.934,-5.261,-25.73,-1.577,-7.497,0,0,0,0,0,0,0,0,0,0,0,0,0,0,0,0,
361,2.209,13.4,-20.01,-27.81,-21.76,-28.77,24.74,-57.32,-15.97,-19.94,6.182,1.04,-18.3,-23.07,-4.518,-7.125,0,0,0,0,0,0,0,0,0,0,0,0,0,0,0,0,
362,-35.54,-13.27,-32.69,-33.27,-35.81,-34.57,12.76,-57.29,-42.54,-35.0,-17.1,-0.5887,-39.86,-24.75,-35.58,-23.73,0,0,0,0,0,0,0,0,0,0,0,0,0,0,0,0,
363,-75.55,-14.52,-57.64,-48.13,-74.59,-51.2,-7.599,-42.77,-61.13,-40.96,-24.68,2.26,-50.16,-21.83,-39.75,-17.28,0,0,0,0,0,0,0,0,0,0,0,0,0,0,0,0,
364,-42.93,-37.71,-64.68,-41.78,-93.73,-44.61,-15.69,-59.99,-62.91,-34.52,-9.708,1.764,-45.33,-24.52,-24.34,-7.975,0,0,0,0,0,0,0,0,0,0,0,0,0,0,0,0,
365,-7.837,-25.18,-39.58,-29.48,-70.33,-31.71,10.08,-69.73,-54.03,-40.15,-0.7541,3.024,-30.13,-18.84,-19.65,-12.69,0,0,0,0,0,0,0,0,0,0,0,0,0,0,0,0,
366,-13.24,12.35,-9.164,-21.99,-44.73,-24.04,33.67,-30.82,-33.3,-37.81,0.7547,4.777,-16.6,-8.034,-11.08,-12.57,0,0,0,0,0,0,0,0,0,0,0,0,0,0,0,0,
367,0.9458,13.01,3.523,-13.63,-23.83,-15.81,33.84,-5.918,-20.68,-21.65,2.229,-2.585,-24.0,-17.8,-5.208,-14.63,0,0,0,0,0,0,0,0,0,0,0,0,0,0,0,0,
368,13.07,18.49,-4.078,-5.221,-11.44,-7.6,27.97,-16.82,-27.0,-16.94,-5.204,-11.39,-39.91,-37.56,-13.09,-28.26,0,0,0,0,0,0,0,0,0,0,0,0,0,0,0,0,
369,0.7568,21.45,-18.99,-6.956,-24.11,-7.394,19.17,-20.8,-29.05,-22.42,-16.15,-19.78,-40.3,-47.47,-21.35,-36.83,0,0,0,0,0,0,0,0,0,0,0,0,0,0,0,0,
370,18.3,-13.88,-19.02,-26.72,-30.25,-26.01,13.4,-16.3,-27.59,-27.83,-14.02,-24.01,-28.94,-44.02,-20.64,-27.73,0,0,0,0,0,0,0,0,0,0,0,0,0,0,0,0,
371,40.66,-22.41,-3.199,-37.44,-24.33,-39.16,26.69,-19.46,-22.05,-20.25,1.468,-9.37,-12.05,-24.68,-3.674,-2.819,0,0,0,0,0,0,0,0,0,0,0,0,0,0,0,0,
372,31.58,21.53,-4.211,-11.0,-32.65,-13.64,47.06,-26.9,-1.129,0.1026,18.24,6.065,7.064,-7.173,18.76,16.48,0,0,0,0,0,0,0,0,0,0,0,0,0,0,0,0,
373,19.47,51.58,-21.3,23.52,-20.86,23.04,55.61,-18.83,7.713,8.852,34.48,7.658,22.14,-0.1398,34.84,24.22,0,0,0,0,0,0,0,0,0,0,0,0,0,0,0,0,
374,7.372,29.46,-12.76,32.28,9.818,33.06,54.35,0.9869,3.056,15.6,46.76,16.85,30.77,14.52,51.03,37.02,0,0,0,0,0,0,0,0,0,0,0,0,0,0,0,0,
375,12.53,-0.1013,6.846,23.17,8.797,23.96,51.75,-12.05,11.17,32.41,36.45,26.54,26.22,26.45,50.67,41.45,0,0,0,0,0,0,0,0,0,0,0,0,0,0,0,0,
376,44.05,16.35,0.6122,14.81,7.144,15.6,54.68,-26.46,15.47,39.09,20.21,27.26,22.92,28.72,39.22,43.06,0,0,0,0,0,0,0,0,0,0,0,0,0,0,0,0,
377,54.42,41.37,-8.882,17.04,13.09,18.18,57.28,6.782,13.52,41.15,30.45,39.01,37.56,40.38,49.9,62.74,0,0,0,0,0,0,0,0,0,0,0,0,0,0,0,0,
378,42.51,37.06,-5.919,12.95,-11.28,14.53,51.07,10.15,17.3,39.7,34.26,46.47,37.99,44.0,54.09,62.71,0,0,0,0,0,0,0,0,0,0,0,0,0,0,0,0,
379,26.11,26.87,-7.742,-12.16,-12.26,-11.31,46.47,-26.09,8.032,20.71,12.65,40.88,16.82,31.3,33.79,45.11,0,0,0,0,0,0,0,0,0,0,0,0,0,0,0,0,
380,-14.6,6.994,-21.65,-28.21,0.3375,-28.72,39.7,-18.97,-8.892,5.214,9.03,45.0,9.243,28.39,24.72,48.34,0,0,0,0,0,0,0,0,0,0,0,0,0,0,0,0,
381,-45.87,-16.68,-44.55,-32.76,-47.41,-34.26,18.18,-17.97,-23.26,-6.203,9.582,33.87,-0.5128,17.55,10.73,30.83,0,0,0,0,0,0,0,0,0,0,0,0,0,0,0,0,
382,-25.61,-40.24,-52.55,-54.41,-67.3,-57.43,6.782,-53.01,-46.77,-30.48,-16.47,-3.742,-26.07,-13.08,-21.5,-9.711,0,0,0,0,0,0,0,0,0,0,0,0,0,0,0,0,
383,2.275,-88.02,-32.68,-57.44,-27.55,-61.3,23.52,-49.38,-54.07,-38.63,-24.05,-20.51,-29.92,-25.93,-29.08,-10.83,0,0,0,0,0,0,0,0,0,0,0,0,0,0,0,0,
384,13.46,-80.16,-11.96,-21.54,-42.47,-23.46,45.09,-25.56,-30.6,-22.87,-5.247,-17.24,-16.5,-23.69,-23.13,0.7951,0,0,0,0,0,0,0,0,0,0,0,0,0,0,0,0,
385,33.21,22.44,-4.129,-3.776,-56.45,-3.535,55.71,-16.24,-14.03,-17.71,-7.382,-30.93,-20.77,-37.07,-41.06,-18.75,0,0,0,0,0,0,0,0,0,0,0,0,0,0,0,0,
386,35.53,69.8,-3.367,-9.22,6.052,-9.326,56.05,-6.521,-13.47,-26.29,-21.6,-54.11,-34.16,-54.63,-55.45,-37.23,0,0,0,0,0,0,0,0,0,0,0,0,0,0,0,0,
387,14.05,17.49,-1.977,-0.5856,33.44,-1.219,48.27,-24.95,-12.97,-32.65,-18.64,-64.03,-34.49,-54.75,-41.6,-32.3,0,0,0,0,0,0,0,0,0,0,0,0,0,0,0,0,
388,12.94,-6.358,10.63,3.534,5.598,3.405,47.02,-47.52,-13.5,-30.9,-5.552,-59.56,-21.52,-41.41,-19.61,-19.29,0,0,0,0,0,0,0,0,0,0,0,0,0,0,0,0,
389,17.25,19.68,22.64,-1.931,10.58,-2.62,60.4,-16.09,-3.56,-15.11,3.655,-53.01,-11.24,-32.67,-8.785,-14.65,0,0,0,0,0,0,0,0,0,0,0,0,0,0,0,0,
390,17.87,10.02,24.18,3.487,30.79,2.438,68.13,11.44,14.11,3.75,1.077,-50.81,-16.34,-32.96,-18.54,-25.95,0,0,0,0,0,0,0,0,0,0,0,0,0,0,0,0,
391,25.4,-36.44,18.57,-5.293,23.36,-5.07,51.86,-16.38,8.987,5.289,-9.615,-48.91,-27.39,-27.76,-38.65,-40.18,0,0,0,0,0,0,0,0,0,0,0,0,0,0,0,0,
392,11.26,-31.36,-4.873,-22.9,-2.074,-22.84,24.88,-36.44,-11.08,-6.346,-17.66,-49.21,-31.98,-20.16,-42.09,-38.66,0,0,0,0,0,0,0,0,0,0,0,0,0,0,0,0,
393,10.38,28.95,-30.28,-6.012,-30.42,-6.942,5.408,-20.97,-22.23,-17.53,-21.05,-49.94,-32.72,-22.31,-36.08,-30.81,0,0,0,0,0,0,0,0,0,0,0,0,0,0,0,0,
394,24.02,40.78,-36.59,1.587,-44.5,1.818,-14.31,-17.21,-32.26,-26.12,-21.92,-39.63,-35.1,-23.16,-41.73,-34.76,0,0,0,0,0,0,0,0,0,0,0,0,0,0,0,0,
395,-21.07,-12.25,-47.24,-37.17,-39.65,-37.29,-40.71,-25.35,-42.14,-31.95,-28.2,-26.81,-43.49,-22.31,-46.83,-43.6,0,0,0,0,0,0,0,0,0,0,0,0,0,0,0,0,
396,-47.32,-54.5,-57.93,-49.07,-33.54,-51.62,-53.28,-24.77,-47.99,-38.31,-40.57,-28.45,-59.0,-37.2,-46.79,-47.7,0,0,0,0,0,0,0,0,0,0,0,0,0,0,0,0,
397,-3.316,-62.73,-49.39,-35.03,-47.77,-36.42,-46.93,-35.19,-62.19,-51.11,-44.46,-35.78,-74.34,-60.31,-48.62,-49.21,0,0,0,0,0,0,0,0,0,0,0,0,0,0,0,0,
398,-7.341,-54.28,-57.5,-71.59,-82.4,-71.79,-51.25,-47.98,-86.73,-69.5,-44.81,-41.0,-85.86,-76.92,-44.92,-49.57,0,0,0,0,0,0,0,0,0,0,0,0,0,0,0,0,
399,-52.54,-51.65,-87.43,-102.3,-105.6,-106.1,-64.81,-44.14,-110.1,-90.63,-54.66,-57.29,-99.87,-96.78,-53.02,-59.44,0,0,0,0,0,0,0,0,0,0,0,0,0,0,0,0,
400,-52.51,-66.73,-95.12,-66.95,-100.2,-71.99,-55.55,-48.7,-120.7,-106.6,-64.5,-80.67,-114.7,-124.4,-85.68,-80.39,0,0,0,0,0,0,0,0,0,0,0,0,0,0,0,0,
401,-30.07,-67.75,-83.52,-38.69,-79.49,-41.24,-34.44,-54.0,-115.0,-108.2,-65.41,-92.92,-115.6,-141.6,-106.5,-92.53,0,0,0,0,0,0,0,0,0,0,0,0,0,0,0,0,
402,-14.62,-30.27,-63.28,-35.66,-57.4,-38.25,-12.27,-28.18,-94.76,-100.0,-51.96,-96.92,-97.21,-137.0,-97.61,-90.3,0,0,0,0,0,0,0,0,0,0,0,0,0,0,0,0,
403,-5.996,13.18,-23.75,-15.72,-42.78,-18.71,30.23,-1.827,-60.67,-87.15,-24.82,-96.55,-72.17,-117.0,-79.26,-79.64,0,0,0,0,0,0,0,0,0,0,0,0,0,0,0,0,
404,10.12,11.85,-2.774,-6.282,-26.13,-8.014,56.63,-6.776,-34.28,-65.67,-10.5,-87.67,-54.63,-91.03,-67.01,-68.78,0,0,0,0,0,0,0,0,0,0,0,0,0,0,0,0,
405,37.9,-9.787,-20.32,-13.82,-2.471,-15.33,38.74,-11.03,-29.82,-39.94,-21.78,-74.49,-47.45,-64.72,-65.33,-66.53,0,0,0,0,0,0,0,0,0,0,0,0,0,0,0,0,
406,41.91,24.26,-21.96,-4.357,-1.31,-5.204,34.31,5.703,-21.79,-19.35,-33.91,-56.18,-39.76,-37.66,-57.73,-58.59,0,0,0,0,0,0,0,0,0,0,0,0,0,0,0,0,
407,24.53,60.08,-2.179,6.762,-17.41,6.66,46.4,16.74,-10.38,-6.678,-31.08,-40.07,-27.34,-10.87,-34.29,-41.54,0,0,0,0,0,0,0,0,0,0,0,0,0,0,0,0,
408,13.4,7.53,-11.61,0.79,-13.1,-0.4624,25.68,14.82,-16.67,-1.624,-25.79,-41.16,-24.4,4.791,-19.29,-33.36,0,0,0,0,0,0,0,0,0,0,0,0,0,0,0,0,
409,14.05,-24.36,-36.08,-0.3921,-7.997,-1.941,5.757,13.16,-21.97,0.4658,-26.99,-37.11,-30.91,12.99,-16.41,-20.78,0,0,0,0,0,0,0,0,0,0,0,0,0,0,0,0,
410,20.7,34.56,-35.95,16.38,-21.57,16.0,9.063,14.58,-17.73,7.829,-21.52,-8.814,-28.01,29.87,-4.799,7.815,0,0,0,0,0,0,0,0,0,0,0,0,0,0,0,0,
411,7.988,50.14,-33.96,20.61,-18.65,20.64,-5.824,26.59,-23.24,15.32,-9.217,13.18,-20.02,42.6,6.959,27.56,0,0,0,0,0,0,0,0,0,0,0,0,0,0,0,0,
412,1.912,11.58,-49.14,-0.0077,0.2086,-0.4916,-18.1,30.71,-33.83,11.14,-9.275,18.28,-20.88,36.51,6.931,32.62,0,0,0,0,0,0,0,0,0,0,0,0,0,0,0,0,
413,30.75,21.09,-43.21,3.508,2.306,2.926,10.03,11.94,-31.23,7.552,-9.351,27.83,-19.14,29.32,10.22,39.73,0,0,0,0,0,0,0,0,0,0,0,0,0,0,0,0,
414,29.42,41.14,-17.11,21.43,-4.836,21.56,33.23,8.476,-17.0,11.68,-2.053,24.28,-15.29,17.69,13.49,35.22,0,0,0,0,0,0,0,0,0,0,0,0,0,0,0,0,
415,4.926,42.79,-23.08,-0.1175,-12.81,-1.07,18.77,12.91,-16.13,-5.341,-18.32,-11.1,-28.53,-17.9,-7.067,4.099,0,0,0,0,0,0,0,0,0,0,0,0,0,0,0,0,
416,17.74,45.48,-43.88,-8.147,-27.44,-11.01,2.619,-1.776,-35.43,-41.61,-42.26,-37.98,-42.61,-46.69,-32.91,-14.97,0,0,0,0,0,0,0,0,0,0,0,0,0,0,0,0,
417,15.6,8.028,-41.16,19.47,-31.18,18.23,-0.5378,2.16,-43.81,-51.91,-33.98,-31.93,-38.33,-40.87,-27.61,-1.255,0,0,0,0,0,0,0,0,0,0,0,0,0,0,0,0,
418,-9.264,-16.55,-37.67,6.117,-18.53,6.274,-6.032,8.759,-39.02,-35.54,-16.08,-26.04,-34.52,-32.04,-9.623,0.8356,0,0,0,0,0,0,0,0,0,0,0,0,0,0,0,0,
419,10.24,43.89,-29.84,-11.39,-9.281,-13.46,-1.772,-4.745,-42.91,-27.2,-12.52,-33.58,-34.6,-36.36,-11.58,-16.15,0,0,0,0,0,0,0,0,0,0,0,0,0,0,0,0,
420,30.42,82.1,-10.36,20.11,-8.374,17.91,10.36,17.87,-41.43,-28.98,-15.17,-38.54,-31.27,-33.69,-19.25,-22.3,0,0,0,0,0,0,0,0,0,0,0,0,0,0,0,0,
421,0.8045,30.63,-19.87,14.73,-19.82,14.71,-2.407,45.6,-32.92,-29.12,-22.3,-39.0,-37.2,-26.91,-11.3,-24.35,0,0,0,0,0,0,0,0,0,0,0,0,0,0,0,0,
422,-19.81,-15.85,-45.91,-30.73,-46.75,-31.92,-29.54,30.92,-40.64,-27.86,-27.65,-31.24,-43.35,-21.43,-1.333,-19.23,0,0,0,0,0,0,0,0,0,0,0,0,0,0,0,0,
423,-8.528,-3.69,-44.55,-15.22,-55.84,-18.67,-32.94,43.06,-49.27,-16.27,-26.17,-10.95,-33.47,-0.8942,-0.2315,4.564,0,0,0,0,0,0,0,0,0,0,0,0,0,0,0,0,
424,-0.4781,19.26,-21.99,28.19,-30.19,26.11,-14.87,70.0,-37.34,10.78,-19.08,8.556,-19.18,25.21,7.897,20.54,0,0,0,0,0,0,0,0,0,0,0,0,0,0,0,0,
425,12.82,11.45,-0.5293,17.9,-14.28,18.01,1.454,40.97,-20.35,26.59,-8.729,13.54,-12.16,27.75,12.98,11.3,0,0,0,0,0,0,0,0,0,0,0,0,0,0,0,0,
426,24.62,3.931,2.49,-0.9138,-21.79,-1.184,6.376,16.52,-12.45,19.34,-11.72,8.618,-16.03,17.28,-4.334,-0.1858,0,0,0,0,0,0,0,0,0,0,0,0,0,0,0,0,
427,14.64,29.07,-1.874,9.327,-5.934,8.837,3.381,43.48,-10.93,18.98,-21.19,14.6,-23.52,20.15,-10.17,9.41,0,0,0,0,0,0,0,0,0,0,0,0,0,0,0,0,
428,26.06,47.28,-0.085,0.9277,23.31,1.43,-6.826,56.93,-11.9,25.55,-18.55,25.66,-25.84,19.31,0.9758,12.7,0,0,0,0,0,0,0,0,0,0,0,0,0,0,0,0,
429,34.94,36.27,-18.99,-11.22,12.45,-10.84,-27.82,35.44,-15.11,11.3,-25.53,13.3,-36.81,-3.49,-13.92,-14.43,0,0,0,0,0,0,0,0,0,0,0,0,0,0,0,0,
430,-11.78,21.08,-38.33,14.34,-12.43,15.1,-43.75,21.51,-24.97,-10.14,-38.92,-3.39,-52.72,-23.37,-30.52,-22.78,0,0,0,0,0,0,0,0,0,0,0,0,0,0,0,0,
431,-20.78,9.07,-25.61,23.4,-8.354,25.72,-48.31,18.2,-39.21,-25.99,-30.35,-1.837,-54.57,-32.3,-19.95,-9.236,0,0,0,0,0,0,0,0,0,0,0,0,0,0,0,0,
432,22.55,3.89,-28.16,-2.457,-10.9,-1.183,-57.45,4.143,-48.8,-49.6,-27.41,-9.784,-54.43,-43.44,-21.54,-28.86,0,0,0,0,0,0,0,0,0,0,0,0,0,0,0,0,
433,13.19,2.308,-46.34,-0.5042,-35.52,-2.157,-58.43,-7.499,-50.21,-57.14,-44.28,-26.49,-54.72,-38.19,-32.91,-46.34,0,0,0,0,0,0,0,0,0,0,0,0,0,0,0,0,
434,3.561,2.385,-33.38,20.0,-26.42,18.05,-51.17,2.987,-38.95,-26.03,-43.38,-21.83,-41.78,-13.32,-18.47,-26.41,0,0,0,0,0,0,0,0,0,0,0,0,0,0,0,0,
435,24.41,27.67,-18.72,22.76,20.71,22.97,-60.19,24.75,-18.78,3.467,-25.15,-6.162,-25.58,1.498,4.73,-12.06,0,0,0,0,0,0,0,0,0,0,0,0,0,0,0,0,
436,0.4855,53.67,-21.32,29.8,36.01,31.8,-51.55,41.8,-4.186,7.034,-15.63,-1.312,-12.59,8.254,12.4,-5.649,0,0,0,0,0,0,0,0,0,0,0,0,0,0,0,0,
437,1.22,41.28,-19.02,34.01,12.95,36.21,-17.63,49.84,5.12,14.11,-15.15,-1.632,-4.475,17.4,10.47,7.558,0,0,0,0,0,0,0,0,0,0,0,0,0,0,0,0,
438,42.73,35.33,-28.38,17.35,6.979,18.11,-22.72,40.09,5.411,22.61,-22.98,6.808,-9.246,17.74,8.647,9.542,0,0,0,0,0,0,0,0,0,0,0,0,0,0,0,0,
439,20.03,53.77,-44.05,16.21,9.067,15.56,-41.28,16.96,-8.336,12.35,-28.5,20.04,-11.13,18.5,11.1,6.788,0,0,0,0,0,0,0,0,0,0,0,0,0,0,0,0,
440,6.125,42.99,-27.67,37.12,-5.463,37.01,-11.7,18.39,-4.445,13.51,-6.093,29.96,4.596,31.34,26.65,17.79,0,0,0,0,0,0,0,0,0,0,0,0,0,0,0,0,
441,44.92,21.7,1.948,46.1,-2.996,46.57,18.88,50.9,24.22,35.56,26.19,42.91,18.63,35.55,48.6,35.92,0,0,0,0,0,0,0,0,0,0,0,0,0,0,0,0,
442,24.63,34.06,9.101,45.85,18.38,45.25,15.23,58.25,33.61,37.78,22.58,43.37,10.64,15.94,37.4,32.76,0,0,0,0,0,0,0,0,0,0,0,0,0,0,0,0,
443,8.689,49.88,6.217,44.53,24.86,43.25,8.803,28.0,15.46,17.39,-2.062,16.13,-9.767,-12.89,1.716,3.12,0,0,0,0,0,0,0,0,0,0,0,0,0,0,0,0,
444,76.1,58.65,6.362,40.16,23.37,39.47,10.79,17.92,-2.978,-1.908,1.904,-0.3377,-13.88,-26.35,4.838,-8.219,0,0,0,0,0,0,0,0,0,0,0,0,0,0,0,0,
445,91.18,68.23,6.82,44.01,31.87,44.69,25.74,31.01,-5.34,-10.8,23.36,9.788,1.575,-16.05,27.26,6.766,0,0,0,0,0,0,0,0,0,0,0,0,0,0,0,0,
446,38.45,56.1,10.4,39.64,39.76,41.52,38.92,21.2,11.73,1.69,20.13,12.4,7.209,-2.803,12.97,5.912,0,0,0,0,0,0,0,0,0,0,0,0,0,0,0,0,
447,39.8,39.46,2.773,15.51,22.0,16.39,17.86,5.057,21.84,16.92,2.501,13.56,2.219,-2.024,1.451,-2.448,0,0,0,0,0,0,0,0,0,0,0,0,0,0,0,0,
448,49.88,23.63,-15.97,5.881,-6.266,4.848,-5.734,8.447,8.516,8.326,0.9414,31.09,10.1,2.611,24.18,9.795,0,0,0,0,0,0,0,0,0,0,0,0,0,0,0,0,
449,0.117,-5.958,-11.91,13.35,2.924,11.83,-0.4849,5.822,-1.469,0.6774,4.52,38.48,16.45,14.01,33.88,21.34,0,0,0,0,0,0,0,0,0,0,0,0,0,0,0,0,
450,-32.17,-4.29,-5.449,12.84,15.75,11.96,-1.679,3.945,-4.416,9.127,0.9476,29.78,6.245,14.12,23.1,18.42,0,0,0,0,0,0,0,0,0,0,0,0,0,0,0,0,
451,0.5445,12.87,-34.69,3.272,-17.37,3.612,-14.28,17.13,-14.85,7.394,4.787,24.48,2.724,9.842,24.27,14.67,0,0,0,0,0,0,0,0,0,0,0,0,0,0,0,0,
452,31.3,1.97,-46.04,-11.31,-29.09,-11.38,-8.347,3.262,-14.5,-2.541,8.203,15.58,8.851,12.17,25.9,4.932,0,0,0,0,0,0,0,0,0,0,0,0,0,0,0,0,
453,18.97,12.42,-3.914,-8.325,9.1,-10.24,5.775,-24.36,3.383,3.858,-2.921,7.192,7.051,12.56,15.38,-10.16,0,0,0,0,0,0,0,0,0,0,0,0,0,0,0,0,
454,24.51,31.27,26.19,21.12,24.21,19.99,10.8,-3.694,15.06,17.82,-10.77,14.15,2.208,11.59,5.196,-13.31,0,0,0,0,0,0,0,0,0,0,0,0,0,0,0,0,
455,55.6,32.72,18.96,36.16,21.38,36.9,17.89,34.12,14.58,20.32,-7.983,17.83,2.044,16.0,-0.9293,-9.274,0,0,0,0,0,0,0,0,0,0,0,0,0,0,0,0,
456,37.86,54.3,17.16,28.17,39.26,29.14,29.06,33.93,16.38,19.92,-0.3145,16.62,9.843,23.88,4.529,-4.198,0,0,0,0,0,0,0,0,0,0,0,0,0,0,0,0,
457,20.27,38.25,21.81,24.86,49.63,26.03,26.88,23.18,24.36,24.13,11.6,24.94,19.68,27.71,13.94,1.296,0,0,0,0,0,0,0,0,0,0,0,0,0,0,0,0,
458,60.51,13.49,19.58,30.14,53.57,31.35,15.69,34.44,33.26,29.19,14.47,24.58,17.16,25.98,8.386,-0.3764,0,0,0,0,0,0,0,0,0,0,0,0,0,0,0,0,
459,73.94,84.06,22.63,39.4,59.38,40.98,18.0,45.27,42.01,42.46,16.39,18.32,20.41,32.83,16.07,5.094,0,0,0,0,0,0,0,0,0,0,0,0,0,0,0,0,
460,55.03,107.9,21.05,42.75,37.04,44.37,27.85,33.06,46.98,54.23,28.27,16.67,32.24,38.04,35.36,11.06,0,0,0,0,0,0,0,0,0,0,0,0,0,0,0,0,
461,47.56,31.68,13.78,34.72,14.41,34.06,27.89,18.19,42.66,43.15,17.54,3.472,15.49,18.41,11.45,-8.573,0,0,0,0,0,0,0,0,0,0,0,0,0,0,0,0,
462,19.12,30.33,18.82,29.54,21.57,28.49,15.4,22.73,27.85,26.41,-9.601,3.447,-9.278,2.468,-23.87,-16.07,0,0,0,0,0,0,0,0,0,0,0,0,0,0,0,0,
463,16.19,53.04,15.57,34.62,26.24,35.39,-7.977,39.65,9.215,24.19,-8.607,32.07,-5.432,10.81,-14.58,8.732,0,0,0,0,0,0,0,0,0,0,0,0,0,0,0,0,
464,59.8,16.32,-1.824,40.58,30.73,40.8,-30.72,47.98,5.838,24.83,-0.4026,43.58,-4.58,12.1,-3.695,14.68,0,0,0,0,0,0,0,0,0,0,0,0,0,0,0,0,
465,50.78,26.06,-7.135,29.9,28.51,30.32,-47.48,22.3,8.94,19.38,-15.52,28.61,-17.22,2.786,-14.23,-1.337,0,0,0,0,0,0,0,0,0,0,0,0,0,0,0,0,
466,4.608,46.46,-7.57,14.56,-5.536,16.12,-53.53,-5.585,-6.667,16.37,-17.45,20.83,-5.014,9.966,1.248,6.595,0,0,0,0,0,0,0,0,0,0,0,0,0,0,0,0,
467,6.945,20.15,-0.9976,27.96,-9.96,28.02,-32.04,23.64,-5.085,30.58,14.61,35.05,32.03,33.99,41.18,40.46,0,0,0,0,0,0,0,0,0,0,0,0,0,0,0,0,
468,35.98,29.9,18.49,45.98,19.93,46.3,-14.84,55.68,31.07,52.97,29.1,50.79,48.97,46.62,48.58,54.63,0,0,0,0,0,0,0,0,0,0,0,0,0,0,0,0,
469,40.65,54.94,14.9,34.3,10.81,36.56,-36.69,30.02,38.36,53.52,-0.1402,38.51,27.66,32.38,16.94,31.02,0,0,0,0,0,0,0,0,0,0,0,0,0,0,0,0,
470,24.48,54.87,-4.998,18.89,10.57,19.08,-55.42,4.769,13.55,36.99,-19.84,26.56,5.883,21.62,-0.5945,16.59,0,0,0,0,0,0,0,0,0,0,0,0,0,0,0,0,
471,32.12,58.38,-2.385,22.04,43.76,20.24,-50.87,5.362,11.14,29.47,-12.04,36.37,5.159,31.17,6.486,25.77,0,0,0,0,0,0,0,0,0,0,0,0,0,0,0,0,
472,63.95,36.04,15.56,35.17,38.34,36.16,-45.62,5.249,24.88,36.07,-10.03,28.45,6.787,33.38,8.712,26.0,0,0,0,0,0,0,0,0,0,0,0,0,0,0,0,0,
473,64.3,22.87,35.57,44.39,31.48,47.72,-29.67,11.53,33.04,48.25,-1.625,17.8,9.075,24.1,11.79,27.11,0,0,0,0,0,0,0,0,0,0,0,0,0,0,0,0,
474,45.92,67.15,43.66,46.78,52.38,48.36,-9.892,18.24,30.27,44.97,10.15,31.65,5.486,12.28,10.28,28.14,0,0,0,0,0,0,0,0,0,0,0,0,0,0,0,0,
475,45.54,75.49,33.44,48.31,42.33,48.63,-6.9,15.64,14.01,24.54,-2.524,33.15,-5.984,1.212,-7.631,13.26,0,0,0,0,0,0,0,0,0,0,0,0,0,0,0,0,
476,39.0,51.41,35.68,37.73,33.62,38.89,3.486,7.985,13.88,21.08,4.994,35.79,14.95,18.17,4.635,22.77,0,0,0,0,0,0,0,0,0,0,0,0,0,0,0,0,
477,47.02,77.44,51.2,25.14,60.39,25.55,31.62,6.151,43.47,39.91,45.52,67.95,56.64,53.39,50.09,58.14,0,0,0,0,0,0,0,0,0,0,0,0,0,0,0,0,
478,91.84,65.62,58.4,34.32,79.1,34.18,38.57,29.09,66.96,50.58,52.59,86.41,63.82,60.17,62.73,63.23,0,0,0,0,0,0,0,0,0,0,0,0,0,0,0,0,
479,100.2,-0.4828,66.18,45.21,81.76,46.36,9.267,38.82,65.49,40.88,35.08,80.0,54.92,50.12,50.1,45.58,0,0,0,0,0,0,0,0,0,0,0,0,0,0,0,0,
480,76.51,32.39,68.48,51.08,69.94,51.96,-10.8,15.17,58.43,26.0,41.52,78.4,59.67,52.66,54.76,42.79,0,0,0,0,0,0,0,0,0,0,0,0,0,0,0,0,
481,86.5,112.9,56.34,51.83,52.09,52.48,0.0096,12.21,58.81,24.45,51.61,75.45,58.55,54.51,56.94,46.32,0,0,0,0,0,0,0,0,0,0,0,0,0,0,0,0,
482,66.97,76.67,50.81,30.84,54.17,32.26,5.109,12.38,55.33,28.94,53.35,66.73,56.17,54.24,55.06,54.39,0,0,0,0,0,0,0,0,0,0,0,0,0,0,0,0,
483,30.31,24.56,60.72,25.01,51.79,24.93,7.205,-11.03,53.98,27.79,65.55,63.68,69.7,64.08,68.27,78.47,0,0,0,0,0,0,0,0,0,0,0,0,0,0,0,0,
484,78.51,70.45,73.94,43.68,50.26,42.33,30.54,-10.44,75.51,34.67,75.4,58.72,79.67,68.16,63.36,83.41,0,0,0,0,0,0,0,0,0,0,0,0,0,0,0,0,
485,99.28,77.6,78.26,43.93,82.01,43.23,43.64,0.7519,93.18,46.3,71.01,46.79,74.65,60.26,39.66,54.33,0,0,0,0,0,0,0,0,0,0,0,0,0,0,0,0,
486,58.29,27.55,80.44,48.11,94.42,47.79,37.3,1.481,82.64,48.59,70.18,42.88,76.0,64.13,48.54,48.79,0,0,0,0,0,0,0,0,0,0,0,0,0,0,0,0,
487,113.7,66.39,94.1,69.11,78.92,70.02,41.19,13.25,80.47,61.5,76.72,54.64,89.3,82.92,72.89,72.58,0,0,0,0,0,0,0,0,0,0,0,0,0,0,0,0,
488,147.1,117.4,95.79,74.82,96.59,77.01,37.47,8.283,92.28,87.2,68.33,70.71,86.25,92.18,66.34,74.35,0,0,0,0,0,0,0,0,0,0,0,0,0,0,0,0,
489,58.45,82.71,75.03,73.15,103.7,75.05,4.804,-0.1723,78.27,92.91,40.4,78.87,56.16,84.07,47.74,68.37,0,0,0,0,0,0,0,0,0,0,0,0,0,0,0,0,
490,65.32,76.47,73.78,68.75,68.44,70.44,-11.96,31.11,56.1,83.05,28.17,81.68,36.57,78.54,47.92,81.67,0,0,0,0,0,0,0,0,0,0,0,0,0,0,0,0,
491,134.1,98.77,97.63,58.36,72.04,60.01,18.66,47.89,67.72,81.86,48.62,83.13,52.96,86.45,58.96,88.26,0,0,0,0,0,0,0,0,0,0,0,0,0,0,0,0,
492,90.02,66.12,110.4,52.88,106.6,54.85,44.85,18.1,86.52,76.65,61.0,68.16,71.12,84.11,55.39,71.32,0,0,0,0,0,0,0,0,0,0,0,0,0,0,0,0,
493,66.91,43.26,112.5,45.89,99.37,48.27,36.87,-5.526,80.82,59.63,50.04,36.66,68.86,61.65,41.5,45.67,0,0,0,0,0,0,0,0,0,0,0,0,0,0,0,0,
494,106.2,44.44,113.3,43.92,83.12,45.23,38.08,-4.915,78.87,49.46,52.72,20.55,74.48,48.25,51.47,32.4,0,0,0,0,0,0,0,0,0,0,0,0,0,0,0,0,
495,73.76,32.1,105.9,44.58,87.87,45.72,42.91,-4.678,83.95,42.38,62.36,19.03,85.38,45.37,69.67,29.21,0,0,0,0,0,0,0,0,0,0,0,0,0,0,0,0,
496,38.42,57.27,99.42,31.21,79.59,32.91,18.02,-15.46,64.62,26.11,48.25,3.124,72.63,29.57,53.93,11.61,0,0,0,0,0,0,0,0,0,0,0,0,0,0,0,0,
497,67.65,89.25,96.29,32.06,65.03,32.06,-3.571,-18.29,41.83,14.38,31.8,-16.87,53.16,13.54,24.14,-17.46,0,0,0,0,0,0,0,0,0,0,0,0,0,0,0,0,
498,66.11,61.6,83.95,45.03,63.3,45.09,-5.346,-2.442,41.94,18.04,29.75,-25.34,44.74,10.03,4.556,-38.67,0,0,0,0,0,0,0,0,0,0,0,0,0,0,0,0,
499,41.37,37.4,70.67,34.48,60.82,36.64,-9.942,-2.899,46.62,26.67,23.66,-33.87,34.2,5.871,-16.91,-53.81,0,0,0,0,0,0,0,0,0,0,0,0,0,0,0,0,
500,58.3,47.68,65.1,34.35,53.95,34.68,-12.24,-26.01,46.49,26.75,14.71,-31.25,25.7,9.043,-24.83,-56.82,0,0,0,0,0,0,0,0,0,0,0,0,0,0,0,0,
501,55.72,38.81,59.83,58.3,50.44,56.85,-5.464,-24.69,43.06,27.68,16.59,4.913,28.89,34.67,-2.114,-28.43,0,0,0,0,0,0,0,0,0,0,0,0,0,0,0,0,
502,19.93,23.58,56.96,53.34,50.79,54.33,3.225,2.233,39.56,47.72,27.18,49.28,37.41,60.71,23.76,16.29,0,0,0,0,0,0,0,0,0,0,0,0,0,0,0,0,
503,33.64,48.38,54.75,35.54,47.38,36.58,3.795,15.55,42.54,63.78,38.18,65.73,47.68,63.33,39.72,41.55,0,0,0,0,0,0,0,0,0,0,0,0,0,0,0,0,
504,59.04,76.57,42.68,55.06,42.83,54.14,-9.797,13.18,38.98,54.75,42.21,69.85,53.49,59.54,58.66,52.48,0,0,0,0,0,0,0,0,0,0,0,0,0,0,0,0,
505,43.18,53.27,32.38,71.54,48.96,72.92,-19.76,9.147,32.8,49.34,38.52,77.73,51.4,65.39,64.17,70.31,0,0,0,0,0,0,0,0,0,0,0,0,0,0,0,0,
506,55.76,33.2,43.52,45.27,49.63,48.63,-12.86,1.649,45.33,49.79,39.66,73.7,57.5,68.98,55.55,87.8,0,0,0,0,0,0,0,0,0,0,0,0,0,0,0,0,
507,76.94,63.83,65.77,27.83,43.38,28.98,5.641,-8.512,59.71,35.83,58.27,73.36,76.79,70.65,73.94,104.3,0,0,0,0,0,0,0,0,0,0,0,0,0,0,0,0,
508,44.18,61.29,69.84,40.86,60.14,41.62,28.71,-19.52,61.92,30.04,80.2,84.97,85.54,72.44,101.1,117.0,0,0,0,0,0,0,0,0,0,0,0,0,0,0,0,0,
509,30.44,22.38,57.6,31.54,75.82,33.93,39.57,-30.72,66.82,36.63,79.97,66.55,74.73,57.39,86.63,102.3,0,0,0,0,0,0,0,0,0,0,0,0,0,0,0,0,
510,52.22,42.56,61.09,7.357,61.38,8.132,32.08,-26.7,69.77,28.11,69.53,27.94,62.98,32.09,55.95,68.69,0,0,0,0,0,0,0,0,0,0,0,0,0,0,0,0,
511,45.59,65.64,77.39,20.23,51.18,18.51,20.16,-5.844,63.0,14.01,66.24,11.18,54.43,12.31,36.49,35.76,0,0,0,0,0,0,0,0,0,0,0,0,0,0,0,0,
512,42.05,41.09,81.01,43.93,59.51,42.69,18.03,-3.266,61.13,11.32,55.54,-5.652,45.04,-7.624,16.67,-6.382,0,0,0,0,0,0,0,0,0,0,0,0,0,0,0,0,
513,62.83,53.14,82.69,42.63,69.06,43.05,27.08,-33.43,67.14,12.53,46.23,-32.38,44.92,-20.48,14.6,-48.21,0,0,0,0,0,0,0,0,0,0,0,0,0,0,0,0,
514,63.73,61.51,83.89,34.8,67.02,36.36,16.34,-55.09,61.19,11.88,45.86,-43.05,42.01,-26.95,23.68,-67.22,0,0,0,0,0,0,0,0,0,0,0,0,0,0,0,0,
515,46.83,7.726,57.9,13.96,35.28,15.33,-19.8,-41.17,34.0,0.8228,23.39,-46.71,19.9,-47.09,8.22,-69.16,0,0,0,0,0,0,0,0,0,0,0,0,0,0,0,0,
516,33.27,-0.9332,22.13,-14.66,-11.21,-15.68,-35.24,-24.41,6.255,-23.06,2.807,-41.78,3.286,-56.47,-2.666,-60.74,0,0,0,0,0,0,0,0,0,0,0,0,0,0,0,0,
517,19.99,32.89,8.246,-7.111,-41.32,-9.552,-38.91,-23.83,-7.343,-35.81,14.7,-10.51,-1.602,-30.21,10.81,-35.9,0,0,0,0,0,0,0,0,0,0,0,0,0,0,0,0,
518,-3.777,14.61,2.147,5.666,-51.63,4.548,-60.85,-16.37,-20.65,-24.89,5.727,21.58,-16.1,-2.74,7.438,1.838,0,0,0,0,0,0,0,0,0,0,0,0,0,0,0,0,
519,-32.3,-1.379,-0.4516,-9.192,-37.69,-10.29,-62.91,-9.188,-30.12,-9.158,-20.51,42.2,-20.31,14.58,-6.11,42.92,0,0,0,0,0,0,0,0,0,0,0,0,0,0,0,0,
520,-20.72,9.496,9.526,-4.29,-11.46,-6.355,-46.13,-21.53,-17.27,1.067,-12.24,67.27,-7.543,37.51,-1.542,78.36,0,0,0,0,0,0,0,0,0,0,0,0,0,0,0,0,
521,8.759,-14.87,5.274,-2.34,-6.356,-2.893,-56.45,-29.82,-3.567,9.247,-10.49,76.26,-14.02,40.97,-2.586,91.4,0,0,0,0,0,0,0,0,0,0,0,0,0,0,0,0,
522,-26.52,-39.75,-14.12,-37.6,-21.92,-37.6,-67.01,-16.87,-11.64,7.06,-26.91,63.29,-23.95,24.65,-4.488,87.86,0,0,0,0,0,0,0,0,0,0,0,0,0,0,0,0,
523,-55.28,-29.21,-12.26,-38.13,-33.77,-39.84,-51.51,-5.237,-20.47,-7.319,-13.3,58.14,-4.593,23.07,21.46,98.12,0,0,0,0,0,0,0,0,0,0,0,0,0,0,0,0,
524,-3.708,-15.9,0.2667,-9.458,-25.55,-10.93,-37.87,-20.61,-16.75,-12.1,8.82,52.75,20.97,26.62,52.74,111.4,0,0,0,0,0,0,0,0,0,0,0,0,0,0,0,0,
525,5.787,2.183,8.722,-14.52,-6.775,-15.25,-22.24,-38.93,-4.165,6.453,27.94,41.81,41.89,30.59,71.1,104.5,0,0,0,0,0,0,0,0,0,0,0,0,0,0,0,0,
526,-19.03,18.62,28.73,-7.245,1.773,-8.423,-0.5075,-13.13,18.59,29.62,55.45,43.06,57.82,45.42,78.32,90.71,0,0,0,0,0,0,0,0,0,0,0,0,0,0,0,0,
527,37.04,10.82,38.17,24.1,18.42,24.02,-1.398,22.63,36.52,36.74,55.9,36.62,51.41,42.82,65.51,69.07,0,0,0,0,0,0,0,0,0,0,0,0,0,0,0,0,
528,55.7,16.26,31.34,25.33,47.03,26.35,-9.936,19.11,42.33,37.94,44.99,21.17,48.53,27.74,50.71,39.73,0,0,0,0,0,0,0,0,0,0,0,0,0,0,0,0,
529,-2.778,44.51,43.39,20.7,50.23,20.49,-0.7758,12.9,46.7,42.0,49.2,18.5,61.34,27.26,46.3,20.65,0,0,0,0,0,0,0,0,0,0,0,0,0,0,0,0,
530,6.99,41.37,47.07,34.35,41.25,33.52,6.613,13.76,44.1,36.18,35.69,9.332,53.0,17.97,36.57,3.593,0,0,0,0,0,0,0,0,0,0,0,0,0,0,0,0,
531,34.29,29.21,19.49,34.1,44.08,34.6,3.801,2.81,38.61,24.0,24.42,0.9821,36.69,2.769,25.07,-9.663,0,0,0,0,0,0,0,0,0,0,0,0,0,0,0,0,
532,16.13,52.23,7.197,17.12,43.19,18.59,-6.876,6.567,33.52,15.26,27.55,8.725,26.21,0.0183,2.184,-15.84,0,0,0,0,0,0,0,0,0,0,0,0,0,0,0,0,
533,10.07,43.37,8.397,4.517,42.99,5.854,-25.56,5.895,9.607,6.262,4.298,3.108,1.265,-7.13,-25.68,-22.77,0,0,0,0,0,0,0,0,0,0,0,0,0,0,0,0,
534,-22.27,0.843,-1.114,-1.132,24.34,0.1,-32.14,-12.45,-11.43,5.092,-6.254,5.502,-2.628,1.44,-9.259,0.4738,0,0,0,0,0,0,0,0,0,0,0,0,0,0,0,0,
535,-38.88,14.33,2.887,-14.93,-27.78,-13.99,-35.48,0.9987,-5.086,8.87,15.26,36.17,18.77,27.4,16.18,34.7,0,0,0,0,0,0,0,0,0,0,0,0,0,0,0,0,
536,24.16,17.93,7.844,-33.43,-39.79,-34.05,-53.03,14.96,-2.683,2.974,7.241,45.26,13.52,25.27,-3.071,25.91,0,0,0,0,0,0,0,0,0,0,0,0,0,0,0,0,
537,27.94,-33.34,-5.92,-19.99,3.675,-22.26,-52.9,-8.037,-6.917,4.526,-5.135,37.81,9.205,21.52,-6.326,22.75,0,0,0,0,0,0,0,0,0,0,0,0,0,0,0,0,
538,-30.24,-15.59,-7.792,12.07,23.91,9.985,-35.76,-12.78,-1.777,12.03,15.69,45.58,27.72,40.0,24.96,49.02,0,0,0,0,0,0,0,0,0,0,0,0,0,0,0,0,
539,-13.25,32.78,-0.3627,5.578,13.57,4.234,-32.51,1.134,-5.595,-2.052,19.97,45.19,27.05,38.59,32.74,49.61,0,0,0,0,0,0,0,0,0,0,0,0,0,0,0,0,
540,6.744,13.58,1.423,-11.07,6.816,-12.64,-24.95,1.467,-1.229,-7.219,6.337,36.72,22.35,30.77,28.14,38.63,0,0,0,0,0,0,0,0,0,0,0,0,0,0,0,0,
541,-16.41,19.74,12.85,12.33,12.64,11.25,-11.52,5.103,25.96,20.43,11.07,34.61,34.11,43.33,37.98,42.19,0,0,0,0,0,0,0,0,0,0,0,0,0,0,0,0,
542,19.53,45.17,23.33,23.75,32.47,23.7,-15.78,5.854,33.96,34.56,24.09,30.34,40.51,49.95,52.26,45.38,0,0,0,0,0,0,0,0,0,0,0,0,0,0,0,0,
543,58.4,18.4,25.6,0.7806,31.46,-0.3001,-22.78,7.373,28.35,29.61,32.98,26.21,48.51,49.77,66.3,55.39,0,0,0,0,0,0,0,0,0,0,0,0,0,0,0,0,
544,20.34,22.73,25.87,4.257,8.425,2.493,-25.61,15.4,37.01,32.63,31.77,16.65,52.8,48.4,65.17,61.07,0,0,0,0,0,0,0,0,0,0,0,0,0,0,0,0,
545,11.49,49.1,12.04,18.76,17.42,18.87,-36.67,-12.36,29.35,16.58,21.57,-0.5115,33.36,27.67,46.26,45.18,0,0,0,0,0,0,0,0,0,0,0,0,0,0,0,0,
546,37.57,28.6,-1.158,3.489,28.58,3.454,-57.22,-43.48,6.405,-16.72,11.06,-10.59,3.572,-4.638,26.16,26.04,0,0,0,0,0,0,0,0,0,0,0,0,0,0,0,0,
547,-4.339,25.72,-8.695,-6.898,-5.056,-8.925,-86.82,-27.99,-9.637,-27.27,-11.74,-18.6,-28.2,-28.24,2.107,7.658,0,0,0,0,0,0,0,0,0,0,0,0,0,0,0,0,
548,-37.04,31.11,-28.42,-12.29,-26.11,-13.63,-97.95,-24.49,-36.01,-29.43,-32.84,-20.24,-44.59,-31.58,-15.74,-6.971,0,0,0,0,0,0,0,0,0,0,0,0,0,0,0,0,
549,-1.82,-12.71,-26.65,-28.66,-16.0,-29.85,-72.72,-36.08,-49.04,-36.81,-23.84,-4.58,-28.65,-16.27,-11.09,-1.494,0,0,0,0,0,0,0,0,0,0,0,0,0,0,0,0,
550,0.6618,-30.44,-3.877,-24.87,-30.28,-27.99,-57.43,-29.39,-35.09,-34.49,-11.28,2.571,-15.67,-7.064,-1.56,9.15,0,0,0,0,0,0,0,0,0,0,0,0,0,0,0,0,
551,-22.03,10.24,-11.58,-19.94,-51.79,-22.13,-67.71,-54.45,-46.54,-33.51,-13.56,-4.476,-18.96,-8.819,-0.8429,7.793,0,0,0,0,0,0,0,0,0,0,0,0,0,0,0,0,
552,-11.02,16.11,-25.68,-37.0,-41.09,-37.39,-65.97,-73.12,-67.07,-36.13,-14.69,-1.132,-17.17,-7.03,-5.779,1.159,0,0,0,0,0,0,0,0,0,0,0,0,0,0,0,0,
553,-13.22,-28.53,-20.3,-40.07,-34.77,-42.09,-61.73,-39.06,-57.77,-37.9,-23.25,-1.026,-23.75,-14.21,-16.85,-13.85,0,0,0,0,0,0,0,0,0,0,0,0,0,0,0,0,
554,-27.49,-20.43,-14.48,-31.64,-45.51,-34.72,-61.42,-39.46,-53.04,-46.8,-32.38,-15.71,-31.46,-28.61,-26.44,-31.29,0,0,0,0,0,0,0,0,0,0,0,0,0,0,0,0,
555,5.143,33.99,8.458,-28.19,-27.86,-29.26,-32.21,-50.0,-42.72,-40.22,-16.95,-18.04,-12.34,-20.54,-25.2,-25.76,0,0,0,0,0,0,0,0,0,0,0,0,0,0,0,0,
556,56.15,26.94,34.56,-13.58,8.44,-14.06,-8.131,-11.56,-5.881,-14.68,2.796,-6.63,9.157,2.918,-12.29,-4.292,0,0,0,0,0,0,0,0,0,0,0,0,0,0,0,0,
557,44.51,16.1,24.7,3.063,25.01,1.369,-28.64,-8.799,9.55,-0.6475,4.587,-0.5657,12.62,15.19,3.386,5.046,0,0,0,0,0,0,0,0,0,0,0,0,0,0,0,0,
558,0.3318,54.37,6.287,8.204,37.19,7.605,-46.48,-24.39,3.026,11.36,-3.108,1.659,8.534,14.07,-4.182,-2.091,0,0,0,0,0,0,0,0,0,0,0,0,0,0,0,0,
559,30.5,33.91,2.397,7.951,43.36,8.515,-44.46,-2.381,2.008,22.97,-17.26,-0.7022,-7.726,2.127,-33.42,-12.8,0,0,0,0,0,0,0,0,0,0,0,0,0,0,0,0,
560,80.9,14.28,3.374,11.89,23.12,10.93,-48.98,-4.214,-8.498,11.09,-30.73,-4.374,-28.11,-13.95,-42.08,-7.495,0,0,0,0,0,0,0,0,0,0,0,0,0,0,0,0,
561,54.74,74.84,7.137,26.9,11.97,26.25,-50.52,-7.191,-19.94,-4.67,-40.66,-4.486,-41.83,-26.98,-38.98,3.729,0,0,0,0,0,0,0,0,0,0,0,0,0,0,0,0,
562,44.24,73.26,4.114,27.43,28.19,29.09,-52.47,5.606,-23.97,-9.049,-61.83,-18.88,-62.32,-44.33,-64.69,-16.16,0,0,0,0,0,0,0,0,0,0,0,0,0,0,0,0,
563,77.85,32.89,1.551,4.524,38.49,5.105,-64.15,-24.16,-33.44,-16.29,-84.25,-45.53,-78.3,-61.43,-91.19,-51.75,0,0,0,0,0,0,0,0,0,0,0,0,0,0,0,0,
564,49.68,55.32,4.689,1.778,33.81,-0.5098,-71.47,-35.78,-36.93,-23.2,-91.3,-63.45,-75.25,-63.19,-92.11,-66.85,0,0,0,0,0,0,0,0,0,0,0,0,0,0,0,0,
565,13.44,39.37,-4.8,20.9,22.92,18.57,-74.34,-5.254,-35.19,-19.47,-87.06,-67.75,-64.03,-45.74,-84.56,-61.66,0,0,0,0,0,0,0,0,0,0,0,0,0,0,0,0,
566,47.73,14.25,-7.219,23.4,10.59,22.98,-62.09,1.951,-31.99,-0.8867,-63.09,-47.77,-36.83,-13.12,-54.77,-33.18,0,0,0,0,0,0,0,0,0,0,0,0,0,0,0,0,
567,65.73,54.58,7.709,11.06,4.622,11.72,-38.73,12.76,-16.13,17.37,-27.76,-14.92,-5.385,12.66,-12.64,2.511,0,0,0,0,0,0,0,0,0,0,0,0,0,0,0,0,
568,41.97,42.73,5.29,-0.8422,-0.0555,-0.5518,-42.94,16.99,-13.05,10.21,-14.62,-2.477,-7.116,16.32,-1.913,12.37,0,0,0,0,0,0,0,0,0,0,0,0,0,0,0,0,
569,31.09,-1.587,-1.097,-10.88,-4.468,-11.89,-53.05,-19.18,-29.97,-4.232,-14.0,4.303,-20.37,18.09,0.1367,13.74,0,0,0,0,0,0,0,0,0,0,0,0,0,0,0,0,
570,7.735,23.07,13.96,-14.5,8.617,-16.89,-31.3,-22.78,-23.69,0.313,-0.5377,25.65,-11.43,29.0,21.6,31.96,0,0,0,0,0,0,0,0,0,0,0,0,0,0,0,0,
571,-11.32,42.25,19.34,-11.38,35.16,-14.25,-9.119,7.78,-0.4326,7.59,14.64,39.02,-0.6788,34.51,36.02,55.57,0,0,0,0,0,0,0,0,0,0,0,0,0,0,0,0,
572,29.41,20.21,3.922,-6.312,30.01,-8.78,-10.94,10.14,-0.2311,2.256,15.14,31.0,-5.379,26.22,28.62,63.21,0,0,0,0,0,0,0,0,0,0,0,0,0,0,0,0,
573,58.4,22.4,-2.039,2.007,-10.22,0.1384,-19.27,2.234,-12.37,-4.636,6.797,15.67,-11.73,12.48,10.93,48.37,0,0,0,0,0,0,0,0,0,0,0,0,0,0,0,0,
574,32.66,54.7,13.46,14.24,-4.879,13.27,-8.048,-8.004,-8.518,3.681,15.59,10.49,-2.288,7.749,3.964,31.54,0,0,0,0,0,0,0,0,0,0,0,0,0,0,0,0,
575,34.84,66.48,31.97,22.47,47.98,22.31,24.66,-18.76,13.21,21.27,37.53,10.14,10.55,5.085,5.074,22.56,0,0,0,0,0,0,0,0,0,0,0,0,0,0,0,0,
576,63.27,41.65,32.06,23.03,55.11,23.57,31.62,5.495,33.47,22.37,27.42,-2.203,-4.568,-6.165,-14.58,12.87,0,0,0,0,0,0,0,0,0,0,0,0,0,0,0,0,
577,43.59,31.3,21.23,24.31,39.16,25.45,-3.648,29.94,26.84,10.44,-7.463,-20.08,-33.14,-17.75,-41.09,2.447,0,0,0,0,0,0,0,0,0,0,0,0,0,0,0,0,
578,14.03,47.13,14.76,27.23,45.87,27.04,-31.01,9.808,1.311,2.583,-23.48,-37.8,-41.67,-33.4,-47.6,-15.44,0,0,0,0,0,0,0,0,0,0,0,0,0,0,0,0,
579,57.45,56.89,8.11,24.26,17.75,22.99,-27.81,-5.369,-7.361,-4.923,-20.75,-48.78,-29.3,-39.05,-35.43,-22.63,0,0,0,0,0,0,0,0,0,0,0,0,0,0,0,0,
580,109.4,75.62,10.16,22.3,-8.805,22.91,-12.18,2.896,5.512,-1.692,-2.296,-35.97,3.967,-8.24,-0.5664,1.673,0,0,0,0,0,0,0,0,0,0,0,0,0,0,0,0,
581,67.53,89.46,24.82,31.07,25.04,31.73,2.085,-9.377,21.52,15.33,26.23,-17.68,41.65,21.46,31.45,15.87,0,0,0,0,0,0,0,0,0,0,0,0,0,0,0,0,
582,32.47,67.56,19.86,33.11,32.43,31.64,5.418,-17.86,32.8,20.86,35.54,-7.254,51.76,26.88,34.14,12.37,0,0,0,0,0,0,0,0,0,0,0,0,0,0,0,0,
583,64.48,33.52,-5.619,13.16,5.878,12.37,-1.143,3.649,29.33,24.18,30.6,10.25,46.08,41.44,37.64,27.74,0,0,0,0,0,0,0,0,0,0,0,0,0,0,0,0,
584,27.88,6.278,-17.51,3.121,20.18,2.646,-16.54,6.987,10.65,37.02,25.22,15.19,38.08,47.87,40.63,34.35,0,0,0,0,0,0,0,0,0,0,0,0,0,0,0,0,
585,-13.6,20.6,-21.43,24.3,19.54,21.48,-43.3,-9.433,-7.23,27.44,9.077,2.87,14.23,29.69,20.28,17.41,0,0,0,0,0,0,0,0,0,0,0,0,0,0,0,0,
586,56.39,78.94,-29.03,38.45,-27.04,35.63,-51.7,-5.785,-18.89,5.53,5.15,7.653,-1.865,28.31,15.89,19.84,0,0,0,0,0,0,0,0,0,0,0,0,0,0,0,0,
587,76.9,94.41,-18.96,29.37,-42.44,28.87,-22.85,13.08,-19.54,8.153,35.97,23.74,19.41,41.67,44.07,40.86,0,0,0,0,0,0,0,0,0,0,0,0,0,0,0,0,
588,30.16,61.9,4.288,26.08,-14.52,25.77,-0.2679,31.55,-5.293,11.68,62.4,31.03,44.44,41.46,60.84,46.92,0,0,0,0,0,0,0,0,0,0,0,0,0,0,0,0,
589,38.52,50.09,6.671,30.41,10.68,29.2,-3.487,38.83,6.385,1.258,53.42,30.74,37.71,35.89,49.8,36.45,0,0,0,0,0,0,0,0,0,0,0,0,0,0,0,0,
590,19.69,51.94,-13.99,28.03,1.589,27.83,0.5526,39.19,4.547,-1.745,35.68,19.08,20.97,23.2,28.92,24.22,0,0,0,0,0,0,0,0,0,0,0,0,0,0,0,0,
591,-13.06,41.78,-27.47,17.01,-33.34,17.73,4.729,37.82,-2.706,-10.42,25.19,2.83,6.071,-4.353,7.884,8.343,0,0,0,0,0,0,0,0,0,0,0,0,0,0,0,0,
592,33.3,21.44,-24.12,4.686,-32.03,4.61,-14.59,13.67,-9.723,-27.86,0.0933,-9.263,-28.53,-31.27,-15.23,-16.55,0,0,0,0,0,0,0,0,0,0,0,0,0,0,0,0,
593,58.8,23.05,-23.85,10.84,1.149,10.68,-34.91,-4.999,-21.51,-30.87,-32.7,-21.64,-62.95,-45.57,-35.88,-31.45,0,0,0,0,0,0,0,0,0,0,0,0,0,0,0,0,
594,36.95,71.71,-23.16,25.08,-0.4926,24.4,-33.18,6.128,-40.05,-29.82,-33.46,-23.27,-56.56,-42.08,-33.04,-22.31,0,0,0,0,0,0,0,0,0,0,0,0,0,0,0,0,
595,32.57,86.34,-8.12,20.48,-17.13,18.02,-15.91,-3.39,-37.69,-26.23,-4.122,-5.462,-21.09,-16.55,-3.211,-2.767,0,0,0,0,0,0,0,0,0,0,0,0,0,0,0,0,
596,21.42,41.55,0.4595,19.66,-19.22,17.92,-4.899,-13.4,-3.85,-3.868,17.29,16.98,13.71,20.21,28.57,17.22,0,0,0,0,0,0,0,0,0,0,0,0,0,0,0,0,
597,45.47,58.15,7.232,37.39,-16.81,37.05,-7.601,16.46,18.46,20.09,25.03,35.58,41.24,49.56,54.41,36.77,0,0,0,0,0,0,0,0,0,0,0,0,0,0,0,0,
598,122.5,109.3,26.67,45.06,17.31,44.41,-9.146,24.73,23.77,34.45,30.15,44.39,55.17,59.39,64.79,45.13,0,0,0,0,0,0,0,0,0,0,0,0,0,0,0,0,
599,116.7,71.61,8.885,38.0,41.08,38.55,-18.59,0.8076,32.57,39.41,15.29,29.75,40.42,44.4,29.98,26.99,0,0,0,0,0,0,0,0,0,0,0,0,0,0,0,0,
600,31.0,33.0,-42.29,30.22,-9.191,31.07,-43.89,-14.94,8.655,17.47,-20.28,4.946,1.959,15.33,-23.13,-6.161,0,0,0,0,0,0,0,0,0,0,0,0,0,0,0,0,
601,21.79,70.46,-51.16,27.22,-45.21,26.15,-57.22,-31.88,-39.96,-17.15,-35.07,2.16,-19.94,0.5093,-37.23,-16.66,0,0,0,0,0,0,0,0,0,0,0,0,0,0,0,0,
602,59.79,77.18,-37.38,29.33,-22.38,29.53,-52.03,-28.24,-44.62,-24.13,-15.16,21.78,-6.154,11.07,-22.25,0.6424,0,0,0,0,0,0,0,0,0,0,0,0,0,0,0,0,
603,37.27,51.9,-42.3,24.74,-25.26,26.42,-34.35,-3.074,-22.4,-6.121,16.91,37.57,9.66,24.27,-3.678,12.9,0,0,0,0,0,0,0,0,0,0,0,0,0,0,0,0,
604,38.72,68.72,-21.45,23.39,-36.56,22.31,-3.248,-15.58,-19.94,6.258,46.38,37.45,11.06,23.11,14.29,6.171,0,0,0,0,0,0,0,0,0,0,0,0,0,0,0,0,
605,109.5,88.75,25.66,42.82,-3.478,40.9,14.41,-32.13,-11.49,10.06,53.56,31.15,10.85,15.23,12.79,-2.695,0,0,0,0,0,0,0,0,0,0,0,0,0,0,0,0,
606,125.2,99.56,39.57,50.91,17.08,51.86,5.96,-3.545,4.446,12.86,31.11,19.83,-1.715,-0.6147,-2.247,-4.344,0,0,0,0,0,0,0,0,0,0,0,0,0,0,0,0,
607,80.98,102.2,15.87,35.98,3.057,37.65,-11.38,1.524,-12.15,-1.921,4.949,-5.811,-28.86,-30.17,-10.7,-15.62,0,0,0,0,0,0,0,0,0,0,0,0,0,0,0,0,
608,70.49,65.26,-4.631,34.76,3.76,34.74,-28.6,-35.64,-38.12,-27.97,-11.63,-21.06,-38.59,-45.56,-18.42,-30.36,0,0,0,0,0,0,0,0,0,0,0,0,0,0,0,0,
609,73.57,57.88,-4.132,35.33,17.73,34.92,-35.89,-40.78,-28.21,-24.86,-20.53,-6.83,-25.33,-29.61,-21.33,-22.27,0,0,0,0,0,0,0,0,0,0,0,0,0,0,0,0,
610,72.1,95.16,-3.173,17.85,15.45,18.35,-35.91,-16.37,-6.449,-1.926,-21.72,-0.3953,-17.68,-15.45,-22.13,-16.38,0,0,0,0,0,0,0,0,0,0,0,0,0,0,0,0,
611,103.5,82.95,-5.182,22.22,7.155,22.63,-34.09,-4.292,-4.036,6.611,-16.63,-2.13,-10.54,-3.11,-25.51,-22.3,0,0,0,0,0,0,0,0,0,0,0,0,0,0,0,0,
612,128.4,65.4,15.56,51.57,8.538,50.97,-18.73,3.034,5.883,22.83,4.156,21.78,17.9,34.89,-6.776,-0.7164,0,0,0,0,0,0,0,0,0,0,0,0,0,0,0,0,
613,106.5,97.4,33.18,58.74,13.23,58.69,-10.24,4.177,32.13,51.11,18.17,32.47,32.92,51.62,10.12,15.88,0,0,0,0,0,0,0,0,0,0,0,0,0,0,0,0,
614,97.78,100.0,12.34,41.95,16.48,42.97,-25.67,-12.54,31.04,40.59,-8.252,7.359,9.928,20.93,-8.487,-8.585,0,0,0,0,0,0,0,0,0,0,0,0,0,0,0,0,
615,114.4,73.95,-5.489,33.17,17.09,32.83,-30.28,-37.75,0.9501,1.315,-21.94,-2.618,1.667,12.65,-9.346,-13.7,0,0,0,0,0,0,0,0,0,0,0,0,0,0,0,0,
616,97.41,77.49,5.816,46.29,11.33,44.76,-16.61,-47.72,-9.362,-7.456,8.966,6.687,21.94,33.19,18.71,11.04,0,0,0,0,0,0,0,0,0,0,0,0,0,0,0,0,
617,94.1,87.44,14.67,59.54,-2.527,59.87,-9.739,-28.43,4.01,3.785,13.37,1.736,20.97,23.02,11.58,7.622,0,0,0,0,0,0,0,0,0,0,0,0,0,0,0,0,
618,145.6,91.92,11.69,35.84,-14.44,37.7,-8.828,-25.96,9.463,1.293,-13.94,-12.57,3.13,2.063,-19.2,-13.17,0,0,0,0,0,0,0,0,0,0,0,0,0,0,0,0,
619,155.2,106.8,5.25,9.017,4.586,9.268,-12.53,-68.08,2.467,-0.9248,-17.42,-22.11,-8.738,0.5936,-32.5,-20.43,0,0,0,0,0,0,0,0,0,0,0,0,0,0,0,0,
620,116.5,111.5,7.535,39.68,39.77,38.07,-18.25,-83.63,-5.48,-0.4461,-11.83,-25.62,-25.88,-10.75,-42.68,-28.54,0,0,0,0,0,0,0,0,0,0,0,0,0,0,0,0,
621,126.1,101.8,29.06,72.41,30.34,72.15,-5.348,-46.67,-4.578,-8.243,-10.42,-26.29,-35.4,-32.83,-48.93,-34.62,0,0,0,0,0,0,0,0,0,0,0,0,0,0,0,0,
622,160.6,104.0,37.05,47.96,-4.567,49.87,16.07,-28.68,-1.606,-16.66,-4.128,-29.16,-35.14,-46.13,-45.4,-30.74,0,0,0,0,0,0,0,0,0,0,0,0,0,0,0,0,
623,145.9,98.27,15.33,30.93,-13.72,31.59,18.55,-50.05,-17.7,-35.66,-7.367,-37.65,-49.22,-61.24,-49.19,-38.37,0,0,0,0,0,0,0,0,0,0,0,0,0,0,0,0,
624,98.09,49.34,1.978,38.92,-21.92,37.78,20.35,-59.1,-33.72,-61.46,-4.741,-45.16,-53.39,-67.36,-42.21,-47.7,0,0,0,0,0,0,0,0,0,0,0,0,0,0,0,0,
625,89.14,16.32,6.704,20.07,-28.96,19.38,39.77,-45.12,-16.93,-54.69,8.596,-37.15,-32.48,-45.21,-20.0,-38.0,0,0,0,0,0,0,0,0,0,0,0,0,0,0,0,0,
626,118.0,61.35,14.0,10.68,-12.01,9.369,44.66,-48.24,9.285,-27.83,-0.5379,-25.73,-27.34,-28.76,-27.76,-40.97,0,0,0,0,0,0,0,0,0,0,0,0,0,0,0,0,
627,97.42,102.2,15.61,27.47,-3.479,26.03,22.39,-56.02,15.32,-26.34,-15.26,-25.79,-36.53,-37.06,-51.85,-59.67,0,0,0,0,0,0,0,0,0,0,0,0,0,0,0,0,
628,63.5,75.76,5.101,17.77,-6.815,18.55,16.09,-35.5,14.37,-28.57,-2.053,-13.41,-18.65,-28.15,-38.31,-51.08,0,0,0,0,0,0,0,0,0,0,0,0,0,0,0,0,
629,111.7,67.84,6.56,10.18,-17.2,10.22,40.55,-30.42,24.4,-5.102,26.53,4.017,14.67,-1.098,-10.63,-32.98,0,0,0,0,0,0,0,0,0,0,0,0,0,0,0,0,
630,141.9,87.52,16.66,27.43,-50.79,24.83,42.01,-49.27,33.69,2.492,42.61,-10.14,19.63,-1.899,-12.43,-38.0,0,0,0,0,0,0,0,0,0,0,0,0,0,0,0,0,
631,79.08,49.84,-4.077,26.71,-54.84,24.5,5.783,-39.05,18.51,-21.19,34.87,-25.23,-0.4509,-12.0,-17.89,-35.59,0,0,0,0,0,0,0,0,0,0,0,0,0,0,0,0,
632,52.81,19.63,-19.61,28.68,-20.39,27.78,-5.181,-27.52,-2.585,-24.38,29.17,-11.49,-10.75,0.1236,-5.867,-18.53,0,0,0,0,0,0,0,0,0,0,0,0,0,0,0,0,
633,86.29,68.54,-0.7719,36.33,-25.49,35.75,3.091,-50.57,-5.561,-12.83,31.01,-12.8,-22.85,-6.143,-13.4,-28.32,0,0,0,0,0,0,0,0,0,0,0,0,0,0,0,0,
634,69.84,96.11,1.379,10.82,-42.05,9.452,-23.8,-72.07,-21.53,-33.31,9.325,-39.23,-55.22,-38.18,-42.89,-56.9,0,0,0,0,0,0,0,0,0,0,0,0,0,0,0,0,
635,45.87,68.74,-17.58,-7.334,-23.61,-9.999,-41.74,-73.36,-47.55,-62.39,-10.68,-48.83,-68.94,-47.96,-48.18,-62.18,0,0,0,0,0,0,0,0,0,0,0,0,0,0,0,0,
636,88.51,62.61,-32.09,-8.039,-39.69,-9.797,-29.09,-64.96,-38.65,-70.68,-10.09,-47.39,-56.61,-49.77,-39.07,-57.59,0,0,0,0,0,0,0,0,0,0,0,0,0,0,0,0,
637,116.7,67.05,-43.71,-19.74,-83.44,-21.07,-43.88,-64.71,-19.54,-71.56,-25.04,-56.1,-56.73,-70.92,-46.28,-66.28,0,0,0,0,0,0,0,0,0,0,0,0,0,0,0,0,
638,89.25,46.79,-38.14,-3.261,-80.96,-6.792,-59.79,-73.57,-23.71,-69.8,-31.47,-57.67,-55.98,-80.07,-48.01,-68.38,0,0,0,0,0,0,0,0,0,0,0,0,0,0,0,0,
639,68.8,22.77,-23.4,16.53,-65.22,13.63,-31.49,-61.24,-22.82,-68.41,-2.779,-52.43,-34.67,-66.77,-34.34,-62.37,0,0,0,0,0,0,0,0,0,0,0,0,0,0,0,0,
640,67.28,31.12,-12.12,-1.777,-54.01,-2.159,2.749,-48.25,-1.293,-60.06,17.73,-55.31,-11.91,-48.46,-18.12,-60.59,0,0,0,0,0,0,0,0,0,0,0,0,0,0,0,0,
641,64.36,80.35,7.17,6.677,-22.41,5.605,18.46,-67.94,25.66,-36.19,23.27,-54.45,7.457,-27.65,-3.603,-54.76,0,0,0,0,0,0,0,0,0,0,0,0,0,0,0,0,
642,54.72,98.58,7.598,25.91,-15.86,24.1,25.25,-72.28,43.92,-23.27,34.12,-45.62,19.94,-12.99,-3.64,-51.77,0,0,0,0,0,0,0,0,0,0,0,0,0,0,0,0,
643,63.04,64.67,-11.16,3.627,-28.77,2.553,33.65,-40.46,48.19,-20.9,41.51,-37.58,17.19,-7.513,-7.291,-54.65,0,0,0,0,0,0,0,0,0,0,0,0,0,0,0,0,
644,114.9,72.93,-8.591,8.48,-30.68,6.965,34.11,-28.98,43.19,-11.85,38.65,-31.39,6.655,-6.826,-0.6159,-51.45,0,0,0,0,0,0,0,0,0,0,0,0,0,0,0,0,
645,114.9,99.42,-8.661,34.37,-72.78,32.93,0.3589,-41.69,23.2,-18.82,21.24,-30.79,-12.06,-11.91,-4.837,-49.44,0,0,0,0,0,0,0,0,0,0,0,0,0,0,0,0,
646,26.64,64.11,-22.91,16.29,-97.76,16.17,-25.84,-37.8,-7.544,-29.65,5.5,-32.44,-31.88,-10.31,-10.26,-49.28,0,0,0,0,0,0,0,0,0,0,0,0,0,0,0,0,
647,5.322,44.92,-14.83,9.653,-31.17,9.772,-6.222,-38.35,-18.92,-18.19,8.828,-34.69,-38.76,-9.543,-5.551,-47.59,0,0,0,0,0,0,0,0,0,0,0,0,0,0,0,0,
648,63.25,73.01,-10.81,26.71,-9.068,26.15,-1.881,-60.75,-16.01,-22.49,2.005,-45.19,-44.98,-27.89,-17.12,-50.42,0,0,0,0,0,0,0,0,0,0,0,0,0,0,0,0,
649,83.04,64.9,-36.29,13.24,-74.79,11.75,-28.52,-61.77,-22.47,-48.3,-16.09,-48.99,-49.96,-34.36,-26.32,-44.52,0,0,0,0,0,0,0,0,0,0,0,0,0,0,0,0,
650,87.06,41.97,-48.46,4.763,-79.06,2.807,-36.67,-47.81,-15.32,-45.12,-21.37,-37.0,-41.68,-15.58,-17.45,-29.92,0,0,0,0,0,0,0,0,0,0,0,0,0,0,0,0,
651,80.43,48.56,-35.85,13.2,-25.43,12.21,-32.62,-59.07,10.09,-19.78,-39.58,-32.24,-40.93,-10.25,-28.81,-29.03,0,0,0,0,0,0,0,0,0,0,0,0,0,0,0,0,
652,45.42,55.7,-26.85,8.971,-10.78,8.368,-30.5,-68.24,14.02,-15.97,-63.11,-39.11,-50.84,-22.02,-45.52,-35.93,0,0,0,0,0,0,0,0,0,0,0,0,0,0,0,0,
653,67.46,73.16,-26.04,22.76,-20.77,21.61,-31.75,-60.74,6.33,-29.05,-57.19,-39.81,-49.01,-28.79,-33.97,-32.12,0,0,0,0,0,0,0,0,0,0,0,0,0,0,0,0,
654,111.2,86.57,-31.39,31.05,-33.69,30.33,-50.4,-60.07,9.136,-34.12,-54.62,-28.93,-43.76,-29.12,-22.79,-19.37,0,0,0,0,0,0,0,0,0,0,0,0,0,0,0,0,
655,76.5,55.54,-33.78,3.61,-42.36,1.961,-48.26,-48.31,-0.0533,-30.59,-50.46,-11.56,-31.89,-16.46,-11.92,-6.12,0,0,0,0,0,0,0,0,0,0,0,0,0,0,0,0,
656,64.84,56.09,-12.13,19.7,-20.41,16.19,1.628,-23.04,1.625,-20.2,-6.419,-0.1767,0.4308,8.011,13.55,3.618,0,0,0,0,0,0,0,0,0,0,0,0,0,0,0,0,
657,137.6,124.1,16.11,74.58,10.48,72.73,32.22,-15.74,30.82,-4.198,12.98,-0.313,12.3,21.99,10.69,0.6797,0,0,0,0,0,0,0,0,0,0,0,0,0,0,0,0,T1
658,169.9,163.8,30.34,93.55,26.36,93.64,23.82,-9.412,27.54,4.786,-15.56,4.561,-6.941,26.73,-8.644,-12.5,0,0,0,0,0,0,0,0,0,0,0,0,0,0,0,0,
659,185.7,186.8,56.63,121.2,54.12,121.1,33.19,18.51,7.74,16.23,-13.41,19.81,-8.426,38.63,8.556,-7.896,0,0,0,0,0,0,0,0,0,0,0,0,0,0,0,0,
660,289.3,269.5,85.84,173.2,89.48,175.1,37.41,44.03,23.56,44.02,-3.571,25.25,-9.94,44.27,12.53,5.299,0,0,0,0,0,0,0,0,0,0,0,0,0,0,0,0,
661,375.5,354.7,92.23,204.8,99.42,208.0,10.55,58.97,26.68,64.35,-30.84,19.77,-34.85,34.12,-20.53,-4.998,0,0,0,0,0,0,0,0,0,0,0,0,0,0,0,0,
662,417.8,402.6,123.5,254.5,116.4,256.5,17.11,72.61,19.79,69.15,-29.28,24.43,-31.87,33.85,-13.92,-6.51,0,0,0,0,0,0,0,0,0,0,0,0,0,0,0,0,
663,542.8,486.7,189.7,322.7,178.4,326.6,51.24,80.33,54.32,81.62,0.9116,38.32,-8.852,49.76,15.25,20.44,0,0,0,0,0,0,0,0,0,0,0,0,0,0,0,0,
664,662.8,611.5,224.0,363.7,232.3,371.4,51.5,97.11,81.05,98.9,-4.066,50.06,-11.91,60.59,3.983,36.01,0,0,0,0,0,0,0,0,0,0,0,0,0,0,0,0,
665,667.3,676.7,230.8,410.1,247.0,419.0,38.12,114.1,79.99,112.3,-18.34,62.73,-12.12,69.44,-5.586,42.84,0,0,0,0,0,0,0,0,0,0,0,0,0,0,0,0,
666,655.1,666.9,258.9,469.0,286.0,479.6,35.64,99.5,102.3,133.4,-10.98,76.58,10.92,87.96,14.61,63.95,0,0,0,0,0,0,0,0,0,0,0,0,0,0,0,0,
667,674.2,670.5,296.4,511.1,354.9,526.1,49.05,110.0,141.8,161.3,2.274,88.31,44.49,107.9,35.62,82.49,0,0,0,0,0,0,0,0,0,0,0,0,0,0,0,0,
668,691.6,687.2,318.6,547.3,378.6,567.4,83.02,166.8,175.4,181.1,20.98,92.84,85.67,118.2,55.08,85.33,0,0,0,0,0,0,0,0,0,0,0,0,0,0,0,0,
669,678.3,665.4,330.6,561.8,367.0,586.7,92.3,178.1,195.5,185.2,40.02,85.35,109.9,116.6,73.49,78.55,0,0,0,0,0,0,0,0,0,0,0,0,0,0,0,0,
670,620.8,648.8,339.7,540.3,388.7,567.6,86.67,158.6,196.2,184.4,57.84,83.22,122.2,118.6,91.62,76.64,0,0,0,0,0,0,0,0,0,0,0,0,0,0,0,0,
671,593.4,629.2,340.6,513.0,411.8,538.6,124.4,171.9,207.5,198.5,88.18,99.06,154.9,138.4,114.3,88.97,0,0,0,0,0,0,0,0,0,0,0,0,0,0,0,0,
672,604.0,552.6,330.5,486.3,376.0,507.4,150.7,174.9,231.1,215.3,112.9,110.4,173.5,154.6,116.2,100.6,0,0,0,0,0,0,0,0,0,0,0,0,0,0,0,0,
673,566.8,507.1,310.8,450.7,327.4,468.3,119.2,158.6,218.8,202.6,106.7,99.64,148.1,141.5,88.61,91.62,0,0,0,0,0,0,0,0,0,0,0,0,0,0,0,0,
674,496.3,506.1,273.8,414.6,310.9,430.4,93.27,137.8,178.4,171.2,87.3,82.94,116.9,116.7,68.32,73.11,0,0,0,0,0,0,0,0,0,0,0,0,0,0,0,0,
675,409.4,426.0,231.2,385.5,283.6,399.8,86.32,105.4,153.8,156.2,81.66,83.87,98.63,108.2,70.48,74.22,0,0,0,0,0,0,0,0,0,0,0,0,0,0,0,0,
676,308.5,327.2,209.7,349.0,230.7,364.4,66.21,106.6,138.7,153.9,75.31,92.33,77.27,103.7,61.53,77.74,0,0,0,0,0,0,0,0,0,0,0,0,0,0,0,0,
677,265.1,296.7,195.1,296.5,206.3,312.4,52.38,129.7,118.3,143.3,42.44,80.18,51.15,85.32,30.0,52.35,0,0,0,0,0,0,0,0,0,0,0,0,0,0,0,0,
678,259.9,249.2,179.6,271.7,231.2,283.2,55.7,122.6,111.6,135.2,7.814,60.65,31.2,71.72,8.635,30.01,0,0,0,0,0,0,0,0,0,0,0,0,0,0,0,0,
679,232.2,205.8,187.1,277.7,250.5,287.6,60.59,115.8,123.1,142.8,0.5424,55.36,24.86,66.96,-3.78,19.51,0,0,0,0,0,0,0,0,0,0,0,0,0,0,0,0,
680,205.2,216.9,192.7,249.8,218.2,262.4,66.56,117.9,130.0,147.0,2.275,47.81,29.15,51.63,-25.89,-11.94,0,0,0,0,0,0,0,0,0,0,0,0,0,0,0,0,
681,160.7,184.4,165.3,221.0,179.6,230.9,66.09,105.5,123.0,129.4,-2.391,33.43,33.59,36.6,-36.93,-39.16,0,0,0,0,0,0,0,0,0,0,0,0,0,0,0,0,
682,85.7,120.0,131.8,232.1,183.1,240.3,53.2,92.1,113.7,111.3,-6.939,24.99,36.69,34.48,-30.51,-43.35,0,0,0,0,0,0,0,0,0,0,0,0,0,0,0,0,
683,47.69,88.84,107.6,203.9,189.4,216.7,52.37,83.77,119.5,118.4,2.626,20.07,53.63,36.77,-12.89,-41.09,0,0,0,0,0,0,0,0,0,0,0,0,0,0,0,0,
684,42.31,43.71,86.33,144.0,164.4,156.0,64.7,77.78,137.1,129.4,29.53,18.84,79.56,41.66,15.41,-24.59,0,0,0,0,0,0,0,0,0,0,0,0,0,0,0,0,
685,17.06,3.861,73.21,131.1,130.2,139.0,56.14,67.59,132.4,117.1,42.65,19.13,83.43,38.63,27.46,-15.22,0,0,0,0,0,0,0,0,0,0,0,0,0,0,0,0,
686,-13.39,-20.71,65.44,126.1,107.3,135.8,40.17,51.9,99.54,95.4,41.81,8.169,77.91,19.97,32.88,-37.0,0,0,0,0,0,0,0,0,0,0,0,0,0,0,0,0,
687,-46.7,-77.3,65.43,101.9,103.8,112.1,49.98,49.65,77.49,78.39,60.02,-9.703,89.17,2.731,60.39,-53.32,0,0,0,0,0,0,0,0,0,0,0,0,0,0,0,0,
688,-98.34,-106.8,71.52,81.01,101.6,88.79,60.07,56.79,76.84,64.97,70.92,-16.43,88.37,-1.97,74.09,-42.95,0,0,0,0,0,0,0,0,0,0,0,0,0,0,0,0,
689,-137.1,-119.4,62.22,41.91,72.69,49.4,51.17,54.12,71.97,56.9,49.45,-17.2,65.97,1.084,60.17,-25.95,0,0,0,0,0,0,0,0,0,0,0,0,0,0,0,0,
690,-160.7,-178.4,37.09,8.946,32.73,15.08,41.55,35.74,53.96,42.79,27.32,-24.56,46.72,2.345,48.76,-16.67,0,0,0,0,0,0,0,0,0,0,0,0,0,0,0,0,
691,-190.9,-210.4,0.7722,0.9553,0.7375,6.283,29.41,23.09,25.69,26.05,14.92,-18.94,24.31,1.812,29.9,-13.92,0,0,0,0,0,0,0,0,0,0,0,0,0,0,0,0,
692,-196.9,-213.3,-28.38,-23.07,-20.96,-17.36,17.46,37.18,-7.557,31.83,-4.284,-4.655,-7.408,2.089,-11.33,-19.02,0,0,0,0,0,0,0,0,0,0,0,0,0,0,0,0,
693,-181.5,-223.4,-15.83,-24.76,-10.78,-22.57,13.24,34.48,-23.32,45.66,-35.04,-14.24,-40.15,-8.665,-55.02,-34.54,0,0,0,0,0,0,0,0,0,0,0,0,0,0,0,0,
694,-213.9,-216.6,-25.44,6.656,14.09,7.664,-5.989,9.597,-18.72,44.4,-56.78,-12.43,-61.03,-10.49,-68.07,-31.07,0,0,0,0,0,0,0,0,0,0,0,0,0,0,0,0,
695,-284.1,-275.5,-92.12,-14.55,5.044,-9.976,-29.94,18.54,-19.43,44.76,-45.85,23.15,-49.2,18.83,-46.5,2.235,0,0,0,0,0,0,0,0,0,0,0,0,0,0,0,0,
696,-288.2,-346.0,-74.7,-54.59,-8.098,-50.19,-19.4,31.54,-17.23,47.89,-30.39,35.9,-23.44,32.85,-30.65,21.51,0,0,0,0,0,0,0,0,0,0,0,0,0,0,0,0,
697,-232.2,-274.6,29.8,-49.44,14.55,-46.23,3.983,19.41,2.832,35.3,-33.7,23.4,-12.98,13.72,-31.4,16.12,0,0,0,0,0,0,0,0,0,0,0,0,0,0,0,0,
698,-235.5,-234.7,59.31,-67.91,28.24,-63.25,7.606,4.779,13.97,17.7,-25.88,19.31,0.1161,6.156,-26.19,7.44,0,0,0,0,0,0,0,0,0,0,0,0,0,0,0,0,
699,-258.6,-321.8,57.47,-122.2,21.31,-118.1,21.45,-26.9,20.5,16.41,0.385,23.0,31.7,21.17,-12.69,9.181,0,0,0,0,0,0,0,0,0,0,0,0,0,0,0,0,
700,-222.2,-330.1,99.4,-143.3,34.35,-140.3,56.69,-41.13,53.33,31.42,28.35,44.44,70.58,46.65,17.28,36.9,0,0,0,0,0,0,0,0,0,0,0,0,0,0,0,0,
701,-241.4,-300.3,88.79,-144.5,44.28,-142.4,66.49,-10.53,85.25,42.1,50.73,61.59,97.02,67.31,58.9,63.98,0,0,0,0,0,0,0,0,0,0,0,0,0,0,0,0,
702,-292.1,-345.8,49.91,-152.6,38.41,-152.8,53.99,-0.0753,89.69,39.47,66.91,55.87,106.2,74.07,82.78,71.04,0,0,0,0,0,0,0,0,0,0,0,0,0,0,0,0,
703,-228.2,-333.0,70.33,-141.6,55.59,-142.4,65.88,-6.409,93.61,45.24,88.01,65.57,117.0,83.4,86.35,83.13,0,0,0,0,0,0,0,0,0,0,0,0,0,0,0,0,
704,-199.8,-293.2,68.91,-132.4,63.73,-131.4,70.15,-1.404,100.8,53.86,87.94,65.02,110.1,74.2,66.78,72.54,0,0,0,0,0,0,0,0,0,0,0,0,0,0,0,0,
705,-298.3,-355.3,13.65,-166.1,26.54,-164.8,29.89,-17.6,83.08,34.28,44.49,29.08,63.4,37.34,31.66,33.23,0,0,0,0,0,0,0,0,0,0,0,0,0,0,0,0,
706,-321.7,-383.6,1.33,-189.4,4.656,-188.9,5.532,-26.53,54.52,18.95,22.8,27.23,36.23,35.14,30.78,37.3,0,0,0,0,0,0,0,0,0,0,0,0,0,0,0,0,
707,-264.8,-304.8,36.59,-153.5,27.29,-152.7,22.73,-6.577,54.4,42.65,47.9,50.74,53.98,59.01,57.6,68.92,0,0,0,0,0,0,0,0,0,0,0,0,0,0,0,0,
708,-267.7,-269.3,48.26,-133.1,41.11,-131.5,32.81,-10.16,67.05,52.76,56.09,32.55,60.63,48.7,53.52,60.63,0,0,0,0,0,0,0,0,0,0,0,0,0,0,0,0,
709,-286.4,-300.0,32.28,-165.6,26.9,-164.0,39.84,-27.15,56.46,29.85,43.11,10.61,51.84,36.18,31.79,45.42,0,0,0,0,0,0,0,0,0,0,0,0,0,0,0,0,
710,-272.7,-301.1,23.87,-174.6,22.08,-173.5,59.18,-14.15,49.07,31.55,49.92,21.06,63.53,53.21,38.48,61.0,0,0,0,0,0,0,0,0,0,0,0,0,0,0,0,0,
711,-267.8,-283.6,20.75,-148.7,32.78,-148.3,57.72,-4.617,67.02,53.2,70.57,23.41,85.51,66.56,64.73,75.87,0,0,0,0,0,0,0,0,0,0,0,0,0,0,0,0,
712,-273.9,-291.0,7.262,-149.5,26.42,-149.2,44.42,-35.49,74.31,48.98,83.64,16.68,99.02,72.38,88.97,84.68,0,0,0,0,0,0,0,0,0,0,0,0,0,0,0,0,
713,-276.2,-301.9,1.845,-175.9,12.93,-174.6,54.3,-66.8,68.7,39.73,82.82,36.49,111.9,91.9,114.9,109.5,0,0,0,0,0,0,0,0,0,0,0,0,0,0,0,0,
714,-280.0,-298.3,16.76,-183.5,15.93,-183.0,63.8,-52.09,78.5,54.61,75.61,63.96,126.3,114.3,138.0,129.4,0,0,0,0,0,0,0,0,0,0,0,0,0,0,0,0,
715,-274.9,-306.6,19.74,-163.4,10.95,-165.0,44.25,-24.56,80.19,68.22,71.37,63.67,126.5,117.0,138.2,120.0,0,0,0,0,0,0,0,0,0,0,0,0,0,0,0,0,
716,-257.8,-323.3,-1.745,-149.2,3.185,-150.3,18.86,-28.59,57.98,59.67,65.66,52.93,114.2,106.6,119.0,100.3,0,0,0,0,0,0,0,0,0,0,0,0,0,0,0,0,
717,-247.1,-293.5,-7.063,-160.7,14.86,-160.8,18.98,-29.05,49.47,55.58,62.81,55.85,112.6,104.6,106.2,88.73,0,0,0,0,0,0,0,0,0,0,0,0,0,0,0,0,
718,-238.5,-244.6,9.915,-169.9,2.006,-170.8,36.34,-1.635,56.37,68.91,68.23,58.15,116.3,101.2,95.77,77.22,0,0,0,0,0,0,0,0,0,0,0,0,0,0,0,0,
719,-244.6,-251.7,7.484,-161.7,-28.5,-163.0,36.92,1.361,41.59,63.76,62.88,46.63,100.6,78.78,68.65,58.31,0,0,0,0,0,0,0,0,0,0,0,0,0,0,0,0,
720,-265.5,-272.9,-3.084,-156.2,-7.189,-158.6,21.04,-26.16,19.02,39.13,47.18,31.21,78.23,56.34,46.46,44.34,0,0,0,0,0,0,0,0,0,0,0,0,0,0,0,0,
721,-234.0,-255.3,7.026,-151.7,18.67,-154.0,18.5,-32.93,17.28,31.39,40.76,19.32,68.96,48.36,40.61,45.04,0,0,0,0,0,0,0,0,0,0,0,0,0,0,0,0,
722,-204.3,-238.4,3.585,-147.9,-15.56,-147.3,16.41,-35.45,8.61,24.48,22.58,3.547,46.59,32.54,20.57,40.26,0,0,0,0,0,0,0,0,0,0,0,0,0,0,0,0,
723,-268.1,-251.8,-26.57,-171.3,-45.71,-170.4,-8.034,-57.48,-31.85,-3.993,-19.62,-18.7,-5.273,-2.697,-6.026,17.29,0,0,0,0,0,0,0,0,0,0,0,0,0,0,0,0,
724,-292.4,-281.0,-49.27,-199.2,-49.89,-201.7,-25.6,-62.48,-76.97,-34.21,-43.6,-35.83,-44.76,-34.57,-13.05,-5.194,0,0,0,0,0,0,0,0,0,0,0,0,0,0,0,0,
725,-229.6,-279.4,-62.97,-191.4,-78.94,-195.6,-25.96,-61.03,-98.65,-58.26,-44.16,-47.58,-54.01,-50.92,-20.02,-20.07,0,0,0,0,0,0,0,0,0,0,0,0,0,0,0,0,
726,-230.5,-252.6,-77.09,-188.0,-106.0,-191.7,-38.36,-87.92,-109.8,-78.4,-56.39,-62.38,-67.18,-66.5,-32.14,-33.07,0,0,0,0,0,0,0,0,0,0,0,0,0,0,0,0,
727,-275.9,-277.5,-83.89,-216.3,-102.4,-220.7,-55.91,-105.8,-132.2,-94.9,-63.77,-68.92,-77.29,-79.19,-28.37,-38.41,0,0,0,0,0,0,0,0,0,0,0,0,0,0,0,0,
728,-279.7,-306.9,-86.2,-229.5,-95.34,-234.9,-60.8,-82.52,-147.5,-106.1,-41.8,-52.47,-55.64,-68.23,-5.387,-22.28,0,0,0,0,0,0,0,0,0,0,0,0,0,0,0,0,
729,-255.7,-261.2,-81.93,-213.9,-94.63,-219.2,-49.58,-47.17,-130.4,-87.83,-4.836,-20.74,-19.78,-35.69,39.48,23.62,0,0,0,0,0,0,0,0,0,0,0,0,0,0,0,0,
730,-214.1,-228.7,-68.79,-192.6,-113.4,-197.3,-17.34,-31.8,-96.13,-45.16,33.22,5.069,12.33,-3.203,86.05,72.19,0,0,0,0,0,0,0,0,0,0,0,0,0,0,0,0,
731,-214.6,-249.2,-69.8,-178.2,-135.0,-181.8,-9.966,-33.89,-70.51,-23.7,44.76,10.88,26.08,10.51,90.55,83.96,0,0,0,0,0,0,0,0,0,0,0,0,0,0,0,0,
732,-266.0,-254.7,-88.9,-183.2,-107.4,-185.2,-52.83,-29.86,-71.15,-29.43,18.83,4.796,8.231,5.047,64.51,67.4,0,0,0,0,0,0,0,0,0,0,0,0,0,0,0,0,
733,-273.5,-255.4,-94.56,-193.2,-71.06,-195.9,-66.77,-24.86,-89.1,-36.35,1.979,2.732,-0.5535,4.124,55.42,55.42,0,0,0,0,0,0,0,0,0,0,0,0,0,0,0,0,
734,-255.6,-253.5,-83.16,-189.7,-75.02,-193.9,-36.13,-33.09,-79.11,-31.6,5.019,2.375,18.89,16.0,66.31,56.52,0,0,0,0,0,0,0,0,0,0,0,0,0,0,0,0,
735,-242.0,-228.5,-72.57,-180.5,-69.42,-183.9,-27.18,-31.47,-43.19,-14.61,1.457,-3.792,25.43,20.75,69.15,57.08,0,0,0,0,0,0,0,0,0,0,0,0,0,0,0,0,
736,-193.3,-232.7,-57.65,-170.9,-44.6,-174.0,-15.51,-30.5,-26.14,-2.118,4.653,-10.25,23.56,16.43,56.27,43.95,0,0,0,0,0,0,0,0,0,0,0,0,0,0,0,0,
737,-177.7,-255.8,-43.43,-172.5,-33.14,-176.4,19.14,-56.37,-19.82,-3.622,14.52,-14.0,39.11,17.07,46.73,26.86,0,0,0,0,0,0,0,0,0,0,0,0,0,0,0,0,
738,-210.2,-225.9,-34.51,-172.4,-17.12,-176.5,27.37,-53.47,-4.023,0.0359,21.38,-13.47,61.83,25.99,57.84,29.26,0,0,0,0,0,0,0,0,0,0,0,0,0,0,0,0,
739,-182.8,-179.7,-14.49,-143.1,0.3318,-148.5,26.77,-9.545,13.87,17.82,42.79,-1.643,84.24,39.76,74.3,46.97,0,0,0,0,0,0,0,0,0,0,0,0,0,0,0,0,
740,-155.7,-166.8,-3.788,-121.4,10.78,-126.3,38.44,-1.798,31.41,33.57,50.29,7.625,81.98,40.21,59.01,43.35,0,0,0,0,0,0,0,0,0,0,0,0,0,0,0,0,
741,-196.5,-142.6,-8.834,-123.3,40.44,-125.6,25.68,-9.838,32.14,36.43,19.54,0.2296,47.07,16.1,17.25,13.14,0,0,0,0,0,0,0,0,0,0,0,0,0,0,0,0,
742,-162.7,-112.9,6.381,-112.8,53.34,-114.8,7.357,5.24,11.72,28.79,1.895,-5.52,32.31,-7.045,-1.084,-4.061,0,0,0,0,0,0,0,0,0,0,0,0,0,0,0,0,
743,-87.74,-129.8,11.23,-106.7,15.3,-109.0,18.63,-15.4,2.333,14.33,11.06,-6.691,41.58,-12.75,7.914,-2.995,0,0,0,0,0,0,0,0,0,0,0,0,0,0,0,0,
744,-131.1,-157.2,-13.54,-120.2,-6.202,-120.6,33.89,-41.15,6.992,1.595,8.404,-18.0,32.12,-14.24,6.081,-7.813,0,0,0,0,0,0,0,0,0,0,0,0,0,0,0,0,
745,-161.7,-177.4,-11.13,-134.1,4.077,-134.7,32.69,-20.29,-1.217,-1.953,-2.861,-27.74,15.28,-18.35,-7.815,-17.06,0,0,0,0,0,0,0,0,0,0,0,0,0,0,0,0,
746,-129.2,-213.7,-4.084,-148.8,-11.49,-151.5,30.77,-28.75,-25.37,-10.3,-3.447,-29.46,6.544,-25.91,-12.07,-25.35,0,0,0,0,0,0,0,0,0,0,0,0,0,0,0,0,
747,-188.0,-190.7,-32.02,-140.9,-21.86,-145.0,41.51,-51.39,-40.65,-32.94,6.683,-28.8,2.492,-33.6,-1.864,-24.16,0,0,0,0,0,0,0,0,0,0,0,0,0,0,0,0,
748,-211.5,-116.2,-37.54,-106.7,1.476,-111.3,47.05,-26.12,-31.53,-48.24,17.61,-21.82,10.2,-33.56,6.072,-13.25,0,0,0,0,0,0,0,0,0,0,0,0,0,0,0,0,
749,-116.4,-124.2,-15.36,-98.4,2.519,-101.1,31.25,-26.15,-24.36,-42.42,13.71,-18.65,12.8,-33.47,-5.221,-19.29,0,0,0,0,0,0,0,0,0,0,0,0,0,0,0,0,
750,-109.1,-159.0,-13.5,-114.1,-19.32,-115.3,17.38,-42.18,-36.43,-29.45,0.5166,-19.98,2.851,-35.61,-14.51,-28.72,0,0,0,0,0,0,0,0,0,0,0,0,0,0,0,0,
751,-151.2,-128.6,-15.32,-112.4,-24.73,-115.6,18.7,-2.985,-40.76,-19.34,-2.087,-4.238,6.297,-25.89,-0.5564,-9.169,0,0,0,0,0,0,0,0,0,0,0,0,0,0,0,0,
752,-116.8,-132.3,-12.65,-97.78,-21.97,-101.0,21.16,17.77,-33.79,-13.72,4.531,11.55,14.7,-14.56,9.863,9.927,0,0,0,0,0,0,0,0,0,0,0,0,0,0,0,0,
753,-138.9,-173.4,-33.47,-104.6,-31.08,-105.3,13.25,-13.12,-42.05,-26.21,1.296,-3.826,1.479,-24.4,-7.444,-1.515,0,0,0,0,0,0,0,0,0,0,0,0,0,0,0,0,
754,-212.3,-173.0,-61.05,-140.1,-57.1,-142.4,-12.31,-23.49,-61.96,-56.72,-16.18,-19.09,-17.75,-38.33,-30.76,-17.85,0,0,0,0,0,0,0,0,0,0,0,0,0,0,0,0,
755,-178.5,-178.8,-64.35,-147.5,-67.82,-152.3,-33.21,-10.1,-70.12,-68.98,-23.0,0.7619,-21.37,-31.06,-31.39,-14.01,0,0,0,0,0,0,0,0,0,0,0,0,0,0,0,0,
756,-111.6,-180.7,-61.86,-112.8,-57.99,-116.0,-32.44,-7.74,-71.0,-58.06,-18.66,14.34,-29.83,-29.01,-31.45,-14.51,0,0,0,0,0,0,0,0,0,0,0,0,0,0,0,0,
757,-134.3,-138.0,-67.81,-108.5,-85.25,-111.2,-38.92,-12.98,-86.76,-63.24,-30.49,-4.519,-53.27,-49.95,-50.83,-35.35,0,0,0,0,0,0,0,0,0,0,0,0,0,0,0,0,
758,-158.9,-125.0,-54.29,-125.4,-105.6,-129.2,-40.4,-10.17,-99.62,-72.68,-28.9,-4.964,-46.03,-48.66,-38.22,-28.59,0,0,0,0,0,0,0,0,0,0,0,0,0,0,0,0,
759,-144.4,-149.2,-31.22,-114.2,-54.04,-116.5,-7.147,-15.36,-79.49,-53.37,11.15,17.17,-2.717,-19.78,8.517,10.68,0,0,0,0,0,0,0,0,0,0,0,0,0,0,0,0,
760,-177.9,-155.7,-37.4,-117.9,-34.72,-119.7,10.32,-44.25,-56.28,-36.2,30.33,11.61,11.79,-17.54,16.53,21.22,0,0,0,0,0,0,0,0,0,0,0,0,0,0,0,0,
761,-191.3,-147.9,-48.76,-129.6,-74.38,-133.6,-7.1,-41.66,-57.34,-42.58,11.44,-2.868,-3.135,-31.02,2.08,13.5,0,0,0,0,0,0,0,0,0,0,0,0,0,0,0,0,
762,-120.4,-130.9,-36.89,-102.1,-56.0,-105.0,-1.037,6.034,-52.2,-38.91,5.344,5.576,3.062,-20.49,10.33,21.61,0,0,0,0,0,0,0,0,0,0,0,0,0,0,0,0,
763,-103.4,-137.3,-25.66,-90.13,-25.56,-89.6,17.46,23.43,-31.76,-18.59,9.709,7.007,17.05,-12.79,7.142,14.65,0,0,0,0,0,0,0,0,0,0,0,0,0,0,0,0,
764,-136.4,-166.3,-23.73,-105.5,-63.04,-106.2,7.016,12.77,-22.64,-13.72,2.962,-8.719,12.88,-26.49,-9.742,-11.17,0,0,0,0,0,0,0,0,0,0,0,0,0,0,0,0,
765,-122.1,-138.6,-17.59,-86.38,-68.23,-90.29,3.129,17.84,-24.71,-25.35,1.532,-15.21,6.231,-35.33,-8.333,-19.18,0,0,0,0,0,0,0,0,0,0,0,0,0,0,0,0,
766,-137.2,-92.61,-10.05,-66.89,-29.26,-69.23,10.6,19.2,-26.71,-28.18,8.482,-12.18,7.334,-35.86,-2.207,-8.716,0,0,0,0,0,0,0,0,0,0,0,0,0,0,0,0,
767,-163.3,-99.02,-15.33,-84.23,-50.27,-84.14,-6.005,13.03,-34.9,-30.35,9.338,-15.34,9.815,-41.8,1.951,-2.75,0,0,0,0,0,0,0,0,0,0,0,0,0,0,0,0,
768,-118.2,-104.1,-35.27,-97.15,-82.27,-98.72,-14.32,10.55,-47.26,-49.66,6.863,-21.75,7.811,-48.48,14.14,-5.902,0,0,0,0,0,0,0,0,0,0,0,0,0,0,0,0,
769,-98.51,-112.1,-45.05,-109.1,-71.72,-111.9,-8.516,2.401,-53.08,-64.94,13.94,-23.45,3.168,-46.16,17.92,-9.967,0,0,0,0,0,0,0,0,0,0,0,0,0,0,0,0,
770,-139.0,-154.2,-40.84,-135.0,-88.57,-137.2,-29.79,-5.782,-56.98,-64.54,22.86,-22.8,-0.0004,-37.35,5.078,-13.67,0,0,0,0,0,0,0,0,0,0,0,0,0,0,0,0,
771,-165.5,-172.8,-46.55,-138.7,-104.6,-142.5,-39.68,-12.78,-61.85,-68.66,17.71,-16.89,-3.204,-31.09,2.643,-7.364,0,0,0,0,0,0,0,0,0,0,0,0,0,0,0,0,
772,-165.7,-163.6,-43.41,-119.9,-72.45,-124.7,-20.07,-26.11,-56.85,-73.04,17.13,-9.36,-1.515,-29.81,17.69,7.937,0,0,0,0,0,0,0,0,0,0,0,0,0,0,0,0,
773,-137.1,-155.1,-23.78,-112.0,-71.74,-115.0,-35.01,-37.74,-50.01,-65.92,22.3,-20.92,-3.255,-39.59,9.908,-4.696,0,0,0,0,0,0,0,0,0,0,0,0,0,0,0,0,
774,-112.2,-140.9,-34.56,-118.2,-98.13,-120.4,-72.93,-35.81,-64.8,-73.32,-5.076,-43.52,-28.12,-64.58,-25.64,-37.46,0,0,0,0,0,0,0,0,0,0,0,0,0,0,0,0,
775,-121.4,-128.7,-58.19,-122.6,-78.7,-126.1,-71.5,-20.43,-83.63,-97.61,-34.58,-46.14,-47.27,-76.43,-38.21,-39.57,0,0,0,0,0,0,0,0,0,0,0,0,0,0,0,0,
776,-117.1,-108.7,-45.87,-120.3,-58.24,-125.0,-49.4,-15.79,-67.09,-90.78,-22.09,-32.51,-37.86,-61.06,-31.59,-27.09,0,0,0,0,0,0,0,0,0,0,0,0,0,0,0,0,
777,-119.4,-104.7,-34.23,-118.6,-73.25,-124.1,-55.24,-28.49,-43.87,-62.48,-20.19,-26.33,-43.88,-54.07,-47.7,-32.62,0,0,0,0,0,0,0,0,0,0,0,0,0,0,0,0,
778,-154.6,-135.9,-43.42,-108.4,-80.76,-111.8,-72.8,-26.79,-56.32,-66.8,-39.89,-30.06,-60.81,-58.44,-59.89,-33.64,0,0,0,0,0,0,0,0,0,0,0,0,0,0,0,0,
779,-145.0,-121.4,-43.81,-93.14,-78.3,-92.67,-65.81,-16.85,-59.07,-76.19,-29.8,-37.26,-44.04,-53.87,-45.22,-30.61,0,0,0,0,0,0,0,0,0,0,0,0,0,0,0,0,
780,-97.48,-88.56,-48.34,-102.1,-89.74,-103.3,-61.27,-23.76,-34.8,-65.58,-20.56,-48.15,-34.06,-67.36,-42.96,-46.53,0,0,0,0,0,0,0,0,0,0,0,0,0,0,0,0,
781,-80.41,-122.9,-51.06,-103.4,-93.25,-108.3,-75.53,-22.54,-42.31,-77.03,-27.99,-53.13,-50.11,-89.63,-46.28,-55.56,0,0,0,0,0,0,0,0,0,0,0,0,0,0,0,0,
782,-79.94,-123.5,-32.52,-74.93,-69.81,-77.16,-69.46,-16.02,-63.59,-86.89,-12.34,-44.2,-41.3,-76.97,-26.78,-41.46,0,0,0,0,0,0,0,0,0,0,0,0,0,0,0,0,
783,-105.5,-68.14,-37.39,-84.09,-57.23,-83.64,-57.59,-35.26,-58.78,-66.7,-6.165,-35.67,-27.56,-59.45,-17.69,-33.57,0,0,0,0,0,0,0,0,0,0,0,0,0,0,0,0,
784,-138.4,-84.67,-63.52,-111.4,-65.5,-113.9,-66.93,-33.74,-62.84,-65.91,-21.93,-30.14,-33.44,-58.56,-22.16,-32.04,0,0,0,0,0,0,0,0,0,0,0,0,0,0,0,0,
785,-89.99,-115.8,-55.49,-84.72,-56.43,-88.67,-67.84,8.658,-65.56,-69.88,-20.25,-25.32,-29.19,-51.15,-23.28,-30.85,0,0,0,0,0,0,0,0,0,0,0,0,0,0,0,0,
786,-32.62,-73.08,-38.83,-67.55,-53.33,-69.57,-63.9,10.72,-50.66,-49.13,-29.63,-33.36,-38.17,-53.99,-47.72,-44.15,0,0,0,0,0,0,0,0,0,0,0,0,0,0,0,0,
787,-80.78,-64.59,-55.78,-100.8,-73.48,-103.0,-69.16,-24.93,-70.03,-53.34,-48.41,-33.29,-61.33,-58.96,-60.49,-37.96,0,0,0,0,0,0,0,0,0,0,0,0,0,0,0,0,
788,-126.4,-124.4,-77.96,-112.6,-74.2,-116.7,-68.16,-21.64,-99.55,-70.39,-34.78,-15.86,-52.97,-42.15,-31.29,-4.533,0,0,0,0,0,0,0,0,0,0,0,0,0,0,0,0,
789,-102.4,-138.0,-71.48,-90.16,-80.77,-94.29,-68.98,-13.61,-88.55,-63.51,-32.64,-19.55,-50.45,-44.56,-37.6,-6.838,0,0,0,0,0,0,0,0,0,0,0,0,0,0,0,0,
790,-119.7,-108.3,-55.47,-81.9,-115.1,-84.14,-68.27,-35.12,-90.21,-79.14,-50.79,-36.11,-72.42,-64.24,-72.58,-30.33,0,0,0,0,0,0,0,0,0,0,0,0,0,0,0,0,
791,-158.1,-117.5,-65.01,-107.6,-117.9,-108.8,-57.89,-34.72,-111.7,-112.2,-35.79,-43.09,-63.09,-57.83,-54.72,-22.16,0,0,0,0,0,0,0,0,0,0,0,0,0,0,0,0,
792,-125.7,-128.3,-72.41,-139.8,-93.69,-142.4,-55.41,-29.35,-93.23,-106.7,-15.6,-55.64,-38.03,-49.94,-25.2,-12.36,0,0,0,0,0,0,0,0,0,0,0,0,0,0,0,0,
793,-98.01,-104.2,-39.87,-133.5,-87.7,-137.7,-45.4,-49.7,-63.22,-85.8,-15.33,-55.99,-32.26,-54.27,-27.29,-20.2,0,0,0,0,0,0,0,0,0,0,0,0,0,0,0,0,
794,-102.7,-92.68,-10.5,-102.6,-87.5,-106.6,-20.95,-41.74,-57.32,-78.48,-8.292,-43.12,-25.85,-50.96,-25.4,-28.77,0,0,0,0,0,0,0,0,0,0,0,0,0,0,0,0,
795,-69.73,-87.03,-15.75,-88.4,-77.33,-90.18,-14.24,-7.017,-48.43,-67.88,-12.4,-49.04,-22.0,-50.38,-26.64,-41.81,0,0,0,0,0,0,0,0,0,0,0,0,0,0,0,0,
796,-64.33,-73.47,-16.17,-79.66,-50.58,-80.5,-10.52,8.628,-33.28,-49.96,-24.75,-46.35,-18.07,-41.61,-32.71,-42.64,0,0,0,0,0,0,0,0,0,0,0,0,0,0,0,0,
797,-96.58,-79.34,1.235,-56.16,-21.3,-58.73,6.095,21.26,-12.16,-22.14,-10.67,-22.59,3.714,-13.5,-14.8,-21.0,0,0,0,0,0,0,0,0,0,0,0,0,0,0,0,0,
798,-53.96,-75.29,1.146,-36.97,-36.45,-39.7,-3.979,27.74,4.616,-5.432,-8.762,-17.41,6.577,-6.536,-6.095,-12.08,0,0,0,0,0,0,0,0,0,0,0,0,0,0,0,0,
799,-14.88,-45.36,-16.31,-48.37,-69.48,-49.69,-28.73,9.991,-19.92,-27.89,-35.67,-23.71,-17.73,-22.46,-26.26,-20.47,0,0,0,0,0,0,0,0,0,0,0,0,0,0,0,0,
800,-52.04,-25.55,-11.04,-63.8,-50.2,-65.54,-17.27,-0.133,-40.74,-37.72,-31.47,-22.91,-15.71,-19.41,-29.38,-14.02,0,0,0,0,0,0,0,0,0,0,0,0,0,0,0,0,
801,-50.25,-27.47,2.139,-42.94,-13.2,-44.42,-2.514,1.797,-15.73,-13.71,-6.79,-27.5,2.108,-8.736,-15.34,1.254,0,0,0,0,0,0,0,0,0,0,0,0,0,0,0,0,
802,-30.52,-52.31,-12.6,-37.0,-17.07,-36.89,-16.65,-6.487,-11.32,-21.06,-6.693,-29.78,-1.599,-14.82,-11.25,3.839,0,0,0,0,0,0,0,0,0,0,0,0,0,0,0,0,
803,-48.4,-70.01,-16.58,-79.26,-32.41,-79.86,-11.24,-16.9,-27.49,-41.24,0.9456,-22.03,2.876,-17.64,0.2234,5.584,0,0,0,0,0,0,0,0,0,0,0,0,0,0,0,0,
804,-33.73,-58.54,0.1109,-84.61,-37.47,-86.67,7.225,-26.21,-9.447,-27.42,17.4,-25.12,15.45,-17.87,8.705,2.69,0,0,0,0,0,0,0,0,0,0,0,0,0,0,0,0,
805,-29.41,-64.32,-6.153,-49.86,-46.72,-50.85,-9.926,-32.15,-3.455,-28.12,1.219,-45.16,-5.648,-37.55,-12.15,-24.94,0,0,0,0,0,0,0,0,0,0,0,0,0,0,0,0,
806,-55.67,-80.36,-14.28,-71.7,-61.44,-71.25,-25.39,-29.52,-38.97,-52.74,-15.54,-56.54,-31.73,-53.24,-26.05,-47.8,0,0,0,0,0,0,0,0,0,0,0,0,0,0,0,0,
807,-42.69,-64.56,-16.78,-113.7,-82.11,-114.8,-14.29,-35.66,-67.09,-62.47,-11.05,-51.98,-35.82,-55.02,-23.0,-50.86,0,0,0,0,0,0,0,0,0,0,0,0,0,0,0,0,
808,-65.03,-55.81,-48.38,-96.04,-94.88,-99.13,-18.49,-50.23,-75.35,-78.44,-24.93,-55.57,-59.28,-77.57,-45.8,-69.06,0,0,0,0,0,0,0,0,0,0,0,0,0,0,0,0,
809,-120.5,-84.24,-72.16,-76.54,-107.2,-78.69,-33.68,-53.05,-86.58,-105.5,-43.26,-54.6,-90.26,-93.38,-68.04,-77.17,0,0,0,0,0,0,0,0,0,0,0,0,0,0,0,0,
810,-93.8,-110.9,-57.81,-92.57,-135.4,-94.23,-31.49,-40.48,-99.39,-104.6,-39.63,-22.66,-81.89,-60.81,-52.35,-40.69,0,0,0,0,0,0,0,0,0,0,0,0,0,0,0,0,
811,-59.07,-91.14,-44.51,-87.26,-117.9,-90.56,-20.94,-21.07,-92.18,-85.2,-43.68,2.675,-67.13,-35.12,-42.91,-14.56,0,0,0,0,0,0,0,0,0,0,0,0,0,0,0,0,
812,-67.62,-47.88,-40.49,-66.07,-66.28,-68.77,-6.631,-0.3572,-68.35,-76.54,-43.28,1.553,-66.16,-39.83,-43.11,-13.84,0,0,0,0,0,0,0,0,0,0,0,0,0,0,0,0,
813,-41.49,-43.44,-21.04,-58.92,-70.84,-60.5,14.94,36.37,-49.87,-57.63,-11.45,8.119,-42.74,-23.95,-14.08,4.545,0,0,0,0,0,0,0,0,0,0,0,0,0,0,0,0,
814,-22.68,-45.59,1.689,-37.61,-73.96,-40.27,23.7,68.41,-32.75,-20.73,-1.238,5.939,-23.86,-10.01,-1.251,7.58,0,0,0,0,0,0,0,0,0,0,0,0,0,0,0,0,
815,-35.56,-8.745,-1.718,-15.39,-37.02,-17.26,9.132,44.57,-23.15,-6.675,-25.2,-17.06,-35.56,-22.45,-21.02,-19.43,0,0,0,0,0,0,0,0,0,0,0,0,0,0,0,0,
816,-6.817,12.29,-15.38,-19.32,-31.41,-19.49,8.344,21.59,-23.58,-7.912,-15.08,-14.37,-21.53,-10.78,-4.807,-14.5,0,0,0,0,0,0,0,0,0,0,0,0,0,0,0,0,
817,19.38,7.456,-8.049,-15.96,-20.91,-16.75,29.35,56.14,-0.8354,6.482,11.98,-5.513,12.32,5.677,22.74,0.7567,0,0,0,0,0,0,0,0,0,0,0,0,0,0,0,0,
818,-7.399,7.253,4.235,-6.812,7.917,-7.128,18.52,62.88,23.81,3.041,-4.359,-29.59,6.3,-15.3,6.622,-20.99,0,0,0,0,0,0,0,0,0,0,0,0,0,0,0,0,
819,-15.32,-1.487,2.513,-15.46,-3.812,-14.36,-11.35,24.04,14.01,-21.25,-27.03,-40.15,-12.73,-29.08,-4.86,-32.96,0,0,0,0,0,0,0,0,0,0,0,0,0,0,0,0,
820,-8.69,-0.9013,-11.06,-15.19,-22.3,-14.86,-9.282,20.56,2.316,-27.09,-24.83,-28.95,-15.42,-29.96,-1.613,-29.77,0,0,0,0,0,0,0,0,0,0,0,0,0,0,0,0,
821,-37.71,-3.277,-35.21,-12.31,-50.9,-12.39,-11.58,37.76,-8.043,-33.06,-32.2,-34.42,-25.25,-47.7,-19.23,-44.32,0,0,0,0,0,0,0,0,0,0,0,0,0,0,0,0,
822,-41.32,-43.58,-50.08,-37.79,-97.36,-37.81,-31.31,38.0,-33.36,-47.25,-45.43,-30.71,-31.24,-47.28,-28.67,-40.94,0,0,0,0,0,0,0,0,0,0,0,0,0,0,0,0,
823,-28.43,-53.04,-51.26,-60.13,-81.57,-61.99,-21.82,39.09,-39.33,-41.64,-43.03,-11.85,-22.79,-23.69,-21.71,-23.38,0,0,0,0,0,0,0,0,0,0,0,0,0,0,0,0,
824,-71.94,-17.2,-52.61,-53.85,-46.81,-56.24,-0.5314,40.96,-26.89,-28.2,-35.16,-15.72,-19.0,-17.51,-17.36,-29.34,0,0,0,0,0,0,0,0,0,0,0,0,0,0,0,0,
825,-88.7,-21.72,-46.66,-51.21,-73.68,-52.21,5.884,25.53,-30.86,-27.63,-22.53,-28.75,-17.78,-22.89,-3.145,-29.68,0,0,0,0,0,0,0,0,0,0,0,0,0,0,0,0,
826,-54.38,-47.04,-53.21,-63.56,-100.6,-65.34,7.675,-9.099,-49.18,-44.51,-8.783,-35.38,-18.28,-22.76,6.993,-20.07,0,0,0,0,0,0,0,0,0,0,0,0,0,0,0,0,
827,-83.04,-44.62,-78.25,-61.35,-87.76,-64.55,4.526,-25.5,-65.72,-65.17,-7.013,-44.67,-21.8,-19.68,5.423,-25.06,0,0,0,0,0,0,0,0,0,0,0,0,0,0,0,0,
828,-113.1,-43.44,-68.24,-45.55,-72.88,-48.12,19.24,1.591,-61.4,-58.43,-3.184,-42.44,-12.05,-15.41,15.74,-21.31,0,0,0,0,0,0,0,0,0,0,0,0,0,0,0,0,
829,-48.83,-36.71,-28.84,-42.72,-72.4,-44.47,52.18,30.06,-32.18,-40.16,6.706,-33.52,-0.4446,-14.59,17.86,-10.26,0,0,0,0,0,0,0,0,0,0,0,0,0,0,0,0,
830,0.0114,-15.93,-10.09,-46.2,-61.9,-47.61,55.59,44.39,-7.406,-36.01,0.832,-35.75,-5.592,-12.24,-2.242,-17.67,0,0,0,0,0,0,0,0,0,0,0,0,0,0,0,0,
831,-33.25,-14.73,-11.62,-43.78,-34.24,-45.2,44.71,57.81,2.499,-22.95,-13.94,-32.41,-9.879,-6.244,-10.17,-24.12,0,0,0,0,0,0,0,0,0,0,0,0,0,0,0,0,
832,-51.8,-14.59,-21.12,-34.55,-29.13,-37.03,45.99,57.39,8.361,-7.853,-22.11,-19.35,-10.13,-11.24,-7.061,-18.26,0,0,0,0,0,0,0,0,0,0,0,0,0,0,0,0,
833,-15.65,7.187,-18.89,-9.256,-28.71,-11.42,29.11,73.49,4.484,-13.61,-32.14,-14.85,-20.75,-21.46,-19.46,-24.11,0,0,0,0,0,0,0,0,0,0,0,0,0,0,0,0,
834,-5.848,20.1,1.096,13.01,-3.796,12.85,16.57,111.0,-2.818,-8.595,-39.3,-17.42,-25.88,-18.71,-30.64,-42.86,0,0,0,0,0,0,0,0,0,0,0,0,0,0,0,0,
835,-20.55,19.81,-0.3622,19.99,-1.28,19.03,40.46,111.0,7.244,18.48,-38.46,-21.09,-17.79,-9.575,-25.84,-50.23,0,0,0,0,0,0,0,0,0,0,0,0,0,0,0,0,
836,21.32,36.32,-15.38,33.66,-3.815,31.06,48.31,98.63,26.2,32.96,-41.34,-26.82,-15.36,-5.345,-24.05,-41.31,0,0,0,0,0,0,0,0,0,0,0,0,0,0,0,0,
837,47.43,71.45,-10.72,35.12,10.7,34.42,23.78,103.4,31.43,34.21,-36.64,-29.98,-13.7,-0.3143,-18.98,-29.4,0,0,0,0,0,0,0,0,0,0,0,0,0,0,0,0,
838,-5.099,71.32,-12.95,22.86,-11.18,22.63,15.09,73.19,24.45,36.79,-21.18,-28.41,-3.49,9.962,-1.053,-20.5,0,0,0,0,0,0,0,0,0,0,0,0,0,0,0,0,
839,-23.98,13.64,-21.92,37.45,-20.29,35.79,24.98,45.44,27.26,32.55,-17.84,-20.13,6.268,22.59,4.46,-12.21,0,0,0,0,0,0,0,0,0,0,0,0,0,0,0,0,
840,3.603,-7.234,-7.869,47.78,28.17,48.66,32.95,83.18,51.53,36.61,-12.25,-1.418,24.15,39.2,12.26,3.185,0,0,0,0,0,0,0,0,0,0,0,0,0,0,0,0,
841,16.62,44.49,1.58,36.95,40.51,38.9,33.89,108.2,70.3,60.37,5.578,6.13,40.66,43.72,35.91,11.76,0,0,0,0,0,0,0,0,0,0,0,0,0,0,0,0,
842,44.25,68.96,-6.246,43.31,-6.683,42.35,23.7,71.85,54.03,60.13,3.419,-16.32,22.03,16.88,23.26,-9.297,0,0,0,0,0,0,0,0,0,0,0,0,0,0,0,0,
843,53.26,52.42,-1.772,32.96,-37.19,32.84,25.37,50.62,27.92,25.95,-6.238,-29.31,-4.231,-2.722,-10.13,-20.93,0,0,0,0,0,0,0,0,0,0,0,0,0,0,0,0,
844,14.7,45.91,6.287,1.06,-19.17,2.057,46.81,58.47,20.81,6.804,3.897,-7.456,-0.3093,12.73,-4.666,3.828,0,0,0,0,0,0,0,0,0,0,0,0,0,0,0,0,
845,-9.789,33.54,6.975,7.441,11.12,5.398,49.65,39.35,19.14,3.256,8.203,3.114,6.358,14.55,6.111,6.742,0,0,0,0,0,0,0,0,0,0,0,0,0,0,0,0,
846,-22.02,21.69,9.992,17.34,0.1195,13.91,41.8,13.14,19.17,-13.1,7.492,-12.03,6.009,-8.493,0.3519,-21.26,0,0,0,0,0,0,0,0,0,0,0,0,0,0,0,0,
847,-28.07,12.75,0.8965,-1.633,-28.25,-4.454,57.83,13.36,23.94,-28.5,18.31,-19.31,13.01,-19.14,0.7047,-30.49,0,0,0,0,0,0,0,0,0,0,0,0,0,0,0,0,
848,9.596,-10.46,-7.299,-4.356,-19.42,-5.924,67.92,14.25,21.11,-27.09,8.423,-24.32,5.472,-30.99,-14.47,-35.2,0,0,0,0,0,0,0,0,0,0,0,0,0,0,0,0,
849,47.73,3.933,12.45,-2.271,1.751,-1.823,55.53,12.08,15.77,-14.92,-18.01,-35.88,-17.51,-50.18,-37.49,-53.22,0,0,0,0,0,0,0,0,0,0,0,0,0,0,0,0,
850,37.79,42.25,24.06,-12.48,8.034,-12.77,60.21,21.76,12.05,-5.26,-18.63,-32.64,-24.29,-44.81,-29.37,-51.09,0,0,0,0,0,0,0,0,0,0,0,0,0,0,0,0,
851,31.16,31.74,15.68,2.495,16.89,1.468,78.73,36.43,9.146,-5.256,-10.24,-18.89,-13.95,-25.69,-10.96,-25.11,0,0,0,0,0,0,0,0,0,0,0,0,0,0,0,0,
852,42.68,25.74,19.7,29.27,21.01,29.92,76.02,53.97,22.06,0.6825,-18.84,-15.81,-6.291,-19.63,-12.45,-12.55,0,0,0,0,0,0,0,0,0,0,0,0,0,0,0,0,
853,14.47,50.26,15.03,29.66,2.728,30.43,66.16,58.81,34.13,15.45,-25.64,-13.92,-7.125,-14.36,-20.88,-19.08,0,0,0,0,0,0,0,0,0,0,0,0,0,0,0,0,
854,-3.912,35.6,-3.806,23.02,-16.08,24.12,67.65,47.48,25.37,19.91,-18.43,4.395,-3.545,2.505,-14.23,-15.21,0,0,0,0,0,0,0,0,0,0,0,0,0,0,0,0,
855,36.48,18.85,-0.7834,29.58,-13.3,31.58,57.63,52.83,24.57,19.13,-10.82,18.17,5.625,11.43,-2.738,-11.03,0,0,0,0,0,0,0,0,0,0,0,0,0,0,0,0,
856,35.34,37.19,0.156,28.52,-14.32,28.67,36.32,61.19,27.33,21.48,-20.92,4.853,-2.86,-1.618,-12.19,-29.34,0,0,0,0,0,0,0,0,0,0,0,0,0,0,0,0,
