%OpenBCI Raw EXG Data
%Number of channels = 16
%Sample Rate = 125 Hz
%Board = OpenBCI_GUI$BoardCytonSerialDaisy
Sample Index,EXG Channel 0,EXG Channel 1,EXG Channel 2,EXG Channel 3,EXG Channel 4,EXG Channel 5,EXG Channel 6,EXG Channel 7,EXG Channel 8,EXG Channel 9,EXG Channel 10,EXG Channel 11,EXG Channel 12,EXG Channel 13,EXG Channel 14,EXG Channel 15,Accel Channel 0,Accel Channel 1,Accel Channel 2,Other,Other,Other,Other,Other,Other,Other,Analog Channel 0,Analog Channel 1,Analog Channel 2,Timestamp,Other,Timestamp (Formatted),Annotations
1,-0,0,0,-0,0,0,0,-0,-0,0,-0,-0,0,-0,-0,-0,0,0,0,0,0,0,0,0,0,0,0,0,0,0,0,0,T0
2,13.68,3.49,-8.793,-7.256,11.52,7.312,-11.14,8.96,66.74,16.41,40.95,36.5,9.407,5.9,25.88,16.16,0,0,0,0,0,0,0,0,0,0,0,0,0,0,0,0,
3,34.6,4.837,-5.618,-11.18,16.87,22.86,-3.357,-0.5057,44.66,-8.311,45.88,40.06,-12.34,-8.917,53.04,28.26,0,0,0,0,0,0,0,0,0,0,0,0,0,0,0,0,
4,35.05,-9.251,2.669,1.185,26.21,28.74,-3.201,-10.05,29.42,-22.21,40.53,35.89,-32.49,-20.59,63.95,20.68,0,0,0,0,0,0,0,0,0,0,0,0,0,0,0,0,
5,35.07,-26.91,10.58,1.173,34.46,27.97,-8.341,-3.803,56.3,-9.016,51.27,48.78,-30.8,-18.53,61.02,5.708,0,0,0,0,0,0,0,0,0,0,0,0,0,0,0,0,
6,43.76,-25.32,8.011,-12.39,27.59,35.19,8.273,8.169,36.08,-1.004,47.4,47.16,-19.37,-10.38,52.99,5.789,0,0,0,0,0,0,0,0,0,0,0,0,0,0,0,0,
7,34.76,-5.993,-0.937,12.58,18.83,37.35,20.08,13.93,-0.7672,9.246,17.44,17.78,-7.969,2.827,32.74,15.07,0,0,0,0,0,0,0,0,0,0,0,0,0,0,0,0,
8,19.95,1.152,-1.331,31.87,12.49,20.67,-1.845,5.233,8.838,17.5,-3.579,-10.08,-17.64,8.277,5.084,18.91,0,0,0,0,0,0,0,0,0,0,0,0,0,0,0,0,
9,6.837,-15.15,0.2648,-12.41,0.8383,4.921,-17.38,-7.924,13.27,7.598,-5.204,-22.9,-38.04,9.467,-13.73,15.72,0,0,0,0,0,0,0,0,0,0,0,0,0,0,0,0,
10,-0.8083,-12.89,7.723,-25.34,0.3469,15.03,1.692,0.1277,8.023,7.323,2.867,-12.7,-26.23,24.42,-13.7,16,0,0,0,0,0,0,0,0,0,0,0,0,0,0,0,0,
11,16.63,9.605,19.6,27.18,7.743,34.95,15.97,17.39,13.06,21.81,13.53,9.543,-2.707,31.35,1.968,25.07,0,0,0,0,0,0,0,0,0,0,0,0,0,0,0,0,
12,36.65,6.625,15,37.37,15.72,40.38,12.15,17.35,0.1303,23.21,17.21,13.51,-1.523,17.3,15.21,33.74,0,0,0,0,0,0,0,0,0,0,0,0,0,0,0,0,
13,43.13,5.361,9.762,11.54,36.47,38.64,24.9,13.67,16.73,20.25,22.59,16.68,5.691,14.6,19.07,40.54,0,0,0,0,0,0,0,0,0,0,0,0,0,0,0,0,
14,54.08,34.5,12.98,22.46,33.73,36.66,46.96,22.41,65.96,26.24,36.93,32.59,21.1,25.99,23.69,50,0,0,0,0,0,0,0,0,0,0,0,0,0,0,0,0,
15,57.41,45.05,7.745,34.12,-0.347,37.46,44.06,34.78,56.05,27.14,47.63,31.62,15.47,24.8,32.23,54.67,0,0,0,0,0,0,0,0,0,0,0,0,0,0,0,0,
16,47.7,24.11,13.41,23.28,4.117,43.21,21.28,33.43,32.83,20.71,53.17,25.69,6.054,16.97,42.8,53.12,0,0,0,0,0,0,0,0,0,0,0,0,0,0,0,0,
17,47.19,10,32.28,31.05,38.87,37.13,3.962,13.8,51.68,20.2,56.36,34.75,10.41,18.59,51.25,55.98,0,0,0,0,0,0,0,0,0,0,0,0,0,0,0,0,
18,47.87,12.75,30.12,44.77,38.5,21.28,0.3533,-0.3526,33.02,23.25,48.33,30.53,8.703,16.6,48.37,63.55,0,0,0,0,0,0,0,0,0,0,0,0,0,0,0,0,
19,34.19,15.6,12.46,30.92,21.81,19.42,0.8583,0.5561,7.141,18.39,37.16,16.52,-3.316,1.208,36.55,64.11,0,0,0,0,0,0,0,0,0,0,0,0,0,0,0,0,
20,27.69,10.14,6.636,12.38,30.45,28.04,4.958,3.318,47.52,15.28,46.08,25.31,-3.794,-2.551,29.77,53.46,0,0,0,0,0,0,0,0,0,0,0,0,0,0,0,0,
21,41.98,12.37,10.99,-0.0217,40.27,27.58,12.64,5.358,70.55,16.02,63.66,40.51,4.735,11.53,34.05,43.09,0,0,0,0,0,0,0,0,0,0,0,0,0,0,0,0,
22,49.26,21.09,9.993,-16.4,24.54,20.46,5.249,-2.556,49.87,2.76,59.76,41.21,2.068,15.34,43.53,45.27,0,0,0,0,0,0,0,0,0,0,0,0,0,0,0,0,
23,45.3,16.37,10.18,-3.219,22.63,29.23,1.714,-9.967,47.21,-1.861,43.84,40.43,2.102,18.53,49,60.54,0,0,0,0,0,0,0,0,0,0,0,0,0,0,0,0,
24,53.2,14.41,18.86,29.67,47.63,43.22,26.62,2.72,28.38,16.88,25.84,28.18,10.3,33.54,42.45,76.5,0,0,0,0,0,0,0,0,0,0,0,0,0,0,0,0,
25,51.99,21.33,21.23,22.1,42.56,30.48,34.42,2.673,5.209,15.15,1.44,1.428,2.494,31.66,23.23,74.87,0,0,0,0,0,0,0,0,0,0,0,0,0,0,0,0,
26,39.2,20.2,29.1,0.1708,23.21,22.77,18.14,-7.946,45.54,-0.6189,4.018,2.79,-2.975,22.04,9.456,59.93,0,0,0,0,0,0,0,0,0,0,0,0,0,0,0,0,
27,51.27,21.84,42.32,0.6916,32.02,39.54,22.7,6.658,72.62,3.238,32.99,24.25,4.93,21.36,17.31,53.27,0,0,0,0,0,0,0,0,0,0,0,0,0,0,0,0,
28,56.33,19.43,23.85,5.864,23.11,28.46,23.39,6.482,37.54,-0.6143,34.52,21.24,-6.514,6.658,29.08,49.86,0,0,0,0,0,0,0,0,0,0,0,0,0,0,0,0,
29,33.2,3.24,4.68,21.48,5.196,4.904,5.674,-14.06,25.48,-4.001,15.63,13.08,-18.28,-4.76,22.29,35.73,0,0,0,0,0,0,0,0,0,0,0,0,0,0,0,0,
30,33.96,-3.857,9.893,15.89,20.95,13.73,2.602,-7.546,26.94,13.27,1.177,8.581,-13.04,0.2589,2.462,19.45,0,0,0,0,0,0,0,0,0,0,0,0,0,0,0,0,
31,42.64,-14.42,-5.983,-25.69,16.96,11.17,-2.79,-7.821,3.201,1.943,-20.47,-15.63,-28.3,-9.908,-18.43,6.732,0,0,0,0,0,0,0,0,0,0,0,0,0,0,0,0,
32,19.07,-33.54,-12.92,-13.19,-10.06,-15.06,-15.76,-28.12,5.809,-20.28,-29.64,-30.31,-47.62,-13.51,-29.92,0.7896,0,0,0,0,0,0,0,0,0,0,0,0,0,0,0,0,
33,4.443,-25.71,20.84,33.44,-3.011,-21.74,-7.904,-23.79,3.26,4.702,-21.9,-24.2,-43.07,5.729,-24.28,8.879,0,0,0,0,0,0,0,0,0,0,0,0,0,0,0,0,
34,10.46,-10.78,28.13,15.12,6.182,-14.3,1.412,-14.96,-35.14,23.16,-27.68,-27.32,-47.52,1.939,-16.49,13.11,0,0,0,0,0,0,0,0,0,0,0,0,0,0,0,0,
35,7.826,-14.11,6.402,-6.788,-10.5,-4.626,-0.2519,-15.45,-14.7,3.98,-29.26,-25.26,-59.22,-15.62,-23.04,-4.629,0,0,0,0,0,0,0,0,0,0,0,0,0,0,0,0,
36,9.448,-7.74,9.901,8.418,-13.45,3.747,8.498,-6.631,26.43,1.749,-21.2,-16.6,-54.41,-12.85,-34.89,-25.24,0,0,0,0,0,0,0,0,0,0,0,0,0,0,0,0,
37,14.79,1.964,21.14,-18.35,-3.617,-10.61,20.93,-15.14,-27.09,8.345,-37.66,-28.91,-49.45,-9.456,-40.56,-26.74,0,0,0,0,0,0,0,0,0,0,0,0,0,0,0,0,
38,8.828,-2.901,12.01,-44.95,-16.26,-27.03,20.46,-33.54,-60.36,2.899,-47.46,-31.04,-39.63,-5.66,-35.53,-7.878,0,0,0,0,0,0,0,0,0,0,0,0,0,0,0,0,
39,17.15,-0.1673,-0.7979,3.986,-36.77,-9.445,5.446,-25.69,13.45,13.36,-15.85,0.6422,-13.94,6.596,-12.71,24.1,0,0,0,0,0,0,0,0,0,0,0,0,0,0,0,0,
40,38.6,9.326,5.016,36.02,-27.21,12.76,-13.92,-19.19,42,21.36,1.947,20.57,-3.779,1.047,14.32,49.29,0,0,0,0,0,0,0,0,0,0,0,0,0,0,0,0,
41,33.51,9.249,20.1,-3.198,-4.621,0.7958,-14.52,-28.16,-5.475,11.34,-23.19,7.718,-15.47,-12.69,11.72,46.9,0,0,0,0,0,0,0,0,0,0,0,0,0,0,0,0,
42,14,7.312,18,-19.54,-9.089,-19.6,-0.1842,-26.78,-10.44,16.06,-41.76,-8.608,-18.02,-6.388,-18.97,24.4,0,0,0,0,0,0,0,0,0,0,0,0,0,0,0,0,
43,12.18,0.9138,7.63,0.0384,-30.82,-19.71,0.6735,-24.08,-0.4534,20.12,-36.89,-15.48,-12.73,0.2589,-38.68,6.551,0,0,0,0,0,0,0,0,0,0,0,0,0,0,0,0,
44,10.92,-17.99,6.902,-14.04,-42.71,-24.29,-7.507,-32.16,-15.05,5.874,-31.63,-22.21,-17.04,-6.326,-34.68,5.098,0,0,0,0,0,0,0,0,0,0,0,0,0,0,0,0,
45,1.278,-34.51,-1.512,-30.44,-38.59,-38.2,-6.359,-35.78,-7.744,11.34,-18.27,-23.18,-19.64,-4.102,-21.38,17.52,0,0,0,0,0,0,0,0,0,0,0,0,0,0,0,0,
46,6.329,-33.97,-20.67,-10.43,-25.76,-30.87,-3.871,-28.16,-19.67,29.28,10.28,-9.174,-14.36,5.195,-3.97,33.5,0,0,0,0,0,0,0,0,0,0,0,0,0,0,0,0,
47,14.17,-24,-20.23,-1.097,-23.06,-21.38,-10.28,-22.87,-63.31,20.42,24.03,-0.4758,-21.64,-1.211,4.413,34.39,0,0,0,0,0,0,0,0,0,0,0,0,0,0,0,0,
48,0.8459,-23.24,-0.7186,-10.27,-29.1,-33.15,-19.71,-33.01,-39.69,3.702,15.05,-5.838,-36.22,-11.78,-7.862,15.52,0,0,0,0,0,0,0,0,0,0,0,0,0,0,0,0,
49,-6.314,-27.5,1.653,-11.59,-28,-32.27,-13.17,-37.39,25.32,7.513,19.04,1.621,-28.32,-2.814,-16.01,-0.7686,0,0,0,0,0,0,0,0,0,0,0,0,0,0,0,0,
50,9.977,-15.84,-10.38,-19.74,-26.44,-15.48,16.14,-18.41,25.99,19.21,33.02,8.244,-16.75,5.961,-8.336,-3.198,0,0,0,0,0,0,0,0,0,0,0,0,0,0,0,0,
51,10.39,-5.614,-5.98,-25.3,-22.24,-14.35,31.69,-9.253,-4.291,20.88,15.55,-17.29,-31.15,-6.369,-15.86,-6.715,0,0,0,0,0,0,0,0,0,0,0,0,0,0,0,0,
52,-9.794,-19.06,2.172,-9.061,-11.4,-14.46,16.54,-18.61,-6.559,19.65,-11.57,-35.98,-35.34,-13.57,-40.7,-15.16,0,0,0,0,0,0,0,0,0,0,0,0,0,0,0,0,
53,-6.413,-23.47,-2.815,-8.459,-13.99,-3.927,13.39,-16.88,-2.26,31.17,-9.816,-21.71,-11.68,-4.262,-48.36,-18.58,0,0,0,0,0,0,0,0,0,0,0,0,0,0,0,0,
54,10.68,-3.31,1.282,-24.92,-20.26,-10.8,28.46,-13.09,-1.605,42.65,-11.48,-12.5,-2.553,1.407,-37.8,-15.54,0,0,0,0,0,0,0,0,0,0,0,0,0,0,0,0,
55,6.717,8.286,16.57,-0.4474,-12.78,-31.33,25.58,-16.04,-18.5,35.95,-26.65,-12.18,-4.651,8.473,-31.09,-4.44,0,0,0,0,0,0,0,0,0,0,0,0,0,0,0,0,
56,-0.4342,7.54,17.39,39.69,-17.08,-30.57,14.13,-8.466,-60.84,29.62,-22.29,-6.314,5.455,15.86,-30.51,10.83,0,0,0,0,0,0,0,0,0,0,0,0,0,0,0,0,
57,1.031,6.795,5.302,26.25,-31.66,-13.09,15.34,-2.264,-55.35,40.43,-14.68,-8.566,-0.374,5.971,-34.61,12.1,0,0,0,0,0,0,0,0,0,0,0,0,0,0,0,0,
58,-0.873,-2.499,4.708,4.816,-24.35,-5.946,18.9,-7.142,5.396,55.01,-15.78,-5.346,-17.98,3.758,-41.02,2.079,0,0,0,0,0,0,0,0,0,0,0,0,0,0,0,0,
59,7.175,-9.948,20.46,31.1,-8.708,-3.245,20.75,-5.074,13.72,61.27,-1.276,14.55,-9.039,24.6,-33.63,6.951,0,0,0,0,0,0,0,0,0,0,0,0,0,0,0,0,
60,21.52,-5.731,24.96,38.99,-14.49,2.213,20.19,-2.738,-17.67,57.86,15.85,23.4,3.251,31.89,-11.84,25.76,0,0,0,0,0,0,0,0,0,0,0,0,0,0,0,0,
61,12.69,-12.76,-3.218,-2.475,-37.19,-10.88,2.481,-18.67,-0.9015,50.7,19.26,15.45,-11.57,19.66,1.634,30.75,0,0,0,0,0,0,0,0,0,0,0,0,0,0,0,0,
62,-9.673,-30.85,-30.5,-22.92,-50.13,-36.99,-24.18,-32.98,21.22,51.43,22.81,2.373,-25.24,13.92,-1.119,13.44,0,0,0,0,0,0,0,0,0,0,0,0,0,0,0,0,
63,-20.89,-31.71,-13.38,-18.49,-38.61,-46.31,-26.08,-22.69,3.232,59.67,24.33,-9.986,-21.8,11.47,-8.117,-8.308,0,0,0,0,0,0,0,0,0,0,0,0,0,0,0,0,
64,-23.61,-20.19,14.54,-28.55,-27.08,-48.07,-8.41,-10.57,-16.71,62.01,18.44,-5.404,-24.03,5.076,-12.07,-16.23,0,0,0,0,0,0,0,0,0,0,0,0,0,0,0,0,
65,-18.77,-14.36,7.418,-15.45,-34.25,-53.51,-3.923,-14.07,-19.85,51.72,12.36,8.601,-34.04,1.795,-13.9,-9.99,0,0,0,0,0,0,0,0,0,0,0,0,0,0,0,0,
66,-3.879,-5.772,-0.5218,26.25,-33.79,-37.51,-0.658,-9.32,-0.2465,44.13,9.144,9.113,-36.1,2.104,-15.77,-4.318,0,0,0,0,0,0,0,0,0,0,0,0,0,0,0,0,
67,11.12,7.995,11.48,28.74,-14.64,-3.841,14,2.91,12.75,58.82,11.53,5.559,-33.33,5.51,-17.37,-6.401,0,0,0,0,0,0,0,0,0,0,0,0,0,0,0,0,
68,21.81,14.08,7.85,-10.93,-10.29,9.376,17.59,-1.246,-18.23,75.38,13.24,8.276,-28.11,13.78,-15.01,-6.332,0,0,0,0,0,0,0,0,0,0,0,0,0,0,0,0,
69,28.92,15.82,-0.7698,-39.01,-27.36,2.263,23.13,-5.754,-20.92,65.41,9.624,13.13,-12.53,25.33,-7.706,3.981,0,0,0,0,0,0,0,0,0,0,0,0,0,0,0,0,
70,30.81,23.34,16.99,-22.1,-17.85,1.395,42.98,3.301,28.74,53.91,12.71,20.89,5.897,35.68,0.2791,19.73,0,0,0,0,0,0,0,0,0,0,0,0,0,0,0,0,
71,30.65,28.17,34.83,26.9,11.98,3.279,39.24,3.555,31.42,60.73,17,25.29,15.35,38.96,4.783,33.1,0,0,0,0,0,0,0,0,0,0,0,0,0,0,0,0,
72,32.68,19.17,24.43,40.74,-8.854,0.697,16.98,-5.644,5.656,60.75,15.25,30.97,22.77,42.45,7.451,43.24,0,0,0,0,0,0,0,0,0,0,0,0,0,0,0,0,
73,42.77,12.7,12.42,21.43,-40.94,6.684,15.53,-5.455,19.94,53.25,23.27,46.78,33.82,53.21,14.56,53.64,0,0,0,0,0,0,0,0,0,0,0,0,0,0,0,0,
74,53.91,21.66,25.08,35.56,-6.772,10.6,21.4,-3.785,22.48,56.96,29.89,49.45,36.68,52.81,24.2,59.2,0,0,0,0,0,0,0,0,0,0,0,0,0,0,0,0,
75,47.51,22.69,28.42,34.09,21.23,3.754,24.82,-3.54,14.93,67.6,23.25,37.66,28.45,40.73,25.9,52.39,0,0,0,0,0,0,0,0,0,0,0,0,0,0,0,0,
76,38.43,13.34,5.663,-14.08,2.575,10.23,37.82,11,44.24,77.38,27.11,36.84,20.39,40.6,18.21,41.2,0,0,0,0,0,0,0,0,0,0,0,0,0,0,0,0,
77,33.81,9.317,4.483,-14.84,6.925,10.36,29.67,16.71,53.27,69.92,24.38,27.19,6.401,37.11,6.128,30.68,0,0,0,0,0,0,0,0,0,0,0,0,0,0,0,0,
78,2.031,-14.81,26.75,16.62,16.22,-25.6,-10.57,-9.915,19.12,44.38,-9.193,-0.2494,-17.77,15.51,-7.987,10.08,0,0,0,0,0,0,0,0,0,0,0,0,0,0,0,0,
79,-32.72,-53.78,31.23,2.955,-2.325,-55.04,-35.76,-26.35,-13.37,37.41,-29.47,-8.642,-29.8,4.348,-17.43,-14.93,0,0,0,0,0,0,0,0,0,0,0,0,0,0,0,0,
80,-32.71,-59.72,13.39,-13.35,-14.83,-60.65,-38.03,-16.52,-38.73,41.81,-19.27,-0.5709,-25.1,3.747,-18.61,-24.96,0,0,0,0,0,0,0,0,0,0,0,0,0,0,0,0,
81,-35.08,-49.76,-14.32,-0.4866,-22.76,-70.17,-45.49,-20.24,-28.63,26.91,-9.278,0.0701,-19.7,-3.756,-17.74,-22.24,0,0,0,0,0,0,0,0,0,0,0,0,0,0,0,0,
82,-44.67,-54.87,-20.9,10.5,-19.87,-70.87,-52.59,-27.87,24.3,20.67,-1.203,-3.223,-12.58,-2.841,-17.26,-18.62,0,0,0,0,0,0,0,0,0,0,0,0,0,0,0,0,
83,-32.77,-57.02,-11.59,-9.619,-11.25,-63.52,-53.01,-24.41,40.65,26.23,-2.867,-14.99,-9.111,1.064,-21.63,-19.06,0,0,0,0,0,0,0,0,0,0,0,0,0,0,0,0,
84,-30.94,-59.23,-35.43,-60.59,-41.37,-67.18,-55.13,-36.47,12.51,11.66,-24.79,-36.17,-20.75,-7.819,-41.47,-30.88,0,0,0,0,0,0,0,0,0,0,0,0,0,0,0,0,
85,-46.77,-67.2,-44.79,-62.97,-56.81,-66.14,-55.19,-41.54,0.0627,5.201,-37.27,-47.53,-31.21,-8.81,-67.71,-48.75,0,0,0,0,0,0,0,0,0,0,0,0,0,0,0,0,
86,-46.98,-59.97,-4.794,-7.422,-18.26,-67.65,-53.63,-18.99,-7.462,19.08,-25.72,-41.82,-27.64,-0.7581,-74.72,-53.3,0,0,0,0,0,0,0,0,0,0,0,0,0,0,0,0,
87,-41.42,-47.35,0.9879,-0.8015,-16.26,-80.84,-51.43,-10.52,-20.71,17.62,-2.913,-25.5,-21.53,-0.5724,-56.09,-44.74,0,0,0,0,0,0,0,0,0,0,0,0,0,0,0,0,
88,-38.45,-44.39,-21.58,-14.99,-44.41,-72.75,-41.55,-12.7,-7.705,18.16,18.64,-9.896,-15.65,6.706,-30.67,-35.56,0,0,0,0,0,0,0,0,0,0,0,0,0,0,0,0,
89,-26.93,-36.91,-14.48,5.003,-14.13,-50.03,-28.85,0.8507,14.29,33.4,16.66,-7.011,-9.262,17.29,-20.28,-25.73,0,0,0,0,0,0,0,0,0,0,0,0,0,0,0,0,
90,-21.83,-28.63,-15.5,-26.92,22.81,-45.59,-18.06,2.389,-2.242,29.78,-6.066,-17.96,-14.56,4.91,-29.36,-19.45,0,0,0,0,0,0,0,0,0,0,0,0,0,0,0,0,
91,-24.88,-29.93,-25.13,-67.12,2.666,-39.72,-5.272,-4.136,-39.87,30,-15.49,-29.32,-24.14,-7.269,-40.39,-23.74,0,0,0,0,0,0,0,0,0,0,0,0,0,0,0,0,
92,-13.37,-25.23,-9.747,-6.372,-11.54,-15.41,6.084,14.56,-35.46,56.51,-11.25,-28.82,-20.3,5.201,-38.17,-28.25,0,0,0,0,0,0,0,0,0,0,0,0,0,0,0,0,
93,-1.307,-17.73,4.747,44.56,10.9,-5.563,10.72,32.26,1.338,56.34,-21.47,-34.29,-21.31,8.218,-32.86,-28.69,0,0,0,0,0,0,0,0,0,0,0,0,0,0,0,0,
94,-16.17,-28.53,9.92,14.06,15.03,-22.6,8.438,24.28,6.365,30.14,-43,-52.2,-33.59,-7.975,-37.34,-32.77,0,0,0,0,0,0,0,0,0,0,0,0,0,0,0,0,
95,-30.34,-37.38,18.75,12.34,-6.998,-29.86,3.895,18.73,-5.836,33.96,-49.46,-45.44,-25.95,-8.293,-42.93,-33.2,0,0,0,0,0,0,0,0,0,0,0,0,0,0,0,0,
96,-15.63,-24.15,25.85,37.06,-13.17,-19.25,1.82,21.7,2.767,40.12,-40.12,-25.77,-13.37,-1.732,-42.86,-27.7,0,0,0,0,0,0,0,0,0,0,0,0,0,0,0,0,
97,-2.429,-21.5,26.87,11.97,4.809,-19.02,-1.32,8.17,4.125,14.35,-27.89,-36.06,-24.55,-10.5,-41.12,-29.43,0,0,0,0,0,0,0,0,0,0,0,0,0,0,0,0,
98,-2.233,-41.88,14.06,-8.62,25.22,-19.75,-7.708,-9.767,-8.074,2.092,-13.41,-44.3,-26.43,-13.22,-30.65,-31.53,0,0,0,0,0,0,0,0,0,0,0,0,0,0,0,0,
99,5.852,-50.94,-1.591,17.37,21.87,-8.531,-13.55,-6.496,-11.43,7.873,-8.15,-28.57,-9.374,-7.268,-12.56,-23.61,0,0,0,0,0,0,0,0,0,0,0,0,0,0,0,0,
100,9.454,-38.22,2.481,27.96,-4.372,-8.863,-13.5,1.062,-6.679,-1.943,-13.88,-22.8,0.6257,-6.643,-7.651,-16.93,0,0,0,0,0,0,0,0,0,0,0,0,0,0,0,0,
101,3.267,-21.62,9.271,7.152,-13.68,-16.95,-4.483,-3.369,9.401,0.2421,-6.793,-24.14,15.46,3.129,-12.84,-10.06,0,0,0,0,0,0,0,0,0,0,0,0,0,0,0,0,
102,0.9375,-16.38,-1.928,-0.9282,-7.284,-18.45,-0.2743,-7.471,9.732,20.97,2.367,-24.89,28.88,18.39,-6.282,8.05,0,0,0,0,0,0,0,0,0,0,0,0,0,0,0,0,
103,-10.06,-27.39,-17.63,-1.606,-26.41,-32.23,-12.44,-11.75,-30.08,21.02,-5.862,-36.4,16.81,23.13,5.371,24.21,0,0,0,0,0,0,0,0,0,0,0,0,0,0,0,0,
104,-23.81,-39.71,-23.67,-19.27,-51.29,-48.86,-23.62,-19.27,-43.35,12.33,-6.965,-37.68,5.937,27.64,4.053,22.79,0,0,0,0,0,0,0,0,0,0,0,0,0,0,0,0,
105,-14.4,-39.26,-19.12,-24.33,-43.39,-37.54,-20.78,-16.25,1.357,14.46,3.83,-22.03,10.23,28.22,-5.424,6.772,0,0,0,0,0,0,0,0,0,0,0,0,0,0,0,0,
106,5.653,-27.24,-15.92,-3.703,-26.43,-15.52,-13.24,-3.774,31.92,15.56,6.473,-11.05,7.808,17.33,-9.147,-13.28,0,0,0,0,0,0,0,0,0,0,0,0,0,0,0,0,
107,17.21,-6.063,-25.56,-10.97,-20.22,-8.248,-3.967,4.759,24.77,22.12,9.046,-4.863,5.007,16.37,-5.06,-24.26,0,0,0,0,0,0,0,0,0,0,0,0,0,0,0,0,
108,27.87,14.45,-19.62,-41.37,-3.891,0.0778,11.75,11.77,20.97,33.39,13.78,1.385,12.79,28.73,-1.27,-20.4,0,0,0,0,0,0,0,0,0,0,0,0,0,0,0,0,
109,43.27,22.93,18.62,-16.78,13.82,22.51,27.69,21.49,25.03,34.92,9.991,6.086,19.27,33.8,-1.052,-6.793,0,0,0,0,0,0,0,0,0,0,0,0,0,0,0,0,
110,51.72,21.25,35.7,35.79,5.553,41.34,33.81,22.61,15.09,30.34,5.309,6.712,20.21,30,-0.2995,12.66,0,0,0,0,0,0,0,0,0,0,0,0,0,0,0,0,
111,46.33,20.06,24.22,39,3.687,48.17,39.03,18.23,6.847,25.03,6.92,3.436,23.47,30.33,2.6,32.17,0,0,0,0,0,0,0,0,0,0,0,0,0,0,0,0,
112,49.54,31.72,45.4,43.71,39.19,61.12,54.94,30.25,36.57,27.99,17.93,12.68,31.93,38.42,10.56,41.76,0,0,0,0,0,0,0,0,0,0,0,0,0,0,0,0,
113,71.51,43.83,73.64,82.28,58.26,78.38,63.24,42.85,60.21,33.32,30.75,24.49,35.48,41.32,23.21,37.01,0,0,0,0,0,0,0,0,0,0,0,0,0,0,0,0,
114,76.79,33.58,55.25,76.49,29.37,71.37,55.19,30.39,14,17.35,20.97,13.75,30.52,32.82,28.99,23.8,0,0,0,0,0,0,0,0,0,0,0,0,0,0,0,0,
115,61.72,25.03,32.33,43.45,7.345,51.26,56.46,22.91,-19.92,3.186,7.46,15.91,33.15,30.2,30.7,19.22,0,0,0,0,0,0,0,0,0,0,0,0,0,0,0,0,
116,66.74,39.39,39.33,53.93,17.48,55.48,64.6,34.64,27.83,12.07,24.29,44.41,39.94,34.4,42.37,30.26,0,0,0,0,0,0,0,0,0,0,0,0,0,0,0,0,
117,76.74,37.06,50.55,52.74,23.29,62.93,52.21,29.33,49.36,8.51,29.38,36.15,28.2,23.76,48.84,35.96,0,0,0,0,0,0,0,0,0,0,0,0,0,0,0,0,
118,53.21,5.215,41.92,12.84,-2.66,39.07,25.47,7.354,6.346,-9.559,-4.557,-3.632,8.021,5.225,31.28,21.67,0,0,0,0,0,0,0,0,0,0,0,0,0,0,0,0,
119,24.27,-13.71,18.14,14.19,-45.47,12.43,3.229,-2.469,0.2136,-12.91,-21.42,-13.15,-0.1244,0.0337,7.675,-1.46,0,0,0,0,0,0,0,0,0,0,0,0,0,0,0,0,
120,16.48,-16.33,12.56,35.35,-55.8,6.463,-4.037,0.3406,19.35,-6.765,-10.68,-10.46,-4.897,1.877,-4.435,-24.93,0,0,0,0,0,0,0,0,0,0,0,0,0,0,0,0,
121,9.946,-24.31,21.64,-4.307,-30.6,5.597,10.92,6.191,-1.756,6.279,-10.75,-20.93,-8.559,4.609,-10.69,-44.2,0,0,0,0,0,0,0,0,0,0,0,0,0,0,0,0,
122,4.265,-23.73,7.903,-36.24,-30.05,5.181,22.21,9.089,-13.68,22.17,-12.04,-23.86,-4.064,12.92,-14.28,-50.44,0,0,0,0,0,0,0,0,0,0,0,0,0,0,0,0,
123,-0.996,-20.61,-14.36,10.15,-55.8,-3.873,-0.195,6.035,-0.4639,16.29,-13.2,-33.86,-5.661,14.91,-20.64,-49.68,0,0,0,0,0,0,0,0,0,0,0,0,0,0,0,0,
124,-24.24,-37.82,-19.44,42.65,-60.49,-21.76,-25.53,2.13,-17.01,-0.4894,-29.48,-55.61,-12.94,8.888,-36.67,-52,0,0,0,0,0,0,0,0,0,0,0,0,0,0,0,0,
125,-37.92,-43.65,-4.833,17.68,-47.29,-16.54,-19.24,1.879,-27.82,1.723,-33.93,-52.95,-9.683,9.306,-49.38,-51.1,0,0,0,0,0,0,0,0,0,0,0,0,0,0,0,0,
126,-22.72,-29.58,23.87,10.34,-31.34,-1.597,-11.9,2.208,-5.448,11.59,-29.28,-42.42,-12.63,3.381,-49.56,-46.94,0,0,0,0,0,0,0,0,0,0,0,0,0,0,0,0,
127,-20.8,-44.77,25.78,16.19,-18.95,-13.41,-25.08,-1.766,-17.65,9.909,-45.28,-52.61,-27.27,-11.68,-48.21,-50.84,0,0,0,0,0,0,0,0,0,0,0,0,0,0,0,0,
128,-35.53,-71.47,-0.1368,1.845,-26.68,-26.44,-27.82,-2.71,-36.88,7.229,-49.49,-48.71,-25.32,-6.885,-44.63,-57.12,0,0,0,0,0,0,0,0,0,0,0,0,0,0,0,0,
129,-30.91,-65.92,3.216,6.062,-28.54,-20.07,-12.7,6.368,8.423,11.37,-18.05,-11.04,-9.333,12.56,-24.96,-47.81,0,0,0,0,0,0,0,0,0,0,0,0,0,0,0,0,
130,-7.308,-52.5,23.42,28.86,2.714,-2.426,1.95,16.32,53.58,17.41,22.62,33.3,12.03,31.54,15.07,-14.43,0,0,0,0,0,0,0,0,0,0,0,0,0,0,0,0,
131,35.36,-32.68,28.8,42.32,27.23,38.98,21.1,26.28,69.05,29.31,70.33,66.71,49.85,60.46,67.88,36.15,0,0,0,0,0,0,0,0,0,0,0,0,0,0,0,0,
132,84.79,3.416,47.11,47.27,25.41,75.65,36.54,35.2,97.64,36.73,105.8,77.14,73.89,74.59,108.4,75.72,0,0,0,0,0,0,0,0,0,0,0,0,0,0,0,0,
133,87.34,5.467,60.32,30.32,22.49,58.43,26,26.53,82.04,18.09,78.41,52.98,51.32,49.18,106.1,71.99,0,0,0,0,0,0,0,0,0,0,0,0,0,0,0,0,
134,43.47,-32.25,30.77,2.071,7.714,18.91,0.8577,6.004,15.94,-6.498,15.35,8.687,9.377,16.43,62.7,27.71,0,0,0,0,0,0,0,0,0,0,0,0,0,0,0,0,
135,4.641,-63.73,2.641,-15.03,-30.12,-4.105,-23.75,-8.681,-13.47,-11.27,-27.24,-31.96,-21.9,-5.051,8.069,-23.77,0,0,0,0,0,0,0,0,0,0,0,0,0,0,0,0,
136,-22.82,-84.03,-2.262,-26.63,-61.68,-24.28,-44.36,-17.14,-28.17,-13.77,-59.98,-56.19,-37.16,-22.32,-32.56,-55.85,0,0,0,0,0,0,0,0,0,0,0,0,0,0,0,0,
137,-42.8,-87.64,-20.18,-11.57,-73.88,-35.67,-44.27,-14.78,-41.96,-17.84,-79.45,-59.59,-36.14,-26.79,-47.92,-62.76,0,0,0,0,0,0,0,0,0,0,0,0,0,0,0,0,
138,-43.46,-70.19,-28.96,8.419,-76,-30.04,-27.43,-3.621,-20.49,-4,-66.07,-58.43,-34.11,-23.81,-44.6,-56.39,0,0,0,0,0,0,0,0,0,0,0,0,0,0,0,0,
139,-45.9,-66.62,-9.966,-21.87,-72.86,-28.28,-23.11,0.8498,-38.38,16.43,-57.02,-69.52,-42.97,-27.36,-40.73,-55.03,0,0,0,0,0,0,0,0,0,0,0,0,0,0,0,0,
140,-63.33,-82.96,-10.52,-33.76,-73.53,-31.9,-34.41,0.4708,-79.48,20.49,-58.61,-71.82,-54.39,-32.29,-39.41,-62.61,0,0,0,0,0,0,0,0,0,0,0,0,0,0,0,0,
141,-70.02,-94.85,-21.58,15.94,-79.54,-37.12,-43.74,2.283,-32.26,8.511,-38.07,-54.11,-58.63,-34,-31.65,-66.47,0,0,0,0,0,0,0,0,0,0,0,0,0,0,0,0,
142,-61.51,-97.46,-7.921,26.93,-77.2,-48.61,-43.37,3.637,4.46,-3.112,-23.56,-46.48,-49.37,-31.51,-20.96,-58.03,0,0,0,0,0,0,0,0,0,0,0,0,0,0,0,0,
143,-54.19,-92.88,-0.5611,-12.69,-64.65,-48.02,-40.21,-0.1775,-46.65,-3.909,-26.48,-48.11,-35.62,-29.09,-14.29,-43.37,0,0,0,0,0,0,0,0,0,0,0,0,0,0,0,0,
144,-46.28,-91.77,-8.966,-21.37,-56.43,-30.65,-47.31,-12.86,-46.86,-4.595,-10.25,-31.81,-36.53,-33.94,-9.245,-33.2,0,0,0,0,0,0,0,0,0,0,0,0,0,0,0,0,
145,-34.08,-94.43,-12.66,-4.388,-55.15,-18.52,-56.11,-20.23,6.147,-9.208,4.026,-15.53,-44.27,-31.67,-5.343,-30.65,0,0,0,0,0,0,0,0,0,0,0,0,0,0,0,0,
146,-24.75,-82.03,-16.83,2.225,-45.6,-13.76,-49.1,-11.45,4.179,-7.034,-6.035,-20.9,-42.3,-17.43,-4.391,-31.68,0,0,0,0,0,0,0,0,0,0,0,0,0,0,0,0,
147,-23.13,-68.87,-10.8,4.126,-27.01,-9.285,-37.95,-3.399,-6.244,-7.899,-7.438,-26.18,-36.35,-15.57,-4.106,-31.84,0,0,0,0,0,0,0,0,0,0,0,0,0,0,0,0,
148,-21.92,-71.17,10.96,9.709,-17.71,-5.211,-33.72,-0.8588,9.437,-20.43,3.549,-14.75,-33.51,-26.13,-2.027,-30.1,0,0,0,0,0,0,0,0,0,0,0,0,0,0,0,0,
149,-13.22,-70.09,22.21,12.93,-14.55,2,-26.55,1.639,9.904,-25.8,11.61,0.1061,-32.98,-27.83,4.283,-29.31,0,0,0,0,0,0,0,0,0,0,0,0,0,0,0,0,
150,-6.088,-62.84,20.42,12.64,2.638,12.85,-16.35,-0.9729,9.52,-15.62,22.41,3.587,-30.58,-23.03,13.88,-30.98,0,0,0,0,0,0,0,0,0,0,0,0,0,0,0,0,
151,-6.028,-55.77,22,15.73,18.92,22.1,-11.5,-2.906,4.683,-9.967,26.63,-4.26,-25.61,-25.83,17.66,-32.51,0,0,0,0,0,0,0,0,0,0,0,0,0,0,0,0,
152,-7.88,-49.63,20.93,5.811,3.29,17.59,-16.53,-6.113,-15.06,-23.56,17.29,-16.61,-26.25,-35.11,9.759,-34.01,0,0,0,0,0,0,0,0,0,0,0,0,0,0,0,0,
153,-14.5,-52.01,8.166,-13.57,-18.36,4.335,-23.49,-11.42,-13.11,-30.83,13.16,-27.02,-21.35,-32.16,-1.012,-35.1,0,0,0,0,0,0,0,0,0,0,0,0,0,0,0,0,
154,-18,-47.67,-3.297,-10.37,-12.01,8.086,-18.7,1.101,-18.22,-11.23,16.47,-29.93,-2.406,-13.83,-1.064,-30.25,0,0,0,0,0,0,0,0,0,0,0,0,0,0,0,0,
155,-13.61,-34.96,-10.98,-12.45,-18.19,9.979,-20.73,8.915,-48.04,-4.508,4.33,-31.37,-2.392,-9.419,6.161,-25.03,0,0,0,0,0,0,0,0,0,0,0,0,0,0,0,0,
156,-23.76,-44.14,-23.97,-25.71,-50.21,-13.33,-41.26,-14.74,-33.83,-24.98,-21.14,-39.43,-22.49,-22.21,4.455,-32.57,0,0,0,0,0,0,0,0,0,0,0,0,0,0,0,0,
157,-43.61,-59.26,-21.61,-6.739,-48.79,-19.12,-43.92,-26.94,-11.29,-28.2,-30.11,-42.09,-19.57,-21.76,-3.901,-45.26,0,0,0,0,0,0,0,0,0,0,0,0,0,0,0,0,
158,-44.92,-52.73,-9.287,0.144,-23.26,0.7637,-25.19,-13.26,-46.69,-18.81,-24.93,-33.24,-5.97,-11.24,-6.302,-48.82,0,0,0,0,0,0,0,0,0,0,0,0,0,0,0,0,
159,-38.47,-46.91,-20.67,-20.47,-22.06,-0.9252,-21.83,-11.34,-55.13,-21.55,-30.98,-26.62,-17.27,-11.7,-10.5,-51.21,0,0,0,0,0,0,0,0,0,0,0,0,0,0,0,0,
160,-40.84,-50.95,-25.36,-7.448,-26.55,-16.11,-30.69,-15.06,-14.92,-15.92,-38.37,-21.58,-27.28,-13.74,-19.96,-58,0,0,0,0,0,0,0,0,0,0,0,0,0,0,0,0,
161,-38.13,-43.82,-7.053,8.206,-23.53,-11.86,-28.16,-5.662,-8.45,-7.857,-29.19,-11.78,-6.613,-4.896,-16.5,-52.85,0,0,0,0,0,0,0,0,0,0,0,0,0,0,0,0,
162,-21.4,-22.73,-4.333,7.594,-19.94,6.623,-11.4,1.852,-6.791,-14.76,-14.75,-9.517,16.52,5.751,-0.4014,-31.36,0,0,0,0,0,0,0,0,0,0,0,0,0,0,0,0,
163,-2.886,-8.252,-4.24,18.94,-16.5,22.33,5.773,-0.5741,12.73,-12.26,-6.99,-12.46,17.39,12.01,10.91,-11.74,0,0,0,0,0,0,0,0,0,0,0,0,0,0,0,0,
164,6.277,-7.075,3.389,-0.0314,-29.6,26.03,11.88,2.184,7.617,5.602,-2.325,1.639,22.58,23.03,22.16,1.324,0,0,0,0,0,0,0,0,0,0,0,0,0,0,0,0,
165,17.21,9.888,3.955,-17.17,-19.33,31.97,24.12,19.02,14.38,15.68,8.458,26.71,44.72,35.51,41.98,17.92,0,0,0,0,0,0,0,0,0,0,0,0,0,0,0,0,
166,41.06,44.98,33.13,26.48,50.82,53.4,46.78,25.17,31.11,11.9,25.38,40.51,52.95,33.61,58.03,31.11,0,0,0,0,0,0,0,0,0,0,0,0,0,0,0,0,
167,59.75,54.37,75.22,49.31,92.59,67.88,47.42,10.45,13.5,9.543,35.31,47.56,46.64,28.34,62.98,31.18,0,0,0,0,0,0,0,0,0,0,0,0,0,0,0,0,
168,61.86,38.33,69.57,30.02,68.84,66.31,29.46,12.1,23.04,21.54,37.81,54,45.43,32.8,63.82,28.18,0,0,0,0,0,0,0,0,0,0,0,0,0,0,0,0,
169,63.68,30.21,54.41,38.2,60.8,64.83,22.38,27.41,67.03,25.8,43.69,51.12,36.17,28.53,61.06,24.48,0,0,0,0,0,0,0,0,0,0,0,0,0,0,0,0,
170,71.07,28.57,67.67,56.04,71.69,62.88,22.16,19.84,69.53,8.264,46.5,43.5,23.38,17.15,53.76,13.26,0,0,0,0,0,0,0,0,0,0,0,0,0,0,0,0,
171,76.87,31.16,65.25,56.57,62.99,62.73,26.23,9.663,54.26,4.632,41.09,38.31,28.36,22.8,51.89,8.476,0,0,0,0,0,0,0,0,0,0,0,0,0,0,0,0,
172,80.4,41.63,48.1,50.56,58.25,69.69,36.97,14.74,59.51,18.47,42.86,34.94,34.68,34.95,59.95,19.03,0,0,0,0,0,0,0,0,0,0,0,0,0,0,0,0,
173,78.05,43.1,54.88,39.59,57.93,66.19,33.83,10.53,62.47,17.49,54.6,40.68,31.27,35.14,66.66,27.82,0,0,0,0,0,0,0,0,0,0,0,0,0,0,0,0,
174,68.54,33.51,67.13,36.29,51.69,50.96,20.72,1.827,51.71,15.17,59.73,48.69,28.13,30.38,62.96,26.72,0,0,0,0,0,0,0,0,0,0,0,0,0,0,0,0,
175,58.77,25.08,57.41,27.53,56.55,45.31,20.73,1.549,24,20.61,54.48,40.61,18.15,25.11,51.46,18.96,0,0,0,0,0,0,0,0,0,0,0,0,0,0,0,0,
176,48.43,14.97,38.43,3.848,52.58,46.55,20.12,-4.283,5.484,12.54,46.8,31.35,9.369,22.79,39.38,6.476,0,0,0,0,0,0,0,0,0,0,0,0,0,0,0,0,
177,41.03,5.523,30.21,-1.491,27.2,40.88,5.999,-14.12,19.39,6.673,39.42,34.23,16.68,24.58,32.73,3.575,0,0,0,0,0,0,0,0,0,0,0,0,0,0,0,0,
178,39.97,-1.41,28.36,-5.754,10.96,26.35,-6.92,-22.67,19.01,14.58,28.87,21.81,13.01,13.51,27.06,12.55,0,0,0,0,0,0,0,0,0,0,0,0,0,0,0,0,
179,30.27,-13.33,12.76,-24.81,10.51,11.02,-13.62,-35.15,-6.342,12.52,16.94,-1.24,-4.045,0.3424,15.52,13.45,0,0,0,0,0,0,0,0,0,0,0,0,0,0,0,0,
180,23,-9.41,4.94,-4.48,26.66,17.46,-7.237,-31.6,-2.73,9.828,21,6.493,9.132,15.71,10.31,9.81,0,0,0,0,0,0,0,0,0,0,0,0,0,0,0,0,
181,44.01,20.7,35.64,31.92,52.65,42.33,17.14,-5.232,25.66,20.3,40.07,27.06,39.73,34.37,20.95,15.01,0,0,0,0,0,0,0,0,0,0,0,0,0,0,0,0,
182,65.63,35.91,57.94,16.25,53.12,52.34,31.9,5.195,30.7,18.92,47.03,26.19,46.82,29.14,32.54,17.92,0,0,0,0,0,0,0,0,0,0,0,0,0,0,0,0,
183,66.24,28.29,46.19,-0.3257,48.63,51.9,22.22,-8.427,8.685,6.997,46.22,24.67,40.71,24.88,36.98,16.22,0,0,0,0,0,0,0,0,0,0,0,0,0,0,0,0,
184,60.8,20.65,42.13,20.74,60.89,47.3,4.966,-14.51,-5.026,8.292,48.86,22.61,23.52,15.81,37.53,15.55,0,0,0,0,0,0,0,0,0,0,0,0,0,0,0,0,
185,37.4,-1.545,34.71,21.51,46.03,20.61,-6.797,-9.246,3.049,15.72,36.27,2.437,-5.121,-11.49,29.11,5.213,0,0,0,0,0,0,0,0,0,0,0,0,0,0,0,0,
186,10.33,-18.68,21.16,12.18,33.3,8.405,-1.771,-1.817,11.61,19.51,22.55,-7.853,-8.669,-17.17,19.55,-8.692,0,0,0,0,0,0,0,0,0,0,0,0,0,0,0,0,
187,16.63,1.401,40.85,27.99,63.4,29.8,7.86,0.4467,13.77,14.69,29.17,-4.255,-1.352,-4.255,22.65,-10.96,0,0,0,0,0,0,0,0,0,0,0,0,0,0,0,0,
188,19.5,6.228,51.33,14.9,64.57,20.98,-6.642,-16.06,12.47,-7.271,26.43,-13.22,-19.94,-11.69,25.16,-15.67,0,0,0,0,0,0,0,0,0,0,0,0,0,0,0,0,
189,-2.974,-23.86,22.12,-25.64,30.68,-14.63,-25.13,-30.58,3.177,-23.55,9.827,-19.87,-29.97,-14.41,15.47,-30.34,0,0,0,0,0,0,0,0,0,0,0,0,0,0,0,0,
190,-8.036,-34.6,5.708,-22.03,25.16,-18.74,-28.01,-23.64,-2.114,-14.33,7.343,-16.62,-19.09,-0.1247,5.479,-37.73,0,0,0,0,0,0,0,0,0,0,0,0,0,0,0,0,
191,-4.506,-33.67,6.592,-4.096,17.82,-19.14,-39.73,-26.12,-6.733,-7.867,5.967,-23.18,-24.1,-4.079,0.5184,-34.55,0,0,0,0,0,0,0,0,0,0,0,0,0,0,0,0,
192,-17.25,-39.33,3.68,-20.86,-4.495,-34.83,-43.23,-35.14,-19.54,-15.75,-0.3059,-27.8,-30.25,-9.761,-1.907,-25.78,0,0,0,0,0,0,0,0,0,0,0,0,0,0,0,0,
193,-16.02,-18.39,10.53,-19.6,4.632,-22,-14.53,-16.12,-10.74,-11.53,13.72,-18.49,-17.81,6.5,0.5133,-9.282,0,0,0,0,0,0,0,0,0,0,0,0,0,0,0,0,
194,0.8333,7.213,20.69,2.177,21.41,0.5625,-4.647,-3.995,11.77,-4.001,30.34,-17.56,-16.09,8.914,1.847,3.64,0,0,0,0,0,0,0,0,0,0,0,0,0,0,0,0,
195,-1.792,-6.381,12.91,-24.28,9.468,-10.72,-32.57,-31.86,6.416,-19.59,23.92,-27.79,-27.33,-4.883,-3.817,1.134,0,0,0,0,0,0,0,0,0,0,0,0,0,0,0,0,
196,-14.46,-27,-7.179,-52.4,-0.871,-27.22,-42.32,-49.58,-4.444,-35.88,25.69,-23.4,-23.8,6.859,-6.302,-1.819,0,0,0,0,0,0,0,0,0,0,0,0,0,0,0,0,
197,-10.75,-24.26,-6.657,-11.54,14.53,-22.86,-24.99,-29.76,2.109,-31.81,45.06,-10.6,-11.22,31.11,0.512,9.711,0,0,0,0,0,0,0,0,0,0,0,0,0,0,0,0,
198,-2.017,-17.72,15.93,26.06,36.07,-14.45,-14.65,-10.96,1.137,-26.15,46.13,-12.14,-6.162,34.39,8.27,24.19,0,0,0,0,0,0,0,0,0,0,0,0,0,0,0,0,
199,1.765,-12.95,16.02,10.11,40.63,-6.92,-10.64,-10.57,-10.8,-22.34,33.84,-12.43,-0.0473,31.86,13.58,30.57,0,0,0,0,0,0,0,0,0,0,0,0,0,0,0,0,
200,8.68,-4.18,3.846,-1.611,32.37,-0.0903,-6.66,-13.75,-19.01,-17.02,23.06,-4.863,9.737,35.89,15.38,33.59,0,0,0,0,0,0,0,0,0,0,0,0,0,0,0,0,
201,9.143,0.5157,21.27,4.137,32.4,1.002,-3.994,-10.45,-17.18,-19.56,1.388,-12.36,7.178,34.22,5.186,31.62,0,0,0,0,0,0,0,0,0,0,0,0,0,0,0,0,
202,3.416,3.287,39.23,2.856,46.3,6.411,6.117,1.955,-10.51,-14.52,-7.938,-21.44,-7.674,28.89,-12.21,20.56,0,0,0,0,0,0,0,0,0,0,0,0,0,0,0,0,
203,13.07,8.306,31.49,4.581,56.25,17.37,16.11,11.52,-8.971,-3.834,14.53,-15.41,-15.91,23.35,-17,11.09,0,0,0,0,0,0,0,0,0,0,0,0,0,0,0,0,
204,25.2,6.549,27.14,8.481,48.63,16.72,10.12,5.839,-1.752,-17.08,32.4,-18.77,-15.01,12.08,-7.262,8.497,0,0,0,0,0,0,0,0,0,0,0,0,0,0,0,0,
205,16.59,-8.294,30.05,2.121,33.55,0.2643,-8.361,-6.692,-0.2914,-31.17,28.93,-31.9,-22.32,-0.3479,0.1894,3.167,0,0,0,0,0,0,0,0,0,0,0,0,0,0,0,0,
206,6.074,-33.1,23.63,-2.332,28.19,-14,-24.01,-14.31,-21.46,-22.37,25.64,-32.37,-37.81,-6.482,0.6699,-3.894,0,0,0,0,0,0,0,0,0,0,0,0,0,0,0,0,
207,7.63,-52.03,22.38,4.921,34.77,-14.08,-28.08,-15.15,-17.32,-24.58,27.49,-33.22,-45.39,-7.71,0.7934,-3.563,0,0,0,0,0,0,0,0,0,0,0,0,0,0,0,0,
208,-1.266,-53.94,24.19,-4.11,39.35,-21.37,-33.03,-17.15,13.1,-38.15,23.32,-47.76,-47.4,-8.058,-4.705,-0.877,0,0,0,0,0,0,0,0,0,0,0,0,0,0,0,0,
209,-19.4,-45.66,2.452,-37.04,34.77,-39.7,-37.26,-23.09,10.23,-29.11,17.24,-50.23,-42.84,-2.752,-19.65,-0.9661,0,0,0,0,0,0,0,0,0,0,0,0,0,0,0,0,
210,-10.89,-28.16,-13.51,-36.91,35.39,-31,-21.88,-18.49,1.04,-10.37,23.71,-31.51,-24.93,10.98,-24.98,3.992,0,0,0,0,0,0,0,0,0,0,0,0,0,0,0,0,
211,10.51,-15.28,7.56,-3.202,39.28,-12.19,-16.99,-9.536,11.69,-7.22,32.34,-26.69,-20.16,19.46,-8.325,15.29,0,0,0,0,0,0,0,0,0,0,0,0,0,0,0,0,
212,1.636,-26.09,20.17,-5.755,27.87,-24.17,-39.95,-14.3,3.598,-10.55,27.09,-41.25,-34.78,21.2,10.94,25.41,0,0,0,0,0,0,0,0,0,0,0,0,0,0,0,0,
213,-11.35,-33.06,7.393,-27.1,22.8,-29.72,-44.32,-18.11,-3.79,-10.99,16.96,-44.07,-35.78,25.63,11.33,29.76,0,0,0,0,0,0,0,0,0,0,0,0,0,0,0,0,
214,2.701,-22.8,1.832,-11.49,43.57,-12.43,-32.84,-16.01,12.48,-20.41,4.843,-36.6,-27.35,23.42,-3.522,23.19,0,0,0,0,0,0,0,0,0,0,0,0,0,0,0,0,
215,17.69,-17.18,0.7694,10.2,52.96,-7.626,-30.4,-19.58,16.37,-37.28,-4.791,-25.47,-20.43,17.48,-12.81,9.977,0,0,0,0,0,0,0,0,0,0,0,0,0,0,0,0,
216,29.45,-1.92,8.153,-3.5,35.82,-3.23,-13.05,-17.79,3.802,-38.31,-0.6837,-3.44,-5.534,19.28,-6.329,5.069,0,0,0,0,0,0,0,0,0,0,0,0,0,0,0,0,
217,42.26,15.56,28.02,-27.49,27.89,5.073,-5.265,-15.87,-5.357,-26.88,-1.549,6.55,-4.583,16.59,0.042,7.555,0,0,0,0,0,0,0,0,0,0,0,0,0,0,0,0,
218,35.23,-1.933,23,-22.27,34.51,-7.628,-34.11,-24.27,0.0092,-23.72,-10.15,-5.739,-22.03,12.69,-6.304,8.805,0,0,0,0,0,0,0,0,0,0,0,0,0,0,0,0,
219,17.63,-27.93,-3.44,-9.448,30.33,-25.71,-47.93,-26.76,22.47,-25.05,-7.742,-20.78,-31.86,13.84,-17.64,10.12,0,0,0,0,0,0,0,0,0,0,0,0,0,0,0,0,
220,6.072,-35.63,-7.542,-20.92,24.38,-30.76,-38,-26.62,21.51,-30.16,-13.21,-38.85,-39.35,5.444,-29.41,6.9,0,0,0,0,0,0,0,0,0,0,0,0,0,0,0,0,
221,6.209,-33.95,14.06,-15.63,37.15,-16.85,-34.02,-23.66,-11.54,-35.4,-23.82,-48.66,-37.11,8.694,-35.46,0.1788,0,0,0,0,0,0,0,0,0,0,0,0,0,0,0,0,
222,26.35,-15.55,30.8,10.19,44.04,6.432,-25.88,-6.284,-15.82,-24.61,-11.44,-34.78,-15.81,32.06,-26.96,3.608,0,0,0,0,0,0,0,0,0,0,0,0,0,0,0,0,
223,29.86,-7.371,16,-9.674,22.43,-7.608,-28.27,-5.605,3.394,-25.27,-5.122,-27.68,-12.71,30.94,-18.52,9.268,0,0,0,0,0,0,0,0,0,0,0,0,0,0,0,0,
224,0.4278,-28.58,-19.63,-47.69,2.563,-45.16,-45.89,-23.72,-4.926,-48.83,-18.93,-33.99,-18.99,22.43,-17.7,7.843,0,0,0,0,0,0,0,0,0,0,0,0,0,0,0,0,
225,-2.131,-26.88,-36.44,-42.95,1.868,-45.57,-39.86,-21.87,-13.28,-43.41,-17.11,-23.97,0.0975,43.46,-3.81,16.3,0,0,0,0,0,0,0,0,0,0,0,0,0,0,0,0,
226,19.5,-6.636,-23.91,-35.77,-0.681,-34.33,-31.75,-20.95,-1.599,-19.29,-12.79,-17.79,4.367,43.82,16.44,28.96,0,0,0,0,0,0,0,0,0,0,0,0,0,0,0,0,
227,7.549,-15.61,-5.372,-44.78,0.879,-46.55,-46.58,-33.27,-6.825,-21.07,-27,-34.1,-14.21,15.89,12.97,19.21,0,0,0,0,0,0,0,0,0,0,0,0,0,0,0,0,
228,-11.48,-18.3,3.775,-26.33,21.4,-49.05,-41.67,-22.52,-18.27,-18.35,-27.41,-35.01,-2.903,22.23,-5.32,0.3372,0,0,0,0,0,0,0,0,0,0,0,0,0,0,0,0,
229,-1.138,4.433,1.384,-7.162,33.09,-33.51,-26.04,-9.314,-7.418,-6.661,-10.97,-13.55,17.73,43.4,-10.01,0.364,0,0,0,0,0,0,0,0,0,0,0,0,0,0,0,0,
230,11.88,9.129,-15.64,-31.05,19.85,-22.49,-32.74,-20.4,2.185,-16.24,-8.082,-1.83,13.84,34.42,-0.7435,12.9,0,0,0,0,0,0,0,0,0,0,0,0,0,0,0,0,
231,18.38,2.466,-25,-43.99,14.26,-13.98,-20.62,-21.79,-5.043,-17.3,-13.88,-3.265,14.43,20.31,8.707,21.41,0,0,0,0,0,0,0,0,0,0,0,0,0,0,0,0,
232,27.78,4.546,3.768,-10.41,29.42,1.807,12.88,-7.898,-9.761,-4.314,-13.33,-6.007,16.47,14.67,13.5,23.08,0,0,0,0,0,0,0,0,0,0,0,0,0,0,0,0,
233,32.41,-1.712,31.53,11.48,35.87,17.16,12.16,-2.899,-3.611,-9.314,-11.63,-4.253,0.4119,5.627,14.1,17.86,0,0,0,0,0,0,0,0,0,0,0,0,0,0,0,0,
234,26.97,-13.58,14.58,2.207,22.17,6.287,-12.19,-4.395,-13.12,-18.63,-19.8,-9.208,-14.08,-0.3151,5.697,3.712,0,0,0,0,0,0,0,0,0,0,0,0,0,0,0,0,
235,6.953,-24.76,-6.446,-6.417,6.846,-25.33,-24.08,-7.982,-48.74,-23.97,-34.57,-35.87,-22.89,-0.7514,-15.32,-15.02,0,0,0,0,0,0,0,0,0,0,0,0,0,0,0,0,
236,-10.67,-34.62,0.6189,-13.56,7.571,-26.74,-26.28,-9.698,-47.24,-28.43,-25.9,-47.35,-21.66,7.271,-31.83,-22.19,0,0,0,0,0,0,0,0,0,0,0,0,0,0,0,0,
237,3.585,-27.89,14.65,-18.11,25.4,-3.663,-24.8,-6.101,3.747,-18.72,3.617,-25.94,-0.8205,20.59,-28.55,-10.53,0,0,0,0,0,0,0,0,0,0,0,0,0,0,0,0,
238,20.31,-22.26,14.26,-15.07,36.43,-13.05,-29.5,-8.867,-2.748,-14.7,5.424,-30.6,4.242,18.78,-24.67,1.031,0,0,0,0,0,0,0,0,0,0,0,0,0,0,0,0,
239,5.004,-31.72,-7.786,-13.17,27.25,-36.52,-38.36,-13.13,-64.02,-26.13,-7.275,-60.04,-11.55,15.88,-33.57,-0.2721,0,0,0,0,0,0,0,0,0,0,0,0,0,0,0,0,
240,-8.226,-23.08,-20.25,-16.99,18.49,-28.3,-29.17,-8.287,-55.91,-28.13,7.102,-60.75,-9.286,30.6,-36.75,-4.192,0,0,0,0,0,0,0,0,0,0,0,0,0,0,0,0,
241,-0.6662,-3.928,1.375,-31.39,18.66,-12.75,-13.74,-5.651,-6.827,-28.81,16.98,-51.93,-1.993,36.18,-30.12,-7.608,0,0,0,0,0,0,0,0,0,0,0,0,0,0,0,0,
242,4.954,-3.522,15.67,-32.7,22.82,-10.95,-13.5,-4.649,-12.41,-36.04,12.47,-48.57,-3.764,28.92,-22.5,-11.87,0,0,0,0,0,0,0,0,0,0,0,0,0,0,0,0,
243,7.349,-8.067,1.865,-10.44,33.18,-7.531,-21.81,-3.907,-30.26,-39.55,32.14,-34.31,3.082,24.34,-7.53,-7.829,0,0,0,0,0,0,0,0,0,0,0,0,0,0,0,0,
244,6.858,-23.44,-6.447,-13.49,32.95,-8.317,-35.42,-14.69,-23.15,-51.49,52.52,-32.05,-0.3699,7.348,4.468,2.016,0,0,0,0,0,0,0,0,0,0,0,0,0,0,0,0,
245,0.8637,-46.21,-2.571,-26.32,15.69,-16.7,-39.46,-16.88,-20.01,-61.51,47.36,-38.22,-20.13,-12.16,-4.417,5.569,0,0,0,0,0,0,0,0,0,0,0,0,0,0,0,0,
246,5.517,-35.32,-4.446,2.981,10.15,-16.23,-21.02,-0.205,-11.33,-46.14,46.83,-29.07,-27.78,-15.15,-17.08,1.516,0,0,0,0,0,0,0,0,0,0,0,0,0,0,0,0,
247,15.01,-17.02,-8.735,24.07,21.29,-9.047,-13.59,1.99,-1.208,-29.91,47.22,-32.93,-31.7,-23.63,-20.59,-8.8,0,0,0,0,0,0,0,0,0,0,0,0,0,0,0,0,
248,11.2,-31.1,-8.483,-0.8276,24.97,-1.975,-27.64,-9.649,-4.144,-33.65,29.87,-50.49,-38.31,-35.14,-28.62,-19.57,0,0,0,0,0,0,0,0,0,0,0,0,0,0,0,0,
249,7.663,-42.64,-11.88,-28.73,13.41,5.676,-30.79,-14.18,-1.021,-39.53,20.62,-46.88,-29.89,-29.95,-37.98,-18.39,0,0,0,0,0,0,0,0,0,0,0,0,0,0,0,0,
250,9.408,-44.02,-19.89,-41.17,0.5598,0.048,-31.09,-22.05,-13.99,-37.33,26.65,-47.28,-23.43,-28.75,-40.66,-9.694,0,0,0,0,0,0,0,0,0,0,0,0,0,0,0,0,
251,-5.381,-57.66,-21.91,-37.21,12.67,-20.02,-43.33,-23.78,-35.46,-31.07,25.94,-76.02,-32.14,-37.03,-47.02,-9.049,0,0,0,0,0,0,0,0,0,0,0,0,0,0,0,0,
252,-28.06,-60.09,-11.66,-13.43,49.35,-27.6,-44.35,-10.41,-10.93,-23.7,21.31,-90.16,-32.6,-33.49,-53.06,-15.23,0,0,0,0,0,0,0,0,0,0,0,0,0,0,0,0,
253,-30.75,-47.18,1.817,-0.4948,59.05,-21.91,-42.09,-12.34,-3.059,-23.22,25.24,-73.06,-23.52,-25.42,-44.96,-15.1,0,0,0,0,0,0,0,0,0,0,0,0,0,0,0,0,
254,-28.22,-49.32,-9.223,-20.52,20.07,-30.08,-59.28,-27.06,-54.94,-32.45,31.54,-67.25,-24.35,-26.61,-31.83,-5.443,0,0,0,0,0,0,0,0,0,0,0,0,0,0,0,0,
255,-42.68,-63.17,-35.17,-39.77,-10.32,-43.89,-69.05,-27.54,-61.75,-35.17,27.01,-82.87,-32.04,-30.56,-30.32,0.2328,0,0,0,0,0,0,0,0,0,0,0,0,0,0,0,0,
256,-50.85,-65.8,-27.22,-32.37,8.733,-31.7,-55.06,-21.09,-6.991,-24.1,21.78,-81.1,-31.11,-27.72,-39.17,-7.923,0,0,0,0,0,0,0,0,0,0,0,0,0,0,0,0,
257,-33.66,-53.63,-2.462,-35.48,37.99,-2.787,-42.88,-16.14,22.18,-21.28,39.82,-50.83,-21.69,-17.92,-40.27,-16.92,0,0,0,0,0,0,0,0,0,0,0,0,0,0,0,0,
258,-11.66,-46.42,-4.718,-48,32.97,7.184,-38.69,-14.84,16.84,-31.17,59.85,-25.38,-19.13,-11.52,-23.25,-14.72,0,0,0,0,0,0,0,0,0,0,0,0,0,0,0,0,
259,-2.425,-55.25,-13.8,-15.91,14.73,1.835,-31.27,-18.91,9.42,-26.64,52.61,-17.29,-19.92,-7.8,-4.463,-6.76,0,0,0,0,0,0,0,0,0,0,0,0,0,0,0,0,
260,-0.1688,-54.12,-9.732,18.9,26.78,11.86,-19.97,-11.48,16.75,-9.694,48.8,-4.79,-6.185,4.05,2.997,5.071,0,0,0,0,0,0,0,0,0,0,0,0,0,0,0,0,
261,3.139,-33.82,4.846,9.512,54.44,25.98,-8.02,3.683,34.5,-6.03,58.45,9.255,8.685,15.22,10.21,18.03,0,0,0,0,0,0,0,0,0,0,0,0,0,0,0,0,
262,4.556,-22.77,20.07,11.85,51.41,17.2,-6.391,4.684,39.56,-9.218,48.33,9.042,8.192,17.23,19.2,19.08,0,0,0,0,0,0,0,0,0,0,0,0,0,0,0,0,
263,0.8661,-23.12,3.433,9.456,25.58,5.165,-15.08,0.4525,30.26,-3.821,32.34,7.051,7.805,18.11,16.94,8.76,0,0,0,0,0,0,0,0,0,0,0,0,0,0,0,0,
264,-5.621,-19.37,-34.23,-34.93,9.615,-0.003,-17.39,0.4998,13.17,-1.7,27.88,0.2195,11.28,16.53,2.845,-0.8873,0,0,0,0,0,0,0,0,0,0,0,0,0,0,0,0,
265,-20.65,-19.39,-43.24,-42.06,0.6271,-22.89,-20.83,-4.763,-1.606,-12.44,12.06,-25.33,5.922,10.26,-14.65,-6.9,0,0,0,0,0,0,0,0,0,0,0,0,0,0,0,0,
266,-43.83,-29.84,-28.56,-10.17,-8.349,-49.87,-36.93,-12.8,-23.06,-22.44,-13.26,-48.33,-6.691,7.434,-29.18,-7.612,0,0,0,0,0,0,0,0,0,0,0,0,0,0,0,0,
267,-55.98,-40.5,-26.72,-11.68,-20.58,-54.04,-46.26,-13.83,-77.92,-19.66,-34.5,-61.83,-18.09,11.37,-34.66,-1.703,0,0,0,0,0,0,0,0,0,0,0,0,0,0,0,0,
268,-51.87,-37.5,-39.89,-24.29,-36.86,-45.15,-39.05,-7.837,-89.19,-11.7,-45.43,-72.72,-17.44,21.49,-28.19,4.682,0,0,0,0,0,0,0,0,0,0,0,0,0,0,0,0,
269,-43.78,-26.17,-45.84,-35.5,-31.96,-33.81,-31.99,-6.269,-10.05,-13.5,-30.42,-60.43,-9.899,26.89,-14.77,6.722,0,0,0,0,0,0,0,0,0,0,0,0,0,0,0,0,
270,-39.6,-32.96,-46.58,-52.25,-14.81,-28.29,-37.06,-17.72,18.24,-26.06,-8.473,-38.36,-17.75,13.96,-8.209,1.188,0,0,0,0,0,0,0,0,0,0,0,0,0,0,0,0,
271,-41.83,-52.47,-55.74,-37.48,-24.29,-29.91,-46.71,-27,-27.24,-34.84,-7.532,-38.79,-30.08,-1.33,-16.12,-11.88,0,0,0,0,0,0,0,0,0,0,0,0,0,0,0,0,
272,-41.78,-55.76,-49.79,-10.35,-32.12,-26.09,-46.14,-20.78,-20.63,-32.92,-10.16,-40.58,-29.61,-2.222,-25.21,-20.64,0,0,0,0,0,0,0,0,0,0,0,0,0,0,0,0,
273,-33.8,-53.4,-28.85,-5.244,-13.64,-29.47,-42.56,-15.92,-6.041,-28.53,-6.316,-27.79,-34.52,-1.771,-21.38,-16.04,0,0,0,0,0,0,0,0,0,0,0,0,0,0,0,0,
274,-26.17,-56.62,-35.14,-24.07,-10.64,-36.72,-45.73,-23.51,-27.81,-25.88,-3.725,-16.03,-40.19,-3.7,-7.972,-2.542,0,0,0,0,0,0,0,0,0,0,0,0,0,0,0,0,
275,-14.95,-48.34,-48.68,-62.23,-16.23,-17.72,-39.26,-23.77,-12.36,-21.32,0.6566,-9.899,-29.63,-0.5875,5.638,12.18,0,0,0,0,0,0,0,0,0,0,0,0,0,0,0,0,
276,-1.622,-43.33,-37.3,-45.27,-3.782,-2.134,-31.85,-10.19,-12.93,-14.52,-5.263,-18.65,-28.18,-0.3057,9.871,18.16,0,0,0,0,0,0,0,0,0,0,0,0,0,0,0,0,
277,-5.439,-56.52,-43.68,13.89,-14.69,-9.952,-42.61,-3.991,-66.47,-11.64,-22.45,-37.14,-37.98,-0.9552,-0.2147,9.439,0,0,0,0,0,0,0,0,0,0,0,0,0,0,0,0,
278,-10.36,-46.58,-66.58,-14.99,-33.85,8.394,-31.33,0.1101,-50.29,-12.88,-10.74,-24.97,-20.63,13.23,-6.905,1.365,0,0,0,0,0,0,0,0,0,0,0,0,0,0,0,0,
279,17.98,4.176,-34.81,-48.88,12.18,44.69,18.32,23.14,41.02,2.116,47.55,23.46,20.98,42.39,20.44,19.16,0,0,0,0,0,0,0,0,0,0,0,0,0,0,0,0,
280,62.93,47.17,32.9,28.68,82.2,54.09,47.78,45.77,89.01,38.49,109.5,62.75,53.98,71.14,80.42,64.71,0,0,0,0,0,0,0,0,0,0,0,0,0,0,0,0,
281,83.4,51.1,48.77,75.11,92.62,56.54,40.33,48.85,73.59,56.58,121.7,63.62,60.64,80.56,126.3,105,0,0,0,0,0,0,0,0,0,0,0,0,0,0,0,0,
282,68.15,30.69,10.99,33.99,56.35,51.19,25.4,43.22,35.53,35.94,76.99,30.92,29.63,61.08,115,99.68,0,0,0,0,0,0,0,0,0,0,0,0,0,0,0,0,
283,25.73,-0.3029,-27.48,6.027,7.296,6.891,0.5701,25.6,-3.037,4.495,10.41,-17.32,-21.85,24.42,52.12,44.24,0,0,0,0,0,0,0,0,0,0,0,0,0,0,0,0,
284,-23.82,-34.51,-50.95,-16.62,-35.63,-37.64,-27.71,-2.937,-26.92,-22.53,-41.02,-54.05,-51.49,-6.166,-17.21,-22.09,0,0,0,0,0,0,0,0,0,0,0,0,0,0,0,0,
285,-47.46,-55.83,-61.24,-40.71,-44.49,-34.52,-33.91,-14.68,-35.69,-43.37,-60.61,-59.8,-52.22,-13.99,-47.73,-55.79,0,0,0,0,0,0,0,0,0,0,0,0,0,0,0,0,
286,-37.81,-55.77,-60.04,-32.45,-32.03,-7.339,-22.91,-4.614,-39.29,-43.72,-53.2,-46.68,-42,-3.751,-32.57,-47.67,0,0,0,0,0,0,0,0,0,0,0,0,0,0,0,0,
287,-26.69,-43.71,-51.08,-17.21,-26.36,2.272,-12.37,3.252,-43.79,-35.83,-32.7,-40.57,-25.97,4.849,-3.681,-21.15,0,0,0,0,0,0,0,0,0,0,0,0,0,0,0,0,
288,-30.27,-29.61,-40.57,-1.583,-16.65,-8.547,-10.38,0.211,-35.07,-44.02,-8.521,-39.57,-12.42,8.27,15.13,-1.506,0,0,0,0,0,0,0,0,0,0,0,0,0,0,0,0,
289,-28.95,-17.74,-40.95,9.392,0.6392,-12.47,-13.55,-1.643,-10.06,-46.58,7.859,-19.03,-6.015,14.95,29.15,5.991,0,0,0,0,0,0,0,0,0,0,0,0,0,0,0,0,
290,-17.87,-17.76,-46.6,-11.33,-0.0021,-5.906,-15.74,-4.195,-16.79,-25.83,7.734,14.46,0.5543,19.63,42.6,8.182,0,0,0,0,0,0,0,0,0,0,0,0,0,0,0,0,
291,-17.25,-29.27,-47.2,-36.69,-17.31,-9.517,-22.78,-15.4,-45.42,-13.63,1.389,23.12,1.278,18.71,48.18,7.55,0,0,0,0,0,0,0,0,0,0,0,0,0,0,0,0,
292,-22.52,-32.59,-44.26,-30.25,-15.81,-9.424,-23.52,-14.42,-21.64,-20.21,0.204,5.401,-7.032,16.85,44.66,3.744,0,0,0,0,0,0,0,0,0,0,0,0,0,0,0,0,
293,-18.22,-27.73,-38.82,-7.934,-10.62,-1.425,-9.51,-0.4531,8.768,-25.52,-2.228,-8.486,-8.904,13.59,35.72,-0.192,0,0,0,0,0,0,0,0,0,0,0,0,0,0,0,0,
294,-22.85,-28.44,-49,-12,-39.83,-14.92,-9.714,-4.961,-30.82,-32.28,-10.58,-12.3,-2.51,13.3,24.07,-4.035,0,0,0,0,0,0,0,0,0,0,0,0,0,0,0,0,
295,-37.89,-21.66,-61.22,-32.66,-44.26,-19.95,-17.44,-10.81,-61.68,-34.6,-13.01,-11.11,-3.63,10.11,15.84,-12.57,0,0,0,0,0,0,0,0,0,0,0,0,0,0,0,0,
296,-31.71,-8.197,-36.6,-14.75,4.319,10.49,-4.328,2.3,-25.02,-23.58,-5.062,-7.324,-16.37,-13.39,12.37,-26.35,0,0,0,0,0,0,0,0,0,0,0,0,0,0,0,0,
297,-16.55,-13.41,-20.8,6.934,6.929,19.19,1.904,4.514,-2.13,-21.61,-2.179,-10.53,-25.64,-35.51,6.967,-37.96,0,0,0,0,0,0,0,0,0,0,0,0,0,0,0,0,
298,-19.05,-24.03,-44.87,-13.14,-35.38,-2.368,-10.13,-0.9486,-22.62,-25.24,-4.249,-15.22,-20.02,-30.53,4.726,-37.06,0,0,0,0,0,0,0,0,0,0,0,0,0,0,0,0,
299,-22.4,-19.89,-52.61,-12.12,-34.48,-6.382,-14.03,4.073,-20.93,-19.35,9.055,-7.502,-7.961,-20.44,18.42,-19.91,0,0,0,0,0,0,0,0,0,0,0,0,0,0,0,0,
300,-18.25,-15.41,-47.5,4.276,-26.43,-2.953,-12.69,1.082,-2.908,-25.89,29.88,6.626,1.638,-10.68,38.88,2.717,0,0,0,0,0,0,0,0,0,0,0,0,0,0,0,0,
301,-14.8,-10.91,-57.45,-31.55,-47.23,-3.102,-8.095,-6.611,-24.41,-38.06,34.77,11.66,9.72,10.7,45.44,15.44,0,0,0,0,0,0,0,0,0,0,0,0,0,0,0,0,
302,-9.645,0.7026,-55.4,-64.99,-45.07,6.497,3.361,-5.027,-42.97,-30.43,37.17,2.533,14.94,19.32,38.41,15.56,0,0,0,0,0,0,0,0,0,0,0,0,0,0,0,0,
303,-7.288,8.748,-41.44,-35.19,-18.6,11.91,9.976,1.237,-1.782,-20.95,55.28,-2.409,16.19,12.27,33.63,10.62,0,0,0,0,0,0,0,0,0,0,0,0,0,0,0,0,
304,-5.401,16.75,-31.32,10.49,-5.77,12.41,15.99,11.83,39.2,-19.55,69.01,14.09,16.75,16.21,41.79,9.746,0,0,0,0,0,0,0,0,0,0,0,0,0,0,0,0,
305,2.536,26.59,-28.06,17.45,-15.38,19.45,16.97,9.737,29.29,-18.75,62.52,30.82,20.11,21.06,60.97,19.24,0,0,0,0,0,0,0,0,0,0,0,0,0,0,0,0,
306,4.114,21.33,-34.37,-4.454,-31.13,22.27,1.619,-11.98,11.21,-28.16,49.21,25.46,19.42,13.97,74.24,29.04,0,0,0,0,0,0,0,0,0,0,0,0,0,0,0,0,
307,-2.263,7.067,-33.31,-12.94,-28.54,19.66,-4.417,-20.87,11.72,-40.34,38.32,11.64,4.824,10.6,66.74,21.08,0,0,0,0,0,0,0,0,0,0,0,0,0,0,0,0,
308,-5.315,8.385,-32.17,-19.37,-26.11,17.21,5.598,-12.28,9.47,-36.58,31.53,4.995,-6.553,17.14,49.25,3.87,0,0,0,0,0,0,0,0,0,0,0,0,0,0,0,0,
309,-9.801,21.48,-47.73,-46.88,-45.49,8.422,-0.5247,-11.62,-17.02,-25.11,29.47,-0.315,-2.351,25.27,41.23,1.764,0,0,0,0,0,0,0,0,0,0,0,0,0,0,0,0,
310,-24.19,19.02,-53.09,-45.87,-52.57,-7.026,-19.95,-20.88,-43.98,-23.78,22.84,-14.26,-5.007,26.67,38.82,12.26,0,0,0,0,0,0,0,0,0,0,0,0,0,0,0,0,
311,-41.27,0.4006,-41.51,-16.38,-41.32,-20.48,-23.95,-26.4,-17.24,-27.81,13.52,-28.89,-13.74,20.86,27.86,15.16,0,0,0,0,0,0,0,0,0,0,0,0,0,0,0,0,
312,-44.96,-6.965,-36.62,-19.5,-39.74,-23.46,-17.67,-21.52,16.73,-14.2,13.8,-26.23,-10.68,15.71,13.49,5.406,0,0,0,0,0,0,0,0,0,0,0,0,0,0,0,0,
313,-33.9,-1.778,-39.71,-29.36,-33.09,-11.59,-17.66,-15.39,-18.63,10.64,18.96,-5.439,-6.051,15.21,12.27,-6.206,0,0,0,0,0,0,0,0,0,0,0,0,0,0,0,0,
314,-17.47,3.703,-37.48,-16.69,-15.66,10.68,-10.2,-10.65,-34.62,18.34,28.5,20.01,-0.3562,18.45,28.36,-5.172,0,0,0,0,0,0,0,0,0,0,0,0,0,0,0,0,
315,3.016,18.93,-19.14,-9.11,-5.764,30.84,11.54,4.424,31.4,20.37,48.89,36.54,10.3,17.53,49.23,10.77,0,0,0,0,0,0,0,0,0,0,0,0,0,0,0,0,
316,16.87,36.26,5.188,8.388,11.73,40.54,23.95,15.75,65.4,28.11,62.44,36.98,14.58,10.46,59.69,25.49,0,0,0,0,0,0,0,0,0,0,0,0,0,0,0,0,
317,15.26,38.17,13.44,33.37,26.58,41.96,24.36,9.838,39.54,19.58,57.01,26.78,21.25,14.34,57.69,28.17,0,0,0,0,0,0,0,0,0,0,0,0,0,0,0,0,
318,12.46,35.75,2.888,25.02,2.24,35.52,25.34,4.11,32,7.587,50.18,17.64,31.67,25.02,51.44,24.33,0,0,0,0,0,0,0,0,0,0,0,0,0,0,0,0,
319,12.96,35.83,-10.38,2.998,-16.93,28.26,24.88,2.728,36.99,15.63,55.52,25.82,33.99,21.79,48.28,21.08,0,0,0,0,0,0,0,0,0,0,0,0,0,0,0,0,
320,16.83,40.61,-0.5284,-4.346,13.21,34.75,36.6,8.235,51.17,26.5,72.96,53.25,43.75,19.32,56.48,23.65,0,0,0,0,0,0,0,0,0,0,0,0,0,0,0,0,
321,34.99,59.03,28.48,2.731,34.89,51.12,62.86,27.12,84.68,36.49,95.07,67.9,61.95,31.45,76.95,33.04,0,0,0,0,0,0,0,0,0,0,0,0,0,0,0,0,
322,55.06,73.03,38.24,25.64,23.47,70.51,73.09,30.92,78.68,45.68,102.9,57.68,71.38,40.33,91.56,41.43,0,0,0,0,0,0,0,0,0,0,0,0,0,0,0,0,
323,60.48,70.37,26.39,40.85,28.74,84.58,65.95,13.25,43.58,31.17,88.66,53.14,78.07,42.68,85.86,44.57,0,0,0,0,0,0,0,0,0,0,0,0,0,0,0,0,
324,59.27,68.74,20.36,39.91,42.01,72.89,58.1,8.64,53.69,12.72,70.39,59.59,78.03,50.59,70.41,46.01,0,0,0,0,0,0,0,0,0,0,0,0,0,0,0,0,
325,52.79,66.6,21.33,38.74,23.45,49.16,43.55,11.63,74.35,20.39,58.12,50.34,63.97,60.12,59.45,45.79,0,0,0,0,0,0,0,0,0,0,0,0,0,0,0,0,
326,33.16,53.55,8.569,23.55,-8.75,36.19,22.62,-2.575,37.97,21.84,36.74,22.34,49.07,58.08,50.41,41.06,0,0,0,0,0,0,0,0,0,0,0,0,0,0,0,0,
327,7.622,35.66,-19.4,-3.353,-28.51,18.27,7.236,-22.54,-18.7,0.0057,7.23,2.565,30.69,42.75,38.88,32.84,0,0,0,0,0,0,0,0,0,0,0,0,0,0,0,0,
328,-5.765,17.83,-27.37,-20.5,-38.93,-2.151,4.996,-31.52,-22.75,-11.29,-3.423,7.388,8.741,27.91,30.55,23.97,0,0,0,0,0,0,0,0,0,0,0,0,0,0,0,0,
329,-2.512,5.532,-14.02,-27.62,-41.77,-8.67,4.604,-31.38,17.92,-8.999,2.135,15.57,-1.651,19.62,24.56,14.05,0,0,0,0,0,0,0,0,0,0,0,0,0,0,0,0,
330,-1.251,-2.893,-21.92,-27.25,-37.84,-9.524,-10.83,-32.29,35.81,-9.878,-1.426,9.689,-4.323,13.84,13.81,3.023,0,0,0,0,0,0,0,0,0,0,0,0,0,0,0,0,
331,-5.614,-7.543,-28.83,-28.51,-31.11,1,-10.77,-30.25,25.23,-1.391,-2.922,10.52,1.527,17.25,8.063,-2.336,0,0,0,0,0,0,0,0,0,0,0,0,0,0,0,0,
332,3.475,6.159,1.846,-19.59,-17.67,19.73,19.93,-12.53,25.01,14.11,9.709,21.44,14.4,24.26,16.08,-1.248,0,0,0,0,0,0,0,0,0,0,0,0,0,0,0,0,
333,17.45,20,19.03,12.85,-8.186,19.36,25.54,0.6317,21.68,12.67,12.87,18.7,10.87,20.26,22.51,-4.855,0,0,0,0,0,0,0,0,0,0,0,0,0,0,0,0,
334,19.77,15.56,-2.168,23.34,-21.28,12.45,8.182,-9.488,14.27,6.209,5.69,10.66,3.583,21.22,19.55,-12.2,0,0,0,0,0,0,0,0,0,0,0,0,0,0,0,0,
335,24.32,25.23,-7.749,8.943,-34.08,20.06,20.98,-15.47,30.65,19.94,8.856,12.6,12.31,31.67,17.69,-14.27,0,0,0,0,0,0,0,0,0,0,0,0,0,0,0,0,
336,30.63,39.87,8.928,11.21,-25.97,23.09,34.44,-7.326,38.38,39.44,16.85,10.27,8.827,24.31,17.21,-18.82,0,0,0,0,0,0,0,0,0,0,0,0,0,0,0,0,
337,21.68,19.76,8.435,4.264,-27.6,10.17,16.71,-9.129,20.02,41,21.29,0.8409,-9.188,8.333,14.14,-29.95,0,0,0,0,0,0,0,0,0,0,0,0,0,0,0,0,
338,6.552,-3.213,-8.95,-18.55,-43.8,-6.698,0.1256,-20.91,10.26,31.12,17.15,-4.112,-14.59,12.49,10.54,-34.28,0,0,0,0,0,0,0,0,0,0,0,0,0,0,0,0,
339,-2.528,0.2017,-27.74,-24.28,-43.28,-12.61,-1.797,-26.14,-7.781,30.57,-1.577,-5.142,-14.83,28.29,5.466,-27.8,0,0,0,0,0,0,0,0,0,0,0,0,0,0,0,0,
340,-5.956,9.548,-31.89,-20.42,-36.43,-7.659,5.715,-18.87,-41.22,44.1,-18.68,-5.175,-15.63,41.18,1.449,-17.59,0,0,0,0,0,0,0,0,0,0,0,0,0,0,0,0,
341,-8.274,13.86,-16.86,-15.65,-52.7,-19.45,7.062,-11.85,-32.03,51.23,-31.97,-8.644,-9.576,47.98,1.192,-7.833,0,0,0,0,0,0,0,0,0,0,0,0,0,0,0,0,
342,-20.17,3.053,-30.29,-25.05,-88.36,-44.56,-19.49,-27.03,12.09,40.68,-51.82,-12.65,-4.49,45.35,1.246,-2.263,0,0,0,0,0,0,0,0,0,0,0,0,0,0,0,0,
343,-31.86,-12.09,-64.52,-44.36,-105.6,-44.87,-37.5,-45.21,23.83,35.22,-53.47,-5.749,-2.159,39.84,4.779,-1.111,0,0,0,0,0,0,0,0,0,0,0,0,0,0,0,0,
344,-28.41,-2.076,-41.68,-30.7,-74.56,-38.13,-20.75,-33.74,2.251,42.75,-36.51,-2.268,-1.556,35.22,12.05,-1.465,0,0,0,0,0,0,0,0,0,0,0,0,0,0,0,0,
345,-26.69,6.82,-6.668,-20.64,-35.48,-52.13,-18,-19.77,-15.55,39.58,-31.2,-12.86,-2.221,31.63,14.61,0.3933,0,0,0,0,0,0,0,0,0,0,0,0,0,0,0,0,
346,-29.61,-7.949,-33.02,-45.36,-35.29,-57.22,-35.67,-28.16,-19.06,30.37,-23.75,-11.81,7.62,34.92,15.5,9.392,0,0,0,0,0,0,0,0,0,0,0,0,0,0,0,0,
347,-19.54,-11.08,-46.58,-40.17,-44.17,-47.47,-30.77,-28.51,-7.63,37.76,-9.916,5.043,21.8,36.72,18.61,16.8,0,0,0,0,0,0,0,0,0,0,0,0,0,0,0,0,
348,-6.563,3.252,-11.53,-13.11,-43.73,-41.97,-14.91,-13.84,1.188,47.36,-16.05,13.28,25.75,33.24,18.13,9.445,0,0,0,0,0,0,0,0,0,0,0,0,0,0,0,0,
349,-3.474,10.7,-0.3328,-12.27,-56.98,-30.71,-13.59,-11.66,-22.96,43.08,-26.37,8.013,25.49,38.92,16.27,-3.815,0,0,0,0,0,0,0,0,0,0,0,0,0,0,0,0,
350,-6.457,11.96,-20.23,-18.61,-68.51,-21.56,-15,-18.61,-48.57,35.73,-19.46,0.7827,21.6,45.61,15.05,-12.84,0,0,0,0,0,0,0,0,0,0,0,0,0,0,0,0,
351,-12.8,10.35,-24.27,-32.67,-62.5,-28.25,-12.99,-17.73,-20.93,27.19,-7.346,4.252,12.37,39.79,10.73,-21.75,0,0,0,0,0,0,0,0,0,0,0,0,0,0,0,0,
352,-14.76,8.08,-11.14,-42.95,-56.92,-29.93,-12.46,-14.72,13.5,20.73,-3.423,10.44,7.335,34.37,7.217,-28.63,0,0,0,0,0,0,0,0,0,0,0,0,0,0,0,0,
353,-10.1,15.83,-15.15,-21.5,-53.78,-16.47,-4.768,-15.4,2.248,27.91,-13.5,-0.2392,1.584,31.4,1.986,-33.66,0,0,0,0,0,0,0,0,0,0,0,0,0,0,0,0,
354,-4.822,27.96,-32.86,-7.7,-50.89,3.681,14.79,-13.19,6.686,33.51,-16.96,-9.182,-7.58,23.67,-10.75,-41.05,0,0,0,0,0,0,0,0,0,0,0,0,0,0,0,0,
355,3.812,32.27,-12.47,-4.878,-47.78,20.99,28.41,-7.017,42.57,29.45,7.365,1.783,-3.308,24.1,-16.87,-38.02,0,0,0,0,0,0,0,0,0,0,0,0,0,0,0,0,
356,12.34,38.21,36.76,18.92,-31.48,21.17,24.7,-5.674,41.48,34.29,27.32,7.648,13.14,35.64,-7.089,-19.48,0,0,0,0,0,0,0,0,0,0,0,0,0,0,0,0,
357,10.44,49.04,47.54,25.31,-17.1,7.788,16.79,-12.53,22.66,35.77,17.03,1.871,24.77,42.85,5.109,-3.322,0,0,0,0,0,0,0,0,0,0,0,0,0,0,0,0,
358,4.966,45.28,21.73,9.973,-23.07,-1.557,13,-16.31,22.41,18.33,1.434,5.194,34.58,46.88,13.96,8.151,0,0,0,0,0,0,0,0,0,0,0,0,0,0,0,0,
359,9.028,37.38,2.362,6.246,-26.3,-0.7123,14.9,-8.442,11.02,9.966,-0.7603,16.9,49.61,56.8,27.16,27.86,0,0,0,0,0,0,0,0,0,0,0,0,0,0,0,0,
360,19.28,54,-9.569,-12.84,-17.87,5.99,27.77,-0.1857,13.86,19.65,9.108,29.53,56.19,61.84,43.29,49.43,0,0,0,0,0,0,0,0,0,0,0,0,0,0,0,0,
361,24.76,69.69,-13.97,-28.68,-10.43,9.722,36.24,-0.9078,41.5,21.34,26.4,42.48,43.82,49.97,52.19,55.05,0,0,0,0,0,0,0,0,0,0,0,0,0,0,0,0,
362,21.12,56.11,3.443,5.787,-7.146,8.047,26.12,-2.024,28.01,12.83,31.45,45.92,31.09,35.33,47.62,40,0,0,0,0,0,0,0,0,0,0,0,0,0,0,0,0,
363,10.09,48.04,17.5,31.51,-22.95,6.812,18.72,1.668,13.86,12.7,13.51,38.28,36.11,33.24,30.83,15.42,0,0,0,0,0,0,0,0,0,0,0,0,0,0,0,0,
364,2.794,63.56,7.688,13.34,-44.19,6.805,22.56,3.701,60.9,21.36,-4.733,32.74,39.4,28.87,8.647,-6.05,0,0,0,0,0,0,0,0,0,0,0,0,0,0,0,0,
365,2.179,66.81,7.155,5.178,-33.31,0.361,18.17,-2.307,73.18,18.75,-7.31,28.49,25.9,15.49,-8.824,-21.51,0,0,0,0,0,0,0,0,0,0,0,0,0,0,0,0,
366,-7.146,52.93,16.62,1.462,-14.63,-8.897,13.34,-13.22,26.26,3.958,-4.316,24.81,22.37,19.47,-12.14,-27.21,0,0,0,0,0,0,0,0,0,0,0,0,0,0,0,0,
367,-14.21,51.57,9.782,-13.98,-12.39,2.178,24.32,-13.31,26.15,3.258,-0.6917,34.98,32.06,39.94,-2.429,-18.08,0,0,0,0,0,0,0,0,0,0,0,0,0,0,0,0,
368,-1.71,53.63,5.192,0.4434,-9.565,19.73,30.94,-3.232,47.55,10.58,2.376,46.16,24.64,43.85,7.306,-5.556,0,0,0,0,0,0,0,0,0,0,0,0,0,0,0,0,
369,3.51,38.88,-1.727,20.96,-24.08,1.815,18.29,-6.387,33.36,0.3777,5.315,39.12,14.1,36.46,9.817,-3.014,0,0,0,0,0,0,0,0,0,0,0,0,0,0,0,0,
370,-4.475,26.57,-19.18,-2.576,-50.01,-23.51,5.766,-16.21,35.36,-3.261,20.34,29.05,23.51,42.36,10.36,-3.158,0,0,0,0,0,0,0,0,0,0,0,0,0,0,0,0,
371,-0.6341,30.54,-8.413,-27.41,-45.39,-15.28,11.07,-11.22,41.74,20.54,35.19,23.24,33.18,54.04,12.19,6.324,0,0,0,0,0,0,0,0,0,0,0,0,0,0,0,0,
372,3.586,41.33,9.375,-9.704,-38.44,-2.886,26.74,-8.35,24.14,33.46,26.34,19.92,44.65,62.47,14.65,26.34,0,0,0,0,0,0,0,0,0,0,0,0,0,0,0,0,
373,2.703,57.38,-3.784,10.75,-52.55,1.16,32.7,-12.6,24.3,18.28,13.7,30.03,73.21,72.03,19.6,48.17,0,0,0,0,0,0,0,0,0,0,0,0,0,0,0,0,
374,10.99,70.38,-12.45,-13.79,-53.91,9.12,26.89,-3.357,13.29,8.387,14.9,34.23,92.39,78.02,23.06,58.96,0,0,0,0,0,0,0,0,0,0,0,0,0,0,0,0,
375,11.51,67.4,-7.767,-44.7,-49.06,2.921,22.94,-0.005,-14.73,9.588,13.7,15.65,87.94,76.02,19.35,56.76,0,0,0,0,0,0,0,0,0,0,0,0,0,0,0,0,
376,-0.7876,55.7,-7.697,-15.42,-46.67,-9.472,20.99,-11.98,15.53,4.255,10.65,8.053,81.55,67.67,16.69,49.43,0,0,0,0,0,0,0,0,0,0,0,0,0,0,0,0,
377,-1.707,47.01,-4.188,25.93,-28.51,-4.686,21.82,-3.789,47.48,4.069,8.093,17.4,73.64,51.83,17.38,29.98,0,0,0,0,0,0,0,0,0,0,0,0,0,0,0,0,
378,4.434,45.58,-6.548,12.72,-27.22,-0.8219,27.88,14.96,12.94,14.86,-11.82,6.968,51.2,34.05,1.228,-12.38,0,0,0,0,0,0,0,0,0,0,0,0,0,0,0,0,
379,-3.197,47.15,-11.17,-3.877,-53.2,-10.17,29.18,16.77,-1.414,24.11,-35.82,-13.12,31.26,27.21,-36.02,-57.13,0,0,0,0,0,0,0,0,0,0,0,0,0,0,0,0,
380,-18.37,44.55,1.302,-0.0947,-52.35,-17.75,31.83,19.75,8.399,32.39,-35.45,-14.6,30.08,27.9,-67.4,-74.25,0,0,0,0,0,0,0,0,0,0,0,0,0,0,0,0,
381,-27.51,39.47,6.734,-11.69,-40.14,-17.38,34.23,18.81,-26.85,25.27,-30.13,-18.48,26.61,20.11,-79.43,-70.71,0,0,0,0,0,0,0,0,0,0,0,0,0,0,0,0,
382,-33.53,29.25,-4.011,-9.154,-60.67,-10.3,17.83,4.061,-34.41,-2.082,-42.7,-32.98,11.54,7.003,-82.24,-72.95,0,0,0,0,0,0,0,0,0,0,0,0,0,0,0,0,
383,-34.73,14.66,2.094,16.71,-65.49,-3.658,7.295,5.215,15.01,-9.391,-53.9,-36.17,1.476,-4.028,-83.42,-87.99,0,0,0,0,0,0,0,0,0,0,0,0,0,0,0,0,
384,-31.54,7.091,15.86,23.56,-36.64,-11.97,14.76,10.5,17.89,1.818,-58.86,-42.88,-13.06,-21.1,-89.47,-109.2,0,0,0,0,0,0,0,0,0,0,0,0,0,0,0,0,
385,-39.83,0.4044,13.34,24.71,-36.65,-26.45,6.214,-1.255,-13.13,-1.537,-70.96,-60.39,-31.91,-34.52,-99.96,-128.2,0,0,0,0,0,0,0,0,0,0,0,0,0,0,0,0,
386,-51.9,-9.595,18.92,31.02,-56.57,-26.08,-4.901,1.579,-7.631,1.416,-80.29,-61.23,-27.8,-29.85,-101.2,-135.5,0,0,0,0,0,0,0,0,0,0,0,0,0,0,0,0,
387,-50.37,-6.364,29.98,19.37,-46.04,-15.36,7.62,16.88,-15.92,18.67,-81.93,-49.83,-13.53,-19.6,-92.9,-130.1,0,0,0,0,0,0,0,0,0,0,0,0,0,0,0,0,
388,-40.64,13.49,20.95,15.07,-26.3,1.407,22.39,19.64,-51.16,24.08,-78.44,-33.68,-4.42,-9.216,-82.05,-114.1,0,0,0,0,0,0,0,0,0,0,0,0,0,0,0,0,
389,-21.88,35.79,18.15,27.63,-27.95,20.3,28.74,21.16,-41.19,24.33,-64.88,-8.897,15.27,0.3618,-62.05,-88.06,0,0,0,0,0,0,0,0,0,0,0,0,0,0,0,0,
390,-2.103,45.84,22.61,16.27,-32.98,18.74,30.79,17.88,3.586,24.1,-50.73,0.0095,32.35,-2.248,-38.18,-63.48,0,0,0,0,0,0,0,0,0,0,0,0,0,0,0,0,
391,4.169,42.71,13.53,5.628,-21.14,9.37,26.49,5.726,26.04,14.34,-34.21,0.7249,34.88,-5.276,-25.41,-49.92,0,0,0,0,0,0,0,0,0,0,0,0,0,0,0,0,
392,13.91,39.63,18.94,21.12,-12.87,17.25,19.92,3.18,25.89,10.68,-5.465,23.54,45.5,5.924,-14.78,-37.38,0,0,0,0,0,0,0,0,0,0,0,0,0,0,0,0,
393,27.87,42.16,22.85,-0.7797,-24.46,23.62,22.04,6.483,23.29,21.26,11.07,47.59,69.19,23.04,7.577,-17.35,0,0,0,0,0,0,0,0,0,0,0,0,0,0,0,0,
394,28.74,52.92,0.2697,-39.58,-24.64,20.63,39.85,7.731,16.39,26.13,2.617,52.23,87.26,37.8,31.17,3.915,0,0,0,0,0,0,0,0,0,0,0,0,0,0,0,0,
395,25.34,65.78,-2.336,-8.236,-17.71,14.78,46.79,10.74,-0.0132,18.25,-5.019,47.48,85.45,40.59,38.53,17.64,0,0,0,0,0,0,0,0,0,0,0,0,0,0,0,0,
396,23.74,63.5,6.86,34.04,-36.49,11.75,30.55,18.41,-4.582,25.58,0.3702,44.4,72.55,29.61,30.34,18.54,0,0,0,0,0,0,0,0,0,0,0,0,0,0,0,0,
397,28.81,54.95,-4.704,20.85,-43.16,29.42,30.13,30.77,2.349,49.68,1.879,45.99,65.47,18.31,19.93,7.08,0,0,0,0,0,0,0,0,0,0,0,0,0,0,0,0,
398,35.87,43.79,-1.624,7.229,-20.21,29.9,35.73,26.15,-10.98,39.68,-13.39,33.81,51.99,8.588,9.548,-9.552,0,0,0,0,0,0,0,0,0,0,0,0,0,0,0,0,
399,12.04,13.2,8.62,-1.227,-15.18,-18.9,13.37,3.624,-16.81,1.092,-31.02,8.009,30.99,-0.5338,-5.062,-22.38,0,0,0,0,0,0,0,0,0,0,0,0,0,0,0,0,
400,-26.37,-8.478,-4.359,-18.53,-30.28,-44.97,-3.514,-1.481,7.399,-5.428,-36.23,0.0268,31.68,-3.046,-13.26,-23.71,0,0,0,0,0,0,0,0,0,0,0,0,0,0,0,0,
401,-28.75,5.878,-7.16,2.456,-42.42,-20.51,1.675,6.26,14.86,10.8,-32.97,4.592,43.22,-3.786,-6.64,-14.35,0,0,0,0,0,0,0,0,0,0,0,0,0,0,0,0,
402,-14.24,16.71,6.82,28.76,-43.63,-8.804,5.077,5.586,3.444,7.756,-26.75,-4.71,29.42,-12.46,0.077,-9.388,0,0,0,0,0,0,0,0,0,0,0,0,0,0,0,0,
403,-21.51,-1.345,0.3319,3.945,-25.88,-16.63,6.147,3.806,-2.259,-9.098,-28.77,-17.94,5.919,-25.78,-6.17,-18.94,0,0,0,0,0,0,0,0,0,0,0,0,0,0,0,0,
404,-28.25,-15.57,-12.73,-16.26,-9.204,-9.613,5.599,-0.3869,-2.023,-15.94,-30.56,-10.12,12.16,-26.42,-16.08,-27.41,0,0,0,0,0,0,0,0,0,0,0,0,0,0,0,0,
405,-15.5,-8.94,0.6173,-4.677,-12.59,1.429,1.379,-4.97,14.11,-6.414,-9.085,13.09,34.52,-15.67,-17.13,-17.69,0,0,0,0,0,0,0,0,0,0,0,0,0,0,0,0,
406,-14.17,-6.413,12.57,1.739,-22.17,-4.133,-0.7303,0.8821,23.95,-1.598,7.098,24.55,35.86,-14.35,-10.97,-1.177,0,0,0,0,0,0,0,0,0,0,0,0,0,0,0,0,
407,-23.26,-6.643,6.405,19.23,-18.77,-4.634,4.452,13.39,26.39,-2.193,-1.585,26.73,31.72,-13.14,-4.629,6.005,0,0,0,0,0,0,0,0,0,0,0,0,0,0,0,0,
408,-6.867,14.72,15.51,30.01,1.65,12.88,20.77,30.25,41.63,13.44,-0.2028,31.2,41.44,-4.374,-0.9329,6.666,0,0,0,0,0,0,0,0,0,0,0,0,0,0,0,0,
409,6.342,28.85,20.91,-4.515,6.803,8.842,29.21,38.02,9.115,16.56,9.534,25.37,39.68,-10.85,-0.9984,4.894,0,0,0,0,0,0,0,0,0,0,0,0,0,0,0,0,
410,-13.64,10.92,2.666,-3.739,-19.24,-13.31,16.7,23.9,-39.36,-2.632,6.937,17.33,25.1,-24.81,-6.612,0.1682,0,0,0,0,0,0,0,0,0,0,0,0,0,0,0,0,
411,-23.45,-2.536,8.294,43.09,-25.96,-4.014,3.954,12.12,9.469,-0.2399,5.608,21.15,19.5,-30.99,-16.55,-4.592,0,0,0,0,0,0,0,0,0,0,0,0,0,0,0,0,
412,-11.52,-0.3596,25.21,21.66,5.334,16.83,4.265,14.13,70.57,7.883,14.18,25.3,22.53,-40.37,-21.41,-6.943,0,0,0,0,0,0,0,0,0,0,0,0,0,0,0,0,
413,-1.948,3.387,15.66,-18.88,23.02,21.22,20.99,13.96,50.71,-0.8611,30.16,27.84,33.74,-42.45,-14.43,-4.554,0,0,0,0,0,0,0,0,0,0,0,0,0,0,0,0,
414,15,16.68,19.69,19.08,11.8,32.94,43.99,18.62,36.97,7.331,37.22,27.33,43.15,-33.35,-6.906,0.7485,0,0,0,0,0,0,0,0,0,0,0,0,0,0,0,0,
415,33.35,29.4,42.71,54.55,11.09,45.83,48.38,33.09,51.05,24.29,19.82,23.71,41.24,-31.37,-8.658,2.859,0,0,0,0,0,0,0,0,0,0,0,0,0,0,0,0,
416,36.34,31.94,42.53,36.4,24.3,45.94,41.45,35.04,45.69,23.89,1.214,30.6,46.86,-27.96,-10.71,6.908,0,0,0,0,0,0,0,0,0,0,0,0,0,0,0,0,
417,35.17,31.66,27.11,21.21,21.34,52.9,31.75,21.24,40.6,20.64,-1.61,34.95,53.51,-21.84,-10.06,16.75,0,0,0,0,0,0,0,0,0,0,0,0,0,0,0,0,
418,33.79,20.81,18.98,25.82,12.13,62.72,10.52,14.78,37.59,19.27,1.93,27.76,43.67,-27.26,-12.43,19.4,0,0,0,0,0,0,0,0,0,0,0,0,0,0,0,0,
419,29.31,10.91,15.86,26.52,14.01,52.27,2.492,18.83,32.4,17.88,8.218,30.01,42.08,-29.49,-10.86,11.61,0,0,0,0,0,0,0,0,0,0,0,0,0,0,0,0,
420,27.38,23.28,22.12,16.88,19.94,34.19,19.2,22.12,46.59,22.81,12.02,37.96,50.48,-21.01,-1.901,6.413,0,0,0,0,0,0,0,0,0,0,0,0,0,0,0,0,
421,32.94,40.94,44.43,28.32,35.43,35.92,32.83,31.11,42.96,34.51,10.46,40.62,38.88,-18.49,1.013,4.414,0,0,0,0,0,0,0,0,0,0,0,0,0,0,0,0,
422,44.97,45,49.63,46.38,39.45,46.13,36.5,41.18,-1.511,52.01,-3.59,42.44,19.23,-26,-13.03,-6.338,0,0,0,0,0,0,0,0,0,0,0,0,0,0,0,0,
423,49.32,37.46,22.17,13.6,17.04,50.23,35.17,36.04,-8.976,61.91,-26.88,44.22,23.07,-29.61,-34.16,-21.42,0,0,0,0,0,0,0,0,0,0,0,0,0,0,0,0,
424,52.78,34.75,29.33,2.191,34.01,71.53,38.46,37.66,51.61,64.33,-6.013,68.58,54.32,-9.476,-25.21,-12.16,0,0,0,0,0,0,0,0,0,0,0,0,0,0,0,0,
425,82.16,59.16,79.56,69.71,90.76,99.63,60.78,59.76,100.9,79.91,62.05,118.2,90.12,25.16,34.23,34.87,0,0,0,0,0,0,0,0,0,0,0,0,0,0,0,0,
426,109.8,91.62,86.57,93.82,95.18,92.37,76.74,66.99,103.8,93.2,85.87,131.1,95.19,35.62,92.81,84.4,0,0,0,0,0,0,0,0,0,0,0,0,0,0,0,0,
427,89.46,90.39,50.61,43.67,56.69,66.2,63.94,52.25,78.3,81.3,44.52,87.91,60.26,14.47,88.07,90.28,0,0,0,0,0,0,0,0,0,0,0,0,0,0,0,0,
428,43.95,55.43,21.77,18.08,27.39,44.15,38.19,35.82,19.18,53.83,-0.0666,47.16,16.9,-16.26,34.03,48.16,0,0,0,0,0,0,0,0,0,0,0,0,0,0,0,0,
429,10.33,12.34,-4.962,11.09,-8.019,9.493,4.148,9.555,-25.96,22.43,-35.37,30.26,1.864,-38.22,-18.04,-5.008,0,0,0,0,0,0,0,0,0,0,0,0,0,0,0,0,
430,-13.01,-10.48,-20.29,-7.917,-31.59,-15.35,-15.03,-7.752,-10.13,5.233,-64.8,14.54,17.96,-40.2,-45.24,-27.61,0,0,0,0,0,0,0,0,0,0,0,0,0,0,0,0,
431,-22.25,3.166,-10.79,-4.111,-23.11,1.367,9.47,14.73,11.13,10.76,-62.03,12.26,28.93,-40.13,-48.36,-16.16,0,0,0,0,0,0,0,0,0,0,0,0,0,0,0,0,
432,-11.13,21.55,10.4,21.72,-14.77,23.23,29.58,31.81,19.3,15.99,-38.77,35.85,12.31,-57.96,-38.57,-3.613,0,0,0,0,0,0,0,0,0,0,0,0,0,0,0,0,
433,-3.046,14.31,30.59,27.87,1.52,18.55,16.18,13.49,37.28,14.54,-36.06,50.59,-10.72,-70.14,-32.24,-9.952,0,0,0,0,0,0,0,0,0,0,0,0,0,0,0,0,
434,-11.63,8.078,21.53,3.637,24.06,17.25,18.6,11.28,30.62,15.5,-44.63,46.48,-13.2,-55.79,-33.46,-21.01,0,0,0,0,0,0,0,0,0,0,0,0,0,0,0,0,
435,-11.67,27.63,-3.802,-12.7,12.22,38.67,36.1,28.52,24.02,17.8,-27.79,59.78,11.4,-29.84,-30.5,-12.88,0,0,0,0,0,0,0,0,0,0,0,0,0,0,0,0,
436,6.656,51.05,7.101,2.199,5.743,50.39,29.78,22.33,42.17,25.06,-9.524,70.85,28.17,-20.23,-23.77,8.659,0,0,0,0,0,0,0,0,0,0,0,0,0,0,0,0,
437,2.231,41.44,23.99,23.28,32.41,25.54,9.874,14.31,9.053,28.73,-32.73,30.6,-2.812,-40.5,-37.26,4.69,0,0,0,0,0,0,0,0,0,0,0,0,0,0,0,0,
438,-40.17,-0.8624,5.482,28.34,24.55,-5.761,-6.015,24.35,-36.95,19.11,-58.2,-13,-38.05,-60.38,-72.39,-31.28,0,0,0,0,0,0,0,0,0,0,0,0,0,0,0,0,
439,-62.52,-22.7,-1.631,8.447,-12.07,-3.512,-6.014,23.9,1.914,15.67,-41.92,0.3879,-32.5,-55.48,-93.15,-57.78,0,0,0,0,0,0,0,0,0,0,0,0,0,0,0,0,
440,-37.18,0.3115,22.07,-6.302,-9.422,16.33,18.62,22.86,39.96,26.9,-20.89,31.76,-26.96,-53.59,-84.5,-59.3,0,0,0,0,0,0,0,0,0,0,0,0,0,0,0,0,
441,-8.327,29.51,33.47,28.39,14.26,30.57,45.93,45.04,7.784,34.03,-17.01,48.51,-29.65,-59.6,-64.86,-52.32,0,0,0,0,0,0,0,0,0,0,0,0,0,0,0,0,
442,-0.3686,43.9,16.39,49.45,10.02,45.77,54.46,56.32,-18.34,25.76,-15.27,55.98,-19.39,-52.64,-50.41,-42.66,0,0,0,0,0,0,0,0,0,0,0,0,0,0,0,0,
443,-10.13,39.56,-1.693,12.21,-16.18,41.94,42.74,35.2,-19.32,10.85,-22.43,38.61,-24.98,-44.33,-50.88,-36.02,0,0,0,0,0,0,0,0,0,0,0,0,0,0,0,0,
444,-27.62,15.85,17.46,5.76,-17.01,15.9,30.69,24.99,-17.08,6.372,-19.77,20.69,-29.98,-36.21,-58.07,-33.87,0,0,0,0,0,0,0,0,0,0,0,0,0,0,0,0,
445,-21.39,13.21,47.47,30.67,15.57,21.67,42.96,43.66,1.211,9.783,9.185,33.69,-5.866,-27.3,-48.88,-25.52,0,0,0,0,0,0,0,0,0,0,0,0,0,0,0,0,
446,-0.3824,33.4,22.65,18.33,17.93,49.7,52.69,50.58,0.499,8.021,23.39,41.49,0.3775,-37.21,-30.37,-16.83,0,0,0,0,0,0,0,0,0,0,0,0,0,0,0,0,
447,-1.175,28.83,-8.382,16.34,-8.175,42.52,37.03,39.69,-36.28,6.566,17.94,35.82,-9.834,-43.05,-25.31,-13.53,0,0,0,0,0,0,0,0,0,0,0,0,0,0,0,0,
448,-8.631,17.08,20.84,32,-0.9821,23.15,27.03,38.23,-45.75,2.576,19.34,38.75,2.379,-30.02,-28.83,-2.467,0,0,0,0,0,0,0,0,0,0,0,0,0,0,0,0,
449,-9.293,20.68,42.53,17.66,18.49,23.97,23.72,35.13,-4.676,-9.809,16.15,36.59,9.239,-33.83,-30.44,11.89,0,0,0,0,0,0,0,0,0,0,0,0,0,0,0,0,
450,-9.596,15.04,27.23,26.23,32.37,30.04,17.81,25.64,32.31,-9.359,19.64,38.59,6.931,-43.13,-32.37,12.66,0,0,0,0,0,0,0,0,0,0,0,0,0,0,0,0,
451,1.65,14.33,27.5,61.57,53.82,44.4,29.18,30.86,27.84,3.717,41.57,48.66,14.75,-36.01,-35.42,3.07,0,0,0,0,0,0,0,0,0,0,0,0,0,0,0,0,
452,6.487,25.37,28.38,51.95,37.15,51.57,36.36,36.72,20.82,5.5,48.92,36.83,4.949,-37.66,-38.53,-6.015,0,0,0,0,0,0,0,0,0,0,0,0,0,0,0,0,
453,-8.421,17.96,16.98,29.96,-1.984,27.24,18.37,27.19,35.82,6.408,42.6,28.03,-13.11,-35.83,-36.89,-5.476,0,0,0,0,0,0,0,0,0,0,0,0,0,0,0,0,
454,-8.893,8.791,15.5,32.24,3.441,18.4,6.653,20.07,16.74,19.26,36.87,45.65,-5.885,-16.82,-28.88,8.166,0,0,0,0,0,0,0,0,0,0,0,0,0,0,0,0,
455,3.255,17.4,13.85,15.02,18.05,41.23,14.65,23.8,-16.6,29.89,18.73,50.24,1.319,-16.83,-28.24,18.81,0,0,0,0,0,0,0,0,0,0,0,0,0,0,0,0,
456,0.2958,23.69,16.78,-11.44,11.93,35.9,30.13,34.5,-2.578,34.17,2.919,37.03,-8.714,-31.38,-39.42,11.76,0,0,0,0,0,0,0,0,0,0,0,0,0,0,0,0,
457,-6.668,25.71,22.92,0.2843,13.67,15.63,41.37,44.55,-22.82,31.93,-1.555,32.38,-10.37,-30.45,-45.76,-3.137,0,0,0,0,0,0,0,0,0,0,0,0,0,0,0,0,
458,-6.951,28.48,16.19,35.37,10.64,26.82,36.7,40.75,-77.46,20.07,-10.89,31.45,1.111,-23.52,-39.96,-10.03,0,0,0,0,0,0,0,0,0,0,0,0,0,0,0,0,
459,-7.402,26.42,19.96,53.74,5.713,28.97,26.59,28.18,-34.29,16.93,-15.23,27.41,4.382,-19.75,-30.36,-4.987,0,0,0,0,0,0,0,0,0,0,0,0,0,0,0,0,
460,-9.504,27.41,28.73,45.31,20.65,8.521,26.14,20.89,31.14,31.56,-13.16,23.49,-0.3111,-14.13,-21.4,6.139,0,0,0,0,0,0,0,0,0,0,0,0,0,0,0,0,
461,-6.024,39.89,25.7,26.15,30.01,17.18,35.29,23.07,11.22,39.3,-14.45,24.57,10.25,-4.126,-11.55,15.86,0,0,0,0,0,0,0,0,0,0,0,0,0,0,0,0,
462,11.72,58.98,41.79,20.74,34.06,43.52,49.5,34.55,-1.959,30.55,-3.339,33.19,26.56,3.469,-0.3851,21,0,0,0,0,0,0,0,0,0,0,0,0,0,0,0,0,
463,25.87,66.55,63.23,45.8,51.15,44.99,51.02,42.54,10.9,19.5,15.85,37.04,19.79,-8.304,8.838,19.6,0,0,0,0,0,0,0,0,0,0,0,0,0,0,0,0,
464,19.16,49.38,59.67,77.58,61.59,37.53,36.64,34.99,9.187,3.866,24.64,32.81,7.902,-29.83,13.4,12.95,0,0,0,0,0,0,0,0,0,0,0,0,0,0,0,0,
465,19.57,26.81,62.25,72,73.1,49.55,33.13,25.96,33.06,-13.57,33.53,37.52,11.27,-38.62,17.42,10.35,0,0,0,0,0,0,0,0,0,0,0,0,0,0,0,0,
466,40.39,21.04,77.03,55.25,93.11,69.35,39.43,28.92,65.38,-15.64,48.23,57.62,11.46,-42.6,26.29,16.43,0,0,0,0,0,0,0,0,0,0,0,0,0,0,0,0,
467,53.87,27.25,74.52,71.39,88.82,69.07,34.27,31.21,83.58,-16.41,60.36,76.46,11.49,-45.71,36.94,24.29,0,0,0,0,0,0,0,0,0,0,0,0,0,0,0,0,
468,53.07,36.7,65.54,74.63,81.52,56.26,29.74,24.74,87.83,-24.13,65.42,72.08,23.63,-38.93,41.66,28.32,0,0,0,0,0,0,0,0,0,0,0,0,0,0,0,0,
469,46.42,43.23,69.33,43.6,97.15,54.85,33.82,21.27,34.18,-16.09,53.93,48.2,24.93,-33.65,36.36,25.97,0,0,0,0,0,0,0,0,0,0,0,0,0,0,0,0,
470,32.82,36.88,66.05,31.38,84.87,49.76,22.12,16.53,-3.034,-11.29,29.4,28.24,3.959,-40.32,19.78,12.23,0,0,0,0,0,0,0,0,0,0,0,0,0,0,0,0,
471,18.88,16.93,40.93,30.7,46.31,33.28,-1.882,-0.3801,50.63,-24.5,7.914,12.67,-21.59,-50.4,-6.062,-11.5,0,0,0,0,0,0,0,0,0,0,0,0,0,0,0,0,
472,5.33,-3.326,21.33,17.73,39.72,26.42,-8.522,-10.43,62.54,-12.9,-17.1,-9.844,-39.93,-56.25,-32.61,-34.84,0,0,0,0,0,0,0,0,0,0,0,0,0,0,0,0,
473,-12.74,-12,18.07,12.01,39.91,13.38,-9.794,-8.775,-4.915,10.93,-47.72,-27.79,-45.28,-58.09,-49.29,-48.36,0,0,0,0,0,0,0,0,0,0,0,0,0,0,0,0,
474,-22.81,-14.11,0.6484,-3.577,2.306,-17.32,-22.4,-16.96,-30.22,4.357,-55.66,-29.2,-36.48,-54.46,-47.59,-44.27,0,0,0,0,0,0,0,0,0,0,0,0,0,0,0,0,
475,-19.11,-14.71,-29.69,-23.62,-41.67,-26.11,-19.67,-23.64,-30.5,0.9478,-37.94,-22.65,-22.95,-41.32,-28.19,-21.57,0,0,0,0,0,0,0,0,0,0,0,0,0,0,0,0,
476,-13.28,-4.17,-36.31,-15.63,-46.24,-6.32,0.4207,-14.77,-48.27,14.41,-26.13,-15.76,-13.09,-27.77,-9.436,1.558,0,0,0,0,0,0,0,0,0,0,0,0,0,0,0,0,
477,-9.308,14.2,-18.22,-24.19,-13.6,5.598,13.35,-7.73,-41.9,11.7,-23.04,-6.586,-11.79,-28.94,-5.973,5.467,0,0,0,0,0,0,0,0,0,0,0,0,0,0,0,0,
478,0.5268,26.31,-0.3668,-43.49,14.88,12.53,31.88,-1.181,-46.09,3.527,-8.473,7.315,-15.33,-35.91,-7.371,-3.353,0,0,0,0,0,0,0,0,0,0,0,0,0,0,0,0,
479,24.15,37.25,20.94,3.886,24.34,35.25,57.58,12.08,-66.21,4.808,16.19,30.94,-6.245,-29.49,1.153,-3.782,0,0,0,0,0,0,0,0,0,0,0,0,0,0,0,0,
480,50.57,52.45,46.44,61.73,35.89,54.13,59.48,16.5,-25.18,10.76,38.32,60.88,12.21,-15.88,19.87,10.78,0,0,0,0,0,0,0,0,0,0,0,0,0,0,0,0,
481,58.13,60.17,41.14,42.76,37.98,52.4,44.76,10.56,33.53,20.4,47.68,75.84,11.18,-10.69,36.63,26.22,0,0,0,0,0,0,0,0,0,0,0,0,0,0,0,0,
482,48.91,50.91,15.47,0.0297,22.85,42.08,38.68,2.339,29.69,11.68,39.95,64.67,-5.444,-8.822,35.12,27.53,0,0,0,0,0,0,0,0,0,0,0,0,0,0,0,0,
483,33.84,32.94,21.81,-9.862,24.11,22.45,35.58,-8.305,7.053,-15.38,31.05,44.38,-6.027,-2.848,19.12,18.36,0,0,0,0,0,0,0,0,0,0,0,0,0,0,0,0,
484,23.2,28.26,40.01,-2.487,39.16,5.753,32.36,-11.94,6.558,-23.07,36.81,39.55,5.996,-1.468,12.39,12.69,0,0,0,0,0,0,0,0,0,0,0,0,0,0,0,0,
485,34.36,39.95,32.33,2.139,41.71,19.08,34.64,-5.701,16.06,-14.58,48.56,53.79,7.203,-9.147,20.43,16.96,0,0,0,0,0,0,0,0,0,0,0,0,0,0,0,0,
486,49.85,42.67,25.97,-0.3522,43.31,33.08,31.63,-5.267,44.34,-18.23,55.89,61.71,-2.37,-20.06,24.99,24.95,0,0,0,0,0,0,0,0,0,0,0,0,0,0,0,0,
487,41.38,27,28.7,3.319,47.48,16.71,19.41,-13.89,64.09,-30.29,56.17,45.2,-15.67,-28.32,14.52,21.08,0,0,0,0,0,0,0,0,0,0,0,0,0,0,0,0,
488,26.73,7.14,15.68,7.338,26.62,-1.135,11.73,-18.55,22.11,-35.78,42.45,20.94,-29.39,-28.07,-2.907,0.26,0,0,0,0,0,0,0,0,0,0,0,0,0,0,0,0,
489,19.92,-3.465,2.858,-1.2,-12.96,-4.004,13.47,-12.05,-22.77,-26.08,23.87,10.47,-32.15,-23.82,-12.08,-19.95,0,0,0,0,0,0,0,0,0,0,0,0,0,0,0,0,
490,15.37,4.213,14.52,3.067,-18.67,0.7343,21.19,1.647,6.073,-2.622,19.62,14.29,-21.34,-25.09,-10.97,-25.29,0,0,0,0,0,0,0,0,0,0,0,0,0,0,0,0,
491,20.33,18.18,27.53,5.209,11.9,7.861,31.64,9.512,32.82,14.8,16.66,14.74,-13.43,-28.38,-12.97,-22.22,0,0,0,0,0,0,0,0,0,0,0,0,0,0,0,0,
492,25.79,15.94,15.02,-21.61,10.51,6.194,33.22,3.562,-2.839,17.77,1.377,-1.182,-16.2,-28.7,-25.15,-20.4,0,0,0,0,0,0,0,0,0,0,0,0,0,0,0,0,
493,22.03,5.265,2.258,-15.95,-24.04,8.254,23.61,-2.736,-25.87,26.33,-2.554,-10.72,-15.57,-21.48,-34.25,-17.33,0,0,0,0,0,0,0,0,0,0,0,0,0,0,0,0,
494,25.68,5.478,16.88,33.04,-20.94,20.87,20.01,4.298,-12.43,42.34,7.925,9.584,-2.955,-2.931,-24.25,-5.012,0,0,0,0,0,0,0,0,0,0,0,0,0,0,0,0,
495,35.79,13.65,31.67,40.96,8.01,16.88,24.58,13.47,-14.9,40.22,0.4252,27.62,5.803,7.195,-6.388,9.057,0,0,0,0,0,0,0,0,0,0,0,0,0,0,0,0,
496,32.01,14.43,17.59,0.7052,5.955,0.0817,23.84,11.97,-42.94,26.96,-27.01,4.777,-2.513,-4.977,-9.284,6.676,0,0,0,0,0,0,0,0,0,0,0,0,0,0,0,0,
497,11.41,3.428,-2.319,-20.79,-2.75,-6.395,21.54,9.565,-66.21,28.59,-46.79,-35.35,-12.95,-15.74,-34.8,-5.552,0,0,0,0,0,0,0,0,0,0,0,0,0,0,0,0,
498,-6.514,-2.207,9.636,10.64,10.64,-5.735,22.72,14.15,-58.85,31.79,-50.82,-52.53,-11.39,-11.49,-55.4,-5.002,0,0,0,0,0,0,0,0,0,0,0,0,0,0,0,0,
499,-7.737,2.363,38.37,49.9,12.01,-8.679,16.56,12.03,-68.44,23.61,-54.39,-53.73,-6.815,-6.844,-55.49,6.191,0,0,0,0,0,0,0,0,0,0,0,0,0,0,0,0,
500,-10.62,-1.376,33.97,17.86,-4.148,-22.86,5.184,0.1448,-122,20.36,-62.32,-53.29,-1.926,-3.191,-43.65,13.95,0,0,0,0,0,0,0,0,0,0,0,0,0,0,0,0,
501,-19.16,-4.209,5.281,-37.56,-5.555,-28.61,2.896,-1.052,-101.6,22.01,-50.84,-36.56,5.463,5.457,-27.8,20.05,0,0,0,0,0,0,0,0,0,0,0,0,0,0,0,0,
502,-6.944,8.227,2.035,-16.55,0.1533,-9.281,4.272,8.157,-3.484,20.55,-17.09,-14.07,0.1334,7.375,-8.668,25.55,0,0,0,0,0,0,0,0,0,0,0,0,0,0,0,0,
503,6.221,9.418,16.1,20.5,-4.897,-10.06,-5.254,3.894,8.855,13.94,-1.567,-19.52,-16.12,-3.611,5.265,23.35,0,0,0,0,0,0,0,0,0,0,0,0,0,0,0,0,
504,-13.8,-10.95,9.582,2.786,-4.521,-44.04,-25.19,-17,-35.25,-7.707,-4.323,-35.95,-20.82,-14.59,8.12,19.55,0,0,0,0,0,0,0,0,0,0,0,0,0,0,0,0,
505,-32.5,-28.55,-6.385,-20.35,4.633,-53.82,-44.83,-37.75,-15.76,-26.39,16.55,-28.18,-18.82,-18.27,9.804,25.55,0,0,0,0,0,0,0,0,0,0,0,0,0,0,0,0,
506,-17.03,-34.42,-6.362,-32.31,2.325,-35.75,-51.83,-44.93,10.85,-20.98,44.15,-14.51,-24.68,-18.79,12.98,32.6,0,0,0,0,0,0,0,0,0,0,0,0,0,0,0,0,
507,2.904,-32.56,-2.866,-41.49,-3.462,-30.37,-44.77,-38.65,11.63,-19.73,42.81,-20.54,-30.74,-18.54,9.838,28.78,0,0,0,0,0,0,0,0,0,0,0,0,0,0,0,0,
508,7.238,-29.36,-1.82,-29.31,11.31,-32.7,-35.08,-30.74,30.25,-27.59,34.53,-28.67,-28.01,-17.25,4.998,24.01,0,0,0,0,0,0,0,0,0,0,0,0,0,0,0,0,
509,14.31,-28.39,6.379,-21.03,30.07,-22.19,-24.61,-22.03,28.79,-15.36,28.63,-25.01,-17.48,-13.18,2.389,27.98,0,0,0,0,0,0,0,0,0,0,0,0,0,0,0,0,
510,21.38,-21.52,-0.15,-22.17,25.43,-10.16,-16.09,-12.03,1.794,-3.031,2.15,-29.7,-13.35,-9.649,-8.091,28.66,0,0,0,0,0,0,0,0,0,0,0,0,0,0,0,0,
511,1.431,-19.05,-19.03,-9.835,8.851,-28.63,-24.49,-14.81,-13.37,-8.896,-32.92,-53.44,-26.49,-13.84,-28.77,15.58,0,0,0,0,0,0,0,0,0,0,0,0,0,0,0,0,
512,-36.5,-33.74,-18.16,-18.61,-12.15,-67.79,-35.93,-22.16,-54.71,-3.482,-47.21,-68.06,-30.91,-15.8,-44.66,0.5507,0,0,0,0,0,0,0,0,0,0,0,0,0,0,0,0,
513,-48.05,-36.37,-13.79,-40.71,-31.81,-64.62,-22.27,-15.11,-81.6,17.01,-33.83,-49.91,-11.36,-4.933,-41.9,0.1647,0,0,0,0,0,0,0,0,0,0,0,0,0,0,0,0,
514,-25.24,-14.85,-10.31,-24.02,-18.79,-25.83,-4.442,-6.807,-22.46,27.21,-23.38,-36.87,-8.621,-2.055,-33.33,6.806,0,0,0,0,0,0,0,0,0,0,0,0,0,0,0,0,
515,-16.96,-9.691,4.886,-0.2655,0.2724,-26.75,-11.68,-5.231,-4.47,20.63,-61.89,-74.08,-40.26,-20.88,-49.65,-5.209,0,0,0,0,0,0,0,0,0,0,0,0,0,0,0,0,
516,-46.53,-27.82,1.138,3.188,-21.2,-53.58,-20.52,3.57,-78.19,12.72,-115.7,-115.1,-59.81,-34.5,-85.22,-36.33,0,0,0,0,0,0,0,0,0,0,0,0,0,0,0,0,
517,-69.44,-29.99,-8.688,2.453,-35.75,-48.82,-10.54,14.67,-82.33,20.07,-109,-100.7,-44.41,-26.87,-95.71,-53.47,0,0,0,0,0,0,0,0,0,0,0,0,0,0,0,0,
518,-60.87,-17.94,1.872,-19.5,-23.27,-32.39,-4.445,14.32,-31.09,26.08,-67.83,-69.69,-25.76,-17.43,-69.11,-41.64,0,0,0,0,0,0,0,0,0,0,0,0,0,0,0,0,
519,-50.28,-20.61,-1.36,-38.72,-31.62,-31.34,-15.3,5.493,-39.11,8.293,-56.27,-59.91,-19.12,-14.14,-41,-22.26,0,0,0,0,0,0,0,0,0,0,0,0,0,0,0,0,
520,-46.92,-28.52,-11.17,-12.62,-28.68,-37.3,-29.44,-4.197,-50.95,-13.48,-63.84,-44.33,-11.26,-8.225,-33.96,-10.29,0,0,0,0,0,0,0,0,0,0,0,0,0,0,0,0,
521,-36.43,-25.47,-2.894,20.37,12.27,-38.95,-30.81,-9.71,-50.65,-21.25,-61.34,-21.04,0.176,-2.91,-31.4,-0.2411,0,0,0,0,0,0,0,0,0,0,0,0,0,0,0,0,
522,-19.17,-17.42,5.526,21.33,27.38,-20.14,-8.53,-7.108,-71.59,-23.61,-40.78,-5.942,15.71,2.521,-10.56,11.37,0,0,0,0,0,0,0,0,0,0,0,0,0,0,0,0,
523,-2.088,-9.961,15.65,-2.378,17.21,-2.409,15.12,-0.9581,-45.19,-26.4,-12.07,4.886,25.57,12.12,22.14,23.96,0,0,0,0,0,0,0,0,0,0,0,0,0,0,0,0,
524,-1.568,-17.27,15.06,-23.14,24.01,-21.9,0.0476,-4.439,10.79,-35.67,-6.586,-1.146,3.853,10.3,35.58,34.43,0,0,0,0,0,0,0,0,0,0,0,0,0,0,0,0,
525,-24.55,-42.92,-9.158,-13.35,14.59,-48.53,-35.09,-18.05,-1.987,-46.69,-20.08,-19.07,-24.14,-3.764,19.22,36.58,0,0,0,0,0,0,0,0,0,0,0,0,0,0,0,0,
526,-39.9,-53.47,-16.17,0.784,-12.8,-51.87,-43.33,-24.43,-33,-46.8,-9.634,-14.03,-13.09,-7.888,3.321,33.8,0,0,0,0,0,0,0,0,0,0,0,0,0,0,0,0,
527,-28.48,-42.19,-5.407,-3.445,-8.482,-50.18,-36.17,-22.34,1.143,-50.32,19.63,1.866,2.301,-7.398,10.59,31.45,0,0,0,0,0,0,0,0,0,0,0,0,0,0,0,0,
528,-18.08,-41.88,-14.38,-8.55,6.01,-50.96,-40.97,-24.83,28.24,-57.53,25.75,-0.7805,-13.68,-14.22,23.07,25.7,0,0,0,0,0,0,0,0,0,0,0,0,0,0,0,0,
529,-25.08,-47.02,-30.86,-29.07,-0.1203,-52.99,-42.85,-23.5,-9.971,-35.68,9.416,-6.681,-24.79,-14.49,18.49,17.69,0,0,0,0,0,0,0,0,0,0,0,0,0,0,0,0,
530,-28.62,-37.98,-36.65,-50.39,-1.599,-57.64,-35.56,-14.14,-24.09,-3.794,-8.762,-17.72,-26.25,-13.7,-5.723,7.5,0,0,0,0,0,0,0,0,0,0,0,0,0,0,0,0,
531,-28.68,-40.59,-40.64,-31.62,-6.402,-59.54,-41.07,-15.75,0.2109,-8.36,-29.8,-50.94,-45.62,-26.88,-42.65,-11.1,0,0,0,0,0,0,0,0,0,0,0,0,0,0,0,0,
532,-44.33,-60.01,-41.07,-21.6,-27.4,-63.76,-51.85,-24.03,-26.66,-19.17,-41.07,-65.25,-54.42,-32.12,-70.79,-24.73,0,0,0,0,0,0,0,0,0,0,0,0,0,0,0,0,
533,-56.27,-57.44,-30.48,-51.81,-22.49,-67.23,-43.03,-20.67,-51.19,-1.173,-34.83,-42.14,-36.18,-19.67,-70.4,-17.77,0,0,0,0,0,0,0,0,0,0,0,0,0,0,0,0,
534,-48.51,-39.84,-25.99,-60.63,6.371,-57.34,-28.93,-12.51,-7.724,6.666,-39.27,-31.46,-28.21,-14.38,-55.16,-5.175,0,0,0,0,0,0,0,0,0,0,0,0,0,0,0,0,
535,-42.48,-37.44,-37.91,-29.19,11.11,-44.41,-26.99,-3.85,7.716,-6.284,-48.88,-30.73,-29.21,-16.71,-44.44,2.375,0,0,0,0,0,0,0,0,0,0,0,0,0,0,0,0,
536,-37.61,-32.62,-34.98,2.343,3.46,-36.56,-21.72,9.404,-20.55,-2.944,-37.96,-10.76,-18,-15.69,-33.87,13.99,0,0,0,0,0,0,0,0,0,0,0,0,0,0,0,0,
537,-23.28,-19.42,-5.149,15.37,16.11,-21.02,-8.085,18.81,-6.822,9.123,-29.91,-1.035,-16.03,-20.56,-21.1,21.79,0,0,0,0,0,0,0,0,0,0,0,0,0,0,0,0,
538,-9.285,-16.57,19.67,20.72,32.36,2.619,1.601,21.53,7.084,8.445,-31.82,-3.462,-21.33,-24.11,-11.43,16.71,0,0,0,0,0,0,0,0,0,0,0,0,0,0,0,0,
539,3.162,-15.66,22.24,32.3,25.37,16.38,3.25,19.38,-22.32,2.584,-25.54,0.1307,-14.47,-22.3,-4.54,11.91,0,0,0,0,0,0,0,0,0,0,0,0,0,0,0,0,
540,2.222,-21.55,5.702,32.08,5.757,11,-2.651,12.09,-19.92,-7.197,-31.75,-15.62,-24.27,-37.23,-6.286,7.44,0,0,0,0,0,0,0,0,0,0,0,0,0,0,0,0,
541,-24.37,-42.25,-17.89,-2.591,0.2519,-8.435,-11.1,4.006,-14.77,-18.6,-49.32,-35.98,-47.91,-48.84,-16.48,-4.466,0,0,0,0,0,0,0,0,0,0,0,0,0,0,0,0,
542,-50.68,-46.83,-30.75,-42.36,1.824,-34.59,-20.71,-11.69,-85.73,-21.52,-44.71,-32.21,-39.56,-26.22,-16.64,-7.68,0,0,0,0,0,0,0,0,0,0,0,0,0,0,0,0,
543,-61.7,-35.73,-31.26,-43.8,-5.703,-50.63,-33.08,-29.65,-102.4,-16.4,-27.17,-34.68,-19.79,-9.828,-6.925,2.273,0,0,0,0,0,0,0,0,0,0,0,0,0,0,0,0,
544,-61.11,-36.21,-22.78,-4.58,-1.391,-34.08,-32.53,-19.35,-3.289,-1.123,-12.31,-39.48,-18.58,-19.14,-4.439,8.193,0,0,0,0,0,0,0,0,0,0,0,0,0,0,0,0,
545,-41.65,-34.75,-8.396,32.27,24.11,-0.8998,-15.95,5.083,24.04,14.56,8.482,-16.48,-11.32,-15.03,-2.402,14.13,0,0,0,0,0,0,0,0,0,0,0,0,0,0,0,0,
546,-21.93,-28.81,-1.685,22.86,42.04,3.24,-11.76,-0.1668,-16.96,0.6274,27.82,6.517,-5.953,-10.04,10.67,27.08,0,0,0,0,0,0,0,0,0,0,0,0,0,0,0,0,
547,-20.17,-38.84,-5.695,2.551,48.2,-11.51,-23.94,-16.22,30.83,-32.46,39.41,12.33,-18.7,-22.88,27.72,35.51,0,0,0,0,0,0,0,0,0,0,0,0,0,0,0,0,
548,-13.79,-48.85,-2.894,13.68,66.01,4.797,-24.11,-10.02,86.22,-41.51,49.79,20.31,-17.54,-17.64,42.74,40.99,0,0,0,0,0,0,0,0,0,0,0,0,0,0,0,0,
549,-2.473,-43.84,6.759,-11.83,78.73,26.04,-14.6,-11.64,67.59,-32.33,47.79,28.29,-2.882,-3.805,49.09,48.11,0,0,0,0,0,0,0,0,0,0,0,0,0,0,0,0,
550,-7.542,-41.27,-9.217,-75.7,58.81,2.897,-20.73,-34.31,39.29,-31.62,27.37,27.91,1.517,-9.21,40.16,48.33,0,0,0,0,0,0,0,0,0,0,0,0,0,0,0,0,
551,-14.31,-41.8,-38.73,-48.02,42.19,-19.66,-31.8,-34.72,5.998,-28.7,9.08,18.63,10.4,-5.426,25.26,46.18,0,0,0,0,0,0,0,0,0,0,0,0,0,0,0,0,
552,-11.69,-33.27,-29.86,32.83,47.53,-5.806,-26.43,-13.01,-3.741,-19.54,-0.2549,3.606,18.59,6.109,11.9,46.52,0,0,0,0,0,0,0,0,0,0,0,0,0,0,0,0,
553,-13.67,-27.92,-10.04,24.55,32.45,4.642,-19.4,-6.598,24.98,-13.54,-13.78,-5.943,3.2,-3.043,-2.638,37.88,0,0,0,0,0,0,0,0,0,0,0,0,0,0,0,0,
554,-19.71,-35.67,-23.67,-13.58,12.47,2.205,-23.79,-9.039,-6.523,-6.811,-27.82,-17.96,-13.65,-14.59,-15.15,20.76,0,0,0,0,0,0,0,0,0,0,0,0,0,0,0,0,
555,-26.61,-39.41,-40.18,-11.01,17.67,-0.8407,-25.07,-8.825,-61.02,-7.982,-31.06,-34.82,-7.968,-14.91,-19.98,9.684,0,0,0,0,0,0,0,0,0,0,0,0,0,0,0,0,
556,-35.37,-31.36,-44.46,-24.24,13.62,-9.521,-19.04,-7.189,-35.28,-9.91,-33.93,-31.49,3.086,-14.83,-15.61,11.97,0,0,0,0,0,0,0,0,0,0,0,0,0,0,0,0,
557,-40.94,-32.5,-42.4,-25.96,3.594,-14.39,-19.21,6.638,-21.03,9.104,-48.27,-23.84,-5.583,-17.09,-9.245,21.77,0,0,0,0,0,0,0,0,0,0,0,0,0,0,0,0,
558,-48.51,-49.06,-33.28,9.808,-1.21,-17.76,-23.77,12.64,-62.69,17.95,-53.58,-35.29,-27.25,-24.27,-10.18,24.36,0,0,0,0,0,0,0,0,0,0,0,0,0,0,0,0,
559,-53.61,-57.75,-42.94,9.213,-24.99,-22.55,-23.67,-5.611,-49.97,-1.253,-34.74,-32.59,-33.83,-30.5,-10.34,14.62,0,0,0,0,0,0,0,0,0,0,0,0,0,0,0,0,
560,-50.13,-58.88,-57.75,-15.66,-34.13,-20.43,-34.14,-13.91,-18.61,-7.856,-24.41,-18,-29.48,-29.84,-6.613,-0.8889,0,0,0,0,0,0,0,0,0,0,0,0,0,0,0,0,
561,-58.12,-69.59,-43.88,-22.1,-14.33,-27.05,-52.77,-4.048,-67.34,3.339,-36.79,-26.84,-31.81,-28.26,-12.38,-14.26,0,0,0,0,0,0,0,0,0,0,0,0,0,0,0,0,
562,-67.21,-70.5,-32.08,-47.51,-11.18,-34.04,-40.48,2.423,-100.8,7.954,-43.5,-36.66,-30.05,-26.48,-21.48,-13.95,0,0,0,0,0,0,0,0,0,0,0,0,0,0,0,0,
563,-55.33,-53.72,-39.01,-61.31,-15.15,-24.08,-14.63,7.272,-46.82,1.466,-46.93,-37.31,-29.63,-32.87,-24.34,-6.04,0,0,0,0,0,0,0,0,0,0,0,0,0,0,0,0,
564,-53.14,-50.48,-34.62,-1.728,-5.54,-24.28,-26.86,5.076,-15.15,-19.55,-53.4,-52.68,-41.8,-49.47,-30.38,-13.63,0,0,0,0,0,0,0,0,0,0,0,0,0,0,0,0,
565,-66.64,-58.44,-20.42,51.98,3.394,-32.54,-50.43,-10.53,-39.27,-40.09,-46.09,-65.92,-42.24,-54.29,-35.44,-29.64,0,0,0,0,0,0,0,0,0,0,0,0,0,0,0,0,
566,-60.14,-52.82,-20.31,19.88,10.41,-20.98,-46.16,-15.71,-27.02,-36.67,-31.41,-55.88,-20.93,-40.8,-25.99,-25.52,0,0,0,0,0,0,0,0,0,0,0,0,0,0,0,0,
567,-30.96,-31.79,-21.73,-13.17,22.21,7.235,-26.22,1.984,27.89,-16.28,6.327,-20.75,13.37,-8.889,6.776,9.291,0,0,0,0,0,0,0,0,0,0,0,0,0,0,0,0,
568,8.634,4.892,-3.644,16.22,49.75,39.26,4.03,18.38,58.86,7.09,75.29,27.5,51.04,36.13,67.7,63.06,0,0,0,0,0,0,0,0,0,0,0,0,0,0,0,0,
569,34.29,37.48,0.2696,27.11,62.88,44.56,22.76,14.18,40.4,19.93,92.02,38.27,56.43,53.61,118.7,95.9,0,0,0,0,0,0,0,0,0,0,0,0,0,0,0,0,
570,15.79,31.71,-30.67,-0.923,15.11,12.76,-5.341,1.895,-11.14,7.414,29.16,1.232,21.96,31.66,105.6,73.31,0,0,0,0,0,0,0,0,0,0,0,0,0,0,0,0,
571,-22.07,-4.086,-51.25,-7.37,-33.2,-20.94,-51.96,-10.72,-52.11,-14.89,-25.64,-26.46,-12.02,3.525,44.7,20.54,0,0,0,0,0,0,0,0,0,0,0,0,0,0,0,0,
572,-46.04,-38.42,-54.41,-19.78,-27.49,-52.67,-74.06,-28.34,-58.15,-15.93,-50.34,-37.91,-29.73,-18.87,-8.64,-15.01,0,0,0,0,0,0,0,0,0,0,0,0,0,0,0,0,
573,-63.75,-50.56,-66.73,-51.26,-30.57,-77.5,-73.62,-30.47,-61.32,3.464,-77.68,-62.68,-33.56,-28.56,-33.7,-22.19,0,0,0,0,0,0,0,0,0,0,0,0,0,0,0,0,
574,-72.69,-38.33,-66.67,-41.07,-54.96,-62.39,-57.37,-9.449,-72.77,16.78,-86.25,-77.68,-25.34,-20.27,-34.97,-15.75,0,0,0,0,0,0,0,0,0,0,0,0,0,0,0,0,
575,-61.69,-23.33,-45.33,-7.538,-48.04,-29.35,-31.09,5.764,-62.83,19,-68.63,-62.09,-21.11,-12.28,-21.47,-12.36,0,0,0,0,0,0,0,0,0,0,0,0,0,0,0,0,
576,-40.12,-8.31,-36.85,0.9261,-30.03,-8.023,-9.3,14.59,-43.59,28.67,-57.6,-41.96,-19.74,-5.732,-4.454,-15.92,0,0,0,0,0,0,0,0,0,0,0,0,0,0,0,0,
577,-20.72,15.66,-45.33,2.876,-28.62,15.2,5.383,31.55,-35.02,44.74,-55.96,-27.73,-14.13,2.647,9.692,-17.98,0,0,0,0,0,0,0,0,0,0,0,0,0,0,0,0,
578,-9.952,24.34,-34.73,14.7,-22,32.02,15.12,41.94,-21.07,52.57,-51.06,-6.208,-17.06,1.319,15.09,-18.64,0,0,0,0,0,0,0,0,0,0,0,0,0,0,0,0,
579,-6.549,16.22,-7.923,32.23,-16.01,31.05,18.31,43.58,-16.89,52.48,-50.72,10.51,-20.83,2.917,9.9,-21.35,0,0,0,0,0,0,0,0,0,0,0,0,0,0,0,0,
580,-4.514,21.6,-4.952,44.36,-21.85,25.84,17.85,46.44,-25.35,44.93,-54.44,6.442,-9.472,13.57,5.607,-19.19,0,0,0,0,0,0,0,0,0,0,0,0,0,0,0,0,
581,-4.594,28.7,-8.562,30.19,-13.19,18.39,16.9,42.24,-12.19,31.63,-52.47,-4.326,1.664,14.13,10.9,-10.51,0,0,0,0,0,0,0,0,0,0,0,0,0,0,0,0,
582,-9.067,20.94,2.783,-2.68,5.953,16.72,21.01,35.54,-17.13,27.68,-50.62,-4.883,1.937,10.77,19.16,-3.111,0,0,0,0,0,0,0,0,0,0,0,0,0,0,0,0,
583,-12.69,16.47,1.182,-18.97,8.795,31.75,29.49,35.16,-52.6,31.92,-46.77,4.637,-2.115,10.22,22.63,0.7176,0,0,0,0,0,0,0,0,0,0,0,0,0,0,0,0,
584,-9.941,12.29,2.08,2.972,7.862,42.6,22.07,27.8,-27.17,22.54,-31.41,13.83,-12.29,-1.372,22.77,1.921,0,0,0,0,0,0,0,0,0,0,0,0,0,0,0,0,
585,1.647,1.924,14.91,50,9.224,42.8,4.109,20.89,29.43,3.563,-14.72,20.95,-17.67,-9.31,25.77,-0.0928,0,0,0,0,0,0,0,0,0,0,0,0,0,0,0,0,
586,23.84,9.51,6.449,80.52,3.739,54.54,11.25,29.87,19.33,1.016,2.222,41.78,-3.586,1.405,36.29,-0.6983,0,0,0,0,0,0,0,0,0,0,0,0,0,0,0,0,
587,42.22,27.61,-1.466,66.23,8.536,65.56,27.83,30.02,11.77,8.302,27.19,69.24,7,7.294,53.51,7.055,0,0,0,0,0,0,0,0,0,0,0,0,0,0,0,0,
588,37.88,23.36,5.816,34.23,21.39,51.26,16.25,16.39,52.96,5.266,40.21,75.53,-0.7633,2.065,69.77,21.72,0,0,0,0,0,0,0,0,0,0,0,0,0,0,0,0,
589,25.6,10.47,8,29.64,21.08,31.95,3.315,21.28,49.78,10.49,30.9,68.35,-0.2405,3.062,74.26,33.74,0,0,0,0,0,0,0,0,0,0,0,0,0,0,0,0,
590,26.62,14.25,13.8,34.84,15.75,30.81,13.26,33.75,15.43,30.11,21.43,63.37,8.684,2.937,61.1,33.29,0,0,0,0,0,0,0,0,0,0,0,0,0,0,0,0,
591,29.02,18.81,3.568,13.83,6.571,31.68,11.34,25.04,17.71,26.86,15.58,46.46,-1.934,-7.204,36.45,18.87,0,0,0,0,0,0,0,0,0,0,0,0,0,0,0,0,
592,15.95,7.738,-30.34,-8.425,-15.49,17.45,-12.9,9.725,-0.8722,8.506,3.218,22.98,-19,-14.11,16.7,1.663,0,0,0,0,0,0,0,0,0,0,0,0,0,0,0,0,
593,-4.638,-4.578,-40.95,-12.57,-30.92,3.537,-24.43,3.112,-38.27,14.8,-0.1801,18.8,-19.14,-15.07,15.17,-7.756,0,0,0,0,0,0,0,0,0,0,0,0,0,0,0,0,
594,-13.53,-8.547,-37.35,-11.01,-31.31,-0.0499,-22.41,-2.592,-23.34,20.65,1.961,16.42,-23.17,-22.9,22.57,-15.84,0,0,0,0,0,0,0,0,0,0,0,0,0,0,0,0,
595,-16.8,-17.99,-47.09,-3.221,-38.98,-11.01,-30.91,-4.114,-29.28,8.614,-21.35,-11.59,-43.13,-34.34,12.89,-31.82,0,0,0,0,0,0,0,0,0,0,0,0,0,0,0,0,
596,-29.86,-28.11,-42.77,-5.44,-49.53,-17.46,-28.09,9.271,-82.2,21.74,-44.07,-31.03,-46.95,-32.18,-13.33,-46.27,0,0,0,0,0,0,0,0,0,0,0,0,0,0,0,0,
597,-30.31,-19.99,-21.64,-21.44,-32.32,4.683,-0.2917,23.71,-61.11,48.6,-28.65,-9.787,-26.41,-22.21,-22.54,-44.9,0,0,0,0,0,0,0,0,0,0,0,0,0,0,0,0,
598,-7.716,-13.89,-9.272,-12.11,0.4859,22.19,8.094,22.63,2.525,48.04,-15.38,19.35,-13.14,-23.58,-1.799,-29.14,0,0,0,0,0,0,0,0,0,0,0,0,0,0,0,0,
599,6.445,-22.22,-1.281,20.65,3.796,14.35,-1.975,23.45,5.033,47.63,-29.02,24.65,-15.13,-28.49,23.84,-11.55,0,0,0,0,0,0,0,0,0,0,0,0,0,0,0,0,
600,3.373,-15.54,8.768,37.73,-19.7,9.381,11.78,30.94,-14.59,59.73,-42.3,8.248,-19.42,-26.53,30.82,-3.838,0,0,0,0,0,0,0,0,0,0,0,0,0,0,0,0,
601,-4.715,1.359,7.99,39.47,-22.82,11.87,26.89,24.23,-31.02,56.46,-48.08,-2.935,-16.87,-21.15,24.4,-2.384,0,0,0,0,0,0,0,0,0,0,0,0,0,0,0,0,
602,-3.55,7.587,2.52,44.26,8.354,22.35,24.55,19.74,-27.03,49.77,-29.39,27.51,2.089,-4.137,28.99,10.99,0,0,0,0,0,0,0,0,0,0,0,0,0,0,0,0,
603,20.66,15.97,14.03,40.98,38.96,44.45,31.79,30.1,36.81,48.55,15.25,70.93,21.5,14.78,52.92,35.3,0,0,0,0,0,0,0,0,0,0,0,0,0,0,0,0,
604,43.81,18.61,31.58,24.73,46.63,55.73,37.38,26.91,66.13,35.79,36.04,81.37,21.41,12.91,77.39,48.57,0,0,0,0,0,0,0,0,0,0,0,0,0,0,0,0,
605,51.46,5.077,32.8,31.42,48.15,65.68,31.11,16.53,27.29,22.58,40.82,92.74,19.9,10.1,89.62,50.09,0,0,0,0,0,0,0,0,0,0,0,0,0,0,0,0,
606,67.7,5.914,33.96,60.47,58.26,87.08,41.11,22.18,49.61,22,64.32,112.9,26.79,23.22,90.96,57.02,0,0,0,0,0,0,0,0,0,0,0,0,0,0,0,0,
607,80.66,27.73,57.54,64.36,76.12,84.84,56.68,25.92,112.1,25.72,74.08,100.2,31.55,30.23,80.09,67.92,0,0,0,0,0,0,0,0,0,0,0,0,0,0,0,0,
608,74.67,40.55,75.81,50.36,93.8,69.23,49.33,16.26,104.9,27.96,64.12,84.03,33.11,25.64,64.16,68.96,0,0,0,0,0,0,0,0,0,0,0,0,0,0,0,0,
609,71.14,33.46,53.1,41.55,82.95,78.64,35.92,5.555,68.56,25.99,61.45,91.3,20.82,20.28,57.76,57.73,0,0,0,0,0,0,0,0,0,0,0,0,0,0,0,0,
610,64.91,17.26,24.77,27.71,46.1,80.13,33.68,1.969,54.96,24.21,48.22,80.09,-5.426,14.01,59.9,42.87,0,0,0,0,0,0,0,0,0,0,0,0,0,0,0,0,
611,46.23,3.385,29.56,21.91,39.05,52.71,28.07,7.108,41.28,29.79,24.15,47.34,-19.7,10.13,60.79,32.78,0,0,0,0,0,0,0,0,0,0,0,0,0,0,0,0,
612,32.35,-6.743,31.89,18.78,53.59,37.59,14.54,8.949,21.44,36.18,13.4,26.59,-20.73,12.02,57.86,30.09,0,0,0,0,0,0,0,0,0,0,0,0,0,0,0,0,
613,19.44,-16.58,14.51,-5.446,25.96,36.89,9.917,0.3905,9.881,36.28,3.526,17.33,-25.01,15.36,50.02,30.89,0,0,0,0,0,0,0,0,0,0,0,0,0,0,0,0,
614,5.044,-22.07,3.938,-10.93,-14.5,25.06,16.84,-1.085,4.544,33.37,-12.7,9.403,-32.96,16.37,36.77,26.33,0,0,0,0,0,0,0,0,0,0,0,0,0,0,0,0,
615,3.765,-25.47,-3.06,20.93,-12.66,12.01,14.61,3.161,-13.8,28.6,-25.88,-6.705,-47.29,10.83,23.39,12.94,0,0,0,0,0,0,0,0,0,0,0,0,0,0,0,0,
616,-3.612,-40.48,-14.45,28.71,-8.361,-2.954,-6.754,-10.22,-28.73,16.53,-43.46,-39.08,-67.78,-1.082,13.14,-1.03,0,0,0,0,0,0,0,0,0,0,0,0,0,0,0,0,
617,-30.99,-59.81,-21.45,0.8792,-27.84,-24.27,-23.87,-23.69,-24.11,4.909,-59.83,-62.42,-73.96,-5.803,5.562,-6.72,0,0,0,0,0,0,0,0,0,0,0,0,0,0,0,0,
618,-48.52,-59.75,-18.81,-5.912,-40.5,-34.44,-21.93,-13.24,-55.97,8.986,-64.17,-58.54,-62.34,0.6597,2.747,-3.77,0,0,0,0,0,0,0,0,0,0,0,0,0,0,0,0,
619,-50.44,-52.14,-13.67,2.164,-47.42,-43.61,-23.32,-9.393,-104.6,12.64,-65.35,-52.03,-57.91,-1.297,3.415,0.7645,0,0,0,0,0,0,0,0,0,0,0,0,0,0,0,0,
620,-45.85,-56.02,-22.7,-15.4,-47.13,-46.48,-26.35,-19.77,-60.79,-0.5597,-50.87,-41.9,-57.61,-9.608,6.287,0.4206,0,0,0,0,0,0,0,0,0,0,0,0,0,0,0,0,
621,-17.42,-47.14,-29.66,-25.08,-30.74,-17.62,-12.75,-16.77,31.36,-9.1,-15.23,-12.37,-43.81,-6.113,18.01,-1.522,0,0,0,0,0,0,0,0,0,0,0,0,0,0,0,0,
622,9.816,-28.77,-16.93,-9.614,-26.34,-3.791,-10.29,-22.29,49.09,-7.083,-3,0.6956,-37.65,-8.158,33.87,-0.5291,0,0,0,0,0,0,0,0,0,0,0,0,0,0,0,0,
623,-0.0746,-32.22,-8.531,-13.85,-25.51,-20.94,-16.07,-36.77,17.16,-3.901,-19.6,-10.47,-37.26,-14.83,37.77,2.71,0,0,0,0,0,0,0,0,0,0,0,0,0,0,0,0,
624,-4.303,-27.77,-5.059,-18.73,-6.078,-5.588,8.228,-18.94,14.75,10.7,-20.19,-3.575,-12.08,1.417,30.18,10.54,0,0,0,0,0,0,0,0,0,0,0,0,0,0,0,0,
625,18.39,-3.01,2.606,4.138,3.649,23.29,24.64,-2.569,34.57,20.69,-9.647,9.937,5.184,9.562,21.8,21.18,0,0,0,0,0,0,0,0,0,0,0,0,0,0,0,0,
626,27.99,-3.129,5.753,4.416,6.027,23.14,5.95,-18.09,23.02,4.827,-10.32,6.267,-12.22,-11.34,18.55,26.3,0,0,0,0,0,0,0,0,0,0,0,0,0,0,0,0,
627,28.23,-17.92,16.21,-17.4,13.74,27.21,-0.972,-23.93,-10.44,-12.33,-8.261,4.196,-21.45,-17.33,23.81,27.17,0,0,0,0,0,0,0,0,0,0,0,0,0,0,0,0,
628,30,-19.03,23.69,-3.354,12.99,31.91,3.237,-19.93,7.202,-17.15,1.468,3.95,-14.56,-7.378,30.84,29.43,0,0,0,0,0,0,0,0,0,0,0,0,0,0,0,0,
629,13.97,-20.66,17.21,23.75,27.49,14.61,-2.973,-19.21,58.99,-15.95,8.175,-1.443,-18.2,-13.17,30.37,29.39,0,0,0,0,0,0,0,0,0,0,0,0,0,0,0,0,
630,-6.059,-22.6,22.69,5.578,41.81,-3.689,-2.076,-6.312,50.01,-6.162,-1.131,-14.02,-26.61,-24.5,22.24,20.26,0,0,0,0,0,0,0,0,0,0,0,0,0,0,0,0,
631,-16.92,-26.82,19.42,-27.33,10.71,-17.66,-3.155,-5.635,-9.798,-5.869,-32.27,-47.1,-32.92,-26.3,3.514,4.158,0,0,0,0,0,0,0,0,0,0,0,0,0,0,0,0,
632,-29.45,-36.89,-14.99,-16.94,-20.39,-29.09,-14.83,-20.68,-36.9,-17.23,-58.92,-73.39,-36.73,-17.89,-24.7,-6.834,0,0,0,0,0,0,0,0,0,0,0,0,0,0,0,0,
633,-35.55,-32.04,-35.19,2.283,-28.59,-36.83,-17.08,-14.92,-18.41,-8.246,-62.42,-65.15,-36.99,-5.431,-45.11,-7.701,0,0,0,0,0,0,0,0,0,0,0,0,0,0,0,0,
634,-31.62,-26.56,-22.1,-2.796,-42.88,-43.83,-15.93,-3.77,-3.853,9.244,-57.06,-57.05,-40.11,-1.22,-45.28,-6.827,0,0,0,0,0,0,0,0,0,0,0,0,0,0,0,0,
635,-28.54,-40.39,-6.963,7.345,-37.77,-37.41,-22.25,-8.956,-15.91,4.496,-52.2,-64.2,-42.04,-3.862,-33.44,-9.461,0,0,0,0,0,0,0,0,0,0,0,0,0,0,0,0,
636,-32,-51.01,-12,11.42,-28.97,-37.79,-27.69,-15.96,-25.31,-6.149,-53.22,-61.23,-45.09,-7.303,-26.11,-16.34,0,0,0,0,0,0,0,0,0,0,0,0,0,0,0,0,
637,-42.07,-55.02,-26.16,-17.43,-54.39,-60.89,-27.44,-19.03,-26.77,-4.173,-58.35,-49.09,-53.67,-6.17,-26.23,-24.86,0,0,0,0,0,0,0,0,0,0,0,0,0,0,0,0,
638,-40.36,-57.66,-22.62,-18.46,-56.02,-58.7,-16.72,-13.11,-48.69,0.9164,-58.46,-42.77,-48.83,1.708,-23.46,-25.33,0,0,0,0,0,0,0,0,0,0,0,0,0,0,0,0,
639,-22.84,-48.43,-14.27,-6.673,-18.42,-32.69,-0.7007,-2.219,-60.19,-1.411,-63.32,-41.68,-33.68,2.14,-16.87,-18.6,0,0,0,0,0,0,0,0,0,0,0,0,0,0,0,0,
640,-11.03,-40.39,-20.94,-19.36,-7.665,-26.18,4.969,-2.183,-17.35,-6.447,-61.41,-35.12,-29.33,-0.6523,-9.997,-13.34,0,0,0,0,0,0,0,0,0,0,0,0,0,0,0,0,
641,3.038,-39.59,-14.67,3.983,-18.81,-20.95,1.753,-2.352,29.06,-2.498,-35.77,-26.04,-29,4.385,-1.298,-8.896,0,0,0,0,0,0,0,0,0,0,0,0,0,0,0,0,
642,17.24,-37.31,4.808,29.52,-16.98,-20.36,-3.264,-1.909,17.74,0.6041,-29.57,-34.83,-31.4,-4.379,-1.26,-10.96,0,0,0,0,0,0,0,0,0,0,0,0,0,0,0,0,
643,1.213,-44.72,-1.039,-10.69,-19.7,-46.02,-9.204,-14.33,-12.97,-13.42,-49.93,-50,-41.64,-20.97,-15.24,-24.76,0,0,0,0,0,0,0,0,0,0,0,0,0,0,0,0,
644,-15.58,-53.61,-16.29,-33.13,-30.38,-47.05,-8.414,-18.53,-7.748,-33.16,-37.12,-44.77,-42.57,-14.17,-23.64,-34.31,0,0,0,0,0,0,0,0,0,0,0,0,0,0,0,0,
645,3.844,-44.68,-5.835,-9.615,-23.31,-12.7,0.6495,-10.06,9.952,-43.36,-2.668,-33.05,-28.8,-1.451,-16.28,-29.28,0,0,0,0,0,0,0,0,0,0,0,0,0,0,0,0,
646,23.39,-35.98,8.085,-11.81,-0.8267,-2.773,7.381,-11.69,4.296,-40.15,6.829,-28.36,-14.01,-1.449,-2.757,-18.4,0,0,0,0,0,0,0,0,0,0,0,0,0,0,0,0,
647,22.91,-38.37,3.803,-19.81,9.466,-8.587,10.11,-10.39,-16.63,-25.22,8.843,-23.13,-5.663,2.177,10.86,-8.314,0,0,0,0,0,0,0,0,0,0,0,0,0,0,0,0,
648,27.45,-35.21,-4.302,-1.329,-2.237,5.012,11.79,-2.493,-27.16,-12.81,19.54,-18.28,1.146,14.06,21.93,1.431,0,0,0,0,0,0,0,0,0,0,0,0,0,0,0,0,
649,40.07,-25.09,-7.405,19.25,-12.9,10.5,7.012,-10.15,1.671,-9.601,28.48,-12.35,14.18,30.67,30.65,15.3,0,0,0,0,0,0,0,0,0,0,0,0,0,0,0,0,
650,44.8,-21.09,3.92,27.79,-3.731,-6.944,-4.829,-17.91,41.15,-9.336,29.13,-13.35,16.14,41.39,35.67,29.04,0,0,0,0,0,0,0,0,0,0,0,0,0,0,0,0,
651,33.29,-27.48,21.94,11.51,4.91,-20.06,-12.26,-11.43,24.52,-7.867,15.21,-28.17,-1.203,31.97,26.65,25.85,0,0,0,0,0,0,0,0,0,0,0,0,0,0,0,0,
652,18.69,-29.97,15.9,-5.323,-4.598,-20.87,-7.02,-5.838,-12.42,4.332,-1.012,-32.87,-3.505,25.19,6.286,8.593,0,0,0,0,0,0,0,0,0,0,0,0,0,0,0,0,
653,18.27,-20.66,-0.8699,6.726,-17.63,-25.42,-2.587,-1.706,-14.76,20.67,-15.47,-32.88,2.054,34.72,-9.318,-2.853,0,0,0,0,0,0,0,0,0,0,0,0,0,0,0,0,
654,12.48,-25.24,-13.71,-2.34,-28.76,-41.15,-15.93,-2.387,-18.55,19.04,-39.64,-49.44,-18.97,31.67,-16.33,-6.642,0,0,0,0,0,0,0,0,0,0,0,0,0,0,0,0,
655,-8.567,-45.33,-36.9,-35.88,-37.16,-55.33,-29.6,-13.21,-22.6,8.836,-44.2,-52.16,-30.65,18.13,-14.67,-7.773,0,0,0,0,0,0,0,0,0,0,0,0,0,0,0,0,
656,-16.27,-46.42,-42.52,-28.69,-33.33,-57.84,-27.61,-18.19,-18.46,3.791,-24.76,-41.02,-18.21,13.94,-7.768,-6.764,0,0,0,0,0,0,0,0,0,0,0,0,0,0,0,0,
657,-15.48,-40.74,-23.34,-4.91,-31.32,-58.46,-25.91,-16.06,-43.27,-3.853,-25.17,-48.69,-26.88,6.907,-9.552,-10.82,0,0,0,0,0,0,0,0,0,0,0,0,0,0,0,0,
658,-23.69,-48.17,-14.53,-6.337,-36.53,-55.88,-19.92,-10.95,-42.75,-5.507,-23.9,-44.74,-37.71,-3.551,-12.88,-18.2,0,0,0,0,0,0,0,0,0,0,0,0,0,0,0,0,
659,-19.05,-42.39,-9.785,-4.516,-29.8,-40.59,-3.003,2.397,1.571,0.4407,-0.8684,-22.09,-26.33,-13.26,-4.348,-21.67,0,0,0,0,0,0,0,0,0,0,0,0,0,0,0,0,
660,-5.264,-33.76,-8.423,0.3276,-21.96,-31,-0.2428,4.973,-16.83,-7.708,-10.79,-31.15,-33.1,-32.86,-7.086,-29.82,0,0,0,0,0,0,0,0,0,0,0,0,0,0,0,0,
661,-11.89,-49.81,-17.41,-7.15,-31.09,-38.86,-8.433,-10.09,-68.81,-22.24,-43.74,-56.97,-48.08,-44.45,-30.45,-41.32,0,0,0,0,0,0,0,0,0,0,0,0,0,0,0,0,
662,-24.56,-59.99,-19.22,-8.056,-45.86,-45.37,-13.85,-17.5,-53.67,-20.21,-39.7,-56.38,-36.81,-31.63,-38.58,-37.79,0,0,0,0,0,0,0,0,0,0,0,0,0,0,0,0,
663,-20.55,-48.77,-24.64,-14.74,-54.34,-43.76,-22.79,-15.62,-17.3,-11.44,-15.36,-39.92,-25.46,-14.13,-19.1,-21.21,0,0,0,0,0,0,0,0,0,0,0,0,0,0,0,0,
664,-10.54,-40.63,-22.47,-42.19,-47.62,-38.12,-12.7,-14.95,3.701,-16.24,0.5184,-22.72,-20.37,-4.146,4.67,-6.37,0,0,0,0,0,0,0,0,0,0,0,0,0,0,0,0,
665,-3.048,-37.33,9.414,-37.3,-22.57,-24.58,14.53,-10.18,22.09,-29.01,12.89,-12.24,-2.8,0.2472,20.1,3.2,0,0,0,0,0,0,0,0,0,0,0,0,0,0,0,0,
666,4.632,-34.94,19.2,15.86,-4.28,-16.44,10.27,-7.226,5.342,-29.96,8.911,-20.75,6.359,2.422,19,2.706,0,0,0,0,0,0,0,0,0,0,0,0,0,0,0,0,
667,4.472,-39.84,-9.996,24.95,-20.56,-30.19,-13.9,-15.88,-23.57,-21.74,-16.05,-36.13,-3.259,8.203,-2.417,-7.799,0,0,0,0,0,0,0,0,0,0,0,0,0,0,0,0,
668,-8.063,-46.43,-25.36,-33.76,-54.37,-44.68,-17.05,-26.35,-26.56,-23.43,-36.3,-37.07,-7.03,13.21,-21.87,-9.601,0,0,0,0,0,0,0,0,0,0,0,0,0,0,0,0,
669,-16.6,-47.95,-24.33,-53.74,-66.94,-36.44,-14.75,-26.8,-25.84,-33.23,-31.95,-27.76,2.148,15.85,-19.03,7.816,0,0,0,0,0,0,0,0,0,0,0,0,0,0,0,0,
670,-13.1,-42.69,-33.39,-15.54,-64.18,-26.14,-19.68,-19.66,-9.728,-34.89,-7.346,-23.89,9.15,20.04,-3.098,29.41,0,0,0,0,0,0,0,0,0,0,0,0,0,0,0,0,
671,-11.61,-30.74,-43.9,-2.729,-66.79,-32.15,-13.67,-13.81,1.492,-26.71,7.739,-26.2,12.97,22.86,7.58,37.01,0,0,0,0,0,0,0,0,0,0,0,0,0,0,0,0,
672,-14.42,-17.16,-35.53,-16.11,-60.97,-33.95,-3.957,-14.24,-34.25,-25.75,-4.885,-30.91,25.22,28.07,4.58,26.67,0,0,0,0,0,0,0,0,0,0,0,0,0,0,0,0,
673,-11.41,-7.511,-4.396,-8.126,-49.85,-21.58,-6.849,-15.95,-32.78,-37.8,-14.68,-38.66,37.11,31.22,-7.553,6.764,0,0,0,0,0,0,0,0,0,0,0,0,0,0,0,0,T1
674,-3.714,-8.39,24.34,13.4,-47.17,-9.468,-6.873,-11.07,21.82,-39.23,-1.308,-35.48,34.99,16.96,-14.39,-7.371,0,0,0,0,0,0,0,0,0,0,0,0,0,0,0,0,
675,3.982,-18.52,18.36,16.52,-40.71,-1.195,2.682,-7.375,10.83,-28.2,4.552,-19.38,27.35,-6.154,-10.99,-8.275,0,0,0,0,0,0,0,0,0,0,0,0,0,0,0,0,
676,7.654,-23,-6.047,-4.99,-42.12,1.639,0.9826,-12.9,-28.61,-30.91,-5.604,-17.77,20.98,-23.3,-10.42,-6.512,0,0,0,0,0,0,0,0,0,0,0,0,0,0,0,0,
677,5.848,-18.82,-3.692,-18.91,-52.83,-3.331,-10.83,-14.85,-5.552,-37.94,-3.337,-27.7,18.06,-31.64,-19.46,-10.82,0,0,0,0,0,0,0,0,0,0,0,0,0,0,0,0,
678,5.941,-21.34,7.789,-12.84,-38.59,-5.528,-19.82,-12.6,12.34,-37.52,8.831,-24.04,17.27,-28.7,-26.72,-15.46,0,0,0,0,0,0,0,0,0,0,0,0,0,0,0,0,
679,6.032,-35.36,-9.368,-16.28,-24.49,-7.428,-28.76,-17.61,-4.718,-48.05,15.62,-15.57,6.138,-23.11,-24.04,-17.57,0,0,0,0,0,0,0,0,0,0,0,0,0,0,0,0,
680,-0.9514,-43,-17.87,-24.27,-38.81,-17.34,-27.82,-15.13,0.9723,-56.98,24.37,-12.71,0.0643,-19.22,-16.58,-18.29,0,0,0,0,0,0,0,0,0,0,0,0,0,0,0,0,
681,-3.82,-30.34,4.272,-13.82,-38.57,-17.33,-15.84,-1.159,13.92,-45.93,28.22,-12.16,15.14,-9.47,-12.78,-17.97,0,0,0,0,0,0,0,0,0,0,0,0,0,0,0,0,
682,-1.258,-18.56,14.08,-3.018,-31.86,-6.637,-17.93,-1.881,-4.747,-40.04,12.46,-22.14,17.47,-4.771,-19.11,-27.07,0,0,0,0,0,0,0,0,0,0,0,0,0,0,0,0,
683,-13.89,-30.82,1.25,-12.05,-61.59,-15.57,-28.85,-13.02,-26,-50.27,-5.864,-34.56,3.688,-9.502,-31.28,-44.19,0,0,0,0,0,0,0,0,0,0,0,0,0,0,0,0,
684,-30.16,-40.62,-11.06,-26.37,-84.32,-31.8,-23.48,-8.18,-14.85,-57.37,-1.643,-26.65,12.99,-6.625,-31.18,-41.18,0,0,0,0,0,0,0,0,0,0,0,0,0,0,0,0,
685,-20.44,-27.76,-11.8,-21.4,-66.21,-23.52,-16.84,0.4282,-8.905,-61.45,17.85,-11.76,24.62,-6.457,-12.64,-13.37,0,0,0,0,0,0,0,0,0,0,0,0,0,0,0,0,
686,-11.02,-32.16,-10.41,-6.828,-52.2,-20.4,-35.77,-13.54,-31.74,-74.03,24.04,-21.95,3.1,-28.16,2.549,4.295,0,0,0,0,0,0,0,0,0,0,0,0,0,0,0,0,
687,-35.02,-64.83,-28.3,-8.789,-63.49,-44.75,-64.24,-35.04,-22.5,-85.99,8.843,-50.47,-19.6,-48.95,-5.316,-6.634,0,0,0,0,0,0,0,0,0,0,0,0,0,0,0,0,
688,-57.72,-76.6,-47.15,-22.6,-76.13,-54.1,-70.24,-34.93,5.271,-81.9,-8.366,-65.57,-16.98,-43.84,-26.16,-29.59,0,0,0,0,0,0,0,0,0,0,0,0,0,0,0,0,
689,-50.73,-63.33,-33.92,-35.31,-68.94,-37.16,-58.38,-21.36,-6.055,-69.48,-10.25,-60.4,-12.27,-27.25,-37.96,-43.23,0,0,0,0,0,0,0,0,0,0,0,0,0,0,0,0,
690,-39.56,-60.02,-7.41,-32.66,-41.96,-27.18,-48.91,-13.53,-2.647,-65.08,1.358,-47.08,-16.49,-16.36,-33.91,-38.02,0,0,0,0,0,0,0,0,0,0,0,0,0,0,0,0,
691,-36.65,-58.2,-2.737,-13.31,-30.48,-25.42,-40.7,-9.214,3.623,-62.2,6.833,-33.36,-17.1,-5.987,-23.21,-22.67,0,0,0,0,0,0,0,0,0,0,0,0,0,0,0,0,
692,-31.39,-39.98,-20.07,-11.06,-52.52,-23.5,-29.88,-4.253,-38.43,-47.58,0.7816,-22.51,-10.28,10.06,-16.06,-13.1,0,0,0,0,0,0,0,0,0,0,0,0,0,0,0,0,
693,-22.13,-17.1,-32.3,-18.71,-70.83,-25.73,-19.81,4.599,-27.19,-28.61,4.079,-10.75,1.431,27.93,-11.52,-6.761,0,0,0,0,0,0,0,0,0,0,0,0,0,0,0,0,
694,-12.54,-6.703,-33.01,-15.58,-68.73,-26.64,-13.22,17.41,23.4,-19.09,8.905,-3.166,6.251,35.73,-7.402,1.401,0,0,0,0,0,0,0,0,0,0,0,0,0,0,0,0,
695,-11.76,-18.24,-35.33,-31.86,-68.29,-27.87,-15.79,19.49,-17.79,-21.3,-8.437,-11.51,-5.246,27.36,-12.06,-2.217,0,0,0,0,0,0,0,0,0,0,0,0,0,0,0,0,
696,-20.56,-32.93,-26.46,-41.72,-68.36,-30.27,-23.18,9.986,-53.52,-28.12,-24.02,-18.58,-8.93,19.83,-22.39,-16.41,0,0,0,0,0,0,0,0,0,0,0,0,0,0,0,0,
697,-23.09,-24.45,-10.68,-13.11,-54.06,-24.17,-23.16,4.618,1.57,-28.46,-19.11,-12.54,6.237,19.42,-22.61,-20.92,0,0,0,0,0,0,0,0,0,0,0,0,0,0,0,0,
698,-17.64,-13.35,-11.38,-6.838,-37.79,-20.5,-17.89,4.768,17.98,-23.6,-20.54,-16.45,5.114,5.579,-22.05,-22.84,0,0,0,0,0,0,0,0,0,0,0,0,0,0,0,0,
699,-15.96,-23.7,-11.13,-20.48,-45.45,-27.3,-15.3,7.864,-22.77,-26.65,-31.4,-26.94,-15.52,-12.77,-37.98,-41.3,0,0,0,0,0,0,0,0,0,0,0,0,0,0,0,0,
700,-20.81,-35.53,-9.629,0.251,-66.07,-29.56,-17.79,13.68,-28.43,-30.51,-32.62,-25.2,-20.03,-9.948,-56.38,-63.97,0,0,0,0,0,0,0,0,0,0,0,0,0,0,0,0,
701,-30.35,-32.83,-25.61,12.08,-61.06,-25.31,-20.49,17.23,-23.2,-21.35,-37.87,-33.1,-11.7,-1.751,-64.54,-73.17,0,0,0,0,0,0,0,0,0,0,0,0,0,0,0,0,
702,-32.86,-24.78,-24.65,-8.135,-37.87,-17.06,-10.41,21.91,-33.79,-14.89,-55.16,-56.64,-11.13,-2.691,-69.73,-72.82,0,0,0,0,0,0,0,0,0,0,0,0,0,0,0,0,
703,-14.97,-22.33,9.506,-2.012,-29.85,-2.275,3.916,27.85,-20.82,-24.51,-59.35,-61.52,-11.69,-0.1075,-65.23,-67.17,0,0,0,0,0,0,0,0,0,0,0,0,0,0,0,0,
704,4.85,-28.19,25.97,29.12,-34.79,7.418,-2.873,25.38,-11.16,-37.95,-51.66,-47.41,-9.98,-1.369,-43.74,-54.79,0,0,0,0,0,0,0,0,0,0,0,0,0,0,0,0,
705,3.995,-31.91,3.45,31.46,-39.97,11.52,-15.46,18.35,-33.05,-45.77,-57.33,-40.93,-10.86,-11.73,-23.8,-40.23,0,0,0,0,0,0,0,0,0,0,0,0,0,0,0,0,
706,-2.409,-27.24,-11.82,5.919,-37.73,15.59,-7.795,12.58,-26.71,-42.19,-63.54,-39.27,-6.852,-10.12,-17.79,-29.52,0,0,0,0,0,0,0,0,0,0,0,0,0,0,0,0,
707,-0.7643,-22.84,2.773,-4.527,-32.67,6.402,-4.971,6.183,-10.53,-28.52,-47.68,-31.65,4.914,-0.7278,-15.83,-24.51,0,0,0,0,0,0,0,0,0,0,0,0,0,0,0,0,
708,0.1919,-21.64,10.95,11.88,-42,-5.724,-22.19,5.944,-56.86,-25.07,-28.81,-26.6,13.06,-4.619,-13.87,-25.02,0,0,0,0,0,0,0,0,0,0,0,0,0,0,0,0,
709,-0.5739,-22.17,-3.668,17.25,-50.92,-4,-31.97,9.151,-81.28,-36.29,-31.46,-33.43,10.95,-11.58,-20.35,-31.9,0,0,0,0,0,0,0,0,0,0,0,0,0,0,0,0,
710,-3.542,-25.02,-20.05,-2.793,-43.62,-7.386,-29.4,7.712,-20.11,-41.48,-38.23,-39.71,7.561,-6.77,-33.47,-42.42,0,0,0,0,0,0,0,0,0,0,0,0,0,0,0,0,
711,-0.8967,-19.39,-13.04,4.173,-25.98,-2.975,-17.07,18.83,26.63,-28.08,-10.19,-18.12,19.31,8.698,-30.62,-40.53,0,0,0,0,0,0,0,0,0,0,0,0,0,0,0,0,
712,27.56,6.351,25.28,42.65,10.72,37.58,17.8,47.17,39.3,2.472,49.74,24.35,46.62,36.48,3.732,-12.67,0,0,0,0,0,0,0,0,0,0,0,0,0,0,0,0,
713,61.38,41.7,50.79,46.23,42.7,73.61,51.51,68.35,66.35,33.69,96.21,45.9,68.78,65.08,48.48,27.15,0,0,0,0,0,0,0,0,0,0,0,0,0,0,0,0,
714,69.32,61.3,41.82,35.33,41.74,75.9,53.66,75.16,71.87,38.79,108.5,40.52,73.97,68.2,72.07,53.04,0,0,0,0,0,0,0,0,0,0,0,0,0,0,0,0,
715,64.67,54.08,36.7,52.64,33.36,67.75,36.95,67.16,51.76,15.02,91.25,30.24,63.97,43.94,68.53,52.25,0,0,0,0,0,0,0,0,0,0,0,0,0,0,0,0,
716,50.09,33.3,23.87,33.48,5.648,40.24,15.8,41.99,26.35,-13.39,48.27,11.81,38.29,16.42,45.16,24.82,0,0,0,0,0,0,0,0,0,0,0,0,0,0,0,0,
717,16.38,12.6,-7.384,-14.93,-43.29,-4.73,-6.037,24.75,-18.79,-32.9,3.074,-14.43,11.18,5.229,9.987,-14.65,0,0,0,0,0,0,0,0,0,0,0,0,0,0,0,0,
718,-7.549,-2.147,-11.46,2.49,-39.51,-16.14,-14.72,30.28,-38.4,-44.74,-20.51,-26.94,3.869,10.84,-19.26,-39.11,0,0,0,0,0,0,0,0,0,0,0,0,0,0,0,0,
719,-4.378,-2.278,1.059,46.58,0.7944,6.427,-5.335,40.39,-19.54,-41.85,-21.72,-22.94,9.867,20.45,-23.91,-32.28,0,0,0,0,0,0,0,0,0,0,0,0,0,0,0,0,
720,3.196,11.15,8.477,43.84,6.079,20.13,9.675,47.29,-24.63,-26.46,-8.99,-15.36,17.09,29.19,-4.313,-5.035,0,0,0,0,0,0,0,0,0,0,0,0,0,0,0,0,
721,1.877,28.15,28.82,29.32,3.478,24.58,16.7,49.69,-22.18,-23.29,-2.204,-5.944,27.69,37.78,18.87,16.07,0,0,0,0,0,0,0,0,0,0,0,0,0,0,0,0,
722,-2.835,40.75,31.51,19.87,2.378,27.46,8.09,37.67,3.504,-35.04,-12.09,-1.116,29.46,32.91,25.99,18.86,0,0,0,0,0,0,0,0,0,0,0,0,0,0,0,0,
723,-12.39,31.18,-1.983,2.058,-22.39,12.64,-13.78,16.17,-30.45,-42.11,-23.15,-13.57,11.48,11.54,16.1,11.73,0,0,0,0,0,0,0,0,0,0,0,0,0,0,0,0,
724,-24.96,1.239,-18.79,-3.34,-19.34,-2.525,-30.51,2.139,-61.55,-48.57,-26.08,-24.39,-3.956,-2.654,0.0618,0.5111,0,0,0,0,0,0,0,0,0,0,0,0,0,0,0,0,
725,-21.6,-11.81,0.773,-0.7436,21.93,13.11,-27.7,2.955,-5.69,-57.44,-25.02,-11.74,-2.412,-2.591,-11.47,-10.35,0,0,0,0,0,0,0,0,0,0,0,0,0,0,0,0,
726,-6.753,-5.561,16.38,-0.6819,31.51,32.36,-16.74,12.33,14.7,-52.72,-23.58,-1.739,0.937,-3.473,-14.38,-11.51,0,0,0,0,0,0,0,0,0,0,0,0,0,0,0,0,
727,-4.939,-2.545,11.35,11.27,19.37,30.79,-4.376,23.23,-22.02,-40.82,-22.35,-5.449,9.026,-1.923,-14.23,-8.3,0,0,0,0,0,0,0,0,0,0,0,0,0,0,0,0,
728,2.219,17.93,13.16,15.43,38.73,40.44,16.89,36.95,6.14,-34.05,-16.6,6.776,32.44,8.41,-14.7,-11.98,0,0,0,0,0,0,0,0,0,0,0,0,0,0,0,0,
729,29.34,56.31,25.02,5.577,60.02,61.85,32.73,46.46,41.3,-24.98,-8.918,24.45,45.62,12.3,-12.15,-17.7,0,0,0,0,0,0,0,0,0,0,0,0,0,0,0,0,
730,41.55,66.85,22.24,18.84,48.9,62.11,33.37,43.03,14.58,-18.67,-5.519,22.11,35.1,5.297,-8.143,-21.06,0,0,0,0,0,0,0,0,0,0,0,0,0,0,0,0,
731,35.73,54.59,14.88,33.3,36.47,52.92,36.77,40.74,6.731,-23.26,-1.077,15.58,26,-0.5241,-7.454,-26.39,0,0,0,0,0,0,0,0,0,0,0,0,0,0,0,0,
732,34.45,55.2,18.76,17.78,42.62,53.59,44.5,49.96,22.59,-24.4,4.41,13.67,27.63,-0.7012,-7.434,-29.61,0,0,0,0,0,0,0,0,0,0,0,0,0,0,0,0,
733,27.5,64.05,22.47,18.69,52.81,58.45,47.37,56.9,17.46,-13.67,4.969,15.08,37.64,10.7,-1.484,-19.41,0,0,0,0,0,0,0,0,0,0,0,0,0,0,0,0,
734,18.33,70.98,20.67,40.12,56.13,60.68,46.87,52.7,12.95,-1.511,4.466,25.18,53.86,31.16,12.02,4.943,0,0,0,0,0,0,0,0,0,0,0,0,0,0,0,0,
735,18.98,69.31,13.93,33.58,45.48,51.34,37.76,44.54,13.24,1.451,1.98,26.56,51.77,37.6,22.32,26.32,0,0,0,0,0,0,0,0,0,0,0,0,0,0,0,0,
736,15.39,53.24,10.9,23.05,36.7,43.94,29,43.52,9.081,-2.621,-7.95,12.15,33.75,29.31,15.18,28.94,0,0,0,0,0,0,0,0,0,0,0,0,0,0,0,0,
737,12.7,48.16,17.07,34.38,49.75,54.93,33.93,47.01,8.313,-2.869,-15.91,1.965,31.01,25.16,-5.457,19.8,0,0,0,0,0,0,0,0,0,0,0,0,0,0,0,0,
738,16.6,57.71,5.251,23.83,48.28,51.14,27.13,33.85,12.67,-2.097,-11.06,-0.331,32.45,21.42,-20.88,15.68,0,0,0,0,0,0,0,0,0,0,0,0,0,0,0,0,
739,8.341,50.64,-22.12,-11.13,17.45,26.35,5.199,11.8,15.88,-5.16,4.761,6.26,27.84,18.79,-18.28,23.82,0,0,0,0,0,0,0,0,0,0,0,0,0,0,0,0,
740,4.997,42.97,-20.26,-21.62,15.05,27.97,9.23,16.25,-0.9238,0.028,23.55,18.24,34.8,24.66,-2.017,38.98,0,0,0,0,0,0,0,0,0,0,0,0,0,0,0,0,
741,20.21,55.07,1.257,-10.2,39.38,44.23,27.14,33.85,-15.17,5.808,32.55,11.77,35.46,20.49,6.955,43.56,0,0,0,0,0,0,0,0,0,0,0,0,0,0,0,0,
742,17.17,56.62,4.542,-2.981,36.7,35.99,19.91,32.75,11.36,-7.185,32.58,-0.8888,19.55,6.864,-3.053,28.23,0,0,0,0,0,0,0,0,0,0,0,0,0,0,0,0,
743,0.1728,45.29,-0.7128,4.15,24.29,27.26,8.98,27.45,28.12,-21.07,41.33,4.99,13.38,7.719,-15.08,9.75,0,0,0,0,0,0,0,0,0,0,0,0,0,0,0,0,
744,2.538,37.82,-3.743,2.106,26.41,33.12,10.9,26.37,11.96,-16.43,53.91,9.934,11.44,13.78,-13.32,6.388,0,0,0,0,0,0,0,0,0,0,0,0,0,0,0,0,
745,7.293,20.27,-4.939,-10.61,27.29,33.36,7.112,24.01,26.11,-3.345,56.16,15.71,5.803,15.29,-2.903,16.56,0,0,0,0,0,0,0,0,0,0,0,0,0,0,0,0,
746,8.251,4.381,8.623,-1.083,32.63,31.93,6.531,32.92,40.58,8.631,55.42,34.06,8.997,19.16,6.372,25.82,0,0,0,0,0,0,0,0,0,0,0,0,0,0,0,0,
747,16.25,8.136,21.84,21.9,40.41,32.98,15.98,42.86,4.58,12.03,52.52,33.68,3.378,13.1,4.168,19.33,0,0,0,0,0,0,0,0,0,0,0,0,0,0,0,0,
748,15.3,11.85,20.03,28.58,33.74,33.68,19.78,43.63,0.8117,8.097,53.75,28.61,-8.751,4.78,-7.341,3.803,0,0,0,0,0,0,0,0,0,0,0,0,0,0,0,0,
749,19.96,17.31,21.9,29.06,26.89,47.59,21.74,47.86,54.59,8.861,74.49,57.25,4.314,16.95,-3.572,3.939,0,0,0,0,0,0,0,0,0,0,0,0,0,0,0,0,
750,45.95,31.53,22.88,25,35.32,67.38,26.32,40.2,70.57,7.44,86.52,80.85,20.87,27.55,18.84,20.3,0,0,0,0,0,0,0,0,0,0,0,0,0,0,0,0,
751,57.47,33.73,19.33,13.68,47.55,69.61,30.44,21.65,42.6,4.059,70.19,75.03,19.33,23.07,31.61,31.24,0,0,0,0,0,0,0,0,0,0,0,0,0,0,0,0,
752,49.17,36.87,17.42,6.72,36.79,56.56,41.27,23.95,29.46,12.88,63.85,73.29,28.24,29.94,29.59,33.62,0,0,0,0,0,0,0,0,0,0,0,0,0,0,0,0,
753,46.72,57.75,-6.324,1.556,3.55,45.59,49.42,30.06,24.19,15.69,78.03,73.16,43.61,43.25,29.69,36.69,0,0,0,0,0,0,0,0,0,0,0,0,0,0,0,0,
754,44.51,63.6,-20.71,5.335,0.5253,47.75,41.26,19.68,22.42,3.623,85.94,61.84,38.92,38.17,30.53,37.33,0,0,0,0,0,0,0,0,0,0,0,0,0,0,0,0,
755,42.5,48.33,22.09,17.84,42.04,56.52,31.61,13.84,50.45,0.7006,87.64,61.56,31.28,28.56,27.72,31.66,0,0,0,0,0,0,0,0,0,0,0,0,0,0,0,0,
756,52.08,49.08,58.37,15.54,69.68,56.6,29.5,10.7,79.15,-2.528,85.41,72.64,35.4,33.32,28.99,27.07,0,0,0,0,0,0,0,0,0,0,0,0,0,0,0,0,
757,57.99,61.93,39.15,0.4361,58.5,47.1,20.75,-6.476,57.15,-21.02,71.22,68.37,35.06,41.58,32.87,29.47,0,0,0,0,0,0,0,0,0,0,0,0,0,0,0,0,
758,48.09,55.4,17.8,-11.66,47.33,39.65,7.315,-25.93,22.56,-28.23,59.58,56.19,31.49,46.19,35.21,35.56,0,0,0,0,0,0,0,0,0,0,0,0,0,0,0,0,
759,40.79,39.5,26.66,-8.845,63.05,41.97,4.533,-29.09,43.76,-22.85,60.44,58.46,33.69,47.08,41.1,38.68,0,0,0,0,0,0,0,0,0,0,0,0,0,0,0,0,
760,40.22,34.85,37.22,-1.417,74.11,39.77,1.679,-22.42,77.3,-31.32,59.06,51.95,26.03,33.66,43.94,33,0,0,0,0,0,0,0,0,0,0,0,0,0,0,0,0,
761,25.36,30.78,24.02,-16.86,50.8,21.86,-11.31,-24.61,61.3,-36.88,60.29,24.21,8.926,18.63,34.11,20.23,0,0,0,0,0,0,0,0,0,0,0,0,0,0,0,0,
762,8.323,21.11,9.356,-23,29.62,7.506,-19.17,-30.94,46.56,-21.85,74.54,13.22,2.903,20.56,23.86,12.48,0,0,0,0,0,0,0,0,0,0,0,0,0,0,0,0,
763,6.739,9.398,8.76,-10.97,32.39,-7.865,-26.93,-36.81,52.4,-14.47,71.26,16.83,0.1343,17.35,22.46,15.48,0,0,0,0,0,0,0,0,0,0,0,0,0,0,0,0,
764,-4.71,-4.789,-12.14,-35,23.76,-38.41,-45.7,-52.57,22.74,-20.18,44.91,7.619,-6.256,5.134,23.73,23.02,0,0,0,0,0,0,0,0,0,0,0,0,0,0,0,0,
765,-25.46,-10.76,-41.63,-56.87,-7.185,-55.13,-60,-65.66,-6.041,-19.2,39.06,0.7419,-6.766,5.966,28.13,31,0,0,0,0,0,0,0,0,0,0,0,0,0,0,0,0,
766,-30.53,-13.7,-39.21,-47.3,-33.46,-55.52,-66.94,-66.86,17.88,-24.4,47.34,-2.388,-14.97,0.547,31.93,33.17,0,0,0,0,0,0,0,0,0,0,0,0,0,0,0,0,
767,-29.89,-26.05,-26.79,-61.6,-26.22,-59.19,-66.39,-65.51,36.43,-35.79,33.03,-11.77,-30.92,-21.48,22.86,19.32,0,0,0,0,0,0,0,0,0,0,0,0,0,0,0,0,
768,-27.71,-28.84,-21.39,-61.51,1.742,-55.07,-51.78,-55.17,21.9,-29.06,7.544,-16.73,-27.71,-31.1,3.599,-4.52,0,0,0,0,0,0,0,0,0,0,0,0,0,0,0,0,
769,-20,-16.97,-18.1,-31.19,3.311,-51.33,-40.33,-40.28,7.689,-15.52,-8.932,-22.28,-6.973,-21.48,-13.65,-18.37,0,0,0,0,0,0,0,0,0,0,0,0,0,0,0,0,
770,-12.13,0.1582,-24.61,-51.38,-4.455,-43.14,-32.74,-35.44,-11.8,-7.906,-10.37,-23.43,9.78,-6.145,-19.38,-14.41,0,0,0,0,0,0,0,0,0,0,0,0,0,0,0,0,
771,1.544,21.9,-25.98,-78.28,10.17,-12.45,-22.51,-35.95,-28.32,2.713,-0.1601,-12.42,5.494,-4.076,-14.18,-7.369,0,0,0,0,0,0,0,0,0,0,0,0,0,0,0,0,
772,2.312,19.7,-8.491,-42.35,15.74,-9.511,-29.96,-40.12,-8.901,8.523,1.605,-12.33,-15.12,-23.73,-14.33,-14.66,0,0,0,0,0,0,0,0,0,0,0,0,0,0,0,0,
773,-16.21,-1.723,14.48,-3.99,18.77,-37.41,-36.38,-39.51,25.41,10.51,5.556,-11.17,-13.67,-32.51,-18.06,-26.14,0,0,0,0,0,0,0,0,0,0,0,0,0,0,0,0,
774,-7.218,12.74,24.42,0.0424,41.48,-21.25,-13.92,-22.54,37.4,20.45,32.45,13.03,13.19,-13.3,-1.52,-16.97,0,0,0,0,0,0,0,0,0,0,0,0,0,0,0,0,
775,21.83,45.72,20.61,-1.936,50.58,14.19,5.698,-8.302,33.73,24.54,48.78,27.93,25.02,3.429,25.54,7.597,0,0,0,0,0,0,0,0,0,0,0,0,0,0,0,0,
776,23.11,45.98,29,9.125,47.36,7.875,5.453,-9.207,37.31,16.21,34.02,22.91,15.74,0.4558,32.35,17.81,0,0,0,0,0,0,0,0,0,0,0,0,0,0,0,0,
777,13.44,28.96,43.78,26.15,50.3,-6.523,2.487,-15.73,38.64,8.979,22.71,22.5,1.068,-10.29,24.06,4.971,0,0,0,0,0,0,0,0,0,0,0,0,0,0,0,0,
778,12.31,20.35,36.31,15.59,39.12,-4.357,-0.8852,-26.11,17.91,5.391,29.57,26.86,-5.381,-10.4,21.67,-8.601,0,0,0,0,0,0,0,0,0,0,0,0,0,0,0,0,
779,8.367,23.87,21,-12.26,23.42,-6.396,-1.843,-32.76,8.417,3.611,37.31,30.52,10.41,3.744,25.41,-3.067,0,0,0,0,0,0,0,0,0,0,0,0,0,0,0,0,
780,9.055,34.16,8.609,-16.44,22.05,-13.47,-5.025,-30.47,32.45,3.452,34.05,25.85,22.24,9.068,25.29,8.332,0,0,0,0,0,0,0,0,0,0,0,0,0,0,0,0,
781,7.923,31.97,-2.26,-20.37,16.97,-24.51,-16.08,-30.58,41.33,5.868,19.41,11.27,11.31,0.3754,16.21,1.403,0,0,0,0,0,0,0,0,0,0,0,0,0,0,0,0,
782,-4.683,26.21,6.93,-30.31,11.97,-31.76,-9.554,-28.77,23.42,19.4,11.51,18.07,16.54,2.674,7.965,-12.94,0,0,0,0,0,0,0,0,0,0,0,0,0,0,0,0,
783,-3.981,35.64,22.07,-6.266,19.46,-21.26,7.905,-19.92,12.51,35.47,12.29,36.13,32.59,7.933,14.24,-11.41,0,0,0,0,0,0,0,0,0,0,0,0,0,0,0,0,
784,-0.613,29.62,10.05,1.264,12.68,-23.5,-6.058,-23.75,4.105,36.5,-4.545,18.48,15.52,-7.643,24.87,-4.506,0,0,0,0,0,0,0,0,0,0,0,0,0,0,0,0,
785,-20.09,0.7692,-8.495,-47.7,-1.295,-46.05,-24.22,-33.77,-8.707,40.08,-17.47,1.215,1.114,-16.31,28.09,-3.917,0,0,0,0,0,0,0,0,0,0,0,0,0,0,0,0,
786,-23.61,-3.465,2.292,-55.89,13.9,-37.26,-6.731,-22.44,-27.16,54.97,-1.193,20.25,18.8,-2.507,32.04,0.039,0,0,0,0,0,0,0,0,0,0,0,0,0,0,0,0,
787,-6.493,10.93,13.01,-10.16,17.74,-13.38,5.067,-7.902,-40.28,51.83,-4.697,21.06,19.39,-5.4,31.22,-0.6084,0,0,0,0,0,0,0,0,0,0,0,0,0,0,0,0,
788,-13.45,9.535,-1.276,-9.901,-7.073,-19.86,1.815,-7.332,-9.634,43.1,-28.06,9.44,11.4,-14.85,21.01,-10.74,0,0,0,0,0,0,0,0,0,0,0,0,0,0,0,0,
789,-12.8,13.79,10.84,-16.6,6.537,-13.55,20.36,-0.035,24.39,53.2,-15.05,35.43,36.05,3.188,27.1,-2.467,0,0,0,0,0,0,0,0,0,0,0,0,0,0,0,0,
790,17.24,23.29,40.41,29.11,29.28,15.83,26.14,1.574,15.49,42.2,7.002,55.36,50.17,10.44,50.88,23.84,0,0,0,0,0,0,0,0,0,0,0,0,0,0,0,0,
791,25.96,13.09,27.3,40.36,9.049,15.88,6,-18.41,27.24,9.093,12.37,48.96,37,-5.089,63.04,34.03,0,0,0,0,0,0,0,0,0,0,0,0,0,0,0,0,
792,23.82,12.02,18.72,-6.881,15.98,6.519,14.29,-27.59,42.06,5.928,30.68,56.88,42.87,-6.45,65.29,28.19,0,0,0,0,0,0,0,0,0,0,0,0,0,0,0,0,
793,38.76,26.64,41.12,-25.59,49.84,14.43,32.93,-21.26,2.817,10.67,40.56,59.86,57.69,-9.123,67.63,21.04,0,0,0,0,0,0,0,0,0,0,0,0,0,0,0,0,
794,40.1,24.05,39.53,-2.893,47.18,12.29,24.76,-22.69,1.187,-2.551,28.75,45.11,55.38,-19.9,58.14,7.465,0,0,0,0,0,0,0,0,0,0,0,0,0,0,0,0,
795,30.84,14.31,23.78,10.16,45.62,7.247,16.89,-23.16,45,-0.3557,27.34,40.88,50.52,-14.76,43.33,-3.936,0,0,0,0,0,0,0,0,0,0,0,0,0,0,0,0,
796,27.9,11.12,15.28,2.503,55.26,13.89,15.38,-16.49,38.17,1.939,29.28,39.53,49.17,-13.01,42.01,1.18,0,0,0,0,0,0,0,0,0,0,0,0,0,0,0,0,
797,18.68,9.169,15.14,-3.133,43.7,14.6,15.67,-13.98,26.24,-18.25,29.52,35.07,51.62,-23.17,47.73,10.3,0,0,0,0,0,0,0,0,0,0,0,0,0,0,0,0,
798,12.02,9.956,32.75,-1.594,36.41,9.482,21.35,-20.99,25.19,-24.1,38.56,28.72,52.5,-27.92,44.71,6.834,0,0,0,0,0,0,0,0,0,0,0,0,0,0,0,0,
799,7.731,2.265,28.79,-1.651,34.21,5.668,10.52,-32.07,-15.18,-13.24,37.97,10.39,40.47,-31.26,33.56,-4.678,0,0,0,0,0,0,0,0,0,0,0,0,0,0,0,0,
800,-3.114,-3.02,9.056,4.688,29.92,3.648,1.592,-26.51,-8.961,-6.516,36.19,6.241,35.21,-24.64,29.65,-6.685,0,0,0,0,0,0,0,0,0,0,0,0,0,0,0,0,
801,-0.6965,15.06,21.09,15.8,41.59,3.557,18.61,-7.943,49.81,3.878,46.49,18.09,45.36,-9.798,38.87,2.88,0,0,0,0,0,0,0,0,0,0,0,0,0,0,0,0,
802,4.207,24.89,28.93,14.88,44.5,-7.67,21.93,-6.635,36.55,7.819,39.25,6.191,49.37,-10.68,42.47,2.245,0,0,0,0,0,0,0,0,0,0,0,0,0,0,0,0,
803,-6.553,18.22,18.31,0.9592,29.92,-18.84,12.66,-14.49,-3.08,4.765,26.21,-4.891,51.73,-9.966,30.56,-9.175,0,0,0,0,0,0,0,0,0,0,0,0,0,0,0,0,
804,-4.195,27.89,12.13,-18.84,18.14,-8.055,20.82,-14.36,14.6,10.19,38.08,12.82,53.22,0.4903,19.58,-7.689,0,0,0,0,0,0,0,0,0,0,0,0,0,0,0,0,
805,9.231,33.46,-3.124,-24.61,14.38,-0.6136,17.94,-17.32,27.78,6.345,44.93,24.37,42.14,-4.716,18.53,1.947,0,0,0,0,0,0,0,0,0,0,0,0,0,0,0,0,
806,11.34,21.21,2.393,-2.519,41.41,-4.497,5.076,-14.88,21.29,-1.945,41.89,31.11,44.37,-7.113,25.35,6.058,0,0,0,0,0,0,0,0,0,0,0,0,0,0,0,0,
807,20.13,23.07,28.17,11.77,65.59,2.642,9.53,-5.334,28.88,3.59,54,44.67,60.3,2.678,36.96,10.23,0,0,0,0,0,0,0,0,0,0,0,0,0,0,0,0,
808,26.72,22.05,15.21,-4.656,37.43,3.731,9.127,-12.75,29.17,1.121,55.78,39.47,58.21,-6.336,40.26,7.543,0,0,0,0,0,0,0,0,0,0,0,0,0,0,0,0,
809,19.58,6.251,7.301,-15.4,39.97,5.81,7.022,-21.15,35.28,-5.106,48.52,37.21,59,-18.43,36.71,-1.905,0,0,0,0,0,0,0,0,0,0,0,0,0,0,0,0,
810,29.36,15.7,35.71,-5.668,95.11,28.58,18.37,-14.12,54.71,-3.736,57.46,48.24,66.6,-17.67,41.87,3.817,0,0,0,0,0,0,0,0,0,0,0,0,0,0,0,0,
811,29.99,30.11,27.25,-0.1057,88.13,21.27,13.61,-14.6,39.37,-10.91,50.66,31.92,48.92,-28.03,43.64,17.24,0,0,0,0,0,0,0,0,0,0,0,0,0,0,0,0,
812,-2.796,15.49,7.38,2.973,47,-9.869,4.34,-14.67,15.26,-6.136,32.45,18.59,34.65,-37.37,30.56,16.79,0,0,0,0,0,0,0,0,0,0,0,0,0,0,0,0,
813,-11.13,6.104,34.05,11.62,59.59,2.635,16.82,-5.462,25.56,6.065,35.58,35.83,38.04,-36.47,18.51,7.764,0,0,0,0,0,0,0,0,0,0,0,0,0,0,0,0,
814,3.023,7.939,39.74,15.68,73.09,24.11,23.28,-9.696,17.16,-11.67,27.87,35.74,30.41,-42.49,8.739,-1.474,0,0,0,0,0,0,0,0,0,0,0,0,0,0,0,0,
815,0.6859,7.89,12.77,15.96,62.08,18.79,23.97,-11.64,-23.6,-24.38,8.316,25.95,32.18,-38.12,-4.756,-6.331,0,0,0,0,0,0,0,0,0,0,0,0,0,0,0,0,
816,7.845,22.56,13.36,1.304,54.98,22.65,34.01,-1.273,-32.94,-13.46,10.31,27.7,40.63,-27.63,-10.81,-5.821,0,0,0,0,0,0,0,0,0,0,0,0,0,0,0,0,
817,13.65,30.94,7.43,-24.74,37.56,19.67,24.64,-11.29,-1.867,-15.16,18.75,15.32,25.19,-37.56,-8.884,-12.81,0,0,0,0,0,0,0,0,0,0,0,0,0,0,0,0,
818,-6.23,14.21,-13.75,-21.43,31.65,-8.688,-5.492,-33.55,25.48,-16.81,30.73,10.93,17.59,-40.38,-4.429,-22.83,0,0,0,0,0,0,0,0,0,0,0,0,0,0,0,0,
819,-18.25,-1.529,-1.027,-20.22,46.25,-28.52,-23.57,-42.3,21.9,-11.44,47.62,27.95,24,-24.24,7.556,-14.4,0,0,0,0,0,0,0,0,0,0,0,0,0,0,0,0,
820,-18.87,-9.373,5.29,-52.87,38.08,-32.01,-24.17,-43.98,5.629,-21.11,47.82,33.51,15.36,-20.6,21.95,5.607,0,0,0,0,0,0,0,0,0,0,0,0,0,0,0,0,
821,-20.4,-12.61,-14.11,-44.61,28.64,-26.1,-22.46,-40.56,8.581,-30.39,40.78,33.79,10.24,-29.24,26.63,11.73,0,0,0,0,0,0,0,0,0,0,0,0,0,0,0,0,
822,-16.28,-9.669,-3.653,-4.823,48.14,-12.74,-22.11,-32.96,10.07,-31.77,32.24,35.53,11.8,-33.61,20.98,-0.7103,0,0,0,0,0,0,0,0,0,0,0,0,0,0,0,0,
823,-16.85,-6.384,15.44,-8.371,60.27,-4.054,-11.14,-25.58,-6.691,-32.6,16.7,27.09,3.126,-30.72,11.15,-16.53,0,0,0,0,0,0,0,0,0,0,0,0,0,0,0,0,
824,-16.55,-0.3461,5.856,-12.75,45.65,-2.862,-0.8379,-19.63,-11.35,-26.63,13.65,21.51,1.319,-22.3,1.805,-24.84,0,0,0,0,0,0,0,0,0,0,0,0,0,0,0,0,
825,-10.53,4.971,2.554,-1.083,30.53,-5.784,-7.507,-20.46,-6.888,-20.35,24.55,27.74,15.37,-10.86,-2.79,-22.15,0,0,0,0,0,0,0,0,0,0,0,0,0,0,0,0,
826,-11.29,12.24,13.71,-9.503,40.61,-4.38,-4.269,-18.12,-3.979,-13.38,35.15,43.47,30.76,3.291,3.529,-3.221,0,0,0,0,0,0,0,0,0,0,0,0,0,0,0,0,
827,-5.595,26.09,9.237,-6.476,49.41,3.132,6.65,-14.45,8.033,-0.9662,40.89,56.54,33.05,6.038,17.71,22.51,0,0,0,0,0,0,0,0,0,0,0,0,0,0,0,0,
828,5.858,20.79,-4.834,-0.2063,22.3,-0.2082,-9.402,-28.68,4.249,6.654,38.94,53.4,27.11,-5.854,25.59,31.97,0,0,0,0,0,0,0,0,0,0,0,0,0,0,0,0,
829,6.482,3.684,-8.202,-16.42,0.6418,-12.05,-27.48,-39.07,-7.185,13.44,36.16,46.66,31.15,-8.175,22.87,23.1,0,0,0,0,0,0,0,0,0,0,0,0,0,0,0,0,
830,5.575,8.826,-9.906,-15.76,8.38,-19.08,-19.8,-25.73,9.466,20.48,30.35,41.32,36.01,-5.146,14.5,9.92,0,0,0,0,0,0,0,0,0,0,0,0,0,0,0,0,
831,8.352,20.61,-12.33,-6.795,12.92,-17.56,-1.439,-9.678,9.227,21.27,25.39,42.67,36.1,-9.13,6.256,1.318,0,0,0,0,0,0,0,0,0,0,0,0,0,0,0,0,
832,21.53,30.97,2.533,-6.583,25.28,2.23,21.05,0.5359,-11.36,27.16,43.45,67.49,48.61,-3.875,9.95,3.958,0,0,0,0,0,0,0,0,0,0,0,0,0,0,0,0,
833,44.56,50.42,22.06,11.19,44.58,22.85,33.73,1.661,17.66,33.47,56.94,80.45,57.78,2.094,21.4,10.18,0,0,0,0,0,0,0,0,0,0,0,0,0,0,0,0,
834,44.24,54.59,24.97,15.91,36.85,16.09,24.68,-9.218,50.25,25.2,32.16,56.29,50.4,-4.129,16.21,4.838,0,0,0,0,0,0,0,0,0,0,0,0,0,0,0,0,
835,27.38,45.69,21.17,0.8715,26.61,8.079,17.29,-9.493,34.07,15.71,14.4,48.02,53.44,0.8615,-2.585,0.4738,0,0,0,0,0,0,0,0,0,0,0,0,0,0,0,0,
836,36.82,53.11,22.37,15.08,36.77,27.39,21.9,2.32,37.45,15.55,33.7,70.68,63.65,10.63,-5.003,14.84,0,0,0,0,0,0,0,0,0,0,0,0,0,0,0,0,
837,53.98,52.84,27.65,19.76,47.42,42.99,16.78,-2.735,47.95,10.7,45.17,73.27,47.39,-7.474,10.57,27.64,0,0,0,0,0,0,0,0,0,0,0,0,0,0,0,0,
838,39.78,23.96,25.5,-4.985,56.66,30.73,-2.165,-20.42,14.06,-2.697,33.21,56.09,20.88,-26.12,20.09,15.57,0,0,0,0,0,0,0,0,0,0,0,0,0,0,0,0,
839,21.98,11.23,21.01,10.2,61.84,24.61,-5.496,-19.8,12.14,-3.61,35.49,62.21,25.14,-4.635,19.65,-1.965,0,0,0,0,0,0,0,0,0,0,0,0,0,0,0,0,
840,32.71,29.37,29.64,24.14,53.28,38.62,10.82,-5.451,54.26,11.77,50.86,77.29,39.11,21.16,22.08,1.313,0,0,0,0,0,0,0,0,0,0,0,0,0,0,0,0,
841,37.4,31.8,19.7,-17.86,46.55,35.75,14.18,-2.301,51.21,19.76,51.39,61.11,30.82,18.07,30.32,20.79,0,0,0,0,0,0,0,0,0,0,0,0,0,0,0,0,
842,16.84,20.02,-6.617,-21.34,50.44,20.63,9.097,0.3437,25.34,21.91,50.97,36.04,29.69,17.58,40.53,42.49,0,0,0,0,0,0,0,0,0,0,0,0,0,0,0,0,
843,10.04,22.47,7.349,20.32,50.54,25.4,10.05,10.98,32.64,28.86,58.33,37.26,39.53,20.85,46.59,51.31,0,0,0,0,0,0,0,0,0,0,0,0,0,0,0,0,
844,22.74,15.81,29.07,13.94,49.88,31.31,1.216,4.075,43.7,25.53,53.45,50.02,25.91,5.588,41.4,32.91,0,0,0,0,0,0,0,0,0,0,0,0,0,0,0,0,
845,26.54,-0.2624,13.3,-4.353,60.55,24.96,0.9166,-12.4,43.29,18.83,41.45,56.02,8.356,-0.0746,28.9,4.795,0,0,0,0,0,0,0,0,0,0,0,0,0,0,0,0,
846,23.14,3.775,3.532,6.482,60.1,23.63,18.73,-6.478,42.64,26.34,29.36,52.36,9.944,11.6,18.52,-0.8431,0,0,0,0,0,0,0,0,0,0,0,0,0,0,0,0,
847,20.38,11.06,9.487,7.973,37.22,22.41,18.11,9.05,26.68,31.81,12.45,42.86,15.08,11.99,14.5,14.84,0,0,0,0,0,0,0,0,0,0,0,0,0,0,0,0,
848,16.63,10.06,8.271,9.569,29.11,18.16,12.2,13.68,3.704,28.79,6.242,43.46,19.1,9.305,17.44,27.67,0,0,0,0,0,0,0,0,0,0,0,0,0,0,0,0,
849,15.51,12.9,15.82,19.52,42.72,21.86,22.87,12.03,6.693,30.42,9.218,46.69,18.02,13.8,18.84,23.59,0,0,0,0,0,0,0,0,0,0,0,0,0,0,0,0,
850,17.08,10.98,28.89,16.69,42.39,23.71,16.23,2.538,5.213,30.04,-3.994,28.62,15.61,11.65,7.585,8.02,0,0,0,0,0,0,0,0,0,0,0,0,0,0,0,0,
851,16.69,8.047,19.15,12.59,21.69,15.87,-4.954,-12.15,-38.36,15.73,-26.95,2.667,24.67,4.186,-13.87,-5.086,0,0,0,0,0,0,0,0,0,0,0,0,0,0,0,0,
852,11.74,12.36,-1.328,12.61,6.688,17.52,-4.031,-14.77,-50.59,-1.312,-27.45,-1.761,28.31,2.091,-31.04,-8.992,0,0,0,0,0,0,0,0,0,0,0,0,0,0,0,0,
853,13.93,11.42,11.31,7.183,23.97,37.92,12.2,-5.631,5.488,-1.299,-1.712,12.56,28.68,10.03,-24.99,3.13,0,0,0,0,0,0,0,0,0,0,0,0,0,0,0,0,
854,30.19,11.05,42.13,-4.504,54.08,50.7,20.15,0.3277,25.5,7.931,12.47,18.2,43.82,17.09,0.9512,29.52,0,0,0,0,0,0,0,0,0,0,0,0,0,0,0,0,
855,30.73,15.47,30.66,-14.38,41.05,35.91,11.11,1.313,-13.65,7.852,-0.4318,2.704,40.91,4.188,9.734,39.09,0,0,0,0,0,0,0,0,0,0,0,0,0,0,0,0,
856,7.979,6.341,0.0777,-5.175,5.585,14.73,-5.782,0.5821,-24.69,8.668,-6.112,-12.79,9.788,-17.92,-9.342,17.02,0,0,0,0,0,0,0,0,0,0,0,0,0,0,0,0,
857,2.174,-8.877,6.772,12.26,13.95,9.324,-10.13,-2.061,-10.59,10.75,3.598,-12.03,-9.866,-32.33,-22.52,-8.274,0,0,0,0,0,0,0,0,0,0,0,0,0,0,0,0,
