%OpenBCI Raw EXG Data
%Number of channels = 16
%Sample Rate = 125 Hz
%Board = OpenBCI_GUI$BoardCytonSerialDaisy
Sample Index,EXG Channel 0,EXG Channel 1,EXG Channel 2,EXG Channel 3,EXG Channel 4,EXG Channel 5,EXG Channel 6,EXG Channel 7,EXG Channel 8,EXG Channel 9,EXG Channel 10,EXG Channel 11,EXG Channel 12,EXG Channel 13,EXG Channel 14,EXG Channel 15,Accel Channel 0,Accel Channel 1,Accel Channel 2,Other,Other,Other,Other,Other,Other,Other,Analog Channel 0,Analog Channel 1,Analog Channel 2,Timestamp,Other,Timestamp (Formatted),Annotations
1,0,0,0,0,0,-0,0,0,0,-0,0,0,-0,-0,0,0,0,0,0,0,0,0,0,0,0,0,0,0,0,0,0,0,T0
2,-8.953,-3.72,-11.68,-17.44,-2.245,2.531,-6.631,-10.01,-4.265,-20.97,-15.57,-1.387,-0.7283,-4.486,3.048,1.502,0,0,0,0,0,0,0,0,0,0,0,0,0,0,0,0,
3,-1.725,3.189,-7.595,-20.98,4.199,1.154,-0.1664,-3.814,10.83,-10.95,0.9356,10.17,10.27,7.242,16.5,12.08,0,0,0,0,0,0,0,0,0,0,0,0,0,0,0,0,
4,6.609,7.778,-3.595,-17.43,7.023,-0.3774,3.321,5.017,14.55,2.3,6.621,12.9,11,8.62,16.61,11.91,0,0,0,0,0,0,0,0,0,0,0,0,0,0,0,0,
5,3.342,2.756,-9.973,-9.211,0.638,1.301,-1.075,2.054,2.88,-1.207,-3.195,6.726,4.117,3.194,9.239,8.691,0,0,0,0,0,0,0,0,0,0,0,0,0,0,0,0,
6,0.037,-0.9526,-9.299,-4.482,-2.86,3.717,-1.274,-8.374,1.554,-5.709,3.327,9.277,6.982,8.979,15.69,16.29,0,0,0,0,0,0,0,0,0,0,0,0,0,0,0,0,
7,-0.2523,-0.9047,-3.178,-8.933,-3.5,1.165,-0.8912,-14.05,2.049,-3.846,8.382,11.87,8.68,12.45,21.65,18.33,0,0,0,0,0,0,0,0,0,0,0,0,0,0,0,0,
8,-7.213,-4.534,-8.359,-12.27,-6.626,-6.23,-5.276,-10.25,-4.67,-2.332,0.5813,7.64,3.328,9.595,17.91,12.2,0,0,0,0,0,0,0,0,0,0,0,0,0,0,0,0,
9,-13.27,-8.33,-10.84,-15.44,-5.583,-7.51,-4.956,-5.504,-4.145,-4.159,0.7431,6.322,0.2439,6.754,16.36,9.136,0,0,0,0,0,0,0,0,0,0,0,0,0,0,0,0,
10,-8.215,-6.335,-2.607,-15.54,-4.909,-1.815,0.1243,-4.251,1.567,-5.27,5.616,6.734,-2.692,1.002,15.59,6.672,0,0,0,0,0,0,0,0,0,0,0,0,0,0,0,0,
11,-2.031,-7.431,-4.141,-8.104,-8.364,-2.372,-3.049,-2.715,4.794,-7.845,2.568,2.508,-11.03,-5.544,8.115,0.9675,0,0,0,0,0,0,0,0,0,0,0,0,0,0,0,0,
12,-1.64,-17.5,-11.73,-11.77,-1.516,-4.901,-11.52,-1.854,9.13,-19.3,-4.295,-2.441,-20.22,-11.21,-1.904,-7.348,0,0,0,0,0,0,0,0,0,0,0,0,0,0,0,0,
13,-2.397,-24.98,-7.383,-23.98,7.407,1.373,-12.56,-3.106,8.693,-26,-9.081,-5.267,-22.64,-14.7,-8.803,-14.14,0,0,0,0,0,0,0,0,0,0,0,0,0,0,0,0,
14,-5.568,-23.43,-2.988,-22.92,0.8928,5.874,-11.36,-7.382,0.8413,-15.53,-8.675,-7.855,-18.16,-11.3,-12.56,-15.33,0,0,0,0,0,0,0,0,0,0,0,0,0,0,0,0,
15,-10.48,-18.53,-9.378,-15.33,-4.308,1.352,-13.86,-13.68,-3.433,-6.993,-4.377,-8.09,-13.15,-5.345,-12.59,-13.94,0,0,0,0,0,0,0,0,0,0,0,0,0,0,0,0,
16,-11.31,-12.17,-12.21,-14.12,-0.3657,-6.483,-11.89,-14.53,-3.338,-9.053,-3.291,-5.671,-10.28,-2.534,-7.622,-10.98,0,0,0,0,0,0,0,0,0,0,0,0,0,0,0,0,
17,-10.58,-6.353,-9.066,-18.73,-1.903,-12.34,-7.268,-10.81,-3.578,-7.807,-8.043,-3.568,-7.723,-1.373,-1.18,-5.728,0,0,0,0,0,0,0,0,0,0,0,0,0,0,0,0,
18,-9.328,-4.705,-12.54,-21.37,-0.7628,-6.195,-7.581,-7.761,-1.273,-4.933,-10.24,-0.3475,-5.214,0.0856,2.255,-2.981,0,0,0,0,0,0,0,0,0,0,0,0,0,0,0,0,
19,-4.824,-4.396,-14.51,-14.17,8.031,5.405,-7.597,-3.41,1.269,-7.662,-5.404,2.031,-4.574,1.322,2.104,-3.329,0,0,0,0,0,0,0,0,0,0,0,0,0,0,0,0,
20,-3.594,-3.348,-4.794,-11.04,4.777,1.008,-3.854,-4.088,0.974,-10.42,-4.719,0.3083,-4.721,-0.3079,1.55,-1.5,0,0,0,0,0,0,0,0,0,0,0,0,0,0,0,0,
21,-8.363,-2.193,0.759,-19.92,-8.412,-7.766,-0.4537,-11.74,1.5,-9.629,-11.55,-0.7762,-2.501,-2.823,3.177,2.464,0,0,0,0,0,0,0,0,0,0,0,0,0,0,0,0,
22,-13.02,-1.359,-3.649,-17.43,-10.68,-2.39,0.2285,-8.726,-1.777,-8.004,-15.65,-1.787,-1.332,-2.117,1.964,2.398,0,0,0,0,0,0,0,0,0,0,0,0,0,0,0,0,
23,-16.09,-3.243,-4.123,-2.94,-5.82,2.031,-0.8773,6.604,-11.34,-5.713,-15.2,-6.298,-5.263,-2.675,-4.758,-3.624,0,0,0,0,0,0,0,0,0,0,0,0,0,0,0,0,
24,-15.47,-5.983,-3.281,-2.109,-8.623,-1.224,-0.2457,12.85,-13.51,-2.871,-11.97,-8.541,-9.985,-7.539,-8.682,-9.283,0,0,0,0,0,0,0,0,0,0,0,0,0,0,0,0,
25,-9.799,-7.877,-6.753,-10.76,-12.78,-1.96,-0.4714,3.73,-7.201,-7.328,-7.133,-6.877,-13.51,-11.94,-6.936,-10.33,0,0,0,0,0,0,0,0,0,0,0,0,0,0,0,0,
26,-5.49,-14.46,-9.258,-15.14,-8.286,-4.42,-6.877,-6.941,-3.945,-16.97,-4.641,-6.266,-18.9,-14.46,-6.012,-10.99,0,0,0,0,0,0,0,0,0,0,0,0,0,0,0,0,
27,-5.92,-24.45,-16,-21.04,-4.609,-11.14,-13.51,-9.352,0.9584,-14.23,-4.956,-9.036,-24.44,-15.84,-8.489,-15.44,0,0,0,0,0,0,0,0,0,0,0,0,0,0,0,0,
28,-10.5,-28.93,-24.37,-23.17,-8.597,-14.76,-15.13,-6.415,6.074,-5.463,-10.43,-14.78,-25.36,-14.77,-11.85,-20,0,0,0,0,0,0,0,0,0,0,0,0,0,0,0,0,
29,-16.17,-25.62,-19.96,-17.33,-12.33,-14.11,-15.47,-4.789,-1.011,-9.271,-15.81,-16.78,-21.08,-13.61,-13.13,-19.84,0,0,0,0,0,0,0,0,0,0,0,0,0,0,0,0,
30,-15.98,-18.74,-13.31,-21.99,-15,-14.21,-16.41,-4.754,-8.898,-12.89,-9.957,-13.02,-15.75,-13,-12.99,-17.16,0,0,0,0,0,0,0,0,0,0,0,0,0,0,0,0,
31,-13.83,-14.54,-18.5,-32.88,-20.75,-20.89,-19.24,-2.13,-9.533,-7.147,-6.361,-13.61,-11.47,-6.907,-14.11,-13.81,0,0,0,0,0,0,0,0,0,0,0,0,0,0,0,0,
32,-19.49,-15.6,-26.42,-28.75,-26.07,-28.21,-24.07,0.334,-17.06,-6.758,-16.81,-19.4,-8.536,0.0137,-15.15,-10.06,0,0,0,0,0,0,0,0,0,0,0,0,0,0,0,0,
33,-27.65,-18.38,-31.22,-22.35,-26.79,-24.72,-26.25,-5.37,-23.22,-10.93,-21.5,-20.73,-10.15,-4.139,-14.4,-9.254,0,0,0,0,0,0,0,0,0,0,0,0,0,0,0,0,
34,-28.82,-20.17,-32.15,-25.8,-21.88,-17.01,-23.25,-13.51,-16.86,-10.77,-13.25,-16.82,-12.1,-10.01,-11.58,-8.343,0,0,0,0,0,0,0,0,0,0,0,0,0,0,0,0,
35,-25.86,-18.5,-29.09,-23.98,-17.06,-13.92,-16.01,-8.38,-17.51,-9.942,-10.42,-12.65,-7.033,-6.386,-5.894,-3.53,0,0,0,0,0,0,0,0,0,0,0,0,0,0,0,0,
36,-24.71,-12.17,-28.82,-17.4,-18.85,-13.98,-8.835,6.308,-24.37,-11.89,-16.27,-10.75,-3.615,-7.035,-1.294,-2.227,0,0,0,0,0,0,0,0,0,0,0,0,0,0,0,0,
37,-23.77,-7.462,-25.59,-16.92,-22.46,-18.45,-7.233,9.685,-18.42,-17.56,-19.92,-11.78,-9.687,-15.68,-4.099,-7.514,0,0,0,0,0,0,0,0,0,0,0,0,0,0,0,0,
38,-19.36,-8.201,-14.16,-18.92,-22.94,-19.79,-7.586,-1.26,-11.07,-21.85,-18.54,-12.14,-15.17,-15.47,-9.15,-11.89,0,0,0,0,0,0,0,0,0,0,0,0,0,0,0,0,
39,-13.53,-10.2,-10.01,-21.43,-18.61,-10.72,-5.929,-5.795,-7.159,-16.18,-11.05,-8.543,-14.95,-8.465,-6.171,-11.75,0,0,0,0,0,0,0,0,0,0,0,0,0,0,0,0,
40,-10.14,-14.6,-15.85,-22.08,-9.788,-7.01,-10.55,0.42,2.244,-9.819,-3.523,-7.71,-18.48,-10.93,-4.499,-13.04,0,0,0,0,0,0,0,0,0,0,0,0,0,0,0,0,
41,-10.19,-25.56,-19.9,-18.07,-8.532,-14.33,-22.67,-5.044,0.0721,-15.66,-8.421,-14.08,-28.14,-21.42,-15.28,-21.63,0,0,0,0,0,0,0,0,0,0,0,0,0,0,0,0,
42,-12.18,-35.08,-24.97,-20.17,-16.24,-17.69,-27.73,-19.6,-12.7,-23.35,-12.69,-17.22,-33.43,-27.34,-20.83,-28.62,0,0,0,0,0,0,0,0,0,0,0,0,0,0,0,0,
43,-13.39,-33.37,-35.05,-27.54,-19.43,-18.76,-23.56,-17.45,-11.43,-20.21,-6.18,-14.45,-29.92,-25.19,-12.67,-23.77,0,0,0,0,0,0,0,0,0,0,0,0,0,0,0,0,
44,-14.49,-25.67,-41.03,-27.56,-21.8,-24.2,-22.83,-7.875,-6.191,-13.55,-9.478,-15.8,-23.28,-17.53,-9.493,-14.99,0,0,0,0,0,0,0,0,0,0,0,0,0,0,0,0,
45,-17.11,-20.23,-36.4,-29.71,-27.96,-26.36,-25.72,-10.93,-11.31,-11.92,-17.73,-19.28,-16.49,-6.161,-11.97,-10.52,0,0,0,0,0,0,0,0,0,0,0,0,0,0,0,0,
46,-20.43,-17.74,-30.77,-37.2,-29.12,-25.66,-25.9,-15.84,-19.79,-10.94,-17.2,-20.79,-11.54,0.6943,-10.44,-8.49,0,0,0,0,0,0,0,0,0,0,0,0,0,0,0,0,
47,-24.94,-18.59,-32.04,-35.33,-26.05,-26.14,-25.64,-13.67,-26.17,-10.4,-21.88,-21.79,-10.55,-2.877,-7.792,-6.197,0,0,0,0,0,0,0,0,0,0,0,0,0,0,0,0,
48,-26.63,-20.25,-31.08,-33.8,-24.27,-25.03,-25.63,-9.442,-19.25,-17.15,-20.32,-16.89,-9.835,-6.508,-3.011,-2.529,0,0,0,0,0,0,0,0,0,0,0,0,0,0,0,0,
49,-22.96,-18.22,-28.95,-36.87,-27.77,-27.49,-24.05,-7.968,-7.769,-23.53,-7.848,-12,-9.829,-4.48,-0.7772,-3.528,0,0,0,0,0,0,0,0,0,0,0,0,0,0,0,0,
50,-24.07,-14.81,-32.08,-27.07,-32.95,-29.02,-19,-12.23,-13.04,-17.47,-13.46,-16.49,-13.73,-6.893,-6.667,-11.22,0,0,0,0,0,0,0,0,0,0,0,0,0,0,0,0,
51,-28.12,-11.14,-27.15,-17.18,-22.84,-15.78,-9.299,-13.02,-14.02,-8.194,-21.96,-18.12,-16.62,-14.51,-10.23,-15.39,0,0,0,0,0,0,0,0,0,0,0,0,0,0,0,0,
52,-21.21,-6.867,-15.32,-17.41,-6.07,-3.384,-3.661,-6.815,-3.183,-8.153,-14.96,-14.72,-17.52,-16.76,-11.77,-16.51,0,0,0,0,0,0,0,0,0,0,0,0,0,0,0,0,
53,-11.75,-6.849,-10.57,-11.92,-5.875,-6.155,-5.346,-5.844,-6.853,-11.87,-14.41,-17.01,-20.07,-13.51,-17.06,-20.51,0,0,0,0,0,0,0,0,0,0,0,0,0,0,0,0,
54,-9.714,-9.84,-7.618,-11.03,-8.004,-7.002,-5.653,-6.626,-8.962,-10.5,-12,-15.5,-21.08,-11.58,-16.46,-21.5,0,0,0,0,0,0,0,0,0,0,0,0,0,0,0,0,
55,-5.022,-13.37,-7.192,-20.5,-0.431,-5.588,-7.934,-3.107,4.301,-7.003,0.3925,-6.261,-20.48,-10.14,-8.989,-18.44,0,0,0,0,0,0,0,0,0,0,0,0,0,0,0,0,
56,-0.0876,-21.89,-11.05,-21.19,0.669,-11.39,-14.4,-4.942,6.257,-10.31,-0.7097,-2.558,-21.09,-7.662,-2.621,-15.36,0,0,0,0,0,0,0,0,0,0,0,0,0,0,0,0,
57,-4.625,-28.78,-10.76,-18.19,-4.493,-11,-14.8,-9.315,1.172,-14.62,-6.993,-3.285,-18.27,-7.142,1.084,-10.31,0,0,0,0,0,0,0,0,0,0,0,0,0,0,0,0,
58,-9.338,-24.23,-15.73,-18.74,-9.083,-7.827,-12.83,-8.491,4.168,-8.141,-2.561,-2.643,-10.82,-5.451,1.15,-4.601,0,0,0,0,0,0,0,0,0,0,0,0,0,0,0,0,
59,-8.877,-15.88,-23.96,-16,-14.88,-15.48,-15.09,-6.41,1.321,-4.056,-1.644,-3.019,-3.983,0.1521,1.984,0.3563,0,0,0,0,0,0,0,0,0,0,0,0,0,0,0,0,
60,-7.902,-9.627,-18.47,-13.62,-13.5,-18.46,-14.08,-3.436,-4.016,-9.428,-4.43,0.7075,2.722,3.274,7.926,7.019,0,0,0,0,0,0,0,0,0,0,0,0,0,0,0,0,
61,-1.318,-1.406,-13.69,-14.03,-7.399,-11.23,-9.098,-1.278,2.038,-4.954,-0.1622,9.315,8.158,2.626,9.788,8.53,0,0,0,0,0,0,0,0,0,0,0,0,0,0,0,0,
62,6.029,2.414,-16.91,-18.35,-9.457,-11.48,-7.499,-4.064,8.254,1.6,-0.4807,6.278,3.179,0.7676,0.1503,-1.961,0,0,0,0,0,0,0,0,0,0,0,0,0,0,0,0,
63,-4.851,-5.64,-11.4,-20.38,-10.86,-15.35,-9.186,-4.679,1.903,-6.018,-12.76,-12.56,-9.67,-3.93,-13.05,-13.75,0,0,0,0,0,0,0,0,0,0,0,0,0,0,0,0,
64,-25.86,-14.7,-6.822,-9.853,-6.749,-10.46,-7.673,1.269,-10.48,-8.378,-21.23,-25.5,-15.92,-8.835,-18.86,-17.71,0,0,0,0,0,0,0,0,0,0,0,0,0,0,0,0,
65,-29.91,-14.54,-12.29,-5.909,-11.66,-7.58,-2.416,2.81,-13,-4.2,-17.71,-20.62,-15.95,-13.99,-16.62,-19.57,0,0,0,0,0,0,0,0,0,0,0,0,0,0,0,0,
66,-18.55,-13.02,-9.82,-14.61,-18.18,-12.49,-2.316,-7.25,-2.847,-11.46,-8.742,-10.66,-18.39,-22.59,-11.65,-20.24,0,0,0,0,0,0,0,0,0,0,0,0,0,0,0,0,
67,-10.02,-14.93,1.223,-10.6,-6.159,-9.488,-5.987,-13.14,4.583,-16.04,-0.3699,-4.024,-18.72,-25.92,-6.902,-16.97,0,0,0,0,0,0,0,0,0,0,0,0,0,0,0,0,
68,-3.762,-12.99,5.068,0.1952,11.84,1.66,-4.237,-1.652,6.773,-8.398,0.5959,2.89,-13.63,-20.03,-3.048,-14.1,0,0,0,0,0,0,0,0,0,0,0,0,0,0,0,0,
69,5.429,-8.833,3.179,0.8887,14.26,3.865,-2.711,7.511,12.08,-2.807,-2.04,8.461,-9.939,-16.64,0.4125,-12.11,0,0,0,0,0,0,0,0,0,0,0,0,0,0,0,0,
70,9.783,-9.361,3.074,-4.324,9.173,2.107,-5.535,1.375,10.84,-3.49,0.8262,8.338,-9.421,-18.28,1.743,-10.17,0,0,0,0,0,0,0,0,0,0,0,0,0,0,0,0,
71,7.294,-11.85,2.025,-10.32,8.754,6.761,-5.774,-0.5156,5.557,-8.373,3.047,6.325,-8.877,-17.23,0.561,-9.295,0,0,0,0,0,0,0,0,0,0,0,0,0,0,0,0,
72,8.896,-14.46,-0.6483,-5.423,6.778,6.478,-4.003,6.185,17.29,-11.56,4.754,7.386,-9.241,-15.17,1.33,-7.281,0,0,0,0,0,0,0,0,0,0,0,0,0,0,0,0,
73,15.07,-16.66,1.561,2.909,0.7588,0.9544,-1.617,7.62,28.44,-4.583,7.05,5.831,-11.38,-14.79,-1.175,-8.923,0,0,0,0,0,0,0,0,0,0,0,0,0,0,0,0,
74,12.56,-13.25,6.641,-5.711,0.4776,1.577,0.5323,5.306,13.43,3.465,-3.565,-3.896,-11.7,-10.42,-11.82,-15.36,0,0,0,0,0,0,0,0,0,0,0,0,0,0,0,0,
75,1.276,-6.992,5.629,-9.241,7.679,-0.3987,-3.979,2.655,-1.638,1.04,-13.32,-10.37,-8.015,-4.625,-15.32,-14.4,0,0,0,0,0,0,0,0,0,0,0,0,0,0,0,0,
76,-4.965,-2.739,0.7084,1.341,9.506,-8.075,-7.444,-0.1827,1.727,-3.806,-3.645,-4.759,-2.045,-4.46,-6.197,-6.076,0,0,0,0,0,0,0,0,0,0,0,0,0,0,0,0,
77,-5.105,3.639,-2.261,-2.602,0.9907,-6.942,-0.0244,1.286,2.958,-0.2955,-0.2779,0.074,4.5,-2.472,0.1166,-0.1218,0,0,0,0,0,0,0,0,0,0,0,0,0,0,0,0,
78,-6.925,8.517,-5.642,-8.477,-4.747,-0.1811,5.821,4.873,1.094,5.771,-10.93,-1.696,8.903,5.131,2.014,3.717,0,0,0,0,0,0,0,0,0,0,0,0,0,0,0,0,
79,-5.409,5.777,-6.921,0.3966,-3.38,1.268,5.432,8.539,7.021,5.147,-4.128,3.502,10.48,8.802,8.511,8.094,0,0,0,0,0,0,0,0,0,0,0,0,0,0,0,0,
80,4.979,5.188,-0.7203,-0.2717,-4,1.516,9.698,13.18,12.21,2.922,15.44,15.03,12.26,8.068,15.97,12.57,0,0,0,0,0,0,0,0,0,0,0,0,0,0,0,0,
81,14.35,9.573,4.149,-6.567,-1.584,3.716,13.24,13.02,15.42,2.025,18.78,17.84,11.1,6.431,16.16,12.08,0,0,0,0,0,0,0,0,0,0,0,0,0,0,0,0,
82,16.35,8.448,1.765,-0.0295,11.46,8.41,10.68,8.386,22.32,-1.737,13.23,14.3,6.307,3.377,11.3,5.026,0,0,0,0,0,0,0,0,0,0,0,0,0,0,0,0,
83,18.47,7.292,2.9,3.601,23.33,15.66,11.7,7.023,27.09,-0.261,14.71,16.11,8.531,4.205,11.69,4.468,0,0,0,0,0,0,0,0,0,0,0,0,0,0,0,0,
84,24.27,14.42,7.465,0.6701,24.75,16.54,15.22,8.174,26.9,7.329,17.88,21.59,16.51,8.256,17.52,13.07,0,0,0,0,0,0,0,0,0,0,0,0,0,0,0,0,
85,29.89,17.89,6.479,4.828,24.24,13,17.01,7.512,26.98,6.201,21.03,24.89,16.86,7.408,18.24,16.1,0,0,0,0,0,0,0,0,0,0,0,0,0,0,0,0,
86,33.63,11.28,11.48,10.38,31.61,19.01,20.84,5.945,31.56,-0.4495,24.79,26.04,11.43,3.108,15.35,13.66,0,0,0,0,0,0,0,0,0,0,0,0,0,0,0,0,
87,33.85,5.321,26.71,10.98,40.7,28.59,21.69,4.303,35.52,0.7187,24.98,25.86,11.08,3.272,17.08,14.59,0,0,0,0,0,0,0,0,0,0,0,0,0,0,0,0,
88,29.74,6.566,28.76,10.3,37.29,29.08,20.55,1.434,29.11,7.404,26.27,26.65,17.59,12.55,21.76,17.9,0,0,0,0,0,0,0,0,0,0,0,0,0,0,0,0,
89,26.36,14.71,18.42,13.02,28.37,26.04,26.95,0.2975,21.39,12.39,28.04,31.09,26.65,24.1,27.67,23.61,0,0,0,0,0,0,0,0,0,0,0,0,0,0,0,0,
90,26.39,26.08,21.1,21,30.24,23.98,30.06,3.163,23.27,14.02,23.69,33.03,31.97,25.33,30.91,27.31,0,0,0,0,0,0,0,0,0,0,0,0,0,0,0,0,
91,22.32,31.11,27.73,23.1,32.86,20.63,21.46,4.991,22.61,14.6,19.97,25.57,30.37,20.29,24.16,21.4,0,0,0,0,0,0,0,0,0,0,0,0,0,0,0,0,
92,12.63,28.39,20.51,15.55,27.15,20.18,18.29,6.045,19.74,15.49,21.42,18.83,28.2,19.89,18.79,17.82,0,0,0,0,0,0,0,0,0,0,0,0,0,0,0,0,
93,12.3,28.42,14.09,10.4,25.66,22.58,25.67,10.48,26.44,14.51,24,24.05,30.58,21.32,26.73,25.38,0,0,0,0,0,0,0,0,0,0,0,0,0,0,0,0,
94,25.72,32.59,14.23,9.204,28.35,23,29.09,13.03,31.68,12.73,25.97,32.01,31.44,20.88,33.64,28.65,0,0,0,0,0,0,0,0,0,0,0,0,0,0,0,0,
95,36.66,32.46,12.66,11.89,27.72,25.34,27.47,11.63,32.67,13.08,24.93,33.65,27.23,20.5,31.77,24.25,0,0,0,0,0,0,0,0,0,0,0,0,0,0,0,0,
96,38.99,27.27,18.27,15.42,27.78,29.37,27.43,8.677,37.91,13.46,23.37,32.65,22.58,17.68,30,22.61,0,0,0,0,0,0,0,0,0,0,0,0,0,0,0,0,
97,37.54,20.76,28.44,8.171,26.81,26.01,24.29,1.248,36.35,9.833,25.92,28.49,16.63,10.27,25.71,18.63,0,0,0,0,0,0,0,0,0,0,0,0,0,0,0,0,
98,30.81,13.5,26.51,6.4,24.2,19.67,17.35,-4.366,29.34,4.573,28.46,21.37,9.304,4.414,18.79,10.93,0,0,0,0,0,0,0,0,0,0,0,0,0,0,0,0,
99,23.52,9.271,21.67,22.39,25.87,20.76,16.84,0.3185,31.88,4.626,24.93,18.17,8.42,6.168,17.37,8.334,0,0,0,0,0,0,0,0,0,0,0,0,0,0,0,0,
100,23.18,11.31,26.47,29.04,27.7,23.19,21.96,7.592,34.55,7.862,15.27,17.36,10.82,9.24,15.69,7.397,0,0,0,0,0,0,0,0,0,0,0,0,0,0,0,0,
101,24.13,13.02,25.99,20.73,29.49,21.75,23.3,10.11,29.78,9.239,8.752,16.03,8.178,5.055,11.37,5.228,0,0,0,0,0,0,0,0,0,0,0,0,0,0,0,0,
102,23.96,10.79,16.2,14.7,37.62,26.32,25.44,11.27,30.6,11.89,12.44,20.85,8.977,0.8184,15.22,8.28,0,0,0,0,0,0,0,0,0,0,0,0,0,0,0,0,
103,28.65,13.85,21.94,13.02,44.39,35.22,34,13.55,40.99,11.65,18.35,30.49,18.03,5.396,24.55,15.63,0,0,0,0,0,0,0,0,0,0,0,0,0,0,0,0,
104,32.39,23.48,40.33,20.96,43.13,32.3,37.78,12.41,48.85,3.96,19.47,31.75,22.33,9.451,27.57,20.19,0,0,0,0,0,0,0,0,0,0,0,0,0,0,0,0,
105,26.24,26.85,38.28,31.03,40.37,23.65,31.11,5.333,43.93,1.156,18.22,23.97,20.44,6.153,25.61,20.89,0,0,0,0,0,0,0,0,0,0,0,0,0,0,0,0,
106,18.75,23.72,23.53,24.18,37.54,26.71,25.71,2.57,31.73,5.985,17.21,20.18,22.75,5.98,24.18,21.5,0,0,0,0,0,0,0,0,0,0,0,0,0,0,0,0,
107,19.83,23.88,20.41,13.55,32.66,30.23,26.03,8.366,23.8,6.722,16.5,20.66,24.23,10.04,21.39,20.76,0,0,0,0,0,0,0,0,0,0,0,0,0,0,0,0,
108,22.12,23.37,17.42,14.85,30.88,24.58,24.2,11.16,21.03,5.604,14.58,16.37,18.96,8.59,17.18,15.83,0,0,0,0,0,0,0,0,0,0,0,0,0,0,0,0,
109,20.05,18.32,14.56,18.48,31.63,23.92,20.51,10.39,21.73,8.66,12.97,11.42,15.05,6.453,14.18,10.61,0,0,0,0,0,0,0,0,0,0,0,0,0,0,0,0,
110,19.9,14.88,19.69,17.79,26.32,21.97,19.18,12.75,23.91,11.6,11.18,10.72,12.38,6.518,9.897,5.942,0,0,0,0,0,0,0,0,0,0,0,0,0,0,0,0,
111,20.45,11.25,16.25,12.2,19.42,10.21,15.75,12.56,22.71,10.72,6.745,9.503,6.128,-0.4724,6.486,1.959,0,0,0,0,0,0,0,0,0,0,0,0,0,0,0,0,
112,18.24,6.904,14.31,7.719,22.68,10.43,11.77,6.754,23.66,4.291,5.515,10.81,4.736,-6.492,10.93,5.718,0,0,0,0,0,0,0,0,0,0,0,0,0,0,0,0,
113,21.08,10.4,27.78,17.1,30.74,22.03,15.55,2.357,30.62,-3.43,10.07,18.59,10.09,0.0318,18.04,13.66,0,0,0,0,0,0,0,0,0,0,0,0,0,0,0,0,
114,27.33,13.68,29.85,30.5,34.73,25.24,19.09,6.498,33.56,-2.12,17.94,23.2,10.15,5.131,19.94,15.46,0,0,0,0,0,0,0,0,0,0,0,0,0,0,0,0,
115,25.88,4.532,21.02,27,37.34,25.79,12.58,15.33,35.62,6.527,26.29,21.55,5.593,0.1229,20.5,15.02,0,0,0,0,0,0,0,0,0,0,0,0,0,0,0,0,
116,22.89,-1.744,24.29,13.13,39.16,24.72,8.303,13.43,45.86,11.78,26.22,22.77,7.76,-0.7786,23.27,18.57,0,0,0,0,0,0,0,0,0,0,0,0,0,0,0,0,
117,23.95,6.451,24.31,5.194,38.77,18.53,13.18,4.02,46.53,11.75,21.82,23.74,13.01,6.391,23.76,20.75,0,0,0,0,0,0,0,0,0,0,0,0,0,0,0,0,
118,17.09,12.86,14.03,5.294,35.47,18.85,15.29,6.488,29.23,11.88,21.25,16.47,12.63,11.16,19.03,17.15,0,0,0,0,0,0,0,0,0,0,0,0,0,0,0,0,
119,7.416,13.55,13.15,13.92,29.12,20.93,15.08,14.81,21.73,15.81,17.16,11.12,13.47,12.13,15.42,14.34,0,0,0,0,0,0,0,0,0,0,0,0,0,0,0,0,
120,12.39,20.51,18.55,22.52,26.2,18.26,19.86,16.22,27.84,20.72,12.67,14.52,18.6,12.01,17.11,16.72,0,0,0,0,0,0,0,0,0,0,0,0,0,0,0,0,
121,21.01,26.07,20.09,17.43,25.66,20.51,22.11,18.1,21.23,20.98,10.33,14.09,18.05,11.14,17.06,18.59,0,0,0,0,0,0,0,0,0,0,0,0,0,0,0,0,
122,18.74,21.92,24.2,14.77,22.26,23.27,19.95,19.24,12.32,16.95,3.42,7.538,14.08,13.6,13.63,18.44,0,0,0,0,0,0,0,0,0,0,0,0,0,0,0,0,
123,16.25,18.55,29.17,27.8,24.77,22.52,21.32,15.49,23.32,14.33,3.047,6.634,13.81,16.27,11.48,16.43,0,0,0,0,0,0,0,0,0,0,0,0,0,0,0,0,
124,19.47,19.4,30.4,31.18,34.13,25.68,26.58,19.09,36.3,17.91,11.39,11.93,13.55,14.43,11.05,12.13,0,0,0,0,0,0,0,0,0,0,0,0,0,0,0,0,
125,23.5,22.31,34.14,21.6,40.56,30.37,34.54,28.42,37.46,23.25,20.23,18.26,16.08,18.17,16.3,15.2,0,0,0,0,0,0,0,0,0,0,0,0,0,0,0,0,
126,27.9,29.41,34.44,24.78,41.36,34.09,38.97,28.54,38.61,20.02,33.37,23.02,21.95,25.43,23.65,22.28,0,0,0,0,0,0,0,0,0,0,0,0,0,0,0,0,
127,27.78,31.14,22.88,31.34,33.29,31.85,29.61,20.66,41.14,13.13,36.7,21.72,19.1,19.31,21.3,18.09,0,0,0,0,0,0,0,0,0,0,0,0,0,0,0,0,
128,21.89,21.15,16.02,23.72,25.64,18.87,17.18,13.19,38.41,14.58,22.41,17.06,11.95,8.511,16.63,13.13,0,0,0,0,0,0,0,0,0,0,0,0,0,0,0,0,
129,21.41,12.87,22.33,14.87,30.14,13.37,16.94,12.22,31.48,19.17,14.42,17.17,14.32,9.505,19.14,18.95,0,0,0,0,0,0,0,0,0,0,0,0,0,0,0,0,
130,26.93,12.53,24.01,14.4,31.73,21.59,21.2,18.4,27.25,19.33,17.55,21.09,20.46,14.99,21.31,23.64,0,0,0,0,0,0,0,0,0,0,0,0,0,0,0,0,
131,26.95,12.99,18.76,19.66,28.45,22.83,22.56,21.34,29.3,16.56,18.13,23.13,22.89,17.11,22.31,23.96,0,0,0,0,0,0,0,0,0,0,0,0,0,0,0,0,
132,19.69,14.75,21.74,23.67,31.53,17.8,25.61,20.2,27.39,13.8,15.02,22.88,26.57,18.41,25.75,25.82,0,0,0,0,0,0,0,0,0,0,0,0,0,0,0,0,
133,13.02,21.99,27.29,16.31,25.92,19.88,29.78,21.37,20.55,18.68,14.32,24.4,33.08,22.53,28.2,28.42,0,0,0,0,0,0,0,0,0,0,0,0,0,0,0,0,
134,14.39,32.08,21.41,12.02,18.68,25.4,32.12,17.18,24.68,28.49,21.87,29.51,38.19,31.06,29.85,30.65,0,0,0,0,0,0,0,0,0,0,0,0,0,0,0,0,
135,24.33,38.16,19.06,26.92,34.84,31.51,32.07,9.446,35.27,26.99,28.91,32.16,37.05,33.66,29.71,29,0,0,0,0,0,0,0,0,0,0,0,0,0,0,0,0,
136,32.18,34.05,34.76,35.07,51.7,36.33,27.8,13.48,40.34,19.14,25.15,27.69,27.13,23.12,24.2,22.23,0,0,0,0,0,0,0,0,0,0,0,0,0,0,0,0,
137,30.25,23.66,44.99,25.99,50.03,34.27,23.09,23.82,46.21,19.15,21.77,24.03,17.37,15.76,19.28,17.53,0,0,0,0,0,0,0,0,0,0,0,0,0,0,0,0,
138,27.98,20.06,39.7,28.29,50.06,31.59,24.29,26.01,48.41,18.72,25.23,27.78,18.83,21.45,21.55,18.47,0,0,0,0,0,0,0,0,0,0,0,0,0,0,0,0,
139,32.03,24.76,39.64,34.06,52.57,33.84,28.16,21.89,41.37,13.74,27.26,30.77,23.58,23.3,24.27,20,0,0,0,0,0,0,0,0,0,0,0,0,0,0,0,0,
140,32.41,25.57,37.94,23.89,46.51,33.47,29.33,17.78,40.32,15.55,25.8,27.72,21.55,14.42,20.67,18.12,0,0,0,0,0,0,0,0,0,0,0,0,0,0,0,0,
141,27.68,21.66,26.96,22.63,40.76,27.27,29.91,15.59,42.77,22.41,23.75,26.35,22.22,12.04,18.49,17.74,0,0,0,0,0,0,0,0,0,0,0,0,0,0,0,0,
142,29.22,23.75,26.73,33.38,39.98,22.59,32.4,17.99,35.9,24.77,21.68,28.44,29.57,19.82,21.93,22.15,0,0,0,0,0,0,0,0,0,0,0,0,0,0,0,0,
143,35.2,29.41,31.22,30.94,40.4,27.09,35.37,24.62,35.05,23.17,19.58,28.79,32.22,22.58,22.9,24.26,0,0,0,0,0,0,0,0,0,0,0,0,0,0,0,0,
144,36.9,29.03,29.52,26.28,40.2,36.64,35.41,25.75,42.52,21.96,17.32,28.3,29.91,19.44,21.19,22.64,0,0,0,0,0,0,0,0,0,0,0,0,0,0,0,0,
145,32.76,25.42,32.79,29.22,34.82,35.76,30.76,16.69,34.37,22.25,11.88,25.32,28.59,18.94,20.43,22.48,0,0,0,0,0,0,0,0,0,0,0,0,0,0,0,0,
146,21.05,24.04,32.13,23.82,25.23,25.04,26.53,10.27,20.06,19.86,6.444,19.01,27.47,18.88,19.4,23.33,0,0,0,0,0,0,0,0,0,0,0,0,0,0,0,0,
147,9.395,24.97,22.97,14.7,19.84,21.85,26.69,13.18,23.55,13.97,12.14,19.82,29.53,17.99,22.15,24.93,0,0,0,0,0,0,0,0,0,0,0,0,0,0,0,0,
148,11.25,28.54,19.64,14.77,20.5,23.54,27.43,16.6,28.92,13.91,19.32,26.08,33.23,18.67,24.57,24.64,0,0,0,0,0,0,0,0,0,0,0,0,0,0,0,0,
149,18.46,31.82,18.41,19.25,22.02,19.6,27.61,18.17,22.68,18.58,12.47,24.83,31.62,18.82,18.92,19.92,0,0,0,0,0,0,0,0,0,0,0,0,0,0,0,0,
150,20.2,31.6,19.66,22.29,23.46,20,27.8,17.54,22.59,15.96,8.459,22.4,28.93,18.84,16.37,19.24,0,0,0,0,0,0,0,0,0,0,0,0,0,0,0,0,
151,23.26,27.87,23.95,21.79,25.26,23.05,23.18,10.82,29.19,11.43,14.42,22.9,24.22,18.8,16.8,20,0,0,0,0,0,0,0,0,0,0,0,0,0,0,0,0,
152,23.42,18.48,15.91,18.99,22.42,15.26,15.3,7.176,27.34,16.73,9.245,14.85,11.77,15.11,6.834,10.79,0,0,0,0,0,0,0,0,0,0,0,0,0,0,0,0,
153,15.7,9.677,11.76,19.23,19.41,12.02,14.22,15.85,22.72,23.21,0.3285,7.327,5.708,10.27,0.8777,4.01,0,0,0,0,0,0,0,0,0,0,0,0,0,0,0,0,
154,15.86,12.06,26.37,20.55,24.74,21.77,20.17,24.01,23.08,17.05,7.342,12.27,11.96,6.757,8.943,10.01,0,0,0,0,0,0,0,0,0,0,0,0,0,0,0,0,
155,23.31,17.72,31.28,19.4,26,23.37,23.46,18.34,23.22,6.406,15.2,17.26,15.93,4.357,14.31,15.58,0,0,0,0,0,0,0,0,0,0,0,0,0,0,0,0,
156,24.03,18.24,24.68,19.91,20.06,20.93,23.74,10.53,22.35,9.29,13.03,20.82,19.49,7.633,18.23,18.21,0,0,0,0,0,0,0,0,0,0,0,0,0,0,0,0,
157,24.3,20,25,19.2,25,27.45,26.46,13.55,24.21,16.81,13.39,27.4,26.03,13.48,26.28,22.64,0,0,0,0,0,0,0,0,0,0,0,0,0,0,0,0,
158,24.8,19.96,21.53,11.57,29.46,26.58,26,16.32,26.24,11.94,14.74,25.09,23.67,13.57,25.75,21.96,0,0,0,0,0,0,0,0,0,0,0,0,0,0,0,0,
159,17.03,12.74,17.95,9.875,15.49,17.34,19.74,11.33,19.16,9.512,11.21,18.2,16.41,10.63,20.07,17.2,0,0,0,0,0,0,0,0,0,0,0,0,0,0,0,0,
160,8.824,6.606,21.59,19.24,4.76,13.31,17.54,9.559,5.524,14.58,7.644,18.17,13.83,6.775,17.32,13.75,0,0,0,0,0,0,0,0,0,0,0,0,0,0,0,0,
161,5.646,5.382,19.55,22.27,11.96,11.27,19.95,12.62,7.234,7.835,0.8549,16.78,12.9,3.851,10.43,9.667,0,0,0,0,0,0,0,0,0,0,0,0,0,0,0,0,
162,6.845,8.71,24.29,21.31,21.85,15.02,21.1,12.8,22.37,2.56,-4.939,13.66,15.12,8.291,4.169,7.429,0,0,0,0,0,0,0,0,0,0,0,0,0,0,0,0,
163,13.29,16.96,34.38,23.26,23.65,23.05,21.77,10.54,19.05,12.97,-0.0265,13.57,18.04,10.42,4.331,6.819,0,0,0,0,0,0,0,0,0,0,0,0,0,0,0,0,
164,15.32,21.67,20.28,12.84,17.35,18.54,18.8,9.04,1.022,16.77,4.9,11.36,15.16,3.908,3.292,3.579,0,0,0,0,0,0,0,0,0,0,0,0,0,0,0,0,
165,12.7,19.49,4.777,1.853,8.801,8.491,11.48,9.821,-1.588,12.2,4.944,9.868,12.1,4.137,2.905,2.327,0,0,0,0,0,0,0,0,0,0,0,0,0,0,0,0,
166,14.3,15.47,10.08,6.093,4.711,5.24,6.961,11.26,4.523,11.57,5.053,9.347,8.774,7.914,6.899,4.325,0,0,0,0,0,0,0,0,0,0,0,0,0,0,0,0,
167,11.22,9.163,7.838,2.425,6.768,3.943,5.163,9.506,4.961,8.547,2.645,4.971,1.527,2.337,9.544,5.14,0,0,0,0,0,0,0,0,0,0,0,0,0,0,0,0,
168,3.898,4.856,3.956,-1.446,12.35,6.074,4.624,5.449,8.741,7.318,3.107,3.405,-1.917,-1.575,8.311,5.494,0,0,0,0,0,0,0,0,0,0,0,0,0,0,0,0,
169,4.927,6.552,15.41,14.54,13.45,8.064,5.333,1.679,9.242,7.964,1.725,3.384,-2.364,-0.9729,3.484,4.357,0,0,0,0,0,0,0,0,0,0,0,0,0,0,0,0,
170,4.936,5.135,18.92,17.22,12.38,4.205,3.226,0.6139,-0.7198,1.853,-8.681,0.0195,-4.384,-3.777,-0.5654,1.767,0,0,0,0,0,0,0,0,0,0,0,0,0,0,0,0,
171,0.7656,1.636,13.73,5.105,15.86,6.015,4.273,4.434,0.7532,1.756,-7.393,3.55,-0.629,-3.852,1.317,1.69,0,0,0,0,0,0,0,0,0,0,0,0,0,0,0,0,
172,7.263,6.223,14.78,12.41,11.89,11.3,12.98,10.59,12.99,5.422,3.603,12.02,7.269,-1.21,3.208,1.402,0,0,0,0,0,0,0,0,0,0,0,0,0,0,0,0,
173,16.16,10.87,15.08,18.68,4.285,8.901,16.34,16.82,8.48,-0.6454,0.3657,11.27,8.773,-0.5013,0.8254,-1.441,0,0,0,0,0,0,0,0,0,0,0,0,0,0,0,0,
174,10.47,7.027,16.17,13.63,12.82,10.86,12.55,18.88,-3.757,-0.585,-8.138,4.406,5.493,0.3471,-0.4496,-1.965,0,0,0,0,0,0,0,0,0,0,0,0,0,0,0,0,
175,-1.412,3.965,19.22,19.94,20.2,19.19,13.32,10.34,-0.0379,4.444,-11.26,0.2698,4.303,-2.855,1.457,1.551,0,0,0,0,0,0,0,0,0,0,0,0,0,0,0,0,
176,-6.175,5.932,14.35,15.24,9.687,16.06,14.53,0.965,7.68,-2.865,-11.45,-0.4254,6.18,-5.733,3.783,5.612,0,0,0,0,0,0,0,0,0,0,0,0,0,0,0,0,
177,-3.998,7.36,6.936,-2.497,2.208,6.066,10.05,2.791,4.958,-5.342,-5.318,2.592,9.861,1.832,5.024,8.915,0,0,0,0,0,0,0,0,0,0,0,0,0,0,0,0,
178,1.472,9.039,5.598,7.204,2.976,2.663,8.337,4.394,0.2524,4.911,-1.22,7.107,13.86,8.487,6.169,12.52,0,0,0,0,0,0,0,0,0,0,0,0,0,0,0,0,
179,6.192,12.03,8.441,21.18,0.5931,0.9641,12.16,-1.905,-1.954,7.863,-6.643,7.184,14.19,4.984,6.231,12.35,0,0,0,0,0,0,0,0,0,0,0,0,0,0,0,0,
180,5.527,11.5,12.28,8.989,0.8835,2.01,14.18,-1.702,-3.744,4.173,-11.11,2.716,8.731,1.26,2.412,4.902,0,0,0,0,0,0,0,0,0,0,0,0,0,0,0,0,
181,2.811,7.532,14.5,7.612,3.351,11.59,13.44,8.317,-1.002,5.072,-7.584,-0.1565,2.807,0.3208,-2.371,-2.382,0,0,0,0,0,0,0,0,0,0,0,0,0,0,0,0,
182,4.284,5.253,19,24.31,3.431,19.11,14.17,13.87,4.253,6.142,-4.266,-1.983,-1.006,-3.152,-6.872,-6.197,0,0,0,0,0,0,0,0,0,0,0,0,0,0,0,0,
183,4.638,5.386,25.93,27.12,9.215,18.16,15.37,10.62,3.301,-0.4481,-9.933,-8.312,-7.274,-7.417,-13.64,-11.66,0,0,0,0,0,0,0,0,0,0,0,0,0,0,0,0,
184,-0.8981,5.14,21.07,19.23,13.01,14.62,14.12,5.073,0.2962,-10.6,-14.7,-12.27,-12.23,-7.365,-15.52,-13.75,0,0,0,0,0,0,0,0,0,0,0,0,0,0,0,0,
185,-1.802,3.827,10.21,11.62,6.446,12.22,13.38,4.355,4.124,-8.724,-10.49,-4.249,-7.337,-2.52,-7.348,-6.419,0,0,0,0,0,0,0,0,0,0,0,0,0,0,0,0,
186,6.318,4.47,16.87,8.257,7.69,14.39,16.3,9.408,9.207,4.67,-5.798,6.719,3.011,3.032,1.715,2.696,0,0,0,0,0,0,0,0,0,0,0,0,0,0,0,0,
187,10.35,9.088,27.55,17.72,15.16,15.89,18.63,7.9,8.446,10.28,1.341,8.512,9.243,6.179,4.827,5.605,0,0,0,0,0,0,0,0,0,0,0,0,0,0,0,0,
188,5.748,11.63,20.05,24.8,9.687,10.5,16.81,-0.6748,3.38,5.492,7.935,5.358,9.836,6.048,4.536,3.781,0,0,0,0,0,0,0,0,0,0,0,0,0,0,0,0,
189,2.474,4.64,14.62,17.74,5.351,10.29,14.06,1.989,-1.807,-0.2107,0.4139,5.243,7.812,2.917,5.095,3.664,0,0,0,0,0,0,0,0,0,0,0,0,0,0,0,0,
190,4.263,-5.351,21.12,16.26,13.76,16.56,11.44,9.44,1.836,-2.175,-5.709,8.42,7.095,0.6937,7.689,7.313,0,0,0,0,0,0,0,0,0,0,0,0,0,0,0,0,
191,7.347,-4.994,19.43,21.36,16.57,15.17,7.452,4.633,10.6,4.121,2.367,11.33,9.779,2.193,8.456,8.667,0,0,0,0,0,0,0,0,0,0,0,0,0,0,0,0,
192,8.079,4.205,11.25,13.61,7.684,10.63,5.7,2.289,5.748,10.39,5.86,11.24,11.94,4.09,5.28,4.312,0,0,0,0,0,0,0,0,0,0,0,0,0,0,0,0,
193,5.228,10.74,6.75,3.436,-2.562,10.23,8.905,9.696,-4.41,7.735,0.8969,9.701,9.37,3.605,1.514,-1.354,0,0,0,0,0,0,0,0,0,0,0,0,0,0,0,0,
194,4.205,11.93,5.926,11.3,-5.101,10.92,13.22,8.143,-1.292,6.633,-0.9006,9.471,4.798,2.617,0.0784,-3.073,0,0,0,0,0,0,0,0,0,0,0,0,0,0,0,0,
195,9.527,12.05,15.46,24.95,5.34,14.92,16.52,0.9651,5.444,6.179,-0.4396,10.4,3.527,3.259,2.013,-0.27,0,0,0,0,0,0,0,0,0,0,0,0,0,0,0,0,
196,16.91,13.7,27.73,25.62,19.26,19.5,19.66,4.753,12.71,-2.436,2.338,11.56,4.649,3.039,4.419,0.7309,0,0,0,0,0,0,0,0,0,0,0,0,0,0,0,0,
197,19.21,14.13,26.7,19.1,22.28,18.67,19.67,9.984,21.78,-6.187,7.475,9.612,1.748,-2.52,2.438,-3.495,0,0,0,0,0,0,0,0,0,0,0,0,0,0,0,0,
198,12.87,8.512,21.76,15.15,16.82,16.63,16.4,4.707,16.9,-0.164,8.375,4.647,-2.013,-6.227,1.768,-2.725,0,0,0,0,0,0,0,0,0,0,0,0,0,0,0,0,
199,5.495,3.271,22.36,16.17,15.13,17.65,15.85,-0.4463,9.137,2.03,10.61,5.594,4.487,4.53,8.833,8.482,0,0,0,0,0,0,0,0,0,0,0,0,0,0,0,0,
200,5.104,4.577,18.17,20.46,16.71,18.25,14.26,-0.321,13.34,-0.9767,18.15,10.23,13.58,18.93,12.79,14.71,0,0,0,0,0,0,0,0,0,0,0,0,0,0,0,0,
201,3.223,1.793,7.586,14.11,11.8,11.22,4.482,-4.289,10.22,-2.022,15.77,8.806,11.01,17.75,8.735,8.511,0,0,0,0,0,0,0,0,0,0,0,0,0,0,0,0,
202,-1.287,-4.813,3.818,-4.055,8.852,3.316,-1.236,-7.039,3.716,1.882,5.836,9.442,7.397,9.603,9.14,5.49,0,0,0,0,0,0,0,0,0,0,0,0,0,0,0,0,
203,4.611,-1.527,9.761,-5.332,18.5,10.8,7.234,1.775,11.46,5.395,7.019,17.17,10.62,6.841,13.01,9.661,0,0,0,0,0,0,0,0,0,0,0,0,0,0,0,0,
204,16.51,2.838,17.38,19.75,26.36,22.56,16.06,11.31,20.44,0.2732,13.72,21.46,8.568,2.119,12.08,9.915,0,0,0,0,0,0,0,0,0,0,0,0,0,0,0,0,
205,23.53,-1.911,26.05,38.59,25.56,22.76,17.35,10.19,23.98,-4.514,14.87,21.01,3.127,-5.021,11.16,7.814,0,0,0,0,0,0,0,0,0,0,0,0,0,0,0,0,
206,25.75,-1.406,31.74,29.93,24.01,24.46,20.3,3.811,22.23,-1.295,12.51,18.25,4.645,-5.29,10.26,7.724,0,0,0,0,0,0,0,0,0,0,0,0,0,0,0,0,
207,22.94,9.496,25.38,14.58,19.09,28.82,26.7,2.272,14.51,-0.373,11.71,14.05,9.198,2.197,7.717,7.685,0,0,0,0,0,0,0,0,0,0,0,0,0,0,0,0,
208,20.61,18.57,19.12,14.82,15.21,24.88,29.97,8.667,15.4,0.1184,16.66,13.11,12.21,11.39,6.949,7.903,0,0,0,0,0,0,0,0,0,0,0,0,0,0,0,0,
209,22.36,20.9,23.86,24.98,20.34,24.8,29.06,12.3,17.52,7.159,15.25,11.14,13.51,14.08,3.361,6.348,0,0,0,0,0,0,0,0,0,0,0,0,0,0,0,0,
210,22.25,19.1,27.87,31.32,24.92,32.05,28.12,6.825,11.95,11.11,6.816,9.839,14.08,10.63,2.315,6.054,0,0,0,0,0,0,0,0,0,0,0,0,0,0,0,0,
211,24.89,17.12,28.83,26.11,24.5,32.66,26.49,4.942,19.67,8.221,13.02,17.15,16.09,10.46,12.05,12.31,0,0,0,0,0,0,0,0,0,0,0,0,0,0,0,0,
212,28.46,16.22,27.44,14.98,22.43,27.01,21.4,10.14,26.27,4.502,20.1,19.52,16.1,14.42,17.34,16.05,0,0,0,0,0,0,0,0,0,0,0,0,0,0,0,0,
213,18.53,12.68,16.89,11.29,13.77,17.31,17.56,8.418,11.3,3.267,12.56,12.14,12.3,16.17,13.38,13.78,0,0,0,0,0,0,0,0,0,0,0,0,0,0,0,0,
214,4.904,5.844,11.05,11.68,2.902,5.996,14.64,-1.347,6.201,5.722,10.52,10.32,8.046,11.78,12.71,14.13,0,0,0,0,0,0,0,0,0,0,0,0,0,0,0,0,
215,1.843,0.0738,16.72,15.81,4.539,7.39,10.04,-4.037,13.76,6.491,8.236,10.1,5.357,4.477,12.75,15.8,0,0,0,0,0,0,0,0,0,0,0,0,0,0,0,0,
216,1.957,2.14,15.89,26.74,15.72,17.78,15.02,5.08,8.469,6.224,0.3306,8.3,10.43,6.343,12.67,17.46,0,0,0,0,0,0,0,0,0,0,0,0,0,0,0,0,
217,5.3,12.51,14.67,22.31,19.77,19.87,25.65,13.78,6.652,13.18,8.415,15.21,22.08,16.66,17.74,22.11,0,0,0,0,0,0,0,0,0,0,0,0,0,0,0,0,
218,14.07,15.9,24.98,12.67,17.9,19.68,22.36,16,14.29,15.36,16.86,20.56,24.01,17.4,19.08,22.28,0,0,0,0,0,0,0,0,0,0,0,0,0,0,0,0,
219,16.75,5.076,30.01,28.55,21.64,25.22,14.4,18.03,13.55,2.006,7.725,15.19,14.48,5.88,12.5,14.04,0,0,0,0,0,0,0,0,0,0,0,0,0,0,0,0,
220,15.5,-2.063,27.77,33.69,22.44,26.23,16.99,18.47,15.01,-5.676,4.683,12.14,8.671,-2.186,7.466,6.587,0,0,0,0,0,0,0,0,0,0,0,0,0,0,0,0,
221,20.48,3.767,26.5,13.3,15.12,22.01,19.94,12.41,21.77,3.26,12.79,13.01,8.217,-1.181,6.382,3.595,0,0,0,0,0,0,0,0,0,0,0,0,0,0,0,0,
222,21.7,8.553,16.23,17.35,16.79,20.57,16.06,7.427,18.14,9.076,14.77,7.857,4.645,1.02,2.971,-0.1144,0,0,0,0,0,0,0,0,0,0,0,0,0,0,0,0,
223,11.79,4.72,8.066,30.71,24.15,17.91,8.609,8.829,13.69,5.847,13.42,0.6062,-1.218,1.335,-1.444,-2.667,0,0,0,0,0,0,0,0,0,0,0,0,0,0,0,0,
224,4.453,-0.1394,16.47,16.36,18.96,12.23,3.129,8.792,15.26,7.072,15.07,0.3022,-2.44,5.362,2.349,2.066,0,0,0,0,0,0,0,0,0,0,0,0,0,0,0,0,
225,6.112,1.921,20.52,10.16,12.74,11.21,8.815,7.305,10.1,13.8,13.68,5.543,3.554,14.87,11.32,9.764,0,0,0,0,0,0,0,0,0,0,0,0,0,0,0,0,
226,7.681,10.47,16.48,25.17,14.62,12.84,19.42,14.02,2.199,17.14,11.02,8.787,10.65,21.51,13.59,13.15,0,0,0,0,0,0,0,0,0,0,0,0,0,0,0,0,
227,5.145,15.53,19.87,27.83,10.73,11.4,19.86,19.92,-1.358,14.95,12.18,7.942,12.38,18,11.27,14.08,0,0,0,0,0,0,0,0,0,0,0,0,0,0,0,0,
228,2.01,13.62,21.74,20.4,8.141,13.77,15.62,13.38,-3.369,12.33,8.829,8.373,14.29,13.88,12.54,17.13,0,0,0,0,0,0,0,0,0,0,0,0,0,0,0,0,
229,3.198,14.28,20.26,21.33,16.39,19.42,16.67,10.96,0.7908,13.05,2.817,12.89,21.9,19.62,17.34,21.96,0,0,0,0,0,0,0,0,0,0,0,0,0,0,0,0,
230,10.15,17.85,22.13,24.39,17.72,17.92,18.82,18.51,6.297,12.86,5.974,18.98,27.99,22.65,22.59,24.12,0,0,0,0,0,0,0,0,0,0,0,0,0,0,0,0,
231,18.22,19.81,20.14,22.85,13.28,19.17,24.06,18.3,6.147,10.05,11.14,25.69,30.56,17.61,24.31,22.76,0,0,0,0,0,0,0,0,0,0,0,0,0,0,0,0,
232,26.15,26.12,23.93,25.82,18.02,29.94,36.49,17.88,10.48,11.09,12.53,29.86,32.44,18.73,20,20.53,0,0,0,0,0,0,0,0,0,0,0,0,0,0,0,0,
233,31.59,28.07,38.09,37.28,19.81,30.53,39.45,27.66,14.44,14.82,12.79,24.19,24.01,18.49,12.95,14.79,0,0,0,0,0,0,0,0,0,0,0,0,0,0,0,0,
234,25.92,10.13,38.68,41.97,15.59,22.71,23.91,28.75,8.656,15.75,7.785,12.57,5.56,7.32,7.836,6.217,0,0,0,0,0,0,0,0,0,0,0,0,0,0,0,0,
235,14.43,-8.929,27.39,33.04,17.74,23.24,11.67,20.75,6.356,15.16,5.215,7.333,-4.402,2.648,5.098,1.545,0,0,0,0,0,0,0,0,0,0,0,0,0,0,0,0,
236,10.24,-7.576,22.21,23.66,15.79,18,12.96,20.35,6.404,11.14,10.44,8.077,-3.334,6.383,2.697,-0.0162,0,0,0,0,0,0,0,0,0,0,0,0,0,0,0,0,
237,10.78,1.113,15.51,16.57,6.964,4.513,13.36,20.75,0.3915,5.548,10.62,7.173,-1.104,7.324,2.663,0.6628,0,0,0,0,0,0,0,0,0,0,0,0,0,0,0,0,
238,8.94,6.046,10.13,9.41,7.846,5.696,11.41,16.34,1.341,9.024,6.678,3.126,2.046,10.36,5.754,4.554,0,0,0,0,0,0,0,0,0,0,0,0,0,0,0,0,
239,2.173,11.19,18.64,12.83,13.15,14.28,13.12,14.68,7.125,16.37,6.494,-3.913,4.838,12.96,6.106,5.413,0,0,0,0,0,0,0,0,0,0,0,0,0,0,0,0,
240,-7.569,13.4,23.89,23.43,13.01,16.08,14.97,16.8,4.925,16.76,5.035,-8.002,6.335,10.57,5.686,5.527,0,0,0,0,0,0,0,0,0,0,0,0,0,0,0,0,
241,-4.981,14.26,16.97,25.78,15.04,20.75,18.71,22.75,6.286,17.47,3.824,1.121,11.78,11.08,11.74,11.95,0,0,0,0,0,0,0,0,0,0,0,0,0,0,0,0,
242,14.68,19.8,18.51,24.82,19.93,24.69,24.57,27.22,15.72,19.75,9.376,15.89,17.33,12.23,17.03,16.01,0,0,0,0,0,0,0,0,0,0,0,0,0,0,0,0,
243,28.21,22.14,27.61,27.92,23.34,21.82,24.71,23.6,16.55,15.22,14.23,20.34,18.36,11.3,15.05,15.23,0,0,0,0,0,0,0,0,0,0,0,0,0,0,0,0,
244,25.86,18.86,27.88,28.18,23.21,23.62,21.96,21.97,9.128,10.9,11.07,20.44,23.33,16.28,16.38,22.47,0,0,0,0,0,0,0,0,0,0,0,0,0,0,0,0,
245,23.76,20.49,25.98,26.07,16.52,24.87,21.89,24.25,8.8,13.11,9.383,26.42,33.4,24.94,22.83,32.94,0,0,0,0,0,0,0,0,0,0,0,0,0,0,0,0,
246,24.61,23.98,26.92,24.19,13.58,17.16,20.53,23.28,13.09,16.21,13.11,28.52,36.47,28.78,21.47,30.61,0,0,0,0,0,0,0,0,0,0,0,0,0,0,0,0,
247,20.98,19.77,24.7,19.23,18.47,16.83,19.82,27.66,12.68,18.19,13.78,22.01,28.46,24.46,13.65,19.9,0,0,0,0,0,0,0,0,0,0,0,0,0,0,0,0,
248,19.05,13.24,25.23,20.45,18.23,28.08,24.31,32.94,14.88,17.32,14.33,17.26,17.07,14.09,9.231,12.3,0,0,0,0,0,0,0,0,0,0,0,0,0,0,0,0,
249,23.04,13.54,31.49,35.26,23.44,34.22,29.24,30.43,22.53,16.17,15.54,16.44,12.42,9.72,7.191,9.443,0,0,0,0,0,0,0,0,0,0,0,0,0,0,0,0,
250,26.6,21.46,35.9,46.94,38.4,30.32,31.49,35.78,23.69,23.76,10.59,14.96,17.31,16.2,7.119,11.52,0,0,0,0,0,0,0,0,0,0,0,0,0,0,0,0,
251,25,31.41,34.92,42.55,31.33,23.78,32.2,41.11,19.05,32.39,6.684,11.63,21.68,21.07,8.721,13.56,0,0,0,0,0,0,0,0,0,0,0,0,0,0,0,0,
252,17.9,35.62,31.1,34.93,14.44,24.31,30.55,30.3,18.39,29.91,6.565,6.264,17.71,18.92,6.673,9.414,0,0,0,0,0,0,0,0,0,0,0,0,0,0,0,0,
253,11.84,31.43,33.61,35.33,25.97,32.69,28.05,27.22,21.04,25.07,6.993,3.292,11.36,16.75,5.858,6.822,0,0,0,0,0,0,0,0,0,0,0,0,0,0,0,0,
254,14.17,23.54,40.7,35.29,40.16,35.69,27.4,33.64,24.36,25.8,13.12,6.559,10.65,19.14,10.89,12.26,0,0,0,0,0,0,0,0,0,0,0,0,0,0,0,0,
255,20.08,19.62,37.91,30.18,35.22,30.92,26.97,27.65,27.37,25.09,18.62,12.27,16.87,24.82,15.38,20.76,0,0,0,0,0,0,0,0,0,0,0,0,0,0,0,0,
256,22.83,21.66,30.09,28.11,34.95,27.6,24.38,24.11,27.27,20.14,20.88,19.73,26.43,29.33,23.52,30.92,0,0,0,0,0,0,0,0,0,0,0,0,0,0,0,0,
257,25.67,26.19,27.57,27.16,36.5,27.14,23.83,29.78,26.71,21.53,31.19,31.83,37.32,35.8,40.72,43.65,0,0,0,0,0,0,0,0,0,0,0,0,0,0,0,0,
258,31.44,35.16,26.95,21.62,32.98,30.33,29.91,28.48,30.11,33.66,42.11,42.23,48.46,46.82,51.63,52.79,0,0,0,0,0,0,0,0,0,0,0,0,0,0,0,0,
259,34.13,45.24,28.1,20.33,34.7,32.39,33.75,25.12,31.52,38.33,41.25,42.01,50.89,47.05,45.58,51.07,0,0,0,0,0,0,0,0,0,0,0,0,0,0,0,0,
260,29.33,42.53,26.09,27.78,29.84,25.56,27.24,25.32,24.52,27.3,32.12,35.06,41.55,33.77,33.73,40.84,0,0,0,0,0,0,0,0,0,0,0,0,0,0,0,0,
261,25,31.04,20,34.56,22.36,22.09,22.22,27.28,18.61,21.24,20.93,30.01,32.08,27.81,25.9,31.95,0,0,0,0,0,0,0,0,0,0,0,0,0,0,0,0,
262,28.52,26.77,25.02,34.99,28.08,27.38,27.34,32.97,21.79,26.32,16.06,27.73,25.87,30.15,21.56,26.08,0,0,0,0,0,0,0,0,0,0,0,0,0,0,0,0,
263,34.18,26.47,33.23,31.22,27.78,23.85,30.78,33.9,25.43,28.74,19.09,26.74,17.95,27.27,18.98,18.46,0,0,0,0,0,0,0,0,0,0,0,0,0,0,0,0,
264,33.64,21.27,26.34,26.96,21.27,14.1,24.48,28.69,25.41,26.76,18.16,22.05,9.492,20.75,13.65,10.13,0,0,0,0,0,0,0,0,0,0,0,0,0,0,0,0,
265,22.44,14.82,17.81,22.75,27.83,15.44,18.51,27.14,23.81,21.5,11.29,7.948,1.488,14.02,4.323,3.875,0,0,0,0,0,0,0,0,0,0,0,0,0,0,0,0,
266,4.802,12.91,19.6,18.42,30.16,21.12,20.52,25.55,19.84,14,9.398,-5.103,-3.09,8.207,0.0152,1.266,0,0,0,0,0,0,0,0,0,0,0,0,0,0,0,0,
267,-3.967,14.47,21.87,17.38,24.43,19.84,20.87,20.87,22.3,13.37,11.88,-6.551,-0.17,8.626,2.613,2.738,0,0,0,0,0,0,0,0,0,0,0,0,0,0,0,0,
268,-0.527,14.68,20.74,17.46,30.15,19.45,15.93,19.14,31.18,19.73,11.7,-4.089,6.439,16.52,5.592,7.337,0,0,0,0,0,0,0,0,0,0,0,0,0,0,0,0,
269,4.147,15.48,19.24,16.59,32.42,24.01,18.2,19.54,27.45,24.26,15.26,0.6214,13.83,25.68,11.57,15.85,0,0,0,0,0,0,0,0,0,0,0,0,0,0,0,0,
270,9.421,20.09,18.88,22.35,22.38,23.56,23.74,18.01,15.67,23.72,24.69,13.21,19.82,26.45,20.84,23.08,0,0,0,0,0,0,0,0,0,0,0,0,0,0,0,0,
271,18.5,22.35,23.46,30.67,23.83,20.32,21.55,17.13,19.27,21.44,31.7,26.66,21.47,22.34,26.33,23.75,0,0,0,0,0,0,0,0,0,0,0,0,0,0,0,0,
272,27.59,23.31,31.29,29.58,34.8,26.06,24.21,22.79,33.38,22.96,37.24,35.09,25.59,27.1,29.58,26.77,0,0,0,0,0,0,0,0,0,0,0,0,0,0,0,0,
273,34.1,30.76,33.34,27.26,33.46,31.49,33.29,29.26,34.79,26.61,35.17,38.22,32.74,31.68,31.27,34.27,0,0,0,0,0,0,0,0,0,0,0,0,0,0,0,0,
274,34.03,35.2,29.03,31.73,23.29,25.99,30.76,24.72,22.06,26.63,19.72,32.57,30.55,22.55,27.03,35.09,0,0,0,0,0,0,0,0,0,0,0,0,0,0,0,0,
275,27.74,25.77,23.74,33.47,18.62,22.31,23.26,18.64,18.74,22.45,13.34,25.87,21.94,15.35,24.02,31.55,0,0,0,0,0,0,0,0,0,0,0,0,0,0,0,0,
276,27.9,14.79,20.16,31,20.59,23.86,24.87,23.42,31.79,15.86,22.9,29.56,19.74,19.71,27.24,30.87,0,0,0,0,0,0,0,0,0,0,0,0,0,0,0,0,
277,34.76,15.08,24.36,27.24,22.68,21.16,26.44,26.21,34.18,12.93,25.15,31.11,19.33,20.43,24.68,26.39,0,0,0,0,0,0,0,0,0,0,0,0,0,0,0,0,
278,28.64,17.69,28.35,18.23,22.31,19.82,22.03,19.92,18.49,17.14,15.29,15.69,12.35,14.82,12.41,15.3,0,0,0,0,0,0,0,0,0,0,0,0,0,0,0,0,
279,8.823,13.81,17.17,14.8,22.09,22.29,18.69,16.4,11.41,21.4,5.489,-1.204,4.63,14.64,3.131,5.537,0,0,0,0,0,0,0,0,0,0,0,0,0,0,0,0,
280,-0.004,11.06,11.19,23.92,23.44,19.07,16.23,15.46,16.26,23.07,3.022,-4.084,0.051,17.24,-1.658,-1.608,0,0,0,0,0,0,0,0,0,0,0,0,0,0,0,0,
281,5.398,10.83,22.01,23.91,24.86,11.61,9.949,10.11,17.2,22.87,7.278,-3.943,-5.029,14.13,-7.115,-7.466,0,0,0,0,0,0,0,0,0,0,0,0,0,0,0,0,
282,5.676,5.806,18.86,11.7,24.52,7.641,4.665,7.34,18.72,18.78,12.53,-4.878,-6.344,10.91,-3.675,-5.03,0,0,0,0,0,0,0,0,0,0,0,0,0,0,0,0,
283,1.611,1.652,4.203,8.663,22.71,8.959,4.353,11.87,23.54,16.15,18.63,1.376,-0.4561,12.04,8.54,4.672,0,0,0,0,0,0,0,0,0,0,0,0,0,0,0,0,
284,3.003,2.418,5.735,9.014,21.2,10.47,0.9844,13.43,21.89,14.82,21.56,6.992,4.198,10.71,13.05,10.5,0,0,0,0,0,0,0,0,0,0,0,0,0,0,0,0,
285,4.556,0.6753,10.06,3.204,18.21,3.993,-5.711,6.771,15.92,8.255,16.71,6.365,5.116,7.914,12.28,13.37,0,0,0,0,0,0,0,0,0,0,0,0,0,0,0,0,
286,4.111,-0.6744,5.123,1.908,14.73,-3.144,-5.179,2.23,11.89,5.385,15.45,9.22,8.428,9.639,16.24,18.98,0,0,0,0,0,0,0,0,0,0,0,0,0,0,0,0,
287,4.973,4.513,4.766,1.189,14.76,3.073,-0.1958,4.993,9.144,10.69,19.1,15.37,14.28,12.76,18.74,23.55,0,0,0,0,0,0,0,0,0,0,0,0,0,0,0,0,
288,8.637,12.04,6.298,-2.759,11.2,11.16,1.893,6.533,8.538,10.57,15.99,20.17,19.21,15.06,18.56,24.55,0,0,0,0,0,0,0,0,0,0,0,0,0,0,0,0,
289,17.82,17.48,1.126,1.028,4.375,6.086,3.271,4.309,9.277,5.833,13.18,25.37,19.38,16.72,20.68,22.46,0,0,0,0,0,0,0,0,0,0,0,0,0,0,0,0,
290,21.98,14.17,-0.6182,8.229,9.281,1.09,3.625,5.325,9.543,9.245,18.66,24.5,11.4,14.2,18.79,15.72,0,0,0,0,0,0,0,0,0,0,0,0,0,0,0,0,
291,10.41,-0.5238,8.934,13.96,16.39,6.427,3.429,11.35,9.842,14.38,18.94,13.17,-1.487,7.41,8.311,5.359,0,0,0,0,0,0,0,0,0,0,0,0,0,0,0,0,
292,-1.657,-12.51,21.09,21.29,11.53,11.28,6.997,16.92,7.358,10.58,9.759,2.714,-11.95,-0.0898,-1.888,-3.237,0,0,0,0,0,0,0,0,0,0,0,0,0,0,0,0,
293,-2.237,-14.05,25.98,19.56,12.94,12.61,8.95,14.46,5.521,3.719,5.613,-0.5567,-15.78,-4.761,-5.21,-5.855,0,0,0,0,0,0,0,0,0,0,0,0,0,0,0,0,
294,-0.573,-14.72,21.81,10.58,22.25,13.42,1.956,4.76,10.72,-0.6952,3.523,-5.314,-16.04,-3.996,-8.741,-7.235,0,0,0,0,0,0,0,0,0,0,0,0,0,0,0,0,
295,-2.482,-18.36,13.98,10.17,18.56,8.46,-7.837,1.165,11.45,-1.119,-5.091,-14.61,-17.38,-0.5749,-14.63,-11.24,0,0,0,0,0,0,0,0,0,0,0,0,0,0,0,0,
296,-7.923,-20.02,11.2,8.145,12.24,1.881,-11.45,4.424,2.035,4.485,-5.184,-18.93,-16.79,1.994,-13.13,-11.44,0,0,0,0,0,0,0,0,0,0,0,0,0,0,0,0,
297,-14.35,-17.44,7.692,-2.406,14.63,1.523,-11.13,1.239,-0.3183,7.899,2.361,-15.47,-12.06,4.465,-7.03,-7.767,0,0,0,0,0,0,0,0,0,0,0,0,0,0,0,0,
298,-14.41,-11.79,-4.346,-0.4954,8.584,-0.6953,-11.29,-2.55,3.407,7.24,-0.3182,-11.75,-7.347,6.17,-5.168,-5.368,0,0,0,0,0,0,0,0,0,0,0,0,0,0,0,0,
299,-9.657,-6.343,-9.073,9.378,-4.392,-6.607,-9.402,1.792,-2.875,9.725,-3.313,-8.878,-3.177,4.849,-2.315,-1.992,0,0,0,0,0,0,0,0,0,0,0,0,0,0,0,0,
300,-5.827,-2.107,-0.8556,4.44,-4.639,-6.413,-6.024,2.372,-9.607,5.934,1.706,-2.952,1.707,1.665,2.685,0.4466,0,0,0,0,0,0,0,0,0,0,0,0,0,0,0,0,
301,-0.2242,1.869,2.715,-1.663,0.9365,-6.77,-5.624,-1.568,-8.578,-2.509,4.723,4.194,6.568,-0.0628,4.661,0.9963,0,0,0,0,0,0,0,0,0,0,0,0,0,0,0,0,
302,6.201,4.22,-2.666,-1.454,-5.189,-12.57,-5.275,-0.4917,-11.39,1.992,4.729,9.446,11.83,-0.2068,6.683,5.664,0,0,0,0,0,0,0,0,0,0,0,0,0,0,0,0,
303,8.108,5.194,-10.02,-12.61,-12.77,-8.168,-1.357,-0.1209,-12.15,6.63,2.001,11.36,13.41,-1.554,7.451,8.477,0,0,0,0,0,0,0,0,0,0,0,0,0,0,0,0,
304,6.342,3.751,-10.22,-14.76,-7.107,2.653,1.75,-0.9126,-5.144,0.8825,-1.542,8.642,6.742,-3.867,2.557,2.935,0,0,0,0,0,0,0,0,0,0,0,0,0,0,0,0,
305,4.278,-1.637,1.463,6.478,-0.1639,2.528,3.091,2.87,-6.685,1.05,-1.648,4.836,-0.9487,-4.292,-1.625,-0.8704,0,0,0,0,0,0,0,0,0,0,0,0,0,0,0,0,
306,6.803,-2.912,12.03,13.47,1.498,4.981,8.108,3.844,-7.698,3.259,0.7153,5.221,-2.116,-1.728,-0.9826,1.601,0,0,0,0,0,0,0,0,0,0,0,0,0,0,0,0,
307,13.78,0.1293,15.66,4.858,8.652,16.6,10.98,-1.327,7.454,-0.6895,7.813,4.364,-4.519,0.2254,-2.439,1.291,0,0,0,0,0,0,0,0,0,0,0,0,0,0,0,0,
308,11.54,-8.14,13.51,7.431,14.26,13.45,-0.0413,-7.287,10.18,-4.672,7.789,-8.087,-16.83,-3.575,-11.34,-6.779,0,0,0,0,0,0,0,0,0,0,0,0,0,0,0,0,
309,-4.625,-25.01,-0.7033,3.682,8.68,-0.9045,-16.11,-12.09,-8.475,-12.91,-9.051,-26.24,-31.53,-8.993,-24.35,-19.45,0,0,0,0,0,0,0,0,0,0,0,0,0,0,0,0,
310,-18.37,-32.8,-11.65,-11.87,4.098,-4.752,-22.25,-14.96,-12.63,-18.11,-18.5,-34.88,-39.16,-11.71,-34.27,-30.88,0,0,0,0,0,0,0,0,0,0,0,0,0,0,0,0,
311,-21.17,-33.95,-5.511,-16.75,7.213,-5.466,-24.44,-19.51,-2.585,-13,-12.12,-33.84,-41.99,-18.47,-35.65,-35.53,0,0,0,0,0,0,0,0,0,0,0,0,0,0,0,0,
312,-19.85,-36.06,-2.611,-15.68,9.757,-9.789,-28.67,-26.41,-2.654,-17.72,-7.808,-29.71,-40.83,-25.97,-28.14,-31.8,0,0,0,0,0,0,0,0,0,0,0,0,0,0,0,0,
313,-16.33,-33.75,-10.35,-18.5,4.734,-12.07,-28.39,-26.7,-3.759,-26,-6.47,-22.73,-33.2,-24.61,-18.36,-24.27,0,0,0,0,0,0,0,0,0,0,0,0,0,0,0,0,
314,-11.5,-27,-13.45,-20.55,-4.721,-17.05,-24.21,-21.56,0.3839,-14.52,-3.991,-16.49,-23.53,-20.69,-11.97,-18.41,0,0,0,0,0,0,0,0,0,0,0,0,0,0,0,0,
315,-10.08,-19.87,-12.02,-17.83,-6.373,-19.23,-19.74,-18.25,0.6826,-2.939,1.235,-11.94,-14.3,-14.47,-5.833,-12.94,0,0,0,0,0,0,0,0,0,0,0,0,0,0,0,0,
316,-8.185,-11.16,-15,-14,-0.7604,-9.244,-14.58,-14.28,3.136,-5.793,7.063,-4.65,-3.967,-0.3957,0.7089,-4.545,0,0,0,0,0,0,0,0,0,0,0,0,0,0,0,0,
317,-4.664,-5.345,-21.86,-21.22,-1.572,-5.487,-13.83,-11.27,3.955,-4.425,1.422,-1.903,2.842,7.238,0.9165,2.831,0,0,0,0,0,0,0,0,0,0,0,0,0,0,0,0,
318,-9.016,-6.616,-23.87,-25.03,-5.894,-15.03,-16.9,-12.98,-10.23,-0.0203,-7.977,-6.956,3.791,1.579,-4.569,3.049,0,0,0,0,0,0,0,0,0,0,0,0,0,0,0,0,
319,-14.78,-7.509,-14.73,-5.905,-1.803,-10.75,-11.52,-13.06,-20.26,-2.82,-7.027,-6.056,2.512,-5.425,-8.034,-1.858,0,0,0,0,0,0,0,0,0,0,0,0,0,0,0,0,
320,-7.486,-4.677,-0.6474,6.801,6.502,8.29,2.099,-9.021,-8.268,-5.609,-5.151,0.6112,-1.683,-11.64,-8.085,-4.699,0,0,0,0,0,0,0,0,0,0,0,0,0,0,0,0,
321,2.826,-4.554,10.6,4.179,8.461,13.3,8.315,-4.918,2.649,-9.13,-6.407,0.46,-9.595,-17.32,-9.116,-5.662,0,0,0,0,0,0,0,0,0,0,0,0,0,0,0,0,
322,2.881,-9.266,16.55,9.794,4.014,5.05,1.625,-4.092,-3.803,-14.88,-8.824,-5.832,-19.65,-19.65,-14.58,-11.36,0,0,0,0,0,0,0,0,0,0,0,0,0,0,0,0,
323,-2.582,-17.92,9.376,2.145,-1.275,-2.185,-9.743,-9.912,-12.38,-14.17,-17.03,-14.73,-30.52,-21.05,-21.03,-18.45,0,0,0,0,0,0,0,0,0,0,0,0,0,0,0,0,
324,-9.119,-28.17,-10.47,-18.42,-7.293,-13,-19.73,-16.59,-13.62,-13.91,-17.87,-22.91,-34.49,-16.09,-19.98,-16.68,0,0,0,0,0,0,0,0,0,0,0,0,0,0,0,0,
325,-15.38,-32.62,-24.45,-17.74,-15.68,-24.08,-28.76,-19.3,-13.07,-21.08,-5.317,-24.84,-29.4,-6.767,-14.21,-10.81,0,0,0,0,0,0,0,0,0,0,0,0,0,0,0,0,
326,-20.84,-32.22,-27.26,-23.81,-21.97,-27.33,-36.93,-26.49,-14.2,-20.71,-3.261,-24.98,-25.83,-7.847,-13.06,-10.35,0,0,0,0,0,0,0,0,0,0,0,0,0,0,0,0,
327,-26.04,-32.2,-27.48,-42.64,-20.5,-27.64,-38.76,-32.13,-15.04,-9.844,-10.56,-24.08,-21.97,-8.528,-11.33,-8.364,0,0,0,0,0,0,0,0,0,0,0,0,0,0,0,0,
328,-23.99,-26.21,-24.08,-29.78,-13.38,-23.77,-32.48,-24.4,-13.3,-4.95,-6.166,-18.47,-12.8,0.9526,-6.078,-3.97,0,0,0,0,0,0,0,0,0,0,0,0,0,0,0,0,
329,-16.87,-16.88,-23.72,-15.94,-11.38,-16.59,-26.96,-18.96,-11.48,-8.904,-4.165,-17.65,-11.62,-2.804,-7.367,-8.523,0,0,0,0,0,0,0,0,0,0,0,0,0,0,0,0,
330,-18.09,-17.67,-29.82,-30.72,-17.33,-18.22,-25.91,-24.16,-13.29,-13.09,-14.02,-21.6,-17.84,-17.43,-11.52,-14.48,0,0,0,0,0,0,0,0,0,0,0,0,0,0,0,0,
331,-22.52,-22.52,-25.66,-32.19,-17.13,-23.82,-26.15,-26.19,-17.15,-16.23,-17.88,-20.34,-16,-17.08,-11.37,-13.19,0,0,0,0,0,0,0,0,0,0,0,0,0,0,0,0,
332,-20.72,-21.88,-19.41,-23.03,-7.388,-20.55,-27.72,-25.76,-16.88,-19.21,-16.3,-19.47,-12.4,-12.81,-13.71,-15.03,0,0,0,0,0,0,0,0,0,0,0,0,0,0,0,0,
333,-19.04,-22.63,-24.02,-24.11,-2.682,-14.51,-26.15,-25.72,-10.95,-16.54,-12.56,-19.49,-14.85,-15.37,-15.37,-17.8,0,0,0,0,0,0,0,0,0,0,0,0,0,0,0,0,
334,-17.93,-25.37,-16.03,-16.57,-5.67,-13.56,-20.22,-20.27,-8.163,-10.92,-4.16,-13.57,-17.03,-13.08,-12.34,-15.89,0,0,0,0,0,0,0,0,0,0,0,0,0,0,0,0,
335,-12.74,-24.41,-0.3994,-9.695,-6.931,-11.68,-16.51,-14.43,-9.672,-18.59,-4.455,-8.944,-21.28,-15.94,-14.92,-20.18,0,0,0,0,0,0,0,0,0,0,0,0,0,0,0,0,
336,-7.492,-21.74,-3.91,-11.21,-2.451,-4.101,-12.58,-10.65,-6.967,-32.25,-11.59,-8.852,-27.62,-28.06,-20.83,-27.44,0,0,0,0,0,0,0,0,0,0,0,0,0,0,0,0,
337,-5.533,-19.3,-6.873,-4.04,3.587,1.421,-9.295,-7.76,-7.281,-27.08,-15.28,-10.09,-28.29,-28.31,-22.94,-27.05,0,0,0,0,0,0,0,0,0,0,0,0,0,0,0,0,
338,-5.47,-18.74,-1.12,-3.155,2.057,-3.652,-13.75,-13,-15.42,-16.6,-19.1,-14.38,-27.82,-20.84,-26.44,-25.21,0,0,0,0,0,0,0,0,0,0,0,0,0,0,0,0,
339,-6.567,-22.91,-12.33,-14.7,-6.083,-14.13,-19.03,-23.71,-16.26,-20.34,-18.01,-18.73,-31.74,-21.75,-28.62,-24.51,0,0,0,0,0,0,0,0,0,0,0,0,0,0,0,0,
340,-12.06,-29.56,-26.39,-19.89,-10.65,-19.29,-22.06,-28.15,-12.86,-19.9,-17.22,-22.63,-34.39,-21.95,-24.93,-21.79,0,0,0,0,0,0,0,0,0,0,0,0,0,0,0,0,
341,-21.56,-33.31,-19.56,-21.35,-11.56,-18.04,-27.22,-24,-19.59,-12.16,-25.07,-27.22,-31.31,-14.12,-21.8,-19.67,0,0,0,0,0,0,0,0,0,0,0,0,0,0,0,0,
342,-24.09,-30.21,-11.96,-22.28,-13.22,-17.37,-28.6,-19.61,-23.86,-12.68,-22.97,-26.65,-25.24,-6.311,-20.36,-18.06,0,0,0,0,0,0,0,0,0,0,0,0,0,0,0,0,
343,-20.18,-23.63,-18.74,-24.64,-15.83,-21.35,-27.28,-23.12,-18.11,-13.78,-13.04,-25.18,-23.09,-4.886,-17.83,-16.84,0,0,0,0,0,0,0,0,0,0,0,0,0,0,0,0,
344,-24.17,-21.04,-24.52,-31.05,-18.41,-23.45,-26.62,-26.24,-17.04,-11.35,-13.12,-26.55,-23.18,-7.767,-14.78,-15.38,0,0,0,0,0,0,0,0,0,0,0,0,0,0,0,0,
345,-29.94,-18.64,-20.02,-23.34,-18.13,-15.32,-20.06,-21.71,-16.9,-8.882,-11.31,-20.09,-14.79,-6.08,-10.61,-9.514,0,0,0,0,0,0,0,0,0,0,0,0,0,0,0,0,
346,-22.36,-9.537,-13.25,-7.953,-14.36,-4.219,-14.01,-20.44,-7.567,-4.126,-4.955,-9.335,-2.312,0.0649,-8.915,-4.599,0,0,0,0,0,0,0,0,0,0,0,0,0,0,0,0,
347,-9.41,-1.966,-10.51,-7.72,-6.918,-2.541,-14.26,-19.55,-2.242,-9.038,-7.501,-7.063,-1.051,-1.956,-13.68,-8.65,0,0,0,0,0,0,0,0,0,0,0,0,0,0,0,0,
348,-2.638,-6.137,-6.655,-8.201,1.673,-5.548,-10.75,-9.6,-5.106,-19.46,-12.64,-9.306,-8.922,-12.53,-18.44,-15.69,0,0,0,0,0,0,0,0,0,0,0,0,0,0,0,0,
349,-1.561,-16.01,0.1513,-4.553,2.087,-4.611,-7.164,-4.908,-5.598,-13.16,-12.85,-11.14,-13.2,-18.11,-18.1,-17.69,0,0,0,0,0,0,0,0,0,0,0,0,0,0,0,0,
350,-5.64,-19.54,-0.8838,-8.446,-1.088,-5.422,-12.55,-9.935,-6.7,-7.169,-11.48,-12.73,-11.86,-16.06,-17.21,-16.83,0,0,0,0,0,0,0,0,0,0,0,0,0,0,0,0,
351,-10.57,-17.63,-9.979,-8.419,0.178,-12.61,-18.96,-14.47,-10.78,-18.93,-11.66,-11.48,-11.38,-15.92,-17.94,-17.63,0,0,0,0,0,0,0,0,0,0,0,0,0,0,0,0,
352,-11.93,-19.59,-16,-11.57,-6.777,-20.14,-22.2,-23.61,-15.44,-25.45,-16.1,-11.42,-15.39,-19.74,-17.92,-20.04,0,0,0,0,0,0,0,0,0,0,0,0,0,0,0,0,
353,-15.04,-24.89,-21.8,-30.71,-19.29,-23.32,-26.34,-31.47,-20.35,-21.53,-19.86,-15.06,-20.72,-19.9,-17.57,-21.25,0,0,0,0,0,0,0,0,0,0,0,0,0,0,0,0,
354,-20.15,-27.58,-27.96,-39.22,-17.71,-22.27,-29.58,-25.06,-15.88,-21.78,-17.62,-17.43,-22.66,-14.14,-18.58,-19.59,0,0,0,0,0,0,0,0,0,0,0,0,0,0,0,0,
355,-21.38,-27.5,-24.93,-27.6,-9.27,-18.3,-29.39,-19.1,-9.321,-20.99,-18.66,-20.53,-20.53,-7.501,-20.71,-16.03,0,0,0,0,0,0,0,0,0,0,0,0,0,0,0,0,
356,-21.13,-23.23,-19.49,-18.09,-6.861,-14,-25.04,-19.93,-18.02,-13.84,-24.1,-24.21,-16.31,-4.109,-21.26,-13.9,0,0,0,0,0,0,0,0,0,0,0,0,0,0,0,0,
357,-22.1,-14.4,-17.08,-13.99,-6.712,-12.09,-17.1,-14.56,-22,-6.853,-19.76,-21.35,-12.26,-3.471,-18.77,-14.81,0,0,0,0,0,0,0,0,0,0,0,0,0,0,0,0,
358,-20.36,-7.578,-9.362,-10.24,-7.786,-10.19,-10.84,-10.54,-10.22,-6.206,-10.33,-14.49,-7.648,-0.4757,-14.98,-12.96,0,0,0,0,0,0,0,0,0,0,0,0,0,0,0,0,
359,-12.27,-3.783,-2.925,-6.91,-8.912,-3.846,-7.967,-14.15,-7.032,-10.62,-6.66,-7.442,-0.7996,3.781,-8.973,-5.129,0,0,0,0,0,0,0,0,0,0,0,0,0,0,0,0,
360,-0.9189,-0.3786,-3.85,-0.0583,-8.388,0.3396,-5.375,-11.83,-8.444,-8.484,-1.907,-0.4018,3.084,1.591,-2.706,-0.9067,0,0,0,0,0,0,0,0,0,0,0,0,0,0,0,0,
361,4.686,-1.497,-0.8934,4.92,-8.736,-3.426,-4.198,-3.085,0.8703,-0.5579,0.3639,1.355,1.746,-1.673,-2.226,-2.094,0,0,0,0,0,0,0,0,0,0,0,0,0,0,0,0,
362,5.48,-5.43,4.881,1.576,-6.237,-3.107,-3.163,0.9334,5.436,-0.5947,-3.471,1.183,4.121,3.004,-1.559,2.396,0,0,0,0,0,0,0,0,0,0,0,0,0,0,0,0,
363,8.363,-4.313,5.885,-1.211,-0.4441,3.66,0.7506,-2.089,-3.07,-3.719,-3.038,4.453,9.715,7.055,3.627,7.271,0,0,0,0,0,0,0,0,0,0,0,0,0,0,0,0,
364,6.23,-0.6655,6.413,0.9455,-1.431,1.849,0.688,-8.853,-14.34,-3.389,-6.746,3.906,8.443,3.17,4.204,3.721,0,0,0,0,0,0,0,0,0,0,0,0,0,0,0,0,
365,-2.269,-0.184,2.007,-0.4794,-12.82,-6.467,-5.006,-15.98,-19.45,-9.269,-14.59,1.45,4.116,-2.404,3.286,2.806,0,0,0,0,0,0,0,0,0,0,0,0,0,0,0,0,
366,-4.035,-2.17,-9.403,-7.073,-21.21,-8.613,-6.097,-20.62,-12.62,-16.61,-7.919,2.515,2.063,-6.034,5.567,3.779,0,0,0,0,0,0,0,0,0,0,0,0,0,0,0,0,
367,-2.155,-7.496,-9.752,-8.36,-11.15,-3.898,-4.901,-19.54,-1.176,-14.51,-0.4216,-1.695,-4.44,-8.419,-0.2874,-5.191,0,0,0,0,0,0,0,0,0,0,0,0,0,0,0,0,
368,-6.365,-16.91,-3.219,-1.936,3.951,0.9982,-10.71,-16.97,0.6906,-14.52,-3.397,-7.948,-13.25,-10.32,-9.128,-12.22,0,0,0,0,0,0,0,0,0,0,0,0,0,0,0,0,
369,-11.04,-24.27,-9.898,-3.709,1.578,-4.806,-17.83,-21.63,-3.885,-24.04,-1.1,-6.159,-15.38,-13.7,-6.672,-8.631,0,0,0,0,0,0,0,0,0,0,0,0,0,0,0,0,
370,-13.93,-24.81,-13.58,-16.73,-3.597,-18.16,-19.89,-25.36,-2.651,-29.41,0.0891,-7.067,-15.33,-16.5,-4.76,-9.461,0,0,0,0,0,0,0,0,0,0,0,0,0,0,0,0,
371,-17.84,-21.44,-4.235,-17.4,4.767,-18.03,-19.41,-18.95,0.1484,-22,-7.111,-14.85,-17.6,-13.41,-13.37,-17.6,0,0,0,0,0,0,0,0,0,0,0,0,0,0,0,0,
372,-16.25,-16.4,-3.648,-5.614,11.11,-5.793,-14.64,-13.19,-4.803,-9.191,-9.636,-15.83,-15.53,-5.108,-19.05,-19.77,0,0,0,0,0,0,0,0,0,0,0,0,0,0,0,0,
373,-6.674,-9.481,-4.484,-6.219,10.22,0.7732,-4.454,-13.75,-5.319,-4.025,-8.909,-11.1,-10.27,-1.504,-16.08,-14.92,0,0,0,0,0,0,0,0,0,0,0,0,0,0,0,0,
374,2.598,-5.333,8.816,-8.501,12.28,6.077,3.682,-14.49,5.641,-7.894,-9.521,-9.426,-10.01,-7.531,-12.96,-12.08,0,0,0,0,0,0,0,0,0,0,0,0,0,0,0,0,
375,7.195,-6.755,19.46,5.725,18.67,15.17,5.328,-12.07,8.895,-7.156,-6.384,-6.979,-11.13,-11.29,-11.21,-12.8,0,0,0,0,0,0,0,0,0,0,0,0,0,0,0,0,
376,8.72,-8.118,19.46,15.37,27.33,18.21,3.744,-3.917,2.499,-1.89,-2.967,-2.635,-7.356,-5.976,-7.694,-11.75,0,0,0,0,0,0,0,0,0,0,0,0,0,0,0,0,
377,8.394,-5.349,16.14,13.23,30.17,18.43,3.182,3.025,4.284,-5.327,-1.639,0.9875,-1.002,-1.033,-2.742,-6.409,0,0,0,0,0,0,0,0,0,0,0,0,0,0,0,0,
378,9.26,0.3374,15.96,15.01,23.98,20.82,5.947,-0.6255,10.33,-11.93,1.753,6.023,5.075,0.029,2.087,-0.9409,0,0,0,0,0,0,0,0,0,0,0,0,0,0,0,0,
379,12.48,5.392,19.54,11.97,20.04,15.78,9.287,-3.87,9.179,-10.86,4.305,8.856,6.974,-0.3177,3.251,-2.257,0,0,0,0,0,0,0,0,0,0,0,0,0,0,0,0,
380,13.69,5.775,12.07,3.307,17.7,7.676,8.152,-2.074,4.001,-6.125,3.626,6.41,2.583,-1.309,0.1873,-7.934,0,0,0,0,0,0,0,0,0,0,0,0,0,0,0,0,
381,10.16,1.966,1.118,5.828,10.79,6.258,2.459,-10.88,1.259,-5.072,0.7106,1.065,-3.3,-1.192,-4.463,-10.02,0,0,0,0,0,0,0,0,0,0,0,0,0,0,0,0,
382,0.8923,-4.264,6.386,5.389,6.205,2.261,-4.529,-22.57,2.109,-12.65,-8.556,-8.868,-9.08,-5.642,-12.09,-11.81,0,0,0,0,0,0,0,0,0,0,0,0,0,0,0,0,
383,-9.107,-10.41,8.158,-7.896,6.274,-2.283,-7.158,-15.61,0.4997,-20.4,-14.49,-14.49,-12.32,-12.37,-16.11,-14.22,0,0,0,0,0,0,0,0,0,0,0,0,0,0,0,0,
384,-6.115,-10.21,0.6823,-7.918,9.871,3.21,-2.731,-3.035,-1.631,-14.24,-0.7848,-4.753,-7.037,-6.225,-7.196,-8.361,0,0,0,0,0,0,0,0,0,0,0,0,0,0,0,0,
385,5.625,-6.153,3.43,6.07,15.79,5.271,-1.117,-3.711,4.982,-5.678,14.04,4.807,-0.4454,2.527,2.66,0.3701,0,0,0,0,0,0,0,0,0,0,0,0,0,0,0,0,
386,6.414,-6.466,0.5024,5.525,12.05,-3.246,-8.072,-8.708,8.497,-8.171,8.67,2.111,-1.94,-3.98,1.958,0.5902,0,0,0,0,0,0,0,0,0,0,0,0,0,0,0,0,
387,-0.2638,-9.245,-15.63,-9.855,-1.798,-10.94,-13.12,-12.96,-0.4093,-11.39,0.5542,-0.7998,-6.556,-12.08,-0.4287,-4.091,0,0,0,0,0,0,0,0,0,0,0,0,0,0,0,0,
388,-0.9613,-12.24,-21.02,-20.24,-8.085,-18.57,-13.03,-19.57,-1.912,-9.829,2.7,0.4221,-8.738,-10.51,1.077,-6.02,0,0,0,0,0,0,0,0,0,0,0,0,0,0,0,0,
389,-0.1048,-15.78,-16.85,-19.25,-1.413,-22.82,-14.86,-20.77,7.763,-6.717,5.185,0.3258,-7.644,-6.656,3.294,-2.745,0,0,0,0,0,0,0,0,0,0,0,0,0,0,0,0,
390,-2.357,-14.06,-14.39,-13.99,10.72,-10.69,-14.71,-15.17,10.53,-3.481,3.443,-1.503,-3.569,-1.676,4.886,1.624,0,0,0,0,0,0,0,0,0,0,0,0,0,0,0,0,
391,-3.433,-6.508,-6.065,-13.04,20.15,4.945,-7.733,-8.669,10.17,-2.586,0.9227,-3.651,-0.549,2.79,5.302,1.97,0,0,0,0,0,0,0,0,0,0,0,0,0,0,0,0,
392,-1.887,-0.862,4.954,-14.16,17.79,2.118,-3.78,-1.526,11.99,-0.0171,-0.5046,-4.771,-1.046,2.169,2.429,-0.101,0,0,0,0,0,0,0,0,0,0,0,0,0,0,0,0,
393,-0.1347,-0.5718,2.12,-9.223,8.947,-7.445,-6.6,0.4524,5.222,1.078,-6.273,-6.684,-2.694,-0.6372,-6.17,-4.295,0,0,0,0,0,0,0,0,0,0,0,0,0,0,0,0,
394,0.7426,-2.326,-7.23,0.5038,8.931,-1.525,-3.693,-7.069,-1.446,-7.213,-14.57,-9.592,-3.281,-4.329,-14.61,-10.55,0,0,0,0,0,0,0,0,0,0,0,0,0,0,0,0,
395,1.631,-1.247,-0.763,5.49,13.04,10.65,5.382,-13.35,3.365,-10.07,-14.24,-9.53,-3.421,-8.038,-16.26,-15.44,0,0,0,0,0,0,0,0,0,0,0,0,0,0,0,0,
396,1.994,2.192,12.54,2.91,11.51,11.8,8.07,-10.36,3.268,-1.684,-10.61,-7.111,-3.221,-7.735,-15.25,-17.52,0,0,0,0,0,0,0,0,0,0,0,0,0,0,0,0,
397,4.301,4.592,13.14,4.762,12.4,7.705,7.705,-4.56,-4.721,-0.7615,-6.801,-2.034,-0.7623,-8.219,-10.87,-13.48,0,0,0,0,0,0,0,0,0,0,0,0,0,0,0,0,
398,12.16,5.812,9.439,10.71,16.05,6.233,10.91,-4.456,-0.7352,-7.544,0.847,3.656,0.6327,-14.63,-2.889,-7.431,0,0,0,0,0,0,0,0,0,0,0,0,0,0,0,0,
399,15.77,2.946,7.876,4.174,12.76,6.445,9.443,-8.817,10.29,-13.35,-0.0537,0.8304,-3.771,-19.37,-1.342,-9.114,0,0,0,0,0,0,0,0,0,0,0,0,0,0,0,0,
400,7.075,-6.612,3.241,-1.808,6.984,6.143,1.965,-10.33,9.196,-18.53,-3.129,-4.689,-8.374,-16.57,-1.592,-9.411,0,0,0,0,0,0,0,0,0,0,0,0,0,0,0,0,
401,-1.627,-15.1,-0.6929,3.874,5.318,1.438,-1.907,-7.579,1.1,-16.03,4.61,-0.847,-5.646,-7.884,5.352,-0.3044,0,0,0,0,0,0,0,0,0,0,0,0,0,0,0,0,
402,-3.391,-14.26,-1.926,-4.218,6.033,-2.823,-0.6427,-4.981,-1.989,-8.64,5.018,4.098,2.137,2.673,9.24,6.1,0,0,0,0,0,0,0,0,0,0,0,0,0,0,0,0,
403,-6.996,-6.578,-2.034,-13.12,5.808,-3.598,0.1829,-4.646,-3.081,-5.14,-1.742,2.327,7.866,5.384,5.986,6.245,0,0,0,0,0,0,0,0,0,0,0,0,0,0,0,0,
404,-10.77,1.822,-1.384,4.764,0.9028,-7.258,-0.5846,-4.365,-7.106,2.43,-1.558,1.792,10.79,2.04,5.197,7.587,0,0,0,0,0,0,0,0,0,0,0,0,0,0,0,0,
405,-7.415,8.838,-3.317,13.71,-5.091,-7.692,-0.371,-1.899,-15,8.151,-6.779,2.6,13.84,7.301,5.689,8.832,0,0,0,0,0,0,0,0,0,0,0,0,0,0,0,0,
406,-6.344,10.5,-7.806,-1.833,-9.601,-8.816,-3.339,-2.19,-23.57,0.6603,-15.01,-5.685,10.31,12.85,-1.24,4.304,0,0,0,0,0,0,0,0,0,0,0,0,0,0,0,0,
407,-15.86,1.159,-14.11,-8.821,-15.91,-23.99,-12.61,-9.707,-19.98,-1.688,-10.99,-19.51,-2.719,4.076,-12.02,-5.261,0,0,0,0,0,0,0,0,0,0,0,0,0,0,0,0,
408,-24.59,-11.62,-20.05,-8.044,-12.35,-28.86,-18.65,-16.26,-5.053,4.327,-6.509,-25.74,-13.55,-7.082,-16.64,-14.28,0,0,0,0,0,0,0,0,0,0,0,0,0,0,0,0,
409,-25.87,-17.81,-19.63,-10.66,2.64,-12.73,-20.64,-16.71,-0.9143,-3.195,-13.78,-27.13,-22.19,-14.5,-19.12,-23.39,0,0,0,0,0,0,0,0,0,0,0,0,0,0,0,0,
410,-28.23,-25.75,-17.33,-14.5,2.079,-11.85,-28.12,-18.06,-8.165,-15.35,-22.93,-30.03,-33.77,-24.56,-24.93,-32.35,0,0,0,0,0,0,0,0,0,0,0,0,0,0,0,0,
411,-30.93,-37.01,-18.26,-24.74,-10.33,-24.38,-33.59,-20.31,-11.44,-14.43,-21.72,-26.12,-35.94,-29.28,-23.86,-31.24,0,0,0,0,0,0,0,0,0,0,0,0,0,0,0,0,
412,-26.42,-36.25,-16.1,-26.96,-5.673,-19.3,-29.22,-18.52,-13.27,-13.64,-12.53,-15.97,-28.44,-28.09,-15.19,-23.54,0,0,0,0,0,0,0,0,0,0,0,0,0,0,0,0,
413,-19.18,-30.31,-12.18,-14.03,2.105,-9.613,-26.45,-17.31,-9.936,-24.05,-6.701,-13.54,-28.1,-32.98,-12.16,-23.45,0,0,0,0,0,0,0,0,0,0,0,0,0,0,0,0,
414,-16.52,-37.44,-12.79,-9.025,-3.983,-12.79,-29.93,-19.49,1.605,-33.9,-7.39,-18.67,-32.74,-37.75,-13.81,-26.27,0,0,0,0,0,0,0,0,0,0,0,0,0,0,0,0,
415,-18.2,-46.1,-12.84,-11.15,0.4728,-15.14,-32.23,-19.8,1.929,-30.47,-7.77,-21.74,-31.62,-32.83,-13.67,-23.75,0,0,0,0,0,0,0,0,0,0,0,0,0,0,0,0,
416,-22.07,-42.04,-8.392,-11.15,14.67,-11.69,-34.38,-17.94,-6.687,-22.61,-5.611,-23.46,-29.17,-29.01,-16.39,-23.04,0,0,0,0,0,0,0,0,0,0,0,0,0,0,0,0,
417,-27.31,-35.42,-4.984,-17.67,10.56,-11.94,-37.86,-19.26,-8.074,-27.98,-9.244,-28.02,-29.49,-31.47,-23.06,-25.92,0,0,0,0,0,0,0,0,0,0,0,0,0,0,0,0,
418,-32.32,-31.46,-8.008,-22.81,0.6086,-16.75,-35.28,-21.68,-12.5,-33.32,-19.49,-32.87,-27.8,-27.94,-27.99,-24.8,0,0,0,0,0,0,0,0,0,0,0,0,0,0,0,0,
419,-34.98,-26.52,-18.38,-22.81,-0.9917,-24.76,-29.69,-18,-22.77,-20.26,-28.39,-36.01,-25.57,-21.74,-32.82,-23.5,0,0,0,0,0,0,0,0,0,0,0,0,0,0,0,0,
420,-36.01,-26.42,-29.28,-29.25,-11.36,-35.41,-33.26,-15.32,-29.6,-11.64,-39.9,-38.93,-28.64,-26.17,-39.21,-29.18,0,0,0,0,0,0,0,0,0,0,0,0,0,0,0,0,
421,-36.26,-31.02,-32.04,-31.22,-21.95,-38.38,-40.83,-24.81,-36.17,-20.26,-48.88,-37.8,-31.72,-29.48,-37.81,-33.33,0,0,0,0,0,0,0,0,0,0,0,0,0,0,0,0,
422,-34.64,-31.74,-31.93,-22.77,-20.56,-32.77,-41.8,-33.14,-38.22,-21.84,-39.73,-30.99,-28.24,-21.76,-27.74,-29.62,0,0,0,0,0,0,0,0,0,0,0,0,0,0,0,0,
423,-35.49,-31.5,-35.91,-24.12,-29.19,-37.79,-41.55,-28.79,-34.81,-15.25,-27.21,-28.02,-24.41,-17.91,-21.74,-26.61,0,0,0,0,0,0,0,0,0,0,0,0,0,0,0,0,
424,-41.9,-34.87,-39.2,-35.84,-43.39,-52.45,-43.79,-28.44,-39.29,-15.96,-25.18,-30.11,-25.03,-20.46,-19.49,-26.63,0,0,0,0,0,0,0,0,0,0,0,0,0,0,0,0,
425,-44.48,-37.22,-42.02,-37.91,-41.05,-53.07,-44.35,-34.45,-44.61,-17.44,-18.72,-27.25,-26.69,-20.02,-14.85,-25.47,0,0,0,0,0,0,0,0,0,0,0,0,0,0,0,0,
426,-37.76,-38.74,-42.78,-30.49,-38.06,-41.24,-42.63,-32.06,-36.33,-18.53,-8.783,-22.07,-29.24,-20.68,-14.13,-25.73,0,0,0,0,0,0,0,0,0,0,0,0,0,0,0,0,
427,-29.94,-43.28,-34.67,-28.18,-39.01,-34.21,-37.72,-32.09,-25.55,-24.52,-8.069,-22.43,-33.36,-24.86,-17.27,-26.8,0,0,0,0,0,0,0,0,0,0,0,0,0,0,0,0,
428,-24.93,-47.19,-30.47,-30.72,-24.56,-30.14,-31.43,-39.99,-24.22,-27.88,-12.2,-22.74,-33.38,-27.94,-17.2,-23.39,0,0,0,0,0,0,0,0,0,0,0,0,0,0,0,0,
429,-19.57,-43.79,-33.73,-31.74,-9.76,-23.89,-28.98,-38.2,-23.87,-32.73,-12.6,-16.66,-23.45,-28.09,-14.75,-15.46,0,0,0,0,0,0,0,0,0,0,0,0,0,0,0,0,
430,-14.46,-30.56,-24.45,-33.74,-11.31,-19.61,-27.33,-33.13,-15.28,-44.06,-5.952,-7.533,-6.951,-24.77,-10.38,-7.075,0,0,0,0,0,0,0,0,0,0,0,0,0,0,0,0,
431,-10.97,-13.96,-12.94,-33.49,-11.96,-21.15,-24.6,-36.71,-7.99,-43.1,-2.646,-3.443,3.32,-22.42,-8.081,-4.826,0,0,0,0,0,0,0,0,0,0,0,0,0,0,0,0,
432,-13.72,-7.777,-21.55,-31.09,-10.79,-30.55,-28.76,-36.94,-18.48,-27.33,-16.5,-11.64,-0.8217,-24.6,-15.5,-11.69,0,0,0,0,0,0,0,0,0,0,0,0,0,0,0,0,
433,-27.58,-16.06,-33.96,-36.53,-18.99,-39.98,-40.36,-34.33,-38.44,-19.85,-33.4,-25.19,-12.37,-25.85,-22.36,-19.61,0,0,0,0,0,0,0,0,0,0,0,0,0,0,0,0,
434,-39.62,-27.8,-34.17,-38.07,-21.5,-36.55,-48.6,-36.56,-43.39,-22.9,-33.27,-30.1,-20.52,-22.83,-18.58,-21.55,0,0,0,0,0,0,0,0,0,0,0,0,0,0,0,0,
435,-38.48,-34.73,-33.17,-28.68,-15.71,-27.68,-49.59,-36.78,-36.56,-22.4,-26.46,-30.95,-24.12,-18.39,-17.04,-22,0,0,0,0,0,0,0,0,0,0,0,0,0,0,0,0,
436,-36.05,-37.66,-34.4,-30.24,-21.48,-29.03,-48.53,-37.06,-37.83,-19.83,-29.4,-35.55,-26.49,-15.45,-22.54,-24.86,0,0,0,0,0,0,0,0,0,0,0,0,0,0,0,0,
437,-36.85,-38.15,-32.57,-38.92,-34.05,-38.52,-48.1,-40.32,-44.43,-22.42,-37.84,-36.25,-28.28,-15.64,-24.25,-27.12,0,0,0,0,0,0,0,0,0,0,0,0,0,0,0,0,
438,-35.71,-38.44,-37.43,-41.79,-39.94,-46.27,-49.14,-39.9,-47.59,-25.49,-40.54,-32.69,-29.83,-16.37,-23.98,-27.79,0,0,0,0,0,0,0,0,0,0,0,0,0,0,0,0,
439,-39.82,-40.73,-50.21,-52.27,-41.66,-46.08,-50.92,-41.04,-46.96,-24.21,-32.25,-31.14,-31.31,-15.92,-26.21,-27.94,0,0,0,0,0,0,0,0,0,0,0,0,0,0,0,0,
440,-43.49,-42.28,-47.35,-54.15,-37.29,-40.98,-48.03,-44.13,-36.8,-28.59,-19.68,-27.83,-31.59,-19.62,-26.79,-28.76,0,0,0,0,0,0,0,0,0,0,0,0,0,0,0,0,
441,-33.47,-39.76,-30.97,-28.35,-30.01,-40.21,-39.68,-35.24,-25.71,-39.9,-17.87,-22.8,-28.85,-26.02,-26.87,-30.77,0,0,0,0,0,0,0,0,0,0,0,0,0,0,0,0,
442,-22.99,-33.38,-28.12,-10.89,-29.44,-37.3,-32.09,-21.24,-29.53,-38.69,-22.38,-19.04,-20.76,-24.94,-24.87,-27.37,0,0,0,0,0,0,0,0,0,0,0,0,0,0,0,0,
443,-20.86,-24.14,-30.04,-19.45,-27.71,-26.36,-28.08,-20.65,-31.63,-28.14,-17.38,-12.26,-10.01,-21.76,-14.99,-16.85,0,0,0,0,0,0,0,0,0,0,0,0,0,0,0,0,
444,-15.08,-15.37,-21.76,-27.02,-20.73,-22.76,-26.29,-26.19,-18.56,-29.87,-11.62,-4.613,-3.917,-28.07,-5.292,-10.69,0,0,0,0,0,0,0,0,0,0,0,0,0,0,0,0,
445,-8.321,-11.77,-20,-25.73,-18.23,-26.49,-25.83,-25.41,-10.32,-33.21,-14.07,-3.793,-3.37,-32.95,-5.045,-10.54,0,0,0,0,0,0,0,0,0,0,0,0,0,0,0,0,
446,-11.38,-12.7,-28.83,-27.14,-19.77,-25.15,-28.26,-29.6,-14.98,-24.38,-13.87,-9.389,-5,-26.49,-8.547,-9.545,0,0,0,0,0,0,0,0,0,0,0,0,0,0,0,0,
447,-21.02,-15.44,-36.02,-38.71,-23.34,-29.81,-34.84,-43.42,-25.35,-20.86,-14.3,-16.89,-9.657,-20.33,-10.55,-11.84,0,0,0,0,0,0,0,0,0,0,0,0,0,0,0,0,
448,-30.53,-21.72,-39.29,-53.7,-30.99,-42.29,-42.45,-50,-37.25,-28.71,-24.17,-22.76,-16.78,-18.55,-12.8,-17.02,0,0,0,0,0,0,0,0,0,0,0,0,0,0,0,0,
449,-33.9,-30.36,-39.32,-51.24,-35.58,-42.5,-46.88,-45.93,-36.24,-32.16,-29.51,-23.75,-20.77,-14.42,-13.43,-16.01,0,0,0,0,0,0,0,0,0,0,0,0,0,0,0,0,
450,-28.85,-33.68,-37.02,-33.66,-30.86,-32.47,-44.44,-40.21,-25.02,-28,-22.69,-20.17,-18.86,-10.53,-10.31,-12.69,0,0,0,0,0,0,0,0,0,0,0,0,0,0,0,0,
451,-22.92,-30.12,-29.53,-22.43,-21.23,-26.75,-36.43,-34.16,-25.48,-25.53,-19.53,-16.72,-15.44,-9.953,-8.319,-14.41,0,0,0,0,0,0,0,0,0,0,0,0,0,0,0,0,
452,-20.56,-25.81,-20.99,-20.4,-16.04,-23.99,-33.11,-32.14,-27.55,-29.77,-23.2,-16.51,-16.01,-12.46,-10.78,-17.58,0,0,0,0,0,0,0,0,0,0,0,0,0,0,0,0,
453,-20.25,-24.16,-24.59,-23.13,-18.17,-24.19,-36.31,-34.28,-17.12,-37.75,-19.6,-18.28,-19.42,-17.92,-14.76,-19.49,0,0,0,0,0,0,0,0,0,0,0,0,0,0,0,0,
454,-21.29,-25.14,-27.3,-27.57,-19.22,-28.45,-35.7,-35.29,-11.48,-40.93,-11.96,-17.45,-18.57,-18.51,-15.86,-17.93,0,0,0,0,0,0,0,0,0,0,0,0,0,0,0,0,
455,-17.05,-25.28,-19.93,-29.41,-17.88,-25.93,-28.7,-39.92,-14.61,-33.75,-10.18,-10.52,-11.66,-12.57,-11.87,-10.22,0,0,0,0,0,0,0,0,0,0,0,0,0,0,0,0,
456,-7.803,-20.87,-24.42,-29.38,-21.29,-17.72,-20.11,-41.26,-18.53,-25.21,-12.48,-6.423,-8.845,-13.89,-10.91,-8.343,0,0,0,0,0,0,0,0,0,0,0,0,0,0,0,0,
457,-9.132,-15.97,-28.92,-20.32,-23.2,-17.52,-14.16,-27.06,-28.87,-27.16,-20.11,-14.23,-14.05,-24.31,-19.57,-18.68,0,0,0,0,0,0,0,0,0,0,0,0,0,0,0,0,
458,-18.26,-12.13,-13.84,-6.066,-18.83,-19.05,-13.03,-12.88,-37.72,-30.21,-26.18,-19.96,-14.29,-28.92,-23.38,-22.64,0,0,0,0,0,0,0,0,0,0,0,0,0,0,0,0,
459,-16.43,-4.835,-11.24,-10.01,-20.38,-12.59,-13.11,-12.12,-34.19,-24.31,-23.14,-12.94,-5.456,-23.81,-15.43,-15.04,0,0,0,0,0,0,0,0,0,0,0,0,0,0,0,0,
460,-8.162,2.617,-23.88,-20.09,-30.17,-10.12,-12.77,-13.33,-28.63,-19.22,-22.55,-6.727,1.027,-17.6,-11.08,-11.58,0,0,0,0,0,0,0,0,0,0,0,0,0,0,0,0,
461,-7.8,4.648,-19.1,-13.65,-39.17,-18.36,-15.61,-9.066,-28.19,-16.5,-22.98,-9.434,0.1172,-15.71,-12.9,-13.11,0,0,0,0,0,0,0,0,0,0,0,0,0,0,0,0,
462,-16.38,0.3906,-15.98,-14.45,-49.31,-29,-21.36,-5.386,-36.44,-14.36,-21.36,-18.05,-8.027,-18.55,-14.64,-16.81,0,0,0,0,0,0,0,0,0,0,0,0,0,0,0,0,
463,-31.35,-9.944,-31.02,-30.17,-61.52,-38.4,-27.09,-9.36,-56.67,-21.88,-31.72,-29.92,-20.89,-22.03,-21.12,-26.36,0,0,0,0,0,0,0,0,0,0,0,0,0,0,0,0,
464,-44.36,-20.09,-37.7,-32.19,-69,-45.05,-29.66,-15.31,-70.5,-27.44,-44.29,-37.52,-29.35,-21.38,-30.41,-33.59,0,0,0,0,0,0,0,0,0,0,0,0,0,0,0,0,
465,-45.1,-25.17,-35.66,-24.2,-71.48,-44.71,-27.52,-10.27,-63.47,-19.12,-47.32,-37.79,-31.02,-19.58,-33.9,-32.04,0,0,0,0,0,0,0,0,0,0,0,0,0,0,0,0,
466,-37.06,-28.29,-35.33,-23.49,-69.68,-38.86,-24.83,-1.194,-48.64,-16.42,-47.19,-33.51,-30.48,-21.63,-31.25,-27.58,0,0,0,0,0,0,0,0,0,0,0,0,0,0,0,0,
467,-28.74,-28.91,-31.26,-24.14,-63.06,-35.43,-24.8,-1.723,-37.6,-22.77,-37.98,-25.79,-28.33,-23.45,-27.2,-24.98,0,0,0,0,0,0,0,0,0,0,0,0,0,0,0,0,
468,-23.75,-27.4,-34.27,-25.17,-56.3,-38.6,-25.07,-4.092,-31.78,-21.95,-27.45,-20.98,-24.48,-19.82,-26.48,-25.22,0,0,0,0,0,0,0,0,0,0,0,0,0,0,0,0,
469,-22.59,-25.85,-41.5,-27.41,-50.71,-41.39,-22.84,-2.34,-30.84,-20.94,-26.08,-19.81,-18.42,-17.93,-27.31,-25.72,0,0,0,0,0,0,0,0,0,0,0,0,0,0,0,0,
470,-20.25,-17.15,-33.4,-22,-44.91,-35.1,-17.02,-2.802,-28.15,-21.97,-17.27,-14.09,-10.98,-23.61,-24.56,-25.29,0,0,0,0,0,0,0,0,0,0,0,0,0,0,0,0,
471,-13.47,-2.031,-21.54,-12.98,-41.24,-23.99,-9.932,-0.7,-24.16,-11.26,-8.991,-8.932,-8.879,-27.57,-22.6,-28.34,0,0,0,0,0,0,0,0,0,0,0,0,0,0,0,0,
472,-9.466,4.955,-20.2,-11.34,-41.09,-22.13,-7.305,6.411,-27.98,-2.77,-20.23,-12.96,-15.38,-28.73,-27.95,-35.14,0,0,0,0,0,0,0,0,0,0,0,0,0,0,0,0,
473,-12.83,1.4,-23.46,-14.69,-44.01,-29.33,-10.56,8.415,-33.5,-13.81,-30.64,-18.9,-24.68,-36.12,-35.32,-41.3,0,0,0,0,0,0,0,0,0,0,0,0,0,0,0,0,
474,-16.97,-3.151,-27.33,-16.53,-47.05,-29.09,-14.16,9.239,-32.79,-20.8,-26.99,-20.77,-29.91,-41.11,-37.09,-43.49,0,0,0,0,0,0,0,0,0,0,0,0,0,0,0,0,
475,-21.06,-6.231,-28.55,-17.26,-48.52,-25.85,-15.08,13.17,-35.97,-7.032,-27.84,-23.82,-29.06,-34.75,-35.4,-39.76,0,0,0,0,0,0,0,0,0,0,0,0,0,0,0,0,
476,-29.01,-9.285,-31.2,-17.69,-51.08,-34.04,-15.78,8.282,-41.8,2.221,-36.76,-26.37,-22.11,-24.31,-30.33,-29.3,0,0,0,0,0,0,0,0,0,0,0,0,0,0,0,0,
477,-31.35,-9.627,-37.82,-17.39,-51.95,-38.68,-16.84,0.5941,-37.8,-3.811,-34.31,-20.48,-10.84,-13.38,-16.94,-13.06,0,0,0,0,0,0,0,0,0,0,0,0,0,0,0,0,
478,-25.42,-7.537,-35.59,-20.61,-49.78,-34.03,-19.14,0.2604,-35.23,-6.381,-22.39,-13.37,-4.294,-8.602,-3.489,0.8118,0,0,0,0,0,0,0,0,0,0,0,0,0,0,0,0,
479,-26.76,-9.347,-30.68,-27.22,-51.98,-37.29,-25.18,-7.297,-42.46,-7.304,-22.22,-17.01,-6.925,-13.52,-1.017,5.419,0,0,0,0,0,0,0,0,0,0,0,0,0,0,0,0,
480,-35.92,-15.28,-39.34,-31.88,-58.87,-41.98,-31.53,-18.47,-42.69,-14.65,-28.79,-24.81,-9.161,-11.51,-4.493,6.147,0,0,0,0,0,0,0,0,0,0,0,0,0,0,0,0,
481,-39.01,-18.95,-48.31,-38.79,-62.84,-42.06,-35.19,-15.18,-34.78,-14.85,-27.77,-24.2,-7.841,-3.976,-6.335,5.149,0,0,0,0,0,0,0,0,0,0,0,0,0,0,0,0,
482,-34.09,-22.15,-45.09,-44.63,-57.79,-47.56,-38.55,-9.674,-33.66,-13.96,-23.15,-17.12,-12.31,-12.7,-6.677,-3.257,0,0,0,0,0,0,0,0,0,0,0,0,0,0,0,0,
483,-27.86,-30.05,-41.32,-37.6,-47.4,-49.97,-39.21,-11.56,-37.1,-29.97,-19.5,-14.82,-22.88,-30.85,-10.36,-16.63,0,0,0,0,0,0,0,0,0,0,0,0,0,0,0,0,
484,-25.65,-35.64,-42.66,-30.09,-44.2,-44.11,-32.87,-11.48,-34.38,-38.66,-21.46,-18.83,-27.42,-36.31,-17.94,-25.44,0,0,0,0,0,0,0,0,0,0,0,0,0,0,0,0,
485,-25.05,-29.33,-40,-29.88,-43.48,-37.29,-24.45,-11.72,-24.95,-20.56,-26.95,-20.33,-21.64,-28.24,-20.62,-26.08,0,0,0,0,0,0,0,0,0,0,0,0,0,0,0,0,
486,-22.5,-16.94,-32.05,-21.59,-36.31,-27.77,-21.8,-12.38,-20.59,-9.489,-26.35,-20.57,-16.5,-20.82,-18.89,-24.29,0,0,0,0,0,0,0,0,0,0,0,0,0,0,0,0,
487,-22.95,-9.277,-25.83,-15.52,-35.98,-20.23,-21.22,-7.249,-28.28,-17.91,-23.75,-21.84,-15.24,-19.42,-19.68,-21.8,0,0,0,0,0,0,0,0,0,0,0,0,0,0,0,0,
488,-22.55,-3.619,-19.62,-22.15,-39.91,-18.3,-14.24,-2.211,-33.58,-12.9,-19.66,-15.67,-6.663,-10.37,-18.47,-14.52,0,0,0,0,0,0,0,0,0,0,0,0,0,0,0,0,
489,-14.53,5.107,-16.4,-18.53,-35.05,-18.48,-7.978,0.9165,-28.12,4.257,-15.87,-9.332,5.97,8.455,-15.31,-8.803,0,0,0,0,0,0,0,0,0,0,0,0,0,0,0,0,
490,-11.17,10.17,-27.02,-11.19,-36.69,-26.38,-11.6,6.477,-27.76,6.765,-24.64,-15.16,7.862,13.67,-14.99,-10.15,0,0,0,0,0,0,0,0,0,0,0,0,0,0,0,0,
491,-19.11,5.301,-37.87,-20.68,-45.01,-34.35,-16.2,8.784,-35.1,0.6595,-31.04,-21.5,0.1772,0.9175,-14.61,-11.64,0,0,0,0,0,0,0,0,0,0,0,0,0,0,0,0,
492,-26.32,-5.491,-32.37,-24.25,-43.19,-32.28,-17.94,0.7906,-32.21,-5.681,-22.95,-21.21,-7.281,-8.715,-14.99,-11.01,0,0,0,0,0,0,0,0,0,0,0,0,0,0,0,0,
493,-28.36,-15.11,-29.64,-18.86,-44.7,-35.19,-25.14,-14.38,-23.99,-19.26,-21.91,-22.99,-11.9,-10.04,-15.65,-9.805,0,0,0,0,0,0,0,0,0,0,0,0,0,0,0,0,
494,-31.75,-21.2,-42.27,-29.97,-51.92,-43.42,-33.73,-23.55,-29.99,-28.06,-30.28,-24.8,-15.61,-11.68,-11.69,-6.966,0,0,0,0,0,0,0,0,0,0,0,0,0,0,0,0,
495,-36.65,-25.69,-48,-40.34,-44.17,-40.66,-36.09,-21.88,-39.24,-22.6,-30.17,-19.55,-17.37,-12.55,-5.183,-3.402,0,0,0,0,0,0,0,0,0,0,0,0,0,0,0,0,
496,-34.61,-28.29,-39.02,-35.61,-32.53,-33.14,-36.09,-23.58,-33.86,-21.45,-19.29,-10.28,-14.08,-9.946,0.9774,1.333,0,0,0,0,0,0,0,0,0,0,0,0,0,0,0,0,
497,-26.49,-28.65,-36.35,-38.05,-34.22,-31.68,-36.91,-29.94,-24.74,-30.02,-6.367,-5.598,-10.57,-9.201,3.059,4.422,0,0,0,0,0,0,0,0,0,0,0,0,0,0,0,0,
498,-23.91,-29.44,-42.75,-44.15,-39.63,-35.11,-37.43,-28.89,-22.83,-30.98,-1.303,-7.954,-11.39,-11.11,-1.339,1.587,0,0,0,0,0,0,0,0,0,0,0,0,0,0,0,0,
499,-24.53,-27.25,-40.29,-39.13,-43.77,-37.99,-35,-27.39,-22.6,-23.3,-1.748,-9.317,-9.447,-8.355,-3.919,-1.208,0,0,0,0,0,0,0,0,0,0,0,0,0,0,0,0,
500,-18.95,-16.63,-30.92,-29.96,-43.89,-32.41,-25.49,-26.89,-15.47,-16.93,0.5806,-5.971,-2.581,-1.739,-2.177,0.4485,0,0,0,0,0,0,0,0,0,0,0,0,0,0,0,0,
501,-11.39,-3.048,-26.84,-18.19,-33.06,-23.18,-12.59,-16.03,-2.741,-12.03,-1.615,-3.877,2.56,1.869,-3.178,1.986,0,0,0,0,0,0,0,0,0,0,0,0,0,0,0,0,
502,-6.437,5.781,-23.99,-7.924,-25.19,-19.55,-5.356,-6.039,-3.841,-8.887,-12.55,-4.127,6.649,5.321,-4.235,3.942,0,0,0,0,0,0,0,0,0,0,0,0,0,0,0,0,
503,-3.588,9.981,-20.48,-7.574,-30.41,-17.12,-3.523,-4.631,-19.23,-6.392,-16.71,-2.235,12.63,12.09,1.46,10.91,0,0,0,0,0,0,0,0,0,0,0,0,0,0,0,0,
504,-4.037,11.31,-21.95,-12.54,-32.66,-15.75,-2.454,-2.233,-23.11,-1.272,-6.544,1.811,15.67,14.38,8.488,16.84,0,0,0,0,0,0,0,0,0,0,0,0,0,0,0,0,
505,-5.575,9.942,-23.08,-21.31,-30.96,-17.46,-2.177,-5.72,-18.91,-0.0397,0.7648,3.113,11.5,7.498,6.846,12.7,0,0,0,0,0,0,0,0,0,0,0,0,0,0,0,0,
506,-7.394,6.433,-20,-24.57,-38.76,-16.66,-2.778,-11.98,-19.91,-4.893,-6.605,-0.8399,3.752,-0.6317,0.2824,5.503,0,0,0,0,0,0,0,0,0,0,0,0,0,0,0,0,
507,-12.82,1.074,-20.76,-9.977,-42.08,-17.95,-6.106,-3.604,-17.27,-6.447,-15.22,-5.777,-1.931,-3.041,-1.675,3.524,0,0,0,0,0,0,0,0,0,0,0,0,0,0,0,0,
508,-18.48,-4.585,-23.9,-1.206,-28.48,-22.6,-13.34,2.093,-15.73,-4.834,-13.65,-8.098,-5.12,-3.616,-2.914,-0.3424,0,0,0,0,0,0,0,0,0,0,0,0,0,0,0,0,
509,-19.24,-7.793,-23.27,-14.65,-21.65,-22.54,-17.15,-9.489,-20.54,-8.06,-10.75,-11.58,-9.715,-10.17,-8.482,-8.225,0,0,0,0,0,0,0,0,0,0,0,0,0,0,0,0,
510,-19.7,-10.88,-28,-23,-30.87,-24.36,-16.25,-16.01,-21.87,-13.63,-16.19,-17.23,-17.47,-20.21,-12.66,-13.19,0,0,0,0,0,0,0,0,0,0,0,0,0,0,0,0,
511,-23.73,-18.24,-36.9,-18.14,-32.34,-29.39,-19.65,-14.67,-22.48,-16.06,-18.28,-17.33,-22.97,-21.84,-12.16,-13.82,0,0,0,0,0,0,0,0,0,0,0,0,0,0,0,0,
512,-24.78,-26.65,-33.57,-22.96,-27.76,-29.19,-26.4,-19.98,-20.5,-20.99,-6.396,-12.09,-21.76,-15.06,-10.21,-10.72,0,0,0,0,0,0,0,0,0,0,0,0,0,0,0,0,
513,-20.31,-29.84,-25.14,-34.05,-33.8,-29.79,-28.96,-23.46,-10.09,-28.46,-1.825,-10.99,-17.23,-7.874,-9.166,-5.71,0,0,0,0,0,0,0,0,0,0,0,0,0,0,0,0,
514,-17.96,-25.18,-25.88,-31.01,-35.16,-29.61,-26.75,-21.73,-7.477,-22.72,-11.45,-12.58,-10.35,3.31,-8.485,-1.357,0,0,0,0,0,0,0,0,0,0,0,0,0,0,0,0,
515,-21.23,-14.98,-30.7,-19.79,-27.79,-24.31,-23.39,-20.58,-17.24,-5.647,-10.83,-12.82,-2.3,13.12,-8.049,2.027,0,0,0,0,0,0,0,0,0,0,0,0,0,0,0,0,
516,-25.04,-8.138,-33.78,-16.82,-29.69,-25.3,-21.9,-12.86,-19.44,1.877,-6.766,-14.31,0.4178,7.736,-7.23,3.341,0,0,0,0,0,0,0,0,0,0,0,0,0,0,0,0,
517,-23.2,-6.834,-30.65,-20.78,-31.99,-28.22,-20.39,-5.835,-12.63,0.7265,-13.57,-14.02,-0.8952,-0.8782,-6.353,2.027,0,0,0,0,0,0,0,0,0,0,0,0,0,0,0,0,
518,-20.14,-6.031,-26.71,-21.63,-30.14,-27.8,-18.52,-9.218,-15.69,1.965,-17.95,-16.23,-5.321,-2.493,-12.69,-5.01,0,0,0,0,0,0,0,0,0,0,0,0,0,0,0,0,
519,-26.65,-10.08,-30.78,-15,-33.21,-29.81,-18.16,-4.636,-26.42,1.519,-20.56,-25.47,-15.16,-9.145,-21.71,-14.57,0,0,0,0,0,0,0,0,0,0,0,0,0,0,0,0,
520,-31.11,-14.42,-21.51,-9.466,-22.55,-17.89,-11.06,6.519,-22.34,-0.9186,-19.42,-22.52,-17.71,-15.2,-15.7,-11.76,0,0,0,0,0,0,0,0,0,0,0,0,0,0,0,0,
521,-16.29,-4.651,3.888,-8.83,-0.9731,4.442,2.299,3.772,-4.473,1.214,-6.556,-5.534,-9.338,-10.48,-3.957,-2.825,0,0,0,0,0,0,0,0,0,0,0,0,0,0,0,0,
522,0.2699,6.287,9.35,3.377,-0.7299,6.583,5.832,4.457,4.965,5.744,-2.72,-1.099,-8.616,-8.955,-6.779,-7.881,0,0,0,0,0,0,0,0,0,0,0,0,0,0,0,0,
523,-1.567,2.463,-1.435,17.38,-12.45,-3.025,-0.2114,18.41,-1.938,3.803,-14.62,-11.34,-17.86,-16.61,-17.07,-19.84,0,0,0,0,0,0,0,0,0,0,0,0,0,0,0,0,
524,-14.49,-4.085,-7.928,1.996,-19.73,-10.64,-8.268,16.31,-19.76,-6.374,-26.19,-22.74,-24.83,-24.41,-25.17,-26.27,0,0,0,0,0,0,0,0,0,0,0,0,0,0,0,0,
525,-27.57,-9.45,-18.91,-21.23,-31.04,-22.19,-18.6,-1.002,-32.75,-11.71,-30.92,-28.73,-26.85,-28.76,-27.4,-28.07,0,0,0,0,0,0,0,0,0,0,0,0,0,0,0,0,
526,-29.93,-18.25,-22.02,-20.03,-34.36,-24.8,-21,-6.18,-23.42,-7.548,-19.08,-20.52,-21.6,-25.1,-17.2,-20.55,0,0,0,0,0,0,0,0,0,0,0,0,0,0,0,0,
527,-19.05,-20.03,-10.4,-11.98,-25.05,-20.53,-14.26,-3.684,-5.702,-6.574,0.3242,-7.957,-9.891,-11.3,-4.911,-5.152,0,0,0,0,0,0,0,0,0,0,0,0,0,0,0,0,
528,-14.07,-15.02,-15.44,-10.9,-24.89,-23.61,-15.43,-8.011,-5.839,-7.308,-1.687,-8.381,-1.087,2.511,-2.387,5.992,0,0,0,0,0,0,0,0,0,0,0,0,0,0,0,0,
529,-19.37,-13.3,-29.48,-14.84,-28.39,-18.67,-20.85,-10.77,-17.31,-1.98,-16.69,-11.42,2.609,9.686,-2.363,10.26,0,0,0,0,0,0,0,0,0,0,0,0,0,0,0,0,
530,-18.75,-10.27,-20.49,-23.22,-21.72,-8.104,-18,-4.218,-20.57,0.4795,-16.96,-8.919,3.947,14.02,-2.935,9.173,0,0,0,0,0,0,0,0,0,0,0,0,0,0,0,0,
531,-14.79,-4.434,-7.831,-18.28,-20.6,-11.14,-16.46,-0.0089,-16.11,-1.708,-8.989,-11.36,1.257,14.15,-9.524,2.071,0,0,0,0,0,0,0,0,0,0,0,0,0,0,0,0,
532,-16.57,-2.55,-11.33,-2.422,-29.2,-16.46,-18.97,-2.336,-14.87,-0.7133,-12.48,-16.67,-3.759,6.226,-14.84,-4.766,0,0,0,0,0,0,0,0,0,0,0,0,0,0,0,0,
533,-17.74,-1.69,-12.53,-0.3003,-30,-16.24,-11.86,4.085,-19.86,-0.5432,-20.99,-16.16,-7.042,-3.079,-12.02,-6.75,0,0,0,0,0,0,0,0,0,0,0,0,0,0,0,0,
534,-14.86,2.177,-6.405,-3.343,-21.18,-13,3.062,16.72,-19.63,-1.219,-18.55,-11.76,-9.269,-9.102,-7.967,-9.181,0,0,0,0,0,0,0,0,0,0,0,0,0,0,0,0,
535,-9.276,6.788,0.9025,0.8647,-10.48,0.153,14.28,19.39,-4.693,6.5,-8.681,-5.062,-9.781,-14.09,-6.703,-12.62,0,0,0,0,0,0,0,0,0,0,0,0,0,0,0,0,
536,0.0113,10.92,13.23,8.162,-0.3204,12.18,21.41,20.59,7.438,13.67,-1.573,1.8,-7.247,-15,-5.268,-13.21,0,0,0,0,0,0,0,0,0,0,0,0,0,0,0,0,
537,6.859,14.22,20.63,24.31,2.855,13.38,25.38,27.83,0.5571,8.152,-0.6127,3.917,-4.382,-12.28,-4.793,-13.32,0,0,0,0,0,0,0,0,0,0,0,0,0,0,0,0,
538,7.592,17.92,18.37,34.85,-1.191,16.84,24.94,28.42,-3.483,5.987,-2.828,5.442,-0.0657,-9.632,-2.87,-10.62,0,0,0,0,0,0,0,0,0,0,0,0,0,0,0,0,
539,9.871,22.07,22.04,21.18,-2.195,19.78,22.5,22.67,7.267,14.39,-0.9841,8.954,5.643,-3.524,2.384,-2.661,0,0,0,0,0,0,0,0,0,0,0,0,0,0,0,0,
540,11.59,20.13,24.34,10.09,-0.9976,14.83,18.25,21.02,6.511,13.62,0.2853,5.953,5.099,2.199,2.21,2.042,0,0,0,0,0,0,0,0,0,0,0,0,0,0,0,0,
541,3.478,9.96,11.73,17.47,-4.634,13.61,12.33,21.48,-8.512,6.857,-5.521,-2.436,-0.1171,1.536,-2.642,3.053,0,0,0,0,0,0,0,0,0,0,0,0,0,0,0,0,
542,-5.26,-0.2151,3.347,17.84,-9.82,13.78,9.293,16.85,-12.21,5.91,-9.838,-5.741,-1.984,1.483,-3.402,5.242,0,0,0,0,0,0,0,0,0,0,0,0,0,0,0,0,
543,-2.696,-3.406,6.906,4.07,-12.42,6.13,9.948,7.026,-4.792,-2.135,-8.952,-3.891,-2.501,0.8649,-3.223,4.139,0,0,0,0,0,0,0,0,0,0,0,0,0,0,0,0,
544,3.446,0.8432,7.064,-4.352,-11.58,3.344,9.604,0.6552,-1.19,-11.41,-7.411,-1.505,-3.217,-5.615,-4.399,1.438,0,0,0,0,0,0,0,0,0,0,0,0,0,0,0,0,
545,5.425,7.906,8.175,1.988,-5.518,11.45,7.211,1.259,-1.063,-5.577,-6.887,0.6464,-1.758,-6.612,-2.76,1.263,0,0,0,0,0,0,0,0,0,0,0,0,0,0,0,0,
546,7.162,11.35,14.24,11.47,1.121,15.24,7.407,3.029,2.22,-0.2642,-4.11,4.062,-0.6429,-1.525,2.168,-0.0428,0,0,0,0,0,0,0,0,0,0,0,0,0,0,0,0,
547,10.11,10.73,12.15,10.71,-0.0672,8.385,8.364,4.048,6.5,-3.595,5.971,8.922,-1.046,-4.603,7.508,-0.9632,0,0,0,0,0,0,0,0,0,0,0,0,0,0,0,0,
548,10.42,10.14,7.031,6.184,-5.805,2.796,3.808,1.582,3.894,-1.854,11.46,8.556,-1.072,-8.564,8.893,0.6476,0,0,0,0,0,0,0,0,0,0,0,0,0,0,0,0,
549,5.653,10.22,9.661,5.159,-7.431,7.059,0.4009,-4.742,-2.849,2.409,1.88,1.877,-0.4067,-2.574,7.986,1.661,0,0,0,0,0,0,0,0,0,0,0,0,0,0,0,0,
550,-1.7,10.05,9.91,3.662,-8.579,11.35,3.378,-4.023,-8.043,1.131,-6.065,-0.8556,0.5347,0.8311,8.601,1.758,0,0,0,0,0,0,0,0,0,0,0,0,0,0,0,0,
551,-6.053,10.52,3.89,2.839,-14.29,4.502,4.086,0.5503,-13.87,0.3552,-4.984,0.7074,0.4298,-2.186,5.159,0.1605,0,0,0,0,0,0,0,0,0,0,0,0,0,0,0,0,
552,-7.567,10.5,-1.833,1.105,-18.87,-5.39,2.333,-2.997,-16.8,2.95,-7.926,-1.927,-0.9287,-0.818,-4.175,-3.739,0,0,0,0,0,0,0,0,0,0,0,0,0,0,0,0,
553,-10.49,7.183,-8.528,-3.832,-20.71,-8.772,1.157,-3.046,-17.4,1.853,-16.61,-8.356,-1.739,1.967,-11.89,-6.183,0,0,0,0,0,0,0,0,0,0,0,0,0,0,0,0,
554,-13.01,3.094,-11.72,-5.975,-22.56,-9.242,-2.863,5.95,-22.51,-1.317,-21.17,-13.76,-2.198,2.401,-14.48,-6.274,0,0,0,0,0,0,0,0,0,0,0,0,0,0,0,0,
555,-13.01,1.605,-6.503,-5.713,-22.02,-6.994,-3.012,7.752,-23.54,3.439,-18.67,-16.7,-5.477,3.23,-14.36,-7.938,0,0,0,0,0,0,0,0,0,0,0,0,0,0,0,0,
556,-13.15,-2.459,-0.0492,-2.497,-20.35,-0.3373,1.442,6.372,-16.32,9.412,-18.47,-17.68,-11.97,-0.3719,-14.64,-11.81,0,0,0,0,0,0,0,0,0,0,0,0,0,0,0,0,
557,-11.49,-10.51,5.785,6.1,-21.57,1.907,-0.211,10.38,-12.6,3.783,-21.1,-17.12,-15.56,-5.622,-14.99,-13.97,0,0,0,0,0,0,0,0,0,0,0,0,0,0,0,0,
558,-7.236,-12.18,8.39,9.965,-23.57,-2.846,-1.173,5.342,-14.97,-5.473,-15.33,-15.2,-13.71,-6.746,-13.25,-13.42,0,0,0,0,0,0,0,0,0,0,0,0,0,0,0,0,
559,-6.945,-4.235,3.52,7.15,-19.47,-2.502,6.545,-2.392,-16.93,-6.949,-6.579,-10.78,-10.23,-11.21,-8.014,-10.54,0,0,0,0,0,0,0,0,0,0,0,0,0,0,0,0,
560,-6.11,6.063,3.085,7.775,-7.899,4.854,12.87,5.902,-12.77,-0.859,-2.057,-1.013,-3.909,-14.42,0.7164,-4.972,0,0,0,0,0,0,0,0,0,0,0,0,0,0,0,0,
561,3.305,14.53,6.113,8.794,-2.702,7.142,12.65,11.66,-5.541,7.497,3.5,8.622,4.477,-6.736,5.276,-1.839,0,0,0,0,0,0,0,0,0,0,0,0,0,0,0,0,
562,8.347,17.7,-1.74,-0.587,-9.814,4.762,9.108,2.158,-5.716,6.922,4.929,8.139,7.804,-0.4435,2.085,-1.63,0,0,0,0,0,0,0,0,0,0,0,0,0,0,0,0,
563,0.6963,14.63,-8.729,-14.19,-16.55,4.152,4.345,-2.544,-8.632,-1.608,-0.2612,3.676,7.701,-0.136,1.935,2.699,0,0,0,0,0,0,0,0,0,0,0,0,0,0,0,0,
564,-5.25,12.41,-5.771,-13.48,-22.72,-1.224,0.8197,-2.099,-6.725,-1.895,-2.095,5.043,9.015,3.902,6.803,7.224,0,0,0,0,0,0,0,0,0,0,0,0,0,0,0,0,
565,-5.85,12.39,-6.396,-3.992,-29.1,-9.62,-3.032,-8.563,-8.663,0.6816,-2.073,6.503,9.65,5.284,7.504,6.354,0,0,0,0,0,0,0,0,0,0,0,0,0,0,0,0,
566,-9.987,8.518,-13.38,-5.277,-25.26,-9.59,-8.064,-14.49,-15.19,-5.936,-6.547,4.826,9.967,0.4482,5.695,7.936,0,0,0,0,0,0,0,0,0,0,0,0,0,0,0,0,
567,-12.76,3.95,-20.17,-10.56,-21.92,-8.351,-8.951,-15.93,-16.86,-6.999,-7.544,5.887,12.53,2.789,7.18,15.21,0,0,0,0,0,0,0,0,0,0,0,0,0,0,0,0,
568,-7.401,5.661,-21.34,-12.43,-27.22,-13.97,-5.84,-13.88,-14.51,-1.015,1.936,8.935,15.18,10.67,8.993,18.25,0,0,0,0,0,0,0,0,0,0,0,0,0,0,0,0,
569,0.0691,9.639,-15.96,-15.46,-26.72,-14.8,-3.696,-6.93,-12.98,-3.661,8.78,8.094,12.49,8.965,5.744,10.59,0,0,0,0,0,0,0,0,0,0,0,0,0,0,0,0,
570,2.171,7.496,-11.94,-13.12,-22.61,-5.902,-1.464,-3.685,-12.44,-2.724,2.144,1.627,1.273,-0.595,-1.233,-0.6222,0,0,0,0,0,0,0,0,0,0,0,0,0,0,0,0,
571,-1.121,-1.261,-7.221,-8.785,-20.8,2.673,1.199,-1.987,-13.2,3.885,-7.419,-5.356,-11.09,-6.284,-5.57,-5.977,0,0,0,0,0,0,0,0,0,0,0,0,0,0,0,0,
572,-3.535,-9.074,-0.2681,-6.021,-16.5,5.379,0.1692,8.457,-14.96,-4.274,-12.46,-6.54,-14.69,-7.819,-6.386,-7.538,0,0,0,0,0,0,0,0,0,0,0,0,0,0,0,0,
573,-2.264,-9.88,-2.792,2.717,-18.34,2.339,-3.331,11.49,-13.16,-9.948,-14.63,-5.537,-13.29,-11.43,-7.671,-10.24,0,0,0,0,0,0,0,0,0,0,0,0,0,0,0,0,
574,-3.354,-6.63,-10.87,1.546,-26.46,-5.958,-5.863,-1.576,-13.42,2.632,-14.58,-8.497,-13.48,-16.42,-9.638,-12.52,0,0,0,0,0,0,0,0,0,0,0,0,0,0,0,0,
575,-9.152,-3.958,-16.86,-12.08,-30.02,-14.1,-8.393,-5.597,-26.39,6.467,-15.37,-10.37,-11.14,-15.58,-9.219,-10.98,0,0,0,0,0,0,0,0,0,0,0,0,0,0,0,0,
576,-13.64,-0.5644,-24.58,-11.67,-33.61,-16.91,-11.05,2.131,-31.63,-1.729,-12.14,-6.5,-3.38,-7.104,-4.168,-4.001,0,0,0,0,0,0,0,0,0,0,0,0,0,0,0,0,
577,-15.13,2.507,-25.94,-6.755,-36.64,-20.68,-15.07,-2.997,-15.18,-1.191,-3.531,-4.2,3.069,-0.2957,1.474,3.093,0,0,0,0,0,0,0,0,0,0,0,0,0,0,0,0,
578,-19.37,-0.4557,-21.05,-19.31,-35.15,-28.2,-22.66,-15.77,-13.02,0.8024,-4.02,-9.888,1.318,-0.8757,-0.7188,1.739,0,0,0,0,0,0,0,0,0,0,0,0,0,0,0,0,
579,-28.26,-7.615,-25.53,-33.56,-37.51,-26.76,-27,-15.55,-30.64,-6.224,-12.4,-17.94,-5.652,-2.405,-8.074,-4.617,0,0,0,0,0,0,0,0,0,0,0,0,0,0,0,0,
580,-32.92,-10.9,-32.53,-28.32,-40.84,-18.21,-23.43,-8.475,-28.36,-10.84,-14.89,-18.96,-8.718,-2.275,-8.829,-5.856,0,0,0,0,0,0,0,0,0,0,0,0,0,0,0,0,
581,-26.13,-10.46,-30.37,-12.61,-39.27,-19.45,-21.06,-8.364,-15.99,-6.258,-13.72,-13.83,-7.292,-5.301,-4.503,-2.062,0,0,0,0,0,0,0,0,0,0,0,0,0,0,0,0,
582,-17.16,-11.07,-29.66,-15.65,-36.43,-22.47,-22.82,-11.93,-19.34,-6.325,-14.44,-10.55,-7.489,-9.247,-4.524,-0.0372,0,0,0,0,0,0,0,0,0,0,0,0,0,0,0,0,
583,-14.58,-9.988,-31.47,-30.83,-27.57,-15.58,-19.14,-10.83,-19.81,-16.41,-13.47,-8.827,-8.007,-10.03,-5.177,-1.274,0,0,0,0,0,0,0,0,0,0,0,0,0,0,0,0,
584,-12.15,-6.476,-22.88,-22.77,-17.59,-13.99,-12.42,-8.726,-13.73,-16.39,-9.613,-6.673,-8.464,-11.49,-4.019,-4.244,0,0,0,0,0,0,0,0,0,0,0,0,0,0,0,0,
585,-11.64,-9.005,-13.9,-8.362,-20.3,-19.32,-15.21,-12.86,-15.11,-3.356,-11.58,-11.17,-13.65,-12.82,-8.559,-9.462,0,0,0,0,0,0,0,0,0,0,0,0,0,0,0,0,
586,-20.86,-16.92,-20.96,-16.71,-24.9,-16.61,-23.06,-13.92,-14.03,2.124,-19.88,-20.86,-18.06,-8.59,-14.41,-14.99,0,0,0,0,0,0,0,0,0,0,0,0,0,0,0,0,
587,-29.21,-18.41,-28.93,-25.25,-23.98,-14.73,-21.29,-4.489,-10.51,1.381,-20.58,-24.08,-16.91,-6.284,-16.37,-19.01,0,0,0,0,0,0,0,0,0,0,0,0,0,0,0,0,
588,-27.35,-12.35,-23.84,-21.31,-26.52,-19.91,-12.18,1.067,-12.9,3.429,-17.59,-21.35,-16.38,-10.67,-20.83,-22.29,0,0,0,0,0,0,0,0,0,0,0,0,0,0,0,0,
589,-21.56,-4.782,-18.22,-13.56,-23.1,-15.71,-5.948,0.3514,-11.16,2.914,-21.52,-18.26,-13.75,-9.787,-22.34,-21.21,0,0,0,0,0,0,0,0,0,0,0,0,0,0,0,0,
590,-13.18,4.338,-14.65,-0.3818,-13.55,-3.183,-0.3278,5.082,-10.3,2.756,-19.56,-14.17,-6.598,-5.686,-16.16,-16.42,0,0,0,0,0,0,0,0,0,0,0,0,0,0,0,0,
591,-6.087,10.08,-7.966,7.155,-15.24,2.612,7.679,7.123,-17.4,4.629,-9.909,-12.15,-6.042,-10.61,-13.72,-15.47,0,0,0,0,0,0,0,0,0,0,0,0,0,0,0,0,
592,-8.361,7.67,-6.623,5.344,-15.64,4.173,13.03,4.797,-12.91,0.1185,-9.642,-12.7,-9.532,-14.11,-14.45,-15.95,0,0,0,0,0,0,0,0,0,0,0,0,0,0,0,0,
593,-9.137,7.63,-7.369,6.055,-7.52,5.152,15.28,12.59,-1.454,-3.56,-17.06,-10.77,-7.234,-9.841,-12.36,-14,0,0,0,0,0,0,0,0,0,0,0,0,0,0,0,0,
594,-2.764,11.38,-0.9563,2.043,-11.44,0.0533,15.39,16.86,-6.231,2.596,-22.04,-10.95,-7.825,-9.018,-12.55,-13.66,0,0,0,0,0,0,0,0,0,0,0,0,0,0,0,0,
595,-5.254,5.561,0.8224,-3.76,-17.34,-5.154,10.54,3.137,-13.06,6.765,-22.35,-14.42,-12.06,-6.759,-10.12,-11.55,0,0,0,0,0,0,0,0,0,0,0,0,0,0,0,0,
596,-11.95,-1.319,-3.674,4.339,-8.882,0.6386,7.272,-3.286,-7.078,3.779,-14.38,-10.13,-8.198,-1.034,-1.929,-6.068,0,0,0,0,0,0,0,0,0,0,0,0,0,0,0,0,
597,-4.532,4.677,3.32,12.83,-2.907,11.24,12.8,7.363,-2.044,2.051,-5.294,-2.447,-4.01,-8.036,-2.477,-7.52,0,0,0,0,0,0,0,0,0,0,0,0,0,0,0,0,
598,6.944,10.92,12.2,11.55,-4.711,14.38,18.28,9.632,-2.43,0.2853,-7.578,-3.291,-6.385,-17.75,-10.66,-13.74,0,0,0,0,0,0,0,0,0,0,0,0,0,0,0,0,
599,9.997,10.89,3.44,11.62,-7.402,12.31,17.17,5.48,-1.704,-0.4551,-8.559,-5.455,-5.264,-9.333,-10.62,-13.02,0,0,0,0,0,0,0,0,0,0,0,0,0,0,0,0,
600,10.04,9.936,-4.907,10.38,-10.8,10.32,13.93,12.31,-0.5599,4.229,-0.2592,-5.592,-5.046,-0.8627,-6.699,-9.797,0,0,0,0,0,0,0,0,0,0,0,0,0,0,0,0,
601,4.587,0.1966,1.541,3.773,-8.244,4.518,9.643,12.77,-4.108,2.149,-4.696,-10.52,-11.24,-7.463,-7.279,-9.562,0,0,0,0,0,0,0,0,0,0,0,0,0,0,0,0,
602,-6.42,-10.85,2.97,0.1828,-6.271,-2.985,7.196,0.1238,-12.68,-7.235,-16.81,-12.8,-9.222,-6.502,-6.136,-5.952,0,0,0,0,0,0,0,0,0,0,0,0,0,0,0,0,
603,-9.816,-3.66,-5.073,1.648,-12.57,-1.719,10.1,0.358,-14.25,-5.895,-12.4,-8.87,0.0235,6.072,-4.767,-1.893,0,0,0,0,0,0,0,0,0,0,0,0,0,0,0,0,
604,-5.642,9.106,-4.522,4.397,-11.09,5.76,12.14,10.88,-6.746,2.386,-8.446,-8.261,1.573,7.501,-8.53,-4.822,0,0,0,0,0,0,0,0,0,0,0,0,0,0,0,0,
605,-2.316,12.13,3.521,7.2,-5.535,7.708,12.65,13.43,-8.242,6.281,-16.11,-8.75,0.4898,0.7387,-9.964,-8.904,0,0,0,0,0,0,0,0,0,0,0,0,0,0,0,0,
606,1.07,16.44,4.692,13.45,-10,7.611,18.46,17.64,-17.5,10.35,-13.96,-3.889,3.894,-0.6687,-5.236,-8.775,0,0,0,0,0,0,0,0,0,0,0,0,0,0,0,0,
607,5.992,24.92,4.206,23.38,-7.557,13.14,26.73,25.07,-12.44,15.06,-3.111,4.545,8.287,0.283,0.856,-6.208,0,0,0,0,0,0,0,0,0,0,0,0,0,0,0,0,
608,13.32,30.51,13.81,26,2.436,16.44,31.57,25.62,4.637,16.88,1.329,12.45,12.5,2.544,4.17,-2.856,0,0,0,0,0,0,0,0,0,0,0,0,0,0,0,0,
609,21.74,33.75,20.62,22.2,0.4677,16.28,33.08,25.29,11.94,16.03,0.1872,14.34,13.3,3.397,3.423,-0.726,0,0,0,0,0,0,0,0,0,0,0,0,0,0,0,0,
610,24.55,31.96,16.25,24.04,-1.308,21.23,32.7,24.97,8.734,14.5,2.184,13.54,11.49,0.7107,5.322,2.577,0,0,0,0,0,0,0,0,0,0,0,0,0,0,0,0,
611,22.13,24.11,16.86,22.87,4.426,22.89,30.17,22.13,7.657,16.1,8.928,15.16,13.21,5.783,9.868,7.877,0,0,0,0,0,0,0,0,0,0,0,0,0,0,0,0,
612,17.46,16.82,18.83,14.01,-1.171,15.54,23.6,19.86,3.408,14.08,5.679,10.42,12.58,14.95,6.72,7.478,0,0,0,0,0,0,0,0,0,0,0,0,0,0,0,0,
613,7.775,10.27,9.501,11.92,-12.54,10.57,15.53,12.22,-7.588,3.843,-5.066,0.6031,5.647,12.47,2.501,2.798,0,0,0,0,0,0,0,0,0,0,0,0,0,0,0,0,
614,-0.8459,3.004,-0.0579,10.05,-11.48,8.491,12.59,6.319,-8.245,0.6476,-1.955,0.0591,2.098,4.628,6.127,3.38,0,0,0,0,0,0,0,0,0,0,0,0,0,0,0,0,
615,1.876,1.763,-3.958,1.611,-3.831,5.924,14.87,14,1.566,8.734,5.677,5.703,5.439,2.513,7.278,6.66,0,0,0,0,0,0,0,0,0,0,0,0,0,0,0,0,
616,9.317,9.701,-0.8639,5.739,-2.626,6.017,17.91,19.63,2.574,14.8,4.005,7.545,11.89,6.759,3.922,5.761,0,0,0,0,0,0,0,0,0,0,0,0,0,0,0,0,
617,10,20.61,8.97,17.95,-9.953,6.077,21.28,18.61,-0.7833,18.5,3.883,9.141,19.58,16.33,5.772,4.65,0,0,0,0,0,0,0,0,0,0,0,0,0,0,0,0,
618,10.38,27.71,10.54,15.91,-12.55,8.563,25.2,21.38,4.829,22.24,6.768,14.98,24.29,20.57,11.47,8.149,0,0,0,0,0,0,0,0,0,0,0,0,0,0,0,0,
619,17.57,28.68,10.2,9.381,-0.6993,14.89,25.09,17.09,11.33,19.26,9.664,20.26,23.29,14.04,14.41,10.2,0,0,0,0,0,0,0,0,0,0,0,0,0,0,0,0,
620,19.74,25.49,16.22,12.56,8.284,16.23,19.58,8.514,10.68,14.39,16.86,19.21,19.47,10.81,14.33,7.321,0,0,0,0,0,0,0,0,0,0,0,0,0,0,0,0,
621,11.59,19.97,8.496,15.52,4.396,16.21,16.26,13.87,5.245,16.05,20.88,13.34,13.71,11.97,13.59,5.13,0,0,0,0,0,0,0,0,0,0,0,0,0,0,0,0,
622,5.122,11.83,-0.7858,14.66,0.9984,18.54,16.92,22.26,-0.6602,15.8,14.08,8.331,6.929,6.361,12.28,3.612,0,0,0,0,0,0,0,0,0,0,0,0,0,0,0,0,
623,4.446,6.653,10.7,18.11,-2.956,14.21,15.8,22.42,1.643,10.38,6.081,7.861,5.59,2.971,10.8,2.905,0,0,0,0,0,0,0,0,0,0,0,0,0,0,0,0,
624,5.451,9.973,16.69,18.28,-10.98,6.401,14.43,22.24,6.826,11.68,5.368,8.561,8.79,7.804,8.737,5.684,0,0,0,0,0,0,0,0,0,0,0,0,0,0,0,0,
625,5.022,13.87,6.401,6.223,-11.23,4.257,15.04,19.83,0.1,17.73,4.832,3.655,7.655,8.999,3.696,5.315,0,0,0,0,0,0,0,0,0,0,0,0,0,0,0,0,
626,2.588,13.45,1.096,0.1445,-5.941,7.693,16.65,14.73,-3.95,17.12,0.3227,-1.446,6.217,8.967,0.8634,3.904,0,0,0,0,0,0,0,0,0,0,0,0,0,0,0,0,
627,5.679,17.08,0.8577,10.39,-4.773,10.69,21.31,17.29,6.993,15.12,-2.376,0.3396,11.75,15.41,3.722,9.879,0,0,0,0,0,0,0,0,0,0,0,0,0,0,0,0,
628,12.03,22.73,3.82,18.84,-5.343,6.937,24.34,22.93,9.647,19.81,-0.4026,1.333,16.56,21.48,5.561,15.68,0,0,0,0,0,0,0,0,0,0,0,0,0,0,0,0,
629,9.406,18.95,12.64,19.37,-4.578,7.403,21.23,17.27,2.729,22.42,7.348,0.4503,15.13,22.74,7.67,17.74,0,0,0,0,0,0,0,0,0,0,0,0,0,0,0,0,
630,5.612,8.716,15.55,15.69,0.6571,19.56,20.02,6.309,9.549,14.19,14.19,4.941,11.3,18.13,12.08,18.8,0,0,0,0,0,0,0,0,0,0,0,0,0,0,0,0,
631,11.31,3.748,17.29,11.55,8.383,24.66,24.34,8.961,20.79,7.156,14.77,12.07,9.22,10.95,14.2,16.14,0,0,0,0,0,0,0,0,0,0,0,0,0,0,0,0,
632,19.82,8.065,27.26,20.83,10.37,22.36,28.16,21.01,21.79,11.6,21.41,21.06,13.42,11.49,19.9,17.19,0,0,0,0,0,0,0,0,0,0,0,0,0,0,0,0,
633,28.63,15.42,25.56,27.93,11.54,26.75,27.34,23.82,21.84,13.69,29.95,31.12,19.69,15.39,28.15,21.61,0,0,0,0,0,0,0,0,0,0,0,0,0,0,0,0,
634,35.65,17.33,10.84,13.14,11.71,24.17,22.44,18.95,20.65,10.25,25.33,32.53,19.51,14.39,26.75,16.33,0,0,0,0,0,0,0,0,0,0,0,0,0,0,0,0,
635,32.4,16.59,8.072,6.991,-2.193,11.4,19.77,15.03,11.67,14.94,18.74,25.33,18.07,14.02,20.12,8.657,0,0,0,0,0,0,0,0,0,0,0,0,0,0,0,0,
636,22.42,21.47,10.45,17.22,-13.55,8.431,22.23,13.69,6.043,22.87,15.56,16.78,19.54,15.2,13.2,5.585,0,0,0,0,0,0,0,0,0,0,0,0,0,0,0,0,
637,13.75,28.11,7.969,19.42,-1.854,12.86,24.18,20.47,11.86,28.63,10.23,7.351,16.07,15.22,0.9584,-2.204,0,0,0,0,0,0,0,0,0,0,0,0,0,0,0,0,
638,7.941,29.15,14.87,22.94,8.908,12.54,24.18,31.08,16.4,32.95,6.199,-2.184,7.184,13.59,-9.41,-9.281,0,0,0,0,0,0,0,0,0,0,0,0,0,0,0,0,
639,6.356,26.67,20.34,23.53,3.921,11.62,23.29,33.69,8.349,26.42,-1.81,-9.521,0.9072,7.841,-10.32,-7.273,0,0,0,0,0,0,0,0,0,0,0,0,0,0,0,0,
640,4.614,21.72,8.73,8.856,0.9466,13.1,18.79,30.44,-2.206,19.26,-9.636,-12.92,-1.705,4.719,-7.867,-3.72,0,0,0,0,0,0,0,0,0,0,0,0,0,0,0,0,
641,-0.6549,12.97,-0.7826,5.991,-1.668,10.94,12.66,22.82,-0.4364,21.21,-5.122,-9.9,-3.805,8.37,-5.546,-0.8236,0,0,0,0,0,0,0,0,0,0,0,0,0,0,0,0,
642,-0.221,5.708,3.57,12.78,-7.469,5.223,9.502,12.62,8.862,12.54,2.478,-1.947,-3.644,9.237,0.5746,5.473,0,0,0,0,0,0,0,0,0,0,0,0,0,0,0,0,
643,6.954,2.449,10.54,9.839,-0.4301,7.795,10.07,16.07,12.8,0.2547,10.74,8.733,1.853,7.01,10.87,12.7,0,0,0,0,0,0,0,0,0,0,0,0,0,0,0,0,
644,13.32,1.555,13.91,17.29,12.4,18.43,15.33,30.08,16.31,8.564,22.52,22.31,11.4,8.598,19.36,19,0,0,0,0,0,0,0,0,0,0,0,0,0,0,0,0,
645,24.12,8.182,16.44,31.13,13.39,20.77,23.88,31.67,26.37,22.81,25.05,33.85,22.1,11.66,23.02,24.74,0,0,0,0,0,0,0,0,0,0,0,0,0,0,0,0,
646,37.33,22.35,21.42,29.41,10.56,19.62,29.43,26.47,31.77,25.14,21.8,36.58,31.07,13.95,24.16,26.27,0,0,0,0,0,0,0,0,0,0,0,0,0,0,0,0,
647,38.09,33.16,24.83,25.36,12.17,27.39,29.78,30.34,29.83,22.4,23.79,30.91,33.27,16.03,21.45,21.23,0,0,0,0,0,0,0,0,0,0,0,0,0,0,0,0,
648,30.38,36.62,22.56,25.6,13.32,29.55,29.87,33.3,26.85,24.33,20.65,21.21,26.86,15.07,13.21,13.33,0,0,0,0,0,0,0,0,0,0,0,0,0,0,0,0,
649,25.78,37.09,20.8,24.99,13.97,22.25,34.53,30.13,16.9,31.13,8.308,12.49,19.38,12.11,5.166,6.535,0,0,0,0,0,0,0,0,0,0,0,0,0,0,0,0,
650,23.2,37.22,23.51,25.18,15.76,23.01,40.57,29.64,7.777,29.51,1.405,9.722,16.61,11.89,2.268,1.46,0,0,0,0,0,0,0,0,0,0,0,0,0,0,0,0,
651,21.47,35.66,26.36,20.77,15.12,27.05,39.19,30.16,11.25,20.79,7.397,11.91,14.34,13.97,4.092,0.0571,0,0,0,0,0,0,0,0,0,0,0,0,0,0,0,0,
652,19.54,30.73,24.77,19.65,13.39,23.94,32.68,29.81,15.41,25.68,20,15.47,13.11,18.88,10.94,6.629,0,0,0,0,0,0,0,0,0,0,0,0,0,0,0,0,
653,17.68,26.53,18.92,28.5,13.41,20.18,29.16,29.51,21.3,34.62,28.13,18.64,15.68,26.51,18.37,16.17,0,0,0,0,0,0,0,0,0,0,0,0,0,0,0,0,
654,19.98,23.03,14.61,28.13,6.964,14.75,22.75,23.63,30.32,26.11,22.59,15.53,11.49,26.94,15.9,15.45,0,0,0,0,0,0,0,0,0,0,0,0,0,0,0,0,
655,18.04,12.58,14.82,15.73,-3.755,7.709,11.87,15.35,19.66,15.88,11.58,5.238,-0.627,20.23,7.049,7.142,0,0,0,0,0,0,0,0,0,0,0,0,0,0,0,0,
656,4.999,1.675,14.19,8.168,-0.8298,8.953,8.417,13.49,1.044,19.12,10.66,-1.232,-4.329,17.94,4.758,5.19,0,0,0,0,0,0,0,0,0,0,0,0,0,0,0,0,
657,-3.89,3.896,10.27,11.13,8.802,13.94,11.89,17.48,4.658,22.99,14.26,0.9376,1.427,17.46,5.795,7.797,0,0,0,0,0,0,0,0,0,0,0,0,0,0,0,0,
658,3.498,14.36,11.73,19.54,10.37,16.5,18.19,25.14,17.95,23.29,16.03,7.453,7.081,15.18,3.817,7.537,0,0,0,0,0,0,0,0,0,0,0,0,0,0,0,0,
659,19.01,20.8,21.68,19.25,15.76,23.75,29.78,33.86,24.77,26.28,19.19,15.6,12.7,14.44,5.583,7.419,0,0,0,0,0,0,0,0,0,0,0,0,0,0,0,0,
660,29.95,21.02,28.08,12.7,23.94,31.86,36.61,38.02,27.5,25.73,16.87,21.59,16.77,9.929,11.85,10.6,0,0,0,0,0,0,0,0,0,0,0,0,0,0,0,0,
661,31.75,19.59,30.15,23.6,22.93,31.66,33.15,35.44,24.27,18.55,13.52,23.2,17.8,3.818,14.99,14.98,0,0,0,0,0,0,0,0,0,0,0,0,0,0,0,0,
662,28.32,19.62,38.08,44.22,24.51,29.31,30.57,30.07,20.33,16.22,15.53,22.13,19.3,5.052,14.31,16.06,0,0,0,0,0,0,0,0,0,0,0,0,0,0,0,0,
663,23.73,18.59,41.09,42.73,27.09,28.25,27.33,29.53,18.73,22.42,11.05,18.39,18.79,8.733,12.6,13.35,0,0,0,0,0,0,0,0,0,0,0,0,0,0,0,0,
664,17.81,14.01,27.15,23.32,15.52,22.45,15.47,31.78,11.56,26.9,7.686,13.29,14.05,11.18,9.489,10.77,0,0,0,0,0,0,0,0,0,0,0,0,0,0,0,0,
665,11.44,7.938,11.73,14.87,4.226,15.51,5.259,27.42,5.359,26.46,12.71,8.802,9.843,14.81,5.184,6.457,0,0,0,0,0,0,0,0,0,0,0,0,0,0,0,0,
666,6.007,4.624,9.767,13.93,7.122,14.07,8.112,21.54,7.894,25.3,11.28,3.976,8.01,16.61,3.469,0.9797,0,0,0,0,0,0,0,0,0,0,0,0,0,0,0,0,
667,2.557,8.498,12.66,2.523,11.17,14.75,17.38,23.04,9.883,21,8.961,0.7473,6.008,15.41,4.55,0.065,0,0,0,0,0,0,0,0,0,0,0,0,0,0,0,0,
668,4.364,16.34,11.08,2.438,6.423,13.47,20.59,26.48,9.137,16.41,9.823,0.8734,1.731,11.93,2.618,-1.3,0,0,0,0,0,0,0,0,0,0,0,0,0,0,0,0,
669,8.481,17.7,13.17,22.9,-0.5007,10.52,17.27,25.5,9.331,19.92,3.324,-0.0954,-5.525,6.582,-1.684,-6.722,0,0,0,0,0,0,0,0,0,0,0,0,0,0,0,0,
670,6.995,11,21.94,25.47,3.58,9.911,14.76,22.32,7.292,20.71,-0.0218,-2.487,-12.42,4.277,-2.632,-8.707,0,0,0,0,0,0,0,0,0,0,0,0,0,0,0,0,
671,5.386,5.38,25.91,15.45,19.32,16.75,15.14,23.06,8.276,11.37,4.077,0.2707,-12.41,6.715,-1.031,-6.11,0,0,0,0,0,0,0,0,0,0,0,0,0,0,0,0,
672,11.36,7.095,23.7,23.58,26.12,25.06,17.78,27.96,13.93,13.22,4.666,7.456,-3.93,9.047,1.327,-0.5744,0,0,0,0,0,0,0,0,0,0,0,0,0,0,0,0,
673,15.81,13.73,20.29,23.71,16.4,25.58,22.41,29.15,13.02,26.62,4.679,12.44,7.535,9.469,5.565,9.41,0,0,0,0,0,0,0,0,0,0,0,0,0,0,0,0,T1
674,15.59,18.8,18.23,7.071,10.98,21.61,24.77,25.19,10.76,24.37,8.141,15.95,17.65,11.48,10.66,17.72,0,0,0,0,0,0,0,0,0,0,0,0,0,0,0,0,
675,19.38,19.41,20.33,3.832,16.37,17.6,21.99,20.34,14.69,14.41,11.39,19.97,24.47,15.98,15.13,20.13,0,0,0,0,0,0,0,0,0,0,0,0,0,0,0,0,
676,22.04,16.93,15.48,5.438,16.87,13.62,16.07,17.21,14.5,17.35,11.66,19.49,24.73,18.85,17.86,21.77,0,0,0,0,0,0,0,0,0,0,0,0,0,0,0,0,
677,16.22,11.69,4.335,1.892,11.07,11.52,8.731,19.75,12.02,18.42,12.39,12.45,18.57,17.63,15.68,20.92,0,0,0,0,0,0,0,0,0,0,0,0,0,0,0,0,
678,9.013,5.206,9.796,8.793,6.458,8.954,3.453,19.89,10.65,10.44,15.32,4.719,11.74,12.61,7.852,12.53,0,0,0,0,0,0,0,0,0,0,0,0,0,0,0,0,
679,6.76,3.793,20.38,16.03,4.507,3.846,5.197,7.532,1.376,9.161,9.964,2.427,8.617,5.591,1.069,4.561,0,0,0,0,0,0,0,0,0,0,0,0,0,0,0,0,
680,9.547,9.019,14.59,9.275,9.06,2.934,9.576,0.4467,-3.78,11.03,0.4118,5.071,7.583,1.612,0.3314,3.008,0,0,0,0,0,0,0,0,0,0,0,0,0,0,0,0,
681,12.56,12.41,10.91,3.839,13.93,11.09,9.55,12.08,3.08,6.621,2.343,6.314,4.022,1.914,1.058,0.3159,0,0,0,0,0,0,0,0,0,0,0,0,0,0,0,0,
682,10.12,10.49,14.21,9.49,9.501,19.37,9.336,23.43,2.988,6.811,6.449,3.801,-3.002,2.809,0.3063,-5.425,0,0,0,0,0,0,0,0,0,0,0,0,0,0,0,0,
683,7.84,8.381,9.134,10.92,6.542,15.51,11.69,24.38,-0.0551,16.61,3.348,1.813,-9.677,4.591,0.2033,-9.152,0,0,0,0,0,0,0,0,0,0,0,0,0,0,0,0,
684,10.18,6.507,7.991,2.032,8.972,8.732,12.96,24.11,7.952,22.71,2.332,1.263,-12.46,6.783,-0.2739,-11.46,0,0,0,0,0,0,0,0,0,0,0,0,0,0,0,0,
685,7.855,4.71,15.88,0.5146,6.038,12.83,13.9,20.41,10.14,17.4,3.603,-1.436,-12.57,3.202,-2.214,-12.78,0,0,0,0,0,0,0,0,0,0,0,0,0,0,0,0,
686,-2.058,3.743,14.43,6.153,4.784,12.46,10.26,8.288,-0.1155,7.424,1.599,-4.873,-12.79,-3.898,-4.323,-11.53,0,0,0,0,0,0,0,0,0,0,0,0,0,0,0,0,
687,-7.107,-1.878,9.352,2.414,10.85,1.956,1.323,-0.5913,-2.861,1.336,1.119,-1.939,-8.896,-2.949,-2.722,-5.131,0,0,0,0,0,0,0,0,0,0,0,0,0,0,0,0,
688,0.9179,-8.005,16.47,1.008,12.81,5.939,2.016,5.789,7.45,1.317,7.677,8.739,2.029,2.929,6.815,8.443,0,0,0,0,0,0,0,0,0,0,0,0,0,0,0,0,
689,13.78,-3.776,23.48,10.1,12.68,19.02,9.857,18.36,18.23,5.099,17.68,19.76,12.81,3.631,18.88,21.69,0,0,0,0,0,0,0,0,0,0,0,0,0,0,0,0,
690,20.28,4.76,17.68,9.415,16.11,16.22,9.272,19.75,19.46,8.473,24.63,25.76,21,9.102,25.95,28.33,0,0,0,0,0,0,0,0,0,0,0,0,0,0,0,0,
691,20.43,9.945,9.287,0.9532,13.89,7.461,4.915,11.87,12.02,6.349,23.23,24.43,26.02,20.56,26.58,28.73,0,0,0,0,0,0,0,0,0,0,0,0,0,0,0,0,
692,15.18,11.55,6.073,-0.6792,6.54,5.351,-1.515,6.151,5.847,0.118,12.57,14.82,19.57,16.06,18.5,19.66,0,0,0,0,0,0,0,0,0,0,0,0,0,0,0,0,
693,4.364,4.837,2.564,-7.926,0.8248,2.668,-11.86,-0.3977,2.48,-2.078,5.385,5.869,8.863,2.868,8.259,9.485,0,0,0,0,0,0,0,0,0,0,0,0,0,0,0,0,
694,-1.243,-1.895,-3.329,-22.22,-7.332,-2.487,-10.64,-9.03,-6.383,0.892,5.573,5.42,9.419,5.535,7.805,11.14,0,0,0,0,0,0,0,0,0,0,0,0,0,0,0,0,
695,1.843,3.138,-5.85,-20.92,-10.88,-8.471,-2.343,-8.033,-15.62,5.91,1.624,5.858,12.38,10.79,11.68,13.72,0,0,0,0,0,0,0,0,0,0,0,0,0,0,0,0,
696,-0.2192,6.022,-3.386,-8.335,-0.5975,-9.195,-6.232,-0.2578,-13.66,10.62,2.006,1.949,5.675,3.005,10.32,7.771,0,0,0,0,0,0,0,0,0,0,0,0,0,0,0,0,
697,-6.466,-0.8976,-0.5082,-5.506,7.696,0.1007,-9.474,2.604,-3.027,6.244,10.49,0.6082,-3.029,-3.38,6.818,2.05,0,0,0,0,0,0,0,0,0,0,0,0,0,0,0,0,
698,-1.881,-3.248,4.514,-3.786,7.402,6.484,-0.6411,6.639,9.343,-3.24,8.891,3.254,-8.133,-3.51,3.583,-3.288,0,0,0,0,0,0,0,0,0,0,0,0,0,0,0,0,
699,8.492,-0.4306,12.29,3.262,12.01,6.572,3.26,9.485,15.2,-2.783,2.643,3.518,-12.43,-6.974,-0.4791,-10.88,0,0,0,0,0,0,0,0,0,0,0,0,0,0,0,0,
700,10.27,-1.495,11.97,-2.723,13.91,8.295,-2.335,-2.666,6.085,-3.035,1.323,0.0089,-14.77,-10.67,-3.606,-12.58,0,0,0,0,0,0,0,0,0,0,0,0,0,0,0,0,
701,4.792,-5.731,3.541,-13.41,3.486,3.749,-6.896,-13.98,-5.739,-12.68,-1.964,-3.996,-12.76,-8.491,-4.322,-6.854,0,0,0,0,0,0,0,0,0,0,0,0,0,0,0,0,
702,-1.135,-9.923,0.1207,-7.984,-1.855,-2.882,-8.573,-9.785,-4.69,-12.65,0.259,-5.877,-6.205,-3.233,-2.497,0.8608,0,0,0,0,0,0,0,0,0,0,0,0,0,0,0,0,
703,-3.938,-8.902,1.431,-2.165,3.384,1.329,-7.493,-7.458,-1.638,-2.438,5.337,-5.199,3.463,3.52,-0.0818,9.072,0,0,0,0,0,0,0,0,0,0,0,0,0,0,0,0,
704,-1.986,-1.622,-1.97,-7.109,2.002,1.755,-4.785,-6.392,-6.861,3.238,-3.293,-4.562,11.76,10.77,-0.2981,14.21,0,0,0,0,0,0,0,0,0,0,0,0,0,0,0,0,
705,1.236,5.305,-6.301,-10.07,-5.018,-5.192,-2.405,7.152,-10.54,7.072,-10.91,-2.321,16.1,12.68,1.088,15.29,0,0,0,0,0,0,0,0,0,0,0,0,0,0,0,0,
706,4.066,10.36,-1.145,-9.496,-2.158,-3.256,1.306,15.14,-6.787,8.409,0.9758,6.118,17.53,9.39,9.76,18.15,0,0,0,0,0,0,0,0,0,0,0,0,0,0,0,0,
707,6.089,10.4,3.2,-6.96,2.255,-2.646,0.3015,4.674,-2.466,3.548,12.88,12.03,13.85,6.984,15.53,17.89,0,0,0,0,0,0,0,0,0,0,0,0,0,0,0,0,
708,2.412,3.043,-5.446,-4.157,-5.328,-9.429,-6.345,-3.308,-4.672,-1.335,5.274,7.799,6.813,4.052,10.16,8.563,0,0,0,0,0,0,0,0,0,0,0,0,0,0,0,0,
709,-1.42,1.576,-7.95,-7.137,-8.538,-5.453,-3.276,2.013,-10.73,-5.518,-5.788,5.666,6.31,-1.193,6.549,3.856,0,0,0,0,0,0,0,0,0,0,0,0,0,0,0,0,
710,3.651,9.493,-1.779,-6.644,0.1376,2.211,7.146,4.441,-10.97,-5.514,-5.294,8.43,10.67,-3.222,7.506,7.103,0,0,0,0,0,0,0,0,0,0,0,0,0,0,0,0,
711,7.831,13.35,-8.046,-0.7066,1.75,-2.653,9.457,-0.7138,-4.833,5.296,-1.68,4.13,9.646,-0.8214,1.349,3.502,0,0,0,0,0,0,0,0,0,0,0,0,0,0,0,0,
712,3.638,13,-7.529,-3.984,0.2521,-3.833,8.343,0.0819,-2.705,10.39,0.5313,-3.275,4.736,-0.4192,-5.514,-3.794,0,0,0,0,0,0,0,0,0,0,0,0,0,0,0,0,
713,-1.131,10.43,9.797,-6.917,6.729,8.46,6.263,0.9946,-7.843,-5.028,-1.789,-7.962,-2.79,-5.746,-8.453,-9.266,0,0,0,0,0,0,0,0,0,0,0,0,0,0,0,0,
714,-6.788,-1.128,11.33,1.53,6.452,11.44,-3.94,-9.571,-10.29,-18.35,-7.677,-14.93,-16.56,-11.43,-17.08,-20.46,0,0,0,0,0,0,0,0,0,0,0,0,0,0,0,0,
715,-15.41,-16.36,2.591,2.076,0.2242,-3.247,-14.9,-15.23,-3.117,-14.24,-2.243,-19.72,-29.12,-13.56,-23.84,-28.41,0,0,0,0,0,0,0,0,0,0,0,0,0,0,0,0,
716,-18.19,-29.54,3.426,-7.811,4.023,-12.51,-21.75,-9.191,5.346,-16.7,2.635,-19.49,-34.5,-19.45,-21.4,-24.98,0,0,0,0,0,0,0,0,0,0,0,0,0,0,0,0,
717,-16.43,-43.38,-1.044,-11.65,7.942,-9.765,-29.6,-8.472,3.556,-28.77,-9.402,-21.52,-36.52,-27.56,-19.92,-22.41,0,0,0,0,0,0,0,0,0,0,0,0,0,0,0,0,
718,-20,-48.46,-11.25,-16.76,-1.768,-11.57,-33.72,-11.3,-6.613,-22.37,-13.4,-21.65,-30.93,-21.83,-16.79,-19.19,0,0,0,0,0,0,0,0,0,0,0,0,0,0,0,0,
719,-22.49,-36.14,-16.43,-23.02,-13.1,-15.33,-28.15,-6.993,-11.77,-5.294,-4.503,-14.23,-14.97,-6.024,-8.382,-8.243,0,0,0,0,0,0,0,0,0,0,0,0,0,0,0,0,
720,-14.46,-17.64,-13.47,-10.01,-6.536,-9.098,-15.89,-0.5257,-4.664,-0.7908,-6.629,-8.885,-2.649,-2.137,-7.069,-2.031,0,0,0,0,0,0,0,0,0,0,0,0,0,0,0,0,
721,-4.93,-4.418,3.247,9.261,14.94,-0.0978,-3.187,3.453,3.336,-0.728,-11.46,-10.49,-0.8103,-8.39,-11.43,-3.471,0,0,0,0,0,0,0,0,0,0,0,0,0,0,0,0,
722,-2.785,2.907,16.09,8.004,29.55,4.741,2.272,5.556,2.36,-0.4798,-7.81,-12.57,-0.0662,-4.692,-12.27,-2.475,0,0,0,0,0,0,0,0,0,0,0,0,0,0,0,0,
723,-3.738,4.392,12.13,0.9818,36.13,10.66,-1.069,6.469,4.693,-2.042,-3.664,-11.58,2.382,8.003,-10.89,-0.2678,0,0,0,0,0,0,0,0,0,0,0,0,0,0,0,0,
724,-3.093,2.367,14.04,8.077,49.95,19.09,-3.231,3.419,18.28,3.203,6.379,-5.071,4.899,13.59,-2.814,4.33,0,0,0,0,0,0,0,0,0,0,0,0,0,0,0,0,
725,2.206,2.232,22.89,13.23,60.86,22.5,1.233,-8.716,29.81,4.061,19.58,4.36,8.661,10.02,8.411,13.35,0,0,0,0,0,0,0,0,0,0,0,0,0,0,0,0,
726,9.475,1.409,20.89,4.384,58.98,18.8,1.142,-20.6,33.27,-9.545,15.05,5.252,7.335,5.09,7.333,14.83,0,0,0,0,0,0,0,0,0,0,0,0,0,0,0,0,
727,9.262,-4.054,18.07,-0.774,63.58,19.47,-6.63,-22.04,35.38,-16.05,4.569,0.521,0.9452,2.853,2.607,8.781,0,0,0,0,0,0,0,0,0,0,0,0,0,0,0,0,
728,5.376,-7.528,19.43,4.013,72.17,24.42,-5.824,-24.84,34.4,-9.875,15.08,2.43,-0.7524,3.288,6.367,7.609,0,0,0,0,0,0,0,0,0,0,0,0,0,0,0,0,
729,7.203,-7.168,14.37,1.959,63.62,21.5,1.149,-31.68,28.36,-9.807,27.67,5.451,-1.125,3.902,8.144,9.195,0,0,0,0,0,0,0,0,0,0,0,0,0,0,0,0,
730,10.98,-9.236,13.33,-4.406,55.63,19.9,-2.038,-28.36,26.1,-14.36,21.94,5.926,-1.628,5.695,9.139,11.78,0,0,0,0,0,0,0,0,0,0,0,0,0,0,0,0,
731,15.21,-9.932,22.34,0.2578,62.47,25.44,-5.861,-23.42,29.77,-12.47,20.38,12,6.296,10.64,16.04,18.16,0,0,0,0,0,0,0,0,0,0,0,0,0,0,0,0,
732,20.97,-5.174,21.65,7.939,60.13,22.09,-3.001,-30.31,31.79,-8.938,27.44,17.91,14.77,13.14,17.58,20.39,0,0,0,0,0,0,0,0,0,0,0,0,0,0,0,0,
733,22.21,-0.5805,11.47,5.722,47.18,13.68,-4.691,-33.78,30.08,-9.592,23.47,16.29,15,10.75,12.61,16.88,0,0,0,0,0,0,0,0,0,0,0,0,0,0,0,0,
734,19.65,3.19,7.897,-2.889,40.98,10.74,-4.526,-23.55,24.22,-9.175,14.44,14.03,15.01,9.919,10.01,14.47,0,0,0,0,0,0,0,0,0,0,0,0,0,0,0,0,
735,17.28,7.969,2.629,-7.457,39.77,7.125,3.747,-14.51,16.33,-3.132,9.748,12.86,16.48,13.26,5.715,11.99,0,0,0,0,0,0,0,0,0,0,0,0,0,0,0,0,
736,13.88,11.31,-4.47,-1.959,43.8,9.581,7.237,-14.42,16.53,3.043,6.041,9.161,16.27,16.03,-1.499,8.763,0,0,0,0,0,0,0,0,0,0,0,0,0,0,0,0,
737,13.77,14.46,4.886,3.661,48.93,21.13,8.768,-11.17,23.17,7.076,5.108,6.689,17.45,13.38,-2.647,7.413,0,0,0,0,0,0,0,0,0,0,0,0,0,0,0,0,
738,19.88,18.63,20.19,1.227,46.41,25.02,17.73,-0.3907,25.15,12.37,5.416,8.236,18.43,8.717,3.09,7.022,0,0,0,0,0,0,0,0,0,0,0,0,0,0,0,0,
739,25.36,20.86,23.98,4.795,49.17,25.29,23.71,2.79,24.89,11.67,3.519,10.79,18.33,9.622,7.553,9.309,0,0,0,0,0,0,0,0,0,0,0,0,0,0,0,0,
740,28.05,22.15,26.19,19.35,61.81,36.85,23.83,-2.096,28.44,6.259,4.899,15.22,22.17,13.61,10.93,17.23,0,0,0,0,0,0,0,0,0,0,0,0,0,0,0,0,
741,33.12,26.64,32.71,29.44,70.72,49.59,29.32,2.032,35.43,12.1,14.57,24.35,27.32,14.25,18.29,24.46,0,0,0,0,0,0,0,0,0,0,0,0,0,0,0,0,
742,39.61,31.81,36.93,30.39,73.29,51.31,36.98,8.557,42.04,18.84,27.56,30.94,27.25,13.15,22.22,23.47,0,0,0,0,0,0,0,0,0,0,0,0,0,0,0,0,
743,40.85,29.74,39.51,27.86,71.87,48.05,36.2,5.387,41.55,11.74,31.49,27.7,23.18,12.42,17.63,19.6,0,0,0,0,0,0,0,0,0,0,0,0,0,0,0,0,
744,36.76,19.6,41.4,25.68,71.06,43.59,29.25,2.174,39,8.229,24.57,22.74,18.22,11.24,13.98,17.71,0,0,0,0,0,0,0,0,0,0,0,0,0,0,0,0,
745,36.04,11.59,38.87,27.78,71.89,36.81,24.37,0.2294,44.19,10.26,23.15,25.87,15.45,10.55,15.15,14.57,0,0,0,0,0,0,0,0,0,0,0,0,0,0,0,0,
746,42.39,14.01,34.42,26.98,65.27,35.37,24.51,-4.413,47.55,1.188,32.71,32.98,17.96,10.8,18.15,14.37,0,0,0,0,0,0,0,0,0,0,0,0,0,0,0,0,
747,46.7,21.18,34.25,16.7,59.17,38.44,24.28,-6.472,40.51,-6.714,35.43,35.82,20.42,10.45,21.5,17.74,0,0,0,0,0,0,0,0,0,0,0,0,0,0,0,0,
748,44.39,22.81,32.37,13.24,62.48,34.64,18.43,-7.796,36.01,-0.9087,28.39,37.97,20.63,9.839,23.3,17.4,0,0,0,0,0,0,0,0,0,0,0,0,0,0,0,0,
749,45.01,21.59,20.74,22.02,60.01,31.03,13.34,-4.649,42.4,6.587,29.94,45.24,26.19,12.14,26.2,19.8,0,0,0,0,0,0,0,0,0,0,0,0,0,0,0,0,
750,48.93,24.27,12.97,23.92,51.1,33.6,14.35,6.661,46.55,9.337,34.99,47.69,31.87,16.83,29.64,26.42,0,0,0,0,0,0,0,0,0,0,0,0,0,0,0,0,
751,43.12,24.5,19.24,18.09,48.79,29.58,13.33,7.486,37.2,9.448,28.02,38.07,27.16,17.62,27.42,25.18,0,0,0,0,0,0,0,0,0,0,0,0,0,0,0,0,
752,27.79,17,21.88,13.6,46.41,19.78,6.681,-3.963,23.23,7.29,18.73,27.02,19.82,12.68,22.72,20.52,0,0,0,0,0,0,0,0,0,0,0,0,0,0,0,0,
753,15.76,10.59,16.03,8.953,41.1,13.73,5.252,-1.584,17.24,7.227,14.16,19.93,17.62,9.137,18.42,19.21,0,0,0,0,0,0,0,0,0,0,0,0,0,0,0,0,
754,12,11.21,21.23,14.79,45.93,16.32,13.11,15.61,20.91,12.56,11.41,13.17,15.8,10.67,10.85,14.49,0,0,0,0,0,0,0,0,0,0,0,0,0,0,0,0,
755,11.41,11.89,35.55,30.27,58.11,31.72,17.05,22.33,28.53,15.45,9.977,6.93,10.48,8.873,3.376,7.45,0,0,0,0,0,0,0,0,0,0,0,0,0,0,0,0,
756,8.875,5.982,40.33,29.96,61.16,40.51,11.73,12.88,30.91,6.518,2.566,2.12,2.463,-0.1082,0.924,3.433,0,0,0,0,0,0,0,0,0,0,0,0,0,0,0,0,
757,9.425,-1.663,35.55,19.77,56.1,30.75,9.677,5.312,29.51,-4.763,-0.1005,3.645,-1.4,-2.716,3.064,2.971,0,0,0,0,0,0,0,0,0,0,0,0,0,0,0,0,
758,18.89,-2.728,30.63,26.47,54.41,29.29,11.35,5.952,35.84,-2.981,17.31,14.34,4.104,6.532,9.074,7.042,0,0,0,0,0,0,0,0,0,0,0,0,0,0,0,0,
759,28.56,1.01,28.44,37.39,53.02,35.51,6.379,2.441,43.41,3.123,30.02,22.29,10.67,11.84,14.93,11.51,0,0,0,0,0,0,0,0,0,0,0,0,0,0,0,0,
760,28.36,2.182,26.84,26.2,46.8,26.48,1.035,-6.44,37.15,-0.0627,21.46,19.51,11.47,8.361,15.13,12,0,0,0,0,0,0,0,0,0,0,0,0,0,0,0,0,
761,20.98,0.9246,23.16,7.443,40.62,18.11,0.5864,-9.636,24.07,-1.997,14.33,16.54,12.94,10.66,14.13,13.29,0,0,0,0,0,0,0,0,0,0,0,0,0,0,0,0,
762,15.28,3.275,18.63,7.312,34.84,17.77,-0.879,-7.066,19.08,4.644,18.34,21.22,18.84,20.59,19.19,18.4,0,0,0,0,0,0,0,0,0,0,0,0,0,0,0,0,
763,16.65,10.19,14.33,11.97,29,11,1.655,-4.712,21.47,5.132,19.79,24.81,22.82,22.6,22.92,21.33,0,0,0,0,0,0,0,0,0,0,0,0,0,0,0,0,
764,21.11,15.66,13.94,7.089,29.49,11.53,9.355,-2.548,23.71,-2.236,15.25,23.11,21.98,14.22,20.6,20.27,0,0,0,0,0,0,0,0,0,0,0,0,0,0,0,0,
765,23.14,16.78,20.59,13.12,36.33,22.64,10.64,-0.9942,26.23,-1.148,17.03,25.58,22.44,13.01,24.32,22.83,0,0,0,0,0,0,0,0,0,0,0,0,0,0,0,0,
766,24.1,17.09,21.68,25.35,41.88,23.21,8.703,-2.33,30.86,4.554,23.79,29.06,25.58,23.49,29.83,27.32,0,0,0,0,0,0,0,0,0,0,0,0,0,0,0,0,
767,23.78,17.57,14.01,18.82,41.1,18.73,11.95,-4.237,29.41,2.708,19.55,21.98,23.31,26.27,21.65,22.9,0,0,0,0,0,0,0,0,0,0,0,0,0,0,0,0,
768,20.2,15.23,13.77,11.38,36.04,18.62,13.79,-2.711,20.24,2.632,11.38,13.39,13.81,15.77,11.99,14.13,0,0,0,0,0,0,0,0,0,0,0,0,0,0,0,0,
769,15.11,8.522,15.63,19.04,34.25,17.04,9.779,2.969,17.49,9.253,11.71,11.82,4.505,7.998,12,10.89,0,0,0,0,0,0,0,0,0,0,0,0,0,0,0,0,
770,7.818,-0.8423,11.1,20.7,33.72,17.06,4.078,8.561,21.78,11.81,11.15,7.303,-0.9112,6.202,9.2,7.91,0,0,0,0,0,0,0,0,0,0,0,0,0,0,0,0,
771,-1.098,-5.381,14.71,10.24,25.6,13.89,1.808,8.441,20.4,9.688,9.115,1.216,-1.092,4.976,5.036,3.998,0,0,0,0,0,0,0,0,0,0,0,0,0,0,0,0,
772,-3.584,0.6675,22.02,4.909,20.65,5.971,5.809,7.956,19.79,9.162,10.35,2.393,3.886,5.95,8.181,6.079,0,0,0,0,0,0,0,0,0,0,0,0,0,0,0,0,
773,0.0716,7.535,16.87,12.86,27.95,9.258,6.371,11.45,27.23,10.6,8.699,2.162,5.234,4.938,7.419,7.296,0,0,0,0,0,0,0,0,0,0,0,0,0,0,0,0,
774,0.45,5.395,8.903,21.87,29.9,14.44,-1.328,7.508,30.28,10.21,8.784,-0.4578,2.461,3.845,0.4717,3.21,0,0,0,0,0,0,0,0,0,0,0,0,0,0,0,0,
775,3.788,4.19,10.51,20.51,27.49,11.8,-0.3091,1.006,28.47,4.094,15.36,7.733,8.01,13.82,1.985,6.212,0,0,0,0,0,0,0,0,0,0,0,0,0,0,0,0,
776,16.25,8.757,17.88,19.04,36.22,18.38,7.593,6.721,29.8,-0.4947,16.45,15.78,14.46,22.25,8.13,13.6,0,0,0,0,0,0,0,0,0,0,0,0,0,0,0,0,
777,19.86,6.007,22.59,18.3,39.09,24.05,2.451,8.387,27.85,4.957,9.298,9.219,7.696,14.2,6.971,11.19,0,0,0,0,0,0,0,0,0,0,0,0,0,0,0,0,
778,11.48,-2.597,22.61,11.22,33.88,17.49,-2.912,0.3503,25.31,9.788,7.755,5.251,1.306,5.838,5.517,7.295,0,0,0,0,0,0,0,0,0,0,0,0,0,0,0,0,
779,11.44,-3.018,22.98,14.73,42.02,18.93,6.054,2.833,30.84,6.156,14.63,11.37,5.251,8.266,9.257,11.07,0,0,0,0,0,0,0,0,0,0,0,0,0,0,0,0,
780,17.54,2.538,24.03,24.49,45.9,22.19,13.59,5.409,38.31,4.169,20.73,13.96,9.759,13.3,13.65,14.7,0,0,0,0,0,0,0,0,0,0,0,0,0,0,0,0,
781,19.33,6.34,22.94,18.6,36.38,17.06,15.43,-2.486,43.42,5.227,24.29,16.24,13.93,17.91,18.95,17.88,0,0,0,0,0,0,0,0,0,0,0,0,0,0,0,0,
782,22.03,8.392,20.43,17.98,39.46,22.88,15.36,0.3504,44.1,5.736,23.49,21.32,18.84,20.84,22.85,23.37,0,0,0,0,0,0,0,0,0,0,0,0,0,0,0,0,
783,21.87,10.14,19.44,30.93,44.31,31.46,8.647,10.03,38.51,12.24,18.94,20.1,19.72,21.97,21.74,24.5,0,0,0,0,0,0,0,0,0,0,0,0,0,0,0,0,
784,15.29,13.28,21.97,26.84,32.74,22.87,5.232,5.633,31.44,15.76,21.21,15.87,18.56,23.83,18.36,20.07,0,0,0,0,0,0,0,0,0,0,0,0,0,0,0,0,
785,12.72,16.11,18.25,11.69,24.83,11.72,9.34,-3.683,21.56,4.668,24.9,15.22,18.38,23.26,16.49,18.63,0,0,0,0,0,0,0,0,0,0,0,0,0,0,0,0,
786,15.6,15.88,6.383,7.563,28.68,10.37,8.82,-4.049,16.18,1.332,22.36,18.5,20.42,22.56,22.66,25.73,0,0,0,0,0,0,0,0,0,0,0,0,0,0,0,0,
787,18.38,15.15,5.309,5.194,34.25,11.38,6.414,0.0548,27.47,17.56,25.32,24.45,23.06,26.5,31.72,31.81,0,0,0,0,0,0,0,0,0,0,0,0,0,0,0,0,
788,20.34,13.99,8.556,0.0578,34.85,9.74,5.883,1.563,37.72,25.43,29.93,25.32,19.93,27.72,27.21,25.66,0,0,0,0,0,0,0,0,0,0,0,0,0,0,0,0,
789,19.18,10.66,-1.836,0.9395,23.97,7.457,3.495,2.405,35.92,15.22,26.37,20.73,14.2,22.12,18.07,18.08,0,0,0,0,0,0,0,0,0,0,0,0,0,0,0,0,
790,17.07,9.341,-3.385,9.692,15.16,9.206,7.788,9.322,37.68,9.389,25.1,20.57,14,18,20.16,19.98,0,0,0,0,0,0,0,0,0,0,0,0,0,0,0,0,
791,20.26,12.65,14.43,20.28,24.11,14.63,16.87,18.25,39.02,16.19,28.81,24.14,17.15,21.12,23,22.38,0,0,0,0,0,0,0,0,0,0,0,0,0,0,0,0,
792,23.63,16.33,23.03,22.92,32.7,17.94,15.81,17.62,31.31,21.87,29.94,24.56,18.78,24.63,21.21,21.33,0,0,0,0,0,0,0,0,0,0,0,0,0,0,0,0,
793,20.27,15.88,19.45,22.17,27.93,17.96,12.51,10.89,26.14,19.39,24.05,20.87,17.77,19.97,20.69,21.6,0,0,0,0,0,0,0,0,0,0,0,0,0,0,0,0,
794,17.8,12.86,18.77,24.9,26.69,18.28,18.44,12.57,26.86,16.84,12.35,15.3,16.07,13.4,17.62,21.57,0,0,0,0,0,0,0,0,0,0,0,0,0,0,0,0,
795,20.2,12.43,17.33,21.56,30.83,18.69,21.86,21.36,28.49,13.99,7.545,11.39,16.96,13.07,14.08,20.94,0,0,0,0,0,0,0,0,0,0,0,0,0,0,0,0,
796,17.78,16.19,18.73,20.24,26.62,16.52,18.95,21.89,29.98,7.264,12.52,12.11,19.83,18.03,17.19,23.03,0,0,0,0,0,0,0,0,0,0,0,0,0,0,0,0,
797,12.9,21.31,24.62,31.11,24.99,17.17,20.21,16.31,28.18,10.89,19.6,17.74,22.05,27.98,22.88,26.17,0,0,0,0,0,0,0,0,0,0,0,0,0,0,0,0,
798,15.25,22.21,20.54,29.92,34.65,23.72,20.65,19.16,26.39,21.95,28.12,22.52,20.36,33.48,25.08,25.39,0,0,0,0,0,0,0,0,0,0,0,0,0,0,0,0,
799,16.78,15.87,15.98,16.93,34.65,24.94,13.66,22.84,29.11,18.46,30.27,20.56,14.77,25.88,23.34,21.99,0,0,0,0,0,0,0,0,0,0,0,0,0,0,0,0,
800,13.8,10.55,22.08,20.95,23.12,19.24,11.32,15.78,27.87,13.06,22.8,19.53,14.13,19.42,23.49,23.85,0,0,0,0,0,0,0,0,0,0,0,0,0,0,0,0,
801,18.9,14.81,20.93,29.39,23.31,20.16,18.84,10.93,21.92,21.61,18.17,25.43,20.36,19.74,28.59,28.95,0,0,0,0,0,0,0,0,0,0,0,0,0,0,0,0,
802,28.95,21.45,20.06,27.33,31.06,26.66,24.97,16.43,22.25,24.88,18.7,26.61,23.14,17.23,27.73,26.29,0,0,0,0,0,0,0,0,0,0,0,0,0,0,0,0,
803,28.75,22.09,34.21,30.34,29.54,25.67,25.36,22.02,22.91,20.83,21,19.93,21.79,18.18,19.46,18.9,0,0,0,0,0,0,0,0,0,0,0,0,0,0,0,0,
804,21.91,21.62,34.87,31.01,24.64,18.41,24.53,23.23,19.07,23.44,24.09,17.75,22.45,23.46,18.73,17.07,0,0,0,0,0,0,0,0,0,0,0,0,0,0,0,0,
805,20.9,22.74,20.03,22.19,24.47,17.16,22.74,20.77,25.66,20.23,22.08,19.45,22.48,22.13,22.42,17.86,0,0,0,0,0,0,0,0,0,0,0,0,0,0,0,0,
806,23.46,20.56,21.28,22.09,27.93,23,19.45,15.74,33.53,8.671,18.52,17.16,20.38,21.22,19.12,16.95,0,0,0,0,0,0,0,0,0,0,0,0,0,0,0,0,
807,20.99,16.3,25.85,24.91,31.14,24.84,17.21,13.25,21.04,8.215,19.25,14,17.15,22.29,15.56,16.13,0,0,0,0,0,0,0,0,0,0,0,0,0,0,0,0,
808,15.95,12.39,17.78,19.24,25.83,20.08,15.31,10.03,9.886,13.37,16.81,12.37,10.2,12.28,14.67,13.31,0,0,0,0,0,0,0,0,0,0,0,0,0,0,0,0,
809,15.82,8.319,15.61,15.33,17.87,16.22,11.96,3.891,20.06,10.66,11.93,11.37,6.246,3.071,13.26,11.55,0,0,0,0,0,0,0,0,0,0,0,0,0,0,0,0,
810,15.98,8.42,14.84,10.37,21.97,13.28,8.551,4.563,25.75,9.53,13.03,11.32,11.61,11.02,15.88,17.07,0,0,0,0,0,0,0,0,0,0,0,0,0,0,0,0,
811,7.504,10.65,3.06,3.71,24.29,7.159,5.083,6.281,15.46,13.7,13.85,9.304,15.49,21.42,18.51,21.69,0,0,0,0,0,0,0,0,0,0,0,0,0,0,0,0,
812,-0.566,8.483,0.2328,7.866,13,1.17,3.322,-1.208,11.51,13.92,12.83,8.274,12.67,20.24,16.59,18.88,0,0,0,0,0,0,0,0,0,0,0,0,0,0,0,0,
813,2.804,6.112,8.666,11.84,9.654,-1.629,4.337,-3.459,17.17,7.399,19.05,11.66,8.731,12.78,16.4,14.07,0,0,0,0,0,0,0,0,0,0,0,0,0,0,0,0,
814,6.484,3.315,3.666,6.438,13.81,-0.7541,1.758,2.462,18.88,-1.121,22.81,12.01,3.58,6.548,16.49,8.779,0,0,0,0,0,0,0,0,0,0,0,0,0,0,0,0,
815,5.893,-2.728,-2.928,6.225,7.873,6.269,-2.267,0.0578,20.22,-0.2039,17.57,10.85,1.091,7.735,14.68,5.111,0,0,0,0,0,0,0,0,0,0,0,0,0,0,0,0,
816,11.9,-3.556,8.984,9.929,8.585,11.59,-0.8162,-4.021,25.72,8.933,17.43,13.02,1.463,10.38,13.44,3.986,0,0,0,0,0,0,0,0,0,0,0,0,0,0,0,0,
817,15.67,-2.161,11.94,8.72,19.49,4.245,-1.104,2.014,26.95,7.959,17.81,9.439,-4.186,1.876,9.239,-0.437,0,0,0,0,0,0,0,0,0,0,0,0,0,0,0,0,
818,8.454,-6.219,-0.3148,9.894,17.28,-3.361,-3.482,9.234,21.14,0.8447,11.15,3.763,-6.542,-4.916,7.348,-1.091,0,0,0,0,0,0,0,0,0,0,0,0,0,0,0,0,
819,5.19,-4.406,5.718,12.85,11.76,3.553,1.581,11.2,14.24,3.078,12.96,7.37,4.409,6.112,14.09,9.341,0,0,0,0,0,0,0,0,0,0,0,0,0,0,0,0,
820,7.67,5.556,17.16,12.19,18.19,14.01,7.434,6.854,13.5,7.613,20.31,9.981,12.94,17.78,17.42,16.06,0,0,0,0,0,0,0,0,0,0,0,0,0,0,0,0,
821,4.11,9.552,9.176,13,20.64,14.69,5.262,-4.67,15.4,8.652,15.57,2.718,8.989,14,10.88,10.09,0,0,0,0,0,0,0,0,0,0,0,0,0,0,0,0,
822,-2.705,5.681,2.308,12.33,13.42,7.764,-0.6199,-13.67,6.544,6.29,3.659,-5.908,1.456,6.633,3.979,2.446,0,0,0,0,0,0,0,0,0,0,0,0,0,0,0,0,
823,-7.186,0.092,3.782,3.527,11.1,1.749,-4.692,-12.04,-0.094,-3.38,-0.6076,-8.712,-2.598,4.987,2.862,0.4149,0,0,0,0,0,0,0,0,0,0,0,0,0,0,0,0,
824,-8.637,-3.705,4.087,-2.66,16.63,1.08,-3.466,-4.508,13.1,-7.72,5.598,-6.41,-3.463,3.039,4.463,-0.3742,0,0,0,0,0,0,0,0,0,0,0,0,0,0,0,0,
825,-6.55,-2.366,8.492,4.88,19,1.591,2.204,1.539,20.46,1.101,9.398,-3.862,-4.782,-0.8961,4.387,-3.074,0,0,0,0,0,0,0,0,0,0,0,0,0,0,0,0,
826,-4.426,0.3953,9.12,12.57,14.95,1.818,4.194,2.045,10.54,5.265,5.643,-2.647,-7.09,-3.81,4.628,-3.776,0,0,0,0,0,0,0,0,0,0,0,0,0,0,0,0,
827,-5.529,-3.352,-1.345,4.682,10.02,1.813,-3.474,-0.4556,11.03,-0.8044,7.329,-0.8087,-7.249,-6.723,6.411,-0.7176,0,0,0,0,0,0,0,0,0,0,0,0,0,0,0,0,
828,-6.412,-8.925,-8.405,-4.086,5.271,-1.936,-11.93,-1.635,19.96,-3.51,12.74,1.04,-3.159,-4.805,7.885,4.957,0,0,0,0,0,0,0,0,0,0,0,0,0,0,0,0,
829,-0.8287,-5.29,-5.596,-1.13,6.755,-0.9295,-7.774,-6.227,19.23,0.45,12.18,4.216,3.057,3.026,11.13,10.96,0,0,0,0,0,0,0,0,0,0,0,0,0,0,0,0,
830,6.638,1.031,-0.7733,-1.166,16.67,5.565,-0.5914,-14.02,14.72,2.542,11.06,6.968,2.46,1.492,11.41,9.076,0,0,0,0,0,0,0,0,0,0,0,0,0,0,0,0,
831,5.441,-1.534,-0.2875,-2.991,17.66,1.121,-4.638,-12.75,11.2,-0.5105,12.76,4.13,-3.921,-6.43,5.866,2.163,0,0,0,0,0,0,0,0,0,0,0,0,0,0,0,0,
832,2.993,-4.56,-2.518,2.378,9.999,-4.081,-8.28,-4.842,11.9,-2.135,16.13,2.517,-3.575,-3.538,5.691,1.194,0,0,0,0,0,0,0,0,0,0,0,0,0,0,0,0,
833,8.753,-1.043,-1.758,0.8413,10.26,3.206,-2.989,-3.495,18.24,-2.83,16.43,6.437,-1.039,-1.924,7.522,-1.456,0,0,0,0,0,0,0,0,0,0,0,0,0,0,0,0,
834,11.72,0.9744,-0.6291,-2.52,9.594,3.536,1.701,-5.022,15.56,-7.705,6.633,4.912,-4,-9.114,1.093,-7.911,0,0,0,0,0,0,0,0,0,0,0,0,0,0,0,0,
835,6.184,0.2005,-5.061,3.314,4.241,-2.592,1.893,-3.805,5.161,-7.183,-3.861,-2.548,-3.61,-8.306,-1.559,-4.957,0,0,0,0,0,0,0,0,0,0,0,0,0,0,0,0,
836,0.1696,-0.4036,-13.57,-2.714,5.848,-0.1965,-1.794,-5.041,3.22,1.792,-5.97,-5.887,-1.415,-4.08,2.908,0.0457,0,0,0,0,0,0,0,0,0,0,0,0,0,0,0,0,
837,-5.885,-3.516,-18.63,-15.59,2.413,-5.736,-8.098,-9.263,1.435,4.216,-5.796,-7.954,-5.587,-4.932,0.1644,-3.317,0,0,0,0,0,0,0,0,0,0,0,0,0,0,0,0,
838,-13.64,-9.132,-16.05,-11.25,-9.961,-20.6,-12.88,-16.4,-5.888,-2.749,-2.822,-10.86,-9.156,-2.123,-4.311,-4.958,0,0,0,0,0,0,0,0,0,0,0,0,0,0,0,0,
839,-16.09,-15.21,-14.58,-8.876,-10.13,-21.47,-16.93,-24.64,-2.915,-6.511,7.308,-6.723,-8.926,-0.1731,0.6256,-2.293,0,0,0,0,0,0,0,0,0,0,0,0,0,0,0,0,
840,-10.9,-20.01,-17.41,-18.7,-2.854,-14.03,-21.25,-22.02,4.792,-0.6461,16.28,-0.7223,-10.42,-2.543,4.276,-3.038,0,0,0,0,0,0,0,0,0,0,0,0,0,0,0,0,
841,-6.471,-21,-14.84,-18.46,-3.883,-10.47,-20.98,-12.2,2.416,2.85,13.38,-2.162,-11.39,-3.763,0.7073,-6.105,0,0,0,0,0,0,0,0,0,0,0,0,0,0,0,0,
842,-4.79,-16.88,-12.84,-12.61,-3.03,-5.263,-12.66,-13.62,0.6795,-6.532,2.834,-3.504,-9.452,-10.77,-0.4096,-7.381,0,0,0,0,0,0,0,0,0,0,0,0,0,0,0,0,
843,-1.243,-9.255,-19.08,-13.14,2.017,-3.347,-3.162,-17.79,1.469,-7.891,-4.123,-2.605,-8.602,-19.75,-0.1333,-8.155,0,0,0,0,0,0,0,0,0,0,0,0,0,0,0,0,
844,-1.347,-4.619,-17.73,-9.847,-1.209,-7.797,-2.247,-6.028,-5.336,5.665,-7.252,-6.424,-9.01,-18.17,-4.613,-10.96,0,0,0,0,0,0,0,0,0,0,0,0,0,0,0,0,
845,-7.006,-5.523,-3.753,-5.591,-4.959,-7.201,-5.06,6.053,-7.394,1.435,-10.63,-9.634,-8.357,-14.55,-9.242,-13.69,0,0,0,0,0,0,0,0,0,0,0,0,0,0,0,0,
846,-8.192,-6.582,2.375,-6.757,0.9785,-1.794,-4.87,0.9169,-0.2686,-13.12,-12.36,-8.255,-8.206,-14.06,-10.69,-12.16,0,0,0,0,0,0,0,0,0,0,0,0,0,0,0,0,
847,-5.003,-7.643,-6.154,0.1961,1.613,-1.038,-5.387,-5.152,-0.6439,-2.899,-7.07,-6.665,-8.204,-9.674,-9.092,-7.225,0,0,0,0,0,0,0,0,0,0,0,0,0,0,0,0,
848,-4.324,-9.704,-11.86,7.945,-12.29,-6.781,-4.229,-4.335,-5.278,9.236,2.012,-5.684,-6.57,-6.284,-5.67,-4.373,0,0,0,0,0,0,0,0,0,0,0,0,0,0,0,0,
849,-5.545,-8.613,-7.903,-3.317,-20.42,-12.33,-0.7849,-10.62,-3.121,-0.0834,-0.8947,-5.917,-5.207,-6.49,-3.694,-4.68,0,0,0,0,0,0,0,0,0,0,0,0,0,0,0,0,
850,-6.78,-6.774,-8.994,-14.39,-12.02,-10.06,-2.787,-19.5,-3.095,-2.818,-10.01,-5.083,-4.609,-4.363,0.0111,-3.174,0,0,0,0,0,0,0,0,0,0,0,0,0,0,0,0,
851,-9.311,-8.434,-18.17,-14.15,-8.476,-7.685,-7.628,-20.16,-9.676,4.541,-5.779,-2.942,-4.452,-2.593,4.15,-0.9354,0,0,0,0,0,0,0,0,0,0,0,0,0,0,0,0,
852,-16.33,-11.16,-19.32,-21.78,-14.5,-12.46,-11.58,-17.08,-12.06,-0.5021,-1.408,-5.821,-5.453,-1.06,1.705,-2.307,0,0,0,0,0,0,0,0,0,0,0,0,0,0,0,0,
853,-22.98,-13.6,-12.49,-22.58,-10.45,-12.27,-17.14,-13.47,-8.777,-5.987,-6.872,-8.275,-6.472,1.895,-1.645,-4.869,0,0,0,0,0,0,0,0,0,0,0,0,0,0,0,0,
854,-19.42,-15.52,-13.72,-7.859,-6.458,-7.882,-20.04,-13.17,-10.02,-1.761,-7.817,-5.112,-8.701,-3.692,-2.626,-8.292,0,0,0,0,0,0,0,0,0,0,0,0,0,0,0,0,
855,-11.55,-14.33,-16.66,-6.891,-14.14,-10.65,-15.83,-13.19,-13.05,-4.281,-5.571,-2.461,-8.991,-12.28,-2.141,-8.226,0,0,0,0,0,0,0,0,0,0,0,0,0,0,0,0,
856,-5.708,-8.476,-6.339,-7.619,-10.1,-10.27,-5.619,-1.393,-6.169,-8.075,-2.263,3.499,0.2975,-5.949,7.413,4.687,0,0,0,0,0,0,0,0,0,0,0,0,0,0,0,0,
857,2.975,-0.5169,0.2246,5.412,0.6819,-1.357,5.801,9.682,3.338,1.641,3.587,11.49,11.05,5.931,17.34,17.99,0,0,0,0,0,0,0,0,0,0,0,0,0,0,0,0,
858,8.326,4.715,-8.868,2.802,-6.03,4.279,11.86,5.459,3.417,11.44,3.433,10.51,12.99,8.608,14.18,16.44,0,0,0,0,0,0,0,0,0,0,0,0,0,0,0,0,
859,7.408,7.818,-6.008,-4.872,-7.889,4.16,13.21,0.4715,2.253,11.36,2.965,7.06,11.76,6.756,6.985,9.361,0,0,0,0,0,0,0,0,0,0,0,0,0,0,0,0,
860,9.611,10.87,13.31,5.06,8.044,1.616,12.2,0.0367,4.116,9.163,3.458,4.069,7.005,1.671,-0.7063,1.276,0,0,0,0,0,0,0,0,0,0,0,0,0,0,0,0,
