%OpenBCI Raw EXG Data
%Number of channels = 16
%Sample Rate = 125 Hz
%Board = OpenBCI_GUI$BoardCytonSerialDaisy
Sample Index,EXG Channel 0,EXG Channel 1,EXG Channel 2,EXG Channel 3,EXG Channel 4,EXG Channel 5,EXG Channel 6,EXG Channel 7,EXG Channel 8,EXG Channel 9,EXG Channel 10,EXG Channel 11,EXG Channel 12,EXG Channel 13,EXG Channel 14,EXG Channel 15,Accel Channel 0,Accel Channel 1,Accel Channel 2,Other,Other.1,Other.2,Other.3,Other.4,Other.5,Other.6,Analog Channel 0,Analog Channel 1,Analog Channel 2,Timestamp,Other.7,Timestamp (Formatted),Annotations
1,-0.0,0.0,0.0,-0.0,-0.0,0.0,-0.0,0.0,-0.0,0.0,-0.0,0.0,-0.0,0.0,-0.0,0.0,0,0,0,0,0,0,0,0,0,0,0,0,0,0,0,0,T0
2,6.725,23.01,-37.14,3.15,7.261,-4.609,-42.91,75.39,-21.42,-0.9856,-8.488,-15.43,-1.312,-8.688,6.134,-9.959,0,0,0,0,0,0,0,0,0,0,0,0,0,0,0,0,
3,9.31,12.16,-33.73,4.466,19.76,2.465,-28.38,39.7,-13.37,-14.23,-8.167,-3.322,-1.022,-6.549,7.004,-11.65,0,0,0,0,0,0,0,0,0,0,0,0,0,0,0,0,
4,29.65,15.87,-9.996,-7.292,9.749,1.879,-8.54,1.856,-13.45,-6.917,-9.362,-13.06,-8.097,-16.55,-10.2,-24.27,0,0,0,0,0,0,0,0,0,0,0,0,0,0,0,0,
5,16.58,32.11,-18.35,-17.55,11.25,-5.347,-14.39,25.62,-23.84,0.8315,-14.6,-27.37,-13.52,-29.75,-32.26,-33.29,0,0,0,0,0,0,0,0,0,0,0,0,0,0,0,0,
6,-10.67,25.07,-47.59,-10.37,27.91,-8.264,-11.38,33.98,-21.43,-16.4,-18.86,-18.98,-5.981,-30.69,-41.44,-30.86,0,0,0,0,0,0,0,0,0,0,0,0,0,0,0,0,
7,32.44,31.59,-34.26,6.931,22.67,-2.431,-11.43,26.28,-11.7,-21.01,-19.25,-17.24,4.521,-26.52,-41.66,-33.41,0,0,0,0,0,0,0,0,0,0,0,0,0,0,0,0,
8,70.64,57.56,-1.348,24.61,33.28,20.75,-25.44,48.17,6.265,-6.416,-12.68,-11.49,11.49,-12.0,-38.39,-26.18,0,0,0,0,0,0,0,0,0,0,0,0,0,0,0,0,
9,36.63,49.98,-13.45,23.73,56.77,40.82,-20.03,67.07,17.46,2.527,-6.316,5.004,19.39,6.188,-33.16,-9.741,0,0,0,0,0,0,0,0,0,0,0,0,0,0,0,0,
10,18.38,31.42,-29.19,6.39,39.34,34.11,-14.6,51.31,5.47,6.17,-3.075,7.883,28.38,12.86,-19.53,-5.15,0,0,0,0,0,0,0,0,0,0,0,0,0,0,0,0,
11,43.8,44.39,-12.84,12.65,18.06,18.91,-16.06,32.66,-0.3594,0.3185,6.486,8.347,37.32,17.38,6.258,2.04,0,0,0,0,0,0,0,0,0,0,0,0,0,0,0,0,
12,59.22,45.1,-7.858,27.98,29.73,13.23,10.26,47.1,10.31,-7.227,18.21,21.36,48.99,27.46,24.21,16.62,0,0,0,0,0,0,0,0,0,0,0,0,0,0,0,0,
13,47.41,16.6,-14.07,7.996,42.15,15.12,13.32,66.49,18.91,3.078,22.94,29.62,60.03,34.29,23.89,16.76,0,0,0,0,0,0,0,0,0,0,0,0,0,0,0,0,
14,18.04,18.4,-19.13,0.7882,40.01,24.46,-25.59,43.55,24.18,12.09,20.92,9.77,56.51,24.45,14.93,1.124,0,0,0,0,0,0,0,0,0,0,0,0,0,0,0,0,
15,5.985,48.77,-36.27,41.03,31.53,34.82,-33.32,17.61,16.08,7.492,10.76,-14.22,41.12,4.868,-0.4689,-13.4,0,0,0,0,0,0,0,0,0,0,0,0,0,0,0,0,
16,16.42,45.01,-47.38,51.1,24.84,30.06,-31.67,27.02,-0.1154,5.049,-0.577,-3.638,33.07,-3.198,-8.47,-13.66,0,0,0,0,0,0,0,0,0,0,0,0,0,0,0,0,
17,8.806,17.07,-53.86,15.22,17.84,7.056,-50.41,35.82,3.136,-5.773,-2.955,-3.883,26.54,-12.95,-1.4,-11.75,0,0,0,0,0,0,0,0,0,0,0,0,0,0,0,0,
18,1.786,19.23,-68.08,11.23,-2.377,-11.55,-43.22,54.92,0.8358,-25.28,-6.86,-37.27,10.12,-30.23,-13.04,-27.99,0,0,0,0,0,0,0,0,0,0,0,0,0,0,0,0,
19,24.0,37.06,-76.51,33.86,-19.91,-6.528,-29.42,84.31,-26.93,-21.09,-19.38,-31.67,-0.8829,-23.22,-46.32,-42.77,0,0,0,0,0,0,0,0,0,0,0,0,0,0,0,0,
20,36.2,33.88,-84.06,35.56,-9.989,9.116,-29.09,57.34,-33.83,-1.44,-23.43,-1.709,-1.228,-5.968,-55.58,-35.1,0,0,0,0,0,0,0,0,0,0,0,0,0,0,0,0,
21,29.65,36.39,-74.04,36.6,11.18,17.39,-28.27,19.77,-15.56,3.202,-17.69,-9.18,-3.096,-10.33,-49.3,-27.21,0,0,0,0,0,0,0,0,0,0,0,0,0,0,0,0,
22,32.65,57.15,-36.86,44.36,13.79,17.19,-48.95,44.06,-16.7,2.163,-26.56,-10.73,-10.01,-14.26,-64.49,-31.79,0,0,0,0,0,0,0,0,0,0,0,0,0,0,0,0,
23,24.09,45.99,-34.29,32.9,1.03,9.414,-62.45,67.71,-31.14,3.07,-47.49,8.343,-20.09,-8.647,-74.12,-31.31,0,0,0,0,0,0,0,0,0,0,0,0,0,0,0,0,
24,-8.679,12.03,-74.31,18.74,-2.324,-0.9213,-52.73,55.01,-35.71,-1.687,-50.66,1.784,-21.59,-9.285,-57.6,-21.55,0,0,0,0,0,0,0,0,0,0,0,0,0,0,0,0,
25,-22.13,14.39,-98.34,15.34,-4.104,-13.02,-68.8,31.93,-38.5,-5.539,-37.21,-9.84,-11.21,-10.37,-48.26,-13.09,0,0,0,0,0,0,0,0,0,0,0,0,0,0,0,0,
26,-7.534,26.42,-99.41,1.866,-26.23,-33.47,-78.46,4.267,-46.92,-13.47,-34.15,-6.802,-11.33,-13.85,-48.57,-7.555,0,0,0,0,0,0,0,0,0,0,0,0,0,0,0,0,
27,-0.5197,11.08,-87.38,-2.57,-37.57,-37.21,-51.14,17.27,-54.55,-22.36,-38.86,-8.411,-13.79,-20.38,-40.08,-5.608,0,0,0,0,0,0,0,0,0,0,0,0,0,0,0,0,
28,-2.365,-0.7328,-70.02,19.09,-19.29,-12.65,-39.63,70.29,-50.64,-13.48,-30.1,-5.303,9.553,-18.03,-33.19,-12.07,0,0,0,0,0,0,0,0,0,0,0,0,0,0,0,0,
29,-1.282,-1.586,-77.75,20.37,-17.44,-11.08,-45.4,71.39,-39.3,-12.66,-19.01,-9.609,28.3,-24.7,-28.93,-24.25,0,0,0,0,0,0,0,0,0,0,0,0,0,0,0,0,
30,4.335,9.553,-85.32,10.34,-26.85,-23.29,-38.71,47.45,-34.18,-25.46,-20.87,-36.67,18.83,-41.37,-28.22,-37.83,0,0,0,0,0,0,0,0,0,0,0,0,0,0,0,0,
31,19.28,40.77,-44.81,43.22,4.93,13.52,-34.23,80.32,-22.71,-6.868,-20.89,-43.91,19.74,-34.49,-45.28,-53.41,0,0,0,0,0,0,0,0,0,0,0,0,0,0,0,0,
32,25.54,52.6,-15.32,65.79,44.87,45.6,-42.12,75.05,2.308,16.74,-23.46,-35.78,26.11,-25.44,-63.47,-66.21,0,0,0,0,0,0,0,0,0,0,0,0,0,0,0,0,
33,33.11,52.31,-45.04,37.98,39.3,21.27,-36.92,-12.92,11.21,9.133,-35.73,-47.61,4.08,-40.55,-66.88,-69.57,0,0,0,0,0,0,0,0,0,0,0,0,0,0,0,0,
34,61.61,69.2,-50.61,31.31,23.13,12.02,-12.22,-11.07,-3.453,9.607,-28.02,-36.39,-13.43,-36.94,-71.1,-61.55,0,0,0,0,0,0,0,0,0,0,0,0,0,0,0,0,
35,44.51,48.65,-20.33,41.18,23.36,18.84,-21.18,83.23,-16.77,8.684,-14.06,4.785,-12.91,-10.22,-78.74,-43.14,0,0,0,0,0,0,0,0,0,0,0,0,0,0,0,0,
36,-17.79,-4.625,-53.02,12.73,-3.592,-12.99,-59.59,76.02,-32.62,-22.92,-29.45,17.32,-27.05,-5.544,-75.34,-22.02,0,0,0,0,0,0,0,0,0,0,0,0,0,0,0,0,
37,-27.32,-21.22,-115.7,-12.94,-52.64,-36.4,-60.79,21.09,-60.9,-39.79,-40.82,10.12,-39.4,-16.32,-59.32,-10.18,0,0,0,0,0,0,0,0,0,0,0,0,0,0,0,0,
38,-11.69,-16.83,-108.2,-15.21,-56.17,-27.81,-56.25,50.37,-72.24,-33.59,-34.06,8.307,-36.46,-24.13,-48.47,-12.41,0,0,0,0,0,0,0,0,0,0,0,0,0,0,0,0,
39,-18.95,-6.655,-68.46,-17.33,-28.91,-27.3,-80.09,51.85,-58.27,-37.98,-35.49,-0.4873,-38.18,-32.11,-47.38,-18.16,0,0,0,0,0,0,0,0,0,0,0,0,0,0,0,0,
40,-14.62,15.41,-77.97,-0.912,-24.91,-23.58,-84.1,1.002,-50.88,-36.37,-29.07,-9.733,-31.4,-31.99,-32.59,-17.03,0,0,0,0,0,0,0,0,0,0,0,0,0,0,0,0,
41,-28.37,14.79,-112.1,16.58,-12.75,-10.32,-72.73,25.13,-45.79,-25.97,-20.28,-15.52,-17.13,-30.49,-18.68,-18.68,0,0,0,0,0,0,0,0,0,0,0,0,0,0,0,0,
42,-45.81,6.373,-94.35,5.222,9.113,-12.15,-63.19,57.44,-30.37,-34.34,-34.44,-16.49,-20.56,-34.68,-37.3,-26.78,0,0,0,0,0,0,0,0,0,0,0,0,0,0,0,0,
43,5.712,19.56,-48.05,1.243,-15.43,-17.78,-45.15,23.12,-37.49,-43.38,-42.33,-9.857,-27.89,-30.79,-54.69,-31.7,0,0,0,0,0,0,0,0,0,0,0,0,0,0,0,0,
44,53.49,29.49,-41.44,17.5,-40.96,-11.08,-42.33,30.69,-58.11,-25.25,-38.66,-16.62,-28.64,-24.59,-54.48,-43.88,0,0,0,0,0,0,0,0,0,0,0,0,0,0,0,0,
45,36.44,30.78,-42.5,30.31,-13.09,2.009,-45.19,71.91,-40.44,0.2461,-51.05,-28.77,-32.43,-24.24,-75.42,-69.18,0,0,0,0,0,0,0,0,0,0,0,0,0,0,0,0,
46,24.29,28.37,-46.47,36.77,11.82,11.86,-33.53,48.22,-10.46,8.52,-59.31,-31.97,-32.54,-24.14,-102.3,-87.87,0,0,0,0,0,0,0,0,0,0,0,0,0,0,0,0,
47,29.17,28.39,-85.53,32.62,12.37,11.07,-33.14,23.84,-15.82,4.829,-46.58,-39.91,-26.2,-24.58,-98.59,-88.78,0,0,0,0,0,0,0,0,0,0,0,0,0,0,0,0,
48,16.24,44.15,-73.99,21.35,16.79,2.937,-41.06,47.62,-21.66,-2.357,-39.78,-31.22,-21.06,-20.35,-84.06,-72.76,0,0,0,0,0,0,0,0,0,0,0,0,0,0,0,0,
49,-0.4408,39.83,-17.39,12.63,3.688,-8.945,-45.64,43.36,-8.372,-8.937,-50.33,-12.72,-22.51,-18.24,-75.28,-49.95,0,0,0,0,0,0,0,0,0,0,0,0,0,0,0,0,
50,-7.303,9.072,-38.34,3.787,-21.37,-19.62,-51.5,10.44,-18.61,-12.69,-50.9,-24.22,-23.1,-25.6,-59.09,-33.92,0,0,0,0,0,0,0,0,0,0,0,0,0,0,0,0,
51,-6.166,1.18,-69.95,4.506,-19.15,-18.75,-44.7,8.291,-43.03,-21.71,-27.16,-23.1,-7.299,-19.14,-35.83,-17.46,0,0,0,0,0,0,0,0,0,0,0,0,0,0,0,0,
52,-2.976,1.089,-40.4,6.718,-10.35,-17.12,-40.3,30.24,-38.56,-31.94,-10.5,5.653,9.466,-4.601,-16.83,-0.2106,0,0,0,0,0,0,0,0,0,0,0,0,0,0,0,0,
53,-8.075,-9.728,-52.67,-13.0,-10.69,-23.53,-45.16,48.49,-21.9,-32.0,-9.572,7.098,12.7,-4.407,0.1786,6.542,0,0,0,0,0,0,0,0,0,0,0,0,0,0,0,0,
54,-9.682,6.62,-74.89,-27.24,4.78,-20.58,-19.92,43.48,-15.63,-27.04,2.803,-3.888,16.8,-3.212,10.77,9.246,0,0,0,0,0,0,0,0,0,0,0,0,0,0,0,0,
55,11.0,32.8,-19.91,-12.53,13.98,-11.38,-1.085,10.79,-13.47,-17.49,6.8,-9.381,11.35,-8.478,-6.017,0.0656,0,0,0,0,0,0,0,0,0,0,0,0,0,0,0,0,
56,22.88,21.09,-14.48,-0.1348,2.683,-14.68,-43.7,-1.505,-15.72,-12.2,-13.75,-22.92,-6.481,-29.24,-36.99,-27.83,0,0,0,0,0,0,0,0,0,0,0,0,0,0,0,0,
57,-9.184,-4.232,-92.99,3.999,13.69,-17.59,-68.45,35.18,-9.759,-23.17,-20.55,-17.02,-11.29,-32.29,-47.74,-45.88,0,0,0,0,0,0,0,0,0,0,0,0,0,0,0,0,
58,-24.4,3.52,-81.03,25.61,29.3,-4.029,-22.15,55.37,1.018,-20.88,-11.12,-4.239,-12.3,-23.46,-42.39,-48.04,0,0,0,0,0,0,0,0,0,0,0,0,0,0,0,0,
59,24.32,34.83,3.809,43.92,16.1,9.326,7.714,26.75,-12.34,0.0389,-2.126,-13.34,-7.53,-19.95,-29.13,-44.28,0,0,0,0,0,0,0,0,0,0,0,0,0,0,0,0,
60,51.75,49.52,8.46,30.99,22.16,8.929,-4.091,32.95,-19.38,4.377,19.11,-11.23,23.98,-1.234,-2.89,-21.28,0,0,0,0,0,0,0,0,0,0,0,0,0,0,0,0,
61,16.99,36.77,-18.74,24.04,41.55,9.587,0.5744,88.05,5.446,2.788,33.89,4.348,45.29,16.3,19.16,6.626,0,0,0,0,0,0,0,0,0,0,0,0,0,0,0,0,
62,3.215,22.14,-8.884,42.17,22.24,15.46,2.704,80.52,12.24,5.079,21.34,3.803,31.72,12.02,20.74,11.69,0,0,0,0,0,0,0,0,0,0,0,0,0,0,0,0,
63,32.86,34.38,-24.24,40.15,4.417,11.66,-18.43,2.495,-1.509,-1.653,0.7153,-7.42,12.98,9.268,2.008,6.821,0,0,0,0,0,0,0,0,0,0,0,0,0,0,0,0,
64,45.23,59.66,-50.95,24.65,16.2,6.459,-21.34,-21.9,-0.2925,5.425,-15.34,-9.38,0.3363,11.3,-20.72,5.148,0,0,0,0,0,0,0,0,0,0,0,0,0,0,0,0,
65,29.7,52.68,-41.1,32.73,26.05,12.29,-9.701,32.1,-4.424,14.27,-16.0,5.018,-0.6767,9.501,-20.97,1.435,0,0,0,0,0,0,0,0,0,0,0,0,0,0,0,0,
66,19.43,26.33,-34.74,31.32,34.74,16.31,-11.29,62.0,-15.76,-5.179,-4.222,10.12,14.16,13.3,-10.34,3.393,0,0,0,0,0,0,0,0,0,0,0,0,0,0,0,0,
67,14.73,23.75,-39.97,11.38,32.2,16.67,-18.1,44.42,-10.33,-5.79,-5.395,4.312,24.77,25.97,-6.531,17.15,0,0,0,0,0,0,0,0,0,0,0,0,0,0,0,0,
68,0.2072,23.55,-36.15,14.77,5.623,15.66,-19.47,42.33,-4.714,22.28,-5.194,21.69,26.42,39.73,7.294,24.41,0,0,0,0,0,0,0,0,0,0,0,0,0,0,0,0,
69,-10.45,10.28,-34.15,23.73,-10.33,-4.447,-10.58,33.37,-13.46,17.63,0.7832,28.85,12.92,31.53,13.35,6.198,0,0,0,0,0,0,0,0,0,0,0,0,0,0,0,0,
70,-4.403,8.815,-23.04,8.1,-9.262,-33.35,-11.39,2.777,-28.58,-10.63,-21.18,-0.2074,-21.9,-2.983,-11.13,-24.51,0,0,0,0,0,0,0,0,0,0,0,0,0,0,0,0,
71,4.864,10.58,-4.656,-6.906,-8.661,-35.67,-30.99,24.3,-35.95,-21.54,-42.62,-12.14,-36.1,-25.09,-26.54,-42.27,0,0,0,0,0,0,0,0,0,0,0,0,0,0,0,0,
72,6.416,8.683,-3.64,-4.921,4.071,-17.62,-20.17,61.83,-19.32,-24.28,-35.29,-7.825,-22.14,-25.87,-24.68,-49.81,0,0,0,0,0,0,0,0,0,0,0,0,0,0,0,0,
73,11.27,15.79,-9.4,-0.6847,23.5,-10.21,7.102,51.88,4.616,-21.65,-40.92,-23.19,-31.27,-32.26,-45.91,-61.04,0,0,0,0,0,0,0,0,0,0,0,0,0,0,0,0,
74,31.36,22.74,1.919,-4.077,24.7,-12.97,-5.613,47.62,3.276,-12.33,-54.99,-34.54,-52.23,-37.57,-72.01,-64.89,0,0,0,0,0,0,0,0,0,0,0,0,0,0,0,0,
75,45.01,23.73,46.42,-14.15,19.15,-9.943,-8.275,25.04,-11.7,-11.8,-45.85,-26.21,-43.0,-24.89,-61.15,-48.46,0,0,0,0,0,0,0,0,0,0,0,0,0,0,0,0,
76,32.67,15.03,82.67,-20.87,34.31,-2.668,18.36,-27.42,-2.53,-7.76,-30.99,-15.28,-19.03,-3.838,-26.0,-24.28,0,0,0,0,0,0,0,0,0,0,0,0,0,0,0,0,
77,20.01,1.286,44.31,-11.68,59.37,4.304,18.79,3.594,25.37,10.32,-11.58,-7.105,2.912,13.99,7.034,-3.555,0,0,0,0,0,0,0,0,0,0,0,0,0,0,0,0,
78,20.52,4.532,3.408,-3.614,63.29,10.83,30.61,66.46,31.88,13.11,11.95,1.516,24.99,23.73,29.18,12.53,0,0,0,0,0,0,0,0,0,0,0,0,0,0,0,0,
79,24.22,6.391,45.88,-19.93,51.4,11.55,70.28,43.4,26.4,-2.821,21.52,6.408,40.6,26.29,42.81,18.95,0,0,0,0,0,0,0,0,0,0,0,0,0,0,0,0,
80,29.81,-3.005,82.26,-28.36,53.58,12.68,64.34,2.678,41.0,-0.1709,35.6,7.929,52.38,32.46,58.96,26.11,0,0,0,0,0,0,0,0,0,0,0,0,0,0,0,0,
81,27.34,12.9,56.1,-7.766,72.67,21.2,29.58,-1.529,56.18,21.16,44.84,18.47,57.65,40.45,67.18,36.91,0,0,0,0,0,0,0,0,0,0,0,0,0,0,0,0,
82,25.16,35.76,42.24,1.864,81.93,24.08,32.98,13.49,62.06,24.61,29.99,26.34,51.82,38.27,58.05,26.92,0,0,0,0,0,0,0,0,0,0,0,0,0,0,0,0,
83,35.4,28.3,50.65,-3.891,69.75,20.39,58.74,29.14,68.36,9.525,35.59,13.77,51.02,33.59,54.46,7.571,0,0,0,0,0,0,0,0,0,0,0,0,0,0,0,0,
84,34.94,16.27,38.09,-2.722,61.2,16.68,46.26,-11.47,56.56,4.691,43.84,2.086,45.75,29.98,47.86,2.494,0,0,0,0,0,0,0,0,0,0,0,0,0,0,0,0,
85,31.82,20.3,27.24,-5.328,64.07,7.749,2.43,-56.14,40.79,7.946,10.97,1.588,23.23,18.47,23.48,-5.405,0,0,0,0,0,0,0,0,0,0,0,0,0,0,0,0,
86,42.72,25.0,44.08,-15.39,48.89,1.1,17.6,3.81,44.01,-0.2399,2.296,3.881,14.12,10.75,12.13,-12.93,0,0,0,0,0,0,0,0,0,0,0,0,0,0,0,0,
87,37.04,10.54,53.82,-31.51,17.3,-4.889,64.53,83.76,30.82,-16.09,15.98,6.196,11.14,4.944,-5.668,-14.87,0,0,0,0,0,0,0,0,0,0,0,0,0,0,0,0,
88,4.781,-19.13,23.44,-37.53,-2.094,-20.0,23.02,57.87,-6.978,-35.41,-21.11,-10.77,-18.35,-14.63,-52.15,-31.63,0,0,0,0,0,0,0,0,0,0,0,0,0,0,0,0,
89,-31.23,-31.4,-20.51,-19.99,-7.507,-27.97,-33.51,-17.81,-26.81,-57.01,-48.65,-28.22,-40.27,-23.17,-57.29,-36.73,0,0,0,0,0,0,0,0,0,0,0,0,0,0,0,0,
90,-43.83,-26.71,-29.71,-23.61,-8.317,-30.32,-7.421,-21.63,-22.64,-61.06,-30.03,-13.03,-37.27,-14.48,-24.37,-18.24,0,0,0,0,0,0,0,0,0,0,0,0,0,0,0,0,
91,-23.55,-23.36,2.409,-43.21,-9.254,-37.69,7.946,40.34,-24.57,-51.27,-36.38,-9.064,-44.26,-21.23,-30.31,-19.07,0,0,0,0,0,0,0,0,0,0,0,0,0,0,0,0,
92,-8.87,-13.48,24.28,-37.75,-11.0,-34.74,-16.7,50.55,-39.23,-56.4,-46.86,-32.32,-51.26,-32.81,-37.69,-29.39,0,0,0,0,0,0,0,0,0,0,0,0,0,0,0,0,
93,-17.24,-16.93,-5.937,-47.34,-9.493,-31.51,-21.41,3.603,-42.79,-64.4,-23.22,-38.83,-41.99,-32.22,-9.045,-29.03,0,0,0,0,0,0,0,0,0,0,0,0,0,0,0,0,
94,-22.64,-39.52,-27.44,-54.23,-10.83,-36.67,-18.5,8.469,-33.41,-53.42,-13.56,-38.2,-39.02,-35.68,-3.938,-41.95,0,0,0,0,0,0,0,0,0,0,0,0,0,0,0,0,
95,-21.56,-39.25,12.88,-22.09,-19.33,-32.87,-2.474,28.08,-35.75,-46.18,-17.55,-41.01,-39.25,-35.38,-21.8,-52.87,0,0,0,0,0,0,0,0,0,0,0,0,0,0,0,0,
96,-18.32,-25.11,23.58,-28.08,-23.96,-35.16,14.8,-29.63,-40.96,-49.15,-8.711,-29.9,-30.77,-20.9,-12.68,-36.65,0,0,0,0,0,0,0,0,0,0,0,0,0,0,0,0,
97,-21.18,-20.13,-36.66,-53.27,-12.42,-43.99,-19.89,-64.15,-21.82,-34.84,-8.37,-18.16,-23.36,-6.766,5.391,-11.28,0,0,0,0,0,0,0,0,0,0,0,0,0,0,0,0,
98,-34.57,-10.39,-43.16,-28.51,13.7,-31.95,-34.06,2.207,8.701,-18.88,-7.791,0.9448,-12.61,8.378,7.444,11.19,0,0,0,0,0,0,0,0,0,0,0,0,0,0,0,0,
99,-23.88,-9.735,32.67,-21.97,27.31,-19.54,29.31,38.7,21.97,-24.5,8.519,27.8,-0.9689,23.94,11.12,25.12,0,0,0,0,0,0,0,0,0,0,0,0,0,0,0,0,
100,10.87,-14.68,62.78,-41.36,15.17,-25.34,56.79,-2.581,20.72,-18.84,9.365,15.58,-7.947,19.03,10.92,19.28,0,0,0,0,0,0,0,0,0,0,0,0,0,0,0,0,
101,18.65,-7.072,22.83,-34.03,5.341,-30.47,14.48,-10.55,15.24,-3.431,-7.49,-16.23,-21.09,-0.1736,-8.934,2.699,0,0,0,0,0,0,0,0,0,0,0,0,0,0,0,0,
102,-1.728,-15.87,4.81,-29.94,8.14,-29.34,0.6263,13.0,-0.2056,-15.35,-13.25,-14.26,-18.95,-5.482,-15.58,-4.845,0,0,0,0,0,0,0,0,0,0,0,0,0,0,0,0,
103,-13.67,-28.17,20.22,-26.39,5.282,-26.72,8.905,5.91,-13.02,-21.65,-13.24,-10.6,-15.74,-2.251,0.2404,-1.935,0,0,0,0,0,0,0,0,0,0,0,0,0,0,0,0,
104,-15.78,-17.8,17.04,-21.0,-4.955,-29.08,-17.2,-3.985,-9.767,-3.877,-15.68,-26.65,-22.75,-9.409,-2.662,-3.543,0,0,0,0,0,0,0,0,0,0,0,0,0,0,0,0,
105,-22.51,-21.75,-2.174,-38.55,-6.573,-28.81,-35.19,-7.635,-7.917,-2.438,-12.01,-20.38,-22.68,-10.66,-7.22,-3.686,0,0,0,0,0,0,0,0,0,0,0,0,0,0,0,0,
106,-27.07,-26.48,-14.9,-32.48,11.91,-10.06,-13.09,-1.94,-5.386,-1.243,-9.408,0.1839,-12.03,2.703,10.89,8.786,0,0,0,0,0,0,0,0,0,0,0,0,0,0,0,0,
107,-24.36,-4.48,-31.85,-10.05,22.56,0.1529,2.92,32.64,-0.6825,12.04,-9.313,0.8055,-11.32,5.239,7.341,9.764,0,0,0,0,0,0,0,0,0,0,0,0,0,0,0,0,
108,-18.33,-0.5863,-43.62,-23.44,-2.014,-12.87,-4.271,39.61,-18.96,-2.348,-1.161,-1.186,-21.1,-0.9367,-5.476,1.376,0,0,0,0,0,0,0,0,0,0,0,0,0,0,0,0,
109,-0.0442,-10.7,-15.42,-28.39,-13.9,-14.27,2.324,5.187,-31.23,-20.56,6.466,2.814,-19.95,5.505,14.07,16.23,0,0,0,0,0,0,0,0,0,0,0,0,0,0,0,0,
110,18.75,-1.722,25.92,-13.2,7.722,-5.607,23.25,-9.156,-9.941,-10.82,7.298,1.87,-8.383,13.22,19.74,30.68,0,0,0,0,0,0,0,0,0,0,0,0,0,0,0,0,
111,15.19,1.887,25.59,-20.35,8.944,-9.165,16.09,-6.023,5.073,-5.324,5.713,6.147,-2.875,12.44,0.2443,24.29,0,0,0,0,0,0,0,0,0,0,0,0,0,0,0,0,
112,4.759,-5.99,10.07,-24.39,7.191,-10.79,-11.66,5.774,17.88,-4.066,-2.219,8.1,-2.727,13.03,-2.113,24.85,0,0,0,0,0,0,0,0,0,0,0,0,0,0,0,0,
113,-8.016,-10.79,12.7,-6.33,38.25,-0.0215,-9.889,21.97,41.64,9.037,-5.491,0.3944,-1.436,18.15,-7.04,25.24,0,0,0,0,0,0,0,0,0,0,0,0,0,0,0,0,
114,-21.73,-4.361,0.6336,10.46,45.13,18.39,21.56,2.156,30.62,19.16,11.68,4.001,5.122,30.29,-11.63,19.71,0,0,0,0,0,0,0,0,0,0,0,0,0,0,0,0,
115,-7.875,12.85,-22.24,12.47,15.06,31.49,33.52,-17.39,6.317,33.95,22.77,10.27,11.93,38.4,4.857,26.41,0,0,0,0,0,0,0,0,0,0,0,0,0,0,0,0,
116,7.301,2.857,-24.84,-6.941,-2.558,21.42,4.641,17.14,14.27,48.38,0.7431,6.219,-4.005,22.74,-11.32,13.1,0,0,0,0,0,0,0,0,0,0,0,0,0,0,0,0,
117,-6.003,-20.67,-26.33,-18.1,-9.165,6.915,-22.8,48.52,9.375,32.64,-17.82,11.32,-23.4,11.56,-43.27,-15.04,0,0,0,0,0,0,0,0,0,0,0,0,0,0,0,0,
118,-12.47,-5.159,-27.28,4.119,-7.457,12.16,-27.81,13.51,-14.52,18.19,-6.115,18.39,-5.743,30.61,-19.86,1.194,0,0,0,0,0,0,0,0,0,0,0,0,0,0,0,0,
119,-12.7,8.033,-15.55,15.28,3.228,14.69,-54.05,-25.25,-5.223,36.59,-14.36,10.15,-0.5226,29.81,-7.388,19.71,0,0,0,0,0,0,0,0,0,0,0,0,0,0,0,0,
120,-24.12,-9.801,-21.62,1.408,-6.325,2.638,-79.91,26.59,5.72,36.48,-52.65,-0.4445,-41.95,-6.09,-47.13,-5.994,0,0,0,0,0,0,0,0,0,0,0,0,0,0,0,0,
121,-28.73,-16.39,-44.1,2.734,-26.36,-8.274,-56.38,79.39,-22.52,-0.8572,-57.48,-7.23,-52.09,-13.27,-49.96,-12.59,0,0,0,0,0,0,0,0,0,0,0,0,0,0,0,0,
122,-31.89,-17.93,-49.05,7.366,-34.9,-23.29,-34.9,21.24,-38.4,-18.94,-32.11,-8.032,-18.98,6.934,-21.73,7.54,0,0,0,0,0,0,0,0,0,0,0,0,0,0,0,0,
123,-32.42,-23.35,-35.43,-3.189,-33.91,-33.89,-26.12,-15.86,-17.69,-8.633,-15.15,4.703,-4.516,9.393,-20.65,7.301,0,0,0,0,0,0,0,0,0,0,0,0,0,0,0,0,
124,-20.01,-14.77,-13.62,-3.232,-13.84,-18.77,10.83,21.94,-5.893,-2.285,4.973,17.05,7.022,14.51,-8.874,10.53,0,0,0,0,0,0,0,0,0,0,0,0,0,0,0,0,
125,-15.42,-6.644,-1.851,1.89,7.729,-4.86,29.28,-6.819,0.3758,4.918,16.23,12.98,24.0,27.27,11.41,23.37,0,0,0,0,0,0,0,0,0,0,0,0,0,0,0,0,
126,-13.37,-1.839,-24.02,-0.9109,12.48,-6.737,16.18,-51.98,27.77,16.22,6.183,3.329,16.59,19.97,1.139,16.88,0,0,0,0,0,0,0,0,0,0,0,0,0,0,0,0,
127,1.511,7.037,-47.59,5.727,25.22,7.185,22.36,-8.607,42.09,17.95,9.154,5.878,14.06,15.5,-4.003,9.844,0,0,0,0,0,0,0,0,0,0,0,0,0,0,0,0,
128,12.13,7.238,-18.07,12.11,33.77,28.06,32.22,31.26,24.38,11.24,20.13,11.15,25.74,23.3,4.634,11.73,0,0,0,0,0,0,0,0,0,0,0,0,0,0,0,0,
129,7.027,0.6476,20.46,9.822,20.73,29.75,8.989,0.9595,6.338,-2.15,13.73,-0.3123,15.73,15.5,-0.9478,6.364,0,0,0,0,0,0,0,0,0,0,0,0,0,0,0,0,
130,-9.039,2.57,-7.828,16.53,21.58,29.6,-34.59,-47.1,5.294,-7.169,1.51,-8.982,-0.0742,7.353,-1.181,3.471,0,0,0,0,0,0,0,0,0,0,0,0,0,0,0,0,
131,-8.441,16.46,-42.38,19.34,30.63,34.57,-39.48,-24.05,14.59,8.623,-8.281,7.422,0.2223,18.31,4.491,11.14,0,0,0,0,0,0,0,0,0,0,0,0,0,0,0,0,
132,12.56,15.59,-21.1,12.17,16.2,30.19,-1.262,47.36,11.26,10.01,-13.51,19.01,1.534,28.21,-3.326,19.52,0,0,0,0,0,0,0,0,0,0,0,0,0,0,0,0,
133,-5.2,-9.917,-30.49,15.28,1.906,19.38,-10.75,13.76,-3.698,-6.956,-17.47,4.761,1.694,27.06,-7.526,19.21,0,0,0,0,0,0,0,0,0,0,0,0,0,0,0,0,
134,-50.91,-16.22,-86.53,16.49,0.6883,10.0,-39.4,-47.12,5.382,1.422,-25.41,-1.083,1.931,22.97,-7.737,14.2,0,0,0,0,0,0,0,0,0,0,0,0,0,0,0,0,
135,-45.87,-4.676,-83.57,7.47,-10.51,2.897,-13.0,28.33,12.86,10.03,-22.81,18.32,-3.125,21.53,-14.22,18.38,0,0,0,0,0,0,0,0,0,0,0,0,0,0,0,0,
136,-14.16,-10.58,-28.13,6.712,-21.97,-1.98,-30.0,64.68,-9.484,-11.58,-19.04,23.34,-4.58,20.88,-13.36,18.34,0,0,0,0,0,0,0,0,0,0,0,0,0,0,0,0,
137,-12.62,-15.08,-1.298,14.46,-12.18,1.002,-78.11,-7.11,-2.993,-12.43,-26.77,0.2712,-0.6007,12.68,-16.14,-1.046,0,0,0,0,0,0,0,0,0,0,0,0,0,0,0,0,
138,-13.45,-10.22,-10.49,23.84,-0.9569,11.66,-21.41,13.33,24.32,9.235,-21.84,-8.444,-2.602,1.239,-35.41,-14.52,0,0,0,0,0,0,0,0,0,0,0,0,0,0,0,0,
139,-0.7739,-0.7219,-30.02,25.04,-6.701,11.15,47.46,41.43,7.756,-0.0369,-13.64,-1.859,-7.007,-3.42,-41.35,-11.99,0,0,0,0,0,0,0,0,0,0,0,0,0,0,0,0,
140,0.7155,17.1,-28.48,16.63,-6.142,6.45,36.35,-33.93,-8.406,-13.27,-17.51,-11.96,-4.709,-3.375,-22.36,-9.848,0,0,0,0,0,0,0,0,0,0,0,0,0,0,0,0,
141,3.637,10.64,14.99,21.98,7.891,20.47,27.45,-22.7,8.336,7.787,-11.01,-15.48,-8.608,-1.788,-11.63,-8.501,0,0,0,0,0,0,0,0,0,0,0,0,0,0,0,0,
142,12.59,-11.74,36.1,17.36,-1.146,17.52,13.4,56.0,1.009,20.07,-15.09,-6.871,-27.97,-5.772,-24.19,-11.07,0,0,0,0,0,0,0,0,0,0,0,0,0,0,0,0,
143,-9.175,-13.79,-17.71,-29.15,-33.98,-23.68,-17.38,30.2,-28.68,-2.298,-41.51,-17.52,-38.17,-15.83,-28.62,-14.44,0,0,0,0,0,0,0,0,0,0,0,0,0,0,0,0,
144,-32.37,-11.54,-41.07,-44.45,-37.02,-37.56,-8.165,3.605,-31.6,-17.65,-38.95,-14.45,-24.4,-8.976,-6.289,0.5287,0,0,0,0,0,0,0,0,0,0,0,0,0,0,0,0,
145,-5.142,0.0086,10.09,8.221,-3.552,-3.75,-12.83,40.36,-9.38,-3.113,-19.39,15.17,-8.963,14.48,9.493,21.53,0,0,0,0,0,0,0,0,0,0,0,0,0,0,0,0,
146,8.749,10.24,-8.146,31.14,8.805,15.75,-57.94,25.47,6.666,17.67,-30.32,18.41,-1.894,25.49,4.378,28.62,0,0,0,0,0,0,0,0,0,0,0,0,0,0,0,0,
147,-20.01,-16.13,-72.87,-2.255,-11.44,10.92,-70.9,-12.84,2.623,32.28,-42.63,11.46,4.111,24.54,3.499,29.54,0,0,0,0,0,0,0,0,0,0,0,0,0,0,0,0,
148,-12.19,-21.08,-46.63,-15.16,-14.97,10.1,-56.6,5.253,-6.598,37.17,-32.94,21.03,2.967,21.71,1.298,22.1,0,0,0,0,0,0,0,0,0,0,0,0,0,0,0,0,
149,10.85,11.79,-27.25,-5.961,7.511,7.553,-40.43,33.77,-7.162,18.21,-20.1,11.62,2.742,14.11,-4.372,7.53,0,0,0,0,0,0,0,0,0,0,0,0,0,0,0,0,
150,-4.62,6.119,-55.68,-3.106,21.36,9.412,-17.76,23.34,0.0289,-1.248,-3.734,0.4923,15.3,13.32,9.094,5.197,0,0,0,0,0,0,0,0,0,0,0,0,0,0,0,0,
151,-3.815,-13.31,-4.757,9.799,17.15,20.55,-11.14,-3.2,11.94,3.59,7.107,12.58,16.24,15.29,14.59,5.78,0,0,0,0,0,0,0,0,0,0,0,0,0,0,0,0,
152,23.97,4.701,47.83,14.49,6.403,16.86,-1.859,-0.2519,14.1,0.5933,-3.018,9.36,-0.2391,3.809,-7.285,-3.508,0,0,0,0,0,0,0,0,0,0,0,0,0,0,0,0,
153,43.17,28.01,22.25,-1.369,2.465,11.43,25.68,21.46,8.012,-7.319,-13.63,-3.754,-3.566,-1.113,-15.65,-4.731,0,0,0,0,0,0,0,0,0,0,0,0,0,0,0,0,
154,49.85,36.03,34.17,-1.373,13.43,22.55,34.52,29.71,12.8,7.557,-7.146,1.964,3.42,7.67,-3.443,1.946,0,0,0,0,0,0,0,0,0,0,0,0,0,0,0,0,
155,24.15,21.41,63.8,2.886,15.76,20.22,33.75,36.76,12.55,2.18,6.253,3.055,2.654,6.545,7.386,2.402,0,0,0,0,0,0,0,0,0,0,0,0,0,0,0,0,
156,1.815,-2.508,37.38,-10.51,0.4018,5.29,33.13,17.3,2.635,-22.09,9.213,-8.608,0.2119,0.3592,15.18,2.014,0,0,0,0,0,0,0,0,0,0,0,0,0,0,0,0,
157,21.64,5.129,27.5,-9.486,5.56,4.299,17.6,-29.65,8.99,-8.126,-0.2115,-12.2,0.1933,0.9342,16.77,4.203,0,0,0,0,0,0,0,0,0,0,0,0,0,0,0,0,
158,21.21,22.24,19.9,0.4946,27.17,3.112,21.43,-16.91,17.82,5.577,0.0716,-7.149,7.425,2.084,24.45,10.68,0,0,0,0,0,0,0,0,0,0,0,0,0,0,0,0,
159,11.69,22.27,-24.89,-2.758,28.23,1.033,40.9,31.03,19.41,-7.457,8.768,-2.298,18.59,3.968,33.61,18.21,0,0,0,0,0,0,0,0,0,0,0,0,0,0,0,0,
160,45.27,26.2,3.78,9.617,25.19,18.24,33.76,25.79,26.57,3.68,2.733,1.429,15.09,4.306,15.09,11.96,0,0,0,0,0,0,0,0,0,0,0,0,0,0,0,0,
161,50.13,21.03,73.54,24.22,24.85,30.52,15.42,10.53,15.91,14.47,-8.713,1.214,4.006,-3.194,-3.132,-1.365,0,0,0,0,0,0,0,0,0,0,0,0,0,0,0,0,
162,15.43,6.164,40.81,2.517,7.115,14.66,-11.66,11.29,-3.618,-6.749,-22.0,-10.5,-8.337,-18.48,-9.834,-12.74,0,0,0,0,0,0,0,0,0,0,0,0,0,0,0,0,
163,18.34,11.58,1.095,-14.37,-4.159,1.461,-48.4,-8.671,1.24,-12.69,-42.0,-16.95,-27.01,-31.21,-33.79,-20.31,0,0,0,0,0,0,0,0,0,0,0,0,0,0,0,0,
164,29.06,15.38,9.559,-2.585,-3.081,7.82,-51.33,0.2535,-4.741,-2.062,-39.36,5.87,-23.69,-20.84,-27.47,-2.127,0,0,0,0,0,0,0,0,0,0,0,0,0,0,0,0,
165,7.176,3.422,-60.08,-6.713,-14.7,5.108,-36.65,43.59,-27.87,-1.402,-19.02,29.18,1.776,4.179,14.9,24.63,0,0,0,0,0,0,0,0,0,0,0,0,0,0,0,0,
166,-15.91,-3.771,-110.2,-25.43,-27.78,-10.54,-48.39,15.85,-24.25,6.639,-17.31,23.34,7.562,14.6,14.2,24.14,0,0,0,0,0,0,0,0,0,0,0,0,0,0,0,0,
167,-30.04,-14.72,-42.33,-30.74,-44.78,-17.42,-65.77,-51.98,-18.84,19.96,-23.88,10.79,-3.192,13.04,-5.06,22.93,0,0,0,0,0,0,0,0,0,0,0,0,0,0,0,0,
168,-30.46,-26.73,-38.78,-30.32,-67.09,-18.69,-69.64,-28.33,-33.73,20.22,-28.23,9.698,-11.03,12.83,4.399,29.05,0,0,0,0,0,0,0,0,0,0,0,0,0,0,0,0,
169,-26.82,-30.95,-107.6,-22.32,-56.17,-15.23,-69.15,47.38,-35.99,13.52,-36.89,18.82,-16.43,14.44,5.923,20.26,0,0,0,0,0,0,0,0,0,0,0,0,0,0,0,0,
170,-45.95,-43.4,-85.68,-8.211,-32.04,-4.635,-63.54,58.97,-33.74,8.617,-35.54,22.99,-13.54,14.54,3.004,20.9,0,0,0,0,0,0,0,0,0,0,0,0,0,0,0,0,
171,-45.21,-38.51,-27.53,-9.687,-30.17,-4.893,-51.78,5.454,-38.52,9.292,-25.11,5.694,-6.606,7.155,14.4,30.38,0,0,0,0,0,0,0,0,0,0,0,0,0,0,0,0,
172,-8.027,0.9272,-27.7,-15.48,-16.99,-8.321,-49.01,-33.03,-23.54,18.01,-20.98,-5.829,-3.057,-0.959,13.36,18.42,0,0,0,0,0,0,0,0,0,0,0,0,0,0,0,0,
173,0.4231,24.87,-55.44,-4.141,0.5746,2.236,-59.19,1.148,-3.471,27.6,-21.13,-4.481,-4.542,-8.95,-4.943,-1.33,0,0,0,0,0,0,0,0,0,0,0,0,0,0,0,0,
174,-10.22,19.15,-76.09,6.796,-7.82,6.594,-46.69,25.87,-8.552,23.89,-19.43,-18.97,-12.75,-24.31,-24.69,-17.92,0,0,0,0,0,0,0,0,0,0,0,0,0,0,0,0,
175,-10.85,1.084,-68.76,-1.481,-13.97,-3.407,-19.09,-36.8,-19.46,12.01,-19.3,-21.56,-15.21,-30.24,-32.74,-33.02,0,0,0,0,0,0,0,0,0,0,0,0,0,0,0,0,
176,-34.3,-26.28,-35.93,-12.48,-17.89,-11.07,-27.14,-58.79,-18.52,12.89,-25.28,-1.299,-12.07,-25.59,-23.38,-32.05,0,0,0,0,0,0,0,0,0,0,0,0,0,0,0,0,
177,-47.22,-30.0,-11.24,-18.46,-31.46,-15.64,-26.87,6.548,-18.72,14.17,-14.09,5.274,-2.708,-18.41,-0.8803,-10.28,0,0,0,0,0,0,0,0,0,0,0,0,0,0,0,0,
178,-22.0,-18.71,-10.6,-40.5,-29.26,-23.62,19.92,35.77,-18.25,3.851,22.75,19.03,24.73,8.301,31.26,22.27,0,0,0,0,0,0,0,0,0,0,0,0,0,0,0,0,
179,-15.81,-32.8,-23.82,-57.77,-26.67,-33.15,41.77,29.73,-6.289,10.27,26.3,34.5,25.54,23.15,37.74,32.44,0,0,0,0,0,0,0,0,0,0,0,0,0,0,0,0,
180,-26.76,-29.63,-31.43,-33.67,-35.35,-34.79,18.35,9.206,-4.567,20.97,-14.59,3.159,-19.62,-5.409,3.905,6.675,0,0,0,0,0,0,0,0,0,0,0,0,0,0,0,0,
181,-21.2,-1.172,-22.55,-10.32,-26.13,-24.53,-3.213,-34.58,-21.31,3.999,-30.01,-26.46,-37.36,-22.94,-11.06,-5.639,0,0,0,0,0,0,0,0,0,0,0,0,0,0,0,0,
182,-7.197,-1.223,-0.8089,-8.524,-13.04,-8.047,1.884,-8.836,-21.05,-3.165,-14.45,-15.14,-17.17,-14.62,-0.4167,2.679,0,0,0,0,0,0,0,0,0,0,0,0,0,0,0,0,
183,13.19,6.742,12.64,19.69,-10.74,13.17,15.94,44.58,-11.95,12.07,-15.15,-16.44,-13.83,-24.93,-12.55,-13.35,0,0,0,0,0,0,0,0,0,0,0,0,0,0,0,0,
184,19.61,44.76,-0.6616,49.74,0.5804,27.39,-19.28,6.77,-23.61,9.934,-30.52,-31.89,-21.89,-40.86,-33.15,-37.57,0,0,0,0,0,0,0,0,0,0,0,0,0,0,0,0,
185,8.703,54.07,-25.75,41.0,10.26,24.28,-57.72,-20.68,-22.3,7.107,-28.26,-22.18,-18.82,-37.87,-37.24,-38.14,0,0,0,0,0,0,0,0,0,0,0,0,0,0,0,0,
186,11.18,36.52,-51.36,27.03,2.886,16.01,-22.84,30.72,-6.877,15.82,-1.296,0.5355,-5.317,-25.5,-28.79,-23.44,0,0,0,0,0,0,0,0,0,0,0,0,0,0,0,0,
187,6.231,16.29,-59.82,14.05,-13.63,2.541,-14.29,34.34,-17.01,8.351,7.122,6.11,5.832,-15.6,-17.48,-11.27,0,0,0,0,0,0,0,0,0,0,0,0,0,0,0,0,
188,-13.26,-9.945,-34.89,2.319,-33.75,-15.49,-53.16,-37.72,-26.34,5.189,-23.62,-10.53,-4.006,-22.44,-28.83,-22.82,0,0,0,0,0,0,0,0,0,0,0,0,0,0,0,0,
189,-17.96,-18.51,-42.69,9.078,-50.48,-22.02,-33.03,-48.68,-28.2,7.694,-42.56,-14.8,-15.13,-31.44,-46.08,-35.99,0,0,0,0,0,0,0,0,0,0,0,0,0,0,0,0,
190,-27.07,-12.93,-92.09,-5.78,-57.62,-29.45,-23.42,41.13,-49.32,-14.94,-34.96,6.517,-11.29,-19.71,-30.45,-12.79,0,0,0,0,0,0,0,0,0,0,0,0,0,0,0,0,
191,-47.42,-23.86,-86.01,-40.61,-60.69,-50.33,-70.13,74.19,-57.3,-30.03,-36.02,5.809,-21.99,-14.64,-18.08,5.422,0,0,0,0,0,0,0,0,0,0,0,0,0,0,0,0,
192,-59.48,-45.3,-54.63,-38.31,-73.61,-65.4,-63.71,-9.606,-54.97,-30.23,-37.05,-13.65,-36.6,-25.05,-30.97,-6.065,0,0,0,0,0,0,0,0,0,0,0,0,0,0,0,0,
193,-65.32,-56.11,-57.7,-21.12,-81.41,-59.3,-15.22,-39.07,-64.53,-37.2,-17.6,-4.706,-18.29,-17.43,-19.94,1.347,0,0,0,0,0,0,0,0,0,0,0,0,0,0,0,0,
194,-50.97,-36.53,-45.63,-18.6,-50.49,-36.95,8.416,20.08,-39.28,-14.63,4.286,3.414,3.228,-6.031,2.556,14.33,0,0,0,0,0,0,0,0,0,0,0,0,0,0,0,0,
195,-14.44,1.31,-35.01,-4.128,-12.14,-20.83,20.36,21.4,1.103,12.53,4.384,-17.97,-5.672,-18.69,-14.42,-5.508,0,0,0,0,0,0,0,0,0,0,0,0,0,0,0,0,
196,16.94,19.31,-21.42,20.39,8.536,-9.756,26.1,-4.575,4.992,0.8553,-8.653,-27.86,-13.32,-24.25,-32.76,-18.49,0,0,0,0,0,0,0,0,0,0,0,0,0,0,0,0,
197,34.24,29.76,49.46,40.49,51.01,23.03,32.94,25.06,21.94,13.2,-5.04,-18.78,1.428,-5.947,-16.29,-7.306,0,0,0,0,0,0,0,0,0,0,0,0,0,0,0,0,
198,48.03,50.63,72.77,62.06,80.46,56.5,47.86,22.31,59.3,51.07,6.2,-17.06,11.97,2.675,-8.398,-5.155,0,0,0,0,0,0,0,0,0,0,0,0,0,0,0,0,
199,61.03,55.87,15.53,71.23,56.21,58.61,49.63,-12.11,59.97,54.73,-4.998,-9.368,7.153,-2.425,-20.15,-7.622,0,0,0,0,0,0,0,0,0,0,0,0,0,0,0,0,
200,32.78,36.28,-3.179,50.65,43.1,38.78,17.67,20.67,38.05,47.32,-29.46,8.987,1.518,3.076,-23.2,-1.064,0,0,0,0,0,0,0,0,0,0,0,0,0,0,0,0,
201,-27.79,8.541,-11.88,25.48,37.53,8.905,-34.97,32.69,22.07,40.63,-42.76,14.26,1.868,14.98,-18.68,6.982,0,0,0,0,0,0,0,0,0,0,0,0,0,0,0,0,
202,-21.09,-3.08,-25.65,22.73,-7.848,-9.702,-32.74,-22.9,5.378,31.35,-30.77,19.97,7.013,22.08,-2.567,16.41,0,0,0,0,0,0,0,0,0,0,0,0,0,0,0,0,
203,15.79,0.0676,-2.198,9.974,-41.71,-15.35,19.54,9.891,-18.78,35.43,-7.192,40.27,3.657,23.09,18.53,21.98,0,0,0,0,0,0,0,0,0,0,0,0,0,0,0,0,
204,-27.25,-26.27,-56.99,-26.7,-44.91,-36.54,-2.158,70.01,-49.31,15.98,-10.13,40.29,-19.21,12.15,10.68,17.07,0,0,0,0,0,0,0,0,0,0,0,0,0,0,0,0,
205,-70.69,-63.88,-136.8,-33.84,-45.12,-46.12,-68.33,-1.878,-57.99,-18.2,-26.58,19.26,-41.26,-3.288,-10.5,10.44,0,0,0,0,0,0,0,0,0,0,0,0,0,0,0,0,
206,-44.45,-50.64,-56.66,-16.68,-32.9,-30.78,-44.66,-29.4,-37.05,-19.29,-17.55,15.91,-44.15,-9.591,-9.396,7.613,0,0,0,0,0,0,0,0,0,0,0,0,0,0,0,0,
207,-20.24,-19.31,28.73,-20.88,-27.48,-35.79,17.46,53.31,-26.96,-24.84,0.9215,17.95,-34.33,-9.13,1.687,6.92,0,0,0,0,0,0,0,0,0,0,0,0,0,0,0,0,
208,-14.22,-15.94,-15.37,-19.19,-23.23,-34.38,11.29,28.82,-24.14,-32.62,5.396,6.372,-16.38,-4.16,6.313,4.702,0,0,0,0,0,0,0,0,0,0,0,0,0,0,0,0,
209,-10.78,-12.23,-33.44,1.262,22.97,5.315,-17.14,-24.09,6.777,-0.4166,-2.97,-3.264,-0.5963,0.0514,-1.374,-5.152,0,0,0,0,0,0,0,0,0,0,0,0,0,0,0,0,
210,-5.966,7.864,7.484,15.88,56.61,30.81,-2.045,29.5,37.47,21.77,-15.5,-15.46,2.862,-3.914,-20.41,-17.39,0,0,0,0,0,0,0,0,0,0,0,0,0,0,0,0,
211,32.61,33.02,43.1,32.88,33.06,31.9,16.89,17.99,29.55,17.77,-12.98,-28.02,8.017,-3.541,-21.75,-18.87,0,0,0,0,0,0,0,0,0,0,0,0,0,0,0,0,
212,64.75,49.71,54.79,39.91,20.94,35.3,8.838,-35.98,14.81,31.6,-3.372,-19.86,20.5,6.341,2.3,-11.76,0,0,0,0,0,0,0,0,0,0,0,0,0,0,0,0,
213,41.07,40.35,-8.265,29.78,36.07,31.16,12.23,9.362,22.3,41.57,-6.942,-5.165,30.09,13.3,18.24,-9.465,0,0,0,0,0,0,0,0,0,0,0,0,0,0,0,0,
214,16.82,18.49,-45.65,32.09,29.12,24.81,14.59,27.12,21.91,29.66,-6.045,2.571,39.49,21.68,22.05,-6.039,0,0,0,0,0,0,0,0,0,0,0,0,0,0,0,0,
215,12.92,5.371,33.23,23.38,12.32,17.86,-11.48,-3.986,6.003,21.34,2.066,10.45,42.48,29.9,32.37,12.19,0,0,0,0,0,0,0,0,0,0,0,0,0,0,0,0,
216,-5.49,1.248,48.49,-8.378,8.608,-5.515,-12.85,25.45,3.254,15.01,-3.06,12.41,29.54,22.0,33.72,28.01,0,0,0,0,0,0,0,0,0,0,0,0,0,0,0,0,
217,-13.05,8.646,-29.39,-13.71,-0.3259,-23.2,11.51,37.91,3.675,2.337,-8.231,13.89,16.47,11.36,17.55,26.46,0,0,0,0,0,0,0,0,0,0,0,0,0,0,0,0,
218,-0.6794,3.791,-30.37,-5.636,-18.28,-23.21,3.013,9.693,-10.26,-12.21,-5.871,14.16,4.774,8.495,9.867,22.46,0,0,0,0,0,0,0,0,0,0,0,0,0,0,0,0,
219,-15.94,-29.43,-7.939,-17.67,-26.16,-26.16,-19.29,10.74,-20.78,-22.15,-9.084,-4.557,-13.44,-4.166,11.12,17.5,0,0,0,0,0,0,0,0,0,0,0,0,0,0,0,0,
220,-36.29,-33.97,-28.39,-16.95,-14.18,-21.26,-12.02,3.626,-17.27,-16.48,0.8391,-11.43,-9.869,-9.973,8.613,12.79,0,0,0,0,0,0,0,0,0,0,0,0,0,0,0,0,
221,-10.11,3.921,-11.58,-3.417,5.041,-4.471,23.02,-9.501,-4.227,-1.067,26.88,7.707,17.51,8.322,12.96,19.71,0,0,0,0,0,0,0,0,0,0,0,0,0,0,0,0,
222,18.87,13.73,-1.643,-9.433,10.43,-5.459,38.92,4.476,9.714,9.667,30.65,1.018,24.38,10.01,14.42,16.7,0,0,0,0,0,0,0,0,0,0,0,0,0,0,0,0,
223,13.05,-2.307,-31.52,-12.22,7.941,-11.2,4.519,-0.6479,12.02,11.5,24.17,-13.54,17.75,-8.44,6.781,2.679,0,0,0,0,0,0,0,0,0,0,0,0,0,0,0,0,
224,5.052,-0.3063,-13.17,1.342,11.57,-1.323,-6.763,-25.06,7.762,-1.363,36.34,6.346,23.86,-7.993,10.98,8.171,0,0,0,0,0,0,0,0,0,0,0,0,0,0,0,0,
225,-8.514,-9.283,20.01,-4.159,4.216,-10.01,22.56,-35.29,0.0808,-25.42,30.02,2.641,12.72,-12.72,11.7,10.24,0,0,0,0,0,0,0,0,0,0,0,0,0,0,0,0,
226,-32.55,-34.06,-4.788,-27.95,-15.05,-36.91,-4.986,-30.61,-19.27,-45.66,1.801,-28.25,-11.23,-34.38,1.236,-2.996,0,0,0,0,0,0,0,0,0,0,0,0,0,0,0,0,
227,-29.33,-29.23,-31.41,-32.87,-17.89,-41.09,-45.52,-4.068,-29.15,-51.23,1.099,-12.73,-4.993,-28.38,8.345,4.973,0,0,0,0,0,0,0,0,0,0,0,0,0,0,0,0,
228,-8.818,-2.186,-11.67,-17.62,-13.69,-33.07,-11.36,12.83,-16.3,-37.96,12.45,14.54,7.388,-8.238,17.36,18.73,0,0,0,0,0,0,0,0,0,0,0,0,0,0,0,0,
229,1.008,11.57,11.13,-1.108,-13.84,-22.47,14.73,-5.001,-6.643,-18.14,13.16,8.08,9.225,1.508,21.79,23.35,0,0,0,0,0,0,0,0,0,0,0,0,0,0,0,0,
230,15.54,10.44,0.0275,17.74,9.524,11.14,11.21,1.804,2.581,-2.63,34.99,16.58,36.61,25.86,55.42,50.27,0,0,0,0,0,0,0,0,0,0,0,0,0,0,0,0,
231,36.74,19.94,0.3526,36.48,44.15,42.15,53.89,44.15,26.81,14.48,70.31,35.94,66.78,45.04,87.49,75.17,0,0,0,0,0,0,0,0,0,0,0,0,0,0,0,0,
232,41.41,42.46,36.33,45.46,55.1,45.22,80.91,42.49,43.51,24.22,75.56,24.71,59.27,31.75,70.21,59.83,0,0,0,0,0,0,0,0,0,0,0,0,0,0,0,0,
233,32.23,40.78,44.52,53.2,53.62,43.92,40.81,-10.99,42.8,17.86,43.14,4.749,32.62,10.35,24.05,27.38,0,0,0,0,0,0,0,0,0,0,0,0,0,0,0,0,
234,42.13,28.96,31.44,57.07,43.56,39.79,18.46,-31.37,28.7,9.31,5.909,-5.743,5.95,-11.53,-10.38,1.823,0,0,0,0,0,0,0,0,0,0,0,0,0,0,0,0,
235,58.11,40.6,46.24,32.57,21.93,21.52,27.0,11.28,6.152,-0.5392,6.22,-5.329,2.674,-21.38,-7.716,-4.214,0,0,0,0,0,0,0,0,0,0,0,0,0,0,0,0,
236,23.86,21.36,44.68,-3.969,12.42,11.04,27.65,40.46,6.954,-11.9,28.73,8.582,30.8,-2.709,8.681,4.926,0,0,0,0,0,0,0,0,0,0,0,0,0,0,0,0,
237,-20.66,-26.11,18.81,-3.773,8.665,14.88,38.5,10.23,16.92,-11.53,22.93,6.498,35.18,3.613,-6.584,-3.398,0,0,0,0,0,0,0,0,0,0,0,0,0,0,0,0,
238,-2.17,-1.933,9.345,24.47,-5.314,13.32,27.65,-13.26,-6.424,-10.28,-0.5628,-10.2,8.879,-12.88,-22.47,-17.75,0,0,0,0,0,0,0,0,0,0,0,0,0,0,0,0,
239,31.17,62.44,7.642,40.04,-6.369,14.59,-15.28,0.9966,-20.65,-13.68,-6.875,-2.086,6.096,-9.343,-2.44,-8.26,0,0,0,0,0,0,0,0,0,0,0,0,0,0,0,0,
240,34.95,65.23,7.052,55.32,14.52,35.94,-20.24,0.0211,-0.3901,-0.1763,-1.331,13.19,15.41,4.481,7.996,-0.3933,0,0,0,0,0,0,0,0,0,0,0,0,0,0,0,0,
241,30.81,37.2,-27.96,76.6,26.99,50.56,-8.77,-9.472,-2.029,13.72,-2.788,5.577,4.488,1.462,-9.787,-5.61,0,0,0,0,0,0,0,0,0,0,0,0,0,0,0,0,
242,12.45,31.94,-95.46,63.15,5.034,30.89,-17.15,7.538,-28.62,-1.839,-13.34,-6.197,-12.33,-7.409,-15.19,-2.063,0,0,0,0,0,0,0,0,0,0,0,0,0,0,0,0,
243,3.75,34.28,-74.63,31.63,-28.7,5.539,-16.34,26.36,-41.67,-19.11,-17.98,-12.9,-24.92,-17.14,-8.276,-2.467,0,0,0,0,0,0,0,0,0,0,0,0,0,0,0,0,
244,25.52,35.44,13.86,33.83,-35.47,6.114,-32.89,31.82,-43.32,-16.41,-21.25,-21.85,-37.44,-28.06,-21.28,-18.92,0,0,0,0,0,0,0,0,0,0,0,0,0,0,0,0,
245,16.95,20.02,0.577,44.94,-36.52,15.01,-49.47,20.52,-46.12,-20.59,-40.11,-28.64,-55.15,-33.91,-50.51,-30.73,0,0,0,0,0,0,0,0,0,0,0,0,0,0,0,0,
246,-21.96,-13.69,-83.91,27.51,-54.08,3.414,-33.16,-9.974,-54.83,-33.75,-56.95,-33.0,-75.87,-39.15,-68.38,-33.83,0,0,0,0,0,0,0,0,0,0,0,0,0,0,0,0,
247,-30.75,-11.48,-88.15,3.716,-57.38,-21.43,-60.01,-17.94,-58.67,-31.28,-62.65,-32.03,-79.56,-43.9,-64.95,-35.76,0,0,0,0,0,0,0,0,0,0,0,0,0,0,0,0,
248,-19.04,15.16,-53.33,9.044,-47.16,-25.03,-96.61,6.548,-47.73,-15.47,-64.44,-22.7,-66.1,-41.65,-56.73,-33.57,0,0,0,0,0,0,0,0,0,0,0,0,0,0,0,0,
249,-12.89,-1.746,-96.22,40.48,-43.99,-7.401,-68.13,21.59,-44.87,-3.677,-48.34,-16.61,-55.06,-36.97,-58.57,-34.2,0,0,0,0,0,0,0,0,0,0,0,0,0,0,0,0,
250,-17.38,-21.01,-131.2,42.43,-38.11,-4.804,-61.66,25.42,-50.72,-3.952,-32.84,-13.48,-44.11,-32.1,-53.52,-36.18,0,0,0,0,0,0,0,0,0,0,0,0,0,0,0,0,
251,-23.47,10.87,-56.09,10.34,-34.28,-8.273,-74.47,32.11,-38.52,-3.449,-37.1,-5.309,-30.42,-21.37,-29.86,-25.03,0,0,0,0,0,0,0,0,0,0,0,0,0,0,0,0,
252,-5.844,34.66,-1.59,17.65,-35.43,7.852,-36.96,20.57,-24.63,9.233,-25.98,-2.193,-22.7,-9.35,-14.13,-10.63,0,0,0,0,0,0,0,0,0,0,0,0,0,0,0,0,
253,6.648,19.4,-33.82,42.03,-30.5,16.71,-21.3,-9.831,-28.24,12.41,-4.682,-6.888,-15.58,-4.347,-8.529,-0.6593,0,0,0,0,0,0,0,0,0,0,0,0,0,0,0,0,
254,-11.41,3.249,-35.09,25.17,-25.98,8.8,-34.07,-10.94,-23.51,4.459,1.206,-8.551,-2.631,-1.571,9.979,11.92,0,0,0,0,0,0,0,0,0,0,0,0,0,0,0,0,
255,-14.34,-0.8852,-18.23,17.47,-19.46,10.24,-9.914,8.401,-2.739,12.5,16.78,-5.678,13.75,7.568,25.27,18.03,0,0,0,0,0,0,0,0,0,0,0,0,0,0,0,0,
256,-4.426,0.9286,-32.31,20.58,-9.176,12.87,10.89,-17.0,11.89,23.83,32.45,-1.236,33.25,20.5,30.02,22.35,0,0,0,0,0,0,0,0,0,0,0,0,0,0,0,0,
257,-11.43,-4.594,-28.61,-2.479,-5.09,7.815,8.127,-41.11,20.89,21.64,24.25,-2.889,44.27,24.51,37.85,31.02,0,0,0,0,0,0,0,0,0,0,0,0,0,0,0,0,
258,-3.956,-10.19,-42.98,4.152,2.492,10.39,14.31,-10.84,26.54,22.32,21.7,-7.307,37.18,20.24,35.13,26.52,0,0,0,0,0,0,0,0,0,0,0,0,0,0,0,0,
259,15.59,14.2,-64.1,31.32,11.98,15.63,12.9,-2.878,19.62,31.43,27.65,7.359,30.57,25.43,31.44,24.74,0,0,0,0,0,0,0,0,0,0,0,0,0,0,0,0,
260,12.91,31.45,-12.37,20.2,9.23,14.73,-11.54,-15.99,15.89,40.67,18.41,22.31,27.13,29.13,34.23,31.01,0,0,0,0,0,0,0,0,0,0,0,0,0,0,0,0,
261,0.1487,4.713,18.01,11.85,2.661,13.03,-36.89,6.992,17.13,39.09,2.296,11.24,3.374,8.8,8.302,7.382,0,0,0,0,0,0,0,0,0,0,0,0,0,0,0,0,
262,-17.39,-17.02,-22.27,11.61,-6.485,5.653,-46.18,14.33,-3.836,21.1,-10.82,9.33,-23.55,-10.89,-21.45,-20.36,0,0,0,0,0,0,0,0,0,0,0,0,0,0,0,0,
263,-36.63,-19.17,-42.44,-15.66,-21.81,-10.29,-48.33,-6.256,-29.46,0.2572,-18.04,20.17,-24.91,-10.63,-14.43,-13.02,0,0,0,0,0,0,0,0,0,0,0,0,0,0,0,0,
264,-31.99,-30.38,-60.17,-25.22,-31.7,-19.48,-54.4,-10.44,-28.86,-8.626,-21.07,9.654,-18.25,-9.735,-8.71,-6.79,0,0,0,0,0,0,0,0,0,0,0,0,0,0,0,0,
265,-23.71,-39.21,-69.77,-6.609,-34.97,-17.28,-52.41,-3.313,-23.61,-6.095,-24.06,-0.818,-14.84,-9.674,-17.23,-14.59,0,0,0,0,0,0,0,0,0,0,0,0,0,0,0,0,
266,-35.41,-33.99,-36.42,-1.478,-32.55,-17.01,-43.69,-6.956,-32.0,-13.18,-14.2,-6.604,-6.779,-6.734,-15.13,-11.49,0,0,0,0,0,0,0,0,0,0,0,0,0,0,0,0,
267,-39.53,-21.43,-63.09,2.468,-20.76,-11.7,-47.37,-38.82,-34.26,-28.7,-2.051,-22.26,-5.352,-6.993,-12.53,-2.114,0,0,0,0,0,0,0,0,0,0,0,0,0,0,0,0,
268,-27.81,-14.17,-111.6,13.99,-12.29,6.548,-48.25,-40.65,-14.34,-15.4,-11.63,-23.13,-13.71,-7.819,-15.75,-1.883,0,0,0,0,0,0,0,0,0,0,0,0,0,0,0,0,
269,-8.698,-10.12,-55.33,12.77,-15.21,9.299,-30.29,26.04,7.537,-0.5238,-14.21,-24.46,-13.18,-14.37,-16.7,-13.62,0,0,0,0,0,0,0,0,0,0,0,0,0,0,0,0,
270,-0.7706,3.406,-9.562,6.506,-20.19,-5.642,-19.02,46.54,0.8588,-25.19,10.43,-28.45,5.811,-14.49,-6.857,-13.14,0,0,0,0,0,0,0,0,0,0,0,0,0,0,0,0,
271,-43.89,-14.28,-41.47,6.767,-24.29,-4.842,-15.92,5.268,-10.77,-32.11,23.28,-0.6233,19.69,0.742,11.04,5.772,0,0,0,0,0,0,0,0,0,0,0,0,0,0,0,0,
272,-75.77,-54.86,-31.53,10.31,-22.98,3.215,4.05,-4.089,5.777,-8.832,10.84,4.053,-0.1237,-7.29,4.085,-2.245,0,0,0,0,0,0,0,0,0,0,0,0,0,0,0,0,
273,-13.97,-28.62,23.25,15.66,-3.008,1.681,24.31,-9.859,16.88,-17.07,7.217,-24.93,-18.04,-26.74,-15.54,-24.97,0,0,0,0,0,0,0,0,0,0,0,0,0,0,0,0,
274,41.95,19.56,42.48,12.71,22.65,1.114,31.17,-21.92,4.595,-32.32,23.93,-7.233,7.441,-9.133,3.584,-10.22,0,0,0,0,0,0,0,0,0,0,0,0,0,0,0,0,
275,28.36,13.68,23.98,-4.173,29.09,-1.449,33.97,-28.24,9.873,-15.06,38.08,19.19,33.3,10.4,37.06,10.24,0,0,0,0,0,0,0,0,0,0,0,0,0,0,0,0,
276,47.69,27.29,37.45,-16.68,35.5,3.483,33.61,-57.57,41.01,6.408,39.1,14.43,33.05,10.13,44.64,9.788,0,0,0,0,0,0,0,0,0,0,0,0,0,0,0,0,
277,93.32,64.01,105.9,-14.38,63.11,26.28,60.46,-27.73,65.71,18.97,43.48,33.16,39.81,25.26,48.01,21.07,0,0,0,0,0,0,0,0,0,0,0,0,0,0,0,0,
278,86.18,51.3,118.2,-14.36,78.36,29.7,97.05,39.09,66.79,16.5,57.86,44.03,47.22,35.04,55.18,37.33,0,0,0,0,0,0,0,0,0,0,0,0,0,0,0,0,
279,72.59,31.44,73.96,-26.51,63.13,6.66,70.31,-0.7757,55.81,-8.117,64.4,21.07,41.98,21.27,53.45,42.73,0,0,0,0,0,0,0,0,0,0,0,0,0,0,0,0,
280,84.53,36.02,107.3,-36.58,50.78,-0.9456,48.15,-40.18,55.95,-21.56,55.87,22.46,42.14,14.32,43.83,45.95,0,0,0,0,0,0,0,0,0,0,0,0,0,0,0,0,
281,86.12,33.67,159.0,-33.64,48.04,0.9924,91.67,-3.77,56.36,-14.98,45.74,21.47,38.31,8.343,22.64,30.88,0,0,0,0,0,0,0,0,0,0,0,0,0,0,0,0,
282,74.86,29.47,130.1,-27.04,37.45,-10.88,79.26,-34.59,36.48,-19.04,41.32,-10.79,26.45,-2.496,8.01,5.921,0,0,0,0,0,0,0,0,0,0,0,0,0,0,0,0,
283,52.45,16.71,95.91,-29.66,37.34,-9.374,17.48,-56.36,25.98,-20.7,41.23,-10.46,28.92,7.254,21.48,8.201,0,0,0,0,0,0,0,0,0,0,0,0,0,0,0,0,
284,32.69,-5.79,92.02,-34.85,49.46,10.72,33.55,27.05,33.89,-1.884,44.5,13.09,35.09,24.08,28.53,17.7,0,0,0,0,0,0,0,0,0,0,0,0,0,0,0,0,
285,43.6,-0.4831,79.45,-25.56,35.47,6.604,59.04,39.43,21.12,4.784,39.8,7.591,25.25,22.6,11.04,10.13,0,0,0,0,0,0,0,0,0,0,0,0,0,0,0,0,
286,53.71,15.19,50.73,-9.582,13.01,-11.3,33.31,-20.21,7.493,-0.6997,20.94,7.775,12.89,19.51,8.623,12.09,0,0,0,0,0,0,0,0,0,0,0,0,0,0,0,0,
287,36.74,8.069,30.51,-11.98,26.19,-0.7286,40.03,-5.136,27.34,11.52,7.393,25.89,13.72,27.47,19.74,17.88,0,0,0,0,0,0,0,0,0,0,0,0,0,0,0,0,
288,29.51,10.34,59.52,-27.94,43.38,7.996,53.87,4.01,40.05,16.89,10.15,22.19,24.21,29.72,11.45,3.578,0,0,0,0,0,0,0,0,0,0,0,0,0,0,0,0,
289,45.19,30.72,97.24,-33.3,37.35,-11.63,25.99,-38.79,34.5,3.219,19.08,13.46,28.78,19.59,2.148,-3.982,0,0,0,0,0,0,0,0,0,0,0,0,0,0,0,0,
290,61.71,31.18,83.8,-25.63,41.06,-14.29,34.3,-39.74,44.59,2.54,32.06,17.83,23.96,12.49,10.25,3.002,0,0,0,0,0,0,0,0,0,0,0,0,0,0,0,0,
291,67.62,16.98,81.24,-8.192,58.71,12.43,79.83,-20.51,52.21,10.86,47.81,20.2,35.08,22.76,22.14,7.317,0,0,0,0,0,0,0,0,0,0,0,0,0,0,0,0,
292,63.22,27.13,118.8,16.05,76.42,37.54,85.9,-18.23,58.33,22.38,59.68,29.6,67.14,45.93,35.45,28.19,0,0,0,0,0,0,0,0,0,0,0,0,0,0,0,0,
293,68.05,62.55,129.1,27.39,99.4,56.05,75.27,-16.0,91.57,46.16,70.2,32.35,83.58,60.55,41.75,52.91,0,0,0,0,0,0,0,0,0,0,0,0,0,0,0,0,
294,83.77,75.56,117.5,19.58,102.1,59.65,71.83,-41.81,106.0,51.95,75.07,16.66,74.69,56.77,34.22,47.24,0,0,0,0,0,0,0,0,0,0,0,0,0,0,0,0,
295,79.68,47.64,118.2,4.751,67.12,37.62,47.15,-54.34,78.49,31.95,58.91,16.47,58.49,44.38,30.43,39.79,0,0,0,0,0,0,0,0,0,0,0,0,0,0,0,0,
296,58.73,28.82,92.9,-9.964,40.21,14.66,27.84,6.956,60.04,19.82,31.17,17.21,36.32,30.38,24.31,39.65,0,0,0,0,0,0,0,0,0,0,0,0,0,0,0,0,
297,39.42,26.06,44.44,-9.77,44.77,12.42,21.52,43.26,50.45,18.27,17.24,1.099,19.5,19.82,3.338,17.98,0,0,0,0,0,0,0,0,0,0,0,0,0,0,0,0,
298,21.51,3.983,29.16,-1.214,39.03,16.21,-6.011,-4.623,29.65,15.02,7.602,-0.9113,11.59,9.358,-11.45,-3.427,0,0,0,0,0,0,0,0,0,0,0,0,0,0,0,0,
299,15.94,-7.586,32.19,-17.57,10.86,7.822,-11.7,-26.48,16.91,4.1,-8.235,1.416,-2.603,-4.081,-10.08,-3.455,0,0,0,0,0,0,0,0,0,0,0,0,0,0,0,0,
300,13.71,-4.534,25.38,-40.94,-3.375,-4.89,27.47,1.134,9.008,-14.32,-5.934,2.3,-5.677,-3.137,-7.498,-4.058,0,0,0,0,0,0,0,0,0,0,0,0,0,0,0,0,
301,4.498,-16.65,29.62,-34.04,-1.83,-9.301,39.54,-9.941,0.87,-20.05,3.524,6.7,3.567,0.376,-16.72,-16.59,0,0,0,0,0,0,0,0,0,0,0,0,0,0,0,0,
302,11.66,-11.74,35.53,-26.71,-4.052,-11.26,9.656,-39.57,5.218,-20.25,-0.2308,-11.41,5.489,-10.66,-23.96,-26.16,0,0,0,0,0,0,0,0,0,0,0,0,0,0,0,0,
303,12.92,-6.37,40.47,-43.85,-9.057,-20.33,-4.127,-34.93,12.14,-40.06,12.12,-17.06,17.61,-2.96,-2.828,-14.57,0,0,0,0,0,0,0,0,0,0,0,0,0,0,0,0,
304,-4.74,-23.6,58.78,-45.39,-16.5,-29.38,17.39,-29.53,10.39,-53.65,28.12,8.24,23.86,14.87,19.91,5.314,0,0,0,0,0,0,0,0,0,0,0,0,0,0,0,0,
305,7.886,-12.04,54.2,-25.13,-4.661,-17.49,43.81,-26.37,6.814,-39.15,24.69,12.87,15.8,16.49,21.09,18.77,0,0,0,0,0,0,0,0,0,0,0,0,0,0,0,0,
306,20.09,-8.36,38.51,-25.35,34.16,9.351,48.74,-14.1,18.14,-21.66,39.84,11.03,41.68,34.52,35.54,37.72,0,0,0,0,0,0,0,0,0,0,0,0,0,0,0,0,
307,-3.169,-27.5,48.12,-25.79,41.59,19.67,41.46,-38.97,41.44,-10.17,50.14,11.38,56.28,43.41,42.35,38.37,0,0,0,0,0,0,0,0,0,0,0,0,0,0,0,0,
308,10.02,9.988,46.95,5.837,15.73,23.5,34.74,-54.54,36.4,-2.397,22.13,-6.736,19.98,12.48,11.8,7.359,0,0,0,0,0,0,0,0,0,0,0,0,0,0,0,0,
309,42.09,41.19,38.71,23.45,13.38,35.4,24.33,11.11,5.449,-13.56,10.77,-6.083,14.77,2.228,-1.811,-10.02,0,0,0,0,0,0,0,0,0,0,0,0,0,0,0,0,
310,19.46,21.39,25.22,16.95,12.11,29.45,9.424,40.32,-5.487,-32.33,7.043,-6.273,24.78,2.443,-1.628,-17.72,0,0,0,0,0,0,0,0,0,0,0,0,0,0,0,0,
311,3.629,35.68,-23.33,35.78,-6.828,19.62,-7.372,-16.29,-7.138,-27.5,-22.24,-32.01,-5.923,-24.79,-25.21,-37.38,0,0,0,0,0,0,0,0,0,0,0,0,0,0,0,0,
312,18.27,37.73,-42.32,61.03,-11.79,28.69,-23.25,-5.93,-21.03,-10.18,-28.12,-28.09,-15.09,-29.23,-29.85,-43.59,0,0,0,0,0,0,0,0,0,0,0,0,0,0,0,0,
313,-4.598,0.6569,-37.67,53.61,-21.83,24.88,-59.59,46.16,-29.13,-11.12,-27.87,-17.22,-7.98,-18.46,-21.37,-47.22,0,0,0,0,0,0,0,0,0,0,0,0,0,0,0,0,
314,-26.65,14.48,-76.81,33.65,-45.94,8.726,-121.1,17.83,-34.39,-20.03,-58.29,-25.96,-27.73,-26.35,-40.46,-53.65,0,0,0,0,0,0,0,0,0,0,0,0,0,0,0,0,
315,-12.56,27.98,-85.79,19.58,-50.59,3.116,-124.8,-1.647,-43.96,-16.39,-56.74,-2.046,-23.08,-16.28,-38.6,-32.03,0,0,0,0,0,0,0,0,0,0,0,0,0,0,0,0,
316,-28.27,-4.341,-80.78,5.607,-43.2,-3.407,-55.3,28.3,-46.93,-11.65,-16.11,26.61,2.502,4.053,-3.055,-5.764,0,0,0,0,0,0,0,0,0,0,0,0,0,0,0,0,
317,-55.16,-9.848,-130.3,-5.925,-43.4,-3.192,-29.09,24.99,-47.02,-12.06,-2.484,17.59,1.056,3.489,1.268,1.139,0,0,0,0,0,0,0,0,0,0,0,0,0,0,0,0,
318,-35.57,-1.845,-110.0,-0.0274,-45.22,5.956,-55.07,13.26,-42.88,-9.558,-14.79,5.409,-9.732,0.0267,-21.0,3.829,0,0,0,0,0,0,0,0,0,0,0,0,0,0,0,0,
319,-11.99,3.685,-35.83,15.57,-33.3,4.106,-42.73,8.681,-29.32,-9.473,-18.64,1.561,-15.36,3.614,-18.9,0.3744,0,0,0,0,0,0,0,0,0,0,0,0,0,0,0,0,
320,-8.922,21.38,-50.17,14.61,-6.925,6.834,-12.12,-21.73,-18.04,-10.02,-20.22,0.1411,-22.85,9.874,-13.34,-6.144,0,0,0,0,0,0,0,0,0,0,0,0,0,0,0,0,
321,-4.614,1.272,-54.63,14.86,-0.314,17.36,-22.0,-33.43,-13.27,-2.909,-40.04,-2.552,-38.04,6.968,-45.26,-15.98,0,0,0,0,0,0,0,0,0,0,0,0,0,0,0,0,
322,0.1105,-14.18,3.243,26.58,-12.25,15.77,-38.41,-4.422,-16.14,4.657,-59.03,-15.11,-56.67,-7.831,-74.86,-35.28,0,0,0,0,0,0,0,0,0,0,0,0,0,0,0,0,
323,20.07,34.03,16.35,21.27,-2.66,19.95,-19.75,14.26,-20.61,11.93,-51.2,-20.68,-54.84,-13.39,-63.61,-44.52,0,0,0,0,0,0,0,0,0,0,0,0,0,0,0,0,
324,43.91,52.43,15.97,19.96,14.37,31.36,-7.25,6.471,-4.716,16.68,-43.97,-26.63,-47.51,-26.01,-55.71,-55.65,0,0,0,0,0,0,0,0,0,0,0,0,0,0,0,0,
325,29.86,27.05,16.65,31.81,23.52,25.98,-27.7,14.81,14.92,5.922,-42.2,-48.39,-49.49,-52.4,-60.4,-79.42,0,0,0,0,0,0,0,0,0,0,0,0,0,0,0,0,
326,8.892,37.09,-29.38,23.23,38.68,26.86,-23.51,35.24,12.11,-2.791,-7.855,-45.34,-21.07,-42.08,-31.01,-67.26,0,0,0,0,0,0,0,0,0,0,0,0,0,0,0,0,
327,14.77,37.63,-23.44,18.29,36.95,45.22,9.661,18.76,13.86,8.285,33.59,-6.511,26.62,-4.369,14.39,-22.31,0,0,0,0,0,0,0,0,0,0,0,0,0,0,0,0,
328,19.62,9.634,38.57,22.29,20.76,43.62,11.09,11.25,30.48,17.13,43.35,17.48,48.4,11.65,40.97,4.279,0,0,0,0,0,0,0,0,0,0,0,0,0,0,0,0,
329,19.03,19.06,11.01,6.26,19.75,28.15,-6.171,22.05,38.86,21.68,40.35,11.34,55.45,18.01,58.88,18.89,0,0,0,0,0,0,0,0,0,0,0,0,0,0,0,0,
330,15.84,31.06,-48.7,5.942,13.03,30.8,-8.53,-32.97,36.2,36.56,32.52,12.37,51.69,25.62,61.61,34.56,0,0,0,0,0,0,0,0,0,0,0,0,0,0,0,0,
331,1.187,12.31,-24.62,24.59,2.937,35.28,-7.53,-51.25,20.94,43.67,19.7,38.84,32.33,26.34,44.78,40.22,0,0,0,0,0,0,0,0,0,0,0,0,0,0,0,0,
332,0.9834,16.83,7.905,21.97,12.12,28.01,-4.351,47.28,11.11,39.57,12.38,47.33,15.38,25.65,24.36,32.67,0,0,0,0,0,0,0,0,0,0,0,0,0,0,0,0,
333,11.42,26.66,3.481,15.52,8.248,22.94,3.429,68.82,20.48,37.25,0.9762,12.81,-4.526,15.12,3.392,11.63,0,0,0,0,0,0,0,0,0,0,0,0,0,0,0,0,
334,-8.271,4.869,-9.384,12.03,-4.606,16.7,4.566,-19.24,9.821,26.85,-17.05,-16.02,-24.91,-0.5002,-8.98,-7.38,0,0,0,0,0,0,0,0,0,0,0,0,0,0,0,0,
335,-31.99,-3.491,-35.63,3.89,5.635,6.977,-12.03,-35.12,-5.623,19.33,-41.59,-24.67,-34.93,-8.054,-23.91,-23.98,0,0,0,0,0,0,0,0,0,0,0,0,0,0,0,0,
336,-21.94,4.059,-36.66,12.63,2.428,5.057,-36.35,11.12,8.635,23.24,-73.56,-38.34,-53.09,-25.0,-63.6,-55.68,0,0,0,0,0,0,0,0,0,0,0,0,0,0,0,0,
337,-17.7,-8.769,-17.02,15.71,-23.25,5.134,-34.7,11.86,-4.947,8.824,-80.18,-37.42,-64.09,-44.21,-84.63,-71.15,0,0,0,0,0,0,0,0,0,0,0,0,0,0,0,0,
338,-40.55,-23.5,-42.68,-12.67,-32.8,-4.927,-20.04,-17.3,-39.16,-11.08,-57.25,-26.86,-46.36,-46.8,-62.27,-57.46,0,0,0,0,0,0,0,0,0,0,0,0,0,0,0,0,
339,-53.13,-28.96,-73.02,-33.86,-38.3,-21.53,-30.65,-9.863,-28.05,-6.097,-39.69,-31.02,-29.9,-51.96,-39.27,-51.95,0,0,0,0,0,0,0,0,0,0,0,0,0,0,0,0,
340,-48.24,-28.23,-55.97,-34.07,-47.16,-33.9,-42.93,25.45,-15.16,-6.345,-22.02,-24.06,-19.39,-57.49,-17.96,-44.7,0,0,0,0,0,0,0,0,0,0,0,0,0,0,0,0,
341,-39.24,-18.31,-21.72,-37.67,-43.42,-35.21,-37.3,17.66,-29.15,-23.9,0.6748,-10.75,-4.04,-42.94,10.73,-23.42,0,0,0,0,0,0,0,0,0,0,0,0,0,0,0,0,
342,-37.66,-34.82,-22.16,-35.39,-40.9,-25.16,-39.68,-14.61,-27.24,-23.81,9.002,-11.16,-1.926,-19.65,25.85,-10.2,0,0,0,0,0,0,0,0,0,0,0,0,0,0,0,0,
343,-59.46,-61.62,-78.21,-19.9,-32.29,-10.37,-45.93,-13.68,-13.14,-1.438,12.81,-3.96,-3.432,-3.399,33.3,5.743,0,0,0,0,0,0,0,0,0,0,0,0,0,0,0,0,
344,-52.94,-27.85,-80.03,-10.74,-10.44,-0.3617,-28.05,-6.16,-4.231,15.22,12.72,-1.832,0.2408,-1.573,27.3,21.24,0,0,0,0,0,0,0,0,0,0,0,0,0,0,0,0,
345,8.784,19.81,10.42,-1.713,-7.878,6.059,1.671,1.323,-7.623,9.853,-4.256,-11.88,-9.356,-3.794,3.993,14.57,0,0,0,0,0,0,0,0,0,0,0,0,0,0,0,0,
346,28.35,17.09,17.95,14.6,-13.85,16.33,4.729,8.611,-21.35,3.497,-15.86,-9.156,-18.0,7.659,3.538,5.952,0,0,0,0,0,0,0,0,0,0,0,0,0,0,0,0,
347,-0.29,18.46,-33.95,17.23,0.4688,26.3,-11.64,-19.66,-13.61,20.01,-15.34,-15.96,-16.54,12.94,9.261,1.835,0,0,0,0,0,0,0,0,0,0,0,0,0,0,0,0,
348,3.923,26.15,5.625,12.3,9.393,29.04,-12.84,-30.82,3.283,33.5,-21.44,-26.21,-26.31,3.534,-13.57,-8.351,0,0,0,0,0,0,0,0,0,0,0,0,0,0,0,0,
349,0.2902,-2.106,10.01,15.61,-2.857,23.69,-11.22,8.314,-3.853,23.33,-22.99,-6.019,-36.5,4.111,-20.6,-12.13,0,0,0,0,0,0,0,0,0,0,0,0,0,0,0,0,
350,-19.68,-11.45,-53.36,9.739,-13.81,16.14,-10.37,19.16,-11.38,16.13,-14.45,2.738,-31.28,3.175,-10.99,-15.09,0,0,0,0,0,0,0,0,0,0,0,0,0,0,0,0,
351,-3.966,10.18,-19.4,-2.401,-6.626,13.7,2.414,7.931,-6.613,19.98,-13.01,-8.96,-23.93,-11.79,-25.87,-21.55,0,0,0,0,0,0,0,0,0,0,0,0,0,0,0,0,
352,-10.93,3.643,1.481,-1.481,8.635,6.381,-12.77,28.63,-2.06,13.22,-10.87,3.492,-19.51,-18.66,-26.81,-16.45,0,0,0,0,0,0,0,0,0,0,0,0,0,0,0,0,
353,-37.71,-9.561,-72.82,-0.6731,4.453,-6.17,-34.14,30.07,3.476,-3.634,2.753,17.69,-19.05,-16.84,-2.116,-8.644,0,0,0,0,0,0,0,0,0,0,0,0,0,0,0,0,
354,-17.39,-6.0,-45.18,-11.57,-18.7,-10.41,-1.549,-1.501,-5.39,-11.29,12.69,15.8,-22.88,-13.85,2.567,-2.754,0,0,0,0,0,0,0,0,0,0,0,0,0,0,0,0,
355,-14.07,-17.67,18.81,-25.3,-41.9,-25.58,10.44,-15.68,-30.69,-9.84,9.302,19.51,-20.6,-4.294,10.07,10.12,0,0,0,0,0,0,0,0,0,0,0,0,0,0,0,0,
356,-43.62,-35.27,-40.9,-37.31,-61.75,-50.66,-29.3,-25.84,-39.57,-15.34,-1.851,17.73,-18.61,2.317,33.02,16.9,0,0,0,0,0,0,0,0,0,0,0,0,0,0,0,0,
357,-37.27,-36.95,-54.49,-43.06,-59.4,-44.87,-29.86,-26.64,-29.22,-22.03,-8.55,7.09,-23.56,1.988,25.27,14.48,0,0,0,0,0,0,0,0,0,0,0,0,0,0,0,0,
358,-27.1,-23.93,-4.671,-29.19,-31.51,-23.0,-12.45,3.724,-22.4,-14.94,-2.586,0.9069,-22.64,3.177,5.079,12.61,0,0,0,0,0,0,0,0,0,0,0,0,0,0,0,0,
359,-29.27,-3.1,-29.09,4.753,-18.96,-14.92,-24.03,18.08,-22.37,-6.175,-0.1134,-3.796,-21.41,1.53,6.824,4.906,0,0,0,0,0,0,0,0,0,0,0,0,0,0,0,0,
360,-11.1,4.271,-13.37,28.29,-18.82,-2.832,-23.99,9.497,-22.02,-7.652,-14.86,-11.61,-28.42,-7.408,0.2885,-9.65,0,0,0,0,0,0,0,0,0,0,0,0,0,0,0,0,
361,-0.9635,12.6,21.93,28.43,7.727,12.51,-17.74,-6.565,-12.1,-5.02,-28.4,-34.47,-31.81,-15.61,-24.1,-29.02,0,0,0,0,0,0,0,0,0,0,0,0,0,0,0,0,
362,1.403,36.42,-43.62,30.03,39.22,22.11,-5.442,-33.1,2.234,10.66,-28.65,-52.71,-33.16,-10.83,-40.91,-47.43,0,0,0,0,0,0,0,0,0,0,0,0,0,0,0,0,
363,15.22,27.29,-46.39,29.79,32.09,31.99,10.73,-6.84,-1.842,23.53,-34.77,-29.55,-37.6,3.644,-45.98,-42.75,0,0,0,0,0,0,0,0,0,0,0,0,0,0,0,0,
364,15.97,-1.691,38.55,19.11,2.643,28.48,-21.42,46.16,-11.03,24.31,-54.87,-5.546,-37.71,7.379,-50.4,-26.86,0,0,0,0,0,0,0,0,0,0,0,0,0,0,0,0,
365,16.94,13.98,48.76,23.23,-3.933,18.49,-37.25,23.84,-0.3305,27.93,-57.71,-6.97,-31.06,7.814,-53.11,-25.84,0,0,0,0,0,0,0,0,0,0,0,0,0,0,0,0,
366,23.68,34.39,18.03,26.4,8.26,19.46,2.807,-9.438,5.777,35.04,-30.0,9.175,-15.0,20.64,-36.69,-19.01,0,0,0,0,0,0,0,0,0,0,0,0,0,0,0,0,
367,1.992,4.788,-9.472,4.201,1.457,13.68,-11.42,-2.678,-2.829,26.88,-12.83,22.94,0.2422,17.66,-13.84,-6.05,0,0,0,0,0,0,0,0,0,0,0,0,0,0,0,0,
368,-24.63,-32.92,-37.66,-11.36,-18.03,0.8949,-40.21,-6.407,-6.472,5.733,-13.62,11.08,-0.2478,-5.581,-13.39,-10.87,0,0,0,0,0,0,0,0,0,0,0,0,0,0,0,0,
369,-29.36,-34.38,-32.77,-15.03,-28.97,-11.21,-6.209,5.66,-19.2,-19.31,2.959,12.29,-1.96,-14.56,-11.8,-10.06,0,0,0,0,0,0,0,0,0,0,0,0,0,0,0,0,
370,-36.73,-18.62,-40.3,-26.05,-43.38,-35.88,-15.0,6.332,-37.44,-45.54,12.4,5.207,-3.074,-24.92,1.757,-2.173,0,0,0,0,0,0,0,0,0,0,0,0,0,0,0,0,
371,-45.38,-16.85,-69.32,-31.3,-52.06,-51.72,-50.11,-35.49,-34.39,-60.87,-4.625,-18.99,-15.5,-48.49,0.6386,-11.96,0,0,0,0,0,0,0,0,0,0,0,0,0,0,0,0,
372,-40.0,-23.15,-60.87,-35.44,-39.63,-41.06,-13.8,-24.17,-33.3,-64.93,-2.762,-6.443,-21.43,-47.11,3.756,-9.551,0,0,0,0,0,0,0,0,0,0,0,0,0,0,0,0,
373,-33.5,-33.1,-28.11,-42.51,-35.04,-32.68,7.229,-3.995,-46.44,-58.86,5.878,4.242,-24.62,-35.31,14.12,6.364,0,0,0,0,0,0,0,0,0,0,0,0,0,0,0,0,
374,-31.0,-46.59,-2.177,-28.66,-38.76,-26.88,-15.85,-57.36,-39.08,-34.45,-9.583,-25.44,-37.0,-45.13,-3.897,-6.071,0,0,0,0,0,0,0,0,0,0,0,0,0,0,0,0,
375,-17.59,-21.41,9.342,-3.93,-20.17,-8.031,6.873,-57.02,-11.79,-13.33,-11.47,-31.45,-29.95,-43.06,-26.06,-23.85,0,0,0,0,0,0,0,0,0,0,0,0,0,0,0,0,
376,5.493,24.59,2.92,9.59,2.679,3.42,37.42,19.96,3.228,-11.07,-11.6,-15.17,-13.78,-22.64,-33.38,-23.57,0,0,0,0,0,0,0,0,0,0,0,0,0,0,0,0,
377,15.4,19.53,-10.26,17.3,9.183,4.312,15.37,37.63,4.557,-6.265,-42.03,-18.84,-21.41,-17.26,-52.49,-30.03,0,0,0,0,0,0,0,0,0,0,0,0,0,0,0,0,
378,19.35,7.471,3.336,19.69,11.65,11.88,-8.642,3.267,13.46,0.8655,-50.63,-18.88,-23.44,-13.16,-56.3,-32.22,0,0,0,0,0,0,0,0,0,0,0,0,0,0,0,0,
379,31.34,25.17,42.01,18.22,15.82,17.56,-0.8346,-15.63,32.15,5.44,-24.75,-14.2,-0.8855,7.373,-24.72,-16.45,0,0,0,0,0,0,0,0,0,0,0,0,0,0,0,0,
380,18.11,19.42,25.48,24.37,28.11,16.3,14.22,-10.24,40.72,15.58,-5.68,-7.697,19.37,25.56,-8.644,-4.745,0,0,0,0,0,0,0,0,0,0,0,0,0,0,0,0,
381,-11.43,19.5,-9.621,33.14,36.77,16.55,15.24,21.29,33.7,10.39,11.34,16.75,26.4,29.81,-12.13,7.559,0,0,0,0,0,0,0,0,0,0,0,0,0,0,0,0,
382,-1.228,29.91,42.6,27.89,24.13,18.12,9.784,37.2,31.01,2.285,23.16,17.24,26.58,20.98,4.75,22.62,0,0,0,0,0,0,0,0,0,0,0,0,0,0,0,0,
383,27.6,-10.19,73.24,17.49,16.79,26.65,24.55,17.71,36.24,22.17,24.54,-7.727,29.4,7.607,19.47,14.47,0,0,0,0,0,0,0,0,0,0,0,0,0,0,0,0,
384,34.29,-19.62,15.65,25.38,8.326,30.66,32.24,12.75,19.75,15.01,32.39,-2.373,24.9,-1.437,8.731,-2.466,0,0,0,0,0,0,0,0,0,0,0,0,0,0,0,0,
385,23.41,35.02,-19.52,30.92,-26.16,2.344,-19.83,8.698,-15.26,-32.66,21.63,1.905,-4.793,-18.08,7.704,-5.212,0,0,0,0,0,0,0,0,0,0,0,0,0,0,0,0,
386,-4.604,28.21,-49.07,12.49,-36.75,-26.36,-71.29,-23.8,-22.47,-40.02,-5.201,-19.92,-23.85,-38.23,18.15,-13.65,0,0,0,0,0,0,0,0,0,0,0,0,0,0,0,0,
387,-26.68,-20.09,-86.69,7.168,-22.48,-14.27,-54.89,-35.19,-15.83,-22.37,-3.343,-13.65,-10.23,-34.26,4.919,-24.72,0,0,0,0,0,0,0,0,0,0,0,0,0,0,0,0,
388,-28.61,-15.69,-67.97,16.17,-37.73,-6.229,-36.21,-12.88,-34.55,-34.05,2.534,6.423,-11.63,-21.4,-15.54,-19.28,0,0,0,0,0,0,0,0,0,0,0,0,0,0,0,0,
389,-40.6,-6.892,-58.38,4.49,-45.01,-27.52,-43.22,10.11,-43.51,-39.97,-11.86,-5.52,-33.83,-27.83,-24.61,-18.09,0,0,0,0,0,0,0,0,0,0,0,0,0,0,0,0,
390,-46.16,-26.17,-74.54,1.243,-25.24,-24.61,-30.2,19.37,-30.65,-31.99,-19.07,-17.22,-40.12,-29.06,-46.14,-26.61,0,0,0,0,0,0,0,0,0,0,0,0,0,0,0,0,
391,-23.36,-26.9,-44.65,17.11,-23.72,3.772,-19.53,13.12,-31.73,-28.26,-25.07,-10.26,-38.8,-12.06,-63.93,-24.05,0,0,0,0,0,0,0,0,0,0,0,0,0,0,0,0,
392,-8.664,1.417,-19.84,18.55,-21.57,13.57,-22.51,23.46,-26.9,-11.83,-32.39,-11.63,-34.46,-2.317,-48.42,-17.52,0,0,0,0,0,0,0,0,0,0,0,0,0,0,0,0,
393,-6.331,19.14,-21.36,30.1,-4.588,19.24,-11.08,26.15,-3.334,2.099,-22.57,-18.74,-15.11,5.041,-32.11,-13.26,0,0,0,0,0,0,0,0,0,0,0,0,0,0,0,0,
394,6.803,0.5768,12.29,59.64,3.323,37.97,0.5379,-31.44,11.54,8.097,-15.1,-18.59,-1.057,18.28,-30.9,-4.564,0,0,0,0,0,0,0,0,0,0,0,0,0,0,0,0,
395,22.65,-5.355,31.22,55.12,14.85,45.19,9.334,-37.52,23.17,25.65,-12.08,-13.8,2.351,18.03,-20.89,0.3178,0,0,0,0,0,0,0,0,0,0,0,0,0,0,0,0,
396,26.18,27.94,5.233,23.27,20.9,32.16,23.88,48.76,31.18,25.03,9.502,-2.334,14.31,12.75,-10.78,-0.077,0,0,0,0,0,0,0,0,0,0,0,0,0,0,0,0,
397,13.62,33.63,11.0,15.39,8.791,15.13,32.55,53.71,26.18,10.49,25.48,3.563,22.48,12.83,-6.822,-2.382,0,0,0,0,0,0,0,0,0,0,0,0,0,0,0,0,
398,-0.5146,6.668,6.468,35.5,15.8,13.78,27.07,-6.172,30.89,21.62,16.0,-8.177,18.67,3.515,4.037,-10.55,0,0,0,0,0,0,0,0,0,0,0,0,0,0,0,0,
399,-11.72,-3.612,-48.97,46.95,31.78,23.06,-7.509,9.186,42.12,19.47,9.835,-13.07,24.97,-1.323,8.426,-14.98,0,0,0,0,0,0,0,0,0,0,0,0,0,0,0,0,
400,-22.06,-9.279,-34.53,29.3,14.59,10.62,-31.23,19.04,36.34,-10.92,20.42,-0.6355,34.74,9.297,11.58,-6.37,0,0,0,0,0,0,0,0,0,0,0,0,0,0,0,0,
401,-3.223,-7.13,29.66,8.364,-11.91,-12.64,8.001,-17.05,23.93,-10.06,35.4,11.94,28.01,17.18,39.5,12.72,0,0,0,0,0,0,0,0,0,0,0,0,0,0,0,0,
402,15.86,0.123,29.56,5.25,-12.46,-10.9,40.49,-1.295,15.44,7.621,49.42,32.06,20.31,26.95,63.65,36.65,0,0,0,0,0,0,0,0,0,0,0,0,0,0,0,0,
403,-7.414,-16.36,21.21,8.055,1.617,-5.136,18.02,31.81,9.276,-5.015,52.64,55.48,15.37,36.01,51.08,50.66,0,0,0,0,0,0,0,0,0,0,0,0,0,0,0,0,
404,-10.81,-15.34,21.38,9.023,-0.0408,-16.31,-1.698,29.82,8.076,-17.63,35.37,50.64,-4.551,23.94,27.55,50.76,0,0,0,0,0,0,0,0,0,0,0,0,0,0,0,0,
405,-9.108,-10.93,-8.287,1.497,-21.04,-19.16,-1.834,29.78,-0.4884,-12.12,17.49,29.29,-17.54,13.04,18.02,50.74,0,0,0,0,0,0,0,0,0,0,0,0,0,0,0,0,
406,-58.28,-51.64,-19.17,-7.312,-18.64,-11.69,14.05,13.75,-13.54,-15.04,20.59,18.37,-3.104,16.93,14.72,47.03,0,0,0,0,0,0,0,0,0,0,0,0,0,0,0,0,
407,-42.42,-43.18,-20.45,-1.901,17.08,-14.27,39.41,-18.63,2.45,-24.8,21.36,0.6115,4.113,3.927,2.832,25.61,0,0,0,0,0,0,0,0,0,0,0,0,0,0,0,0,
408,31.57,10.38,-7.052,-11.24,35.98,-17.55,32.49,-17.16,32.15,-31.98,3.817,-28.61,-5.631,-18.47,-14.94,-1.703,0,0,0,0,0,0,0,0,0,0,0,0,0,0,0,0,
409,14.91,-7.726,60.73,-35.19,36.25,-7.349,31.09,-17.2,31.62,-34.03,3.192,-38.69,3.414,-17.87,-10.68,-10.79,0,0,0,0,0,0,0,0,0,0,0,0,0,0,0,0,
410,10.03,-10.09,106.0,-20.01,51.31,7.342,75.79,-39.71,28.32,-13.89,17.77,-29.66,23.56,-8.113,13.28,-5.628,0,0,0,0,0,0,0,0,0,0,0,0,0,0,0,0,
411,88.74,53.84,117.8,14.84,66.96,23.64,90.4,-11.62,54.51,20.93,15.09,-22.17,33.41,1.885,21.41,-2.817,0,0,0,0,0,0,0,0,0,0,0,0,0,0,0,0,
412,99.78,61.23,149.7,19.43,72.35,43.97,64.19,39.82,73.09,41.66,26.43,-6.91,51.39,27.79,22.61,7.76,0,0,0,0,0,0,0,0,0,0,0,0,0,0,0,0,
413,69.97,42.18,144.1,10.68,78.07,50.24,65.65,22.87,67.87,49.46,55.3,20.8,66.38,52.74,33.97,31.53,0,0,0,0,0,0,0,0,0,0,0,0,0,0,0,0,
414,76.31,51.63,107.2,2.648,78.83,40.12,75.45,-5.091,66.71,52.9,49.18,40.92,54.07,61.02,35.66,49.53,0,0,0,0,0,0,0,0,0,0,0,0,0,0,0,0,
415,45.43,24.0,116.1,-12.99,69.37,31.5,67.09,9.31,64.89,45.61,34.57,47.43,42.55,66.21,34.51,61.33,0,0,0,0,0,0,0,0,0,0,0,0,0,0,0,0,
416,19.1,-7.464,129.8,-28.9,45.35,14.48,64.34,-6.499,45.78,36.26,44.42,48.2,42.41,65.75,46.59,74.74,0,0,0,0,0,0,0,0,0,0,0,0,0,0,0,0,
417,39.64,-9.171,81.51,-43.07,20.47,-10.06,62.08,-34.83,31.12,35.56,43.32,49.54,29.22,56.91,53.22,79.46,0,0,0,0,0,0,0,0,0,0,0,0,0,0,0,0,
418,23.16,-26.05,16.81,-57.85,19.0,-19.46,54.0,-15.77,28.27,25.21,36.22,51.34,10.45,46.86,46.73,72.73,0,0,0,0,0,0,0,0,0,0,0,0,0,0,0,0,
419,-2.033,-24.48,28.25,-68.16,14.9,-29.69,45.36,-5.34,9.041,-2.785,30.27,42.54,-2.312,25.13,32.45,60.41,0,0,0,0,0,0,0,0,0,0,0,0,0,0,0,0,
420,18.85,0.3539,88.87,-62.04,-2.583,-43.57,37.69,-13.81,-9.99,-17.93,3.376,24.01,-15.24,-0.4361,10.59,43.35,0,0,0,0,0,0,0,0,0,0,0,0,0,0,0,0,
421,32.21,-5.608,101.0,-37.8,5.982,-29.07,46.03,-4.893,-0.9854,-9.518,-8.557,6.875,-20.97,-10.64,-5.64,23.23,0,0,0,0,0,0,0,0,0,0,0,0,0,0,0,0,
422,17.4,-12.36,82.33,-32.74,21.68,-10.01,54.71,-2.811,-1.078,-6.516,4.064,-8.238,-18.16,-20.75,-10.77,1.456,0,0,0,0,0,0,0,0,0,0,0,0,0,0,0,0,
423,2.514,1.689,71.73,-51.81,17.49,-15.82,46.75,5.306,-10.18,-13.62,-5.877,-21.58,-20.15,-36.43,-17.84,-20.77,0,0,0,0,0,0,0,0,0,0,0,0,0,0,0,0,
424,9.282,8.339,53.14,-35.05,30.01,-7.564,42.85,15.18,10.89,-5.074,-19.15,-34.87,-24.73,-39.18,-28.46,-40.36,0,0,0,0,0,0,0,0,0,0,0,0,0,0,0,0,
425,33.86,15.92,54.59,7.307,46.34,22.48,33.64,-15.31,20.66,17.41,-8.693,-37.67,-21.99,-30.61,-31.66,-46.33,0,0,0,0,0,0,0,0,0,0,0,0,0,0,0,0,
426,45.09,25.52,69.51,12.33,30.41,32.84,27.64,-24.91,1.535,27.71,-3.321,-10.82,-13.91,-18.22,-26.07,-28.79,0,0,0,0,0,0,0,0,0,0,0,0,0,0,0,0,
427,43.76,25.16,45.45,4.027,25.57,31.25,42.54,8.822,8.107,26.33,-3.215,15.54,-4.044,-0.8071,-22.05,-9.1,0,0,0,0,0,0,0,0,0,0,0,0,0,0,0,0,
428,36.27,20.12,16.25,9.818,43.6,38.82,21.54,2.94,26.54,34.83,5.329,6.6,9.192,17.09,-13.7,-3.095,0,0,0,0,0,0,0,0,0,0,0,0,0,0,0,0,
429,17.5,9.309,33.44,-0.2747,37.93,37.97,-0.0955,-13.9,27.36,51.59,13.58,0.3689,27.06,34.51,15.21,15.57,0,0,0,0,0,0,0,0,0,0,0,0,0,0,0,0,
430,14.32,10.32,67.81,-16.9,31.0,28.56,51.13,9.995,33.56,58.25,25.88,23.47,47.52,51.34,43.1,43.78,0,0,0,0,0,0,0,0,0,0,0,0,0,0,0,0,
431,21.28,22.55,76.88,-28.3,43.97,16.8,63.68,7.472,34.43,47.97,32.12,32.04,53.3,51.3,40.11,44.17,0,0,0,0,0,0,0,0,0,0,0,0,0,0,0,0,
432,15.95,3.603,62.39,-47.59,30.29,-7.839,16.66,-19.14,18.7,25.6,12.36,9.294,31.4,27.59,23.16,27.48,0,0,0,0,0,0,0,0,0,0,0,0,0,0,0,0,
433,25.15,-19.49,44.76,-51.23,6.969,-24.2,40.52,-7.893,9.447,5.159,-10.19,-2.175,8.416,6.474,11.53,18.33,0,0,0,0,0,0,0,0,0,0,0,0,0,0,0,0,
434,39.89,-4.372,48.52,-39.12,20.22,-16.66,73.63,-0.8014,3.374,-0.5244,-11.97,9.242,7.324,4.57,2.851,9.917,0,0,0,0,0,0,0,0,0,0,0,0,0,0,0,0,
435,27.53,1.067,72.08,-38.34,33.49,-11.14,48.27,-13.8,3.053,9.298,-7.7,10.37,7.808,2.92,-1.52,1.605,0,0,0,0,0,0,0,0,0,0,0,0,0,0,0,0,
436,13.61,-10.05,46.06,-33.46,28.2,-14.81,45.22,-4.851,16.37,21.39,-17.52,-0.4368,-8.242,-6.922,-15.47,-7.804,0,0,0,0,0,0,0,0,0,0,0,0,0,0,0,0,
437,11.15,3.485,-13.39,-26.96,28.32,-23.62,35.19,-0.8948,10.87,15.69,-39.88,-0.2798,-30.71,-11.9,-39.03,-20.58,0,0,0,0,0,0,0,0,0,0,0,0,0,0,0,0,
438,-1.312,3.091,18.77,-39.61,18.64,-38.85,2.341,-1.182,-10.23,2.714,-41.44,6.41,-34.99,-10.9,-32.63,-20.89,0,0,0,0,0,0,0,0,0,0,0,0,0,0,0,0,
439,-15.6,-33.64,75.82,-48.83,-7.371,-41.06,27.84,2.734,-13.24,4.06,-10.38,9.006,-11.81,-6.868,0.2365,-10.64,0,0,0,0,0,0,0,0,0,0,0,0,0,0,0,0,
440,-12.1,-52.56,37.9,-40.51,-24.96,-31.34,48.21,-44.15,-19.02,3.302,11.68,7.147,10.24,2.29,22.6,1.361,0,0,0,0,0,0,0,0,0,0,0,0,0,0,0,0,
441,-3.188,-34.07,15.5,-29.26,-17.32,-27.71,7.393,-71.08,-28.58,2.41,16.36,1.064,18.0,10.24,37.66,16.66,0,0,0,0,0,0,0,0,0,0,0,0,0,0,0,0,
442,-8.087,-6.644,30.94,-24.71,5.875,-21.31,3.455,-3.838,-15.4,15.72,30.69,3.501,28.71,13.65,45.85,18.7,0,0,0,0,0,0,0,0,0,0,0,0,0,0,0,0,
443,-4.79,2.443,-4.162,-29.0,-0.5126,-16.7,35.4,30.7,-14.81,10.64,35.34,9.536,28.27,11.98,39.36,9.131,0,0,0,0,0,0,0,0,0,0,0,0,0,0,0,0,
444,19.46,-3.263,-3.47,-27.15,-28.5,-24.1,15.01,-5.012,-31.04,-5.466,12.93,-9.316,7.191,-3.12,32.18,5.1,0,0,0,0,0,0,0,0,0,0,0,0,0,0,0,0,
445,22.99,5.936,33.56,-11.97,-17.22,-23.59,-19.26,-10.01,-18.08,3.469,-2.41,-29.76,-0.6899,-18.98,22.9,-5.481,0,0,0,0,0,0,0,0,0,0,0,0,0,0,0,0,
446,4.784,17.8,7.3,-8.934,1.201,-17.11,-3.938,1.135,-6.157,4.3,6.419,-17.27,3.31,-18.03,11.07,-17.29,0,0,0,0,0,0,0,0,0,0,0,0,0,0,0,0,
447,-0.7839,4.806,-9.114,-24.63,-19.85,-22.18,18.01,-5.09,-27.93,-11.02,13.76,-9.864,-13.42,-21.55,7.553,-16.88,0,0,0,0,0,0,0,0,0,0,0,0,0,0,0,0,
448,-1.355,-0.8257,11.58,-29.26,-25.19,-22.74,11.75,-4.492,-43.19,-6.488,6.308,-20.12,-31.85,-32.12,2.169,-19.72,0,0,0,0,0,0,0,0,0,0,0,0,0,0,0,0,
449,9.709,13.46,10.72,-20.0,-3.392,-16.01,5.499,-3.1,-35.59,-0.3442,-6.297,-10.12,-29.13,-24.55,-8.814,-21.16,0,0,0,0,0,0,0,0,0,0,0,0,0,0,0,0,
450,19.55,-0.5189,17.69,-21.91,-8.646,-22.71,11.51,4.464,-29.66,-9.999,-17.81,2.923,-28.72,-15.85,-15.37,-11.23,0,0,0,0,0,0,0,0,0,0,0,0,0,0,0,0,
451,-11.24,-31.55,28.64,-24.72,-18.22,-28.15,25.49,20.83,-33.42,-20.06,-10.74,8.646,-24.8,-9.23,-3.692,3.753,0,0,0,0,0,0,0,0,0,0,0,0,0,0,0,0,
452,-18.37,-19.9,31.98,-17.06,2.052,-18.28,30.86,3.713,-24.77,-20.78,16.05,27.61,-0.5309,14.5,28.8,25.24,0,0,0,0,0,0,0,0,0,0,0,0,0,0,0,0,
453,20.2,5.734,34.8,-23.26,9.011,-20.33,5.541,-38.76,0.6738,-3.934,18.03,27.42,5.663,17.78,38.34,36.22,0,0,0,0,0,0,0,0,0,0,0,0,0,0,0,0,
454,3.428,-7.894,-7.978,-34.38,-8.855,-35.87,-11.16,-35.76,1.569,4.945,3.15,8.594,-9.986,-4.418,19.84,28.32,0,0,0,0,0,0,0,0,0,0,0,0,0,0,0,0,
455,-34.94,-24.95,-42.25,-33.26,-7.955,-35.56,12.24,0.6134,-17.66,-13.0,23.9,9.643,-3.91,-4.213,34.57,28.35,0,0,0,0,0,0,0,0,0,0,0,0,0,0,0,0,
456,-11.4,-17.52,1.408,-38.6,4.089,-25.99,31.73,-12.23,-12.9,-15.21,52.15,7.994,13.68,3.522,65.99,37.06,0,0,0,0,0,0,0,0,0,0,0,0,0,0,0,0,
457,10.99,-8.025,35.82,-37.56,-2.073,-24.33,28.47,-40.89,-3.746,1.581,52.53,2.059,22.13,-0.2289,56.68,34.57,0,0,0,0,0,0,0,0,0,0,0,0,0,0,0,0,
458,7.048,-2.528,18.0,-23.39,-12.31,-19.48,18.13,-12.77,-9.945,-0.7947,46.63,6.255,24.13,-2.811,30.35,16.31,0,0,0,0,0,0,0,0,0,0,0,0,0,0,0,0,
459,8.205,-11.52,10.66,-22.64,-10.88,-4.886,-0.3833,12.8,-11.81,-4.87,30.13,-9.165,9.997,-16.32,14.66,-9.444,0,0,0,0,0,0,0,0,0,0,0,0,0,0,0,0,
460,-2.353,-19.0,26.13,-14.09,2.988,8.772,-19.05,2.798,-9.611,4.895,5.336,-21.58,-2.24,-21.93,0.0114,-20.66,0,0,0,0,0,0,0,0,0,0,0,0,0,0,0,0,
461,-5.746,10.17,13.58,8.105,14.84,12.95,-26.97,17.0,-3.81,6.33,-5.357,-5.86,1.109,0.2898,-8.709,-13.8,0,0,0,0,0,0,0,0,0,0,0,0,0,0,0,0,
462,3.097,20.3,-39.92,9.138,5.371,12.77,-24.32,37.84,-1.127,4.303,-22.07,2.331,-7.937,13.82,-12.39,-2.752,0,0,0,0,0,0,0,0,0,0,0,0,0,0,0,0,
463,-8.493,-15.72,-52.92,4.492,-4.511,14.68,-22.85,17.02,-9.348,12.16,-44.23,12.58,-17.93,16.96,-19.69,12.17,0,0,0,0,0,0,0,0,0,0,0,0,0,0,0,0,
464,-10.11,-19.71,-8.483,5.37,-4.293,8.872,-28.85,-23.24,-3.676,16.63,-42.75,30.7,-7.223,26.64,-20.45,20.94,0,0,0,0,0,0,0,0,0,0,0,0,0,0,0,0,
465,6.079,2.756,0.5498,-1.393,-9.83,-0.0369,-21.13,-35.65,7.218,8.487,-31.82,23.87,-0.4326,24.75,-13.35,19.63,0,0,0,0,0,0,0,0,0,0,0,0,0,0,0,0,
466,0.8155,-3.695,-19.61,-4.444,0.2884,3.74,-5.838,7.019,1.481,-5.013,-21.57,24.29,1.65,24.14,-6.394,29.76,0,0,0,0,0,0,0,0,0,0,0,0,0,0,0,0,
467,-12.57,-15.93,-12.66,-12.63,14.52,2.036,2.382,43.72,3.112,-11.24,-1.947,45.44,12.27,35.81,8.967,45.54,0,0,0,0,0,0,0,0,0,0,0,0,0,0,0,0,
468,-16.23,-22.28,4.667,-24.35,-2.675,-9.882,24.89,10.32,7.057,-3.581,13.87,37.82,18.25,30.25,27.85,44.6,0,0,0,0,0,0,0,0,0,0,0,0,0,0,0,0,
469,-18.69,-32.83,18.08,-19.08,-10.13,-9.812,29.29,-14.83,-4.089,-2.774,19.94,19.27,20.31,11.48,29.58,34.36,0,0,0,0,0,0,0,0,0,0,0,0,0,0,0,0,
470,-24.88,-38.07,12.22,-23.3,0.8059,-12.29,-1.599,-2.197,-5.59,-27.44,26.17,23.03,19.15,-0.141,22.55,24.55,0,0,0,0,0,0,0,0,0,0,0,0,0,0,0,0,
471,-35.89,-39.66,0.909,-33.44,-11.49,-21.7,13.44,-21.71,1.86,-42.22,34.97,17.08,8.571,-11.74,21.35,9.875,0,0,0,0,0,0,0,0,0,0,0,0,0,0,0,0,
472,-21.53,-28.4,30.09,-16.23,-11.82,-11.72,55.94,-19.72,2.449,-19.62,44.59,-2.384,8.822,-19.74,20.22,-7.193,0,0,0,0,0,0,0,0,0,0,0,0,0,0,0,0,
473,21.52,-2.831,54.26,-3.57,13.97,0.4924,38.25,18.48,8.061,-2.971,42.3,-9.154,19.13,-18.98,17.36,-18.87,0,0,0,0,0,0,0,0,0,0,0,0,0,0,0,0,
474,37.11,12.46,35.81,-8.024,14.12,-3.973,13.24,-5.872,13.8,-15.16,24.27,-10.82,11.94,-20.47,6.022,-24.98,0,0,0,0,0,0,0,0,0,0,0,0,0,0,0,0,
475,25.13,13.59,18.38,-2.199,2.864,-5.071,22.09,-31.66,8.743,-19.62,8.066,-11.75,-0.5563,-19.21,-15.05,-24.85,0,0,0,0,0,0,0,0,0,0,0,0,0,0,0,0,
476,16.87,7.376,-1.925,-0.0408,11.77,-1.135,8.635,-1.759,2.572,-12.19,-5.822,-1.497,0.9413,-5.28,-20.75,-12.2,0,0,0,0,0,0,0,0,0,0,0,0,0,0,0,0,
477,-5.896,0.8369,-24.58,-2.113,9.732,-0.4722,-9.163,-3.411,-9.313,-12.9,-20.48,12.08,3.428,10.45,-9.817,11.14,0,0,0,0,0,0,0,0,0,0,0,0,0,0,0,0,
478,-27.0,-6.567,-13.73,4.908,-8.204,1.786,-5.575,-8.052,-25.33,-6.537,-25.83,16.73,3.846,16.7,-5.782,28.88,0,0,0,0,0,0,0,0,0,0,0,0,0,0,0,0,
479,-15.64,-25.41,-9.383,0.5186,-4.077,1.135,-19.64,25.34,-17.17,9.898,-31.38,12.82,5.36,14.27,-10.9,27.96,0,0,0,0,0,0,0,0,0,0,0,0,0,0,0,0,
480,-4.462,-23.13,-26.32,-5.282,10.4,-4.027,-20.77,26.61,0.4349,13.15,-32.04,13.98,6.148,13.41,-13.4,22.94,0,0,0,0,0,0,0,0,0,0,0,0,0,0,0,0,
481,-6.467,3.875,-1.139,2.75,-1.843,-5.116,13.98,14.05,-9.515,9.38,-8.387,30.12,16.72,24.42,-2.299,33.61,0,0,0,0,0,0,0,0,0,0,0,0,0,0,0,0,
482,-6.159,-8.457,18.61,-4.71,-14.76,-4.32,4.156,26.62,-15.85,10.88,3.639,41.12,24.73,30.8,9.906,41.68,0,0,0,0,0,0,0,0,0,0,0,0,0,0,0,0,
483,-12.44,-31.98,-28.99,-21.21,-3.692,-11.38,-36.43,29.07,5.278,6.632,-9.011,30.16,15.76,17.11,7.993,30.61,0,0,0,0,0,0,0,0,0,0,0,0,0,0,0,0,
484,-7.408,-6.601,-25.36,-20.48,-2.409,-18.34,-3.021,19.77,11.2,5.434,10.01,16.14,25.02,9.784,17.27,18.82,0,0,0,0,0,0,0,0,0,0,0,0,0,0,0,0,
485,8.304,1.599,38.18,-18.54,-5.11,-8.322,57.1,8.926,0.0076,15.85,42.89,12.42,51.3,15.14,28.63,4.776,0,0,0,0,0,0,0,0,0,0,0,0,0,0,0,0,
486,-17.96,-33.09,-3.198,-12.48,13.54,5.692,37.48,-13.34,6.409,14.59,27.03,9.57,43.96,3.406,8.178,-19.41,0,0,0,0,0,0,0,0,0,0,0,0,0,0,0,0,
487,-55.52,-30.46,-67.8,6.203,10.07,4.763,-13.69,-37.4,17.54,9.195,0.6598,2.102,22.54,-13.56,-1.961,-30.36,0,0,0,0,0,0,0,0,0,0,0,0,0,0,0,0,
488,-36.75,-0.0534,-19.21,5.69,-27.49,-1.855,-16.22,-20.46,13.17,16.95,6.99,-2.976,24.14,-14.97,12.95,-25.83,0,0,0,0,0,0,0,0,0,0,0,0,0,0,0,0,
489,-8.823,-3.998,-5.756,-9.459,-48.97,-13.35,-1.561,38.03,-4.455,2.345,4.878,-1.812,18.44,-20.16,1.722,-22.57,0,0,0,0,0,0,0,0,0,0,0,0,0,0,0,0,
490,-19.3,-16.57,-62.12,-3.339,-51.19,-24.69,-25.18,38.31,-26.88,-31.3,-22.94,-6.571,0.267,-28.62,-18.29,-19.48,0,0,0,0,0,0,0,0,0,0,0,0,0,0,0,0,
491,-26.56,-10.41,-54.92,15.38,-48.96,-11.87,-69.54,-8.275,-33.11,-32.29,-40.89,-13.6,-1.276,-24.95,-18.73,-16.27,0,0,0,0,0,0,0,0,0,0,0,0,0,0,0,0,
492,-21.73,-6.96,-45.0,24.93,-38.66,2.016,-72.97,14.09,-22.47,-22.21,-39.95,-9.234,-3.479,-22.07,-22.45,-9.751,0,0,0,0,0,0,0,0,0,0,0,0,0,0,0,0,
493,-27.83,-3.057,-71.03,18.47,-40.12,-11.05,-37.6,35.8,-25.53,-36.85,-40.57,-15.06,-19.34,-24.4,-22.73,-2.154,0,0,0,0,0,0,0,0,0,0,0,0,0,0,0,0,
494,-26.77,5.612,-58.64,6.956,-46.56,-13.54,-27.25,0.1027,-41.36,-42.57,-46.41,-28.94,-22.36,-19.17,-18.91,-7.915,0,0,0,0,0,0,0,0,0,0,0,0,0,0,0,0,
495,-25.11,1.335,-79.16,17.49,-25.29,4.543,-41.57,7.551,-31.29,-23.44,-50.07,-21.6,-17.62,-11.43,-34.88,-17.57,0,0,0,0,0,0,0,0,0,0,0,0,0,0,0,0,
496,-39.55,-4.695,-136.4,33.78,-7.34,5.179,-43.07,34.87,-2.081,-7.001,-54.82,-21.69,-29.92,-16.69,-53.58,-25.87,0,0,0,0,0,0,0,0,0,0,0,0,0,0,0,0,
497,-27.82,-1.169,-85.63,25.11,-27.63,-0.8659,-39.2,25.41,-5.966,-8.078,-49.8,-35.84,-35.59,-28.97,-53.81,-42.46,0,0,0,0,0,0,0,0,0,0,0,0,0,0,0,0,
498,-4.848,-6.685,5.917,13.17,-45.11,6.118,-34.4,6.947,-28.35,-17.83,-24.25,-24.77,-12.6,-28.91,-45.13,-51.46,0,0,0,0,0,0,0,0,0,0,0,0,0,0,0,0,
499,-33.11,-19.72,-11.3,11.0,-35.77,1.762,-28.89,-19.58,-17.67,-17.99,-9.056,-16.67,0.4842,-25.54,-43.6,-52.53,0,0,0,0,0,0,0,0,0,0,0,0,0,0,0,0,
500,-53.22,-24.72,-56.73,6.777,-36.07,-15.76,-23.97,1.561,-6.867,-18.51,-16.54,-26.47,-17.2,-34.17,-51.15,-59.22,0,0,0,0,0,0,0,0,0,0,0,0,0,0,0,0,
501,-24.77,-22.8,-48.91,3.255,-45.89,-22.22,-11.72,53.55,-25.76,-34.04,-20.92,-18.85,-30.51,-37.31,-48.95,-56.61,0,0,0,0,0,0,0,0,0,0,0,0,0,0,0,0,
502,-28.41,-16.38,-45.89,-1.735,-31.05,-13.04,-22.54,19.01,-26.81,-33.5,-25.24,-17.56,-24.27,-27.87,-38.0,-47.31,0,0,0,0,0,0,0,0,0,0,0,0,0,0,0,0,
503,-46.67,-12.6,-52.17,1.279,-9.836,4.639,-50.44,-11.33,-9.679,-13.8,-26.53,-20.09,-8.2,-14.35,-29.72,-32.27,0,0,0,0,0,0,0,0,0,0,0,0,0,0,0,0,
504,-24.77,-15.45,-55.43,19.44,-9.644,9.785,-45.97,28.12,-7.352,-12.49,-13.63,12.37,9.248,6.203,-13.96,5.886,0,0,0,0,0,0,0,0,0,0,0,0,0,0,0,0,
505,-23.47,-11.76,-80.83,23.19,-9.125,-5.234,-37.27,7.781,-0.2529,-15.79,-17.45,29.41,7.323,17.41,-6.599,30.56,0,0,0,0,0,0,0,0,0,0,0,0,0,0,0,0,
506,-37.16,-1.386,-73.52,14.75,-1.916,-5.713,-33.3,-24.23,6.594,-6.78,-30.4,12.69,-5.386,10.99,-17.96,19.32,0,0,0,0,0,0,0,0,0,0,0,0,0,0,0,0,
507,-8.331,5.997,-15.4,17.08,-11.3,6.316,-12.35,9.281,-7.183,-10.92,-22.56,9.405,-3.876,5.115,-19.62,10.19,0,0,0,0,0,0,0,0,0,0,0,0,0,0,0,0,
508,7.433,5.859,-10.73,12.03,-32.7,-9.617,-28.16,6.129,-16.81,-26.97,-26.61,-11.92,-10.87,-13.13,-23.06,-4.157,0,0,0,0,0,0,0,0,0,0,0,0,0,0,0,0,
509,-19.76,-9.868,-49.63,4.989,-40.76,-27.3,-52.36,-12.74,-26.55,-40.23,-39.84,-48.77,-28.65,-39.57,-40.95,-30.95,0,0,0,0,0,0,0,0,0,0,0,0,0,0,0,0,
510,-27.61,-21.47,-26.33,16.85,-28.31,-12.25,-18.08,19.5,-43.49,-48.79,-29.15,-30.87,-18.64,-34.37,-39.98,-29.31,0,0,0,0,0,0,0,0,0,0,0,0,0,0,0,0,
511,-9.018,-7.517,-4.21,21.25,-16.61,-4.215,-3.466,33.95,-29.45,-40.85,-26.84,-8.859,-2.645,-27.01,-32.88,-24.5,0,0,0,0,0,0,0,0,0,0,0,0,0,0,0,0,
512,-11.77,-1.925,-60.17,10.75,-18.45,-16.15,-26.7,24.23,-4.301,-24.85,-37.41,-41.09,-17.58,-53.34,-49.5,-57.19,0,0,0,0,0,0,0,0,0,0,0,0,0,0,0,0,
513,-34.7,-17.27,-78.49,8.085,-16.01,-13.55,-16.12,29.3,-15.4,-25.76,-27.21,-52.8,-29.57,-63.22,-60.38,-78.99,0,0,0,0,0,0,0,0,0,0,0,0,0,0,0,0,
514,-30.71,-14.24,-25.74,9.034,-15.86,-9.412,-8.6,20.67,-32.08,-38.98,-14.33,-26.07,-13.73,-39.8,-46.03,-59.64,0,0,0,0,0,0,0,0,0,0,0,0,0,0,0,0,
515,1.211,3.382,-11.33,7.174,-32.19,-21.29,-20.78,4.442,-23.12,-39.76,-7.665,-20.02,0.2967,-26.41,-22.43,-34.15,0,0,0,0,0,0,0,0,0,0,0,0,0,0,0,0,
516,4.945,2.078,-8.517,3.281,-31.89,-24.27,-8.104,7.984,-12.95,-23.95,7.459,-14.27,1.379,-20.84,1.603,-14.48,0,0,0,0,0,0,0,0,0,0,0,0,0,0,0,0,
517,-29.19,-15.8,8.039,-3.781,-16.45,-21.11,-5.82,-5.84,-21.85,-21.02,9.551,6.409,1.665,-7.767,10.48,4.235,0,0,0,0,0,0,0,0,0,0,0,0,0,0,0,0,
518,-45.46,-25.57,-28.08,-2.081,-26.59,-26.57,-28.19,-50.43,-34.15,-28.74,-8.081,5.005,-6.899,-1.37,-3.401,12.25,0,0,0,0,0,0,0,0,0,0,0,0,0,0,0,0,
519,-17.86,-10.9,-46.84,7.536,-37.52,-21.86,-23.59,-47.6,-29.71,-11.13,-9.996,5.804,-17.12,2.823,-10.07,17.74,0,0,0,0,0,0,0,0,0,0,0,0,0,0,0,0,
520,7.542,4.513,-28.64,13.89,-20.6,-9.966,-3.534,15.61,-25.24,0.5637,10.51,28.16,-5.126,14.0,1.949,30.72,0,0,0,0,0,0,0,0,0,0,0,0,0,0,0,0,
521,-10.38,-4.395,-60.85,18.26,-4.381,-6.29,-5.354,29.64,-26.64,-17.42,19.6,24.01,8.876,19.44,10.97,34.58,0,0,0,0,0,0,0,0,0,0,0,0,0,0,0,0,
522,-25.57,-2.867,-47.33,13.96,6.071,4.436,-11.32,-12.65,-9.75,-9.034,18.56,4.181,12.7,21.27,25.72,29.79,0,0,0,0,0,0,0,0,0,0,0,0,0,0,0,0,
523,-0.0228,15.92,23.53,4.46,17.02,12.06,-7.151,-16.77,0.6822,9.873,35.39,13.31,34.29,27.85,48.72,32.15,0,0,0,0,0,0,0,0,0,0,0,0,0,0,0,0,
524,11.99,6.606,7.445,6.229,8.9,-6.61,-7.834,-2.377,-9.757,-11.71,43.86,17.2,49.9,21.22,42.97,26.65,0,0,0,0,0,0,0,0,0,0,0,0,0,0,0,0,
525,1.772,-7.233,-5.949,9.563,1.588,-18.49,-6.264,-16.92,5.793,-22.47,23.23,-4.154,33.09,-0.624,20.84,7.32,0,0,0,0,0,0,0,0,0,0,0,0,0,0,0,0,
526,13.59,7.649,24.19,13.15,21.26,-1.045,12.91,-21.75,28.68,-5.561,14.02,-11.76,24.41,-12.6,15.29,-10.09,0,0,0,0,0,0,0,0,0,0,0,0,0,0,0,0,
527,11.77,5.324,-26.36,27.0,27.28,8.489,25.34,-6.882,8.555,-13.44,15.08,-12.36,21.69,-19.56,3.882,-31.41,0,0,0,0,0,0,0,0,0,0,0,0,0,0,0,0,
528,-13.05,-11.27,-39.5,32.79,9.704,2.241,5.815,-1.17,-15.45,-25.9,-2.536,-22.26,0.993,-28.8,-8.448,-44.91,0,0,0,0,0,0,0,0,0,0,0,0,0,0,0,0,
529,2.124,12.49,39.49,30.99,17.67,10.34,-10.06,-3.539,-7.007,-11.99,-11.16,-14.19,-4.292,-18.89,-2.732,-32.85,0,0,0,0,0,0,0,0,0,0,0,0,0,0,0,0,
530,25.05,34.91,17.58,33.94,25.85,16.31,7.704,1.615,-1.289,-2.409,-3.924,1.241,-2.979,-3.198,-10.22,-21.18,0,0,0,0,0,0,0,0,0,0,0,0,0,0,0,0,
531,1.117,6.986,-55.92,26.61,-3.735,-0.5243,4.717,22.81,-15.48,-2.914,-11.3,-0.2881,-22.91,-4.093,-17.18,-8.427,0,0,0,0,0,0,0,0,0,0,0,0,0,0,0,0,
532,-16.72,-7.117,-22.17,21.77,-13.04,-4.177,-38.71,35.62,-23.49,2.708,-20.13,2.485,-29.0,0.9207,1.079,16.79,0,0,0,0,0,0,0,0,0,0,0,0,0,0,0,0,
533,-7.978,16.34,21.95,31.9,5.554,9.652,-41.85,18.88,-24.68,-4.673,-12.63,9.813,-21.83,10.61,0.1129,18.48,0,0,0,0,0,0,0,0,0,0,0,0,0,0,0,0,
534,-11.35,9.646,-13.69,28.15,-2.678,3.678,1.397,13.46,-34.56,-21.66,-2.893,7.316,-25.17,3.711,-14.31,6.93,0,0,0,0,0,0,0,0,0,0,0,0,0,0,0,0,
535,-8.008,-10.45,-43.89,18.4,-7.115,-4.346,8.874,21.85,-32.97,-13.89,4.566,6.934,-12.96,-2.62,-3.982,11.68,0,0,0,0,0,0,0,0,0,0,0,0,0,0,0,0,
536,13.11,8.022,-20.87,23.89,13.33,6.621,-15.52,-3.116,-15.96,-2.754,8.892,3.967,9.441,2.511,6.509,9.678,0,0,0,0,0,0,0,0,0,0,0,0,0,0,0,0,
537,14.26,15.65,-5.751,26.99,18.98,14.31,-17.89,-14.36,-5.774,-7.664,8.456,-0.1584,20.79,14.0,22.3,12.69,0,0,0,0,0,0,0,0,0,0,0,0,0,0,0,0,
538,-3.793,-3.214,-19.66,26.63,21.16,19.99,-2.852,16.36,12.6,11.05,16.08,8.077,36.56,27.62,53.79,26.9,0,0,0,0,0,0,0,0,0,0,0,0,0,0,0,0,
539,-11.02,9.125,-21.48,28.6,27.55,26.22,6.97,18.16,32.69,33.42,26.54,3.521,41.83,22.53,46.41,8.294,0,0,0,0,0,0,0,0,0,0,0,0,0,0,0,0,
540,6.692,34.73,-6.735,25.26,14.1,19.67,7.608,14.3,19.73,15.85,18.55,-17.41,23.03,3.344,6.762,-19.75,0,0,0,0,0,0,0,0,0,0,0,0,0,0,0,0,
541,29.73,31.78,17.02,23.71,-1.187,11.51,-6.731,26.94,1.538,1.389,-0.093,-21.0,9.101,-4.682,-6.522,-21.77,0,0,0,0,0,0,0,0,0,0,0,0,0,0,0,0,
542,9.423,16.71,14.38,22.08,-7.457,4.42,-31.72,-5.225,1.952,2.382,-10.02,-11.0,2.005,-7.954,-4.479,-22.92,0,0,0,0,0,0,0,0,0,0,0,0,0,0,0,0,
543,-28.7,0.2272,-52.26,14.4,-13.56,-4.846,-31.97,-10.79,-4.023,-15.2,-14.21,-5.863,-7.934,-9.685,-7.708,-15.45,0,0,0,0,0,0,0,0,0,0,0,0,0,0,0,0,
544,-18.07,-12.99,-71.38,8.735,-12.27,-4.82,-7.41,32.91,-11.16,-25.34,-19.67,-9.152,-10.4,-7.118,-6.225,2.293,0,0,0,0,0,0,0,0,0,0,0,0,0,0,0,0,
545,-6.326,-15.43,4.083,-0.4088,-16.15,-8.181,-7.49,3.677,-11.25,-19.49,-23.51,-14.75,-13.41,-12.66,-9.267,-3.509,0,0,0,0,0,0,0,0,0,0,0,0,0,0,0,0,
546,-33.55,-18.95,2.419,-19.47,-31.81,-26.0,-16.62,-27.45,-23.65,-28.64,-27.46,-9.735,-25.89,-19.56,-20.83,-11.64,0,0,0,0,0,0,0,0,0,0,0,0,0,0,0,0,
547,-35.74,-22.99,-67.27,-37.1,-41.0,-41.48,-6.039,15.42,-40.96,-39.57,-31.15,-9.835,-33.52,-22.54,-24.26,-5.883,0,0,0,0,0,0,0,0,0,0,0,0,0,0,0,0,
548,-23.7,-24.63,-38.97,-37.61,-44.45,-44.26,-9.874,18.42,-41.55,-37.63,-20.9,-19.41,-26.34,-29.42,-16.29,-12.99,0,0,0,0,0,0,0,0,0,0,0,0,0,0,0,0,
549,-41.38,-29.95,4.494,-23.29,-44.61,-39.23,-10.79,-3.388,-30.77,-33.09,-4.958,-12.98,-16.19,-30.63,-12.32,-19.32,0,0,0,0,0,0,0,0,0,0,0,0,0,0,0,0,
550,-42.81,-30.69,-33.37,-20.41,-42.22,-42.27,0.4815,-0.1906,-25.93,-25.3,-8.425,-9.679,-15.3,-26.86,-17.8,-12.72,0,0,0,0,0,0,0,0,0,0,0,0,0,0,0,0,
551,-22.98,-24.64,-40.22,-21.78,-41.27,-44.41,-16.6,-17.49,-25.49,-15.58,-9.454,-17.73,-5.626,-20.98,-7.89,-12.74,0,0,0,0,0,0,0,0,0,0,0,0,0,0,0,0,
552,-15.6,-13.35,-8.198,2.362,-18.68,-15.5,-7.428,-11.36,-13.13,-5.339,17.98,-2.419,24.61,2.951,27.65,-5.678,0,0,0,0,0,0,0,0,0,0,0,0,0,0,0,0,
553,-4.167,2.063,-13.76,22.85,18.09,16.45,27.63,9.644,7.31,11.49,38.7,16.9,47.69,29.06,54.78,13.02,0,0,0,0,0,0,0,0,0,0,0,0,0,0,0,0,
554,12.92,14.99,1.266,19.18,22.74,18.75,-0.2147,-8.363,21.04,29.75,37.31,15.62,52.08,31.29,57.76,12.89,0,0,0,0,0,0,0,0,0,0,0,0,0,0,0,0,
555,25.26,32.68,30.17,27.36,14.2,23.3,-18.44,3.7,30.97,36.62,45.48,17.19,53.8,29.44,57.45,8.196,0,0,0,0,0,0,0,0,0,0,0,0,0,0,0,0,
556,23.18,27.95,-4.471,37.87,24.19,33.23,18.07,30.53,36.3,31.28,51.35,22.0,50.52,36.45,54.21,23.33,0,0,0,0,0,0,0,0,0,0,0,0,0,0,0,0,
557,-4.901,-17.58,-24.1,20.97,19.33,22.94,9.768,16.83,26.0,26.15,27.68,23.04,35.64,29.95,28.7,25.32,0,0,0,0,0,0,0,0,0,0,0,0,0,0,0,0,
558,-13.2,-21.12,-4.256,9.958,1.047,14.44,-11.81,20.38,7.51,21.16,4.636,21.99,21.14,12.8,-3.583,9.122,0,0,0,0,0,0,0,0,0,0,0,0,0,0,0,0,
559,13.91,31.54,-26.49,22.13,6.428,20.18,1.122,17.11,1.783,12.24,1.194,5.845,14.89,9.62,-8.87,13.26,0,0,0,0,0,0,0,0,0,0,0,0,0,0,0,0,
560,15.94,39.64,-17.96,23.08,19.88,20.74,-15.4,-16.74,9.937,16.02,-9.177,-7.399,9.885,14.61,-6.566,19.44,0,0,0,0,0,0,0,0,0,0,0,0,0,0,0,0,
561,-4.482,8.98,28.13,11.06,24.89,19.22,-28.97,1.463,12.08,26.22,-15.85,5.936,9.961,19.4,-22.78,6.733,0,0,0,0,0,0,0,0,0,0,0,0,0,0,0,0,
562,-1.183,3.781,4.12,10.61,28.05,21.95,0.0118,38.87,7.532,22.57,0.2992,19.29,20.93,30.64,-22.23,9.127,0,0,0,0,0,0,0,0,0,0,0,0,0,0,0,0,
563,18.84,11.79,8.62,9.204,26.17,18.02,11.48,26.61,17.38,23.95,1.355,12.2,20.48,31.55,-4.648,17.28,0,0,0,0,0,0,0,0,0,0,0,0,0,0,0,0,
564,29.01,14.72,69.52,-5.473,26.13,8.606,8.558,2.947,33.45,28.09,-8.677,2.087,10.63,21.3,-7.287,7.487,0,0,0,0,0,0,0,0,0,0,0,0,0,0,0,0,
565,18.74,6.326,42.33,-11.79,23.83,3.069,21.78,-19.9,29.91,10.12,18.49,6.972,25.46,29.77,6.492,14.95,0,0,0,0,0,0,0,0,0,0,0,0,0,0,0,0,
566,5.768,-4.758,16.65,-11.14,17.18,-0.7605,32.59,-38.17,21.61,-2.698,49.04,23.42,45.32,42.0,47.46,35.52,0,0,0,0,0,0,0,0,0,0,0,0,0,0,0,0,
567,17.21,1.391,75.12,-26.73,26.89,-4.13,46.87,-27.06,33.55,3.357,44.07,25.49,37.0,31.93,50.2,26.04,0,0,0,0,0,0,0,0,0,0,0,0,0,0,0,0,
568,32.86,-3.802,69.87,-40.15,31.09,-2.1,57.31,-9.611,41.93,0.5916,35.7,5.249,21.12,19.52,28.05,2.818,0,0,0,0,0,0,0,0,0,0,0,0,0,0,0,0,
569,12.38,-18.47,18.51,-22.23,24.37,5.195,33.15,-1.583,26.95,-0.7105,32.78,-4.976,17.83,18.28,34.94,-3.613,0,0,0,0,0,0,0,0,0,0,0,0,0,0,0,0,
570,-9.991,6.806,45.77,8.127,46.54,16.24,15.97,-13.8,26.4,12.95,32.4,4.657,27.63,23.09,47.06,2.444,0,0,0,0,0,0,0,0,0,0,0,0,0,0,0,0,
571,28.14,39.99,89.31,20.63,59.68,25.93,54.4,-39.73,49.95,20.73,42.55,3.909,33.17,25.04,32.78,5.496,0,0,0,0,0,0,0,0,0,0,0,0,0,0,0,0,
572,70.19,34.6,85.51,18.48,40.95,25.3,87.25,-15.81,46.43,20.82,36.78,-10.0,10.81,12.95,6.343,-3.828,0,0,0,0,0,0,0,0,0,0,0,0,0,0,0,0,
573,45.22,26.07,79.45,12.19,48.82,19.0,50.84,27.46,26.0,26.31,18.72,-12.95,-12.74,2.703,-6.859,-13.21,0,0,0,0,0,0,0,0,0,0,0,0,0,0,0,0,
574,23.2,32.23,74.46,0.4575,55.38,11.01,10.11,10.1,38.07,30.21,18.14,-7.038,-18.93,2.464,-8.868,-14.23,0,0,0,0,0,0,0,0,0,0,0,0,0,0,0,0,
575,35.65,23.71,46.89,-5.81,22.71,-2.234,33.21,-7.522,40.98,19.13,18.64,-1.096,-32.21,-4.67,-17.61,-11.87,0,0,0,0,0,0,0,0,0,0,0,0,0,0,0,0,
576,25.56,6.875,40.13,4.847,19.22,-2.568,68.99,31.62,8.952,5.257,23.99,14.04,-27.99,-1.519,-8.932,3.321,0,0,0,0,0,0,0,0,0,0,0,0,0,0,0,0,
577,21.14,13.25,67.62,15.03,48.57,15.94,66.68,67.09,12.13,14.34,45.42,25.46,2.491,18.24,23.22,19.97,0,0,0,0,0,0,0,0,0,0,0,0,0,0,0,0,
578,38.22,30.5,56.9,14.1,43.38,21.43,48.17,44.2,42.07,31.63,39.18,8.965,-0.4027,15.0,21.2,10.61,0,0,0,0,0,0,0,0,0,0,0,0,0,0,0,0,
579,23.24,22.34,19.67,16.39,17.0,11.97,32.01,-6.693,24.85,25.82,13.42,-6.459,-21.98,-1.403,-3.665,-4.452,0,0,0,0,0,0,0,0,0,0,0,0,0,0,0,0,
580,-5.203,-4.207,35.37,12.75,6.467,8.098,19.55,-3.913,-7.018,11.56,13.28,6.37,-14.16,4.306,6.408,-3.203,0,0,0,0,0,0,0,0,0,0,0,0,0,0,0,0,
581,-12.37,-13.54,46.81,-9.229,1.775,-1.281,5.77,34.33,-2.522,10.94,5.4,3.719,-12.46,5.713,15.74,-8.715,0,0,0,0,0,0,0,0,0,0,0,0,0,0,0,0,
582,-9.042,-0.6158,-20.67,-16.3,-0.5398,-12.61,-19.76,15.92,8.87,13.35,-17.28,-22.93,-22.81,-9.053,-1.71,-22.39,0,0,0,0,0,0,0,0,0,0,0,0,0,0,0,0,
583,4.612,8.63,-55.64,2.081,5.407,-10.9,-34.9,-19.45,11.69,7.817,-4.671,-22.33,-5.859,-7.053,4.78,-14.99,0,0,0,0,0,0,0,0,0,0,0,0,0,0,0,0,
584,17.44,4.782,31.07,3.741,11.44,-13.75,-6.648,-7.713,20.33,1.089,20.26,-11.21,15.89,5.659,28.5,5.293,0,0,0,0,0,0,0,0,0,0,0,0,0,0,0,0,
585,17.29,4.396,89.66,-9.491,21.43,-14.34,42.05,2.49,27.11,8.844,22.12,-21.8,20.07,12.28,28.75,11.9,0,0,0,0,0,0,0,0,0,0,0,0,0,0,0,0,
586,15.54,10.01,30.4,1.293,40.57,6.42,50.86,-9.428,25.16,30.34,19.56,-20.27,21.26,21.97,22.19,11.17,0,0,0,0,0,0,0,0,0,0,0,0,0,0,0,0,
587,19.98,19.62,22.63,22.54,48.18,19.82,26.79,-15.6,23.44,38.75,12.03,-3.885,11.02,22.87,7.691,6.77,0,0,0,0,0,0,0,0,0,0,0,0,0,0,0,0,
588,36.58,36.15,85.19,26.0,36.52,16.81,40.12,-7.828,21.74,25.35,1.152,2.651,-12.46,8.544,-32.75,-12.84,0,0,0,0,0,0,0,0,0,0,0,0,0,0,0,0,
589,48.07,37.56,63.1,23.3,26.82,17.98,64.02,13.22,11.18,12.79,0.5015,10.09,-30.03,-1.742,-56.63,-30.14,0,0,0,0,0,0,0,0,0,0,0,0,0,0,0,0,
590,32.06,24.0,41.07,23.27,26.48,12.07,34.49,22.75,4.575,12.27,-7.463,12.84,-40.3,-11.12,-44.25,-30.32,0,0,0,0,0,0,0,0,0,0,0,0,0,0,0,0,
591,16.0,21.21,74.05,17.3,25.9,0.8477,16.25,12.37,15.15,11.13,-17.99,0.7933,-40.69,-23.18,-35.98,-31.15,0,0,0,0,0,0,0,0,0,0,0,0,0,0,0,0,
592,15.73,14.93,29.01,13.1,24.96,4.492,30.63,10.24,19.56,-3.051,-9.058,-2.024,-20.8,-19.75,-23.7,-25.41,0,0,0,0,0,0,0,0,0,0,0,0,0,0,0,0,
593,14.1,3.678,-6.347,16.3,26.67,8.633,1.072,4.831,14.29,-14.71,2.632,9.46,6.875,-3.154,15.6,3.635,0,0,0,0,0,0,0,0,0,0,0,0,0,0,0,0,
594,15.19,0.5598,40.46,6.114,21.33,2.357,-33.71,-15.02,20.9,-2.765,7.976,13.25,18.69,6.932,40.07,23.1,0,0,0,0,0,0,0,0,0,0,0,0,0,0,0,0,
595,11.34,-10.37,26.74,-12.77,10.5,-1.605,-14.01,-3.867,17.57,6.467,18.52,4.671,15.12,7.608,32.81,12.26,0,0,0,0,0,0,0,0,0,0,0,0,0,0,0,0,
596,0.5807,-4.004,2.893,-8.208,16.57,-1.686,18.0,23.8,-1.781,-4.585,26.93,-2.946,11.25,10.54,31.93,5.284,0,0,0,0,0,0,0,0,0,0,0,0,0,0,0,0,
597,12.12,22.42,31.58,-2.338,30.7,-5.246,25.17,-1.774,0.4317,2.638,25.11,-1.754,5.918,18.54,42.8,17.75,0,0,0,0,0,0,0,0,0,0,0,0,0,0,0,0,
598,15.69,7.324,-3.988,-19.01,26.36,-11.08,-2.766,-31.63,15.41,24.93,18.4,3.842,-5.215,19.4,39.55,24.0,0,0,0,0,0,0,0,0,0,0,0,0,0,0,0,0,
599,-11.46,-11.3,-41.83,-8.631,15.28,-2.109,-27.83,-6.99,13.61,21.93,7.165,2.663,-19.09,8.586,12.29,7.062,0,0,0,0,0,0,0,0,0,0,0,0,0,0,0,0,
600,1.099,26.76,-1.306,37.45,6.299,26.52,-21.04,-7.323,-5.677,11.76,-11.07,-11.08,-34.2,-2.496,-16.33,-17.85,0,0,0,0,0,0,0,0,0,0,0,0,0,0,0,0,
601,42.41,56.6,5.005,62.27,-6.285,45.22,-38.57,-27.56,-28.64,16.84,-25.0,-23.08,-38.5,-6.442,-17.99,-26.92,0,0,0,0,0,0,0,0,0,0,0,0,0,0,0,0,
602,30.7,46.64,-33.37,62.92,-7.806,42.13,-55.09,9.97,-22.88,23.58,-26.02,-19.96,-34.88,-9.817,-19.43,-29.17,0,0,0,0,0,0,0,0,0,0,0,0,0,0,0,0,
603,13.13,44.06,-32.17,63.39,-2.396,34.17,-20.41,25.02,0.7693,22.59,-29.61,-14.26,-46.29,-19.47,-47.63,-41.77,0,0,0,0,0,0,0,0,0,0,0,0,0,0,0,0,
604,32.43,45.61,-12.73,57.03,-11.82,20.47,-9.367,-9.647,-9.712,3.411,-40.81,-12.59,-59.37,-28.63,-64.99,-48.59,0,0,0,0,0,0,0,0,0,0,0,0,0,0,0,0,
605,13.04,24.22,-33.19,37.9,-31.54,-2.254,-31.2,-3.727,-38.37,-23.02,-47.65,-9.911,-63.18,-33.69,-64.99,-45.96,0,0,0,0,0,0,0,0,0,0,0,0,0,0,0,0,
606,-33.29,-3.828,-66.81,14.1,-44.48,-19.98,-48.65,2.525,-47.46,-33.42,-57.43,-13.03,-77.41,-40.51,-77.61,-49.79,0,0,0,0,0,0,0,0,0,0,0,0,0,0,0,0,
607,-29.32,-4.369,-56.91,11.88,-40.88,-23.44,-74.6,-12.77,-40.78,-41.37,-63.76,-18.66,-82.12,-43.55,-80.47,-53.09,0,0,0,0,0,0,0,0,0,0,0,0,0,0,0,0,
608,-22.53,9.037,-60.33,26.84,-31.43,-18.28,-63.81,12.69,-28.71,-50.18,-45.83,-19.79,-62.48,-40.72,-61.32,-53.9,0,0,0,0,0,0,0,0,0,0,0,0,0,0,0,0,
609,-49.0,-2.392,-96.8,12.68,-33.56,-17.6,-46.36,23.33,-33.44,-47.56,-31.05,-23.52,-53.43,-41.63,-51.06,-56.01,0,0,0,0,0,0,0,0,0,0,0,0,0,0,0,0,
610,-35.99,-6.852,-63.6,-3.859,-38.13,-16.61,-79.15,-0.9928,-43.09,-44.71,-37.23,-18.93,-51.2,-38.62,-46.4,-43.79,0,0,0,0,0,0,0,0,0,0,0,0,0,0,0,0,
611,2.06,14.65,-35.23,22.98,-36.51,-4.242,-65.4,9.217,-26.13,-37.35,-30.67,-0.86,-36.43,-27.37,-31.05,-22.94,0,0,0,0,0,0,0,0,0,0,0,0,0,0,0,0,
612,-9.597,2.063,-101.3,39.85,-34.08,5.125,-31.08,12.03,-20.63,-22.46,-18.08,-5.569,-32.77,-25.96,-17.95,-17.06,0,0,0,0,0,0,0,0,0,0,0,0,0,0,0,0,
613,-27.57,-22.97,-99.87,25.49,-26.57,11.12,-68.8,-20.05,-33.51,-16.12,-20.74,-35.4,-31.75,-29.55,-11.88,-21.92,0,0,0,0,0,0,0,0,0,0,0,0,0,0,0,0,
614,-5.627,5.394,-24.6,28.97,-15.08,25.56,-72.63,-24.0,-20.06,-8.845,-11.68,-38.43,-6.879,-16.61,-2.954,-22.8,0,0,0,0,0,0,0,0,0,0,0,0,0,0,0,0,
615,14.32,36.06,-27.04,39.95,-6.17,27.6,-38.11,-9.25,-2.864,1.873,-1.566,-19.83,7.75,-1.712,4.221,-20.93,0,0,0,0,0,0,0,0,0,0,0,0,0,0,0,0,
616,18.01,35.33,-33.16,39.92,5.118,23.75,-46.84,1.727,6.712,7.407,-13.95,-27.52,-5.272,-2.654,3.737,-19.41,0,0,0,0,0,0,0,0,0,0,0,0,0,0,0,0,
617,21.86,51.35,-8.567,52.19,22.11,45.97,-21.7,30.92,24.27,21.57,-11.18,-35.57,-3.164,4.018,2.538,-11.92,0,0,0,0,0,0,0,0,0,0,0,0,0,0,0,0,
618,26.77,65.4,-44.53,67.38,38.19,63.97,3.026,41.75,22.4,33.99,-2.031,-14.74,13.63,27.77,-7.96,-3.12,0,0,0,0,0,0,0,0,0,0,0,0,0,0,0,0,
619,31.35,44.32,-54.43,59.63,38.22,49.84,-44.41,4.204,23.13,32.71,-23.32,-5.623,9.207,39.87,-29.2,-3.306,0,0,0,0,0,0,0,0,0,0,0,0,0,0,0,0,
620,27.9,30.25,1.788,36.81,21.77,36.97,-35.78,-20.7,47.98,40.36,-25.26,-3.495,4.162,39.51,-21.75,4.703,0,0,0,0,0,0,0,0,0,0,0,0,0,0,0,0,
621,23.06,36.17,1.434,26.58,13.11,37.19,19.07,-4.683,41.92,48.59,6.244,20.19,18.14,47.76,10.51,25.87,0,0,0,0,0,0,0,0,0,0,0,0,0,0,0,0,
622,21.18,24.05,-24.18,26.92,11.37,32.88,-8.375,-11.92,18.12,39.28,9.325,22.63,17.42,48.5,12.85,30.19,0,0,0,0,0,0,0,0,0,0,0,0,0,0,0,0,
623,6.319,-3.427,-4.441,5.203,0.4423,24.37,-37.36,-47.08,22.2,29.6,-1.647,2.972,-1.697,23.36,-2.942,16.52,0,0,0,0,0,0,0,0,0,0,0,0,0,0,0,0,
624,-12.2,-11.56,-4.39,-17.09,-9.774,10.94,1.346,-27.11,13.67,13.98,15.12,6.799,-10.74,-8.529,-0.9777,1.913,0,0,0,0,0,0,0,0,0,0,0,0,0,0,0,0,
625,-35.64,-8.273,-29.28,-9.058,-29.3,-14.04,17.07,24.88,-24.86,-23.61,23.82,1.93,-21.61,-33.65,-3.628,-15.26,0,0,0,0,0,0,0,0,0,0,0,0,0,0,0,0,
626,-64.01,-22.25,-64.23,-13.14,-62.57,-37.88,-28.73,17.36,-54.79,-53.84,0.8857,-20.98,-42.09,-52.98,-17.07,-21.48,0,0,0,0,0,0,0,0,0,0,0,0,0,0,0,0,
627,-45.88,-29.27,-105.5,-27.39,-61.64,-35.48,-75.1,-10.88,-56.86,-47.43,-13.55,-4.673,-37.86,-49.4,-12.46,-7.323,0,0,0,0,0,0,0,0,0,0,0,0,0,0,0,0,
628,-5.626,-12.91,-54.74,-8.401,-34.43,-9.848,-55.2,-3.286,-34.48,-21.46,-2.046,24.62,-11.93,-23.39,6.704,4.477,0,0,0,0,0,0,0,0,0,0,0,0,0,0,0,0,
629,-7.41,-4.289,9.859,11.94,-29.32,8.499,-2.347,4.884,-15.12,-3.228,1.337,11.15,-5.722,-9.444,11.35,1.378,0,0,0,0,0,0,0,0,0,0,0,0,0,0,0,0,
630,0.9675,12.27,-57.79,26.31,-11.74,21.19,-4.63,13.78,-12.6,7.015,-6.205,-5.261,-5.39,-1.668,1.576,-3.634,0,0,0,0,0,0,0,0,0,0,0,0,0,0,0,0,
631,24.79,36.44,-70.94,58.84,24.05,42.66,-29.13,27.8,-3.119,17.12,5.026,5.793,15.76,24.48,6.89,1.915,0,0,0,0,0,0,0,0,0,0,0,0,0,0,0,0,
632,-2.388,15.99,19.05,64.08,18.01,51.19,-19.56,13.45,13.88,27.86,11.26,3.043,21.09,32.33,14.91,3.819,0,0,0,0,0,0,0,0,0,0,0,0,0,0,0,0,
633,-16.21,4.818,-18.38,40.37,3.377,45.04,-18.57,-6.01,20.09,39.77,-10.32,-20.72,0.5097,7.457,-7.825,-15.98,0,0,0,0,0,0,0,0,0,0,0,0,0,0,0,0,
634,19.23,44.05,-72.59,34.42,16.5,42.66,-37.81,-11.91,12.13,42.68,-25.6,-31.78,-8.266,-2.401,-29.86,-31.58,0,0,0,0,0,0,0,0,0,0,0,0,0,0,0,0,
635,21.35,44.26,-5.128,27.78,4.422,31.68,-46.58,-8.769,-5.097,36.36,-32.79,-30.03,-18.44,0.3278,-29.5,-25.57,0,0,0,0,0,0,0,0,0,0,0,0,0,0,0,0,
636,6.581,13.68,-9.32,17.06,-20.58,17.88,-39.21,26.82,-14.21,37.05,-44.72,-23.59,-39.13,-8.264,-33.84,-22.61,0,0,0,0,0,0,0,0,0,0,0,0,0,0,0,0,
637,2.759,7.843,-81.0,14.29,-21.38,12.83,-22.04,38.95,-18.5,28.0,-39.37,-8.788,-34.9,-9.122,-26.8,-17.3,0,0,0,0,0,0,0,0,0,0,0,0,0,0,0,0,
638,-31.08,-18.0,-67.82,-8.641,-34.83,-7.475,-24.86,-18.37,-33.46,2.278,-29.66,-1.154,-22.19,-8.805,-6.397,1.27,0,0,0,0,0,0,0,0,0,0,0,0,0,0,0,0,
639,-42.02,-36.83,-24.07,-27.19,-49.3,-27.73,-40.92,-41.05,-35.09,-1.127,-25.75,2.852,-22.83,-14.47,-7.173,9.174,0,0,0,0,0,0,0,0,0,0,0,0,0,0,0,0,
640,-22.33,-24.95,-29.28,-20.23,-32.59,-21.97,-30.86,9.928,-23.55,8.763,-1.808,25.99,-7.63,0.4257,7.044,17.07,0,0,0,0,0,0,0,0,0,0,0,0,0,0,0,0,
641,-59.99,-60.45,-74.47,-35.95,-29.23,-25.37,-26.72,41.55,-27.73,0.1758,11.99,45.5,7.51,16.57,45.16,38.73,0,0,0,0,0,0,0,0,0,0,0,0,0,0,0,0,
642,-91.57,-91.21,-76.68,-55.65,-51.6,-44.03,-45.2,22.19,-27.72,0.3324,-9.813,42.33,-8.062,7.804,34.55,37.67,0,0,0,0,0,0,0,0,0,0,0,0,0,0,0,0,
643,-54.59,-46.18,-21.11,-43.09,-66.7,-50.61,-39.81,-11.17,-23.69,9.113,-19.6,35.0,-24.19,-0.9344,-4.842,14.62,0,0,0,0,0,0,0,0,0,0,0,0,0,0,0,0,
644,-44.9,-26.41,-36.03,-45.52,-74.06,-58.31,-19.98,-18.61,-42.74,-5.89,-10.96,19.87,-25.45,-5.742,-7.314,7.436,0,0,0,0,0,0,0,0,0,0,0,0,0,0,0,0,
645,-60.64,-51.35,-73.53,-58.28,-65.35,-63.37,-15.36,7.588,-50.92,-20.29,-16.33,-0.0468,-26.3,-20.33,-3.147,5.573,0,0,0,0,0,0,0,0,0,0,0,0,0,0,0,0,
646,-40.2,-43.18,-35.03,-40.97,-46.56,-51.91,-17.29,18.0,-40.73,-23.54,-19.09,-7.957,-22.82,-32.39,-10.92,-9.872,0,0,0,0,0,0,0,0,0,0,0,0,0,0,0,0,
647,-39.01,-39.89,-38.05,-30.76,-52.92,-48.75,-23.92,-9.222,-48.74,-39.8,-8.72,-25.63,-17.23,-37.57,-3.558,-24.76,0,0,0,0,0,0,0,0,0,0,0,0,0,0,0,0,
648,-56.34,-56.73,-56.04,-29.69,-52.98,-42.21,-29.29,-37.74,-42.44,-37.91,-8.596,-48.78,-12.35,-37.01,2.349,-31.63,0,0,0,0,0,0,0,0,0,0,0,0,0,0,0,0,
649,-30.97,-32.68,8.648,0.1087,-15.53,-9.151,-26.05,-25.27,-4.859,-2.513,-14.13,-41.12,1.846,-23.33,1.515,-29.42,0,0,0,0,0,0,0,0,0,0,0,0,0,0,0,0,
650,-7.283,-4.101,20.85,18.64,2.228,10.06,-14.31,34.43,8.61,13.37,-8.799,-22.5,11.5,-6.106,12.86,-17.54,0,0,0,0,0,0,0,0,0,0,0,0,0,0,0,0,
651,-15.97,-12.46,-46.4,8.729,-15.85,5.889,5.766,53.12,-3.228,8.263,-9.831,-19.1,-1.201,-0.9933,10.72,-14.54,0,0,0,0,0,0,0,0,0,0,0,0,0,0,0,0,
652,-12.18,-5.428,-50.57,20.51,-20.43,19.28,-1.145,-6.672,-4.151,20.29,-26.25,-16.36,-17.33,-4.462,-11.17,-23.95,0,0,0,0,0,0,0,0,0,0,0,0,0,0,0,0,
653,-8.499,12.41,4.38,34.71,-16.33,33.76,-34.58,-14.5,-7.722,25.28,-28.38,-7.438,-17.56,-3.12,-14.52,-17.86,0,0,0,0,0,0,0,0,0,0,0,0,0,0,0,0,
654,-25.67,-4.233,-1.204,9.605,-24.44,17.06,-30.67,38.61,-20.67,4.849,-12.04,10.21,-12.67,5.533,-0.7291,7.387,0,0,0,0,0,0,0,0,0,0,0,0,0,0,0,0,
655,-25.61,-19.03,-84.23,-9.097,-22.48,-0.2468,-11.58,13.26,-15.6,-5.074,-4.776,30.53,-11.15,13.78,12.58,27.98,0,0,0,0,0,0,0,0,0,0,0,0,0,0,0,0,
656,-19.73,-10.85,-90.53,6.003,-8.045,2.445,-24.98,-30.46,3.307,1.614,4.239,31.6,-5.07,19.36,27.24,36.84,0,0,0,0,0,0,0,0,0,0,0,0,0,0,0,0,
657,-39.71,-14.21,-4.013,5.871,-8.762,-3.721,-16.37,9.208,5.414,-0.7237,24.59,25.72,3.838,21.66,28.62,36.1,0,0,0,0,0,0,0,0,0,0,0,0,0,0,0,0,T1
658,-39.51,-18.45,-6.075,-15.23,-23.26,-21.15,9.608,27.64,-2.821,-9.947,24.32,33.84,6.45,19.4,21.78,31.09,0,0,0,0,0,0,0,0,0,0,0,0,0,0,0,0,
659,-10.8,-12.95,-41.74,-17.32,-25.52,-20.62,-13.68,-6.695,3.246,-9.937,10.33,33.04,5.755,15.46,33.59,30.22,0,0,0,0,0,0,0,0,0,0,0,0,0,0,0,0,
660,-14.36,-25.63,-5.693,-10.53,-15.06,-7.301,-29.43,-6.368,10.26,-3.44,10.24,9.707,1.83,5.231,34.9,18.64,0,0,0,0,0,0,0,0,0,0,0,0,0,0,0,0,
661,-27.99,-30.54,-13.61,-9.445,-8.841,-0.4123,5.349,4.268,-1.914,-7.781,5.376,-6.401,-8.908,-4.449,4.798,-2.943,0,0,0,0,0,0,0,0,0,0,0,0,0,0,0,0,
662,-6.176,1.164,-27.16,3.261,-4.004,7.08,7.573,5.877,-12.32,-14.09,-4.276,-0.1641,-13.54,6.613,-4.757,-1.762,0,0,0,0,0,0,0,0,0,0,0,0,0,0,0,0,
663,4.963,13.65,21.58,16.08,0.3035,14.87,-21.87,18.75,2.305,6.741,-4.671,-1.136,-13.95,14.94,0.9912,-1.119,0,0,0,0,0,0,0,0,0,0,0,0,0,0,0,0,
664,-6.567,-7.312,7.428,20.71,-5.264,14.39,-6.258,-9.318,13.56,26.7,-18.93,-20.27,-30.61,-4.782,-30.65,-30.68,0,0,0,0,0,0,0,0,0,0,0,0,0,0,0,0,
665,-6.521,-6.001,-46.8,25.37,-14.49,10.66,6.265,-36.46,-8.753,5.281,-34.19,-20.24,-42.81,-11.83,-48.16,-34.0,0,0,0,0,0,0,0,0,0,0,0,0,0,0,0,0,
666,-26.35,-8.025,-58.69,6.506,-22.5,0.9558,-30.4,12.52,-23.85,-11.27,-19.81,-1.011,-22.34,9.371,-11.82,-0.7909,0,0,0,0,0,0,0,0,0,0,0,0,0,0,0,0,
667,-50.71,-37.79,-50.65,-16.9,-22.24,-7.457,-23.85,25.83,-1.679,11.59,1.535,-2.252,4.61,20.87,10.24,9.902,0,0,0,0,0,0,0,0,0,0,0,0,0,0,0,0,
668,-9.581,-21.68,7.289,-0.5902,-3.349,2.76,36.9,-35.52,12.45,23.12,18.11,-9.157,15.21,24.51,14.29,18.08,0,0,0,0,0,0,0,0,0,0,0,0,0,0,0,0,
669,34.76,21.94,71.4,10.84,11.07,7.905,44.63,-41.65,11.78,7.844,28.36,-0.7772,18.61,28.24,34.37,43.0,0,0,0,0,0,0,0,0,0,0,0,0,0,0,0,0,
670,22.33,14.19,74.85,-5.808,12.79,-4.374,18.73,-3.097,27.39,1.536,16.56,-0.4215,18.91,15.76,31.69,40.52,0,0,0,0,0,0,0,0,0,0,0,0,0,0,0,0,
671,30.49,5.528,74.27,-7.157,25.61,-2.679,32.79,0.8137,30.95,-0.238,11.65,-1.525,22.02,5.838,23.71,27.78,0,0,0,0,0,0,0,0,0,0,0,0,0,0,0,0,
672,56.46,22.79,66.27,-14.48,34.42,3.39,50.21,0.8211,16.36,-8.015,26.15,7.321,25.0,5.555,45.66,27.99,0,0,0,0,0,0,0,0,0,0,0,0,0,0,0,0,
673,42.87,19.36,53.44,-35.88,32.82,-6.8,52.99,7.422,22.28,-6.798,24.86,4.15,17.01,-7.052,38.15,9.56,0,0,0,0,0,0,0,0,0,0,0,0,0,0,0,0,
674,44.77,26.67,92.02,-22.04,46.39,-8.158,66.58,-2.014,31.99,-6.696,17.17,-1.355,13.59,-13.26,5.255,-7.792,0,0,0,0,0,0,0,0,0,0,0,0,0,0,0,0,
675,70.06,44.63,127.3,-1.452,53.36,0.7269,73.46,-15.36,27.4,-11.75,13.06,4.606,15.67,-4.202,3.947,-1.384,0,0,0,0,0,0,0,0,0,0,0,0,0,0,0,0,
676,60.57,26.84,124.3,-9.754,42.08,4.64,61.97,-28.45,31.38,4.72,-4.682,3.02,6.393,-5.055,-2.844,-6.23,0,0,0,0,0,0,0,0,0,0,0,0,0,0,0,0,
677,36.97,13.21,99.03,-9.553,45.19,11.3,28.35,-33.95,37.32,21.55,-10.55,-1.433,4.809,-5.772,-23.26,-16.85,0,0,0,0,0,0,0,0,0,0,0,0,0,0,0,0,
678,23.91,19.69,42.03,-5.002,50.38,8.356,-6.628,-19.49,35.07,4.689,2.536,0.3298,13.05,-1.746,-10.16,-8.915,0,0,0,0,0,0,0,0,0,0,0,0,0,0,0,0,
679,27.67,18.15,29.3,-19.52,37.54,-7.163,18.73,-7.21,34.53,-9.903,6.884,-1.061,6.446,-10.33,7.442,-0.8224,0,0,0,0,0,0,0,0,0,0,0,0,0,0,0,0,
680,52.35,19.25,88.35,-18.69,26.68,-4.314,66.62,-7.697,21.94,-4.44,16.76,7.006,3.371,-8.189,7.473,6.386,0,0,0,0,0,0,0,0,0,0,0,0,0,0,0,0,
681,48.12,4.015,100.5,-2.819,19.88,7.005,54.57,4.181,2.111,-6.586,32.02,21.3,13.61,10.42,21.58,22.41,0,0,0,0,0,0,0,0,0,0,0,0,0,0,0,0,
682,15.84,-21.46,39.56,-19.69,12.99,-6.109,36.47,6.904,10.58,-5.811,27.05,11.63,12.91,9.693,34.96,27.95,0,0,0,0,0,0,0,0,0,0,0,0,0,0,0,0,
683,11.53,-4.725,20.99,-43.71,19.52,-17.11,65.26,-36.57,31.52,4.738,26.29,-3.228,12.95,5.481,28.37,21.08,0,0,0,0,0,0,0,0,0,0,0,0,0,0,0,0,
684,17.91,15.85,82.87,-23.88,35.16,5.253,79.14,-53.44,28.51,7.876,40.59,7.883,23.74,21.95,25.13,19.85,0,0,0,0,0,0,0,0,0,0,0,0,0,0,0,0,
685,15.53,1.165,98.87,-7.104,41.72,18.78,54.24,-2.617,23.75,8.034,32.82,18.37,21.71,22.82,26.19,21.08,0,0,0,0,0,0,0,0,0,0,0,0,0,0,0,0,
686,24.61,1.792,31.94,-24.86,34.94,-1.664,39.1,18.25,36.75,2.553,11.38,13.09,14.07,3.277,20.78,17.28,0,0,0,0,0,0,0,0,0,0,0,0,0,0,0,0,
687,33.88,19.56,27.65,-18.08,28.41,-6.213,49.15,2.821,37.31,-3.525,10.5,15.27,18.11,0.0136,15.82,9.87,0,0,0,0,0,0,0,0,0,0,0,0,0,0,0,0,
688,32.25,14.76,74.64,2.847,27.36,8.989,50.36,3.679,20.15,7.641,9.736,15.92,18.2,2.365,4.767,-2.614,0,0,0,0,0,0,0,0,0,0,0,0,0,0,0,0,
689,30.61,9.585,64.99,-8.579,23.84,6.611,31.11,-20.18,19.43,19.16,-6.737,6.081,15.5,-0.5738,-10.01,-9.824,0,0,0,0,0,0,0,0,0,0,0,0,0,0,0,0,
690,32.68,20.15,54.93,-8.849,30.03,11.89,29.48,-26.05,34.25,27.71,-5.841,16.17,30.56,18.79,-1.917,4.345,0,0,0,0,0,0,0,0,0,0,0,0,0,0,0,0,
691,27.13,7.874,43.45,10.64,42.11,29.47,40.71,16.19,35.65,46.03,8.589,40.58,49.85,48.89,19.09,28.97,0,0,0,0,0,0,0,0,0,0,0,0,0,0,0,0,
692,11.27,-22.42,4.217,11.4,32.6,22.31,7.213,6.478,33.83,55.94,0.8843,42.35,48.69,52.4,18.86,39.78,0,0,0,0,0,0,0,0,0,0,0,0,0,0,0,0,
693,9.176,-19.46,18.32,7.222,25.58,8.101,-38.22,-11.8,46.08,51.3,-5.928,29.78,35.41,36.74,9.728,37.45,0,0,0,0,0,0,0,0,0,0,0,0,0,0,0,0,
694,3.866,-5.475,21.12,-11.35,28.61,-4.467,-17.75,18.97,39.99,31.38,10.27,28.09,20.34,22.02,11.68,39.0,0,0,0,0,0,0,0,0,0,0,0,0,0,0,0,0,
695,-29.75,-21.99,-30.21,-44.44,-5.855,-29.99,23.67,5.404,-1.948,-3.243,15.01,31.76,-3.473,5.917,7.051,40.44,0,0,0,0,0,0,0,0,0,0,0,0,0,0,0,0,
696,-31.07,-29.0,0.0805,-39.33,-42.94,-37.22,25.92,-13.9,-35.58,-19.47,5.774,23.89,-22.56,-9.835,-1.283,27.83,0,0,0,0,0,0,0,0,0,0,0,0,0,0,0,0,
697,6.694,-10.89,57.7,-21.4,-28.2,-27.23,31.68,-0.5535,-30.82,-17.99,7.884,3.262,-18.41,-17.35,8.962,14.58,0,0,0,0,0,0,0,0,0,0,0,0,0,0,0,0,
698,11.11,-3.937,25.72,-27.42,-6.453,-26.57,43.6,-44.51,-6.106,-20.37,10.63,-14.29,-6.793,-20.79,18.74,11.94,0,0,0,0,0,0,0,0,0,0,0,0,0,0,0,0,
699,8.389,0.1286,11.1,-16.87,4.014,-12.0,30.75,-62.97,14.46,-11.48,12.67,-19.65,1.471,-21.78,13.96,6.651,0,0,0,0,0,0,0,0,0,0,0,0,0,0,0,0,
700,30.6,9.097,53.24,-2.716,22.65,5.644,35.85,-2.097,21.75,-0.6711,26.34,-13.13,19.88,-9.398,25.88,7.703,0,0,0,0,0,0,0,0,0,0,0,0,0,0,0,0,
701,31.18,4.37,67.68,-11.97,28.28,-2.117,51.88,-3.055,28.94,1.207,34.9,1.262,40.97,10.22,51.96,23.63,0,0,0,0,0,0,0,0,0,0,0,0,0,0,0,0,
702,22.32,0.9257,66.44,-2.985,38.11,2.524,45.83,-30.08,50.04,15.06,30.48,4.479,45.72,15.92,49.96,25.08,0,0,0,0,0,0,0,0,0,0,0,0,0,0,0,0,
703,23.69,8.926,58.27,13.96,64.0,24.96,67.45,-0.3101,59.92,25.17,29.79,0.9125,44.7,16.49,35.77,18.09,0,0,0,0,0,0,0,0,0,0,0,0,0,0,0,0,
704,8.31,7.701,15.57,1.844,53.13,25.82,73.48,-3.87,42.3,25.94,31.36,16.76,51.09,28.4,45.58,31.1,0,0,0,0,0,0,0,0,0,0,0,0,0,0,0,0,
705,8.467,3.747,8.35,-3.488,24.88,19.44,6.04,-19.03,34.26,41.43,19.18,25.12,44.87,27.74,42.32,30.29,0,0,0,0,0,0,0,0,0,0,0,0,0,0,0,0,
706,42.6,18.89,76.56,9.286,33.85,20.0,-0.5627,13.02,45.55,41.32,7.74,5.133,20.98,4.318,12.17,5.136,0,0,0,0,0,0,0,0,0,0,0,0,0,0,0,0,
707,47.33,27.52,110.1,-1.164,37.83,8.075,73.77,14.77,37.12,9.062,23.19,0.0916,15.19,-4.728,13.53,6.25,0,0,0,0,0,0,0,0,0,0,0,0,0,0,0,0,
708,11.72,-1.268,57.12,-26.64,10.89,-9.319,68.19,-16.76,14.46,-8.794,35.24,7.271,22.01,2.286,27.51,18.74,0,0,0,0,0,0,0,0,0,0,0,0,0,0,0,0,
709,-9.679,-27.53,24.77,-32.11,2.02,-18.23,17.04,-35.57,13.54,-4.016,14.49,-5.968,5.41,-7.726,-2.996,4.105,0,0,0,0,0,0,0,0,0,0,0,0,0,0,0,0,
710,-1.573,-16.04,59.3,-25.1,15.63,-18.33,28.45,-39.83,24.84,-4.647,6.219,-8.983,-4.966,-18.48,-24.87,-3.378,0,0,0,0,0,0,0,0,0,0,0,0,0,0,0,0,
711,6.156,-6.81,69.67,-25.16,18.16,-10.24,48.15,-8.296,23.44,-13.11,25.83,5.158,16.4,-9.005,-0.8604,7.098,0,0,0,0,0,0,0,0,0,0,0,0,0,0,0,0,
712,-9.351,-15.51,28.08,-27.32,14.22,-7.748,44.88,22.78,11.05,-20.44,37.74,5.577,36.45,-0.5322,20.1,8.77,0,0,0,0,0,0,0,0,0,0,0,0,0,0,0,0,
713,-18.68,-12.51,19.03,-18.92,13.1,-12.81,43.17,4.401,7.968,-15.41,48.66,5.816,51.21,4.673,37.21,16.49,0,0,0,0,0,0,0,0,0,0,0,0,0,0,0,0,
714,9.979,-9.969,45.96,-5.147,8.327,-7.186,38.97,-28.99,27.34,2.534,56.11,7.471,62.63,12.12,58.54,29.93,0,0,0,0,0,0,0,0,0,0,0,0,0,0,0,0,
715,25.79,-17.35,35.18,-0.5801,15.73,8.745,54.92,-35.33,42.38,12.16,49.56,2.077,58.49,13.25,55.94,27.58,0,0,0,0,0,0,0,0,0,0,0,0,0,0,0,0,
716,-0.0373,-5.307,23.32,1.631,34.7,20.56,72.59,0.8377,32.17,8.894,56.57,17.48,62.85,22.37,46.88,29.04,0,0,0,0,0,0,0,0,0,0,0,0,0,0,0,0,
717,-0.2816,15.06,56.01,9.926,22.44,19.3,43.02,27.54,27.71,9.894,50.8,31.08,61.83,32.25,38.7,36.59,0,0,0,0,0,0,0,0,0,0,0,0,0,0,0,0,
718,24.82,6.729,57.14,6.578,-7.634,13.63,21.18,5.732,32.06,14.81,16.76,14.16,34.32,23.18,22.64,30.77,0,0,0,0,0,0,0,0,0,0,0,0,0,0,0,0,
719,5.438,-18.49,25.66,-3.722,1.415,24.35,35.32,4.321,17.69,13.14,18.19,18.09,36.62,28.98,34.29,31.4,0,0,0,0,0,0,0,0,0,0,0,0,0,0,0,0,
720,-23.14,-22.96,37.41,4.754,20.88,35.36,13.84,2.26,13.01,14.47,29.39,35.96,52.71,44.92,45.72,38.8,0,0,0,0,0,0,0,0,0,0,0,0,0,0,0,0,
721,-4.717,-0.8672,34.18,8.845,1.62,15.88,-20.37,-41.69,28.36,21.54,1.972,12.8,15.73,21.62,9.428,28.15,0,0,0,0,0,0,0,0,0,0,0,0,0,0,0,0,
722,10.02,12.93,-23.04,-11.74,-21.92,-11.08,3.579,-16.67,15.66,7.675,0.9098,-2.631,-16.19,-6.419,-13.76,19.58,0,0,0,0,0,0,0,0,0,0,0,0,0,0,0,0,
723,-8.876,-8.163,-25.85,-21.56,-23.03,-14.95,31.31,43.72,-15.71,-24.12,21.37,19.21,-3.95,-1.124,-1.165,25.8,0,0,0,0,0,0,0,0,0,0,0,0,0,0,0,0,
724,-18.13,-38.07,20.11,-21.06,-24.61,-13.05,5.655,-1.113,-25.31,-33.1,6.05,17.81,-2.36,0.8274,4.723,27.59,0,0,0,0,0,0,0,0,0,0,0,0,0,0,0,0,
725,-13.76,-39.53,1.621,-35.8,-26.22,-18.72,-14.11,-57.99,-17.86,-20.17,4.985,2.051,-2.092,-5.898,19.6,30.01,0,0,0,0,0,0,0,0,0,0,0,0,0,0,0,0,
726,-19.27,-23.69,-25.62,-34.84,-13.78,-16.54,18.15,-20.37,2.091,-14.13,27.9,9.56,16.86,-1.649,34.46,31.4,0,0,0,0,0,0,0,0,0,0,0,0,0,0,0,0,
727,-21.29,-20.12,23.3,-17.75,4.451,-9.149,44.88,20.27,18.48,-15.23,21.85,9.099,23.09,3.995,21.71,20.77,0,0,0,0,0,0,0,0,0,0,0,0,0,0,0,0,
728,-9.587,-18.66,59.65,-24.85,14.05,-10.39,26.16,-1.327,14.77,-14.57,12.81,-0.9,22.93,12.48,19.15,20.26,0,0,0,0,0,0,0,0,0,0,0,0,0,0,0,0,
729,1.812,-7.441,31.97,-27.32,6.401,-8.317,15.43,-29.45,21.37,-3.6,12.71,2.542,23.87,19.15,27.44,29.09,0,0,0,0,0,0,0,0,0,0,0,0,0,0,0,0,
730,0.4306,-17.44,7.44,-6.878,-8.382,-0.9929,22.8,-18.83,30.89,13.07,-8.338,-0.4907,9.396,6.857,15.54,20.98,0,0,0,0,0,0,0,0,0,0,0,0,0,0,0,0,
731,-15.75,-40.65,2.093,-5.734,-12.19,-6.523,-0.1772,5.551,10.51,8.934,-25.49,-5.61,-5.534,-6.317,-1.203,10.25,0,0,0,0,0,0,0,0,0,0,0,0,0,0,0,0,
732,-23.23,-28.18,-6.125,-16.62,-14.14,-13.49,-24.92,14.96,-9.819,-6.237,-27.81,1.912,-13.67,-4.668,-15.84,8.752,0,0,0,0,0,0,0,0,0,0,0,0,0,0,0,0,
733,-9.137,-10.02,-19.5,-17.74,-17.11,-9.016,-12.26,11.55,-13.2,-3.263,-34.14,-1.848,-22.33,-2.919,-23.24,2.281,0,0,0,0,0,0,0,0,0,0,0,0,0,0,0,0,
734,-11.43,-24.96,-25.57,-17.86,0.336,-6.067,9.678,5.664,-9.469,3.037,-25.79,-6.254,-16.59,-0.8532,-11.59,0.8832,0,0,0,0,0,0,0,0,0,0,0,0,0,0,0,0,
735,-33.76,-27.33,3.116,-7.75,16.78,-4.905,14.05,9.415,6.604,1.407,-5.035,10.59,-1.127,6.229,0.5107,11.62,0,0,0,0,0,0,0,0,0,0,0,0,0,0,0,0,
736,-26.93,-9.863,26.29,-7.145,-0.3655,-9.449,-2.383,13.2,10.46,1.481,2.051,18.3,2.917,3.69,8.627,15.98,0,0,0,0,0,0,0,0,0,0,0,0,0,0,0,0,
737,-3.317,-14.78,-1.425,-32.01,-20.02,-25.85,-7.596,-0.5248,-4.925,-4.763,2.774,8.924,1.663,-7.247,12.86,10.91,0,0,0,0,0,0,0,0,0,0,0,0,0,0,0,0,
738,-1.599,-24.73,-6.695,-33.41,-15.04,-26.6,9.093,-26.71,-9.715,-8.057,-1.767,4.699,5.513,-6.706,4.296,7.746,0,0,0,0,0,0,0,0,0,0,0,0,0,0,0,0,
739,-1.578,-15.65,30.83,-16.26,0.489,-7.485,3.701,-45.08,-4.104,8.991,-7.506,3.365,13.67,6.335,10.49,13.1,0,0,0,0,0,0,0,0,0,0,0,0,0,0,0,0,
740,-0.8668,-10.55,33.77,-24.31,15.11,-2.384,-0.1736,-16.26,6.479,20.46,6.695,9.795,21.35,16.95,24.93,23.71,0,0,0,0,0,0,0,0,0,0,0,0,0,0,0,0,
741,-19.67,-21.62,18.72,-29.11,9.404,-11.11,17.36,35.53,8.409,12.93,13.94,23.18,16.31,18.16,4.314,23.86,0,0,0,0,0,0,0,0,0,0,0,0,0,0,0,0,
742,-24.81,-27.63,15.48,-16.76,-13.15,-13.27,8.049,32.93,-11.36,17.28,-3.522,21.13,1.068,14.22,-17.6,11.67,0,0,0,0,0,0,0,0,0,0,0,0,0,0,0,0,
743,-9.192,-20.17,-12.24,-14.25,-17.23,-12.49,4.156,8.941,-17.95,31.38,-6.372,13.01,-6.501,11.84,-6.79,2.171,0,0,0,0,0,0,0,0,0,0,0,0,0,0,0,0,
744,-16.13,-20.48,-33.5,-13.26,-13.81,-15.34,12.51,7.226,-11.87,25.41,-0.2245,12.99,-5.523,12.04,-2.057,-0.9429,0,0,0,0,0,0,0,0,0,0,0,0,0,0,0,0,
745,-26.1,-23.07,-13.63,-5.506,-18.94,-14.32,-13.19,0.2771,-20.18,16.0,-5.627,11.9,-0.4744,14.32,-4.398,2.082,0,0,0,0,0,0,0,0,0,0,0,0,0,0,0,0,
746,-11.97,-9.081,7.75,0.7109,-11.95,-5.971,-7.016,18.94,-16.87,21.18,5.385,16.32,7.005,16.94,11.32,9.976,0,0,0,0,0,0,0,0,0,0,0,0,0,0,0,0,
747,-4.952,0.7859,17.74,5.588,-0.9111,1.056,21.43,39.36,-4.822,17.65,22.24,24.64,8.536,16.77,26.64,18.13,0,0,0,0,0,0,0,0,0,0,0,0,0,0,0,0,
748,3.32,3.865,16.85,8.808,11.07,11.76,5.477,-2.784,1.621,15.59,29.48,23.37,16.64,23.84,44.8,34.87,0,0,0,0,0,0,0,0,0,0,0,0,0,0,0,0,
749,23.01,14.36,9.314,20.08,38.0,35.11,27.46,-16.49,25.23,38.26,56.1,30.94,42.29,41.76,76.27,58.73,0,0,0,0,0,0,0,0,0,0,0,0,0,0,0,0,
750,18.9,18.88,27.3,32.04,51.14,45.14,60.25,34.39,40.36,50.07,70.48,48.73,51.42,47.1,79.95,67.08,0,0,0,0,0,0,0,0,0,0,0,0,0,0,0,0,
751,7.798,16.41,27.74,10.33,34.89,23.78,11.34,46.09,25.08,33.63,37.71,42.1,30.23,32.96,43.84,51.7,0,0,0,0,0,0,0,0,0,0,0,0,0,0,0,0,
752,-0.0038,-5.322,-28.66,-24.67,8.847,2.114,-15.82,18.71,1.811,18.35,9.486,24.63,14.23,21.88,13.65,27.46,0,0,0,0,0,0,0,0,0,0,0,0,0,0,0,0,
753,-28.62,-44.71,-53.28,-23.19,-10.67,2.342,-4.883,3.376,-22.86,8.497,5.91,31.69,16.98,22.98,12.64,19.53,0,0,0,0,0,0,0,0,0,0,0,0,0,0,0,0,
754,-29.02,-35.45,-15.32,-4.425,0.1506,6.918,-24.58,-5.934,-12.61,4.257,6.817,34.79,25.59,27.51,24.01,29.02,0,0,0,0,0,0,0,0,0,0,0,0,0,0,0,0,
755,14.48,10.49,12.92,0.752,21.6,3.277,-1.069,-15.19,27.21,12.41,14.54,13.65,29.19,26.99,22.13,22.05,0,0,0,0,0,0,0,0,0,0,0,0,0,0,0,0,
756,30.72,18.04,15.75,3.612,14.25,4.644,31.45,-12.42,17.17,18.82,8.729,7.894,21.63,21.68,5.753,0.6686,0,0,0,0,0,0,0,0,0,0,0,0,0,0,0,0,
757,8.922,10.81,9.674,-2.148,13.36,12.4,-7.876,27.88,-3.357,19.07,-3.578,15.97,19.51,16.91,-4.192,-4.811,0,0,0,0,0,0,0,0,0,0,0,0,0,0,0,0,
758,-12.81,14.53,10.94,-15.5,25.74,4.438,-14.6,52.91,23.35,9.693,10.35,2.64,28.51,8.426,-10.55,-6.371,0,0,0,0,0,0,0,0,0,0,0,0,0,0,0,0,
759,-14.13,2.829,17.13,-5.553,2.547,-12.57,20.72,10.12,20.22,-10.32,9.332,-11.31,22.21,-2.646,-18.14,-11.96,0,0,0,0,0,0,0,0,0,0,0,0,0,0,0,0,
760,-6.714,-12.02,-24.5,8.508,-18.41,-13.06,3.864,15.44,-11.27,-12.48,-19.42,-8.528,5.164,-5.526,-14.23,-10.18,0,0,0,0,0,0,0,0,0,0,0,0,0,0,0,0,
761,-28.19,-23.3,-70.07,-1.061,0.5082,-7.754,-19.6,60.3,-1.864,-2.999,-24.94,-14.04,-0.945,-8.173,-17.78,-18.91,0,0,0,0,0,0,0,0,0,0,0,0,0,0,0,0,
762,-43.04,-33.54,-21.77,-2.747,5.555,-3.793,-21.7,-17.34,8.872,-9.109,-22.33,-22.98,-2.927,-14.44,-34.52,-31.97,0,0,0,0,0,0,0,0,0,0,0,0,0,0,0,0,
763,-3.77,-19.94,42.88,5.191,-9.67,8.726,-32.96,-73.69,1.47,-8.732,-26.56,-11.82,3.264,-6.172,-22.88,-16.74,0,0,0,0,0,0,0,0,0,0,0,0,0,0,0,0,
764,22.86,1.724,20.67,-5.854,-10.25,10.79,-14.86,40.49,7.591,-1.872,-14.97,6.508,17.48,8.47,4.998,3.289,0,0,0,0,0,0,0,0,0,0,0,0,0,0,0,0,
765,-0.0789,6.137,-23.34,-13.45,-7.726,1.802,18.64,80.3,5.075,-11.04,-13.2,8.271,15.8,6.13,0.2786,-1.836,0,0,0,0,0,0,0,0,0,0,0,0,0,0,0,0,
766,-12.88,8.98,-14.45,-4.903,-4.516,4.388,11.16,-12.19,-4.158,-9.196,-22.68,2.366,7.661,-1.14,-19.13,-5.257,0,0,0,0,0,0,0,0,0,0,0,0,0,0,0,0,
767,2.047,11.58,21.88,-7.104,-4.633,-1.998,2.895,-6.578,3.714,1.935,-17.45,4.65,4.895,-3.481,-23.86,1.663,0,0,0,0,0,0,0,0,0,0,0,0,0,0,0,0,
768,10.28,5.151,29.46,-16.86,-23.61,-20.62,15.46,14.64,-1.908,-15.33,-19.63,-2.83,-5.587,-13.5,-24.55,-7.953,0,0,0,0,0,0,0,0,0,0,0,0,0,0,0,0,
769,-1.155,4.112,8.766,-16.83,-20.69,-12.03,5.617,-66.32,-18.41,-35.14,-17.91,-17.38,2.354,-12.99,-13.88,-15.26,0,0,0,0,0,0,0,0,0,0,0,0,0,0,0,0,
770,-5.3,6.331,22.32,-13.07,13.83,12.2,9.541,-58.06,1.738,-21.45,12.58,1.041,40.63,15.75,17.32,8.748,0,0,0,0,0,0,0,0,0,0,0,0,0,0,0,0,
771,13.04,-2.664,51.34,-9.369,19.28,18.07,58.38,33.45,35.31,1.566,30.34,27.54,55.01,34.36,36.64,25.0,0,0,0,0,0,0,0,0,0,0,0,0,0,0,0,0,
772,15.46,-3.024,14.32,-2.492,10.04,17.8,62.76,28.49,34.55,7.526,19.05,11.16,33.2,20.89,22.38,4.833,0,0,0,0,0,0,0,0,0,0,0,0,0,0,0,0,
773,-1.356,16.17,-29.12,4.143,25.43,22.53,14.84,-4.554,23.37,5.843,6.72,-12.15,16.11,8.005,-2.188,-13.67,0,0,0,0,0,0,0,0,0,0,0,0,0,0,0,0,
774,7.676,21.59,7.751,4.526,20.41,22.12,14.16,3.137,19.61,9.182,-2.474,-3.795,10.59,7.808,-8.454,-12.25,0,0,0,0,0,0,0,0,0,0,0,0,0,0,0,0,
775,22.15,10.04,45.26,-5.448,-7.295,13.47,22.59,4.043,3.178,9.448,-11.51,4.221,4.208,1.104,-0.2697,-13.71,0,0,0,0,0,0,0,0,0,0,0,0,0,0,0,0,
776,3.208,6.097,16.93,-17.24,-8.982,2.232,-25.57,12.33,-8.784,2.367,-22.92,-7.206,-8.043,-13.49,-9.361,-24.83,0,0,0,0,0,0,0,0,0,0,0,0,0,0,0,0,
777,-21.12,-7.214,-18.26,-16.62,-10.6,-1.777,-49.19,2.416,-10.54,0.5658,-37.95,-16.65,-27.37,-20.77,-37.95,-34.09,0,0,0,0,0,0,0,0,0,0,0,0,0,0,0,0,
778,-27.72,-28.27,-26.81,-16.1,-31.94,0.9544,-24.41,-26.17,-30.7,-1.866,-44.24,-17.04,-39.39,-18.36,-45.29,-36.29,0,0,0,0,0,0,0,0,0,0,0,0,0,0,0,0,
779,-28.36,-23.04,-29.24,-29.58,-39.02,0.5462,-19.12,-7.524,-49.87,-17.3,-40.72,-18.99,-33.83,-19.85,-28.48,-37.81,0,0,0,0,0,0,0,0,0,0,0,0,0,0,0,0,
780,-23.62,-13.48,-27.7,-30.74,-35.32,-2.534,-24.45,9.133,-41.83,-27.04,-35.35,-14.45,-15.84,-22.11,-20.39,-34.32,0,0,0,0,0,0,0,0,0,0,0,0,0,0,0,0,
781,-18.91,-25.37,-20.85,-11.08,-30.86,-6.401,-23.08,5.061,-23.65,-23.56,-30.12,-0.3861,3.549,-12.07,-14.42,-18.57,0,0,0,0,0,0,0,0,0,0,0,0,0,0,0,0,
782,-31.72,-33.07,-43.49,-8.315,-20.25,-7.709,-31.33,30.16,-13.81,-29.13,-25.38,-1.602,7.774,-5.595,-0.5315,-13.05,0,0,0,0,0,0,0,0,0,0,0,0,0,0,0,0,
783,-45.96,-27.3,-88.75,-25.24,-21.36,-1.749,-20.72,30.07,-19.29,-38.77,-13.78,-10.02,4.753,-8.835,2.423,-19.58,0,0,0,0,0,0,0,0,0,0,0,0,0,0,0,0,
784,-29.09,-14.55,-56.46,-29.29,-24.35,-1.947,11.35,-1.137,-22.59,-32.42,0.9878,-2.295,15.5,-1.572,2.356,-9.789,0,0,0,0,0,0,0,0,0,0,0,0,0,0,0,0,
785,4.323,2.582,30.55,-21.03,-13.49,-11.09,6.595,-19.7,-12.81,-22.13,-2.005,-2.442,18.99,4.239,12.38,-3.954,0,0,0,0,0,0,0,0,0,0,0,0,0,0,0,0,
786,11.21,5.671,23.05,-18.74,-18.94,-12.61,-26.82,-49.09,-15.0,-18.2,-19.73,-14.13,-5.092,-8.825,8.104,-20.18,0,0,0,0,0,0,0,0,0,0,0,0,0,0,0,0,
787,-7.66,-6.253,-20.08,-21.12,-35.42,-8.664,-25.69,-44.99,-22.47,-15.01,-27.44,-9.016,-24.68,-17.38,-12.13,-22.28,0,0,0,0,0,0,0,0,0,0,0,0,0,0,0,0,
788,-16.2,-20.35,2.949,-13.8,-28.9,-0.608,-15.58,7.187,-19.13,-17.95,-21.59,3.587,-16.5,-7.748,-13.76,-9.972,0,0,0,0,0,0,0,0,0,0,0,0,0,0,0,0,
789,-11.63,-30.91,-15.38,-4.259,-16.84,8.727,-40.51,25.17,-22.45,-21.52,-19.83,8.146,-6.304,0.5175,0.508,-11.43,0,0,0,0,0,0,0,0,0,0,0,0,0,0,0,0,
790,-11.0,-16.08,-55.88,-20.06,-19.83,-4.282,-36.87,29.05,-25.5,-16.22,-27.53,3.71,-18.63,-6.869,-0.6242,-14.37,0,0,0,0,0,0,0,0,0,0,0,0,0,0,0,0,
791,-3.537,11.37,-3.422,-35.72,-28.27,-21.69,11.65,34.57,-25.47,-16.53,-32.79,-10.22,-40.97,-21.7,-14.74,-12.46,0,0,0,0,0,0,0,0,0,0,0,0,0,0,0,0,
792,4.146,4.881,19.9,-12.53,-32.15,-11.53,15.24,-3.249,-35.98,-22.23,-28.96,-15.34,-46.59,-25.36,-16.43,-16.2,0,0,0,0,0,0,0,0,0,0,0,0,0,0,0,0,
793,-13.0,-14.67,-43.58,3.149,-23.55,-5.043,-18.81,-11.89,-31.62,-20.87,-20.31,-4.725,-32.57,-14.72,-3.539,-12.94,0,0,0,0,0,0,0,0,0,0,0,0,0,0,0,0,
794,-26.03,-11.59,-45.64,-10.57,-14.53,-13.97,-12.88,31.12,-12.32,-20.45,-13.15,2.596,-24.43,-8.438,0.0859,-2.221,0,0,0,0,0,0,0,0,0,0,0,0,0,0,0,0,
795,-10.21,-6.289,5.023,-3.718,-23.44,-9.06,13.56,12.38,-17.54,-19.3,-9.202,-4.198,-34.71,-17.12,-9.785,-6.568,0,0,0,0,0,0,0,0,0,0,0,0,0,0,0,0,
796,3.015,-0.9886,11.83,3.919,-29.51,-8.284,11.74,-45.07,-35.52,-13.62,-6.501,-19.16,-39.93,-24.98,-7.191,-18.25,0,0,0,0,0,0,0,0,0,0,0,0,0,0,0,0,
797,11.68,12.36,5.423,-12.58,-8.741,-15.4,3.555,-34.79,-26.75,-10.01,-4.739,-21.55,-25.55,-14.87,5.761,-13.9,0,0,0,0,0,0,0,0,0,0,0,0,0,0,0,0,
798,26.07,18.28,1.882,-2.924,20.86,7.015,17.93,-0.0644,-0.5269,5.307,1.579,-6.527,-9.727,1.929,8.715,-3.274,0,0,0,0,0,0,0,0,0,0,0,0,0,0,0,0,
799,21.94,24.37,-3.599,16.48,29.69,27.85,27.46,-1.817,5.138,25.15,12.16,2.362,-3.824,4.823,12.53,-1.196,0,0,0,0,0,0,0,0,0,0,0,0,0,0,0,0,
800,15.71,24.65,28.44,2.32,14.94,5.919,17.94,3.78,-6.117,15.68,9.4,-2.088,-5.903,-3.855,13.83,-0.9297,0,0,0,0,0,0,0,0,0,0,0,0,0,0,0,0,
801,21.84,-6.024,45.96,-11.49,-2.04,-13.14,15.03,16.74,-8.113,-4.661,-6.477,-10.02,-18.16,-13.23,-5.728,-3.547,0,0,0,0,0,0,0,0,0,0,0,0,0,0,0,0,
802,-3.06,-31.97,-10.98,-18.82,-9.825,-4.377,-2.254,2.872,-12.2,-3.388,-19.5,-11.36,-36.16,-23.06,-23.65,-14.09,0,0,0,0,0,0,0,0,0,0,0,0,0,0,0,0,
803,-29.09,-15.2,-38.34,-26.66,-18.46,-5.414,-35.2,0.9628,-22.43,-0.954,-28.18,-9.15,-50.08,-34.38,-26.68,-24.78,0,0,0,0,0,0,0,0,0,0,0,0,0,0,0,0,
804,2.586,9.601,6.801,-10.9,-28.5,-19.18,-20.05,-0.2463,-24.4,-12.78,-30.59,-28.48,-54.19,-44.95,-34.14,-33.75,0,0,0,0,0,0,0,0,0,0,0,0,0,0,0,0,
805,19.7,4.879,-0.7716,-1.592,-30.4,-21.33,9.732,-39.74,-30.3,-20.43,-29.17,-45.05,-47.99,-46.91,-37.91,-35.8,0,0,0,0,0,0,0,0,0,0,0,0,0,0,0,0,
806,-15.11,-13.25,-53.89,-12.91,-25.93,-13.88,-6.641,-26.16,-29.83,-15.27,-27.35,-17.36,-39.92,-34.95,-24.24,-23.2,0,0,0,0,0,0,0,0,0,0,0,0,0,0,0,0,
807,-10.42,-10.91,-32.77,-7.266,-17.46,-6.832,-6.259,40.89,-10.85,-6.69,-13.08,-1.128,-35.24,-24.52,-12.45,-15.72,0,0,0,0,0,0,0,0,0,0,0,0,0,0,0,0,
808,17.06,-2.036,20.98,2.116,-10.9,-1.681,19.96,8.423,-12.37,-1.186,-3.718,-25.79,-31.16,-24.15,-18.08,-20.37,0,0,0,0,0,0,0,0,0,0,0,0,0,0,0,0,
809,-8.97,-15.22,25.08,1.64,-13.34,1.939,1.839,-61.75,-23.32,6.132,-15.38,-20.92,-22.69,-15.58,-22.11,-11.0,0,0,0,0,0,0,0,0,0,0,0,0,0,0,0,0,
810,-20.76,-13.35,9.145,-2.296,-8.342,-0.1205,-16.21,-19.93,-0.5315,15.34,-11.61,6.901,-7.591,-2.363,-6.904,2.922,0,0,0,0,0,0,0,0,0,0,0,0,0,0,0,0,
811,10.5,11.63,1.889,-19.71,2.951,-7.557,14.02,27.0,9.431,12.68,3.954,2.319,-3.356,-5.649,2.32,-2.616,0,0,0,0,0,0,0,0,0,0,0,0,0,0,0,0,
812,10.34,3.34,6.386,-18.26,-4.386,-6.898,22.94,-1.546,-19.76,-0.7301,-6.839,-6.602,-17.82,-11.88,-8.84,-5.35,0,0,0,0,0,0,0,0,0,0,0,0,0,0,0,0,
813,6.133,-8.758,8.348,2.834,-7.252,3.496,-1.038,-7.687,-24.89,-3.409,-17.88,-5.487,-23.61,-8.589,-12.21,1.624,0,0,0,0,0,0,0,0,0,0,0,0,0,0,0,0,
814,25.52,18.74,-19.12,-2.918,13.5,14.13,-2.04,-4.498,-2.696,10.18,-10.71,-14.59,-16.22,-8.988,-8.637,-4.013,0,0,0,0,0,0,0,0,0,0,0,0,0,0,0,0,
815,12.33,31.23,-28.35,-1.437,23.26,24.45,-12.33,-28.06,4.712,22.51,-9.241,-11.26,-10.35,-7.033,-7.987,-7.43,0,0,0,0,0,0,0,0,0,0,0,0,0,0,0,0,
816,-1.062,17.88,3.354,13.79,17.39,23.26,-42.08,-7.121,12.22,21.38,-1.526,5.314,-0.0019,2.043,7.052,2.203,0,0,0,0,0,0,0,0,0,0,0,0,0,0,0,0,
817,21.28,11.39,4.853,-6.355,7.877,8.908,-19.06,16.16,14.74,16.51,12.82,5.907,-3.326,1.003,7.962,0.1613,0,0,0,0,0,0,0,0,0,0,0,0,0,0,0,0,
818,19.38,-2.082,-9.804,-8.89,-5.452,11.46,19.42,-15.45,-6.288,20.16,5.621,0.2136,-26.33,-1.91,-21.33,-7.739,0,0,0,0,0,0,0,0,0,0,0,0,0,0,0,0,
819,1.141,-11.24,-0.7607,25.42,4.036,27.77,8.067,-12.74,-8.413,25.79,5.773,0.6004,-22.54,6.995,-15.94,1.946,0,0,0,0,0,0,0,0,0,0,0,0,0,0,0,0,
820,8.616,-6.306,-17.41,15.7,15.35,18.8,3.431,12.42,3.852,22.3,29.46,-0.899,-4.93,8.078,21.42,13.47,0,0,0,0,0,0,0,0,0,0,0,0,0,0,0,0,
821,9.955,-10.93,-31.76,-18.64,-12.54,-9.736,0.1412,-15.68,-17.14,8.657,19.4,-6.392,-22.44,-6.74,8.268,3.451,0,0,0,0,0,0,0,0,0,0,0,0,0,0,0,0,
822,-1.385,-7.113,-6.703,-15.18,-22.91,-18.1,-42.93,-26.69,-29.02,-1.948,-18.23,-15.06,-41.41,-19.08,-41.0,-16.47,0,0,0,0,0,0,0,0,0,0,0,0,0,0,0,0,
823,-2.137,6.921,-7.214,4.897,0.4946,-3.21,-48.42,-4.782,-9.305,7.182,-16.43,-18.61,-34.72,-20.21,-49.8,-21.56,0,0,0,0,0,0,0,0,0,0,0,0,0,0,0,0,
824,-2.908,1.73,-8.65,15.94,-10.73,3.515,-5.035,-2.14,-19.09,18.07,4.854,-11.19,-33.74,-14.2,-23.12,-12.57,0,0,0,0,0,0,0,0,0,0,0,0,0,0,0,0,
825,-7.399,-0.2148,12.63,11.17,-22.98,-4.885,11.1,29.36,-40.6,9.769,0.0182,-6.457,-37.36,-10.53,-12.75,-8.065,0,0,0,0,0,0,0,0,0,0,0,0,0,0,0,0,
826,-13.59,6.528,-27.0,-1.487,7.641,-6.581,-4.441,57.3,-26.4,7.174,-9.8,-10.14,-32.92,-14.23,-22.35,-11.29,0,0,0,0,0,0,0,0,0,0,0,0,0,0,0,0,
827,-19.22,-5.9,-65.55,-1.867,7.704,-4.861,-33.66,9.693,-16.73,11.71,-11.23,-8.913,-30.03,-13.97,-19.98,-12.29,0,0,0,0,0,0,0,0,0,0,0,0,0,0,0,0,
828,-6.133,-18.16,-20.93,-5.028,-28.1,-13.8,-36.97,-20.32,-24.96,-0.7434,-10.36,3.602,-23.61,-3.51,-1.454,-4.663,0,0,0,0,0,0,0,0,0,0,0,0,0,0,0,0,
829,13.29,-15.43,11.59,-9.915,-24.4,-16.5,-10.79,2.418,-21.48,-3.224,-2.954,14.53,-12.46,6.636,7.86,7.236,0,0,0,0,0,0,0,0,0,0,0,0,0,0,0,0,
830,17.75,-4.706,7.521,2.076,-6.198,-9.784,-42.21,-1.104,-15.32,12.26,-3.538,9.642,-9.961,9.22,-0.6095,8.735,0,0,0,0,0,0,0,0,0,0,0,0,0,0,0,0,
831,13.53,12.25,-17.9,-3.516,-16.49,-13.86,-84.88,-12.63,-10.55,8.296,-12.06,1.226,-19.03,6.925,-7.833,0.6328,0,0,0,0,0,0,0,0,0,0,0,0,0,0,0,0,
832,-11.1,3.618,-93.31,-20.35,-9.98,-12.83,-51.69,-8.584,-9.009,2.55,-4.064,10.58,-25.67,12.21,1.773,4.492,0,0,0,0,0,0,0,0,0,0,0,0,0,0,0,0,
833,-38.06,-19.96,-96.88,-3.894,20.71,4.185,-23.38,-3.536,-14.29,18.19,10.72,24.57,-14.42,27.22,10.65,18.53,0,0,0,0,0,0,0,0,0,0,0,0,0,0,0,0,
834,-15.12,-8.354,7.341,2.327,17.04,1.806,-8.774,17.37,-5.903,18.21,14.5,21.98,-2.097,29.3,2.452,20.59,0,0,0,0,0,0,0,0,0,0,0,0,0,0,0,0,
835,18.43,2.609,42.61,-18.37,-11.12,-14.48,26.58,11.69,-2.15,1.328,15.51,14.17,-5.109,17.98,3.606,14.92,0,0,0,0,0,0,0,0,0,0,0,0,0,0,0,0,
836,9.595,-8.65,1.201,-10.62,-5.651,-9.708,14.24,-19.08,-9.175,2.453,17.95,6.537,-5.145,11.26,15.48,9.317,0,0,0,0,0,0,0,0,0,0,0,0,0,0,0,0,
837,-2.421,-5.513,-14.31,-0.2659,11.79,-6.715,3.092,5.849,6.433,3.446,18.63,-10.17,-6.982,-2.353,0.5206,-8.781,0,0,0,0,0,0,0,0,0,0,0,0,0,0,0,0,
838,-8.569,-19.06,-12.16,-10.9,-3.549,-13.04,27.95,16.51,1.282,-8.417,11.59,-19.33,-18.8,-18.43,-21.68,-25.68,0,0,0,0,0,0,0,0,0,0,0,0,0,0,0,0,
839,-21.74,-37.33,4.481,5.351,-7.888,2.132,-8.549,-39.53,-25.75,2.005,-3.645,-15.8,-17.33,-12.82,-20.21,-20.44,0,0,0,0,0,0,0,0,0,0,0,0,0,0,0,0,
840,-5.24,1.291,23.76,21.37,24.92,10.82,-40.83,-23.99,3.961,20.9,-8.792,-19.95,-15.42,-3.689,-19.07,-13.05,0,0,0,0,0,0,0,0,0,0,0,0,0,0,0,0,
841,18.46,29.06,18.19,2.949,32.44,-5.086,8.082,50.4,29.31,11.07,0.0983,-16.02,-26.19,-1.087,-16.48,-8.381,0,0,0,0,0,0,0,0,0,0,0,0,0,0,0,0,
842,1.631,5.856,2.793,6.415,12.64,2.086,32.6,43.53,-4.35,7.655,6.311,8.284,-19.74,13.5,-3.485,8.147,0,0,0,0,0,0,0,0,0,0,0,0,0,0,0,0,
843,-9.611,5.882,-14.33,30.28,20.08,25.3,6.384,7.38,-5.07,27.71,7.387,17.56,-4.923,21.83,-11.44,12.08,0,0,0,0,0,0,0,0,0,0,0,0,0,0,0,0,
844,15.73,16.97,-5.462,25.69,27.81,19.8,-11.32,3.404,21.24,29.6,5.95,7.027,-4.954,10.98,-23.09,-2.681,0,0,0,0,0,0,0,0,0,0,0,0,0,0,0,0,
845,27.23,4.841,4.395,21.06,11.26,8.602,-8.677,-13.51,11.33,24.07,3.804,7.139,-2.134,9.839,-0.3697,-3.302,0,0,0,0,0,0,0,0,0,0,0,0,0,0,0,0,
846,7.259,9.047,-53.71,25.1,10.86,13.31,0.1442,-20.3,4.064,33.95,7.514,12.92,2.913,18.45,19.36,2.959,0,0,0,0,0,0,0,0,0,0,0,0,0,0,0,0,
847,-4.02,19.13,-74.16,5.713,19.43,6.247,-21.34,-2.689,10.75,30.75,11.34,8.895,-3.081,13.76,8.577,0.1849,0,0,0,0,0,0,0,0,0,0,0,0,0,0,0,0,
848,3.916,1.404,12.53,0.822,7.491,-5.891,-43.44,-3.476,8.163,19.26,10.92,5.046,-8.068,6.983,2.12,3.71,0,0,0,0,0,0,0,0,0,0,0,0,0,0,0,0,
849,2.124,-21.87,37.18,17.65,-4.177,1.53,-28.14,-14.47,3.013,19.84,6.262,4.822,-10.74,7.054,3.558,4.034,0,0,0,0,0,0,0,0,0,0,0,0,0,0,0,0,
850,-9.62,-20.43,-40.56,-5.645,-8.233,0.1528,-34.64,-13.47,-12.0,8.875,-6.455,-0.1661,-18.68,-2.781,-8.146,-8.83,0,0,0,0,0,0,0,0,0,0,0,0,0,0,0,0,
851,-9.88,5.578,-64.47,-29.63,-17.8,-22.62,-47.89,6.868,-25.29,-12.23,-5.658,-1.749,-21.91,-13.24,-11.86,-9.084,0,0,0,0,0,0,0,0,0,0,0,0,0,0,0,0,
852,-5.084,9.729,-14.77,-3.37,-27.01,-30.7,-28.76,20.12,-22.47,-17.45,7.538,0.4529,-21.71,-11.71,-2.795,-2.344,0,0,0,0,0,0,0,0,0,0,0,0,0,0,0,0,
853,-2.688,-19.64,9.985,3.626,-29.06,-25.17,-30.28,-18.89,-24.57,-13.94,-7.69,-14.32,-31.36,-20.88,-12.1,-15.59,0,0,0,0,0,0,0,0,0,0,0,0,0,0,0,0,
