%OpenBCI Raw EXG Data
%Number of channels = 16
%Sample Rate = 125 Hz
%Board = OpenBCI_GUI$BoardCytonSerialDaisy
Sample Index,EXG Channel 0,EXG Channel 1,EXG Channel 2,EXG Channel 3,EXG Channel 4,EXG Channel 5,EXG Channel 6,EXG Channel 7,EXG Channel 8,EXG Channel 9,EXG Channel 10,EXG Channel 11,EXG Channel 12,EXG Channel 13,EXG Channel 14,EXG Channel 15,Accel Channel 0,Accel Channel 1,Accel Channel 2,Other,Other.1,Other.2,Other.3,Other.4,Other.5,Other.6,Analog Channel 0,Analog Channel 1,Analog Channel 2,Timestamp,Other.7,Timestamp (Formatted),Annotations
1,0.0,0.0,-0.0,-0.0,-0.0,0.0,0.0,0.0,-0.0,-0.0,0.0,-0.0,0.0,-0.0,-0.0,-0.0,0,0,0,0,0,0,0,0,0,0,0,0,0,0,0,0,T0
2,8.465,3.595,5.58,-16.14,8.687,-4.104,-31.95,-12.33,15.77,-0.7918,-23.71,-25.32,-25.36,-35.01,-33.42,-35.22,0,0,0,0,0,0,0,0,0,0,0,0,0,0,0,0,
3,21.8,0.3858,6.49,-4.216,21.49,-0.5976,-34.86,-27.8,15.41,-28.66,-28.2,-8.495,-24.96,-28.85,-21.52,-24.4,0,0,0,0,0,0,0,0,0,0,0,0,0,0,0,0,
4,25.61,-2.419,28.83,-7.003,18.38,3.174,-7.555,-39.73,2.417,-27.51,-15.45,1.515,-16.99,-16.76,-3.015,-3.436,0,0,0,0,0,0,0,0,0,0,0,0,0,0,0,0,
5,15.9,-7.412,48.06,-24.35,0.3232,1.478,8.524,-35.14,-6.894,-0.5563,-2.229,-11.69,-10.25,-12.2,6.61,8.165,0,0,0,0,0,0,0,0,0,0,0,0,0,0,0,0,
6,-0.9408,-14.64,22.35,-27.1,-9.965,-5.83,-30.63,-30.84,6.008,6.117,-13.56,-21.42,-7.895,-8.129,8.788,8.829,0,0,0,0,0,0,0,0,0,0,0,0,0,0,0,0,
7,-16.51,-21.12,-7.987,-37.45,-15.19,-20.41,-58.79,-32.03,15.08,-9.907,-36.18,-23.83,-17.86,-10.77,-1.917,-2.651,0,0,0,0,0,0,0,0,0,0,0,0,0,0,0,0,
8,-10.17,-20.59,8.46,-37.25,-15.69,-22.32,-12.58,-5.501,-5.159,-28.7,-30.73,-13.42,-24.15,-4.788,-3.683,-2.064,0,0,0,0,0,0,0,0,0,0,0,0,0,0,0,0,
9,2.073,-12.28,30.07,-1.078,-8.488,-6.293,1.007,24.44,-19.34,-24.03,-24.32,-1.857,-27.27,0.7265,-8.35,-1.644,0,0,0,0,0,0,0,0,0,0,0,0,0,0,0,0,
10,-12.77,-17.85,11.01,7.213,-14.98,-8.246,-52.36,10.79,-18.79,-11.88,-49.75,-7.513,-37.81,-11.89,-29.58,-18.05,0,0,0,0,0,0,0,0,0,0,0,0,0,0,0,0,
11,-17.95,-21.37,-6.325,-18.68,-21.32,-19.57,-57.72,-4.621,-18.93,-19.52,-66.48,-12.98,-36.37,-15.25,-39.75,-25.25,0,0,0,0,0,0,0,0,0,0,0,0,0,0,0,0,
12,1.969,-0.2465,5.668,-16.8,-5.089,-11.8,-40.78,10.83,-6.571,-21.05,-61.14,-10.96,-32.56,-10.56,-49.56,-29.21,0,0,0,0,0,0,0,0,0,0,0,0,0,0,0,0,
13,-6.559,5.333,15.67,-9.35,1.6,-10.94,-58.16,13.66,-0.7617,-13.83,-60.88,-11.58,-47.81,-18.64,-63.76,-40.04,0,0,0,0,0,0,0,0,0,0,0,0,0,0,0,0,
14,-28.46,-8.848,17.06,-18.48,-7.398,-20.93,-45.04,-4.917,-18.44,-20.77,-61.32,-18.5,-56.62,-24.98,-52.79,-38.94,0,0,0,0,0,0,0,0,0,0,0,0,0,0,0,0,
15,-12.96,-8.559,18.76,-13.68,-3.912,-19.96,-25.27,-8.355,-30.06,-32.31,-58.03,-35.48,-50.52,-30.49,-36.23,-36.01,0,0,0,0,0,0,0,0,0,0,0,0,0,0,0,0,
16,20.72,-3.457,26.23,-9.28,5.715,-21.01,-40.42,4.067,-25.53,-45.34,-49.94,-44.61,-44.94,-38.58,-30.45,-37.39,0,0,0,0,0,0,0,0,0,0,0,0,0,0,0,0,
17,40.89,7.544,45.02,-20.19,7.968,-26.4,-27.48,5.647,-17.89,-61.28,-36.33,-35.85,-37.08,-38.16,-21.8,-34.79,0,0,0,0,0,0,0,0,0,0,0,0,0,0,0,0,
18,37.65,23.97,47.21,-22.15,-1.565,-26.81,-4.55,-6.954,-22.08,-72.07,-42.09,-33.62,-38.57,-44.1,-28.64,-43.36,0,0,0,0,0,0,0,0,0,0,0,0,0,0,0,0,
19,17.15,15.24,21.53,-19.44,-21.5,-31.57,-22.63,-20.37,-39.38,-77.85,-59.19,-40.15,-53.39,-54.27,-45.94,-53.63,0,0,0,0,0,0,0,0,0,0,0,0,0,0,0,0,
20,8.471,-0.0108,13.05,-23.43,-28.02,-33.9,-28.3,-24.94,-35.18,-67.88,-46.74,-35.35,-47.02,-39.99,-34.31,-37.27,0,0,0,0,0,0,0,0,0,0,0,0,0,0,0,0,
21,21.58,7.974,42.7,-13.36,-15.84,-24.15,1.54,-4.587,-3.465,-46.37,-16.98,-18.9,-16.99,-13.78,-9.699,-14.06,0,0,0,0,0,0,0,0,0,0,0,0,0,0,0,0,
22,35.03,11.9,64.48,-0.154,-16.47,-22.28,15.28,18.83,10.45,-45.91,-11.36,-9.572,-7.627,-9.744,-11.7,-15.73,0,0,0,0,0,0,0,0,0,0,0,0,0,0,0,0,
23,33.53,2.182,48.14,-22.78,-28.69,-31.62,4.138,-6.289,0.7411,-53.09,-23.53,-19.21,-22.36,-20.12,-23.55,-25.5,0,0,0,0,0,0,0,0,0,0,0,0,0,0,0,0,
24,21.73,2.738,40.34,-58.65,-20.65,-30.26,0.9758,-39.42,3.228,-35.13,-25.81,-33.93,-29.13,-22.77,-22.79,-24.27,0,0,0,0,0,0,0,0,0,0,0,0,0,0,0,0,
25,10.83,0.4904,59.2,-67.03,-10.02,-29.03,-1.833,-14.01,11.04,-29.79,-24.0,-40.9,-33.09,-25.88,-27.54,-27.96,0,0,0,0,0,0,0,0,0,0,0,0,0,0,0,0,
26,9.403,-13.68,52.51,-62.31,-19.23,-38.45,-21.12,22.41,3.704,-57.03,-24.94,-37.97,-40.59,-27.58,-38.12,-33.37,0,0,0,0,0,0,0,0,0,0,0,0,0,0,0,0,
27,14.67,-14.5,21.99,-63.2,-24.5,-41.82,-33.54,11.35,-3.469,-65.3,-27.34,-30.58,-48.52,-22.69,-48.21,-34.38,0,0,0,0,0,0,0,0,0,0,0,0,0,0,0,0,
28,4.428,-19.68,-0.6398,-72.9,-30.13,-50.78,-47.01,-14.68,-19.52,-61.3,-44.3,-35.5,-73.14,-34.3,-68.58,-47.8,0,0,0,0,0,0,0,0,0,0,0,0,0,0,0,0,
29,-13.65,-39.05,-15.73,-83.96,-39.16,-55.48,-74.81,0.7324,-44.22,-70.47,-55.13,-37.03,-85.66,-43.37,-72.31,-49.81,0,0,0,0,0,0,0,0,0,0,0,0,0,0,0,0,
30,-1.967,-22.97,-5.091,-76.41,-28.28,-28.74,-68.7,38.53,-38.86,-60.21,-46.9,-24.27,-71.34,-31.79,-57.05,-31.71,0,0,0,0,0,0,0,0,0,0,0,0,0,0,0,0,
31,16.75,7.122,23.27,-67.45,-27.21,-19.42,-38.9,25.55,-42.36,-59.14,-57.51,-26.24,-88.01,-41.44,-65.5,-34.87,0,0,0,0,0,0,0,0,0,0,0,0,0,0,0,0,
32,14.15,-5.045,34.03,-73.96,-37.64,-38.93,-50.24,-5.96,-76.8,-87.77,-72.19,-25.03,-119.5,-54.96,-76.55,-44.79,0,0,0,0,0,0,0,0,0,0,0,0,0,0,0,0,
33,23.78,-22.36,28.6,-72.9,-22.2,-35.05,-79.27,21.67,-69.59,-82.61,-68.34,-8.378,-119.8,-40.03,-73.42,-41.98,0,0,0,0,0,0,0,0,0,0,0,0,0,0,0,0,
34,40.33,-12.48,6.858,-70.43,-21.26,-30.48,-75.05,51.05,-51.84,-61.46,-75.6,-15.85,-120.0,-36.24,-83.61,-48.66,0,0,0,0,0,0,0,0,0,0,0,0,0,0,0,0,
35,32.28,3.19,-8.013,-75.19,-38.34,-36.59,-43.81,37.95,-70.28,-57.45,-70.15,-29.82,-114.1,-40.12,-83.06,-47.61,0,0,0,0,0,0,0,0,0,0,0,0,0,0,0,0,
36,18.73,12.82,19.76,-65.06,-18.17,-21.27,-12.18,37.9,-50.31,-32.22,-35.36,-30.44,-84.88,-32.01,-61.56,-35.15,0,0,0,0,0,0,0,0,0,0,0,0,0,0,0,0,
37,14.08,4.168,42.13,-56.88,3.631,-14.23,5.615,42.52,-4.437,-17.22,-14.41,-41.04,-63.49,-35.7,-48.32,-36.28,0,0,0,0,0,0,0,0,0,0,0,0,0,0,0,0,
38,23.66,-16.21,32.48,-69.82,-3.524,-25.93,29.27,28.22,-0.1059,-41.81,-2.808,-43.39,-48.45,-40.76,-36.81,-36.1,0,0,0,0,0,0,0,0,0,0,0,0,0,0,0,0,
39,56.86,-20.04,48.48,-70.63,4.651,-22.53,61.37,29.44,-5.594,-58.83,8.667,-34.87,-40.9,-37.31,-28.28,-30.55,0,0,0,0,0,0,0,0,0,0,0,0,0,0,0,0,
40,63.74,-20.68,65.14,-63.27,19.88,-16.68,48.5,28.15,0.6601,-58.72,-4.191,-40.74,-55.02,-41.68,-39.66,-37.96,0,0,0,0,0,0,0,0,0,0,0,0,0,0,0,0,
41,-6.699,-49.91,11.4,-101.0,-5.683,-35.93,-7.693,-3.129,-2.467,-59.12,-31.91,-46.84,-75.15,-55.05,-65.24,-56.72,0,0,0,0,0,0,0,0,0,0,0,0,0,0,0,0,
42,-79.82,-81.01,-40.85,-153.2,-46.9,-68.55,-28.35,-12.22,-26.83,-80.14,-47.32,-48.98,-96.52,-75.02,-86.71,-70.43,0,0,0,0,0,0,0,0,0,0,0,0,0,0,0,0,
43,-51.06,-63.55,-9.207,-137.2,-40.46,-71.96,-0.4155,18.43,-49.46,-120.7,-35.43,-44.03,-103.4,-75.27,-81.73,-56.73,0,0,0,0,0,0,0,0,0,0,0,0,0,0,0,0,
44,30.26,-24.12,25.17,-88.39,-6.502,-37.54,17.26,30.67,-24.05,-117.7,-16.08,-13.77,-82.09,-42.49,-63.65,-28.71,0,0,0,0,0,0,0,0,0,0,0,0,0,0,0,0,
45,57.52,-16.94,6.949,-91.14,-3.848,-15.14,10.71,14.36,9.373,-74.02,-24.1,3.098,-70.49,-25.98,-64.57,-22.75,0,0,0,0,0,0,0,0,0,0,0,0,0,0,0,0,
46,29.97,-27.1,-4.82,-126.5,-17.42,-26.11,5.978,-3.472,-7.275,-71.55,-39.48,-24.36,-81.29,-41.26,-71.73,-29.16,0,0,0,0,0,0,0,0,0,0,0,0,0,0,0,0,
47,-11.33,-34.3,-2.778,-137.2,-21.93,-42.29,8.9,-20.92,-25.77,-99.23,-33.01,-39.96,-81.97,-42.53,-63.49,-21.33,0,0,0,0,0,0,0,0,0,0,0,0,0,0,0,0,
48,-24.05,-42.13,4.812,-116.3,-17.91,-39.02,8.136,-14.55,-10.54,-89.8,-20.19,-19.23,-65.25,-22.25,-50.06,-8.657,0,0,0,0,0,0,0,0,0,0,0,0,0,0,0,0,
49,11.46,-42.58,32.32,-99.16,-0.5225,-21.55,1.665,10.63,11.09,-60.04,-18.8,-14.35,-51.99,-16.98,-48.42,-12.9,0,0,0,0,0,0,0,0,0,0,0,0,0,0,0,0,
50,23.39,-40.05,33.71,-107.2,4.613,-21.43,12.79,4.612,22.39,-63.16,-23.48,-22.94,-48.28,-25.67,-48.59,-20.61,0,0,0,0,0,0,0,0,0,0,0,0,0,0,0,0,
51,-13.59,-29.45,6.971,-106.1,-4.236,-33.78,38.03,-8.571,24.52,-82.65,-18.15,-12.02,-39.41,-19.11,-35.7,-9.482,0,0,0,0,0,0,0,0,0,0,0,0,0,0,0,0,
52,-21.16,-7.98,5.089,-84.52,7.555,-28.11,31.11,-0.006,29.3,-80.11,-11.63,-18.66,-39.25,-15.24,-36.09,-9.32,0,0,0,0,0,0,0,0,0,0,0,0,0,0,0,0,
53,6.299,-7.006,10.01,-74.49,14.55,-22.65,6.881,-1.583,23.89,-74.02,-22.33,-48.13,-65.59,-36.9,-55.72,-37.7,0,0,0,0,0,0,0,0,0,0,0,0,0,0,0,0,
54,20.71,-20.94,6.544,-76.16,-3.264,-34.55,10.08,-7.086,-9.313,-83.61,-32.2,-48.56,-85.64,-53.91,-56.97,-52.14,0,0,0,0,0,0,0,0,0,0,0,0,0,0,0,0,
55,19.33,-23.71,15.93,-78.52,-7.405,-40.16,12.65,-13.74,-33.67,-87.14,-28.73,-33.28,-83.61,-47.25,-45.25,-41.43,0,0,0,0,0,0,0,0,0,0,0,0,0,0,0,0,
56,4.944,-22.52,21.75,-69.39,2.651,-33.84,-5.915,-31.37,-24.52,-70.73,-25.13,-35.04,-80.84,-37.51,-42.53,-34.45,0,0,0,0,0,0,0,0,0,0,0,0,0,0,0,0,
57,-15.23,-19.98,6.794,-45.09,-10.41,-39.81,-15.48,-19.5,-14.54,-60.23,-26.84,-35.93,-82.73,-41.13,-43.03,-35.32,0,0,0,0,0,0,0,0,0,0,0,0,0,0,0,0,
58,-27.12,-24.44,-17.45,-40.83,-43.66,-62.77,-8.42,8.696,-32.2,-82.27,-34.75,-24.73,-89.64,-48.19,-48.08,-34.55,0,0,0,0,0,0,0,0,0,0,0,0,0,0,0,0,
59,-30.65,-40.92,-32.35,-49.67,-54.77,-71.39,-10.15,4.317,-56.06,-100.4,-43.68,-19.54,-92.68,-43.74,-50.07,-31.41,0,0,0,0,0,0,0,0,0,0,0,0,0,0,0,0,
60,-30.22,-42.75,-25.18,-37.12,-33.37,-55.64,-27.92,-3.006,-46.25,-80.07,-47.23,-31.6,-78.64,-38.26,-37.06,-27.67,0,0,0,0,0,0,0,0,0,0,0,0,0,0,0,0,
61,-38.96,-29.85,-6.563,-25.9,-19.79,-44.46,-23.44,10.56,-24.27,-61.04,-45.48,-39.93,-63.25,-37.57,-24.75,-24.0,0,0,0,0,0,0,0,0,0,0,0,0,0,0,0,0,
62,-51.45,-31.61,-1.197,-29.74,-27.11,-47.07,-3.467,19.54,-29.33,-62.88,-37.04,-35.9,-58.84,-35.54,-25.51,-25.05,0,0,0,0,0,0,0,0,0,0,0,0,0,0,0,0,
63,-39.53,-44.75,-14.24,-33.26,-26.69,-49.47,-20.82,14.47,-27.49,-59.27,-28.83,-36.97,-52.89,-38.04,-27.93,-30.04,0,0,0,0,0,0,0,0,0,0,0,0,0,0,0,0,
64,-21.64,-38.98,-21.25,-29.21,-16.05,-42.85,-32.59,2.696,-2.868,-46.61,-27.08,-30.19,-44.96,-35.9,-25.53,-30.61,0,0,0,0,0,0,0,0,0,0,0,0,0,0,0,0,
65,-36.76,-17.94,-12.23,-11.54,-14.62,-28.29,-0.2449,-2.108,-5.925,-36.29,-30.85,-20.12,-49.8,-28.83,-29.04,-33.36,0,0,0,0,0,0,0,0,0,0,0,0,0,0,0,0,
66,-51.99,-15.04,0.3923,1.253,-9.754,-12.6,15.71,7.998,-30.27,-34.75,-37.87,-32.17,-53.8,-30.37,-31.89,-35.97,0,0,0,0,0,0,0,0,0,0,0,0,0,0,0,0,
67,-29.92,-19.11,14.79,1.139,10.76,-1.205,2.955,19.11,-22.71,-33.91,-40.03,-38.68,-39.32,-27.03,-24.41,-28.44,0,0,0,0,0,0,0,0,0,0,0,0,0,0,0,0,
68,-19.25,-5.809,11.24,10.89,9.552,-7.63,-18.71,19.49,-2.7,-38.28,-41.73,-33.04,-36.83,-26.14,-28.03,-29.93,0,0,0,0,0,0,0,0,0,0,0,0,0,0,0,0,
69,-34.97,5.649,-8.855,14.82,-17.43,-21.65,-40.87,16.21,-9.327,-56.36,-43.05,-32.78,-49.73,-33.88,-34.51,-35.87,0,0,0,0,0,0,0,0,0,0,0,0,0,0,0,0,
70,-23.54,1.74,0.7881,-8.967,-22.1,-14.24,-25.75,15.38,-16.24,-46.45,-30.75,-15.3,-40.1,-23.23,-20.2,-23.24,0,0,0,0,0,0,0,0,0,0,0,0,0,0,0,0,
71,-5.658,-15.94,16.43,-31.51,-15.26,-12.52,1.848,10.87,-9.063,-23.02,-17.14,5.561,-26.49,-12.36,-10.33,-8.683,0,0,0,0,0,0,0,0,0,0,0,0,0,0,0,0,
72,-7.838,-27.72,6.346,-23.25,-16.94,-28.2,-1.529,4.278,-10.84,-46.67,-8.468,2.99,-25.64,-13.88,-8.729,2.709,0,0,0,0,0,0,0,0,0,0,0,0,0,0,0,0,
73,6.306,-4.91,13.04,3.127,-4.045,-15.66,-13.29,0.362,-13.09,-56.08,-0.4078,-0.9051,-17.27,-2.44,-0.712,12.99,0,0,0,0,0,0,0,0,0,0,0,0,0,0,0,0,
74,13.25,15.6,15.89,13.36,-0.2932,3.427,-33.25,-5.406,-9.211,-21.42,-7.243,0.6172,-20.49,0.6496,-3.376,7.455,0,0,0,0,0,0,0,0,0,0,0,0,0,0,0,0,
75,-2.329,5.804,-14.93,3.249,-19.5,-8.477,-42.69,-1.977,-15.88,-29.67,-11.45,-0.0596,-35.06,-11.25,-5.455,5.127,0,0,0,0,0,0,0,0,0,0,0,0,0,0,0,0,
76,6.5,8.107,-13.32,-0.6456,-17.51,-10.63,-5.19,12.76,-20.85,-52.78,1.06,-0.7932,-31.35,-5.887,3.025,11.81,0,0,0,0,0,0,0,0,0,0,0,0,0,0,0,0,
77,19.91,18.19,18.37,5.383,-1.344,7.75,12.69,11.89,-8.377,-16.01,-0.7077,0.4714,-28.48,2.167,-0.9751,2.961,0,0,0,0,0,0,0,0,0,0,0,0,0,0,0,0,
78,15.67,14.76,13.21,9.626,-2.349,10.97,-20.18,4.299,6.593,18.21,-6.13,8.425,-32.23,-3.911,0.1073,-2.494,0,0,0,0,0,0,0,0,0,0,0,0,0,0,0,0,
79,28.02,33.46,7.781,19.77,0.3643,7.917,-14.47,14.26,14.27,0.208,12.91,10.31,-17.33,-4.998,24.57,13.8,0,0,0,0,0,0,0,0,0,0,0,0,0,0,0,0,
80,44.51,65.51,39.3,33.54,13.14,16.75,29.49,11.91,21.14,-12.95,23.99,0.5279,-3.555,-0.998,36.92,23.2,0,0,0,0,0,0,0,0,0,0,0,0,0,0,0,0,
81,41.86,59.7,45.19,28.9,7.859,18.22,26.69,-15.12,18.89,0.254,3.428,-6.327,-16.81,-6.542,20.05,12.71,0,0,0,0,0,0,0,0,0,0,0,0,0,0,0,0,
82,38.69,31.65,18.82,19.73,-1.855,8.868,2.293,-20.35,0.8404,-3.846,-17.88,-7.407,-35.07,-12.3,1.733,3.455,0,0,0,0,0,0,0,0,0,0,0,0,0,0,0,0,
83,42.56,27.05,21.17,30.95,10.56,7.397,-2.18,-1.801,-4.748,-16.67,-20.02,4.356,-39.9,-9.538,-3.677,0.954,0,0,0,0,0,0,0,0,0,0,0,0,0,0,0,0,
84,46.9,39.45,34.29,37.49,14.56,6.432,-29.15,0.8923,9.015,-5.976,-11.98,20.67,-40.84,-14.26,-4.5,-4.579,0,0,0,0,0,0,0,0,0,0,0,0,0,0,0,0,
85,49.44,45.21,34.96,36.8,2.618,8.575,-48.92,1.49,15.05,2.61,6.147,13.03,-36.29,-19.54,1.011,-2.907,0,0,0,0,0,0,0,0,0,0,0,0,0,0,0,0,
86,46.59,47.26,47.6,51.91,7.473,23.9,-17.46,12.25,15.55,4.501,16.03,-6.544,-36.27,-10.98,2.169,0.1878,0,0,0,0,0,0,0,0,0,0,0,0,0,0,0,0,
87,34.87,39.26,39.81,39.11,0.1738,13.0,-14.05,4.046,3.79,10.76,-9.608,-13.77,-63.96,-16.57,-20.35,-18.5,0,0,0,0,0,0,0,0,0,0,0,0,0,0,0,0,
88,17.08,12.33,5.101,-12.1,-30.04,-22.41,-51.3,-11.94,-28.07,-12.66,-30.12,-11.13,-81.64,-30.7,-37.5,-30.6,0,0,0,0,0,0,0,0,0,0,0,0,0,0,0,0,
89,9.039,6.786,10.01,-21.57,-23.87,-15.22,-52.7,-13.35,-31.31,-35.88,-11.53,0.4632,-54.21,-12.59,-22.62,-8.854,0,0,0,0,0,0,0,0,0,0,0,0,0,0,0,0,
90,22.93,46.45,37.84,13.13,6.302,20.62,-42.57,-14.22,-1.335,-0.7633,-1.954,15.17,-32.65,11.98,-8.304,10.53,0,0,0,0,0,0,0,0,0,0,0,0,0,0,0,0,
91,30.6,54.06,21.23,3.712,2.109,15.29,-59.99,-15.4,6.05,29.89,-17.58,16.75,-45.59,4.089,-14.82,2.671,0,0,0,0,0,0,0,0,0,0,0,0,0,0,0,0,
92,4.529,-8.221,-13.06,-43.3,-13.98,-16.24,-65.24,-8.096,-6.757,2.527,-15.53,12.17,-48.94,-9.483,-15.59,-7.043,0,0,0,0,0,0,0,0,0,0,0,0,0,0,0,0,
93,2.893,-15.56,8.33,-23.96,5.643,-8.796,-31.94,8.234,-3.044,-15.73,6.376,19.9,-26.98,-0.8174,1.822,3.553,0,0,0,0,0,0,0,0,0,0,0,0,0,0,0,0,
94,63.37,79.26,69.28,45.0,38.99,28.9,3.527,13.26,15.27,9.242,10.14,19.34,-15.9,5.862,6.471,9.972,0,0,0,0,0,0,0,0,0,0,0,0,0,0,0,0,
95,98.26,130.0,84.01,43.0,46.71,40.01,-10.56,-14.87,24.3,29.98,-5.857,-0.9136,-22.22,-6.313,-12.96,-8.778,0,0,0,0,0,0,0,0,0,0,0,0,0,0,0,0,
96,84.72,102.6,55.35,5.745,50.44,38.58,-40.03,-21.34,28.35,28.46,-2.598,5.233,-12.15,-7.102,-20.99,-14.97,0,0,0,0,0,0,0,0,0,0,0,0,0,0,0,0,
97,94.24,98.32,48.62,25.5,59.9,55.99,-20.7,14.99,45.26,26.88,16.38,31.21,5.009,10.09,-14.48,2.928,0,0,0,0,0,0,0,0,0,0,0,0,0,0,0,0,
98,96.15,107.4,54.56,36.97,45.42,58.81,0.1549,10.4,49.43,42.73,11.63,20.31,-2.167,14.03,-19.74,1.264,0,0,0,0,0,0,0,0,0,0,0,0,0,0,0,0,
99,59.05,92.34,36.26,1.677,27.82,36.91,-32.67,-15.62,28.86,58.03,-9.966,-7.166,-19.65,0.6465,-31.41,-18.41,0,0,0,0,0,0,0,0,0,0,0,0,0,0,0,0,
100,46.68,78.71,5.954,-14.06,26.59,23.18,-69.62,11.44,15.55,31.74,-19.19,-14.28,-32.61,-10.41,-34.22,-17.33,0,0,0,0,0,0,0,0,0,0,0,0,0,0,0,0,
101,67.21,71.11,13.68,-0.9797,25.87,29.1,-59.51,33.01,13.88,4.58,-5.425,-9.329,-34.86,-1.407,-19.74,6.017,0,0,0,0,0,0,0,0,0,0,0,0,0,0,0,0,
102,78.39,72.43,58.72,6.237,33.33,37.06,-26.96,14.23,19.22,33.11,13.52,-2.117,-28.68,12.62,-7.932,14.04,0,0,0,0,0,0,0,0,0,0,0,0,0,0,0,0,
103,67.82,77.0,52.7,-10.41,29.9,15.89,-20.15,5.896,20.85,40.25,5.355,-5.79,-44.28,-1.058,-27.4,-9.196,0,0,0,0,0,0,0,0,0,0,0,0,0,0,0,0,
104,44.58,61.68,3.601,-35.55,3.187,-18.1,-36.86,8.381,-1.496,-5.113,-4.816,-7.442,-59.56,-11.88,-38.13,-22.16,0,0,0,0,0,0,0,0,0,0,0,0,0,0,0,0,
105,35.03,44.8,8.713,-32.76,0.1485,-19.15,-42.03,7.755,-8.815,-10.58,11.26,12.49,-39.67,7.089,-15.7,-7.41,0,0,0,0,0,0,0,0,0,0,0,0,0,0,0,0,
106,37.84,47.82,30.62,-22.47,13.48,-5.482,-36.45,4.761,13.62,14.7,11.06,18.0,-33.66,12.91,-13.46,-1.929,0,0,0,0,0,0,0,0,0,0,0,0,0,0,0,0,
107,21.5,59.05,1.586,-34.75,-2.237,-12.15,-47.47,-10.2,10.54,11.8,-13.19,-5.997,-57.05,-3.298,-37.99,-13.24,0,0,0,0,0,0,0,0,0,0,0,0,0,0,0,0,
108,-8.039,55.9,-31.96,-47.33,-33.08,-36.57,-68.69,-19.76,-7.793,-3.278,-22.03,-22.11,-61.88,-17.55,-49.04,-21.54,0,0,0,0,0,0,0,0,0,0,0,0,0,0,0,0,
109,-17.63,22.35,-31.96,-63.25,-54.37,-69.05,-64.72,-25.77,-8.165,-27.77,-19.36,-22.47,-56.78,-32.97,-44.93,-22.66,0,0,0,0,0,0,0,0,0,0,0,0,0,0,0,0,
110,-8.268,-15.6,-20.85,-97.24,-67.16,-94.05,-51.07,-56.18,-22.01,-52.56,-22.94,-25.38,-66.25,-41.07,-34.6,-19.75,0,0,0,0,0,0,0,0,0,0,0,0,0,0,0,0,
111,-4.374,-15.85,-21.16,-111.0,-70.45,-93.35,-60.74,-68.8,-43.31,-47.0,-26.05,-20.62,-64.52,-28.02,-19.04,-15.97,0,0,0,0,0,0,0,0,0,0,0,0,0,0,0,0,
112,6.917,17.23,-28.37,-84.2,-60.37,-66.09,-57.81,-28.23,-34.99,-24.72,-26.21,3.757,-48.74,-11.04,-14.43,-16.53,0,0,0,0,0,0,0,0,0,0,0,0,0,0,0,0,
113,29.32,38.24,-38.1,-55.65,-49.17,-44.46,-47.18,-0.3838,-28.79,-14.72,-37.24,8.886,-58.98,-17.58,-32.87,-30.55,0,0,0,0,0,0,0,0,0,0,0,0,0,0,0,0,
114,23.79,27.67,-44.72,-40.77,-40.9,-49.96,-79.18,-13.96,-45.62,-21.53,-47.97,-21.82,-82.16,-35.02,-49.17,-44.51,0,0,0,0,0,0,0,0,0,0,0,0,0,0,0,0,
115,11.02,25.67,-22.62,-28.38,-20.83,-49.25,-102.8,-18.2,-39.54,-13.3,-32.9,-35.45,-75.04,-32.13,-45.09,-37.98,0,0,0,0,0,0,0,0,0,0,0,0,0,0,0,0,
116,23.51,44.57,-5.747,-39.74,-12.55,-39.1,-79.8,-9.079,-16.11,13.23,-22.6,-26.52,-65.79,-30.8,-46.7,-33.24,0,0,0,0,0,0,0,0,0,0,0,0,0,0,0,0,
117,22.44,50.77,-29.4,-63.33,-30.86,-48.23,-62.73,-5.074,-21.81,3.801,-38.65,-31.88,-75.98,-46.69,-54.79,-40.71,0,0,0,0,0,0,0,0,0,0,0,0,0,0,0,0,
118,6.735,49.62,-28.93,-56.56,-36.76,-57.07,-67.23,-0.8045,-38.26,-21.78,-44.39,-36.99,-75.93,-49.39,-51.23,-41.07,0,0,0,0,0,0,0,0,0,0,0,0,0,0,0,0,
119,4.205,46.31,-9.636,-45.9,-33.84,-60.76,-82.67,-1.339,-43.68,-13.85,-39.62,-26.96,-73.69,-43.34,-50.62,-38.61,0,0,0,0,0,0,0,0,0,0,0,0,0,0,0,0,
120,6.537,36.81,-38.4,-53.81,-42.54,-71.91,-91.88,3.106,-47.54,-10.77,-39.73,-13.59,-76.33,-40.23,-49.34,-31.23,0,0,0,0,0,0,0,0,0,0,0,0,0,0,0,0,
121,17.89,49.14,-61.71,-50.94,-45.3,-69.63,-72.63,7.734,-47.43,-21.18,-33.12,-10.39,-69.66,-30.29,-40.92,-16.39,0,0,0,0,0,0,0,0,0,0,0,0,0,0,0,0,
122,29.27,65.08,-35.49,-42.05,-44.92,-58.41,-59.39,-13.06,-50.34,-6.051,-32.39,-26.43,-69.29,-27.01,-43.5,-15.23,0,0,0,0,0,0,0,0,0,0,0,0,0,0,0,0,
123,25.98,48.12,-17.17,-46.65,-43.93,-58.87,-72.2,-23.2,-45.88,13.28,-43.97,-39.12,-74.91,-34.73,-49.01,-25.64,0,0,0,0,0,0,0,0,0,0,0,0,0,0,0,0,
124,28.49,29.21,-37.38,-58.34,-41.61,-67.39,-78.34,-4.881,-27.67,1.286,-52.37,-33.64,-76.61,-42.69,-50.1,-33.47,0,0,0,0,0,0,0,0,0,0,0,0,0,0,0,0,
125,36.0,36.07,-58.63,-53.93,-44.52,-70.87,-72.21,-7.735,-37.4,-19.41,-53.91,-28.28,-78.66,-45.45,-50.87,-34.7,0,0,0,0,0,0,0,0,0,0,0,0,0,0,0,0,
126,34.8,51.72,-42.86,-29.48,-31.69,-61.16,-69.43,-23.79,-56.47,-7.647,-46.89,-21.91,-69.83,-36.84,-41.41,-27.85,0,0,0,0,0,0,0,0,0,0,0,0,0,0,0,0,
127,28.27,51.73,-21.92,-27.11,-20.76,-61.45,-72.08,-14.96,-42.18,9.695,-38.34,-6.189,-59.17,-31.7,-33.76,-24.36,0,0,0,0,0,0,0,0,0,0,0,0,0,0,0,0,
128,20.11,37.41,-30.71,-40.47,-42.98,-77.27,-65.32,-6.128,-37.57,-12.32,-37.31,1.808,-64.78,-39.34,-41.05,-29.2,0,0,0,0,0,0,0,0,0,0,0,0,0,0,0,0,
129,21.35,35.84,-41.28,-34.05,-63.46,-78.66,-51.08,-27.79,-56.41,-37.18,-44.73,-15.75,-77.79,-50.23,-52.82,-39.6,0,0,0,0,0,0,0,0,0,0,0,0,0,0,0,0,
130,25.27,38.89,-49.1,-39.64,-69.78,-77.43,-58.49,-57.31,-64.77,-43.83,-55.65,-37.15,-90.12,-61.16,-62.93,-47.02,0,0,0,0,0,0,0,0,0,0,0,0,0,0,0,0,
131,17.9,26.25,-53.52,-45.96,-72.74,-78.88,-65.04,-55.55,-66.48,-53.67,-44.01,-24.08,-84.31,-51.93,-59.45,-30.31,0,0,0,0,0,0,0,0,0,0,0,0,0,0,0,0,
132,13.01,23.92,-31.15,-24.29,-56.7,-61.98,-43.24,-30.83,-52.88,-38.02,-15.73,0.0911,-60.78,-25.96,-43.23,-10.0,0,0,0,0,0,0,0,0,0,0,0,0,0,0,0,0,
133,10.15,35.5,-17.95,-35.04,-47.08,-59.47,-47.01,-20.3,-24.48,-7.81,-18.38,-4.685,-61.21,-30.32,-44.5,-23.55,0,0,0,0,0,0,0,0,0,0,0,0,0,0,0,0,
134,-3.795,27.04,-41.19,-74.81,-72.5,-89.86,-89.27,-31.88,-33.26,-25.22,-45.96,-18.25,-86.55,-60.59,-65.65,-46.93,0,0,0,0,0,0,0,0,0,0,0,0,0,0,0,0,
135,-16.32,10.96,-61.48,-78.6,-96.78,-109.6,-100.3,-52.39,-80.46,-65.17,-56.88,-24.78,-97.81,-73.38,-73.66,-49.0,0,0,0,0,0,0,0,0,0,0,0,0,0,0,0,0,
136,-15.52,15.43,-60.72,-70.32,-92.19,-103.8,-77.1,-65.47,-101.0,-71.33,-52.38,-36.86,-92.55,-71.53,-62.87,-43.42,0,0,0,0,0,0,0,0,0,0,0,0,0,0,0,0,
137,-13.82,13.67,-58.81,-77.16,-85.89,-98.94,-75.64,-67.52,-83.73,-57.67,-51.91,-46.47,-89.09,-73.29,-55.39,-39.84,0,0,0,0,0,0,0,0,0,0,0,0,0,0,0,0,
138,-13.59,1.243,-59.78,-69.26,-85.71,-96.69,-77.14,-63.09,-73.46,-51.69,-48.9,-35.01,-81.8,-63.02,-46.94,-26.9,0,0,0,0,0,0,0,0,0,0,0,0,0,0,0,0,
139,5.611,30.29,-46.97,-40.48,-61.41,-74.44,-50.83,-49.51,-69.36,-42.23,-37.56,-13.51,-68.16,-38.47,-36.7,-15.99,0,0,0,0,0,0,0,0,0,0,0,0,0,0,0,0,
140,22.12,70.24,-36.26,-20.6,-39.14,-51.11,-45.76,-54.29,-55.86,-20.97,-37.16,-18.24,-70.46,-35.2,-47.63,-27.28,0,0,0,0,0,0,0,0,0,0,0,0,0,0,0,0,
141,8.355,49.21,-42.5,-25.39,-49.32,-55.76,-57.51,-77.87,-50.52,-10.57,-34.02,-34.35,-73.78,-44.71,-48.92,-29.76,0,0,0,0,0,0,0,0,0,0,0,0,0,0,0,0,
142,18.96,26.86,-18.41,-27.84,-36.92,-53.04,-27.68,-60.93,-32.65,-14.93,1.971,-14.91,-43.87,-26.21,-14.32,-3.462,0,0,0,0,0,0,0,0,0,0,0,0,0,0,0,0,
143,68.4,69.76,28.69,-5.679,2.875,-22.64,-1.655,-29.58,11.2,-8.937,28.67,8.312,-16.81,-4.296,-2.649,3.956,0,0,0,0,0,0,0,0,0,0,0,0,0,0,0,0,
144,86.66,116.9,34.02,13.39,12.98,-5.822,-15.41,-45.65,25.28,6.653,10.73,-6.448,-28.23,-11.7,-27.06,-17.49,0,0,0,0,0,0,0,0,0,0,0,0,0,0,0,0,
145,73.66,114.5,23.7,5.262,7.828,-14.62,-20.72,-64.96,3.533,14.09,-6.534,-22.32,-43.87,-23.26,-31.56,-22.1,0,0,0,0,0,0,0,0,0,0,0,0,0,0,0,0,
146,68.49,84.6,33.17,-7.227,7.781,-21.45,-22.19,-52.79,0.0196,19.58,4.66,-9.967,-36.16,-16.28,-15.44,-3.211,0,0,0,0,0,0,0,0,0,0,0,0,0,0,0,0,
147,63.94,69.0,31.57,-5.749,4.617,-13.92,-30.9,-38.13,21.21,35.89,18.63,8.333,-15.36,0.2008,-6.921,11.81,0,0,0,0,0,0,0,0,0,0,0,0,0,0,0,0,
148,60.7,85.97,18.31,-12.25,13.32,-5.788,-24.5,-37.07,41.16,50.19,17.15,5.843,-2.511,5.594,-2.714,10.3,0,0,0,0,0,0,0,0,0,0,0,0,0,0,0,0,
149,67.51,105.8,10.94,-30.62,23.97,-11.69,-24.04,-54.15,45.91,41.97,13.09,-9.598,-5.056,-4.133,3.501,3.463,0,0,0,0,0,0,0,0,0,0,0,0,0,0,0,0,
150,70.45,96.65,3.932,-37.32,16.29,-24.29,-39.54,-70.4,34.35,13.73,13.77,-8.729,-13.45,-16.05,-0.9437,-1.963,0,0,0,0,0,0,0,0,0,0,0,0,0,0,0,0,
151,57.11,73.88,-0.1938,-35.38,5.858,-30.17,-50.01,-61.7,11.9,-15.75,4.192,2.934,-26.47,-23.95,-18.94,-11.7,0,0,0,0,0,0,0,0,0,0,0,0,0,0,0,0,
152,48.77,71.95,5.911,-22.25,8.545,-17.11,-40.02,-40.53,-7.335,-20.69,2.646,7.124,-30.36,-13.79,-18.57,-8.185,0,0,0,0,0,0,0,0,0,0,0,0,0,0,0,0,
153,70.45,95.57,20.66,5.086,24.45,11.78,-2.962,-22.43,3.113,4.979,32.58,14.22,-8.703,13.86,8.405,14.88,0,0,0,0,0,0,0,0,0,0,0,0,0,0,0,0,
154,88.97,114.2,36.07,10.19,37.95,24.33,20.92,-19.66,35.5,28.75,55.86,23.86,11.3,26.52,23.77,25.95,0,0,0,0,0,0,0,0,0,0,0,0,0,0,0,0,
155,80.76,108.8,36.3,-7.122,28.54,10.21,3.373,-30.84,43.44,26.94,44.96,20.89,5.864,17.96,11.87,16.24,0,0,0,0,0,0,0,0,0,0,0,0,0,0,0,0,
156,80.57,87.46,14.46,-16.29,9.309,-9.567,-20.54,-28.96,24.02,0.2369,26.03,12.46,-5.965,8.448,-5.011,6.931,0,0,0,0,0,0,0,0,0,0,0,0,0,0,0,0,
157,86.88,73.3,6.69,-24.09,16.52,-16.98,-26.89,-25.37,25.57,-24.62,27.94,15.61,4.759,15.06,4.785,18.25,0,0,0,0,0,0,0,0,0,0,0,0,0,0,0,0,
158,78.25,85.61,38.78,-29.95,41.67,-6.556,-6.485,-38.99,59.34,-5.516,49.07,26.34,31.89,37.14,34.48,44.08,0,0,0,0,0,0,0,0,0,0,0,0,0,0,0,0,
159,74.85,92.59,54.8,-27.0,34.12,-6.33,22.06,-27.33,70.81,16.66,51.3,30.27,32.01,41.24,32.22,46.83,0,0,0,0,0,0,0,0,0,0,0,0,0,0,0,0,
160,86.08,76.37,33.77,-21.11,8.1,-24.87,9.798,16.8,42.93,-15.34,30.1,29.05,12.35,25.21,7.587,26.93,0,0,0,0,0,0,0,0,0,0,0,0,0,0,0,0,
161,103.4,90.58,36.16,-5.216,21.7,-17.36,-6.015,28.36,36.1,-32.83,30.37,24.79,20.71,21.97,12.15,18.74,0,0,0,0,0,0,0,0,0,0,0,0,0,0,0,0,
162,112.2,122.6,45.74,2.459,44.62,4.381,21.35,1.74,52.52,0.0154,36.58,12.67,29.57,15.31,15.97,16.26,0,0,0,0,0,0,0,0,0,0,0,0,0,0,0,0,
163,90.37,101.3,20.61,-14.3,28.41,-12.35,22.56,-4.098,34.84,-4.959,9.434,0.0203,3.505,-11.97,-13.71,9.52,0,0,0,0,0,0,0,0,0,0,0,0,0,0,0,0,
164,64.75,65.59,14.54,-15.74,15.7,-35.0,-14.76,15.79,9.55,-53.87,-6.3,-3.657,-10.1,-22.03,-30.2,13.46,0,0,0,0,0,0,0,0,0,0,0,0,0,0,0,0,
165,73.26,80.06,42.7,8.428,34.62,-16.76,-10.74,22.56,21.8,-52.72,18.96,0.7404,10.15,0.3945,-15.87,22.58,0,0,0,0,0,0,0,0,0,0,0,0,0,0,0,0,
166,85.64,104.5,46.99,19.26,44.64,4.497,9.805,17.95,32.01,-3.645,28.47,2.107,20.17,17.58,-6.733,26.33,0,0,0,0,0,0,0,0,0,0,0,0,0,0,0,0,
167,87.32,104.9,33.66,18.45,41.37,2.829,1.775,31.6,20.9,12.58,13.86,2.662,16.52,14.75,0.1049,35.43,0,0,0,0,0,0,0,0,0,0,0,0,0,0,0,0,
168,108.1,106.6,42.06,26.15,54.96,11.69,19.64,54.29,25.58,8.661,27.72,21.88,26.13,18.86,18.55,44.16,0,0,0,0,0,0,0,0,0,0,0,0,0,0,0,0,
169,119.5,107.9,57.97,32.1,68.0,23.12,55.35,56.94,39.18,34.26,51.98,35.98,35.71,27.66,26.99,33.62,0,0,0,0,0,0,0,0,0,0,0,0,0,0,0,0,
170,103.3,105.2,64.9,35.99,65.4,11.38,50.54,60.15,41.45,47.99,53.47,18.64,40.81,23.82,30.07,21.89,0,0,0,0,0,0,0,0,0,0,0,0,0,0,0,0,
171,113.7,119.8,67.5,41.64,70.66,5.987,42.02,81.5,51.35,32.09,57.56,12.22,52.41,26.06,40.35,27.86,0,0,0,0,0,0,0,0,0,0,0,0,0,0,0,0,
172,127.8,130.5,55.89,37.46,75.84,14.53,47.36,81.6,58.03,30.15,60.87,28.56,49.22,35.8,34.86,31.99,0,0,0,0,0,0,0,0,0,0,0,0,0,0,0,0,
173,93.44,118.0,36.81,37.35,69.76,18.87,23.1,61.3,51.91,38.85,45.64,25.61,36.86,35.73,22.18,29.84,0,0,0,0,0,0,0,0,0,0,0,0,0,0,0,0,
174,72.28,110.5,24.24,45.06,65.21,28.4,-7.133,57.12,60.82,52.84,26.81,13.17,36.21,33.84,20.49,29.89,0,0,0,0,0,0,0,0,0,0,0,0,0,0,0,0,
175,94.41,119.7,8.874,38.92,54.35,33.06,-4.88,51.9,57.83,72.79,9.453,21.21,29.67,32.21,13.09,24.63,0,0,0,0,0,0,0,0,0,0,0,0,0,0,0,0,
176,110.5,145.9,14.45,43.49,56.92,31.85,12.39,45.55,31.72,73.86,6.965,30.82,32.19,27.93,11.48,18.52,0,0,0,0,0,0,0,0,0,0,0,0,0,0,0,0,
177,120.3,173.2,46.82,65.94,88.16,45.77,26.51,67.22,40.1,71.23,26.01,18.12,58.63,24.95,28.27,16.11,0,0,0,0,0,0,0,0,0,0,0,0,0,0,0,0,
178,125.9,165.6,48.09,61.86,96.32,53.11,32.99,84.44,61.36,74.99,39.83,3.565,70.87,24.56,41.94,20.17,0,0,0,0,0,0,0,0,0,0,0,0,0,0,0,0,
179,113.9,146.9,28.33,41.36,78.03,44.18,33.09,68.94,53.05,68.49,45.06,13.99,67.24,34.32,43.97,38.26,0,0,0,0,0,0,0,0,0,0,0,0,0,0,0,0,
180,109.6,145.2,33.71,30.85,68.22,36.01,27.75,57.1,44.75,65.29,44.2,31.24,64.1,42.76,33.15,50.8,0,0,0,0,0,0,0,0,0,0,0,0,0,0,0,0,
181,108.2,138.3,30.79,19.09,51.31,20.38,11.35,59.38,33.04,58.85,34.16,30.06,55.11,36.4,22.66,47.25,0,0,0,0,0,0,0,0,0,0,0,0,0,0,0,0,
182,82.96,129.0,3.848,9.479,33.53,4.896,-2.058,45.74,17.59,46.91,34.51,16.59,50.96,31.73,28.68,40.65,0,0,0,0,0,0,0,0,0,0,0,0,0,0,0,0,
183,61.03,122.0,-3.5,4.319,33.2,3.994,3.669,35.62,20.07,55.73,36.4,12.94,43.28,28.03,26.45,28.23,0,0,0,0,0,0,0,0,0,0,0,0,0,0,0,0,
184,71.69,117.9,16.04,4.408,31.25,1.613,5.732,62.76,5.929,49.06,21.22,28.9,18.9,14.49,7.961,15.91,0,0,0,0,0,0,0,0,0,0,0,0,0,0,0,0,
185,94.2,127.2,23.03,14.46,21.69,-14.79,-10.51,86.45,-23.76,-2.142,8.639,32.41,1.54,2.303,-0.1313,11.67,0,0,0,0,0,0,0,0,0,0,0,0,0,0,0,0,
186,102.8,121.8,7.024,17.65,10.05,-33.03,-5.632,77.25,-32.33,-36.64,10.19,10.27,-1.996,-0.8711,6.644,8.336,0,0,0,0,0,0,0,0,0,0,0,0,0,0,0,0,
187,97.71,108.3,1.088,15.94,-0.1179,-31.33,20.1,70.1,-37.45,-16.74,17.39,3.646,-1.156,4.139,17.3,9.921,0,0,0,0,0,0,0,0,0,0,0,0,0,0,0,0,
188,81.19,120.1,5.942,14.63,-4.098,-21.66,5.342,69.56,-37.83,11.6,23.55,13.54,7.326,8.22,22.13,12.67,0,0,0,0,0,0,0,0,0,0,0,0,0,0,0,0,
189,69.44,125.1,8.72,4.753,-3.399,-24.89,-21.23,63.35,-17.79,9.2,29.14,15.23,20.42,6.439,22.51,11.85,0,0,0,0,0,0,0,0,0,0,0,0,0,0,0,0,
190,85.8,118.6,15.91,9.326,2.71,-21.28,-3.846,54.44,-4.789,5.446,34.01,14.15,26.15,5.319,19.78,11.74,0,0,0,0,0,0,0,0,0,0,0,0,0,0,0,0,
191,103.8,123.7,2.066,31.18,2.051,-13.57,2.898,37.37,-10.95,18.28,26.09,5.616,16.61,-2.242,0.5098,0.7516,0,0,0,0,0,0,0,0,0,0,0,0,0,0,0,0,
192,117.8,141.0,-3.792,49.94,2.556,-7.979,-8.807,35.53,-19.82,14.5,18.55,0.8988,11.47,-4.956,-13.78,-4.992,0,0,0,0,0,0,0,0,0,0,0,0,0,0,0,0,
193,178.7,209.2,54.06,80.83,38.93,30.76,11.76,52.88,-8.399,15.43,35.15,18.71,33.42,21.68,6.761,21.46,0,0,0,0,0,0,0,0,0,0,0,0,0,0,0,0,
194,255.8,300.6,88.83,115.1,78.29,72.54,23.56,53.55,27.78,52.49,49.64,29.33,55.11,45.51,27.39,43.54,0,0,0,0,0,0,0,0,0,0,0,0,0,0,0,0,
195,294.9,335.8,61.17,128.5,77.51,66.13,7.895,55.44,41.59,66.66,33.22,19.79,45.44,32.19,15.83,32.19,0,0,0,0,0,0,0,0,0,0,0,0,0,0,0,0,
196,354.6,383.7,80.39,148.7,79.32,63.55,6.827,76.1,16.86,51.93,9.141,17.58,28.09,16.44,2.999,24.68,0,0,0,0,0,0,0,0,0,0,0,0,0,0,0,0,
197,467.1,509.6,141.5,202.3,108.2,103.8,14.7,94.21,6.856,77.01,11.04,28.08,33.0,28.12,14.16,37.47,0,0,0,0,0,0,0,0,0,0,0,0,0,0,0,0,
198,568.1,619.0,174.0,265.6,133.9,141.4,22.49,106.4,21.39,106.8,30.86,34.12,42.3,40.28,27.07,38.52,0,0,0,0,0,0,0,0,0,0,0,0,0,0,0,0,
199,619.4,652.6,203.6,300.0,159.1,161.5,27.89,100.2,31.2,94.45,36.74,33.85,36.88,37.59,25.9,22.48,0,0,0,0,0,0,0,0,0,0,0,0,0,0,0,0,
200,625.2,649.2,230.6,321.5,190.7,190.8,19.58,90.1,44.67,100.6,23.99,40.86,35.12,36.42,18.29,7.103,0,0,0,0,0,0,0,0,0,0,0,0,0,0,0,0,
201,611.7,641.7,230.9,374.7,197.1,218.6,17.62,110.3,53.09,128.0,6.289,42.31,38.12,31.72,3.178,-10.34,0,0,0,0,0,0,0,0,0,0,0,0,0,0,0,0,
202,614.6,645.1,239.8,416.3,187.3,228.5,34.14,123.4,43.2,122.0,4.684,27.36,40.4,28.49,-2.129,-15.01,0,0,0,0,0,0,0,0,0,0,0,0,0,0,0,0,
203,619.8,648.9,278.6,402.4,218.3,248.0,60.25,115.9,64.06,123.4,35.6,31.47,65.54,51.88,20.07,7.213,0,0,0,0,0,0,0,0,0,0,0,0,0,0,0,0,
204,611.6,641.5,320.4,408.8,277.6,289.9,85.6,133.2,118.3,162.9,64.11,55.28,97.68,75.69,36.41,21.77,0,0,0,0,0,0,0,0,0,0,0,0,0,0,0,0,
205,615.8,645.0,335.1,453.5,303.8,320.0,96.45,159.6,139.3,187.4,67.45,60.13,106.3,75.48,38.19,22.88,0,0,0,0,0,0,0,0,0,0,0,0,0,0,0,0,
206,619.6,650.0,332.7,448.8,302.2,319.9,113.6,159.2,134.5,180.9,81.36,60.22,115.0,81.15,54.7,40.3,0,0,0,0,0,0,0,0,0,0,0,0,0,0,0,0,
207,612.8,643.5,348.6,418.0,303.8,313.6,140.2,144.4,144.8,173.1,100.4,75.84,129.5,94.91,66.54,55.62,0,0,0,0,0,0,0,0,0,0,0,0,0,0,0,0,
208,625.0,654.7,351.2,425.5,297.3,312.1,117.4,131.4,151.7,179.6,88.38,75.82,120.3,88.57,49.55,43.75,0,0,0,0,0,0,0,0,0,0,0,0,0,0,0,0,
209,614.3,649.5,291.5,410.8,271.3,290.8,64.37,123.5,138.8,181.7,61.48,47.99,93.1,66.48,29.59,27.22,0,0,0,0,0,0,0,0,0,0,0,0,0,0,0,0,
210,551.2,595.8,238.4,358.5,245.1,256.4,73.34,124.0,112.7,153.6,50.28,34.94,80.97,56.4,29.87,30.25,0,0,0,0,0,0,0,0,0,0,0,0,0,0,0,0,
211,517.2,568.2,252.0,347.2,238.6,252.2,108.7,134.7,93.85,132.2,56.87,49.9,95.72,63.98,38.14,34.94,0,0,0,0,0,0,0,0,0,0,0,0,0,0,0,0,
212,516.7,564.3,270.4,354.9,245.8,264.2,87.61,144.1,110.3,149.1,72.02,50.08,114.7,67.84,39.36,20.8,0,0,0,0,0,0,0,0,0,0,0,0,0,0,0,0,
213,474.6,507.9,262.6,322.0,246.3,255.1,70.64,142.5,136.6,157.8,85.81,39.85,114.8,66.93,40.21,9.901,0,0,0,0,0,0,0,0,0,0,0,0,0,0,0,0,
214,401.9,429.5,245.0,273.3,222.7,230.3,96.22,139.5,119.8,136.9,80.9,51.2,94.03,64.93,33.82,5.33,0,0,0,0,0,0,0,0,0,0,0,0,0,0,0,0,
215,326.8,364.6,207.4,233.6,177.8,193.9,89.72,128.4,73.2,115.7,57.42,49.94,66.08,46.17,12.67,-13.53,0,0,0,0,0,0,0,0,0,0,0,0,0,0,0,0,
216,257.9,303.9,178.3,201.9,146.3,155.5,62.65,111.4,44.07,106.0,45.74,19.78,53.19,26.48,5.73,-21.53,0,0,0,0,0,0,0,0,0,0,0,0,0,0,0,0,
217,219.5,263.1,163.9,178.6,130.6,132.9,61.81,121.7,32.62,92.5,42.54,5.091,50.16,23.57,15.6,-7.96,0,0,0,0,0,0,0,0,0,0,0,0,0,0,0,0,
218,191.2,218.6,115.8,151.0,99.24,111.5,51.14,136.4,16.87,61.43,25.55,14.89,40.64,24.31,18.29,1.466,0,0,0,0,0,0,0,0,0,0,0,0,0,0,0,0,
219,151.8,153.6,71.98,117.9,75.79,87.54,31.82,106.2,8.237,42.16,13.5,20.51,39.62,28.44,19.85,10.09,0,0,0,0,0,0,0,0,0,0,0,0,0,0,0,0,
220,121.2,115.8,78.73,92.12,79.38,74.65,28.32,74.0,14.58,46.38,11.18,17.7,48.17,32.77,21.66,21.45,0,0,0,0,0,0,0,0,0,0,0,0,0,0,0,0,
221,95.37,108.4,82.81,83.47,75.93,69.68,32.8,84.71,13.45,37.06,5.966,27.97,49.32,34.78,21.67,28.99,0,0,0,0,0,0,0,0,0,0,0,0,0,0,0,0,
222,73.87,98.25,66.63,86.83,71.32,75.63,47.43,91.5,4.557,37.58,8.562,46.41,51.3,44.63,29.56,33.33,0,0,0,0,0,0,0,0,0,0,0,0,0,0,0,0,
223,77.29,87.17,74.69,92.15,91.19,94.29,46.73,84.92,17.55,73.15,20.33,43.78,64.66,47.82,36.75,26.35,0,0,0,0,0,0,0,0,0,0,0,0,0,0,0,0,
224,83.13,76.61,97.79,106.5,105.9,107.8,32.77,102.4,51.48,86.53,32.71,28.03,75.14,37.09,31.47,11.87,0,0,0,0,0,0,0,0,0,0,0,0,0,0,0,0,
225,56.31,54.14,88.5,101.3,83.14,94.09,46.3,100.3,49.28,66.29,26.49,15.35,54.59,22.56,9.217,-4.146,0,0,0,0,0,0,0,0,0,0,0,0,0,0,0,0,
226,18.74,29.29,63.38,53.1,52.33,63.81,39.43,65.23,-3.796,53.94,-5.799,5.633,20.87,8.83,-14.33,-18.85,0,0,0,0,0,0,0,0,0,0,0,0,0,0,0,0,
227,3.668,27.12,71.69,34.62,56.37,62.13,0.0672,69.16,-17.86,51.79,-14.94,12.62,28.05,14.31,-9.335,-15.24,0,0,0,0,0,0,0,0,0,0,0,0,0,0,0,0,
228,-5.114,30.76,85.62,62.32,75.12,81.47,21.8,94.42,28.13,56.95,15.22,24.72,54.36,31.25,6.45,-4.885,0,0,0,0,0,0,0,0,0,0,0,0,0,0,0,0,
229,-17.84,6.717,77.24,59.97,78.42,78.57,81.7,95.97,39.3,69.4,36.87,27.94,56.51,33.4,9.488,-3.441,0,0,0,0,0,0,0,0,0,0,0,0,0,0,0,0,
230,-24.01,-18.23,77.84,40.75,77.56,69.21,82.0,103.2,17.76,74.78,40.41,42.34,63.06,36.68,19.65,10.34,0,0,0,0,0,0,0,0,0,0,0,0,0,0,0,0,
231,-47.42,-22.03,61.34,35.18,58.95,61.97,47.15,98.7,26.76,68.3,44.16,49.79,77.93,42.93,36.08,32.83,0,0,0,0,0,0,0,0,0,0,0,0,0,0,0,0,
232,-92.12,-38.92,6.117,11.29,12.07,29.9,33.21,67.2,30.09,47.33,47.19,27.92,67.98,27.66,43.22,42.6,0,0,0,0,0,0,0,0,0,0,0,0,0,0,0,0,
233,-123.1,-75.1,-20.86,-12.94,-19.54,-6.215,26.45,52.09,-4.005,16.56,42.94,11.63,45.59,6.332,48.09,50.53,0,0,0,0,0,0,0,0,0,0,0,0,0,0,0,0,
234,-130.1,-102.7,-8.234,-18.53,-20.83,-18.83,12.16,39.53,-32.26,-1.176,29.82,15.83,37.38,2.358,52.65,62.69,0,0,0,0,0,0,0,0,0,0,0,0,0,0,0,0,
235,-113.9,-116.7,-5.732,-30.8,-16.32,-21.51,4.031,19.14,-25.87,-1.955,22.64,15.9,49.69,6.198,56.09,65.71,0,0,0,0,0,0,0,0,0,0,0,0,0,0,0,0,
236,-91.9,-113.5,0.5757,-29.21,-3.725,-11.39,21.83,30.31,2.376,3.834,29.33,8.0,70.97,11.11,58.62,61.09,0,0,0,0,0,0,0,0,0,0,0,0,0,0,0,0,
237,-89.92,-89.19,32.32,-0.977,19.93,19.89,59.9,50.45,22.51,27.28,30.18,7.626,69.75,21.15,42.94,52.69,0,0,0,0,0,0,0,0,0,0,0,0,0,0,0,0,
238,-91.18,-82.3,42.1,9.579,27.08,35.69,60.12,40.88,17.18,55.36,13.64,11.51,38.29,21.7,4.53,29.24,0,0,0,0,0,0,0,0,0,0,0,0,0,0,0,0,
239,-90.67,-109.2,16.73,0.5341,16.88,22.46,17.09,22.96,10.34,53.16,-1.18,6.023,17.69,9.472,-21.39,4.275,0,0,0,0,0,0,0,0,0,0,0,0,0,0,0,0,
240,-94.84,-114.3,25.41,-1.099,19.47,19.96,20.77,19.01,21.84,44.74,2.694,-2.546,26.44,8.358,-22.28,0.7861,0,0,0,0,0,0,0,0,0,0,0,0,0,0,0,0,
241,-85.3,-95.8,60.55,-7.139,23.28,24.13,59.75,32.74,18.33,46.87,10.28,-3.195,34.44,14.41,-24.66,0.0484,0,0,0,0,0,0,0,0,0,0,0,0,0,0,0,0,
242,-76.06,-92.98,55.76,-4.17,28.15,23.77,50.94,62.31,4.851,33.03,21.24,10.63,51.3,22.13,-9.479,0.1981,0,0,0,0,0,0,0,0,0,0,0,0,0,0,0,0,
243,-75.58,-74.3,51.02,20.57,63.57,48.55,47.82,74.78,42.62,35.65,48.39,28.3,90.35,41.22,34.24,19.14,0,0,0,0,0,0,0,0,0,0,0,0,0,0,0,0,
244,-70.79,-64.5,62.64,7.649,68.61,52.83,74.04,43.55,79.72,58.75,48.78,16.85,88.32,38.15,43.55,25.85,0,0,0,0,0,0,0,0,0,0,0,0,0,0,0,0,
245,-93.05,-124.2,26.96,-44.19,4.285,-1.981,38.21,14.04,35.94,39.36,8.391,-1.205,39.66,8.015,22.06,14.01,0,0,0,0,0,0,0,0,0,0,0,0,0,0,0,0,
246,-138.3,-170.2,-19.38,-62.2,-37.54,-34.98,-13.37,26.51,-8.43,9.408,-6.815,12.13,19.68,-1.185,33.98,23.53,0,0,0,0,0,0,0,0,0,0,0,0,0,0,0,0,
247,-154.7,-150.7,-22.31,-56.25,-32.49,-27.87,1.773,42.82,-3.222,7.545,9.283,10.65,24.36,0.3382,55.74,44.54,0,0,0,0,0,0,0,0,0,0,0,0,0,0,0,0,
248,-158.6,-148.9,-23.29,-64.03,-38.27,-41.67,-2.475,41.82,-11.66,-13.16,2.69,-19.83,13.95,-12.65,46.63,46.75,0,0,0,0,0,0,0,0,0,0,0,0,0,0,0,0,
249,-180.6,-180.2,-47.62,-75.82,-54.67,-66.6,-50.54,42.09,-30.23,-39.29,-27.13,-25.85,-3.173,-22.05,27.5,37.86,0,0,0,0,0,0,0,0,0,0,0,0,0,0,0,0,
250,-189.4,-197.0,-67.63,-88.9,-66.66,-76.2,-42.04,38.72,-38.42,-37.48,-43.66,-11.49,-14.6,-22.3,19.69,35.75,0,0,0,0,0,0,0,0,0,0,0,0,0,0,0,0,
251,-177.0,-194.2,-55.33,-92.09,-68.17,-72.4,-2.76,32.46,-53.49,-34.31,-37.94,-6.295,-15.44,-18.61,20.17,34.5,0,0,0,0,0,0,0,0,0,0,0,0,0,0,0,0,
252,-193.4,-189.2,-41.58,-84.93,-65.78,-62.86,-18.4,24.4,-62.36,-29.69,-37.41,-13.54,-16.71,-19.45,13.29,13.86,0,0,0,0,0,0,0,0,0,0,0,0,0,0,0,0,
253,-230.1,-199.9,-64.22,-87.58,-77.65,-63.19,-42.03,11.94,-60.56,-17.4,-44.48,-23.1,-21.55,-29.21,2.791,-7.656,0,0,0,0,0,0,0,0,0,0,0,0,0,0,0,0,
254,-206.1,-198.7,-58.55,-72.25,-66.02,-53.94,-15.94,25.55,-45.62,-17.85,-27.39,-4.889,-3.292,-22.21,10.41,0.4565,0,0,0,0,0,0,0,0,0,0,0,0,0,0,0,0,
255,-132.4,-151.0,-3.35,-32.31,-14.92,-16.15,20.02,48.7,-9.601,-17.14,-4.327,23.42,23.07,3.901,16.99,8.913,0,0,0,0,0,0,0,0,0,0,0,0,0,0,0,0,
256,-110.2,-111.1,9.009,-29.66,5.702,3.99,22.26,22.73,9.521,1.073,-16.15,2.873,16.39,6.972,-12.62,-21.4,0,0,0,0,0,0,0,0,0,0,0,0,0,0,0,0,
257,-144.3,-130.0,-20.1,-68.52,-26.02,-22.96,-9.162,-15.62,-9.804,-0.9235,-43.94,-42.42,-11.2,-22.86,-53.58,-69.31,0,0,0,0,0,0,0,0,0,0,0,0,0,0,0,0,
258,-156.3,-157.1,-25.5,-80.44,-51.18,-50.1,-37.62,-6.133,-34.2,-38.07,-47.81,-44.8,-21.11,-38.34,-48.73,-78.71,0,0,0,0,0,0,0,0,0,0,0,0,0,0,0,0,
259,-137.1,-154.2,-23.37,-55.29,-45.21,-44.01,-24.55,11.0,-40.01,-47.33,-32.69,-20.45,-9.122,-18.79,-8.236,-39.45,0,0,0,0,0,0,0,0,0,0,0,0,0,0,0,0,
260,-137.0,-154.3,-33.13,-48.29,-38.12,-36.51,-3.911,1.969,-42.6,-14.52,-34.23,-19.93,-9.049,-8.764,4.799,-8.198,0,0,0,0,0,0,0,0,0,0,0,0,0,0,0,0,
261,-160.0,-158.4,-44.7,-62.55,-40.71,-41.11,-28.14,-0.4124,-55.93,-12.39,-51.67,-24.01,-27.54,-21.39,-7.066,-7.766,0,0,0,0,0,0,0,0,0,0,0,0,0,0,0,0,
262,-172.7,-151.9,-59.85,-65.2,-43.33,-38.48,-64.4,2.841,-59.15,-43.8,-53.27,-2.455,-33.12,-21.35,-4.505,-4.454,0,0,0,0,0,0,0,0,0,0,0,0,0,0,0,0,
263,-172.2,-164.0,-62.35,-66.19,-49.5,-40.21,-56.14,-9.477,-52.7,-56.82,-41.83,11.54,-28.21,-13.93,-0.6803,6.627,0,0,0,0,0,0,0,0,0,0,0,0,0,0,0,0,
264,-164.1,-176.7,-41.77,-61.7,-44.01,-43.86,-28.84,-17.99,-53.47,-55.66,-33.14,-3.573,-27.41,-14.18,-6.445,12.75,0,0,0,0,0,0,0,0,0,0,0,0,0,0,0,0,
265,-148.8,-159.8,-33.54,-50.17,-27.58,-34.1,-40.05,-17.5,-35.67,-47.08,-27.14,-14.05,-20.49,-9.036,-8.422,18.05,0,0,0,0,0,0,0,0,0,0,0,0,0,0,0,0,
266,-155.9,-169.6,-48.96,-76.38,-42.75,-45.23,-58.61,-17.91,-13.07,-31.2,-25.11,-1.33,-12.95,-5.069,-10.62,21.07,0,0,0,0,0,0,0,0,0,0,0,0,0,0,0,0,
267,-189.6,-209.5,-51.96,-112.7,-74.21,-77.66,-28.91,-13.87,-30.55,-35.96,-20.62,7.703,-13.37,-14.45,-13.76,15.66,0,0,0,0,0,0,0,0,0,0,0,0,0,0,0,0,
268,-203.7,-213.5,-46.41,-99.07,-77.71,-82.66,-1.227,-18.34,-50.83,-58.46,-12.45,-7.407,-11.28,-25.91,-14.1,0.7008,0,0,0,0,0,0,0,0,0,0,0,0,0,0,0,0,
269,-182.6,-197.3,-54.25,-75.34,-65.32,-66.69,-13.31,-31.45,-36.16,-64.69,-8.365,-18.7,-1.892,-26.25,-18.16,-17.08,0,0,0,0,0,0,0,0,0,0,0,0,0,0,0,0,
270,-155.0,-186.6,-47.14,-69.45,-48.39,-54.48,-3.0,-32.75,-13.62,-46.3,0.9345,-3.111,9.195,-18.0,-24.44,-29.34,0,0,0,0,0,0,0,0,0,0,0,0,0,0,0,0,
271,-140.0,-156.1,-19.48,-45.17,-26.15,-36.33,28.69,-29.16,1.432,-24.92,18.32,6.877,13.74,-13.47,-27.6,-38.93,0,0,0,0,0,0,0,0,0,0,0,0,0,0,0,0,
272,-133.6,-127.4,-9.936,-14.93,-11.92,-18.95,10.16,-24.41,10.56,-19.98,21.8,-9.768,6.112,-15.85,-33.58,-49.07,0,0,0,0,0,0,0,0,0,0,0,0,0,0,0,0,
273,-130.7,-135.3,-21.4,-16.26,-13.86,-21.57,-36.12,-21.61,4.718,-19.86,-0.3599,-22.1,-8.274,-19.03,-39.33,-49.97,0,0,0,0,0,0,0,0,0,0,0,0,0,0,0,0,
274,-133.4,-157.5,-32.82,-38.03,-34.89,-35.73,-34.59,-30.71,-16.66,-15.09,-21.72,-11.0,-12.53,-18.42,-22.19,-30.02,0,0,0,0,0,0,0,0,0,0,0,0,0,0,0,0,
275,-141.8,-169.4,-42.45,-55.36,-56.99,-51.22,-3.668,-26.11,-35.33,-33.25,-19.24,-0.937,-5.292,-17.67,6.748,-2.592,0,0,0,0,0,0,0,0,0,0,0,0,0,0,0,0,
276,-160.5,-177.6,-55.43,-58.88,-59.58,-68.73,-11.05,-5.441,-40.66,-71.32,-18.45,-2.414,-8.714,-18.98,8.81,9.697,0,0,0,0,0,0,0,0,0,0,0,0,0,0,0,0,
277,-187.0,-180.8,-67.15,-42.87,-55.22,-69.05,-41.72,-6.603,-44.25,-70.01,-31.66,8.069,-21.18,-10.42,-2.647,10.12,0,0,0,0,0,0,0,0,0,0,0,0,0,0,0,0,
278,-200.2,-174.9,-70.54,-22.01,-53.86,-51.63,-44.6,-21.74,-48.91,-33.88,-29.0,15.75,-23.75,-3.004,-1.843,3.848,0,0,0,0,0,0,0,0,0,0,0,0,0,0,0,0,
279,-188.7,-169.1,-67.48,-17.69,-47.93,-47.43,-29.85,-24.69,-45.93,-30.75,-7.244,-3.428,-12.13,-12.41,4.571,1.056,0,0,0,0,0,0,0,0,0,0,0,0,0,0,0,0,
280,-155.3,-160.9,-56.69,-20.14,-34.56,-45.5,-21.86,-31.26,-29.34,-37.56,10.83,-10.49,14.94,-10.05,19.89,20.01,0,0,0,0,0,0,0,0,0,0,0,0,0,0,0,0,
281,-134.9,-158.6,-46.12,-26.88,-29.57,-37.71,-30.88,-57.98,-4.745,-13.05,13.28,4.486,30.06,1.177,26.64,31.15,0,0,0,0,0,0,0,0,0,0,0,0,0,0,0,0,
282,-171.3,-178.0,-56.1,-44.98,-47.96,-55.07,-54.53,-74.54,-3.674,-18.41,4.056,3.138,9.213,-12.8,1.072,9.32,0,0,0,0,0,0,0,0,0,0,0,0,0,0,0,0,
283,-207.4,-189.4,-71.99,-56.66,-61.49,-75.92,-49.62,-54.54,-26.64,-60.71,0.7143,-6.925,-6.875,-28.07,-20.59,-11.61,0,0,0,0,0,0,0,0,0,0,0,0,0,0,0,0,
284,-164.3,-177.6,-68.66,-60.82,-48.96,-67.67,-12.31,-36.12,-31.08,-69.68,7.917,-8.067,6.324,-20.71,-13.88,-17.91,0,0,0,0,0,0,0,0,0,0,0,0,0,0,0,0,
285,-109.4,-167.8,-59.17,-62.48,-37.56,-56.12,0.2665,-41.26,-16.73,-52.29,16.01,-6.126,18.11,-11.74,-9.564,-27.91,0,0,0,0,0,0,0,0,0,0,0,0,0,0,0,0,
286,-125.8,-160.1,-60.53,-60.41,-37.39,-58.75,-9.184,-41.79,-10.69,-42.44,15.18,-6.514,12.61,-17.44,-21.29,-43.35,0,0,0,0,0,0,0,0,0,0,0,0,0,0,0,0,
287,-155.7,-156.8,-63.91,-72.61,-34.86,-63.52,-12.55,-49.5,-14.0,-40.48,3.646,-14.35,6.418,-26.46,-23.26,-42.83,0,0,0,0,0,0,0,0,0,0,0,0,0,0,0,0,
288,-136.8,-162.0,-59.03,-76.27,-32.32,-54.58,-37.24,-73.44,-13.51,-41.05,-1.809,-16.62,16.64,-12.76,-4.096,-10.76,0,0,0,0,0,0,0,0,0,0,0,0,0,0,0,0,
289,-127.7,-164.2,-69.09,-55.17,-43.26,-42.65,-69.57,-74.04,-5.54,-34.11,-6.138,-9.278,16.38,4.614,6.393,15.04,0,0,0,0,0,0,0,0,0,0,0,0,0,0,0,0,
290,-172.0,-172.8,-99.43,-56.12,-64.84,-56.17,-49.42,-53.61,-17.73,-39.54,-24.27,-9.791,-16.72,-7.503,0.501,7.008,0,0,0,0,0,0,0,0,0,0,0,0,0,0,0,0,
291,-192.4,-175.2,-97.11,-65.3,-64.17,-68.43,-12.97,-47.48,-48.89,-57.61,-28.35,-15.79,-32.04,-18.64,6.327,0.659,0,0,0,0,0,0,0,0,0,0,0,0,0,0,0,0,
292,-148.8,-159.0,-70.75,-53.41,-41.9,-57.97,-29.86,-57.79,-45.23,-46.26,-10.37,-18.84,-10.94,-15.27,19.19,5.392,0,0,0,0,0,0,0,0,0,0,0,0,0,0,0,0,
293,-123.1,-163.8,-79.32,-57.76,-40.37,-63.27,-48.93,-71.64,-18.37,-32.76,-3.457,-10.65,-1.506,-20.1,22.25,6.102,0,0,0,0,0,0,0,0,0,0,0,0,0,0,0,0,
294,-149.3,-181.0,-93.5,-61.1,-46.86,-72.14,-28.7,-78.47,-19.88,-43.29,-13.49,-0.4462,-4.919,-20.59,16.72,8.403,0,0,0,0,0,0,0,0,0,0,0,0,0,0,0,0,
295,-164.2,-167.6,-83.94,-36.53,-26.1,-48.07,-37.78,-78.16,-22.06,-30.57,-22.53,-17.78,4.484,-15.56,3.969,4.447,0,0,0,0,0,0,0,0,0,0,0,0,0,0,0,0,
296,-143.6,-142.3,-79.98,-31.42,-4.473,-25.97,-70.08,-87.82,4.176,-10.31,-19.72,-34.75,11.87,-18.6,-4.103,-3.248,0,0,0,0,0,0,0,0,0,0,0,0,0,0,0,0,
297,-124.5,-134.2,-75.97,-47.98,-11.47,-30.4,-51.92,-105.1,12.81,-21.26,-13.35,-22.18,-0.105,-18.62,-5.714,3.322,0,0,0,0,0,0,0,0,0,0,0,0,0,0,0,0,
298,-119.0,-141.3,-65.96,-44.42,-23.1,-33.75,-14.52,-97.15,-16.57,-26.32,-13.35,-16.94,-14.17,-18.02,-10.09,12.01,0,0,0,0,0,0,0,0,0,0,0,0,0,0,0,0,
299,-111.9,-144.8,-60.29,-30.41,-14.46,-30.65,-5.146,-69.59,-30.34,-29.12,-4.371,-21.8,-7.99,-25.16,-10.55,5.149,0,0,0,0,0,0,0,0,0,0,0,0,0,0,0,0,
300,-108.5,-133.5,-39.95,-27.69,1.579,-30.03,2.295,-69.06,-0.6622,-57.07,21.22,-15.28,10.83,-25.29,-6.592,-8.566,0,0,0,0,0,0,0,0,0,0,0,0,0,0,0,0,
301,-100.3,-118.9,-11.81,-25.08,17.16,-10.96,22.17,-80.86,33.49,-50.19,46.8,-7.505,28.56,-9.936,1.311,-10.32,0,0,0,0,0,0,0,0,0,0,0,0,0,0,0,0,
302,-67.97,-102.6,-9.221,-17.02,34.11,20.97,34.94,-64.55,42.0,-3.129,50.76,4.533,35.17,1.899,9.634,-2.388,0,0,0,0,0,0,0,0,0,0,0,0,0,0,0,0,
303,-54.51,-94.63,-27.74,-24.4,31.61,18.81,10.74,-54.33,33.58,-7.69,24.14,13.6,17.54,-5.383,2.187,1.059,0,0,0,0,0,0,0,0,0,0,0,0,0,0,0,0,
304,-92.74,-116.4,-49.81,-50.86,6.324,-14.2,-49.03,-80.77,20.5,-44.08,-13.22,-3.211,-12.65,-19.57,-10.33,1.609,0,0,0,0,0,0,0,0,0,0,0,0,0,0,0,0,
305,-135.2,-146.5,-75.76,-70.11,-23.61,-41.53,-76.9,-110.6,-9.497,-42.76,-43.91,-26.56,-40.0,-32.7,-11.55,-3.414,0,0,0,0,0,0,0,0,0,0,0,0,0,0,0,0,
306,-148.4,-160.6,-92.78,-68.35,-48.78,-55.31,-40.02,-112.5,-61.87,-46.72,-54.02,-23.22,-54.41,-37.05,-2.432,-8.396,0,0,0,0,0,0,0,0,0,0,0,0,0,0,0,0,
307,-135.1,-160.0,-82.37,-56.08,-46.54,-45.73,-2.872,-88.63,-81.32,-60.76,-32.11,-4.191,-38.16,-20.43,13.71,2.651,0,0,0,0,0,0,0,0,0,0,0,0,0,0,0,0,
308,-107.8,-146.1,-68.37,-50.28,-24.53,-24.96,-11.95,-72.98,-44.75,-35.17,-23.18,-6.763,-19.8,-14.02,12.26,6.529,0,0,0,0,0,0,0,0,0,0,0,0,0,0,0,0,
309,-102.2,-137.5,-77.91,-52.76,-26.04,-25.81,-32.88,-86.93,-26.3,-17.29,-48.47,-24.52,-29.62,-31.6,-4.759,-4.199,0,0,0,0,0,0,0,0,0,0,0,0,0,0,0,0,
310,-117.9,-140.8,-88.46,-50.37,-34.92,-28.54,-30.26,-94.12,-39.28,-36.87,-48.36,-16.91,-30.59,-28.64,1.728,4.273,0,0,0,0,0,0,0,0,0,0,0,0,0,0,0,0,
311,-109.7,-136.3,-78.81,-41.31,-18.77,-13.99,-11.86,-71.83,-19.81,-39.42,-15.7,7.971,-10.03,-6.868,16.48,18.38,0,0,0,0,0,0,0,0,0,0,0,0,0,0,0,0,
312,-87.14,-133.4,-63.4,-36.64,-12.59,-13.87,6.974,-58.46,9.232,-19.65,-2.995,9.396,-7.05,-7.862,4.701,5.051,0,0,0,0,0,0,0,0,0,0,0,0,0,0,0,0,
313,-101.6,-146.0,-67.22,-48.0,-44.68,-40.03,14.33,-75.23,-15.97,-18.38,-17.6,-16.26,-29.08,-28.71,-18.37,-19.01,0,0,0,0,0,0,0,0,0,0,0,0,0,0,0,0,
314,-133.1,-153.5,-89.11,-63.33,-69.58,-59.91,2.836,-84.78,-61.02,-40.16,-28.81,-35.06,-42.84,-39.09,-31.15,-26.44,0,0,0,0,0,0,0,0,0,0,0,0,0,0,0,0,
315,-124.9,-152.1,-89.41,-58.09,-52.66,-54.09,-10.23,-71.26,-56.9,-48.93,-18.17,-32.45,-32.8,-29.44,-34.77,-23.44,0,0,0,0,0,0,0,0,0,0,0,0,0,0,0,0,
316,-111.4,-163.9,-68.58,-49.91,-45.63,-50.94,-15.36,-65.1,-34.23,-33.51,-7.359,-33.68,-28.88,-24.98,-36.08,-31.12,0,0,0,0,0,0,0,0,0,0,0,0,0,0,0,0,
317,-138.1,-176.3,-80.43,-52.38,-75.8,-67.28,-32.58,-54.66,-50.32,-36.61,-16.35,-31.92,-42.91,-35.44,-32.46,-39.24,0,0,0,0,0,0,0,0,0,0,0,0,0,0,0,0,
318,-155.1,-166.9,-114.5,-45.28,-84.77,-74.69,-45.75,-21.69,-64.57,-60.66,-22.39,-5.914,-46.93,-35.49,-20.27,-27.56,0,0,0,0,0,0,0,0,0,0,0,0,0,0,0,0,
319,-144.3,-158.3,-109.7,-41.34,-62.59,-67.81,-18.15,-4.627,-49.18,-59.55,-15.81,2.764,-41.0,-27.75,-6.69,-10.67,0,0,0,0,0,0,0,0,0,0,0,0,0,0,0,0,
320,-140.3,-165.9,-78.04,-48.87,-56.88,-67.08,1.281,-2.2,-46.33,-40.31,-15.21,-19.1,-40.68,-30.91,1.076,-3.54,0,0,0,0,0,0,0,0,0,0,0,0,0,0,0,0,
321,-136.3,-174.4,-78.05,-52.06,-72.03,-73.85,-35.88,2.359,-52.97,-34.54,-24.8,-26.47,-44.22,-36.44,-2.193,-1.542,0,0,0,0,0,0,0,0,0,0,0,0,0,0,0,0,
322,-133.0,-176.1,-96.84,-55.02,-82.47,-71.43,-46.91,-19.55,-54.38,-22.34,-25.84,-20.51,-45.43,-30.17,-2.981,6.761,0,0,0,0,0,0,0,0,0,0,0,0,0,0,0,0,
323,-124.2,-154.7,-86.85,-39.73,-67.31,-43.07,4.921,-29.6,-58.97,18.68,-4.799,-14.8,-32.06,-11.25,17.18,28.99,0,0,0,0,0,0,0,0,0,0,0,0,0,0,0,0,
324,-90.32,-120.4,-67.71,-12.13,-41.55,-22.42,15.01,9.986,-46.86,41.19,11.24,-4.386,-16.35,-2.032,27.79,40.69,0,0,0,0,0,0,0,0,0,0,0,0,0,0,0,0,
325,-86.14,-123.5,-68.33,-30.01,-41.99,-46.64,-26.13,29.51,-29.85,4.069,0.3916,-12.52,-24.0,-21.2,4.035,20.52,0,0,0,0,0,0,0,0,0,0,0,0,0,0,0,0,
326,-124.9,-145.0,-74.34,-69.3,-50.58,-66.93,-33.06,15.21,-36.4,-36.68,-11.62,-34.13,-37.71,-44.58,-19.19,-8.241,0,0,0,0,0,0,0,0,0,0,0,0,0,0,0,0,
327,-129.3,-127.2,-79.82,-71.1,-40.74,-50.8,-22.2,20.24,-40.42,-32.47,-13.19,-28.52,-35.87,-45.54,-23.11,-26.3,0,0,0,0,0,0,0,0,0,0,0,0,0,0,0,0,
328,-108.2,-98.75,-81.84,-63.16,-38.3,-40.99,-29.89,26.96,-33.18,-12.74,-19.06,-12.48,-33.11,-37.78,-28.54,-38.11,0,0,0,0,0,0,0,0,0,0,0,0,0,0,0,0,
329,-110.5,-110.2,-80.56,-66.89,-51.12,-47.6,-33.04,17.92,-35.94,-5.597,-24.08,-23.21,-38.88,-40.28,-35.46,-39.35,0,0,0,0,0,0,0,0,0,0,0,0,0,0,0,0,
330,-106.6,-135.8,-80.41,-58.73,-50.72,-43.18,-26.88,11.72,-37.81,-12.07,-14.08,-36.8,-34.69,-37.93,-23.57,-23.89,0,0,0,0,0,0,0,0,0,0,0,0,0,0,0,0,
331,-95.02,-132.8,-61.2,-43.31,-29.83,-25.74,-15.36,2.506,-26.91,-7.791,1.017,-28.52,-15.34,-20.21,-2.887,-9.459,0,0,0,0,0,0,0,0,0,0,0,0,0,0,0,0,
332,-102.7,-110.3,-33.39,-30.12,-8.495,-13.2,-0.6707,3.5,-17.18,16.16,-2.037,-21.56,-8.632,-15.41,-3.43,-16.13,0,0,0,0,0,0,0,0,0,0,0,0,0,0,0,0,
333,-92.98,-92.47,-34.7,-23.01,-6.467,-19.54,-7.888,26.35,-21.99,6.372,-21.44,-28.82,-25.05,-33.21,-22.42,-35.05,0,0,0,0,0,0,0,0,0,0,0,0,0,0,0,0,
334,-68.19,-92.99,-61.73,-47.61,-26.73,-38.16,-43.02,30.71,-42.37,-39.96,-43.77,-32.62,-48.31,-47.53,-37.5,-47.83,0,0,0,0,0,0,0,0,0,0,0,0,0,0,0,0,
335,-85.57,-112.2,-82.47,-78.74,-43.3,-44.15,-65.87,18.73,-62.72,-52.33,-57.38,-19.21,-59.72,-43.68,-31.35,-37.07,0,0,0,0,0,0,0,0,0,0,0,0,0,0,0,0,
336,-109.9,-117.4,-67.62,-61.57,-31.94,-30.97,-53.35,24.42,-60.58,-28.93,-44.98,-4.615,-44.9,-30.38,-4.8,-4.792,0,0,0,0,0,0,0,0,0,0,0,0,0,0,0,0,
337,-95.11,-107.4,-53.32,-46.86,-26.68,-33.53,-50.61,14.55,-48.52,-21.28,-35.55,-18.24,-35.11,-34.74,-1.241,0.9353,0,0,0,0,0,0,0,0,0,0,0,0,0,0,0,0,
338,-88.21,-116.8,-83.35,-74.35,-51.84,-60.09,-73.03,-16.24,-59.77,-38.02,-61.63,-39.93,-57.64,-55.05,-30.62,-28.97,0,0,0,0,0,0,0,0,0,0,0,0,0,0,0,0,
339,-97.26,-113.2,-89.26,-65.47,-55.79,-58.89,-64.13,-17.06,-78.56,-47.86,-77.7,-32.8,-66.14,-51.52,-38.38,-39.08,0,0,0,0,0,0,0,0,0,0,0,0,0,0,0,0,
340,-94.82,-82.26,-50.79,-28.72,-23.97,-28.46,-35.76,-5.726,-72.81,-26.87,-60.12,-17.29,-43.15,-28.05,-20.43,-21.22,0,0,0,0,0,0,0,0,0,0,0,0,0,0,0,0,
341,-90.58,-76.56,-38.93,-38.07,-0.2065,-17.28,-41.43,-8.337,-51.4,2.068,-41.24,-12.33,-22.69,-12.14,-11.11,-2.97,0,0,0,0,0,0,0,0,0,0,0,0,0,0,0,0,
342,-61.45,-79.31,-38.76,-43.8,7.441,-16.48,-50.66,0.1195,-29.39,7.694,-28.23,-7.087,-8.903,-2.012,-7.74,6.29,0,0,0,0,0,0,0,0,0,0,0,0,0,0,0,0,
343,-19.92,-64.35,-35.47,-20.96,2.516,-7.009,-40.64,8.428,-20.0,3.374,-25.61,-2.392,-5.621,-0.1633,-11.52,-8.322,0,0,0,0,0,0,0,0,0,0,0,0,0,0,0,0,
344,-40.85,-66.06,-41.13,-25.12,-6.05,0.2524,-42.24,0.9288,-24.1,10.74,-31.38,4.036,-10.53,-1.24,-23.98,-34.79,0,0,0,0,0,0,0,0,0,0,0,0,0,0,0,0,
345,-82.78,-67.84,-7.125,-29.1,8.062,15.25,-44.17,-2.992,-11.37,29.45,-16.59,10.89,5.811,12.26,-16.53,-35.61,0,0,0,0,0,0,0,0,0,0,0,0,0,0,0,0,
346,-54.68,-40.59,35.35,1.615,32.22,40.0,-24.84,4.842,16.85,48.29,13.19,9.481,36.13,28.95,18.2,-16.3,0,0,0,0,0,0,0,0,0,0,0,0,0,0,0,0,
347,-9.604,-21.1,14.74,22.07,35.88,45.28,-10.41,16.67,29.69,46.81,23.53,-0.4072,44.55,24.79,40.31,-11.77,0,0,0,0,0,0,0,0,0,0,0,0,0,0,0,0,
348,-33.1,-42.72,-22.24,5.356,11.72,19.73,-12.27,1.714,18.6,26.16,5.899,-21.95,20.36,-1.78,21.99,-28.89,0,0,0,0,0,0,0,0,0,0,0,0,0,0,0,0,
349,-93.05,-89.9,-37.22,-34.04,-28.41,-17.02,-20.11,-40.87,-17.87,13.05,-24.61,-39.8,-18.73,-28.43,-12.81,-46.14,0,0,0,0,0,0,0,0,0,0,0,0,0,0,0,0,
350,-121.4,-123.6,-59.22,-70.25,-56.17,-48.7,-44.6,-50.83,-57.75,-8.556,-51.95,-40.5,-46.25,-42.79,-35.45,-52.71,0,0,0,0,0,0,0,0,0,0,0,0,0,0,0,0,
351,-103.2,-130.7,-76.1,-75.21,-60.67,-64.08,-62.63,-24.33,-64.9,-49.76,-60.4,-35.77,-50.38,-46.57,-37.73,-47.51,0,0,0,0,0,0,0,0,0,0,0,0,0,0,0,0,
352,-63.77,-122.0,-59.04,-55.6,-54.72,-49.75,-51.23,-6.12,-47.07,-46.13,-49.32,-19.62,-41.17,-35.94,-25.52,-32.2,0,0,0,0,0,0,0,0,0,0,0,0,0,0,0,0,
353,-61.8,-103.6,-43.92,-48.54,-60.78,-38.01,-68.38,-1.338,-38.28,-12.72,-56.32,-12.56,-44.38,-35.73,-30.12,-31.41,0,0,0,0,0,0,0,0,0,0,0,0,0,0,0,0,
354,-119.6,-100.3,-75.11,-60.22,-90.63,-61.72,-103.9,-9.639,-57.83,-41.8,-81.84,-45.04,-58.26,-57.03,-47.36,-40.37,0,0,0,0,0,0,0,0,0,0,0,0,0,0,0,0,
355,-150.0,-114.4,-102.5,-57.71,-97.85,-64.5,-70.14,-9.766,-80.23,-72.89,-65.57,-61.13,-43.42,-48.54,-35.14,-21.3,0,0,0,0,0,0,0,0,0,0,0,0,0,0,0,0,
356,-97.28,-95.82,-65.95,-31.37,-52.5,-17.16,-14.15,19.89,-60.24,-24.25,-22.16,-33.69,-9.031,-9.996,-13.37,0.5726,0,0,0,0,0,0,0,0,0,0,0,0,0,0,0,0,
357,-35.3,-52.74,-20.58,-10.41,-14.01,12.13,-13.48,25.85,-20.54,21.43,-14.07,-26.22,0.1957,0.6021,-15.71,-13.9,0,0,0,0,0,0,0,0,0,0,0,0,0,0,0,0,
358,-18.78,-41.92,-24.49,-6.736,-11.94,3.556,-27.36,5.093,-9.027,16.24,-22.55,-38.74,-3.761,-12.73,-21.75,-35.39,0,0,0,0,0,0,0,0,0,0,0,0,0,0,0,0,
359,-21.57,-43.07,-33.29,2.623,-4.988,5.106,-21.23,40.86,-8.846,3.419,-13.7,-25.68,6.658,-15.94,-21.46,-39.94,0,0,0,0,0,0,0,0,0,0,0,0,0,0,0,0,
360,-25.08,-20.3,-16.04,19.73,11.3,21.5,-11.51,97.78,1.598,-14.3,-2.136,-17.33,14.69,-17.33,-26.75,-47.02,0,0,0,0,0,0,0,0,0,0,0,0,0,0,0,0,
361,-30.28,-16.92,-14.53,13.99,6.128,17.9,-23.44,78.45,2.576,-36.47,-8.129,-44.31,-1.245,-33.58,-38.52,-62.88,0,0,0,0,0,0,0,0,0,0,0,0,0,0,0,0,
362,-33.35,-50.8,-35.29,-2.445,-10.46,-5.723,-48.56,41.03,-12.19,-46.39,-30.73,-61.11,-22.88,-46.53,-41.59,-65.21,0,0,0,0,0,0,0,0,0,0,0,0,0,0,0,0,
363,-37.21,-69.68,-40.22,5.531,-12.94,-17.58,-38.24,58.89,-24.41,-51.26,-42.53,-46.36,-20.28,-36.17,-21.83,-48.84,0,0,0,0,0,0,0,0,0,0,0,0,0,0,0,0,
364,-50.57,-65.72,-38.58,12.17,-14.66,-16.98,-13.56,62.68,-26.4,-50.71,-30.3,-36.69,-8.246,-18.57,-1.861,-38.35,0,0,0,0,0,0,0,0,0,0,0,0,0,0,0,0,
365,-65.14,-65.02,-50.86,-1.731,-29.39,-20.93,-18.39,25.15,-25.5,-32.46,-22.22,-35.71,-17.8,-8.498,-9.599,-40.07,0,0,0,0,0,0,0,0,0,0,0,0,0,0,0,0,
366,-67.03,-67.67,-62.8,-11.02,-44.45,-29.12,-33.47,19.12,-34.47,-18.45,-40.3,-33.69,-40.2,-10.24,-33.42,-40.42,0,0,0,0,0,0,0,0,0,0,0,0,0,0,0,0,
367,-65.34,-81.73,-69.24,-15.67,-52.54,-38.14,-62.6,46.57,-49.72,-46.3,-63.93,-37.71,-46.99,-22.18,-47.26,-34.55,0,0,0,0,0,0,0,0,0,0,0,0,0,0,0,0,
368,-70.77,-97.17,-68.78,-15.97,-50.67,-34.12,-82.61,52.28,-43.56,-78.13,-63.55,-29.12,-35.59,-18.63,-42.54,-26.33,0,0,0,0,0,0,0,0,0,0,0,0,0,0,0,0,
369,-77.44,-89.74,-60.98,-10.7,-40.9,-17.53,-43.94,35.46,-24.14,-55.34,-50.5,-13.31,-28.6,-5.646,-30.72,-24.88,0,0,0,0,0,0,0,0,0,0,0,0,0,0,0,0,
370,-70.67,-74.44,-51.38,-13.56,-29.49,-7.423,-11.54,36.39,-21.29,-23.83,-40.09,-16.21,-22.72,-7.942,-15.69,-20.16,0,0,0,0,0,0,0,0,0,0,0,0,0,0,0,0,
371,-46.37,-58.63,-35.2,-1.108,-17.93,6.753,-28.51,64.13,-9.191,-26.15,-24.37,-20.25,-6.086,-7.7,-1.661,-4.871,0,0,0,0,0,0,0,0,0,0,0,0,0,0,0,0,
372,-37.03,-43.6,-30.59,25.85,-22.79,19.84,-25.87,74.61,15.8,-23.59,-21.43,-19.61,-4.941,-4.758,-10.35,-6.337,0,0,0,0,0,0,0,0,0,0,0,0,0,0,0,0,
373,-54.17,-46.92,-46.4,29.33,-41.26,12.13,0.0228,57.13,10.24,-8.002,-32.68,-21.04,-13.61,-6.889,-27.33,-19.86,0,0,0,0,0,0,0,0,0,0,0,0,0,0,0,0,
374,-55.41,-54.33,-48.53,32.28,-41.5,10.01,2.3,57.19,0.1662,3.616,-20.56,-15.07,0.7314,5.119,-22.76,-17.76,0,0,0,0,0,0,0,0,0,0,0,0,0,0,0,0,
375,-30.52,-55.18,-30.77,42.37,-32.26,17.05,-2.427,71.64,15.36,11.99,-1.261,-18.17,10.75,11.51,-15.42,-17.41,0,0,0,0,0,0,0,0,0,0,0,0,0,0,0,0,
376,-14.81,-62.75,-17.1,17.08,-46.13,0.8272,-4.363,62.27,7.567,5.009,-18.34,-30.11,-13.8,-8.86,-26.4,-33.67,0,0,0,0,0,0,0,0,0,0,0,0,0,0,0,0,
377,-35.5,-75.66,-38.01,-18.68,-84.78,-33.4,-34.29,42.1,-40.68,-21.04,-57.62,-27.36,-53.96,-31.52,-45.42,-51.11,0,0,0,0,0,0,0,0,0,0,0,0,0,0,0,0,
378,-78.57,-92.18,-94.59,-21.56,-113.7,-60.2,-74.57,39.81,-80.76,-52.65,-73.01,-26.72,-75.39,-41.43,-49.58,-57.22,0,0,0,0,0,0,0,0,0,0,0,0,0,0,0,0,
379,-92.64,-100.9,-114.2,-18.85,-103.8,-66.82,-75.63,38.49,-79.45,-71.6,-55.08,-43.49,-62.24,-41.94,-32.03,-54.99,0,0,0,0,0,0,0,0,0,0,0,0,0,0,0,0,
380,-78.91,-94.29,-79.39,-32.98,-86.61,-59.14,-57.26,15.4,-60.14,-62.12,-41.49,-56.28,-44.37,-40.38,-18.84,-56.4,0,0,0,0,0,0,0,0,0,0,0,0,0,0,0,0,
381,-78.01,-95.28,-64.74,-43.38,-87.01,-51.83,-55.13,-2.147,-51.79,-42.66,-37.75,-46.63,-38.59,-38.7,-11.61,-53.0,0,0,0,0,0,0,0,0,0,0,0,0,0,0,0,0,
382,-79.25,-106.5,-80.3,-47.17,-82.15,-51.59,-45.05,0.9511,-41.52,-46.21,-16.95,-31.78,-26.8,-34.72,9.054,-35.98,0,0,0,0,0,0,0,0,0,0,0,0,0,0,0,0,
383,-70.99,-112.4,-78.83,-56.06,-72.21,-57.66,-27.98,-4.309,-29.81,-67.55,-1.696,-42.17,-21.44,-39.17,19.92,-21.61,0,0,0,0,0,0,0,0,0,0,0,0,0,0,0,0,
384,-61.48,-113.2,-54.86,-61.75,-59.61,-52.93,-40.15,-10.49,-29.0,-72.8,-18.46,-58.21,-32.8,-48.17,0.7425,-16.37,0,0,0,0,0,0,0,0,0,0,0,0,0,0,0,0,
385,-60.06,-110.3,-54.54,-66.32,-50.46,-36.27,-58.03,-2.133,-26.67,-60.97,-42.83,-46.83,-43.36,-44.57,-20.25,-16.29,0,0,0,0,0,0,0,0,0,0,0,0,0,0,0,0,
386,-79.54,-104.4,-88.45,-71.33,-60.84,-24.29,-43.4,3.364,-24.47,-53.04,-41.6,-29.7,-36.64,-26.26,-8.744,-9.049,0,0,0,0,0,0,0,0,0,0,0,0,0,0,0,0,
387,-74.29,-92.09,-81.87,-53.79,-48.41,-0.8523,-25.31,12.86,-8.07,-25.64,-16.68,-31.98,-7.077,-1.957,18.65,12.29,0,0,0,0,0,0,0,0,0,0,0,0,0,0,0,0,
388,-25.15,-75.47,-34.98,-28.05,-7.91,22.14,-26.16,25.55,29.04,13.65,-9.943,-40.42,6.367,5.224,11.05,16.02,0,0,0,0,0,0,0,0,0,0,0,0,0,0,0,0,
389,-10.05,-70.11,-25.9,-27.65,-0.444,8.663,-11.89,14.87,28.25,0.8295,-29.87,-41.29,-18.58,-10.01,-25.18,-7.7,0,0,0,0,0,0,0,0,0,0,0,0,0,0,0,0,
390,-31.06,-71.42,-29.3,-32.78,-8.632,-2.182,12.47,-10.95,-1.42,-28.0,-37.81,-43.46,-35.34,-23.38,-46.0,-29.3,0,0,0,0,0,0,0,0,0,0,0,0,0,0,0,0,
391,-24.54,-61.35,-10.28,-14.86,5.066,24.22,15.45,-19.38,8.944,-0.963,-26.45,-45.12,-27.0,-26.04,-42.75,-40.04,0,0,0,0,0,0,0,0,0,0,0,0,0,0,0,0,
392,-3.764,-37.76,-0.9204,9.935,19.44,51.27,20.7,-0.4806,35.07,34.68,-8.994,-30.78,-14.41,-18.7,-23.15,-40.54,0,0,0,0,0,0,0,0,0,0,0,0,0,0,0,0,
393,-2.721,-29.74,-4.841,3.858,15.52,49.57,28.44,8.544,34.77,36.54,-5.812,-24.52,-13.35,-13.41,-15.43,-40.01,0,0,0,0,0,0,0,0,0,0,0,0,0,0,0,0,
394,-26.62,-60.9,-21.54,-19.72,-10.12,25.74,14.2,-12.21,16.32,32.73,-28.37,-38.53,-35.11,-22.23,-30.22,-45.15,0,0,0,0,0,0,0,0,0,0,0,0,0,0,0,0,
395,-44.93,-78.74,-34.24,1.835,-25.28,11.16,8.659,-13.06,-1.865,26.35,-29.33,-29.33,-42.31,-16.07,-20.49,-31.57,0,0,0,0,0,0,0,0,0,0,0,0,0,0,0,0,
396,-21.52,-46.99,-18.5,47.63,-11.41,18.92,15.57,10.46,7.628,17.12,-3.58,-4.508,-19.41,4.987,1.726,-10.26,0,0,0,0,0,0,0,0,0,0,0,0,0,0,0,0,
397,-12.07,-37.09,-27.28,36.68,-25.09,12.53,-0.786,7.921,16.38,21.03,-18.59,-11.64,-29.72,-7.976,-21.24,-19.99,0,0,0,0,0,0,0,0,0,0,0,0,0,0,0,0,
398,-58.49,-78.01,-70.63,-13.4,-67.83,-18.82,-29.4,-8.714,-28.28,18.72,-60.09,-36.17,-70.69,-44.99,-53.15,-40.78,0,0,0,0,0,0,0,0,0,0,0,0,0,0,0,0,
399,-85.02,-97.4,-74.55,-32.86,-72.46,-36.86,-44.08,-11.79,-69.96,-4.702,-68.2,-41.67,-75.97,-57.07,-46.85,-38.53,0,0,0,0,0,0,0,0,0,0,0,0,0,0,0,0,
400,-76.46,-80.72,-61.05,-25.4,-59.48,-36.93,-50.71,-15.55,-53.87,-18.58,-65.09,-27.7,-64.06,-49.54,-42.62,-26.78,0,0,0,0,0,0,0,0,0,0,0,0,0,0,0,0,
401,-96.17,-87.96,-91.47,-36.85,-83.64,-53.51,-67.31,-24.44,-47.53,-18.03,-79.05,-18.84,-78.03,-51.89,-63.34,-25.22,0,0,0,0,0,0,0,0,0,0,0,0,0,0,0,0,
402,-111.0,-111.5,-112.5,-58.23,-108.5,-76.47,-72.08,-23.95,-79.63,-32.61,-78.65,-26.2,-87.9,-56.93,-70.55,-28.8,0,0,0,0,0,0,0,0,0,0,0,0,0,0,0,0,
403,-86.26,-99.91,-87.6,-51.91,-92.42,-67.82,-44.12,-24.24,-83.0,-45.72,-59.27,-35.66,-77.14,-54.63,-61.51,-36.86,0,0,0,0,0,0,0,0,0,0,0,0,0,0,0,0,
404,-82.13,-81.41,-77.59,-43.44,-73.07,-50.43,-36.36,-48.28,-57.4,-31.09,-54.72,-41.56,-75.54,-59.07,-66.08,-50.81,0,0,0,0,0,0,0,0,0,0,0,0,0,0,0,0,
405,-89.92,-86.11,-84.81,-50.02,-75.91,-53.3,-52.8,-66.3,-54.73,-11.78,-54.9,-39.31,-76.53,-63.84,-71.24,-53.77,0,0,0,0,0,0,0,0,0,0,0,0,0,0,0,0,
406,-63.74,-84.65,-74.08,-37.89,-78.05,-55.34,-39.82,-54.63,-58.89,-3.349,-45.47,-32.48,-68.11,-59.39,-67.62,-53.15,0,0,0,0,0,0,0,0,0,0,0,0,0,0,0,0,
407,-65.54,-90.01,-81.59,-27.7,-79.84,-57.1,-39.54,-55.81,-51.37,3.233,-53.87,-36.86,-73.41,-56.74,-70.34,-63.64,0,0,0,0,0,0,0,0,0,0,0,0,0,0,0,0,
408,-108.4,-111.4,-110.0,-42.08,-90.2,-68.92,-74.12,-61.57,-56.56,6.468,-77.58,-29.3,-84.32,-48.16,-64.06,-61.49,0,0,0,0,0,0,0,0,0,0,0,0,0,0,0,0,
409,-114.2,-109.0,-122.8,-49.88,-102.8,-77.61,-82.11,-38.23,-71.74,-6.515,-91.71,-7.015,-81.08,-38.65,-48.52,-53.0,0,0,0,0,0,0,0,0,0,0,0,0,0,0,0,0,
410,-95.48,-93.89,-123.5,-48.82,-110.6,-78.65,-70.64,-30.45,-78.28,-32.82,-91.48,-11.67,-72.9,-41.62,-43.03,-57.75,0,0,0,0,0,0,0,0,0,0,0,0,0,0,0,0,
411,-85.96,-87.36,-97.48,-38.63,-90.69,-61.58,-69.03,-46.88,-70.13,-29.57,-73.59,-22.68,-60.76,-30.97,-32.66,-46.6,0,0,0,0,0,0,0,0,0,0,0,0,0,0,0,0,
412,-62.7,-82.72,-71.57,-18.7,-60.8,-37.74,-65.09,-40.06,-49.81,8.092,-57.89,-10.73,-55.28,-13.66,-23.34,-26.78,0,0,0,0,0,0,0,0,0,0,0,0,0,0,0,0,
413,-51.32,-98.42,-108.5,-27.49,-76.5,-45.65,-65.29,-22.13,-41.94,13.27,-62.27,-6.462,-66.94,-20.07,-32.99,-27.66,0,0,0,0,0,0,0,0,0,0,0,0,0,0,0,0,
414,-78.38,-120.9,-142.9,-56.77,-107.2,-65.5,-63.97,-29.98,-47.71,-8.289,-60.14,-9.143,-65.18,-21.27,-31.69,-19.39,0,0,0,0,0,0,0,0,0,0,0,0,0,0,0,0,
415,-105.5,-114.6,-123.5,-63.04,-100.6,-63.75,-45.64,-52.12,-37.01,4.643,-46.11,3.789,-46.32,-5.68,-13.17,3.139,0,0,0,0,0,0,0,0,0,0,0,0,0,0,0,0,
416,-106.9,-97.55,-124.0,-52.74,-94.0,-61.92,-42.87,-50.24,-26.43,13.96,-45.29,11.05,-46.23,-6.705,-12.19,4.866,0,0,0,0,0,0,0,0,0,0,0,0,0,0,0,0,
417,-96.93,-99.6,-133.1,-47.37,-99.78,-66.88,-73.58,-26.28,-37.15,-15.81,-43.96,4.951,-50.84,-9.988,-17.55,3.764,0,0,0,0,0,0,0,0,0,0,0,0,0,0,0,0,
418,-90.01,-116.5,-96.7,-44.37,-74.31,-55.8,-73.83,-18.38,-28.46,-14.06,-16.14,16.79,-26.43,13.99,0.0631,23.23,0,0,0,0,0,0,0,0,0,0,0,0,0,0,0,0,
419,-69.1,-111.6,-69.27,-34.7,-42.73,-34.32,-8.092,-29.03,1.973,33.32,10.68,36.31,-5.066,32.89,13.31,29.88,0,0,0,0,0,0,0,0,0,0,0,0,0,0,0,0,
420,-27.8,-74.5,-73.94,-31.28,-50.61,-26.17,41.73,-38.59,0.2863,50.91,9.03,20.73,-16.12,18.08,0.3327,13.33,0,0,0,0,0,0,0,0,0,0,0,0,0,0,0,0,
421,-24.57,-58.61,-68.8,-46.93,-64.91,-31.46,28.37,-38.12,-14.39,31.89,11.74,-7.79,-21.46,0.6572,-6.496,7.31,0,0,0,0,0,0,0,0,0,0,0,0,0,0,0,0,
422,-68.32,-73.62,-54.1,-46.99,-51.83,-28.75,15.58,-26.99,1.117,17.58,27.52,-7.87,-6.851,0.9604,3.357,13.38,0,0,0,0,0,0,0,0,0,0,0,0,0,0,0,0,
423,-60.89,-59.91,-24.75,-12.67,-20.48,-1.986,32.94,-21.78,21.25,23.73,31.3,5.441,6.559,13.57,17.39,21.59,0,0,0,0,0,0,0,0,0,0,0,0,0,0,0,0,
424,8.737,-14.4,20.09,9.214,16.18,34.43,52.85,-22.07,39.21,61.46,42.07,18.23,23.08,36.91,38.28,33.74,0,0,0,0,0,0,0,0,0,0,0,0,0,0,0,0,
425,32.9,10.03,29.85,-3.042,31.64,44.18,62.34,-15.05,59.65,87.61,55.58,27.41,27.97,43.44,46.12,28.35,0,0,0,0,0,0,0,0,0,0,0,0,0,0,0,0,
426,12.59,7.644,14.17,-9.969,24.98,34.19,59.04,-11.34,53.63,66.02,46.86,22.48,11.5,28.32,33.67,10.43,0,0,0,0,0,0,0,0,0,0,0,0,0,0,0,0,
427,28.07,6.472,16.72,-0.5497,23.33,36.75,53.81,-14.25,40.22,65.84,44.19,17.31,1.023,24.95,21.76,3.354,0,0,0,0,0,0,0,0,0,0,0,0,0,0,0,0,
428,38.42,-1.292,7.45,-10.5,11.26,29.3,47.76,-16.73,33.82,84.97,43.32,20.18,-11.23,19.05,0.6448,-9.408,0,0,0,0,0,0,0,0,0,0,0,0,0,0,0,0,
429,-7.042,-21.45,-12.39,-30.29,-6.093,5.774,18.47,-13.34,12.21,50.89,22.35,17.41,-26.21,3.026,-19.82,-16.26,0,0,0,0,0,0,0,0,0,0,0,0,0,0,0,0,
430,-37.44,-27.37,-7.51,-16.95,3.413,9.526,-10.93,-2.413,9.696,27.29,17.83,9.481,-18.37,9.348,-7.54,6.853,0,0,0,0,0,0,0,0,0,0,0,0,0,0,0,0,
431,-7.167,-18.74,-1.593,13.59,16.3,29.13,15.68,4.671,25.92,61.22,32.75,13.78,-10.79,25.62,13.74,26.63,0,0,0,0,0,0,0,0,0,0,0,0,0,0,0,0,
432,32.74,-6.929,5.561,25.89,23.68,32.18,68.11,8.905,12.97,74.03,31.48,34.16,-19.37,29.18,12.24,24.21,0,0,0,0,0,0,0,0,0,0,0,0,0,0,0,0,
433,25.01,7.301,20.54,22.98,27.4,24.87,64.85,3.308,5.983,53.79,16.95,37.44,-26.93,22.73,-2.601,13.32,0,0,0,0,0,0,0,0,0,0,0,0,0,0,0,0,
434,-13.27,3.811,11.21,16.87,0.8612,13.73,38.08,-19.18,20.04,46.16,10.61,17.56,-29.79,9.805,-8.55,4.31,0,0,0,0,0,0,0,0,0,0,0,0,0,0,0,0,
435,-3.703,-11.16,3.801,15.25,-16.19,9.143,55.09,-11.51,12.18,47.47,22.26,20.1,-20.25,7.413,1.345,12.04,0,0,0,0,0,0,0,0,0,0,0,0,0,0,0,0,
436,44.78,-12.15,18.77,13.86,6.014,11.7,61.91,32.33,6.171,36.71,34.57,38.92,-4.738,15.73,9.318,26.38,0,0,0,0,0,0,0,0,0,0,0,0,0,0,0,0,
437,48.75,-10.18,17.66,6.322,17.73,11.46,33.38,44.17,22.67,18.34,29.73,32.92,-0.4458,18.22,9.858,26.2,0,0,0,0,0,0,0,0,0,0,0,0,0,0,0,0,
438,30.33,-5.339,9.382,2.651,16.92,19.7,36.95,17.71,26.67,25.93,22.96,12.17,-2.653,17.09,12.19,17.04,0,0,0,0,0,0,0,0,0,0,0,0,0,0,0,0,
439,37.81,10.15,10.83,0.6651,19.34,25.8,54.69,6.646,14.81,45.08,22.93,3.414,-10.28,11.4,13.51,6.576,0,0,0,0,0,0,0,0,0,0,0,0,0,0,0,0,
440,30.68,10.87,-1.389,-5.045,4.568,10.7,32.69,20.29,7.809,22.97,23.05,12.56,-17.3,5.932,17.94,0.6056,0,0,0,0,0,0,0,0,0,0,0,0,0,0,0,0,
441,9.37,-11.79,-19.95,-3.354,-9.302,-2.248,10.65,21.95,5.738,-4.234,27.27,23.44,-15.42,13.59,27.4,4.051,0,0,0,0,0,0,0,0,0,0,0,0,0,0,0,0,
442,22.05,-27.12,-16.4,3.041,-4.997,0.1598,21.21,8.57,-1.124,11.77,39.01,23.69,-13.61,25.57,33.05,11.02,0,0,0,0,0,0,0,0,0,0,0,0,0,0,0,0,
443,32.93,-13.48,2.651,1.034,-3.726,-1.315,15.4,13.64,-12.89,24.87,43.17,27.42,-13.93,27.12,26.44,11.52,0,0,0,0,0,0,0,0,0,0,0,0,0,0,0,0,
444,-0.9331,2.635,4.128,-5.823,-11.75,-14.14,-25.11,20.17,-24.2,5.15,17.99,29.38,-25.58,13.63,0.3674,-1.258,0,0,0,0,0,0,0,0,0,0,0,0,0,0,0,0,
445,-20.16,-7.973,-12.98,-5.564,-22.87,-23.17,-31.33,3.298,-40.75,-15.58,-17.04,15.29,-46.41,-0.0238,-17.76,-10.28,0,0,0,0,0,0,0,0,0,0,0,0,0,0,0,0,
446,1.2,-17.67,-20.41,-5.498,-31.22,-18.38,2.241,-9.431,-55.45,-14.05,-24.46,5.267,-41.3,7.473,-2.569,5.486,0,0,0,0,0,0,0,0,0,0,0,0,0,0,0,0,
447,-2.356,-8.686,-20.79,-14.36,-28.65,-12.13,-2.232,-12.06,-45.05,11.16,-16.22,9.841,-17.75,22.16,13.48,27.94,0,0,0,0,0,0,0,0,0,0,0,0,0,0,0,0,
448,-24.53,-10.35,-20.38,-11.28,-21.94,-11.96,-22.68,-12.97,-22.59,32.55,-12.13,10.69,-10.75,19.37,15.89,33.26,0,0,0,0,0,0,0,0,0,0,0,0,0,0,0,0,
449,-20.46,-23.63,-5.426,1.236,-14.17,-8.688,-7.074,-7.758,-14.94,17.46,0.4451,7.154,-3.898,13.0,30.36,32.55,0,0,0,0,0,0,0,0,0,0,0,0,0,0,0,0,
450,-15.02,-20.31,15.01,-1.251,9.947,5.309,1.443,-12.79,0.1651,4.032,22.77,20.4,18.12,27.78,45.99,37.02,0,0,0,0,0,0,0,0,0,0,0,0,0,0,0,0,
451,-7.471,-3.954,16.92,-4.244,29.37,18.99,-7.771,-28.22,30.38,28.79,27.66,32.32,20.61,36.18,29.85,22.87,0,0,0,0,0,0,0,0,0,0,0,0,0,0,0,0,
452,14.13,-1.008,1.967,-2.889,11.59,9.626,-6.765,-34.82,22.58,26.24,10.48,7.857,-3.684,5.559,-0.0314,-9.103,0,0,0,0,0,0,0,0,0,0,0,0,0,0,0,0,
453,21.83,1.028,10.7,-0.1403,7.639,4.005,0.7622,-26.4,-8.242,-12.88,19.43,-9.254,-0.8252,-10.04,9.169,-6.318,0,0,0,0,0,0,0,0,0,0,0,0,0,0,0,0,
454,34.68,32.84,56.62,26.32,54.05,41.26,29.71,-11.66,15.94,8.896,61.3,15.73,38.53,26.07,48.79,26.18,0,0,0,0,0,0,0,0,0,0,0,0,0,0,0,0,
455,66.39,64.68,84.61,50.34,85.46,75.92,59.68,-15.29,63.11,69.42,70.21,27.36,58.0,50.51,60.37,30.74,0,0,0,0,0,0,0,0,0,0,0,0,0,0,0,0,
456,73.97,66.67,69.56,42.37,76.54,67.37,33.54,-24.21,63.65,71.74,37.3,16.69,42.65,37.51,39.26,9.926,0,0,0,0,0,0,0,0,0,0,0,0,0,0,0,0,
457,48.84,63.83,36.35,36.8,56.83,47.32,-6.877,-8.036,40.28,35.95,7.751,21.09,15.85,22.57,19.01,-7.117,0,0,0,0,0,0,0,0,0,0,0,0,0,0,0,0,
458,18.53,53.42,5.115,39.87,28.93,35.09,5.049,5.395,16.46,15.21,-5.158,28.35,-6.454,19.4,13.12,-6.08,0,0,0,0,0,0,0,0,0,0,0,0,0,0,0,0,
459,0.5702,19.8,-0.2468,23.89,11.1,25.31,21.59,-1.187,-6.012,18.46,-2.085,36.28,-11.39,31.04,15.13,16.7,0,0,0,0,0,0,0,0,0,0,0,0,0,0,0,0,
460,-12.08,-8.387,5.607,-3.945,10.07,11.34,0.281,-10.05,-10.15,25.77,6.017,52.96,-9.628,44.05,12.77,32.32,0,0,0,0,0,0,0,0,0,0,0,0,0,0,0,0,
461,-21.91,-9.165,-0.7193,-18.83,11.85,-1.702,-0.4715,-27.22,-3.11,8.616,11.76,54.12,-5.285,43.29,14.89,32.86,0,0,0,0,0,0,0,0,0,0,0,0,0,0,0,0,
462,2.488,7.478,8.44,-11.05,30.74,11.08,32.02,-45.57,3.37,4.035,23.35,33.54,11.32,39.34,24.32,35.69,0,0,0,0,0,0,0,0,0,0,0,0,0,0,0,0,
463,39.44,23.57,17.66,2.212,52.48,37.08,32.66,-38.17,11.02,30.63,29.57,15.01,20.5,31.76,22.93,31.84,0,0,0,0,0,0,0,0,0,0,0,0,0,0,0,0,
464,36.98,35.46,3.923,3.858,58.46,42.85,11.68,-15.34,26.05,20.19,30.05,14.74,18.75,20.0,22.61,25.5,0,0,0,0,0,0,0,0,0,0,0,0,0,0,0,0,
465,20.98,41.12,8.248,-1.348,59.54,30.56,20.59,-15.79,45.12,-25.21,29.41,12.41,11.93,5.973,26.74,18.75,0,0,0,0,0,0,0,0,0,0,0,0,0,0,0,0,
466,0.5279,15.36,13.29,-16.55,31.88,3.835,29.73,-43.17,22.33,-53.55,10.66,-14.36,-14.19,-20.38,13.14,-3.556,0,0,0,0,0,0,0,0,0,0,0,0,0,0,0,0,
467,-36.32,-27.46,-12.68,-36.62,-8.143,-22.56,-1.525,-52.04,-33.22,-76.76,0.111,-25.96,-24.87,-32.85,5.357,-9.935,0,0,0,0,0,0,0,0,0,0,0,0,0,0,0,0,
468,-21.42,-21.82,-7.4,-23.24,10.09,-7.426,-29.47,-29.17,-29.47,-78.45,26.7,8.486,8.47,-3.635,25.26,16.4,0,0,0,0,0,0,0,0,0,0,0,0,0,0,0,0,
469,48.16,33.44,41.52,21.75,62.72,38.88,7.164,-9.946,22.73,-27.91,48.73,37.98,32.7,27.69,37.45,23.25,0,0,0,0,0,0,0,0,0,0,0,0,0,0,0,0,
470,69.85,68.23,59.48,32.45,75.07,53.36,63.94,1.067,35.03,10.62,41.17,22.94,20.87,19.51,22.03,-7.465,0,0,0,0,0,0,0,0,0,0,0,0,0,0,0,0,
471,39.83,56.08,42.36,5.695,54.17,31.39,57.75,10.48,16.98,-10.41,34.36,-3.995,10.89,-1.004,5.91,-31.36,0,0,0,0,0,0,0,0,0,0,0,0,0,0,0,0,
472,26.25,35.58,38.36,8.597,45.33,29.56,25.85,0.6469,12.56,-21.71,39.66,-7.507,15.98,8.022,7.064,-27.79,0,0,0,0,0,0,0,0,0,0,0,0,0,0,0,0,
473,28.79,31.48,42.81,24.27,53.43,47.23,24.9,-7.92,16.08,13.71,42.37,6.578,19.38,32.09,15.0,-16.71,0,0,0,0,0,0,0,0,0,0,0,0,0,0,0,0,
474,36.26,36.99,40.98,10.52,59.32,45.99,21.08,15.79,28.07,28.88,43.54,17.52,20.87,41.26,23.64,-6.852,0,0,0,0,0,0,0,0,0,0,0,0,0,0,0,0,
475,49.48,49.63,37.61,9.947,51.29,42.13,13.28,32.11,42.58,14.32,44.48,16.71,19.29,41.63,29.83,6.205,0,0,0,0,0,0,0,0,0,0,0,0,0,0,0,0,
476,42.9,53.57,27.54,21.89,32.6,46.16,30.99,17.67,27.08,22.27,36.46,18.96,8.544,42.42,27.32,17.95,0,0,0,0,0,0,0,0,0,0,0,0,0,0,0,0,
477,31.19,35.94,28.39,9.403,33.84,40.52,51.2,20.21,6.951,33.85,36.61,33.6,11.66,42.85,29.36,27.98,0,0,0,0,0,0,0,0,0,0,0,0,0,0,0,0,
478,43.7,25.6,48.52,7.604,61.43,38.57,55.1,35.36,31.67,34.19,55.14,32.83,32.2,38.25,37.78,35.26,0,0,0,0,0,0,0,0,0,0,0,0,0,0,0,0,
479,44.67,34.87,46.13,20.51,64.05,39.7,39.54,24.18,56.59,44.17,64.98,11.79,34.65,22.6,38.41,39.51,0,0,0,0,0,0,0,0,0,0,0,0,0,0,0,0,
480,17.87,38.09,17.62,14.99,36.17,26.14,11.96,8.655,39.41,28.78,63.7,5.626,25.67,12.97,42.5,51.47,0,0,0,0,0,0,0,0,0,0,0,0,0,0,0,0,
481,-4.669,24.61,-2.358,7.617,22.49,14.21,6.226,-1.127,22.93,-6.417,65.46,13.13,27.23,19.06,46.42,60.18,0,0,0,0,0,0,0,0,0,0,0,0,0,0,0,0,
482,-18.43,4.04,-9.573,-2.942,18.29,10.75,15.04,-3.289,16.09,-0.1,62.53,17.75,25.11,20.08,31.49,48.85,0,0,0,0,0,0,0,0,0,0,0,0,0,0,0,0,
483,-22.6,-5.184,-7.205,-21.74,13.75,3.933,12.0,28.16,2.573,9.753,61.47,22.97,23.65,14.46,22.02,35.82,0,0,0,0,0,0,0,0,0,0,0,0,0,0,0,0,
484,-6.051,9.162,-0.5783,-7.727,25.96,7.529,26.14,54.13,10.56,-16.73,70.26,26.64,36.51,20.6,37.29,36.8,0,0,0,0,0,0,0,0,0,0,0,0,0,0,0,0,
485,16.02,30.97,3.746,21.94,38.02,27.42,57.57,36.26,34.93,-17.13,68.59,33.3,46.08,32.32,48.31,36.17,0,0,0,0,0,0,0,0,0,0,0,0,0,0,0,0,
486,17.88,32.32,8.021,6.365,26.4,32.34,53.13,14.24,36.47,10.96,48.15,36.81,37.01,28.91,35.48,18.9,0,0,0,0,0,0,0,0,0,0,0,0,0,0,0,0,
487,1.434,16.03,11.86,-19.4,15.51,17.12,31.47,14.0,25.19,12.88,37.28,26.15,24.53,20.76,26.21,1.505,0,0,0,0,0,0,0,0,0,0,0,0,0,0,0,0,
488,2.927,15.11,23.53,1.971,31.6,16.68,46.37,27.27,36.65,10.69,53.93,23.6,30.15,30.42,43.76,5.557,0,0,0,0,0,0,0,0,0,0,0,0,0,0,0,0,
489,23.76,22.88,29.36,17.63,44.09,25.09,61.3,23.58,59.95,27.69,67.97,32.46,41.25,44.44,61.67,19.87,0,0,0,0,0,0,0,0,0,0,0,0,0,0,0,0,
490,19.51,8.692,11.23,-15.04,28.48,15.66,37.29,-14.72,56.59,47.63,58.08,36.26,39.11,50.14,59.66,34.87,0,0,0,0,0,0,0,0,0,0,0,0,0,0,0,0,
491,1.825,-4.905,6.139,-39.63,20.26,5.008,18.9,-29.19,37.02,59.9,41.65,32.19,34.68,47.61,53.58,50.78,0,0,0,0,0,0,0,0,0,0,0,0,0,0,0,0,
492,4.255,-8.635,18.89,-34.62,28.61,0.8404,21.9,-0.3994,30.76,31.71,26.14,12.92,30.7,26.37,48.71,52.44,0,0,0,0,0,0,0,0,0,0,0,0,0,0,0,0,
493,-1.017,-29.06,3.747,-37.08,22.88,-11.96,9.107,2.452,24.42,-20.07,12.99,1.352,22.96,7.453,44.78,45.52,0,0,0,0,0,0,0,0,0,0,0,0,0,0,0,0,
494,-27.73,-43.93,-27.73,-52.4,6.582,-30.45,-13.05,-26.03,7.709,-23.56,5.954,13.16,20.34,9.362,47.89,48.36,0,0,0,0,0,0,0,0,0,0,0,0,0,0,0,0,
495,-38.34,-36.06,-34.45,-62.63,0.0656,-41.83,-23.29,-29.43,-1.562,-7.042,6.471,13.32,24.91,9.957,54.77,55.7,0,0,0,0,0,0,0,0,0,0,0,0,0,0,0,0,
496,-18.44,-34.31,-14.52,-57.52,10.19,-33.56,-33.11,-8.483,12.3,-17.63,21.05,4.586,33.29,11.41,55.64,60.61,0,0,0,0,0,0,0,0,0,0,0,0,0,0,0,0,
497,-1.109,-43.67,-2.062,-48.25,20.43,-19.22,-31.13,-4.132,35.21,-15.84,25.69,6.615,33.26,17.13,40.5,57.51,0,0,0,0,0,0,0,0,0,0,0,0,0,0,0,0,
498,-5.349,-44.74,-16.11,-43.99,8.227,-18.87,1.395,-20.08,28.64,-7.416,10.86,7.579,23.34,13.07,23.98,47.72,0,0,0,0,0,0,0,0,0,0,0,0,0,0,0,0,
499,-7.595,-26.94,-20.66,-32.03,-2.124,-13.77,28.26,-31.71,7.248,-22.54,20.09,11.61,29.33,14.49,30.39,46.22,0,0,0,0,0,0,0,0,0,0,0,0,0,0,0,0,
500,-1.938,-5.957,-0.1994,-28.28,14.74,-2.489,29.27,-34.3,19.62,-27.28,48.37,17.88,50.74,25.13,50.54,53.16,0,0,0,0,0,0,0,0,0,0,0,0,0,0,0,0,
501,1.295,-5.869,14.89,-36.55,36.95,0.9,35.98,-27.66,49.63,-13.01,58.49,27.11,64.98,33.25,67.4,52.28,0,0,0,0,0,0,0,0,0,0,0,0,0,0,0,0,
502,14.52,-10.86,18.84,-18.17,48.86,12.41,39.87,-11.81,61.5,-4.871,54.39,44.99,64.21,37.34,69.07,25.28,0,0,0,0,0,0,0,0,0,0,0,0,0,0,0,0,
503,27.49,-3.097,20.56,6.415,55.71,25.05,24.95,-4.141,56.31,-1.282,39.71,34.54,46.92,23.8,52.89,-17.94,0,0,0,0,0,0,0,0,0,0,0,0,0,0,0,0,
504,16.68,4.181,22.22,2.533,58.46,23.0,23.11,-10.17,48.25,0.4017,28.92,-1.543,31.56,5.754,42.33,-37.58,0,0,0,0,0,0,0,0,0,0,0,0,0,0,0,0,
505,-5.714,5.297,20.15,-2.795,49.21,16.26,27.57,-21.6,49.62,-4.205,39.37,-8.821,32.74,10.33,41.58,-31.78,0,0,0,0,0,0,0,0,0,0,0,0,0,0,0,0,
506,-16.61,-3.131,14.33,-4.896,30.18,2.164,12.05,-24.28,48.17,-10.13,45.69,5.127,36.69,21.23,40.3,-20.0,0,0,0,0,0,0,0,0,0,0,0,0,0,0,0,0,
507,-9.605,-20.9,22.05,-14.12,23.09,-12.32,-2.9,-9.908,33.63,-9.285,37.64,12.18,38.51,29.04,48.84,3.504,0,0,0,0,0,0,0,0,0,0,0,0,0,0,0,0,
508,-6.861,-29.32,24.9,-13.92,23.31,-9.498,-4.271,-3.557,25.99,2.29,33.07,20.25,38.07,44.63,60.92,29.78,0,0,0,0,0,0,0,0,0,0,0,0,0,0,0,0,
509,-19.25,-27.04,8.101,-11.31,13.11,-2.398,6.911,-9.104,26.53,19.39,33.19,28.12,36.55,55.94,64.49,43.33,0,0,0,0,0,0,0,0,0,0,0,0,0,0,0,0,
510,-18.3,-24.88,16.57,-11.89,8.754,-2.453,19.6,-1.927,21.08,24.04,30.83,33.95,41.47,53.0,62.76,46.44,0,0,0,0,0,0,0,0,0,0,0,0,0,0,0,0,
511,-12.41,-18.64,37.5,2.462,12.11,-2.583,6.099,6.736,15.11,3.103,18.59,46.29,38.72,47.44,49.43,41.15,0,0,0,0,0,0,0,0,0,0,0,0,0,0,0,0,
512,-23.8,-15.45,27.9,14.89,3.045,-2.968,-8.553,8.389,12.99,-20.18,3.35,53.15,22.86,44.75,28.02,37.94,0,0,0,0,0,0,0,0,0,0,0,0,0,0,0,0,
513,-21.24,-22.64,26.36,1.602,-7.171,-4.584,10.34,15.6,10.1,-16.77,5.082,43.29,16.85,38.3,16.31,41.63,0,0,0,0,0,0,0,0,0,0,0,0,0,0,0,0,
514,-3.615,-16.77,41.2,-6.965,-0.1876,0.78,22.0,27.57,9.998,-1.135,18.32,32.22,22.97,29.8,17.76,38.34,0,0,0,0,0,0,0,0,0,0,0,0,0,0,0,0,
515,-8.158,2.595,32.84,12.44,7.804,8.114,-3.341,36.01,17.99,3.657,18.33,25.29,20.06,20.96,17.43,21.71,0,0,0,0,0,0,0,0,0,0,0,0,0,0,0,0,
516,-24.06,3.853,23.85,30.91,-3.497,1.844,-22.37,29.14,19.96,2.239,4.436,19.1,4.365,8.275,1.792,-1.24,0,0,0,0,0,0,0,0,0,0,0,0,0,0,0,0,
517,-25.22,-3.555,32.62,31.33,-17.63,-5.312,-3.888,25.3,4.948,6.869,-1.917,23.34,-10.17,0.047,-15.41,-20.11,0,0,0,0,0,0,0,0,0,0,0,0,0,0,0,0,
518,-16.27,-3.404,28.74,22.65,-16.95,-1.355,15.27,48.51,-11.41,8.871,-3.027,22.5,-23.83,-5.223,-19.67,-35.4,0,0,0,0,0,0,0,0,0,0,0,0,0,0,0,0,
519,-1.952,-4.62,19.48,19.16,-7.8,2.737,9.861,65.69,-17.24,-4.336,-6.932,16.94,-32.27,-6.058,-16.61,-46.69,0,0,0,0,0,0,0,0,0,0,0,0,0,0,0,0,
520,14.94,8.587,29.95,37.53,7.242,13.18,11.71,58.26,-6.522,-2.326,5.288,41.94,-16.25,16.38,-6.054,-44.28,0,0,0,0,0,0,0,0,0,0,0,0,0,0,0,0,
521,9.534,21.95,36.02,54.85,12.66,20.45,17.91,49.46,13.99,24.02,24.0,57.82,4.762,35.38,7.021,-40.24,0,0,0,0,0,0,0,0,0,0,0,0,0,0,0,0,
522,-15.96,2.482,26.5,48.37,8.563,12.25,9.036,47.04,19.97,25.75,28.84,26.94,15.15,27.14,17.64,-37.28,0,0,0,0,0,0,0,0,0,0,0,0,0,0,0,0,
523,-10.79,-3.669,34.08,41.92,28.59,22.19,19.38,44.83,28.51,19.18,38.37,12.41,39.52,30.06,31.7,-15.52,0,0,0,0,0,0,0,0,0,0,0,0,0,0,0,0,
524,19.9,23.02,55.67,31.8,45.27,37.71,44.47,27.4,52.05,45.57,43.14,27.45,56.35,44.83,34.18,7.078,0,0,0,0,0,0,0,0,0,0,0,0,0,0,0,0,
525,20.85,27.72,62.73,10.93,23.91,18.99,44.69,11.2,46.96,55.45,21.94,26.55,39.09,38.02,14.85,9.45,0,0,0,0,0,0,0,0,0,0,0,0,0,0,0,0,
526,-2.296,10.48,56.01,6.407,7.86,-0.2432,33.56,26.73,17.85,26.4,2.562,18.63,23.3,20.14,-5.865,7.269,0,0,0,0,0,0,0,0,0,0,0,0,0,0,0,0,
527,-14.98,7.086,50.22,13.5,15.48,5.635,27.78,35.18,12.07,8.352,3.897,20.2,25.33,11.3,-11.48,11.33,0,0,0,0,0,0,0,0,0,0,0,0,0,0,0,0,
528,2.543,23.73,67.81,27.58,35.74,23.86,36.86,24.3,33.74,16.14,16.76,30.46,36.61,18.32,-2.769,24.98,0,0,0,0,0,0,0,0,0,0,0,0,0,0,0,0,
529,53.26,48.08,104.4,48.84,72.53,50.25,67.21,37.16,68.97,33.62,32.14,39.24,58.63,28.44,8.358,41.4,0,0,0,0,0,0,0,0,0,0,0,0,0,0,0,0,
530,85.12,57.34,115.7,47.47,93.61,62.94,77.36,46.73,95.43,49.01,41.37,27.81,72.03,20.05,16.74,41.63,0,0,0,0,0,0,0,0,0,0,0,0,0,0,0,0,
531,61.23,52.16,98.01,35.21,78.64,51.4,59.14,30.32,89.85,56.31,41.63,14.27,61.17,7.206,24.27,28.8,0,0,0,0,0,0,0,0,0,0,0,0,0,0,0,0,
532,27.59,46.81,86.5,37.78,60.83,38.74,63.72,29.72,64.42,63.18,34.82,15.6,46.03,7.001,24.76,13.78,0,0,0,0,0,0,0,0,0,0,0,0,0,0,0,0,
533,28.47,44.56,91.55,44.29,65.75,39.38,80.61,40.09,49.9,75.04,35.63,14.58,47.3,11.0,23.8,-7.757,0,0,0,0,0,0,0,0,0,0,0,0,0,0,0,0,
534,47.26,53.58,96.27,53.99,81.87,48.15,64.36,35.69,58.64,91.3,47.59,9.396,52.22,14.71,24.93,-33.24,0,0,0,0,0,0,0,0,0,0,0,0,0,0,0,0,
535,49.98,66.32,86.27,57.38,82.67,51.28,45.12,41.58,67.42,107.7,45.34,8.404,50.05,21.5,20.7,-44.64,0,0,0,0,0,0,0,0,0,0,0,0,0,0,0,0,
536,45.36,71.5,83.65,58.64,79.25,55.81,67.24,70.83,66.37,113.9,38.4,17.0,63.94,37.88,24.87,-36.02,0,0,0,0,0,0,0,0,0,0,0,0,0,0,0,0,
537,51.95,73.83,105.3,88.04,93.61,71.54,105.2,91.21,82.19,112.0,49.63,38.13,87.23,57.9,36.01,-24.77,0,0,0,0,0,0,0,0,0,0,0,0,0,0,0,0,
538,40.6,71.02,121.8,107.4,97.41,73.2,117.4,81.86,97.59,113.0,52.83,48.97,87.29,63.28,29.34,-16.99,0,0,0,0,0,0,0,0,0,0,0,0,0,0,0,0,
539,11.99,70.19,114.7,78.83,78.04,56.74,94.53,61.41,79.24,113.4,34.46,33.89,72.97,53.11,10.41,-6.063,0,0,0,0,0,0,0,0,0,0,0,0,0,0,0,0,
540,11.64,67.95,85.1,54.61,62.25,46.64,62.3,58.36,53.31,97.23,18.55,22.09,53.75,39.97,-1.524,5.031,0,0,0,0,0,0,0,0,0,0,0,0,0,0,0,0,
541,23.39,45.55,49.74,57.52,55.4,41.21,61.85,68.29,41.02,69.74,19.14,33.56,35.41,37.29,2.583,19.93,0,0,0,0,0,0,0,0,0,0,0,0,0,0,0,0,
542,8.016,29.01,48.94,51.68,50.84,34.06,78.64,57.32,36.98,62.83,33.42,38.9,41.94,41.84,17.5,35.84,0,0,0,0,0,0,0,0,0,0,0,0,0,0,0,0,
543,-12.35,38.82,65.77,43.25,44.48,30.42,77.78,39.38,41.39,72.98,44.06,28.01,51.55,32.19,16.94,37.15,0,0,0,0,0,0,0,0,0,0,0,0,0,0,0,0,
544,-1.015,48.31,58.01,53.5,41.92,33.39,78.05,57.93,42.77,60.91,33.97,30.59,36.16,14.39,-5.148,27.78,0,0,0,0,0,0,0,0,0,0,0,0,0,0,0,0,
545,32.18,49.11,60.98,61.95,58.92,44.2,83.3,72.26,44.23,42.24,12.87,34.98,25.83,9.76,-22.37,17.89,0,0,0,0,0,0,0,0,0,0,0,0,0,0,0,0,
546,45.18,49.41,93.36,59.2,73.4,52.79,83.07,44.92,58.98,59.29,3.549,16.85,31.47,13.75,-22.23,11.74,0,0,0,0,0,0,0,0,0,0,0,0,0,0,0,0,
547,26.64,49.85,93.37,59.27,53.17,46.77,82.2,38.61,63.25,77.32,6.242,3.71,27.14,14.65,-16.9,8.469,0,0,0,0,0,0,0,0,0,0,0,0,0,0,0,0,
548,4.873,55.25,59.16,58.76,28.4,33.52,58.44,67.76,48.93,55.04,8.908,12.48,17.27,10.4,-13.0,-5.054,0,0,0,0,0,0,0,0,0,0,0,0,0,0,0,0,
549,3.847,61.47,66.57,57.45,36.67,30.52,35.46,70.54,42.66,35.77,17.47,20.59,16.45,4.086,-5.301,-23.58,0,0,0,0,0,0,0,0,0,0,0,0,0,0,0,0,
550,28.49,60.01,100.1,54.03,49.37,35.21,51.6,41.83,37.68,38.58,29.19,14.41,12.96,-1.924,3.463,-27.17,0,0,0,0,0,0,0,0,0,0,0,0,0,0,0,0,
551,47.9,62.59,89.65,44.23,43.2,37.52,55.69,22.67,31.48,30.09,31.95,12.81,10.08,-0.0116,13.3,-15.73,0,0,0,0,0,0,0,0,0,0,0,0,0,0,0,0,
552,28.95,80.77,72.18,54.54,44.59,48.22,37.87,29.62,50.67,34.74,30.93,31.43,24.74,17.31,24.95,-2.073,0,0,0,0,0,0,0,0,0,0,0,0,0,0,0,0,
553,3.736,90.15,84.17,75.07,45.88,60.27,36.14,41.5,60.38,64.5,18.81,41.2,37.89,32.61,25.1,4.158,0,0,0,0,0,0,0,0,0,0,0,0,0,0,0,0,
554,8.207,77.38,82.49,67.48,30.7,53.43,23.81,41.23,28.5,73.14,1.548,34.66,38.27,37.52,25.43,10.93,0,0,0,0,0,0,0,0,0,0,0,0,0,0,0,0,
555,22.24,76.35,76.69,63.29,34.16,46.56,10.08,43.71,17.76,66.6,10.46,42.16,47.12,43.61,39.59,23.66,0,0,0,0,0,0,0,0,0,0,0,0,0,0,0,0,
556,35.55,90.77,86.37,81.9,53.9,54.05,31.25,47.76,41.84,61.26,27.67,47.36,57.69,42.04,41.77,29.0,0,0,0,0,0,0,0,0,0,0,0,0,0,0,0,0,
557,52.14,97.57,80.88,92.07,59.28,62.51,45.53,47.89,44.66,49.46,25.35,37.12,52.72,35.08,27.9,32.87,0,0,0,0,0,0,0,0,0,0,0,0,0,0,0,0,
558,45.08,101.6,65.14,97.08,59.45,62.4,28.77,62.1,38.11,47.58,12.18,30.93,33.7,29.08,7.549,39.37,0,0,0,0,0,0,0,0,0,0,0,0,0,0,0,0,
559,22.3,94.2,53.98,94.82,54.03,48.13,22.14,75.61,38.05,33.22,-9.69,20.32,5.977,8.608,-27.52,31.47,0,0,0,0,0,0,0,0,0,0,0,0,0,0,0,0,
560,40.11,83.12,55.57,73.02,53.01,40.31,31.75,56.44,28.11,4.951,-23.57,13.98,-7.811,-6.332,-52.21,18.41,0,0,0,0,0,0,0,0,0,0,0,0,0,0,0,0,
561,78.77,98.58,85.75,61.93,74.48,55.28,23.41,24.09,34.93,28.04,-16.15,23.11,-0.6889,0.0678,-46.21,15.14,0,0,0,0,0,0,0,0,0,0,0,0,0,0,0,0,
562,68.6,104.7,101.3,71.85,75.01,58.17,14.01,30.91,56.3,59.08,-13.79,15.62,0.3137,-5.886,-35.42,13.17,0,0,0,0,0,0,0,0,0,0,0,0,0,0,0,0,
563,24.73,74.57,69.41,71.03,37.18,35.31,39.97,73.0,45.47,16.25,-16.15,-3.968,-8.274,-23.46,-27.74,7.465,0,0,0,0,0,0,0,0,0,0,0,0,0,0,0,0,
564,-2.114,52.45,47.26,54.6,12.51,20.83,64.41,79.42,18.71,-27.24,3.094,-4.406,-2.484,-19.28,-4.134,4.778,0,0,0,0,0,0,0,0,0,0,0,0,0,0,0,0,
565,0.2862,50.71,66.85,49.23,17.88,28.52,52.0,47.48,23.93,0.4665,31.39,8.3,23.43,2.289,29.67,13.36,0,0,0,0,0,0,0,0,0,0,0,0,0,0,0,0,
566,17.69,43.67,76.66,46.26,23.49,31.17,26.41,43.35,47.9,30.46,32.52,20.07,37.72,13.36,41.52,22.09,0,0,0,0,0,0,0,0,0,0,0,0,0,0,0,0,
567,6.385,21.79,44.97,15.94,5.305,4.188,1.27,55.11,41.76,10.19,7.079,21.47,19.46,9.357,30.62,17.44,0,0,0,0,0,0,0,0,0,0,0,0,0,0,0,0,
568,-31.83,-2.68,16.47,-7.79,-25.16,-22.08,-12.86,45.24,5.097,-9.716,-4.239,13.7,4.067,10.83,28.66,11.62,0,0,0,0,0,0,0,0,0,0,0,0,0,0,0,0,
569,-31.3,8.691,27.56,16.58,-26.37,-2.974,-2.988,40.79,-14.71,3.791,7.908,16.6,16.5,23.67,32.93,12.0,0,0,0,0,0,0,0,0,0,0,0,0,0,0,0,0,
570,8.372,57.64,53.84,54.26,7.483,41.8,16.45,55.47,2.705,25.18,18.42,28.98,37.04,36.77,27.73,16.87,0,0,0,0,0,0,0,0,0,0,0,0,0,0,0,0,
571,35.02,75.01,73.05,60.77,30.81,59.65,27.99,61.03,31.57,39.37,18.93,27.8,45.41,39.76,16.65,21.07,0,0,0,0,0,0,0,0,0,0,0,0,0,0,0,0,
572,37.82,43.06,81.01,41.24,27.14,44.76,27.22,46.68,40.97,34.4,8.918,21.1,33.98,31.09,-1.09,16.65,0,0,0,0,0,0,0,0,0,0,0,0,0,0,0,0,
573,33.08,37.5,76.68,40.2,33.0,43.01,34.25,42.82,39.29,17.1,3.812,34.51,26.26,34.0,-9.541,24.06,0,0,0,0,0,0,0,0,0,0,0,0,0,0,0,0,
574,39.7,73.18,75.9,76.05,53.25,64.2,56.86,69.3,58.8,23.79,22.9,47.59,42.78,49.29,3.653,45.78,0,0,0,0,0,0,0,0,0,0,0,0,0,0,0,0,
575,55.54,82.54,85.97,96.57,56.29,66.31,69.97,85.94,86.61,38.51,48.72,34.98,59.57,49.09,19.18,50.64,0,0,0,0,0,0,0,0,0,0,0,0,0,0,0,0,
576,61.02,65.54,98.06,82.94,56.76,57.33,88.77,64.23,94.99,42.8,63.88,24.99,70.87,48.83,32.98,52.21,0,0,0,0,0,0,0,0,0,0,0,0,0,0,0,0,
577,57.55,64.21,101.6,79.19,72.42,64.75,115.2,47.02,98.88,61.06,66.25,33.05,83.38,61.1,45.33,67.46,0,0,0,0,0,0,0,0,0,0,0,0,0,0,0,0,
578,45.01,65.13,89.96,86.61,70.17,60.48,99.05,63.57,102.2,65.58,55.82,41.46,76.95,61.11,45.63,68.3,0,0,0,0,0,0,0,0,0,0,0,0,0,0,0,0,
579,21.72,55.52,75.55,78.55,42.76,36.32,63.86,70.89,85.37,35.53,45.35,49.17,57.15,51.14,43.84,51.18,0,0,0,0,0,0,0,0,0,0,0,0,0,0,0,0,
580,14.59,49.84,67.95,62.25,28.1,24.73,63.39,47.94,59.16,19.99,41.17,54.16,48.51,45.8,49.47,41.11,0,0,0,0,0,0,0,0,0,0,0,0,0,0,0,0,
581,34.4,48.24,63.9,59.18,38.42,34.04,70.41,46.32,51.98,34.8,45.51,47.75,47.76,44.78,53.05,38.9,0,0,0,0,0,0,0,0,0,0,0,0,0,0,0,0,
582,50.72,38.76,55.69,61.94,35.84,38.63,48.45,63.86,56.32,48.36,48.55,35.32,35.91,42.88,43.24,30.9,0,0,0,0,0,0,0,0,0,0,0,0,0,0,0,0,
583,42.57,24.11,27.03,43.41,0.9715,20.14,15.07,43.76,36.5,40.66,24.0,29.52,11.02,34.91,25.97,23.76,0,0,0,0,0,0,0,0,0,0,0,0,0,0,0,0,
584,25.37,29.48,6.002,21.19,-17.72,9.0,5.891,21.91,4.385,24.62,-4.569,32.41,-0.1686,31.57,18.22,25.12,0,0,0,0,0,0,0,0,0,0,0,0,0,0,0,0,
585,20.15,45.63,37.54,22.41,3.557,26.38,16.85,41.9,4.625,21.33,3.213,30.76,14.6,36.61,19.49,23.24,0,0,0,0,0,0,0,0,0,0,0,0,0,0,0,0,
586,24.45,34.92,82.91,22.34,24.99,36.66,25.87,57.36,29.28,17.58,26.33,35.45,35.37,43.05,23.02,25.71,0,0,0,0,0,0,0,0,0,0,0,0,0,0,0,0,
587,23.5,18.28,88.51,10.73,25.73,23.76,42.87,54.64,45.1,5.951,32.17,55.4,41.82,49.93,17.78,39.33,0,0,0,0,0,0,0,0,0,0,0,0,0,0,0,0,
588,16.61,24.25,71.05,7.896,12.57,12.02,54.44,50.08,41.8,0.5921,21.09,49.89,28.34,45.89,-4.455,43.63,0,0,0,0,0,0,0,0,0,0,0,0,0,0,0,0,
589,17.86,33.18,60.73,12.74,9.895,19.61,38.77,26.78,35.0,5.974,16.19,19.22,19.64,38.13,-12.18,43.91,0,0,0,0,0,0,0,0,0,0,0,0,0,0,0,0,
590,28.33,38.4,65.04,16.28,32.73,37.94,37.73,4.844,51.03,28.19,33.84,10.36,34.85,42.46,8.044,48.45,0,0,0,0,0,0,0,0,0,0,0,0,0,0,0,0,
591,39.35,45.25,83.6,22.18,44.28,43.32,70.47,16.0,67.88,45.05,51.41,14.96,50.75,41.87,22.45,44.96,0,0,0,0,0,0,0,0,0,0,0,0,0,0,0,0,
592,48.07,50.0,99.29,30.46,32.83,38.37,81.14,29.91,56.48,26.89,43.47,12.34,50.09,31.44,19.6,40.72,0,0,0,0,0,0,0,0,0,0,0,0,0,0,0,0,
593,41.46,49.75,83.68,19.77,22.19,27.06,44.84,18.83,44.63,-2.127,20.73,15.21,34.49,22.03,9.572,39.37,0,0,0,0,0,0,0,0,0,0,0,0,0,0,0,0,
594,28.14,38.61,53.34,-6.071,7.576,3.188,17.05,6.596,40.67,-17.92,9.044,24.92,18.1,18.38,9.329,42.27,0,0,0,0,0,0,0,0,0,0,0,0,0,0,0,0,
595,27.36,21.75,49.2,-7.136,-4.836,-9.318,31.0,4.332,26.55,-21.47,7.645,23.99,18.07,23.04,22.15,48.15,0,0,0,0,0,0,0,0,0,0,0,0,0,0,0,0,
596,6.019,10.3,50.56,2.954,-7.69,-8.166,39.91,0.2867,10.06,-23.61,-4.214,8.31,16.2,16.35,19.68,34.16,0,0,0,0,0,0,0,0,0,0,0,0,0,0,0,0,
597,-21.67,17.38,40.71,1.274,-11.03,-7.742,30.2,9.427,2.56,-38.56,-9.882,7.132,10.69,5.245,14.59,23.07,0,0,0,0,0,0,0,0,0,0,0,0,0,0,0,0,
598,8.183,43.34,46.23,12.25,-8.646,6.797,31.91,17.63,11.27,-36.18,-0.1301,22.01,19.72,17.92,25.91,38.89,0,0,0,0,0,0,0,0,0,0,0,0,0,0,0,0,
599,39.72,44.07,40.13,10.77,-16.89,12.54,22.05,-13.12,17.53,-6.134,-11.9,11.17,11.28,21.02,15.35,35.61,0,0,0,0,0,0,0,0,0,0,0,0,0,0,0,0,
600,13.99,12.5,12.69,-18.85,-45.05,-11.84,-4.768,-32.32,-5.976,-12.18,-31.96,-7.976,-18.14,-5.985,-12.89,9.005,0,0,0,0,0,0,0,0,0,0,0,0,0,0,0,0,
601,0.8789,7.903,20.04,-14.71,-53.43,-23.69,-15.04,-2.848,-29.15,-65.42,-23.29,3.293,-20.71,-24.22,-20.96,-3.827,0,0,0,0,0,0,0,0,0,0,0,0,0,0,0,0,
602,28.31,35.33,45.92,18.0,-35.33,-9.485,-15.35,5.007,-20.37,-97.36,-6.49,11.5,-2.283,-24.84,-21.31,-11.02,0,0,0,0,0,0,0,0,0,0,0,0,0,0,0,0,
603,45.11,47.79,46.27,22.68,-16.92,3.134,-3.294,-24.32,5.001,-81.85,2.565,-8.575,5.079,-22.51,-20.56,-10.41,0,0,0,0,0,0,0,0,0,0,0,0,0,0,0,0,
604,34.98,37.39,46.99,16.72,-4.641,5.896,26.73,-36.11,26.86,-62.97,9.815,-23.56,6.728,-13.64,-1.706,13.14,0,0,0,0,0,0,0,0,0,0,0,0,0,0,0,0,
605,18.63,36.26,57.33,29.61,3.827,9.031,36.07,-29.87,35.28,-64.63,17.31,-12.94,21.6,3.623,27.85,38.48,0,0,0,0,0,0,0,0,0,0,0,0,0,0,0,0,
606,21.99,61.9,61.23,47.88,22.25,27.28,26.54,-23.46,45.76,-52.19,30.21,1.749,47.81,19.51,42.74,45.07,0,0,0,0,0,0,0,0,0,0,0,0,0,0,0,0,
607,40.97,76.48,65.41,55.43,47.07,46.68,34.55,-19.39,64.72,-20.32,33.69,5.941,57.0,22.67,31.91,37.16,0,0,0,0,0,0,0,0,0,0,0,0,0,0,0,0,
608,46.44,51.43,62.22,48.02,45.72,40.16,34.6,-26.86,55.25,-6.997,20.36,15.38,43.31,19.27,18.52,34.7,0,0,0,0,0,0,0,0,0,0,0,0,0,0,0,0,
609,36.99,31.52,48.24,42.23,26.81,25.81,0.1782,-28.42,28.42,-7.362,14.13,29.03,38.52,27.21,27.44,54.55,0,0,0,0,0,0,0,0,0,0,0,0,0,0,0,0,
610,24.75,48.41,42.16,58.05,24.6,29.19,-16.77,-4.774,33.65,2.601,14.76,25.71,45.46,40.95,40.36,71.95,0,0,0,0,0,0,0,0,0,0,0,0,0,0,0,0,
611,11.04,59.2,34.01,70.96,25.45,31.14,6.452,2.523,40.21,10.21,2.197,8.047,33.17,35.36,28.44,52.54,0,0,0,0,0,0,0,0,0,0,0,0,0,0,0,0,
612,12.32,36.36,27.89,59.64,20.06,23.47,10.79,-28.99,13.87,3.424,-9.043,0.1582,13.52,21.53,12.1,30.3,0,0,0,0,0,0,0,0,0,0,0,0,0,0,0,0,
613,45.54,32.16,59.54,61.52,39.08,41.23,-3.116,-34.75,12.73,9.351,5.28,17.92,28.38,38.46,23.46,47.64,0,0,0,0,0,0,0,0,0,0,0,0,0,0,0,0,
614,73.2,73.56,90.32,82.81,65.15,76.42,14.22,2.151,55.24,45.23,26.12,40.19,58.69,66.2,39.81,66.55,0,0,0,0,0,0,0,0,0,0,0,0,0,0,0,0,
615,57.71,94.58,71.13,82.32,60.66,79.55,36.67,15.9,75.02,64.62,27.14,43.83,63.62,64.84,40.5,59.41,0,0,0,0,0,0,0,0,0,0,0,0,0,0,0,0,
616,41.41,68.21,48.37,70.54,47.05,63.66,32.91,3.413,61.72,40.99,14.95,44.33,53.53,54.18,35.03,46.48,0,0,0,0,0,0,0,0,0,0,0,0,0,0,0,0,
617,41.57,45.73,41.84,66.4,31.69,55.71,11.82,-4.182,45.48,17.37,-3.445,38.05,36.43,42.16,11.19,18.63,0,0,0,0,0,0,0,0,0,0,0,0,0,0,0,0,
618,19.13,45.5,28.81,53.31,11.72,42.12,-17.91,-17.64,27.16,10.85,-12.66,14.49,19.65,22.27,-12.21,-6.949,0,0,0,0,0,0,0,0,0,0,0,0,0,0,0,0,
619,1.739,50.8,32.31,39.95,19.29,37.26,-17.18,-23.25,29.86,12.4,4.248,7.624,31.5,27.41,2.817,12.63,0,0,0,0,0,0,0,0,0,0,0,0,0,0,0,0,
620,12.02,47.01,46.49,44.05,35.8,52.72,14.21,-0.0954,57.67,26.99,17.72,25.09,54.86,53.44,21.05,41.83,0,0,0,0,0,0,0,0,0,0,0,0,0,0,0,0,
621,12.98,29.62,41.94,57.74,27.76,57.55,10.78,24.42,69.84,33.9,9.31,33.85,57.61,58.91,15.3,40.26,0,0,0,0,0,0,0,0,0,0,0,0,0,0,0,0,
622,13.89,20.9,28.33,54.5,13.41,41.62,-5.554,20.92,60.99,24.1,4.861,30.18,48.8,47.95,15.81,34.43,0,0,0,0,0,0,0,0,0,0,0,0,0,0,0,0,
623,20.48,29.57,14.22,32.73,-1.439,27.41,23.1,2.956,40.56,28.05,16.78,37.07,46.41,48.8,29.48,45.04,0,0,0,0,0,0,0,0,0,0,0,0,0,0,0,0,
624,7.176,36.41,15.04,41.76,-10.37,29.7,45.05,7.566,22.04,42.33,33.56,52.44,54.65,57.97,37.59,53.25,0,0,0,0,0,0,0,0,0,0,0,0,0,0,0,0,
625,-2.355,32.41,26.62,67.69,-9.058,30.25,29.14,32.27,22.9,30.18,34.11,42.45,53.33,47.95,32.32,39.77,0,0,0,0,0,0,0,0,0,0,0,0,0,0,0,0,
626,12.7,21.97,13.08,47.85,-14.63,16.62,29.3,40.51,18.22,-0.6941,27.74,16.78,45.37,32.44,33.96,32.38,0,0,0,0,0,0,0,0,0,0,0,0,0,0,0,0,
627,34.81,18.64,-1.541,21.28,-6.753,18.14,34.77,26.37,17.83,-7.354,44.01,20.6,63.76,45.35,55.77,54.57,0,0,0,0,0,0,0,0,0,0,0,0,0,0,0,0,
628,43.79,24.1,5.791,23.48,9.31,32.28,17.04,7.681,43.06,8.674,53.53,35.59,72.76,54.45,58.01,63.23,0,0,0,0,0,0,0,0,0,0,0,0,0,0,0,0,
629,27.5,16.05,-1.289,10.35,-8.024,20.82,20.47,1.614,30.17,9.622,27.54,27.43,32.89,26.16,24.52,39.95,0,0,0,0,0,0,0,0,0,0,0,0,0,0,0,0,
630,9.55,-4.848,-14.13,-4.698,-25.16,-5.53,30.76,6.565,-19.98,-15.68,-3.963,12.61,-5.194,-6.671,-4.815,20.85,0,0,0,0,0,0,0,0,0,0,0,0,0,0,0,0,
631,10.62,-8.737,-7.598,14.26,-11.02,-11.45,2.62,6.277,-24.43,-43.16,-23.08,13.72,-7.262,-10.74,-12.83,16.85,0,0,0,0,0,0,0,0,0,0,0,0,0,0,0,0,
632,5.827,0.3203,-14.64,33.71,-5.424,-1.373,-18.27,13.99,-2.517,-39.44,-28.29,34.58,2.53,8.045,-12.62,19.85,0,0,0,0,0,0,0,0,0,0,0,0,0,0,0,0,
633,-9.197,-7.032,-47.53,24.84,-20.22,-4.951,-19.53,25.38,-9.225,-19.35,-21.86,46.88,6.656,19.29,-14.4,25.12,0,0,0,0,0,0,0,0,0,0,0,0,0,0,0,0,
634,-6.952,-5.932,-60.23,14.13,-24.39,-9.895,-35.03,11.13,-18.51,-19.04,-16.34,28.71,8.615,15.06,-10.83,30.92,0,0,0,0,0,0,0,0,0,0,0,0,0,0,0,0,
635,5.581,24.5,-32.62,26.62,-9.611,13.28,-31.58,3.861,-4.58,-13.73,-10.01,16.36,14.08,16.8,5.787,37.97,0,0,0,0,0,0,0,0,0,0,0,0,0,0,0,0,
636,5.024,30.77,-0.9609,44.38,2.314,30.16,-3.05,25.28,6.561,6.17,-4.757,30.48,14.24,22.53,15.54,36.59,0,0,0,0,0,0,0,0,0,0,0,0,0,0,0,0,
637,14.68,17.32,16.13,58.28,9.148,26.87,7.634,30.92,2.742,19.85,-3.26,38.13,11.37,25.78,10.82,27.14,0,0,0,0,0,0,0,0,0,0,0,0,0,0,0,0,
638,46.46,38.33,26.0,78.56,22.08,39.98,0.4334,20.38,8.868,43.94,-1.435,22.6,17.94,24.65,7.999,17.89,0,0,0,0,0,0,0,0,0,0,0,0,0,0,0,0,
639,45.84,59.06,18.91,85.2,21.0,48.38,-12.89,27.39,18.02,46.81,-6.425,12.31,26.79,11.73,13.87,13.8,0,0,0,0,0,0,0,0,0,0,0,0,0,0,0,0,
640,19.09,60.07,6.721,78.41,10.77,44.09,-18.33,38.03,9.552,10.44,-2.915,28.32,40.17,11.63,28.17,27.16,0,0,0,0,0,0,0,0,0,0,0,0,0,0,0,0,
641,34.19,67.75,14.09,83.02,20.69,58.36,-11.08,26.37,12.25,13.43,18.14,32.35,53.27,24.75,32.02,40.38,0,0,0,0,0,0,0,0,0,0,0,0,0,0,0,0,
642,49.27,54.43,21.8,78.22,21.75,57.41,-22.94,4.315,31.17,40.82,25.66,4.554,41.98,13.97,14.13,26.21,0,0,0,0,0,0,0,0,0,0,0,0,0,0,0,0,
643,13.81,29.48,13.46,64.23,-3.598,32.07,-32.04,1.675,26.35,24.2,23.51,-2.346,27.65,-0.546,6.367,7.84,0,0,0,0,0,0,0,0,0,0,0,0,0,0,0,0,
644,5.288,42.21,15.07,81.99,-8.057,36.28,8.357,13.96,5.133,15.37,36.24,16.79,38.89,8.619,20.51,7.775,0,0,0,0,0,0,0,0,0,0,0,0,0,0,0,0,
645,44.14,71.89,36.88,103.0,13.54,56.68,42.51,8.517,3.574,43.85,43.3,14.57,49.13,16.79,28.06,10.23,0,0,0,0,0,0,0,0,0,0,0,0,0,0,0,0,
646,48.53,75.69,39.52,83.27,8.848,46.4,17.47,-1.694,11.5,59.33,28.78,10.62,39.24,15.97,21.59,5.542,0,0,0,0,0,0,0,0,0,0,0,0,0,0,0,0,
647,27.13,52.5,12.45,73.72,-23.49,26.35,-9.947,25.63,1.457,56.87,16.39,34.85,32.02,21.02,15.68,2.795,0,0,0,0,0,0,0,0,0,0,0,0,0,0,0,0,
648,29.65,38.78,-0.2375,105.7,-38.12,28.11,-2.538,57.61,-13.91,58.77,13.86,42.52,32.16,23.77,5.064,0.0136,0,0,0,0,0,0,0,0,0,0,0,0,0,0,0,0,
649,20.92,50.81,-2.765,114.9,-35.7,28.95,2.939,35.89,-18.5,57.52,1.136,11.84,18.81,12.15,-15.13,-10.68,0,0,0,0,0,0,0,0,0,0,0,0,0,0,0,0,
650,-1.125,58.57,-10.97,93.99,-27.9,21.22,-2.926,-0.3596,-18.61,45.37,-5.051,-5.073,12.31,6.928,-14.49,-9.064,0,0,0,0,0,0,0,0,0,0,0,0,0,0,0,0,
651,14.0,61.39,10.55,92.13,-4.564,28.79,3.616,-10.74,-5.559,42.2,15.84,0.2006,32.95,18.05,7.116,9.479,0,0,0,0,0,0,0,0,0,0,0,0,0,0,0,0,
652,33.66,61.46,30.06,81.45,-0.7087,24.31,15.71,-26.41,1.599,49.2,24.14,-9.208,37.91,13.79,6.998,10.09,0,0,0,0,0,0,0,0,0,0,0,0,0,0,0,0,
653,16.57,32.32,3.357,52.93,-25.8,-5.485,0.1068,-32.89,-21.23,31.76,14.02,-14.31,23.14,-2.947,-1.599,-1.612,0,0,0,0,0,0,0,0,0,0,0,0,0,0,0,0,
654,-0.7262,5.31,-5.699,61.36,-26.67,-9.916,-35.82,-11.93,-18.75,-1.56,26.5,-1.958,30.4,-2.286,8.45,2.09,0,0,0,0,0,0,0,0,0,0,0,0,0,0,0,0,
655,-1.111,20.48,21.44,89.61,-16.94,9.137,-26.21,-6.822,12.0,-6.963,43.04,5.16,40.38,3.708,12.3,8.633,0,0,0,0,0,0,0,0,0,0,0,0,0,0,0,0,
656,-4.272,46.24,16.03,84.53,-29.12,14.11,19.02,-13.37,-1.642,10.94,37.59,12.47,31.19,1.167,4.807,6.859,0,0,0,0,0,0,0,0,0,0,0,0,0,0,0,0,
657,-12.56,46.24,-14.37,58.7,-30.18,10.88,12.37,-7.402,-26.21,11.32,31.76,10.8,22.82,-5.815,2.483,1.331,0,0,0,0,0,0,0,0,0,0,0,0,0,0,0,0,T1
658,-0.2446,30.52,-3.072,57.74,-8.976,16.23,-5.224,-0.9648,-7.051,-5.634,41.84,-2.465,25.86,-5.145,10.17,1.547,0,0,0,0,0,0,0,0,0,0,0,0,0,0,0,0,
659,53.2,32.03,39.84,91.08,14.48,41.17,36.6,18.64,15.75,14.34,64.99,9.73,43.52,19.66,28.68,13.21,0,0,0,0,0,0,0,0,0,0,0,0,0,0,0,0,
660,96.31,54.56,48.1,115.3,29.98,69.4,60.97,51.89,22.12,61.42,77.71,30.38,55.84,41.92,33.0,13.26,0,0,0,0,0,0,0,0,0,0,0,0,0,0,0,0,
661,86.04,74.57,31.17,109.9,36.56,74.6,40.94,68.93,28.39,59.45,63.96,28.8,42.3,37.01,10.83,-2.143,0,0,0,0,0,0,0,0,0,0,0,0,0,0,0,0,
662,74.44,89.28,42.2,102.9,47.52,75.72,38.11,69.62,36.46,34.73,48.62,27.84,34.0,34.29,-6.966,-3.925,0,0,0,0,0,0,0,0,0,0,0,0,0,0,0,0,
663,83.92,95.01,55.82,105.1,52.04,80.13,41.6,67.81,43.91,41.59,45.07,35.39,42.64,42.2,-9.771,2.461,0,0,0,0,0,0,0,0,0,0,0,0,0,0,0,0,
664,82.68,77.02,41.8,106.3,32.51,69.66,37.48,58.3,34.85,41.28,37.25,44.52,36.19,44.19,-12.44,-2.314,0,0,0,0,0,0,0,0,0,0,0,0,0,0,0,0,
665,76.25,50.86,28.3,93.04,15.11,57.98,25.36,31.12,14.72,39.78,25.83,48.56,22.99,44.83,-12.29,-6.259,0,0,0,0,0,0,0,0,0,0,0,0,0,0,0,0,
666,69.39,46.71,20.11,70.02,10.35,48.87,-3.266,10.87,17.21,56.72,23.14,30.43,26.78,39.07,-6.064,-3.71,0,0,0,0,0,0,0,0,0,0,0,0,0,0,0,0,
667,54.31,54.79,10.1,60.45,-1.784,25.56,6.123,18.44,26.93,27.28,24.12,5.265,24.57,18.33,-6.165,-8.139,0,0,0,0,0,0,0,0,0,0,0,0,0,0,0,0,
668,52.96,42.63,16.88,60.32,-4.321,10.58,52.82,19.13,16.95,-27.01,25.0,0.8615,13.6,8.682,-2.59,-7.685,0,0,0,0,0,0,0,0,0,0,0,0,0,0,0,0,
669,75.52,30.27,34.48,67.19,17.62,26.53,52.67,11.22,23.02,-17.97,35.21,12.48,26.77,27.59,21.48,11.13,0,0,0,0,0,0,0,0,0,0,0,0,0,0,0,0,
670,79.23,37.75,25.43,77.02,17.05,31.92,18.71,14.95,46.38,10.13,38.86,24.93,37.93,39.45,31.4,16.2,0,0,0,0,0,0,0,0,0,0,0,0,0,0,0,0,
671,38.67,20.1,-12.46,60.63,-18.05,1.005,7.544,1.259,29.98,-6.323,22.95,30.88,20.55,24.38,15.93,2.346,0,0,0,0,0,0,0,0,0,0,0,0,0,0,0,0,
672,20.12,-9.735,-26.54,48.96,-17.45,-8.389,3.958,-8.688,6.059,-21.83,21.37,27.93,23.96,16.99,24.8,9.357,0,0,0,0,0,0,0,0,0,0,0,0,0,0,0,0,
673,60.95,9.385,-0.5541,79.51,21.03,26.32,1.535,13.12,34.35,-1.204,38.97,20.63,50.41,28.87,48.91,28.05,0,0,0,0,0,0,0,0,0,0,0,0,0,0,0,0,
674,79.6,44.42,12.07,103.0,22.01,43.04,22.21,9.89,54.96,32.63,42.22,18.19,52.06,38.58,49.6,33.64,0,0,0,0,0,0,0,0,0,0,0,0,0,0,0,0,
675,41.95,45.06,-9.02,92.55,-8.526,20.61,39.87,-15.62,27.61,40.82,35.66,17.95,43.29,36.05,44.8,33.19,0,0,0,0,0,0,0,0,0,0,0,0,0,0,0,0,
676,14.77,25.44,-25.8,76.1,-18.93,-0.0589,19.3,-4.986,14.94,-0.3978,31.03,16.38,42.12,21.65,36.43,21.12,0,0,0,0,0,0,0,0,0,0,0,0,0,0,0,0,
677,27.3,13.58,-18.82,71.02,-10.98,6.022,2.323,19.11,29.18,-37.56,20.9,23.44,31.97,11.35,10.3,-0.6358,0,0,0,0,0,0,0,0,0,0,0,0,0,0,0,0,
678,50.12,27.09,-7.335,82.12,-0.4079,26.99,19.45,23.25,25.7,-17.81,12.25,24.27,16.35,8.972,-11.34,-15.19,0,0,0,0,0,0,0,0,0,0,0,0,0,0,0,0,
679,47.83,48.18,-11.96,95.64,4.052,35.72,9.774,26.28,12.62,9.038,10.04,4.204,3.975,-3.313,-17.74,-21.72,0,0,0,0,0,0,0,0,0,0,0,0,0,0,0,0,
680,17.57,48.7,-35.2,96.61,-11.34,23.58,-31.08,30.38,7.41,10.14,1.634,-6.341,-11.69,-18.48,-20.85,-22.64,0,0,0,0,0,0,0,0,0,0,0,0,0,0,0,0,
681,-2.749,33.03,-62.32,85.48,-37.77,-0.2656,-28.04,15.9,-18.0,8.559,-8.492,3.174,-27.17,-25.45,-15.89,-20.82,0,0,0,0,0,0,0,0,0,0,0,0,0,0,0,0,
682,4.259,8.903,-61.37,64.27,-40.66,-22.73,1.891,-5.227,-49.99,-8.171,1.945,9.887,-23.94,-30.27,2.592,-17.39,0,0,0,0,0,0,0,0,0,0,0,0,0,0,0,0,
683,11.59,-9.636,-37.97,45.23,-25.07,-32.77,-6.614,-17.1,-39.02,-40.33,11.39,5.141,-14.87,-38.94,10.71,-19.3,0,0,0,0,0,0,0,0,0,0,0,0,0,0,0,0,
684,-3.098,-8.291,-48.6,37.76,-36.61,-36.95,-32.41,-33.79,-24.77,-60.29,-9.768,-4.2,-28.56,-51.6,0.8345,-30.82,0,0,0,0,0,0,0,0,0,0,0,0,0,0,0,0,
685,-9.768,1.661,-78.34,41.81,-55.48,-35.22,-27.9,-45.82,-45.35,-65.01,-20.02,-0.9087,-36.51,-47.4,3.605,-24.74,0,0,0,0,0,0,0,0,0,0,0,0,0,0,0,0,
686,20.16,15.0,-69.68,52.28,-43.39,-24.96,-6.89,-36.38,-46.99,-54.09,-3.228,4.566,-21.43,-29.92,14.88,-4.949,0,0,0,0,0,0,0,0,0,0,0,0,0,0,0,0,
687,30.53,21.26,-55.61,52.04,-38.33,-26.32,-10.77,-30.38,-32.72,-37.89,3.558,-7.622,-13.73,-30.45,16.96,-5.802,0,0,0,0,0,0,0,0,0,0,0,0,0,0,0,0,
688,7.777,6.665,-57.42,46.04,-41.93,-30.13,-28.97,-31.86,-34.74,-34.11,12.85,-10.75,-4.243,-31.17,26.52,-9.981,0,0,0,0,0,0,0,0,0,0,0,0,0,0,0,0,
689,36.65,8.137,-37.4,50.93,-20.9,-13.06,-16.98,-20.96,-21.73,-35.97,24.31,0.7655,9.475,-15.48,33.39,-3.311,0,0,0,0,0,0,0,0,0,0,0,0,0,0,0,0,
690,77.41,32.89,-33.91,51.22,-16.44,2.861,2.689,-11.31,-11.14,-34.83,12.5,7.816,6.753,1.259,30.48,5.641,0,0,0,0,0,0,0,0,0,0,0,0,0,0,0,0,
691,30.78,12.78,-78.16,35.18,-37.22,3.24,-18.62,-20.41,-22.09,-16.87,7.822,20.0,10.18,25.71,38.93,29.24,0,0,0,0,0,0,0,0,0,0,0,0,0,0,0,0,
692,-11.53,-30.17,-78.78,24.57,-27.93,6.45,-39.03,-40.29,-10.96,17.04,14.1,21.02,14.7,40.09,34.52,45.05,0,0,0,0,0,0,0,0,0,0,0,0,0,0,0,0,
693,39.76,-2.809,-1.91,37.31,1.247,14.54,-14.75,-50.86,0.605,22.51,2.296,1.623,-4.717,17.47,5.418,25.05,0,0,0,0,0,0,0,0,0,0,0,0,0,0,0,0,
694,89.44,47.35,41.08,44.7,9.42,10.41,2.371,-46.54,-18.89,-7.765,-13.37,-4.891,-21.16,-10.22,-13.03,2.587,0,0,0,0,0,0,0,0,0,0,0,0,0,0,0,0,
695,85.07,43.1,13.21,13.23,6.159,-5.278,-12.37,-43.96,-25.67,-27.5,-27.7,-6.241,-24.95,-18.62,-21.53,1.798,0,0,0,0,0,0,0,0,0,0,0,0,0,0,0,0,
696,84.29,32.13,4.815,-22.21,7.167,-12.95,-24.77,-48.74,-16.65,-29.27,-44.18,-15.46,-30.6,-20.99,-31.91,6.431,0,0,0,0,0,0,0,0,0,0,0,0,0,0,0,0,
697,98.86,19.27,21.34,-25.86,3.043,-15.99,-34.29,-53.13,-24.44,-39.77,-44.51,-5.886,-27.57,-18.42,-29.07,11.04,0,0,0,0,0,0,0,0,0,0,0,0,0,0,0,0,
698,102.0,-25.35,2.544,-26.9,-8.611,-28.14,-30.92,-54.21,-30.38,-52.11,-31.0,10.72,-11.34,-9.712,-11.23,20.38,0,0,0,0,0,0,0,0,0,0,0,0,0,0,0,0,
699,78.05,-42.33,-15.66,-41.69,-21.22,-41.29,-1.945,-55.59,-25.22,-46.73,-19.32,2.254,4.371,-9.612,4.737,22.49,0,0,0,0,0,0,0,0,0,0,0,0,0,0,0,0,
700,39.15,-31.3,-0.4004,-47.08,-37.81,-51.33,8.805,-61.12,-39.2,-37.89,-14.78,-12.68,4.721,-20.33,5.171,10.46,0,0,0,0,0,0,0,0,0,0,0,0,0,0,0,0,
701,33.77,-46.99,-7.34,-41.36,-54.2,-58.74,-14.75,-66.46,-62.67,-33.7,-20.14,-11.5,-11.36,-26.38,-9.21,0.5336,0,0,0,0,0,0,0,0,0,0,0,0,0,0,0,0,
702,47.24,-58.32,-46.07,-51.62,-63.64,-64.14,-42.8,-76.5,-63.87,-22.19,-29.49,-12.75,-26.22,-29.87,-23.47,-1.237,0,0,0,0,0,0,0,0,0,0,0,0,0,0,0,0,
703,23.01,-50.66,-53.32,-78.05,-66.8,-71.59,-48.24,-81.51,-60.01,-19.43,-21.92,-23.32,-24.89,-37.16,-16.07,0.4553,0,0,0,0,0,0,0,0,0,0,0,0,0,0,0,0,
704,-3.259,-61.42,-28.66,-91.27,-58.98,-70.43,-20.4,-57.03,-63.89,-35.03,7.073,-24.42,-13.91,-39.75,8.51,1.742,0,0,0,0,0,0,0,0,0,0,0,0,0,0,0,0,
705,13.17,-77.63,-30.83,-92.37,-51.16,-62.81,-3.239,-41.59,-59.65,-43.69,19.17,-16.17,-12.69,-41.38,12.39,-8.332,0,0,0,0,0,0,0,0,0,0,0,0,0,0,0,0,
706,41.56,-64.7,-45.59,-88.54,-49.85,-57.55,-14.11,-58.72,-54.49,-31.77,1.546,-7.744,-16.21,-39.87,-4.673,-15.83,0,0,0,0,0,0,0,0,0,0,0,0,0,0,0,0,
707,44.83,-37.5,-33.47,-73.67,-39.58,-47.33,-12.52,-53.82,-48.87,-10.45,-3.205,-8.646,-7.86,-31.92,-11.12,-10.77,0,0,0,0,0,0,0,0,0,0,0,0,0,0,0,0,
708,22.62,-37.87,-28.38,-71.37,-33.42,-47.37,-9.959,-37.66,-37.05,-5.268,12.4,-23.49,0.0448,-34.71,-9.416,-17.55,0,0,0,0,0,0,0,0,0,0,0,0,0,0,0,0,
709,21.6,-57.26,-37.18,-81.93,-38.32,-57.6,-12.34,-50.93,-34.7,-12.91,16.15,-26.31,0.7294,-34.0,-5.846,-21.67,0,0,0,0,0,0,0,0,0,0,0,0,0,0,0,0,
710,41.68,-55.16,-30.02,-79.51,-38.51,-49.9,-10.61,-47.56,-32.36,1.822,2.212,-13.38,0.2512,-15.88,-2.811,-2.694,0,0,0,0,0,0,0,0,0,0,0,0,0,0,0,0,
711,22.04,-38.59,-32.8,-80.68,-49.73,-41.15,-44.0,-16.15,-25.25,24.58,-15.73,-11.45,-9.001,-9.116,-13.41,6.562,0,0,0,0,0,0,0,0,0,0,0,0,0,0,0,0,
712,1.01,-38.18,-54.53,-93.69,-69.26,-54.37,-79.05,-14.56,-43.66,27.54,-29.55,-10.98,-26.24,-15.1,-26.98,-0.0353,0,0,0,0,0,0,0,0,0,0,0,0,0,0,0,0,
713,14.74,-65.28,-70.0,-102.6,-76.85,-75.41,-61.6,-35.33,-79.45,24.76,-39.23,-1.965,-45.35,-16.89,-29.86,0.6298,0,0,0,0,0,0,0,0,0,0,0,0,0,0,0,0,
714,3.265,-86.0,-81.41,-103.5,-89.68,-85.26,-40.23,-25.27,-101.2,15.78,-40.46,5.998,-58.71,-14.5,-26.47,2.934,0,0,0,0,0,0,0,0,0,0,0,0,0,0,0,0,
715,-11.15,-59.17,-83.52,-95.74,-102.5,-77.54,-49.2,-4.297,-110.1,1.745,-32.96,14.58,-57.17,-7.292,-23.2,-1.535,0,0,0,0,0,0,0,0,0,0,0,0,0,0,0,0,
716,-0.5676,-40.79,-71.05,-97.09,-92.7,-71.83,-75.76,-20.29,-105.7,-0.1795,-33.02,10.95,-54.42,-9.766,-30.05,-9.316,0,0,0,0,0,0,0,0,0,0,0,0,0,0,0,0,
717,-7.615,-71.75,-55.26,-105.8,-77.3,-72.76,-89.31,-40.99,-88.14,0.7795,-41.22,-11.04,-57.69,-24.45,-41.29,-16.06,0,0,0,0,0,0,0,0,0,0,0,0,0,0,0,0,
718,8.2,-77.24,-38.74,-95.68,-70.88,-60.15,-60.39,-33.03,-83.61,-1.138,-42.11,-24.92,-50.98,-26.3,-35.75,-14.08,0,0,0,0,0,0,0,0,0,0,0,0,0,0,0,0,
719,54.72,-38.97,-30.6,-84.88,-61.48,-44.38,-34.85,-31.26,-84.2,5.561,-26.9,-18.73,-27.79,-14.36,-11.45,-0.2237,0,0,0,0,0,0,0,0,0,0,0,0,0,0,0,0,
720,51.97,-10.01,-26.88,-81.34,-44.99,-35.64,-29.71,-38.4,-56.45,18.72,-1.532,-9.407,-4.127,-9.847,7.074,11.26,0,0,0,0,0,0,0,0,0,0,0,0,0,0,0,0,
721,27.34,-1.36,-12.19,-68.95,-37.78,-31.23,-3.619,-26.8,-35.33,18.18,5.669,-8.652,-2.955,-18.83,3.331,10.59,0,0,0,0,0,0,0,0,0,0,0,0,0,0,0,0,
722,35.35,-13.09,-6.154,-67.61,-40.62,-35.18,6.44,-15.29,-47.93,4.893,-5.911,-4.772,-7.627,-19.59,0.5346,17.17,0,0,0,0,0,0,0,0,0,0,0,0,0,0,0,0,
723,37.45,-31.72,-19.82,-77.93,-35.94,-32.98,-15.14,-30.19,-40.43,20.06,-11.05,0.1434,2.403,-4.927,6.602,28.64,0,0,0,0,0,0,0,0,0,0,0,0,0,0,0,0,
724,11.89,-39.62,-29.02,-83.47,-39.97,-34.54,-20.75,-58.14,-19.67,47.46,-21.64,-9.357,-6.476,-7.309,-5.773,15.96,0,0,0,0,0,0,0,0,0,0,0,0,0,0,0,0,
725,-22.32,-57.06,-43.78,-99.49,-68.8,-68.33,-31.64,-66.77,-43.88,22.87,-42.37,-11.65,-37.88,-28.16,-25.77,-5.11,0,0,0,0,0,0,0,0,0,0,0,0,0,0,0,0,
726,-48.35,-81.86,-92.47,-123.2,-95.01,-104.4,-57.52,-60.29,-84.78,-19.73,-49.42,-3.355,-50.42,-40.28,-28.22,-8.075,0,0,0,0,0,0,0,0,0,0,0,0,0,0,0,0,
727,-37.65,-80.86,-122.1,-134.4,-95.7,-104.6,-53.39,-67.32,-93.1,-18.82,-34.15,-13.65,-35.1,-42.13,-13.77,0.5487,0,0,0,0,0,0,0,0,0,0,0,0,0,0,0,0,
728,4.596,-60.02,-78.15,-133.4,-75.35,-83.59,-34.2,-75.56,-67.92,1.368,-6.212,-24.29,-6.586,-35.11,11.32,10.82,0,0,0,0,0,0,0,0,0,0,0,0,0,0,0,0,
729,9.329,-58.1,-36.12,-126.1,-56.47,-71.86,-31.1,-76.58,-37.79,10.74,1.321,-21.86,5.461,-30.28,21.62,10.12,0,0,0,0,0,0,0,0,0,0,0,0,0,0,0,0,
730,-30.1,-68.84,-44.29,-117.2,-45.83,-70.44,-25.55,-82.04,-35.68,11.01,-14.67,-28.02,-6.489,-37.92,14.33,3.387,0,0,0,0,0,0,0,0,0,0,0,0,0,0,0,0,
731,-27.35,-49.8,-42.08,-107.8,-28.92,-62.75,-11.11,-67.62,-39.79,1.252,-12.29,-34.93,-8.131,-40.18,18.07,9.455,0,0,0,0,0,0,0,0,0,0,0,0,0,0,0,0,
732,14.24,-27.2,-38.51,-99.1,-27.68,-59.83,-8.344,-41.29,-29.53,-14.82,-1.047,-34.43,-7.133,-37.57,17.34,16.15,0,0,0,0,0,0,0,0,0,0,0,0,0,0,0,0,
733,21.11,-40.2,-57.78,-97.94,-49.85,-70.54,-21.69,-46.08,-34.3,-18.49,-8.397,-34.0,-23.64,-39.48,-1.986,12.26,0,0,0,0,0,0,0,0,0,0,0,0,0,0,0,0,
734,8.689,-51.77,-49.62,-104.1,-53.94,-76.32,-24.69,-50.59,-43.48,-9.824,-17.0,-28.85,-30.51,-37.65,-8.04,9.788,0,0,0,0,0,0,0,0,0,0,0,0,0,0,0,0,
735,2.337,-50.85,-23.93,-106.1,-39.27,-72.83,6.192,-22.55,-34.89,-17.56,-15.0,-20.07,-17.66,-32.22,10.37,18.53,0,0,0,0,0,0,0,0,0,0,0,0,0,0,0,0,
736,-6.51,-52.87,-13.5,-104.2,-24.67,-62.81,29.03,-17.88,-24.29,-22.0,-2.395,-19.87,-2.038,-26.7,29.21,32.17,0,0,0,0,0,0,0,0,0,0,0,0,0,0,0,0,
737,1.246,-40.16,-9.087,-116.0,-14.28,-59.07,0.4741,-52.4,-14.13,0.4894,9.376,-34.52,-0.2313,-32.74,28.3,28.69,0,0,0,0,0,0,0,0,0,0,0,0,0,0,0,0,
738,7.205,-36.86,-30.25,-131.1,-29.33,-80.03,-20.1,-52.63,-16.45,-10.83,7.396,-41.75,-15.9,-49.16,19.07,17.78,0,0,0,0,0,0,0,0,0,0,0,0,0,0,0,0,
739,-15.07,-58.53,-62.91,-116.9,-55.41,-94.91,1.184,-14.9,-37.28,-50.75,10.44,-23.5,-23.06,-44.21,22.27,26.35,0,0,0,0,0,0,0,0,0,0,0,0,0,0,0,0,
740,-26.99,-55.98,-55.36,-90.44,-56.07,-80.39,4.225,-11.99,-38.11,-38.35,16.5,-11.45,-17.04,-28.98,26.34,32.38,0,0,0,0,0,0,0,0,0,0,0,0,0,0,0,0,
741,-24.22,-34.93,-35.72,-92.73,-43.15,-71.63,-10.25,-38.75,-21.36,-15.03,-0.672,-17.44,-23.11,-38.05,16.94,19.36,0,0,0,0,0,0,0,0,0,0,0,0,0,0,0,0,
742,-34.2,-40.6,-50.26,-114.7,-36.13,-78.8,-10.68,-48.93,-26.45,-34.5,-25.66,-15.59,-35.71,-48.7,4.329,13.17,0,0,0,0,0,0,0,0,0,0,0,0,0,0,0,0,
743,-23.09,-54.65,-59.66,-109.8,-30.99,-70.7,-10.55,-41.27,-40.56,-30.41,-29.52,-12.39,-36.87,-36.93,2.24,19.72,0,0,0,0,0,0,0,0,0,0,0,0,0,0,0,0,
744,11.35,-50.04,-33.74,-73.79,-26.16,-47.5,-6.766,-19.91,-36.97,10.67,-19.89,-19.78,-31.65,-25.01,8.969,22.24,0,0,0,0,0,0,0,0,0,0,0,0,0,0,0,0,
745,4.642,-36.93,-32.32,-64.48,-28.1,-40.39,-20.42,-0.8719,-20.01,25.32,-19.2,-22.28,-23.56,-22.7,9.053,22.18,0,0,0,0,0,0,0,0,0,0,0,0,0,0,0,0,
746,-18.02,-21.88,-60.05,-82.21,-28.96,-42.72,-46.04,5.721,4.954,23.13,-20.41,-7.9,-8.637,-9.977,3.687,29.91,0,0,0,0,0,0,0,0,0,0,0,0,0,0,0,0,
747,7.417,-12.04,-34.13,-64.55,-9.882,-23.81,-5.564,24.54,21.42,36.51,-6.114,7.527,1.324,6.169,4.158,32.46,0,0,0,0,0,0,0,0,0,0,0,0,0,0,0,0,
748,29.38,-9.693,16.27,-34.75,11.84,-0.844,56.28,45.94,9.028,38.61,6.718,-1.109,-0.5286,1.002,7.662,21.78,0,0,0,0,0,0,0,0,0,0,0,0,0,0,0,0,
749,20.03,5.569,7.255,-41.24,6.251,-0.3379,39.83,46.62,-7.643,21.86,-0.664,-14.83,-5.332,-11.82,8.695,16.61,0,0,0,0,0,0,0,0,0,0,0,0,0,0,0,0,
750,31.83,16.34,-24.87,-52.83,-13.48,-13.65,-4.181,31.78,-9.724,8.731,-20.51,-9.975,-24.23,-18.67,-4.42,9.006,0,0,0,0,0,0,0,0,0,0,0,0,0,0,0,0,
751,36.72,-5.356,-33.42,-46.65,-23.93,-28.02,-15.43,7.965,-17.5,-5.936,-32.67,-12.28,-47.16,-26.17,-23.48,-8.025,0,0,0,0,0,0,0,0,0,0,0,0,0,0,0,0,
752,8.208,-19.66,-31.09,-39.32,-25.2,-30.01,-11.01,6.588,-19.4,-15.14,-23.48,-26.79,-34.78,-22.63,-19.19,-4.339,0,0,0,0,0,0,0,0,0,0,0,0,0,0,0,0,
753,3.374,-14.59,-22.26,-44.13,-27.7,-23.21,-3.045,29.04,-5.242,-1.69,-16.09,-29.44,-14.31,-12.73,-9.561,7.309,0,0,0,0,0,0,0,0,0,0,0,0,0,0,0,0,
754,30.34,-20.41,-16.34,-54.85,-33.05,-24.17,-3.281,24.19,-8.278,10.97,-28.88,-27.26,-27.63,-19.06,-21.64,-4.109,0,0,0,0,0,0,0,0,0,0,0,0,0,0,0,0,
755,58.92,-12.0,-23.51,-47.92,-32.68,-22.55,-11.9,8.484,-30.08,-1.722,-38.16,-30.05,-47.53,-33.11,-33.87,-13.23,0,0,0,0,0,0,0,0,0,0,0,0,0,0,0,0,
756,74.62,11.93,-29.72,-33.05,-23.81,-13.26,-16.82,7.85,-42.09,-24.5,-32.66,-26.49,-48.21,-35.16,-30.28,-1.613,0,0,0,0,0,0,0,0,0,0,0,0,0,0,0,0,
757,60.77,13.22,-27.1,-36.59,-9.858,-6.106,-21.36,-13.23,-31.55,-20.87,-23.28,-16.97,-37.32,-24.15,-24.22,6.979,0,0,0,0,0,0,0,0,0,0,0,0,0,0,0,0,
758,37.28,1.948,-30.26,-49.65,-6.38,-6.057,-23.2,-32.22,-12.93,3.27,-23.61,-14.1,-36.1,-19.79,-29.51,-1.686,0,0,0,0,0,0,0,0,0,0,0,0,0,0,0,0,
759,29.63,-10.73,-40.51,-58.63,-21.52,-20.56,-21.64,-10.95,-18.51,-3.231,-34.85,-14.0,-51.14,-28.3,-35.51,-11.73,0,0,0,0,0,0,0,0,0,0,0,0,0,0,0,0,
760,32.36,-16.94,-35.29,-56.83,-31.32,-32.53,-19.91,6.447,-36.69,-30.73,-32.47,-14.36,-54.34,-28.96,-28.62,-11.64,0,0,0,0,0,0,0,0,0,0,0,0,0,0,0,0,
761,44.72,-0.2532,-25.33,-46.68,-28.81,-23.67,-15.77,-10.35,-41.37,-38.4,-21.17,-29.38,-47.33,-27.31,-29.88,-12.57,0,0,0,0,0,0,0,0,0,0,0,0,0,0,0,0,
762,47.12,5.898,-33.96,-45.83,-23.45,-14.45,-22.87,-39.68,-40.97,-38.96,-28.83,-46.19,-55.17,-37.59,-46.08,-17.39,0,0,0,0,0,0,0,0,0,0,0,0,0,0,0,0,
763,25.19,-15.99,-44.03,-49.72,-16.8,-18.33,-34.89,-55.96,-35.33,-39.62,-45.39,-43.9,-69.23,-47.55,-53.69,-25.2,0,0,0,0,0,0,0,0,0,0,0,0,0,0,0,0,
764,18.81,-21.35,-44.12,-40.3,-20.63,-19.14,-13.95,-40.56,-41.47,-40.9,-46.46,-32.66,-75.49,-45.84,-43.01,-32.98,0,0,0,0,0,0,0,0,0,0,0,0,0,0,0,0,
765,40.5,0.1992,-30.32,-24.07,-18.2,-3.259,20.36,-24.1,-62.38,-49.03,-24.84,-23.08,-62.54,-28.39,-18.48,-24.43,0,0,0,0,0,0,0,0,0,0,0,0,0,0,0,0,
766,48.43,6.367,-6.027,-25.76,-4.323,5.524,13.05,-44.39,-54.07,-45.93,-9.945,-26.6,-45.21,-19.44,-10.1,-17.9,0,0,0,0,0,0,0,0,0,0,0,0,0,0,0,0,
767,32.78,-13.09,-15.0,-53.5,-19.25,-17.45,-18.03,-52.0,-45.13,-46.52,-33.44,-40.88,-60.85,-40.88,-34.05,-32.81,0,0,0,0,0,0,0,0,0,0,0,0,0,0,0,0,
768,14.14,-25.34,-63.49,-78.04,-41.12,-37.61,-45.31,-21.26,-66.54,-71.57,-62.99,-42.29,-84.95,-57.41,-51.79,-41.15,0,0,0,0,0,0,0,0,0,0,0,0,0,0,0,0,
769,0.8423,-27.18,-92.87,-72.37,-36.33,-33.49,-72.12,-13.94,-65.46,-91.06,-68.08,-40.19,-80.77,-51.62,-46.16,-35.79,0,0,0,0,0,0,0,0,0,0,0,0,0,0,0,0,
770,1.994,-33.88,-64.9,-53.43,-27.92,-31.94,-49.42,-24.37,-52.54,-88.86,-60.41,-43.45,-65.28,-44.3,-32.46,-27.87,0,0,0,0,0,0,0,0,0,0,0,0,0,0,0,0,
771,5.819,-32.76,-17.72,-57.92,-13.79,-37.99,6.095,-14.16,-59.86,-82.37,-47.98,-45.78,-53.52,-41.99,-23.74,-23.08,0,0,0,0,0,0,0,0,0,0,0,0,0,0,0,0,
772,-10.22,-21.95,-23.96,-72.03,-2.544,-42.62,-9.658,-16.5,-53.4,-91.38,-48.56,-56.55,-54.18,-48.76,-36.94,-38.25,0,0,0,0,0,0,0,0,0,0,0,0,0,0,0,0,
773,-13.93,-12.53,-53.81,-45.14,-11.12,-35.44,-50.08,-26.12,-41.83,-97.85,-63.33,-52.06,-69.83,-52.64,-54.32,-53.3,0,0,0,0,0,0,0,0,0,0,0,0,0,0,0,0,
774,18.65,-11.16,-38.68,-14.77,-7.487,-18.98,-41.41,-24.05,-49.01,-69.91,-60.74,-29.68,-76.76,-47.45,-48.72,-41.98,0,0,0,0,0,0,0,0,0,0,0,0,0,0,0,0,
775,52.04,-13.54,-22.89,-36.16,8.261,-16.58,-44.16,-45.85,-48.76,-48.13,-35.42,-33.89,-61.13,-48.86,-31.72,-21.85,0,0,0,0,0,0,0,0,0,0,0,0,0,0,0,0,
776,66.68,14.06,-22.39,-46.26,21.24,-7.988,-34.62,-61.6,-32.41,-52.08,-8.06,-43.87,-37.99,-40.26,-16.97,-3.531,0,0,0,0,0,0,0,0,0,0,0,0,0,0,0,0,
777,59.6,44.5,8.528,-23.46,41.99,15.02,24.14,-34.64,-17.83,-34.62,-0.5452,-35.11,-30.73,-20.45,-12.28,6.112,0,0,0,0,0,0,0,0,0,0,0,0,0,0,0,0,
778,46.88,18.0,29.31,-27.6,45.51,7.895,35.7,-23.96,-14.11,-13.58,-11.2,-36.26,-38.67,-20.29,-16.06,-1.552,0,0,0,0,0,0,0,0,0,0,0,0,0,0,0,0,
779,59.87,-9.551,10.1,-39.28,22.98,-15.72,-4.764,-48.54,-19.52,-17.59,-21.71,-40.97,-48.77,-32.35,-20.66,-16.18,0,0,0,0,0,0,0,0,0,0,0,0,0,0,0,0,
780,58.16,3.737,-7.41,-37.65,9.345,-17.54,-26.9,-61.26,-23.75,-24.26,-38.23,-37.02,-61.67,-40.87,-34.15,-31.49,0,0,0,0,0,0,0,0,0,0,0,0,0,0,0,0,
781,23.19,10.38,-12.75,-46.63,10.81,-8.152,-42.49,-51.79,-18.0,-37.03,-48.29,-34.46,-62.92,-42.96,-46.21,-37.3,0,0,0,0,0,0,0,0,0,0,0,0,0,0,0,0,
782,29.47,19.92,-13.21,-45.22,15.41,4.069,-42.17,-44.31,-14.41,-50.7,-32.5,-34.73,-49.67,-35.99,-43.24,-30.4,0,0,0,0,0,0,0,0,0,0,0,0,0,0,0,0,
783,77.13,42.81,-0.0818,-30.05,28.42,17.62,-10.23,-56.05,-22.24,-37.48,-21.11,-45.49,-45.09,-30.23,-36.19,-25.14,0,0,0,0,0,0,0,0,0,0,0,0,0,0,0,0,
784,93.02,34.55,19.1,-33.47,45.21,23.11,1.845,-66.74,-12.41,-11.99,-22.28,-54.6,-40.95,-26.11,-24.64,-13.06,0,0,0,0,0,0,0,0,0,0,0,0,0,0,0,0,
785,62.54,-2.94,17.72,-47.78,36.27,10.25,-12.75,-50.83,6.778,-13.84,-16.41,-42.62,-31.96,-20.21,-11.55,8.288,0,0,0,0,0,0,0,0,0,0,0,0,0,0,0,0,
786,23.17,-25.31,-0.2733,-49.29,8.574,-13.1,-14.84,-37.14,-13.12,-36.55,-14.84,-32.11,-32.58,-16.39,-9.75,11.98,0,0,0,0,0,0,0,0,0,0,0,0,0,0,0,0,
787,7.469,-11.9,-12.64,-45.91,1.472,-18.48,-27.95,-50.7,-38.81,-30.45,-25.16,-38.87,-38.36,-15.1,-17.78,-8.609,0,0,0,0,0,0,0,0,0,0,0,0,0,0,0,0,
788,-5.188,0.3212,-35.24,-54.8,0.5724,-17.24,-65.43,-59.13,-35.24,-16.09,-31.83,-39.26,-46.28,-19.92,-24.92,-26.19,0,0,0,0,0,0,0,0,0,0,0,0,0,0,0,0,
789,-25.99,-16.6,-44.42,-57.12,-0.5141,-22.53,-60.71,-45.21,-34.26,-40.26,-12.84,-19.31,-40.92,-13.88,-11.54,-14.12,0,0,0,0,0,0,0,0,0,0,0,0,0,0,0,0,
790,-10.99,-15.53,-4.374,-37.37,27.56,-3.475,-14.26,-37.43,-19.92,-42.8,21.41,-1.723,-14.38,10.37,12.45,11.9,0,0,0,0,0,0,0,0,0,0,0,0,0,0,0,0,
791,20.56,8.375,8.419,-25.39,43.06,20.89,-7.983,-39.55,9.091,-2.85,25.78,-8.902,-7.22,12.44,10.31,14.71,0,0,0,0,0,0,0,0,0,0,0,0,0,0,0,0,
792,15.51,4.619,-23.74,-30.97,12.28,7.196,-34.21,-36.64,-4.484,-5.133,3.061,-31.23,-33.04,-18.3,-11.55,-7.681,0,0,0,0,0,0,0,0,0,0,0,0,0,0,0,0,
793,2.353,-8.73,-8.296,-32.78,-8.066,-16.5,-43.7,-43.36,-39.64,-45.14,-9.829,-47.49,-58.14,-41.85,-24.27,-29.72,0,0,0,0,0,0,0,0,0,0,0,0,0,0,0,0,
794,18.72,0.9219,26.11,-25.91,7.795,-14.14,-48.33,-52.13,-41.39,-51.28,-5.76,-45.56,-59.62,-37.81,-21.46,-31.3,0,0,0,0,0,0,0,0,0,0,0,0,0,0,0,0,
795,37.81,8.762,7.843,-25.21,15.51,-7.532,-56.5,-43.96,-28.14,-35.73,3.787,-35.54,-47.4,-27.71,-17.56,-23.16,0,0,0,0,0,0,0,0,0,0,0,0,0,0,0,0,
796,12.82,-6.957,-19.09,-41.25,-4.283,-16.89,-59.0,-45.9,-34.23,-41.2,3.661,-29.97,-46.85,-27.92,-20.56,-19.11,0,0,0,0,0,0,0,0,0,0,0,0,0,0,0,0,
797,-30.42,-17.84,-11.82,-44.78,-8.697,-8.869,-56.41,-54.27,-41.36,-42.11,6.868,-19.79,-42.76,-18.79,-9.143,-3.956,0,0,0,0,0,0,0,0,0,0,0,0,0,0,0,0,
798,-21.59,-0.4698,5.33,-37.79,9.87,12.93,-56.48,-42.52,-21.82,-18.04,22.92,-25.86,-28.92,-15.4,2.354,0.9591,0,0,0,0,0,0,0,0,0,0,0,0,0,0,0,0,
799,7.935,0.5885,-0.6586,-69.41,-3.305,-7.871,-62.77,-38.74,-18.82,-29.6,15.33,-57.79,-43.82,-42.78,-16.66,-22.86,0,0,0,0,0,0,0,0,0,0,0,0,0,0,0,0,
800,6.44,-25.78,-13.56,-86.99,-18.64,-27.55,-58.08,-44.84,-52.76,-65.95,-1.336,-49.84,-53.87,-40.65,-20.67,-19.23,0,0,0,0,0,0,0,0,0,0,0,0,0,0,0,0,
801,20.46,-14.44,20.39,-37.97,26.01,14.81,-42.92,-27.17,-41.39,-27.82,19.35,-3.581,-17.03,5.212,10.96,12.31,0,0,0,0,0,0,0,0,0,0,0,0,0,0,0,0,
802,52.55,28.59,79.8,-10.27,70.12,45.39,-28.43,1.011,17.22,33.88,44.57,0.0587,8.216,14.98,25.91,12.67,0,0,0,0,0,0,0,0,0,0,0,0,0,0,0,0,
803,54.33,51.53,83.32,-26.57,63.07,28.05,-9.977,13.04,27.38,12.31,43.72,-19.97,1.566,-6.08,19.45,-1.601,0,0,0,0,0,0,0,0,0,0,0,0,0,0,0,0,
804,54.45,60.28,46.57,-18.41,48.15,23.84,-7.054,-0.3141,-1.601,-20.56,38.69,-6.989,1.908,-3.55,16.33,-2.294,0,0,0,0,0,0,0,0,0,0,0,0,0,0,0,0,
805,65.03,47.83,44.46,-10.04,37.51,25.53,-23.03,-29.47,-14.34,6.0,27.74,4.047,-4.217,0.6102,10.76,-5.77,0,0,0,0,0,0,0,0,0,0,0,0,0,0,0,0,
806,35.38,5.734,57.26,-32.68,21.49,1.202,-39.31,-42.82,-24.7,15.69,7.393,-15.73,-23.13,-15.81,6.483,-11.44,0,0,0,0,0,0,0,0,0,0,0,0,0,0,0,0,
807,-4.112,-11.14,46.5,-42.07,27.34,-10.75,-58.36,-33.71,-24.83,-19.15,6.669,-29.31,-19.0,-25.97,15.68,-11.38,0,0,0,0,0,0,0,0,0,0,0,0,0,0,0,0,
808,12.24,18.7,47.24,-30.64,47.62,7.706,-48.0,-24.19,1.876,-29.73,23.03,-26.73,-1.489,-21.43,24.07,-15.39,0,0,0,0,0,0,0,0,0,0,0,0,0,0,0,0,
809,31.82,37.74,51.27,-30.46,36.71,15.28,-9.169,-24.16,4.292,-14.14,16.46,-31.57,-11.69,-23.4,8.405,-31.38,0,0,0,0,0,0,0,0,0,0,0,0,0,0,0,0,
810,6.806,19.79,25.47,-30.32,13.45,4.26,-20.81,-24.24,-29.53,-11.34,-8.546,-34.79,-36.86,-31.52,-20.19,-47.31,0,0,0,0,0,0,0,0,0,0,0,0,0,0,0,0,
811,-4.256,2.32,8.612,-11.41,18.05,1.1,-70.97,-18.35,-40.45,-5.063,-16.21,-30.6,-43.72,-31.92,-32.12,-46.11,0,0,0,0,0,0,0,0,0,0,0,0,0,0,0,0,
812,0.9225,0.8904,8.547,0.3062,16.95,-3.667,-85.29,-24.75,-32.59,4.911,-10.58,-30.36,-41.6,-28.54,-28.68,-37.94,0,0,0,0,0,0,0,0,0,0,0,0,0,0,0,0,
813,-14.9,-1.256,3.074,-9.998,-1.284,-13.17,-78.11,-47.91,-40.79,-2.695,-5.898,-24.33,-39.38,-25.93,-25.16,-40.69,0,0,0,0,0,0,0,0,0,0,0,0,0,0,0,0,
814,-11.38,2.134,16.23,-16.0,5.367,-2.88,-75.58,-55.67,-34.6,-7.015,0.1519,-19.56,-26.9,-25.99,-20.67,-45.66,0,0,0,0,0,0,0,0,0,0,0,0,0,0,0,0,
815,5.399,20.05,28.55,-3.241,17.41,14.83,-59.02,-38.05,-10.32,-0.0931,-3.022,-23.81,-19.51,-27.06,-15.51,-38.97,0,0,0,0,0,0,0,0,0,0,0,0,0,0,0,0,
816,-20.38,24.77,3.289,6.865,-0.718,9.932,-54.89,-28.9,-19.22,-0.0418,-22.93,-21.19,-37.88,-26.3,-20.49,-33.25,0,0,0,0,0,0,0,0,0,0,0,0,0,0,0,0,
817,-52.47,-2.058,-18.92,-9.199,-21.24,-14.71,-96.44,-49.96,-52.29,-7.73,-39.49,-26.88,-60.98,-36.83,-29.57,-42.11,0,0,0,0,0,0,0,0,0,0,0,0,0,0,0,0,
818,-41.11,-21.91,-7.21,-28.93,-20.07,-32.22,-114.4,-68.27,-57.95,-20.15,-33.84,-40.7,-57.78,-49.03,-23.53,-48.49,0,0,0,0,0,0,0,0,0,0,0,0,0,0,0,0,
819,-16.34,-9.182,5.973,-21.35,-13.75,-28.26,-69.98,-54.4,-44.45,-34.23,-28.07,-37.25,-47.55,-43.93,-17.91,-45.42,0,0,0,0,0,0,0,0,0,0,0,0,0,0,0,0,
820,-11.68,2.521,2.454,-11.23,-13.75,-17.93,-53.32,-47.55,-44.57,-40.37,-40.26,-30.72,-53.03,-38.01,-27.01,-42.84,0,0,0,0,0,0,0,0,0,0,0,0,0,0,0,0,
821,-18.93,5.181,3.983,-14.87,-10.05,-7.76,-72.03,-72.52,-46.34,-23.75,-37.0,-19.89,-49.77,-32.14,-25.52,-31.98,0,0,0,0,0,0,0,0,0,0,0,0,0,0,0,0,
822,-29.97,10.53,5.763,-16.11,-11.08,-2.283,-60.0,-86.39,-45.3,0.7286,-20.73,-6.941,-46.34,-28.96,-25.7,-25.21,0,0,0,0,0,0,0,0,0,0,0,0,0,0,0,0,
823,-39.27,-6.018,-19.04,-21.45,-25.59,-19.36,-68.11,-71.99,-56.57,-18.35,-33.27,-29.96,-70.76,-53.08,-51.91,-43.01,0,0,0,0,0,0,0,0,0,0,0,0,0,0,0,0,
824,-27.78,-26.31,-37.18,-22.26,-22.59,-34.92,-105.4,-66.72,-58.37,-60.41,-49.38,-57.67,-84.41,-71.49,-65.51,-55.3,0,0,0,0,0,0,0,0,0,0,0,0,0,0,0,0,
825,-9.804,-7.155,-7.75,-0.9157,1.943,-18.93,-77.31,-80.33,-44.23,-49.25,-34.65,-41.85,-61.96,-47.5,-48.49,-41.33,0,0,0,0,0,0,0,0,0,0,0,0,0,0,0,0,
826,-13.08,21.72,32.46,16.82,17.03,3.83,-20.97,-74.03,-32.58,1.753,-15.94,-20.08,-35.74,-21.31,-37.44,-30.51,0,0,0,0,0,0,0,0,0,0,0,0,0,0,0,0,
827,-23.21,21.09,33.1,7.171,13.28,2.422,-42.99,-57.45,-14.1,19.55,-21.93,-27.34,-29.73,-30.39,-49.01,-42.8,0,0,0,0,0,0,0,0,0,0,0,0,0,0,0,0,
828,-30.66,4.005,3.065,-19.63,-9.786,-19.42,-91.17,-77.92,-7.168,-10.84,-43.76,-35.26,-41.45,-47.52,-59.01,-51.27,0,0,0,0,0,0,0,0,0,0,0,0,0,0,0,0,
829,-23.75,-1.484,-6.356,-33.39,-23.42,-27.06,-62.83,-89.69,-22.27,-33.49,-44.78,-18.24,-44.06,-36.75,-44.67,-32.74,0,0,0,0,0,0,0,0,0,0,0,0,0,0,0,0,
830,5.383,3.754,11.89,-23.89,-7.858,-12.99,-19.87,-63.79,-16.91,-20.92,-24.85,-11.88,-34.33,-24.26,-33.76,-25.26,0,0,0,0,0,0,0,0,0,0,0,0,0,0,0,0,
831,-0.6481,-5.0,9.17,-24.49,-5.155,-13.29,-50.44,-73.87,-7.509,-16.99,-21.83,-37.66,-37.93,-36.87,-44.73,-43.51,0,0,0,0,0,0,0,0,0,0,0,0,0,0,0,0,
832,-38.23,-9.641,-3.605,-35.22,-14.04,-19.48,-72.5,-93.36,-20.8,-23.23,-18.62,-42.37,-35.27,-39.52,-37.67,-37.26,0,0,0,0,0,0,0,0,0,0,0,0,0,0,0,0,
833,-22.83,13.5,13.0,-24.12,-5.989,-10.36,-39.45,-64.92,-18.53,-15.42,6.688,-22.21,-14.93,-30.68,-16.26,-14.51,0,0,0,0,0,0,0,0,0,0,0,0,0,0,0,0,
834,16.37,26.2,29.68,-15.55,-4.386,-7.638,-40.12,-61.16,-5.041,-21.05,17.92,-21.41,-8.754,-34.58,-18.11,-15.57,0,0,0,0,0,0,0,0,0,0,0,0,0,0,0,0,
835,8.341,17.46,26.45,-37.87,-1.647,-6.064,-58.51,-78.82,-2.044,-23.42,4.339,-12.48,-14.9,-25.86,-25.16,-19.67,0,0,0,0,0,0,0,0,0,0,0,0,0,0,0,0,
836,-11.67,15.52,20.64,-62.29,11.69,0.2428,-33.89,-55.44,3.449,-3.748,-13.74,10.91,-24.07,-11.5,-24.85,-17.41,0,0,0,0,0,0,0,0,0,0,0,0,0,0,0,0,
837,-11.61,10.14,6.165,-62.32,-2.685,-11.25,-26.84,-53.52,-5.251,-16.86,-28.44,-0.2652,-38.23,-21.61,-27.26,-20.69,0,0,0,0,0,0,0,0,0,0,0,0,0,0,0,0,
838,-14.55,4.039,-9.478,-42.89,-24.92,-19.63,-53.49,-84.64,-22.65,-45.24,-25.27,-24.4,-31.7,-25.95,-17.33,-13.87,0,0,0,0,0,0,0,0,0,0,0,0,0,0,0,0,
839,-13.29,23.14,4.776,-15.96,-8.595,0.3592,-55.51,-76.31,-3.474,-20.26,-7.641,-20.28,-8.124,-10.06,-5.616,-4.984,0,0,0,0,0,0,0,0,0,0,0,0,0,0,0,0,
840,5.404,37.14,30.29,-1.089,13.75,16.37,-41.94,-57.72,26.17,17.75,-8.063,-15.87,-12.43,-8.619,-22.16,-19.05,0,0,0,0,0,0,0,0,0,0,0,0,0,0,0,0,
841,0.0506,16.56,22.01,-14.37,0.2447,2.94,-32.8,-58.98,7.242,1.245,-19.49,-27.13,-36.09,-21.0,-36.03,-31.36,0,0,0,0,0,0,0,0,0,0,0,0,0,0,0,0,
842,-38.83,9.623,-0.3666,-31.62,-16.16,-10.29,-27.59,-44.77,-26.03,-34.29,-1.187,-22.53,-26.23,-16.83,-12.29,-14.31,0,0,0,0,0,0,0,0,0,0,0,0,0,0,0,0,
843,-46.46,30.35,3.312,-28.54,1.571,-2.378,-45.08,-39.53,-9.132,-32.77,28.08,-4.74,4.08,-7.333,8.816,-1.097,0,0,0,0,0,0,0,0,0,0,0,0,0,0,0,0,
844,-16.66,19.74,16.83,-29.95,18.99,-0.3853,-52.05,-61.78,20.74,-16.78,21.95,-7.625,-0.3545,-17.16,-0.3516,-13.53,0,0,0,0,0,0,0,0,0,0,0,0,0,0,0,0,
845,-6.35,-3.54,17.86,-44.29,5.676,-8.851,-18.0,-65.78,4.245,-10.5,2.348,-24.91,-26.02,-29.45,-8.652,-18.36,0,0,0,0,0,0,0,0,0,0,0,0,0,0,0,0,
846,-19.63,8.803,5.776,-48.98,-8.056,-7.889,-11.77,-55.8,-23.95,-4.363,1.493,-31.5,-32.45,-30.81,-7.864,-8.636,0,0,0,0,0,0,0,0,0,0,0,0,0,0,0,0,
847,-35.24,10.39,-7.552,-49.53,-1.102,-10.63,-44.25,-57.06,-22.22,-12.52,3.973,-27.62,-26.91,-30.62,-8.915,-6.388,0,0,0,0,0,0,0,0,0,0,0,0,0,0,0,0,
848,-48.13,-10.06,-3.129,-55.01,10.41,-19.16,-37.87,-50.06,-12.81,-23.06,-1.487,-26.37,-23.14,-27.2,-7.112,-7.88,0,0,0,0,0,0,0,0,0,0,0,0,0,0,0,0,
849,-44.13,-5.48,4.147,-60.15,18.3,-14.13,-13.57,-36.12,-11.56,-10.72,-6.525,-24.71,-15.73,-18.66,-0.4714,-5.121,0,0,0,0,0,0,0,0,0,0,0,0,0,0,0,0,
850,-19.68,11.38,8.374,-61.16,32.0,-3.026,-21.63,-23.05,3.283,-5.694,0.4705,-3.086,-2.588,-5.46,10.24,0.6796,0,0,0,0,0,0,0,0,0,0,0,0,0,0,0,0,
851,-6.286,21.43,29.38,-46.96,42.26,1.256,-19.93,-3.967,28.45,-12.9,15.73,18.98,2.622,6.246,10.67,4.739,0,0,0,0,0,0,0,0,0,0,0,0,0,0,0,0,
852,-18.93,26.79,44.8,-21.66,38.36,4.873,13.34,-2.468,26.01,-2.521,24.12,9.932,-2.964,7.731,1.569,3.888,0,0,0,0,0,0,0,0,0,0,0,0,0,0,0,0,
