%OpenBCI Raw EXG Data
%Number of channels = 16
%Sample Rate = 125 Hz
%Board = OpenBCI_GUI$BoardCytonSerialDaisy
Sample Index,EXG Channel 0,EXG Channel 1,EXG Channel 2,EXG Channel 3,EXG Channel 4,EXG Channel 5,EXG Channel 6,EXG Channel 7,EXG Channel 8,EXG Channel 9,EXG Channel 10,EXG Channel 11,EXG Channel 12,EXG Channel 13,EXG Channel 14,EXG Channel 15,Accel Channel 0,Accel Channel 1,Accel Channel 2,Other,Other,Other,Other,Other,Other,Other,Analog Channel 0,Analog Channel 1,Analog Channel 2,Timestamp,Other,Timestamp (Formatted),Annotations
1,-0,0,0,-0,-0,0,0,-0,-0,-0,-0,-0,0,-0,0,-0,0,0,0,0,0,0,0,0,0,0,0,0,0,0,0,0,T0
2,4.879,-2.143,-4.254,-6.489,-6.297,1.52,2.711,8.2,0.8265,-1.425,-24.38,-3.397,-15.84,-4.122,-18.2,-20.49,0,0,0,0,0,0,0,0,0,0,0,0,0,0,0,0,
3,14.45,7.291,-6.394,5.333,13.38,20.06,11.73,7.218,11.57,4.236,-8.002,-5.373,-16.92,-20.14,-18.72,-35.35,0,0,0,0,0,0,0,0,0,0,0,0,0,0,0,0,
4,15.3,5.491,-13.75,4.423,20.04,17.84,4.812,2.388,28.4,-2.903,14.98,-2.002,-12.65,-2.804,-6.074,-24.02,0,0,0,0,0,0,0,0,0,0,0,0,0,0,0,0,
5,9.827,-7.304,-21.9,-15.33,-3.591,-7.564,-14.42,-0.31,17.91,-20.32,17.58,4.012,-13.7,3.332,-1.279,-9.215,0,0,0,0,0,0,0,0,0,0,0,0,0,0,0,0,
6,11.59,-9.82,-18.03,-24.93,-14.46,-12.85,-16.74,-2.207,2.622,-16.45,18.41,7.103,-19.14,-29.09,-6.249,-11.54,0,0,0,0,0,0,0,0,0,0,0,0,0,0,0,0,
7,15.7,-6.262,-5.553,-8.904,-1.422,5.42,-4.001,0.0239,10.92,-3.975,21.53,9.55,-17.38,-25.97,0.5523,-3.484,0,0,0,0,0,0,0,0,0,0,0,0,0,0,0,0,
8,16.69,-4.386,-12.87,5.264,-6.206,17.08,3.046,5.262,0.0813,-9.314,18.95,11.19,-2.91,0.4012,12.24,11.69,0,0,0,0,0,0,0,0,0,0,0,0,0,0,0,0,
9,20.48,-0.0095,-37.01,-11.42,-27.47,14.05,1.288,4.251,-15.34,-8.794,11.33,6.667,5.266,-5.745,-1.014,6.621,0,0,0,0,0,0,0,0,0,0,0,0,0,0,0,0,
10,24.24,3.062,-24.66,-15.62,-17.68,11.66,0.4414,3.223,12.04,1.38,-1.361,3.978,1.269,-11.91,-19.94,-1.77,0,0,0,0,0,0,0,0,0,0,0,0,0,0,0,0,
11,21.77,0.3137,10.37,8.543,13.72,16.12,8.956,6.946,37.79,-4.981,-2.71,11.89,2.552,-1.598,-7.728,0.4764,0,0,0,0,0,0,0,0,0,0,0,0,0,0,0,0,
12,22.6,-1.092,8.234,9.503,27.76,22.46,20.9,2.14,30.51,-11.03,10.86,14.46,2.676,-2.641,7.074,-3.182,0,0,0,0,0,0,0,0,0,0,0,0,0,0,0,0,
13,29.3,3.505,2.227,12.24,34.03,28.99,20.46,-3.203,19.73,0.5654,6.179,-2.612,-8.613,-8.589,-13.43,-14.29,0,0,0,0,0,0,0,0,0,0,0,0,0,0,0,0,
14,19.81,3.817,22.16,38.31,32.37,24.61,10.37,6.668,10.24,8.48,-9.747,-21.97,-16.84,-6.029,-36.71,-27.02,0,0,0,0,0,0,0,0,0,0,0,0,0,0,0,0,
15,-3.38,-6.19,13.49,27.34,8.965,7.464,4.351,12.98,1.026,-0.29,-2.096,-21.76,-20.51,-5.579,-27.98,-40.59,0,0,0,0,0,0,0,0,0,0,0,0,0,0,0,0,
16,-4.78,-13.15,-21.53,2.21,-2.943,3.93,-0.1736,3.073,1.992,-12.07,4.533,-9.912,-26.16,-11.9,-13.65,-44.63,0,0,0,0,0,0,0,0,0,0,0,0,0,0,0,0,
17,9.463,-10.08,-21.77,13.76,8.234,12.71,-4.083,-5.599,9.63,-8.029,-6.891,-6.593,-24.53,-13.18,-11.84,-34.72,0,0,0,0,0,0,0,0,0,0,0,0,0,0,0,0,
18,6.4,-6.732,6.419,19.01,10.31,7.922,0.5569,-1.086,17.91,3.461,-2.541,-9.355,-15.94,-6.157,-5.301,-19.76,0,0,0,0,0,0,0,0,0,0,0,0,0,0,0,0,
19,-0.5611,-5.816,11.62,7.353,4.638,1.309,4.669,10.66,12.9,5.314,4.401,-9.838,-9.527,-6.127,-4.524,-12.28,0,0,0,0,0,0,0,0,0,0,0,0,0,0,0,0,
20,5.575,-3.57,-6.107,8.145,5.117,7.537,2.041,8.736,-2.765,7.898,-15.24,-15.1,-7.094,-17.21,-20.37,-19.87,0,0,0,0,0,0,0,0,0,0,0,0,0,0,0,0,
21,7.189,-3.333,-7.181,7.507,8.18,11.53,4.522,-11,5.079,5.747,-18.98,-16.85,-13.44,-23.33,-24.6,-29.53,0,0,0,0,0,0,0,0,0,0,0,0,0,0,0,0,
22,4.899,-5.712,0.255,3.512,15.65,10.34,7.902,-15.11,24.51,-10.05,14.49,-1.35,-23.75,-20.19,-15.12,-29.33,0,0,0,0,0,0,0,0,0,0,0,0,0,0,0,0,
23,11.24,-3.915,-10.88,7.321,20.4,10.02,2.209,1.758,17.98,-10.3,32.3,11.42,-21.84,-16.67,-12.42,-26.42,0,0,0,0,0,0,0,0,0,0,0,0,0,0,0,0,
24,14.04,-1.422,-16.44,7.502,14.25,2.044,-5.804,3.768,9.977,-0.5247,18.33,7.003,-13.61,-8.471,-9.556,-19.56,0,0,0,0,0,0,0,0,0,0,0,0,0,0,0,0,
25,8.049,-7.776,-7.535,0.2456,8.99,-11.82,-12.4,-12.52,16.16,-8.719,10.33,0.4628,-15.19,0.1155,-9.919,-11.97,0,0,0,0,0,0,0,0,0,0,0,0,0,0,0,0,
26,5.136,-12.72,-5.613,-6.879,10.24,-11.44,-10.1,-20.59,14.63,-15.42,12.64,-1.521,-18.86,-11.17,-16.69,-15.19,0,0,0,0,0,0,0,0,0,0,0,0,0,0,0,0,
27,6.395,-6.386,-2.411,-3.93,9.905,3.068,5.25,-14.17,22.63,-10.95,3.84,-0.4033,-11.61,-18.79,-9.055,-11.98,0,0,0,0,0,0,0,0,0,0,0,0,0,0,0,0,
28,12.08,-0.0034,-2.973,6.308,4.247,8.577,12.94,-6.873,33.78,-4.075,-9.37,2.503,-1.269,3.188,-2.4,0.7682,0,0,0,0,0,0,0,0,0,0,0,0,0,0,0,0,
29,24.03,5.722,-17.06,3.623,-0.445,6.986,10.32,0.1134,15.2,2.292,-7.035,2.937,-1.366,6.78,-13.27,-4.585,0,0,0,0,0,0,0,0,0,0,0,0,0,0,0,0,
30,27.27,12.58,-11.1,-2.331,1.64,12.79,11.15,12.19,8.259,-9.345,8.997,8.218,-8.449,-18.08,-8.526,-17.52,0,0,0,0,0,0,0,0,0,0,0,0,0,0,0,0,
31,17.69,7.584,14.52,6.519,4.663,12.23,4.491,8.582,23.32,-18.52,21.31,19.23,-10.84,-15.98,8.18,-17.53,0,0,0,0,0,0,0,0,0,0,0,0,0,0,0,0,
32,15.39,-0.7382,18.65,6.246,6.472,2.989,-5.003,-10.4,11.42,-2.67,23.27,22,-9.795,-6.942,2.567,-16.2,0,0,0,0,0,0,0,0,0,0,0,0,0,0,0,0,
33,21.72,1.129,6.278,-7.632,8.566,7.388,1.303,-12.26,3.97,-4.47,21.73,19.71,-10.04,-18.79,-5.44,-14.85,0,0,0,0,0,0,0,0,0,0,0,0,0,0,0,0,
34,23.49,3.124,6.245,-3.624,5.375,21.41,9.305,-7.306,14.16,-22.18,19.09,20.29,-9.648,-13.14,2.614,-16.7,0,0,0,0,0,0,0,0,0,0,0,0,0,0,0,0,
35,24.91,3.724,16.92,11.52,7.062,27.46,10.49,-1.813,-6.664,-16.9,11.68,17.51,-11.56,-6.12,5.236,-29.72,0,0,0,0,0,0,0,0,0,0,0,0,0,0,0,0,
36,26.85,4.15,18.79,11.53,16.37,26.32,13.96,15.88,-13.27,-10.84,2.901,13.7,-13.44,-21.26,0.3209,-29.49,0,0,0,0,0,0,0,0,0,0,0,0,0,0,0,0,
37,22.8,1.248,10.19,3.967,8.529,23.08,15.78,11.09,23.56,-9.636,0.3142,13.68,-5.745,-17.53,0.6355,-9.434,0,0,0,0,0,0,0,0,0,0,0,0,0,0,0,0,
38,19.72,7.735,8.764,1.296,-7.328,21.34,19.19,1.465,29.12,-1.621,0.2519,10.07,2.077,-5.55,1.167,-2.689,0,0,0,0,0,0,0,0,0,0,0,0,0,0,0,0,
39,17.98,16.46,10.98,0.2865,-6.329,20.76,25.75,27.42,9.177,-10.53,-3.365,5.061,-2.408,-18.01,-5.483,-15.82,0,0,0,0,0,0,0,0,0,0,0,0,0,0,0,0,
40,9.27,5.781,5.92,1.239,-7.547,14.52,19.09,26.21,11.4,-20.46,0.4242,9.774,-12.23,-26.47,-14.31,-28.82,0,0,0,0,0,0,0,0,0,0,0,0,0,0,0,0,
41,4.096,-8.806,1.086,1.997,-17.34,6.583,4.299,-5.717,6.71,-11.63,11.18,13.1,-22.76,-24.49,-19.3,-34.97,0,0,0,0,0,0,0,0,0,0,0,0,0,0,0,0,
42,9.127,-12.49,-9.579,-4.368,-14.85,7.644,-0.47,2.163,-1.607,-11.09,3.605,-2.224,-30.81,-29.53,-24.81,-36.02,0,0,0,0,0,0,0,0,0,0,0,0,0,0,0,0,
43,8.325,-16.35,-19.58,-7.596,-11.13,12.69,-1.169,11.66,7.886,-12.45,-15,-17.76,-28.22,-30.58,-26.37,-32.73,0,0,0,0,0,0,0,0,0,0,0,0,0,0,0,0,
44,-0.1724,-15.59,-1.716,0.3694,-18.43,11.01,-4.774,-3.231,3.641,-4.348,-15.1,-13.04,-22.02,-27.77,-16.05,-25.03,0,0,0,0,0,0,0,0,0,0,0,0,0,0,0,0,
45,-3.709,-4.94,16.59,4.98,-19.02,8.004,-4.606,5.904,-2.318,-4.408,-8.739,-6.468,-18.35,-25.08,-10.92,-16.66,0,0,0,0,0,0,0,0,0,0,0,0,0,0,0,0,
46,-4.06,1.374,4.428,6.219,-8.823,11.91,-1.354,16.03,12.76,-0.7271,-9.229,-5.903,-11.14,-16.43,-14.53,-18.83,0,0,0,0,0,0,0,0,0,0,0,0,0,0,0,0,
47,-2.22,1.1,-1.67,12.15,-5.119,17.64,0.4891,4.319,5.377,4.998,-5.872,0.7948,-12.21,-20.44,-11.45,-29.58,0,0,0,0,0,0,0,0,0,0,0,0,0,0,0,0,
48,3.351,-0.3531,12.34,7.937,-8.841,21.43,1.534,7.439,-15.9,-7.432,-4.696,0.5766,-29.01,-36.75,-16.71,-31.63,0,0,0,0,0,0,0,0,0,0,0,0,0,0,0,0,
49,5.369,-4.755,16.37,-5.086,-5.524,23.36,-1.175,11.64,-0.0112,-12.85,-0.4109,-5.13,-35.81,-28.23,-29.28,-30.26,0,0,0,0,0,0,0,0,0,0,0,0,0,0,0,0,
50,8.395,-6.003,8.817,-11.05,-1.71,17.19,-5.823,-11.77,14.9,-4.595,13.91,5.277,-25.08,-7.036,-22.22,-39.04,0,0,0,0,0,0,0,0,0,0,0,0,0,0,0,0,
51,16.28,0.5638,3.327,-13.84,-9.954,5.581,-2.634,-27.5,-3.541,-6.778,7.263,10.21,-19.24,-11.35,-16.66,-39.54,0,0,0,0,0,0,0,0,0,0,0,0,0,0,0,0,
52,16.45,6.121,2.399,-9.459,-15.96,1.87,2.487,-7.572,-9.979,-8.238,-13.58,-4.439,-20.05,-22.96,-28.73,-29.27,0,0,0,0,0,0,0,0,0,0,0,0,0,0,0,0,
53,10.88,5.875,0.594,2.19,-14.06,8.269,0.4883,18.33,-5.914,-7.796,-7.073,-8.046,-19.15,-21.45,-25.55,-33.35,0,0,0,0,0,0,0,0,0,0,0,0,0,0,0,0,
54,8.461,4.915,-4.381,8.188,-12.12,16.76,3.441,22.75,-11.82,-7.247,9.868,-0.9082,-19.55,-18.23,-7.684,-32.11,0,0,0,0,0,0,0,0,0,0,0,0,0,0,0,0,
55,5.126,7.047,6.197,19.82,-2.483,19.62,10.57,17.19,4.884,14.22,11.62,0.7554,-16.23,-10.91,4.214,-6.761,0,0,0,0,0,0,0,0,0,0,0,0,0,0,0,0,
56,5.884,9.607,27.23,26.5,8.634,17.89,7.021,13.41,19.47,19.72,14.66,10.98,-8.106,-5.192,20.24,1.579,0,0,0,0,0,0,0,0,0,0,0,0,0,0,0,0,
57,16.85,11.68,27.14,7.405,13.77,24.3,7.586,8.498,-8.338,-7.525,24.6,25.06,-6.663,-12.29,33.7,-13.8,0,0,0,0,0,0,0,0,0,0,0,0,0,0,0,0,
58,25.74,17.29,16.94,2.803,22.3,34.92,20.11,6.734,-16.19,0.0866,28.84,23.33,-9.857,-15.05,28.23,-11.65,0,0,0,0,0,0,0,0,0,0,0,0,0,0,0,0,
59,21.75,22.57,11.41,18.29,17.91,28.52,19.16,7.24,11.95,19.57,21.24,13.66,-9.702,-11,15.53,-1.239,0,0,0,0,0,0,0,0,0,0,0,0,0,0,0,0,
60,11.93,25.92,3.05,8.797,1.39,14.1,9.628,-2.392,3.281,-9.448,9.34,7.542,-9.143,-13.45,1.548,-10.53,0,0,0,0,0,0,0,0,0,0,0,0,0,0,0,0,
61,7.774,34.45,6.88,-0.4032,3.886,15.73,14.33,-12.87,-21.86,-20.8,3.846,6.867,-7.691,-15.34,-12.77,-21.23,0,0,0,0,0,0,0,0,0,0,0,0,0,0,0,0,
62,7.737,40.93,14.67,14.89,11.3,26.09,20.55,-0.7196,-10.91,4.444,-2.433,11.14,-2.603,-14.59,-12.95,-19,0,0,0,0,0,0,0,0,0,0,0,0,0,0,0,0,
63,8.419,41.58,8.623,23.54,10.84,31.73,23.39,20.81,-5.243,-1.694,-8.905,10.83,-0.7254,-17.38,-4.968,-16.2,0,0,0,0,0,0,0,0,0,0,0,0,0,0,0,0,
64,15.69,47.45,14.95,26.95,19.36,34.81,33.12,20.85,-19.8,-13.06,-1.092,5.797,-2.011,-20.04,-7.012,-17.39,0,0,0,0,0,0,0,0,0,0,0,0,0,0,0,0,
65,26.49,55.08,24.47,27.47,22.56,35.85,34.91,7.601,-13.28,-0.1295,8.178,8.738,4.726,-15.72,-13.67,-26.55,0,0,0,0,0,0,0,0,0,0,0,0,0,0,0,0,
66,33.4,65.75,11.37,16.31,16.92,38.49,29.04,2.963,1.213,-3.845,5.44,16.68,15.28,-3.144,-13.08,-32.98,0,0,0,0,0,0,0,0,0,0,0,0,0,0,0,0,
67,38.81,87.2,12.14,18.86,19.51,45.53,36.79,9.36,4.385,-8.476,6.816,21.17,17.64,3.748,-3.184,-10.34,0,0,0,0,0,0,0,0,0,0,0,0,0,0,0,0,
68,40.28,103.2,36.71,31.04,22.37,47.3,47.28,22.36,16.4,10.94,17.98,25.49,16.98,-2.276,6.447,8.676,0,0,0,0,0,0,0,0,0,0,0,0,0,0,0,0,
69,33.94,110.2,43.04,29.34,24.83,40.55,44.75,22.65,19.53,14.09,24.92,27.1,17.73,-9.276,0.5212,-12.54,0,0,0,0,0,0,0,0,0,0,0,0,0,0,0,0,
70,28.77,123,30.16,28.7,24.15,33.74,37.65,4.713,-2.474,-2.857,21.53,24.27,16.63,-9.672,-8.062,-22.5,0,0,0,0,0,0,0,0,0,0,0,0,0,0,0,0,
71,31.09,133.2,22.42,29.18,10.76,29.68,30.13,1.906,-7.789,1.291,16.24,25.56,16.46,1.03,0.343,-5.6,0,0,0,0,0,0,0,0,0,0,0,0,0,0,0,0,
72,33.63,132.1,16.74,18.65,4.622,26.62,25.59,12.61,4.543,15.33,17.89,25.46,14.08,9.887,5.684,-12.41,0,0,0,0,0,0,0,0,0,0,0,0,0,0,0,0,
73,33.08,125.6,10.42,10.69,5.022,27.2,27.64,2.013,-0.3859,3.355,20.76,16.86,7.047,-7.475,-1.743,-25.88,0,0,0,0,0,0,0,0,0,0,0,0,0,0,0,0,
74,34.07,118.8,14.17,6.598,-4.95,29.45,24.34,-13.62,-4.672,-18.02,21.42,13.66,3.3,-29.43,0.3921,-19.07,0,0,0,0,0,0,0,0,0,0,0,0,0,0,0,0,
75,28.75,113.8,13.7,-2.386,-5.837,23.89,14.1,-7.234,-3.299,-16.53,26.33,18.12,0.9392,-25.6,5.769,-18.02,0,0,0,0,0,0,0,0,0,0,0,0,0,0,0,0,
76,11.65,104.6,-4.173,-8.876,1.819,16.11,7.832,2.066,-8.922,-6.913,26.53,14.58,-3.456,-14.6,1.162,-21.32,0,0,0,0,0,0,0,0,0,0,0,0,0,0,0,0,
77,0.3882,92.92,-5.505,-6.117,-1.645,17.93,2.723,0.0027,5.524,-13.89,18.58,4.495,-4.127,-14,2.989,-17.91,0,0,0,0,0,0,0,0,0,0,0,0,0,0,0,0,
78,0.3113,88.85,19.41,1.192,-1.516,19.43,0.3243,-0.7129,15.27,-18.24,21.02,0.1599,-3.745,-18.11,7.712,-18.26,0,0,0,0,0,0,0,0,0,0,0,0,0,0,0,0,
79,-0.5032,83.48,24.49,1.232,3.34,14.54,5.354,-1.428,-18.88,-3.077,26,0.1323,-8.593,-22.28,-3.606,-21.96,0,0,0,0,0,0,0,0,0,0,0,0,0,0,0,0,
80,0.4809,72.18,1.802,-8.245,-6.077,10.9,2.981,-11.6,-30.28,1.362,16.02,-2.705,-15.67,-18.36,-15.63,-27.6,0,0,0,0,0,0,0,0,0,0,0,0,0,0,0,0,
81,2.761,65.58,-12.04,-16.44,-18.61,2.557,-9.713,-12.07,8.554,-12.72,13.94,-3.716,-16.26,-8.842,-10.83,-29.05,0,0,0,0,0,0,0,0,0,0,0,0,0,0,0,0,
82,-0.9408,60.33,-11.67,-23.83,-23.77,-10.24,-16.84,-0.3013,18.7,-10.57,28.34,2.17,-7.475,-8.095,-2.066,-22.42,0,0,0,0,0,0,0,0,0,0,0,0,0,0,0,0,
83,-4.812,54.99,-15.9,-31.32,-30.45,-13.61,-16.74,-12.69,-4.277,-0.1535,33.08,5.161,0.3693,-10.02,-0.2318,-22.36,0,0,0,0,0,0,0,0,0,0,0,0,0,0,0,0,
84,-6.935,59.51,-16.2,-25.75,-29.86,-12.34,-11.65,-31.44,-3.317,-7.965,28.92,1.301,-1.625,-8.349,-1.376,-25.69,0,0,0,0,0,0,0,0,0,0,0,0,0,0,0,0,
85,-11.06,63.51,-3.106,-15.34,-17.57,-17.14,-4.856,-16.86,2.964,-17.34,24.81,-1.297,-11.57,-13.54,-3.69,-24.09,0,0,0,0,0,0,0,0,0,0,0,0,0,0,0,0,
86,-13.67,51.59,-6.619,-19.3,-13.36,-19.89,-6.09,-5.932,-11.53,-18.53,16.83,-1.881,-19.38,-11.62,-6.262,-25.35,0,0,0,0,0,0,0,0,0,0,0,0,0,0,0,0,
87,-12.08,39.29,-26.7,-21.13,-16.2,-11.41,-7.385,-14.73,-13.27,-16.07,17.72,0.2813,-15.82,3.171,-4.868,-25,0,0,0,0,0,0,0,0,0,0,0,0,0,0,0,0,
88,-8.786,42.04,-24.96,-10.26,-16.33,-1.809,-2.353,-9.886,0.8883,-7.043,20.62,3.298,-11.15,-4.291,-2.231,-24.92,0,0,0,0,0,0,0,0,0,0,0,0,0,0,0,0,
89,-10.46,45.7,-16.97,-11.13,-23.28,-0.6425,-1.072,-5.662,-3.303,-5.099,2.429,-3.982,-13.2,-19.14,-8.833,-30.17,0,0,0,0,0,0,0,0,0,0,0,0,0,0,0,0,
90,-15.71,44.45,-16.68,-20.27,-24.88,1.988,0.0953,-6.572,-15.47,-8.459,-13.03,-14.11,-11.5,-6.312,-20.12,-28.64,0,0,0,0,0,0,0,0,0,0,0,0,0,0,0,0,
91,-15.36,45.3,-1.545,-18.63,-11.77,3.951,2.267,6.616,-16.35,-2.293,-2.827,-9.81,-9.551,-6.401,-11.37,-24.77,0,0,0,0,0,0,0,0,0,0,0,0,0,0,0,0,
92,-14.43,41.12,-0.2484,-19.58,-11.41,-5.783,-3.597,6.676,-18.14,-4.164,8.695,-0.0933,-11.09,-24.07,12.86,-19.76,0,0,0,0,0,0,0,0,0,0,0,0,0,0,0,0,
93,-17.03,36.58,-23.67,-24.39,-23.17,-11.53,-8.293,-10.59,-17.03,-14.28,6.598,-0.9882,-7.466,-16.04,14.07,-7.327,0,0,0,0,0,0,0,0,0,0,0,0,0,0,0,0,
94,-15.71,40.28,-24.31,-19.86,-25.73,-7.36,-6.188,-12.31,-12.21,-12.4,0.8696,-4.742,-7.226,-14.31,-3.835,-12.73,0,0,0,0,0,0,0,0,0,0,0,0,0,0,0,0,
95,-11.67,36.6,-13.85,-14.74,-28.45,-5.035,-2.681,-3.077,-21.59,-11.3,0.2394,0.0327,-12.23,-25.8,-7.295,-26.6,0,0,0,0,0,0,0,0,0,0,0,0,0,0,0,0,
96,-5.837,29.01,-22.41,-11.05,-34.43,4.339,7.64,2.024,-29.27,-11.49,6.147,2.281,-9.189,-8.098,-6.218,-11.36,0,0,0,0,0,0,0,0,0,0,0,0,0,0,0,0,
97,0.6173,34.74,-19.07,-5.526,-36.46,15.56,19.71,2.94,-23.69,2.923,4.861,-4.627,-2.717,4.229,-13.43,0.7354,0,0,0,0,0,0,0,0,0,0,0,0,0,0,0,0,
98,0.3418,40.6,-0.1829,-6.981,-38.45,12.94,19.3,1.298,-26.09,9.867,-6.696,-2.761,2.125,-3.585,-10.56,-11.87,0,0,0,0,0,0,0,0,0,0,0,0,0,0,0,0,
99,1.481,38.39,-7.419,-11.4,-35.6,13.13,13.02,2.624,-23.52,-0.0628,-2.159,9.567,5.212,3.805,1.831,-10.38,0,0,0,0,0,0,0,0,0,0,0,0,0,0,0,0,
100,8.406,35.88,-27.29,-9.839,-30.14,17.03,11.08,6.438,-2.427,-2.515,17.28,13.28,-0.0412,-5.083,8.4,-3.981,0,0,0,0,0,0,0,0,0,0,0,0,0,0,0,0,
101,8.878,30.48,-14.65,-4.592,-31.59,8.008,9.813,5.354,9.243,-1.859,16.66,8.945,-6.936,-31.93,3.931,-14.25,0,0,0,0,0,0,0,0,0,0,0,0,0,0,0,0,
102,7.691,28.27,6.024,2.151,-27.71,3.129,10.1,-0.2025,8.477,-4.309,1.938,5.3,-7.834,-23.46,-9.838,-15.36,0,0,0,0,0,0,0,0,0,0,0,0,0,0,0,0,
103,10.58,33.11,0.9437,7.416,-16.18,8.596,14.75,8.302,3.021,4.145,2.869,2.847,-6.935,-6.095,-14.48,-14.73,0,0,0,0,0,0,0,0,0,0,0,0,0,0,0,0,
104,9.204,31.03,-3.159,7.022,-15.17,6.687,14.99,28.69,-12.57,7.107,10.14,5.981,-1.99,-9.55,-1.661,-24.14,0,0,0,0,0,0,0,0,0,0,0,0,0,0,0,0,
105,10.69,27.48,-2.253,0.0938,-19.11,4.85,9.098,17.62,-8.809,0.1356,8.436,11.98,4.742,-3.831,8.477,-9.849,0,0,0,0,0,0,0,0,0,0,0,0,0,0,0,0,
106,16.66,34.11,-10.98,-9.887,-14.57,7.208,6.827,-7.942,8.947,7.419,1.05,8.076,1.352,2.207,4.422,7.25,0,0,0,0,0,0,0,0,0,0,0,0,0,0,0,0,
107,8.722,35.13,-12.94,-15.27,-14.76,0.6969,7.468,9.177,-9.835,9.125,-9.378,-3.809,-8.435,-4.971,-10.2,-17.03,0,0,0,0,0,0,0,0,0,0,0,0,0,0,0,0,
108,-6.018,26.14,-13.14,-12.91,-26.62,-5.568,6.831,28.92,-33.18,-4.295,-10.87,-9.359,-10.35,-0.6013,-23.12,-34.58,0,0,0,0,0,0,0,0,0,0,0,0,0,0,0,0,
109,-8.129,22.4,-15.53,-9.209,-34.49,-3.69,3.207,12.48,-18.89,-1.696,-3.902,-10.47,-8.415,1.426,-22.8,-13.44,0,0,0,0,0,0,0,0,0,0,0,0,0,0,0,0,
110,-8.281,17.82,-7.409,-9.852,-31.26,-3.524,-7.178,6.563,-6.701,-1.962,-7.752,-16.3,-14.26,-20.7,-23.3,-5.82,0,0,0,0,0,0,0,0,0,0,0,0,0,0,0,0,
111,-14.3,6.248,-7.383,-9.454,-22.95,-3.272,-12.17,12.42,-11.31,-19.65,-10.82,-15.71,-16.99,-31.14,-26.16,-12.8,0,0,0,0,0,0,0,0,0,0,0,0,0,0,0,0,
112,-12.58,5.067,-13.81,-6.211,-20.05,-1.914,-1.825,2.763,-13.87,-15.12,-2.44,-4.899,-8.021,-9.686,-12.72,-1.217,0,0,0,0,0,0,0,0,0,0,0,0,0,0,0,0,
113,-5.539,14.52,-8.233,-11.45,-27.01,-6.22,4.131,3.21,-15.61,1.132,-4.759,-2.691,-6.296,1.933,-5.826,2.941,0,0,0,0,0,0,0,0,0,0,0,0,0,0,0,0,
114,-5.464,13.65,-8.433,-20.84,-30.25,-11.34,-3.463,16.18,-17.09,-3.476,-16.25,-8.277,-16.31,-14.34,-20.94,-5.416,0,0,0,0,0,0,0,0,0,0,0,0,0,0,0,0,
115,-7.059,5.865,-14.71,-17.72,-26.17,-11.51,-6.356,11.78,-26.81,-4.925,-17.96,-8.19,-17.77,-20.33,-17.91,-1.258,0,0,0,0,0,0,0,0,0,0,0,0,0,0,0,0,
116,-4.874,7.875,-14.58,-10.36,-26.07,-7.225,-1.463,-2.381,-26.82,-0.1724,-10.15,-4.962,-11.87,-12.86,5.721,-1.505,0,0,0,0,0,0,0,0,0,0,0,0,0,0,0,0,
117,-6.334,8.751,-17.95,-11.54,-25.92,-5.535,-4.697,0.964,6.593,-13.67,3.092,1.135,-13.44,-17.93,5.683,-7.732,0,0,0,0,0,0,0,0,0,0,0,0,0,0,0,0,
118,-11.51,-1.562,-24.39,-10.66,-24.29,-14.01,-15.57,16.8,17.59,-17.43,9.128,7.801,-12.94,-5.554,-12.57,-0.3223,0,0,0,0,0,0,0,0,0,0,0,0,0,0,0,0,
119,-7.014,-1.145,-30.35,-4.639,-25.52,-15.77,-14.17,17.2,-11.29,4.368,-3.936,4.474,-2.068,21.95,-16.27,2.073,0,0,0,0,0,0,0,0,0,0,0,0,0,0,0,0,
120,5.138,10.95,-29.55,-7.939,-22.97,-2.203,-1.552,7.894,-15.86,4.329,-18.9,-3.268,-2.338,-5.283,-12.15,-6.87,0,0,0,0,0,0,0,0,0,0,0,0,0,0,0,0,
121,2.775,4.43,-14.62,-16.44,-21.31,-0.0928,-3.086,12.34,-11.72,-18.99,-20.13,-5.87,-16.96,-49.83,-14.69,-7.433,0,0,0,0,0,0,0,0,0,0,0,0,0,0,0,0,
122,-10.41,-10.66,-6.724,-15.81,-22.87,-8.417,-14.33,10.8,-32.4,-19.06,-19.63,-9.122,-17.96,-28.89,-17.97,-4.745,0,0,0,0,0,0,0,0,0,0,0,0,0,0,0,0,
123,-9.718,-5.618,-12.61,-13.78,-17.23,-1.522,-9.835,-10.03,-29.57,-8.566,-21.5,-13.25,-11.02,-4.024,-19.42,-8.843,0,0,0,0,0,0,0,0,0,0,0,0,0,0,0,0,
124,-3.486,3.353,-14.19,-10.96,-11.23,7.325,2.107,-17.46,-2.851,-8.538,-13.04,-8.65,-15.81,-27.05,-18.89,-16.04,0,0,0,0,0,0,0,0,0,0,0,0,0,0,0,0,
125,-7.271,2.388,-10.65,3.344,-6.656,2.148,5.62,0.2056,-2.411,-0.6118,-4.547,-0.6933,-14.17,-31.63,-12.76,-16.27,0,0,0,0,0,0,0,0,0,0,0,0,0,0,0,0,
126,-5.311,7.463,2.78,12.85,2.959,-0.4516,7.999,22.28,-13.2,4.051,-8.728,-0.7395,-2.179,-12.98,-3.966,-1.636,0,0,0,0,0,0,0,0,0,0,0,0,0,0,0,0,
127,6.955,14.74,14.33,6.418,-1.037,4.568,8.206,27.34,-5.671,-5.439,-9.599,-2.085,-0.4925,-18.98,0.8599,8.542,0,0,0,0,0,0,0,0,0,0,0,0,0,0,0,0,
128,10.89,11.91,-5.2,-2.702,-17.02,5.016,1.894,6.455,-2.777,-8.293,-13.23,-3.503,-4.029,-24.05,-7.364,-0.4618,0,0,0,0,0,0,0,0,0,0,0,0,0,0,0,0,
129,4.088,7.743,-16.56,-5.373,-10.02,2.95,3.736,-6.423,-19.5,-5.288,-28.61,-12.4,-3.628,-9.098,-21.65,-8.193,0,0,0,0,0,0,0,0,0,0,0,0,0,0,0,0,
130,0.5385,7.084,12.46,4.574,9.642,6.855,16.07,11.44,-26.48,-0.2741,-21.72,-11.67,-0.4371,-2.259,-13.95,-6.879,0,0,0,0,0,0,0,0,0,0,0,0,0,0,0,0,
131,7.967,9.47,16.4,12.63,4.953,14.76,21.25,18.28,-9.788,8.977,-1.352,4.196,7.488,-6.337,8.809,-3.948,0,0,0,0,0,0,0,0,0,0,0,0,0,0,0,0,
132,18.33,19.28,-12.1,8.695,-1.621,22.22,18.38,9.525,3.059,5.186,-5.701,7.066,9.271,-13.26,10.09,-0.6605,0,0,0,0,0,0,0,0,0,0,0,0,0,0,0,0,
133,16.75,24.31,0.9876,17.75,17.91,25.98,17.25,19.73,0.0901,-6.982,-6.069,-2.067,1.17,-18.34,-5.101,-4.12,0,0,0,0,0,0,0,0,0,0,0,0,0,0,0,0,
134,6.985,13.69,29.1,23.58,31.46,23.75,13.88,20.8,1.386,-6.515,7.958,0.9226,-0.4643,-10.06,-7.202,-1.306,0,0,0,0,0,0,0,0,0,0,0,0,0,0,0,0,
135,5.526,5.49,17.83,5.854,30.02,21.74,5.426,0.9224,14.09,-1.558,-0.7526,4.96,1.69,-3.452,3.116,13.28,0,0,0,0,0,0,0,0,0,0,0,0,0,0,0,0,
136,8.115,5.757,12.93,6.829,37.39,22.4,-2.169,0.9836,23.56,-1.991,-11.99,-5.24,-6.399,-7.939,4.554,2.04,0,0,0,0,0,0,0,0,0,0,0,0,0,0,0,0,
137,0.2245,-1.276,27.31,18.7,35.89,16.82,-5.192,7.877,20.8,0.0104,1.237,-10.06,-18.32,-6.433,-5.806,-22.41,0,0,0,0,0,0,0,0,0,0,0,0,0,0,0,0,
138,-9.304,-8.135,18.56,6.482,23.29,10.32,-0.5334,-1.109,17.64,4.692,10.45,0.3332,-21.61,-11.44,-7.894,-15.34,0,0,0,0,0,0,0,0,0,0,0,0,0,0,0,0,
139,-6.172,-5.286,7.383,0.7797,25.32,15.47,7.956,-6.804,28.65,2.643,7.034,5.024,-14.91,-22.88,0.4893,-6.387,0,0,0,0,0,0,0,0,0,0,0,0,0,0,0,0,
140,1.105,-4.504,14.11,2.979,22.36,20.22,7.79,-12.55,39.61,-5.21,7.976,3.291,-5.479,-8.473,4.101,-10.21,0,0,0,0,0,0,0,0,0,0,0,0,0,0,0,0,
141,3.569,-2.172,11.31,-6.064,9.985,16.46,0.401,-24.93,37.17,-9.053,8.853,11.59,2.724,6.889,7.438,6.291,0,0,0,0,0,0,0,0,0,0,0,0,0,0,0,0,
142,8.974,8.337,1.865,0.1163,17.47,25.17,0.577,-30.58,37.8,-9.01,4.407,16.91,11.75,-7.206,12.05,14.92,0,0,0,0,0,0,0,0,0,0,0,0,0,0,0,0,
143,17.3,11.4,1.801,11.76,27.09,42.55,7.657,-25.05,36.9,-12.47,-0.6807,7.219,14.02,-18.46,5.654,-4.594,0,0,0,0,0,0,0,0,0,0,0,0,0,0,0,0,
144,16.68,2.819,3.781,-0.1071,22.43,35.84,6.45,-12.03,19.4,-20.7,-2.771,0.4923,4.914,-19.46,-0.4044,-6.173,0,0,0,0,0,0,0,0,0,0,0,0,0,0,0,0,
145,11.86,-3.106,10.72,-11.26,25.63,21.85,2.135,-11.63,10.51,-20.55,6.366,8.358,-0.7133,-22.68,9.988,7.247,0,0,0,0,0,0,0,0,0,0,0,0,0,0,0,0,
146,17.66,2.18,24.47,-0.6413,31.59,35.87,15.12,-21.55,15.15,-1.247,19.01,20.83,2.482,-10.08,20.62,1.722,0,0,0,0,0,0,0,0,0,0,0,0,0,0,0,0,
147,26.06,15.85,25.99,17.91,27.74,49.47,33.08,-7.508,9.983,9.829,13.59,24.37,6.477,4.619,14.84,-1.015,0,0,0,0,0,0,0,0,0,0,0,0,0,0,0,0,
148,24.12,24.56,11.9,26.66,31.42,38.56,31.93,17.28,10.25,-0.2705,3.262,19.81,12.28,-2.566,6.387,8.844,0,0,0,0,0,0,0,0,0,0,0,0,0,0,0,0,
149,19,18.62,8.377,22.04,38.19,28.66,24.09,24.78,22.05,4.875,5.011,13.19,13.45,-7.709,3.033,2.146,0,0,0,0,0,0,0,0,0,0,0,0,0,0,0,0,
150,13.22,4.518,24.4,16.19,25.16,21.75,19.38,16.23,22.82,13.88,-1.966,-0.0793,3.335,-3.199,-5.061,-11.64,0,0,0,0,0,0,0,0,0,0,0,0,0,0,0,0,
151,4.147,-4.748,28.79,10.58,11.48,9.882,8.386,-7.011,13.04,-4.146,-14.63,-8.495,-0.9824,-5.732,-2.172,-5.092,0,0,0,0,0,0,0,0,0,0,0,0,0,0,0,0,
152,0.2023,-3.96,11.04,-0.3103,17.41,8.685,1.585,-11.69,-3.988,-8.181,-8.464,1.433,4.471,-5.162,20.21,3.316,0,0,0,0,0,0,0,0,0,0,0,0,0,0,0,0,
153,3.641,-2.945,4.876,-2.297,18.79,13.32,3.68,3.613,-14.7,10.39,1.299,10.03,1.873,-2.388,24.54,-3.967,0,0,0,0,0,0,0,0,0,0,0,0,0,0,0,0,
154,9.715,-8.839,11.54,3.921,12.72,11.41,-0.6078,-14.16,3.695,6.309,-0.2272,10.84,-5.328,-11.25,7.222,-6.793,0,0,0,0,0,0,0,0,0,0,0,0,0,0,0,0,
155,10.5,-12.46,5.434,-2.06,16.64,4.805,-8.38,-24.61,20.29,-13.78,-2.02,14.38,-6.628,-15.44,5.057,-2.385,0,0,0,0,0,0,0,0,0,0,0,0,0,0,0,0,
156,-2.264,-12.57,1.131,-9.265,15.52,-7.356,-10.12,3.348,7.753,-26.6,-1.583,9.662,-7.477,-8.429,10.12,-4.469,0,0,0,0,0,0,0,0,0,0,0,0,0,0,0,0,
157,-12.81,-14.97,1.301,-8.035,10.85,-12.97,-8.328,-6.515,-3.63,-23.15,-1.81,-1.203,-4.93,-3.175,6.298,-1.353,0,0,0,0,0,0,0,0,0,0,0,0,0,0,0,0,
158,-9.081,-12.17,-11.15,-16.68,17.96,-3.959,-5.411,-33.28,-4.308,-0.8271,-7.966,-5.925,6.02,6.786,3.536,5.425,0,0,0,0,0,0,0,0,0,0,0,0,0,0,0,0,
159,-8.427,-3.8,-4.455,-21.96,17.79,2.44,-3.978,-21.41,-5.145,3.81,-19.77,-10.27,10.39,16.1,-8.233,-3.228,0,0,0,0,0,0,0,0,0,0,0,0,0,0,0,0,
160,-12.07,-3.285,20.49,-9.083,6.793,0.2909,-5.486,-22.72,1.673,-16.49,-20.95,-10.86,-0.424,7.625,-21.61,-9.134,0,0,0,0,0,0,0,0,0,0,0,0,0,0,0,0,
161,-9.433,-8.431,10.17,-7.677,0.8557,-1.899,-6.777,-28.6,6.921,-15.92,-11.87,-5.824,-9.048,-6.875,-8.078,-1.566,0,0,0,0,0,0,0,0,0,0,0,0,0,0,0,0,
162,-7.159,-6.386,-10.28,-17.65,-1.044,0.5584,-3.691,-8.109,-0.5743,-0.8172,-7.611,-4.323,-5.496,-15.76,5.274,-7.644,0,0,0,0,0,0,0,0,0,0,0,0,0,0,0,0,
163,-3.413,-2.311,-4.771,-12.85,4.037,8.46,1.083,-7.776,-1.032,-5.586,-6.474,-1.372,-2.915,-18.4,-4.794,-14.78,0,0,0,0,0,0,0,0,0,0,0,0,0,0,0,0,
164,5.497,-5.003,-1.975,-4.724,9.225,15.75,0.9525,-8.221,11.49,-14.67,0.4132,5.553,-2.294,-14.11,-5.214,2.35,0,0,0,0,0,0,0,0,0,0,0,0,0,0,0,0,
165,12.06,-3.502,10.05,-1.432,3.554,22.81,6.782,8.562,11.74,-6.886,13.95,11.75,5.32,-14.39,3.306,9.924,0,0,0,0,0,0,0,0,0,0,0,0,0,0,0,0,
166,16.27,2.282,28.79,3.123,-0.0138,26.9,18.34,-9.76,-2.928,1.629,17.07,12.08,3.883,-12.89,-4.317,-8.65,0,0,0,0,0,0,0,0,0,0,0,0,0,0,0,0,
167,12.49,-6.811,5.708,-0.6552,-4.277,15.86,7.183,-27.29,-5.974,-8.108,-2.732,-3.362,-13.84,0.8741,-12.68,-17.96,0,0,0,0,0,0,0,0,0,0,0,0,0,0,0,0,
168,-1.978,-22.04,-11.62,-6.755,-14.82,4.234,-12.73,-4.99,0.4046,-16.92,-11.38,-17.32,-20.96,0.949,-9.111,-8.587,0,0,0,0,0,0,0,0,0,0,0,0,0,0,0,0,
169,-5.046,-22.4,16.64,-2.875,-9.921,7.299,-5.685,1.872,2.686,-5.517,11.46,-7.989,-12.13,-13.29,0.3659,0.0127,0,0,0,0,0,0,0,0,0,0,0,0,0,0,0,0,
170,4.769,-16.39,21.92,-1.403,5.082,11.19,7.126,-10.37,17.92,0.7428,23.62,2.869,-5.38,-10,9.143,3.279,0,0,0,0,0,0,0,0,0,0,0,0,0,0,0,0,
171,4.053,-12.23,4.354,-4.494,5.827,12.88,5.022,-14.27,36.55,-6.008,12.83,1.733,-0.0983,2.495,6.172,6.251,0,0,0,0,0,0,0,0,0,0,0,0,0,0,0,0,
172,0.0477,-7.669,8.789,-1.449,0.2124,11,0.5294,-19.7,26.61,-3.336,12.96,0.6123,0.0528,1.128,-2.054,2.766,0,0,0,0,0,0,0,0,0,0,0,0,0,0,0,0,
173,4.457,-10.1,6.334,-2.339,3.302,-2.5,-6.544,-16.83,6.635,4.873,18.59,-3.055,-9.774,-10.45,-4.737,-9.297,0,0,0,0,0,0,0,0,0,0,0,0,0,0,0,0,
174,2.384,-16.55,-1.629,-12.93,11.64,-8.457,-10.49,-11.63,-0.3856,12.05,13.19,-6.474,-13.57,-20.16,-9.595,-10.04,0,0,0,0,0,0,0,0,0,0,0,0,0,0,0,0,
175,-5.416,-19.44,3.477,-19.59,12.38,-1.275,-8.07,-22.69,-7.087,4.683,5.643,-11.88,-15.47,-19.93,-18.91,-6.164,0,0,0,0,0,0,0,0,0,0,0,0,0,0,0,0,
176,-11.58,-27.31,-9.712,-22.1,3.797,-6.723,-18.35,-32.04,-19.29,-31.16,-7.866,-34.62,-25.71,-10.97,-26.55,-20.79,0,0,0,0,0,0,0,0,0,0,0,0,0,0,0,0,
177,-23.88,-35.03,-23.96,-22.93,2.512,-19.6,-30.16,-35.98,-30.45,-44.1,-21.64,-47.68,-23.75,1.889,-22.78,-22.43,0,0,0,0,0,0,0,0,0,0,0,0,0,0,0,0,
178,-30.21,-28.09,-11.28,-16.93,9.959,-17.07,-22.42,-28.39,-20.86,-14.39,-19.77,-28.68,-11.98,9.841,-10.41,0.1948,0,0,0,0,0,0,0,0,0,0,0,0,0,0,0,0,
179,-20.6,-18.66,-5.274,-13.66,13.37,-7.202,-12.66,-2.182,12.31,-4.899,-19.78,-16.01,-12.11,1.708,-11.06,2.939,0,0,0,0,0,0,0,0,0,0,0,0,0,0,0,0,
180,-14.16,-16.19,-3.439,-10.22,16.45,-5.74,-9.314,-1.341,27.19,-9.735,-23.44,-21.21,-13.73,-9.207,-15.34,-9.81,0,0,0,0,0,0,0,0,0,0,0,0,0,0,0,0,
181,-13.59,-11.18,8.164,2.705,18.63,-10.28,-2.239,-14.83,16.14,7.683,-9.54,-15.57,-13.52,-7.822,-9.929,-16.43,0,0,0,0,0,0,0,0,0,0,0,0,0,0,0,0,
182,-7.585,-10.39,3.183,3.434,11.92,-11,-0.5553,11.52,2.986,8.736,3.33,-9.085,-21.54,-5.195,-17.13,-24.06,0,0,0,0,0,0,0,0,0,0,0,0,0,0,0,0,
183,-2.858,-19.07,-0.3081,-4.518,8.003,-5.5,-8.251,29.69,-15.56,-8.234,2.455,-17.59,-25.25,-3.89,-28.06,-22.93,0,0,0,0,0,0,0,0,0,0,0,0,0,0,0,0,
184,-6.854,-23.6,5.235,-0.5274,9.346,-4.357,-13.24,2.785,-13.95,-2.155,5.349,-21.52,-23.51,-1.571,-23.84,-19.9,0,0,0,0,0,0,0,0,0,0,0,0,0,0,0,0,
185,-15.44,-25.23,-21.12,-10.98,-0.3281,-15,-16.16,-16.22,15.27,5.788,0.536,-14.69,-26.76,0.1583,-22.56,-24.18,0,0,0,0,0,0,0,0,0,0,0,0,0,0,0,0,
186,-18.52,-27.36,-42.29,-29.17,-9.599,-24.89,-20.25,-17.01,14.89,-4.891,-18.25,-14.51,-25.32,10.53,-18.83,-14.62,0,0,0,0,0,0,0,0,0,0,0,0,0,0,0,0,
187,-14.51,-23.05,-13.45,-14.23,-1.896,-21.74,-19.79,-17.1,-2.087,-8.998,-19.54,-20.34,-17.8,17.34,-5.768,-6.884,0,0,0,0,0,0,0,0,0,0,0,0,0,0,0,0,
188,-12.92,-20.65,4.812,-5.031,0.9934,-17.77,-19.77,-17.99,7.006,-3.94,-2.742,-17.64,-13.42,4.452,-5.138,-11.64,0,0,0,0,0,0,0,0,0,0,0,0,0,0,0,0,
189,-11.63,-22.46,-13,-29.24,-3.246,-23.89,-25.59,-32.14,11.46,-6.349,2.673,-10.11,-10.51,-6.388,-5.375,1.175,0,0,0,0,0,0,0,0,0,0,0,0,0,0,0,0,
190,-5.897,-17.27,-12.15,-27.26,11.46,-22.04,-22.94,-29.46,17.48,-6.144,7.761,-3.419,-6.535,-2.716,11.68,16.42,0,0,0,0,0,0,0,0,0,0,0,0,0,0,0,0,
191,2.067,-8.864,3.326,-0.544,19.18,-4.489,-8.198,3.336,41.94,4.831,29.25,7.851,1.303,4.589,24.83,12.53,0,0,0,0,0,0,0,0,0,0,0,0,0,0,0,0,
192,11.26,-4.498,-6.525,-4.427,-1.694,2.138,-3.176,5.025,37.93,6.854,34.44,7.928,6.62,11.15,16.75,6.83,0,0,0,0,0,0,0,0,0,0,0,0,0,0,0,0,
193,6.203,-8.876,-15.4,-13.9,-10.61,-10.91,-11.79,-18.52,9.386,-1.508,13.99,-10.04,0.2044,15.49,0.0295,3.603,0,0,0,0,0,0,0,0,0,0,0,0,0,0,0,0,
194,-14.15,-20.41,-5.758,-10.88,-16.16,-21.65,-13.55,-19.12,-7.894,-3.452,3.564,-12.17,-1.035,23.23,-2.481,9.751,0,0,0,0,0,0,0,0,0,0,0,0,0,0,0,0,
195,-16.93,-20.18,-16.75,-28.35,-40.16,-20.49,-4.644,-19.58,-18.76,-8.664,-2.341,-0.3349,4.841,28.95,1.01,16.82,0,0,0,0,0,0,0,0,0,0,0,0,0,0,0,0,
196,-3.673,-9.201,-28.01,-29.8,-23.05,-6.855,4.009,-18.58,-14.19,-16.77,-18.59,-7.74,-5.434,15.18,-13.26,-2.164,0,0,0,0,0,0,0,0,0,0,0,0,0,0,0,0,
197,-1.747,-7.71,6.144,7.057,23.7,13.16,8.995,4.128,5.82,-15.01,-19.79,-15.58,-15.46,-2.632,-19.15,-8.473,0,0,0,0,0,0,0,0,0,0,0,0,0,0,0,0,
198,1.02,-8.6,37.48,16.56,25.03,18.55,9.983,10.9,23.96,-21.27,-5.302,-3.033,-2.049,-5.633,2.779,18.14,0,0,0,0,0,0,0,0,0,0,0,0,0,0,0,0,
199,17.59,1.754,32.32,10.13,21.96,17.79,11.31,-2.872,35.02,-26.49,4.161,7.705,15.21,-0.8914,9.073,14.71,0,0,0,0,0,0,0,0,0,0,0,0,0,0,0,0,
200,29.88,15.15,29.32,33.39,41.48,33.03,19.03,-9.291,18.03,-5.507,5.109,7.779,21.55,10.44,-6.319,-11.94,0,0,0,0,0,0,0,0,0,0,0,0,0,0,0,0,
201,27.35,20.71,32.2,34.44,28.12,43,26.81,-13.45,-7.635,6.696,-4.068,6.633,19.97,17.86,-2.705,-6.61,0,0,0,0,0,0,0,0,0,0,0,0,0,0,0,0,
202,17.59,18.42,27.73,9.447,12.16,34.32,27.57,-11.12,6.48,-1.841,-10.85,8.646,13.39,8.342,5.836,6.26,0,0,0,0,0,0,0,0,0,0,0,0,0,0,0,0,
203,13.73,14.61,22.07,12.36,23.76,25.81,22.17,-3.292,28.69,4.417,-6.987,9.744,11,7.374,-6.748,5.037,0,0,0,0,0,0,0,0,0,0,0,0,0,0,0,0,
204,16.4,9.279,13.08,12.85,13.47,14.25,12.69,-8.087,15.22,9.778,-9.147,-0.9573,12.63,31.19,-14.89,4.415,0,0,0,0,0,0,0,0,0,0,0,0,0,0,0,0,
205,11.1,3.988,4.591,-7.42,1.483,2.772,8.063,-12.52,-7.566,2.213,-11.38,-11.58,11.01,43.95,-6.923,-3.051,0,0,0,0,0,0,0,0,0,0,0,0,0,0,0,0,
206,3.776,6.963,-4.541,-5.092,20.66,11.07,11.51,-6.077,-1.261,9.956,-2.259,-6.239,7.725,19.32,-3.244,-8.188,0,0,0,0,0,0,0,0,0,0,0,0,0,0,0,0,
207,9.252,7.437,-7.721,11.8,26.84,19,10.86,-0.8813,25.57,18.25,0.5242,-0.39,2.781,-7.553,-4.034,0.7251,0,0,0,0,0,0,0,0,0,0,0,0,0,0,0,0,
208,13.41,-1.286,12.93,10.6,17.98,11.59,7.31,-1.397,28.44,8.064,-1.073,3.051,1.363,1.556,2.928,8.427,0,0,0,0,0,0,0,0,0,0,0,0,0,0,0,0,
209,9.967,0.8283,25.81,2.25,25.73,12.52,10.91,-8.28,17.61,-6.761,11.9,15.13,10.66,21.5,15.56,19.49,0,0,0,0,0,0,0,0,0,0,0,0,0,0,0,0,
210,12.84,9.236,13.95,6.024,35.27,16.56,13.67,-12.06,28.34,-18.67,25.12,20.56,16.42,16.03,22.02,28.32,0,0,0,0,0,0,0,0,0,0,0,0,0,0,0,0,
211,14.12,4.758,13.01,10.35,37.91,10.59,12.62,-4.51,32.34,-7.899,20.52,14.25,6.319,0.301,13.71,11.6,0,0,0,0,0,0,0,0,0,0,0,0,0,0,0,0,
212,8.461,0.4342,10.41,-4.317,41.35,13.67,16.27,3.993,33.71,13.02,12.17,10.28,-6.526,2.637,0.0311,-6.885,0,0,0,0,0,0,0,0,0,0,0,0,0,0,0,0,
213,10.32,0.1164,-5.014,-18.05,35.78,15.77,14.68,6.684,42.18,-2.477,7.167,1.962,-11.32,15.73,-4.522,-5.434,0,0,0,0,0,0,0,0,0,0,0,0,0,0,0,0,
214,13.53,-6.704,0.6317,-8.442,20.93,1.379,2.565,0.1549,9.98,-17.91,-2.434,-10.89,-10.21,15.75,0.1369,-2.833,0,0,0,0,0,0,0,0,0,0,0,0,0,0,0,0,
215,9.477,-5.55,6.842,3.112,16.43,3.901,3.12,-4.638,-4.077,3.057,-2.15,-5.435,0.4242,9.648,10.81,2.527,0,0,0,0,0,0,0,0,0,0,0,0,0,0,0,0,
216,9.929,5.135,-2.42,6.154,30.14,22.16,18.18,7.514,47.48,8.588,10.48,15.39,19.52,17.66,22.89,18.8,0,0,0,0,0,0,0,0,0,0,0,0,0,0,0,0,
217,14.06,6.825,8.716,6.884,40.65,13.56,17.23,5.016,49.1,-6.654,8.832,24.25,27.79,22.38,27.95,27.77,0,0,0,0,0,0,0,0,0,0,0,0,0,0,0,0,
218,12.15,1.871,16.18,-4.114,32.13,-4.891,2.152,-22.3,6.435,-8.605,-0.4011,18.68,19.19,9.313,26.49,21.72,0,0,0,0,0,0,0,0,0,0,0,0,0,0,0,0,
219,7.781,-3.505,-2.572,-12.68,27.63,2.261,2.3,-25.65,19.06,-6.448,5.679,17.95,13.49,3.345,27.14,14.62,0,0,0,0,0,0,0,0,0,0,0,0,0,0,0,0,
220,7.208,-5.218,-0.55,-3.408,38.98,12.49,10.26,-6.72,29.12,0.0132,16.98,23.76,15.37,8.778,32.04,14.95,0,0,0,0,0,0,0,0,0,0,0,0,0,0,0,0,
221,7.266,-2.144,11.88,0.0836,42.03,0.5665,2.599,1.211,7.188,8.347,17.47,18.12,11.7,7.364,27.12,13.11,0,0,0,0,0,0,0,0,0,0,0,0,0,0,0,0,
222,3.005,-13.59,1.012,-5.524,36.07,-11.22,-5.273,6.992,6.239,3.872,6.143,3.221,9.625,12.17,10.57,6.253,0,0,0,0,0,0,0,0,0,0,0,0,0,0,0,0,
223,7.009,-32.04,-0.079,-2.612,38.45,0.4139,5.154,8.654,-2.526,2.629,0.4026,4.392,19.31,25.11,7.108,12.59,0,0,0,0,0,0,0,0,0,0,0,0,0,0,0,0,
224,21.25,-28.66,5.768,-3.846,39.05,9.091,11.67,-5.761,-23.22,9.411,12.05,15.1,25.25,16.57,12.51,26.07,0,0,0,0,0,0,0,0,0,0,0,0,0,0,0,0,
225,16.26,-19.21,-2.88,-15.39,32.18,-6.08,1.648,-17.49,-10.41,12.09,18.87,10.38,20.02,8.787,4.52,21.99,0,0,0,0,0,0,0,0,0,0,0,0,0,0,0,0,
226,-0.6295,-17,3.044,-19.57,30.14,-11.4,-1.304,-13.73,13.65,9.659,13.55,4.798,15.91,28.17,-0.2594,14.53,0,0,0,0,0,0,0,0,0,0,0,0,0,0,0,0,
227,3.279,-8.238,12.69,-17.23,28.95,-2.454,3.002,-9.183,10.57,-0.8833,12,10.06,11.12,20.93,5.17,16.2,0,0,0,0,0,0,0,0,0,0,0,0,0,0,0,0,
228,8.945,-3.257,4.755,-14.5,26.15,-8.299,-3.019,-14.22,-9.872,-5.289,12.32,8.558,0.6935,-7.186,3.087,5.725,0,0,0,0,0,0,0,0,0,0,0,0,0,0,0,0,
229,1.48,-4.312,4.168,-2.99,33.65,-7.631,-2.723,-10.26,-9.111,6.902,17.32,6.229,-2.276,15.14,1.779,-7.539,0,0,0,0,0,0,0,0,0,0,0,0,0,0,0,0,
230,0.1617,2.974,7.432,5.128,36.64,6.436,10.98,8.908,14.65,16.05,22.69,11.52,9.829,36.26,7.271,1.697,0,0,0,0,0,0,0,0,0,0,0,0,0,0,0,0,
231,0.7358,9.753,8.029,-7.239,16.92,3.714,14.17,13.05,17.3,12.43,10.41,9.606,25.22,5.634,8.739,15.17,0,0,0,0,0,0,0,0,0,0,0,0,0,0,0,0,
232,2.753,13.9,10.91,-12.81,7.708,5.794,12.19,3.388,9.15,0.0551,3.741,6.329,27.95,-3.519,7.888,15.04,0,0,0,0,0,0,0,0,0,0,0,0,0,0,0,0,
233,12.94,17.91,-0.7186,3.694,28.7,23.97,17.71,2.24,15.97,-0.7606,14.7,11.64,19.2,13.31,7.684,13.72,0,0,0,0,0,0,0,0,0,0,0,0,0,0,0,0,
234,11.36,9.487,-5.341,3.516,35.44,18.41,9.779,-2.75,10.15,22.2,9.86,11.52,13.86,9.591,7.678,14.51,0,0,0,0,0,0,0,0,0,0,0,0,0,0,0,0,
235,1.814,-1.587,8.224,-11.71,17.67,0.111,-7.424,-6.178,4.168,23.46,2.724,7.013,15.36,14.96,9.342,16.35,0,0,0,0,0,0,0,0,0,0,0,0,0,0,0,0,
236,5.503,-1.319,4.947,-1.266,14.32,2.358,-3.738,3.186,16.82,-4.397,15.45,11.29,19.83,30.44,13.06,22.27,0,0,0,0,0,0,0,0,0,0,0,0,0,0,0,0,
237,10.62,0.8536,-0.1528,6.314,13.45,3.907,6.3,-3.962,7.716,-8.514,9.23,13.16,21.9,23.59,16.96,19.17,0,0,0,0,0,0,0,0,0,0,0,0,0,0,0,0,
238,4.984,1.157,4.91,-14.61,-2.327,-9.137,-0.5242,-18.96,-12.71,-1.591,-14.04,1.975,13.11,6.954,10.78,8.021,0,0,0,0,0,0,0,0,0,0,0,0,0,0,0,0,
239,-6.887,0.0095,-2.735,-13.2,0.5279,-14.99,-4.949,-7.855,-6.818,-5.165,-13.34,-7.878,7.305,-2.163,-0.2019,10.44,0,0,0,0,0,0,0,0,0,0,0,0,0,0,0,0,
240,-15.25,-2.306,-5.32,8.742,17.64,-11.38,1.017,4.751,-3.979,2.643,-9.067,-7.801,14.47,-1.917,2.069,14.45,0,0,0,0,0,0,0,0,0,0,0,0,0,0,0,0,
241,-10.28,1.021,-2.243,2.305,19.92,-12.18,2.701,1.788,-14.14,3.131,-9.872,-3.173,10.69,-8.95,9.797,4.55,0,0,0,0,0,0,0,0,0,0,0,0,0,0,0,0,
242,-3.181,1.155,-10.05,-4.755,23.83,-12.67,2.744,0.4771,-7.954,-5.807,9.845,1.581,-4.563,-28.57,12.46,3.788,0,0,0,0,0,0,0,0,0,0,0,0,0,0,0,0,
243,-2.548,-10.73,-7.114,4.331,29.69,-10.48,-2.585,-9.271,0.1118,3.439,15.02,-4.998,-9.55,-20.01,6.053,7.482,0,0,0,0,0,0,0,0,0,0,0,0,0,0,0,0,
244,-2.485,-21.33,1.687,-8.7,23.81,-19.65,-21.41,-24.74,-2.548,0.0687,-5.069,-19.54,-11.21,7.585,-10.59,-8.035,0,0,0,0,0,0,0,0,0,0,0,0,0,0,0,0,
245,-12.95,-26.63,-5.563,-21.2,28.26,-32.53,-32.6,-24.54,1.582,-20.95,0.9961,-19.05,-14.11,-0.6085,-9.644,-15.29,0,0,0,0,0,0,0,0,0,0,0,0,0,0,0,0,
246,-26.45,-29.61,-20.01,-5.421,37.11,-28.31,-26.37,-23.24,-0.8098,-19.15,10.15,-12.93,-11.19,-18.78,4.43,-0.7781,0,0,0,0,0,0,0,0,0,0,0,0,0,0,0,0,
247,-19.16,-22.27,-21.34,2.674,31.06,-18.66,-19.61,-18.77,-10.56,-9.202,-9.45,-15.47,-9.091,-8.42,-6.591,5.664,0,0,0,0,0,0,0,0,0,0,0,0,0,0,0,0,
248,-8.871,-11.92,0.5612,0.6438,32.76,-17.13,-13.11,0.3997,-3.536,-7.101,-15.43,-10.65,-6.389,-0.5247,-15.46,9.912,0,0,0,0,0,0,0,0,0,0,0,0,0,0,0,0,
249,-12.49,-11.2,6.697,3.554,37.84,-12.02,-4.812,-5.295,-1.288,-2.812,-9.954,-6.13,1.509,-6.774,-0.5417,19.37,0,0,0,0,0,0,0,0,0,0,0,0,0,0,0,0,
250,-13.51,-11.65,-20.56,-5.459,26.78,-6.305,-4.936,-29.64,-8.654,-5.821,-13.56,-10.62,3.515,-9.592,1.343,7.691,0,0,0,0,0,0,0,0,0,0,0,0,0,0,0,0,
251,-10.27,-8.474,-18.94,-7.589,25.13,-7.732,-6.173,-20.04,-4.396,-6.643,-8.138,-4.324,-2.935,-11.74,-4.581,-10.87,0,0,0,0,0,0,0,0,0,0,0,0,0,0,0,0,
252,-5.411,-4.146,13.26,14.51,37.38,2.141,5.743,-0.2658,-15.93,2.028,-9.275,3.366,-4.663,-9.077,1.122,-7.723,0,0,0,0,0,0,0,0,0,0,0,0,0,0,0,0,
253,5.775,3.679,22.57,27.69,38.78,21.26,18.54,7.04,-28.69,6.602,-13.98,2.262,2.07,-4.67,2.614,-2.965,0,0,0,0,0,0,0,0,0,0,0,0,0,0,0,0,
254,10.73,4.692,18.43,26.97,30.66,18.48,13.85,22.18,-2.922,16.45,1.042,7.07,2.628,-12.63,0.1859,-8.078,0,0,0,0,0,0,0,0,0,0,0,0,0,0,0,0,
255,7.048,-4.573,10.73,23.45,23.21,2.276,4.183,20.63,10.28,14.82,3.555,8.771,-3.728,-10.6,1.175,-6.812,0,0,0,0,0,0,0,0,0,0,0,0,0,0,0,0,
256,9.785,-4.571,-0.1001,5.858,28.06,5.389,9.197,3.849,-8.654,-11.72,0.6236,10.01,5.89,8.67,6.241,-0.6082,0,0,0,0,0,0,0,0,0,0,0,0,0,0,0,0,
257,18.09,4.471,5.581,-0.0051,43.98,17.73,15.98,5.403,-7.172,-7.573,18.87,23.67,22,11.94,10.81,1.928,0,0,0,0,0,0,0,0,0,0,0,0,0,0,0,0,
258,24.31,5.644,8.761,26.79,45.92,19.65,11.84,-1.273,11.2,20.67,20.39,25.39,15.37,2.833,5.29,0.8622,0,0,0,0,0,0,0,0,0,0,0,0,0,0,0,0,
259,25.06,3.525,4.598,38.72,36.58,20.29,11.53,-16.88,18.17,6.902,15.29,17.02,5.323,-3.978,7.575,-0.893,0,0,0,0,0,0,0,0,0,0,0,0,0,0,0,0,
260,16.96,5.863,18.41,18.16,33.76,19.4,15.31,-5.827,16.14,-19.62,25.71,19.49,12.32,-14.25,17.57,3.248,0,0,0,0,0,0,0,0,0,0,0,0,0,0,0,0,
261,7.47,7.906,26.52,13.72,32.13,9.069,9.669,10.21,6.617,-14,10.23,12.03,12.37,-11.74,8.608,8.464,0,0,0,0,0,0,0,0,0,0,0,0,0,0,0,0,
262,5.65,6.484,16.43,28.14,32.81,3.276,5.174,12.77,-16.48,1.7,-6.949,-3.039,-1.778,-0.3663,-0.558,1.374,0,0,0,0,0,0,0,0,0,0,0,0,0,0,0,0,
263,5.215,-0.0762,14.32,17.07,34.03,9.103,9.065,12.99,-37.68,17,8.759,-2.307,-12.76,-3.648,-2.212,-12.21,0,0,0,0,0,0,0,0,0,0,0,0,0,0,0,0,
264,-0.2467,-9.397,12.08,-7.303,24.55,11.62,6.128,10.85,-15.43,21.83,10.14,-0.7086,-16.24,-4.278,-10.54,-16.23,0,0,0,0,0,0,0,0,0,0,0,0,0,0,0,0,
265,-3.756,-14.42,-1.945,-4.821,15.01,5.442,-4.619,10.61,26.17,0.9619,-3.541,-3.985,-15.22,-0.5207,-4.324,-11.2,0,0,0,0,0,0,0,0,0,0,0,0,0,0,0,0,
266,-2.696,-15.35,-13.8,8.871,13.45,-0.0571,-9.126,8.29,17.48,-14.74,-5.495,-6.312,-18.79,-11.23,-3.327,-10.18,0,0,0,0,0,0,0,0,0,0,0,0,0,0,0,0,
267,-7.313,-17.51,-15.08,10.93,14.26,-0.9786,-5.114,4.598,-8.125,-9.988,-13.97,-17.26,-28.3,-18.47,-29.87,-18.36,0,0,0,0,0,0,0,0,0,0,0,0,0,0,0,0,
268,-17.29,-22.11,-4.902,13.31,16.67,-1.579,0.0138,11.11,-0.2664,-9.076,-19.82,-25.96,-26.6,-14.38,-33.45,-25.01,0,0,0,0,0,0,0,0,0,0,0,0,0,0,0,0,
269,-21.33,-24.61,6.341,13.31,15.88,-4.077,-1.743,8.082,3.685,-7.135,-9.931,-20.86,-14.53,-7.831,-13.15,-17.62,0,0,0,0,0,0,0,0,0,0,0,0,0,0,0,0,
270,-18.64,-21.44,9.203,2.397,15.27,-3.102,-9.402,-7.281,-4.703,-0.3587,-2.539,-11.22,-7.045,1.381,-5.287,-0.9029,0,0,0,0,0,0,0,0,0,0,0,0,0,0,0,0,
271,-12.22,-18.3,3.642,-8.801,20.48,4.052,-14.13,-15.36,-2.03,-11.39,-0.6636,-4.081,-4.878,0.0731,3.914,8.916,0,0,0,0,0,0,0,0,0,0,0,0,0,0,0,0,
272,-6.532,-19.28,-11.43,-16.54,18.66,6.061,-19.35,-26.12,4.257,-22.86,-2.247,-8.514,-10.1,-4.627,5.57,6.739,0,0,0,0,0,0,0,0,0,0,0,0,0,0,0,0,
273,-8.492,-20.54,-16.49,-14.46,13.03,-0.8146,-26.91,-24.27,13.76,-10.23,-5.795,-14.39,-15.91,6.126,-6.9,1.881,0,0,0,0,0,0,0,0,0,0,0,0,0,0,0,0,
274,-8.034,-21.78,-8.304,-2.364,15.44,-1.492,-22.18,0.5586,14.74,-5.14,-7.619,-3.059,-6.44,10.92,-2.852,0.164,0,0,0,0,0,0,0,0,0,0,0,0,0,0,0,0,
275,2.994,-18.99,-16.99,-1.217,12.21,6.811,-7.42,3.458,-0.242,-17.71,-9.693,5.346,4.574,0.6357,4.489,-1.475,0,0,0,0,0,0,0,0,0,0,0,0,0,0,0,0,
276,10.58,-7.209,-17.37,-1.505,2.555,15.92,0.7799,-2.058,2.582,-8.134,-0.9206,3.893,3.663,-6.533,0.3895,-4.676,0,0,0,0,0,0,0,0,0,0,0,0,0,0,0,0,
277,13.03,1.315,13.04,10.91,2.385,25.36,4.852,21.3,15.18,13.35,10.6,11.57,2.856,-13.96,2.541,-5.437,0,0,0,0,0,0,0,0,0,0,0,0,0,0,0,0,
278,20.81,2.728,22.27,12.17,9.382,29.48,12.3,29.82,4.304,6.217,1.228,13.18,1.458,-18.94,-1.224,-2.241,0,0,0,0,0,0,0,0,0,0,0,0,0,0,0,0,
279,25.74,8.813,12.81,10.42,18.38,30.42,21.79,19.55,0.2802,-4.18,-5.67,6.445,-0.7971,-6.944,-9.44,-0.4011,0,0,0,0,0,0,0,0,0,0,0,0,0,0,0,0,
280,21.49,9.741,22.8,23.3,21.74,36.77,26.78,33.49,20.98,6.817,6.207,15.98,2.12,5.052,1.636,1.301,0,0,0,0,0,0,0,0,0,0,0,0,0,0,0,0,
281,19.78,-0.7936,26.09,21.83,10.28,35.08,21.84,31.53,30.08,6.528,8.958,27.09,-1.562,2.402,10.85,6.317,0,0,0,0,0,0,0,0,0,0,0,0,0,0,0,0,
282,24.85,-0.4206,23.49,13.05,1.542,25.99,20.79,-7.784,20.46,-1.841,2.914,24.44,-2.9,6.966,5.507,3.37,0,0,0,0,0,0,0,0,0,0,0,0,0,0,0,0,
283,28.89,10.21,29.81,25.13,7.375,29.51,30.39,-18.01,20.78,9.214,5.897,22.95,12.58,19.05,6.544,-2.751,0,0,0,0,0,0,0,0,0,0,0,0,0,0,0,0,
284,29.93,10.99,15.15,31.64,9.228,32.7,29.79,5.053,36.92,13.69,11.59,20.7,17.92,12.18,3.894,4.379,0,0,0,0,0,0,0,0,0,0,0,0,0,0,0,0,
285,29.26,8.777,1.585,21.57,3.982,23.93,21.96,7.091,35.95,0.7267,16.63,12.87,8.673,3.285,-6.817,2.737,0,0,0,0,0,0,0,0,0,0,0,0,0,0,0,0,
286,26.86,11.54,18.31,14.22,4.347,20.69,24.14,-6.385,13.17,1.657,18.03,8.275,9.197,9.169,-1.649,-11.1,0,0,0,0,0,0,0,0,0,0,0,0,0,0,0,0,
287,24.93,10.72,23.35,6.908,6.654,22.18,21.47,-6.097,13.92,18.38,4.665,1.722,7.865,2.403,3.909,-0.2703,0,0,0,0,0,0,0,0,0,0,0,0,0,0,0,0,
288,21.23,8.136,14.65,7.524,7.716,22.38,15.78,11.57,18.51,28.07,-9.222,-8.45,1.49,-2.822,-6.193,13.9,0,0,0,0,0,0,0,0,0,0,0,0,0,0,0,0,
289,17.22,11.02,25.33,21.81,12.21,32.8,29.7,31.71,-10.33,20.38,-1.091,-6.391,7.447,15.7,-3.137,-0.0381,0,0,0,0,0,0,0,0,0,0,0,0,0,0,0,0,
290,21.84,14.83,32.23,27.86,15.3,43.78,42.01,30.01,-8.72,14.7,11.04,5.296,6.702,8.798,8.077,-8.553,0,0,0,0,0,0,0,0,0,0,0,0,0,0,0,0,
291,26.69,12.18,27.07,27.04,13.54,37.19,32.66,20.21,30.41,23.27,5.544,9.282,-7.078,-25,1.969,-3.921,0,0,0,0,0,0,0,0,0,0,0,0,0,0,0,0,
292,23.28,7.055,35.31,31.51,12.33,27.26,25.99,25.15,32.53,17.43,2.006,8.596,-4.947,-20.64,0.635,-6.881,0,0,0,0,0,0,0,0,0,0,0,0,0,0,0,0,
293,18.88,5.069,35.11,30,9.762,25.56,26.98,20.93,16.69,11.76,9.842,8.358,3.267,6.543,8.848,-7.298,0,0,0,0,0,0,0,0,0,0,0,0,0,0,0,0,
294,6.798,0.836,12.61,20.24,4.244,18.89,22.24,9.014,9.147,30.57,13.07,2.788,-1.946,4.033,1.897,-3.932,0,0,0,0,0,0,0,0,0,0,0,0,0,0,0,0,
295,-6.125,-3.164,7.541,10.48,1.673,11.4,20.33,15.34,-3.708,22.23,12.46,-0.8864,0.1426,-11.12,-3.819,-0.0563,0,0,0,0,0,0,0,0,0,0,0,0,0,0,0,0,
296,0.7826,-3.414,19.85,6.131,0.2236,11.67,17.65,19.7,6.247,-1.817,9.747,-0.2712,9.226,-4.026,6.964,8.636,0,0,0,0,0,0,0,0,0,0,0,0,0,0,0,0,
297,4.047,-10.95,17.76,11.4,-1.477,5.597,5.116,8.476,20,9.618,8.453,-0.448,9.007,19.07,16.33,11.29,0,0,0,0,0,0,0,0,0,0,0,0,0,0,0,0,
298,-4.04,-15.92,8.597,8.46,-1.128,-0.5368,-0.5771,-4.805,11.93,5.705,19.86,10.67,14.01,22.38,18.48,13.35,0,0,0,0,0,0,0,0,0,0,0,0,0,0,0,0,
299,6.887,-6.633,1.947,-8.937,-5.525,2.707,2.91,-10.66,18.98,-14.95,19.23,19.29,16.06,-2.783,10.69,20.3,0,0,0,0,0,0,0,0,0,0,0,0,0,0,0,0,
300,11.95,-6.895,0.902,-3.903,-12.01,-7.8,1.667,3.889,13.84,5.174,-6.683,-1.349,-1,-11.37,-6.496,12.23,0,0,0,0,0,0,0,0,0,0,0,0,0,0,0,0,
301,-12.38,-17.63,7.979,19.68,-16,-25.85,-1.67,22.31,-14.76,23.88,-16.65,-18.92,-4.524,4.325,-12.91,-3.906,0,0,0,0,0,0,0,0,0,0,0,0,0,0,0,0,
302,-24.44,-15.92,-1.656,11.45,-32.41,-26.41,-6.883,20.67,-4.107,11.05,-8.254,-11.57,6.457,-1.625,-13.43,-11.53,0,0,0,0,0,0,0,0,0,0,0,0,0,0,0,0,
303,-18.18,-13.11,-23.54,-14,-56.47,-26.23,-14.48,15.93,0.4382,2.438,-16.4,-13,-3.895,-18.22,-23.84,-18.34,0,0,0,0,0,0,0,0,0,0,0,0,0,0,0,0,
304,-21.25,-19.7,-28.08,-13.42,-63.64,-32.01,-17.14,12.68,-43.15,2.953,-26.41,-19.96,-15.81,-13.69,-23.48,-17.19,0,0,0,0,0,0,0,0,0,0,0,0,0,0,0,0,
305,-20.52,-22.82,-27.33,-1.028,-58.56,-26.3,-18.57,12.72,-43.84,9.238,-19.34,-13.17,-10.82,-14.47,-12.26,-8.625,0,0,0,0,0,0,0,0,0,0,0,0,0,0,0,0,
306,-10.12,-18.7,-21.94,9.075,-58.43,-15.65,-17.02,33.7,-6.022,12.16,-13.37,-13.39,-10.61,-24.22,-20.23,-14.93,0,0,0,0,0,0,0,0,0,0,0,0,0,0,0,0,
307,-7.595,-12.44,-3.337,22.59,-63.11,-8.546,-7.845,43.95,-14.97,0.9061,-11.57,-16.54,-8.933,-13.96,-28.01,-21.11,0,0,0,0,0,0,0,0,0,0,0,0,0,0,0,0,
308,-7.516,-11.53,-1.409,22.04,-68.72,-8.524,-6.537,24.39,-30.23,-1.09,-8.175,-8.373,-2.759,-2.91,-15.96,-15.28,0,0,0,0,0,0,0,0,0,0,0,0,0,0,0,0,
309,-6.532,-15.79,-14.75,8.265,-76.14,-23.18,-15.64,21.31,-21.11,7.25,-11.38,-12.1,-11.82,-9.993,-18.26,-23.88,0,0,0,0,0,0,0,0,0,0,0,0,0,0,0,0,
310,-15.2,-16.38,-21.5,8.406,-82.24,-35.06,-20.12,35.7,-37.25,8,-12.64,-24.9,-20.56,-13.1,-28.21,-28.96,0,0,0,0,0,0,0,0,0,0,0,0,0,0,0,0,
311,-23.43,-18.34,-33.33,13.2,-82.24,-31.08,-21.8,29.13,-47.93,9.543,-5.408,-23.12,-13.89,-12.17,-17.39,-10.07,0,0,0,0,0,0,0,0,0,0,0,0,0,0,0,0,
312,-20.44,-22.56,-39.72,0.7518,-84.84,-29.73,-22.7,16.36,-31.78,9.729,-8.185,-15.96,-8.263,-18.52,-16.48,-7.389,0,0,0,0,0,0,0,0,0,0,0,0,0,0,0,0,
313,-13.21,-14.62,-27.63,-11.33,-93.8,-30.38,-15.73,14.39,-46.87,4.997,-15.14,-8.406,-5.569,-13.63,-24.02,-10.93,0,0,0,0,0,0,0,0,0,0,0,0,0,0,0,0,
314,-5.627,-1.466,-25.11,-7.407,-93.4,-19.08,-6.962,7.591,-62.01,8.442,-6.561,1.018,-3.086,2.053,-7.378,8.619,0,0,0,0,0,0,0,0,0,0,0,0,0,0,0,0,
315,-4.06,-1.124,-30.86,-4.334,-85.19,-10.5,-5.49,5.801,-38.57,16.84,0.4238,-0.4101,-7.249,-4.692,1.178,3.863,0,0,0,0,0,0,0,0,0,0,0,0,0,0,0,0,
316,-10.23,-8.173,-23.73,-8.547,-78.06,-15.06,-8.809,18.31,-36.61,19.85,-1.667,-4.413,-9.614,-27.98,-8.38,-17.44,0,0,0,0,0,0,0,0,0,0,0,0,0,0,0,0,
317,-9.568,-9.093,-23.33,-10.4,-64.17,-20.7,-10.86,14.52,-39.99,14.01,9.101,4.561,-1.999,-23.23,6.49,3.108,0,0,0,0,0,0,0,0,0,0,0,0,0,0,0,0,
318,-0.9084,1.061,-28.28,-10.59,-53.99,-19.31,-4.774,0.6824,-5.364,5.987,24.85,21.73,14.57,9.724,34.9,31.63,0,0,0,0,0,0,0,0,0,0,0,0,0,0,0,0,
319,7.735,18.78,-11.71,-8.293,-58.42,-12.17,8.123,18.22,10.69,11.06,23.97,36.35,31.69,23.47,40.58,32.31,0,0,0,0,0,0,0,0,0,0,0,0,0,0,0,0,
320,13.58,26.76,-0.5733,-4.277,-63.37,-11.62,11.76,41.32,-5.146,17.92,11.03,30.31,28.41,9.79,23.67,23.44,0,0,0,0,0,0,0,0,0,0,0,0,0,0,0,0,
321,5.911,13.97,-16.69,-10.23,-68.32,-22.03,1.59,32.07,-24.75,10.45,-10.19,5.002,11.72,3.469,-0.4882,5.957,0,0,0,0,0,0,0,0,0,0,0,0,0,0,0,0,
322,-11.07,-2.954,-26.85,-20.4,-72.22,-24.34,-6.745,21.81,-51.23,7.656,-33.63,-7.896,10.05,3.716,-14.73,-5.393,0,0,0,0,0,0,0,0,0,0,0,0,0,0,0,0,
323,-19.12,-6.454,-21.93,-17.42,-61.16,-17,-4.986,24.94,-45.58,9.545,-36.75,-6.432,12.95,-4.929,-13.08,1.924,0,0,0,0,0,0,0,0,0,0,0,0,0,0,0,0,
324,-19.42,0.864,-19.32,-7.729,-49.46,-16.88,2.558,19.64,-11.92,-3.892,-23.7,-8.84,8.562,0.8702,-5.535,2.083,0,0,0,0,0,0,0,0,0,0,0,0,0,0,0,0,
325,-17.25,10.09,-24.63,-9.581,-55.98,-21.42,5.92,14.6,-17.54,-7.018,-18.56,-5.783,16.1,19.22,1.253,0.8304,0,0,0,0,0,0,0,0,0,0,0,0,0,0,0,0,
326,-13.41,14.15,-39.57,-20.02,-68.6,-25.62,-2.834,15.92,-34.97,14.16,-15.54,7.533,29.09,15.38,10.01,17.36,0,0,0,0,0,0,0,0,0,0,0,0,0,0,0,0,
327,-12.22,11.42,-48.91,-24.29,-73.66,-33,-14.18,12.08,-26.84,15.14,-9.185,15.76,25.9,2.852,19.39,28.18,0,0,0,0,0,0,0,0,0,0,0,0,0,0,0,0,
328,-11.76,1.136,-48.3,-23.58,-71.46,-39.51,-20.46,9.242,-29.13,-6.666,-10.31,15.9,15.68,2.375,18.98,21.74,0,0,0,0,0,0,0,0,0,0,0,0,0,0,0,0,
329,-10.32,-16.77,-47.66,-19.32,-64.87,-37,-24.8,7.255,-28.87,-8.392,-7.118,16.17,11.1,-1.791,11.76,14.66,0,0,0,0,0,0,0,0,0,0,0,0,0,0,0,0,
330,-9.568,-24.52,-28.81,-9.837,-56.24,-26.95,-18.88,-0.3728,-4.719,1.005,0.9159,14.08,9.729,-2.766,5.746,8.31,0,0,0,0,0,0,0,0,0,0,0,0,0,0,0,0,
331,-11.29,-13.35,-4.405,-12.78,-48.57,-25.07,-9.159,0.6501,4.484,-2.201,-8.83,1.881,8.474,8.255,-5.033,-0.0187,0,0,0,0,0,0,0,0,0,0,0,0,0,0,0,0,
332,-18.79,-6.363,-14,-22.68,-46.88,-29.32,-14.69,14.68,-10.51,-6.05,-23.99,-12.72,2.881,7.452,-13.55,-3.244,0,0,0,0,0,0,0,0,0,0,0,0,0,0,0,0,
333,-26.28,-9.32,-31.45,-13.75,-50.92,-22.44,-17.43,21.82,-21.05,-2.373,-26.52,-17.37,-5.191,-2.584,-15.38,-2.361,0,0,0,0,0,0,0,0,0,0,0,0,0,0,0,0,
334,-25.88,-4.807,-26.68,-8.459,-51.91,-20.88,-4.963,10.32,-19.09,7.771,-26.05,-14.61,-2.668,3.793,-20.93,0.1001,0,0,0,0,0,0,0,0,0,0,0,0,0,0,0,0,
335,-19.39,2.342,-23.91,-21.82,-50.4,-34.36,-6.916,-7.193,-23.62,12.78,-19.79,-10.51,7.832,16.82,-19.87,5.465,0,0,0,0,0,0,0,0,0,0,0,0,0,0,0,0,
336,-15.15,-2.356,-28.85,-21.79,-53.56,-38.28,-24.23,-7.614,-34.36,3.008,-4.535,-8.711,8.444,11.16,-13.79,4.914,0,0,0,0,0,0,0,0,0,0,0,0,0,0,0,0,
337,-20.75,-13.59,-22.45,-11.69,-49.98,-34.39,-24.36,6.076,-14.16,1.862,5.874,-10.12,1.301,-4.935,-15.16,-2.707,0,0,0,0,0,0,0,0,0,0,0,0,0,0,0,0,
338,-24.88,-19.77,-13.83,-14.11,-30.76,-30.42,-14.9,10.04,11.32,5.878,4.685,-11.86,-6.051,-5.541,-11.26,-4.784,0,0,0,0,0,0,0,0,0,0,0,0,0,0,0,0,
339,-17.24,-26.25,-18.43,-15.89,-13.73,-16.73,-22.06,11.12,-4.742,-10.31,-5.061,-16.46,-19.33,5.521,-14.37,-7.959,0,0,0,0,0,0,0,0,0,0,0,0,0,0,0,0,
340,-14.85,-39.5,-16.23,-10.97,-10.15,-9.392,-29.51,15.14,-4.442,-17.31,-10.87,-19.64,-27.78,4.073,-28.2,-19.1,0,0,0,0,0,0,0,0,0,0,0,0,0,0,0,0,
341,-21,-41.79,-2.911,-11.51,-14.96,-16.47,-20.88,-6.308,21.45,-5.261,-5.201,-14.05,-22.05,-13.83,-14.61,-16.79,0,0,0,0,0,0,0,0,0,0,0,0,0,0,0,0,
342,-18.27,-26.48,-9.912,-17.99,-21.5,-17.62,-17.84,-29.12,7.737,-2.293,0.5701,-12.26,-18.7,-27.5,0.8393,-2.569,0,0,0,0,0,0,0,0,0,0,0,0,0,0,0,0,
343,-12.07,-19.78,-17.24,-23.34,-17.1,-16.78,-24.66,-3.419,-6.686,1.699,0.8334,-18.65,-22.63,-19.05,-20.82,-5.349,0,0,0,0,0,0,0,0,0,0,0,0,0,0,0,0,
344,-16.55,-33.61,-1.703,-21.93,-7.069,-26.61,-27.94,21.61,-1.952,-2.482,-1.917,-20.55,-29.47,-7.538,-33.06,-14.27,0,0,0,0,0,0,0,0,0,0,0,0,0,0,0,0,
345,-24.86,-50.35,-4.594,-13.75,-8.025,-31.71,-34.03,-0.4024,-19.54,-25.49,-2.925,-18.64,-39.17,-16.61,-17.96,-13.97,0,0,0,0,0,0,0,0,0,0,0,0,0,0,0,0,
346,-25.78,-52.14,-17.15,-8.246,-9.735,-25.43,-36.75,-18.69,-20.58,-23.89,3.144,-17.97,-40.38,-25.15,-13.87,-25.79,0,0,0,0,0,0,0,0,0,0,0,0,0,0,0,0,
347,-24.52,-41.28,-8.473,-14.22,-6.155,-28.61,-29.79,-20.25,1.228,-6.612,0.8934,-20.48,-36.16,-24.92,-18.04,-34.44,0,0,0,0,0,0,0,0,0,0,0,0,0,0,0,0,
348,-28.76,-34.87,-14.83,-23.9,-7.304,-41.8,-31.49,-27.67,6.609,-12.46,-16.5,-26.23,-38.26,-33.69,-17.76,-16.8,0,0,0,0,0,0,0,0,0,0,0,0,0,0,0,0,
349,-31.83,-32.45,-30.82,-23.98,-11.59,-43.71,-35.47,-12.06,-0.3992,-20.87,-25.8,-27.46,-38.13,-34.93,-21.36,-12.92,0,0,0,0,0,0,0,0,0,0,0,0,0,0,0,0,
350,-30.44,-23.69,-20.72,-20.61,-19.37,-38.55,-28.96,9.787,-35.57,-23.23,-25.53,-27.17,-36.22,-24.44,-22.23,-26.5,0,0,0,0,0,0,0,0,0,0,0,0,0,0,0,0,
351,-30.7,-19.29,-10.65,-24.56,-26.35,-36.63,-27.63,-11.07,-55.01,-24.62,-28.75,-28.19,-34.78,-20.99,-15.78,-17.31,0,0,0,0,0,0,0,0,0,0,0,0,0,0,0,0,
352,-30.64,-22.66,-15.43,-29.73,-21.79,-31.86,-28.99,-34.49,-8.802,-12.29,-24.18,-19.54,-24.44,-14.81,-10.04,-5.957,0,0,0,0,0,0,0,0,0,0,0,0,0,0,0,0,
353,-26.03,-18.65,-15.1,-25.11,-14.75,-24.46,-20.2,-16.27,8.047,1.792,-13.04,-10.19,-16.6,-11.63,-8.337,-8.922,0,0,0,0,0,0,0,0,0,0,0,0,0,0,0,0,
354,-20.98,-12.46,-8.571,-13.44,-14.07,-17.58,-14.12,12.29,-18.51,3.223,-17.35,-15.68,-18.8,-14.71,-13.22,-5.824,0,0,0,0,0,0,0,0,0,0,0,0,0,0,0,0,
355,-22.71,-18.54,-12.82,-11.48,-17.85,-17.55,-21.64,15.75,-7.273,-3.835,-29.44,-24.5,-19.04,-5.313,-17.44,-8.207,0,0,0,0,0,0,0,0,0,0,0,0,0,0,0,0,
356,-27.44,-26.35,-29.85,-17.22,-22.19,-23.03,-31.6,-1.977,-2.015,-7.937,-24.09,-23.37,-16.28,-5.84,-11.25,-14.2,0,0,0,0,0,0,0,0,0,0,0,0,0,0,0,0,
357,-22.43,-24.71,-30.23,-15.83,-20.56,-19.12,-27.57,-7.282,-18.5,1.322,-10.5,-15.14,-8.388,-10.29,-5.732,-5.34,0,0,0,0,0,0,0,0,0,0,0,0,0,0,0,0,
358,-13.28,-22.49,-11,-19.33,-23.34,-22.64,-14.89,5.893,-13.28,7.177,-8.973,-6.412,1.3,7.396,-3.891,-0.1286,0,0,0,0,0,0,0,0,0,0,0,0,0,0,0,0,
359,-10.26,-16.47,-3.69,-22.48,-34.39,-38.08,-7.939,4.9,-23.26,4.497,-9.146,1.747,0.0818,0.2551,5.344,-1.354,0,0,0,0,0,0,0,0,0,0,0,0,0,0,0,0,
360,-5.562,2.644,-7.138,-2.498,-34.14,-25.94,1.73,7.886,-31.65,8.134,-2.521,9.437,2.797,-13.28,11.15,6.594,0,0,0,0,0,0,0,0,0,0,0,0,0,0,0,0,
361,-0.9979,16.5,-8.916,9.755,-27.58,-1.575,14.22,35.15,6.013,3.415,-0.1438,9.422,13.98,18.19,5.327,9.993,0,0,0,0,0,0,0,0,0,0,0,0,0,0,0,0,
362,-1.604,14.7,-7.692,-2.293,-27.42,1.666,15.34,32.15,22.03,-3.921,-0.5183,5.29,9.71,17.95,-0.3343,1.568,0,0,0,0,0,0,0,0,0,0,0,0,0,0,0,0,
363,2.16,12.01,-6.091,0.4613,-25.31,7.517,15.21,2.125,-13.48,6.097,3.318,12.03,3.848,-22.79,-1.36,-2.994,0,0,0,0,0,0,0,0,0,0,0,0,0,0,0,0,
364,7.947,11.8,-17.54,13.4,-24.42,14.91,19.53,12.27,-33.91,9.766,8.626,24.26,17.13,-15.58,6.471,4.488,0,0,0,0,0,0,0,0,0,0,0,0,0,0,0,0,
365,10.77,16.24,-21.06,6.981,-27.74,7.44,15.96,35.94,-16,6.211,14.27,26.69,25.14,8.035,17.58,12.22,0,0,0,0,0,0,0,0,0,0,0,0,0,0,0,0,
366,14.19,23.62,-2.424,-3.814,-27.98,3.565,6.09,26.2,6.848,9.802,14.7,21.17,18.98,7.372,11.15,4.674,0,0,0,0,0,0,0,0,0,0,0,0,0,0,0,0,
367,12.98,15.61,-4.801,-5.46,-30.08,5.491,-3.37,14.81,5.626,5.296,5.034,17.96,18.34,8.862,0.02,-5.241,0,0,0,0,0,0,0,0,0,0,0,0,0,0,0,0,
368,8.103,5.466,-22.5,-6.949,-35.28,8.664,-4.061,10.68,-22.22,11.13,-2.442,17.43,20.55,7.81,5.699,-2.031,0,0,0,0,0,0,0,0,0,0,0,0,0,0,0,0,
369,5.128,16.64,-11.34,-7.567,-38.49,16.17,8.654,-3.058,-38.46,28.25,1.43,12.82,15.32,16.03,9.361,-2.97,0,0,0,0,0,0,0,0,0,0,0,0,0,0,0,0,
370,3.602,26.7,9.185,1.929,-38.33,19.17,20.62,0.4809,-9.008,11.04,6.806,12.94,7.584,19,4.44,-8.728,0,0,0,0,0,0,0,0,0,0,0,0,0,0,0,0,
371,10.96,20.11,12.14,15.73,-30.58,19.38,27.83,22.57,22.91,-4.378,7.797,27.24,2.816,-22.59,9.271,2.51,0,0,0,0,0,0,0,0,0,0,0,0,0,0,0,0,
372,20.06,14.28,10.7,16.16,-22.53,16.16,33.7,22.55,13.66,24.73,11.27,35.86,4.397,-31.73,14.68,13.69,0,0,0,0,0,0,0,0,0,0,0,0,0,0,0,0,
373,13.27,12.62,12.95,4.938,-26.96,7.829,25.71,10.46,4.551,25.61,12.56,25.85,8.634,16.54,6.499,0.7166,0,0,0,0,0,0,0,0,0,0,0,0,0,0,0,0,
374,1.282,6.405,3.603,-4.246,-37.85,7.13,7.374,19.62,4.662,-22.11,-0.672,12.36,6.021,15.8,-1.417,-10.17,0,0,0,0,0,0,0,0,0,0,0,0,0,0,0,0,
375,-7.052,-3.681,-16.92,-8.953,-42.95,3.547,-1.818,25.88,-17.55,-28.58,-17.1,4.4,5.412,-10.37,-0.3836,4.849,0,0,0,0,0,0,0,0,0,0,0,0,0,0,0,0,
376,-13.96,-6.415,-12.05,-6.858,-38.77,-2.968,2.099,13.36,-18.04,10.06,-16.9,3.392,15.2,9.005,0.9793,19.9,0,0,0,0,0,0,0,0,0,0,0,0,0,0,0,0,
377,-5.289,4.526,12.03,-1.54,-31.22,9.434,11.09,16.52,9.676,16.56,-6.697,8.072,15.36,14.14,0.0004,10.9,0,0,0,0,0,0,0,0,0,0,0,0,0,0,0,0,
378,10.9,12.24,8.374,-1.439,-28.14,15.78,13.46,27.2,3.674,-0.1355,-2.575,8.453,2.679,1.39,-4.588,-6.161,0,0,0,0,0,0,0,0,0,0,0,0,0,0,0,0,
379,11.84,10.44,-6.41,2.31,-23.75,5.799,11.1,18.67,-14.39,7.3,-0.3764,6.679,3.645,21.29,-11.03,-9.941,0,0,0,0,0,0,0,0,0,0,0,0,0,0,0,0,
380,10.78,16.44,-4.667,13.08,-16.21,12.09,14.97,21.61,-4.378,15.93,7.804,9.193,11.65,27.45,-5.236,-4.586,0,0,0,0,0,0,0,0,0,0,0,0,0,0,0,0,
381,13.03,21.16,-6.396,13.14,-20.64,16.2,16.94,33.83,18.46,13.52,10.72,7.208,0.4718,2.659,4.596,-5.143,0,0,0,0,0,0,0,0,0,0,0,0,0,0,0,0,
382,5.352,10.08,-6.144,0.8609,-28.41,4.565,14.97,19.83,35.12,28.41,7.689,3.956,-14.45,-2.195,-0.0241,-8.2,0,0,0,0,0,0,0,0,0,0,0,0,0,0,0,0,
383,4.536,2.45,3.376,-1.789,-19.23,8.839,14.41,12.08,18.8,28.4,15.21,10.49,-12.47,3.958,-1.167,-2.788,0,0,0,0,0,0,0,0,0,0,0,0,0,0,0,0,
384,14.59,1.137,-4.814,6.085,-14.59,13.6,2.117,27.37,-5.663,-8.067,18.63,12.5,-8.432,-2.01,3.053,0.3352,0,0,0,0,0,0,0,0,0,0,0,0,0,0,0,0,
385,11,-6.347,-16.39,1.511,-24.85,3.722,-10.1,24.05,9.481,-14.46,5.624,3.311,-6.223,5.127,-7.315,-0.831,0,0,0,0,0,0,0,0,0,0,0,0,0,0,0,0,
386,4.115,-4.765,-1.202,-10.12,-19.17,5.059,-3.432,8.271,19.29,7.539,4.369,1.726,4.516,25.25,-7.103,7.857,0,0,0,0,0,0,0,0,0,0,0,0,0,0,0,0,
387,9.156,3.852,9.416,-7.854,-6.199,5.768,-2.081,8.645,1.602,-3.837,14.41,5.862,9.203,24.78,9.423,9.395,0,0,0,0,0,0,0,0,0,0,0,0,0,0,0,0,
388,5.984,-0.6315,-7.067,-3.006,-10.4,-2.639,-4.789,10.04,-4.704,-12.91,13.89,1.909,2.517,15.19,6.989,-4.079,0,0,0,0,0,0,0,0,0,0,0,0,0,0,0,0,
389,-5.953,-2.918,-17.11,-6.353,-13.29,3.616,10.52,1.108,-5.173,7.506,13.21,-2.052,0.9184,23.02,2.256,-6.634,0,0,0,0,0,0,0,0,0,0,0,0,0,0,0,0,
390,-6.593,2.694,-14.88,-8.94,-14.17,10.52,14.87,-0.0594,2.143,11.53,11.56,-2.86,-3.595,15.63,6.911,-7.519,0,0,0,0,0,0,0,0,0,0,0,0,0,0,0,0,
391,-5.874,-5.302,-24,-12.99,-23.24,0.6729,-4.007,8.121,1.483,3.85,3.311,-9.214,-18.22,-12.68,-9.681,-16.95,0,0,0,0,0,0,0,0,0,0,0,0,0,0,0,0,
392,-19.18,-17.58,-28.12,-17.98,-20.51,-11.65,-15.88,-3.602,-38.48,3.864,3.969,-16.28,-23.36,-6.206,-22.47,-10.93,0,0,0,0,0,0,0,0,0,0,0,0,0,0,0,0,
393,-29.28,-19.58,-12.99,-15.32,-11.56,-18.5,-19.1,-21.13,-39.6,0.9855,6.039,-13.18,-17.05,15.83,-4.54,-0.2665,0,0,0,0,0,0,0,0,0,0,0,0,0,0,0,0,
394,-18.68,-20.12,-9.405,-10.78,-14.08,-16.94,-20.11,-3.813,14.5,0.7618,-1.605,-4.453,-13.17,4.697,3.668,-0.9488,0,0,0,0,0,0,0,0,0,0,0,0,0,0,0,0,
395,-4.216,-14.86,-18.77,-7.446,-14.23,-9.929,-10.41,9.766,11.43,-0.7609,-9.362,-6.901,-11.42,-3.852,-6.35,0.3669,0,0,0,0,0,0,0,0,0,0,0,0,0,0,0,0,
396,-1.853,-0.0668,-6.329,-3.219,-11.01,-1.623,3.304,-2.525,-19.51,2.053,-13.87,-15.03,-6.603,3.48,-3.992,-1.352,0,0,0,0,0,0,0,0,0,0,0,0,0,0,0,0,
397,1.688,8.033,5.306,-5.114,-10.52,9.19,8.868,9.996,-3.241,20.83,-8.001,-7.871,-1.838,-1.978,1.856,-5.809,0,0,0,0,0,0,0,0,0,0,0,0,0,0,0,0,
398,7.606,3.598,-9.812,-5.837,1.913,5.773,5.126,25.87,-2.819,13.56,1.972,-2.11,-10.49,-5.067,-8.724,-9.823,0,0,0,0,0,0,0,0,0,0,0,0,0,0,0,0,
399,1.065,-5.358,-6.528,3.075,14.54,-10.46,0.4028,16.5,-22.93,-21.19,-3.193,-12.77,-28.09,-5.355,-20.82,-21.35,0,0,0,0,0,0,0,0,0,0,0,0,0,0,0,0,
400,-6.636,-12.22,-0.0333,-1.152,-1.827,-12.79,-1.254,18.12,-16.79,-19.49,-0.8066,-8.468,-25.06,-11.13,-8.989,-8.529,0,0,0,0,0,0,0,0,0,0,0,0,0,0,0,0,
401,-1.78,-9.653,-36.28,-16.66,-21.03,-7.466,-7.17,10.53,-21.69,8.558,16.32,9.073,-5.418,3.652,11.79,27.19,0,0,0,0,0,0,0,0,0,0,0,0,0,0,0,0,
402,2.619,1.952,-35.33,-8.197,-0.0976,-4.795,-12.51,-9.878,-26.87,10.72,7.349,4.273,1.742,18.18,6.143,27.53,0,0,0,0,0,0,0,0,0,0,0,0,0,0,0,0,
403,-1.613,7.157,18.57,5.573,30.75,1.773,-8.731,-0.8124,-5.072,-0.8153,-9.834,-4.34,3.032,4.035,-3.455,13.32,0,0,0,0,0,0,0,0,0,0,0,0,0,0,0,0,
404,-5.246,0.5672,15.98,-1.723,29.39,4.781,-3.404,2.086,-11.29,0.2404,2.693,3.719,7.252,-1.324,10.53,21.99,0,0,0,0,0,0,0,0,0,0,0,0,0,0,0,0,
405,-3.813,-3.702,-6.329,4.014,21.03,3.776,-1.261,-11.7,-29.77,2.915,8.702,0.7673,-0.7853,5.231,8.289,15.59,0,0,0,0,0,0,0,0,0,0,0,0,0,0,0,0,
406,-2.758,-5.381,22.6,18.9,22.05,0.0041,-3.265,-5.119,-9.251,-0.9754,-2.331,-7.259,-13.41,-8.506,-12.1,-0.1219,0,0,0,0,0,0,0,0,0,0,0,0,0,0,0,0,
407,-1.336,-14.63,26.6,5.978,12.67,-9.743,-8.602,-8.195,5.809,1.151,6.242,5.818,-13.74,-21.65,-3.204,7.991,0,0,0,0,0,0,0,0,0,0,0,0,0,0,0,0,
408,3.301,-23.46,-1.204,-7.119,1.92,-10.58,-9.961,-19.96,0.9496,7.14,17.14,11.15,-14.26,-16.33,10.44,11.64,0,0,0,0,0,0,0,0,0,0,0,0,0,0,0,0,
409,0.0523,-25.82,0.04,-1.8,-0.1128,-3.373,-8.937,-6.242,4.819,-1.387,10.4,-5.33,-20.07,-7.77,-2.291,4.762,0,0,0,0,0,0,0,0,0,0,0,0,0,0,0,0,
410,-9.895,-22.57,-1.918,-4.05,-4.167,1.206,-7.345,-2.007,3.682,-15.34,5.484,-6.922,-12.88,1.458,-5.027,13.46,0,0,0,0,0,0,0,0,0,0,0,0,0,0,0,0,
411,-8.729,-7.869,-14.52,-8.025,-2.812,10.81,-2.096,-19.36,4.551,-9.05,0.0021,2.267,1.758,4.428,4.354,23.42,0,0,0,0,0,0,0,0,0,0,0,0,0,0,0,0,
412,-4.6,7.521,2.397,-3.856,5.344,13.76,1.484,-18.97,8.312,7.148,-8.411,-6.884,1.857,-5.515,-4.642,16.95,0,0,0,0,0,0,0,0,0,0,0,0,0,0,0,0,
413,-11.22,8.028,19.89,-4.232,2.736,-0.9167,1.894,-6.036,-8.171,6.114,-10.85,-16.53,-5.975,-14.47,-13.69,4.464,0,0,0,0,0,0,0,0,0,0,0,0,0,0,0,0,
414,-15.57,2.461,7.853,-4.822,-2.208,-8.061,2.288,-10.71,-6.691,0.5494,-15.24,-10.1,-7.132,-13.71,-4.87,0.1384,0,0,0,0,0,0,0,0,0,0,0,0,0,0,0,0,
415,-10.07,0.3575,0.9884,1.906,9.983,5.209,4.116,-18.11,20.17,7.378,-14.57,-3.643,-5.146,-6.086,3.387,5.571,0,0,0,0,0,0,0,0,0,0,0,0,0,0,0,0,
416,-3.772,-1.261,12.5,6.122,26.15,19.48,8.059,-5.424,11.92,3.395,-2.998,-1.213,-2.027,-4.442,5.367,5.731,0,0,0,0,0,0,0,0,0,0,0,0,0,0,0,0,
417,-3.749,-6.312,12.75,-0.3083,29.11,18.4,4.263,-1.774,-1.504,-8.98,6.307,4.771,1.157,-12.43,9.811,-0.6452,0,0,0,0,0,0,0,0,0,0,0,0,0,0,0,0,
418,-6.664,-12.63,7.173,-4.426,27.85,11.31,-6.678,-9.833,32.09,-1.898,16.65,9.313,0.5812,-6.164,15.81,6.182,0,0,0,0,0,0,0,0,0,0,0,0,0,0,0,0,
419,-3.045,-8.857,10.56,4.692,25.92,13.33,-5.679,7.962,44.64,5.096,17.42,6.526,5.099,10.97,18.43,20.29,0,0,0,0,0,0,0,0,0,0,0,0,0,0,0,0,
420,3.055,5.144,1.48,7.852,16.92,17.46,8.457,16.76,6.393,2.295,-0.9644,5.293,14.93,12.1,17.13,19.45,0,0,0,0,0,0,0,0,0,0,0,0,0,0,0,0,
421,6.223,16.42,-4.352,7.316,10.2,19.83,22.8,-3.14,-0.4321,13.82,0.9672,16.25,14.45,3.574,21.95,13.9,0,0,0,0,0,0,0,0,0,0,0,0,0,0,0,0,
422,16.05,24.34,20.95,29.69,12.82,28.77,30.86,1.512,26.73,21.57,22.66,28.9,11.92,-2.85,33.6,20.09,0,0,0,0,0,0,0,0,0,0,0,0,0,0,0,0,
423,27.58,28.56,36,49.04,15.94,36.8,30.96,12.06,22.68,9.695,17.65,29.4,21.41,0.4165,31.25,20.69,0,0,0,0,0,0,0,0,0,0,0,0,0,0,0,0,
424,27.4,23.63,19.64,37.63,15.19,40.17,30.69,-1.759,8.363,3.942,2.73,27.7,27.09,10.78,20.19,11.75,0,0,0,0,0,0,0,0,0,0,0,0,0,0,0,0,
425,25.01,20.14,11.82,26.28,21.22,46.09,33.94,-4.07,13.98,5.425,3.156,30.32,24.42,2.4,24.92,23.36,0,0,0,0,0,0,0,0,0,0,0,0,0,0,0,0,
426,30.61,26.04,24.49,30.18,39.27,47.23,33.72,-3.096,18.96,3.33,0.9911,24.97,29.11,2.312,27.57,40.26,0,0,0,0,0,0,0,0,0,0,0,0,0,0,0,0,
427,35.35,30.5,35.47,32.57,44.32,42.51,32.4,-9.247,27.11,8.793,6.887,17.45,36,39.71,14.77,26.31,0,0,0,0,0,0,0,0,0,0,0,0,0,0,0,0,
428,31.54,29.66,26.54,27.08,21.34,42.64,33.65,2.331,29.7,14.83,17.35,18.22,34.54,51.54,9.584,16.32,0,0,0,0,0,0,0,0,0,0,0,0,0,0,0,0,
429,24.75,31.4,5.934,17.09,0.4906,41.95,30.98,10.74,-0.0457,7.852,-1.212,10.64,27.18,24.23,1.67,28.02,0,0,0,0,0,0,0,0,0,0,0,0,0,0,0,0,
430,20.63,36.33,5.584,16.35,-0.2437,37.84,29.16,5.629,-18.05,12.08,-10.23,1.286,18.66,15.35,-18.06,14.13,0,0,0,0,0,0,0,0,0,0,0,0,0,0,0,0,
431,17.68,38.68,20.18,23.46,3.182,38.7,36.05,7.44,11.55,32.74,18.16,16.45,15.84,10.85,-15.17,-13.34,0,0,0,0,0,0,0,0,0,0,0,0,0,0,0,0,
432,15.57,34.32,19.4,22.43,3.261,35.48,36.89,7.577,27.13,25.99,23.15,31.78,16.12,-2.804,-0.4579,-11.98,0,0,0,0,0,0,0,0,0,0,0,0,0,0,0,0,
433,13.44,25.43,13.95,27.67,7.189,26.53,25.4,7.133,2.997,3.861,4.614,26.18,15.95,6.42,-4.035,-1.17,0,0,0,0,0,0,0,0,0,0,0,0,0,0,0,0,
434,13.4,21.88,18.26,39.38,18.32,27.26,21.95,8.171,2.495,13.57,7.563,23.47,21.22,22.19,-3.426,0.1369,0,0,0,0,0,0,0,0,0,0,0,0,0,0,0,0,
435,18.66,21.97,17.27,29.64,23.13,26.09,25.42,-0.5313,20.27,18.62,3.296,17.48,20.72,22.45,-1.631,-2.402,0,0,0,0,0,0,0,0,0,0,0,0,0,0,0,0,
436,13.73,13.04,6.795,13.21,13.53,12.68,16.72,3.943,3.511,-4.773,-13.82,-2.365,9.281,19.81,-15.52,-1.338,0,0,0,0,0,0,0,0,0,0,0,0,0,0,0,0,
437,-3.789,2.704,-3.546,5.228,3.869,5.242,2.523,12.18,-9.755,-10.45,-14.04,-10.73,5.412,19.29,-16.19,6.892,0,0,0,0,0,0,0,0,0,0,0,0,0,0,0,0,
438,-6.924,0.2076,-6.126,-6.202,-0.8539,2.823,-5.739,-11.75,-0.2647,-2.484,-15.29,-8.437,5.195,23.05,-7.89,-1.536,0,0,0,0,0,0,0,0,0,0,0,0,0,0,0,0,
439,0.0528,-4.453,-3.533,-4.475,-2.48,1.397,-8.494,-21.17,-8.951,2.958,-10.73,-4.879,-2.195,20.31,-10.84,-22.02,0,0,0,0,0,0,0,0,0,0,0,0,0,0,0,0,
440,-0.4159,-5.206,-13.57,1.457,-0.8175,12.47,-3.189,7.625,-1.728,15.17,13.33,6.285,-8.799,-0.216,-6.998,-18.52,0,0,0,0,0,0,0,0,0,0,0,0,0,0,0,0,
441,6.156,4.166,-15.79,-11.39,3.281,21.35,8.683,15.81,28.74,8.245,14.75,8.004,-15.48,-13.94,-8.974,-12.92,0,0,0,0,0,0,0,0,0,0,0,0,0,0,0,0,
442,14.5,4.62,23.95,-2.211,18.37,18.04,19.53,9.601,16.06,0.083,0.5561,0.837,-17.01,-6.744,-21.66,-18.74,0,0,0,0,0,0,0,0,0,0,0,0,0,0,0,0,
443,7.967,1.351,40.74,19.48,17.39,15.89,19.64,19.39,-5.218,26.87,10.46,7.588,-2.859,12.15,-10.6,-5.469,0,0,0,0,0,0,0,0,0,0,0,0,0,0,0,0,
444,4.865,11.66,-6.683,-5.173,-13.49,11.7,10.01,13.78,11.95,34.16,17.62,14.59,9.662,34.56,2.83,7.53,0,0,0,0,0,0,0,0,0,0,0,0,0,0,0,0,
445,10.52,17.66,-17.31,-28.51,-1.395,10.9,9.023,-1.946,19.61,4.872,8.459,10.17,7.702,33.15,-2.674,3.091,0,0,0,0,0,0,0,0,0,0,0,0,0,0,0,0,
446,11.33,14.7,26.56,-8.41,49.88,25.08,16.7,5.787,22.13,2.064,11.94,8.329,6.116,11.17,5.451,6.779,0,0,0,0,0,0,0,0,0,0,0,0,0,0,0,0,
447,15.85,23.37,33.08,-0.5717,55.13,35.34,18.56,19.19,41.93,23.35,23.67,10.64,13.43,14.16,18.82,12.35,0,0,0,0,0,0,0,0,0,0,0,0,0,0,0,0,
448,26.39,30.6,27.46,-7.986,50.21,35.37,16.74,9.174,38.44,20.92,26.98,15.48,17.93,24.16,18.63,11.76,0,0,0,0,0,0,0,0,0,0,0,0,0,0,0,0,
449,29.29,14.87,44.36,4.57,77.85,39.07,8.944,-13.73,25.88,-3.057,23.95,23.22,10.48,7.926,20.02,16.51,0,0,0,0,0,0,0,0,0,0,0,0,0,0,0,0,
450,24.27,-5.226,30.8,9.436,80.29,35.9,-4.896,-16.3,36.48,-11.27,18.34,27.14,3.273,4.377,14.3,14.16,0,0,0,0,0,0,0,0,0,0,0,0,0,0,0,0,
451,16.76,-7.885,9.315,-9.64,54.98,18.55,-6.588,-10.5,34.85,2.207,14.96,26.23,4.382,15.09,1.021,-1.433,0,0,0,0,0,0,0,0,0,0,0,0,0,0,0,0,
452,10.04,-1.801,19.79,-18.94,40.74,9.796,2.344,-26.78,23.83,0.625,9.437,21.88,0.459,-0.2997,-2.822,-16.3,0,0,0,0,0,0,0,0,0,0,0,0,0,0,0,0,
453,7.845,-2.082,17.11,-11.19,35.33,14.79,2.263,-30.46,32.07,-14.9,-5.863,12.47,-8.332,-12.76,-11.09,-22.35,0,0,0,0,0,0,0,0,0,0,0,0,0,0,0,0,
454,6.423,-7.059,-2.845,-13.35,40.82,12.42,-5.463,-9.169,31.7,-14.53,-20.05,-0.8473,-7.944,-0.3516,-21.23,-17.7,0,0,0,0,0,0,0,0,0,0,0,0,0,0,0,0,
455,2.86,-6.39,2.119,-19.02,53.54,10.7,-4.465,-6.408,17.33,-14.95,-26.25,-15.46,-2.936,0.7557,-16.47,-12.2,0,0,0,0,0,0,0,0,0,0,0,0,0,0,0,0,
456,-1.634,-2.375,15.05,-7.375,55.63,20.88,4.235,-12.13,14.45,-19.21,-29.24,-26.62,-3.329,-5.112,-13.77,-13.03,0,0,0,0,0,0,0,0,0,0,0,0,0,0,0,0,
457,-9.535,-3.01,10.21,-0.9982,48.9,15.65,5.287,-10.03,19.08,-4.652,-24.72,-26.55,-6.672,-1.319,-14.79,-12.72,0,0,0,0,0,0,0,0,0,0,0,0,0,0,0,0,
458,-14.97,-3.474,10.61,-7.619,42.26,-0.2107,-0.3468,-18.51,22.9,-0.2216,-17.17,-14.37,-8.534,-10.64,-7.255,-12.54,0,0,0,0,0,0,0,0,0,0,0,0,0,0,0,0,
459,-12.12,-5.664,14.03,-4.955,37.74,1.42,-6.503,-22.86,11.43,-18.07,-18.05,-5.67,-8.583,-17.33,-4.565,-13.79,0,0,0,0,0,0,0,0,0,0,0,0,0,0,0,0,
460,-13.26,-14.8,-6.356,-7.861,34.04,-1.297,-13.56,-17.86,-10.36,-16.51,-17.99,-9.78,-8.681,1.784,-5.657,-11.05,0,0,0,0,0,0,0,0,0,0,0,0,0,0,0,0,
461,-19.81,-15.97,-13.26,-17.67,35.33,-10.95,-8.778,-17.05,-5.057,-2.742,-15.49,-11.87,-10.21,2.414,-3.362,-12.96,0,0,0,0,0,0,0,0,0,0,0,0,0,0,0,0,
462,-15.38,-10.91,17.72,-6.446,45.19,2.32,8.757,-7.596,7.187,-9.693,-23.14,-9.341,-12.25,-22.65,-9.808,-24.88,0,0,0,0,0,0,0,0,0,0,0,0,0,0,0,0,
463,-3.166,-17.67,31.04,6.481,51.93,17.58,20.2,-3.86,1.724,-14.28,-28.57,-11.73,-12,-23.82,-14.95,-33.29,0,0,0,0,0,0,0,0,0,0,0,0,0,0,0,0,
464,2.864,-23.32,20.89,3.602,50.44,14.76,22.59,-18.62,7.732,-1.441,-24.97,-12.1,-8.13,-13.95,-9.172,-28.24,0,0,0,0,0,0,0,0,0,0,0,0,0,0,0,0,
465,2.939,-18.04,21.93,7.349,43.98,14.19,17.45,-9.698,8.725,-6.049,-32.39,-17.98,-4.713,-16.29,-9.866,-14.7,0,0,0,0,0,0,0,0,0,0,0,0,0,0,0,0,
466,-1.655,-13.49,15.91,15.4,31.2,12.67,6.714,15.02,-2.939,-26.96,-48.53,-37.42,-6.048,-7.23,-13.85,-7.274,0,0,0,0,0,0,0,0,0,0,0,0,0,0,0,0,
467,-12.19,-7.917,7.499,12.49,24.65,-2.829,1.626,1.526,-0.9162,-20.78,-51.66,-41.71,-9.244,1.432,-9.707,-11.04,0,0,0,0,0,0,0,0,0,0,0,0,0,0,0,0,
468,-22.45,-2.934,12.17,4.251,29.69,-13.62,0.4188,-21.77,-16.47,-3.069,-35.43,-23.03,-7.876,-7.926,-4.396,-11.35,0,0,0,0,0,0,0,0,0,0,0,0,0,0,0,0,
469,-22.48,-3.306,-3.69,-3.745,28.68,-6.143,0.2449,-15.42,-28.9,-15.88,-7.359,-4.96,-2.073,-9.12,4.367,-3.985,0,0,0,0,0,0,0,0,0,0,0,0,0,0,0,0,
470,-10.96,-0.2216,-27.33,-7.289,21.85,2.694,4.004,-16.38,5.301,-23.9,13.24,8.149,0.2544,3.034,16.1,-2.914,0,0,0,0,0,0,0,0,0,0,0,0,0,0,0,0,
471,-1.112,2.525,-11.6,-2.899,22.28,5.05,1.936,-25.06,15.05,0.5679,14.17,13.33,-3.382,7.774,15.72,-7.562,0,0,0,0,0,0,0,0,0,0,0,0,0,0,0,0,
472,0.3923,1.184,18.89,2.905,26.01,12.26,-5.417,-7.758,-4.799,5.753,6.998,9.283,-5.194,-2.649,4.257,-6.516,0,0,0,0,0,0,0,0,0,0,0,0,0,0,0,0,
473,3.429,3.586,19.27,5.585,25.01,14.35,-5.88,-2.097,7.643,-10.8,2.495,8.625,-2.659,-19.48,-2.701,-3.212,0,0,0,0,0,0,0,0,0,0,0,0,0,0,0,0,
474,7.802,3.783,6.793,7.768,21.52,2.247,-1.917,-21.64,7.894,-0.751,-1.533,4.476,-2.786,-25.34,-3.022,-7.045,0,0,0,0,0,0,0,0,0,0,0,0,0,0,0,0,
475,4.5,-0.1315,15.04,7.114,22.65,-5.332,-0.5234,-16.12,-10.16,5.269,-7.817,-6.34,-6.018,-18.64,-6.067,-11.96,0,0,0,0,0,0,0,0,0,0,0,0,0,0,0,0,
476,-1.997,-2.003,18.59,-0.2431,22.26,-8.564,-5.601,-4.731,-2.121,-18.99,-11.88,-6.612,-4.743,-10.64,-6.857,-4.325,0,0,0,0,0,0,0,0,0,0,0,0,0,0,0,0,
477,-4.382,-7.19,-7.435,-5.922,9.652,-14.74,-14.77,-24.8,-1.006,-17.21,-8.206,-3.324,-0.6871,-8.988,1.337,6.701,0,0,0,0,0,0,0,0,0,0,0,0,0,0,0,0,
478,-4.65,-10.56,-15.87,-1.682,-1.322,-9.388,-15.14,-36.38,-3.12,5.33,-0.0777,-3.008,-0.9462,-11.8,3.643,-0.0908,0,0,0,0,0,0,0,0,0,0,0,0,0,0,0,0,
479,-5.098,-2.932,1.209,3.43,-0.6319,1.717,-7.377,-19.65,8.388,-6.173,9.664,9.213,1.013,-2.242,1.925,-10.61,0,0,0,0,0,0,0,0,0,0,0,0,0,0,0,0,
480,-1.263,4.782,-5.553,2.643,0.6953,8.034,-4.142,-2.38,-7.285,-9.634,16.02,19.51,9.569,7.724,11.02,2.453,0,0,0,0,0,0,0,0,0,0,0,0,0,0,0,0,
481,8.225,6.128,-6.438,6.685,7.433,18.74,-0.7103,1.856,-23.51,20.07,9.355,11.77,10.53,-10.02,14.6,17.24,0,0,0,0,0,0,0,0,0,0,0,0,0,0,0,0,
482,13.48,6.686,23.76,17.8,18.33,23.24,7.572,-6.225,-8.237,12.56,-2.35,6.442,0.8334,-24.75,6.794,3.098,0,0,0,0,0,0,0,0,0,0,0,0,0,0,0,0,
483,11.73,5.587,25.65,20.66,13.98,13.59,5.387,-8.526,0.6002,-17.06,-6.658,6.051,-3.416,-8.821,4.001,-9.871,0,0,0,0,0,0,0,0,0,0,0,0,0,0,0,0,
484,11.15,2.833,1.239,11.48,6.439,9.565,-8.118,-5.203,6.921,-5.093,-2.205,-2.255,-0.0597,2.611,1.974,5.689,0,0,0,0,0,0,0,0,0,0,0,0,0,0,0,0,
485,10.37,1.947,-9.075,0.7978,8.947,11.98,-14.1,-24.86,16.82,-0.293,9.671,-1.051,2.099,-8.228,0.5355,16.58,0,0,0,0,0,0,0,0,0,0,0,0,0,0,0,0,
486,6.734,0.0581,-17.8,-4.725,5.025,7.354,-11.67,-36.46,8.391,-20.79,15.8,13.75,4.772,-16.11,8.144,11.37,0,0,0,0,0,0,0,0,0,0,0,0,0,0,0,0,
487,6.451,-1.905,-10.71,-1.577,0.8649,3.254,-7.174,-2.856,5.66,-6.235,16.11,20.72,7.56,-5.249,16.57,14.12,0,0,0,0,0,0,0,0,0,0,0,0,0,0,0,0,
488,11.19,2.885,8.826,4.601,6.819,9.181,1.397,20.74,12.96,8.893,23.92,24.9,3.177,7.897,19.98,10.8,0,0,0,0,0,0,0,0,0,0,0,0,0,0,0,0,
489,14.03,7.255,-10.74,3.137,2.559,13.86,2.234,-0.3391,11.18,-15.86,18.94,30.9,-5.121,2.859,14.97,-6.311,0,0,0,0,0,0,0,0,0,0,0,0,0,0,0,0,
490,6.019,0.9115,-29.05,2.041,-11.79,2.285,-8.485,-22.37,15.86,-19.57,-3.456,20.22,-6.401,-4.838,5.265,-6.053,0,0,0,0,0,0,0,0,0,0,0,0,0,0,0,0,
491,-5.743,-2.854,2.31,5.706,-15.93,-11.37,-6.296,-20.86,7.17,1.254,-7.803,7.04,3.512,3.279,8.653,11.82,0,0,0,0,0,0,0,0,0,0,0,0,0,0,0,0,
492,-1.687,8.242,15.72,0.9624,-13.08,-2.659,9.978,-8.184,-27.22,-1.007,3.398,17.01,16.27,8.563,18.94,22.76,0,0,0,0,0,0,0,0,0,0,0,0,0,0,0,0,
493,8.437,16.52,-8.2,-2.843,-13.46,11.24,12.06,-2.681,-27.14,-0.9176,9.852,28.54,19.59,-2.212,21.08,24.28,0,0,0,0,0,0,0,0,0,0,0,0,0,0,0,0,
494,2.707,9.327,-8.445,5.272,-19.64,3.62,0.8642,-8.836,3.363,6.717,16.06,24.48,18.84,-4.682,22.77,26.48,0,0,0,0,0,0,0,0,0,0,0,0,0,0,0,0,
495,-6.334,4.163,-1.488,1.665,-31.52,-12.1,-3.413,-12.99,-7.646,-13.06,14.02,21.53,19.65,14.38,19.67,29.47,0,0,0,0,0,0,0,0,0,0,0,0,0,0,0,0,
496,-8.414,7.594,-19.99,-15.1,-39.95,-20.57,-4.762,-17.95,-36.28,-20.8,3.848,16.75,8.45,24.26,6.462,19.37,0,0,0,0,0,0,0,0,0,0,0,0,0,0,0,0,
497,-15.1,4.808,-23.32,-16.88,-37.77,-23.56,-10.92,-18.85,-17.9,7.836,4.85,2.395,-3.764,13.74,1.874,4.744,0,0,0,0,0,0,0,0,0,0,0,0,0,0,0,0,
498,-17.46,0.7146,-10.53,-9.89,-31.46,-17.62,-16.65,-6.251,13.9,7.276,8.31,-3.631,5.037,9.781,5.641,8.496,0,0,0,0,0,0,0,0,0,0,0,0,0,0,0,0,
499,-6.118,6.788,-22.17,-9.366,-29.53,-6.894,-18.13,-14.48,11.36,-20.51,5.765,3.08,13.69,12.24,5.998,14.63,0,0,0,0,0,0,0,0,0,0,0,0,0,0,0,0,
500,0.161,12.73,-23.49,-6.609,-29.37,-2.308,-8.582,-31.5,3.756,-10.08,10.84,9.304,11.07,12.29,10.84,10.92,0,0,0,0,0,0,0,0,0,0,0,0,0,0,0,0,
501,-2.711,13.6,8.169,-3.845,-19.81,-3.088,6.354,-11.05,13.02,8.08,13.63,11.45,12.22,10.36,12.03,11.15,0,0,0,0,0,0,0,0,0,0,0,0,0,0,0,0,
502,0.4118,12.91,14.91,-3.204,-5.021,-4.684,3.287,1.452,21.57,-3.868,3.019,9.605,4.428,-2.013,0.879,2.7,0,0,0,0,0,0,0,0,0,0,0,0,0,0,0,0,
503,4.037,6.905,2.767,3.115,-3.23,-5.463,-10.44,-11.64,23.68,-2.696,-0.368,7.213,-9.589,-7.447,1.594,-13.89,0,0,0,0,0,0,0,0,0,0,0,0,0,0,0,0,
504,-0.7611,0.9777,14.47,1.828,-8.725,-6.191,-11.61,-4.346,14.47,5.582,5.323,6.48,-8.719,-4.632,10.65,-9.912,0,0,0,0,0,0,0,0,0,0,0,0,0,0,0,0,
505,-4.923,-1.837,12.08,-8.792,-5.684,-6.589,-11.44,-14.59,3.008,-11.36,1.688,1.734,-9.755,-13.64,2.908,4.257,0,0,0,0,0,0,0,0,0,0,0,0,0,0,0,0,
506,-5.134,-10.3,-5.71,-7.55,-1.085,-5.745,-18.28,-46.94,11.58,-14.8,-5.704,-2.12,-13.45,-7.402,-3.796,6.941,0,0,0,0,0,0,0,0,0,0,0,0,0,0,0,0,
507,-2.016,-14.72,2.323,-2.857,4.135,-6.572,-15.91,-27.47,11.86,-1.356,-12.24,1.079,-1.999,2.008,0.8701,6.829,0,0,0,0,0,0,0,0,0,0,0,0,0,0,0,0,
508,7.275,-3.812,4.139,-3.805,12.99,-2.139,-2.806,8.233,-5.775,-12.24,-15.99,5.502,5.551,-13.13,3.109,12.4,0,0,0,0,0,0,0,0,0,0,0,0,0,0,0,0,
509,10.31,5.708,-5.233,1.787,5.147,6.875,6.109,-3.119,5.574,-21.44,-1.189,8.403,6.008,-1.997,10.75,21.88,0,0,0,0,0,0,0,0,0,0,0,0,0,0,0,0,
510,2.744,3.778,7.442,0.4154,-12.54,1.132,1.478,-24.71,22.82,-4.419,9.931,2.361,9.999,11.43,11.76,23.79,0,0,0,0,0,0,0,0,0,0,0,0,0,0,0,0,
511,2.64,1.394,11.65,-5.135,-3.386,-3.291,-8.173,-21.5,9.127,5.447,-4.002,-10.57,2.359,-24.15,-4.058,9.107,0,0,0,0,0,0,0,0,0,0,0,0,0,0,0,0,
512,9.033,-0.3144,5.506,11.71,16.13,11.67,-8.421,-5.446,11.45,-2.639,-1.621,-6.813,-5.486,-32.19,-0.8914,-4.835,0,0,0,0,0,0,0,0,0,0,0,0,0,0,0,0,
513,9.998,-4.431,18,20.56,9.476,10.36,-6.416,-0.5536,29.54,-11.11,17.38,2.884,-1.787,-7.821,11.98,-5.457,0,0,0,0,0,0,0,0,0,0,0,0,0,0,0,0,
514,7.414,-4.514,16.13,3.959,-2.802,-5.125,-8.915,-5.193,18.96,-7.856,7.911,-7.256,-9.972,-19.68,-2.068,-6.481,0,0,0,0,0,0,0,0,0,0,0,0,0,0,0,0,
515,-2.154,-5.073,-2.495,4.747,-1.02,1.277,-6.522,-3.652,4.679,6.622,-5.59,-15.7,-19.44,-19.61,-13.28,-9.532,0,0,0,0,0,0,0,0,0,0,0,0,0,0,0,0,
516,-13.07,-11.8,1.424,11.26,-1.452,1.457,-4.864,-19.82,2.785,6.543,0.772,-10.47,-11.85,8.564,-3.05,-3.707,0,0,0,0,0,0,0,0,0,0,0,0,0,0,0,0,
517,-10.84,-10.31,10.15,-4.563,1.845,-13.69,-7.992,-35.29,-4.985,-12.29,3.408,-8.15,-6.451,8.407,3.6,3.277,0,0,0,0,0,0,0,0,0,0,0,0,0,0,0,0,
518,-6.41,0.345,1.494,-6.545,17.31,-3.354,-2.743,-1.729,1.528,-15.7,13.15,-0.0792,-3.555,-0.5871,8.63,4.763,0,0,0,0,0,0,0,0,0,0,0,0,0,0,0,0,
519,-5.308,3.471,-3.839,8.013,22.87,11.2,4.829,19.73,28.79,-3.477,29.05,13.18,2.742,1.021,14.59,7.516,0,0,0,0,0,0,0,0,0,0,0,0,0,0,0,0,
520,3.698,5.878,7.186,8.433,18.96,2.866,4.7,-5.242,38.6,0.9297,22.18,14.67,1.776,3.092,9.935,7.707,0,0,0,0,0,0,0,0,0,0,0,0,0,0,0,0,
521,10.06,14.08,19.79,8.509,21.81,4.475,5.709,-5.91,22.16,1.532,15.75,16.37,5.559,14.12,6.34,5.006,0,0,0,0,0,0,0,0,0,0,0,0,0,0,0,0,
522,7.973,13,12.67,13.47,16.76,15.28,3.648,6.665,9.833,-0.8257,20.4,20.05,14.83,4.107,9.699,7.888,0,0,0,0,0,0,0,0,0,0,0,0,0,0,0,0,
523,11.62,8.738,-1.529,9.485,4.917,13.07,-3.438,-6.376,12.46,-7.605,7.51,12.38,11.88,-19.8,6.244,9.289,0,0,0,0,0,0,0,0,0,0,0,0,0,0,0,0,
524,17.86,16.16,4.033,8.576,14.61,15.29,3.874,-3.818,13.66,-0.8692,-0.1726,10.26,14.1,3.949,2.086,11.08,0,0,0,0,0,0,0,0,0,0,0,0,0,0,0,0,
525,17.91,21.86,8.499,11.01,31.54,18.94,17.65,8.436,7.396,10.79,16.67,16.11,25.59,27.52,10.18,19.07,0,0,0,0,0,0,0,0,0,0,0,0,0,0,0,0,
526,15.26,19.83,-5.392,2.783,27.62,7.098,16.14,-4.539,9.45,7.109,21.48,9.932,19.65,-1.171,14.54,14.16,0,0,0,0,0,0,0,0,0,0,0,0,0,0,0,0,
527,10.96,21.89,-2.797,-2.624,21.85,1.431,12.47,-8.312,26.28,7.386,12.43,7.209,9.454,-13.69,4.968,4.574,0,0,0,0,0,0,0,0,0,0,0,0,0,0,0,0,
528,6.885,22.03,18.16,6.12,22.78,6.361,13.45,9.572,23.36,17.24,17.38,18.04,12.49,3.289,4.355,14.08,0,0,0,0,0,0,0,0,0,0,0,0,0,0,0,0,
529,7.599,16.38,19.03,14,8.941,3.356,7.013,11.03,-15.45,14.12,23,17.97,11.7,10.52,12.68,13.24,0,0,0,0,0,0,0,0,0,0,0,0,0,0,0,0,
530,12.24,16.97,6.295,13.17,-5.208,6.162,1.447,3.396,-25.19,4.103,11,6.915,6.861,16.48,3.39,-10.1,0,0,0,0,0,0,0,0,0,0,0,0,0,0,0,0,
531,14.17,15.91,-0.0306,9.273,-2.589,17.72,1.653,8.897,17.19,-2.006,-0.4184,2.138,6.932,7.499,-7.7,-10.7,0,0,0,0,0,0,0,0,0,0,0,0,0,0,0,0,
532,8.415,6.261,-4.757,4.043,-7.052,12.06,1.448,0.5646,28.16,-6.973,5.411,2.244,7.35,0.4162,2.676,11.11,0,0,0,0,0,0,0,0,0,0,0,0,0,0,0,0,
533,3.516,6.061,0.8363,0.3121,-17.36,-4.588,5.063,-16.83,-5.064,-4.62,13.89,3.756,7.493,26.1,6.496,11.6,0,0,0,0,0,0,0,0,0,0,0,0,0,0,0,0,
534,4.939,8.954,7.883,-3.44,-14.42,-10.54,5.276,-4.441,-8.423,5.697,9.985,1.021,5.571,26.06,-8.402,0.2938,0,0,0,0,0,0,0,0,0,0,0,0,0,0,0,0,
535,-0.0396,-1.855,-7.697,-11.94,-15.07,-10.62,-1.585,2.868,5.231,17.96,-1.278,-10.67,2.872,0.8843,-11.1,7.503,0,0,0,0,0,0,0,0,0,0,0,0,0,0,0,0,
536,-11.21,-6.318,-14.37,-10.72,-19.46,-9.601,0.8463,-21.87,-12.53,17.18,-12.03,-16.75,1.267,4.251,-1.494,13.16,0,0,0,0,0,0,0,0,0,0,0,0,0,0,0,0,
537,-11.83,2.009,4.829,3.49,-11.42,-1.423,6.314,-21.26,-24.91,-3.403,-10.97,-7.664,-2.494,4.586,-1.308,2.246,0,0,0,0,0,0,0,0,0,0,0,0,0,0,0,0,
538,-1.713,3.338,7.117,5.248,-7.014,8.252,1.75,10.48,-3.168,-7.837,2.468,1.15,0.7573,3.072,-4.06,0.9971,0,0,0,0,0,0,0,0,0,0,0,0,0,0,0,0,
539,6.989,3.673,-2.783,-1.026,-5.69,8.667,0.3806,18.71,13.89,8.661,5.415,-3.263,6.308,17.1,-6.029,3.756,0,0,0,0,0,0,0,0,0,0,0,0,0,0,0,0,
540,8.005,9.999,3.306,1.623,0.9839,2.708,2.948,2.284,8.289,4.791,-2.837,-10.25,-0.944,9.849,-12.85,-11.35,0,0,0,0,0,0,0,0,0,0,0,0,0,0,0,0,
541,2.677,9.02,1.752,-7.146,-5.183,-3.101,-3.125,-9.251,-6.958,-7.541,-4.627,-8.814,-7.235,1.427,-9.763,-13.56,0,0,0,0,0,0,0,0,0,0,0,0,0,0,0,0,
542,-3.235,0.5911,-8.07,-21.38,-8.58,-11.33,-8.661,-8.382,-23.04,-5.325,-7.34,-8.475,-10.55,1.333,3.764,7.289,0,0,0,0,0,0,0,0,0,0,0,0,0,0,0,0,
543,-7.924,-5.467,-7.909,-13.96,-0.1467,-20.33,-4.534,-10.66,-18.25,-1.61,-15.62,-13.14,-17.03,-15.59,2.952,8.153,0,0,0,0,0,0,0,0,0,0,0,0,0,0,0,0,
544,-10.77,-3.703,-19.45,-11.81,-12.34,-21.58,-0.9494,-18.67,-2.726,3.486,-18.12,-13.09,-9.245,-13.37,-10.02,-10.5,0,0,0,0,0,0,0,0,0,0,0,0,0,0,0,0,
545,-9.891,2.588,-30.09,-21.41,-18.54,-13.45,-4.105,-5.176,-16.56,1.151,-12.7,-12.03,-3.537,-4.736,-16.1,-17,0,0,0,0,0,0,0,0,0,0,0,0,0,0,0,0,
546,-9.302,-0.0774,-6.34,-4.946,10.29,-3.093,-7.931,16.15,-24.33,-9.412,-6.742,-16.02,-17.74,-19.5,-18.92,-13.79,0,0,0,0,0,0,0,0,0,0,0,0,0,0,0,0,
547,-9.452,-8.111,16.57,11.13,28.74,-1.427,-7.46,7.958,11.15,-3.496,-6.353,-17.27,-17.28,-5.785,-21.24,-8.716,0,0,0,0,0,0,0,0,0,0,0,0,0,0,0,0,
548,-6.892,-7.184,14.59,-2.95,30.08,-6.043,-3.784,-8.136,26.34,0.7425,-4.436,-11.28,-2.368,18.78,-15.75,-5.103,0,0,0,0,0,0,0,0,0,0,0,0,0,0,0,0,
549,-4.263,-3.726,18.6,-2.463,38.5,0.1693,0.4593,-7.612,2.651,-7.121,-1.755,-4.374,-4.369,6.014,-9.34,-7.584,0,0,0,0,0,0,0,0,0,0,0,0,0,0,0,0,
550,-0.6582,-2.4,26.51,17.7,40.36,14.06,5.98,-2.181,2.767,-0.4658,-8.59,-2.809,-8.291,-3.533,-5.28,-4.092,0,0,0,0,0,0,0,0,0,0,0,0,0,0,0,0,
551,2.987,1.222,18.63,16.3,39.29,16.11,10.39,1.875,12.31,1.547,-8.148,-1.262,-4.065,-4.497,0.1694,0.9248,0,0,0,0,0,0,0,0,0,0,0,0,0,0,0,0,
552,3.613,1.678,3.218,6.757,39.61,9.309,7.57,1.291,-4.998,-11.61,-5.039,3.584,-7.18,-15.29,-4.408,-9.32,0,0,0,0,0,0,0,0,0,0,0,0,0,0,0,0,
553,10.27,2.709,-3.135,11.66,32.91,8.086,5.25,0.2935,-9.629,-10.4,-21.7,2.782,-7.979,-10.25,-9.523,-10.95,0,0,0,0,0,0,0,0,0,0,0,0,0,0,0,0,
554,15.72,8.614,11.85,13.12,33.67,8.112,7.815,1.341,0.6798,-4.227,-21.9,-0.567,0.4716,-3.862,2.616,7.281,0,0,0,0,0,0,0,0,0,0,0,0,0,0,0,0,
555,3.864,7.641,26.07,6.463,35.01,1.006,-0.7705,-10.28,-3.371,-3.644,0.5256,0.9347,3.923,-8.764,5.246,12.83,0,0,0,0,0,0,0,0,0,0,0,0,0,0,0,0,
556,-7.405,2.26,16.94,6.861,26.66,-7.635,-16.37,-18.06,-2.123,1.027,-6.259,-1.779,1.942,0.5284,-6.425,7.436,0,0,0,0,0,0,0,0,0,0,0,0,0,0,0,0,
557,-11.76,-3.464,11.32,5.351,22.9,-14.59,-21.51,2.683,-11.41,-3.078,-21.65,-8.469,-0.8564,10.28,-1.74,9.766,0,0,0,0,0,0,0,0,0,0,0,0,0,0,0,0,
558,-23.59,-15.21,5.942,-12.42,14.81,-17.89,-20.67,17.7,-41.01,-9.402,-10.03,-7.686,-4.107,14.66,4.427,9.406,0,0,0,0,0,0,0,0,0,0,0,0,0,0,0,0,
559,-21.88,-16.3,-16.92,-24.67,6.139,-11.33,-14.18,-1.4,-38.32,-5.067,-7.446,-4.085,-4.29,20.11,-1.943,9.241,0,0,0,0,0,0,0,0,0,0,0,0,0,0,0,0,
560,-7.674,-6.758,-14.56,-14.38,13.42,-10.24,-6.484,-15.09,-27.55,-7.149,-24.11,-10.04,-10.77,-4.17,-6.473,7.193,0,0,0,0,0,0,0,0,0,0,0,0,0,0,0,0,
561,-17.52,-12.63,6.818,-4.659,16.23,-22.43,-12.39,3.746,-33.15,-10.4,-24.58,-22.69,-23.66,-30.46,-15.14,-14.64,0,0,0,0,0,0,0,0,0,0,0,0,0,0,0,0,
562,-29.19,-17.95,-3.251,-4.176,14.89,-20.7,-15.52,22.3,-1.466,-6.582,-4.977,-25.89,-21.28,-13.55,-16.78,-31.08,0,0,0,0,0,0,0,0,0,0,0,0,0,0,0,0,
563,-15.59,-5.393,-6.68,1.963,24.86,-6.754,-5.571,21.39,27.37,-6.365,9.676,-13.95,-9.221,-1.216,1.837,-15.17,0,0,0,0,0,0,0,0,0,0,0,0,0,0,0,0,
564,-5.554,3.507,21.37,8.871,28.69,-3.532,-0.5785,13.28,15.27,1.795,10.24,0.5548,-6.04,-11.02,14.36,9.351,0,0,0,0,0,0,0,0,0,0,0,0,0,0,0,0,
565,-3.653,6.752,20.54,5.78,21.45,-1.473,-0.4875,-0.0134,13.7,6.507,7.973,5.99,-4.206,-8.272,14.66,19.79,0,0,0,0,0,0,0,0,0,0,0,0,0,0,0,0,
566,-1.141,6.892,-7.765,-5.702,9.448,-3.78,-4.071,-5.371,5.625,-13.02,8.595,4.768,-0.6377,-7.852,16.6,20.68,0,0,0,0,0,0,0,0,0,0,0,0,0,0,0,0,
567,-12.08,-5.438,-11.36,-19.06,-9.735,-25.68,-15.29,1.184,-8.944,-24.54,11.1,3.883,-1.466,-10.41,22.06,21.93,0,0,0,0,0,0,0,0,0,0,0,0,0,0,0,0,
568,-22.89,-15.45,-6.87,-23.1,-25.19,-45.61,-22.57,-15.11,-4.83,-21.02,8.373,-2.095,-4.12,0.7046,27.62,20.3,0,0,0,0,0,0,0,0,0,0,0,0,0,0,0,0,
569,-20.21,-15.9,-13.88,-13.03,-26.06,-41.97,-22.36,-41.6,-22.26,-21.46,-11.27,-12.77,-6.463,2.377,13.71,5.346,0,0,0,0,0,0,0,0,0,0,0,0,0,0,0,0,
570,-15.1,-12.25,-7.776,0.5666,-10.68,-20.8,-12.5,-27.48,-15.2,-12.57,-25.51,-7.281,-4.496,-7.251,-8.499,-9.324,0,0,0,0,0,0,0,0,0,0,0,0,0,0,0,0,
571,-1.006,1.339,4.85,8.358,6.787,-0.2827,6.24,7.774,20.04,-7.265,-9.769,11.53,2.816,-6.954,0.2466,-4.971,0,0,0,0,0,0,0,0,0,0,0,0,0,0,0,0,
572,17.49,13.83,7.38,14.03,3.825,4.733,12.55,18.66,-22.21,-8.004,5.493,18.96,9.353,1.258,19.19,7.4,0,0,0,0,0,0,0,0,0,0,0,0,0,0,0,0,
573,18.26,16.23,8.251,13.48,-9.517,0.6153,6.68,9.544,-53.57,11.35,4.028,17.97,14.64,4.265,17.19,14.36,0,0,0,0,0,0,0,0,0,0,0,0,0,0,0,0,
574,8.01,16.26,5.552,-0.7378,-15.34,-5.768,5.772,3.268,1.39,16.45,12.62,15.82,17.44,2.738,9.764,16.84,0,0,0,0,0,0,0,0,0,0,0,0,0,0,0,0,
575,0.8289,9.715,5.549,-5.866,-16.69,-13.5,6.253,5.561,6.826,-0.8236,25.06,6.463,13.13,12.83,4.491,17.44,0,0,0,0,0,0,0,0,0,0,0,0,0,0,0,0,
576,-1.384,3.252,7.992,6.588,-12.99,-8.307,8.075,3.308,-21.43,1.714,21.55,1.181,7.33,24.75,6.818,20.49,0,0,0,0,0,0,0,0,0,0,0,0,0,0,0,0,
577,3.154,7.612,-2.935,7.331,-6.473,4.106,13.17,-0.3121,12.94,0.957,18.31,12.49,12.51,24.89,24.33,27.94,0,0,0,0,0,0,0,0,0,0,0,0,0,0,0,0,
578,10.41,11.88,3.636,4.258,2.416,3.872,13.65,11.83,37.38,-5.129,23.02,28.83,24.48,29.39,36.17,31.55,0,0,0,0,0,0,0,0,0,0,0,0,0,0,0,0,
579,19.09,16.92,25.99,15.61,17.17,5.79,15.35,16.62,21.48,15.36,24.07,33.92,25.53,22.85,31.17,23.16,0,0,0,0,0,0,0,0,0,0,0,0,0,0,0,0,
580,27.77,25.68,9.206,14.69,18.68,18.01,20.89,3.685,11.65,17.45,21.29,24.84,20.79,2.252,19.75,14.27,0,0,0,0,0,0,0,0,0,0,0,0,0,0,0,0,
581,23.22,24.29,-6.703,1.653,0.3413,13.99,16.37,10.82,-3.961,-5.855,8.609,8.445,20.44,9.192,6.866,14.16,0,0,0,0,0,0,0,0,0,0,0,0,0,0,0,0,
582,8.197,14.64,14.15,0.7081,-14.56,-7.12,2.769,21.38,-26.23,-1.633,-11.17,-4.909,11.74,20.35,-2.124,5.141,0,0,0,0,0,0,0,0,0,0,0,0,0,0,0,0,
583,0.095,4.868,4.599,-1.892,-17.38,-18.73,-6.942,-3.521,-29.87,8.239,-8.593,-8.11,-2.24,3.497,-6.95,-6.287,0,0,0,0,0,0,0,0,0,0,0,0,0,0,0,0,
584,-5.519,-6.645,-25.99,-13.87,-16.84,-22.09,-13.26,-23.16,-16.99,1.907,4.576,-9.085,-9.816,-4.042,-10.35,3.536,0,0,0,0,0,0,0,0,0,0,0,0,0,0,0,0,
585,-17.58,-13.63,-22.32,-17.43,-21.33,-30.51,-17.64,-10.24,-13.7,3.497,-6.37,-14.32,-17.19,1.321,-9.818,4.561,0,0,0,0,0,0,0,0,0,0,0,0,0,0,0,0,
586,-24.5,-11.42,-18.79,-10.52,-27.8,-30.82,-12.5,-4.369,-31.13,-2.293,-15.45,-12.68,-18.54,-4.42,-11.92,-18.47,0,0,0,0,0,0,0,0,0,0,0,0,0,0,0,0,
587,-21.73,-6.398,-23.78,-6.761,-27.04,-18.07,-4.005,-9.371,-35.42,-15.73,-4.811,-5.749,-11.05,-4.197,-12.68,-20.4,0,0,0,0,0,0,0,0,0,0,0,0,0,0,0,0,
588,-16.92,-2.41,-8.345,-9.079,-25.3,-12.79,-4.022,2.824,-13.29,-4.514,-6.359,-4.906,-7.619,5.261,-2.215,-3.755,0,0,0,0,0,0,0,0,0,0,0,0,0,0,0,0,
589,-8.329,0.8518,-2.742,-4.917,-20.53,-10.55,-2.46,12.44,0.1776,7.697,-16.22,-4.402,-5.511,1.411,-1.831,-6.643,0,0,0,0,0,0,0,0,0,0,0,0,0,0,0,0,
590,-2.446,1.512,-12.79,-0.8806,-8.279,0.4818,4.465,-1.88,-5.992,-2.566,-13.6,-3.112,-1.175,-2.07,-12.98,-11.28,0,0,0,0,0,0,0,0,0,0,0,0,0,0,0,0,
591,-9.61,-0.6429,-1.146,-9.329,-11.64,-1.583,1.625,-2.959,-20.73,-8.611,-9.804,-3.626,-0.7183,12.57,-6.145,-1.142,0,0,0,0,0,0,0,0,0,0,0,0,0,0,0,0,
592,-15.48,-2.148,8.885,-8.865,-27.2,-18.34,-5.193,18.12,-38.27,-7.009,-10.5,-3.397,-6.647,12.16,-1.761,-2.975,0,0,0,0,0,0,0,0,0,0,0,0,0,0,0,0,
593,-17.43,-5.44,-14.61,-4.792,-31.86,-26.05,-5.364,7.375,-44.43,-1.347,-13.98,-15.07,-17.01,-4.487,-22.26,-19.79,0,0,0,0,0,0,0,0,0,0,0,0,0,0,0,0,
594,-31.54,-13,-32.56,-20.94,-37.72,-28.73,-9.199,-20.81,-37.09,13.3,-21.26,-34.82,-20.25,4.272,-32.05,-24.02,0,0,0,0,0,0,0,0,0,0,0,0,0,0,0,0,
595,-38.03,-15.91,-18.31,-19.87,-38.23,-27.59,-10.27,-7.279,-31.59,6.794,-23.39,-32.62,-16.11,8.886,-21.85,-10.76,0,0,0,0,0,0,0,0,0,0,0,0,0,0,0,0,
596,-17.55,-11.38,0.5409,5.734,-18.85,-16.26,-0.0398,13.97,-29.96,-13.7,-17.6,-13.5,-13.68,-5.89,-13.49,1.341,0,0,0,0,0,0,0,0,0,0,0,0,0,0,0,0,
597,-1.221,-8.744,5.596,1.927,-15.04,-13.86,-2.232,5.521,-24.17,-7.796,-11.45,-6.584,-6.211,9.341,-2.015,3.452,0,0,0,0,0,0,0,0,0,0,0,0,0,0,0,0,
598,-5.962,-8.678,-5.851,-16,-31.53,-20.98,-13.74,-1.174,-14.27,-2.708,-8.365,-7.915,-1.733,20.87,5.653,-1.064,0,0,0,0,0,0,0,0,0,0,0,0,0,0,0,0,
599,-8.069,-5.285,-22.65,-10.82,-27.85,-17.09,-4.907,-3.74,-10.69,-13.01,-7.546,-3.372,-10.89,-1.368,-4.194,-9.992,0,0,0,0,0,0,0,0,0,0,0,0,0,0,0,0,
600,-4.304,-3.548,-20.55,-10.35,-14.13,-11.65,2.027,-6.393,-27.2,-7.543,-10.71,-4.439,-13.57,-2.615,-10.35,-13.67,0,0,0,0,0,0,0,0,0,0,0,0,0,0,0,0,
601,-8.675,-10.72,-12.65,-24.06,-21.74,-19.33,-15.7,1.955,-44.78,-4.183,-15.8,-13.83,-7.263,3.958,-4.087,-3.532,0,0,0,0,0,0,0,0,0,0,0,0,0,0,0,0,
602,-11.98,-16.21,-14.26,-27.23,-35.55,-27.42,-22.99,-4.209,-21.11,-8.254,-7.829,-9.583,-5.594,-1.642,-2.701,3.713,0,0,0,0,0,0,0,0,0,0,0,0,0,0,0,0,
603,-5.971,-8.508,-7.302,-19.7,-31.79,-20.04,-10.57,-15.41,12.86,7.52,7.408,3.031,-1.945,15.82,-3.04,-3.525,0,0,0,0,0,0,0,0,0,0,0,0,0,0,0,0,
604,-1.046,0.4126,-6.495,-15.13,-20.7,-7.74,-7.387,-0.9539,-1.401,12.72,3.6,0.3071,1.523,22.07,2.454,-6.24,0,0,0,0,0,0,0,0,0,0,0,0,0,0,0,0,
605,-0.2983,-0.905,-23.07,-20.93,-24.22,-12.08,-12.37,3.761,-23.91,-12.23,-7.028,-4.114,-1.433,-1.644,4.753,1.74,0,0,0,0,0,0,0,0,0,0,0,0,0,0,0,0,
606,-1.345,-5.742,-19.21,-27.28,-35.86,-22.74,-16.64,-7.387,-22.33,-24.69,-5.464,-1.056,-3.044,-6.497,0.7934,4.051,0,0,0,0,0,0,0,0,0,0,0,0,0,0,0,0,
607,-9.551,-9.129,-4.729,-20.95,-33.48,-23.6,-21.86,0.1826,-31.65,-12.39,-7.136,-8.873,-4.094,-3.22,-5.729,1.048,0,0,0,0,0,0,0,0,0,0,0,0,0,0,0,0,
608,-20.55,-11.59,-17.79,-16.09,-24.87,-28.03,-21,2.42,-33.89,-2.246,-10.73,-13.52,-6.085,-9.533,-6.101,1.783,0,0,0,0,0,0,0,0,0,0,0,0,0,0,0,0,
609,-16.93,-9.597,-24.97,-16.86,-27.78,-31.99,-14.44,-12.17,-15,1.301,-7.443,-1.855,-3.273,-4.748,5.292,6.012,0,0,0,0,0,0,0,0,0,0,0,0,0,0,0,0,
610,-1.536,-1.488,-2.926,-5.517,-29.56,-19.91,-5.989,-12.07,-7.868,7.964,-7.518,-1.048,1.065,-1.304,7.241,12.79,0,0,0,0,0,0,0,0,0,0,0,0,0,0,0,0,
611,-0.2427,2.968,2.341,3.569,-22.22,-12.46,1.148,-1.399,-7.155,7.44,-5.064,-8.721,-0.1813,-8.291,-5.952,12.41,0,0,0,0,0,0,0,0,0,0,0,0,0,0,0,0,
612,-10.07,-2.737,-11.06,-3.899,-19.97,-21.31,-4.433,9.776,-11.57,-3.428,2.752,-3.833,-3.821,-10.28,-3.76,-1.577,0,0,0,0,0,0,0,0,0,0,0,0,0,0,0,0,
613,-6.544,-5.765,-4.081,-5.686,-17.74,-25.62,-14.25,23.17,-12.02,1.489,3.532,-2.019,1.163,-0.8224,8.925,-10.5,0,0,0,0,0,0,0,0,0,0,0,0,0,0,0,0,
614,-4.773,-3.592,-0.0497,-3.002,-9.412,-23.28,-14.2,17.21,11.17,12.52,-1.58,-8.419,8.143,11.7,3.199,-7.638,0,0,0,0,0,0,0,0,0,0,0,0,0,0,0,0,
615,-19.53,-10.57,-17.25,-10.39,-14.83,-25.94,-14.58,-7.89,-3.214,-5.58,-12.17,-11.87,-2.401,4.021,-8.299,-8.944,0,0,0,0,0,0,0,0,0,0,0,0,0,0,0,0,
616,-22.41,-18.51,-21.5,-11.56,-30.6,-26.23,-14.74,-10.23,-47.07,-20.79,-19.79,-19.4,-18.78,-4.873,-5.785,-10.84,0,0,0,0,0,0,0,0,0,0,0,0,0,0,0,0,
617,-10.77,-16.17,-17.76,-4.555,-30.57,-19.58,-8.41,16.03,-19.79,-3.585,-9.765,-22.72,-21.93,11.33,0.4122,-8.133,0,0,0,0,0,0,0,0,0,0,0,0,0,0,0,0,
618,-7.326,-15.28,-18.87,2.861,-16.23,-17,-8.345,21.94,33.75,3.496,-1.213,-11.26,-22.25,5.698,-1.7,-11.31,0,0,0,0,0,0,0,0,0,0,0,0,0,0,0,0,
619,-4.904,-16.36,-5.076,16.16,-3.841,-18.48,-9.555,-0.2726,32.91,-4.502,-0.1967,-3.579,-18.41,-17.11,-2.697,-12.92,0,0,0,0,0,0,0,0,0,0,0,0,0,0,0,0,
620,-2.627,-10.74,5.938,11.55,-5.271,-18.11,-2.18,-1.577,11.37,3.474,14.26,-4.853,-3.577,-4.623,4.641,-6.812,0,0,0,0,0,0,0,0,0,0,0,0,0,0,0,0,
621,-9.744,-5.179,-0.3001,-12.16,-17.95,-19.81,-0.7166,20.8,-8.574,5.982,20.03,-5.912,0.5433,-3.133,4.664,-1.899,0,0,0,0,0,0,0,0,0,0,0,0,0,0,0,0,
622,-9.378,-3.792,-4.995,-6.591,-15.27,-15.32,-2.492,29.53,-13.29,-4.056,0.5775,-10.69,-8.814,-25.47,-3.154,3.191,0,0,0,0,0,0,0,0,0,0,0,0,0,0,0,0,
623,0.0114,-2.523,-12.38,13.23,-1.794,0.2616,3.537,20.84,5.908,-0.4376,-4.876,-13.8,-10.52,-13.96,-2.81,0.4463,0,0,0,0,0,0,0,0,0,0,0,0,0,0,0,0,
624,2.105,-1.921,-14.87,3.366,-11.55,4.497,3.76,6.169,7.232,3.527,7.079,-5.641,-8.078,-0.4365,0.3022,-10.4,0,0,0,0,0,0,0,0,0,0,0,0,0,0,0,0,
625,10.24,1.992,-1.758,-4.804,-22.99,-0.7094,2.454,-0.6238,-2.51,1.822,0.0186,5.848,-5.74,-7.404,2.211,-5.498,0,0,0,0,0,0,0,0,0,0,0,0,0,0,0,0,
626,28.98,14.93,2.453,9.956,-6.934,9.914,15.4,8.77,6.431,15.12,-9.778,11.91,4.506,0.611,2.775,0.6738,0,0,0,0,0,0,0,0,0,0,0,0,0,0,0,0,
627,29.72,22.26,3.942,13.62,2.654,20.29,22.84,14.7,10.18,18.93,6.809,11.88,9.448,-1.967,-1.583,-8.61,0,0,0,0,0,0,0,0,0,0,0,0,0,0,0,0,
628,12.93,11.57,15.35,-0.3209,-6.8,12.96,14.54,9.246,3.2,-7.467,21.76,5.619,0.3617,-18.18,1.897,-6.801,0,0,0,0,0,0,0,0,0,0,0,0,0,0,0,0,
629,6.812,5.323,14.33,-7.068,-4.58,13.39,14.39,1.883,-0.6785,-18.68,15.47,-1.645,-3.48,-11.11,7.842,0.9276,0,0,0,0,0,0,0,0,0,0,0,0,0,0,0,0,
630,11.5,16.17,7.309,0.4299,5.441,22.72,22.1,-3.007,-4.435,3.598,10.6,0.88,3.253,-0.9172,5.706,1.726,0,0,0,0,0,0,0,0,0,0,0,0,0,0,0,0,
631,14.6,21.08,3.977,4.969,4.844,15.39,17.55,10.4,-3.091,12.4,10.42,9.301,6.233,5.197,9.319,8.298,0,0,0,0,0,0,0,0,0,0,0,0,0,0,0,0,
632,18.67,16.24,-1.677,1.814,-1.108,8.413,10.95,30.48,4.65,4.719,8.586,9.357,5.664,13.4,4.962,2.007,0,0,0,0,0,0,0,0,0,0,0,0,0,0,0,0,
633,23.71,16.8,9.22,11.24,-3.903,21.31,19.13,24.28,3.095,16.6,10.05,5,6.067,-0.5306,-10.78,-13.51,0,0,0,0,0,0,0,0,0,0,0,0,0,0,0,0,
634,22.19,17.04,18.24,23.15,1.393,26,25.39,10.71,-11.25,23.29,1.577,1.692,2.741,-11.6,-7.41,-8.706,0,0,0,0,0,0,0,0,0,0,0,0,0,0,0,0,
635,11.38,12.44,-5.03,12.65,5.737,13.61,14.6,11.7,-8.116,6.034,-10.26,-7.54,-0.8473,2.37,-1.426,-4.867,0,0,0,0,0,0,0,0,0,0,0,0,0,0,0,0,
636,1.327,11.44,-16.66,2.589,-2.882,12.22,6.288,11.56,6.773,5.046,-3.512,-15.54,-0.3389,4.264,-7.481,-5.295,0,0,0,0,0,0,0,0,0,0,0,0,0,0,0,0,
637,2.152,12.71,-0.8685,5.876,-8.594,16.5,9.291,7.917,-15.08,15.24,0.1641,-14.01,-1.372,-2.999,-3.266,6.31,0,0,0,0,0,0,0,0,0,0,0,0,0,0,0,0,
638,3.243,10.21,2.041,0.3289,-3.81,3.638,7.047,-0.4903,-28.25,9.234,-2.811,-7.711,-2.441,-0.5786,-2.238,3.499,0,0,0,0,0,0,0,0,0,0,0,0,0,0,0,0,
639,1.392,7.915,0.722,-2.656,-3.522,-10.34,3.486,-10.68,14.76,6.087,7.249,0.3875,-2.341,-7.298,-12.55,-9.883,0,0,0,0,0,0,0,0,0,0,0,0,0,0,0,0,
640,12.27,9.461,7.454,9.543,-2.354,-5.085,5.489,-1.24,29.25,3.902,4.554,1.875,-9.098,-13.22,-12.14,-12.43,0,0,0,0,0,0,0,0,0,0,0,0,0,0,0,0,
641,23.77,6.959,5.725,11.72,4.391,5.814,2.605,5.991,2.266,0.1856,-7.988,-2.797,-14.25,-2.617,-3.241,-16.08,0,0,0,0,0,0,0,0,0,0,0,0,0,0,0,0,
642,17.59,2.355,4.227,2.894,4.224,6.142,2.733,-9.753,9.24,18.09,2.897,-1.795,-6.001,6.75,4.104,-12.65,0,0,0,0,0,0,0,0,0,0,0,0,0,0,0,0,
643,8.316,6.718,1.538,4.793,3.176,-1.358,7.684,-6.561,22.76,24.24,14.15,-2.183,3.609,14.49,3.282,-1.626,0,0,0,0,0,0,0,0,0,0,0,0,0,0,0,0,
644,2.839,8.478,-10.82,10.69,8.015,-9.445,0.9858,15.95,10.53,-3.437,11.72,-6.157,6.134,19.23,-5.576,-3.433,0,0,0,0,0,0,0,0,0,0,0,0,0,0,0,0,
645,0.0301,3.554,-6.04,9.425,9.264,-11.07,-1.661,13.2,3.321,-12.03,10.24,-5.177,5.308,0.5915,-5.594,-5.188,0,0,0,0,0,0,0,0,0,0,0,0,0,0,0,0,
646,9.743,10.12,15.7,8.51,8.427,-1.389,10.25,-0.1073,8.28,2.16,6.398,-4.361,3.535,-17.56,-0.1121,-0.1826,0,0,0,0,0,0,0,0,0,0,0,0,0,0,0,0,
647,19.74,17.06,14.96,6.724,8.598,10.76,9.113,0.2581,15.79,0.4488,13.79,1.037,8.913,-3.951,3.694,2.642,0,0,0,0,0,0,0,0,0,0,0,0,0,0,0,0,
648,18.44,10.07,-1.854,-0.8045,4.495,10.58,-4.544,1.793,9.19,-2.038,23.05,11.04,15.25,10.95,12.84,10.25,0,0,0,0,0,0,0,0,0,0,0,0,0,0,0,0,
649,17.88,4.724,-1.445,-3.002,-4.268,-2.609,-7.671,-1.272,-4.541,3.83,1.794,7.989,9.465,14.67,9.95,15.32,0,0,0,0,0,0,0,0,0,0,0,0,0,0,0,0,
650,14.05,2.671,-1.724,0.5711,-12.21,-9.661,-1.107,-3.999,-1.134,0.5889,-15.9,-2.344,3.961,28.63,-9.72,7.057,0,0,0,0,0,0,0,0,0,0,0,0,0,0,0,0,
651,3.424,-0.7379,-10.94,0.9427,-5.759,3.751,8.947,8.338,-6.753,3.804,-4.964,-8.492,-0.2263,21.36,-16.74,-7.289,0,0,0,0,0,0,0,0,0,0,0,0,0,0,0,0,
652,-0.3989,-1.911,2.767,4.419,6.733,12.66,11.49,27.09,-21.9,19.98,1.841,-9.234,-9.106,-6.536,-6.545,-15.66,0,0,0,0,0,0,0,0,0,0,0,0,0,0,0,0,
653,0.6529,-5.462,1.663,1.147,-9.545,-7.186,-0.0088,14.21,-9.492,20.58,4.031,0.4128,-2.845,6.577,2.06,-8.501,0,0,0,0,0,0,0,0,0,0,0,0,0,0,0,0,
654,6.977,-2.048,-35.8,-15.98,-28.52,-21.72,-3.163,-1.628,8.388,6.883,10.34,5.708,6.22,20.7,-0.9914,-3.144,0,0,0,0,0,0,0,0,0,0,0,0,0,0,0,0,
655,22.67,8.339,-21.51,-9.156,2.215,-3.218,5.825,21.03,8.895,2.983,6.941,-0.3409,-5.208,-15.75,-7.726,-13.58,0,0,0,0,0,0,0,0,0,0,0,0,0,0,0,0,
656,26.71,2.785,30.53,22.52,36.03,17.14,4.876,31.97,6.553,5.357,1.124,0.4699,-7.816,-25.64,0.131,-14.15,0,0,0,0,0,0,0,0,0,0,0,0,0,0,0,0,
657,14.43,-5.432,30.94,28.85,25.73,20.13,2.351,11.19,8.206,3.388,2.071,1.192,1.621,6.26,11.84,-3.111,0,0,0,0,0,0,0,0,0,0,0,0,0,0,0,0,T1
658,6.253,-1.75,22.4,15.31,24.85,18.56,8,3.556,17.25,-1.97,4.022,-4.806,-6.148,8.836,4.677,-2.527,0,0,0,0,0,0,0,0,0,0,0,0,0,0,0,0,
659,0.4828,-7.245,29.21,15.31,49.67,16.28,6.898,0.2616,21.03,-7.831,1.367,-1.646,-11.41,1.736,-8.595,-2.956,0,0,0,0,0,0,0,0,0,0,0,0,0,0,0,0,
660,-2.54,-9.254,16.32,21.25,53.34,17.82,5.774,-14.31,8.025,-6.125,-5.225,2.786,0.1303,10.65,-8.536,0.6442,0,0,0,0,0,0,0,0,0,0,0,0,0,0,0,0,
661,9.979,10.01,20.54,24.33,44.71,21.94,16.85,-15.25,-0.3838,1.36,-3.203,-1.095,7.543,9.286,1.313,0.0589,0,0,0,0,0,0,0,0,0,0,0,0,0,0,0,0,
662,22.04,20.36,33.02,26.33,45.75,14.69,25.36,-5.154,9.764,5.065,4.716,0.1469,12.69,15.09,7.471,3.473,0,0,0,0,0,0,0,0,0,0,0,0,0,0,0,0,
663,20.05,16.38,18.64,22.76,39.27,6.333,23.8,0.4726,16.04,7.928,4.303,8.111,17.26,29.98,6.735,9.249,0,0,0,0,0,0,0,0,0,0,0,0,0,0,0,0,
664,20.69,19.18,15.97,15.63,29.04,12.65,20.91,-1.1,-2.794,9.708,2.104,12.7,10.32,19.4,9.904,6.141,0,0,0,0,0,0,0,0,0,0,0,0,0,0,0,0,
665,24.75,18.09,14.4,13.42,29.45,22.94,20.83,-11.56,-7.152,11.34,2.987,8.865,2.807,3.805,12.16,-0.1274,0,0,0,0,0,0,0,0,0,0,0,0,0,0,0,0,
666,17.79,8.519,-4.91,21.5,30.32,24.77,19.74,-10.39,22.91,14.62,6.737,-2.086,-0.5477,6.728,3.825,-4.669,0,0,0,0,0,0,0,0,0,0,0,0,0,0,0,0,
667,1.843,0.4989,0.2785,26.74,27.01,11.4,10.02,9.528,18.85,5.201,11.88,-9.9,-8.051,5.881,0.4944,-11.7,0,0,0,0,0,0,0,0,0,0,0,0,0,0,0,0,
668,-11.15,-8.802,12.94,18.27,25.05,-5.237,0.4389,18.41,-9.459,-0.7985,-0.5131,-7.549,-8.851,4.262,4.676,-14.8,0,0,0,0,0,0,0,0,0,0,0,0,0,0,0,0,
669,-6.326,-5.537,8.274,21.59,27.07,6.677,9.575,19.76,2.853,21.16,-20.17,-2.691,-1.766,15.12,-1.284,-9.952,0,0,0,0,0,0,0,0,0,0,0,0,0,0,0,0,
670,10.07,14.78,20.62,38.73,34.18,30.73,27.69,31.59,11.7,30.91,-16.06,-6.248,-5.3,9.631,-12.31,-11.25,0,0,0,0,0,0,0,0,0,0,0,0,0,0,0,0,
671,7.641,16.48,37.25,31.82,37.51,26.42,33.85,30.85,5.28,6.745,-4.994,-10.66,-12.7,-16.1,-10.98,-18.18,0,0,0,0,0,0,0,0,0,0,0,0,0,0,0,0,
672,-6.15,-1.5,24.91,15.8,33.54,16.71,30.48,17.78,12.39,-5.281,-4.314,-1.216,-7.372,-16.55,0.5951,-15.03,0,0,0,0,0,0,0,0,0,0,0,0,0,0,0,0,
673,-0.6167,-1.24,14.33,27.14,32.77,25.42,29.38,19.88,-4.8,8.71,0.0679,7.525,2.495,6.054,6.257,-9.106,0,0,0,0,0,0,0,0,0,0,0,0,0,0,0,0,
674,7.589,13.18,26.14,38.9,30.99,24.06,30.92,21.1,-15.36,18.89,2.808,-1.177,9.694,10.89,6.998,-4.718,0,0,0,0,0,0,0,0,0,0,0,0,0,0,0,0,
675,-0.4641,16.81,25.8,29.46,23.95,11.73,25.84,7.718,10.81,13.17,1.721,-6.378,16.07,7.561,14.26,7.57,0,0,0,0,0,0,0,0,0,0,0,0,0,0,0,0,
676,-1.503,12.88,9.155,25.12,24.97,13.36,15.99,2.405,12.86,1.414,11.85,2.196,14.9,12.13,16.54,10.86,0,0,0,0,0,0,0,0,0,0,0,0,0,0,0,0,
677,9.2,8.473,10.17,29.66,27.45,14.79,12.87,3.593,7.948,-3.167,21.87,5.103,8.118,10.64,12.59,-0.6496,0,0,0,0,0,0,0,0,0,0,0,0,0,0,0,0,
678,10.1,4.753,20.38,24.2,20.1,3.692,10.08,-3.775,17.47,0.6272,16.54,4.721,6.683,10.99,17.35,-4.056,0,0,0,0,0,0,0,0,0,0,0,0,0,0,0,0,
679,6.669,6.243,19.12,14.43,19.21,3.921,4.577,-6.918,9.161,5.035,9.141,11.36,4.206,11.89,13.81,-4.671,0,0,0,0,0,0,0,0,0,0,0,0,0,0,0,0,
680,13.43,7.391,17.02,12.07,24.26,17.22,9.336,-0.397,21.01,2.868,11.93,14.36,-2.876,-3.912,1.445,-6.83,0,0,0,0,0,0,0,0,0,0,0,0,0,0,0,0,
681,19.98,2.706,17.65,15.44,20,18.52,14.45,2.956,43.81,1.371,15.33,13.61,1.112,-12.58,10.43,4.538,0,0,0,0,0,0,0,0,0,0,0,0,0,0,0,0,
682,18.11,1.575,21.69,25.57,18.4,11.22,10.25,6.86,26.88,15.1,8.639,14.01,9.825,-3.051,21.47,8.217,0,0,0,0,0,0,0,0,0,0,0,0,0,0,0,0,
683,14.93,4.929,22.5,35.64,20.17,9.375,14.03,11.84,23.46,17.27,1.423,8.214,3.242,3.399,7.909,-6.394,0,0,0,0,0,0,0,0,0,0,0,0,0,0,0,0,
684,12.79,4.071,6.382,28.91,13.49,10.45,22.83,7.073,45.58,-6.669,1.069,3.228,-6.352,3.617,-3.55,-11.04,0,0,0,0,0,0,0,0,0,0,0,0,0,0,0,0,
685,11.46,-1.066,4.016,19.22,18.24,13.09,18.71,8.366,33.83,-4.844,-0.4592,4.337,-9.387,-9.637,0.4713,-11.16,0,0,0,0,0,0,0,0,0,0,0,0,0,0,0,0,
686,9.862,-10.65,28.3,27,34.2,10.03,8.489,15.33,10.34,17.26,0.3057,-0.9989,-15.49,-18.57,0.5919,-14.72,0,0,0,0,0,0,0,0,0,0,0,0,0,0,0,0,
687,5.641,-17.07,34.03,33.2,34.03,5.611,4.653,2.093,16.23,6.016,3.394,-7.404,-14.38,3.323,-6.877,-4.987,0,0,0,0,0,0,0,0,0,0,0,0,0,0,0,0,
688,7.292,-10.56,20.16,32.57,35.29,20.12,7.115,-0.8802,27.54,-9.463,-0.5843,-4.599,-4.08,6.096,-8.327,1.478,0,0,0,0,0,0,0,0,0,0,0,0,0,0,0,0,
689,13.68,-7.426,13.01,37.38,43.92,28.07,6.121,16.98,7.637,-4.471,-0.6377,-0.5516,1.656,-18.13,-0.8728,-2.762,0,0,0,0,0,0,0,0,0,0,0,0,0,0,0,0,
690,12.65,-10.23,2.269,25.55,23.55,6.2,-3.175,-3.641,-21.7,-5.252,0.4195,2.468,9.772,-11.16,2.947,2.844,0,0,0,0,0,0,0,0,0,0,0,0,0,0,0,0,
691,13.36,0.4378,-0.0941,7.815,4.28,-1.915,-5.095,-34.98,1.809,-2.603,-7.991,4.253,16.5,-0.9979,1.852,7.001,0,0,0,0,0,0,0,0,0,0,0,0,0,0,0,0,
692,17.05,8.66,26.73,25.32,34.72,16.98,6.003,-9.659,53.06,6.329,-1.86,3.568,12.04,-0.9405,2.974,5.991,0,0,0,0,0,0,0,0,0,0,0,0,0,0,0,0,
693,9.872,0.4982,47.69,44.05,65.36,25.24,10.81,21.15,53.69,5.032,8.841,6.894,10.95,24.9,2.315,10.22,0,0,0,0,0,0,0,0,0,0,0,0,0,0,0,0,
694,8.609,-5.458,31.05,29.1,52.71,19.7,3.239,6.121,25.9,0.0774,-4.495,8.602,8.079,18.01,3.678,1.22,0,0,0,0,0,0,0,0,0,0,0,0,0,0,0,0,
695,20.66,-9.444,9.21,17.39,37.72,13.36,-2.454,-18.33,22.17,-12.46,-4.504,5.014,-4.971,-31.01,7.47,-13.06,0,0,0,0,0,0,0,0,0,0,0,0,0,0,0,0,
696,20.02,-15.42,15.35,14.95,41.56,8.117,1.299,-21.62,31.94,-24.42,15.02,6.45,-5.192,-30.05,2.93,-8.397,0,0,0,0,0,0,0,0,0,0,0,0,0,0,0,0,
697,12.5,-13.6,25.82,2.759,43,9.988,5.451,-6.46,42.69,-15.25,9.129,7.342,4.349,-0.19,2.518,-1.889,0,0,0,0,0,0,0,0,0,0,0,0,0,0,0,0,
698,17.04,-10.11,20.26,5.78,40.16,14.3,1.135,5.904,40.86,-2.905,5.35,4.481,4.535,3.057,11.06,-1.674,0,0,0,0,0,0,0,0,0,0,0,0,0,0,0,0,
699,18.33,-9.441,15.55,24.31,36.32,13.45,-2.812,2.424,20.2,4.751,29.24,12.92,8.508,16.01,13.95,4.54,0,0,0,0,0,0,0,0,0,0,0,0,0,0,0,0,
700,14.75,-4.602,11.11,24.33,28.27,11.88,1.662,1.041,17.73,9.681,31.02,25.46,16.47,29.42,14.28,9.439,0,0,0,0,0,0,0,0,0,0,0,0,0,0,0,0,
701,23.83,5.101,1.245,18.13,26.17,15.7,8.815,3.721,27.67,-2.653,12.04,23.21,11.71,8.096,6.467,3.466,0,0,0,0,0,0,0,0,0,0,0,0,0,0,0,0,
702,31.13,12.77,2.007,26.22,30.94,25.94,13.95,1.399,13.35,-2.909,16.96,17.6,10.66,-1.937,-1.567,-6.561,0,0,0,0,0,0,0,0,0,0,0,0,0,0,0,0,
703,24.39,10.51,10,25.93,32.7,31.47,13.72,6.524,11.43,17.84,22.29,23.92,24.03,15.33,15.05,-5.041,0,0,0,0,0,0,0,0,0,0,0,0,0,0,0,0,
704,24.56,7.33,16.92,12.77,34.99,23.41,8.274,9.514,29.78,6.666,6.944,27.15,22.56,8.852,14.53,3.333,0,0,0,0,0,0,0,0,0,0,0,0,0,0,0,0,
705,27.49,8.014,22.03,7.769,31.78,11.15,1.562,-5.838,19.9,-16.64,6.891,15.39,4.578,-8.57,-17.99,-0.2375,0,0,0,0,0,0,0,0,0,0,0,0,0,0,0,0,
706,13.57,-1.404,9.244,3.275,17.17,4.394,-5.255,-18.84,11.98,-2.575,19.16,7.798,6.661,8.163,-13.44,2.123,0,0,0,0,0,0,0,0,0,0,0,0,0,0,0,0,
707,9.23,-3.305,0.0031,-2.045,18.91,10.95,-0.8486,-16.01,26.06,12.29,19.57,18.57,24.69,28.39,16.66,22.82,0,0,0,0,0,0,0,0,0,0,0,0,0,0,0,0,
708,28.41,17.44,24.77,12.48,40.7,30.19,14.95,-5.078,25.07,3.84,34.83,34.18,29.6,25.59,25.99,32.94,0,0,0,0,0,0,0,0,0,0,0,0,0,0,0,0,
709,35.66,24.52,36.62,30.45,47.12,38.97,17.98,8.338,37.54,2.006,58.7,42.35,30.5,29.55,41.6,34.04,0,0,0,0,0,0,0,0,0,0,0,0,0,0,0,0,
710,30.39,14.12,13.61,26.53,41.38,32.91,11.35,7.335,55.74,8.745,44.96,43.7,36.65,33.21,44.75,37.51,0,0,0,0,0,0,0,0,0,0,0,0,0,0,0,0,
711,33.89,16.08,3.881,11.73,36.73,31.79,9.733,-10.41,16.83,4.86,13.82,34.47,31.08,15.73,9.641,19.45,0,0,0,0,0,0,0,0,0,0,0,0,0,0,0,0,
712,25.66,15.37,4.853,-3.772,13.05,28.18,2.868,-15.49,-21.26,-3.99,0.9805,15.74,17.34,7.664,-5.447,-3.15,0,0,0,0,0,0,0,0,0,0,0,0,0,0,0,0,
713,6.533,7.287,-2.42,-9.739,-10.54,14.87,2.429,-9.47,-2.859,2.187,-5.603,7.795,15.35,17.33,6.848,5.227,0,0,0,0,0,0,0,0,0,0,0,0,0,0,0,0,
714,6.492,14.53,4.021,4.374,-1.358,12.21,16.76,-11.85,7.395,8.284,-11.66,13.43,19.07,13.5,-1.609,8.443,0,0,0,0,0,0,0,0,0,0,0,0,0,0,0,0,
715,8.628,17.32,13.93,12.09,7.85,18.51,14.6,-4.692,-8.581,-5.859,-15.01,10.88,15.71,0.2472,-14.65,-15.48,0,0,0,0,0,0,0,0,0,0,0,0,0,0,0,0,
716,-3.893,3.797,7.884,0.1895,-1.925,18.1,1.56,1.545,-12.76,-5.651,-12.93,8.856,17.69,-0.0873,-3.104,-15.7,0,0,0,0,0,0,0,0,0,0,0,0,0,0,0,0,
717,-6.415,2.576,-0.2104,-4.021,-5.338,16.87,3.491,-26.93,-11.24,10.14,0.052,18.46,27.48,2.091,14.86,14.2,0,0,0,0,0,0,0,0,0,0,0,0,0,0,0,0,
718,-0.72,5.516,-7.713,-3.096,-12.1,12.77,-0.784,-43.1,-14.68,-5.077,3.468,13.67,22.97,-6.399,19.3,23.23,0,0,0,0,0,0,0,0,0,0,0,0,0,0,0,0,
719,-5.112,-8.2,-20.25,-13.78,-28.42,-2.481,-15.9,-11.08,-17.39,-24.11,-2.422,3.614,11.78,-8.409,17.02,12.77,0,0,0,0,0,0,0,0,0,0,0,0,0,0,0,0,
720,-7.91,-16.71,-35.35,-21.41,-27.43,-13.98,-19.34,5.911,-9.524,-11.93,5.057,14.84,16.1,3.575,17.94,12.53,0,0,0,0,0,0,0,0,0,0,0,0,0,0,0,0,
721,-4.816,-11.83,-39.85,-22.61,-17.54,-11.67,-22.13,-12.62,13.1,-1.778,5.835,16.93,18.26,4.831,16.55,11.43,0,0,0,0,0,0,0,0,0,0,0,0,0,0,0,0,
722,-8.961,-12.3,-20.79,-26.22,-15.34,-9.321,-29.18,-22.38,18.78,-1.911,-1.341,1.752,7.792,-5.228,13.61,4.641,0,0,0,0,0,0,0,0,0,0,0,0,0,0,0,0,
723,-18.23,-16.24,-7.055,-24.76,-10.61,-12.56,-22.35,-20.36,0.6518,0.0596,9.041,4.37,8.38,2.319,15.6,8.969,0,0,0,0,0,0,0,0,0,0,0,0,0,0,0,0,
724,-20.05,-15.04,-17.79,-18.94,-9.271,-10.61,-11.44,-15.85,5.403,-6.581,8.591,10.53,15.36,13.27,13.69,12.15,0,0,0,0,0,0,0,0,0,0,0,0,0,0,0,0,
725,-14.09,-13.82,-19.64,-17.43,-13.78,-6.305,-12.53,-14.14,14.19,-16.69,-9.091,-1.762,2.285,-0.9623,7.136,1.195,0,0,0,0,0,0,0,0,0,0,0,0,0,0,0,0,
726,-16.98,-18.6,-11.08,-19.56,-12.02,-11.54,-18.1,-22.02,-18.04,-16.36,-7.331,-10.52,-18.14,-8.01,3.523,-6.252,0,0,0,0,0,0,0,0,0,0,0,0,0,0,0,0,
727,-30.84,-28.19,-17.9,-20.94,-13.87,-17.71,-25.85,-20.15,-31.62,-9.61,-10.31,-11.43,-20.72,5.985,-6.317,-9.438,0,0,0,0,0,0,0,0,0,0,0,0,0,0,0,0,
728,-37.59,-35.44,-29.97,-19.24,-23.05,-18.54,-35.29,-20.65,3.063,-8.498,-34.05,-18.51,-17.02,-3.273,-18.99,-20.81,0,0,0,0,0,0,0,0,0,0,0,0,0,0,0,0,
729,-38.48,-38.18,-32.67,-21.45,-24.56,-22.32,-32.59,-35.24,10.23,-12.88,-30.31,-22.32,-18.97,-14.44,-15.98,-27.32,0,0,0,0,0,0,0,0,0,0,0,0,0,0,0,0,
730,-36.26,-37.52,-25.12,-24.94,-17.37,-18.45,-23.78,-23.02,-8.886,-11.85,-5.931,-15.26,-17.2,7.001,-7.155,-22.09,0,0,0,0,0,0,0,0,0,0,0,0,0,0,0,0,
731,-23.54,-32.36,-17.24,-17.57,-7.524,-6.861,-27.2,-5.67,1.448,-13.38,-4.399,-8.657,-18.54,-2.946,-9.752,-21.26,0,0,0,0,0,0,0,0,0,0,0,0,0,0,0,0,
732,-20.99,-30.32,-24.39,-20.35,-3.803,-14.15,-31.09,-17.85,9.051,-23.37,-7.409,-7.925,-24.75,-41.79,-13.02,-27.16,0,0,0,0,0,0,0,0,0,0,0,0,0,0,0,0,
733,-31.61,-30.19,-29.82,-40.82,-8.964,-23.78,-25.08,-14.05,-9.864,-22.76,0.1437,-8.752,-15.56,-24.13,-9.1,-24.67,0,0,0,0,0,0,0,0,0,0,0,0,0,0,0,0,
734,-22.79,-18.03,-14.26,-37.74,-5.923,-6.34,-23.28,-0.6143,-12.67,-9.2,-1.556,-10.48,-4.032,3.714,-11.06,-15.92,0,0,0,0,0,0,0,0,0,0,0,0,0,0,0,0,
735,-10.16,-7.389,-4.568,-19.19,2.42,2.998,-26.42,-4.037,0.1686,-3.55,-5.497,-12.46,-13.92,-22.95,-19.38,-19.07,0,0,0,0,0,0,0,0,0,0,0,0,0,0,0,0,
736,-22.9,-16.23,-19.66,-28.19,-3.107,-17.95,-31.1,4.347,-11.41,-14.58,-4.022,-12.37,-23.3,-31.79,-17.39,-23.32,0,0,0,0,0,0,0,0,0,0,0,0,0,0,0,0,
737,-32.99,-24.48,-32.49,-39.7,-10.66,-26.56,-38.74,2.678,-27.98,-23.23,-5.8,-10.11,-13.21,-0.334,-6.337,-6.99,0,0,0,0,0,0,0,0,0,0,0,0,0,0,0,0,
738,-24.04,-16.44,-27.59,-28.99,-11.44,-11.01,-35.51,-18.48,-12.23,-10.8,-4.198,-5.704,-0.3434,5.346,-2.631,6.582,0,0,0,0,0,0,0,0,0,0,0,0,0,0,0,0,
739,-16.3,-5.964,-20.69,-23.6,-13.35,-2.234,-24.41,-17.41,-7.175,1.724,-1.322,-2.855,0.9375,-6.261,-5.708,2.2,0,0,0,0,0,0,0,0,0,0,0,0,0,0,0,0,
740,-15.09,-3.725,-15.32,-25.82,-7.209,-0.3669,-23.11,-15.62,-41.63,-2.672,-1.079,-4.498,-6.489,-2.384,-5.457,7.419,0,0,0,0,0,0,0,0,0,0,0,0,0,0,0,0,
741,-19.99,-9.572,-12.41,-24.13,0.6266,2.026,-24.67,-22.51,-46.74,-7.409,3.175,-6.572,-11.9,-8.322,-2.273,15.56,0,0,0,0,0,0,0,0,0,0,0,0,0,0,0,0,
742,-23.41,-13.62,-21.51,-25.46,-3.26,-0.8266,-20.41,-7.801,-10.16,-6.454,-1.755,-5.926,-6.951,-16.23,-0.5078,5.924,0,0,0,0,0,0,0,0,0,0,0,0,0,0,0,0,
743,-7.848,-1.29,-22.65,-19.17,1.361,6.561,-10.01,2.127,-2.583,-0.1946,-11.1,-2.226,3.003,4.9,-4.245,0.8572,0,0,0,0,0,0,0,0,0,0,0,0,0,0,0,0,
744,5.149,13.5,-2.975,-6.748,10.52,21.43,3.004,-8.697,-19.67,6.472,-8.296,-3.072,1.291,7.151,-12.84,1.162,0,0,0,0,0,0,0,0,0,0,0,0,0,0,0,0,
745,-8.785,6.799,3.639,-10.31,1.777,16.78,3.985,-14.1,-20.4,2.899,-14.34,-12.75,-11.06,-23.18,-13.58,-12.42,0,0,0,0,0,0,0,0,0,0,0,0,0,0,0,0,
746,-18.15,-4.438,-7.466,-12.9,-0.4139,7.507,0.0625,-4.773,-22.35,0.8722,-21.7,-13.67,-10.02,-8.366,-5.635,-16.17,0,0,0,0,0,0,0,0,0,0,0,0,0,0,0,0,
747,-7.346,-0.8385,-3.98,-3.286,12.05,8.126,3.179,11.24,-38.04,-5.297,-8.284,-6.793,-0.667,20.86,-5.521,-1.168,0,0,0,0,0,0,0,0,0,0,0,0,0,0,0,0,
748,-4.907,-2.072,-0.4956,-12.26,9.518,0.8892,-3.17,8.204,-43.13,-19.63,-2.892,-11.09,-6.244,-8.348,-6.535,0.6494,0,0,0,0,0,0,0,0,0,0,0,0,0,0,0,0,
749,-10.08,-12.38,-19.58,-27.8,0.6774,-4.903,-13.38,-10.89,-29.43,-11.14,-4.578,-12.66,-13.88,-28.92,3.419,-8.632,0,0,0,0,0,0,0,0,0,0,0,0,0,0,0,0,
750,-7.308,-12.55,-24.36,-15.94,3.912,-1.729,-10.62,-9.133,-15.04,-3.991,5.399,-10.33,-16.96,-14.88,-0.4162,-8.33,0,0,0,0,0,0,0,0,0,0,0,0,0,0,0,0,
751,-8.615,-11.49,0.4944,-4.803,6.933,-3.72,-9.149,-3.455,-13.99,-15.49,0.5796,-22.32,-24.21,-14.06,-19.27,-8.02,0,0,0,0,0,0,0,0,0,0,0,0,0,0,0,0,
752,-15.03,-16.25,5.881,-15.01,5.348,-0.6449,-10.3,-14.52,-22.73,2.37,-10.96,-23.1,-17.72,-0.0621,-13.46,-7.799,0,0,0,0,0,0,0,0,0,0,0,0,0,0,0,0,
753,-9.284,-8.265,-9.623,-16.15,4.819,9.522,-4.727,-9.048,-24.37,14.87,-6.138,-4.42,-5.574,11.88,3.226,0.7771,0,0,0,0,0,0,0,0,0,0,0,0,0,0,0,0,
754,2.655,5.296,-2.334,-7.553,2.499,11.65,-1.714,8.509,-11.31,-9.142,-3.748,1.622,-14.49,-13.52,-3.446,-1.06,0,0,0,0,0,0,0,0,0,0,0,0,0,0,0,0,
755,1.016,2.455,0.3079,-14.47,-6.294,7.794,-2.194,1.888,-6.067,-2.761,-1.188,-1.63,-21.56,-18.42,-4.348,-10.35,0,0,0,0,0,0,0,0,0,0,0,0,0,0,0,0,
756,-7.939,-7.073,-21.99,-25.87,-14.76,-0.6473,-5.299,-15.4,-12.1,7.621,5.478,-3.838,-13.43,1.125,9.832,-5.101,0,0,0,0,0,0,0,0,0,0,0,0,0,0,0,0,
757,-6.556,-11.38,-18.03,-21.21,-10.97,-5.314,-15.55,-19.57,-1.571,-21.57,1.602,-8.267,-12.69,1.813,3.035,-7.434,0,0,0,0,0,0,0,0,0,0,0,0,0,0,0,0,
758,-6.336,-18.27,-4.802,-12.87,-8.787,-2.013,-24,-21.07,7.256,-19.85,3.939,-4.645,-16.38,-0.8176,-11.58,-23.64,0,0,0,0,0,0,0,0,0,0,0,0,0,0,0,0,
759,-20.77,-24.78,-31.25,-18.91,-21.7,-12.45,-27.21,-25.26,-11.1,7.047,8.957,-5.111,-16.17,-3.045,-9.397,-17.21,0,0,0,0,0,0,0,0,0,0,0,0,0,0,0,0,
760,-31.03,-21.71,-48.51,-29.51,-28.27,-25.86,-27.93,-21.37,-26.67,5.409,-7.018,-19.86,-17.85,-3.439,-8.893,-0.7756,0,0,0,0,0,0,0,0,0,0,0,0,0,0,0,0,
761,-27.15,-16.91,-27.18,-28.48,-21.82,-19.11,-22.3,-15.87,-29.29,4.024,-17.42,-24.44,-15.89,3.823,-13.3,-3.972,0,0,0,0,0,0,0,0,0,0,0,0,0,0,0,0,
762,-23.01,-16.64,-14.29,-18.52,-16,-14.13,-17.71,-15.65,-28.75,3.997,-9.437,-19.22,-12.54,-6.765,-10.38,-6.587,0,0,0,0,0,0,0,0,0,0,0,0,0,0,0,0,
763,-19.05,-14.59,-15.36,-8.691,-8.418,-15.12,-18.14,-7.738,-9.962,-6.364,-8.685,-19.71,-18.04,-20.51,-5.061,-1.005,0,0,0,0,0,0,0,0,0,0,0,0,0,0,0,0,
764,-10.57,-11.99,-6.288,-5.562,-3.193,-2.676,-11.3,-0.392,17.04,-4.841,-5.219,-15.04,-20.87,-15.39,2.32,0.0095,0,0,0,0,0,0,0,0,0,0,0,0,0,0,0,0,
765,-3.382,-12.73,2.007,-9.598,-5.402,8.298,-2.55,-8.389,21.3,-7.47,8.209,-5.937,-11.13,-10.14,6.993,1.437,0,0,0,0,0,0,0,0,0,0,0,0,0,0,0,0,
766,-0.486,-10.73,-4.826,-10.35,-6.649,3.596,-5.59,-9.784,-4.954,-10.75,2.783,-8.701,-5.073,-0.524,-2.739,0.279,0,0,0,0,0,0,0,0,0,0,0,0,0,0,0,0,
767,-5.385,-5.89,-12.18,-4.456,-8.258,-3.764,-7.763,-6.008,-30.08,6.387,-15.47,-20.23,-11.75,5.513,-13.48,-5.864,0,0,0,0,0,0,0,0,0,0,0,0,0,0,0,0,
768,-15.77,-5.951,-2.609,-2.103,-6.262,-3.04,0.8364,-21.46,-6.52,9.875,-16.57,-27.03,-17.34,-11.08,-12.23,-6.419,0,0,0,0,0,0,0,0,0,0,0,0,0,0,0,0,
769,-17.47,-8.301,4.83,-5.758,6.5,3.461,4.866,-26.54,24.49,-4.404,-7.495,-25.6,-17.7,-22.63,-11.54,-6.733,0,0,0,0,0,0,0,0,0,0,0,0,0,0,0,0,
770,-12.29,-6.11,-6.076,-7.409,13.55,7.32,1.451,-7.716,-4.623,-6.786,-6.442,-22.09,-17.6,-21.49,-14.28,-12.22,0,0,0,0,0,0,0,0,0,0,0,0,0,0,0,0,
771,-11.14,-2.137,-7.68,-5.562,6.723,5.959,3.845,-6.167,-24.08,-6.394,-11.63,-21.94,-12.34,-19.37,-13.22,-13.13,0,0,0,0,0,0,0,0,0,0,0,0,0,0,0,0,
772,-10.66,-2.344,2.478,-7.99,-1.725,-0.294,6.506,-12.96,13.43,-4.265,-11.5,-23.65,-7.696,-8.154,-13.02,-9.874,0,0,0,0,0,0,0,0,0,0,0,0,0,0,0,0,
773,-11.98,-5.597,-0.7773,-14.61,-5.41,-7.727,2.978,-1.221,17.22,6.984,-1.746,-20.02,-9.565,-3.305,-11.26,-10.92,0,0,0,0,0,0,0,0,0,0,0,0,0,0,0,0,
774,-11.38,-4.82,1.322,-12.57,0.5212,-1.752,5.841,6.155,-12.14,12.74,2.619,-6.073,-5.788,-0.8196,-0.9711,-8.916,0,0,0,0,0,0,0,0,0,0,0,0,0,0,0,0,
775,3.39,1.093,14.53,0.0928,12,9.104,12.84,6,2.034,8.904,-4.748,4.798,-1.019,19.71,4.396,3.83,0,0,0,0,0,0,0,0,0,0,0,0,0,0,0,0,
776,10.08,3.736,9.862,9.784,11.12,-0.5253,9.991,10.02,16.86,6.036,-6.212,-4.685,-7.415,19.64,-6.095,5.787,0,0,0,0,0,0,0,0,0,0,0,0,0,0,0,0,
777,-8.511,1.051,2.868,11.46,1.869,-13.17,5.628,9.18,-1.663,16.15,1.162,-15.59,-9.716,-4.546,-11.3,-6.51,0,0,0,0,0,0,0,0,0,0,0,0,0,0,0,0,
778,-14.7,1.731,5.779,9.391,2.396,-3.548,9.177,12.23,-0.5615,25,4.605,-2.572,-0.814,-3.578,5.279,1.058,0,0,0,0,0,0,0,0,0,0,0,0,0,0,0,0,
779,4.814,8.346,0.6867,7.92,7.219,10.89,15.95,22.23,21.05,5.998,2.372,10.21,1.8,-0.5598,16.34,11.74,0,0,0,0,0,0,0,0,0,0,0,0,0,0,0,0,
780,10.29,11.29,10.83,12.61,7.59,13.43,22.65,26.9,22.13,-9.212,-0.9382,-2.975,-8.112,-14.83,3.121,-6.164,0,0,0,0,0,0,0,0,0,0,0,0,0,0,0,0,
781,-5.251,2.341,29.13,14.02,9.051,2.804,16.97,28.01,-7.606,1.649,-2.541,-17.65,-19.92,-10.63,-5.508,-13.52,0,0,0,0,0,0,0,0,0,0,0,0,0,0,0,0,
782,-10.72,-11.32,8.519,-0.5981,10.5,-16.53,-2.502,18.18,-29.57,-1.2,-6.096,-12.2,-21.73,-6.713,1.968,0.0302,0,0,0,0,0,0,0,0,0,0,0,0,0,0,0,0,
783,-1.762,-15.09,-11.62,-11.81,8.798,-22.19,-8.413,1.243,3.522,-12.22,-7.457,-0.2151,-14.83,-12.16,4.599,-2.03,0,0,0,0,0,0,0,0,0,0,0,0,0,0,0,0,
784,0.6851,-12.4,0.4588,-5.555,8.296,-14.6,-3.988,-3.205,37.76,-8.186,6.792,2.384,-15.92,3.869,0.8804,-7.67,0,0,0,0,0,0,0,0,0,0,0,0,0,0,0,0,
785,-6.404,-18.09,3.301,-1.463,10.26,-21.45,-13.38,-5.361,16.71,-12.66,16.98,-4.904,-24.85,3.195,-3.132,-7.634,0,0,0,0,0,0,0,0,0,0,0,0,0,0,0,0,
786,-8.357,-27.17,6.293,-6.955,7.213,-33.92,-20.41,-6.349,-2.369,-12.43,3.525,-8.821,-21.4,-20.25,-5.027,-12.6,0,0,0,0,0,0,0,0,0,0,0,0,0,0,0,0,
787,-3.215,-22.61,5.202,-14.12,-4.295,-27.67,-14.65,1.985,3.001,7.248,-0.3556,-2.514,-7.878,-7.86,1.412,-8.419,0,0,0,0,0,0,0,0,0,0,0,0,0,0,0,0,
788,3.234,-6.62,-29.29,-12.69,-0.9557,-10.76,-10.59,-1.188,10.93,3.62,11.43,-0.4714,-6.409,5.024,3.705,-7.271,0,0,0,0,0,0,0,0,0,0,0,0,0,0,0,0,
789,8.54,-0.7728,-26.83,4.495,25.01,-3.069,-7.367,-4.397,13.87,-23.51,-3.817,-12.45,-20.28,-13.09,-4.766,-21.13,0,0,0,0,0,0,0,0,0,0,0,0,0,0,0,0,
790,-0.3767,-14.78,18.09,5.402,28.78,-13.99,-11.05,14.27,-24.54,-24.63,-29.62,-26.76,-31.46,-9.022,-6.326,-18.73,0,0,0,0,0,0,0,0,0,0,0,0,0,0,0,0,
791,-22.86,-27.17,10.33,-20.69,7.478,-27.74,-22.88,17.29,-54.86,-0.5667,-22.49,-27.19,-25.84,4.639,-2.655,-6.23,0,0,0,0,0,0,0,0,0,0,0,0,0,0,0,0,
792,-29.32,-20.68,-9.983,-22.39,10.58,-21.83,-22.48,-6.231,-16.73,8.431,-10.81,-16.94,-15.21,-4.482,-5.951,-11.98,0,0,0,0,0,0,0,0,0,0,0,0,0,0,0,0,
793,-17.68,-12.93,11.22,-4.627,22.59,-10.85,-16.98,-12.51,-3.952,-0.8197,-15.65,-13.91,-19.11,-10.23,-7.794,-18.56,0,0,0,0,0,0,0,0,0,0,0,0,0,0,0,0,
794,-15.85,-16.84,9.804,-9.158,9.906,-12.38,-18.14,-4.419,-26.09,-7.239,-2.995,-14.17,-23.63,-10.16,-3.125,-12.52,0,0,0,0,0,0,0,0,0,0,0,0,0,0,0,0,
795,-19.74,-18.58,-6.289,-7.222,-0.9844,-14.09,-14.58,-6.95,2.326,-12.25,11.79,-7.798,-11.26,-5.545,0.8769,-4.265,0,0,0,0,0,0,0,0,0,0,0,0,0,0,0,0,
796,-12.3,-13.66,3.333,10.53,-0.1615,-14.51,-12.8,-2.014,16.9,-6.824,-8.215,-10.92,-4.314,2.403,0.3963,-0.052,0,0,0,0,0,0,0,0,0,0,0,0,0,0,0,0,
797,-8.886,-12.25,0.7832,5.41,-6.038,-20.75,-15.96,11.17,-22.43,8.787,-29.47,-25.87,-15.37,-8.182,-5.918,-10.47,0,0,0,0,0,0,0,0,0,0,0,0,0,0,0,0,
798,-19.66,-14.9,-5.117,-8.074,-8.958,-22.19,-9.486,13.52,-29.4,-6.249,-25.11,-31.98,-20.85,-10.37,-13.31,-27.8,0,0,0,0,0,0,0,0,0,0,0,0,0,0,0,0,
799,-25.69,-15.51,10.52,-6.147,-0.5746,-15.83,-3.128,18.64,-1.892,-29.62,-16.92,-26.97,-14.7,3.116,-10.44,-22.84,0,0,0,0,0,0,0,0,0,0,0,0,0,0,0,0,
800,-21.42,-13.67,12.36,-3.529,2.126,-10.61,-6.617,18,1.294,-12.84,-12.47,-18.5,-11.34,-12.48,0.3886,-1.994,0,0,0,0,0,0,0,0,0,0,0,0,0,0,0,0,
801,-15.45,-9.044,6.021,2.076,-4.087,-2.146,-1.68,-1.606,-8.034,1.228,-8.06,-6.023,-8.813,-24.5,6.298,3.641,0,0,0,0,0,0,0,0,0,0,0,0,0,0,0,0,
802,-2.871,0.8129,11.86,14.11,-1.676,11.27,16.03,6.296,-1.828,-4.724,-2.92,6.705,-1.032,1.173,7.947,-3.205,0,0,0,0,0,0,0,0,0,0,0,0,0,0,0,0,
803,11.1,9.719,11.31,16.96,5.012,10.98,24.59,42.87,1.877,6.979,-0.5862,7.004,3.926,8.766,7.314,-4.11,0,0,0,0,0,0,0,0,0,0,0,0,0,0,0,0,
804,10.29,10.25,12.08,13.78,-1.246,-5.021,16.55,52.88,-7.424,13.8,-6.282,-6.337,0.7349,-7.686,2.837,-2.853,0,0,0,0,0,0,0,0,0,0,0,0,0,0,0,0,
805,2.295,7.333,6.261,7.261,-9.763,-11.92,7.129,39.56,-17.24,-1.583,-5.246,-14.05,-2.57,-4.142,2.102,-3.995,0,0,0,0,0,0,0,0,0,0,0,0,0,0,0,0,
806,0.6187,4.989,-23.27,-8.939,-11.44,-6.596,2.398,22.31,-31.09,-8.145,-0.8574,-9.847,-3.059,-0.3189,3.936,-0.0902,0,0,0,0,0,0,0,0,0,0,0,0,0,0,0,0,
807,2.474,-0.2356,-25.32,-13.7,-15.67,-3.639,-0.57,10.98,-22.2,1.795,-5.548,-3.597,-4.793,-9.346,9.398,4.953,0,0,0,0,0,0,0,0,0,0,0,0,0,0,0,0,
808,5.118,-4.055,6.355,1.042,-17.72,1.002,3.137,21.82,20.63,12.55,7.511,6.64,0.0035,1.277,25.99,6.948,0,0,0,0,0,0,0,0,0,0,0,0,0,0,0,0,
809,9.531,2.238,12,6.886,-12.77,7.818,12.13,23.21,21.42,6.146,24.36,15.93,13.42,17.42,27.23,13.3,0,0,0,0,0,0,0,0,0,0,0,0,0,0,0,0,
810,14.6,12.03,0.4478,5.424,-11.65,4.709,16.05,7.413,-11.58,-9.249,9.033,17.21,20.64,14.54,8.208,17.71,0,0,0,0,0,0,0,0,0,0,0,0,0,0,0,0,
811,16.33,11.73,-2.048,10.87,-14.52,-6.221,11.58,15.26,1.613,-6.157,4.275,23.32,21.49,18.07,14.84,17.11,0,0,0,0,0,0,0,0,0,0,0,0,0,0,0,0,
812,13.69,8.845,-6.061,1.026,-8.001,-14.54,5.277,23.63,12.24,1.167,22.76,29.44,23.85,19.24,32.46,22.25,0,0,0,0,0,0,0,0,0,0,0,0,0,0,0,0,
813,13.96,14.74,-10.06,-20.2,5.84,-14.01,6.032,10.73,-10.35,-3.003,14.19,22.27,21.4,5.362,17.47,17.85,0,0,0,0,0,0,0,0,0,0,0,0,0,0,0,0,
814,17.55,17.39,-13.41,-14.18,7.767,-3.485,10.8,12.66,1.846,-0.8227,-1.491,18.74,16.02,22.73,2.333,-1.414,0,0,0,0,0,0,0,0,0,0,0,0,0,0,0,0,
815,17.18,12.99,-8.636,8.112,1.925,6.687,11.04,26.34,19.81,1.763,6.707,22.53,14.12,39.18,6.008,-3.361,0,0,0,0,0,0,0,0,0,0,0,0,0,0,0,0,
816,11.5,11.84,8.458,8.132,3.687,3.545,5.492,28.31,-8.768,-2.309,6.843,15.77,8.712,-2.6,-0.6961,11.06,0,0,0,0,0,0,0,0,0,0,0,0,0,0,0,0,
817,1.861,8.191,9.48,-4.58,-2.209,-9.913,-5.482,21.35,-28.65,3.457,-1.629,7.143,4.244,-22.65,-4.775,19.7,0,0,0,0,0,0,0,0,0,0,0,0,0,0,0,0,
818,-4.657,2.008,-9.917,-8.911,-18.38,-17.55,-11.44,9.791,-14.66,7.567,1.626,7.872,8.767,5.194,5.688,26.58,0,0,0,0,0,0,0,0,0,0,0,0,0,0,0,0,
819,-2.513,1.679,-24.31,-18.48,-22.02,-15.04,-6.634,8.312,-12.28,-4.102,-0.8996,10.27,10.68,4.607,6.171,25.86,0,0,0,0,0,0,0,0,0,0,0,0,0,0,0,0,
820,1.232,-0.1859,-20.55,-31.07,-17.56,-12.79,-9.604,16.57,-26.69,-10.58,-3.811,17.19,13.56,4.221,3.922,12.15,0,0,0,0,0,0,0,0,0,0,0,0,0,0,0,0,
821,5.114,-0.7347,-13.58,-24.99,-16.85,-10.88,-17.28,8.449,-27.48,-8.081,9.621,25.51,26.35,19.74,8.052,1.053,0,0,0,0,0,0,0,0,0,0,0,0,0,0,0,0,
822,9.198,6.733,-32.38,-18.59,-18.27,-6.709,-9.768,-3.326,-12.79,-9.563,10.76,18.27,24.62,-1.742,-2.541,-5.148,0,0,0,0,0,0,0,0,0,0,0,0,0,0,0,0,
823,8.613,9.11,-40.02,-27.38,-22.77,-9.601,-0.543,7.77,3.302,-3.432,-5.617,5.061,6.921,-11.75,-15.85,-8.815,0,0,0,0,0,0,0,0,0,0,0,0,0,0,0,0,
824,8.014,7.982,-2.429,-22.29,-21.58,-16.33,1.307,17.34,8.624,5.968,-9.453,2.477,4.938,9.287,-10.48,-4.503,0,0,0,0,0,0,0,0,0,0,0,0,0,0,0,0,
825,6.947,12.35,12.46,-3.018,-13.12,-14.48,4.418,7.527,-2.008,-2.99,-7.688,2.157,9.322,1.164,-6.289,3.15,0,0,0,0,0,0,0,0,0,0,0,0,0,0,0,0,
826,2.637,9.87,-6.511,-3.403,-15.1,-11.3,-0.1793,-0.1424,-0.9465,-12.08,-8.533,-0.6381,4.148,-4.449,-9.23,3.792,0,0,0,0,0,0,0,0,0,0,0,0,0,0,0,0,
827,0.0881,0.778,-5.486,-17.84,-26.59,-16.4,-9.585,-5.039,14.16,-4.984,-4.155,-2.102,7.082,11.88,-5.431,-4.864,0,0,0,0,0,0,0,0,0,0,0,0,0,0,0,0,
828,-5.931,0.2152,-9.621,-18.45,-29.41,-17.89,-9.726,-8.183,-2.922,2.231,-12.57,-2.795,11.14,3.667,-8.676,-10.94,0,0,0,0,0,0,0,0,0,0,0,0,0,0,0,0,
829,-9.672,3.684,-22.82,-9.664,-21.63,-7.728,-7.979,10.16,-19.77,7.497,-28.84,-0.6498,3.688,-6.346,-17.81,-8.082,0,0,0,0,0,0,0,0,0,0,0,0,0,0,0,0,
830,-1.675,2.001,-18.3,-7.078,-19.09,-3.192,-6.089,25.71,8.827,8.579,-22.39,-0.0614,4.206,2.725,-5.115,-2.707,0,0,0,0,0,0,0,0,0,0,0,0,0,0,0,0,
831,-1.184,1.249,-23.49,-2.189,-23.63,-10.7,-0.2236,13.32,9.419,-0.972,-5.593,-3.662,10.08,4.558,12.7,5.111,0,0,0,0,0,0,0,0,0,0,0,0,0,0,0,0,
832,-3.631,5.513,-19.72,7.04,-13.49,-8.882,1.596,11.39,-23.75,-1.339,1.021,-0.3246,5.909,4.746,5.702,6.242,0,0,0,0,0,0,0,0,0,0,0,0,0,0,0,0,
833,14.32,10.71,14.55,6.53,8.199,3.505,5.77,25.76,-4.146,15.55,9.188,11.22,11.06,12,3.98,1.703,0,0,0,0,0,0,0,0,0,0,0,0,0,0,0,0,
834,34.2,22.1,29.08,9.848,15.84,10.87,22.62,18.1,34.92,27.13,24.01,22.5,32.31,19.5,29.1,19.57,0,0,0,0,0,0,0,0,0,0,0,0,0,0,0,0,
835,42.2,41.77,24.66,24.33,18.1,20.81,39.04,4.75,43.41,18.65,30.19,26.95,38.41,13.65,36.24,40.01,0,0,0,0,0,0,0,0,0,0,0,0,0,0,0,0,
836,41.5,45.69,22.94,21.78,22.12,29.35,37.67,8.602,39,6.598,14.6,16.66,20.08,-10.57,6.862,23.66,0,0,0,0,0,0,0,0,0,0,0,0,0,0,0,0,
837,20.99,23.6,8.908,6.6,4.853,16.83,19.24,6.419,0.6073,12.8,-13.81,0.2554,2.374,-16.03,-14.94,-2.01,0,0,0,0,0,0,0,0,0,0,0,0,0,0,0,0,
838,2.69,5.248,5.764,1.089,-18.36,0.774,4.457,0.5959,-30.82,16.26,-29.91,-2.555,-4.488,-2.832,-14.07,-8.697,0,0,0,0,0,0,0,0,0,0,0,0,0,0,0,0,
839,8.553,4.865,8.551,-2.504,-15.77,-0.8073,5.551,7.043,9.819,-1.929,-26.83,5.118,-4.771,-9.065,-15.38,-7.892,0,0,0,0,0,0,0,0,0,0,0,0,0,0,0,0,
840,5.428,5.824,-12.52,1.123,-11.68,-5.096,5.351,6.129,33.98,-13.64,-20.71,5.761,3.499,-13.56,-18.93,-7.806,0,0,0,0,0,0,0,0,0,0,0,0,0,0,0,0,
841,-9.794,4.221,-9.658,11.45,-23.77,-10.37,-2.227,1.907,-2.23,-10.54,-15.04,-1.331,8.375,-10.11,-11.02,-11.66,0,0,0,0,0,0,0,0,0,0,0,0,0,0,0,0,
842,-5.649,4.559,18.57,4.311,-25.82,-2.955,-2.495,10.12,-8.604,-4.996,-1.608,-3.91,1.012,-15.72,0.4063,-9.271,0,0,0,0,0,0,0,0,0,0,0,0,0,0,0,0,
843,1.987,4.299,8.699,-3.626,-19.11,0.5049,-0.3232,5.96,2.058,3.667,4.564,-3.854,0.8655,1.626,0.2517,2.844,0,0,0,0,0,0,0,0,0,0,0,0,0,0,0,0,
844,-3.072,7.133,-7.374,7.025,-19.79,-5.898,-3.633,1.825,-25.22,4.046,-6.112,-8.714,8.942,22.63,-9.867,2.59,0,0,0,0,0,0,0,0,0,0,0,0,0,0,0,0,
845,-7.699,9.654,2.778,6.681,-21.72,-9.739,-9.631,21.09,-34.39,2.691,-8.284,-11.46,3.984,1.365,-13.4,-0.5863,0,0,0,0,0,0,0,0,0,0,0,0,0,0,0,0,
846,-16.28,-1.554,-2.383,-10.72,-29.96,-16.91,-20.64,15.81,0.5588,10.62,-2.166,-10.5,-7.845,-20.65,-7.382,9.971,0,0,0,0,0,0,0,0,0,0,0,0,0,0,0,0,
847,-22.92,-14.89,-11.82,-15.04,-39.95,-20.45,-20.03,-7.16,22.2,2.708,-11.1,-8.837,-11.64,-15.69,-6.575,6.728,0,0,0,0,0,0,0,0,0,0,0,0,0,0,0,0,
848,-12.41,-12.13,-6.891,-6.984,-35.17,-9.085,-1.652,3.729,13.41,-11.3,-18.28,-4.203,-11.6,-14.76,-12.32,-11.7,0,0,0,0,0,0,0,0,0,0,0,0,0,0,0,0,
849,-6.071,-8.542,-13.08,-7.502,-33.71,-9.261,-2.622,4.459,3.064,-0.2556,-12.89,-8.396,-9.111,-15.42,-13.39,-11.61,0,0,0,0,0,0,0,0,0,0,0,0,0,0,0,0,
850,-12.98,-14.52,-12.64,-13.75,-40.8,-21.85,-21.7,-17.78,-9.213,11.79,-13.57,-18.25,1.128,5.514,-6.897,2.598,0,0,0,0,0,0,0,0,0,0,0,0,0,0,0,0,
851,-12.24,-14.1,2,-13.22,-36.79,-16.7,-23.77,-16.37,-27.93,1.934,-9.94,-11.73,11,26.66,0.7193,9.489,0,0,0,0,0,0,0,0,0,0,0,0,0,0,0,0,
852,-7.609,-8.05,-1.699,-8.78,-30.41,-10.68,-19.79,-19.24,-16.58,-11.75,6.01,-2.902,7.63,11.08,0.1753,8.88,0,0,0,0,0,0,0,0,0,0,0,0,0,0,0,0,
853,-6.33,-6.942,-6.327,-7.633,-25.01,-15.57,-17.64,-22.15,17.56,-11.86,8.622,-5.324,0.9381,-11.51,-3.654,6.217,0,0,0,0,0,0,0,0,0,0,0,0,0,0,0,0,
