%OpenBCI Raw EXG Data
%Number of channels = 16
%Sample Rate = 125 Hz
%Board = OpenBCI_GUI$BoardCytonSerialDaisy
Sample Index,EXG Channel 0,EXG Channel 1,EXG Channel 2,EXG Channel 3,EXG Channel 4,EXG Channel 5,EXG Channel 6,EXG Channel 7,EXG Channel 8,EXG Channel 9,EXG Channel 10,EXG Channel 11,EXG Channel 12,EXG Channel 13,EXG Channel 14,EXG Channel 15,Accel Channel 0,Accel Channel 1,Accel Channel 2,Other,Other.1,Other.2,Other.3,Other.4,Other.5,Other.6,Analog Channel 0,Analog Channel 1,Analog Channel 2,Timestamp,Other.7,Timestamp (Formatted),Annotations
1,0.0,0.0,0.0,0.0,0.0,0.0,0.0,0.0,-0.0,0.0,-0.0,0.0,0.0,0.0,0.0,0.0,0,0,0,0,0,0,0,0,0,0,0,0,0,0,0,0,T0
2,-73.48,-73.75,-76.82,-53.55,-72.55,-61.46,-57.74,-38.71,-79.26,-78.16,-76.38,-25.78,-56.52,-36.83,-34.01,-27.31,0,0,0,0,0,0,0,0,0,0,0,0,0,0,0,0,
3,-71.83,-69.9,-63.65,-52.47,-68.57,-65.92,-48.27,-32.9,-74.94,-71.07,-107.4,-45.59,-72.42,-51.95,-62.91,-56.48,0,0,0,0,0,0,0,0,0,0,0,0,0,0,0,0,
4,-85.59,-79.12,-70.08,-63.76,-77.25,-75.86,-84.21,-30.82,-86.26,-83.88,-101.3,-53.04,-72.91,-54.19,-61.58,-57.17,0,0,0,0,0,0,0,0,0,0,0,0,0,0,0,0,
5,-91.23,-85.24,-84.5,-63.57,-87.28,-73.92,-134.4,-31.21,-104.4,-91.74,-71.87,-38.76,-60.85,-40.58,-41.82,-38.8,0,0,0,0,0,0,0,0,0,0,0,0,0,0,0,0,
6,-69.88,-67.78,-69.11,-44.74,-76.92,-60.05,-119.3,-40.04,-91.11,-65.17,-67.28,-36.78,-53.6,-37.31,-42.84,-44.39,0,0,0,0,0,0,0,0,0,0,0,0,0,0,0,0,
7,-84.75,-78.69,-72.52,-54.51,-84.05,-73.33,-84.03,-62.6,-97.35,-81.64,-87.52,-50.76,-59.24,-49.39,-46.52,-52.52,0,0,0,0,0,0,0,0,0,0,0,0,0,0,0,0,
8,-81.86,-70.93,-58.28,-50.33,-67.32,-64.8,-54.08,-51.94,-89.49,-89.79,-76.44,-43.84,-43.64,-40.16,-33.78,-39.67,0,0,0,0,0,0,0,0,0,0,0,0,0,0,0,0,
9,-51.86,-44.57,-32.76,-35.47,-40.88,-44.92,-59.73,-35.94,-57.83,-62.86,-57.29,-33.95,-26.38,-28.46,-30.55,-34.43,0,0,0,0,0,0,0,0,0,0,0,0,0,0,0,0,
10,-51.99,-46.41,-39.91,-41.19,-40.9,-48.65,-79.21,-40.56,-54.21,-61.67,-53.35,-34.04,-26.84,-31.9,-34.13,-37.29,0,0,0,0,0,0,0,0,0,0,0,0,0,0,0,0,
11,-47.63,-42.12,-36.98,-37.22,-26.64,-39.4,-35.78,-35.58,-52.5,-62.27,-55.22,-33.22,-27.12,-33.95,-34.74,-38.56,0,0,0,0,0,0,0,0,0,0,0,0,0,0,0,0,
12,-31.25,-31.34,-22.09,-28.86,-7.455,-21.98,-12.0,-30.89,-38.27,-50.61,-66.74,-32.9,-28.51,-31.63,-33.32,-36.92,0,0,0,0,0,0,0,0,0,0,0,0,0,0,0,0,
13,-29.87,-29.97,-28.46,-23.82,-8.825,-14.05,-82.91,-26.82,-33.83,-42.33,-62.02,-26.95,-29.98,-22.8,-25.77,-27.59,0,0,0,0,0,0,0,0,0,0,0,0,0,0,0,0,
14,-36.63,-27.73,-47.56,-16.49,-21.45,-13.45,-130.7,-18.53,-41.85,-33.44,-52.23,-27.47,-35.35,-18.99,-28.22,-28.83,0,0,0,0,0,0,0,0,0,0,0,0,0,0,0,0,
15,-44.61,-28.58,-52.93,-14.69,-31.09,-17.31,-90.61,-16.14,-56.02,-34.86,-60.16,-33.32,-37.32,-18.11,-32.7,-33.0,0,0,0,0,0,0,0,0,0,0,0,0,0,0,0,0,
16,-36.11,-20.03,-31.75,-8.876,-19.23,-9.562,-36.97,-11.67,-47.66,-31.47,-59.23,-30.78,-24.71,-12.94,-28.23,-29.67,0,0,0,0,0,0,0,0,0,0,0,0,0,0,0,0,
17,-25.91,-17.21,-20.39,-11.83,-12.82,-10.55,-10.06,-17.37,-29.41,-26.67,-61.9,-36.78,-26.87,-27.32,-38.38,-40.56,0,0,0,0,0,0,0,0,0,0,0,0,0,0,0,0,
18,-35.74,-35.11,-25.15,-24.77,-24.06,-25.4,1.068,-26.09,-35.63,-41.88,-73.51,-39.84,-38.35,-43.67,-49.19,-49.28,0,0,0,0,0,0,0,0,0,0,0,0,0,0,0,0,
19,-36.92,-38.6,-15.33,-23.27,-21.76,-26.19,-20.24,-16.89,-38.3,-48.05,-66.85,-32.24,-32.99,-39.18,-44.76,-45.85,0,0,0,0,0,0,0,0,0,0,0,0,0,0,0,0,
20,-31.11,-33.14,-14.63,-20.46,-18.75,-27.41,-78.03,-15.53,-31.46,-44.67,-52.06,-33.33,-26.21,-34.42,-38.92,-45.66,0,0,0,0,0,0,0,0,0,0,0,0,0,0,0,0,
21,-34.47,-35.79,-29.5,-19.38,-25.11,-31.05,-104.9,-23.55,-37.28,-47.24,-40.77,-29.78,-19.07,-25.68,-26.72,-37.13,0,0,0,0,0,0,0,0,0,0,0,0,0,0,0,0,
22,-35.77,-31.75,-34.32,-11.46,-27.99,-24.93,-61.06,-13.76,-42.47,-41.09,-40.03,-20.56,-6.91,-8.878,-11.78,-22.71,0,0,0,0,0,0,0,0,0,0,0,0,0,0,0,0,
23,-35.81,-24.55,-31.95,-2.647,-28.9,-17.41,-27.61,7.572,-35.63,-29.68,-43.57,-11.3,4.265,8.777,-1.738,-8.16,0,0,0,0,0,0,0,0,0,0,0,0,0,0,0,0,
24,-36.47,-21.9,-28.25,7.494,-26.59,-7.325,-42.51,8.967,-21.83,-16.15,-44.53,0.4941,7.893,21.11,-1.94,1.794,0,0,0,0,0,0,0,0,0,0,0,0,0,0,0,0,
25,-39.1,-25.99,-27.38,8.462,-23.93,-4.125,-15.73,-9.053,-15.09,-10.27,-64.05,-2.128,-1.784,14.78,-15.83,-4.81,0,0,0,0,0,0,0,0,0,0,0,0,0,0,0,0,
26,-35.32,-24.9,-24.57,7.895,-16.45,-3.699,2.627,-3.278,-11.22,-14.21,-69.17,-5.954,-3.41,8.42,-18.86,-8.036,0,0,0,0,0,0,0,0,0,0,0,0,0,0,0,0,
27,-25.89,-17.3,-31.43,8.962,-18.45,-0.9493,-105.0,3.236,-11.28,-10.54,-47.76,-9.261,-8.649,0.7087,-20.53,-14.11,0,0,0,0,0,0,0,0,0,0,0,0,0,0,0,0,
28,-37.06,-28.28,-58.01,-7.037,-42.38,-14.34,-167.2,-22.43,-42.96,-22.14,-56.67,-28.3,-35.17,-24.54,-35.87,-34.08,0,0,0,0,0,0,0,0,0,0,0,0,0,0,0,0,
29,-40.29,-32.01,-51.06,-12.71,-35.74,-17.6,-72.21,-24.63,-60.82,-40.58,-68.14,-33.94,-37.53,-33.61,-32.99,-36.57,0,0,0,0,0,0,0,0,0,0,0,0,0,0,0,0,
30,-15.97,-15.07,-16.84,-7.106,-6.816,-6.635,-20.87,-11.46,-33.14,-34.98,-53.53,-30.77,-27.32,-32.23,-26.91,-37.26,0,0,0,0,0,0,0,0,0,0,0,0,0,0,0,0,
31,-14.57,-22.06,-19.34,-20.29,-17.52,-21.17,-42.83,-23.9,-32.38,-42.26,-57.75,-39.61,-45.64,-44.65,-40.94,-51.01,0,0,0,0,0,0,0,0,0,0,0,0,0,0,0,0,
32,-36.76,-42.21,-37.45,-27.59,-41.61,-41.01,-48.23,-25.73,-61.44,-62.49,-69.95,-40.3,-61.0,-46.99,-47.91,-49.71,0,0,0,0,0,0,0,0,0,0,0,0,0,0,0,0,
33,-51.34,-49.44,-45.64,-28.93,-47.23,-43.93,-83.35,-20.49,-73.63,-61.86,-65.13,-34.23,-56.7,-37.36,-43.68,-40.25,0,0,0,0,0,0,0,0,0,0,0,0,0,0,0,0,
34,-49.09,-47.5,-46.38,-36.5,-32.91,-35.92,-86.03,-23.99,-67.6,-49.34,-57.8,-24.61,-40.51,-20.9,-37.66,-31.7,0,0,0,0,0,0,0,0,0,0,0,0,0,0,0,0,
35,-29.61,-33.11,-35.35,-28.15,-7.17,-17.98,-39.58,-15.23,-38.69,-29.42,-53.86,-13.31,-22.19,-1.422,-32.35,-22.77,0,0,0,0,0,0,0,0,0,0,0,0,0,0,0,0,
36,-23.48,-23.37,-32.78,-14.8,-4.097,-8.052,-45.99,-3.241,-19.24,-14.23,-47.7,-10.83,-15.09,6.707,-26.62,-14.81,0,0,0,0,0,0,0,0,0,0,0,0,0,0,0,0,
37,-29.18,-22.13,-27.8,-12.48,-5.726,-8.02,-25.91,1.68,-22.83,-10.68,-38.94,-4.894,-3.372,14.03,-16.54,-1.669,0,0,0,0,0,0,0,0,0,0,0,0,0,0,0,0,
38,-24.38,-20.07,-12.78,-18.0,6.11,-12.14,24.06,-2.575,-11.23,-9.394,-43.16,-2.798,5.585,16.02,-15.23,2.013,0,0,0,0,0,0,0,0,0,0,0,0,0,0,0,0,
39,-23.29,-21.42,-12.83,-16.57,7.36,-15.22,-24.82,-0.427,-4.275,-15.83,-42.63,-6.346,2.52,11.25,-10.58,1.214,0,0,0,0,0,0,0,0,0,0,0,0,0,0,0,0,
40,-18.8,-13.8,-13.26,-0.5483,8.847,-6.177,-73.73,13.69,-14.04,-15.37,-20.18,-2.046,7.337,13.68,5.775,6.024,0,0,0,0,0,0,0,0,0,0,0,0,0,0,0,0,
41,-14.79,-12.19,-13.17,-9.216,6.032,-11.88,-27.88,-3.18,-18.48,-14.5,-20.75,-6.566,5.51,6.89,6.965,-0.9459,0,0,0,0,0,0,0,0,0,0,0,0,0,0,0,0,
42,-25.38,-25.54,-17.44,-29.98,-5.86,-26.7,9.452,-24.12,-25.25,-30.05,-33.97,-10.4,-1.018,0.5134,6.888,-1.89,0,0,0,0,0,0,0,0,0,0,0,0,0,0,0,0,
43,-25.47,-22.58,-7.396,-14.65,-4.035,-17.37,-6.022,-7.926,-29.24,-31.17,-22.71,-6.301,1.681,3.515,12.25,4.112,0,0,0,0,0,0,0,0,0,0,0,0,0,0,0,0,
44,-21.35,-16.52,-7.915,-0.1689,-7.389,-12.57,-28.72,-2.087,-35.68,-27.46,-24.15,-15.5,-10.41,-9.837,-1.342,-9.431,0,0,0,0,0,0,0,0,0,0,0,0,0,0,0,0,
45,-24.49,-17.68,-24.34,-5.971,-16.39,-18.72,-35.13,-10.17,-52.27,-38.61,-44.6,-24.86,-29.3,-27.24,-19.84,-26.11,0,0,0,0,0,0,0,0,0,0,0,0,0,0,0,0,
46,-23.81,-13.67,-31.06,-10.77,-12.93,-19.66,-25.59,-11.97,-55.57,-42.68,-58.24,-32.3,-39.15,-39.81,-34.03,-40.78,0,0,0,0,0,0,0,0,0,0,0,0,0,0,0,0,
47,-32.68,-23.07,-36.76,-23.41,-12.4,-27.59,-19.62,-17.62,-51.18,-47.28,-62.31,-40.12,-45.5,-52.21,-42.67,-52.01,0,0,0,0,0,0,0,0,0,0,0,0,0,0,0,0,
48,-42.24,-35.23,-46.46,-28.0,-12.29,-27.13,-51.13,-10.51,-51.16,-49.66,-52.21,-33.73,-44.74,-50.22,-39.72,-48.68,0,0,0,0,0,0,0,0,0,0,0,0,0,0,0,0,
49,-40.14,-31.17,-61.03,-14.62,-12.43,-17.49,-101.7,-2.934,-55.01,-41.0,-43.21,-30.42,-47.04,-44.39,-40.98,-48.44,0,0,0,0,0,0,0,0,0,0,0,0,0,0,0,0,
50,-41.21,-25.75,-72.88,-12.4,-16.66,-20.1,-90.47,-12.43,-63.71,-41.05,-42.14,-30.1,-49.49,-38.71,-41.63,-45.66,0,0,0,0,0,0,0,0,0,0,0,0,0,0,0,0,
51,-46.78,-28.42,-70.71,-28.89,-18.57,-28.98,-30.16,-20.57,-64.34,-43.21,-44.88,-23.47,-45.32,-28.03,-38.01,-32.4,0,0,0,0,0,0,0,0,0,0,0,0,0,0,0,0,
52,-53.78,-38.16,-70.13,-38.6,-26.07,-34.78,-7.672,-20.41,-65.26,-41.67,-56.33,-19.97,-42.05,-17.67,-36.54,-20.3,0,0,0,0,0,0,0,0,0,0,0,0,0,0,0,0,
53,-47.13,-33.33,-63.74,-22.79,-23.24,-25.44,-32.36,-7.076,-64.12,-33.98,-50.12,-8.758,-24.71,3.142,-20.22,-2.39,0,0,0,0,0,0,0,0,0,0,0,0,0,0,0,0,
54,-30.4,-15.82,-49.24,-11.67,-11.16,-13.78,-84.09,-3.314,-48.74,-16.13,-27.14,-4.801,-7.63,15.44,-5.673,4.647,0,0,0,0,0,0,0,0,0,0,0,0,0,0,0,0,
55,-31.92,-16.85,-45.25,-19.87,-13.5,-20.92,-92.46,-20.93,-49.32,-14.89,-25.36,-22.11,-11.77,3.143,-12.78,-8.864,0,0,0,0,0,0,0,0,0,0,0,0,0,0,0,0,
56,-29.08,-19.49,-32.87,-15.99,-3.997,-22.22,-3.809,-20.31,-50.49,-23.21,-39.81,-30.19,-8.708,-2.222,-17.04,-15.0,0,0,0,0,0,0,0,0,0,0,0,0,0,0,0,0,
57,-10.86,-10.99,-15.31,-9.349,18.44,-11.8,32.57,-12.47,-21.77,-16.75,-44.92,-24.62,3.805,4.066,-11.17,-10.36,0,0,0,0,0,0,0,0,0,0,0,0,0,0,0,0,
58,-7.026,-6.843,-14.19,-10.34,23.02,-6.877,-39.2,-22.83,-6.36,-10.29,-35.97,-20.76,5.354,4.792,-8.598,-7.614,0,0,0,0,0,0,0,0,0,0,0,0,0,0,0,0,
59,-12.31,-5.097,-16.58,-10.29,17.86,-8.592,-52.75,-31.02,-15.97,-15.79,-37.01,-26.85,-5.014,-7.486,-18.12,-17.2,0,0,0,0,0,0,0,0,0,0,0,0,0,0,0,0,
60,-18.09,-12.33,-22.09,-25.02,10.49,-19.37,-25.86,-31.7,-21.38,-33.2,-48.99,-38.93,-21.07,-26.62,-32.63,-34.43,0,0,0,0,0,0,0,0,0,0,0,0,0,0,0,0,
61,-23.91,-21.28,-32.83,-37.25,2.968,-25.82,-45.8,-27.17,-29.63,-45.59,-44.65,-43.39,-31.82,-35.43,-40.99,-43.7,0,0,0,0,0,0,0,0,0,0,0,0,0,0,0,0,
62,-20.59,-16.33,-32.22,-29.54,4.215,-22.1,-13.48,-24.21,-42.35,-45.78,-50.63,-52.05,-40.89,-44.69,-50.63,-52.58,0,0,0,0,0,0,0,0,0,0,0,0,0,0,0,0,
63,-8.188,-5.97,-13.48,-19.19,15.52,-16.85,26.45,-27.64,-37.24,-51.55,-68.27,-59.94,-47.1,-54.95,-52.72,-56.19,0,0,0,0,0,0,0,0,0,0,0,0,0,0,0,0,
64,4.321,4.108,-2.498,-12.12,20.88,-12.42,-52.12,-29.35,-28.56,-53.68,-59.99,-56.25,-48.31,-53.52,-46.04,-52.38,0,0,0,0,0,0,0,0,0,0,0,0,0,0,0,0,
65,0.9668,3.624,-18.8,-16.31,8.345,-18.17,-99.57,-32.71,-49.14,-53.11,-50.75,-55.61,-50.6,-49.98,-42.25,-50.81,0,0,0,0,0,0,0,0,0,0,0,0,0,0,0,0,
66,0.523,2.223,-18.26,-15.09,12.69,-15.44,-40.64,-27.5,-58.14,-52.95,-40.88,-42.21,-32.51,-34.08,-25.38,-34.62,0,0,0,0,0,0,0,0,0,0,0,0,0,0,0,0,
67,12.8,10.4,-2.586,-0.6265,26.24,-4.337,-23.43,-20.88,-28.85,-36.86,-26.68,-27.56,-11.83,-17.84,-17.12,-24.86,0,0,0,0,0,0,0,0,0,0,0,0,0,0,0,0,
68,-3.15,-0.5991,-16.86,-9.691,8.144,-17.64,-7.404,-29.24,-21.08,-31.39,-44.88,-36.86,-17.73,-20.86,-31.74,-35.4,0,0,0,0,0,0,0,0,0,0,0,0,0,0,0,0,
69,-23.72,-15.39,-20.22,-23.59,0.3705,-24.18,28.22,-27.01,-24.64,-34.43,-51.88,-34.58,-11.96,-9.892,-24.95,-25.73,0,0,0,0,0,0,0,0,0,0,0,0,0,0,0,0,
70,-17.19,-11.2,-14.87,-14.84,5.977,-10.89,-52.9,-20.25,-13.61,-19.1,-25.36,-25.47,1.378,7.75,-8.961,-12.39,0,0,0,0,0,0,0,0,0,0,0,0,0,0,0,0,
71,-14.58,-6.251,-34.9,-1.97,-3.442,-2.099,-107.8,-10.87,-26.63,-8.432,-19.22,-25.73,3.31,14.93,-6.791,-10.5,0,0,0,0,0,0,0,0,0,0,0,0,0,0,0,0,
72,-2.651,9.904,-29.36,12.98,14.79,19.77,-29.18,13.35,-23.29,7.563,-25.04,-9.069,18.2,32.74,1.605,5.69,0,0,0,0,0,0,0,0,0,0,0,0,0,0,0,0,
73,13.72,21.37,-16.16,15.29,36.33,31.34,-16.4,-0.5885,8.753,27.61,-25.41,5.846,22.89,41.59,6.12,16.64,0,0,0,0,0,0,0,0,0,0,0,0,0,0,0,0,
74,5.754,9.405,-23.08,6.413,30.77,17.47,-42.55,-32.06,9.245,19.98,-31.51,8.694,13.81,38.79,5.46,18.18,0,0,0,0,0,0,0,0,0,0,0,0,0,0,0,0,
75,9.203,10.27,-1.299,10.45,41.13,18.06,-4.359,-19.27,10.3,16.61,-35.57,12.3,16.67,40.23,5.878,21.54,0,0,0,0,0,0,0,0,0,0,0,0,0,0,0,0,
76,20.01,16.61,13.95,10.94,45.43,19.99,-25.74,-10.31,18.52,19.78,-33.48,3.294,8.838,27.18,-2.696,11.53,0,0,0,0,0,0,0,0,0,0,0,0,0,0,0,0,
77,13.59,15.0,-6.002,15.05,30.42,16.84,-80.12,-18.8,-3.425,6.585,-22.47,-7.372,-5.248,10.62,-8.75,-4.306,0,0,0,0,0,0,0,0,0,0,0,0,0,0,0,0,
78,13.47,22.39,-11.49,29.31,28.44,24.44,-50.55,-13.97,-16.25,0.6268,-19.85,-13.49,-12.04,-1.111,-17.26,-20.54,0,0,0,0,0,0,0,0,0,0,0,0,0,0,0,0,
79,13.84,21.38,-2.073,23.97,25.46,19.85,20.07,-14.39,-11.86,-5.973,-39.91,-23.69,-24.36,-19.37,-33.24,-34.92,0,0,0,0,0,0,0,0,0,0,0,0,0,0,0,0,
80,7.122,10.43,2.961,15.8,18.52,6.822,47.79,-18.26,-13.97,-18.12,-52.13,-28.09,-32.57,-31.2,-36.99,-36.61,0,0,0,0,0,0,0,0,0,0,0,0,0,0,0,0,
81,4.675,4.148,-2.992,16.24,11.3,-2.822,-7.361,-17.55,-19.65,-19.92,-43.21,-31.4,-37.18,-38.73,-32.64,-35.34,0,0,0,0,0,0,0,0,0,0,0,0,0,0,0,0,
82,-1.085,-2.011,-20.28,3.806,-5.252,-18.86,-60.05,-19.35,-38.46,-29.76,-31.57,-39.25,-46.9,-51.91,-32.49,-38.03,0,0,0,0,0,0,0,0,0,0,0,0,0,0,0,0,
83,-14.36,-10.77,-34.82,-14.18,-20.2,-37.69,-44.68,-26.57,-61.71,-54.01,-38.71,-53.01,-62.69,-71.76,-45.39,-51.33,0,0,0,0,0,0,0,0,0,0,0,0,0,0,0,0,
84,-28.66,-24.88,-44.14,-25.53,-29.84,-53.11,-57.77,-40.5,-76.53,-79.3,-57.81,-64.65,-78.69,-87.16,-60.45,-63.47,0,0,0,0,0,0,0,0,0,0,0,0,0,0,0,0,
85,-29.63,-28.69,-40.5,-28.13,-30.31,-54.52,-89.39,-43.83,-83.37,-89.13,-54.07,-54.19,-71.03,-74.43,-49.71,-47.14,0,0,0,0,0,0,0,0,0,0,0,0,0,0,0,0,
86,-24.13,-21.67,-30.58,-29.09,-26.09,-47.89,-52.0,-40.52,-76.27,-79.71,-44.27,-39.95,-50.44,-51.0,-31.0,-25.94,0,0,0,0,0,0,0,0,0,0,0,0,0,0,0,0,
87,-26.33,-25.21,-25.12,-30.92,-23.14,-46.41,-4.59,-39.44,-61.08,-68.86,-48.26,-32.58,-36.05,-35.77,-22.62,-18.76,0,0,0,0,0,0,0,0,0,0,0,0,0,0,0,0,
88,-22.29,-27.73,-16.33,-26.18,-15.63,-42.59,-19.1,-29.31,-42.69,-54.29,-40.66,-21.32,-21.55,-20.67,-14.45,-13.36,0,0,0,0,0,0,0,0,0,0,0,0,0,0,0,0,
89,-24.98,-28.95,-26.68,-24.37,-24.81,-41.78,-71.17,-20.73,-38.7,-42.18,-28.93,-13.9,-16.77,-9.637,-8.731,-8.426,0,0,0,0,0,0,0,0,0,0,0,0,0,0,0,0,
90,-35.68,-29.89,-41.09,-17.29,-36.45,-34.74,-78.11,-4.802,-51.01,-35.61,-24.52,2.837,-10.71,9.594,-0.2661,5.361,0,0,0,0,0,0,0,0,0,0,0,0,0,0,0,0,
91,-29.01,-18.01,-29.18,-2.503,-23.27,-16.19,-24.37,18.04,-40.47,-13.72,-27.29,19.79,2.861,28.95,3.539,13.96,0,0,0,0,0,0,0,0,0,0,0,0,0,0,0,0,
92,-27.81,-14.56,-32.07,0.9008,-17.12,-10.12,-12.36,20.16,-20.43,1.633,-39.49,16.63,3.872,29.55,-3.035,9.036,0,0,0,0,0,0,0,0,0,0,0,0,0,0,0,0,
93,-25.45,-10.13,-41.44,13.17,-9.842,2.608,-56.21,21.7,-13.42,7.437,-37.25,20.73,8.513,39.01,-0.1888,14.79,0,0,0,0,0,0,0,0,0,0,0,0,0,0,0,0,
94,-4.843,8.291,-31.24,29.11,10.82,25.25,-71.46,22.56,-0.5549,25.22,-31.38,22.6,14.84,47.53,-0.8258,12.67,0,0,0,0,0,0,0,0,0,0,0,0,0,0,0,0,
95,-2.243,11.35,-30.11,27.3,15.73,29.43,-49.57,15.77,5.704,28.23,-37.65,8.996,8.197,34.93,-10.36,-2.38,0,0,0,0,0,0,0,0,0,0,0,0,0,0,0,0,
96,-2.44,12.37,-18.8,35.08,20.91,32.14,-27.01,28.57,3.608,21.83,-33.22,2.552,4.045,22.3,-13.59,-9.4,0,0,0,0,0,0,0,0,0,0,0,0,0,0,0,0,
97,11.08,17.55,6.699,41.24,26.26,29.57,-10.61,24.33,1.566,17.78,-28.2,-8.265,-5.593,4.321,-18.72,-20.31,0,0,0,0,0,0,0,0,0,0,0,0,0,0,0,0,
98,9.158,6.543,11.27,25.19,16.03,11.11,3.251,-9.533,-9.981,-3.373,-21.65,-17.03,-14.12,-11.44,-14.4,-21.62,0,0,0,0,0,0,0,0,0,0,0,0,0,0,0,0,
99,-0.5089,-5.697,2.317,3.988,5.996,-5.558,-9.505,-23.23,-16.42,-21.81,-5.481,-14.62,-12.0,-14.95,-4.793,-13.09,0,0,0,0,0,0,0,0,0,0,0,0,0,0,0,0,
100,-11.45,-16.67,-8.447,-18.13,-8.786,-25.18,-31.14,-22.56,-25.4,-34.7,-9.612,-23.39,-22.16,-27.68,-13.07,-21.18,0,0,0,0,0,0,0,0,0,0,0,0,0,0,0,0,
101,-16.55,-22.33,-2.609,-23.31,-15.09,-33.99,-3.433,-21.96,-39.27,-50.83,-20.84,-29.93,-31.72,-38.19,-19.71,-27.22,0,0,0,0,0,0,0,0,0,0,0,0,0,0,0,0,
102,-7.484,-18.33,13.42,-18.58,-9.37,-30.41,14.49,-23.65,-37.84,-57.0,-17.24,-30.73,-36.01,-43.97,-20.6,-27.15,0,0,0,0,0,0,0,0,0,0,0,0,0,0,0,0,
103,-10.98,-24.45,5.635,-27.96,-18.63,-40.29,-13.11,-30.7,-47.87,-69.76,-14.35,-35.79,-47.6,-55.29,-24.53,-29.6,0,0,0,0,0,0,0,0,0,0,0,0,0,0,0,0,
104,-17.01,-27.42,1.198,-26.97,-18.18,-44.08,-3.95,-31.45,-58.99,-83.97,-19.71,-34.47,-47.25,-56.05,-25.15,-27.33,0,0,0,0,0,0,0,0,0,0,0,0,0,0,0,0,
105,-12.73,-25.27,7.201,-23.77,-5.808,-39.85,3.75,-36.19,-39.57,-82.67,-32.36,-33.71,-40.04,-50.42,-27.78,-27.01,0,0,0,0,0,0,0,0,0,0,0,0,0,0,0,0,
106,-17.58,-31.2,-3.089,-32.6,-9.775,-42.18,-47.69,-26.46,-25.59,-75.78,-26.47,-24.4,-30.8,-37.17,-18.02,-15.36,0,0,0,0,0,0,0,0,0,0,0,0,0,0,0,0,
107,-20.39,-28.67,-11.6,-29.65,-15.71,-37.11,-87.54,5.082,-28.5,-56.71,-5.136,-5.678,-15.33,-17.41,-0.4951,1.668,0,0,0,0,0,0,0,0,0,0,0,0,0,0,0,0,
108,-21.17,-28.98,-21.2,-27.68,-21.05,-33.66,-68.05,2.376,-31.66,-38.92,-16.88,-3.206,-14.62,-12.72,-6.326,-2.85,0,0,0,0,0,0,0,0,0,0,0,0,0,0,0,0,
109,-24.84,-32.55,-34.22,-25.78,-20.32,-30.14,4.259,-14.07,-29.43,-34.08,-45.99,-5.127,-17.86,-10.74,-20.34,-10.03,0,0,0,0,0,0,0,0,0,0,0,0,0,0,0,0,
110,-17.34,-17.86,-28.3,-6.303,-6.814,-15.39,27.54,0.3947,-11.89,-24.74,-55.73,-6.19,-14.93,-6.944,-27.38,-13.71,0,0,0,0,0,0,0,0,0,0,0,0,0,0,0,0,
111,-11.03,-4.203,-22.05,10.74,-5.998,-3.112,-79.07,9.97,-5.36,-18.45,-49.48,-9.653,-20.8,-8.039,-31.15,-20.12,0,0,0,0,0,0,0,0,0,0,0,0,0,0,0,0,
112,-10.36,-0.7538,-30.37,15.21,-14.78,5.602,-148.2,1.69,-23.45,-13.03,-39.73,-4.838,-25.29,-3.424,-28.58,-19.74,0,0,0,0,0,0,0,0,0,0,0,0,0,0,0,0,
113,-10.68,-2.806,-38.17,10.78,-19.19,7.04,-74.35,-2.484,-33.42,-5.105,-46.6,-6.604,-23.16,-2.873,-27.47,-21.36,0,0,0,0,0,0,0,0,0,0,0,0,0,0,0,0,
114,-15.86,-7.23,-36.76,12.78,-20.85,6.157,-12.49,5.408,-25.3,-4.508,-54.31,-10.59,-17.96,-2.376,-24.49,-21.04,0,0,0,0,0,0,0,0,0,0,0,0,0,0,0,0,
115,-18.11,-4.506,-32.74,20.97,-20.78,9.472,-11.94,9.772,-16.48,0.9125,-46.64,-7.17,-12.66,3.318,-19.65,-16.86,0,0,0,0,0,0,0,0,0,0,0,0,0,0,0,0,
116,-19.05,-9.956,-28.08,6.242,-22.5,-1.554,7.788,-3.623,-14.8,-0.1963,-43.63,-8.061,-9.469,0.8326,-17.31,-15.28,0,0,0,0,0,0,0,0,0,0,0,0,0,0,0,0,
117,-14.79,-15.26,-11.02,-3.155,-12.66,-5.946,-10.53,-6.605,-3.467,-7.992,-27.59,-3.759,1.977,4.351,-6.146,-5.147,0,0,0,0,0,0,0,0,0,0,0,0,0,0,0,0,
118,-6.9,-3.813,-3.606,14.02,0.3718,9.248,-81.69,1.84,7.206,0.3688,0.8238,-3.249,5.044,7.903,-1.084,-1.69,0,0,0,0,0,0,0,0,0,0,0,0,0,0,0,0,
119,-8.303,-0.7581,-10.74,15.18,1.84,12.63,-44.7,-0.1794,-7.757,2.496,3.648,-12.94,-5.238,-1.952,-7.892,-8.493,0,0,0,0,0,0,0,0,0,0,0,0,0,0,0,0,
120,-0.7161,-3.526,3.593,3.359,10.65,11.03,48.64,-0.172,-8.869,-5.117,-3.215,-12.27,-3.819,-5.802,-4.569,-3.748,0,0,0,0,0,0,0,0,0,0,0,0,0,0,0,0,
121,10.05,0.4525,15.39,4.307,11.55,11.95,2.545,-3.041,4.499,-7.865,4.413,-10.99,-2.061,-6.753,4.621,2.031,0,0,0,0,0,0,0,0,0,0,0,0,0,0,0,0,
122,4.801,-0.3986,11.32,5.149,-2.036,2.947,-48.57,-7.257,-11.98,-16.88,14.15,-14.29,-4.156,-10.38,9.584,1.778,0,0,0,0,0,0,0,0,0,0,0,0,0,0,0,0,
123,-2.072,-10.64,13.54,-12.83,-9.249,-16.03,13.05,-7.309,-25.62,-27.95,6.422,-18.99,-5.231,-15.57,3.462,-5.159,0,0,0,0,0,0,0,0,0,0,0,0,0,0,0,0,
124,-13.86,-29.02,2.399,-37.16,-22.49,-39.2,30.98,-20.71,-25.06,-42.11,-12.18,-24.96,-15.24,-21.65,-8.023,-14.34,0,0,0,0,0,0,0,0,0,0,0,0,0,0,0,0,
125,-16.87,-27.15,0.1387,-28.47,-24.13,-36.01,12.51,-22.42,-30.12,-46.49,-12.24,-14.43,-14.76,-9.436,-5.69,-7.378,0,0,0,0,0,0,0,0,0,0,0,0,0,0,0,0,
126,-0.4427,-2.601,17.4,-3.206,-10.97,-11.27,8.524,-6.507,-21.95,-24.16,-4.995,-4.422,-9.337,3.517,-6.042,-2.336,0,0,0,0,0,0,0,0,0,0,0,0,0,0,0,0,
127,-2.592,2.599,7.976,4.448,-20.81,-4.774,-28.76,-0.8008,-17.57,-9.985,-8.445,-6.37,-16.16,-0.0626,-15.78,-7.78,0,0,0,0,0,0,0,0,0,0,0,0,0,0,0,0,
128,-13.29,-2.652,0.9431,14.09,-27.12,-4.482,-2.926,13.76,-20.32,-8.346,-12.39,0.529,-12.2,2.415,-16.69,-7.11,0,0,0,0,0,0,0,0,0,0,0,0,0,0,0,0,
129,-9.861,-4.183,14.53,14.75,-16.45,-2.693,58.54,30.74,-5.571,0.9154,-19.07,3.322,-3.154,4.426,-13.27,-8.24,0,0,0,0,0,0,0,0,0,0,0,0,0,0,0,0,
130,-11.73,-12.52,7.877,-2.902,-20.55,-9.248,-3.312,18.98,-2.198,2.189,-17.63,-2.257,-4.156,-1.757,-6.391,-8.861,0,0,0,0,0,0,0,0,0,0,0,0,0,0,0,0,
131,-18.95,-17.19,-7.33,-10.86,-33.61,-15.95,-94.56,-8.244,-23.08,-7.233,-10.06,-8.228,-10.13,-9.688,-2.581,-10.0,0,0,0,0,0,0,0,0,0,0,0,0,0,0,0,0,
132,-29.53,-23.83,-12.08,-18.79,-41.53,-25.02,-77.39,-23.84,-40.48,-20.8,-17.51,-15.57,-17.09,-16.26,-6.344,-14.67,0,0,0,0,0,0,0,0,0,0,0,0,0,0,0,0,
133,-35.48,-30.27,-12.71,-26.06,-36.35,-27.07,-7.12,-16.17,-35.68,-24.89,-24.25,-11.04,-12.01,-8.035,-3.483,-8.013,0,0,0,0,0,0,0,0,0,0,0,0,0,0,0,0,
134,-28.47,-26.18,-16.43,-19.35,-29.39,-21.68,14.89,-8.55,-18.21,-15.48,-28.06,-8.076,-7.784,-0.0288,-4.211,-3.154,0,0,0,0,0,0,0,0,0,0,0,0,0,0,0,0,
135,-25.6,-24.56,-18.78,-10.82,-31.54,-19.0,-14.2,-8.229,-15.64,-14.12,-32.47,-9.393,-9.825,2.549,-7.594,-0.8445,0,0,0,0,0,0,0,0,0,0,0,0,0,0,0,0,
136,-20.4,-18.53,-4.659,-0.3804,-22.51,-6.696,-24.22,6.46,-14.34,-5.992,-28.2,0.2804,-0.9909,12.07,-6.605,4.406,0,0,0,0,0,0,0,0,0,0,0,0,0,0,0,0,
137,-15.41,-13.51,-2.847,1.22,-20.7,-2.023,-32.43,13.0,-7.714,5.989,-28.48,-1.194,-1.603,5.345,-14.17,-7.083,0,0,0,0,0,0,0,0,0,0,0,0,0,0,0,0,
138,-21.92,-17.11,-19.64,-4.806,-32.13,-9.134,-56.51,4.372,-18.63,-5.615,-18.04,-6.571,-6.7,-5.693,-11.11,-13.69,0,0,0,0,0,0,0,0,0,0,0,0,0,0,0,0,
139,-16.53,-5.939,-14.53,1.675,-22.85,-1.457,-26.82,-0.2675,-22.69,-12.84,1.901,-4.841,1.181,-3.364,-0.7236,-8.769,0,0,0,0,0,0,0,0,0,0,0,0,0,0,0,0,
140,-6.346,4.67,-2.809,2.105,-13.32,2.563,18.89,-9.907,-13.33,-11.22,-0.3172,-15.89,-1.665,-11.78,-7.39,-15.68,0,0,0,0,0,0,0,0,0,0,0,0,0,0,0,0,
141,-6.085,-0.4105,0.8675,-7.438,-14.63,-4.188,13.2,-11.1,-14.19,-17.01,-0.0384,-20.46,-6.191,-15.79,-8.641,-15.38,0,0,0,0,0,0,0,0,0,0,0,0,0,0,0,0,
142,-5.729,-4.283,9.682,-12.23,-8.963,-6.161,7.911,-0.424,-12.68,-14.82,5.1,-13.84,-1.241,-6.831,-4.232,-10.49,0,0,0,0,0,0,0,0,0,0,0,0,0,0,0,0,
143,-7.825,-7.218,15.2,-14.52,-3.351,-4.766,31.54,2.536,-4.511,-11.37,-0.6063,-12.93,1.279,-4.248,-6.249,-14.92,0,0,0,0,0,0,0,0,0,0,0,0,0,0,0,0,
144,-2.062,-4.478,20.67,-6.928,6.364,5.676,46.03,6.11,6.743,-5.742,5.947,-8.999,6.953,-1.489,-5.772,-15.48,0,0,0,0,0,0,0,0,0,0,0,0,0,0,0,0,
145,9.092,-0.6047,24.54,1.618,12.55,12.79,25.52,10.48,14.49,6.279,8.504,-5.735,6.205,-1.147,-12.61,-17.13,0,0,0,0,0,0,0,0,0,0,0,0,0,0,0,0,
146,10.43,-2.118,28.8,5.171,10.41,12.13,-4.295,14.69,6.606,8.924,-0.0267,-1.049,0.5558,-2.589,-19.25,-17.28,0,0,0,0,0,0,0,0,0,0,0,0,0,0,0,0,
147,12.38,5.596,39.29,15.86,15.13,17.28,2.973,15.88,3.449,9.472,-2.795,2.668,1.528,-1.023,-18.32,-15.72,0,0,0,0,0,0,0,0,0,0,0,0,0,0,0,0,
148,12.95,13.24,34.4,22.98,14.7,16.68,35.74,9.856,9.881,5.423,-10.95,-6.347,-1.028,-5.105,-19.09,-18.61,0,0,0,0,0,0,0,0,0,0,0,0,0,0,0,0,
149,17.18,17.2,30.0,23.92,13.56,17.79,45.53,21.04,11.75,-2.819,-0.249,-5.958,3.839,-3.064,-5.525,-7.034,0,0,0,0,0,0,0,0,0,0,0,0,0,0,0,0,
150,32.17,26.86,45.17,27.28,25.25,31.04,31.76,33.04,14.35,4.989,40.69,11.69,25.68,13.14,25.53,19.34,0,0,0,0,0,0,0,0,0,0,0,0,0,0,0,0,
151,43.81,38.82,61.37,36.63,44.11,46.27,57.01,25.15,27.72,24.45,68.07,32.1,54.6,37.19,53.63,44.08,0,0,0,0,0,0,0,0,0,0,0,0,0,0,0,0,
152,51.47,48.73,67.51,39.88,57.37,53.47,98.62,20.14,55.85,42.34,50.43,31.79,59.97,42.2,45.77,38.29,0,0,0,0,0,0,0,0,0,0,0,0,0,0,0,0,
153,31.26,25.71,32.81,8.896,24.99,26.34,35.59,3.55,49.9,29.38,-9.312,-2.931,11.03,5.644,-6.048,-7.842,0,0,0,0,0,0,0,0,0,0,0,0,0,0,0,0,
154,-12.35,-16.27,-20.25,-19.67,-25.97,-8.392,-63.25,-18.47,-6.961,-10.31,-53.48,-20.58,-32.82,-19.51,-37.94,-32.26,0,0,0,0,0,0,0,0,0,0,0,0,0,0,0,0,
155,-19.47,-17.24,-24.47,-12.27,-30.38,-7.491,-51.2,-16.49,-29.93,-20.0,-54.18,-8.695,-27.8,-11.41,-31.55,-22.47,0,0,0,0,0,0,0,0,0,0,0,0,0,0,0,0,
156,-9.087,-5.475,-13.77,-13.28,-27.2,-8.103,-22.07,-12.3,-18.57,-15.4,-54.45,-10.64,-28.36,-14.58,-28.84,-22.05,0,0,0,0,0,0,0,0,0,0,0,0,0,0,0,0,
157,-18.39,-14.35,-25.51,-19.04,-43.1,-20.19,-68.07,-11.18,-32.96,-26.56,-49.6,-13.05,-38.87,-21.23,-21.95,-18.98,0,0,0,0,0,0,0,0,0,0,0,0,0,0,0,0,
158,-26.73,-20.25,-36.14,-13.44,-50.0,-25.4,-97.31,-10.58,-46.88,-33.47,-26.48,-15.66,-33.52,-25.5,-8.72,-13.74,0,0,0,0,0,0,0,0,0,0,0,0,0,0,0,0,
159,-28.64,-23.1,-30.72,-20.21,-46.24,-33.78,-53.66,-11.47,-41.48,-43.12,-6.873,-27.54,-21.61,-33.27,-2.226,-16.6,0,0,0,0,0,0,0,0,0,0,0,0,0,0,0,0,
160,-14.66,-16.64,2.28,-19.19,-23.97,-28.1,3.652,-3.633,-23.17,-43.79,6.897,-24.63,-6.089,-25.74,1.335,-14.89,0,0,0,0,0,0,0,0,0,0,0,0,0,0,0,0,
161,6.608,-2.89,24.97,-8.318,-4.864,-16.59,24.39,-13.08,-1.01,-30.54,3.568,-24.05,-4.286,-23.15,-8.648,-19.94,0,0,0,0,0,0,0,0,0,0,0,0,0,0,0,0,
162,7.292,-3.236,13.83,-8.458,-10.14,-19.14,35.72,-26.24,0.2837,-32.62,-6.341,-26.55,-10.0,-25.12,-15.88,-19.08,0,0,0,0,0,0,0,0,0,0,0,0,0,0,0,0,
163,5.559,-8.388,16.56,-5.123,-9.24,-12.32,11.56,-12.4,-1.31,-26.6,5.744,-11.88,-1.125,-8.198,-6.526,-3.624,0,0,0,0,0,0,0,0,0,0,0,0,0,0,0,0,
164,5.322,-14.02,23.24,-2.477,-6.567,-2.426,-60.61,-2.358,-0.2504,-8.059,17.09,-4.286,2.158,4.096,-3.877,-1.589,0,0,0,0,0,0,0,0,0,0,0,0,0,0,0,0,
165,-1.12,-16.57,14.7,-5.269,-6.806,-1.143,-17.48,6.415,-7.783,-4.463,7.521,-6.492,2.173,6.473,-4.926,-5.369,0,0,0,0,0,0,0,0,0,0,0,0,0,0,0,0,
166,1.593,-10.31,21.92,-2.357,9.011,3.304,104.1,12.27,8.623,-0.7218,-5.242,-3.635,12.59,9.457,-0.0959,-2.474,0,0,0,0,0,0,0,0,0,0,0,0,0,0,0,0,
167,7.916,-7.339,31.99,4.651,20.92,6.775,60.84,-5.45,33.62,3.02,2.483,1.771,17.86,8.342,5.421,0.6166,0,0,0,0,0,0,0,0,0,0,0,0,0,0,0,0,
168,10.7,-6.761,22.31,2.974,13.56,1.679,-47.52,-5.433,24.21,-4.151,15.98,2.467,11.27,3.105,3.327,-1.509,0,0,0,0,0,0,0,0,0,0,0,0,0,0,0,0,
169,3.569,-15.64,4.87,-21.4,-4.617,-15.59,-37.01,7.337,-0.4513,-16.81,0.2895,-5.973,-2.606,-7.133,-10.48,-11.67,0,0,0,0,0,0,0,0,0,0,0,0,0,0,0,0,
170,-8.13,-25.92,-3.076,-32.37,-14.08,-21.34,-2.787,-3.541,-10.85,-24.66,-17.28,-2.021,-6.783,-4.884,-13.54,-10.93,0,0,0,0,0,0,0,0,0,0,0,0,0,0,0,0,
171,-3.252,-14.28,-1.87,-10.98,-6.365,-3.712,8.913,-10.06,-5.413,-12.99,-19.77,7.607,-4.054,6.571,-9.449,-6.148,0,0,0,0,0,0,0,0,0,0,0,0,0,0,0,0,
172,-0.6173,-7.285,-2.974,-4.731,-2.619,4.331,16.9,-2.463,-1.586,-2.482,-27.32,-0.7425,-12.56,3.071,-16.16,-13.84,0,0,0,0,0,0,0,0,0,0,0,0,0,0,0,0,
173,-0.7161,-5.65,5.817,-1.585,1.905,11.23,-23.21,4.229,-4.422,-1.267,-18.62,-3.876,-15.03,2.546,-16.29,-13.97,0,0,0,0,0,0,0,0,0,0,0,0,0,0,0,0,
174,14.53,9.722,13.17,16.36,7.681,25.6,-51.94,7.588,-4.66,10.25,-7.918,-3.013,-12.64,6.265,-14.25,-11.91,0,0,0,0,0,0,0,0,0,0,0,0,0,0,0,0,
175,17.26,10.34,6.254,12.92,0.3042,21.28,-0.456,8.199,-5.939,12.24,-15.81,-7.523,-13.84,2.12,-14.44,-11.89,0,0,0,0,0,0,0,0,0,0,0,0,0,0,0,0,
176,12.44,4.216,23.07,5.26,3.29,15.55,53.64,13.21,1.35,2.403,-9.034,-2.561,-3.231,4.276,-5.69,-2.768,0,0,0,0,0,0,0,0,0,0,0,0,0,0,0,0,
177,17.89,8.812,44.4,10.88,9.416,16.76,28.05,18.88,13.87,0.0408,2.422,-0.8712,4.202,8.041,-0.5955,0.7298,0,0,0,0,0,0,0,0,0,0,0,0,0,0,0,0,
178,10.9,4.449,30.93,9.71,-2.103,11.84,-36.47,21.78,8.89,1.157,10.36,3.322,6.817,15.13,7.01,5.281,0,0,0,0,0,0,0,0,0,0,0,0,0,0,0,0,
179,-3.131,-5.745,15.54,3.578,-7.735,8.285,-24.11,12.23,1.238,5.702,19.12,11.57,15.82,22.29,15.42,9.265,0,0,0,0,0,0,0,0,0,0,0,0,0,0,0,0,
180,-2.824,-10.78,19.38,-1.226,1.65,5.371,72.52,-6.69,8.763,5.06,6.236,3.045,19.91,15.56,11.48,0.3756,0,0,0,0,0,0,0,0,0,0,0,0,0,0,0,0,
181,13.61,-0.3772,34.62,4.782,18.1,11.55,87.51,1.852,28.85,5.925,5.514,0.0267,28.02,16.96,15.76,2.026,0,0,0,0,0,0,0,0,0,0,0,0,0,0,0,0,
182,24.38,14.48,38.19,12.22,19.82,17.85,-19.44,15.02,38.9,16.03,25.28,2.35,28.11,18.34,17.02,3.156,0,0,0,0,0,0,0,0,0,0,0,0,0,0,0,0,
183,10.88,4.891,23.16,6.025,1.356,3.81,-62.1,2.63,15.84,7.769,21.6,-5.851,9.574,2.726,2.009,-9.568,0,0,0,0,0,0,0,0,0,0,0,0,0,0,0,0,
184,2.415,-3.889,26.09,6.375,0.0267,-3.895,-3.304,2.815,-3.593,-5.676,14.88,-7.194,5.617,-4.298,-3.69,-12.72,0,0,0,0,0,0,0,0,0,0,0,0,0,0,0,0,
185,9.678,4.365,33.46,8.277,10.41,0.6171,47.39,10.75,2.466,-6.927,14.43,-9.67,10.72,-6.016,-4.405,-11.96,0,0,0,0,0,0,0,0,0,0,0,0,0,0,0,0,
186,16.01,8.501,29.02,3.147,17.64,3.095,101.3,5.917,13.89,-11.46,4.851,-11.04,12.55,-6.08,-3.963,-8.468,0,0,0,0,0,0,0,0,0,0,0,0,0,0,0,0,
187,24.33,12.88,35.84,4.808,30.74,8.326,107.6,3.245,34.08,-6.109,8.171,-1.559,19.44,3.249,3.763,0.3215,0,0,0,0,0,0,0,0,0,0,0,0,0,0,0,0,
188,21.32,15.57,28.4,3.461,29.51,6.135,5.412,4.167,37.84,1.906,21.98,-1.338,17.41,6.401,5.605,0.0415,0,0,0,0,0,0,0,0,0,0,0,0,0,0,0,0,
189,13.09,14.8,13.07,5.298,25.78,5.581,-44.27,16.72,16.7,1.592,26.63,-1.264,14.0,11.15,6.378,1.131,0,0,0,0,0,0,0,0,0,0,0,0,0,0,0,0,
190,18.11,14.37,20.62,13.8,35.44,14.11,12.98,25.72,13.85,12.25,20.0,9.266,18.86,23.03,11.31,7.274,0,0,0,0,0,0,0,0,0,0,0,0,0,0,0,0,
191,21.37,8.764,21.71,13.44,38.17,15.88,56.69,11.9,23.14,22.04,9.75,18.47,22.17,30.51,15.01,12.45,0,0,0,0,0,0,0,0,0,0,0,0,0,0,0,0,
192,27.23,13.36,14.87,14.93,42.24,18.23,58.21,1.768,29.15,23.07,6.997,19.25,22.01,30.61,15.15,14.48,0,0,0,0,0,0,0,0,0,0,0,0,0,0,0,0,
193,28.03,18.32,4.79,11.79,36.96,15.89,1.312,-3.208,26.27,16.58,7.99,7.421,9.057,17.26,8.781,5.992,0,0,0,0,0,0,0,0,0,0,0,0,0,0,0,0,
194,7.619,5.992,-21.12,-0.4188,13.4,6.095,-59.7,-6.543,-0.8858,0.2195,6.682,1.567,-4.421,7.602,3.784,1.353,0,0,0,0,0,0,0,0,0,0,0,0,0,0,0,0,
195,-5.977,-1.491,-32.77,-3.211,6.556,5.815,-12.77,0.8742,-14.91,-2.298,-6.479,1.779,-2.437,10.05,-1.876,2.221,0,0,0,0,0,0,0,0,0,0,0,0,0,0,0,0,
196,-7.307,-0.0063,-20.32,1.403,17.08,11.15,43.75,6.815,5.043,7.241,-17.59,-3.226,7.251,13.43,-1.212,4.487,0,0,0,0,0,0,0,0,0,0,0,0,0,0,0,0,
197,-0.4692,10.75,-4.146,13.81,32.67,23.99,16.59,13.19,27.26,19.33,3.884,5.581,26.62,27.55,17.43,18.98,0,0,0,0,0,0,0,0,0,0,0,0,0,0,0,0,
198,14.34,21.76,-0.7066,12.57,38.97,25.49,-0.0639,4.353,34.79,29.48,17.07,10.72,33.55,33.29,19.73,20.48,0,0,0,0,0,0,0,0,0,0,0,0,0,0,0,0,
199,8.328,5.735,-15.39,-13.52,21.09,-0.6547,13.84,-18.48,22.36,12.79,0.8323,2.444,18.07,21.52,4.433,8.607,0,0,0,0,0,0,0,0,0,0,0,0,0,0,0,0,
200,-8.698,-11.15,-22.95,-18.2,8.852,-12.83,8.498,-7.378,7.604,-3.603,0.8531,7.932,11.12,22.07,3.965,11.05,0,0,0,0,0,0,0,0,0,0,0,0,0,0,0,0,
201,-15.39,-10.85,-20.44,-7.433,6.336,-10.48,7.355,12.92,1.976,2.181,1.889,11.5,5.373,22.96,2.008,9.588,0,0,0,0,0,0,0,0,0,0,0,0,0,0,0,0,
202,-19.9,-13.48,-17.71,-10.16,-1.179,-16.98,16.55,2.99,-6.273,-1.193,-10.94,7.367,-5.431,15.33,-7.291,0.6355,0,0,0,0,0,0,0,0,0,0,0,0,0,0,0,0,
203,-22.52,-18.92,-13.83,-12.99,-6.118,-20.37,-4.914,-12.0,-10.16,-8.59,-14.8,3.901,-10.25,9.567,-13.06,-5.822,0,0,0,0,0,0,0,0,0,0,0,0,0,0,0,0,
204,-31.87,-28.69,-23.66,-18.53,-14.82,-25.49,-25.74,-15.82,-17.4,-13.69,-16.55,-4.854,-12.42,4.287,-11.32,-7.894,0,0,0,0,0,0,0,0,0,0,0,0,0,0,0,0,
205,-32.48,-24.18,-20.25,-11.74,-4.86,-18.88,10.07,-2.059,-18.84,-13.83,-6.657,1.128,4.046,14.68,6.728,6.659,0,0,0,0,0,0,0,0,0,0,0,0,0,0,0,0,
206,-9.815,0.0761,6.464,8.058,22.08,1.678,31.54,11.97,6.034,4.249,8.404,8.033,20.07,23.03,12.94,10.56,0,0,0,0,0,0,0,0,0,0,0,0,0,0,0,0,
207,-3.883,0.6437,1.519,0.8855,14.24,-2.981,-10.4,1.442,10.09,8.413,0.1061,-5.46,5.904,8.172,-1.982,-7.702,0,0,0,0,0,0,0,0,0,0,0,0,0,0,0,0,
208,-14.82,-14.03,-21.6,-14.36,-5.772,-19.38,-32.95,-12.57,-14.43,-7.249,-10.54,-13.23,-7.769,-3.477,-8.837,-16.55,0,0,0,0,0,0,0,0,0,0,0,0,0,0,0,0,
209,-12.81,-15.3,-18.75,-11.29,-3.112,-21.69,-23.39,-16.91,-22.26,-15.7,-9.576,-14.54,-13.22,-10.96,-14.33,-20.05,0,0,0,0,0,0,0,0,0,0,0,0,0,0,0,0,
210,-6.691,-13.43,-8.811,-8.933,-0.2446,-19.91,-21.56,-11.84,-25.36,-22.05,-10.92,-15.27,-24.11,-19.95,-21.65,-22.87,0,0,0,0,0,0,0,0,0,0,0,0,0,0,0,0,
211,-5.277,-9.027,-10.62,-13.75,-1.439,-19.17,-2.199,-0.9064,-32.94,-26.67,-21.66,-11.28,-29.08,-19.25,-21.42,-17.32,0,0,0,0,0,0,0,0,0,0,0,0,0,0,0,0,
212,-4.79,-1.375,-8.143,-14.82,7.926,-17.07,31.27,4.695,-26.32,-26.15,-29.41,-7.376,-21.74,-8.355,-15.68,-5.781,0,0,0,0,0,0,0,0,0,0,0,0,0,0,0,0,
213,6.025,9.456,10.17,-4.494,25.3,-4.579,26.26,8.984,-7.455,-15.39,-14.97,2.487,-8.222,9.278,-4.218,7.561,0,0,0,0,0,0,0,0,0,0,0,0,0,0,0,0,
214,11.25,10.77,5.588,-6.798,18.03,0.4013,-37.05,-5.446,-2.605,-1.724,-7.2,3.439,-11.79,9.184,-3.787,3.485,0,0,0,0,0,0,0,0,0,0,0,0,0,0,0,0,
215,-7.942,-6.46,-27.52,-24.16,-8.83,-11.65,-78.91,-28.0,-25.03,-8.691,-16.07,-4.547,-21.71,-3.465,-8.497,-5.057,0,0,0,0,0,0,0,0,0,0,0,0,0,0,0,0,
216,-11.75,-7.137,-25.72,-15.25,-3.09,-5.502,-28.78,-15.29,-29.61,-9.826,-11.5,-0.9717,-8.438,0.4536,-2.455,-0.8002,0,0,0,0,0,0,0,0,0,0,0,0,0,0,0,0,
217,-0.5472,3.199,-1.295,0.5314,13.58,6.933,23.25,1.072,-5.766,3.295,-11.25,-2.768,-0.897,0.2318,-4.956,-6.822,0,0,0,0,0,0,0,0,0,0,0,0,0,0,0,0,
218,-6.045,-0.4431,7.248,-1.867,12.54,5.925,15.08,-1.97,1.567,1.223,-12.98,-5.15,-5.175,-4.221,-7.97,-10.81,0,0,0,0,0,0,0,0,0,0,0,0,0,0,0,0,
219,-4.45,4.827,15.47,2.119,17.76,11.69,3.873,1.811,0.3863,2.209,0.7389,1.384,0.2129,3.138,-1.074,-2.527,0,0,0,0,0,0,0,0,0,0,0,0,0,0,0,0,
220,1.028,11.13,11.15,8.423,17.83,16.11,12.31,11.76,2.225,9.323,2.329,2.823,2.773,7.939,3.641,2.344,0,0,0,0,0,0,0,0,0,0,0,0,0,0,0,0,
221,-5.371,5.233,-2.421,9.81,10.76,14.76,38.69,21.79,1.52,10.89,-3.247,11.57,7.144,14.63,12.19,12.21,0,0,0,0,0,0,0,0,0,0,0,0,0,0,0,0,
222,-13.12,-3.757,-9.995,2.932,2.068,6.928,28.47,10.51,3.467,12.04,-4.783,15.48,7.576,13.99,12.53,13.71,0,0,0,0,0,0,0,0,0,0,0,0,0,0,0,0,
223,-23.28,-16.34,-20.91,-8.95,-14.75,-7.806,-52.48,-8.817,-12.06,-0.8416,-5.934,6.587,-4.395,3.09,4.013,5.42,0,0,0,0,0,0,0,0,0,0,0,0,0,0,0,0,
224,-16.36,-10.24,-15.0,3.156,-8.695,-0.8773,-80.64,8.338,-28.76,-6.848,-1.072,8.222,-6.456,4.301,1.753,4.922,0,0,0,0,0,0,0,0,0,0,0,0,0,0,0,0,
225,2.683,7.03,-6.23,18.31,6.941,11.37,-31.98,17.16,-22.32,2.366,-12.52,2.612,-10.69,-1.665,-10.98,-6.673,0,0,0,0,0,0,0,0,0,0,0,0,0,0,0,0,
226,6.008,10.11,-12.99,15.77,4.288,9.141,-11.04,-0.3322,-20.43,-3.685,-27.15,-7.552,-18.42,-13.51,-21.19,-17.97,0,0,0,0,0,0,0,0,0,0,0,0,0,0,0,0,
227,11.02,18.03,-2.331,19.01,9.247,14.37,2.81,5.03,-17.18,-5.046,-19.46,-1.718,-12.15,-10.66,-14.42,-13.66,0,0,0,0,0,0,0,0,0,0,0,0,0,0,0,0,
228,16.07,25.32,6.921,21.57,13.65,18.38,18.1,14.54,-5.568,2.963,-18.87,1.948,-12.28,-10.08,-13.41,-12.3,0,0,0,0,0,0,0,0,0,0,0,0,0,0,0,0,
229,11.14,20.91,-2.894,19.38,7.756,17.73,-17.15,11.4,-6.98,1.361,-23.3,2.495,-17.82,-8.345,-14.31,-8.117,0,0,0,0,0,0,0,0,0,0,0,0,0,0,0,0,
230,5.984,12.22,-7.8,10.23,3.049,11.54,-55.8,8.993,-13.47,0.5519,-22.73,-1.645,-21.03,-6.638,-14.38,-6.705,0,0,0,0,0,0,0,0,0,0,0,0,0,0,0,0,
231,-3.57,-2.438,-13.72,-5.33,-4.939,-6.848,-42.66,4.319,-19.82,-6.512,-30.66,-9.259,-26.48,-13.47,-18.42,-13.31,0,0,0,0,0,0,0,0,0,0,0,0,0,0,0,0,
232,-0.2589,-0.1988,-13.36,3.144,0.5291,-5.506,4.474,-0.8642,-17.99,-11.22,-37.41,-4.061,-20.71,-11.87,-18.63,-12.12,0,0,0,0,0,0,0,0,0,0,0,0,0,0,0,0,
233,11.31,11.93,-2.814,10.62,11.56,5.591,21.68,-16.87,-3.083,-3.819,-40.38,-2.434,-13.38,-9.727,-18.73,-9.818,0,0,0,0,0,0,0,0,0,0,0,0,0,0,0,0,
234,5.365,8.067,-3.841,-5.949,5.83,-0.194,-38.16,-24.5,-0.5099,-4.033,-28.73,-1.968,-10.74,-7.695,-11.06,-2.229,0,0,0,0,0,0,0,0,0,0,0,0,0,0,0,0,
235,3.348,10.02,-12.99,-7.016,1.607,0.693,-93.74,-2.786,-9.663,-1.631,-3.483,8.54,-3.077,4.443,2.68,10.68,0,0,0,0,0,0,0,0,0,0,0,0,0,0,0,0,
236,9.493,17.15,-15.23,5.724,5.84,8.627,-55.61,9.824,-11.83,6.703,8.49,13.7,5.36,13.2,11.26,15.4,0,0,0,0,0,0,0,0,0,0,0,0,0,0,0,0,
237,15.83,21.12,5.117,14.22,18.53,15.68,11.73,9.185,0.2662,13.39,23.35,18.58,20.93,20.12,24.1,20.23,0,0,0,0,0,0,0,0,0,0,0,0,0,0,0,0,
238,29.29,29.38,32.64,15.86,32.67,19.74,48.66,16.06,19.92,21.78,37.98,17.84,34.02,21.79,30.76,18.52,0,0,0,0,0,0,0,0,0,0,0,0,0,0,0,0,
239,33.8,27.99,37.27,9.078,34.67,12.71,78.59,21.2,29.13,17.51,32.2,9.557,34.21,16.54,27.57,10.99,0,0,0,0,0,0,0,0,0,0,0,0,0,0,0,0,
240,26.99,22.21,30.71,8.488,33.16,7.605,68.89,10.74,33.33,9.989,27.33,7.456,28.74,11.54,21.05,5.007,0,0,0,0,0,0,0,0,0,0,0,0,0,0,0,0,
241,8.797,11.29,14.47,-2.552,16.9,-4.582,12.91,-23.46,22.56,1.981,15.86,-1.581,7.302,-5.407,2.569,-9.615,0,0,0,0,0,0,0,0,0,0,0,0,0,0,0,0,
242,-12.02,-8.049,-2.276,-23.67,-4.202,-20.86,-14.22,-38.58,-7.82,-16.16,2.157,-5.696,-7.871,-13.85,-2.916,-10.92,0,0,0,0,0,0,0,0,0,0,0,0,0,0,0,0,
243,-5.244,-9.759,-0.0385,-23.41,-1.592,-14.52,-25.0,-16.64,-14.94,-15.96,9.471,0.0135,-0.6155,-4.253,7.364,-0.9355,0,0,0,0,0,0,0,0,0,0,0,0,0,0,0,0,
244,6.146,-3.95,-0.7388,-18.18,4.13,-4.911,-22.6,-8.47,-5.799,-6.599,11.09,-2.747,2.3,-1.067,7.275,-1.911,0,0,0,0,0,0,0,0,0,0,0,0,0,0,0,0,
245,7.377,-0.3373,9.949,-9.067,18.16,3.43,38.08,-5.107,4.951,-2.357,3.247,6.221,10.99,10.06,9.925,4.131,0,0,0,0,0,0,0,0,0,0,0,0,0,0,0,0,
246,15.93,8.968,31.2,6.125,37.15,15.33,40.0,3.833,30.03,13.78,-0.8038,11.31,16.33,16.04,5.734,0.646,0,0,0,0,0,0,0,0,0,0,0,0,0,0,0,0,
247,14.31,10.63,15.24,7.16,25.36,16.28,-39.46,-1.254,26.48,17.49,-2.933,-3.613,0.186,-0.0629,-8.873,-15.74,0,0,0,0,0,0,0,0,0,0,0,0,0,0,0,0,
248,14.14,19.47,1.159,22.17,19.79,26.59,-5.681,7.256,5.806,13.58,3.426,-2.584,0.7762,-2.663,-5.27,-10.89,0,0,0,0,0,0,0,0,0,0,0,0,0,0,0,0,
249,25.06,32.18,17.35,40.3,33.53,36.08,84.79,16.56,22.93,21.4,0.8541,0.3192,11.01,-1.347,-1.663,-7.332,0,0,0,0,0,0,0,0,0,0,0,0,0,0,0,0,
250,17.75,22.51,19.03,23.24,25.46,22.34,44.73,9.96,37.72,16.21,-5.931,-7.843,4.406,-9.611,-6.526,-13.02,0,0,0,0,0,0,0,0,0,0,0,0,0,0,0,0,
251,1.652,8.155,7.474,4.924,4.887,9.905,-23.06,15.43,20.86,8.745,-2.017,-9.11,-4.314,-10.68,-6.223,-10.84,0,0,0,0,0,0,0,0,0,0,0,0,0,0,0,0,
252,-12.51,-7.457,-0.9587,0.5321,-14.17,-3.548,-14.01,11.78,-0.8463,4.647,-5.018,-11.89,-11.34,-12.67,-5.637,-9.719,0,0,0,0,0,0,0,0,0,0,0,0,0,0,0,0,
253,-20.0,-18.8,-3.123,-1.877,-23.12,-15.81,-9.951,-5.241,-14.05,-5.595,6.314,-5.237,-4.373,-5.43,7.728,1.064,0,0,0,0,0,0,0,0,0,0,0,0,0,0,0,0,
254,-10.56,-10.58,-0.7638,0.1525,-16.15,-12.43,-1.866,-7.508,-12.39,-0.7551,25.15,7.537,12.57,9.235,21.42,13.24,0,0,0,0,0,0,0,0,0,0,0,0,0,0,0,0,
255,-9.579,-11.73,-7.179,-5.402,-12.46,-15.63,43.88,-8.031,-0.673,4.924,9.838,4.989,13.83,8.097,14.47,10.5,0,0,0,0,0,0,0,0,0,0,0,0,0,0,0,0,
256,-19.46,-21.12,-12.22,-11.37,-13.6,-23.2,19.88,-13.36,11.51,-2.401,-0.5928,3.328,10.04,4.842,9.972,10.81,0,0,0,0,0,0,0,0,0,0,0,0,0,0,0,0,
257,-23.87,-17.07,-15.71,-7.28,-20.21,-21.77,-55.1,-11.95,7.824,-6.258,15.13,5.057,7.542,4.043,12.88,11.53,0,0,0,0,0,0,0,0,0,0,0,0,0,0,0,0,
258,-26.71,-14.06,-21.78,-5.215,-27.13,-19.07,-35.72,4.525,-10.64,-7.808,19.25,4.873,3.957,-0.0961,11.57,7.682,0,0,0,0,0,0,0,0,0,0,0,0,0,0,0,0,
259,-25.64,-19.72,-23.39,-11.61,-24.69,-20.62,13.16,16.5,-11.55,-8.024,10.03,6.607,1.995,-4.612,6.092,4.228,0,0,0,0,0,0,0,0,0,0,0,0,0,0,0,0,
260,-27.94,-29.26,-28.68,-21.37,-27.13,-29.18,10.79,-1.719,-7.04,-13.81,3.656,5.636,-3.672,-9.953,-0.1737,0.4461,0,0,0,0,0,0,0,0,0,0,0,0,0,0,0,0,
261,-24.28,-24.79,-16.05,-17.54,-18.81,-26.49,28.22,-14.31,-9.489,-19.5,3.513,6.137,-4.322,-8.087,-0.1026,1.848,0,0,0,0,0,0,0,0,0,0,0,0,0,0,0,0,
262,-4.796,-6.733,10.16,-7.151,0.0233,-13.22,28.42,-6.801,-0.5662,-11.83,1.649,1.184,-4.203,-10.5,-1.211,-1.068,0,0,0,0,0,0,0,0,0,0,0,0,0,0,0,0,
263,3.924,-0.6945,9.905,-3.641,1.924,-7.744,-3.216,-3.883,1.762,-8.966,1.113,-2.054,-4.754,-15.31,-1.239,-1.866,0,0,0,0,0,0,0,0,0,0,0,0,0,0,0,0,
264,7.464,3.861,7.004,5.085,7.689,2.156,14.19,3.508,1.8,-3.335,7.219,6.99,5.382,-3.801,3.29,6.169,0,0,0,0,0,0,0,0,0,0,0,0,0,0,0,0,
265,12.17,6.449,7.824,6.649,11.61,7.009,24.8,3.631,10.4,9.14,4.265,1.712,7.842,0.6703,1.198,1.482,0,0,0,0,0,0,0,0,0,0,0,0,0,0,0,0,
266,9.143,1.702,0.5889,4.453,5.596,6.977,5.131,-2.506,9.598,9.178,12.95,-1.721,14.17,3.241,13.37,5.886,0,0,0,0,0,0,0,0,0,0,0,0,0,0,0,0,
267,21.47,15.56,12.81,18.09,21.29,25.18,15.1,14.19,20.63,20.37,39.04,16.33,36.91,22.94,35.42,27.22,0,0,0,0,0,0,0,0,0,0,0,0,0,0,0,0,
268,33.39,25.67,20.61,20.88,31.29,32.18,24.12,26.06,37.98,38.14,35.22,21.62,37.25,29.3,29.34,26.26,0,0,0,0,0,0,0,0,0,0,0,0,0,0,0,0,
269,20.2,12.5,6.753,11.38,14.72,17.84,13.49,14.96,30.82,33.5,14.3,14.71,17.74,19.51,8.175,10.76,0,0,0,0,0,0,0,0,0,0,0,0,0,0,0,0,
270,3.577,0.5902,0.4344,5.795,-2.141,6.727,5.528,6.216,15.19,22.18,3.739,9.458,2.058,10.27,-6.881,0.7546,0,0,0,0,0,0,0,0,0,0,0,0,0,0,0,0,
271,-7.542,-7.906,-1.178,-0.3102,-10.27,0.6593,27.98,12.96,3.658,14.5,-5.003,8.376,-2.124,7.756,-8.125,1.596,0,0,0,0,0,0,0,0,0,0,0,0,0,0,0,0,
272,-8.774,-8.785,-3.208,2.146,-4.947,3.999,54.3,18.48,9.293,16.1,2.788,16.49,11.85,15.49,4.767,12.23,0,0,0,0,0,0,0,0,0,0,0,0,0,0,0,0,
273,-8.46,-8.481,-10.29,-3.071,-8.243,1.513,0.148,-4.916,18.35,18.87,20.03,14.22,15.76,11.66,9.045,11.92,0,0,0,0,0,0,0,0,0,0,0,0,0,0,0,0,
274,-18.63,-17.96,-14.57,-16.89,-25.15,-13.15,-39.41,-20.93,-1.131,6.401,24.5,7.29,8.097,0.2185,10.35,8.979,0,0,0,0,0,0,0,0,0,0,0,0,0,0,0,0,
275,-23.02,-20.02,-2.959,-14.86,-29.34,-21.5,9.995,-6.254,-12.24,-2.245,18.56,3.408,8.272,-6.771,13.22,7.123,0,0,0,0,0,0,0,0,0,0,0,0,0,0,0,0,
276,-29.93,-24.13,-9.481,-18.3,-39.51,-32.94,3.819,-11.11,-9.319,-13.03,8.861,-8.987,1.382,-18.92,6.696,-1.712,0,0,0,0,0,0,0,0,0,0,0,0,0,0,0,0,
277,-33.22,-24.14,-20.59,-16.95,-43.63,-32.1,-30.26,-14.79,-17.99,-25.28,11.95,-4.072,3.243,-14.44,12.04,8.111,0,0,0,0,0,0,0,0,0,0,0,0,0,0,0,0,
278,-13.46,-3.576,-3.359,3.282,-21.78,-12.92,9.358,7.396,-7.005,-11.35,18.2,9.838,17.33,0.2077,22.07,22.05,0,0,0,0,0,0,0,0,0,0,0,0,0,0,0,0,
279,-7.899,-2.411,4.175,-2.861,-16.5,-16.88,39.35,4.465,10.78,-3.208,8.651,3.928,14.57,-2.787,14.98,14.52,0,0,0,0,0,0,0,0,0,0,0,0,0,0,0,0,
280,-23.09,-21.08,-1.973,-23.76,-24.83,-29.28,30.49,-7.157,7.722,-12.64,-2.446,-0.8595,5.154,-5.436,4.687,6.173,0,0,0,0,0,0,0,0,0,0,0,0,0,0,0,0,
281,-29.83,-24.45,-8.323,-20.07,-27.3,-22.13,-9.814,7.045,1.037,-8.335,-9.406,-0.8024,-5.355,-4.449,-3.819,0.9684,0,0,0,0,0,0,0,0,0,0,0,0,0,0,0,0,
282,-28.09,-18.24,-23.2,-6.98,-32.88,-11.22,-64.37,11.74,-10.75,0.8749,-4.874,0.805,-13.56,-3.693,-6.425,-0.5656,0,0,0,0,0,0,0,0,0,0,0,0,0,0,0,0,
283,-16.98,-9.891,-22.65,-3.699,-27.85,-5.646,-44.64,-7.19,-16.25,5.779,4.719,5.236,-8.483,0.7794,-5.336,0.8921,0,0,0,0,0,0,0,0,0,0,0,0,0,0,0,0,
284,-7.806,-5.29,-5.286,-7.65,-16.66,-5.721,11.24,-16.63,-5.824,5.279,-5.293,0.7746,-4.937,0.4278,-11.12,-4.477,0,0,0,0,0,0,0,0,0,0,0,0,0,0,0,0,
285,-4.044,-1.38,13.19,0.279,-5.71,1.204,28.39,-2.869,6.398,4.929,-14.14,-0.4002,-1.25,4.181,-13.51,-6.949,0,0,0,0,0,0,0,0,0,0,0,0,0,0,0,0,
286,4.229,6.283,23.3,13.48,3.92,10.79,26.52,4.566,18.11,12.91,-11.32,-2.81,0.3032,3.796,-15.92,-12.39,0,0,0,0,0,0,0,0,0,0,0,0,0,0,0,0,
287,1.86,2.29,7.063,11.98,-3.893,6.783,7.317,3.651,12.82,9.245,-8.58,-11.03,-5.959,-5.487,-16.07,-16.93,0,0,0,0,0,0,0,0,0,0,0,0,0,0,0,0,
288,-2.212,-1.844,-8.091,12.89,-6.522,9.05,0.2292,15.2,2.249,5.199,3.581,-0.7547,3.792,3.832,-0.0453,-1.667,0,0,0,0,0,0,0,0,0,0,0,0,0,0,0,0,
289,4.819,3.227,5.23,17.7,8.501,17.05,24.99,24.21,18.24,19.04,24.18,18.88,26.3,24.48,25.03,22.32,0,0,0,0,0,0,0,0,0,0,0,0,0,0,0,0,
290,12.54,8.077,30.84,20.07,21.25,20.86,46.81,36.74,38.92,33.46,61.03,37.35,50.77,44.06,60.4,51.53,0,0,0,0,0,0,0,0,0,0,0,0,0,0,0,0,
291,22.25,14.37,46.31,21.87,28.56,25.85,75.93,44.17,47.52,44.15,86.09,46.9,66.71,53.67,77.47,65.19,0,0,0,0,0,0,0,0,0,0,0,0,0,0,0,0,
292,15.16,5.502,25.74,4.097,17.32,11.33,81.45,12.69,44.24,33.38,48.19,29.73,45.56,32.62,44.85,39.42,0,0,0,0,0,0,0,0,0,0,0,0,0,0,0,0,
293,-11.33,-14.87,-15.23,-14.21,-12.26,-12.13,1.575,-11.14,19.14,1.73,1.063,7.707,8.192,4.327,6.608,9.73,0,0,0,0,0,0,0,0,0,0,0,0,0,0,0,0,
294,-26.6,-22.86,-36.98,-12.55,-37.65,-20.45,-83.57,-5.877,-17.02,-14.72,-7.842,-8.327,-14.04,-14.06,-9.882,-6.755,0,0,0,0,0,0,0,0,0,0,0,0,0,0,0,0,
295,-29.05,-25.1,-30.41,-14.29,-42.5,-24.35,-52.53,-10.93,-39.95,-23.68,-10.19,-19.41,-19.74,-27.34,-14.83,-14.33,0,0,0,0,0,0,0,0,0,0,0,0,0,0,0,0,
296,-18.85,-19.79,-3.267,-16.28,-21.45,-18.1,38.18,-13.22,-28.39,-28.42,-9.225,-13.46,-10.11,-25.86,-10.08,-8.293,0,0,0,0,0,0,0,0,0,0,0,0,0,0,0,0,
297,-3.873,-10.45,4.383,-12.42,-10.79,-7.335,33.78,-11.18,-6.916,-21.02,-7.462,-10.93,-11.36,-24.87,-14.37,-9.48,0,0,0,0,0,0,0,0,0,0,0,0,0,0,0,0,
298,-0.2511,-7.586,-11.0,-10.08,-19.01,-5.666,-37.34,-18.79,-13.1,-21.2,-11.35,-14.31,-23.85,-28.84,-23.69,-15.26,0,0,0,0,0,0,0,0,0,0,0,0,0,0,0,0,
299,4.732,-2.091,-1.196,-9.905,-10.94,-5.178,-30.4,-20.18,-16.06,-24.04,-11.47,-12.21,-22.17,-27.47,-23.6,-15.29,0,0,0,0,0,0,0,0,0,0,0,0,0,0,0,0,
300,7.339,-0.663,16.88,-13.46,-1.098,-7.435,25.2,-13.06,-0.8363,-23.34,-12.46,-15.63,-17.11,-28.56,-22.54,-18.76,0,0,0,0,0,0,0,0,0,0,0,0,0,0,0,0,
301,3.398,0.3174,16.97,-5.704,-1.416,-4.705,32.95,-0.8876,7.045,-19.9,-8.288,-16.41,-12.91,-25.22,-18.37,-18.36,0,0,0,0,0,0,0,0,0,0,0,0,0,0,0,0,
302,0.9201,1.312,10.48,-2.098,-6.394,-6.206,14.94,-1.363,6.876,-14.1,-6.461,-19.12,-11.57,-24.35,-17.38,-21.39,0,0,0,0,0,0,0,0,0,0,0,0,0,0,0,0,
303,-6.005,-10.88,-1.333,-15.71,-22.3,-20.91,-1.098,-9.172,-3.623,-21.78,-9.692,-21.88,-15.52,-26.6,-16.76,-22.19,0,0,0,0,0,0,0,0,0,0,0,0,0,0,0,0,
304,-1.499,-7.619,-1.554,-7.73,-25.56,-13.15,-20.3,4.774,-14.12,-19.76,-0.7901,-7.237,-11.03,-12.58,-8.114,-7.285,0,0,0,0,0,0,0,0,0,0,0,0,0,0,0,0,
305,9.992,5.905,8.566,3.429,-14.94,2.54,-9.105,7.897,-10.75,-2.127,-5.167,-3.124,-10.25,-4.742,-11.16,-4.65,0,0,0,0,0,0,0,0,0,0,0,0,0,0,0,0,
306,9.012,1.762,10.47,-4.14,-6.572,1.378,21.64,-0.9227,-3.276,-1.845,-13.74,-9.632,-10.79,-5.747,-13.25,-8.376,0,0,0,0,0,0,0,0,0,0,0,0,0,0,0,0,
307,12.53,4.71,6.75,3.914,0.0149,9.063,-11.37,8.475,5.606,1.641,4.377,-3.72,-2.844,2.593,-2.969,-2.152,0,0,0,0,0,0,0,0,0,0,0,0,0,0,0,0,
308,8.951,6.374,-5.405,9.062,-10.82,12.28,-57.2,1.957,-0.1759,12.82,8.168,-1.639,-4.916,4.754,-2.145,-2.183,0,0,0,0,0,0,0,0,0,0,0,0,0,0,0,0,
309,-4.778,-4.254,-4.535,0.9695,-16.05,6.38,-0.1006,-6.084,-10.53,12.21,-5.18,0.514,-0.5455,9.505,2.882,3.858,0,0,0,0,0,0,0,0,0,0,0,0,0,0,0,0,
310,1.474,1.236,14.24,6.381,3.09,14.04,49.91,12.29,8.652,19.34,1.517,6.589,16.96,22.13,17.34,16.08,0,0,0,0,0,0,0,0,0,0,0,0,0,0,0,0,
311,12.74,12.86,14.95,11.88,9.632,21.79,-4.51,15.31,24.39,29.17,14.38,8.211,21.24,25.22,21.61,17.37,0,0,0,0,0,0,0,0,0,0,0,0,0,0,0,0,
312,15.25,16.98,8.134,12.05,2.938,23.54,-48.52,0.1339,14.75,28.83,14.37,9.328,15.45,19.46,15.94,11.48,0,0,0,0,0,0,0,0,0,0,0,0,0,0,0,0,
313,13.16,15.88,5.214,12.64,-4.618,18.78,-40.76,-9.148,2.583,20.35,3.075,0.3866,4.045,3.039,4.428,0.0899,0,0,0,0,0,0,0,0,0,0,0,0,0,0,0,0,
314,8.076,13.9,3.09,12.78,-7.173,12.1,7.277,-8.375,-6.132,4.894,-5.886,-8.85,-5.988,-12.08,-3.586,-5.994,0,0,0,0,0,0,0,0,0,0,0,0,0,0,0,0,
315,13.13,20.25,14.09,11.96,3.768,13.72,72.44,-4.3,0.3211,-0.877,-13.69,-14.12,-12.13,-22.02,-12.13,-12.08,0,0,0,0,0,0,0,0,0,0,0,0,0,0,0,0,
316,13.68,15.27,13.55,0.8383,-2.073,6.842,21.71,-8.513,4.573,-6.708,-19.61,-24.97,-24.91,-35.94,-21.45,-21.88,0,0,0,0,0,0,0,0,0,0,0,0,0,0,0,0,
317,7.559,4.371,-0.3338,-0.2241,-18.09,1.843,-84.41,-3.939,-12.3,-15.36,0.4555,-19.37,-24.1,-32.59,-11.78,-11.58,0,0,0,0,0,0,0,0,0,0,0,0,0,0,0,0,
318,8.85,5.224,-2.004,5.604,-17.58,3.487,-57.97,-3.682,-19.25,-12.47,9.217,-14.09,-16.48,-26.68,-6.667,-4.112,0,0,0,0,0,0,0,0,0,0,0,0,0,0,0,0,
319,-2.799,-6.652,-1.056,-11.61,-19.13,-12.22,22.76,-22.78,-16.08,-21.99,-17.3,-24.52,-21.76,-33.99,-17.32,-12.74,0,0,0,0,0,0,0,0,0,0,0,0,0,0,0,0,
320,-13.53,-18.18,3.33,-15.99,-18.29,-18.48,28.84,-15.59,-13.05,-29.82,-22.86,-17.09,-17.52,-23.96,-17.19,-10.37,0,0,0,0,0,0,0,0,0,0,0,0,0,0,0,0,
321,-6.737,-12.56,1.039,2.381,-17.05,-8.9,-11.18,0.2421,-6.806,-15.98,-13.7,-7.057,-13.77,-14.93,-17.48,-11.32,0,0,0,0,0,0,0,0,0,0,0,0,0,0,0,0,
322,-7.52,-12.27,-13.73,1.674,-27.03,-13.48,-39.5,-17.22,-14.55,-15.78,-17.21,-10.02,-21.43,-23.24,-19.63,-18.73,0,0,0,0,0,0,0,0,0,0,0,0,0,0,0,0,
323,-12.07,-13.18,-11.54,-11.41,-26.95,-20.06,-22.21,-32.88,-25.12,-25.22,-14.78,-11.61,-22.57,-26.18,-13.85,-20.04,0,0,0,0,0,0,0,0,0,0,0,0,0,0,0,0,
324,-11.84,-11.54,-1.302,-13.65,-19.57,-15.47,-0.5862,-26.31,-24.12,-25.77,-6.469,-14.27,-18.68,-22.92,-6.491,-16.06,0,0,0,0,0,0,0,0,0,0,0,0,0,0,0,0,
325,-4.093,-4.27,9.576,0.7721,-5.292,1.74,-4.958,-11.17,-14.91,-15.61,11.25,-4.766,-2.133,-6.119,11.21,5.579,0,0,0,0,0,0,0,0,0,0,0,0,0,0,0,0,
326,10.06,9.238,22.08,10.74,12.32,14.64,10.18,-5.331,4.37,6.422,20.05,4.924,14.31,13.1,21.77,20.94,0,0,0,0,0,0,0,0,0,0,0,0,0,0,0,0,
327,7.469,6.119,12.13,0.4839,8.49,6.914,16.31,-4.372,11.23,12.93,8.866,2.171,15.5,19.22,20.08,20.83,0,0,0,0,0,0,0,0,0,0,0,0,0,0,0,0,
328,7.461,6.68,7.529,3.821,11.72,12.89,-6.802,12.88,9.669,15.12,18.78,14.99,29.83,32.13,31.86,33.5,0,0,0,0,0,0,0,0,0,0,0,0,0,0,0,0,
329,23.65,21.44,26.08,15.95,31.07,27.56,16.65,12.93,24.51,30.05,25.68,21.32,39.83,32.83,30.49,30.53,0,0,0,0,0,0,0,0,0,0,0,0,0,0,0,0,
330,20.91,15.11,28.84,6.076,30.02,15.43,51.45,-7.336,33.74,19.98,2.442,1.866,19.89,7.691,6.146,3.136,0,0,0,0,0,0,0,0,0,0,0,0,0,0,0,0,
331,6.619,0.668,14.49,-5.677,19.02,-0.7891,8.875,-2.574,23.41,-3.865,-6.476,-8.618,-0.4203,-8.643,-7.479,-9.967,0,0,0,0,0,0,0,0,0,0,0,0,0,0,0,0,
332,5.894,2.927,8.429,-6.817,16.55,-2.904,-29.07,1.027,6.127,-7.106,-3.571,-1.959,-7.841,-6.902,-8.605,-7.02,0,0,0,0,0,0,0,0,0,0,0,0,0,0,0,0,
333,13.79,10.87,18.78,-4.834,20.98,2.645,-3.691,-16.28,-1.078,1.267,-5.068,7.378,-6.125,3.148,-2.834,1.256,0,0,0,0,0,0,0,0,0,0,0,0,0,0,0,0,
334,12.0,7.784,19.65,-8.597,20.19,4.492,-13.63,-25.61,2.737,7.596,0.3781,4.934,-4.229,7.202,3.27,4.54,0,0,0,0,0,0,0,0,0,0,0,0,0,0,0,0,
335,-4.06,-4.024,-2.361,-13.85,11.9,0.7824,-33.38,-20.81,-4.617,6.522,5.557,0.6866,-1.629,7.326,6.267,5.793,0,0,0,0,0,0,0,0,0,0,0,0,0,0,0,0,
336,-2.041,0.8131,-5.069,-1.705,23.08,12.29,21.94,-7.753,-0.361,15.51,8.566,10.89,15.09,18.95,12.25,13.85,0,0,0,0,0,0,0,0,0,0,0,0,0,0,0,0,
337,9.597,7.413,4.161,3.945,32.59,19.5,43.34,2.047,21.41,29.12,6.24,8.449,19.5,19.4,8.715,7.793,0,0,0,0,0,0,0,0,0,0,0,0,0,0,0,0,
338,0.8954,-0.7173,-1.605,0.6301,18.8,11.02,5.893,12.46,13.12,21.2,-1.614,-2.564,7.176,8.436,0.5051,-3.952,0,0,0,0,0,0,0,0,0,0,0,0,0,0,0,0,
339,1.308,6.862,6.324,18.19,18.7,16.92,20.77,19.29,-2.001,15.37,-8.825,-1.184,4.762,5.98,-4.501,-5.551,0,0,0,0,0,0,0,0,0,0,0,0,0,0,0,0,
340,8.815,13.13,11.93,21.51,22.47,16.56,16.5,-0.8955,2.549,14.35,-17.21,-6.791,-3.68,-2.555,-16.53,-12.62,0,0,0,0,0,0,0,0,0,0,0,0,0,0,0,0,
341,-0.3486,-1.361,-6.055,3.491,9.967,1.047,-53.3,-11.97,-6.878,3.9,-12.51,-9.014,-16.95,-6.867,-20.34,-13.91,0,0,0,0,0,0,0,0,0,0,0,0,0,0,0,0,
342,-5.168,-5.79,-16.87,4.112,3.85,0.6214,-54.1,1.617,-21.37,5.267,-6.818,-1.777,-19.55,-1.572,-15.78,-8.816,0,0,0,0,0,0,0,0,0,0,0,0,0,0,0,0,
343,-5.448,-3.907,-13.53,6.045,4.447,1.831,1.214,-3.189,-20.35,4.742,-21.78,-9.635,-26.15,-11.39,-22.52,-18.11,0,0,0,0,0,0,0,0,0,0,0,0,0,0,0,0,
344,-11.6,-9.366,-7.597,-6.232,1.299,-7.871,-15.56,-17.74,-20.8,-10.62,-32.34,-24.64,-36.91,-27.74,-31.8,-32.19,0,0,0,0,0,0,0,0,0,0,0,0,0,0,0,0,
345,-15.52,-12.42,-9.789,-11.37,-5.386,-12.98,-44.83,-25.14,-34.14,-19.46,-32.25,-31.05,-38.48,-32.43,-28.68,-34.8,0,0,0,0,0,0,0,0,0,0,0,0,0,0,0,0,
346,-7.358,-4.106,-10.41,0.6268,2.708,-1.835,22.29,-26.51,-34.55,-16.01,-27.37,-24.14,-19.71,-21.4,-10.25,-21.78,0,0,0,0,0,0,0,0,0,0,0,0,0,0,0,0,
347,9.621,8.997,-2.131,7.579,22.68,9.962,61.93,-16.58,-1.475,-4.558,-11.34,-14.46,1.149,-9.462,1.847,-12.21,0,0,0,0,0,0,0,0,0,0,0,0,0,0,0,0,
348,4.254,0.7753,-20.12,-11.09,10.19,-4.646,-29.7,-13.88,10.27,-5.593,-2.305,-12.62,-7.245,-11.75,-4.91,-15.23,0,0,0,0,0,0,0,0,0,0,0,0,0,0,0,0,
349,-16.4,-14.73,-43.1,-22.07,-13.82,-20.18,-71.96,-14.95,-19.93,-18.48,-8.57,-5.099,-20.93,-10.23,-8.592,-11.01,0,0,0,0,0,0,0,0,0,0,0,0,0,0,0,0,
350,-23.83,-17.35,-33.88,-15.77,-13.96,-20.49,-8.876,-9.449,-31.34,-19.2,-21.17,-4.164,-22.78,-7.882,-11.69,-10.14,0,0,0,0,0,0,0,0,0,0,0,0,0,0,0,0,
351,-30.42,-24.94,-33.31,-19.81,-18.2,-27.05,-20.65,-12.34,-28.76,-19.89,-23.98,-12.31,-26.09,-11.01,-15.66,-12.99,0,0,0,0,0,0,0,0,0,0,0,0,0,0,0,0,
352,-27.22,-21.25,-42.97,-15.2,-19.69,-22.7,-74.15,-15.87,-37.33,-17.62,-11.94,-3.21,-21.52,0.3902,-6.32,-0.1104,0,0,0,0,0,0,0,0,0,0,0,0,0,0,0,0,
353,-11.12,-3.792,-30.17,-0.489,-6.889,-7.386,-53.99,-13.25,-33.58,-4.608,-10.21,7.103,-12.63,12.34,1.225,10.11,0,0,0,0,0,0,0,0,0,0,0,0,0,0,0,0,
354,-5.746,-0.705,-5.465,2.079,1.181,-3.063,-30.74,-8.949,-20.41,-0.3153,-7.522,6.746,-4.784,14.38,4.543,13.0,0,0,0,0,0,0,0,0,0,0,0,0,0,0,0,0,
355,-2.273,-1.258,13.92,-1.499,6.641,-4.591,-21.59,-7.919,-10.47,0.0736,4.103,1.698,3.044,13.26,6.996,11.55,0,0,0,0,0,0,0,0,0,0,0,0,0,0,0,0,
356,-1.619,-3.331,15.54,-8.782,7.725,-14.76,21.69,-12.42,-4.449,-5.302,-3.594,-7.051,4.001,6.737,4.058,2.93,0,0,0,0,0,0,0,0,0,0,0,0,0,0,0,0,
357,-2.728,-4.384,15.72,-4.863,13.72,-17.57,48.7,-4.577,5.864,-11.15,-5.846,0.0,13.64,11.4,9.435,6.683,0,0,0,0,0,0,0,0,0,0,0,0,0,0,0,0,
358,7.189,5.917,26.14,8.459,27.26,-2.97,19.64,4.575,26.03,2.491,8.703,8.502,24.19,18.53,12.78,9.332,0,0,0,0,0,0,0,0,0,0,0,0,0,0,0,0,
359,8.407,5.901,21.94,7.7,24.69,4.729,-15.1,4.41,28.87,10.74,10.59,2.571,17.06,11.84,5.27,-2.115,0,0,0,0,0,0,0,0,0,0,0,0,0,0,0,0,
360,5.855,3.114,15.84,10.18,21.28,13.58,2.463,10.75,16.06,10.29,3.816,2.043,8.979,8.796,-0.4767,-9.481,0,0,0,0,0,0,0,0,0,0,0,0,0,0,0,0,
361,16.44,14.87,26.53,19.5,32.28,30.16,46.04,3.156,15.89,18.05,-7.501,-0.0504,2.615,7.749,-6.955,-15.01,0,0,0,0,0,0,0,0,0,0,0,0,0,0,0,0,
362,30.15,26.7,33.32,22.17,43.22,39.17,25.18,-10.13,23.31,19.99,-6.904,-3.051,1.625,7.315,-4.975,-14.69,0,0,0,0,0,0,0,0,0,0,0,0,0,0,0,0,
363,37.65,29.1,20.21,19.98,41.89,34.38,-48.91,-6.026,23.74,17.18,7.931,-4.052,5.707,6.305,0.0545,-12.55,0,0,0,0,0,0,0,0,0,0,0,0,0,0,0,0,
364,27.81,19.39,5.896,9.483,29.79,18.38,-36.15,-5.889,12.57,10.12,3.942,-9.496,4.852,0.7632,-0.9223,-11.92,0,0,0,0,0,0,0,0,0,0,0,0,0,0,0,0,
365,22.31,18.55,26.57,10.01,35.66,15.73,55.33,0.9321,19.25,6.873,3.724,2.658,18.35,11.27,12.0,6.826,0,0,0,0,0,0,0,0,0,0,0,0,0,0,0,0,
366,26.64,23.88,38.52,14.27,36.53,11.87,42.39,5.433,42.3,11.28,13.78,8.565,21.61,12.68,15.08,12.71,0,0,0,0,0,0,0,0,0,0,0,0,0,0,0,0,
367,3.028,4.082,-3.762,2.012,0.9607,-12.75,-35.85,-9.885,20.42,-6.892,3.948,-10.11,-4.479,-9.618,-0.6298,-4.021,0,0,0,0,0,0,0,0,0,0,0,0,0,0,0,0,
368,-15.38,-7.7,-23.91,5.337,-10.93,-12.74,-9.879,-6.597,-11.09,-21.43,-0.503,-9.134,-8.153,-10.62,1.539,-2.123,0,0,0,0,0,0,0,0,0,0,0,0,0,0,0,0,
369,-5.51,0.7424,-5.608,7.254,3.16,-2.348,21.21,-4.929,0.091,-10.64,3.927,-0.6216,0.3378,-3.857,4.632,1.234,0,0,0,0,0,0,0,0,0,0,0,0,0,0,0,0,
370,-6.39,-2.219,-5.223,-9.241,-1.204,-12.65,-26.27,-14.47,2.063,-11.87,3.064,-5.071,-6.973,-7.495,-1.269,-4.867,0,0,0,0,0,0,0,0,0,0,0,0,0,0,0,0,
371,-5.204,0.0606,-0.1137,0.4365,2.853,-5.53,-24.62,4.811,-5.75,-9.125,9.215,-2.154,-5.761,-1.929,1.542,-3.8,0,0,0,0,0,0,0,0,0,0,0,0,0,0,0,0,
372,3.038,4.709,12.83,11.91,10.4,4.211,12.77,7.585,2.411,2.493,11.19,0.2117,-4.914,-1.858,1.808,-6.201,0,0,0,0,0,0,0,0,0,0,0,0,0,0,0,0,
373,1.807,0.7559,7.405,1.2,5.053,-3.289,0.441,-15.88,0.4249,-2.406,9.407,-0.2177,-8.706,-4.584,-0.7162,-7.529,0,0,0,0,0,0,0,0,0,0,0,0,0,0,0,0,
374,2.758,3.417,-1.802,2.407,5.61,-0.1036,-3.624,-11.03,-4.811,0.4135,4.905,-1.82,-6.661,0.3658,-5.788,-7.6,0,0,0,0,0,0,0,0,0,0,0,0,0,0,0,0,
375,-0.1609,1.705,-3.693,9.318,5.612,5.353,17.63,3.521,-1.116,11.2,-3.265,-4.076,-3.798,4.291,-6.602,-4.701,0,0,0,0,0,0,0,0,0,0,0,0,0,0,0,0,
376,2.076,2.461,7.631,11.78,7.137,5.476,13.54,7.186,7.916,16.16,7.441,4.72,7.35,13.21,8.686,10.3,0,0,0,0,0,0,0,0,0,0,0,0,0,0,0,0,
377,9.918,6.059,14.89,9.886,7.544,3.234,9.392,6.5,16.98,20.98,8.99,7.305,11.67,15.08,9.579,10.89,0,0,0,0,0,0,0,0,0,0,0,0,0,0,0,0,
378,-2.372,-6.613,2.294,-0.4309,0.2558,-1.393,25.94,0.39,12.05,17.33,-13.57,3.115,0.6295,6.784,-5.932,-0.698,0,0,0,0,0,0,0,0,0,0,0,0,0,0,0,0,
379,-11.51,-12.18,-8.979,-4.724,-0.1971,2.003,-0.2995,-2.603,5.757,12.44,-17.82,1.288,-8.803,-0.1293,-12.77,-6.034,0,0,0,0,0,0,0,0,0,0,0,0,0,0,0,0,
380,-8.145,-8.535,-17.7,-4.299,-8.496,0.075,-60.67,-4.497,-5.101,4.315,-11.37,-10.39,-21.9,-12.03,-17.41,-13.96,0,0,0,0,0,0,0,0,0,0,0,0,0,0,0,0,
381,-7.65,-7.414,-16.92,-3.355,-17.33,-5.833,-50.03,-5.058,-25.39,-9.335,-12.39,-11.32,-26.96,-14.13,-13.54,-11.05,0,0,0,0,0,0,0,0,0,0,0,0,0,0,0,0,
382,-1.485,-1.309,-2.757,-6.119,-6.974,-5.227,3.464,-8.003,-21.04,-9.189,-11.6,-1.434,-17.61,-9.074,-4.646,-2.908,0,0,0,0,0,0,0,0,0,0,0,0,0,0,0,0,
383,-5.212,-9.252,-7.802,-16.88,-8.399,-12.31,2.135,-15.41,-7.304,-9.921,-10.05,-2.875,-15.66,-15.29,-6.294,-6.605,0,0,0,0,0,0,0,0,0,0,0,0,0,0,0,0,
384,-18.34,-21.24,-22.77,-13.29,-19.31,-14.72,-23.77,-7.138,-11.27,-12.92,-4.261,0.4983,-14.16,-13.84,-5.409,-5.396,0,0,0,0,0,0,0,0,0,0,0,0,0,0,0,0,
385,-15.38,-13.96,-20.84,-4.88,-14.44,-7.755,-25.91,0.9758,-11.24,-2.53,0.5563,5.493,-6.385,-5.383,-1.688,-2.39,0,0,0,0,0,0,0,0,0,0,0,0,0,0,0,0,
386,-3.716,-7.754,-5.0,-8.959,-1.517,-5.459,13.04,-6.907,-1.746,3.881,-2.482,1.701,0.8825,-3.478,-3.989,-5.962,0,0,0,0,0,0,0,0,0,0,0,0,0,0,0,0,
387,2.534,-11.39,9.423,-9.665,7.02,-3.162,69.95,-8.839,9.256,4.945,-12.21,-2.749,3.041,-5.069,-9.77,-10.82,0,0,0,0,0,0,0,0,0,0,0,0,0,0,0,0,
388,-3.065,-17.26,1.498,-14.2,0.1758,-6.7,30.45,-7.03,10.76,2.759,-15.26,-6.284,-4.088,-8.45,-9.992,-11.41,0,0,0,0,0,0,0,0,0,0,0,0,0,0,0,0,
389,-6.422,-12.78,-6.905,-16.49,-8.768,-9.471,-76.02,-8.546,-4.852,-3.856,9.082,-0.6761,-7.096,-4.734,0.974,-1.596,0,0,0,0,0,0,0,0,0,0,0,0,0,0,0,0,
390,2.135,1.83,0.0651,-3.639,-10.46,-4.044,-67.72,-7.022,-20.88,-3.853,21.39,4.253,-9.049,-3.513,1.416,-0.1843,0,0,0,0,0,0,0,0,0,0,0,0,0,0,0,0,
391,0.2635,3.64,-2.558,2.003,-15.03,-4.548,20.31,4.918,-24.4,-4.583,1.429,2.887,-14.53,-6.229,-7.359,-5.623,0,0,0,0,0,0,0,0,0,0,0,0,0,0,0,0,
392,-5.338,-0.1683,-4.353,-1.14,-11.88,-4.314,27.72,17.88,-13.53,-1.202,-1.974,7.582,-11.16,2.418,-6.405,-0.6784,0,0,0,0,0,0,0,0,0,0,0,0,0,0,0,0,
393,-4.902,-1.548,-3.095,-3.189,-8.506,-3.572,-2.654,4.588,-6.276,5.454,0.3088,9.556,-10.06,7.11,-6.032,1.222,0,0,0,0,0,0,0,0,0,0,0,0,0,0,0,0,
394,-3.74,1.206,-9.242,5.389,-6.097,1.265,12.44,-0.1184,-6.564,5.862,-4.887,17.04,-3.045,14.24,2.097,8.829,0,0,0,0,0,0,0,0,0,0,0,0,0,0,0,0,
395,8.466,17.79,-6.436,23.08,7.149,19.27,13.81,24.82,9.181,19.16,4.868,22.41,11.23,23.81,10.82,15.81,0,0,0,0,0,0,0,0,0,0,0,0,0,0,0,0,
396,10.59,17.6,-2.066,19.06,3.591,21.66,-8.299,22.02,12.01,25.14,5.985,2.989,4.737,8.005,-0.5113,1.678,0,0,0,0,0,0,0,0,0,0,0,0,0,0,0,0,
397,0.4894,4.046,0.6348,9.459,-6.373,15.3,-5.982,4.706,-6.092,13.27,6.18,-2.799,4.725,0.4227,1.468,1.123,0,0,0,0,0,0,0,0,0,0,0,0,0,0,0,0,
398,6.502,11.36,0.9366,13.49,-1.516,20.39,-1.943,7.231,-0.2088,20.66,20.55,9.373,20.43,14.07,15.68,11.4,0,0,0,0,0,0,0,0,0,0,0,0,0,0,0,0,
399,8.456,11.46,-5.884,3.469,-4.92,14.15,15.09,3.12,10.57,26.19,19.08,6.133,18.92,11.49,11.67,4.064,0,0,0,0,0,0,0,0,0,0,0,0,0,0,0,0,
400,-0.0013,-1.854,3.699,-8.806,-8.738,2.872,35.41,-0.6159,9.814,12.67,14.15,2.692,13.34,1.7,5.066,-0.2355,0,0,0,0,0,0,0,0,0,0,0,0,0,0,0,0,
401,-6.899,-6.54,7.766,-10.15,-13.77,-5.391,-1.139,0.6165,9.075,1.685,18.4,2.505,8.44,-4.763,1.268,1.236,0,0,0,0,0,0,0,0,0,0,0,0,0,0,0,0,
402,-13.83,-8.211,-3.018,-11.33,-21.88,-14.17,-13.91,-1.666,-4.008,-9.648,17.21,4.197,1.35,-8.471,0.3783,3.493,0,0,0,0,0,0,0,0,0,0,0,0,0,0,0,0,
403,-5.332,-4.821,11.3,-10.66,-8.646,-13.2,33.42,6.021,-5.699,-11.64,12.39,9.016,1.268,-7.251,2.259,5.09,0,0,0,0,0,0,0,0,0,0,0,0,0,0,0,0,
404,1.918,-6.609,18.07,-17.4,-2.163,-17.83,46.57,9.007,5.73,-8.541,-2.439,-0.4716,-8.512,-14.35,-8.961,-6.348,0,0,0,0,0,0,0,0,0,0,0,0,0,0,0,0,
405,-3.615,-11.51,4.288,-13.76,-9.893,-18.55,40.67,2.317,1.196,-14.26,-20.43,-6.561,-19.79,-18.04,-18.82,-14.26,0,0,0,0,0,0,0,0,0,0,0,0,0,0,0,0,
406,2.767,0.6199,6.021,12.34,-5.776,2.693,13.95,2.765,-0.8858,-8.589,-22.56,0.1054,-18.98,-12.25,-15.69,-11.98,0,0,0,0,0,0,0,0,0,0,0,0,0,0,0,0,
407,8.11,12.02,2.982,26.14,-6.813,16.06,-38.03,10.97,-0.077,5.558,-10.77,4.93,-16.97,-8.088,-10.15,-9.046,0,0,0,0,0,0,0,0,0,0,0,0,0,0,0,0,
408,2.759,10.72,-5.707,21.73,-11.79,12.68,-20.48,17.8,-5.184,14.37,-2.216,8.783,-14.56,-4.481,-8.558,-7.022,0,0,0,0,0,0,0,0,0,0,0,0,0,0,0,0,
409,-7.389,-3.16,-11.99,6.854,-18.45,0.5324,-9.831,7.832,-9.587,10.88,-7.638,4.252,-18.73,-9.515,-12.29,-10.21,0,0,0,0,0,0,0,0,0,0,0,0,0,0,0,0,
410,-18.27,-18.88,-22.62,-6.269,-27.26,-9.351,-54.33,1.892,-19.86,-3.144,2.314,4.458,-13.82,-7.92,-1.995,-1.687,0,0,0,0,0,0,0,0,0,0,0,0,0,0,0,0,
411,-8.293,-11.5,-9.434,-2.312,-13.83,-4.138,-2.422,12.97,-13.54,-0.1122,24.24,12.54,10.8,5.997,15.12,9.943,0,0,0,0,0,0,0,0,0,0,0,0,0,0,0,0,
412,3.749,-5.739,11.07,-3.381,-1.133,-3.595,77.19,10.74,9.47,5.566,21.04,7.185,23.04,6.054,17.92,4.845,0,0,0,0,0,0,0,0,0,0,0,0,0,0,0,0,
413,2.009,-9.704,12.13,0.2623,-4.998,-0.516,37.9,7.396,18.1,0.1031,26.57,10.52,28.94,8.839,28.55,11.74,0,0,0,0,0,0,0,0,0,0,0,0,0,0,0,0,
414,5.726,-0.0486,12.2,16.09,-9.312,9.907,-13.26,7.901,17.6,6.517,41.36,18.09,33.75,14.96,37.53,21.49,0,0,0,0,0,0,0,0,0,0,0,0,0,0,0,0,
415,1.401,-1.38,5.856,6.073,-21.38,-0.3926,7.639,1.194,7.49,5.042,24.97,10.63,22.28,8.025,29.24,17.4,0,0,0,0,0,0,0,0,0,0,0,0,0,0,0,0,
416,-3.461,-7.601,-4.794,-6.712,-24.36,-4.35,26.97,12.69,-2.027,-1.471,17.04,17.57,19.3,14.14,31.42,26.1,0,0,0,0,0,0,0,0,0,0,0,0,0,0,0,0,
417,6.145,4.729,-8.009,2.911,-15.65,10.66,-5.661,18.71,2.869,8.982,25.53,27.94,21.6,22.6,34.13,30.55,0,0,0,0,0,0,0,0,0,0,0,0,0,0,0,0,
418,9.672,12.01,-9.06,9.439,-14.89,15.43,-42.51,7.113,-0.8689,12.83,15.11,22.08,13.81,15.74,22.92,16.41,0,0,0,0,0,0,0,0,0,0,0,0,0,0,0,0,
419,10.86,9.173,-6.854,10.02,-11.48,14.98,-36.81,9.982,-4.144,14.06,-0.5242,11.54,7.397,5.196,8.439,-1.7,0,0,0,0,0,0,0,0,0,0,0,0,0,0,0,0,
420,4.389,0.174,-12.36,3.38,-16.13,6.987,-18.38,6.599,-2.294,11.41,-15.47,-8.066,-6.802,-16.94,-10.8,-24.82,0,0,0,0,0,0,0,0,0,0,0,0,0,0,0,0,
421,-9.482,-6.63,-17.24,-0.2283,-24.6,-0.4923,-2.704,5.686,-12.28,-6.161,-23.91,-18.85,-18.51,-33.54,-21.93,-35.77,0,0,0,0,0,0,0,0,0,0,0,0,0,0,0,0,
422,-3.269,0.9775,-10.25,9.074,-17.98,5.877,3.91,19.85,-14.63,-9.883,-16.86,-16.54,-20.47,-35.1,-25.77,-36.11,0,0,0,0,0,0,0,0,0,0,0,0,0,0,0,0,
423,3.234,0.1086,-8.79,6.815,-20.47,-0.4024,-4.625,3.821,-17.96,-13.12,-16.21,-25.43,-34.17,-44.38,-37.45,-44.62,0,0,0,0,0,0,0,0,0,0,0,0,0,0,0,0,
424,-1.235,-8.06,-0.2618,0.3887,-25.27,-11.91,12.8,-18.46,-31.51,-31.86,-27.82,-33.19,-46.53,-48.9,-45.51,-47.4,0,0,0,0,0,0,0,0,0,0,0,0,0,0,0,0,
425,-0.4504,-8.685,10.73,-0.2376,-19.09,-12.52,18.62,-10.82,-30.12,-37.25,-36.06,-28.98,-46.35,-39.56,-39.91,-36.63,0,0,0,0,0,0,0,0,0,0,0,0,0,0,0,0,
426,-0.3359,-9.4,5.318,-6.586,-18.11,-15.03,-15.56,-2.942,-27.21,-30.39,-26.38,-13.86,-36.78,-23.86,-15.17,-10.49,0,0,0,0,0,0,0,0,0,0,0,0,0,0,0,0,
427,7.441,-1.784,9.728,-5.786,-12.5,-12.32,5.214,-3.035,-28.66,-21.28,-5.338,8.864,-14.57,-2.361,19.89,23.92,0,0,0,0,0,0,0,0,0,0,0,0,0,0,0,0,
428,18.83,6.354,20.48,-2.491,-2.417,-7.398,49.98,0.5247,-17.1,-12.01,17.77,26.69,11.45,19.07,53.52,54.29,0,0,0,0,0,0,0,0,0,0,0,0,0,0,0,0,
429,22.06,7.449,25.24,-5.215,6.122,-4.561,25.99,11.42,1.632,-0.6372,56.27,44.29,43.15,43.4,91.79,85.75,0,0,0,0,0,0,0,0,0,0,0,0,0,0,0,0,
430,22.67,8.977,25.58,-6.562,8.332,-1.283,-1.854,14.68,17.24,16.8,67.91,48.53,60.3,52.75,99.54,88.92,0,0,0,0,0,0,0,0,0,0,0,0,0,0,0,0,
431,1.583,-8.963,-5.784,-17.05,-16.01,-13.21,-0.8694,-0.5106,13.31,15.92,16.39,31.5,38.99,35.82,57.42,51.72,0,0,0,0,0,0,0,0,0,0,0,0,0,0,0,0,
432,-27.97,-32.36,-45.81,-26.59,-38.51,-23.18,-12.98,0.6721,-2.233,5.557,-28.43,22.67,20.22,26.97,20.4,23.09,0,0,0,0,0,0,0,0,0,0,0,0,0,0,0,0,
433,-28.88,-30.02,-49.05,-15.67,-30.71,-11.41,-20.91,22.23,0.2831,15.65,-25.17,20.32,25.18,28.11,10.52,13.45,0,0,0,0,0,0,0,0,0,0,0,0,0,0,0,0,
434,-19.42,-19.84,-33.44,2.225,-21.28,-0.3107,-34.1,25.25,10.13,23.75,-2.251,15.38,27.23,21.06,6.857,6.279,0,0,0,0,0,0,0,0,0,0,0,0,0,0,0,0,
435,-14.21,-13.36,-22.48,7.73,-24.71,-1.713,-65.15,9.789,6.697,15.3,15.84,13.53,20.56,12.11,2.801,1.668,0,0,0,0,0,0,0,0,0,0,0,0,0,0,0,0,
436,-1.274,-4.04,-10.52,3.326,-24.43,-3.338,-35.45,3.469,-1.673,4.315,14.66,6.643,15.87,3.29,1.257,-2.781,0,0,0,0,0,0,0,0,0,0,0,0,0,0,0,0,
437,15.67,7.874,12.39,6.262,-8.643,4.854,43.99,8.926,6.206,0.2483,10.06,-3.322,16.42,-6.014,3.82,-7.214,0,0,0,0,0,0,0,0,0,0,0,0,0,0,0,0,
438,18.71,11.04,24.83,7.949,1.065,6.915,51.54,-3.329,19.26,-4.237,8.334,-18.91,5.9,-24.78,-0.8321,-18.34,0,0,0,0,0,0,0,0,0,0,0,0,0,0,0,0,
439,7.677,0.8839,14.66,1.274,-3.904,-3.03,24.3,-24.29,9.01,-23.51,1.183,-32.66,-8.968,-43.79,-4.625,-24.0,0,0,0,0,0,0,0,0,0,0,0,0,0,0,0,0,
440,11.48,3.891,16.55,4.436,5.307,-0.13,41.13,-20.22,4.371,-33.38,4.707,-28.93,-5.508,-41.99,3.949,-11.86,0,0,0,0,0,0,0,0,0,0,0,0,0,0,0,0,
441,21.7,14.63,19.84,3.906,8.066,3.253,21.74,-16.78,12.66,-27.13,9.422,-26.88,-6.906,-38.37,4.516,-6.283,0,0,0,0,0,0,0,0,0,0,0,0,0,0,0,0,
442,14.9,8.335,8.251,-3.397,-8.582,-5.217,-25.63,-20.02,-2.251,-29.75,9.375,-23.21,-11.37,-32.97,5.24,-1.955,0,0,0,0,0,0,0,0,0,0,0,0,0,0,0,0,
443,12.91,3.211,12.64,-1.023,-7.583,-6.494,-2.447,-10.3,-10.44,-26.15,17.58,-9.807,4.383,-14.54,17.49,11.83,0,0,0,0,0,0,0,0,0,0,0,0,0,0,0,0,
444,18.41,6.545,20.46,-4.25,0.2123,-6.728,56.61,-9.447,4.609,-18.13,13.43,-8.691,15.3,-5.397,20.46,14.5,0,0,0,0,0,0,0,0,0,0,0,0,0,0,0,0,
445,23.6,14.23,21.28,-4.129,5.204,-4.991,88.15,-7.311,16.11,-19.76,-6.156,-11.95,14.25,-4.16,13.69,7.538,0,0,0,0,0,0,0,0,0,0,0,0,0,0,0,0,
446,28.18,19.88,18.76,4.625,8.744,-3.349,52.89,5.012,23.52,-17.06,-21.34,-15.46,7.965,-7.45,1.366,-3.644,0,0,0,0,0,0,0,0,0,0,0,0,0,0,0,0,
447,15.15,9.005,-3.145,6.681,-9.22,-11.21,-38.43,4.811,9.809,-17.06,-20.05,-16.37,-1.096,-11.15,-4.385,-5.35,0,0,0,0,0,0,0,0,0,0,0,0,0,0,0,0,
448,5.079,3.968,-11.95,18.75,-20.25,-4.955,-69.07,4.842,-13.25,-10.67,-4.139,0.0387,6.084,4.891,7.102,10.42,0,0,0,0,0,0,0,0,0,0,0,0,0,0,0,0,
449,7.408,4.259,-4.815,21.86,-16.35,0.6914,-19.97,4.744,-10.01,7.588,-7.825,6.825,13.4,18.75,10.61,13.2,0,0,0,0,0,0,0,0,0,0,0,0,0,0,0,0,
450,-1.81,-8.204,-14.39,2.921,-21.79,-9.539,7.648,3.444,-2.046,11.85,-22.79,4.879,12.47,23.02,10.64,10.97,0,0,0,0,0,0,0,0,0,0,0,0,0,0,0,0,
451,-4.817,-8.584,-17.17,-2.087,-19.63,-6.048,-21.2,13.9,1.516,15.69,-16.69,15.41,17.66,31.8,18.56,18.72,0,0,0,0,0,0,0,0,0,0,0,0,0,0,0,0,
452,-3.857,-9.999,-21.42,-7.243,-19.98,-7.355,-54.26,11.36,1.503,19.15,-14.54,17.99,12.78,24.79,16.06,15.1,0,0,0,0,0,0,0,0,0,0,0,0,0,0,0,0,
453,-15.47,-25.12,-38.64,-15.59,-30.18,-19.66,-29.95,3.365,-10.0,7.751,-17.58,18.65,7.823,11.99,17.86,12.31,0,0,0,0,0,0,0,0,0,0,0,0,0,0,0,0,
454,-17.52,-21.31,-36.87,-2.849,-28.39,-13.98,-7.416,12.86,-8.294,5.411,-6.767,23.16,13.83,8.885,26.42,14.5,0,0,0,0,0,0,0,0,0,0,0,0,0,0,0,0,
455,-13.08,-12.45,-29.41,3.523,-26.59,-8.185,-28.63,17.79,-1.096,5.392,-1.91,17.42,10.29,1.61,18.94,6.499,0,0,0,0,0,0,0,0,0,0,0,0,0,0,0,0,
456,-10.83,-14.68,-21.6,-2.457,-20.07,-8.111,20.86,9.065,-0.1698,-1.388,-13.04,10.2,4.892,-5.167,3.397,-3.909,0,0,0,0,0,0,0,0,0,0,0,0,0,0,0,0,
457,-6.429,-13.14,-5.263,-3.109,-4.007,-3.254,79.48,-5.815,14.89,-2.365,-24.56,-1.797,0.0128,-12.0,-10.47,-15.66,0,0,0,0,0,0,0,0,0,0,0,0,0,0,0,0,
458,-5.098,-9.158,-7.423,-1.984,-2.103,-1.646,-3.808,-8.383,20.39,-5.677,-10.39,-11.58,-10.18,-17.99,-17.1,-19.24,0,0,0,0,0,0,0,0,0,0,0,0,0,0,0,0,
459,-1.735,-6.185,-22.18,-2.002,-10.47,-3.577,-87.44,-0.6183,-1.721,-8.632,10.71,-14.39,-21.26,-24.5,-23.13,-18.55,0,0,0,0,0,0,0,0,0,0,0,0,0,0,0,0,
460,-9.284,-16.79,-33.53,-14.75,-26.14,-18.23,-62.65,-17.06,-29.45,-21.44,-5.236,-30.59,-43.02,-47.62,-39.76,-32.75,0,0,0,0,0,0,0,0,0,0,0,0,0,0,0,0,
461,-28.9,-36.61,-42.48,-27.56,-43.04,-36.85,-34.3,-29.85,-51.05,-48.95,-21.82,-34.82,-57.49,-59.54,-40.54,-33.14,0,0,0,0,0,0,0,0,0,0,0,0,0,0,0,0,
462,-25.13,-35.21,-30.28,-17.17,-36.0,-33.04,1.927,-9.933,-53.32,-51.9,-8.756,-11.43,-43.94,-40.52,-19.56,-8.896,0,0,0,0,0,0,0,0,0,0,0,0,0,0,0,0,
463,-3.234,-17.13,-0.7823,-1.88,-12.82,-18.22,61.36,5.078,-32.82,-33.04,-0.8727,5.265,-24.2,-21.25,-6.367,8.193,0,0,0,0,0,0,0,0,0,0,0,0,0,0,0,0,
464,2.036,-10.21,6.338,-2.055,-4.08,-17.53,39.54,3.481,-14.06,-26.7,-4.085,5.67,-16.1,-13.84,-5.582,12.72,0,0,0,0,0,0,0,0,0,0,0,0,0,0,0,0,
465,-15.05,-25.02,-12.24,-16.27,-15.35,-30.76,-18.71,-2.449,-16.65,-31.75,-3.517,2.202,-11.72,-5.766,-1.589,18.24,0,0,0,0,0,0,0,0,0,0,0,0,0,0,0,0,
466,-22.76,-33.18,-7.317,-18.74,-11.1,-26.94,14.04,-2.691,-17.75,-25.55,12.0,7.805,9.617,14.61,16.07,31.39,0,0,0,0,0,0,0,0,0,0,0,0,0,0,0,0,
467,-3.549,-13.92,20.46,0.566,15.26,-2.651,61.99,4.501,7.874,1.94,32.43,14.77,35.41,33.51,31.44,36.19,0,0,0,0,0,0,0,0,0,0,0,0,0,0,0,0,
468,8.706,-2.899,23.96,9.466,24.11,7.34,40.25,5.868,28.16,23.8,33.19,12.94,40.87,39.07,36.65,31.37,0,0,0,0,0,0,0,0,0,0,0,0,0,0,0,0,
469,9.777,-4.366,21.43,9.052,27.26,13.38,14.03,11.17,32.62,33.5,34.26,21.17,47.48,51.59,48.2,39.27,0,0,0,0,0,0,0,0,0,0,0,0,0,0,0,0,
470,12.86,-0.869,25.29,8.116,35.05,20.56,-4.321,14.24,41.41,44.5,43.1,28.88,55.26,58.6,55.62,43.76,0,0,0,0,0,0,0,0,0,0,0,0,0,0,0,0,
471,2.13,-8.463,15.92,-1.661,25.75,11.0,-14.02,10.03,36.69,41.54,44.96,27.7,53.02,50.29,57.87,40.49,0,0,0,0,0,0,0,0,0,0,0,0,0,0,0,0,
472,-4.458,-13.22,13.51,0.2969,21.22,9.243,22.83,18.19,31.06,37.58,42.53,31.42,55.25,46.23,57.46,38.5,0,0,0,0,0,0,0,0,0,0,0,0,0,0,0,0,
473,-5.998,-12.85,4.98,3.262,19.61,10.9,42.34,7.945,37.46,37.82,18.27,19.45,41.8,30.03,32.23,16.28,0,0,0,0,0,0,0,0,0,0,0,0,0,0,0,0,
474,-16.7,-19.38,-13.54,-5.544,11.32,5.768,13.76,-10.69,28.24,24.7,-6.531,4.15,19.31,11.58,8.641,-2.721,0,0,0,0,0,0,0,0,0,0,0,0,0,0,0,0,
475,-7.897,-9.345,-6.251,-1.394,19.16,17.36,-14.43,11.04,20.65,26.38,-0.5155,6.725,16.8,13.31,5.168,0.5357,0,0,0,0,0,0,0,0,0,0,0,0,0,0,0,0,
476,0.1553,-0.7582,-3.499,2.651,22.41,24.78,-27.81,23.44,20.97,37.22,-2.53,2.642,10.8,10.82,-6.047,-1.435,0,0,0,0,0,0,0,0,0,0,0,0,0,0,0,0,
477,-11.04,-6.927,-11.13,1.172,19.26,22.42,4.645,1.612,13.74,32.1,-20.13,-1.972,-0.793,6.817,-19.75,-4.774,0,0,0,0,0,0,0,0,0,0,0,0,0,0,0,0,
478,-7.655,-2.138,-2.658,5.018,27.4,27.65,40.34,-6.493,16.31,30.06,-35.04,-2.874,-9.464,6.88,-34.18,-10.53,0,0,0,0,0,0,0,0,0,0,0,0,0,0,0,0,
479,-2.421,0.3691,-4.869,4.617,26.77,26.55,1.959,7.836,16.83,28.28,-44.94,-4.636,-19.81,5.9,-46.77,-16.88,0,0,0,0,0,0,0,0,0,0,0,0,0,0,0,0,
480,-3.974,-1.0,-10.62,11.45,24.72,26.46,-40.23,24.22,9.136,29.53,-35.55,4.418,-19.65,12.76,-42.52,-10.32,0,0,0,0,0,0,0,0,0,0,0,0,0,0,0,0,
481,-4.602,-2.127,-13.37,10.39,16.27,18.73,-44.22,14.73,0.5439,29.91,-34.15,-2.922,-30.06,1.369,-44.89,-17.37,0,0,0,0,0,0,0,0,0,0,0,0,0,0,0,0,
482,-18.22,-16.89,-28.81,-12.45,-8.149,-8.04,-43.62,-7.309,-24.84,2.109,-47.52,-24.0,-49.71,-23.31,-48.13,-29.32,0,0,0,0,0,0,0,0,0,0,0,0,0,0,0,0,
483,-26.76,-24.78,-30.17,-19.16,-14.22,-19.45,-24.33,-8.407,-39.15,-20.84,-38.68,-27.0,-44.23,-27.08,-32.46,-23.74,0,0,0,0,0,0,0,0,0,0,0,0,0,0,0,0,
484,-24.87,-24.67,-22.33,-14.75,-8.887,-18.57,-7.664,-11.59,-28.43,-21.22,-25.58,-25.78,-32.29,-26.04,-19.36,-21.28,0,0,0,0,0,0,0,0,0,0,0,0,0,0,0,0,
485,-23.88,-27.66,-18.83,-18.54,-7.588,-21.71,-14.92,-17.74,-22.54,-23.53,-17.8,-22.08,-25.23,-23.48,-7.51,-16.48,0,0,0,0,0,0,0,0,0,0,0,0,0,0,0,0,
486,-17.53,-23.92,-7.391,-18.22,-4.662,-22.8,-17.56,-11.99,-22.43,-22.77,-4.269,-17.48,-18.46,-16.39,4.104,-7.281,0,0,0,0,0,0,0,0,0,0,0,0,0,0,0,0,
487,-14.96,-21.11,2.195,-13.74,-6.494,-23.86,8.98,-9.356,-27.97,-22.52,0.441,-14.49,-15.22,-11.24,7.661,0.0891,0,0,0,0,0,0,0,0,0,0,0,0,0,0,0,0,
488,-6.63,-12.13,11.74,-3.349,2.356,-13.52,52.55,-3.788,-24.83,-16.59,1.782,3.203,-3.531,1.141,10.19,12.91,0,0,0,0,0,0,0,0,0,0,0,0,0,0,0,0,
489,2.6,-1.617,6.083,-0.2428,3.476,-7.203,22.3,-3.486,-12.42,-5.635,1.029,10.21,-5.004,-1.158,-0.3279,9.268,0,0,0,0,0,0,0,0,0,0,0,0,0,0,0,0,
490,-11.48,-8.868,-20.03,-9.881,-18.21,-18.95,-65.92,-8.261,-29.6,-17.01,-0.2966,3.223,-22.27,-16.02,-12.11,-2.672,0,0,0,0,0,0,0,0,0,0,0,0,0,0,0,0,
491,-15.87,-9.18,-19.55,-10.36,-14.63,-18.7,-56.42,0.3497,-45.39,-24.69,3.492,6.336,-21.44,-15.89,-11.52,-2.587,0,0,0,0,0,0,0,0,0,0,0,0,0,0,0,0,
492,-5.941,-3.918,-4.322,-12.75,2.117,-14.69,18.36,-2.897,-27.97,-17.64,-9.404,0.6695,-20.48,-20.03,-20.96,-11.72,0,0,0,0,0,0,0,0,0,0,0,0,0,0,0,0,
493,-10.39,-10.32,-3.836,-18.79,-0.835,-18.2,20.85,-10.65,-16.89,-19.64,-22.86,-8.223,-28.18,-26.2,-28.36,-20.52,0,0,0,0,0,0,0,0,0,0,0,0,0,0,0,0,
494,-11.87,-11.95,-6.546,-13.54,-3.962,-12.53,-21.29,-3.069,-19.46,-14.62,-15.79,-8.386,-26.99,-21.35,-22.39,-16.29,0,0,0,0,0,0,0,0,0,0,0,0,0,0,0,0,
495,-8.255,-10.62,-17.42,-9.588,-5.051,-5.746,-37.25,-5.775,-22.21,-6.829,-10.89,-11.72,-22.67,-17.33,-19.68,-11.9,0,0,0,0,0,0,0,0,0,0,0,0,0,0,0,0,
496,-8.864,-6.783,-22.65,-8.85,-3.901,-0.9682,-45.36,-11.62,-20.6,-5.486,-7.636,-9.891,-15.43,-7.944,-18.26,-6.343,0,0,0,0,0,0,0,0,0,0,0,0,0,0,0,0,
497,-8.631,0.1077,-18.1,-11.96,0.2314,0.9001,-57.59,-9.419,-13.02,3.605,-2.901,-5.022,-7.997,3.902,-14.99,-0.0199,0,0,0,0,0,0,0,0,0,0,0,0,0,0,0,0,
498,-5.519,2.709,-13.32,-10.78,10.53,4.277,-10.61,-4.64,-1.785,14.92,-6.111,1.427,3.414,15.67,-7.085,10.88,0,0,0,0,0,0,0,0,0,0,0,0,0,0,0,0,
499,5.167,9.492,9.402,3.644,33.47,16.88,58.15,3.19,27.07,25.69,-15.19,6.07,17.19,24.81,-3.348,15.59,0,0,0,0,0,0,0,0,0,0,0,0,0,0,0,0,
500,8.271,10.08,21.89,6.885,40.16,19.47,26.02,5.565,47.11,27.1,-18.78,0.2835,17.93,22.36,-6.744,8.336,0,0,0,0,0,0,0,0,0,0,0,0,0,0,0,0,
501,10.12,11.22,12.03,12.51,40.1,26.48,-21.94,20.74,39.74,27.44,2.389,8.187,29.61,33.68,5.996,14.78,0,0,0,0,0,0,0,0,0,0,0,0,0,0,0,0,
502,21.74,21.73,11.33,26.2,48.12,39.44,2.033,34.2,44.51,43.08,16.66,12.47,44.3,43.99,11.38,11.24,0,0,0,0,0,0,0,0,0,0,0,0,0,0,0,0,
503,9.399,9.275,3.073,14.9,32.53,21.96,5.906,15.77,44.37,36.2,-3.057,-6.968,32.57,26.01,-2.438,-11.57,0,0,0,0,0,0,0,0,0,0,0,0,0,0,0,0,
504,-4.906,-3.04,-0.4775,11.08,25.72,11.14,18.3,16.51,31.94,17.4,-7.484,-4.816,33.14,22.55,7.648,-6.724,0,0,0,0,0,0,0,0,0,0,0,0,0,0,0,0,
505,5.738,6.505,17.35,20.8,40.91,22.7,58.52,32.86,44.64,26.63,12.13,11.56,44.83,32.07,26.86,8.913,0,0,0,0,0,0,0,0,0,0,0,0,0,0,0,0,
506,-0.5569,0.0679,12.69,2.498,27.73,13.44,13.87,13.98,42.79,27.39,27.16,15.59,33.58,25.51,29.19,13.84,0,0,0,0,0,0,0,0,0,0,0,0,0,0,0,0,
507,-12.68,-6.631,-3.842,-11.53,8.347,4.36,-56.34,-2.514,11.18,14.02,34.29,23.8,19.64,21.53,27.81,23.82,0,0,0,0,0,0,0,0,0,0,0,0,0,0,0,0,
508,-5.713,1.831,0.0353,-3.592,6.855,9.705,-42.14,0.2582,-3.489,8.924,22.05,25.82,7.22,16.49,18.46,24.15,0,0,0,0,0,0,0,0,0,0,0,0,0,0,0,0,
509,-2.414,0.7562,6.923,-3.898,5.145,6.655,20.91,-4.672,-4.567,-2.288,2.345,18.59,-7.589,3.216,6.509,15.17,0,0,0,0,0,0,0,0,0,0,0,0,0,0,0,0,
510,-4.057,-2.373,6.039,-10.8,5.218,-0.8308,61.73,-10.96,-6.455,-15.02,-9.313,10.74,-17.71,-12.65,-0.9436,5.851,0,0,0,0,0,0,0,0,0,0,0,0,0,0,0,0,
511,-7.544,-3.699,-4.508,-13.84,-1.506,-8.875,12.5,-14.19,-14.23,-24.53,-10.99,-1.828,-29.31,-32.59,-7.58,-7.262,0,0,0,0,0,0,0,0,0,0,0,0,0,0,0,0,
512,-11.24,-8.536,-20.34,-13.94,-14.7,-15.0,-70.68,-20.01,-33.05,-32.02,5.945,-11.24,-34.3,-44.33,-9.508,-16.64,0,0,0,0,0,0,0,0,0,0,0,0,0,0,0,0,
513,-12.2,-13.6,-22.66,-19.05,-17.88,-19.78,-50.12,-26.03,-44.35,-34.19,9.426,-19.76,-32.04,-46.32,-15.74,-23.22,0,0,0,0,0,0,0,0,0,0,0,0,0,0,0,0,
514,-19.4,-16.73,-4.576,-22.26,-12.02,-22.2,19.12,-16.93,-35.98,-35.1,-2.889,-18.03,-24.16,-34.12,-17.52,-14.92,0,0,0,0,0,0,0,0,0,0,0,0,0,0,0,0,
515,-26.35,-11.68,5.473,-14.36,-8.886,-15.33,19.52,0.0795,-18.38,-23.94,7.353,-1.23,-8.27,-8.241,-6.812,5.158,0,0,0,0,0,0,0,0,0,0,0,0,0,0,0,0,
516,-33.52,-10.87,-15.9,-15.23,-20.09,-14.16,-5.417,-2.339,-13.87,-11.67,13.9,3.036,-2.642,3.399,-6.46,3.839,0,0,0,0,0,0,0,0,0,0,0,0,0,0,0,0,
517,-41.55,-14.56,-30.72,-17.62,-26.09,-14.99,-2.902,-2.623,-18.56,-10.7,3.362,1.356,-1.444,6.594,-12.26,-7.365,0,0,0,0,0,0,0,0,0,0,0,0,0,0,0,0,
518,-39.78,-8.574,-21.98,-4.729,-13.31,-3.765,8.102,12.48,-7.864,-1.07,0.8283,4.84,7.652,14.79,-11.16,-8.757,0,0,0,0,0,0,0,0,0,0,0,0,0,0,0,0,
519,-32.02,-1.504,-11.74,10.77,3.166,11.81,20.94,24.42,9.697,12.74,1.893,5.656,16.99,21.58,-5.26,-4.844,0,0,0,0,0,0,0,0,0,0,0,0,0,0,0,0,
520,-13.72,10.66,6.804,22.88,22.77,30.53,12.6,31.91,26.65,28.17,1.917,11.87,25.33,31.45,2.708,2.42,0,0,0,0,0,0,0,0,0,0,0,0,0,0,0,0,
521,-1.582,18.2,5.159,17.57,25.12,34.24,-22.6,19.73,35.34,42.38,-5.006,18.21,23.89,37.62,4.843,8.041,0,0,0,0,0,0,0,0,0,0,0,0,0,0,0,0,
522,-14.53,7.926,-22.8,8.745,10.9,26.31,-26.28,10.65,24.64,39.08,-10.44,29.0,26.53,47.35,15.01,24.92,0,0,0,0,0,0,0,0,0,0,0,0,0,0,0,0,
523,-17.41,9.636,-17.96,23.25,17.94,36.6,-10.54,32.41,25.54,42.84,-0.4294,44.69,41.0,63.18,28.97,44.17,0,0,0,0,0,0,0,0,0,0,0,0,0,0,0,0,
524,-9.855,16.91,-4.608,24.17,22.96,36.82,-16.59,33.55,33.73,50.02,-1.019,42.35,30.12,57.08,19.55,38.28,0,0,0,0,0,0,0,0,0,0,0,0,0,0,0,0,
525,-15.66,9.419,-16.38,7.403,12.28,16.59,-8.679,16.98,21.41,33.97,-13.94,37.08,3.629,42.31,6.904,29.24,0,0,0,0,0,0,0,0,0,0,0,0,0,0,0,0,
526,-18.43,2.694,-18.91,2.44,9.587,4.452,-4.098,18.55,11.55,17.15,-20.28,31.39,-11.37,28.03,2.604,22.75,0,0,0,0,0,0,0,0,0,0,0,0,0,0,0,0,
527,-18.6,-6.928,-14.81,-7.535,2.833,-8.542,-19.24,7.963,3.218,-0.0469,-20.59,8.361,-24.25,-4.041,-5.45,5.28,0,0,0,0,0,0,0,0,0,0,0,0,0,0,0,0,
528,-20.18,-15.68,-10.47,-17.26,-3.713,-20.25,-7.522,-12.04,-10.47,-23.95,-6.91,-11.85,-28.21,-36.0,-7.78,-8.019,0,0,0,0,0,0,0,0,0,0,0,0,0,0,0,0,
529,-19.02,-15.01,-3.424,-17.06,-4.531,-22.64,7.199,-22.38,-13.64,-37.66,9.169,-28.67,-26.07,-60.41,-8.797,-21.93,0,0,0,0,0,0,0,0,0,0,0,0,0,0,0,0,
530,-21.59,-16.79,-8.032,-19.58,-12.8,-25.86,12.34,-31.26,-16.68,-47.45,12.56,-49.01,-28.48,-84.26,-15.21,-40.97,0,0,0,0,0,0,0,0,0,0,0,0,0,0,0,0,
531,-29.33,-23.88,-20.63,-25.45,-27.95,-35.81,5.088,-39.48,-25.46,-58.4,5.705,-66.33,-37.91,-105.4,-29.4,-61.07,0,0,0,0,0,0,0,0,0,0,0,0,0,0,0,0,
532,-50.08,-41.61,-37.01,-42.94,-53.09,-58.69,-34.28,-51.01,-46.1,-74.98,-8.928,-79.22,-55.46,-120.4,-45.45,-77.7,0,0,0,0,0,0,0,0,0,0,0,0,0,0,0,0,
533,-59.31,-50.31,-35.07,-52.84,-57.17,-67.64,-16.56,-49.17,-62.44,-85.79,-5.748,-68.07,-49.18,-106.1,-33.83,-66.77,0,0,0,0,0,0,0,0,0,0,0,0,0,0,0,0,
534,-39.6,-36.43,-12.94,-41.42,-34.21,-55.2,33.48,-35.69,-40.98,-70.07,8.422,-46.51,-24.84,-75.27,-12.13,-43.91,0,0,0,0,0,0,0,0,0,0,0,0,0,0,0,0,
535,-36.43,-36.06,-13.96,-39.67,-35.54,-55.38,9.347,-34.77,-24.38,-54.47,0.733,-38.07,-18.05,-54.07,-7.159,-28.53,0,0,0,0,0,0,0,0,0,0,0,0,0,0,0,0,
536,-42.52,-38.78,-22.17,-39.62,-38.16,-49.13,9.15,-20.22,-29.11,-41.34,-8.085,-19.99,-4.707,-19.75,4.758,-0.6689,0,0,0,0,0,0,0,0,0,0,0,0,0,0,0,0,
537,-27.13,-20.77,-16.36,-24.31,-17.53,-23.44,26.52,8.471,-11.56,-10.68,-4.397,5.296,16.48,22.34,18.87,26.73,0,0,0,0,0,0,0,0,0,0,0,0,0,0,0,0,
538,-12.85,-3.369,-15.99,-1.453,-8.348,-0.259,-39.32,18.56,4.353,18.33,1.043,26.12,21.61,50.82,18.5,40.37,0,0,0,0,0,0,0,0,0,0,0,0,0,0,0,0,
539,1.899,12.44,-9.809,21.21,-1.585,21.47,-70.2,17.74,2.516,42.68,4.818,40.3,23.45,66.21,13.14,44.51,0,0,0,0,0,0,0,0,0,0,0,0,0,0,0,0,
540,13.1,20.23,-2.232,18.44,9.075,27.7,-25.38,16.02,6.713,53.99,-0.3282,33.05,22.99,60.84,7.384,33.7,0,0,0,0,0,0,0,0,0,0,0,0,0,0,0,0,
541,9.907,18.27,3.691,9.635,17.99,23.9,25.23,17.78,15.69,43.97,-4.702,22.32,21.49,48.13,5.576,21.53,0,0,0,0,0,0,0,0,0,0,0,0,0,0,0,0,
542,17.39,26.82,23.38,25.11,35.51,31.21,76.79,16.58,32.57,37.95,-7.962,16.42,19.58,34.58,0.8129,8.171,0,0,0,0,0,0,0,0,0,0,0,0,0,0,0,0,
543,25.96,29.11,26.32,30.83,36.29,27.88,39.86,7.711,38.01,27.19,-9.355,4.308,5.546,10.62,-6.901,-9.214,0,0,0,0,0,0,0,0,0,0,0,0,0,0,0,0,
544,18.33,20.89,4.325,21.17,12.3,15.32,-56.61,9.995,10.44,5.765,2.147,-4.627,-9.768,-11.88,-8.678,-18.11,0,0,0,0,0,0,0,0,0,0,0,0,0,0,0,0,
545,10.74,20.46,-8.636,18.22,-4.104,11.92,-33.7,11.87,-16.41,-9.133,-0.9572,-16.56,-20.1,-29.95,-15.1,-26.41,0,0,0,0,0,0,0,0,0,0,0,0,0,0,0,0,
546,16.2,26.72,0.6394,23.34,5.4,19.08,39.48,11.58,-14.74,-17.27,-14.0,-23.68,-21.34,-34.15,-18.21,-26.79,0,0,0,0,0,0,0,0,0,0,0,0,0,0,0,0,
547,31.58,37.26,17.1,35.74,25.18,35.13,28.2,19.09,2.095,-6.847,-15.94,-22.65,-15.68,-27.91,-19.43,-23.11,0,0,0,0,0,0,0,0,0,0,0,0,0,0,0,0,
548,29.27,34.91,13.77,35.69,24.57,36.06,1.276,10.79,6.944,4.966,-30.86,-36.73,-21.74,-37.31,-34.32,-35.61,0,0,0,0,0,0,0,0,0,0,0,0,0,0,0,0,
549,17.16,23.71,9.177,26.59,18.97,26.45,-5.515,8.598,1.903,-1.303,-36.99,-43.28,-25.18,-41.21,-38.48,-40.92,0,0,0,0,0,0,0,0,0,0,0,0,0,0,0,0,
550,23.83,23.27,19.98,26.29,20.73,25.14,-15.52,16.14,2.887,-0.1201,-22.55,-37.68,-23.27,-36.83,-30.37,-39.62,0,0,0,0,0,0,0,0,0,0,0,0,0,0,0,0,
551,20.19,11.61,16.33,16.75,6.686,12.82,8.048,-9.223,-3.686,-2.573,-19.83,-42.98,-26.87,-47.12,-23.2,-43.38,0,0,0,0,0,0,0,0,0,0,0,0,0,0,0,0,
552,0.7084,-8.552,7.236,1.996,-5.773,-4.102,31.2,-29.64,-8.564,-15.73,-9.806,-39.94,-17.54,-47.99,-7.751,-33.39,0,0,0,0,0,0,0,0,0,0,0,0,0,0,0,0,
553,-11.9,-16.94,-3.134,-3.565,-13.86,-12.93,-9.459,-23.11,-5.437,-17.92,4.984,-34.03,-13.07,-41.56,-1.937,-26.28,0,0,0,0,0,0,0,0,0,0,0,0,0,0,0,0,
554,-24.9,-23.55,-28.51,-7.275,-33.27,-21.71,-47.26,-26.9,-22.26,-22.16,0.2584,-33.15,-22.81,-41.61,-3.398,-24.32,0,0,0,0,0,0,0,0,0,0,0,0,0,0,0,0,
555,-29.0,-28.18,-35.97,-11.6,-38.07,-24.76,-14.72,-28.88,-36.41,-26.34,-8.601,-19.02,-17.35,-30.33,6.953,-7.638,0,0,0,0,0,0,0,0,0,0,0,0,0,0,0,0,
556,-23.52,-32.41,-23.6,-19.64,-28.93,-25.64,42.22,-17.27,-22.7,-20.17,-17.71,-2.606,-6.992,-12.29,15.37,10.9,0,0,0,0,0,0,0,0,0,0,0,0,0,0,0,0,
557,-21.33,-34.13,-19.66,-23.96,-23.58,-24.6,25.26,-9.227,-5.246,-13.53,-12.5,10.27,-3.085,3.529,22.12,27.26,0,0,0,0,0,0,0,0,0,0,0,0,0,0,0,0,
558,-21.08,-32.43,-31.38,-26.55,-30.42,-25.78,-82.95,-14.23,-8.323,-11.58,9.07,15.37,-3.486,8.011,25.97,33.14,0,0,0,0,0,0,0,0,0,0,0,0,0,0,0,0,
559,-28.24,-40.22,-48.8,-30.45,-49.42,-35.13,-104.5,-20.73,-34.52,-21.18,15.07,10.06,-3.414,2.081,24.83,27.78,0,0,0,0,0,0,0,0,0,0,0,0,0,0,0,0,
560,-27.23,-35.2,-35.5,-13.17,-44.74,-26.82,20.19,-8.444,-34.92,-22.06,11.82,10.95,13.95,5.958,29.76,30.71,0,0,0,0,0,0,0,0,0,0,0,0,0,0,0,0,
561,-16.1,-19.33,-6.221,2.461,-25.75,-12.83,61.75,1.702,-0.4866,-9.05,10.8,9.524,25.57,7.916,27.29,28.23,0,0,0,0,0,0,0,0,0,0,0,0,0,0,0,0,
562,-13.26,-18.28,-1.592,-3.021,-20.93,-13.18,-9.552,-0.4326,6.941,-9.169,15.43,10.85,22.23,8.347,21.96,20.38,0,0,0,0,0,0,0,0,0,0,0,0,0,0,0,0,
563,-2.137,-8.601,-4.825,0.4061,-12.34,-6.497,-34.24,-2.647,-1.689,-7.212,24.53,18.54,21.12,12.69,17.92,12.93,0,0,0,0,0,0,0,0,0,0,0,0,0,0,0,0,
564,6.779,-1.139,-10.84,-1.204,-14.25,-7.88,-25.56,-15.13,-5.222,-8.416,7.728,5.674,2.003,-2.948,-5.984,-9.415,0,0,0,0,0,0,0,0,0,0,0,0,0,0,0,0,
565,0.007,-13.98,-8.632,-14.25,-20.1,-17.8,16.94,-13.41,-18.08,-27.35,-23.46,-3.922,-20.15,-14.4,-26.91,-21.79,0,0,0,0,0,0,0,0,0,0,0,0,0,0,0,0,
566,3.225,-14.75,12.8,-11.97,-4.386,-12.08,63.34,3.491,-11.35,-29.2,-37.36,1.736,-21.67,-6.989,-29.48,-16.76,0,0,0,0,0,0,0,0,0,0,0,0,0,0,0,0,
567,8.218,-7.507,11.0,-1.466,-4.421,-8.029,-7.666,0.7401,0.4107,-20.35,-33.37,-4.965,-23.54,-6.968,-30.51,-16.09,0,0,0,0,0,0,0,0,0,0,0,0,0,0,0,0,
568,12.42,-0.7015,-4.883,13.6,-13.24,1.2,-77.86,5.787,-10.84,-10.5,-15.46,-9.953,-20.25,-2.603,-30.92,-15.83,0,0,0,0,0,0,0,0,0,0,0,0,0,0,0,0,
569,25.46,14.16,1.53,24.77,1.351,22.82,-26.39,17.08,-9.226,16.4,-16.62,-12.13,-13.11,3.381,-40.78,-24.31,0,0,0,0,0,0,0,0,0,0,0,0,0,0,0,0,
570,30.38,23.52,15.71,25.72,17.19,36.75,13.97,11.4,7.876,36.57,-39.12,-17.04,-15.04,2.518,-50.72,-32.85,0,0,0,0,0,0,0,0,0,0,0,0,0,0,0,0,
571,35.03,30.15,27.44,34.05,26.86,50.09,-3.082,18.63,21.43,48.57,-39.42,-7.264,-11.57,12.58,-41.76,-22.84,0,0,0,0,0,0,0,0,0,0,0,0,0,0,0,0,
572,40.29,33.77,27.92,33.62,29.01,54.7,-6.3,24.28,29.72,59.67,-26.39,4.72,-6.736,19.45,-29.84,-14.17,0,0,0,0,0,0,0,0,0,0,0,0,0,0,0,0,
573,32.04,26.68,19.34,19.5,20.53,39.57,4.373,7.525,26.27,49.7,-18.23,8.457,-7.752,14.36,-19.97,-12.29,0,0,0,0,0,0,0,0,0,0,0,0,0,0,0,0,
574,17.89,12.92,7.711,8.959,7.331,18.71,7.66,-5.285,15.98,27.61,-15.93,4.022,-15.53,5.099,-17.7,-13.91,0,0,0,0,0,0,0,0,0,0,0,0,0,0,0,0,
575,-3.012,-9.613,-18.42,-6.351,-15.76,-2.572,-9.087,-10.0,-1.96,5.968,-22.7,-5.972,-31.08,-7.975,-27.45,-16.03,0,0,0,0,0,0,0,0,0,0,0,0,0,0,0,0,
576,-19.59,-23.92,-33.21,-14.77,-33.95,-14.26,-44.73,-15.01,-22.99,-10.56,-19.17,-6.791,-36.36,-14.5,-26.71,-6.128,0,0,0,0,0,0,0,0,0,0,0,0,0,0,0,0,
577,-19.95,-22.34,-24.02,-12.85,-37.15,-19.53,-46.8,-25.31,-32.66,-21.57,-6.139,-6.738,-25.52,-15.92,-10.93,6.013,0,0,0,0,0,0,0,0,0,0,0,0,0,0,0,0,
578,-9.133,-13.66,-6.327,-14.48,-24.57,-20.85,31.5,-27.87,-24.5,-31.47,11.51,-3.327,5.557,-5.534,18.58,23.74,0,0,0,0,0,0,0,0,0,0,0,0,0,0,0,0,
579,17.47,8.921,26.0,-6.556,6.997,-4.57,106.4,-9.443,12.3,-21.08,47.97,14.48,51.66,23.47,61.63,54.04,0,0,0,0,0,0,0,0,0,0,0,0,0,0,0,0,
580,36.44,23.62,46.66,6.335,24.04,10.4,68.99,6.641,49.26,1.757,94.36,32.1,82.46,49.39,101.2,79.33,0,0,0,0,0,0,0,0,0,0,0,0,0,0,0,0,
581,28.64,16.6,34.97,8.024,14.27,10.65,-4.073,14.04,52.49,12.84,123.7,42.37,88.78,59.58,113.0,83.99,0,0,0,0,0,0,0,0,0,0,0,0,0,0,0,0,
582,4.033,-2.486,2.873,-12.51,-12.39,-8.964,-17.85,7.54,31.5,6.957,86.65,26.36,53.02,34.28,65.09,44.68,0,0,0,0,0,0,0,0,0,0,0,0,0,0,0,0,
583,-35.1,-38.99,-39.41,-48.55,-52.64,-50.09,-3.933,-14.1,-11.95,-29.27,-3.246,-6.98,-12.58,-14.18,-9.004,-11.8,0,0,0,0,0,0,0,0,0,0,0,0,0,0,0,0,
584,-54.58,-59.96,-51.78,-54.26,-64.34,-64.73,5.525,-15.88,-43.06,-60.34,-44.84,-11.49,-39.19,-29.87,-39.61,-30.6,0,0,0,0,0,0,0,0,0,0,0,0,0,0,0,0,
585,-42.72,-50.92,-38.31,-35.37,-50.09,-48.85,-29.75,-11.77,-35.25,-53.78,-33.07,-5.383,-37.11,-27.01,-44.0,-33.91,0,0,0,0,0,0,0,0,0,0,0,0,0,0,0,0,
586,-31.73,-42.56,-33.83,-25.2,-44.56,-36.88,-85.96,-8.818,-36.61,-43.6,-21.88,-4.678,-39.81,-28.51,-43.13,-33.22,0,0,0,0,0,0,0,0,0,0,0,0,0,0,0,0,
587,-7.526,-19.84,-12.2,-5.293,-22.3,-11.13,-48.61,20.53,-39.21,-25.51,-9.505,6.676,-24.87,-16.78,-27.55,-15.88,0,0,0,0,0,0,0,0,0,0,0,0,0,0,0,0,
588,27.19,15.09,18.19,17.0,9.27,20.46,41.37,28.94,-12.16,2.07,-8.647,4.711,-11.74,-12.48,-23.22,-12.94,0,0,0,0,0,0,0,0,0,0,0,0,0,0,0,0,
589,43.2,32.57,28.01,25.9,22.04,35.15,58.28,5.37,6.246,8.097,-20.06,-9.315,-18.37,-18.71,-31.35,-23.36,0,0,0,0,0,0,0,0,0,0,0,0,0,0,0,0,
590,46.4,39.14,27.56,35.47,25.88,44.46,19.09,4.943,4.307,12.01,-23.82,-16.96,-28.31,-17.49,-38.39,-30.21,0,0,0,0,0,0,0,0,0,0,0,0,0,0,0,0,
591,36.59,36.7,15.13,40.71,20.48,46.98,-3.49,16.81,-0.9612,23.36,-27.32,-24.49,-42.9,-19.07,-53.43,-40.06,0,0,0,0,0,0,0,0,0,0,0,0,0,0,0,0,
592,27.77,31.35,8.751,39.66,15.29,45.51,-1.109,16.75,-5.593,27.06,-27.24,-27.87,-54.26,-23.31,-70.61,-48.75,0,0,0,0,0,0,0,0,0,0,0,0,0,0,0,0,
593,32.86,30.36,15.25,35.44,15.0,44.05,-3.554,10.88,-9.952,26.29,-21.17,-31.2,-54.42,-26.44,-77.18,-55.25,0,0,0,0,0,0,0,0,0,0,0,0,0,0,0,0,
594,32.42,27.39,13.41,30.16,15.04,41.7,5.212,11.97,-14.52,25.04,-13.7,-31.84,-41.97,-23.48,-63.98,-52.12,0,0,0,0,0,0,0,0,0,0,0,0,0,0,0,0,
595,27.38,26.88,17.28,26.94,23.22,41.37,32.79,22.13,-3.805,28.18,-10.23,-26.89,-22.48,-18.45,-43.23,-41.45,0,0,0,0,0,0,0,0,0,0,0,0,0,0,0,0,
596,15.93,18.23,16.49,16.9,19.73,30.81,22.06,14.69,9.886,20.77,-15.78,-25.76,-11.79,-22.05,-28.08,-32.27,0,0,0,0,0,0,0,0,0,0,0,0,0,0,0,0,
597,1.496,7.431,-4.798,15.4,6.12,22.27,-9.286,-3.821,7.968,5.939,-6.603,-11.14,2.83,-10.55,-3.901,-9.451,0,0,0,0,0,0,0,0,0,0,0,0,0,0,0,0,
598,-0.317,8.949,-20.56,20.29,0.7407,21.59,-14.03,-7.388,7.316,9.416,7.449,7.072,17.95,10.46,15.74,11.43,0,0,0,0,0,0,0,0,0,0,0,0,0,0,0,0,
599,-6.727,0.6578,-23.58,8.286,-7.479,9.582,-10.83,0.6022,4.202,10.01,4.329,12.14,20.37,17.32,23.04,19.55,0,0,0,0,0,0,0,0,0,0,0,0,0,0,0,0,
600,-9.076,-6.46,-12.35,4.361,-3.868,5.684,8.697,10.43,6.521,4.122,8.469,23.37,31.31,24.38,34.45,31.29,0,0,0,0,0,0,0,0,0,0,0,0,0,0,0,0,
601,5.874,0.302,4.255,8.312,10.1,7.973,30.66,3.496,26.1,3.533,9.923,26.09,40.49,22.79,32.79,29.46,0,0,0,0,0,0,0,0,0,0,0,0,0,0,0,0,
602,17.42,4.381,11.05,2.437,16.34,2.671,29.77,-4.936,35.97,-6.777,5.105,20.89,40.25,15.74,25.01,23.04,0,0,0,0,0,0,0,0,0,0,0,0,0,0,0,0,
603,28.85,14.65,18.47,2.683,24.38,8.493,33.47,4.528,39.42,-8.064,12.63,22.99,39.05,16.49,20.38,19.66,0,0,0,0,0,0,0,0,0,0,0,0,0,0,0,0,
604,26.02,12.95,12.85,-4.237,11.43,3.515,7.297,3.235,30.44,-7.859,2.276,7.872,12.08,-2.458,-5.959,-8.704,0,0,0,0,0,0,0,0,0,0,0,0,0,0,0,0,
605,2.609,-7.025,-5.813,-11.43,-15.93,-12.53,-60.59,5.142,-5.211,-26.01,-17.45,-5.822,-19.47,-24.15,-33.19,-33.67,0,0,0,0,0,0,0,0,0,0,0,0,0,0,0,0,
606,-1.73,-6.785,-10.48,-0.681,-17.82,-7.377,-75.33,14.93,-22.41,-26.47,-24.81,-3.209,-26.99,-28.36,-48.02,-40.46,0,0,0,0,0,0,0,0,0,0,0,0,0,0,0,0,
607,7.928,0.9239,-6.375,0.0043,-10.98,-1.675,-11.53,0.0992,-14.94,-16.91,-39.69,-10.91,-31.66,-37.93,-62.97,-51.54,0,0,0,0,0,0,0,0,0,0,0,0,0,0,0,0,
608,14.46,2.996,5.427,0.8591,-1.775,1.284,40.5,-2.76,-8.098,-16.46,-41.67,-16.89,-28.88,-41.16,-61.5,-50.03,0,0,0,0,0,0,0,0,0,0,0,0,0,0,0,0,
609,21.34,11.54,10.83,15.38,7.082,11.49,-0.3657,12.03,-0.8346,-8.065,-26.54,-17.57,-21.42,-34.53,-52.89,-39.75,0,0,0,0,0,0,0,0,0,0,0,0,0,0,0,0,
610,22.04,15.9,0.2218,22.77,1.473,16.22,-63.48,7.651,-6.374,-2.61,-20.7,-18.45,-18.4,-26.18,-46.28,-31.11,0,0,0,0,0,0,0,0,0,0,0,0,0,0,0,0,
611,27.83,20.72,9.745,27.87,7.205,22.97,-13.99,8.915,-5.921,5.855,-20.27,-8.161,-4.107,-5.298,-29.34,-12.25,0,0,0,0,0,0,0,0,0,0,0,0,0,0,0,0,
612,30.34,21.71,21.79,25.95,15.44,23.48,72.95,17.88,17.28,23.58,-24.77,0.8434,7.572,14.17,-13.25,6.93,0,0,0,0,0,0,0,0,0,0,0,0,0,0,0,0,
613,12.94,6.431,1.34,13.03,-1.712,6.787,43.84,13.37,23.04,26.61,-20.92,7.014,8.477,24.64,1.711,22.34,0,0,0,0,0,0,0,0,0,0,0,0,0,0,0,0,
614,-8.191,-11.98,-28.21,-0.3343,-28.91,-14.63,-49.62,10.19,0.425,17.05,-6.653,13.04,7.645,29.18,13.97,29.84,0,0,0,0,0,0,0,0,0,0,0,0,0,0,0,0,
615,-27.05,-26.21,-45.16,-11.01,-45.87,-29.32,-78.23,17.58,-22.43,6.188,-4.105,17.63,7.242,30.83,16.38,29.88,0,0,0,0,0,0,0,0,0,0,0,0,0,0,0,0,
616,-33.93,-26.3,-35.66,-2.422,-37.48,-22.33,-33.95,23.06,-21.13,7.679,1.624,32.17,17.98,40.85,20.9,37.83,0,0,0,0,0,0,0,0,0,0,0,0,0,0,0,0,
617,-26.18,-16.88,-15.46,6.988,-21.5,-10.8,7.176,8.8,-4.428,17.11,13.09,40.61,25.33,42.56,21.57,41.21,0,0,0,0,0,0,0,0,0,0,0,0,0,0,0,0,
618,-17.1,-12.22,-12.46,-5.927,-15.57,-9.802,6.24,-1.538,-0.7092,12.48,20.12,40.42,23.35,38.41,18.71,39.54,0,0,0,0,0,0,0,0,0,0,0,0,0,0,0,0,
619,-6.411,-6.48,-15.02,-12.89,-7.531,-3.951,-8.979,9.041,0.0236,13.4,27.73,41.52,25.55,43.02,21.07,40.9,0,0,0,0,0,0,0,0,0,0,0,0,0,0,0,0,
620,-14.71,-12.23,-23.32,-9.22,-13.45,-7.04,-0.7237,5.396,-3.121,17.45,20.43,29.45,17.43,34.56,19.35,33.33,0,0,0,0,0,0,0,0,0,0,0,0,0,0,0,0,
621,-27.23,-13.78,-24.41,1.297,-15.91,-6.71,15.78,1.546,-14.79,8.261,9.973,19.99,5.824,24.09,17.08,26.33,0,0,0,0,0,0,0,0,0,0,0,0,0,0,0,0,
622,-0.9206,15.56,-0.9036,19.05,15.3,17.62,-16.6,11.31,-6.348,12.27,12.55,14.56,-1.416,21.01,10.3,15.82,0,0,0,0,0,0,0,0,0,0,0,0,0,0,0,0,
623,31.07,38.49,15.42,26.15,41.73,33.18,-47.49,3.936,6.265,19.55,15.34,-3.839,-10.53,6.016,3.396,-1.047,0,0,0,0,0,0,0,0,0,0,0,0,0,0,0,0,
624,45.81,47.31,27.88,31.12,53.46,36.48,9.647,-5.138,11.72,15.41,26.6,-13.25,-0.8062,-8.324,13.47,-2.785,0,0,0,0,0,0,0,0,0,0,0,0,0,0,0,0,
625,49.69,49.1,42.79,21.23,54.34,24.74,59.18,-13.05,22.71,4.328,31.41,-19.86,5.909,-28.18,11.9,-9.2,0,0,0,0,0,0,0,0,0,0,0,0,0,0,0,0,
626,27.17,21.96,30.41,-14.49,27.16,-14.17,37.97,-24.75,6.628,-31.53,12.63,-34.26,-16.76,-60.0,-9.905,-28.71,0,0,0,0,0,0,0,0,0,0,0,0,0,0,0,0,
627,3.13,-5.377,11.58,-34.82,-1.254,-43.73,27.93,-19.35,-27.72,-69.5,-3.891,-39.98,-38.05,-80.02,-26.09,-41.39,0,0,0,0,0,0,0,0,0,0,0,0,0,0,0,0,
628,-9.857,-18.24,4.399,-43.75,-19.76,-60.73,12.68,-28.02,-45.41,-90.8,-10.21,-47.39,-50.74,-94.37,-41.14,-55.4,0,0,0,0,0,0,0,0,0,0,0,0,0,0,0,0,
629,-22.68,-29.97,-1.833,-52.37,-31.4,-74.18,-23.48,-51.85,-57.39,-108.9,-5.459,-57.27,-58.21,-103.6,-52.63,-68.02,0,0,0,0,0,0,0,0,0,0,0,0,0,0,0,0,
630,-14.97,-19.63,2.474,-36.76,-19.25,-60.34,-13.26,-46.98,-56.08,-103.0,5.821,-63.94,-52.36,-97.95,-52.88,-72.86,0,0,0,0,0,0,0,0,0,0,0,0,0,0,0,0,
631,3.328,5.845,17.9,-10.18,3.921,-30.93,23.9,-26.26,-34.51,-74.29,12.67,-67.86,-34.6,-83.6,-40.42,-68.41,0,0,0,0,0,0,0,0,0,0,0,0,0,0,0,0,
632,17.61,26.36,38.51,13.42,26.11,-4.166,52.5,-13.76,-5.059,-42.75,26.57,-59.71,-2.979,-60.63,-13.94,-51.42,0,0,0,0,0,0,0,0,0,0,0,0,0,0,0,0,
633,28.14,35.38,45.29,22.87,36.61,10.9,62.94,-19.14,24.68,-12.24,34.12,-55.17,18.48,-44.58,0.1943,-43.9,0,0,0,0,0,0,0,0,0,0,0,0,0,0,0,0,
634,17.14,24.07,19.67,7.668,22.61,7.172,24.96,-27.67,31.63,1.005,25.87,-51.4,14.04,-36.37,-4.239,-41.59,0,0,0,0,0,0,0,0,0,0,0,0,0,0,0,0,
635,-1.494,10.42,-12.38,-6.859,5.898,0.5116,-17.75,-18.7,14.72,3.084,16.94,-29.32,6.211,-19.53,-5.826,-22.85,0,0,0,0,0,0,0,0,0,0,0,0,0,0,0,0,
636,-10.76,3.178,-26.54,-15.99,-1.271,-8.129,-12.55,-19.06,1.224,3.737,4.973,-4.286,6.974,-3.182,1.446,4.013,0,0,0,0,0,0,0,0,0,0,0,0,0,0,0,0,
637,-18.37,-3.504,-26.86,-27.66,-3.74,-19.19,-10.79,-23.75,2.171,-1.256,2.678,15.67,13.93,8.994,11.84,25.59,0,0,0,0,0,0,0,0,0,0,0,0,0,0,0,0,
638,-26.91,-9.572,-33.33,-39.78,-11.41,-26.86,-44.65,-18.32,-2.568,-6.864,3.502,19.71,6.032,9.732,3.879,22.4,0,0,0,0,0,0,0,0,0,0,0,0,0,0,0,0,
639,-36.06,-18.53,-46.01,-52.15,-21.69,-28.57,-61.94,-32.55,-29.11,-14.84,-6.031,12.15,-12.07,5.509,-9.781,11.85,0,0,0,0,0,0,0,0,0,0,0,0,0,0,0,0,
640,-25.17,-8.953,-34.09,-43.17,-3.54,-5.665,-47.84,-46.55,-36.88,-5.626,-1.729,17.22,-8.379,19.85,-3.608,21.79,0,0,0,0,0,0,0,0,0,0,0,0,0,0,0,0,
641,-2.246,14.49,-13.75,-20.44,23.58,20.98,-23.23,-39.38,-16.93,17.72,-7.768,11.82,-10.09,26.76,-3.466,23.44,0,0,0,0,0,0,0,0,0,0,0,0,0,0,0,0,
642,4.581,28.38,1.954,-2.274,37.45,31.94,15.25,-33.87,-9.443,19.37,-23.45,3.67,-17.69,27.41,4.386,29.58,0,0,0,0,0,0,0,0,0,0,0,0,0,0,0,0,
643,21.51,55.62,28.26,22.53,61.83,52.57,12.04,-30.25,5.21,25.74,5.434,18.36,6.583,48.01,40.39,58.58,0,0,0,0,0,0,0,0,0,0,0,0,0,0,0,0,
644,43.56,78.55,26.24,28.7,71.19,61.32,-39.74,-28.96,25.04,41.86,40.53,17.16,29.25,54.49,60.5,63.66,0,0,0,0,0,0,0,0,0,0,0,0,0,0,0,0,
645,43.53,71.54,9.707,15.97,63.22,49.26,-21.6,-28.27,23.56,36.17,50.65,5.956,41.18,48.76,67.95,53.86,0,0,0,0,0,0,0,0,0,0,0,0,0,0,0,0,
646,45.56,68.8,27.19,19.37,73.71,47.32,40.11,-22.01,35.57,36.51,69.37,13.09,65.69,55.3,82.18,55.67,0,0,0,0,0,0,0,0,0,0,0,0,0,0,0,0,
647,50.01,67.05,43.07,17.48,80.62,40.12,67.85,-10.16,57.75,44.81,82.18,19.77,82.12,55.8,80.17,49.57,0,0,0,0,0,0,0,0,0,0,0,0,0,0,0,0,
648,49.52,54.28,58.93,4.622,83.85,26.96,120.1,14.39,73.84,41.85,78.28,25.62,88.25,54.23,65.59,37.21,0,0,0,0,0,0,0,0,0,0,0,0,0,0,0,0,
649,50.99,47.32,84.88,3.262,91.53,21.38,144.5,24.43,96.29,41.08,67.93,21.72,80.96,46.42,42.63,15.45,0,0,0,0,0,0,0,0,0,0,0,0,0,0,0,0,
650,42.25,40.03,74.22,4.251,78.2,9.201,80.71,15.55,92.2,31.03,44.2,0.6625,50.4,19.43,7.404,-15.63,0,0,0,0,0,0,0,0,0,0,0,0,0,0,0,0,
651,33.09,32.04,48.02,-0.203,56.49,-2.327,23.9,23.05,60.63,13.71,19.19,-8.047,21.7,-0.6529,-20.61,-27.93,0,0,0,0,0,0,0,0,0,0,0,0,0,0,0,0,
652,30.04,28.81,40.35,-8.063,40.31,-4.063,7.55,24.06,37.21,10.82,4.084,3.251,6.563,0.5709,-29.14,-13.56,0,0,0,0,0,0,0,0,0,0,0,0,0,0,0,0,
653,26.51,31.94,36.56,-5.563,32.4,3.7,31.6,9.432,25.13,17.11,-13.22,18.45,-1.54,8.368,-28.58,8.529,0,0,0,0,0,0,0,0,0,0,0,0,0,0,0,0,
654,25.13,38.17,27.7,7.193,28.23,11.39,55.6,6.871,20.66,17.87,-36.8,18.96,-15.39,0.81,-35.38,13.09,0,0,0,0,0,0,0,0,0,0,0,0,0,0,0,0,
655,12.92,32.54,4.628,9.229,4.836,3.736,-5.498,5.329,0.362,3.119,-36.53,15.26,-29.69,-10.24,-29.86,14.03,0,0,0,0,0,0,0,0,0,0,0,0,0,0,0,0,
656,1.16,29.57,-15.07,8.423,-12.33,-2.388,-54.54,1.559,-26.88,-6.144,-7.555,26.79,-20.59,-1.002,-4.536,26.41,0,0,0,0,0,0,0,0,0,0,0,0,0,0,0,0,
657,-2.052,26.92,-16.79,-1.244,-9.692,-11.71,-25.77,-6.516,-24.12,-5.038,-4.929,22.64,-16.8,-2.443,-5.282,16.32,0,0,0,0,0,0,0,0,0,0,0,0,0,0,0,0,T1
658,-17.57,2.656,-16.11,-26.2,-12.52,-34.03,-9.835,-25.87,-17.17,-20.99,-20.34,9.817,-26.7,-11.36,-16.65,4.002,0,0,0,0,0,0,0,0,0,0,0,0,0,0,0,0,
659,-22.22,-10.11,-4.327,-30.83,-3.659,-33.35,0.9565,-32.88,-13.01,-26.92,-10.09,22.01,-11.65,9.117,-1.247,23.01,0,0,0,0,0,0,0,0,0,0,0,0,0,0,0,0,
660,-8.606,-0.9856,5.513,-18.33,11.37,-13.47,2.268,-21.13,2.636,-6.473,-3.295,28.46,5.179,29.0,7.835,32.63,0,0,0,0,0,0,0,0,0,0,0,0,0,0,0,0,
661,-6.887,5.045,-12.83,-9.899,7.059,2.115,-27.31,-6.248,0.107,8.539,-5.44,22.8,4.45,32.34,7.146,26.03,0,0,0,0,0,0,0,0,0,0,0,0,0,0,0,0,
662,-6.791,15.33,-29.84,2.118,2.461,19.32,-12.53,-4.828,-11.3,16.84,4.377,22.66,9.195,35.57,19.34,25.24,0,0,0,0,0,0,0,0,0,0,0,0,0,0,0,0,
663,2.299,27.69,-19.29,12.04,3.979,28.89,9.302,-14.55,-6.911,19.42,18.0,16.79,17.22,33.99,35.43,23.95,0,0,0,0,0,0,0,0,0,0,0,0,0,0,0,0,
664,6.538,29.8,-7.117,5.624,-4.25,21.54,-21.6,-16.38,-5.571,13.92,35.84,8.531,21.94,29.69,46.89,22.52,0,0,0,0,0,0,0,0,0,0,0,0,0,0,0,0,
665,-5.647,18.84,-26.5,-20.98,-27.03,-1.535,-39.01,-24.4,-15.82,4.76,42.04,2.478,20.27,23.24,46.5,20.35,0,0,0,0,0,0,0,0,0,0,0,0,0,0,0,0,
666,-17.85,8.817,-43.42,-31.38,-35.0,-16.25,-23.97,-29.21,-18.48,-3.943,36.18,7.011,19.15,25.52,42.64,22.48,0,0,0,0,0,0,0,0,0,0,0,0,0,0,0,0,
667,-0.1675,20.17,-11.47,-5.211,-4.881,-4.577,13.39,-10.59,4.957,8.992,38.88,17.68,26.04,37.09,41.18,24.91,0,0,0,0,0,0,0,0,0,0,0,0,0,0,0,0,
668,18.33,25.79,27.79,2.709,21.64,-5.766,63.13,-7.522,35.41,22.37,38.35,8.175,27.97,29.01,34.31,15.92,0,0,0,0,0,0,0,0,0,0,0,0,0,0,0,0,
669,14.66,16.0,44.19,-8.064,27.91,-19.69,70.96,-18.16,47.51,10.51,42.17,-2.262,35.37,15.74,38.49,16.59,0,0,0,0,0,0,0,0,0,0,0,0,0,0,0,0,
670,15.78,16.03,51.43,-2.166,32.91,-15.75,56.47,-17.77,50.06,1.635,48.69,-1.74,49.76,11.76,49.93,25.34,0,0,0,0,0,0,0,0,0,0,0,0,0,0,0,0,
671,16.13,12.62,37.68,-5.522,26.7,-13.02,52.78,-20.31,47.36,-3.682,42.29,-5.027,54.21,5.016,52.94,28.25,0,0,0,0,0,0,0,0,0,0,0,0,0,0,0,0,
672,11.78,10.26,16.63,-11.35,18.11,-7.649,21.95,-15.86,42.56,-5.841,43.46,-1.767,55.6,7.672,51.31,32.72,0,0,0,0,0,0,0,0,0,0,0,0,0,0,0,0,
673,10.56,19.36,7.176,-3.466,13.58,5.43,9.777,-11.05,35.22,5.878,31.77,0.4996,47.41,12.67,36.95,29.09,0,0,0,0,0,0,0,0,0,0,0,0,0,0,0,0,
674,10.31,24.82,14.23,4.181,18.89,13.01,63.12,-7.919,31.06,14.27,6.593,6.821,43.63,20.65,30.67,33.06,0,0,0,0,0,0,0,0,0,0,0,0,0,0,0,0,
675,28.86,38.73,42.25,19.25,48.36,29.16,63.83,15.8,58.07,31.23,17.71,27.13,61.55,42.18,44.4,50.58,0,0,0,0,0,0,0,0,0,0,0,0,0,0,0,0,
676,42.86,48.29,42.24,23.94,56.12,37.03,-17.0,24.18,78.19,50.6,35.25,30.15,63.38,47.97,44.86,48.05,0,0,0,0,0,0,0,0,0,0,0,0,0,0,0,0,
677,24.82,36.21,8.611,14.3,32.96,27.47,-30.75,11.52,57.32,47.64,31.16,24.46,54.33,44.36,41.67,41.1,0,0,0,0,0,0,0,0,0,0,0,0,0,0,0,0,
678,7.187,28.01,-3.541,22.83,22.74,28.2,20.53,12.77,48.51,46.82,26.26,24.83,55.14,47.04,43.91,39.31,0,0,0,0,0,0,0,0,0,0,0,0,0,0,0,0,
679,-1.346,23.72,-9.803,36.36,10.42,32.89,25.6,13.47,47.61,47.3,13.82,17.0,43.08,39.25,35.56,26.45,0,0,0,0,0,0,0,0,0,0,0,0,0,0,0,0,
680,-7.431,19.74,-28.66,36.13,-9.454,32.28,0.4814,9.957,24.52,39.66,0.3653,13.28,28.3,31.09,29.38,17.67,0,0,0,0,0,0,0,0,0,0,0,0,0,0,0,0,
681,-12.83,15.87,-41.84,21.07,-25.44,20.11,-27.81,2.518,2.833,34.14,-7.986,7.617,14.09,21.25,21.16,7.226,0,0,0,0,0,0,0,0,0,0,0,0,0,0,0,0,
682,-26.81,2.834,-47.5,1.008,-39.29,0.1973,-54.9,-8.41,-18.0,18.27,-12.29,3.053,-4.527,11.36,12.28,0.7056,0,0,0,0,0,0,0,0,0,0,0,0,0,0,0,0,
683,-28.88,0.5264,-42.09,0.222,-28.98,1.649,-43.45,-0.3718,-27.08,9.237,-4.766,22.12,-5.567,22.22,17.42,17.0,0,0,0,0,0,0,0,0,0,0,0,0,0,0,0,0,
684,-20.45,2.638,-35.4,0.6899,-10.11,6.529,-19.29,7.376,-12.21,15.26,-8.361,36.72,-3.809,31.73,15.44,26.59,0,0,0,0,0,0,0,0,0,0,0,0,0,0,0,0,
685,-20.31,-7.064,-28.89,-9.868,-6.204,-1.526,-18.69,4.056,-4.423,12.35,-20.59,34.93,-9.249,30.32,6.552,22.49,0,0,0,0,0,0,0,0,0,0,0,0,0,0,0,0,
686,-19.53,-13.24,-16.04,-12.39,-4.562,-2.921,-16.01,6.591,-6.963,12.57,-22.11,32.18,-8.509,29.83,6.569,21.97,0,0,0,0,0,0,0,0,0,0,0,0,0,0,0,0,
687,-23.11,-22.07,-13.87,-16.41,-11.44,-8.791,2.443,7.636,-10.01,14.84,-27.81,25.88,-8.846,21.81,7.358,20.25,0,0,0,0,0,0,0,0,0,0,0,0,0,0,0,0,
688,-29.73,-30.9,-18.21,-25.0,-26.46,-23.33,9.335,8.304,-14.26,5.567,-35.9,16.26,-12.37,6.014,1.102,10.54,0,0,0,0,0,0,0,0,0,0,0,0,0,0,0,0,
689,-40.76,-33.74,-32.16,-34.8,-49.76,-40.37,-26.07,1.368,-24.39,-12.86,-40.4,-3.538,-23.21,-18.74,-13.77,-9.408,0,0,0,0,0,0,0,0,0,0,0,0,0,0,0,0,
690,-60.69,-38.4,-54.83,-42.5,-77.01,-56.37,-65.46,-11.12,-48.84,-40.25,-32.02,-16.57,-28.86,-34.62,-14.13,-14.57,0,0,0,0,0,0,0,0,0,0,0,0,0,0,0,0,
691,-57.43,-27.7,-51.6,-31.93,-77.9,-55.01,-53.22,-7.824,-59.34,-50.58,-7.318,-7.851,-15.11,-26.62,1.719,-1.364,0,0,0,0,0,0,0,0,0,0,0,0,0,0,0,0,
692,-42.81,-16.94,-41.02,-21.57,-67.12,-50.75,-23.22,-8.845,-48.73,-44.12,-1.819,-6.431,-10.4,-21.57,1.274,-1.775,0,0,0,0,0,0,0,0,0,0,0,0,0,0,0,0,
693,-40.4,-21.77,-38.26,-20.74,-56.33,-47.05,-7.263,-13.17,-40.02,-42.01,-5.679,-5.191,-8.221,-12.04,0.9758,-0.8298,0,0,0,0,0,0,0,0,0,0,0,0,0,0,0,0,
694,-25.43,-14.36,-20.58,-14.47,-30.67,-30.28,11.89,-5.135,-20.36,-25.89,3.551,3.977,7.641,9.772,11.47,7.42,0,0,0,0,0,0,0,0,0,0,0,0,0,0,0,0,
695,-11.53,-6.082,-5.498,-10.3,-13.32,-18.9,27.32,-4.157,0.511,-6.052,3.018,1.041,13.5,16.5,9.966,4.561,0,0,0,0,0,0,0,0,0,0,0,0,0,0,0,0,
696,-8.589,-6.851,4.749,-3.977,-5.955,-9.839,18.68,-1.297,6.755,3.49,2.045,0.8219,14.3,15.79,3.294,3.938,0,0,0,0,0,0,0,0,0,0,0,0,0,0,0,0,
697,-5.663,-5.908,7.25,-3.374,-5.419,-4.063,-10.26,3.595,7.421,12.99,-1.317,1.356,8.334,10.71,-8.188,-0.9617,0,0,0,0,0,0,0,0,0,0,0,0,0,0,0,0,
698,-17.49,-13.39,-13.21,-13.82,-23.04,-12.87,-24.35,3.28,-8.616,8.188,-20.06,-1.792,-8.55,2.204,-18.48,-8.853,0,0,0,0,0,0,0,0,0,0,0,0,0,0,0,0,
699,-22.7,-15.15,-20.95,-0.1137,-30.51,-6.571,-20.67,18.24,-22.79,4.135,-23.33,9.627,-7.323,10.72,-10.16,-1.113,0,0,0,0,0,0,0,0,0,0,0,0,0,0,0,0,
700,-18.48,-9.491,-24.02,23.1,-32.78,8.115,-43.11,27.37,-19.66,15.1,-18.48,16.59,-1.673,19.11,-4.627,1.006,0,0,0,0,0,0,0,0,0,0,0,0,0,0,0,0,
701,-37.67,-15.73,-50.89,22.97,-50.87,4.708,-81.73,24.29,-29.11,17.67,-25.12,14.1,-10.47,19.57,-9.711,-5.014,0,0,0,0,0,0,0,0,0,0,0,0,0,0,0,0,
702,-55.11,-21.78,-60.14,18.85,-57.07,2.964,-83.79,33.3,-41.2,19.05,-29.35,19.08,-12.96,27.22,-9.308,-0.7666,0,0,0,0,0,0,0,0,0,0,0,0,0,0,0,0,
703,-50.08,-20.63,-40.45,23.68,-42.83,12.25,-36.04,34.9,-31.67,27.22,-36.52,24.75,-6.878,34.51,-5.549,8.166,0,0,0,0,0,0,0,0,0,0,0,0,0,0,0,0,
704,-40.2,-12.92,-23.51,31.15,-26.63,20.34,-6.082,26.0,-12.61,32.45,-46.47,27.39,-5.937,35.15,-5.521,12.29,0,0,0,0,0,0,0,0,0,0,0,0,0,0,0,0,
705,-35.02,-7.1,-20.65,28.33,-24.43,15.46,-45.27,24.21,-6.6,29.09,-48.37,25.65,-12.83,28.51,-10.85,8.024,0,0,0,0,0,0,0,0,0,0,0,0,0,0,0,0,
706,-31.99,-12.23,-20.85,20.62,-26.31,9.116,-64.27,27.72,-13.28,19.16,-44.04,27.01,-11.0,25.63,-13.21,7.729,0,0,0,0,0,0,0,0,0,0,0,0,0,0,0,0,
707,-17.75,-6.797,-15.05,24.2,-14.43,17.16,-51.68,27.61,-7.444,21.91,-41.45,27.64,-6.09,25.73,-19.96,5.955,0,0,0,0,0,0,0,0,0,0,0,0,0,0,0,0,
708,-0.2807,7.529,-15.75,21.71,-11.21,16.35,-83.33,14.83,-7.372,21.37,-46.3,13.21,-20.55,12.34,-33.96,-7.379,0,0,0,0,0,0,0,0,0,0,0,0,0,0,0,0,
709,17.69,22.93,0.4578,23.72,-3.329,16.13,-55.35,13.75,-19.54,8.188,-38.66,13.66,-19.02,11.58,-22.01,-1.243,0,0,0,0,0,0,0,0,0,0,0,0,0,0,0,0,
710,51.56,49.7,47.98,48.45,31.94,38.7,24.97,29.38,2.039,18.93,-14.33,28.56,7.315,26.71,4.606,14.13,0,0,0,0,0,0,0,0,0,0,0,0,0,0,0,0,
711,79.48,67.38,73.79,61.9,49.63,51.72,-8.533,29.78,25.98,34.8,6.883,22.77,12.29,24.45,12.44,8.226,0,0,0,0,0,0,0,0,0,0,0,0,0,0,0,0,
712,92.22,74.35,75.21,56.41,45.0,48.23,-51.98,25.18,13.64,29.18,21.88,12.61,5.227,15.17,14.26,3.046,0,0,0,0,0,0,0,0,0,0,0,0,0,0,0,0,
713,104.9,84.25,83.51,46.57,45.32,41.25,4.713,21.33,5.682,19.48,18.5,8.581,5.058,7.426,13.6,2.733,0,0,0,0,0,0,0,0,0,0,0,0,0,0,0,0,
714,122.1,94.32,97.9,45.77,50.67,38.73,41.91,17.82,11.82,9.344,9.497,9.46,10.3,5.807,12.58,2.342,0,0,0,0,0,0,0,0,0,0,0,0,0,0,0,0,
715,158.5,121.9,122.7,69.69,69.57,58.26,39.39,33.47,21.29,14.38,17.99,20.87,24.45,20.1,17.76,7.88,0,0,0,0,0,0,0,0,0,0,0,0,0,0,0,0,
716,194.0,153.3,135.5,88.26,86.17,75.35,62.73,44.03,32.25,31.69,14.09,26.58,29.34,28.28,17.92,9.597,0,0,0,0,0,0,0,0,0,0,0,0,0,0,0,0,
717,201.5,162.4,127.2,90.01,90.1,77.21,82.56,39.28,38.82,36.81,2.25,30.36,28.98,29.46,21.94,13.59,0,0,0,0,0,0,0,0,0,0,0,0,0,0,0,0,
718,196.6,160.9,122.0,92.38,90.3,81.81,31.13,37.91,48.33,41.74,13.86,33.77,33.45,30.69,28.77,17.54,0,0,0,0,0,0,0,0,0,0,0,0,0,0,0,0,
719,181.1,149.5,109.4,84.4,75.38,78.19,-49.12,36.33,43.76,44.84,28.44,30.9,30.26,27.44,27.22,16.94,0,0,0,0,0,0,0,0,0,0,0,0,0,0,0,0,
720,161.0,134.1,93.38,76.61,62.75,70.8,-33.07,38.63,28.21,43.39,24.61,35.28,27.04,30.86,22.59,20.37,0,0,0,0,0,0,0,0,0,0,0,0,0,0,0,0,
721,139.8,117.7,78.58,68.08,53.99,60.06,13.52,32.25,27.51,41.5,4.2,28.73,17.17,24.4,5.938,11.12,0,0,0,0,0,0,0,0,0,0,0,0,0,0,0,0,
722,108.9,90.45,58.42,47.4,32.16,39.65,-12.11,16.51,18.86,23.46,-6.775,13.34,3.194,9.497,-4.681,3.018,0,0,0,0,0,0,0,0,0,0,0,0,0,0,0,0,
723,96.22,77.31,63.26,42.24,29.17,34.38,1.907,18.78,9.536,12.54,3.903,16.74,9.171,13.06,9.956,16.13,0,0,0,0,0,0,0,0,0,0,0,0,0,0,0,0,
724,91.87,71.31,75.32,37.54,34.23,29.08,48.2,18.92,20.65,16.55,7.144,18.14,12.2,13.46,17.77,20.41,0,0,0,0,0,0,0,0,0,0,0,0,0,0,0,0,
725,63.93,45.25,58.68,16.71,16.85,9.723,8.495,11.08,17.53,6.822,10.52,13.19,2.409,5.405,13.63,14.4,0,0,0,0,0,0,0,0,0,0,0,0,0,0,0,0,
726,40.35,20.6,44.61,9.519,3.91,2.047,-28.31,11.89,-3.087,-3.051,19.17,9.208,-3.044,0.7648,10.07,6.816,0,0,0,0,0,0,0,0,0,0,0,0,0,0,0,0,
727,31.92,6.11,47.4,5.61,4.931,-2.737,8.7,6.152,-13.36,-9.118,9.527,-3.125,-7.406,-9.406,3.188,-7.063,0,0,0,0,0,0,0,0,0,0,0,0,0,0,0,0,
728,28.51,-0.8108,54.11,-4.184,11.61,-8.68,37.24,4.278,-5.716,-16.82,3.999,-7.045,-4.137,-11.99,0.3805,-12.77,0,0,0,0,0,0,0,0,0,0,0,0,0,0,0,0,
729,27.08,0.0564,54.77,-3.373,12.82,-6.57,25.2,8.435,6.664,-14.47,8.698,-6.921,-1.521,-10.95,-4.365,-18.94,0,0,0,0,0,0,0,0,0,0,0,0,0,0,0,0,
730,13.55,-3.594,40.33,-1.087,-1.325,-5.943,2.968,2.262,0.1919,-14.06,6.57,-12.19,-9.309,-17.45,-13.46,-28.13,0,0,0,0,0,0,0,0,0,0,0,0,0,0,0,0,
731,0.3138,-7.065,25.34,-7.678,-11.26,-6.96,-2.533,1.713,-12.27,-15.39,4.287,-10.27,-14.06,-19.02,-20.87,-27.97,0,0,0,0,0,0,0,0,0,0,0,0,0,0,0,0,
732,-4.431,-14.44,18.9,-19.13,-14.58,-12.22,25.69,7.136,-15.7,-14.97,-5.31,-8.535,-19.21,-20.17,-29.52,-27.5,0,0,0,0,0,0,0,0,0,0,0,0,0,0,0,0,
733,-7.889,-25.47,23.85,-19.13,-12.58,-11.82,59.66,11.36,-13.81,-15.14,-10.37,-1.224,-15.15,-14.33,-24.45,-17.36,0,0,0,0,0,0,0,0,0,0,0,0,0,0,0,0,
734,-4.412,-23.64,35.43,-10.44,0.058,-0.4624,40.29,14.28,3.27,-1.789,-0.5362,10.93,-0.1562,0.4041,-12.09,-2.291,0,0,0,0,0,0,0,0,0,0,0,0,0,0,0,0,
735,-6.373,-22.68,30.44,-13.79,2.273,-0.9869,-11.42,11.12,14.99,8.086,1.167,8.79,0.2629,2.577,-12.64,-5.188,0,0,0,0,0,0,0,0,0,0,0,0,0,0,0,0,
736,-15.61,-25.51,12.15,-15.46,-5.448,-3.204,-17.35,11.37,6.71,4.643,-0.2869,2.008,-4.337,-2.319,-14.5,-13.49,0,0,0,0,0,0,0,0,0,0,0,0,0,0,0,0,
737,-24.08,-25.36,-13.54,-13.23,-15.02,-0.3939,-3.147,9.791,1.442,3.842,-0.4273,-5.75,-4.615,-5.831,-13.86,-16.29,0,0,0,0,0,0,0,0,0,0,0,0,0,0,0,0,
738,-35.86,-30.4,-36.61,-19.88,-25.63,-6.59,-16.97,10.73,-1.717,1.011,-3.082,-7.866,-5.209,-2.981,-8.726,-9.753,0,0,0,0,0,0,0,0,0,0,0,0,0,0,0,0,
739,-38.7,-30.83,-33.17,-23.24,-24.32,-8.201,-16.03,18.39,-2.97,3.652,-0.9476,3.403,-1.43,5.889,0.7796,0.9745,0,0,0,0,0,0,0,0,0,0,0,0,0,0,0,0,
740,-41.16,-31.42,-27.66,-26.32,-24.69,-8.395,12.07,3.03,2.178,7.531,-1.485,6.338,0.7454,3.298,5.427,1.578,0,0,0,0,0,0,0,0,0,0,0,0,0,0,0,0,
741,-49.52,-35.97,-29.63,-23.67,-25.01,-10.04,21.3,-6.831,8.126,1.46,13.84,8.61,13.63,4.736,24.43,11.07,0,0,0,0,0,0,0,0,0,0,0,0,0,0,0,0,
742,-37.64,-27.57,-11.18,-3.542,-6.913,3.806,-7.865,18.07,21.91,10.78,61.09,25.84,43.57,24.55,62.05,37.73,0,0,0,0,0,0,0,0,0,0,0,0,0,0,0,0,
743,-12.99,-12.34,18.73,15.56,14.74,25.96,-4.536,36.57,39.83,36.28,103.5,45.23,69.02,47.75,90.79,62.55,0,0,0,0,0,0,0,0,0,0,0,0,0,0,0,0,
744,-1.502,-1.234,36.56,20.8,29.06,38.09,92.65,39.32,58.56,55.7,94.64,49.18,71.9,56.59,81.02,61.78,0,0,0,0,0,0,0,0,0,0,0,0,0,0,0,0,
745,-21.02,-14.53,11.32,0.9279,13.09,16.4,127.2,24.69,60.11,45.78,25.75,20.88,32.55,28.02,25.49,21.51,0,0,0,0,0,0,0,0,0,0,0,0,0,0,0,0,
746,-57.78,-49.01,-40.79,-27.99,-29.63,-21.56,-9.509,-5.308,19.73,4.369,-27.63,-4.795,-14.47,-5.692,-15.63,-9.024,0,0,0,0,0,0,0,0,0,0,0,0,0,0,0,0,
747,-64.95,-56.91,-52.59,-32.78,-45.5,-28.97,-112.2,-10.32,-19.25,-15.27,-18.58,-1.295,-20.33,-7.055,-15.9,-6.276,0,0,0,0,0,0,0,0,0,0,0,0,0,0,0,0,
748,-55.21,-47.29,-40.27,-30.86,-41.91,-25.14,-67.43,2.07,-27.95,-11.03,-12.04,-7.334,-16.65,-11.37,-22.26,-13.64,0,0,0,0,0,0,0,0,0,0,0,0,0,0,0,0,
749,-50.64,-43.16,-35.77,-24.96,-37.71,-23.42,-8.314,5.799,-26.2,-16.99,-19.0,-15.9,-16.89,-19.38,-25.35,-20.8,0,0,0,0,0,0,0,0,0,0,0,0,0,0,0,0,
750,-39.21,-35.99,-24.39,-11.17,-22.41,-11.53,17.11,3.381,-9.841,-11.67,-11.61,-8.896,-6.057,-12.24,-9.998,-13.58,0,0,0,0,0,0,0,0,0,0,0,0,0,0,0,0,
751,-34.53,-36.05,-13.55,-9.031,-11.27,-6.692,42.91,2.581,6.973,-1.773,-8.963,-6.34,0.277,-7.614,-1.868,-10.64,0,0,0,0,0,0,0,0,0,0,0,0,0,0,0,0,
752,-14.34,-18.45,8.086,2.445,3.527,3.828,30.72,12.61,14.11,-0.767,-0.994,-5.033,1.592,-4.73,-0.8495,-8.458,0,0,0,0,0,0,0,0,0,0,0,0,0,0,0,0,
753,20.46,9.902,26.8,6.004,11.6,12.3,-24.23,5.274,14.38,2.078,6.108,-12.86,-7.316,-11.81,-8.6,-17.41,0,0,0,0,0,0,0,0,0,0,0,0,0,0,0,0,
754,7.268,-7.954,11.62,-24.72,-7.313,-8.641,-28.82,-18.8,-8.519,-10.31,-2.785,-27.18,-16.93,-25.54,-15.08,-28.26,0,0,0,0,0,0,0,0,0,0,0,0,0,0,0,0,
755,-22.03,-34.8,7.319,-36.75,-10.87,-22.71,29.33,-16.55,-16.63,-23.02,0.6733,-26.24,-1.003,-22.48,-4.77,-20.23,0,0,0,0,0,0,0,0,0,0,0,0,0,0,0,0,
756,-22.21,-36.29,17.23,-30.42,-1.575,-22.13,52.14,-9.427,6.516,-19.88,8.703,-21.79,14.1,-16.82,5.002,-11.3,0,0,0,0,0,0,0,0,0,0,0,0,0,0,0,0,
757,-23.29,-39.48,7.404,-33.66,-5.997,-23.91,38.37,-9.636,14.08,-17.03,10.77,-9.017,19.04,-6.74,16.22,2.203,0,0,0,0,0,0,0,0,0,0,0,0,0,0,0,0,
758,-25.59,-35.1,3.989,-24.56,-3.224,-15.79,39.98,1.793,17.75,-6.585,17.6,8.121,28.29,9.755,25.62,16.47,0,0,0,0,0,0,0,0,0,0,0,0,0,0,0,0,
759,-22.94,-27.44,9.065,-17.19,0.0437,-10.67,40.6,10.51,28.13,1.172,21.67,8.045,28.71,11.5,21.25,14.34,0,0,0,0,0,0,0,0,0,0,0,0,0,0,0,0,
760,-22.68,-29.03,4.249,-23.38,-4.214,-11.66,33.25,16.25,22.81,0.5489,30.88,10.85,27.94,13.14,23.39,15.99,0,0,0,0,0,0,0,0,0,0,0,0,0,0,0,0,
761,-24.27,-29.18,-2.828,-28.49,-9.335,-13.34,22.0,7.904,13.83,6.811,38.52,14.57,28.68,16.38,27.28,19.35,0,0,0,0,0,0,0,0,0,0,0,0,0,0,0,0,
762,-29.8,-32.21,1.389,-31.95,-14.35,-22.95,18.66,-17.16,10.39,3.151,34.98,7.071,24.81,10.68,22.51,15.53,0,0,0,0,0,0,0,0,0,0,0,0,0,0,0,0,
763,-28.4,-35.78,12.92,-30.41,-11.64,-27.37,27.34,-23.03,13.2,-7.77,34.48,2.611,23.06,5.176,17.85,12.2,0,0,0,0,0,0,0,0,0,0,0,0,0,0,0,0,
764,-30.22,-41.2,-0.7026,-31.39,-16.95,-27.44,13.57,-16.98,12.33,-13.96,25.3,-1.161,13.74,-2.323,8.535,4.532,0,0,0,0,0,0,0,0,0,0,0,0,0,0,0,0,
765,-34.69,-41.04,-14.03,-25.4,-17.12,-18.68,16.21,-5.258,3.973,-14.56,11.34,4.648,9.655,1.916,5.496,4.893,0,0,0,0,0,0,0,0,0,0,0,0,0,0,0,0,
766,-17.68,-22.06,6.177,-3.521,5.266,3.003,48.25,13.14,14.24,2.121,6.452,14.65,15.89,12.01,9.868,8.737,0,0,0,0,0,0,0,0,0,0,0,0,0,0,0,0,
767,-10.93,-17.86,6.884,-0.7112,4.393,3.063,32.69,9.847,22.39,9.117,-0.6533,7.578,7.339,1.156,7.778,1.437,0,0,0,0,0,0,0,0,0,0,0,0,0,0,0,0,
768,-24.95,-31.4,-10.46,-14.69,-13.64,-11.93,23.89,3.257,6.853,-3.51,-3.531,1.519,-1.678,-9.627,6.345,-1.153,0,0,0,0,0,0,0,0,0,0,0,0,0,0,0,0,
769,-28.13,-32.25,-7.464,-21.58,-13.3,-16.52,62.63,4.282,-0.1021,-7.213,-5.03,0.0618,-1.319,-10.76,3.638,-2.204,0,0,0,0,0,0,0,0,0,0,0,0,0,0,0,0,
770,-29.85,-31.3,-9.175,-27.14,-13.6,-20.13,34.55,-4.022,2.953,-9.437,-0.3141,0.7238,1.638,-8.408,6.236,0.1116,0,0,0,0,0,0,0,0,0,0,0,0,0,0,0,0,
771,-32.52,-34.27,-15.69,-30.78,-20.06,-24.42,-43.18,-2.347,0.9303,-11.46,24.02,8.308,8.722,-0.614,15.79,9.886,0,0,0,0,0,0,0,0,0,0,0,0,0,0,0,0,
772,-33.28,-41.42,-16.81,-36.96,-29.33,-34.49,-41.21,1.165,-10.4,-13.74,30.8,3.823,3.682,-5.827,11.68,7.578,0,0,0,0,0,0,0,0,0,0,0,0,0,0,0,0,
773,-38.38,-50.46,-19.4,-40.12,-33.63,-41.87,23.13,-9.559,-22.26,-23.46,17.57,-0.393,0.2368,-10.45,9.253,7.385,0,0,0,0,0,0,0,0,0,0,0,0,0,0,0,0,
774,-38.4,-47.91,-16.65,-35.77,-26.04,-35.57,43.08,-21.94,-10.93,-20.68,16.01,2.73,8.652,-4.313,13.41,12.55,0,0,0,0,0,0,0,0,0,0,0,0,0,0,0,0,
775,-39.84,-47.66,-15.58,-41.34,-25.86,-35.42,15.6,-30.65,-0.5023,-17.08,15.82,-4.024,5.372,-8.69,10.08,9.482,0,0,0,0,0,0,0,0,0,0,0,0,0,0,0,0,
776,-35.08,-45.92,-12.38,-41.51,-21.47,-33.66,7.676,-23.25,-5.322,-21.09,17.3,-2.884,6.486,-8.144,15.79,16.01,0,0,0,0,0,0,0,0,0,0,0,0,0,0,0,0,
777,-22.01,-34.41,-8.609,-34.36,-12.87,-28.57,1.094,-14.93,0.621,-16.69,20.91,2.444,14.27,-3.187,21.21,21.28,0,0,0,0,0,0,0,0,0,0,0,0,0,0,0,0,
778,-27.81,-35.95,-17.5,-41.46,-21.01,-37.8,-19.55,-20.47,1.556,-19.85,17.07,-0.8108,6.649,-9.923,12.83,15.31,0,0,0,0,0,0,0,0,0,0,0,0,0,0,0,0,
779,-34.67,-42.27,-19.13,-46.19,-20.46,-41.9,-8.58,-15.96,-7.417,-24.54,13.29,0.8031,-2.109,-12.07,6.466,14.66,0,0,0,0,0,0,0,0,0,0,0,0,0,0,0,0,
780,-28.22,-39.82,-12.58,-40.65,-10.59,-35.62,16.53,-13.68,-8.649,-17.91,8.684,2.978,-3.32,-8.151,5.21,14.29,0,0,0,0,0,0,0,0,0,0,0,0,0,0,0,0,
781,-22.03,-30.02,-5.365,-26.4,-4.178,-23.9,38.26,-17.06,-4.566,-9.789,9.539,7.324,2.549,-1.519,9.427,15.42,0,0,0,0,0,0,0,0,0,0,0,0,0,0,0,0,
782,-14.63,-17.37,2.063,-12.31,6.107,-11.49,44.83,-5.651,7.4,3.156,9.461,4.807,3.642,-0.678,8.27,11.39,0,0,0,0,0,0,0,0,0,0,0,0,0,0,0,0,
783,-22.98,-25.25,-11.97,-21.17,-0.0759,-20.34,-1.792,-2.258,7.495,2.217,-0.8268,-12.62,-9.978,-12.25,1.955,-1.02,0,0,0,0,0,0,0,0,0,0,0,0,0,0,0,0,
784,-36.35,-36.82,-23.23,-26.34,-9.834,-26.97,-30.17,-11.49,-7.356,-11.49,6.685,-12.97,-8.757,-11.41,13.56,2.651,0,0,0,0,0,0,0,0,0,0,0,0,0,0,0,0,
785,-29.33,-30.34,-11.04,-16.91,-3.407,-17.17,9.629,-15.4,-7.404,-9.446,20.75,-5.091,3.183,-5.143,25.39,9.29,0,0,0,0,0,0,0,0,0,0,0,0,0,0,0,0,
786,-27.24,-29.62,-7.782,-20.46,-3.321,-18.89,47.8,-11.63,-5.212,-7.568,17.77,-10.6,4.184,-7.286,25.85,7.444,0,0,0,0,0,0,0,0,0,0,0,0,0,0,0,0,
787,-31.92,-30.88,-10.9,-22.81,-3.667,-22.4,56.04,-2.553,-4.693,-10.0,16.59,-11.4,9.339,-2.3,30.68,12.81,0,0,0,0,0,0,0,0,0,0,0,0,0,0,0,0,
788,-28.74,-27.82,-11.83,-18.22,-0.7164,-19.31,8.87,-3.417,3.255,-7.022,19.66,-7.33,12.96,2.245,31.46,18.24,0,0,0,0,0,0,0,0,0,0,0,0,0,0,0,0,
789,-24.91,-27.75,-16.1,-15.54,-3.51,-14.62,-66.25,-5.441,-2.217,-4.63,28.0,0.1872,11.75,7.519,29.95,23.96,0,0,0,0,0,0,0,0,0,0,0,0,0,0,0,0,
790,-20.22,-21.88,-15.99,-10.46,-0.5882,-5.485,-31.77,0.5313,-9.969,4.957,28.01,6.147,13.79,15.68,25.19,24.78,0,0,0,0,0,0,0,0,0,0,0,0,0,0,0,0,
791,-23.53,-20.87,-17.84,-11.32,4.378,-5.17,63.7,-2.367,0.2982,9.62,4.736,2.367,8.906,11.96,9.317,13.97,0,0,0,0,0,0,0,0,0,0,0,0,0,0,0,0,
792,-28.57,-24.86,-18.54,-12.06,5.752,-9.18,40.09,-0.6334,11.82,4.484,-0.8498,7.056,2.486,9.603,0.913,12.38,0,0,0,0,0,0,0,0,0,0,0,0,0,0,0,0,
793,-23.55,-23.91,-17.14,-13.62,0.9565,-12.5,-36.28,6.521,4.936,4.063,7.973,13.54,-3.064,9.548,-0.643,14.18,0,0,0,0,0,0,0,0,0,0,0,0,0,0,0,0,
794,-21.45,-25.3,-19.18,-21.66,-4.145,-20.06,-11.5,2.753,-9.697,-2.929,-3.58,11.07,-7.42,2.975,-5.48,8.065,0,0,0,0,0,0,0,0,0,0,0,0,0,0,0,0,
795,-18.1,-22.29,-14.56,-17.95,4.748,-18.97,36.67,3.777,-3.778,-10.92,-11.17,8.839,-4.333,1.035,-8.878,3.503,0,0,0,0,0,0,0,0,0,0,0,0,0,0,0,0,
796,-13.34,-17.75,-14.25,-8.675,9.859,-11.04,4.09,11.31,5.615,-7.606,-3.99,5.032,-5.544,3.453,-10.78,1.731,0,0,0,0,0,0,0,0,0,0,0,0,0,0,0,0,
797,-9.848,-11.76,-14.1,-0.8446,10.6,2.268,-39.61,12.53,-1.946,2.31,3.885,6.217,-9.688,6.288,-11.86,0.5131,0,0,0,0,0,0,0,0,0,0,0,0,0,0,0,0,
798,-0.1334,-0.7093,-4.296,2.612,16.59,9.467,-38.23,-0.8139,-9.013,9.503,-1.885,-0.7504,-20.33,-5.045,-24.02,-15.63,0,0,0,0,0,0,0,0,0,0,0,0,0,0,0,0,
799,1.511,-5.468,-2.448,-7.844,14.36,-5.731,-1.722,-15.64,-19.55,-5.284,-22.87,-19.87,-35.5,-24.92,-35.42,-33.58,0,0,0,0,0,0,0,0,0,0,0,0,0,0,0,0,
800,3.346,-8.529,6.667,-4.627,20.58,-7.441,32.81,-7.699,-19.1,-16.68,-23.98,-19.24,-26.44,-20.97,-24.22,-25.68,0,0,0,0,0,0,0,0,0,0,0,0,0,0,0,0,
801,9.769,-0.2357,12.93,4.299,24.8,0.8209,-2.278,-7.105,-2.553,-8.083,-11.11,-18.45,-16.71,-16.99,-19.33,-22.44,0,0,0,0,0,0,0,0,0,0,0,0,0,0,0,0,
802,0.0491,-8.413,-4.652,-5.235,8.047,-12.86,-21.65,-15.57,-11.65,-15.66,-12.86,-28.91,-24.0,-27.29,-23.46,-27.82,0,0,0,0,0,0,0,0,0,0,0,0,0,0,0,0,
803,-5.039,-13.11,-5.245,-2.512,7.4,-16.23,47.09,1.161,-19.9,-21.15,-12.69,-21.28,-17.77,-23.43,-13.73,-17.22,0,0,0,0,0,0,0,0,0,0,0,0,0,0,0,0,
804,-3.953,-9.578,0.1485,0.3894,10.12,-11.47,32.99,3.66,-7.279,-11.4,-3.433,-10.07,-11.83,-17.74,-6.662,-10.03,0,0,0,0,0,0,0,0,0,0,0,0,0,0,0,0,
805,-14.21,-16.13,-13.83,-13.46,-5.834,-20.6,-57.35,-12.86,-16.99,-15.55,5.864,-5.037,-16.72,-17.72,-5.8,-9.566,0,0,0,0,0,0,0,0,0,0,0,0,0,0,0,0,
806,-18.34,-16.67,-19.25,-16.17,-11.56,-25.16,-40.45,-10.25,-30.38,-20.02,2.094,-4.13,-19.12,-19.52,-9.104,-12.16,0,0,0,0,0,0,0,0,0,0,0,0,0,0,0,0,
807,-19.59,-16.39,-20.18,-16.63,-8.157,-26.66,14.47,-7.728,-24.95,-23.16,-11.26,-9.497,-20.02,-26.24,-14.96,-17.63,0,0,0,0,0,0,0,0,0,0,0,0,0,0,0,0,
808,-14.54,-14.52,-11.89,-13.69,2.701,-18.24,23.72,-4.951,-14.15,-24.96,-9.01,-1.236,-9.542,-18.79,-11.59,-12.47,0,0,0,0,0,0,0,0,0,0,0,0,0,0,0,0,
809,-1.713,-3.756,1.986,2.864,11.69,0.0988,21.66,3.132,-0.0161,-8.609,-8.9,6.203,-4.166,-9.665,-17.0,-14.32,0,0,0,0,0,0,0,0,0,0,0,0,0,0,0,0,
810,-8.88,-4.304,-13.54,9.516,-1.569,3.079,-24.79,2.088,-4.242,1.018,-14.91,0.6708,-15.4,-11.6,-27.26,-21.57,0,0,0,0,0,0,0,0,0,0,0,0,0,0,0,0,
811,-15.12,-4.128,-28.09,6.747,-7.038,3.01,-50.77,5.513,-19.48,1.012,-10.41,1.581,-17.08,-7.022,-24.78,-16.08,0,0,0,0,0,0,0,0,0,0,0,0,0,0,0,0,
812,-3.014,7.467,-16.87,7.206,7.054,11.2,21.42,10.05,-12.27,6.901,-18.89,4.316,-10.13,-1.92,-21.65,-10.14,0,0,0,0,0,0,0,0,0,0,0,0,0,0,0,0,
813,8.749,20.13,-1.339,16.61,23.51,22.63,44.15,13.86,9.479,13.51,-17.48,10.33,0.8218,6.511,-11.29,-0.8151,0,0,0,0,0,0,0,0,0,0,0,0,0,0,0,0,
814,17.37,30.49,8.389,24.67,29.43,28.58,-50.97,17.71,18.69,22.58,6.112,8.765,3.829,10.67,-6.175,-2.425,0,0,0,0,0,0,0,0,0,0,0,0,0,0,0,0,
815,12.83,24.24,1.42,14.44,15.34,18.37,-84.03,5.797,-1.296,18.08,4.766,-10.05,-12.01,-2.801,-18.65,-21.78,0,0,0,0,0,0,0,0,0,0,0,0,0,0,0,0,
816,12.08,21.62,-1.977,15.91,17.39,21.38,-2.3,2.232,-14.06,11.28,-5.403,-11.75,-11.99,-1.552,-17.72,-21.05,0,0,0,0,0,0,0,0,0,0,0,0,0,0,0,0,
817,28.59,36.77,9.484,33.01,35.78,37.23,35.56,14.0,7.697,25.99,-8.863,-3.896,-3.036,8.277,-12.83,-12.59,0,0,0,0,0,0,0,0,0,0,0,0,0,0,0,0,
818,27.56,37.35,9.327,33.96,29.98,32.52,8.666,18.01,16.48,30.12,-13.55,-4.156,-6.267,3.906,-12.53,-11.9,0,0,0,0,0,0,0,0,0,0,0,0,0,0,0,0,
819,16.62,28.53,5.266,28.59,19.76,21.69,6.263,13.8,7.688,21.12,2.8,0.8265,0.4171,1.768,-2.422,-3.789,0,0,0,0,0,0,0,0,0,0,0,0,0,0,0,0,
820,8.61,16.56,-2.145,15.77,9.96,6.211,2.78,-5.588,2.635,12.64,11.0,-2.887,0.9703,-5.087,-6.217,-5.288,0,0,0,0,0,0,0,0,0,0,0,0,0,0,0,0,
821,-6.961,-1.422,-13.8,0.5232,-2.899,-11.14,-7.003,-15.86,-10.74,-3.767,-3.325,-4.631,-7.745,-11.81,-15.1,-8.712,0,0,0,0,0,0,0,0,0,0,0,0,0,0,0,0,
822,-8.761,-1.551,-7.329,4.594,5.531,-7.867,18.09,-1.987,-10.62,-7.938,-3.188,5.849,-0.555,-8.273,-9.082,-2.468,0,0,0,0,0,0,0,0,0,0,0,0,0,0,0,0,
823,-2.88,1.349,0.2932,5.279,12.99,-5.959,38.4,-4.755,5.043,-6.684,0.498,2.737,5.008,-13.12,-9.892,-5.452,0,0,0,0,0,0,0,0,0,0,0,0,0,0,0,0,
824,-2.871,-2.833,2.18,-0.0336,9.595,-8.093,19.53,-14.4,9.655,-12.43,-1.544,-2.837,0.4721,-16.99,-18.37,-11.27,0,0,0,0,0,0,0,0,0,0,0,0,0,0,0,0,
825,3.99,4.273,8.078,3.823,11.49,1.187,-13.07,-11.66,4.424,-6.407,0.634,-2.019,-7.875,-14.67,-25.96,-15.26,0,0,0,0,0,0,0,0,0,0,0,0,0,0,0,0,
826,11.68,13.7,9.65,10.45,16.46,10.62,-5.266,-9.212,-5.163,1.566,1.763,-1.681,-12.07,-12.04,-27.22,-14.62,0,0,0,0,0,0,0,0,0,0,0,0,0,0,0,0,
827,20.87,23.89,16.96,22.57,30.21,21.74,28.38,3.66,2.796,10.22,1.452,1.331,-6.413,-4.785,-22.89,-7.37,0,0,0,0,0,0,0,0,0,0,0,0,0,0,0,0,
828,26.56,30.57,21.98,25.19,34.05,24.08,5.63,8.033,16.24,18.43,-5.78,-1.903,-14.34,-6.205,-27.76,-8.541,0,0,0,0,0,0,0,0,0,0,0,0,0,0,0,0,
829,25.81,30.27,19.13,21.35,27.44,18.61,-2.627,-8.502,3.132,12.42,-10.64,-0.2416,-22.52,-7.65,-25.94,-6.679,0,0,0,0,0,0,0,0,0,0,0,0,0,0,0,0,
830,36.08,37.11,22.66,31.83,35.51,24.72,50.98,-13.42,2.635,12.99,-5.974,2.488,-12.03,-5.811,-15.38,-5.473,0,0,0,0,0,0,0,0,0,0,0,0,0,0,0,0,
831,36.02,33.97,13.57,30.35,30.01,21.75,17.73,-9.364,13.39,13.92,-4.557,-13.42,-12.51,-20.21,-16.41,-20.27,0,0,0,0,0,0,0,0,0,0,0,0,0,0,0,0,
832,21.93,23.21,2.011,15.44,14.35,11.56,-51.02,-11.74,-4.515,1.692,-2.17,-22.31,-16.75,-28.97,-14.71,-26.84,0,0,0,0,0,0,0,0,0,0,0,0,0,0,0,0,
833,23.56,27.07,8.939,12.41,22.46,15.76,-2.216,-11.42,-12.44,0.0562,-7.447,-19.71,-8.315,-21.18,-9.066,-24.05,0,0,0,0,0,0,0,0,0,0,0,0,0,0,0,0,
834,27.47,30.19,12.89,19.69,32.56,22.74,35.26,4.587,6.346,7.134,-16.48,-17.6,-0.5863,-9.259,-8.369,-19.95,0,0,0,0,0,0,0,0,0,0,0,0,0,0,0,0,
835,26.1,33.98,15.53,37.38,32.5,29.77,-22.1,25.7,16.38,17.82,-6.974,-7.335,5.734,7.247,-8.334,-9.002,0,0,0,0,0,0,0,0,0,0,0,0,0,0,0,0,
836,27.98,42.91,18.13,51.15,31.6,35.71,-35.16,25.38,12.94,30.77,-8.194,-0.7243,6.696,15.2,-15.44,-4.294,0,0,0,0,0,0,0,0,0,0,0,0,0,0,0,0,
837,31.68,44.99,15.27,53.1,34.11,39.74,29.21,22.65,14.53,33.34,-28.18,2.329,7.202,16.31,-20.05,-1.222,0,0,0,0,0,0,0,0,0,0,0,0,0,0,0,0,
838,41.58,47.37,22.28,56.06,40.08,45.73,65.61,33.16,28.96,33.03,-31.59,5.222,11.5,17.03,-16.14,2.372,0,0,0,0,0,0,0,0,0,0,0,0,0,0,0,0,
839,45.0,48.99,30.32,56.42,37.1,45.55,30.37,35.87,34.35,31.54,-12.55,3.496,8.638,13.59,-10.46,-0.0602,0,0,0,0,0,0,0,0,0,0,0,0,0,0,0,0,
840,36.4,44.4,25.3,51.4,28.04,40.3,-30.54,29.7,19.67,28.84,12.72,4.712,2.397,10.49,-5.439,-3.309,0,0,0,0,0,0,0,0,0,0,0,0,0,0,0,0,
841,20.32,27.67,5.1,28.92,9.853,18.13,-54.23,8.204,-3.165,17.32,13.5,-7.456,-13.13,-9.513,-15.0,-18.43,0,0,0,0,0,0,0,0,0,0,0,0,0,0,0,0,
842,-0.1473,3.546,-12.28,-0.1111,-11.49,-12.06,-19.58,-11.81,-25.11,-12.77,-0.5283,-18.31,-27.29,-31.63,-19.97,-25.89,0,0,0,0,0,0,0,0,0,0,0,0,0,0,0,0,
843,-0.2623,2.428,-2.634,3.568,-7.34,-10.58,14.58,-5.656,-24.36,-22.61,4.959,-3.347,-20.55,-25.48,-6.566,-10.66,0,0,0,0,0,0,0,0,0,0,0,0,0,0,0,0,
844,6.375,8.858,1.014,9.795,-0.8639,-4.65,13.49,-12.27,-14.51,-13.13,1.042,-0.1204,-19.74,-22.65,-7.72,-8.123,0,0,0,0,0,0,0,0,0,0,0,0,0,0,0,0,
845,-7.463,-2.476,-11.53,-4.942,-7.117,-15.24,34.12,-24.65,-18.18,-19.29,-18.43,-4.246,-21.92,-24.03,-11.61,-8.886,0,0,0,0,0,0,0,0,0,0,0,0,0,0,0,0,
846,-17.97,-9.646,-9.408,-4.499,-7.036,-12.6,28.12,-10.7,-10.56,-16.59,-21.52,2.548,-14.44,-14.26,-4.586,-1.903,0,0,0,0,0,0,0,0,0,0,0,0,0,0,0,0,
847,-12.4,-7.033,-7.228,3.813,-14.39,-8.85,-58.91,-6.064,-10.41,-9.795,-13.91,-4.3,-21.74,-17.87,-8.664,-7.068,0,0,0,0,0,0,0,0,0,0,0,0,0,0,0,0,
