%OpenBCI Raw EXG Data
%Number of channels = 16
%Sample Rate = 125 Hz
%Board = OpenBCI_GUI$BoardCytonSerialDaisy
Sample Index,EXG Channel 0,EXG Channel 1,EXG Channel 2,EXG Channel 3,EXG Channel 4,EXG Channel 5,EXG Channel 6,EXG Channel 7,EXG Channel 8,EXG Channel 9,EXG Channel 10,EXG Channel 11,EXG Channel 12,EXG Channel 13,EXG Channel 14,EXG Channel 15,Accel Channel 0,Accel Channel 1,Accel Channel 2,Other,Other.1,Other.2,Other.3,Other.4,Other.5,Other.6,Analog Channel 0,Analog Channel 1,Analog Channel 2,Timestamp,Other.7,Timestamp (Formatted),Annotations
1,0.0,0.0,0.0,-0.0,-0.0,-0.0,-0.0,0.0,-0.0,-0.0,-0.0,-0.0,-0.0,-0.0,-0.0,-0.0,0,0,0,0,0,0,0,0,0,0,0,0,0,0,0,0,T0
2,-12.9,-17.34,-39.49,-24.02,-34.46,-27.19,-87.08,-18.04,8.519,0.986,-30.17,-41.62,-39.66,-37.41,-30.43,-34.52,0,0,0,0,0,0,0,0,0,0,0,0,0,0,0,0,
3,-5.529,-0.8187,-14.39,3.65,-17.58,0.5449,-73.27,23.69,-3.38,7.288,8.197,-17.86,-11.44,-9.607,2.639,-0.826,0,0,0,0,0,0,0,0,0,0,0,0,0,0,0,0,
4,-1.385,-0.9054,-2.657,2.62,-13.55,-1.169,-66.6,26.42,0.1168,14.45,10.54,-29.98,-8.911,-14.25,6.285,2.105,0,0,0,0,0,0,0,0,0,0,0,0,0,0,0,0,
5,-17.26,-24.69,-27.95,-23.39,-29.56,-31.26,-72.47,-6.373,-1.424,-0.1346,-9.56,-47.69,-20.1,-30.5,-3.347,-3.628,0,0,0,0,0,0,0,0,0,0,0,0,0,0,0,0,
6,-20.17,-22.28,-20.3,-15.62,-14.65,-22.79,-9.29,6.631,-1.651,-6.035,-1.018,-20.76,3.47,-5.697,14.05,22.58,0,0,0,0,0,0,0,0,0,0,0,0,0,0,0,0,
7,-11.56,-14.0,-3.09,-12.06,-4.38,-15.17,-1.332,22.05,21.4,8.051,-9.846,-23.9,1.823,-5.151,7.422,15.85,0,0,0,0,0,0,0,0,0,0,0,0,0,0,0,0,
8,-14.71,-22.25,-16.53,-19.37,-17.64,-25.73,-88.71,7.216,16.36,2.298,-4.072,-33.29,-10.9,-15.66,4.224,7.306,0,0,0,0,0,0,0,0,0,0,0,0,0,0,0,0,
9,-9.961,-17.08,-19.75,-9.673,-12.48,-19.84,-90.5,-1.677,-5.236,-3.619,20.43,-14.92,-0.2581,-3.039,18.18,22.17,0,0,0,0,0,0,0,0,0,0,0,0,0,0,0,0,
10,-4.361,-7.714,-11.28,-8.626,-3.054,-16.67,-38.93,-2.037,-1.07,4.24,5.667,-18.55,-5.923,-5.575,5.669,13.75,0,0,0,0,0,0,0,0,0,0,0,0,0,0,0,0,
11,-16.78,-11.92,-18.69,-16.0,-13.03,-24.22,-65.76,5.334,-4.997,-0.2913,-10.79,-33.96,-20.44,-19.79,-8.864,-0.7158,0,0,0,0,0,0,0,0,0,0,0,0,0,0,0,0,
12,-28.78,-22.02,-26.5,-18.37,-20.38,-29.46,-65.49,19.67,-21.39,-8.572,-10.94,-35.68,-20.03,-27.5,-5.193,-1.732,0,0,0,0,0,0,0,0,0,0,0,0,0,0,0,0,
13,-29.5,-31.97,-16.82,-24.07,-9.201,-34.7,-2.294,15.24,-12.79,-9.304,-11.86,-23.55,-9.151,-23.68,7.274,6.921,0,0,0,0,0,0,0,0,0,0,0,0,0,0,0,0,
14,-21.6,-29.71,-1.555,-26.75,4.199,-34.58,-12.07,-10.89,9.306,-6.582,3.342,-5.902,4.103,-10.54,19.57,19.28,0,0,0,0,0,0,0,0,0,0,0,0,0,0,0,0,
15,-19.66,-26.83,-9.214,-29.6,-5.316,-36.66,-82.02,-22.66,3.462,-9.222,4.892,-9.284,-3.848,-14.16,10.05,12.27,0,0,0,0,0,0,0,0,0,0,0,0,0,0,0,0,
16,-24.15,-25.76,-26.74,-24.81,-13.71,-34.32,-109.8,-2.343,-18.62,-12.19,-8.869,-12.51,-16.74,-17.82,-0.6033,5.886,0,0,0,0,0,0,0,0,0,0,0,0,0,0,0,0,
17,-14.87,-7.465,-23.04,-5.784,1.087,-16.29,-81.33,6.501,-15.77,1.639,-4.968,-3.029,-11.73,-7.487,5.207,12.06,0,0,0,0,0,0,0,0,0,0,0,0,0,0,0,0,
18,-9.403,0.445,-13.56,-3.697,6.279,-12.54,-21.82,-4.605,-6.648,5.834,-9.095,-13.98,-13.61,-13.58,4.794,4.803,0,0,0,0,0,0,0,0,0,0,0,0,0,0,0,0,
19,-18.54,-13.19,-8.581,-17.19,0.6932,-26.81,-1.061,6.144,-11.48,-11.07,-15.76,-32.03,-21.42,-28.7,1.502,-4.896,0,0,0,0,0,0,0,0,0,0,0,0,0,0,0,0,
20,-25.29,-24.05,-14.6,-28.71,-5.079,-41.33,-64.69,6.035,-16.56,-22.91,-4.907,-42.17,-26.19,-40.35,-1.949,-9.825,0,0,0,0,0,0,0,0,0,0,0,0,0,0,0,0,
21,-30.72,-31.39,-34.5,-34.95,-17.97,-49.13,-112.6,-11.98,-29.02,-31.29,-1.333,-46.54,-31.44,-45.51,-7.38,-12.42,0,0,0,0,0,0,0,0,0,0,0,0,0,0,0,0,
22,-27.15,-26.93,-25.89,-20.82,-14.52,-35.29,-62.97,2.678,-33.67,-25.54,-6.665,-34.82,-24.65,-31.84,-4.509,-4.733,0,0,0,0,0,0,0,0,0,0,0,0,0,0,0,0,
23,-19.07,-16.96,2.233,-10.5,-2.946,-24.7,5.117,0.2535,-16.61,-10.81,-15.48,-30.67,-19.69,-26.44,-5.585,-5.511,0,0,0,0,0,0,0,0,0,0,0,0,0,0,0,0,
24,-23.11,-17.83,-4.029,-24.95,-9.281,-36.8,-12.22,-28.43,-11.86,-22.44,-22.73,-43.15,-29.2,-39.72,-11.39,-15.63,0,0,0,0,0,0,0,0,0,0,0,0,0,0,0,0,
25,-26.8,-16.65,-29.07,-33.39,-17.09,-42.22,-96.51,-4.518,-27.33,-36.88,-15.8,-47.08,-36.9,-45.5,-10.06,-16.18,0,0,0,0,0,0,0,0,0,0,0,0,0,0,0,0,
26,-25.85,-16.87,-28.52,-28.0,-14.47,-39.01,-114.0,22.9,-38.5,-33.0,-9.734,-37.83,-35.55,-42.58,-6.221,-9.438,0,0,0,0,0,0,0,0,0,0,0,0,0,0,0,0,
27,-19.27,-18.02,-0.3398,-22.82,-3.04,-37.97,-45.99,-9.197,-29.48,-32.32,-13.17,-26.46,-30.12,-39.28,-4.568,-4.303,0,0,0,0,0,0,0,0,0,0,0,0,0,0,0,0,
28,-14.43,-16.18,3.518,-28.71,-5.74,-42.32,-43.23,-36.37,-20.95,-39.96,-19.48,-31.23,-38.77,-45.16,-11.88,-10.61,0,0,0,0,0,0,0,0,0,0,0,0,0,0,0,0,
29,-26.99,-25.2,-33.81,-38.29,-29.53,-50.92,-89.42,-25.43,-43.13,-47.91,-23.77,-39.1,-52.44,-50.63,-19.17,-14.18,0,0,0,0,0,0,0,0,0,0,0,0,0,0,0,0,
30,-29.39,-26.08,-43.91,-29.93,-31.27,-43.84,-68.31,-16.25,-58.71,-40.01,-27.31,-29.75,-46.01,-38.35,-17.44,-4.526,0,0,0,0,0,0,0,0,0,0,0,0,0,0,0,0,
31,-20.88,-17.57,-19.05,-24.48,-17.52,-32.44,-46.73,-11.55,-44.21,-24.21,-38.76,-25.82,-36.5,-26.02,-15.51,0.1944,0,0,0,0,0,0,0,0,0,0,0,0,0,0,0,0,
32,-24.81,-19.52,-10.23,-27.86,-13.04,-28.82,-58.86,8.716,-27.83,-17.55,-37.37,-23.4,-24.53,-13.96,-5.221,6.426,0,0,0,0,0,0,0,0,0,0,0,0,0,0,0,0,
33,-18.14,-13.43,-15.94,-15.24,-4.295,-19.43,-59.4,16.34,-7.444,-5.134,-24.91,-16.91,-11.01,-2.394,-0.0249,8.546,0,0,0,0,0,0,0,0,0,0,0,0,0,0,0,0,
34,-10.13,-2.99,-23.69,-1.965,-3.965,-14.34,-74.27,6.561,-0.9421,1.643,-32.74,-23.0,-21.9,-9.012,-12.93,-3.326,0,0,0,0,0,0,0,0,0,0,0,0,0,0,0,0,
35,-16.27,0.2354,-20.13,4.412,-5.053,-9.576,-78.08,14.64,-16.86,-0.6015,-33.78,-16.73,-29.05,-10.53,-11.51,-0.3633,0,0,0,0,0,0,0,0,0,0,0,0,0,0,0,0,
36,-12.53,1.984,-9.265,0.3015,3.763,-4.734,-61.07,9.499,-14.69,9.593,-22.84,-5.859,-23.69,-9.06,-6.619,3.001,0,0,0,0,0,0,0,0,0,0,0,0,0,0,0,0,
37,-12.61,-9.302,-23.19,-20.19,-7.613,-18.43,-67.69,-13.04,-12.65,7.631,-35.4,-17.91,-37.19,-24.48,-19.72,-9.975,0,0,0,0,0,0,0,0,0,0,0,0,0,0,0,0,
38,-24.84,-19.05,-41.02,-22.99,-23.71,-26.94,-63.32,1.454,-27.17,-6.832,-47.56,-22.63,-44.71,-27.21,-21.03,-7.058,0,0,0,0,0,0,0,0,0,0,0,0,0,0,0,0,
39,-27.7,-15.39,-34.85,-15.08,-22.47,-23.41,-65.47,19.58,-25.4,-7.254,-35.83,-15.82,-32.94,-17.64,-9.173,5.107,0,0,0,0,0,0,0,0,0,0,0,0,0,0,0,0,
40,-24.66,-14.87,-22.19,-19.08,-22.07,-25.87,-95.27,7.482,-18.07,-6.632,-15.93,-12.53,-24.28,-16.31,-0.3228,10.16,0,0,0,0,0,0,0,0,0,0,0,0,0,0,0,0,
41,-23.17,-10.46,-16.57,-11.25,-22.7,-23.39,-60.08,-7.46,-17.02,-8.098,-8.226,-4.912,-18.91,-15.41,4.875,14.39,0,0,0,0,0,0,0,0,0,0,0,0,0,0,0,0,
42,-24.58,-4.522,-20.87,-4.502,-23.26,-21.12,-3.02,-14.98,-9.545,-10.88,-21.91,-4.379,-19.37,-18.84,-0.964,9.3,0,0,0,0,0,0,0,0,0,0,0,0,0,0,0,0,
43,-31.14,-12.66,-30.02,-18.26,-34.0,-31.02,-49.2,-2.489,-8.482,-19.05,-32.62,-17.04,-32.89,-29.94,-13.95,-5.171,0,0,0,0,0,0,0,0,0,0,0,0,0,0,0,0,
44,-48.85,-33.03,-48.01,-34.08,-59.67,-48.98,-125.5,4.851,-32.47,-27.26,-33.87,-30.42,-54.17,-41.22,-22.7,-17.43,0,0,0,0,0,0,0,0,0,0,0,0,0,0,0,0,
45,-66.34,-49.35,-65.59,-38.16,-76.8,-60.26,-117.7,-13.88,-64.25,-38.75,-39.86,-31.56,-60.85,-41.48,-20.41,-15.58,0,0,0,0,0,0,0,0,0,0,0,0,0,0,0,0,
46,-50.73,-37.63,-49.39,-23.74,-56.75,-45.71,-73.24,-9.676,-60.58,-37.28,-41.21,-23.2,-46.82,-30.4,-16.03,-6.567,0,0,0,0,0,0,0,0,0,0,0,0,0,0,0,0,
47,-27.64,-18.66,-27.14,-10.38,-34.9,-28.28,-67.46,9.5,-35.64,-22.62,-39.84,-22.5,-40.78,-26.19,-21.11,-8.614,0,0,0,0,0,0,0,0,0,0,0,0,0,0,0,0,
48,-30.35,-19.74,-31.69,-11.21,-31.27,-24.14,-80.34,14.92,-29.4,-15.75,-36.23,-16.71,-36.59,-18.58,-16.59,-4.91,0,0,0,0,0,0,0,0,0,0,0,0,0,0,0,0,
49,-27.72,-18.36,-35.33,-6.867,-19.19,-15.05,-86.5,21.46,-20.45,-2.052,-27.71,-1.651,-21.98,-3.254,-4.612,6.628,0,0,0,0,0,0,0,0,0,0,0,0,0,0,0,0,
50,-19.28,-12.34,-29.76,-4.089,-14.8,-12.76,-87.84,10.41,-9.228,8.579,-29.14,-0.6633,-22.07,-4.377,-7.536,3.21,0,0,0,0,0,0,0,0,0,0,0,0,0,0,0,0,
51,-23.91,-15.09,-20.35,-13.67,-25.02,-23.97,-65.92,-12.03,-18.76,-4.529,-38.23,-12.17,-34.04,-16.97,-18.1,-9.625,0,0,0,0,0,0,0,0,0,0,0,0,0,0,0,0,
52,-32.17,-25.21,-17.88,-25.09,-34.03,-39.5,-46.92,-20.06,-29.2,-23.49,-49.67,-30.41,-45.51,-33.44,-31.37,-24.83,0,0,0,0,0,0,0,0,0,0,0,0,0,0,0,0,
53,-38.68,-37.98,-33.68,-29.37,-44.25,-54.39,-70.49,-22.87,-35.37,-41.06,-51.61,-42.48,-51.33,-46.51,-36.86,-30.95,0,0,0,0,0,0,0,0,0,0,0,0,0,0,0,0,
54,-34.6,-37.4,-44.27,-28.96,-50.01,-55.09,-104.1,-13.46,-40.35,-46.28,-37.49,-41.92,-45.45,-45.23,-28.44,-26.04,0,0,0,0,0,0,0,0,0,0,0,0,0,0,0,0,
55,-35.87,-35.08,-46.84,-36.6,-57.72,-52.92,-108.9,1.132,-43.34,-38.51,-33.74,-47.14,-43.92,-43.71,-21.64,-26.04,0,0,0,0,0,0,0,0,0,0,0,0,0,0,0,0,
56,-44.94,-33.66,-35.24,-30.32,-54.79,-45.84,-73.56,3.491,-46.48,-33.08,-29.07,-40.16,-36.58,-34.61,-7.984,-14.88,0,0,0,0,0,0,0,0,0,0,0,0,0,0,0,0,
57,-28.04,-14.36,-5.637,-7.909,-30.45,-26.05,-35.55,-6.316,-32.16,-20.81,-18.48,-25.2,-22.44,-24.32,0.3789,-4.067,0,0,0,0,0,0,0,0,0,0,0,0,0,0,0,0,
58,-17.92,-13.58,-12.9,-17.4,-31.53,-31.28,-47.39,-28.98,-20.79,-20.96,-31.73,-33.44,-32.3,-37.66,-11.48,-14.64,0,0,0,0,0,0,0,0,0,0,0,0,0,0,0,0,
59,-34.09,-32.95,-38.51,-34.53,-45.16,-47.09,-68.43,-34.19,-31.81,-37.71,-35.32,-31.72,-40.44,-40.48,-8.401,-10.74,0,0,0,0,0,0,0,0,0,0,0,0,0,0,0,0,
60,-33.22,-29.88,-24.75,-27.88,-32.73,-39.13,-64.4,-16.94,-32.72,-33.42,-21.0,-20.27,-34.51,-29.3,-2.267,-1.259,0,0,0,0,0,0,0,0,0,0,0,0,0,0,0,0,
61,-26.68,-24.25,-8.366,-28.96,-24.91,-33.87,-51.33,-1.308,-27.46,-26.4,-27.08,-30.48,-39.91,-35.6,-15.58,-11.39,0,0,0,0,0,0,0,0,0,0,0,0,0,0,0,0,
62,-26.68,-22.85,-8.096,-27.54,-22.27,-30.98,-23.97,19.92,-26.01,-28.65,-31.05,-34.39,-39.32,-39.1,-17.28,-15.49,0,0,0,0,0,0,0,0,0,0,0,0,0,0,0,0,
63,-20.04,-14.96,-10.38,-19.41,-18.92,-23.7,-26.24,15.6,-17.67,-21.55,-22.36,-28.35,-32.6,-37.34,-11.25,-14.78,0,0,0,0,0,0,0,0,0,0,0,0,0,0,0,0,
64,-20.9,-16.78,-17.97,-22.73,-29.22,-25.11,-65.4,-20.73,-17.23,-20.95,-14.18,-27.86,-31.84,-38.18,-9.917,-13.34,0,0,0,0,0,0,0,0,0,0,0,0,0,0,0,0,
65,-23.38,-16.38,-15.1,-19.52,-32.26,-24.72,-71.02,-30.26,-20.1,-24.61,-5.446,-28.32,-28.44,-31.86,-7.237,-8.421,0,0,0,0,0,0,0,0,0,0,0,0,0,0,0,0,
66,-22.95,-14.57,-12.12,-19.31,-31.82,-27.74,-56.67,-21.44,-22.16,-25.45,-13.33,-35.3,-31.51,-30.89,-12.34,-14.21,0,0,0,0,0,0,0,0,0,0,0,0,0,0,0,0,
67,-25.2,-22.63,-13.57,-27.22,-32.29,-30.75,-28.57,-17.26,-27.04,-27.57,-25.99,-35.09,-29.51,-28.15,-13.26,-14.12,0,0,0,0,0,0,0,0,0,0,0,0,0,0,0,0,
68,-20.29,-21.35,-0.7443,-20.25,-17.66,-18.8,15.18,-9.022,-10.64,-16.56,-25.7,-25.35,-13.89,-16.87,-5.821,-4.942,0,0,0,0,0,0,0,0,0,0,0,0,0,0,0,0,
69,-20.27,-16.12,2.754,-13.56,-14.49,-12.39,-25.44,-6.712,9.439,-4.295,-22.36,-25.04,-8.318,-15.2,-6.084,-5.688,0,0,0,0,0,0,0,0,0,0,0,0,0,0,0,0,
70,-25.94,-17.38,-6.652,-16.13,-27.82,-15.68,-100.2,-0.6251,1.339,-3.679,-9.912,-25.07,-8.278,-16.8,-5.264,-5.709,0,0,0,0,0,0,0,0,0,0,0,0,0,0,0,0,
71,-17.16,-11.53,-0.197,-13.8,-24.19,-13.66,-54.04,4.542,-8.23,-3.731,2.998,-18.46,-0.2849,-11.56,4.423,1.624,0,0,0,0,0,0,0,0,0,0,0,0,0,0,0,0,
72,-0.251,3.841,14.77,-6.436,-7.276,-5.987,12.01,-8.403,3.476,-1.846,5.358,-11.31,8.457,-4.053,13.17,8.607,0,0,0,0,0,0,0,0,0,0,0,0,0,0,0,0,
73,5.715,11.58,16.01,-3.993,-6.212,-2.713,-21.64,-17.47,12.91,1.115,1.766,-12.03,4.202,-5.901,8.711,6.264,0,0,0,0,0,0,0,0,0,0,0,0,0,0,0,0,
74,-2.798,2.194,8.311,-11.55,-16.96,-12.19,-30.61,-13.35,2.498,-5.697,-9.933,-16.91,-6.942,-14.72,2.233,1.46,0,0,0,0,0,0,0,0,0,0,0,0,0,0,0,0,
75,-0.61,0.9203,17.04,-13.02,-10.28,-14.43,4.914,2.074,3.178,-12.73,-10.8,-10.52,-2.93,-10.35,8.494,6.731,0,0,0,0,0,0,0,0,0,0,0,0,0,0,0,0,
76,8.947,3.7,25.65,-13.5,-9.568,-13.28,-32.46,12.49,13.58,-6.792,-6.335,-13.79,-9.129,-13.61,0.4213,-1.51,0,0,0,0,0,0,0,0,0,0,0,0,0,0,0,0,
77,-9.554,-18.82,5.559,-27.67,-36.2,-31.7,-66.43,-10.34,-12.14,-17.71,-20.12,-28.55,-35.76,-33.69,-16.82,-17.72,0,0,0,0,0,0,0,0,0,0,0,0,0,0,0,0,
78,-29.37,-31.5,-11.01,-30.82,-44.34,-39.56,-44.05,-33.08,-37.01,-36.5,-27.15,-26.66,-39.98,-36.49,-9.815,-12.63,0,0,0,0,0,0,0,0,0,0,0,0,0,0,0,0,
79,-22.71,-19.02,-6.279,-22.99,-33.86,-28.26,-70.64,-25.8,-25.41,-35.12,-23.12,-27.95,-34.39,-33.92,-3.619,-10.07,0,0,0,0,0,0,0,0,0,0,0,0,0,0,0,0,
80,-9.442,-10.33,6.218,-16.95,-29.38,-20.46,-88.55,-15.84,-21.71,-31.52,-25.26,-35.25,-39.27,-38.5,-10.25,-15.88,0,0,0,0,0,0,0,0,0,0,0,0,0,0,0,0,
81,6.709,4.435,16.18,-4.525,-17.7,-9.414,-51.78,-16.57,-25.63,-25.63,-24.73,-29.84,-36.32,-34.18,-12.53,-14.87,0,0,0,0,0,0,0,0,0,0,0,0,0,0,0,0,
82,13.57,17.44,7.113,-1.36,-13.12,-1.087,-65.94,-17.93,-24.88,-16.45,-25.59,-27.48,-34.1,-28.99,-16.49,-16.12,0,0,0,0,0,0,0,0,0,0,0,0,0,0,0,0,
83,8.199,14.2,4.441,-2.576,-13.58,1.484,-63.66,-5.943,-27.17,-12.52,-32.72,-26.77,-32.43,-22.1,-17.63,-12.51,0,0,0,0,0,0,0,0,0,0,0,0,0,0,0,0,
84,7.196,10.39,12.2,4.198,-7.581,4.225,-13.98,12.27,-14.68,-3.039,-38.23,-22.12,-26.49,-12.56,-13.78,-4.369,0,0,0,0,0,0,0,0,0,0,0,0,0,0,0,0,
85,-0.817,2.137,-7.721,-2.331,-18.47,-2.215,-52.38,7.698,-8.547,2.53,-31.86,-14.58,-25.0,-6.271,-8.551,2.132,0,0,0,0,0,0,0,0,0,0,0,0,0,0,0,0,
86,-11.5,-8.515,-25.95,-16.61,-32.95,-11.01,-99.94,-17.48,-23.09,-0.7521,-19.19,-2.812,-19.24,0.7481,-0.4618,9.548,0,0,0,0,0,0,0,0,0,0,0,0,0,0,0,0,
87,-21.3,-21.62,-29.58,-26.46,-40.26,-21.23,-64.61,-30.85,-28.08,-5.7,-21.51,-4.091,-13.01,0.1947,3.385,9.901,0,0,0,0,0,0,0,0,0,0,0,0,0,0,0,0,
88,-35.3,-37.0,-36.37,-25.35,-44.3,-23.9,-42.02,-11.1,-22.64,-7.236,-11.83,0.0666,-0.5166,6.782,18.08,20.81,0,0,0,0,0,0,0,0,0,0,0,0,0,0,0,0,
89,-25.41,-23.63,-18.28,-4.405,-26.03,-4.114,-23.13,15.46,-5.307,11.6,14.91,19.1,21.41,24.3,35.33,36.8,0,0,0,0,0,0,0,0,0,0,0,0,0,0,0,0,
90,-12.57,-6.012,-10.81,1.052,-19.42,-2.867,-13.89,14.1,12.34,22.82,5.93,10.53,13.39,15.49,19.67,20.98,0,0,0,0,0,0,0,0,0,0,0,0,0,0,0,0,
91,-31.57,-24.19,-48.3,-19.6,-47.59,-28.83,-95.01,7.72,-5.849,1.593,-9.416,-10.78,-13.38,-3.612,2.452,2.386,0,0,0,0,0,0,0,0,0,0,0,0,0,0,0,0,
92,-40.39,-36.56,-60.14,-25.03,-56.03,-30.81,-139.9,8.244,-31.52,-9.974,8.526,-7.79,-12.41,-0.1744,14.38,10.57,0,0,0,0,0,0,0,0,0,0,0,0,0,0,0,0,
93,-21.48,-19.08,-29.59,-11.21,-31.95,-11.09,-56.41,-5.538,-20.9,-0.3933,18.27,1.787,2.155,8.068,24.12,18.6,0,0,0,0,0,0,0,0,0,0,0,0,0,0,0,0,
94,-10.11,-7.55,-11.63,-4.043,-17.3,-5.11,0.1455,-22.23,-0.1283,3.601,10.33,-3.684,-0.8759,1.847,12.86,10.2,0,0,0,0,0,0,0,0,0,0,0,0,0,0,0,0,
95,-11.18,-10.56,-6.234,-8.582,-17.17,-9.814,-6.461,-18.59,-4.086,-3.671,0.8286,-21.01,-17.66,-15.17,-6.33,-5.149,0,0,0,0,0,0,0,0,0,0,0,0,0,0,0,0,
96,0.8395,-1.511,12.01,-5.557,-2.432,0.5211,6.963,4.991,-8.578,-7.267,-8.691,-26.74,-22.95,-20.44,-14.79,-10.31,0,0,0,0,0,0,0,0,0,0,0,0,0,0,0,0,
97,21.25,12.06,20.97,2.466,13.27,13.4,-14.32,9.615,7.101,1.428,-9.744,-22.45,-18.55,-18.09,-15.36,-11.62,0,0,0,0,0,0,0,0,0,0,0,0,0,0,0,0,
98,19.92,7.864,8.493,-1.557,3.208,4.538,-47.07,-13.45,8.677,-2.556,-7.784,-25.57,-21.63,-28.0,-18.96,-19.7,0,0,0,0,0,0,0,0,0,0,0,0,0,0,0,0,
99,14.64,11.12,15.24,5.434,0.472,3.681,-14.91,-9.334,-0.2085,-14.23,-8.767,-24.49,-22.65,-31.88,-22.89,-23.73,0,0,0,0,0,0,0,0,0,0,0,0,0,0,0,0,
100,16.88,15.5,24.93,13.84,1.369,6.438,-24.39,2.139,0.8492,-13.92,-16.5,-30.59,-31.55,-35.57,-35.92,-33.75,0,0,0,0,0,0,0,0,0,0,0,0,0,0,0,0,
101,0.3174,-6.881,1.626,-3.135,-21.79,-15.42,-49.36,-10.71,-15.44,-28.84,-31.08,-44.65,-47.14,-46.78,-46.77,-42.21,0,0,0,0,0,0,0,0,0,0,0,0,0,0,0,0,
102,-5.089,-9.477,-0.1285,-5.145,-21.83,-17.26,16.64,2.756,-21.99,-39.53,-32.01,-34.64,-33.75,-33.96,-32.89,-25.42,0,0,0,0,0,0,0,0,0,0,0,0,0,0,0,0,
103,12.09,10.76,24.3,5.594,-1.61,1.85,18.21,15.16,3.603,-18.63,-14.87,-20.72,-10.8,-13.68,-15.39,-9.095,0,0,0,0,0,0,0,0,0,0,0,0,0,0,0,0,
104,7.446,4.853,19.68,-5.045,-7.889,-2.648,-51.93,-15.79,8.982,-9.201,2.096,-23.44,-6.049,-12.97,-10.05,-8.738,0,0,0,0,0,0,0,0,0,0,0,0,0,0,0,0,
105,-6.794,-4.845,4.843,-8.104,-19.41,-10.01,-34.08,-33.19,-1.874,-17.07,3.955,-26.09,-6.059,-15.58,-8.666,-9.325,0,0,0,0,0,0,0,0,0,0,0,0,0,0,0,0,
106,-4.899,0.5928,4.048,1.822,-19.82,-4.761,-11.16,-19.79,-1.977,-14.95,6.192,-17.05,0.0407,-5.769,1.699,2.356,0,0,0,0,0,0,0,0,0,0,0,0,0,0,0,0,
107,9.102,8.053,16.49,1.05,-5.122,1.941,7.791,-2.97,8.322,-0.7004,26.86,7.832,21.75,19.3,25.21,28.18,0,0,0,0,0,0,0,0,0,0,0,0,0,0,0,0,
108,22.6,9.792,36.39,-8.949,16.96,2.763,78.54,6.62,36.91,13.69,35.07,20.39,37.22,31.81,35.65,39.22,0,0,0,0,0,0,0,0,0,0,0,0,0,0,0,0,
109,14.53,-1.899,37.24,-14.45,12.03,-4.253,57.01,10.75,47.34,10.23,42.52,19.15,34.74,29.2,45.66,45.94,0,0,0,0,0,0,0,0,0,0,0,0,0,0,0,0,
110,2.613,-3.027,22.29,-2.358,-2.627,0.1601,-18.55,28.49,29.19,10.02,76.75,36.4,43.87,42.86,75.42,72.43,0,0,0,0,0,0,0,0,0,0,0,0,0,0,0,0,
111,-5.016,-1.245,-2.188,-0.0038,-15.6,-0.4662,-24.69,35.11,21.09,19.28,68.33,40.28,35.09,39.33,69.57,68.37,0,0,0,0,0,0,0,0,0,0,0,0,0,0,0,0,
112,-36.1,-31.7,-40.45,-26.54,-50.04,-30.19,-56.63,-0.4823,-2.32,-1.259,8.934,12.3,-15.91,-3.025,18.45,21.78,0,0,0,0,0,0,0,0,0,0,0,0,0,0,0,0,
113,-69.07,-60.0,-63.18,-49.04,-79.85,-57.53,-91.19,-40.01,-51.03,-37.9,-28.55,-16.56,-57.16,-41.75,-21.56,-18.54,0,0,0,0,0,0,0,0,0,0,0,0,0,0,0,0,
114,-75.8,-61.3,-62.61,-55.32,-82.92,-65.24,-54.9,-49.07,-72.6,-59.53,-43.42,-39.16,-67.09,-61.83,-37.73,-39.05,0,0,0,0,0,0,0,0,0,0,0,0,0,0,0,0,
115,-66.97,-56.48,-58.54,-48.38,-74.98,-59.64,-58.06,-38.82,-63.27,-64.77,-44.43,-47.3,-65.54,-67.82,-41.57,-44.82,0,0,0,0,0,0,0,0,0,0,0,0,0,0,0,0,
116,-54.11,-49.35,-51.4,-29.99,-65.68,-45.4,-82.52,-25.69,-58.86,-54.47,-37.7,-43.72,-63.46,-63.8,-42.69,-45.6,0,0,0,0,0,0,0,0,0,0,0,0,0,0,0,0,
117,-41.63,-37.94,-30.94,-13.35,-51.14,-29.69,-23.57,-2.824,-52.83,-39.39,-40.86,-35.96,-52.15,-49.68,-38.73,-38.56,0,0,0,0,0,0,0,0,0,0,0,0,0,0,0,0,
118,-27.42,-25.01,-9.574,-5.038,-33.53,-15.35,13.33,14.18,-22.29,-18.54,-29.95,-17.62,-29.49,-25.93,-26.17,-21.31,0,0,0,0,0,0,0,0,0,0,0,0,0,0,0,0,
119,-24.08,-25.83,-20.23,-16.79,-36.87,-20.84,-46.09,-12.67,-5.423,-6.082,-11.32,-10.46,-22.74,-16.61,-21.89,-16.18,0,0,0,0,0,0,0,0,0,0,0,0,0,0,0,0,
120,-26.54,-31.44,-28.69,-28.11,-42.88,-31.93,-71.67,-34.5,-22.87,-17.29,-4.573,-11.71,-19.29,-11.66,-15.43,-8.464,0,0,0,0,0,0,0,0,0,0,0,0,0,0,0,0,
121,-10.04,-13.73,2.074,-11.52,-21.58,-17.01,-15.93,-11.74,-17.01,-14.83,0.9138,-3.461,0.833,4.421,-1.572,9.495,0,0,0,0,0,0,0,0,0,0,0,0,0,0,0,0,
122,-3.795,-4.716,9.426,-2.478,-12.22,-7.478,25.61,-3.668,10.24,-1.044,-3.376,-3.392,9.27,8.885,0.7041,11.22,0,0,0,0,0,0,0,0,0,0,0,0,0,0,0,0,
123,-14.06,-15.2,-10.04,-6.821,-17.14,-9.914,12.35,-6.024,19.07,0.4938,0.1363,-2.086,13.8,14.18,7.558,13.72,0,0,0,0,0,0,0,0,0,0,0,0,0,0,0,0,
124,-5.386,-7.803,-1.695,1.181,-6.848,1.056,-32.83,12.98,23.9,11.46,24.26,6.021,24.72,24.95,19.56,21.7,0,0,0,0,0,0,0,0,0,0,0,0,0,0,0,0,
125,2.918,0.5336,8.878,3.518,-3.619,5.318,-47.08,18.36,20.29,19.0,29.94,2.255,20.62,18.24,18.39,15.33,0,0,0,0,0,0,0,0,0,0,0,0,0,0,0,0,
126,-0.7549,-6.409,6.443,-3.618,-8.961,-2.928,4.326,5.821,10.0,10.8,13.03,-4.657,12.7,8.351,13.45,5.215,0,0,0,0,0,0,0,0,0,0,0,0,0,0,0,0,
127,-4.996,-15.2,1.05,-9.672,-15.5,-13.31,32.32,-5.88,11.47,3.856,-1.137,-10.75,5.815,0.6754,7.008,-4.347,0,0,0,0,0,0,0,0,0,0,0,0,0,0,0,0,
128,-15.19,-23.23,-11.2,-12.03,-25.14,-21.63,11.4,-6.757,6.651,-6.168,0.1087,-11.79,-1.716,-8.633,5.964,-7.342,0,0,0,0,0,0,0,0,0,0,0,0,0,0,0,0,
129,-17.6,-22.01,-10.36,-9.714,-22.34,-20.7,12.04,0.0445,0.2969,-13.57,8.087,-7.552,-4.539,-15.32,7.692,-6.053,0,0,0,0,0,0,0,0,0,0,0,0,0,0,0,0,
130,-12.05,-16.04,-3.959,-13.71,-20.19,-21.87,-1.883,-7.955,-2.212,-20.65,-0.3585,-15.78,-17.93,-27.19,-6.545,-16.61,0,0,0,0,0,0,0,0,0,0,0,0,0,0,0,0,
131,-4.123,-4.587,-7.374,-5.962,-18.28,-14.53,-47.06,-6.774,-11.65,-28.24,-7.279,-21.47,-27.42,-29.47,-14.9,-19.12,0,0,0,0,0,0,0,0,0,0,0,0,0,0,0,0,
132,10.66,13.43,-4.773,14.38,-4.277,4.952,-52.66,10.92,-8.912,-16.05,0.4621,-18.37,-22.44,-20.74,-10.57,-11.89,0,0,0,0,0,0,0,0,0,0,0,0,0,0,0,0,
133,11.2,11.17,0.3067,10.78,-3.756,4.66,-29.55,5.128,-4.439,-6.072,-1.699,-22.67,-27.31,-19.97,-17.3,-16.37,0,0,0,0,0,0,0,0,0,0,0,0,0,0,0,0,
134,5.737,2.012,3.775,3.215,-9.469,-0.4022,-9.381,-7.808,-13.23,-8.373,-11.14,-24.74,-30.85,-15.1,-22.86,-20.46,0,0,0,0,0,0,0,0,0,0,0,0,0,0,0,0,
135,12.99,8.046,11.05,12.82,-1.71,8.238,19.81,-12.37,-7.361,0.1428,-12.31,-21.96,-17.3,-4.389,-12.39,-14.49,0,0,0,0,0,0,0,0,0,0,0,0,0,0,0,0,
136,16.09,12.14,18.25,18.65,6.39,14.0,31.97,-19.97,14.43,9.171,2.373,-15.24,1.437,4.521,4.939,-1.065,0,0,0,0,0,0,0,0,0,0,0,0,0,0,0,0,
137,15.65,13.65,14.28,16.23,7.933,17.7,4.822,-14.71,26.66,13.53,19.33,-6.554,10.11,11.08,11.74,8.345,0,0,0,0,0,0,0,0,0,0,0,0,0,0,0,0,
138,10.78,8.361,-4.23,5.077,-0.3004,14.34,-14.36,-6.789,19.34,14.27,13.25,-6.485,4.042,7.496,7.281,5.866,0,0,0,0,0,0,0,0,0,0,0,0,0,0,0,0,
139,-2.234,-6.562,-5.967,-1.61,-7.201,4.142,0.2083,-7.402,10.53,7.079,6.453,-3.309,3.51,5.183,11.77,8.02,0,0,0,0,0,0,0,0,0,0,0,0,0,0,0,0,
140,-8.412,-11.53,5.688,3.659,-8.79,-0.6557,-0.4831,4.061,12.78,5.026,10.44,0.6878,7.012,5.613,16.89,8.707,0,0,0,0,0,0,0,0,0,0,0,0,0,0,0,0,
141,-10.2,-10.38,-0.2921,-1.597,-14.44,-4.868,3.172,18.37,7.512,5.479,5.56,0.4284,2.972,1.01,15.1,3.702,0,0,0,0,0,0,0,0,0,0,0,0,0,0,0,0,
142,-4.128,-7.545,2.812,-7.442,-4.593,-4.295,47.22,16.38,8.141,4.923,3.643,9.282,6.33,2.799,18.52,9.959,0,0,0,0,0,0,0,0,0,0,0,0,0,0,0,0,
143,6.944,-1.203,7.462,-1.361,4.522,-1.894,19.96,10.24,20.02,6.131,3.717,10.71,1.669,0.55,12.45,12.27,0,0,0,0,0,0,0,0,0,0,0,0,0,0,0,0,
144,-2.889,-3.155,-17.56,-0.3627,-18.23,-8.563,-78.99,7.487,1.52,-0.5453,-1.737,3.655,-18.3,-9.604,1.38,7.779,0,0,0,0,0,0,0,0,0,0,0,0,0,0,0,0,
145,-20.52,-8.695,-30.56,-1.553,-35.7,-14.24,-80.02,-6.82,-28.78,-9.238,0.9574,6.637,-21.51,-9.886,8.771,14.21,0,0,0,0,0,0,0,0,0,0,0,0,0,0,0,0,
146,-17.01,-4.965,-12.4,6.031,-22.59,-11.35,-15.59,-15.93,-27.17,-11.33,7.556,6.506,-8.813,-4.085,19.98,20.85,0,0,0,0,0,0,0,0,0,0,0,0,0,0,0,0,
147,2.22,8.476,8.639,15.2,-1.468,-0.1763,-3.979,2.282,-7.683,-4.061,10.45,-1.913,-0.2886,-0.7527,15.67,14.93,0,0,0,0,0,0,0,0,0,0,0,0,0,0,0,0,
148,16.28,18.55,15.82,9.342,8.221,5.985,6.474,7.047,4.389,3.928,3.651,-12.11,-1.654,-4.033,2.787,1.704,0,0,0,0,0,0,0,0,0,0,0,0,0,0,0,0,
149,30.6,29.68,19.05,5.566,18.94,9.633,35.74,0.2215,6.985,0.9093,-1.51,-11.27,1.084,0.3616,5.428,5.16,0,0,0,0,0,0,0,0,0,0,0,0,0,0,0,0,
150,66.73,65.46,46.92,35.56,52.33,37.56,23.78,22.01,21.95,15.26,13.47,8.074,17.34,23.46,19.11,24.67,0,0,0,0,0,0,0,0,0,0,0,0,0,0,0,0,
151,98.19,100.5,74.8,66.59,78.87,65.7,0.0297,28.78,42.67,44.06,20.24,21.44,21.71,36.17,17.27,28.94,0,0,0,0,0,0,0,0,0,0,0,0,0,0,0,0,
152,112.1,116.0,81.96,75.17,87.15,71.88,22.08,16.23,44.34,50.86,12.93,25.8,17.96,35.77,16.14,26.24,0,0,0,0,0,0,0,0,0,0,0,0,0,0,0,0,
153,138.4,137.9,100.6,86.27,102.7,77.59,48.05,34.07,48.1,51.97,9.983,23.12,18.82,31.14,15.77,18.44,0,0,0,0,0,0,0,0,0,0,0,0,0,0,0,0,
154,154.7,155.0,109.0,93.44,101.0,76.64,27.81,49.88,46.98,48.04,0.0388,7.864,5.559,13.62,0.4664,-1.573,0,0,0,0,0,0,0,0,0,0,0,0,0,0,0,0,
155,161.6,170.4,96.66,97.2,89.27,75.71,21.55,40.2,26.37,33.91,3.29,11.76,4.309,12.76,7.328,4.071,0,0,0,0,0,0,0,0,0,0,0,0,0,0,0,0,
156,198.1,203.7,106.3,107.1,105.0,87.91,58.09,30.96,30.49,38.99,19.27,25.29,26.25,27.18,29.1,23.28,0,0,0,0,0,0,0,0,0,0,0,0,0,0,0,0,
157,230.3,225.1,122.6,109.1,116.2,89.47,48.46,30.66,49.57,43.71,10.71,15.8,27.52,21.02,23.58,17.84,0,0,0,0,0,0,0,0,0,0,0,0,0,0,0,0,
158,235.3,232.8,122.0,111.5,105.5,83.86,-15.37,34.04,39.92,31.59,-1.136,5.931,11.55,10.45,9.709,8.754,0,0,0,0,0,0,0,0,0,0,0,0,0,0,0,0,
159,238.5,243.8,117.6,117.3,96.47,82.05,-37.79,27.54,20.88,24.38,-0.9764,3.496,3.382,8.285,3.853,7.23,0,0,0,0,0,0,0,0,0,0,0,0,0,0,0,0,
160,243.4,251.2,113.4,123.8,96.15,82.38,-13.17,27.96,15.69,21.51,-1.862,4.423,3.382,8.455,2.936,10.86,0,0,0,0,0,0,0,0,0,0,0,0,0,0,0,0,
161,254.2,266.8,108.7,138.6,99.31,90.93,-1.106,39.11,17.19,24.42,-1.068,10.98,3.851,9.705,6.424,18.25,0,0,0,0,0,0,0,0,0,0,0,0,0,0,0,0,
162,269.5,285.7,110.6,143.7,100.3,95.71,7.663,24.92,13.2,26.9,-5.875,7.691,-0.7346,5.056,5.843,16.96,0,0,0,0,0,0,0,0,0,0,0,0,0,0,0,0,
163,284.2,294.4,137.0,138.7,113.7,99.01,29.33,14.8,14.79,22.6,-5.408,2.325,4.04,5.49,8.709,15.54,0,0,0,0,0,0,0,0,0,0,0,0,0,0,0,0,
164,293.8,294.7,162.3,133.0,129.8,104.7,25.1,31.45,30.33,24.51,6.364,0.0288,11.25,8.804,12.51,12.79,0,0,0,0,0,0,0,0,0,0,0,0,0,0,0,0,
165,282.9,280.4,146.9,120.6,121.2,98.62,4.962,31.45,31.88,24.2,7.408,-3.031,5.857,6.17,6.809,3.163,0,0,0,0,0,0,0,0,0,0,0,0,0,0,0,0,
166,268.2,267.3,131.9,118.1,113.9,94.75,7.455,19.27,26.57,24.91,4.662,3.128,5.08,9.744,1.774,-0.8731,0,0,0,0,0,0,0,0,0,0,0,0,0,0,0,0,
167,258.9,258.1,137.8,119.8,116.5,93.26,7.078,24.05,34.71,31.72,6.326,4.079,5.574,10.58,-2.235,-4.978,0,0,0,0,0,0,0,0,0,0,0,0,0,0,0,0,
168,241.8,239.7,130.5,113.2,111.5,87.09,5.537,42.35,36.5,30.7,5.741,2.485,4.617,12.81,-5.411,-6.109,0,0,0,0,0,0,0,0,0,0,0,0,0,0,0,0,
169,230.9,228.0,122.2,117.1,113.3,93.22,33.3,47.71,39.76,38.99,-0.7201,13.76,11.68,27.37,-7.36,0.5551,0,0,0,0,0,0,0,0,0,0,0,0,0,0,0,0,
170,220.6,218.0,125.7,121.2,114.9,98.7,52.68,32.74,50.8,53.27,-13.36,17.49,10.1,30.64,-12.6,1.513,0,0,0,0,0,0,0,0,0,0,0,0,0,0,0,0,
171,202.0,202.2,121.4,113.0,105.2,93.83,26.97,33.46,48.04,51.4,-12.17,11.97,2.596,23.53,-12.44,-0.195,0,0,0,0,0,0,0,0,0,0,0,0,0,0,0,0,
172,185.1,185.9,96.33,95.05,90.05,83.08,-18.46,30.44,34.36,43.59,-6.544,3.194,-3.476,14.88,-14.19,-8.027,0,0,0,0,0,0,0,0,0,0,0,0,0,0,0,0,
173,156.8,153.6,67.18,70.98,72.75,62.69,-30.68,7.098,17.86,29.62,-17.22,-11.19,-11.92,3.526,-19.75,-19.04,0,0,0,0,0,0,0,0,0,0,0,0,0,0,0,0,
174,128.7,122.3,66.68,66.12,70.3,54.26,-4.928,19.07,13.79,21.63,-18.54,-14.27,-8.113,4.529,-13.66,-14.3,0,0,0,0,0,0,0,0,0,0,0,0,0,0,0,0,
175,113.8,106.1,69.44,67.39,68.14,52.8,-1.177,30.92,25.16,29.53,-11.5,-6.968,-1.408,8.147,-8.623,-4.086,0,0,0,0,0,0,0,0,0,0,0,0,0,0,0,0,
176,91.16,82.27,48.28,46.27,49.34,33.93,-14.0,4.602,24.96,24.86,-13.7,-0.5991,-3.25,5.853,-8.899,5.389,0,0,0,0,0,0,0,0,0,0,0,0,0,0,0,0,
177,66.66,56.36,27.9,24.73,34.35,15.2,-1.962,5.38,18.5,12.05,-12.28,-0.6189,-3.177,5.566,-4.944,13.12,0,0,0,0,0,0,0,0,0,0,0,0,0,0,0,0,
178,43.83,35.61,5.604,12.68,15.92,5.591,-2.128,15.52,12.73,6.333,-8.122,-6.561,-6.474,-0.5559,-4.148,8.356,0,0,0,0,0,0,0,0,0,0,0,0,0,0,0,0,
179,18.58,17.19,-13.76,2.668,-4.846,0.1789,-20.63,-10.22,-2.918,1.874,-3.845,-2.578,-8.903,-4.555,-3.251,2.446,0,0,0,0,0,0,0,0,0,0,0,0,0,0,0,0,
180,3.188,3.823,-12.82,-6.682,-7.051,-4.753,-12.87,-28.04,-10.11,2.46,2.671,0.1327,-3.109,-2.702,1.941,-1.734,0,0,0,0,0,0,0,0,0,0,0,0,0,0,0,0,
181,-7.561,-10.24,-11.32,-16.18,-0.5274,-13.2,6.329,-18.43,1.504,2.015,8.602,-7.179,5.834,-3.805,6.196,-8.087,0,0,0,0,0,0,0,0,0,0,0,0,0,0,0,0,
182,-15.88,-18.16,-11.55,-16.0,5.599,-13.66,-1.425,-6.479,17.96,0.549,10.24,-9.117,10.84,-4.242,-0.6064,-13.29,0,0,0,0,0,0,0,0,0,0,0,0,0,0,0,0,
183,-27.27,-29.93,-13.4,-16.04,2.047,-15.49,-17.54,-7.564,19.06,-1.09,-3.076,-13.08,-0.0288,-9.722,-18.79,-20.26,0,0,0,0,0,0,0,0,0,0,0,0,0,0,0,0,
184,-46.34,-54.74,-16.98,-20.46,-5.141,-22.73,5.096,-6.579,8.654,-8.623,-11.5,-10.09,-5.829,-10.83,-19.13,-14.28,0,0,0,0,0,0,0,0,0,0,0,0,0,0,0,0,
185,-54.17,-67.43,-13.29,-22.82,-3.213,-24.77,30.1,10.68,14.82,-7.242,-2.295,3.914,3.726,-2.159,-5.55,-1.176,0,0,0,0,0,0,0,0,0,0,0,0,0,0,0,0,
186,-64.1,-77.97,-30.02,-41.35,-17.12,-40.99,1.109,15.92,15.21,-8.32,1.802,1.613,-0.9473,-5.172,-3.799,-2.409,0,0,0,0,0,0,0,0,0,0,0,0,0,0,0,0,
187,-85.12,-95.28,-56.49,-56.65,-38.1,-57.78,-31.84,1.091,-6.485,-22.86,5.564,-8.708,-11.33,-13.49,-4.308,-7.504,0,0,0,0,0,0,0,0,0,0,0,0,0,0,0,0,
188,-97.15,-100.2,-62.43,-48.74,-45.63,-53.09,-44.56,-14.13,-18.66,-27.59,4.087,-17.72,-18.9,-20.44,-12.23,-20.2,0,0,0,0,0,0,0,0,0,0,0,0,0,0,0,0,
189,-107.0,-102.8,-68.73,-43.42,-53.59,-47.4,-46.68,-24.09,-26.98,-24.39,-10.85,-24.67,-28.36,-24.99,-24.1,-33.3,0,0,0,0,0,0,0,0,0,0,0,0,0,0,0,0,
190,-109.1,-100.5,-64.95,-35.33,-46.04,-36.79,-0.3557,-18.34,-26.95,-14.31,-18.52,-20.29,-21.35,-16.12,-22.79,-28.07,0,0,0,0,0,0,0,0,0,0,0,0,0,0,0,0,
191,-102.3,-90.98,-53.0,-23.02,-32.04,-24.27,35.32,2.676,-7.18,0.3384,-30.44,-22.3,-15.49,-10.88,-29.28,-25.81,0,0,0,0,0,0,0,0,0,0,0,0,0,0,0,0,
192,-103.8,-90.26,-61.44,-23.26,-35.58,-24.06,-1.69,18.58,-3.408,3.553,-39.93,-20.05,-20.51,-6.729,-36.82,-20.79,0,0,0,0,0,0,0,0,0,0,0,0,0,0,0,0,
193,-100.4,-90.35,-63.99,-32.53,-35.64,-26.05,-39.27,1.304,-11.45,7.072,-29.84,-3.65,-17.59,4.009,-30.57,-5.978,0,0,0,0,0,0,0,0,0,0,0,0,0,0,0,0,
194,-105.2,-101.1,-62.71,-55.65,-42.52,-41.78,-44.85,-37.16,-14.69,-0.8687,-29.65,-3.8,-18.34,0.7116,-26.74,-3.249,0,0,0,0,0,0,0,0,0,0,0,0,0,0,0,0,
195,-119.7,-114.8,-68.89,-65.64,-54.05,-56.48,-32.97,-35.19,-20.58,-21.62,-28.94,-4.759,-16.08,1.475,-14.84,3.983,0,0,0,0,0,0,0,0,0,0,0,0,0,0,0,0,
196,-108.9,-101.9,-58.9,-45.41,-45.4,-46.44,-14.79,-11.04,-14.13,-16.96,-19.13,-1.051,-9.248,7.758,-3.43,9.028,0,0,0,0,0,0,0,0,0,0,0,0,0,0,0,0,
197,-107.7,-100.6,-65.25,-43.21,-49.47,-47.25,-24.53,-13.14,-11.7,-10.29,-24.5,-16.81,-18.11,-6.364,-9.98,-8.369,0,0,0,0,0,0,0,0,0,0,0,0,0,0,0,0,
198,-134.3,-123.9,-94.66,-57.88,-66.86,-61.15,-32.34,-12.56,-26.63,-21.34,-24.9,-27.33,-25.43,-20.76,-15.41,-21.19,0,0,0,0,0,0,0,0,0,0,0,0,0,0,0,0,
199,-136.7,-126.6,-92.49,-60.67,-65.56,-64.42,-28.32,-17.58,-32.55,-26.46,-20.76,-27.8,-30.68,-32.17,-24.27,-28.03,0,0,0,0,0,0,0,0,0,0,0,0,0,0,0,0,
200,-120.4,-117.0,-69.08,-69.03,-60.37,-70.44,-57.47,-39.2,-37.58,-37.88,-21.76,-31.34,-40.45,-46.58,-31.1,-32.45,0,0,0,0,0,0,0,0,0,0,0,0,0,0,0,0,
201,-118.5,-121.5,-62.54,-81.59,-61.89,-80.8,-57.78,-42.23,-45.53,-54.6,-11.7,-27.08,-37.11,-48.99,-19.43,-23.23,0,0,0,0,0,0,0,0,0,0,0,0,0,0,0,0,
202,-125.6,-131.3,-69.46,-86.06,-69.31,-90.4,-11.22,-51.17,-43.2,-64.63,-12.31,-25.35,-35.39,-52.17,-13.58,-16.46,0,0,0,0,0,0,0,0,0,0,0,0,0,0,0,0,
203,-133.4,-135.9,-82.54,-88.5,-82.17,-96.8,-25.29,-69.7,-46.71,-75.3,-18.63,-26.0,-38.25,-52.08,-11.85,-9.021,0,0,0,0,0,0,0,0,0,0,0,0,0,0,0,0,
204,-134.9,-132.1,-90.91,-84.67,-83.35,-88.81,-47.27,-54.78,-54.68,-70.44,-6.741,-15.72,-24.78,-30.68,1.946,8.199,0,0,0,0,0,0,0,0,0,0,0,0,0,0,0,0,
205,-117.6,-112.1,-67.41,-63.02,-60.92,-65.81,23.84,-22.71,-40.37,-44.7,0.3167,-3.744,-2.718,-4.287,13.6,21.19,0,0,0,0,0,0,0,0,0,0,0,0,0,0,0,0,
206,-92.34,-84.5,-33.37,-37.85,-34.6,-42.12,47.82,-8.955,-6.175,-17.65,4.203,-3.108,12.84,8.339,17.75,23.1,0,0,0,0,0,0,0,0,0,0,0,0,0,0,0,0,
207,-95.58,-85.8,-47.33,-42.72,-38.48,-38.02,-43.49,-21.08,7.008,-5.016,17.78,-17.74,14.53,3.272,18.11,13.36,0,0,0,0,0,0,0,0,0,0,0,0,0,0,0,0,
208,-109.4,-102.0,-70.7,-58.0,-46.06,-38.91,-67.46,-31.36,-6.173,-5.098,30.18,-27.02,14.91,-3.083,21.75,5.095,0,0,0,0,0,0,0,0,0,0,0,0,0,0,0,0,
209,-90.83,-91.19,-47.04,-51.99,-24.61,-28.36,3.186,-26.12,-0.9525,-0.5897,35.14,-22.33,20.91,-4.249,26.36,2.871,0,0,0,0,0,0,0,0,0,0,0,0,0,0,0,0,
210,-78.92,-82.86,-32.57,-50.13,-19.32,-34.16,40.12,-37.44,13.13,-4.369,24.63,-20.68,12.16,-13.46,19.1,-2.607,0,0,0,0,0,0,0,0,0,0,0,0,0,0,0,0,
211,-93.12,-88.6,-45.5,-51.67,-37.24,-47.2,41.1,-42.52,6.409,-21.59,8.597,-15.11,-4.046,-16.65,7.935,-1.955,0,0,0,0,0,0,0,0,0,0,0,0,0,0,0,0,
212,-92.84,-81.67,-44.22,-43.42,-43.27,-45.06,15.13,-21.6,-5.442,-26.28,-1.856,-4.543,-12.37,-8.469,0.6535,3.789,0,0,0,0,0,0,0,0,0,0,0,0,0,0,0,0,
213,-88.86,-82.03,-45.43,-45.31,-46.38,-45.46,-23.59,-19.01,-16.29,-24.52,-8.247,7.371,-10.59,2.499,4.112,14.11,0,0,0,0,0,0,0,0,0,0,0,0,0,0,0,0,
214,-94.9,-91.75,-57.55,-49.06,-47.3,-42.67,-20.99,-18.91,-14.74,-18.57,-0.7145,24.28,3.575,19.2,18.39,30.84,0,0,0,0,0,0,0,0,0,0,0,0,0,0,0,0,
215,-96.83,-92.82,-61.2,-48.54,-46.16,-34.67,-18.67,-3.188,-2.45,-4.699,4.497,24.55,5.282,22.45,17.98,31.09,0,0,0,0,0,0,0,0,0,0,0,0,0,0,0,0,
216,-93.84,-86.98,-49.87,-45.11,-44.38,-31.49,-19.19,-5.86,-6.464,-1.92,-7.642,14.76,-5.648,12.79,7.44,22.44,0,0,0,0,0,0,0,0,0,0,0,0,0,0,0,0,
217,-80.65,-71.25,-31.77,-28.77,-29.85,-21.89,5.983,-6.517,-7.212,-2.079,-18.29,11.46,-6.29,8.553,2.646,18.73,0,0,0,0,0,0,0,0,0,0,0,0,0,0,0,0,
218,-69.16,-63.76,-31.67,-21.42,-23.65,-15.43,-5.302,13.87,-0.046,1.527,-24.72,0.4286,-8.117,2.055,-3.295,8.55,0,0,0,0,0,0,0,0,0,0,0,0,0,0,0,0,
219,-67.89,-67.75,-36.74,-23.45,-25.66,-15.48,-15.23,11.58,-1.257,3.588,-27.39,-4.973,-6.563,1.855,-0.0025,5.056,0,0,0,0,0,0,0,0,0,0,0,0,0,0,0,0,
220,-66.71,-64.98,-34.55,-18.41,-22.92,-15.13,6.899,-21.67,7.922,7.561,-20.37,-1.472,3.029,8.339,9.932,7.31,0,0,0,0,0,0,0,0,0,0,0,0,0,0,0,0,
221,-74.24,-68.53,-45.46,-23.58,-33.94,-22.86,-26.5,-30.56,9.316,1.426,-4.798,-4.299,6.596,8.384,14.59,1.728,0,0,0,0,0,0,0,0,0,0,0,0,0,0,0,0,
222,-79.23,-73.74,-50.66,-33.24,-40.45,-25.92,-62.59,-5.587,-7.151,-2.29,13.05,-3.284,13.16,12.63,21.34,-0.944,0,0,0,0,0,0,0,0,0,0,0,0,0,0,0,0,
223,-70.85,-71.88,-46.23,-34.61,-31.82,-22.52,-32.42,2.435,-7.497,7.389,14.34,-2.729,17.52,16.58,23.14,0.3344,0,0,0,0,0,0,0,0,0,0,0,0,0,0,0,0,
224,-66.24,-72.39,-49.21,-28.8,-27.09,-20.12,-7.088,3.637,0.8618,8.583,5.632,-0.3704,14.64,18.04,19.69,8.93,0,0,0,0,0,0,0,0,0,0,0,0,0,0,0,0,
225,-61.98,-63.65,-43.66,-15.71,-20.71,-11.99,2.447,19.64,3.95,8.488,-2.441,7.557,11.66,19.21,13.18,17.5,0,0,0,0,0,0,0,0,0,0,0,0,0,0,0,0,
226,-57.96,-54.66,-36.68,-14.93,-19.91,-12.47,27.53,10.27,2.66,6.876,-22.62,1.921,-3.896,5.163,-3.786,9.028,0,0,0,0,0,0,0,0,0,0,0,0,0,0,0,0,
227,-54.87,-54.44,-33.82,-20.64,-22.05,-16.28,27.88,-14.11,-3.477,-4.914,-30.63,-4.082,-19.47,-11.07,-12.91,1.505,0,0,0,0,0,0,0,0,0,0,0,0,0,0,0,0,
228,-49.21,-49.96,-36.42,-18.07,-22.59,-13.66,-43.18,-18.59,-8.775,-10.36,-12.89,-4.518,-25.34,-22.41,-11.7,-3.24,0,0,0,0,0,0,0,0,0,0,0,0,0,0,0,0,
229,-58.37,-52.2,-54.11,-23.62,-40.41,-22.36,-104.1,-16.18,-29.28,-19.02,-0.0514,-10.98,-32.7,-32.92,-11.28,-11.19,0,0,0,0,0,0,0,0,0,0,0,0,0,0,0,0,
230,-61.26,-52.4,-40.07,-24.7,-38.78,-21.52,-22.19,-9.097,-42.88,-24.67,12.52,-1.729,-15.81,-16.46,9.423,4.627,0,0,0,0,0,0,0,0,0,0,0,0,0,0,0,0,
231,-33.8,-34.68,3.733,-6.114,0.5809,3.162,90.61,4.354,-4.347,-1.104,46.54,24.03,31.01,22.8,52.21,41.17,0,0,0,0,0,0,0,0,0,0,0,0,0,0,0,0,
232,-13.71,-20.93,6.076,10.51,17.66,18.03,64.27,19.59,42.08,28.8,78.45,37.72,60.59,46.8,73.45,58.99,0,0,0,0,0,0,0,0,0,0,0,0,0,0,0,0,
233,-29.11,-29.12,-24.98,1.825,-5.941,2.845,-7.079,23.46,39.92,32.15,58.07,22.39,41.23,34.05,41.67,34.28,0,0,0,0,0,0,0,0,0,0,0,0,0,0,0,0,
234,-61.57,-55.75,-47.99,-26.06,-35.05,-26.72,-36.46,3.958,4.676,5.581,4.01,-5.859,1.415,2.628,-1.48,-1.775,0,0,0,0,0,0,0,0,0,0,0,0,0,0,0,0,
235,-71.61,-67.75,-50.26,-30.47,-42.64,-32.19,-38.2,-4.83,-21.49,-15.47,-16.14,-12.29,-8.697,-7.587,-7.289,-8.395,0,0,0,0,0,0,0,0,0,0,0,0,0,0,0,0,
236,-59.84,-54.83,-37.81,-16.92,-35.49,-20.18,25.45,-3.207,-17.17,-8.589,-26.82,-11.51,-4.811,-8.604,-8.333,-11.89,0,0,0,0,0,0,0,0,0,0,0,0,0,0,0,0,
237,-61.67,-52.92,-35.83,-23.91,-34.2,-22.84,61.24,-17.87,-2.864,-6.077,-48.52,-15.13,-11.71,-14.71,-16.97,-20.46,0,0,0,0,0,0,0,0,0,0,0,0,0,0,0,0,
238,-61.97,-54.94,-40.85,-26.84,-37.37,-20.83,-47.94,-18.19,-3.546,-5.443,-32.2,-3.037,-10.17,-3.926,-9.489,-10.5,0,0,0,0,0,0,0,0,0,0,0,0,0,0,0,0,
239,-55.57,-48.93,-44.99,-16.48,-49.46,-15.45,-133.5,-1.678,-23.9,5.086,-11.14,4.309,-9.567,7.041,-8.77,-4.88,0,0,0,0,0,0,0,0,0,0,0,0,0,0,0,0,
240,-60.98,-48.1,-42.48,-7.92,-54.42,-17.7,-52.71,15.41,-38.17,5.823,-16.0,5.567,-7.145,13.02,-10.22,-2.529,0,0,0,0,0,0,0,0,0,0,0,0,0,0,0,0,
241,-50.28,-38.72,-17.43,5.138,-31.3,-7.988,30.93,30.97,-13.23,13.4,-9.976,14.01,9.535,24.28,0.5414,6.379,0,0,0,0,0,0,0,0,0,0,0,0,0,0,0,0,
242,-28.95,-29.16,-1.454,2.128,-16.21,-4.737,31.91,17.27,11.88,21.14,-9.011,9.571,11.75,19.66,0.076,2.092,0,0,0,0,0,0,0,0,0,0,0,0,0,0,0,0,
243,-21.7,-25.94,-5.276,-8.974,-12.85,-9.164,56.01,-1.645,9.967,9.723,-19.69,5.447,6.291,10.56,-2.285,-0.8068,0,0,0,0,0,0,0,0,0,0,0,0,0,0,0,0,
244,-20.38,-18.81,-4.386,-7.363,-10.52,-6.267,45.34,-0.5029,12.5,3.124,-19.61,3.246,-1.694,0.9933,-5.266,-3.693,0,0,0,0,0,0,0,0,0,0,0,0,0,0,0,0,
245,-35.1,-28.99,-16.37,-15.45,-33.74,-18.98,-51.65,-7.74,-4.213,-9.965,-16.06,-10.45,-28.05,-20.9,-18.02,-15.76,0,0,0,0,0,0,0,0,0,0,0,0,0,0,0,0,
246,-46.44,-37.28,-33.65,-19.4,-46.15,-29.12,-69.56,-11.19,-39.1,-29.98,-11.55,-11.41,-40.16,-28.13,-20.6,-15.79,0,0,0,0,0,0,0,0,0,0,0,0,0,0,0,0,
247,-37.55,-26.33,-37.78,-14.72,-33.88,-22.87,-9.722,-15.35,-41.8,-30.55,-21.15,-13.13,-37.83,-29.59,-24.29,-20.18,0,0,0,0,0,0,0,0,0,0,0,0,0,0,0,0,
248,-42.42,-32.26,-41.33,-23.76,-38.39,-24.61,-5.202,-30.93,-33.4,-30.56,-40.15,-24.09,-39.71,-37.18,-29.76,-28.8,0,0,0,0,0,0,0,0,0,0,0,0,0,0,0,0,
249,-45.71,-37.11,-34.63,-19.85,-36.93,-20.38,-17.24,-14.6,-26.89,-27.52,-33.32,-15.75,-24.07,-26.89,-16.28,-16.4,0,0,0,0,0,0,0,0,0,0,0,0,0,0,0,0,
250,-30.31,-23.41,-29.1,-8.056,-25.97,-12.68,-38.21,7.794,-13.26,-13.99,-15.08,-9.624,-9.07,-19.0,-7.863,-9.714,0,0,0,0,0,0,0,0,0,0,0,0,0,0,0,0,
251,-28.34,-24.33,-36.15,-18.02,-35.45,-20.17,-76.42,-12.49,-21.51,-16.69,-6.906,-21.14,-12.59,-28.42,-13.89,-20.83,0,0,0,0,0,0,0,0,0,0,0,0,0,0,0,0,
252,-33.41,-30.35,-22.85,-24.5,-36.41,-22.76,-33.24,-34.64,-32.03,-27.44,-5.28,-27.58,-7.908,-33.37,-14.47,-27.53,0,0,0,0,0,0,0,0,0,0,0,0,0,0,0,0,
253,-22.33,-17.79,4.155,-11.52,-15.11,-10.75,31.27,-18.38,-10.37,-25.91,-0.9842,-21.84,9.379,-26.64,-6.327,-21.68,0,0,0,0,0,0,0,0,0,0,0,0,0,0,0,0,
254,-4.936,0.2421,11.2,4.198,-2.936,2.195,13.79,10.71,12.24,-12.68,15.1,-7.437,23.06,-10.75,3.169,-8.212,0,0,0,0,0,0,0,0,0,0,0,0,0,0,0,0,
255,-6.785,0.1811,-2.721,5.39,-13.81,-2.553,9.764,8.575,9.61,-2.764,16.55,3.727,22.1,0.9643,3.628,-0.7417,0,0,0,0,0,0,0,0,0,0,0,0,0,0,0,0,
256,-31.25,-21.94,-19.6,-9.509,-31.48,-21.89,30.09,-5.516,0.8187,-7.295,4.375,9.207,14.94,6.41,3.087,4.041,0,0,0,0,0,0,0,0,0,0,0,0,0,0,0,0,
257,-49.51,-43.56,-27.36,-22.76,-42.57,-29.45,-18.36,7.871,-2.881,-6.257,9.94,13.47,11.9,14.13,6.298,9.35,0,0,0,0,0,0,0,0,0,0,0,0,0,0,0,0,
258,-50.99,-48.73,-32.02,-23.36,-48.59,-24.11,-44.06,19.95,-15.29,0.8434,8.753,12.87,5.248,16.84,0.4057,5.734,0,0,0,0,0,0,0,0,0,0,0,0,0,0,0,0,
259,-39.36,-36.74,-29.96,-12.14,-36.28,-13.39,17.28,18.23,-19.8,3.668,-7.944,13.36,2.587,18.67,-5.74,1.494,0,0,0,0,0,0,0,0,0,0,0,0,0,0,0,0,
260,-23.55,-22.58,-21.94,-5.354,-15.37,-4.297,20.58,24.15,-0.8701,13.83,-10.13,11.6,5.664,21.33,-3.661,0.2954,0,0,0,0,0,0,0,0,0,0,0,0,0,0,0,0,
261,-21.36,-19.2,-19.53,-9.032,-13.66,-4.751,-43.96,24.39,3.692,19.94,1.331,10.79,4.542,20.73,2.665,5.581,0,0,0,0,0,0,0,0,0,0,0,0,0,0,0,0,
262,-18.54,-12.52,-10.29,-5.54,-12.14,-3.658,-21.26,8.279,-7.178,16.4,5.377,16.5,5.363,19.04,7.014,15.78,0,0,0,0,0,0,0,0,0,0,0,0,0,0,0,0,
263,-12.49,-8.351,-2.681,-3.89,-4.446,-6.941,54.16,-10.39,-0.724,8.831,-8.778,7.477,5.184,6.51,2.211,11.81,0,0,0,0,0,0,0,0,0,0,0,0,0,0,0,0,
264,-18.54,-12.53,-11.77,-7.191,-6.117,-13.4,40.72,-2.638,10.77,-5.069,-10.38,-3.096,4.681,-4.974,2.325,6.67,0,0,0,0,0,0,0,0,0,0,0,0,0,0,0,0,
265,-21.7,-10.87,-23.62,-6.68,-14.73,-9.507,-40.3,18.06,4.543,-9.281,11.13,-1.588,-1.271,-9.811,1.531,3.638,0,0,0,0,0,0,0,0,0,0,0,0,0,0,0,0,
266,-26.18,-19.6,-37.95,-19.91,-31.23,-16.0,-69.87,-5.373,-26.18,-14.04,10.39,-10.97,-23.54,-26.55,-14.3,-12.94,0,0,0,0,0,0,0,0,0,0,0,0,0,0,0,0,
267,-27.86,-24.37,-35.08,-24.71,-26.44,-19.86,-16.52,-33.13,-46.87,-26.16,-2.984,-18.57,-31.83,-34.25,-19.54,-20.75,0,0,0,0,0,0,0,0,0,0,0,0,0,0,0,0,
268,-6.71,-2.555,-4.978,-2.152,6.491,-1.478,34.43,-6.332,-24.64,-18.46,-1.853,-19.63,-24.3,-27.29,-17.87,-22.15,0,0,0,0,0,0,0,0,0,0,0,0,0,0,0,0,
269,4.458,4.884,9.229,9.892,15.91,2.165,45.2,17.99,-7.252,-9.648,-7.794,-26.09,-29.43,-26.81,-25.23,-30.85,0,0,0,0,0,0,0,0,0,0,0,0,0,0,0,0,
270,-6.135,-4.746,3.609,8.168,3.539,-9.344,45.15,5.723,-17.14,-15.18,-19.03,-24.06,-32.14,-22.91,-24.81,-29.91,0,0,0,0,0,0,0,0,0,0,0,0,0,0,0,0,
271,-13.75,-6.068,-4.713,7.263,-3.254,-10.03,-0.1922,-4.133,-23.28,-13.06,-19.62,-20.75,-26.18,-15.91,-18.87,-24.2,0,0,0,0,0,0,0,0,0,0,0,0,0,0,0,0,
272,-17.99,-9.274,-16.25,3.539,-3.115,-5.788,-55.55,2.3,-25.36,-2.633,-4.406,-15.39,-11.76,-5.295,-7.746,-13.03,0,0,0,0,0,0,0,0,0,0,0,0,0,0,0,0,
273,-18.54,-12.91,-15.89,-2.751,6.814,-6.566,-25.07,4.701,-15.99,8.353,17.36,-1.002,14.13,10.06,9.252,4.305,0,0,0,0,0,0,0,0,0,0,0,0,0,0,0,0,
274,-20.44,-18.44,-9.201,-11.66,11.53,-13.02,17.21,-4.058,3.047,7.068,26.16,8.069,27.9,14.21,16.9,11.77,0,0,0,0,0,0,0,0,0,0,0,0,0,0,0,0,
275,-19.14,-21.01,-5.704,-5.033,14.13,-8.568,6.81,-0.702,11.77,4.135,30.19,21.82,31.38,20.6,17.71,17.13,0,0,0,0,0,0,0,0,0,0,0,0,0,0,0,0,
276,-10.95,-15.77,-4.906,2.454,19.55,-5.349,13.93,11.7,17.0,16.13,21.99,27.8,27.64,22.64,5.269,11.8,0,0,0,0,0,0,0,0,0,0,0,0,0,0,0,0,
277,-22.09,-26.44,-12.86,-17.69,7.706,-24.52,28.51,10.07,12.56,9.179,1.585,13.36,11.89,5.355,-11.11,-3.146,0,0,0,0,0,0,0,0,0,0,0,0,0,0,0,0,
278,-33.79,-35.0,-13.74,-23.97,0.0676,-29.61,10.33,0.9185,2.696,-8.273,4.248,10.99,9.294,-0.4645,-7.652,-2.326,0,0,0,0,0,0,0,0,0,0,0,0,0,0,0,0,
279,-25.14,-26.21,-13.12,-13.19,3.505,-21.17,-15.58,-10.62,3.846,-6.191,6.474,6.574,8.831,-3.108,-9.65,-8.698,0,0,0,0,0,0,0,0,0,0,0,0,0,0,0,0,
280,-27.21,-28.13,-24.19,-23.11,-4.832,-29.03,-40.82,-12.09,-2.927,-12.52,-5.474,-13.17,-2.471,-19.0,-18.52,-24.97,0,0,0,0,0,0,0,0,0,0,0,0,0,0,0,0,
281,-32.76,-29.62,-24.57,-30.95,-4.513,-30.14,-21.86,-1.933,-9.065,-21.29,-0.0818,-17.43,3.328,-21.81,-9.907,-21.38,0,0,0,0,0,0,0,0,0,0,0,0,0,0,0,0,
282,-22.1,-18.56,-15.78,-26.37,11.85,-21.17,52.33,-4.197,8.791,-14.21,4.764,-10.01,18.86,-13.02,0.118,-9.94,0,0,0,0,0,0,0,0,0,0,0,0,0,0,0,0,
283,-7.237,-7.591,-6.336,-20.31,22.8,-13.7,36.25,-5.578,27.33,-7.846,8.31,-3.97,20.8,-8.961,3.86,-4.532,0,0,0,0,0,0,0,0,0,0,0,0,0,0,0,0,
284,-4.434,-6.964,-4.071,-17.72,12.26,-12.91,-74.38,-11.31,13.96,-8.202,16.17,-8.566,3.012,-21.13,-4.005,-12.33,0,0,0,0,0,0,0,0,0,0,0,0,0,0,0,0,
285,-23.15,-26.2,-17.82,-29.59,-10.75,-31.26,-56.66,-33.44,-21.89,-25.49,-1.362,-20.29,-18.87,-41.47,-20.31,-23.97,0,0,0,0,0,0,0,0,0,0,0,0,0,0,0,0,
286,-29.54,-31.94,-10.66,-28.5,-4.859,-36.59,57.79,-23.96,-25.62,-41.24,-14.78,-12.71,-16.07,-39.12,-15.21,-15.03,0,0,0,0,0,0,0,0,0,0,0,0,0,0,0,0,
287,-8.13,-10.71,10.64,-8.606,14.98,-18.06,51.48,5.184,-0.5002,-30.73,-0.6818,-5.216,-9.051,-29.76,-4.1,-7.717,0,0,0,0,0,0,0,0,0,0,0,0,0,0,0,0,
288,-0.2495,-5.18,3.88,-8.67,9.599,-13.84,-10.62,0.975,-5.41,-23.06,5.362,-15.01,-15.83,-30.9,-9.382,-15.8,0,0,0,0,0,0,0,0,0,0,0,0,0,0,0,0,
289,-6.879,-11.66,-6.751,-20.63,1.896,-18.35,-24.51,-21.94,-22.93,-23.66,0.3356,-19.82,-14.01,-23.99,-11.36,-17.61,0,0,0,0,0,0,0,0,0,0,0,0,0,0,0,0,
290,-3.509,-3.584,-5.098,-13.17,8.888,-7.811,-28.6,-28.89,-19.47,-13.67,2.558,-17.95,-2.239,-10.28,-2.861,-9.877,0,0,0,0,0,0,0,0,0,0,0,0,0,0,0,0,
291,10.47,14.28,2.993,11.0,29.01,15.92,26.21,-5.621,-0.3302,5.992,7.508,-9.58,13.99,5.929,4.59,1.591,0,0,0,0,0,0,0,0,0,0,0,0,0,0,0,0,
292,20.28,22.02,13.56,16.44,43.25,26.27,81.03,7.407,29.5,25.18,0.2641,-2.354,19.94,14.74,0.5074,3.011,0,0,0,0,0,0,0,0,0,0,0,0,0,0,0,0,
293,5.876,5.314,1.345,-2.405,21.89,8.99,-1.996,-8.387,32.26,21.64,-4.694,-6.025,6.105,10.8,-4.942,-3.164,0,0,0,0,0,0,0,0,0,0,0,0,0,0,0,0,
294,-13.83,-9.045,-21.03,-1.994,-2.409,0.1479,-74.4,9.123,1.28,11.41,8.015,-5.034,-0.8003,14.06,-1.869,-1.692,0,0,0,0,0,0,0,0,0,0,0,0,0,0,0,0,
295,-17.57,-7.679,-26.4,8.025,-1.105,6.669,-1.086,35.0,-12.2,18.85,1.452,-0.1029,-0.9313,17.55,-5.626,-3.953,0,0,0,0,0,0,0,0,0,0,0,0,0,0,0,0,
296,-18.03,-10.78,-19.08,0.2353,6.466,4.971,51.07,10.35,2.588,22.14,-18.83,6.632,-5.003,14.57,-9.918,-5.375,0,0,0,0,0,0,0,0,0,0,0,0,0,0,0,0,
297,-19.56,-14.32,-12.99,-6.921,5.691,-0.8095,-17.57,-13.96,14.99,15.36,-15.11,9.906,-9.191,10.3,-12.36,-5.224,0,0,0,0,0,0,0,0,0,0,0,0,0,0,0,0,
298,-25.48,-17.73,-25.85,-15.52,-10.2,-11.73,-59.66,-6.042,-0.631,1.596,-13.39,-1.083,-19.39,-2.311,-22.44,-14.43,0,0,0,0,0,0,0,0,0,0,0,0,0,0,0,0,
299,-26.91,-19.0,-34.78,-19.63,-15.62,-16.43,-11.2,9.199,-17.69,-9.144,-15.84,0.2997,-18.56,-4.896,-19.47,-9.526,0,0,0,0,0,0,0,0,0,0,0,0,0,0,0,0,
300,-19.57,-14.68,-22.11,-14.54,-6.718,-11.43,3.636,5.566,-5.565,-0.8334,-6.052,10.21,-8.331,-0.0131,-10.22,2.035,0,0,0,0,0,0,0,0,0,0,0,0,0,0,0,0,
301,-21.85,-20.66,-13.39,-24.9,-12.54,-18.02,-0.4297,-16.82,-0.2917,-1.44,-3.137,7.222,-6.173,-4.516,-5.407,3.66,0,0,0,0,0,0,0,0,0,0,0,0,0,0,0,0,
302,-17.38,-22.98,-7.452,-32.03,-10.88,-21.1,37.65,-14.66,0.7595,-9.97,0.52,9.497,1.76,-1.726,7.179,10.3,0,0,0,0,0,0,0,0,0,0,0,0,0,0,0,0,
303,-14.15,-23.31,-19.62,-29.36,-10.35,-23.02,-9.026,-4.596,8.498,-8.819,5.177,7.465,-0.4597,-4.482,5.582,7.937,0,0,0,0,0,0,0,0,0,0,0,0,0,0,0,0,
304,-34.38,-37.03,-42.43,-32.77,-26.38,-32.41,-75.96,-22.5,-12.96,-19.77,0.9619,3.214,-10.25,-13.02,-1.155,3.55,0,0,0,0,0,0,0,0,0,0,0,0,0,0,0,0,
305,-29.45,-30.52,-14.91,-21.22,-8.679,-18.6,-2.159,-26.68,-17.09,-22.82,3.179,13.25,5.28,-4.289,9.723,11.42,0,0,0,0,0,0,0,0,0,0,0,0,0,0,0,0,
306,-0.4366,-10.33,17.09,-6.548,17.25,-1.152,37.21,-8.104,15.85,-10.27,9.174,6.721,15.58,-4.188,9.26,3.738,0,0,0,0,0,0,0,0,0,0,0,0,0,0,0,0,
307,4.76,-7.406,-1.47,-5.306,5.258,-3.073,-27.09,4.979,13.6,-11.87,16.21,-9.346,7.189,-13.96,1.766,-9.265,0,0,0,0,0,0,0,0,0,0,0,0,0,0,0,0,
308,-1.064,-9.782,-14.21,-2.716,-7.301,-3.953,-23.9,9.533,-7.177,-10.07,19.38,-8.825,4.363,-12.59,3.173,-11.15,0,0,0,0,0,0,0,0,0,0,0,0,0,0,0,0,
309,-4.08,-11.57,-2.63,-0.5124,-2.796,-2.505,12.54,0.4815,-4.335,-0.8211,13.08,-1.285,5.524,-6.244,3.118,-9.143,0,0,0,0,0,0,0,0,0,0,0,0,0,0,0,0,
310,7.785,2.333,15.54,10.43,16.97,11.05,25.56,-10.94,9.886,6.933,16.54,11.79,16.13,8.681,9.483,2.744,0,0,0,0,0,0,0,0,0,0,0,0,0,0,0,0,
311,32.86,24.0,31.76,20.57,38.5,27.81,53.34,-7.396,30.52,21.06,15.26,10.91,20.78,14.94,10.79,3.889,0,0,0,0,0,0,0,0,0,0,0,0,0,0,0,0,
312,31.74,17.47,19.91,10.59,31.41,20.97,27.98,6.836,33.01,22.3,-1.832,-6.062,2.86,3.934,-2.562,-8.953,0,0,0,0,0,0,0,0,0,0,0,0,0,0,0,0,
313,14.32,6.682,-1.634,5.559,15.99,13.63,-36.06,9.964,13.1,13.77,-8.06,-5.269,-6.645,5.882,-8.072,-6.006,0,0,0,0,0,0,0,0,0,0,0,0,0,0,0,0,
314,9.943,9.102,5.706,4.699,17.57,15.58,-21.08,-5.812,8.351,13.67,-6.342,6.428,1.328,17.84,-3.353,4.946,0,0,0,0,0,0,0,0,0,0,0,0,0,0,0,0,
315,13.28,7.488,23.08,-3.62,22.35,13.62,25.21,-6.907,18.71,15.59,-2.4,12.26,4.121,21.72,-2.035,6.527,0,0,0,0,0,0,0,0,0,0,0,0,0,0,0,0,
316,10.29,3.46,4.147,-5.456,6.99,9.115,-5.309,4.341,12.3,14.82,-1.488,9.341,-11.55,12.2,-12.4,-4.161,0,0,0,0,0,0,0,0,0,0,0,0,0,0,0,0,
317,-8.78,-4.604,-34.35,-2.134,-19.86,2.667,-60.97,8.21,-15.05,4.013,-10.15,2.784,-26.89,-2.312,-18.51,-10.98,0,0,0,0,0,0,0,0,0,0,0,0,0,0,0,0,
318,-15.31,-2.239,-30.67,10.09,-14.12,8.607,-49.72,22.9,-23.53,-0.6716,-5.913,9.409,-14.11,-1.565,-4.225,1.365,0,0,0,0,0,0,0,0,0,0,0,0,0,0,0,0,
319,-0.639,9.426,-4.369,16.21,8.211,16.39,19.0,19.01,-2.848,9.722,0.7379,13.52,2.081,-1.602,5.65,7.03,0,0,0,0,0,0,0,0,0,0,0,0,0,0,0,0,
320,0.2385,0.6412,6.247,-3.357,10.19,4.537,81.91,-12.01,12.97,4.063,-1.391,6.454,4.302,-13.04,6.125,1.477,0,0,0,0,0,0,0,0,0,0,0,0,0,0,0,0,
321,-4.035,-10.54,12.27,-19.95,6.327,-9.381,45.22,-19.71,18.83,-11.52,8.555,1.849,4.822,-20.64,7.592,-0.5582,0,0,0,0,0,0,0,0,0,0,0,0,0,0,0,0,
322,-7.56,-12.31,-6.941,-25.76,-13.29,-23.97,-69.91,-17.13,2.841,-23.61,15.7,-6.448,-4.994,-28.07,1.521,-6.554,0,0,0,0,0,0,0,0,0,0,0,0,0,0,0,0,
323,-18.96,-18.26,-29.85,-32.36,-36.46,-36.13,-65.76,-16.33,-29.24,-36.61,11.27,-9.72,-9.867,-27.26,0.2191,-7.686,0,0,0,0,0,0,0,0,0,0,0,0,0,0,0,0,
324,-19.74,-18.95,-13.82,-33.28,-27.8,-31.95,40.03,-8.108,-25.2,-36.06,2.801,-6.885,-4.685,-19.88,1.084,-7.621,0,0,0,0,0,0,0,0,0,0,0,0,0,0,0,0,
325,-16.93,-14.72,-5.883,-25.22,-18.73,-23.53,31.39,-10.8,-6.848,-31.63,-5.575,-6.023,-9.606,-17.19,-2.66,-9.965,0,0,0,0,0,0,0,0,0,0,0,0,0,0,0,0,
326,-8.945,0.3413,-12.42,0.7144,-15.23,-1.996,-36.95,-2.713,-8.952,-20.98,7.563,7.645,-3.838,-1.339,8.033,3.781,0,0,0,0,0,0,0,0,0,0,0,0,0,0,0,0,
327,13.59,22.91,-0.9485,21.02,2.916,25.37,-12.94,17.32,-0.5977,9.186,19.12,16.38,8.447,12.41,14.02,10.68,0,0,0,0,0,0,0,0,0,0,0,0,0,0,0,0,
328,22.8,26.08,6.642,11.88,13.48,27.85,35.18,17.16,13.17,22.6,6.589,6.154,3.579,4.546,2.435,-0.3864,0,0,0,0,0,0,0,0,0,0,0,0,0,0,0,0,
329,21.35,24.03,8.5,8.47,12.61,25.01,10.89,14.3,12.81,14.26,7.35,0.3362,0.8045,-0.3058,0.1675,-1.338,0,0,0,0,0,0,0,0,0,0,0,0,0,0,0,0,
330,24.01,28.29,10.65,15.61,9.18,29.01,-35.68,14.48,5.155,13.52,22.54,4.72,6.887,6.762,8.755,8.079,0,0,0,0,0,0,0,0,0,0,0,0,0,0,0,0,
331,21.83,24.24,10.15,8.58,6.187,23.45,-0.2528,7.124,-0.1563,18.23,19.37,12.89,13.09,15.14,12.96,14.03,0,0,0,0,0,0,0,0,0,0,0,0,0,0,0,0,
332,16.58,16.0,13.77,-3.617,4.362,8.411,59.9,5.101,8.291,15.63,-1.341,8.775,12.96,11.44,6.299,7.911,0,0,0,0,0,0,0,0,0,0,0,0,0,0,0,0,
333,7.844,8.443,7.737,-8.437,-3.755,-3.509,11.44,14.43,12.12,3.136,-2.248,1.139,9.644,5.173,4.322,4.743,0,0,0,0,0,0,0,0,0,0,0,0,0,0,0,0,
334,2.201,5.364,-3.396,-6.473,-7.81,-1.286,-59.45,16.27,1.177,1.893,24.19,12.33,13.39,11.1,11.15,11.83,0,0,0,0,0,0,0,0,0,0,0,0,0,0,0,0,
335,-1.938,-2.99,-6.273,-13.96,-14.12,-6.876,-19.45,-13.51,-10.09,3.225,15.62,4.941,1.926,-2.387,-2.465,-3.929,0,0,0,0,0,0,0,0,0,0,0,0,0,0,0,0,
336,-13.08,-17.08,-1.234,-20.95,-22.55,-19.33,67.22,-27.52,-18.5,-18.46,-20.81,-17.33,-12.78,-20.97,-15.15,-20.03,0,0,0,0,0,0,0,0,0,0,0,0,0,0,0,0,
337,-7.253,-5.58,12.99,-2.792,-6.476,-2.651,73.38,10.75,-5.467,-18.85,-16.71,-6.819,2.662,-3.719,-2.774,-3.314,0,0,0,0,0,0,0,0,0,0,0,0,0,0,0,0,
338,6.541,12.08,8.579,8.994,4.06,15.07,-18.0,26.92,10.61,6.854,4.436,8.902,13.73,11.58,2.187,9.145,0,0,0,0,0,0,0,0,0,0,0,0,0,0,0,0,
339,5.111,11.82,-7.073,7.019,-5.443,13.19,-69.93,5.98,-4.858,9.434,12.23,12.4,11.49,11.71,3.253,11.06,0,0,0,0,0,0,0,0,0,0,0,0,0,0,0,0,
340,7.682,17.22,0.1013,13.29,-2.137,14.65,-23.95,-1.35,-13.21,5.784,11.19,14.54,14.9,14.81,5.282,11.09,0,0,0,0,0,0,0,0,0,0,0,0,0,0,0,0,
341,6.92,15.09,1.131,5.222,-0.7836,7.461,1.253,2.336,-4.856,4.74,-6.803,4.431,9.047,8.023,-3.97,1.223,0,0,0,0,0,0,0,0,0,0,0,0,0,0,0,0,
342,-0.2077,3.356,-3.391,-3.53,-1.194,2.99,12.41,20.67,-2.329,-1.355,-12.81,3.275,11.62,9.592,4.309,5.838,0,0,0,0,0,0,0,0,0,0,0,0,0,0,0,0,
343,8.04,8.702,9.983,8.803,10.39,15.36,52.17,29.47,12.47,6.866,2.464,14.27,24.01,21.26,19.97,16.39,0,0,0,0,0,0,0,0,0,0,0,0,0,0,0,0,
344,12.47,11.58,5.647,6.944,1.427,11.58,5.232,-0.1774,15.62,9.025,10.02,5.478,8.701,9.511,8.411,2.901,0,0,0,0,0,0,0,0,0,0,0,0,0,0,0,0,
345,1.817,2.37,-20.6,-8.171,-25.06,-2.5,-91.08,-15.18,-18.57,-8.999,10.23,-15.52,-19.47,-14.08,-9.062,-16.88,0,0,0,0,0,0,0,0,0,0,0,0,0,0,0,0,
346,-3.099,0.506,-29.48,-6.19,-28.85,-0.6784,-58.88,-6.803,-42.7,-20.99,2.26,-21.64,-28.06,-21.2,-11.62,-19.86,0,0,0,0,0,0,0,0,0,0,0,0,0,0,0,0,
347,6.071,6.921,-5.727,4.771,-3.567,9.659,58.4,-10.24,-24.06,-16.31,-10.26,-5.935,-17.46,-7.728,-4.354,-6.038,0,0,0,0,0,0,0,0,0,0,0,0,0,0,0,0,
348,15.33,9.07,22.5,6.22,15.09,15.81,74.58,-2.721,7.442,-1.814,-9.34,9.704,-5.497,7.655,4.207,6.622,0,0,0,0,0,0,0,0,0,0,0,0,0,0,0,0,
349,7.551,0.3281,10.83,5.726,2.068,16.5,-35.45,23.31,9.601,8.942,9.663,12.09,-0.3246,12.44,12.43,11.51,0,0,0,0,0,0,0,0,0,0,0,0,0,0,0,0,
350,2.907,-1.84,-9.84,17.43,-6.407,22.53,-88.3,38.94,-6.86,18.4,39.69,21.62,14.35,23.65,28.37,24.32,0,0,0,0,0,0,0,0,0,0,0,0,0,0,0,0,
351,24.0,15.27,22.88,32.89,20.25,38.08,31.14,38.17,5.618,35.95,57.85,42.79,43.62,45.99,50.99,45.07,0,0,0,0,0,0,0,0,0,0,0,0,0,0,0,0,
352,51.52,38.18,71.59,44.53,53.3,55.08,145.4,32.34,50.1,51.8,58.7,54.55,65.46,58.45,64.03,55.35,0,0,0,0,0,0,0,0,0,0,0,0,0,0,0,0,
353,49.43,36.96,48.87,32.85,41.34,45.83,64.7,18.96,67.88,48.21,41.47,31.47,44.13,34.09,40.35,30.87,0,0,0,0,0,0,0,0,0,0,0,0,0,0,0,0,
354,0.6899,-7.045,-31.14,-11.9,-21.16,-1.272,-79.63,0.932,15.12,9.459,-1.353,-7.865,-10.97,-12.45,-4.692,-9.062,0,0,0,0,0,0,0,0,0,0,0,0,0,0,0,0,
355,-43.71,-42.23,-65.69,-31.97,-58.37,-27.01,-90.45,-3.257,-45.94,-27.9,-27.82,-10.2,-32.05,-24.86,-18.68,-14.98,0,0,0,0,0,0,0,0,0,0,0,0,0,0,0,0,
356,-40.76,-33.99,-48.29,-21.7,-45.54,-16.66,-32.01,-7.55,-46.61,-24.61,-23.97,2.721,-18.61,-11.57,-12.12,-6.635,0,0,0,0,0,0,0,0,0,0,0,0,0,0,0,0,
357,-26.57,-23.51,-38.97,-25.37,-32.93,-15.59,-16.69,-10.53,-28.02,-16.3,-21.17,3.808,-8.196,-1.05,-7.021,-3.187,0,0,0,0,0,0,0,0,0,0,0,0,0,0,0,0,
358,-7.683,-7.485,-19.08,-10.89,-13.15,-1.967,-10.82,13.85,-11.25,-5.564,-9.282,19.07,11.7,21.78,6.79,12.77,0,0,0,0,0,0,0,0,0,0,0,0,0,0,0,0,
359,16.77,16.31,0.1844,13.33,7.066,22.62,-1.035,29.43,14.12,20.73,2.748,22.14,21.14,31.17,8.318,13.31,0,0,0,0,0,0,0,0,0,0,0,0,0,0,0,0,
360,11.48,11.02,-13.8,6.669,-2.942,19.23,-8.071,21.79,12.78,24.22,0.8691,5.762,9.296,17.62,0.4239,0.2131,0,0,0,0,0,0,0,0,0,0,0,0,0,0,0,0,
361,-2.035,0.5896,-14.23,5.061,-9.872,13.75,-6.266,12.52,-0.2077,15.78,2.689,4.616,7.812,12.22,1.875,-0.6084,0,0,0,0,0,0,0,0,0,0,0,0,0,0,0,0,
362,0.225,2.561,-5.062,10.08,-7.779,15.41,1.487,-9.995,2.826,13.46,-5.858,-0.6008,1.494,2.995,-4.138,-8.439,0,0,0,0,0,0,0,0,0,0,0,0,0,0,0,0,
363,2.471,1.312,-17.12,3.265,-12.66,10.88,-2.715,-14.37,0.8739,2.933,-20.49,-10.31,-14.08,-8.524,-11.46,-16.28,0,0,0,0,0,0,0,0,0,0,0,0,0,0,0,0,
364,1.458,0.8222,-19.8,0.437,-14.61,4.214,-11.96,4.681,-2.739,-2.72,-22.49,-6.661,-19.89,-8.973,-14.19,-12.1,0,0,0,0,0,0,0,0,0,0,0,0,0,0,0,0,
365,-3.278,-3.805,-11.13,-1.139,-16.12,-7.204,-23.08,10.05,-4.742,-6.471,-17.6,2.646,-16.05,-1.742,-10.38,0.3759,0,0,0,0,0,0,0,0,0,0,0,0,0,0,0,0,
366,5.358,0.1529,1.129,7.616,-3.508,-1.915,-20.85,29.58,-1.675,-2.208,6.885,21.65,6.796,21.46,13.15,25.06,0,0,0,0,0,0,0,0,0,0,0,0,0,0,0,0,
367,22.68,10.56,20.87,12.71,13.03,9.858,13.61,35.76,14.45,15.66,25.38,28.04,22.62,29.64,20.27,29.97,0,0,0,0,0,0,0,0,0,0,0,0,0,0,0,0,
368,16.62,-1.749,29.75,-7.043,5.821,-3.462,59.09,-1.1,17.05,6.541,5.893,12.23,8.348,7.586,-0.4514,10.46,0,0,0,0,0,0,0,0,0,0,0,0,0,0,0,0,
369,10.6,-6.534,21.25,-5.553,0.7112,-6.057,49.37,-4.872,8.194,-10.78,-7.536,7.484,-2.211,-1.941,-6.012,2.749,0,0,0,0,0,0,0,0,0,0,0,0,0,0,0,0,
370,18.49,11.31,2.83,19.66,3.037,13.32,-13.84,13.9,4.542,-0.2224,6.57,11.15,0.9957,3.248,4.949,5.744,0,0,0,0,0,0,0,0,0,0,0,0,0,0,0,0,
371,20.86,18.88,-0.4957,24.46,0.8662,22.02,-24.63,7.167,1.856,9.615,19.81,10.33,10.54,6.228,15.83,11.82,0,0,0,0,0,0,0,0,0,0,0,0,0,0,0,0,
372,21.37,16.33,10.78,15.09,0.099,17.25,7.218,7.623,9.916,9.22,19.4,4.729,20.36,4.93,20.41,11.4,0,0,0,0,0,0,0,0,0,0,0,0,0,0,0,0,
373,12.53,10.05,-0.5866,4.35,-10.28,4.455,-6.476,4.511,12.88,4.152,17.09,-2.755,19.09,-1.483,19.45,1.252,0,0,0,0,0,0,0,0,0,0,0,0,0,0,0,0,
374,3.518,4.615,-7.053,-6.375,-11.96,-3.146,0.7129,-14.77,6.784,-1.566,22.37,1.623,24.33,3.724,24.24,3.678,0,0,0,0,0,0,0,0,0,0,0,0,0,0,0,0,
375,11.97,2.85,12.51,-15.19,6.233,-0.5069,60.94,-14.82,24.5,5.299,21.25,7.415,38.5,17.74,28.93,13.42,0,0,0,0,0,0,0,0,0,0,0,0,0,0,0,0,
376,17.02,-2.235,15.63,-15.57,13.67,4.244,55.98,1.072,46.9,16.69,26.77,10.37,45.44,28.0,34.01,21.32,0,0,0,0,0,0,0,0,0,0,0,0,0,0,0,0,
377,15.47,-0.0285,7.425,-3.231,10.17,12.67,-12.43,7.162,43.41,25.94,43.98,15.27,41.29,30.35,33.75,24.76,0,0,0,0,0,0,0,0,0,0,0,0,0,0,0,0,
378,13.67,3.168,10.25,3.894,6.093,14.69,-10.37,5.854,24.85,25.92,29.61,11.77,22.58,19.63,15.46,16.83,0,0,0,0,0,0,0,0,0,0,0,0,0,0,0,0,
379,14.81,3.055,18.6,14.65,9.228,17.76,65.43,16.87,14.96,19.99,4.29,18.61,11.79,19.31,8.419,19.52,0,0,0,0,0,0,0,0,0,0,0,0,0,0,0,0,
380,26.0,12.97,21.94,30.45,17.34,26.78,72.38,23.04,22.88,25.23,-1.463,28.58,8.477,22.29,7.61,21.49,0,0,0,0,0,0,0,0,0,0,0,0,0,0,0,0,
381,22.98,14.28,4.708,19.11,2.3,16.63,-21.31,7.108,14.26,17.32,-18.56,11.69,-16.86,-1.558,-14.96,-0.0206,0,0,0,0,0,0,0,0,0,0,0,0,0,0,0,0,
382,8.413,9.228,-12.28,8.027,-20.35,4.571,-88.54,9.225,-20.45,-5.301,-30.08,-2.291,-37.67,-19.9,-24.87,-10.82,0,0,0,0,0,0,0,0,0,0,0,0,0,0,0,0,
383,5.9,12.74,-10.11,17.4,-24.7,4.605,-60.04,20.76,-41.62,-10.87,-22.39,-0.6417,-34.2,-18.12,-17.0,-9.743,0,0,0,0,0,0,0,0,0,0,0,0,0,0,0,0,
384,0.7414,4.686,-4.832,13.98,-21.72,-5.518,18.95,1.663,-36.93,-14.49,-27.62,-6.077,-26.53,-19.94,-20.64,-20.19,0,0,0,0,0,0,0,0,0,0,0,0,0,0,0,0,
385,-6.3,-8.851,0.0528,2.844,-14.86,-16.34,46.19,-13.89,-16.61,-21.73,-28.57,-14.44,-16.4,-20.66,-18.37,-25.63,0,0,0,0,0,0,0,0,0,0,0,0,0,0,0,0,
386,-8.349,-14.13,-3.035,-7.405,-11.19,-19.7,-23.12,-7.785,-5.268,-18.0,-3.564,-15.2,-3.795,-14.83,0.8955,-16.2,0,0,0,0,0,0,0,0,0,0,0,0,0,0,0,0,
387,-8.47,-15.5,-8.849,-19.18,-6.097,-18.84,-64.09,-3.396,-12.96,-10.33,18.12,-9.408,7.751,-6.484,12.63,-4.213,0,0,0,0,0,0,0,0,0,0,0,0,0,0,0,0,
388,2.062,-9.965,-2.77,-17.2,7.97,-12.13,-11.79,2.093,-12.29,-5.484,12.49,-14.43,10.38,-5.711,6.408,-3.738,0,0,0,0,0,0,0,0,0,0,0,0,0,0,0,0,
389,9.098,-6.374,-0.2515,-7.501,11.84,-9.14,25.53,8.249,-6.972,-8.648,3.312,-20.85,6.116,-10.28,8.371,-1.086,0,0,0,0,0,0,0,0,0,0,0,0,0,0,0,0,
390,5.26,-6.229,2.124,-4.047,11.33,-8.357,18.63,-4.388,-6.386,-11.24,9.486,-4.597,11.16,-5.055,23.59,15.18,0,0,0,0,0,0,0,0,0,0,0,0,0,0,0,0,
391,0.832,-6.778,6.204,-11.4,10.63,-15.7,21.41,-30.35,-3.248,-15.83,0.2279,1.963,8.065,-7.742,20.19,15.48,0,0,0,0,0,0,0,0,0,0,0,0,0,0,0,0,
392,-6.591,-13.38,-2.836,-22.32,0.9241,-32.32,26.77,-32.94,-8.491,-34.35,-15.09,-7.306,-4.185,-17.92,10.48,4.862,0,0,0,0,0,0,0,0,0,0,0,0,0,0,0,0,
393,-9.871,-18.37,-11.0,-27.98,-4.587,-39.82,-11.05,-20.24,-13.85,-40.71,-0.7042,-4.345,-3.445,-15.91,11.31,3.601,0,0,0,0,0,0,0,0,0,0,0,0,0,0,0,0,
394,-7.187,-21.05,-7.739,-31.51,-4.836,-40.89,-62.46,-17.28,-17.31,-34.06,17.9,-0.6162,-1.122,-10.93,5.08,0.5265,0,0,0,0,0,0,0,0,0,0,0,0,0,0,0,0,
395,3.456,-9.654,13.69,-15.87,12.62,-25.36,-8.559,5.93,-15.06,-23.67,21.89,8.801,7.678,4.553,0.7721,3.382,0,0,0,0,0,0,0,0,0,0,0,0,0,0,0,0,
396,18.77,14.46,35.09,3.515,40.58,-0.222,80.6,23.67,17.11,3.298,11.25,17.76,15.77,18.45,-6.655,1.139,0,0,0,0,0,0,0,0,0,0,0,0,0,0,0,0,
397,13.47,13.51,20.12,-5.934,34.72,-0.565,26.97,-0.2896,33.11,13.69,-6.514,5.72,0.3139,8.443,-21.12,-13.62,0,0,0,0,0,0,0,0,0,0,0,0,0,0,0,0,
398,6.247,6.073,6.986,-1.878,22.25,1.841,-40.14,-3.97,6.365,7.009,-1.778,0.3915,-6.471,4.851,-10.93,-7.096,0,0,0,0,0,0,0,0,0,0,0,0,0,0,0,0,
399,10.4,13.92,16.77,16.77,27.88,13.7,11.7,11.88,-5.486,14.02,0.0102,2.04,-1.655,4.115,4.206,5.551,0,0,0,0,0,0,0,0,0,0,0,0,0,0,0,0,
400,-1.492,7.848,10.63,4.312,19.98,-0.3846,22.49,6.264,-2.768,4.773,-18.64,-3.734,-9.505,-10.74,0.3211,2.653,0,0,0,0,0,0,0,0,0,0,0,0,0,0,0,0,
401,-8.184,1.321,0.2267,-9.088,9.609,-15.04,-38.44,4.985,-14.05,-15.24,-17.63,-3.359,-12.58,-15.93,-0.7514,-0.0312,0,0,0,0,0,0,0,0,0,0,0,0,0,0,0,0,
402,-1.936,3.823,-3.75,-5.795,4.841,-18.62,-33.49,-1.98,-25.63,-18.83,-8.377,-5.007,-10.69,-16.12,1.143,-4.582,0,0,0,0,0,0,0,0,0,0,0,0,0,0,0,0,
403,-6.727,-0.8882,-6.463,-1.675,1.05,-20.71,13.42,-18.46,-24.07,-20.53,-10.87,-6.357,-6.514,-15.82,1.415,-5.666,0,0,0,0,0,0,0,0,0,0,0,0,0,0,0,0,
404,-7.938,-1.799,-0.791,2.216,6.688,-11.11,4.803,-16.63,-9.709,-16.46,-14.36,-7.962,-1.597,-12.34,-4.978,-7.928,0,0,0,0,0,0,0,0,0,0,0,0,0,0,0,0,
405,-7.752,-3.435,-8.346,-3.38,3.097,-5.423,-39.26,-10.7,-10.83,-12.42,-22.24,-20.95,-13.48,-16.82,-23.27,-23.01,0,0,0,0,0,0,0,0,0,0,0,0,0,0,0,0,
406,-6.393,1.703,-11.62,4.286,5.595,3.596,-31.57,-3.459,-25.59,-12.35,-25.97,-21.81,-19.52,-13.22,-31.69,-27.14,0,0,0,0,0,0,0,0,0,0,0,0,0,0,0,0,
407,14.18,27.84,17.7,30.07,33.17,26.34,27.15,0.9854,-10.89,0.3799,-27.36,-14.09,-7.808,-3.899,-28.47,-20.7,0,0,0,0,0,0,0,0,0,0,0,0,0,0,0,0,
408,29.51,41.74,34.71,32.92,45.68,31.6,39.44,-5.712,14.64,5.761,-30.39,-12.9,-2.16,-4.22,-25.82,-17.75,0,0,0,0,0,0,0,0,0,0,0,0,0,0,0,0,
409,25.77,34.21,18.62,23.34,34.9,20.48,-18.55,0.748,13.01,-1.524,-21.02,-6.798,-4.516,-2.03,-23.71,-12.46,0,0,0,0,0,0,0,0,0,0,0,0,0,0,0,0,
410,17.92,27.22,4.34,20.68,25.16,8.626,-60.63,11.59,-6.031,-5.52,-11.91,-6.779,-9.776,-0.4082,-24.06,-9.307,0,0,0,0,0,0,0,0,0,0,0,0,0,0,0,0,
411,8.999,20.98,7.237,7.882,19.17,-7.204,-34.22,2.48,-20.21,-12.68,-10.48,-11.21,-9.194,-1.935,-18.99,-7.244,0,0,0,0,0,0,0,0,0,0,0,0,0,0,0,0,
412,-2.872,6.34,4.821,-15.86,9.324,-24.64,15.23,-21.17,-17.36,-21.5,-13.3,-9.926,-3.924,-5.305,-13.48,-9.488,0,0,0,0,0,0,0,0,0,0,0,0,0,0,0,0,
413,-18.84,-14.41,-13.14,-32.91,-4.861,-38.7,27.4,-32.1,-11.21,-30.72,-16.86,-11.97,-6.688,-14.83,-14.79,-17.8,0,0,0,0,0,0,0,0,0,0,0,0,0,0,0,0,
414,-25.87,-20.19,-16.36,-30.97,-5.891,-37.13,7.152,-13.82,-11.72,-33.6,-3.345,-8.882,-6.492,-15.93,-11.61,-18.18,0,0,0,0,0,0,0,0,0,0,0,0,0,0,0,0,
415,-20.66,-13.06,-3.946,-22.23,5.565,-22.02,-5.73,-7.367,-7.168,-20.13,11.23,-1.218,-1.681,-10.02,-8.848,-16.37,0,0,0,0,0,0,0,0,0,0,0,0,0,0,0,0,
416,-11.47,-6.298,6.187,-10.25,17.7,-4.556,-3.236,-11.06,2.972,-1.599,17.39,3.155,1.46,-6.667,-6.236,-13.51,0,0,0,0,0,0,0,0,0,0,0,0,0,0,0,0,
417,5.226,8.716,15.72,7.822,26.41,8.48,-1.649,11.07,7.048,12.86,19.6,1.696,-1.064,-9.142,-4.91,-11.61,0,0,0,0,0,0,0,0,0,0,0,0,0,0,0,0,
418,8.632,12.49,7.649,4.807,17.81,0.8876,15.13,13.05,-5.404,6.02,-7.944,-10.04,-15.93,-22.52,-12.23,-18.38,0,0,0,0,0,0,0,0,0,0,0,0,0,0,0,0,
419,-0.146,3.824,-0.4584,-4.086,12.8,-7.487,32.43,-6.928,-9.22,-13.56,-27.0,-9.49,-15.2,-21.7,-5.21,-9.925,0,0,0,0,0,0,0,0,0,0,0,0,0,0,0,0,
420,6.687,9.517,11.56,4.306,17.38,-4.522,-21.5,-9.934,7.274,-12.76,-3.698,-4.818,-2.628,-11.25,4.094,0.112,0,0,0,0,0,0,0,0,0,0,0,0,0,0,0,0,
421,7.416,8.24,6.42,-0.3555,-0.4952,-17.38,-73.44,-16.01,-4.613,-17.29,4.237,-20.97,-9.812,-19.73,-5.953,-12.54,0,0,0,0,0,0,0,0,0,0,0,0,0,0,0,0,
422,5.083,6.411,1.728,-1.091,-4.007,-16.18,-7.004,-5.946,-20.83,-27.97,-1.105,-18.9,-2.695,-14.79,0.3524,-8.698,0,0,0,0,0,0,0,0,0,0,0,0,0,0,0,0,
423,25.24,30.53,26.18,23.32,25.09,17.13,66.61,20.18,9.811,-4.363,9.499,7.948,21.46,9.497,14.85,10.23,0,0,0,0,0,0,0,0,0,0,0,0,0,0,0,0,
424,40.17,47.66,42.28,35.16,38.56,35.94,57.73,11.31,34.53,20.84,3.114,14.02,18.62,11.04,-0.2158,3.794,0,0,0,0,0,0,0,0,0,0,0,0,0,0,0,0,
425,36.11,41.59,34.48,25.49,33.4,31.84,17.43,-8.979,28.82,16.22,-15.77,-2.099,-0.7669,-8.809,-25.89,-17.82,0,0,0,0,0,0,0,0,0,0,0,0,0,0,0,0,
426,20.34,25.99,10.2,10.27,14.24,19.29,-50.92,-4.811,12.45,2.293,-20.71,-15.05,-17.55,-22.83,-39.69,-27.52,0,0,0,0,0,0,0,0,0,0,0,0,0,0,0,0,
427,4.0,13.88,-4.634,7.242,-6.217,11.45,-65.15,15.03,-15.81,-2.811,-24.99,-11.06,-23.44,-14.98,-39.87,-18.58,0,0,0,0,0,0,0,0,0,0,0,0,0,0,0,0,
428,7.697,18.11,12.62,20.78,4.146,18.34,15.2,24.85,-18.36,6.735,-32.91,-1.058,-12.1,1.324,-28.66,-6.809,0,0,0,0,0,0,0,0,0,0,0,0,0,0,0,0,
429,15.55,21.23,25.36,22.32,19.21,19.21,19.02,8.386,6.851,12.46,-20.82,4.904,2.209,10.06,-7.865,1.924,0,0,0,0,0,0,0,0,0,0,0,0,0,0,0,0,
430,17.68,16.57,23.39,14.87,20.3,12.79,-29.62,-0.8918,14.12,9.652,3.755,12.26,14.58,19.54,14.89,12.76,0,0,0,0,0,0,0,0,0,0,0,0,0,0,0,0,
431,22.34,16.42,28.02,14.89,23.0,8.423,32.74,4.156,15.32,7.081,2.921,8.558,22.61,18.95,21.49,9.902,0,0,0,0,0,0,0,0,0,0,0,0,0,0,0,0,
432,19.29,14.96,28.57,10.42,20.4,-0.1169,80.46,2.185,26.61,-5.286,-0.5941,-0.742,25.35,8.277,22.74,1.12,0,0,0,0,0,0,0,0,0,0,0,0,0,0,0,0,
433,13.79,8.819,18.69,-3.216,10.42,-8.26,0.4902,5.301,26.53,-15.26,17.51,-2.809,25.93,4.351,30.54,1.68,0,0,0,0,0,0,0,0,0,0,0,0,0,0,0,0,
434,7.841,-1.915,2.255,-17.41,-0.7602,-14.83,-50.62,4.376,8.033,-16.14,19.4,-7.223,19.53,0.3759,32.62,4.714,0,0,0,0,0,0,0,0,0,0,0,0,0,0,0,0,
435,5.987,0.6432,0.3497,-8.787,0.5574,-7.925,3.259,2.516,-0.9659,-12.32,13.99,1.73,18.97,4.844,34.06,17.03,0,0,0,0,0,0,0,0,0,0,0,0,0,0,0,0,
436,18.64,19.52,16.8,8.489,12.6,4.776,53.73,14.86,12.79,1.435,14.88,16.09,16.31,10.72,25.62,22.06,0,0,0,0,0,0,0,0,0,0,0,0,0,0,0,0,
437,15.74,14.59,13.69,-5.747,7.453,-9.698,36.34,14.2,11.73,-1.673,-2.745,9.845,-6.094,-1.218,1.959,9.139,0,0,0,0,0,0,0,0,0,0,0,0,0,0,0,0,
438,2.568,-0.0041,2.456,-14.6,0.7232,-18.95,-17.79,9.184,-6.213,-13.16,-12.55,7.615,-18.44,-3.453,-8.749,6.2,0,0,0,0,0,0,0,0,0,0,0,0,0,0,0,0,
439,10.14,6.687,1.27,2.83,6.245,1.044,-48.2,17.26,-10.65,1.96,-7.615,13.77,-16.93,5.276,-11.42,4.829,0,0,0,0,0,0,0,0,0,0,0,0,0,0,0,0,
440,15.67,12.52,-7.636,8.187,6.269,17.21,-29.37,20.48,-13.47,17.71,-8.136,17.9,-15.93,9.11,-12.73,1.841,0,0,0,0,0,0,0,0,0,0,0,0,0,0,0,0,
441,18.21,19.95,-3.122,14.85,13.56,31.47,-14.93,22.04,-11.02,28.48,3.972,26.9,-3.252,20.12,-4.335,10.82,0,0,0,0,0,0,0,0,0,0,0,0,0,0,0,0,
442,30.6,30.71,17.77,31.05,24.51,43.03,-24.82,18.42,2.186,43.02,11.94,21.09,4.317,21.69,-5.266,7.807,0,0,0,0,0,0,0,0,0,0,0,0,0,0,0,0,
443,35.27,31.1,28.83,33.85,24.08,38.94,-2.507,11.82,4.69,37.61,-0.6603,3.468,-0.4718,7.233,-11.94,-5.003,0,0,0,0,0,0,0,0,0,0,0,0,0,0,0,0,
444,32.53,33.88,30.31,28.63,21.21,30.23,28.84,17.88,6.241,23.59,-6.756,-6.239,-1.669,-5.201,-12.69,-12.81,0,0,0,0,0,0,0,0,0,0,0,0,0,0,0,0,
445,24.33,29.52,17.53,18.99,9.081,13.93,20.93,19.96,5.963,12.71,-3.48,-15.98,-5.892,-17.39,-17.99,-25.32,0,0,0,0,0,0,0,0,0,0,0,0,0,0,0,0,
446,17.42,16.48,6.631,12.65,-1.469,1.474,19.23,15.02,-6.912,1.338,-3.099,-22.39,-10.53,-23.62,-21.91,-33.99,0,0,0,0,0,0,0,0,0,0,0,0,0,0,0,0,
447,27.15,19.86,20.18,16.08,7.212,7.65,30.06,7.243,-9.227,2.406,-10.79,-22.71,-11.87,-21.69,-19.35,-33.87,0,0,0,0,0,0,0,0,0,0,0,0,0,0,0,0,
448,37.8,31.13,37.06,16.87,16.29,14.74,9.046,-5.294,0.0267,6.627,-11.07,-21.67,-11.24,-19.25,-8.539,-26.87,0,0,0,0,0,0,0,0,0,0,0,0,0,0,0,0,
449,38.29,38.82,43.02,21.64,19.51,22.34,-7.177,5.399,2.853,5.493,7.73,-16.45,-0.6471,-12.74,9.298,-11.25,0,0,0,0,0,0,0,0,0,0,0,0,0,0,0,0,
450,39.83,44.78,46.52,34.42,29.37,34.68,42.24,31.64,5.973,9.124,14.61,-4.874,14.96,0.7485,18.48,4.258,0,0,0,0,0,0,0,0,0,0,0,0,0,0,0,0,
451,43.53,41.21,48.3,34.04,38.52,31.48,92.06,24.77,22.69,13.08,7.999,12.14,25.75,17.07,18.23,14.3,0,0,0,0,0,0,0,0,0,0,0,0,0,0,0,0,
452,30.2,20.02,27.61,7.843,18.24,1.273,25.76,-8.176,30.11,1.598,10.19,15.55,18.15,18.16,12.24,11.37,0,0,0,0,0,0,0,0,0,0,0,0,0,0,0,0,
453,-1.456,-7.327,-6.441,-16.53,-17.02,-26.8,-65.68,-13.28,2.33,-21.23,11.77,12.9,2.006,12.31,7.558,6.967,0,0,0,0,0,0,0,0,0,0,0,0,0,0,0,0,
454,-10.95,-10.96,-2.079,-8.918,-16.9,-21.63,-31.09,4.402,-13.35,-21.58,6.974,23.56,4.472,20.87,7.769,13.53,0,0,0,0,0,0,0,0,0,0,0,0,0,0,0,0,
455,-1.539,-2.595,12.53,-0.6243,-8.677,-14.48,33.64,-0.9452,2.658,-9.672,-4.002,19.3,5.321,19.53,-0.7619,11.0,0,0,0,0,0,0,0,0,0,0,0,0,0,0,0,0,
456,-2.773,-4.293,-4.697,-5.754,-16.95,-17.48,34.33,5.112,3.971,-13.02,-2.062,14.28,3.493,16.48,1.439,12.26,0,0,0,0,0,0,0,0,0,0,0,0,0,0,0,0,
457,6.242,2.562,-8.422,0.6877,-6.504,-1.23,13.84,33.16,6.565,0.7983,20.75,27.41,15.45,29.5,15.91,20.58,0,0,0,0,0,0,0,0,0,0,0,0,0,0,0,0,
458,12.47,4.654,-3.687,-2.953,-4.955,5.848,-35.38,13.08,12.24,16.68,25.49,15.08,8.23,21.83,7.875,6.192,0,0,0,0,0,0,0,0,0,0,0,0,0,0,0,0,
459,-0.7805,-4.673,-8.516,-12.57,-17.43,-3.327,-47.39,-16.02,-7.798,3.689,20.7,1.549,-2.974,10.87,3.475,-0.4627,0,0,0,0,0,0,0,0,0,0,0,0,0,0,0,0,
460,2.642,0.7788,11.5,-4.554,0.3348,1.698,43.26,-3.008,-5.444,6.105,22.38,12.93,7.123,17.5,13.35,8.132,0,0,0,0,0,0,0,0,0,0,0,0,0,0,0,0,
461,10.7,-0.2729,25.22,-8.593,13.72,-1.108,91.08,2.472,19.98,14.63,4.452,6.321,3.595,6.937,6.083,-0.2941,0,0,0,0,0,0,0,0,0,0,0,0,0,0,0,0,
462,8.068,-8.144,8.664,-12.35,3.98,-7.537,15.64,10.01,16.8,2.978,-2.524,-0.2677,-5.594,-4.205,3.501,-0.5489,0,0,0,0,0,0,0,0,0,0,0,0,0,0,0,0,
463,13.3,2.026,-4.048,3.38,-6.17,0.1497,-66.47,17.96,-3.211,0.6477,13.02,9.7,-10.14,-7.21,8.277,6.154,0,0,0,0,0,0,0,0,0,0,0,0,0,0,0,0,
464,9.935,6.252,-9.787,1.927,-22.73,-4.053,-61.31,-11.1,-29.74,-7.946,4.07,1.774,-28.38,-27.61,-5.994,-8.305,0,0,0,0,0,0,0,0,0,0,0,0,0,0,0,0,
465,0.9152,2.629,-6.511,-9.543,-25.9,-10.73,-2.724,-21.58,-47.77,-28.65,-18.2,-15.32,-37.28,-41.77,-21.76,-24.29,0,0,0,0,0,0,0,0,0,0,0,0,0,0,0,0,
466,7.415,10.0,4.439,-1.085,-10.1,0.7519,8.138,1.695,-33.25,-25.01,-25.69,-21.9,-31.12,-35.79,-27.12,-30.71,0,0,0,0,0,0,0,0,0,0,0,0,0,0,0,0,
467,17.92,20.23,4.376,18.72,-2.833,17.08,-21.83,15.33,-15.1,-4.316,-27.36,-21.41,-28.38,-27.19,-29.46,-33.23,0,0,0,0,0,0,0,0,0,0,0,0,0,0,0,0,
468,21.27,24.15,1.84,31.41,-2.36,25.81,-8.232,27.24,-9.855,10.77,-30.13,-19.38,-24.69,-22.05,-28.12,-31.19,0,0,0,0,0,0,0,0,0,0,0,0,0,0,0,0,
469,15.37,16.88,10.33,29.35,-2.337,25.07,28.48,21.36,-1.479,13.52,-28.14,-15.41,-15.88,-18.46,-19.66,-22.34,0,0,0,0,0,0,0,0,0,0,0,0,0,0,0,0,
470,8.682,8.152,22.58,21.25,-3.105,20.08,31.29,-11.86,10.28,7.365,-17.55,-6.999,-4.699,-12.27,-7.82,-9.359,0,0,0,0,0,0,0,0,0,0,0,0,0,0,0,0,
471,1.784,1.004,14.71,9.524,-12.2,3.458,-11.39,-23.61,9.807,-2.675,-8.609,-4.273,-2.14,-7.032,-3.553,-4.93,0,0,0,0,0,0,0,0,0,0,0,0,0,0,0,0,
472,-13.09,-13.02,-9.95,-1.903,-29.41,-19.43,-47.92,-12.28,-10.25,-14.77,0.9619,-0.1732,-4.1,3.318,2.273,1.953,0,0,0,0,0,0,0,0,0,0,0,0,0,0,0,0,
473,-18.27,-20.21,-14.72,-6.443,-29.12,-24.36,10.59,-14.06,-18.36,-14.5,7.023,8.635,3.499,19.14,10.68,14.61,0,0,0,0,0,0,0,0,0,0,0,0,0,0,0,0,
474,-13.01,-19.38,-6.131,-15.2,-16.49,-20.41,84.22,-12.09,1.511,-6.989,-3.247,5.3,8.777,23.29,6.514,13.47,0,0,0,0,0,0,0,0,0,0,0,0,0,0,0,0,
475,-10.63,-16.21,-5.618,-16.16,-13.66,-13.55,21.44,7.9,14.15,-2.303,3.843,7.087,9.314,26.42,4.918,12.51,0,0,0,0,0,0,0,0,0,0,0,0,0,0,0,0,
476,-5.309,-7.396,-6.202,-4.081,-17.61,-1.621,-73.3,4.897,2.679,6.962,27.52,16.34,9.185,30.36,10.59,15.71,0,0,0,0,0,0,0,0,0,0,0,0,0,0,0,0,
477,4.309,0.2196,0.1463,2.935,-15.17,6.034,-38.09,-11.0,-10.01,9.584,31.75,14.43,9.905,26.61,16.46,13.41,0,0,0,0,0,0,0,0,0,0,0,0,0,0,0,0,
478,24.4,17.69,23.2,20.74,4.748,26.07,41.68,8.107,3.04,15.04,48.05,18.34,28.05,34.8,35.71,22.87,0,0,0,0,0,0,0,0,0,0,0,0,0,0,0,0,
479,46.88,43.22,49.42,46.3,27.9,53.46,82.7,32.37,32.31,37.09,82.03,31.04,54.59,50.23,61.05,42.39,0,0,0,0,0,0,0,0,0,0,0,0,0,0,0,0,
480,56.51,57.23,61.44,55.87,44.19,64.07,133.2,38.68,55.68,53.49,85.93,40.56,65.74,56.24,70.72,53.58,0,0,0,0,0,0,0,0,0,0,0,0,0,0,0,0,
481,52.92,55.07,49.45,43.14,40.5,53.87,106.8,31.8,64.2,54.17,46.26,29.91,38.41,37.9,41.06,32.31,0,0,0,0,0,0,0,0,0,0,0,0,0,0,0,0,
482,16.5,20.35,-3.992,1.269,-7.296,15.52,-39.25,-5.269,22.45,25.0,-14.49,-7.156,-23.99,-9.6,-15.01,-15.28,0,0,0,0,0,0,0,0,0,0,0,0,0,0,0,0,
483,-18.61,-14.88,-39.1,-26.05,-37.97,-12.11,-93.58,-30.14,-38.89,-15.4,-43.15,-21.03,-50.03,-31.24,-34.1,-29.17,0,0,0,0,0,0,0,0,0,0,0,0,0,0,0,0,
484,-5.231,-8.979,-15.51,-16.3,-17.34,-3.715,-32.55,-16.89,-35.86,-15.99,-36.07,-11.37,-32.32,-20.0,-26.77,-17.75,0,0,0,0,0,0,0,0,0,0,0,0,0,0,0,0,
485,0.3033,-7.539,-6.973,-17.58,-15.41,-6.151,-17.42,-3.203,-14.35,-8.445,-38.78,-16.18,-31.25,-23.12,-34.9,-21.71,0,0,0,0,0,0,0,0,0,0,0,0,0,0,0,0,
486,-11.21,-16.01,-13.32,-19.48,-21.49,-14.1,-1.449,6.964,-20.7,-15.67,-34.48,-7.982,-27.77,-19.71,-30.5,-14.64,0,0,0,0,0,0,0,0,0,0,0,0,0,0,0,0,
487,-0.9648,-8.428,2.344,-12.0,-11.24,-11.88,25.11,-0.5934,-10.13,-10.16,-13.74,5.376,-10.88,-6.079,-15.01,-2.188,0,0,0,0,0,0,0,0,0,0,0,0,0,0,0,0,
488,-3.783,-13.0,4.672,-18.83,-21.33,-19.7,-3.035,-14.19,-0.5984,-11.68,0.82,-1.216,-4.217,-7.067,-7.699,-3.245,0,0,0,0,0,0,0,0,0,0,0,0,0,0,0,0,
489,-12.34,-16.76,2.059,-13.96,-25.55,-18.18,3.493,1.585,-5.236,-16.56,11.8,-4.324,4.128,-8.774,-0.9179,-4.411,0,0,0,0,0,0,0,0,0,0,0,0,0,0,0,0,
490,-3.985,-8.616,3.236,-6.848,-19.89,-12.26,24.99,0.617,-1.662,-11.43,7.601,-11.35,2.734,-13.43,-5.609,-13.63,0,0,0,0,0,0,0,0,0,0,0,0,0,0,0,0,
491,-4.427,-8.859,-6.973,-11.17,-27.4,-11.06,-7.675,-8.689,-7.659,-12.19,-0.76,-15.52,-2.033,-9.222,-5.561,-14.0,0,0,0,0,0,0,0,0,0,0,0,0,0,0,0,0,
492,1.101,2.062,0.807,2.538,-15.85,7.469,7.361,9.229,-4.831,3.203,5.027,1.746,14.35,14.49,10.9,4.594,0,0,0,0,0,0,0,0,0,0,0,0,0,0,0,0,
493,10.1,13.35,14.57,6.855,-1.882,15.42,46.57,-4.199,16.68,22.25,1.788,8.413,20.8,21.91,14.32,8.128,0,0,0,0,0,0,0,0,0,0,0,0,0,0,0,0,
494,0.0589,5.625,2.833,-2.979,-11.91,8.008,4.439,-22.97,15.96,15.22,-0.0685,3.989,12.16,18.8,11.4,2.79,0,0,0,0,0,0,0,0,0,0,0,0,0,0,0,0,
495,-2.891,5.801,-10.78,14.4,-15.65,18.64,-36.67,4.664,3.179,15.83,10.58,10.77,12.23,26.48,14.61,6.098,0,0,0,0,0,0,0,0,0,0,0,0,0,0,0,0,
496,1.787,11.03,-10.86,33.98,-13.0,27.44,-9.3,11.1,4.418,26.05,10.38,15.65,10.66,25.76,11.74,5.925,0,0,0,0,0,0,0,0,0,0,0,0,0,0,0,0,
497,-7.075,3.731,-8.799,28.0,-20.75,17.36,18.27,-10.93,6.333,17.7,0.3012,6.332,0.3596,11.56,3.208,-2.923,0,0,0,0,0,0,0,0,0,0,0,0,0,0,0,0,
498,-16.58,-5.067,-8.84,17.17,-27.99,7.565,5.184,1.277,-1.875,2.909,-10.07,-6.004,-9.854,0.3347,-5.063,-11.39,0,0,0,0,0,0,0,0,0,0,0,0,0,0,0,0,
499,-12.05,-0.1336,-2.382,16.24,-22.48,12.0,-17.38,25.45,-11.57,1.683,-14.26,-3.327,-12.82,2.45,-8.973,-9.58,0,0,0,0,0,0,0,0,0,0,0,0,0,0,0,0,
500,-3.438,12.41,2.437,18.25,-17.11,19.92,-17.35,13.25,-18.16,8.082,-19.78,1.114,-19.18,4.273,-15.72,-10.18,0,0,0,0,0,0,0,0,0,0,0,0,0,0,0,0,
501,-0.5401,14.38,-3.947,16.52,-20.95,15.76,-9.887,-1.927,-28.13,6.108,-32.62,-0.8421,-30.78,0.4341,-22.41,-14.16,0,0,0,0,0,0,0,0,0,0,0,0,0,0,0,0,
502,6.492,10.73,-4.432,10.28,-19.36,7.927,-27.56,9.723,-28.75,6.84,-30.07,3.853,-29.76,1.667,-19.33,-11.17,0,0,0,0,0,0,0,0,0,0,0,0,0,0,0,0,
503,1.578,-1.65,-11.36,-9.947,-26.21,-7.836,-38.06,0.1226,-22.51,4.744,-25.15,-5.967,-29.0,-9.095,-23.27,-18.79,0,0,0,0,0,0,0,0,0,0,0,0,0,0,0,0,
504,-18.11,-17.31,-16.1,-20.14,-32.54,-19.88,14.63,-15.29,-23.3,-13.05,-22.4,-15.07,-19.52,-14.26,-16.47,-14.98,0,0,0,0,0,0,0,0,0,0,0,0,0,0,0,0,
505,-4.633,-3.548,16.9,-4.204,-5.368,-1.209,58.09,5.105,-0.1513,-3.277,10.29,7.001,17.68,10.42,17.59,15.35,0,0,0,0,0,0,0,0,0,0,0,0,0,0,0,0,
506,14.61,2.826,28.64,-18.99,3.479,0.6086,12.34,-4.462,26.84,17.28,37.03,11.31,33.17,14.47,31.06,19.66,0,0,0,0,0,0,0,0,0,0,0,0,0,0,0,0,
507,-4.21,-23.56,1.592,-51.88,-18.78,-29.64,-24.97,-39.94,13.35,-4.674,31.16,-9.058,22.66,-4.403,23.61,5.456,0,0,0,0,0,0,0,0,0,0,0,0,0,0,0,0,
508,-10.27,-23.88,7.466,-41.24,-12.3,-33.5,-13.95,-34.94,6.791,-21.06,31.85,-11.27,29.48,-2.991,29.79,10.13,0,0,0,0,0,0,0,0,0,0,0,0,0,0,0,0,
509,4.384,-4.886,25.07,-24.38,2.46,-19.52,-10.51,-22.76,19.55,-10.0,38.81,-6.767,38.28,4.199,33.94,14.28,0,0,0,0,0,0,0,0,0,0,0,0,0,0,0,0,
510,7.843,-3.411,27.43,-21.0,9.374,-12.38,48.82,-12.35,22.95,-4.807,28.15,-5.959,39.36,8.971,26.11,11.67,0,0,0,0,0,0,0,0,0,0,0,0,0,0,0,0,
511,12.17,-2.436,31.74,-8.905,21.93,-5.648,105.9,6.573,35.87,1.887,7.271,-5.183,34.98,12.46,13.61,7.876,0,0,0,0,0,0,0,0,0,0,0,0,0,0,0,0,
512,11.25,-3.963,10.79,-9.77,10.84,-8.883,14.56,-2.805,34.92,4.405,2.995,-2.921,16.72,7.094,2.261,4.782,0,0,0,0,0,0,0,0,0,0,0,0,0,0,0,0,
513,-1.323,-11.33,-17.21,-17.73,-7.698,-13.59,-77.59,-15.68,1.788,-1.221,14.7,5.891,3.482,5.914,-2.164,8.083,0,0,0,0,0,0,0,0,0,0,0,0,0,0,0,0,
514,-12.02,-14.07,-14.17,-11.42,-4.775,-12.02,-37.7,-3.46,-16.71,-1.108,10.75,7.928,1.412,6.581,-4.215,6.775,0,0,0,0,0,0,0,0,0,0,0,0,0,0,0,0,
515,-18.11,-13.03,-4.886,-2.275,0.535,-9.759,19.14,5.245,-12.72,-3.628,2.303,5.766,2.265,4.065,-1.748,3.749,0,0,0,0,0,0,0,0,0,0,0,0,0,0,0,0,
516,-13.54,-3.587,1.802,3.413,8.674,-1.318,54.43,5.673,-6.771,-5.18,3.211,8.842,7.663,6.107,2.526,7.517,0,0,0,0,0,0,0,0,0,0,0,0,0,0,0,0,
517,-1.059,8.823,14.48,9.197,24.24,8.547,62.62,8.706,1.344,0.5348,0.4831,13.49,13.47,13.01,5.059,14.7,0,0,0,0,0,0,0,0,0,0,0,0,0,0,0,0,
518,8.429,15.84,17.8,17.71,29.66,15.75,-6.856,8.063,5.513,8.344,7.815,23.47,15.61,23.5,10.19,22.55,0,0,0,0,0,0,0,0,0,0,0,0,0,0,0,0,
519,11.96,21.03,10.49,22.64,24.92,21.45,-46.28,11.69,-2.924,17.11,13.33,27.15,11.06,29.77,9.276,22.82,0,0,0,0,0,0,0,0,0,0,0,0,0,0,0,0,
520,20.78,34.39,18.2,30.92,37.4,33.81,18.91,40.26,-4.957,28.7,2.847,26.7,14.05,37.93,11.41,26.95,0,0,0,0,0,0,0,0,0,0,0,0,0,0,0,0,
521,38.82,53.76,32.17,46.2,58.49,51.87,46.34,50.17,16.39,47.19,-2.371,30.9,24.66,45.32,17.11,33.07,0,0,0,0,0,0,0,0,0,0,0,0,0,0,0,0,
522,34.27,49.77,18.29,39.12,46.02,47.14,-9.96,3.38,22.62,49.63,-10.04,20.99,15.94,31.39,5.311,19.15,0,0,0,0,0,0,0,0,0,0,0,0,0,0,0,0,
523,20.56,38.49,11.81,29.28,31.58,38.56,-30.43,-17.15,4.696,35.71,-10.74,11.73,10.49,21.03,-1.445,8.124,0,0,0,0,0,0,0,0,0,0,0,0,0,0,0,0,
524,35.2,51.07,33.95,40.44,44.98,47.71,-2.642,3.964,8.87,37.91,4.648,10.31,19.7,18.7,2.669,4.572,0,0,0,0,0,0,0,0,0,0,0,0,0,0,0,0,
525,41.37,51.06,35.18,30.89,45.33,35.8,25.23,-4.946,18.11,30.39,3.763,-2.783,12.14,-1.847,-3.488,-7.249,0,0,0,0,0,0,0,0,0,0,0,0,0,0,0,0,
526,31.61,36.39,26.27,9.508,42.18,13.49,47.36,-4.29,13.27,7.0,1.602,-7.011,4.989,-14.11,-2.771,-6.245,0,0,0,0,0,0,0,0,0,0,0,0,0,0,0,0,
527,27.56,30.22,21.12,0.2783,37.98,1.382,18.45,7.667,12.53,-1.706,7.787,-10.47,0.5974,-20.91,-3.335,-9.543,0,0,0,0,0,0,0,0,0,0,0,0,0,0,0,0,
528,5.94,12.72,-5.097,-16.98,3.607,-20.76,-44.12,-23.09,-9.037,-20.7,-0.8112,-33.31,-19.33,-44.36,-17.87,-32.5,0,0,0,0,0,0,0,0,0,0,0,0,0,0,0,0,
529,-9.692,0.9948,-14.28,-25.4,-12.71,-29.54,-46.83,-41.72,-38.98,-41.41,-5.116,-42.91,-25.77,-52.66,-20.45,-39.06,0,0,0,0,0,0,0,0,0,0,0,0,0,0,0,0,
530,-0.4191,6.602,4.915,-19.27,4.785,-18.28,-5.67,-32.86,-34.16,-34.01,-5.091,-35.12,-17.92,-43.0,-16.4,-29.95,0,0,0,0,0,0,0,0,0,0,0,0,0,0,0,0,
531,-1.719,5.136,9.324,-16.49,12.16,-13.18,8.039,-29.6,-14.83,-23.53,-12.08,-27.59,-13.69,-32.11,-15.36,-21.18,0,0,0,0,0,0,0,0,0,0,0,0,0,0,0,0,
532,-9.029,4.115,-5.543,-11.87,9.468,-11.96,-10.02,-14.56,-3.974,-14.25,-4.786,-16.88,-3.893,-14.19,-3.092,-6.606,0,0,0,0,0,0,0,0,0,0,0,0,0,0,0,0,
533,-12.37,3.067,-23.51,-14.24,5.3,-16.7,-12.6,-2.441,-1.424,-3.237,10.19,-3.722,9.343,5.339,15.05,11.53,0,0,0,0,0,0,0,0,0,0,0,0,0,0,0,0,
534,-15.66,-1.888,-22.9,-21.03,6.631,-19.98,14.49,0.5485,1.213,1.109,9.958,7.816,16.96,19.53,19.81,21.63,0,0,0,0,0,0,0,0,0,0,0,0,0,0,0,0,
535,-15.36,-2.939,-13.33,-24.45,10.03,-17.28,9.898,1.804,5.248,4.563,-8.209,11.26,9.119,21.55,6.068,16.35,0,0,0,0,0,0,0,0,0,0,0,0,0,0,0,0,
536,-20.48,-8.963,-19.04,-30.76,5.093,-21.91,-16.49,-16.08,-5.09,0.1154,-26.05,14.13,-3.572,20.35,-2.863,15.17,0,0,0,0,0,0,0,0,0,0,0,0,0,0,0,0,
537,-19.24,-9.805,-19.65,-24.24,11.99,-18.91,-14.89,-20.93,-10.63,-1.78,-29.17,18.62,-2.514,28.06,0.3676,22.37,0,0,0,0,0,0,0,0,0,0,0,0,0,0,0,0,
538,-7.886,0.2685,-15.09,-8.552,23.13,-5.31,-27.7,-0.6461,-3.602,9.583,-27.61,13.83,-1.47,29.85,-0.5939,19.0,0,0,0,0,0,0,0,0,0,0,0,0,0,0,0,0,
539,-0.1949,10.35,-4.845,5.894,28.86,9.972,-29.36,8.449,-2.969,20.09,-14.39,17.9,4.654,31.61,3.457,19.86,0,0,0,0,0,0,0,0,0,0,0,0,0,0,0,0,
540,13.4,22.75,22.33,26.63,43.63,28.84,17.17,14.09,8.754,31.5,4.443,21.11,16.63,32.33,4.817,18.99,0,0,0,0,0,0,0,0,0,0,0,0,0,0,0,0,
541,22.31,27.15,22.08,32.49,42.72,31.46,19.15,18.2,19.19,32.43,1.018,2.638,6.435,13.7,-11.05,0.1252,0,0,0,0,0,0,0,0,0,0,0,0,0,0,0,0,
542,17.08,24.57,-4.557,19.53,24.58,20.3,-35.3,3.482,5.098,17.39,-5.432,-4.96,-9.049,-0.3634,-20.4,-8.57,0,0,0,0,0,0,0,0,0,0,0,0,0,0,0,0,
543,11.86,24.12,-9.389,11.95,18.38,15.27,-48.24,-6.816,-6.115,9.098,-2.197,-1.339,-8.822,-0.5782,-16.76,-5.854,0,0,0,0,0,0,0,0,0,0,0,0,0,0,0,0,
544,8.207,20.98,7.084,14.93,26.09,15.59,25.99,1.952,-0.0306,6.872,-3.243,-4.705,0.7236,-1.194,-7.321,-5.079,0,0,0,0,0,0,0,0,0,0,0,0,0,0,0,0,
545,12.96,26.51,25.63,21.46,39.71,19.0,95.37,-0.9373,21.41,4.624,-5.242,-9.282,6.987,-6.136,-4.277,-7.463,0,0,0,0,0,0,0,0,0,0,0,0,0,0,0,0,
546,15.52,31.02,13.78,14.69,30.63,10.85,19.38,-17.58,26.91,-6.183,-9.083,-22.99,-12.0,-24.66,-19.57,-19.9,0,0,0,0,0,0,0,0,0,0,0,0,0,0,0,0,
547,7.857,23.86,-11.37,2.7,9.262,-0.4246,-82.79,-14.11,-5.867,-22.39,-6.17,-25.6,-28.22,-32.98,-22.1,-19.68,0,0,0,0,0,0,0,0,0,0,0,0,0,0,0,0,
548,12.48,23.24,3.991,-0.9803,17.12,3.798,-33.52,-15.24,-15.09,-17.64,-0.6197,-13.27,-17.06,-23.43,-12.8,-9.589,0,0,0,0,0,0,0,0,0,0,0,0,0,0,0,0,
549,12.93,17.28,19.33,-12.03,22.75,-0.0299,33.19,-37.53,7.37,-13.58,-8.07,-18.32,-13.14,-27.4,-18.6,-14.92,0,0,0,0,0,0,0,0,0,0,0,0,0,0,0,0,
550,0.9585,8.1,6.604,-14.16,9.211,-7.228,17.46,-31.93,5.635,-23.15,-3.623,-23.57,-12.96,-31.02,-16.28,-15.84,0,0,0,0,0,0,0,0,0,0,0,0,0,0,0,0,
551,0.7688,11.31,1.248,-4.533,2.262,-4.53,0.7455,-16.93,-5.76,-21.14,9.161,-22.62,-5.314,-28.2,-8.836,-14.22,0,0,0,0,0,0,0,0,0,0,0,0,0,0,0,0,
552,1.073,7.933,-1.746,-11.49,-2.003,-8.446,-7.76,-19.39,-9.536,-22.48,9.098,-24.7,-4.453,-29.26,-11.2,-17.85,0,0,0,0,0,0,0,0,0,0,0,0,0,0,0,0,
553,3.815,10.38,4.013,-8.824,6.053,-1.824,3.006,1.433,-8.025,-20.02,13.48,-10.48,1.853,-13.8,-5.775,-9.849,0,0,0,0,0,0,0,0,0,0,0,0,0,0,0,0,
554,15.78,26.24,20.47,11.8,21.41,15.51,37.97,20.79,6.499,3.873,15.65,1.105,6.973,1.893,-2.977,-7.416,0,0,0,0,0,0,0,0,0,0,0,0,0,0,0,0,
555,14.75,23.87,10.43,11.93,16.0,13.28,26.5,1.878,10.64,12.96,10.35,-3.626,-1.74,-2.093,-8.248,-14.42,0,0,0,0,0,0,0,0,0,0,0,0,0,0,0,0,
556,3.701,7.375,-14.91,-5.271,0.6422,-1.409,-23.17,-18.16,-3.981,1.229,7.735,-3.689,-11.58,-6.396,-10.56,-13.9,0,0,0,0,0,0,0,0,0,0,0,0,0,0,0,0,
557,-6.116,-3.318,-17.73,-12.67,-8.129,-9.958,-25.77,-10.82,-17.12,-5.33,-3.236,-0.6809,-18.37,-4.91,-13.13,-10.48,0,0,0,0,0,0,0,0,0,0,0,0,0,0,0,0,
558,-7.282,-0.2729,3.844,-3.502,-1.543,-4.282,38.84,11.56,-17.17,-1.074,-15.48,1.161,-15.56,-0.0576,-10.3,-4.727,0,0,0,0,0,0,0,0,0,0,0,0,0,0,0,0,
559,5.325,14.45,16.08,5.796,13.39,7.45,60.53,13.48,-2.353,6.08,-17.76,0.0088,-7.179,3.72,-3.814,0.5647,0,0,0,0,0,0,0,0,0,0,0,0,0,0,0,0,
560,16.19,25.3,0.9906,9.003,12.99,14.82,-28.02,1.151,5.819,9.476,-6.453,-1.44,-4.144,6.23,2.16,6.254,0,0,0,0,0,0,0,0,0,0,0,0,0,0,0,0,
561,16.98,24.46,-8.161,10.7,2.864,17.91,-66.41,2.132,-6.232,17.0,3.815,0.3777,-5.548,8.377,2.886,10.05,0,0,0,0,0,0,0,0,0,0,0,0,0,0,0,0,
562,4.544,7.098,-0.7453,-0.7429,-3.262,5.247,22.31,-1.233,-19.08,16.12,-17.96,-2.187,-12.51,4.48,-8.152,3.962,0,0,0,0,0,0,0,0,0,0,0,0,0,0,0,0,
563,-5.905,-5.019,4.528,-3.411,1.137,-4.047,44.52,11.3,-10.47,6.227,-27.42,5.312,-8.596,11.84,-5.45,9.616,0,0,0,0,0,0,0,0,0,0,0,0,0,0,0,0,
564,0.5977,3.14,-3.478,9.114,2.099,1.569,-56.35,32.66,4.736,11.76,1.018,15.06,-1.721,19.35,4.929,19.67,0,0,0,0,0,0,0,0,0,0,0,0,0,0,0,0,
565,-6.914,-5.051,-27.57,-4.491,-17.98,-11.7,-89.63,-0.0842,-9.87,3.672,4.14,8.241,-13.17,6.104,-3.736,14.31,0,0,0,0,0,0,0,0,0,0,0,0,0,0,0,0,
566,-14.59,-13.95,-20.93,-15.45,-11.94,-17.14,0.7021,-27.55,-17.81,-12.8,-6.581,12.68,-5.383,10.08,-3.625,18.68,0,0,0,0,0,0,0,0,0,0,0,0,0,0,0,0,
567,6.057,4.351,19.59,-2.625,22.94,2.81,55.38,-8.392,17.41,4.723,0.8704,14.36,17.33,20.83,2.787,18.02,0,0,0,0,0,0,0,0,0,0,0,0,0,0,0,0,
568,8.236,6.256,17.72,-8.121,18.76,1.142,9.245,-10.61,30.6,12.38,-1.346,-7.295,12.53,4.169,-4.73,-1.982,0,0,0,0,0,0,0,0,0,0,0,0,0,0,0,0,
569,-4.458,-1.766,-7.923,-8.188,1.928,-1.675,-18.66,-10.9,11.4,2.309,0.9343,-9.098,10.23,2.366,1.337,-2.317,0,0,0,0,0,0,0,0,0,0,0,0,0,0,0,0,
570,7.208,9.584,1.106,12.33,13.57,15.11,19.78,12.76,14.96,17.65,10.81,6.81,23.0,19.83,13.06,8.122,0,0,0,0,0,0,0,0,0,0,0,0,0,0,0,0,
571,15.12,14.41,12.06,12.18,20.38,15.14,40.93,8.145,25.91,27.43,5.681,12.71,25.84,21.88,9.935,7.155,0,0,0,0,0,0,0,0,0,0,0,0,0,0,0,0,
572,10.83,12.06,5.21,2.911,19.35,9.188,29.35,-3.816,27.89,20.41,11.34,19.57,28.83,23.15,13.41,11.29,0,0,0,0,0,0,0,0,0,0,0,0,0,0,0,0,
573,11.09,11.55,7.797,6.594,22.19,13.13,29.68,8.176,31.71,23.78,27.49,23.84,33.39,29.34,20.97,15.66,0,0,0,0,0,0,0,0,0,0,0,0,0,0,0,0,
574,4.006,3.392,14.75,7.423,14.77,5.816,25.33,18.99,27.17,22.58,15.45,15.19,23.97,21.03,8.789,4.958,0,0,0,0,0,0,0,0,0,0,0,0,0,0,0,0,
575,-10.55,-5.267,1.905,-2.654,-1.083,-10.58,9.963,17.17,15.28,5.25,-13.17,1.111,4.43,0.79,-11.97,-10.56,0,0,0,0,0,0,0,0,0,0,0,0,0,0,0,0,
576,-15.08,-6.024,-16.83,-8.183,-7.879,-10.95,2.079,7.67,4.984,-9.305,-11.5,-3.609,-5.911,-8.994,-12.13,-10.61,0,0,0,0,0,0,0,0,0,0,0,0,0,0,0,0,
577,-7.158,2.139,-17.65,1.208,-4.011,5.364,-31.37,-5.923,-4.13,-6.156,14.81,1.297,-3.737,-5.641,-0.5088,-2.475,0,0,0,0,0,0,0,0,0,0,0,0,0,0,0,0,
578,-0.1709,12.27,-10.48,8.838,-3.109,13.03,-62.53,-12.77,-12.91,0.9326,18.82,-1.403,-8.339,-6.946,-3.896,-6.781,0,0,0,0,0,0,0,0,0,0,0,0,0,0,0,0,
579,4.742,17.46,-3.055,11.26,-3.208,10.99,-24.93,-7.094,-17.23,-1.429,-1.961,-11.28,-22.72,-13.31,-18.78,-18.27,0,0,0,0,0,0,0,0,0,0,0,0,0,0,0,0,
580,4.261,12.86,-5.074,10.31,-8.493,5.737,3.762,-4.601,-23.36,-7.235,-28.4,-22.11,-42.35,-22.57,-35.77,-30.16,0,0,0,0,0,0,0,0,0,0,0,0,0,0,0,0,
581,-7.654,-0.5083,-16.81,-2.61,-21.35,-6.391,-23.99,-2.944,-43.41,-17.25,-43.28,-20.44,-53.81,-22.73,-38.08,-27.98,0,0,0,0,0,0,0,0,0,0,0,0,0,0,0,0,
582,-5.395,0.7486,-7.827,-5.236,-17.14,-8.122,-22.96,6.833,-50.34,-18.01,-29.15,0.7817,-39.66,-3.512,-19.93,-7.122,0,0,0,0,0,0,0,0,0,0,0,0,0,0,0,0,
583,1.309,5.631,-0.9153,2.429,-12.95,-7.316,9.007,-7.738,-36.49,-10.73,-19.8,5.439,-27.07,0.2118,-13.89,-2.057,0,0,0,0,0,0,0,0,0,0,0,0,0,0,0,0,
584,-10.32,-3.167,-9.554,1.058,-17.34,-12.17,22.47,-22.22,-29.62,-17.17,-22.27,-1.998,-18.9,-5.382,-11.15,-2.851,0,0,0,0,0,0,0,0,0,0,0,0,0,0,0,0,
585,-1.603,8.147,8.06,5.748,1.227,1.202,2.881,8.633,-10.7,-9.656,-0.2414,4.209,5.577,9.241,4.554,6.722,0,0,0,0,0,0,0,0,0,0,0,0,0,0,0,0,
586,12.11,17.5,14.61,2.11,5.352,5.376,-30.7,15.9,8.777,7.412,11.28,-6.223,10.58,6.296,-0.2354,-6.983,0,0,0,0,0,0,0,0,0,0,0,0,0,0,0,0,
587,-5.319,-5.453,-5.693,-13.68,-13.36,-9.886,-3.508,-18.4,-1.492,-3.412,-2.998,-22.19,0.31,-10.44,-12.21,-23.73,0,0,0,0,0,0,0,0,0,0,0,0,0,0,0,0,
588,-9.406,-8.835,2.685,-4.247,-3.072,-1.309,45.16,-15.07,2.607,-5.948,-0.5673,-16.38,11.39,-3.529,-5.052,-15.44,0,0,0,0,0,0,0,0,0,0,0,0,0,0,0,0,
589,5.617,11.03,12.96,15.63,12.35,17.59,31.32,13.35,21.98,13.34,12.33,-8.222,25.79,9.134,5.794,-3.732,0,0,0,0,0,0,0,0,0,0,0,0,0,0,0,0,
590,18.02,21.02,11.96,24.32,20.85,28.17,22.37,16.23,30.47,24.12,23.5,6.838,39.36,21.64,19.29,9.713,0,0,0,0,0,0,0,0,0,0,0,0,0,0,0,0,
591,34.31,28.51,28.66,29.53,40.0,38.3,36.38,5.98,49.33,28.35,28.98,18.93,48.75,27.88,22.92,14.26,0,0,0,0,0,0,0,0,0,0,0,0,0,0,0,0,
592,35.16,31.56,34.78,26.85,44.85,38.44,41.3,6.112,59.82,23.1,14.95,7.088,38.47,12.22,8.218,-0.6803,0,0,0,0,0,0,0,0,0,0,0,0,0,0,0,0,
593,28.57,33.9,32.03,21.9,43.66,37.15,50.53,6.331,54.01,15.93,-0.8677,-7.604,25.13,-6.939,-5.492,-17.28,0,0,0,0,0,0,0,0,0,0,0,0,0,0,0,0,
594,30.82,34.91,31.74,15.37,39.37,31.76,6.751,-9.127,47.22,13.38,-6.375,-20.23,5.01,-24.31,-20.71,-32.13,0,0,0,0,0,0,0,0,0,0,0,0,0,0,0,0,
595,18.82,18.55,11.46,2.717,10.68,9.101,-50.33,-10.92,15.57,-4.208,-6.458,-26.54,-21.99,-37.15,-28.97,-33.01,0,0,0,0,0,0,0,0,0,0,0,0,0,0,0,0,
596,0.0519,-0.0716,-9.281,-7.113,-16.52,-13.31,-22.32,0.4444,-21.08,-24.98,-3.138,-16.51,-32.58,-36.19,-19.16,-18.78,0,0,0,0,0,0,0,0,0,0,0,0,0,0,0,0,
597,-12.91,-13.7,-15.51,-17.49,-31.02,-31.49,8.386,-12.31,-34.04,-39.88,-4.773,-11.27,-38.14,-36.33,-14.53,-15.84,0,0,0,0,0,0,0,0,0,0,0,0,0,0,0,0,
598,-28.68,-31.75,-22.46,-30.67,-46.26,-48.93,1.16,-23.4,-45.13,-57.93,-8.476,-14.55,-45.5,-38.09,-17.91,-17.75,0,0,0,0,0,0,0,0,0,0,0,0,0,0,0,0,
599,-41.86,-47.56,-29.11,-45.32,-56.1,-59.24,7.389,-25.85,-53.0,-66.27,-11.47,-12.27,-42.25,-32.18,-13.99,-10.97,0,0,0,0,0,0,0,0,0,0,0,0,0,0,0,0,
600,-46.16,-52.6,-27.04,-54.44,-56.44,-59.93,8.365,-39.02,-48.13,-59.91,-13.67,-2.633,-30.36,-20.22,-3.603,-0.5549,0,0,0,0,0,0,0,0,0,0,0,0,0,0,0,0,
601,-35.5,-39.64,-16.26,-40.89,-48.18,-44.9,6.042,-30.42,-39.06,-42.62,-9.871,5.46,-17.16,-6.448,4.733,8.483,0,0,0,0,0,0,0,0,0,0,0,0,0,0,0,0,
602,-15.94,-16.47,-8.187,-15.21,-37.68,-21.18,-1.451,-7.728,-31.15,-21.62,-1.339,4.395,-7.23,2.17,9.113,13.03,0,0,0,0,0,0,0,0,0,0,0,0,0,0,0,0,
603,-5.015,-0.1425,-3.593,2.461,-28.28,-2.683,-29.77,1.219,-25.2,-5.519,10.71,3.288,1.707,6.629,11.95,13.72,0,0,0,0,0,0,0,0,0,0,0,0,0,0,0,0,
604,-7.815,-0.7612,-7.784,-0.1065,-25.96,-1.138,-33.55,8.634,-19.09,4.359,8.082,-4.786,1.162,-2.365,2.951,0.7032,0,0,0,0,0,0,0,0,0,0,0,0,0,0,0,0,
605,-17.5,-14.36,-23.24,-15.81,-31.97,-12.47,0.1449,5.375,-16.64,-0.9743,-7.384,-16.74,-5.059,-18.91,-7.06,-15.6,0,0,0,0,0,0,0,0,0,0,0,0,0,0,0,0,
606,-12.24,-10.84,-10.58,-8.546,-20.46,-7.261,40.87,-10.38,-4.229,-6.995,-6.636,-10.32,3.504,-18.01,-3.805,-16.34,0,0,0,0,0,0,0,0,0,0,0,0,0,0,0,0,
607,1.678,4.803,15.73,5.157,-5.426,1.386,44.09,-17.41,19.25,-4.326,-8.777,-10.37,2.739,-20.64,-11.63,-22.72,0,0,0,0,0,0,0,0,0,0,0,0,0,0,0,0,
608,-0.1839,2.647,4.534,-6.491,-15.02,-8.514,-23.5,-11.01,15.44,-15.87,-11.68,-20.38,-12.84,-31.18,-20.25,-28.9,0,0,0,0,0,0,0,0,0,0,0,0,0,0,0,0,
609,-2.648,-1.609,-13.24,-14.25,-23.52,-13.14,-72.19,-8.165,-6.749,-27.31,5.098,-14.52,-12.75,-26.68,-12.86,-19.48,0,0,0,0,0,0,0,0,0,0,0,0,0,0,0,0,
610,-3.763,-2.341,-10.87,-10.87,-21.98,-12.73,-18.74,-24.17,-12.62,-27.46,0.3467,-12.03,-10.01,-25.12,-14.6,-15.97,0,0,0,0,0,0,0,0,0,0,0,0,0,0,0,0,
611,-3.858,0.3996,-0.2766,-4.199,-11.8,-4.142,35.15,-20.99,-3.661,-24.2,-11.21,-11.17,-6.215,-21.03,-14.55,-11.69,0,0,0,0,0,0,0,0,0,0,0,0,0,0,0,0,
612,14.06,19.07,11.87,8.616,6.93,20.96,13.1,13.27,12.39,-3.078,0.9459,-5.847,2.114,-8.756,-8.398,-8.466,0,0,0,0,0,0,0,0,0,0,0,0,0,0,0,0,
613,24.91,29.25,15.02,10.35,13.64,30.0,18.84,19.34,21.97,13.2,-4.843,-8.105,-2.29,-10.2,-11.03,-13.99,0,0,0,0,0,0,0,0,0,0,0,0,0,0,0,0,
614,23.89,29.53,25.35,12.0,20.82,28.39,57.35,-2.328,30.72,10.19,-7.01,1.384,0.3974,-7.197,1.146,-1.701,0,0,0,0,0,0,0,0,0,0,0,0,0,0,0,0,
615,25.32,31.37,27.95,18.13,18.18,28.96,1.463,-11.63,33.39,9.758,19.48,6.771,3.106,-3.49,13.93,8.033,0,0,0,0,0,0,0,0,0,0,0,0,0,0,0,0,
616,13.34,19.45,1.015,12.67,-10.1,14.69,-52.18,-7.337,-0.4595,0.6937,22.15,-8.351,-12.56,-16.25,2.375,-2.504,0,0,0,0,0,0,0,0,0,0,0,0,0,0,0,0,
617,4.038,9.39,-3.697,8.806,-17.51,0.9961,1.213,-4.968,-23.97,-12.05,1.402,-14.46,-16.34,-23.55,-5.881,-4.914,0,0,0,0,0,0,0,0,0,0,0,0,0,0,0,0,
618,-0.5216,0.3628,3.965,-0.9574,-18.25,-10.37,-2.168,-15.86,-13.09,-18.14,-1.71,-14.7,-10.8,-25.65,-0.6296,-0.7914,0,0,0,0,0,0,0,0,0,0,0,0,0,0,0,0,
619,-14.38,-13.75,-8.829,-10.94,-34.14,-18.11,-35.82,-2.893,-19.86,-24.0,10.63,-7.49,-3.334,-16.74,8.689,8.521,0,0,0,0,0,0,0,0,0,0,0,0,0,0,0,0,
620,-10.43,-3.888,0.1854,1.133,-22.84,-5.247,49.46,33.97,-16.95,-8.893,7.974,9.767,12.19,4.31,11.63,16.92,0,0,0,0,0,0,0,0,0,0,0,0,0,0,0,0,
621,-5.732,2.347,4.233,-2.072,-16.7,-4.286,73.47,15.72,7.69,7.28,-9.041,7.59,8.418,2.302,3.475,4.985,0,0,0,0,0,0,0,0,0,0,0,0,0,0,0,0,
622,-23.83,-20.25,-30.87,-22.02,-44.97,-21.47,-46.82,-26.75,-5.742,-4.071,-5.456,-4.195,-8.111,-10.95,-2.571,-7.687,0,0,0,0,0,0,0,0,0,0,0,0,0,0,0,0,
623,-34.92,-34.29,-49.31,-17.89,-59.72,-24.81,-102.8,-11.29,-36.92,-13.08,1.303,-8.594,-15.0,-12.31,-11.2,-11.4,0,0,0,0,0,0,0,0,0,0,0,0,0,0,0,0,
624,-33.38,-30.65,-33.6,-5.636,-49.26,-18.37,-44.78,10.37,-39.49,-10.65,-12.4,-6.348,-15.56,-10.77,-17.01,-10.08,0,0,0,0,0,0,0,0,0,0,0,0,0,0,0,0,
625,-23.55,-20.31,-11.2,-5.882,-27.88,-9.312,35.59,-11.0,-18.17,-5.897,-20.19,3.05,-6.224,-6.607,-8.43,-0.6128,0,0,0,0,0,0,0,0,0,0,0,0,0,0,0,0,
626,-11.31,-12.59,-1.423,-12.55,-14.19,-7.54,59.18,-17.43,6.629,-4.063,-22.35,1.401,-2.213,-6.686,-6.654,2.085,0,0,0,0,0,0,0,0,0,0,0,0,0,0,0,0,
627,-12.16,-14.02,-11.83,-15.0,-23.98,-16.58,-29.38,9.537,6.713,-12.12,-20.11,-1.881,-13.84,-8.969,-8.311,2.63,0,0,0,0,0,0,0,0,0,0,0,0,0,0,0,0,
628,-15.89,-14.1,-25.47,-14.11,-38.39,-20.61,-112.4,3.03,-18.33,-15.49,-11.32,3.41,-26.85,-9.215,-6.333,3.131,0,0,0,0,0,0,0,0,0,0,0,0,0,0,0,0,
629,-18.54,-17.51,-25.38,-20.94,-40.93,-23.53,-57.44,-30.92,-38.52,-16.33,-18.93,-1.617,-35.0,-14.65,-13.93,-7.861,0,0,0,0,0,0,0,0,0,0,0,0,0,0,0,0,
630,-17.78,-20.76,-8.43,-17.56,-27.56,-20.87,23.04,-23.91,-32.13,-17.51,-24.27,-3.547,-27.14,-10.23,-12.64,-9.936,0,0,0,0,0,0,0,0,0,0,0,0,0,0,0,0,
631,-6.876,-11.59,5.774,1.371,-9.897,-5.287,16.37,2.753,-6.68,-4.898,-10.98,2.228,-7.514,1.994,2.912,-0.4598,0,0,0,0,0,0,0,0,0,0,0,0,0,0,0,0,
632,1.318,-1.676,5.482,13.9,-3.62,9.452,5.641,18.11,11.61,11.36,-0.8503,3.638,6.16,7.189,10.56,3.258,0,0,0,0,0,0,0,0,0,0,0,0,0,0,0,0,
633,5.346,2.478,9.134,15.07,-1.133,16.42,14.69,26.33,18.18,22.53,7.254,10.45,14.06,12.7,12.89,7.56,0,0,0,0,0,0,0,0,0,0,0,0,0,0,0,0,
634,6.481,0.241,14.26,6.26,1.04,16.07,-12.1,14.17,19.18,25.5,32.83,24.72,28.13,24.45,34.83,29.05,0,0,0,0,0,0,0,0,0,0,0,0,0,0,0,0,
635,12.38,4.865,24.2,11.69,14.74,27.26,1.047,25.55,31.01,33.55,78.55,46.68,61.55,48.32,74.99,65.79,0,0,0,0,0,0,0,0,0,0,0,0,0,0,0,0,
636,24.45,15.18,35.89,28.0,29.76,39.48,70.33,51.79,59.11,57.19,86.2,55.46,75.82,56.63,75.93,70.06,0,0,0,0,0,0,0,0,0,0,0,0,0,0,0,0,
637,5.912,-5.373,12.3,9.009,6.376,13.12,65.03,12.76,54.43,45.12,28.3,34.69,40.91,27.17,33.16,35.43,0,0,0,0,0,0,0,0,0,0,0,0,0,0,0,0,
638,-27.33,-32.51,-21.09,-17.65,-24.58,-16.75,-0.1765,-23.2,18.96,1.79,-8.268,15.76,13.77,4.474,12.62,16.55,0,0,0,0,0,0,0,0,0,0,0,0,0,0,0,0,
639,-37.63,-37.51,-32.28,-24.22,-35.36,-24.16,-24.43,-0.9585,1.66,-13.21,-4.25,0.0909,6.844,-3.349,6.642,6.51,0,0,0,0,0,0,0,0,0,0,0,0,0,0,0,0,
640,-44.96,-50.15,-38.2,-37.57,-46.02,-34.58,-27.6,-1.635,-11.26,-20.08,-9.583,-10.81,-5.026,-10.14,-4.454,-4.058,0,0,0,0,0,0,0,0,0,0,0,0,0,0,0,0,
641,-39.12,-50.83,-25.53,-38.28,-35.6,-27.22,-34.39,-21.01,-14.88,-23.82,-3.215,6.328,2.555,4.67,5.01,8.026,0,0,0,0,0,0,0,0,0,0,0,0,0,0,0,0,
642,-16.78,-30.24,-9.195,-23.46,-13.85,-6.585,-10.73,-14.09,5.389,-3.863,9.326,18.82,16.1,19.61,16.15,16.21,0,0,0,0,0,0,0,0,0,0,0,0,0,0,0,0,
643,-9.579,-22.57,-13.26,-16.28,-8.917,-0.456,28.63,-1.268,18.18,11.6,2.738,15.78,14.32,21.12,14.05,11.86,0,0,0,0,0,0,0,0,0,0,0,0,0,0,0,0,
644,-2.608,-12.81,-9.558,-0.9936,-1.185,9.288,15.96,8.801,26.05,20.49,1.311,18.87,11.79,26.9,10.87,11.41,0,0,0,0,0,0,0,0,0,0,0,0,0,0,0,0,
645,4.812,-0.6415,-2.045,13.75,-0.0652,16.97,-20.91,20.65,27.38,26.8,5.625,15.5,3.183,25.78,5.303,7.764,0,0,0,0,0,0,0,0,0,0,0,0,0,0,0,0,
646,-3.221,-7.797,-0.8504,9.906,-12.79,10.06,-1.365,29.4,9.089,21.15,1.953,8.53,-6.513,16.71,2.695,4.015,0,0,0,0,0,0,0,0,0,0,0,0,0,0,0,0,
647,-12.52,-21.5,-4.005,-2.589,-22.87,-1.913,8.385,23.74,-3.615,13.13,-6.77,3.668,-10.48,4.826,-1.089,-1.89,0,0,0,0,0,0,0,0,0,0,0,0,0,0,0,0,
648,-16.53,-26.02,-17.62,-7.244,-27.18,-8.404,-33.09,10.58,-5.996,4.419,-1.666,4.795,-6.934,-0.1398,-0.199,-0.9565,0,0,0,0,0,0,0,0,0,0,0,0,0,0,0,0,
649,-6.6,-13.86,-12.63,3.478,-15.64,3.403,-28.3,2.528,0.1098,8.982,22.83,17.0,10.49,12.2,11.33,11.66,0,0,0,0,0,0,0,0,0,0,0,0,0,0,0,0,
650,1.153,-7.227,1.865,4.15,-10.14,7.784,11.58,-12.38,9.695,18.17,21.94,11.19,13.93,11.08,6.39,4.981,0,0,0,0,0,0,0,0,0,0,0,0,0,0,0,0,
651,-8.614,-14.36,-0.8042,0.5476,-17.16,0.4978,32.99,-5.864,7.248,7.945,3.712,1.43,9.392,3.929,1.469,-0.9801,0,0,0,0,0,0,0,0,0,0,0,0,0,0,0,0,
652,0.5311,-3.001,8.059,16.11,-3.447,14.21,50.8,26.1,16.35,12.6,15.34,14.93,23.53,17.77,16.39,15.15,0,0,0,0,0,0,0,0,0,0,0,0,0,0,0,0,
653,12.36,3.278,12.99,11.05,-0.9055,15.2,30.06,17.52,25.15,25.07,20.49,13.44,18.87,14.06,12.03,10.37,0,0,0,0,0,0,0,0,0,0,0,0,0,0,0,0,
654,-7.502,-17.92,-6.752,-12.72,-24.73,-11.12,-3.64,-9.361,3.138,3.287,-5.722,-7.89,-9.73,-14.74,-11.5,-14.0,0,0,0,0,0,0,0,0,0,0,0,0,0,0,0,0,
655,-20.4,-27.05,-11.77,-8.187,-29.28,-17.42,14.63,-1.337,-11.25,-21.22,-20.09,-18.11,-20.31,-30.06,-18.1,-20.94,0,0,0,0,0,0,0,0,0,0,0,0,0,0,0,0,
656,-12.86,-19.26,-0.7889,4.264,-23.23,-8.719,18.43,10.77,-8.092,-25.79,-3.917,-14.53,-10.98,-25.03,-4.152,-7.919,0,0,0,0,0,0,0,0,0,0,0,0,0,0,0,0,
657,-9.723,-17.52,-2.832,-5.199,-30.6,-15.8,-19.1,3.892,-13.94,-27.65,14.58,-3.377,0.9416,-13.45,11.0,7.559,0,0,0,0,0,0,0,0,0,0,0,0,0,0,0,0,T2
658,-15.2,-26.12,-14.84,-23.24,-38.31,-32.36,-17.61,-13.03,-17.1,-31.74,8.832,3.664,6.544,-6.397,12.08,11.42,0,0,0,0,0,0,0,0,0,0,0,0,0,0,0,0,
659,-20.81,-31.53,-17.01,-21.12,-34.38,-32.59,13.61,-11.74,-6.685,-30.95,-1.891,5.486,9.861,3.554,9.157,13.0,0,0,0,0,0,0,0,0,0,0,0,0,0,0,0,0,
660,-18.12,-21.52,-13.25,-0.7224,-27.11,-16.98,8.428,16.77,3.944,-15.68,-3.778,5.971,10.0,15.95,6.782,14.51,0,0,0,0,0,0,0,0,0,0,0,0,0,0,0,0,
661,-12.86,-14.46,-15.92,2.932,-24.02,-10.36,-8.78,22.53,0.5442,-0.2821,-9.542,8.642,2.998,19.31,2.215,12.31,0,0,0,0,0,0,0,0,0,0,0,0,0,0,0,0,
662,-5.008,-12.31,-5.073,-2.982,-10.55,-4.716,-11.07,-0.0578,-2.63,7.176,-5.851,20.18,0.6594,21.61,4.818,15.03,0,0,0,0,0,0,0,0,0,0,0,0,0,0,0,0,
663,3.645,-6.069,7.499,2.503,-2.022,3.531,-27.46,-3.09,-0.0316,13.92,1.126,19.4,-7.125,16.78,4.495,10.64,0,0,0,0,0,0,0,0,0,0,0,0,0,0,0,0,
664,5.758,-4.873,3.384,13.16,-7.23,6.289,-8.243,21.24,-9.978,13.63,-5.688,10.15,-17.41,7.982,0.5394,4.073,0,0,0,0,0,0,0,0,0,0,0,0,0,0,0,0,
665,17.94,3.713,15.92,23.73,9.876,17.95,52.9,34.18,-4.62,17.9,-10.78,11.83,-9.936,8.073,-0.1821,5.147,0,0,0,0,0,0,0,0,0,0,0,0,0,0,0,0,
666,23.99,9.238,21.02,16.84,19.83,18.99,23.7,11.99,12.71,20.17,-10.9,-0.6044,-10.04,-2.584,-8.073,-4.623,0,0,0,0,0,0,0,0,0,0,0,0,0,0,0,0,
667,7.919,-3.285,0.021,5.503,1.406,4.995,-42.48,0.2772,-3.357,7.397,0.5215,-12.16,-11.63,-9.181,-3.709,-6.548,0,0,0,0,0,0,0,0,0,0,0,0,0,0,0,0,
668,10.45,-2.779,8.448,9.645,9.711,6.296,-5.406,10.48,-9.738,8.334,17.14,-1.771,9.365,1.391,12.95,4.003,0,0,0,0,0,0,0,0,0,0,0,0,0,0,0,0,
669,22.51,1.964,26.75,-0.4139,30.32,3.69,34.82,-2.469,15.63,8.558,17.43,-2.659,20.84,-1.879,14.52,-0.0669,0,0,0,0,0,0,0,0,0,0,0,0,0,0,0,0,
670,16.39,-5.818,23.55,-7.317,32.46,-2.625,34.16,-5.248,24.76,-4.603,25.03,-5.133,23.9,-2.023,18.99,2.443,0,0,0,0,0,0,0,0,0,0,0,0,0,0,0,0,
671,17.04,-4.369,27.95,8.514,39.39,6.514,78.71,14.99,29.18,3.78,32.09,5.583,33.84,11.75,26.36,12.91,0,0,0,0,0,0,0,0,0,0,0,0,0,0,0,0,
672,20.2,-3.293,22.17,2.783,39.0,3.652,82.41,6.265,38.65,10.86,16.89,8.525,28.97,12.26,19.22,11.11,0,0,0,0,0,0,0,0,0,0,0,0,0,0,0,0,
673,12.2,-8.207,-1.933,-12.04,23.37,-8.129,-8.729,-8.481,26.95,0.3276,18.32,8.07,17.44,11.76,17.4,14.5,0,0,0,0,0,0,0,0,0,0,0,0,0,0,0,0,
674,6.915,-7.074,-7.441,-6.33,16.76,-9.996,-46.29,-3.15,6.8,1.04,28.23,8.44,15.9,17.99,23.13,22.17,0,0,0,0,0,0,0,0,0,0,0,0,0,0,0,0,
675,6.035,-8.749,7.174,-5.979,25.07,-11.5,26.14,1.468,5.679,4.111,17.02,11.15,21.98,22.62,27.43,26.55,0,0,0,0,0,0,0,0,0,0,0,0,0,0,0,0,
676,6.093,-13.54,20.34,-16.3,37.7,-12.31,74.86,2.527,25.47,3.718,11.46,18.51,28.48,28.46,31.98,32.59,0,0,0,0,0,0,0,0,0,0,0,0,0,0,0,0,
677,5.224,-15.27,20.55,-19.27,40.4,-10.75,24.56,0.6134,36.55,7.71,20.28,20.54,26.23,30.36,32.82,34.36,0,0,0,0,0,0,0,0,0,0,0,0,0,0,0,0,
678,7.781,-10.46,11.14,-10.57,36.32,-4.81,-25.54,4.968,24.02,11.6,29.48,22.92,23.34,30.38,32.7,34.23,0,0,0,0,0,0,0,0,0,0,0,0,0,0,0,0,
679,10.3,-4.941,-2.838,-4.242,30.71,-0.4797,-10.11,12.75,10.67,13.87,26.99,22.26,18.05,27.91,28.37,31.63,0,0,0,0,0,0,0,0,0,0,0,0,0,0,0,0,
680,1.053,-8.982,-11.67,-5.663,22.33,-5.32,5.373,9.012,2.959,9.224,12.53,14.25,6.544,22.81,20.19,26.75,0,0,0,0,0,0,0,0,0,0,0,0,0,0,0,0,
681,-2.119,-7.256,-0.1284,-1.14,25.14,-2.518,16.22,8.286,-0.106,6.785,4.132,12.93,4.92,23.83,16.15,25.09,0,0,0,0,0,0,0,0,0,0,0,0,0,0,0,0,
682,8.747,2.86,18.09,0.3247,40.46,4.776,69.96,11.75,9.888,11.59,-0.9937,13.47,10.12,23.89,12.82,22.5,0,0,0,0,0,0,0,0,0,0,0,0,0,0,0,0,
683,19.17,7.776,31.97,-2.244,58.34,7.652,91.02,11.22,29.57,14.16,-3.566,11.58,14.72,23.48,11.19,21.59,0,0,0,0,0,0,0,0,0,0,0,0,0,0,0,0,
684,22.69,8.412,32.29,2.14,59.95,13.26,5.84,8.157,39.29,18.68,0.8699,5.219,11.04,19.6,4.08,14.18,0,0,0,0,0,0,0,0,0,0,0,0,0,0,0,0,
685,12.07,3.79,3.593,1.768,34.75,12.77,-69.53,-1.32,16.56,15.75,1.101,-6.056,-5.201,4.84,-7.305,0.3744,0,0,0,0,0,0,0,0,0,0,0,0,0,0,0,0,
686,7.032,6.839,-10.14,4.234,23.86,10.47,-29.77,-8.659,-8.598,4.767,0.333,-7.343,-9.919,-3.257,-6.322,-0.5472,0,0,0,0,0,0,0,0,0,0,0,0,0,0,0,0,
687,16.29,16.8,5.439,7.99,33.65,9.155,25.04,-15.57,-2.293,-1.417,-3.699,-8.823,-5.638,-7.192,-5.047,-0.5404,0,0,0,0,0,0,0,0,0,0,0,0,0,0,0,0,
688,14.49,14.28,2.622,0.8275,31.78,2.592,23.54,-13.23,5.136,-9.309,-3.618,-10.79,-2.201,-9.321,-0.8546,0.2733,0,0,0,0,0,0,0,0,0,0,0,0,0,0,0,0,
689,11.92,11.26,-1.25,0.7195,32.09,1.204,29.65,5.446,7.287,-7.139,9.601,-3.235,8.771,-1.108,10.76,7.23,0,0,0,0,0,0,0,0,0,0,0,0,0,0,0,0,
690,7.755,1.065,9.454,-5.686,29.9,-9.174,34.27,-2.435,14.24,-1.885,4.198,-7.139,6.867,-2.472,4.465,-0.3876,0,0,0,0,0,0,0,0,0,0,0,0,0,0,0,0,
691,-7.438,-19.11,6.415,-20.75,19.01,-23.16,-9.292,-16.14,11.6,-11.57,-2.997,-5.731,2.46,0.5671,1.886,-0.0425,0,0,0,0,0,0,0,0,0,0,0,0,0,0,0,0,
692,-5.301,-16.53,-3.91,-13.72,22.24,-14.04,-50.38,7.029,11.7,-5.536,11.43,12.06,14.63,19.57,12.28,13.73,0,0,0,0,0,0,0,0,0,0,0,0,0,0,0,0,
693,-0.449,-7.619,-9.807,-5.875,25.57,-6.984,-22.98,16.72,15.33,9.938,3.344,14.81,14.79,21.62,3.672,8.896,0,0,0,0,0,0,0,0,0,0,0,0,0,0,0,0,
694,-5.108,-5.871,-1.766,-4.531,32.89,-2.453,38.32,9.713,20.53,15.08,-8.236,16.89,13.08,21.07,0.5331,7.207,0,0,0,0,0,0,0,0,0,0,0,0,0,0,0,0,
695,7.185,6.297,14.7,7.441,50.31,15.44,35.72,19.8,37.13,30.92,8.773,22.67,20.64,29.51,12.07,13.34,0,0,0,0,0,0,0,0,0,0,0,0,0,0,0,0,
696,16.27,10.64,14.9,10.52,47.21,17.98,1.286,19.21,33.99,38.25,8.509,10.71,11.35,21.0,6.415,4.111,0,0,0,0,0,0,0,0,0,0,0,0,0,0,0,0,
697,12.1,6.295,15.85,6.043,39.93,9.377,27.03,4.889,16.67,25.26,-9.937,-1.635,-1.655,6.737,-4.409,-4.366,0,0,0,0,0,0,0,0,0,0,0,0,0,0,0,0,
698,12.99,5.784,22.96,3.284,42.07,6.936,34.87,-5.779,16.88,16.43,-8.726,-7.984,-4.586,0.6185,-5.595,-6.239,0,0,0,0,0,0,0,0,0,0,0,0,0,0,0,0,
699,12.72,3.305,19.29,-2.436,37.22,3.786,-12.49,-10.26,12.71,11.1,4.022,-10.16,-4.315,0.3685,-3.68,-5.548,0,0,0,0,0,0,0,0,0,0,0,0,0,0,0,0,
700,17.2,8.688,21.39,0.2614,40.88,7.139,-2.976,-5.176,8.603,12.5,6.58,-2.477,3.389,6.807,0.716,2.081,0,0,0,0,0,0,0,0,0,0,0,0,0,0,0,0,
701,30.63,18.55,29.8,12.97,52.47,18.83,40.45,0.8182,24.11,22.57,5.198,6.355,15.49,15.58,8.456,11.62,0,0,0,0,0,0,0,0,0,0,0,0,0,0,0,0,
702,38.92,24.21,29.59,25.63,52.45,29.51,27.48,6.876,34.85,29.45,10.13,10.39,21.41,19.39,12.28,14.19,0,0,0,0,0,0,0,0,0,0,0,0,0,0,0,0,
703,34.42,26.33,17.15,21.75,39.32,25.99,1.25,6.335,24.89,24.77,1.334,1.818,11.84,5.688,0.7459,1.825,0,0,0,0,0,0,0,0,0,0,0,0,0,0,0,0,
704,23.54,20.77,2.196,5.766,27.91,14.53,3.778,-1.439,9.349,8.161,-13.26,-6.404,3.702,-6.728,-7.823,-6.165,0,0,0,0,0,0,0,0,0,0,0,0,0,0,0,0,
705,25.38,21.21,9.091,8.301,34.22,19.51,4.578,2.127,11.5,3.736,-8.642,-2.473,10.83,-0.4812,-3.172,-2.746,0,0,0,0,0,0,0,0,0,0,0,0,0,0,0,0,
706,29.66,25.13,20.84,13.85,38.62,22.76,10.95,-0.0926,20.28,7.124,-10.52,-8.33,8.838,-3.212,-6.652,-11.78,0,0,0,0,0,0,0,0,0,0,0,0,0,0,0,0,
707,25.92,23.96,19.61,10.68,37.51,18.27,40.77,-7.605,20.1,0.9222,-13.91,-10.37,7.969,-4.154,-5.297,-15.71,0,0,0,0,0,0,0,0,0,0,0,0,0,0,0,0,
708,34.66,33.74,30.53,22.24,49.3,28.98,30.79,6.684,30.77,9.865,4.979,-1.696,21.54,9.076,6.993,-8.698,0,0,0,0,0,0,0,0,0,0,0,0,0,0,0,0,
709,41.62,38.46,42.82,29.24,49.94,31.97,-24.0,21.21,37.7,21.23,16.03,-8.716,22.07,6.028,7.397,-15.54,0,0,0,0,0,0,0,0,0,0,0,0,0,0,0,0,
710,32.69,27.23,32.58,20.8,33.81,20.24,-22.03,17.39,24.83,14.22,8.505,-11.03,14.38,-0.3987,1.18,-19.55,0,0,0,0,0,0,0,0,0,0,0,0,0,0,0,0,
711,24.7,21.06,15.04,13.7,21.98,13.68,20.3,2.395,15.54,12.95,-4.577,0.9512,5.967,5.555,-5.687,-10.88,0,0,0,0,0,0,0,0,0,0,0,0,0,0,0,0,
712,16.13,12.96,10.82,-4.6,17.66,5.153,20.45,-9.543,8.955,15.44,-9.232,11.45,-2.956,15.1,-6.271,2.602,0,0,0,0,0,0,0,0,0,0,0,0,0,0,0,0,
713,4.13,-6.134,10.84,-31.89,18.42,-4.331,-9.537,-4.143,6.318,17.3,2.39,21.75,-0.4154,27.4,-0.9005,13.38,0,0,0,0,0,0,0,0,0,0,0,0,0,0,0,0,
714,-9.344,-18.58,-5.059,-33.13,7.801,-7.245,-28.62,2.564,3.611,19.58,-3.269,17.78,-7.92,23.06,-12.83,5.05,0,0,0,0,0,0,0,0,0,0,0,0,0,0,0,0,
715,-8.223,-1.615,-5.747,2.131,1.52,2.257,6.885,8.492,-11.35,13.43,-24.3,6.538,-21.07,8.818,-23.93,-3.214,0,0,0,0,0,0,0,0,0,0,0,0,0,0,0,0,
716,14.2,26.1,8.584,25.16,12.94,13.06,40.33,13.53,-11.71,11.41,-28.72,0.8563,-19.19,3.803,-19.12,-1.263,0,0,0,0,0,0,0,0,0,0,0,0,0,0,0,0,
717,13.39,20.01,-20.27,11.92,-1.601,2.576,-25.92,2.492,-12.02,5.557,-30.5,-10.86,-26.29,-6.237,-21.46,-7.739,0,0,0,0,0,0,0,0,0,0,0,0,0,0,0,0,
718,-6.004,7.083,-54.58,13.28,-26.02,-2.329,-84.66,-1.017,-36.43,-6.87,-35.13,-18.79,-39.37,-18.69,-28.4,-18.03,0,0,0,0,0,0,0,0,0,0,0,0,0,0,0,0,
719,-5.114,14.47,-52.47,21.39,-24.69,3.777,-66.68,-6.934,-48.25,-10.48,-36.35,-27.1,-44.29,-32.09,-32.74,-34.01,0,0,0,0,0,0,0,0,0,0,0,0,0,0,0,0,
720,-4.08,10.78,-44.84,3.815,-18.82,-5.34,-51.82,-31.06,-44.61,-22.61,-29.09,-38.31,-41.04,-42.39,-25.78,-42.71,0,0,0,0,0,0,0,0,0,0,0,0,0,0,0,0,
721,0.3268,9.582,-15.84,5.215,0.54,-0.8651,0.8755,-22.03,-30.42,-27.53,-11.81,-35.34,-20.62,-33.37,-6.617,-30.56,0,0,0,0,0,0,0,0,0,0,0,0,0,0,0,0,
722,15.31,19.18,9.185,18.38,20.0,13.75,58.98,1.467,-0.1049,-10.52,-14.81,-34.44,-10.55,-28.88,-6.062,-29.65,0,0,0,0,0,0,0,0,0,0,0,0,0,0,0,0,
723,6.372,9.314,-21.26,7.181,0.3284,3.012,-13.68,-14.9,3.727,-11.84,-23.88,-31.82,-22.18,-33.68,-14.87,-32.83,0,0,0,0,0,0,0,0,0,0,0,0,0,0,0,0,
724,-18.78,-7.766,-52.86,-0.6517,-29.91,-12.13,-104.2,-34.41,-24.81,-27.83,-11.22,-16.69,-26.32,-26.8,-11.21,-18.19,0,0,0,0,0,0,0,0,0,0,0,0,0,0,0,0,
725,-32.87,-14.72,-48.65,2.987,-38.08,-12.88,-62.71,-20.21,-41.07,-31.15,-7.463,-7.786,-20.71,-15.34,-6.309,-5.056,0,0,0,0,0,0,0,0,0,0,0,0,0,0,0,0,
726,-31.1,-11.96,-33.94,7.949,-26.89,-5.527,8.187,2.563,-30.06,-22.88,-10.19,3.153,-10.75,-0.9369,1.879,3.026,0,0,0,0,0,0,0,0,0,0,0,0,0,0,0,0,
727,-24.86,-11.03,-27.53,5.357,-17.57,-5.576,4.338,-1.675,-16.37,-13.88,-8.501,9.662,-7.619,5.259,6.385,3.41,0,0,0,0,0,0,0,0,0,0,0,0,0,0,0,0,
728,-23.8,-19.41,-34.94,-5.872,-17.45,-10.78,-15.23,-8.22,-19.81,-14.11,-15.83,4.161,-11.28,2.631,4.737,1.155,0,0,0,0,0,0,0,0,0,0,0,0,0,0,0,0,
729,-12.19,-12.84,-36.54,-1.39,-6.154,2.692,-20.54,12.13,-13.79,-3.617,-15.36,9.415,-4.403,10.84,8.278,7.461,0,0,0,0,0,0,0,0,0,0,0,0,0,0,0,0,
730,-7.712,-6.641,-33.41,1.12,-4.392,9.607,-41.1,10.51,-2.504,10.33,-13.26,10.32,-6.606,10.68,4.129,4.905,0,0,0,0,0,0,0,0,0,0,0,0,0,0,0,0,
731,-18.98,-14.61,-29.24,-1.474,-13.22,6.608,-23.16,-3.837,-11.78,6.963,-17.83,6.456,-12.01,7.906,2.476,5.279,0,0,0,0,0,0,0,0,0,0,0,0,0,0,0,0,
732,-5.543,-2.925,-15.57,20.25,-0.6122,25.31,16.54,14.91,-5.86,20.83,-10.52,12.5,-0.0374,19.25,11.13,13.37,0,0,0,0,0,0,0,0,0,0,0,0,0,0,0,0,
733,5.32,1.523,-21.67,25.71,-0.6807,26.41,-17.5,13.93,4.419,35.35,-5.755,4.872,0.2137,13.5,9.847,4.685,0,0,0,0,0,0,0,0,0,0,0,0,0,0,0,0,
734,-7.331,-14.97,-29.4,8.901,-9.723,9.156,-36.56,-7.222,-6.205,19.41,-7.479,-3.341,-0.7364,3.634,12.77,2.554,0,0,0,0,0,0,0,0,0,0,0,0,0,0,0,0,
735,-1.086,-9.676,-11.95,14.77,6.772,19.09,4.456,7.098,7.862,14.98,0.1446,3.562,13.97,11.2,20.96,12.23,0,0,0,0,0,0,0,0,0,0,0,0,0,0,0,0,
736,4.207,-1.527,-16.79,17.75,6.004,23.44,-19.15,22.89,20.89,18.32,9.762,2.999,10.61,8.537,12.95,6.41,0,0,0,0,0,0,0,0,0,0,0,0,0,0,0,0,
737,-5.547,-6.221,-31.74,2.712,-11.89,7.828,-56.51,9.57,-5.3,5.66,8.423,-3.427,-6.158,-4.823,-0.2232,-3.302,0,0,0,0,0,0,0,0,0,0,0,0,0,0,0,0,
738,1.412,-2.371,-20.47,-3.27,-7.132,5.622,-25.7,-6.455,-16.44,-1.701,-4.792,-6.181,-10.27,-10.86,-4.704,-4.301,0,0,0,0,0,0,0,0,0,0,0,0,0,0,0,0,
739,13.02,5.041,-12.82,3.425,3.316,15.58,-18.5,-7.354,-0.1968,0.1369,-3.563,-0.8873,-1.507,-4.357,3.44,2.518,0,0,0,0,0,0,0,0,0,0,0,0,0,0,0,0,
740,14.5,10.51,-13.16,11.68,3.965,20.64,-21.31,-4.679,8.285,7.011,8.006,5.492,6.645,4.572,10.0,6.99,0,0,0,0,0,0,0,0,0,0,0,0,0,0,0,0,
741,11.6,7.828,-6.181,10.43,3.262,15.18,41.35,-9.217,7.369,10.01,-5.351,0.1843,4.207,3.39,3.4,1.719,0,0,0,0,0,0,0,0,0,0,0,0,0,0,0,0,
742,10.55,2.739,3.437,11.47,9.906,14.92,63.64,-0.2098,12.8,6.94,-13.12,-0.4529,4.932,6.238,5.81,2.895,0,0,0,0,0,0,0,0,0,0,0,0,0,0,0,0,
743,12.29,5.698,-1.535,19.15,8.06,20.18,-23.36,15.61,16.81,12.76,2.264,1.87,2.67,8.99,10.94,2.889,0,0,0,0,0,0,0,0,0,0,0,0,0,0,0,0,
744,1.574,-2.74,-29.12,13.7,-15.59,9.938,-64.91,12.33,-5.848,12.06,-2.002,-4.716,-14.74,-1.717,-2.794,-8.902,0,0,0,0,0,0,0,0,0,0,0,0,0,0,0,0,
745,-14.24,-16.2,-42.33,3.876,-27.93,-2.613,-8.197,5.078,-27.15,-0.8766,-25.28,-7.682,-28.19,-13.12,-22.25,-18.02,0,0,0,0,0,0,0,0,0,0,0,0,0,0,0,0,
746,-21.06,-17.61,-33.2,-1.031,-25.74,-6.058,-10.89,2.399,-21.77,-9.983,-35.51,-8.392,-35.7,-22.1,-30.3,-20.19,0,0,0,0,0,0,0,0,0,0,0,0,0,0,0,0,
747,-20.83,-16.16,-32.84,-4.1,-28.61,-5.296,-66.41,3.989,-24.51,-14.19,-20.1,-4.929,-33.48,-21.07,-17.46,-10.94,0,0,0,0,0,0,0,0,0,0,0,0,0,0,0,0,
748,-11.37,-11.93,-36.78,-3.601,-25.23,0.3671,-60.48,4.161,-30.36,-10.1,-1.516,-3.374,-18.61,-14.44,-3.015,-4.871,0,0,0,0,0,0,0,0,0,0,0,0,0,0,0,0,
749,-7.569,-10.4,-38.15,-8.847,-22.05,-0.4435,-31.93,-13.65,-19.19,-9.969,-5.415,-18.09,-12.06,-22.63,-6.73,-15.2,0,0,0,0,0,0,0,0,0,0,0,0,0,0,0,0,
750,-10.95,-13.36,-35.06,-14.11,-20.04,-4.909,-9.651,-25.96,-6.895,-17.78,-9.489,-27.57,-5.998,-27.8,-8.034,-17.34,0,0,0,0,0,0,0,0,0,0,0,0,0,0,0,0,
751,-7.527,-14.15,-27.36,-16.59,-14.27,-8.184,9.15,-17.67,2.24,-16.55,-6.825,-25.67,0.9622,-21.58,-3.682,-11.29,0,0,0,0,0,0,0,0,0,0,0,0,0,0,0,0,
752,-5.977,-14.6,-21.66,-19.74,-15.64,-10.13,9.883,-5.575,2.175,-11.75,-6.492,-14.65,-1.71,-11.41,4.949,-0.4541,0,0,0,0,0,0,0,0,0,0,0,0,0,0,0,0,
753,-0.8329,-5.974,-6.162,-11.1,-12.04,-0.3132,24.97,-3.042,-1.654,-2.677,2.87,5.826,0.3564,2.355,20.2,17.67,0,0,0,0,0,0,0,0,0,0,0,0,0,0,0,0,
754,3.952,-1.722,0.7239,-10.4,-13.27,-2.152,0.122,-17.23,-0.6267,0.3641,4.767,4.283,-3.163,-0.3748,17.55,15.55,0,0,0,0,0,0,0,0,0,0,0,0,0,0,0,0,
755,-5.751,-11.87,-17.24,-23.12,-32.84,-19.06,-76.16,-11.73,-13.05,-15.22,-1.826,-6.713,-12.85,-6.628,7.93,5.5,0,0,0,0,0,0,0,0,0,0,0,0,0,0,0,0,
756,-15.0,-14.87,-28.25,-23.93,-45.09,-23.42,-59.04,6.042,-29.43,-20.98,-7.576,-5.113,-12.38,-2.353,6.267,5.579,0,0,0,0,0,0,0,0,0,0,0,0,0,0,0,0,
757,-23.75,-18.71,-28.79,-23.09,-45.66,-27.76,11.84,-15.75,-30.66,-23.79,-25.05,-12.32,-13.44,-7.633,-1.489,0.5741,0,0,0,0,0,0,0,0,0,0,0,0,0,0,0,0,
758,-22.17,-17.63,-23.58,-13.71,-34.95,-22.68,-2.677,-21.16,-19.57,-30.44,-25.94,-14.34,-8.922,-5.488,-1.967,1.377,0,0,0,0,0,0,0,0,0,0,0,0,0,0,0,0,
759,-3.985,-2.247,-13.81,5.194,-23.53,-4.702,-30.53,5.405,-7.339,-16.68,-14.78,-10.82,-4.091,0.1095,-1.11,0.5414,0,0,0,0,0,0,0,0,0,0,0,0,0,0,0,0,
760,-4.324,-4.141,-15.62,2.389,-29.27,-9.694,-0.585,-5.963,-11.15,-11.59,-25.47,-14.72,-13.04,-8.082,-7.859,-6.797,0,0,0,0,0,0,0,0,0,0,0,0,0,0,0,0,
761,-7.889,-6.959,-12.13,-4.332,-23.54,-15.84,6.589,-18.15,-9.186,-17.41,-19.9,-1.052,-7.803,-0.6973,0.4185,3.696,0,0,0,0,0,0,0,0,0,0,0,0,0,0,0,0,
762,0.1156,1.097,-11.05,-5.75,-18.12,-9.753,-49.58,2.066,2.353,-7.451,3.348,9.954,1.048,7.464,6.22,10.08,0,0,0,0,0,0,0,0,0,0,0,0,0,0,0,0,
763,-9.76,-9.122,-27.48,-12.66,-35.73,-13.58,-77.89,14.49,-14.5,-4.204,4.715,3.615,-5.504,-0.156,0.1002,3.756,0,0,0,0,0,0,0,0,0,0,0,0,0,0,0,0,
764,-14.58,-15.33,-24.22,-9.334,-32.94,-12.45,-24.22,6.638,-25.88,-1.897,-0.8908,7.234,-3.504,2.065,2.193,3.554,0,0,0,0,0,0,0,0,0,0,0,0,0,0,0,0,
765,-9.368,-12.55,-12.87,-10.99,-20.59,-11.19,4.038,-16.15,-7.854,3.435,-2.54,6.04,-0.5202,0.7106,1.054,-4.186,0,0,0,0,0,0,0,0,0,0,0,0,0,0,0,0,
766,-18.8,-19.12,-16.08,-18.0,-26.82,-14.92,-39.29,-15.6,-5.141,-7.258,-0.3081,-3.856,-4.182,-6.622,-3.081,-11.38,0,0,0,0,0,0,0,0,0,0,0,0,0,0,0,0,
767,-16.37,-13.92,-7.078,-9.207,-22.05,-6.673,-28.78,9.152,-10.9,-11.45,0.4812,-7.073,-3.674,-5.368,-2.673,-10.14,0,0,0,0,0,0,0,0,0,0,0,0,0,0,0,0,
768,-0.5854,-3.552,6.611,-3.119,-8.228,1.022,50.15,0.8805,-2.08,-9.926,-18.21,-13.5,-6.83,-9.633,-8.045,-17.16,0,0,0,0,0,0,0,0,0,0,0,0,0,0,0,0,
769,6.966,0.4889,12.51,5.336,-0.6786,10.38,50.83,-10.63,6.95,-12.44,-30.88,-15.65,-10.18,-11.17,-8.96,-19.15,0,0,0,0,0,0,0,0,0,0,0,0,0,0,0,0,
770,10.72,9.534,11.95,22.24,-1.322,23.64,-39.97,8.157,2.902,1.022,-8.621,-6.305,-8.602,1.027,4.392,-4.391,0,0,0,0,0,0,0,0,0,0,0,0,0,0,0,0,
771,7.214,14.74,-3.799,22.81,-14.91,21.08,-74.67,13.41,-16.77,15.1,20.67,2.629,-4.834,13.12,17.48,11.89,0,0,0,0,0,0,0,0,0,0,0,0,0,0,0,0,
772,-0.5052,14.35,-14.14,15.32,-23.45,12.64,-17.62,0.8382,-27.0,11.2,16.66,6.217,-0.0246,16.97,14.95,16.47,0,0,0,0,0,0,0,0,0,0,0,0,0,0,0,0,
773,-5.208,9.041,-7.647,8.492,-20.65,6.324,18.37,-2.521,-13.55,1.139,-2.795,9.964,3.079,17.73,9.663,18.46,0,0,0,0,0,0,0,0,0,0,0,0,0,0,0,0,
774,-10.42,-6.037,-4.168,-4.485,-19.75,-3.524,-5.02,2.993,-0.9331,-3.636,6.643,17.55,9.832,23.79,16.59,28.05,0,0,0,0,0,0,0,0,0,0,0,0,0,0,0,0,
775,-14.62,-17.74,-6.375,-14.82,-20.52,-10.81,-10.46,-0.5753,-0.3117,-2.292,14.79,16.58,10.99,24.39,12.94,25.61,0,0,0,0,0,0,0,0,0,0,0,0,0,0,0,0,
776,-13.78,-16.91,-4.076,-16.04,-16.76,-10.59,17.07,-6.435,-0.5006,-2.152,-2.63,13.13,5.287,18.22,2.075,16.02,0,0,0,0,0,0,0,0,0,0,0,0,0,0,0,0,
777,-7.556,-10.69,-6.438,-9.414,-13.93,-5.306,-9.646,11.21,2.868,0.7971,-0.2009,17.0,9.47,17.05,8.521,18.69,0,0,0,0,0,0,0,0,0,0,0,0,0,0,0,0,
778,-9.103,-11.82,-24.86,-3.719,-23.49,-7.193,-65.39,20.09,-5.836,1.097,13.39,10.91,10.49,9.227,12.64,14.86,0,0,0,0,0,0,0,0,0,0,0,0,0,0,0,0,
779,-12.84,-12.94,-23.69,-3.443,-22.38,-9.645,-23.74,-3.302,-15.96,-6.481,9.735,5.715,9.654,1.379,9.53,5.592,0,0,0,0,0,0,0,0,0,0,0,0,0,0,0,0,
780,-2.018,-4.896,6.397,-6.734,-3.654,-2.279,40.9,-16.37,2.365,-2.74,8.108,5.747,18.23,2.099,9.861,0.9115,0,0,0,0,0,0,0,0,0,0,0,0,0,0,0,0,
781,0.7536,-3.832,9.043,-6.344,-5.897,0.0735,6.905,-7.129,15.43,2.084,12.77,-4.636,19.4,-1.464,5.594,-6.322,0,0,0,0,0,0,0,0,0,0,0,0,0,0,0,0,
782,-2.341,0.4055,-3.389,14.57,-11.38,6.924,-28.13,8.595,5.945,2.038,21.68,-4.753,20.27,1.553,3.578,-9.101,0,0,0,0,0,0,0,0,0,0,0,0,0,0,0,0,
783,7.048,12.19,7.688,31.88,2.696,20.03,-8.621,18.9,10.52,12.62,22.51,-3.874,20.1,4.363,-0.5541,-19.76,0,0,0,0,0,0,0,0,0,0,0,0,0,0,0,0,
784,5.133,6.297,14.27,21.99,7.053,17.08,13.25,11.55,15.57,13.09,6.429,-19.05,6.955,-4.826,-10.38,-36.74,0,0,0,0,0,0,0,0,0,0,0,0,0,0,0,0,
785,-1.267,0.4986,12.89,14.14,6.237,11.79,33.85,-2.062,10.72,4.517,4.045,-23.49,2.798,-7.109,-8.5,-32.56,0,0,0,0,0,0,0,0,0,0,0,0,0,0,0,0,
786,1.871,2.117,13.12,6.34,5.651,9.665,18.69,-14.28,9.887,1.347,11.92,-24.75,2.879,-12.89,-5.044,-23.94,0,0,0,0,0,0,0,0,0,0,0,0,0,0,0,0,
787,-0.9956,-5.635,6.904,-7.968,-2.231,4.847,-18.76,-21.41,-0.0153,-11.24,6.955,-31.44,-6.506,-26.55,-10.4,-22.15,0,0,0,0,0,0,0,0,0,0,0,0,0,0,0,0,
788,-4.14,-8.302,3.044,-8.366,-7.522,3.275,-6.009,-16.2,-9.202,-22.34,0.3967,-26.23,-11.27,-28.0,-12.97,-11.87,0,0,0,0,0,0,0,0,0,0,0,0,0,0,0,0,
789,-9.071,-9.428,1.431,-6.55,-15.66,-4.226,17.3,-2.939,-9.479,-24.03,0.0131,-11.25,-7.728,-18.52,-4.154,5.386,0,0,0,0,0,0,0,0,0,0,0,0,0,0,0,0,
790,-11.92,-9.023,4.656,-1.425,-17.65,-5.811,9.232,12.38,-9.341,-19.69,6.186,11.21,2.437,-1.294,9.435,19.6,0,0,0,0,0,0,0,0,0,0,0,0,0,0,0,0,
791,-8.637,-6.529,0.1312,-1.411,-21.63,-8.577,-4.767,-0.1052,-10.2,-12.01,2.907,19.47,-0.3415,4.102,1.27,12.04,0,0,0,0,0,0,0,0,0,0,0,0,0,0,0,0,
792,-27.42,-31.16,-26.08,-31.56,-49.59,-38.92,-22.43,-28.13,-27.74,-27.29,-15.09,4.429,-20.24,-9.054,-17.56,-3.994,0,0,0,0,0,0,0,0,0,0,0,0,0,0,0,0,
793,-46.47,-52.41,-31.71,-47.63,-59.29,-54.39,-42.76,-11.17,-41.1,-44.96,-16.24,0.0866,-22.54,-10.2,-15.43,0.5099,0,0,0,0,0,0,0,0,0,0,0,0,0,0,0,0,
794,-38.86,-41.82,-15.6,-33.59,-45.36,-41.05,-40.96,10.14,-31.39,-36.08,-6.252,4.428,-16.2,-7.154,-11.43,3.568,0,0,0,0,0,0,0,0,0,0,0,0,0,0,0,0,
795,-33.83,-37.88,-10.87,-30.34,-43.32,-38.3,6.173,-10.34,-31.09,-31.79,-7.318,2.774,-22.18,-15.8,-16.79,-4.386,0,0,0,0,0,0,0,0,0,0,0,0,0,0,0,0,
796,-25.54,-34.34,-0.807,-24.22,-32.08,-31.69,45.46,-15.07,-30.51,-33.1,-0.5406,6.626,-20.72,-19.95,-8.929,1.486,0,0,0,0,0,0,0,0,0,0,0,0,0,0,0,0,
797,1.798,-6.485,12.83,3.701,-7.54,-4.046,22.06,9.682,-12.06,-19.73,36.35,24.03,2.969,-7.981,24.81,28.65,0,0,0,0,0,0,0,0,0,0,0,0,0,0,0,0,
798,25.97,20.86,22.29,29.01,8.985,22.42,11.95,19.65,7.435,3.416,75.74,44.42,32.27,11.67,52.17,47.32,0,0,0,0,0,0,0,0,0,0,0,0,0,0,0,0,
799,17.97,13.16,20.22,20.45,1.244,17.07,27.72,1.982,16.59,17.17,41.55,26.63,14.82,-1.686,12.08,10.04,0,0,0,0,0,0,0,0,0,0,0,0,0,0,0,0,
800,-25.65,-24.96,-16.22,-13.11,-35.41,-16.88,-8.414,-12.84,-7.886,-3.45,-40.4,-14.95,-39.57,-39.09,-52.63,-45.08,0,0,0,0,0,0,0,0,0,0,0,0,0,0,0,0,
801,-49.42,-39.99,-41.92,-22.42,-52.19,-29.56,-50.59,-2.357,-44.02,-27.04,-52.49,-22.73,-50.82,-41.99,-53.86,-50.51,0,0,0,0,0,0,0,0,0,0,0,0,0,0,0,0,
802,-30.38,-23.5,-26.34,-13.14,-36.42,-20.43,-45.55,-8.032,-45.73,-24.05,-18.02,-24.02,-29.68,-31.61,-30.12,-41.17,0,0,0,0,0,0,0,0,0,0,0,0,0,0,0,0,
803,-11.81,-13.51,-7.849,-15.46,-23.46,-18.94,-16.07,-28.95,-31.7,-25.17,-12.03,-38.61,-16.97,-31.65,-23.6,-40.23,0,0,0,0,0,0,0,0,0,0,0,0,0,0,0,0,
804,1.738,-3.321,9.578,-12.9,-6.989,-11.5,21.32,-14.09,-13.62,-24.76,-1.58,-35.23,5.344,-15.61,-5.449,-22.22,0,0,0,0,0,0,0,0,0,0,0,0,0,0,0,0,
805,15.94,8.938,24.94,-5.338,8.509,-2.055,41.61,2.411,8.485,-10.96,25.54,-26.9,26.26,0.4052,15.91,-2.85,0,0,0,0,0,0,0,0,0,0,0,0,0,0,0,0,
806,18.79,8.034,26.28,-4.453,8.538,-1.736,45.93,-9.099,15.13,-4.853,33.21,-23.62,26.66,0.9512,17.22,2.937,0,0,0,0,0,0,0,0,0,0,0,0,0,0,0,0,
807,11.91,0.4145,20.2,-8.494,-0.9538,-5.855,28.6,-14.75,9.832,-8.193,16.8,-17.5,12.99,-3.996,2.667,-0.1719,0,0,0,0,0,0,0,0,0,0,0,0,0,0,0,0,
808,-4.341,-8.373,4.815,-11.62,-19.3,-14.98,-21.21,-10.19,-6.492,-19.5,-1.448,-10.31,-4.167,-11.09,-10.35,-2.859,0,0,0,0,0,0,0,0,0,0,0,0,0,0,0,0,
809,-15.44,-12.29,-7.609,-3.823,-31.47,-18.15,-30.39,-8.268,-24.51,-26.05,-11.13,-1.761,-13.06,-15.66,-17.16,-2.832,0,0,0,0,0,0,0,0,0,0,0,0,0,0,0,0,
810,-25.32,-26.86,-15.38,-10.68,-39.94,-26.67,0.5251,-16.38,-29.55,-25.67,-27.05,-3.677,-26.08,-24.18,-31.08,-12.35,0,0,0,0,0,0,0,0,0,0,0,0,0,0,0,0,
811,-46.52,-53.63,-27.8,-33.49,-52.85,-43.81,-15.97,-24.94,-37.13,-37.16,-34.69,-3.068,-37.68,-26.32,-34.68,-11.01,0,0,0,0,0,0,0,0,0,0,0,0,0,0,0,0,
812,-44.97,-49.44,-25.97,-28.11,-48.33,-37.66,-38.78,-11.26,-39.95,-37.34,-24.32,12.08,-31.2,-14.77,-23.26,5.45,0,0,0,0,0,0,0,0,0,0,0,0,0,0,0,0,
813,-26.24,-28.39,-22.68,-10.12,-39.22,-23.39,-17.43,7.683,-33.19,-22.59,-28.22,14.21,-32.66,-16.92,-26.2,3.329,0,0,0,0,0,0,0,0,0,0,0,0,0,0,0,0,
814,-24.58,-23.61,-35.38,-2.757,-42.35,-20.88,-21.77,7.988,-39.98,-22.97,-32.29,6.277,-44.13,-30.32,-33.36,-8.886,0,0,0,0,0,0,0,0,0,0,0,0,0,0,0,0,
815,-21.96,-15.23,-35.58,6.822,-40.63,-15.12,-51.52,-1.888,-50.78,-27.89,-20.99,-1.704,-46.55,-42.81,-34.85,-19.66,0,0,0,0,0,0,0,0,0,0,0,0,0,0,0,0,
816,-11.69,-5.454,-15.21,7.595,-30.99,-11.24,-25.6,-6.38,-48.81,-30.99,-19.09,-15.56,-44.0,-56.6,-38.83,-32.42,0,0,0,0,0,0,0,0,0,0,0,0,0,0,0,0,
817,-2.223,-2.927,4.759,1.859,-16.89,-7.831,13.71,-7.3,-35.63,-35.11,-11.87,-20.31,-31.7,-55.31,-30.86,-34.5,0,0,0,0,0,0,0,0,0,0,0,0,0,0,0,0,
818,12.32,6.072,16.99,11.04,-2.897,6.449,14.85,-11.93,-16.79,-26.49,10.44,-19.62,-9.325,-39.29,-12.52,-32.74,0,0,0,0,0,0,0,0,0,0,0,0,0,0,0,0,
819,26.6,19.88,36.26,31.78,13.51,26.18,53.89,1.312,5.958,-5.536,22.67,-24.99,13.75,-21.58,-1.13,-33.74,0,0,0,0,0,0,0,0,0,0,0,0,0,0,0,0,
820,31.36,26.03,52.5,38.37,28.12,36.18,80.35,22.01,31.37,15.73,17.48,-29.48,22.85,-7.936,-3.353,-33.98,0,0,0,0,0,0,0,0,0,0,0,0,0,0,0,0,
821,21.59,14.36,34.81,22.07,16.89,27.43,3.556,9.301,31.9,22.64,9.695,-26.65,13.47,0.6615,-7.971,-31.38,0,0,0,0,0,0,0,0,0,0,0,0,0,0,0,0,
822,14.86,4.072,19.78,20.72,4.785,24.23,-25.21,-2.91,14.22,24.71,17.09,-13.93,16.39,17.33,2.276,-16.09,0,0,0,0,0,0,0,0,0,0,0,0,0,0,0,0,
823,25.63,13.2,36.74,37.33,16.39,32.58,42.63,12.91,20.42,36.65,22.62,-6.631,29.0,32.17,9.871,-2.078,0,0,0,0,0,0,0,0,0,0,0,0,0,0,0,0,
824,32.81,19.87,45.36,34.71,23.43,28.88,69.46,17.89,32.43,37.96,11.06,-3.873,27.32,33.16,5.486,1.865,0,0,0,0,0,0,0,0,0,0,0,0,0,0,0,0,
825,26.04,15.26,37.01,22.46,19.56,17.71,74.25,3.919,31.89,25.71,1.439,3.83,21.97,27.7,3.65,4.282,0,0,0,0,0,0,0,0,0,0,0,0,0,0,0,0,
826,1.26,-2.613,13.35,7.127,-1.535,-4.17,50.64,-4.673,24.34,6.431,-5.454,-0.4302,7.455,10.15,-1.915,-1.814,0,0,0,0,0,0,0,0,0,0,0,0,0,0,0,0,
827,-31.53,-31.87,-23.76,-11.27,-35.99,-30.4,-53.42,6.773,-4.118,-15.37,-1.537,2.072,-8.428,1.181,-3.055,-1.763,0,0,0,0,0,0,0,0,0,0,0,0,0,0,0,0,
828,-38.35,-43.94,-36.48,-11.08,-43.81,-32.05,-87.42,17.75,-27.92,-11.93,12.19,21.87,-4.835,12.01,4.809,7.84,0,0,0,0,0,0,0,0,0,0,0,0,0,0,0,0,
829,-33.77,-40.59,-27.91,-7.768,-33.91,-28.1,-7.422,5.216,-23.59,-0.7124,0.7905,23.77,-6.125,9.853,2.32,4.465,0,0,0,0,0,0,0,0,0,0,0,0,0,0,0,0,
830,-40.44,-38.84,-23.75,-13.7,-33.44,-33.97,17.34,-2.802,-18.57,-8.647,-17.54,15.39,-17.54,-0.2731,-2.982,-0.3019,0,0,0,0,0,0,0,0,0,0,0,0,0,0,0,0,
831,-41.65,-33.67,-25.46,-13.9,-36.51,-32.58,-22.57,1.759,-26.11,-13.44,-16.11,11.21,-23.28,-5.326,-3.438,-0.3165,0,0,0,0,0,0,0,0,0,0,0,0,0,0,0,0,
832,-29.43,-21.04,-28.35,-6.518,-31.63,-22.08,-25.01,8.027,-34.38,-12.04,-11.16,5.813,-25.96,-12.94,-4.465,-2.318,0,0,0,0,0,0,0,0,0,0,0,0,0,0,0,0,
833,-9.331,-3.68,-23.02,1.224,-17.61,-11.45,-25.19,10.15,-31.44,-13.67,-7.642,1.699,-29.44,-21.32,-11.33,-7.736,0,0,0,0,0,0,0,0,0,0,0,0,0,0,0,0,
834,-6.762,-1.052,-23.08,-6.824,-16.86,-16.26,-59.52,-19.29,-34.55,-24.6,-8.709,-11.53,-39.69,-34.68,-25.14,-22.68,0,0,0,0,0,0,0,0,0,0,0,0,0,0,0,0,
835,-14.32,-1.793,-14.75,-9.565,-9.135,-15.78,-33.85,-32.18,-45.03,-36.09,-4.042,-17.89,-33.0,-32.17,-19.74,-24.33,0,0,0,0,0,0,0,0,0,0,0,0,0,0,0,0,
836,5.921,18.62,26.21,14.43,31.36,9.643,52.7,4.36,-17.07,-15.13,9.995,-10.34,-1.332,-9.482,-2.429,-14.24,0,0,0,0,0,0,0,0,0,0,0,0,0,0,0,0,
837,18.93,24.44,42.38,21.0,49.32,17.85,61.01,6.089,23.13,9.898,14.68,-16.35,14.9,-4.074,-0.5992,-19.76,0,0,0,0,0,0,0,0,0,0,0,0,0,0,0,0,
838,13.44,19.69,27.16,14.25,43.8,13.72,12.95,-13.03,26.96,10.1,25.89,-20.22,21.44,-2.86,6.974,-20.21,0,0,0,0,0,0,0,0,0,0,0,0,0,0,0,0,
839,27.51,35.48,37.2,27.85,56.08,25.78,33.38,10.26,29.87,17.94,33.27,-15.05,31.56,9.209,16.37,-11.44,0,0,0,0,0,0,0,0,0,0,0,0,0,0,0,0,
840,33.73,39.18,48.4,33.16,60.39,28.38,66.55,21.6,42.3,27.26,20.68,-12.2,31.01,16.64,15.24,-3.875,0,0,0,0,0,0,0,0,0,0,0,0,0,0,0,0,
841,27.72,33.06,38.09,23.01,55.81,23.63,27.49,1.016,41.42,25.65,26.21,-0.5833,32.01,24.67,22.99,10.78,0,0,0,0,0,0,0,0,0,0,0,0,0,0,0,0,
842,27.17,30.91,24.66,12.07,50.8,18.27,-1.771,-7.608,29.47,20.57,29.35,2.911,29.69,24.58,26.88,16.15,0,0,0,0,0,0,0,0,0,0,0,0,0,0,0,0,
843,13.08,19.65,17.44,9.468,38.82,9.892,29.09,4.597,16.87,9.602,9.957,4.63,23.07,21.86,24.5,19.92,0,0,0,0,0,0,0,0,0,0,0,0,0,0,0,0,
844,6.488,23.93,19.15,23.64,36.4,14.08,17.19,19.5,18.54,12.8,7.871,20.72,22.36,26.89,22.05,29.16,0,0,0,0,0,0,0,0,0,0,0,0,0,0,0,0,
845,4.314,25.58,-1.174,20.01,17.88,3.154,-50.05,19.87,6.308,13.44,1.237,17.09,2.236,12.41,1.513,17.27,0,0,0,0,0,0,0,0,0,0,0,0,0,0,0,0,
846,-22.54,-2.874,-40.38,-5.591,-19.57,-27.76,-56.27,11.93,-33.52,-11.4,-23.92,4.069,-23.22,-7.354,-15.4,4.399,0,0,0,0,0,0,0,0,0,0,0,0,0,0,0,0,
847,-40.77,-18.37,-50.82,-15.84,-28.93,-38.75,-23.33,-4.952,-48.6,-24.51,-32.59,7.732,-25.94,-8.207,-13.81,7.053,0,0,0,0,0,0,0,0,0,0,0,0,0,0,0,0,
848,-37.79,-14.67,-39.35,-15.33,-18.55,-34.17,-21.18,-17.32,-39.77,-22.66,-32.93,10.87,-25.1,-4.79,-12.85,8.392,0,0,0,0,0,0,0,0,0,0,0,0,0,0,0,0,
