%OpenBCI Raw EXG Data
%Number of channels = 16
%Sample Rate = 125 Hz
%Board = OpenBCI_GUI$BoardCytonSerialDaisy
Sample Index,EXG Channel 0,EXG Channel 1,EXG Channel 2,EXG Channel 3,EXG Channel 4,EXG Channel 5,EXG Channel 6,EXG Channel 7,EXG Channel 8,EXG Channel 9,EXG Channel 10,EXG Channel 11,EXG Channel 12,EXG Channel 13,EXG Channel 14,EXG Channel 15,Accel Channel 0,Accel Channel 1,Accel Channel 2,Other,Other.1,Other.2,Other.3,Other.4,Other.5,Other.6,Analog Channel 0,Analog Channel 1,Analog Channel 2,Timestamp,Other.7,Timestamp (Formatted),Annotations
1,-0.0,0.0,0.0,0.0,0.0,0.0,-0.0,0.0,-0.0,0.0,0.0,0.0,-0.0,-0.0,0.0,0.0,0,0,0,0,0,0,0,0,0,0,0,0,0,0,0,0,T0
2,-31.31,96.05,-16.07,-12.02,-34.63,-46.77,59.32,-84.28,-38.51,-23.21,-39.89,-21.64,-20.32,-35.31,-27.52,-25.8,0,0,0,0,0,0,0,0,0,0,0,0,0,0,0,0,
3,75.51,126.8,115.5,170.0,39.15,-8.362,137.8,-86.04,1.965,-20.24,2.838,3.659,22.84,0.1368,12.29,6.453,0,0,0,0,0,0,0,0,0,0,0,0,0,0,0,0,
4,120.0,100.2,179.4,96.68,61.34,56.51,147.0,-70.27,41.49,35.81,37.93,36.2,55.46,57.38,51.17,33.17,0,0,0,0,0,0,0,0,0,0,0,0,0,0,0,0,
5,87.54,125.6,77.36,8.183,32.71,22.44,126.2,-40.15,45.11,91.63,26.6,15.84,54.69,47.87,38.9,16.78,0,0,0,0,0,0,0,0,0,0,0,0,0,0,0,0,
6,54.05,143.6,7.198,128.6,63.97,-18.49,129.3,9.626,54.14,45.95,3.825,-25.97,43.09,1.337,4.964,-9.175,0,0,0,0,0,0,0,0,0,0,0,0,0,0,0,0,
7,20.15,72.95,74.39,61.63,81.2,46.77,115.0,-13.89,58.9,-7.31,-4.311,-17.8,25.72,6.374,-4.382,-12.76,0,0,0,0,0,0,0,0,0,0,0,0,0,0,0,0,
8,106.1,66.04,144.2,3.716,38.2,46.59,97.61,-60.63,42.91,33.07,1.914,2.071,14.03,18.88,3.889,-5.256,0,0,0,0,0,0,0,0,0,0,0,0,0,0,0,0,
9,186.4,137.9,112.9,107.5,7.865,-59.53,93.79,-33.76,11.97,28.46,-13.92,-12.8,-4.198,-13.29,-13.86,-14.66,0,0,0,0,0,0,0,0,0,0,0,0,0,0,0,0,
10,48.78,131.1,75.18,89.34,21.45,-74.45,91.6,-20.12,-15.91,-26.52,-29.67,-13.17,-18.95,-24.32,-40.11,-27.5,0,0,0,0,0,0,0,0,0,0,0,0,0,0,0,0,
11,-62.54,67.52,61.08,117.6,26.31,-26.44,84.37,-44.85,-30.5,-22.33,-40.45,-12.94,-29.53,-22.56,-59.21,-40.62,0,0,0,0,0,0,0,0,0,0,0,0,0,0,0,0,
12,27.36,49.49,35.61,152.0,5.483,-3.615,70.06,-52.03,-42.93,-14.21,-74.3,-40.25,-56.47,-41.71,-77.35,-58.4,0,0,0,0,0,0,0,0,0,0,0,0,0,0,0,0,
13,90.93,86.54,50.59,22.36,20.77,29.48,74.44,-64.77,-33.53,-2.928,-72.22,-42.24,-59.17,-37.87,-63.6,-54.69,0,0,0,0,0,0,0,0,0,0,0,0,0,0,0,0,
14,51.03,120.2,41.79,61.29,48.14,27.7,70.62,-35.08,-9.035,11.3,-37.87,-14.53,-29.9,-20.68,-22.56,-27.66,0,0,0,0,0,0,0,0,0,0,0,0,0,0,0,0,
15,50.51,93.42,13.87,130.9,40.36,20.65,65.11,-0.551,2.371,12.48,-19.21,10.9,-8.355,-4.349,8.943,1.417,0,0,0,0,0,0,0,0,0,0,0,0,0,0,0,0,
16,89.52,29.76,97.43,-3.737,40.56,34.53,117.5,-112.9,18.26,79.96,9.093,-10.09,-5.827,-10.36,-2.624,-12.41,0,0,0,0,0,0,0,0,0,0,0,0,0,0,0,0,
17,99.16,14.49,103.2,11.28,12.85,-29.42,114.4,-197.8,-14.07,60.8,11.06,-67.85,-25.79,-55.92,-43.11,-52.11,0,0,0,0,0,0,0,0,0,0,0,0,0,0,0,0,
18,99.86,92.93,-38.23,100.2,-47.08,-61.68,28.08,-78.54,-81.09,-74.05,-25.49,-49.42,-32.85,-46.04,-36.52,-25.32,0,0,0,0,0,0,0,0,0,0,0,0,0,0,0,0,
19,36.94,150.0,-5.242,49.98,-19.81,4.113,41.85,7.014,-44.51,-25.77,-36.77,-7.052,-14.65,-5.795,-16.54,4.183,0,0,0,0,0,0,0,0,0,0,0,0,0,0,0,0,
20,-88.88,77.92,117.4,37.82,54.26,10.61,108.7,-28.79,15.63,57.45,-22.69,-23.87,4.887,-5.41,-21.45,-17.46,0,0,0,0,0,0,0,0,0,0,0,0,0,0,0,0,
21,-54.51,14.33,32.79,-8.333,61.69,3.258,94.69,-29.65,7.825,-2.522,0.2538,2.266,33.34,33.03,14.63,11.51,0,0,0,0,0,0,0,0,0,0,0,0,0,0,0,0,
22,73.63,27.03,-66.6,-38.0,45.52,29.14,73.59,-26.45,34.01,34.93,1.833,14.03,23.7,33.95,24.6,26.17,0,0,0,0,0,0,0,0,0,0,0,0,0,0,0,0,
23,24.98,32.15,17.36,95.33,53.93,24.42,80.31,-41.45,37.93,74.37,-22.42,-32.86,-12.14,-23.98,-22.01,-21.07,0,0,0,0,0,0,0,0,0,0,0,0,0,0,0,0,
24,-33.18,75.09,101.0,85.58,34.04,40.55,74.35,-40.17,-20.73,12.64,-17.02,5.12,4.098,16.56,-9.581,-1.605,0,0,0,0,0,0,0,0,0,0,0,0,0,0,0,0,
25,42.41,123.4,64.36,-12.66,-34.56,-0.9257,52.63,-67.36,-31.24,29.79,-16.31,22.1,-8.835,23.75,7.597,20.07,0,0,0,0,0,0,0,0,0,0,0,0,0,0,0,0,
26,70.43,112.6,47.95,92.71,-48.15,-94.32,48.96,-65.74,-35.86,1.844,-32.93,-52.35,-54.63,-61.17,-23.2,-26.4,0,0,0,0,0,0,0,0,0,0,0,0,0,0,0,0,
27,62.61,144.6,96.07,97.39,12.93,-49.01,104.0,-38.65,-37.87,-65.71,-17.58,-43.1,-24.65,-37.56,-23.3,-35.63,0,0,0,0,0,0,0,0,0,0,0,0,0,0,0,0,
28,47.0,146.5,47.11,-49.53,16.98,15.26,123.4,-56.02,23.62,7.691,-27.17,-12.12,-5.992,-1.103,-23.42,-23.95,0,0,0,0,0,0,0,0,0,0,0,0,0,0,0,0,
29,-43.18,26.71,-58.24,-1.65,-2.856,15.17,47.74,-24.81,43.18,42.29,-60.31,-33.67,-36.04,-39.58,-35.29,-27.21,0,0,0,0,0,0,0,0,0,0,0,0,0,0,0,0,
30,-55.47,-27.55,-23.24,94.11,38.59,49.55,35.85,-4.835,8.752,1.476,-51.5,-14.51,-26.59,-30.35,-12.09,-14.16,0,0,0,0,0,0,0,0,0,0,0,0,0,0,0,0,
31,32.99,37.17,47.41,90.36,34.46,-1.915,93.97,-82.91,-0.7889,6.146,-42.75,-21.09,-24.42,-38.06,-2.412,-23.99,0,0,0,0,0,0,0,0,0,0,0,0,0,0,0,0,
32,32.06,76.36,23.56,106.8,-21.94,-61.59,64.87,-79.6,-21.03,-27.31,-42.45,-54.71,-44.92,-68.24,-13.8,-41.82,0,0,0,0,0,0,0,0,0,0,0,0,0,0,0,0,
33,1.913,70.02,75.37,73.21,-17.24,18.47,30.61,-23.91,-37.97,-35.26,-18.32,-22.24,-28.7,-24.3,1.375,-19.38,0,0,0,0,0,0,0,0,0,0,0,0,0,0,0,0,
34,44.38,82.45,164.1,52.73,19.33,8.998,90.44,-46.15,-13.79,32.56,5.114,-12.11,-6.056,-6.244,18.12,-1.473,0,0,0,0,0,0,0,0,0,0,0,0,0,0,0,0,
35,35.13,105.1,53.52,90.27,25.29,-60.22,114.8,-36.13,6.463,37.61,17.44,-24.86,3.539,-22.79,15.79,-2.897,0,0,0,0,0,0,0,0,0,0,0,0,0,0,0,0,
36,6.994,104.0,-25.52,5.694,30.31,26.85,93.46,-7.481,26.63,22.95,29.89,33.85,26.33,30.67,31.02,17.58,0,0,0,0,0,0,0,0,0,0,0,0,0,0,0,0,
37,75.44,117.0,118.4,-12.09,56.7,82.28,124.5,-15.09,60.02,50.66,39.78,54.29,41.44,63.29,52.34,31.64,0,0,0,0,0,0,0,0,0,0,0,0,0,0,0,0,
38,61.78,93.86,108.1,101.4,46.86,13.11,118.3,-5.584,40.93,33.91,12.43,-24.27,10.65,4.465,24.1,-3.383,0,0,0,0,0,0,0,0,0,0,0,0,0,0,0,0,
39,-44.31,-22.3,-24.47,26.82,-1.213,-8.229,58.49,-29.18,-16.96,-9.552,-41.19,-57.96,-24.95,-31.91,-8.123,-27.81,0,0,0,0,0,0,0,0,0,0,0,0,0,0,0,0,
40,2.458,-38.01,85.36,-50.39,-1.653,3.95,73.36,-54.24,-17.03,-10.43,-26.67,-20.52,-3.147,-6.97,11.68,-4.434,0,0,0,0,0,0,0,0,0,0,0,0,0,0,0,0,
41,77.25,62.5,146.9,61.81,7.328,-21.29,93.54,-25.37,6.065,-6.165,28.78,-13.33,20.82,1.404,20.43,7.775,0,0,0,0,0,0,0,0,0,0,0,0,0,0,0,0,
42,59.32,70.58,25.66,83.62,-19.48,-24.01,52.38,-29.39,-7.353,-23.84,14.11,-23.7,1.398,-7.021,4.099,5.66,0,0,0,0,0,0,0,0,0,0,0,0,0,0,0,0,
43,96.74,71.91,67.58,44.02,-6.839,7.291,62.43,-42.62,-2.699,-4.097,-24.68,-7.826,-5.131,0.953,5.81,11.08,0,0,0,0,0,0,0,0,0,0,0,0,0,0,0,0,
44,67.4,115.1,102.3,82.02,10.29,-22.87,85.96,-36.11,-0.8766,21.33,-13.09,-1.188,-1.577,-7.202,9.218,5.772,0,0,0,0,0,0,0,0,0,0,0,0,0,0,0,0,
45,-42.66,85.1,-19.49,72.39,-6.183,-107.6,35.67,-75.49,-30.98,-33.11,-1.232,-16.17,-18.37,-30.24,13.03,5.603,0,0,0,0,0,0,0,0,0,0,0,0,0,0,0,0,
46,-1.604,71.12,25.0,1.367,18.08,-75.0,30.89,-108.7,-15.6,-37.59,-21.24,-25.55,-23.8,-27.39,11.71,0.9879,0,0,0,0,0,0,0,0,0,0,0,0,0,0,0,0,
47,50.4,44.74,131.3,-47.41,33.82,51.17,103.4,-93.64,8.807,67.63,-26.6,-17.95,-14.85,-13.82,-12.7,-25.39,0,0,0,0,0,0,0,0,0,0,0,0,0,0,0,0,
48,3.312,-58.56,28.82,-10.6,-26.47,32.16,90.53,-70.49,-26.22,51.26,-17.45,-18.63,-17.87,-29.06,-23.83,-30.31,0,0,0,0,0,0,0,0,0,0,0,0,0,0,0,0,
49,4.808,-21.05,-55.47,58.0,-68.22,-75.97,14.03,-35.78,-56.5,-73.08,-28.14,-45.47,-21.63,-58.13,-12.76,-15.89,0,0,0,0,0,0,0,0,0,0,0,0,0,0,0,0,
50,4.832,107.5,40.8,28.15,-23.92,-58.51,42.12,-7.591,-45.12,-76.09,-31.13,-42.65,-10.91,-48.85,-10.88,-16.41,0,0,0,0,0,0,0,0,0,0,0,0,0,0,0,0,
51,1.506,90.84,108.5,12.65,26.91,0.6454,97.12,-15.45,-12.51,-22.86,-28.62,-6.622,-9.695,-16.24,-24.77,-28.14,0,0,0,0,0,0,0,0,0,0,0,0,0,0,0,0,
52,63.84,62.82,45.58,88.13,18.88,13.42,63.24,-33.32,8.327,10.36,-44.95,-12.37,-16.51,-10.04,-33.2,-37.56,0,0,0,0,0,0,0,0,0,0,0,0,0,0,0,0,
53,53.95,85.9,-17.19,91.51,13.19,46.29,47.45,-48.16,-3.446,76.94,-34.83,-26.54,4.092,-4.433,-11.88,-27.28,0,0,0,0,0,0,0,0,0,0,0,0,0,0,0,0,
54,-15.57,17.53,-16.24,34.8,28.12,36.66,59.97,-48.57,-7.122,62.15,-4.676,-2.167,25.87,18.13,12.24,-2.868,0,0,0,0,0,0,0,0,0,0,0,0,0,0,0,0,
55,11.1,-11.17,21.15,19.62,8.398,-19.94,37.27,-20.77,2.563,-21.72,-0.6844,-1.571,18.62,16.57,4.06,11.32,0,0,0,0,0,0,0,0,0,0,0,0,0,0,0,0,
56,56.84,66.19,66.82,-9.791,-9.856,-17.95,43.55,-33.27,0.0259,-1.466,-19.26,-32.52,-1.279,-14.85,-20.26,6.081,0,0,0,0,0,0,0,0,0,0,0,0,0,0,0,0,
57,23.26,69.5,58.2,-22.06,-6.652,-25.91,51.09,-77.3,-7.015,26.28,-52.3,-30.91,-27.01,-31.31,-29.33,-3.364,0,0,0,0,0,0,0,0,0,0,0,0,0,0,0,0,
58,7.021,58.25,35.76,82.78,-12.42,-56.67,27.86,-28.64,-25.53,-21.37,-53.03,-2.485,-29.96,-5.955,-9.194,9.884,0,0,0,0,0,0,0,0,0,0,0,0,0,0,0,0,
59,69.67,90.02,67.98,151.4,3.198,6.213,50.89,7.796,-28.06,-8.103,-27.34,-4.469,-12.49,13.27,-1.233,12.24,0,0,0,0,0,0,0,0,0,0,0,0,0,0,0,0,
60,113.2,30.52,74.28,39.52,27.06,81.35,64.36,-74.02,1.372,45.34,-45.41,-21.06,-11.05,3.607,-20.88,-14.15,0,0,0,0,0,0,0,0,0,0,0,0,0,0,0,0,
61,62.12,-15.29,54.35,-37.09,29.15,46.79,30.09,-75.73,8.094,51.57,-55.38,-11.51,-0.8862,8.04,-13.66,-14.33,0,0,0,0,0,0,0,0,0,0,0,0,0,0,0,0,
62,-7.474,29.53,42.56,6.386,33.61,-29.42,47.25,-8.332,2.186,31.98,-26.5,-21.59,5.454,-3.804,2.55,-9.483,0,0,0,0,0,0,0,0,0,0,0,0,0,0,0,0,
63,-0.1642,38.28,3.993,-5.54,26.96,-50.92,78.61,-42.85,10.8,-15.79,-9.189,-44.99,-11.61,-34.95,-1.744,-25.36,0,0,0,0,0,0,0,0,0,0,0,0,0,0,0,0,
64,41.32,57.71,38.61,16.78,9.962,-32.4,46.69,-81.24,3.285,-30.91,12.02,-31.36,-8.743,-31.53,0.4051,-27.15,0,0,0,0,0,0,0,0,0,0,0,0,0,0,0,0,
65,39.32,78.87,116.1,95.22,10.68,-23.9,38.7,-70.42,-6.803,18.32,15.81,-44.33,-4.781,-46.85,-7.32,-42.05,0,0,0,0,0,0,0,0,0,0,0,0,0,0,0,0,
66,12.37,22.63,72.19,24.31,18.22,5.886,91.22,-29.72,1.297,-2.723,-8.541,-64.92,0.8188,-58.5,-12.59,-50.83,0,0,0,0,0,0,0,0,0,0,0,0,0,0,0,0,
67,-11.51,21.73,36.66,-35.57,34.55,47.19,105.5,16.57,18.43,-39.08,-6.172,-14.27,32.95,4.878,11.09,-8.256,0,0,0,0,0,0,0,0,0,0,0,0,0,0,0,0,
68,1.767,78.06,70.94,58.15,51.21,32.89,68.45,-42.48,47.74,74.91,-1.61,7.261,28.36,24.55,20.52,9.26,0,0,0,0,0,0,0,0,0,0,0,0,0,0,0,0,
69,65.97,86.07,16.08,62.4,37.53,24.84,44.36,-48.33,53.11,142.8,-10.39,-30.67,0.7455,-23.28,3.994,-20.99,0,0,0,0,0,0,0,0,0,0,0,0,0,0,0,0,
70,65.79,94.22,-24.02,5.134,18.6,43.49,45.39,50.02,9.694,17.28,-9.977,-27.24,9.042,-15.32,-17.98,-31.98,0,0,0,0,0,0,0,0,0,0,0,0,0,0,0,0,
71,26.18,106.5,68.39,84.12,27.78,18.88,78.75,-34.31,-7.32,-20.48,-12.19,-22.11,16.07,5.614,-27.55,-25.9,0,0,0,0,0,0,0,0,0,0,0,0,0,0,0,0,
72,74.05,107.2,113.2,127.1,25.25,0.5799,98.34,-115.0,21.8,63.26,-7.472,-43.13,9.646,-8.973,-16.81,-26.77,0,0,0,0,0,0,0,0,0,0,0,0,0,0,0,0,
73,78.26,105.1,74.89,31.98,-10.1,8.368,52.75,8.124,12.23,23.23,-5.533,-20.84,9.986,5.75,-14.22,-20.88,0,0,0,0,0,0,0,0,0,0,0,0,0,0,0,0,
74,32.45,95.39,109.3,18.15,-8.451,13.04,49.02,4.324,-5.253,24.21,-12.23,0.294,17.18,26.85,-9.909,-8.544,0,0,0,0,0,0,0,0,0,0,0,0,0,0,0,0,
75,83.2,126.2,132.2,81.42,30.59,33.74,107.8,-73.48,23.93,142.6,-11.78,-26.06,21.03,5.706,-4.062,-19.86,0,0,0,0,0,0,0,0,0,0,0,0,0,0,0,0,
76,75.36,133.9,37.63,42.65,41.38,17.05,100.5,8.949,16.86,68.04,-30.55,-24.62,4.569,-7.764,-23.51,-37.18,0,0,0,0,0,0,0,0,0,0,0,0,0,0,0,0,
77,2.954,68.05,6.457,-13.58,64.5,-9.919,58.26,30.52,3.616,-47.83,-39.85,1.548,-1.883,8.184,-16.45,-18.88,0,0,0,0,0,0,0,0,0,0,0,0,0,0,0,0,
78,39.34,52.14,63.0,-1.555,94.23,52.97,43.73,-30.94,50.56,58.85,-3.325,-11.93,10.88,5.365,12.8,-9.523,0,0,0,0,0,0,0,0,0,0,0,0,0,0,0,0,
79,39.29,77.63,39.41,29.94,52.73,94.07,35.41,6.003,33.25,93.62,19.53,-18.76,3.552,-7.694,0.5432,-27.39,0,0,0,0,0,0,0,0,0,0,0,0,0,0,0,0,
80,-24.49,81.51,7.277,92.78,-15.45,-3.46,45.54,16.32,-40.84,-28.64,-8.657,-7.756,-20.3,-9.444,-19.96,-27.12,0,0,0,0,0,0,0,0,0,0,0,0,0,0,0,0,
81,-0.9444,89.74,22.97,103.1,-53.81,-105.4,39.54,-60.07,-39.81,-37.57,-50.23,-39.82,-44.79,-31.2,-20.8,-30.05,0,0,0,0,0,0,0,0,0,0,0,0,0,0,0,0,
82,22.44,51.36,23.68,54.99,-34.76,-60.23,27.21,-60.41,-14.25,20.64,-31.2,-56.29,-36.76,-37.24,-8.642,-33.41,0,0,0,0,0,0,0,0,0,0,0,0,0,0,0,0,
83,9.565,11.05,45.43,107.0,34.46,34.63,70.28,7.882,-4.436,-0.1803,26.6,-13.53,10.65,8.524,20.13,-2.984,0,0,0,0,0,0,0,0,0,0,0,0,0,0,0,0,
84,20.61,70.2,24.81,138.4,43.77,33.55,93.33,6.029,21.56,-11.8,14.49,5.672,23.91,30.62,34.79,16.69,0,0,0,0,0,0,0,0,0,0,0,0,0,0,0,0,
85,1.228,104.7,-39.44,51.32,25.35,22.1,70.92,-38.99,29.06,41.48,-13.9,-7.018,14.57,10.56,29.02,10.66,0,0,0,0,0,0,0,0,0,0,0,0,0,0,0,0,
86,-27.78,38.8,18.12,31.13,66.81,44.04,70.54,-31.87,25.89,57.35,12.71,5.095,37.41,13.29,24.02,15.78,0,0,0,0,0,0,0,0,0,0,0,0,0,0,0,0,
87,17.8,20.76,94.69,51.48,59.71,11.04,64.86,-3.612,46.6,41.92,14.62,29.21,49.34,35.2,19.38,23.75,0,0,0,0,0,0,0,0,0,0,0,0,0,0,0,0,
88,85.76,66.0,39.64,22.21,1.389,-9.78,41.51,6.873,56.3,87.38,0.4007,24.38,36.42,31.4,13.66,10.54,0,0,0,0,0,0,0,0,0,0,0,0,0,0,0,0,
89,64.14,45.19,-16.49,61.21,-0.89,1.633,33.74,14.48,26.48,79.22,12.72,-8.762,28.06,4.195,6.214,-11.87,0,0,0,0,0,0,0,0,0,0,0,0,0,0,0,0,
90,19.47,28.22,13.79,182.6,12.88,-30.77,47.78,11.4,4.268,-19.92,7.436,-22.74,24.82,-2.559,5.035,-11.68,0,0,0,0,0,0,0,0,0,0,0,0,0,0,0,0,
91,64.91,104.5,62.65,255.9,20.28,-22.52,80.84,15.7,29.36,-22.85,5.53,-3.055,30.67,22.06,5.5,0.5233,0,0,0,0,0,0,0,0,0,0,0,0,0,0,0,0,
92,67.92,119.6,53.72,195.3,42.61,30.66,93.52,34.11,48.2,36.66,30.08,4.357,36.57,31.03,3.806,-3.941,0,0,0,0,0,0,0,0,0,0,0,0,0,0,0,0,
93,-5.372,41.1,-5.037,84.42,38.76,27.89,71.18,20.82,42.4,31.94,23.32,-18.02,24.68,-0.2423,14.8,-13.81,0,0,0,0,0,0,0,0,0,0,0,0,0,0,0,0,
94,32.84,37.57,-18.0,56.3,12.98,35.11,52.15,8.564,46.72,19.35,-23.5,-25.95,3.451,-18.95,9.046,-16.79,0,0,0,0,0,0,0,0,0,0,0,0,0,0,0,0,
95,100.2,88.7,46.23,78.82,25.77,85.09,54.61,38.38,36.1,41.38,-41.24,7.953,-0.5642,19.51,-10.98,-8.56,0,0,0,0,0,0,0,0,0,0,0,0,0,0,0,0,
96,35.6,68.47,116.6,127.9,62.61,70.59,70.25,29.07,21.89,80.75,-2.227,16.86,12.13,37.44,4.436,-1.521,0,0,0,0,0,0,0,0,0,0,0,0,0,0,0,0,
97,-45.72,-3.651,82.85,163.5,27.87,-12.2,53.6,-15.48,21.68,63.58,26.79,-24.1,5.928,-13.7,22.17,-9.303,0,0,0,0,0,0,0,0,0,0,0,0,0,0,0,0,
98,-56.21,-35.0,-61.48,71.45,-51.87,-49.47,5.709,13.93,-3.039,-25.31,8.827,-24.77,-8.603,-29.04,18.03,0.8547,0,0,0,0,0,0,0,0,0,0,0,0,0,0,0,0,
99,-41.01,-17.56,-127.3,16.84,-54.25,-20.64,9.081,30.41,-20.01,-44.7,-6.966,-5.863,-7.296,2.213,22.81,19.27,0,0,0,0,0,0,0,0,0,0,0,0,0,0,0,0,
100,-3.139,-10.04,-40.81,125.4,-28.66,-13.81,36.92,-64.26,-14.97,2.161,2.102,-20.18,-9.127,4.768,26.78,17.99,0,0,0,0,0,0,0,0,0,0,0,0,0,0,0,0,
101,53.74,16.72,25.5,141.2,-54.83,-38.2,15.31,-88.05,-29.58,14.79,2.986,0.6511,-5.379,13.32,26.36,26.43,0,0,0,0,0,0,0,0,0,0,0,0,0,0,0,0,
102,46.11,51.67,-4.569,53.61,-57.86,-42.95,28.99,23.42,-36.21,11.78,-12.87,23.28,17.03,24.93,33.33,27.76,0,0,0,0,0,0,0,0,0,0,0,0,0,0,0,0,
103,-37.51,4.571,2.297,82.23,2.514,-20.7,111.6,54.06,-3.632,10.9,1.697,-1.167,43.54,16.75,40.94,12.88,0,0,0,0,0,0,0,0,0,0,0,0,0,0,0,0,
104,-61.55,-40.07,92.5,110.6,54.51,27.49,105.7,-4.646,47.03,30.41,44.23,1.536,56.74,27.98,42.08,19.38,0,0,0,0,0,0,0,0,0,0,0,0,0,0,0,0,
105,-15.07,-19.23,96.23,49.97,22.87,57.92,14.3,26.18,51.55,39.88,39.16,12.61,35.47,24.43,30.32,18.05,0,0,0,0,0,0,0,0,0,0,0,0,0,0,0,0,
106,8.096,2.412,-1.511,66.84,-41.27,33.87,14.59,74.96,-1.821,5.939,0.7014,2.911,9.084,9.322,14.67,0.3765,0,0,0,0,0,0,0,0,0,0,0,0,0,0,0,0,
107,20.2,51.51,-36.18,125.5,-30.58,9.773,53.86,5.46,-17.11,26.43,-7.769,14.3,4.217,26.83,-0.8051,-3.942,0,0,0,0,0,0,0,0,0,0,0,0,0,0,0,0,
108,12.52,72.77,-67.31,112.7,-5.694,1.879,26.52,-31.71,-7.669,44.43,-7.266,8.856,-12.89,10.84,-10.83,-12.83,0,0,0,0,0,0,0,0,0,0,0,0,0,0,0,0,
109,21.42,16.5,-68.38,123.6,-19.61,-21.17,29.66,53.18,-28.51,-32.8,-17.17,-22.93,-32.57,-39.06,-2.908,-22.6,0,0,0,0,0,0,0,0,0,0,0,0,0,0,0,0,
110,89.15,5.204,105.6,143.0,12.86,-31.74,60.19,59.46,-10.23,-50.49,-15.96,-31.01,-28.74,-48.95,-3.365,-20.1,0,0,0,0,0,0,0,0,0,0,0,0,0,0,0,0,
111,70.3,20.33,170.9,81.27,56.8,17.72,61.55,-10.44,22.56,1.228,1.514,-17.58,-12.25,-27.43,-3.568,-11.79,0,0,0,0,0,0,0,0,0,0,0,0,0,0,0,0,
112,-1.087,21.31,21.38,66.72,29.87,67.12,77.54,17.73,8.508,-3.812,-1.963,2.913,1.475,1.886,17.44,3.936,0,0,0,0,0,0,0,0,0,0,0,0,0,0,0,0,
113,37.04,70.52,25.35,125.0,-2.508,26.78,63.78,27.78,2.273,8.654,-33.84,12.25,0.3963,24.39,14.01,9.511,0,0,0,0,0,0,0,0,0,0,0,0,0,0,0,0,
114,73.26,95.15,112.1,102.3,14.09,19.5,36.29,-29.24,13.87,80.95,-18.44,5.266,15.11,31.58,2.849,1.157,0,0,0,0,0,0,0,0,0,0,0,0,0,0,0,0,
115,63.03,68.66,54.03,61.07,36.14,106.5,68.76,9.081,28.72,97.57,16.55,-0.8251,37.31,27.06,20.21,-5.255,0,0,0,0,0,0,0,0,0,0,0,0,0,0,0,0,
116,87.69,50.46,26.63,95.68,40.14,78.37,65.3,60.75,52.66,33.15,-5.043,-7.878,17.37,11.15,26.42,-3.259,0,0,0,0,0,0,0,0,0,0,0,0,0,0,0,0,
117,92.51,37.13,44.65,82.41,59.09,-9.6,30.11,31.33,62.55,21.5,0.3831,-1.608,11.95,21.2,22.53,9.255,0,0,0,0,0,0,0,0,0,0,0,0,0,0,0,0,
118,93.51,67.55,47.67,41.46,79.18,46.14,56.22,30.25,54.85,78.81,33.29,15.98,37.17,50.05,23.68,12.71,0,0,0,0,0,0,0,0,0,0,0,0,0,0,0,0,
119,127.4,114.1,129.1,138.0,58.51,97.18,69.36,33.43,32.35,66.63,9.363,13.02,29.34,47.1,23.67,11.37,0,0,0,0,0,0,0,0,0,0,0,0,0,0,0,0,
120,124.4,122.7,130.2,247.2,47.24,61.31,58.42,-11.98,17.08,34.95,7.907,11.08,33.62,47.37,39.06,24.4,0,0,0,0,0,0,0,0,0,0,0,0,0,0,0,0,
121,122.8,159.4,13.61,195.3,81.16,58.89,83.79,-11.84,38.59,60.62,42.6,25.79,65.35,63.54,52.91,33.02,0,0,0,0,0,0,0,0,0,0,0,0,0,0,0,0,
122,203.2,192.7,37.13,145.4,101.4,71.61,87.34,45.26,64.88,47.12,32.98,27.15,63.53,54.04,51.48,38.41,0,0,0,0,0,0,0,0,0,0,0,0,0,0,0,0,
123,293.0,185.8,131.7,184.4,92.56,91.06,64.67,61.41,79.33,58.7,25.83,27.61,56.11,51.24,51.1,42.34,0,0,0,0,0,0,0,0,0,0,0,0,0,0,0,0,
124,295.8,231.6,138.3,174.1,87.84,128.3,94.54,36.17,80.58,143.2,49.55,54.93,70.18,75.94,52.21,37.36,0,0,0,0,0,0,0,0,0,0,0,0,0,0,0,0,
125,274.9,280.6,123.8,146.1,83.22,103.9,132.7,54.09,50.66,120.0,49.42,62.75,66.61,70.31,55.37,38.61,0,0,0,0,0,0,0,0,0,0,0,0,0,0,0,0,
126,289.0,255.4,87.41,155.1,87.1,62.62,95.85,85.53,30.93,16.2,22.42,21.88,43.2,30.77,50.23,31.61,0,0,0,0,0,0,0,0,0,0,0,0,0,0,0,0,
127,269.3,271.3,94.2,154.5,127.3,113.8,76.21,62.75,53.99,16.86,22.68,6.006,38.98,22.65,44.2,23.58,0,0,0,0,0,0,0,0,0,0,0,0,0,0,0,0,
128,274.3,363.4,180.2,215.7,142.6,165.3,132.7,59.27,67.97,68.27,55.39,18.5,41.23,23.72,46.63,28.1,0,0,0,0,0,0,0,0,0,0,0,0,0,0,0,0,
129,398.4,431.1,187.3,318.6,107.6,121.5,126.8,83.26,43.43,47.63,41.31,-8.737,11.39,-15.67,19.84,2.277,0,0,0,0,0,0,0,0,0,0,0,0,0,0,0,0,
130,511.9,469.1,198.9,324.8,145.5,133.9,75.85,34.92,35.22,14.43,-2.323,-28.86,-2.534,-31.99,-8.756,-27.98,0,0,0,0,0,0,0,0,0,0,0,0,0,0,0,0,
131,528.5,473.1,285.2,268.7,209.1,220.2,103.9,-11.68,54.39,30.18,14.17,-19.65,21.62,-16.67,11.17,-15.28,0,0,0,0,0,0,0,0,0,0,0,0,0,0,0,0,
132,515.6,439.7,239.2,227.9,166.5,185.6,117.5,44.61,45.39,29.87,33.5,-16.06,23.2,-10.39,36.87,13.04,0,0,0,0,0,0,0,0,0,0,0,0,0,0,0,0,
133,543.9,509.9,166.7,223.9,158.2,152.2,78.55,82.04,56.35,42.39,5.54,20.2,17.93,35.18,42.93,39.7,0,0,0,0,0,0,0,0,0,0,0,0,0,0,0,0,
134,634.4,654.6,241.9,290.3,219.7,247.5,79.65,27.73,108.3,119.7,-5.588,46.78,23.56,65.75,33.93,37.77,0,0,0,0,0,0,0,0,0,0,0,0,0,0,0,0,
135,661.9,675.3,290.3,372.3,215.2,253.3,88.94,26.16,88.69,130.2,-3.509,18.04,14.0,25.14,-0.4778,3.759,0,0,0,0,0,0,0,0,0,0,0,0,0,0,0,0,
136,596.7,653.6,289.3,354.7,218.7,195.7,76.76,91.66,40.37,63.04,-21.92,12.52,20.85,25.28,-24.07,-4.579,0,0,0,0,0,0,0,0,0,0,0,0,0,0,0,0,
137,621.7,679.1,301.5,262.5,247.9,249.2,74.58,77.61,67.39,65.47,-25.78,22.22,40.28,57.5,-5.348,13.68,0,0,0,0,0,0,0,0,0,0,0,0,0,0,0,0,
138,699.1,655.1,217.1,255.9,234.3,296.5,67.42,48.77,102.8,115.7,1.719,21.26,49.07,52.7,15.32,24.12,0,0,0,0,0,0,0,0,0,0,0,0,0,0,0,0,
139,671.0,644.8,159.9,335.6,241.4,257.8,51.95,103.0,106.3,121.1,20.03,39.5,60.45,59.15,1.22,16.34,0,0,0,0,0,0,0,0,0,0,0,0,0,0,0,0,
140,614.2,667.7,304.6,358.4,252.8,201.6,72.05,130.9,89.43,82.16,18.61,38.77,56.42,65.75,-1.204,8.95,0,0,0,0,0,0,0,0,0,0,0,0,0,0,0,0,
141,605.0,640.5,413.9,345.4,253.3,196.5,120.3,113.9,66.75,83.3,28.98,36.15,56.32,66.84,35.02,32.2,0,0,0,0,0,0,0,0,0,0,0,0,0,0,0,0,
142,647.2,651.6,314.3,338.0,257.4,257.4,107.1,105.4,85.97,155.0,38.8,59.41,78.34,93.94,45.06,47.82,0,0,0,0,0,0,0,0,0,0,0,0,0,0,0,0,
143,730.3,667.0,240.2,305.1,212.9,293.9,80.48,75.96,112.9,164.9,44.93,50.36,86.96,100.0,37.2,38.29,0,0,0,0,0,0,0,0,0,0,0,0,0,0,0,0,
144,683.3,581.2,247.9,301.0,206.6,283.6,134.3,57.8,120.5,111.1,56.9,32.94,92.13,83.99,52.26,39.62,0,0,0,0,0,0,0,0,0,0,0,0,0,0,0,0,
145,499.9,549.0,186.4,302.5,238.0,232.0,113.9,64.86,124.7,104.9,21.24,30.01,78.41,64.49,27.61,21.28,0,0,0,0,0,0,0,0,0,0,0,0,0,0,0,0,
146,472.6,603.3,207.4,266.1,185.1,132.0,17.85,68.68,86.07,86.03,-15.71,4.383,37.6,26.53,-17.38,-9.145,0,0,0,0,0,0,0,0,0,0,0,0,0,0,0,0,
147,571.4,557.6,318.3,236.1,159.3,120.2,60.67,81.69,49.7,57.77,33.38,4.794,47.02,23.81,1.962,5.188,0,0,0,0,0,0,0,0,0,0,0,0,0,0,0,0,
148,539.1,462.2,259.4,201.3,174.9,157.9,109.1,72.09,64.44,71.34,55.81,31.77,72.37,45.85,34.19,27.15,0,0,0,0,0,0,0,0,0,0,0,0,0,0,0,0,
149,458.1,432.3,171.3,193.8,120.2,73.01,48.64,57.39,56.89,25.4,-10.15,3.908,31.25,5.656,18.55,11.68,0,0,0,0,0,0,0,0,0,0,0,0,0,0,0,0,
150,412.6,333.0,188.2,177.2,102.5,23.42,72.27,53.46,30.19,-38.75,-37.81,-31.05,-4.702,-36.86,-2.713,-12.95,0,0,0,0,0,0,0,0,0,0,0,0,0,0,0,0,
151,351.6,207.8,167.0,104.0,140.4,131.1,132.4,2.253,34.86,12.49,8.788,7.558,29.18,15.22,20.69,4.488,0,0,0,0,0,0,0,0,0,0,0,0,0,0,0,0,
152,356.0,293.7,208.6,163.9,141.0,190.7,102.4,4.628,50.66,88.58,63.99,47.27,77.59,74.52,67.27,55.5,0,0,0,0,0,0,0,0,0,0,0,0,0,0,0,0,
153,346.4,397.3,267.6,240.4,141.0,106.1,90.14,71.75,70.22,60.91,79.55,18.16,79.09,39.41,66.85,63.25,0,0,0,0,0,0,0,0,0,0,0,0,0,0,0,0,
154,250.4,302.6,164.8,119.3,131.5,24.06,88.04,21.5,84.36,0.6574,41.19,-7.303,38.45,-7.332,17.22,25.98,0,0,0,0,0,0,0,0,0,0,0,0,0,0,0,0,
155,261.9,243.6,108.7,109.7,83.95,54.3,32.44,-24.21,51.07,12.88,5.651,9.01,7.689,4.198,-14.91,3.096,0,0,0,0,0,0,0,0,0,0,0,0,0,0,0,0,
156,314.0,229.2,117.5,184.2,35.04,95.62,14.44,57.71,-11.97,15.18,-3.181,1.03,5.866,0.1363,-12.36,-6.367,0,0,0,0,0,0,0,0,0,0,0,0,0,0,0,0,
157,277.5,133.8,77.82,53.63,-3.521,40.62,27.07,45.88,-24.78,-38.86,-38.86,-29.98,-2.332,-32.01,-23.3,-23.01,0,0,0,0,0,0,0,0,0,0,0,0,0,0,0,0,
158,301.1,142.3,157.8,20.91,-0.9077,11.11,0.8962,-19.17,-3.507,-18.54,-66.97,-33.51,-18.55,-28.46,-52.71,-42.98,0,0,0,0,0,0,0,0,0,0,0,0,0,0,0,0,
159,327.2,219.8,203.9,143.4,51.08,81.9,20.77,61.49,-12.54,44.47,-27.42,-24.15,-2.933,0.3216,-38.07,-41.17,0,0,0,0,0,0,0,0,0,0,0,0,0,0,0,0,
160,276.2,225.5,62.4,112.7,86.65,113.2,77.66,95.59,6.828,44.37,0.5426,-13.02,25.48,26.0,-5.654,-19.46,0,0,0,0,0,0,0,0,0,0,0,0,0,0,0,0,
161,248.9,243.9,37.41,40.32,86.54,65.48,29.79,0.165,49.27,59.0,-24.57,19.0,23.92,49.52,-19.82,-16.31,0,0,0,0,0,0,0,0,0,0,0,0,0,0,0,0,
162,154.0,191.9,122.6,20.11,84.08,42.06,-31.88,19.75,23.71,80.91,-20.99,40.61,20.04,50.18,-18.81,-13.27,0,0,0,0,0,0,0,0,0,0,0,0,0,0,0,0,
163,47.37,74.31,112.7,29.47,78.95,55.33,19.19,110.0,0.4435,40.23,4.118,21.74,30.96,28.13,17.1,8.957,0,0,0,0,0,0,0,0,0,0,0,0,0,0,0,0,
164,127.8,70.66,81.48,103.7,60.03,33.74,42.28,75.26,20.55,3.241,-1.167,7.196,24.24,18.05,22.53,13.91,0,0,0,0,0,0,0,0,0,0,0,0,0,0,0,0,
165,188.8,43.86,38.37,61.51,35.97,-10.92,-12.46,15.58,3.509,-4.827,-14.52,8.502,-3.083,8.942,9.887,0.9592,0,0,0,0,0,0,0,0,0,0,0,0,0,0,0,0,
166,117.9,-18.85,11.97,-37.11,3.922,29.43,-9.266,26.66,-23.63,8.384,-28.97,-5.447,-20.12,-4.382,6.402,-3.555,0,0,0,0,0,0,0,0,0,0,0,0,0,0,0,0,
167,118.2,85.13,58.47,17.84,-7.115,111.0,34.97,32.95,-11.57,51.24,-27.27,-8.877,-3.157,12.27,12.28,5.283,0,0,0,0,0,0,0,0,0,0,0,0,0,0,0,0,
168,87.9,119.0,-1.14,27.23,30.17,38.82,18.02,-6.349,6.839,32.91,-1.199,-6.425,14.29,16.39,9.449,4.221,0,0,0,0,0,0,0,0,0,0,0,0,0,0,0,0,
169,-35.54,-49.17,-111.4,-22.35,40.85,-85.45,-5.286,-72.0,2.748,-39.59,2.179,-7.279,14.14,8.144,-8.648,-4.625,0,0,0,0,0,0,0,0,0,0,0,0,0,0,0,0,
170,3.015,-68.21,-30.64,39.22,-0.7202,-41.04,34.89,-81.77,-2.881,-19.07,5.238,31.44,46.47,60.91,25.8,29.42,0,0,0,0,0,0,0,0,0,0,0,0,0,0,0,0,
171,65.5,31.76,62.61,14.34,-23.94,2.272,37.55,-5.063,19.46,49.36,22.95,42.43,62.97,72.61,70.92,57.38,0,0,0,0,0,0,0,0,0,0,0,0,0,0,0,0,
172,-76.98,-25.41,16.39,-108.5,-33.63,-66.28,-15.27,36.3,16.26,16.69,7.675,-12.98,15.73,-10.53,24.64,14.13,0,0,0,0,0,0,0,0,0,0,0,0,0,0,0,0,
173,-114.9,-89.09,20.59,-74.83,-41.62,-71.67,1.907,2.634,-23.19,-70.55,-12.52,-28.09,-3.192,-35.01,-21.77,-14.87,0,0,0,0,0,0,0,0,0,0,0,0,0,0,0,0,
174,33.76,-41.3,54.7,39.72,-17.8,-35.69,25.84,-24.09,-19.78,-78.06,-13.11,-11.0,7.898,-3.634,-14.24,0.0592,0,0,0,0,0,0,0,0,0,0,0,0,0,0,0,0,
175,54.84,-10.35,11.04,29.44,28.03,4.637,8.657,-17.0,-3.947,11.88,-15.5,-16.09,5.757,6.066,-28.83,-4.236,0,0,0,0,0,0,0,0,0,0,0,0,0,0,0,0,
176,0.201,-19.8,-19.8,-69.05,53.39,65.7,39.3,4.372,-10.07,68.69,-21.77,-15.16,16.47,21.09,-44.45,-14.81,0,0,0,0,0,0,0,0,0,0,0,0,0,0,0,0,
177,-6.191,-47.0,-39.4,-52.6,25.85,27.12,37.25,8.537,3.062,19.47,-24.79,-7.403,19.64,31.47,-25.24,-3.841,0,0,0,0,0,0,0,0,0,0,0,0,0,0,0,0,
178,-52.09,-41.49,-29.25,70.66,17.85,5.907,17.55,-6.83,15.53,10.48,15.9,31.07,47.06,59.7,16.02,30.44,0,0,0,0,0,0,0,0,0,0,0,0,0,0,0,0,
179,-54.06,-1.954,63.35,38.94,44.23,42.61,70.49,-15.72,24.04,47.46,61.69,66.55,91.3,78.77,63.23,62.32,0,0,0,0,0,0,0,0,0,0,0,0,0,0,0,0,
180,6.029,-45.24,58.99,-90.29,-33.21,-96.01,39.62,-23.54,20.1,-35.34,35.06,22.16,43.86,7.931,62.36,48.39,0,0,0,0,0,0,0,0,0,0,0,0,0,0,0,0,
181,-36.67,-107.1,-38.17,-117.1,-117.5,-196.2,-45.88,-24.83,-36.18,-110.5,13.25,-8.62,-11.53,-38.2,15.57,13.28,0,0,0,0,0,0,0,0,0,0,0,0,0,0,0,0,
182,-114.3,-120.9,-18.76,-137.4,-56.79,-71.4,-28.22,-19.09,-70.79,-56.85,18.11,6.804,3.34,-15.78,-12.5,-10.16,0,0,0,0,0,0,0,0,0,0,0,0,0,0,0,0,
183,-91.41,-160.4,-3.097,-117.5,-27.59,-25.17,-4.797,-23.13,-44.12,-40.08,-11.93,-23.29,-8.521,-36.31,-16.07,-24.01,0,0,0,0,0,0,0,0,0,0,0,0,0,0,0,0,
184,-80.44,-136.0,-103.6,-56.07,-83.58,-60.91,-3.333,-41.22,-40.63,-61.63,-16.81,-39.36,-23.17,-46.86,-18.07,-17.26,0,0,0,0,0,0,0,0,0,0,0,0,0,0,0,0,
185,-140.4,-70.69,-128.6,-115.0,-76.52,-37.1,0.9808,-72.32,-64.33,-37.74,2.25,-11.55,-8.902,-22.52,-17.01,-6.988,0,0,0,0,0,0,0,0,0,0,0,0,0,0,0,0,
186,-119.5,-92.49,-26.82,-65.13,-50.22,-40.85,-22.4,-40.98,-64.43,-38.62,-8.012,-15.13,-14.38,-28.85,-8.196,-8.699,0,0,0,0,0,0,0,0,0,0,0,0,0,0,0,0,
187,-38.49,-69.83,46.51,97.15,-69.51,-52.35,10.29,38.26,-60.96,-63.85,-1.369,-6.967,2.33,-5.467,11.01,10.21,0,0,0,0,0,0,0,0,0,0,0,0,0,0,0,0,
188,-59.04,-24.04,37.38,4.92,-69.08,-72.86,64.36,-7.897,-52.95,-48.81,12.93,34.01,31.82,44.84,35.49,45.56,0,0,0,0,0,0,0,0,0,0,0,0,0,0,0,0,
189,-100.7,-82.25,13.01,-118.3,-23.08,-85.47,51.68,-102.2,-7.326,19.89,8.289,22.22,21.28,32.88,33.88,39.94,0,0,0,0,0,0,0,0,0,0,0,0,0,0,0,0,
190,-107.5,-100.6,-16.38,-81.2,6.028,-4.734,34.76,-54.74,9.704,46.61,25.98,-14.36,19.06,6.853,10.53,7.735,0,0,0,0,0,0,0,0,0,0,0,0,0,0,0,0,
191,-169.7,-104.2,-75.03,-120.3,-29.01,6.28,3.821,20.83,-36.02,-40.29,46.73,7.01,32.48,23.8,22.1,22.97,0,0,0,0,0,0,0,0,0,0,0,0,0,0,0,0,
192,-169.6,-205.7,-83.03,-120.9,-64.66,-96.67,-31.47,10.68,-40.33,-70.08,33.4,27.08,20.69,25.44,43.99,48.33,0,0,0,0,0,0,0,0,0,0,0,0,0,0,0,0,
193,-63.52,-210.7,-4.888,-45.78,-53.39,-106.2,-0.8452,-19.64,-16.26,-9.32,24.15,6.513,17.28,10.55,38.02,35.71,0,0,0,0,0,0,0,0,0,0,0,0,0,0,0,0,
194,-33.23,-75.54,60.33,-87.7,-39.51,-36.89,16.16,-17.79,-29.47,-10.23,39.23,11.36,37.7,23.85,51.37,45.06,0,0,0,0,0,0,0,0,0,0,0,0,0,0,0,0,
195,-50.42,-2.804,60.25,-87.82,-26.75,3.073,-5.941,15.3,-10.69,-0.0108,34.18,9.879,36.57,12.17,58.42,50.87,0,0,0,0,0,0,0,0,0,0,0,0,0,0,0,0,
196,-20.17,-6.877,26.8,-2.645,3.537,0.4891,27.61,9.692,16.06,12.12,16.85,-14.2,32.14,-7.365,35.21,22.09,0,0,0,0,0,0,0,0,0,0,0,0,0,0,0,0,
197,-34.58,-21.52,-9.312,-18.15,17.63,-43.86,74.26,-33.47,-0.2026,-42.75,26.38,16.1,47.94,37.05,40.68,35.53,0,0,0,0,0,0,0,0,0,0,0,0,0,0,0,0,
198,-89.71,-69.07,-41.69,-77.49,-10.86,-64.33,40.72,-30.55,4.054,-2.981,21.43,27.75,28.55,39.28,39.21,48.33,0,0,0,0,0,0,0,0,0,0,0,0,0,0,0,0,
199,-69.43,-125.7,-36.95,-113.3,-24.17,-34.28,-14.39,-39.51,5.96,48.6,7.396,-26.8,-0.4355,-21.27,12.26,10.38,0,0,0,0,0,0,0,0,0,0,0,0,0,0,0,0,
200,-56.03,-157.8,-3.66,-140.7,9.088,-25.64,-12.11,-82.45,-18.1,-43.48,25.95,-34.5,10.0,-17.49,15.71,1.84,0,0,0,0,0,0,0,0,0,0,0,0,0,0,0,0,
201,-146.2,-135.6,-30.55,-84.18,-16.4,-50.91,4.763,-61.84,-30.66,-82.01,31.01,-3.785,3.905,-1.673,29.72,20.7,0,0,0,0,0,0,0,0,0,0,0,0,0,0,0,0,
202,-133.2,-30.06,-26.42,8.252,-79.55,-45.25,12.04,-14.91,-35.09,-29.75,34.76,3.717,0.1639,-21.02,44.19,24.88,0,0,0,0,0,0,0,0,0,0,0,0,0,0,0,0,
203,-2.143,11.68,67.04,-33.42,-46.43,-22.55,25.81,-9.642,-8.802,-38.42,45.61,1.074,23.12,-11.23,43.41,24.62,0,0,0,0,0,0,0,0,0,0,0,0,0,0,0,0,
204,-43.32,-62.4,16.69,-108.8,-7.543,-65.18,4.683,-20.88,5.611,-53.24,3.716,-7.014,8.779,6.744,5.846,23.82,0,0,0,0,0,0,0,0,0,0,0,0,0,0,0,0,
205,-120.1,-48.27,-101.4,-44.56,-24.6,-82.64,-22.03,-26.89,-24.08,-13.27,-11.58,3.284,5.938,21.86,11.36,36.02,0,0,0,0,0,0,0,0,0,0,0,0,0,0,0,0,
206,-51.09,-34.02,-44.1,-33.77,-7.327,27.43,7.717,-7.831,-1.192,14.43,39.24,17.54,50.6,37.89,59.42,50.36,0,0,0,0,0,0,0,0,0,0,0,0,0,0,0,0,
207,-64.52,-150.0,-9.713,-139.9,-6.737,93.47,39.62,2.393,35.47,3.685,54.92,24.38,72.54,49.23,76.81,61.41,0,0,0,0,0,0,0,0,0,0,0,0,0,0,0,0,
208,-107.3,-142.4,-67.69,-107.1,-38.28,10.59,39.71,-33.2,24.02,19.5,50.99,55.65,70.67,71.65,73.76,72.45,0,0,0,0,0,0,0,0,0,0,0,0,0,0,0,0,
209,-68.54,-52.81,-38.42,-7.086,-34.41,-77.33,40.75,-26.53,28.14,43.96,56.77,41.43,48.49,42.34,49.64,43.69,0,0,0,0,0,0,0,0,0,0,0,0,0,0,0,0,
210,-121.2,-77.0,-6.602,-6.777,-39.56,-72.62,41.96,25.22,7.054,-15.77,34.65,-8.687,11.5,-11.47,21.65,13.05,0,0,0,0,0,0,0,0,0,0,0,0,0,0,0,0,
211,-156.9,-53.21,-30.85,-7.777,-39.67,-23.38,26.46,0.6481,-34.51,-53.92,14.86,7.424,1.919,0.6824,8.935,17.72,0,0,0,0,0,0,0,0,0,0,0,0,0,0,0,0,
212,-85.12,-39.23,-38.18,5.464,7.308,-22.36,18.17,-32.76,-13.49,0.328,19.13,16.05,4.185,-0.3554,-17.1,4.298,0,0,0,0,0,0,0,0,0,0,0,0,0,0,0,0,
213,-49.25,-111.1,-5.564,-0.0044,39.55,-7.982,43.31,33.25,9.769,-1.103,31.6,1.116,22.93,2.717,-6.19,11.28,0,0,0,0,0,0,0,0,0,0,0,0,0,0,0,0,
214,1.705,-27.64,73.24,-36.31,35.84,103.7,38.82,62.42,16.91,3.85,36.41,39.01,49.59,75.62,41.62,57.4,0,0,0,0,0,0,0,0,0,0,0,0,0,0,0,0,
215,24.47,72.07,75.74,-82.85,22.98,121.4,8.891,-11.99,44.15,115.0,20.9,40.92,33.67,81.69,41.86,53.85,0,0,0,0,0,0,0,0,0,0,0,0,0,0,0,0,
216,-73.87,-21.69,-20.19,-18.04,17.53,-2.635,59.65,-41.84,45.91,133.1,10.14,-5.555,26.39,24.57,29.23,23.28,0,0,0,0,0,0,0,0,0,0,0,0,0,0,0,0,
217,-98.25,-77.13,-72.36,66.5,4.62,-33.64,87.68,-4.721,33.27,19.83,7.426,-2.902,42.47,24.98,33.46,23.39,0,0,0,0,0,0,0,0,0,0,0,0,0,0,0,0,
218,-19.73,-35.27,-115.4,32.13,-36.49,-14.0,5.856,3.889,32.88,-27.4,-1.202,11.07,22.28,28.82,21.87,24.87,0,0,0,0,0,0,0,0,0,0,0,0,0,0,0,0,
219,-24.67,-29.35,-102.3,-25.25,-23.55,-64.26,3.99,-8.322,29.48,-3.514,7.018,3.702,13.32,9.292,20.95,20.75,0,0,0,0,0,0,0,0,0,0,0,0,0,0,0,0,
220,-101.6,-28.95,37.28,-78.1,57.14,-61.93,83.58,-6.45,43.01,-10.31,33.05,2.534,42.79,4.31,33.96,23.09,0,0,0,0,0,0,0,0,0,0,0,0,0,0,0,0,
221,-130.8,-51.73,47.78,-99.58,53.25,-24.75,65.21,-16.04,51.76,-30.38,49.32,0.0456,53.15,6.819,36.83,26.61,0,0,0,0,0,0,0,0,0,0,0,0,0,0,0,0,
222,-85.73,-117.6,-44.82,-64.18,-21.15,-29.17,27.74,-38.88,31.25,-8.966,44.92,4.329,49.63,26.89,41.96,34.39,0,0,0,0,0,0,0,0,0,0,0,0,0,0,0,0,
223,-40.28,-122.1,34.33,-84.97,-6.387,24.67,66.27,-16.88,38.94,42.18,41.17,13.15,59.6,41.52,49.34,45.97,0,0,0,0,0,0,0,0,0,0,0,0,0,0,0,0,
224,-53.82,-70.62,58.92,-105.5,38.51,61.57,68.11,25.26,63.81,56.65,40.76,17.45,60.19,36.1,47.97,51.99,0,0,0,0,0,0,0,0,0,0,0,0,0,0,0,0,
225,-88.61,-61.35,-93.28,-45.42,-13.2,-43.23,21.41,2.599,33.62,12.4,17.06,37.41,41.22,49.93,42.53,52.39,0,0,0,0,0,0,0,0,0,0,0,0,0,0,0,0,
226,-90.09,-58.65,-79.09,7.355,-63.61,-83.06,48.21,-7.34,-5.913,-18.02,13.76,47.73,35.91,54.39,42.31,51.76,0,0,0,0,0,0,0,0,0,0,0,0,0,0,0,0,
227,-59.15,-23.58,6.428,62.56,-33.7,-2.971,89.95,56.43,-1.344,-3.863,50.23,31.74,48.06,28.09,48.27,43.77,0,0,0,0,0,0,0,0,0,0,0,0,0,0,0,0,
228,-52.48,-37.49,-95.14,91.37,-13.21,-29.03,27.99,68.72,0.1651,-2.17,57.63,30.47,46.96,22.62,58.56,38.09,0,0,0,0,0,0,0,0,0,0,0,0,0,0,0,0,
229,-86.04,-85.72,-112.0,-2.621,-18.86,-67.18,-2.03,22.2,-0.5187,-5.843,47.22,29.57,45.85,33.41,67.44,44.28,0,0,0,0,0,0,0,0,0,0,0,0,0,0,0,0,
230,-95.4,-80.48,17.81,-82.72,-24.06,-9.075,60.93,17.19,15.48,10.06,44.66,4.77,47.4,27.52,55.82,37.6,0,0,0,0,0,0,0,0,0,0,0,0,0,0,0,0,
231,-63.71,-34.25,5.793,-17.69,-49.33,-27.66,28.72,35.05,8.808,3.972,23.39,-3.046,23.4,19.67,31.63,23.18,0,0,0,0,0,0,0,0,0,0,0,0,0,0,0,0,
232,-48.25,5.118,-71.42,22.61,-41.05,-22.06,-21.05,34.17,-2.123,4.508,14.64,14.66,13.23,32.8,18.64,22.91,0,0,0,0,0,0,0,0,0,0,0,0,0,0,0,0,
233,-78.83,-28.62,-75.51,-55.05,-3.006,82.18,72.09,3.995,14.4,44.68,25.29,32.74,42.99,64.91,19.78,30.03,0,0,0,0,0,0,0,0,0,0,0,0,0,0,0,0,
234,-76.27,-103.7,-63.55,-70.97,-23.35,50.26,73.2,-28.93,36.48,66.4,14.55,35.15,42.53,64.19,31.95,41.91,0,0,0,0,0,0,0,0,0,0,0,0,0,0,0,0,
235,-3.481,-80.98,-5.082,-30.05,-32.52,-20.01,-55.2,-24.3,42.03,61.79,-7.048,21.37,4.684,24.41,30.57,38.85,0,0,0,0,0,0,0,0,0,0,0,0,0,0,0,0,
236,-26.64,-26.42,40.61,-52.28,39.04,11.37,-8.912,-13.1,21.86,42.07,-7.176,32.9,14.45,29.29,20.57,25.37,0,0,0,0,0,0,0,0,0,0,0,0,0,0,0,0,
237,-142.7,-36.36,-18.27,-20.35,62.91,-22.6,88.15,12.55,17.16,0.7958,11.35,43.43,42.62,47.55,35.27,36.61,0,0,0,0,0,0,0,0,0,0,0,0,0,0,0,0,
238,-115.1,-17.57,-97.67,60.46,-14.81,-58.0,16.31,53.51,24.79,-18.5,11.08,-3.695,14.56,5.017,39.2,38.73,0,0,0,0,0,0,0,0,0,0,0,0,0,0,0,0,
239,-18.65,-5.532,-142.1,40.99,-61.83,-31.09,-6.907,24.69,-7.71,-27.38,12.06,-27.07,11.83,-7.769,27.45,22.19,0,0,0,0,0,0,0,0,0,0,0,0,0,0,0,0,
240,-37.91,-80.05,-90.16,-63.71,-34.9,-41.58,55.79,-12.31,-6.756,-30.31,50.72,0.6005,60.99,31.8,42.1,28.34,0,0,0,0,0,0,0,0,0,0,0,0,0,0,0,0,
241,-51.67,-116.6,71.51,-158.8,-5.558,27.96,56.03,24.14,40.35,33.88,65.69,2.027,58.54,33.4,50.94,32.96,0,0,0,0,0,0,0,0,0,0,0,0,0,0,0,0,
242,-16.42,-62.17,125.1,-79.55,12.17,85.21,75.12,19.22,32.87,62.01,49.96,0.0101,35.14,19.07,41.75,23.67,0,0,0,0,0,0,0,0,0,0,0,0,0,0,0,0,
243,-45.06,-43.85,15.26,80.78,-2.486,-54.66,62.39,-30.9,13.71,-32.48,48.45,5.447,39.43,12.93,42.6,26.96,0,0,0,0,0,0,0,0,0,0,0,0,0,0,0,0,
244,-75.93,-67.6,-40.76,44.15,-32.47,-89.89,-5.448,-16.12,22.73,-44.42,33.65,5.62,29.25,13.72,43.13,37.6,0,0,0,0,0,0,0,0,0,0,0,0,0,0,0,0,
245,-59.9,-20.96,-15.06,-10.02,13.58,16.3,44.93,-9.66,19.28,70.61,20.65,29.89,26.71,37.53,34.51,37.07,0,0,0,0,0,0,0,0,0,0,0,0,0,0,0,0,
246,-68.89,1.625,-25.61,2.193,49.03,-49.03,83.24,-36.63,16.07,53.52,15.07,22.65,21.86,20.04,13.1,16.87,0,0,0,0,0,0,0,0,0,0,0,0,0,0,0,0,
247,-46.16,-93.62,-50.98,-96.04,-9.593,-83.43,43.89,31.89,2.633,-58.4,-12.64,-10.16,-7.289,-15.42,-2.954,6.496,0,0,0,0,0,0,0,0,0,0,0,0,0,0,0,0,
248,13.29,-117.4,-61.55,-80.83,-33.8,23.39,81.79,82.43,-18.39,-39.39,-15.7,-0.5499,-11.02,1.965,-1.873,7.457,0,0,0,0,0,0,0,0,0,0,0,0,0,0,0,0,
249,-53.65,-55.65,-61.68,31.94,-26.62,-6.787,52.58,-25.7,-32.12,5.682,-3.229,-7.531,-15.57,-5.103,-7.645,-11.91,0,0,0,0,0,0,0,0,0,0,0,0,0,0,0,0,
250,-152.2,-68.53,-13.72,-16.41,-48.92,-22.8,-12.65,-61.88,-47.54,-1.909,-8.287,-17.17,-23.91,-20.86,8.839,-6.085,0,0,0,0,0,0,0,0,0,0,0,0,0,0,0,0,
251,-70.57,-66.87,10.75,-24.53,-33.68,72.42,64.52,37.73,-15.92,50.39,3.849,11.37,2.782,5.721,34.73,15.48,0,0,0,0,0,0,0,0,0,0,0,0,0,0,0,0,
252,32.06,-39.85,-44.61,12.3,-14.66,2.176,53.37,36.36,12.82,37.84,6.672,-3.459,-0.6809,-16.84,3.122,-12.23,0,0,0,0,0,0,0,0,0,0,0,0,0,0,0,0,
253,-28.15,-75.52,-72.16,-61.63,-22.06,-96.29,-35.93,-4.036,-32.75,-83.71,-4.734,-24.4,-25.19,-44.22,-21.54,-24.46,0,0,0,0,0,0,0,0,0,0,0,0,0,0,0,0,
254,-117.5,-74.03,-85.12,-61.22,-17.45,-56.55,3.309,5.912,-42.62,-70.12,2.196,-2.666,-12.99,-9.551,7.561,2.557,0,0,0,0,0,0,0,0,0,0,0,0,0,0,0,0,
255,-113.5,-66.08,-99.79,-13.52,-21.95,-55.91,5.579,-58.7,-13.39,19.21,-9.072,-17.47,-11.33,-12.33,17.7,-0.4544,0,0,0,0,0,0,0,0,0,0,0,0,0,0,0,0,
256,-63.17,-119.6,-20.5,-62.56,-15.43,-35.05,-17.36,-98.72,-33.16,-5.223,-23.0,-40.9,-17.69,-37.19,-2.547,-15.33,0,0,0,0,0,0,0,0,0,0,0,0,0,0,0,0,
257,-19.68,-118.6,3.96,-113.0,-23.49,33.33,43.7,-19.5,-35.68,-29.37,-7.375,-20.95,-6.497,-19.74,-14.77,-15.34,0,0,0,0,0,0,0,0,0,0,0,0,0,0,0,0,
258,-7.774,-94.68,-85.52,-91.43,-75.06,-12.86,28.46,32.67,-7.885,-25.12,1.445,-4.976,-4.162,-13.67,-2.782,-9.589,0,0,0,0,0,0,0,0,0,0,0,0,0,0,0,0,
259,-63.11,-114.4,-69.41,-16.62,-66.26,-63.61,-15.27,19.97,-14.14,-56.24,1.083,-5.101,-0.5453,-18.56,16.09,0.5706,0,0,0,0,0,0,0,0,0,0,0,0,0,0,0,0,
260,-123.7,-99.24,-15.04,-27.02,-25.32,-28.83,15.65,-2.176,-23.84,-28.4,-0.4715,-9.12,2.559,-7.338,6.208,-2.663,0,0,0,0,0,0,0,0,0,0,0,0,0,0,0,0,
261,-102.5,-83.67,-47.25,-91.53,-29.28,-7.452,15.58,-9.022,-10.72,16.81,-6.696,-14.42,-4.124,-10.0,-2.597,-7.921,0,0,0,0,0,0,0,0,0,0,0,0,0,0,0,0,
262,-82.54,-97.71,-56.32,-21.25,-16.91,-9.193,13.64,2.257,-3.928,-11.32,-1.698,-11.07,1.305,-14.19,9.303,-4.4,0,0,0,0,0,0,0,0,0,0,0,0,0,0,0,0,
263,-51.09,-68.47,-46.09,-26.7,-14.76,-32.25,47.96,-23.77,-6.966,-11.72,-2.309,-12.9,0.3573,-1.845,-11.02,-20.08,0,0,0,0,0,0,0,0,0,0,0,0,0,0,0,0,
264,41.36,-63.28,-33.95,-139.6,-46.78,-55.12,31.71,-47.36,-8.275,0.1319,-23.19,-32.47,-27.36,-17.2,-56.24,-45.71,0,0,0,0,0,0,0,0,0,0,0,0,0,0,0,0,
265,-26.77,-117.4,-6.467,-47.72,-39.76,-46.14,-11.48,3.612,-31.14,-53.98,-34.38,-46.15,-46.68,-48.86,-60.14,-43.19,0,0,0,0,0,0,0,0,0,0,0,0,0,0,0,0,
266,-158.9,-73.06,-18.61,-6.335,-9.25,-45.64,-5.265,29.64,-46.37,-45.48,-23.79,-35.17,-28.38,-27.56,-25.62,-17.7,0,0,0,0,0,0,0,0,0,0,0,0,0,0,0,0,
267,-62.79,34.72,-0.8789,-116.7,13.06,-13.97,26.43,-28.49,14.1,41.5,-18.83,-26.66,-1.423,6.245,-12.96,-12.09,0,0,0,0,0,0,0,0,0,0,0,0,0,0,0,0,
268,-15.3,15.84,50.27,22.76,34.39,53.8,8.295,-64.86,57.5,49.39,-27.44,-22.71,-1.559,-0.1522,-20.15,-20.41,0,0,0,0,0,0,0,0,0,0,0,0,0,0,0,0,
269,-108.8,-52.2,34.89,127.6,39.52,45.94,-26.64,-34.71,3.446,8.719,-26.62,-3.134,-14.54,-0.381,-6.847,-7.801,0,0,0,0,0,0,0,0,0,0,0,0,0,0,0,0,
270,-35.82,-64.64,27.02,-67.13,25.99,0.2152,13.03,-1.303,-28.76,5.572,-20.41,-9.426,-25.52,-7.375,-1.976,-4.899,0,0,0,0,0,0,0,0,0,0,0,0,0,0,0,0,
271,28.88,-88.9,48.23,-79.53,4.13,8.067,43.89,13.32,-18.86,-8.847,-18.44,-28.64,-29.95,-29.7,-18.73,-17.88,0,0,0,0,0,0,0,0,0,0,0,0,0,0,0,0,
272,-53.45,-74.07,14.0,56.11,-12.05,4.076,-2.956,9.727,-42.67,-32.75,-14.38,-15.98,-23.1,-19.63,-22.5,-15.24,0,0,0,0,0,0,0,0,0,0,0,0,0,0,0,0,
273,-47.56,-8.005,-20.23,-14.34,-27.11,-37.65,-12.12,-21.25,-43.8,-27.96,-15.88,-24.53,-26.01,-24.01,-22.57,-17.46,0,0,0,0,0,0,0,0,0,0,0,0,0,0,0,0,
274,-19.95,-39.67,-6.183,-67.13,-39.82,-53.23,10.46,-19.31,-9.455,-18.08,-6.109,-31.61,-25.43,-36.77,-17.8,-11.39,0,0,0,0,0,0,0,0,0,0,0,0,0,0,0,0,
275,-77.88,-118.8,4.158,-29.57,-19.01,-62.54,-4.286,16.77,-7.385,-5.386,14.95,6.952,-3.272,-2.116,-7.749,10.8,0,0,0,0,0,0,0,0,0,0,0,0,0,0,0,0,
276,-100.3,-99.36,-1.393,-87.13,-4.94,-57.6,4.675,5.906,-8.582,8.25,2.77,5.006,-1.056,-0.1617,-23.97,-3.717,0,0,0,0,0,0,0,0,0,0,0,0,0,0,0,0,
277,-106.3,-57.27,-2.428,-133.9,-30.46,8.297,-0.3409,-9.234,9.016,-7.845,-20.16,-30.43,-16.85,-36.98,-38.81,-31.71,0,0,0,0,0,0,0,0,0,0,0,0,0,0,0,0,
278,-138.4,-94.28,-16.97,-108.1,-26.23,30.03,-34.45,-6.375,-4.701,-34.43,-12.37,-32.24,-9.698,-27.8,-32.15,-32.26,0,0,0,0,0,0,0,0,0,0,0,0,0,0,0,0,
279,-115.3,-146.9,-47.94,-64.84,2.057,-18.17,32.08,-28.73,-12.85,-22.61,-4.477,-28.66,5.357,-3.932,-36.57,-27.52,0,0,0,0,0,0,0,0,0,0,0,0,0,0,0,0,
280,-34.29,-142.4,-26.94,11.92,-20.91,-20.89,80.25,-5.513,29.63,11.68,-18.24,-23.05,-4.771,-3.01,-42.48,-21.01,0,0,0,0,0,0,0,0,0,0,0,0,0,0,0,0,
281,12.55,-84.0,25.2,25.07,-60.23,-17.12,-19.64,32.84,26.56,9.333,-19.65,-11.83,-25.14,-7.047,-31.32,-14.68,0,0,0,0,0,0,0,0,0,0,0,0,0,0,0,0,
282,-4.929,-18.3,-17.84,-49.09,-53.09,-29.68,-49.18,-8.019,-27.7,-6.216,9.111,-5.375,-17.36,-2.824,-16.88,-17.59,0,0,0,0,0,0,0,0,0,0,0,0,0,0,0,0,
283,-30.94,-48.57,-68.27,-60.58,-33.58,-12.0,20.55,-41.96,-18.37,22.09,12.2,5.36,-9.92,3.364,-16.55,-26.3,0,0,0,0,0,0,0,0,0,0,0,0,0,0,0,0,
284,-49.28,-143.1,21.43,-20.05,-28.69,-18.6,8.8,-33.02,-1.453,40.59,-22.54,-11.9,-36.55,-21.87,-37.03,-45.32,0,0,0,0,0,0,0,0,0,0,0,0,0,0,0,0,
285,-89.86,-127.9,49.93,-14.54,-22.08,-26.24,-16.32,-18.24,-37.28,-4.673,-31.54,-46.35,-54.75,-60.08,-60.45,-62.9,0,0,0,0,0,0,0,0,0,0,0,0,0,0,0,0,
286,-128.9,-75.15,-87.17,-17.27,-41.85,-26.95,-13.27,16.25,-47.31,-56.73,-48.2,-46.08,-66.32,-64.02,-70.82,-62.84,0,0,0,0,0,0,0,0,0,0,0,0,0,0,0,0,
287,-121.9,-99.52,-102.8,-48.72,-64.08,-53.47,-48.57,9.284,-47.05,-52.4,-92.38,-36.77,-85.69,-48.65,-69.71,-50.26,0,0,0,0,0,0,0,0,0,0,0,0,0,0,0,0,
288,-90.8,-89.04,-22.69,-107.4,-28.56,4.298,-66.62,-39.36,-58.52,-11.15,-72.88,-34.12,-73.48,-35.18,-60.39,-37.3,0,0,0,0,0,0,0,0,0,0,0,0,0,0,0,0,
289,-74.18,-90.84,-75.26,-56.8,-3.396,72.74,-36.29,-31.87,-32.41,6.464,-24.94,-12.19,-56.71,-21.25,-48.97,-30.58,0,0,0,0,0,0,0,0,0,0,0,0,0,0,0,0,
290,-48.91,-159.1,-61.31,58.42,-30.99,-3.786,10.47,8.32,-13.81,2.337,-49.23,4.444,-70.64,-16.25,-49.33,-29.56,0,0,0,0,0,0,0,0,0,0,0,0,0,0,0,0,
291,-22.53,-138.9,37.95,7.309,-65.47,-76.81,4.154,19.49,-45.07,-2.94,-94.49,-13.93,-86.48,-33.72,-67.84,-39.74,0,0,0,0,0,0,0,0,0,0,0,0,0,0,0,0,
292,-25.97,-70.52,-25.61,-94.76,-91.51,-53.73,-63.65,3.142,-72.42,-21.69,-71.88,-28.36,-79.41,-45.34,-67.0,-45.59,0,0,0,0,0,0,0,0,0,0,0,0,0,0,0,0,
293,-24.45,-52.13,-60.74,20.25,-61.45,-21.06,-48.66,-8.141,-55.45,-26.95,-11.75,-15.13,-44.55,-24.64,-37.29,-34.04,0,0,0,0,0,0,0,0,0,0,0,0,0,0,0,0,
294,-70.22,-61.15,17.14,96.34,-12.42,-14.38,-6.309,10.21,-25.19,-39.52,-6.439,-20.74,-27.51,-20.96,-29.74,-29.54,0,0,0,0,0,0,0,0,0,0,0,0,0,0,0,0,
295,-172.8,-130.2,3.839,-94.98,-38.91,-49.53,-34.73,-2.231,-21.34,-59.12,-28.2,-30.03,-37.98,-30.32,-26.0,-20.34,0,0,0,0,0,0,0,0,0,0,0,0,0,0,0,0,
296,-133.9,-162.7,22.59,-152.1,-48.27,-76.4,25.1,-46.88,-16.47,-5.882,-1.691,-0.124,-16.28,-6.79,-5.7,-7.035,0,0,0,0,0,0,0,0,0,0,0,0,0,0,0,0,
297,6.56,-89.25,59.01,5.046,-19.33,-45.68,76.12,-30.35,-11.74,-1.357,10.65,9.413,4.345,-6.883,-11.93,-19.65,0,0,0,0,0,0,0,0,0,0,0,0,0,0,0,0,
298,16.86,-62.82,-40.73,-45.66,-48.71,1.825,-31.24,-15.37,-29.7,-74.83,-14.52,-13.9,-10.0,-25.83,-10.79,-14.38,0,0,0,0,0,0,0,0,0,0,0,0,0,0,0,0,
299,-43.87,-75.68,-34.15,-130.1,-49.81,22.68,-43.75,-53.86,-16.13,-15.99,-8.721,-17.8,-10.28,-13.2,16.31,7.065,0,0,0,0,0,0,0,0,0,0,0,0,0,0,0,0,
300,-62.07,-41.68,67.18,34.42,3.411,-23.07,40.88,-17.18,7.485,29.37,-0.2184,-18.7,-9.155,-23.83,8.17,-9.693,0,0,0,0,0,0,0,0,0,0,0,0,0,0,0,0,
301,-65.06,-63.65,-1.199,59.56,-2.753,-73.13,1.192,39.08,-7.995,-49.69,-30.73,-23.67,-28.6,-43.52,-26.51,-33.85,0,0,0,0,0,0,0,0,0,0,0,0,0,0,0,0,
302,-58.22,-164.9,-45.72,-116.7,-36.23,-50.14,-28.51,-18.32,-0.3552,-12.9,-60.22,-28.87,-39.82,-29.74,-44.22,-45.64,0,0,0,0,0,0,0,0,0,0,0,0,0,0,0,0,
303,-75.97,-191.0,51.67,-99.68,-32.93,-35.34,13.17,-37.26,13.72,22.62,-42.26,-42.58,-33.53,-28.75,-29.89,-42.34,0,0,0,0,0,0,0,0,0,0,0,0,0,0,0,0,
304,-119.8,-116.0,56.93,10.45,-9.61,-27.97,-14.29,35.89,-10.95,-54.79,-1.645,-32.9,-18.95,-27.88,-1.966,-15.5,0,0,0,0,0,0,0,0,0,0,0,0,0,0,0,0,
305,-120.9,-124.3,-4.304,-0.1353,12.5,9.587,-27.9,41.94,-8.599,-30.81,3.846,-4.358,-4.586,-4.117,3.152,-6.073,0,0,0,0,0,0,0,0,0,0,0,0,0,0,0,0,
306,-74.72,-187.8,18.52,-40.63,6.964,-5.455,33.56,24.44,19.61,5.679,13.34,13.96,14.73,15.64,12.08,1.036,0,0,0,0,0,0,0,0,0,0,0,0,0,0,0,0,
307,-19.79,-80.64,43.33,-61.12,0.6029,-6.396,26.05,33.36,21.18,4.871,26.33,11.91,14.12,19.82,19.83,14.17,0,0,0,0,0,0,0,0,0,0,0,0,0,0,0,0,
308,-18.09,36.49,13.4,9.19,35.84,71.55,-36.08,-4.078,13.75,85.63,-26.83,-20.14,-28.29,-3.35,-16.12,-16.52,0,0,0,0,0,0,0,0,0,0,0,0,0,0,0,0,
309,-57.31,-59.52,11.25,117.6,59.27,78.03,-16.21,-13.25,5.734,70.45,-47.12,-33.18,-40.78,-18.31,-33.81,-39.14,0,0,0,0,0,0,0,0,0,0,0,0,0,0,0,0,
310,-26.5,-154.9,50.46,72.28,28.15,4.87,26.8,23.76,-10.67,-26.24,4.492,-10.31,-9.627,-1.668,-9.537,-20.5,0,0,0,0,0,0,0,0,0,0,0,0,0,0,0,0,
311,7.652,-127.4,64.48,2.275,1.315,-29.71,14.91,11.99,-10.25,-17.32,-7.938,-15.37,-8.038,-8.534,-8.98,-21.05,0,0,0,0,0,0,0,0,0,0,0,0,0,0,0,0,
312,-64.95,-93.04,38.16,15.49,15.19,-41.92,32.36,7.665,9.982,-12.32,-34.16,-28.96,-15.75,-22.11,-16.91,-28.88,0,0,0,0,0,0,0,0,0,0,0,0,0,0,0,0,
313,-86.13,-36.88,37.99,25.93,38.57,-18.87,80.41,45.25,17.89,-15.51,15.71,-9.742,3.784,1.812,5.179,-15.21,0,0,0,0,0,0,0,0,0,0,0,0,0,0,0,0,
314,12.68,13.77,92.14,98.71,55.67,49.15,68.47,40.17,19.32,28.49,46.98,5.866,23.95,24.38,37.17,11.2,0,0,0,0,0,0,0,0,0,0,0,0,0,0,0,0,
315,43.78,-23.46,102.5,104.5,62.75,60.41,33.62,-11.27,35.17,37.01,46.27,25.87,41.98,46.27,67.91,54.77,0,0,0,0,0,0,0,0,0,0,0,0,0,0,0,0,
316,13.98,-24.05,54.76,-50.42,61.71,51.72,35.09,-33.98,55.14,98.92,68.63,59.65,56.33,76.27,89.69,75.22,0,0,0,0,0,0,0,0,0,0,0,0,0,0,0,0,
317,40.54,45.62,67.96,-65.17,38.86,67.81,16.37,-10.41,56.52,145.3,47.96,33.46,28.88,39.12,58.09,27.78,0,0,0,0,0,0,0,0,0,0,0,0,0,0,0,0,
318,14.67,-24.69,85.66,48.8,-35.85,-10.38,-44.52,-3.328,-0.5139,-16.88,-29.01,-26.16,-31.41,-38.94,-9.02,-23.87,0,0,0,0,0,0,0,0,0,0,0,0,0,0,0,0,
319,-84.61,-170.4,17.91,69.87,-74.3,-90.81,-61.01,-21.76,-60.16,-108.6,-56.87,-22.0,-52.1,-44.46,-28.26,-24.47,0,0,0,0,0,0,0,0,0,0,0,0,0,0,0,0,
320,-132.9,-141.9,-42.38,33.88,-30.08,-37.71,-21.47,-12.18,-31.99,5.838,-43.41,-20.4,-43.57,-32.89,-36.62,-40.5,0,0,0,0,0,0,0,0,0,0,0,0,0,0,0,0,
321,-165.8,-75.02,-66.8,-23.68,-30.59,-13.02,2.458,14.61,-27.26,-7.526,-53.74,-50.22,-57.42,-55.96,-66.19,-66.43,0,0,0,0,0,0,0,0,0,0,0,0,0,0,0,0,
322,-160.7,-105.6,-52.38,-15.06,-39.21,-32.25,8.822,8.174,-68.4,-73.26,-42.79,-19.09,-46.23,-26.96,-36.87,-30.89,0,0,0,0,0,0,0,0,0,0,0,0,0,0,0,0,
323,-66.57,-71.09,15.41,21.36,21.33,13.38,-13.13,-48.37,-15.21,32.27,-22.44,-9.744,-23.84,-3.635,-16.43,-21.17,0,0,0,0,0,0,0,0,0,0,0,0,0,0,0,0,
324,-50.36,-19.42,31.36,-37.74,23.7,0.7652,-46.23,-63.19,17.57,53.7,-32.63,-57.23,-36.17,-39.56,-51.27,-56.59,0,0,0,0,0,0,0,0,0,0,0,0,0,0,0,0,
325,-91.98,-65.91,20.54,0.0708,-9.504,-52.84,-3.737,5.901,-34.29,-53.7,-16.16,-20.69,-13.05,-15.62,-16.98,-22.15,0,0,0,0,0,0,0,0,0,0,0,0,0,0,0,0,
326,-30.86,-88.35,34.7,57.9,-4.187,-18.41,16.99,-7.57,-12.88,-30.48,-14.04,19.62,6.995,18.76,18.18,7.048,0,0,0,0,0,0,0,0,0,0,0,0,0,0,0,0,
327,-8.874,-64.87,-16.97,-44.0,-43.16,-13.7,-57.46,-62.63,4.899,25.87,-55.71,-26.48,-38.87,-23.13,-35.28,-31.88,0,0,0,0,0,0,0,0,0,0,0,0,0,0,0,0,
328,-91.53,-60.55,-31.74,-43.66,-63.56,-56.22,-45.53,6.112,-51.04,-26.69,-41.8,-20.84,-40.09,-23.8,-50.93,-31.41,0,0,0,0,0,0,0,0,0,0,0,0,0,0,0,0,
329,-101.8,-40.14,64.43,10.37,-13.71,-19.9,47.74,21.12,-35.65,-52.65,-11.42,23.7,-0.1196,16.14,-18.35,-5.445,0,0,0,0,0,0,0,0,0,0,0,0,0,0,0,0,
330,-62.26,-11.03,83.26,-9.885,-2.757,1.555,45.07,-52.44,29.47,-11.12,-23.61,2.932,-14.03,-6.087,-15.16,-15.56,0,0,0,0,0,0,0,0,0,0,0,0,0,0,0,0,
331,-95.39,-36.5,11.53,47.66,-19.84,-46.66,-2.82,-37.64,29.6,-0.5795,-14.47,-19.96,-32.59,-30.66,-14.69,-24.32,0,0,0,0,0,0,0,0,0,0,0,0,0,0,0,0,
332,-128.2,-100.5,-4.076,26.27,-21.0,-37.12,0.1346,-27.85,-19.1,-26.63,6.42,2.291,-19.57,-1.975,4.091,-11.3,0,0,0,0,0,0,0,0,0,0,0,0,0,0,0,0,
333,-70.87,-85.62,34.61,-8.282,-15.31,-0.3069,12.33,-25.39,-37.23,-13.24,12.32,14.62,-13.1,6.56,20.45,2.013,0,0,0,0,0,0,0,0,0,0,0,0,0,0,0,0,
334,1.768,4.152,44.51,103.3,9.948,-3.671,-3.349,32.75,-5.858,32.81,9.506,1.165,-15.09,-18.85,7.63,-7.676,0,0,0,0,0,0,0,0,0,0,0,0,0,0,0,0,
335,6.354,6.384,12.03,22.9,17.76,31.94,-9.626,-4.005,-1.31,27.99,-10.92,11.19,-6.419,-0.4991,-11.4,-18.84,0,0,0,0,0,0,0,0,0,0,0,0,0,0,0,0,
336,-22.24,-45.86,0.7456,-105.6,12.34,54.24,23.3,-60.07,-11.31,4.048,-17.57,24.7,1.728,22.22,-8.153,-17.27,0,0,0,0,0,0,0,0,0,0,0,0,0,0,0,0,
337,-56.1,-12.57,6.304,34.54,34.7,-8.536,38.84,8.654,15.94,2.762,-12.93,-4.918,-7.473,-14.76,-16.37,-27.61,0,0,0,0,0,0,0,0,0,0,0,0,0,0,0,0,
338,-94.7,23.41,-21.24,69.52,30.32,-14.75,18.44,52.91,18.96,-27.26,-17.6,-10.89,-3.279,-14.65,-11.45,-15.55,0,0,0,0,0,0,0,0,0,0,0,0,0,0,0,0,
339,-90.58,-43.93,-42.19,-78.42,-11.33,52.21,13.87,0.214,12.07,-7.367,-5.51,12.13,13.32,27.31,20.59,12.25,0,0,0,0,0,0,0,0,0,0,0,0,0,0,0,0,
340,-39.49,-120.3,8.318,-61.03,-19.05,58.31,4.644,-29.02,32.76,82.91,9.644,0.7791,4.823,12.98,19.58,1.782,0,0,0,0,0,0,0,0,0,0,0,0,0,0,0,0,
341,-26.26,-96.56,97.85,73.28,-1.396,19.97,-20.37,11.52,16.29,50.37,5.186,1.758,-3.271,-3.377,5.975,-6.391,0,0,0,0,0,0,0,0,0,0,0,0,0,0,0,0,
342,-85.54,-45.37,67.3,99.07,-8.361,-15.48,-8.735,2.853,-15.0,-40.46,-8.357,14.92,-7.612,10.42,-3.891,-6.941,0,0,0,0,0,0,0,0,0,0,0,0,0,0,0,0,
343,-96.86,-22.48,-47.49,11.82,-12.51,-35.83,18.44,-97.79,-4.368,16.6,-14.71,1.716,-25.2,6.512,-27.23,-27.71,0,0,0,0,0,0,0,0,0,0,0,0,0,0,0,0,
344,-23.72,28.36,-2.15,-56.3,-1.472,-24.13,4.915,-99.93,-1.206,53.1,-3.44,2.198,-25.92,5.298,-18.33,-26.29,0,0,0,0,0,0,0,0,0,0,0,0,0,0,0,0,
345,-43.19,-9.085,70.1,-63.54,-29.54,-32.77,-2.216,11.66,-28.7,-42.5,-2.415,0.5885,-20.04,5.97,6.006,-8.232,0,0,0,0,0,0,0,0,0,0,0,0,0,0,0,0,
346,-124.8,-138.3,-5.714,-43.88,-57.43,-56.14,47.71,30.84,-25.27,-46.76,-11.71,-5.819,-15.77,6.402,1.787,0.7872,0,0,0,0,0,0,0,0,0,0,0,0,0,0,0,0,
347,-99.2,-91.0,-2.901,-53.87,-40.51,-33.37,49.47,-10.25,5.508,16.57,-3.146,19.16,1.78,29.49,7.356,14.2,0,0,0,0,0,0,0,0,0,0,0,0,0,0,0,0,
348,-78.75,7.96,53.97,-145.2,-48.31,24.43,-32.31,11.1,-9.16,0.303,3.297,30.41,5.081,39.55,28.22,23.93,0,0,0,0,0,0,0,0,0,0,0,0,0,0,0,0,
349,-100.6,-52.39,-14.74,-112.1,-59.28,79.04,-46.03,26.18,-20.07,28.91,1.739,28.11,-3.254,24.3,24.77,22.99,0,0,0,0,0,0,0,0,0,0,0,0,0,0,0,0,
350,-51.86,-21.16,-72.58,77.21,-38.08,36.8,-18.25,-12.02,17.9,62.13,-1.075,37.05,-9.153,4.112,5.119,10.7,0,0,0,0,0,0,0,0,0,0,0,0,0,0,0,0,
351,-37.63,81.17,-35.52,36.18,-40.89,-81.57,-57.06,-20.89,7.129,-23.07,-12.35,17.03,-22.83,-16.31,-0.2075,-3.181,0,0,0,0,0,0,0,0,0,0,0,0,0,0,0,0,
352,-102.4,-5.173,33.28,-121.8,-32.45,-70.58,-51.24,6.003,-38.53,-42.54,-20.89,4.565,-29.05,-7.554,-2.241,-1.42,0,0,0,0,0,0,0,0,0,0,0,0,0,0,0,0,
353,-142.2,-91.65,23.89,-58.83,-24.6,2.471,-0.6021,-32.51,-48.21,7.616,-28.7,35.53,-30.22,22.5,-6.626,6.413,0,0,0,0,0,0,0,0,0,0,0,0,0,0,0,0,
354,-140.1,-50.1,-81.59,-29.29,-78.66,-54.52,-35.34,-83.89,-55.27,-34.83,-40.11,24.36,-42.52,6.098,4.187,6.615,0,0,0,0,0,0,0,0,0,0,0,0,0,0,0,0,
355,-95.21,-56.21,-78.46,-128.0,-105.1,-94.77,-83.34,-31.45,-52.23,-62.07,-57.17,-31.82,-58.79,-48.16,-8.083,-15.01,0,0,0,0,0,0,0,0,0,0,0,0,0,0,0,0,
356,-78.03,-67.06,-17.97,-121.2,-91.18,-50.2,-62.76,17.6,-48.69,-46.02,-67.13,-36.91,-62.75,-58.71,-45.01,-41.28,0,0,0,0,0,0,0,0,0,0,0,0,0,0,0,0,
357,-126.8,-7.102,-47.19,-97.61,-83.44,-64.74,-32.84,-14.76,-56.93,-75.93,-38.7,-25.61,-48.51,-42.07,-51.97,-43.23,0,0,0,0,0,0,0,0,0,0,0,0,0,0,0,0,
358,-97.05,-3.107,-10.3,-117.0,-29.7,-42.92,-30.2,-40.93,-26.01,-67.69,-17.07,-44.25,-40.2,-42.39,-52.18,-44.2,0,0,0,0,0,0,0,0,0,0,0,0,0,0,0,0,
359,-5.623,-40.35,20.13,-45.16,1.581,61.55,-44.5,-57.27,-11.61,-3.286,-30.25,-25.87,-35.46,-15.68,-43.84,-37.13,0,0,0,0,0,0,0,0,0,0,0,0,0,0,0,0,
360,-27.28,-15.19,-60.8,19.85,-34.16,35.45,-49.37,-65.36,-38.76,9.722,-28.02,-9.642,-20.57,-3.308,-11.94,-19.45,0,0,0,0,0,0,0,0,0,0,0,0,0,0,0,0,
361,-97.58,12.14,-29.17,-31.4,-16.78,-68.29,-19.85,-26.67,-27.02,-46.06,-14.01,-26.45,-8.225,-27.36,-3.55,-17.42,0,0,0,0,0,0,0,0,0,0,0,0,0,0,0,0,
362,-51.06,7.648,49.09,-66.84,14.83,-34.85,22.68,-9.306,15.19,-47.91,10.37,18.05,20.09,21.09,17.5,13.3,0,0,0,0,0,0,0,0,0,0,0,0,0,0,0,0,
363,8.646,8.999,-8.686,-44.95,-32.17,15.11,23.65,-42.59,56.92,50.36,31.3,38.67,33.82,54.39,46.68,39.55,0,0,0,0,0,0,0,0,0,0,0,0,0,0,0,0,
364,-82.73,-12.53,-38.5,-43.53,-63.76,-47.34,-16.65,-48.05,54.69,53.17,0.3356,-25.29,-0.569,-11.81,14.02,0.7561,0,0,0,0,0,0,0,0,0,0,0,0,0,0,0,0,
365,-163.1,-55.76,1.293,-60.94,-42.05,-63.55,-35.67,-12.37,-6.105,-49.39,-8.7,-15.65,-1.391,-10.62,2.344,-5.641,0,0,0,0,0,0,0,0,0,0,0,0,0,0,0,0,
366,-91.83,-97.02,-44.66,-114.0,-31.86,-2.809,-21.32,6.62,-4.623,-34.91,40.56,31.58,31.24,37.14,38.29,31.83,0,0,0,0,0,0,0,0,0,0,0,0,0,0,0,0,
367,-31.44,-89.87,-106.5,-132.9,-1.518,-10.63,5.301,-0.733,60.6,30.88,51.53,12.45,30.68,13.31,25.66,23.89,0,0,0,0,0,0,0,0,0,0,0,0,0,0,0,0,
368,-18.69,44.92,-29.64,-43.71,58.56,-24.47,25.95,6.068,70.87,21.69,20.35,4.915,24.21,-0.007,-3.136,3.418,0,0,0,0,0,0,0,0,0,0,0,0,0,0,0,0,
369,-0.5349,141.9,92.49,-42.51,51.02,36.71,16.58,20.54,41.77,-8.746,19.32,18.59,29.35,21.09,21.65,22.44,0,0,0,0,0,0,0,0,0,0,0,0,0,0,0,0,
370,-36.92,25.97,106.4,-110.7,-16.53,40.57,22.02,-6.275,34.68,-20.14,57.97,34.42,45.97,43.58,65.28,61.27,0,0,0,0,0,0,0,0,0,0,0,0,0,0,0,0,
371,-55.5,-71.28,47.72,-30.41,-36.59,-4.156,45.38,-47.74,53.87,50.52,55.01,41.71,45.4,46.07,47.64,51.1,0,0,0,0,0,0,0,0,0,0,0,0,0,0,0,0,
372,-34.68,-20.75,-22.66,19.15,-12.87,16.8,11.9,-35.5,49.74,90.99,-10.47,-6.168,-5.226,-7.91,-17.09,-11.26,0,0,0,0,0,0,0,0,0,0,0,0,0,0,0,0,
373,-66.61,-30.21,-61.8,-53.62,-13.02,5.162,-33.51,1.133,2.779,-40.29,-10.57,-28.03,-15.8,-30.11,-13.38,-12.12,0,0,0,0,0,0,0,0,0,0,0,0,0,0,0,0,
374,-70.73,-88.92,-36.5,-62.07,-27.04,-29.32,-41.45,-7.949,-5.04,-83.81,35.17,7.927,23.7,9.791,32.5,32.36,0,0,0,0,0,0,0,0,0,0,0,0,0,0,0,0,
375,-56.21,-43.37,-36.36,-58.58,-14.58,25.09,-44.66,-50.7,29.11,35.28,10.81,15.34,16.44,18.59,22.21,22.14,0,0,0,0,0,0,0,0,0,0,0,0,0,0,0,0,
376,-104.7,10.81,-59.26,-91.69,-6.006,5.101,-33.07,-71.24,30.91,23.51,-7.793,10.29,-4.166,4.199,0.6882,-0.3577,0,0,0,0,0,0,0,0,0,0,0,0,0,0,0,0,
377,-84.62,-13.75,-36.13,-107.8,-41.67,-75.92,-27.6,-37.85,11.82,-55.15,11.78,3.601,-9.414,-11.53,-4.517,-0.6295,0,0,0,0,0,0,0,0,0,0,0,0,0,0,0,0,
378,-20.34,-6.064,-24.31,-95.85,-58.5,9.607,-36.04,7.852,-7.677,-12.3,15.29,0.8848,-17.77,-6.639,-11.54,1.762,0,0,0,0,0,0,0,0,0,0,0,0,0,0,0,0,
379,-58.4,34.52,29.59,6.028,-23.11,64.97,-22.69,0.2792,-16.97,28.13,33.23,44.13,2.873,43.76,8.978,16.99,0,0,0,0,0,0,0,0,0,0,0,0,0,0,0,0,
380,-64.04,-11.28,91.21,62.42,-14.92,-51.17,-28.64,-9.456,3.731,6.748,38.03,46.48,17.48,41.78,31.95,20.9,0,0,0,0,0,0,0,0,0,0,0,0,0,0,0,0,
381,1.98,-81.32,-50.58,-34.26,-51.72,-87.0,-42.84,2.286,17.35,-9.181,1.311,-25.8,-12.88,-26.13,15.89,-1.723,0,0,0,0,0,0,0,0,0,0,0,0,0,0,0,0,
382,-42.52,-75.08,-183.4,-74.75,-87.29,-58.65,-24.52,-43.46,-4.07,-38.96,-18.85,-48.48,-37.46,-44.85,-8.84,-15.8,0,0,0,0,0,0,0,0,0,0,0,0,0,0,0,0,
383,-119.4,-37.23,-77.49,-31.95,-93.34,-70.07,-27.44,-78.17,-23.93,-51.03,-18.42,-9.294,-31.2,-16.81,-11.7,-6.4,0,0,0,0,0,0,0,0,0,0,0,0,0,0,0,0,
384,-101.9,-11.67,-25.17,-3.159,-66.86,-41.18,-57.16,-30.04,-22.25,-21.94,-16.88,5.521,-23.86,-6.848,-2.276,6.625,0,0,0,0,0,0,0,0,0,0,0,0,0,0,0,0,
385,-101.2,-37.95,-96.96,11.48,-66.89,-66.19,-84.36,3.047,-24.67,-45.62,-15.1,-7.395,-38.98,-22.28,1.218,4.501,0,0,0,0,0,0,0,0,0,0,0,0,0,0,0,0,
386,-112.3,-85.29,-87.02,-72.38,-78.1,-90.93,-74.65,-2.807,-27.2,-55.41,-18.72,-12.41,-50.28,-35.85,-10.16,-10.44,0,0,0,0,0,0,0,0,0,0,0,0,0,0,0,0,
387,-76.94,-47.75,-64.57,-126.2,-34.78,48.16,-1.609,-6.155,-15.49,20.99,-14.3,-12.6,-34.66,-28.01,-25.72,-26.11,0,0,0,0,0,0,0,0,0,0,0,0,0,0,0,0,
388,-81.27,-22.61,-45.36,-0.346,-20.28,73.86,13.43,10.98,-24.59,-9.788,2.461,-10.99,-24.1,-19.41,-8.402,-16.8,0,0,0,0,0,0,0,0,0,0,0,0,0,0,0,0,
389,-92.6,-82.66,9.525,38.42,-61.08,-103.8,-50.99,5.824,-41.19,-99.68,17.36,-3.542,-29.07,-22.51,23.22,8.992,0,0,0,0,0,0,0,0,0,0,0,0,0,0,0,0,
390,-70.14,-58.68,-56.7,-64.89,-62.61,-111.1,-39.72,-118.6,-27.81,-19.43,11.61,-11.25,-36.49,-21.83,6.426,-0.5304,0,0,0,0,0,0,0,0,0,0,0,0,0,0,0,0,
391,-105.7,17.71,-170.1,-23.02,-49.9,11.53,-1.413,-170.9,-20.93,36.65,-10.78,-20.24,-43.92,-16.2,-11.51,-14.72,0,0,0,0,0,0,0,0,0,0,0,0,0,0,0,0,
392,-144.8,-13.33,-117.1,84.32,-44.34,-9.178,-21.84,-7.006,-20.72,-57.18,-13.46,-10.52,-39.68,-18.51,7.963,0.7149,0,0,0,0,0,0,0,0,0,0,0,0,0,0,0,0,
393,-73.89,-53.15,-14.35,-4.651,-14.46,-27.19,-20.57,46.91,-9.14,-61.09,0.851,-11.24,-28.43,-19.67,3.333,-2.127,0,0,0,0,0,0,0,0,0,0,0,0,0,0,0,0,
394,41.79,-29.3,-32.01,-135.9,-18.71,39.14,-22.69,-26.01,-5.701,20.03,4.515,-8.911,-21.68,1.494,-2.281,-5.314,0,0,0,0,0,0,0,0,0,0,0,0,0,0,0,0,
395,59.46,-29.66,-91.1,-25.0,-52.1,10.96,-46.85,25.93,7.402,26.5,8.546,7.462,-16.69,18.4,18.11,12.88,0,0,0,0,0,0,0,0,0,0,0,0,0,0,0,0,
396,-19.88,-42.21,-72.09,128.4,-38.46,-37.94,2.123,35.03,10.06,-3.331,29.45,4.306,-4.62,14.23,19.55,14.74,0,0,0,0,0,0,0,0,0,0,0,0,0,0,0,0,
397,-34.84,-9.036,-43.71,9.395,-15.59,-5.601,42.69,-12.17,-11.27,-20.34,37.3,-0.4354,9.624,14.04,26.42,18.32,0,0,0,0,0,0,0,0,0,0,0,0,0,0,0,0,
398,-8.874,51.28,-97.63,-129.0,-11.35,-17.47,-6.934,21.37,9.417,-9.11,4.838,1.153,2.288,9.385,39.78,26.02,0,0,0,0,0,0,0,0,0,0,0,0,0,0,0,0,
399,-86.08,59.64,-98.03,-36.15,14.93,-27.37,-13.02,-36.43,38.45,41.29,-8.27,-4.642,1.497,14.02,17.52,15.15,0,0,0,0,0,0,0,0,0,0,0,0,0,0,0,0,
400,-137.6,-45.83,-16.56,33.75,1.497,15.42,6.811,-84.08,10.04,51.83,11.97,-1.922,17.46,27.98,-7.864,7.049,0,0,0,0,0,0,0,0,0,0,0,0,0,0,0,0,
401,-73.54,-120.0,-50.25,-18.26,-75.01,-17.77,-44.52,34.3,-15.72,-9.944,-3.742,3.488,0.5865,7.118,-3.96,6.391,0,0,0,0,0,0,0,0,0,0,0,0,0,0,0,0,
402,-43.3,-33.26,-112.4,-26.52,-88.89,-39.05,-22.51,68.08,5.925,-25.61,-11.62,15.16,-2.999,4.725,15.78,12.2,0,0,0,0,0,0,0,0,0,0,0,0,0,0,0,0,
403,-64.12,-7.243,-23.83,-0.9087,-47.15,13.6,61.08,21.85,36.61,27.79,12.28,25.64,28.77,29.39,19.88,15.2,0,0,0,0,0,0,0,0,0,0,0,0,0,0,0,0,
404,-66.66,-110.3,43.03,-27.94,-32.86,12.17,14.07,52.86,34.75,16.83,3.374,16.98,21.46,14.65,6.452,4.155,0,0,0,0,0,0,0,0,0,0,0,0,0,0,0,0,
405,-72.23,-88.28,-70.81,-76.43,-21.12,-10.19,-63.69,25.18,6.931,-28.93,-0.1011,13.37,-1.728,1.821,4.661,-0.2973,0,0,0,0,0,0,0,0,0,0,0,0,0,0,0,0,
406,-84.06,-24.39,-211.0,-11.61,-47.0,-47.71,-62.64,-50.08,-8.982,-19.22,-0.8226,-9.858,-16.75,-15.53,-9.216,-14.78,0,0,0,0,0,0,0,0,0,0,0,0,0,0,0,0,
407,-83.05,-73.65,-162.6,55.18,-71.02,-60.01,-42.4,-41.09,-8.545,-26.74,-26.38,-26.99,-24.97,-31.05,-22.12,-26.39,0,0,0,0,0,0,0,0,0,0,0,0,0,0,0,0,
408,-96.31,-55.29,-15.82,-119.3,3.497,57.84,4.377,-12.33,-5.495,-13.22,-12.72,28.95,9.001,30.44,3.826,1.738,0,0,0,0,0,0,0,0,0,0,0,0,0,0,0,0,
409,-120.6,-1.742,-8.232,-161.8,15.91,55.97,4.611,11.9,-1.524,62.09,-10.14,41.49,10.86,41.81,5.469,6.605,0,0,0,0,0,0,0,0,0,0,0,0,0,0,0,0,
410,-73.94,-33.82,-33.83,142.0,-54.64,-68.2,-44.22,58.82,9.715,45.23,-28.8,-13.41,-27.33,-28.95,-13.45,-16.27,0,0,0,0,0,0,0,0,0,0,0,0,0,0,0,0,
411,1.073,-29.93,27.74,153.2,-15.88,-0.4151,2.959,43.25,20.19,-22.87,12.9,3.413,-6.339,-10.98,1.863,-6.481,0,0,0,0,0,0,0,0,0,0,0,0,0,0,0,0,
412,-9.942,-29.09,-1.425,-121.0,18.21,36.19,30.74,-24.15,-1.336,-16.23,10.1,25.09,4.61,23.9,0.1969,0.5675,0,0,0,0,0,0,0,0,0,0,0,0,0,0,0,0,
413,-24.36,-68.85,-94.42,-80.27,-32.25,-33.29,-42.0,-5.736,-21.54,-6.474,-44.75,-1.925,-25.39,5.513,-12.08,-0.9197,0,0,0,0,0,0,0,0,0,0,0,0,0,0,0,0,
414,-14.71,-26.86,-95.23,68.73,-20.9,60.62,-47.19,56.2,-0.1061,15.88,-13.39,14.39,-8.917,30.34,10.47,13.59,0,0,0,0,0,0,0,0,0,0,0,0,0,0,0,0,
415,-48.78,13.62,-56.39,39.27,-7.019,59.99,-10.02,32.47,9.153,44.57,20.71,21.38,10.76,36.42,22.58,12.34,0,0,0,0,0,0,0,0,0,0,0,0,0,0,0,0,
416,-38.53,5.406,-22.5,-23.73,-43.56,-73.8,-1.029,-13.01,2.123,-6.123,-2.0,-5.74,4.883,8.325,16.16,11.65,0,0,0,0,0,0,0,0,0,0,0,0,0,0,0,0,
417,-27.07,43.99,-5.347,-64.82,-34.47,-1.361,20.84,-20.68,20.32,0.4837,9.053,20.83,16.52,36.59,18.08,31.08,0,0,0,0,0,0,0,0,0,0,0,0,0,0,0,0,
418,-101.9,27.32,-25.54,-0.4822,-18.38,38.17,-4.063,-36.33,30.29,88.5,12.22,44.34,7.847,39.82,3.316,25.93,0,0,0,0,0,0,0,0,0,0,0,0,0,0,0,0,
419,-103.2,-88.16,-73.02,84.69,-43.28,-71.93,-40.63,-24.22,6.655,41.22,-29.28,11.46,-24.95,-12.4,-19.59,1.649,0,0,0,0,0,0,0,0,0,0,0,0,0,0,0,0,
420,-16.69,-114.5,-134.0,36.87,-58.34,-23.01,-4.319,19.77,-20.17,-58.03,-24.32,11.92,-11.96,-4.164,7.407,13.52,0,0,0,0,0,0,0,0,0,0,0,0,0,0,0,0,
421,-14.88,-32.18,-135.6,7.322,-47.26,42.17,-4.295,16.57,-1.448,-22.28,15.17,42.62,26.73,31.68,44.23,33.54,0,0,0,0,0,0,0,0,0,0,0,0,0,0,0,0,
422,-106.5,-12.83,-94.05,9.848,-33.2,-43.05,-63.88,-2.75,38.0,16.03,-2.806,18.51,8.89,-0.7587,6.638,3.788,0,0,0,0,0,0,0,0,0,0,0,0,0,0,0,0,
423,-155.1,-56.13,-94.25,14.99,-43.78,-59.65,-56.64,30.54,14.04,-26.11,-27.75,-13.07,-27.48,-33.29,-16.17,-11.56,0,0,0,0,0,0,0,0,0,0,0,0,0,0,0,0,
424,-90.96,-61.17,-73.07,56.85,-66.4,-6.273,2.102,55.19,-17.96,-31.34,13.04,9.687,-1.35,-1.524,41.9,28.56,0,0,0,0,0,0,0,0,0,0,0,0,0,0,0,0,
425,-52.21,-67.35,-48.51,20.06,-66.19,-28.0,16.26,3.108,9.578,-2.335,34.38,14.03,21.04,9.127,45.96,30.75,0,0,0,0,0,0,0,0,0,0,0,0,0,0,0,0,
426,-88.87,-70.93,-94.76,35.12,-60.15,-66.32,-7.443,-51.78,12.19,-15.45,-1.693,-24.39,-10.09,-32.11,-4.761,-6.357,0,0,0,0,0,0,0,0,0,0,0,0,0,0,0,0,
427,-65.69,-25.94,-107.9,62.68,-55.14,-36.75,-16.87,-35.55,-15.84,-39.56,-1.826,-20.63,-13.06,-30.1,8.537,-1.941,0,0,0,0,0,0,0,0,0,0,0,0,0,0,0,0,
428,-52.07,-33.54,-75.56,-129.4,-14.67,47.29,-8.051,5.364,-7.069,-10.65,32.4,22.85,19.5,18.47,32.02,18.9,0,0,0,0,0,0,0,0,0,0,0,0,0,0,0,0,
429,-93.38,-72.87,-91.88,-127.1,23.66,71.82,3.146,28.36,14.0,43.21,23.32,18.91,16.31,12.68,7.907,6.621,0,0,0,0,0,0,0,0,0,0,0,0,0,0,0,0,
430,-56.82,-25.85,-86.67,135.6,-8.524,-27.28,23.05,25.6,19.51,20.13,-9.55,-24.2,-13.59,-38.32,-16.87,-24.34,0,0,0,0,0,0,0,0,0,0,0,0,0,0,0,0,
431,-4.372,5.186,-3.734,131.3,-50.97,-87.95,34.43,10.0,5.17,-56.24,-4.652,-22.21,-15.19,-33.19,-16.34,-25.83,0,0,0,0,0,0,0,0,0,0,0,0,0,0,0,0,
432,-2.97,-35.02,14.08,67.03,-49.15,-28.58,5.848,28.52,-19.39,-41.54,9.589,13.46,4.896,14.74,5.198,6.582,0,0,0,0,0,0,0,0,0,0,0,0,0,0,0,0,
433,-15.45,-34.54,-78.45,133.6,-49.16,14.94,-31.1,31.7,-11.04,36.94,-13.85,11.31,4.385,23.43,8.08,6.03,0,0,0,0,0,0,0,0,0,0,0,0,0,0,0,0,
434,-74.63,-1.553,-81.59,17.54,-29.33,26.53,-41.98,-44.34,15.25,36.75,-31.76,-10.85,-6.749,7.607,-25.58,-25.83,0,0,0,0,0,0,0,0,0,0,0,0,0,0,0,0,
435,-107.2,-14.33,-17.2,-80.49,2.543,52.81,-46.02,-94.1,8.405,-1.339,-25.02,-7.215,-8.588,9.061,-38.92,-21.34,0,0,0,0,0,0,0,0,0,0,0,0,0,0,0,0,
436,-71.58,-36.08,-101.3,37.1,-18.54,56.12,-37.71,-27.24,-1.422,29.06,-18.74,11.61,-5.959,19.98,-14.3,5.395,0,0,0,0,0,0,0,0,0,0,0,0,0,0,0,0,
437,-66.93,4.629,-179.0,38.8,-20.22,53.73,-29.32,58.6,17.06,57.4,1.212,17.86,3.043,19.61,-3.216,5.373,0,0,0,0,0,0,0,0,0,0,0,0,0,0,0,0,
438,-54.11,41.39,-91.54,-79.92,2.214,43.79,-41.39,45.28,10.3,24.58,8.704,9.627,3.528,4.44,-14.92,-6.364,0,0,0,0,0,0,0,0,0,0,0,0,0,0,0,0,
439,-4.895,-2.479,-37.6,29.78,-42.68,1.55,-9.272,-1.875,-12.22,19.07,-1.341,16.85,4.951,6.55,-11.35,2.445,0,0,0,0,0,0,0,0,0,0,0,0,0,0,0,0,
440,-13.94,-27.51,-49.99,215.5,-79.12,-33.34,29.88,19.8,9.843,11.65,8.615,17.02,11.13,3.696,-13.11,1.112,0,0,0,0,0,0,0,0,0,0,0,0,0,0,0,0,
441,-50.3,-2.658,-22.59,84.77,-68.52,-63.88,-29.32,11.63,11.71,-50.78,-16.64,-26.43,-28.71,-47.68,-49.12,-31.81,0,0,0,0,0,0,0,0,0,0,0,0,0,0,0,0,
442,-48.48,-6.587,-41.65,-58.15,-93.23,-80.82,-88.97,-52.89,-35.96,-50.47,-62.11,-44.28,-69.47,-70.77,-60.37,-35.77,0,0,0,0,0,0,0,0,0,0,0,0,0,0,0,0,
443,-63.13,-10.32,-115.1,62.12,-117.4,-51.83,-71.23,-11.66,-52.74,-32.13,-38.27,-11.6,-45.62,-34.88,-25.8,0.1587,0,0,0,0,0,0,0,0,0,0,0,0,0,0,0,0,
444,-108.1,-30.27,-123.0,15.61,-84.63,-23.55,-50.84,52.74,-46.7,-68.61,-6.209,4.932,-19.21,-16.59,2.486,20.7,0,0,0,0,0,0,0,0,0,0,0,0,0,0,0,0,
445,-113.7,-104.0,-89.13,-127.0,-57.52,-28.57,-48.02,-23.37,-32.52,-19.26,-17.05,-1.774,-17.14,-24.43,6.744,16.26,0,0,0,0,0,0,0,0,0,0,0,0,0,0,0,0,
446,-90.75,-115.4,-73.72,10.36,-73.05,-53.24,-51.27,-65.16,0.0957,10.86,-18.58,-15.61,-13.16,-36.6,-8.566,2.457,0,0,0,0,0,0,0,0,0,0,0,0,0,0,0,0,
447,-92.46,-39.22,-15.25,103.8,-54.57,-37.68,-13.95,14.79,3.98,-64.95,-0.4117,-14.29,-4.709,-24.54,-11.91,4.68,0,0,0,0,0,0,0,0,0,0,0,0,0,0,0,0,
448,-82.24,-6.673,37.63,50.18,-2.324,28.62,55.16,0.1126,8.897,0.7238,23.81,8.705,15.89,12.85,10.41,15.28,0,0,0,0,0,0,0,0,0,0,0,0,0,0,0,0,
449,-39.03,-30.27,-32.04,90.84,-16.21,20.27,16.27,-83.56,37.65,83.21,33.52,-0.4434,22.68,3.613,13.85,-0.0267,0,0,0,0,0,0,0,0,0,0,0,0,0,0,0,0,
450,-10.15,-20.48,-104.1,98.3,-43.62,-31.78,-53.45,-28.47,36.28,-29.93,13.24,-15.81,9.796,-16.76,11.48,0.2117,0,0,0,0,0,0,0,0,0,0,0,0,0,0,0,0,
451,-15.5,-13.46,-93.07,44.07,-24.18,-0.5134,-9.745,48.43,30.07,-49.82,-7.195,2.953,7.057,6.136,21.32,23.12,0,0,0,0,0,0,0,0,0,0,0,0,0,0,0,0,
452,-30.39,-53.63,-64.4,26.92,-27.71,28.28,0.3091,18.92,21.31,46.0,-8.898,2.201,1.791,4.153,10.21,15.98,0,0,0,0,0,0,0,0,0,0,0,0,0,0,0,0,
453,-1.361,-21.71,-4.127,37.18,-23.53,15.27,-58.2,21.17,-13.68,-4.794,2.411,0.8368,2.825,-1.581,5.045,11.65,0,0,0,0,0,0,0,0,0,0,0,0,0,0,0,0,
454,49.9,43.29,2.981,91.68,4.207,28.97,-36.81,42.22,-8.491,-31.72,15.53,21.09,17.8,20.5,15.79,21.58,0,0,0,0,0,0,0,0,0,0,0,0,0,0,0,0,
455,19.79,-20.84,-36.16,72.75,-2.26,40.1,18.2,13.3,25.03,72.99,13.35,3.907,14.57,3.705,1.17,5.606,0,0,0,0,0,0,0,0,0,0,0,0,0,0,0,0,
456,-55.56,-48.29,47.8,14.83,5.176,32.9,23.74,36.46,22.1,54.46,-1.383,-13.77,5.915,-13.15,-13.97,-2.874,0,0,0,0,0,0,0,0,0,0,0,0,0,0,0,0,
457,-60.73,59.76,49.84,85.3,19.58,29.8,-0.4179,35.18,13.61,-22.2,-5.659,14.01,4.814,14.02,-5.301,13.43,0,0,0,0,0,0,0,0,0,0,0,0,0,0,0,0,
458,-30.85,56.11,-110.4,111.8,-20.31,24.92,-50.27,-58.15,4.92,58.71,-6.04,12.32,-12.33,5.532,-12.3,4.878,0,0,0,0,0,0,0,0,0,0,0,0,0,0,0,0,
459,-46.33,-47.74,-100.0,47.59,-86.48,-17.95,-84.9,-51.16,-40.78,63.6,-32.99,-30.12,-35.78,-42.16,-40.28,-27.38,0,0,0,0,0,0,0,0,0,0,0,0,0,0,0,0,
460,-68.36,-51.62,-15.36,59.85,-122.6,-80.63,-52.33,17.02,-69.32,-88.23,-42.6,-29.91,-30.39,-45.26,-43.18,-29.57,0,0,0,0,0,0,0,0,0,0,0,0,0,0,0,0,
461,-48.83,-40.26,-84.46,70.78,-88.96,-60.51,-13.74,-26.99,-30.83,-76.44,-8.755,-3.408,-11.66,-20.34,-27.21,-11.8,0,0,0,0,0,0,0,0,0,0,0,0,0,0,0,0,
462,-47.38,-97.34,-127.8,33.25,-75.63,-28.41,-41.8,-42.41,-13.98,-2.066,-14.84,-11.43,-27.05,-27.65,-23.83,-10.71,0,0,0,0,0,0,0,0,0,0,0,0,0,0,0,0,
463,-75.16,-109.1,-80.12,-20.5,-127.1,-65.32,-72.36,38.1,-47.66,-58.11,-30.1,-5.692,-36.59,-23.17,-4.926,5.862,0,0,0,0,0,0,0,0,0,0,0,0,0,0,0,0,
464,-76.65,-55.85,-45.61,-75.1,-92.43,-36.39,-33.22,40.16,-33.24,-28.69,14.27,27.14,0.5606,12.68,14.51,26.38,0,0,0,0,0,0,0,0,0,0,0,0,0,0,0,0,
465,-112.6,-36.49,-66.18,5.64,-33.35,-14.11,14.93,-14.42,-2.961,14.05,24.58,25.85,14.38,11.36,0.9921,14.05,0,0,0,0,0,0,0,0,0,0,0,0,0,0,0,0,
466,-155.0,-49.53,-92.22,109.8,-85.5,-106.0,7.115,-15.77,-13.55,-51.53,-5.336,17.41,-8.145,-12.76,3.243,16.86,0,0,0,0,0,0,0,0,0,0,0,0,0,0,0,0,
467,-74.54,-55.67,-9.197,19.83,-117.8,-114.8,-36.14,-7.504,-15.98,-28.31,-6.933,20.35,-19.05,-19.61,10.25,23.63,0,0,0,0,0,0,0,0,0,0,0,0,0,0,0,0,
468,-0.1557,-80.07,28.32,-60.11,-100.0,-35.12,-67.18,17.02,-38.28,-22.19,-15.98,10.69,-22.84,-19.73,-4.054,8.355,0,0,0,0,0,0,0,0,0,0,0,0,0,0,0,0,
469,-24.72,-71.01,-94.3,13.95,-89.74,0.1955,-59.57,45.98,-57.22,-64.18,-20.75,21.01,-13.04,5.605,4.278,20.38,0,0,0,0,0,0,0,0,0,0,0,0,0,0,0,0,
470,-23.45,-16.83,-79.08,67.66,-25.64,40.21,-31.4,0.2368,-11.01,48.58,-8.31,29.51,1.071,27.94,-3.002,21.6,0,0,0,0,0,0,0,0,0,0,0,0,0,0,0,0,
471,-51.75,-44.42,38.52,46.11,35.96,39.61,-11.02,-16.03,4.962,79.66,-15.17,8.458,-4.73,7.24,-41.14,-7.869,0,0,0,0,0,0,0,0,0,0,0,0,0,0,0,0,
472,-114.6,-68.6,-46.73,2.766,24.71,-4.956,-12.28,51.6,-10.18,-37.38,-20.49,8.657,-12.69,-9.219,-48.48,-7.971,0,0,0,0,0,0,0,0,0,0,0,0,0,0,0,0,
473,-36.93,41.1,-104.7,30.91,6.388,28.32,-13.85,70.01,8.85,-12.31,-27.1,14.9,-20.81,-7.428,-48.12,-10.2,0,0,0,0,0,0,0,0,0,0,0,0,0,0,0,0,
474,61.86,77.74,20.08,139.5,-1.123,46.14,13.06,30.95,-2.846,25.63,-35.64,-1.911,-23.49,-12.85,-46.9,-24.99,0,0,0,0,0,0,0,0,0,0,0,0,0,0,0,0,
475,40.0,-12.77,25.5,87.22,-21.23,12.22,1.181,-34.24,-20.03,-9.719,-25.22,-13.27,-17.8,-23.56,-31.99,-22.43,0,0,0,0,0,0,0,0,0,0,0,0,0,0,0,0,
476,52.8,-1.215,-21.11,-33.46,-35.88,40.83,-60.47,-79.94,-4.566,25.21,-33.0,-22.93,-26.23,-37.84,-47.48,-37.03,0,0,0,0,0,0,0,0,0,0,0,0,0,0,0,0,
477,75.78,14.67,83.03,61.23,-16.98,19.29,-56.88,-10.59,-14.36,-12.19,-43.89,-28.98,-25.93,-37.96,-61.31,-46.15,0,0,0,0,0,0,0,0,0,0,0,0,0,0,0,0,
478,-33.86,-106.3,56.24,80.13,25.34,-34.26,-29.06,41.91,-10.7,-68.57,-22.58,-12.39,-10.24,-10.29,-42.16,-21.23,0,0,0,0,0,0,0,0,0,0,0,0,0,0,0,0,
479,-127.7,-127.6,-159.9,-64.65,14.95,60.48,-65.22,-5.086,6.66,45.39,-20.02,1.741,-16.84,12.93,-44.24,-14.91,0,0,0,0,0,0,0,0,0,0,0,0,0,0,0,0,
480,-97.4,-27.77,-184.0,-2.093,-75.59,51.82,-78.16,-14.49,-33.57,57.28,-49.79,-18.74,-41.04,-11.13,-59.75,-29.05,0,0,0,0,0,0,0,0,0,0,0,0,0,0,0,0,
481,-50.88,-25.48,-11.08,61.14,-130.1,-134.6,-31.15,-16.98,-56.92,-80.34,-45.44,-43.53,-40.68,-46.13,-41.53,-21.28,0,0,0,0,0,0,0,0,0,0,0,0,0,0,0,0,
482,-8.989,-40.29,64.44,-75.94,-75.77,-92.52,10.92,-34.72,-6.899,-48.2,10.02,-20.62,2.028,-18.84,-14.12,-1.137,0,0,0,0,0,0,0,0,0,0,0,0,0,0,0,0,
483,15.75,-40.37,22.11,-107.1,-35.85,21.22,15.48,-21.53,18.39,8.128,27.77,6.429,18.29,7.282,-19.3,-2.443,0,0,0,0,0,0,0,0,0,0,0,0,0,0,0,0,
484,-41.68,-136.5,-42.49,-62.25,-85.08,-113.9,-14.78,-54.68,-21.46,-88.88,-10.05,-14.25,-25.01,-31.6,-30.87,-17.67,0,0,0,0,0,0,0,0,0,0,0,0,0,0,0,0,
485,-97.71,-163.1,-111.1,-49.97,-106.9,-160.5,-22.23,-49.49,-48.38,-105.6,7.373,-25.39,-25.16,-40.58,-8.846,-10.29,0,0,0,0,0,0,0,0,0,0,0,0,0,0,0,0,
486,-62.67,-74.93,-98.8,-0.8869,-57.73,-36.83,13.56,35.92,-23.84,-33.62,65.79,4.306,34.59,5.855,30.46,23.27,0,0,0,0,0,0,0,0,0,0,0,0,0,0,0,0,
487,12.06,-63.71,30.01,-24.28,-21.57,-27.42,37.36,27.68,17.11,-16.14,80.35,27.7,62.69,23.97,58.01,48.46,0,0,0,0,0,0,0,0,0,0,0,0,0,0,0,0,
488,47.95,-62.15,105.3,-34.24,-37.36,-27.51,40.45,-3.263,35.48,-9.006,78.93,13.99,44.47,-0.4853,40.38,28.47,0,0,0,0,0,0,0,0,0,0,0,0,0,0,0,0,
489,13.39,-11.33,46.75,21.77,-63.39,49.09,35.69,21.65,11.79,-8.412,56.63,-8.94,11.22,-18.4,-16.59,-11.18,0,0,0,0,0,0,0,0,0,0,0,0,0,0,0,0,
490,-23.28,-38.11,-1.492,-62.57,-36.18,54.54,13.15,-35.62,-14.0,6.029,-6.657,-9.083,-13.87,-11.01,-45.01,-23.08,0,0,0,0,0,0,0,0,0,0,0,0,0,0,0,0,
491,-24.03,-88.52,-4.061,-118.7,-10.26,-5.655,-14.2,-94.76,-4.033,21.18,-42.82,-25.15,-30.6,-27.64,-52.43,-37.71,0,0,0,0,0,0,0,0,0,0,0,0,0,0,0,0,
492,-39.38,-66.12,-6.039,-5.36,-38.65,-35.36,-15.64,-30.87,-4.318,-44.66,-24.27,-52.77,-41.44,-59.18,-71.31,-57.92,0,0,0,0,0,0,0,0,0,0,0,0,0,0,0,0,
493,-0.5813,-11.14,30.85,46.41,-31.91,-24.92,-10.66,28.07,-24.83,-65.82,-16.26,-49.06,-41.26,-56.49,-79.12,-60.1,0,0,0,0,0,0,0,0,0,0,0,0,0,0,0,0,
494,112.3,50.86,51.69,57.05,-14.96,-28.75,-51.54,-1.809,-39.97,-32.42,-61.23,-58.23,-64.61,-65.57,-91.44,-77.7,0,0,0,0,0,0,0,0,0,0,0,0,0,0,0,0,
495,150.1,95.33,17.82,100.1,-46.56,-20.25,-87.65,-40.97,-57.96,-61.97,-90.2,-70.23,-86.4,-72.99,-101.4,-78.24,0,0,0,0,0,0,0,0,0,0,0,0,0,0,0,0,
496,120.0,101.3,2.493,69.64,-49.7,9.224,-72.59,-29.48,-56.24,-39.79,-66.76,-58.22,-66.83,-51.74,-85.32,-48.58,0,0,0,0,0,0,0,0,0,0,0,0,0,0,0,0,
497,118.4,113.6,-10.86,35.27,-28.68,-13.41,-61.88,-0.3433,-42.17,-20.02,-54.44,-55.85,-52.97,-47.98,-63.34,-41.83,0,0,0,0,0,0,0,0,0,0,0,0,0,0,0,0,
498,127.6,149.2,-10.21,80.91,15.03,34.85,-28.62,6.947,-27.55,-53.18,-33.36,-15.49,-23.33,-3.194,-26.59,-16.44,0,0,0,0,0,0,0,0,0,0,0,0,0,0,0,0,
499,136.0,152.3,46.83,120.0,69.7,135.7,15.33,3.137,12.86,49.37,5.207,15.87,13.28,38.66,-6.78,8.563,0,0,0,0,0,0,0,0,0,0,0,0,0,0,0,0,
500,145.5,130.6,78.7,65.8,27.36,54.05,-23.01,5.424,12.84,83.98,-3.905,-39.6,-20.49,-29.92,-32.15,-23.88,0,0,0,0,0,0,0,0,0,0,0,0,0,0,0,0,
501,153.4,162.0,82.73,-28.89,-5.944,1.776,-52.55,24.74,-29.63,-62.3,-15.69,-47.03,-42.1,-58.71,-40.74,-34.58,0,0,0,0,0,0,0,0,0,0,0,0,0,0,0,0,
502,176.6,212.8,120.7,-5.066,56.94,115.2,-11.35,45.29,-16.4,-52.58,-1.84,-0.1792,-15.1,-12.52,-27.04,-17.59,0,0,0,0,0,0,0,0,0,0,0,0,0,0,0,0,
503,216.6,236.5,127.2,128.8,63.96,94.34,2.537,46.68,8.934,28.89,-3.511,-11.32,-23.75,-24.48,-13.37,-21.79,0,0,0,0,0,0,0,0,0,0,0,0,0,0,0,0,
504,278.9,285.9,50.79,219.4,36.45,41.39,-7.007,48.54,1.098,-7.685,-1.985,-18.95,-32.82,-32.75,-12.05,-25.09,0,0,0,0,0,0,0,0,0,0,0,0,0,0,0,0,
505,345.6,345.0,22.46,242.9,67.69,138.5,11.32,38.98,8.639,2.474,3.666,-3.813,-15.69,-5.39,-38.24,-32.68,0,0,0,0,0,0,0,0,0,0,0,0,0,0,0,0,
506,382.8,402.0,166.2,241.5,115.9,165.9,49.46,19.71,34.1,40.8,8.213,-4.649,-6.852,-4.791,-29.29,-27.96,0,0,0,0,0,0,0,0,0,0,0,0,0,0,0,0,
507,389.6,474.1,290.6,223.3,164.6,125.8,62.79,39.68,63.79,35.97,6.966,-8.596,-6.193,-17.67,-13.1,-21.46,0,0,0,0,0,0,0,0,0,0,0,0,0,0,0,0,
508,387.3,460.3,226.6,179.0,179.8,153.3,30.68,47.22,67.76,31.19,-16.11,-15.38,-17.6,-22.78,-45.02,-41.86,0,0,0,0,0,0,0,0,0,0,0,0,0,0,0,0,
509,412.5,393.3,163.8,113.8,158.0,182.2,21.89,-2.611,39.83,23.55,-4.905,8.064,-9.792,10.28,-18.17,-15.4,0,0,0,0,0,0,0,0,0,0,0,0,0,0,0,0,
510,428.3,433.9,164.6,141.3,145.2,189.0,30.08,-10.84,35.75,76.55,23.48,26.28,14.57,40.26,27.39,20.51,0,0,0,0,0,0,0,0,0,0,0,0,0,0,0,0,
511,421.0,529.1,178.5,264.7,138.2,178.4,24.3,43.97,63.63,120.8,-1.942,-21.87,1.394,-1.831,-23.03,-23.47,0,0,0,0,0,0,0,0,0,0,0,0,0,0,0,0,
512,492.6,567.4,294.4,269.8,157.3,165.4,42.84,60.13,88.67,44.4,-20.96,-50.42,-18.13,-32.66,-58.81,-54.75,0,0,0,0,0,0,0,0,0,0,0,0,0,0,0,0,
513,568.1,550.9,329.8,206.6,161.4,177.6,19.81,33.74,64.74,0.791,-9.479,-24.85,-18.43,-8.647,-34.71,-33.45,0,0,0,0,0,0,0,0,0,0,0,0,0,0,0,0,
514,522.8,493.7,177.0,282.0,109.3,147.6,-11.32,38.17,17.6,36.64,-25.14,-9.751,-25.66,-0.7848,-31.14,-26.08,0,0,0,0,0,0,0,0,0,0,0,0,0,0,0,0,
515,465.8,444.0,116.8,294.6,103.7,132.8,53.35,73.29,41.81,49.98,-48.34,-6.133,-22.74,-6.117,-30.42,-25.11,0,0,0,0,0,0,0,0,0,0,0,0,0,0,0,0,
516,417.8,440.8,127.0,151.4,129.3,201.4,42.76,84.17,67.97,64.58,-28.44,8.573,4.874,12.42,-6.004,-10.52,0,0,0,0,0,0,0,0,0,0,0,0,0,0,0,0,
517,336.6,434.2,91.95,131.0,103.1,165.9,-67.53,58.17,32.97,60.04,12.77,18.79,22.35,21.32,7.125,-4.25,0,0,0,0,0,0,0,0,0,0,0,0,0,0,0,0,
518,321.5,399.3,170.4,150.9,86.95,62.87,-50.99,61.38,37.23,20.19,7.866,-8.123,4.904,-12.5,-12.37,-21.4,0,0,0,0,0,0,0,0,0,0,0,0,0,0,0,0,
519,328.2,390.6,237.9,72.16,82.86,130.2,20.33,87.98,54.47,28.08,-12.35,-20.43,-0.231,-14.75,-24.88,-27.08,0,0,0,0,0,0,0,0,0,0,0,0,0,0,0,0,
520,290.7,370.8,139.7,100.1,46.8,163.2,0.6781,9.613,28.7,50.07,5.927,24.84,20.62,35.45,-13.79,-6.779,0,0,0,0,0,0,0,0,0,0,0,0,0,0,0,0,
521,335.9,282.3,78.24,153.6,27.2,39.54,-4.285,-81.18,20.18,24.08,5.244,22.91,11.42,26.88,-20.59,-6.87,0,0,0,0,0,0,0,0,0,0,0,0,0,0,0,0,
522,424.5,289.2,114.7,125.2,44.91,78.86,44.96,20.29,35.12,21.77,3.572,-12.42,13.27,-0.9487,-16.88,-9.447,0,0,0,0,0,0,0,0,0,0,0,0,0,0,0,0,
523,365.2,395.7,137.9,183.9,54.35,160.3,42.01,126.0,53.16,39.94,30.4,22.71,40.24,27.98,4.781,4.293,0,0,0,0,0,0,0,0,0,0,0,0,0,0,0,0,
524,241.6,332.2,131.1,199.8,24.9,29.87,-8.552,61.92,37.46,1.577,2.385,39.32,12.3,20.9,-8.861,-4.741,0,0,0,0,0,0,0,0,0,0,0,0,0,0,0,0,
525,241.7,220.3,103.9,82.16,9.85,14.38,6.072,29.89,0.1227,-3.127,-32.4,2.964,-7.607,-2.101,-10.33,-7.367,0,0,0,0,0,0,0,0,0,0,0,0,0,0,0,0,
526,264.0,264.1,117.0,55.69,64.53,145.1,53.42,67.59,42.52,53.32,-4.588,1.667,27.68,25.86,8.697,6.003,0,0,0,0,0,0,0,0,0,0,0,0,0,0,0,0,
527,191.4,228.9,171.0,91.01,102.0,106.8,10.13,61.31,90.77,23.78,2.524,6.16,24.45,27.98,-12.47,-5.939,0,0,0,0,0,0,0,0,0,0,0,0,0,0,0,0,
528,149.6,113.3,105.6,73.09,40.3,53.22,-59.19,40.44,38.98,-12.28,-22.14,-8.522,-8.492,1.547,-29.47,-20.93,0,0,0,0,0,0,0,0,0,0,0,0,0,0,0,0,
529,178.9,143.7,-36.63,78.35,-18.77,82.37,-45.88,9.035,-2.267,37.42,-22.07,-9.64,-16.95,-8.865,-27.91,-27.61,0,0,0,0,0,0,0,0,0,0,0,0,0,0,0,0,
530,208.6,194.6,10.37,108.4,25.64,44.2,-0.7205,12.14,22.79,9.827,-1.426,-11.48,-15.56,-21.12,-43.86,-37.1,0,0,0,0,0,0,0,0,0,0,0,0,0,0,0,0,
531,227.1,174.2,152.5,99.88,70.01,22.33,20.96,41.68,40.0,-32.34,3.163,-13.52,-11.09,-19.21,-38.37,-35.09,0,0,0,0,0,0,0,0,0,0,0,0,0,0,0,0,
532,196.1,193.5,109.9,61.04,35.92,45.88,30.06,-24.37,27.16,42.28,-24.34,-0.271,-6.079,3.619,-14.39,-30.15,0,0,0,0,0,0,0,0,0,0,0,0,0,0,0,0,
533,159.1,201.6,57.68,66.19,36.46,57.28,29.98,-52.37,23.99,49.1,-29.61,8.186,2.409,13.75,-20.79,-32.49,0,0,0,0,0,0,0,0,0,0,0,0,0,0,0,0,
534,176.2,109.2,124.9,95.38,53.16,79.21,14.17,33.03,44.18,-29.27,-8.004,0.5883,3.116,-0.8064,-32.41,-29.87,0,0,0,0,0,0,0,0,0,0,0,0,0,0,0,0,
535,177.0,34.49,88.72,47.59,-20.31,31.96,-15.46,33.4,39.96,-14.53,-23.18,-7.492,-23.17,-25.58,-29.16,-23.24,0,0,0,0,0,0,0,0,0,0,0,0,0,0,0,0,
536,161.0,93.22,67.35,11.53,-53.84,-38.22,-30.24,9.351,10.75,15.09,-38.65,-6.277,-38.12,-31.98,-36.75,-25.71,0,0,0,0,0,0,0,0,0,0,0,0,0,0,0,0,
537,102.5,127.4,154.5,42.58,15.24,15.43,10.76,51.91,1.192,-24.36,-10.25,5.251,-15.41,-11.27,-31.35,-21.09,0,0,0,0,0,0,0,0,0,0,0,0,0,0,0,0,
538,-26.72,39.55,51.13,37.59,36.67,78.21,57.16,4.644,13.75,-19.85,12.91,18.02,5.088,6.698,-5.103,-0.5727,0,0,0,0,0,0,0,0,0,0,0,0,0,0,0,0,
539,-41.58,19.68,-87.9,64.9,-24.75,18.98,6.277,-44.31,23.04,7.556,4.133,8.263,-9.732,-5.481,-11.45,-7.858,0,0,0,0,0,0,0,0,0,0,0,0,0,0,0,0,
540,61.97,47.72,0.8823,118.1,-102.3,-65.07,-55.63,47.05,-17.95,-32.17,-10.67,-0.1319,-27.05,-15.12,-15.89,-21.13,0,0,0,0,0,0,0,0,0,0,0,0,0,0,0,0,
541,82.92,-22.91,32.38,54.0,-128.4,-55.54,-6.04,67.86,-49.85,-24.65,-13.16,19.09,-16.57,4.152,9.945,0.5102,0,0,0,0,0,0,0,0,0,0,0,0,0,0,0,0,
542,41.79,-35.21,-10.9,28.97,-73.33,-14.23,21.13,-42.47,-1.769,31.18,-12.56,12.75,-22.05,-0.8714,-4.558,-3.521,0,0,0,0,0,0,0,0,0,0,0,0,0,0,0,0,
543,28.58,48.54,78.75,105.8,-20.09,-36.54,-32.04,-38.08,-0.6719,-21.43,-9.725,-14.04,-35.38,-21.07,-16.83,-16.97,0,0,0,0,0,0,0,0,0,0,0,0,0,0,0,0,
544,52.02,47.43,77.88,19.18,-11.41,-26.53,-23.5,49.61,-34.21,-61.02,-1.283,-1.407,-7.148,4.774,16.09,10.7,0,0,0,0,0,0,0,0,0,0,0,0,0,0,0,0,
545,57.72,23.51,-36.17,-142.3,-14.08,29.04,25.61,26.21,25.75,-0.1572,0.4745,19.07,12.88,30.32,6.577,12.93,0,0,0,0,0,0,0,0,0,0,0,0,0,0,0,0,
546,-19.72,59.72,14.24,-61.56,-14.14,6.475,22.19,4.633,58.3,5.708,0.9305,16.54,-0.6042,15.63,-22.64,-9.098,0,0,0,0,0,0,0,0,0,0,0,0,0,0,0,0,
547,-54.31,40.18,106.4,121.4,17.74,9.061,-14.56,38.12,26.02,8.678,-3.5,12.99,-9.141,0.2365,-13.17,-8.627,0,0,0,0,0,0,0,0,0,0,0,0,0,0,0,0,
548,22.16,-21.27,49.18,114.6,27.35,56.67,-31.8,-29.04,23.34,23.88,-8.571,13.21,-12.86,-1.687,-3.011,-6.837,0,0,0,0,0,0,0,0,0,0,0,0,0,0,0,0,
549,47.1,-21.95,-14.44,-26.42,-53.79,-28.61,-9.778,-101.2,-3.073,-63.79,3.249,3.933,-16.36,-8.653,-1.342,-5.623,0,0,0,0,0,0,0,0,0,0,0,0,0,0,0,0,
550,-6.982,-10.71,-0.998,-77.63,-85.5,-91.78,-24.11,-53.5,-25.93,-71.46,-4.724,-12.57,-24.69,-18.78,-13.62,-13.05,0,0,0,0,0,0,0,0,0,0,0,0,0,0,0,0,
551,-30.93,-21.57,-7.794,10.91,1.484,6.918,-45.66,-6.006,0.6931,28.53,-15.47,9.107,-20.42,4.928,-23.62,-17.91,0,0,0,0,0,0,0,0,0,0,0,0,0,0,0,0,
552,13.89,-4.787,-29.83,32.72,35.81,32.06,25.53,7.029,11.1,13.24,7.396,41.53,3.279,29.63,-3.851,1.509,0,0,0,0,0,0,0,0,0,0,0,0,0,0,0,0,
553,77.67,23.95,32.71,-56.54,0.2432,-24.77,37.52,27.43,24.56,-16.75,-1.73,11.29,-11.98,-7.328,-0.951,1.01,0,0,0,0,0,0,0,0,0,0,0,0,0,0,0,0,
554,46.2,23.28,76.13,-40.17,17.65,-2.587,-55.39,29.15,14.13,-0.7382,-18.27,-6.148,-34.9,-28.15,-2.545,-0.0178,0,0,0,0,0,0,0,0,0,0,0,0,0,0,0,0,
555,-43.49,-15.55,-53.73,-33.92,40.66,10.73,-58.95,12.03,-43.99,-42.48,12.4,19.38,-8.243,0.0119,19.16,23.91,0,0,0,0,0,0,0,0,0,0,0,0,0,0,0,0,
556,-49.14,-52.17,-112.1,-154.3,45.92,2.233,-18.41,-19.97,-20.46,-18.63,18.24,-0.3988,11.01,-2.553,12.27,12.77,0,0,0,0,0,0,0,0,0,0,0,0,0,0,0,0,
557,-16.51,-25.2,86.72,-94.61,92.48,19.94,-17.45,-35.22,37.39,32.87,10.94,-14.69,16.51,-6.373,1.31,-4.153,0,0,0,0,0,0,0,0,0,0,0,0,0,0,0,0,
558,-0.4187,26.88,189.9,58.51,104.3,-21.17,22.78,-9.513,6.943,-33.19,29.7,11.27,28.48,8.447,19.85,15.44,0,0,0,0,0,0,0,0,0,0,0,0,0,0,0,0,
559,65.56,61.88,39.01,29.77,58.98,-65.68,31.38,-4.714,-0.0683,-51.9,21.64,2.404,14.11,-6.054,18.06,18.21,0,0,0,0,0,0,0,0,0,0,0,0,0,0,0,0,
560,121.3,53.74,-56.16,26.24,49.57,-53.9,-42.83,-21.91,35.54,-9.227,4.472,-9.069,-6.16,-18.85,-5.332,0.4106,0,0,0,0,0,0,0,0,0,0,0,0,0,0,0,0,
561,75.44,-70.64,6.61,27.73,68.84,-41.94,-54.07,-8.793,-1.549,-31.1,0.3981,11.87,-9.624,-8.55,-11.96,-1.644,0,0,0,0,0,0,0,0,0,0,0,0,0,0,0,0,
562,10.54,-143.0,66.97,-93.08,92.44,7.897,27.86,10.64,-28.21,-13.76,-15.58,17.91,-3.023,6.608,2.145,9.166,0,0,0,0,0,0,0,0,0,0,0,0,0,0,0,0,
563,-30.78,-7.861,35.51,-75.41,112.0,31.1,68.33,-10.14,24.87,4.448,-12.53,9.222,11.82,15.55,14.51,15.79,0,0,0,0,0,0,0,0,0,0,0,0,0,0,0,0,
564,-83.01,64.97,-19.55,4.793,103.6,-12.18,37.18,-67.36,45.92,-29.87,10.19,8.17,14.52,5.711,12.25,12.27,0,0,0,0,0,0,0,0,0,0,0,0,0,0,0,0,
565,-61.1,-1.868,16.96,-93.24,96.08,21.64,3.018,-87.92,17.58,26.68,6.3,11.22,10.64,2.855,9.398,9.445,0,0,0,0,0,0,0,0,0,0,0,0,0,0,0,0,
566,45.33,16.04,50.97,-175.8,92.55,41.84,-16.71,-34.82,8.984,55.15,-5.576,10.44,16.39,12.56,8.681,11.49,0,0,0,0,0,0,0,0,0,0,0,0,0,0,0,0,
567,91.43,32.73,10.88,-82.8,107.2,-6.095,5.592,20.37,19.18,-26.37,15.94,8.931,26.93,14.69,9.341,16.7,0,0,0,0,0,0,0,0,0,0,0,0,0,0,0,0,
568,68.5,-26.47,30.51,74.12,140.7,21.94,40.82,33.48,30.71,-21.28,35.39,12.55,31.58,16.66,9.274,17.44,0,0,0,0,0,0,0,0,0,0,0,0,0,0,0,0,
569,43.29,-4.331,41.87,77.58,97.65,-1.617,-9.108,21.65,22.83,10.12,14.52,13.91,16.73,12.22,6.162,10.79,0,0,0,0,0,0,0,0,0,0,0,0,0,0,0,0,
570,24.35,35.63,-25.84,-75.26,42.33,-67.24,-30.8,21.16,1.589,-14.08,1.956,16.37,16.78,13.94,22.37,18.22,0,0,0,0,0,0,0,0,0,0,0,0,0,0,0,0,
571,36.82,-14.55,4.316,-66.77,76.69,4.414,51.51,47.6,12.13,16.24,4.824,15.39,35.17,22.93,30.19,22.72,0,0,0,0,0,0,0,0,0,0,0,0,0,0,0,0,
572,42.3,-20.15,64.16,44.25,109.6,42.43,62.91,31.2,44.81,42.88,-9.118,6.925,24.6,11.94,2.161,4.557,0,0,0,0,0,0,0,0,0,0,0,0,0,0,0,0,
573,-4.754,36.55,-17.99,-29.77,128.5,31.81,22.71,-21.62,59.33,32.89,2.657,14.6,26.33,16.19,-3.081,1.486,0,0,0,0,0,0,0,0,0,0,0,0,0,0,0,0,
574,-45.18,-11.67,-73.8,-107.0,130.4,77.88,26.73,-13.76,36.47,30.19,25.23,16.73,46.2,23.88,18.25,11.3,0,0,0,0,0,0,0,0,0,0,0,0,0,0,0,0,
575,-26.74,-78.98,39.0,-72.2,77.2,11.02,7.051,11.86,10.11,5.341,15.01,-12.66,26.49,-15.65,21.28,5.839,0,0,0,0,0,0,0,0,0,0,0,0,0,0,0,0,
576,47.04,7.798,138.3,-52.98,77.79,-85.79,7.359,3.51,23.66,-8.043,17.16,-30.78,11.82,-43.52,13.87,-5.862,0,0,0,0,0,0,0,0,0,0,0,0,0,0,0,0,
577,81.05,57.94,57.6,1.53,92.51,-68.69,24.05,-0.1901,7.845,-41.11,18.16,-13.68,14.34,-27.03,3.474,-12.54,0,0,0,0,0,0,0,0,0,0,0,0,0,0,0,0,
578,31.31,-47.92,-42.57,5.009,38.12,-47.01,-17.7,-15.49,-33.81,-65.66,-14.58,7.563,-10.1,-13.62,-3.574,-7.291,0,0,0,0,0,0,0,0,0,0,0,0,0,0,0,0,
579,54.94,-75.88,-6.096,-91.55,44.96,12.4,-22.44,-13.64,-6.726,26.18,-31.23,-1.626,-20.55,-16.15,-6.665,-8.186,0,0,0,0,0,0,0,0,0,0,0,0,0,0,0,0,
580,114.9,17.06,9.039,-34.97,85.45,50.74,12.84,38.9,-2.226,36.53,-16.49,-12.25,6.217,-9.741,-6.474,-13.41,0,0,0,0,0,0,0,0,0,0,0,0,0,0,0,0,
581,18.47,59.78,-40.62,58.84,83.34,-26.78,23.91,52.95,-32.61,-61.17,4.467,13.65,31.24,18.48,15.46,9.734,0,0,0,0,0,0,0,0,0,0,0,0,0,0,0,0,
582,-55.75,24.03,8.209,-21.22,116.5,-1.689,46.54,41.85,30.94,3.283,13.82,13.41,33.31,21.66,23.36,18.16,0,0,0,0,0,0,0,0,0,0,0,0,0,0,0,0,
583,36.16,-14.44,96.54,-19.85,117.1,98.45,37.68,59.81,67.63,77.61,14.21,-9.314,29.45,2.501,7.466,-3.184,0,0,0,0,0,0,0,0,0,0,0,0,0,0,0,0,
584,72.84,1.955,84.52,11.42,69.62,57.65,15.08,22.59,16.56,18.79,15.05,23.75,40.67,30.3,19.85,5.739,0,0,0,0,0,0,0,0,0,0,0,0,0,0,0,0,
585,43.46,15.62,11.73,-106.8,111.5,11.12,42.19,-17.69,35.01,35.01,-4.947,34.88,35.38,40.14,25.35,13.17,0,0,0,0,0,0,0,0,0,0,0,0,0,0,0,0,
586,75.15,-20.69,-34.02,-5.254,148.2,24.44,25.8,50.65,55.78,45.38,-16.07,-8.884,9.537,-12.58,-0.5289,-9.86,0,0,0,0,0,0,0,0,0,0,0,0,0,0,0,0,
587,65.01,-20.84,-12.03,185.0,68.4,-17.18,-16.73,91.41,-7.712,-44.57,9.567,3.414,11.17,-16.37,-0.2614,-5.295,0,0,0,0,0,0,0,0,0,0,0,0,0,0,0,0,
588,39.65,5.936,40.97,-17.9,17.21,-28.53,4.85,28.24,-21.53,-30.7,7.167,33.89,16.48,16.65,7.996,10.13,0,0,0,0,0,0,0,0,0,0,0,0,0,0,0,0,
589,84.46,-5.072,37.87,-172.7,37.69,-1.963,6.276,-0.8347,3.58,22.73,-21.24,10.56,-8.332,-2.613,-12.36,-9.755,0,0,0,0,0,0,0,0,0,0,0,0,0,0,0,0,
590,42.94,-32.8,-8.998,-15.22,25.92,-56.11,-20.35,25.52,-31.62,-29.89,-17.87,-0.9717,-19.95,-23.55,-15.8,-19.19,0,0,0,0,0,0,0,0,0,0,0,0,0,0,0,0,
591,-54.78,-75.15,19.3,19.17,36.74,-55.0,8.9,26.85,-37.21,-36.8,7.228,8.707,10.94,-4.872,10.12,4.261,0,0,0,0,0,0,0,0,0,0,0,0,0,0,0,0,
592,-18.5,-85.69,76.1,0.3571,85.06,67.07,38.11,0.5531,23.07,5.582,31.46,9.994,46.27,15.37,19.56,14.46,0,0,0,0,0,0,0,0,0,0,0,0,0,0,0,0,
593,40.27,-51.08,0.385,27.33,56.11,83.88,36.62,-18.27,36.41,1.802,39.53,29.24,50.6,25.07,16.93,17.86,0,0,0,0,0,0,0,0,0,0,0,0,0,0,0,0,
594,21.92,-55.67,-42.57,-56.47,43.1,9.868,60.35,11.84,20.03,46.75,37.98,40.86,53.34,26.57,24.53,32.42,0,0,0,0,0,0,0,0,0,0,0,0,0,0,0,0,
595,24.89,-37.13,70.01,-27.08,107.7,13.51,66.99,73.49,35.79,60.33,36.94,26.55,67.15,24.57,19.06,25.21,0,0,0,0,0,0,0,0,0,0,0,0,0,0,0,0,
596,27.01,29.89,26.63,57.61,93.06,-3.742,17.68,64.06,31.27,-16.73,10.55,37.52,54.23,32.74,11.19,16.51,0,0,0,0,0,0,0,0,0,0,0,0,0,0,0,0,
597,-5.055,-12.85,-107.5,-24.32,52.4,-50.92,-17.47,-3.943,12.78,28.67,-15.28,47.2,32.4,31.69,15.64,21.98,0,0,0,0,0,0,0,0,0,0,0,0,0,0,0,0,
598,-1.471,-99.24,15.44,-34.83,77.28,19.28,-10.51,17.51,5.558,91.75,0.3255,20.47,40.42,19.12,8.525,8.333,0,0,0,0,0,0,0,0,0,0,0,0,0,0,0,0,
599,18.48,-51.38,92.12,15.88,61.84,96.93,-4.751,97.33,-9.234,15.79,22.51,18.62,54.58,31.25,15.61,11.99,0,0,0,0,0,0,0,0,0,0,0,0,0,0,0,0,
600,-20.09,7.498,-88.57,-12.71,37.87,34.88,-14.72,72.04,1.721,20.52,8.76,23.64,35.22,28.97,17.57,22.31,0,0,0,0,0,0,0,0,0,0,0,0,0,0,0,0,
601,-73.7,-48.02,-99.32,-3.684,51.27,-41.13,2.071,20.83,4.486,46.72,-26.14,-3.195,-0.0627,-10.71,-26.6,-10.72,0,0,0,0,0,0,0,0,0,0,0,0,0,0,0,0,
602,-13.32,-73.17,66.34,-18.95,49.98,-3.012,51.33,34.91,-17.21,-27.73,-20.25,0.9278,7.479,-9.02,-32.02,-16.84,0,0,0,0,0,0,0,0,0,0,0,0,0,0,0,0,
603,107.8,7.375,23.53,-14.6,69.29,35.96,40.19,-11.65,9.203,1.568,15.68,9.49,29.16,6.023,-3.776,-0.4464,0,0,0,0,0,0,0,0,0,0,0,0,0,0,0,0,
604,105.3,68.79,-73.4,75.43,82.78,-4.617,-12.42,-40.47,15.92,46.14,7.711,-13.47,12.16,-19.47,-20.5,-24.52,0,0,0,0,0,0,0,0,0,0,0,0,0,0,0,0,
605,24.31,22.44,41.46,-18.25,68.4,8.192,4.243,41.6,-12.09,-3.668,-10.53,-3.494,10.22,-11.23,-23.37,-31.96,0,0,0,0,0,0,0,0,0,0,0,0,0,0,0,0,
606,-34.56,-105.3,107.0,-146.9,77.57,34.31,17.72,37.62,8.315,8.596,-7.16,0.7632,19.22,2.748,-16.11,-24.33,0,0,0,0,0,0,0,0,0,0,0,0,0,0,0,0,
607,-83.47,-175.1,-34.74,-1.096,49.3,-54.57,-6.247,-2.391,-7.418,-10.33,-27.68,-19.08,-7.142,-25.2,-35.88,-28.86,0,0,0,0,0,0,0,0,0,0,0,0,0,0,0,0,
608,-33.71,-78.95,-85.17,78.28,14.2,-63.89,22.65,30.14,-37.08,-44.77,-39.28,8.262,-6.454,-7.155,-23.56,-10.57,0,0,0,0,0,0,0,0,0,0,0,0,0,0,0,0,
609,66.31,24.16,0.6066,-31.86,58.81,31.31,35.18,-41.22,12.63,57.04,-13.08,19.97,23.9,23.7,-16.86,-13.2,0,0,0,0,0,0,0,0,0,0,0,0,0,0,0,0,
610,33.44,-23.68,-17.56,-11.99,59.91,-6.934,-0.7091,-91.26,24.48,63.01,-3.754,-15.02,18.78,-5.655,-40.31,-34.28,0,0,0,0,0,0,0,0,0,0,0,0,0,0,0,0,
611,-14.16,-85.33,-70.35,-3.024,-2.561,-32.23,-7.077,19.56,-2.239,-43.19,-17.92,-15.35,6.62,-15.94,-21.26,-10.53,0,0,0,0,0,0,0,0,0,0,0,0,0,0,0,0,
612,18.72,-60.74,-25.88,-110.9,20.04,81.44,-13.57,30.85,14.0,-1.371,-18.48,-3.392,17.93,7.051,-0.3313,6.149,0,0,0,0,0,0,0,0,0,0,0,0,0,0,0,0,
613,-17.28,-49.52,15.85,-34.5,83.21,72.18,-19.25,-38.47,10.71,48.37,-14.09,-9.942,20.54,2.415,-22.64,-12.33,0,0,0,0,0,0,0,0,0,0,0,0,0,0,0,0,
614,-56.65,-59.89,-4.436,73.03,60.7,-64.19,-18.6,-3.566,0.7221,-5.633,-27.24,-7.115,-3.018,-12.35,-35.6,-18.63,0,0,0,0,0,0,0,0,0,0,0,0,0,0,0,0,
615,17.3,-37.87,-39.87,-68.25,-9.148,-99.98,-49.2,29.0,-3.387,-10.01,-32.32,-5.427,-19.22,-13.74,-29.63,-18.43,0,0,0,0,0,0,0,0,0,0,0,0,0,0,0,0,
616,38.05,-53.08,-31.78,-143.3,-26.25,-48.59,-27.39,16.62,-31.63,3.904,-20.25,-2.108,-4.259,-7.758,-27.79,-23.39,0,0,0,0,0,0,0,0,0,0,0,0,0,0,0,0,
617,-22.53,-74.36,3.568,12.61,27.04,-10.55,35.73,11.91,-5.532,4.989,-23.54,6.233,5.693,1.021,-33.13,-21.03,0,0,0,0,0,0,0,0,0,0,0,0,0,0,0,0,
618,-0.374,5.829,-29.35,84.72,76.59,-5.658,20.58,12.46,45.43,41.37,-27.4,-6.547,1.702,-3.428,-39.09,-18.53,0,0,0,0,0,0,0,0,0,0,0,0,0,0,0,0,
619,4.276,16.89,-80.17,-12.83,61.14,-2.95,-0.2,17.48,23.53,19.34,-23.25,-22.46,10.0,-17.53,-34.51,-23.32,0,0,0,0,0,0,0,0,0,0,0,0,0,0,0,0,
620,-98.25,-116.3,-26.67,-67.56,36.52,36.66,42.88,-20.02,1.845,-19.65,-25.24,-12.33,23.19,-9.435,-23.16,-21.94,0,0,0,0,0,0,0,0,0,0,0,0,0,0,0,0,
621,-76.65,-138.3,44.84,-30.54,46.03,52.65,47.64,-71.16,25.93,32.61,-10.91,-4.223,30.35,3.152,-14.83,-12.62,0,0,0,0,0,0,0,0,0,0,0,0,0,0,0,0,
622,70.77,-75.02,14.07,-7.788,26.27,-13.95,-4.335,-50.18,28.1,36.41,-3.068,-20.77,20.54,-20.29,-13.12,-16.01,0,0,0,0,0,0,0,0,0,0,0,0,0,0,0,0,
623,66.72,-83.05,-49.75,-4.757,-7.787,-90.57,-20.18,9.949,-0.0461,-39.99,-17.84,-26.97,3.939,-35.68,-19.35,-24.79,0,0,0,0,0,0,0,0,0,0,0,0,0,0,0,0,
624,-15.81,-38.86,-57.42,-46.36,2.803,-106.0,1.888,34.72,-18.83,-52.9,-22.57,-11.72,8.594,-13.0,-29.0,-20.43,0,0,0,0,0,0,0,0,0,0,0,0,0,0,0,0,
625,22.07,19.45,-27.84,-155.3,19.18,-59.98,17.55,-12.49,-5.912,-16.63,-33.42,-8.327,8.854,-7.743,-30.4,-16.01,0,0,0,0,0,0,0,0,0,0,0,0,0,0,0,0,
626,29.34,-41.7,-13.07,-115.7,30.19,-15.67,28.69,-51.05,16.66,19.91,-34.45,-19.45,-4.827,-25.8,-22.08,-23.35,0,0,0,0,0,0,0,0,0,0,0,0,0,0,0,0,
627,-82.86,-123.1,-35.74,42.38,21.28,-56.11,0.6287,-5.349,-8.33,13.17,-7.435,-32.76,-6.391,-34.19,-19.35,-33.52,0,0,0,0,0,0,0,0,0,0,0,0,0,0,0,0,
628,-128.3,-148.0,-63.67,5.931,-18.85,-83.19,-39.2,12.74,-50.32,-40.81,-2.223,-31.08,-5.408,-28.73,-12.53,-24.67,0,0,0,0,0,0,0,0,0,0,0,0,0,0,0,0,
629,-102.9,-127.4,-71.5,-77.88,-5.481,-0.9592,11.52,-4.978,-36.52,-17.86,-3.857,-9.177,-3.491,-15.39,-0.1955,-6.139,0,0,0,0,0,0,0,0,0,0,0,0,0,0,0,0,
630,-86.7,-118.5,-47.88,-46.21,14.83,14.73,73.2,20.68,-16.63,1.651,0.9119,-8.758,0.7177,-17.42,-10.77,-9.555,0,0,0,0,0,0,0,0,0,0,0,0,0,0,0,0,
631,33.46,-112.0,24.25,-62.48,-13.98,-62.36,42.38,-10.26,-17.55,-46.1,-10.04,-17.98,4.139,-14.26,-10.55,-8.071,0,0,0,0,0,0,0,0,0,0,0,0,0,0,0,0,
632,114.0,-2.794,-2.381,-54.25,19.56,-48.06,-8.699,-74.61,15.78,25.15,3.014,3.534,24.68,17.4,22.76,10.82,0,0,0,0,0,0,0,0,0,0,0,0,0,0,0,0,
633,-71.84,18.28,-169.0,-55.42,54.79,-25.65,-8.117,-36.84,32.16,78.29,25.0,10.44,44.92,18.5,29.64,7.853,0,0,0,0,0,0,0,0,0,0,0,0,0,0,0,0,
634,-177.6,-160.2,-155.5,-163.0,15.25,-69.65,48.82,26.26,11.13,-28.27,8.425,-14.72,35.86,-14.88,7.588,-8.412,0,0,0,0,0,0,0,0,0,0,0,0,0,0,0,0,
635,-3.352,-185.5,16.45,-121.7,18.38,-41.98,60.27,34.76,12.87,-40.83,-7.0,-23.05,10.41,-24.72,-1.507,-16.37,0,0,0,0,0,0,0,0,0,0,0,0,0,0,0,0,
636,71.62,-41.62,37.0,-35.06,39.31,9.66,-0.8209,14.66,-1.502,23.4,13.92,-8.06,2.587,-9.796,0.3271,-13.14,0,0,0,0,0,0,0,0,0,0,0,0,0,0,0,0,
637,11.41,-26.78,48.08,-93.22,24.07,1.335,37.29,-1.11,-14.44,12.4,35.5,1.359,18.23,7.527,-2.609,-2.789,0,0,0,0,0,0,0,0,0,0,0,0,0,0,0,0,
638,26.91,-72.27,99.44,-21.88,25.58,-6.172,83.91,36.17,13.62,7.791,6.933,-2.264,7.451,5.728,-16.76,-5.547,0,0,0,0,0,0,0,0,0,0,0,0,0,0,0,0,
639,16.64,-75.29,16.92,57.3,33.22,-25.06,-9.678,40.41,6.715,1.744,-31.77,2.29,-27.2,-5.653,-23.45,-5.373,0,0,0,0,0,0,0,0,0,0,0,0,0,0,0,0,
640,-25.79,-78.92,-3.067,-66.71,73.4,-23.79,-7.34,-59.93,5.708,16.34,-15.07,6.94,-24.85,4.201,-18.43,0.827,0,0,0,0,0,0,0,0,0,0,0,0,0,0,0,0,
641,4.301,-62.95,58.97,-73.27,113.2,51.34,89.25,-69.16,40.99,67.42,9.742,-3.523,0.2679,17.39,-12.47,-3.13,0,0,0,0,0,0,0,0,0,0,0,0,0,0,0,0,
642,65.59,-52.28,26.25,19.33,53.44,59.25,47.97,48.73,23.1,28.98,17.97,1.782,13.14,17.27,7.056,9.639,0,0,0,0,0,0,0,0,0,0,0,0,0,0,0,0,
643,91.23,-63.52,70.26,-37.14,8.291,-58.18,15.32,52.17,9.569,-24.04,27.31,8.99,9.543,8.593,9.276,14.32,0,0,0,0,0,0,0,0,0,0,0,0,0,0,0,0,
644,23.13,-69.93,140.4,-87.61,47.69,-94.97,76.95,-38.64,22.69,-5.604,11.7,2.606,-0.8399,7.353,-5.124,2.201,0,0,0,0,0,0,0,0,0,0,0,0,0,0,0,0,
645,-34.7,-81.69,34.61,-58.4,55.34,30.0,72.16,-41.07,-2.62,13.48,11.11,24.58,14.69,33.58,25.21,29.52,0,0,0,0,0,0,0,0,0,0,0,0,0,0,0,0,
646,33.15,-89.06,-3.977,-30.2,39.47,71.43,48.12,5.466,13.64,51.18,41.31,39.44,27.68,36.33,48.72,42.35,0,0,0,0,0,0,0,0,0,0,0,0,0,0,0,0,
647,52.18,-103.2,117.5,9.437,39.29,-70.38,63.51,15.29,54.04,49.46,35.6,14.0,6.205,-1.278,17.75,4.212,0,0,0,0,0,0,0,0,0,0,0,0,0,0,0,0,
648,-43.69,-127.2,98.28,13.88,13.96,-112.3,19.89,-14.64,23.55,-26.17,12.4,-1.174,-7.147,-9.303,-0.3682,-10.44,0,0,0,0,0,0,0,0,0,0,0,0,0,0,0,0,
649,-99.49,-112.7,-67.75,-6.728,7.344,4.307,-24.01,-43.33,1.689,-18.43,9.208,-7.84,-12.72,-0.9607,8.097,-5.292,0,0,0,0,0,0,0,0,0,0,0,0,0,0,0,0,
650,-74.48,-94.05,-90.57,-14.39,48.44,13.66,32.51,-14.85,14.1,30.11,16.67,-19.97,-18.97,-14.54,13.92,-8.065,0,0,0,0,0,0,0,0,0,0,0,0,0,0,0,0,
651,-6.936,-119.7,25.47,-72.16,48.17,-62.54,65.55,12.09,-0.9872,-21.1,24.84,-20.54,-9.78,-22.12,8.654,-5.051,0,0,0,0,0,0,0,0,0,0,0,0,0,0,0,0,
652,8.148,-127.3,67.32,-112.1,-2.269,-61.43,35.61,-22.2,-8.172,-54.89,9.425,-15.99,-10.91,-18.22,-6.548,-6.078,0,0,0,0,0,0,0,0,0,0,0,0,0,0,0,0,
653,-54.67,-85.19,67.17,-56.37,-8.986,-36.57,76.66,-58.78,13.08,13.53,1.612,-11.15,-14.42,-13.18,-7.595,-9.854,0,0,0,0,0,0,0,0,0,0,0,0,0,0,0,0,
654,-56.93,-81.27,80.28,-5.818,5.398,-41.23,95.87,-55.36,15.34,37.2,33.0,-16.78,-7.581,-13.27,-5.21,-12.57,0,0,0,0,0,0,0,0,0,0,0,0,0,0,0,0,
655,4.718,-137.3,30.34,-11.86,-16.59,-68.12,4.849,-3.293,-3.194,-36.19,42.24,-24.19,-17.27,-19.3,-11.46,-12.43,0,0,0,0,0,0,0,0,0,0,0,0,0,0,0,0,
656,45.02,-143.7,0.2978,-28.82,-0.777,-71.68,6.701,25.04,3.838,-46.26,12.36,-16.99,-23.06,-17.55,-12.02,-13.33,0,0,0,0,0,0,0,0,0,0,0,0,0,0,0,0,
657,39.83,-92.91,36.46,-1.489,57.28,-1.432,91.72,-31.57,22.34,11.7,-4.141,-19.27,-12.42,-12.3,-18.24,-25.46,0,0,0,0,0,0,0,0,0,0,0,0,0,0,0,0,T2
658,-43.04,-77.99,51.05,26.84,51.55,10.24,62.58,-37.87,5.789,-14.23,4.073,-12.06,-14.77,-1.361,-5.85,-3.613,0,0,0,0,0,0,0,0,0,0,0,0,0,0,0,0,
659,-94.52,-94.84,38.94,-47.11,-3.119,-86.9,4.633,-6.275,-13.32,-43.81,5.77,6.378,-33.86,2.527,20.43,34.37,0,0,0,0,0,0,0,0,0,0,0,0,0,0,0,0,
660,-35.92,-99.4,-1.349,-84.62,-18.91,-104.8,8.167,-67.05,-18.75,-13.66,-14.48,-12.97,-48.42,-21.44,-0.4281,11.06,0,0,0,0,0,0,0,0,0,0,0,0,0,0,0,0,
661,-10.16,-80.69,-0.3015,-28.86,19.76,-43.68,6.758,-68.73,-28.31,-50.04,-26.4,-21.64,-36.59,-27.99,-25.27,-12.92,0,0,0,0,0,0,0,0,0,0,0,0,0,0,0,0,
662,-29.04,-83.06,43.96,-94.62,67.01,-22.11,40.52,1.441,-5.91,-50.41,-6.015,11.32,-14.44,-5.67,-8.582,11.98,0,0,0,0,0,0,0,0,0,0,0,0,0,0,0,0,
663,-12.15,-154.9,-22.99,-136.7,67.15,0.4276,102.9,-29.27,22.11,54.84,41.25,30.61,2.486,6.83,19.94,31.01,0,0,0,0,0,0,0,0,0,0,0,0,0,0,0,0,
664,-9.758,-186.1,-15.15,-0.7414,28.84,-6.95,83.86,-23.93,10.12,32.73,101.0,45.11,33.52,21.05,69.78,56.44,0,0,0,0,0,0,0,0,0,0,0,0,0,0,0,0,
665,-6.704,-117.9,175.0,15.0,1.421,-71.77,50.74,59.12,7.74,-72.82,123.1,54.06,49.35,26.91,102.5,84.35,0,0,0,0,0,0,0,0,0,0,0,0,0,0,0,0,
666,8.635,-83.36,175.7,-74.1,-11.54,-72.05,69.85,28.64,16.79,-41.46,75.43,23.77,18.82,4.671,58.97,54.16,0,0,0,0,0,0,0,0,0,0,0,0,0,0,0,0,
667,-51.31,-85.57,24.57,-53.72,-12.88,-27.34,34.63,-36.65,5.183,9.45,11.91,-10.99,-16.29,-12.78,-1.041,-2.853,0,0,0,0,0,0,0,0,0,0,0,0,0,0,0,0,
668,-116.5,-68.43,-15.51,-62.39,13.15,-33.28,-3.559,-22.06,-5.391,-24.23,-8.866,-27.36,-28.45,-21.76,-32.18,-32.82,0,0,0,0,0,0,0,0,0,0,0,0,0,0,0,0,
669,-64.6,-105.0,-76.06,-114.7,35.32,-61.5,43.99,-14.45,-14.43,-39.43,-9.481,-32.8,-33.52,-30.64,-54.38,-45.04,0,0,0,0,0,0,0,0,0,0,0,0,0,0,0,0,
670,10.75,-145.5,-74.92,-75.72,27.29,-72.46,33.0,-11.59,-13.72,-10.13,-12.67,-14.19,-29.1,-16.13,-42.89,-36.07,0,0,0,0,0,0,0,0,0,0,0,0,0,0,0,0,
671,13.85,-92.42,80.15,-1.238,30.55,-34.51,-9.142,33.02,11.27,28.83,25.07,7.886,4.96,10.12,10.32,1.959,0,0,0,0,0,0,0,0,0,0,0,0,0,0,0,0,
672,2.342,-63.98,104.0,10.55,34.5,1.045,54.5,47.99,24.82,16.12,71.85,16.24,36.75,22.83,48.83,34.91,0,0,0,0,0,0,0,0,0,0,0,0,0,0,0,0,
673,-0.7196,-138.2,29.68,-67.64,-1.081,-38.88,81.73,-0.2707,23.62,-41.78,56.2,37.44,22.6,37.19,49.87,40.98,0,0,0,0,0,0,0,0,0,0,0,0,0,0,0,0,
674,12.57,-165.9,50.81,-102.9,-8.238,-52.43,44.43,-14.3,32.77,-7.562,43.82,35.73,2.61,34.81,33.23,23.92,0,0,0,0,0,0,0,0,0,0,0,0,0,0,0,0,
675,54.1,-93.5,85.07,-23.37,34.18,-29.92,67.22,26.02,32.43,34.85,55.73,-19.25,4.692,-9.727,14.76,-2.32,0,0,0,0,0,0,0,0,0,0,0,0,0,0,0,0,
676,5.5,-56.59,108.1,-26.13,58.6,-40.71,71.1,2.246,27.74,-42.36,32.66,-28.2,10.99,-13.45,23.96,7.009,0,0,0,0,0,0,0,0,0,0,0,0,0,0,0,0,
677,-121.5,-80.05,82.34,-87.67,72.21,-12.88,51.51,-59.03,47.94,-43.63,29.64,13.68,24.84,31.17,44.73,32.77,0,0,0,0,0,0,0,0,0,0,0,0,0,0,0,0,
678,-99.93,-108.4,-7.924,-35.42,55.83,-25.76,83.21,-36.91,52.97,21.29,48.99,-4.698,17.46,8.103,23.55,13.69,0,0,0,0,0,0,0,0,0,0,0,0,0,0,0,0,
679,34.91,-147.7,-4.797,-55.9,-8.79,-95.03,75.84,7.346,25.47,-38.75,25.9,-20.94,-8.415,-18.15,2.518,8.251,0,0,0,0,0,0,0,0,0,0,0,0,0,0,0,0,
680,69.14,-135.6,29.28,-206.7,-7.853,-16.17,36.99,3.244,27.08,-42.89,11.51,17.08,-3.439,31.75,14.77,40.49,0,0,0,0,0,0,0,0,0,0,0,0,0,0,0,0,
681,49.03,-62.82,7.148,-177.5,66.31,45.3,74.18,2.597,43.82,52.13,19.51,11.17,3.638,44.27,6.177,31.93,0,0,0,0,0,0,0,0,0,0,0,0,0,0,0,0,
682,38.51,-74.76,56.25,-6.844,83.03,-81.53,126.7,2.829,37.11,21.53,2.155,-14.45,-6.158,18.44,-11.28,11.3,0,0,0,0,0,0,0,0,0,0,0,0,0,0,0,0,
683,-47.53,-153.1,91.7,11.4,38.83,-114.2,88.09,-6.156,46.23,-35.02,-18.69,-16.38,-20.31,13.56,-19.98,10.51,0,0,0,0,0,0,0,0,0,0,0,0,0,0,0,0,
684,-121.6,-139.8,33.91,-11.73,15.66,-6.713,21.38,14.6,34.99,-15.6,-16.0,-28.65,-49.1,-3.633,-42.37,-4.537,0,0,0,0,0,0,0,0,0,0,0,0,0,0,0,0,
685,-74.44,-85.1,41.66,56.55,20.66,21.99,33.72,21.16,-28.63,-17.16,1.316,-7.347,-55.51,5.112,-38.76,-0.4801,0,0,0,0,0,0,0,0,0,0,0,0,0,0,0,0,
686,-42.69,-92.13,70.11,39.88,3.96,-26.35,43.16,-24.11,-46.45,-1.907,-7.736,14.41,-57.72,15.64,-27.13,8.259,0,0,0,0,0,0,0,0,0,0,0,0,0,0,0,0,
687,-43.31,-74.39,-9.92,-22.37,-42.02,-81.74,-26.58,-46.84,-36.73,-4.087,-63.66,-36.97,-116.5,-48.22,-72.78,-28.99,0,0,0,0,0,0,0,0,0,0,0,0,0,0,0,0,
688,24.72,-43.43,-105.1,10.24,-68.98,-114.0,-60.41,-35.35,-96.08,-89.33,-111.5,-73.81,-165.2,-94.04,-115.7,-58.57,0,0,0,0,0,0,0,0,0,0,0,0,0,0,0,0,
689,12.47,-103.5,-141.2,37.76,-65.73,-131.1,-53.93,-46.38,-144.1,-127.7,-116.5,-56.23,-155.5,-80.93,-97.79,-49.52,0,0,0,0,0,0,0,0,0,0,0,0,0,0,0,0,
690,-90.79,-112.3,-144.2,26.71,-51.54,-135.6,-94.31,-58.81,-117.2,-104.1,-101.2,-49.28,-135.8,-79.31,-74.2,-40.17,0,0,0,0,0,0,0,0,0,0,0,0,0,0,0,0,
691,-79.3,-63.61,-113.3,-38.13,-31.7,-40.73,-102.5,-64.49,-99.11,-83.65,-88.99,-49.44,-113.3,-65.61,-74.63,-36.95,0,0,0,0,0,0,0,0,0,0,0,0,0,0,0,0,
692,-72.74,-163.4,-65.05,-132.7,-11.53,66.82,-43.71,-76.35,-95.91,-24.94,-83.57,-47.32,-83.36,-34.7,-63.0,-25.3,0,0,0,0,0,0,0,0,0,0,0,0,0,0,0,0,
693,-147.1,-210.5,-48.9,-38.09,7.51,7.801,-16.76,-58.77,-56.34,0.8459,-70.14,-65.1,-67.21,-42.52,-41.86,-17.08,0,0,0,0,0,0,0,0,0,0,0,0,0,0,0,0,
694,-88.62,-61.28,-37.95,126.7,11.12,-88.78,-23.31,-31.01,-31.74,-62.63,-41.81,-62.08,-47.74,-42.05,-28.1,-17.2,0,0,0,0,0,0,0,0,0,0,0,0,0,0,0,0,
695,3.795,-19.28,5.599,59.81,1.733,-49.27,2.163,-17.63,-35.49,-56.36,-1.749,-6.07,-6.141,19.57,6.872,4.922,0,0,0,0,0,0,0,0,0,0,0,0,0,0,0,0,
696,-35.8,-80.88,-10.3,-69.41,4.244,12.39,30.32,6.281,-3.076,43.69,14.21,9.562,7.597,40.99,32.58,23.25,0,0,0,0,0,0,0,0,0,0,0,0,0,0,0,0,
697,-46.84,-83.02,-99.36,-31.62,6.868,-16.02,8.657,3.69,20.57,44.85,-8.892,-49.58,-16.66,-18.15,11.48,-1.585,0,0,0,0,0,0,0,0,0,0,0,0,0,0,0,0,
698,-16.86,-113.4,-107.5,45.82,15.11,-37.81,-10.38,-26.46,-2.771,-34.91,-0.6998,-56.92,-4.0,-21.22,15.15,-5.005,0,0,0,0,0,0,0,0,0,0,0,0,0,0,0,0,
699,-36.33,-111.3,-8.248,10.85,39.97,6.216,14.72,-14.73,6.509,-18.88,28.2,-12.38,23.11,29.26,43.44,19.68,0,0,0,0,0,0,0,0,0,0,0,0,0,0,0,0,
700,-20.11,-66.24,74.33,-32.49,37.19,23.62,22.53,6.094,31.17,33.6,20.2,-10.14,13.87,22.96,34.4,10.06,0,0,0,0,0,0,0,0,0,0,0,0,0,0,0,0,
701,-18.16,-129.4,43.02,11.81,1.698,-3.232,3.701,-13.6,11.18,9.138,32.58,-7.864,24.63,12.14,32.72,5.651,0,0,0,0,0,0,0,0,0,0,0,0,0,0,0,0,
702,-109.2,-181.2,-65.47,-29.37,-20.47,7.669,6.357,-13.79,6.29,-13.0,51.31,9.258,40.78,31.59,50.03,28.97,0,0,0,0,0,0,0,0,0,0,0,0,0,0,0,0,
703,-126.9,-127.0,-85.3,-85.82,-5.911,34.27,19.77,15.7,31.05,14.28,17.3,10.14,21.24,33.67,41.55,33.29,0,0,0,0,0,0,0,0,0,0,0,0,0,0,0,0,
704,-29.49,-106.2,-30.96,42.37,15.66,-7.793,11.37,-8.936,23.01,25.45,-0.2855,18.62,13.66,29.9,23.11,16.75,0,0,0,0,0,0,0,0,0,0,0,0,0,0,0,0,
705,-2.423,-126.5,-51.14,24.36,11.38,-63.15,-12.58,-61.49,-1.38,-5.17,20.98,15.44,13.47,24.98,15.47,5.264,0,0,0,0,0,0,0,0,0,0,0,0,0,0,0,0,
706,-63.9,-108.9,-81.28,-163.1,38.12,-11.26,-7.802,-46.24,18.9,-11.63,35.07,14.52,11.45,36.11,27.76,20.88,0,0,0,0,0,0,0,0,0,0,0,0,0,0,0,0,
707,-87.17,-81.73,-52.27,-56.3,85.74,76.73,17.27,3.474,57.8,47.85,35.6,41.72,21.38,65.42,50.14,45.23,0,0,0,0,0,0,0,0,0,0,0,0,0,0,0,0,
708,-60.67,-95.98,-24.71,114.7,43.37,72.45,-3.107,33.3,37.76,75.67,13.88,33.6,4.121,51.15,43.93,39.09,0,0,0,0,0,0,0,0,0,0,0,0,0,0,0,0,
709,-47.46,-127.3,-3.845,49.17,-24.18,42.42,-26.71,41.51,-12.87,40.61,-7.715,20.13,-14.46,33.73,16.15,21.76,0,0,0,0,0,0,0,0,0,0,0,0,0,0,0,0,
710,-59.4,-115.5,16.68,52.53,-10.08,39.51,6.895,16.63,-21.19,45.84,2.911,57.4,4.61,61.74,7.852,18.44,0,0,0,0,0,0,0,0,0,0,0,0,0,0,0,0,
711,-52.24,-91.67,21.67,87.13,5.979,16.17,14.69,11.93,-15.66,58.99,18.13,56.63,5.649,55.14,20.11,17.5,0,0,0,0,0,0,0,0,0,0,0,0,0,0,0,0,
712,-27.09,-121.9,-37.18,-15.82,-27.26,-8.745,-32.75,43.82,-29.57,15.74,1.967,3.031,-23.42,9.627,14.49,8.156,0,0,0,0,0,0,0,0,0,0,0,0,0,0,0,0,
713,-41.55,-144.5,-144.2,-3.13,-38.19,-28.99,-32.16,40.4,-35.09,-5.912,-23.07,-7.423,-28.02,1.552,3.934,2.617,0,0,0,0,0,0,0,0,0,0,0,0,0,0,0,0,
714,-66.36,-90.74,-137.5,81.65,2.01,-32.95,19.62,32.48,-15.65,11.46,-2.942,14.29,-1.457,20.86,29.74,14.35,0,0,0,0,0,0,0,0,0,0,0,0,0,0,0,0,
715,-61.22,-54.9,-65.96,4.705,16.21,6.622,17.95,33.65,2.012,17.63,24.93,7.576,6.325,23.72,35.52,12.24,0,0,0,0,0,0,0,0,0,0,0,0,0,0,0,0,
716,-82.08,-95.34,-70.44,-44.38,-22.03,4.527,-22.32,-5.286,-11.08,25.2,12.12,-3.989,-7.895,16.22,10.92,0.4222,0,0,0,0,0,0,0,0,0,0,0,0,0,0,0,0,
717,-110.8,-115.4,-20.18,15.96,-20.25,-31.33,-2.855,-6.874,-12.53,31.72,20.24,8.594,8.233,21.48,37.66,24.54,0,0,0,0,0,0,0,0,0,0,0,0,0,0,0,0,
718,-91.23,-117.9,35.14,-10.86,-4.511,-7.77,37.39,41.11,16.07,17.76,38.33,22.32,29.3,32.99,65.26,44.22,0,0,0,0,0,0,0,0,0,0,0,0,0,0,0,0,
719,-83.2,-161.5,-82.82,-31.53,-51.79,-2.844,5.723,32.86,10.96,10.45,14.59,25.46,18.14,33.67,43.14,31.34,0,0,0,0,0,0,0,0,0,0,0,0,0,0,0,0,
720,-105.9,-155.7,-144.5,18.59,-62.07,-23.36,-45.23,5.332,-10.17,11.93,9.916,28.91,19.57,31.7,46.43,35.24,0,0,0,0,0,0,0,0,0,0,0,0,0,0,0,0,
721,-82.16,-90.87,-44.48,-48.02,-15.79,16.33,-27.65,8.2,-1.131,7.984,31.67,37.34,32.4,37.39,66.88,50.43,0,0,0,0,0,0,0,0,0,0,0,0,0,0,0,0,
722,-32.59,-85.87,-46.11,-99.89,-15.87,11.88,15.33,-19.04,3.676,18.53,30.3,38.8,24.33,34.12,53.26,43.29,0,0,0,0,0,0,0,0,0,0,0,0,0,0,0,0,
723,-43.76,-116.2,-90.54,1.055,-24.18,-46.53,6.453,-39.81,-0.0989,8.724,14.57,18.28,9.557,10.32,35.67,27.42,0,0,0,0,0,0,0,0,0,0,0,0,0,0,0,0,
724,-55.86,-100.6,-13.2,19.78,5.838,-16.77,-15.88,-12.93,4.089,-30.48,-6.87,-0.683,-7.02,-5.457,29.88,21.74,0,0,0,0,0,0,0,0,0,0,0,0,0,0,0,0,
725,-4.061,-57.9,-31.45,-37.91,32.15,26.56,-2.403,-28.52,-1.833,-23.15,-18.99,-3.968,-22.95,-2.496,11.45,11.03,0,0,0,0,0,0,0,0,0,0,0,0,0,0,0,0,
726,-22.99,-29.74,-146.3,-19.43,46.68,22.25,-10.2,-42.4,-27.5,-13.57,-7.546,0.4069,-23.27,6.51,-0.2557,-1.177,0,0,0,0,0,0,0,0,0,0,0,0,0,0,0,0,
727,-119.0,-63.91,-67.11,-71.29,47.77,68.33,-38.62,15.4,-40.25,-18.7,14.68,31.32,-8.544,31.44,27.09,23.86,0,0,0,0,0,0,0,0,0,0,0,0,0,0,0,0,
728,-121.2,-172.4,32.95,-199.2,12.13,83.87,-22.22,-6.638,-6.49,44.0,26.6,43.49,-5.223,29.94,30.4,36.87,0,0,0,0,0,0,0,0,0,0,0,0,0,0,0,0,
729,-103.1,-213.0,-89.97,-149.8,-55.13,-2.102,-16.38,-56.13,1.045,40.03,-3.555,-0.3889,-30.93,-19.65,-15.58,-3.771,0,0,0,0,0,0,0,0,0,0,0,0,0,0,0,0,
730,-139.9,-100.8,-150.2,42.35,-97.79,-57.76,-57.26,26.49,-55.69,-63.5,-38.69,-11.18,-41.17,-23.45,-11.93,-9.154,0,0,0,0,0,0,0,0,0,0,0,0,0,0,0,0,
731,-88.84,-33.55,-53.2,52.6,-81.17,-69.84,-64.64,27.55,-66.02,-52.65,-18.81,14.07,-19.03,14.0,20.27,16.88,0,0,0,0,0,0,0,0,0,0,0,0,0,0,0,0,
732,-11.45,-93.69,-63.18,-65.88,-58.76,-75.23,-43.34,-70.48,-30.08,-6.118,4.233,9.897,-14.98,12.78,7.068,13.69,0,0,0,0,0,0,0,0,0,0,0,0,0,0,0,0,
733,-49.55,-111.8,-107.6,-23.71,-67.49,-43.58,-50.94,-35.15,-26.75,-29.14,-9.643,14.93,-25.45,10.69,7.516,25.14,0,0,0,0,0,0,0,0,0,0,0,0,0,0,0,0,
734,-106.5,-112.4,-76.19,-32.72,-81.11,-41.66,-51.66,2.345,-19.08,-0.2231,-9.918,26.15,-13.14,25.66,26.99,37.5,0,0,0,0,0,0,0,0,0,0,0,0,0,0,0,0,
735,-108.1,-129.1,-131.6,-180.0,-81.43,-43.14,-29.14,2.904,3.039,25.43,10.03,17.95,10.04,30.69,25.93,26.6,0,0,0,0,0,0,0,0,0,0,0,0,0,0,0,0,
736,-93.04,-59.77,-169.9,-107.2,-69.92,21.27,-38.38,52.62,12.64,37.88,1.921,22.04,11.27,35.68,23.22,27.31,0,0,0,0,0,0,0,0,0,0,0,0,0,0,0,0,
737,-76.81,-60.64,-29.74,8.105,-69.15,17.13,-58.13,-25.43,8.544,93.58,-12.22,19.43,-1.589,24.83,14.37,15.93,0,0,0,0,0,0,0,0,0,0,0,0,0,0,0,0,
738,-80.51,-170.0,-5.905,-52.21,-94.21,-50.83,-47.44,-105.7,-22.76,25.15,10.56,4.698,4.131,6.129,11.76,3.688,0,0,0,0,0,0,0,0,0,0,0,0,0,0,0,0,
739,-113.7,-135.2,-176.5,-14.32,-108.4,-35.38,-51.25,-8.32,-33.75,-74.55,6.757,-1.468,4.298,3.025,21.84,16.39,0,0,0,0,0,0,0,0,0,0,0,0,0,0,0,0,
740,-120.7,-50.38,-141.6,21.72,-66.85,-13.23,-38.55,21.2,3.435,5.475,-23.07,-13.25,-3.385,-2.844,25.3,15.95,0,0,0,0,0,0,0,0,0,0,0,0,0,0,0,0,
741,-71.54,-88.48,6.219,-59.69,-15.74,-54.98,5.185,-19.98,19.7,34.69,15.21,-10.21,17.49,-5.536,40.88,15.73,0,0,0,0,0,0,0,0,0,0,0,0,0,0,0,0,
742,-63.18,-101.4,-84.63,-55.53,-36.5,-63.26,-25.94,-9.592,2.373,-50.66,45.51,12.83,15.84,5.706,38.65,24.11,0,0,0,0,0,0,0,0,0,0,0,0,0,0,0,0,
743,-117.6,-57.83,-126.5,-58.63,-55.99,-4.876,-44.0,-43.31,-1.676,-3.663,4.271,21.13,-10.06,21.02,8.243,17.6,0,0,0,0,0,0,0,0,0,0,0,0,0,0,0,0,
744,-82.57,-42.91,23.04,-99.94,-23.39,25.48,13.64,-43.31,10.4,51.72,-6.917,8.138,-5.507,20.54,12.36,18.24,0,0,0,0,0,0,0,0,0,0,0,0,0,0,0,0,
745,10.31,-27.99,31.35,-96.11,-57.6,-17.23,-28.58,-14.9,7.094,-15.9,4.02,-10.21,-14.52,0.0148,23.04,21.17,0,0,0,0,0,0,0,0,0,0,0,0,0,0,0,0,
746,-7.576,-30.55,-29.5,-92.56,-99.71,-1.251,-83.23,-58.37,-11.45,0.6254,-3.488,-3.939,-19.93,8.292,7.032,11.38,0,0,0,0,0,0,0,0,0,0,0,0,0,0,0,0,
747,-65.63,-75.88,-39.23,28.28,-39.82,77.07,-29.89,-24.63,-7.948,53.08,4.688,3.099,12.11,24.9,4.409,5.203,0,0,0,0,0,0,0,0,0,0,0,0,0,0,0,0,
748,-59.88,-83.89,-112.4,100.5,-13.25,34.95,-28.37,40.49,7.78,-23.45,1.826,-20.79,14.14,1.873,16.12,8.922,0,0,0,0,0,0,0,0,0,0,0,0,0,0,0,0,
749,-57.54,-29.39,-85.84,-54.65,-30.86,-54.46,-31.68,-0.725,14.64,-57.71,-8.609,-25.43,4.719,-6.654,24.28,19.16,0,0,0,0,0,0,0,0,0,0,0,0,0,0,0,0,
750,-78.92,-24.32,27.32,-55.7,-12.39,-53.52,5.103,-17.9,17.99,-1.776,1.18,-18.15,5.942,-3.058,15.86,10.79,0,0,0,0,0,0,0,0,0,0,0,0,0,0,0,0,
751,-67.65,-82.73,-0.2266,-2.872,-47.05,-30.18,-41.55,-36.93,-6.263,-7.896,9.855,-30.08,-17.4,-16.27,-0.7213,-10.42,0,0,0,0,0,0,0,0,0,0,0,0,0,0,0,0,
752,-42.12,-48.87,-35.65,-175.8,-90.12,5.315,-58.34,-110.2,-34.55,-23.22,9.715,-17.78,-26.66,-7.881,-0.0981,-6.198,0,0,0,0,0,0,0,0,0,0,0,0,0,0,0,0,
753,-53.2,44.67,0.9649,-128.3,-47.2,23.36,-23.01,-78.91,-22.38,-7.734,-12.53,3.379,-25.66,-3.617,-3.475,3.312,0,0,0,0,0,0,0,0,0,0,0,0,0,0,0,0,
754,-71.99,2.111,0.8217,64.04,-23.36,-15.3,-33.64,-4.253,-7.316,-17.6,-17.47,-1.202,-29.49,-14.02,-1.83,4.743,0,0,0,0,0,0,0,0,0,0,0,0,0,0,0,0,
755,-77.98,-93.09,-34.61,-26.58,-57.08,-14.48,6.389,-10.83,-10.59,-25.01,22.44,-11.06,-2.945,-6.866,27.91,14.79,0,0,0,0,0,0,0,0,0,0,0,0,0,0,0,0,
756,-90.7,-63.3,-115.6,-43.32,-73.41,1.836,18.27,-1.87,-17.72,-29.64,15.96,-6.741,11.98,6.077,40.63,22.79,0,0,0,0,0,0,0,0,0,0,0,0,0,0,0,0,
757,-65.61,-24.62,-152.2,51.39,-56.45,-1.75,-55.54,3.796,-16.56,3.312,-13.56,21.31,8.035,35.23,37.17,27.1,0,0,0,0,0,0,0,0,0,0,0,0,0,0,0,0,
758,-38.56,-72.55,-63.85,-86.1,-31.6,23.83,-20.68,-53.7,6.368,66.85,8.439,20.8,19.88,40.55,42.52,21.0,0,0,0,0,0,0,0,0,0,0,0,0,0,0,0,0,
759,-83.14,-62.89,-12.82,-146.4,-33.04,-12.55,14.81,-43.64,5.074,9.844,-3.449,-22.64,1.836,-9.286,22.7,3.051,0,0,0,0,0,0,0,0,0,0,0,0,0,0,0,0,
760,-88.53,2.511,-50.75,-16.23,-63.76,-77.2,-87.87,14.91,-35.57,-66.5,-49.43,-25.92,-35.1,-23.07,-8.861,-2.895,0,0,0,0,0,0,0,0,0,0,0,0,0,0,0,0,
761,-32.86,-3.964,-78.96,23.01,-79.85,-39.98,-97.91,-15.68,-52.29,-18.27,-31.57,-9.299,-28.03,-5.78,-2.084,-2.867,0,0,0,0,0,0,0,0,0,0,0,0,0,0,0,0,
762,-23.71,-0.58,-78.28,33.3,-58.5,-9.307,-2.451,-25.69,-34.98,-13.23,10.09,-16.28,1.785,-13.59,18.59,-0.6813,0,0,0,0,0,0,0,0,0,0,0,0,0,0,0,0,
763,-13.12,37.57,-44.59,0.2588,-37.19,-11.31,-9.7,19.6,-6.805,-16.37,10.87,-4.07,6.042,-4.611,6.314,6.9,0,0,0,0,0,0,0,0,0,0,0,0,0,0,0,0,
764,-17.91,-11.05,-2.027,-71.89,-39.84,29.84,-35.82,-42.56,4.729,73.13,-0.0118,4.611,-6.704,6.772,-8.534,7.683,0,0,0,0,0,0,0,0,0,0,0,0,0,0,0,0,
765,-110.6,-49.59,-4.208,4.343,-28.36,15.34,14.16,-101.5,-18.81,29.82,-1.37,-4.973,-1.501,-1.292,10.59,16.76,0,0,0,0,0,0,0,0,0,0,0,0,0,0,0,0,
766,-133.3,5.476,-64.4,-6.88,-3.547,-15.54,12.88,-31.63,-18.18,-69.1,-4.762,8.729,6.5,9.256,27.31,33.41,0,0,0,0,0,0,0,0,0,0,0,0,0,0,0,0,
767,-18.97,14.15,-106.4,-132.8,0.1871,45.52,-34.76,-9.424,15.69,25.17,1.336,12.22,-5.729,12.09,22.25,26.82,0,0,0,0,0,0,0,0,0,0,0,0,0,0,0,0,
768,39.1,-31.79,-59.73,-21.13,-18.64,30.06,-40.34,-45.41,7.086,60.51,-0.2391,-17.85,-19.31,-16.46,7.454,0.7001,0,0,0,0,0,0,0,0,0,0,0,0,0,0,0,0,
769,-7.3,-37.78,-21.04,57.88,-51.58,-80.81,-49.38,-25.62,-21.61,-62.19,-30.42,-28.75,-24.21,-25.85,-9.62,-12.79,0,0,0,0,0,0,0,0,0,0,0,0,0,0,0,0,
770,-22.14,-16.26,-12.72,-59.98,-57.34,-67.69,-57.81,-13.18,-15.04,-49.83,-25.73,-10.2,-11.52,-0.7386,3.032,0.5916,0,0,0,0,0,0,0,0,0,0,0,0,0,0,0,0,
771,-15.26,-3.645,23.58,-8.022,-35.2,-11.05,-41.73,-10.61,-10.53,12.32,-3.469,-6.601,-3.452,6.403,20.38,7.483,0,0,0,0,0,0,0,0,0,0,0,0,0,0,0,0,
772,-55.33,-28.82,-8.626,48.47,-16.21,-24.19,-29.22,-11.36,-15.77,-18.4,-29.07,-12.81,-23.67,-6.602,8.482,-1.345,0,0,0,0,0,0,0,0,0,0,0,0,0,0,0,0,
773,-63.92,-70.14,-75.03,-77.5,25.03,17.98,9.02,-69.03,3.982,25.64,-16.24,-3.364,-18.91,-3.137,19.62,6.106,0,0,0,0,0,0,0,0,0,0,0,0,0,0,0,0,
774,-45.64,-67.74,-79.44,-104.1,17.94,40.13,21.95,-75.85,8.347,39.18,27.2,-12.7,-3.948,-16.97,32.09,5.087,0,0,0,0,0,0,0,0,0,0,0,0,0,0,0,0,
775,-87.15,-48.52,-59.43,-74.78,-51.78,-9.336,-22.82,-18.04,-13.38,-72.08,-4.334,-33.39,-27.68,-39.51,0.4135,-13.91,0,0,0,0,0,0,0,0,0,0,0,0,0,0,0,0,
776,-92.51,-56.99,44.54,-74.89,-27.87,34.24,-22.24,-40.87,0.0717,-61.99,-30.84,-13.96,-32.3,-18.0,-5.47,-10.35,0,0,0,0,0,0,0,0,0,0,0,0,0,0,0,0,
777,-27.19,-59.36,100.4,-2.607,14.47,34.84,-11.22,-70.22,9.25,11.31,-2.284,10.9,-15.93,-3.917,24.47,1.568,0,0,0,0,0,0,0,0,0,0,0,0,0,0,0,0,
778,-33.62,-31.87,-73.63,8.028,-51.18,-106.2,-28.84,-29.34,-25.87,-17.23,7.529,3.203,-22.71,-18.23,23.69,1.612,0,0,0,0,0,0,0,0,0,0,0,0,0,0,0,0,
779,-91.17,-17.96,-175.8,-18.9,-92.81,-120.6,-25.5,-18.45,-31.01,-24.25,-9.405,-9.051,-28.61,-17.49,2.175,2.062,0,0,0,0,0,0,0,0,0,0,0,0,0,0,0,0,
780,-80.39,-20.22,-70.17,21.87,-75.24,-29.67,-53.85,-13.65,-13.13,-26.54,-31.77,3.323,-27.16,-5.78,5.01,10.7,0,0,0,0,0,0,0,0,0,0,0,0,0,0,0,0,
781,-46.65,-10.44,-21.12,-65.62,-67.92,-47.38,-66.83,-4.9,-28.85,-52.59,-27.97,28.4,-19.06,13.25,28.52,24.34,0,0,0,0,0,0,0,0,0,0,0,0,0,0,0,0,
782,-62.69,-29.99,-29.14,-212.0,-57.49,-57.23,-13.73,-62.2,-38.3,-0.4024,3.038,16.48,-7.478,13.22,35.24,20.23,0,0,0,0,0,0,0,0,0,0,0,0,0,0,0,0,
783,-73.98,-40.12,4.916,-148.7,-41.45,32.19,-13.11,-73.03,-15.97,38.42,12.44,-9.181,-11.18,-11.35,21.37,7.474,0,0,0,0,0,0,0,0,0,0,0,0,0,0,0,0,
784,-83.77,-7.818,6.279,-7.999,-20.18,42.94,-43.17,-22.42,-3.477,-7.678,10.45,3.705,-17.15,-10.85,6.909,5.475,0,0,0,0,0,0,0,0,0,0,0,0,0,0,0,0,
785,-139.6,-38.44,-61.0,7.966,-22.24,-60.8,-36.9,-42.22,-28.15,-64.17,4.404,10.42,-25.22,-9.933,2.545,4.923,0,0,0,0,0,0,0,0,0,0,0,0,0,0,0,0,
786,-93.36,-27.1,-116.6,-6.89,-47.73,-83.38,-32.02,-46.26,-44.22,-75.55,-2.91,6.069,-26.08,-13.11,23.37,19.01,0,0,0,0,0,0,0,0,0,0,0,0,0,0,0,0,
787,54.96,89.41,-50.94,22.1,-41.18,-17.21,-24.59,-10.18,-19.06,-16.4,19.8,24.32,-6.347,14.09,30.87,23.55,0,0,0,0,0,0,0,0,0,0,0,0,0,0,0,0,
788,41.46,64.04,36.92,-28.07,-49.43,-9.15,-32.15,-36.91,-23.4,3.655,20.22,27.44,-7.686,13.66,-1.959,-2.193,0,0,0,0,0,0,0,0,0,0,0,0,0,0,0,0,
789,-48.83,3.613,-15.54,-121.5,-70.3,-31.88,-22.92,-33.69,-48.88,-64.91,-18.1,13.18,-20.99,-18.64,-5.359,1.965,0,0,0,0,0,0,0,0,0,0,0,0,0,0,0,0,
790,-22.93,85.8,-68.26,-74.78,-35.6,-38.27,20.83,5.403,-19.37,-71.49,-21.06,11.37,-8.484,-11.24,23.65,26.5,0,0,0,0,0,0,0,0,0,0,0,0,0,0,0,0,
791,-41.18,45.66,-18.5,-48.47,-14.92,-19.2,-20.29,-6.154,0.8452,-16.4,-1.097,15.5,3.302,18.62,27.4,24.95,0,0,0,0,0,0,0,0,0,0,0,0,0,0,0,0,
792,-117.5,-66.78,-14.55,-141.8,-21.13,50.94,-67.19,13.64,-19.96,-11.86,7.906,18.07,9.025,25.14,28.02,26.97,0,0,0,0,0,0,0,0,0,0,0,0,0,0,0,0,
793,-99.69,-7.658,-56.65,-62.59,12.09,67.53,4.122,27.77,-9.462,-18.39,27.65,19.83,22.57,26.62,40.19,37.64,0,0,0,0,0,0,0,0,0,0,0,0,0,0,0,0,
794,-51.92,55.83,-55.94,88.08,23.38,-6.652,28.21,-28.75,14.67,15.68,34.6,22.54,17.01,28.56,30.54,30.65,0,0,0,0,0,0,0,0,0,0,0,0,0,0,0,0,
795,-21.65,55.26,-48.45,15.68,-36.85,-65.33,-38.22,-29.93,4.18,8.95,-1.329,4.974,-22.95,-10.22,-3.823,2.005,0,0,0,0,0,0,0,0,0,0,0,0,0,0,0,0,
796,40.17,89.55,-3.021,-75.92,-88.94,-62.69,-44.48,2.431,-26.37,-47.54,-27.55,-14.67,-51.24,-38.83,-20.32,-20.25,0,0,0,0,0,0,0,0,0,0,0,0,0,0,0,0,
797,58.83,110.0,48.77,-60.96,-67.58,-17.99,-8.398,-28.64,-40.83,-10.89,-5.472,14.18,-32.09,5.062,-0.866,-6.258,0,0,0,0,0,0,0,0,0,0,0,0,0,0,0,0,
798,-61.45,76.95,-42.5,-49.35,-33.44,-27.76,2.964,-37.45,-24.23,40.23,10.21,32.93,-13.25,19.13,7.823,6.235,0,0,0,0,0,0,0,0,0,0,0,0,0,0,0,0,
799,-162.2,-12.87,-97.97,-28.44,-38.45,-49.98,-0.4676,6.303,0.2483,-34.69,4.034,4.912,-13.39,-17.1,1.426,-0.4732,0,0,0,0,0,0,0,0,0,0,0,0,0,0,0,0,
800,-86.62,-66.52,30.89,-78.65,-36.06,31.92,-30.12,19.36,12.78,-49.35,13.75,-8.46,-3.33,-13.96,11.7,2.854,0,0,0,0,0,0,0,0,0,0,0,0,0,0,0,0,
801,-50.22,5.17,18.86,-155.0,-32.4,41.14,-50.88,2.211,-2.824,-0.6683,12.65,-4.963,-2.271,-6.859,18.87,6.58,0,0,0,0,0,0,0,0,0,0,0,0,0,0,0,0,
802,-97.12,72.8,-127.5,-36.07,-34.12,-27.4,-10.81,-3.205,-21.8,-35.33,-4.235,5.246,-3.943,-3.47,20.24,11.59,0,0,0,0,0,0,0,0,0,0,0,0,0,0,0,0,
803,-4.07,86.32,-69.87,84.53,-13.96,12.73,5.319,-20.71,4.718,-2.005,-7.222,8.179,-3.967,5.526,16.68,8.866,0,0,0,0,0,0,0,0,0,0,0,0,0,0,0,0,
804,47.12,96.05,30.47,-39.72,-26.25,19.7,-41.89,-53.2,11.13,48.36,-9.233,-11.36,-24.54,-18.35,2.79,-12.59,0,0,0,0,0,0,0,0,0,0,0,0,0,0,0,0,
805,-43.07,54.69,15.16,-123.7,-38.07,-18.98,-26.19,-39.37,-22.53,-10.63,0.7505,11.1,-11.75,0.4345,15.58,-0.1006,0,0,0,0,0,0,0,0,0,0,0,0,0,0,0,0,
806,-32.93,22.95,22.48,13.54,2.916,-2.216,34.18,6.265,4.46,6.024,17.42,48.53,27.18,48.24,39.43,33.21,0,0,0,0,0,0,0,0,0,0,0,0,0,0,0,0,
807,-28.13,50.47,-14.25,43.03,0.111,-27.02,20.25,28.43,44.77,52.44,15.08,24.63,20.08,26.93,37.95,28.5,0,0,0,0,0,0,0,0,0,0,0,0,0,0,0,0,
808,-84.66,37.84,-81.61,-95.52,-30.22,3.982,-0.9078,43.47,15.5,5.618,24.3,8.457,7.692,14.3,34.64,15.58,0,0,0,0,0,0,0,0,0,0,0,0,0,0,0,0,
809,-30.02,35.53,-67.12,-53.94,-17.25,65.74,13.69,31.58,-6.645,1.928,34.69,33.08,21.39,41.72,36.05,27.89,0,0,0,0,0,0,0,0,0,0,0,0,0,0,0,0,
810,-40.29,93.81,-73.66,50.55,-11.25,-2.685,5.904,0.9093,22.01,31.48,23.94,40.07,28.84,42.57,37.93,45.3,0,0,0,0,0,0,0,0,0,0,0,0,0,0,0,0,
811,-135.2,61.82,-76.94,-34.23,-0.4391,0.5248,11.66,40.83,49.59,27.44,26.95,17.55,23.5,26.22,32.39,33.98,0,0,0,0,0,0,0,0,0,0,0,0,0,0,0,0,
812,-60.04,-2.491,-18.85,-27.0,15.45,49.24,19.04,61.95,37.13,32.23,24.57,-8.386,-1.936,2.825,6.484,-2.683,0,0,0,0,0,0,0,0,0,0,0,0,0,0,0,0,
813,21.33,86.06,-17.84,64.9,-15.0,-36.35,-26.2,-33.51,-1.669,18.59,-4.495,-10.83,-28.13,-8.636,-10.43,-22.62,0,0,0,0,0,0,0,0,0,0,0,0,0,0,0,0,
814,-46.48,147.4,-21.23,-28.53,-32.05,-33.81,-28.57,-57.63,-21.74,-14.74,-10.5,-6.507,-27.27,-2.21,-9.477,-24.73,0,0,0,0,0,0,0,0,0,0,0,0,0,0,0,0,
815,-58.51,36.4,22.99,-44.02,-31.67,23.79,21.84,32.72,-22.74,-21.71,2.465,-11.4,-27.5,-20.43,-15.7,-25.47,0,0,0,0,0,0,0,0,0,0,0,0,0,0,0,0,
816,-21.16,-21.7,-29.92,51.5,-85.89,-57.13,-12.22,37.37,-30.31,-19.99,-16.38,-7.628,-46.7,-41.42,-31.43,-26.15,0,0,0,0,0,0,0,0,0,0,0,0,0,0,0,0,
817,-52.07,37.81,-99.16,-30.92,-95.47,-47.71,-45.08,2.15,-28.92,-36.67,-26.6,-11.63,-44.78,-30.42,-29.92,-23.91,0,0,0,0,0,0,0,0,0,0,0,0,0,0,0,0,
818,-52.44,91.19,-24.48,-62.43,10.84,63.89,51.09,19.63,-1.053,-33.51,15.89,-13.58,-7.171,-9.597,5.356,-3.866,0,0,0,0,0,0,0,0,0,0,0,0,0,0,0,0,
819,-34.39,130.7,18.31,69.42,54.97,18.21,102.7,10.36,15.35,1.832,28.32,1.131,-4.196,-12.24,12.05,-0.4067,0,0,0,0,0,0,0,0,0,0,0,0,0,0,0,0,
820,-55.46,120.7,-27.2,107.9,-10.06,-46.74,47.72,25.49,-3.707,-11.69,-10.2,-6.641,-42.22,-38.29,-24.83,-28.17,0,0,0,0,0,0,0,0,0,0,0,0,0,0,0,0,
821,-17.23,59.11,21.75,59.78,-9.681,22.85,24.56,34.53,-3.786,-34.54,-15.02,-18.35,-42.07,-39.32,-24.51,-32.04,0,0,0,0,0,0,0,0,0,0,0,0,0,0,0,0,
822,-3.752,22.36,18.95,7.392,20.74,36.67,-17.89,-72.53,4.883,10.23,-11.06,-5.786,-32.08,-18.37,-13.21,-24.52,0,0,0,0,0,0,0,0,0,0,0,0,0,0,0,0,
823,-91.27,28.44,-117.0,7.564,-16.98,-40.02,-64.35,-87.63,-26.2,3.684,-25.54,-3.37,-45.4,-22.85,-25.93,-22.41,0,0,0,0,0,0,0,0,0,0,0,0,0,0,0,0,
824,-99.0,83.6,-86.04,54.01,-32.98,-74.61,-10.86,21.57,-29.11,-63.55,-19.93,-14.58,-39.55,-35.9,-8.365,-1.688,0,0,0,0,0,0,0,0,0,0,0,0,0,0,0,0,
825,-51.76,107.7,32.96,-23.39,-36.96,-80.07,14.06,5.49,-11.96,-63.8,-10.35,-10.1,-30.17,-23.82,13.08,9.184,0,0,0,0,0,0,0,0,0,0,0,0,0,0,0,0,
826,-35.56,72.08,-5.535,-69.94,-64.83,-40.73,-10.33,-22.28,-35.7,-18.32,15.9,9.883,-17.44,5.261,8.145,9.228,0,0,0,0,0,0,0,0,0,0,0,0,0,0,0,0,
827,34.35,110.7,-38.55,51.46,-45.19,21.57,11.89,42.38,-15.35,21.35,31.96,2.437,-8.891,1.273,-0.5733,5.488,0,0,0,0,0,0,0,0,0,0,0,0,0,0,0,0,
828,17.51,133.1,-20.44,79.48,-17.45,-25.27,18.9,21.03,28.03,24.13,-13.81,-32.65,-43.75,-43.46,-23.46,-26.27,0,0,0,0,0,0,0,0,0,0,0,0,0,0,0,0,
829,-122.6,26.77,-44.05,72.3,-9.453,-65.43,28.96,-17.32,-3.761,-14.07,-13.94,-29.5,-48.04,-51.16,-31.37,-43.25,0,0,0,0,0,0,0,0,0,0,0,0,0,0,0,0,
830,-135.2,-11.07,-50.77,129.2,0.1406,9.91,56.55,37.88,-31.07,-30.12,40.88,6.456,-3.523,-13.35,7.498,-13.13,0,0,0,0,0,0,0,0,0,0,0,0,0,0,0,0,
831,-60.2,71.38,-61.49,48.01,-32.77,20.54,47.95,44.81,-9.256,-23.62,42.04,32.99,12.7,23.39,57.29,35.43,0,0,0,0,0,0,0,0,0,0,0,0,0,0,0,0,
832,-18.04,124.7,-38.79,10.78,-36.95,-18.68,61.18,-30.62,18.99,24.16,42.31,48.42,24.28,51.32,78.98,69.17,0,0,0,0,0,0,0,0,0,0,0,0,0,0,0,0,
833,29.31,138.8,56.87,132.4,19.29,16.84,53.43,-48.18,44.95,94.43,50.57,39.14,25.05,38.53,51.52,53.57,0,0,0,0,0,0,0,0,0,0,0,0,0,0,0,0,
834,0.3793,142.5,54.44,124.4,-4.37,5.237,-9.019,36.26,20.68,43.18,3.548,22.56,-21.73,-1.681,1.042,12.61,0,0,0,0,0,0,0,0,0,0,0,0,0,0,0,0,
835,-87.64,106.9,-53.49,56.78,-70.34,-48.62,-24.39,85.73,-38.01,-41.37,-30.23,19.96,-47.92,-8.333,-18.97,-4.039,0,0,0,0,0,0,0,0,0,0,0,0,0,0,0,0,
836,-122.1,36.18,-131.7,72.1,-48.97,-28.35,-28.29,32.49,-37.61,-2.536,-15.68,8.507,-28.61,-1.64,-5.282,-2.372,0,0,0,0,0,0,0,0,0,0,0,0,0,0,0,0,
837,-147.8,7.282,-152.2,25.08,-20.97,-34.45,-36.54,-13.16,-2.531,11.22,-12.08,-3.148,-22.38,-12.86,3.308,-2.999,0,0,0,0,0,0,0,0,0,0,0,0,0,0,0,0,
838,-130.9,74.25,-103.8,-13.72,-53.43,-50.9,-17.55,-23.78,-8.275,-32.37,-31.35,1.575,-40.96,-12.99,-15.62,-12.4,0,0,0,0,0,0,0,0,0,0,0,0,0,0,0,0,
839,-33.36,177.9,-70.46,82.88,-53.62,26.1,-27.18,-17.56,-27.27,20.86,-31.51,14.2,-38.61,10.29,-22.53,-10.37,0,0,0,0,0,0,0,0,0,0,0,0,0,0,0,0,
840,6.774,220.7,-79.2,138.0,-12.15,15.7,0.352,20.67,-1.232,61.97,-2.387,11.6,-12.5,9.593,4.242,8.255,0,0,0,0,0,0,0,0,0,0,0,0,0,0,0,0,
841,-11.26,162.5,-5.574,35.36,-6.758,-55.14,65.02,34.45,33.91,-5.353,14.09,-6.93,-8.457,-13.16,14.39,9.742,0,0,0,0,0,0,0,0,0,0,0,0,0,0,0,0,
842,7.146,124.7,58.77,12.66,-5.903,73.8,43.22,56.32,18.96,-6.504,11.6,6.928,-13.13,8.109,-0.7098,-1.103,0,0,0,0,0,0,0,0,0,0,0,0,0,0,0,0,
843,2.714,220.0,11.49,168.4,3.531,130.1,-1.301,75.16,-15.17,38.99,-7.833,12.92,-21.41,12.85,-9.332,-11.34,0,0,0,0,0,0,0,0,0,0,0,0,0,0,0,0,
844,-21.81,264.2,5.336,172.4,-24.43,-78.88,-11.61,-27.15,-24.57,-20.96,-36.76,-30.52,-48.64,-39.36,-4.358,-20.3,0,0,0,0,0,0,0,0,0,0,0,0,0,0,0,0,
845,-3.056,161.6,35.4,32.96,-18.89,-106.0,-8.335,-75.09,-12.92,-48.81,-14.36,-22.58,-32.88,-27.63,1.317,-12.79,0,0,0,0,0,0,0,0,0,0,0,0,0,0,0,0,
846,-44.05,116.8,-3.985,45.68,32.81,45.93,33.76,34.79,1.085,11.26,21.44,21.34,5.636,11.71,-15.7,-9.289,0,0,0,0,0,0,0,0,0,0,0,0,0,0,0,0,
847,-141.5,143.2,-26.18,4.233,32.06,13.1,43.35,45.91,4.452,3.154,8.704,13.84,-5.36,-8.909,-25.89,-10.42,0,0,0,0,0,0,0,0,0,0,0,0,0,0,0,0,
848,-121.2,122.0,-48.01,-69.83,-0.1406,-8.525,-5.509,-10.37,4.321,-7.197,-3.666,19.52,-13.7,8.325,-5.572,8.018,0,0,0,0,0,0,0,0,0,0,0,0,0,0,0,0,
849,-42.04,110.7,-106.2,179.8,-9.419,77.09,-12.59,49.09,-4.997,49.16,-7.087,37.2,2.567,43.49,6.569,18.61,0,0,0,0,0,0,0,0,0,0,0,0,0,0,0,0,
850,-39.34,136.8,-34.46,294.8,4.021,42.81,26.21,82.69,-12.5,44.26,22.3,8.403,18.49,12.34,24.18,18.96,0,0,0,0,0,0,0,0,0,0,0,0,0,0,0,0,
851,-50.83,142.2,77.09,-27.75,19.9,-13.78,62.35,26.21,11.38,-17.79,82.56,-9.393,34.19,-7.441,44.82,22.04,0,0,0,0,0,0,0,0,0,0,0,0,0,0,0,0,
852,-58.73,128.1,11.53,-102.7,-1.868,-11.74,69.54,-12.36,20.32,-42.5,43.31,-4.509,4.028,-6.637,11.72,1.86,0,0,0,0,0,0,0,0,0,0,0,0,0,0,0,0,
853,-84.6,132.4,-73.09,129.4,-33.57,-64.2,15.32,-33.54,-15.43,-38.77,-38.91,-20.3,-49.87,-41.09,-33.13,-28.8,0,0,0,0,0,0,0,0,0,0,0,0,0,0,0,0,
