%OpenBCI Raw EXG Data
%Number of channels = 16
%Sample Rate = 125 Hz
%Board = OpenBCI_GUI$BoardCytonSerialDaisy
Sample Index,EXG Channel 0,EXG Channel 1,EXG Channel 2,EXG Channel 3,EXG Channel 4,EXG Channel 5,EXG Channel 6,EXG Channel 7,EXG Channel 8,EXG Channel 9,EXG Channel 10,EXG Channel 11,EXG Channel 12,EXG Channel 13,EXG Channel 14,EXG Channel 15,Accel Channel 0,Accel Channel 1,Accel Channel 2,Other,Other.1,Other.2,Other.3,Other.4,Other.5,Other.6,Analog Channel 0,Analog Channel 1,Analog Channel 2,Timestamp,Other.7,Timestamp (Formatted),Annotations
1,-0.0,0.0,-0.0,0.0,-0.0,-0.0,0.0,0.0,-0.0,0.0,0.0,0.0,-0.0,0.0,-0.0,0.0,0,0,0,0,0,0,0,0,0,0,0,0,0,0,0,0,T0
2,-0.1481,1.609,7.149,7.316,5.978,1.663,10.52,2.734,9.473,-4.525,12.16,4.548,10.46,9.535,13.26,10.44,0,0,0,0,0,0,0,0,0,0,0,0,0,0,0,0,
3,5.337,5.983,10.49,7.281,11.79,8.466,9.842,2.763,12.89,1.926,9.438,1.249,10.85,8.894,13.59,7.244,0,0,0,0,0,0,0,0,0,0,0,0,0,0,0,0,
4,0.6851,0.5176,1.946,-1.492,4.648,4.362,2.031,-7.302,8.421,-3.49,1.603,-8.09,4.811,0.0168,5.845,-0.1834,0,0,0,0,0,0,0,0,0,0,0,0,0,0,0,0,
5,0.122,-0.2929,1.133,1.851,4.377,3.78,8.382,-7.792,6.18,-11.09,9.662,-5.607,11.44,2.56,10.18,5.245,0,0,0,0,0,0,0,0,0,0,0,0,0,0,0,0,
6,15.94,14.25,17.19,14.54,21.08,17.53,21.26,3.275,17.89,1.042,20.48,3.026,23.88,12.2,17.66,11.77,0,0,0,0,0,0,0,0,0,0,0,0,0,0,0,0,
7,21.13,17.67,24.94,9.573,25.06,19.08,16.51,-1.463,29.54,9.783,13.17,-1.314,21.48,8.657,10.79,4.786,0,0,0,0,0,0,0,0,0,0,0,0,0,0,0,0,
8,12.5,7.115,17.31,-0.3466,15.2,9.93,7.217,-9.898,25.0,3.543,5.036,-5.347,16.03,3.486,6.347,0.0536,0,0,0,0,0,0,0,0,0,0,0,0,0,0,0,0,
9,10.26,5.721,9.907,5.314,13.16,12.39,9.389,-1.053,18.76,2.355,8.595,1.827,18.73,8.923,12.49,6.846,0,0,0,0,0,0,0,0,0,0,0,0,0,0,0,0,
10,13.6,12.87,14.47,15.21,20.31,23.0,16.66,9.432,25.45,9.089,13.86,9.215,22.07,16.7,18.55,16.01,0,0,0,0,0,0,0,0,0,0,0,0,0,0,0,0,
11,22.4,22.43,28.73,25.75,33.77,36.08,26.29,14.94,41.03,19.31,20.5,14.31,27.1,25.23,24.02,22.58,0,0,0,0,0,0,0,0,0,0,0,0,0,0,0,0,
12,30.73,29.52,29.59,32.22,40.85,42.94,26.12,16.48,48.89,28.32,20.91,12.91,27.53,27.41,21.09,19.12,0,0,0,0,0,0,0,0,0,0,0,0,0,0,0,0,
13,21.67,23.11,14.48,22.74,30.21,33.36,10.28,8.625,33.15,23.78,8.444,4.926,17.41,18.49,9.71,8.155,0,0,0,0,0,0,0,0,0,0,0,0,0,0,0,0,
14,10.32,15.38,11.29,16.95,21.43,24.65,3.503,6.288,12.57,15.72,6.292,5.969,15.29,16.34,10.43,7.728,0,0,0,0,0,0,0,0,0,0,0,0,0,0,0,0,
15,12.38,17.17,15.41,22.41,20.88,23.53,8.392,10.94,10.38,17.53,19.2,9.322,23.74,20.97,19.55,13.86,0,0,0,0,0,0,0,0,0,0,0,0,0,0,0,0,
16,7.785,10.07,5.541,13.5,10.69,12.36,4.799,1.473,11.34,14.74,20.69,0.8051,24.63,15.56,20.27,11.57,0,0,0,0,0,0,0,0,0,0,0,0,0,0,0,0,
17,-6.748,-5.52,-7.188,-2.022,-1.958,-1.562,-0.2493,-11.18,4.22,4.287,10.96,-3.546,20.72,8.362,17.34,8.319,0,0,0,0,0,0,0,0,0,0,0,0,0,0,0,0,
18,-13.21,-11.26,-11.97,-5.377,-3.859,-4.266,0.504,-10.96,-1.073,0.5146,7.045,1.593,19.32,8.061,14.44,9.088,0,0,0,0,0,0,0,0,0,0,0,0,0,0,0,0,
19,-11.61,-11.21,-10.66,-7.915,-1.111,-2.99,0.5621,-11.92,0.8534,1.526,6.78,-0.6068,17.03,6.9,10.56,6.74,0,0,0,0,0,0,0,0,0,0,0,0,0,0,0,0,
20,-5.434,-9.276,-0.2847,-6.138,4.862,1.414,5.709,-12.78,8.143,3.133,7.612,-4.519,18.39,8.3,12.17,6.65,0,0,0,0,0,0,0,0,0,0,0,0,0,0,0,0,
21,4.573,0.4868,11.27,7.611,14.01,11.32,14.51,-0.823,14.19,9.412,12.71,2.805,25.0,17.65,17.87,14.07,0,0,0,0,0,0,0,0,0,0,0,0,0,0,0,0,
22,11.09,10.48,15.41,15.51,19.89,18.17,16.27,8.247,22.31,17.4,16.71,9.929,28.4,25.75,19.97,18.75,0,0,0,0,0,0,0,0,0,0,0,0,0,0,0,0,
23,12.82,11.4,16.87,13.08,20.79,17.21,14.18,2.554,32.57,20.72,15.05,6.827,27.28,25.76,18.64,16.1,0,0,0,0,0,0,0,0,0,0,0,0,0,0,0,0,
24,11.41,7.143,14.23,9.813,16.29,11.06,11.07,-2.578,27.85,18.1,11.6,2.233,24.99,21.41,16.75,13.62,0,0,0,0,0,0,0,0,0,0,0,0,0,0,0,0,
25,4.897,3.459,4.351,3.572,7.734,4.266,5.234,-2.912,15.9,11.89,10.0,1.102,21.42,17.29,14.05,12.92,0,0,0,0,0,0,0,0,0,0,0,0,0,0,0,0,
26,-3.342,-0.9207,-5.831,-6.182,0.922,-0.0812,-0.2594,-8.47,13.49,4.362,8.963,-0.804,18.09,14.17,11.15,10.44,0,0,0,0,0,0,0,0,0,0,0,0,0,0,0,0,
27,-6.44,-6.813,-8.846,-13.67,-0.365,-2.426,-4.311,-13.89,12.57,-1.863,6.377,-2.97,17.52,11.76,10.62,7.812,0,0,0,0,0,0,0,0,0,0,0,0,0,0,0,0,
28,-3.801,-9.616,-2.979,-14.27,3.944,-3.389,-4.54,-13.97,15.41,-3.77,3.588,-3.748,18.22,10.46,11.9,7.02,0,0,0,0,0,0,0,0,0,0,0,0,0,0,0,0,
29,0.6488,-6.292,7.631,-4.996,11.7,-0.4503,3.292,-11.79,24.09,-2.827,5.997,-1.336,21.18,14.14,15.59,10.39,0,0,0,0,0,0,0,0,0,0,0,0,0,0,0,0,
30,11.46,6.247,23.17,12.53,24.65,11.75,17.33,-0.0463,29.29,4.204,16.78,8.139,31.06,25.81,23.98,19.29,0,0,0,0,0,0,0,0,0,0,0,0,0,0,0,0,
31,27.85,21.17,38.67,24.52,37.37,23.61,27.81,12.08,36.44,18.75,23.28,13.0,37.15,31.0,24.43,19.45,0,0,0,0,0,0,0,0,0,0,0,0,0,0,0,0,
32,26.01,16.47,31.59,15.47,30.05,15.06,21.35,3.253,38.12,20.05,11.78,1.296,24.55,17.24,8.667,2.826,0,0,0,0,0,0,0,0,0,0,0,0,0,0,0,0,
33,6.89,0.8606,8.853,0.7605,11.09,0.4176,5.543,-6.941,23.52,4.24,-0.5282,-8.526,10.1,5.393,-0.3285,-7.085,0,0,0,0,0,0,0,0,0,0,0,0,0,0,0,0,
34,5.76,5.301,6.468,4.477,11.12,5.104,3.205,0.3707,12.47,-0.2193,4.21,-3.715,13.03,9.582,8.098,0.3524,0,0,0,0,0,0,0,0,0,0,0,0,0,0,0,0,
35,20.05,17.79,18.99,13.98,22.01,14.15,9.48,2.536,13.71,5.847,10.56,-0.273,18.47,11.71,12.94,5.067,0,0,0,0,0,0,0,0,0,0,0,0,0,0,0,0,
36,24.28,18.51,24.35,15.71,24.66,14.69,10.96,-3.432,16.0,4.009,12.28,-2.352,17.33,8.427,11.14,3.701,0,0,0,0,0,0,0,0,0,0,0,0,0,0,0,0,
37,23.88,18.62,26.85,17.33,25.67,16.64,16.0,-1.536,18.81,3.683,20.77,0.0515,20.77,11.65,15.63,7.736,0,0,0,0,0,0,0,0,0,0,0,0,0,0,0,0,
38,22.3,17.3,22.82,16.62,23.85,16.18,24.29,1.686,22.22,8.665,26.57,7.096,27.34,18.59,22.55,14.97,0,0,0,0,0,0,0,0,0,0,0,0,0,0,0,0,
39,15.38,10.96,13.28,11.24,18.0,12.24,22.75,2.748,22.34,11.08,18.3,11.55,26.89,22.21,21.26,15.91,0,0,0,0,0,0,0,0,0,0,0,0,0,0,0,0,
40,12.12,8.839,14.06,5.066,16.41,10.49,11.41,2.171,19.2,10.87,4.568,4.405,15.87,15.7,9.31,5.323,0,0,0,0,0,0,0,0,0,0,0,0,0,0,0,0,
41,11.83,7.391,15.34,-0.5225,13.88,6.416,3.207,-3.114,14.7,3.384,-1.255,-5.717,4.07,3.619,1.271,-2.888,0,0,0,0,0,0,0,0,0,0,0,0,0,0,0,0,
42,12.98,9.552,10.83,2.716,11.85,6.285,5.319,-2.485,11.49,-3.554,4.281,-2.252,4.663,2.058,7.175,3.743,0,0,0,0,0,0,0,0,0,0,0,0,0,0,0,0,
43,17.89,17.86,13.02,10.88,13.79,9.863,1.951,1.16,9.09,0.342,3.876,-0.0547,4.535,1.255,6.149,5.074,0,0,0,0,0,0,0,0,0,0,0,0,0,0,0,0,
44,14.04,14.05,11.5,10.07,7.349,3.413,-9.868,-3.463,3.742,-1.58,-5.759,-7.759,-4.372,-7.046,-2.837,-2.178,0,0,0,0,0,0,0,0,0,0,0,0,0,0,0,0,
45,7.775,7.292,4.726,8.36,3.287,2.349,0.3925,-1.042,-0.834,-6.807,3.376,-2.626,2.538,-0.8386,7.802,6.326,0,0,0,0,0,0,0,0,0,0,0,0,0,0,0,0,
46,17.55,17.92,12.29,11.2,15.49,15.29,24.44,9.17,6.126,3.543,22.96,8.344,19.65,12.39,21.87,17.22,0,0,0,0,0,0,0,0,0,0,0,0,0,0,0,0,
47,24.29,23.67,20.18,4.526,19.66,14.47,22.23,5.892,17.35,9.658,19.57,3.655,16.47,7.473,14.02,10.68,0,0,0,0,0,0,0,0,0,0,0,0,0,0,0,0,
48,14.6,13.94,13.41,-8.203,9.674,2.049,8.674,-1.688,15.64,-0.137,9.453,-0.5065,7.073,1.534,6.986,5.267,0,0,0,0,0,0,0,0,0,0,0,0,0,0,0,0,
49,10.7,10.82,12.07,-8.586,8.954,2.156,10.84,-0.0697,12.31,-1.863,13.09,3.442,10.79,6.79,9.559,4.886,0,0,0,0,0,0,0,0,0,0,0,0,0,0,0,0,
50,13.89,10.19,16.15,-0.981,12.02,3.519,12.36,-1.024,17.34,3.587,13.58,-0.4654,12.43,5.723,4.926,-2.45,0,0,0,0,0,0,0,0,0,0,0,0,0,0,0,0,
51,9.137,1.644,11.19,0.9926,6.781,-3.095,8.091,-1.965,14.0,1.569,8.437,-4.609,9.566,2.347,1.45,-5.058,0,0,0,0,0,0,0,0,0,0,0,0,0,0,0,0,
52,5.159,-0.0216,9.233,2.411,4.227,-3.93,8.829,5.862,4.762,1.782,6.584,0.3413,10.66,6.582,4.625,0.2616,0,0,0,0,0,0,0,0,0,0,0,0,0,0,0,0,
53,5.714,2.624,11.17,2.524,3.42,-3.592,5.194,5.949,2.292,3.999,1.627,-0.468,6.745,5.124,2.165,-1.672,0,0,0,0,0,0,0,0,0,0,0,0,0,0,0,0,
54,1.455,-3.355,4.695,-5.856,-1.472,-9.291,-2.885,-5.064,-0.1287,-4.39,-1.004,-6.612,0.4219,-1.332,2.171,-4.53,0,0,0,0,0,0,0,0,0,0,0,0,0,0,0,0,
55,2.47,-2.494,2.835,-6.302,1.979,-7.085,-0.2773,-6.138,-0.5346,-10.95,8.252,-2.889,6.07,2.5,12.78,4.044,0,0,0,0,0,0,0,0,0,0,0,0,0,0,0,0,
56,12.53,9.219,8.762,3.026,10.45,0.8197,5.649,-1.898,5.095,-4.52,14.0,1.115,12.76,7.071,15.48,9.684,0,0,0,0,0,0,0,0,0,0,0,0,0,0,0,0,
57,10.97,8.111,6.615,-1.051,6.714,-2.213,4.345,-9.209,4.888,-3.16,8.083,-5.338,7.831,0.2502,6.883,2.969,0,0,0,0,0,0,0,0,0,0,0,0,0,0,0,0,
58,3.302,-0.0441,8.222,-6.556,3.059,-5.547,10.27,-13.47,-0.0356,-11.09,10.06,-5.45,8.261,-2.019,8.641,1.914,0,0,0,0,0,0,0,0,0,0,0,0,0,0,0,0,
59,13.1,8.224,23.82,6.452,15.35,5.593,24.52,-1.903,6.067,-7.59,21.07,4.349,19.98,7.007,17.87,10.29,0,0,0,0,0,0,0,0,0,0,0,0,0,0,0,0,
60,24.72,18.39,29.6,16.41,25.06,14.6,24.4,6.354,19.16,3.862,16.56,2.01,19.08,6.335,11.56,6.066,0,0,0,0,0,0,0,0,0,0,0,0,0,0,0,0,
61,16.67,9.965,18.35,7.17,16.79,6.028,12.54,-2.131,18.08,0.6058,-0.4405,-12.7,1.612,-9.428,-5.142,-11.7,0,0,0,0,0,0,0,0,0,0,0,0,0,0,0,0,
62,7.663,-0.4561,12.59,-5.601,6.789,-5.388,11.4,-12.14,5.03,-12.9,-4.62,-18.32,-6.975,-18.88,-8.812,-18.77,0,0,0,0,0,0,0,0,0,0,0,0,0,0,0,0,
63,14.41,4.23,19.34,-7.843,9.547,-4.258,20.44,-9.156,2.158,-15.94,4.628,-11.93,2.512,-11.9,3.41,-8.771,0,0,0,0,0,0,0,0,0,0,0,0,0,0,0,0,
64,24.0,13.0,25.47,-3.472,16.24,0.2275,26.15,-3.314,10.44,-8.16,13.03,-5.519,14.02,-0.3575,15.65,2.933,0,0,0,0,0,0,0,0,0,0,0,0,0,0,0,0,
65,24.77,14.92,24.64,-1.952,17.18,-1.376,23.22,-5.485,16.8,-2.051,15.56,-1.908,16.28,6.246,16.93,6.643,0,0,0,0,0,0,0,0,0,0,0,0,0,0,0,0,
66,21.48,14.3,23.61,0.1977,18.01,0.7727,16.47,-4.567,18.41,1.722,13.36,1.856,15.81,10.55,13.05,5.139,0,0,0,0,0,0,0,0,0,0,0,0,0,0,0,0,
67,23.09,15.35,27.26,8.022,25.39,11.35,17.99,3.974,18.65,8.918,13.12,3.7,20.1,14.92,13.11,4.373,0,0,0,0,0,0,0,0,0,0,0,0,0,0,0,0,
68,27.76,16.48,26.94,9.734,32.38,17.91,22.63,5.502,19.28,15.28,15.1,1.172,21.77,15.68,11.23,4.357,0,0,0,0,0,0,0,0,0,0,0,0,0,0,0,0,
69,25.08,15.38,16.32,3.04,28.74,15.9,13.98,0.0539,16.84,14.39,10.45,-0.5036,16.39,13.47,5.158,3.623,0,0,0,0,0,0,0,0,0,0,0,0,0,0,0,0,
70,20.63,15.07,11.72,5.379,21.68,15.42,7.906,1.588,15.54,12.0,6.928,5.304,17.3,15.84,8.178,7.548,0,0,0,0,0,0,0,0,0,0,0,0,0,0,0,0,
71,25.88,18.81,22.88,12.73,22.69,16.7,19.69,5.175,22.74,13.06,13.17,9.983,24.02,18.66,14.87,11.03,0,0,0,0,0,0,0,0,0,0,0,0,0,0,0,0,
72,26.69,17.13,25.63,6.487,20.65,8.713,24.73,-0.4331,25.25,8.028,16.1,2.736,19.84,11.2,10.37,3.726,0,0,0,0,0,0,0,0,0,0,0,0,0,0,0,0,
73,18.6,11.38,16.91,2.474,14.22,2.282,21.88,-1.42,20.55,-0.7419,17.6,0.7505,17.62,8.325,12.27,3.479,0,0,0,0,0,0,0,0,0,0,0,0,0,0,0,0,
74,26.59,21.66,28.9,17.11,25.64,16.78,33.57,12.47,28.79,7.808,26.8,12.74,30.26,19.92,25.24,16.31,0,0,0,0,0,0,0,0,0,0,0,0,0,0,0,0,
75,40.29,33.92,44.54,23.53,38.44,29.58,36.24,14.98,38.94,21.19,21.4,5.759,25.84,14.4,14.81,6.764,0,0,0,0,0,0,0,0,0,0,0,0,0,0,0,0,
76,29.54,21.52,27.42,12.13,23.91,17.26,16.9,-3.408,24.82,7.662,-0.0943,-19.7,0.2511,-10.87,-9.323,-19.48,0,0,0,0,0,0,0,0,0,0,0,0,0,0,0,0,
77,18.59,11.07,12.54,11.13,12.4,8.555,10.1,-8.232,5.511,-10.09,-2.308,-17.51,-2.47,-11.87,-4.08,-16.67,0,0,0,0,0,0,0,0,0,0,0,0,0,0,0,0,
78,28.37,22.67,24.24,19.82,22.48,16.81,14.21,6.273,10.6,-0.6255,10.95,3.75,14.52,6.468,12.7,1.734,0,0,0,0,0,0,0,0,0,0,0,0,0,0,0,0,
79,29.68,26.71,24.07,18.41,22.82,16.41,10.08,10.35,22.77,11.09,13.68,5.306,17.01,8.634,10.06,0.9512,0,0,0,0,0,0,0,0,0,0,0,0,0,0,0,0,
80,19.41,18.14,10.94,13.69,13.16,10.15,12.59,5.099,18.72,8.705,12.18,0.667,12.36,5.515,5.849,-3.736,0,0,0,0,0,0,0,0,0,0,0,0,0,0,0,0,
81,19.76,18.0,10.74,15.27,12.58,12.55,16.08,7.118,12.34,9.198,10.83,5.698,12.08,10.59,8.164,0.6331,0,0,0,0,0,0,0,0,0,0,0,0,0,0,0,0,
82,23.17,21.16,11.85,18.41,13.41,14.52,7.853,11.73,13.43,11.37,6.024,5.71,10.31,11.66,4.813,1.253,0,0,0,0,0,0,0,0,0,0,0,0,0,0,0,0,
83,21.26,18.89,8.786,17.61,11.57,12.38,4.284,10.71,12.78,9.22,3.147,-1.824,7.164,6.736,-2.348,-5.304,0,0,0,0,0,0,0,0,0,0,0,0,0,0,0,0,
84,16.58,13.77,5.713,10.71,5.684,7.172,-1.381,3.066,7.671,5.808,-6.578,-10.11,-2.483,-1.168,-12.42,-15.2,0,0,0,0,0,0,0,0,0,0,0,0,0,0,0,0,
85,5.71,5.983,-6.75,2.519,-6.796,-1.021,-18.48,-4.838,-3.575,-1.672,-23.82,-15.11,-15.57,-7.771,-22.37,-21.84,0,0,0,0,0,0,0,0,0,0,0,0,0,0,0,0,
86,0.4454,3.13,-15.03,2.549,-8.355,-0.8141,-20.08,-3.36,-13.13,-5.439,-26.62,-10.43,-13.96,-3.667,-20.04,-16.63,0,0,0,0,0,0,0,0,0,0,0,0,0,0,0,0,
87,16.77,16.52,3.232,16.98,11.19,13.14,2.542,8.929,-5.446,4.216,-8.449,5.057,3.752,11.55,0.5535,3.438,0,0,0,0,0,0,0,0,0,0,0,0,0,0,0,0,
88,46.92,43.92,40.29,41.64,40.34,36.07,34.78,27.51,17.19,22.69,26.8,27.35,30.84,35.49,38.97,36.04,0,0,0,0,0,0,0,0,0,0,0,0,0,0,0,0,
89,73.66,68.08,73.99,58.6,66.6,59.36,67.44,41.82,47.49,45.35,68.29,45.34,60.65,59.16,77.29,64.45,0,0,0,0,0,0,0,0,0,0,0,0,0,0,0,0,
90,87.84,75.41,88.82,60.79,80.94,70.19,87.66,45.63,75.02,62.1,89.5,50.29,77.11,67.19,91.92,73.31,0,0,0,0,0,0,0,0,0,0,0,0,0,0,0,0,
91,91.76,75.24,86.19,62.19,82.24,68.71,89.29,46.5,83.88,63.23,82.69,47.17,72.97,60.39,83.11,66.78,0,0,0,0,0,0,0,0,0,0,0,0,0,0,0,0,
92,88.17,74.61,72.22,60.64,68.65,57.3,66.86,39.42,71.03,51.8,53.16,32.44,47.93,40.11,52.78,41.78,0,0,0,0,0,0,0,0,0,0,0,0,0,0,0,0,
93,78.42,67.51,49.2,49.21,42.86,37.3,22.99,22.19,39.54,29.94,9.863,8.493,13.18,11.67,11.41,5.901,0,0,0,0,0,0,0,0,0,0,0,0,0,0,0,0,
94,82.22,70.38,38.51,51.73,33.6,33.25,-1.17,18.84,12.0,12.18,-13.07,-0.0314,-0.2686,1.954,-7.634,-7.845,0,0,0,0,0,0,0,0,0,0,0,0,0,0,0,0,
95,111.0,95.4,50.63,71.54,47.44,49.19,7.824,27.02,12.62,14.43,-10.19,3.355,5.083,8.681,-5.865,-3.74,0,0,0,0,0,0,0,0,0,0,0,0,0,0,0,0,
96,144.4,121.1,61.37,79.57,56.43,57.88,12.24,27.09,17.92,20.11,-10.67,1.896,4.794,9.932,-5.144,-3.89,0,0,0,0,0,0,0,0,0,0,0,0,0,0,0,0,
97,172.8,141.4,69.7,82.47,65.4,65.43,12.33,31.91,18.09,23.43,-6.699,7.449,12.44,17.43,1.841,2.346,0,0,0,0,0,0,0,0,0,0,0,0,0,0,0,0,
98,197.3,161.4,86.99,93.3,82.48,78.16,21.54,37.97,33.27,35.5,5.059,12.29,27.1,26.92,7.369,6.752,0,0,0,0,0,0,0,0,0,0,0,0,0,0,0,0,
99,208.7,170.4,96.01,96.35,85.9,75.61,21.98,29.43,41.7,38.29,3.955,2.874,24.07,19.35,1.492,-2.309,0,0,0,0,0,0,0,0,0,0,0,0,0,0,0,0,
100,219.9,180.6,99.32,100.1,85.88,73.21,24.41,30.51,33.47,30.79,7.523,4.86,21.89,17.99,7.198,2.076,0,0,0,0,0,0,0,0,0,0,0,0,0,0,0,0,
101,242.1,201.4,112.5,112.8,98.53,85.98,39.01,44.73,37.89,37.55,20.58,17.96,32.21,28.98,17.58,14.59,0,0,0,0,0,0,0,0,0,0,0,0,0,0,0,0,
102,251.4,208.7,118.0,114.4,101.7,88.99,37.39,44.42,47.32,45.27,13.02,13.35,29.2,24.03,8.383,6.264,0,0,0,0,0,0,0,0,0,0,0,0,0,0,0,0,
103,246.7,205.2,111.2,113.7,95.08,84.24,26.66,40.43,43.38,39.02,-0.8395,4.999,19.23,12.77,-0.5931,-3.219,0,0,0,0,0,0,0,0,0,0,0,0,0,0,0,0,
104,251.9,211.5,115.5,124.1,99.77,90.29,37.73,48.73,39.86,36.84,8.485,14.17,25.23,17.83,8.401,6.931,0,0,0,0,0,0,0,0,0,0,0,0,0,0,0,0,
105,260.2,216.6,129.0,127.6,107.4,95.41,54.73,54.89,45.85,42.97,25.23,25.33,35.96,27.33,18.68,17.44,0,0,0,0,0,0,0,0,0,0,0,0,0,0,0,0,
106,250.4,206.5,126.1,118.2,100.3,88.6,49.28,50.85,49.36,43.61,23.05,22.26,30.31,23.29,13.76,11.24,0,0,0,0,0,0,0,0,0,0,0,0,0,0,0,0,
107,225.3,186.7,104.3,106.6,81.96,75.9,32.19,42.41,37.67,33.52,6.413,12.72,14.02,11.53,0.6852,-0.6516,0,0,0,0,0,0,0,0,0,0,0,0,0,0,0,0,
108,205.8,171.2,93.66,100.5,74.52,70.23,30.68,38.68,25.88,24.91,4.567,12.52,14.76,12.47,2.095,1.928,0,0,0,0,0,0,0,0,0,0,0,0,0,0,0,0,
109,197.7,164.6,98.74,98.39,82.19,73.9,39.32,38.97,36.15,31.2,19.61,17.92,31.62,23.15,15.36,12.83,0,0,0,0,0,0,0,0,0,0,0,0,0,0,0,0,
110,177.6,146.3,87.43,88.42,77.54,68.42,33.82,33.67,50.49,37.26,22.86,17.29,36.22,25.79,18.63,15.57,0,0,0,0,0,0,0,0,0,0,0,0,0,0,0,0,
111,144.2,115.5,67.02,76.91,61.63,56.56,23.95,32.52,47.98,32.61,17.88,19.66,34.91,29.54,18.15,18.89,0,0,0,0,0,0,0,0,0,0,0,0,0,0,0,0,
112,129.0,103.4,68.52,75.1,62.72,59.43,27.97,39.79,44.1,36.62,21.23,27.61,43.56,40.27,23.9,26.44,0,0,0,0,0,0,0,0,0,0,0,0,0,0,0,0,
113,127.8,105.2,75.41,69.07,70.57,65.83,33.2,35.98,50.14,47.24,23.55,27.71,47.76,42.7,26.28,26.47,0,0,0,0,0,0,0,0,0,0,0,0,0,0,0,0,
114,112.7,93.38,67.19,56.3,64.64,60.27,30.54,26.1,55.46,46.26,22.97,22.41,43.32,37.25,22.88,20.37,0,0,0,0,0,0,0,0,0,0,0,0,0,0,0,0,
115,90.76,75.16,53.53,47.13,52.13,49.53,23.8,24.32,49.61,37.7,18.8,16.15,34.5,27.51,13.5,10.5,0,0,0,0,0,0,0,0,0,0,0,0,0,0,0,0,
116,73.59,60.41,38.31,35.48,36.92,34.73,12.51,18.26,31.4,25.22,4.216,7.404,18.6,13.39,0.468,0.5563,0,0,0,0,0,0,0,0,0,0,0,0,0,0,0,0,
117,55.06,42.75,26.34,23.97,22.37,21.59,6.364,10.26,14.34,12.93,-2.663,6.367,10.82,9.812,-1.108,3.368,0,0,0,0,0,0,0,0,0,0,0,0,0,0,0,0,
118,39.48,28.07,23.1,22.27,18.27,21.53,11.12,13.1,11.19,14.05,5.954,11.02,16.83,15.39,6.224,10.68,0,0,0,0,0,0,0,0,0,0,0,0,0,0,0,0,
119,27.67,17.86,14.45,19.71,13.42,21.3,8.98,11.55,9.661,18.41,5.507,5.079,14.81,10.87,3.959,4.545,0,0,0,0,0,0,0,0,0,0,0,0,0,0,0,0,
120,10.86,4.256,-0.095,11.0,-0.3919,11.23,-2.599,1.407,-0.1337,10.18,-4.976,-2.761,4.367,3.375,-2.56,-2.369,0,0,0,0,0,0,0,0,0,0,0,0,0,0,0,0,
121,4.632,1.012,2.751,11.91,-0.6659,11.24,0.7505,5.197,-1.894,5.458,-1.28,5.746,6.248,10.18,3.398,8.344,0,0,0,0,0,0,0,0,0,0,0,0,0,0,0,0,
122,19.15,13.87,19.56,21.27,14.98,22.53,16.44,17.45,8.481,15.76,11.96,16.94,15.84,19.33,12.64,19.83,0,0,0,0,0,0,0,0,0,0,0,0,0,0,0,0,
123,22.34,13.41,19.42,16.48,13.79,16.96,15.39,11.3,13.13,18.31,11.36,9.518,13.44,11.64,7.87,10.62,0,0,0,0,0,0,0,0,0,0,0,0,0,0,0,0,
124,2.37,-6.355,1.183,0.5612,-4.889,-3.217,1.449,-5.065,7.076,2.105,2.619,-3.922,4.574,-1.773,-0.7131,-3.112,0,0,0,0,0,0,0,0,0,0,0,0,0,0,0,0,
125,-10.24,-17.15,-8.246,-5.175,-12.17,-11.21,-3.132,-9.123,0.2758,-9.934,3.832,-4.355,5.878,-2.001,1.204,-2.106,0,0,0,0,0,0,0,0,0,0,0,0,0,0,0,0,
126,-10.76,-16.77,-5.339,-3.456,-9.595,-9.47,-0.2339,-7.415,1.673,-8.375,9.956,0.7352,12.63,4.407,7.369,4.698,0,0,0,0,0,0,0,0,0,0,0,0,0,0,0,0,
127,-13.72,-17.77,-1.836,-1.585,-8.294,-9.488,7.964,-7.154,9.375,-5.747,16.85,3.896,18.17,8.329,15.07,10.5,0,0,0,0,0,0,0,0,0,0,0,0,0,0,0,0,
128,-14.09,-17.75,1.381,0.9702,-4.196,-8.085,19.57,-4.063,13.58,-3.284,26.39,4.932,23.53,9.497,20.62,12.31,0,0,0,0,0,0,0,0,0,0,0,0,0,0,0,0,
129,-14.74,-21.34,0.0724,-5.94,-3.47,-11.14,16.62,-7.053,12.73,-4.222,24.35,-2.204,19.05,1.996,11.77,3.526,0,0,0,0,0,0,0,0,0,0,0,0,0,0,0,0,
130,-19.58,-27.85,-2.951,-17.47,-6.148,-18.51,5.504,-15.52,9.121,-14.38,11.42,-8.955,6.296,-7.309,0.6836,-2.245,0,0,0,0,0,0,0,0,0,0,0,0,0,0,0,0,
131,-16.52,-23.67,2.303,-15.54,-2.436,-16.5,7.668,-14.46,4.999,-18.49,7.604,-4.086,2.06,-5.216,4.0,5.0,0,0,0,0,0,0,0,0,0,0,0,0,0,0,0,0,
132,-13.02,-17.49,3.826,-9.195,-1.61,-10.32,12.23,-8.273,3.939,-11.83,11.39,1.288,4.701,0.1169,10.38,10.29,0,0,0,0,0,0,0,0,0,0,0,0,0,0,0,0,
133,-17.05,-19.49,0.0277,-9.123,-3.142,-6.833,10.54,-4.656,3.322,-8.124,13.97,1.403,6.751,1.866,12.04,8.725,0,0,0,0,0,0,0,0,0,0,0,0,0,0,0,0,
134,-14.05,-19.32,5.447,-7.376,2.691,-2.112,11.71,-4.294,6.176,-5.4,13.51,-0.6752,7.185,1.21,9.758,4.537,0,0,0,0,0,0,0,0,0,0,0,0,0,0,0,0,
135,-14.44,-23.76,0.7458,-11.15,-2.796,-8.55,4.886,-15.45,9.838,-6.115,3.586,-9.678,-0.7821,-8.257,0.0484,-3.636,0,0,0,0,0,0,0,0,0,0,0,0,0,0,0,0,
136,-30.4,-38.39,-18.55,-24.32,-19.35,-26.55,-10.2,-29.0,-1.07,-19.16,-6.131,-18.31,-9.851,-18.84,-6.651,-8.446,0,0,0,0,0,0,0,0,0,0,0,0,0,0,0,0,
137,-33.9,-39.48,-16.76,-25.03,-18.12,-31.61,-8.582,-27.79,-11.86,-28.41,-1.615,-16.83,-5.513,-17.1,-3.83,-7.107,0,0,0,0,0,0,0,0,0,0,0,0,0,0,0,0,
138,-22.69,-29.14,-3.488,-15.72,-9.321,-26.71,3.075,-22.96,-4.137,-25.42,4.854,-14.18,1.545,-13.11,-2.955,-6.748,0,0,0,0,0,0,0,0,0,0,0,0,0,0,0,0,
139,-25.21,-33.01,-7.96,-20.66,-13.31,-29.93,4.46,-24.75,1.482,-25.33,5.575,-15.54,-0.1433,-15.89,-3.962,-6.369,0,0,0,0,0,0,0,0,0,0,0,0,0,0,0,0,
140,-34.44,-42.64,-15.73,-30.59,-18.78,-33.52,4.331,-26.66,-5.37,-28.66,7.237,-17.63,-2.97,-18.46,-2.525,-6.975,0,0,0,0,0,0,0,0,0,0,0,0,0,0,0,0,
141,-39.86,-45.48,-20.12,-27.16,-22.1,-29.91,3.821,-27.07,-10.79,-27.01,4.678,-18.74,-2.715,-16.45,-3.97,-9.704,0,0,0,0,0,0,0,0,0,0,0,0,0,0,0,0,
142,-44.53,-45.93,-22.06,-16.98,-23.05,-23.19,-2.91,-21.3,-7.678,-20.62,-1.287,-12.28,-0.7173,-9.1,-4.521,-5.525,0,0,0,0,0,0,0,0,0,0,0,0,0,0,0,0,
143,-36.97,-38.94,-14.38,-10.27,-16.35,-15.38,-4.332,-11.08,-0.257,-11.65,-0.7834,-1.011,1.007,-0.7395,-1.276,2.762,0,0,0,0,0,0,0,0,0,0,0,0,0,0,0,0,
144,-33.97,-35.04,-22.91,-14.4,-19.22,-16.42,-6.804,-13.44,-3.586,-8.703,-1.528,-0.0319,-3.807,-1.139,-3.105,2.869,0,0,0,0,0,0,0,0,0,0,0,0,0,0,0,0,
145,-54.59,-47.77,-46.99,-25.14,-34.25,-30.1,-20.63,-24.74,-18.83,-17.44,-11.06,-9.676,-14.8,-10.4,-10.4,-4.846,0,0,0,0,0,0,0,0,0,0,0,0,0,0,0,0,
146,-57.03,-51.2,-38.61,-24.98,-34.23,-39.16,-23.39,-27.27,-27.83,-27.94,-18.7,-17.53,-22.16,-19.64,-15.37,-13.07,0,0,0,0,0,0,0,0,0,0,0,0,0,0,0,0,
147,-29.06,-35.74,-10.69,-19.81,-19.84,-34.86,-8.207,-24.54,-24.05,-30.63,-16.31,-19.22,-19.99,-22.34,-15.09,-14.94,0,0,0,0,0,0,0,0,0,0,0,0,0,0,0,0,
148,-19.7,-30.51,-7.175,-25.42,-13.39,-27.55,-1.265,-25.41,-12.43,-26.91,-10.23,-19.93,-14.23,-19.73,-12.08,-11.76,0,0,0,0,0,0,0,0,0,0,0,0,0,0,0,0,
149,-31.15,-37.96,-13.95,-30.48,-16.73,-24.53,-8.059,-26.88,-5.882,-24.03,-9.742,-22.82,-13.03,-17.4,-10.28,-11.62,0,0,0,0,0,0,0,0,0,0,0,0,0,0,0,0,
150,-34.59,-40.82,-14.17,-24.93,-20.67,-23.28,-9.95,-25.08,-12.84,-24.34,-10.09,-21.42,-10.81,-13.13,-7.184,-10.17,0,0,0,0,0,0,0,0,0,0,0,0,0,0,0,0,
151,-35.79,-40.92,-17.7,-19.96,-20.46,-20.47,-4.337,-22.06,-16.7,-20.63,-3.381,-15.91,-3.221,-6.636,-2.167,-6.656,0,0,0,0,0,0,0,0,0,0,0,0,0,0,0,0,
152,-39.56,-41.98,-22.36,-22.71,-19.41,-20.23,-6.052,-23.22,-9.942,-14.58,-1.98,-18.31,-2.908,-9.174,-3.944,-12.4,0,0,0,0,0,0,0,0,0,0,0,0,0,0,0,0,
153,-41.59,-43.49,-25.71,-29.21,-24.18,-27.87,-15.63,-27.67,-10.25,-17.01,-12.21,-24.54,-12.01,-18.3,-10.64,-19.09,0,0,0,0,0,0,0,0,0,0,0,0,0,0,0,0,
154,-47.97,-48.6,-33.35,-37.29,-33.06,-39.32,-20.98,-31.6,-21.85,-25.7,-19.01,-24.18,-19.85,-23.14,-15.72,-17.96,0,0,0,0,0,0,0,0,0,0,0,0,0,0,0,0,
155,-56.15,-55.56,-41.2,-45.74,-41.18,-48.03,-25.43,-36.84,-32.0,-34.0,-22.38,-25.54,-29.24,-29.42,-23.83,-21.2,0,0,0,0,0,0,0,0,0,0,0,0,0,0,0,0,
156,-56.92,-57.54,-39.95,-46.93,-42.57,-49.74,-31.03,-37.29,-36.44,-40.29,-26.74,-26.57,-36.26,-33.59,-26.59,-22.02,0,0,0,0,0,0,0,0,0,0,0,0,0,0,0,0,
157,-49.62,-51.34,-30.09,-39.13,-32.67,-43.3,-25.03,-26.66,-34.78,-37.17,-19.55,-15.46,-26.31,-22.33,-13.55,-9.061,0,0,0,0,0,0,0,0,0,0,0,0,0,0,0,0,
158,-42.2,-44.26,-25.02,-34.34,-24.91,-38.38,-14.19,-20.36,-22.41,-26.3,-7.758,-8.287,-12.3,-10.72,-3.412,-1.913,0,0,0,0,0,0,0,0,0,0,0,0,0,0,0,0,
159,-43.47,-45.87,-28.98,-36.14,-28.92,-40.01,-14.58,-26.25,-10.44,-23.35,-6.685,-15.83,-11.45,-13.29,-4.654,-6.245,0,0,0,0,0,0,0,0,0,0,0,0,0,0,0,0,
160,-45.83,-47.93,-28.34,-33.36,-28.54,-35.38,-16.21,-27.65,-11.45,-25.82,-4.054,-18.32,-10.93,-14.37,-0.6206,-4.651,0,0,0,0,0,0,0,0,0,0,0,0,0,0,0,0,
161,-40.54,-40.54,-23.06,-25.12,-21.06,-23.94,-10.81,-22.21,-11.04,-20.8,3.888,-13.14,-5.622,-9.475,4.439,-1.305,0,0,0,0,0,0,0,0,0,0,0,0,0,0,0,0,
162,-39.24,-35.53,-25.02,-24.59,-21.36,-21.96,-9.897,-22.07,-6.838,-15.88,1.664,-13.66,-8.363,-9.566,-2.004,-4.486,0,0,0,0,0,0,0,0,0,0,0,0,0,0,0,0,
163,-42.52,-37.84,-26.0,-31.13,-22.32,-26.51,-15.49,-24.85,-12.45,-18.13,-9.572,-16.46,-16.39,-11.47,-12.01,-7.822,0,0,0,0,0,0,0,0,0,0,0,0,0,0,0,0,
164,-38.74,-36.55,-19.13,-30.52,-17.16,-25.44,-19.99,-26.53,-17.83,-19.8,-19.36,-17.46,-20.04,-11.9,-17.14,-10.06,0,0,0,0,0,0,0,0,0,0,0,0,0,0,0,0,
165,-37.16,-35.07,-18.97,-26.43,-17.55,-22.59,-22.04,-25.62,-16.92,-19.14,-21.19,-13.39,-18.33,-10.62,-14.45,-7.741,0,0,0,0,0,0,0,0,0,0,0,0,0,0,0,0,
166,-40.84,-36.92,-25.82,-28.16,-20.28,-20.91,-22.69,-17.32,-15.62,-15.85,-16.67,-3.263,-15.54,-5.207,-10.37,-2.159,0,0,0,0,0,0,0,0,0,0,0,0,0,0,0,0,
167,-37.65,-35.29,-26.67,-28.46,-20.18,-20.74,-24.86,-12.15,-15.51,-10.72,-19.92,-4.281,-19.65,-5.895,-17.71,-8.515,0,0,0,0,0,0,0,0,0,0,0,0,0,0,0,0,
168,-34.48,-34.87,-26.87,-27.68,-24.6,-25.31,-27.65,-18.06,-22.36,-12.48,-26.34,-16.16,-24.87,-13.61,-24.19,-18.73,0,0,0,0,0,0,0,0,0,0,0,0,0,0,0,0,
169,-33.65,-34.26,-27.67,-30.63,-23.94,-25.8,-24.68,-21.27,-23.28,-15.66,-19.4,-18.84,-19.78,-12.83,-16.8,-15.89,0,0,0,0,0,0,0,0,0,0,0,0,0,0,0,0,
170,-24.52,-24.88,-18.82,-27.12,-11.86,-16.78,-19.79,-18.08,-10.14,-11.01,-12.34,-16.02,-13.93,-7.695,-11.22,-11.84,0,0,0,0,0,0,0,0,0,0,0,0,0,0,0,0,
171,-18.03,-16.36,-12.06,-15.85,-5.891,-8.484,-18.57,-14.46,-5.266,-6.461,-15.95,-13.96,-13.78,-7.879,-11.81,-12.43,0,0,0,0,0,0,0,0,0,0,0,0,0,0,0,0,
172,-20.45,-13.62,-17.5,-8.224,-8.896,-4.272,-15.42,-10.44,-6.784,-4.345,-15.22,-9.115,-11.24,-7.696,-9.383,-8.983,0,0,0,0,0,0,0,0,0,0,0,0,0,0,0,0,
173,-17.33,-10.31,-15.47,-5.81,-6.316,0.1193,-5.542,-9.173,-1.576,-0.8285,-3.391,-4.034,-2.898,-2.254,-1.936,-0.4546,0,0,0,0,0,0,0,0,0,0,0,0,0,0,0,0,
174,-7.3,-5.423,0.733,-1.749,4.719,6.972,9.856,-5.19,6.43,4.911,13.98,5.985,12.27,10.04,12.52,13.37,0,0,0,0,0,0,0,0,0,0,0,0,0,0,0,0,
175,1.099,2.842,7.49,2.48,12.46,11.56,16.32,1.513,18.44,13.58,20.45,11.03,19.91,16.7,17.16,16.9,0,0,0,0,0,0,0,0,0,0,0,0,0,0,0,0,
176,-0.9145,2.39,-4.288,-4.622,5.176,1.952,0.5614,-6.009,20.53,12.04,4.586,-4.013,5.459,4.871,0.6775,-1.067,0,0,0,0,0,0,0,0,0,0,0,0,0,0,0,0,
177,-13.86,-12.94,-13.45,-15.55,-5.42,-12.05,-14.04,-15.66,9.143,-0.6729,-8.169,-13.69,-6.276,-4.938,-8.119,-12.73,0,0,0,0,0,0,0,0,0,0,0,0,0,0,0,0,
178,-14.74,-12.77,-5.46,-10.11,-0.6289,-8.639,-5.22,-7.766,9.036,-1.626,1.099,-5.303,2.514,1.647,2.551,-4.355,0,0,0,0,0,0,0,0,0,0,0,0,0,0,0,0,
179,-0.0372,5.124,7.782,0.6098,10.98,3.984,9.368,0.3292,14.58,7.081,15.8,1.188,15.81,12.15,15.3,8.451,0,0,0,0,0,0,0,0,0,0,0,0,0,0,0,0,
180,0.2323,4.691,10.08,-2.835,14.26,8.68,14.01,-2.274,16.51,11.94,22.9,4.066,24.3,17.84,20.53,15.11,0,0,0,0,0,0,0,0,0,0,0,0,0,0,0,0,
181,-15.09,-9.444,-3.223,-11.8,4.523,2.497,6.409,-9.137,19.43,10.98,14.11,-2.564,16.93,5.973,7.54,2.516,0,0,0,0,0,0,0,0,0,0,0,0,0,0,0,0,
182,-19.23,-9.768,-18.78,-9.977,-10.96,-7.868,-9.445,-14.99,5.79,-3.761,-4.229,-16.26,-3.772,-14.18,-9.486,-15.19,0,0,0,0,0,0,0,0,0,0,0,0,0,0,0,0,
183,-7.926,1.884,-13.53,3.925,-8.745,-5.037,-13.78,-7.911,-10.99,-13.72,-5.982,-9.497,-7.39,-9.879,-5.313,-9.581,0,0,0,0,0,0,0,0,0,0,0,0,0,0,0,0,
184,0.896,8.988,0.331,8.558,4.496,3.941,-9.121,0.9003,-3.017,0.0409,-1.849,0.4505,-4.082,-0.1535,-4.593,-5.041,0,0,0,0,0,0,0,0,0,0,0,0,0,0,0,0,
185,-4.547,1.885,-6.991,-6.249,-2.236,-4.165,-13.95,-6.431,-0.508,4.535,-11.37,-8.352,-16.4,-9.383,-17.09,-14.99,0,0,0,0,0,0,0,0,0,0,0,0,0,0,0,0,
186,-13.55,-9.31,-18.18,-13.04,-13.45,-11.71,-14.89,-9.551,-16.83,-5.401,-10.61,-6.939,-16.23,-8.237,-11.26,-9.366,0,0,0,0,0,0,0,0,0,0,0,0,0,0,0,0,
187,-14.8,-11.36,-15.18,-6.342,-9.49,-4.124,-7.117,-3.47,-16.45,0.5988,1.138,1.343,-1.336,1.198,-1.088,0.2459,0,0,0,0,0,0,0,0,0,0,0,0,0,0,0,0,
188,-17.01,-12.19,-19.47,-9.409,-10.89,-3.233,-10.15,-7.962,-2.085,3.462,-3.83,-6.336,-3.653,-6.888,-8.387,-5.63,0,0,0,0,0,0,0,0,0,0,0,0,0,0,0,0,
189,-18.89,-12.16,-24.4,-10.26,-12.41,-3.587,-14.81,-8.864,1.049,-8.277,-11.16,-7.805,-9.002,-10.9,-8.605,-4.636,0,0,0,0,0,0,0,0,0,0,0,0,0,0,0,0,
190,-10.02,-1.849,-10.18,4.885,3.321,10.09,-6.308,4.04,1.887,-3.799,-2.069,2.513,1.09,-0.0305,2.215,4.749,0,0,0,0,0,0,0,0,0,0,0,0,0,0,0,0,
191,-5.754,2.802,-1.877,9.931,10.98,15.2,-1.363,7.036,6.074,8.584,4.534,3.12,6.424,3.736,4.718,5.379,0,0,0,0,0,0,0,0,0,0,0,0,0,0,0,0,
192,-16.95,-9.097,-13.41,-2.31,-1.173,5.161,-9.344,-1.089,2.346,6.138,-0.7547,-0.8038,1.017,1.764,2.744,2.701,0,0,0,0,0,0,0,0,0,0,0,0,0,0,0,0,
193,-22.78,-15.31,-21.01,-4.498,-6.928,4.62,-16.03,-0.1818,-3.402,6.141,-4.931,-0.4205,-1.214,4.084,1.748,2.551,0,0,0,0,0,0,0,0,0,0,0,0,0,0,0,0,
194,-16.14,-7.641,-17.84,2.978,-1.666,11.65,-16.83,4.372,-3.937,13.56,-4.846,-1.165,-0.7398,4.197,-1.254,2.182,0,0,0,0,0,0,0,0,0,0,0,0,0,0,0,0,
195,-14.28,-4.428,-15.26,-1.883,-1.075,8.501,-18.95,-0.9984,-3.183,10.54,-4.957,-2.048,-1.638,0.5869,-1.794,2.267,0,0,0,0,0,0,0,0,0,0,0,0,0,0,0,0,
196,-18.46,-8.438,-17.87,-10.73,-5.106,1.093,-20.02,-7.536,-0.7102,2.272,-4.882,-1.007,-0.693,-0.8736,0.2485,2.313,0,0,0,0,0,0,0,0,0,0,0,0,0,0,0,0,
197,-19.97,-11.08,-22.09,-11.75,-8.132,-3.099,-16.73,-6.817,-2.535,-0.4995,-6.107,-0.7955,0.2286,-0.0928,-1.115,0.8537,0,0,0,0,0,0,0,0,0,0,0,0,0,0,0,0,
198,-21.22,-13.53,-17.6,-13.74,-7.63,-6.918,-12.39,-4.124,-8.218,-2.062,-6.479,-0.081,0.4924,1.842,-1.703,0.0105,0,0,0,0,0,0,0,0,0,0,0,0,0,0,0,0,
199,-21.98,-13.42,-9.094,-12.44,-2.801,-5.369,-6.795,0.3404,-2.575,0.5304,-1.294,1.409,3.093,4.22,0.4161,-0.995,0,0,0,0,0,0,0,0,0,0,0,0,0,0,0,0,
200,-20.68,-9.413,-13.7,-5.412,-2.305,0.4975,-5.906,5.566,4.415,7.177,-2.497,-0.9088,-1.466,1.739,-4.282,-5.986,0,0,0,0,0,0,0,0,0,0,0,0,0,0,0,0,
201,-19.91,-7.179,-19.68,-3.019,-6.437,2.52,-14.23,6.793,-0.593,6.267,-13.35,-1.228,-14.38,-2.344,-8.655,-5.973,0,0,0,0,0,0,0,0,0,0,0,0,0,0,0,0,
202,-15.71,-3.09,-11.44,0.2038,-3.962,4.54,-15.56,8.263,-0.5873,4.257,-11.53,6.925,-16.97,0.6012,-0.5824,5.014,0,0,0,0,0,0,0,0,0,0,0,0,0,0,0,0,
203,-13.42,-0.1903,-11.12,0.5142,-5.4,2.007,-8.322,6.119,2.367,7.027,-1.882,7.619,-13.48,0.0829,2.668,6.929,0,0,0,0,0,0,0,0,0,0,0,0,0,0,0,0,
204,-23.16,-10.02,-23.93,-11.8,-18.72,-11.9,-9.547,-4.262,-10.96,-1.363,-4.194,-2.566,-15.42,-7.364,-2.322,-1.346,0,0,0,0,0,0,0,0,0,0,0,0,0,0,0,0,
205,-27.96,-17.72,-19.53,-15.99,-18.94,-16.44,-7.237,-5.791,-20.66,-12.77,2.0,0.2056,-3.474,-1.055,8.418,6.59,0,0,0,0,0,0,0,0,0,0,0,0,0,0,0,0,
206,-18.98,-10.18,-6.229,-6.83,-4.939,-5.3,6.253,2.037,-5.496,-6.94,19.78,9.335,16.98,10.93,20.0,17.86,0,0,0,0,0,0,0,0,0,0,0,0,0,0,0,0,
207,-18.72,-6.809,-12.71,-4.842,-4.614,-1.924,4.014,0.8917,7.174,-1.38,14.31,3.623,13.32,5.232,8.7,9.238,0,0,0,0,0,0,0,0,0,0,0,0,0,0,0,0,
208,-25.88,-11.42,-21.1,-4.514,-10.71,-4.987,-12.43,-0.1975,-0.5868,-4.929,-3.308,0.8708,-0.4222,0.0529,-0.7241,2.741,0,0,0,0,0,0,0,0,0,0,0,0,0,0,0,0,
209,-25.21,-11.36,-19.98,-1.967,-11.38,-4.92,-19.32,4.384,-8.246,0.2074,-7.112,6.774,-4.262,4.931,-0.6894,3.183,0,0,0,0,0,0,0,0,0,0,0,0,0,0,0,0,
210,-29.59,-16.48,-29.1,-11.34,-21.26,-12.24,-22.51,-0.8745,-14.77,2.985,-12.49,0.5961,-14.38,-1.877,-11.62,-8.27,0,0,0,0,0,0,0,0,0,0,0,0,0,0,0,0,
211,-36.12,-23.9,-32.43,-17.61,-26.85,-15.43,-20.08,-4.28,-24.32,-4.378,-13.04,-2.795,-20.32,-7.326,-15.7,-10.9,0,0,0,0,0,0,0,0,0,0,0,0,0,0,0,0,
212,-26.78,-15.3,-14.52,-4.932,-12.18,-2.399,-3.032,5.072,-18.31,0.4474,2.989,8.235,-8.148,3.606,-3.421,3.185,0,0,0,0,0,0,0,0,0,0,0,0,0,0,0,0,
213,-19.37,-8.791,-8.672,0.7239,-7.301,-1.365,1.218,2.816,-9.995,5.03,2.411,6.006,-6.518,2.387,-3.884,1.711,0,0,0,0,0,0,0,0,0,0,0,0,0,0,0,0,
214,-25.89,-20.09,-19.84,-11.43,-20.11,-17.7,-14.7,-9.75,-18.95,-12.11,-12.33,-5.181,-13.78,-9.858,-9.602,-6.925,0,0,0,0,0,0,0,0,0,0,0,0,0,0,0,0,
215,-25.48,-24.13,-17.04,-12.79,-18.61,-17.63,-16.01,-3.98,-19.79,-20.43,-1.883,2.386,2.069,-1.216,4.946,4.8,0,0,0,0,0,0,0,0,0,0,0,0,0,0,0,0,
216,-13.6,-10.95,-1.751,2.524,-0.4302,0.4804,0.8206,12.0,-0.1063,-2.8,19.51,14.46,25.3,15.64,20.42,17.7,0,0,0,0,0,0,0,0,0,0,0,0,0,0,0,0,
217,-1.022,1.989,10.04,12.44,13.57,12.94,11.74,16.85,21.74,12.9,22.3,13.2,26.97,16.44,17.47,13.79,0,0,0,0,0,0,0,0,0,0,0,0,0,0,0,0,
218,5.075,5.49,11.51,10.89,14.42,14.7,10.8,16.29,31.44,16.73,12.92,10.5,14.71,10.96,8.533,6.551,0,0,0,0,0,0,0,0,0,0,0,0,0,0,0,0,
219,-2.859,-0.3602,-0.4394,5.764,3.284,9.971,2.935,15.48,23.82,18.03,1.804,10.83,3.509,7.547,3.033,3.362,0,0,0,0,0,0,0,0,0,0,0,0,0,0,0,0,
220,-14.8,-7.214,-11.57,3.388,-7.607,3.822,-1.879,11.26,10.98,14.73,-3.501,9.106,-2.61,2.96,-0.8752,1.451,0,0,0,0,0,0,0,0,0,0,0,0,0,0,0,0,
221,-16.18,-8.348,-10.74,3.687,-10.88,-1.267,2.326,8.557,1.539,5.892,-1.314,9.76,-5.182,1.231,-2.918,1.973,0,0,0,0,0,0,0,0,0,0,0,0,0,0,0,0,
222,-12.74,-10.53,-4.226,0.7969,-10.79,-8.702,7.276,7.723,-7.846,-1.603,0.0424,14.84,-4.385,5.528,0.3151,7.1,0,0,0,0,0,0,0,0,0,0,0,0,0,0,0,0,
223,-8.401,-13.19,5.193,-3.341,-5.475,-13.22,10.37,4.164,-7.673,-2.641,2.805,18.29,1.442,11.01,6.479,13.05,0,0,0,0,0,0,0,0,0,0,0,0,0,0,0,0,
224,-2.964,-10.8,11.87,-4.511,1.74,-10.25,13.23,2.491,0.0139,0.8444,5.579,16.46,3.877,11.76,5.862,10.88,0,0,0,0,0,0,0,0,0,0,0,0,0,0,0,0,
225,-3.602,-10.34,8.811,-6.635,0.6309,-8.755,8.777,3.405,1.111,2.499,-1.115,10.65,-1.648,6.5,-0.5186,1.947,0,0,0,0,0,0,0,0,0,0,0,0,0,0,0,0,
226,-8.644,-14.48,3.067,-8.67,-3.41,-9.447,0.818,1.792,1.981,1.837,-4.458,6.069,-1.254,2.345,0.6176,-0.2636,0,0,0,0,0,0,0,0,0,0,0,0,0,0,0,0,
227,-10.57,-16.16,0.6029,-5.77,-1.969,-4.577,2.006,3.461,8.702,3.72,6.575,7.904,8.614,6.572,9.57,6.982,0,0,0,0,0,0,0,0,0,0,0,0,0,0,0,0,
228,-10.46,-14.33,-2.758,-1.338,-0.7699,0.3108,5.322,9.403,13.27,7.922,13.92,10.84,11.25,11.16,12.07,10.23,0,0,0,0,0,0,0,0,0,0,0,0,0,0,0,0,
229,-10.09,-11.65,-5.941,2.37,-2.035,0.6501,1.599,9.139,9.339,9.4,11.86,8.61,5.16,7.293,8.663,6.166,0,0,0,0,0,0,0,0,0,0,0,0,0,0,0,0,
230,-3.509,-4.229,2.064,9.306,4.52,6.292,4.52,5.513,4.167,8.407,15.86,7.286,5.907,3.304,12.16,6.163,0,0,0,0,0,0,0,0,0,0,0,0,0,0,0,0,
231,10.15,8.497,16.79,14.2,17.01,15.45,15.52,3.415,8.798,7.263,19.99,5.518,8.98,0.4675,14.1,5.884,0,0,0,0,0,0,0,0,0,0,0,0,0,0,0,0,
232,17.42,15.92,20.16,10.38,21.03,15.91,18.68,-1.177,13.76,1.914,15.43,-1.853,5.105,-6.052,6.349,-1.925,0,0,0,0,0,0,0,0,0,0,0,0,0,0,0,0,
233,16.3,16.43,21.76,9.094,21.78,14.09,21.81,-1.539,15.8,-3.248,16.82,-2.647,7.418,-3.852,5.883,-3.045,0,0,0,0,0,0,0,0,0,0,0,0,0,0,0,0,
234,17.15,15.14,29.17,11.08,24.4,13.41,27.39,2.931,23.62,0.1449,18.88,3.928,11.92,5.014,9.712,2.265,0,0,0,0,0,0,0,0,0,0,0,0,0,0,0,0,
235,11.92,5.431,19.89,1.185,14.4,2.076,16.97,2.071,18.94,1.255,5.322,5.278,1.118,3.704,1.047,0.1217,0,0,0,0,0,0,0,0,0,0,0,0,0,0,0,0,
236,-3.685,-8.953,1.427,-8.937,-2.129,-12.0,1.424,2.267,-1.976,-4.923,-6.463,6.16,-10.3,0.2677,-8.049,-3.298,0,0,0,0,0,0,0,0,0,0,0,0,0,0,0,0,
237,-15.27,-16.15,-5.742,-6.112,-10.82,-17.33,-4.775,5.096,-13.97,-7.142,-8.399,6.663,-13.06,-0.5648,-11.12,-6.506,0,0,0,0,0,0,0,0,0,0,0,0,0,0,0,0,
238,-19.86,-19.24,-13.02,-3.692,-17.36,-20.04,-12.18,1.783,-20.3,-8.023,-15.05,1.328,-18.39,-6.295,-14.68,-12.31,0,0,0,0,0,0,0,0,0,0,0,0,0,0,0,0,
239,-18.25,-15.34,-15.2,-2.122,-15.85,-14.75,-15.91,2.315,-25.19,-9.025,-18.42,1.997,-16.6,-4.62,-11.12,-9.01,0,0,0,0,0,0,0,0,0,0,0,0,0,0,0,0,
240,-9.353,-2.791,-4.891,3.994,-3.808,0.2624,-10.38,10.28,-15.12,-1.753,-11.63,8.611,-4.679,6.669,-4.212,-0.5843,0,0,0,0,0,0,0,0,0,0,0,0,0,0,0,0,
241,-3.067,1.897,-1.939,6.466,0.4959,5.961,-3.873,10.78,-3.993,5.551,-6.42,8.56,-0.7315,9.558,-4.37,0.9362,0,0,0,0,0,0,0,0,0,0,0,0,0,0,0,0,
242,-1.719,-2.613,-1.754,4.479,-2.171,-0.2235,3.75,3.493,-7.796,2.923,-6.277,4.512,-6.518,2.302,-7.237,-1.097,0,0,0,0,0,0,0,0,0,0,0,0,0,0,0,0,
243,-2.953,-7.08,3.526,-1.984,-5.585,-7.929,2.399,-2.723,-15.45,-5.597,-12.68,-1.05,-16.68,-7.932,-12.97,-7.127,0,0,0,0,0,0,0,0,0,0,0,0,0,0,0,0,
244,-9.86,-13.08,-2.553,-9.206,-13.94,-14.48,-10.71,-4.928,-21.09,-14.57,-20.93,-6.963,-25.49,-14.68,-17.93,-14.02,0,0,0,0,0,0,0,0,0,0,0,0,0,0,0,0,
245,-9.852,-10.73,-7.165,-1.082,-11.86,-9.596,-8.683,1.491,-21.92,-14.6,-13.7,-2.414,-17.69,-7.35,-9.489,-7.743,0,0,0,0,0,0,0,0,0,0,0,0,0,0,0,0,
246,6.453,6.733,7.854,18.43,6.223,8.561,8.37,13.8,-6.25,0.0309,4.287,8.568,0.9512,7.39,3.371,4.556,0,0,0,0,0,0,0,0,0,0,0,0,0,0,0,0,
247,16.23,15.47,15.75,25.56,11.64,15.21,10.72,15.83,11.98,13.6,7.45,6.503,4.09,8.079,1.29,0.9987,0,0,0,0,0,0,0,0,0,0,0,0,0,0,0,0,
248,4.169,2.916,1.588,15.57,-2.313,2.139,-0.0543,5.122,6.586,9.239,-4.06,-4.381,-6.346,-3.019,-8.109,-10.35,0,0,0,0,0,0,0,0,0,0,0,0,0,0,0,0,
249,-5.769,-5.749,-4.349,6.978,-7.596,-5.499,-1.208,1.517,-4.997,-1.442,-5.856,-1.947,-5.834,-4.25,-5.433,-5.888,0,0,0,0,0,0,0,0,0,0,0,0,0,0,0,0,
250,2.479,1.779,8.705,8.883,0.8948,-0.3224,5.806,7.205,-0.4871,-1.783,0.6143,6.774,1.456,1.141,0.4597,2.443,0,0,0,0,0,0,0,0,0,0,0,0,0,0,0,0,
251,9.085,7.102,14.22,10.36,3.341,0.8371,4.566,5.253,0.926,-1.286,-4.997,2.112,-3.164,-3.286,-6.186,-4.425,0,0,0,0,0,0,0,0,0,0,0,0,0,0,0,0,
252,5.702,6.504,6.71,9.008,-0.5833,-0.6532,-3.426,0.3934,-7.627,-6.045,-14.5,-5.352,-11.14,-9.062,-13.61,-11.06,0,0,0,0,0,0,0,0,0,0,0,0,0,0,0,0,
253,3.33,6.914,0.8957,8.391,-2.158,1.877,-7.605,0.8854,-12.17,-6.307,-15.76,-4.729,-14.07,-8.101,-14.21,-9.478,0,0,0,0,0,0,0,0,0,0,0,0,0,0,0,0,
254,2.683,5.577,2.057,6.168,0.8999,5.232,-2.829,2.119,-12.89,-4.309,-11.58,-1.049,-12.83,-3.76,-9.18,-4.773,0,0,0,0,0,0,0,0,0,0,0,0,0,0,0,0,
255,14.03,15.1,21.76,14.76,21.3,20.33,20.32,12.53,-0.098,3.57,13.54,12.07,9.97,14.41,17.37,16.02,0,0,0,0,0,0,0,0,0,0,0,0,0,0,0,0,
256,45.07,42.41,58.28,39.1,57.46,50.45,58.12,31.67,34.56,28.25,61.39,34.16,52.89,44.82,62.31,50.01,0,0,0,0,0,0,0,0,0,0,0,0,0,0,0,0,
257,72.6,65.85,86.47,60.33,85.34,75.82,90.99,43.98,70.43,55.3,101.5,51.83,86.46,67.72,98.49,76.28,0,0,0,0,0,0,0,0,0,0,0,0,0,0,0,0,
258,84.84,76.88,100.3,71.49,98.28,88.16,110.6,51.9,93.55,72.01,119.4,61.93,101.6,78.71,112.7,87.71,0,0,0,0,0,0,0,0,0,0,0,0,0,0,0,0,
259,83.56,75.63,94.39,69.32,92.49,84.62,103.2,51.99,100.1,78.43,105.3,56.65,91.94,71.62,93.78,74.31,0,0,0,0,0,0,0,0,0,0,0,0,0,0,0,0,
260,59.17,54.34,58.43,49.77,60.32,60.9,60.96,34.87,77.15,62.63,56.19,33.12,51.21,41.57,47.11,38.26,0,0,0,0,0,0,0,0,0,0,0,0,0,0,0,0,
261,27.79,29.64,22.41,30.84,27.18,34.63,19.41,20.7,35.46,32.3,13.16,14.47,12.73,15.74,11.73,10.86,0,0,0,0,0,0,0,0,0,0,0,0,0,0,0,0,
262,13.5,18.83,9.956,19.24,14.67,19.51,3.951,17.73,9.534,15.62,-0.1757,8.911,2.212,10.15,0.6649,1.671,0,0,0,0,0,0,0,0,0,0,0,0,0,0,0,0,
263,2.704,8.114,0.923,2.675,5.051,5.894,-3.989,6.0,2.718,9.868,-6.232,0.4855,-0.1172,4.765,-7.054,-5.786,0,0,0,0,0,0,0,0,0,0,0,0,0,0,0,0,
264,-11.54,-6.533,-7.798,-9.5,-7.558,-5.596,-8.506,-8.668,-4.448,-0.1007,-7.46,-8.034,-3.373,-3.792,-10.45,-9.424,0,0,0,0,0,0,0,0,0,0,0,0,0,0,0,0,
265,-11.15,-9.275,-2.812,-5.147,-6.912,-5.038,-0.0667,-8.253,-7.305,-5.962,1.656,-4.664,2.912,-0.5075,-2.082,-2.543,0,0,0,0,0,0,0,0,0,0,0,0,0,0,0,0,
266,0.0391,-1.259,5.027,2.918,2.251,1.488,6.132,-1.128,1.542,-2.296,3.933,2.406,10.65,6.739,3.652,2.831,0,0,0,0,0,0,0,0,0,0,0,0,0,0,0,0,
267,4.151,3.762,5.777,4.407,5.374,5.401,0.2342,3.447,8.743,0.2743,-1.599,2.63,9.945,5.594,-0.2597,-0.6584,0,0,0,0,0,0,0,0,0,0,0,0,0,0,0,0,
268,2.44,4.362,4.527,4.818,4.164,7.906,-5.143,6.74,8.934,-0.5815,-4.482,-0.5073,6.434,2.968,-4.898,-5.039,0,0,0,0,0,0,0,0,0,0,0,0,0,0,0,0,
269,0.9585,4.148,1.305,6.191,2.256,8.391,-5.562,5.575,6.242,1.181,-7.671,-1.138,4.829,3.754,-5.481,-4.888,0,0,0,0,0,0,0,0,0,0,0,0,0,0,0,0,
270,-0.139,2.354,-0.8592,6.167,1.708,7.303,-4.196,3.1,2.623,4.548,-6.946,1.106,7.164,4.376,-2.628,-2.913,0,0,0,0,0,0,0,0,0,0,0,0,0,0,0,0,
271,2.302,1.59,5.245,5.82,6.456,8.218,-0.737,4.103,2.619,5.444,-1.22,1.288,9.883,2.496,-2.018,-4.793,0,0,0,0,0,0,0,0,0,0,0,0,0,0,0,0,
272,3.712,2.153,8.273,6.363,7.638,6.99,-1.41,3.376,3.15,2.449,-3.258,-1.018,4.806,-1.12,-6.535,-8.968,0,0,0,0,0,0,0,0,0,0,0,0,0,0,0,0,
273,-2.138,1.768,-0.1047,12.01,1.526,5.012,-5.55,6.928,1.985,1.021,-5.534,4.182,1.345,1.506,-5.615,-4.895,0,0,0,0,0,0,0,0,0,0,0,0,0,0,0,0,
274,-4.934,4.64,-3.976,19.48,1.539,10.14,-3.28,19.62,5.498,9.465,1.456,12.68,7.357,8.706,-0.1501,1.859,0,0,0,0,0,0,0,0,0,0,0,0,0,0,0,0,
275,-2.945,6.337,-1.817,13.82,2.683,11.49,-2.384,21.75,5.805,17.02,0.6415,7.773,6.938,4.748,-3.772,-2.665,0,0,0,0,0,0,0,0,0,0,0,0,0,0,0,0,
276,-6.694,-0.332,-5.634,1.344,-5.167,1.701,-8.668,9.648,-4.933,9.683,-7.558,-1.941,-0.7336,-4.67,-8.311,-7.411,0,0,0,0,0,0,0,0,0,0,0,0,0,0,0,0,
277,-9.946,-6.04,-7.713,-1.616,-8.373,-4.164,-9.159,2.372,-12.57,0.0545,-6.403,-2.123,-2.043,-4.248,-4.612,-3.587,0,0,0,0,0,0,0,0,0,0,0,0,0,0,0,0,
278,-8.42,-7.158,-3.879,-2.469,-4.635,-3.292,-6.042,-0.7237,-10.14,-2.132,-4.051,-1.597,-2.713,-1.458,-2.639,-2.65,0,0,0,0,0,0,0,0,0,0,0,0,0,0,0,0,
279,-6.759,-6.296,0.7759,-3.54,-2.929,-1.63,-6.743,-2.121,-7.563,-2.843,-4.458,-1.511,-3.181,-0.5094,-1.017,-2.92,0,0,0,0,0,0,0,0,0,0,0,0,0,0,0,0,
280,0.093,1.822,6.579,1.16,1.26,3.927,-3.264,5.194,-4.536,1.054,1.415,3.469,3.387,2.531,3.7,-0.611,0,0,0,0,0,0,0,0,0,0,0,0,0,0,0,0,
281,4.488,7.22,3.91,-0.1979,3.02,5.244,0.5185,8.138,3.357,6.349,5.466,3.357,7.251,1.264,3.77,-2.688,0,0,0,0,0,0,0,0,0,0,0,0,0,0,0,0,
282,-1.713,2.224,-3.28,-7.085,-1.237,-1.185,0.0188,0.1868,8.043,3.433,5.685,-0.9944,8.193,-0.9034,4.041,-2.558,0,0,0,0,0,0,0,0,0,0,0,0,0,0,0,0,
283,0.4261,4.781,6.297,-2.36,2.653,-0.1359,6.119,-0.7281,9.912,1.072,10.02,-0.0035,12.95,1.932,6.213,1.698,0,0,0,0,0,0,0,0,0,0,0,0,0,0,0,0,
284,10.2,13.45,17.25,7.001,9.412,5.087,12.02,4.24,14.88,2.005,8.081,-0.7364,9.759,-0.8652,-0.8934,-3.018,0,0,0,0,0,0,0,0,0,0,0,0,0,0,0,0,
285,5.894,9.366,8.392,3.404,4.537,0.9031,6.666,1.872,9.768,-3.164,-3.785,-4.239,-2.369,-7.111,-9.988,-10.24,0,0,0,0,0,0,0,0,0,0,0,0,0,0,0,0,
286,-0.6042,2.252,2.414,-7.388,-0.3479,-3.052,3.386,1.028,-6.414,-5.672,-9.752,-0.2594,-7.463,-3.485,-8.273,-6.745,0,0,0,0,0,0,0,0,0,0,0,0,0,0,0,0,
287,5.371,3.339,9.818,-11.61,3.117,0.3488,5.556,6.026,-11.72,2.144,-6.774,5.196,-4.888,3.188,-2.335,-0.8587,0,0,0,0,0,0,0,0,0,0,0,0,0,0,0,0,
288,8.223,2.941,9.096,-9.929,4.05,1.042,1.246,5.256,-6.222,7.638,-3.253,2.862,-1.82,3.814,0.814,0.1603,0,0,0,0,0,0,0,0,0,0,0,0,0,0,0,0,
289,3.191,0.8685,1.317,-8.127,-0.2183,-2.523,-5.215,-0.167,-5.401,4.602,-2.086,-2.002,0.0431,1.845,0.8714,-0.1968,0,0,0,0,0,0,0,0,0,0,0,0,0,0,0,0,
290,0.8082,1.243,1.267,-8.804,-3.571,-4.921,-8.565,-3.635,-9.913,-1.39,-3.96,-4.926,-1.103,-2.123,-1.867,-1.854,0,0,0,0,0,0,0,0,0,0,0,0,0,0,0,0,
291,0.8631,-0.1824,1.791,-11.35,-4.39,-5.612,-12.63,-5.907,-12.21,-5.668,-5.672,-6.025,-1.999,-5.855,-1.655,-2.762,0,0,0,0,0,0,0,0,0,0,0,0,0,0,0,0,
292,0.0682,-1.003,-5.518,-10.09,-5.449,-4.613,-11.68,-5.259,-9.581,-5.154,-3.198,-5.885,0.321,-5.498,1.767,-1.778,0,0,0,0,0,0,0,0,0,0,0,0,0,0,0,0,
293,-2.846,-0.8744,-12.56,-7.072,-9.486,-4.072,-3.833,-3.207,-8.349,-4.21,0.8297,-6.349,2.512,-4.944,1.436,-3.229,0,0,0,0,0,0,0,0,0,0,0,0,0,0,0,0,
294,-4.939,-2.358,-9.68,-7.469,-9.434,-3.182,2.602,-1.501,-6.243,-5.999,6.772,-3.067,7.349,-2.706,2.043,-2.221,0,0,0,0,0,0,0,0,0,0,0,0,0,0,0,0,
295,-0.5077,1.007,-0.0856,-5.725,-1.507,0.4997,5.965,2.749,3.932,-2.991,12.58,3.154,12.3,2.291,5.576,2.195,0,0,0,0,0,0,0,0,0,0,0,0,0,0,0,0,
296,-1.319,1.888,-1.187,-6.395,-3.773,-4.18,1.043,0.9127,4.915,-0.202,3.986,-0.2358,3.257,-1.552,0.0347,-3.005,0,0,0,0,0,0,0,0,0,0,0,0,0,0,0,0,
297,-16.9,-11.22,-17.96,-15.02,-21.74,-19.91,-13.09,-9.184,-14.4,-9.099,-14.43,-8.246,-12.44,-11.43,-9.736,-12.24,0,0,0,0,0,0,0,0,0,0,0,0,0,0,0,0,
298,-28.28,-22.0,-28.84,-18.54,-32.41,-26.92,-16.86,-10.79,-31.21,-16.59,-17.21,-5.701,-14.86,-10.83,-8.767,-9.298,0,0,0,0,0,0,0,0,0,0,0,0,0,0,0,0,
299,-26.82,-21.24,-26.02,-18.43,-30.48,-22.31,-9.753,-4.986,-28.98,-10.56,-6.633,1.085,-9.34,-2.219,-2.87,-0.6204,0,0,0,0,0,0,0,0,0,0,0,0,0,0,0,0,
300,-26.88,-22.5,-26.94,-23.08,-30.58,-20.58,-14.07,-3.966,-18.7,-3.056,-4.401,4.124,-8.052,2.971,-0.5686,3.821,0,0,0,0,0,0,0,0,0,0,0,0,0,0,0,0,
301,-30.14,-25.52,-34.15,-23.1,-33.24,-21.63,-26.47,-3.339,-17.77,-2.548,-11.05,5.864,-10.52,1.609,-1.534,3.523,0,0,0,0,0,0,0,0,0,0,0,0,0,0,0,0,
302,-29.25,-23.93,-33.98,-20.29,-31.61,-20.84,-29.5,-1.761,-24.77,-6.184,-14.99,3.348,-13.79,-3.916,-4.682,-0.4293,0,0,0,0,0,0,0,0,0,0,0,0,0,0,0,0,
303,-20.61,-18.9,-22.06,-20.4,-21.64,-17.08,-17.71,-2.752,-22.6,-8.99,-7.306,-2.0,-9.725,-6.226,-1.455,-0.5351,0,0,0,0,0,0,0,0,0,0,0,0,0,0,0,0,
304,-6.026,-9.62,-7.129,-17.86,-7.363,-10.32,4.887,-4.236,-8.839,-7.407,9.305,-5.355,2.031,-6.537,7.02,1.697,0,0,0,0,0,0,0,0,0,0,0,0,0,0,0,0,
305,-0.7975,-4.22,-2.83,-16.37,-3.021,-7.769,17.67,-7.738,3.228,-8.651,16.53,-8.423,7.162,-10.97,7.425,-2.723,0,0,0,0,0,0,0,0,0,0,0,0,0,0,0,0,
306,-6.307,-6.635,-6.666,-11.91,-5.034,-6.742,11.03,-7.638,6.398,-12.76,12.08,-6.024,6.732,-9.821,6.942,-3.064,0,0,0,0,0,0,0,0,0,0,0,0,0,0,0,0,
307,-1.845,-2.523,-1.509,2.444,2.332,2.431,6.276,1.939,6.954,-5.339,10.82,2.889,10.5,0.0041,13.44,6.387,0,0,0,0,0,0,0,0,0,0,0,0,0,0,0,0,
308,8.419,5.324,8.557,5.931,10.13,8.459,8.952,5.473,12.17,6.194,10.28,4.019,11.22,3.239,12.94,8.381,0,0,0,0,0,0,0,0,0,0,0,0,0,0,0,0,
309,5.755,1.038,7.185,-8.341,6.078,1.205,6.612,-3.104,14.23,4.298,4.575,-2.1,4.287,-0.7179,4.633,1.963,0,0,0,0,0,0,0,0,0,0,0,0,0,0,0,0,
310,-1.208,-7.478,0.3832,-16.26,-0.9362,-7.744,3.057,-6.155,9.617,-1.509,-0.78,-1.139,-3.642,-1.385,-0.2651,1.458,0,0,0,0,0,0,0,0,0,0,0,0,0,0,0,0,
311,-4.705,-11.91,-3.307,-15.86,-6.674,-13.22,-0.3723,-1.641,5.247,-2.333,-5.728,3.668,-9.676,-0.6378,-2.756,4.804,0,0,0,0,0,0,0,0,0,0,0,0,0,0,0,0,
312,-11.7,-17.59,-7.933,-18.79,-11.99,-16.28,-5.434,-0.9391,-1.421,-4.941,-6.877,4.098,-9.176,0.8505,-0.8433,7.295,0,0,0,0,0,0,0,0,0,0,0,0,0,0,0,0,
313,-13.52,-16.11,-7.619,-15.67,-7.979,-9.001,-3.384,-0.8966,-3.707,-3.375,-0.4108,3.649,-1.295,5.977,4.315,9.341,0,0,0,0,0,0,0,0,0,0,0,0,0,0,0,0,
314,-6.631,-4.795,-1.751,-7.579,0.8439,2.17,-2.085,1.02,4.188,5.706,-0.5578,2.12,-0.6045,6.298,-1.36,3.792,0,0,0,0,0,0,0,0,0,0,0,0,0,0,0,0,
315,-7.362,-2.082,-5.859,-9.903,-1.766,0.2364,-11.36,-0.2102,2.949,6.692,-9.483,-0.3808,-9.698,-0.38,-10.98,-4.459,0,0,0,0,0,0,0,0,0,0,0,0,0,0,0,0,
316,-11.34,-8.028,-12.83,-15.05,-8.413,-7.707,-12.67,-0.9986,-5.904,-0.5718,-7.991,2.62,-10.04,-1.184,-6.313,-0.5464,0,0,0,0,0,0,0,0,0,0,0,0,0,0,0,0,
317,-7.233,-10.39,-8.134,-16.04,-6.352,-10.05,-1.916,-3.656,-2.538,-3.059,-1.214,2.079,-3.083,0.3115,-1.684,2.559,0,0,0,0,0,0,0,0,0,0,0,0,0,0,0,0,
318,-9.834,-15.29,-7.992,-22.93,-6.941,-15.39,-2.773,-16.13,1.172,-7.533,-7.754,-10.22,-7.278,-9.423,-11.44,-8.981,0,0,0,0,0,0,0,0,0,0,0,0,0,0,0,0,
319,-18.75,-20.74,-16.8,-24.65,-12.47,-20.93,-12.94,-21.26,-7.369,-17.01,-14.63,-12.6,-13.38,-16.04,-13.36,-11.35,0,0,0,0,0,0,0,0,0,0,0,0,0,0,0,0,
320,-13.81,-13.47,-14.81,-10.33,-7.884,-12.76,-11.86,-5.689,-11.67,-14.34,-6.521,2.87,-5.633,-5.609,1.432,5.104,0,0,0,0,0,0,0,0,0,0,0,0,0,0,0,0,
321,-4.153,-3.187,-7.114,-1.296,0.9822,-1.87,-6.245,6.356,-1.083,-1.916,1.041,9.864,1.414,2.614,7.703,12.11,0,0,0,0,0,0,0,0,0,0,0,0,0,0,0,0,
322,-4.639,-3.77,-4.89,-5.128,2.001,-1.68,-6.788,2.223,11.7,1.262,-0.7769,4.546,-2.036,-1.05,0.232,4.005,0,0,0,0,0,0,0,0,0,0,0,0,0,0,0,0,
323,-5.074,-6.842,0.616,-5.048,3.511,-1.343,-1.791,-0.2223,14.81,-0.4848,1.166,4.917,-1.852,-1.345,-2.274,1.724,0,0,0,0,0,0,0,0,0,0,0,0,0,0,0,0,
324,-1.661,-3.229,6.315,1.01,9.081,5.153,9.473,2.863,12.76,4.718,5.794,6.253,3.19,2.731,-1.146,4.035,0,0,0,0,0,0,0,0,0,0,0,0,0,0,0,0,
325,-1.357,0.975,2.105,3.786,8.448,7.065,6.832,2.212,8.029,9.203,-1.716,-0.5309,-1.802,-0.9585,-9.345,-3.545,0,0,0,0,0,0,0,0,0,0,0,0,0,0,0,0,
326,-5.558,-3.87,-7.871,-2.669,-2.16,-1.78,-12.38,-3.323,-7.229,2.093,-18.07,-8.929,-16.86,-12.36,-21.11,-15.98,0,0,0,0,0,0,0,0,0,0,0,0,0,0,0,0,
327,-14.35,-14.96,-18.01,-15.37,-14.53,-14.2,-25.47,-10.63,-27.45,-11.53,-24.49,-12.73,-24.67,-19.11,-22.44,-17.54,0,0,0,0,0,0,0,0,0,0,0,0,0,0,0,0,
328,-20.28,-20.28,-22.01,-21.12,-17.81,-20.03,-21.6,-15.53,-31.47,-17.49,-17.54,-13.2,-18.73,-15.88,-16.4,-11.28,0,0,0,0,0,0,0,0,0,0,0,0,0,0,0,0,
329,-18.17,-21.75,-17.34,-21.63,-15.86,-23.18,-16.57,-21.41,-21.29,-17.75,-15.21,-17.97,-15.53,-17.09,-17.3,-14.5,0,0,0,0,0,0,0,0,0,0,0,0,0,0,0,0,
330,-17.85,-27.19,-14.24,-24.98,-18.36,-28.61,-16.92,-27.95,-22.47,-24.76,-19.59,-21.86,-19.39,-23.71,-19.71,-19.43,0,0,0,0,0,0,0,0,0,0,0,0,0,0,0,0,
331,-17.0,-24.4,-15.19,-16.53,-17.29,-23.85,-10.8,-19.54,-27.05,-25.87,-13.26,-9.929,-13.95,-15.14,-10.14,-8.458,0,0,0,0,0,0,0,0,0,0,0,0,0,0,0,0,
332,-8.861,-9.612,-15.13,0.8776,-11.5,-11.41,-7.798,-3.405,-15.36,-11.11,-5.823,1.466,-7.56,-3.069,-3.494,-0.2039,0,0,0,0,0,0,0,0,0,0,0,0,0,0,0,0,
333,-8.201,-4.637,-16.67,0.5026,-14.77,-10.71,-18.6,-1.16,-11.34,-4.74,-11.82,-4.172,-14.32,-7.764,-9.856,-7.09,0,0,0,0,0,0,0,0,0,0,0,0,0,0,0,0,
334,-15.45,-10.64,-18.15,-6.042,-20.29,-14.94,-20.67,-2.398,-19.2,-10.99,-13.64,-5.083,-17.65,-10.49,-12.15,-7.994,0,0,0,0,0,0,0,0,0,0,0,0,0,0,0,0,
335,-16.01,-12.76,-18.78,-2.856,-21.17,-16.24,-14.11,-1.671,-14.99,-12.1,-12.48,-1.647,-17.84,-10.03,-13.83,-7.893,0,0,0,0,0,0,0,0,0,0,0,0,0,0,0,0,
336,-18.86,-17.62,-22.81,-9.996,-27.68,-25.34,-21.8,-11.94,-18.29,-17.56,-22.83,-13.36,-27.76,-22.2,-21.98,-19.04,0,0,0,0,0,0,0,0,0,0,0,0,0,0,0,0,
337,-24.69,-23.08,-22.38,-17.59,-30.95,-29.88,-26.77,-17.54,-33.62,-26.93,-23.59,-20.13,-28.19,-25.18,-17.02,-18.83,0,0,0,0,0,0,0,0,0,0,0,0,0,0,0,0,
338,-17.79,-14.46,-17.12,-4.428,-23.82,-18.7,-18.87,-7.731,-30.8,-21.72,-12.65,-10.68,-18.39,-13.53,-6.299,-8.583,0,0,0,0,0,0,0,0,0,0,0,0,0,0,0,0,
339,-10.15,-3.968,-19.72,3.529,-23.45,-13.18,-20.83,-2.969,-24.77,-15.32,-16.17,-7.529,-22.89,-14.05,-12.68,-12.42,0,0,0,0,0,0,0,0,0,0,0,0,0,0,0,0,
340,-14.45,-5.496,-23.9,-4.598,-28.5,-18.58,-27.6,-6.394,-32.92,-20.63,-25.09,-13.29,-31.74,-22.48,-21.61,-20.72,0,0,0,0,0,0,0,0,0,0,0,0,0,0,0,0,
341,-17.45,-9.775,-22.76,-8.821,-26.34,-19.98,-27.59,-9.309,-35.4,-24.54,-24.98,-17.95,-29.89,-24.92,-20.19,-21.35,0,0,0,0,0,0,0,0,0,0,0,0,0,0,0,0,
342,-13.91,-8.797,-22.08,-7.702,-20.17,-15.28,-24.83,-12.18,-27.79,-22.87,-20.03,-18.57,-23.47,-22.89,-15.15,-17.76,0,0,0,0,0,0,0,0,0,0,0,0,0,0,0,0,
343,-7.229,-1.107,-12.6,-0.564,-8.352,-4.921,-9.781,-8.189,-16.84,-16.01,-6.793,-10.83,-11.79,-13.25,-6.618,-8.101,0,0,0,0,0,0,0,0,0,0,0,0,0,0,0,0,
344,2.009,8.315,6.425,10.6,6.374,5.076,6.192,-0.9338,-3.2,-5.997,3.479,-4.429,-1.266,-5.428,-2.464,-2.16,0,0,0,0,0,0,0,0,0,0,0,0,0,0,0,0,
345,4.548,7.505,10.22,9.138,7.182,1.91,-0.5438,-5.114,4.478,-5.767,-3.074,-9.617,-3.405,-10.69,-8.241,-8.217,0,0,0,0,0,0,0,0,0,0,0,0,0,0,0,0,
346,-3.869,-1.95,-4.816,0.2391,-3.93,-7.482,-9.942,-12.61,0.2709,-12.47,-10.19,-13.56,-8.712,-14.42,-10.37,-10.8,0,0,0,0,0,0,0,0,0,0,0,0,0,0,0,0,
347,-11.89,-7.047,-15.65,-2.123,-9.313,-9.57,-5.498,-12.77,-7.26,-12.94,-9.328,-10.37,-8.317,-9.941,-7.495,-5.916,0,0,0,0,0,0,0,0,0,0,0,0,0,0,0,0,
348,-11.36,-4.925,-11.65,-3.503,-4.766,-8.014,-3.845,-14.58,-6.322,-11.25,-8.489,-10.41,-6.68,-8.81,-8.713,-6.246,0,0,0,0,0,0,0,0,0,0,0,0,0,0,0,0,
349,-6.304,-1.907,-3.025,-5.487,1.48,-7.284,-5.712,-17.19,-0.1926,-11.53,-5.006,-9.802,-4.885,-8.592,-8.224,-7.055,0,0,0,0,0,0,0,0,0,0,0,0,0,0,0,0,
350,-3.015,-0.4153,-0.7992,-2.081,3.308,-4.528,-1.475,-9.408,2.341,-7.101,1.404,0.0139,-0.9091,-1.481,-1.281,0.8669,0,0,0,0,0,0,0,0,0,0,0,0,0,0,0,0,
351,-1.772,1.835,0.6271,2.275,3.664,-2.12,5.356,-0.406,4.988,0.4912,6.278,6.282,4.09,4.676,5.039,6.631,0,0,0,0,0,0,0,0,0,0,0,0,0,0,0,0,
352,-2.91,1.484,4.37,0.2118,3.584,-5.749,8.222,-5.622,7.247,0.7362,8.949,-2.401,5.201,1.031,5.067,0.4014,0,0,0,0,0,0,0,0,0,0,0,0,0,0,0,0,
353,-11.07,-6.541,-4.272,-4.613,-3.554,-13.59,1.258,-16.56,-0.0582,-7.84,4.989,-11.83,-0.4111,-6.605,-0.9129,-8.096,0,0,0,0,0,0,0,0,0,0,0,0,0,0,0,0,
354,-20.84,-14.9,-18.66,-3.264,-11.43,-16.33,-7.673,-16.67,-12.73,-13.7,-1.857,-8.752,-5.149,-7.054,-5.41,-7.476,0,0,0,0,0,0,0,0,0,0,0,0,0,0,0,0,
355,-17.49,-12.67,-11.86,4.653,-4.834,-7.873,-2.229,-6.295,-12.15,-7.81,1.221,0.3704,0.6654,2.332,1.355,2.436,0,0,0,0,0,0,0,0,0,0,0,0,0,0,0,0,
356,-2.906,-2.384,7.413,11.77,9.556,5.259,9.616,4.493,7.666,5.696,11.04,7.256,13.47,13.09,13.62,13.55,0,0,0,0,0,0,0,0,0,0,0,0,0,0,0,0,
357,2.164,1.895,10.18,8.686,10.66,7.681,8.72,4.467,22.3,12.96,12.37,5.477,16.94,11.35,13.21,12.07,0,0,0,0,0,0,0,0,0,0,0,0,0,0,0,0,
358,-9.561,-6.32,-2.823,-4.509,-3.678,-5.144,-2.716,-9.64,12.79,2.363,3.713,-6.607,5.588,-3.781,1.246,-1.58,0,0,0,0,0,0,0,0,0,0,0,0,0,0,0,0,
359,-16.35,-11.21,-9.01,-8.426,-11.11,-13.53,-6.085,-17.51,-1.638,-14.27,2.296,-10.98,1.016,-9.997,0.0759,-4.17,0,0,0,0,0,0,0,0,0,0,0,0,0,0,0,0,
360,-3.658,-0.5858,3.454,3.457,2.19,-1.319,7.806,-4.779,2.399,-10.03,14.8,1.538,14.13,3.138,11.11,9.171,0,0,0,0,0,0,0,0,0,0,0,0,0,0,0,0,
361,4.556,5.55,12.32,6.487,12.37,10.32,16.42,3.538,13.2,7.567,16.13,6.268,16.43,9.54,9.744,11.72,0,0,0,0,0,0,0,0,0,0,0,0,0,0,0,0,
362,-10.05,-6.546,-5.755,-5.849,-1.983,-1.002,-1.028,-8.285,3.354,4.648,-4.46,-6.724,-3.546,-4.409,-5.883,-2.004,0,0,0,0,0,0,0,0,0,0,0,0,0,0,0,0,
363,-20.29,-13.63,-19.93,-9.534,-14.74,-14.35,-16.82,-15.46,-15.81,-12.29,-16.35,-13.48,-14.81,-14.08,-12.9,-8.956,0,0,0,0,0,0,0,0,0,0,0,0,0,0,0,0,
364,-8.121,-4.579,-3.367,-2.435,-6.171,-10.5,-7.757,-10.01,-13.38,-13.76,-10.16,-8.919,-9.513,-9.542,-9.462,-6.34,0,0,0,0,0,0,0,0,0,0,0,0,0,0,0,0,
365,1.026,-0.9004,7.011,-3.164,-0.7561,-7.264,0.0356,-10.23,-4.877,-7.288,-8.498,-7.827,-8.563,-6.574,-8.779,-6.202,0,0,0,0,0,0,0,0,0,0,0,0,0,0,0,0,
366,-5.824,-8.912,-8.446,-10.31,-8.231,-13.41,-8.192,-14.43,-9.34,-8.904,-11.4,-9.492,-11.19,-8.123,-10.41,-7.997,0,0,0,0,0,0,0,0,0,0,0,0,0,0,0,0,
367,-12.37,-14.63,-16.96,-13.88,-11.4,-16.34,-14.24,-14.57,-10.68,-12.23,-9.088,-11.23,-10.93,-10.73,-10.05,-10.5,0,0,0,0,0,0,0,0,0,0,0,0,0,0,0,0,
368,-13.57,-15.02,-9.21,-12.82,-10.33,-14.94,-11.24,-15.21,-9.526,-14.48,-5.293,-14.23,-11.9,-15.35,-7.161,-12.05,0,0,0,0,0,0,0,0,0,0,0,0,0,0,0,0,
369,-16.37,-14.68,-8.539,-6.753,-14.45,-15.89,-8.58,-15.78,-12.42,-17.65,-2.133,-14.15,-11.6,-18.19,-3.924,-8.82,0,0,0,0,0,0,0,0,0,0,0,0,0,0,0,0,
370,-21.08,-15.02,-18.32,-2.484,-20.7,-19.15,-10.77,-14.19,-13.18,-19.71,-2.616,-11.85,-9.363,-17.11,-4.064,-5.516,0,0,0,0,0,0,0,0,0,0,0,0,0,0,0,0,
371,-23.09,-13.08,-21.7,-4.316,-21.79,-20.01,-12.14,-11.71,-13.99,-19.19,-5.59,-8.314,-6.863,-11.67,-3.642,-3.21,0,0,0,0,0,0,0,0,0,0,0,0,0,0,0,0,
372,-21.61,-8.043,-19.48,-4.517,-19.75,-17.75,-11.66,-10.13,-11.38,-14.43,-5.478,-4.236,-4.78,-5.859,-2.761,-1.253,0,0,0,0,0,0,0,0,0,0,0,0,0,0,0,0,
373,-20.57,-7.53,-21.94,-6.299,-20.1,-16.76,-13.63,-12.22,-9.008,-10.62,-5.504,-4.914,-6.785,-5.987,-4.348,-2.113,0,0,0,0,0,0,0,0,0,0,0,0,0,0,0,0,
374,-16.23,-8.256,-17.08,-9.864,-14.75,-13.05,-9.993,-11.42,-14.36,-8.913,-2.881,-4.015,-4.573,-3.207,0.9912,1.72,0,0,0,0,0,0,0,0,0,0,0,0,0,0,0,0,
375,-7.943,-3.903,-5.098,-6.23,-5.125,-7.909,-4.819,-7.319,-14.3,-2.683,1.095,-0.5157,1.354,1.454,5.425,4.535,0,0,0,0,0,0,0,0,0,0,0,0,0,0,0,0,
376,-11.32,-8.13,-10.06,-7.169,-11.06,-13.95,-14.42,-10.65,-14.26,-2.769,-6.01,-4.198,-6.162,-5.868,-4.005,-4.253,0,0,0,0,0,0,0,0,0,0,0,0,0,0,0,0,
377,-18.83,-13.63,-15.94,-6.484,-16.33,-13.52,-13.56,-4.233,-19.16,-8.7,-3.729,4.255,-6.275,-2.147,2.72,3.752,0,0,0,0,0,0,0,0,0,0,0,0,0,0,0,0,
378,2.076,11.01,10.68,26.1,13.33,20.52,25.8,30.97,1.945,10.72,33.0,40.2,29.96,34.11,42.33,43.34,0,0,0,0,0,0,0,0,0,0,0,0,0,0,0,0,
379,43.5,51.31,49.5,66.11,55.69,61.73,67.19,63.57,46.3,51.36,71.44,68.3,68.6,65.92,72.85,72.42,0,0,0,0,0,0,0,0,0,0,0,0,0,0,0,0,
380,61.11,62.61,61.58,67.55,66.23,68.06,68.18,61.65,69.75,68.71,72.13,62.18,69.35,61.41,67.69,65.2,0,0,0,0,0,0,0,0,0,0,0,0,0,0,0,0,
381,46.25,45.07,48.4,46.43,50.83,49.03,47.52,44.03,61.77,53.89,51.49,45.65,51.6,43.79,52.12,48.4,0,0,0,0,0,0,0,0,0,0,0,0,0,0,0,0,
382,33.75,33.42,40.65,37.14,43.24,39.34,43.75,38.23,51.68,40.09,43.75,42.68,47.76,41.23,50.77,48.15,0,0,0,0,0,0,0,0,0,0,0,0,0,0,0,0,
383,37.28,35.78,46.68,36.16,45.9,42.47,51.14,40.23,54.31,43.41,47.47,45.44,51.91,46.54,54.11,53.96,0,0,0,0,0,0,0,0,0,0,0,0,0,0,0,0,
384,34.96,33.58,43.79,31.93,40.73,41.45,44.78,39.01,51.36,46.91,44.45,42.87,48.21,44.18,47.64,48.22,0,0,0,0,0,0,0,0,0,0,0,0,0,0,0,0,
385,27.77,29.17,35.29,31.09,36.4,39.75,39.08,39.63,41.91,43.3,40.45,40.9,45.87,41.28,42.09,41.61,0,0,0,0,0,0,0,0,0,0,0,0,0,0,0,0,
386,33.41,33.75,39.36,34.76,42.97,44.33,47.02,41.17,44.54,44.83,41.48,40.24,47.5,42.36,41.22,40.54,0,0,0,0,0,0,0,0,0,0,0,0,0,0,0,0,
387,36.12,33.19,37.47,32.24,40.17,42.21,41.68,34.09,44.64,46.41,33.38,32.88,36.47,34.26,30.22,30.5,0,0,0,0,0,0,0,0,0,0,0,0,0,0,0,0,
388,26.3,24.29,23.74,27.41,26.88,33.53,23.72,25.51,30.11,36.93,21.45,25.68,20.54,20.92,19.12,19.97,0,0,0,0,0,0,0,0,0,0,0,0,0,0,0,0,
389,25.68,25.35,22.77,28.41,25.6,34.05,23.66,24.46,21.42,27.66,22.7,25.1,17.16,17.35,21.23,23.02,0,0,0,0,0,0,0,0,0,0,0,0,0,0,0,0,
390,31.43,31.29,27.23,27.18,28.6,37.16,29.11,24.08,20.18,25.82,22.54,20.81,13.95,16.11,18.51,23.5,0,0,0,0,0,0,0,0,0,0,0,0,0,0,0,0,
391,24.23,25.56,20.52,18.14,20.01,28.43,15.73,18.41,12.45,21.08,7.121,11.07,2.142,7.309,8.546,15.53,0,0,0,0,0,0,0,0,0,0,0,0,0,0,0,0,
392,14.34,14.57,16.34,10.22,12.96,18.47,4.199,11.25,4.735,12.24,-2.245,8.22,-1.841,1.484,11.08,14.75,0,0,0,0,0,0,0,0,0,0,0,0,0,0,0,0,
393,14.82,12.32,18.33,12.35,16.76,20.28,12.11,11.13,7.028,11.06,5.645,14.59,5.936,6.831,18.5,19.58,0,0,0,0,0,0,0,0,0,0,0,0,0,0,0,0,
394,15.62,15.35,14.32,14.7,17.98,21.49,17.71,17.32,11.57,17.02,11.39,19.33,10.0,13.66,15.78,19.81,0,0,0,0,0,0,0,0,0,0,0,0,0,0,0,0,
395,12.03,13.76,11.72,6.468,14.04,15.25,14.21,19.52,7.401,18.06,13.38,20.98,11.55,18.1,16.52,21.9,0,0,0,0,0,0,0,0,0,0,0,0,0,0,0,0,
396,15.33,15.54,20.01,5.756,18.84,18.95,20.33,21.53,4.587,19.71,25.05,28.73,23.2,29.16,28.35,29.97,0,0,0,0,0,0,0,0,0,0,0,0,0,0,0,0,
397,23.58,24.59,25.32,17.25,26.64,30.23,27.92,27.5,15.46,30.72,32.82,35.46,34.19,39.54,33.86,31.16,0,0,0,0,0,0,0,0,0,0,0,0,0,0,0,0,
398,22.73,24.09,22.2,16.18,24.81,30.19,26.55,26.41,25.3,36.27,31.1,30.24,35.57,37.53,31.04,24.09,0,0,0,0,0,0,0,0,0,0,0,0,0,0,0,0,
399,19.74,18.63,27.96,9.851,27.65,29.4,34.55,21.83,25.86,33.29,40.13,25.45,43.15,34.78,33.62,22.93,0,0,0,0,0,0,0,0,0,0,0,0,0,0,0,0,
400,25.25,24.4,38.14,15.42,38.48,36.46,45.07,23.21,37.68,35.75,47.04,25.81,50.23,34.79,32.62,22.74,0,0,0,0,0,0,0,0,0,0,0,0,0,0,0,0,
401,25.78,27.07,31.56,16.29,35.18,34.22,36.03,21.45,57.6,34.47,29.57,18.91,36.42,26.41,19.45,14.15,0,0,0,0,0,0,0,0,0,0,0,0,0,0,0,0,
402,19.48,21.67,21.0,11.37,25.9,26.9,25.29,16.15,56.47,24.27,13.94,11.69,22.43,19.78,12.95,10.3,0,0,0,0,0,0,0,0,0,0,0,0,0,0,0,0,
403,22.74,25.22,24.74,16.08,31.46,30.18,25.66,15.93,44.33,22.18,13.68,11.14,23.38,21.27,14.13,11.14,0,0,0,0,0,0,0,0,0,0,0,0,0,0,0,0,
404,26.95,28.29,26.52,20.16,34.32,31.58,18.69,15.14,40.14,22.21,1.226,3.736,13.53,13.22,1.896,0.9543,0,0,0,0,0,0,0,0,0,0,0,0,0,0,0,0,
405,19.94,20.02,18.65,16.68,23.89,24.7,8.411,12.17,25.34,12.11,-16.0,-6.443,-4.863,-0.4729,-12.76,-9.157,0,0,0,0,0,0,0,0,0,0,0,0,0,0,0,0,
406,16.94,17.42,16.09,16.06,20.72,23.49,9.138,10.48,7.566,8.221,-13.61,-7.699,-6.676,-3.47,-13.13,-10.06,0,0,0,0,0,0,0,0,0,0,0,0,0,0,0,0,
407,19.34,20.19,15.37,13.65,21.46,21.91,5.292,2.82,7.293,11.34,-15.54,-12.77,-9.281,-9.24,-18.37,-19.42,0,0,0,0,0,0,0,0,0,0,0,0,0,0,0,0,
408,12.64,13.71,8.359,4.905,10.85,10.15,-9.017,-5.377,-0.5147,2.228,-31.98,-20.25,-24.85,-21.58,-29.73,-29.17,0,0,0,0,0,0,0,0,0,0,0,0,0,0,0,0,
409,5.851,6.846,3.739,3.957,1.788,3.305,-13.45,-0.8503,-15.29,-7.76,-30.66,-14.19,-26.74,-19.42,-24.55,-20.2,0,0,0,0,0,0,0,0,0,0,0,0,0,0,0,0,
410,2.098,3.233,-2.499,6.063,-3.298,2.312,-11.92,2.308,-13.29,-5.208,-20.2,-10.92,-19.85,-12.06,-17.67,-15.21,0,0,0,0,0,0,0,0,0,0,0,0,0,0,0,0,
411,-11.26,-6.402,-15.75,-3.181,-14.1,-6.069,-18.51,-6.57,-15.16,-6.884,-24.26,-18.93,-23.34,-15.63,-22.14,-22.15,0,0,0,0,0,0,0,0,0,0,0,0,0,0,0,0,
412,-16.92,-8.493,-14.97,-5.241,-12.0,-6.975,-14.85,-7.437,-20.75,-11.18,-17.82,-14.07,-15.66,-11.88,-13.97,-13.66,0,0,0,0,0,0,0,0,0,0,0,0,0,0,0,0,
413,-0.3395,5.13,4.182,7.906,7.226,7.04,3.213,2.536,-6.217,-1.635,1.089,-2.776,3.305,-0.4203,0.1641,-0.8712,0,0,0,0,0,0,0,0,0,0,0,0,0,0,0,0,
414,10.89,11.74,13.3,11.31,13.39,11.48,7.35,2.373,6.357,5.867,0.935,-7.45,3.808,-1.741,-4.501,-6.442,0,0,0,0,0,0,0,0,0,0,0,0,0,0,0,0,
415,3.329,3.668,4.349,4.308,3.762,3.622,-2.631,-5.162,1.822,-1.048,-8.087,-12.68,-3.625,-5.758,-11.81,-11.94,0,0,0,0,0,0,0,0,0,0,0,0,0,0,0,0,
416,-4.369,-2.691,-5.792,2.72,-1.101,2.9,-9.371,-3.308,-1.566,-3.501,-10.16,-6.65,-1.472,-0.226,-10.25,-9.86,0,0,0,0,0,0,0,0,0,0,0,0,0,0,0,0,
417,-5.481,-2.742,-9.942,4.072,-0.5131,8.303,-15.54,3.966,-0.8288,4.029,-14.82,-4.482,-1.362,3.2,-13.33,-13.44,0,0,0,0,0,0,0,0,0,0,0,0,0,0,0,0,
418,-5.418,-2.011,-9.875,5.249,-0.6587,9.532,-19.02,2.849,-1.431,7.255,-18.12,-9.727,-5.142,-0.6448,-19.77,-19.09,0,0,0,0,0,0,0,0,0,0,0,0,0,0,0,0,
419,-6.07,-1.394,-6.346,6.84,-0.7111,7.714,-13.9,-3.51,-3.549,3.293,-17.55,-11.83,-5.71,-3.869,-21.61,-20.83,0,0,0,0,0,0,0,0,0,0,0,0,0,0,0,0,
420,-4.033,2.836,3.763,13.85,5.632,12.32,-0.766,3.058,-2.775,3.347,-9.436,-2.28,4.303,5.179,-9.128,-11.57,0,0,0,0,0,0,0,0,0,0,0,0,0,0,0,0,
421,9.33,14.49,23.05,30.9,24.6,28.64,26.73,22.66,14.05,18.24,23.21,16.55,32.58,27.7,24.83,15.57,0,0,0,0,0,0,0,0,0,0,0,0,0,0,0,0,
422,27.6,25.7,40.15,38.8,43.53,43.24,54.78,31.54,41.72,38.58,58.43,27.54,58.02,43.36,54.96,39.94,0,0,0,0,0,0,0,0,0,0,0,0,0,0,0,0,
423,34.06,26.65,47.73,28.6,50.07,44.62,61.94,26.67,55.92,44.21,68.05,27.87,62.22,45.64,63.87,46.33,0,0,0,0,0,0,0,0,0,0,0,0,0,0,0,0,
424,38.17,29.37,58.5,27.84,57.26,46.1,66.25,28.64,58.78,43.01,73.77,32.23,64.45,49.8,68.58,49.0,0,0,0,0,0,0,0,0,0,0,0,0,0,0,0,0,
425,47.4,38.06,63.91,36.01,60.5,46.98,66.78,28.32,59.87,45.83,68.46,28.39,59.14,43.82,57.41,40.48,0,0,0,0,0,0,0,0,0,0,0,0,0,0,0,0,
426,35.07,26.62,39.01,19.72,34.99,25.21,33.47,5.42,37.76,29.41,24.54,3.594,24.52,13.96,18.31,10.89,0,0,0,0,0,0,0,0,0,0,0,0,0,0,0,0,
427,7.224,1.815,10.22,-3.551,5.388,-0.0165,2.199,-11.96,4.551,-0.6885,-10.24,-10.32,-2.504,-5.715,-5.927,-7.147,0,0,0,0,0,0,0,0,0,0,0,0,0,0,0,0,
428,3.265,-0.3323,8.124,-1.409,3.496,-0.9454,4.434,-4.506,4.983,-3.928,-9.752,-8.538,-1.841,-5.73,-11.36,-12.77,0,0,0,0,0,0,0,0,0,0,0,0,0,0,0,0,
429,1.548,-1.116,-2.959,-5.892,-5.915,-9.956,-11.94,-11.09,5.912,-2.468,-29.12,-28.88,-19.74,-25.14,-38.4,-39.62,0,0,0,0,0,0,0,0,0,0,0,0,0,0,0,0,
430,-24.13,-23.69,-29.6,-28.12,-32.41,-35.26,-43.13,-32.41,-31.51,-29.46,-57.13,-49.62,-46.65,-47.31,-56.82,-56.94,0,0,0,0,0,0,0,0,0,0,0,0,0,0,0,0,
431,-28.38,-26.35,-23.2,-24.62,-27.78,-30.19,-31.59,-25.24,-47.23,-39.07,-41.34,-33.43,-34.02,-32.26,-35.83,-36.5,0,0,0,0,0,0,0,0,0,0,0,0,0,0,0,0,
432,-5.232,-6.338,-1.084,-10.15,-6.249,-9.041,-11.47,-9.356,-20.15,-15.6,-21.02,-18.17,-14.44,-14.92,-23.12,-25.17,0,0,0,0,0,0,0,0,0,0,0,0,0,0,0,0,
433,-6.767,-10.62,-9.832,-21.98,-13.24,-15.45,-22.71,-18.4,-12.08,-9.894,-32.3,-27.18,-24.61,-24.36,-34.77,-36.8,0,0,0,0,0,0,0,0,0,0,0,0,0,0,0,0,
434,-29.27,-31.24,-30.53,-32.58,-30.47,-28.56,-33.78,-27.04,-29.94,-23.24,-41.99,-30.16,-36.16,-31.52,-38.7,-38.6,0,0,0,0,0,0,0,0,0,0,0,0,0,0,0,0,
435,-37.54,-34.22,-34.83,-20.98,-31.86,-24.92,-34.44,-18.64,-37.44,-25.86,-37.56,-22.31,-32.44,-25.45,-32.37,-31.41,0,0,0,0,0,0,0,0,0,0,0,0,0,0,0,0,
436,-25.48,-19.83,-21.01,-6.492,-20.1,-15.09,-29.16,-10.51,-30.0,-19.84,-28.9,-18.19,-22.57,-19.21,-25.36,-26.86,0,0,0,0,0,0,0,0,0,0,0,0,0,0,0,0,
437,-7.656,-8.163,-5.395,-5.767,-9.051,-10.43,-18.23,-15.03,-21.05,-14.63,-22.81,-20.87,-17.74,-19.96,-24.5,-27.66,0,0,0,0,0,0,0,0,0,0,0,0,0,0,0,0,
438,-9.306,-15.22,-14.11,-18.99,-17.14,-18.81,-24.28,-26.68,-22.57,-19.08,-29.41,-25.83,-25.53,-26.78,-30.82,-31.97,0,0,0,0,0,0,0,0,0,0,0,0,0,0,0,0,
439,-24.54,-27.64,-30.31,-25.45,-30.19,-28.58,-37.19,-27.31,-29.11,-28.87,-34.33,-22.98,-29.49,-26.73,-28.64,-27.22,0,0,0,0,0,0,0,0,0,0,0,0,0,0,0,0,
440,-24.38,-27.09,-24.92,-18.23,-25.23,-24.27,-31.37,-17.62,-27.22,-27.24,-25.49,-16.54,-21.26,-19.1,-20.27,-18.64,0,0,0,0,0,0,0,0,0,0,0,0,0,0,0,0,
441,-15.06,-21.67,-12.99,-12.83,-14.67,-14.53,-20.66,-12.14,-18.46,-18.93,-17.89,-12.71,-14.91,-13.21,-16.89,-16.23,0,0,0,0,0,0,0,0,0,0,0,0,0,0,0,0,
442,-10.4,-16.61,-5.738,-9.244,-9.478,-7.802,-13.08,-8.542,-8.589,-11.39,-16.63,-9.376,-13.87,-10.37,-16.84,-16.9,0,0,0,0,0,0,0,0,0,0,0,0,0,0,0,0,
443,-11.21,-16.05,-5.438,-11.23,-12.65,-9.784,-11.88,-9.685,-9.686,-8.184,-23.24,-17.21,-22.25,-18.77,-28.0,-27.51,0,0,0,0,0,0,0,0,0,0,0,0,0,0,0,0,
444,-18.58,-23.61,-15.54,-19.64,-22.07,-17.63,-23.04,-15.53,-25.28,-16.65,-34.76,-27.06,-34.03,-29.47,-40.15,-37.37,0,0,0,0,0,0,0,0,0,0,0,0,0,0,0,0,
445,-13.13,-18.19,-12.17,-11.18,-16.51,-10.51,-23.35,-8.72,-28.79,-18.37,-31.98,-17.47,-27.53,-20.48,-31.17,-26.69,0,0,0,0,0,0,0,0,0,0,0,0,0,0,0,0,
446,10.59,3.664,2.547,7.59,-2.514,5.299,-14.24,1.732,-15.35,-4.288,-22.81,-7.824,-16.15,-8.547,-20.93,-16.62,0,0,0,0,0,0,0,0,0,0,0,0,0,0,0,0,
447,26.42,19.91,-1.742,12.15,-3.697,8.713,-23.28,-0.0365,-13.46,0.4138,-26.09,-11.13,-19.17,-10.29,-25.42,-21.66,0,0,0,0,0,0,0,0,0,0,0,0,0,0,0,0,
448,42.78,36.75,-4.606,15.41,-2.574,11.18,-29.95,1.662,-20.1,-4.062,-25.96,-8.61,-17.79,-8.87,-24.88,-21.47,0,0,0,0,0,0,0,0,0,0,0,0,0,0,0,0,
449,87.55,71.18,22.15,33.93,20.19,25.81,-10.69,12.41,-11.34,1.28,-11.72,0.1682,-2.522,1.433,-14.35,-10.62,0,0,0,0,0,0,0,0,0,0,0,0,0,0,0,0,
450,148.3,116.1,59.3,58.01,52.64,47.64,11.99,19.73,10.11,15.01,1.204,8.154,13.27,14.33,-3.17,0.8813,0,0,0,0,0,0,0,0,0,0,0,0,0,0,0,0,
451,196.8,152.6,86.35,73.47,77.79,67.46,20.48,23.97,32.25,31.05,4.647,15.31,20.97,25.27,3.49,6.68,0,0,0,0,0,0,0,0,0,0,0,0,0,0,0,0,
452,220.9,169.1,98.97,79.91,85.31,73.95,20.75,27.43,46.73,40.32,2.164,14.83,17.94,25.19,0.4304,3.69,0,0,0,0,0,0,0,0,0,0,0,0,0,0,0,0,
453,225.3,175.5,98.19,86.18,81.25,70.99,20.76,27.89,43.89,36.08,-1.823,10.91,9.851,17.68,-5.513,-0.4942,0,0,0,0,0,0,0,0,0,0,0,0,0,0,0,0,
454,224.5,183.0,94.44,91.07,78.64,71.1,23.62,29.39,32.01,29.8,-2.355,13.44,6.306,15.02,-4.056,1.636,0,0,0,0,0,0,0,0,0,0,0,0,0,0,0,0,
455,219.1,181.7,92.2,89.24,77.18,72.49,26.13,34.74,29.28,31.17,4.583,18.86,12.02,19.54,3.787,7.347,0,0,0,0,0,0,0,0,0,0,0,0,0,0,0,0,
456,201.5,168.0,87.72,83.61,75.74,71.11,27.41,37.24,36.05,37.28,14.63,22.25,23.83,26.74,12.67,13.24,0,0,0,0,0,0,0,0,0,0,0,0,0,0,0,0,
457,179.1,152.5,82.18,74.12,72.15,64.0,28.45,29.3,41.43,38.91,14.37,19.71,25.27,25.59,11.35,12.87,0,0,0,0,0,0,0,0,0,0,0,0,0,0,0,0,
458,156.7,133.4,70.47,58.33,57.64,47.33,21.65,14.21,35.33,26.35,3.071,10.5,12.47,14.72,-0.9877,4.424,0,0,0,0,0,0,0,0,0,0,0,0,0,0,0,0,
459,132.2,110.7,52.77,44.61,43.98,36.34,12.85,7.912,24.03,13.83,2.471,10.35,13.57,18.4,1.423,7.199,0,0,0,0,0,0,0,0,0,0,0,0,0,0,0,0,
460,121.2,102.8,52.92,46.54,52.3,47.97,24.4,21.97,30.94,28.53,21.55,28.05,38.56,44.19,23.98,27.52,0,0,0,0,0,0,0,0,0,0,0,0,0,0,0,0,
461,124.3,106.7,66.68,55.42,64.69,62.49,42.4,39.25,49.92,55.93,33.79,40.96,52.18,58.01,31.91,34.95,0,0,0,0,0,0,0,0,0,0,0,0,0,0,0,0,
462,112.5,95.49,58.1,48.26,54.49,54.98,34.13,35.97,51.77,57.95,22.73,32.68,37.75,44.81,16.77,21.16,0,0,0,0,0,0,0,0,0,0,0,0,0,0,0,0,
463,90.11,75.19,39.18,33.86,40.26,40.45,18.1,22.9,41.39,40.45,12.35,19.23,23.48,30.35,7.693,13.66,0,0,0,0,0,0,0,0,0,0,0,0,0,0,0,0,
464,80.73,65.7,38.69,29.68,39.14,35.57,19.16,16.6,36.09,28.48,16.34,11.56,21.68,22.64,10.14,13.45,0,0,0,0,0,0,0,0,0,0,0,0,0,0,0,0,
465,74.58,58.07,41.13,24.78,36.24,31.16,20.76,12.29,31.83,18.99,18.66,7.168,19.69,14.27,11.63,9.161,0,0,0,0,0,0,0,0,0,0,0,0,0,0,0,0,
466,65.88,49.42,37.79,18.62,30.84,27.32,18.33,11.2,26.78,13.0,14.16,9.141,17.29,13.29,11.86,9.506,0,0,0,0,0,0,0,0,0,0,0,0,0,0,0,0,
467,57.46,44.14,30.76,18.59,24.7,25.2,15.42,10.98,20.92,15.97,6.973,9.313,11.48,12.37,7.852,9.404,0,0,0,0,0,0,0,0,0,0,0,0,0,0,0,0,
468,37.8,30.61,12.43,12.78,8.873,14.51,3.397,2.976,8.486,11.21,1.1,1.564,0.7668,1.658,2.929,3.625,0,0,0,0,0,0,0,0,0,0,0,0,0,0,0,0,
469,18.64,15.86,0.6758,3.227,-0.741,5.008,-1.463,1.046,-0.9512,0.5215,6.363,0.2002,2.135,-1.581,6.878,5.894,0,0,0,0,0,0,0,0,0,0,0,0,0,0,0,0,
470,12.66,10.68,0.9389,-0.5649,0.8997,3.323,6.081,5.484,1.714,0.036,12.76,1.558,7.551,0.5291,7.269,8.755,0,0,0,0,0,0,0,0,0,0,0,0,0,0,0,0,
471,1.726,-0.6645,-8.55,-7.681,-6.697,-5.184,1.837,-2.688,0.1097,-3.59,5.482,-4.647,-2.106,-6.452,-1.606,2.204,0,0,0,0,0,0,0,0,0,0,0,0,0,0,0,0,
472,-9.198,-14.01,-14.34,-16.85,-12.71,-12.8,-5.317,-8.649,-9.01,-12.05,-0.661,-3.243,-7.447,-7.042,-2.303,1.189,0,0,0,0,0,0,0,0,0,0,0,0,0,0,0,0,
473,-7.059,-14.66,-8.13,-18.88,-7.268,-8.825,-2.145,-1.68,-6.916,-7.192,1.983,4.402,0.1415,1.253,2.037,4.61,0,0,0,0,0,0,0,0,0,0,0,0,0,0,0,0,
474,-10.86,-16.83,-12.83,-17.03,-10.12,-7.98,-4.141,-1.112,-2.709,-0.1021,2.84,3.705,2.055,4.171,0.5972,2.828,0,0,0,0,0,0,0,0,0,0,0,0,0,0,0,0,
475,-18.03,-20.23,-14.95,-11.57,-12.76,-8.163,-6.162,-1.713,-6.757,1.554,4.183,4.986,3.489,9.761,2.195,4.492,0,0,0,0,0,0,0,0,0,0,0,0,0,0,0,0,
476,-13.18,-15.03,-1.843,-8.672,-3.821,-3.189,-1.468,3.045,-2.212,9.743,5.013,7.774,8.053,15.09,4.106,6.035,0,0,0,0,0,0,0,0,0,0,0,0,0,0,0,0,
477,-17.85,-21.97,-4.875,-20.81,-8.18,-10.31,-3.32,-3.346,2.464,12.05,1.228,0.8663,2.678,6.847,-1.024,0.4469,0,0,0,0,0,0,0,0,0,0,0,0,0,0,0,0,
478,-36.88,-39.36,-25.14,-32.35,-24.76,-23.65,-6.769,-11.08,-4.747,0.863,1.139,-2.775,-4.953,-2.535,-2.684,-0.1459,0,0,0,0,0,0,0,0,0,0,0,0,0,0,0,0,
479,-44.98,-40.75,-35.59,-27.97,-31.01,-25.09,-10.5,-9.496,-8.295,-7.523,-2.722,-3.426,-11.05,-10.54,-4.095,0.2502,0,0,0,0,0,0,0,0,0,0,0,0,0,0,0,0,
480,-48.4,-40.54,-44.23,-26.9,-38.76,-29.16,-27.03,-17.18,-18.96,-18.47,-20.45,-16.11,-25.77,-27.62,-15.95,-10.82,0,0,0,0,0,0,0,0,0,0,0,0,0,0,0,0,
481,-57.53,-50.76,-54.77,-31.01,-49.51,-36.97,-39.9,-26.47,-40.06,-34.94,-28.51,-22.27,-31.76,-33.65,-19.4,-14.28,0,0,0,0,0,0,0,0,0,0,0,0,0,0,0,0,
482,-50.41,-43.6,-40.31,-18.71,-35.24,-24.06,-27.37,-14.74,-29.13,-30.64,-9.506,-5.242,-11.55,-12.61,-0.6167,3.784,0,0,0,0,0,0,0,0,0,0,0,0,0,0,0,0,
483,-28.8,-23.3,-10.82,-4.687,-9.038,-4.412,-4.609,-1.6,10.22,-7.677,11.47,7.821,9.618,7.515,12.57,16.0,0,0,0,0,0,0,0,0,0,0,0,0,0,0,0,0,
484,-27.01,-25.79,-10.39,-13.06,-10.26,-9.843,1.145,-10.55,19.45,-1.023,8.023,-2.687,4.658,1.627,-0.4736,3.135,0,0,0,0,0,0,0,0,0,0,0,0,0,0,0,0,
485,-45.12,-43.81,-29.74,-26.67,-26.47,-26.21,-5.897,-20.75,-7.997,-13.95,-5.029,-11.83,-9.239,-10.71,-12.38,-8.478,0,0,0,0,0,0,0,0,0,0,0,0,0,0,0,0,
486,-50.59,-45.31,-27.73,-26.27,-25.2,-26.35,-2.277,-12.23,-24.31,-19.44,-2.838,-3.345,-6.409,-7.456,-3.664,-0.5218,0,0,0,0,0,0,0,0,0,0,0,0,0,0,0,0,
487,-41.89,-35.59,-19.28,-23.85,-19.78,-20.98,0.5125,-7.804,-20.41,-14.47,-1.338,-3.341,-4.902,-7.893,-3.815,-1.168,0,0,0,0,0,0,0,0,0,0,0,0,0,0,0,0,
488,-44.35,-38.9,-30.95,-30.1,-29.0,-26.67,-18.16,-21.55,-26.41,-19.55,-19.77,-19.17,-24.04,-24.48,-24.19,-20.09,0,0,0,0,0,0,0,0,0,0,0,0,0,0,0,0,
489,-54.94,-48.9,-38.59,-33.36,-34.9,-31.54,-30.67,-25.27,-33.94,-29.85,-30.95,-18.95,-33.15,-27.43,-29.79,-21.95,0,0,0,0,0,0,0,0,0,0,0,0,0,0,0,0,
490,-54.81,-48.1,-31.39,-26.69,-27.81,-25.21,-19.09,-10.41,-20.51,-21.3,-16.78,-2.276,-14.96,-7.574,-14.17,-4.202,0,0,0,0,0,0,0,0,0,0,0,0,0,0,0,0,
491,-50.84,-45.71,-31.45,-22.89,-23.63,-19.25,-12.67,-3.29,-7.87,-1.176,-4.773,2.332,-2.32,4.751,-7.337,-0.5552,0,0,0,0,0,0,0,0,0,0,0,0,0,0,0,0,
492,-52.37,-50.13,-35.39,-26.35,-24.72,-20.42,-21.02,-7.503,-11.68,5.841,-9.756,-2.37,-7.684,-0.4761,-12.44,-9.336,0,0,0,0,0,0,0,0,0,0,0,0,0,0,0,0,
493,-50.1,-48.13,-30.36,-23.98,-21.29,-19.47,-23.09,-7.086,-13.39,1.818,-12.1,-0.897,-8.613,-5.828,-10.77,-7.988,0,0,0,0,0,0,0,0,0,0,0,0,0,0,0,0,
494,-40.75,-36.35,-22.09,-10.65,-14.3,-10.38,-10.48,0.9559,-6.366,1.447,-1.634,4.8,-1.752,-2.863,-1.653,0.269,0,0,0,0,0,0,0,0,0,0,0,0,0,0,0,0,
495,-32.19,-26.63,-15.03,3.926,-9.798,-0.847,1.651,9.574,-2.236,4.294,4.213,7.214,-2.155,-0.0505,0.5075,1.645,0,0,0,0,0,0,0,0,0,0,0,0,0,0,0,0,
496,-32.99,-25.68,-16.09,7.998,-11.78,-1.692,-3.22,8.287,-6.132,1.819,-3.567,2.262,-7.561,-3.337,-4.687,-1.098,0,0,0,0,0,0,0,0,0,0,0,0,0,0,0,0,
497,-43.95,-31.75,-26.3,1.871,-16.74,-9.113,-8.177,-0.3631,-8.058,-4.555,-3.033,-1.378,-0.6647,-1.39,-0.0179,4.279,0,0,0,0,0,0,0,0,0,0,0,0,0,0,0,0,
498,-48.03,-34.99,-24.2,-3.308,-13.52,-10.18,6.756,-1.303,2.894,-3.238,13.12,4.005,15.27,9.977,12.38,13.06,0,0,0,0,0,0,0,0,0,0,0,0,0,0,0,0,
499,-37.14,-30.72,-8.571,-5.655,-5.872,-7.151,17.23,1.489,15.03,5.573,18.07,5.17,15.57,13.44,11.36,10.4,0,0,0,0,0,0,0,0,0,0,0,0,0,0,0,0,
500,-32.74,-30.03,-8.617,-10.02,-11.35,-11.5,5.119,-2.561,5.137,7.169,6.055,-0.8189,-0.1079,6.155,2.948,3.921,0,0,0,0,0,0,0,0,0,0,0,0,0,0,0,0,
501,-41.48,-35.27,-21.63,-12.58,-24.48,-19.02,-8.605,-4.313,-18.94,1.27,-1.031,1.755,-7.28,3.767,5.13,7.034,0,0,0,0,0,0,0,0,0,0,0,0,0,0,0,0,
502,-43.54,-36.01,-21.17,-13.7,-26.02,-20.87,-12.1,-1.115,-21.85,-0.0573,-1.426,6.398,-4.521,3.602,5.286,7.146,0,0,0,0,0,0,0,0,0,0,0,0,0,0,0,0,
503,-41.56,-36.8,-18.9,-20.83,-23.93,-23.09,-13.81,-3.312,-8.952,-1.94,-7.844,-1.204,-8.406,-5.164,-7.959,-5.711,0,0,0,0,0,0,0,0,0,0,0,0,0,0,0,0,
504,-46.34,-40.37,-27.6,-24.02,-26.13,-23.91,-14.17,-3.144,-11.29,-9.025,-11.54,-4.427,-10.37,-8.508,-10.56,-9.112,0,0,0,0,0,0,0,0,0,0,0,0,0,0,0,0,
505,-41.93,-31.89,-22.41,-12.05,-16.74,-11.27,-5.157,6.402,-4.239,-3.906,1.591,8.062,4.084,5.485,8.47,8.945,0,0,0,0,0,0,0,0,0,0,0,0,0,0,0,0,
506,-30.91,-20.69,-9.463,-6.947,-6.793,-2.193,5.266,4.67,23.37,8.977,10.92,11.13,11.74,11.83,15.78,17.45,0,0,0,0,0,0,0,0,0,0,0,0,0,0,0,0,
507,-35.96,-26.61,-16.9,-19.86,-16.32,-14.05,-0.2026,-11.51,19.16,1.673,-3.922,-3.82,-5.096,-3.395,-1.429,2.359,0,0,0,0,0,0,0,0,0,0,0,0,0,0,0,0,
508,-42.13,-31.99,-21.8,-23.52,-21.01,-22.32,-9.753,-16.06,-9.625,-13.62,-14.89,-11.62,-16.99,-12.86,-10.74,-6.138,0,0,0,0,0,0,0,0,0,0,0,0,0,0,0,0,
509,-35.36,-27.62,-11.85,-18.16,-13.39,-18.21,-6.526,-11.34,-13.57,-12.78,-4.844,-8.303,-10.58,-8.858,-3.306,0.7778,0,0,0,0,0,0,0,0,0,0,0,0,0,0,0,0,
510,-35.22,-31.03,-15.2,-22.12,-18.33,-21.36,-4.851,-12.41,-11.32,-10.88,1.384,-6.988,-7.924,-8.343,2.248,4.923,0,0,0,0,0,0,0,0,0,0,0,0,0,0,0,0,
511,-38.38,-33.01,-21.65,-19.71,-23.04,-22.29,-8.147,-8.782,-20.61,-13.1,0.6934,-6.935,-8.512,-7.475,4.78,3.579,0,0,0,0,0,0,0,0,0,0,0,0,0,0,0,0,
512,-32.64,-26.36,-15.1,-13.23,-14.59,-14.25,-4.65,-5.688,-19.89,-9.09,3.016,-11.67,-4.396,-6.775,3.648,-2.852,0,0,0,0,0,0,0,0,0,0,0,0,0,0,0,0,
513,-31.73,-28.57,-13.92,-21.99,-12.83,-15.21,-3.212,-16.65,-15.09,-11.68,-0.9108,-19.32,-4.55,-14.34,-2.531,-9.617,0,0,0,0,0,0,0,0,0,0,0,0,0,0,0,0,
514,-34.01,-32.9,-13.67,-26.86,-14.45,-19.18,-4.989,-21.8,-16.9,-20.31,-4.224,-13.7,-4.166,-14.36,0.372,-2.627,0,0,0,0,0,0,0,0,0,0,0,0,0,0,0,0,
515,-29.18,-28.45,-5.902,-19.47,-9.933,-16.16,0.7081,-13.08,-12.51,-17.49,2.429,-1.79,2.829,-1.861,9.362,8.951,0,0,0,0,0,0,0,0,0,0,0,0,0,0,0,0,
516,-27.56,-27.66,-8.417,-18.83,-11.55,-17.26,4.012,-9.448,-4.421,-10.19,3.363,-0.4756,5.002,4.404,6.132,8.053,0,0,0,0,0,0,0,0,0,0,0,0,0,0,0,0,
517,-32.54,-31.37,-19.79,-20.76,-18.66,-21.08,-2.01,-9.214,-5.472,-7.505,-4.308,-3.195,-0.8385,1.462,-4.5,1.044,0,0,0,0,0,0,0,0,0,0,0,0,0,0,0,0,
518,-35.47,-31.5,-24.22,-16.56,-22.74,-20.29,-6.348,-4.319,-10.09,-5.423,-5.684,-3.244,-6.266,-1.955,-7.152,-2.556,0,0,0,0,0,0,0,0,0,0,0,0,0,0,0,0,
519,-32.79,-29.16,-19.81,-13.0,-22.66,-17.96,-5.063,-3.468,-10.82,-4.724,-0.387,-4.006,-7.126,-3.248,-2.989,-2.459,0,0,0,0,0,0,0,0,0,0,0,0,0,0,0,0,
520,-28.67,-26.17,-13.57,-12.86,-18.74,-15.76,-3.927,-8.459,-11.47,-5.106,0.1494,-6.439,-7.768,-4.71,-3.319,-2.272,0,0,0,0,0,0,0,0,0,0,0,0,0,0,0,0,
521,-31.8,-25.11,-17.02,-15.0,-18.87,-17.59,-6.753,-14.87,-13.21,-8.418,-8.35,-12.88,-14.41,-12.79,-10.32,-6.994,0,0,0,0,0,0,0,0,0,0,0,0,0,0,0,0,
522,-37.21,-26.17,-25.35,-18.34,-23.33,-23.65,-9.451,-22.25,-15.36,-20.18,-16.33,-20.98,-20.94,-24.71,-14.12,-12.7,0,0,0,0,0,0,0,0,0,0,0,0,0,0,0,0,
523,-32.84,-23.84,-21.19,-19.03,-20.75,-23.62,-6.325,-24.04,-17.98,-32.21,-15.1,-23.38,-19.64,-30.45,-11.63,-13.15,0,0,0,0,0,0,0,0,0,0,0,0,0,0,0,0,
524,-21.2,-13.93,-8.184,-11.85,-12.89,-16.74,-0.1592,-18.18,-17.71,-34.67,-8.338,-21.18,-15.26,-30.06,-7.788,-9.983,0,0,0,0,0,0,0,0,0,0,0,0,0,0,0,0,
525,-8.763,-1.999,3.283,-2.464,-4.791,-10.97,7.885,-13.86,-13.39,-29.68,1.214,-15.48,-8.106,-22.32,-0.9532,-2.084,0,0,0,0,0,0,0,0,0,0,0,0,0,0,0,0,
526,-5.841,-4.041,8.816,-6.551,1.62,-8.415,11.86,-13.05,-5.017,-19.27,6.97,-7.378,-0.0309,-8.347,3.945,6.177,0,0,0,0,0,0,0,0,0,0,0,0,0,0,0,0,
527,-22.84,-21.62,-3.374,-23.41,-7.774,-15.26,-5.201,-16.73,-1.803,-11.91,-4.122,-10.02,-7.586,-8.027,-5.327,-0.3591,0,0,0,0,0,0,0,0,0,0,0,0,0,0,0,0,
528,-43.97,-36.55,-28.28,-38.81,-32.19,-33.94,-27.56,-27.08,-17.9,-20.7,-17.81,-20.3,-24.4,-20.97,-16.11,-11.52,0,0,0,0,0,0,0,0,0,0,0,0,0,0,0,0,
529,-47.25,-40.11,-38.16,-43.2,-41.95,-43.21,-20.91,-27.15,-34.85,-31.53,-10.04,-13.75,-21.05,-16.97,-7.882,-2.08,0,0,0,0,0,0,0,0,0,0,0,0,0,0,0,0,
530,-36.47,-33.88,-26.03,-31.94,-28.46,-30.8,-2.746,-10.64,-26.86,-22.84,3.548,2.993,-4.659,-0.6895,4.917,13.03,0,0,0,0,0,0,0,0,0,0,0,0,0,0,0,0,
531,-24.8,-21.83,-11.11,-14.19,-16.18,-18.2,-1.132,-0.8125,-10.38,-10.42,4.182,4.371,-2.706,-1.58,3.506,9.101,0,0,0,0,0,0,0,0,0,0,0,0,0,0,0,0,
532,-18.88,-15.09,-6.907,-6.033,-15.53,-18.32,-0.9128,-2.534,-7.928,-13.58,2.753,-3.621,-9.13,-12.7,-1.796,-0.8183,0,0,0,0,0,0,0,0,0,0,0,0,0,0,0,0,
533,-19.53,-16.32,-10.17,-8.642,-15.43,-19.45,3.006,-3.674,-12.12,-20.2,1.188,-8.797,-9.781,-16.38,-2.922,-4.359,0,0,0,0,0,0,0,0,0,0,0,0,0,0,0,0,
534,-18.65,-14.08,-7.837,-9.888,-8.556,-12.68,2.704,-5.224,-6.175,-17.96,-2.624,-11.66,-6.09,-12.97,-2.419,-4.701,0,0,0,0,0,0,0,0,0,0,0,0,0,0,0,0,
535,-9.482,-3.794,5.201,-0.6052,4.784,2.936,10.56,-3.61,9.418,-6.051,2.861,-6.626,2.704,-2.231,2.954,1.366,0,0,0,0,0,0,0,0,0,0,0,0,0,0,0,0,
536,-0.6757,3.954,15.2,7.198,16.38,16.7,21.61,1.56,17.38,11.01,13.09,2.601,12.55,9.524,10.59,9.008,0,0,0,0,0,0,0,0,0,0,0,0,0,0,0,0,
537,-2.077,0.8919,11.79,0.5819,16.66,14.87,17.82,0.0628,15.12,18.17,15.37,5.715,14.07,11.69,13.08,9.953,0,0,0,0,0,0,0,0,0,0,0,0,0,0,0,0,
538,-6.528,-3.698,4.535,-6.148,9.848,6.059,6.854,-1.195,11.02,11.2,10.08,6.001,7.27,6.445,9.09,7.215,0,0,0,0,0,0,0,0,0,0,0,0,0,0,0,0,
539,-7.564,-3.807,0.9951,-7.949,2.924,-0.0483,-2.498,2.227,1.505,0.3612,-1.886,1.755,-5.055,-4.665,-1.489,-0.5165,0,0,0,0,0,0,0,0,0,0,0,0,0,0,0,0,
540,-14.54,-10.62,-7.343,-17.83,-7.621,-10.07,-12.78,-2.626,-12.09,-13.11,-14.32,-9.814,-17.98,-19.24,-13.25,-12.17,0,0,0,0,0,0,0,0,0,0,0,0,0,0,0,0,
541,-26.74,-20.91,-19.79,-24.11,-17.66,-16.59,-16.99,-9.458,-22.69,-24.24,-15.8,-13.62,-20.94,-23.75,-14.92,-14.86,0,0,0,0,0,0,0,0,0,0,0,0,0,0,0,0,
542,-25.53,-16.68,-16.6,-13.36,-12.41,-6.566,-7.689,-3.13,-23.57,-18.1,-6.888,-4.562,-11.17,-14.6,-6.083,-7.124,0,0,0,0,0,0,0,0,0,0,0,0,0,0,0,0,
543,-11.73,-4.793,-0.8626,-3.252,1.841,6.825,3.89,5.386,-8.226,-0.1932,2.069,1.443,-0.0772,-5.041,1.001,-1.855,0,0,0,0,0,0,0,0,0,0,0,0,0,0,0,0,
544,-6.501,-2.772,1.287,-3.701,5.024,8.544,3.62,4.156,7.25,8.769,4.05,1.125,3.201,-1.29,2.827,-1.095,0,0,0,0,0,0,0,0,0,0,0,0,0,0,0,0,
545,-9.425,-4.249,-3.214,-1.391,2.851,6.204,0.9431,2.8,7.943,8.152,3.613,3.423,4.033,1.821,6.103,0.9821,0,0,0,0,0,0,0,0,0,0,0,0,0,0,0,0,
546,-8.71,-2.127,0.6367,1.736,4.123,4.71,4.323,5.313,3.821,7.953,3.521,2.696,2.806,1.763,4.72,-2.917,0,0,0,0,0,0,0,0,0,0,0,0,0,0,0,0,
547,-10.87,-3.809,-5.36,-4.903,-3.237,-1.335,1.443,4.043,-3.991,4.15,-1.137,-5.674,-6.508,-5.835,-5.345,-14.56,0,0,0,0,0,0,0,0,0,0,0,0,0,0,0,0,
548,-17.95,-7.82,-20.31,-10.57,-15.53,-8.624,-5.427,-1.72,-17.12,-5.075,-4.589,-13.67,-13.63,-14.28,-10.37,-20.13,0,0,0,0,0,0,0,0,0,0,0,0,0,0,0,0,
549,-22.6,-11.28,-23.87,-11.86,-20.3,-14.11,-7.623,-11.97,-25.69,-13.95,-4.865,-22.23,-13.99,-21.37,-10.54,-21.42,0,0,0,0,0,0,0,0,0,0,0,0,0,0,0,0,
550,-25.33,-16.54,-20.93,-17.08,-20.61,-17.42,-11.94,-20.53,-26.88,-22.15,-7.751,-27.98,-15.83,-25.83,-11.55,-22.67,0,0,0,0,0,0,0,0,0,0,0,0,0,0,0,0,
551,-20.02,-13.86,-12.15,-14.31,-11.74,-11.03,-9.823,-13.53,-18.0,-22.45,-4.046,-20.38,-12.28,-20.3,-5.899,-15.5,0,0,0,0,0,0,0,0,0,0,0,0,0,0,0,0,
552,-6.596,-4.128,3.568,-4.535,3.538,-2.033,3.107,-3.703,-2.206,-11.94,2.135,-13.76,-5.77,-14.62,-4.106,-11.28,0,0,0,0,0,0,0,0,0,0,0,0,0,0,0,0,
553,-4.358,-5.603,6.11,-7.948,4.191,-5.83,3.83,-8.809,3.933,-6.784,-5.399,-16.24,-11.82,-18.39,-14.45,-17.21,0,0,0,0,0,0,0,0,0,0,0,0,0,0,0,0,
554,-14.97,-15.87,-6.494,-16.18,-7.99,-15.1,-8.153,-12.06,-2.611,-9.238,-13.83,-9.622,-21.54,-19.12,-18.21,-15.08,0,0,0,0,0,0,0,0,0,0,0,0,0,0,0,0,
555,-24.36,-22.65,-19.59,-15.49,-18.65,-19.3,-14.01,-4.284,-12.84,-9.934,-13.57,1.135,-24.15,-14.33,-14.22,-8.407,0,0,0,0,0,0,0,0,0,0,0,0,0,0,0,0,
556,-28.9,-24.35,-27.94,-10.47,-24.61,-18.67,-15.67,0.4115,-21.36,-11.38,-14.33,0.7934,-22.96,-11.47,-14.0,-10.48,0,0,0,0,0,0,0,0,0,0,0,0,0,0,0,0,
557,-26.26,-18.02,-26.28,-2.479,-22.49,-12.52,-15.9,1.421,-22.38,-11.03,-12.12,-1.64,-16.59,-8.209,-12.37,-11.75,0,0,0,0,0,0,0,0,0,0,0,0,0,0,0,0,
558,-21.02,-11.38,-19.68,2.058,-17.5,-7.226,-11.34,2.717,-17.94,-8.306,-6.583,-1.352,-10.48,-5.593,-8.472,-7.983,0,0,0,0,0,0,0,0,0,0,0,0,0,0,0,0,
559,-19.68,-12.89,-15.12,0.2257,-13.36,-4.375,-7.497,3.904,-16.12,-9.358,-4.227,0.6114,-7.366,-1.966,-1.893,-0.9295,0,0,0,0,0,0,0,0,0,0,0,0,0,0,0,0,
560,-9.072,-5.389,-1.821,6.878,1.572,7.559,-2.308,9.117,-9.485,-3.204,4.309,6.934,4.138,6.69,11.35,9.243,0,0,0,0,0,0,0,0,0,0,0,0,0,0,0,0,
561,10.66,12.47,14.74,16.92,18.78,20.01,9.196,9.632,8.757,10.59,15.25,4.562,15.19,6.958,15.78,7.507,0,0,0,0,0,0,0,0,0,0,0,0,0,0,0,0,
562,13.08,12.29,14.24,9.443,17.45,14.63,14.13,-2.844,18.04,9.303,12.1,-9.036,10.14,-4.299,6.333,-4.408,0,0,0,0,0,0,0,0,0,0,0,0,0,0,0,0,
563,0.3405,-1.108,5.503,-1.838,9.129,4.753,9.471,-7.867,9.911,-1.254,8.315,-7.426,5.754,-3.945,7.964,0.9809,0,0,0,0,0,0,0,0,0,0,0,0,0,0,0,0,
564,-2.525,-1.345,4.316,1.545,8.755,5.707,10.96,3.612,7.084,1.367,16.93,9.422,12.64,8.949,20.6,16.14,0,0,0,0,0,0,0,0,0,0,0,0,0,0,0,0,
565,-2.076,-0.6504,4.032,-0.1679,5.805,2.953,12.52,6.89,8.57,5.777,17.5,13.04,13.31,11.89,19.62,13.85,0,0,0,0,0,0,0,0,0,0,0,0,0,0,0,0,
566,-6.744,-7.814,4.412,-7.641,2.901,-3.213,4.336,1.841,3.296,1.906,10.08,10.65,12.13,11.75,15.6,10.09,0,0,0,0,0,0,0,0,0,0,0,0,0,0,0,0,
567,-1.118,-1.645,7.3,2.098,9.424,4.182,3.433,8.257,8.065,7.437,16.71,18.22,21.65,19.44,22.15,16.79,0,0,0,0,0,0,0,0,0,0,0,0,0,0,0,0,
568,0.8073,4.093,-4.359,3.316,5.048,7.134,7.998,7.908,15.48,14.52,20.34,12.9,18.85,11.81,16.46,7.832,0,0,0,0,0,0,0,0,0,0,0,0,0,0,0,0,
569,-17.96,-10.71,-22.84,-18.12,-13.98,-7.628,-0.7378,-8.444,1.732,0.5083,5.063,-5.937,-1.357,-9.705,1.276,-9.337,0,0,0,0,0,0,0,0,0,0,0,0,0,0,0,0,
570,-24.82,-15.82,-20.36,-18.88,-17.95,-12.03,-9.597,-9.9,-14.77,-13.83,-2.716,-6.374,-7.543,-11.3,3.235,-5.252,0,0,0,0,0,0,0,0,0,0,0,0,0,0,0,0,
571,-11.51,-3.684,-10.14,-3.313,-8.565,-2.485,-5.345,0.7749,-15.27,-8.003,1.745,2.968,-0.8938,-0.0108,7.801,4.52,0,0,0,0,0,0,0,0,0,0,0,0,0,0,0,0,
572,-9.168,-3.254,-7.701,-7.766,-5.309,-1.867,-0.6995,-1.602,-10.66,-1.753,-1.827,-0.716,-4.006,-1.47,-2.617,0.4163,0,0,0,0,0,0,0,0,0,0,0,0,0,0,0,0,
573,-15.27,-12.19,-2.99,-18.04,-5.96,-9.387,-4.654,-7.966,-8.103,-6.697,-10.82,-6.811,-14.09,-8.907,-13.28,-6.681,0,0,0,0,0,0,0,0,0,0,0,0,0,0,0,0,
574,-22.16,-22.07,-9.147,-22.93,-13.04,-19.27,-14.45,-9.86,-11.18,-15.58,-16.15,-6.02,-19.07,-10.76,-13.04,-5.91,0,0,0,0,0,0,0,0,0,0,0,0,0,0,0,0,
575,-30.44,-29.81,-21.37,-26.28,-18.71,-23.18,-14.39,-10.2,-14.9,-19.76,-9.043,-0.4088,-8.083,-5.4,0.4835,4.659,0,0,0,0,0,0,0,0,0,0,0,0,0,0,0,0,
576,-19.52,-20.32,-6.646,-20.57,-5.691,-12.14,2.171,-7.763,-2.915,-12.36,9.779,2.767,10.42,-1.194,12.33,9.145,0,0,0,0,0,0,0,0,0,0,0,0,0,0,0,0,
577,-1.212,-9.783,11.41,-18.22,3.507,-6.496,8.616,-11.41,9.769,-9.049,11.94,-7.018,8.122,-10.75,0.9374,-5.099,0,0,0,0,0,0,0,0,0,0,0,0,0,0,0,0,
578,-1.562,-13.66,6.837,-20.92,-2.463,-10.51,-0.8594,-13.92,1.304,-17.24,-1.561,-12.87,-2.683,-15.99,-10.04,-10.87,0,0,0,0,0,0,0,0,0,0,0,0,0,0,0,0,
579,0.4176,-7.228,7.636,-13.14,2.615,-1.735,0.1875,-1.267,-0.4279,-10.23,0.0791,-0.5706,4.744,-1.37,0.0128,2.2,0,0,0,0,0,0,0,0,0,0,0,0,0,0,0,0,
580,5.755,0.9435,9.053,-13.04,6.148,3.601,5.018,4.111,14.46,6.221,2.795,4.839,7.09,6.097,0.8842,3.124,0,0,0,0,0,0,0,0,0,0,0,0,0,0,0,0,
581,-8.933,-13.82,-7.702,-25.27,-11.1,-10.33,-3.267,-5.107,7.078,1.582,-10.21,-2.946,-6.53,-1.286,-11.19,-7.054,0,0,0,0,0,0,0,0,0,0,0,0,0,0,0,0,
582,-21.25,-24.92,-17.0,-24.55,-21.77,-18.95,-10.05,-5.021,-12.93,-9.778,-14.88,-3.68,-10.04,-1.992,-10.04,-5.967,0,0,0,0,0,0,0,0,0,0,0,0,0,0,0,0,
583,-14.91,-17.85,-11.36,-17.84,-16.67,-16.65,-7.724,-0.0378,-12.54,-9.694,-8.474,0.0011,-6.107,0.5986,-3.879,-0.4364,0,0,0,0,0,0,0,0,0,0,0,0,0,0,0,0,
584,-7.936,-11.6,-2.555,-15.81,-9.378,-11.81,-2.852,0.5601,-9.624,-8.275,-6.946,0.751,-7.75,-0.9169,-4.662,1.27,0,0,0,0,0,0,0,0,0,0,0,0,0,0,0,0,
585,-1.433,-5.298,10.78,-8.719,1.28,-1.007,0.7523,3.588,-10.24,-5.908,-8.241,-1.608,-10.39,-3.368,-7.77,-1.581,0,0,0,0,0,0,0,0,0,0,0,0,0,0,0,0,
586,3.61,0.8755,11.82,-3.481,4.386,4.632,-4.207,2.504,-5.043,-3.033,-13.68,-9.408,-16.74,-10.68,-14.46,-10.88,0,0,0,0,0,0,0,0,0,0,0,0,0,0,0,0,
587,-1.316,-2.125,-4.066,-3.325,-6.873,0.655,-12.53,-0.8615,-9.817,-5.113,-20.72,-11.92,-21.83,-15.4,-17.29,-14.76,0,0,0,0,0,0,0,0,0,0,0,0,0,0,0,0,
588,-6.797,-6.391,-11.61,-1.406,-14.09,-0.6998,-11.01,2.394,-16.53,-5.013,-13.24,-3.69,-12.03,-6.769,-4.841,-4.913,0,0,0,0,0,0,0,0,0,0,0,0,0,0,0,0,
589,-5.785,-3.924,-4.653,-1.142,-8.032,2.883,2.392,6.587,-6.621,0.6987,15.56,11.05,12.86,14.03,24.9,18.65,0,0,0,0,0,0,0,0,0,0,0,0,0,0,0,0,
590,7.039,10.84,17.93,9.503,13.88,19.55,33.73,17.96,15.11,16.54,61.51,38.89,50.51,46.46,68.62,56.84,0,0,0,0,0,0,0,0,0,0,0,0,0,0,0,0,
591,34.86,35.6,51.77,32.91,44.84,47.12,73.35,37.34,46.5,44.63,101.2,65.63,84.0,73.08,100.1,85.9,0,0,0,0,0,0,0,0,0,0,0,0,0,0,0,0,
592,48.85,43.42,59.66,36.48,53.49,53.77,81.87,43.38,69.48,59.79,101.9,65.27,84.89,71.08,93.8,82.0,0,0,0,0,0,0,0,0,0,0,0,0,0,0,0,0,
593,30.26,25.56,33.64,18.16,33.5,34.61,51.78,35.1,60.11,48.15,68.49,48.43,57.87,49.94,64.0,59.48,0,0,0,0,0,0,0,0,0,0,0,0,0,0,0,0,
594,6.321,6.407,9.264,3.814,12.42,14.44,17.02,22.55,31.56,27.12,30.3,30.76,26.45,25.35,30.83,33.01,0,0,0,0,0,0,0,0,0,0,0,0,0,0,0,0,
595,-4.162,-3.743,-2.514,-5.256,1.054,0.5112,-3.661,8.147,7.649,6.978,2.694,11.93,2.433,3.75,1.793,7.54,0,0,0,0,0,0,0,0,0,0,0,0,0,0,0,0,
596,-9.009,-9.585,-6.904,-8.915,-2.647,-5.742,-10.52,2.872,-0.79,-4.962,-6.869,0.4423,-7.314,-5.244,-12.54,-4.096,0,0,0,0,0,0,0,0,0,0,0,0,0,0,0,0,
597,-12.22,-12.29,-2.948,-6.451,-0.2364,-2.971,-7.841,4.732,1.341,-2.923,-4.569,-0.2073,-7.764,-5.215,-14.87,-4.436,0,0,0,0,0,0,0,0,0,0,0,0,0,0,0,0,
598,-12.84,-13.11,-0.8384,-8.002,1.056,-0.6865,-4.857,2.702,-0.2101,1.336,-4.509,3.612,-7.18,-3.076,-14.52,-3.353,0,0,0,0,0,0,0,0,0,0,0,0,0,0,0,0,
599,-11.16,-11.08,-4.357,-8.819,-0.1103,-3.05,-3.75,2.487,-2.099,2.825,-3.851,6.891,-4.001,1.76,-10.4,-1.757,0,0,0,0,0,0,0,0,0,0,0,0,0,0,0,0,
600,-10.23,-8.994,-5.599,-7.303,-3.348,-8.159,-4.777,1.702,-0.7682,2.856,-3.019,2.049,-3.64,0.5154,-7.617,-5.386,0,0,0,0,0,0,0,0,0,0,0,0,0,0,0,0,
601,-13.07,-10.42,-8.006,-11.77,-10.1,-12.76,-13.93,-5.427,-4.985,-3.886,-11.81,-7.028,-8.696,-7.185,-11.28,-11.52,0,0,0,0,0,0,0,0,0,0,0,0,0,0,0,0,
602,-14.46,-9.482,-13.35,-13.83,-11.63,-10.68,-22.6,-7.36,-9.663,-10.26,-20.62,-9.152,-10.01,-9.931,-14.01,-10.33,0,0,0,0,0,0,0,0,0,0,0,0,0,0,0,0,
603,-8.505,-4.98,-9.112,-9.253,-2.974,-4.624,-13.56,-2.263,-8.264,-9.717,-15.9,-6.069,-7.016,-9.69,-10.62,-6.179,0,0,0,0,0,0,0,0,0,0,0,0,0,0,0,0,
604,2.263,-1.307,5.555,-3.93,6.47,-1.343,6.02,1.358,-5.976,-9.493,-3.543,-0.599,-1.936,-7.961,-2.621,-1.973,0,0,0,0,0,0,0,0,0,0,0,0,0,0,0,0,
605,9.576,2.679,13.61,5.902,10.12,1.205,13.87,5.168,-3.523,-8.25,4.287,6.212,4.178,-1.042,2.898,3.419,0,0,0,0,0,0,0,0,0,0,0,0,0,0,0,0,
606,9.151,6.801,11.51,16.03,9.402,4.735,5.781,10.56,0.6105,-2.26,-0.6571,8.33,1.309,2.066,-2.632,3.338,0,0,0,0,0,0,0,0,0,0,0,0,0,0,0,0,
607,4.803,7.086,6.655,13.55,4.152,4.317,-6.842,12.41,-0.4951,0.4414,-13.51,4.784,-10.24,-3.966,-12.91,-1.883,0,0,0,0,0,0,0,0,0,0,0,0,0,0,0,0,
608,-1.646,1.509,-3.786,3.402,-3.237,-0.2245,-11.41,8.36,-10.38,-2.986,-13.89,1.715,-12.61,-5.912,-11.84,-2.87,0,0,0,0,0,0,0,0,0,0,0,0,0,0,0,0,
609,-6.149,-4.267,-11.7,0.4406,-3.272,0.353,-3.404,4.568,-12.05,-1.362,0.2231,5.802,-0.1136,4.653,1.121,3.078,0,0,0,0,0,0,0,0,0,0,0,0,0,0,0,0,
610,-3.362,-4.516,-6.172,1.874,0.8832,5.464,-0.0929,6.186,1.702,9.916,3.831,13.16,10.32,14.47,8.952,8.584,0,0,0,0,0,0,0,0,0,0,0,0,0,0,0,0,
611,-3.535,-5.845,-3.776,-2.248,-3.694,4.172,-12.52,8.054,5.546,17.33,-6.246,13.48,8.814,13.81,5.88,8.489,0,0,0,0,0,0,0,0,0,0,0,0,0,0,0,0,
612,-7.938,-7.328,-8.88,-2.282,-7.144,3.521,-15.58,9.695,-4.16,16.74,-5.772,12.79,9.164,14.51,6.702,10.13,0,0,0,0,0,0,0,0,0,0,0,0,0,0,0,0,
613,-0.7007,2.038,-1.755,7.746,3.077,12.45,1.143,14.84,-0.623,19.59,5.709,16.53,16.77,18.29,13.14,14.93,0,0,0,0,0,0,0,0,0,0,0,0,0,0,0,0,
614,9.521,11.74,10.34,10.84,10.69,14.11,10.46,14.64,12.37,19.16,7.611,11.21,15.13,9.819,8.798,10.68,0,0,0,0,0,0,0,0,0,0,0,0,0,0,0,0,
615,4.851,5.78,6.644,1.278,3.062,-0.2259,6.411,5.1,12.31,4.761,0.8053,-0.6157,3.376,-5.01,-2.283,0.6316,0,0,0,0,0,0,0,0,0,0,0,0,0,0,0,0,
616,-5.24,-5.937,-4.183,-6.475,-7.098,-11.43,8.426,-0.2437,5.701,-7.423,0.7549,0.4185,0.1205,-6.64,-1.817,0.559,0,0,0,0,0,0,0,0,0,0,0,0,0,0,0,0,
617,-5.562,-6.436,-1.246,-3.053,-5.744,-6.667,17.69,5.426,8.918,-4.005,9.273,9.579,7.581,1.798,6.387,6.92,0,0,0,0,0,0,0,0,0,0,0,0,0,0,0,0,
618,0.604,0.1977,8.517,2.609,1.186,2.05,19.18,9.24,14.3,3.423,13.49,7.826,10.38,3.166,6.186,5.221,0,0,0,0,0,0,0,0,0,0,0,0,0,0,0,0,
619,-5.581,-6.653,-2.463,-7.124,-6.013,-3.193,3.749,-1.242,7.193,0.7093,2.029,-4.705,-0.1082,-6.773,-4.789,-5.314,0,0,0,0,0,0,0,0,0,0,0,0,0,0,0,0,
620,-26.97,-26.34,-26.23,-23.32,-23.46,-16.8,-14.92,-13.97,-7.583,-11.06,-14.97,-12.45,-15.01,-16.07,-14.34,-13.91,0,0,0,0,0,0,0,0,0,0,0,0,0,0,0,0,
621,-32.4,-28.68,-25.44,-20.02,-23.16,-15.84,-11.95,-9.188,-17.13,-16.66,-14.94,-7.893,-17.67,-14.66,-11.18,-13.11,0,0,0,0,0,0,0,0,0,0,0,0,0,0,0,0,
622,-10.33,-6.998,-2.636,-5.973,-5.341,-1.782,5.453,2.836,-15.67,-8.172,-1.379,-1.683,-8.151,-8.833,-2.654,-8.066,0,0,0,0,0,0,0,0,0,0,0,0,0,0,0,0,
623,6.931,8.846,8.931,-6.766,3.285,1.958,8.288,-0.2746,-8.24,-1.211,2.34,-4.704,-3.553,-8.943,-2.458,-8.17,0,0,0,0,0,0,0,0,0,0,0,0,0,0,0,0,
624,2.329,4.861,0.0361,-17.37,-2.884,-6.391,-3.591,-11.13,-7.805,-7.922,-3.643,-9.929,-7.034,-13.24,-5.332,-11.1,0,0,0,0,0,0,0,0,0,0,0,0,0,0,0,0,
625,-6.759,-2.92,-13.46,-18.15,-8.934,-9.363,-11.44,-11.76,-13.09,-15.66,-5.837,-10.75,-8.538,-16.36,-5.786,-12.25,0,0,0,0,0,0,0,0,0,0,0,0,0,0,0,0,
626,-10.32,-5.309,-17.96,-12.28,-10.21,-7.0,-13.85,-8.956,-13.83,-16.38,-9.167,-14.8,-11.36,-19.36,-12.26,-15.97,0,0,0,0,0,0,0,0,0,0,0,0,0,0,0,0,
627,-14.27,-8.441,-17.73,-14.4,-12.74,-10.28,-16.63,-12.33,-15.93,-19.5,-17.06,-20.51,-19.17,-20.86,-19.43,-19.15,0,0,0,0,0,0,0,0,0,0,0,0,0,0,0,0,
628,-14.65,-7.285,-17.18,-14.16,-13.61,-12.33,-15.85,-10.46,-23.52,-21.98,-19.09,-17.16,-21.95,-16.39,-16.41,-14.9,0,0,0,0,0,0,0,0,0,0,0,0,0,0,0,0,
629,-5.551,3.015,-10.86,-1.203,-9.597,-7.182,-10.8,-1.315,-27.37,-14.99,-15.27,-11.57,-19.45,-11.67,-12.13,-11.8,0,0,0,0,0,0,0,0,0,0,0,0,0,0,0,0,
630,-0.8134,4.548,-7.267,2.434,-11.01,-9.171,-10.74,-3.078,-27.18,-11.14,-14.64,-14.42,-20.64,-14.27,-13.84,-15.64,0,0,0,0,0,0,0,0,0,0,0,0,0,0,0,0,
631,-7.524,-6.601,-14.87,-9.399,-19.3,-20.11,-19.15,-13.4,-30.63,-18.9,-18.32,-17.43,-22.41,-17.87,-16.46,-17.79,0,0,0,0,0,0,0,0,0,0,0,0,0,0,0,0,
632,-11.18,-10.29,-20.53,-14.14,-21.89,-22.76,-23.27,-11.73,-32.48,-23.35,-18.64,-11.29,-17.41,-13.51,-14.98,-13.82,0,0,0,0,0,0,0,0,0,0,0,0,0,0,0,0,
633,-9.689,-8.328,-17.41,-11.01,-17.38,-17.38,-12.54,-3.412,-21.22,-16.7,-9.199,-3.453,-7.915,-5.849,-7.482,-8.183,0,0,0,0,0,0,0,0,0,0,0,0,0,0,0,0,
634,-12.83,-13.13,-12.63,-11.11,-13.5,-16.83,-2.669,-7.082,-7.405,-10.0,-1.849,-5.718,-3.745,-5.729,-3.63,-7.802,0,0,0,0,0,0,0,0,0,0,0,0,0,0,0,0,
635,-16.14,-15.83,-9.676,-11.13,-11.82,-18.43,-9.974,-14.28,-7.094,-10.83,-8.352,-11.76,-6.814,-9.431,-7.93,-10.22,0,0,0,0,0,0,0,0,0,0,0,0,0,0,0,0,
636,-14.17,-12.12,-10.66,-11.48,-10.37,-15.33,-17.26,-9.543,-9.137,-11.68,-12.65,-7.096,-6.323,-4.867,-5.152,-5.106,0,0,0,0,0,0,0,0,0,0,0,0,0,0,0,0,
637,-13.43,-12.65,-14.07,-16.98,-9.156,-13.14,-10.46,-4.144,-4.004,-6.402,-4.556,0.0584,-1.615,2.216,3.478,1.46,0,0,0,0,0,0,0,0,0,0,0,0,0,0,0,0,
638,-14.32,-15.68,-10.79,-19.82,-6.357,-13.19,-2.856,-7.224,0.339,-2.272,3.776,-0.8132,1.175,3.498,5.621,2.088,0,0,0,0,0,0,0,0,0,0,0,0,0,0,0,0,
639,-7.435,-10.03,0.6651,-11.14,2.7,-6.549,4.566,-4.588,6.552,-0.4716,12.81,1.287,8.826,7.477,11.58,7.193,0,0,0,0,0,0,0,0,0,0,0,0,0,0,0,0,
640,4.377,0.1222,9.473,-0.9979,13.16,2.117,17.65,1.993,18.82,4.654,24.26,4.433,18.93,11.57,21.51,12.61,0,0,0,0,0,0,0,0,0,0,0,0,0,0,0,0,
641,8.338,2.932,10.85,-2.2,14.33,1.095,20.89,-4.79,25.29,4.283,21.67,-4.308,15.75,3.241,15.5,4.151,0,0,0,0,0,0,0,0,0,0,0,0,0,0,0,0,
642,3.564,-0.9679,6.778,-6.838,7.518,-3.192,8.234,-15.35,16.05,-5.714,3.364,-13.53,1.677,-8.796,-2.638,-8.262,0,0,0,0,0,0,0,0,0,0,0,0,0,0,0,0,
643,-3.643,-4.875,-4.23,-4.097,0.3411,-2.081,-3.84,-14.12,1.17,-11.08,-10.96,-11.94,-8.946,-11.05,-12.52,-11.26,0,0,0,0,0,0,0,0,0,0,0,0,0,0,0,0,
644,-6.476,-2.899,-12.02,2.203,-1.103,1.755,-5.62,-8.912,-3.868,-7.526,-12.12,-8.484,-11.91,-6.906,-10.61,-7.987,0,0,0,0,0,0,0,0,0,0,0,0,0,0,0,0,
645,0.8648,6.295,-3.796,6.097,4.879,6.17,-0.8411,-6.576,-1.152,-3.868,-7.422,-7.398,-10.69,-3.478,-6.003,-3.725,0,0,0,0,0,0,0,0,0,0,0,0,0,0,0,0,
646,7.806,10.78,4.702,7.212,7.236,6.928,0.3314,-6.052,3.545,-3.068,-5.939,-5.76,-10.15,-3.128,-4.238,-0.9235,0,0,0,0,0,0,0,0,0,0,0,0,0,0,0,0,
647,3.22,5.474,-2.502,7.245,0.2035,1.642,-8.223,-8.403,5.079,-3.678,-9.607,-5.104,-13.09,-5.256,-5.768,-0.9833,0,0,0,0,0,0,0,0,0,0,0,0,0,0,0,0,
648,-2.79,1.992,-10.96,6.148,-4.664,-1.703,-16.28,-10.02,-8.294,-5.059,-11.98,-5.03,-15.79,-6.231,-8.845,-2.023,0,0,0,0,0,0,0,0,0,0,0,0,0,0,0,0,
649,-2.468,2.36,-8.0,5.458,-2.44,0.5829,-13.93,-7.542,-22.0,-5.1,-7.114,-1.7,-10.57,-2.125,-6.978,0.0735,0,0,0,0,0,0,0,0,0,0,0,0,0,0,0,0,
650,0.9569,3.949,-1.923,11.27,0.7826,5.478,-6.997,-1.969,-13.28,-0.1084,0.462,3.563,0.1606,4.779,1.595,4.611,0,0,0,0,0,0,0,0,0,0,0,0,0,0,0,0,
651,5.475,10.1,-1.244,20.83,2.247,11.59,-1.872,5.371,0.4826,7.71,3.529,5.039,3.399,7.174,5.727,5.141,0,0,0,0,0,0,0,0,0,0,0,0,0,0,0,0,
652,7.055,14.51,-0.6387,24.28,3.328,15.31,-0.3988,8.57,2.584,11.62,2.422,3.04,-0.551,5.579,2.083,2.043,0,0,0,0,0,0,0,0,0,0,0,0,0,0,0,0,
653,5.762,12.51,3.836,21.73,4.408,13.49,-4.815,4.902,2.776,12.83,-2.436,0.6449,-2.371,3.679,-2.407,-0.8715,0,0,0,0,0,0,0,0,0,0,0,0,0,0,0,0,
654,2.727,7.543,-0.7528,15.48,-0.2064,5.878,-9.578,-0.0877,1.214,10.92,-9.998,-3.668,-4.511,-1.179,-7.092,-4.676,0,0,0,0,0,0,0,0,0,0,0,0,0,0,0,0,
655,-5.122,-0.0166,-13.78,7.666,-8.087,-1.343,-6.075,-2.688,-4.279,2.313,-9.394,-4.535,-3.802,-1.403,-5.163,-2.407,0,0,0,0,0,0,0,0,0,0,0,0,0,0,0,0,
656,-7.401,-0.9373,-12.61,7.97,-4.427,4.523,1.165,0.0108,-1.982,1.276,1.7,3.546,6.877,10.03,7.032,8.639,0,0,0,0,0,0,0,0,0,0,0,0,0,0,0,0,
657,-1.968,5.794,-6.771,12.23,0.7956,13.55,-1.665,5.216,4.605,11.49,3.81,6.237,9.507,12.33,8.324,9.114,0,0,0,0,0,0,0,0,0,0,0,0,0,0,0,0,
658,-9.511,-0.1515,-19.7,5.169,-11.92,4.162,-15.84,3.227,-5.546,7.738,-10.04,-3.272,-6.908,-3.713,-6.292,-4.437,0,0,0,0,0,0,0,0,0,0,0,0,0,0,0,0,
659,-19.25,-10.02,-24.24,-1.318,-18.04,-5.042,-20.25,0.2706,-21.53,-6.051,-15.86,-4.799,-15.03,-9.717,-10.11,-7.131,0,0,0,0,0,0,0,0,0,0,0,0,0,0,0,0,
660,-4.833,1.008,-0.1087,8.197,2.137,7.196,-3.855,5.621,-11.85,-1.127,-3.175,4.713,-2.157,2.317,-1.137,2.116,0,0,0,0,0,0,0,0,0,0,0,0,0,0,0,0,
661,7.987,10.51,10.63,11.72,14.11,13.49,8.052,4.169,9.081,10.36,3.631,2.259,5.377,6.268,-1.964,0.3291,0,0,0,0,0,0,0,0,0,0,0,0,0,0,0,0,
662,-5.733,-4.755,-7.957,-3.174,3.203,-0.3641,0.9091,-9.759,13.01,5.442,-4.378,-9.369,-1.017,-0.6887,-8.406,-7.526,0,0,0,0,0,0,0,0,0,0,0,0,0,0,0,0,
663,-17.16,-18.07,-14.35,-10.2,-0.9543,-7.418,-1.675,-14.36,12.35,-1.702,-4.421,-6.551,-0.1356,1.508,-2.57,-0.5945,0,0,0,0,0,0,0,0,0,0,0,0,0,0,0,0,
664,-12.35,-12.85,-4.817,-3.042,1.497,-4.125,4.156,-6.799,14.83,0.9146,5.336,4.238,8.914,10.62,9.006,12.89,0,0,0,0,0,0,0,0,0,0,0,0,0,0,0,0,
665,-14.62,-9.891,-13.26,-3.662,-10.19,-9.332,-6.293,-6.652,6.375,0.9455,3.548,2.983,8.091,10.52,11.09,14.28,0,0,0,0,0,0,0,0,0,0,0,0,0,0,0,0,
666,-26.28,-17.6,-30.6,-12.15,-22.72,-17.06,-24.23,-12.01,-8.697,-5.349,-2.886,-1.423,2.966,5.595,8.37,9.996,0,0,0,0,0,0,0,0,0,0,0,0,0,0,0,0,
667,-27.56,-20.93,-26.96,-13.4,-17.73,-13.85,-19.72,-9.33,-12.44,-5.447,6.113,3.726,9.5,9.248,11.61,11.04,0,0,0,0,0,0,0,0,0,0,0,0,0,0,0,0,
668,-14.76,-13.97,-9.25,-8.809,-5.529,-7.035,-4.376,-5.884,-5.549,2.602,12.85,3.914,13.17,11.45,10.07,6.564,0,0,0,0,0,0,0,0,0,0,0,0,0,0,0,0,
669,-4.397,-9.874,-2.048,-10.67,-3.417,-10.34,-10.48,-12.43,-7.949,1.456,-7.393,-10.92,-6.087,-3.079,-9.215,-10.75,0,0,0,0,0,0,0,0,0,0,0,0,0,0,0,0,
670,-8.04,-16.14,-8.425,-18.73,-11.53,-21.2,-25.9,-19.52,-20.27,-13.56,-28.99,-20.67,-25.92,-16.75,-24.77,-20.17,0,0,0,0,0,0,0,0,0,0,0,0,0,0,0,0,
671,-13.1,-20.57,-10.65,-18.52,-14.7,-23.4,-16.72,-15.76,-18.65,-19.75,-19.08,-12.17,-18.96,-10.99,-14.64,-9.378,0,0,0,0,0,0,0,0,0,0,0,0,0,0,0,0,
672,-9.489,-17.65,-4.24,-11.21,-11.1,-17.1,3.244,-11.03,-5.333,-11.97,-2.462,-6.74,-8.098,-6.734,-2.942,-2.106,0,0,0,0,0,0,0,0,0,0,0,0,0,0,0,0,
673,-11.38,-17.81,-6.744,-11.32,-15.83,-18.12,2.237,-17.33,-6.723,-13.78,-8.609,-16.14,-16.52,-16.95,-9.74,-9.659,0,0,0,0,0,0,0,0,0,0,0,0,0,0,0,0,T1
674,-19.76,-18.85,-17.0,-12.57,-22.8,-21.1,-4.987,-22.09,-20.22,-22.2,-14.87,-17.55,-21.0,-18.0,-11.95,-8.998,0,0,0,0,0,0,0,0,0,0,0,0,0,0,0,0,
675,-18.61,-14.24,-15.52,-8.052,-18.05,-15.41,-1.259,-15.7,-20.53,-15.7,-6.278,-5.978,-11.03,-6.164,-2.13,1.885,0,0,0,0,0,0,0,0,0,0,0,0,0,0,0,0,
676,-16.8,-15.7,-10.58,-11.76,-16.35,-15.11,-3.345,-12.23,-12.3,-7.691,-1.851,-2.896,-6.793,-2.338,0.7618,2.755,0,0,0,0,0,0,0,0,0,0,0,0,0,0,0,0,
677,-24.92,-24.55,-18.32,-20.8,-23.54,-20.85,-8.497,-12.44,-14.46,-11.97,1.077,-4.366,-3.438,-1.497,1.432,0.511,0,0,0,0,0,0,0,0,0,0,0,0,0,0,0,0,
678,-24.91,-23.06,-21.46,-15.95,-18.18,-12.91,-2.343,-4.915,-7.618,-8.092,11.41,3.215,10.21,8.058,7.579,6.367,0,0,0,0,0,0,0,0,0,0,0,0,0,0,0,0,
679,-12.32,-12.5,-7.255,-3.325,-1.481,1.486,-1.648,1.106,16.94,6.785,10.8,8.426,16.11,13.9,7.058,7.495,0,0,0,0,0,0,0,0,0,0,0,0,0,0,0,0,
680,-6.546,-7.155,1.265,1.655,6.02,5.452,-11.94,0.332,23.63,12.35,-1.081,6.015,9.499,11.8,2.187,2.616,0,0,0,0,0,0,0,0,0,0,0,0,0,0,0,0,
681,-6.528,-3.448,-4.524,4.215,7.332,6.727,-14.82,4.171,14.27,11.77,-4.434,7.948,7.529,15.21,3.956,5.546,0,0,0,0,0,0,0,0,0,0,0,0,0,0,0,0,
682,1.379,4.837,-0.234,9.952,14.01,11.67,-12.56,12.8,18.24,16.73,-3.679,14.51,9.437,23.37,6.402,12.03,0,0,0,0,0,0,0,0,0,0,0,0,0,0,0,0,
683,6.41,8.117,9.819,11.16,16.21,11.39,-16.33,16.21,22.1,21.22,-10.86,12.37,1.753,19.69,-0.5344,6.6,0,0,0,0,0,0,0,0,0,0,0,0,0,0,0,0,
684,-7.176,-2.277,-5.176,2.974,0.658,-0.3097,-25.82,6.482,8.87,13.56,-23.14,-3.058,-17.01,-0.8201,-15.98,-9.978,0,0,0,0,0,0,0,0,0,0,0,0,0,0,0,0,
685,-23.5,-15.04,-25.65,-6.189,-16.87,-14.28,-32.24,-7.796,-11.08,-6.044,-27.5,-12.59,-28.68,-17.24,-21.75,-16.54,0,0,0,0,0,0,0,0,0,0,0,0,0,0,0,0,
686,-20.08,-13.31,-15.45,-3.791,-14.15,-14.45,-21.52,-6.486,-20.47,-16.7,-15.05,-5.201,-19.97,-14.83,-10.01,-7.601,0,0,0,0,0,0,0,0,0,0,0,0,0,0,0,0,
687,-12.49,-8.538,-4.0,1.102,-9.65,-10.76,-6.86,-2.911,-16.85,-12.57,-7.994,-6.973,-15.45,-15.88,-9.87,-10.75,0,0,0,0,0,0,0,0,0,0,0,0,0,0,0,0,
688,-21.43,-19.2,-17.9,-7.453,-22.9,-21.34,-9.933,-14.7,-23.3,-18.02,-19.41,-21.57,-26.78,-27.2,-24.07,-24.37,0,0,0,0,0,0,0,0,0,0,0,0,0,0,0,0,
689,-26.98,-26.72,-21.85,-12.25,-26.8,-27.04,-9.266,-14.68,-34.43,-25.12,-15.48,-15.92,-19.48,-18.19,-14.86,-13.68,0,0,0,0,0,0,0,0,0,0,0,0,0,0,0,0,
690,-17.21,-17.9,-8.268,-4.122,-13.47,-17.49,3.49,-0.3211,-20.33,-10.27,4.139,-0.9198,2.934,2.528,4.782,5.181,0,0,0,0,0,0,0,0,0,0,0,0,0,0,0,0,
691,-15.72,-15.86,-9.605,-7.24,-13.45,-17.26,-1.236,-3.71,-3.115,0.3112,0.3886,-5.365,1.742,1.7,-1.12,-0.0494,0,0,0,0,0,0,0,0,0,0,0,0,0,0,0,0,
692,-22.41,-20.71,-16.41,-13.98,-19.29,-20.88,-14.84,-11.66,-6.26,-7.713,-14.1,-10.48,-10.04,-6.274,-13.16,-8.799,0,0,0,0,0,0,0,0,0,0,0,0,0,0,0,0,
693,-17.58,-13.85,-7.061,-2.98,-9.491,-9.436,-12.8,-6.654,-5.655,-7.124,-14.2,-6.49,-11.12,-6.793,-14.43,-9.656,0,0,0,0,0,0,0,0,0,0,0,0,0,0,0,0,
694,-12.01,-8.554,0.1963,5.387,-4.549,-2.321,-10.66,-7.065,-2.972,-2.572,-15.97,-9.675,-16.29,-12.56,-18.01,-16.11,0,0,0,0,0,0,0,0,0,0,0,0,0,0,0,0,
695,-18.72,-15.57,-9.925,-1.436,-15.83,-10.52,-17.48,-9.721,-18.23,-9.531,-20.67,-12.07,-22.82,-15.97,-18.77,-17.17,0,0,0,0,0,0,0,0,0,0,0,0,0,0,0,0,
696,-26.08,-19.91,-22.64,-8.037,-23.12,-15.99,-17.67,-4.479,-28.48,-12.64,-15.38,-6.706,-18.9,-10.88,-13.21,-9.898,0,0,0,0,0,0,0,0,0,0,0,0,0,0,0,0,
697,-25.82,-16.72,-22.63,-8.269,-19.48,-12.3,-12.18,-3.809,-15.39,-9.813,-11.84,-5.642,-15.98,-10.51,-13.3,-9.74,0,0,0,0,0,0,0,0,0,0,0,0,0,0,0,0,
698,-20.78,-12.19,-13.67,-1.49,-12.34,-5.027,-12.7,-5.422,-5.321,-10.66,-14.86,-7.125,-17.74,-11.1,-13.94,-10.94,0,0,0,0,0,0,0,0,0,0,0,0,0,0,0,0,
699,-12.66,-7.216,-5.125,6.973,-4.058,2.118,-12.98,-1.504,-9.744,-7.317,-10.51,-3.873,-14.48,-4.862,-6.675,-6.004,0,0,0,0,0,0,0,0,0,0,0,0,0,0,0,0,
700,-6.238,-4.979,-1.618,2.853,-1.099,1.947,-9.307,-2.386,-11.54,-1.071,-4.935,-3.189,-10.9,-3.32,-2.84,-5.324,0,0,0,0,0,0,0,0,0,0,0,0,0,0,0,0,
701,-10.57,-10.6,-8.88,-11.06,-11.65,-9.039,-17.29,-9.063,-16.79,-6.33,-12.95,-10.09,-15.33,-10.6,-7.995,-10.1,0,0,0,0,0,0,0,0,0,0,0,0,0,0,0,0,
702,-18.96,-16.55,-17.7,-13.96,-20.9,-16.21,-28.44,-7.413,-27.81,-14.73,-17.75,-11.94,-15.02,-9.645,-7.229,-7.559,0,0,0,0,0,0,0,0,0,0,0,0,0,0,0,0,
703,-13.31,-11.18,-10.98,-1.205,-10.07,-5.457,-17.36,3.022,-18.81,-6.222,-4.899,-1.97,-1.064,3.94,1.462,0.3442,0,0,0,0,0,0,0,0,0,0,0,0,0,0,0,0,
704,-2.78,-3.798,-2.897,5.374,2.998,6.993,-1.603,6.548,3.241,7.96,3.927,2.662,7.794,8.961,1.882,-1.014,0,0,0,0,0,0,0,0,0,0,0,0,0,0,0,0,
705,-4.452,-4.876,-5.361,0.0916,2.288,6.386,-1.489,2.687,11.85,7.753,1.22,-1.412,6.031,3.081,-1.515,-4.723,0,0,0,0,0,0,0,0,0,0,0,0,0,0,0,0,
706,-2.949,-1.23,0.4116,4.832,6.838,9.362,0.8165,7.028,15.76,7.426,1.627,3.809,8.385,5.84,2.5,2.257,0,0,0,0,0,0,0,0,0,0,0,0,0,0,0,0,
707,9.078,10.62,11.97,18.27,18.04,19.72,8.991,15.57,22.41,17.83,2.0,12.6,8.977,12.41,4.244,7.232,0,0,0,0,0,0,0,0,0,0,0,0,0,0,0,0,
708,12.21,15.11,12.05,19.62,16.36,19.15,11.94,13.92,19.69,20.8,0.6668,8.727,1.878,8.106,-0.1737,-0.8867,0,0,0,0,0,0,0,0,0,0,0,0,0,0,0,0,
709,3.432,8.899,5.876,11.29,5.05,7.599,10.36,6.823,7.976,11.32,1.271,-1.581,-3.303,-2.562,-5.99,-14.03,0,0,0,0,0,0,0,0,0,0,0,0,0,0,0,0,
710,-6.469,-0.8984,-1.069,6.938,-4.377,-1.633,1.846,4.895,-3.358,1.097,-3.772,-6.14,-6.958,-9.405,-11.12,-20.21,0,0,0,0,0,0,0,0,0,0,0,0,0,0,0,0,
711,-12.54,-7.393,-6.596,8.265,-7.363,-2.505,-9.392,8.346,-7.275,-2.188,-10.72,-2.536,-8.662,-7.638,-10.15,-15.55,0,0,0,0,0,0,0,0,0,0,0,0,0,0,0,0,
712,-14.56,-8.666,-7.85,5.47,-6.074,-2.967,-15.99,6.335,-5.036,1.363,-15.45,-2.761,-9.449,-8.679,-12.09,-15.81,0,0,0,0,0,0,0,0,0,0,0,0,0,0,0,0,
713,-18.18,-10.92,-10.3,-5.766,-11.0,-14.25,-20.36,-6.68,-10.04,-3.458,-21.64,-14.27,-17.11,-21.1,-21.49,-25.45,0,0,0,0,0,0,0,0,0,0,0,0,0,0,0,0,
714,-19.8,-12.14,-8.759,-10.33,-15.21,-21.96,-14.64,-11.33,-18.85,-16.5,-15.77,-16.7,-16.48,-22.43,-15.93,-20.8,0,0,0,0,0,0,0,0,0,0,0,0,0,0,0,0,
715,-10.49,-5.715,2.485,-0.1773,-5.341,-11.11,0.951,1.615,-8.288,-12.73,0.1063,-3.747,-1.161,-7.976,-0.5846,-7.71,0,0,0,0,0,0,0,0,0,0,0,0,0,0,0,0,
716,-0.5171,1.641,6.846,8.595,2.289,-2.263,4.07,6.822,11.5,0.0194,-1.586,-1.778,-0.6572,-8.155,-4.368,-12.77,0,0,0,0,0,0,0,0,0,0,0,0,0,0,0,0,
717,-2.829,1.227,-3.349,4.89,-5.893,-9.561,-4.663,-4.603,6.241,-5.117,-15.05,-14.68,-17.39,-23.02,-16.61,-24.34,0,0,0,0,0,0,0,0,0,0,0,0,0,0,0,0,
718,-9.365,-3.754,-8.39,-1.453,-13.24,-17.55,-3.712,-12.78,-15.06,-18.3,-15.04,-23.6,-23.35,-30.03,-17.73,-26.58,0,0,0,0,0,0,0,0,0,0,0,0,0,0,0,0,
719,-6.267,-3.616,0.5975,-1.101,-10.66,-18.37,1.495,-12.55,-23.19,-24.11,-9.294,-25.56,-19.77,-30.8,-16.8,-27.74,0,0,0,0,0,0,0,0,0,0,0,0,0,0,0,0,
720,-4.822,-3.042,-2.596,-3.188,-12.31,-18.19,-9.149,-10.79,-23.77,-26.25,-13.59,-23.49,-22.05,-30.89,-18.77,-27.89,0,0,0,0,0,0,0,0,0,0,0,0,0,0,0,0,
721,-25.53,-17.79,-27.64,-14.26,-23.91,-21.36,-25.72,-9.933,-29.54,-26.03,-20.57,-22.14,-28.07,-31.5,-20.02,-27.3,0,0,0,0,0,0,0,0,0,0,0,0,0,0,0,0,
722,-42.5,-32.61,-32.28,-20.32,-29.07,-26.72,-24.59,-14.77,-35.8,-28.27,-22.77,-30.35,-33.05,-39.55,-23.47,-34.29,0,0,0,0,0,0,0,0,0,0,0,0,0,0,0,0,
723,-20.93,-21.36,-2.244,-14.32,-17.62,-26.17,-11.14,-21.63,-34.3,-35.35,-21.78,-37.75,-33.21,-46.24,-23.58,-37.53,0,0,0,0,0,0,0,0,0,0,0,0,0,0,0,0,
724,10.14,-2.533,21.64,-7.459,-1.548,-16.91,2.035,-19.63,-21.5,-34.66,-11.27,-30.42,-22.09,-37.54,-11.35,-24.86,0,0,0,0,0,0,0,0,0,0,0,0,0,0,0,0,
725,20.9,2.731,34.12,-5.577,11.34,-6.712,20.8,-13.64,-5.038,-24.77,6.903,-20.65,-4.776,-23.13,3.105,-10.65,0,0,0,0,0,0,0,0,0,0,0,0,0,0,0,0,
726,29.42,8.447,53.46,-4.113,24.41,1.794,39.38,-11.39,6.217,-16.11,15.08,-16.99,6.997,-13.15,8.242,-4.4,0,0,0,0,0,0,0,0,0,0,0,0,0,0,0,0,
727,37.2,16.11,61.54,0.5993,33.65,9.616,45.52,-6.742,13.64,-7.284,16.98,-8.314,15.7,-1.642,12.97,3.786,0,0,0,0,0,0,0,0,0,0,0,0,0,0,0,0,
728,33.29,14.16,55.95,4.156,37.04,12.69,46.38,-0.1734,24.08,3.939,25.11,1.991,26.0,8.56,20.25,11.37,0,0,0,0,0,0,0,0,0,0,0,0,0,0,0,0,
729,28.24,8.63,54.09,-0.0089,37.14,9.557,43.15,-1.933,35.86,10.02,24.63,1.865,27.93,8.888,17.88,8.378,0,0,0,0,0,0,0,0,0,0,0,0,0,0,0,0,
730,22.72,3.995,47.94,-4.358,32.69,6.933,33.71,-6.01,34.02,9.052,16.85,3.333,24.05,10.66,15.7,9.213,0,0,0,0,0,0,0,0,0,0,0,0,0,0,0,0,
731,19.1,3.397,43.24,3.488,33.61,14.66,34.9,3.493,32.22,13.55,28.63,19.6,34.17,27.6,31.96,28.52,0,0,0,0,0,0,0,0,0,0,0,0,0,0,0,0,
732,26.49,9.892,48.77,12.0,40.73,25.87,42.77,17.51,53.84,28.8,47.29,33.26,49.72,43.99,48.21,45.16,0,0,0,0,0,0,0,0,0,0,0,0,0,0,0,0,
733,22.33,5.927,37.23,2.127,30.35,18.78,31.6,14.99,59.19,33.57,42.65,27.5,44.88,39.95,41.86,38.9,0,0,0,0,0,0,0,0,0,0,0,0,0,0,0,0,
734,0.4304,-10.16,14.92,-10.69,10.59,1.434,13.51,5.888,26.32,18.33,27.46,17.8,29.85,28.93,28.52,27.52,0,0,0,0,0,0,0,0,0,0,0,0,0,0,0,0,
735,-2.596,-11.49,20.62,-4.017,13.67,2.891,18.08,8.082,10.68,10.07,26.01,19.92,29.81,29.47,29.06,28.77,0,0,0,0,0,0,0,0,0,0,0,0,0,0,0,0,
736,14.15,-0.1762,40.7,7.389,28.87,16.39,35.88,9.906,25.94,18.96,35.08,23.59,39.66,33.18,36.36,32.26,0,0,0,0,0,0,0,0,0,0,0,0,0,0,0,0,
737,21.73,4.411,47.24,8.526,33.04,19.46,40.16,3.853,32.55,23.24,35.63,20.49,38.94,29.75,32.55,27.14,0,0,0,0,0,0,0,0,0,0,0,0,0,0,0,0,
738,20.54,4.966,44.18,6.283,28.55,14.47,27.82,1.548,25.32,17.42,19.33,16.46,23.97,22.76,17.38,17.15,0,0,0,0,0,0,0,0,0,0,0,0,0,0,0,0,
739,14.13,0.6183,31.61,0.066,17.0,7.66,15.38,0.5687,15.26,10.86,4.48,10.79,9.265,14.7,6.203,8.086,0,0,0,0,0,0,0,0,0,0,0,0,0,0,0,0,
740,0.1022,-11.06,16.82,-8.183,4.914,0.0947,12.57,-5.137,3.126,3.614,5.406,3.192,4.645,7.456,3.204,2.022,0,0,0,0,0,0,0,0,0,0,0,0,0,0,0,0,
741,-5.931,-14.82,17.98,-8.009,5.256,-1.363,13.94,-5.538,-4.145,-1.01,9.887,4.285,5.349,6.239,1.673,-0.1606,0,0,0,0,0,0,0,0,0,0,0,0,0,0,0,0,
742,-0.9317,-10.11,23.12,-3.936,8.418,1.213,12.66,-0.5143,0.4583,1.643,8.8,10.72,4.093,8.381,-0.5126,-0.6251,0,0,0,0,0,0,0,0,0,0,0,0,0,0,0,0,
743,-4.565,-14.95,13.84,-5.577,0.0543,-3.511,4.581,-3.229,3.991,2.179,1.415,7.577,-4.04,4.947,-6.849,-5.182,0,0,0,0,0,0,0,0,0,0,0,0,0,0,0,0,
744,-18.22,-27.29,-0.5359,-12.65,-12.58,-12.73,-9.756,-10.26,-9.216,-4.58,-12.48,-0.075,-15.17,-2.252,-16.06,-11.75,0,0,0,0,0,0,0,0,0,0,0,0,0,0,0,0,
745,-26.74,-32.3,-10.34,-19.38,-18.56,-15.13,-19.85,-10.43,-21.1,-7.99,-19.45,-1.238,-16.06,-3.162,-16.01,-10.18,0,0,0,0,0,0,0,0,0,0,0,0,0,0,0,0,
746,-28.67,-31.19,-16.99,-20.02,-17.71,-10.98,-18.59,-7.495,-14.41,-4.236,-8.927,2.456,-4.558,5.225,-3.714,0.9296,0,0,0,0,0,0,0,0,0,0,0,0,0,0,0,0,
747,-26.82,-27.71,-16.9,-14.03,-11.86,-3.472,-10.51,-3.649,-0.9003,2.91,7.175,11.04,9.755,18.61,9.442,12.7,0,0,0,0,0,0,0,0,0,0,0,0,0,0,0,0,
748,-18.3,-18.97,-8.323,-4.761,-2.844,6.12,-5.285,4.908,14.13,14.16,10.96,19.45,17.97,27.88,11.64,16.68,0,0,0,0,0,0,0,0,0,0,0,0,0,0,0,0,
749,-8.69,-11.6,2.196,0.6541,4.47,10.48,-3.265,11.15,23.3,22.98,4.208,19.83,17.03,27.2,6.223,14.55,0,0,0,0,0,0,0,0,0,0,0,0,0,0,0,0,
750,-2.721,-8.772,11.48,-0.8652,8.976,10.18,9.86,12.01,20.14,23.41,7.377,20.44,16.56,24.48,8.243,15.78,0,0,0,0,0,0,0,0,0,0,0,0,0,0,0,0,
751,4.844,-3.084,19.92,0.6512,13.28,12.37,28.33,14.52,20.63,22.23,19.79,23.21,20.98,25.37,14.71,18.71,0,0,0,0,0,0,0,0,0,0,0,0,0,0,0,0,
752,11.01,0.427,27.02,6.145,15.97,11.85,30.43,16.06,22.77,20.27,21.29,19.27,20.28,24.73,12.99,15.99,0,0,0,0,0,0,0,0,0,0,0,0,0,0,0,0,
753,9.22,-4.044,30.41,2.318,13.96,5.37,25.34,10.89,15.67,14.19,15.91,14.09,14.63,21.27,7.873,11.1,0,0,0,0,0,0,0,0,0,0,0,0,0,0,0,0,
754,2.592,-9.433,23.12,-9.005,7.291,0.206,20.63,2.142,9.864,7.963,10.64,12.48,9.521,16.48,3.522,7.671,0,0,0,0,0,0,0,0,0,0,0,0,0,0,0,0,
755,-3.218,-12.42,11.98,-10.6,3.55,0.5645,6.228,-2.922,6.972,3.962,1.259,11.61,6.586,14.16,1.633,8.389,0,0,0,0,0,0,0,0,0,0,0,0,0,0,0,0,
756,0.8634,-8.047,18.37,2.16,12.64,9.094,5.466,2.951,7.317,6.284,6.963,16.57,16.12,21.9,15.96,19.78,0,0,0,0,0,0,0,0,0,0,0,0,0,0,0,0,
757,17.78,7.521,38.25,15.59,31.19,25.83,36.35,19.13,20.29,19.35,42.49,32.23,43.21,41.01,50.96,44.13,0,0,0,0,0,0,0,0,0,0,0,0,0,0,0,0,
758,37.7,25.7,57.17,26.87,53.51,46.99,73.5,37.57,44.98,39.86,89.28,55.4,79.54,68.15,93.4,77.44,0,0,0,0,0,0,0,0,0,0,0,0,0,0,0,0,
759,60.17,44.9,82.05,44.84,79.59,68.44,100.9,50.65,76.96,63.61,125.6,72.73,112.0,92.1,123.2,101.8,0,0,0,0,0,0,0,0,0,0,0,0,0,0,0,0,
760,79.16,60.57,97.77,54.26,92.52,76.85,108.4,52.73,101.0,79.69,132.5,71.59,119.8,95.06,121.2,98.34,0,0,0,0,0,0,0,0,0,0,0,0,0,0,0,0,
761,69.08,53.93,76.08,41.2,75.18,61.94,81.26,44.89,96.12,74.05,101.8,58.91,94.6,77.22,88.77,75.48,0,0,0,0,0,0,0,0,0,0,0,0,0,0,0,0,
762,37.43,30.71,41.02,22.84,44.22,35.88,42.76,31.07,67.87,52.6,56.99,42.88,57.78,52.63,47.79,49.14,0,0,0,0,0,0,0,0,0,0,0,0,0,0,0,0,
763,18.03,12.52,23.08,7.258,21.64,15.06,19.27,13.56,38.22,31.17,22.41,23.85,30.54,30.01,17.1,24.67,0,0,0,0,0,0,0,0,0,0,0,0,0,0,0,0,
764,10.98,2.723,11.35,-4.715,7.847,4.509,1.446,2.22,17.15,15.65,-0.6823,11.98,13.19,16.72,1.308,9.615,0,0,0,0,0,0,0,0,0,0,0,0,0,0,0,0,
765,14.28,6.828,10.88,-1.541,5.723,5.494,-4.296,5.609,4.95,9.109,-8.323,14.22,7.133,17.62,-0.0524,9.155,0,0,0,0,0,0,0,0,0,0,0,0,0,0,0,0,
766,41.07,25.95,34.81,6.927,21.27,15.38,16.42,16.17,9.743,15.49,5.679,23.35,19.47,28.87,11.67,19.08,0,0,0,0,0,0,0,0,0,0,0,0,0,0,0,0,
767,69.89,42.38,55.87,10.0,40.06,26.32,36.34,21.78,31.87,27.89,19.65,27.01,33.43,35.51,19.39,24.26,0,0,0,0,0,0,0,0,0,0,0,0,0,0,0,0,
768,87.62,61.61,64.58,23.94,50.12,35.09,37.25,21.45,44.01,30.91,13.29,18.89,27.19,26.56,9.637,14.61,0,0,0,0,0,0,0,0,0,0,0,0,0,0,0,0,
769,123.8,98.81,85.2,47.44,62.23,45.33,40.41,23.07,38.48,25.51,7.112,12.56,18.33,18.79,3.712,8.402,0,0,0,0,0,0,0,0,0,0,0,0,0,0,0,0,
770,169.8,132.9,103.5,60.17,76.31,56.63,45.65,28.25,38.94,27.21,15.52,18.85,24.82,26.77,14.58,17.92,0,0,0,0,0,0,0,0,0,0,0,0,0,0,0,0,
771,193.0,150.9,101.3,66.99,82.48,66.2,40.5,32.27,46.27,35.89,22.72,26.8,32.34,37.07,24.13,27.94,0,0,0,0,0,0,0,0,0,0,0,0,0,0,0,0,
772,209.8,169.0,105.0,80.05,89.22,74.81,38.81,36.28,49.96,42.55,26.84,30.42,35.21,41.02,26.0,30.71,0,0,0,0,0,0,0,0,0,0,0,0,0,0,0,0,
773,229.0,182.8,113.0,89.13,93.8,77.28,36.7,39.89,49.67,44.9,26.65,28.91,32.85,36.67,20.38,23.65,0,0,0,0,0,0,0,0,0,0,0,0,0,0,0,0,
774,227.3,181.8,98.19,88.51,81.69,71.44,19.35,40.71,39.11,39.58,11.76,20.87,18.58,22.17,6.427,8.374,0,0,0,0,0,0,0,0,0,0,0,0,0,0,0,0,
775,212.4,176.7,79.25,88.5,67.17,67.56,6.324,42.0,23.08,31.37,-0.8987,16.54,6.087,12.31,-0.9412,2.589,0,0,0,0,0,0,0,0,0,0,0,0,0,0,0,0,
776,199.1,168.2,73.5,85.61,61.1,63.72,3.24,38.8,12.16,26.7,-3.743,15.39,0.9892,10.11,-2.031,4.283,0,0,0,0,0,0,0,0,0,0,0,0,0,0,0,0,
777,182.3,155.0,63.77,75.41,52.92,54.61,-3.268,30.15,2.126,18.15,-9.61,10.89,-4.42,6.065,-4.632,2.449,0,0,0,0,0,0,0,0,0,0,0,0,0,0,0,0,
778,172.8,151.4,58.02,75.17,51.85,55.07,6.437,32.4,2.033,13.44,-1.375,13.34,5.372,10.64,3.973,7.233,0,0,0,0,0,0,0,0,0,0,0,0,0,0,0,0,
779,170.6,152.4,65.74,83.59,58.43,61.42,28.35,39.27,20.11,23.19,16.37,14.34,21.26,16.25,9.872,8.438,0,0,0,0,0,0,0,0,0,0,0,0,0,0,0,0,
780,149.2,136.1,56.5,76.1,44.69,48.83,19.71,29.23,23.67,21.95,5.04,-0.1799,9.174,1.089,-6.58,-6.592,0,0,0,0,0,0,0,0,0,0,0,0,0,0,0,0,
781,114.4,108.5,28.13,56.3,19.59,28.37,-2.394,15.84,0.6495,2.847,-12.46,-5.391,-6.721,-10.13,-12.89,-9.733,0,0,0,0,0,0,0,0,0,0,0,0,0,0,0,0,
782,94.65,89.2,19.88,43.1,15.08,23.54,3.049,15.55,-5.137,-0.3588,-3.926,5.975,2.971,1.874,0.8793,2.563,0,0,0,0,0,0,0,0,0,0,0,0,0,0,0,0,
783,87.69,80.51,31.71,37.91,21.37,24.85,13.84,15.53,10.48,9.965,0.2269,5.813,9.473,8.364,1.815,1.855,0,0,0,0,0,0,0,0,0,0,0,0,0,0,0,0,
784,85.37,81.59,34.72,42.88,24.41,27.02,13.06,13.93,10.71,10.52,-0.865,1.514,7.617,6.349,0.6595,0.5202,0,0,0,0,0,0,0,0,0,0,0,0,0,0,0,0,
785,87.42,85.76,30.1,51.84,30.41,33.96,16.0,15.02,8.354,12.87,13.53,8.304,15.89,12.59,11.61,10.87,0,0,0,0,0,0,0,0,0,0,0,0,0,0,0,0,
786,76.48,72.34,25.83,40.2,26.95,28.38,10.33,6.531,14.95,15.82,12.58,5.181,13.27,9.616,7.348,7.824,0,0,0,0,0,0,0,0,0,0,0,0,0,0,0,0,
787,51.81,49.05,16.14,17.95,9.389,11.09,-5.389,-2.64,5.254,3.335,-6.632,-5.987,-4.409,-5.38,-7.472,-5.271,0,0,0,0,0,0,0,0,0,0,0,0,0,0,0,0,
788,37.15,41.38,0.9773,18.46,-3.117,4.339,-12.15,5.078,-11.57,-6.924,-14.01,-5.724,-15.48,-12.71,-14.24,-9.933,0,0,0,0,0,0,0,0,0,0,0,0,0,0,0,0,
789,24.39,33.16,-19.22,24.68,-15.29,-1.928,-26.76,10.51,-22.27,-8.855,-27.48,-9.36,-30.8,-21.8,-29.08,-20.05,0,0,0,0,0,0,0,0,0,0,0,0,0,0,0,0,
790,-1.526,7.8,-39.86,8.541,-33.91,-19.06,-50.93,-0.1865,-38.89,-20.83,-48.89,-21.98,-48.82,-35.37,-44.23,-33.5,0,0,0,0,0,0,0,0,0,0,0,0,0,0,0,0,
791,-21.03,-11.05,-48.99,-9.216,-40.33,-28.2,-54.1,-8.202,-47.91,-31.56,-44.5,-20.61,-43.71,-32.31,-35.83,-26.94,0,0,0,0,0,0,0,0,0,0,0,0,0,0,0,0,
792,-24.93,-15.1,-49.43,-11.43,-34.3,-24.68,-44.39,-5.505,-38.73,-26.97,-26.57,-7.149,-26.22,-18.13,-18.43,-8.358,0,0,0,0,0,0,0,0,0,0,0,0,0,0,0,0,
793,-23.86,-15.5,-45.24,-9.322,-28.22,-18.39,-35.73,-0.2691,-28.28,-18.79,-15.93,-0.1655,-14.51,-9.709,-7.354,1.759,0,0,0,0,0,0,0,0,0,0,0,0,0,0,0,0,
794,-22.31,-13.63,-35.41,-8.561,-22.44,-11.68,-18.27,1.997,-22.37,-12.54,-3.052,-1.233,-3.545,-4.885,1.555,2.785,0,0,0,0,0,0,0,0,0,0,0,0,0,0,0,0,
795,-25.48,-15.42,-32.17,-8.357,-20.92,-8.574,-4.231,1.132,-14.7,-7.755,9.758,-2.3,4.384,-2.325,7.654,1.52,0,0,0,0,0,0,0,0,0,0,0,0,0,0,0,0,
796,-27.92,-18.71,-32.02,-7.325,-20.36,-7.421,-0.4418,2.068,-2.153,-6.273,16.61,-2.433,5.807,-5.789,8.579,-1.971,0,0,0,0,0,0,0,0,0,0,0,0,0,0,0,0,
797,-22.61,-16.12,-21.37,-6.977,-16.19,-6.635,5.86,-1.228,4.888,-8.054,16.04,-10.07,2.857,-14.96,1.988,-11.26,0,0,0,0,0,0,0,0,0,0,0,0,0,0,0,0,
798,-22.75,-18.3,-17.7,-11.04,-19.39,-11.49,5.311,-14.47,-3.038,-15.41,4.647,-20.4,-4.062,-22.12,-6.969,-17.47,0,0,0,0,0,0,0,0,0,0,0,0,0,0,0,0,
799,-27.82,-24.13,-26.96,-13.86,-23.6,-13.57,-3.72,-20.3,-9.341,-20.58,-0.5175,-16.85,-4.945,-16.41,-4.24,-9.466,0,0,0,0,0,0,0,0,0,0,0,0,0,0,0,0,
800,-22.98,-20.12,-22.5,-10.24,-12.05,-4.355,2.047,-10.81,-3.756,-12.17,10.7,-3.751,6.128,-0.4724,7.796,4.219,0,0,0,0,0,0,0,0,0,0,0,0,0,0,0,0,
801,-12.21,-10.93,-3.699,-0.2364,5.463,9.227,18.33,0.471,6.334,4.704,16.81,5.841,17.52,14.01,15.78,12.6,0,0,0,0,0,0,0,0,0,0,0,0,0,0,0,0,
802,-7.777,-7.179,1.851,8.928,10.09,17.01,16.78,6.767,17.46,18.99,6.934,9.412,17.05,18.01,13.5,11.99,0,0,0,0,0,0,0,0,0,0,0,0,0,0,0,0,
803,-20.0,-17.06,-13.53,1.02,-3.061,8.062,-2.909,6.303,14.28,19.84,-7.053,5.929,3.88,8.047,1.083,1.613,0,0,0,0,0,0,0,0,0,0,0,0,0,0,0,0,
804,-41.98,-35.67,-29.48,-14.01,-20.03,-9.934,-16.57,2.767,-7.695,7.108,-15.4,2.686,-9.241,-2.9,-9.77,-6.859,0,0,0,0,0,0,0,0,0,0,0,0,0,0,0,0,
805,-50.46,-42.29,-34.68,-15.13,-26.4,-16.79,-21.05,3.948,-20.17,-1.469,-17.54,3.972,-12.92,-5.505,-11.75,-8.601,0,0,0,0,0,0,0,0,0,0,0,0,0,0,0,0,
806,-53.9,-42.4,-46.03,-17.34,-34.06,-21.59,-30.9,2.243,-18.76,-5.037,-21.4,-2.337,-16.78,-12.19,-17.87,-15.88,0,0,0,0,0,0,0,0,0,0,0,0,0,0,0,0,
807,-68.81,-52.16,-63.19,-26.64,-46.68,-32.07,-40.36,-5.51,-26.33,-15.27,-32.9,-14.54,-26.65,-21.88,-32.54,-27.12,0,0,0,0,0,0,0,0,0,0,0,0,0,0,0,0,
808,-72.05,-53.67,-59.13,-21.03,-41.97,-26.94,-35.05,-5.009,-34.91,-19.47,-41.85,-18.9,-32.14,-19.78,-40.05,-30.51,0,0,0,0,0,0,0,0,0,0,0,0,0,0,0,0,
809,-53.48,-36.69,-36.2,-5.462,-21.79,-7.508,-17.1,3.6,-23.5,-8.277,-31.99,-17.92,-25.5,-12.22,-31.62,-26.86,0,0,0,0,0,0,0,0,0,0,0,0,0,0,0,0,
810,-35.81,-22.2,-17.13,1.027,-6.683,2.7,2.796,6.213,-2.844,2.974,-8.655,-19.16,-12.38,-11.08,-16.61,-23.1,0,0,0,0,0,0,0,0,0,0,0,0,0,0,0,0,
811,-28.96,-21.1,-10.12,-3.065,-2.387,-0.6086,9.423,-1.548,6.743,3.715,2.916,-24.64,-7.098,-16.07,-8.922,-24.35,0,0,0,0,0,0,0,0,0,0,0,0,0,0,0,0,
812,-33.72,-28.57,-19.2,-15.01,-10.7,-11.53,-0.4304,-14.21,2.053,-5.094,-0.7933,-29.03,-11.79,-22.47,-7.811,-26.03,0,0,0,0,0,0,0,0,0,0,0,0,0,0,0,0,
813,-44.57,-36.65,-30.55,-24.75,-21.31,-20.64,-6.594,-20.95,-7.948,-15.03,-0.6527,-20.71,-11.64,-20.8,-3.55,-18.01,0,0,0,0,0,0,0,0,0,0,0,0,0,0,0,0,
814,-47.05,-39.06,-27.41,-23.98,-21.05,-20.39,-4.721,-18.32,-10.18,-15.3,0.7102,-7.164,-7.053,-11.96,-1.17,-7.718,0,0,0,0,0,0,0,0,0,0,0,0,0,0,0,0,
815,-47.41,-41.08,-29.59,-21.67,-22.44,-18.61,-8.755,-13.88,-7.209,-11.14,-6.446,-4.157,-8.766,-7.355,-6.128,-6.022,0,0,0,0,0,0,0,0,0,0,0,0,0,0,0,0,
816,-49.14,-40.09,-36.13,-16.58,-22.96,-13.37,-9.571,-7.394,-7.697,-7.165,-9.103,-5.47,-7.597,-3.725,-8.272,-7.474,0,0,0,0,0,0,0,0,0,0,0,0,0,0,0,0,
817,-36.11,-27.45,-20.77,-5.47,-7.742,-0.5557,-2.684,-2.423,-5.633,1.737,-7.594,-11.1,-3.123,-3.466,-10.21,-14.7,0,0,0,0,0,0,0,0,0,0,0,0,0,0,0,0,
818,-27.6,-23.17,-16.98,-9.88,-6.716,-4.186,-10.63,-12.12,-10.1,0.6303,-16.57,-27.63,-12.85,-18.53,-20.98,-29.14,0,0,0,0,0,0,0,0,0,0,0,0,0,0,0,0,
819,-49.28,-41.14,-48.45,-28.02,-33.85,-26.87,-30.29,-24.31,-26.08,-18.51,-25.79,-33.79,-27.63,-30.07,-27.19,-29.28,0,0,0,0,0,0,0,0,0,0,0,0,0,0,0,0,
820,-71.69,-57.42,-65.07,-33.17,-49.36,-38.04,-38.38,-22.63,-29.26,-29.94,-28.04,-21.31,-30.9,-22.66,-22.89,-14.07,0,0,0,0,0,0,0,0,0,0,0,0,0,0,0,0,
821,-71.57,-59.81,-55.97,-34.75,-45.74,-36.83,-37.72,-19.91,-25.14,-27.17,-32.75,-12.33,-29.91,-16.27,-20.46,-6.627,0,0,0,0,0,0,0,0,0,0,0,0,0,0,0,0,
822,-67.04,-57.25,-54.85,-42.68,-44.66,-36.47,-36.49,-19.92,-27.76,-26.05,-34.57,-10.18,-27.4,-16.18,-20.83,-8.302,0,0,0,0,0,0,0,0,0,0,0,0,0,0,0,0,
823,-66.73,-52.29,-56.28,-39.94,-43.16,-32.96,-34.97,-15.49,-21.88,-25.01,-31.67,-9.178,-22.48,-13.79,-20.01,-11.22,0,0,0,0,0,0,0,0,0,0,0,0,0,0,0,0,
824,-61.81,-44.4,-47.54,-27.73,-34.66,-24.38,-31.22,-11.63,-13.83,-19.78,-25.6,-9.188,-14.96,-10.89,-12.19,-9.254,0,0,0,0,0,0,0,0,0,0,0,0,0,0,0,0,
825,-45.54,-29.25,-29.91,-11.9,-18.41,-10.07,-14.5,-6.028,-5.904,-9.288,-6.357,-3.621,1.301,-4.582,3.841,1.548,0,0,0,0,0,0,0,0,0,0,0,0,0,0,0,0,
826,-31.09,-17.64,-14.69,-1.04,-7.133,-2.615,1.814,-5.052,9.653,0.362,5.412,-4.637,6.999,-4.488,5.647,1.864,0,0,0,0,0,0,0,0,0,0,0,0,0,0,0,0,
827,-40.65,-30.01,-22.44,-13.54,-17.64,-15.92,-6.035,-19.66,4.993,-8.726,-8.778,-18.44,-9.469,-17.75,-7.301,-9.365,0,0,0,0,0,0,0,0,0,0,0,0,0,0,0,0,
828,-55.5,-44.54,-34.19,-27.42,-27.94,-25.01,-16.59,-26.78,-14.31,-23.09,-14.97,-18.36,-14.8,-20.66,-5.79,-4.307,0,0,0,0,0,0,0,0,0,0,0,0,0,0,0,0,
829,-48.6,-36.18,-26.52,-19.24,-20.79,-15.67,-10.82,-15.32,-13.33,-18.67,-3.23,-5.108,-4.385,-10.65,3.865,7.336,0,0,0,0,0,0,0,0,0,0,0,0,0,0,0,0,
830,-36.36,-24.27,-22.11,-10.64,-15.1,-9.267,-7.814,-7.312,-6.904,-11.02,-2.449,-2.101,-5.08,-8.572,1.792,4.567,0,0,0,0,0,0,0,0,0,0,0,0,0,0,0,0,
831,-33.8,-21.9,-27.38,-11.96,-15.05,-10.01,-15.45,-8.26,-9.524,-11.97,-11.7,-6.509,-12.75,-13.53,-6.512,-2.981,0,0,0,0,0,0,0,0,0,0,0,0,0,0,0,0,
832,-38.72,-27.0,-29.37,-19.31,-18.19,-15.39,-24.09,-12.89,-14.77,-15.61,-14.68,-9.864,-15.55,-17.68,-11.92,-7.561,0,0,0,0,0,0,0,0,0,0,0,0,0,0,0,0,
833,-44.3,-34.7,-27.67,-24.65,-20.45,-19.22,-20.7,-12.9,-19.25,-19.06,-3.036,-3.682,-5.881,-9.779,-2.225,-1.248,0,0,0,0,0,0,0,0,0,0,0,0,0,0,0,0,
834,-34.57,-28.37,-17.46,-11.54,-7.536,-5.934,-5.085,-0.5104,-6.632,-8.395,14.9,10.97,13.95,9.755,14.08,12.17,0,0,0,0,0,0,0,0,0,0,0,0,0,0,0,0,
835,-25.54,-21.16,-14.49,-3.522,-1.559,0.6242,-3.47,2.611,7.847,6.45,11.5,8.696,13.67,10.81,8.07,8.043,0,0,0,0,0,0,0,0,0,0,0,0,0,0,0,0,
836,-39.98,-34.05,-28.59,-18.72,-17.58,-16.63,-12.8,-10.98,-5.321,-2.21,-2.695,-5.033,-2.658,-3.638,-3.725,-1.381,0,0,0,0,0,0,0,0,0,0,0,0,0,0,0,0,
837,-47.8,-40.24,-27.12,-20.59,-19.86,-21.15,-4.514,-13.99,-16.22,-13.38,1.093,-3.809,-1.599,-3.845,1.327,3.952,0,0,0,0,0,0,0,0,0,0,0,0,0,0,0,0,
838,-35.33,-28.2,-12.87,-5.634,-8.178,-8.919,5.031,-8.568,-7.098,-6.378,3.483,-2.53,2.309,-2.331,-0.1871,1.435,0,0,0,0,0,0,0,0,0,0,0,0,0,0,0,0,
839,-29.35,-22.24,-13.17,-2.72,-8.273,-7.503,0.2761,-11.35,-7.518,-2.486,-5.227,-11.21,-5.595,-9.836,-8.805,-10.3,0,0,0,0,0,0,0,0,0,0,0,0,0,0,0,0,
840,-27.76,-20.82,-9.812,-4.084,-6.112,-8.241,2.327,-11.53,-11.04,-3.785,-4.234,-10.6,-6.716,-9.716,-5.629,-10.02,0,0,0,0,0,0,0,0,0,0,0,0,0,0,0,0,
841,-24.06,-17.88,-1.15,-2.141,-1.156,-4.923,8.262,-5.008,-2.885,-0.607,-1.149,-4.658,-5.345,-7.113,-3.996,-7.456,0,0,0,0,0,0,0,0,0,0,0,0,0,0,0,0,
842,-28.87,-21.44,-9.967,-4.459,-9.378,-7.78,4.459,-1.375,-3.294,-1.367,-3.36,-5.755,-8.67,-9.848,-7.905,-9.16,0,0,0,0,0,0,0,0,0,0,0,0,0,0,0,0,
843,-33.97,-25.2,-19.67,-6.646,-16.6,-11.4,-0.9105,-2.836,-8.276,-3.834,-0.7228,-6.965,-6.432,-9.487,-6.068,-5.903,0,0,0,0,0,0,0,0,0,0,0,0,0,0,0,0,
844,-36.63,-29.23,-20.02,-9.187,-17.59,-14.82,-6.944,-7.722,-3.203,-3.966,0.3042,-2.829,-3.251,-5.763,-2.512,-0.2536,0,0,0,0,0,0,0,0,0,0,0,0,0,0,0,0,
845,-43.48,-36.87,-25.83,-13.23,-20.68,-18.65,-12.76,-7.637,-1.759,-5.037,-1.892,4.826,-1.155,1.156,2.438,5.176,0,0,0,0,0,0,0,0,0,0,0,0,0,0,0,0,
846,-41.16,-32.13,-28.47,-11.24,-17.98,-14.22,-12.54,-1.054,-2.932,-1.646,-1.118,7.729,4.29,6.931,6.682,6.904,0,0,0,0,0,0,0,0,0,0,0,0,0,0,0,0,
847,-30.48,-18.78,-23.42,-7.258,-12.52,-8.278,-13.55,-0.9132,-0.3701,1.712,-2.009,1.854,4.501,2.273,3.111,2.456,0,0,0,0,0,0,0,0,0,0,0,0,0,0,0,0,
848,-27.04,-14.89,-22.35,-3.183,-11.76,-5.326,-13.26,-1.796,-2.493,0.6623,-2.904,0.1909,0.2723,-0.948,-0.7656,2.416,0,0,0,0,0,0,0,0,0,0,0,0,0,0,0,0,
849,-26.03,-14.21,-20.92,5.852,-9.731,-0.1816,-8.713,4.892,-2.358,5.876,-8.493,1.735,-5.85,0.7464,-7.205,2.15,0,0,0,0,0,0,0,0,0,0,0,0,0,0,0,0,
