%OpenBCI Raw EXG Data
%Number of channels = 16
%Sample Rate = 125 Hz
%Board = OpenBCI_GUI$BoardCytonSerialDaisy
Sample Index,EXG Channel 0,EXG Channel 1,EXG Channel 2,EXG Channel 3,EXG Channel 4,EXG Channel 5,EXG Channel 6,EXG Channel 7,EXG Channel 8,EXG Channel 9,EXG Channel 10,EXG Channel 11,EXG Channel 12,EXG Channel 13,EXG Channel 14,EXG Channel 15,Accel Channel 0,Accel Channel 1,Accel Channel 2,Other,Other,Other,Other,Other,Other,Other,Analog Channel 0,Analog Channel 1,Analog Channel 2,Timestamp,Other,Timestamp (Formatted),Annotations
1,-0,0,-0,0,-0,-0,-0,0,0,0,0,-0,0,0,-0,0,0,0,0,0,0,0,0,0,0,0,0,0,0,0,0,0,T0
2,9.473,-4.525,-0.1481,1.609,7.149,5.978,1.663,7.316,10.52,2.734,12.16,10.46,9.535,4.548,13.26,10.44,0,0,0,0,0,0,0,0,0,0,0,0,0,0,0,0,
3,12.89,1.926,5.337,5.983,10.49,11.79,8.466,7.281,9.842,2.763,9.438,10.85,8.894,1.249,13.59,7.244,0,0,0,0,0,0,0,0,0,0,0,0,0,0,0,0,
4,8.421,-3.49,0.6851,0.5176,1.946,4.648,4.362,-1.492,2.031,-7.302,1.603,4.811,0.0168,-8.09,5.845,-0.1834,0,0,0,0,0,0,0,0,0,0,0,0,0,0,0,0,
5,6.18,-11.09,0.122,-0.2929,1.133,4.377,3.78,1.851,8.382,-7.792,9.662,11.44,2.56,-5.607,10.18,5.245,0,0,0,0,0,0,0,0,0,0,0,0,0,0,0,0,
6,17.89,1.042,15.94,14.25,17.19,21.08,17.53,14.54,21.26,3.275,20.48,23.88,12.2,3.026,17.66,11.77,0,0,0,0,0,0,0,0,0,0,0,0,0,0,0,0,
7,29.54,9.783,21.13,17.67,24.94,25.06,19.08,9.573,16.51,-1.463,13.17,21.48,8.657,-1.314,10.79,4.786,0,0,0,0,0,0,0,0,0,0,0,0,0,0,0,0,
8,25,3.543,12.5,7.115,17.31,15.2,9.93,-0.3466,7.217,-9.898,5.036,16.03,3.486,-5.347,6.347,0.0536,0,0,0,0,0,0,0,0,0,0,0,0,0,0,0,0,
9,18.76,2.355,10.26,5.721,9.907,13.16,12.39,5.314,9.389,-1.053,8.595,18.73,8.923,1.827,12.49,6.846,0,0,0,0,0,0,0,0,0,0,0,0,0,0,0,0,
10,25.45,9.089,13.6,12.87,14.47,20.31,23,15.21,16.66,9.432,13.86,22.07,16.7,9.215,18.55,16.01,0,0,0,0,0,0,0,0,0,0,0,0,0,0,0,0,
11,41.03,19.31,22.4,22.43,28.73,33.77,36.08,25.75,26.29,14.94,20.5,27.1,25.23,14.31,24.02,22.58,0,0,0,0,0,0,0,0,0,0,0,0,0,0,0,0,
12,48.89,28.32,30.73,29.52,29.59,40.85,42.94,32.22,26.12,16.48,20.91,27.53,27.41,12.91,21.09,19.12,0,0,0,0,0,0,0,0,0,0,0,0,0,0,0,0,
13,33.15,23.78,21.67,23.11,14.48,30.21,33.36,22.74,10.28,8.625,8.444,17.41,18.49,4.926,9.71,8.155,0,0,0,0,0,0,0,0,0,0,0,0,0,0,0,0,
14,12.57,15.72,10.32,15.38,11.29,21.43,24.65,16.95,3.503,6.288,6.292,15.29,16.34,5.969,10.43,7.728,0,0,0,0,0,0,0,0,0,0,0,0,0,0,0,0,
15,10.38,17.53,12.38,17.17,15.41,20.88,23.53,22.41,8.392,10.94,19.2,23.74,20.97,9.322,19.55,13.86,0,0,0,0,0,0,0,0,0,0,0,0,0,0,0,0,
16,11.34,14.74,7.785,10.07,5.541,10.69,12.36,13.5,4.799,1.473,20.69,24.63,15.56,0.8051,20.27,11.57,0,0,0,0,0,0,0,0,0,0,0,0,0,0,0,0,
17,4.22,4.287,-6.748,-5.52,-7.188,-1.958,-1.562,-2.022,-0.2493,-11.18,10.96,20.72,8.362,-3.546,17.34,8.319,0,0,0,0,0,0,0,0,0,0,0,0,0,0,0,0,
18,-1.073,0.5146,-13.21,-11.26,-11.97,-3.859,-4.266,-5.377,0.504,-10.96,7.045,19.32,8.061,1.593,14.44,9.088,0,0,0,0,0,0,0,0,0,0,0,0,0,0,0,0,
19,0.8534,1.526,-11.61,-11.21,-10.66,-1.111,-2.99,-7.915,0.5621,-11.92,6.78,17.03,6.9,-0.6068,10.56,6.74,0,0,0,0,0,0,0,0,0,0,0,0,0,0,0,0,
20,8.143,3.133,-5.434,-9.276,-0.2847,4.862,1.414,-6.138,5.709,-12.78,7.612,18.39,8.3,-4.519,12.17,6.65,0,0,0,0,0,0,0,0,0,0,0,0,0,0,0,0,
21,14.19,9.412,4.573,0.4868,11.27,14.01,11.32,7.611,14.51,-0.823,12.71,25,17.65,2.805,17.87,14.07,0,0,0,0,0,0,0,0,0,0,0,0,0,0,0,0,
22,22.31,17.4,11.09,10.48,15.41,19.89,18.17,15.51,16.27,8.247,16.71,28.4,25.75,9.929,19.97,18.75,0,0,0,0,0,0,0,0,0,0,0,0,0,0,0,0,
23,32.57,20.72,12.82,11.4,16.87,20.79,17.21,13.08,14.18,2.554,15.05,27.28,25.76,6.827,18.64,16.1,0,0,0,0,0,0,0,0,0,0,0,0,0,0,0,0,
24,27.85,18.1,11.41,7.143,14.23,16.29,11.06,9.813,11.07,-2.578,11.6,24.99,21.41,2.233,16.75,13.62,0,0,0,0,0,0,0,0,0,0,0,0,0,0,0,0,
25,15.9,11.89,4.897,3.459,4.351,7.734,4.266,3.572,5.234,-2.912,10,21.42,17.29,1.102,14.05,12.92,0,0,0,0,0,0,0,0,0,0,0,0,0,0,0,0,
26,13.49,4.362,-3.342,-0.9207,-5.831,0.922,-0.0812,-6.182,-0.2594,-8.47,8.963,18.09,14.17,-0.804,11.15,10.44,0,0,0,0,0,0,0,0,0,0,0,0,0,0,0,0,
27,12.57,-1.863,-6.44,-6.813,-8.846,-0.365,-2.426,-13.67,-4.311,-13.89,6.377,17.52,11.76,-2.97,10.62,7.812,0,0,0,0,0,0,0,0,0,0,0,0,0,0,0,0,
28,15.41,-3.77,-3.801,-9.616,-2.979,3.944,-3.389,-14.27,-4.54,-13.97,3.588,18.22,10.46,-3.748,11.9,7.02,0,0,0,0,0,0,0,0,0,0,0,0,0,0,0,0,
29,24.09,-2.827,0.6488,-6.292,7.631,11.7,-0.4503,-4.996,3.292,-11.79,5.997,21.18,14.14,-1.336,15.59,10.39,0,0,0,0,0,0,0,0,0,0,0,0,0,0,0,0,
30,29.29,4.204,11.46,6.247,23.17,24.65,11.75,12.53,17.33,-0.0463,16.78,31.06,25.81,8.139,23.98,19.29,0,0,0,0,0,0,0,0,0,0,0,0,0,0,0,0,
31,36.44,18.75,27.85,21.17,38.67,37.37,23.61,24.52,27.81,12.08,23.28,37.15,31,13,24.43,19.45,0,0,0,0,0,0,0,0,0,0,0,0,0,0,0,0,
32,38.12,20.05,26.01,16.47,31.59,30.05,15.06,15.47,21.35,3.253,11.78,24.55,17.24,1.296,8.667,2.826,0,0,0,0,0,0,0,0,0,0,0,0,0,0,0,0,
33,23.52,4.24,6.89,0.8606,8.853,11.09,0.4176,0.7605,5.543,-6.941,-0.5282,10.1,5.393,-8.526,-0.3285,-7.085,0,0,0,0,0,0,0,0,0,0,0,0,0,0,0,0,
34,12.47,-0.2193,5.76,5.301,6.468,11.12,5.104,4.477,3.205,0.3707,4.21,13.03,9.582,-3.715,8.098,0.3524,0,0,0,0,0,0,0,0,0,0,0,0,0,0,0,0,
35,13.71,5.847,20.05,17.79,18.99,22.01,14.15,13.98,9.48,2.536,10.56,18.47,11.71,-0.273,12.94,5.067,0,0,0,0,0,0,0,0,0,0,0,0,0,0,0,0,
36,16,4.009,24.28,18.51,24.35,24.66,14.69,15.71,10.96,-3.432,12.28,17.33,8.427,-2.352,11.14,3.701,0,0,0,0,0,0,0,0,0,0,0,0,0,0,0,0,
37,18.81,3.683,23.88,18.62,26.85,25.67,16.64,17.33,16,-1.536,20.77,20.77,11.65,0.0515,15.63,7.736,0,0,0,0,0,0,0,0,0,0,0,0,0,0,0,0,
38,22.22,8.665,22.3,17.3,22.82,23.85,16.18,16.62,24.29,1.686,26.57,27.34,18.59,7.096,22.55,14.97,0,0,0,0,0,0,0,0,0,0,0,0,0,0,0,0,
39,22.34,11.08,15.38,10.96,13.28,18,12.24,11.24,22.75,2.748,18.3,26.89,22.21,11.55,21.26,15.91,0,0,0,0,0,0,0,0,0,0,0,0,0,0,0,0,
40,19.2,10.87,12.12,8.839,14.06,16.41,10.49,5.066,11.41,2.171,4.568,15.87,15.7,4.405,9.31,5.323,0,0,0,0,0,0,0,0,0,0,0,0,0,0,0,0,
41,14.7,3.384,11.83,7.391,15.34,13.88,6.416,-0.5225,3.207,-3.114,-1.255,4.07,3.619,-5.717,1.271,-2.888,0,0,0,0,0,0,0,0,0,0,0,0,0,0,0,0,
42,11.49,-3.554,12.98,9.552,10.83,11.85,6.285,2.716,5.319,-2.485,4.281,4.663,2.058,-2.252,7.175,3.743,0,0,0,0,0,0,0,0,0,0,0,0,0,0,0,0,
43,9.09,0.342,17.89,17.86,13.02,13.79,9.863,10.88,1.951,1.16,3.876,4.535,1.255,-0.0547,6.149,5.074,0,0,0,0,0,0,0,0,0,0,0,0,0,0,0,0,
44,3.742,-1.58,14.04,14.05,11.5,7.349,3.413,10.07,-9.868,-3.463,-5.759,-4.372,-7.046,-7.759,-2.837,-2.178,0,0,0,0,0,0,0,0,0,0,0,0,0,0,0,0,
45,-0.834,-6.807,7.775,7.292,4.726,3.287,2.349,8.36,0.3925,-1.042,3.376,2.538,-0.8386,-2.626,7.802,6.326,0,0,0,0,0,0,0,0,0,0,0,0,0,0,0,0,
46,6.126,3.543,17.55,17.92,12.29,15.49,15.29,11.2,24.44,9.17,22.96,19.65,12.39,8.344,21.87,17.22,0,0,0,0,0,0,0,0,0,0,0,0,0,0,0,0,
47,17.35,9.658,24.29,23.67,20.18,19.66,14.47,4.526,22.23,5.892,19.57,16.47,7.473,3.655,14.02,10.68,0,0,0,0,0,0,0,0,0,0,0,0,0,0,0,0,
48,15.64,-0.137,14.6,13.94,13.41,9.674,2.049,-8.203,8.674,-1.688,9.453,7.073,1.534,-0.5065,6.986,5.267,0,0,0,0,0,0,0,0,0,0,0,0,0,0,0,0,
49,12.31,-1.863,10.7,10.82,12.07,8.954,2.156,-8.586,10.84,-0.0697,13.09,10.79,6.79,3.442,9.559,4.886,0,0,0,0,0,0,0,0,0,0,0,0,0,0,0,0,
50,17.34,3.587,13.89,10.19,16.15,12.02,3.519,-0.981,12.36,-1.024,13.58,12.43,5.723,-0.4654,4.926,-2.45,0,0,0,0,0,0,0,0,0,0,0,0,0,0,0,0,
51,14,1.569,9.137,1.644,11.19,6.781,-3.095,0.9926,8.091,-1.965,8.437,9.566,2.347,-4.609,1.45,-5.058,0,0,0,0,0,0,0,0,0,0,0,0,0,0,0,0,
52,4.762,1.782,5.159,-0.0216,9.233,4.227,-3.93,2.411,8.829,5.862,6.584,10.66,6.582,0.3413,4.625,0.2616,0,0,0,0,0,0,0,0,0,0,0,0,0,0,0,0,
53,2.292,3.999,5.714,2.624,11.17,3.42,-3.592,2.524,5.194,5.949,1.627,6.745,5.124,-0.468,2.165,-1.672,0,0,0,0,0,0,0,0,0,0,0,0,0,0,0,0,
54,-0.1287,-4.39,1.455,-3.355,4.695,-1.472,-9.291,-5.856,-2.885,-5.064,-1.004,0.4219,-1.332,-6.612,2.171,-4.53,0,0,0,0,0,0,0,0,0,0,0,0,0,0,0,0,
55,-0.5346,-10.95,2.47,-2.494,2.835,1.979,-7.085,-6.302,-0.2773,-6.138,8.252,6.07,2.5,-2.889,12.78,4.044,0,0,0,0,0,0,0,0,0,0,0,0,0,0,0,0,
56,5.095,-4.52,12.53,9.219,8.762,10.45,0.8197,3.026,5.649,-1.898,14,12.76,7.071,1.115,15.48,9.684,0,0,0,0,0,0,0,0,0,0,0,0,0,0,0,0,
57,4.888,-3.16,10.97,8.111,6.615,6.714,-2.213,-1.051,4.345,-9.209,8.083,7.831,0.2502,-5.338,6.883,2.969,0,0,0,0,0,0,0,0,0,0,0,0,0,0,0,0,
58,-0.0356,-11.09,3.302,-0.0441,8.222,3.059,-5.547,-6.556,10.27,-13.47,10.06,8.261,-2.019,-5.45,8.641,1.914,0,0,0,0,0,0,0,0,0,0,0,0,0,0,0,0,
59,6.067,-7.59,13.1,8.224,23.82,15.35,5.593,6.452,24.52,-1.903,21.07,19.98,7.007,4.349,17.87,10.29,0,0,0,0,0,0,0,0,0,0,0,0,0,0,0,0,
60,19.16,3.862,24.72,18.39,29.6,25.06,14.6,16.41,24.4,6.354,16.56,19.08,6.335,2.01,11.56,6.066,0,0,0,0,0,0,0,0,0,0,0,0,0,0,0,0,
61,18.08,0.6058,16.67,9.965,18.35,16.79,6.028,7.17,12.54,-2.131,-0.4405,1.612,-9.428,-12.7,-5.142,-11.7,0,0,0,0,0,0,0,0,0,0,0,0,0,0,0,0,
62,5.03,-12.9,7.663,-0.4561,12.59,6.789,-5.388,-5.601,11.4,-12.14,-4.62,-6.975,-18.88,-18.32,-8.812,-18.77,0,0,0,0,0,0,0,0,0,0,0,0,0,0,0,0,
63,2.158,-15.94,14.41,4.23,19.34,9.547,-4.258,-7.843,20.44,-9.156,4.628,2.512,-11.9,-11.93,3.41,-8.771,0,0,0,0,0,0,0,0,0,0,0,0,0,0,0,0,
64,10.44,-8.16,24,13,25.47,16.24,0.2275,-3.472,26.15,-3.314,13.03,14.02,-0.3575,-5.519,15.65,2.933,0,0,0,0,0,0,0,0,0,0,0,0,0,0,0,0,
65,16.8,-2.051,24.77,14.92,24.64,17.18,-1.376,-1.952,23.22,-5.485,15.56,16.28,6.246,-1.908,16.93,6.643,0,0,0,0,0,0,0,0,0,0,0,0,0,0,0,0,
66,18.41,1.722,21.48,14.3,23.61,18.01,0.7727,0.1977,16.47,-4.567,13.36,15.81,10.55,1.856,13.05,5.139,0,0,0,0,0,0,0,0,0,0,0,0,0,0,0,0,
67,18.65,8.918,23.09,15.35,27.26,25.39,11.35,8.022,17.99,3.974,13.12,20.1,14.92,3.7,13.11,4.373,0,0,0,0,0,0,0,0,0,0,0,0,0,0,0,0,
68,19.28,15.28,27.76,16.48,26.94,32.38,17.91,9.734,22.63,5.502,15.1,21.77,15.68,1.172,11.23,4.357,0,0,0,0,0,0,0,0,0,0,0,0,0,0,0,0,
69,16.84,14.39,25.08,15.38,16.32,28.74,15.9,3.04,13.98,0.0539,10.45,16.39,13.47,-0.5036,5.158,3.623,0,0,0,0,0,0,0,0,0,0,0,0,0,0,0,0,
70,15.54,12,20.63,15.07,11.72,21.68,15.42,5.379,7.906,1.588,6.928,17.3,15.84,5.304,8.178,7.548,0,0,0,0,0,0,0,0,0,0,0,0,0,0,0,0,
71,22.74,13.06,25.88,18.81,22.88,22.69,16.7,12.73,19.69,5.175,13.17,24.02,18.66,9.983,14.87,11.03,0,0,0,0,0,0,0,0,0,0,0,0,0,0,0,0,
72,25.25,8.028,26.69,17.13,25.63,20.65,8.713,6.487,24.73,-0.4331,16.1,19.84,11.2,2.736,10.37,3.726,0,0,0,0,0,0,0,0,0,0,0,0,0,0,0,0,
73,20.55,-0.7419,18.6,11.38,16.91,14.22,2.282,2.474,21.88,-1.42,17.6,17.62,8.325,0.7505,12.27,3.479,0,0,0,0,0,0,0,0,0,0,0,0,0,0,0,0,
74,28.79,7.808,26.59,21.66,28.9,25.64,16.78,17.11,33.57,12.47,26.8,30.26,19.92,12.74,25.24,16.31,0,0,0,0,0,0,0,0,0,0,0,0,0,0,0,0,
75,38.94,21.19,40.29,33.92,44.54,38.44,29.58,23.53,36.24,14.98,21.4,25.84,14.4,5.759,14.81,6.764,0,0,0,0,0,0,0,0,0,0,0,0,0,0,0,0,
76,24.82,7.662,29.54,21.52,27.42,23.91,17.26,12.13,16.9,-3.408,-0.0943,0.2511,-10.87,-19.7,-9.323,-19.48,0,0,0,0,0,0,0,0,0,0,0,0,0,0,0,0,
77,5.511,-10.09,18.59,11.07,12.54,12.4,8.555,11.13,10.1,-8.232,-2.308,-2.47,-11.87,-17.51,-4.08,-16.67,0,0,0,0,0,0,0,0,0,0,0,0,0,0,0,0,
78,10.6,-0.6255,28.37,22.67,24.24,22.48,16.81,19.82,14.21,6.273,10.95,14.52,6.468,3.75,12.7,1.734,0,0,0,0,0,0,0,0,0,0,0,0,0,0,0,0,
79,22.77,11.09,29.68,26.71,24.07,22.82,16.41,18.41,10.08,10.35,13.68,17.01,8.634,5.306,10.06,0.9512,0,0,0,0,0,0,0,0,0,0,0,0,0,0,0,0,
80,18.72,8.705,19.41,18.14,10.94,13.16,10.15,13.69,12.59,5.099,12.18,12.36,5.515,0.667,5.849,-3.736,0,0,0,0,0,0,0,0,0,0,0,0,0,0,0,0,
81,12.34,9.198,19.76,18,10.74,12.58,12.55,15.27,16.08,7.118,10.83,12.08,10.59,5.698,8.164,0.6331,0,0,0,0,0,0,0,0,0,0,0,0,0,0,0,0,
82,13.43,11.37,23.17,21.16,11.85,13.41,14.52,18.41,7.853,11.73,6.024,10.31,11.66,5.71,4.813,1.253,0,0,0,0,0,0,0,0,0,0,0,0,0,0,0,0,
83,12.78,9.22,21.26,18.89,8.786,11.57,12.38,17.61,4.284,10.71,3.147,7.164,6.736,-1.824,-2.348,-5.304,0,0,0,0,0,0,0,0,0,0,0,0,0,0,0,0,
84,7.671,5.808,16.58,13.77,5.713,5.684,7.172,10.71,-1.381,3.066,-6.578,-2.483,-1.168,-10.11,-12.42,-15.2,0,0,0,0,0,0,0,0,0,0,0,0,0,0,0,0,
85,-3.575,-1.672,5.71,5.983,-6.75,-6.796,-1.021,2.519,-18.48,-4.838,-23.82,-15.57,-7.771,-15.11,-22.37,-21.84,0,0,0,0,0,0,0,0,0,0,0,0,0,0,0,0,
86,-13.13,-5.439,0.4454,3.13,-15.03,-8.355,-0.8141,2.549,-20.08,-3.36,-26.62,-13.96,-3.667,-10.43,-20.04,-16.63,0,0,0,0,0,0,0,0,0,0,0,0,0,0,0,0,
87,-5.446,4.216,16.77,16.52,3.232,11.19,13.14,16.98,2.542,8.929,-8.449,3.752,11.55,5.057,0.5535,3.438,0,0,0,0,0,0,0,0,0,0,0,0,0,0,0,0,
88,17.19,22.69,46.92,43.92,40.29,40.34,36.07,41.64,34.78,27.51,26.8,30.84,35.49,27.35,38.97,36.04,0,0,0,0,0,0,0,0,0,0,0,0,0,0,0,0,
89,47.49,45.35,73.66,68.08,73.99,66.6,59.36,58.6,67.44,41.82,68.29,60.65,59.16,45.34,77.29,64.45,0,0,0,0,0,0,0,0,0,0,0,0,0,0,0,0,
90,75.02,62.1,87.84,75.41,88.82,80.94,70.19,60.79,87.66,45.63,89.5,77.11,67.19,50.29,91.92,73.31,0,0,0,0,0,0,0,0,0,0,0,0,0,0,0,0,
91,83.88,63.23,91.76,75.24,86.19,82.24,68.71,62.19,89.29,46.5,82.69,72.97,60.39,47.17,83.11,66.78,0,0,0,0,0,0,0,0,0,0,0,0,0,0,0,0,
92,71.03,51.8,88.17,74.61,72.22,68.65,57.3,60.64,66.86,39.42,53.16,47.93,40.11,32.44,52.78,41.78,0,0,0,0,0,0,0,0,0,0,0,0,0,0,0,0,
93,39.54,29.94,78.42,67.51,49.2,42.86,37.3,49.21,22.99,22.19,9.863,13.18,11.67,8.493,11.41,5.901,0,0,0,0,0,0,0,0,0,0,0,0,0,0,0,0,
94,12,12.18,82.22,70.38,38.51,33.6,33.25,51.73,-1.17,18.84,-13.07,-0.2686,1.954,-0.0314,-7.634,-7.845,0,0,0,0,0,0,0,0,0,0,0,0,0,0,0,0,
95,12.62,14.43,111,95.4,50.63,47.44,49.19,71.54,7.824,27.02,-10.19,5.083,8.681,3.355,-5.865,-3.74,0,0,0,0,0,0,0,0,0,0,0,0,0,0,0,0,
96,17.92,20.11,144.4,121.1,61.37,56.43,57.88,79.57,12.24,27.09,-10.67,4.794,9.932,1.896,-5.144,-3.89,0,0,0,0,0,0,0,0,0,0,0,0,0,0,0,0,
97,18.09,23.43,172.8,141.4,69.7,65.4,65.43,82.47,12.33,31.91,-6.699,12.44,17.43,7.449,1.841,2.346,0,0,0,0,0,0,0,0,0,0,0,0,0,0,0,0,
98,33.27,35.5,197.3,161.4,86.99,82.48,78.16,93.3,21.54,37.97,5.059,27.1,26.92,12.29,7.369,6.752,0,0,0,0,0,0,0,0,0,0,0,0,0,0,0,0,
99,41.7,38.29,208.7,170.4,96.01,85.9,75.61,96.35,21.98,29.43,3.955,24.07,19.35,2.874,1.492,-2.309,0,0,0,0,0,0,0,0,0,0,0,0,0,0,0,0,
100,33.47,30.79,219.9,180.6,99.32,85.88,73.21,100.1,24.41,30.51,7.523,21.89,17.99,4.86,7.198,2.076,0,0,0,0,0,0,0,0,0,0,0,0,0,0,0,0,
101,37.89,37.55,242.1,201.4,112.5,98.53,85.98,112.8,39.01,44.73,20.58,32.21,28.98,17.96,17.58,14.59,0,0,0,0,0,0,0,0,0,0,0,0,0,0,0,0,
102,47.32,45.27,251.4,208.7,118,101.7,88.99,114.4,37.39,44.42,13.02,29.2,24.03,13.35,8.383,6.264,0,0,0,0,0,0,0,0,0,0,0,0,0,0,0,0,
103,43.38,39.02,246.7,205.2,111.2,95.08,84.24,113.7,26.66,40.43,-0.8395,19.23,12.77,4.999,-0.5931,-3.219,0,0,0,0,0,0,0,0,0,0,0,0,0,0,0,0,
104,39.86,36.84,251.9,211.5,115.5,99.77,90.29,124.1,37.73,48.73,8.485,25.23,17.83,14.17,8.401,6.931,0,0,0,0,0,0,0,0,0,0,0,0,0,0,0,0,
105,45.85,42.97,260.2,216.6,129,107.4,95.41,127.6,54.73,54.89,25.23,35.96,27.33,25.33,18.68,17.44,0,0,0,0,0,0,0,0,0,0,0,0,0,0,0,0,
106,49.36,43.61,250.4,206.5,126.1,100.3,88.6,118.2,49.28,50.85,23.05,30.31,23.29,22.26,13.76,11.24,0,0,0,0,0,0,0,0,0,0,0,0,0,0,0,0,
107,37.67,33.52,225.3,186.7,104.3,81.96,75.9,106.6,32.19,42.41,6.413,14.02,11.53,12.72,0.6852,-0.6516,0,0,0,0,0,0,0,0,0,0,0,0,0,0,0,0,
108,25.88,24.91,205.8,171.2,93.66,74.52,70.23,100.5,30.68,38.68,4.567,14.76,12.47,12.52,2.095,1.928,0,0,0,0,0,0,0,0,0,0,0,0,0,0,0,0,
109,36.15,31.2,197.7,164.6,98.74,82.19,73.9,98.39,39.32,38.97,19.61,31.62,23.15,17.92,15.36,12.83,0,0,0,0,0,0,0,0,0,0,0,0,0,0,0,0,
110,50.49,37.26,177.6,146.3,87.43,77.54,68.42,88.42,33.82,33.67,22.86,36.22,25.79,17.29,18.63,15.57,0,0,0,0,0,0,0,0,0,0,0,0,0,0,0,0,
111,47.98,32.61,144.2,115.5,67.02,61.63,56.56,76.91,23.95,32.52,17.88,34.91,29.54,19.66,18.15,18.89,0,0,0,0,0,0,0,0,0,0,0,0,0,0,0,0,
112,44.1,36.62,129,103.4,68.52,62.72,59.43,75.1,27.97,39.79,21.23,43.56,40.27,27.61,23.9,26.44,0,0,0,0,0,0,0,0,0,0,0,0,0,0,0,0,
113,50.14,47.24,127.8,105.2,75.41,70.57,65.83,69.07,33.2,35.98,23.55,47.76,42.7,27.71,26.28,26.47,0,0,0,0,0,0,0,0,0,0,0,0,0,0,0,0,
114,55.46,46.26,112.7,93.38,67.19,64.64,60.27,56.3,30.54,26.1,22.97,43.32,37.25,22.41,22.88,20.37,0,0,0,0,0,0,0,0,0,0,0,0,0,0,0,0,
115,49.61,37.7,90.76,75.16,53.53,52.13,49.53,47.13,23.8,24.32,18.8,34.5,27.51,16.15,13.5,10.5,0,0,0,0,0,0,0,0,0,0,0,0,0,0,0,0,
116,31.4,25.22,73.59,60.41,38.31,36.92,34.73,35.48,12.51,18.26,4.216,18.6,13.39,7.404,0.468,0.5563,0,0,0,0,0,0,0,0,0,0,0,0,0,0,0,0,
117,14.34,12.93,55.06,42.75,26.34,22.37,21.59,23.97,6.364,10.26,-2.663,10.82,9.812,6.367,-1.108,3.368,0,0,0,0,0,0,0,0,0,0,0,0,0,0,0,0,
118,11.19,14.05,39.48,28.07,23.1,18.27,21.53,22.27,11.12,13.1,5.954,16.83,15.39,11.02,6.224,10.68,0,0,0,0,0,0,0,0,0,0,0,0,0,0,0,0,
119,9.661,18.41,27.67,17.86,14.45,13.42,21.3,19.71,8.98,11.55,5.507,14.81,10.87,5.079,3.959,4.545,0,0,0,0,0,0,0,0,0,0,0,0,0,0,0,0,
120,-0.1337,10.18,10.86,4.256,-0.095,-0.3919,11.23,11,-2.599,1.407,-4.976,4.367,3.375,-2.761,-2.56,-2.369,0,0,0,0,0,0,0,0,0,0,0,0,0,0,0,0,
121,-1.894,5.458,4.632,1.012,2.751,-0.6659,11.24,11.91,0.7505,5.197,-1.28,6.248,10.18,5.746,3.398,8.344,0,0,0,0,0,0,0,0,0,0,0,0,0,0,0,0,
122,8.481,15.76,19.15,13.87,19.56,14.98,22.53,21.27,16.44,17.45,11.96,15.84,19.33,16.94,12.64,19.83,0,0,0,0,0,0,0,0,0,0,0,0,0,0,0,0,
123,13.13,18.31,22.34,13.41,19.42,13.79,16.96,16.48,15.39,11.3,11.36,13.44,11.64,9.518,7.87,10.62,0,0,0,0,0,0,0,0,0,0,0,0,0,0,0,0,
124,7.076,2.105,2.37,-6.355,1.183,-4.889,-3.217,0.5612,1.449,-5.065,2.619,4.574,-1.773,-3.922,-0.7131,-3.112,0,0,0,0,0,0,0,0,0,0,0,0,0,0,0,0,
125,0.2758,-9.934,-10.24,-17.15,-8.246,-12.17,-11.21,-5.175,-3.132,-9.123,3.832,5.878,-2.001,-4.355,1.204,-2.106,0,0,0,0,0,0,0,0,0,0,0,0,0,0,0,0,
126,1.673,-8.375,-10.76,-16.77,-5.339,-9.595,-9.47,-3.456,-0.2339,-7.415,9.956,12.63,4.407,0.7352,7.369,4.698,0,0,0,0,0,0,0,0,0,0,0,0,0,0,0,0,
127,9.375,-5.747,-13.72,-17.77,-1.836,-8.294,-9.488,-1.585,7.964,-7.154,16.85,18.17,8.329,3.896,15.07,10.5,0,0,0,0,0,0,0,0,0,0,0,0,0,0,0,0,
128,13.58,-3.284,-14.09,-17.75,1.381,-4.196,-8.085,0.9702,19.57,-4.063,26.39,23.53,9.497,4.932,20.62,12.31,0,0,0,0,0,0,0,0,0,0,0,0,0,0,0,0,
129,12.73,-4.222,-14.74,-21.34,0.0724,-3.47,-11.14,-5.94,16.62,-7.053,24.35,19.05,1.996,-2.204,11.77,3.526,0,0,0,0,0,0,0,0,0,0,0,0,0,0,0,0,
130,9.121,-14.38,-19.58,-27.85,-2.951,-6.148,-18.51,-17.47,5.504,-15.52,11.42,6.296,-7.309,-8.955,0.6836,-2.245,0,0,0,0,0,0,0,0,0,0,0,0,0,0,0,0,
131,4.999,-18.49,-16.52,-23.67,2.303,-2.436,-16.5,-15.54,7.668,-14.46,7.604,2.06,-5.216,-4.086,4,5,0,0,0,0,0,0,0,0,0,0,0,0,0,0,0,0,
132,3.939,-11.83,-13.02,-17.49,3.826,-1.61,-10.32,-9.195,12.23,-8.273,11.39,4.701,0.1169,1.288,10.38,10.29,0,0,0,0,0,0,0,0,0,0,0,0,0,0,0,0,
133,3.322,-8.124,-17.05,-19.49,0.0277,-3.142,-6.833,-9.123,10.54,-4.656,13.97,6.751,1.866,1.403,12.04,8.725,0,0,0,0,0,0,0,0,0,0,0,0,0,0,0,0,
134,6.176,-5.4,-14.05,-19.32,5.447,2.691,-2.112,-7.376,11.71,-4.294,13.51,7.185,1.21,-0.6752,9.758,4.537,0,0,0,0,0,0,0,0,0,0,0,0,0,0,0,0,
135,9.838,-6.115,-14.44,-23.76,0.7458,-2.796,-8.55,-11.15,4.886,-15.45,3.586,-0.7821,-8.257,-9.678,0.0484,-3.636,0,0,0,0,0,0,0,0,0,0,0,0,0,0,0,0,
136,-1.07,-19.16,-30.4,-38.39,-18.55,-19.35,-26.55,-24.32,-10.2,-29,-6.131,-9.851,-18.84,-18.31,-6.651,-8.446,0,0,0,0,0,0,0,0,0,0,0,0,0,0,0,0,
137,-11.86,-28.41,-33.9,-39.48,-16.76,-18.12,-31.61,-25.03,-8.582,-27.79,-1.615,-5.513,-17.1,-16.83,-3.83,-7.107,0,0,0,0,0,0,0,0,0,0,0,0,0,0,0,0,
138,-4.137,-25.42,-22.69,-29.14,-3.488,-9.321,-26.71,-15.72,3.075,-22.96,4.854,1.545,-13.11,-14.18,-2.955,-6.748,0,0,0,0,0,0,0,0,0,0,0,0,0,0,0,0,
139,1.482,-25.33,-25.21,-33.01,-7.96,-13.31,-29.93,-20.66,4.46,-24.75,5.575,-0.1433,-15.89,-15.54,-3.962,-6.369,0,0,0,0,0,0,0,0,0,0,0,0,0,0,0,0,
140,-5.37,-28.66,-34.44,-42.64,-15.73,-18.78,-33.52,-30.59,4.331,-26.66,7.237,-2.97,-18.46,-17.63,-2.525,-6.975,0,0,0,0,0,0,0,0,0,0,0,0,0,0,0,0,
141,-10.79,-27.01,-39.86,-45.48,-20.12,-22.1,-29.91,-27.16,3.821,-27.07,4.678,-2.715,-16.45,-18.74,-3.97,-9.704,0,0,0,0,0,0,0,0,0,0,0,0,0,0,0,0,
142,-7.678,-20.62,-44.53,-45.93,-22.06,-23.05,-23.19,-16.98,-2.91,-21.3,-1.287,-0.7173,-9.1,-12.28,-4.521,-5.525,0,0,0,0,0,0,0,0,0,0,0,0,0,0,0,0,
143,-0.257,-11.65,-36.97,-38.94,-14.38,-16.35,-15.38,-10.27,-4.332,-11.08,-0.7834,1.007,-0.7395,-1.011,-1.276,2.762,0,0,0,0,0,0,0,0,0,0,0,0,0,0,0,0,
144,-3.586,-8.703,-33.97,-35.04,-22.91,-19.22,-16.42,-14.4,-6.804,-13.44,-1.528,-3.807,-1.139,-0.0319,-3.105,2.869,0,0,0,0,0,0,0,0,0,0,0,0,0,0,0,0,
145,-18.83,-17.44,-54.59,-47.77,-46.99,-34.25,-30.1,-25.14,-20.63,-24.74,-11.06,-14.8,-10.4,-9.676,-10.4,-4.846,0,0,0,0,0,0,0,0,0,0,0,0,0,0,0,0,
146,-27.83,-27.94,-57.03,-51.2,-38.61,-34.23,-39.16,-24.98,-23.39,-27.27,-18.7,-22.16,-19.64,-17.53,-15.37,-13.07,0,0,0,0,0,0,0,0,0,0,0,0,0,0,0,0,
147,-24.05,-30.63,-29.06,-35.74,-10.69,-19.84,-34.86,-19.81,-8.207,-24.54,-16.31,-19.99,-22.34,-19.22,-15.09,-14.94,0,0,0,0,0,0,0,0,0,0,0,0,0,0,0,0,
148,-12.43,-26.91,-19.7,-30.51,-7.175,-13.39,-27.55,-25.42,-1.265,-25.41,-10.23,-14.23,-19.73,-19.93,-12.08,-11.76,0,0,0,0,0,0,0,0,0,0,0,0,0,0,0,0,
149,-5.882,-24.03,-31.15,-37.96,-13.95,-16.73,-24.53,-30.48,-8.059,-26.88,-9.742,-13.03,-17.4,-22.82,-10.28,-11.62,0,0,0,0,0,0,0,0,0,0,0,0,0,0,0,0,
150,-12.84,-24.34,-34.59,-40.82,-14.17,-20.67,-23.28,-24.93,-9.95,-25.08,-10.09,-10.81,-13.13,-21.42,-7.184,-10.17,0,0,0,0,0,0,0,0,0,0,0,0,0,0,0,0,
151,-16.7,-20.63,-35.79,-40.92,-17.7,-20.46,-20.47,-19.96,-4.337,-22.06,-3.381,-3.221,-6.636,-15.91,-2.167,-6.656,0,0,0,0,0,0,0,0,0,0,0,0,0,0,0,0,
152,-9.942,-14.58,-39.56,-41.98,-22.36,-19.41,-20.23,-22.71,-6.052,-23.22,-1.98,-2.908,-9.174,-18.31,-3.944,-12.4,0,0,0,0,0,0,0,0,0,0,0,0,0,0,0,0,
153,-10.25,-17.01,-41.59,-43.49,-25.71,-24.18,-27.87,-29.21,-15.63,-27.67,-12.21,-12.01,-18.3,-24.54,-10.64,-19.09,0,0,0,0,0,0,0,0,0,0,0,0,0,0,0,0,
154,-21.85,-25.7,-47.97,-48.6,-33.35,-33.06,-39.32,-37.29,-20.98,-31.6,-19.01,-19.85,-23.14,-24.18,-15.72,-17.96,0,0,0,0,0,0,0,0,0,0,0,0,0,0,0,0,
155,-32,-34,-56.15,-55.56,-41.2,-41.18,-48.03,-45.74,-25.43,-36.84,-22.38,-29.24,-29.42,-25.54,-23.83,-21.2,0,0,0,0,0,0,0,0,0,0,0,0,0,0,0,0,
156,-36.44,-40.29,-56.92,-57.54,-39.95,-42.57,-49.74,-46.93,-31.03,-37.29,-26.74,-36.26,-33.59,-26.57,-26.59,-22.02,0,0,0,0,0,0,0,0,0,0,0,0,0,0,0,0,
157,-34.78,-37.17,-49.62,-51.34,-30.09,-32.67,-43.3,-39.13,-25.03,-26.66,-19.55,-26.31,-22.33,-15.46,-13.55,-9.061,0,0,0,0,0,0,0,0,0,0,0,0,0,0,0,0,
158,-22.41,-26.3,-42.2,-44.26,-25.02,-24.91,-38.38,-34.34,-14.19,-20.36,-7.758,-12.3,-10.72,-8.287,-3.412,-1.913,0,0,0,0,0,0,0,0,0,0,0,0,0,0,0,0,
159,-10.44,-23.35,-43.47,-45.87,-28.98,-28.92,-40.01,-36.14,-14.58,-26.25,-6.685,-11.45,-13.29,-15.83,-4.654,-6.245,0,0,0,0,0,0,0,0,0,0,0,0,0,0,0,0,
160,-11.45,-25.82,-45.83,-47.93,-28.34,-28.54,-35.38,-33.36,-16.21,-27.65,-4.054,-10.93,-14.37,-18.32,-0.6206,-4.651,0,0,0,0,0,0,0,0,0,0,0,0,0,0,0,0,
161,-11.04,-20.8,-40.54,-40.54,-23.06,-21.06,-23.94,-25.12,-10.81,-22.21,3.888,-5.622,-9.475,-13.14,4.439,-1.305,0,0,0,0,0,0,0,0,0,0,0,0,0,0,0,0,
162,-6.838,-15.88,-39.24,-35.53,-25.02,-21.36,-21.96,-24.59,-9.897,-22.07,1.664,-8.363,-9.566,-13.66,-2.004,-4.486,0,0,0,0,0,0,0,0,0,0,0,0,0,0,0,0,
163,-12.45,-18.13,-42.52,-37.84,-26,-22.32,-26.51,-31.13,-15.49,-24.85,-9.572,-16.39,-11.47,-16.46,-12.01,-7.822,0,0,0,0,0,0,0,0,0,0,0,0,0,0,0,0,
164,-17.83,-19.8,-38.74,-36.55,-19.13,-17.16,-25.44,-30.52,-19.99,-26.53,-19.36,-20.04,-11.9,-17.46,-17.14,-10.06,0,0,0,0,0,0,0,0,0,0,0,0,0,0,0,0,
165,-16.92,-19.14,-37.16,-35.07,-18.97,-17.55,-22.59,-26.43,-22.04,-25.62,-21.19,-18.33,-10.62,-13.39,-14.45,-7.741,0,0,0,0,0,0,0,0,0,0,0,0,0,0,0,0,
166,-15.62,-15.85,-40.84,-36.92,-25.82,-20.28,-20.91,-28.16,-22.69,-17.32,-16.67,-15.54,-5.207,-3.263,-10.37,-2.159,0,0,0,0,0,0,0,0,0,0,0,0,0,0,0,0,
167,-15.51,-10.72,-37.65,-35.29,-26.67,-20.18,-20.74,-28.46,-24.86,-12.15,-19.92,-19.65,-5.895,-4.281,-17.71,-8.515,0,0,0,0,0,0,0,0,0,0,0,0,0,0,0,0,
168,-22.36,-12.48,-34.48,-34.87,-26.87,-24.6,-25.31,-27.68,-27.65,-18.06,-26.34,-24.87,-13.61,-16.16,-24.19,-18.73,0,0,0,0,0,0,0,0,0,0,0,0,0,0,0,0,
169,-23.28,-15.66,-33.65,-34.26,-27.67,-23.94,-25.8,-30.63,-24.68,-21.27,-19.4,-19.78,-12.83,-18.84,-16.8,-15.89,0,0,0,0,0,0,0,0,0,0,0,0,0,0,0,0,
170,-10.14,-11.01,-24.52,-24.88,-18.82,-11.86,-16.78,-27.12,-19.79,-18.08,-12.34,-13.93,-7.695,-16.02,-11.22,-11.84,0,0,0,0,0,0,0,0,0,0,0,0,0,0,0,0,
171,-5.266,-6.461,-18.03,-16.36,-12.06,-5.891,-8.484,-15.85,-18.57,-14.46,-15.95,-13.78,-7.879,-13.96,-11.81,-12.43,0,0,0,0,0,0,0,0,0,0,0,0,0,0,0,0,
172,-6.784,-4.345,-20.45,-13.62,-17.5,-8.896,-4.272,-8.224,-15.42,-10.44,-15.22,-11.24,-7.696,-9.115,-9.383,-8.983,0,0,0,0,0,0,0,0,0,0,0,0,0,0,0,0,
173,-1.576,-0.8285,-17.33,-10.31,-15.47,-6.316,0.1193,-5.81,-5.542,-9.173,-3.391,-2.898,-2.254,-4.034,-1.936,-0.4546,0,0,0,0,0,0,0,0,0,0,0,0,0,0,0,0,
174,6.43,4.911,-7.3,-5.423,0.733,4.719,6.972,-1.749,9.856,-5.19,13.98,12.27,10.04,5.985,12.52,13.37,0,0,0,0,0,0,0,0,0,0,0,0,0,0,0,0,
175,18.44,13.58,1.099,2.842,7.49,12.46,11.56,2.48,16.32,1.513,20.45,19.91,16.7,11.03,17.16,16.9,0,0,0,0,0,0,0,0,0,0,0,0,0,0,0,0,
176,20.53,12.04,-0.9145,2.39,-4.288,5.176,1.952,-4.622,0.5614,-6.009,4.586,5.459,4.871,-4.013,0.6775,-1.067,0,0,0,0,0,0,0,0,0,0,0,0,0,0,0,0,
177,9.143,-0.6729,-13.86,-12.94,-13.45,-5.42,-12.05,-15.55,-14.04,-15.66,-8.169,-6.276,-4.938,-13.69,-8.119,-12.73,0,0,0,0,0,0,0,0,0,0,0,0,0,0,0,0,
178,9.036,-1.626,-14.74,-12.77,-5.46,-0.6289,-8.639,-10.11,-5.22,-7.766,1.099,2.514,1.647,-5.303,2.551,-4.355,0,0,0,0,0,0,0,0,0,0,0,0,0,0,0,0,
179,14.58,7.081,-0.0372,5.124,7.782,10.98,3.984,0.6098,9.368,0.3292,15.8,15.81,12.15,1.188,15.3,8.451,0,0,0,0,0,0,0,0,0,0,0,0,0,0,0,0,
180,16.51,11.94,0.2323,4.691,10.08,14.26,8.68,-2.835,14.01,-2.274,22.9,24.3,17.84,4.066,20.53,15.11,0,0,0,0,0,0,0,0,0,0,0,0,0,0,0,0,
181,19.43,10.98,-15.09,-9.444,-3.223,4.523,2.497,-11.8,6.409,-9.137,14.11,16.93,5.973,-2.564,7.54,2.516,0,0,0,0,0,0,0,0,0,0,0,0,0,0,0,0,
182,5.79,-3.761,-19.23,-9.768,-18.78,-10.96,-7.868,-9.977,-9.445,-14.99,-4.229,-3.772,-14.18,-16.26,-9.486,-15.19,0,0,0,0,0,0,0,0,0,0,0,0,0,0,0,0,
183,-10.99,-13.72,-7.926,1.884,-13.53,-8.745,-5.037,3.925,-13.78,-7.911,-5.982,-7.39,-9.879,-9.497,-5.313,-9.581,0,0,0,0,0,0,0,0,0,0,0,0,0,0,0,0,
184,-3.017,0.0409,0.896,8.988,0.331,4.496,3.941,8.558,-9.121,0.9003,-1.849,-4.082,-0.1535,0.4505,-4.593,-5.041,0,0,0,0,0,0,0,0,0,0,0,0,0,0,0,0,
185,-0.508,4.535,-4.547,1.885,-6.991,-2.236,-4.165,-6.249,-13.95,-6.431,-11.37,-16.4,-9.383,-8.352,-17.09,-14.99,0,0,0,0,0,0,0,0,0,0,0,0,0,0,0,0,
186,-16.83,-5.401,-13.55,-9.31,-18.18,-13.45,-11.71,-13.04,-14.89,-9.551,-10.61,-16.23,-8.237,-6.939,-11.26,-9.366,0,0,0,0,0,0,0,0,0,0,0,0,0,0,0,0,
187,-16.45,0.5988,-14.8,-11.36,-15.18,-9.49,-4.124,-6.342,-7.117,-3.47,1.138,-1.336,1.198,1.343,-1.088,0.2459,0,0,0,0,0,0,0,0,0,0,0,0,0,0,0,0,
188,-2.085,3.462,-17.01,-12.19,-19.47,-10.89,-3.233,-9.409,-10.15,-7.962,-3.83,-3.653,-6.888,-6.336,-8.387,-5.63,0,0,0,0,0,0,0,0,0,0,0,0,0,0,0,0,
189,1.049,-8.277,-18.89,-12.16,-24.4,-12.41,-3.587,-10.26,-14.81,-8.864,-11.16,-9.002,-10.9,-7.805,-8.605,-4.636,0,0,0,0,0,0,0,0,0,0,0,0,0,0,0,0,
190,1.887,-3.799,-10.02,-1.849,-10.18,3.321,10.09,4.885,-6.308,4.04,-2.069,1.09,-0.0305,2.513,2.215,4.749,0,0,0,0,0,0,0,0,0,0,0,0,0,0,0,0,
191,6.074,8.584,-5.754,2.802,-1.877,10.98,15.2,9.931,-1.363,7.036,4.534,6.424,3.736,3.12,4.718,5.379,0,0,0,0,0,0,0,0,0,0,0,0,0,0,0,0,
192,2.346,6.138,-16.95,-9.097,-13.41,-1.173,5.161,-2.31,-9.344,-1.089,-0.7547,1.017,1.764,-0.8038,2.744,2.701,0,0,0,0,0,0,0,0,0,0,0,0,0,0,0,0,
193,-3.402,6.141,-22.78,-15.31,-21.01,-6.928,4.62,-4.498,-16.03,-0.1818,-4.931,-1.214,4.084,-0.4205,1.748,2.551,0,0,0,0,0,0,0,0,0,0,0,0,0,0,0,0,
194,-3.937,13.56,-16.14,-7.641,-17.84,-1.666,11.65,2.978,-16.83,4.372,-4.846,-0.7398,4.197,-1.165,-1.254,2.182,0,0,0,0,0,0,0,0,0,0,0,0,0,0,0,0,
195,-3.183,10.54,-14.28,-4.428,-15.26,-1.075,8.501,-1.883,-18.95,-0.9984,-4.957,-1.638,0.5869,-2.048,-1.794,2.267,0,0,0,0,0,0,0,0,0,0,0,0,0,0,0,0,
196,-0.7102,2.272,-18.46,-8.438,-17.87,-5.106,1.093,-10.73,-20.02,-7.536,-4.882,-0.693,-0.8736,-1.007,0.2485,2.313,0,0,0,0,0,0,0,0,0,0,0,0,0,0,0,0,
197,-2.535,-0.4995,-19.97,-11.08,-22.09,-8.132,-3.099,-11.75,-16.73,-6.817,-6.107,0.2286,-0.0928,-0.7955,-1.115,0.8537,0,0,0,0,0,0,0,0,0,0,0,0,0,0,0,0,
198,-8.218,-2.062,-21.22,-13.53,-17.6,-7.63,-6.918,-13.74,-12.39,-4.124,-6.479,0.4924,1.842,-0.081,-1.703,0.0105,0,0,0,0,0,0,0,0,0,0,0,0,0,0,0,0,
199,-2.575,0.5304,-21.98,-13.42,-9.094,-2.801,-5.369,-12.44,-6.795,0.3404,-1.294,3.093,4.22,1.409,0.4161,-0.995,0,0,0,0,0,0,0,0,0,0,0,0,0,0,0,0,
200,4.415,7.177,-20.68,-9.413,-13.7,-2.305,0.4975,-5.412,-5.906,5.566,-2.497,-1.466,1.739,-0.9088,-4.282,-5.986,0,0,0,0,0,0,0,0,0,0,0,0,0,0,0,0,
201,-0.593,6.267,-19.91,-7.179,-19.68,-6.437,2.52,-3.019,-14.23,6.793,-13.35,-14.38,-2.344,-1.228,-8.655,-5.973,0,0,0,0,0,0,0,0,0,0,0,0,0,0,0,0,
202,-0.5873,4.257,-15.71,-3.09,-11.44,-3.962,4.54,0.2038,-15.56,8.263,-11.53,-16.97,0.6012,6.925,-0.5824,5.014,0,0,0,0,0,0,0,0,0,0,0,0,0,0,0,0,
203,2.367,7.027,-13.42,-0.1903,-11.12,-5.4,2.007,0.5142,-8.322,6.119,-1.882,-13.48,0.0829,7.619,2.668,6.929,0,0,0,0,0,0,0,0,0,0,0,0,0,0,0,0,
204,-10.96,-1.363,-23.16,-10.02,-23.93,-18.72,-11.9,-11.8,-9.547,-4.262,-4.194,-15.42,-7.364,-2.566,-2.322,-1.346,0,0,0,0,0,0,0,0,0,0,0,0,0,0,0,0,
205,-20.66,-12.77,-27.96,-17.72,-19.53,-18.94,-16.44,-15.99,-7.237,-5.791,2,-3.474,-1.055,0.2056,8.418,6.59,0,0,0,0,0,0,0,0,0,0,0,0,0,0,0,0,
206,-5.496,-6.94,-18.98,-10.18,-6.229,-4.939,-5.3,-6.83,6.253,2.037,19.78,16.98,10.93,9.335,20,17.86,0,0,0,0,0,0,0,0,0,0,0,0,0,0,0,0,
207,7.174,-1.38,-18.72,-6.809,-12.71,-4.614,-1.924,-4.842,4.014,0.8917,14.31,13.32,5.232,3.623,8.7,9.238,0,0,0,0,0,0,0,0,0,0,0,0,0,0,0,0,
208,-0.5868,-4.929,-25.88,-11.42,-21.1,-10.71,-4.987,-4.514,-12.43,-0.1975,-3.308,-0.4222,0.0529,0.8708,-0.7241,2.741,0,0,0,0,0,0,0,0,0,0,0,0,0,0,0,0,
209,-8.246,0.2074,-25.21,-11.36,-19.98,-11.38,-4.92,-1.967,-19.32,4.384,-7.112,-4.262,4.931,6.774,-0.6894,3.183,0,0,0,0,0,0,0,0,0,0,0,0,0,0,0,0,
210,-14.77,2.985,-29.59,-16.48,-29.1,-21.26,-12.24,-11.34,-22.51,-0.8745,-12.49,-14.38,-1.877,0.5961,-11.62,-8.27,0,0,0,0,0,0,0,0,0,0,0,0,0,0,0,0,
211,-24.32,-4.378,-36.12,-23.9,-32.43,-26.85,-15.43,-17.61,-20.08,-4.28,-13.04,-20.32,-7.326,-2.795,-15.7,-10.9,0,0,0,0,0,0,0,0,0,0,0,0,0,0,0,0,
212,-18.31,0.4474,-26.78,-15.3,-14.52,-12.18,-2.399,-4.932,-3.032,5.072,2.989,-8.148,3.606,8.235,-3.421,3.185,0,0,0,0,0,0,0,0,0,0,0,0,0,0,0,0,
213,-9.995,5.03,-19.37,-8.791,-8.672,-7.301,-1.365,0.7239,1.218,2.816,2.411,-6.518,2.387,6.006,-3.884,1.711,0,0,0,0,0,0,0,0,0,0,0,0,0,0,0,0,
214,-18.95,-12.11,-25.89,-20.09,-19.84,-20.11,-17.7,-11.43,-14.7,-9.75,-12.33,-13.78,-9.858,-5.181,-9.602,-6.925,0,0,0,0,0,0,0,0,0,0,0,0,0,0,0,0,
215,-19.79,-20.43,-25.48,-24.13,-17.04,-18.61,-17.63,-12.79,-16.01,-3.98,-1.883,2.069,-1.216,2.386,4.946,4.8,0,0,0,0,0,0,0,0,0,0,0,0,0,0,0,0,
216,-0.1063,-2.8,-13.6,-10.95,-1.751,-0.4302,0.4804,2.524,0.8206,12,19.51,25.3,15.64,14.46,20.42,17.7,0,0,0,0,0,0,0,0,0,0,0,0,0,0,0,0,
217,21.74,12.9,-1.022,1.989,10.04,13.57,12.94,12.44,11.74,16.85,22.3,26.97,16.44,13.2,17.47,13.79,0,0,0,0,0,0,0,0,0,0,0,0,0,0,0,0,
218,31.44,16.73,5.075,5.49,11.51,14.42,14.7,10.89,10.8,16.29,12.92,14.71,10.96,10.5,8.533,6.551,0,0,0,0,0,0,0,0,0,0,0,0,0,0,0,0,
219,23.82,18.03,-2.859,-0.3602,-0.4394,3.284,9.971,5.764,2.935,15.48,1.804,3.509,7.547,10.83,3.033,3.362,0,0,0,0,0,0,0,0,0,0,0,0,0,0,0,0,
220,10.98,14.73,-14.8,-7.214,-11.57,-7.607,3.822,3.388,-1.879,11.26,-3.501,-2.61,2.96,9.106,-0.8752,1.451,0,0,0,0,0,0,0,0,0,0,0,0,0,0,0,0,
221,1.539,5.892,-16.18,-8.348,-10.74,-10.88,-1.267,3.687,2.326,8.557,-1.314,-5.182,1.231,9.76,-2.918,1.973,0,0,0,0,0,0,0,0,0,0,0,0,0,0,0,0,
222,-7.846,-1.603,-12.74,-10.53,-4.226,-10.79,-8.702,0.7969,7.276,7.723,0.0424,-4.385,5.528,14.84,0.3151,7.1,0,0,0,0,0,0,0,0,0,0,0,0,0,0,0,0,
223,-7.673,-2.641,-8.401,-13.19,5.193,-5.475,-13.22,-3.341,10.37,4.164,2.805,1.442,11.01,18.29,6.479,13.05,0,0,0,0,0,0,0,0,0,0,0,0,0,0,0,0,
224,0.0139,0.8444,-2.964,-10.8,11.87,1.74,-10.25,-4.511,13.23,2.491,5.579,3.877,11.76,16.46,5.862,10.88,0,0,0,0,0,0,0,0,0,0,0,0,0,0,0,0,
225,1.111,2.499,-3.602,-10.34,8.811,0.6309,-8.755,-6.635,8.777,3.405,-1.115,-1.648,6.5,10.65,-0.5186,1.947,0,0,0,0,0,0,0,0,0,0,0,0,0,0,0,0,
226,1.981,1.837,-8.644,-14.48,3.067,-3.41,-9.447,-8.67,0.818,1.792,-4.458,-1.254,2.345,6.069,0.6176,-0.2636,0,0,0,0,0,0,0,0,0,0,0,0,0,0,0,0,
227,8.702,3.72,-10.57,-16.16,0.6029,-1.969,-4.577,-5.77,2.006,3.461,6.575,8.614,6.572,7.904,9.57,6.982,0,0,0,0,0,0,0,0,0,0,0,0,0,0,0,0,
228,13.27,7.922,-10.46,-14.33,-2.758,-0.7699,0.3108,-1.338,5.322,9.403,13.92,11.25,11.16,10.84,12.07,10.23,0,0,0,0,0,0,0,0,0,0,0,0,0,0,0,0,
229,9.339,9.4,-10.09,-11.65,-5.941,-2.035,0.6501,2.37,1.599,9.139,11.86,5.16,7.293,8.61,8.663,6.166,0,0,0,0,0,0,0,0,0,0,0,0,0,0,0,0,
230,4.167,8.407,-3.509,-4.229,2.064,4.52,6.292,9.306,4.52,5.513,15.86,5.907,3.304,7.286,12.16,6.163,0,0,0,0,0,0,0,0,0,0,0,0,0,0,0,0,
231,8.798,7.263,10.15,8.497,16.79,17.01,15.45,14.2,15.52,3.415,19.99,8.98,0.4675,5.518,14.1,5.884,0,0,0,0,0,0,0,0,0,0,0,0,0,0,0,0,
232,13.76,1.914,17.42,15.92,20.16,21.03,15.91,10.38,18.68,-1.177,15.43,5.105,-6.052,-1.853,6.349,-1.925,0,0,0,0,0,0,0,0,0,0,0,0,0,0,0,0,
233,15.8,-3.248,16.3,16.43,21.76,21.78,14.09,9.094,21.81,-1.539,16.82,7.418,-3.852,-2.647,5.883,-3.045,0,0,0,0,0,0,0,0,0,0,0,0,0,0,0,0,
234,23.62,0.1449,17.15,15.14,29.17,24.4,13.41,11.08,27.39,2.931,18.88,11.92,5.014,3.928,9.712,2.265,0,0,0,0,0,0,0,0,0,0,0,0,0,0,0,0,
235,18.94,1.255,11.92,5.431,19.89,14.4,2.076,1.185,16.97,2.071,5.322,1.118,3.704,5.278,1.047,0.1217,0,0,0,0,0,0,0,0,0,0,0,0,0,0,0,0,
236,-1.976,-4.923,-3.685,-8.953,1.427,-2.129,-12,-8.937,1.424,2.267,-6.463,-10.3,0.2677,6.16,-8.049,-3.298,0,0,0,0,0,0,0,0,0,0,0,0,0,0,0,0,
237,-13.97,-7.142,-15.27,-16.15,-5.742,-10.82,-17.33,-6.112,-4.775,5.096,-8.399,-13.06,-0.5648,6.663,-11.12,-6.506,0,0,0,0,0,0,0,0,0,0,0,0,0,0,0,0,
238,-20.3,-8.023,-19.86,-19.24,-13.02,-17.36,-20.04,-3.692,-12.18,1.783,-15.05,-18.39,-6.295,1.328,-14.68,-12.31,0,0,0,0,0,0,0,0,0,0,0,0,0,0,0,0,
239,-25.19,-9.025,-18.25,-15.34,-15.2,-15.85,-14.75,-2.122,-15.91,2.315,-18.42,-16.6,-4.62,1.997,-11.12,-9.01,0,0,0,0,0,0,0,0,0,0,0,0,0,0,0,0,
240,-15.12,-1.753,-9.353,-2.791,-4.891,-3.808,0.2624,3.994,-10.38,10.28,-11.63,-4.679,6.669,8.611,-4.212,-0.5843,0,0,0,0,0,0,0,0,0,0,0,0,0,0,0,0,
241,-3.993,5.551,-3.067,1.897,-1.939,0.4959,5.961,6.466,-3.873,10.78,-6.42,-0.7315,9.558,8.56,-4.37,0.9362,0,0,0,0,0,0,0,0,0,0,0,0,0,0,0,0,
242,-7.796,2.923,-1.719,-2.613,-1.754,-2.171,-0.2235,4.479,3.75,3.493,-6.277,-6.518,2.302,4.512,-7.237,-1.097,0,0,0,0,0,0,0,0,0,0,0,0,0,0,0,0,
243,-15.45,-5.597,-2.953,-7.08,3.526,-5.585,-7.929,-1.984,2.399,-2.723,-12.68,-16.68,-7.932,-1.05,-12.97,-7.127,0,0,0,0,0,0,0,0,0,0,0,0,0,0,0,0,
244,-21.09,-14.57,-9.86,-13.08,-2.553,-13.94,-14.48,-9.206,-10.71,-4.928,-20.93,-25.49,-14.68,-6.963,-17.93,-14.02,0,0,0,0,0,0,0,0,0,0,0,0,0,0,0,0,
245,-21.92,-14.6,-9.852,-10.73,-7.165,-11.86,-9.596,-1.082,-8.683,1.491,-13.7,-17.69,-7.35,-2.414,-9.489,-7.743,0,0,0,0,0,0,0,0,0,0,0,0,0,0,0,0,
246,-6.25,0.0309,6.453,6.733,7.854,6.223,8.561,18.43,8.37,13.8,4.287,0.9512,7.39,8.568,3.371,4.556,0,0,0,0,0,0,0,0,0,0,0,0,0,0,0,0,
247,11.98,13.6,16.23,15.47,15.75,11.64,15.21,25.56,10.72,15.83,7.45,4.09,8.079,6.503,1.29,0.9987,0,0,0,0,0,0,0,0,0,0,0,0,0,0,0,0,
248,6.586,9.239,4.169,2.916,1.588,-2.313,2.139,15.57,-0.0543,5.122,-4.06,-6.346,-3.019,-4.381,-8.109,-10.35,0,0,0,0,0,0,0,0,0,0,0,0,0,0,0,0,
249,-4.997,-1.442,-5.769,-5.749,-4.349,-7.596,-5.499,6.978,-1.208,1.517,-5.856,-5.834,-4.25,-1.947,-5.433,-5.888,0,0,0,0,0,0,0,0,0,0,0,0,0,0,0,0,
250,-0.4871,-1.783,2.479,1.779,8.705,0.8948,-0.3224,8.883,5.806,7.205,0.6143,1.456,1.141,6.774,0.4597,2.443,0,0,0,0,0,0,0,0,0,0,0,0,0,0,0,0,
251,0.926,-1.286,9.085,7.102,14.22,3.341,0.8371,10.36,4.566,5.253,-4.997,-3.164,-3.286,2.112,-6.186,-4.425,0,0,0,0,0,0,0,0,0,0,0,0,0,0,0,0,
252,-7.627,-6.045,5.702,6.504,6.71,-0.5833,-0.6532,9.008,-3.426,0.3934,-14.5,-11.14,-9.062,-5.352,-13.61,-11.06,0,0,0,0,0,0,0,0,0,0,0,0,0,0,0,0,
253,-12.17,-6.307,3.33,6.914,0.8957,-2.158,1.877,8.391,-7.605,0.8854,-15.76,-14.07,-8.101,-4.729,-14.21,-9.478,0,0,0,0,0,0,0,0,0,0,0,0,0,0,0,0,
254,-12.89,-4.309,2.683,5.577,2.057,0.8999,5.232,6.168,-2.829,2.119,-11.58,-12.83,-3.76,-1.049,-9.18,-4.773,0,0,0,0,0,0,0,0,0,0,0,0,0,0,0,0,
255,-0.098,3.57,14.03,15.1,21.76,21.3,20.33,14.76,20.32,12.53,13.54,9.97,14.41,12.07,17.37,16.02,0,0,0,0,0,0,0,0,0,0,0,0,0,0,0,0,
256,34.56,28.25,45.07,42.41,58.28,57.46,50.45,39.1,58.12,31.67,61.39,52.89,44.82,34.16,62.31,50.01,0,0,0,0,0,0,0,0,0,0,0,0,0,0,0,0,
257,70.43,55.3,72.6,65.85,86.47,85.34,75.82,60.33,90.99,43.98,101.5,86.46,67.72,51.83,98.49,76.28,0,0,0,0,0,0,0,0,0,0,0,0,0,0,0,0,
258,93.55,72.01,84.84,76.88,100.3,98.28,88.16,71.49,110.6,51.9,119.4,101.6,78.71,61.93,112.7,87.71,0,0,0,0,0,0,0,0,0,0,0,0,0,0,0,0,
259,100.1,78.43,83.56,75.63,94.39,92.49,84.62,69.32,103.2,51.99,105.3,91.94,71.62,56.65,93.78,74.31,0,0,0,0,0,0,0,0,0,0,0,0,0,0,0,0,
260,77.15,62.63,59.17,54.34,58.43,60.32,60.9,49.77,60.96,34.87,56.19,51.21,41.57,33.12,47.11,38.26,0,0,0,0,0,0,0,0,0,0,0,0,0,0,0,0,
261,35.46,32.3,27.79,29.64,22.41,27.18,34.63,30.84,19.41,20.7,13.16,12.73,15.74,14.47,11.73,10.86,0,0,0,0,0,0,0,0,0,0,0,0,0,0,0,0,
262,9.534,15.62,13.5,18.83,9.956,14.67,19.51,19.24,3.951,17.73,-0.1757,2.212,10.15,8.911,0.6649,1.671,0,0,0,0,0,0,0,0,0,0,0,0,0,0,0,0,
263,2.718,9.868,2.704,8.114,0.923,5.051,5.894,2.675,-3.989,6,-6.232,-0.1172,4.765,0.4855,-7.054,-5.786,0,0,0,0,0,0,0,0,0,0,0,0,0,0,0,0,
264,-4.448,-0.1007,-11.54,-6.533,-7.798,-7.558,-5.596,-9.5,-8.506,-8.668,-7.46,-3.373,-3.792,-8.034,-10.45,-9.424,0,0,0,0,0,0,0,0,0,0,0,0,0,0,0,0,
265,-7.305,-5.962,-11.15,-9.275,-2.812,-6.912,-5.038,-5.147,-0.0667,-8.253,1.656,2.912,-0.5075,-4.664,-2.082,-2.543,0,0,0,0,0,0,0,0,0,0,0,0,0,0,0,0,
266,1.542,-2.296,0.0391,-1.259,5.027,2.251,1.488,2.918,6.132,-1.128,3.933,10.65,6.739,2.406,3.652,2.831,0,0,0,0,0,0,0,0,0,0,0,0,0,0,0,0,
267,8.743,0.2743,4.151,3.762,5.777,5.374,5.401,4.407,0.2342,3.447,-1.599,9.945,5.594,2.63,-0.2597,-0.6584,0,0,0,0,0,0,0,0,0,0,0,0,0,0,0,0,
268,8.934,-0.5815,2.44,4.362,4.527,4.164,7.906,4.818,-5.143,6.74,-4.482,6.434,2.968,-0.5073,-4.898,-5.039,0,0,0,0,0,0,0,0,0,0,0,0,0,0,0,0,
269,6.242,1.181,0.9585,4.148,1.305,2.256,8.391,6.191,-5.562,5.575,-7.671,4.829,3.754,-1.138,-5.481,-4.888,0,0,0,0,0,0,0,0,0,0,0,0,0,0,0,0,
270,2.623,4.548,-0.139,2.354,-0.8592,1.708,7.303,6.167,-4.196,3.1,-6.946,7.164,4.376,1.106,-2.628,-2.913,0,0,0,0,0,0,0,0,0,0,0,0,0,0,0,0,
271,2.619,5.444,2.302,1.59,5.245,6.456,8.218,5.82,-0.737,4.103,-1.22,9.883,2.496,1.288,-2.018,-4.793,0,0,0,0,0,0,0,0,0,0,0,0,0,0,0,0,
272,3.15,2.449,3.712,2.153,8.273,7.638,6.99,6.363,-1.41,3.376,-3.258,4.806,-1.12,-1.018,-6.535,-8.968,0,0,0,0,0,0,0,0,0,0,0,0,0,0,0,0,
273,1.985,1.021,-2.138,1.768,-0.1047,1.526,5.012,12.01,-5.55,6.928,-5.534,1.345,1.506,4.182,-5.615,-4.895,0,0,0,0,0,0,0,0,0,0,0,0,0,0,0,0,
274,5.498,9.465,-4.934,4.64,-3.976,1.539,10.14,19.48,-3.28,19.62,1.456,7.357,8.706,12.68,-0.1501,1.859,0,0,0,0,0,0,0,0,0,0,0,0,0,0,0,0,
275,5.805,17.02,-2.945,6.337,-1.817,2.683,11.49,13.82,-2.384,21.75,0.6415,6.938,4.748,7.773,-3.772,-2.665,0,0,0,0,0,0,0,0,0,0,0,0,0,0,0,0,
276,-4.933,9.683,-6.694,-0.332,-5.634,-5.167,1.701,1.344,-8.668,9.648,-7.558,-0.7336,-4.67,-1.941,-8.311,-7.411,0,0,0,0,0,0,0,0,0,0,0,0,0,0,0,0,
277,-12.57,0.0545,-9.946,-6.04,-7.713,-8.373,-4.164,-1.616,-9.159,2.372,-6.403,-2.043,-4.248,-2.123,-4.612,-3.587,0,0,0,0,0,0,0,0,0,0,0,0,0,0,0,0,
278,-10.14,-2.132,-8.42,-7.158,-3.879,-4.635,-3.292,-2.469,-6.042,-0.7237,-4.051,-2.713,-1.458,-1.597,-2.639,-2.65,0,0,0,0,0,0,0,0,0,0,0,0,0,0,0,0,
279,-7.563,-2.843,-6.759,-6.296,0.7759,-2.929,-1.63,-3.54,-6.743,-2.121,-4.458,-3.181,-0.5094,-1.511,-1.017,-2.92,0,0,0,0,0,0,0,0,0,0,0,0,0,0,0,0,
280,-4.536,1.054,0.093,1.822,6.579,1.26,3.927,1.16,-3.264,5.194,1.415,3.387,2.531,3.469,3.7,-0.611,0,0,0,0,0,0,0,0,0,0,0,0,0,0,0,0,
281,3.357,6.349,4.488,7.22,3.91,3.02,5.244,-0.1979,0.5185,8.138,5.466,7.251,1.264,3.357,3.77,-2.688,0,0,0,0,0,0,0,0,0,0,0,0,0,0,0,0,
282,8.043,3.433,-1.713,2.224,-3.28,-1.237,-1.185,-7.085,0.0188,0.1868,5.685,8.193,-0.9034,-0.9944,4.041,-2.558,0,0,0,0,0,0,0,0,0,0,0,0,0,0,0,0,
283,9.912,1.072,0.4261,4.781,6.297,2.653,-0.1359,-2.36,6.119,-0.7281,10.02,12.95,1.932,-0.0035,6.213,1.698,0,0,0,0,0,0,0,0,0,0,0,0,0,0,0,0,
284,14.88,2.005,10.2,13.45,17.25,9.412,5.087,7.001,12.02,4.24,8.081,9.759,-0.8652,-0.7364,-0.8934,-3.018,0,0,0,0,0,0,0,0,0,0,0,0,0,0,0,0,
285,9.768,-3.164,5.894,9.366,8.392,4.537,0.9031,3.404,6.666,1.872,-3.785,-2.369,-7.111,-4.239,-9.988,-10.24,0,0,0,0,0,0,0,0,0,0,0,0,0,0,0,0,
286,-6.414,-5.672,-0.6042,2.252,2.414,-0.3479,-3.052,-7.388,3.386,1.028,-9.752,-7.463,-3.485,-0.2594,-8.273,-6.745,0,0,0,0,0,0,0,0,0,0,0,0,0,0,0,0,
287,-11.72,2.144,5.371,3.339,9.818,3.117,0.3488,-11.61,5.556,6.026,-6.774,-4.888,3.188,5.196,-2.335,-0.8587,0,0,0,0,0,0,0,0,0,0,0,0,0,0,0,0,
288,-6.222,7.638,8.223,2.941,9.096,4.05,1.042,-9.929,1.246,5.256,-3.253,-1.82,3.814,2.862,0.814,0.1603,0,0,0,0,0,0,0,0,0,0,0,0,0,0,0,0,
289,-5.401,4.602,3.191,0.8685,1.317,-0.2183,-2.523,-8.127,-5.215,-0.167,-2.086,0.0431,1.845,-2.002,0.8714,-0.1968,0,0,0,0,0,0,0,0,0,0,0,0,0,0,0,0,
290,-9.913,-1.39,0.8082,1.243,1.267,-3.571,-4.921,-8.804,-8.565,-3.635,-3.96,-1.103,-2.123,-4.926,-1.867,-1.854,0,0,0,0,0,0,0,0,0,0,0,0,0,0,0,0,
291,-12.21,-5.668,0.8631,-0.1824,1.791,-4.39,-5.612,-11.35,-12.63,-5.907,-5.672,-1.999,-5.855,-6.025,-1.655,-2.762,0,0,0,0,0,0,0,0,0,0,0,0,0,0,0,0,
292,-9.581,-5.154,0.0682,-1.003,-5.518,-5.449,-4.613,-10.09,-11.68,-5.259,-3.198,0.321,-5.498,-5.885,1.767,-1.778,0,0,0,0,0,0,0,0,0,0,0,0,0,0,0,0,
293,-8.349,-4.21,-2.846,-0.8744,-12.56,-9.486,-4.072,-7.072,-3.833,-3.207,0.8297,2.512,-4.944,-6.349,1.436,-3.229,0,0,0,0,0,0,0,0,0,0,0,0,0,0,0,0,
294,-6.243,-5.999,-4.939,-2.358,-9.68,-9.434,-3.182,-7.469,2.602,-1.501,6.772,7.349,-2.706,-3.067,2.043,-2.221,0,0,0,0,0,0,0,0,0,0,0,0,0,0,0,0,
295,3.932,-2.991,-0.5077,1.007,-0.0856,-1.507,0.4997,-5.725,5.965,2.749,12.58,12.3,2.291,3.154,5.576,2.195,0,0,0,0,0,0,0,0,0,0,0,0,0,0,0,0,
296,4.915,-0.202,-1.319,1.888,-1.187,-3.773,-4.18,-6.395,1.043,0.9127,3.986,3.257,-1.552,-0.2358,0.0347,-3.005,0,0,0,0,0,0,0,0,0,0,0,0,0,0,0,0,
297,-14.4,-9.099,-16.9,-11.22,-17.96,-21.74,-19.91,-15.02,-13.09,-9.184,-14.43,-12.44,-11.43,-8.246,-9.736,-12.24,0,0,0,0,0,0,0,0,0,0,0,0,0,0,0,0,
298,-31.21,-16.59,-28.28,-22,-28.84,-32.41,-26.92,-18.54,-16.86,-10.79,-17.21,-14.86,-10.83,-5.701,-8.767,-9.298,0,0,0,0,0,0,0,0,0,0,0,0,0,0,0,0,
299,-28.98,-10.56,-26.82,-21.24,-26.02,-30.48,-22.31,-18.43,-9.753,-4.986,-6.633,-9.34,-2.219,1.085,-2.87,-0.6204,0,0,0,0,0,0,0,0,0,0,0,0,0,0,0,0,
300,-18.7,-3.056,-26.88,-22.5,-26.94,-30.58,-20.58,-23.08,-14.07,-3.966,-4.401,-8.052,2.971,4.124,-0.5686,3.821,0,0,0,0,0,0,0,0,0,0,0,0,0,0,0,0,
301,-17.77,-2.548,-30.14,-25.52,-34.15,-33.24,-21.63,-23.1,-26.47,-3.339,-11.05,-10.52,1.609,5.864,-1.534,3.523,0,0,0,0,0,0,0,0,0,0,0,0,0,0,0,0,
302,-24.77,-6.184,-29.25,-23.93,-33.98,-31.61,-20.84,-20.29,-29.5,-1.761,-14.99,-13.79,-3.916,3.348,-4.682,-0.4293,0,0,0,0,0,0,0,0,0,0,0,0,0,0,0,0,
303,-22.6,-8.99,-20.61,-18.9,-22.06,-21.64,-17.08,-20.4,-17.71,-2.752,-7.306,-9.725,-6.226,-2,-1.455,-0.5351,0,0,0,0,0,0,0,0,0,0,0,0,0,0,0,0,
304,-8.839,-7.407,-6.026,-9.62,-7.129,-7.363,-10.32,-17.86,4.887,-4.236,9.305,2.031,-6.537,-5.355,7.02,1.697,0,0,0,0,0,0,0,0,0,0,0,0,0,0,0,0,
305,3.228,-8.651,-0.7975,-4.22,-2.83,-3.021,-7.769,-16.37,17.67,-7.738,16.53,7.162,-10.97,-8.423,7.425,-2.723,0,0,0,0,0,0,0,0,0,0,0,0,0,0,0,0,
306,6.398,-12.76,-6.307,-6.635,-6.666,-5.034,-6.742,-11.91,11.03,-7.638,12.08,6.732,-9.821,-6.024,6.942,-3.064,0,0,0,0,0,0,0,0,0,0,0,0,0,0,0,0,
307,6.954,-5.339,-1.845,-2.523,-1.509,2.332,2.431,2.444,6.276,1.939,10.82,10.5,0.0041,2.889,13.44,6.387,0,0,0,0,0,0,0,0,0,0,0,0,0,0,0,0,
308,12.17,6.194,8.419,5.324,8.557,10.13,8.459,5.931,8.952,5.473,10.28,11.22,3.239,4.019,12.94,8.381,0,0,0,0,0,0,0,0,0,0,0,0,0,0,0,0,
309,14.23,4.298,5.755,1.038,7.185,6.078,1.205,-8.341,6.612,-3.104,4.575,4.287,-0.7179,-2.1,4.633,1.963,0,0,0,0,0,0,0,0,0,0,0,0,0,0,0,0,
310,9.617,-1.509,-1.208,-7.478,0.3832,-0.9362,-7.744,-16.26,3.057,-6.155,-0.78,-3.642,-1.385,-1.139,-0.2651,1.458,0,0,0,0,0,0,0,0,0,0,0,0,0,0,0,0,
311,5.247,-2.333,-4.705,-11.91,-3.307,-6.674,-13.22,-15.86,-0.3723,-1.641,-5.728,-9.676,-0.6378,3.668,-2.756,4.804,0,0,0,0,0,0,0,0,0,0,0,0,0,0,0,0,
312,-1.421,-4.941,-11.7,-17.59,-7.933,-11.99,-16.28,-18.79,-5.434,-0.9391,-6.877,-9.176,0.8505,4.098,-0.8433,7.295,0,0,0,0,0,0,0,0,0,0,0,0,0,0,0,0,
313,-3.707,-3.375,-13.52,-16.11,-7.619,-7.979,-9.001,-15.67,-3.384,-0.8966,-0.4108,-1.295,5.977,3.649,4.315,9.341,0,0,0,0,0,0,0,0,0,0,0,0,0,0,0,0,
314,4.188,5.706,-6.631,-4.795,-1.751,0.8439,2.17,-7.579,-2.085,1.02,-0.5578,-0.6045,6.298,2.12,-1.36,3.792,0,0,0,0,0,0,0,0,0,0,0,0,0,0,0,0,
315,2.949,6.692,-7.362,-2.082,-5.859,-1.766,0.2364,-9.903,-11.36,-0.2102,-9.483,-9.698,-0.38,-0.3808,-10.98,-4.459,0,0,0,0,0,0,0,0,0,0,0,0,0,0,0,0,
316,-5.904,-0.5718,-11.34,-8.028,-12.83,-8.413,-7.707,-15.05,-12.67,-0.9986,-7.991,-10.04,-1.184,2.62,-6.313,-0.5464,0,0,0,0,0,0,0,0,0,0,0,0,0,0,0,0,
317,-2.538,-3.059,-7.233,-10.39,-8.134,-6.352,-10.05,-16.04,-1.916,-3.656,-1.214,-3.083,0.3115,2.079,-1.684,2.559,0,0,0,0,0,0,0,0,0,0,0,0,0,0,0,0,
318,1.172,-7.533,-9.834,-15.29,-7.992,-6.941,-15.39,-22.93,-2.773,-16.13,-7.754,-7.278,-9.423,-10.22,-11.44,-8.981,0,0,0,0,0,0,0,0,0,0,0,0,0,0,0,0,
319,-7.369,-17.01,-18.75,-20.74,-16.8,-12.47,-20.93,-24.65,-12.94,-21.26,-14.63,-13.38,-16.04,-12.6,-13.36,-11.35,0,0,0,0,0,0,0,0,0,0,0,0,0,0,0,0,
320,-11.67,-14.34,-13.81,-13.47,-14.81,-7.884,-12.76,-10.33,-11.86,-5.689,-6.521,-5.633,-5.609,2.87,1.432,5.104,0,0,0,0,0,0,0,0,0,0,0,0,0,0,0,0,
321,-1.083,-1.916,-4.153,-3.187,-7.114,0.9822,-1.87,-1.296,-6.245,6.356,1.041,1.414,2.614,9.864,7.703,12.11,0,0,0,0,0,0,0,0,0,0,0,0,0,0,0,0,
322,11.7,1.262,-4.639,-3.77,-4.89,2.001,-1.68,-5.128,-6.788,2.223,-0.7769,-2.036,-1.05,4.546,0.232,4.005,0,0,0,0,0,0,0,0,0,0,0,0,0,0,0,0,
323,14.81,-0.4848,-5.074,-6.842,0.616,3.511,-1.343,-5.048,-1.791,-0.2223,1.166,-1.852,-1.345,4.917,-2.274,1.724,0,0,0,0,0,0,0,0,0,0,0,0,0,0,0,0,
324,12.76,4.718,-1.661,-3.229,6.315,9.081,5.153,1.01,9.473,2.863,5.794,3.19,2.731,6.253,-1.146,4.035,0,0,0,0,0,0,0,0,0,0,0,0,0,0,0,0,
325,8.029,9.203,-1.357,0.975,2.105,8.448,7.065,3.786,6.832,2.212,-1.716,-1.802,-0.9585,-0.5309,-9.345,-3.545,0,0,0,0,0,0,0,0,0,0,0,0,0,0,0,0,
326,-7.229,2.093,-5.558,-3.87,-7.871,-2.16,-1.78,-2.669,-12.38,-3.323,-18.07,-16.86,-12.36,-8.929,-21.11,-15.98,0,0,0,0,0,0,0,0,0,0,0,0,0,0,0,0,
327,-27.45,-11.53,-14.35,-14.96,-18.01,-14.53,-14.2,-15.37,-25.47,-10.63,-24.49,-24.67,-19.11,-12.73,-22.44,-17.54,0,0,0,0,0,0,0,0,0,0,0,0,0,0,0,0,
328,-31.47,-17.49,-20.28,-20.28,-22.01,-17.81,-20.03,-21.12,-21.6,-15.53,-17.54,-18.73,-15.88,-13.2,-16.4,-11.28,0,0,0,0,0,0,0,0,0,0,0,0,0,0,0,0,
329,-21.29,-17.75,-18.17,-21.75,-17.34,-15.86,-23.18,-21.63,-16.57,-21.41,-15.21,-15.53,-17.09,-17.97,-17.3,-14.5,0,0,0,0,0,0,0,0,0,0,0,0,0,0,0,0,
330,-22.47,-24.76,-17.85,-27.19,-14.24,-18.36,-28.61,-24.98,-16.92,-27.95,-19.59,-19.39,-23.71,-21.86,-19.71,-19.43,0,0,0,0,0,0,0,0,0,0,0,0,0,0,0,0,
331,-27.05,-25.87,-17,-24.4,-15.19,-17.29,-23.85,-16.53,-10.8,-19.54,-13.26,-13.95,-15.14,-9.929,-10.14,-8.458,0,0,0,0,0,0,0,0,0,0,0,0,0,0,0,0,
332,-15.36,-11.11,-8.861,-9.612,-15.13,-11.5,-11.41,0.8776,-7.798,-3.405,-5.823,-7.56,-3.069,1.466,-3.494,-0.2039,0,0,0,0,0,0,0,0,0,0,0,0,0,0,0,0,
333,-11.34,-4.74,-8.201,-4.637,-16.67,-14.77,-10.71,0.5026,-18.6,-1.16,-11.82,-14.32,-7.764,-4.172,-9.856,-7.09,0,0,0,0,0,0,0,0,0,0,0,0,0,0,0,0,
334,-19.2,-10.99,-15.45,-10.64,-18.15,-20.29,-14.94,-6.042,-20.67,-2.398,-13.64,-17.65,-10.49,-5.083,-12.15,-7.994,0,0,0,0,0,0,0,0,0,0,0,0,0,0,0,0,
335,-14.99,-12.1,-16.01,-12.76,-18.78,-21.17,-16.24,-2.856,-14.11,-1.671,-12.48,-17.84,-10.03,-1.647,-13.83,-7.893,0,0,0,0,0,0,0,0,0,0,0,0,0,0,0,0,
336,-18.29,-17.56,-18.86,-17.62,-22.81,-27.68,-25.34,-9.996,-21.8,-11.94,-22.83,-27.76,-22.2,-13.36,-21.98,-19.04,0,0,0,0,0,0,0,0,0,0,0,0,0,0,0,0,
337,-33.62,-26.93,-24.69,-23.08,-22.38,-30.95,-29.88,-17.59,-26.77,-17.54,-23.59,-28.19,-25.18,-20.13,-17.02,-18.83,0,0,0,0,0,0,0,0,0,0,0,0,0,0,0,0,
338,-30.8,-21.72,-17.79,-14.46,-17.12,-23.82,-18.7,-4.428,-18.87,-7.731,-12.65,-18.39,-13.53,-10.68,-6.299,-8.583,0,0,0,0,0,0,0,0,0,0,0,0,0,0,0,0,
339,-24.77,-15.32,-10.15,-3.968,-19.72,-23.45,-13.18,3.529,-20.83,-2.969,-16.17,-22.89,-14.05,-7.529,-12.68,-12.42,0,0,0,0,0,0,0,0,0,0,0,0,0,0,0,0,
340,-32.92,-20.63,-14.45,-5.496,-23.9,-28.5,-18.58,-4.598,-27.6,-6.394,-25.09,-31.74,-22.48,-13.29,-21.61,-20.72,0,0,0,0,0,0,0,0,0,0,0,0,0,0,0,0,
341,-35.4,-24.54,-17.45,-9.775,-22.76,-26.34,-19.98,-8.821,-27.59,-9.309,-24.98,-29.89,-24.92,-17.95,-20.19,-21.35,0,0,0,0,0,0,0,0,0,0,0,0,0,0,0,0,
342,-27.79,-22.87,-13.91,-8.797,-22.08,-20.17,-15.28,-7.702,-24.83,-12.18,-20.03,-23.47,-22.89,-18.57,-15.15,-17.76,0,0,0,0,0,0,0,0,0,0,0,0,0,0,0,0,
343,-16.84,-16.01,-7.229,-1.107,-12.6,-8.352,-4.921,-0.564,-9.781,-8.189,-6.793,-11.79,-13.25,-10.83,-6.618,-8.101,0,0,0,0,0,0,0,0,0,0,0,0,0,0,0,0,
344,-3.2,-5.997,2.009,8.315,6.425,6.374,5.076,10.6,6.192,-0.9338,3.479,-1.266,-5.428,-4.429,-2.464,-2.16,0,0,0,0,0,0,0,0,0,0,0,0,0,0,0,0,
345,4.478,-5.767,4.548,7.505,10.22,7.182,1.91,9.138,-0.5438,-5.114,-3.074,-3.405,-10.69,-9.617,-8.241,-8.217,0,0,0,0,0,0,0,0,0,0,0,0,0,0,0,0,
346,0.2709,-12.47,-3.869,-1.95,-4.816,-3.93,-7.482,0.2391,-9.942,-12.61,-10.19,-8.712,-14.42,-13.56,-10.37,-10.8,0,0,0,0,0,0,0,0,0,0,0,0,0,0,0,0,
347,-7.26,-12.94,-11.89,-7.047,-15.65,-9.313,-9.57,-2.123,-5.498,-12.77,-9.328,-8.317,-9.941,-10.37,-7.495,-5.916,0,0,0,0,0,0,0,0,0,0,0,0,0,0,0,0,
348,-6.322,-11.25,-11.36,-4.925,-11.65,-4.766,-8.014,-3.503,-3.845,-14.58,-8.489,-6.68,-8.81,-10.41,-8.713,-6.246,0,0,0,0,0,0,0,0,0,0,0,0,0,0,0,0,
349,-0.1926,-11.53,-6.304,-1.907,-3.025,1.48,-7.284,-5.487,-5.712,-17.19,-5.006,-4.885,-8.592,-9.802,-8.224,-7.055,0,0,0,0,0,0,0,0,0,0,0,0,0,0,0,0,
350,2.341,-7.101,-3.015,-0.4153,-0.7992,3.308,-4.528,-2.081,-1.475,-9.408,1.404,-0.9091,-1.481,0.0139,-1.281,0.8669,0,0,0,0,0,0,0,0,0,0,0,0,0,0,0,0,
351,4.988,0.4912,-1.772,1.835,0.6271,3.664,-2.12,2.275,5.356,-0.406,6.278,4.09,4.676,6.282,5.039,6.631,0,0,0,0,0,0,0,0,0,0,0,0,0,0,0,0,
352,7.247,0.7362,-2.91,1.484,4.37,3.584,-5.749,0.2118,8.222,-5.622,8.949,5.201,1.031,-2.401,5.067,0.4014,0,0,0,0,0,0,0,0,0,0,0,0,0,0,0,0,
353,-0.0582,-7.84,-11.07,-6.541,-4.272,-3.554,-13.59,-4.613,1.258,-16.56,4.989,-0.4111,-6.605,-11.83,-0.9129,-8.096,0,0,0,0,0,0,0,0,0,0,0,0,0,0,0,0,
354,-12.73,-13.7,-20.84,-14.9,-18.66,-11.43,-16.33,-3.264,-7.673,-16.67,-1.857,-5.149,-7.054,-8.752,-5.41,-7.476,0,0,0,0,0,0,0,0,0,0,0,0,0,0,0,0,
355,-12.15,-7.81,-17.49,-12.67,-11.86,-4.834,-7.873,4.653,-2.229,-6.295,1.221,0.6654,2.332,0.3704,1.355,2.436,0,0,0,0,0,0,0,0,0,0,0,0,0,0,0,0,
356,7.666,5.696,-2.906,-2.384,7.413,9.556,5.259,11.77,9.616,4.493,11.04,13.47,13.09,7.256,13.62,13.55,0,0,0,0,0,0,0,0,0,0,0,0,0,0,0,0,
357,22.3,12.96,2.164,1.895,10.18,10.66,7.681,8.686,8.72,4.467,12.37,16.94,11.35,5.477,13.21,12.07,0,0,0,0,0,0,0,0,0,0,0,0,0,0,0,0,
358,12.79,2.363,-9.561,-6.32,-2.823,-3.678,-5.144,-4.509,-2.716,-9.64,3.713,5.588,-3.781,-6.607,1.246,-1.58,0,0,0,0,0,0,0,0,0,0,0,0,0,0,0,0,
359,-1.638,-14.27,-16.35,-11.21,-9.01,-11.11,-13.53,-8.426,-6.085,-17.51,2.296,1.016,-9.997,-10.98,0.0759,-4.17,0,0,0,0,0,0,0,0,0,0,0,0,0,0,0,0,
360,2.399,-10.03,-3.658,-0.5858,3.454,2.19,-1.319,3.457,7.806,-4.779,14.8,14.13,3.138,1.538,11.11,9.171,0,0,0,0,0,0,0,0,0,0,0,0,0,0,0,0,
361,13.2,7.567,4.556,5.55,12.32,12.37,10.32,6.487,16.42,3.538,16.13,16.43,9.54,6.268,9.744,11.72,0,0,0,0,0,0,0,0,0,0,0,0,0,0,0,0,
362,3.354,4.648,-10.05,-6.546,-5.755,-1.983,-1.002,-5.849,-1.028,-8.285,-4.46,-3.546,-4.409,-6.724,-5.883,-2.004,0,0,0,0,0,0,0,0,0,0,0,0,0,0,0,0,
363,-15.81,-12.29,-20.29,-13.63,-19.93,-14.74,-14.35,-9.534,-16.82,-15.46,-16.35,-14.81,-14.08,-13.48,-12.9,-8.956,0,0,0,0,0,0,0,0,0,0,0,0,0,0,0,0,
364,-13.38,-13.76,-8.121,-4.579,-3.367,-6.171,-10.5,-2.435,-7.757,-10.01,-10.16,-9.513,-9.542,-8.919,-9.462,-6.34,0,0,0,0,0,0,0,0,0,0,0,0,0,0,0,0,
365,-4.877,-7.288,1.026,-0.9004,7.011,-0.7561,-7.264,-3.164,0.0356,-10.23,-8.498,-8.563,-6.574,-7.827,-8.779,-6.202,0,0,0,0,0,0,0,0,0,0,0,0,0,0,0,0,
366,-9.34,-8.904,-5.824,-8.912,-8.446,-8.231,-13.41,-10.31,-8.192,-14.43,-11.4,-11.19,-8.123,-9.492,-10.41,-7.997,0,0,0,0,0,0,0,0,0,0,0,0,0,0,0,0,
367,-10.68,-12.23,-12.37,-14.63,-16.96,-11.4,-16.34,-13.88,-14.24,-14.57,-9.088,-10.93,-10.73,-11.23,-10.05,-10.5,0,0,0,0,0,0,0,0,0,0,0,0,0,0,0,0,
368,-9.526,-14.48,-13.57,-15.02,-9.21,-10.33,-14.94,-12.82,-11.24,-15.21,-5.293,-11.9,-15.35,-14.23,-7.161,-12.05,0,0,0,0,0,0,0,0,0,0,0,0,0,0,0,0,
369,-12.42,-17.65,-16.37,-14.68,-8.539,-14.45,-15.89,-6.753,-8.58,-15.78,-2.133,-11.6,-18.19,-14.15,-3.924,-8.82,0,0,0,0,0,0,0,0,0,0,0,0,0,0,0,0,
370,-13.18,-19.71,-21.08,-15.02,-18.32,-20.7,-19.15,-2.484,-10.77,-14.19,-2.616,-9.363,-17.11,-11.85,-4.064,-5.516,0,0,0,0,0,0,0,0,0,0,0,0,0,0,0,0,
371,-13.99,-19.19,-23.09,-13.08,-21.7,-21.79,-20.01,-4.316,-12.14,-11.71,-5.59,-6.863,-11.67,-8.314,-3.642,-3.21,0,0,0,0,0,0,0,0,0,0,0,0,0,0,0,0,
372,-11.38,-14.43,-21.61,-8.043,-19.48,-19.75,-17.75,-4.517,-11.66,-10.13,-5.478,-4.78,-5.859,-4.236,-2.761,-1.253,0,0,0,0,0,0,0,0,0,0,0,0,0,0,0,0,
373,-9.008,-10.62,-20.57,-7.53,-21.94,-20.1,-16.76,-6.299,-13.63,-12.22,-5.504,-6.785,-5.987,-4.914,-4.348,-2.113,0,0,0,0,0,0,0,0,0,0,0,0,0,0,0,0,
374,-14.36,-8.913,-16.23,-8.256,-17.08,-14.75,-13.05,-9.864,-9.993,-11.42,-2.881,-4.573,-3.207,-4.015,0.9912,1.72,0,0,0,0,0,0,0,0,0,0,0,0,0,0,0,0,
375,-14.3,-2.683,-7.943,-3.903,-5.098,-5.125,-7.909,-6.23,-4.819,-7.319,1.095,1.354,1.454,-0.5157,5.425,4.535,0,0,0,0,0,0,0,0,0,0,0,0,0,0,0,0,
376,-14.26,-2.769,-11.32,-8.13,-10.06,-11.06,-13.95,-7.169,-14.42,-10.65,-6.01,-6.162,-5.868,-4.198,-4.005,-4.253,0,0,0,0,0,0,0,0,0,0,0,0,0,0,0,0,
377,-19.16,-8.7,-18.83,-13.63,-15.94,-16.33,-13.52,-6.484,-13.56,-4.233,-3.729,-6.275,-2.147,4.255,2.72,3.752,0,0,0,0,0,0,0,0,0,0,0,0,0,0,0,0,
378,1.945,10.72,2.076,11.01,10.68,13.33,20.52,26.1,25.8,30.97,33,29.96,34.11,40.2,42.33,43.34,0,0,0,0,0,0,0,0,0,0,0,0,0,0,0,0,
379,46.3,51.36,43.5,51.31,49.5,55.69,61.73,66.11,67.19,63.57,71.44,68.6,65.92,68.3,72.85,72.42,0,0,0,0,0,0,0,0,0,0,0,0,0,0,0,0,
380,69.75,68.71,61.11,62.61,61.58,66.23,68.06,67.55,68.18,61.65,72.13,69.35,61.41,62.18,67.69,65.2,0,0,0,0,0,0,0,0,0,0,0,0,0,0,0,0,
381,61.77,53.89,46.25,45.07,48.4,50.83,49.03,46.43,47.52,44.03,51.49,51.6,43.79,45.65,52.12,48.4,0,0,0,0,0,0,0,0,0,0,0,0,0,0,0,0,
382,51.68,40.09,33.75,33.42,40.65,43.24,39.34,37.14,43.75,38.23,43.75,47.76,41.23,42.68,50.77,48.15,0,0,0,0,0,0,0,0,0,0,0,0,0,0,0,0,
383,54.31,43.41,37.28,35.78,46.68,45.9,42.47,36.16,51.14,40.23,47.47,51.91,46.54,45.44,54.11,53.96,0,0,0,0,0,0,0,0,0,0,0,0,0,0,0,0,
384,51.36,46.91,34.96,33.58,43.79,40.73,41.45,31.93,44.78,39.01,44.45,48.21,44.18,42.87,47.64,48.22,0,0,0,0,0,0,0,0,0,0,0,0,0,0,0,0,
385,41.91,43.3,27.77,29.17,35.29,36.4,39.75,31.09,39.08,39.63,40.45,45.87,41.28,40.9,42.09,41.61,0,0,0,0,0,0,0,0,0,0,0,0,0,0,0,0,
386,44.54,44.83,33.41,33.75,39.36,42.97,44.33,34.76,47.02,41.17,41.48,47.5,42.36,40.24,41.22,40.54,0,0,0,0,0,0,0,0,0,0,0,0,0,0,0,0,
387,44.64,46.41,36.12,33.19,37.47,40.17,42.21,32.24,41.68,34.09,33.38,36.47,34.26,32.88,30.22,30.5,0,0,0,0,0,0,0,0,0,0,0,0,0,0,0,0,
388,30.11,36.93,26.3,24.29,23.74,26.88,33.53,27.41,23.72,25.51,21.45,20.54,20.92,25.68,19.12,19.97,0,0,0,0,0,0,0,0,0,0,0,0,0,0,0,0,
389,21.42,27.66,25.68,25.35,22.77,25.6,34.05,28.41,23.66,24.46,22.7,17.16,17.35,25.1,21.23,23.02,0,0,0,0,0,0,0,0,0,0,0,0,0,0,0,0,
390,20.18,25.82,31.43,31.29,27.23,28.6,37.16,27.18,29.11,24.08,22.54,13.95,16.11,20.81,18.51,23.5,0,0,0,0,0,0,0,0,0,0,0,0,0,0,0,0,
391,12.45,21.08,24.23,25.56,20.52,20.01,28.43,18.14,15.73,18.41,7.121,2.142,7.309,11.07,8.546,15.53,0,0,0,0,0,0,0,0,0,0,0,0,0,0,0,0,
392,4.735,12.24,14.34,14.57,16.34,12.96,18.47,10.22,4.199,11.25,-2.245,-1.841,1.484,8.22,11.08,14.75,0,0,0,0,0,0,0,0,0,0,0,0,0,0,0,0,
393,7.028,11.06,14.82,12.32,18.33,16.76,20.28,12.35,12.11,11.13,5.645,5.936,6.831,14.59,18.5,19.58,0,0,0,0,0,0,0,0,0,0,0,0,0,0,0,0,
394,11.57,17.02,15.62,15.35,14.32,17.98,21.49,14.7,17.71,17.32,11.39,10,13.66,19.33,15.78,19.81,0,0,0,0,0,0,0,0,0,0,0,0,0,0,0,0,
395,7.401,18.06,12.03,13.76,11.72,14.04,15.25,6.468,14.21,19.52,13.38,11.55,18.1,20.98,16.52,21.9,0,0,0,0,0,0,0,0,0,0,0,0,0,0,0,0,
396,4.587,19.71,15.33,15.54,20.01,18.84,18.95,5.756,20.33,21.53,25.05,23.2,29.16,28.73,28.35,29.97,0,0,0,0,0,0,0,0,0,0,0,0,0,0,0,0,
397,15.46,30.72,23.58,24.59,25.32,26.64,30.23,17.25,27.92,27.5,32.82,34.19,39.54,35.46,33.86,31.16,0,0,0,0,0,0,0,0,0,0,0,0,0,0,0,0,
398,25.3,36.27,22.73,24.09,22.2,24.81,30.19,16.18,26.55,26.41,31.1,35.57,37.53,30.24,31.04,24.09,0,0,0,0,0,0,0,0,0,0,0,0,0,0,0,0,
399,25.86,33.29,19.74,18.63,27.96,27.65,29.4,9.851,34.55,21.83,40.13,43.15,34.78,25.45,33.62,22.93,0,0,0,0,0,0,0,0,0,0,0,0,0,0,0,0,
400,37.68,35.75,25.25,24.4,38.14,38.48,36.46,15.42,45.07,23.21,47.04,50.23,34.79,25.81,32.62,22.74,0,0,0,0,0,0,0,0,0,0,0,0,0,0,0,0,
401,57.6,34.47,25.78,27.07,31.56,35.18,34.22,16.29,36.03,21.45,29.57,36.42,26.41,18.91,19.45,14.15,0,0,0,0,0,0,0,0,0,0,0,0,0,0,0,0,
402,56.47,24.27,19.48,21.67,21,25.9,26.9,11.37,25.29,16.15,13.94,22.43,19.78,11.69,12.95,10.3,0,0,0,0,0,0,0,0,0,0,0,0,0,0,0,0,
403,44.33,22.18,22.74,25.22,24.74,31.46,30.18,16.08,25.66,15.93,13.68,23.38,21.27,11.14,14.13,11.14,0,0,0,0,0,0,0,0,0,0,0,0,0,0,0,0,
404,40.14,22.21,26.95,28.29,26.52,34.32,31.58,20.16,18.69,15.14,1.226,13.53,13.22,3.736,1.896,0.9543,0,0,0,0,0,0,0,0,0,0,0,0,0,0,0,0,
405,25.34,12.11,19.94,20.02,18.65,23.89,24.7,16.68,8.411,12.17,-16,-4.863,-0.4729,-6.443,-12.76,-9.157,0,0,0,0,0,0,0,0,0,0,0,0,0,0,0,0,
406,7.566,8.221,16.94,17.42,16.09,20.72,23.49,16.06,9.138,10.48,-13.61,-6.676,-3.47,-7.699,-13.13,-10.06,0,0,0,0,0,0,0,0,0,0,0,0,0,0,0,0,
407,7.293,11.34,19.34,20.19,15.37,21.46,21.91,13.65,5.292,2.82,-15.54,-9.281,-9.24,-12.77,-18.37,-19.42,0,0,0,0,0,0,0,0,0,0,0,0,0,0,0,0,
408,-0.5147,2.228,12.64,13.71,8.359,10.85,10.15,4.905,-9.017,-5.377,-31.98,-24.85,-21.58,-20.25,-29.73,-29.17,0,0,0,0,0,0,0,0,0,0,0,0,0,0,0,0,
409,-15.29,-7.76,5.851,6.846,3.739,1.788,3.305,3.957,-13.45,-0.8503,-30.66,-26.74,-19.42,-14.19,-24.55,-20.2,0,0,0,0,0,0,0,0,0,0,0,0,0,0,0,0,
410,-13.29,-5.208,2.098,3.233,-2.499,-3.298,2.312,6.063,-11.92,2.308,-20.2,-19.85,-12.06,-10.92,-17.67,-15.21,0,0,0,0,0,0,0,0,0,0,0,0,0,0,0,0,
411,-15.16,-6.884,-11.26,-6.402,-15.75,-14.1,-6.069,-3.181,-18.51,-6.57,-24.26,-23.34,-15.63,-18.93,-22.14,-22.15,0,0,0,0,0,0,0,0,0,0,0,0,0,0,0,0,
412,-20.75,-11.18,-16.92,-8.493,-14.97,-12,-6.975,-5.241,-14.85,-7.437,-17.82,-15.66,-11.88,-14.07,-13.97,-13.66,0,0,0,0,0,0,0,0,0,0,0,0,0,0,0,0,
413,-6.217,-1.635,-0.3395,5.13,4.182,7.226,7.04,7.906,3.213,2.536,1.089,3.305,-0.4203,-2.776,0.1641,-0.8712,0,0,0,0,0,0,0,0,0,0,0,0,0,0,0,0,
414,6.357,5.867,10.89,11.74,13.3,13.39,11.48,11.31,7.35,2.373,0.935,3.808,-1.741,-7.45,-4.501,-6.442,0,0,0,0,0,0,0,0,0,0,0,0,0,0,0,0,
415,1.822,-1.048,3.329,3.668,4.349,3.762,3.622,4.308,-2.631,-5.162,-8.087,-3.625,-5.758,-12.68,-11.81,-11.94,0,0,0,0,0,0,0,0,0,0,0,0,0,0,0,0,
416,-1.566,-3.501,-4.369,-2.691,-5.792,-1.101,2.9,2.72,-9.371,-3.308,-10.16,-1.472,-0.226,-6.65,-10.25,-9.86,0,0,0,0,0,0,0,0,0,0,0,0,0,0,0,0,
417,-0.8288,4.029,-5.481,-2.742,-9.942,-0.5131,8.303,4.072,-15.54,3.966,-14.82,-1.362,3.2,-4.482,-13.33,-13.44,0,0,0,0,0,0,0,0,0,0,0,0,0,0,0,0,
418,-1.431,7.255,-5.418,-2.011,-9.875,-0.6587,9.532,5.249,-19.02,2.849,-18.12,-5.142,-0.6448,-9.727,-19.77,-19.09,0,0,0,0,0,0,0,0,0,0,0,0,0,0,0,0,
419,-3.549,3.293,-6.07,-1.394,-6.346,-0.7111,7.714,6.84,-13.9,-3.51,-17.55,-5.71,-3.869,-11.83,-21.61,-20.83,0,0,0,0,0,0,0,0,0,0,0,0,0,0,0,0,
420,-2.775,3.347,-4.033,2.836,3.763,5.632,12.32,13.85,-0.766,3.058,-9.436,4.303,5.179,-2.28,-9.128,-11.57,0,0,0,0,0,0,0,0,0,0,0,0,0,0,0,0,
421,14.05,18.24,9.33,14.49,23.05,24.6,28.64,30.9,26.73,22.66,23.21,32.58,27.7,16.55,24.83,15.57,0,0,0,0,0,0,0,0,0,0,0,0,0,0,0,0,
422,41.72,38.58,27.6,25.7,40.15,43.53,43.24,38.8,54.78,31.54,58.43,58.02,43.36,27.54,54.96,39.94,0,0,0,0,0,0,0,0,0,0,0,0,0,0,0,0,
423,55.92,44.21,34.06,26.65,47.73,50.07,44.62,28.6,61.94,26.67,68.05,62.22,45.64,27.87,63.87,46.33,0,0,0,0,0,0,0,0,0,0,0,0,0,0,0,0,
424,58.78,43.01,38.17,29.37,58.5,57.26,46.1,27.84,66.25,28.64,73.77,64.45,49.8,32.23,68.58,49,0,0,0,0,0,0,0,0,0,0,0,0,0,0,0,0,
425,59.87,45.83,47.4,38.06,63.91,60.5,46.98,36.01,66.78,28.32,68.46,59.14,43.82,28.39,57.41,40.48,0,0,0,0,0,0,0,0,0,0,0,0,0,0,0,0,
426,37.76,29.41,35.07,26.62,39.01,34.99,25.21,19.72,33.47,5.42,24.54,24.52,13.96,3.594,18.31,10.89,0,0,0,0,0,0,0,0,0,0,0,0,0,0,0,0,
427,4.551,-0.6885,7.224,1.815,10.22,5.388,-0.0165,-3.551,2.199,-11.96,-10.24,-2.504,-5.715,-10.32,-5.927,-7.147,0,0,0,0,0,0,0,0,0,0,0,0,0,0,0,0,
428,4.983,-3.928,3.265,-0.3323,8.124,3.496,-0.9454,-1.409,4.434,-4.506,-9.752,-1.841,-5.73,-8.538,-11.36,-12.77,0,0,0,0,0,0,0,0,0,0,0,0,0,0,0,0,
429,5.912,-2.468,1.548,-1.116,-2.959,-5.915,-9.956,-5.892,-11.94,-11.09,-29.12,-19.74,-25.14,-28.88,-38.4,-39.62,0,0,0,0,0,0,0,0,0,0,0,0,0,0,0,0,
430,-31.51,-29.46,-24.13,-23.69,-29.6,-32.41,-35.26,-28.12,-43.13,-32.41,-57.13,-46.65,-47.31,-49.62,-56.82,-56.94,0,0,0,0,0,0,0,0,0,0,0,0,0,0,0,0,
431,-47.23,-39.07,-28.38,-26.35,-23.2,-27.78,-30.19,-24.62,-31.59,-25.24,-41.34,-34.02,-32.26,-33.43,-35.83,-36.5,0,0,0,0,0,0,0,0,0,0,0,0,0,0,0,0,
432,-20.15,-15.6,-5.232,-6.338,-1.084,-6.249,-9.041,-10.15,-11.47,-9.356,-21.02,-14.44,-14.92,-18.17,-23.12,-25.17,0,0,0,0,0,0,0,0,0,0,0,0,0,0,0,0,
433,-12.08,-9.894,-6.767,-10.62,-9.832,-13.24,-15.45,-21.98,-22.71,-18.4,-32.3,-24.61,-24.36,-27.18,-34.77,-36.8,0,0,0,0,0,0,0,0,0,0,0,0,0,0,0,0,
434,-29.94,-23.24,-29.27,-31.24,-30.53,-30.47,-28.56,-32.58,-33.78,-27.04,-41.99,-36.16,-31.52,-30.16,-38.7,-38.6,0,0,0,0,0,0,0,0,0,0,0,0,0,0,0,0,
435,-37.44,-25.86,-37.54,-34.22,-34.83,-31.86,-24.92,-20.98,-34.44,-18.64,-37.56,-32.44,-25.45,-22.31,-32.37,-31.41,0,0,0,0,0,0,0,0,0,0,0,0,0,0,0,0,
436,-30,-19.84,-25.48,-19.83,-21.01,-20.1,-15.09,-6.492,-29.16,-10.51,-28.9,-22.57,-19.21,-18.19,-25.36,-26.86,0,0,0,0,0,0,0,0,0,0,0,0,0,0,0,0,
437,-21.05,-14.63,-7.656,-8.163,-5.395,-9.051,-10.43,-5.767,-18.23,-15.03,-22.81,-17.74,-19.96,-20.87,-24.5,-27.66,0,0,0,0,0,0,0,0,0,0,0,0,0,0,0,0,
438,-22.57,-19.08,-9.306,-15.22,-14.11,-17.14,-18.81,-18.99,-24.28,-26.68,-29.41,-25.53,-26.78,-25.83,-30.82,-31.97,0,0,0,0,0,0,0,0,0,0,0,0,0,0,0,0,
439,-29.11,-28.87,-24.54,-27.64,-30.31,-30.19,-28.58,-25.45,-37.19,-27.31,-34.33,-29.49,-26.73,-22.98,-28.64,-27.22,0,0,0,0,0,0,0,0,0,0,0,0,0,0,0,0,
440,-27.22,-27.24,-24.38,-27.09,-24.92,-25.23,-24.27,-18.23,-31.37,-17.62,-25.49,-21.26,-19.1,-16.54,-20.27,-18.64,0,0,0,0,0,0,0,0,0,0,0,0,0,0,0,0,
441,-18.46,-18.93,-15.06,-21.67,-12.99,-14.67,-14.53,-12.83,-20.66,-12.14,-17.89,-14.91,-13.21,-12.71,-16.89,-16.23,0,0,0,0,0,0,0,0,0,0,0,0,0,0,0,0,
442,-8.589,-11.39,-10.4,-16.61,-5.738,-9.478,-7.802,-9.244,-13.08,-8.542,-16.63,-13.87,-10.37,-9.376,-16.84,-16.9,0,0,0,0,0,0,0,0,0,0,0,0,0,0,0,0,
443,-9.686,-8.184,-11.21,-16.05,-5.438,-12.65,-9.784,-11.23,-11.88,-9.685,-23.24,-22.25,-18.77,-17.21,-28,-27.51,0,0,0,0,0,0,0,0,0,0,0,0,0,0,0,0,
444,-25.28,-16.65,-18.58,-23.61,-15.54,-22.07,-17.63,-19.64,-23.04,-15.53,-34.76,-34.03,-29.47,-27.06,-40.15,-37.37,0,0,0,0,0,0,0,0,0,0,0,0,0,0,0,0,
445,-28.79,-18.37,-13.13,-18.19,-12.17,-16.51,-10.51,-11.18,-23.35,-8.72,-31.98,-27.53,-20.48,-17.47,-31.17,-26.69,0,0,0,0,0,0,0,0,0,0,0,0,0,0,0,0,
446,-15.35,-4.288,10.59,3.664,2.547,-2.514,5.299,7.59,-14.24,1.732,-22.81,-16.15,-8.547,-7.824,-20.93,-16.62,0,0,0,0,0,0,0,0,0,0,0,0,0,0,0,0,
447,-13.46,0.4138,26.42,19.91,-1.742,-3.697,8.713,12.15,-23.28,-0.0365,-26.09,-19.17,-10.29,-11.13,-25.42,-21.66,0,0,0,0,0,0,0,0,0,0,0,0,0,0,0,0,
448,-20.1,-4.062,42.78,36.75,-4.606,-2.574,11.18,15.41,-29.95,1.662,-25.96,-17.79,-8.87,-8.61,-24.88,-21.47,0,0,0,0,0,0,0,0,0,0,0,0,0,0,0,0,
449,-11.34,1.28,87.55,71.18,22.15,20.19,25.81,33.93,-10.69,12.41,-11.72,-2.522,1.433,0.1682,-14.35,-10.62,0,0,0,0,0,0,0,0,0,0,0,0,0,0,0,0,
450,10.11,15.01,148.3,116.1,59.3,52.64,47.64,58.01,11.99,19.73,1.204,13.27,14.33,8.154,-3.17,0.8813,0,0,0,0,0,0,0,0,0,0,0,0,0,0,0,0,
451,32.25,31.05,196.8,152.6,86.35,77.79,67.46,73.47,20.48,23.97,4.647,20.97,25.27,15.31,3.49,6.68,0,0,0,0,0,0,0,0,0,0,0,0,0,0,0,0,
452,46.73,40.32,220.9,169.1,98.97,85.31,73.95,79.91,20.75,27.43,2.164,17.94,25.19,14.83,0.4304,3.69,0,0,0,0,0,0,0,0,0,0,0,0,0,0,0,0,
453,43.89,36.08,225.3,175.5,98.19,81.25,70.99,86.18,20.76,27.89,-1.823,9.851,17.68,10.91,-5.513,-0.4942,0,0,0,0,0,0,0,0,0,0,0,0,0,0,0,0,
454,32.01,29.8,224.5,183,94.44,78.64,71.1,91.07,23.62,29.39,-2.355,6.306,15.02,13.44,-4.056,1.636,0,0,0,0,0,0,0,0,0,0,0,0,0,0,0,0,
455,29.28,31.17,219.1,181.7,92.2,77.18,72.49,89.24,26.13,34.74,4.583,12.02,19.54,18.86,3.787,7.347,0,0,0,0,0,0,0,0,0,0,0,0,0,0,0,0,
456,36.05,37.28,201.5,168,87.72,75.74,71.11,83.61,27.41,37.24,14.63,23.83,26.74,22.25,12.67,13.24,0,0,0,0,0,0,0,0,0,0,0,0,0,0,0,0,
457,41.43,38.91,179.1,152.5,82.18,72.15,64,74.12,28.45,29.3,14.37,25.27,25.59,19.71,11.35,12.87,0,0,0,0,0,0,0,0,0,0,0,0,0,0,0,0,
458,35.33,26.35,156.7,133.4,70.47,57.64,47.33,58.33,21.65,14.21,3.071,12.47,14.72,10.5,-0.9877,4.424,0,0,0,0,0,0,0,0,0,0,0,0,0,0,0,0,
459,24.03,13.83,132.2,110.7,52.77,43.98,36.34,44.61,12.85,7.912,2.471,13.57,18.4,10.35,1.423,7.199,0,0,0,0,0,0,0,0,0,0,0,0,0,0,0,0,
460,30.94,28.53,121.2,102.8,52.92,52.3,47.97,46.54,24.4,21.97,21.55,38.56,44.19,28.05,23.98,27.52,0,0,0,0,0,0,0,0,0,0,0,0,0,0,0,0,
461,49.92,55.93,124.3,106.7,66.68,64.69,62.49,55.42,42.4,39.25,33.79,52.18,58.01,40.96,31.91,34.95,0,0,0,0,0,0,0,0,0,0,0,0,0,0,0,0,
462,51.77,57.95,112.5,95.49,58.1,54.49,54.98,48.26,34.13,35.97,22.73,37.75,44.81,32.68,16.77,21.16,0,0,0,0,0,0,0,0,0,0,0,0,0,0,0,0,
463,41.39,40.45,90.11,75.19,39.18,40.26,40.45,33.86,18.1,22.9,12.35,23.48,30.35,19.23,7.693,13.66,0,0,0,0,0,0,0,0,0,0,0,0,0,0,0,0,
464,36.09,28.48,80.73,65.7,38.69,39.14,35.57,29.68,19.16,16.6,16.34,21.68,22.64,11.56,10.14,13.45,0,0,0,0,0,0,0,0,0,0,0,0,0,0,0,0,
465,31.83,18.99,74.58,58.07,41.13,36.24,31.16,24.78,20.76,12.29,18.66,19.69,14.27,7.168,11.63,9.161,0,0,0,0,0,0,0,0,0,0,0,0,0,0,0,0,
466,26.78,13,65.88,49.42,37.79,30.84,27.32,18.62,18.33,11.2,14.16,17.29,13.29,9.141,11.86,9.506,0,0,0,0,0,0,0,0,0,0,0,0,0,0,0,0,
467,20.92,15.97,57.46,44.14,30.76,24.7,25.2,18.59,15.42,10.98,6.973,11.48,12.37,9.313,7.852,9.404,0,0,0,0,0,0,0,0,0,0,0,0,0,0,0,0,
468,8.486,11.21,37.8,30.61,12.43,8.873,14.51,12.78,3.397,2.976,1.1,0.7668,1.658,1.564,2.929,3.625,0,0,0,0,0,0,0,0,0,0,0,0,0,0,0,0,
469,-0.9512,0.5215,18.64,15.86,0.6758,-0.741,5.008,3.227,-1.463,1.046,6.363,2.135,-1.581,0.2002,6.878,5.894,0,0,0,0,0,0,0,0,0,0,0,0,0,0,0,0,
470,1.714,0.036,12.66,10.68,0.9389,0.8997,3.323,-0.5649,6.081,5.484,12.76,7.551,0.5291,1.558,7.269,8.755,0,0,0,0,0,0,0,0,0,0,0,0,0,0,0,0,
471,0.1097,-3.59,1.726,-0.6645,-8.55,-6.697,-5.184,-7.681,1.837,-2.688,5.482,-2.106,-6.452,-4.647,-1.606,2.204,0,0,0,0,0,0,0,0,0,0,0,0,0,0,0,0,
472,-9.01,-12.05,-9.198,-14.01,-14.34,-12.71,-12.8,-16.85,-5.317,-8.649,-0.661,-7.447,-7.042,-3.243,-2.303,1.189,0,0,0,0,0,0,0,0,0,0,0,0,0,0,0,0,
473,-6.916,-7.192,-7.059,-14.66,-8.13,-7.268,-8.825,-18.88,-2.145,-1.68,1.983,0.1415,1.253,4.402,2.037,4.61,0,0,0,0,0,0,0,0,0,0,0,0,0,0,0,0,
474,-2.709,-0.1021,-10.86,-16.83,-12.83,-10.12,-7.98,-17.03,-4.141,-1.112,2.84,2.055,4.171,3.705,0.5972,2.828,0,0,0,0,0,0,0,0,0,0,0,0,0,0,0,0,
475,-6.757,1.554,-18.03,-20.23,-14.95,-12.76,-8.163,-11.57,-6.162,-1.713,4.183,3.489,9.761,4.986,2.195,4.492,0,0,0,0,0,0,0,0,0,0,0,0,0,0,0,0,
476,-2.212,9.743,-13.18,-15.03,-1.843,-3.821,-3.189,-8.672,-1.468,3.045,5.013,8.053,15.09,7.774,4.106,6.035,0,0,0,0,0,0,0,0,0,0,0,0,0,0,0,0,
477,2.464,12.05,-17.85,-21.97,-4.875,-8.18,-10.31,-20.81,-3.32,-3.346,1.228,2.678,6.847,0.8663,-1.024,0.4469,0,0,0,0,0,0,0,0,0,0,0,0,0,0,0,0,
478,-4.747,0.863,-36.88,-39.36,-25.14,-24.76,-23.65,-32.35,-6.769,-11.08,1.139,-4.953,-2.535,-2.775,-2.684,-0.1459,0,0,0,0,0,0,0,0,0,0,0,0,0,0,0,0,
479,-8.295,-7.523,-44.98,-40.75,-35.59,-31.01,-25.09,-27.97,-10.5,-9.496,-2.722,-11.05,-10.54,-3.426,-4.095,0.2502,0,0,0,0,0,0,0,0,0,0,0,0,0,0,0,0,
480,-18.96,-18.47,-48.4,-40.54,-44.23,-38.76,-29.16,-26.9,-27.03,-17.18,-20.45,-25.77,-27.62,-16.11,-15.95,-10.82,0,0,0,0,0,0,0,0,0,0,0,0,0,0,0,0,
481,-40.06,-34.94,-57.53,-50.76,-54.77,-49.51,-36.97,-31.01,-39.9,-26.47,-28.51,-31.76,-33.65,-22.27,-19.4,-14.28,0,0,0,0,0,0,0,0,0,0,0,0,0,0,0,0,
482,-29.13,-30.64,-50.41,-43.6,-40.31,-35.24,-24.06,-18.71,-27.37,-14.74,-9.506,-11.55,-12.61,-5.242,-0.6167,3.784,0,0,0,0,0,0,0,0,0,0,0,0,0,0,0,0,
483,10.22,-7.677,-28.8,-23.3,-10.82,-9.038,-4.412,-4.687,-4.609,-1.6,11.47,9.618,7.515,7.821,12.57,16,0,0,0,0,0,0,0,0,0,0,0,0,0,0,0,0,
484,19.45,-1.023,-27.01,-25.79,-10.39,-10.26,-9.843,-13.06,1.145,-10.55,8.023,4.658,1.627,-2.687,-0.4736,3.135,0,0,0,0,0,0,0,0,0,0,0,0,0,0,0,0,
485,-7.997,-13.95,-45.12,-43.81,-29.74,-26.47,-26.21,-26.67,-5.897,-20.75,-5.029,-9.239,-10.71,-11.83,-12.38,-8.478,0,0,0,0,0,0,0,0,0,0,0,0,0,0,0,0,
486,-24.31,-19.44,-50.59,-45.31,-27.73,-25.2,-26.35,-26.27,-2.277,-12.23,-2.838,-6.409,-7.456,-3.345,-3.664,-0.5218,0,0,0,0,0,0,0,0,0,0,0,0,0,0,0,0,
487,-20.41,-14.47,-41.89,-35.59,-19.28,-19.78,-20.98,-23.85,0.5125,-7.804,-1.338,-4.902,-7.893,-3.341,-3.815,-1.168,0,0,0,0,0,0,0,0,0,0,0,0,0,0,0,0,
488,-26.41,-19.55,-44.35,-38.9,-30.95,-29,-26.67,-30.1,-18.16,-21.55,-19.77,-24.04,-24.48,-19.17,-24.19,-20.09,0,0,0,0,0,0,0,0,0,0,0,0,0,0,0,0,
489,-33.94,-29.85,-54.94,-48.9,-38.59,-34.9,-31.54,-33.36,-30.67,-25.27,-30.95,-33.15,-27.43,-18.95,-29.79,-21.95,0,0,0,0,0,0,0,0,0,0,0,0,0,0,0,0,
490,-20.51,-21.3,-54.81,-48.1,-31.39,-27.81,-25.21,-26.69,-19.09,-10.41,-16.78,-14.96,-7.574,-2.276,-14.17,-4.202,0,0,0,0,0,0,0,0,0,0,0,0,0,0,0,0,
491,-7.87,-1.176,-50.84,-45.71,-31.45,-23.63,-19.25,-22.89,-12.67,-3.29,-4.773,-2.32,4.751,2.332,-7.337,-0.5552,0,0,0,0,0,0,0,0,0,0,0,0,0,0,0,0,
492,-11.68,5.841,-52.37,-50.13,-35.39,-24.72,-20.42,-26.35,-21.02,-7.503,-9.756,-7.684,-0.4761,-2.37,-12.44,-9.336,0,0,0,0,0,0,0,0,0,0,0,0,0,0,0,0,
493,-13.39,1.818,-50.1,-48.13,-30.36,-21.29,-19.47,-23.98,-23.09,-7.086,-12.1,-8.613,-5.828,-0.897,-10.77,-7.988,0,0,0,0,0,0,0,0,0,0,0,0,0,0,0,0,
494,-6.366,1.447,-40.75,-36.35,-22.09,-14.3,-10.38,-10.65,-10.48,0.9559,-1.634,-1.752,-2.863,4.8,-1.653,0.269,0,0,0,0,0,0,0,0,0,0,0,0,0,0,0,0,
495,-2.236,4.294,-32.19,-26.63,-15.03,-9.798,-0.847,3.926,1.651,9.574,4.213,-2.155,-0.0505,7.214,0.5075,1.645,0,0,0,0,0,0,0,0,0,0,0,0,0,0,0,0,
496,-6.132,1.819,-32.99,-25.68,-16.09,-11.78,-1.692,7.998,-3.22,8.287,-3.567,-7.561,-3.337,2.262,-4.687,-1.098,0,0,0,0,0,0,0,0,0,0,0,0,0,0,0,0,
497,-8.058,-4.555,-43.95,-31.75,-26.3,-16.74,-9.113,1.871,-8.177,-0.3631,-3.033,-0.6647,-1.39,-1.378,-0.0179,4.279,0,0,0,0,0,0,0,0,0,0,0,0,0,0,0,0,
498,2.894,-3.238,-48.03,-34.99,-24.2,-13.52,-10.18,-3.308,6.756,-1.303,13.12,15.27,9.977,4.005,12.38,13.06,0,0,0,0,0,0,0,0,0,0,0,0,0,0,0,0,
499,15.03,5.573,-37.14,-30.72,-8.571,-5.872,-7.151,-5.655,17.23,1.489,18.07,15.57,13.44,5.17,11.36,10.4,0,0,0,0,0,0,0,0,0,0,0,0,0,0,0,0,
500,5.137,7.169,-32.74,-30.03,-8.617,-11.35,-11.5,-10.02,5.119,-2.561,6.055,-0.1079,6.155,-0.8189,2.948,3.921,0,0,0,0,0,0,0,0,0,0,0,0,0,0,0,0,
501,-18.94,1.27,-41.48,-35.27,-21.63,-24.48,-19.02,-12.58,-8.605,-4.313,-1.031,-7.28,3.767,1.755,5.13,7.034,0,0,0,0,0,0,0,0,0,0,0,0,0,0,0,0,
502,-21.85,-0.0573,-43.54,-36.01,-21.17,-26.02,-20.87,-13.7,-12.1,-1.115,-1.426,-4.521,3.602,6.398,5.286,7.146,0,0,0,0,0,0,0,0,0,0,0,0,0,0,0,0,
503,-8.952,-1.94,-41.56,-36.8,-18.9,-23.93,-23.09,-20.83,-13.81,-3.312,-7.844,-8.406,-5.164,-1.204,-7.959,-5.711,0,0,0,0,0,0,0,0,0,0,0,0,0,0,0,0,
504,-11.29,-9.025,-46.34,-40.37,-27.6,-26.13,-23.91,-24.02,-14.17,-3.144,-11.54,-10.37,-8.508,-4.427,-10.56,-9.112,0,0,0,0,0,0,0,0,0,0,0,0,0,0,0,0,
505,-4.239,-3.906,-41.93,-31.89,-22.41,-16.74,-11.27,-12.05,-5.157,6.402,1.591,4.084,5.485,8.062,8.47,8.945,0,0,0,0,0,0,0,0,0,0,0,0,0,0,0,0,
506,23.37,8.977,-30.91,-20.69,-9.463,-6.793,-2.193,-6.947,5.266,4.67,10.92,11.74,11.83,11.13,15.78,17.45,0,0,0,0,0,0,0,0,0,0,0,0,0,0,0,0,
507,19.16,1.673,-35.96,-26.61,-16.9,-16.32,-14.05,-19.86,-0.2026,-11.51,-3.922,-5.096,-3.395,-3.82,-1.429,2.359,0,0,0,0,0,0,0,0,0,0,0,0,0,0,0,0,
508,-9.625,-13.62,-42.13,-31.99,-21.8,-21.01,-22.32,-23.52,-9.753,-16.06,-14.89,-16.99,-12.86,-11.62,-10.74,-6.138,0,0,0,0,0,0,0,0,0,0,0,0,0,0,0,0,
509,-13.57,-12.78,-35.36,-27.62,-11.85,-13.39,-18.21,-18.16,-6.526,-11.34,-4.844,-10.58,-8.858,-8.303,-3.306,0.7778,0,0,0,0,0,0,0,0,0,0,0,0,0,0,0,0,
510,-11.32,-10.88,-35.22,-31.03,-15.2,-18.33,-21.36,-22.12,-4.851,-12.41,1.384,-7.924,-8.343,-6.988,2.248,4.923,0,0,0,0,0,0,0,0,0,0,0,0,0,0,0,0,
511,-20.61,-13.1,-38.38,-33.01,-21.65,-23.04,-22.29,-19.71,-8.147,-8.782,0.6934,-8.512,-7.475,-6.935,4.78,3.579,0,0,0,0,0,0,0,0,0,0,0,0,0,0,0,0,
512,-19.89,-9.09,-32.64,-26.36,-15.1,-14.59,-14.25,-13.23,-4.65,-5.688,3.016,-4.396,-6.775,-11.67,3.648,-2.852,0,0,0,0,0,0,0,0,0,0,0,0,0,0,0,0,
513,-15.09,-11.68,-31.73,-28.57,-13.92,-12.83,-15.21,-21.99,-3.212,-16.65,-0.9108,-4.55,-14.34,-19.32,-2.531,-9.617,0,0,0,0,0,0,0,0,0,0,0,0,0,0,0,0,
514,-16.9,-20.31,-34.01,-32.9,-13.67,-14.45,-19.18,-26.86,-4.989,-21.8,-4.224,-4.166,-14.36,-13.7,0.372,-2.627,0,0,0,0,0,0,0,0,0,0,0,0,0,0,0,0,
515,-12.51,-17.49,-29.18,-28.45,-5.902,-9.933,-16.16,-19.47,0.7081,-13.08,2.429,2.829,-1.861,-1.79,9.362,8.951,0,0,0,0,0,0,0,0,0,0,0,0,0,0,0,0,
516,-4.421,-10.19,-27.56,-27.66,-8.417,-11.55,-17.26,-18.83,4.012,-9.448,3.363,5.002,4.404,-0.4756,6.132,8.053,0,0,0,0,0,0,0,0,0,0,0,0,0,0,0,0,
517,-5.472,-7.505,-32.54,-31.37,-19.79,-18.66,-21.08,-20.76,-2.01,-9.214,-4.308,-0.8385,1.462,-3.195,-4.5,1.044,0,0,0,0,0,0,0,0,0,0,0,0,0,0,0,0,
518,-10.09,-5.423,-35.47,-31.5,-24.22,-22.74,-20.29,-16.56,-6.348,-4.319,-5.684,-6.266,-1.955,-3.244,-7.152,-2.556,0,0,0,0,0,0,0,0,0,0,0,0,0,0,0,0,
519,-10.82,-4.724,-32.79,-29.16,-19.81,-22.66,-17.96,-13,-5.063,-3.468,-0.387,-7.126,-3.248,-4.006,-2.989,-2.459,0,0,0,0,0,0,0,0,0,0,0,0,0,0,0,0,
520,-11.47,-5.106,-28.67,-26.17,-13.57,-18.74,-15.76,-12.86,-3.927,-8.459,0.1494,-7.768,-4.71,-6.439,-3.319,-2.272,0,0,0,0,0,0,0,0,0,0,0,0,0,0,0,0,
521,-13.21,-8.418,-31.8,-25.11,-17.02,-18.87,-17.59,-15,-6.753,-14.87,-8.35,-14.41,-12.79,-12.88,-10.32,-6.994,0,0,0,0,0,0,0,0,0,0,0,0,0,0,0,0,
522,-15.36,-20.18,-37.21,-26.17,-25.35,-23.33,-23.65,-18.34,-9.451,-22.25,-16.33,-20.94,-24.71,-20.98,-14.12,-12.7,0,0,0,0,0,0,0,0,0,0,0,0,0,0,0,0,
523,-17.98,-32.21,-32.84,-23.84,-21.19,-20.75,-23.62,-19.03,-6.325,-24.04,-15.1,-19.64,-30.45,-23.38,-11.63,-13.15,0,0,0,0,0,0,0,0,0,0,0,0,0,0,0,0,
524,-17.71,-34.67,-21.2,-13.93,-8.184,-12.89,-16.74,-11.85,-0.1592,-18.18,-8.338,-15.26,-30.06,-21.18,-7.788,-9.983,0,0,0,0,0,0,0,0,0,0,0,0,0,0,0,0,
525,-13.39,-29.68,-8.763,-1.999,3.283,-4.791,-10.97,-2.464,7.885,-13.86,1.214,-8.106,-22.32,-15.48,-0.9532,-2.084,0,0,0,0,0,0,0,0,0,0,0,0,0,0,0,0,
526,-5.017,-19.27,-5.841,-4.041,8.816,1.62,-8.415,-6.551,11.86,-13.05,6.97,-0.0309,-8.347,-7.378,3.945,6.177,0,0,0,0,0,0,0,0,0,0,0,0,0,0,0,0,
527,-1.803,-11.91,-22.84,-21.62,-3.374,-7.774,-15.26,-23.41,-5.201,-16.73,-4.122,-7.586,-8.027,-10.02,-5.327,-0.3591,0,0,0,0,0,0,0,0,0,0,0,0,0,0,0,0,
528,-17.9,-20.7,-43.97,-36.55,-28.28,-32.19,-33.94,-38.81,-27.56,-27.08,-17.81,-24.4,-20.97,-20.3,-16.11,-11.52,0,0,0,0,0,0,0,0,0,0,0,0,0,0,0,0,
529,-34.85,-31.53,-47.25,-40.11,-38.16,-41.95,-43.21,-43.2,-20.91,-27.15,-10.04,-21.05,-16.97,-13.75,-7.882,-2.08,0,0,0,0,0,0,0,0,0,0,0,0,0,0,0,0,
530,-26.86,-22.84,-36.47,-33.88,-26.03,-28.46,-30.8,-31.94,-2.746,-10.64,3.548,-4.659,-0.6895,2.993,4.917,13.03,0,0,0,0,0,0,0,0,0,0,0,0,0,0,0,0,
531,-10.38,-10.42,-24.8,-21.83,-11.11,-16.18,-18.2,-14.19,-1.132,-0.8125,4.182,-2.706,-1.58,4.371,3.506,9.101,0,0,0,0,0,0,0,0,0,0,0,0,0,0,0,0,
532,-7.928,-13.58,-18.88,-15.09,-6.907,-15.53,-18.32,-6.033,-0.9128,-2.534,2.753,-9.13,-12.7,-3.621,-1.796,-0.8183,0,0,0,0,0,0,0,0,0,0,0,0,0,0,0,0,
533,-12.12,-20.2,-19.53,-16.32,-10.17,-15.43,-19.45,-8.642,3.006,-3.674,1.188,-9.781,-16.38,-8.797,-2.922,-4.359,0,0,0,0,0,0,0,0,0,0,0,0,0,0,0,0,
534,-6.175,-17.96,-18.65,-14.08,-7.837,-8.556,-12.68,-9.888,2.704,-5.224,-2.624,-6.09,-12.97,-11.66,-2.419,-4.701,0,0,0,0,0,0,0,0,0,0,0,0,0,0,0,0,
535,9.418,-6.051,-9.482,-3.794,5.201,4.784,2.936,-0.6052,10.56,-3.61,2.861,2.704,-2.231,-6.626,2.954,1.366,0,0,0,0,0,0,0,0,0,0,0,0,0,0,0,0,
536,17.38,11.01,-0.6757,3.954,15.2,16.38,16.7,7.198,21.61,1.56,13.09,12.55,9.524,2.601,10.59,9.008,0,0,0,0,0,0,0,0,0,0,0,0,0,0,0,0,
537,15.12,18.17,-2.077,0.8919,11.79,16.66,14.87,0.5819,17.82,0.0628,15.37,14.07,11.69,5.715,13.08,9.953,0,0,0,0,0,0,0,0,0,0,0,0,0,0,0,0,
538,11.02,11.2,-6.528,-3.698,4.535,9.848,6.059,-6.148,6.854,-1.195,10.08,7.27,6.445,6.001,9.09,7.215,0,0,0,0,0,0,0,0,0,0,0,0,0,0,0,0,
539,1.505,0.3612,-7.564,-3.807,0.9951,2.924,-0.0483,-7.949,-2.498,2.227,-1.886,-5.055,-4.665,1.755,-1.489,-0.5165,0,0,0,0,0,0,0,0,0,0,0,0,0,0,0,0,
540,-12.09,-13.11,-14.54,-10.62,-7.343,-7.621,-10.07,-17.83,-12.78,-2.626,-14.32,-17.98,-19.24,-9.814,-13.25,-12.17,0,0,0,0,0,0,0,0,0,0,0,0,0,0,0,0,
541,-22.69,-24.24,-26.74,-20.91,-19.79,-17.66,-16.59,-24.11,-16.99,-9.458,-15.8,-20.94,-23.75,-13.62,-14.92,-14.86,0,0,0,0,0,0,0,0,0,0,0,0,0,0,0,0,
542,-23.57,-18.1,-25.53,-16.68,-16.6,-12.41,-6.566,-13.36,-7.689,-3.13,-6.888,-11.17,-14.6,-4.562,-6.083,-7.124,0,0,0,0,0,0,0,0,0,0,0,0,0,0,0,0,
543,-8.226,-0.1932,-11.73,-4.793,-0.8626,1.841,6.825,-3.252,3.89,5.386,2.069,-0.0772,-5.041,1.443,1.001,-1.855,0,0,0,0,0,0,0,0,0,0,0,0,0,0,0,0,
544,7.25,8.769,-6.501,-2.772,1.287,5.024,8.544,-3.701,3.62,4.156,4.05,3.201,-1.29,1.125,2.827,-1.095,0,0,0,0,0,0,0,0,0,0,0,0,0,0,0,0,
545,7.943,8.152,-9.425,-4.249,-3.214,2.851,6.204,-1.391,0.9431,2.8,3.613,4.033,1.821,3.423,6.103,0.9821,0,0,0,0,0,0,0,0,0,0,0,0,0,0,0,0,
546,3.821,7.953,-8.71,-2.127,0.6367,4.123,4.71,1.736,4.323,5.313,3.521,2.806,1.763,2.696,4.72,-2.917,0,0,0,0,0,0,0,0,0,0,0,0,0,0,0,0,
547,-3.991,4.15,-10.87,-3.809,-5.36,-3.237,-1.335,-4.903,1.443,4.043,-1.137,-6.508,-5.835,-5.674,-5.345,-14.56,0,0,0,0,0,0,0,0,0,0,0,0,0,0,0,0,
548,-17.12,-5.075,-17.95,-7.82,-20.31,-15.53,-8.624,-10.57,-5.427,-1.72,-4.589,-13.63,-14.28,-13.67,-10.37,-20.13,0,0,0,0,0,0,0,0,0,0,0,0,0,0,0,0,
549,-25.69,-13.95,-22.6,-11.28,-23.87,-20.3,-14.11,-11.86,-7.623,-11.97,-4.865,-13.99,-21.37,-22.23,-10.54,-21.42,0,0,0,0,0,0,0,0,0,0,0,0,0,0,0,0,
550,-26.88,-22.15,-25.33,-16.54,-20.93,-20.61,-17.42,-17.08,-11.94,-20.53,-7.751,-15.83,-25.83,-27.98,-11.55,-22.67,0,0,0,0,0,0,0,0,0,0,0,0,0,0,0,0,
551,-18,-22.45,-20.02,-13.86,-12.15,-11.74,-11.03,-14.31,-9.823,-13.53,-4.046,-12.28,-20.3,-20.38,-5.899,-15.5,0,0,0,0,0,0,0,0,0,0,0,0,0,0,0,0,
552,-2.206,-11.94,-6.596,-4.128,3.568,3.538,-2.033,-4.535,3.107,-3.703,2.135,-5.77,-14.62,-13.76,-4.106,-11.28,0,0,0,0,0,0,0,0,0,0,0,0,0,0,0,0,
553,3.933,-6.784,-4.358,-5.603,6.11,4.191,-5.83,-7.948,3.83,-8.809,-5.399,-11.82,-18.39,-16.24,-14.45,-17.21,0,0,0,0,0,0,0,0,0,0,0,0,0,0,0,0,
554,-2.611,-9.238,-14.97,-15.87,-6.494,-7.99,-15.1,-16.18,-8.153,-12.06,-13.83,-21.54,-19.12,-9.622,-18.21,-15.08,0,0,0,0,0,0,0,0,0,0,0,0,0,0,0,0,
555,-12.84,-9.934,-24.36,-22.65,-19.59,-18.65,-19.3,-15.49,-14.01,-4.284,-13.57,-24.15,-14.33,1.135,-14.22,-8.407,0,0,0,0,0,0,0,0,0,0,0,0,0,0,0,0,
556,-21.36,-11.38,-28.9,-24.35,-27.94,-24.61,-18.67,-10.47,-15.67,0.4115,-14.33,-22.96,-11.47,0.7934,-14,-10.48,0,0,0,0,0,0,0,0,0,0,0,0,0,0,0,0,
557,-22.38,-11.03,-26.26,-18.02,-26.28,-22.49,-12.52,-2.479,-15.9,1.421,-12.12,-16.59,-8.209,-1.64,-12.37,-11.75,0,0,0,0,0,0,0,0,0,0,0,0,0,0,0,0,
558,-17.94,-8.306,-21.02,-11.38,-19.68,-17.5,-7.226,2.058,-11.34,2.717,-6.583,-10.48,-5.593,-1.352,-8.472,-7.983,0,0,0,0,0,0,0,0,0,0,0,0,0,0,0,0,
559,-16.12,-9.358,-19.68,-12.89,-15.12,-13.36,-4.375,0.2257,-7.497,3.904,-4.227,-7.366,-1.966,0.6114,-1.893,-0.9295,0,0,0,0,0,0,0,0,0,0,0,0,0,0,0,0,
560,-9.485,-3.204,-9.072,-5.389,-1.821,1.572,7.559,6.878,-2.308,9.117,4.309,4.138,6.69,6.934,11.35,9.243,0,0,0,0,0,0,0,0,0,0,0,0,0,0,0,0,
561,8.757,10.59,10.66,12.47,14.74,18.78,20.01,16.92,9.196,9.632,15.25,15.19,6.958,4.562,15.78,7.507,0,0,0,0,0,0,0,0,0,0,0,0,0,0,0,0,
562,18.04,9.303,13.08,12.29,14.24,17.45,14.63,9.443,14.13,-2.844,12.1,10.14,-4.299,-9.036,6.333,-4.408,0,0,0,0,0,0,0,0,0,0,0,0,0,0,0,0,
563,9.911,-1.254,0.3405,-1.108,5.503,9.129,4.753,-1.838,9.471,-7.867,8.315,5.754,-3.945,-7.426,7.964,0.9809,0,0,0,0,0,0,0,0,0,0,0,0,0,0,0,0,
564,7.084,1.367,-2.525,-1.345,4.316,8.755,5.707,1.545,10.96,3.612,16.93,12.64,8.949,9.422,20.6,16.14,0,0,0,0,0,0,0,0,0,0,0,0,0,0,0,0,
565,8.57,5.777,-2.076,-0.6504,4.032,5.805,2.953,-0.1679,12.52,6.89,17.5,13.31,11.89,13.04,19.62,13.85,0,0,0,0,0,0,0,0,0,0,0,0,0,0,0,0,
566,3.296,1.906,-6.744,-7.814,4.412,2.901,-3.213,-7.641,4.336,1.841,10.08,12.13,11.75,10.65,15.6,10.09,0,0,0,0,0,0,0,0,0,0,0,0,0,0,0,0,
567,8.065,7.437,-1.118,-1.645,7.3,9.424,4.182,2.098,3.433,8.257,16.71,21.65,19.44,18.22,22.15,16.79,0,0,0,0,0,0,0,0,0,0,0,0,0,0,0,0,
568,15.48,14.52,0.8073,4.093,-4.359,5.048,7.134,3.316,7.998,7.908,20.34,18.85,11.81,12.9,16.46,7.832,0,0,0,0,0,0,0,0,0,0,0,0,0,0,0,0,
569,1.732,0.5083,-17.96,-10.71,-22.84,-13.98,-7.628,-18.12,-0.7378,-8.444,5.063,-1.357,-9.705,-5.937,1.276,-9.337,0,0,0,0,0,0,0,0,0,0,0,0,0,0,0,0,
570,-14.77,-13.83,-24.82,-15.82,-20.36,-17.95,-12.03,-18.88,-9.597,-9.9,-2.716,-7.543,-11.3,-6.374,3.235,-5.252,0,0,0,0,0,0,0,0,0,0,0,0,0,0,0,0,
571,-15.27,-8.003,-11.51,-3.684,-10.14,-8.565,-2.485,-3.313,-5.345,0.7749,1.745,-0.8938,-0.0108,2.968,7.801,4.52,0,0,0,0,0,0,0,0,0,0,0,0,0,0,0,0,
572,-10.66,-1.753,-9.168,-3.254,-7.701,-5.309,-1.867,-7.766,-0.6995,-1.602,-1.827,-4.006,-1.47,-0.716,-2.617,0.4163,0,0,0,0,0,0,0,0,0,0,0,0,0,0,0,0,
573,-8.103,-6.697,-15.27,-12.19,-2.99,-5.96,-9.387,-18.04,-4.654,-7.966,-10.82,-14.09,-8.907,-6.811,-13.28,-6.681,0,0,0,0,0,0,0,0,0,0,0,0,0,0,0,0,
574,-11.18,-15.58,-22.16,-22.07,-9.147,-13.04,-19.27,-22.93,-14.45,-9.86,-16.15,-19.07,-10.76,-6.02,-13.04,-5.91,0,0,0,0,0,0,0,0,0,0,0,0,0,0,0,0,
575,-14.9,-19.76,-30.44,-29.81,-21.37,-18.71,-23.18,-26.28,-14.39,-10.2,-9.043,-8.083,-5.4,-0.4088,0.4835,4.659,0,0,0,0,0,0,0,0,0,0,0,0,0,0,0,0,
576,-2.915,-12.36,-19.52,-20.32,-6.646,-5.691,-12.14,-20.57,2.171,-7.763,9.779,10.42,-1.194,2.767,12.33,9.145,0,0,0,0,0,0,0,0,0,0,0,0,0,0,0,0,
577,9.769,-9.049,-1.212,-9.783,11.41,3.507,-6.496,-18.22,8.616,-11.41,11.94,8.122,-10.75,-7.018,0.9374,-5.099,0,0,0,0,0,0,0,0,0,0,0,0,0,0,0,0,
578,1.304,-17.24,-1.562,-13.66,6.837,-2.463,-10.51,-20.92,-0.8594,-13.92,-1.561,-2.683,-15.99,-12.87,-10.04,-10.87,0,0,0,0,0,0,0,0,0,0,0,0,0,0,0,0,
579,-0.4279,-10.23,0.4176,-7.228,7.636,2.615,-1.735,-13.14,0.1875,-1.267,0.0791,4.744,-1.37,-0.5706,0.0128,2.2,0,0,0,0,0,0,0,0,0,0,0,0,0,0,0,0,
580,14.46,6.221,5.755,0.9435,9.053,6.148,3.601,-13.04,5.018,4.111,2.795,7.09,6.097,4.839,0.8842,3.124,0,0,0,0,0,0,0,0,0,0,0,0,0,0,0,0,
581,7.078,1.582,-8.933,-13.82,-7.702,-11.1,-10.33,-25.27,-3.267,-5.107,-10.21,-6.53,-1.286,-2.946,-11.19,-7.054,0,0,0,0,0,0,0,0,0,0,0,0,0,0,0,0,
582,-12.93,-9.778,-21.25,-24.92,-17,-21.77,-18.95,-24.55,-10.05,-5.021,-14.88,-10.04,-1.992,-3.68,-10.04,-5.967,0,0,0,0,0,0,0,0,0,0,0,0,0,0,0,0,
583,-12.54,-9.694,-14.91,-17.85,-11.36,-16.67,-16.65,-17.84,-7.724,-0.0378,-8.474,-6.107,0.5986,0.0011,-3.879,-0.4364,0,0,0,0,0,0,0,0,0,0,0,0,0,0,0,0,
584,-9.624,-8.275,-7.936,-11.6,-2.555,-9.378,-11.81,-15.81,-2.852,0.5601,-6.946,-7.75,-0.9169,0.751,-4.662,1.27,0,0,0,0,0,0,0,0,0,0,0,0,0,0,0,0,
585,-10.24,-5.908,-1.433,-5.298,10.78,1.28,-1.007,-8.719,0.7523,3.588,-8.241,-10.39,-3.368,-1.608,-7.77,-1.581,0,0,0,0,0,0,0,0,0,0,0,0,0,0,0,0,
586,-5.043,-3.033,3.61,0.8755,11.82,4.386,4.632,-3.481,-4.207,2.504,-13.68,-16.74,-10.68,-9.408,-14.46,-10.88,0,0,0,0,0,0,0,0,0,0,0,0,0,0,0,0,
587,-9.817,-5.113,-1.316,-2.125,-4.066,-6.873,0.655,-3.325,-12.53,-0.8615,-20.72,-21.83,-15.4,-11.92,-17.29,-14.76,0,0,0,0,0,0,0,0,0,0,0,0,0,0,0,0,
588,-16.53,-5.013,-6.797,-6.391,-11.61,-14.09,-0.6998,-1.406,-11.01,2.394,-13.24,-12.03,-6.769,-3.69,-4.841,-4.913,0,0,0,0,0,0,0,0,0,0,0,0,0,0,0,0,
589,-6.621,0.6987,-5.785,-3.924,-4.653,-8.032,2.883,-1.142,2.392,6.587,15.56,12.86,14.03,11.05,24.9,18.65,0,0,0,0,0,0,0,0,0,0,0,0,0,0,0,0,
590,15.11,16.54,7.039,10.84,17.93,13.88,19.55,9.503,33.73,17.96,61.51,50.51,46.46,38.89,68.62,56.84,0,0,0,0,0,0,0,0,0,0,0,0,0,0,0,0,
591,46.5,44.63,34.86,35.6,51.77,44.84,47.12,32.91,73.35,37.34,101.2,84,73.08,65.63,100.1,85.9,0,0,0,0,0,0,0,0,0,0,0,0,0,0,0,0,
592,69.48,59.79,48.85,43.42,59.66,53.49,53.77,36.48,81.87,43.38,101.9,84.89,71.08,65.27,93.8,82,0,0,0,0,0,0,0,0,0,0,0,0,0,0,0,0,
593,60.11,48.15,30.26,25.56,33.64,33.5,34.61,18.16,51.78,35.1,68.49,57.87,49.94,48.43,64,59.48,0,0,0,0,0,0,0,0,0,0,0,0,0,0,0,0,
594,31.56,27.12,6.321,6.407,9.264,12.42,14.44,3.814,17.02,22.55,30.3,26.45,25.35,30.76,30.83,33.01,0,0,0,0,0,0,0,0,0,0,0,0,0,0,0,0,
595,7.649,6.978,-4.162,-3.743,-2.514,1.054,0.5112,-5.256,-3.661,8.147,2.694,2.433,3.75,11.93,1.793,7.54,0,0,0,0,0,0,0,0,0,0,0,0,0,0,0,0,
596,-0.79,-4.962,-9.009,-9.585,-6.904,-2.647,-5.742,-8.915,-10.52,2.872,-6.869,-7.314,-5.244,0.4423,-12.54,-4.096,0,0,0,0,0,0,0,0,0,0,0,0,0,0,0,0,
597,1.341,-2.923,-12.22,-12.29,-2.948,-0.2364,-2.971,-6.451,-7.841,4.732,-4.569,-7.764,-5.215,-0.2073,-14.87,-4.436,0,0,0,0,0,0,0,0,0,0,0,0,0,0,0,0,
598,-0.2101,1.336,-12.84,-13.11,-0.8384,1.056,-0.6865,-8.002,-4.857,2.702,-4.509,-7.18,-3.076,3.612,-14.52,-3.353,0,0,0,0,0,0,0,0,0,0,0,0,0,0,0,0,
599,-2.099,2.825,-11.16,-11.08,-4.357,-0.1103,-3.05,-8.819,-3.75,2.487,-3.851,-4.001,1.76,6.891,-10.4,-1.757,0,0,0,0,0,0,0,0,0,0,0,0,0,0,0,0,
600,-0.7682,2.856,-10.23,-8.994,-5.599,-3.348,-8.159,-7.303,-4.777,1.702,-3.019,-3.64,0.5154,2.049,-7.617,-5.386,0,0,0,0,0,0,0,0,0,0,0,0,0,0,0,0,
601,-4.985,-3.886,-13.07,-10.42,-8.006,-10.1,-12.76,-11.77,-13.93,-5.427,-11.81,-8.696,-7.185,-7.028,-11.28,-11.52,0,0,0,0,0,0,0,0,0,0,0,0,0,0,0,0,
602,-9.663,-10.26,-14.46,-9.482,-13.35,-11.63,-10.68,-13.83,-22.6,-7.36,-20.62,-10.01,-9.931,-9.152,-14.01,-10.33,0,0,0,0,0,0,0,0,0,0,0,0,0,0,0,0,
603,-8.264,-9.717,-8.505,-4.98,-9.112,-2.974,-4.624,-9.253,-13.56,-2.263,-15.9,-7.016,-9.69,-6.069,-10.62,-6.179,0,0,0,0,0,0,0,0,0,0,0,0,0,0,0,0,
604,-5.976,-9.493,2.263,-1.307,5.555,6.47,-1.343,-3.93,6.02,1.358,-3.543,-1.936,-7.961,-0.599,-2.621,-1.973,0,0,0,0,0,0,0,0,0,0,0,0,0,0,0,0,
605,-3.523,-8.25,9.576,2.679,13.61,10.12,1.205,5.902,13.87,5.168,4.287,4.178,-1.042,6.212,2.898,3.419,0,0,0,0,0,0,0,0,0,0,0,0,0,0,0,0,
606,0.6105,-2.26,9.151,6.801,11.51,9.402,4.735,16.03,5.781,10.56,-0.6571,1.309,2.066,8.33,-2.632,3.338,0,0,0,0,0,0,0,0,0,0,0,0,0,0,0,0,
607,-0.4951,0.4414,4.803,7.086,6.655,4.152,4.317,13.55,-6.842,12.41,-13.51,-10.24,-3.966,4.784,-12.91,-1.883,0,0,0,0,0,0,0,0,0,0,0,0,0,0,0,0,
608,-10.38,-2.986,-1.646,1.509,-3.786,-3.237,-0.2245,3.402,-11.41,8.36,-13.89,-12.61,-5.912,1.715,-11.84,-2.87,0,0,0,0,0,0,0,0,0,0,0,0,0,0,0,0,
609,-12.05,-1.362,-6.149,-4.267,-11.7,-3.272,0.353,0.4406,-3.404,4.568,0.2231,-0.1136,4.653,5.802,1.121,3.078,0,0,0,0,0,0,0,0,0,0,0,0,0,0,0,0,
610,1.702,9.916,-3.362,-4.516,-6.172,0.8832,5.464,1.874,-0.0929,6.186,3.831,10.32,14.47,13.16,8.952,8.584,0,0,0,0,0,0,0,0,0,0,0,0,0,0,0,0,
611,5.546,17.33,-3.535,-5.845,-3.776,-3.694,4.172,-2.248,-12.52,8.054,-6.246,8.814,13.81,13.48,5.88,8.489,0,0,0,0,0,0,0,0,0,0,0,0,0,0,0,0,
612,-4.16,16.74,-7.938,-7.328,-8.88,-7.144,3.521,-2.282,-15.58,9.695,-5.772,9.164,14.51,12.79,6.702,10.13,0,0,0,0,0,0,0,0,0,0,0,0,0,0,0,0,
613,-0.623,19.59,-0.7007,2.038,-1.755,3.077,12.45,7.746,1.143,14.84,5.709,16.77,18.29,16.53,13.14,14.93,0,0,0,0,0,0,0,0,0,0,0,0,0,0,0,0,
614,12.37,19.16,9.521,11.74,10.34,10.69,14.11,10.84,10.46,14.64,7.611,15.13,9.819,11.21,8.798,10.68,0,0,0,0,0,0,0,0,0,0,0,0,0,0,0,0,
615,12.31,4.761,4.851,5.78,6.644,3.062,-0.2259,1.278,6.411,5.1,0.8053,3.376,-5.01,-0.6157,-2.283,0.6316,0,0,0,0,0,0,0,0,0,0,0,0,0,0,0,0,
616,5.701,-7.423,-5.24,-5.937,-4.183,-7.098,-11.43,-6.475,8.426,-0.2437,0.7549,0.1205,-6.64,0.4185,-1.817,0.559,0,0,0,0,0,0,0,0,0,0,0,0,0,0,0,0,
617,8.918,-4.005,-5.562,-6.436,-1.246,-5.744,-6.667,-3.053,17.69,5.426,9.273,7.581,1.798,9.579,6.387,6.92,0,0,0,0,0,0,0,0,0,0,0,0,0,0,0,0,
618,14.3,3.423,0.604,0.1977,8.517,1.186,2.05,2.609,19.18,9.24,13.49,10.38,3.166,7.826,6.186,5.221,0,0,0,0,0,0,0,0,0,0,0,0,0,0,0,0,
619,7.193,0.7093,-5.581,-6.653,-2.463,-6.013,-3.193,-7.124,3.749,-1.242,2.029,-0.1082,-6.773,-4.705,-4.789,-5.314,0,0,0,0,0,0,0,0,0,0,0,0,0,0,0,0,
620,-7.583,-11.06,-26.97,-26.34,-26.23,-23.46,-16.8,-23.32,-14.92,-13.97,-14.97,-15.01,-16.07,-12.45,-14.34,-13.91,0,0,0,0,0,0,0,0,0,0,0,0,0,0,0,0,
621,-17.13,-16.66,-32.4,-28.68,-25.44,-23.16,-15.84,-20.02,-11.95,-9.188,-14.94,-17.67,-14.66,-7.893,-11.18,-13.11,0,0,0,0,0,0,0,0,0,0,0,0,0,0,0,0,
622,-15.67,-8.172,-10.33,-6.998,-2.636,-5.341,-1.782,-5.973,5.453,2.836,-1.379,-8.151,-8.833,-1.683,-2.654,-8.066,0,0,0,0,0,0,0,0,0,0,0,0,0,0,0,0,
623,-8.24,-1.211,6.931,8.846,8.931,3.285,1.958,-6.766,8.288,-0.2746,2.34,-3.553,-8.943,-4.704,-2.458,-8.17,0,0,0,0,0,0,0,0,0,0,0,0,0,0,0,0,
624,-7.805,-7.922,2.329,4.861,0.0361,-2.884,-6.391,-17.37,-3.591,-11.13,-3.643,-7.034,-13.24,-9.929,-5.332,-11.1,0,0,0,0,0,0,0,0,0,0,0,0,0,0,0,0,
625,-13.09,-15.66,-6.759,-2.92,-13.46,-8.934,-9.363,-18.15,-11.44,-11.76,-5.837,-8.538,-16.36,-10.75,-5.786,-12.25,0,0,0,0,0,0,0,0,0,0,0,0,0,0,0,0,
626,-13.83,-16.38,-10.32,-5.309,-17.96,-10.21,-7,-12.28,-13.85,-8.956,-9.167,-11.36,-19.36,-14.8,-12.26,-15.97,0,0,0,0,0,0,0,0,0,0,0,0,0,0,0,0,
627,-15.93,-19.5,-14.27,-8.441,-17.73,-12.74,-10.28,-14.4,-16.63,-12.33,-17.06,-19.17,-20.86,-20.51,-19.43,-19.15,0,0,0,0,0,0,0,0,0,0,0,0,0,0,0,0,
628,-23.52,-21.98,-14.65,-7.285,-17.18,-13.61,-12.33,-14.16,-15.85,-10.46,-19.09,-21.95,-16.39,-17.16,-16.41,-14.9,0,0,0,0,0,0,0,0,0,0,0,0,0,0,0,0,
629,-27.37,-14.99,-5.551,3.015,-10.86,-9.597,-7.182,-1.203,-10.8,-1.315,-15.27,-19.45,-11.67,-11.57,-12.13,-11.8,0,0,0,0,0,0,0,0,0,0,0,0,0,0,0,0,
630,-27.18,-11.14,-0.8134,4.548,-7.267,-11.01,-9.171,2.434,-10.74,-3.078,-14.64,-20.64,-14.27,-14.42,-13.84,-15.64,0,0,0,0,0,0,0,0,0,0,0,0,0,0,0,0,
631,-30.63,-18.9,-7.524,-6.601,-14.87,-19.3,-20.11,-9.399,-19.15,-13.4,-18.32,-22.41,-17.87,-17.43,-16.46,-17.79,0,0,0,0,0,0,0,0,0,0,0,0,0,0,0,0,
632,-32.48,-23.35,-11.18,-10.29,-20.53,-21.89,-22.76,-14.14,-23.27,-11.73,-18.64,-17.41,-13.51,-11.29,-14.98,-13.82,0,0,0,0,0,0,0,0,0,0,0,0,0,0,0,0,
633,-21.22,-16.7,-9.689,-8.328,-17.41,-17.38,-17.38,-11.01,-12.54,-3.412,-9.199,-7.915,-5.849,-3.453,-7.482,-8.183,0,0,0,0,0,0,0,0,0,0,0,0,0,0,0,0,
634,-7.405,-10,-12.83,-13.13,-12.63,-13.5,-16.83,-11.11,-2.669,-7.082,-1.849,-3.745,-5.729,-5.718,-3.63,-7.802,0,0,0,0,0,0,0,0,0,0,0,0,0,0,0,0,
635,-7.094,-10.83,-16.14,-15.83,-9.676,-11.82,-18.43,-11.13,-9.974,-14.28,-8.352,-6.814,-9.431,-11.76,-7.93,-10.22,0,0,0,0,0,0,0,0,0,0,0,0,0,0,0,0,
636,-9.137,-11.68,-14.17,-12.12,-10.66,-10.37,-15.33,-11.48,-17.26,-9.543,-12.65,-6.323,-4.867,-7.096,-5.152,-5.106,0,0,0,0,0,0,0,0,0,0,0,0,0,0,0,0,
637,-4.004,-6.402,-13.43,-12.65,-14.07,-9.156,-13.14,-16.98,-10.46,-4.144,-4.556,-1.615,2.216,0.0584,3.478,1.46,0,0,0,0,0,0,0,0,0,0,0,0,0,0,0,0,
638,0.339,-2.272,-14.32,-15.68,-10.79,-6.357,-13.19,-19.82,-2.856,-7.224,3.776,1.175,3.498,-0.8132,5.621,2.088,0,0,0,0,0,0,0,0,0,0,0,0,0,0,0,0,
639,6.552,-0.4716,-7.435,-10.03,0.6651,2.7,-6.549,-11.14,4.566,-4.588,12.81,8.826,7.477,1.287,11.58,7.193,0,0,0,0,0,0,0,0,0,0,0,0,0,0,0,0,
640,18.82,4.654,4.377,0.1222,9.473,13.16,2.117,-0.9979,17.65,1.993,24.26,18.93,11.57,4.433,21.51,12.61,0,0,0,0,0,0,0,0,0,0,0,0,0,0,0,0,
641,25.29,4.283,8.338,2.932,10.85,14.33,1.095,-2.2,20.89,-4.79,21.67,15.75,3.241,-4.308,15.5,4.151,0,0,0,0,0,0,0,0,0,0,0,0,0,0,0,0,
642,16.05,-5.714,3.564,-0.9679,6.778,7.518,-3.192,-6.838,8.234,-15.35,3.364,1.677,-8.796,-13.53,-2.638,-8.262,0,0,0,0,0,0,0,0,0,0,0,0,0,0,0,0,
643,1.17,-11.08,-3.643,-4.875,-4.23,0.3411,-2.081,-4.097,-3.84,-14.12,-10.96,-8.946,-11.05,-11.94,-12.52,-11.26,0,0,0,0,0,0,0,0,0,0,0,0,0,0,0,0,
644,-3.868,-7.526,-6.476,-2.899,-12.02,-1.103,1.755,2.203,-5.62,-8.912,-12.12,-11.91,-6.906,-8.484,-10.61,-7.987,0,0,0,0,0,0,0,0,0,0,0,0,0,0,0,0,
645,-1.152,-3.868,0.8648,6.295,-3.796,4.879,6.17,6.097,-0.8411,-6.576,-7.422,-10.69,-3.478,-7.398,-6.003,-3.725,0,0,0,0,0,0,0,0,0,0,0,0,0,0,0,0,
646,3.545,-3.068,7.806,10.78,4.702,7.236,6.928,7.212,0.3314,-6.052,-5.939,-10.15,-3.128,-5.76,-4.238,-0.9235,0,0,0,0,0,0,0,0,0,0,0,0,0,0,0,0,
647,5.079,-3.678,3.22,5.474,-2.502,0.2035,1.642,7.245,-8.223,-8.403,-9.607,-13.09,-5.256,-5.104,-5.768,-0.9833,0,0,0,0,0,0,0,0,0,0,0,0,0,0,0,0,
648,-8.294,-5.059,-2.79,1.992,-10.96,-4.664,-1.703,6.148,-16.28,-10.02,-11.98,-15.79,-6.231,-5.03,-8.845,-2.023,0,0,0,0,0,0,0,0,0,0,0,0,0,0,0,0,
649,-22,-5.1,-2.468,2.36,-8,-2.44,0.5829,5.458,-13.93,-7.542,-7.114,-10.57,-2.125,-1.7,-6.978,0.0735,0,0,0,0,0,0,0,0,0,0,0,0,0,0,0,0,
650,-13.28,-0.1084,0.9569,3.949,-1.923,0.7826,5.478,11.27,-6.997,-1.969,0.462,0.1606,4.779,3.563,1.595,4.611,0,0,0,0,0,0,0,0,0,0,0,0,0,0,0,0,
651,0.4826,7.71,5.475,10.1,-1.244,2.247,11.59,20.83,-1.872,5.371,3.529,3.399,7.174,5.039,5.727,5.141,0,0,0,0,0,0,0,0,0,0,0,0,0,0,0,0,
652,2.584,11.62,7.055,14.51,-0.6387,3.328,15.31,24.28,-0.3988,8.57,2.422,-0.551,5.579,3.04,2.083,2.043,0,0,0,0,0,0,0,0,0,0,0,0,0,0,0,0,
653,2.776,12.83,5.762,12.51,3.836,4.408,13.49,21.73,-4.815,4.902,-2.436,-2.371,3.679,0.6449,-2.407,-0.8715,0,0,0,0,0,0,0,0,0,0,0,0,0,0,0,0,
654,1.214,10.92,2.727,7.543,-0.7528,-0.2064,5.878,15.48,-9.578,-0.0877,-9.998,-4.511,-1.179,-3.668,-7.092,-4.676,0,0,0,0,0,0,0,0,0,0,0,0,0,0,0,0,
655,-4.279,2.313,-5.122,-0.0166,-13.78,-8.087,-1.343,7.666,-6.075,-2.688,-9.394,-3.802,-1.403,-4.535,-5.163,-2.407,0,0,0,0,0,0,0,0,0,0,0,0,0,0,0,0,
656,-1.982,1.276,-7.401,-0.9373,-12.61,-4.427,4.523,7.97,1.165,0.0108,1.7,6.877,10.03,3.546,7.032,8.639,0,0,0,0,0,0,0,0,0,0,0,0,0,0,0,0,
657,4.605,11.49,-1.968,5.794,-6.771,0.7956,13.55,12.23,-1.665,5.216,3.81,9.507,12.33,6.237,8.324,9.114,0,0,0,0,0,0,0,0,0,0,0,0,0,0,0,0,
658,-5.546,7.738,-9.511,-0.1515,-19.7,-11.92,4.162,5.169,-15.84,3.227,-10.04,-6.908,-3.713,-3.272,-6.292,-4.437,0,0,0,0,0,0,0,0,0,0,0,0,0,0,0,0,
659,-21.53,-6.051,-19.25,-10.02,-24.24,-18.04,-5.042,-1.318,-20.25,0.2706,-15.86,-15.03,-9.717,-4.799,-10.11,-7.131,0,0,0,0,0,0,0,0,0,0,0,0,0,0,0,0,
660,-11.85,-1.127,-4.833,1.008,-0.1087,2.137,7.196,8.197,-3.855,5.621,-3.175,-2.157,2.317,4.713,-1.137,2.116,0,0,0,0,0,0,0,0,0,0,0,0,0,0,0,0,
661,9.081,10.36,7.987,10.51,10.63,14.11,13.49,11.72,8.052,4.169,3.631,5.377,6.268,2.259,-1.964,0.3291,0,0,0,0,0,0,0,0,0,0,0,0,0,0,0,0,
662,13.01,5.442,-5.733,-4.755,-7.957,3.203,-0.3641,-3.174,0.9091,-9.759,-4.378,-1.017,-0.6887,-9.369,-8.406,-7.526,0,0,0,0,0,0,0,0,0,0,0,0,0,0,0,0,
663,12.35,-1.702,-17.16,-18.07,-14.35,-0.9543,-7.418,-10.2,-1.675,-14.36,-4.421,-0.1356,1.508,-6.551,-2.57,-0.5945,0,0,0,0,0,0,0,0,0,0,0,0,0,0,0,0,
664,14.83,0.9146,-12.35,-12.85,-4.817,1.497,-4.125,-3.042,4.156,-6.799,5.336,8.914,10.62,4.238,9.006,12.89,0,0,0,0,0,0,0,0,0,0,0,0,0,0,0,0,
665,6.375,0.9455,-14.62,-9.891,-13.26,-10.19,-9.332,-3.662,-6.293,-6.652,3.548,8.091,10.52,2.983,11.09,14.28,0,0,0,0,0,0,0,0,0,0,0,0,0,0,0,0,
666,-8.697,-5.349,-26.28,-17.6,-30.6,-22.72,-17.06,-12.15,-24.23,-12.01,-2.886,2.966,5.595,-1.423,8.37,9.996,0,0,0,0,0,0,0,0,0,0,0,0,0,0,0,0,
667,-12.44,-5.447,-27.56,-20.93,-26.96,-17.73,-13.85,-13.4,-19.72,-9.33,6.113,9.5,9.248,3.726,11.61,11.04,0,0,0,0,0,0,0,0,0,0,0,0,0,0,0,0,
668,-5.549,2.602,-14.76,-13.97,-9.25,-5.529,-7.035,-8.809,-4.376,-5.884,12.85,13.17,11.45,3.914,10.07,6.564,0,0,0,0,0,0,0,0,0,0,0,0,0,0,0,0,
669,-7.949,1.456,-4.397,-9.874,-2.048,-3.417,-10.34,-10.67,-10.48,-12.43,-7.393,-6.087,-3.079,-10.92,-9.215,-10.75,0,0,0,0,0,0,0,0,0,0,0,0,0,0,0,0,
670,-20.27,-13.56,-8.04,-16.14,-8.425,-11.53,-21.2,-18.73,-25.9,-19.52,-28.99,-25.92,-16.75,-20.67,-24.77,-20.17,0,0,0,0,0,0,0,0,0,0,0,0,0,0,0,0,
671,-18.65,-19.75,-13.1,-20.57,-10.65,-14.7,-23.4,-18.52,-16.72,-15.76,-19.08,-18.96,-10.99,-12.17,-14.64,-9.378,0,0,0,0,0,0,0,0,0,0,0,0,0,0,0,0,
672,-5.333,-11.97,-9.489,-17.65,-4.24,-11.1,-17.1,-11.21,3.244,-11.03,-2.462,-8.098,-6.734,-6.74,-2.942,-2.106,0,0,0,0,0,0,0,0,0,0,0,0,0,0,0,0,
673,-6.723,-13.78,-11.38,-17.81,-6.744,-15.83,-18.12,-11.32,2.237,-17.33,-8.609,-16.52,-16.95,-16.14,-9.74,-9.659,0,0,0,0,0,0,0,0,0,0,0,0,0,0,0,0,T1
674,-20.22,-22.2,-19.76,-18.85,-17,-22.8,-21.1,-12.57,-4.987,-22.09,-14.87,-21,-18,-17.55,-11.95,-8.998,0,0,0,0,0,0,0,0,0,0,0,0,0,0,0,0,
675,-20.53,-15.7,-18.61,-14.24,-15.52,-18.05,-15.41,-8.052,-1.259,-15.7,-6.278,-11.03,-6.164,-5.978,-2.13,1.885,0,0,0,0,0,0,0,0,0,0,0,0,0,0,0,0,
676,-12.3,-7.691,-16.8,-15.7,-10.58,-16.35,-15.11,-11.76,-3.345,-12.23,-1.851,-6.793,-2.338,-2.896,0.7618,2.755,0,0,0,0,0,0,0,0,0,0,0,0,0,0,0,0,
677,-14.46,-11.97,-24.92,-24.55,-18.32,-23.54,-20.85,-20.8,-8.497,-12.44,1.077,-3.438,-1.497,-4.366,1.432,0.511,0,0,0,0,0,0,0,0,0,0,0,0,0,0,0,0,
678,-7.618,-8.092,-24.91,-23.06,-21.46,-18.18,-12.91,-15.95,-2.343,-4.915,11.41,10.21,8.058,3.215,7.579,6.367,0,0,0,0,0,0,0,0,0,0,0,0,0,0,0,0,
679,16.94,6.785,-12.32,-12.5,-7.255,-1.481,1.486,-3.325,-1.648,1.106,10.8,16.11,13.9,8.426,7.058,7.495,0,0,0,0,0,0,0,0,0,0,0,0,0,0,0,0,
680,23.63,12.35,-6.546,-7.155,1.265,6.02,5.452,1.655,-11.94,0.332,-1.081,9.499,11.8,6.015,2.187,2.616,0,0,0,0,0,0,0,0,0,0,0,0,0,0,0,0,
681,14.27,11.77,-6.528,-3.448,-4.524,7.332,6.727,4.215,-14.82,4.171,-4.434,7.529,15.21,7.948,3.956,5.546,0,0,0,0,0,0,0,0,0,0,0,0,0,0,0,0,
682,18.24,16.73,1.379,4.837,-0.234,14.01,11.67,9.952,-12.56,12.8,-3.679,9.437,23.37,14.51,6.402,12.03,0,0,0,0,0,0,0,0,0,0,0,0,0,0,0,0,
683,22.1,21.22,6.41,8.117,9.819,16.21,11.39,11.16,-16.33,16.21,-10.86,1.753,19.69,12.37,-0.5344,6.6,0,0,0,0,0,0,0,0,0,0,0,0,0,0,0,0,
684,8.87,13.56,-7.176,-2.277,-5.176,0.658,-0.3097,2.974,-25.82,6.482,-23.14,-17.01,-0.8201,-3.058,-15.98,-9.978,0,0,0,0,0,0,0,0,0,0,0,0,0,0,0,0,
685,-11.08,-6.044,-23.5,-15.04,-25.65,-16.87,-14.28,-6.189,-32.24,-7.796,-27.5,-28.68,-17.24,-12.59,-21.75,-16.54,0,0,0,0,0,0,0,0,0,0,0,0,0,0,0,0,
686,-20.47,-16.7,-20.08,-13.31,-15.45,-14.15,-14.45,-3.791,-21.52,-6.486,-15.05,-19.97,-14.83,-5.201,-10.01,-7.601,0,0,0,0,0,0,0,0,0,0,0,0,0,0,0,0,
687,-16.85,-12.57,-12.49,-8.538,-4,-9.65,-10.76,1.102,-6.86,-2.911,-7.994,-15.45,-15.88,-6.973,-9.87,-10.75,0,0,0,0,0,0,0,0,0,0,0,0,0,0,0,0,
688,-23.3,-18.02,-21.43,-19.2,-17.9,-22.9,-21.34,-7.453,-9.933,-14.7,-19.41,-26.78,-27.2,-21.57,-24.07,-24.37,0,0,0,0,0,0,0,0,0,0,0,0,0,0,0,0,
689,-34.43,-25.12,-26.98,-26.72,-21.85,-26.8,-27.04,-12.25,-9.266,-14.68,-15.48,-19.48,-18.19,-15.92,-14.86,-13.68,0,0,0,0,0,0,0,0,0,0,0,0,0,0,0,0,
690,-20.33,-10.27,-17.21,-17.9,-8.268,-13.47,-17.49,-4.122,3.49,-0.3211,4.139,2.934,2.528,-0.9198,4.782,5.181,0,0,0,0,0,0,0,0,0,0,0,0,0,0,0,0,
691,-3.115,0.3112,-15.72,-15.86,-9.605,-13.45,-17.26,-7.24,-1.236,-3.71,0.3886,1.742,1.7,-5.365,-1.12,-0.0494,0,0,0,0,0,0,0,0,0,0,0,0,0,0,0,0,
692,-6.26,-7.713,-22.41,-20.71,-16.41,-19.29,-20.88,-13.98,-14.84,-11.66,-14.1,-10.04,-6.274,-10.48,-13.16,-8.799,0,0,0,0,0,0,0,0,0,0,0,0,0,0,0,0,
693,-5.655,-7.124,-17.58,-13.85,-7.061,-9.491,-9.436,-2.98,-12.8,-6.654,-14.2,-11.12,-6.793,-6.49,-14.43,-9.656,0,0,0,0,0,0,0,0,0,0,0,0,0,0,0,0,
694,-2.972,-2.572,-12.01,-8.554,0.1963,-4.549,-2.321,5.387,-10.66,-7.065,-15.97,-16.29,-12.56,-9.675,-18.01,-16.11,0,0,0,0,0,0,0,0,0,0,0,0,0,0,0,0,
695,-18.23,-9.531,-18.72,-15.57,-9.925,-15.83,-10.52,-1.436,-17.48,-9.721,-20.67,-22.82,-15.97,-12.07,-18.77,-17.17,0,0,0,0,0,0,0,0,0,0,0,0,0,0,0,0,
696,-28.48,-12.64,-26.08,-19.91,-22.64,-23.12,-15.99,-8.037,-17.67,-4.479,-15.38,-18.9,-10.88,-6.706,-13.21,-9.898,0,0,0,0,0,0,0,0,0,0,0,0,0,0,0,0,
697,-15.39,-9.813,-25.82,-16.72,-22.63,-19.48,-12.3,-8.269,-12.18,-3.809,-11.84,-15.98,-10.51,-5.642,-13.3,-9.74,0,0,0,0,0,0,0,0,0,0,0,0,0,0,0,0,
698,-5.321,-10.66,-20.78,-12.19,-13.67,-12.34,-5.027,-1.49,-12.7,-5.422,-14.86,-17.74,-11.1,-7.125,-13.94,-10.94,0,0,0,0,0,0,0,0,0,0,0,0,0,0,0,0,
699,-9.744,-7.317,-12.66,-7.216,-5.125,-4.058,2.118,6.973,-12.98,-1.504,-10.51,-14.48,-4.862,-3.873,-6.675,-6.004,0,0,0,0,0,0,0,0,0,0,0,0,0,0,0,0,
700,-11.54,-1.071,-6.238,-4.979,-1.618,-1.099,1.947,2.853,-9.307,-2.386,-4.935,-10.9,-3.32,-3.189,-2.84,-5.324,0,0,0,0,0,0,0,0,0,0,0,0,0,0,0,0,
701,-16.79,-6.33,-10.57,-10.6,-8.88,-11.65,-9.039,-11.06,-17.29,-9.063,-12.95,-15.33,-10.6,-10.09,-7.995,-10.1,0,0,0,0,0,0,0,0,0,0,0,0,0,0,0,0,
702,-27.81,-14.73,-18.96,-16.55,-17.7,-20.9,-16.21,-13.96,-28.44,-7.413,-17.75,-15.02,-9.645,-11.94,-7.229,-7.559,0,0,0,0,0,0,0,0,0,0,0,0,0,0,0,0,
703,-18.81,-6.222,-13.31,-11.18,-10.98,-10.07,-5.457,-1.205,-17.36,3.022,-4.899,-1.064,3.94,-1.97,1.462,0.3442,0,0,0,0,0,0,0,0,0,0,0,0,0,0,0,0,
704,3.241,7.96,-2.78,-3.798,-2.897,2.998,6.993,5.374,-1.603,6.548,3.927,7.794,8.961,2.662,1.882,-1.014,0,0,0,0,0,0,0,0,0,0,0,0,0,0,0,0,
705,11.85,7.753,-4.452,-4.876,-5.361,2.288,6.386,0.0916,-1.489,2.687,1.22,6.031,3.081,-1.412,-1.515,-4.723,0,0,0,0,0,0,0,0,0,0,0,0,0,0,0,0,
706,15.76,7.426,-2.949,-1.23,0.4116,6.838,9.362,4.832,0.8165,7.028,1.627,8.385,5.84,3.809,2.5,2.257,0,0,0,0,0,0,0,0,0,0,0,0,0,0,0,0,
707,22.41,17.83,9.078,10.62,11.97,18.04,19.72,18.27,8.991,15.57,2,8.977,12.41,12.6,4.244,7.232,0,0,0,0,0,0,0,0,0,0,0,0,0,0,0,0,
708,19.69,20.8,12.21,15.11,12.05,16.36,19.15,19.62,11.94,13.92,0.6668,1.878,8.106,8.727,-0.1737,-0.8867,0,0,0,0,0,0,0,0,0,0,0,0,0,0,0,0,
709,7.976,11.32,3.432,8.899,5.876,5.05,7.599,11.29,10.36,6.823,1.271,-3.303,-2.562,-1.581,-5.99,-14.03,0,0,0,0,0,0,0,0,0,0,0,0,0,0,0,0,
710,-3.358,1.097,-6.469,-0.8984,-1.069,-4.377,-1.633,6.938,1.846,4.895,-3.772,-6.958,-9.405,-6.14,-11.12,-20.21,0,0,0,0,0,0,0,0,0,0,0,0,0,0,0,0,
711,-7.275,-2.188,-12.54,-7.393,-6.596,-7.363,-2.505,8.265,-9.392,8.346,-10.72,-8.662,-7.638,-2.536,-10.15,-15.55,0,0,0,0,0,0,0,0,0,0,0,0,0,0,0,0,
712,-5.036,1.363,-14.56,-8.666,-7.85,-6.074,-2.967,5.47,-15.99,6.335,-15.45,-9.449,-8.679,-2.761,-12.09,-15.81,0,0,0,0,0,0,0,0,0,0,0,0,0,0,0,0,
713,-10.04,-3.458,-18.18,-10.92,-10.3,-11,-14.25,-5.766,-20.36,-6.68,-21.64,-17.11,-21.1,-14.27,-21.49,-25.45,0,0,0,0,0,0,0,0,0,0,0,0,0,0,0,0,
714,-18.85,-16.5,-19.8,-12.14,-8.759,-15.21,-21.96,-10.33,-14.64,-11.33,-15.77,-16.48,-22.43,-16.7,-15.93,-20.8,0,0,0,0,0,0,0,0,0,0,0,0,0,0,0,0,
715,-8.288,-12.73,-10.49,-5.715,2.485,-5.341,-11.11,-0.1773,0.951,1.615,0.1063,-1.161,-7.976,-3.747,-0.5846,-7.71,0,0,0,0,0,0,0,0,0,0,0,0,0,0,0,0,
716,11.5,0.0194,-0.5171,1.641,6.846,2.289,-2.263,8.595,4.07,6.822,-1.586,-0.6572,-8.155,-1.778,-4.368,-12.77,0,0,0,0,0,0,0,0,0,0,0,0,0,0,0,0,
717,6.241,-5.117,-2.829,1.227,-3.349,-5.893,-9.561,4.89,-4.663,-4.603,-15.05,-17.39,-23.02,-14.68,-16.61,-24.34,0,0,0,0,0,0,0,0,0,0,0,0,0,0,0,0,
718,-15.06,-18.3,-9.365,-3.754,-8.39,-13.24,-17.55,-1.453,-3.712,-12.78,-15.04,-23.35,-30.03,-23.6,-17.73,-26.58,0,0,0,0,0,0,0,0,0,0,0,0,0,0,0,0,
719,-23.19,-24.11,-6.267,-3.616,0.5975,-10.66,-18.37,-1.101,1.495,-12.55,-9.294,-19.77,-30.8,-25.56,-16.8,-27.74,0,0,0,0,0,0,0,0,0,0,0,0,0,0,0,0,
720,-23.77,-26.25,-4.822,-3.042,-2.596,-12.31,-18.19,-3.188,-9.149,-10.79,-13.59,-22.05,-30.89,-23.49,-18.77,-27.89,0,0,0,0,0,0,0,0,0,0,0,0,0,0,0,0,
721,-29.54,-26.03,-25.53,-17.79,-27.64,-23.91,-21.36,-14.26,-25.72,-9.933,-20.57,-28.07,-31.5,-22.14,-20.02,-27.3,0,0,0,0,0,0,0,0,0,0,0,0,0,0,0,0,
722,-35.8,-28.27,-42.5,-32.61,-32.28,-29.07,-26.72,-20.32,-24.59,-14.77,-22.77,-33.05,-39.55,-30.35,-23.47,-34.29,0,0,0,0,0,0,0,0,0,0,0,0,0,0,0,0,
723,-34.3,-35.35,-20.93,-21.36,-2.244,-17.62,-26.17,-14.32,-11.14,-21.63,-21.78,-33.21,-46.24,-37.75,-23.58,-37.53,0,0,0,0,0,0,0,0,0,0,0,0,0,0,0,0,
724,-21.5,-34.66,10.14,-2.533,21.64,-1.548,-16.91,-7.459,2.035,-19.63,-11.27,-22.09,-37.54,-30.42,-11.35,-24.86,0,0,0,0,0,0,0,0,0,0,0,0,0,0,0,0,
725,-5.038,-24.77,20.9,2.731,34.12,11.34,-6.712,-5.577,20.8,-13.64,6.903,-4.776,-23.13,-20.65,3.105,-10.65,0,0,0,0,0,0,0,0,0,0,0,0,0,0,0,0,
726,6.217,-16.11,29.42,8.447,53.46,24.41,1.794,-4.113,39.38,-11.39,15.08,6.997,-13.15,-16.99,8.242,-4.4,0,0,0,0,0,0,0,0,0,0,0,0,0,0,0,0,
727,13.64,-7.284,37.2,16.11,61.54,33.65,9.616,0.5993,45.52,-6.742,16.98,15.7,-1.642,-8.314,12.97,3.786,0,0,0,0,0,0,0,0,0,0,0,0,0,0,0,0,
728,24.08,3.939,33.29,14.16,55.95,37.04,12.69,4.156,46.38,-0.1734,25.11,26,8.56,1.991,20.25,11.37,0,0,0,0,0,0,0,0,0,0,0,0,0,0,0,0,
729,35.86,10.02,28.24,8.63,54.09,37.14,9.557,-0.0089,43.15,-1.933,24.63,27.93,8.888,1.865,17.88,8.378,0,0,0,0,0,0,0,0,0,0,0,0,0,0,0,0,
730,34.02,9.052,22.72,3.995,47.94,32.69,6.933,-4.358,33.71,-6.01,16.85,24.05,10.66,3.333,15.7,9.213,0,0,0,0,0,0,0,0,0,0,0,0,0,0,0,0,
731,32.22,13.55,19.1,3.397,43.24,33.61,14.66,3.488,34.9,3.493,28.63,34.17,27.6,19.6,31.96,28.52,0,0,0,0,0,0,0,0,0,0,0,0,0,0,0,0,
732,53.84,28.8,26.49,9.892,48.77,40.73,25.87,12,42.77,17.51,47.29,49.72,43.99,33.26,48.21,45.16,0,0,0,0,0,0,0,0,0,0,0,0,0,0,0,0,
733,59.19,33.57,22.33,5.927,37.23,30.35,18.78,2.127,31.6,14.99,42.65,44.88,39.95,27.5,41.86,38.9,0,0,0,0,0,0,0,0,0,0,0,0,0,0,0,0,
734,26.32,18.33,0.4304,-10.16,14.92,10.59,1.434,-10.69,13.51,5.888,27.46,29.85,28.93,17.8,28.52,27.52,0,0,0,0,0,0,0,0,0,0,0,0,0,0,0,0,
735,10.68,10.07,-2.596,-11.49,20.62,13.67,2.891,-4.017,18.08,8.082,26.01,29.81,29.47,19.92,29.06,28.77,0,0,0,0,0,0,0,0,0,0,0,0,0,0,0,0,
736,25.94,18.96,14.15,-0.1762,40.7,28.87,16.39,7.389,35.88,9.906,35.08,39.66,33.18,23.59,36.36,32.26,0,0,0,0,0,0,0,0,0,0,0,0,0,0,0,0,
737,32.55,23.24,21.73,4.411,47.24,33.04,19.46,8.526,40.16,3.853,35.63,38.94,29.75,20.49,32.55,27.14,0,0,0,0,0,0,0,0,0,0,0,0,0,0,0,0,
738,25.32,17.42,20.54,4.966,44.18,28.55,14.47,6.283,27.82,1.548,19.33,23.97,22.76,16.46,17.38,17.15,0,0,0,0,0,0,0,0,0,0,0,0,0,0,0,0,
739,15.26,10.86,14.13,0.6183,31.61,17,7.66,0.066,15.38,0.5687,4.48,9.265,14.7,10.79,6.203,8.086,0,0,0,0,0,0,0,0,0,0,0,0,0,0,0,0,
740,3.126,3.614,0.1022,-11.06,16.82,4.914,0.0947,-8.183,12.57,-5.137,5.406,4.645,7.456,3.192,3.204,2.022,0,0,0,0,0,0,0,0,0,0,0,0,0,0,0,0,
741,-4.145,-1.01,-5.931,-14.82,17.98,5.256,-1.363,-8.009,13.94,-5.538,9.887,5.349,6.239,4.285,1.673,-0.1606,0,0,0,0,0,0,0,0,0,0,0,0,0,0,0,0,
742,0.4583,1.643,-0.9317,-10.11,23.12,8.418,1.213,-3.936,12.66,-0.5143,8.8,4.093,8.381,10.72,-0.5126,-0.6251,0,0,0,0,0,0,0,0,0,0,0,0,0,0,0,0,
743,3.991,2.179,-4.565,-14.95,13.84,0.0543,-3.511,-5.577,4.581,-3.229,1.415,-4.04,4.947,7.577,-6.849,-5.182,0,0,0,0,0,0,0,0,0,0,0,0,0,0,0,0,
744,-9.216,-4.58,-18.22,-27.29,-0.5359,-12.58,-12.73,-12.65,-9.756,-10.26,-12.48,-15.17,-2.252,-0.075,-16.06,-11.75,0,0,0,0,0,0,0,0,0,0,0,0,0,0,0,0,
745,-21.1,-7.99,-26.74,-32.3,-10.34,-18.56,-15.13,-19.38,-19.85,-10.43,-19.45,-16.06,-3.162,-1.238,-16.01,-10.18,0,0,0,0,0,0,0,0,0,0,0,0,0,0,0,0,
746,-14.41,-4.236,-28.67,-31.19,-16.99,-17.71,-10.98,-20.02,-18.59,-7.495,-8.927,-4.558,5.225,2.456,-3.714,0.9296,0,0,0,0,0,0,0,0,0,0,0,0,0,0,0,0,
747,-0.9003,2.91,-26.82,-27.71,-16.9,-11.86,-3.472,-14.03,-10.51,-3.649,7.175,9.755,18.61,11.04,9.442,12.7,0,0,0,0,0,0,0,0,0,0,0,0,0,0,0,0,
748,14.13,14.16,-18.3,-18.97,-8.323,-2.844,6.12,-4.761,-5.285,4.908,10.96,17.97,27.88,19.45,11.64,16.68,0,0,0,0,0,0,0,0,0,0,0,0,0,0,0,0,
749,23.3,22.98,-8.69,-11.6,2.196,4.47,10.48,0.6541,-3.265,11.15,4.208,17.03,27.2,19.83,6.223,14.55,0,0,0,0,0,0,0,0,0,0,0,0,0,0,0,0,
750,20.14,23.41,-2.721,-8.772,11.48,8.976,10.18,-0.8652,9.86,12.01,7.377,16.56,24.48,20.44,8.243,15.78,0,0,0,0,0,0,0,0,0,0,0,0,0,0,0,0,
751,20.63,22.23,4.844,-3.084,19.92,13.28,12.37,0.6512,28.33,14.52,19.79,20.98,25.37,23.21,14.71,18.71,0,0,0,0,0,0,0,0,0,0,0,0,0,0,0,0,
752,22.77,20.27,11.01,0.427,27.02,15.97,11.85,6.145,30.43,16.06,21.29,20.28,24.73,19.27,12.99,15.99,0,0,0,0,0,0,0,0,0,0,0,0,0,0,0,0,
753,15.67,14.19,9.22,-4.044,30.41,13.96,5.37,2.318,25.34,10.89,15.91,14.63,21.27,14.09,7.873,11.1,0,0,0,0,0,0,0,0,0,0,0,0,0,0,0,0,
754,9.864,7.963,2.592,-9.433,23.12,7.291,0.206,-9.005,20.63,2.142,10.64,9.521,16.48,12.48,3.522,7.671,0,0,0,0,0,0,0,0,0,0,0,0,0,0,0,0,
755,6.972,3.962,-3.218,-12.42,11.98,3.55,0.5645,-10.6,6.228,-2.922,1.259,6.586,14.16,11.61,1.633,8.389,0,0,0,0,0,0,0,0,0,0,0,0,0,0,0,0,
756,7.317,6.284,0.8634,-8.047,18.37,12.64,9.094,2.16,5.466,2.951,6.963,16.12,21.9,16.57,15.96,19.78,0,0,0,0,0,0,0,0,0,0,0,0,0,0,0,0,
757,20.29,19.35,17.78,7.521,38.25,31.19,25.83,15.59,36.35,19.13,42.49,43.21,41.01,32.23,50.96,44.13,0,0,0,0,0,0,0,0,0,0,0,0,0,0,0,0,
758,44.98,39.86,37.7,25.7,57.17,53.51,46.99,26.87,73.5,37.57,89.28,79.54,68.15,55.4,93.4,77.44,0,0,0,0,0,0,0,0,0,0,0,0,0,0,0,0,
759,76.96,63.61,60.17,44.9,82.05,79.59,68.44,44.84,100.9,50.65,125.6,112,92.1,72.73,123.2,101.8,0,0,0,0,0,0,0,0,0,0,0,0,0,0,0,0,
760,101,79.69,79.16,60.57,97.77,92.52,76.85,54.26,108.4,52.73,132.5,119.8,95.06,71.59,121.2,98.34,0,0,0,0,0,0,0,0,0,0,0,0,0,0,0,0,
761,96.12,74.05,69.08,53.93,76.08,75.18,61.94,41.2,81.26,44.89,101.8,94.6,77.22,58.91,88.77,75.48,0,0,0,0,0,0,0,0,0,0,0,0,0,0,0,0,
762,67.87,52.6,37.43,30.71,41.02,44.22,35.88,22.84,42.76,31.07,56.99,57.78,52.63,42.88,47.79,49.14,0,0,0,0,0,0,0,0,0,0,0,0,0,0,0,0,
763,38.22,31.17,18.03,12.52,23.08,21.64,15.06,7.258,19.27,13.56,22.41,30.54,30.01,23.85,17.1,24.67,0,0,0,0,0,0,0,0,0,0,0,0,0,0,0,0,
764,17.15,15.65,10.98,2.723,11.35,7.847,4.509,-4.715,1.446,2.22,-0.6823,13.19,16.72,11.98,1.308,9.615,0,0,0,0,0,0,0,0,0,0,0,0,0,0,0,0,
765,4.95,9.109,14.28,6.828,10.88,5.723,5.494,-1.541,-4.296,5.609,-8.323,7.133,17.62,14.22,-0.0524,9.155,0,0,0,0,0,0,0,0,0,0,0,0,0,0,0,0,
766,9.743,15.49,41.07,25.95,34.81,21.27,15.38,6.927,16.42,16.17,5.679,19.47,28.87,23.35,11.67,19.08,0,0,0,0,0,0,0,0,0,0,0,0,0,0,0,0,
767,31.87,27.89,69.89,42.38,55.87,40.06,26.32,10,36.34,21.78,19.65,33.43,35.51,27.01,19.39,24.26,0,0,0,0,0,0,0,0,0,0,0,0,0,0,0,0,
768,44.01,30.91,87.62,61.61,64.58,50.12,35.09,23.94,37.25,21.45,13.29,27.19,26.56,18.89,9.637,14.61,0,0,0,0,0,0,0,0,0,0,0,0,0,0,0,0,
769,38.48,25.51,123.8,98.81,85.2,62.23,45.33,47.44,40.41,23.07,7.112,18.33,18.79,12.56,3.712,8.402,0,0,0,0,0,0,0,0,0,0,0,0,0,0,0,0,
770,38.94,27.21,169.8,132.9,103.5,76.31,56.63,60.17,45.65,28.25,15.52,24.82,26.77,18.85,14.58,17.92,0,0,0,0,0,0,0,0,0,0,0,0,0,0,0,0,
771,46.27,35.89,193,150.9,101.3,82.48,66.2,66.99,40.5,32.27,22.72,32.34,37.07,26.8,24.13,27.94,0,0,0,0,0,0,0,0,0,0,0,0,0,0,0,0,
772,49.96,42.55,209.8,169,105,89.22,74.81,80.05,38.81,36.28,26.84,35.21,41.02,30.42,26,30.71,0,0,0,0,0,0,0,0,0,0,0,0,0,0,0,0,
773,49.67,44.9,229,182.8,113,93.8,77.28,89.13,36.7,39.89,26.65,32.85,36.67,28.91,20.38,23.65,0,0,0,0,0,0,0,0,0,0,0,0,0,0,0,0,
774,39.11,39.58,227.3,181.8,98.19,81.69,71.44,88.51,19.35,40.71,11.76,18.58,22.17,20.87,6.427,8.374,0,0,0,0,0,0,0,0,0,0,0,0,0,0,0,0,
775,23.08,31.37,212.4,176.7,79.25,67.17,67.56,88.5,6.324,42,-0.8987,6.087,12.31,16.54,-0.9412,2.589,0,0,0,0,0,0,0,0,0,0,0,0,0,0,0,0,
776,12.16,26.7,199.1,168.2,73.5,61.1,63.72,85.61,3.24,38.8,-3.743,0.9892,10.11,15.39,-2.031,4.283,0,0,0,0,0,0,0,0,0,0,0,0,0,0,0,0,
777,2.126,18.15,182.3,155,63.77,52.92,54.61,75.41,-3.268,30.15,-9.61,-4.42,6.065,10.89,-4.632,2.449,0,0,0,0,0,0,0,0,0,0,0,0,0,0,0,0,
778,2.033,13.44,172.8,151.4,58.02,51.85,55.07,75.17,6.437,32.4,-1.375,5.372,10.64,13.34,3.973,7.233,0,0,0,0,0,0,0,0,0,0,0,0,0,0,0,0,
779,20.11,23.19,170.6,152.4,65.74,58.43,61.42,83.59,28.35,39.27,16.37,21.26,16.25,14.34,9.872,8.438,0,0,0,0,0,0,0,0,0,0,0,0,0,0,0,0,
780,23.67,21.95,149.2,136.1,56.5,44.69,48.83,76.1,19.71,29.23,5.04,9.174,1.089,-0.1799,-6.58,-6.592,0,0,0,0,0,0,0,0,0,0,0,0,0,0,0,0,
781,0.6495,2.847,114.4,108.5,28.13,19.59,28.37,56.3,-2.394,15.84,-12.46,-6.721,-10.13,-5.391,-12.89,-9.733,0,0,0,0,0,0,0,0,0,0,0,0,0,0,0,0,
782,-5.137,-0.3588,94.65,89.2,19.88,15.08,23.54,43.1,3.049,15.55,-3.926,2.971,1.874,5.975,0.8793,2.563,0,0,0,0,0,0,0,0,0,0,0,0,0,0,0,0,
783,10.48,9.965,87.69,80.51,31.71,21.37,24.85,37.91,13.84,15.53,0.2269,9.473,8.364,5.813,1.815,1.855,0,0,0,0,0,0,0,0,0,0,0,0,0,0,0,0,
784,10.71,10.52,85.37,81.59,34.72,24.41,27.02,42.88,13.06,13.93,-0.865,7.617,6.349,1.514,0.6595,0.5202,0,0,0,0,0,0,0,0,0,0,0,0,0,0,0,0,
785,8.354,12.87,87.42,85.76,30.1,30.41,33.96,51.84,16,15.02,13.53,15.89,12.59,8.304,11.61,10.87,0,0,0,0,0,0,0,0,0,0,0,0,0,0,0,0,
786,14.95,15.82,76.48,72.34,25.83,26.95,28.38,40.2,10.33,6.531,12.58,13.27,9.616,5.181,7.348,7.824,0,0,0,0,0,0,0,0,0,0,0,0,0,0,0,0,
787,5.254,3.335,51.81,49.05,16.14,9.389,11.09,17.95,-5.389,-2.64,-6.632,-4.409,-5.38,-5.987,-7.472,-5.271,0,0,0,0,0,0,0,0,0,0,0,0,0,0,0,0,
788,-11.57,-6.924,37.15,41.38,0.9773,-3.117,4.339,18.46,-12.15,5.078,-14.01,-15.48,-12.71,-5.724,-14.24,-9.933,0,0,0,0,0,0,0,0,0,0,0,0,0,0,0,0,
789,-22.27,-8.855,24.39,33.16,-19.22,-15.29,-1.928,24.68,-26.76,10.51,-27.48,-30.8,-21.8,-9.36,-29.08,-20.05,0,0,0,0,0,0,0,0,0,0,0,0,0,0,0,0,
790,-38.89,-20.83,-1.526,7.8,-39.86,-33.91,-19.06,8.541,-50.93,-0.1865,-48.89,-48.82,-35.37,-21.98,-44.23,-33.5,0,0,0,0,0,0,0,0,0,0,0,0,0,0,0,0,
791,-47.91,-31.56,-21.03,-11.05,-48.99,-40.33,-28.2,-9.216,-54.1,-8.202,-44.5,-43.71,-32.31,-20.61,-35.83,-26.94,0,0,0,0,0,0,0,0,0,0,0,0,0,0,0,0,
792,-38.73,-26.97,-24.93,-15.1,-49.43,-34.3,-24.68,-11.43,-44.39,-5.505,-26.57,-26.22,-18.13,-7.149,-18.43,-8.358,0,0,0,0,0,0,0,0,0,0,0,0,0,0,0,0,
793,-28.28,-18.79,-23.86,-15.5,-45.24,-28.22,-18.39,-9.322,-35.73,-0.2691,-15.93,-14.51,-9.709,-0.1655,-7.354,1.759,0,0,0,0,0,0,0,0,0,0,0,0,0,0,0,0,
794,-22.37,-12.54,-22.31,-13.63,-35.41,-22.44,-11.68,-8.561,-18.27,1.997,-3.052,-3.545,-4.885,-1.233,1.555,2.785,0,0,0,0,0,0,0,0,0,0,0,0,0,0,0,0,
795,-14.7,-7.755,-25.48,-15.42,-32.17,-20.92,-8.574,-8.357,-4.231,1.132,9.758,4.384,-2.325,-2.3,7.654,1.52,0,0,0,0,0,0,0,0,0,0,0,0,0,0,0,0,
796,-2.153,-6.273,-27.92,-18.71,-32.02,-20.36,-7.421,-7.325,-0.4418,2.068,16.61,5.807,-5.789,-2.433,8.579,-1.971,0,0,0,0,0,0,0,0,0,0,0,0,0,0,0,0,
797,4.888,-8.054,-22.61,-16.12,-21.37,-16.19,-6.635,-6.977,5.86,-1.228,16.04,2.857,-14.96,-10.07,1.988,-11.26,0,0,0,0,0,0,0,0,0,0,0,0,0,0,0,0,
798,-3.038,-15.41,-22.75,-18.3,-17.7,-19.39,-11.49,-11.04,5.311,-14.47,4.647,-4.062,-22.12,-20.4,-6.969,-17.47,0,0,0,0,0,0,0,0,0,0,0,0,0,0,0,0,
799,-9.341,-20.58,-27.82,-24.13,-26.96,-23.6,-13.57,-13.86,-3.72,-20.3,-0.5175,-4.945,-16.41,-16.85,-4.24,-9.466,0,0,0,0,0,0,0,0,0,0,0,0,0,0,0,0,
800,-3.756,-12.17,-22.98,-20.12,-22.5,-12.05,-4.355,-10.24,2.047,-10.81,10.7,6.128,-0.4724,-3.751,7.796,4.219,0,0,0,0,0,0,0,0,0,0,0,0,0,0,0,0,
801,6.334,4.704,-12.21,-10.93,-3.699,5.463,9.227,-0.2364,18.33,0.471,16.81,17.52,14.01,5.841,15.78,12.6,0,0,0,0,0,0,0,0,0,0,0,0,0,0,0,0,
802,17.46,18.99,-7.777,-7.179,1.851,10.09,17.01,8.928,16.78,6.767,6.934,17.05,18.01,9.412,13.5,11.99,0,0,0,0,0,0,0,0,0,0,0,0,0,0,0,0,
803,14.28,19.84,-20,-17.06,-13.53,-3.061,8.062,1.02,-2.909,6.303,-7.053,3.88,8.047,5.929,1.083,1.613,0,0,0,0,0,0,0,0,0,0,0,0,0,0,0,0,
804,-7.695,7.108,-41.98,-35.67,-29.48,-20.03,-9.934,-14.01,-16.57,2.767,-15.4,-9.241,-2.9,2.686,-9.77,-6.859,0,0,0,0,0,0,0,0,0,0,0,0,0,0,0,0,
805,-20.17,-1.469,-50.46,-42.29,-34.68,-26.4,-16.79,-15.13,-21.05,3.948,-17.54,-12.92,-5.505,3.972,-11.75,-8.601,0,0,0,0,0,0,0,0,0,0,0,0,0,0,0,0,
806,-18.76,-5.037,-53.9,-42.4,-46.03,-34.06,-21.59,-17.34,-30.9,2.243,-21.4,-16.78,-12.19,-2.337,-17.87,-15.88,0,0,0,0,0,0,0,0,0,0,0,0,0,0,0,0,
807,-26.33,-15.27,-68.81,-52.16,-63.19,-46.68,-32.07,-26.64,-40.36,-5.51,-32.9,-26.65,-21.88,-14.54,-32.54,-27.12,0,0,0,0,0,0,0,0,0,0,0,0,0,0,0,0,
808,-34.91,-19.47,-72.05,-53.67,-59.13,-41.97,-26.94,-21.03,-35.05,-5.009,-41.85,-32.14,-19.78,-18.9,-40.05,-30.51,0,0,0,0,0,0,0,0,0,0,0,0,0,0,0,0,
809,-23.5,-8.277,-53.48,-36.69,-36.2,-21.79,-7.508,-5.462,-17.1,3.6,-31.99,-25.5,-12.22,-17.92,-31.62,-26.86,0,0,0,0,0,0,0,0,0,0,0,0,0,0,0,0,
810,-2.844,2.974,-35.81,-22.2,-17.13,-6.683,2.7,1.027,2.796,6.213,-8.655,-12.38,-11.08,-19.16,-16.61,-23.1,0,0,0,0,0,0,0,0,0,0,0,0,0,0,0,0,
811,6.743,3.715,-28.96,-21.1,-10.12,-2.387,-0.6086,-3.065,9.423,-1.548,2.916,-7.098,-16.07,-24.64,-8.922,-24.35,0,0,0,0,0,0,0,0,0,0,0,0,0,0,0,0,
812,2.053,-5.094,-33.72,-28.57,-19.2,-10.7,-11.53,-15.01,-0.4304,-14.21,-0.7933,-11.79,-22.47,-29.03,-7.811,-26.03,0,0,0,0,0,0,0,0,0,0,0,0,0,0,0,0,
813,-7.948,-15.03,-44.57,-36.65,-30.55,-21.31,-20.64,-24.75,-6.594,-20.95,-0.6527,-11.64,-20.8,-20.71,-3.55,-18.01,0,0,0,0,0,0,0,0,0,0,0,0,0,0,0,0,
814,-10.18,-15.3,-47.05,-39.06,-27.41,-21.05,-20.39,-23.98,-4.721,-18.32,0.7102,-7.053,-11.96,-7.164,-1.17,-7.718,0,0,0,0,0,0,0,0,0,0,0,0,0,0,0,0,
815,-7.209,-11.14,-47.41,-41.08,-29.59,-22.44,-18.61,-21.67,-8.755,-13.88,-6.446,-8.766,-7.355,-4.157,-6.128,-6.022,0,0,0,0,0,0,0,0,0,0,0,0,0,0,0,0,
816,-7.697,-7.165,-49.14,-40.09,-36.13,-22.96,-13.37,-16.58,-9.571,-7.394,-9.103,-7.597,-3.725,-5.47,-8.272,-7.474,0,0,0,0,0,0,0,0,0,0,0,0,0,0,0,0,
817,-5.633,1.737,-36.11,-27.45,-20.77,-7.742,-0.5557,-5.47,-2.684,-2.423,-7.594,-3.123,-3.466,-11.1,-10.21,-14.7,0,0,0,0,0,0,0,0,0,0,0,0,0,0,0,0,
818,-10.1,0.6303,-27.6,-23.17,-16.98,-6.716,-4.186,-9.88,-10.63,-12.12,-16.57,-12.85,-18.53,-27.63,-20.98,-29.14,0,0,0,0,0,0,0,0,0,0,0,0,0,0,0,0,
819,-26.08,-18.51,-49.28,-41.14,-48.45,-33.85,-26.87,-28.02,-30.29,-24.31,-25.79,-27.63,-30.07,-33.79,-27.19,-29.28,0,0,0,0,0,0,0,0,0,0,0,0,0,0,0,0,
820,-29.26,-29.94,-71.69,-57.42,-65.07,-49.36,-38.04,-33.17,-38.38,-22.63,-28.04,-30.9,-22.66,-21.31,-22.89,-14.07,0,0,0,0,0,0,0,0,0,0,0,0,0,0,0,0,
821,-25.14,-27.17,-71.57,-59.81,-55.97,-45.74,-36.83,-34.75,-37.72,-19.91,-32.75,-29.91,-16.27,-12.33,-20.46,-6.627,0,0,0,0,0,0,0,0,0,0,0,0,0,0,0,0,
822,-27.76,-26.05,-67.04,-57.25,-54.85,-44.66,-36.47,-42.68,-36.49,-19.92,-34.57,-27.4,-16.18,-10.18,-20.83,-8.302,0,0,0,0,0,0,0,0,0,0,0,0,0,0,0,0,
823,-21.88,-25.01,-66.73,-52.29,-56.28,-43.16,-32.96,-39.94,-34.97,-15.49,-31.67,-22.48,-13.79,-9.178,-20.01,-11.22,0,0,0,0,0,0,0,0,0,0,0,0,0,0,0,0,
824,-13.83,-19.78,-61.81,-44.4,-47.54,-34.66,-24.38,-27.73,-31.22,-11.63,-25.6,-14.96,-10.89,-9.188,-12.19,-9.254,0,0,0,0,0,0,0,0,0,0,0,0,0,0,0,0,
825,-5.904,-9.288,-45.54,-29.25,-29.91,-18.41,-10.07,-11.9,-14.5,-6.028,-6.357,1.301,-4.582,-3.621,3.841,1.548,0,0,0,0,0,0,0,0,0,0,0,0,0,0,0,0,
826,9.653,0.362,-31.09,-17.64,-14.69,-7.133,-2.615,-1.04,1.814,-5.052,5.412,6.999,-4.488,-4.637,5.647,1.864,0,0,0,0,0,0,0,0,0,0,0,0,0,0,0,0,
827,4.993,-8.726,-40.65,-30.01,-22.44,-17.64,-15.92,-13.54,-6.035,-19.66,-8.778,-9.469,-17.75,-18.44,-7.301,-9.365,0,0,0,0,0,0,0,0,0,0,0,0,0,0,0,0,
828,-14.31,-23.09,-55.5,-44.54,-34.19,-27.94,-25.01,-27.42,-16.59,-26.78,-14.97,-14.8,-20.66,-18.36,-5.79,-4.307,0,0,0,0,0,0,0,0,0,0,0,0,0,0,0,0,
829,-13.33,-18.67,-48.6,-36.18,-26.52,-20.79,-15.67,-19.24,-10.82,-15.32,-3.23,-4.385,-10.65,-5.108,3.865,7.336,0,0,0,0,0,0,0,0,0,0,0,0,0,0,0,0,
830,-6.904,-11.02,-36.36,-24.27,-22.11,-15.1,-9.267,-10.64,-7.814,-7.312,-2.449,-5.08,-8.572,-2.101,1.792,4.567,0,0,0,0,0,0,0,0,0,0,0,0,0,0,0,0,
831,-9.524,-11.97,-33.8,-21.9,-27.38,-15.05,-10.01,-11.96,-15.45,-8.26,-11.7,-12.75,-13.53,-6.509,-6.512,-2.981,0,0,0,0,0,0,0,0,0,0,0,0,0,0,0,0,
832,-14.77,-15.61,-38.72,-27,-29.37,-18.19,-15.39,-19.31,-24.09,-12.89,-14.68,-15.55,-17.68,-9.864,-11.92,-7.561,0,0,0,0,0,0,0,0,0,0,0,0,0,0,0,0,
833,-19.25,-19.06,-44.3,-34.7,-27.67,-20.45,-19.22,-24.65,-20.7,-12.9,-3.036,-5.881,-9.779,-3.682,-2.225,-1.248,0,0,0,0,0,0,0,0,0,0,0,0,0,0,0,0,
834,-6.632,-8.395,-34.57,-28.37,-17.46,-7.536,-5.934,-11.54,-5.085,-0.5104,14.9,13.95,9.755,10.97,14.08,12.17,0,0,0,0,0,0,0,0,0,0,0,0,0,0,0,0,
835,7.847,6.45,-25.54,-21.16,-14.49,-1.559,0.6242,-3.522,-3.47,2.611,11.5,13.67,10.81,8.696,8.07,8.043,0,0,0,0,0,0,0,0,0,0,0,0,0,0,0,0,
836,-5.321,-2.21,-39.98,-34.05,-28.59,-17.58,-16.63,-18.72,-12.8,-10.98,-2.695,-2.658,-3.638,-5.033,-3.725,-1.381,0,0,0,0,0,0,0,0,0,0,0,0,0,0,0,0,
837,-16.22,-13.38,-47.8,-40.24,-27.12,-19.86,-21.15,-20.59,-4.514,-13.99,1.093,-1.599,-3.845,-3.809,1.327,3.952,0,0,0,0,0,0,0,0,0,0,0,0,0,0,0,0,
838,-7.098,-6.378,-35.33,-28.2,-12.87,-8.178,-8.919,-5.634,5.031,-8.568,3.483,2.309,-2.331,-2.53,-0.1871,1.435,0,0,0,0,0,0,0,0,0,0,0,0,0,0,0,0,
839,-7.518,-2.486,-29.35,-22.24,-13.17,-8.273,-7.503,-2.72,0.2761,-11.35,-5.227,-5.595,-9.836,-11.21,-8.805,-10.3,0,0,0,0,0,0,0,0,0,0,0,0,0,0,0,0,
840,-11.04,-3.785,-27.76,-20.82,-9.812,-6.112,-8.241,-4.084,2.327,-11.53,-4.234,-6.716,-9.716,-10.6,-5.629,-10.02,0,0,0,0,0,0,0,0,0,0,0,0,0,0,0,0,
841,-2.885,-0.607,-24.06,-17.88,-1.15,-1.156,-4.923,-2.141,8.262,-5.008,-1.149,-5.345,-7.113,-4.658,-3.996,-7.456,0,0,0,0,0,0,0,0,0,0,0,0,0,0,0,0,
842,-3.294,-1.367,-28.87,-21.44,-9.967,-9.378,-7.78,-4.459,4.459,-1.375,-3.36,-8.67,-9.848,-5.755,-7.905,-9.16,0,0,0,0,0,0,0,0,0,0,0,0,0,0,0,0,
843,-8.276,-3.834,-33.97,-25.2,-19.67,-16.6,-11.4,-6.646,-0.9105,-2.836,-0.7228,-6.432,-9.487,-6.965,-6.068,-5.903,0,0,0,0,0,0,0,0,0,0,0,0,0,0,0,0,
844,-3.203,-3.966,-36.63,-29.23,-20.02,-17.59,-14.82,-9.187,-6.944,-7.722,0.3042,-3.251,-5.763,-2.829,-2.512,-0.2536,0,0,0,0,0,0,0,0,0,0,0,0,0,0,0,0,
845,-1.759,-5.037,-43.48,-36.87,-25.83,-20.68,-18.65,-13.23,-12.76,-7.637,-1.892,-1.155,1.156,4.826,2.438,5.176,0,0,0,0,0,0,0,0,0,0,0,0,0,0,0,0,
846,-2.932,-1.646,-41.16,-32.13,-28.47,-17.98,-14.22,-11.24,-12.54,-1.054,-1.118,4.29,6.931,7.729,6.682,6.904,0,0,0,0,0,0,0,0,0,0,0,0,0,0,0,0,
847,-0.3701,1.712,-30.48,-18.78,-23.42,-12.52,-8.278,-7.258,-13.55,-0.9132,-2.009,4.501,2.273,1.854,3.111,2.456,0,0,0,0,0,0,0,0,0,0,0,0,0,0,0,0,
848,-2.493,0.6623,-27.04,-14.89,-22.35,-11.76,-5.326,-3.183,-13.26,-1.796,-2.904,0.2723,-0.948,0.1909,-0.7656,2.416,0,0,0,0,0,0,0,0,0,0,0,0,0,0,0,0,
849,-2.358,5.876,-26.03,-14.21,-20.92,-9.731,-0.1816,5.852,-8.713,4.892,-8.493,-5.85,0.7464,1.735,-7.205,2.15,0,0,0,0,0,0,0,0,0,0,0,0,0,0,0,0,
850,-3.947,7.653,-28.04,-15.85,-19.15,-11.42,-3.134,6.894,-13.27,3.756,-22.18,-17.46,-7.05,-4.386,-18.76,-6.13,0,0,0,0,0,0,0,0,0,0,0,0,0,0,0,0,
