%OpenBCI Raw EXG Data
%Number of channels = 16
%Sample Rate = 125 Hz
%Board = OpenBCI_GUI$BoardCytonSerialDaisy
Sample Index,EXG Channel 0,EXG Channel 1,EXG Channel 2,EXG Channel 3,EXG Channel 4,EXG Channel 5,EXG Channel 6,EXG Channel 7,EXG Channel 8,EXG Channel 9,EXG Channel 10,EXG Channel 11,EXG Channel 12,EXG Channel 13,EXG Channel 14,EXG Channel 15,Accel Channel 0,Accel Channel 1,Accel Channel 2,Other,Other,Other,Other,Other,Other,Other,Analog Channel 0,Analog Channel 1,Analog Channel 2,Timestamp,Other,Timestamp (Formatted),Annotations
1,0,-0,-0,-0,-0,0,-0,-0,-0,-0,-0,-0,-0,-0,-0,-0,0,0,0,0,0,0,0,0,0,0,0,0,0,0,0,0,T0
2,-7.824,-1.275,-0.289,-6.155,-8.055,-7.71,-5.394,-4.431,-2.757,14.11,1.329,-0.9229,-1.318,2.058,1.718,-1.43,0,0,0,0,0,0,0,0,0,0,0,0,0,0,0,0,
3,-13.07,-1.565,-9.382,-12.67,-8.382,-8.987,-7.212,-7.244,-6.019,5.325,1.705,-1.652,-5.181,2.31,1.437,-2.545,0,0,0,0,0,0,0,0,0,0,0,0,0,0,0,0,
4,-15.3,-7.618,-10.3,-14.32,-7.609,-8.463,-8.937,-7.249,-6.841,-5.059,1.668,-1.6,-5.788,0.1246,-1.452,-2.504,0,0,0,0,0,0,0,0,0,0,0,0,0,0,0,0,
5,-18.4,-12.31,-10.39,-14.7,-12.42,-10.46,-12.3,-9.16,-9.149,0.4473,-2.779,-4.204,-2.585,-0.2411,-3.692,-0.8549,0,0,0,0,0,0,0,0,0,0,0,0,0,0,0,0,
6,-22.62,-9.496,-11.68,-16.09,-14.04,-9.759,-11.53,-12.22,-12.22,2.263,-6.737,-5.527,3.309,3.556,-0.0844,4.349,0,0,0,0,0,0,0,0,0,0,0,0,0,0,0,0,
7,-20.56,-4.864,-0.8659,-12.62,-6.632,-3.413,-3.729,-10.14,-5.712,-7.411,0.2351,0.7962,9.834,6.688,9.912,10.59,0,0,0,0,0,0,0,0,0,0,0,0,0,0,0,0,
8,-10.6,0.0286,5.116,-7.007,0.9479,2.476,3.618,-6.233,7.335,-10.73,12.95,8.939,10.53,7.194,20.03,15.5,0,0,0,0,0,0,0,0,0,0,0,0,0,0,0,0,
9,-0.892,0.1476,0.6253,-5.614,4.601,4.915,3.803,-5.959,14.55,-5.069,20.16,13.76,7.932,6.911,24.14,20.98,0,0,0,0,0,0,0,0,0,0,0,0,0,0,0,0,
10,6.755,-4.062,2.406,-6.452,8.389,8.712,2.044,-6.781,17.19,2.336,19.84,17.93,8.168,4.753,22.47,21.54,0,0,0,0,0,0,0,0,0,0,0,0,0,0,0,0,
11,15.82,0.7405,5.814,-5.783,11.07,13.83,3.846,-4.843,19.52,11.43,17.39,21.74,7.9,1.378,17.71,13.63,0,0,0,0,0,0,0,0,0,0,0,0,0,0,0,0,
12,19.8,9.374,6.346,-2.683,10.61,14.75,6.247,1.466,16.64,15.96,19.38,22.9,5.116,-1.36,12.37,4.522,0,0,0,0,0,0,0,0,0,0,0,0,0,0,0,0,
13,14.57,11.83,9.341,2.124,9.831,13.93,10.06,11.15,9.272,15.39,21.37,21.53,6.713,-2.421,10.05,0.8817,0,0,0,0,0,0,0,0,0,0,0,0,0,0,0,0,
14,8.506,17.95,11.34,5.576,6.42,14.08,15.75,16.92,2.027,19.19,11.71,18.3,15.02,1.883,9.714,5.05,0,0,0,0,0,0,0,0,0,0,0,0,0,0,0,0,
15,3.573,26.18,9.762,6.145,-3.382,9.732,15.94,14.04,-6.764,19.99,-3.74,13.81,21.61,10.24,8.628,11.74,0,0,0,0,0,0,0,0,0,0,0,0,0,0,0,0,
16,-2.709,26.03,7.079,7.863,-9.776,4.921,13.67,11.37,-11.88,9.243,-6.618,11.9,24.11,14.83,9.338,13.31,0,0,0,0,0,0,0,0,0,0,0,0,0,0,0,0,
17,-5.572,22.99,7.38,10.68,-5.889,7.986,15.52,12.34,-9.301,2.46,-0.9678,11.13,25.43,13.33,9.329,9.582,0,0,0,0,0,0,0,0,0,0,0,0,0,0,0,0,
18,-5.973,19.98,10.27,8.203,-2.182,12.37,14.01,6.606,-9.353,9.136,-2.649,5.675,22.67,11.18,5.501,5.591,0,0,0,0,0,0,0,0,0,0,0,0,0,0,0,0,
19,-5.717,15.51,10.92,4.475,-0.0752,14,8.845,-1.688,-8.863,13.52,-3.133,3.73,20.28,12.19,6.468,9.949,0,0,0,0,0,0,0,0,0,0,0,0,0,0,0,0,
20,0.1443,11.77,11.12,5.077,5.057,15.19,5.088,-4.481,1.253,5.501,5.755,10.02,20.46,10.75,12.26,18.17,0,0,0,0,0,0,0,0,0,0,0,0,0,0,0,0,
21,5.293,2.867,8.614,0.3938,1.557,9.786,-4.592,-13.59,5.523,-2.58,9.905,11.31,11.54,1.411,12.09,14.27,0,0,0,0,0,0,0,0,0,0,0,0,0,0,0,0,
22,2.834,-10.53,0.0727,-10.03,-8.154,0.817,-15.64,-27.22,0.7289,-5.271,8.11,7.924,-3.673,-9.543,8.014,2.686,0,0,0,0,0,0,0,0,0,0,0,0,0,0,0,0,
23,0.893,-15.62,-3.928,-12.53,-6.353,-1.194,-14.82,-27.93,4.656,-13.35,9.715,8.335,-13.24,-15.72,5.06,-5.61,0,0,0,0,0,0,0,0,0,0,0,0,0,0,0,0,
24,-0.311,-13.4,-2.178,-10.61,-4.13,-3.215,-10.41,-22.12,7.368,-18.3,8.139,6.211,-17.21,-17.47,1.19,-10.27,0,0,0,0,0,0,0,0,0,0,0,0,0,0,0,0,
25,-6.45,-12.83,-4.799,-14.41,-12.49,-9.558,-10.97,-20.91,-2.255,-6.327,1.788,2.496,-14.49,-13.71,-0.5771,-6.795,0,0,0,0,0,0,0,0,0,0,0,0,0,0,0,0,
26,-8.127,-10.94,-6.527,-16.14,-10.55,-8.385,-9.619,-18.8,-3.1,3.762,2.835,5.784,-5.55,-3.361,2.623,1.51,0,0,0,0,0,0,0,0,0,0,0,0,0,0,0,0,
27,-1.248,-3.27,-2.836,-13.19,0.6985,-1.844,-8.045,-17.08,5.617,0.2936,10.81,10.42,2.966,7.868,6.121,4.61,0,0,0,0,0,0,0,0,0,0,0,0,0,0,0,0,
28,0.7065,3.604,-3.489,-16.56,-2.385,-3.217,-12.19,-18.43,2.843,-2.192,10.89,8.57,9.519,10.75,5.773,4.9,0,0,0,0,0,0,0,0,0,0,0,0,0,0,0,0,
29,-5.053,3.775,-6.149,-19.31,-7.528,-6.549,-13.82,-14.08,-2.532,0.4843,2.104,5.842,17.37,9.22,5.72,8.878,0,0,0,0,0,0,0,0,0,0,0,0,0,0,0,0,
30,-6.45,6.339,-2.153,-10.8,-1.661,-1.893,-7.58,-6.464,-1.526,7.585,-0.1316,10.45,29.53,15.84,13.03,18.52,0,0,0,0,0,0,0,0,0,0,0,0,0,0,0,0,
31,-2.993,15.71,-1.466,-6.078,-3.913,1.47,-2.555,-5.549,-5.939,14.79,5.081,16.84,36.7,21.61,21.52,24.37,0,0,0,0,0,0,0,0,0,0,0,0,0,0,0,0,
32,-2.464,17.14,-4.106,-7.395,-6.378,-0.5665,-0.5989,-4.46,-5.38,12.24,7.54,16.17,28.11,12.93,20.34,17.3,0,0,0,0,0,0,0,0,0,0,0,0,0,0,0,0,
33,-2.874,8.721,4.88,2.102,7.32,1.382,4.257,0.388,7.037,7.69,8.652,12.92,17.55,4.589,16.27,11.66,0,0,0,0,0,0,0,0,0,0,0,0,0,0,0,0,
34,-1.606,4.831,11.48,10.35,11.36,4.292,7.567,-0.9292,9.065,2.167,10.97,11.59,15.6,7.147,18.04,16.48,0,0,0,0,0,0,0,0,0,0,0,0,0,0,0,0,
35,-1.067,3.815,4.895,5.085,3.318,2.931,6.501,-3.547,4.478,-7.614,12.39,8.472,8.791,5.5,16.25,15.11,0,0,0,0,0,0,0,0,0,0,0,0,0,0,0,0,
36,-2.174,-1.547,6.809,2.265,8.813,2.406,4.843,-1.573,8.314,-2.909,8.729,1.003,-7.121,-4.059,3.168,1.108,0,0,0,0,0,0,0,0,0,0,0,0,0,0,0,0,
37,-6.259,-7.713,14.15,3.807,12.33,0.9754,1.054,-4.088,7.614,4.413,-0.5966,-7.471,-18.41,-8.12,-9.982,-10.79,0,0,0,0,0,0,0,0,0,0,0,0,0,0,0,0,
38,-9.203,-11.96,10.36,2.74,4.019,-1.975,-2.4,-7.555,5.943,-9.599,-2.424,-8.363,-16.96,-6.924,-12,-12.09,0,0,0,0,0,0,0,0,0,0,0,0,0,0,0,0,
39,-5.649,-11.89,7.615,2.512,4.757,-1.492,-3.18,-7.81,12.57,-15.3,3.115,-2.49,-8.867,-7.857,-7.392,-8.304,0,0,0,0,0,0,0,0,0,0,0,0,0,0,0,0,
40,-3.787,-6.009,10.39,-0.7223,7.189,-2.345,-6.221,-13.1,10.52,-0.8653,4.589,1.715,-1.765,-6.232,-1.781,-2.77,0,0,0,0,0,0,0,0,0,0,0,0,0,0,0,0,
41,-6.74,-0.2486,10.46,-4.765,1.013,-5.387,-6.752,-15.69,4.223,0.4629,10.88,6.391,4.311,-2.446,3.524,2.079,0,0,0,0,0,0,0,0,0,0,0,0,0,0,0,0,
42,-5.754,1.688,9.14,-2.239,-0.1173,-3.806,-1.129,-9.299,8.175,-5.712,16.15,11.34,9.274,-4.084,5.777,1.657,0,0,0,0,0,0,0,0,0,0,0,0,0,0,0,0,
43,-3.943,3.678,6.303,-0.8046,2.515,-0.2226,2.118,-6.017,8.765,2.908,7.389,12.61,14.04,-4.215,10.48,4.6,0,0,0,0,0,0,0,0,0,0,0,0,0,0,0,0,
44,-4.681,6.999,4.547,-2.32,3.159,1.845,2.35,-7.338,4.978,5.942,8.156,15.96,18.8,0.0856,20.83,13.2,0,0,0,0,0,0,0,0,0,0,0,0,0,0,0,0,
45,-1.329,5.956,7.324,-0.6322,8.412,4.548,3.066,-8.807,8.756,-9.042,20.03,18.76,16.65,-2.766,23.6,12.44,0,0,0,0,0,0,0,0,0,0,0,0,0,0,0,0,
46,2.107,0.4788,9.367,2.827,14.7,8.461,4.196,-9.207,12.57,-12.88,14.78,12.32,9.018,-7.873,14.67,6.277,0,0,0,0,0,0,0,0,0,0,0,0,0,0,0,0,
47,0.0223,-1.069,10.16,8.997,14.5,11.99,7.663,-3.511,10.56,1.006,2.322,0.7874,2.121,-3.928,4.673,4.774,0,0,0,0,0,0,0,0,0,0,0,0,0,0,0,0,
48,-4.484,-1.68,14.69,14.67,11.9,10.51,8.252,1.25,7.154,3.093,-0.9672,-9.821,-6.365,0.5079,-2.45,1.806,0,0,0,0,0,0,0,0,0,0,0,0,0,0,0,0,
49,-11.81,-8.16,19.98,11.31,11.08,3.435,2.372,-2.922,4.798,-3.175,-2.613,-15.83,-11.44,-0.5492,-5.646,-0.3175,0,0,0,0,0,0,0,0,0,0,0,0,0,0,0,0,
50,-14.31,-9.305,16.92,5.655,8.134,-1.363,-0.5172,-4.409,3.759,2.094,-3.699,-14.16,-4.972,2.619,-4.597,2.501,0,0,0,0,0,0,0,0,0,0,0,0,0,0,0,0,
51,-0.9602,0.0818,9.08,6.579,2.071,-0.5085,2.44,1.266,1.446,4.116,-5.107,-7.588,7.463,11.22,-2.794,6.11,0,0,0,0,0,0,0,0,0,0,0,0,0,0,0,0,
52,16.65,7.153,9.489,9.373,0.7726,3.044,6.273,4.435,1.269,1.32,-2.849,3.042,16.7,12.09,0.7919,9.507,0,0,0,0,0,0,0,0,0,0,0,0,0,0,0,0,
53,25.51,10.41,13.08,12.31,5.172,7.491,11.3,6.284,6.77,9.852,12.52,16.08,19.82,3.64,5.305,7.777,0,0,0,0,0,0,0,0,0,0,0,0,0,0,0,0,
54,27.99,15.13,11.73,16.18,5.405,8.79,14.49,9.471,7.214,12.52,20.68,20.96,20.03,-0.574,7.166,2.091,0,0,0,0,0,0,0,0,0,0,0,0,0,0,0,0,
55,22.46,16.98,12.69,15.99,0.5458,4.51,12.08,6.66,2.004,2.935,10.05,17.27,21.41,2.49,13.16,6.288,0,0,0,0,0,0,0,0,0,0,0,0,0,0,0,0,
56,13.65,16.33,16.18,14.82,-0.2448,1.188,9.365,-0.296,5.363,3.933,12.89,19.52,23.96,7.131,26.02,20.95,0,0,0,0,0,0,0,0,0,0,0,0,0,0,0,0,
57,13.09,14.88,19.77,18.12,4.161,2.175,7.699,-3.017,11.46,7.013,29.38,25.46,25.07,11.04,31.91,30.91,0,0,0,0,0,0,0,0,0,0,0,0,0,0,0,0,
58,12.85,8.691,24.28,18.53,6.405,2.478,3.701,-3.088,6.529,-1.862,23.6,19.54,21.48,10.79,25.46,29.85,0,0,0,0,0,0,0,0,0,0,0,0,0,0,0,0,
59,7.878,3.21,23.35,14.45,6.145,4.286,3.33,-0.7358,-0.7891,-3.007,7.447,8.845,16.21,10.21,18.5,26.04,0,0,0,0,0,0,0,0,0,0,0,0,0,0,0,0,
60,9.23,3.984,21.81,13.99,9.102,11.21,9.102,5.235,-0.3794,5.173,4.929,4.946,13.18,13.08,14.18,20.5,0,0,0,0,0,0,0,0,0,0,0,0,0,0,0,0,
61,10.19,2.721,26.81,14.63,11.78,13.32,10.84,6.998,0.3797,3.635,0.1813,-2.273,5.936,8.679,4.836,6.529,0,0,0,0,0,0,0,0,0,0,0,0,0,0,0,0,
62,-1.975,-5.667,25.59,11.73,6.776,4.47,4.459,4.125,-5.645,-0.1339,-7.462,-14.64,-5.925,-1.561,-6.896,-7.001,0,0,0,0,0,0,0,0,0,0,0,0,0,0,0,0,
63,-16.24,-14.76,14.6,7.636,-1.224,-5.176,-3.75,2.413,-11.68,4.475,-4.515,-18.47,-9.438,-2.476,-11.17,-9.086,0,0,0,0,0,0,0,0,0,0,0,0,0,0,0,0,
64,-18.18,-14.8,9.284,3.654,-3.401,-6.837,-7.409,-0.7758,-8.083,10.15,-2.224,-11.31,-0.1077,3.257,-7.489,-3.393,0,0,0,0,0,0,0,0,0,0,0,0,0,0,0,0,
65,-11.71,-3.49,12.3,2.739,-2.065,-4.599,-5.128,-2.943,-0.145,14.57,-1.872,-0.4149,10.92,6.866,-1.973,4.737,0,0,0,0,0,0,0,0,0,0,0,0,0,0,0,0,
66,-8.206,5.797,13.86,5.548,-2.152,-4.258,-1.899,1.047,2.975,16.06,7.301,9.79,15.18,10.22,4.647,11.57,0,0,0,0,0,0,0,0,0,0,0,0,0,0,0,0,
67,-7.15,4.635,15.42,8.817,0.1807,-2.177,0.89,6.016,5.573,12.71,15.26,18.05,17.29,10.72,12.02,14.83,0,0,0,0,0,0,0,0,0,0,0,0,0,0,0,0,
68,-3.462,1.655,19.81,13.93,4.374,2.448,4.47,8.126,7.981,8.619,13.31,21.15,18.01,4.717,13.71,13.95,0,0,0,0,0,0,0,0,0,0,0,0,0,0,0,0,
69,-1.983,-0.0058,19.55,17.52,4.271,3.21,3.598,4.665,8.019,-0.5322,12.78,20.15,15.34,3.072,13.72,13.59,0,0,0,0,0,0,0,0,0,0,0,0,0,0,0,0,
70,-0.3937,-0.7791,17.5,13.76,4.931,3.568,0.0761,-5.128,13.28,-8.271,20.13,22.19,16.64,11.23,19.14,19.6,0,0,0,0,0,0,0,0,0,0,0,0,0,0,0,0,
71,3.41,0.9644,19,9.216,6.125,3.62,-0.6843,-8.044,13.36,1.072,20.37,17.95,13.44,11.5,13.82,14.85,0,0,0,0,0,0,0,0,0,0,0,0,0,0,0,0,
72,-5.428,-4.56,15.96,9.595,-2.459,-5.933,-3.265,2.824,-2.575,9.976,5.955,-0.1288,-3.293,-1.276,-6.709,-6.955,0,0,0,0,0,0,0,0,0,0,0,0,0,0,0,0,
73,-21.06,-15.2,12.81,12.59,-10.83,-15.01,-4.998,13.9,-11.35,6.064,-4.066,-11.91,-11.24,-5.793,-15.29,-13.93,0,0,0,0,0,0,0,0,0,0,0,0,0,0,0,0,
74,-25.47,-14.46,15.95,16.34,-8.308,-14.41,-1.435,15.53,-7.574,6.835,-4.473,-14.04,-6.83,0.9444,-9.657,-4.318,0,0,0,0,0,0,0,0,0,0,0,0,0,0,0,0,
75,-31.59,-13.18,14.65,16.16,-7.249,-16.97,-2.328,11.28,-11.49,4.074,-7.62,-20.04,-10.75,2.593,-8.431,-3.186,0,0,0,0,0,0,0,0,0,0,0,0,0,0,0,0,
76,-40.84,-23.7,13.78,12.65,-7.929,-19.39,-6.149,6.678,-12.11,-6.308,-5.174,-18.71,-14.75,-0.9372,-5.592,-3.562,0,0,0,0,0,0,0,0,0,0,0,0,0,0,0,0,
77,-33.25,-27.13,23.72,16.19,1.417,-9.498,-1.014,6.221,1.546,-0.0713,5.736,-9.096,-11.12,-4.266,-0.536,-2.51,0,0,0,0,0,0,0,0,0,0,0,0,0,0,0,0,
78,-22.36,-19.71,32.31,25.34,12.31,0.3597,6.633,8.977,8.221,7.197,8.404,-6.76,-11.08,-8.013,-3.852,-8.596,0,0,0,0,0,0,0,0,0,0,0,0,0,0,0,0,
79,-22.22,-14.78,32.52,29.52,12.94,2.143,9.212,8.716,3.944,-1.842,7.314,-0.9515,-6.577,-5.956,-2.394,-8.007,0,0,0,0,0,0,0,0,0,0,0,0,0,0,0,0,
80,-14.65,-4.471,35.11,33.56,13.38,6.933,15.17,9.981,6.59,0.893,14.36,14.78,8.563,3.354,8.754,2.14,0,0,0,0,0,0,0,0,0,0,0,0,0,0,0,0,
81,-0.9638,10.47,49.44,47.97,27.1,16.25,26.88,22.68,15.54,13.4,20.34,23.05,17.97,9.309,13.37,8.049,0,0,0,0,0,0,0,0,0,0,0,0,0,0,0,0,
82,3.055,13.99,69.1,66.29,42.44,22.36,35.61,34.26,19.23,15.95,20.72,25.14,20.02,12.06,15.46,12.68,0,0,0,0,0,0,0,0,0,0,0,0,0,0,0,0,
83,5.846,14.92,78.93,76.93,43.08,25.84,39.37,30.01,17.21,18.14,21.01,30.05,24.68,18.23,21.04,18.28,0,0,0,0,0,0,0,0,0,0,0,0,0,0,0,0,
84,9.955,20.04,87.08,88.47,42.84,30.53,44.94,30.03,13.18,15.02,16.99,25.53,23.36,20.76,17.71,15.86,0,0,0,0,0,0,0,0,0,0,0,0,0,0,0,0,
85,5.134,15.48,113.7,117.8,54.73,36.81,58.05,50.14,10.19,11.04,9.495,12.33,14.25,18.4,9.365,10.3,0,0,0,0,0,0,0,0,0,0,0,0,0,0,0,0,
86,1.629,9.549,147.6,153.4,66.91,45.52,77.18,69.94,12.73,28.55,9.026,9.406,12.31,19.9,6.231,9.537,0,0,0,0,0,0,0,0,0,0,0,0,0,0,0,0,
87,8.344,14.59,164.6,167.1,78.03,55.47,94.06,79.73,16.92,37.85,11.18,11.37,12.48,19.75,2.21,6.603,0,0,0,0,0,0,0,0,0,0,0,0,0,0,0,0,
88,12.22,15.91,165.8,162.5,91.24,62.42,104,88.61,16.35,19.82,10.07,7.201,7.138,16.43,1.418,4.719,0,0,0,0,0,0,0,0,0,0,0,0,0,0,0,0,
89,9.119,12.53,164.2,161.4,95.83,66.46,110.9,95.21,15.77,17.7,14.23,7.463,9.376,19.89,10.86,12.64,0,0,0,0,0,0,0,0,0,0,0,0,0,0,0,0,
90,7.207,17.45,164.2,163.6,99.85,70.48,118.6,104.3,19.25,35.5,21.48,13.32,17.99,25.65,19.55,19.61,0,0,0,0,0,0,0,0,0,0,0,0,0,0,0,0,
91,8.669,24.24,165.3,162.7,115.4,76.02,125.9,116.2,24.77,40.44,24.45,18.61,24.6,30.2,24.43,22.87,0,0,0,0,0,0,0,0,0,0,0,0,0,0,0,0,
92,14.47,29.34,165.5,163.1,122.9,82.24,129.2,112.3,28.92,40.12,27.65,27.82,34.03,36.45,31.09,30.04,0,0,0,0,0,0,0,0,0,0,0,0,0,0,0,0,
93,22.71,37.32,164.1,163.9,116.7,84.83,126.4,101,28.55,44.8,30.78,37.61,41.41,35.91,34.95,34.11,0,0,0,0,0,0,0,0,0,0,0,0,0,0,0,0,
94,30.04,43.02,165.5,163.3,120.3,85.2,123.9,102.2,31.52,45.14,33.5,44.52,44.26,31.02,35.55,34.6,0,0,0,0,0,0,0,0,0,0,0,0,0,0,0,0,
95,40.06,46.79,166.1,161.4,128.9,88.45,124.7,106.2,40.31,42.99,39.08,52.15,49.53,32.85,37.01,35.66,0,0,0,0,0,0,0,0,0,0,0,0,0,0,0,0,
96,49.57,49.77,160.4,155.5,125.2,90.63,123,106.8,41.56,39.37,40.48,54.55,50.51,35.43,37.19,31.28,0,0,0,0,0,0,0,0,0,0,0,0,0,0,0,0,
97,50.57,45.87,158.6,149.6,123.4,90.11,119.7,101.5,39.42,34.7,37.32,49.56,44.82,33.96,35.07,26.05,0,0,0,0,0,0,0,0,0,0,0,0,0,0,0,0,
98,47.73,42.46,159.6,147,128.7,91.82,119.9,83.79,42.94,38.17,35.74,43.15,40.32,31.99,29.64,24.57,0,0,0,0,0,0,0,0,0,0,0,0,0,0,0,0,
99,45.52,46.18,151.5,141.2,125.1,94.21,120.4,78.05,40.52,43.02,28.95,34.83,36.71,29.49,20.7,21.26,0,0,0,0,0,0,0,0,0,0,0,0,0,0,0,0,
100,41.96,48.21,142.6,132.7,118,94.89,118.5,94.88,34.42,36.26,18.32,25.65,33.08,27.82,15.48,18.25,0,0,0,0,0,0,0,0,0,0,0,0,0,0,0,0,
101,39.98,45.9,137.6,126.3,117.5,94.38,115.5,101.8,38.03,28.93,18.07,19.41,27.35,25.84,15.4,15.63,0,0,0,0,0,0,0,0,0,0,0,0,0,0,0,0,
102,39.66,40.33,127.3,118.6,114.2,89.94,108.2,87.95,43.15,34.97,23.76,15.57,18.5,22.33,14.14,10.31,0,0,0,0,0,0,0,0,0,0,0,0,0,0,0,0,
103,36.4,32.54,113.7,107.7,103.8,81.44,98.07,73.46,41.17,45.31,22.13,14.81,15.49,22.28,14.74,8.903,0,0,0,0,0,0,0,0,0,0,0,0,0,0,0,0,
104,31.98,30.83,100.6,96.5,93.37,72.83,90.97,73.57,37.82,45.59,20.59,19.04,18.44,22.83,21.44,13.38,0,0,0,0,0,0,0,0,0,0,0,0,0,0,0,0,
105,30.06,32.23,87.59,81.8,86.54,65.85,82.75,73.81,36.94,38.51,29.42,27.68,20.47,20.53,27.92,17.86,0,0,0,0,0,0,0,0,0,0,0,0,0,0,0,0,
106,31.54,29.96,75.27,62.65,81.35,60.16,70.03,49.24,37.49,34.01,40.29,37.7,27.49,23.47,31.82,23.69,0,0,0,0,0,0,0,0,0,0,0,0,0,0,0,0,
107,36.22,32.72,63.69,49.76,76.16,57.08,63.44,34.57,38.48,29.81,45.07,45.37,40.59,29.36,35.6,31.54,0,0,0,0,0,0,0,0,0,0,0,0,0,0,0,0,
108,41.11,40.71,58.82,49.47,75.12,59.09,66.83,55.6,40.6,22.88,45.52,49.22,47.45,29.55,35.55,31.55,0,0,0,0,0,0,0,0,0,0,0,0,0,0,0,0,
109,44.33,44.7,58.9,51.01,77.59,63.22,70.12,59.44,41.83,22.22,43.47,49.84,45.77,30.18,32.23,23.5,0,0,0,0,0,0,0,0,0,0,0,0,0,0,0,0,
110,45.24,44.88,52.23,44.43,74.47,63.56,69.12,45.68,36.62,29.85,38.64,45.55,39.96,29.42,27.44,17.52,0,0,0,0,0,0,0,0,0,0,0,0,0,0,0,0,
111,40.26,38.49,41.89,35.49,65.8,61.3,66.12,52.48,27.37,35.26,27.35,32.61,27.4,17.63,14.53,9.703,0,0,0,0,0,0,0,0,0,0,0,0,0,0,0,0,
112,31.06,26.8,36.41,32.02,60.09,60.89,63.45,53.55,23.07,29.28,13.16,16.73,13.22,6.657,-0.5993,-0.6533,0,0,0,0,0,0,0,0,0,0,0,0,0,0,0,0,
113,24.19,21.64,33.85,30.03,59.05,60.96,61.95,51.01,23.55,14.1,7.139,8.106,6.032,3.389,-4.3,-4.413,0,0,0,0,0,0,0,0,0,0,0,0,0,0,0,0,
114,18.05,20.74,28.39,22.23,56.9,56.13,55.93,51.28,21.06,10.52,5.202,2.887,0.9856,-1.417,-2.253,-8.458,0,0,0,0,0,0,0,0,0,0,0,0,0,0,0,0,
115,9.058,16.7,16.52,10.28,49.13,46.26,45.51,16.93,15.79,24.53,1.095,-3.894,-3.46,-0.7039,-1.999,-12.98,0,0,0,0,0,0,0,0,0,0,0,0,0,0,0,0,
116,0.6587,12.02,3.072,-1.064,39.71,37.98,39.18,-2.632,14.03,25.22,0.4352,-7.307,-4.572,7.524,-0.4272,-7.458,0,0,0,0,0,0,0,0,0,0,0,0,0,0,0,0,
117,-4.885,3.547,-7.187,-11.24,32.82,31.52,32.93,30.53,14.38,7.454,3.108,-7.15,-7.785,8.64,-0.1267,-1.892,0,0,0,0,0,0,0,0,0,0,0,0,0,0,0,0,
118,-6.897,-7.305,-16.93,-20.05,24.74,22.38,22.13,35.21,13.7,3.804,9.234,-3.168,-9.018,7.016,-1.676,-1.667,0,0,0,0,0,0,0,0,0,0,0,0,0,0,0,0,
119,-2.05,-7.039,-25.21,-27.7,17.56,16.87,17.01,7.394,15.83,14.08,17.37,6.856,-1.176,9.271,0.5378,0.8863,0,0,0,0,0,0,0,0,0,0,0,0,0,0,0,0,
120,8.779,3.38,-29.63,-33.62,17.17,19.96,18.86,11.37,19.86,16.26,17.37,17.41,8.59,6.314,5.591,2.12,0,0,0,0,0,0,0,0,0,0,0,0,0,0,0,0,
121,18.53,11.64,-32.54,-35.49,18.03,24.1,19.73,23.98,20.37,14.49,15.92,26.01,16.41,0.7425,11.39,0.7066,0,0,0,0,0,0,0,0,0,0,0,0,0,0,0,0,
122,23.22,17.26,-34.69,-36.85,16.77,26.72,22.26,21.07,19.07,18.94,21.55,31.64,21.23,0.1466,15.22,-2.277,0,0,0,0,0,0,0,0,0,0,0,0,0,0,0,0,
123,24.18,20.74,-35.44,-41.66,17.48,29.34,24.38,18.81,16.52,24.32,19.77,26.09,15.73,-0.473,8.404,-10.61,0,0,0,0,0,0,0,0,0,0,0,0,0,0,0,0,
124,18.8,14.3,-39.28,-47.91,15.03,25.86,16.62,12.73,9.811,18.97,7.769,9.216,2.186,-3.44,-7.744,-17.6,0,0,0,0,0,0,0,0,0,0,0,0,0,0,0,0,
125,5.871,1.372,-50.28,-54.99,6.16,16.34,6.04,6.674,2.744,4.459,-1.146,-8.809,-8.076,-2.55,-19.67,-15.66,0,0,0,0,0,0,0,0,0,0,0,0,0,0,0,0,
126,-2.545,-4.694,-59.51,-60.18,-0.57,8.593,3.214,7.472,-2.058,-0.6484,-8.157,-22.81,-12.92,1.144,-22.98,-11.05,0,0,0,0,0,0,0,0,0,0,0,0,0,0,0,0,
127,1.009,-4.371,-58.87,-58.86,-0.9757,5.807,4.803,5.677,-4.111,4.469,-13.5,-30.61,-19.38,-3.537,-21.13,-13.51,0,0,0,0,0,0,0,0,0,0,0,0,0,0,0,0,
128,8.506,-3.98,-54.56,-53.77,4.231,10.94,10.32,8.27,2.617,5.801,-7.086,-27.36,-26.68,-16.25,-13.58,-21.53,0,0,0,0,0,0,0,0,0,0,0,0,0,0,0,0,
129,15.17,-1.631,-49.97,-49.5,11.09,19.84,17.7,18.36,12.27,11.91,3.142,-16.05,-26.04,-22.26,-4.146,-24.44,0,0,0,0,0,0,0,0,0,0,0,0,0,0,0,0,
130,19.92,0.0503,-47.44,-50.34,9.514,18.53,14.74,18.43,12.62,22.24,5.872,-5.739,-17.9,-17.21,1.435,-18.34,0,0,0,0,0,0,0,0,0,0,0,0,0,0,0,0,
131,20.11,-2.063,-53.1,-58.19,0.8952,9.044,3.853,8.06,11.41,13.94,14,4.471,-7.989,-9.715,3.794,-9.145,0,0,0,0,0,0,0,0,0,0,0,0,0,0,0,0,
132,18.62,-1.987,-61.42,-65.08,-5.076,3.435,-2.259,1.038,12.12,2.361,23.62,13.81,1.642,-5.423,0.6042,-5.357,0,0,0,0,0,0,0,0,0,0,0,0,0,0,0,0,
133,16.69,2.495,-67,-67.86,-10.01,-0.2651,-5.569,-1.955,2.943,11.71,10.71,14.8,10.85,-0.6452,-3.962,-4.917,0,0,0,0,0,0,0,0,0,0,0,0,0,0,0,0,
134,12.92,9.634,-71.28,-72.64,-15.12,-3.538,-9.187,-4.933,-8.723,15.22,-7.48,13.92,22.36,8.556,3.531,4.417,0,0,0,0,0,0,0,0,0,0,0,0,0,0,0,0,
135,9.678,17.75,-70.17,-75.09,-15.18,-1.365,-8.265,-7.816,-10.4,5.218,-7.374,15.76,29.37,12.36,11.05,11.56,0,0,0,0,0,0,0,0,0,0,0,0,0,0,0,0,
136,5.796,19.6,-64.73,-70.27,-10.84,3.411,-4.961,-11.76,-9.593,9.839,-9.219,9.177,18.5,1.292,-4.523,-4.344,0,0,0,0,0,0,0,0,0,0,0,0,0,0,0,0,
137,-0.8529,11.62,-61.75,-67.85,-7.424,4.695,-6.032,-12.98,-11.48,12.26,-20.16,-5.959,-3.648,-15.15,-29.34,-27.93,0,0,0,0,0,0,0,0,0,0,0,0,0,0,0,0,
138,-9.088,-0.3882,-62.42,-72.16,-9.886,0.0041,-12.04,-7.848,-13.54,-5.317,-24.55,-20.16,-19.78,-23.44,-37.02,-35.69,0,0,0,0,0,0,0,0,0,0,0,0,0,0,0,0,
139,-20.5,-11.12,-66.81,-75.56,-17.83,-9.582,-20.47,-8.048,-16.47,-14.95,-26.1,-30.23,-27.22,-23.3,-28.88,-29.97,0,0,0,0,0,0,0,0,0,0,0,0,0,0,0,0,
140,-33.92,-20.73,-73.75,-77.52,-26,-20.09,-30.24,-19.57,-18.68,-13.5,-25.81,-33.87,-32.43,-22.07,-17.54,-20.38,0,0,0,0,0,0,0,0,0,0,0,0,0,0,0,0,
141,-41.2,-29.36,-78.18,-80.38,-31.95,-27,-36.78,-26.88,-17.23,-15.35,-16.85,-30.34,-33.26,-17.89,-6.561,-10.86,0,0,0,0,0,0,0,0,0,0,0,0,0,0,0,0,
142,-37.27,-31.18,-76.28,-78.99,-33.43,-26.16,-35.37,-24.83,-13.51,-12.23,-8.09,-20.49,-23.76,-8.29,3.788,-2.917,0,0,0,0,0,0,0,0,0,0,0,0,0,0,0,0,
143,-26.69,-25,-72.53,-73.71,-30.11,-20.57,-31.97,-24.73,-11.47,-5.323,-6.323,-7.678,-14.44,-8.626,8.179,-2.711,0,0,0,0,0,0,0,0,0,0,0,0,0,0,0,0,
144,-17.81,-19.1,-72.8,-70.69,-27.39,-18.06,-31.89,-26.1,-10.28,-2.118,-6.536,0.3054,-13.19,-19.98,3.354,-9.455,0,0,0,0,0,0,0,0,0,0,0,0,0,0,0,0,
145,-13.99,-14.62,-72.99,-70.41,-27.32,-18.58,-31.9,-24.36,-7.307,-4.505,-5.716,2.708,-6.833,-18.65,-1.409,-7.662,0,0,0,0,0,0,0,0,0,0,0,0,0,0,0,0,
146,-14.78,-8.322,-72.33,-72.27,-27.94,-19.13,-32.59,-23.88,-7.792,-11.86,-5.542,3.779,3.816,-6.209,0.1668,0.8327,0,0,0,0,0,0,0,0,0,0,0,0,0,0,0,0,
147,-16.95,-3.433,-71.79,-73.33,-26.8,-18.65,-33.19,-24.07,-11.04,-9.117,-8.341,2.88,5.032,-2.578,-0.9005,0.4636,0,0,0,0,0,0,0,0,0,0,0,0,0,0,0,0,
148,-14.77,-1.661,-64.34,-68.42,-22.54,-14.95,-28.46,-21.81,-8.412,-1.244,-10.06,0.2315,0.8038,-5.95,-7.072,-5.061,0,0,0,0,0,0,0,0,0,0,0,0,0,0,0,0,
149,-10.15,-2.519,-57,-62.12,-19.74,-9.836,-22.24,-19.58,-5.884,-9.04,-6.902,-3.502,-3.733,-8.046,-10.46,-8.108,0,0,0,0,0,0,0,0,0,0,0,0,0,0,0,0,
150,-11.42,-5.589,-59.9,-60.82,-21.02,-8.025,-20.75,-18.51,-9.384,-14.62,-7.902,-10.41,-9.585,-9.264,-12.27,-10.68,0,0,0,0,0,0,0,0,0,0,0,0,0,0,0,0,
151,-19.06,-8.336,-63.39,-62.12,-23.9,-11.41,-23.16,-18.29,-10.18,-6.349,-16.18,-17.6,-13.19,-8.839,-13.19,-12.23,0,0,0,0,0,0,0,0,0,0,0,0,0,0,0,0,
152,-25.2,-11.64,-62.06,-62.46,-28.92,-16.98,-26.66,-18.34,-9.409,-7.884,-19.33,-19.24,-15.12,-5.419,-8.31,-10.48,0,0,0,0,0,0,0,0,0,0,0,0,0,0,0,0,
153,-26.13,-18.41,-61.67,-61.33,-35.06,-20.13,-29.61,-19.71,-14.38,-15.42,-16.8,-17.41,-17.93,-4.063,-3.34,-7.149,0,0,0,0,0,0,0,0,0,0,0,0,0,0,0,0,
154,-26.11,-26.79,-65.57,-62,-38.66,-22.51,-32.78,-25.63,-18.32,-9.94,-15.45,-14.13,-18.58,-10.01,-0.5911,-4.313,0,0,0,0,0,0,0,0,0,0,0,0,0,0,0,0,
155,-24.71,-29.73,-68,-64.76,-38.9,-23.33,-34.34,-30,-15.29,-3.671,-10.18,-4.267,-13.07,-15.37,7.085,1.436,0,0,0,0,0,0,0,0,0,0,0,0,0,0,0,0,
156,-17.59,-22.86,-58.27,-62.27,-36.51,-17.69,-31.54,-27.64,-10.69,-10.71,-2.83,7.083,-4.539,-13.29,13.77,7.811,0,0,0,0,0,0,0,0,0,0,0,0,0,0,0,0,
157,-11.67,-14.32,-49.05,-56.03,-32.96,-12.6,-28.9,-26.53,-7.47,-20.2,0.5154,10.54,0.113,-10.95,13.9,7.335,0,0,0,0,0,0,0,0,0,0,0,0,0,0,0,0,
158,-12.94,-10.39,-56.96,-54.11,-29.21,-13.84,-27.73,-26.44,-4.93,-17.89,2.847,10.23,3.483,-8.566,12.23,6.228,0,0,0,0,0,0,0,0,0,0,0,0,0,0,0,0,
159,-16.7,-6.067,-64.37,-53.34,-29.08,-16.55,-26.04,-23.13,-7.537,-8.837,-1.926,4.668,5.922,-3.724,4.564,6.29,0,0,0,0,0,0,0,0,0,0,0,0,0,0,0,0,
160,-21.94,-5.271,-58.46,-51.6,-35.57,-20.47,-27.8,-24,-14.75,-5.145,-12.51,-7.983,0.6102,-4.777,-5.538,0.6199,0,0,0,0,0,0,0,0,0,0,0,0,0,0,0,0,
161,-24.84,-10.69,-51.15,-52.16,-38.46,-20.46,-29.08,-25.43,-16.46,-5.729,-13.09,-12.85,-4.686,-8.432,-5.657,-2.545,0,0,0,0,0,0,0,0,0,0,0,0,0,0,0,0,
162,-19.27,-8.813,-47.21,-49.92,-32.84,-10.76,-23.11,-19.09,-14.67,-7.266,-12.15,-11.81,-4.316,-5.777,-6.322,-3.426,0,0,0,0,0,0,0,0,0,0,0,0,0,0,0,0,
163,-16.09,-1.936,-46,-43.92,-30.45,-5,-18.08,-15.59,-19.2,-10.73,-20.12,-17.95,-8.044,-4.33,-14.3,-11.03,0,0,0,0,0,0,0,0,0,0,0,0,0,0,0,0,
164,-21.84,-5.498,-47.71,-42.62,-32.2,-9.98,-19.64,-19.33,-23.46,-13.46,-23.18,-20.48,-13.14,-8.579,-12.4,-13.61,0,0,0,0,0,0,0,0,0,0,0,0,0,0,0,0,
165,-24.84,-13.46,-49.39,-45.83,-32.47,-15.22,-23,-20.69,-21.74,-14.22,-20.79,-14.61,-12.69,-12.02,-2.912,-7.842,0,0,0,0,0,0,0,0,0,0,0,0,0,0,0,0,
166,-25.59,-17.27,-52.38,-49.93,-36.72,-20.95,-28.41,-22.09,-22.02,-10.24,-20.73,-13.35,-12.84,-12.35,-3.055,-6.281,0,0,0,0,0,0,0,0,0,0,0,0,0,0,0,0,
167,-30.48,-21.09,-57.47,-55.79,-41.51,-28.44,-35.44,-27.67,-23.13,-2.8,-18.16,-14.51,-14.53,-10.89,-6.64,-6.74,0,0,0,0,0,0,0,0,0,0,0,0,0,0,0,0,
168,-30.31,-22.55,-59.88,-59.09,-39.3,-29.94,-38.86,-30.26,-19.86,-8.002,-14.54,-10.74,-12.89,-11.07,-4.34,-5.259,0,0,0,0,0,0,0,0,0,0,0,0,0,0,0,0,
169,-24.77,-19.01,-58.88,-56.91,-39.06,-28.68,-37.96,-29.34,-17.34,-20.81,-11.94,-5.945,-7.041,-11.12,-0.9494,-4.191,0,0,0,0,0,0,0,0,0,0,0,0,0,0,0,0,
170,-23.15,-11.55,-58.56,-52.57,-42.61,-28.95,-33.5,-29.33,-14.78,-15.13,-6.865,-0.9452,2.471,-2.544,3.447,-0.2838,0,0,0,0,0,0,0,0,0,0,0,0,0,0,0,0,
171,-19.86,-0.4269,-56.57,-47.23,-38.43,-25.92,-28.16,-27.63,-8.458,-4.434,-3.98,4.246,9.553,5.334,8.669,5.527,0,0,0,0,0,0,0,0,0,0,0,0,0,0,0,0,
172,-14.08,3.346,-48.89,-43.62,-30.95,-22.77,-27.36,-25.47,-5.846,-14.65,-5.346,3.579,9.109,-0.7391,8.748,7.662,0,0,0,0,0,0,0,0,0,0,0,0,0,0,0,0,
173,-14.5,-2.465,-42.9,-42.14,-29.52,-21.69,-26.48,-25.75,-8.53,-26.17,-6.432,-2.108,6.64,-6.701,4.939,6.816,0,0,0,0,0,0,0,0,0,0,0,0,0,0,0,0,
174,-14.94,-2.393,-43.26,-38.06,-28.33,-17.07,-20.93,-23.41,-9.793,-19.61,-9.388,-7.98,3.773,-5.641,-1.66,3.221,0,0,0,0,0,0,0,0,0,0,0,0,0,0,0,0,
175,-13.86,-0.8922,-44.14,-36.38,-26.64,-15.39,-19.83,-19.11,-12.7,-7.953,-17.09,-16.95,-4.55,-9.883,-11.32,-4.734,0,0,0,0,0,0,0,0,0,0,0,0,0,0,0,0,
176,-20.28,-9.685,-44.33,-39.94,-30.24,-21.33,-24.1,-18.05,-18.8,-4.515,-23.39,-24.88,-14.46,-14.39,-14.24,-11.13,0,0,0,0,0,0,0,0,0,0,0,0,0,0,0,0,
177,-24.51,-18.34,-44.27,-39.09,-33.34,-23.49,-23.95,-16.44,-19.61,-14.46,-20.02,-21.15,-20.78,-13.95,-8.887,-12.99,0,0,0,0,0,0,0,0,0,0,0,0,0,0,0,0,
178,-18.12,-21.64,-43.72,-35.9,-31.56,-20.81,-22.42,-14.02,-15.97,-25.23,-10.64,-12.85,-23.21,-14.17,-8.021,-15.42,0,0,0,0,0,0,0,0,0,0,0,0,0,0,0,0,
179,-14.45,-22.87,-45.25,-38.57,-30.98,-22.62,-24.82,-16.93,-17.82,-16.21,-10.83,-12.16,-17.98,-9.026,-12.93,-15.38,0,0,0,0,0,0,0,0,0,0,0,0,0,0,0,0,
180,-18.69,-18.7,-46.6,-41.01,-34.06,-25.87,-25.69,-20.18,-24.3,-4.276,-21.34,-14.46,-9.742,-3.717,-13.1,-9.928,0,0,0,0,0,0,0,0,0,0,0,0,0,0,0,0,
181,-20.11,-13.77,-45.02,-38.79,-36.24,-23.76,-23.57,-17,-23.95,-10.56,-19.58,-10.27,-7.198,-9.403,-4.869,-4.76,0,0,0,0,0,0,0,0,0,0,0,0,0,0,0,0,
182,-14.42,-11.77,-40.64,-37.22,-33.16,-18.66,-23.33,-17.5,-15.45,-14.77,-4.244,-1.635,-3.801,-11.15,2.427,-0.7006,0,0,0,0,0,0,0,0,0,0,0,0,0,0,0,0,
183,-9.684,-6.472,-35.56,-37.93,-28.48,-15.59,-24.69,-26.94,-12.13,-10.04,-4.996,-0.7604,2.208,-4.162,-1.643,-0.3918,0,0,0,0,0,0,0,0,0,0,0,0,0,0,0,0,
184,-10.9,-0.6083,-34.25,-36.46,-28.06,-13.19,-22.18,-27.96,-15.43,-13.63,-20.61,-8.06,2.748,-3.905,-9.607,-5.292,0,0,0,0,0,0,0,0,0,0,0,0,0,0,0,0,
185,-9.576,0.5323,-31.56,-31.47,-26.32,-7.305,-15.76,-18.09,-12.53,-16.04,-21.02,-9.364,0.6783,-6.862,-9.632,-6.016,0,0,0,0,0,0,0,0,0,0,0,0,0,0,0,0,
186,-2.959,-0.5495,-24.5,-28.21,-21.1,-1.902,-12.62,-16.89,-7.115,-9.783,-11.26,-6.518,-1.75,-5.719,-7.013,-4.31,0,0,0,0,0,0,0,0,0,0,0,0,0,0,0,0,
187,-1.694,-2.381,-23.76,-28.57,-22.24,-2.534,-13.78,-20.51,-8.672,-8.78,-10.36,-9.003,-5.175,-7.596,-6.13,-6.977,0,0,0,0,0,0,0,0,0,0,0,0,0,0,0,0,
188,-5.375,-2.281,-27.5,-28.74,-26.61,-4.723,-13.53,-18.22,-9.128,-10.78,-9.059,-9.624,-5.421,-13.43,-1.669,-8.065,0,0,0,0,0,0,0,0,0,0,0,0,0,0,0,0,
189,-4.366,0.3899,-26.11,-27.09,-23.17,-2.9,-10.91,-19.6,-5.344,-13.61,-1.563,-5.18,-5.797,-15.81,3.793,-5.775,0,0,0,0,0,0,0,0,0,0,0,0,0,0,0,0,
190,-0.0668,-0.5584,-23.06,-23.19,-18.16,0.6516,-8.088,-20.43,-4.625,-20.18,1.71,-2.225,-6.972,-11.84,4.521,-2.192,0,0,0,0,0,0,0,0,0,0,0,0,0,0,0,0,
191,1.727,-3.083,-21.38,-19.75,-19.12,1.169,-6.719,-13.15,-4.349,-13,1.638,0.0551,-3.067,-7.038,2.773,1.732,0,0,0,0,0,0,0,0,0,0,0,0,0,0,0,0,
192,0.1694,-0.5331,-20.49,-20.68,-20.96,-2.63,-7.376,-10.51,-3.343,1.104,4.266,1.793,0.1537,-5.489,-0.237,0.8009,0,0,0,0,0,0,0,0,0,0,0,0,0,0,0,0,
193,-5,0.6588,-24.05,-23.74,-24.35,-9.982,-10.59,-13.54,-8.49,-8.275,1.91,-1.499,-1.845,-3.003,-5.957,-2.937,0,0,0,0,0,0,0,0,0,0,0,0,0,0,0,0,
194,-12.29,-3.816,-31.69,-28.22,-31.42,-17.6,-17.41,-15.25,-14.89,-21.82,-8.45,-6.209,-2.119,-0.1392,-9.245,-3.286,0,0,0,0,0,0,0,0,0,0,0,0,0,0,0,0,
195,-15.08,-3.516,-33.41,-31.23,-30.8,-16.92,-20.39,-17.22,-12.77,-11.25,-11.82,-4.846,1.389,-1.46,-6.306,-1.571,0,0,0,0,0,0,0,0,0,0,0,0,0,0,0,0,
196,-11.36,3.217,-25.57,-26,-21.47,-8.946,-14.54,-15.92,-7.999,-1.411,-7.489,-1.632,3.182,-4.777,-3.936,-2.074,0,0,0,0,0,0,0,0,0,0,0,0,0,0,0,0,
197,-8.634,4.462,-21.69,-21.35,-19.05,-7.176,-11.71,-13.48,-7.97,-8.479,-8.351,-3.438,1.144,-6.966,-5.143,-5.211,0,0,0,0,0,0,0,0,0,0,0,0,0,0,0,0,
198,-7.261,0.5612,-25.7,-23.95,-20.93,-9.329,-13.67,-13.62,-7.311,-11.47,-7.521,-4.201,0.8575,-5.139,-4.324,-4.658,0,0,0,0,0,0,0,0,0,0,0,0,0,0,0,0,
199,-1.689,0.8796,-24.83,-22.28,-15.92,-5.014,-9.574,-9.567,-4.973,-5.694,-4.22,-1.903,3.739,-1.415,-2.267,-1.071,0,0,0,0,0,0,0,0,0,0,0,0,0,0,0,0,
200,1.662,2.398,-19.88,-18.59,-12.9,-1.545,-5.669,-6.156,-6.053,-4.74,-9.176,-3.627,2.193,-4.579,-3.238,-3.329,0,0,0,0,0,0,0,0,0,0,0,0,0,0,0,0,
201,-1.646,0.1278,-17.38,-20.11,-15.04,-1.838,-6.383,-7.769,-7.237,-8.248,-9.653,-6.02,-3.257,-9.134,-4.623,-7.005,0,0,0,0,0,0,0,0,0,0,0,0,0,0,0,0,
202,-3.386,-0.9188,-14.42,-15.86,-11.44,1.657,-2.39,-4.807,-6.344,-7.57,-3.527,-4.926,-5.099,-5.89,-3.932,-5.506,0,0,0,0,0,0,0,0,0,0,0,0,0,0,0,0,
203,-2.076,-0.4237,-12.66,-8.748,-7.42,2.851,0.6141,-1.375,-6.902,-3.222,-8.282,-4.313,-3.591,-5.094,-4.101,-4.025,0,0,0,0,0,0,0,0,0,0,0,0,0,0,0,0,
204,-2.399,-2.106,-16.05,-13.05,-12.82,-2.58,-4.923,-5.623,-8.196,-1.587,-15.4,-4.312,-1.544,-9.301,-6.479,-3.383,0,0,0,0,0,0,0,0,0,0,0,0,0,0,0,0,
205,-3.525,-0.5914,-21.54,-20.21,-18.93,-5.007,-8.733,-11.86,-9.943,-4.998,-13.96,-3.843,1.924,-5.473,-7.291,-0.4828,0,0,0,0,0,0,0,0,0,0,0,0,0,0,0,0,
206,-4.273,4.578,-22.15,-21.25,-17.18,-3.499,-8.997,-17.26,-11.15,-10.61,-9.695,-2.097,6.642,2.035,-5.082,2.226,0,0,0,0,0,0,0,0,0,0,0,0,0,0,0,0,
207,-3.877,4.709,-18.08,-23.59,-13.96,-5.485,-14.1,-20.14,-7.845,-13.32,-2.69,1.025,8.727,1.325,-3.611,1.835,0,0,0,0,0,0,0,0,0,0,0,0,0,0,0,0,
208,-2.809,1.95,-19.64,-27.09,-16.57,-10.63,-19.89,-18.1,-6.179,-10.66,-0.3559,-0.881,5.833,-1.635,-5.631,-1.083,0,0,0,0,0,0,0,0,0,0,0,0,0,0,0,0,
209,-5.337,1.102,-24.46,-25.93,-21.15,-13.6,-19.22,-16.78,-11.94,-4.944,-8.971,-7.87,0.9834,0.0156,-10.26,-4.685,0,0,0,0,0,0,0,0,0,0,0,0,0,0,0,0,
210,-8.567,-0.8184,-20.4,-20.44,-19.56,-10.12,-13.29,-16.41,-14.17,-1.625,-12.92,-9.07,-1.722,1.313,-11.04,-6.643,0,0,0,0,0,0,0,0,0,0,0,0,0,0,0,0,
211,-4.78,-1.193,-11.3,-13.39,-12.41,-1.062,-6.647,-13.42,-8.53,-7.159,-7.707,-3.56,-1.384,-2.14,-5.096,-5.362,0,0,0,0,0,0,0,0,0,0,0,0,0,0,0,0,
212,0.2287,-0.6798,-5.858,-10.22,-7.861,5.738,-4.938,-12.95,-8.424,-14.66,-8.851,-4.819,-3.504,-9.375,-5.04,-7.715,0,0,0,0,0,0,0,0,0,0,0,0,0,0,0,0,
213,-3.017,-6.108,-4.215,-10.32,-8.154,6.717,-5.566,-13.07,-14.75,-9.675,-16.02,-15.77,-11.08,-15.19,-14.95,-16.65,0,0,0,0,0,0,0,0,0,0,0,0,0,0,0,0,
214,-7.839,-11.39,-4.036,-7.515,-8.139,6.443,-2.199,-8.591,-13.95,-2.017,-16.76,-21.08,-14.98,-14.41,-18.2,-17.54,0,0,0,0,0,0,0,0,0,0,0,0,0,0,0,0,
215,-6.202,-11.72,-3.792,-7.024,-6.83,5.585,-2.195,-8.454,-7.926,-5.16,-11.8,-14.99,-12.05,-10.31,-11.12,-8.178,0,0,0,0,0,0,0,0,0,0,0,0,0,0,0,0,
216,-1.503,-12.84,-4.436,-10.57,-6.613,2.6,-8.094,-12.23,-5.308,-8.983,-2.906,-6.236,-8.891,-7.732,-5.528,-2.855,0,0,0,0,0,0,0,0,0,0,0,0,0,0,0,0,
217,4.274,-12.31,-5.354,-9.797,-6.272,0.704,-9.136,-9.058,-2.013,-10.74,9.949,0.627,-6.033,-4.822,-4.878,-2.321,0,0,0,0,0,0,0,0,0,0,0,0,0,0,0,0,
218,8.903,-8.107,-6.025,-9.873,-5.65,0.5944,-8.066,-7.346,2.132,-11.77,11,2.14,-4.354,-1.774,-6.391,-3.522,0,0,0,0,0,0,0,0,0,0,0,0,0,0,0,0,
219,8.677,-4.998,-7.246,-13.98,-5.601,0.7503,-9.351,-11.85,2.146,-5.442,-0.3003,1.032,-2.991,-2.365,-4.056,-4.719,0,0,0,0,0,0,0,0,0,0,0,0,0,0,0,0,
220,9.691,-2.099,-6.574,-12.81,-5.373,1.344,-6.183,-10.33,2.299,-4.381,0.0888,5.493,1.979,-6.089,2.422,-2.135,0,0,0,0,0,0,0,0,0,0,0,0,0,0,0,0,
221,11.62,0.412,-7.86,-11.45,-7.396,-0.6934,-5.22,-8.305,3.135,-11.56,6.636,6.734,2.922,-9.308,0.4427,-3.792,0,0,0,0,0,0,0,0,0,0,0,0,0,0,0,0,
222,4.461,-1.97,-15.27,-16.71,-12.34,-6.608,-13.59,-14.32,-1.069,-10.86,-1.361,-2.962,-4.422,-10.62,-9.852,-10.42,0,0,0,0,0,0,0,0,0,0,0,0,0,0,0,0,
223,-2.662,-10.3,-20.82,-20.04,-15.31,-10.95,-19.35,-15.98,-7.443,-13.94,-14.25,-13.08,-12.55,-12.42,-14.77,-11.4,0,0,0,0,0,0,0,0,0,0,0,0,0,0,0,0,
224,1.301,-20.26,-19.08,-17.06,-13.69,-9.498,-15.92,-10.71,-9.754,-23.07,-18.58,-18.26,-18.12,-15.66,-15.32,-11.86,0,0,0,0,0,0,0,0,0,0,0,0,0,0,0,0,
225,4.196,-23.79,-12.42,-11,-8.772,-3.724,-9.414,-8.23,-7.271,-16.68,-14.93,-18.7,-19.83,-16.24,-16.82,-16.45,0,0,0,0,0,0,0,0,0,0,0,0,0,0,0,0,
226,1.128,-21.64,-7.225,-7.537,-4.777,0.4477,-6.153,-7.663,-3.712,-7.561,-9.294,-15.26,-18.7,-12.44,-15.02,-16.43,0,0,0,0,0,0,0,0,0,0,0,0,0,0,0,0,
227,0.5531,-20.79,-8.116,-10.36,-5.105,-0.8057,-8.646,-7.486,-2.313,-8.908,-8.588,-14.94,-18.31,-10.05,-11.97,-12.03,0,0,0,0,0,0,0,0,0,0,0,0,0,0,0,0,
228,-0.3344,-18.84,-8.109,-12.95,-5.532,-3.654,-11.64,-9.38,0.025,-8.839,-4.533,-15.6,-17.46,-13.32,-12.88,-11.85,0,0,0,0,0,0,0,0,0,0,0,0,0,0,0,0,
229,-1.15,-14.96,-5.945,-12.1,-2.737,-4.159,-11.36,-9.805,5.724,-10.43,7.306,-9.018,-15.21,-15.69,-11.62,-14.29,0,0,0,0,0,0,0,0,0,0,0,0,0,0,0,0,
230,4.077,-12.19,-10.23,-13.8,-2.845,-5.023,-12.84,-8.843,8.194,-10.17,9.319,-1.678,-10.46,-11.06,-5.576,-11.95,0,0,0,0,0,0,0,0,0,0,0,0,0,0,0,0,
231,3.905,-8.072,-18.1,-19.47,-10.23,-10.85,-17.73,-11.03,2.561,-2.153,-0.4505,-2.267,-3.771,-5.365,-3.778,-8.101,0,0,0,0,0,0,0,0,0,0,0,0,0,0,0,0,
232,-6.56,-4.436,-21.95,-23.62,-17.62,-18.37,-20.41,-13.39,-3.599,-3.962,-3.907,-3.449,-0.3834,-3.224,-5.801,-7.448,0,0,0,0,0,0,0,0,0,0,0,0,0,0,0,0,
233,-9.766,-2.732,-20.01,-20.32,-17.33,-18.45,-18.09,-12.43,-2.605,-10.77,-0.058,0.3436,0.1575,-3.336,-4.628,-6.685,0,0,0,0,0,0,0,0,0,0,0,0,0,0,0,0,
234,-4.804,-1.037,-15.37,-15.04,-13.81,-13.16,-16.12,-14.05,-0.6644,-7.366,-0.3523,-0.4071,-1.179,-5.288,-4.762,-6.821,0,0,0,0,0,0,0,0,0,0,0,0,0,0,0,0,
235,-5.946,-4.35,-12.86,-16.17,-11.83,-11,-17.58,-17.96,-4.117,-6.295,-4.817,-6.209,-4.997,-5.041,-7.846,-7.528,0,0,0,0,0,0,0,0,0,0,0,0,0,0,0,0,
236,-9.244,-9.21,-10.85,-15.33,-8.166,-9.858,-15.78,-15.5,-6.848,-8.25,-5.45,-7.127,-6.425,-3.594,-7.922,-6.553,0,0,0,0,0,0,0,0,0,0,0,0,0,0,0,0,
237,-8.685,-7.144,-8.296,-8.518,-4.113,-6.586,-8.961,-9.62,-4.617,-6.407,-0.4663,-6.082,-6.291,-6.979,-6.778,-7.958,0,0,0,0,0,0,0,0,0,0,0,0,0,0,0,0,
238,-7.299,-5.626,-5.292,-4.847,-1.654,-2.084,-3.014,-5.378,-1.931,-8.222,2.468,-5.39,-7.85,-9.716,-5.945,-8.265,0,0,0,0,0,0,0,0,0,0,0,0,0,0,0,0,
239,-2.413,-7.933,0.7866,-1.474,2.468,4.458,1.084,0.1962,-2.25,-5.66,-2.216,-2.795,-10.83,-10.09,-5.67,-7.937,0,0,0,0,0,0,0,0,0,0,0,0,0,0,0,0,
240,1.349,-9.616,2.577,2.102,3.391,5.993,0.3732,1.208,-4.906,1.569,-7.465,-7.089,-19.17,-14.73,-11.53,-15.92,0,0,0,0,0,0,0,0,0,0,0,0,0,0,0,0,
241,-6.4,-16.68,-3.539,-2.984,-3.186,-2.668,-7.171,-5.239,-7.518,-8.462,-7.406,-17.02,-28.9,-18.21,-18.01,-22.28,0,0,0,0,0,0,0,0,0,0,0,0,0,0,0,0,
242,-15.3,-23.88,-5.845,-7.437,-6.815,-8.492,-10.01,-5.972,-6.446,-23.8,-5.346,-17.18,-28.93,-15.14,-15.15,-18.18,0,0,0,0,0,0,0,0,0,0,0,0,0,0,0,0,
243,-10.42,-16.85,-0.8254,-1.75,-1.922,-4.033,-4.252,0.6889,0.8052,-17.16,2.35,-6.602,-19.72,-9.305,-9.311,-12.74,0,0,0,0,0,0,0,0,0,0,0,0,0,0,0,0,
244,0.0775,-4.714,2.529,1.669,1.497,-0.7994,-2.514,3.141,7.297,-4.767,12.13,3.14,-8.168,-3.741,-6.629,-9.114,0,0,0,0,0,0,0,0,0,0,0,0,0,0,0,0,
245,3.106,0.4775,-0.7908,-1.917,-1.727,-2.905,-4.924,1.94,3.417,-6.949,6.718,5.488,0.3676,-2.584,-3.723,-6.765,0,0,0,0,0,0,0,0,0,0,0,0,0,0,0,0,
246,1.582,3.173,-3.433,-1.986,-4.132,-2.553,-2.005,3.564,-2.863,-7.955,-5.013,2.629,1.777,-6.609,-3.163,-6.803,0,0,0,0,0,0,0,0,0,0,0,0,0,0,0,0,
247,0.7436,1.487,0.368,2.207,-1.656,0.3945,2.049,6.67,-1.462,0.0109,-6.009,-1.802,-3.699,-10.76,-7.501,-7.349,0,0,0,0,0,0,0,0,0,0,0,0,0,0,0,0,
248,-0.8873,-5.412,1.242,4.299,1.111,2.521,2.495,6.204,-0.9391,-0.4718,-6.604,-6.491,-9.807,-11.28,-10.38,-7.964,0,0,0,0,0,0,0,0,0,0,0,0,0,0,0,0,
249,-1.352,-7.783,-1.823,3.623,2.045,4.209,1.888,-0.546,-4.336,-11.61,-9.071,-8.573,-11.56,-9.235,-10.34,-8.33,0,0,0,0,0,0,0,0,0,0,0,0,0,0,0,0,
250,-0.2527,-9.27,-0.5278,1.195,2.665,2.081,-2.161,-7.8,-4.494,-19.38,-7.791,-11.19,-14.96,-10.83,-13,-10.54,0,0,0,0,0,0,0,0,0,0,0,0,0,0,0,0,
251,-3.871,-16.34,0.9408,-1.235,2.529,-3.304,-7.108,-6.969,-4.851,-21.61,-11.35,-18.23,-21.64,-12.69,-15.76,-13.25,0,0,0,0,0,0,0,0,0,0,0,0,0,0,0,0,
252,-9.102,-18.09,2.396,-0.5847,2.793,-2.838,-4.242,-1.212,-5.372,-20.51,-14.11,-19.9,-21.09,-6.86,-11.99,-10.28,0,0,0,0,0,0,0,0,0,0,0,0,0,0,0,0,
253,-7.223,-11.14,7.316,2.358,5.947,2.395,1.462,1.907,-0.1099,-15.43,-6.69,-13.22,-15.71,-4.455,-6.657,-7.393,0,0,0,0,0,0,0,0,0,0,0,0,0,0,0,0,
254,-2.737,-6.975,7.023,2.712,6.669,1.578,-0.1663,0.8957,2.135,-11.37,-0.3684,-8.682,-13.45,-10.21,-6.155,-8.416,0,0,0,0,0,0,0,0,0,0,0,0,0,0,0,0,
255,-2.144,-6.33,-2.388,-2.75,-1.943,-4.914,-5.381,-4.698,-3.76,-9.274,0.46,-5.122,-7.183,-7.619,-4.064,-4.329,0,0,0,0,0,0,0,0,0,0,0,0,0,0,0,0,
256,-0.2216,0.2059,-12.68,-8.579,-11.79,-7.27,-5.734,-9.71,-6.128,-6.945,4.307,3.397,3.953,2.918,2.192,3.549,0,0,0,0,0,0,0,0,0,0,0,0,0,0,0,0,
257,5.244,9.569,-14.45,-8.459,-13.06,-5.034,-4.025,-7.62,-3.25,-7.976,12.15,10.67,8.499,6.25,4.269,6.124,0,0,0,0,0,0,0,0,0,0,0,0,0,0,0,0,
258,7.624,9.818,-9.001,-8.059,-12.3,-5.281,-6.58,-4.877,-2.377,-4.856,16.92,11.79,6.229,3.257,3.896,4.35,0,0,0,0,0,0,0,0,0,0,0,0,0,0,0,0,
259,7.481,5.366,-5.88,-9.076,-12.11,-4.877,-7.774,-5.376,-2.192,6.248,11.47,10.26,6.222,2.401,6.175,4.319,0,0,0,0,0,0,0,0,0,0,0,0,0,0,0,0,
260,9.166,5.792,-4.316,-3.982,-6.922,0.9822,-3.916,-3.893,-3.045,1.688,-0.9093,6.687,6.842,3.619,4.233,4.958,0,0,0,0,0,0,0,0,0,0,0,0,0,0,0,0,
261,7.649,2.707,-1.604,1.034,-3.383,4.272,-3.454,-3.554,-4.841,-17.13,-4.937,1.568,1.929,2.236,-0.1073,2.21,0,0,0,0,0,0,0,0,0,0,0,0,0,0,0,0,
262,3.007,-3.921,-0.4737,-1.221,-4.265,2.8,-4.605,-6.05,-1.218,-16.3,3.661,0.8116,-2.748,-2.874,1.697,0.6363,0,0,0,0,0,0,0,0,0,0,0,0,0,0,0,0,
263,3.396,-2.434,1.635,-1.162,-0.869,3.111,-1.232,-4.572,3.296,-5.113,7.37,1.915,-4,-7.799,2.864,1.48,0,0,0,0,0,0,0,0,0,0,0,0,0,0,0,0,
264,4.734,-1.64,2.274,2.908,2.532,1.06,-1.627,-0.1579,1.401,-7.444,0.0469,-2.012,-6.989,-7.56,0.1725,0.3666,0,0,0,0,0,0,0,0,0,0,0,0,0,0,0,0,
265,0.4656,-6.498,-2.229,1.26,-1.062,-6.465,-7.16,0.8341,-1.283,-5.79,-2.786,-5.372,-7.638,-2.371,0.8783,1.31,0,0,0,0,0,0,0,0,0,0,0,0,0,0,0,0,
266,-3.745,-5.099,-6.006,-4.262,-5.219,-12.05,-9.525,-2.239,-1.053,1.009,1.05,-4.332,-5.319,1.384,1.561,2.636,0,0,0,0,0,0,0,0,0,0,0,0,0,0,0,0,
267,-4.424,-3.445,-7.168,-6.255,-6.429,-12.72,-10.31,-4.569,0.2354,-3.296,3.594,-3.734,-7.318,2.006,-1.704,-0.797,0,0,0,0,0,0,0,0,0,0,0,0,0,0,0,0,
268,-3.674,-7.093,-6.947,-6.514,-6.998,-10.64,-11.16,-4.092,1.382,-3.127,4.508,-2.287,-7.383,2.734,-3.371,-1.621,0,0,0,0,0,0,0,0,0,0,0,0,0,0,0,0,
269,-0.082,-3.977,-5.634,-7.986,-6.295,-7.817,-10.28,-5.421,1.72,4.204,3.167,2.747,-0.9213,1.538,-2.187,0.982,0,0,0,0,0,0,0,0,0,0,0,0,0,0,0,0,
270,6.016,1.012,-4.784,-7.439,-4.54,-6.026,-10.38,-5.821,3.452,2.143,4.461,7.21,2.296,-2.361,-1.462,0.2175,0,0,0,0,0,0,0,0,0,0,0,0,0,0,0,0,
271,7.739,-2.124,-3.412,-5.19,-3.282,-4.713,-10.33,-0.1871,2.458,-1.403,5.887,6.296,0.7542,-3.632,-1.644,-1.071,0,0,0,0,0,0,0,0,0,0,0,0,0,0,0,0,
272,3.822,-2.992,-2.421,-5.602,-2.222,-3.912,-7.962,1.669,-4.01,-5.699,-3.814,2.548,0.6678,-0.4005,-1.636,0.5385,0,0,0,0,0,0,0,0,0,0,0,0,0,0,0,0,
273,3.671,-0.3107,-1.301,-7.098,-1.865,-5.066,-7.716,-4.5,-5.145,-16.29,-10.12,1.358,-0.8822,1.402,-2.152,1.783,0,0,0,0,0,0,0,0,0,0,0,0,0,0,0,0,
274,7.25,-4.712,1.416,-6.08,-3.115,-5.79,-8.971,-6.893,-2.095,-11.75,-4.189,0.5765,-6.098,-1.748,-2.114,1.277,0,0,0,0,0,0,0,0,0,0,0,0,0,0,0,0,
275,6.619,-8.75,1.768,-1.381,-3.006,-2.425,-5.573,-1.476,-2.591,4.267,-3.24,0.0384,-6.756,-0.7522,2.282,3.678,0,0,0,0,0,0,0,0,0,0,0,0,0,0,0,0,
276,6.373,-5.016,1.062,2.896,-1.756,0.0095,-2.588,3.036,0.4978,0.7718,-3.775,1.722,-3.462,6.019,5.613,6.42,0,0,0,0,0,0,0,0,0,0,0,0,0,0,0,0,
277,5.769,-4.904,0.0558,-1.415,-5.168,-5.962,-7.769,-0.0459,2.636,-5.589,0.0861,-0.9249,-6.125,4.022,0.9906,0.9967,0,0,0,0,0,0,0,0,0,0,0,0,0,0,0,0,
278,-1.702,-8.312,-4.684,-7.861,-8.78,-11.73,-12.22,-4.79,-3.083,8.803,-1.1,-4.372,-8.392,-3.72,-3.037,-4.59,0,0,0,0,0,0,0,0,0,0,0,0,0,0,0,0,
279,-1.555,-3.707,-9.087,-6.067,-6.33,-8.079,-9.122,-3.653,-3.229,13.13,-0.6003,0.227,-3.022,-2.596,-0.224,-1.569,0,0,0,0,0,0,0,0,0,0,0,0,0,0,0,0,
280,11.52,1.605,-10.57,-3.587,-5.185,-4.362,-6.473,-2.812,1.762,-1.94,4.787,6.916,2.66,3.817,4.976,4.62,0,0,0,0,0,0,0,0,0,0,0,0,0,0,0,0,
281,21.19,2.588,-3.699,-1.092,-3.536,-1.879,-3.005,-4.214,3.451,-2.42,9.601,15.16,9.249,9.296,12.36,12.7,0,0,0,0,0,0,0,0,0,0,0,0,0,0,0,0,
282,27.71,9.327,13.08,6.745,5.659,6.137,4.006,-1.883,9.178,4.377,16.22,24.1,15.54,11.42,18.1,17.82,0,0,0,0,0,0,0,0,0,0,0,0,0,0,0,0,
283,31.32,14.09,17.92,7.505,8.816,7.714,2.858,-1.284,12.72,-3.076,14.9,20.95,12.91,8.373,15.63,15.15,0,0,0,0,0,0,0,0,0,0,0,0,0,0,0,0,
284,21.99,8.293,8.016,0.6139,1.062,-0.3321,-3.628,-3.527,6.274,-4.482,6.147,12.47,9.489,7.616,11.35,14.22,0,0,0,0,0,0,0,0,0,0,0,0,0,0,0,0,
285,10.91,5.937,4.817,0.9084,-3.159,-3.628,-3.261,-2.046,3.892,2.574,7.863,10.15,9.082,6.897,9.285,13.44,0,0,0,0,0,0,0,0,0,0,0,0,0,0,0,0,
286,4.75,4.628,3.274,3.522,-5.712,-7.563,-4.867,-2.522,3.299,-0.9103,6.631,3.827,0.6026,-2.493,3.938,6.209,0,0,0,0,0,0,0,0,0,0,0,0,0,0,0,0,
287,-6.241,-7.267,-2.57,0.8904,-11.43,-17.22,-11.9,-5.707,-6.614,-4.095,-10.27,-5.713,-9.879,-8.469,-1.197,1.425,0,0,0,0,0,0,0,0,0,0,0,0,0,0,0,0,
288,-12.34,-14.54,-1.925,-0.0896,-10.17,-16.07,-10.96,-3.545,-9.642,-0.9921,-18.41,-8.061,-12.1,-3.805,-2.283,-0.2821,0,0,0,0,0,0,0,0,0,0,0,0,0,0,0,0,
289,-7.729,-12.22,-0.7114,1.506,-3.865,-7.026,-5.305,-0.249,0.4222,-1.137,-13.16,-10.44,-13.49,-2.606,-5.466,-5.283,0,0,0,0,0,0,0,0,0,0,0,0,0,0,0,0,
290,-7.479,-15.45,-1.298,1.064,-2.449,-8.193,-6.239,0.2659,3.11,0.9928,-12.76,-16.56,-17.36,-6.173,-10.07,-8.852,0,0,0,0,0,0,0,0,0,0,0,0,0,0,0,0,
291,-11.7,-17.77,4.643,-0.838,-2.913,-13.24,-9.07,1.216,-3.721,3.76,-13.95,-18.69,-18.04,-3.777,-11.54,-8.663,0,0,0,0,0,0,0,0,0,0,0,0,0,0,0,0,
292,-12.28,-11.76,7.169,-0.7631,-0.8486,-10.93,-7.777,2.14,-3.101,-0.7568,-10.54,-16.29,-15.98,0.3113,-11.59,-8.245,0,0,0,0,0,0,0,0,0,0,0,0,0,0,0,0,
293,-8.476,-7.043,3.457,4.168,4.719,-5.707,-4.129,4.975,7.33,-2.621,-4.924,-9.065,-10.73,-1.006,-8.265,-6.147,0,0,0,0,0,0,0,0,0,0,0,0,0,0,0,0,
294,1.599,-0.828,7.368,8.985,11.83,-1.748,-2.164,7.062,14.48,2.799,1.406,1.713,-1.491,-4.149,-2.992,-2.602,0,0,0,0,0,0,0,0,0,0,0,0,0,0,0,0,
295,9.495,6.561,11.73,5.906,11.25,-1.604,-5.44,0.0458,11.65,2.332,2.03,6.308,2.286,-7.058,-2.828,-2.915,0,0,0,0,0,0,0,0,0,0,0,0,0,0,0,0,
296,8.333,3.845,6.043,1.437,4.827,-4.535,-8.069,-5.886,8.104,-5.292,1.632,7.055,1.294,-6.992,-2.101,-2.468,0,0,0,0,0,0,0,0,0,0,0,0,0,0,0,0,
297,8.689,1.588,3.264,5.004,5.016,-2.692,-2.6,0.8455,8.196,-1.218,4.926,10.93,6.269,-0.3581,2.723,4.003,0,0,0,0,0,0,0,0,0,0,0,0,0,0,0,0,
298,11,7.185,7.139,9.661,7.354,2.797,3.448,6.632,4.766,12.15,-0.6006,10.21,7.991,4.744,2.541,5.128,0,0,0,0,0,0,0,0,0,0,0,0,0,0,0,0,
299,8.889,6.243,8.139,8.461,4.553,4.892,3.169,2.701,3.108,8.542,-3.633,6.025,0.5715,2.872,-0.4122,-0.7577,0,0,0,0,0,0,0,0,0,0,0,0,0,0,0,0,
300,7.597,1.887,7.171,6.621,4.186,3.994,1.245,-0.4759,6.807,-3.882,6.226,3.664,-3.24,-0.3346,-1.077,-2.296,0,0,0,0,0,0,0,0,0,0,0,0,0,0,0,0,
301,4.292,2.921,4.187,5.897,5.513,0.2848,-0.8429,0.2512,2.99,-1.891,-1.268,-5.521,-4.984,-2.41,-4.655,-2.837,0,0,0,0,0,0,0,0,0,0,0,0,0,0,0,0,
302,-4.079,1.954,0.0651,4.424,2.44,-4.119,-3.157,-0.1146,-3.014,0.7132,-20.37,-14.25,-7.337,-1.804,-6.951,-3.758,0,0,0,0,0,0,0,0,0,0,0,0,0,0,0,0,
303,-5.848,1.236,1.379,4.566,0.8993,-3.517,-2.677,-1.322,2.448,-4.595,-14.09,-8.927,-3.24,0.2646,-1.974,-0.2547,0,0,0,0,0,0,0,0,0,0,0,0,0,0,0,0,
304,-0.4133,3.635,2.873,5.64,2.381,-0.4513,-1.014,-0.7033,8.331,-3.999,0.3621,-0.5564,-0.2394,-0.2648,1.635,0.4875,0,0,0,0,0,0,0,0,0,0,0,0,0,0,0,0,
305,3.489,3.692,1.347,6.274,2.55,1.841,1.23,2.082,9.659,0.1299,3.3,5.134,-0.2434,1.999,-0.267,-1.961,0,0,0,0,0,0,0,0,0,0,0,0,0,0,0,0,
306,8.451,8.813,3.951,8.836,4.29,4.81,5.583,3.854,15.07,1.827,10.41,13.12,5.673,5.694,-1.24,-1.49,0,0,0,0,0,0,0,0,0,0,0,0,0,0,0,0,
307,14.36,18.07,8.821,11.04,7.523,6.128,7.631,2.664,16.97,2.195,14.3,16.04,9.252,0.2469,-1.169,-2.325,0,0,0,0,0,0,0,0,0,0,0,0,0,0,0,0,
308,15.6,17.35,11.61,10.22,9.498,7.348,6.841,1.386,12.63,-1.065,7.886,13.37,5.648,-6.67,-1.396,-3.903,0,0,0,0,0,0,0,0,0,0,0,0,0,0,0,0,
309,16.57,14.42,13.22,11.2,12.4,13.3,9.251,2.361,12.57,-3.252,7.066,13.11,6.113,-3.069,2.168,0.0494,0,0,0,0,0,0,0,0,0,0,0,0,0,0,0,0,
310,17.23,17.31,13.5,14.14,11.49,16.17,11.47,4.55,9.028,0.4594,2.809,9.19,8.312,1.692,3.972,3.524,0,0,0,0,0,0,0,0,0,0,0,0,0,0,0,0,
311,5.952,12.13,9.465,11.73,1.265,7.706,6.683,5.001,-3.403,5.504,-9.647,-1.349,2.003,-2.765,-1.939,-1.356,0,0,0,0,0,0,0,0,0,0,0,0,0,0,0,0,
312,-9.259,1.206,0.3129,6.545,-6.19,-0.4378,2.059,3.849,-5.992,7.502,-5.144,-4.939,-3.893,-5.864,-3.677,-4.553,0,0,0,0,0,0,0,0,0,0,0,0,0,0,0,0,
313,-8.247,0.8873,-2.63,7.111,-2.339,2.479,4.382,5.29,1.472,3.208,4.021,-1.163,-1.196,0.3367,0.5407,0.8115,0,0,0,0,0,0,0,0,0,0,0,0,0,0,0,0,
314,-0.6201,3.975,2.748,9.334,-0.0333,5.291,4.809,6.716,-0.5606,-4.529,-9.595,-4.943,-2.361,1.649,-3.111,1.083,0,0,0,0,0,0,0,0,0,0,0,0,0,0,0,0,
315,-1.648,0.2088,1.708,6.892,-3.744,1.501,-0.4625,2.534,-6.221,-6.183,-19.77,-11.73,-8.788,-4.923,-9.052,-3.919,0,0,0,0,0,0,0,0,0,0,0,0,0,0,0,0,
316,-1.492,-1.227,-0.3844,4.207,-3.068,1.079,-2.321,-1.54,-2.102,-1.916,-9.884,-10.73,-9.41,-5.303,-8.003,-2.903,0,0,0,0,0,0,0,0,0,0,0,0,0,0,0,0,
317,1.148,0.0529,4.258,4.091,-0.9873,2.351,0.0777,1.173,4.098,1.248,-3.898,-9.325,-10.02,-3.567,-6.652,-2.001,0,0,0,0,0,0,0,0,0,0,0,0,0,0,0,0,
318,-1.155,-3.942,3.14,4.461,-2.671,-1.355,0.901,5.602,6.084,0.7879,-1.826,-7.226,-10.33,-3.486,-3.984,-1.147,0,0,0,0,0,0,0,0,0,0,0,0,0,0,0,0,
319,0.5727,-4.573,-0.2413,5.102,-0.7653,-2.683,0.4593,5.71,6.936,-4.52,5.055,2.166,-1.012,3.745,2.837,4.5,0,0,0,0,0,0,0,0,0,0,0,0,0,0,0,0,
320,8.489,3.472,2.725,5.287,3.385,0.2037,-0.239,4.2,9.245,-8.128,10.6,11.16,7.838,8.722,6.794,6.894,0,0,0,0,0,0,0,0,0,0,0,0,0,0,0,0,
321,13.96,10.84,4.167,5.299,3.699,2.386,-0.1103,4.437,13.45,1.186,16.43,15.96,10.73,4.373,7.194,7.867,0,0,0,0,0,0,0,0,0,0,0,0,0,0,0,0,
322,17.28,15.17,5.818,6.78,5.509,6.53,2.4,3.809,14.5,11.11,14.47,17.31,12.72,2.728,6.668,9.365,0,0,0,0,0,0,0,0,0,0,0,0,0,0,0,0,
323,18.17,15.2,10.67,7.948,10.51,10.51,3.759,1.844,12.27,2.62,2.668,12.68,7.931,2.35,5.014,5.405,0,0,0,0,0,0,0,0,0,0,0,0,0,0,0,0,
324,14.56,7.556,10.17,8.098,11.67,9.071,2.814,2.241,12.62,-7.319,1.782,7.987,-0.9104,-2.559,3.889,2.168,0,0,0,0,0,0,0,0,0,0,0,0,0,0,0,0,
325,9.858,1.068,6.24,9.237,7.766,5.497,2.227,4.162,11.63,-0.7058,5.327,5.533,-4.674,-3.108,2.765,1.401,0,0,0,0,0,0,0,0,0,0,0,0,0,0,0,0,
326,5.799,-1.181,6.534,8.807,3.986,1.149,-1.085,4.01,6.296,2.34,-2.141,-0.094,-8.179,1.005,1.355,-1.383,0,0,0,0,0,0,0,0,0,0,0,0,0,0,0,0,
327,1.669,-6.594,7.328,4.043,2.333,-5.161,-7.229,1.984,1.718,-6.759,-4.82,-6.322,-13.11,0.8807,1.173,-1.868,0,0,0,0,0,0,0,0,0,0,0,0,0,0,0,0,
328,-3.542,-9.927,4.417,-0.1828,-0.1156,-10.32,-9.453,1.456,-1.669,-5.732,-0.5458,-9.688,-13.22,-0.8292,0.436,-0.6687,0,0,0,0,0,0,0,0,0,0,0,0,0,0,0,0,
329,-8.111,-7.333,0.952,-1.198,-3.459,-13.26,-9.376,2.305,-3.858,3.869,-3.949,-10.57,-9.46,1.497,-0.6219,-0.5742,0,0,0,0,0,0,0,0,0,0,0,0,0,0,0,0,
330,-6.976,-6.853,-1.941,-3.656,-4.173,-13.63,-11.33,-1.369,-3.065,-0.0529,-4.662,-7.025,-6,4.66,0.8161,0.3591,0,0,0,0,0,0,0,0,0,0,0,0,0,0,0,0,
331,-2.538,-6.63,-3.528,-6.527,-2.99,-10.9,-11.42,-7.688,-1.997,-8.817,5.229,-1.027,-3.932,5.492,2.201,1.228,0,0,0,0,0,0,0,0,0,0,0,0,0,0,0,0,
332,-1.587,-3.587,-1.645,-4.231,-3.153,-9.444,-8.879,-6.218,-2.614,-1.203,5.908,0.6142,-4.398,5.403,-0.4459,0.8269,0,0,0,0,0,0,0,0,0,0,0,0,0,0,0,0,
333,-2.587,-2.601,-0.634,1.713,-4.008,-8.618,-5.498,1.538,-2.865,12.04,-5.923,-1.31,-4.872,6.045,-4.265,-0.6584,0,0,0,0,0,0,0,0,0,0,0,0,0,0,0,0,
334,-1.095,1.594,-1.836,5.872,-3.461,-4.112,-1.119,4.675,-0.4364,10.7,-7.576,0.647,0.577,7.131,-3.926,-0.2736,0,0,0,0,0,0,0,0,0,0,0,0,0,0,0,0,
335,2.345,10.17,-3.006,4.377,-2.642,-1.365,-0.9207,1.659,2.835,-0.2845,0.3075,5.016,7.055,7.187,0.191,3.776,0,0,0,0,0,0,0,0,0,0,0,0,0,0,0,0,
336,5.646,10.97,-6.696,0.1318,-2.976,-1.594,-3.326,-0.216,3.244,-4.714,1.506,6.618,7.516,7.93,4.537,7.259,0,0,0,0,0,0,0,0,0,0,0,0,0,0,0,0,
337,9.327,8.013,-6.063,1.912,-2.244,2.813,0.0235,1.836,2.705,1.88,1.058,8.171,8.034,10.08,7.274,9.435,0,0,0,0,0,0,0,0,0,0,0,0,0,0,0,0,
338,12.85,10.66,0.7331,6.925,-1.058,6.812,2.464,1.142,3.097,7.872,5.452,8.476,8.986,10.25,8.026,11,0,0,0,0,0,0,0,0,0,0,0,0,0,0,0,0,
339,11.02,9.277,-1.039,4.781,-3.321,3.732,-1.973,-4.227,0.2705,4.632,8.873,3.854,4.327,10.68,7.363,9.766,0,0,0,0,0,0,0,0,0,0,0,0,0,0,0,0,
340,4.413,1.393,-6.901,0.0892,-6.409,0.6668,-4.447,-5.758,-6.308,3.738,4.837,-2.703,-2.507,9.375,4.365,4.965,0,0,0,0,0,0,0,0,0,0,0,0,0,0,0,0,
341,-0.0169,-4.037,-4.39,1.946,-7.588,-1.093,-3.601,-2.231,-10.29,7.829,-7.362,-11.4,-10.58,-2.149,-2.128,-4.173,0,0,0,0,0,0,0,0,0,0,0,0,0,0,0,0,
342,-5.382,-9.232,-1.869,5.833,-9.406,-4.321,-3.06,0.2477,-10.38,1.065,-16.9,-21.28,-18.04,-12.53,-8.943,-11.75,0,0,0,0,0,0,0,0,0,0,0,0,0,0,0,0,
343,-12.36,-12.06,-3.055,6.451,-9.521,-3.05,0.0247,1.247,-12.23,-8.215,-18.44,-25.12,-15.91,-8.4,-12.44,-10.9,0,0,0,0,0,0,0,0,0,0,0,0,0,0,0,0,
344,-6.013,-3.716,-2.127,6.572,-7.082,0.029,2.412,0.9116,-13.51,-2.507,-15.73,-21.38,-6.818,0.1451,-12.93,-7.095,0,0,0,0,0,0,0,0,0,0,0,0,0,0,0,0,
345,11.5,6.857,-1.11,5.471,-7.806,-3.184,-0.6923,-2.067,-9.652,2.879,-9.008,-12.88,0.6021,6.51,-11.6,-4.284,0,0,0,0,0,0,0,0,0,0,0,0,0,0,0,0,
346,19.6,9.847,-2.545,1.678,-8.18,-5.12,-3.325,-4.644,-7.49,-1.83,-5.977,-1.922,5.806,11.44,-6.656,0.2711,0,0,0,0,0,0,0,0,0,0,0,0,0,0,0,0,
347,21.77,12.59,-1.909,2.435,-2.949,0.7277,-0.3037,-4.277,-6.042,-0.4044,-2.966,8.783,10.74,10.9,2.261,6.216,0,0,0,0,0,0,0,0,0,0,0,0,0,0,0,0,
348,29.19,15.92,2.882,7.264,-1.327,4.859,2.693,-4.864,1.544,2.239,11.44,15.56,14.57,8.806,8.049,10.77,0,0,0,0,0,0,0,0,0,0,0,0,0,0,0,0,
349,30.61,12.37,3.364,5.565,-5.914,2.624,0.1917,-9.291,4.586,-4.279,16.1,14.68,12.8,7.587,7.514,11.35,0,0,0,0,0,0,0,0,0,0,0,0,0,0,0,0,
350,22.6,6.516,0.8988,1.78,-4.909,0.5894,-2.972,-11.45,-0.5215,0.8531,3.391,8.646,5.921,3.723,5.412,9.033,0,0,0,0,0,0,0,0,0,0,0,0,0,0,0,0,
351,15.87,3.279,5.554,4.182,-0.3317,-0.0957,-2.886,-7.903,-0.9728,14.12,-1.98,0.2517,-0.9001,1.129,0.4281,3.617,0,0,0,0,0,0,0,0,0,0,0,0,0,0,0,0,
352,9.838,-2.998,6.087,5.919,-0.7657,-1.883,-3.373,-4.638,2.135,3.22,-1.803,-10.09,-9.3,-1.824,-6.617,-6.026,0,0,0,0,0,0,0,0,0,0,0,0,0,0,0,0,
353,2.001,-11.4,-1.052,4.921,-0.111,-2.958,-4.51,-3.828,2.112,-11.09,-3.649,-16.11,-18.38,-9.851,-8.281,-12.71,0,0,0,0,0,0,0,0,0,0,0,0,0,0,0,0,
354,-6.63,-14.4,0.7149,4.999,0.2549,-4.95,-4.686,-4.223,0.2977,1.817,-1.283,-18.16,-21.05,-13.56,-8.543,-13.36,0,0,0,0,0,0,0,0,0,0,0,0,0,0,0,0,
355,-16.28,-12.78,4.006,3.759,-5.578,-9.157,-6.559,-6.099,-2.413,9.76,-1.379,-20.72,-16.37,-7.851,-11.99,-11.37,0,0,0,0,0,0,0,0,0,0,0,0,0,0,0,0,
356,-19.57,-9.389,-0.3493,2.181,-5.988,-10.04,-8.665,-6.699,-3.276,-1.133,-2.247,-16.98,-7.793,-0.8374,-11.44,-5.667,0,0,0,0,0,0,0,0,0,0,0,0,0,0,0,0,
357,-14.13,-2.469,-3.597,-0.811,-3.627,-9.917,-9.477,-7.322,-4.089,-1.875,1.44,-6.41,0.9212,4.465,-5.537,1.825,0,0,0,0,0,0,0,0,0,0,0,0,0,0,0,0,
358,-8.28,4.986,-11.87,-8.145,-12.97,-14.7,-12.22,-10.43,-9.517,1.302,1.045,3.113,5.283,8.619,0.5709,6.622,0,0,0,0,0,0,0,0,0,0,0,0,0,0,0,0,
359,-2.689,6.151,-22.99,-10.6,-18.07,-16.47,-14.83,-11.07,-11.98,-2.821,1.396,10.57,3.767,7.051,6.151,6.511,0,0,0,0,0,0,0,0,0,0,0,0,0,0,0,0,
360,2.337,2.61,-17.44,-6.651,-8.386,-11.86,-14.84,-10.68,-7.148,0.6221,8.713,14.77,1.965,1.2,11.35,4.479,0,0,0,0,0,0,0,0,0,0,0,0,0,0,0,0,
361,1.246,0.969,-4.121,-8.194,-3.965,-11.18,-16.86,-14.86,-3.073,4.175,12.68,13.53,4.839,0.2682,12.69,6.63,0,0,0,0,0,0,0,0,0,0,0,0,0,0,0,0,
362,-2.766,0.33,-3.521,-11.89,-7.34,-13.82,-20.3,-18.76,-2.051,-0.1825,10.86,6.694,4.417,2.514,5.311,4.784,0,0,0,0,0,0,0,0,0,0,0,0,0,0,0,0,
363,-4.768,-3.135,-6.636,-7.649,-5.207,-11.49,-18,-17.68,-0.446,0.9112,9.338,-3.131,-3.47,-0.0403,-5.907,-5.046,0,0,0,0,0,0,0,0,0,0,0,0,0,0,0,0,
364,-6.096,-7.722,0.7274,-0.2803,-1.02,-8.132,-11.26,-13.15,2.619,3.021,8.603,-9.283,-9.713,-1.827,-9.885,-8.182,0,0,0,0,0,0,0,0,0,0,0,0,0,0,0,0,
365,-9.542,-12.64,6.524,2.878,-1.596,-9.736,-7.871,-7.553,4.966,-1.066,6.445,-14.4,-15.07,0.0111,-9.847,-7.197,0,0,0,0,0,0,0,0,0,0,0,0,0,0,0,0,
366,-16.76,-17.83,-0.9001,2.212,-4.358,-12.52,-8.044,-5.517,3.461,-1.155,4.489,-22.4,-21.41,-4.125,-13.52,-11.69,0,0,0,0,0,0,0,0,0,0,0,0,0,0,0,0,
367,-20.72,-17.08,-5.452,2.102,-3.601,-11.46,-6.761,-7.635,0.4889,2.592,4.963,-23.9,-18.81,-9.669,-15.06,-11.7,0,0,0,0,0,0,0,0,0,0,0,0,0,0,0,0,
368,-14.06,-8.632,2.102,4.498,0.706,-7.763,-4.615,-8.526,0.4967,4.696,4.164,-16.33,-8.759,-5.683,-9.915,-4.393,0,0,0,0,0,0,0,0,0,0,0,0,0,0,0,0,
369,-3.667,-0.4219,4.463,5.39,2.538,-4.592,-4.237,-7.417,2.484,8.762,5.581,-5.897,-0.1118,0.818,-3.197,1.487,0,0,0,0,0,0,0,0,0,0,0,0,0,0,0,0,
370,4.873,4.837,-1.69,5.568,2.941,-1.942,-3.222,-5.946,4.052,8.666,15.91,6.05,7.005,4.415,2.888,4.058,0,0,0,0,0,0,0,0,0,0,0,0,0,0,0,0,
371,12.83,9.795,-1.033,8.93,4.582,-0.2093,-0.9548,-3.862,3.159,-2.627,23.18,16.18,12.78,8.817,11.01,7.967,0,0,0,0,0,0,0,0,0,0,0,0,0,0,0,0,
372,16.15,11.73,2.733,8.771,3.374,-0.9534,-1.444,-4.499,1.045,-7.721,20.31,21.86,15.75,10.08,19.63,15.15,0,0,0,0,0,0,0,0,0,0,0,0,0,0,0,0,
373,14.51,8.754,-1.302,2.655,0.9199,-2.222,-4.072,-8.894,1.741,1.018,16.91,21.91,13.07,5.866,19.15,15.53,0,0,0,0,0,0,0,0,0,0,0,0,0,0,0,0,
374,11.07,2.691,-3.465,0.2124,-0.4746,-2.929,-5.456,-11.68,-0.016,-0.2596,11.41,11.88,2.735,0.1739,5.47,4.475,0,0,0,0,0,0,0,0,0,0,0,0,0,0,0,0,
375,3.233,-6.091,0.4008,2.469,-3.028,-3.86,-6.022,-11.57,-6.982,-7.942,3.404,-2.57,-8.414,-4.433,-7.7,-5.843,0,0,0,0,0,0,0,0,0,0,0,0,0,0,0,0,
376,-5.407,-12.61,-1.036,4.666,-2.952,-3.061,-4.955,-8.981,-8.262,3.444,2.499,-11.14,-13.55,-3.174,-9.722,-9.018,0,0,0,0,0,0,0,0,0,0,0,0,0,0,0,0,
377,-10.98,-10.95,-1.812,7.028,-0.5827,-2.291,-1.565,-2.549,-5.479,12.84,2.705,-16.83,-12.98,2.679,-8.371,-6.95,0,0,0,0,0,0,0,0,0,0,0,0,0,0,0,0,
378,-18.28,-5.333,5.399,7.33,-0.1572,-3.403,0.7465,1.037,-7.528,0.065,-1.772,-21.42,-7.278,4.84,-6.248,-0.3833,0,0,0,0,0,0,0,0,0,0,0,0,0,0,0,0,
379,-22.05,0.0346,5.561,4.652,1.999,-1.646,0.7545,-3.53,-6.125,-5.81,-0.8982,-16.05,2.012,4.207,2.974,7.401,0,0,0,0,0,0,0,0,0,0,0,0,0,0,0,0,
380,-15.9,6.025,-4.204,1.76,1.074,-0.8987,-1.828,-8.623,-0.7939,7.169,7.377,-1.073,10.11,5.706,13.85,14.2,0,0,0,0,0,0,0,0,0,0,0,0,0,0,0,0,
381,-7.366,10.9,-9.398,-0.6147,-7.239,-6.2,-6.284,-8.314,-0.4938,17.67,19.11,13.68,16.73,11,19.96,20.56,0,0,0,0,0,0,0,0,0,0,0,0,0,0,0,0,
382,1.974,13.98,-7.647,-0.7225,-7.788,-7.449,-7.345,-6.102,1.385,12.98,28.7,23.97,23.15,16.19,23.5,24.02,0,0,0,0,0,0,0,0,0,0,0,0,0,0,0,0,
383,10.66,13.35,-5.624,-1.67,-1.37,-5.355,-7.701,-8,3.979,-1.693,24.61,26.7,22.42,11.69,23.26,21.01,0,0,0,0,0,0,0,0,0,0,0,0,0,0,0,0,
384,9.457,7.484,-8.015,-8.218,-4.995,-9.734,-12.53,-13.33,0.5715,-4.74,15.11,22.31,15.62,4.124,20.26,16.43,0,0,0,0,0,0,0,0,0,0,0,0,0,0,0,0,
385,5.934,5.668,-12.78,-11.15,-9.325,-11.08,-12.83,-12.38,3.286,6.213,14.43,18.93,15.32,6.507,18.89,16.96,0,0,0,0,0,0,0,0,0,0,0,0,0,0,0,0,
386,8.497,9.327,-11.67,-4.753,-4.232,-6.07,-6.408,-6.14,11.73,4.41,13.45,16.39,16.56,10.28,16.4,15.83,0,0,0,0,0,0,0,0,0,0,0,0,0,0,0,0,
387,6.519,6.055,-4.7,-0.2257,-3.16,-5.808,-5.103,-6.534,10.17,-5.284,13.38,9.618,8.813,8.843,10.91,9.338,0,0,0,0,0,0,0,0,0,0,0,0,0,0,0,0,
388,-1.215,-1.887,-3.042,-2.089,-7.202,-6.121,-8.183,-9.518,2.697,-1.46,16,-0.0329,-0.1966,6.063,4.28,4.276,0,0,0,0,0,0,0,0,0,0,0,0,0,0,0,0,
389,-8.283,-5.942,-9.682,-2.753,-5.76,-4.062,-8.065,-5.849,-3.023,2.643,0.7538,-12.58,-5.638,0.1796,-1.528,0.3811,0,0,0,0,0,0,0,0,0,0,0,0,0,0,0,0,
390,-17.57,-9.717,-10.04,0.4069,-1.9,-7.308,-6.603,-2.068,-7.688,-1.028,-16.84,-22.83,-8.759,-4.01,-2.164,-1.411,0,0,0,0,0,0,0,0,0,0,0,0,0,0,0,0,
391,-24.46,-11.95,-0.9596,2.319,-1.727,-11.35,-6.152,-4.068,-7.191,-0.3263,-9.508,-22.36,-7.414,-3.181,0.7993,1.211,0,0,0,0,0,0,0,0,0,0,0,0,0,0,0,0,
392,-21.88,-8.691,-0.0245,-0.0221,-3.399,-10.22,-6.239,-7.268,-3.366,1.896,-1.209,-14.96,-4.561,-3.032,2.458,2.673,0,0,0,0,0,0,0,0,0,0,0,0,0,0,0,0,
393,-14.4,-4.737,-5.237,-2.601,-2.412,-6.981,-6.702,-7.515,-1.9,1.821,0.136,-4.748,-0.8465,-0.2467,4.417,3.202,0,0,0,0,0,0,0,0,0,0,0,0,0,0,0,0,
394,-7.143,-0.7489,-5.36,-3.945,-1.216,-5.494,-8.375,-6.61,-0.4968,4.856,12.87,5.854,5.38,5.406,6.111,4.591,0,0,0,0,0,0,0,0,0,0,0,0,0,0,0,0,
395,-3.624,3.72,-9.032,-7.115,-5.792,-9.201,-12.33,-8.205,1.073,5.483,18.26,10.18,9.151,6.574,6.341,5.489,0,0,0,0,0,0,0,0,0,0,0,0,0,0,0,0,
396,-3.938,3.147,-13.11,-8.318,-8.813,-12.14,-13.7,-10.29,1.148,-1.228,10.12,12.68,8.972,5.908,9.233,8.256,0,0,0,0,0,0,0,0,0,0,0,0,0,0,0,0,
397,-0.2571,0.4857,-7.607,-4.113,-3.005,-5.925,-8.883,-9.054,3.218,-3.268,13.56,19.37,7.914,7.1,14.09,10.81,0,0,0,0,0,0,0,0,0,0,0,0,0,0,0,0,
398,7.3,1.337,-1.999,-0.5583,2.327,2.01,-4.975,-6.716,7.131,4.487,21.44,20.85,6.296,7.968,14.58,10.15,0,0,0,0,0,0,0,0,0,0,0,0,0,0,0,0,
399,7.564,-0.6571,-2.239,-1.469,1.948,2.646,-6.167,-6.398,5.941,4.269,15.48,9.696,1.975,6.184,7.57,5.136,0,0,0,0,0,0,0,0,0,0,0,0,0,0,0,0,
400,-2.999,-6.623,-6.989,-3.09,-0.551,-1.708,-7.161,-6.847,-1.162,-6.725,2.374,-6.062,-3.693,1.63,-0.2413,-1.632,0,0,0,0,0,0,0,0,0,0,0,0,0,0,0,0,
401,-15.65,-6.878,-10.77,-1.845,-4.353,-5.853,-5.356,-5.355,-5.302,-1.42,-9.11,-14.21,-3.22,-0.4606,0.2674,1.579,0,0,0,0,0,0,0,0,0,0,0,0,0,0,0,0,
402,-20.28,-1.067,-2.768,1.837,-4.681,-5.113,-1.619,-2.976,-4.023,18.81,-14.58,-13.45,3.295,3.136,3.153,9.831,0,0,0,0,0,0,0,0,0,0,0,0,0,0,0,0,
403,-16.22,6.001,8.585,5.632,1.268,0.6095,3.265,-3.44,-3.64,17.59,-11.44,-8.906,9.405,8.671,2.802,9.402,0,0,0,0,0,0,0,0,0,0,0,0,0,0,0,0,
404,-10.97,12.18,8.975,6.345,4.871,3.972,3.96,-6.263,-4.506,-3.184,-2.175,-0.2552,13.52,9.842,8.697,9.21,0,0,0,0,0,0,0,0,0,0,0,0,0,0,0,0,
405,-8.143,9.93,4.596,2.037,1.277,0.2509,-1.54,-7.93,-2.639,-9.438,12.87,11.02,12.31,4.594,19.61,13.38,0,0,0,0,0,0,0,0,0,0,0,0,0,0,0,0,
406,-5.169,0.3532,4.109,-0.6081,-2.046,-3.928,-3.744,-6.203,1.811,-3.778,27.03,19.25,8.887,1.948,23.4,13.94,0,0,0,0,0,0,0,0,0,0,0,0,0,0,0,0,
407,-0.9968,-2.293,6.714,4.612,0.9481,-1.579,0.4155,-2.385,4.394,-3.372,24.28,21.53,10.96,6.033,19.73,11.92,0,0,0,0,0,0,0,0,0,0,0,0,0,0,0,0,
408,1.939,2.869,8.724,8.761,4.414,1.042,1.815,-1.163,1.955,4.488,9.977,17.67,11.73,8.901,13.51,7.431,0,0,0,0,0,0,0,0,0,0,0,0,0,0,0,0,
409,2.774,6.017,9.477,6.578,3.724,0.3299,1.655,-0.5462,0.4149,19.01,6.467,13.7,8.483,10.5,9.591,4.324,0,0,0,0,0,0,0,0,0,0,0,0,0,0,0,0,
410,5.306,7.2,10.49,6.99,6.531,4.812,6.592,3.288,4.514,14.91,9.196,13.47,9.062,11.4,10.27,7.255,0,0,0,0,0,0,0,0,0,0,0,0,0,0,0,0,
411,9.425,8.653,10.44,10.17,12.38,10.92,9.423,3.256,7.741,-0.2696,4.188,9.758,9.114,6.051,6.963,6.193,0,0,0,0,0,0,0,0,0,0,0,0,0,0,0,0,
412,6.586,6.956,10.88,10.24,10.48,7.719,5.669,-0.9026,6.074,-3.333,-0.3524,-0.3368,2.588,-0.0639,-3.776,-2.288,0,0,0,0,0,0,0,0,0,0,0,0,0,0,0,0,
413,-3.61,2.062,12.3,10.53,6.047,2.526,3.339,-0.4062,2.248,0.2465,-4.701,-10.83,-5.497,-1.096,-10.74,-8.086,0,0,0,0,0,0,0,0,0,0,0,0,0,0,0,0,
414,-10.66,-1.355,10.66,11.09,6.743,2.072,3.257,-0.0123,-0.9047,3.934,-13.43,-16.66,-9.958,-1.181,-7.813,-6.406,0,0,0,0,0,0,0,0,0,0,0,0,0,0,0,0,
415,-13.93,-3.877,8.626,7.438,5.497,-1.489,-0.2703,-4.019,-1.381,8.22,-12.12,-17.13,-11.88,-1.637,-2.181,-2.242,0,0,0,0,0,0,0,0,0,0,0,0,0,0,0,0,
416,-17.42,-9.663,7.837,2.715,3.589,-6.161,-5.215,-6.177,-1.331,3.135,-4.083,-15.59,-13.85,-2.83,-1.606,-2.516,0,0,0,0,0,0,0,0,0,0,0,0,0,0,0,0,
417,-14.4,-14.35,6.184,1.104,6.01,-2.955,-6.382,-7.416,-1.228,-8.704,-2.625,-10.6,-11.91,-5.676,-1.801,-2.556,0,0,0,0,0,0,0,0,0,0,0,0,0,0,0,0,
418,-3.215,-10.87,8.717,3.991,7.474,3.947,-1.738,-7.307,2.143,-9.325,5.528,1.825,-3.744,-6.205,6.488,4.67,0,0,0,0,0,0,0,0,0,0,0,0,0,0,0,0,
419,6.626,-2.501,15.81,10.98,9.439,7.831,5.441,-2.127,4.313,3.884,19.56,14.71,3.714,-3.437,17.53,12.67,0,0,0,0,0,0,0,0,0,0,0,0,0,0,0,0,
420,10.13,2.444,17.77,13.78,11.75,7.369,6.37,0.2104,1.676,14.99,15.81,18.84,7.004,-0.1327,20.27,16.15,0,0,0,0,0,0,0,0,0,0,0,0,0,0,0,0,
421,8.704,3.095,13.02,8.98,7.994,3.552,1.468,-1.779,1.063,12.56,3.385,17.19,9.542,6.159,19.76,18.37,0,0,0,0,0,0,0,0,0,0,0,0,0,0,0,0,
422,8.135,5.758,11.68,7.625,6.979,4.369,2.385,1.032,5.023,3.498,5.714,17.42,12.19,13.22,20.68,19.52,0,0,0,0,0,0,0,0,0,0,0,0,0,0,0,0,
423,11.75,8.669,15.23,11.7,12.48,11.67,8.248,4.46,6.973,-1.251,10.19,16.02,9.434,8.391,14.68,14.06,0,0,0,0,0,0,0,0,0,0,0,0,0,0,0,0,
424,10.58,4.209,15.11,11.54,12.76,14.13,8.569,1.565,3.144,-0.3156,1.514,5.244,-0.2654,-4.335,2.336,2.077,0,0,0,0,0,0,0,0,0,0,0,0,0,0,0,0,
425,1.101,-0.5433,13.84,8.602,10.37,10.58,6.139,-1.234,-2.033,3.799,-6.365,-8.062,-6.533,-5.348,-5.688,-4.894,0,0,0,0,0,0,0,0,0,0,0,0,0,0,0,0,
426,-5.867,1.353,13.44,8.907,9.869,8.113,6.967,1.214,-3.189,4.38,-7.228,-14.63,-6.635,0.2318,-8.375,-3.348,0,0,0,0,0,0,0,0,0,0,0,0,0,0,0,0,
427,-7.267,0.9906,8.01,10.28,5.629,5.873,7.425,4.428,-2.273,-2.287,-7.909,-15.45,-7.06,-1.799,-8.219,-1.667,0,0,0,0,0,0,0,0,0,0,0,0,0,0,0,0,
428,-5.927,-0.8735,7.164,10.43,3.993,5.798,6.807,3.356,-2.322,-6.439,-5.659,-9.831,-3.847,-1.674,-3.563,-0.0459,0,0,0,0,0,0,0,0,0,0,0,0,0,0,0,0,
429,0.7655,3.004,14.68,10.4,8.258,9.656,7.395,-0.0653,-1.64,-2.454,-3.247,0.1575,2.558,2.498,1.546,3.191,0,0,0,0,0,0,0,0,0,0,0,0,0,0,0,0,
430,7.724,5.024,15,10.46,6.845,9.145,5.797,-1.532,0.0862,1.936,-1.204,7.605,3.978,-1.266,2.66,4.266,0,0,0,0,0,0,0,0,0,0,0,0,0,0,0,0,
431,7.526,2.335,9.933,9.44,1.384,4.234,2.936,-1.281,1.359,-0.6163,8.034,13,4.134,-5.607,4.466,3.907,0,0,0,0,0,0,0,0,0,0,0,0,0,0,0,0,
432,5.779,1.716,10.24,8.267,1.047,3.373,4.84,-0.3869,-0.2318,-8.614,12.29,16.56,5.423,-3.722,8.238,3.584,0,0,0,0,0,0,0,0,0,0,0,0,0,0,0,0,
433,5.445,0.7082,10.02,7.103,-0.2895,3.172,5.762,-1.406,-7.77,-10.33,5.403,13.45,1.862,-4.287,6.185,0.3771,0,0,0,0,0,0,0,0,0,0,0,0,0,0,0,0,
434,0.2707,-3.343,3.732,1.705,-6.249,-1.345,-1.481,-6.198,-14.52,-1.522,0.4253,3.356,-4.779,-4.987,-2.602,-6.358,0,0,0,0,0,0,0,0,0,0,0,0,0,0,0,0,
435,-8.438,-6.779,-2.337,-4.349,-8.39,-5.264,-6.713,-6.831,-11.66,2.955,-6.485,-7.771,-8.333,-1.575,-9.401,-10.1,0,0,0,0,0,0,0,0,0,0,0,0,0,0,0,0,
436,-15.64,-9.845,-2.972,-3.692,-8.217,-8.266,-4.165,-1.314,-7.847,0.3032,-14.04,-14.02,-8.912,-1.541,-11.39,-7.855,0,0,0,0,0,0,0,0,0,0,0,0,0,0,0,0,
437,-20.11,-10.93,-2.039,-0.7638,-10.15,-10.73,-1.911,0.5471,-10.97,6.22,-11.74,-17.72,-9.217,-3.349,-13.26,-6.801,0,0,0,0,0,0,0,0,0,0,0,0,0,0,0,0,
438,-18.84,-5.5,0.2454,2.092,-5.356,-5.726,0.5836,0.0093,-12.13,13.47,-14.84,-23.22,-9.897,-1.974,-17.33,-8.885,0,0,0,0,0,0,0,0,0,0,0,0,0,0,0,0,
439,-16.85,-1.85,4.259,5.033,2.029,-0.3029,2.077,-0.2672,-9.561,2.848,-25.77,-27.99,-13.76,-2.824,-21.18,-11.47,0,0,0,0,0,0,0,0,0,0,0,0,0,0,0,0,
440,-21.71,-9.802,0.7729,2.303,-2.003,-5.381,-3.612,-5.065,-9.342,-11.96,-21.95,-27.22,-19.12,-4.193,-18,-12.49,0,0,0,0,0,0,0,0,0,0,0,0,0,0,0,0,
441,-21.13,-17.03,-1.867,1.464,-6.297,-7.727,-4.661,-6.291,-8.344,-12.03,-6.915,-16.53,-15.77,-1.169,-6.026,-6.018,0,0,0,0,0,0,0,0,0,0,0,0,0,0,0,0,
442,-8.557,-11.99,8.537,8.966,-1.197,-0.3354,3.684,-0.4495,-5.905,-7.331,3.07,-1.682,-8.132,-1.414,1.438,-0.2041,0,0,0,0,0,0,0,0,0,0,0,0,0,0,0,0,
443,-1.297,-6.548,14.72,12.31,2.454,3.794,6.628,0.8642,-3.777,-5.78,8.429,3.822,-7.521,-6.242,-2.571,-4.97,0,0,0,0,0,0,0,0,0,0,0,0,0,0,0,0,
444,-2.849,-6.374,11.26,9.905,5.49,4.573,4.814,-0.3091,0.4912,-3.081,8.646,2.714,-5.821,-5.838,-3.955,-6.398,0,0,0,0,0,0,0,0,0,0,0,0,0,0,0,0,
445,-2.948,-2.16,10.21,8.257,8.631,4.97,4.731,1.036,1.934,2.359,2.705,4.486,0.622,-0.8021,3.715,-0.3467,0,0,0,0,0,0,0,0,0,0,0,0,0,0,0,0,
446,-2.421,3.895,8.025,6.114,4.314,2.201,4.271,1.201,-0.3666,10.73,2.438,6.988,2.542,-0.0633,7.533,0.4906,0,0,0,0,0,0,0,0,0,0,0,0,0,0,0,0,
447,-1.379,4.567,7.979,9.095,3.042,4.89,8.125,5.248,-0.116,9.718,8.591,4.914,0.0053,-5.545,0.236,-3.715,0,0,0,0,0,0,0,0,0,0,0,0,0,0,0,0,
448,-3.662,1.075,13.87,15.39,7.935,11.19,12.63,10.79,-3.426,-4.753,-0.3123,-6.54,-5.311,-9.108,-10.84,-8.832,0,0,0,0,0,0,0,0,0,0,0,0,0,0,0,0,
449,-16.41,-4.628,12.65,11.63,4.171,7.599,7.396,6.49,-10.92,-7.606,-21.21,-22.04,-12.11,-5.165,-16.96,-12.61,0,0,0,0,0,0,0,0,0,0,0,0,0,0,0,0,
450,-25.85,-9.135,4.364,2.704,-2.623,-0.5694,-0.348,-0.4068,-10.78,1.438,-25.98,-28.28,-15.44,-1.539,-18.04,-13.28,0,0,0,0,0,0,0,0,0,0,0,0,0,0,0,0,
451,-23.2,-10.01,0.8564,1.137,-0.4514,-4.183,-2.606,-1.105,-5.28,0.0351,-19.91,-27.75,-17.01,-2.631,-17.14,-13.9,0,0,0,0,0,0,0,0,0,0,0,0,0,0,0,0,
452,-21.23,-10.21,5.472,5.535,4.571,-3.855,-1.063,-0.3883,-0.1241,-1.588,-15.85,-24.69,-18.23,-3.544,-12.24,-12.88,0,0,0,0,0,0,0,0,0,0,0,0,0,0,0,0,
453,-18.27,-10.27,11.68,8.85,6.616,-0.6266,2.242,0.6933,5.316,3.153,-3.183,-13.77,-17.28,-7.93,-6.317,-10.94,0,0,0,0,0,0,0,0,0,0,0,0,0,0,0,0,
454,-8.726,-10.3,9.666,6.409,4.198,-0.8441,1.582,1.702,4.478,1.971,4.369,-2.764,-14.85,-16.12,-5.877,-11.82,0,0,0,0,0,0,0,0,0,0,0,0,0,0,0,0,
455,-5.204,-10.27,3.262,1.811,-1.468,-5.84,-2.349,-0.3663,-1.656,2.317,-2.579,0.6205,-8.786,-15.35,-4.523,-8.693,0,0,0,0,0,0,0,0,0,0,0,0,0,0,0,0,
456,-8.357,-4.885,1.264,1.546,-2.799,-5.796,-1.289,-2.003,-2.373,5.136,2.499,3.783,-0.0265,-4.744,1.532,-1.273,0,0,0,0,0,0,0,0,0,0,0,0,0,0,0,0,
457,-7.356,3.436,1.585,2.372,-0.26,-1.629,2.071,-0.5284,-0.1656,1.052,9.44,5.943,4.68,2.996,2.475,1.183,0,0,0,0,0,0,0,0,0,0,0,0,0,0,0,0,
458,-6.475,5.352,1.77,0.1571,-1.272,-2.229,0.8266,0.3444,-1.748,0.5449,-4.027,1.113,3.784,3.685,-1.251,0.3654,0,0,0,0,0,0,0,0,0,0,0,0,0,0,0,0,
459,-10.09,2.144,0.3911,-2.69,-4.189,-6.465,-4.159,-3.015,-3.57,4.468,-10.6,-4.721,0.0262,3.083,-2.772,0.0482,0,0,0,0,0,0,0,0,0,0,0,0,0,0,0,0,
460,-14.14,-2.085,-2.079,-3.6,-5.259,-9.453,-7.925,-7.59,-2.859,0.7508,-6.639,-7.674,-4.854,4.251,-5.239,-3.24,0,0,0,0,0,0,0,0,0,0,0,0,0,0,0,0,
461,-20.33,-6.547,-1.8,-1.834,-6.404,-10.27,-5.793,-6.162,-2.57,-2.853,-16.95,-11.43,-9.19,3.537,-8.86,-8.533,0,0,0,0,0,0,0,0,0,0,0,0,0,0,0,0,
462,-27.22,-6.888,-1.803,-0.1904,-7.269,-8.747,-0.8737,-1.5,-5.235,1.752,-24.85,-16.28,-12.73,0.4724,-12.03,-12.08,0,0,0,0,0,0,0,0,0,0,0,0,0,0,0,0,
463,-26.79,-5.687,-2.903,-0.5504,-5.106,-5.02,0.6724,-1.637,-8.612,4.365,-20.01,-21.26,-17.64,-0.3553,-16.24,-15.18,0,0,0,0,0,0,0,0,0,0,0,0,0,0,0,0,
464,-20.59,-10.23,-0.2781,0.0748,-1.864,-1.785,-0.0661,-3.337,-6.308,0.5554,-19.75,-23.48,-21.29,-0.9016,-16,-15.62,0,0,0,0,0,0,0,0,0,0,0,0,0,0,0,0,
465,-13.81,-13.77,1.121,-0.221,-2.336,-2.091,-1.791,-2.526,0.3554,0.209,-15.66,-18.15,-17.21,-4.104,-11.75,-9.948,0,0,0,0,0,0,0,0,0,0,0,0,0,0,0,0,
466,-6.727,-8.299,-2.241,-2.553,-5.963,-4.09,-2.659,-1.205,1.06,4.106,-1.646,-8.219,-8.674,-4.247,-9.052,-3.938,0,0,0,0,0,0,0,0,0,0,0,0,0,0,0,0,
467,-2.687,-0.4807,-0.7138,0.6835,-6.449,-3.475,1.612,1.389,-2.701,3.486,4.639,2.378,-1.099,-0.7947,-1.101,1.125,0,0,0,0,0,0,0,0,0,0,0,0,0,0,0,0,
468,-1.974,4.695,6.015,6.568,-2.615,-1.144,5.548,2.995,-0.2288,3.289,3.79,12.89,7.445,0.0936,10.27,7.73,0,0,0,0,0,0,0,0,0,0,0,0,0,0,0,0,
469,1.04,10.97,5.915,5.755,0.0863,0.0153,4.256,1.205,4.67,8.503,6.552,18.03,14.51,3.661,14.15,10.85,0,0,0,0,0,0,0,0,0,0,0,0,0,0,0,0,
470,5.152,16.63,3.503,5.099,0.7965,2.285,5.572,1.755,2.907,10.28,8.139,17.64,17.53,13.04,15.47,12.92,0,0,0,0,0,0,0,0,0,0,0,0,0,0,0,0,
471,5.974,15.05,7.45,9.224,1.347,5.836,9.104,3.941,-1.94,6.899,4.666,14.81,15.64,13.27,14.57,13.91,0,0,0,0,0,0,0,0,0,0,0,0,0,0,0,0,
472,3.149,5.593,7.315,9.586,0.6859,5.325,6.334,1.456,-3.867,1.267,1.365,5.832,4.88,2.917,5.349,6.505,0,0,0,0,0,0,0,0,0,0,0,0,0,0,0,0,
473,-2.415,-5.387,3.868,7.735,1.074,2.918,3.196,-1.201,-4.209,-5.273,-4.368,-6.995,-5.482,0.148,-1.696,1.912,0,0,0,0,0,0,0,0,0,0,0,0,0,0,0,0,
474,-9.402,-10.5,7.787,8.751,2.385,2.717,4.995,0.7134,-7.672,-5.656,-19.32,-18.77,-8.049,3.376,-4.069,3.279,0,0,0,0,0,0,0,0,0,0,0,0,0,0,0,0,
475,-20.06,-11.03,8.588,6.678,-1.665,-2,2.281,1.605,-14.16,-1.999,-28.96,-27.79,-13.53,-0.6552,-8.979,-3.125,0,0,0,0,0,0,0,0,0,0,0,0,0,0,0,0,
476,-31.27,-13.34,2.397,2.033,-7.734,-9.848,-4.255,-2.019,-15.69,-0.5797,-17.23,-23.08,-18.03,-6.874,-5.423,-6.936,0,0,0,0,0,0,0,0,0,0,0,0,0,0,0,0,
477,-26.3,-11.76,0.2701,2.692,-7.554,-7.987,-2.699,-5.316,-8.319,2.472,1.058,-2.71,-9.618,-6.457,8.947,0.7239,0,0,0,0,0,0,0,0,0,0,0,0,0,0,0,0,
478,-4.812,-0.6862,-0.3621,5.489,-4.758,0.3154,3.501,-4.985,0.0106,3.603,11.28,15.14,2.036,-1.694,15.96,6.075,0,0,0,0,0,0,0,0,0,0,0,0,0,0,0,0,
479,10.44,7.995,-2.184,3.336,-4.154,3.773,4.324,-4.429,1.589,-2.556,16.38,23.33,9.736,3.222,15.96,9.431,0,0,0,0,0,0,0,0,0,0,0,0,0,0,0,0,
480,15.44,9.384,0.2176,-0.0285,-1.661,5.581,3.187,-4.437,1.576,-5.723,16.78,30.29,19.93,9.572,21.82,17.93,0,0,0,0,0,0,0,0,0,0,0,0,0,0,0,0,
481,21.68,13.78,6.565,2.589,5.136,10.66,6.409,-0.9643,6.88,2.751,16.46,35.23,29.47,17.09,26.84,24.17,0,0,0,0,0,0,0,0,0,0,0,0,0,0,0,0,
482,23.74,19.96,11.89,9.64,11.39,15.99,12.89,5.137,8.412,13.21,15.03,28.93,28.95,17.64,20.64,22.24,0,0,0,0,0,0,0,0,0,0,0,0,0,0,0,0,
483,15.77,18.67,11.06,12.82,12.22,17.59,16.14,8.404,-1.058,8.666,3.911,13.31,20.94,11.26,9.482,15.99,0,0,0,0,0,0,0,0,0,0,0,0,0,0,0,0,
484,5.871,10.91,7.341,8.66,10.24,14,11.46,5.573,-8.327,-4.296,-5.385,0.7168,14.08,7.391,1.895,9.497,0,0,0,0,0,0,0,0,0,0,0,0,0,0,0,0,
485,-0.9094,4.861,8.383,5.292,11.46,11.47,7.836,1.268,-5.614,-2.614,-3.598,-5.766,7.805,5.218,-1.665,2.932,0,0,0,0,0,0,0,0,0,0,0,0,0,0,0,0,
486,-4.473,4.545,12.59,9.215,14.06,14.47,12.65,4.106,-2.178,5.361,-6.269,-13.52,-2.474,1.718,-4.66,-3.58,0,0,0,0,0,0,0,0,0,0,0,0,0,0,0,0,
487,-8.38,2.108,15.16,12.58,11.08,13.52,14.03,9.863,-2.984,2.874,-15.81,-25.25,-15.36,-2.38,-11.83,-12.41,0,0,0,0,0,0,0,0,0,0,0,0,0,0,0,0,
488,-17.6,-6.141,13.74,10.25,4.927,5.418,8.035,8.759,-5.508,3.672,-21.19,-33.98,-25.02,-8.869,-21.43,-23.45,0,0,0,0,0,0,0,0,0,0,0,0,0,0,0,0,
489,-24.75,-9.576,9.603,7.818,3.676,-0.2482,4.551,3.942,-7.481,6.179,-23.94,-31.17,-25.72,-13.04,-25.15,-25.76,0,0,0,0,0,0,0,0,0,0,0,0,0,0,0,0,
490,-21.8,-8.048,5.684,4.112,4.815,-3.709,1.039,-0.1903,-8.168,-2.819,-21.29,-18.01,-19.28,-11.68,-20.68,-17.31,0,0,0,0,0,0,0,0,0,0,0,0,0,0,0,0,
491,-13.21,-8.353,1.869,-1.749,3.933,-7.183,-3.454,-3.608,-7.68,-2.431,-5.699,-1.386,-9.759,-8.144,-10.24,-6.58,0,0,0,0,0,0,0,0,0,0,0,0,0,0,0,0,
492,-1.654,-3.628,1.547,-2.087,5.347,-5.119,-1.736,-4.252,-3.7,9.57,10.36,14.09,4.278,0.9043,4.116,6.395,0,0,0,0,0,0,0,0,0,0,0,0,0,0,0,0,
493,10.16,5.19,4.566,1.162,7.874,-1.259,-0.0403,-4.487,3.242,2.058,12.98,22.8,16.44,10.45,15.91,16.77,0,0,0,0,0,0,0,0,0,0,0,0,0,0,0,0,
494,15.27,5.135,3.68,1.411,7.023,-0.92,-2.332,-5.112,6.365,-14.16,12.34,23.71,18.38,8.363,20.24,17.94,0,0,0,0,0,0,0,0,0,0,0,0,0,0,0,0,
495,14.85,-0.0291,1.156,1.46,6.751,0.4531,-0.5915,-1.261,4.585,-8.372,14.97,21.44,16.61,3.436,19.07,16.68,0,0,0,0,0,0,0,0,0,0,0,0,0,0,0,0,
496,12.82,1.372,2.452,3.396,9.101,4.268,4.494,4.883,4.396,5.622,10.4,15.98,15.31,4.661,14.08,13.88,0,0,0,0,0,0,0,0,0,0,0,0,0,0,0,0,
497,9.671,4.605,8.697,6.897,13.26,10.04,9.333,8.188,5.949,6.583,1.411,5.781,7.901,1.802,5.154,4.465,0,0,0,0,0,0,0,0,0,0,0,0,0,0,0,0,
498,6.465,3.085,17.2,12.76,18.89,17.26,15.42,9.972,3.519,4.76,-4.324,-8.127,-3.601,-4.574,-5.547,-6.093,0,0,0,0,0,0,0,0,0,0,0,0,0,0,0,0,
499,0.4482,4.051,17.62,18.27,20.23,19.68,20.16,13.23,-0.8353,9.075,-14.59,-21.38,-9.508,-5.312,-13.41,-11.05,0,0,0,0,0,0,0,0,0,0,0,0,0,0,0,0,
500,-9.429,6.575,11.79,20.08,15.6,15.16,19.65,15.4,-3.213,6.192,-26.81,-27.85,-12.36,-8.107,-16.29,-12.67,0,0,0,0,0,0,0,0,0,0,0,0,0,0,0,0,
501,-16.52,-2.872,8.935,15.95,8.304,5.505,11.83,9.899,-7.195,-9.201,-26.93,-28.3,-20.24,-16,-16.67,-15.44,0,0,0,0,0,0,0,0,0,0,0,0,0,0,0,0,
502,-17.33,-17.62,3.609,6.1,-0.8344,-6.188,0.01,0.073,-10.07,-17.47,-16.94,-22.01,-23.87,-16.48,-13.37,-15.05,0,0,0,0,0,0,0,0,0,0,0,0,0,0,0,0,
503,-12.57,-18.45,-1.725,-1.94,-4.848,-8.943,-5.376,-3.615,-6.584,-8.276,-4.859,-5.228,-12.74,-9.811,-2.015,-7,0,0,0,0,0,0,0,0,0,0,0,0,0,0,0,0,
504,-3.142,-8.922,0.128,-2.841,-1.589,-3.053,-3.494,-2.718,-4.914,0.6846,7.621,12.17,1.85,-3.348,11.67,2.585,0,0,0,0,0,0,0,0,0,0,0,0,0,0,0,0,
505,5.401,-3.082,0.1387,-1.054,-1.181,-2.423,-2.68,-3.744,-7.223,-3.13,15.05,19.8,9.684,3.982,18.36,9.99,0,0,0,0,0,0,0,0,0,0,0,0,0,0,0,0,
506,9.157,-1.462,-0.899,1.061,-0.6464,-2.658,-0.5497,-3.956,-3.487,-8.733,13.71,21.23,14.59,7.612,20.46,16.15,0,0,0,0,0,0,0,0,0,0,0,0,0,0,0,0,
507,10.4,0.2353,5.246,5.299,6.344,3.945,5.01,1.033,2.827,-6.723,8.044,18.84,16.73,5.734,21.03,19.13,0,0,0,0,0,0,0,0,0,0,0,0,0,0,0,0,
508,7.698,-0.5002,8.628,6.646,7.232,4.609,4.778,6.904,2.618,-2.184,1.571,11.57,12.16,5.35,15.61,16.61,0,0,0,0,0,0,0,0,0,0,0,0,0,0,0,0,
509,0.6786,-5.583,4.108,3.568,1.058,-0.3368,1.357,6.331,1.608,1.107,-2.371,2.397,1.794,1.599,5.38,6.897,0,0,0,0,0,0,0,0,0,0,0,0,0,0,0,0,
510,-3.033,-9.304,4.277,6.337,4.426,4.41,5.983,3.969,5.242,1.739,-3.78,-7.412,-9.325,-7.579,-5.1,-5.098,0,0,0,0,0,0,0,0,0,0,0,0,0,0,0,0,
511,-4.877,-10.42,10.95,13.49,12.22,10.96,11.54,7.948,6.346,-2.373,-10.48,-19.48,-17.52,-10.61,-16.51,-14.15,0,0,0,0,0,0,0,0,0,0,0,0,0,0,0,0,
512,-13.16,-13.18,11.11,12.42,8.931,6.449,8.78,11.96,0.0194,-1.903,-17.83,-29.29,-22.95,-11.01,-26.28,-23.94,0,0,0,0,0,0,0,0,0,0,0,0,0,0,0,0,
513,-20.69,-13.99,3.905,6.95,1.082,-1.013,4.007,9.616,-6.649,5.721,-15.37,-28.16,-24.47,-17.18,-27.63,-29.66,0,0,0,0,0,0,0,0,0,0,0,0,0,0,0,0,
514,-18.7,-11.1,0.2439,4.578,-2.372,-4.67,0.309,5.571,-6.654,4.01,-10.16,-16.42,-19.85,-17.79,-18.26,-22.61,0,0,0,0,0,0,0,0,0,0,0,0,0,0,0,0,
515,-13.29,-7.792,0.5523,1.227,-4.56,-5.665,-2.609,3.907,-3.775,-3.122,-5.121,-1.377,-8.825,-7.168,-3.03,-9.446,0,0,0,0,0,0,0,0,0,0,0,0,0,0,0,0,
516,-8.204,-0.8381,-1.49,-1.119,-4.581,-3.421,-1.152,5.586,-3.018,3.437,4.19,11.94,5.345,3.082,9.233,0.9546,0,0,0,0,0,0,0,0,0,0,0,0,0,0,0,0,
517,-1.067,8.195,-3.811,1.63,-0.3216,-0.6934,1.964,8.452,-0.9927,12.62,11.98,20.14,15.23,8.779,15.17,8.027,0,0,0,0,0,0,0,0,0,0,0,0,0,0,0,0,
518,5.799,11.33,0.4748,5.291,5.25,2.333,4.873,9.009,4.04,7.891,17.24,22.58,19.11,13.36,16.36,13.6,0,0,0,0,0,0,0,0,0,0,0,0,0,0,0,0,
519,10.14,9.391,9.308,9.108,10.43,9.04,9.706,9.318,5.305,1.405,17.57,19.66,20.5,14.64,13.18,16.53,0,0,0,0,0,0,0,0,0,0,0,0,0,0,0,0,
520,11.45,6.79,13.15,13.72,11.95,14.56,11.82,10.81,-0.2285,2.817,5.665,10.59,16.82,11.44,7.772,13.06,0,0,0,0,0,0,0,0,0,0,0,0,0,0,0,0,
521,5.704,3.948,13.33,15.26,9.188,15.01,11.08,11.74,-5.833,3.787,-9.086,-2.092,6.334,6.448,0.3414,4.858,0,0,0,0,0,0,0,0,0,0,0,0,0,0,0,0,
522,-6.357,0.2942,16.46,14.23,9.919,14.74,13.68,13.77,-4.363,6.206,-14.63,-13.93,-5.84,1.867,-8.123,-3.573,0,0,0,0,0,0,0,0,0,0,0,0,0,0,0,0,
523,-13.87,-3.363,17.7,13.22,14.01,13.68,14.92,15.62,2.552,13.85,-8.418,-19.86,-14.37,-1.314,-11.19,-9.96,0,0,0,0,0,0,0,0,0,0,0,0,0,0,0,0,
524,-13.71,-6.401,13.56,9.751,12.41,8.773,8.676,11.54,5.072,9.265,-0.3769,-18.69,-18.13,-6.533,-11.66,-12.72,0,0,0,0,0,0,0,0,0,0,0,0,0,0,0,0,
525,-12.69,-9.617,8.726,4.531,8.545,5.121,2.354,4.519,3.301,-8.557,-2.963,-13.17,-16.57,-12.2,-11.68,-10.8,0,0,0,0,0,0,0,0,0,0,0,0,0,0,0,0,
526,-5.81,-7.665,5.534,3.135,10.9,7.761,2.567,2.962,9.043,-11.48,3.94,0.5262,-5.547,-8.163,-2.508,-1.887,0,0,0,0,0,0,0,0,0,0,0,0,0,0,0,0,
527,8.642,2.254,3.337,3.233,12.74,9.694,3.242,4.926,15.96,0.752,23.33,15.93,8.363,1.647,8.683,7.946,0,0,0,0,0,0,0,0,0,0,0,0,0,0,0,0,
528,13.82,8.271,3.023,1.24,9.041,6.373,1.727,5.64,12.45,5.922,19.6,17.26,12.43,4.762,10.94,9.015,0,0,0,0,0,0,0,0,0,0,0,0,0,0,0,0,
529,10.05,8.112,7.416,2.827,10.33,7.06,5.016,8.233,10.52,4.964,9.761,13.41,12.31,2.495,10.86,6.743,0,0,0,0,0,0,0,0,0,0,0,0,0,0,0,0,
530,10.98,10.23,10.13,6.324,15.81,11.06,9.276,10.8,11.48,5.516,15.58,12.47,12.51,-1.197,6.544,3.367,0,0,0,0,0,0,0,0,0,0,0,0,0,0,0,0,
531,9.104,7.987,5.003,5.134,12.82,6.874,6.526,8.934,3.506,8.277,2.252,3.686,6.288,-5.805,-4.878,-4.613,0,0,0,0,0,0,0,0,0,0,0,0,0,0,0,0,
532,1.244,-1.181,5.929,5.613,7.322,1.103,4.997,8.787,-1.473,8.928,-19.2,-6.462,-1.799,-9.544,-11.87,-9.249,0,0,0,0,0,0,0,0,0,0,0,0,0,0,0,0,
533,-3.054,-8.734,13.58,8.635,7.442,0.9229,6.797,10.6,0.2059,-3.043,-16.81,-11.59,-9.86,-12.38,-14.39,-11.38,0,0,0,0,0,0,0,0,0,0,0,0,0,0,0,0,
534,-9.874,-17.69,8.207,4.99,3.073,-4.384,0.998,6.575,-4.575,-13.34,-12.78,-19.69,-19.32,-10.82,-16.33,-15.37,0,0,0,0,0,0,0,0,0,0,0,0,0,0,0,0,
535,-19.95,-24.27,-3.016,-0.9199,-6.089,-12.71,-6.79,2.504,-6.148,-4.014,-13.04,-24.97,-20.36,-5.324,-13.41,-14.18,0,0,0,0,0,0,0,0,0,0,0,0,0,0,0,0,
536,-21.7,-18.18,-5.361,-2.238,-9.611,-13.69,-6.819,4.86,-1.86,0.7629,-9.227,-24.98,-16.39,-4.115,-12.02,-11.61,0,0,0,0,0,0,0,0,0,0,0,0,0,0,0,0,
537,-21.44,-11.84,-7.864,-3.32,-10.77,-14.88,-6.335,5.301,-5.271,-6.379,-10.57,-26.21,-17.29,-5.218,-16.74,-13.19,0,0,0,0,0,0,0,0,0,0,0,0,0,0,0,0,
538,-24.27,-13.14,-12.26,-4.064,-11.76,-17.57,-7.03,1.241,-5.83,-1.283,-8.514,-23.17,-15.71,-3.479,-20.03,-13.38,0,0,0,0,0,0,0,0,0,0,0,0,0,0,0,0,
539,-18.51,-9.4,-8.484,-0.7938,-6.056,-11.07,-2.731,0.2293,1.619,2.692,-4.905,-14.92,-7.925,-1.211,-18.63,-10.92,0,0,0,0,0,0,0,0,0,0,0,0,0,0,0,0,
540,-5.766,-2.113,0.8556,2.482,1.426,-1.835,1.367,1.66,3.048,-2.897,-10.69,-5.617,1.224,1.675,-10.82,-5.729,0,0,0,0,0,0,0,0,0,0,0,0,0,0,0,0,
541,2.119,1.516,3.972,3.003,2.642,0.1331,1.764,2.607,2.832,6.101,-10.18,4.313,9.957,3.566,0.4264,0.5638,0,0,0,0,0,0,0,0,0,0,0,0,0,0,0,0,
542,4.727,6.988,0.1881,5.144,1.379,0.8094,4.359,6.795,4.302,12.12,-2.319,8.635,14.61,0.7066,4.084,3.343,0,0,0,0,0,0,0,0,0,0,0,0,0,0,0,0,
543,5.131,11.11,0.286,8.325,1.716,4.128,8.027,10.88,1.698,0.3552,2.955,9.46,15.39,-2.107,4.379,5.981,0,0,0,0,0,0,0,0,0,0,0,0,0,0,0,0,
544,6.043,9.357,4.365,7.114,5.085,7.849,8.603,8.087,5.648,4.541,10.84,13.64,16.45,1.786,10.48,10.53,0,0,0,0,0,0,0,0,0,0,0,0,0,0,0,0,
545,8.579,6.436,6.115,4.509,11.7,10.7,7.619,4.259,14.18,13.15,10.78,10.7,12,6.548,10.89,9.825,0,0,0,0,0,0,0,0,0,0,0,0,0,0,0,0,
546,5.567,-2.539,6.719,5.066,13.31,8.3,5.298,5.408,10.3,-1.903,-0.9057,-2.38,-0.7834,1.269,1.451,1.747,0,0,0,0,0,0,0,0,0,0,0,0,0,0,0,0,
547,-3.887,-14.48,6.276,6.949,7.929,2.922,3.981,7.822,2.814,-6.273,-4.837,-10.02,-7.908,-5.798,-3.091,-3.166,0,0,0,0,0,0,0,0,0,0,0,0,0,0,0,0,
548,-9.141,-12.21,7.226,9.901,7.016,3.909,7.474,9.306,3.948,5.637,-2.013,-9.092,-4.688,-2.007,-1.427,0.3961,0,0,0,0,0,0,0,0,0,0,0,0,0,0,0,0,
549,-6.803,-1.694,11.74,12.54,11.59,8.537,10.49,10.1,7.676,1.259,4.229,-4.447,-2.027,2.659,0.7895,3.534,0,0,0,0,0,0,0,0,0,0,0,0,0,0,0,0,
550,-0.7799,3.94,13.3,11.62,13.27,9.399,8.18,9.738,12.32,-0.7701,18.02,4.27,2.008,3.845,4.792,4.672,0,0,0,0,0,0,0,0,0,0,0,0,0,0,0,0,
551,5.181,9.034,9.98,7.962,11.95,7.528,3.752,8.15,14.82,8.609,17.61,8.367,8.685,8.406,4.435,6.033,0,0,0,0,0,0,0,0,0,0,0,0,0,0,0,0,
552,7.183,10.79,4.731,2.541,10.75,5.11,0.7983,5.443,10.57,5.677,3.088,5.947,8.669,7.893,0.3571,3.158,0,0,0,0,0,0,0,0,0,0,0,0,0,0,0,0,
553,8.596,8.424,2.902,0.1429,12.44,5.041,2.228,5.482,8.316,7.964,5.814,10.37,8.97,1.243,3.458,2.174,0,0,0,0,0,0,0,0,0,0,0,0,0,0,0,0,
554,12.52,11.31,8.762,5.411,16.47,8.486,6.784,11,8.968,19.97,12.69,15.91,13.07,-1.952,7.765,5.038,0,0,0,0,0,0,0,0,0,0,0,0,0,0,0,0,
555,12.67,12.36,13.06,11.14,17.6,11.69,10.02,16.26,6.318,12.73,4.986,11.51,9.593,-3.779,4.889,2.134,0,0,0,0,0,0,0,0,0,0,0,0,0,0,0,0,
556,10.28,6.495,13.19,13.09,18.04,14.55,12.57,16.35,6.965,6.292,4.538,6.695,4.063,-2.47,-0.6792,-2.974,0,0,0,0,0,0,0,0,0,0,0,0,0,0,0,0,
557,10.53,2.576,15.72,14.11,20.07,15.46,13.04,14.49,10.21,16.44,5.75,1.811,1.84,1.204,-7.444,-6.386,0,0,0,0,0,0,0,0,0,0,0,0,0,0,0,0,
558,6.564,-1.988,14.29,11.92,17.84,10.24,8.736,14.31,7.735,9.838,-7.273,-7.937,-3.371,-2.925,-12.11,-9.941,0,0,0,0,0,0,0,0,0,0,0,0,0,0,0,0,
559,-2.376,-7.181,8.344,8.33,13.07,4.395,4.518,12.72,4.955,-7.054,-11.94,-12.38,-6.615,-7.917,-11.69,-10.16,0,0,0,0,0,0,0,0,0,0,0,0,0,0,0,0,
560,-7.26,-4.691,4.011,5.207,9.997,1.573,0.7869,6.982,4.964,-5.205,-6.187,-12.9,-5.484,-5.073,-12.99,-9.191,0,0,0,0,0,0,0,0,0,0,0,0,0,0,0,0,
561,-10.3,-1.746,-2.184,-3.382,4.548,-3.446,-6.973,2.164,2.276,2.132,-8.66,-17.65,-6.076,-1.633,-16.48,-8.741,0,0,0,0,0,0,0,0,0,0,0,0,0,0,0,0,
562,-14.54,-4.777,-7.835,-12.22,-2.035,-9.099,-13.06,1.202,-1.083,6.545,-7.945,-19.26,-7.801,0.4764,-17.08,-8.103,0,0,0,0,0,0,0,0,0,0,0,0,0,0,0,0,
563,-12.45,-5.616,-9.404,-11.35,-3.383,-9.775,-10.94,1.708,-0.1751,13.44,3.011,-12.4,-6.644,2.813,-13.88,-9.013,0,0,0,0,0,0,0,0,0,0,0,0,0,0,0,0,
564,-4.561,-1.526,-9.451,-6.085,-0.4573,-6.244,-5.045,4.445,3.767,10.58,5.952,-2.689,-0.1055,2.668,-7.01,-6.284,0,0,0,0,0,0,0,0,0,0,0,0,0,0,0,0,
565,1.164,3.067,-6.549,-2.557,2.124,-1.409,-0.6232,8.412,4.641,-0.0702,-2.703,3.451,7.41,2.127,-2.844,-1.839,0,0,0,0,0,0,0,0,0,0,0,0,0,0,0,0,
566,5.912,7.228,-3.386,-0.1721,3.439,3.573,2.565,9.707,1.274,-1.454,-6.372,5.907,11.63,3.792,-3.578,-1.017,0,0,0,0,0,0,0,0,0,0,0,0,0,0,0,0,
567,11.35,11.45,-2.752,-0.048,6.08,8.716,5.507,9.355,2.518,5.885,-1.673,8.791,16.21,6.349,-0.9075,2.595,0,0,0,0,0,0,0,0,0,0,0,0,0,0,0,0,
568,12.51,12.62,0.6436,1.129,11.43,13.31,8.931,9.891,8.746,13.39,1.28,9.79,16.84,6.744,1.005,4.324,0,0,0,0,0,0,0,0,0,0,0,0,0,0,0,0,
569,9.176,7.407,6.971,6.82,15.87,15.68,12.5,10.79,8.318,11.41,1.739,5.281,9.196,0.9227,-5.946,-3.047,0,0,0,0,0,0,0,0,0,0,0,0,0,0,0,0,
570,5.755,2.031,10.38,11.14,15.11,15.91,14.03,10.78,1.253,0.0078,-2.888,-2.19,2.884,-6.568,-12.5,-8.673,0,0,0,0,0,0,0,0,0,0,0,0,0,0,0,0,
571,3.755,4.203,9.504,11.51,10.78,14.5,13.85,11.13,-2.767,0.3762,-15.14,-9.823,0.6265,-6.588,-12.67,-7.544,0,0,0,0,0,0,0,0,0,0,0,0,0,0,0,0,
572,0.777,5.895,8.185,10.89,6.472,10.44,12.44,12.32,-2.777,10.12,-18.73,-15.13,-3.415,-3.808,-11.5,-5.217,0,0,0,0,0,0,0,0,0,0,0,0,0,0,0,0,
573,-4.85,0.4751,8.99,9.842,3.2,6.652,9.646,12.07,-0.8189,6.345,-8.692,-15.62,-5.6,-2.534,-6.467,-1.926,0,0,0,0,0,0,0,0,0,0,0,0,0,0,0,0,
574,-6.871,0.0028,10.84,12.26,4.316,8.501,9.988,13.44,4.331,3.555,0.5587,-11.66,-1.994,4.503,2.053,2.994,0,0,0,0,0,0,0,0,0,0,0,0,0,0,0,0,
575,-2.812,5.357,10.78,15.67,8.781,10.12,10.97,16.07,8.129,11.07,4.343,-9.195,-1.48,9.587,1.838,4.041,0,0,0,0,0,0,0,0,0,0,0,0,0,0,0,0,
576,-2.671,1.061,6.097,9.371,7.113,3.17,5.165,11.22,5.356,7.679,1.907,-13.01,-8.464,1.992,-6.456,-1.972,0,0,0,0,0,0,0,0,0,0,0,0,0,0,0,0,
577,-7.399,-6.974,0.7639,0.2355,-0.8963,-4.252,-0.3991,3.652,0.2711,4.907,-5.614,-16.15,-13.2,-6.376,-10.89,-7.955,0,0,0,0,0,0,0,0,0,0,0,0,0,0,0,0,
578,-9.918,-8.001,-3.269,-1.202,-8.639,-7.01,-1.987,1.7,-4.376,10.71,-12.64,-14.88,-15.17,-10.49,-12.7,-10.23,0,0,0,0,0,0,0,0,0,0,0,0,0,0,0,0,
579,-12.34,-13.15,-9.792,-3.7,-14.65,-11.73,-7.518,-0.2069,-8.884,-0.0495,-15.27,-13.08,-17.99,-14.04,-13.53,-10.66,0,0,0,0,0,0,0,0,0,0,0,0,0,0,0,0,
580,-12.6,-20.01,-10.51,-8.777,-13.66,-13.06,-11.5,-1.34,-7.626,-11.47,-8.609,-7.422,-13.04,-10.13,-8.96,-7.812,0,0,0,0,0,0,0,0,0,0,0,0,0,0,0,0,
581,-8.023,-14.87,-3.581,-7.804,-6.617,-8.052,-9.029,1.467,-3.791,-3.752,-5.614,-4.017,-5.999,-6.327,-7.989,-8.05,0,0,0,0,0,0,0,0,0,0,0,0,0,0,0,0,
582,-10.2,-9.126,-4.337,-6.129,-6.714,-9.504,-9.658,1.908,-8.376,-3.762,-19.91,-13.94,-9.554,-12.62,-16.8,-14.32,0,0,0,0,0,0,0,0,0,0,0,0,0,0,0,0,
583,-20.48,-11.85,-10.17,-8.479,-12.17,-15.28,-12,1.115,-13.35,-10.04,-27.76,-23.72,-13.09,-14.73,-21.97,-15.54,0,0,0,0,0,0,0,0,0,0,0,0,0,0,0,0,
584,-22.7,-10.84,-8.805,-6.779,-9.337,-12.76,-7.996,3.587,-5.309,-4.326,-17.29,-20.73,-9.663,-8.018,-16.24,-11.56,0,0,0,0,0,0,0,0,0,0,0,0,0,0,0,0,
585,-15.11,-4.761,-2.993,-0.08,-1.119,-7.123,-3.101,6.328,4.205,-4.388,-12.52,-15.71,-8.243,-4.768,-8.875,-9.637,0,0,0,0,0,0,0,0,0,0,0,0,0,0,0,0,
586,-11.61,-3.3,-0.0826,1.309,0.7534,-6.322,-3.506,6.212,0.8176,-9.689,-14.87,-15.28,-8.995,-5.39,-5.881,-8.243,0,0,0,0,0,0,0,0,0,0,0,0,0,0,0,0,
587,-12.2,-4.201,-1.996,-2.475,-1.002,-5.098,-3.349,4.33,-2.705,-0.6985,-6.755,-12.93,-7.143,-4.363,-4.796,-6.423,0,0,0,0,0,0,0,0,0,0,0,0,0,0,0,0,
588,-6.678,-1.518,0.4185,-0.616,1.675,-1.21,1.356,6.014,4.696,8.356,1.742,-8.796,-5.118,-3.663,-6.369,-6.506,0,0,0,0,0,0,0,0,0,0,0,0,0,0,0,0,
589,-0.9578,-0.4675,7.728,3.825,2.582,-1.26,2.344,9.103,7.092,2.262,-7.668,-9.579,-5.568,-5.424,-11.05,-8.919,0,0,0,0,0,0,0,0,0,0,0,0,0,0,0,0,
590,-2.432,-4.005,6.062,2.882,-1.343,-2.893,-1.02,6.191,0.7423,-3.274,-18.67,-9.748,-3.297,-3.365,-10.82,-8.494,0,0,0,0,0,0,0,0,0,0,0,0,0,0,0,0,
591,-0.3591,-2.27,3.275,3.53,1.312,2.685,3.083,5.017,3.621,4.258,-12.3,-3.032,3.735,3.561,-5.932,-4.328,0,0,0,0,0,0,0,0,0,0,0,0,0,0,0,0,
592,7.134,6.08,9.204,8.152,8.668,10.77,11.68,10.71,10.44,12.11,-7.971,0.5504,6.558,2.925,-5.642,-4.214,0,0,0,0,0,0,0,0,0,0,0,0,0,0,0,0,
593,9.027,10.33,11.23,10.62,9.77,13.99,14.5,12.68,7.764,6.846,-11.28,-0.5025,4.36,-3.791,-6.575,-5.923,0,0,0,0,0,0,0,0,0,0,0,0,0,0,0,0,
594,7.908,10.78,9.742,11.89,8.293,14.85,14.66,11.12,5.41,-2.057,-2.928,1.667,3.451,-4.452,-5.139,-6.189,0,0,0,0,0,0,0,0,0,0,0,0,0,0,0,0,
595,7.683,11.65,11.53,10.36,8.463,13.56,13.06,11.89,5.172,-2.654,1.098,0.7162,2.524,-3.128,-5.788,-7.345,0,0,0,0,0,0,0,0,0,0,0,0,0,0,0,0,
596,3.946,9.583,10.77,5.219,8.775,10.6,7.629,10,0.6624,0.6732,-12.25,-5.52,2.13,-1.069,-5.408,-3.064,0,0,0,0,0,0,0,0,0,0,0,0,0,0,0,0,
597,-0.4328,5.276,7.088,2.832,9.05,8.208,3.316,5.993,0.7031,2.159,-16.78,-10,0.1021,4.163,-4.946,0.0719,0,0,0,0,0,0,0,0,0,0,0,0,0,0,0,0,
598,-2.884,0.0469,2.531,0.3158,6.467,1.951,-0.5257,5.434,4.3,-0.9719,-7.976,-13.29,-8.276,1.267,-9.001,-7.747,0,0,0,0,0,0,0,0,0,0,0,0,0,0,0,0,
599,-5.048,-6.247,-1.597,-5.449,3.502,-4.444,-5.755,4.772,3.35,-5.309,-4.545,-13.92,-13.21,-5.833,-10.11,-11.5,0,0,0,0,0,0,0,0,0,0,0,0,0,0,0,0,
600,-3.231,-7.392,-2.364,-7.826,4.812,-1.809,-7.082,1.038,5.568,0.365,-4.593,-10.27,-10.25,-4.119,-7.738,-9.02,0,0,0,0,0,0,0,0,0,0,0,0,0,0,0,0,
601,0.826,-5.356,-4.133,-8.689,3.218,1.047,-6.13,-1.927,8.964,5.294,0.6242,-6.909,-9.453,-4.199,-8.322,-11.32,0,0,0,0,0,0,0,0,0,0,0,0,0,0,0,0,
602,0.5759,-8.264,-9.093,-12.3,-4.679,-3.973,-7.678,-2.728,2.846,-5.867,3.921,-3.381,-8.578,-8.214,-6.027,-9.097,0,0,0,0,0,0,0,0,0,0,0,0,0,0,0,0,
603,-0.6485,-8.282,-11.33,-12.61,-9.252,-6.235,-7.822,-2.772,-3.347,-9.91,-2.903,1.52,-0.6419,-3.81,0.4591,-0.3404,0,0,0,0,0,0,0,0,0,0,0,0,0,0,0,0,
604,-0.4098,-0.2737,-9.71,-9.373,-7.067,-2.596,-5.814,-2.459,-1.54,2.992,-8.37,3.489,6.309,-1.786,2.118,3.008,0,0,0,0,0,0,0,0,0,0,0,0,0,0,0,0,
605,-3.838,3.714,-9.665,-9.707,-4.247,-2.559,-6.892,-4.102,-0.6876,3.368,-6.182,-0.3638,5.132,-8.419,-2.213,0.9416,0,0,0,0,0,0,0,0,0,0,0,0,0,0,0,0,
606,-9.433,2.022,-11.36,-12.28,-4.207,-5.67,-9.805,-8.367,-4.584,-8.101,-9.465,-6.258,0.9214,-9.183,-6.691,-2.278,0,0,0,0,0,0,0,0,0,0,0,0,0,0,0,0,
607,-11.13,1.708,-10.31,-12.09,-7.173,-7.21,-10.82,-9.836,-7.785,-10.56,-12.51,-7.429,-2.65,-7.659,-7.334,-4.929,0,0,0,0,0,0,0,0,0,0,0,0,0,0,0,0,
608,-8.852,-0.6258,-11.26,-10.88,-10.67,-9.21,-11.07,-6.755,-6.102,-10.42,-6.942,-7.174,-7.003,-9.682,-7.019,-5.427,0,0,0,0,0,0,0,0,0,0,0,0,0,0,0,0,
609,-7.191,-6.206,-16.63,-11.54,-10.09,-11.88,-12.61,-5.696,-3.408,-10.69,-10.26,-13.71,-12.43,-6.878,-10.74,-7.011,0,0,0,0,0,0,0,0,0,0,0,0,0,0,0,0,
610,-11.79,-13.77,-18.3,-13.83,-10,-16.25,-17.14,-9.338,-7.131,-8.103,-18.54,-22.23,-20.06,-6.796,-14.12,-11.5,0,0,0,0,0,0,0,0,0,0,0,0,0,0,0,0,
611,-20.59,-25.27,-18.53,-17.28,-16.51,-24.18,-22.83,-11.63,-11.54,-12.25,-14.06,-23.82,-25.61,-13.6,-13.56,-13.79,0,0,0,0,0,0,0,0,0,0,0,0,0,0,0,0,
612,-22.83,-31.64,-20.03,-19.56,-19.38,-27.04,-23.94,-10.27,-8.314,-20.45,-9.844,-20.11,-22.62,-15.18,-14.84,-13.36,0,0,0,0,0,0,0,0,0,0,0,0,0,0,0,0,
613,-16.83,-26.28,-16.13,-18.56,-12.83,-20.05,-20.79,-10.24,-3.058,-21.38,-9.081,-15.8,-18.27,-13.95,-17.19,-14.96,0,0,0,0,0,0,0,0,0,0,0,0,0,0,0,0,
614,-9.497,-18.94,-11.94,-16.1,-8.654,-12.69,-16.51,-10.49,0.1742,-16.51,-0.6265,-10.9,-16.27,-12.09,-14.64,-14.03,0,0,0,0,0,0,0,0,0,0,0,0,0,0,0,0,
615,-3.131,-13.02,-10.97,-11.79,-8.323,-9.394,-11.05,-6.254,0.9853,-11.12,-2.487,-6.727,-9.982,-6.573,-10.29,-8.043,0,0,0,0,0,0,0,0,0,0,0,0,0,0,0,0,
616,-1.226,-4.999,-4.421,-4.303,-3.968,-6.997,-7.081,-1.718,-2.586,-5.373,-16.89,-6.172,-3.754,-6.764,-7.324,-4.73,0,0,0,0,0,0,0,0,0,0,0,0,0,0,0,0,
617,-5.39,1.647,4.391,1.84,0.319,-4.934,-4.269,-0.4668,-3.134,2.996,-14.85,-5.627,-0.4452,-8.492,-3.061,-2.198,0,0,0,0,0,0,0,0,0,0,0,0,0,0,0,0,
618,-8.011,4.249,5.313,2.773,-0.1568,-3.949,-0.2075,0.3518,1.066,4.402,-5.286,-2.516,3.286,-3.377,1.923,2.53,0,0,0,0,0,0,0,0,0,0,0,0,0,0,0,0,
619,-7.35,0.7863,1.343,-0.6981,-1.491,-6.001,-1.488,-0.3072,0.2356,-9.756,-7.499,0.2682,3.089,-1.314,6.242,4.902,0,0,0,0,0,0,0,0,0,0,0,0,0,0,0,0,
620,-6.278,-6.486,-0.8995,-6.691,-0.9851,-9.653,-8.479,-3.579,-0.6643,-16.38,-1.241,4.766,1.61,1.026,10.86,8.459,0,0,0,0,0,0,0,0,0,0,0,0,0,0,0,0,
621,-0.9764,-7.309,-4.266,-11.65,-0.8804,-10.44,-11.44,-5.938,5.021,-4.683,13.02,9.1,2.213,7.292,13.38,11.83,0,0,0,0,0,0,0,0,0,0,0,0,0,0,0,0,
622,4.569,-6.032,-10.04,-13.02,-4.158,-10.82,-11.3,-5.756,6.708,-2.613,9.869,5.04,-1.107,2.936,11.24,9.248,0,0,0,0,0,0,0,0,0,0,0,0,0,0,0,0,
623,2.788,-11.55,-9.787,-10.78,-7.86,-11.54,-10.51,-3.016,3.647,-9.773,1.187,-1.671,-2.788,-4.049,7.748,7.764,0,0,0,0,0,0,0,0,0,0,0,0,0,0,0,0,
624,2.211,-11.23,-2.619,-4.391,-6.521,-6.96,-3.847,1.107,6.33,-4.581,6.086,-0.3856,1.628,0.6099,7.33,8.557,0,0,0,0,0,0,0,0,0,0,0,0,0,0,0,0,
625,8.123,-2.499,3.178,1.817,-2.421,-0.4186,3.19,2.7,10.01,0.5174,12.78,4.474,2.778,3.674,8.72,6.191,0,0,0,0,0,0,0,0,0,0,0,0,0,0,0,0,
626,10.59,-0.713,4.227,0.2792,-0.4098,0.3147,1.979,1.244,7.578,-1.944,10.75,6.569,2.965,1.944,9.067,4.875,0,0,0,0,0,0,0,0,0,0,0,0,0,0,0,0,
627,9.328,0.4357,0.512,-4.957,0.4713,-1.432,-0.7913,0.8119,5.764,0.0192,6.269,9.681,10.24,6.568,10.89,8.01,0,0,0,0,0,0,0,0,0,0,0,0,0,0,0,0,
628,10.8,9.965,-3.238,-4.363,1.014,0.2942,1.468,2.425,6.635,1.08,4.467,13.69,16.91,9.809,12.7,11.69,0,0,0,0,0,0,0,0,0,0,0,0,0,0,0,0,
629,9.54,15.79,-3.451,-0.9493,-1.075,2.599,4.385,4.011,3.381,3.152,0.7981,10.85,16.07,4.581,8.3,10.89,0,0,0,0,0,0,0,0,0,0,0,0,0,0,0,0,
630,3.634,17.57,-4.591,-1.871,-4.18,1.632,4.61,5.493,-2.404,15.88,-5.49,5.136,15.27,2.846,4.316,8.693,0,0,0,0,0,0,0,0,0,0,0,0,0,0,0,0,
631,1.306,21.11,-5.38,-5.448,-4.774,-1.114,1.367,4.643,-3.651,17.46,-4.414,6.524,17.26,7.872,7.214,10.21,0,0,0,0,0,0,0,0,0,0,0,0,0,0,0,0,
632,3.767,16.26,-3.616,-7.161,-3.932,-3.628,-4.036,-0.2822,0.691,-0.8485,5.111,9.8,15.38,7.909,7.319,9.436,0,0,0,0,0,0,0,0,0,0,0,0,0,0,0,0,
633,8.249,7.184,-3.438,-4.819,-2.033,-3.156,-3.775,-0.897,4.533,-6.065,8.282,8.57,12.9,3.982,3.287,7.064,0,0,0,0,0,0,0,0,0,0,0,0,0,0,0,0,
634,12.42,8.485,-4.114,-1.402,1.118,0.0236,1.765,4.878,0.9412,5.324,-2.473,6.179,14.5,6.462,4.293,10.58,0,0,0,0,0,0,0,0,0,0,0,0,0,0,0,0,
635,10.8,10.66,-5.052,-3.736,0.6895,-1.507,1.131,4.659,-3.626,6.362,-9.123,5.134,14.42,11.17,7.942,13.77,0,0,0,0,0,0,0,0,0,0,0,0,0,0,0,0,
636,7.174,6.032,-6.625,-9.037,-3.064,-5.782,-2.53,0.1382,-0.1321,6.418,2.186,6.057,12.97,12.02,8.58,11.92,0,0,0,0,0,0,0,0,0,0,0,0,0,0,0,0,
637,8.093,6.332,-6.655,-8.322,-4.296,-3.499,1.179,3.072,1.359,18.18,8.06,4.763,12.21,12.03,5.726,7.646,0,0,0,0,0,0,0,0,0,0,0,0,0,0,0,0,
638,7.381,10.03,-6.663,-4.251,-3.728,0.6532,5.679,7.215,-2.755,19.47,-0.1327,0.9039,8.748,7.704,2.022,2.558,0,0,0,0,0,0,0,0,0,0,0,0,0,0,0,0,
639,5.804,8.546,-5.485,-4.02,-1.541,2.526,5.162,5.078,0.7421,7.11,5.485,4.825,7.979,0.7659,4.264,2.874,0,0,0,0,0,0,0,0,0,0,0,0,0,0,0,0,
640,10.32,9.803,-2.174,-5.029,3.916,6.735,5.061,1.888,7.538,2.132,17.74,12.73,14.2,4.656,10.09,8.543,0,0,0,0,0,0,0,0,0,0,0,0,0,0,0,0,
641,12.34,16.61,-0.5125,-3.365,6.184,7.324,4.021,-1.454,7.966,4.519,11.6,13.05,19.39,12.9,9.879,10.75,0,0,0,0,0,0,0,0,0,0,0,0,0,0,0,0,
642,8.859,18.76,-0.1309,-2.803,2.549,1.241,-0.1646,-4.694,8.112,5.226,2.334,11.23,18.45,11.83,6.274,8.134,0,0,0,0,0,0,0,0,0,0,0,0,0,0,0,0,
643,9.34,14.6,-2.56,-5.971,-1.324,-1.659,-1.979,-3.108,5.866,4.308,2.898,11.66,15.8,11.85,6.167,6.589,0,0,0,0,0,0,0,0,0,0,0,0,0,0,0,0,
644,11.4,9.801,-7.743,-8.863,-4.439,-0.822,-1.526,-0.3432,-0.9672,5.747,4.065,11.6,16.11,16.02,9.164,10.13,0,0,0,0,0,0,0,0,0,0,0,0,0,0,0,0,
645,13.08,6.483,-8.004,-8.736,-4.694,0.3126,-1.927,-0.5619,0.8419,11.85,4.707,14.26,16.35,11.85,13.64,14.75,0,0,0,0,0,0,0,0,0,0,0,0,0,0,0,0,
646,18.98,3.965,-3.773,-5.346,2.47,4.743,-0.3087,0.1421,10,10.77,9.285,18.26,12.24,4.856,16.23,14.72,0,0,0,0,0,0,0,0,0,0,0,0,0,0,0,0,
647,21.15,0.5333,-0.6624,0.2045,8.455,7.622,2.316,0.9433,11.51,-1.029,16.19,15.56,5.753,2.328,12.95,9.758,0,0,0,0,0,0,0,0,0,0,0,0,0,0,0,0,
648,15.22,-2.529,-0.2243,1.163,3.763,3.898,1.438,-0.7289,6.434,-4.274,14.42,6.908,0.014,0.697,5.953,2.078,0,0,0,0,0,0,0,0,0,0,0,0,0,0,0,0,
649,11.13,-2.526,-2.222,-3.69,-2.58,0.8204,0.0762,-1.433,3.369,-0.4916,3.981,2.151,-0.8691,3.562,1.167,-0.6605,0,0,0,0,0,0,0,0,0,0,0,0,0,0,0,0,
650,11.04,0.5008,-2.525,-4.47,-1.319,2.359,1.508,-1.113,4.548,-1.101,3.566,3.975,4.174,7.811,1.989,3.944,0,0,0,0,0,0,0,0,0,0,0,0,0,0,0,0,
651,10.63,5.937,-0.9552,-1.005,2.001,3.843,2.202,-1.564,8.5,4.19,10.35,5.129,7.723,5.896,5.064,5.934,0,0,0,0,0,0,0,0,0,0,0,0,0,0,0,0,
652,8.596,7.873,-2.084,-3.358,0.9881,2.516,-0.1961,-1.611,6.603,6.453,6.26,3.145,5.576,3.154,4.137,3.024,0,0,0,0,0,0,0,0,0,0,0,0,0,0,0,0,
653,2.953,1.921,-4.203,-9.005,-3.598,-0.0828,-2.86,-1.127,-3.161,-4.621,-2.404,1.596,2.589,0.9586,2.041,1.303,0,0,0,0,0,0,0,0,0,0,0,0,0,0,0,0,
654,0.6724,-0.0219,-3.123,-7.927,-5.234,0.8882,-1.888,0.7251,-3.366,-4.114,0.4307,5.264,5.349,0.3168,6.109,4.118,0,0,0,0,0,0,0,0,0,0,0,0,0,0,0,0,
655,10.67,6.295,0.7404,-3.382,0.1451,5.061,0.6465,1.769,8.35,2.998,14.51,14.14,10.26,5.363,11.14,7.922,0,0,0,0,0,0,0,0,0,0,0,0,0,0,0,0,
656,20.27,4.998,2.346,-3.651,4.209,4.61,-0.6752,-0.9043,10.14,-7.502,21.31,16.9,6.212,4.893,9.186,4.144,0,0,0,0,0,0,0,0,0,0,0,0,0,0,0,0,
657,18.12,-3.399,0.8217,-5.641,3.134,2.035,-2.983,-3.061,4.264,-12.1,12.06,12.63,-0.0308,-2.564,6.871,0.2496,0,0,0,0,0,0,0,0,0,0,0,0,0,0,0,0,T2
658,16.67,-4.202,-0.3185,-7.08,3.718,4.08,-3.156,-6.775,8.001,-0.047,7.829,12.84,3.509,-1.584,8.842,5.784,0,0,0,0,0,0,0,0,0,0,0,0,0,0,0,0,
659,19.37,-0.4108,-4.472,-11.14,0.757,3.534,-5.1,-13.1,10.1,2.82,14.7,11.48,6.517,3.418,6.239,7.107,0,0,0,0,0,0,0,0,0,0,0,0,0,0,0,0,
660,13.97,0.8623,-8.594,-10.73,-8.519,-1.978,-6.187,-8.092,0.8095,-0.9632,9.571,0.176,1.313,1.72,-3.842,-1.03,0,0,0,0,0,0,0,0,0,0,0,0,0,0,0,0,
661,3.37,-0.2705,-3.509,-2.412,-10.2,-3.463,-3.056,5.134,-6.752,-0.646,-8.202,-12.3,-4.954,-0.5142,-13.19,-6.605,0,0,0,0,0,0,0,0,0,0,0,0,0,0,0,0,
662,-3.465,-5.472,1.711,1.102,-5.751,-1.526,-1.402,8.659,-9.103,-1.829,-17.73,-18.56,-8.328,0.5234,-15.06,-6.537,0,0,0,0,0,0,0,0,0,0,0,0,0,0,0,0,
663,-7.901,-9.955,-0.6389,-3.534,-6.405,-1.229,-3.32,5.72,-9.602,-1.332,-14.34,-17.52,-7.753,-0.7477,-9.676,-4.331,0,0,0,0,0,0,0,0,0,0,0,0,0,0,0,0,
664,-10.36,-8.353,-0.6622,-6.376,-6.652,-2.621,-6.566,2.736,-6.74,0.4614,-8.436,-12.06,-4.314,-4.969,-3.91,-2.452,0,0,0,0,0,0,0,0,0,0,0,0,0,0,0,0,
665,-8.986,-5.499,1.898,-5.473,-6.249,-4.445,-8.459,-1.915,-5.669,0.1581,-5.655,-5.874,0.7975,-4.149,-2.016,0.8608,0,0,0,0,0,0,0,0,0,0,0,0,0,0,0,0,
666,-3.801,-2.669,-2.164,-5.934,-11.51,-3.721,-6.125,-3.344,-7.279,2.035,-1.549,1.978,5.88,0.9669,-1.327,5.154,0,0,0,0,0,0,0,0,0,0,0,0,0,0,0,0,
667,2.402,-0.8793,-7.19,-7.645,-12.13,-2.983,-5.318,-2.328,-4.881,0.5495,2.876,7.024,4.191,-0.6177,0.0245,3.372,0,0,0,0,0,0,0,0,0,0,0,0,0,0,0,0,
668,4.45,-6.852,-1.156,-5.372,-2.997,-5.222,-8.845,-2.334,0.4328,-5.245,3.347,6.955,-0.3363,-3.854,3.176,0.7036,0,0,0,0,0,0,0,0,0,0,0,0,0,0,0,0,
669,6.055,-14.19,8.338,-0.702,3.739,-3.385,-8.39,-0.9748,4.805,-5.439,8.321,8.692,1.085,0.2204,5.84,3.494,0,0,0,0,0,0,0,0,0,0,0,0,0,0,0,0,
670,10.56,-12.61,7.301,0.1084,3.921,0.7016,-4.71,-0.6269,4.891,-3.715,14.34,8.739,2.337,1.833,2.212,3.049,0,0,0,0,0,0,0,0,0,0,0,0,0,0,0,0,
671,8.626,-8.622,3.741,0.4665,2.082,-1.44,-3.201,0.4939,-1.14,-3.329,4.587,2.244,-0.6649,-1.719,-1.488,-0.629,0,0,0,0,0,0,0,0,0,0,0,0,0,0,0,0,
672,2.045,-7.806,5.593,2.409,-0.5964,-2.771,-1.541,4.944,-4.5,-0.4228,-5.316,-3.248,-4.247,-2.323,1.829,-1.151,0,0,0,0,0,0,0,0,0,0,0,0,0,0,0,0,
673,-0.2124,-6.694,4.376,-0.1387,-3.208,-0.2283,-1.893,3.827,-1.982,-0.5578,2.526,-8.524,-8.666,-1.746,1.276,-2.236,0,0,0,0,0,0,0,0,0,0,0,0,0,0,0,0,
674,-5.332,-5.507,0.6721,-3.713,-5.046,-1.894,-4.426,-1.646,-3.731,-1.621,2.503,-18.3,-10.09,0.552,-7.084,-4.335,0,0,0,0,0,0,0,0,0,0,0,0,0,0,0,0,
675,-11.82,-2.122,0.5362,-2.647,-5.253,-3.075,-2.091,-2.116,-6.296,4.245,-11.25,-21.74,-4.137,5.994,-10.14,-2.974,0,0,0,0,0,0,0,0,0,0,0,0,0,0,0,0,
676,-7.04,5.079,0.9982,-1.515,-2.377,1.104,1.804,-0.4984,0.0959,6.302,-6.582,-12.09,2.336,5.336,-5.494,-0.7135,0,0,0,0,0,0,0,0,0,0,0,0,0,0,0,0,
677,2.552,7.327,2.185,-0.9296,1.93,4.745,2.733,1.73,5.381,-2.309,10.31,0.3532,2.776,-0.2266,-0.4247,-1.103,0,0,0,0,0,0,0,0,0,0,0,0,0,0,0,0,
678,9.65,3.424,6.727,1.709,6.094,9.39,5.964,5.452,3.274,-7.206,14.16,10.02,2.289,0.542,4.582,0.8159,0,0,0,0,0,0,0,0,0,0,0,0,0,0,0,0,
679,18.52,3.453,10.28,3.471,9.261,16.66,10.8,5.627,5.038,-0.0177,13.29,18.5,6.084,4.766,9.824,6.428,0,0,0,0,0,0,0,0,0,0,0,0,0,0,0,0,
680,25.17,6.902,9.213,6.324,10.21,21.19,14.63,6.204,10.26,8.117,13.46,21.81,10.46,5.873,13.22,8.349,0,0,0,0,0,0,0,0,0,0,0,0,0,0,0,0,
681,27.27,7.137,8.645,13.09,11.12,23.91,19.3,10.5,10.29,5.101,13.41,20.54,13.06,6.472,14.37,9.019,0,0,0,0,0,0,0,0,0,0,0,0,0,0,0,0,
682,29.01,6.556,11.83,15.73,12.1,25.37,19.4,8.727,8.684,-2.2,17.54,18.64,13.87,7.051,12.88,12.32,0,0,0,0,0,0,0,0,0,0,0,0,0,0,0,0,
683,26.91,8.002,14.1,11.79,10.44,23.16,14.02,3.059,6.835,-0.9819,11.63,12.26,10.7,6.963,9.402,11.13,0,0,0,0,0,0,0,0,0,0,0,0,0,0,0,0,
684,20.79,9.124,13.66,10.27,7.205,20.43,12.26,5.295,1.635,4.972,-1.047,4.313,8.306,8.966,6.543,7.651,0,0,0,0,0,0,0,0,0,0,0,0,0,0,0,0,
685,16.7,11.56,10.96,11.82,2.833,17.68,13.21,9.735,-1.092,12.11,3.253,0.5737,11.32,11.48,3.259,7.475,0,0,0,0,0,0,0,0,0,0,0,0,0,0,0,0,
686,12.27,16.93,9.387,12.14,-0.0406,14.82,12.48,8.542,0.7429,20.42,4.693,-7.627,12.68,10.92,-3.935,5.372,0,0,0,0,0,0,0,0,0,0,0,0,0,0,0,0,
687,4.12,17.57,13.38,11.84,2.911,14.38,11.95,6.799,1.286,17.87,-10.67,-19.8,8.528,9.215,-10.76,1.65,0,0,0,0,0,0,0,0,0,0,0,0,0,0,0,0,
688,-1.946,11.67,12.12,8.983,3.883,12.05,9.263,4.502,0.5742,8.116,-10.51,-19.91,5.422,10.4,-9.742,2.005,0,0,0,0,0,0,0,0,0,0,0,0,0,0,0,0,
689,-0.3084,9.376,2.357,5.227,-1.687,8.18,5.985,0.0228,-0.0243,6.57,1.972,-8.796,7.542,12.85,-3.601,6.856,0,0,0,0,0,0,0,0,0,0,0,0,0,0,0,0,
690,6.959,11.22,1.29,5.78,-2.35,8.997,8.238,0.4535,-0.3357,7.403,2.779,2.32,12.56,12.3,3.296,13.51,0,0,0,0,0,0,0,0,0,0,0,0,0,0,0,0,
691,15.85,12.5,7.85,6.659,3.829,10.93,10.96,4.197,4.346,10.77,9.209,14.44,18.2,12.26,12.46,19.14,0,0,0,0,0,0,0,0,0,0,0,0,0,0,0,0,
692,25.17,15.74,11.7,6.128,9.274,13.55,9.899,3.377,12.76,19.27,24.38,26.26,21.59,14.03,20.35,22.41,0,0,0,0,0,0,0,0,0,0,0,0,0,0,0,0,
693,32.53,14.62,14.92,7.395,14.84,20.32,9.553,2.438,16.13,14.32,24.74,31.09,18.53,11.5,22.74,20.6,0,0,0,0,0,0,0,0,0,0,0,0,0,0,0,0,
694,35.06,6.078,13.41,7.063,17.3,22.67,9.58,5.348,13.73,4.081,18.34,33.07,14.87,10.37,22.79,14.79,0,0,0,0,0,0,0,0,0,0,0,0,0,0,0,0,
695,35.47,7.176,9.036,6.188,12.85,19.57,9.884,7.504,13.02,12.26,23.79,36.58,18.54,15.94,22.82,12.26,0,0,0,0,0,0,0,0,0,0,0,0,0,0,0,0,
696,37.19,20.46,10.72,8.486,11.71,20.88,13.58,9.44,16.81,22.08,32.82,37.14,22.73,18.2,23.95,13.47,0,0,0,0,0,0,0,0,0,0,0,0,0,0,0,0,
697,36.44,27.76,12.3,8.736,16.59,23.24,17.21,12.58,19.95,18.48,34.41,34.52,22.73,17.99,26.73,15.38,0,0,0,0,0,0,0,0,0,0,0,0,0,0,0,0,
698,30.66,26.97,12.89,8.06,18.55,22.89,19.41,14.41,19.74,15.93,32.55,31.17,23.16,21.71,27.03,17.62,0,0,0,0,0,0,0,0,0,0,0,0,0,0,0,0,
699,26.2,26.87,17.73,12.52,19.86,25.59,23.04,15.74,19.29,17.27,29.42,25.85,22.93,23.35,22.94,18.74,0,0,0,0,0,0,0,0,0,0,0,0,0,0,0,0,
700,24.94,26.06,16.49,15.16,21.34,26.11,23.19,15.6,17.04,14.86,24.01,21,21.87,24.32,19.41,20.86,0,0,0,0,0,0,0,0,0,0,0,0,0,0,0,0,
701,22.33,22.35,7.877,11.09,16.6,19.23,18.81,13.45,13.55,13.49,26.82,22.36,24.17,27.82,22.99,26.28,0,0,0,0,0,0,0,0,0,0,0,0,0,0,0,0,
702,24.39,20.48,8.787,9.724,15.48,17.51,19.78,15.1,17.48,19.63,37.24,30.54,30.15,27.14,31.47,32.04,0,0,0,0,0,0,0,0,0,0,0,0,0,0,0,0,
703,35.67,25.54,18.64,15.2,24.34,26.15,26.39,18.38,24.82,26.6,35.08,38.4,36.58,24.94,33.85,33.91,0,0,0,0,0,0,0,0,0,0,0,0,0,0,0,0,
704,43.47,33.67,22.34,20.4,27.9,32.33,29.85,16.84,24.82,23.94,26.63,40,37.78,25.98,30.55,30.33,0,0,0,0,0,0,0,0,0,0,0,0,0,0,0,0,
705,40.71,32.89,22.14,21.14,23.29,30.51,28.76,15.13,21.92,14.58,30.58,37.95,32.73,25.44,30.17,25.62,0,0,0,0,0,0,0,0,0,0,0,0,0,0,0,0,
706,34.86,22.18,24,19.19,21.49,27.19,25.5,14.31,20.3,8.242,33.33,34.26,27.28,23.86,28.95,21.83,0,0,0,0,0,0,0,0,0,0,0,0,0,0,0,0,
707,31.39,15.42,23.05,17.39,21.84,26.27,22.73,10.33,17.96,7.776,25.37,29.71,25.51,23.58,24.61,19.11,0,0,0,0,0,0,0,0,0,0,0,0,0,0,0,0,
708,31.56,18.03,23.02,17.71,22.6,27.96,24.3,10.92,18.41,10.09,21.8,30.13,29.14,22.1,24.96,22.85,0,0,0,0,0,0,0,0,0,0,0,0,0,0,0,0,
709,34.33,24.43,26.42,20.72,26.02,32.46,29.6,18.49,22.22,13.64,30.1,35.41,35.51,22.21,29.89,28.79,0,0,0,0,0,0,0,0,0,0,0,0,0,0,0,0,
710,37.53,33.14,27.02,24.78,29.56,37.39,33.18,19.79,27.23,20.7,42.18,37.95,37.47,24.03,31.45,28.53,0,0,0,0,0,0,0,0,0,0,0,0,0,0,0,0,
711,39.17,38.39,28.41,25.65,30.05,36.82,29.67,13.26,31.01,24.45,40.26,34.38,33.08,22.14,26.6,26.2,0,0,0,0,0,0,0,0,0,0,0,0,0,0,0,0,
712,35.51,32.34,30.01,22.95,26.41,30.54,22.26,11.64,26.98,18.48,24.29,29.24,28.25,23.08,22.32,25.55,0,0,0,0,0,0,0,0,0,0,0,0,0,0,0,0,
713,29.18,24.9,27.23,21.64,22.48,26.68,20.98,15.78,20.36,19.35,18.9,28.41,28.12,29.97,23.4,25.68,0,0,0,0,0,0,0,0,0,0,0,0,0,0,0,0,
714,26.4,25.48,27.9,21.72,22.37,26.58,24.75,17.56,21.29,31.95,22.57,27.44,28.62,29.01,20.84,23.56,0,0,0,0,0,0,0,0,0,0,0,0,0,0,0,0,
715,25.15,26.54,28.73,20.73,21.78,24.72,25.27,17.49,21.64,33.5,18.33,23.01,26.87,22.66,14.23,17.3,0,0,0,0,0,0,0,0,0,0,0,0,0,0,0,0,
716,23.32,25.51,20.25,18.32,18.88,21.2,21.58,15.4,16.11,22.54,15.97,22.96,27.35,22.38,14.1,13.2,0,0,0,0,0,0,0,0,0,0,0,0,0,0,0,0,
717,21.48,24.65,11.79,12.51,17.66,17.54,14.49,6.953,14.67,15.43,20.51,24.62,26.83,19.26,13.86,11.48,0,0,0,0,0,0,0,0,0,0,0,0,0,0,0,0,
718,19.09,21.25,13.04,9.212,18.5,15.3,8.338,0.5363,19.11,10.41,21.36,21.84,24.3,15.11,7.969,9.703,0,0,0,0,0,0,0,0,0,0,0,0,0,0,0,0,
719,19.44,18.81,20.17,14.13,19.97,16.84,9.513,3.746,22.56,4.824,19.87,21.46,26.55,19.5,8.389,12.9,0,0,0,0,0,0,0,0,0,0,0,0,0,0,0,0,
720,20.82,20.5,23.45,16.92,19.68,18.41,13.2,6.567,21.22,6.502,24.16,22.05,26.55,17.87,14.62,16.29,0,0,0,0,0,0,0,0,0,0,0,0,0,0,0,0,
721,15.71,20.45,20.39,14.74,17.45,17.43,13.73,5.518,13.93,14.7,30.6,16.07,19.08,9.044,15.03,14.86,0,0,0,0,0,0,0,0,0,0,0,0,0,0,0,0,
722,6.974,15.37,19.29,15.89,16.84,16.03,13.21,7.79,5.941,18.66,20.3,6.263,11.72,8.267,9.876,11.88,0,0,0,0,0,0,0,0,0,0,0,0,0,0,0,0,
723,2.301,6.882,20.98,17.34,16.6,14.75,13.26,10.76,5.535,14.89,-0.8205,-0.5374,5.011,8.291,5.846,5.996,0,0,0,0,0,0,0,0,0,0,0,0,0,0,0,0,
724,4.233,-1.17,21.69,17.59,16.35,16.26,14.7,9.663,10.88,10.67,1.56,2.694,1.161,6.737,7.027,1.869,0,0,0,0,0,0,0,0,0,0,0,0,0,0,0,0,
725,10.2,-5.448,21.24,17.58,17.44,17.97,13.99,5.926,11.66,7.037,15.12,9.567,2.455,11.04,8.783,1.873,0,0,0,0,0,0,0,0,0,0,0,0,0,0,0,0,
726,10.67,-7.827,14.69,10.93,13.33,11.34,8.103,3.573,4.718,1.376,7.603,6.012,1.808,9.585,2.679,-1.977,0,0,0,0,0,0,0,0,0,0,0,0,0,0,0,0,
727,3.364,-8.167,5.77,4.144,4.049,2.601,4.707,5.696,-0.8547,0.3275,-1.179,0.4005,1.804,1.085,-2.92,-4.07,0,0,0,0,0,0,0,0,0,0,0,0,0,0,0,0,
728,-0.0741,-3.734,5.543,6.653,0.3175,1.819,6.111,6.551,1.153,4.573,3.722,5.022,6.994,0.7275,4.995,3.582,0,0,0,0,0,0,0,0,0,0,0,0,0,0,0,0,
729,3.784,1.883,11.46,10.29,2.087,3.695,6.345,3.464,4.972,5.939,9.435,12.75,12.25,6.907,17.02,13.75,0,0,0,0,0,0,0,0,0,0,0,0,0,0,0,0,
730,7.244,6.214,14.59,9.583,1.216,3.362,6.322,3.313,5.307,4.689,16.4,16.23,17.68,12.98,19.46,18.84,0,0,0,0,0,0,0,0,0,0,0,0,0,0,0,0,
731,7.38,11.58,11.27,7.093,-2.861,2.054,5.723,2.514,2.938,6.113,15.94,13.86,21.46,17.62,16.25,17.97,0,0,0,0,0,0,0,0,0,0,0,0,0,0,0,0,
732,3.917,14.4,6.615,4.097,-5.347,-0.1664,2.927,-2.436,-2.43,12.64,1.094,6.263,17.42,15.26,12.88,15.15,0,0,0,0,0,0,0,0,0,0,0,0,0,0,0,0,
733,-1.834,10.28,6.576,4.643,-5.419,0.1465,3.756,-1.978,-8.286,17,-7.431,-0.4127,11.31,9.101,8.768,12.57,0,0,0,0,0,0,0,0,0,0,0,0,0,0,0,0,
734,-2.933,4.87,8.239,8.929,-5.077,4.514,8.448,2.911,-8.042,7.269,-2.838,-1.631,9.52,6.84,7.508,9.101,0,0,0,0,0,0,0,0,0,0,0,0,0,0,0,0,
735,1.603,2.684,12.9,11.58,-1.934,7.537,10.39,4.145,-3.441,-6.059,3.108,0.1592,4.577,3.207,9.626,5.229,0,0,0,0,0,0,0,0,0,0,0,0,0,0,0,0,
736,3.551,-2.76,18.12,10.74,2.163,6.325,9.209,4.688,-1.014,-7.702,6.812,-0.1912,-7.088,-2.869,8.453,-0.5364,0,0,0,0,0,0,0,0,0,0,0,0,0,0,0,0,
737,2.472,-11.76,12.55,9.081,0.4768,3.81,9.324,7.372,0.8451,-5.258,7.498,-1.637,-12.52,-3.306,3.994,-4.638,0,0,0,0,0,0,0,0,0,0,0,0,0,0,0,0,
738,5.953,-10.56,5.83,11.33,-1.459,3.89,12.48,10.51,4.613,1.704,8.456,1.645,-4.715,-0.4698,2.435,0.048,0,0,0,0,0,0,0,0,0,0,0,0,0,0,0,0,
739,13.05,2.236,8.71,13.99,0.9986,5.656,13.37,11.53,7.568,14.07,13.78,8.289,6.654,3.248,5.829,8.702,0,0,0,0,0,0,0,0,0,0,0,0,0,0,0,0,
740,16.95,10.33,8.575,8.76,0.3231,5.045,8.111,7.031,7.594,11.97,14.91,12.58,15.69,11.36,11.98,14.85,0,0,0,0,0,0,0,0,0,0,0,0,0,0,0,0,
741,16.82,11.9,5.178,2.838,-1.604,3.21,3.986,1.858,4.222,4.313,6.474,14.03,22.78,17.58,17.62,18.97,0,0,0,0,0,0,0,0,0,0,0,0,0,0,0,0,
742,15.9,17.73,7.552,4.234,-0.2478,2.331,4.859,2.46,2.813,11.81,2.354,16.85,26.65,19.64,21.76,21.99,0,0,0,0,0,0,0,0,0,0,0,0,0,0,0,0,
743,16.74,22.09,8.134,4.709,-0.1452,1.289,4.769,3.614,8.723,14.94,9.172,20.99,26.78,22.92,23.63,23.44,0,0,0,0,0,0,0,0,0,0,0,0,0,0,0,0,
744,18.29,16.89,4.992,2.918,2.194,1.611,3.644,2.232,13.58,8.252,12.45,19.63,21.88,20.5,20.82,20.71,0,0,0,0,0,0,0,0,0,0,0,0,0,0,0,0,
745,16.92,11.7,6.64,5.841,8.472,3.419,4.994,3.533,12.5,9.027,10.52,14.03,15.15,10.31,16.17,15.83,0,0,0,0,0,0,0,0,0,0,0,0,0,0,0,0,
746,13.57,11.11,11.45,8.573,8.853,3.861,6.117,4.907,13.07,7.451,10.55,9.257,10.38,3.724,12.49,11.56,0,0,0,0,0,0,0,0,0,0,0,0,0,0,0,0,
747,10.84,6.398,15.03,6.498,4.836,3.884,5.18,0.807,13.09,3.024,6.559,2.275,2.128,2.192,7.93,5.534,0,0,0,0,0,0,0,0,0,0,0,0,0,0,0,0,
748,7.349,-1.924,18.21,5.753,5.124,3.362,4.667,-2.174,8.47,6.609,6.424,-2.786,-7.18,3.024,5.968,2.242,0,0,0,0,0,0,0,0,0,0,0,0,0,0,0,0,
749,2.189,-6.042,17.41,8.19,6.276,0.023,4.562,1.222,5.45,2.27,13.77,-2.984,-9.308,6.037,7.328,4.052,0,0,0,0,0,0,0,0,0,0,0,0,0,0,0,0,
750,-3.969,-7.053,10.77,8.245,2.545,-4.029,1.911,3.355,3.074,-6.567,8.015,-6.181,-7.794,6.912,5.786,5.952,0,0,0,0,0,0,0,0,0,0,0,0,0,0,0,0,
751,-7.147,-6.563,6.685,4.697,-2.699,-5.853,-1.103,1.091,-0.9054,0.809,-1.287,-6.225,-3.733,8.29,5.389,9.193,0,0,0,0,0,0,0,0,0,0,0,0,0,0,0,0,
752,-2.884,-1.089,7.195,1.416,-4.401,-5.284,-0.2586,0.4903,-1.585,7.125,3.849,2.073,4.836,12.62,9.846,11.79,0,0,0,0,0,0,0,0,0,0,0,0,0,0,0,0,
753,2.241,6.307,5.407,0.088,-5.084,-3.797,0.6603,1.227,-0.1597,0.8825,8.098,7.186,12.61,14.4,13.19,11.77,0,0,0,0,0,0,0,0,0,0,0,0,0,0,0,0,
754,4.325,11.87,2.811,1.59,-6.626,-1.925,0.3235,0.5454,2.4,2.273,12.11,11.16,19.59,18.06,18.61,16.1,0,0,0,0,0,0,0,0,0,0,0,0,0,0,0,0,
755,10.75,17.96,4.18,5.895,-3.517,1.064,3.601,1.245,5.969,9.542,20.07,18.05,25.87,23.86,26.33,21.22,0,0,0,0,0,0,0,0,0,0,0,0,0,0,0,0,
756,15.12,19.36,7.46,7.279,1.196,1.883,5.721,2.838,4.152,9.694,14.85,15.82,23.76,18.96,23.88,19.12,0,0,0,0,0,0,0,0,0,0,0,0,0,0,0,0,
757,8.785,12.61,7.804,4.513,-0.829,-0.5192,3.481,4.101,0.4905,9.265,6.254,6.146,14.91,9.72,14.89,14.87,0,0,0,0,0,0,0,0,0,0,0,0,0,0,0,0,
758,3.651,8.055,4.62,4.076,-4.145,-0.8996,4.773,7.981,0.7961,8.445,5.322,1.192,8.758,8.821,12.08,14.48,0,0,0,0,0,0,0,0,0,0,0,0,0,0,0,0,
759,3.855,6.917,4.428,4.915,-3.034,-0.3555,7.277,10.54,0.1994,4.048,-0.3969,-0.1857,6.319,9.799,12.62,15.81,0,0,0,0,0,0,0,0,0,0,0,0,0,0,0,0,
760,2.095,2.36,7.018,4.004,-0.6336,-0.9141,4.517,6.222,1.586,2.107,-0.5173,-2.286,3.386,10.52,11.22,13.52,0,0,0,0,0,0,0,0,0,0,0,0,0,0,0,0,
761,1.308,-2.001,4.744,4.668,2.151,0.8037,1.659,0.794,4.421,-1.913,7.291,-6.319,-2.456,10.11,6.675,6.812,0,0,0,0,0,0,0,0,0,0,0,0,0,0,0,0,
762,1.146,-4.593,2.319,5.107,2.303,0.6248,0.4277,-0.6743,-0.8966,-7.205,-0.5743,-11.08,-9.404,0.7448,1.296,0.6329,0,0,0,0,0,0,0,0,0,0,0,0,0,0,0,0,
763,-0.5878,-6.241,5.85,2.965,-2.521,-4.145,-2.121,-1.823,-3.541,-2.308,-10.43,-10.12,-10.39,-6.024,3.33,-0.8593,0,0,0,0,0,0,0,0,0,0,0,0,0,0,0,0,
764,0.692,-3.256,7.372,0.7073,-6.891,-7.285,-4.022,-3.988,2.564,1.815,-2.081,-4.964,-4.663,-1.049,8.302,1.604,0,0,0,0,0,0,0,0,0,0,0,0,0,0,0,0,
765,0.3703,1.107,2.389,-2.19,-8.873,-8.981,-4.455,-3.902,-0.1773,-0.4805,2.498,-3.772,-0.3943,2.003,6.397,2.668,0,0,0,0,0,0,0,0,0,0,0,0,0,0,0,0,
766,-3.392,3.509,-1.647,-3.35,-9.669,-10.21,-4.133,-1.847,-7.298,5.669,-2.149,-3.04,2.487,2.207,5.426,2.361,0,0,0,0,0,0,0,0,0,0,0,0,0,0,0,0,
767,-1.964,4.871,-0.6794,-1.327,-9.168,-8.44,-4.111,-2.158,-5.257,5.54,-0.1896,-0.7775,5.995,3.85,8.349,3.998,0,0,0,0,0,0,0,0,0,0,0,0,0,0,0,0,
768,-0.1898,1.863,-0.571,-1.987,-10.19,-7.321,-4.899,-3.226,-6.609,-12.13,-3.211,-5.235,2.919,-0.8297,5.895,2.154,0,0,0,0,0,0,0,0,0,0,0,0,0,0,0,0,
769,-5.219,-2.914,-3.067,-3.585,-12.22,-7.987,-3.888,-1.266,-14.64,-14.96,-14.49,-13.02,-4.803,-6.295,0.1745,-3,0,0,0,0,0,0,0,0,0,0,0,0,0,0,0,0,
770,-10.3,-4.412,-3.52,-3.109,-13.76,-9.354,-3.948,-2.581,-18.11,-0.9754,-15.03,-16.65,-9.36,-5.728,-4.237,-4.411,0,0,0,0,0,0,0,0,0,0,0,0,0,0,0,0,
771,-13.76,-7.43,-4.605,-5.267,-18.12,-14.31,-8.116,-7.448,-19.83,-0.9435,-11.87,-20.57,-13.68,-5.015,-8.857,-5.324,0,0,0,0,0,0,0,0,0,0,0,0,0,0,0,0,
772,-18.6,-12.5,-8.054,-7.192,-23.53,-18.86,-9.461,-5.812,-21.83,-5.797,-20.26,-24.87,-17.74,-3.223,-11,-7.701,0,0,0,0,0,0,0,0,0,0,0,0,0,0,0,0,
773,-20.49,-13,-9.228,-6.603,-25.95,-19.18,-7.203,-2.704,-20.3,-2.427,-27.78,-24.05,-16.83,-1.59,-8.699,-7.244,0,0,0,0,0,0,0,0,0,0,0,0,0,0,0,0,
774,-17.95,-9.846,-8.928,-7.905,-25.26,-18.7,-6.992,-4.333,-17.67,-4.722,-22.11,-19.22,-14.38,-5.945,-4.907,-4.99,0,0,0,0,0,0,0,0,0,0,0,0,0,0,0,0,
775,-15.2,-8.884,-7.824,-7.178,-20.75,-15.74,-5.955,-2.144,-14.54,-6.012,-12.08,-15.13,-14.91,-10.29,-3.827,-5.414,0,0,0,0,0,0,0,0,0,0,0,0,0,0,0,0,
776,-12.44,-9.422,-5.537,-4.15,-16.17,-10.75,-3.166,1.245,-10.7,4.102,-7.394,-13.93,-15.4,-8.847,-5.503,-8.778,0,0,0,0,0,0,0,0,0,0,0,0,0,0,0,0,
777,-8.368,-6.057,-5.428,-4.88,-15.65,-10.58,-2.4,-0.5598,-8.658,6.567,-6.705,-11.2,-9.97,-4.091,-3.572,-7.064,0,0,0,0,0,0,0,0,0,0,0,0,0,0,0,0,
778,-5.63,-0.6596,-5.736,-4.413,-14.18,-12.7,-1.565,0.3617,-7.637,-5.155,-9.399,-6.031,-1.445,0.8205,0.8592,0.6957,0,0,0,0,0,0,0,0,0,0,0,0,0,0,0,0,
779,-4.413,1.575,-2.633,-0.1065,-9.166,-10.14,1.225,4.379,-7.432,-8.171,-12.19,-3.97,3.125,2.926,1.31,4.249,0,0,0,0,0,0,0,0,0,0,0,0,0,0,0,0,
780,-1.033,4.283,3.674,3.454,-3.823,-3.268,5.037,4.539,-6.215,4.769,-3.843,-1.276,6.262,1.683,3.016,5.754,0,0,0,0,0,0,0,0,0,0,0,0,0,0,0,0,
781,3.37,8.766,8.731,6.741,1.349,3.356,8.25,2.607,0.3213,10.24,6.577,3.552,9.358,0.3481,9.169,10.19,0,0,0,0,0,0,0,0,0,0,0,0,0,0,0,0,
782,5,8.745,7.041,5.954,3.727,4.308,6.111,-0.2346,3.671,-0.9983,-0.3037,2.201,8.501,1.578,10.79,10.36,0,0,0,0,0,0,0,0,0,0,0,0,0,0,0,0,
783,3.083,5.024,3.19,-0.5515,-0.5183,-0.4534,0.1869,-4.257,-5.658,-9.504,-11.37,-2.558,3.845,0.1168,5.564,4.181,0,0,0,0,0,0,0,0,0,0,0,0,0,0,0,0,
784,-1.515,1.206,1.53,-2.577,-7.257,-3.803,-1.187,-5.093,-14.84,-10.81,-10.2,-4.685,-4.033,-7.444,-0.1002,-3.405,0,0,0,0,0,0,0,0,0,0,0,0,0,0,0,0,
785,-5.472,-3.135,-1.77,-1.229,-11.08,-4.712,-0.496,-3.497,-13.69,-11.9,-7.446,-6.559,-9.144,-10.29,-3.204,-6.76,0,0,0,0,0,0,0,0,0,0,0,0,0,0,0,0,
786,-8.018,-4.418,-5.102,-5.856,-14.82,-9.764,-5.949,-6.997,-14.32,-4.682,-10.15,-8.645,-5.601,-6.429,-3.531,-4.412,0,0,0,0,0,0,0,0,0,0,0,0,0,0,0,0,
787,-12.1,-1.514,-8.61,-10.91,-20.91,-18.15,-13.21,-13.46,-20.84,3.069,-15.41,-10.6,-1.579,-4.848,-1.415,-2.891,0,0,0,0,0,0,0,0,0,0,0,0,0,0,0,0,
788,-14.22,-0.7056,-13.9,-11.11,-24.05,-22.08,-14.7,-12.04,-23.17,-4.936,-17.6,-10.29,-1.702,-2.424,1.591,-3.145,0,0,0,0,0,0,0,0,0,0,0,0,0,0,0,0,
789,-10.95,-2.373,-13.24,-10.91,-20.95,-19.42,-12.49,-5.945,-19.15,-12.99,-7.782,-4.144,-1.93,-0.551,4.487,-1.845,0,0,0,0,0,0,0,0,0,0,0,0,0,0,0,0,
790,-5.88,-1.365,-7.154,-9.752,-14.74,-13.19,-9.459,-4.96,-11.22,-6.146,3.245,2.864,-1.198,-3.353,6.496,0.182,0,0,0,0,0,0,0,0,0,0,0,0,0,0,0,0,
791,-0.6521,1.073,-5.5,-8.596,-10.82,-8.886,-8.507,-6.026,-5.834,0.4438,-2.377,3.565,0.1016,-3.72,4.579,1.391,0,0,0,0,0,0,0,0,0,0,0,0,0,0,0,0,
792,0.4243,-1.543,-9.925,-13.96,-14.54,-13.63,-15.35,-9.357,-12.6,-6.307,-12.11,-2.909,-4.795,-7.846,-3.21,-3.743,0,0,0,0,0,0,0,0,0,0,0,0,0,0,0,0,
793,-7.555,-10.47,-14.99,-21.3,-21.82,-22.71,-23.7,-16.62,-21.66,-13.82,-11.84,-10.96,-15.22,-18.52,-10.97,-12.42,0,0,0,0,0,0,0,0,0,0,0,0,0,0,0,0,
794,-14.44,-16.17,-14.33,-20.47,-21.52,-22.18,-20.83,-16.48,-18.31,-8.399,-12.98,-12.15,-15.11,-19.05,-10.34,-11.98,0,0,0,0,0,0,0,0,0,0,0,0,0,0,0,0,
795,-10.82,-11.42,-8.839,-12.5,-15.25,-13.34,-11.17,-9.594,-12.79,-6.086,-16.05,-7.148,-6.45,-13.19,-4.263,-6.183,0,0,0,0,0,0,0,0,0,0,0,0,0,0,0,0,
796,-5.124,-4.113,-4.274,-4.748,-12.38,-8.691,-5.662,-8.076,-14.76,-16.56,-10.41,-3.633,-3.82,-13.26,-2.835,-5.045,0,0,0,0,0,0,0,0,0,0,0,0,0,0,0,0,
797,-4.146,-1.607,-0.2323,-1.829,-12.42,-9.168,-3.713,-8.751,-16.22,-17.48,-6.527,-3.447,-4.227,-11.64,-5.394,-5.056,0,0,0,0,0,0,0,0,0,0,0,0,0,0,0,0,
798,-3.284,-0.5224,2.966,-2.711,-11.1,-8.349,-2.524,-7.321,-15.68,-10.73,-9.484,-3.939,-3.402,-6.406,-4.149,-3.419,0,0,0,0,0,0,0,0,0,0,0,0,0,0,0,0,
799,-1.241,-1.116,0.3103,-3.988,-10.19,-7.247,-3.735,-7.711,-15.93,-13.67,-6.744,-4.719,-5.697,-4.791,-1.511,-4.367,0,0,0,0,0,0,0,0,0,0,0,0,0,0,0,0,
800,-1.895,-5.197,-7.579,-8.033,-12.97,-9.736,-8.94,-11.17,-13.63,-12.74,-5.683,-7.741,-9.192,-6.284,-3.695,-8.832,0,0,0,0,0,0,0,0,0,0,0,0,0,0,0,0,
801,-4.667,-7.754,-12.94,-15.4,-16.04,-12.6,-15.94,-17.61,-12.66,-9.181,-16.26,-11.76,-9.643,-7.305,-7.786,-11.36,0,0,0,0,0,0,0,0,0,0,0,0,0,0,0,0,
802,-5.726,-7.828,-12.16,-17,-13.26,-11.51,-18.02,-20.8,-14.71,-16.51,-21.16,-12.01,-9.237,-7.725,-8.705,-10.28,0,0,0,0,0,0,0,0,0,0,0,0,0,0,0,0,
803,-3.829,-7.92,-8.643,-10.6,-8.002,-7.94,-12.95,-15.39,-11.02,-16.23,-12.31,-7.598,-8.961,-9.072,-5.638,-8.686,0,0,0,0,0,0,0,0,0,0,0,0,0,0,0,0,
804,-0.2526,-5.142,-2.778,-5.159,-6.504,-3.561,-7.223,-9.528,-5.836,-7.865,-6.614,-2.944,-5.679,-7.493,-1.043,-4.721,0,0,0,0,0,0,0,0,0,0,0,0,0,0,0,0,
805,2.184,-0.1062,2.064,-3.879,-6.147,-0.9079,-5.226,-6.181,-7.564,-9.781,-9.302,-2.507,-2.363,-2.829,1.252,-0.4881,0,0,0,0,0,0,0,0,0,0,0,0,0,0,0,0,
806,1.726,1.65,-0.7566,-4.526,-4.833,-3.329,-5.322,-2.562,-8.478,-7.013,-9.127,-4.614,-2.499,-5.024,1.602,-0.8894,0,0,0,0,0,0,0,0,0,0,0,0,0,0,0,0,
807,0.6629,2.099,-4.933,-6.173,-5.609,-5.772,-4.869,-4.184,-7.827,2.972,-7.183,-4.347,-1.3,-10.76,2.003,-1.129,0,0,0,0,0,0,0,0,0,0,0,0,0,0,0,0,
808,0.654,5.296,-5.625,-5.277,-8.074,-3.98,-2.556,-6.365,-11.46,-2.655,-9.867,-2.9,0.5328,-8.546,1.588,-0.0139,0,0,0,0,0,0,0,0,0,0,0,0,0,0,0,0,
809,-0.3667,6.042,-6.568,-1.786,-9.849,-3.901,-0.8695,-1.127,-12.35,-14.26,-8.928,-2.085,-1.523,-3.645,1.627,-1.327,0,0,0,0,0,0,0,0,0,0,0,0,0,0,0,0,
810,-2.633,2.065,-4.92,-1.147,-10.28,-5.95,-2.116,0.7141,-9.495,-13.16,-3.604,-0.1547,-2.398,-1.501,3.257,-2.33,0,0,0,0,0,0,0,0,0,0,0,0,0,0,0,0,
811,-2.84,1.615,-3.583,-1.49,-8.751,-4.203,-2.605,-3.364,-9.028,-7.854,-5.526,0.652,0.7032,1.103,2.669,-1.791,0,0,0,0,0,0,0,0,0,0,0,0,0,0,0,0,
812,-1.359,4.577,-7.219,0.6826,-7.745,-1.951,-0.2415,-1.412,-8.913,-6.807,-10.14,-1.447,2.102,1.237,-0.9438,-1.686,0,0,0,0,0,0,0,0,0,0,0,0,0,0,0,0,
813,-1.961,3.245,-7.328,2.12,-9.308,-2.067,3.013,2.765,-8.208,-6.661,-6.817,-1.716,1.102,-1.624,-1.137,-1.413,0,0,0,0,0,0,0,0,0,0,0,0,0,0,0,0,
814,-0.6769,2.031,-2.17,3.012,-8.171,0.7453,6.259,0.0196,-4.933,-4.858,1.151,2.879,2.303,-3.408,3.674,0.5644,0,0,0,0,0,0,0,0,0,0,0,0,0,0,0,0,
815,5.697,3.877,-0.2358,1.808,-5.284,3.146,4.614,-6.309,-0.3018,-5.227,3.36,5.834,3.606,-5.089,5.302,1.856,0,0,0,0,0,0,0,0,0,0,0,0,0,0,0,0,
816,6.734,1.775,-4.339,-5.092,-8.782,-0.3207,-2.901,-9.911,-3.61,-7.207,-2.536,3.092,2.482,-2.892,4.657,0.4829,0,0,0,0,0,0,0,0,0,0,0,0,0,0,0,0,
817,1.333,0.7256,-7.874,-7.734,-11.8,-0.6614,-5.378,-7.842,-7.05,-0.031,-1.645,4.397,5.292,4.675,10.76,3.249,0,0,0,0,0,0,0,0,0,0,0,0,0,0,0,0,
818,1.431,5.78,-4.797,-3.093,-7.793,3.066,-2.647,-4.407,-2.825,7.896,6.175,8.858,7.965,4.633,13.94,7.173,0,0,0,0,0,0,0,0,0,0,0,0,0,0,0,0,
819,1.751,4.353,-4.325,-4.176,-7.584,-0.1877,-4.119,-4.785,-5.643,-3.319,0.4223,3.039,-0.3587,-3.489,3.76,0.2508,0,0,0,0,0,0,0,0,0,0,0,0,0,0,0,0,
820,-3.381,-4.777,-8.749,-7.196,-9.198,-2.96,-3.716,-4.92,-11.19,-16.24,-6.191,-2.508,-8.268,-5.31,-4.002,-7.445,0,0,0,0,0,0,0,0,0,0,0,0,0,0,0,0,
821,-1.016,-6.213,-3.805,-2.327,-3.045,3.541,2.876,-2.513,-3.446,-10.49,4.62,4.033,-5.288,-2.848,-1.195,-5.848,0,0,0,0,0,0,0,0,0,0,0,0,0,0,0,0,
822,5.845,-0.1616,3.622,1.469,0.148,6.324,4.494,-0.8314,3.191,-6.668,7.087,5.4,-1.735,-2.68,-1.3,-5.047,0,0,0,0,0,0,0,0,0,0,0,0,0,0,0,0,
823,2.156,2.21,-0.3799,-0.9817,-3.951,1.114,-0.0986,-1.183,-1.275,-11.93,-7.717,-3.263,-1.14,-1.321,-4.867,-6.441,0,0,0,0,0,0,0,0,0,0,0,0,0,0,0,0,
824,-4.509,1.288,-4.217,-2.819,-4.392,-1.223,-1.299,-3.911,-3.193,-8.945,-11.07,-6.107,-1.058,-1.779,-4.027,-6.266,0,0,0,0,0,0,0,0,0,0,0,0,0,0,0,0,
825,-3.942,0.2388,-0.4485,-0.9601,-2.322,0.1731,0.7491,-6.141,-1.434,-6.224,-0.7938,-3.28,-3.155,-6.581,-2.848,-7.109,0,0,0,0,0,0,0,0,0,0,0,0,0,0,0,0,
826,-1.584,-2.379,0.7032,0.6744,-2.337,0.4985,-0.3759,-5.624,-1.6,-9.304,2.293,-1.707,-2.796,-8.025,-2.265,-6.289,0,0,0,0,0,0,0,0,0,0,0,0,0,0,0,0,
827,0.4107,-2.052,-2.537,-3.235,-2.108,-0.6129,-3.919,-5.619,1.199,-2.147,-1.127,0.8661,1.575,-4.404,0.8146,-2.443,0,0,0,0,0,0,0,0,0,0,0,0,0,0,0,0,
828,1.95,2.41,-2.811,-7.649,-2.449,-2.186,-4.317,-6.389,4.027,3.986,-0.3264,2.225,2.192,-4.147,-0.0505,-0.756,0,0,0,0,0,0,0,0,0,0,0,0,0,0,0,0,
829,-1.219,-0.0942,-2.712,-5.328,-3.922,-3.877,-3.525,-7.128,-0.4424,-6.876,0.9875,-1.335,-2.268,-8.351,-5.282,-3.572,0,0,0,0,0,0,0,0,0,0,0,0,0,0,0,0,
830,-5.675,-8.735,-8.302,-4.318,-6.042,-7.623,-7.552,-9.254,-5.473,-17.42,-2.696,-3.844,-3.576,-6.513,-5.267,-5.487,0,0,0,0,0,0,0,0,0,0,0,0,0,0,0,0,
831,-7.01,-10.49,-12.78,-9.807,-9.655,-13.2,-13.34,-10.47,-5.62,-18.58,-6.661,-4.258,-1.772,-1.415,-3.864,-3.974,0,0,0,0,0,0,0,0,0,0,0,0,0,0,0,0,
832,-10.42,-8.737,-12.23,-13.44,-12.31,-16.62,-15.03,-10.65,-6.462,-18.32,-6.702,-10.17,-6.072,-5.857,-9.376,-6.852,0,0,0,0,0,0,0,0,0,0,0,0,0,0,0,0,
833,-17.55,-10.89,-13.24,-14.14,-13.35,-18.13,-14.17,-12.25,-8.125,-15.31,-5.059,-17.14,-11.75,-10.95,-14.1,-12.45,0,0,0,0,0,0,0,0,0,0,0,0,0,0,0,0,
834,-21.72,-11.92,-14.44,-16.47,-13.94,-19.68,-14.3,-12.42,-7.333,-10.46,-6.987,-16.83,-10.79,-9.347,-12.52,-13.13,0,0,0,0,0,0,0,0,0,0,0,0,0,0,0,0,
835,-18.64,-11.87,-11.54,-16.23,-9.742,-17.39,-14.73,-9.947,-4.585,-9.448,-10.76,-13.43,-10.91,-12.38,-10.72,-14.44,0,0,0,0,0,0,0,0,0,0,0,0,0,0,0,0,
836,-10.21,-13.21,-6.831,-11.4,-1.021,-9.636,-13.21,-8.486,0.9759,-13.13,-7.591,-9.791,-12.15,-14.71,-10.55,-15.84,0,0,0,0,0,0,0,0,0,0,0,0,0,0,0,0,
837,-3.308,-10.09,-4.31,-9.332,3.184,-3.561,-10.59,-7.889,4.867,-14.16,-2.06,-6.239,-8.117,-8.914,-11.04,-12.5,0,0,0,0,0,0,0,0,0,0,0,0,0,0,0,0,
838,-2.269,-3.866,-7.498,-11.81,0.1893,-4.37,-10.04,-6.265,1.119,-4.644,-3.919,-6.132,-6.759,-9.274,-13.33,-13.44,0,0,0,0,0,0,0,0,0,0,0,0,0,0,0,0,
839,-4.206,-5.462,-12.7,-13.9,-5.496,-9.226,-13,-6.736,-4.559,-1.702,-6.726,-6.861,-11.94,-17.95,-14.96,-20.23,0,0,0,0,0,0,0,0,0,0,0,0,0,0,0,0,
840,-6.17,-14.59,-13.04,-14.37,-8.917,-12.39,-15.84,-9.244,-4.774,-14.35,-3.16,-4.824,-14.5,-20.56,-12.36,-21.48,0,0,0,0,0,0,0,0,0,0,0,0,0,0,0,0,
841,-5.63,-17.07,-9.129,-11.31,-5.202,-9.036,-12.59,-7.485,-0.4042,-15.11,3.09,-1.556,-9.346,-13.99,-7.188,-13.96,0,0,0,0,0,0,0,0,0,0,0,0,0,0,0,0,
842,-2.658,-10.17,-6.652,-5.642,-0.0569,-3.454,-7.374,-4.679,0.9125,-9.114,4.416,-0.5766,-3.331,-6.563,-4.498,-5.701,0,0,0,0,0,0,0,0,0,0,0,0,0,0,0,0,
843,-4.261,-7.689,-9.229,-4.975,-3.792,-5.493,-8.683,-8.941,-4.2,-21.69,0.7134,-4.651,-4.564,-3.085,-6.047,-2.976,0,0,0,0,0,0,0,0,0,0,0,0,0,0,0,0,
844,-10.02,-11.81,-11.77,-8.281,-9.584,-11.25,-12.32,-14.47,-5.11,-27.36,1.639,-10.18,-7.905,-0.8422,-10.11,-3.421,0,0,0,0,0,0,0,0,0,0,0,0,0,0,0,0,
845,-12.86,-13.09,-11.31,-10.07,-8.142,-11.54,-12.84,-13.77,-0.6906,-14.82,3.913,-13.1,-8.028,-1.951,-13.79,-5.025,0,0,0,0,0,0,0,0,0,0,0,0,0,0,0,0,
846,-13.67,-10.93,-10.78,-10.75,-4.595,-8.244,-12.26,-10.48,-2.115,-11.75,-0.3491,-12.38,-7.599,-8.409,-11.49,-5.912,0,0,0,0,0,0,0,0,0,0,0,0,0,0,0,0,
847,-10.97,-6.916,-6.461,-8.931,-2.258,-4.108,-10.28,-9.662,-1.614,-10.79,-2.665,-6.752,-5.655,-12.13,-4.137,-4.963,0,0,0,0,0,0,0,0,0,0,0,0,0,0,0,0,
848,-3.69,-3.174,-3.749,-7.207,-0.1993,-1.002,-9.299,-11.75,6.41,-2.673,-2.186,-2.732,-7.482,-15.3,-2.001,-11.62,0,0,0,0,0,0,0,0,0,0,0,0,0,0,0,0,
849,-2.324,-6.655,-8.443,-10.24,0.1753,-1.485,-11.54,-11.92,6.658,-9.42,-2.978,-5.198,-17.92,-23.48,-6.974,-25.15,0,0,0,0,0,0,0,0,0,0,0,0,0,0,0,0,
850,-6.877,-13.63,-6.346,-12.34,0.777,-1.629,-11.68,-9.248,-0.4184,-22.48,-0.1912,-7.548,-23.59,-24.5,-12.58,-30.32,0,0,0,0,0,0,0,0,0,0,0,0,0,0,0,0,
