%OpenBCI Raw EXG Data
%Number of channels = 16
%Sample Rate = 125 Hz
%Board = OpenBCI_GUI$BoardCytonSerialDaisy
Sample Index,EXG Channel 0,EXG Channel 1,EXG Channel 2,EXG Channel 3,EXG Channel 4,EXG Channel 5,EXG Channel 6,EXG Channel 7,EXG Channel 8,EXG Channel 9,EXG Channel 10,EXG Channel 11,EXG Channel 12,EXG Channel 13,EXG Channel 14,EXG Channel 15,Accel Channel 0,Accel Channel 1,Accel Channel 2,Other,Other.1,Other.2,Other.3,Other.4,Other.5,Other.6,Analog Channel 0,Analog Channel 1,Analog Channel 2,Timestamp,Other.7,Timestamp (Formatted),Annotations
1,0.0,0.0,0.0,-0.0,0.0,0.0,0.0,-0.0,0.0,-0.0,0.0,0.0,-0.0,-0.0,0.0,-0.0,0,0,0,0,0,0,0,0,0,0,0,0,0,0,0,0,T0
2,-4.699,-4.646,-2.337,-4.595,-2.363,-3.225,-1.26,-2.947,-3.618,-5.857,-1.148,-2.001,-2.216,-5.207,-5.152,-6.336,0,0,0,0,0,0,0,0,0,0,0,0,0,0,0,0,
3,0.9348,-2.37,-1.044,-4.496,-0.9941,-3.282,-0.7375,-3.278,-5.424,-7.449,0.1653,-4.97,-3.783,-8.704,-7.651,-11.38,0,0,0,0,0,0,0,0,0,0,0,0,0,0,0,0,
4,3.864,-1.442,-0.4998,-5.522,-0.5294,-4.266,-2.451,-4.926,-6.588,-9.551,-1.643,-9.956,-7.526,-13.48,-10.44,-16.61,0,0,0,0,0,0,0,0,0,0,0,0,0,0,0,0,
5,0.3862,-3.001,-1.853,-8.752,-1.846,-6.097,-5.098,-7.401,-9.564,-13.83,-4.683,-13.01,-10.88,-15.76,-12.51,-19.55,0,0,0,0,0,0,0,0,0,0,0,0,0,0,0,0,
6,0.6018,-3.802,-2.107,-7.277,-2.034,-4.108,-5.894,-5.095,-11.52,-13.55,-5.521,-10.84,-10.32,-12.25,-12.22,-18.97,0,0,0,0,0,0,0,0,0,0,0,0,0,0,0,0,
7,1.758,-4.698,-2.635,-3.94,-2.711,-0.5844,-6.945,-0.4129,-10.48,-8.783,-6.579,-8.106,-8.538,-9.334,-12.03,-18.42,0,0,0,0,0,0,0,0,0,0,0,0,0,0,0,0,
8,2.119,-1.353,-2.355,-3.283,-2.294,2.29,-6.502,0.7463,-8.687,-5.92,-5.62,-8.785,-6.86,-8.859,-11.65,-18.36,0,0,0,0,0,0,0,0,0,0,0,0,0,0,0,0,
9,6.978,5.503,1.425,0.49,1.565,6.62,-3.937,0.3806,-5.106,-3.727,-3.339,-10.07,-4.936,-7.572,-11.23,-18.35,0,0,0,0,0,0,0,0,0,0,0,0,0,0,0,0,
10,10.32,8.515,3.981,4.684,3.641,8.602,-4.185,0.9173,-1.353,-0.8673,-4.77,-9.854,-5.059,-8.136,-12.96,-19.17,0,0,0,0,0,0,0,0,0,0,0,0,0,0,0,0,
11,8.999,5.658,3.091,0.8363,2.713,6.145,-6.342,-0.1308,-2.229,-2.29,-6.826,-9.007,-7.635,-11.17,-15.52,-19.18,0,0,0,0,0,0,0,0,0,0,0,0,0,0,0,0,
12,9.252,-0.6203,2.27,-3.295,2.617,5.008,-7.505,-1.779,-5.05,-6.358,-7.498,-6.743,-10.54,-11.55,-17.44,-17.93,0,0,0,0,0,0,0,0,0,0,0,0,0,0,0,0,
13,12.07,0.8588,3.141,-0.0151,3.701,6.022,-7.77,-1.434,-5.851,-6.714,-7.743,-3.277,-11.54,-9.175,-17.65,-15.37,0,0,0,0,0,0,0,0,0,0,0,0,0,0,0,0,
14,16.7,13.4,7.026,2.247,6.898,5.989,-5.021,-2.0,-5.234,-5.612,-4.33,-2.367,-9.653,-8.371,-14.58,-10.77,0,0,0,0,0,0,0,0,0,0,0,0,0,0,0,0,
15,16.83,15.15,8.907,-1.335,8.665,4.378,-2.01,-5.028,-4.217,-8.071,-1.146,-4.447,-7.541,-9.458,-10.72,-7.884,0,0,0,0,0,0,0,0,0,0,0,0,0,0,0,0,
16,7.051,2.365,3.772,-4.531,4.398,1.18,-2.849,-6.901,-4.606,-11.72,-2.671,-6.62,-7.233,-10.61,-9.07,-9.877,0,0,0,0,0,0,0,0,0,0,0,0,0,0,0,0,
17,2.268,-0.1214,2.716,-5.155,3.135,-1.141,-2.554,-7.147,-6.314,-13.21,-2.29,-10.54,-7.734,-13.72,-10.11,-15.45,0,0,0,0,0,0,0,0,0,0,0,0,0,0,0,0,
18,9.014,4.771,8.273,-7.332,7.688,-2.412,-0.5902,-8.928,-8.049,-15.24,-0.0943,-16.91,-9.351,-19.86,-12.63,-22.54,0,0,0,0,0,0,0,0,0,0,0,0,0,0,0,0,
19,10.26,-1.063,6.223,-10.82,6.297,-6.122,-1.709,-11.54,-11.07,-19.5,-1.352,-20.17,-10.13,-23.6,-12.25,-27.2,0,0,0,0,0,0,0,0,0,0,0,0,0,0,0,0,
20,6.029,-4.856,2.479,-10.33,3.15,-6.999,-1.307,-11.25,-11.95,-20.53,-0.3864,-19.66,-6.41,-21.48,-8.717,-27.12,0,0,0,0,0,0,0,0,0,0,0,0,0,0,0,0,
21,9.687,1.972,8.902,-7.053,8.477,-0.8212,2.615,-9.023,-6.54,-15.64,3.766,-20.35,-2.092,-18.0,-7.5,-25.1,0,0,0,0,0,0,0,0,0,0,0,0,0,0,0,0,
22,14.38,3.172,13.0,-7.518,12.61,3.241,2.834,-9.375,-1.217,-11.73,2.948,-21.48,-2.099,-16.35,-9.18,-22.61,0,0,0,0,0,0,0,0,0,0,0,0,0,0,0,0,
23,12.52,0.0124,9.477,-8.807,9.742,2.55,-0.5876,-10.5,-0.8994,-12.12,-0.9693,-20.12,-3.786,-14.77,-11.62,-19.66,0,0,0,0,0,0,0,0,0,0,0,0,0,0,0,0,
24,12.29,3.327,9.003,-6.106,8.114,3.639,-2.935,-8.192,-1.944,-11.19,-2.846,-18.76,-5.891,-13.83,-15.39,-19.22,0,0,0,0,0,0,0,0,0,0,0,0,0,0,0,0,
25,14.26,3.724,8.727,-5.793,7.546,3.359,-5.784,-6.288,-3.856,-9.184,-5.644,-19.08,-10.5,-15.75,-20.32,-22.86,0,0,0,0,0,0,0,0,0,0,0,0,0,0,0,0,
26,11.65,-0.3912,3.571,-9.578,3.953,-1.599,-10.04,-7.498,-7.548,-11.56,-10.23,-17.88,-16.21,-18.91,-25.86,-26.66,0,0,0,0,0,0,0,0,0,0,0,0,0,0,0,0,
27,8.1,0.6812,0.0019,-10.62,0.7844,-5.385,-13.03,-7.339,-10.69,-15.21,-13.59,-13.91,-20.47,-20.86,-29.91,-27.01,0,0,0,0,0,0,0,0,0,0,0,0,0,0,0,0,
28,7.576,0.2208,-0.077,-11.21,0.147,-6.413,-14.01,-5.913,-13.24,-15.95,-14.89,-10.5,-21.91,-22.35,-29.44,-25.95,0,0,0,0,0,0,0,0,0,0,0,0,0,0,0,0,
29,6.713,-4.484,0.3295,-15.09,0.4016,-7.855,-13.93,-7.513,-15.36,-17.8,-14.37,-10.57,-21.08,-24.69,-26.75,-25.34,0,0,0,0,0,0,0,0,0,0,0,0,0,0,0,0,
30,5.513,-5.093,1.321,-16.53,1.277,-9.261,-12.91,-10.94,-15.79,-21.87,-12.28,-12.74,-19.49,-25.71,-23.59,-23.17,0,0,0,0,0,0,0,0,0,0,0,0,0,0,0,0,
31,7.53,-4.905,3.237,-13.31,3.402,-8.78,-9.587,-12.66,-14.43,-23.03,-8.587,-13.6,-15.2,-22.64,-17.75,-19.64,0,0,0,0,0,0,0,0,0,0,0,0,0,0,0,0,
32,12.01,-4.531,5.242,-11.35,5.431,-6.37,-5.643,-12.47,-11.65,-20.39,-5.153,-13.67,-9.21,-17.86,-12.67,-16.93,0,0,0,0,0,0,0,0,0,0,0,0,0,0,0,0,
33,13.34,0.4143,6.512,-12.77,6.141,-2.812,-4.689,-10.98,-9.347,-16.67,-4.058,-14.79,-6.124,-13.9,-10.89,-13.8,0,0,0,0,0,0,0,0,0,0,0,0,0,0,0,0,
34,13.02,4.985,8.9,-9.947,8.742,1.811,-3.013,-7.314,-6.62,-11.8,-1.892,-14.19,-3.316,-9.364,-8.092,-9.712,0,0,0,0,0,0,0,0,0,0,0,0,0,0,0,0,
35,19.78,9.749,12.81,0.0971,13.02,5.823,1.161,-3.239,-0.8884,-7.114,1.208,-11.87,-0.3961,-7.138,-7.2,-9.664,0,0,0,0,0,0,0,0,0,0,0,0,0,0,0,0,
36,26.39,14.15,13.34,5.314,13.12,6.683,0.8316,-1.87,2.13,-6.128,0.0754,-11.36,-2.146,-9.698,-11.12,-14.86,0,0,0,0,0,0,0,0,0,0,0,0,0,0,0,0,
37,23.67,11.04,12.51,1.94,12.31,7.423,-0.6378,0.0694,0.54,-5.838,-0.2216,-8.938,-2.598,-9.933,-10.16,-16.07,0,0,0,0,0,0,0,0,0,0,0,0,0,0,0,0,
38,24.49,10.16,16.23,1.525,16.15,10.22,4.224,4.246,2.209,-2.547,4.759,-3.167,2.051,-6.039,-3.249,-9.135,0,0,0,0,0,0,0,0,0,0,0,0,0,0,0,0,
39,30.44,17.47,19.86,5.148,19.4,11.3,8.701,6.099,5.123,-1.22,8.677,0.2273,4.79,-3.466,1.351,-0.4513,0,0,0,0,0,0,0,0,0,0,0,0,0,0,0,0,
40,30.71,20.27,23.08,8.767,22.72,13.55,12.62,9.426,6.232,-1.207,14.03,5.534,9.088,2.554,9.319,9.864,0,0,0,0,0,0,0,0,0,0,0,0,0,0,0,0,
41,35.03,19.94,31.49,13.63,30.79,20.2,21.86,16.73,12.96,5.723,23.38,14.91,17.44,12.81,20.86,20.19,0,0,0,0,0,0,0,0,0,0,0,0,0,0,0,0,
42,40.9,20.53,33.37,10.49,31.63,19.72,22.08,15.45,18.71,12.02,21.22,13.16,14.49,11.66,17.27,16.25,0,0,0,0,0,0,0,0,0,0,0,0,0,0,0,0,
43,28.73,12.29,19.36,-3.673,18.0,7.086,5.704,3.623,9.175,3.958,4.552,-1.598,-1.504,-3.28,0.1018,-0.9838,0,0,0,0,0,0,0,0,0,0,0,0,0,0,0,0,
44,14.77,2.691,7.631,-9.875,7.335,-2.081,-5.095,-4.441,-5.803,-9.589,-4.754,-10.47,-9.563,-13.74,-6.316,-10.68,0,0,0,0,0,0,0,0,0,0,0,0,0,0,0,0,
45,20.52,4.938,10.65,-4.407,10.21,-0.6193,-0.2145,-5.719,-9.144,-13.58,-0.0791,-9.522,-4.855,-13.32,-0.735,-8.809,0,0,0,0,0,0,0,0,0,0,0,0,0,0,0,0,
46,26.09,8.639,15.2,-3.225,14.65,1.529,3.902,-5.293,-4.766,-11.79,3.578,-8.776,-1.556,-11.18,0.2784,-7.897,0,0,0,0,0,0,0,0,0,0,0,0,0,0,0,0,
47,22.18,8.726,16.03,-2.649,16.05,4.573,4.403,-1.746,-1.173,-9.909,5.166,-8.037,0.6101,-8.905,-0.3225,-8.568,0,0,0,0,0,0,0,0,0,0,0,0,0,0,0,0,
48,30.39,16.98,23.69,6.998,23.66,15.21,13.25,5.297,6.173,-3.365,14.56,-4.021,10.4,-2.407,6.156,-4.968,0,0,0,0,0,0,0,0,0,0,0,0,0,0,0,0,
49,45.6,29.82,35.95,14.9,35.32,25.33,23.92,11.5,18.97,6.58,24.62,-0.1873,19.93,4.732,10.49,-0.7177,0,0,0,0,0,0,0,0,0,0,0,0,0,0,0,0,
50,47.98,34.77,40.94,16.77,39.79,28.41,23.47,13.2,27.05,12.64,24.07,0.7183,20.11,7.321,6.646,-0.4934,0,0,0,0,0,0,0,0,0,0,0,0,0,0,0,0,
51,50.35,37.49,39.69,21.4,37.97,31.23,19.71,12.03,26.52,14.92,20.1,-0.128,18.31,7.791,4.03,-1.31,0,0,0,0,0,0,0,0,0,0,0,0,0,0,0,0,
52,59.8,46.01,40.3,24.69,38.35,34.49,22.45,12.73,25.9,16.83,22.11,-0.5132,20.08,9.839,5.991,0.0521,0,0,0,0,0,0,0,0,0,0,0,0,0,0,0,0,
53,58.6,49.98,42.98,21.05,41.12,33.67,24.75,13.52,28.27,17.56,24.33,-0.1779,19.76,10.87,6.1,1.511,0,0,0,0,0,0,0,0,0,0,0,0,0,0,0,0,
54,50.47,40.62,41.72,17.54,39.77,30.91,21.21,11.75,26.55,15.5,20.48,-0.1208,16.2,9.032,4.681,1.871,0,0,0,0,0,0,0,0,0,0,0,0,0,0,0,0,
55,50.37,31.91,36.76,18.16,35.07,28.23,17.97,11.56,20.66,12.28,16.85,0.9025,15.43,8.957,6.624,4.072,0,0,0,0,0,0,0,0,0,0,0,0,0,0,0,0,
56,54.01,38.23,36.69,20.58,35.51,27.16,18.85,12.78,19.42,11.02,18.99,2.996,17.84,12.06,9.305,7.245,0,0,0,0,0,0,0,0,0,0,0,0,0,0,0,0,
57,56.52,47.62,41.39,23.27,39.87,30.6,20.3,14.03,22.65,12.81,21.04,4.362,18.2,14.43,7.894,6.739,0,0,0,0,0,0,0,0,0,0,0,0,0,0,0,0,
58,58.15,47.03,41.35,25.36,39.2,34.85,19.38,19.39,22.73,16.93,18.73,6.132,16.18,15.93,5.218,4.66,0,0,0,0,0,0,0,0,0,0,0,0,0,0,0,0,
59,57.4,45.81,38.44,27.16,36.7,35.85,18.64,24.55,20.68,21.21,18.21,9.039,16.85,18.35,7.106,7.348,0,0,0,0,0,0,0,0,0,0,0,0,0,0,0,0,
60,58.35,49.78,42.01,30.0,41.16,39.04,23.19,25.17,23.28,24.45,24.49,12.56,23.13,22.95,13.99,15.27,0,0,0,0,0,0,0,0,0,0,0,0,0,0,0,0,
61,64.22,55.54,49.91,34.79,48.94,46.74,31.31,28.14,31.72,30.11,32.04,16.73,29.94,29.17,19.31,22.34,0,0,0,0,0,0,0,0,0,0,0,0,0,0,0,0,
62,69.0,64.68,53.44,39.08,51.68,50.31,33.84,31.43,38.35,36.03,32.98,18.01,30.06,30.41,18.25,23.04,0,0,0,0,0,0,0,0,0,0,0,0,0,0,0,0,
63,68.92,68.45,53.1,39.81,51.2,49.55,31.46,29.37,37.34,35.26,31.11,16.28,28.56,27.33,17.62,21.05,0,0,0,0,0,0,0,0,0,0,0,0,0,0,0,0,
64,71.8,60.66,56.27,40.9,54.35,53.85,34.25,29.55,37.22,34.37,34.73,17.49,33.6,29.25,22.33,21.5,0,0,0,0,0,0,0,0,0,0,0,0,0,0,0,0,
65,79.22,59.64,61.54,43.34,58.84,58.26,39.7,33.07,43.79,38.63,39.77,20.29,39.01,31.97,24.87,20.31,0,0,0,0,0,0,0,0,0,0,0,0,0,0,0,0,
66,80.0,69.8,61.96,41.44,58.87,54.79,40.18,33.33,47.29,38.39,40.14,20.93,38.47,28.66,23.26,17.07,0,0,0,0,0,0,0,0,0,0,0,0,0,0,0,0,
67,76.56,71.82,59.1,39.02,56.51,51.23,37.82,32.71,44.16,34.33,37.72,21.36,34.64,25.19,21.01,15.92,0,0,0,0,0,0,0,0,0,0,0,0,0,0,0,0,
68,76.14,65.37,55.92,41.8,53.82,50.79,33.68,32.45,39.53,33.45,33.32,21.06,29.56,23.51,16.81,14.27,0,0,0,0,0,0,0,0,0,0,0,0,0,0,0,0,
69,71.56,63.27,53.81,43.91,52.12,50.85,31.15,32.09,36.09,32.42,31.69,21.68,29.11,24.46,16.07,15.04,0,0,0,0,0,0,0,0,0,0,0,0,0,0,0,0,
70,68.4,65.37,57.13,43.28,55.22,55.54,36.17,34.69,39.49,34.49,37.1,25.63,35.75,31.27,21.03,21.56,0,0,0,0,0,0,0,0,0,0,0,0,0,0,0,0,
71,75.86,67.32,60.77,44.08,57.86,59.55,39.61,35.28,46.62,40.89,39.52,24.78,38.19,34.13,20.8,22.7,0,0,0,0,0,0,0,0,0,0,0,0,0,0,0,0,
72,79.94,68.84,58.7,44.76,55.91,56.77,36.72,30.41,45.83,40.08,36.72,17.47,34.7,28.23,16.74,16.18,0,0,0,0,0,0,0,0,0,0,0,0,0,0,0,0,
73,76.9,71.83,58.73,43.91,56.91,55.81,38.27,26.97,42.75,34.82,38.69,13.69,34.6,24.16,16.79,11.92,0,0,0,0,0,0,0,0,0,0,0,0,0,0,0,0,
74,76.92,74.15,60.13,42.34,58.06,56.57,40.26,26.19,44.6,34.28,39.79,13.17,34.61,23.37,15.8,10.05,0,0,0,0,0,0,0,0,0,0,0,0,0,0,0,0,
75,74.74,70.01,55.49,39.57,53.01,53.51,35.56,26.34,43.31,34.06,34.68,12.22,32.11,23.23,13.66,10.78,0,0,0,0,0,0,0,0,0,0,0,0,0,0,0,0,
76,68.83,64.25,52.7,38.35,50.4,53.0,33.69,28.82,40.48,34.46,33.12,13.0,32.85,25.77,14.9,15.37,0,0,0,0,0,0,0,0,0,0,0,0,0,0,0,0,
77,67.76,64.37,54.11,39.42,51.66,54.18,35.35,29.56,41.95,36.84,34.81,12.23,33.81,26.14,16.29,16.0,0,0,0,0,0,0,0,0,0,0,0,0,0,0,0,0,
78,70.1,66.72,52.72,39.7,50.56,52.05,35.08,28.49,41.77,35.32,35.1,10.14,33.11,24.19,18.79,13.71,0,0,0,0,0,0,0,0,0,0,0,0,0,0,0,0,
79,73.14,69.89,53.85,41.29,52.25,52.87,37.2,30.96,41.43,34.11,37.85,12.46,35.41,25.89,21.42,15.73,0,0,0,0,0,0,0,0,0,0,0,0,0,0,0,0,
80,76.99,73.98,58.7,44.52,56.57,55.92,39.85,33.15,45.37,36.35,39.95,15.9,36.76,27.15,18.59,17.78,0,0,0,0,0,0,0,0,0,0,0,0,0,0,0,0,
81,78.0,74.21,59.2,44.83,56.69,55.4,39.4,32.81,46.47,35.53,38.7,17.62,35.12,26.0,16.79,17.03,0,0,0,0,0,0,0,0,0,0,0,0,0,0,0,0,
82,76.91,72.74,58.27,43.75,56.06,55.35,40.0,33.84,44.11,34.21,39.46,19.29,35.64,26.35,19.65,16.6,0,0,0,0,0,0,0,0,0,0,0,0,0,0,0,0,
83,76.19,72.5,59.45,43.35,56.86,56.54,40.91,33.82,44.13,35.01,40.96,19.13,36.96,26.5,20.41,17.15,0,0,0,0,0,0,0,0,0,0,0,0,0,0,0,0,
84,74.21,72.64,59.08,42.04,56.21,55.49,40.44,32.51,44.65,33.98,40.86,19.64,37.35,26.84,21.36,19.73,0,0,0,0,0,0,0,0,0,0,0,0,0,0,0,0,
85,72.42,74.19,56.99,40.61,54.93,53.65,39.87,32.82,43.91,33.85,40.2,21.64,37.07,27.5,23.1,21.2,0,0,0,0,0,0,0,0,0,0,0,0,0,0,0,0,
86,71.78,70.75,54.04,39.09,52.55,51.69,37.11,31.91,41.91,34.23,37.05,19.67,33.51,25.35,20.23,18.67,0,0,0,0,0,0,0,0,0,0,0,0,0,0,0,0,
87,70.72,64.13,52.22,39.27,50.05,50.93,35.17,31.42,39.01,31.89,34.93,17.67,30.94,25.12,18.75,19.3,0,0,0,0,0,0,0,0,0,0,0,0,0,0,0,0,
88,72.3,68.87,53.45,42.67,50.75,51.68,37.33,32.92,39.24,32.01,37.07,18.68,32.4,27.3,20.93,22.07,0,0,0,0,0,0,0,0,0,0,0,0,0,0,0,0,
89,74.28,73.45,52.8,42.15,51.03,49.06,37.35,29.64,40.55,32.91,36.91,15.63,30.98,23.38,19.53,17.58,0,0,0,0,0,0,0,0,0,0,0,0,0,0,0,0,
90,68.92,62.67,48.55,35.9,47.51,44.26,33.4,23.04,37.14,28.48,32.61,9.571,25.97,15.56,15.88,9.983,0,0,0,0,0,0,0,0,0,0,0,0,0,0,0,0,
91,60.3,54.09,44.15,31.62,42.46,40.67,28.61,19.94,31.13,22.36,27.57,5.216,20.61,9.461,10.67,4.339,0,0,0,0,0,0,0,0,0,0,0,0,0,0,0,0,
92,56.5,53.97,40.0,30.81,38.19,35.78,23.57,18.87,25.28,16.56,23.21,3.084,15.55,5.755,3.451,-0.3602,0,0,0,0,0,0,0,0,0,0,0,0,0,0,0,0,
93,58.0,51.39,40.04,31.15,38.92,34.16,24.04,19.95,22.7,13.23,24.8,7.037,16.95,9.156,3.873,2.308,0,0,0,0,0,0,0,0,0,0,0,0,0,0,0,0,
94,62.77,54.01,45.84,31.14,44.43,40.17,30.96,24.62,28.13,18.37,31.55,13.88,24.77,17.84,11.14,10.99,0,0,0,0,0,0,0,0,0,0,0,0,0,0,0,0,
95,65.9,63.12,49.49,32.11,47.18,46.03,34.54,27.74,35.45,26.86,34.36,15.0,29.49,22.62,14.03,14.25,0,0,0,0,0,0,0,0,0,0,0,0,0,0,0,0,
96,65.31,64.99,49.48,38.52,47.0,48.16,34.57,27.67,37.15,30.77,34.23,12.92,30.66,23.12,14.56,12.96,0,0,0,0,0,0,0,0,0,0,0,0,0,0,0,0,
97,64.53,60.6,49.51,44.37,47.45,47.98,36.01,28.0,36.72,30.96,35.56,12.49,31.36,22.01,16.6,12.23,0,0,0,0,0,0,0,0,0,0,0,0,0,0,0,0,
98,62.52,57.92,47.03,42.36,45.25,43.48,34.0,28.66,35.55,28.21,33.89,13.6,28.57,19.55,15.71,11.52,0,0,0,0,0,0,0,0,0,0,0,0,0,0,0,0,
99,58.96,57.73,41.8,39.85,39.96,38.64,27.58,28.39,31.08,24.68,28.14,16.55,23.0,18.39,12.38,12.85,0,0,0,0,0,0,0,0,0,0,0,0,0,0,0,0,
100,57.68,58.61,38.83,40.0,36.96,38.84,24.95,28.62,26.82,24.07,25.43,20.08,20.67,19.62,11.59,16.35,0,0,0,0,0,0,0,0,0,0,0,0,0,0,0,0,
101,58.89,59.52,40.14,39.18,38.3,41.36,27.92,30.16,27.07,25.17,28.12,22.42,22.66,21.44,13.48,18.02,0,0,0,0,0,0,0,0,0,0,0,0,0,0,0,0,
102,61.23,60.23,41.87,40.53,40.01,42.54,29.39,31.54,29.11,26.1,29.23,22.78,22.88,21.29,13.56,17.26,0,0,0,0,0,0,0,0,0,0,0,0,0,0,0,0,
103,61.64,58.64,39.8,41.62,37.98,41.22,26.39,31.13,28.12,25.4,25.83,21.19,19.6,18.91,11.57,17.16,0,0,0,0,0,0,0,0,0,0,0,0,0,0,0,0,
104,58.01,54.72,37.36,36.66,35.45,39.04,24.33,29.2,26.1,23.24,24.42,20.68,18.32,18.55,12.21,18.81,0,0,0,0,0,0,0,0,0,0,0,0,0,0,0,0,
105,55.67,53.73,38.21,32.72,36.45,39.26,25.76,27.83,27.06,24.1,26.6,21.55,19.78,20.83,14.48,19.21,0,0,0,0,0,0,0,0,0,0,0,0,0,0,0,0,
106,56.96,55.51,38.8,35.9,37.82,40.13,27.82,27.06,28.75,27.31,28.44,20.94,21.95,21.96,15.3,18.71,0,0,0,0,0,0,0,0,0,0,0,0,0,0,0,0,
107,57.79,55.33,38.72,39.23,38.07,40.07,29.81,25.02,29.92,27.8,30.51,20.22,25.39,22.44,16.86,20.73,0,0,0,0,0,0,0,0,0,0,0,0,0,0,0,0,
108,58.34,53.61,41.89,38.12,40.74,42.56,32.43,24.54,32.98,27.46,33.59,21.05,27.97,23.88,19.48,22.81,0,0,0,0,0,0,0,0,0,0,0,0,0,0,0,0,
109,60.71,53.77,46.04,37.82,44.6,45.61,34.83,27.2,36.54,29.0,35.33,21.14,28.66,24.46,20.31,22.21,0,0,0,0,0,0,0,0,0,0,0,0,0,0,0,0,
110,61.43,56.91,45.56,40.09,44.22,43.52,34.95,27.06,36.75,28.67,34.33,19.97,29.27,23.69,19.58,21.89,0,0,0,0,0,0,0,0,0,0,0,0,0,0,0,0,
111,60.14,60.66,43.98,41.42,42.57,42.26,34.82,25.75,35.34,27.25,34.64,20.73,32.06,25.95,21.99,24.92,0,0,0,0,0,0,0,0,0,0,0,0,0,0,0,0,
112,63.83,63.59,49.47,42.78,47.35,49.18,40.29,30.88,39.69,31.73,40.95,23.86,38.25,32.62,28.61,29.85,0,0,0,0,0,0,0,0,0,0,0,0,0,0,0,0,
113,68.59,64.55,55.53,43.83,52.69,55.4,45.31,36.72,47.57,39.08,45.34,25.41,41.12,35.56,30.93,30.9,0,0,0,0,0,0,0,0,0,0,0,0,0,0,0,0,
114,64.64,61.33,52.33,41.13,49.69,52.82,41.11,36.06,47.08,39.7,40.58,25.48,36.43,31.12,27.05,27.34,0,0,0,0,0,0,0,0,0,0,0,0,0,0,0,0,
115,60.02,59.32,46.81,39.98,44.67,47.04,35.27,33.72,40.39,34.69,34.9,26.91,31.57,26.15,24.45,24.29,0,0,0,0,0,0,0,0,0,0,0,0,0,0,0,0,
116,58.47,59.49,42.05,42.72,40.34,41.54,31.25,33.24,35.88,29.42,30.43,27.89,26.82,22.43,21.1,21.59,0,0,0,0,0,0,0,0,0,0,0,0,0,0,0,0,
117,49.55,50.15,33.01,38.6,32.29,36.89,24.1,32.23,29.24,24.97,23.55,27.1,19.07,18.27,15.67,19.27,0,0,0,0,0,0,0,0,0,0,0,0,0,0,0,0,
118,41.91,39.42,29.59,30.45,29.3,37.1,21.84,29.57,22.5,23.79,23.08,26.31,16.64,17.95,16.29,20.98,0,0,0,0,0,0,0,0,0,0,0,0,0,0,0,0,
119,47.45,45.71,36.76,33.47,35.43,40.33,27.57,28.52,24.68,26.48,29.47,26.41,20.45,22.39,20.4,24.8,0,0,0,0,0,0,0,0,0,0,0,0,0,0,0,0,
120,54.48,56.31,38.67,40.26,36.4,41.11,28.77,31.19,28.11,29.66,29.32,26.99,19.97,25.65,18.96,26.74,0,0,0,0,0,0,0,0,0,0,0,0,0,0,0,0,
121,54.65,57.26,33.79,38.58,32.04,40.83,25.96,31.24,25.13,31.76,25.85,26.45,17.32,26.41,16.53,26.94,0,0,0,0,0,0,0,0,0,0,0,0,0,0,0,0,
122,53.75,57.34,38.27,38.9,37.55,43.42,29.99,25.84,26.74,33.36,30.67,24.64,21.97,28.14,19.93,26.63,0,0,0,0,0,0,0,0,0,0,0,0,0,0,0,0,
123,54.26,54.62,46.04,41.75,44.98,45.68,34.25,22.15,34.83,33.82,34.51,21.86,27.49,27.85,22.19,24.69,0,0,0,0,0,0,0,0,0,0,0,0,0,0,0,0,
124,56.32,49.64,41.83,36.33,39.94,43.76,30.34,22.91,35.15,31.3,29.74,18.49,26.14,23.93,19.05,21.78,0,0,0,0,0,0,0,0,0,0,0,0,0,0,0,0,
125,61.82,57.7,39.04,34.39,37.53,44.44,29.89,25.97,32.12,29.73,30.18,18.85,27.41,24.74,18.91,23.25,0,0,0,0,0,0,0,0,0,0,0,0,0,0,0,0,
126,64.13,64.18,45.19,41.45,43.66,48.23,34.38,28.32,37.25,33.14,34.56,21.33,31.53,27.79,20.53,25.43,0,0,0,0,0,0,0,0,0,0,0,0,0,0,0,0,
127,55.04,51.88,41.58,42.77,39.41,44.4,29.6,26.95,37.58,33.11,28.54,19.45,27.15,23.34,17.3,20.6,0,0,0,0,0,0,0,0,0,0,0,0,0,0,0,0,
128,47.78,47.98,34.62,41.31,33.26,38.98,24.3,25.94,29.9,27.39,23.75,16.9,22.61,19.16,15.75,15.39,0,0,0,0,0,0,0,0,0,0,0,0,0,0,0,0,
129,53.07,58.52,40.52,40.66,39.71,41.38,28.06,26.54,30.35,26.19,27.93,15.64,24.29,18.72,14.74,12.57,0,0,0,0,0,0,0,0,0,0,0,0,0,0,0,0,
130,54.39,53.18,42.23,31.69,40.63,41.63,26.48,24.73,31.94,26.04,26.08,12.38,21.47,13.43,8.569,7.628,0,0,0,0,0,0,0,0,0,0,0,0,0,0,0,0,
131,50.46,43.99,35.78,28.04,34.47,38.11,22.4,25.28,26.92,21.78,22.72,14.13,19.5,12.2,9.511,9.707,0,0,0,0,0,0,0,0,0,0,0,0,0,0,0,0,
132,55.97,53.06,37.93,37.61,37.38,39.08,27.92,29.08,29.34,23.01,28.1,22.35,25.88,21.52,19.74,20.82,0,0,0,0,0,0,0,0,0,0,0,0,0,0,0,0,
133,57.52,54.58,39.92,36.68,38.95,38.99,30.07,29.0,34.57,28.2,29.49,25.9,27.2,25.71,22.12,25.9,0,0,0,0,0,0,0,0,0,0,0,0,0,0,0,0,
134,46.11,40.02,33.66,25.83,32.59,34.15,23.64,26.99,28.81,26.06,23.7,24.17,20.26,21.49,16.24,23.86,0,0,0,0,0,0,0,0,0,0,0,0,0,0,0,0,
135,41.34,37.02,31.71,27.31,31.12,31.83,22.59,26.59,22.78,21.33,23.44,25.08,18.48,21.8,15.81,26.16,0,0,0,0,0,0,0,0,0,0,0,0,0,0,0,0,
136,46.9,44.78,33.84,33.56,32.69,32.98,26.55,26.18,25.19,23.18,27.06,27.68,22.41,25.9,19.77,30.47,0,0,0,0,0,0,0,0,0,0,0,0,0,0,0,0,
137,47.34,45.68,30.15,31.67,28.36,31.37,24.73,24.81,26.0,25.73,24.54,25.43,21.55,25.19,18.14,26.76,0,0,0,0,0,0,0,0,0,0,0,0,0,0,0,0,
138,42.22,42.0,25.32,27.48,24.47,28.98,20.91,22.12,21.61,23.26,21.32,20.54,18.91,23.64,15.91,21.16,0,0,0,0,0,0,0,0,0,0,0,0,0,0,0,0,
139,43.28,39.56,29.53,26.17,29.52,33.9,26.0,22.23,23.01,24.68,27.58,20.63,25.31,27.4,21.98,23.95,0,0,0,0,0,0,0,0,0,0,0,0,0,0,0,0,
140,50.32,42.73,38.02,31.64,37.17,40.02,33.83,25.75,31.93,31.35,34.64,21.67,33.33,29.67,26.74,25.99,0,0,0,0,0,0,0,0,0,0,0,0,0,0,0,0,
141,51.09,51.07,39.67,38.85,37.82,37.72,32.59,25.63,34.97,31.11,32.18,18.01,31.04,25.84,23.46,21.07,0,0,0,0,0,0,0,0,0,0,0,0,0,0,0,0,
142,46.04,50.7,37.25,35.94,35.2,34.99,27.66,24.24,29.97,26.18,27.69,16.49,25.03,22.39,20.3,18.13,0,0,0,0,0,0,0,0,0,0,0,0,0,0,0,0,
143,46.22,41.85,35.11,32.27,33.36,34.91,23.98,25.66,26.0,25.26,24.61,18.07,20.91,20.87,16.68,16.81,0,0,0,0,0,0,0,0,0,0,0,0,0,0,0,0,
144,46.36,38.2,28.73,32.75,27.7,29.97,17.42,24.44,22.12,23.42,18.13,16.43,15.12,18.34,9.671,13.58,0,0,0,0,0,0,0,0,0,0,0,0,0,0,0,0,
145,36.94,36.41,21.52,24.16,20.69,25.87,11.92,21.65,16.39,19.67,12.49,15.12,10.92,16.92,6.59,13.09,0,0,0,0,0,0,0,0,0,0,0,0,0,0,0,0,
146,31.45,36.12,21.51,20.59,20.48,28.87,12.93,22.43,14.47,19.72,13.49,18.05,13.57,18.77,10.47,15.68,0,0,0,0,0,0,0,0,0,0,0,0,0,0,0,0,
147,41.35,45.76,27.84,35.07,27.1,33.34,18.36,24.38,19.16,22.66,19.65,20.92,20.81,21.91,16.2,18.33,0,0,0,0,0,0,0,0,0,0,0,0,0,0,0,0,
148,48.76,51.57,33.38,41.54,32.25,34.48,22.81,23.81,25.68,24.84,24.02,19.9,24.43,20.48,17.02,17.04,0,0,0,0,0,0,0,0,0,0,0,0,0,0,0,0,
149,41.25,40.58,30.34,30.35,28.56,30.04,20.51,19.66,25.0,21.64,20.46,15.83,19.4,13.66,12.04,10.83,0,0,0,0,0,0,0,0,0,0,0,0,0,0,0,0,
150,33.43,27.18,21.8,19.26,20.89,23.86,14.45,15.79,17.38,14.6,14.12,13.62,12.51,10.55,8.671,8.346,0,0,0,0,0,0,0,0,0,0,0,0,0,0,0,0,
151,31.52,25.85,17.87,15.56,17.7,22.46,11.48,16.46,12.44,13.02,11.52,15.5,9.759,12.89,8.925,12.1,0,0,0,0,0,0,0,0,0,0,0,0,0,0,0,0,
152,28.57,33.82,17.41,19.86,16.88,21.63,10.86,17.7,10.52,14.95,10.89,17.9,9.791,15.01,11.07,16.91,0,0,0,0,0,0,0,0,0,0,0,0,0,0,0,0,
153,28.84,39.36,18.14,24.8,17.72,20.56,13.36,18.13,10.66,15.06,13.76,19.95,14.43,19.41,17.49,23.01,0,0,0,0,0,0,0,0,0,0,0,0,0,0,0,0,
154,34.76,36.34,22.89,23.5,22.35,25.19,18.53,21.31,16.79,18.51,19.11,21.46,19.89,24.19,21.83,26.02,0,0,0,0,0,0,0,0,0,0,0,0,0,0,0,0,
155,37.24,34.76,25.66,26.24,24.48,29.13,19.13,23.62,20.14,22.39,19.3,19.88,18.7,22.65,17.82,21.87,0,0,0,0,0,0,0,0,0,0,0,0,0,0,0,0,
156,35.47,41.33,24.84,32.9,23.92,28.96,18.29,23.19,16.92,21.78,18.63,17.78,17.92,21.33,14.35,18.54,0,0,0,0,0,0,0,0,0,0,0,0,0,0,0,0,
157,36.07,45.41,27.02,33.3,26.23,31.75,20.86,23.95,19.7,24.09,21.63,16.77,20.58,23.4,13.47,16.93,0,0,0,0,0,0,0,0,0,0,0,0,0,0,0,0,
158,37.17,43.04,26.68,34.59,25.43,32.54,18.98,24.3,24.07,26.74,19.55,14.66,17.94,21.41,9.717,12.85,0,0,0,0,0,0,0,0,0,0,0,0,0,0,0,0,
159,35.6,42.3,22.25,40.46,21.62,29.11,15.29,23.85,20.47,23.18,15.68,15.5,15.92,19.92,10.27,13.95,0,0,0,0,0,0,0,0,0,0,0,0,0,0,0,0,
160,35.31,39.68,23.11,39.67,22.92,31.02,17.54,25.07,20.31,22.92,17.89,18.99,19.77,22.81,14.36,18.64,0,0,0,0,0,0,0,0,0,0,0,0,0,0,0,0,
161,35.37,33.33,22.43,32.82,21.46,32.04,15.26,24.14,23.32,25.87,15.34,18.12,17.95,21.51,10.34,15.61,0,0,0,0,0,0,0,0,0,0,0,0,0,0,0,0,
162,31.16,36.17,13.73,32.32,13.08,25.03,6.656,22.02,17.54,21.73,6.695,18.39,12.6,19.18,6.253,13.46,0,0,0,0,0,0,0,0,0,0,0,0,0,0,0,0,
163,26.44,38.66,9.652,34.51,10.04,21.84,5.187,24.87,12.2,18.12,5.496,23.92,13.69,22.31,9.967,19.2,0,0,0,0,0,0,0,0,0,0,0,0,0,0,0,0,
164,24.39,25.46,12.7,27.72,12.55,24.23,7.731,27.19,14.02,20.72,8.229,23.9,13.65,21.62,9.5,18.29,0,0,0,0,0,0,0,0,0,0,0,0,0,0,0,0,
165,23.19,23.1,13.57,23.89,12.76,22.88,6.58,23.24,12.86,18.86,6.94,18.27,8.817,14.75,4.851,10.76,0,0,0,0,0,0,0,0,0,0,0,0,0,0,0,0,
166,23.61,38.27,12.27,32.12,11.96,20.34,6.654,20.21,9.104,13.33,6.623,17.19,7.033,11.73,6.187,10.79,0,0,0,0,0,0,0,0,0,0,0,0,0,0,0,0,
167,24.41,33.6,10.65,33.13,10.24,18.55,7.381,20.36,8.083,12.89,7.412,17.42,6.529,11.99,8.275,13.45,0,0,0,0,0,0,0,0,0,0,0,0,0,0,0,0,
168,21.97,18.27,7.126,24.14,6.289,12.78,4.341,16.49,4.884,11.58,4.886,13.34,3.103,8.907,6.484,11.34,0,0,0,0,0,0,0,0,0,0,0,0,0,0,0,0,
169,17.53,22.38,3.539,20.21,3.583,7.461,1.968,10.7,-0.9925,4.947,2.887,9.248,1.922,5.615,6.547,10.03,0,0,0,0,0,0,0,0,0,0,0,0,0,0,0,0,
170,15.65,24.68,4.052,19.45,4.887,10.07,4.101,11.02,-1.49,3.638,5.219,7.494,5.813,7.154,9.195,9.448,0,0,0,0,0,0,0,0,0,0,0,0,0,0,0,0,
171,18.96,21.61,10.17,24.38,10.39,17.59,8.92,14.92,4.749,10.14,10.13,7.423,11.67,11.86,13.41,9.319,0,0,0,0,0,0,0,0,0,0,0,0,0,0,0,0,
172,27.42,38.49,20.23,36.93,19.96,27.53,17.59,19.2,13.31,16.95,19.1,12.68,20.98,19.94,23.14,17.5,0,0,0,0,0,0,0,0,0,0,0,0,0,0,0,0,
173,40.12,51.35,32.24,41.02,31.52,40.79,30.5,27.41,24.66,26.95,31.87,22.03,33.52,30.89,34.62,28.93,0,0,0,0,0,0,0,0,0,0,0,0,0,0,0,0,
174,48.36,40.09,38.96,38.74,36.67,45.84,36.46,32.0,34.58,37.14,36.34,24.69,37.71,33.71,36.47,29.6,0,0,0,0,0,0,0,0,0,0,0,0,0,0,0,0,
175,40.68,36.66,32.4,40.34,29.6,35.33,27.62,24.23,32.37,32.95,26.67,18.56,29.0,25.21,28.46,23.28,0,0,0,0,0,0,0,0,0,0,0,0,0,0,0,0,
176,25.27,42.79,19.25,36.39,18.11,24.08,14.41,16.67,21.11,20.58,13.99,14.42,17.83,17.98,19.43,20.51,0,0,0,0,0,0,0,0,0,0,0,0,0,0,0,0,
177,16.72,32.79,9.501,28.67,9.487,19.1,6.508,17.57,11.54,15.1,6.258,15.76,10.69,15.89,14.01,20.29,0,0,0,0,0,0,0,0,0,0,0,0,0,0,0,0,
178,13.73,20.2,3.667,26.36,3.644,13.0,3.541,16.7,5.475,12.19,3.831,17.36,7.995,13.96,14.0,21.47,0,0,0,0,0,0,0,0,0,0,0,0,0,0,0,0,
179,13.67,19.54,2.784,23.99,2.806,8.985,4.263,14.8,2.715,8.113,5.307,17.95,8.216,12.62,14.97,23.62,0,0,0,0,0,0,0,0,0,0,0,0,0,0,0,0,
180,15.95,22.64,5.423,22.51,5.151,9.854,4.419,18.56,1.749,7.554,4.969,18.68,6.529,12.37,10.99,22.53,0,0,0,0,0,0,0,0,0,0,0,0,0,0,0,0,
181,15.65,27.11,6.185,23.64,5.54,10.62,2.215,19.96,0.4793,9.128,2.561,18.4,4.477,12.77,8.026,20.17,0,0,0,0,0,0,0,0,0,0,0,0,0,0,0,0,
182,12.89,24.12,6.056,20.77,5.499,12.1,2.384,15.5,1.953,10.32,3.283,15.92,6.398,13.54,9.825,19.02,0,0,0,0,0,0,0,0,0,0,0,0,0,0,0,0,
183,10.53,14.54,6.379,20.95,5.798,14.15,3.92,13.76,4.628,10.96,4.832,12.66,8.398,12.3,10.08,15.76,0,0,0,0,0,0,0,0,0,0,0,0,0,0,0,0,
184,10.6,19.47,4.452,28.4,4.053,13.32,1.934,15.32,3.861,10.66,2.652,9.94,6.231,8.67,7.535,9.799,0,0,0,0,0,0,0,0,0,0,0,0,0,0,0,0,
185,13.18,29.67,1.179,30.81,1.256,11.94,-1.864,15.65,1.263,10.05,-1.185,7.737,2.544,5.366,5.29,4.401,0,0,0,0,0,0,0,0,0,0,0,0,0,0,0,0,
186,12.42,25.77,0.3966,27.64,0.3522,12.35,-2.279,16.2,-0.7325,9.964,-1.204,7.716,2.615,5.868,5.83,4.264,0,0,0,0,0,0,0,0,0,0,0,0,0,0,0,0,
187,7.85,19.33,1.751,24.97,1.549,11.45,0.228,15.65,-1.309,10.43,1.764,8.406,5.023,8.171,7.923,8.023,0,0,0,0,0,0,0,0,0,0,0,0,0,0,0,0,
188,5.393,17.61,1.97,21.46,2.014,7.824,1.321,11.58,-1.196,8.723,2.146,6.549,4.342,6.243,6.315,7.909,0,0,0,0,0,0,0,0,0,0,0,0,0,0,0,0,
189,5.531,17.61,3.565,21.08,3.438,6.54,3.562,10.17,-0.7112,4.905,3.589,5.988,4.741,4.084,4.851,6.337,0,0,0,0,0,0,0,0,0,0,0,0,0,0,0,0,
190,7.719,17.64,8.736,23.82,8.55,10.3,8.508,13.27,2.409,5.566,8.937,8.305,8.97,6.912,7.86,7.664,0,0,0,0,0,0,0,0,0,0,0,0,0,0,0,0,
191,12.14,13.36,12.34,23.73,12.47,14.38,9.759,14.29,6.183,10.54,10.77,9.213,10.14,9.201,8.155,6.945,0,0,0,0,0,0,0,0,0,0,0,0,0,0,0,0,
192,16.02,18.05,13.91,24.91,13.52,16.81,8.793,13.54,8.672,13.36,9.69,8.389,9.696,8.996,5.736,5.387,0,0,0,0,0,0,0,0,0,0,0,0,0,0,0,0,
193,17.25,33.2,15.68,27.4,14.82,19.05,10.7,13.11,11.67,13.52,11.02,6.695,13.11,9.884,8.033,7.228,0,0,0,0,0,0,0,0,0,0,0,0,0,0,0,0,
194,17.01,31.87,16.64,24.85,16.43,21.19,13.1,12.24,13.85,13.96,13.53,7.106,17.96,13.3,13.9,11.64,0,0,0,0,0,0,0,0,0,0,0,0,0,0,0,0,
195,17.95,22.9,19.68,21.84,19.48,23.87,15.43,14.44,16.32,17.27,16.69,11.87,21.49,18.4,17.62,17.15,0,0,0,0,0,0,0,0,0,0,0,0,0,0,0,0,
196,18.85,27.19,20.8,22.7,19.92,24.83,15.23,17.48,19.11,21.65,16.19,13.52,20.47,19.6,15.16,17.49,0,0,0,0,0,0,0,0,0,0,0,0,0,0,0,0,
197,17.22,25.29,13.3,25.75,12.87,22.48,9.43,15.84,15.91,21.82,9.425,11.44,14.82,16.76,10.05,12.65,0,0,0,0,0,0,0,0,0,0,0,0,0,0,0,0,
198,14.71,17.55,7.835,30.41,7.996,20.9,5.957,15.39,10.41,20.17,6.304,13.61,12.82,17.09,10.6,12.26,0,0,0,0,0,0,0,0,0,0,0,0,0,0,0,0,
199,13.85,25.7,11.42,32.65,11.02,21.93,8.613,19.9,10.84,21.07,9.738,16.43,16.64,19.32,14.48,14.66,0,0,0,0,0,0,0,0,0,0,0,0,0,0,0,0,
200,17.1,34.85,13.99,31.91,13.1,24.55,10.5,23.46,14.07,22.3,11.29,16.54,19.83,20.26,15.19,14.95,0,0,0,0,0,0,0,0,0,0,0,0,0,0,0,0,
201,21.01,32.58,12.32,33.59,11.89,26.77,9.99,24.09,16.24,22.54,10.28,17.44,20.65,21.35,14.76,15.41,0,0,0,0,0,0,0,0,0,0,0,0,0,0,0,0,
202,18.42,32.1,12.17,35.19,12.3,25.74,10.1,22.88,17.48,21.82,10.68,15.75,20.92,20.16,14.89,13.83,0,0,0,0,0,0,0,0,0,0,0,0,0,0,0,0,
203,15.35,32.46,14.56,32.59,14.2,24.58,11.32,20.43,17.28,19.97,12.32,11.73,20.2,17.05,13.96,11.28,0,0,0,0,0,0,0,0,0,0,0,0,0,0,0,0,
204,17.35,28.64,16.49,29.78,15.34,25.74,12.88,19.37,16.75,19.1,14.06,11.49,19.35,16.51,14.14,13.0,0,0,0,0,0,0,0,0,0,0,0,0,0,0,0,0,
205,16.65,25.3,15.85,28.63,14.92,24.73,13.48,18.59,16.55,18.98,14.41,10.96,20.6,16.43,16.0,13.75,0,0,0,0,0,0,0,0,0,0,0,0,0,0,0,0,
206,12.87,20.91,13.79,26.32,13.22,21.13,12.52,14.38,15.67,17.03,12.69,6.514,21.6,14.65,15.4,10.07,0,0,0,0,0,0,0,0,0,0,0,0,0,0,0,0,
207,12.52,18.82,13.92,23.95,13.17,20.36,12.8,10.87,15.66,15.01,13.29,5.592,21.63,15.73,14.9,10.11,0,0,0,0,0,0,0,0,0,0,0,0,0,0,0,0,
208,15.88,24.86,17.86,23.41,17.37,24.14,16.89,13.08,19.32,17.37,18.26,9.527,24.28,19.95,18.6,15.27,0,0,0,0,0,0,0,0,0,0,0,0,0,0,0,0,
209,19.19,27.43,20.92,20.94,20.84,26.98,19.28,14.44,23.05,21.11,19.93,10.26,24.99,20.29,19.16,16.76,0,0,0,0,0,0,0,0,0,0,0,0,0,0,0,0,
210,18.78,22.33,19.99,18.32,19.88,25.84,16.57,11.25,21.49,19.45,16.92,8.672,21.21,17.98,14.93,14.21,0,0,0,0,0,0,0,0,0,0,0,0,0,0,0,0,
211,18.86,24.94,21.27,23.72,20.91,26.79,16.38,11.89,20.89,17.99,17.46,11.06,21.42,20.24,14.12,13.77,0,0,0,0,0,0,0,0,0,0,0,0,0,0,0,0,
212,21.3,32.4,23.12,29.43,22.06,28.27,16.7,15.78,24.3,21.98,16.92,13.11,21.09,21.38,11.97,12.56,0,0,0,0,0,0,0,0,0,0,0,0,0,0,0,0,
213,17.07,27.57,15.97,23.35,14.7,22.46,9.261,14.86,20.18,21.23,9.081,10.71,12.28,15.7,5.081,8.268,0,0,0,0,0,0,0,0,0,0,0,0,0,0,0,0,
214,10.5,18.35,8.136,18.02,7.854,18.01,4.554,15.16,11.13,16.33,5.87,11.56,8.758,14.1,5.316,8.248,0,0,0,0,0,0,0,0,0,0,0,0,0,0,0,0,
215,11.4,19.83,9.984,24.0,9.946,21.92,9.462,21.54,12.03,19.88,10.83,17.89,15.22,19.79,11.22,12.3,0,0,0,0,0,0,0,0,0,0,0,0,0,0,0,0,
216,10.58,21.85,10.93,26.54,10.42,22.33,11.14,23.57,16.76,24.35,11.53,19.19,16.47,20.47,10.92,11.76,0,0,0,0,0,0,0,0,0,0,0,0,0,0,0,0,
217,5.51,15.43,6.913,21.88,7.002,18.15,8.724,19.6,14.98,20.09,9.523,13.99,14.53,16.43,9.437,8.727,0,0,0,0,0,0,0,0,0,0,0,0,0,0,0,0,
218,7.19,13.54,8.041,23.96,8.519,20.4,11.89,19.78,14.48,18.3,12.94,12.5,18.53,17.23,12.09,9.681,0,0,0,0,0,0,0,0,0,0,0,0,0,0,0,0,
219,12.18,20.31,12.04,29.97,11.94,25.07,15.14,22.67,17.67,22.48,15.62,14.34,19.93,20.01,11.68,11.22,0,0,0,0,0,0,0,0,0,0,0,0,0,0,0,0,
220,15.61,25.43,14.4,32.03,14.18,27.04,15.27,23.23,18.98,24.99,16.09,14.85,19.11,22.7,10.75,13.13,0,0,0,0,0,0,0,0,0,0,0,0,0,0,0,0,
221,23.2,30.25,20.07,35.84,19.62,31.94,19.86,25.7,23.4,29.5,20.98,18.0,25.34,29.31,15.95,19.56,0,0,0,0,0,0,0,0,0,0,0,0,0,0,0,0,
222,28.27,35.24,23.24,37.96,22.25,35.8,22.71,27.15,29.55,35.08,22.88,20.02,28.41,32.16,19.09,22.59,0,0,0,0,0,0,0,0,0,0,0,0,0,0,0,0,
223,23.0,31.93,18.51,33.06,17.98,33.63,17.71,23.1,27.2,32.75,18.04,16.58,24.03,27.81,17.57,18.96,0,0,0,0,0,0,0,0,0,0,0,0,0,0,0,0,
224,18.98,27.18,17.32,31.97,17.27,33.66,17.19,22.38,24.32,29.88,18.83,16.66,25.96,27.73,19.61,19.25,0,0,0,0,0,0,0,0,0,0,0,0,0,0,0,0,
225,21.1,28.98,21.03,34.95,20.5,36.03,22.13,25.34,29.2,33.26,23.47,19.02,30.42,30.29,21.9,21.42,0,0,0,0,0,0,0,0,0,0,0,0,0,0,0,0,
226,20.23,27.46,20.4,31.41,19.5,33.32,22.22,23.07,30.8,33.25,22.88,15.83,28.37,26.99,21.04,18.29,0,0,0,0,0,0,0,0,0,0,0,0,0,0,0,0,
227,14.82,18.86,17.76,25.24,16.89,27.83,20.93,19.27,26.98,28.33,21.78,12.08,26.37,22.16,20.76,14.68,0,0,0,0,0,0,0,0,0,0,0,0,0,0,0,0,
228,6.535,10.59,14.16,20.24,13.58,20.94,19.05,16.67,23.74,23.51,19.4,8.579,22.88,16.82,16.5,10.67,0,0,0,0,0,0,0,0,0,0,0,0,0,0,0,0,
229,-2.462,6.031,6.916,14.31,6.893,12.58,11.86,11.94,16.85,16.5,11.67,3.711,13.71,9.955,8.162,4.682,0,0,0,0,0,0,0,0,0,0,0,0,0,0,0,0,
230,-8.876,2.701,-0.4279,11.9,-0.186,7.117,4.755,9.001,7.228,9.423,5.071,3.31,6.88,7.162,4.33,2.219,0,0,0,0,0,0,0,0,0,0,0,0,0,0,0,0,
231,-14.58,-2.64,-5.391,13.26,-4.959,3.966,1.449,9.299,1.307,6.559,2.757,5.883,5.275,7.512,4.735,3.603,0,0,0,0,0,0,0,0,0,0,0,0,0,0,0,0,
232,-14.89,-4.224,-4.897,13.36,-4.276,2.837,1.124,9.639,-0.3202,6.598,2.749,6.571,4.545,6.325,4.035,4.117,0,0,0,0,0,0,0,0,0,0,0,0,0,0,0,0,
233,-9.769,-0.4328,-1.796,10.42,-1.838,3.053,0.4505,7.629,-0.0573,6.232,0.9018,2.554,-0.0177,0.8906,-2.749,-2.49,0,0,0,0,0,0,0,0,0,0,0,0,0,0,0,0,
234,-14.86,-5.18,-7.055,3.278,-7.742,-2.382,-6.446,0.2034,-4.155,-0.1237,-6.009,-6.765,-8.619,-8.468,-13.07,-13.77,0,0,0,0,0,0,0,0,0,0,0,0,0,0,0,0,
235,-24.08,-13.25,-13.04,-1.978,-13.11,-7.41,-10.53,-4.572,-10.47,-8.072,-8.268,-8.191,-10.53,-10.36,-13.24,-13.21,0,0,0,0,0,0,0,0,0,0,0,0,0,0,0,0,
236,-18.71,-5.411,-7.989,2.334,-7.415,-2.208,-4.451,1.185,-7.664,-4.902,-2.6,1.266,-4.379,-2.216,-5.063,-3.189,0,0,0,0,0,0,0,0,0,0,0,0,0,0,0,0,
237,-11.04,2.25,-5.254,6.154,-4.732,0.5993,-2.664,3.711,-2.157,1.68,-2.357,2.01,-2.988,-0.0854,-2.511,-2.523,0,0,0,0,0,0,0,0,0,0,0,0,0,0,0,0,
238,-16.0,-10.29,-11.42,-1.334,-10.5,-6.165,-7.151,-3.022,-4.718,-2.163,-6.197,-4.707,-4.785,-4.384,-1.762,-5.505,0,0,0,0,0,0,0,0,0,0,0,0,0,0,0,0,
239,-23.41,-21.28,-13.7,-9.341,-12.37,-9.356,-6.585,-4.998,-6.413,-6.637,-4.999,-3.338,-3.032,-3.375,0.6845,-2.749,0,0,0,0,0,0,0,0,0,0,0,0,0,0,0,0,
240,-25.65,-17.11,-12.22,-9.61,-11.36,-8.064,-6.463,-2.947,-4.095,-4.073,-5.059,-1.73,-3.784,-2.239,-2.207,-3.7,0,0,0,0,0,0,0,0,0,0,0,0,0,0,0,0,
241,-26.04,-15.94,-12.64,-9.85,-12.12,-8.828,-8.461,-4.671,-5.102,-2.892,-6.745,-4.382,-5.171,-3.691,-4.03,-6.473,0,0,0,0,0,0,0,0,0,0,0,0,0,0,0,0,
242,-23.25,-16.4,-10.34,-9.305,-9.696,-6.207,-4.92,-3.595,-4.399,-1.819,-3.695,-1.667,-0.6571,-0.0895,0.5526,-3.079,0,0,0,0,0,0,0,0,0,0,0,0,0,0,0,0,
243,-17.06,-9.176,-7.438,-4.782,-6.825,-0.6234,-2.417,0.0128,0.607,3.534,-2.062,1.215,2.62,4.196,2.639,0.3254,0,0,0,0,0,0,0,0,0,0,0,0,0,0,0,0,
244,-16.6,-10.99,-9.168,-4.892,-8.527,1.424,-4.71,-0.5378,2.203,6.881,-3.672,-0.6572,2.079,5.269,2.803,2.171,0,0,0,0,0,0,0,0,0,0,0,0,0,0,0,0,
245,-23.09,-21.65,-11.11,-6.956,-10.53,2.011,-5.341,-0.4047,1.621,7.67,-3.435,0.269,2.908,7.913,5.052,5.605,0,0,0,0,0,0,0,0,0,0,0,0,0,0,0,0,
246,-24.72,-19.8,-10.99,-2.898,-10.44,2.615,-5.264,3.392,2.07,9.655,-3.753,3.002,2.866,9.63,4.241,6.739,0,0,0,0,0,0,0,0,0,0,0,0,0,0,0,0,
247,-20.56,-12.0,-9.389,-0.8941,-8.606,2.853,-4.359,6.912,1.858,10.96,-3.282,3.319,1.575,8.633,1.42,4.974,0,0,0,0,0,0,0,0,0,0,0,0,0,0,0,0,
248,-20.52,-12.57,-8.103,-2.865,-7.842,1.808,-4.314,7.251,1.757,10.52,-3.455,1.077,-2.496,4.542,-3.361,-1.07,0,0,0,0,0,0,0,0,0,0,0,0,0,0,0,0,
249,-27.15,-18.35,-15.73,-2.688,-15.77,-6.633,-13.73,1.428,-3.68,5.137,-13.35,-6.022,-14.97,-7.6,-14.82,-13.95,0,0,0,0,0,0,0,0,0,0,0,0,0,0,0,0,
250,-38.1,-29.01,-28.57,-7.211,-27.33,-18.83,-24.79,-6.956,-16.56,-6.453,-24.24,-14.63,-26.46,-20.68,-24.52,-24.47,0,0,0,0,0,0,0,0,0,0,0,0,0,0,0,0,
251,-50.82,-41.83,-34.06,-18.19,-32.22,-25.93,-27.32,-12.49,-24.89,-16.13,-26.19,-19.86,-28.94,-26.24,-26.09,-27.2,0,0,0,0,0,0,0,0,0,0,0,0,0,0,0,0,
252,-61.49,-50.96,-37.7,-25.85,-36.37,-32.57,-29.28,-18.16,-27.68,-21.87,-28.14,-22.32,-30.14,-29.06,-24.73,-26.41,0,0,0,0,0,0,0,0,0,0,0,0,0,0,0,0,
253,-66.6,-60.43,-42.79,-30.59,-40.98,-39.16,-30.74,-22.93,-31.66,-27.13,-29.66,-21.12,-29.46,-28.75,-20.16,-21.7,0,0,0,0,0,0,0,0,0,0,0,0,0,0,0,0,
254,-66.18,-67.1,-41.05,-36.43,-38.79,-39.12,-27.62,-22.72,-31.78,-28.79,-26.49,-18.89,-24.75,-25.03,-15.18,-17.48,0,0,0,0,0,0,0,0,0,0,0,0,0,0,0,0,
255,-66.03,-63.12,-38.44,-39.03,-36.66,-38.68,-27.47,-22.32,-28.96,-27.81,-25.83,-20.44,-23.23,-25.15,-14.92,-19.61,0,0,0,0,0,0,0,0,0,0,0,0,0,0,0,0,
256,-68.25,-58.78,-40.29,-39.73,-38.83,-42.83,-29.21,-26.42,-29.55,-29.61,-26.86,-24.21,-24.45,-28.04,-15.14,-22.52,0,0,0,0,0,0,0,0,0,0,0,0,0,0,0,0,
257,-70.59,-66.2,-41.35,-45.91,-39.95,-45.99,-29.59,-32.7,-31.25,-33.42,-27.8,-28.14,-26.17,-30.08,-16.71,-24.18,0,0,0,0,0,0,0,0,0,0,0,0,0,0,0,0,
258,-75.16,-76.83,-43.76,-52.38,-41.97,-46.47,-32.41,-35.07,-33.32,-34.94,-31.02,-28.98,-28.33,-29.85,-20.25,-24.82,0,0,0,0,0,0,0,0,0,0,0,0,0,0,0,0,
259,-78.63,-77.11,-45.68,-50.66,-43.42,-46.01,-32.84,-32.4,-34.29,-31.59,-30.74,-25.85,-27.49,-25.59,-19.88,-21.3,0,0,0,0,0,0,0,0,0,0,0,0,0,0,0,0,
260,-76.99,-71.67,-44.12,-47.53,-42.53,-46.7,-32.24,-32.81,-32.49,-28.27,-30.79,-26.37,-28.85,-24.34,-22.06,-20.58,0,0,0,0,0,0,0,0,0,0,0,0,0,0,0,0,
261,-78.51,-73.97,-49.06,-50.57,-47.39,-51.17,-38.79,-37.08,-35.6,-31.62,-38.17,-30.18,-34.97,-29.08,-29.11,-25.69,0,0,0,0,0,0,0,0,0,0,0,0,0,0,0,0,
262,-84.68,-82.95,-56.98,-57.99,-53.85,-56.75,-43.07,-37.98,-41.84,-36.63,-41.35,-30.43,-36.47,-32.06,-30.0,-28.3,0,0,0,0,0,0,0,0,0,0,0,0,0,0,0,0,
263,-87.92,-89.26,-56.92,-65.69,-53.95,-60.22,-41.2,-37.31,-42.19,-38.47,-39.02,-30.74,-36.79,-34.93,-29.81,-30.63,0,0,0,0,0,0,0,0,0,0,0,0,0,0,0,0,
264,-89.12,-89.8,-58.41,-64.85,-56.37,-62.82,-44.8,-37.75,-43.91,-42.23,-43.22,-33.28,-43.27,-40.88,-35.96,-36.06,0,0,0,0,0,0,0,0,0,0,0,0,0,0,0,0,
265,-89.42,-85.4,-63.28,-56.04,-60.44,-63.75,-49.04,-36.93,-50.2,-46.74,-47.11,-33.16,-47.0,-43.11,-39.05,-37.88,0,0,0,0,0,0,0,0,0,0,0,0,0,0,0,0,
266,-89.57,-85.13,-62.49,-56.92,-59.22,-63.21,-47.7,-37.28,-52.09,-46.34,-45.63,-31.6,-46.59,-42.51,-39.19,-37.61,0,0,0,0,0,0,0,0,0,0,0,0,0,0,0,0,
267,-92.2,-94.03,-64.27,-66.51,-61.78,-65.25,-50.22,-39.24,-53.88,-45.4,-48.78,-31.68,-49.7,-44.42,-42.23,-39.43,0,0,0,0,0,0,0,0,0,0,0,0,0,0,0,0,
268,-88.87,-92.58,-67.99,-64.6,-65.35,-66.88,-52.74,-38.83,-58.43,-47.36,-51.34,-31.69,-50.25,-44.62,-41.18,-38.39,0,0,0,0,0,0,0,0,0,0,0,0,0,0,0,0,
269,-78.4,-75.5,-63.42,-55.19,-60.26,-63.96,-48.03,-38.37,-56.18,-47.38,-46.6,-31.41,-45.61,-42.24,-37.01,-35.59,0,0,0,0,0,0,0,0,0,0,0,0,0,0,0,0,
270,-76.79,-70.63,-62.26,-55.06,-59.5,-62.11,-47.68,-40.55,-51.67,-45.8,-46.61,-32.81,-45.48,-42.65,-39.04,-37.43,0,0,0,0,0,0,0,0,0,0,0,0,0,0,0,0,
271,-81.97,-77.99,-67.14,-58.97,-64.87,-61.64,-53.3,-42.09,-53.21,-45.67,-52.26,-35.39,-48.17,-43.31,-42.24,-40.1,0,0,0,0,0,0,0,0,0,0,0,0,0,0,0,0,
272,-77.45,-73.28,-61.88,-56.99,-59.47,-55.57,-51.54,-41.53,-52.65,-43.32,-50.12,-35.37,-44.28,-38.11,-37.16,-36.04,0,0,0,0,0,0,0,0,0,0,0,0,0,0,0,0,
273,-65.13,-63.17,-49.63,-53.18,-46.97,-46.47,-41.4,-38.97,-44.21,-36.35,-39.94,-30.7,-34.55,-28.83,-27.03,-27.29,0,0,0,0,0,0,0,0,0,0,0,0,0,0,0,0,
274,-56.12,-59.68,-42.44,-53.35,-40.25,-42.14,-33.75,-35.74,-34.64,-29.68,-33.25,-27.97,-28.45,-24.47,-23.54,-24.29,0,0,0,0,0,0,0,0,0,0,0,0,0,0,0,0,
275,-54.52,-58.37,-42.07,-57.64,-40.54,-44.35,-35.41,-36.92,-33.15,-29.51,-35.46,-31.38,-31.48,-28.65,-29.01,-29.21,0,0,0,0,0,0,0,0,0,0,0,0,0,0,0,0,
276,-56.29,-60.94,-43.86,-61.6,-42.31,-47.35,-38.75,-40.08,-37.77,-33.53,-37.55,-32.37,-35.01,-31.99,-31.88,-31.64,0,0,0,0,0,0,0,0,0,0,0,0,0,0,0,0,
277,-54.49,-64.09,-40.12,-61.89,-38.99,-46.17,-34.8,-38.88,-36.78,-34.15,-33.29,-29.71,-32.98,-30.57,-30.5,-29.95,0,0,0,0,0,0,0,0,0,0,0,0,0,0,0,0,
278,-51.16,-59.96,-34.79,-61.21,-34.13,-44.71,-30.37,-36.67,-32.22,-32.82,-30.25,-29.91,-31.51,-30.07,-30.84,-29.12,0,0,0,0,0,0,0,0,0,0,0,0,0,0,0,0,
279,-48.33,-55.18,-33.55,-60.4,-32.22,-43.5,-28.31,-35.11,-30.78,-31.69,-28.24,-27.96,-29.48,-28.38,-27.57,-26.48,0,0,0,0,0,0,0,0,0,0,0,0,0,0,0,0,
280,-45.52,-58.69,-31.61,-60.19,-30.33,-41.41,-25.8,-34.22,-28.27,-29.09,-25.34,-25.83,-27.42,-28.19,-24.54,-26.63,0,0,0,0,0,0,0,0,0,0,0,0,0,0,0,0,
281,-50.0,-66.84,-32.07,-63.87,-31.46,-44.87,-28.46,-38.3,-29.04,-32.11,-28.01,-30.42,-30.53,-33.88,-27.23,-30.93,0,0,0,0,0,0,0,0,0,0,0,0,0,0,0,0,
282,-53.68,-64.14,-34.17,-65.01,-32.91,-47.89,-29.9,-39.56,-32.81,-37.44,-28.38,-29.13,-28.7,-32.29,-22.33,-25.86,0,0,0,0,0,0,0,0,0,0,0,0,0,0,0,0,
283,-46.34,-51.86,-30.93,-61.24,-29.6,-44.4,-25.62,-34.53,-28.99,-33.66,-24.44,-22.25,-24.25,-25.98,-16.07,-19.4,0,0,0,0,0,0,0,0,0,0,0,0,0,0,0,0,
284,-47.43,-55.05,-31.85,-64.74,-31.28,-47.46,-30.0,-36.92,-28.81,-33.19,-30.34,-25.31,-32.18,-31.22,-24.22,-25.82,0,0,0,0,0,0,0,0,0,0,0,0,0,0,0,0,
285,-55.36,-66.18,-37.21,-71.86,-36.06,-54.07,-37.28,-42.5,-37.7,-40.99,-36.85,-28.62,-38.89,-35.59,-29.82,-29.4,0,0,0,0,0,0,0,0,0,0,0,0,0,0,0,0,
286,-49.87,-62.85,-37.19,-70.43,-35.63,-53.41,-35.29,-41.71,-39.4,-41.11,-34.12,-26.49,-35.18,-32.14,-26.12,-26.38,0,0,0,0,0,0,0,0,0,0,0,0,0,0,0,0,
287,-51.05,-64.1,-39.78,-69.16,-38.6,-56.09,-35.89,-45.39,-38.82,-40.48,-35.1,-31.32,-35.65,-35.54,-27.79,-30.52,0,0,0,0,0,0,0,0,0,0,0,0,0,0,0,0,
288,-62.07,-70.99,-42.52,-71.44,-40.88,-59.24,-37.31,-49.72,-42.83,-46.48,-35.96,-34.83,-35.43,-38.35,-27.25,-32.66,0,0,0,0,0,0,0,0,0,0,0,0,0,0,0,0,
289,-52.73,-58.01,-35.36,-65.59,-33.51,-51.33,-30.23,-43.56,-38.77,-44.17,-29.18,-30.47,-27.69,-32.67,-20.19,-28.49,0,0,0,0,0,0,0,0,0,0,0,0,0,0,0,0,
290,-39.47,-45.53,-30.88,-56.04,-29.84,-44.99,-26.78,-39.24,-31.06,-36.98,-26.43,-31.66,-25.54,-32.4,-19.98,-30.87,0,0,0,0,0,0,0,0,0,0,0,0,0,0,0,0,
291,-42.47,-49.43,-32.45,-52.17,-31.84,-44.89,-27.97,-39.49,-30.25,-36.42,-26.61,-35.06,-27.58,-35.91,-22.67,-34.67,0,0,0,0,0,0,0,0,0,0,0,0,0,0,0,0,
292,-39.78,-45.22,-29.4,-49.19,-28.55,-41.43,-24.2,-33.34,-29.8,-34.78,-22.82,-31.0,-24.7,-33.05,-20.64,-31.51,0,0,0,0,0,0,0,0,0,0,0,0,0,0,0,0,
293,-34.86,-39.65,-28.44,-47.77,-27.25,-40.65,-23.58,-29.31,-29.4,-31.55,-23.57,-27.71,-24.39,-30.47,-20.04,-28.33,0,0,0,0,0,0,0,0,0,0,0,0,0,0,0,0,
294,-42.4,-48.74,-32.61,-51.92,-31.54,-45.14,-28.03,-33.29,-32.83,-33.8,-27.52,-27.83,-27.8,-30.61,-19.5,-25.98,0,0,0,0,0,0,0,0,0,0,0,0,0,0,0,0,
295,-44.16,-49.93,-31.61,-52.7,-30.85,-44.33,-26.3,-33.58,-32.48,-34.61,-24.71,-25.17,-25.19,-27.51,-14.95,-21.55,0,0,0,0,0,0,0,0,0,0,0,0,0,0,0,0,
296,-38.72,-40.63,-30.14,-48.84,-29.2,-41.06,-23.68,-31.46,-27.9,-30.77,-23.04,-24.44,-22.3,-26.54,-14.29,-21.72,0,0,0,0,0,0,0,0,0,0,0,0,0,0,0,0,
297,-41.84,-44.12,-34.47,-51.83,-33.05,-42.14,-28.39,-35.51,-28.67,-31.01,-28.59,-28.38,-26.51,-31.13,-19.01,-26.38,0,0,0,0,0,0,0,0,0,0,0,0,0,0,0,0,
298,-42.6,-50.36,-33.39,-55.9,-31.89,-40.1,-29.57,-37.85,-30.49,-32.97,-28.87,-28.24,-26.48,-30.49,-18.71,-24.51,0,0,0,0,0,0,0,0,0,0,0,0,0,0,0,0,
299,-35.4,-43.43,-26.69,-50.1,-25.76,-34.9,-23.85,-34.07,-25.49,-29.18,-22.79,-23.64,-20.25,-23.66,-13.94,-17.04,0,0,0,0,0,0,0,0,0,0,0,0,0,0,0,0,
300,-34.09,-37.91,-25.6,-45.93,-24.99,-35.77,-21.89,-32.96,-22.15,-26.46,-21.2,-22.04,-19.61,-21.36,-13.58,-14.32,0,0,0,0,0,0,0,0,0,0,0,0,0,0,0,0,
301,-34.81,-40.54,-24.49,-50.55,-23.32,-37.06,-22.22,-34.05,-23.33,-27.77,-21.33,-22.55,-21.59,-22.7,-17.54,-17.1,0,0,0,0,0,0,0,0,0,0,0,0,0,0,0,0,
302,-32.0,-40.93,-21.25,-53.05,-20.11,-34.55,-22.17,-33.62,-22.29,-27.15,-21.69,-24.21,-22.57,-24.81,-22.77,-22.85,0,0,0,0,0,0,0,0,0,0,0,0,0,0,0,0,
303,-34.86,-39.04,-25.13,-52.83,-24.58,-37.19,-25.38,-36.89,-24.18,-28.92,-25.49,-28.94,-26.19,-30.47,-25.67,-28.75,0,0,0,0,0,0,0,0,0,0,0,0,0,0,0,0,
304,-38.22,-39.39,-27.99,-55.32,-26.99,-42.02,-25.04,-42.02,-29.33,-34.62,-24.74,-31.79,-26.08,-34.7,-22.85,-28.87,0,0,0,0,0,0,0,0,0,0,0,0,0,0,0,0,
305,-36.08,-42.39,-24.49,-55.59,-23.05,-43.11,-21.05,-42.71,-29.49,-37.25,-20.89,-31.12,-23.31,-35.16,-21.82,-27.35,0,0,0,0,0,0,0,0,0,0,0,0,0,0,0,0,
306,-36.81,-45.38,-25.51,-53.14,-24.33,-45.49,-23.1,-41.62,-29.54,-39.28,-23.48,-31.83,-26.88,-36.81,-27.11,-30.03,0,0,0,0,0,0,0,0,0,0,0,0,0,0,0,0,
307,-36.92,-43.68,-27.8,-53.65,-26.47,-47.0,-26.67,-40.89,-32.41,-41.87,-26.74,-32.83,-31.25,-38.27,-30.79,-31.51,0,0,0,0,0,0,0,0,0,0,0,0,0,0,0,0,
308,-34.23,-41.54,-25.96,-54.98,-24.85,-45.27,-27.65,-39.38,-33.05,-41.28,-27.45,-31.61,-32.68,-38.29,-31.19,-31.42,0,0,0,0,0,0,0,0,0,0,0,0,0,0,0,0,
309,-35.85,-41.73,-26.32,-52.71,-25.83,-44.95,-29.72,-38.04,-33.57,-40.97,-29.47,-30.41,-34.14,-38.54,-30.82,-32.97,0,0,0,0,0,0,0,0,0,0,0,0,0,0,0,0,
310,-34.23,-36.74,-27.02,-49.06,-26.08,-43.57,-29.27,-37.2,-33.8,-40.61,-29.0,-30.48,-32.15,-37.82,-28.48,-32.74,0,0,0,0,0,0,0,0,0,0,0,0,0,0,0,0,
311,-28.75,-31.45,-26.19,-47.75,-24.68,-41.11,-26.3,-37.4,-31.86,-38.44,-26.0,-30.85,-27.65,-36.76,-26.18,-30.37,0,0,0,0,0,0,0,0,0,0,0,0,0,0,0,0,
312,-27.77,-32.32,-24.63,-46.41,-23.6,-39.13,-22.8,-36.19,-28.97,-37.33,-22.18,-28.05,-22.37,-32.62,-21.91,-25.58,0,0,0,0,0,0,0,0,0,0,0,0,0,0,0,0,
313,-22.91,-28.65,-17.24,-41.13,-16.89,-31.51,-15.79,-28.95,-20.86,-31.41,-15.38,-20.48,-14.05,-22.77,-14.03,-18.07,0,0,0,0,0,0,0,0,0,0,0,0,0,0,0,0,
314,-16.7,-22.13,-11.43,-35.82,-11.28,-24.17,-12.06,-21.58,-11.89,-20.69,-12.13,-14.95,-10.19,-16.71,-11.69,-15.18,0,0,0,0,0,0,0,0,0,0,0,0,0,0,0,0,
315,-19.08,-24.03,-14.18,-34.2,-13.93,-24.78,-14.23,-20.85,-12.05,-17.4,-14.18,-15.15,-12.1,-16.93,-13.8,-15.75,0,0,0,0,0,0,0,0,0,0,0,0,0,0,0,0,
316,-18.17,-24.83,-13.42,-31.77,-13.2,-22.62,-11.68,-20.62,-12.22,-17.35,-11.53,-15.36,-8.34,-13.66,-9.997,-12.29,0,0,0,0,0,0,0,0,0,0,0,0,0,0,0,0,
317,-13.55,-18.92,-8.894,-28.62,-8.751,-17.12,-7.24,-19.2,-5.914,-12.46,-7.172,-15.93,-3.21,-10.45,-6.786,-11.58,0,0,0,0,0,0,0,0,0,0,0,0,0,0,0,0,
318,-16.32,-17.12,-10.01,-29.23,-9.721,-17.84,-8.139,-20.96,-4.34,-11.69,-8.074,-19.67,-4.947,-12.95,-9.2,-15.96,0,0,0,0,0,0,0,0,0,0,0,0,0,0,0,0,
319,-14.71,-16.02,-7.454,-27.93,-7.246,-15.79,-4.645,-18.65,-5.082,-13.08,-4.588,-17.2,-2.415,-9.989,-5.053,-11.74,0,0,0,0,0,0,0,0,0,0,0,0,0,0,0,0,
320,-3.703,-9.763,2.626,-20.32,2.587,-6.509,5.878,-8.854,2.624,-5.298,6.157,-4.949,7.089,0.1061,5.345,1.383,0,0,0,0,0,0,0,0,0,0,0,0,0,0,0,0,
321,-0.0666,-9.104,5.582,-16.02,5.312,-4.24,9.374,-3.723,9.133,2.6,9.142,3.021,8.409,2.937,7.33,7.292,0,0,0,0,0,0,0,0,0,0,0,0,0,0,0,0,
322,-7.676,-15.55,-3.738,-21.63,-4.349,-12.6,-0.6059,-7.407,2.52,-0.6475,-2.098,-0.7371,-2.122,-4.486,-1.489,0.4119,0,0,0,0,0,0,0,0,0,0,0,0,0,0,0,0,
323,-18.72,-22.37,-18.24,-31.46,-18.19,-24.51,-16.65,-13.54,-11.92,-10.39,-17.86,-8.797,-15.67,-14.9,-13.52,-11.22,0,0,0,0,0,0,0,0,0,0,0,0,0,0,0,0,
324,-30.31,-32.37,-29.41,-39.03,-27.95,-35.58,-27.47,-20.61,-24.44,-21.51,-27.21,-14.91,-25.26,-23.83,-21.75,-19.01,0,0,0,0,0,0,0,0,0,0,0,0,0,0,0,0,
325,-36.79,-39.9,-31.19,-41.52,-29.61,-39.67,-29.12,-25.77,-29.48,-29.12,-28.95,-18.14,-28.59,-27.95,-24.56,-21.51,0,0,0,0,0,0,0,0,0,0,0,0,0,0,0,0,
326,-34.78,-37.83,-29.5,-39.88,-28.44,-37.15,-29.57,-24.83,-29.3,-29.11,-30.58,-19.16,-29.83,-28.35,-27.39,-23.15,0,0,0,0,0,0,0,0,0,0,0,0,0,0,0,0,
327,-32.25,-36.5,-31.06,-38.36,-29.93,-35.3,-32.08,-21.72,-30.51,-27.43,-32.87,-18.06,-30.42,-27.79,-29.32,-23.65,0,0,0,0,0,0,0,0,0,0,0,0,0,0,0,0,
328,-33.03,-39.11,-30.55,-37.78,-29.39,-34.66,-30.8,-21.08,-31.02,-27.55,-30.59,-15.52,-27.68,-25.58,-26.46,-21.31,0,0,0,0,0,0,0,0,0,0,0,0,0,0,0,0,
329,-31.52,-37.0,-26.19,-36.2,-24.93,-33.76,-26.58,-21.25,-28.01,-26.18,-26.66,-14.55,-24.63,-23.57,-23.57,-20.23,0,0,0,0,0,0,0,0,0,0,0,0,0,0,0,0,
330,-26.34,-31.05,-21.05,-33.71,-20.06,-31.18,-21.44,-19.53,-24.7,-23.98,-22.02,-15.09,-20.58,-21.89,-20.28,-19.1,0,0,0,0,0,0,0,0,0,0,0,0,0,0,0,0,
331,-20.06,-26.41,-15.04,-31.12,-14.86,-24.58,-15.01,-18.05,-19.02,-21.28,-15.02,-16.25,-13.36,-18.4,-14.53,-15.42,0,0,0,0,0,0,0,0,0,0,0,0,0,0,0,0,
332,-14.43,-23.93,-12.06,-29.32,-11.74,-20.21,-12.92,-20.58,-11.75,-18.13,-12.83,-20.25,-10.29,-17.16,-13.04,-15.02,0,0,0,0,0,0,0,0,0,0,0,0,0,0,0,0,
333,-12.91,-22.78,-13.99,-29.58,-13.24,-22.68,-14.72,-24.96,-10.66,-18.5,-15.25,-24.29,-11.4,-19.24,-13.4,-16.81,0,0,0,0,0,0,0,0,0,0,0,0,0,0,0,0,
334,-17.39,-24.98,-16.28,-32.58,-15.69,-26.36,-13.99,-27.86,-14.23,-22.21,-14.24,-25.16,-10.04,-20.31,-9.142,-15.21,0,0,0,0,0,0,0,0,0,0,0,0,0,0,0,0,
335,-22.7,-30.62,-16.59,-35.61,-15.84,-28.25,-11.83,-28.51,-15.55,-24.75,-11.3,-24.54,-8.148,-19.33,-5.202,-12.34,0,0,0,0,0,0,0,0,0,0,0,0,0,0,0,0,
336,-22.38,-30.63,-14.89,-34.32,-14.53,-28.27,-10.06,-24.48,-14.09,-23.45,-10.01,-21.11,-7.913,-16.37,-5.62,-9.531,0,0,0,0,0,0,0,0,0,0,0,0,0,0,0,0,
337,-21.0,-27.02,-15.6,-30.56,-15.6,-26.96,-11.04,-18.58,-14.28,-20.42,-11.99,-15.99,-10.9,-14.81,-9.836,-8.491,0,0,0,0,0,0,0,0,0,0,0,0,0,0,0,0,
338,-23.17,-29.18,-19.32,-26.66,-18.14,-26.06,-14.95,-15.07,-18.35,-19.51,-15.5,-11.99,-16.23,-16.06,-14.29,-10.03,0,0,0,0,0,0,0,0,0,0,0,0,0,0,0,0,
339,-21.83,-28.31,-17.18,-21.75,-16.08,-23.26,-14.55,-10.55,-19.58,-17.91,-14.56,-7.152,-16.51,-14.35,-14.6,-9.57,0,0,0,0,0,0,0,0,0,0,0,0,0,0,0,0,
340,-20.46,-24.36,-14.99,-22.5,-14.96,-22.19,-13.9,-7.945,-17.33,-15.43,-14.66,-5.987,-15.61,-13.53,-15.45,-10.4,0,0,0,0,0,0,0,0,0,0,0,0,0,0,0,0,
341,-25.65,-28.26,-20.9,-28.74,-19.6,-27.49,-18.44,-11.92,-20.31,-18.56,-19.1,-9.682,-18.6,-17.42,-17.54,-13.82,0,0,0,0,0,0,0,0,0,0,0,0,0,0,0,0,
342,-25.52,-30.07,-21.19,-27.15,-19.31,-28.87,-17.97,-13.93,-22.51,-21.58,-17.88,-8.271,-17.29,-16.53,-15.23,-11.61,0,0,0,0,0,0,0,0,0,0,0,0,0,0,0,0,
343,-21.05,-27.0,-15.53,-21.48,-15.32,-24.21,-15.25,-12.05,-18.47,-18.05,-16.09,-6.25,-15.4,-13.88,-15.19,-9.873,0,0,0,0,0,0,0,0,0,0,0,0,0,0,0,0,
344,-21.76,-26.94,-16.37,-22.09,-16.14,-23.3,-18.38,-13.25,-18.83,-17.18,-19.81,-11.69,-18.9,-17.53,-19.09,-15.44,0,0,0,0,0,0,0,0,0,0,0,0,0,0,0,0,
345,-17.04,-21.56,-14.03,-22.23,-13.33,-21.15,-16.32,-14.06,-19.85,-19.2,-16.68,-14.41,-16.76,-18.25,-17.0,-17.4,0,0,0,0,0,0,0,0,0,0,0,0,0,0,0,0,
346,-10.92,-15.39,-6.495,-21.57,-6.88,-16.02,-9.795,-13.33,-13.09,-16.98,-9.862,-12.79,-11.03,-15.37,-14.02,-14.7,0,0,0,0,0,0,0,0,0,0,0,0,0,0,0,0,
347,-15.4,-19.27,-6.401,-24.65,-6.765,-17.37,-10.35,-16.11,-9.506,-16.67,-10.77,-15.1,-12.46,-16.6,-17.28,-15.57,0,0,0,0,0,0,0,0,0,0,0,0,0,0,0,0,
348,-15.91,-20.4,-7.183,-24.84,-6.849,-18.97,-10.53,-17.82,-10.83,-18.42,-10.72,-16.23,-12.88,-15.75,-18.24,-15.69,0,0,0,0,0,0,0,0,0,0,0,0,0,0,0,0,
349,-10.0,-15.71,-2.938,-23.63,-2.909,-14.9,-4.784,-15.11,-7.476,-14.73,-4.992,-13.61,-7.059,-11.48,-13.19,-11.96,0,0,0,0,0,0,0,0,0,0,0,0,0,0,0,0,
350,-9.897,-14.21,-0.7815,-24.91,-0.7245,-13.85,0.2048,-13.73,-3.288,-11.52,-0.148,-13.19,-2.24,-10.37,-7.313,-9.227,0,0,0,0,0,0,0,0,0,0,0,0,0,0,0,0,
351,-9.431,-12.05,0.037,-22.51,0.0797,-15.17,3.319,-14.61,-1.788,-12.85,3.278,-13.84,1.054,-9.929,-1.88,-7.96,0,0,0,0,0,0,0,0,0,0,0,0,0,0,0,0,
352,-7.507,-11.39,1.311,-20.21,0.5213,-13.96,5.376,-14.64,0.1986,-12.8,5.818,-14.22,4.299,-9.41,2.197,-6.751,0,0,0,0,0,0,0,0,0,0,0,0,0,0,0,0,
353,-10.63,-17.02,0.9462,-23.91,-0.1839,-15.53,5.329,-15.62,0.0104,-13.41,5.586,-16.36,3.344,-12.37,1.315,-7.343,0,0,0,0,0,0,0,0,0,0,0,0,0,0,0,0,
354,-14.15,-19.69,-1.863,-25.56,-2.599,-21.0,2.769,-18.42,-4.703,-18.41,1.97,-16.79,-2.206,-15.02,-2.535,-8.142,0,0,0,0,0,0,0,0,0,0,0,0,0,0,0,0,
355,-14.7,-15.41,-5.624,-21.68,-5.737,-22.09,0.2941,-17.35,-8.999,-20.56,-0.3668,-11.93,-4.018,-12.02,-0.8492,-3.874,0,0,0,0,0,0,0,0,0,0,0,0,0,0,0,0,
356,-11.71,-11.59,-3.062,-18.82,-2.808,-16.4,3.348,-11.04,-6.611,-15.25,3.727,-6.475,0.9104,-6.606,4.431,1.496,0,0,0,0,0,0,0,0,0,0,0,0,0,0,0,0,
357,-8.796,-13.87,1.51,-19.77,1.304,-14.06,5.082,-8.823,-2.057,-11.64,4.144,-7.027,0.2771,-7.201,1.148,-1.07,0,0,0,0,0,0,0,0,0,0,0,0,0,0,0,0,
358,-12.35,-19.45,-4.388,-21.4,-4.999,-19.39,-3.16,-12.88,-6.278,-15.91,-5.579,-9.352,-8.3,-11.51,-6.408,-5.635,0,0,0,0,0,0,0,0,0,0,0,0,0,0,0,0,
359,-13.72,-19.04,-10.82,-20.62,-11.1,-20.94,-9.077,-12.68,-13.24,-17.68,-9.931,-5.329,-9.74,-8.519,-6.175,-3.294,0,0,0,0,0,0,0,0,0,0,0,0,0,0,0,0,
360,-8.235,-12.46,-8.415,-18.33,-8.127,-16.24,-5.8,-6.332,-11.4,-11.3,-5.508,0.382,-5.411,-2.674,-4.801,-1.39,0,0,0,0,0,0,0,0,0,0,0,0,0,0,0,0,
361,-7.391,-7.83,-7.607,-16.29,-6.649,-14.5,-4.623,-1.792,-7.883,-7.058,-5.159,1.147,-6.726,-4.341,-8.566,-4.695,0,0,0,0,0,0,0,0,0,0,0,0,0,0,0,0,
362,-9.255,-7.3,-9.084,-14.86,-8.087,-14.62,-7.146,-1.52,-8.7,-8.671,-7.946,0.0275,-8.974,-7.652,-11.11,-6.317,0,0,0,0,0,0,0,0,0,0,0,0,0,0,0,0,
363,-7.363,-11.47,-8.605,-15.11,-8.445,-13.85,-8.856,-3.374,-9.345,-10.66,-9.506,-0.7073,-8.14,-6.554,-10.72,-3.998,0,0,0,0,0,0,0,0,0,0,0,0,0,0,0,0,
364,-6.397,-15.44,-8.206,-15.12,-8.294,-13.23,-8.769,-3.329,-9.223,-10.94,-9.384,0.6225,-6.148,-3.903,-7.151,0.1049,0,0,0,0,0,0,0,0,0,0,0,0,0,0,0,0,
365,-3.566,-9.706,-4.841,-13.35,-4.698,-10.08,-4.925,-0.716,-7.151,-8.604,-5.549,3.632,-2.464,-2.18,-2.604,2.01,0,0,0,0,0,0,0,0,0,0,0,0,0,0,0,0,
366,-0.5279,-3.975,-3.368,-14.24,-3.409,-9.249,-3.835,-3.087,-4.81,-7.561,-4.721,-0.1367,-2.39,-4.902,-5.007,-3.12,0,0,0,0,0,0,0,0,0,0,0,0,0,0,0,0,
367,-6.08,-8.933,-7.946,-17.03,-7.893,-13.49,-7.258,-10.1,-7.26,-11.58,-7.502,-8.563,-5.195,-10.1,-8.591,-8.573,0,0,0,0,0,0,0,0,0,0,0,0,0,0,0,0,
368,-10.21,-12.01,-7.234,-16.48,-7.13,-13.89,-4.399,-12.85,-8.027,-13.72,-4.429,-10.13,-3.509,-11.21,-6.109,-7.204,0,0,0,0,0,0,0,0,0,0,0,0,0,0,0,0,
369,-7.392,-9.76,-3.298,-15.91,-3.473,-12.27,1.063,-12.69,-4.607,-12.31,-0.3957,-8.105,-2.716,-10.44,-5.374,-5.578,0,0,0,0,0,0,0,0,0,0,0,0,0,0,0,0,
370,-7.237,-11.04,-4.02,-17.5,-3.683,-13.24,2.088,-13.03,-4.291,-12.35,0.5625,-9.198,-4.593,-10.48,-5.837,-6.123,0,0,0,0,0,0,0,0,0,0,0,0,0,0,0,0,
371,-5.944,-11.78,-2.894,-18.01,-2.211,-12.37,3.389,-13.05,-4.679,-11.88,2.515,-11.66,-3.984,-10.9,-4.111,-6.347,0,0,0,0,0,0,0,0,0,0,0,0,0,0,0,0,
372,-4.056,-10.2,-4.244,-19.12,-3.949,-14.31,0.741,-15.82,-5.873,-12.87,-0.6865,-14.87,-6.551,-14.23,-6.801,-9.269,0,0,0,0,0,0,0,0,0,0,0,0,0,0,0,0,
373,-9.554,-10.4,-11.14,-19.7,-10.29,-19.53,-5.626,-18.04,-11.67,-17.41,-6.246,-15.73,-10.87,-17.01,-9.584,-11.5,0,0,0,0,0,0,0,0,0,0,0,0,0,0,0,0,
374,-12.65,-12.42,-11.17,-18.32,-10.04,-19.61,-5.177,-15.54,-14.12,-18.76,-4.881,-13.48,-9.831,-16.71,-7.87,-10.22,0,0,0,0,0,0,0,0,0,0,0,0,0,0,0,0,
375,-12.56,-18.66,-8.979,-22.16,-9.118,-21.23,-3.891,-16.25,-13.15,-19.49,-4.493,-14.22,-9.928,-18.77,-9.213,-12.07,0,0,0,0,0,0,0,0,0,0,0,0,0,0,0,0,
376,-18.33,-24.91,-12.24,-27.72,-12.98,-26.56,-7.46,-19.49,-15.31,-23.81,-7.808,-15.04,-12.74,-21.02,-12.66,-15.66,0,0,0,0,0,0,0,0,0,0,0,0,0,0,0,0,
377,-20.42,-25.65,-13.41,-24.88,-13.7,-25.2,-10.03,-16.66,-16.03,-23.91,-10.07,-10.94,-13.86,-19.68,-14.96,-15.47,0,0,0,0,0,0,0,0,0,0,0,0,0,0,0,0,
378,-16.79,-23.93,-15.28,-20.36,-15.05,-22.17,-13.32,-12.3,-16.39,-20.3,-14.5,-5.896,-15.77,-17.9,-16.9,-12.6,0,0,0,0,0,0,0,0,0,0,0,0,0,0,0,0,
379,-15.47,-16.12,-17.96,-19.87,-16.99,-21.95,-15.01,-9.905,-18.6,-18.69,-15.68,-0.8064,-15.11,-14.32,-13.59,-7.459,0,0,0,0,0,0,0,0,0,0,0,0,0,0,0,0,
380,-11.76,-6.786,-12.98,-18.23,-12.14,-18.24,-10.98,-7.336,-15.64,-15.84,-10.87,2.555,-10.84,-9.857,-8.442,-3.471,0,0,0,0,0,0,0,0,0,0,0,0,0,0,0,0,
381,-6.914,-8.983,-9.544,-17.11,-9.292,-15.07,-9.835,-9.412,-11.76,-13.27,-10.86,-0.1075,-10.09,-9.279,-7.747,-3.681,0,0,0,0,0,0,0,0,0,0,0,0,0,0,0,0,
382,-5.849,-11.83,-12.19,-17.79,-11.35,-13.76,-11.14,-13.47,-11.9,-13.54,-12.15,-2.266,-8.646,-7.946,-4.036,-1.666,0,0,0,0,0,0,0,0,0,0,0,0,0,0,0,0,
383,-3.101,-7.137,-9.989,-16.91,-8.992,-8.895,-7.115,-11.87,-8.239,-11.67,-6.607,-0.2914,-2.299,-3.441,3.037,3.593,0,0,0,0,0,0,0,0,0,0,0,0,0,0,0,0,
384,1.12,-3.39,-5.407,-16.27,-5.282,-6.186,-2.206,-10.52,-2.332,-8.668,-1.386,-1.606,1.908,-1.289,4.161,4.996,0,0,0,0,0,0,0,0,0,0,0,0,0,0,0,0,
385,3.765,1.923,-3.614,-14.56,-3.687,-6.53,0.5499,-12.19,0.3665,-7.43,0.3809,-5.909,3.491,-1.103,1.716,2.062,0,0,0,0,0,0,0,0,0,0,0,0,0,0,0,0,
386,4.741,3.184,-1.504,-9.886,-1.644,-2.782,2.524,-11.37,2.978,-5.175,1.55,-8.671,4.359,-1.46,0.4485,-1.786,0,0,0,0,0,0,0,0,0,0,0,0,0,0,0,0,
387,2.27,-3.334,-0.718,-7.567,-1.31,0.5042,2.493,-11.22,3.855,-3.769,1.696,-10.41,2.347,-3.566,-0.7737,-4.096,0,0,0,0,0,0,0,0,0,0,0,0,0,0,0,0,
388,2.954,2.326,0.212,-8.248,-0.3691,-1.045,3.901,-12.17,2.524,-5.016,3.266,-8.973,1.221,-4.702,-1.052,-3.691,0,0,0,0,0,0,0,0,0,0,0,0,0,0,0,0,
389,8.812,11.86,2.642,-9.861,2.197,-3.941,5.897,-9.575,3.181,-6.069,4.738,-5.482,0.7228,-5.982,-2.817,-4.857,0,0,0,0,0,0,0,0,0,0,0,0,0,0,0,0,
390,6.327,3.731,-0.9351,-12.74,-1.291,-8.249,1.488,-8.294,0.7964,-8.894,0.5582,-5.253,-5.113,-10.47,-8.999,-9.688,0,0,0,0,0,0,0,0,0,0,0,0,0,0,0,0,
391,-3.001,-4.157,-7.612,-12.67,-7.548,-11.93,-3.8,-9.134,-6.241,-13.56,-4.039,-4.845,-10.39,-12.85,-12.74,-11.88,0,0,0,0,0,0,0,0,0,0,0,0,0,0,0,0,
392,-4.023,-3.679,-7.329,-9.804,-7.181,-11.25,-2.023,-5.944,-8.364,-13.89,-2.572,-1.176,-8.602,-11.21,-10.46,-10.09,0,0,0,0,0,0,0,0,0,0,0,0,0,0,0,0,
393,0.2573,-6.098,-4.52,-8.831,-4.747,-9.867,0.4872,-2.726,-5.587,-11.03,-0.1876,0.7218,-6.619,-11.12,-8.25,-10.21,0,0,0,0,0,0,0,0,0,0,0,0,0,0,0,0,
394,-0.3469,-3.26,-5.807,-8.169,-5.679,-10.82,-1.043,-3.841,-6.189,-10.66,-1.259,0.1219,-7.826,-11.39,-6.577,-10.59,0,0,0,0,0,0,0,0,0,0,0,0,0,0,0,0,
395,-3.073,1.083,-6.797,-8.674,-5.788,-11.63,-1.766,-5.618,-8.701,-11.13,-2.486,0.2355,-6.461,-8.201,-2.094,-6.646,0,0,0,0,0,0,0,0,0,0,0,0,0,0,0,0,
396,-1.111,-1.518,-4.455,-10.49,-3.594,-9.882,0.0258,-6.089,-6.819,-9.321,-1.428,1.575,-1.661,-4.135,2.281,-1.826,0,0,0,0,0,0,0,0,0,0,0,0,0,0,0,0,
397,4.708,1.67,-2.476,-9.017,-2.357,-6.354,0.8912,-5.852,-2.575,-6.909,-0.3395,2.609,0.7521,-2.059,3.428,0.5091,0,0,0,0,0,0,0,0,0,0,0,0,0,0,0,0,
398,5.151,3.655,-3.134,-9.701,-3.172,-4.846,-0.746,-7.225,-2.211,-5.884,-1.696,0.2537,-1.307,-2.111,2.217,0.8518,0,0,0,0,0,0,0,0,0,0,0,0,0,0,0,0,
399,-1.943,-3.891,-4.464,-13.44,-4.575,-5.536,-2.21,-10.02,-3.717,-5.822,-3.161,-3.885,-2.591,-2.891,1.383,-0.2782,0,0,0,0,0,0,0,0,0,0,0,0,0,0,0,0,
400,-3.973,-0.5173,-4.829,-8.961,-4.663,-4.68,-1.187,-8.76,-2.09,-5.856,-1.96,-4.981,-0.7982,-2.377,2.338,-0.6218,0,0,0,0,0,0,0,0,0,0,0,0,0,0,0,0,
401,3.659,11.19,-3.36,-0.8005,-2.531,-2.243,0.7764,-4.855,-0.0637,-5.352,0.2306,-4.382,0.6782,-1.134,2.902,0.3913,0,0,0,0,0,0,0,0,0,0,0,0,0,0,0,0,
402,9.777,12.04,-0.0169,0.2409,0.0422,-0.6577,2.539,-4.614,1.136,-4.109,1.572,-4.621,1.193,-1.484,2.184,-0.3021,0,0,0,0,0,0,0,0,0,0,0,0,0,0,0,0,
403,6.923,7.031,0.0454,-2.364,-0.9207,-2.095,2.546,-6.651,2.492,-4.342,0.4396,-5.705,-0.6055,-4.082,0.3185,-3.627,0,0,0,0,0,0,0,0,0,0,0,0,0,0,0,0,
404,0.0575,1.845,-4.053,-4.884,-4.212,-5.157,-0.9238,-7.01,-0.261,-6.329,-2.868,-6.5,-4.946,-5.651,-3.335,-6.026,0,0,0,0,0,0,0,0,0,0,0,0,0,0,0,0,
405,-1.518,-1.461,-5.416,-6.222,-5.191,-5.349,-4.486,-4.926,-4.21,-5.587,-4.983,-3.199,-5.925,-3.482,-5.928,-4.166,0,0,0,0,0,0,0,0,0,0,0,0,0,0,0,0,
406,-0.3098,1.46,-7.148,-5.978,-7.467,-5.235,-7.22,-2.086,-4.128,-3.146,-8.053,2.332,-5.537,-1.823,-7.259,-2.311,0,0,0,0,0,0,0,0,0,0,0,0,0,0,0,0,
407,-3.039,4.114,-11.78,-7.069,-11.45,-6.79,-9.827,-1.037,-5.059,-3.565,-11.62,4.969,-8.08,-2.49,-9.327,-4.19,0,0,0,0,0,0,0,0,0,0,0,0,0,0,0,0,
408,-2.843,3.181,-10.35,-8.331,-9.675,-5.979,-8.154,-1.102,-5.791,-4.009,-9.102,6.983,-7.827,-1.884,-7.996,-3.771,0,0,0,0,0,0,0,0,0,0,0,0,0,0,0,0,
409,-0.9168,0.2537,-7.67,-8.441,-7.463,-5.98,-5.128,-0.1381,-3.012,-3.155,-5.349,9.219,-4.936,-0.6866,-2.512,0.8524,0,0,0,0,0,0,0,0,0,0,0,0,0,0,0,0,
410,-3.704,-1.662,-9.224,-6.752,-8.329,-6.216,-3.517,2.281,-2.164,-2.275,-3.84,9.996,-2.088,2.479,3.096,5.769,0,0,0,0,0,0,0,0,0,0,0,0,0,0,0,0,
411,0.3687,5.286,-4.609,-1.758,-3.6,-1.531,1.617,3.365,-0.4668,1.586,1.124,10.14,2.981,7.96,7.537,10.47,0,0,0,0,0,0,0,0,0,0,0,0,0,0,0,0,
412,7.136,9.669,-0.0832,0.0611,-0.1625,-0.2481,4.627,0.286,3.311,4.133,3.993,7.678,5.116,8.112,8.454,11.89,0,0,0,0,0,0,0,0,0,0,0,0,0,0,0,0,
413,1.963,0.8585,-3.599,-3.08,-3.38,-2.752,3.094,-1.999,2.38,1.398,3.372,4.935,4.258,5.806,7.555,10.29,0,0,0,0,0,0,0,0,0,0,0,0,0,0,0,0,
414,-0.7847,-1.901,-2.065,-4.857,-1.494,-0.337,6.007,-1.5,2.336,0.9715,6.691,4.994,5.468,6.411,7.674,9.633,0,0,0,0,0,0,0,0,0,0,0,0,0,0,0,0,
415,5.453,5.311,2.333,-5.757,1.847,-0.2795,7.596,-4.029,4.785,1.433,6.984,1.632,2.376,2.21,4.086,5.35,0,0,0,0,0,0,0,0,0,0,0,0,0,0,0,0,
416,8.947,8.677,1.043,-1.609,0.5624,-2.052,4.049,-4.381,2.226,-1.69,3.418,-2.483,-2.145,-2.712,0.5093,-0.3749,0,0,0,0,0,0,0,0,0,0,0,0,0,0,0,0,
417,11.55,12.42,2.307,9.341,2.597,3.746,5.181,2.383,1.578,0.9098,5.413,0.6629,0.8935,0.9478,3.705,1.308,0,0,0,0,0,0,0,0,0,0,0,0,0,0,0,0,
418,11.1,15.25,2.906,11.95,2.809,6.687,5.663,5.235,4.609,7.2,5.127,3.56,1.775,3.181,3.857,3.342,0,0,0,0,0,0,0,0,0,0,0,0,0,0,0,0,
419,5.43,10.22,-2.95,5.742,-2.999,2.015,-0.7142,2.266,1.502,4.911,-1.962,2.146,-3.771,-0.0741,-2.918,-0.6836,0,0,0,0,0,0,0,0,0,0,0,0,0,0,0,0,
420,5.162,7.154,-4.907,5.553,-3.854,1.512,-3.762,3.396,-1.878,0.6807,-4.55,4.121,-4.696,1.011,-4.727,-2.517,0,0,0,0,0,0,0,0,0,0,0,0,0,0,0,0,
421,7.276,9.775,-2.147,8.383,-1.149,4.47,-1.882,7.375,1.54,3.77,-2.374,7.966,-1.143,5.236,-0.807,0.2494,0,0,0,0,0,0,0,0,0,0,0,0,0,0,0,0,
422,5.167,10.24,-3.235,6.399,-3.305,3.517,-3.28,7.853,3.521,7.06,-3.767,7.739,-1.174,5.489,-0.3958,1.339,0,0,0,0,0,0,0,0,0,0,0,0,0,0,0,0,
423,3.317,7.03,-8.353,3.225,-8.285,-0.6362,-8.729,4.645,-0.5577,4.324,-8.991,5.255,-5.337,2.201,-3.417,-0.9134,0,0,0,0,0,0,0,0,0,0,0,0,0,0,0,0,
424,0.5595,3.506,-12.84,1.183,-11.84,-3.89,-12.24,1.147,-5.237,-0.706,-12.34,3.926,-8.148,0.0661,-4.197,-2.112,0,0,0,0,0,0,0,0,0,0,0,0,0,0,0,0,
425,-1.886,3.687,-10.66,0.156,-9.767,-2.384,-8.521,0.8716,-4.333,-1.929,-8.488,4.689,-4.548,2.329,-1.02,1.46,0,0,0,0,0,0,0,0,0,0,0,0,0,0,0,0,
426,2.086,6.145,-2.611,1.725,-2.447,1.45,-0.5446,2.429,1.404,1.541,-0.0779,5.932,2.049,5.972,3.566,6.494,0,0,0,0,0,0,0,0,0,0,0,0,0,0,0,0,
427,6.783,4.713,1.201,4.043,1.088,1.571,3.857,2.381,4.475,3.579,3.92,5.668,3.774,6.563,5.445,8.125,0,0,0,0,0,0,0,0,0,0,0,0,0,0,0,0,
428,4.606,2.418,-1.302,3.535,-1.338,-0.6206,3.59,1.349,2.93,1.946,2.396,5.3,1.755,5.922,4.204,8.098,0,0,0,0,0,0,0,0,0,0,0,0,0,0,0,0,
429,1.371,6.091,-1.828,2.28,-1.574,-0.2589,3.657,0.7422,2.635,2.212,2.751,5.581,2.374,6.695,3.894,8.494,0,0,0,0,0,0,0,0,0,0,0,0,0,0,0,0,
430,5.169,11.91,1.97,3.737,2.567,2.594,6.46,1.203,5.416,4.917,6.42,4.95,5.022,7.431,5.741,7.775,0,0,0,0,0,0,0,0,0,0,0,0,0,0,0,0,
431,10.15,13.1,4.722,5.324,5.175,4.916,8.559,2.896,7.569,5.449,7.918,4.509,5.332,6.574,7.323,6.91,0,0,0,0,0,0,0,0,0,0,0,0,0,0,0,0,
432,8.52,10.51,3.883,5.217,3.547,4.958,6.935,3.437,6.714,4.267,6.358,4.855,3.213,4.315,7.49,6.383,0,0,0,0,0,0,0,0,0,0,0,0,0,0,0,0,
433,6.775,8.443,2.206,6.122,1.417,3.853,4.949,2.157,3.588,3.188,5.439,4.08,1.628,2.144,7.063,3.967,0,0,0,0,0,0,0,0,0,0,0,0,0,0,0,0,
434,9.086,9.669,2.862,8.421,2.748,4.067,6.615,2.581,1.604,2.433,6.839,4.35,2.868,2.749,8.36,2.932,0,0,0,0,0,0,0,0,0,0,0,0,0,0,0,0,
435,9.087,11.72,4.941,9.869,5.172,4.813,9.425,4.981,2.983,3.562,8.649,7.237,4.888,5.188,10.38,5.529,0,0,0,0,0,0,0,0,0,0,0,0,0,0,0,0,
436,6.883,8.727,4.616,8.569,4.186,3.008,8.544,4.892,3.998,4.516,7.424,7.8,3.17,4.401,8.248,5.815,0,0,0,0,0,0,0,0,0,0,0,0,0,0,0,0,
437,6.36,4.457,1.993,5.694,1.703,-0.1955,4.266,1.947,1.541,1.668,3.251,5.28,-1.028,0.8099,3.927,3.868,0,0,0,0,0,0,0,0,0,0,0,0,0,0,0,0,
438,5.063,6.121,0.2383,6.116,0.4531,-1.282,0.795,1.427,-1.334,-1.318,-0.0285,5.581,-2.716,0.5529,3.902,5.795,0,0,0,0,0,0,0,0,0,0,0,0,0,0,0,0,
439,2.987,9.103,-0.0232,9.456,-0.3006,0.0554,1.257,4.843,-1.882,0.4787,0.5444,9.365,-0.5449,4.564,7.616,10.3,0,0,0,0,0,0,0,0,0,0,0,0,0,0,0,0,
440,4.956,9.89,1.416,9.775,1.03,2.194,4.433,6.354,-0.1048,4.049,3.853,10.97,2.401,6.951,9.915,12.86,0,0,0,0,0,0,0,0,0,0,0,0,0,0,0,0,
441,9.003,9.301,2.772,8.069,2.859,2.93,4.471,3.254,1.881,3.889,4.196,7.98,1.573,4.33,8.689,11.62,0,0,0,0,0,0,0,0,0,0,0,0,0,0,0,0,
442,9.51,5.662,1.2,10.04,1.458,2.859,1.874,1.999,1.198,1.709,1.842,5.508,0.0161,2.075,8.486,9.023,0,0,0,0,0,0,0,0,0,0,0,0,0,0,0,0,
443,10.25,7.647,1.449,13.88,2.095,5.918,4.718,5.165,1.378,3.231,4.253,7.307,4.274,5.007,12.44,9.82,0,0,0,0,0,0,0,0,0,0,0,0,0,0,0,0,
444,14.35,16.28,5.443,13.9,5.889,9.142,8.442,5.667,5.263,6.765,7.206,7.417,7.299,6.623,12.65,9.977,0,0,0,0,0,0,0,0,0,0,0,0,0,0,0,0,
445,13.09,12.29,4.213,11.13,3.886,5.924,3.406,1.998,5.12,5.995,2.386,2.33,1.966,2.18,6.114,4.409,0,0,0,0,0,0,0,0,0,0,0,0,0,0,0,0,
446,4.774,0.7468,-1.607,9.996,-1.305,0.6597,-1.581,0.4114,-0.9265,1.756,-2.145,-0.1724,-1.803,-1.129,2.695,0.4295,0,0,0,0,0,0,0,0,0,0,0,0,0,0,0,0,
447,2.112,3.955,-1.704,9.997,-0.803,0.0846,0.6422,1.244,-3.037,-0.564,-0.3944,2.908,-0.1537,-1.215,2.593,1.423,0,0,0,0,0,0,0,0,0,0,0,0,0,0,0,0,
448,6.647,10.57,0.1744,7.868,0.2218,-0.3439,0.1217,0.3905,-1.539,-1.331,-1.01,3.831,-2.877,-4.174,-1.91,0.173,0,0,0,0,0,0,0,0,0,0,0,0,0,0,0,0,
449,5.836,3.537,-3.19,4.206,-3.038,-4.076,-3.776,-1.689,-4.675,-4.564,-4.409,1.588,-7.448,-6.645,-5.219,-1.415,0,0,0,0,0,0,0,0,0,0,0,0,0,0,0,0,
450,0.6475,-4.473,-4.462,2.376,-3.582,-5.363,-2.33,-2.658,-7.895,-7.639,-3.009,2.486,-5.216,-3.388,-1.922,2.882,0,0,0,0,0,0,0,0,0,0,0,0,0,0,0,0,
451,1.351,-2.539,-1.112,2.134,-0.8863,-3.436,0.1101,-2.932,-5.403,-5.974,-0.5378,4.755,-2.214,-0.7868,-0.1685,6.096,0,0,0,0,0,0,0,0,0,0,0,0,0,0,0,0,
452,4.696,3.168,0.1268,2.783,0.0123,-2.014,0.4481,-2.113,-2.679,-2.95,0.3518,5.247,-1.537,-0.4095,-0.34,4.11,0,0,0,0,0,0,0,0,0,0,0,0,0,0,0,0,
453,7.276,7.75,3.35,6.721,3.61,1.72,5.737,1.067,0.9331,-0.0825,5.745,7.139,3.251,3.385,4.535,4.873,0,0,0,0,0,0,0,0,0,0,0,0,0,0,0,0,
454,11.45,9.298,9.452,9.931,9.219,6.233,10.44,2.561,7.778,4.134,9.833,8.239,6.467,5.543,7.264,7.042,0,0,0,0,0,0,0,0,0,0,0,0,0,0,0,0,
455,11.04,6.974,7.925,8.059,7.371,5.015,5.762,0.1242,8.026,4.153,4.877,5.897,2.871,3.192,3.515,5.345,0,0,0,0,0,0,0,0,0,0,0,0,0,0,0,0,
456,7.845,6.463,3.553,8.44,3.23,3.19,1.502,-0.1461,2.587,1.069,1.29,5.301,1.775,4.41,3.269,5.492,0,0,0,0,0,0,0,0,0,0,0,0,0,0,0,0,
457,12.11,11.37,6.454,12.86,5.792,6.778,3.968,2.869,3.418,3.236,4.415,6.477,4.196,7.839,5.907,7.693,0,0,0,0,0,0,0,0,0,0,0,0,0,0,0,0,
458,16.93,15.2,9.581,13.9,8.584,10.24,5.242,3.982,6.855,6.713,5.646,5.855,4.537,7.847,5.081,6.903,0,0,0,0,0,0,0,0,0,0,0,0,0,0,0,0,
459,15.27,13.69,7.679,12.93,6.652,10.11,3.664,3.419,6.958,6.503,3.886,4.869,5.46,7.184,4.981,5.522,0,0,0,0,0,0,0,0,0,0,0,0,0,0,0,0,
460,15.03,12.49,5.527,13.35,4.767,10.22,3.391,3.865,8.038,6.99,3.546,4.565,7.302,7.573,7.003,5.158,0,0,0,0,0,0,0,0,0,0,0,0,0,0,0,0,
461,18.34,15.73,6.22,14.11,6.196,12.2,5.548,5.827,10.16,8.833,5.388,5.78,8.415,8.915,7.745,5.557,0,0,0,0,0,0,0,0,0,0,0,0,0,0,0,0,
462,18.92,17.64,8.769,14.89,8.878,11.63,8.18,7.101,10.4,9.12,7.678,7.467,9.022,9.62,6.896,6.444,0,0,0,0,0,0,0,0,0,0,0,0,0,0,0,0,
463,17.19,15.28,11.48,15.55,11.53,9.717,11.22,7.69,9.705,8.62,11.5,9.634,10.64,10.54,9.711,9.663,0,0,0,0,0,0,0,0,0,0,0,0,0,0,0,0,
464,22.76,19.75,20.28,21.52,20.52,17.52,22.67,14.88,14.64,13.24,24.09,18.72,20.83,19.93,22.87,21.4,0,0,0,0,0,0,0,0,0,0,0,0,0,0,0,0,
465,35.02,31.55,33.94,31.58,32.74,29.27,36.57,24.4,28.13,24.08,36.67,27.83,32.15,29.71,33.23,31.59,0,0,0,0,0,0,0,0,0,0,0,0,0,0,0,0,
466,36.15,30.64,31.56,29.0,29.01,25.43,30.16,20.96,32.55,26.18,27.84,23.1,24.24,23.12,23.89,25.4,0,0,0,0,0,0,0,0,0,0,0,0,0,0,0,0,
467,23.67,18.89,13.21,15.89,12.07,12.46,10.86,11.57,17.52,14.5,8.883,15.21,8.049,13.2,10.74,16.72,0,0,0,0,0,0,0,0,0,0,0,0,0,0,0,0,
468,14.78,16.44,5.021,11.91,5.136,8.187,4.59,10.81,4.662,8.255,4.117,15.51,5.412,14.38,9.41,17.13,0,0,0,0,0,0,0,0,0,0,0,0,0,0,0,0,
469,13.64,15.19,7.203,14.49,6.532,8.264,5.006,10.67,4.645,11.6,4.344,13.74,5.962,13.7,7.894,14.44,0,0,0,0,0,0,0,0,0,0,0,0,0,0,0,0,
470,14.09,6.628,4.354,13.61,3.157,5.899,-0.0566,6.274,3.199,9.963,-0.7832,7.977,1.016,7.806,3.266,7.946,0,0,0,0,0,0,0,0,0,0,0,0,0,0,0,0,
471,14.64,7.911,2.763,14.23,2.115,5.802,-0.3946,6.524,0.3336,5.991,-0.0256,6.325,1.927,7.256,4.19,6.421,0,0,0,0,0,0,0,0,0,0,0,0,0,0,0,0,
472,15.58,15.98,7.476,16.86,7.538,8.314,5.122,8.989,3.604,7.719,5.671,6.136,6.481,8.809,6.341,6.475,0,0,0,0,0,0,0,0,0,0,0,0,0,0,0,0,
473,18.49,14.18,9.379,17.21,9.418,10.01,6.292,8.085,5.946,9.422,6.21,4.723,5.924,7.76,5.926,4.999,0,0,0,0,0,0,0,0,0,0,0,0,0,0,0,0,
474,22.57,12.35,8.893,17.94,8.117,11.75,5.565,8.513,4.81,9.828,5.548,5.594,5.704,8.084,7.319,5.277,0,0,0,0,0,0,0,0,0,0,0,0,0,0,0,0,
475,23.8,15.93,10.34,18.57,9.518,13.14,7.341,9.615,5.962,11.84,7.075,7.56,7.615,8.592,9.044,7.502,0,0,0,0,0,0,0,0,0,0,0,0,0,0,0,0,
476,21.95,14.49,9.545,16.59,9.441,12.02,8.217,7.788,7.027,10.51,7.098,8.698,7.182,7.223,8.479,9.213,0,0,0,0,0,0,0,0,0,0,0,0,0,0,0,0,
477,20.8,14.88,9.115,16.8,8.641,12.03,9.272,8.576,7.17,7.486,8.297,11.53,8.192,8.333,9.554,10.91,0,0,0,0,0,0,0,0,0,0,0,0,0,0,0,0,
478,20.98,20.1,13.11,19.26,11.87,14.64,11.69,12.13,10.26,9.714,11.36,14.29,11.06,11.02,11.64,12.89,0,0,0,0,0,0,0,0,0,0,0,0,0,0,0,0,
479,18.36,15.89,13.27,17.64,12.64,13.84,10.56,11.51,11.22,12.15,10.51,13.25,10.71,10.73,10.84,12.55,0,0,0,0,0,0,0,0,0,0,0,0,0,0,0,0,
480,16.5,8.987,10.6,15.48,10.79,12.42,9.362,9.895,9.12,11.31,9.462,12.24,12.12,11.17,12.56,12.35,0,0,0,0,0,0,0,0,0,0,0,0,0,0,0,0,
481,21.39,12.14,14.65,17.52,14.52,15.94,13.62,10.91,12.47,12.65,12.99,12.69,17.05,13.9,17.61,15.19,0,0,0,0,0,0,0,0,0,0,0,0,0,0,0,0,
482,23.97,13.55,17.83,17.55,17.43,16.61,15.14,9.396,16.66,13.35,13.7,9.684,16.58,13.68,16.51,16.08,0,0,0,0,0,0,0,0,0,0,0,0,0,0,0,0,
483,22.49,11.05,15.16,15.12,14.92,13.6,11.84,6.8,14.8,10.97,11.2,6.79,14.18,13.92,13.93,16.0,0,0,0,0,0,0,0,0,0,0,0,0,0,0,0,0,
484,29.17,17.6,16.54,16.63,15.94,15.93,12.94,7.919,15.04,12.36,12.98,8.978,17.76,17.81,17.88,18.97,0,0,0,0,0,0,0,0,0,0,0,0,0,0,0,0,
485,36.62,27.38,18.94,19.05,18.19,18.7,14.02,8.628,17.16,14.88,13.29,9.042,17.52,16.34,16.86,17.23,0,0,0,0,0,0,0,0,0,0,0,0,0,0,0,0,
486,36.57,33.6,16.36,20.66,16.2,18.37,9.306,8.568,12.74,12.57,8.447,6.265,10.03,10.75,9.367,11.52,0,0,0,0,0,0,0,0,0,0,0,0,0,0,0,0,
487,45.8,45.3,18.26,27.21,17.92,24.11,8.825,13.78,9.432,13.41,8.591,10.46,8.86,13.02,10.38,14.47,0,0,0,0,0,0,0,0,0,0,0,0,0,0,0,0,
488,64.33,59.62,23.36,34.85,22.15,31.37,12.25,19.54,12.29,19.12,11.54,16.43,11.37,16.64,14.15,19.65,0,0,0,0,0,0,0,0,0,0,0,0,0,0,0,0,
489,71.19,67.67,20.57,36.83,19.91,30.14,8.993,18.6,10.5,18.34,8.046,14.8,6.981,12.37,10.01,16.02,0,0,0,0,0,0,0,0,0,0,0,0,0,0,0,0,
490,72.8,77.29,17.66,39.14,18.05,29.86,5.938,17.64,6.074,14.09,6.182,14.2,5.291,11.52,7.915,13.2,0,0,0,0,0,0,0,0,0,0,0,0,0,0,0,0,
491,84.29,91.1,22.4,45.28,22.13,36.79,9.686,20.99,9.457,17.22,10.02,17.88,10.0,17.05,9.738,15.21,0,0,0,0,0,0,0,0,0,0,0,0,0,0,0,0,
492,95.04,101.3,26.43,50.32,25.21,42.53,11.71,22.48,14.25,22.25,11.13,17.92,10.93,18.59,7.993,14.96,0,0,0,0,0,0,0,0,0,0,0,0,0,0,0,0,
493,102.7,113.4,30.51,54.83,29.27,46.96,13.08,22.47,16.08,23.95,12.82,16.96,12.21,18.79,7.742,15.15,0,0,0,0,0,0,0,0,0,0,0,0,0,0,0,0,
494,116.1,127.4,38.57,57.99,37.02,51.64,18.82,22.47,20.73,25.66,18.59,15.45,17.26,19.08,10.11,14.64,0,0,0,0,0,0,0,0,0,0,0,0,0,0,0,0,
495,123.9,131.0,42.63,57.24,40.79,52.73,22.97,19.36,24.36,24.26,22.19,9.94,19.28,14.95,11.22,9.955,0,0,0,0,0,0,0,0,0,0,0,0,0,0,0,0,
496,123.9,133.8,44.46,59.56,42.72,56.02,25.44,18.37,26.2,22.31,25.2,8.889,21.63,14.04,14.27,10.23,0,0,0,0,0,0,0,0,0,0,0,0,0,0,0,0,
497,128.1,140.9,48.15,64.25,46.25,61.74,27.9,21.74,31.34,27.0,27.72,12.74,24.99,18.1,16.67,15.66,0,0,0,0,0,0,0,0,0,0,0,0,0,0,0,0,
498,127.4,135.7,45.86,63.85,44.37,61.47,26.06,23.66,32.66,31.0,25.31,14.38,24.25,20.28,16.48,18.66,0,0,0,0,0,0,0,0,0,0,0,0,0,0,0,0,
499,120.0,126.9,41.95,64.75,40.92,60.84,23.36,26.63,29.61,31.24,23.04,18.36,23.43,23.57,17.6,21.55,0,0,0,0,0,0,0,0,0,0,0,0,0,0,0,0,
500,116.7,126.1,41.76,66.49,40.14,60.73,20.94,30.67,29.42,33.49,20.82,23.13,21.17,26.3,15.34,21.96,0,0,0,0,0,0,0,0,0,0,0,0,0,0,0,0,
501,107.5,115.9,35.28,59.18,33.68,52.56,14.69,29.31,25.43,32.6,14.07,22.25,14.18,22.98,8.945,16.81,0,0,0,0,0,0,0,0,0,0,0,0,0,0,0,0,
502,91.74,100.3,26.48,50.68,25.4,44.39,9.566,25.49,17.05,27.48,8.852,19.72,8.904,18.24,4.324,11.57,0,0,0,0,0,0,0,0,0,0,0,0,0,0,0,0,
503,83.41,94.73,23.81,47.3,22.44,40.65,6.458,21.96,12.81,23.44,5.945,16.05,4.803,13.5,-1.136,6.108,0,0,0,0,0,0,0,0,0,0,0,0,0,0,0,0,
504,76.02,88.85,19.95,43.11,19.06,35.31,2.451,18.72,9.475,17.88,2.231,11.67,0.9604,9.128,-5.189,1.334,0,0,0,0,0,0,0,0,0,0,0,0,0,0,0,0,
505,69.83,82.53,18.28,42.66,18.43,35.81,4.883,20.51,8.072,15.31,4.584,12.06,4.853,9.741,-1.027,2.514,0,0,0,0,0,0,0,0,0,0,0,0,0,0,0,0,
506,73.22,82.19,24.52,46.26,24.17,41.73,12.34,23.03,14.12,20.2,11.73,12.7,11.58,11.59,4.268,5.286,0,0,0,0,0,0,0,0,0,0,0,0,0,0,0,0,
507,71.33,75.41,25.49,41.87,24.37,39.31,12.75,18.67,18.43,21.14,12.41,8.772,10.26,9.996,2.16,4.084,0,0,0,0,0,0,0,0,0,0,0,0,0,0,0,0,
508,58.92,61.71,19.22,32.44,18.77,32.04,8.13,12.38,15.17,15.4,7.975,3.835,4.806,7.181,-2.973,0.1391,0,0,0,0,0,0,0,0,0,0,0,0,0,0,0,0,
509,51.93,52.65,17.92,28.97,18.23,28.0,6.937,8.921,11.81,11.88,6.42,-1.742,2.371,3.589,-4.998,-4.449,0,0,0,0,0,0,0,0,0,0,0,0,0,0,0,0,
510,48.52,48.82,17.99,28.57,18.03,24.5,6.898,7.371,10.21,9.953,6.146,-6.566,1.317,-0.0474,-5.877,-7.327,0,0,0,0,0,0,0,0,0,0,0,0,0,0,0,0,
511,40.81,46.71,13.84,26.33,13.56,23.18,5.485,7.639,7.629,7.928,4.981,-6.428,1.01,-0.7171,-6.624,-7.115,0,0,0,0,0,0,0,0,0,0,0,0,0,0,0,0,
512,36.65,40.84,12.68,24.93,12.58,24.83,6.138,7.655,7.314,8.444,6.023,-4.252,3.682,0.87,-3.681,-5.481,0,0,0,0,0,0,0,0,0,0,0,0,0,0,0,0,
513,35.86,30.99,13.77,24.39,13.43,23.24,6.322,6.627,9.259,8.672,5.826,-4.278,4.152,0.8621,-2.435,-6.306,0,0,0,0,0,0,0,0,0,0,0,0,0,0,0,0,
514,28.85,25.05,9.275,21.54,8.379,18.5,0.5062,6.847,6.005,6.143,-0.6993,-4.747,-2.435,-2.481,-8.235,-10.5,0,0,0,0,0,0,0,0,0,0,0,0,0,0,0,0,
515,19.43,20.84,2.124,17.49,1.594,14.16,-6.717,7.109,-2.554,3.324,-7.642,-4.322,-9.516,-6.088,-12.11,-12.84,0,0,0,0,0,0,0,0,0,0,0,0,0,0,0,0,
516,13.54,14.12,-2.362,15.12,-2.102,10.29,-9.548,6.095,-8.409,1.498,-9.923,-4.265,-11.86,-6.412,-11.11,-11.08,0,0,0,0,0,0,0,0,0,0,0,0,0,0,0,0,
517,7.22,9.424,-4.508,15.74,-4.105,9.106,-10.07,6.185,-9.656,1.079,-10.38,-3.513,-11.74,-3.904,-11.8,-8.038,0,0,0,0,0,0,0,0,0,0,0,0,0,0,0,0,
518,1.542,5.117,-4.246,18.03,-3.94,10.5,-9.297,7.931,-8.197,2.708,-9.369,-0.5287,-9.776,-0.1023,-11.37,-4.792,0,0,0,0,0,0,0,0,0,0,0,0,0,0,0,0,
519,-0.293,-2.603,-3.892,15.75,-3.507,8.741,-7.653,8.594,-5.119,4.28,-7.513,1.471,-7.662,2.25,-8.64,-4.219,0,0,0,0,0,0,0,0,0,0,0,0,0,0,0,0,
520,-4.425,-10.84,-7.307,7.521,-6.938,4.324,-8.973,6.393,-4.961,2.936,-9.088,-1.216,-9.261,-0.932,-10.76,-10.01,0,0,0,0,0,0,0,0,0,0,0,0,0,0,0,0,
521,-11.0,-16.36,-10.81,4.095,-10.47,2.773,-11.77,3.649,-7.928,0.0641,-11.89,-5.072,-11.57,-6.37,-15.66,-17.1,0,0,0,0,0,0,0,0,0,0,0,0,0,0,0,0,
522,-11.17,-15.56,-9.852,8.987,-9.434,2.863,-11.33,2.68,-7.187,-0.7844,-11.16,-5.812,-10.67,-7.506,-17.14,-18.65,0,0,0,0,0,0,0,0,0,0,0,0,0,0,0,0,
523,-10.1,-12.85,-9.133,9.442,-8.763,1.289,-10.97,0.4411,-4.251,-1.404,-11.1,-7.604,-11.19,-8.026,-19.2,-18.25,0,0,0,0,0,0,0,0,0,0,0,0,0,0,0,0,
524,-16.81,-18.05,-11.14,3.205,-10.79,0.5204,-12.73,-2.984,-5.687,-4.506,-12.95,-11.47,-13.43,-10.21,-22.0,-18.79,0,0,0,0,0,0,0,0,0,0,0,0,0,0,0,0,
525,-19.64,-22.98,-9.103,2.863,-8.632,2.489,-9.72,-2.219,-6.12,-4.778,-9.183,-11.29,-9.869,-7.758,-17.8,-15.68,0,0,0,0,0,0,0,0,0,0,0,0,0,0,0,0,
526,-14.06,-20.33,-3.809,5.134,-3.447,3.521,-3.233,-0.4376,-0.8002,-0.9827,-3.045,-11.18,-4.083,-4.949,-11.64,-13.42,0,0,0,0,0,0,0,0,0,0,0,0,0,0,0,0,
527,-15.83,-22.72,-3.522,-0.1319,-3.2,2.156,-2.571,-2.718,1.758,-0.8663,-3.855,-16.24,-4.071,-7.925,-12.16,-18.03,0,0,0,0,0,0,0,0,0,0,0,0,0,0,0,0,
528,-22.28,-29.14,-7.347,-3.858,-6.657,1.219,-6.867,-4.102,-1.113,-2.948,-8.245,-17.7,-6.393,-8.279,-13.6,-19.44,0,0,0,0,0,0,0,0,0,0,0,0,0,0,0,0,
529,-22.24,-29.62,-11.37,-1.566,-10.38,0.5794,-10.17,-2.213,-3.313,-1.373,-10.35,-12.85,-6.769,-2.79,-10.31,-10.99,0,0,0,0,0,0,0,0,0,0,0,0,0,0,0,0,
530,-22.68,-29.93,-12.24,-1.207,-11.35,1.093,-8.356,0.2747,-2.944,1.45,-7.772,-7.574,-2.54,3.76,-3.426,0.6905,0,0,0,0,0,0,0,0,0,0,0,0,0,0,0,0,
531,-24.56,-29.5,-6.748,0.6549,-6.638,3.684,-2.026,2.503,1.403,4.555,-1.786,-3.072,4.55,9.306,3.104,9.162,0,0,0,0,0,0,0,0,0,0,0,0,0,0,0,0,
532,-24.38,-27.5,-4.51,3.479,-4.978,2.611,-1.728,2.228,5.219,6.109,-2.175,-2.234,3.061,8.401,2.541,9.394,0,0,0,0,0,0,0,0,0,0,0,0,0,0,0,0,
533,-25.53,-31.94,-9.781,0.3736,-9.222,-0.5653,-7.622,1.26,1.484,3.193,-7.846,-4.332,-4.207,2.655,-2.665,2.502,0,0,0,0,0,0,0,0,0,0,0,0,0,0,0,0,
534,-26.07,-35.07,-10.66,-1.116,-9.372,0.4017,-8.674,2.12,-2.104,1.61,-8.762,-5.079,-5.853,-0.846,-7.23,-5.639,0,0,0,0,0,0,0,0,0,0,0,0,0,0,0,0,
535,-30.82,-37.93,-10.3,-2.478,-9.813,-1.441,-9.151,-0.6221,-2.617,0.7883,-10.02,-9.798,-9.189,-6.99,-13.39,-14.31,0,0,0,0,0,0,0,0,0,0,0,0,0,0,0,0,
536,-40.4,-51.02,-15.05,-11.66,-14.39,-8.075,-12.07,-5.962,-8.198,-5.813,-13.06,-16.95,-14.96,-14.2,-15.79,-18.69,0,0,0,0,0,0,0,0,0,0,0,0,0,0,0,0,
537,-39.51,-52.15,-13.63,-13.73,-12.51,-10.2,-8.574,-6.544,-11.77,-10.93,-8.816,-15.23,-10.43,-11.23,-8.6,-12.62,0,0,0,0,0,0,0,0,0,0,0,0,0,0,0,0,
538,-33.77,-36.53,-7.563,-5.069,-7.733,-8.175,-2.84,-3.018,-6.477,-7.888,-2.558,-7.266,-1.909,-2.959,0.0267,-2.584,0,0,0,0,0,0,0,0,0,0,0,0,0,0,0,0,
539,-35.97,-37.92,-7.955,-3.642,-8.636,-5.631,-2.613,1.731,-2.436,-2.237,-2.744,-1.429,-1.629,0.2381,2.183,2.424,0,0,0,0,0,0,0,0,0,0,0,0,0,0,0,0,
540,-36.9,-49.79,-11.33,-6.753,-10.92,-4.335,-5.483,3.852,-4.405,0.5287,-6.661,0.761,-6.152,-1.077,-1.975,0.7236,0,0,0,0,0,0,0,0,0,0,0,0,0,0,0,0,
541,-35.49,-45.29,-14.59,-5.142,-13.79,-7.807,-10.08,-0.2133,-8.241,-1.447,-10.71,-1.947,-10.0,-3.993,-7.14,-4.389,0,0,0,0,0,0,0,0,0,0,0,0,0,0,0,0,
542,-38.79,-38.64,-18.28,-5.0,-17.15,-10.58,-13.99,-3.899,-11.27,-4.507,-13.31,-6.653,-12.48,-5.934,-8.921,-7.866,0,0,0,0,0,0,0,0,0,0,0,0,0,0,0,0,
543,-42.64,-41.04,-19.93,-5.87,-18.1,-9.367,-15.45,-2.907,-12.42,-3.92,-15.47,-7.88,-14.31,-5.714,-10.61,-7.758,0,0,0,0,0,0,0,0,0,0,0,0,0,0,0,0,
544,-43.95,-41.8,-21.81,-4.38,-20.5,-11.64,-17.86,-2.863,-13.5,-3.071,-18.41,-6.86,-16.47,-5.302,-14.1,-5.418,0,0,0,0,0,0,0,0,0,0,0,0,0,0,0,0,
545,-44.1,-44.14,-24.59,-5.987,-23.93,-15.56,-19.58,-4.188,-15.38,-4.551,-19.36,-6.476,-17.78,-5.391,-15.91,-4.602,0,0,0,0,0,0,0,0,0,0,0,0,0,0,0,0,
546,-46.27,-52.38,-24.54,-10.6,-23.15,-16.15,-17.43,-4.635,-16.13,-6.256,-17.67,-7.633,-16.92,-7.037,-14.22,-7.716,0,0,0,0,0,0,0,0,0,0,0,0,0,0,0,0,
547,-51.0,-57.76,-23.6,-13.58,-21.81,-19.49,-15.1,-7.694,-16.33,-9.535,-15.53,-11.06,-15.52,-11.11,-10.3,-11.05,0,0,0,0,0,0,0,0,0,0,0,0,0,0,0,0,
548,-53.41,-56.88,-24.36,-15.65,-23.21,-25.34,-14.8,-11.84,-17.13,-14.46,-13.9,-14.05,-15.02,-13.44,-8.971,-12.17,0,0,0,0,0,0,0,0,0,0,0,0,0,0,0,0,
549,-53.75,-53.87,-24.17,-17.72,-23.14,-24.74,-14.3,-11.63,-17.02,-15.89,-13.73,-13.87,-14.37,-12.07,-10.71,-12.66,0,0,0,0,0,0,0,0,0,0,0,0,0,0,0,0,
550,-53.16,-52.7,-23.1,-17.46,-21.99,-20.27,-14.13,-10.13,-15.7,-13.2,-14.96,-12.23,-13.48,-10.46,-9.266,-11.38,0,0,0,0,0,0,0,0,0,0,0,0,0,0,0,0,
551,-50.25,-53.45,-23.74,-13.44,-22.84,-19.44,-14.71,-8.935,-15.26,-11.14,-14.95,-8.718,-12.4,-7.332,-4.434,-6.261,0,0,0,0,0,0,0,0,0,0,0,0,0,0,0,0,
552,-47.62,-53.06,-22.86,-9.041,-21.44,-17.73,-12.77,-2.848,-14.16,-8.467,-12.21,-2.121,-9.454,-0.9427,-1.375,0.4657,0,0,0,0,0,0,0,0,0,0,0,0,0,0,0,0,
553,-46.25,-51.82,-19.0,-7.88,-17.4,-12.17,-10.53,2.703,-10.4,-2.403,-10.55,1.486,-7.524,2.426,-2.09,3.085,0,0,0,0,0,0,0,0,0,0,0,0,0,0,0,0,
554,-47.1,-49.01,-18.31,-6.871,-17.68,-10.82,-12.28,0.0791,-8.686,0.9031,-11.89,-0.805,-8.618,1.444,-3.536,1.437,0,0,0,0,0,0,0,0,0,0,0,0,0,0,0,0,
555,-49.2,-44.48,-19.75,-4.751,-19.16,-13.11,-12.32,-2.832,-9.092,-0.6395,-10.92,-1.834,-7.049,2.289,-1.091,2.002,0,0,0,0,0,0,0,0,0,0,0,0,0,0,0,0,
556,-47.11,-46.44,-18.26,-7.635,-16.72,-12.94,-9.371,-2.12,-6.516,-0.5054,-8.803,-0.2148,-4.779,3.429,0.6096,3.631,0,0,0,0,0,0,0,0,0,0,0,0,0,0,0,0,
557,-45.82,-52.5,-19.18,-14.41,-17.48,-15.18,-11.74,-4.522,-6.481,-0.5526,-12.15,-1.688,-8.716,0.9785,-4.2,0.915,0,0,0,0,0,0,0,0,0,0,0,0,0,0,0,0,
558,-48.92,-50.3,-23.31,-15.79,-21.72,-19.46,-15.6,-8.178,-11.72,-4.745,-15.36,-4.587,-11.88,-1.352,-7.615,-2.509,0,0,0,0,0,0,0,0,0,0,0,0,0,0,0,0,
559,-47.19,-46.97,-22.23,-11.48,-20.7,-16.94,-13.18,-8.394,-12.08,-6.531,-12.37,-4.967,-8.549,-1.374,-5.287,-3.319,0,0,0,0,0,0,0,0,0,0,0,0,0,0,0,0,
560,-43.95,-50.8,-18.79,-9.704,-17.94,-13.05,-11.12,-7.906,-7.544,-3.898,-10.9,-6.445,-7.462,-2.936,-5.684,-6.29,0,0,0,0,0,0,0,0,0,0,0,0,0,0,0,0,
561,-48.3,-51.67,-20.63,-13.83,-20.25,-16.51,-14.35,-9.513,-8.305,-5.282,-14.65,-11.45,-12.0,-8.297,-10.14,-13.28,0,0,0,0,0,0,0,0,0,0,0,0,0,0,0,0,
562,-51.97,-49.32,-24.23,-17.89,-23.35,-20.2,-17.04,-11.85,-13.61,-11.74,-16.79,-14.5,-15.02,-12.85,-11.14,-16.75,0,0,0,0,0,0,0,0,0,0,0,0,0,0,0,0,
563,-49.67,-49.14,-25.27,-14.65,-23.76,-18.51,-16.89,-10.93,-16.55,-14.32,-15.96,-11.52,-14.55,-11.33,-8.368,-11.28,0,0,0,0,0,0,0,0,0,0,0,0,0,0,0,0,
564,-48.67,-44.93,-26.38,-8.966,-24.67,-18.11,-17.49,-7.449,-17.01,-11.5,-16.77,-7.006,-14.91,-7.625,-7.58,-4.36,0,0,0,0,0,0,0,0,0,0,0,0,0,0,0,0,
565,-49.75,-43.25,-28.55,-10.73,-26.86,-20.94,-19.64,-7.57,-18.18,-10.59,-19.09,-6.391,-17.48,-8.1,-9.697,-3.653,0,0,0,0,0,0,0,0,0,0,0,0,0,0,0,0,
566,-50.65,-52.83,-29.33,-16.3,-27.67,-22.11,-20.7,-10.76,-20.02,-12.66,-20.38,-8.394,-19.86,-10.97,-11.97,-6.376,0,0,0,0,0,0,0,0,0,0,0,0,0,0,0,0,
567,-53.08,-56.55,-28.08,-17.68,-26.42,-22.29,-20.0,-11.74,-21.04,-13.46,-20.48,-9.622,-20.49,-12.68,-13.43,-9.788,0,0,0,0,0,0,0,0,0,0,0,0,0,0,0,0,
568,-53.06,-47.45,-26.04,-16.33,-24.27,-23.14,-19.19,-10.55,-21.54,-13.05,-19.4,-10.24,-20.0,-13.54,-13.24,-13.41,0,0,0,0,0,0,0,0,0,0,0,0,0,0,0,0,
569,-50.07,-44.11,-24.26,-14.95,-22.69,-22.25,-18.39,-9.803,-21.34,-12.88,-17.56,-11.4,-18.74,-13.61,-11.56,-14.65,0,0,0,0,0,0,0,0,0,0,0,0,0,0,0,0,
570,-49.93,-48.93,-23.11,-14.67,-22.23,-20.26,-16.92,-10.37,-19.07,-12.42,-16.55,-11.78,-16.68,-12.35,-10.93,-12.7,0,0,0,0,0,0,0,0,0,0,0,0,0,0,0,0,
571,-46.46,-50.01,-21.66,-15.28,-21.13,-18.92,-15.84,-10.54,-15.62,-11.25,-16.22,-9.068,-14.84,-9.883,-10.77,-8.114,0,0,0,0,0,0,0,0,0,0,0,0,0,0,0,0,
572,-39.18,-46.78,-20.1,-12.86,-19.17,-17.8,-15.87,-8.717,-13.69,-9.955,-15.73,-4.877,-13.64,-6.942,-9.55,-2.755,0,0,0,0,0,0,0,0,0,0,0,0,0,0,0,0,
573,-41.72,-43.28,-20.94,-11.61,-19.42,-18.67,-16.96,-8.17,-14.33,-9.857,-16.82,-5.035,-14.27,-6.721,-11.58,-1.933,0,0,0,0,0,0,0,0,0,0,0,0,0,0,0,0,
574,-46.63,-42.72,-23.81,-17.12,-21.91,-21.33,-19.47,-11.23,-17.04,-11.58,-19.87,-9.303,-18.14,-10.25,-17.7,-6.433,0,0,0,0,0,0,0,0,0,0,0,0,0,0,0,0,
575,-41.4,-44.35,-24.18,-18.98,-22.55,-21.77,-20.38,-14.11,-19.37,-13.46,-20.01,-10.29,-20.1,-12.43,-19.53,-10.39,0,0,0,0,0,0,0,0,0,0,0,0,0,0,0,0,
576,-39.33,-46.09,-21.47,-14.17,-20.65,-21.38,-16.65,-15.07,-18.28,-14.11,-15.82,-9.972,-17.08,-13.55,-15.67,-13.01,0,0,0,0,0,0,0,0,0,0,0,0,0,0,0,0,
577,-45.51,-51.27,-20.43,-15.43,-19.73,-23.7,-12.9,-16.26,-16.67,-15.77,-13.15,-14.18,-15.52,-18.54,-12.87,-16.7,0,0,0,0,0,0,0,0,0,0,0,0,0,0,0,0,
578,-47.24,-53.21,-21.72,-19.61,-20.84,-25.69,-12.83,-16.86,-18.13,-19.49,-13.29,-15.78,-16.11,-21.52,-10.59,-17.14,0,0,0,0,0,0,0,0,0,0,0,0,0,0,0,0,
579,-46.07,-48.34,-23.41,-19.06,-22.81,-25.92,-14.37,-15.76,-19.6,-21.29,-14.03,-12.08,-15.63,-18.15,-8.192,-12.78,0,0,0,0,0,0,0,0,0,0,0,0,0,0,0,0,
580,-48.88,-51.22,-26.09,-20.79,-25.09,-27.79,-16.84,-14.7,-20.69,-20.62,-16.45,-10.86,-17.36,-16.02,-9.642,-9.104,0,0,0,0,0,0,0,0,0,0,0,0,0,0,0,0,
581,-49.25,-55.21,-27.61,-21.66,-26.01,-29.2,-18.87,-13.87,-22.89,-20.46,-18.86,-10.37,-20.04,-16.28,-12.54,-7.535,0,0,0,0,0,0,0,0,0,0,0,0,0,0,0,0,
582,-46.33,-48.48,-28.58,-17.21,-27.65,-28.57,-21.4,-13.61,-24.18,-19.75,-21.87,-9.347,-22.23,-16.57,-15.77,-8.582,0,0,0,0,0,0,0,0,0,0,0,0,0,0,0,0,
583,-49.87,-49.32,-34.14,-18.21,-33.39,-30.3,-27.78,-14.66,-27.65,-19.35,-28.21,-12.1,-27.1,-19.15,-20.24,-11.73,0,0,0,0,0,0,0,0,0,0,0,0,0,0,0,0,
584,-53.08,-54.49,-37.17,-20.32,-35.33,-30.51,-30.11,-13.52,-32.14,-20.25,-29.51,-12.64,-27.8,-18.76,-19.46,-11.17,0,0,0,0,0,0,0,0,0,0,0,0,0,0,0,0,
585,-45.15,-43.62,-30.11,-15.1,-28.32,-23.38,-23.45,-10.72,-27.91,-17.65,-22.52,-10.78,-20.68,-14.05,-14.98,-9.95,0,0,0,0,0,0,0,0,0,0,0,0,0,0,0,0,
586,-38.43,-33.68,-22.87,-15.44,-21.99,-16.71,-18.41,-12.51,-19.11,-13.56,-18.0,-15.35,-15.93,-14.36,-15.16,-13.73,0,0,0,0,0,0,0,0,0,0,0,0,0,0,0,0,
587,-36.76,-37.28,-19.85,-19.63,-19.03,-14.74,-16.8,-15.95,-14.91,-13.44,-16.41,-19.48,-14.69,-16.94,-15.31,-15.31,0,0,0,0,0,0,0,0,0,0,0,0,0,0,0,0,
588,-29.79,-37.91,-15.13,-13.69,-14.36,-11.66,-12.33,-14.52,-10.46,-12.32,-11.98,-16.28,-11.04,-14.3,-11.24,-12.27,0,0,0,0,0,0,0,0,0,0,0,0,0,0,0,0,
589,-28.18,-34.75,-12.47,-8.879,-12.43,-10.18,-9.57,-13.05,-5.435,-8.996,-9.59,-14.56,-8.525,-11.96,-9.684,-10.84,0,0,0,0,0,0,0,0,0,0,0,0,0,0,0,0,
590,-35.24,-36.72,-15.06,-13.53,-15.45,-14.22,-11.69,-16.16,-6.81,-10.01,-12.08,-16.42,-10.44,-12.72,-12.31,-10.56,0,0,0,0,0,0,0,0,0,0,0,0,0,0,0,0,
591,-33.52,-38.3,-17.6,-16.2,-17.53,-17.61,-14.55,-19.38,-11.36,-12.42,-15.13,-16.84,-13.92,-13.04,-15.39,-11.45,0,0,0,0,0,0,0,0,0,0,0,0,0,0,0,0,
592,-30.53,-38.36,-20.02,-17.63,-19.19,-19.61,-17.39,-21.34,-14.44,-12.92,-17.67,-18.16,-17.89,-16.66,-19.12,-16.74,0,0,0,0,0,0,0,0,0,0,0,0,0,0,0,0,
593,-40.93,-44.58,-24.43,-23.88,-23.69,-25.42,-20.48,-24.2,-19.12,-18.14,-20.65,-21.12,-22.64,-25.36,-23.07,-23.08,0,0,0,0,0,0,0,0,0,0,0,0,0,0,0,0,
594,-50.31,-51.16,-27.69,-27.61,-27.5,-31.01,-22.0,-24.72,-24.94,-26.22,-22.59,-21.05,-25.64,-30.46,-23.59,-24.72,0,0,0,0,0,0,0,0,0,0,0,0,0,0,0,0,
595,-49.24,-50.35,-27.97,-24.84,-27.41,-31.31,-21.79,-21.74,-27.13,-27.32,-22.36,-17.9,-25.25,-28.3,-21.03,-21.3,0,0,0,0,0,0,0,0,0,0,0,0,0,0,0,0,
596,-48.68,-53.79,-26.74,-22.65,-25.57,-29.85,-21.13,-19.83,-25.89,-24.09,-20.85,-15.01,-23.11,-24.42,-18.72,-16.3,0,0,0,0,0,0,0,0,0,0,0,0,0,0,0,0,
597,-49.43,-60.15,-25.05,-24.55,-24.19,-28.44,-19.77,-18.48,-23.56,-22.64,-18.76,-12.54,-19.45,-19.94,-15.41,-11.67,0,0,0,0,0,0,0,0,0,0,0,0,0,0,0,0,
598,-44.81,-50.07,-23.77,-23.68,-23.02,-26.0,-17.97,-16.0,-20.42,-19.8,-17.43,-11.3,-15.62,-14.79,-12.1,-9.216,0,0,0,0,0,0,0,0,0,0,0,0,0,0,0,0,
599,-41.16,-36.57,-23.99,-17.63,-22.68,-25.18,-18.78,-16.25,-18.59,-16.46,-19.29,-14.15,-16.31,-14.63,-14.28,-12.12,0,0,0,0,0,0,0,0,0,0,0,0,0,0,0,0,
600,-44.72,-41.98,-26.6,-17.39,-25.15,-27.11,-22.66,-18.77,-20.54,-17.96,-23.15,-18.85,-20.79,-19.3,-19.18,-17.9,0,0,0,0,0,0,0,0,0,0,0,0,0,0,0,0,
601,-49.35,-50.18,-30.27,-24.46,-28.84,-29.22,-24.99,-19.43,-24.12,-21.13,-24.88,-19.81,-23.33,-21.4,-20.44,-20.17,0,0,0,0,0,0,0,0,0,0,0,0,0,0,0,0,
602,-50.01,-47.4,-30.68,-25.92,-29.1,-29.34,-23.64,-18.79,-25.26,-21.28,-23.6,-17.02,-22.09,-19.52,-19.13,-18.31,0,0,0,0,0,0,0,0,0,0,0,0,0,0,0,0,
603,-48.61,-46.11,-28.39,-22.45,-27.2,-27.34,-22.2,-18.48,-23.91,-20.31,-22.43,-15.54,-19.6,-18.04,-17.13,-16.11,0,0,0,0,0,0,0,0,0,0,0,0,0,0,0,0,
604,-47.67,-48.8,-28.08,-22.53,-27.23,-25.62,-22.72,-19.02,-23.23,-20.03,-22.77,-16.94,-17.77,-17.7,-14.38,-15.07,0,0,0,0,0,0,0,0,0,0,0,0,0,0,0,0,
605,-46.89,-47.68,-26.49,-22.39,-25.42,-24.53,-21.4,-19.46,-21.79,-18.95,-21.15,-17.12,-14.72,-15.48,-11.35,-13.2,0,0,0,0,0,0,0,0,0,0,0,0,0,0,0,0,
606,-43.93,-42.93,-21.53,-19.72,-20.72,-22.22,-17.19,-17.67,-16.79,-16.13,-16.82,-15.34,-10.23,-12.21,-8.106,-11.36,0,0,0,0,0,0,0,0,0,0,0,0,0,0,0,0,
607,-40.11,-37.85,-20.46,-18.41,-20.2,-21.1,-14.96,-15.8,-13.11,-13.62,-14.42,-15.56,-8.795,-12.06,-6.741,-13.22,0,0,0,0,0,0,0,0,0,0,0,0,0,0,0,0,
608,-38.39,-37.13,-21.4,-17.64,-20.69,-21.51,-13.4,-14.95,-13.78,-13.35,-12.77,-15.1,-9.093,-12.74,-6.635,-13.36,0,0,0,0,0,0,0,0,0,0,0,0,0,0,0,0,
609,-35.95,-39.03,-14.11,-14.93,-12.91,-17.64,-5.28,-10.4,-12.15,-12.08,-4.591,-8.037,-4.135,-7.911,-0.7648,-4.224,0,0,0,0,0,0,0,0,0,0,0,0,0,0,0,0,
610,-29.17,-31.47,-1.954,-9.485,-1.893,-10.66,6.109,-3.63,-4.72,-6.273,6.836,0.5233,2.761,-0.8933,7.593,6.372,0,0,0,0,0,0,0,0,0,0,0,0,0,0,0,0,
611,-23.91,-21.52,0.7745,-6.324,-0.4803,-10.56,6.495,-2.752,-0.2394,-2.2,6.327,1.349,-0.3257,-1.611,4.229,6.475,0,0,0,0,0,0,0,0,0,0,0,0,0,0,0,0,
612,-29.23,-28.4,-10.35,-12.48,-10.91,-19.22,-6.979,-7.696,-7.467,-7.463,-8.072,-3.355,-12.09,-8.974,-8.378,-0.983,0,0,0,0,0,0,0,0,0,0,0,0,0,0,0,0,
613,-39.44,-41.34,-22.76,-21.96,-22.02,-26.57,-19.15,-11.75,-18.58,-15.24,-19.76,-6.556,-19.32,-13.22,-16.05,-6.984,0,0,0,0,0,0,0,0,0,0,0,0,0,0,0,0,
614,-43.15,-45.74,-26.66,-26.11,-25.6,-27.6,-23.04,-13.37,-22.12,-17.01,-23.11,-9.048,-21.24,-13.99,-19.92,-10.83,0,0,0,0,0,0,0,0,0,0,0,0,0,0,0,0,
615,-43.85,-49.6,-28.3,-26.26,-26.89,-27.71,-25.87,-15.19,-22.97,-17.65,-25.68,-13.03,-24.15,-16.67,-23.97,-14.58,0,0,0,0,0,0,0,0,0,0,0,0,0,0,0,0,
616,-46.07,-49.53,-30.76,-24.57,-29.3,-30.12,-26.77,-18.26,-26.05,-21.38,-26.03,-16.63,-24.09,-20.44,-22.47,-17.11,0,0,0,0,0,0,0,0,0,0,0,0,0,0,0,0,
617,-45.97,-41.23,-28.69,-23.79,-27.98,-31.94,-22.41,-21.33,-25.98,-24.91,-21.71,-19.44,-19.34,-22.43,-16.1,-18.21,0,0,0,0,0,0,0,0,0,0,0,0,0,0,0,0,
618,-43.17,-38.12,-23.62,-23.87,-22.98,-28.84,-17.59,-21.44,-21.99,-25.49,-17.07,-20.52,-14.9,-21.13,-10.51,-18.02,0,0,0,0,0,0,0,0,0,0,0,0,0,0,0,0,
619,-38.91,-40.03,-20.38,-20.75,-19.16,-21.88,-14.78,-18.77,-17.23,-21.9,-14.6,-19.91,-13.29,-18.92,-8.118,-18.32,0,0,0,0,0,0,0,0,0,0,0,0,0,0,0,0,
620,-36.79,-39.2,-19.68,-19.6,-18.45,-19.79,-14.82,-17.92,-15.46,-18.65,-15.45,-21.94,-15.36,-20.87,-10.12,-21.91,0,0,0,0,0,0,0,0,0,0,0,0,0,0,0,0,
621,-38.44,-37.03,-18.77,-20.34,-17.91,-22.17,-16.18,-18.99,-17.69,-20.02,-16.26,-24.1,-16.67,-22.74,-12.55,-24.13,0,0,0,0,0,0,0,0,0,0,0,0,0,0,0,0,
622,-35.1,-30.71,-14.89,-15.3,-14.57,-19.2,-14.43,-18.41,-16.5,-19.34,-13.96,-21.36,-14.05,-19.62,-13.41,-22.32,0,0,0,0,0,0,0,0,0,0,0,0,0,0,0,0,
623,-28.25,-23.73,-12.87,-13.68,-12.85,-15.12,-13.96,-16.84,-13.26,-14.97,-14.53,-18.88,-13.99,-17.47,-15.89,-21.25,0,0,0,0,0,0,0,0,0,0,0,0,0,0,0,0,
624,-28.56,-25.72,-15.53,-17.92,-15.36,-16.76,-16.47,-15.62,-16.24,-14.31,-16.86,-18.7,-15.54,-16.91,-15.58,-18.17,0,0,0,0,0,0,0,0,0,0,0,0,0,0,0,0,
625,-30.34,-29.56,-16.25,-14.45,-16.16,-16.84,-15.21,-13.86,-18.12,-14.88,-14.45,-15.46,-12.42,-13.2,-10.12,-11.11,0,0,0,0,0,0,0,0,0,0,0,0,0,0,0,0,
626,-26.74,-25.26,-15.4,-10.34,-15.15,-15.17,-13.95,-11.9,-14.28,-12.21,-13.67,-11.43,-10.94,-10.65,-8.687,-7.986,0,0,0,0,0,0,0,0,0,0,0,0,0,0,0,0,
627,-26.24,-22.4,-18.85,-14.72,-17.85,-18.82,-17.82,-11.19,-15.06,-11.71,-18.27,-11.34,-16.19,-13.01,-14.22,-9.593,0,0,0,0,0,0,0,0,0,0,0,0,0,0,0,0,
628,-33.64,-29.53,-23.01,-16.5,-21.72,-22.64,-21.2,-11.42,-20.91,-15.17,-21.32,-12.08,-22.01,-16.38,-19.58,-10.96,0,0,0,0,0,0,0,0,0,0,0,0,0,0,0,0,
629,-38.54,-32.18,-23.53,-14.0,-22.43,-22.33,-22.24,-10.52,-23.63,-17.91,-21.94,-10.7,-24.23,-17.49,-21.06,-11.9,0,0,0,0,0,0,0,0,0,0,0,0,0,0,0,0,
630,-33.64,-24.1,-23.44,-13.48,-22.29,-23.47,-23.26,-9.621,-23.85,-19.16,-23.01,-10.03,-24.11,-17.1,-20.96,-12.59,0,0,0,0,0,0,0,0,0,0,0,0,0,0,0,0,
631,-28.82,-23.43,-23.77,-13.67,-22.5,-25.1,-22.88,-10.75,-24.48,-20.06,-22.51,-11.08,-21.76,-16.22,-19.35,-12.67,0,0,0,0,0,0,0,0,0,0,0,0,0,0,0,0,
632,-29.29,-27.68,-21.19,-14.4,-20.14,-21.62,-19.66,-10.46,-22.48,-18.25,-18.9,-10.66,-15.58,-12.56,-12.36,-11.02,0,0,0,0,0,0,0,0,0,0,0,0,0,0,0,0,
633,-28.46,-22.15,-17.11,-13.55,-16.73,-17.16,-15.09,-8.015,-16.71,-13.62,-14.53,-9.437,-8.371,-6.624,-3.188,-7.812,0,0,0,0,0,0,0,0,0,0,0,0,0,0,0,0,
634,-27.74,-19.28,-15.84,-9.604,-15.87,-16.48,-12.61,-7.554,-12.79,-10.65,-12.24,-10.56,-5.451,-4.653,0.1172,-8.369,0,0,0,0,0,0,0,0,0,0,0,0,0,0,0,0,
635,-27.35,-21.0,-15.15,-8.929,-14.65,-16.0,-12.65,-8.585,-12.47,-10.82,-12.14,-13.1,-6.045,-8.129,-2.047,-14.06,0,0,0,0,0,0,0,0,0,0,0,0,0,0,0,0,
636,-24.61,-14.95,-13.17,-12.49,-12.25,-14.92,-13.1,-9.705,-11.98,-12.41,-13.31,-15.58,-7.742,-12.8,-6.07,-19.42,0,0,0,0,0,0,0,0,0,0,0,0,0,0,0,0,
637,-26.37,-16.64,-13.74,-14.98,-13.26,-15.63,-14.24,-11.29,-13.07,-14.13,-14.89,-16.76,-11.34,-15.81,-11.28,-21.06,0,0,0,0,0,0,0,0,0,0,0,0,0,0,0,0,
638,-29.4,-29.23,-15.16,-15.16,-15.04,-15.57,-14.69,-11.7,-16.04,-14.21,-14.53,-14.59,-14.28,-15.77,-14.62,-18.81,0,0,0,0,0,0,0,0,0,0,0,0,0,0,0,0,
639,-25.59,-26.47,-13.1,-13.88,-12.9,-14.57,-12.01,-11.35,-15.1,-13.71,-11.63,-10.79,-12.95,-12.9,-13.8,-13.58,0,0,0,0,0,0,0,0,0,0,0,0,0,0,0,0,
640,-22.73,-13.7,-10.85,-12.57,-10.38,-15.58,-8.873,-11.04,-11.86,-14.5,-9.122,-7.739,-9.697,-8.995,-11.08,-7.851,0,0,0,0,0,0,0,0,0,0,0,0,0,0,0,0,
641,-23.42,-12.37,-10.68,-11.31,-9.772,-15.67,-7.833,-9.02,-10.74,-13.49,-8.35,-4.642,-7.949,-5.669,-8.607,-4.026,0,0,0,0,0,0,0,0,0,0,0,0,0,0,0,0,
642,-21.1,-13.55,-9.924,-8.759,-9.26,-12.45,-7.794,-6.488,-9.497,-10.28,-8.369,-2.051,-7.652,-4.418,-7.235,-1.855,0,0,0,0,0,0,0,0,0,0,0,0,0,0,0,0,
643,-18.7,-12.33,-9.543,-8.626,-9.61,-10.34,-8.513,-5.567,-8.968,-9.433,-9.109,-1.982,-8.816,-6.012,-8.19,-0.6592,0,0,0,0,0,0,0,0,0,0,0,0,0,0,0,0,
644,-20.07,-15.79,-11.11,-11.6,-10.66,-12.16,-10.19,-6.532,-11.48,-11.38,-10.36,-4.41,-11.66,-9.726,-11.38,-2.515,0,0,0,0,0,0,0,0,0,0,0,0,0,0,0,0,
645,-21.41,-13.07,-12.49,-10.45,-11.13,-15.58,-12.03,-9.178,-13.58,-14.1,-11.73,-7.217,-14.24,-13.36,-14.57,-7.106,0,0,0,0,0,0,0,0,0,0,0,0,0,0,0,0,
646,-19.32,-7.191,-13.48,-6.987,-12.48,-17.2,-13.89,-10.06,-14.39,-16.1,-13.74,-7.928,-15.25,-14.19,-15.75,-10.31,0,0,0,0,0,0,0,0,0,0,0,0,0,0,0,0,
647,-16.59,-14.73,-14.59,-8.433,-13.86,-15.15,-14.69,-7.346,-15.02,-14.6,-14.38,-5.672,-13.61,-10.84,-13.26,-10.34,0,0,0,0,0,0,0,0,0,0,0,0,0,0,0,0,
648,-16.33,-17.71,-13.45,-9.629,-12.52,-11.44,-12.11,-5.23,-12.59,-10.34,-11.25,-2.545,-7.991,-4.9,-7.043,-7.376,0,0,0,0,0,0,0,0,0,0,0,0,0,0,0,0,
649,-15.72,-4.905,-10.58,-6.947,-10.05,-10.17,-7.463,-4.669,-8.165,-7.632,-7.238,-2.281,-2.281,-1.392,-1.253,-3.946,0,0,0,0,0,0,0,0,0,0,0,0,0,0,0,0,
650,-13.15,-0.0842,-8.571,-6.465,-8.276,-11.26,-4.157,-3.379,-6.044,-7.8,-4.49,-4.736,-0.2047,-3.156,1.949,-4.008,0,0,0,0,0,0,0,0,0,0,0,0,0,0,0,0,
651,-10.52,-4.899,-7.023,-7.027,-6.702,-12.01,-1.981,-3.915,-5.294,-9.775,-1.812,-5.979,0.9277,-6.202,4.099,-6.057,0,0,0,0,0,0,0,0,0,0,0,0,0,0,0,0,
652,-10.09,-7.562,-6.221,-6.86,-6.009,-12.52,-0.6371,-7.556,-5.118,-11.81,-0.7782,-6.538,0.96,-7.765,2.737,-8.133,0,0,0,0,0,0,0,0,0,0,0,0,0,0,0,0,
653,-14.33,-12.04,-6.842,-10.84,-6.116,-13.04,-1.697,-11.25,-7.114,-12.53,-2.283,-9.78,-2.956,-10.3,-3.124,-11.93,0,0,0,0,0,0,0,0,0,0,0,0,0,0,0,0,
654,-17.44,-12.4,-7.18,-14.14,-6.397,-13.43,-3.757,-14.46,-9.478,-14.23,-3.94,-13.54,-6.918,-13.53,-6.725,-14.66,0,0,0,0,0,0,0,0,0,0,0,0,0,0,0,0,
655,-12.97,-5.074,-7.732,-10.4,-7.793,-14.85,-5.252,-16.02,-10.12,-17.55,-5.572,-13.66,-7.153,-14.33,-5.901,-13.33,0,0,0,0,0,0,0,0,0,0,0,0,0,0,0,0,
656,-8.604,-1.46,-10.38,-6.021,-10.39,-15.68,-7.968,-12.98,-10.53,-17.99,-8.548,-10.77,-6.824,-12.77,-6.538,-11.52,0,0,0,0,0,0,0,0,0,0,0,0,0,0,0,0,
657,-9.054,-2.628,-12.92,-4.788,-12.48,-13.1,-10.71,-7.812,-11.64,-14.54,-11.18,-7.611,-7.416,-10.17,-8.634,-10.23,0,0,0,0,0,0,0,0,0,0,0,0,0,0,0,0,
658,-7.527,-2.208,-12.07,-3.637,-11.48,-8.178,-9.91,-4.158,-11.25,-10.24,-10.41,-4.78,-6.757,-7.001,-7.664,-6.846,0,0,0,0,0,0,0,0,0,0,0,0,0,0,0,0,
659,-3.62,2.065,-9.995,-2.602,-8.934,-4.427,-8.499,-1.413,-9.168,-7.254,-8.511,-2.27,-6.965,-5.635,-6.882,-4.42,0,0,0,0,0,0,0,0,0,0,0,0,0,0,0,0,
660,-3.387,4.185,-11.43,-1.638,-10.69,-5.357,-10.7,0.4441,-9.64,-7.806,-10.4,-0.9732,-10.26,-7.331,-9.733,-6.319,0,0,0,0,0,0,0,0,0,0,0,0,0,0,0,0,
661,-8.485,-2.428,-15.19,-0.5822,-15.1,-10.57,-13.66,0.6325,-13.27,-10.89,-13.99,-0.3328,-12.8,-8.71,-11.65,-8.473,0,0,0,0,0,0,0,0,0,0,0,0,0,0,0,0,
662,-14.75,-6.039,-17.38,-1.574,-16.65,-14.57,-15.01,0.4735,-15.92,-12.48,-15.45,1.127,-13.23,-8.092,-11.04,-7.845,0,0,0,0,0,0,0,0,0,0,0,0,0,0,0,0,
663,-15.55,-1.465,-17.83,-4.099,-16.75,-14.82,-15.68,0.3199,-16.93,-12.45,-15.64,1.572,-14.12,-8.016,-10.48,-7.02,0,0,0,0,0,0,0,0,0,0,0,0,0,0,0,0,
664,-10.87,-2.727,-17.06,-6.431,-16.32,-14.49,-15.05,-2.819,-16.89,-13.16,-15.33,-2.469,-14.63,-9.597,-9.723,-8.177,0,0,0,0,0,0,0,0,0,0,0,0,0,0,0,0,
665,-7.712,-6.422,-16.07,-7.444,-14.84,-15.1,-13.7,-9.067,-15.69,-15.63,-14.26,-8.427,-13.22,-10.95,-8.44,-10.76,0,0,0,0,0,0,0,0,0,0,0,0,0,0,0,0,
666,-6.343,-1.036,-14.31,-4.446,-12.88,-13.39,-11.28,-12.17,-14.28,-17.19,-10.91,-9.966,-9.419,-9.38,-5.456,-11.37,0,0,0,0,0,0,0,0,0,0,0,0,0,0,0,0,
667,-1.357,7.13,-8.757,0.1787,-8.09,-8.126,-6.17,-11.39,-10.43,-13.4,-5.127,-8.71,-4.114,-5.974,-1.316,-9.211,0,0,0,0,0,0,0,0,0,0,0,0,0,0,0,0,
668,3.23,9.496,-4.052,-1.252,-3.959,-5.103,-3.39,-13.88,-4.809,-8.865,-3.104,-10.62,-2.424,-6.12,-1.492,-9.391,0,0,0,0,0,0,0,0,0,0,0,0,0,0,0,0,
669,1.019,4.779,-6.38,-7.519,-6.532,-8.272,-6.176,-18.97,-4.839,-11.63,-6.647,-13.13,-5.684,-9.657,-4.695,-11.0,0,0,0,0,0,0,0,0,0,0,0,0,0,0,0,0,
670,-1.972,-0.1505,-10.1,-9.711,-9.951,-11.86,-8.768,-19.23,-9.484,-16.47,-9.104,-10.23,-8.541,-10.27,-5.729,-8.963,0,0,0,0,0,0,0,0,0,0,0,0,0,0,0,0,
671,-0.6011,1.355,-10.11,-7.281,-9.431,-10.45,-8.945,-12.67,-10.54,-14.56,-9.03,-3.55,-9.728,-7.457,-7.586,-7.45,0,0,0,0,0,0,0,0,0,0,0,0,0,0,0,0,
672,-1.175,1.917,-10.57,-6.69,-10.18,-8.256,-10.57,-3.664,-9.636,-9.391,-10.89,0.5232,-12.56,-6.49,-11.79,-9.717,0,0,0,0,0,0,0,0,0,0,0,0,0,0,0,0,
673,-4.988,-2.634,-13.8,-7.84,-13.31,-9.909,-14.46,0.7287,-12.25,-8.16,-14.95,0.1589,-16.66,-8.369,-14.43,-11.3,0,0,0,0,0,0,0,0,0,0,0,0,0,0,0,0,T1
674,-4.819,-4.076,-16.73,-6.225,-15.18,-12.31,-16.94,-0.4445,-15.68,-10.05,-16.78,-1.017,-17.94,-9.645,-14.12,-11.19,0,0,0,0,0,0,0,0,0,0,0,0,0,0,0,0,
675,-1.418,0.1736,-17.52,-4.215,-16.08,-13.42,-16.42,-1.947,-16.64,-11.53,-16.14,-2.616,-16.69,-9.628,-11.61,-10.25,0,0,0,0,0,0,0,0,0,0,0,0,0,0,0,0,
676,-1.9,3.9,-19.07,-4.834,-18.58,-16.62,-17.47,-4.492,-18.29,-13.62,-18.52,-6.504,-18.78,-10.38,-10.53,-7.782,0,0,0,0,0,0,0,0,0,0,0,0,0,0,0,0,
677,-5.268,0.9963,-23.02,-3.863,-22.33,-21.03,-21.26,-9.877,-23.06,-17.43,-22.42,-10.15,-23.47,-12.2,-12.87,-6.331,0,0,0,0,0,0,0,0,0,0,0,0,0,0,0,0,
678,-6.69,-4.908,-24.41,-3.296,-23.24,-22.33,-21.41,-14.67,-26.64,-20.8,-21.12,-12.65,-23.43,-14.4,-13.83,-7.185,0,0,0,0,0,0,0,0,0,0,0,0,0,0,0,0,
679,-7.338,-4.967,-20.45,-8.47,-19.44,-21.23,-17.23,-18.38,-24.41,-22.5,-17.0,-14.53,-19.39,-15.73,-11.57,-6.992,0,0,0,0,0,0,0,0,0,0,0,0,0,0,0,0,
680,-6.721,-2.377,-15.13,-9.936,-14.07,-18.48,-13.07,-20.79,-18.86,-22.03,-13.73,-12.32,-14.88,-12.92,-7.002,-3.201,0,0,0,0,0,0,0,0,0,0,0,0,0,0,0,0,
681,0.0526,0.3983,-9.534,-3.416,-8.711,-11.9,-7.742,-19.49,-12.9,-17.77,-8.033,-7.738,-6.769,-5.233,1.167,1.545,0,0,0,0,0,0,0,0,0,0,0,0,0,0,0,0,
682,9.3,8.366,-3.068,-2.243,-3.478,-4.952,-2.121,-16.93,-4.865,-10.56,-2.046,-6.868,1.684,0.9848,6.76,0.7897,0,0,0,0,0,0,0,0,0,0,0,0,0,0,0,0,
683,11.83,12.05,-0.4797,-4.686,-1.313,-2.555,-0.5625,-14.62,1.561,-5.384,-0.5353,-7.318,3.457,1.693,5.56,-4.1,0,0,0,0,0,0,0,0,0,0,0,0,0,0,0,0,
684,11.26,9.344,-0.5998,2.654,-0.4542,0.7678,2.038,-9.091,3.137,-2.759,2.42,-2.928,5.521,4.145,7.358,-2.678,0,0,0,0,0,0,0,0,0,0,0,0,0,0,0,0,
685,18.23,19.77,5.303,12.61,5.33,10.02,11.23,-1.574,8.234,3.715,11.43,5.217,13.45,12.41,14.41,4.906,0,0,0,0,0,0,0,0,0,0,0,0,0,0,0,0,
686,29.39,35.94,15.52,15.84,14.34,18.99,20.54,3.782,18.65,13.21,20.31,11.29,19.97,18.94,18.83,9.736,0,0,0,0,0,0,0,0,0,0,0,0,0,0,0,0,
687,35.98,35.84,22.8,19.48,21.54,24.12,25.86,7.403,25.92,19.0,25.82,12.78,23.54,21.29,21.29,11.78,0,0,0,0,0,0,0,0,0,0,0,0,0,0,0,0,
688,38.41,33.08,25.74,23.9,24.86,25.76,27.83,9.171,28.8,20.94,27.03,11.59,24.34,21.33,20.69,11.62,0,0,0,0,0,0,0,0,0,0,0,0,0,0,0,0,
689,36.88,39.26,23.3,23.57,22.4,22.23,23.8,8.217,26.57,18.75,21.83,10.34,19.28,17.36,15.05,8.646,0,0,0,0,0,0,0,0,0,0,0,0,0,0,0,0,
690,35.49,41.67,20.29,24.74,19.6,20.84,18.77,8.882,20.85,14.31,17.39,10.9,15.6,15.13,13.17,9.89,0,0,0,0,0,0,0,0,0,0,0,0,0,0,0,0,
691,41.68,41.83,21.25,29.33,20.76,24.84,16.99,12.67,19.7,15.32,16.34,12.25,14.77,18.24,13.77,13.63,0,0,0,0,0,0,0,0,0,0,0,0,0,0,0,0,
692,45.12,44.01,18.72,31.25,18.71,23.7,12.01,15.36,18.21,18.17,11.11,12.88,9.975,19.51,10.07,12.66,0,0,0,0,0,0,0,0,0,0,0,0,0,0,0,0,
693,40.64,43.5,16.07,34.34,16.23,21.88,8.563,18.23,13.68,18.16,7.885,15.61,9.407,20.55,10.57,13.4,0,0,0,0,0,0,0,0,0,0,0,0,0,0,0,0,
694,43.05,46.06,21.93,39.81,20.86,28.79,13.08,23.52,17.73,22.43,12.72,20.1,15.96,24.98,14.91,16.68,0,0,0,0,0,0,0,0,0,0,0,0,0,0,0,0,
695,49.22,50.63,24.83,40.56,23.36,33.47,14.7,26.22,24.66,27.59,14.62,20.77,17.9,25.85,13.65,14.35,0,0,0,0,0,0,0,0,0,0,0,0,0,0,0,0,
696,50.26,52.48,21.34,40.88,20.95,33.2,12.41,24.7,24.12,26.57,12.67,18.07,17.54,23.44,13.56,11.34,0,0,0,0,0,0,0,0,0,0,0,0,0,0,0,0,
697,54.68,59.84,24.65,45.52,24.24,37.99,17.37,24.49,26.19,27.02,17.18,17.44,22.39,24.75,19.45,13.33,0,0,0,0,0,0,0,0,0,0,0,0,0,0,0,0,
698,57.91,65.1,32.67,46.8,31.53,43.35,27.1,26.76,33.97,31.81,26.83,19.71,29.12,28.68,24.75,16.38,0,0,0,0,0,0,0,0,0,0,0,0,0,0,0,0,
699,54.01,58.34,36.89,43.26,35.22,43.08,33.53,26.69,39.23,34.78,33.83,21.12,33.68,30.32,27.24,18.2,0,0,0,0,0,0,0,0,0,0,0,0,0,0,0,0,
700,56.06,55.85,39.0,41.67,36.93,41.95,36.26,24.72,41.4,35.22,36.2,21.43,34.65,30.14,27.98,19.7,0,0,0,0,0,0,0,0,0,0,0,0,0,0,0,0,
701,62.08,60.7,41.13,42.44,39.67,42.19,38.16,25.35,42.21,35.15,37.61,23.84,34.59,32.38,29.29,23.18,0,0,0,0,0,0,0,0,0,0,0,0,0,0,0,0,
702,59.61,59.51,42.54,41.46,41.22,41.56,38.69,25.26,41.75,35.12,38.27,24.25,34.55,33.81,30.13,25.8,0,0,0,0,0,0,0,0,0,0,0,0,0,0,0,0,
703,55.62,56.4,42.58,39.66,40.23,40.61,36.45,21.75,40.01,34.07,36.11,19.97,32.31,30.43,28.56,23.72,0,0,0,0,0,0,0,0,0,0,0,0,0,0,0,0,
704,58.8,55.82,43.4,39.85,41.24,42.55,37.04,21.03,39.51,32.25,36.71,19.14,33.85,29.95,31.95,24.25,0,0,0,0,0,0,0,0,0,0,0,0,0,0,0,0,
705,62.88,56.41,45.25,37.34,43.61,45.13,39.78,21.74,43.01,32.41,39.05,20.27,38.47,32.53,37.55,27.02,0,0,0,0,0,0,0,0,0,0,0,0,0,0,0,0,
706,61.03,60.96,41.47,31.38,39.51,42.72,35.17,18.14,42.96,32.27,34.28,16.8,36.2,30.68,35.07,24.32,0,0,0,0,0,0,0,0,0,0,0,0,0,0,0,0,
707,56.9,63.27,34.14,32.74,32.6,40.04,30.05,17.02,37.62,30.93,30.03,17.9,34.64,32.24,34.34,25.61,0,0,0,0,0,0,0,0,0,0,0,0,0,0,0,0,
708,55.74,60.57,33.46,39.84,32.25,42.68,33.78,22.18,39.03,33.94,33.86,24.04,39.79,38.76,39.18,32.8,0,0,0,0,0,0,0,0,0,0,0,0,0,0,0,0,
709,55.38,60.53,37.25,40.95,35.87,44.06,36.32,25.51,43.62,37.54,35.6,22.75,38.98,37.25,36.82,31.73,0,0,0,0,0,0,0,0,0,0,0,0,0,0,0,0,
710,56.72,61.88,41.55,41.17,40.48,43.05,35.13,25.96,41.77,35.27,34.76,19.66,34.08,32.32,32.93,27.79,0,0,0,0,0,0,0,0,0,0,0,0,0,0,0,0,
711,64.79,64.96,49.33,45.99,47.58,45.81,38.05,27.73,41.98,33.97,37.72,22.6,34.84,33.06,35.08,29.93,0,0,0,0,0,0,0,0,0,0,0,0,0,0,0,0,
712,73.29,71.25,54.22,44.58,51.57,47.01,39.16,27.8,44.61,35.3,37.57,23.27,34.01,32.12,34.26,30.11,0,0,0,0,0,0,0,0,0,0,0,0,0,0,0,0,
713,73.57,69.2,52.45,35.84,50.54,42.93,36.13,25.72,41.21,32.03,34.73,21.36,30.97,29.63,32.39,29.3,0,0,0,0,0,0,0,0,0,0,0,0,0,0,0,0,
714,71.43,61.45,54.16,32.44,52.36,42.77,38.07,26.9,39.86,29.56,37.77,22.74,33.06,31.69,34.81,31.65,0,0,0,0,0,0,0,0,0,0,0,0,0,0,0,0,
715,73.14,62.8,58.9,35.22,56.38,46.67,41.68,29.1,43.84,32.77,40.89,22.84,34.24,31.29,34.23,29.09,0,0,0,0,0,0,0,0,0,0,0,0,0,0,0,0,
716,72.83,64.75,58.79,35.89,56.59,46.19,40.69,26.62,43.94,32.66,39.58,19.12,31.93,25.67,30.59,22.63,0,0,0,0,0,0,0,0,0,0,0,0,0,0,0,0,
717,67.63,57.24,56.85,32.89,54.66,42.8,39.83,22.19,42.12,27.85,39.21,16.09,31.55,23.11,29.23,20.81,0,0,0,0,0,0,0,0,0,0,0,0,0,0,0,0,
718,62.52,51.82,53.42,28.67,51.01,39.63,38.85,19.74,41.27,25.22,38.22,15.81,30.48,24.92,28.63,22.02,0,0,0,0,0,0,0,0,0,0,0,0,0,0,0,0,
719,58.51,53.98,48.57,25.92,46.58,36.88,36.43,18.95,38.59,25.35,36.37,18.01,28.96,27.16,29.56,23.92,0,0,0,0,0,0,0,0,0,0,0,0,0,0,0,0,
720,55.81,54.76,49.36,25.52,46.82,37.14,37.94,19.48,38.0,27.51,38.04,20.93,31.14,29.36,32.9,27.15,0,0,0,0,0,0,0,0,0,0,0,0,0,0,0,0,
721,55.55,50.01,50.47,23.55,47.46,37.03,39.75,19.63,39.23,29.64,38.42,22.32,32.95,30.91,34.27,28.21,0,0,0,0,0,0,0,0,0,0,0,0,0,0,0,0,
722,53.9,44.27,45.81,20.31,43.55,33.8,36.83,18.11,37.6,28.64,35.57,22.56,33.09,31.59,33.47,27.86,0,0,0,0,0,0,0,0,0,0,0,0,0,0,0,0,
723,53.02,43.63,46.49,21.66,44.05,36.42,37.74,18.61,38.0,29.33,37.77,24.75,37.73,35.99,36.85,33.61,0,0,0,0,0,0,0,0,0,0,0,0,0,0,0,0,
724,60.63,51.83,56.31,27.13,53.46,48.04,46.51,23.97,45.93,36.59,46.41,31.22,48.34,46.26,46.59,44.68,0,0,0,0,0,0,0,0,0,0,0,0,0,0,0,0,
725,71.1,64.71,64.37,31.0,61.81,56.95,53.07,28.77,57.52,45.09,52.51,35.55,56.51,52.12,52.76,49.16,0,0,0,0,0,0,0,0,0,0,0,0,0,0,0,0,
726,72.56,67.53,64.64,29.16,61.57,55.07,51.57,25.97,62.02,46.15,50.73,30.99,54.25,46.59,48.94,43.87,0,0,0,0,0,0,0,0,0,0,0,0,0,0,0,0,
727,66.05,55.43,60.87,22.86,57.72,48.3,48.52,20.51,56.43,40.07,47.47,26.06,49.09,41.02,45.76,39.31,0,0,0,0,0,0,0,0,0,0,0,0,0,0,0,0,
728,59.41,45.37,58.78,20.05,56.48,44.44,47.85,21.93,52.29,36.05,47.13,27.32,48.26,40.79,45.08,37.45,0,0,0,0,0,0,0,0,0,0,0,0,0,0,0,0,
729,54.93,44.7,56.98,23.67,54.73,42.59,44.92,26.92,51.19,36.07,44.11,27.64,43.73,37.57,37.33,33.03,0,0,0,0,0,0,0,0,0,0,0,0,0,0,0,0,
730,52.49,43.37,53.69,27.68,51.77,41.03,41.34,28.81,46.24,35.17,40.55,26.7,37.12,34.34,31.62,31.47,0,0,0,0,0,0,0,0,0,0,0,0,0,0,0,0,
731,52.51,43.35,52.56,29.75,50.97,41.03,41.51,29.74,43.65,34.99,41.11,27.76,37.22,35.7,35.51,33.73,0,0,0,0,0,0,0,0,0,0,0,0,0,0,0,0,
732,52.31,48.83,51.06,31.85,48.2,40.34,40.67,30.82,43.49,35.9,39.75,26.25,37.67,34.67,36.94,31.62,0,0,0,0,0,0,0,0,0,0,0,0,0,0,0,0,
733,51.3,50.91,47.41,33.65,44.12,38.67,37.9,29.87,38.8,34.05,37.19,22.92,35.36,31.28,34.96,27.96,0,0,0,0,0,0,0,0,0,0,0,0,0,0,0,0,
734,52.14,48.34,46.43,33.16,44.16,38.11,36.03,26.7,36.13,31.18,36.28,20.82,33.8,28.87,34.51,25.65,0,0,0,0,0,0,0,0,0,0,0,0,0,0,0,0,
735,50.89,46.24,44.37,29.78,42.34,35.61,31.2,22.08,35.67,28.37,30.92,17.53,29.62,25.04,30.19,20.84,0,0,0,0,0,0,0,0,0,0,0,0,0,0,0,0,
736,44.87,43.25,39.86,27.33,37.68,31.78,27.14,18.91,31.06,24.92,26.53,15.96,26.71,23.29,26.38,19.59,0,0,0,0,0,0,0,0,0,0,0,0,0,0,0,0,
737,42.58,41.42,43.07,28.39,40.7,33.48,32.21,19.39,30.66,25.18,32.39,19.67,32.11,27.68,30.76,25.63,0,0,0,0,0,0,0,0,0,0,0,0,0,0,0,0,
738,48.49,43.93,53.06,29.75,50.22,40.38,41.02,21.25,38.68,30.8,40.89,23.53,39.36,33.42,36.11,29.95,0,0,0,0,0,0,0,0,0,0,0,0,0,0,0,0,
739,54.48,47.78,58.31,29.8,55.87,45.2,44.97,22.13,45.39,35.94,44.05,23.58,41.5,35.3,36.14,29.33,0,0,0,0,0,0,0,0,0,0,0,0,0,0,0,0,
740,54.99,51.01,58.45,29.43,56.36,46.02,45.83,22.03,47.19,36.78,45.28,22.73,41.82,34.6,35.52,29.25,0,0,0,0,0,0,0,0,0,0,0,0,0,0,0,0,
741,55.91,52.04,60.08,27.95,57.1,47.22,48.26,22.09,48.63,37.05,48.03,23.45,43.79,35.47,36.75,30.86,0,0,0,0,0,0,0,0,0,0,0,0,0,0,0,0,
742,59.38,49.13,61.15,26.07,57.67,48.14,49.44,22.02,49.52,38.36,48.23,23.04,43.33,35.67,34.69,29.58,0,0,0,0,0,0,0,0,0,0,0,0,0,0,0,0,
743,57.13,46.57,56.81,24.73,54.02,44.64,44.67,19.76,45.24,35.86,42.73,20.27,37.83,31.43,29.1,25.16,0,0,0,0,0,0,0,0,0,0,0,0,0,0,0,0,
744,51.38,47.27,51.86,22.56,49.45,40.39,38.81,17.06,38.8,31.07,37.73,18.69,32.91,27.39,26.27,22.99,0,0,0,0,0,0,0,0,0,0,0,0,0,0,0,0,
745,50.29,46.01,49.82,18.86,46.83,37.76,36.08,16.82,36.09,28.87,35.72,18.37,30.34,26.48,25.44,22.88,0,0,0,0,0,0,0,0,0,0,0,0,0,0,0,0,
746,46.7,39.29,44.71,14.09,41.52,32.49,32.0,16.43,33.01,26.09,31.31,17.0,27.2,25.72,23.86,22.15,0,0,0,0,0,0,0,0,0,0,0,0,0,0,0,0,
747,37.73,32.6,36.32,10.2,34.2,26.78,26.62,14.48,26.68,21.98,26.12,16.69,25.21,24.91,24.23,22.86,0,0,0,0,0,0,0,0,0,0,0,0,0,0,0,0,
748,33.04,32.24,30.35,10.36,29.22,24.72,23.38,14.67,22.36,20.38,23.48,18.95,24.5,24.72,24.97,24.52,0,0,0,0,0,0,0,0,0,0,0,0,0,0,0,0,
749,31.38,33.34,25.5,12.97,24.38,23.47,20.07,16.57,20.86,20.6,19.94,20.53,22.38,24.49,22.91,24.85,0,0,0,0,0,0,0,0,0,0,0,0,0,0,0,0,
750,27.76,28.42,20.21,13.45,19.06,21.72,16.14,16.0,18.86,21.28,15.98,18.67,20.43,24.05,20.46,23.83,0,0,0,0,0,0,0,0,0,0,0,0,0,0,0,0,
751,25.55,24.25,18.75,13.41,17.67,21.02,15.31,14.57,17.48,21.61,15.99,15.72,20.99,23.04,19.68,21.08,0,0,0,0,0,0,0,0,0,0,0,0,0,0,0,0,
752,24.28,24.16,20.61,14.84,19.42,20.52,17.61,14.9,18.92,20.39,18.12,13.99,22.23,20.79,18.67,18.0,0,0,0,0,0,0,0,0,0,0,0,0,0,0,0,0,
753,20.77,18.45,22.16,13.77,21.13,19.03,20.78,13.84,20.68,18.26,20.47,12.41,22.59,17.87,17.67,17.71,0,0,0,0,0,0,0,0,0,0,0,0,0,0,0,0,
754,20.37,16.28,28.76,12.52,27.56,18.52,27.61,11.84,22.88,16.21,27.98,13.31,26.14,18.55,21.15,21.58,0,0,0,0,0,0,0,0,0,0,0,0,0,0,0,0,
755,26.33,29.29,39.65,15.83,37.59,20.12,35.42,12.29,29.09,15.96,35.77,16.05,30.88,21.35,23.92,23.61,0,0,0,0,0,0,0,0,0,0,0,0,0,0,0,0,
756,27.92,36.35,40.2,17.33,38.09,19.77,33.06,12.0,30.86,16.29,32.02,13.89,27.18,18.53,18.79,18.15,0,0,0,0,0,0,0,0,0,0,0,0,0,0,0,0,
757,25.71,31.76,37.15,17.55,36.04,20.93,30.81,12.75,25.41,15.9,31.08,14.22,26.26,19.7,22.92,20.08,0,0,0,0,0,0,0,0,0,0,0,0,0,0,0,0,
758,37.83,39.5,50.74,26.36,49.57,33.45,46.64,21.78,33.24,23.52,48.61,26.33,42.73,35.36,44.05,38.25,0,0,0,0,0,0,0,0,0,0,0,0,0,0,0,0,
759,52.94,50.28,63.64,33.92,60.76,44.96,58.58,30.37,51.33,37.9,58.39,34.76,53.55,44.65,52.04,47.56,0,0,0,0,0,0,0,0,0,0,0,0,0,0,0,0,
760,44.24,41.7,51.13,26.13,47.65,35.92,44.42,26.11,48.87,38.6,42.48,28.13,40.76,33.74,37.64,36.95,0,0,0,0,0,0,0,0,0,0,0,0,0,0,0,0,
761,27.3,29.42,31.93,14.54,30.27,20.03,27.57,17.05,31.07,24.42,26.83,20.04,27.67,22.74,26.78,27.72,0,0,0,0,0,0,0,0,0,0,0,0,0,0,0,0,
762,24.52,26.76,25.88,11.08,25.44,17.36,23.79,14.0,24.43,16.84,23.39,18.21,26.13,21.76,23.97,25.54,0,0,0,0,0,0,0,0,0,0,0,0,0,0,0,0,
763,22.61,21.32,20.67,8.998,19.68,18.57,18.11,13.22,23.23,18.8,17.17,16.38,21.56,19.4,17.26,20.82,0,0,0,0,0,0,0,0,0,0,0,0,0,0,0,0,
764,14.43,14.14,12.2,5.75,11.32,15.12,10.95,11.81,16.15,17.98,11.22,14.79,15.28,15.09,11.44,16.79,0,0,0,0,0,0,0,0,0,0,0,0,0,0,0,0,
765,13.84,17.49,13.65,5.942,13.08,16.15,13.94,12.9,13.63,16.12,15.58,17.17,16.93,16.39,13.08,18.4,0,0,0,0,0,0,0,0,0,0,0,0,0,0,0,0,
766,20.4,22.34,20.77,6.421,19.27,20.92,19.5,14.41,18.85,18.55,20.34,19.68,20.24,19.98,16.47,21.35,0,0,0,0,0,0,0,0,0,0,0,0,0,0,0,0,
767,22.36,17.83,20.92,5.082,19.29,21.25,18.7,14.01,21.62,20.07,18.25,18.74,19.85,19.98,15.66,20.45,0,0,0,0,0,0,0,0,0,0,0,0,0,0,0,0,
768,20.17,15.99,17.63,5.02,16.94,19.16,15.4,13.84,20.57,18.63,14.87,15.77,17.67,17.1,11.38,15.51,0,0,0,0,0,0,0,0,0,0,0,0,0,0,0,0,
769,16.8,19.84,13.21,4.366,12.92,15.95,10.28,12.17,16.74,16.58,9.922,11.57,12.4,12.88,6.967,9.854,0,0,0,0,0,0,0,0,0,0,0,0,0,0,0,0,
770,12.18,17.65,6.413,4.939,6.37,12.53,4.794,9.848,9.594,14.13,4.921,9.686,9.02,11.04,5.849,7.675,0,0,0,0,0,0,0,0,0,0,0,0,0,0,0,0,
771,12.12,16.07,5.169,10.9,5.201,13.72,5.672,12.32,8.388,15.15,6.22,12.35,12.54,13.62,8.087,9.24,0,0,0,0,0,0,0,0,0,0,0,0,0,0,0,0,
772,12.86,17.91,5.81,12.88,5.505,13.5,6.734,14.03,11.83,17.79,6.32,12.03,12.24,12.6,8.227,8.998,0,0,0,0,0,0,0,0,0,0,0,0,0,0,0,0,
773,5.799,10.76,-1.164,8.101,-0.9612,7.343,0.7644,10.11,5.768,13.56,0.1257,7.829,5.033,6.957,5.339,6.298,0,0,0,0,0,0,0,0,0,0,0,0,0,0,0,0,
774,0.7914,4.52,-5.646,8.684,-4.973,4.997,-2.99,8.937,-2.589,8.242,-2.042,7.881,3.145,6.54,4.52,6.553,0,0,0,0,0,0,0,0,0,0,0,0,0,0,0,0,
775,3.792,11.46,-0.4323,12.17,-0.3645,8.709,0.4786,11.98,-0.2506,10.17,1.906,10.14,7.345,10.5,6.247,9.101,0,0,0,0,0,0,0,0,0,0,0,0,0,0,0,0,
776,9.487,18.14,7.868,11.11,7.787,13.54,5.811,13.26,6.318,14.18,6.217,10.2,10.41,12.45,7.236,10.05,0,0,0,0,0,0,0,0,0,0,0,0,0,0,0,0,
777,16.7,16.81,14.1,9.78,13.96,16.69,7.693,12.63,10.18,15.9,7.448,9.031,9.358,10.96,4.0,7.35,0,0,0,0,0,0,0,0,0,0,0,0,0,0,0,0,
778,16.47,13.84,13.25,6.115,12.22,12.61,3.258,9.822,8.225,12.99,3.027,5.91,4.027,5.821,-2.143,2.113,0,0,0,0,0,0,0,0,0,0,0,0,0,0,0,0,
779,10.19,12.63,9.988,0.532,9.011,7.189,0.9172,6.804,2.465,6.518,0.8995,3.872,2.173,2.866,-2.639,0.9802,0,0,0,0,0,0,0,0,0,0,0,0,0,0,0,0,
780,14.72,13.7,14.45,2.561,14.12,10.73,6.861,7.566,4.115,5.966,6.816,4.607,7.017,4.986,1.899,3.344,0,0,0,0,0,0,0,0,0,0,0,0,0,0,0,0,
781,21.59,15.19,19.69,6.168,19.02,14.36,11.12,7.817,10.6,9.997,11.09,2.862,9.658,5.17,3.016,1.997,0,0,0,0,0,0,0,0,0,0,0,0,0,0,0,0,
782,18.01,14.83,18.56,1.339,18.06,10.28,10.85,4.075,11.29,8.619,11.08,-0.2014,8.769,2.921,2.812,0.0755,0,0,0,0,0,0,0,0,0,0,0,0,0,0,0,0,
783,14.24,11.82,16.48,-4.822,16.82,5.592,11.59,0.5914,9.377,4.094,11.63,-0.7332,8.67,2.244,4.252,1.64,0,0,0,0,0,0,0,0,0,0,0,0,0,0,0,0,
784,13.9,6.694,15.8,-5.741,15.39,5.364,11.55,0.1953,8.653,2.918,11.37,-0.1985,8.869,2.824,4.452,3.745,0,0,0,0,0,0,0,0,0,0,0,0,0,0,0,0,
785,13.47,5.594,16.12,-4.602,14.33,8.107,10.95,1.456,8.811,5.371,10.97,1.264,9.916,4.901,4.582,5.555,0,0,0,0,0,0,0,0,0,0,0,0,0,0,0,0,
786,12.35,10.3,15.49,-4.052,14.21,8.422,11.12,1.855,9.95,7.306,10.91,3.025,10.72,6.269,5.185,6.478,0,0,0,0,0,0,0,0,0,0,0,0,0,0,0,0,
787,8.576,11.72,11.96,-3.669,12.03,5.374,10.12,2.35,9.163,5.738,9.572,4.12,10.12,5.497,5.452,6.332,0,0,0,0,0,0,0,0,0,0,0,0,0,0,0,0,
788,6.194,7.498,9.89,-2.998,9.79,4.481,9.222,4.771,7.842,4.994,8.982,5.612,10.2,5.583,6.376,6.3,0,0,0,0,0,0,0,0,0,0,0,0,0,0,0,0,
789,5.451,5.198,8.574,-3.167,7.46,3.473,7.706,5.587,7.014,5.777,7.67,5.927,8.862,5.244,6.011,5.472,0,0,0,0,0,0,0,0,0,0,0,0,0,0,0,0,
790,1.917,5.218,4.839,-4.273,3.873,0.5234,5.468,4.789,3.674,3.613,5.465,6.143,6.927,4.558,6.212,6.16,0,0,0,0,0,0,0,0,0,0,0,0,0,0,0,0,
791,0.7807,2.386,3.756,-5.333,3.61,1.14,6.512,6.803,2.928,2.793,7.082,8.452,9.256,6.359,10.03,8.345,0,0,0,0,0,0,0,0,0,0,0,0,0,0,0,0,
792,1.726,-1.421,3.361,-6.467,3.338,1.11,7.11,7.903,5.399,4.263,7.894,7.294,10.1,5.05,10.37,5.008,0,0,0,0,0,0,0,0,0,0,0,0,0,0,0,0,
793,-1.881,-1.745,-1.272,-4.578,-1.345,-2.902,3.655,5.283,2.354,1.155,3.936,2.681,5.653,-0.3978,5.883,-0.7444,0,0,0,0,0,0,0,0,0,0,0,0,0,0,0,0,
794,-5.117,0.9188,-2.932,1.882,-2.953,-2.704,2.457,5.054,-1.784,-1.742,2.81,2.855,4.382,-0.5152,5.624,0.5565,0,0,0,0,0,0,0,0,0,0,0,0,0,0,0,0,
795,-5.114,3.401,-1.539,5.047,-1.726,-0.3896,3.618,7.095,-0.5114,0.9083,4.357,5.231,6.589,3.423,7.925,5.129,0,0,0,0,0,0,0,0,0,0,0,0,0,0,0,0,
796,-7.309,2.308,-4.717,1.751,-4.555,-2.673,1.681,6.523,-0.6483,1.745,2.179,4.355,5.535,3.9,7.259,6.749,0,0,0,0,0,0,0,0,0,0,0,0,0,0,0,0,
797,-8.602,0.4109,-6.935,1.02,-6.277,-2.713,-0.041,7.128,-2.832,0.3453,0.0387,5.578,4.17,4.75,7.744,8.711,0,0,0,0,0,0,0,0,0,0,0,0,0,0,0,0,
798,-4.569,4.253,-4.436,5.359,-4.231,2.128,1.208,10.99,-1.81,3.492,1.024,9.38,5.689,8.244,10.62,11.77,0,0,0,0,0,0,0,0,0,0,0,0,0,0,0,0,
799,-3.416,7.385,-4.951,5.269,-5.226,2.278,0.7979,10.24,-0.7405,6.632,0.4661,8.109,5.22,6.936,10.83,11.19,0,0,0,0,0,0,0,0,0,0,0,0,0,0,0,0,
800,-10.64,1.214,-9.861,-2.545,-9.761,-4.605,-3.247,3.015,-3.066,2.057,-3.595,3.26,0.4322,0.5965,6.648,6.791,0,0,0,0,0,0,0,0,0,0,0,0,0,0,0,0,
801,-16.14,-4.771,-13.96,-8.412,-13.19,-9.611,-7.247,-1.586,-7.495,-5.312,-6.976,2.212,-3.546,-2.256,2.217,3.268,0,0,0,0,0,0,0,0,0,0,0,0,0,0,0,0,
802,-11.99,-3.903,-13.78,-7.168,-12.66,-8.216,-6.992,-0.5905,-10.15,-6.59,-5.694,3.865,-3.381,-1.556,1.291,2.386,0,0,0,0,0,0,0,0,0,0,0,0,0,0,0,0,
803,-7.132,-5.212,-10.82,-7.9,-10.09,-7.047,-4.496,-0.4133,-8.759,-5.093,-3.683,3.267,-3.401,-3.119,0.7221,1.535,0,0,0,0,0,0,0,0,0,0,0,0,0,0,0,0,
804,-8.426,-9.02,-9.036,-12.84,-8.95,-8.138,-2.899,-1.143,-7.239,-6.595,-2.733,3.317,-2.537,-2.31,1.588,2.587,0,0,0,0,0,0,0,0,0,0,0,0,0,0,0,0,
805,-5.949,-6.24,-3.276,-11.19,-3.381,-3.159,3.904,2.174,-3.808,-3.745,5.367,7.968,6.102,6.027,10.29,9.51,0,0,0,0,0,0,0,0,0,0,0,0,0,0,0,0,
806,3.387,0.5202,7.938,-5.637,7.808,4.837,14.84,5.579,5.179,5.056,16.24,11.06,14.74,12.06,18.46,15.29,0,0,0,0,0,0,0,0,0,0,0,0,0,0,0,0,
807,7.084,4.581,11.96,-5.907,11.95,5.178,16.53,4.061,9.584,7.191,16.24,7.63,13.66,8.988,16.27,11.96,0,0,0,0,0,0,0,0,0,0,0,0,0,0,0,0,
808,4.611,6.329,8.423,-6.518,8.445,2.913,10.98,1.901,5.958,2.853,10.93,2.874,10.08,3.918,10.9,4.622,0,0,0,0,0,0,0,0,0,0,0,0,0,0,0,0,
809,5.637,4.892,8.342,-5.153,7.943,4.868,9.912,2.006,4.664,1.562,10.43,1.138,8.776,1.354,7.662,0.9528,0,0,0,0,0,0,0,0,0,0,0,0,0,0,0,0,
810,9.685,2.821,11.22,-7.11,10.67,6.251,12.04,2.485,6.823,1.565,12.15,2.649,7.689,0.9553,5.716,2.78,0,0,0,0,0,0,0,0,0,0,0,0,0,0,0,0,
811,11.56,5.328,11.67,-8.518,11.07,4.644,11.87,2.89,7.806,0.2298,11.92,5.32,6.86,1.553,4.706,5.167,0,0,0,0,0,0,0,0,0,0,0,0,0,0,0,0,
812,7.337,4.947,6.894,-8.387,6.138,1.567,7.769,2.615,5.445,-1.196,7.357,5.138,3.059,0.3054,1.489,2.001,0,0,0,0,0,0,0,0,0,0,0,0,0,0,0,0,
813,0.0678,-1.045,-0.0552,-10.02,-0.1024,-1.421,2.505,2.293,0.308,-2.299,1.714,4.473,-1.187,0.0529,-0.8051,-1.278,0,0,0,0,0,0,0,0,0,0,0,0,0,0,0,0,
814,-2.535,-3.482,-2.761,-10.31,-2.164,-2.679,0.3894,3.07,-1.633,-1.386,-0.13,6.18,-0.7891,2.244,0.4524,-0.1104,0,0,0,0,0,0,0,0,0,0,0,0,0,0,0,0,
815,-4.763,-6.769,-5.294,-10.53,-4.933,-4.11,-2.09,2.255,-1.895,-1.077,-2.536,5.356,-2.133,0.8488,-2.428,-1.43,0,0,0,0,0,0,0,0,0,0,0,0,0,0,0,0,
816,-8.59,-12.1,-10.03,-11.91,-9.446,-5.63,-6.205,0.218,-5.111,-3.493,-6.151,2.894,-5.904,-2.595,-8.479,-4.203,0,0,0,0,0,0,0,0,0,0,0,0,0,0,0,0,
817,-6.181,-7.952,-10.72,-9.409,-9.685,-5.023,-6.704,0.7674,-6.128,-4.348,-6.295,4.208,-6.047,-2.628,-10.23,-2.537,0,0,0,0,0,0,0,0,0,0,0,0,0,0,0,0,
818,-2.982,-2.279,-10.38,-5.991,-9.432,-4.882,-6.227,1.849,-5.513,-3.99,-6.207,4.965,-6.689,-2.358,-9.74,-1.415,0,0,0,0,0,0,0,0,0,0,0,0,0,0,0,0,
819,-5.557,-4.362,-12.36,-6.69,-11.46,-6.523,-7.553,-0.0675,-7.389,-4.94,-7.387,0.4596,-9.352,-5.094,-9.214,-4.808,0,0,0,0,0,0,0,0,0,0,0,0,0,0,0,0,
820,-7.971,-4.553,-11.73,-7.713,-11.0,-7.276,-5.856,-2.354,-8.001,-6.017,-5.471,-3.742,-7.923,-7.407,-6.491,-7.328,0,0,0,0,0,0,0,0,0,0,0,0,0,0,0,0,
821,-7.12,-2.327,-8.415,-5.963,-8.063,-5.616,-1.067,-1.325,-6.524,-6.13,-0.8161,-2.045,-2.623,-4.352,-1.565,-3.625,0,0,0,0,0,0,0,0,0,0,0,0,0,0,0,0,
822,-3.295,-2.084,-6.148,-4.216,-5.836,-3.003,1.165,0.823,-4.159,-3.067,1.586,0.843,0.8598,0.4275,2.164,1.179,0,0,0,0,0,0,0,0,0,0,0,0,0,0,0,0,
823,-0.0043,-1.028,-6.939,-5.209,-6.451,-2.271,-0.5084,0.865,-2.097,0.5526,0.1018,-0.5669,0.5149,-0.3468,1.703,-1.185,0,0,0,0,0,0,0,0,0,0,0,0,0,0,0,0,
824,-0.2333,0.0539,-7.305,-4.552,-6.796,-1.175,-0.6172,1.881,-2.193,0.1781,0.0596,-0.9596,0.2608,-1.811,-0.3441,-4.973,0,0,0,0,0,0,0,0,0,0,0,0,0,0,0,0,
825,0.8564,2.445,-3.253,0.5219,-3.186,1.638,1.454,5.243,-0.4174,0.5999,1.476,2.444,-0.2583,-0.4247,-3.264,-4.926,0,0,0,0,0,0,0,0,0,0,0,0,0,0,0,0,
826,1.079,4.153,-3.456,1.44,-3.523,-0.2548,-2.183,5.995,0.1387,1.924,-3.051,2.618,-6.54,-3.489,-9.997,-8.309,0,0,0,0,0,0,0,0,0,0,0,0,0,0,0,0,
827,-3.705,-0.4188,-10.97,-2.45,-10.2,-4.978,-9.605,4.664,-7.281,-1.401,-9.679,0.5428,-13.78,-7.686,-15.64,-12.64,0,0,0,0,0,0,0,0,0,0,0,0,0,0,0,0,
828,-5.803,-2.208,-13.63,-1.395,-12.56,-3.968,-12.34,6.634,-12.61,-3.045,-11.46,3.423,-14.65,-5.066,-15.5,-10.15,0,0,0,0,0,0,0,0,0,0,0,0,0,0,0,0,
829,-3.513,1.681,-12.23,1.921,-11.54,-0.3927,-12.93,10.82,-9.76,1.203,-12.7,7.733,-12.97,-1.383,-13.36,-6.582,0,0,0,0,0,0,0,0,0,0,0,0,0,0,0,0,
830,-2.616,1.175,-14.81,1.749,-13.71,0.8227,-14.44,11.95,-8.147,3.539,-14.67,6.633,-12.87,-2.494,-11.99,-7.077,0,0,0,0,0,0,0,0,0,0,0,0,0,0,0,0,
831,-2.445,2.024,-17.48,0.5315,-15.77,0.4174,-15.34,8.443,-10.25,1.246,-15.34,2.514,-14.51,-5.949,-11.9,-8.768,0,0,0,0,0,0,0,0,0,0,0,0,0,0,0,0,
832,-2.237,6.047,-19.74,-2.225,-17.8,-3.242,-17.48,4.304,-12.85,-1.763,-17.32,0.8617,-16.64,-8.018,-12.57,-9.279,0,0,0,0,0,0,0,0,0,0,0,0,0,0,0,0,
833,-3.319,1.762,-22.94,-4.677,-20.88,-6.772,-18.45,3.619,-14.45,-3.107,-17.77,1.848,-14.94,-6.455,-11.44,-7.237,0,0,0,0,0,0,0,0,0,0,0,0,0,0,0,0,
834,-2.812,-1.433,-19.92,-2.651,-18.49,-3.847,-13.26,4.896,-11.61,-1.926,-12.1,3.292,-9.303,-2.813,-8.316,-3.59,0,0,0,0,0,0,0,0,0,0,0,0,0,0,0,0,
835,1.111,4.128,-11.72,-1.322,-11.22,0.8841,-4.899,5.261,-5.19,0.8188,-3.904,4.674,-3.299,0.635,-3.484,-0.4733,0,0,0,0,0,0,0,0,0,0,0,0,0,0,0,0,
836,2.92,3.305,-6.645,-3.206,-6.369,2.23,2.118,4.61,0.6701,3.678,2.754,4.937,2.782,3.897,2.505,2.455,0,0,0,0,0,0,0,0,0,0,0,0,0,0,0,0,
837,2.186,-0.0511,-2.72,-2.647,-2.49,3.69,7.337,3.243,5.237,5.434,7.786,3.551,7.297,5.345,6.083,4.478,0,0,0,0,0,0,0,0,0,0,0,0,0,0,0,0,
838,8.057,7.258,3.516,-0.6284,3.412,6.004,10.27,2.17,8.66,4.964,10.7,2.895,8.602,4.191,6.838,3.947,0,0,0,0,0,0,0,0,0,0,0,0,0,0,0,0,
839,15.14,11.19,6.604,-1.573,6.118,6.232,9.768,2.734,10.38,3.867,10.06,3.45,7.856,2.098,5.773,1.53,0,0,0,0,0,0,0,0,0,0,0,0,0,0,0,0,
840,10.2,3.462,3.438,-3.646,2.791,3.506,5.441,2.519,8.445,2.34,5.295,1.907,2.88,-2.636,0.0754,-3.084,0,0,0,0,0,0,0,0,0,0,0,0,0,0,0,0,
841,1.892,-1.849,-0.9347,-4.948,-1.417,-2.355,-0.3761,-0.8564,1.765,-3.032,-0.6281,-1.568,-5.679,-9.869,-7.429,-9.138,0,0,0,0,0,0,0,0,0,0,0,0,0,0,0,0,
842,0.5254,-1.686,-2.662,-7.062,-2.789,-8.189,-3.655,-3.35,-5.032,-9.395,-3.381,-1.919,-10.73,-12.41,-10.32,-10.59,0,0,0,0,0,0,0,0,0,0,0,0,0,0,0,0,
843,-0.4194,-3.89,-3.406,-10.07,-3.199,-10.85,-4.816,-2.554,-8.057,-10.46,-4.252,0.163,-12.53,-10.03,-12.03,-8.302,0,0,0,0,0,0,0,0,0,0,0,0,0,0,0,0,
844,-2.465,-7.504,-4.847,-11.56,-4.556,-13.28,-6.619,-3.244,-10.33,-10.09,-6.497,-1.505,-15.65,-11.03,-15.74,-11.44,0,0,0,0,0,0,0,0,0,0,0,0,0,0,0,0,
845,-1.956,-6.762,-6.004,-10.38,-5.615,-15.04,-7.336,-5.226,-13.75,-13.12,-7.363,-4.808,-16.68,-13.78,-15.65,-15.93,0,0,0,0,0,0,0,0,0,0,0,0,0,0,0,0,
846,0.1998,-1.828,-4.486,-7.463,-3.949,-11.73,-4.812,-3.503,-14.18,-13.83,-4.235,-4.081,-13.56,-11.75,-12.03,-12.26,0,0,0,0,0,0,0,0,0,0,0,0,0,0,0,0,
847,3.981,1.567,0.4912,-3.656,0.3433,-7.126,-1.72,-1.45,-9.426,-9.991,-1.327,-3.232,-11.41,-8.977,-11.15,-8.065,0,0,0,0,0,0,0,0,0,0,0,0,0,0,0,0,
848,6.383,2.996,3.74,-0.3569,2.799,-5.948,-1.877,-2.991,-5.558,-8.261,-2.416,-5.857,-11.9,-9.637,-11.5,-10.48,0,0,0,0,0,0,0,0,0,0,0,0,0,0,0,0,
849,5.98,6.401,2.756,1.512,2.308,-4.15,-3.819,-3.316,-6.103,-8.528,-3.757,-6.961,-10.91,-9.468,-9.491,-12.05,0,0,0,0,0,0,0,0,0,0,0,0,0,0,0,0,
850,9.422,8.643,4.232,2.481,4.287,0.5498,-2.649,-0.7394,-4.151,-5.091,-1.519,-4.968,-7.841,-6.938,-7.63,-10.43,0,0,0,0,0,0,0,0,0,0,0,0,0,0,0,0,
851,13.87,6.875,6.492,1.77,6.206,2.612,-1.57,0.339,0.117,-1.296,-1.282,-4.339,-8.561,-6.537,-8.943,-10.75,0,0,0,0,0,0,0,0,0,0,0,0,0,0,0,0,
852,10.14,6.076,1.354,0.997,1.248,-0.2192,-6.127,0.4639,-2.718,-2.583,-6.502,-4.352,-12.91,-8.359,-10.83,-10.88,0,0,0,0,0,0,0,0,0,0,0,0,0,0,0,0,
853,4.438,7.119,-4.356,3.829,-3.643,-2.5,-9.213,3.145,-7.75,-4.423,-8.934,-1.561,-12.93,-7.918,-9.283,-7.589,0,0,0,0,0,0,0,0,0,0,0,0,0,0,0,0,
854,3.749,6.54,-4.559,6.759,-3.535,-1.941,-6.976,6.353,-6.558,-3.291,-6.836,0.6984,-10.66,-6.685,-7.501,-5.64,0,0,0,0,0,0,0,0,0,0,0,0,0,0,0,0,
855,4.12,7.732,-5.963,6.686,-5.436,-1.125,-7.213,6.895,-5.947,-2.787,-7.275,-0.4853,-12.01,-7.467,-8.487,-6.68,0,0,0,0,0,0,0,0,0,0,0,0,0,0,0,0,
856,6.488,11.13,-7.108,6.878,-7.004,0.3348,-8.247,6.056,-7.396,-3.074,-7.591,-1.195,-11.38,-7.075,-7.083,-4.846,0,0,0,0,0,0,0,0,0,0,0,0,0,0,0,0,
857,10.76,9.118,-3.519,6.072,-2.919,2.463,-4.951,5.568,-4.626,-2.636,-3.973,0.3167,-7.12,-5.493,-2.722,-0.7052,0,0,0,0,0,0,0,0,0,0,0,0,0,0,0,0,
