%OpenBCI Raw EXG Data
%Number of channels = 16
%Sample Rate = 125 Hz
%Board = OpenBCI_GUI$BoardCytonSerialDaisy
Sample Index,EXG Channel 0,EXG Channel 1,EXG Channel 2,EXG Channel 3,EXG Channel 4,EXG Channel 5,EXG Channel 6,EXG Channel 7,EXG Channel 8,EXG Channel 9,EXG Channel 10,EXG Channel 11,EXG Channel 12,EXG Channel 13,EXG Channel 14,EXG Channel 15,Accel Channel 0,Accel Channel 1,Accel Channel 2,Other,Other.1,Other.2,Other.3,Other.4,Other.5,Other.6,Analog Channel 0,Analog Channel 1,Analog Channel 2,Timestamp,Other.7,Timestamp (Formatted),Annotations
1,0.0,0.0,0.0,0.0,0.0,0.0,0.0,-0.0,0.0,0.0,0.0,0.0,0.0,0.0,-0.0,-0.0,0,0,0,0,0,0,0,0,0,0,0,0,0,0,0,0,T0
2,-11.24,-5.657,-7.115,-11.27,-9.055,-10.85,-5.802,-5.135,-5.723,-6.834,-5.162,-2.787,-4.275,-4.193,-5.435,-3.71,0,0,0,0,0,0,0,0,0,0,0,0,0,0,0,0,
3,-12.48,-7.506,-5.978,-12.24,-9.91,-11.24,-5.208,-2.736,-8.607,-7.786,-3.817,0.2213,-2.842,-0.9955,-4.714,0.3456,0,0,0,0,0,0,0,0,0,0,0,0,0,0,0,0,
4,-8.682,-4.883,-3.821,-5.026,-7.013,-7.729,-3.278,1.859,-7.441,-3.73,-2.356,2.855,0.4384,3.243,-4.497,3.881,0,0,0,0,0,0,0,0,0,0,0,0,0,0,0,0,
5,-7.868,-2.398,-5.495,-0.6927,-4.031,-4.243,-3.415,2.193,-3.628,1.893,-3.221,3.204,0.654,4.855,-6.116,1.751,0,0,0,0,0,0,0,0,0,0,0,0,0,0,0,0,
6,-8.946,-3.401,-5.479,-3.205,-0.7655,0.2834,-3.024,-0.8965,-0.4106,6.278,-2.836,4.173,-0.2524,6.129,-6.231,-2.052,0,0,0,0,0,0,0,0,0,0,0,0,0,0,0,0,
7,-6.923,-3.141,-1.741,-2.183,2.361,3.302,-0.5,-1.224,1.859,8.986,-1.433,5.596,0.5894,6.801,-6.241,-4.525,0,0,0,0,0,0,0,0,0,0,0,0,0,0,0,0,
8,-2.819,0.6997,0.8976,2.493,4.465,3.454,2.823,3.101,3.103,9.748,-1.818,5.63,-1.534,5.006,-8.164,-6.311,0,0,0,0,0,0,0,0,0,0,0,0,0,0,0,0,
9,-1.777,2.054,0.336,-0.318,3.598,1.533,4.121,5.363,0.3219,6.191,-5.248,3.336,-8.34,1.482,-10.93,-7.335,0,0,0,0,0,0,0,0,0,0,0,0,0,0,0,0,
10,-2.014,2.386,0.1047,-1.398,3.145,2.062,3.747,5.54,-3.515,2.977,-7.827,2.936,-10.28,1.4,-9.63,-3.94,0,0,0,0,0,0,0,0,0,0,0,0,0,0,0,0,
11,0.5792,7.64,1.344,5.744,6.823,6.914,4.033,7.696,-2.924,6.604,-5.682,5.107,-5.432,5.305,-4.459,1.692,0,0,0,0,0,0,0,0,0,0,0,0,0,0,0,0,
12,4.088,11.21,3.33,7.527,10.68,10.38,6.816,8.372,0.7225,11.29,1.236,6.153,1.219,9.733,0.8103,5.61,0,0,0,0,0,0,0,0,0,0,0,0,0,0,0,0,
13,7.556,8.519,7.643,6.5,13.99,12.16,13.23,9.247,7.127,13.14,10.56,8.917,10.41,15.19,6.49,10.22,0,0,0,0,0,0,0,0,0,0,0,0,0,0,0,0,
14,7.986,5.797,9.184,7.732,14.96,11.8,16.88,11.63,13.08,14.63,13.41,10.3,14.35,15.75,7.086,10.66,0,0,0,0,0,0,0,0,0,0,0,0,0,0,0,0,
15,1.977,4.442,3.823,4.861,8.426,5.251,13.27,8.781,9.779,10.8,7.5,5.394,8.369,8.16,1.191,3.949,0,0,0,0,0,0,0,0,0,0,0,0,0,0,0,0,
16,-0.3167,5.295,1.895,5.999,3.789,1.958,11.39,5.966,3.865,4.677,4.17,4.001,5.774,5.05,-1.028,0.0802,0,0,0,0,0,0,0,0,0,0,0,0,0,0,0,0,
17,4.851,8.897,5.991,8.613,7.354,6.038,13.55,9.023,5.558,7.082,4.178,7.914,7.276,8.012,-0.6103,-0.0187,0,0,0,0,0,0,0,0,0,0,0,0,0,0,0,0,
18,5.67,7.82,5.867,2.162,8.141,6.093,12.7,10.3,6.433,11.48,1.707,8.861,4.835,8.2,-1.946,-0.724,0,0,0,0,0,0,0,0,0,0,0,0,0,0,0,0,
19,4.923,6.029,5.032,4.462,8.007,6.137,12.54,11.04,4.684,12.25,1.671,9.855,4.973,10.31,-1.781,1.0,0,0,0,0,0,0,0,0,0,0,0,0,0,0,0,0,
20,8.191,10.77,8.396,14.51,13.12,11.6,15.48,14.31,8.252,16.18,2.668,10.97,5.665,13.32,-4.996,1.573,0,0,0,0,0,0,0,0,0,0,0,0,0,0,0,0,
21,6.757,10.7,7.943,9.896,12.67,11.02,15.47,14.93,9.899,18.05,-0.5576,8.679,0.362,9.52,-11.42,-2.066,0,0,0,0,0,0,0,0,0,0,0,0,0,0,0,0,
22,5.584,7.205,6.351,6.598,8.052,7.61,14.78,16.87,6.245,14.19,-0.7151,8.453,-1.359,6.93,-11.41,-3.311,0,0,0,0,0,0,0,0,0,0,0,0,0,0,0,0,
23,11.3,12.95,9.459,13.9,9.649,9.68,15.88,19.0,6.001,13.81,2.625,8.417,0.1994,7.942,-9.964,-2.222,0,0,0,0,0,0,0,0,0,0,0,0,0,0,0,0,
24,11.01,14.63,8.441,9.742,9.521,7.394,14.17,13.13,5.204,13.08,-0.1567,3.871,-4.085,3.493,-13.95,-3.639,0,0,0,0,0,0,0,0,0,0,0,0,0,0,0,0,
25,5.773,6.837,4.065,1.813,5.821,2.665,11.69,8.901,0.1666,6.647,-4.839,1.873,-6.779,-0.807,-15.67,-4.874,0,0,0,0,0,0,0,0,0,0,0,0,0,0,0,0,
26,7.232,7.01,5.298,3.22,7.242,5.099,10.92,10.97,-0.8716,3.976,-3.612,3.042,-4.183,0.5875,-12.15,-3.869,0,0,0,0,0,0,0,0,0,0,0,0,0,0,0,0,
27,7.305,9.744,5.148,1.602,7.683,5.64,8.155,9.58,0.5216,4.723,-1.588,1.709,-3.534,0.7255,-8.877,-3.731,0,0,0,0,0,0,0,0,0,0,0,0,0,0,0,0,
28,2.72,5.852,0.3875,2.219,4.84,2.539,6.151,9.064,-0.3914,3.231,-1.16,1.939,-2.365,1.075,-5.824,-3.292,0,0,0,0,0,0,0,0,0,0,0,0,0,0,0,0,
29,3.175,6.494,0.0554,9.231,6.191,4.275,7.915,10.64,0.3474,4.5,0.5488,4.723,0.8742,4.573,-2.993,-0.2612,0,0,0,0,0,0,0,0,0,0,0,0,0,0,0,0,
30,4.426,8.458,2.138,4.677,6.795,4.327,8.447,6.121,1.063,6.308,0.1063,4.622,1.01,5.584,-4.186,1.05,0,0,0,0,0,0,0,0,0,0,0,0,0,0,0,0,
31,2.12,5.053,2.322,-4.486,4.563,0.85,8.1,4.659,0.3686,4.517,-1.995,3.945,0.7702,5.417,-6.016,-0.2441,0,0,0,0,0,0,0,0,0,0,0,0,0,0,0,0,
32,3.594,5.505,4.451,-1.643,5.941,2.23,9.755,9.203,2.925,5.811,-1.367,5.311,2.362,6.852,-4.622,0.2451,0,0,0,0,0,0,0,0,0,0,0,0,0,0,0,0,
33,6.723,7.315,5.84,2.481,6.325,3.74,9.234,7.542,4.16,8.277,-2.719,5.809,1.927,6.493,-4.848,1.609,0,0,0,0,0,0,0,0,0,0,0,0,0,0,0,0,
34,5.235,5.118,2.674,3.634,3.036,1.405,6.602,5.622,0.0512,6.646,-6.358,6.584,1.038,6.442,-6.35,2.709,0,0,0,0,0,0,0,0,0,0,0,0,0,0,0,0,
35,2.972,7.317,-0.0879,8.789,2.528,1.549,6.691,10.03,-2.109,7.778,-3.966,9.272,1.905,8.621,-4.978,4.777,0,0,0,0,0,0,0,0,0,0,0,0,0,0,0,0,
36,4.645,12.58,1.21,8.861,3.541,2.483,8.473,11.14,-0.3344,11.24,0.5391,9.725,1.071,7.96,-5.625,4.511,0,0,0,0,0,0,0,0,0,0,0,0,0,0,0,0,
37,9.031,10.93,2.701,-0.6062,1.347,-1.24,8.102,7.844,-0.2998,8.151,-2.175,5.353,-3.497,2.701,-10.82,-0.0868,0,0,0,0,0,0,0,0,0,0,0,0,0,0,0,0,
38,10.28,3.526,-0.9203,-7.055,-3.505,-7.157,4.046,3.325,-4.755,0.758,-7.963,0.2279,-9.015,-3.566,-14.95,-4.704,0,0,0,0,0,0,0,0,0,0,0,0,0,0,0,0,
39,8.105,-0.001,-5.227,-5.123,-6.601,-9.311,1.048,-1.676,-10.32,-3.87,-8.745,-0.4315,-9.994,-5.842,-14.96,-5.548,0,0,0,0,0,0,0,0,0,0,0,0,0,0,0,0,
40,10.77,4.826,-1.472,-0.263,-3.044,-4.856,5.445,-1.102,-9.167,-3.343,-4.581,2.346,-5.237,-2.478,-12.42,-3.968,0,0,0,0,0,0,0,0,0,0,0,0,0,0,0,0,
41,15.39,8.55,4.539,3.614,2.291,0.8425,10.48,3.035,-2.739,1.167,-1.289,3.759,-2.18,0.4106,-11.44,-3.228,0,0,0,0,0,0,0,0,0,0,0,0,0,0,0,0,
42,13.85,3.893,3.039,4.237,1.416,1.357,7.562,3.087,-2.145,4.022,-3.636,2.138,-5.515,-1.466,-13.98,-4.118,0,0,0,0,0,0,0,0,0,0,0,0,0,0,0,0,
43,13.45,0.6887,-0.4324,1.553,-0.7006,-0.0669,3.826,1.317,-6.021,2.754,-7.751,-0.7808,-8.886,-3.343,-15.35,-5.16,0,0,0,0,0,0,0,0,0,0,0,0,0,0,0,0,
44,18.02,5.362,0.777,0.4148,1.391,0.3671,4.821,2.083,-5.091,2.276,-7.353,-1.262,-7.084,-1.423,-11.76,-3.58,0,0,0,0,0,0,0,0,0,0,0,0,0,0,0,0,
45,18.76,10.15,1.729,2.511,2.199,-0.2664,4.317,4.324,-3.116,3.808,-6.239,1.164,-4.604,1.301,-6.553,0.5331,0,0,0,0,0,0,0,0,0,0,0,0,0,0,0,0,
46,17.4,10.1,-0.1715,3.65,0.6307,-1.346,1.854,4.008,-5.317,4.565,-7.899,1.462,-3.787,2.58,-4.875,2.522,0,0,0,0,0,0,0,0,0,0,0,0,0,0,0,0,
47,20.52,8.476,0.1467,2.671,1.739,0.2899,2.467,1.315,-5.507,5.702,-7.539,-0.2496,-1.806,2.978,-7.987,1.567,0,0,0,0,0,0,0,0,0,0,0,0,0,0,0,0,
48,21.23,7.513,1.081,0.5454,1.613,-0.4685,3.024,1.029,-3.398,5.572,-6.851,-0.3857,-2.026,0.579,-13.81,-0.9716,0,0,0,0,0,0,0,0,0,0,0,0,0,0,0,0,
49,15.94,5.749,-2.678,-2.151,-3.792,-6.119,0.4202,1.173,-6.181,0.7928,-9.849,-1.304,-6.125,-3.704,-18.3,-5.061,0,0,0,0,0,0,0,0,0,0,0,0,0,0,0,0,
50,13.35,3.175,-6.343,-4.129,-7.713,-8.935,-0.8015,0.5759,-10.26,-2.563,-11.07,-3.34,-8.247,-4.536,-19.18,-6.154,0,0,0,0,0,0,0,0,0,0,0,0,0,0,0,0,
51,12.95,0.7136,-7.027,-7.147,-8.609,-8.825,-0.8227,2.018,-11.39,-1.414,-9.945,-3.951,-9.512,-4.12,-19.47,-4.776,0,0,0,0,0,0,0,0,0,0,0,0,0,0,0,0,
52,10.92,-0.2518,-7.692,-8.589,-9.262,-9.596,-2.307,-0.3502,-13.34,-2.075,-10.47,-4.696,-11.49,-5.995,-19.9,-6.924,0,0,0,0,0,0,0,0,0,0,0,0,0,0,0,0,
53,14.94,3.975,-4.735,-3.629,-4.987,-6.177,-0.3811,-4.653,-12.45,-2.405,-9.619,-5.089,-9.418,-5.913,-18.4,-8.877,0,0,0,0,0,0,0,0,0,0,0,0,0,0,0,0,
54,20.31,7.921,-1.334,-1.046,-0.6153,-2.855,2.828,-2.755,-8.337,0.5508,-9.527,-3.783,-8.651,-5.328,-19.4,-8.675,0,0,0,0,0,0,0,0,0,0,0,0,0,0,0,0,
55,14.68,1.735,-6.185,-6.007,-6.09,-8.56,-1.494,-4.494,-12.15,-1.239,-14.97,-3.653,-14.69,-9.167,-24.59,-11.23,0,0,0,0,0,0,0,0,0,0,0,0,0,0,0,0,
56,7.069,-7.01,-12.77,-10.68,-13.76,-15.6,-8.489,-11.95,-21.22,-8.373,-19.88,-4.644,-19.32,-13.09,-27.23,-12.71,0,0,0,0,0,0,0,0,0,0,0,0,0,0,0,0,
57,4.944,-8.633,-15.38,-14.21,-16.48,-18.36,-10.22,-10.9,-24.65,-13.23,-18.98,-4.432,-18.65,-13.16,-24.32,-9.095,0,0,0,0,0,0,0,0,0,0,0,0,0,0,0,0,
58,3.198,-7.39,-16.77,-14.73,-17.21,-19.85,-8.383,-5.567,-23.45,-13.43,-13.71,-5.049,-15.2,-10.97,-17.25,-5.033,0,0,0,0,0,0,0,0,0,0,0,0,0,0,0,0,
59,5.227,-5.183,-13.36,-10.07,-13.42,-16.21,-3.72,-5.224,-18.69,-8.686,-7.143,-7.64,-9.086,-7.776,-10.61,-2.475,0,0,0,0,0,0,0,0,0,0,0,0,0,0,0,0,
60,10.5,-2.705,-7.023,-10.5,-6.104,-8.178,1.764,-5.121,-11.22,-2.343,-4.144,-8.676,-4.5,-5.177,-10.18,-0.1743,0,0,0,0,0,0,0,0,0,0,0,0,0,0,0,0,
61,12.24,-2.357,-5.707,-11.73,-2.118,-3.322,2.603,-5.619,-7.631,0.3772,-5.187,-7.799,-4.312,-4.106,-13.37,-0.4268,0,0,0,0,0,0,0,0,0,0,0,0,0,0,0,0,
62,13.92,1.658,-5.961,-3.194,0.0692,-1.492,1.266,-8.531,-7.304,1.108,-6.352,-8.453,-3.92,-3.783,-15.54,-3.833,0,0,0,0,0,0,0,0,0,0,0,0,0,0,0,0,
63,18.48,8.998,-2.187,0.1947,3.712,0.6701,3.218,-9.259,-4.775,2.297,-6.569,-8.914,-1.53,-3.036,-17.14,-5.109,0,0,0,0,0,0,0,0,0,0,0,0,0,0,0,0,
64,22.2,9.282,1.45,-6.856,5.988,2.605,4.771,-8.758,-1.511,3.646,-7.101,-6.604,-0.9477,-1.28,-18.59,-3.435,0,0,0,0,0,0,0,0,0,0,0,0,0,0,0,0,
65,21.05,3.469,-1.202,-8.267,3.221,0.8111,1.282,-8.59,-2.508,4.343,-9.374,-4.416,-3.489,-0.7273,-19.41,-3.347,0,0,0,0,0,0,0,0,0,0,0,0,0,0,0,0,
66,15.88,0.1676,-7.147,-5.699,-3.811,-5.941,-2.502,-6.921,-8.408,1.597,-11.95,-3.512,-6.496,-2.958,-18.73,-3.644,0,0,0,0,0,0,0,0,0,0,0,0,0,0,0,0,
67,14.19,0.3971,-8.943,-7.013,-9.581,-11.92,-3.503,-6.927,-14.46,-3.617,-13.18,-3.72,-9.873,-6.349,-18.84,-4.394,0,0,0,0,0,0,0,0,0,0,0,0,0,0,0,0,
68,14.2,0.554,-9.834,-8.639,-12.11,-13.69,-5.998,-10.15,-18.55,-7.137,-15.32,-6.449,-14.64,-9.843,-21.81,-8.409,0,0,0,0,0,0,0,0,0,0,0,0,0,0,0,0,
69,8.892,-2.228,-14.31,-11.73,-14.42,-15.14,-8.737,-12.68,-22.17,-9.986,-17.04,-9.275,-17.67,-12.43,-22.64,-10.62,0,0,0,0,0,0,0,0,0,0,0,0,0,0,0,0,
70,4.644,-6.812,-16.74,-14.89,-16.46,-17.57,-8.609,-13.98,-24.17,-13.25,-15.95,-8.794,-17.92,-12.16,-20.53,-8.438,0,0,0,0,0,0,0,0,0,0,0,0,0,0,0,0,
71,4.787,-8.258,-16.43,-12.13,-15.97,-17.56,-8.143,-14.38,-24.05,-13.2,-14.31,-5.033,-16.32,-8.976,-18.71,-5.501,0,0,0,0,0,0,0,0,0,0,0,0,0,0,0,0,
72,5.099,-5.041,-15.87,-9.961,-13.36,-15.16,-6.147,-11.63,-22.24,-9.859,-12.07,-1.109,-11.58,-6.012,-15.04,-3.443,0,0,0,0,0,0,0,0,0,0,0,0,0,0,0,0,
73,8.635,-0.8627,-12.23,-13.27,-11.5,-14.72,-2.85,-7.38,-18.75,-8.869,-9.246,-0.3902,-6.35,-5.127,-10.43,-3.393,0,0,0,0,0,0,0,0,0,0,0,0,0,0,0,0,
74,12.51,-0.5566,-9.945,-14.37,-10.19,-14.29,-2.789,-5.835,-15.97,-9.202,-6.223,0.6845,-1.461,-1.524,-5.049,-0.2832,0,0,0,0,0,0,0,0,0,0,0,0,0,0,0,0,
75,10.37,-4.258,-12.08,-13.21,-5.194,-7.956,-1.261,-7.337,-11.29,-3.554,0.3638,4.803,6.803,6.37,2.154,8.547,0,0,0,0,0,0,0,0,0,0,0,0,0,0,0,0,
76,11.1,-3.75,-9.529,-14.75,1.162,-1.72,4.449,-8.858,-2.275,3.755,5.012,5.192,11.74,9.137,1.796,10.67,0,0,0,0,0,0,0,0,0,0,0,0,0,0,0,0,
77,18.69,3.725,-2.927,-13.37,1.511,-3.177,5.585,-8.453,0.9156,2.248,0.7705,1.579,7.485,4.902,-5.665,4.609,0,0,0,0,0,0,0,0,0,0,0,0,0,0,0,0,
78,21.88,7.666,-0.832,-7.834,-0.8078,-4.995,2.872,-7.245,-3.629,-2.277,-1.906,2.979,5.22,5.189,-4.907,5.461,0,0,0,0,0,0,0,0,0,0,0,0,0,0,0,0,
79,19.74,4.854,0.8111,-7.853,1.305,-3.009,5.011,-6.538,-2.637,0.5622,2.758,8.15,9.718,10.77,1.344,11.8,0,0,0,0,0,0,0,0,0,0,0,0,0,0,0,0,
80,18.32,1.681,3.242,-13.69,2.46,-5.02,7.667,-6.151,1.352,3.905,2.976,7.815,9.142,10.44,-0.4595,10.59,0,0,0,0,0,0,0,0,0,0,0,0,0,0,0,0,
81,14.31,-2.235,-0.4698,-16.22,-2.773,-10.03,3.91,-6.433,-3.369,0.184,-2.567,3.505,1.794,4.993,-5.537,4.594,0,0,0,0,0,0,0,0,0,0,0,0,0,0,0,0,
82,9.21,-5.155,-5.17,-13.95,-7.69,-10.96,-0.6352,-8.8,-9.82,-3.162,-4.401,2.684,-2.674,2.926,-5.915,2.277,0,0,0,0,0,0,0,0,0,0,0,0,0,0,0,0,
83,8.759,-3.386,-4.751,-12.02,-8.756,-11.44,-1.416,-12.82,-11.5,-3.062,-4.628,2.265,-4.741,2.686,-6.623,1.067,0,0,0,0,0,0,0,0,0,0,0,0,0,0,0,0,
84,9.115,-3.204,-4.566,-12.67,-9.462,-13.31,-2.032,-13.97,-14.17,-5.012,-7.036,-1.108,-7.372,1.881,-8.693,-0.5984,0,0,0,0,0,0,0,0,0,0,0,0,0,0,0,0,
85,8.372,-4.023,-5.867,-12.74,-8.605,-10.52,-3.445,-11.05,-15.24,-5.498,-8.576,-2.036,-7.438,2.639,-9.161,-0.4906,0,0,0,0,0,0,0,0,0,0,0,0,0,0,0,0,
86,8.644,0.3973,-6.757,-9.079,-6.657,-6.603,-4.641,-9.746,-12.69,-2.168,-10.98,-1.465,-7.839,2.096,-12.28,-2.656,0,0,0,0,0,0,0,0,0,0,0,0,0,0,0,0,
87,7.808,0.9039,-9.27,-5.965,-8.049,-7.634,-6.601,-10.63,-13.72,-1.795,-14.86,-2.483,-10.43,0.3231,-15.19,-5.329,0,0,0,0,0,0,0,0,0,0,0,0,0,0,0,0,
88,6.084,-6.715,-12.66,-8.075,-10.63,-8.964,-8.216,-10.88,-16.12,-2.894,-14.93,-1.14,-9.124,1.984,-11.26,-2.168,0,0,0,0,0,0,0,0,0,0,0,0,0,0,0,0,
89,3.915,-8.424,-14.6,-9.273,-11.08,-8.431,-7.198,-12.71,-14.82,-1.233,-11.3,0.8757,-4.775,4.356,-6.494,1.505,0,0,0,0,0,0,0,0,0,0,0,0,0,0,0,0,
90,1.476,-1.724,-13.75,-4.229,-10.06,-8.411,-3.745,-12.98,-12.94,-0.3316,-7.825,1.212,-2.229,5.042,-4.749,3.041,0,0,0,0,0,0,0,0,0,0,0,0,0,0,0,0,
91,2.849,0.8053,-11.06,-1.343,-8.283,-7.768,-1.914,-8.84,-11.25,-0.5699,-7.581,2.734,-2.058,5.306,-4.662,5.03,0,0,0,0,0,0,0,0,0,0,0,0,0,0,0,0,
92,5.493,-2.077,-10.87,-6.484,-8.185,-7.433,-4.595,-9.419,-10.7,-1.571,-12.02,1.586,-5.431,2.671,-8.78,2.27,0,0,0,0,0,0,0,0,0,0,0,0,0,0,0,0,
93,5.308,-2.549,-12.02,-10.62,-9.294,-7.761,-6.564,-14.57,-12.49,-4.255,-15.09,-2.654,-8.902,-0.1065,-12.41,-2.441,0,0,0,0,0,0,0,0,0,0,0,0,0,0,0,0,
94,6.573,-0.7277,-10.12,-7.167,-7.444,-5.855,-4.157,-13.03,-12.36,-3.652,-12.97,-2.124,-8.05,1.852,-11.6,-1.292,0,0,0,0,0,0,0,0,0,0,0,0,0,0,0,0,
95,8.827,-0.2821,-7.719,-2.678,-5.71,-5.0,-2.674,-9.867,-11.32,-0.587,-12.22,0.0298,-8.494,2.061,-12.91,-1.161,0,0,0,0,0,0,0,0,0,0,0,0,0,0,0,0,
96,7.231,-2.137,-8.384,-4.241,-9.052,-9.543,-4.465,-14.86,-14.02,-3.101,-14.92,-2.693,-12.81,-3.031,-16.31,-5.5,0,0,0,0,0,0,0,0,0,0,0,0,0,0,0,0,
97,4.554,-6.375,-10.88,-9.71,-13.66,-15.02,-6.056,-17.95,-17.46,-8.716,-16.05,-4.308,-14.44,-5.102,-16.4,-5.359,0,0,0,0,0,0,0,0,0,0,0,0,0,0,0,0,
98,4.004,-9.399,-12.61,-13.25,-15.91,-17.22,-6.661,-11.99,-18.49,-10.27,-15.92,-1.5,-12.93,-2.373,-14.48,-0.9909,0,0,0,0,0,0,0,0,0,0,0,0,0,0,0,0,
99,3.245,-8.829,-13.18,-14.02,-17.75,-18.3,-7.319,-10.27,-19.35,-9.613,-16.55,0.2944,-12.02,-0.2206,-12.18,1.357,0,0,0,0,0,0,0,0,0,0,0,0,0,0,0,0,
100,3.026,-7.973,-12.82,-13.02,-18.23,-18.47,-7.075,-15.83,-19.76,-8.945,-14.79,1.486,-9.798,2.59,-8.643,4.394,0,0,0,0,0,0,0,0,0,0,0,0,0,0,0,0,
101,5.79,-7.438,-11.29,-9.585,-16.22,-16.68,-6.032,-14.07,-17.08,-6.662,-11.32,4.209,-6.921,6.104,-5.975,8.789,0,0,0,0,0,0,0,0,0,0,0,0,0,0,0,0,
102,7.036,-5.699,-11.66,-4.942,-14.41,-14.88,-6.038,-5.995,-13.98,-4.854,-10.7,5.319,-6.887,6.676,-5.564,9.411,0,0,0,0,0,0,0,0,0,0,0,0,0,0,0,0,
103,8.202,-0.7391,-12.51,1.634,-10.6,-10.79,-5.428,-1.968,-12.41,-3.192,-9.423,6.383,-5.75,7.639,-4.251,7.942,0,0,0,0,0,0,0,0,0,0,0,0,0,0,0,0,
104,16.75,8.385,-8.692,9.471,-3.986,-3.658,-4.108,0.5996,-9.121,2.08,-6.628,8.544,-2.33,9.438,-3.532,6.323,0,0,0,0,0,0,0,0,0,0,0,0,0,0,0,0,
105,24.18,14.45,-6.328,11.93,-1.712,0.1288,-6.227,1.808,-7.067,6.132,-9.446,6.679,-2.58,7.483,-6.82,3.051,0,0,0,0,0,0,0,0,0,0,0,0,0,0,0,0,
106,26.82,18.67,-4.758,12.71,-0.8326,2.614,-6.563,-0.6078,-8.31,5.292,-12.36,3.69,-4.008,6.435,-7.158,2.314,0,0,0,0,0,0,0,0,0,0,0,0,0,0,0,0,
107,37.68,31.11,7.149,18.85,5.409,8.028,1.353,-0.5319,-6.027,5.184,-7.225,5.0,-1.91,8.873,-1.539,4.749,0,0,0,0,0,0,0,0,0,0,0,0,0,0,0,0,
108,51.38,44.13,19.82,23.68,10.46,11.15,9.583,1.016,-1.7,6.326,-0.9824,7.031,0.8449,9.876,2.738,6.843,0,0,0,0,0,0,0,0,0,0,0,0,0,0,0,0,
109,60.0,52.69,24.41,28.0,13.26,14.71,12.74,0.7984,0.5251,7.706,2.641,8.695,3.733,11.8,4.668,10.22,0,0,0,0,0,0,0,0,0,0,0,0,0,0,0,0,
110,74.99,68.8,32.93,40.76,20.14,23.92,14.56,4.71,4.527,12.72,5.529,11.86,6.893,16.35,5.588,12.59,0,0,0,0,0,0,0,0,0,0,0,0,0,0,0,0,
111,96.07,92.21,45.61,58.04,28.97,33.39,16.73,11.65,8.092,18.97,6.224,15.24,9.032,19.97,5.913,12.83,0,0,0,0,0,0,0,0,0,0,0,0,0,0,0,0,
112,118.3,116.0,57.64,72.63,39.25,42.95,22.52,16.65,11.28,24.81,8.512,19.15,13.12,24.3,9.668,16.77,0,0,0,0,0,0,0,0,0,0,0,0,0,0,0,0,
113,143.9,137.2,73.46,79.02,50.43,53.05,31.41,21.75,20.32,32.03,13.86,23.2,18.69,29.04,14.83,22.16,0,0,0,0,0,0,0,0,0,0,0,0,0,0,0,0,
114,162.7,150.6,85.3,78.36,55.87,57.23,34.41,24.13,27.89,35.7,15.68,24.96,20.91,29.64,16.97,23.87,0,0,0,0,0,0,0,0,0,0,0,0,0,0,0,0,
115,169.9,162.2,88.07,84.3,57.5,58.56,31.32,21.0,27.66,33.75,13.0,24.11,19.6,27.14,16.35,23.12,0,0,0,0,0,0,0,0,0,0,0,0,0,0,0,0,
116,174.9,174.4,91.76,95.05,61.09,63.05,30.85,20.14,27.67,32.66,10.87,22.04,18.08,25.82,13.98,21.37,0,0,0,0,0,0,0,0,0,0,0,0,0,0,0,0,
117,176.5,175.4,96.55,97.57,64.88,68.11,34.08,24.27,30.4,35.17,12.23,21.38,19.41,27.66,13.75,20.89,0,0,0,0,0,0,0,0,0,0,0,0,0,0,0,0,
118,173.6,171.3,97.57,97.51,68.09,72.21,36.41,27.01,32.76,38.83,15.53,23.02,23.14,31.2,16.26,21.65,0,0,0,0,0,0,0,0,0,0,0,0,0,0,0,0,
119,172.9,173.1,97.67,99.81,71.15,74.95,36.98,28.35,34.99,42.32,17.85,25.46,26.08,34.04,17.39,21.63,0,0,0,0,0,0,0,0,0,0,0,0,0,0,0,0,
120,171.7,173.1,96.44,98.35,70.6,73.2,36.89,31.2,35.33,44.47,19.72,26.63,27.18,35.21,18.54,22.34,0,0,0,0,0,0,0,0,0,0,0,0,0,0,0,0,
121,163.0,164.3,90.39,92.42,63.99,66.48,34.55,30.67,32.71,42.04,20.1,23.56,25.76,33.02,18.73,22.31,0,0,0,0,0,0,0,0,0,0,0,0,0,0,0,0,
122,147.8,149.9,80.11,83.88,54.9,59.54,28.93,25.23,28.57,36.09,16.86,19.05,21.62,29.12,14.1,20.5,0,0,0,0,0,0,0,0,0,0,0,0,0,0,0,0,
123,135.0,137.9,71.41,78.18,49.97,57.65,24.2,22.53,23.78,33.52,13.24,18.79,17.89,27.5,9.885,20.26,0,0,0,0,0,0,0,0,0,0,0,0,0,0,0,0,
124,129.0,133.1,70.38,78.62,49.89,58.23,24.83,23.59,21.58,33.78,11.48,19.32,16.17,25.68,9.963,19.62,0,0,0,0,0,0,0,0,0,0,0,0,0,0,0,0,
125,123.2,126.5,72.41,76.89,50.22,56.1,28.38,22.46,22.95,31.17,10.58,18.3,15.68,22.71,9.946,17.59,0,0,0,0,0,0,0,0,0,0,0,0,0,0,0,0,
126,115.6,116.2,70.58,72.62,51.23,54.59,30.19,21.02,24.62,29.41,12.34,20.45,17.78,24.11,9.819,18.92,0,0,0,0,0,0,0,0,0,0,0,0,0,0,0,0,
127,112.5,111.7,68.66,72.56,54.18,56.85,31.12,22.67,27.89,32.52,16.82,23.29,22.55,27.85,13.03,21.25,0,0,0,0,0,0,0,0,0,0,0,0,0,0,0,0,
128,110.0,109.0,67.38,72.15,54.16,57.86,31.37,23.48,31.9,35.37,19.07,21.79,24.69,27.22,15.5,19.38,0,0,0,0,0,0,0,0,0,0,0,0,0,0,0,0,
129,101.4,102.9,61.6,68.43,48.48,54.78,27.57,22.46,28.82,34.12,16.32,19.08,21.42,24.06,13.02,16.48,0,0,0,0,0,0,0,0,0,0,0,0,0,0,0,0,
130,93.82,99.07,55.07,64.83,43.14,51.12,22.72,23.08,21.82,31.3,12.2,18.26,17.81,22.59,10.4,15.77,0,0,0,0,0,0,0,0,0,0,0,0,0,0,0,0,
131,91.1,94.62,51.24,60.34,41.87,48.03,21.14,22.96,20.45,29.88,10.38,17.36,16.06,21.31,8.816,14.37,0,0,0,0,0,0,0,0,0,0,0,0,0,0,0,0,
132,84.43,84.47,45.64,53.95,39.34,42.33,19.22,18.5,20.17,27.05,8.602,14.35,12.56,18.06,4.469,11.68,0,0,0,0,0,0,0,0,0,0,0,0,0,0,0,0,
133,73.97,74.33,40.01,47.13,34.51,35.8,16.35,14.07,16.04,20.45,5.611,11.46,9.053,15.14,1.921,10.39,0,0,0,0,0,0,0,0,0,0,0,0,0,0,0,0,
134,67.86,67.97,38.55,42.55,33.78,34.6,15.99,13.65,14.3,17.64,3.691,12.29,8.519,15.33,2.955,9.811,0,0,0,0,0,0,0,0,0,0,0,0,0,0,0,0,
135,63.66,63.35,36.76,41.84,34.72,36.14,15.2,13.58,15.49,21.0,1.393,14.21,7.005,15.84,1.675,8.435,0,0,0,0,0,0,0,0,0,0,0,0,0,0,0,0,
136,58.13,59.07,33.05,40.47,30.66,33.44,12.92,11.95,14.26,20.58,-1.301,13.89,4.263,14.02,0.8617,7.289,0,0,0,0,0,0,0,0,0,0,0,0,0,0,0,0,
137,54.25,55.07,31.69,37.41,25.5,28.91,13.7,12.42,11.91,16.26,0.1324,14.07,4.759,12.77,3.256,6.824,0,0,0,0,0,0,0,0,0,0,0,0,0,0,0,0,
138,49.82,51.42,30.17,38.26,21.92,25.69,14.73,14.59,10.37,15.17,2.469,13.4,5.103,11.7,1.569,5.418,0,0,0,0,0,0,0,0,0,0,0,0,0,0,0,0,
139,42.5,47.25,24.38,39.99,16.06,20.58,10.13,13.86,6.578,13.43,-0.3685,8.302,0.979,7.86,-4.327,1.397,0,0,0,0,0,0,0,0,0,0,0,0,0,0,0,0,
140,36.33,43.43,18.23,36.58,11.14,15.72,3.904,11.07,0.6041,9.101,-4.146,4.979,-3.322,4.605,-6.566,-2.34,0,0,0,0,0,0,0,0,0,0,0,0,0,0,0,0,
141,32.26,40.13,15.26,30.59,10.94,15.69,1.529,10.94,-2.702,8.35,-4.957,7.161,-4.775,4.675,-5.091,-1.447,0,0,0,0,0,0,0,0,0,0,0,0,0,0,0,0,
142,27.68,33.02,14.13,25.65,10.91,16.31,2.348,12.26,-2.374,10.15,-4.733,8.552,-4.043,6.11,-3.618,2.04,0,0,0,0,0,0,0,0,0,0,0,0,0,0,0,0,
143,24.4,25.91,15.11,25.39,10.08,13.88,5.952,10.26,-1.206,10.12,-2.13,7.742,-0.7448,7.732,-1.266,4.769,0,0,0,0,0,0,0,0,0,0,0,0,0,0,0,0,
144,23.9,26.98,17.13,29.45,10.75,12.26,10.43,6.959,0.541,9.4,2.079,8.211,2.441,8.312,1.706,6.13,0,0,0,0,0,0,0,0,0,0,0,0,0,0,0,0,
145,21.38,27.46,15.93,27.78,10.9,13.47,11.47,7.54,3.21,9.758,3.68,9.403,4.13,8.912,3.048,5.595,0,0,0,0,0,0,0,0,0,0,0,0,0,0,0,0,
146,15.07,19.77,13.01,20.29,10.83,14.67,10.06,10.14,5.674,11.48,3.822,10.04,6.311,10.97,2.72,4.74,0,0,0,0,0,0,0,0,0,0,0,0,0,0,0,0,
147,10.97,15.43,12.03,18.13,11.81,14.06,8.259,11.8,6.787,12.89,3.352,10.46,6.338,11.09,1.041,4.85,0,0,0,0,0,0,0,0,0,0,0,0,0,0,0,0,
148,10.67,16.42,10.74,20.12,11.65,13.72,5.829,14.21,6.056,13.11,1.822,11.51,4.717,10.5,0.0229,5.21,0,0,0,0,0,0,0,0,0,0,0,0,0,0,0,0,
149,9.162,11.97,7.96,19.95,10.85,15.05,4.935,13.8,5.237,15.02,2.145,11.61,5.825,11.42,0.7672,4.586,0,0,0,0,0,0,0,0,0,0,0,0,0,0,0,0,
150,4.973,5.915,5.984,17.56,10.81,14.72,5.34,7.417,5.427,16.38,3.22,7.966,6.027,8.876,-0.1724,1.592,0,0,0,0,0,0,0,0,0,0,0,0,0,0,0,0,
151,0.3153,4.813,4.275,13.47,10.13,11.66,5.013,3.664,5.484,13.24,2.429,4.979,4.349,5.884,-1.957,0.0827,0,0,0,0,0,0,0,0,0,0,0,0,0,0,0,0,
152,-4.137,1.44,1.485,9.501,7.517,8.112,4.772,4.303,5.275,10.05,0.8909,6.042,4.332,7.278,-2.551,1.897,0,0,0,0,0,0,0,0,0,0,0,0,0,0,0,0,
153,-8.527,-6.497,-1.013,4.8,2.719,3.438,3.616,1.309,3.412,8.146,-1.383,6.564,2.677,6.987,-4.276,1.845,0,0,0,0,0,0,0,0,0,0,0,0,0,0,0,0,
154,-11.09,-11.49,-1.018,0.3735,-0.0589,0.5515,2.792,0.0154,0.5727,5.144,-2.463,7.172,0.9501,6.124,-4.327,1.786,0,0,0,0,0,0,0,0,0,0,0,0,0,0,0,0,
155,-10.95,-12.29,0.8891,4.601,3.06,3.651,5.298,5.666,1.897,5.655,-0.8332,9.146,3.043,8.226,-2.525,2.814,0,0,0,0,0,0,0,0,0,0,0,0,0,0,0,0,
156,-10.87,-12.4,0.7066,9.731,6.104,6.816,5.84,8.263,4.26,8.624,-0.7735,6.771,1.706,5.747,-4.911,-1.176,0,0,0,0,0,0,0,0,0,0,0,0,0,0,0,0,
157,-11.61,-12.02,-2.283,3.896,4.33,5.01,2.096,4.782,0.6107,6.254,-3.033,1.745,-4.107,-0.6046,-8.376,-6.013,0,0,0,0,0,0,0,0,0,0,0,0,0,0,0,0,
158,-11.84,-11.31,-3.585,2.467,1.787,2.219,0.8512,1.652,-4.272,1.189,-4.656,-0.2235,-5.566,-2.878,-8.405,-6.618,0,0,0,0,0,0,0,0,0,0,0,0,0,0,0,0,
159,-13.43,-11.6,-1.924,10.46,0.3727,0.443,2.357,1.819,-4.504,-0.3075,-5.297,-0.4408,-2.824,-2.168,-6.396,-6.458,0,0,0,0,0,0,0,0,0,0,0,0,0,0,0,0,
160,-15.57,-13.11,-0.5709,9.537,-0.6854,-0.538,3.158,6.04,-2.811,0.9147,-3.834,0.0307,-0.4677,-0.7105,-2.917,-4.879,0,0,0,0,0,0,0,0,0,0,0,0,0,0,0,0,
161,-15.7,-15.76,-1.116,4.794,-1.161,-0.0305,4.234,7.444,-1.399,2.477,-1.435,-0.1413,0.5155,-0.0635,-2.9,-3.196,0,0,0,0,0,0,0,0,0,0,0,0,0,0,0,0,
162,-18.61,-20.48,-4.023,5.552,-3.021,-0.6424,2.751,0.095,-1.552,2.091,-3.077,-2.76,-1.859,-2.919,-8.498,-4.671,0,0,0,0,0,0,0,0,0,0,0,0,0,0,0,0,
163,-25.66,-26.95,-9.05,-1.069,-5.986,-3.276,-2.465,-4.701,-4.868,-0.9148,-7.58,-3.324,-6.062,-4.655,-11.3,-4.409,0,0,0,0,0,0,0,0,0,0,0,0,0,0,0,0,
164,-27.86,-29.75,-11.85,-9.894,-5.94,-4.085,-4.093,-0.0802,-7.163,-1.836,-8.177,-0.6012,-6.22,-1.494,-8.829,-1.344,0,0,0,0,0,0,0,0,0,0,0,0,0,0,0,0,
165,-25.45,-26.23,-11.21,-6.656,-4.131,-3.757,-2.308,2.196,-5.404,0.5896,-5.5,-1.029,-3.843,-0.1203,-7.576,-1.723,0,0,0,0,0,0,0,0,0,0,0,0,0,0,0,0,
166,-27.78,-25.1,-12.36,-3.343,-5.383,-6.438,-3.808,-2.317,-4.865,-0.6638,-5.716,-4.686,-4.274,-3.941,-8.902,-5.276,0,0,0,0,0,0,0,0,0,0,0,0,0,0,0,0,
167,-30.77,-28.54,-12.62,-5.736,-6.48,-7.855,-3.194,-3.975,-6.103,-5.21,-4.933,-4.668,-3.361,-5.229,-6.847,-4.448,0,0,0,0,0,0,0,0,0,0,0,0,0,0,0,0,
168,-25.77,-25.57,-5.42,-2.837,-1.615,-2.182,4.943,0.2589,-1.857,-2.812,3.287,-0.248,3.411,0.3468,0.5124,2.393,0,0,0,0,0,0,0,0,0,0,0,0,0,0,0,0,
169,-19.47,-19.03,2.149,1.285,4.586,3.857,11.71,4.896,6.414,5.431,11.46,3.351,10.28,6.69,5.853,7.047,0,0,0,0,0,0,0,0,0,0,0,0,0,0,0,0,
170,-19.7,-21.09,3.151,-1.327,5.811,3.766,11.95,7.5,10.94,9.626,12.9,4.801,13.03,8.957,5.896,6.593,0,0,0,0,0,0,0,0,0,0,0,0,0,0,0,0,
171,-22.76,-25.9,2.331,-6.295,4.722,2.066,10.53,7.488,11.59,9.673,12.02,5.571,13.38,8.4,4.939,6.326,0,0,0,0,0,0,0,0,0,0,0,0,0,0,0,0,
172,-25.85,-26.84,0.0082,-9.073,2.953,-0.5983,9.254,4.727,10.41,8.126,10.33,5.082,12.0,6.664,3.512,6.847,0,0,0,0,0,0,0,0,0,0,0,0,0,0,0,0,
173,-29.99,-30.99,-5.276,-8.044,-1.148,-5.653,8.045,4.292,7.141,4.765,7.65,4.752,10.61,5.749,1.651,7.113,0,0,0,0,0,0,0,0,0,0,0,0,0,0,0,0,
174,-32.83,-35.57,-7.185,-5.937,-4.133,-6.857,7.862,7.616,4.799,3.8,6.843,6.58,10.4,6.713,0.9635,7.236,0,0,0,0,0,0,0,0,0,0,0,0,0,0,0,0,
175,-33.14,-34.33,-6.004,-7.705,-4.691,-5.518,6.809,7.566,4.785,5.274,5.674,7.375,8.126,6.104,-1.333,3.936,0,0,0,0,0,0,0,0,0,0,0,0,0,0,0,0,
176,-33.49,-34.36,-7.631,-9.893,-6.87,-7.948,4.328,3.973,3.267,3.734,2.047,5.004,3.874,2.809,-5.665,-1.336,0,0,0,0,0,0,0,0,0,0,0,0,0,0,0,0,
177,-32.89,-34.46,-8.32,-7.612,-8.73,-8.73,3.579,3.177,0.0782,1.276,-0.2099,2.801,1.74,1.426,-7.284,-2.076,0,0,0,0,0,0,0,0,0,0,0,0,0,0,0,0,
178,-30.64,-27.94,-6.373,-3.329,-7.623,-6.444,3.847,4.558,-1.23,1.415,-0.4842,2.772,1.201,2.406,-5.351,0.6775,0,0,0,0,0,0,0,0,0,0,0,0,0,0,0,0,
179,-31.25,-24.5,-8.14,-2.496,-7.762,-7.576,1.796,5.868,-1.359,0.9953,-0.225,3.873,1.39,2.517,-2.733,1.821,0,0,0,0,0,0,0,0,0,0,0,0,0,0,0,0,
180,-31.78,-26.46,-9.486,-6.197,-7.332,-6.62,1.804,6.436,-0.6303,0.359,3.09,4.842,5.224,3.393,0.386,2.896,0,0,0,0,0,0,0,0,0,0,0,0,0,0,0,0,
181,-26.24,-22.78,-4.508,-6.617,-2.498,-0.2074,6.606,4.534,2.731,3.14,6.993,3.616,9.269,5.088,3.407,5.16,0,0,0,0,0,0,0,0,0,0,0,0,0,0,0,0,
182,-22.2,-18.89,-2.224,-2.851,-0.8898,1.573,7.246,3.466,4.525,6.265,5.885,1.369,7.908,4.522,3.588,5.139,0,0,0,0,0,0,0,0,0,0,0,0,0,0,0,0,
183,-24.75,-22.57,-6.467,-5.158,-5.266,-2.166,2.489,5.202,2.191,6.118,4.079,2.834,5.817,4.275,2.607,4.769,0,0,0,0,0,0,0,0,0,0,0,0,0,0,0,0,
184,-28.79,-27.26,-10.57,-9.85,-8.718,-5.575,0.4027,4.753,-0.2532,4.278,4.558,5.262,5.891,4.641,2.675,5.967,0,0,0,0,0,0,0,0,0,0,0,0,0,0,0,0,
185,-34.02,-30.53,-13.61,-9.409,-10.71,-9.067,-0.8275,3.391,-2.998,1.265,2.305,3.2,4.505,2.073,2.183,4.527,0,0,0,0,0,0,0,0,0,0,0,0,0,0,0,0,
186,-35.89,-30.82,-12.89,-10.3,-9.553,-8.787,-1.776,5.512,-4.2,-1.083,0.1984,1.256,4.455,0.9675,1.926,2.575,0,0,0,0,0,0,0,0,0,0,0,0,0,0,0,0,
187,-30.17,-26.89,-7.407,-11.16,-3.423,-3.624,1.7,6.989,0.4497,0.7117,1.741,2.071,6.507,3.344,1.38,2.768,0,0,0,0,0,0,0,0,0,0,0,0,0,0,0,0,
188,-27.82,-27.76,-6.117,-7.731,-1.306,-1.576,4.784,5.549,3.472,3.674,3.023,1.787,6.886,4.207,0.6476,2.683,0,0,0,0,0,0,0,0,0,0,0,0,0,0,0,0,
189,-29.09,-29.7,-6.992,-6.748,-2.774,-0.8164,6.473,5.343,2.486,5.493,6.501,3.554,9.745,5.661,5.47,6.552,0,0,0,0,0,0,0,0,0,0,0,0,0,0,0,0,
190,-25.72,-23.47,-4.05,-6.94,0.4452,2.911,8.902,7.333,6.197,8.34,10.89,8.05,13.87,9.222,10.34,12.68,0,0,0,0,0,0,0,0,0,0,0,0,0,0,0,0,
191,-26.94,-22.78,-6.128,-5.96,0.9231,2.084,5.311,8.452,8.606,8.695,6.821,7.165,10.24,9.036,5.608,10.93,0,0,0,0,0,0,0,0,0,0,0,0,0,0,0,0,
192,-32.75,-30.77,-12.25,-7.905,-4.114,-2.51,-0.8967,7.098,2.976,4.806,0.7505,2.412,4.403,5.942,0.8015,6.164,0,0,0,0,0,0,0,0,0,0,0,0,0,0,0,0,
193,-28.86,-29.12,-9.988,-6.368,-3.316,-0.6203,1.191,7.724,0.6625,3.951,3.809,2.608,6.351,5.91,3.851,6.791,0,0,0,0,0,0,0,0,0,0,0,0,0,0,0,0,
194,-21.43,-21.29,-4.202,-0.2654,0.5896,4.792,5.683,13.4,4.428,7.85,8.505,6.344,10.28,8.061,6.096,7.79,0,0,0,0,0,0,0,0,0,0,0,0,0,0,0,0,
195,-21.32,-19.85,-5.347,0.6975,-0.7735,5.565,3.581,15.87,4.516,10.17,6.034,6.827,8.282,7.692,3.155,5.81,0,0,0,0,0,0,0,0,0,0,0,0,0,0,0,0,
196,-22.58,-19.31,-9.225,-0.0364,-1.957,4.197,-1.024,11.57,1.038,8.959,0.8413,4.14,3.719,4.528,-1.302,3.348,0,0,0,0,0,0,0,0,0,0,0,0,0,0,0,0,
197,-23.16,-18.67,-10.81,0.7475,-1.656,3.102,-3.679,8.9,-1.488,6.272,-2.101,2.367,1.387,1.902,-4.775,1.016,0,0,0,0,0,0,0,0,0,0,0,0,0,0,0,0,
198,-28.4,-23.71,-14.07,-3.546,-5.703,-1.003,-6.127,7.729,-3.445,2.718,-4.254,2.199,-0.0614,0.6438,-5.51,-0.1843,0,0,0,0,0,0,0,0,0,0,0,0,0,0,0,0,
199,-34.15,-29.81,-17.49,-8.665,-9.115,-5.086,-7.774,4.049,-4.826,0.0784,-5.545,3.212,-1.298,0.2235,-3.753,1.21,0,0,0,0,0,0,0,0,0,0,0,0,0,0,0,0,
200,-32.46,-30.69,-13.59,-8.188,-6.423,-3.666,-4.91,3.047,-4.269,0.7809,-3.26,5.416,0.4517,1.319,-1.978,3.256,0,0,0,0,0,0,0,0,0,0,0,0,0,0,0,0,
201,-28.4,-27.68,-8.477,-6.736,-4.083,-1.28,-0.487,5.639,-1.516,2.697,-0.1325,5.589,3.92,2.227,-0.6936,3.043,0,0,0,0,0,0,0,0,0,0,0,0,0,0,0,0,
202,-28.33,-23.47,-8.109,-4.653,-3.797,-0.768,0.6032,8.821,1.38,3.362,0.8158,2.648,5.333,1.327,0.6753,1.26,0,0,0,0,0,0,0,0,0,0,0,0,0,0,0,0,
203,-24.63,-17.4,-2.23,1.794,0.3262,2.969,2.154,12.47,2.99,4.671,2.68,1.442,5.604,1.051,1.155,0.3672,0,0,0,0,0,0,0,0,0,0,0,0,0,0,0,0,
204,-20.93,-14.93,3.332,4.346,3.947,6.066,4.526,11.65,5.081,6.388,4.867,3.72,6.219,2.88,1.589,1.587,0,0,0,0,0,0,0,0,0,0,0,0,0,0,0,0,
205,-29.79,-23.25,-5.466,-4.085,1.229,2.882,1.827,6.124,6.367,6.239,3.57,5.004,5.348,4.173,2.207,3.107,0,0,0,0,0,0,0,0,0,0,0,0,0,0,0,0,
206,-33.49,-27.28,-10.44,-9.607,-0.7411,1.327,-1.626,3.856,3.974,5.472,0.7471,2.397,2.433,1.923,-0.9389,0.989,0,0,0,0,0,0,0,0,0,0,0,0,0,0,0,0,
207,-17.78,-13.72,0.0494,-1.202,1.822,4.644,0.1986,5.067,1.356,4.677,-0.7169,-0.5058,0.1391,-1.159,-4.267,-1.104,0,0,0,0,0,0,0,0,0,0,0,0,0,0,0,0,
208,-6.301,-1.956,5.757,9.024,3.51,6.368,2.748,8.03,1.52,4.251,-0.4955,1.013,1.232,1.078,-0.9319,3.517,0,0,0,0,0,0,0,0,0,0,0,0,0,0,0,0,
209,-6.392,-1.406,4.56,12.71,4.746,7.768,3.453,13.27,2.637,7.051,0.7521,5.239,4.929,6.307,2.24,8.692,0,0,0,0,0,0,0,0,0,0,0,0,0,0,0,0,
210,-2.276,1.418,8.358,13.08,7.435,10.28,4.442,15.08,4.454,10.62,0.9757,7.26,7.06,7.037,0.327,7.74,0,0,0,0,0,0,0,0,0,0,0,0,0,0,0,0,
211,0.1873,2.119,9.964,8.663,7.832,9.668,4.824,12.55,6.185,10.02,0.6428,5.688,6.009,4.548,-0.7008,5.356,0,0,0,0,0,0,0,0,0,0,0,0,0,0,0,0,
212,-5.76,-5.059,4.939,2.5,5.346,7.567,3.548,10.79,5.438,7.494,1.216,3.01,4.018,2.715,-1.632,3.268,0,0,0,0,0,0,0,0,0,0,0,0,0,0,0,0,
213,-11.9,-10.1,-1.081,0.7148,1.919,5.431,0.6482,8.523,2.95,5.264,0.5543,1.552,1.627,-0.5534,-5.256,-0.5456,0,0,0,0,0,0,0,0,0,0,0,0,0,0,0,0,
214,-17.91,-13.58,-7.355,-0.4525,-2.728,0.6505,-4.079,4.91,-0.3983,1.372,-2.591,-0.8047,-2.002,-5.409,-9.259,-4.53,0,0,0,0,0,0,0,0,0,0,0,0,0,0,0,0,
215,-24.49,-18.77,-13.19,-3.666,-8.144,-4.511,-9.379,1.486,-5.332,-2.756,-7.324,-5.076,-5.809,-8.962,-13.59,-8.348,0,0,0,0,0,0,0,0,0,0,0,0,0,0,0,0,
216,-27.45,-20.3,-17.55,-7.016,-13.34,-8.206,-12.99,-2.311,-10.33,-5.328,-11.61,-6.44,-8.4,-10.8,-15.79,-10.76,0,0,0,0,0,0,0,0,0,0,0,0,0,0,0,0,
217,-27.11,-19.1,-19.25,-10.68,-16.86,-11.95,-13.26,-3.251,-12.75,-8.046,-12.19,-4.859,-9.627,-11.72,-14.08,-9.54,0,0,0,0,0,0,0,0,0,0,0,0,0,0,0,0,
218,-26.07,-19.99,-17.09,-14.41,-18.51,-15.53,-11.84,-1.46,-13.67,-11.2,-11.39,-5.559,-10.92,-13.35,-13.74,-8.485,0,0,0,0,0,0,0,0,0,0,0,0,0,0,0,0,
219,-27.83,-23.51,-15.81,-17.18,-20.32,-18.32,-11.27,-2.43,-15.78,-13.66,-12.36,-7.339,-12.25,-15.37,-15.04,-10.19,0,0,0,0,0,0,0,0,0,0,0,0,0,0,0,0,
220,-30.55,-25.54,-16.2,-16.79,-19.84,-17.86,-9.841,-4.25,-16.24,-14.01,-11.25,-8.608,-11.37,-15.58,-14.4,-11.55,0,0,0,0,0,0,0,0,0,0,0,0,0,0,0,0,
221,-28.72,-24.85,-14.83,-14.67,-16.27,-15.25,-7.83,-6.545,-13.6,-12.66,-9.937,-12.72,-11.05,-17.46,-14.95,-13.27,0,0,0,0,0,0,0,0,0,0,0,0,0,0,0,0,
222,-26.35,-26.08,-14.72,-15.81,-16.11,-17.1,-8.227,-12.42,-14.08,-14.6,-12.87,-16.36,-14.02,-21.96,-18.03,-15.6,0,0,0,0,0,0,0,0,0,0,0,0,0,0,0,0,
223,-25.52,-24.39,-14.75,-16.24,-17.55,-19.59,-8.455,-13.34,-16.43,-18.72,-13.23,-14.1,-15.09,-21.54,-19.78,-13.49,0,0,0,0,0,0,0,0,0,0,0,0,0,0,0,0,
224,-22.71,-18.17,-11.65,-14.73,-14.78,-16.57,-6.896,-7.464,-14.09,-17.79,-9.809,-11.41,-13.35,-17.45,-19.42,-9.42,0,0,0,0,0,0,0,0,0,0,0,0,0,0,0,0,
225,-22.39,-21.04,-10.04,-18.79,-12.82,-15.09,-6.141,-8.664,-11.81,-14.71,-9.976,-12.57,-12.46,-16.63,-16.58,-8.484,0,0,0,0,0,0,0,0,0,0,0,0,0,0,0,0,
226,-25.22,-28.02,-11.0,-22.56,-14.29,-16.83,-5.882,-15.08,-12.86,-15.14,-10.4,-12.63,-10.2,-16.5,-10.65,-7.019,0,0,0,0,0,0,0,0,0,0,0,0,0,0,0,0,
227,-27.32,-26.24,-14.02,-19.29,-15.65,-16.06,-7.545,-13.83,-12.92,-15.55,-7.983,-11.07,-7.457,-15.54,-6.654,-5.227,0,0,0,0,0,0,0,0,0,0,0,0,0,0,0,0,
228,-31.28,-26.5,-20.41,-18.52,-17.62,-16.13,-12.09,-9.476,-13.66,-14.86,-8.24,-10.77,-7.865,-16.03,-7.24,-6.398,0,0,0,0,0,0,0,0,0,0,0,0,0,0,0,0,
229,-33.17,-30.37,-23.47,-22.0,-18.3,-17.56,-13.47,-9.101,-15.51,-15.68,-9.817,-9.081,-7.506,-14.76,-7.304,-5.547,0,0,0,0,0,0,0,0,0,0,0,0,0,0,0,0,
230,-28.17,-26.16,-20.09,-21.08,-14.2,-13.96,-9.996,-7.207,-13.44,-15.1,-7.899,-5.161,-4.491,-10.51,-5.541,-1.389,0,0,0,0,0,0,0,0,0,0,0,0,0,0,0,0,
231,-23.67,-21.56,-16.73,-16.18,-10.4,-9.263,-7.08,-2.979,-9.734,-11.31,-5.358,-2.891,-3.808,-8.07,-6.484,-0.2131,0,0,0,0,0,0,0,0,0,0,0,0,0,0,0,0,
232,-23.31,-24.18,-15.56,-13.63,-10.96,-10.13,-7.184,-2.607,-10.0,-8.705,-6.058,-3.375,-6.07,-9.141,-10.12,-3.057,0,0,0,0,0,0,0,0,0,0,0,0,0,0,0,0,
233,-23.18,-25.63,-15.11,-15.44,-10.59,-11.08,-8.357,-4.162,-11.31,-8.699,-7.374,-3.798,-6.452,-9.607,-11.8,-4.931,0,0,0,0,0,0,0,0,0,0,0,0,0,0,0,0,
234,-22.38,-22.72,-14.38,-17.48,-7.604,-7.896,-7.959,-2.543,-9.044,-7.984,-6.242,-2.621,-5.338,-7.434,-11.3,-3.745,0,0,0,0,0,0,0,0,0,0,0,0,0,0,0,0,
235,-22.06,-20.85,-13.38,-17.66,-8.272,-6.896,-7.322,-0.6275,-7.749,-7.257,-5.676,-1.462,-7.03,-6.225,-11.95,-3.327,0,0,0,0,0,0,0,0,0,0,0,0,0,0,0,0,
236,-22.38,-20.9,-13.15,-17.19,-9.974,-7.887,-7.058,-0.0205,-9.622,-7.252,-5.968,-0.7886,-7.613,-5.544,-11.32,-3.959,0,0,0,0,0,0,0,0,0,0,0,0,0,0,0,0,
237,-21.2,-18.54,-11.37,-12.62,-5.215,-4.192,-3.476,2.416,-6.902,-3.805,-3.635,-0.0124,-3.303,-2.668,-7.55,-2.481,0,0,0,0,0,0,0,0,0,0,0,0,0,0,0,0,
238,-19.34,-14.47,-8.537,-6.629,-0.895,-0.6393,-0.2034,3.804,-1.351,0.0036,-2.402,-0.1031,-1.065,-1.874,-6.181,-3.212,0,0,0,0,0,0,0,0,0,0,0,0,0,0,0,0,
239,-20.39,-13.5,-9.167,-8.208,-3.236,-3.03,-2.51,2.09,-1.584,-2.053,-4.537,-0.5538,-2.933,-4.147,-7.119,-6.995,0,0,0,0,0,0,0,0,0,0,0,0,0,0,0,0,
240,-21.8,-15.66,-10.97,-12.29,-5.876,-5.945,-5.687,1.658,-4.524,-4.985,-5.352,-0.8405,-3.248,-4.45,-5.221,-5.957,0,0,0,0,0,0,0,0,0,0,0,0,0,0,0,0,
241,-21.21,-18.26,-10.59,-10.4,-6.57,-5.099,-6.168,1.884,-6.108,-3.939,-4.291,-0.6708,-0.8136,-2.416,-2.233,-0.5618,0,0,0,0,0,0,0,0,0,0,0,0,0,0,0,0,
242,-19.56,-17.26,-8.666,-6.984,-5.209,-1.232,-3.686,1.721,-5.113,-0.8076,-2.411,1.866,3.24,0.557,-0.587,2.972,0,0,0,0,0,0,0,0,0,0,0,0,0,0,0,0,
243,-16.05,-11.12,-5.49,-6.492,-0.9233,2.281,0.5446,4.084,0.1347,2.867,-0.3716,3.812,5.396,2.938,-0.1238,3.558,0,0,0,0,0,0,0,0,0,0,0,0,0,0,0,0,
244,-13.24,-6.677,-3.734,-6.575,1.042,2.322,0.569,5.291,2.985,4.004,-0.241,2.788,3.869,2.561,-0.9086,2.304,0,0,0,0,0,0,0,0,0,0,0,0,0,0,0,0,
245,-13.21,-6.81,-4.484,-4.964,0.9703,2.174,-2.375,2.247,1.691,2.731,0.1242,2.52,2.993,0.9003,-2.648,-0.4554,0,0,0,0,0,0,0,0,0,0,0,0,0,0,0,0,
246,-14.49,-8.008,-5.829,-4.224,1.037,2.042,-3.362,-0.4067,1.913,2.136,0.6928,1.076,1.205,-1.518,-6.405,-4.657,0,0,0,0,0,0,0,0,0,0,0,0,0,0,0,0,
247,-17.47,-10.03,-8.646,-7.296,-2.326,-0.6973,-4.587,0.5109,-0.4337,-0.2138,-0.6633,-1.17,-2.023,-3.184,-7.939,-5.489,0,0,0,0,0,0,0,0,0,0,0,0,0,0,0,0,
248,-17.64,-9.849,-9.728,-8.198,-2.71,1.092,-4.077,5.27,-3.313,-1.513,0.6212,3.475,0.6516,0.4873,-2.665,0.0739,0,0,0,0,0,0,0,0,0,0,0,0,0,0,0,0,
249,-11.91,-5.439,-5.037,-3.256,4.358,8.87,-0.5952,9.171,2.466,3.877,4.081,8.12,4.72,4.277,0.4715,2.695,0,0,0,0,0,0,0,0,0,0,0,0,0,0,0,0,
250,-8.276,-2.131,-0.7462,-1.751,7.925,12.13,0.2717,6.066,8.806,7.679,4.611,4.07,3.057,1.472,-2.039,-0.9594,0,0,0,0,0,0,0,0,0,0,0,0,0,0,0,0,
251,-8.453,-0.4767,-0.3755,-5.978,6.543,9.722,1.148,2.59,8.334,4.42,6.096,2.142,3.23,-0.3411,-0.1217,-1.195,0,0,0,0,0,0,0,0,0,0,0,0,0,0,0,0,
252,-6.938,1.34,0.9666,-5.337,7.331,7.642,4.388,4.768,8.918,2.986,8.83,5.565,6.616,2.772,4.354,1.569,0,0,0,0,0,0,0,0,0,0,0,0,0,0,0,0,
253,-6.251,0.9709,2.196,-0.4377,7.001,6.41,3.778,4.459,10.76,4.915,6.291,3.898,5.392,2.994,3.315,0.3825,0,0,0,0,0,0,0,0,0,0,0,0,0,0,0,0,
254,-8.497,0.1332,0.4744,-2.357,4.338,5.379,1.841,1.206,8.431,4.069,3.103,1.147,2.716,1.382,2.138,-0.9859,0,0,0,0,0,0,0,0,0,0,0,0,0,0,0,0,
255,-9.03,0.742,0.3277,-7.822,4.678,5.234,4.792,2.916,6.893,3.515,6.368,4.824,4.699,4.446,4.645,1.121,0,0,0,0,0,0,0,0,0,0,0,0,0,0,0,0,
256,-6.001,1.446,2.723,-5.794,7.67,6.868,8.145,5.504,10.33,6.607,9.831,7.814,7.31,7.424,3.991,1.603,0,0,0,0,0,0,0,0,0,0,0,0,0,0,0,0,
257,-1.855,4.386,3.843,-0.0396,10.6,9.853,8.164,4.867,13.69,8.294,8.411,6.912,6.782,6.146,0.2363,-0.2892,0,0,0,0,0,0,0,0,0,0,0,0,0,0,0,0,
258,1.1,7.534,5.115,1.959,12.47,11.04,8.21,5.252,13.94,7.46,7.734,6.721,6.241,5.172,0.1806,0.0923,0,0,0,0,0,0,0,0,0,0,0,0,0,0,0,0,
259,1.323,4.515,6.794,1.653,10.89,8.909,7.884,4.282,12.65,6.886,8.041,4.442,5.408,3.526,0.1196,-0.8535,0,0,0,0,0,0,0,0,0,0,0,0,0,0,0,0,
260,-0.7739,0.0844,5.737,-1.637,6.346,5.048,4.576,-0.3225,9.051,3.796,4.757,-0.2478,1.267,-1.247,-3.755,-5.42,0,0,0,0,0,0,0,0,0,0,0,0,0,0,0,0,
261,-1.619,1.017,5.367,-6.057,4.859,2.918,3.449,-1.094,5.425,-0.4425,4.423,0.9479,-0.1553,-1.45,-3.271,-4.484,0,0,0,0,0,0,0,0,0,0,0,0,0,0,0,0,
262,0.159,2.807,8.37,-4.313,8.518,5.08,7.608,3.11,7.87,1.479,10.35,6.064,4.79,4.408,0.9165,1.306,0,0,0,0,0,0,0,0,0,0,0,0,0,0,0,0,
263,0.7517,2.562,9.159,-1.711,10.66,7.086,9.371,4.066,12.23,5.593,10.9,5.633,6.467,5.403,-0.747,1.091,0,0,0,0,0,0,0,0,0,0,0,0,0,0,0,0,
264,-1.201,1.918,6.168,-4.601,7.714,4.793,6.867,1.45,10.58,3.826,5.1,1.747,2.358,0.6369,-4.589,-3.196,0,0,0,0,0,0,0,0,0,0,0,0,0,0,0,0,
265,-1.09,1.15,5.172,-2.923,5.51,3.478,6.486,2.216,7.429,1.15,3.965,0.636,0.7762,-0.9218,-4.725,-4.961,0,0,0,0,0,0,0,0,0,0,0,0,0,0,0,0,
266,2.418,2.783,6.747,4.038,6.849,5.623,6.854,5.408,7.443,2.303,5.547,1.104,1.625,0.6721,-3.641,-5.091,0,0,0,0,0,0,0,0,0,0,0,0,0,0,0,0,
267,2.291,4.309,5.44,3.049,7.499,6.448,5.645,4.517,7.112,3.041,5.239,1.276,2.103,1.633,-1.102,-4.423,0,0,0,0,0,0,0,0,0,0,0,0,0,0,0,0,
268,-2.034,2.64,2.706,-1.012,6.725,5.893,6.04,1.465,7.244,3.059,6.419,1.373,3.684,2.571,2.162,-3.29,0,0,0,0,0,0,0,0,0,0,0,0,0,0,0,0,
269,-1.269,4.477,3.647,1.775,6.72,6.199,6.557,1.986,8.98,3.696,6.819,1.321,4.319,3.007,3.423,-1.762,0,0,0,0,0,0,0,0,0,0,0,0,0,0,0,0,
270,0.0891,6.321,4.093,1.156,7.591,7.13,6.303,3.801,9.324,3.44,6.255,2.19,4.985,3.91,5.787,1.225,0,0,0,0,0,0,0,0,0,0,0,0,0,0,0,0,
271,-5.422,1.514,2.244,-4.18,9.656,9.081,7.599,3.358,10.69,5.077,8.626,2.622,6.78,5.291,7.397,1.263,0,0,0,0,0,0,0,0,0,0,0,0,0,0,0,0,
272,-5.066,1.857,4.271,-0.3422,9.856,8.29,6.383,1.865,11.35,6.617,6.445,-0.9431,2.31,1.598,1.32,-5.179,0,0,0,0,0,0,0,0,0,0,0,0,0,0,0,0,
273,2.478,7.547,7.075,6.608,5.452,3.023,2.756,0.8773,5.291,1.626,-0.9284,-4.39,-4.606,-3.463,-5.327,-9.493,0,0,0,0,0,0,0,0,0,0,0,0,0,0,0,0,
274,1.875,5.322,5.652,5.147,3.801,2.291,3.427,2.413,1.949,-1.88,-1.218,-1.612,-2.702,-1.032,-3.064,-5.617,0,0,0,0,0,0,0,0,0,0,0,0,0,0,0,0,
275,-3.24,0.359,3.711,2.072,6.88,6.28,3.983,4.449,7.141,2.589,1.373,1.138,0.1535,2.006,-0.4064,-3.368,0,0,0,0,0,0,0,0,0,0,0,0,0,0,0,0,
276,-5.752,-2.688,1.516,-0.6225,5.304,4.007,0.3379,0.5379,7.856,3.816,-1.523,-2.962,-3.379,-1.396,-4.569,-8.329,0,0,0,0,0,0,0,0,0,0,0,0,0,0,0,0,
277,-8.756,-7.76,-0.5058,-6.395,1.038,-1.555,0.2018,-5.467,3.349,-0.9383,-2.799,-7.466,-5.779,-5.111,-9.544,-12.37,0,0,0,0,0,0,0,0,0,0,0,0,0,0,0,0,
278,-8.73,-8.864,0.7784,-8.197,0.8691,-2.612,2.715,-5.646,2.163,-3.206,-2.647,-7.298,-7.499,-7.458,-13.13,-12.8,0,0,0,0,0,0,0,0,0,0,0,0,0,0,0,0,
279,-6.982,-5.726,1.269,-4.492,-0.0626,-3.316,1.454,-4.323,-0.2388,-4.372,-6.587,-6.968,-10.74,-9.771,-15.76,-12.78,0,0,0,0,0,0,0,0,0,0,0,0,0,0,0,0,
280,-9.187,-5.095,-0.7479,-1.895,-1.973,-4.676,0.0802,-3.722,-3.127,-6.353,-8.471,-7.905,-9.983,-8.486,-14.95,-11.43,0,0,0,0,0,0,0,0,0,0,0,0,0,0,0,0,
281,-10.27,-4.173,-1.458,0.0524,0.5091,-2.682,0.4819,0.5983,-0.1949,-4.926,-5.892,-6.953,-7.374,-4.718,-12.31,-9.318,0,0,0,0,0,0,0,0,0,0,0,0,0,0,0,0,
282,-8.213,-2.248,-1.276,1.383,3.367,-0.1494,0.3864,1.393,3.04,-1.353,-4.39,-5.397,-6.643,-2.599,-10.02,-8.654,0,0,0,0,0,0,0,0,0,0,0,0,0,0,0,0,
283,-7.082,-3.179,0.1491,-3.081,3.084,-0.3411,1.544,-5.524,3.242,-0.2669,-4.194,-5.798,-5.714,-2.953,-8.814,-9.502,0,0,0,0,0,0,0,0,0,0,0,0,0,0,0,0,
284,-6.697,-4.872,2.87,-9.61,2.642,-1.642,3.749,-6.649,4.04,-2.038,-2.748,-5.909,-5.128,-4.746,-9.023,-9.907,0,0,0,0,0,0,0,0,0,0,0,0,0,0,0,0,
285,-6.57,-4.882,2.315,-8.741,2.095,-2.382,4.186,-1.328,4.216,-4.085,-1.684,-5.298,-4.917,-5.588,-8.212,-7.694,0,0,0,0,0,0,0,0,0,0,0,0,0,0,0,0,
286,-5.938,-3.604,0.0045,-3.416,0.9918,-2.328,2.503,-3.9,2.477,-5.171,-3.383,-6.587,-4.032,-5.295,-6.767,-5.738,0,0,0,0,0,0,0,0,0,0,0,0,0,0,0,0,
287,-3.498,-2.073,1.008,-2.167,1.554,-1.788,1.117,-9.299,1.239,-5.552,-4.401,-6.802,-3.397,-5.074,-5.476,-5.879,0,0,0,0,0,0,0,0,0,0,0,0,0,0,0,0,
288,-2.343,-2.549,1.826,-3.365,1.991,-1.373,1.685,-6.656,1.12,-4.74,-2.401,-3.839,-2.193,-3.627,-2.484,-4.44,0,0,0,0,0,0,0,0,0,0,0,0,0,0,0,0,
289,-4.314,-4.019,-0.3555,-3.583,0.1748,-1.211,1.468,-2.7,1.012,-2.974,-2.583,-1.98,-0.4517,-0.8901,-0.6133,-2.095,0,0,0,0,0,0,0,0,0,0,0,0,0,0,0,0,
290,-5.637,-3.115,-0.9582,-4.137,0.0683,-1.042,0.1266,-1.538,2.003,-0.5428,-5.12,-2.197,0.0523,0.6,-1.319,-1.95,0,0,0,0,0,0,0,0,0,0,0,0,0,0,0,0,
291,-6.451,-3.147,-1.212,-5.394,0.4766,-3.244,-0.1041,-1.401,4.011,0.8075,-5.145,-4.116,-1.07,-1.655,-1.515,-3.484,0,0,0,0,0,0,0,0,0,0,0,0,0,0,0,0,
292,-10.58,-7.492,-4.94,-6.82,-3.885,-8.597,-1.026,-4.168,2.304,-3.294,-4.019,-7.55,-2.546,-5.673,-0.7369,-4.736,0,0,0,0,0,0,0,0,0,0,0,0,0,0,0,0,
293,-12.71,-8.154,-6.247,-6.002,-5.839,-9.754,-1.065,-4.958,-1.132,-8.151,-3.717,-7.852,-2.055,-5.869,-0.1161,-4.523,0,0,0,0,0,0,0,0,0,0,0,0,0,0,0,0,
294,-9.291,-2.387,-3.945,-3.022,-1.476,-5.239,0.4513,-2.991,0.6188,-6.081,-4.612,-6.408,-1.678,-4.643,-2.224,-6.106,0,0,0,0,0,0,0,0,0,0,0,0,0,0,0,0,
295,-9.621,-2.523,-5.567,-3.832,-1.412,-3.95,-1.784,-5.814,2.089,-4.131,-6.698,-7.183,-3.198,-6.026,-4.945,-8.906,0,0,0,0,0,0,0,0,0,0,0,0,0,0,0,0,
296,-12.71,-8.09,-7.508,-5.536,-3.21,-3.46,-2.878,-7.016,-0.6305,-5.891,-6.101,-5.649,-1.389,-4.282,-2.129,-6.842,0,0,0,0,0,0,0,0,0,0,0,0,0,0,0,0,
297,-7.506,-4.029,-3.295,-0.9728,2.414,2.321,2.017,-1.284,0.9606,-2.779,-2.703,-2.582,2.396,0.4526,0.9988,-3.903,0,0,0,0,0,0,0,0,0,0,0,0,0,0,0,0,
298,-0.2575,4.924,0.6839,2.896,6.364,4.99,3.585,1.597,5.147,2.16,-0.7786,-2.468,2.41,1.772,-0.0136,-3.518,0,0,0,0,0,0,0,0,0,0,0,0,0,0,0,0,
299,-0.4921,3.842,0.4691,1.566,4.508,3.28,1.603,1.491,5.292,2.639,0.4232,-0.8804,3.624,3.485,1.917,0.3072,0,0,0,0,0,0,0,0,0,0,0,0,0,0,0,0,
300,-0.955,0.1953,2.142,3.836,7.939,7.884,4.945,4.04,8.257,5.782,3.837,3.119,9.636,9.079,7.061,5.99,0,0,0,0,0,0,0,0,0,0,0,0,0,0,0,0,
301,2.93,5.976,7.167,10.85,15.82,16.41,9.983,7.25,16.76,13.77,8.084,5.719,15.27,14.39,10.39,9.921,0,0,0,0,0,0,0,0,0,0,0,0,0,0,0,0,
302,4.731,13.3,8.875,14.9,18.96,19.87,10.46,10.83,22.08,18.98,8.046,7.002,16.78,16.71,10.52,12.46,0,0,0,0,0,0,0,0,0,0,0,0,0,0,0,0,
303,3.058,13.13,5.808,13.25,17.49,18.41,8.232,10.52,21.14,18.52,3.445,5.321,13.43,14.31,7.032,9.932,0,0,0,0,0,0,0,0,0,0,0,0,0,0,0,0,
304,1.313,8.955,4.552,8.409,14.35,14.91,6.225,3.746,17.38,14.18,0.8235,1.636,8.95,9.197,4.379,5.446,0,0,0,0,0,0,0,0,0,0,0,0,0,0,0,0,
305,0.7617,7.054,6.388,7.086,12.36,13.5,6.409,2.543,14.4,10.6,1.684,2.164,8.818,8.174,5.897,6.222,0,0,0,0,0,0,0,0,0,0,0,0,0,0,0,0,
306,3.705,10.97,7.396,12.06,15.16,16.82,8.377,8.224,14.97,13.06,3.514,6.109,10.75,10.96,8.374,7.873,0,0,0,0,0,0,0,0,0,0,0,0,0,0,0,0,
307,6.453,14.47,7.035,14.76,17.77,17.66,7.953,7.71,16.82,16.72,5.491,7.308,9.815,10.88,9.478,5.376,0,0,0,0,0,0,0,0,0,0,0,0,0,0,0,0,
308,1.58,8.13,4.747,10.64,13.82,12.78,5.184,2.908,15.89,13.18,5.769,4.996,7.665,7.425,8.63,2.885,0,0,0,0,0,0,0,0,0,0,0,0,0,0,0,0,
309,-2.758,1.53,2.232,5.333,9.81,10.6,5.583,1.097,14.72,7.544,6.034,2.917,7.465,5.073,7.069,3.042,0,0,0,0,0,0,0,0,0,0,0,0,0,0,0,0,
310,0.7957,5.158,3.134,2.522,10.15,11.05,7.696,-2.064,15.07,6.312,6.369,2.27,5.883,2.94,5.179,1.566,0,0,0,0,0,0,0,0,0,0,0,0,0,0,0,0,
311,1.275,7.449,3.629,3.444,8.345,8.39,5.605,-6.784,11.92,3.91,2.172,1.033,-0.2808,-1.64,0.9894,-3.22,0,0,0,0,0,0,0,0,0,0,0,0,0,0,0,0,
312,-3.216,4.091,1.402,6.224,5.395,8.042,2.877,-6.732,6.477,0.4912,-1.262,0.4402,-4.263,-3.364,-0.9672,-5.181,0,0,0,0,0,0,0,0,0,0,0,0,0,0,0,0,
313,-3.77,4.908,1.062,6.067,6.66,10.97,4.217,-2.581,5.973,3.112,1.42,3.15,-0.5358,1.298,3.419,-1.277,0,0,0,0,0,0,0,0,0,0,0,0,0,0,0,0,
314,-2.266,6.358,2.441,4.933,8.563,10.06,6.629,1.698,9.57,7.561,4.183,6.824,5.259,6.162,8.209,3.616,0,0,0,0,0,0,0,0,0,0,0,0,0,0,0,0,
315,-1.165,3.586,3.988,3.838,9.616,8.995,9.183,4.886,13.33,9.267,6.062,9.334,8.489,8.2,9.667,5.533,0,0,0,0,0,0,0,0,0,0,0,0,0,0,0,0,
316,0.7765,3.204,7.154,0.699,12.01,11.68,11.87,5.484,16.13,11.47,9.35,11.3,10.27,9.39,11.01,5.602,0,0,0,0,0,0,0,0,0,0,0,0,0,0,0,0,
317,2.348,5.116,10.36,2.38,13.41,13.47,12.57,4.712,16.11,12.71,11.01,11.02,11.02,8.719,13.54,6.708,0,0,0,0,0,0,0,0,0,0,0,0,0,0,0,0,
318,4.76,6.127,12.46,9.694,13.93,15.07,13.38,5.861,15.64,12.06,10.75,7.779,10.48,6.413,14.22,7.282,0,0,0,0,0,0,0,0,0,0,0,0,0,0,0,0,
319,6.883,9.242,12.92,12.71,15.19,16.9,13.72,5.255,17.0,11.88,8.527,4.344,7.344,3.501,10.83,3.658,0,0,0,0,0,0,0,0,0,0,0,0,0,0,0,0,
320,5.526,11.58,9.544,10.82,13.96,14.28,9.589,0.2675,15.19,9.015,3.548,1.854,1.431,-1.075,5.869,-1.482,0,0,0,0,0,0,0,0,0,0,0,0,0,0,0,0,
321,2.814,8.411,5.504,7.164,9.706,9.533,4.925,-2.143,10.17,3.723,-0.7923,0.0356,-3.443,-4.985,1.992,-4.96,0,0,0,0,0,0,0,0,0,0,0,0,0,0,0,0,
322,0.0431,4.974,4.366,3.378,5.922,7.02,3.172,-1.301,6.692,1.062,-2.952,-0.6008,-4.931,-5.375,0.0052,-7.257,0,0,0,0,0,0,0,0,0,0,0,0,0,0,0,0,
323,-2.859,5.296,3.173,2.734,4.19,6.224,2.112,-3.614,4.023,0.5687,-2.499,-0.3956,-2.718,-3.567,1.837,-6.219,0,0,0,0,0,0,0,0,0,0,0,0,0,0,0,0,
324,-3.866,5.18,1.454,0.7622,4.242,6.348,3.561,-6.005,3.784,1.595,1.248,-0.4252,2.011,-1.954,5.13,-2.974,0,0,0,0,0,0,0,0,0,0,0,0,0,0,0,0,
325,-4.085,2.845,1.098,-3.387,3.905,4.84,6.367,-4.544,6.941,2.83,3.381,-1.1,3.767,-2.358,5.01,-3.02,0,0,0,0,0,0,0,0,0,0,0,0,0,0,0,0,
326,-5.251,2.111,0.8169,-1.701,2.675,1.931,5.379,-2.594,7.278,0.6248,2.503,-1.021,2.206,-2.758,4.101,-3.063,0,0,0,0,0,0,0,0,0,0,0,0,0,0,0,0,
327,-5.476,4.468,1.244,2.31,3.158,2.121,4.316,-0.6607,5.823,-0.4545,3.728,1.592,2.67,-0.0294,5.218,2.369,0,0,0,0,0,0,0,0,0,0,0,0,0,0,0,0,
328,-4.809,5.84,2.227,2.499,2.848,1.98,5.434,0.4731,6.178,2.291,4.606,4.597,2.668,2.076,4.629,7.366,0,0,0,0,0,0,0,0,0,0,0,0,0,0,0,0,
329,-6.093,3.889,0.5583,1.356,-1.325,-2.106,3.63,-2.01,3.652,1.809,1.204,4.531,-0.3639,0.5613,3.114,6.29,0,0,0,0,0,0,0,0,0,0,0,0,0,0,0,0,
330,-9.27,0.8049,-2.292,-2.83,-4.691,-4.812,0.6154,-4.97,0.0527,-1.26,-1.782,2.07,-1.755,-1.603,3.466,2.421,0,0,0,0,0,0,0,0,0,0,0,0,0,0,0,0,
331,-11.7,-3.138,-4.323,-8.547,-5.4,-5.845,-1.033,-5.637,-0.3056,-1.927,-3.171,0.0431,-1.954,-3.203,0.9489,-1.123,0,0,0,0,0,0,0,0,0,0,0,0,0,0,0,0,
332,-11.8,-5.802,-6.014,-7.29,-6.143,-6.601,-3.236,-5.507,-1.731,-2.067,-5.884,0.3148,-3.608,-3.836,-3.394,-2.14,0,0,0,0,0,0,0,0,0,0,0,0,0,0,0,0,
333,-9.735,-2.515,-4.347,-3.514,-5.67,-3.778,-3.44,-6.119,-3.31,-2.065,-7.736,1.246,-5.374,-4.309,-2.754,-0.8343,0,0,0,0,0,0,0,0,0,0,0,0,0,0,0,0,
334,-7.614,1.479,-0.6953,-7.524,-4.649,-2.184,-2.687,-9.695,-3.031,-3.184,-8.334,-1.082,-8.579,-8.288,-2.581,-3.526,0,0,0,0,0,0,0,0,0,0,0,0,0,0,0,0,
335,-6.902,-0.1206,-1.305,-12.11,-5.821,-5.177,-5.251,-13.63,-5.994,-7.924,-9.724,-5.411,-12.56,-13.52,-6.531,-9.136,0,0,0,0,0,0,0,0,0,0,0,0,0,0,0,0,
336,-7.01,-1.714,-4.141,-7.202,-7.814,-6.697,-7.185,-13.48,-9.548,-11.55,-10.82,-7.999,-13.58,-15.64,-6.899,-10.17,0,0,0,0,0,0,0,0,0,0,0,0,0,0,0,0,
337,-8.991,-0.2427,-6.06,-1.841,-9.885,-7.974,-7.697,-13.12,-9.324,-12.33,-12.57,-8.77,-13.38,-15.74,-5.821,-9.299,0,0,0,0,0,0,0,0,0,0,0,0,0,0,0,0,
338,-11.93,0.7969,-8.583,-3.224,-11.16,-10.48,-9.886,-13.42,-10.02,-13.08,-15.17,-7.57,-13.27,-13.81,-7.987,-9.967,0,0,0,0,0,0,0,0,0,0,0,0,0,0,0,0,
339,-10.85,1.592,-8.082,-3.57,-9.656,-8.851,-9.247,-10.36,-11.69,-11.5,-14.68,-5.83,-11.44,-10.55,-6.983,-8.855,0,0,0,0,0,0,0,0,0,0,0,0,0,0,0,0,
340,-7.654,0.7237,-4.08,-3.268,-8.233,-6.74,-5.568,-9.018,-10.33,-8.653,-11.76,-5.957,-8.985,-9.382,-2.844,-6.426,0,0,0,0,0,0,0,0,0,0,0,0,0,0,0,0,
341,-8.297,-3.668,-3.27,-6.661,-8.28,-8.198,-3.406,-11.52,-7.35,-8.012,-8.744,-4.195,-5.88,-8.401,0.0899,-2.864,0,0,0,0,0,0,0,0,0,0,0,0,0,0,0,0,
342,-9.165,-4.603,-2.881,-7.439,-6.244,-7.712,0.0565,-10.57,-4.017,-6.257,-3.743,0.6524,-1.036,-4.715,5.311,3.731,0,0,0,0,0,0,0,0,0,0,0,0,0,0,0,0,
343,-7.053,0.6031,0.1331,-6.467,-4.137,-6.392,2.699,-8.682,-1.462,-3.397,-0.2767,1.621,1.033,-2.285,8.88,6.946,0,0,0,0,0,0,0,0,0,0,0,0,0,0,0,0,
344,-9.357,0.3773,-3.648,-9.591,-7.597,-10.54,-2.618,-12.9,-3.344,-5.342,-4.702,-2.584,-3.393,-5.266,2.269,0.9961,0,0,0,0,0,0,0,0,0,0,0,0,0,0,0,0,
345,-15.98,-7.98,-11.72,-11.22,-13.15,-15.69,-8.498,-16.42,-8.156,-10.05,-10.78,-4.185,-8.199,-9.012,-5.516,-4.903,0,0,0,0,0,0,0,0,0,0,0,0,0,0,0,0,
346,-15.22,-9.343,-9.505,-7.028,-11.86,-12.91,-5.377,-11.66,-8.97,-8.404,-9.166,-0.2673,-6.84,-6.64,-3.919,-2.663,0,0,0,0,0,0,0,0,0,0,0,0,0,0,0,0,
347,-7.564,0.0195,-1.586,-0.883,-5.278,-5.236,-0.3728,-6.034,-5.011,-1.242,-5.067,1.367,-4.557,-3.92,-2.319,-1.864,0,0,0,0,0,0,0,0,0,0,0,0,0,0,0,0,
348,-4.031,6.188,-0.3874,1.677,-3.34,-3.126,-1.496,-7.579,-3.396,-0.392,-6.388,-3.416,-7.945,-9.442,-7.418,-8.352,0,0,0,0,0,0,0,0,0,0,0,0,0,0,0,0,
349,-6.162,3.382,-3.962,-3.124,-7.651,-6.97,-6.126,-12.09,-7.568,-7.669,-10.6,-7.494,-12.99,-16.65,-11.37,-13.29,0,0,0,0,0,0,0,0,0,0,0,0,0,0,0,0,
350,-9.696,-1.771,-8.258,-10.17,-12.61,-10.66,-10.27,-15.16,-13.49,-13.06,-13.79,-8.729,-14.54,-18.35,-12.0,-14.51,0,0,0,0,0,0,0,0,0,0,0,0,0,0,0,0,
351,-11.98,-4.067,-11.47,-12.7,-15.98,-14.36,-11.65,-18.07,-16.75,-14.65,-14.76,-11.18,-13.81,-18.48,-11.34,-14.77,0,0,0,0,0,0,0,0,0,0,0,0,0,0,0,0,
352,-13.28,-5.384,-11.95,-13.33,-17.82,-18.52,-11.18,-19.82,-17.15,-16.86,-13.08,-12.36,-13.05,-18.66,-8.566,-12.2,0,0,0,0,0,0,0,0,0,0,0,0,0,0,0,0,
353,-15.92,-7.614,-12.35,-13.27,-17.79,-19.57,-11.61,-19.49,-16.85,-18.41,-10.88,-11.42,-11.85,-16.54,-6.845,-9.277,0,0,0,0,0,0,0,0,0,0,0,0,0,0,0,0,
354,-14.96,-5.915,-11.16,-10.99,-15.5,-16.8,-10.57,-17.65,-15.48,-16.85,-9.337,-10.93,-9.014,-12.8,-6.627,-7.122,0,0,0,0,0,0,0,0,0,0,0,0,0,0,0,0,
355,-9.74,-1.657,-7.404,-11.24,-12.46,-13.44,-8.188,-13.39,-12.11,-13.68,-7.866,-8.82,-6.34,-9.723,-5.416,-3.859,0,0,0,0,0,0,0,0,0,0,0,0,0,0,0,0,
356,-11.29,-2.594,-7.926,-14.08,-12.34,-12.61,-8.583,-11.0,-10.23,-11.86,-6.332,-7.071,-5.403,-9.249,-4.929,-2.417,0,0,0,0,0,0,0,0,0,0,0,0,0,0,0,0,
357,-15.21,-4.795,-10.32,-13.02,-13.64,-13.34,-7.898,-14.13,-10.78,-11.87,-4.546,-8.871,-4.31,-9.948,-4.383,-1.712,0,0,0,0,0,0,0,0,0,0,0,0,0,0,0,0,
358,-10.8,-4.33,-7.578,-12.19,-11.74,-12.48,-4.162,-15.14,-9.884,-11.12,-4.37,-9.249,-3.567,-8.848,-3.68,-0.1779,0,0,0,0,0,0,0,0,0,0,0,0,0,0,0,0,
359,-7.019,-5.083,-4.593,-16.85,-8.956,-11.05,-3.161,-11.15,-7.723,-9.214,-5.602,-7.487,-4.701,-7.776,-5.23,-2.515,0,0,0,0,0,0,0,0,0,0,0,0,0,0,0,0,
360,-8.108,-3.647,-4.545,-17.21,-8.912,-11.1,-3.993,-11.1,-6.727,-8.367,-5.334,-9.238,-6.272,-9.485,-7.492,-7.843,0,0,0,0,0,0,0,0,0,0,0,0,0,0,0,0,
361,-7.469,-0.5051,-4.772,-9.727,-9.934,-10.84,-5.229,-15.21,-7.553,-9.011,-7.169,-13.2,-9.753,-13.39,-12.11,-12.53,0,0,0,0,0,0,0,0,0,0,0,0,0,0,0,0,
362,-8.602,-3.286,-6.901,-7.309,-11.24,-10.23,-10.44,-15.0,-11.51,-10.77,-13.21,-14.15,-15.94,-17.76,-18.33,-16.43,0,0,0,0,0,0,0,0,0,0,0,0,0,0,0,0,
363,-11.82,-6.05,-9.518,-11.53,-13.04,-11.33,-14.59,-12.51,-16.02,-13.16,-16.33,-12.65,-18.69,-19.88,-18.12,-17.62,0,0,0,0,0,0,0,0,0,0,0,0,0,0,0,0,
364,-10.65,-2.506,-8.799,-12.28,-13.66,-13.25,-12.62,-14.54,-16.45,-15.01,-15.11,-11.87,-16.78,-19.54,-15.52,-16.67,0,0,0,0,0,0,0,0,0,0,0,0,0,0,0,0,
365,-10.09,-2.382,-9.525,-12.76,-15.43,-16.9,-12.27,-17.05,-17.01,-17.63,-16.11,-11.2,-18.1,-20.75,-18.92,-17.02,0,0,0,0,0,0,0,0,0,0,0,0,0,0,0,0,
366,-16.47,-9.97,-15.31,-17.57,-22.13,-24.71,-17.09,-15.22,-23.13,-22.57,-19.03,-9.786,-22.75,-22.89,-21.13,-17.74,0,0,0,0,0,0,0,0,0,0,0,0,0,0,0,0,
367,-22.86,-15.22,-18.69,-17.68,-28.34,-30.67,-18.62,-15.1,-28.8,-26.2,-17.14,-9.752,-21.29,-21.32,-15.62,-15.26,0,0,0,0,0,0,0,0,0,0,0,0,0,0,0,0,
368,-22.55,-14.82,-16.64,-14.57,-27.92,-29.54,-15.91,-18.47,-27.83,-24.72,-11.36,-10.14,-14.09,-17.22,-8.877,-9.565,0,0,0,0,0,0,0,0,0,0,0,0,0,0,0,0,
369,-21.15,-16.11,-17.36,-20.08,-25.62,-26.96,-16.67,-16.77,-24.39,-20.25,-9.068,-8.032,-9.573,-13.17,-5.98,-4.79,0,0,0,0,0,0,0,0,0,0,0,0,0,0,0,0,
370,-22.97,-18.37,-20.36,-25.95,-23.87,-24.44,-17.31,-11.81,-21.17,-15.58,-8.025,-5.456,-6.514,-8.249,-4.572,-2.794,0,0,0,0,0,0,0,0,0,0,0,0,0,0,0,0,
371,-22.07,-14.97,-17.04,-19.64,-19.43,-19.69,-12.37,-12.49,-15.93,-11.39,-3.805,-6.25,-3.239,-6.195,-5.38,-3.573,0,0,0,0,0,0,0,0,0,0,0,0,0,0,0,0,
372,-18.04,-9.591,-12.12,-11.89,-17.28,-18.97,-10.99,-14.17,-12.98,-10.58,-4.894,-10.32,-7.14,-11.28,-12.06,-8.93,0,0,0,0,0,0,0,0,0,0,0,0,0,0,0,0,
373,-17.43,-8.195,-13.28,-12.89,-20.11,-22.27,-15.59,-13.17,-16.74,-14.25,-13.06,-14.78,-16.27,-18.12,-20.11,-16.45,0,0,0,0,0,0,0,0,0,0,0,0,0,0,0,0,
374,-16.84,-7.363,-13.52,-15.54,-19.46,-21.0,-15.2,-15.36,-20.5,-17.83,-16.31,-17.07,-19.43,-21.28,-22.71,-21.35,0,0,0,0,0,0,0,0,0,0,0,0,0,0,0,0,
375,-11.27,-3.336,-7.392,-14.44,-14.07,-16.59,-9.698,-15.37,-19.04,-17.92,-13.13,-15.58,-16.78,-21.14,-20.55,-22.07,0,0,0,0,0,0,0,0,0,0,0,0,0,0,0,0,
376,-8.694,-0.6824,-3.031,-13.04,-10.61,-13.66,-6.78,-9.877,-16.05,-15.11,-10.17,-12.18,-14.99,-18.27,-16.83,-19.24,0,0,0,0,0,0,0,0,0,0,0,0,0,0,0,0,
377,-14.1,-4.731,-6.993,-13.8,-10.86,-12.64,-8.848,-11.92,-14.93,-12.89,-10.27,-12.99,-16.38,-17.0,-16.54,-18.95,0,0,0,0,0,0,0,0,0,0,0,0,0,0,0,0,
378,-17.4,-8.983,-13.56,-13.51,-14.84,-15.99,-15.75,-18.7,-18.62,-15.77,-16.3,-17.51,-22.13,-20.57,-22.71,-23.43,0,0,0,0,0,0,0,0,0,0,0,0,0,0,0,0,
379,-13.68,-5.458,-15.16,-11.13,-19.82,-21.15,-21.6,-15.6,-26.67,-20.57,-23.21,-17.14,-27.57,-21.7,-26.97,-22.84,0,0,0,0,0,0,0,0,0,0,0,0,0,0,0,0,
380,-12.08,-2.725,-14.65,-10.64,-20.67,-22.25,-20.71,-10.35,-29.98,-19.99,-21.27,-11.29,-24.76,-16.63,-20.89,-13.98,0,0,0,0,0,0,0,0,0,0,0,0,0,0,0,0,
381,-15.03,-7.663,-16.83,-10.3,-19.06,-20.23,-17.7,-11.17,-25.75,-16.0,-14.54,-6.043,-16.93,-11.02,-10.3,-5.031,0,0,0,0,0,0,0,0,0,0,0,0,0,0,0,0,
382,-15.3,-10.06,-17.14,-8.469,-16.68,-15.95,-15.48,-9.262,-20.61,-12.26,-10.08,-2.575,-10.81,-6.147,-3.9,0.2669,0,0,0,0,0,0,0,0,0,0,0,0,0,0,0,0,
383,-13.04,-6.587,-13.22,-9.099,-11.74,-10.45,-11.52,-4.875,-14.7,-7.076,-5.617,-0.2407,-5.522,-1.402,-0.4775,2.545,0,0,0,0,0,0,0,0,0,0,0,0,0,0,0,0,
384,-13.22,-7.037,-11.74,-8.606,-9.3,-10.08,-9.031,-4.463,-8.63,-3.505,-2.473,1.376,-2.586,-0.2532,1.486,1.833,0,0,0,0,0,0,0,0,0,0,0,0,0,0,0,0,
385,-15.79,-12.26,-13.82,-7.208,-12.24,-14.02,-10.55,-4.327,-9.291,-5.169,-4.223,1.571,-4.872,-2.877,-1.635,-1.44,0,0,0,0,0,0,0,0,0,0,0,0,0,0,0,0,
386,-16.67,-13.59,-13.76,-12.13,-13.47,-14.58,-10.77,-2.716,-13.33,-7.678,-5.847,-2.269,-6.891,-5.889,-5.633,-5.456,0,0,0,0,0,0,0,0,0,0,0,0,0,0,0,0,
387,-13.26,-8.597,-11.19,-13.47,-10.55,-11.73,-7.234,-3.611,-12.09,-7.776,-3.329,-7.37,-5.13,-7.593,-4.579,-8.21,0,0,0,0,0,0,0,0,0,0,0,0,0,0,0,0,
388,-10.79,-3.858,-9.152,-6.266,-7.968,-9.576,-5.276,-7.532,-8.486,-7.7,-1.518,-10.13,-5.338,-9.638,-5.405,-12.11,0,0,0,0,0,0,0,0,0,0,0,0,0,0,0,0,
389,-12.67,-3.89,-7.879,-5.944,-7.165,-9.104,-7.138,-11.19,-8.725,-9.682,-3.985,-12.06,-9.788,-13.21,-10.36,-18.09,0,0,0,0,0,0,0,0,0,0,0,0,0,0,0,0,
390,-8.768,-4.899,-6.499,-10.46,-7.423,-9.9,-8.082,-10.34,-11.17,-12.19,-6.92,-11.91,-12.87,-14.09,-11.73,-20.34,0,0,0,0,0,0,0,0,0,0,0,0,0,0,0,0,
391,4.144,-4.042,-6.552,-10.25,-8.848,-11.1,-9.086,-7.051,-12.93,-11.85,-8.68,-10.54,-14.14,-12.41,-13.36,-19.94,0,0,0,0,0,0,0,0,0,0,0,0,0,0,0,0,
392,11.19,-4.818,-10.72,-12.84,-11.57,-12.66,-15.23,-8.154,-15.94,-11.16,-13.32,-12.44,-18.51,-14.23,-20.22,-22.95,0,0,0,0,0,0,0,0,0,0,0,0,0,0,0,0,
393,8.9,-7.585,-14.34,-14.22,-12.82,-13.32,-19.56,-9.213,-19.09,-12.94,-18.35,-12.93,-21.69,-15.33,-22.97,-23.47,0,0,0,0,0,0,0,0,0,0,0,0,0,0,0,0,
394,9.658,-7.686,-11.18,-7.751,-9.877,-10.87,-15.9,-4.577,-17.12,-12.08,-16.98,-9.132,-17.95,-10.97,-17.51,-16.07,0,0,0,0,0,0,0,0,0,0,0,0,0,0,0,0,
395,12.24,-6.269,-8.181,-7.668,-7.891,-9.27,-13.37,-3.888,-13.35,-8.835,-12.33,-8.187,-13.05,-7.973,-11.0,-8.615,0,0,0,0,0,0,0,0,0,0,0,0,0,0,0,0,
396,9.154,-8.965,-11.21,-14.77,-10.7,-11.92,-14.53,-8.911,-13.41,-9.544,-9.867,-9.122,-10.36,-7.486,-6.473,-4.992,0,0,0,0,0,0,0,0,0,0,0,0,0,0,0,0,
397,6.388,-13.11,-12.53,-14.78,-12.55,-14.59,-12.19,-8.109,-13.09,-11.22,-8.04,-6.827,-6.997,-5.894,-3.998,-2.297,0,0,0,0,0,0,0,0,0,0,0,0,0,0,0,0,
398,7.143,-11.69,-9.723,-11.5,-11.98,-15.43,-9.61,-4.287,-11.04,-10.0,-6.347,-5.857,-5.812,-6.352,-4.42,-3.313,0,0,0,0,0,0,0,0,0,0,0,0,0,0,0,0,
399,7.323,-7.558,-8.921,-11.15,-13.07,-16.04,-10.59,-4.053,-11.56,-10.29,-6.345,-8.09,-8.018,-8.764,-4.957,-7.873,0,0,0,0,0,0,0,0,0,0,0,0,0,0,0,0,
400,8.921,-7.176,-10.05,-9.596,-13.48,-14.69,-10.16,-1.918,-12.66,-12.39,-7.074,-8.111,-8.812,-9.005,-3.856,-9.729,0,0,0,0,0,0,0,0,0,0,0,0,0,0,0,0,
401,11.97,-7.67,-9.519,-8.502,-10.32,-10.75,-7.777,0.714,-11.2,-11.14,-6.813,-5.703,-7.275,-7.272,-3.328,-9.425,0,0,0,0,0,0,0,0,0,0,0,0,0,0,0,0,
402,12.12,-5.505,-7.441,-9.987,-7.355,-8.043,-6.718,-2.122,-8.747,-7.93,-5.419,-5.816,-6.014,-6.526,-3.712,-11.21,0,0,0,0,0,0,0,0,0,0,0,0,0,0,0,0,
403,10.25,-4.74,-6.194,-10.56,-7.711,-9.424,-6.443,-5.66,-7.977,-8.923,-3.957,-8.082,-5.77,-7.978,-2.939,-13.15,0,0,0,0,0,0,0,0,0,0,0,0,0,0,0,0,
404,10.27,-5.619,-5.073,-9.873,-8.059,-10.8,-5.083,-4.425,-8.964,-11.82,-1.739,-7.116,-4.758,-7.722,-0.4298,-10.98,0,0,0,0,0,0,0,0,0,0,0,0,0,0,0,0,
405,13.63,-3.667,-2.674,-9.477,-6.385,-8.636,-4.034,-1.499,-8.632,-9.911,-0.5001,-4.702,-3.725,-5.353,-0.4643,-7.385,0,0,0,0,0,0,0,0,0,0,0,0,0,0,0,0,
406,14.5,-3.072,-3.454,-10.55,-7.264,-8.618,-6.508,-3.264,-8.55,-7.347,-4.768,-6.415,-6.626,-6.572,-6.307,-7.982,0,0,0,0,0,0,0,0,0,0,0,0,0,0,0,0,
407,9.001,-8.823,-7.257,-13.73,-10.09,-11.83,-9.216,-7.957,-11.23,-9.293,-9.251,-8.245,-10.13,-8.383,-10.49,-9.53,0,0,0,0,0,0,0,0,0,0,0,0,0,0,0,0,
408,6.703,-13.27,-7.681,-14.56,-9.61,-12.07,-8.147,-7.524,-11.19,-10.32,-7.833,-7.307,-9.313,-6.721,-8.319,-8.43,0,0,0,0,0,0,0,0,0,0,0,0,0,0,0,0,
409,9.768,-9.572,-7.582,-10.55,-9.281,-12.33,-8.228,-4.246,-8.594,-9.461,-6.51,-8.337,-8.628,-6.641,-6.574,-8.28,0,0,0,0,0,0,0,0,0,0,0,0,0,0,0,0,
410,9.391,-3.87,-9.67,-8.9,-11.75,-15.55,-10.01,-3.741,-9.647,-10.69,-6.38,-9.508,-9.282,-7.514,-5.452,-7.91,0,0,0,0,0,0,0,0,0,0,0,0,0,0,0,0,
411,8.565,-3.108,-9.586,-12.41,-13.32,-17.05,-8.645,-4.109,-11.2,-11.33,-3.536,-8.286,-7.631,-7.061,-1.851,-6.747,0,0,0,0,0,0,0,0,0,0,0,0,0,0,0,0,
412,9.411,-4.875,-9.537,-13.15,-14.54,-17.89,-7.244,-6.639,-10.63,-11.48,-1.499,-9.027,-5.937,-8.759,0.5932,-8.014,0,0,0,0,0,0,0,0,0,0,0,0,0,0,0,0,
413,6.826,-4.9,-10.44,-9.573,-14.33,-18.06,-6.956,-10.15,-10.35,-13.39,0.0762,-10.17,-4.539,-9.029,3.207,-7.128,0,0,0,0,0,0,0,0,0,0,0,0,0,0,0,0,
414,6.614,-3.417,-8.216,-7.42,-10.2,-12.91,-4.687,-8.141,-8.013,-12.25,2.733,-7.581,-1.304,-5.411,6.902,-4.161,0,0,0,0,0,0,0,0,0,0,0,0,0,0,0,0,
415,11.8,-0.1739,-6.48,-6.058,-7.434,-7.572,-3.914,-4.254,-4.519,-8.095,2.109,-4.668,0.5174,-4.424,7.431,-4.56,0,0,0,0,0,0,0,0,0,0,0,0,0,0,0,0,
416,13.77,3.675,-7.735,-4.608,-8.71,-8.934,-5.287,-2.865,-4.78,-7.219,0.0796,-4.854,-1.174,-5.781,6.403,-4.647,0,0,0,0,0,0,0,0,0,0,0,0,0,0,0,0,
417,10.37,2.675,-8.806,-5.311,-10.89,-12.78,-5.178,-1.443,-7.603,-8.434,-1.473,-6.633,-4.746,-5.446,3.727,-5.26,0,0,0,0,0,0,0,0,0,0,0,0,0,0,0,0,
418,6.61,-0.5406,-9.874,-4.828,-12.76,-12.86,-6.344,-1.857,-9.963,-7.747,-5.885,-6.956,-8.238,-5.695,-2.115,-9.24,0,0,0,0,0,0,0,0,0,0,0,0,0,0,0,0,
419,6.848,0.6578,-10.3,-2.116,-12.49,-9.711,-9.571,-3.643,-10.5,-6.119,-9.123,-5.335,-9.348,-6.538,-5.555,-10.13,0,0,0,0,0,0,0,0,0,0,0,0,0,0,0,0,
420,10.6,1.198,-9.235,-2.332,-10.24,-7.983,-10.0,-3.258,-8.762,-5.051,-8.587,-4.432,-8.954,-5.795,-6.915,-9.509,0,0,0,0,0,0,0,0,0,0,0,0,0,0,0,0,
421,11.36,-2.117,-9.447,-3.882,-9.473,-8.834,-9.077,-3.615,-7.189,-4.774,-9.848,-5.073,-9.832,-5.471,-10.15,-11.31,0,0,0,0,0,0,0,0,0,0,0,0,0,0,0,0,
422,7.488,-4.449,-11.52,-3.071,-10.79,-10.64,-11.9,-5.407,-7.952,-5.761,-12.49,-6.244,-11.15,-6.904,-11.48,-10.06,0,0,0,0,0,0,0,0,0,0,0,0,0,0,0,0,
423,3.782,-6.76,-14.33,-4.865,-14.3,-14.29,-15.58,-6.951,-10.83,-8.696,-12.54,-6.884,-11.27,-8.548,-10.1,-7.558,0,0,0,0,0,0,0,0,0,0,0,0,0,0,0,0,
424,2.601,-7.707,-15.92,-10.72,-18.1,-17.36,-14.09,-8.733,-13.93,-12.24,-10.89,-5.114,-10.41,-8.738,-9.025,-8.028,0,0,0,0,0,0,0,0,0,0,0,0,0,0,0,0,
425,4.283,-4.06,-13.34,-12.76,-16.65,-15.32,-9.158,-7.402,-13.25,-12.09,-8.021,-2.951,-8.173,-6.981,-6.635,-7.501,0,0,0,0,0,0,0,0,0,0,0,0,0,0,0,0,
426,6.977,-3.793,-9.398,-10.17,-12.26,-12.62,-5.846,-5.075,-7.976,-8.901,-4.028,-4.643,-4.894,-6.24,-2.62,-6.336,0,0,0,0,0,0,0,0,0,0,0,0,0,0,0,0,
427,7.835,-7.63,-8.683,-9.45,-12.29,-14.02,-4.903,-7.566,-4.297,-9.609,-1.706,-7.706,-3.251,-8.558,-0.2043,-7.009,0,0,0,0,0,0,0,0,0,0,0,0,0,0,0,0,
428,7.816,-5.129,-9.906,-9.728,-14.74,-14.9,-6.346,-7.674,-6.591,-13.29,-2.718,-7.562,-4.521,-10.01,-0.024,-6.848,0,0,0,0,0,0,0,0,0,0,0,0,0,0,0,0,
429,7.838,0.6755,-10.45,-8.23,-14.0,-12.93,-9.241,-2.864,-10.35,-12.47,-5.195,-5.574,-6.354,-8.424,-0.0501,-5.546,0,0,0,0,0,0,0,0,0,0,0,0,0,0,0,0,
430,7.939,2.595,-8.925,-6.451,-10.93,-10.91,-8.818,-2.857,-10.09,-8.25,-5.26,-3.544,-5.497,-5.653,1.223,-3.855,0,0,0,0,0,0,0,0,0,0,0,0,0,0,0,0,
431,9.822,4.124,-5.525,-2.39,-8.057,-8.099,-4.982,-3.385,-7.109,-4.843,-2.105,-0.1857,-1.947,-1.8,3.522,-0.6542,0,0,0,0,0,0,0,0,0,0,0,0,0,0,0,0,
432,11.99,5.144,-3.875,3.306,-5.856,-4.798,-3.689,2.591,-4.642,-1.881,-0.169,2.589,-0.3292,0.9212,4.144,0.9627,0,0,0,0,0,0,0,0,0,0,0,0,0,0,0,0,
433,12.89,3.567,-4.509,3.983,-4.225,-4.218,-5.325,5.903,-3.126,-1.15,-1.734,1.234,-2.827,-0.0408,1.205,-1.033,0,0,0,0,0,0,0,0,0,0,0,0,0,0,0,0,
434,14.86,4.037,-3.976,0.6815,-2.901,-4.902,-6.197,3.417,-2.24,-3.004,-4.584,-1.832,-5.385,-1.523,-2.293,-2.047,0,0,0,0,0,0,0,0,0,0,0,0,0,0,0,0,
435,16.3,6.449,-3.351,-0.39,-3.092,-5.005,-6.613,1.028,-2.393,-3.803,-7.301,-3.19,-6.549,-2.725,-3.671,-1.419,0,0,0,0,0,0,0,0,0,0,0,0,0,0,0,0,
436,15.43,6.45,-4.084,0.4735,-5.174,-6.177,-7.121,-0.7742,-3.805,-4.43,-8.629,-3.669,-8.349,-5.281,-4.411,-2.658,0,0,0,0,0,0,0,0,0,0,0,0,0,0,0,0,
437,14.62,3.974,-4.402,-0.1572,-6.986,-7.963,-8.34,0.0466,-5.437,-5.746,-8.98,-3.355,-10.21,-6.609,-5.694,-4.527,0,0,0,0,0,0,0,0,0,0,0,0,0,0,0,0,
438,11.7,0.1819,-6.76,-1.426,-9.078,-9.922,-12.47,3.546,-7.303,-6.16,-11.32,-2.417,-11.88,-6.728,-6.965,-5.404,0,0,0,0,0,0,0,0,0,0,0,0,0,0,0,0,
439,7.877,-0.8366,-10.94,-0.083,-11.43,-11.57,-15.0,4.334,-10.2,-8.244,-12.69,-1.794,-12.11,-7.371,-5.455,-4.781,0,0,0,0,0,0,0,0,0,0,0,0,0,0,0,0,
440,10.72,3.042,-9.227,-0.0678,-9.691,-9.418,-10.53,4.145,-10.9,-10.98,-9.315,-0.1703,-8.665,-6.791,-0.6823,-2.472,0,0,0,0,0,0,0,0,0,0,0,0,0,0,0,0,
441,15.39,4.793,-3.122,-4.851,-5.588,-5.7,-6.062,5.285,-8.135,-10.03,-7.321,0.3655,-6.68,-6.614,0.0404,-3.087,0,0,0,0,0,0,0,0,0,0,0,0,0,0,0,0,
442,14.32,3.678,-1.587,-4.021,-5.079,-5.944,-8.458,5.35,-7.486,-8.583,-10.8,-3.008,-10.4,-8.747,-5.399,-8.016,0,0,0,0,0,0,0,0,0,0,0,0,0,0,0,0,
443,12.78,6.071,-3.328,4.178,-6.96,-7.848,-11.87,5.476,-9.604,-8.64,-13.68,-5.449,-13.58,-9.46,-9.091,-11.42,0,0,0,0,0,0,0,0,0,0,0,0,0,0,0,0,
444,12.84,8.122,-3.4,5.001,-8.687,-8.742,-10.86,4.423,-9.65,-7.547,-12.16,-3.14,-12.11,-7.335,-8.573,-9.941,0,0,0,0,0,0,0,0,0,0,0,0,0,0,0,0,
445,11.56,5.214,-2.998,-0.1804,-9.985,-9.77,-8.391,2.42,-8.234,-6.359,-9.179,0.9616,-8.86,-3.973,-6.111,-4.474,0,0,0,0,0,0,0,0,0,0,0,0,0,0,0,0,
446,11.42,2.117,-1.976,-0.0259,-8.064,-9.091,-5.982,6.426,-6.589,-4.727,-6.794,3.217,-4.646,0.3325,-1.795,0.8796,0,0,0,0,0,0,0,0,0,0,0,0,0,0,0,0,
447,14.06,3.316,1.981,2.568,-3.106,-5.994,-1.769,11.95,-2.461,-1.98,-4.218,1.978,-0.0672,2.752,1.25,1.935,0,0,0,0,0,0,0,0,0,0,0,0,0,0,0,0,
448,18.1,8.337,6.142,3.901,-0.1939,-3.044,0.9193,10.42,2.078,-1.798,-2.376,0.127,0.9714,0.8564,-0.0758,0.6412,0,0,0,0,0,0,0,0,0,0,0,0,0,0,0,0,
449,19.32,10.86,5.356,2.752,-1.358,-1.447,-1.72,8.885,2.579,-2.479,-3.172,1.518,-0.9756,-0.969,-2.138,0.6739,0,0,0,0,0,0,0,0,0,0,0,0,0,0,0,0,
450,14.61,6.571,0.9224,-2.528,-3.946,-2.607,-4.541,11.5,0.1336,-0.5896,-3.771,3.825,-0.636,1.135,-0.6617,2.87,0,0,0,0,0,0,0,0,0,0,0,0,0,0,0,0,
451,11.87,2.804,-0.5956,-2.952,-4.999,-6.176,-3.374,11.18,-1.106,0.0515,-1.394,4.199,1.252,3.183,1.648,4.846,0,0,0,0,0,0,0,0,0,0,0,0,0,0,0,0,
452,16.05,4.511,1.521,3.36,-4.478,-8.213,-2.622,8.422,-0.2026,-1.885,-0.4613,3.103,0.2966,1.335,0.8931,3.202,0,0,0,0,0,0,0,0,0,0,0,0,0,0,0,0,
453,17.8,6.162,1.642,3.221,-5.023,-8.893,-4.927,7.576,-0.4065,-3.993,-4.402,0.4919,-2.501,-1.877,-0.515,0.7496,0,0,0,0,0,0,0,0,0,0,0,0,0,0,0,0,
454,14.27,5.623,-1.042,-1.463,-7.677,-10.85,-7.652,6.673,-4.143,-6.751,-8.644,-1.769,-4.765,-3.573,0.1962,0.8789,0,0,0,0,0,0,0,0,0,0,0,0,0,0,0,0,
455,13.86,5.76,-1.655,0.0418,-8.71,-10.15,-7.75,5.973,-7.332,-8.319,-8.886,-0.9603,-5.304,-3.524,1.806,0.5685,0,0,0,0,0,0,0,0,0,0,0,0,0,0,0,0,
456,17.54,7.868,1.064,2.276,-4.585,-3.981,-4.769,8.171,-4.864,-6.376,-7.581,0.5795,-3.261,-2.546,1.748,-0.9605,0,0,0,0,0,0,0,0,0,0,0,0,0,0,0,0,
457,19.05,11.68,2.816,0.3967,0.0944,0.5662,-3.252,9.671,-0.6035,-3.92,-7.872,-0.1596,-2.487,-2.064,-1.531,-1.056,0,0,0,0,0,0,0,0,0,0,0,0,0,0,0,0,
458,16.69,13.12,0.4858,-0.5874,-1.906,-1.943,-6.259,8.28,-1.321,-2.947,-8.453,-0.5253,-5.151,-1.024,-3.471,0.8682,0,0,0,0,0,0,0,0,0,0,0,0,0,0,0,0,
459,13.72,9.818,-2.94,0.1959,-8.045,-7.021,-9.041,8.41,-5.384,-2.146,-8.014,1.944,-6.359,1.331,-0.7403,3.031,0,0,0,0,0,0,0,0,0,0,0,0,0,0,0,0,
460,13.8,7.854,-2.63,1.647,-10.35,-9.04,-7.371,8.781,-7.346,-1.288,-7.13,3.434,-4.974,1.294,0.7114,2.749,0,0,0,0,0,0,0,0,0,0,0,0,0,0,0,0,
461,16.41,9.712,-0.0917,2.737,-7.473,-6.554,-4.235,6.76,-6.25,-0.5461,-4.871,1.663,-3.227,0.0034,0.9318,2.076,0,0,0,0,0,0,0,0,0,0,0,0,0,0,0,0,
462,17.92,11.48,1.32,3.107,-2.848,-0.6619,-3.214,8.119,-3.23,0.9801,-0.897,0.8729,0.5642,2.369,5.353,4.251,0,0,0,0,0,0,0,0,0,0,0,0,0,0,0,0,
463,19.62,14.87,3.59,6.394,0.5137,3.68,-3.899,11.03,0.8101,2.717,0.5884,1.079,2.947,2.886,7.078,4.308,0,0,0,0,0,0,0,0,0,0,0,0,0,0,0,0,
464,22.06,17.83,4.28,6.937,-1.605,0.3969,-6.817,8.103,1.187,0.0794,-4.14,-2.791,-2.471,-3.789,0.5873,-1.373,0,0,0,0,0,0,0,0,0,0,0,0,0,0,0,0,
465,19.08,13.82,-0.7421,-1.586,-8.792,-7.648,-10.59,5.309,-4.848,-7.737,-8.774,-6.923,-8.349,-8.981,-3.312,-5.204,0,0,0,0,0,0,0,0,0,0,0,0,0,0,0,0,
466,14.66,10.53,-2.439,-5.857,-11.7,-10.45,-8.378,7.135,-8.575,-11.68,-4.936,-4.385,-5.392,-7.093,1.828,-1.925,0,0,0,0,0,0,0,0,0,0,0,0,0,0,0,0,
467,17.47,13.61,2.41,-0.6858,-8.366,-7.558,-3.322,7.451,-4.699,-8.692,0.1979,-0.959,-1.166,-4.827,5.422,0.5243,0,0,0,0,0,0,0,0,0,0,0,0,0,0,0,0,
468,19.34,14.29,2.197,0.6031,-7.288,-6.845,-5.097,5.694,-2.007,-7.086,-2.602,-3.567,-3.191,-6.375,0.9558,-3.846,0,0,0,0,0,0,0,0,0,0,0,0,0,0,0,0,
469,14.84,12.57,-1.534,-1.943,-8.317,-8.366,-8.722,3.593,-3.697,-8.563,-7.156,-7.134,-7.282,-9.676,-3.953,-8.589,0,0,0,0,0,0,0,0,0,0,0,0,0,0,0,0,
470,12.61,11.95,-1.06,-2.116,-7.667,-8.706,-8.909,1.255,-5.534,-9.793,-9.102,-7.843,-10.9,-11.66,-4.979,-8.948,0,0,0,0,0,0,0,0,0,0,0,0,0,0,0,0,
471,14.64,10.71,0.1567,-1.224,-7.542,-7.971,-8.608,2.53,-7.573,-10.47,-9.44,-7.631,-11.38,-9.651,-3.645,-6.175,0,0,0,0,0,0,0,0,0,0,0,0,0,0,0,0,
472,17.67,13.96,3.021,2.407,-5.726,-5.2,-3.994,5.85,-6.091,-7.989,-4.679,-4.977,-6.318,-5.64,0.4427,-1.293,0,0,0,0,0,0,0,0,0,0,0,0,0,0,0,0,
473,19.1,18.56,7.223,4.766,-1.7,-2.091,1.339,8.015,-0.3196,-3.801,0.1278,-0.592,-3.273,-3.055,3.618,1.727,0,0,0,0,0,0,0,0,0,0,0,0,0,0,0,0,
474,17.49,16.47,6.502,1.912,0.2342,0.0606,-1.151,12.44,1.743,-1.665,-1.137,1.501,-4.056,-0.3356,2.928,1.722,0,0,0,0,0,0,0,0,0,0,0,0,0,0,0,0,
475,19.44,17.03,5.573,3.381,2.833,5.059,-2.806,15.12,1.845,2.279,-1.049,3.336,-1.959,2.606,2.214,3.028,0,0,0,0,0,0,0,0,0,0,0,0,0,0,0,0,
476,24.55,21.71,6.597,9.516,4.898,8.894,-0.5681,11.55,4.137,6.292,1.825,6.132,0.0067,3.513,3.149,5.027,0,0,0,0,0,0,0,0,0,0,0,0,0,0,0,0,
477,23.03,18.42,4.044,9.702,1.087,5.418,-1.674,10.72,4.232,4.382,3.08,5.637,0.636,3.874,5.63,5.755,0,0,0,0,0,0,0,0,0,0,0,0,0,0,0,0,
478,18.69,13.25,2.78,6.113,-1.391,2.415,-0.37,13.16,4.412,1.956,6.377,2.958,4.918,3.977,8.439,5.939,0,0,0,0,0,0,0,0,0,0,0,0,0,0,0,0,
479,19.16,16.36,5.024,7.031,1.811,6.105,3.658,10.96,6.827,3.214,9.764,3.463,7.864,3.103,7.787,5.327,0,0,0,0,0,0,0,0,0,0,0,0,0,0,0,0,
480,21.28,21.24,5.532,12.43,4.511,10.73,2.707,10.68,5.963,5.671,8.262,7.175,6.737,4.864,5.764,6.22,0,0,0,0,0,0,0,0,0,0,0,0,0,0,0,0,
481,22.9,23.24,6.371,15.83,6.528,13.16,1.723,15.92,4.09,10.12,5.43,10.2,6.252,8.801,4.375,8.722,0,0,0,0,0,0,0,0,0,0,0,0,0,0,0,0,
482,23.27,24.39,6.04,13.0,7.037,13.77,0.8276,17.09,4.027,13.99,1.635,10.18,3.584,9.095,0.0462,7.937,0,0,0,0,0,0,0,0,0,0,0,0,0,0,0,0,
483,19.67,22.73,0.5428,9.062,2.134,10.73,-5.338,14.75,0.8352,12.81,-3.86,8.247,-1.293,6.455,-4.151,4.925,0,0,0,0,0,0,0,0,0,0,0,0,0,0,0,0,
484,15.99,19.25,-2.027,9.366,-1.382,6.824,-8.415,14.47,-3.271,9.535,-5.907,6.984,-2.004,5.121,-4.204,3.721,0,0,0,0,0,0,0,0,0,0,0,0,0,0,0,0,
485,17.9,19.96,2.097,10.65,2.016,7.41,-4.862,13.65,-2.558,7.622,-5.199,6.322,-1.171,4.444,-4.366,3.134,0,0,0,0,0,0,0,0,0,0,0,0,0,0,0,0,
486,22.19,23.36,6.126,11.32,6.044,10.66,-2.49,13.28,0.2862,7.95,-5.209,4.963,-1.891,3.884,-4.484,2.917,0,0,0,0,0,0,0,0,0,0,0,0,0,0,0,0,
487,24.05,24.08,9.45,13.09,7.325,11.74,-1.677,14.45,1.903,10.1,-3.286,4.037,-0.7181,4.396,-0.3294,4.718,0,0,0,0,0,0,0,0,0,0,0,0,0,0,0,0,
488,23.89,22.2,11.9,11.25,7.485,9.674,-0.1195,12.22,2.189,9.99,0.3391,4.35,1.557,5.005,4.826,7.098,0,0,0,0,0,0,0,0,0,0,0,0,0,0,0,0,
489,21.74,18.61,10.1,4.469,6.239,6.805,1.498,9.241,1.467,7.379,2.598,4.549,3.785,5.882,7.123,9.023,0,0,0,0,0,0,0,0,0,0,0,0,0,0,0,0,
490,18.88,16.11,8.661,1.181,5.025,5.863,3.31,9.531,2.167,6.312,4.534,3.532,6.664,5.371,7.324,10.09,0,0,0,0,0,0,0,0,0,0,0,0,0,0,0,0,
491,17.94,17.21,9.09,1.641,4.036,4.515,2.366,7.529,3.303,3.975,5.683,1.716,6.88,0.6904,6.613,9.067,0,0,0,0,0,0,0,0,0,0,0,0,0,0,0,0,
492,17.0,17.49,6.579,1.533,1.217,0.531,-0.5988,5.204,0.8341,-1.052,5.192,1.877,6.044,-1.12,8.414,9.583,0,0,0,0,0,0,0,0,0,0,0,0,0,0,0,0,
493,16.52,16.53,5.675,4.925,-0.7265,-1.412,0.0333,9.217,-1.393,-1.313,5.303,4.389,7.502,3.412,10.65,12.01,0,0,0,0,0,0,0,0,0,0,0,0,0,0,0,0,
494,17.33,16.37,7.177,7.567,-1.278,-1.699,0.3615,10.53,-0.8048,1.645,4.267,4.447,5.488,3.049,4.811,9.001,0,0,0,0,0,0,0,0,0,0,0,0,0,0,0,0,
495,15.14,14.02,4.083,3.385,-2.938,-3.332,-2.639,4.835,-3.034,-0.3343,2.147,3.126,1.35,-1.481,-1.517,5.969,0,0,0,0,0,0,0,0,0,0,0,0,0,0,0,0,
496,14.58,14.21,3.012,2.884,-1.11,-0.3573,-1.501,5.468,-4.907,-1.736,4.613,5.112,3.112,0.5306,2.307,10.48,0,0,0,0,0,0,0,0,0,0,0,0,0,0,0,0,
497,20.53,19.53,8.14,7.627,3.497,4.631,1.383,11.07,-1.855,1.62,6.976,5.352,3.336,1.424,2.975,9.532,0,0,0,0,0,0,0,0,0,0,0,0,0,0,0,0,
498,23.19,20.62,8.383,6.964,1.261,1.467,-2.288,8.273,-3.354,0.4243,1.544,1.31,-4.38,-4.709,-5.999,0.2162,0,0,0,0,0,0,0,0,0,0,0,0,0,0,0,0,
499,19.2,17.61,4.087,3.317,-5.11,-4.262,-6.905,3.425,-11.06,-5.289,-4.039,-0.2698,-9.531,-6.853,-9.482,-1.806,0,0,0,0,0,0,0,0,0,0,0,0,0,0,0,0,
500,16.88,16.62,4.196,0.4739,-6.37,-5.068,-6.511,5.943,-13.85,-6.615,-3.211,0.4801,-8.38,-4.29,-5.296,1.762,0,0,0,0,0,0,0,0,0,0,0,0,0,0,0,0,
501,17.95,16.16,6.286,-1.882,-4.218,-4.423,-4.879,8.006,-11.67,-4.994,-1.777,0.2241,-7.465,-4.189,-1.874,2.181,0,0,0,0,0,0,0,0,0,0,0,0,0,0,0,0,
502,19.04,15.91,6.594,1.4,-2.324,-2.949,-3.823,5.733,-10.43,-4.396,-1.748,0.5912,-6.221,-3.855,1.405,4.179,0,0,0,0,0,0,0,0,0,0,0,0,0,0,0,0,
503,19.96,17.05,7.694,7.534,-0.2176,-0.4983,-2.352,5.389,-8.672,-3.667,0.4717,0.2959,-2.573,-2.434,4.796,7.043,0,0,0,0,0,0,0,0,0,0,0,0,0,0,0,0,
504,22.48,19.29,10.28,8.527,0.7971,0.1036,-1.037,5.997,-5.82,-3.039,3.367,-1.337,0.3643,-3.292,5.569,4.644,0,0,0,0,0,0,0,0,0,0,0,0,0,0,0,0,
505,24.14,21.48,10.99,7.095,0.0034,-0.0557,-0.9194,3.876,-4.807,-2.692,3.224,-1.487,1.431,-4.257,4.147,1.785,0,0,0,0,0,0,0,0,0,0,0,0,0,0,0,0,
506,25.02,24.34,10.66,9.57,-0.2997,0.694,-2.02,3.206,-5.372,-1.608,1.765,-1.456,1.917,-4.048,2.123,3.091,0,0,0,0,0,0,0,0,0,0,0,0,0,0,0,0,
507,33.85,33.6,14.46,16.16,0.6689,1.779,-2.519,5.149,-5.266,-1.125,2.343,-2.708,1.235,-5.071,-0.3972,2.659,0,0,0,0,0,0,0,0,0,0,0,0,0,0,0,0,
508,48.29,48.47,21.3,24.21,2.702,3.751,-1.478,5.522,-4.762,-2.123,2.963,-2.658,-0.5319,-5.926,-3.487,-0.4314,0,0,0,0,0,0,0,0,0,0,0,0,0,0,0,0,
509,67.35,72.72,33.04,39.05,10.34,11.21,2.646,7.786,-3.508,-1.135,2.995,0.2154,0.7439,-3.183,-3.039,1.685,0,0,0,0,0,0,0,0,0,0,0,0,0,0,0,0,
510,109.3,119.2,57.54,66.74,27.4,29.59,12.72,16.23,2.744,6.111,7.364,4.763,7.853,3.148,3.73,7.789,0,0,0,0,0,0,0,0,0,0,0,0,0,0,0,0,
511,159.6,165.3,85.23,96.24,47.94,53.95,24.09,25.48,14.63,18.22,14.92,9.237,16.87,11.11,11.3,12.07,0,0,0,0,0,0,0,0,0,0,0,0,0,0,0,0,
512,177.1,177.0,104.3,118.2,64.99,73.65,30.36,31.78,26.34,29.63,19.69,13.83,22.93,18.15,14.89,16.46,0,0,0,0,0,0,0,0,0,0,0,0,0,0,0,0,
513,171.4,170.7,123.5,135.7,78.05,86.65,35.45,36.95,34.1,37.53,21.97,19.04,25.22,21.44,15.83,19.59,0,0,0,0,0,0,0,0,0,0,0,0,0,0,0,0,
514,171.8,170.8,139.9,141.3,85.62,93.93,40.73,39.8,37.33,41.99,22.54,21.85,24.59,21.84,16.37,18.46,0,0,0,0,0,0,0,0,0,0,0,0,0,0,0,0,
515,173.8,172.6,139.9,134.7,87.56,96.01,41.43,39.41,37.28,44.18,22.24,20.88,24.52,23.6,18.17,18.36,0,0,0,0,0,0,0,0,0,0,0,0,0,0,0,0,
516,174.3,174.4,134.4,132.0,89.75,97.6,42.33,40.1,39.84,47.04,26.33,20.07,28.71,27.2,20.87,20.55,0,0,0,0,0,0,0,0,0,0,0,0,0,0,0,0,
517,171.3,169.3,131.7,127.9,91.46,97.24,46.01,42.85,45.51,50.07,30.97,21.34,32.69,28.38,21.56,20.46,0,0,0,0,0,0,0,0,0,0,0,0,0,0,0,0,
518,151.2,146.4,120.5,112.4,85.86,89.17,43.92,40.26,45.83,48.0,29.05,21.61,32.12,26.01,19.84,19.71,0,0,0,0,0,0,0,0,0,0,0,0,0,0,0,0,
519,125.3,121.7,105.7,99.36,77.08,78.71,38.85,30.98,41.95,41.94,27.61,19.79,31.91,24.4,18.14,21.14,0,0,0,0,0,0,0,0,0,0,0,0,0,0,0,0,
520,110.2,107.1,96.72,90.37,71.34,71.57,37.69,26.58,41.44,38.99,28.27,18.79,32.26,24.97,16.19,21.81,0,0,0,0,0,0,0,0,0,0,0,0,0,0,0,0,
521,94.49,92.75,84.45,77.67,63.72,64.42,32.87,29.68,39.51,38.99,23.11,18.83,28.09,24.07,12.93,19.44,0,0,0,0,0,0,0,0,0,0,0,0,0,0,0,0,
522,73.18,74.92,68.03,70.87,53.16,56.39,24.23,27.3,31.98,36.48,17.89,16.36,22.98,20.12,9.73,15.93,0,0,0,0,0,0,0,0,0,0,0,0,0,0,0,0,
523,54.15,55.24,56.79,65.65,45.47,48.14,21.23,17.83,25.65,30.66,17.02,11.31,19.73,14.97,6.449,12.21,0,0,0,0,0,0,0,0,0,0,0,0,0,0,0,0,
524,39.09,37.49,50.17,51.58,41.1,40.13,21.15,13.38,23.43,24.69,14.53,6.868,16.43,10.75,3.51,7.961,0,0,0,0,0,0,0,0,0,0,0,0,0,0,0,0,
525,29.65,28.53,46.01,41.77,39.17,36.31,20.36,13.04,23.63,20.96,13.16,3.472,15.61,8.304,2.223,4.504,0,0,0,0,0,0,0,0,0,0,0,0,0,0,0,0,
526,21.33,20.21,42.42,37.63,38.12,34.55,20.76,9.56,24.32,18.86,14.22,1.987,16.62,7.447,0.9191,3.95,0,0,0,0,0,0,0,0,0,0,0,0,0,0,0,0,
527,8.514,6.802,36.04,30.34,34.33,30.83,19.72,8.997,22.72,18.24,13.33,4.894,16.47,8.947,2.095,8.197,0,0,0,0,0,0,0,0,0,0,0,0,0,0,0,0,
528,-2.682,-3.447,29.06,26.7,29.09,27.59,16.97,11.35,20.29,19.35,12.9,8.632,16.38,11.03,6.361,13.21,0,0,0,0,0,0,0,0,0,0,0,0,0,0,0,0,
529,-12.94,-13.57,21.62,22.37,23.99,22.94,14.83,7.089,17.26,17.25,12.16,8.239,14.4,10.13,5.715,12.37,0,0,0,0,0,0,0,0,0,0,0,0,0,0,0,0,
530,-24.25,-23.88,13.77,13.32,19.18,16.33,12.75,3.52,12.6,12.4,10.09,6.755,11.58,9.134,2.655,10.1,0,0,0,0,0,0,0,0,0,0,0,0,0,0,0,0,
531,-30.16,-29.27,9.815,10.05,16.81,13.38,11.17,5.015,11.41,12.43,11.14,6.582,12.21,9.695,3.053,10.9,0,0,0,0,0,0,0,0,0,0,0,0,0,0,0,0,
532,-37.63,-41.06,5.661,3.32,13.29,10.27,9.04,-1.087,11.69,12.56,10.97,4.895,10.77,6.689,0.2526,9.94,0,0,0,0,0,0,0,0,0,0,0,0,0,0,0,0,
533,-50.06,-53.93,-1.865,-9.768,5.662,2.82,5.238,-8.634,6.076,6.007,6.858,2.367,5.796,2.05,-3.192,8.322,0,0,0,0,0,0,0,0,0,0,0,0,0,0,0,0,
534,-54.55,-51.12,-6.163,-10.6,1.034,-1.662,3.301,-6.281,0.1018,1.065,6.417,1.492,6.07,1.855,1.33,9.363,0,0,0,0,0,0,0,0,0,0,0,0,0,0,0,0,
535,-53.99,-48.15,-6.776,-7.256,2.699,-0.8696,4.826,-5.688,1.174,1.962,9.578,1.984,9.969,3.636,6.387,9.863,0,0,0,0,0,0,0,0,0,0,0,0,0,0,0,0,
536,-57.35,-54.83,-7.46,-11.72,4.061,-1.35,5.965,-8.729,5.151,2.355,9.428,2.305,8.627,2.939,4.308,8.333,0,0,0,0,0,0,0,0,0,0,0,0,0,0,0,0,
537,-60.82,-59.17,-9.071,-14.43,0.6525,-5.686,2.921,-6.669,4.365,-0.0733,4.732,0.0679,3.345,0.2318,-0.2695,4.3,0,0,0,0,0,0,0,0,0,0,0,0,0,0,0,0,
538,-63.68,-63.71,-12.66,-18.95,-3.519,-9.117,-1.488,-6.005,-1.338,-3.089,-0.2972,-3.461,1.104,-1.51,-1.492,-0.3439,0,0,0,0,0,0,0,0,0,0,0,0,0,0,0,0,
539,-65.56,-67.37,-16.05,-25.61,-4.675,-8.533,-2.511,-8.407,-4.114,-4.263,-2.101,-4.444,2.037,-1.441,-0.5967,-1.187,0,0,0,0,0,0,0,0,0,0,0,0,0,0,0,0,
540,-65.8,-64.35,-19.16,-23.94,-7.344,-9.026,-4.29,-8.354,-4.006,-4.434,-3.496,-4.61,0.386,-2.849,-3.154,-1.747,0,0,0,0,0,0,0,0,0,0,0,0,0,0,0,0,
541,-68.73,-65.57,-23.92,-24.53,-11.89,-12.25,-9.535,-10.01,-8.076,-6.388,-7.479,-6.519,-4.475,-6.233,-7.89,-5.525,0,0,0,0,0,0,0,0,0,0,0,0,0,0,0,0,
542,-70.41,-69.07,-24.77,-31.08,-11.84,-13.2,-10.9,-12.53,-12.14,-8.278,-9.896,-7.878,-7.32,-7.515,-8.77,-6.396,0,0,0,0,0,0,0,0,0,0,0,0,0,0,0,0,
543,-66.88,-64.99,-20.99,-29.95,-10.44,-13.38,-7.192,-10.58,-11.03,-8.044,-6.916,-7.362,-6.223,-5.88,-5.758,-1.155,0,0,0,0,0,0,0,0,0,0,0,0,0,0,0,0,
544,-64.12,-63.93,-20.16,-26.56,-12.36,-15.74,-4.879,-10.28,-9.492,-7.432,-1.719,-6.516,-3.808,-4.212,-2.333,3.886,0,0,0,0,0,0,0,0,0,0,0,0,0,0,0,0,
545,-62.29,-67.94,-21.34,-27.59,-13.24,-17.56,-3.711,-14.76,-9.32,-7.863,0.9301,-5.709,-2.074,-3.551,0.065,4.849,0,0,0,0,0,0,0,0,0,0,0,0,0,0,0,0,
546,-58.48,-65.4,-20.12,-26.81,-12.72,-17.66,-0.634,-14.32,-8.448,-8.775,1.886,-4.177,0.1377,-2.404,2.394,5.577,0,0,0,0,0,0,0,0,0,0,0,0,0,0,0,0,
547,-56.07,-60.55,-18.6,-27.44,-12.21,-15.84,2.261,-7.178,-6.437,-7.46,2.877,-4.036,3.003,-1.471,3.218,5.12,0,0,0,0,0,0,0,0,0,0,0,0,0,0,0,0,
548,-55.26,-59.04,-17.72,-29.24,-8.927,-12.91,2.646,-4.614,-3.651,-4.73,1.482,-6.75,2.762,-3.69,0.0465,0.2139,0,0,0,0,0,0,0,0,0,0,0,0,0,0,0,0,
549,-53.46,-56.36,-15.76,-25.52,-5.583,-12.94,1.821,-7.901,-2.619,-5.716,-0.7604,-7.551,-0.2694,-6.934,-2.014,-2.036,0,0,0,0,0,0,0,0,0,0,0,0,0,0,0,0,
550,-52.52,-55.46,-14.58,-23.69,-5.969,-15.3,0.8255,-8.867,-3.686,-8.74,-0.0596,-5.63,-0.8597,-7.143,-0.056,0.2083,0,0,0,0,0,0,0,0,0,0,0,0,0,0,0,0,
551,-52.87,-57.81,-16.54,-24.95,-7.135,-15.33,-0.3745,-9.241,-4.043,-9.164,0.9967,-6.814,0.2907,-6.481,-0.0712,-0.1626,0,0,0,0,0,0,0,0,0,0,0,0,0,0,0,0,
552,-51.28,-55.55,-18.64,-20.12,-7.372,-13.7,-0.3322,-10.63,-3.745,-8.777,0.351,-8.692,-0.5218,-6.862,-2.476,-0.0658,0,0,0,0,0,0,0,0,0,0,0,0,0,0,0,0,
553,-49.1,-50.53,-18.11,-17.85,-7.6,-12.95,0.6125,-7.931,-3.534,-8.604,-0.0934,-6.059,-1.002,-5.644,-2.562,3.38,0,0,0,0,0,0,0,0,0,0,0,0,0,0,0,0,
554,-49.19,-49.67,-17.56,-24.17,-6.375,-11.65,0.2428,-5.701,-2.976,-7.188,-0.2465,-3.011,0.7735,-2.74,-0.0037,5.317,0,0,0,0,0,0,0,0,0,0,0,0,0,0,0,0,
555,-48.44,-50.55,-17.78,-24.71,-3.35,-8.649,-0.3927,-7.333,-2.176,-4.95,-0.5769,-1.078,1.979,0.3595,3.348,7.572,0,0,0,0,0,0,0,0,0,0,0,0,0,0,0,0,
556,-44.57,-49.96,-16.91,-17.48,-0.8896,-5.365,-0.2506,-4.577,-0.5023,-1.041,0.0258,3.149,2.814,4.381,6.361,12.44,0,0,0,0,0,0,0,0,0,0,0,0,0,0,0,0,
557,-41.24,-46.95,-16.68,-13.55,-0.0451,-3.233,-0.9103,0.3836,0.9367,3.372,2.352,5.93,5.457,7.647,9.133,15.67,0,0,0,0,0,0,0,0,0,0,0,0,0,0,0,0,
558,-41.12,-42.2,-17.56,-12.3,0.0891,-3.337,-1.394,0.1685,0.5651,4.04,5.289,4.286,7.942,7.593,10.17,15.03,0,0,0,0,0,0,0,0,0,0,0,0,0,0,0,0,
559,-41.76,-40.02,-16.34,-12.28,0.4024,-5.152,0.6117,-0.1816,1.413,2.556,7.013,2.918,8.73,5.986,8.47,11.28,0,0,0,0,0,0,0,0,0,0,0,0,0,0,0,0,
560,-40.62,-40.85,-13.78,-15.33,0.9386,-5.974,3.467,-0.4851,3.973,1.933,7.241,2.082,8.274,4.718,7.963,6.755,0,0,0,0,0,0,0,0,0,0,0,0,0,0,0,0,
561,-39.82,-42.41,-12.8,-15.09,1.472,-4.616,4.687,-3.915,4.178,0.8439,6.632,-0.6041,6.558,3.945,9.041,4.845,0,0,0,0,0,0,0,0,0,0,0,0,0,0,0,0,
562,-39.56,-43.19,-12.86,-12.25,1.302,-3.345,4.874,-3.201,3.372,0.6098,5.955,-1.561,5.372,3.854,8.35,5.441,0,0,0,0,0,0,0,0,0,0,0,0,0,0,0,0,
563,-38.17,-40.52,-14.09,-16.23,-1.166,-5.224,3.958,-1.001,3.304,1.008,4.725,-0.3191,4.912,3.01,6.898,5.43,0,0,0,0,0,0,0,0,0,0,0,0,0,0,0,0,
564,-39.54,-38.66,-16.88,-20.92,-4.852,-8.875,0.9052,-5.63,0.8119,-1.22,1.716,-0.1043,2.813,1.588,4.828,4.158,0,0,0,0,0,0,0,0,0,0,0,0,0,0,0,0,
565,-43.24,-42.73,-18.15,-19.47,-6.878,-10.49,-1.868,-8.657,-2.755,-2.758,-0.7668,-0.0014,0.1335,1.15,1.822,3.417,0,0,0,0,0,0,0,0,0,0,0,0,0,0,0,0,
566,-43.39,-45.99,-17.12,-20.95,-7.616,-11.08,-1.956,-5.727,-4.151,-2.293,0.4475,0.3467,-0.6095,0.7855,2.117,4.321,0,0,0,0,0,0,0,0,0,0,0,0,0,0,0,0,
567,-42.12,-43.82,-16.73,-22.92,-7.285,-11.67,-0.7774,-3.947,-4.119,-3.294,3.319,0.6513,0.592,1.29,5.066,6.818,0,0,0,0,0,0,0,0,0,0,0,0,0,0,0,0,
568,-41.83,-41.23,-17.88,-17.06,-6.273,-10.83,-0.3885,-2.796,-3.413,-3.209,3.254,1.784,0.942,2.614,3.975,7.342,0,0,0,0,0,0,0,0,0,0,0,0,0,0,0,0,
569,-39.88,-40.35,-18.91,-13.53,-6.983,-10.44,-0.6851,-1.875,-3.54,-1.991,0.8471,2.225,-0.9155,2.105,0.2431,3.671,0,0,0,0,0,0,0,0,0,0,0,0,0,0,0,0,
570,-37.65,-39.66,-17.36,-15.1,-6.324,-9.807,0.217,-3.13,-3.381,-2.192,1.183,2.021,-0.8459,2.005,0.2735,2.104,0,0,0,0,0,0,0,0,0,0,0,0,0,0,0,0,
571,-36.52,-38.91,-14.39,-12.92,-2.708,-7.322,1.248,-2.339,-0.5021,-0.571,2.768,1.863,0.7134,3.125,0.8637,4.105,0,0,0,0,0,0,0,0,0,0,0,0,0,0,0,0,
572,-34.47,-36.68,-13.56,-11.47,-1.772,-7.126,-0.2326,0.998,-0.028,0.5408,1.116,1.018,-0.845,2.579,-1.919,2.863,0,0,0,0,0,0,0,0,0,0,0,0,0,0,0,0,
573,-31.34,-32.01,-13.19,-12.77,-2.109,-7.867,-1.36,3.111,-2.555,-2.026,-0.0253,1.435,-1.831,2.371,-3.471,0.1804,0,0,0,0,0,0,0,0,0,0,0,0,0,0,0,0,
574,-29.26,-29.07,-11.93,-11.16,-0.6803,-6.054,-0.2119,2.854,-2.057,-2.768,1.329,2.635,-0.1357,2.919,-2.441,0.8934,0,0,0,0,0,0,0,0,0,0,0,0,0,0,0,0,
575,-28.59,-30.15,-11.79,-10.48,-1.524,-6.125,1.042,1.359,-1.548,-1.205,2.53,3.619,1.266,3.15,0.5367,3.687,0,0,0,0,0,0,0,0,0,0,0,0,0,0,0,0,
576,-27.96,-30.91,-11.79,-12.25,-3.458,-8.218,2.438,2.308,-2.145,-0.2621,4.382,6.366,3.535,4.96,5.636,6.727,0,0,0,0,0,0,0,0,0,0,0,0,0,0,0,0,
577,-29.78,-31.91,-13.52,-11.75,-4.756,-8.976,0.8379,3.744,-1.019,0.565,3.369,6.461,3.172,4.198,5.678,5.898,0,0,0,0,0,0,0,0,0,0,0,0,0,0,0,0,
578,-34.19,-35.72,-18.07,-11.8,-8.155,-10.21,-5.259,0.5214,-4.577,-1.088,-2.487,2.791,-2.068,-0.2518,-0.3872,1.062,0,0,0,0,0,0,0,0,0,0,0,0,0,0,0,0,
579,-35.68,-37.0,-19.19,-16.05,-10.09,-11.35,-6.871,-2.022,-10.43,-4.072,-4.811,2.975,-3.541,-0.2593,-3.112,-0.4409,0,0,0,0,0,0,0,0,0,0,0,0,0,0,0,0,
580,-34.72,-34.08,-15.61,-19.17,-7.34,-10.1,-1.556,0.1926,-7.039,-3.675,-2.014,4.466,-1.015,2.427,-1.046,1.103,0,0,0,0,0,0,0,0,0,0,0,0,0,0,0,0,
581,-31.8,-29.68,-11.35,-15.11,-3.384,-7.206,2.588,0.9249,0.2862,-2.072,0.2129,2.008,-0.929,1.089,1.514,0.8321,0,0,0,0,0,0,0,0,0,0,0,0,0,0,0,0,
582,-25.79,-24.69,-8.21,-8.982,-2.243,-5.488,2.971,-1.24,1.412,-2.377,0.8194,0.2287,-1.166,-0.9309,1.009,0.0967,0,0,0,0,0,0,0,0,0,0,0,0,0,0,0,0,
583,-24.45,-25.07,-8.601,-7.584,-5.24,-7.457,1.309,-1.953,-1.187,-3.643,-0.8227,0.0567,-1.562,-1.156,-3.268,-0.3348,0,0,0,0,0,0,0,0,0,0,0,0,0,0,0,0,
584,-27.01,-29.27,-9.992,-7.146,-6.44,-8.599,0.1339,-1.588,-2.804,-4.298,-1.847,-0.3681,-2.508,-0.5536,-3.325,-0.9042,0,0,0,0,0,0,0,0,0,0,0,0,0,0,0,0,
585,-24.19,-26.27,-7.852,-7.84,-1.462,-4.569,2.842,-1.937,-0.606,-2.299,2.058,0.7466,0.9041,2.192,1.772,0.147,0,0,0,0,0,0,0,0,0,0,0,0,0,0,0,0,
586,-20.12,-19.86,-4.831,-13.23,2.868,-0.6165,6.59,-1.455,5.281,1.742,5.215,2.01,5.326,4.695,2.384,2.006,0,0,0,0,0,0,0,0,0,0,0,0,0,0,0,0,
587,-19.57,-18.98,-3.547,-14.61,3.528,0.7592,5.829,0.423,8.793,4.502,3.71,2.108,5.319,5.079,1.297,3.169,0,0,0,0,0,0,0,0,0,0,0,0,0,0,0,0,
588,-20.61,-21.21,-4.575,-10.01,4.089,1.218,1.756,1.214,7.328,5.201,3.015,2.019,4.559,6.208,4.472,4.632,0,0,0,0,0,0,0,0,0,0,0,0,0,0,0,0,
589,-22.01,-23.72,-5.895,-9.207,3.48,-1.011,-0.1618,0.0981,4.957,4.159,3.538,0.9648,3.828,6.679,5.2,5.076,0,0,0,0,0,0,0,0,0,0,0,0,0,0,0,0,
590,-19.66,-23.11,-3.301,-9.63,2.83,-2.253,1.526,-0.4887,4.364,2.105,2.719,1.457,3.183,6.318,4.098,4.81,0,0,0,0,0,0,0,0,0,0,0,0,0,0,0,0,
591,-16.99,-18.41,-2.154,-7.5,6.358,2.844,3.664,1.879,6.79,3.721,4.964,6.869,8.627,11.13,10.0,9.665,0,0,0,0,0,0,0,0,0,0,0,0,0,0,0,0,
592,-19.06,-16.37,-4.869,-8.847,11.66,9.753,5.319,7.136,13.01,11.26,10.58,12.87,16.67,18.27,16.29,16.51,0,0,0,0,0,0,0,0,0,0,0,0,0,0,0,0,
593,-15.73,-14.54,-1.442,-9.448,13.98,13.05,6.532,11.45,18.46,18.01,11.95,14.02,17.57,19.2,14.01,15.73,0,0,0,0,0,0,0,0,0,0,0,0,0,0,0,0,
594,-5.445,-7.368,4.848,-3.183,12.45,11.89,5.732,10.73,17.66,17.87,9.088,11.67,13.65,15.53,11.69,11.42,0,0,0,0,0,0,0,0,0,0,0,0,0,0,0,0,
595,-1.642,-3.067,3.54,1.246,9.367,7.26,5.215,6.853,12.97,13.09,7.793,9.275,10.73,11.76,13.4,9.539,0,0,0,0,0,0,0,0,0,0,0,0,0,0,0,0,
596,-4.05,-5.35,0.8485,-1.441,8.05,4.258,6.378,4.614,9.877,8.23,6.804,6.911,8.74,8.179,12.03,6.183,0,0,0,0,0,0,0,0,0,0,0,0,0,0,0,0,
597,-4.845,-7.456,1.589,-6.163,8.491,4.874,5.873,3.009,9.551,5.356,4.966,3.401,8.118,5.856,10.31,3.605,0,0,0,0,0,0,0,0,0,0,0,0,0,0,0,0,
598,-6.641,-8.973,0.2749,-10.18,8.097,4.713,4.09,-0.8747,10.28,4.588,4.722,1.314,7.879,5.147,11.22,5.93,0,0,0,0,0,0,0,0,0,0,0,0,0,0,0,0,
599,-11.3,-11.91,-2.585,-10.72,6.201,3.844,2.127,-2.538,8.777,4.906,3.67,2.942,5.697,4.882,9.078,7.912,0,0,0,0,0,0,0,0,0,0,0,0,0,0,0,0,
600,-13.14,-13.33,-3.157,-6.1,3.4,3.141,-0.6619,0.4852,4.123,4.535,0.9571,3.914,3.587,4.358,5.946,6.548,0,0,0,0,0,0,0,0,0,0,0,0,0,0,0,0,
601,-11.38,-11.98,-1.487,-3.506,0.9046,-0.994,-0.6424,0.938,1.562,1.767,0.4847,1.811,2.369,2.739,5.032,4.558,0,0,0,0,0,0,0,0,0,0,0,0,0,0,0,0,
602,-12.32,-12.26,0.3041,-8.107,0.3516,-5.349,1.629,-1.706,2.219,-2.078,0.6166,1.097,-0.1379,0.8244,2.077,3.373,0,0,0,0,0,0,0,0,0,0,0,0,0,0,0,0,
603,-14.56,-15.54,0.3177,-13.26,2.394,-2.87,1.171,0.3498,1.469,-2.89,-0.8477,2.773,-1.694,1.166,-1.201,2.808,0,0,0,0,0,0,0,0,0,0,0,0,0,0,0,0,
604,-10.99,-13.79,0.4863,-12.06,6.306,3.52,0.8219,4.72,1.902,0.8511,-0.4459,4.403,0.142,3.559,-0.7804,2.656,0,0,0,0,0,0,0,0,0,0,0,0,0,0,0,0,
605,-6.721,-7.169,0.9887,-8.704,7.518,5.581,1.687,4.395,4.714,4.886,1.039,4.851,1.351,4.017,0.5463,2.992,0,0,0,0,0,0,0,0,0,0,0,0,0,0,0,0,
606,-9.67,-6.354,-1.747,-9.878,3.534,2.288,-0.4422,1.024,3.734,3.738,0.944,2.212,0.9396,2.126,1.971,3.907,0,0,0,0,0,0,0,0,0,0,0,0,0,0,0,0,
607,-13.1,-8.648,-4.358,-12.35,1.273,-0.4177,-1.52,-1.929,3.087,-0.2466,1.85,-1.767,2.738,1.889,4.291,5.024,0,0,0,0,0,0,0,0,0,0,0,0,0,0,0,0,
608,-11.85,-9.463,-3.844,-11.58,2.798,-0.4948,0.0686,-3.494,6.795,-1.601,1.694,-3.22,2.41,1.099,3.197,3.494,0,0,0,0,0,0,0,0,0,0,0,0,0,0,0,0,
609,-11.49,-12.55,-5.351,-10.22,2.435,0.5092,-2.241,-2.172,5.782,-1.774,-2.363,-2.271,-2.722,-2.398,-0.6723,-0.6488,0,0,0,0,0,0,0,0,0,0,0,0,0,0,0,0,
610,-10.62,-9.963,-6.281,-8.898,4.101,5.081,-3.512,0.766,3.231,-0.4017,-2.409,1.206,-2.137,-1.258,0.514,0.6291,0,0,0,0,0,0,0,0,0,0,0,0,0,0,0,0,
611,-6.499,-1.684,-1.125,-7.218,10.32,11.07,2.758,1.089,9.327,5.288,3.292,4.867,5.309,5.135,5.939,7.621,0,0,0,0,0,0,0,0,0,0,0,0,0,0,0,0,
612,-5.352,-2.615,2.79,-7.926,12.69,11.81,6.881,-0.28,15.49,9.429,5.0,4.944,8.553,8.91,9.411,11.44,0,0,0,0,0,0,0,0,0,0,0,0,0,0,0,0,
613,-6.001,-5.335,2.026,-8.666,11.42,10.14,4.479,1.659,15.04,9.177,3.231,5.621,8.319,9.887,11.43,12.6,0,0,0,0,0,0,0,0,0,0,0,0,0,0,0,0,
614,-3.997,-0.4148,2.925,-6.428,11.86,9.797,4.31,5.014,14.37,9.392,5.087,8.15,10.25,10.46,13.09,13.73,0,0,0,0,0,0,0,0,0,0,0,0,0,0,0,0,
615,-4.327,-0.2129,4.38,-4.955,12.03,8.965,7.512,5.103,14.77,9.771,9.438,7.689,12.88,10.81,15.37,13.75,0,0,0,0,0,0,0,0,0,0,0,0,0,0,0,0,
616,-6.279,-4.137,2.983,-7.358,11.47,9.162,8.549,3.889,15.44,9.564,12.37,6.519,14.35,11.2,18.09,14.84,0,0,0,0,0,0,0,0,0,0,0,0,0,0,0,0,
617,-5.787,-4.07,1.232,-11.58,10.65,9.586,7.142,2.984,16.28,9.188,11.76,6.086,13.08,9.072,15.74,13.98,0,0,0,0,0,0,0,0,0,0,0,0,0,0,0,0,
618,-5.43,-4.993,1.039,-11.83,9.592,8.473,6.594,2.007,15.25,6.651,9.708,4.558,11.87,6.93,12.82,10.77,0,0,0,0,0,0,0,0,0,0,0,0,0,0,0,0,
619,-3.402,-5.185,3.238,-7.865,11.2,9.68,8.276,2.863,16.02,6.435,10.78,5.511,14.94,9.582,17.1,13.3,0,0,0,0,0,0,0,0,0,0,0,0,0,0,0,0,
620,-1.502,-2.767,5.18,-8.857,12.29,10.59,8.373,3.203,18.86,9.85,11.28,6.68,15.37,10.55,18.19,16.2,0,0,0,0,0,0,0,0,0,0,0,0,0,0,0,0,
621,-7.158,-5.522,1.79,-13.98,8.623,6.807,4.115,0.4115,16.26,8.358,7.003,3.106,9.335,6.205,10.57,10.9,0,0,0,0,0,0,0,0,0,0,0,0,0,0,0,0,
622,-12.16,-8.886,-2.126,-12.56,6.102,5.321,0.837,-0.1394,10.69,4.476,4.374,1.42,6.19,4.786,6.52,6.312,0,0,0,0,0,0,0,0,0,0,0,0,0,0,0,0,
623,-7.476,-4.208,1.121,-6.431,9.298,9.794,3.422,4.771,11.04,6.896,7.425,4.819,8.887,8.367,9.598,8.446,0,0,0,0,0,0,0,0,0,0,0,0,0,0,0,0,
624,-2.728,0.923,6.235,-2.473,13.55,13.25,8.216,10.07,15.72,11.56,10.87,6.705,11.67,10.88,12.18,10.43,0,0,0,0,0,0,0,0,0,0,0,0,0,0,0,0,
625,-3.789,0.2361,6.226,-1.211,13.99,12.83,9.456,11.07,18.0,13.51,11.23,6.49,12.44,10.83,10.95,9.269,0,0,0,0,0,0,0,0,0,0,0,0,0,0,0,0,
626,-4.356,-0.3875,4.652,-3.007,12.3,12.87,7.564,10.32,16.37,14.23,10.32,7.773,11.49,11.17,8.354,8.628,0,0,0,0,0,0,0,0,0,0,0,0,0,0,0,0,
627,-3.124,1.065,5.044,-4.04,13.57,16.18,7.263,13.86,14.19,15.13,10.22,10.31,10.91,13.6,8.113,9.976,0,0,0,0,0,0,0,0,0,0,0,0,0,0,0,0,
628,-2.321,2.564,5.923,-0.5288,17.63,20.5,8.81,18.86,15.21,18.8,11.14,11.89,12.7,15.95,10.08,11.23,0,0,0,0,0,0,0,0,0,0,0,0,0,0,0,0,
629,-0.4335,5.475,6.309,1.681,18.74,21.07,8.485,16.71,17.85,22.43,11.87,10.01,13.37,14.72,10.86,10.96,0,0,0,0,0,0,0,0,0,0,0,0,0,0,0,0,
630,0.9866,5.941,5.316,-0.1255,15.04,16.84,7.034,11.46,16.64,18.98,11.23,6.948,11.51,11.73,9.531,10.08,0,0,0,0,0,0,0,0,0,0,0,0,0,0,0,0,
631,-1.198,1.19,3.306,-1.292,10.76,12.41,6.771,11.91,12.2,13.48,9.774,8.046,10.84,11.51,8.397,10.8,0,0,0,0,0,0,0,0,0,0,0,0,0,0,0,0,
632,-4.777,-0.7157,1.495,-1.197,8.027,10.34,5.774,13.1,9.851,12.55,8.775,10.59,10.34,12.02,7.98,12.84,0,0,0,0,0,0,0,0,0,0,0,0,0,0,0,0,
633,-8.338,1.458,-1.446,-1.396,5.209,8.13,4.123,9.633,9.317,10.87,9.232,9.329,8.723,9.93,6.793,12.03,0,0,0,0,0,0,0,0,0,0,0,0,0,0,0,0,
634,-11.95,0.5752,-3.668,-1.62,3.673,5.976,4.94,6.832,9.034,7.905,11.49,7.225,9.986,8.231,7.085,8.552,0,0,0,0,0,0,0,0,0,0,0,0,0,0,0,0,
635,-12.48,-1.753,-2.316,-1.236,4.321,5.858,6.342,6.445,10.21,8.491,12.51,7.522,11.67,8.032,9.383,6.531,0,0,0,0,0,0,0,0,0,0,0,0,0,0,0,0,
636,-11.65,-2.622,-2.257,-0.2331,2.199,3.939,4.293,4.63,9.211,8.174,9.204,6.866,8.033,5.387,7.813,3.865,0,0,0,0,0,0,0,0,0,0,0,0,0,0,0,0,
637,-15.0,-5.625,-6.152,-2.478,-3.718,-2.517,-0.0971,0.609,3.162,2.651,4.013,2.788,1.956,-0.0325,1.687,-1.654,0,0,0,0,0,0,0,0,0,0,0,0,0,0,0,0,
638,-19.67,-11.07,-8.31,-8.463,-6.753,-7.09,-2.923,-3.944,-2.099,-3.335,0.2168,-0.3438,-2.089,-3.356,-3.49,-4.304,0,0,0,0,0,0,0,0,0,0,0,0,0,0,0,0,
639,-19.16,-12.95,-6.357,-9.585,-3.985,-4.44,-2.67,-5.891,-2.166,-3.749,-1.179,1.404,-3.042,-1.396,-4.119,-0.9739,0,0,0,0,0,0,0,0,0,0,0,0,0,0,0,0,
640,-15.58,-9.396,-4.496,-5.615,-0.9383,-0.797,-1.799,-4.369,-0.1421,0.1362,0.466,3.553,-1.018,1.926,0.7279,3.196,0,0,0,0,0,0,0,0,0,0,0,0,0,0,0,0,
641,-15.23,-7.739,-5.88,-5.95,-2.619,-2.77,-2.091,-2.035,0.5196,1.242,2.932,2.888,0.9656,2.472,6.018,4.815,0,0,0,0,0,0,0,0,0,0,0,0,0,0,0,0,
642,-17.33,-9.794,-8.126,-8.185,-5.426,-5.342,-1.971,0.3384,-0.1105,-0.2855,2.948,2.884,0.6405,2.608,5.382,4.788,0,0,0,0,0,0,0,0,0,0,0,0,0,0,0,0,
643,-18.21,-9.694,-7.982,-6.726,-4.907,-4.377,-1.96,0.4529,-0.8929,-0.2858,1.415,2.105,-0.7668,1.743,0.9958,2.41,0,0,0,0,0,0,0,0,0,0,0,0,0,0,0,0,
644,-18.68,-9.492,-6.824,-7.809,-4.047,-4.553,-2.342,-3.639,-0.9496,-2.311,1.147,-1.522,-1.218,-2.296,-1.495,-0.3982,0,0,0,0,0,0,0,0,0,0,0,0,0,0,0,0,
645,-19.07,-11.26,-6.52,-13.62,-5.456,-7.351,-1.161,-6.704,-0.0346,-6.126,1.911,-2.751,-0.1138,-4.588,-0.6782,0.2713,0,0,0,0,0,0,0,0,0,0,0,0,0,0,0,0,
646,-21.18,-13.09,-8.393,-17.93,-8.684,-11.0,-1.857,-7.34,-0.7898,-7.234,1.643,-0.9997,-0.0107,-4.069,0.5891,0.8572,0,0,0,0,0,0,0,0,0,0,0,0,0,0,0,0,
647,-27.14,-18.51,-13.13,-19.83,-13.06,-15.02,-5.936,-9.065,-4.472,-8.599,1.446,-0.0201,-1.494,-4.034,0.5228,-0.288,0,0,0,0,0,0,0,0,0,0,0,0,0,0,0,0,
648,-28.87,-23.54,-15.06,-21.0,-14.32,-15.77,-6.787,-8.71,-6.109,-9.549,3.282,1.244,-1.316,-2.409,1.725,1.728,0,0,0,0,0,0,0,0,0,0,0,0,0,0,0,0,
649,-23.64,-21.27,-11.54,-19.81,-11.53,-13.42,-3.946,-5.534,-3.888,-6.736,4.811,1.571,-0.4729,-0.8674,3.341,2.774,0,0,0,0,0,0,0,0,0,0,0,0,0,0,0,0,
650,-22.16,-18.61,-10.37,-16.12,-10.68,-13.16,-3.106,-5.324,-3.002,-5.918,2.865,-2.119,-2.365,-3.74,0.4141,-2.571,0,0,0,0,0,0,0,0,0,0,0,0,0,0,0,0,
651,-24.12,-18.04,-13.34,-13.36,-12.22,-13.23,-4.641,-8.194,-5.061,-8.361,-1.899,-5.662,-5.611,-6.775,-5.311,-6.93,0,0,0,0,0,0,0,0,0,0,0,0,0,0,0,0,
652,-22.12,-15.39,-14.33,-14.78,-12.84,-12.29,-6.867,-10.65,-7.563,-8.779,-5.859,-5.153,-7.915,-7.36,-8.617,-6.441,0,0,0,0,0,0,0,0,0,0,0,0,0,0,0,0,
653,-21.16,-16.05,-15.3,-20.68,-15.05,-16.01,-10.19,-12.23,-11.03,-10.33,-8.213,-5.641,-10.94,-10.29,-10.49,-8.203,0,0,0,0,0,0,0,0,0,0,0,0,0,0,0,0,
654,-24.8,-20.58,-18.95,-26.6,-18.51,-21.27,-13.22,-13.79,-15.75,-15.69,-10.58,-9.78,-13.96,-14.19,-11.5,-12.16,0,0,0,0,0,0,0,0,0,0,0,0,0,0,0,0,
655,-25.64,-20.69,-18.53,-25.42,-16.34,-18.96,-11.92,-15.42,-16.08,-17.73,-9.612,-11.55,-12.0,-13.36,-9.031,-11.8,0,0,0,0,0,0,0,0,0,0,0,0,0,0,0,0,
656,-21.49,-17.13,-14.16,-20.92,-10.68,-13.72,-8.58,-15.16,-10.5,-15.04,-6.832,-11.03,-9.505,-12.15,-8.57,-12.18,0,0,0,0,0,0,0,0,0,0,0,0,0,0,0,0,
657,-20.06,-15.73,-14.43,-24.15,-11.29,-14.01,-10.04,-13.49,-9.044,-15.02,-9.219,-12.29,-12.76,-14.48,-12.14,-16.77,0,0,0,0,0,0,0,0,0,0,0,0,0,0,0,0,T2
658,-21.62,-16.08,-15.93,-27.49,-14.41,-15.1,-11.14,-13.91,-12.82,-16.05,-8.688,-10.29,-11.94,-12.11,-8.02,-13.76,0,0,0,0,0,0,0,0,0,0,0,0,0,0,0,0,
659,-19.18,-15.38,-12.79,-21.08,-11.8,-13.06,-6.507,-14.81,-10.98,-12.1,-0.063,-5.486,-4.241,-5.014,0.6913,-4.771,0,0,0,0,0,0,0,0,0,0,0,0,0,0,0,0,
660,-17.49,-14.75,-12.36,-17.73,-10.58,-13.0,-5.658,-13.8,-7.276,-8.572,2.618,-5.335,-2.332,-3.844,-0.0211,-3.685,0,0,0,0,0,0,0,0,0,0,0,0,0,0,0,0,
661,-21.55,-17.27,-16.41,-21.11,-14.76,-14.94,-9.155,-13.72,-9.451,-9.251,-0.9556,-5.96,-4.036,-5.801,-2.586,-4.2,0,0,0,0,0,0,0,0,0,0,0,0,0,0,0,0,
662,-21.95,-20.36,-16.07,-19.72,-14.15,-14.07,-6.228,-13.1,-8.911,-8.586,1.279,-3.68,-0.3558,-3.114,1.82,1.37,0,0,0,0,0,0,0,0,0,0,0,0,0,0,0,0,
663,-15.98,-17.57,-10.83,-17.44,-6.957,-9.648,0.0979,-9.47,-1.793,-5.259,5.725,-2.91,4.381,0.4674,6.278,4.708,0,0,0,0,0,0,0,0,0,0,0,0,0,0,0,0,
664,-12.89,-11.7,-8.999,-19.01,-3.705,-5.925,0.0353,-10.18,2.138,-2.606,4.853,-4.644,3.617,-0.6588,5.831,2.151,0,0,0,0,0,0,0,0,0,0,0,0,0,0,0,0,
665,-16.28,-12.61,-14.98,-20.86,-9.37,-9.225,-6.995,-16.71,-3.284,-4.816,-1.105,-8.579,-4.423,-6.561,-0.6359,-3.771,0,0,0,0,0,0,0,0,0,0,0,0,0,0,0,0,
666,-21.67,-19.09,-21.56,-24.46,-16.79,-15.63,-12.99,-18.81,-13.48,-12.08,-7.307,-11.66,-12.24,-11.14,-7.631,-8.539,0,0,0,0,0,0,0,0,0,0,0,0,0,0,0,0,
667,-22.36,-20.92,-19.65,-25.17,-17.01,-14.34,-11.05,-17.02,-17.4,-14.97,-8.56,-10.55,-11.44,-10.48,-9.043,-9.24,0,0,0,0,0,0,0,0,0,0,0,0,0,0,0,0,
668,-19.21,-17.36,-15.36,-19.73,-13.17,-9.824,-7.385,-17.79,-13.22,-11.87,-8.75,-10.7,-10.35,-10.93,-11.24,-11.67,0,0,0,0,0,0,0,0,0,0,0,0,0,0,0,0,
669,-19.97,-15.8,-17.24,-19.18,-13.18,-11.48,-9.383,-16.89,-11.64,-12.05,-11.37,-12.69,-14.41,-13.96,-14.49,-15.22,0,0,0,0,0,0,0,0,0,0,0,0,0,0,0,0,
670,-22.99,-17.32,-20.06,-24.85,-15.58,-14.5,-12.05,-14.93,-15.51,-14.3,-11.89,-11.74,-15.71,-13.97,-13.29,-14.32,0,0,0,0,0,0,0,0,0,0,0,0,0,0,0,0,
671,-22.38,-17.6,-19.34,-26.28,-17.06,-15.13,-12.79,-16.97,-18.65,-13.91,-11.46,-10.91,-15.25,-12.79,-12.03,-12.68,0,0,0,0,0,0,0,0,0,0,0,0,0,0,0,0,
672,-21.43,-17.29,-18.89,-22.65,-17.99,-16.12,-14.56,-16.76,-19.23,-13.03,-12.29,-10.2,-15.46,-11.09,-9.379,-9.805,0,0,0,0,0,0,0,0,0,0,0,0,0,0,0,0,
673,-23.01,-18.71,-20.03,-19.27,-17.17,-15.22,-14.74,-13.05,-17.27,-10.68,-9.691,-7.072,-11.37,-6.434,-2.977,-3.964,0,0,0,0,0,0,0,0,0,0,0,0,0,0,0,0,
674,-23.86,-18.05,-20.24,-18.97,-15.61,-12.73,-11.91,-14.1,-13.52,-7.843,-5.268,-6.415,-7.432,-4.45,-1.435,-3.355,0,0,0,0,0,0,0,0,0,0,0,0,0,0,0,0,
675,-22.47,-14.19,-18.93,-20.5,-16.23,-13.41,-10.51,-17.45,-12.07,-9.108,-5.568,-8.87,-9.6,-7.58,-4.892,-8.572,0,0,0,0,0,0,0,0,0,0,0,0,0,0,0,0,
676,-20.1,-12.54,-17.72,-19.77,-16.68,-14.75,-10.63,-16.69,-13.48,-11.14,-8.073,-10.1,-11.87,-9.65,-6.151,-10.99,0,0,0,0,0,0,0,0,0,0,0,0,0,0,0,0,
677,-17.41,-11.77,-15.96,-18.37,-14.62,-12.84,-8.444,-14.38,-13.19,-10.49,-7.047,-9.906,-10.45,-8.918,-5.399,-9.336,0,0,0,0,0,0,0,0,0,0,0,0,0,0,0,0,
678,-14.23,-7.524,-11.89,-19.2,-11.66,-9.884,-5.701,-14.11,-9.635,-9.558,-4.571,-9.101,-8.418,-7.788,-4.496,-7.887,0,0,0,0,0,0,0,0,0,0,0,0,0,0,0,0,
679,-11.23,-5.1,-8.778,-18.89,-8.552,-7.56,-5.688,-16.48,-5.786,-8.33,-4.944,-8.998,-7.091,-7.641,-5.077,-8.381,0,0,0,0,0,0,0,0,0,0,0,0,0,0,0,0,
680,-11.54,-9.398,-10.72,-18.13,-8.282,-7.808,-6.997,-20.11,-5.383,-8.042,-7.718,-10.88,-8.078,-9.834,-8.662,-9.757,0,0,0,0,0,0,0,0,0,0,0,0,0,0,0,0,
681,-16.43,-13.75,-14.87,-20.32,-12.98,-11.84,-9.198,-21.89,-9.486,-11.63,-9.867,-12.81,-11.82,-12.68,-12.28,-11.62,0,0,0,0,0,0,0,0,0,0,0,0,0,0,0,0,
682,-20.56,-12.39,-16.35,-22.12,-16.62,-15.22,-12.69,-21.56,-13.91,-15.34,-9.78,-14.21,-15.02,-14.44,-14.6,-14.75,0,0,0,0,0,0,0,0,0,0,0,0,0,0,0,0,
683,-20.56,-11.93,-16.56,-23.63,-17.64,-17.57,-15.38,-21.9,-16.34,-17.08,-10.24,-16.68,-17.8,-17.46,-17.85,-18.05,0,0,0,0,0,0,0,0,0,0,0,0,0,0,0,0,
684,-20.08,-16.35,-18.25,-27.8,-20.95,-21.53,-16.37,-23.63,-20.34,-20.15,-12.85,-18.83,-20.52,-20.55,-19.74,-19.81,0,0,0,0,0,0,0,0,0,0,0,0,0,0,0,0,
685,-19.41,-17.83,-18.74,-29.54,-23.16,-23.14,-15.99,-25.36,-24.84,-22.72,-13.74,-19.61,-20.68,-21.22,-19.34,-21.73,0,0,0,0,0,0,0,0,0,0,0,0,0,0,0,0,
686,-17.7,-16.15,-17.76,-26.73,-21.9,-22.45,-15.98,-26.44,-25.87,-23.04,-12.53,-20.98,-20.44,-22.51,-20.59,-25.33,0,0,0,0,0,0,0,0,0,0,0,0,0,0,0,0,
687,-18.61,-18.06,-18.81,-24.55,-21.28,-22.54,-16.58,-25.21,-24.36,-22.48,-10.78,-20.78,-19.23,-22.45,-19.55,-26.03,0,0,0,0,0,0,0,0,0,0,0,0,0,0,0,0,
688,-19.47,-19.54,-18.55,-24.98,-19.18,-20.27,-13.05,-20.49,-19.6,-18.46,-6.955,-16.27,-13.5,-17.38,-13.65,-22.55,0,0,0,0,0,0,0,0,0,0,0,0,0,0,0,0,
689,-16.73,-17.68,-15.02,-26.69,-16.03,-17.92,-8.357,-16.84,-12.95,-13.6,-5.033,-13.5,-10.25,-14.31,-12.61,-22.57,0,0,0,0,0,0,0,0,0,0,0,0,0,0,0,0,
690,-15.98,-16.97,-14.75,-25.45,-17.27,-18.98,-10.28,-17.66,-11.57,-14.45,-7.359,-15.65,-12.85,-16.05,-15.51,-25.86,0,0,0,0,0,0,0,0,0,0,0,0,0,0,0,0,
691,-16.22,-15.47,-16.67,-18.34,-18.18,-17.07,-12.51,-17.99,-14.24,-16.09,-7.229,-15.99,-12.91,-15.72,-13.0,-24.74,0,0,0,0,0,0,0,0,0,0,0,0,0,0,0,0,
692,-10.35,-9.676,-13.16,-11.64,-13.49,-10.74,-8.402,-14.84,-13.48,-13.05,-3.52,-13.2,-9.649,-12.99,-9.359,-20.43,0,0,0,0,0,0,0,0,0,0,0,0,0,0,0,0,
693,-3.714,-3.701,-7.727,-11.41,-8.617,-6.846,-5.156,-13.2,-9.491,-9.479,-1.642,-12.52,-8.626,-11.35,-9.451,-17.67,0,0,0,0,0,0,0,0,0,0,0,0,0,0,0,0,
694,-4.518,-4.29,-7.805,-15.71,-9.179,-8.881,-7.036,-15.89,-8.212,-8.754,-3.604,-14.05,-10.81,-11.3,-11.37,-17.95,0,0,0,0,0,0,0,0,0,0,0,0,0,0,0,0,
695,-7.758,-9.488,-10.42,-18.64,-12.79,-13.18,-9.233,-17.99,-11.83,-10.66,-6.601,-13.96,-13.44,-12.01,-13.42,-19.77,0,0,0,0,0,0,0,0,0,0,0,0,0,0,0,0,
696,-5.275,-8.444,-10.38,-15.95,-12.08,-12.17,-8.202,-15.82,-14.03,-11.7,-4.816,-10.86,-11.36,-9.985,-11.9,-18.59,0,0,0,0,0,0,0,0,0,0,0,0,0,0,0,0,
697,-0.334,-2.701,-9.488,-12.08,-7.29,-7.448,-5.549,-12.71,-10.55,-8.316,0.4231,-7.448,-6.263,-5.855,-8.575,-15.65,0,0,0,0,0,0,0,0,0,0,0,0,0,0,0,0,
698,0.4998,-2.769,-8.932,-11.89,-5.597,-6.372,-3.83,-11.13,-7.394,-4.879,2.647,-6.181,-5.097,-4.573,-7.925,-14.66,0,0,0,0,0,0,0,0,0,0,0,0,0,0,0,0,
699,-0.3814,-4.692,-6.842,-11.95,-5.395,-6.325,-1.709,-10.57,-6.96,-5.001,4.578,-5.265,-5.109,-3.914,-7.058,-13.3,0,0,0,0,0,0,0,0,0,0,0,0,0,0,0,0,
700,-0.983,-3.934,-5.542,-10.73,-3.373,-4.859,1.374,-10.54,-5.072,-4.175,9.07,-2.33,-1.726,-0.1105,-4.895,-11.26,0,0,0,0,0,0,0,0,0,0,0,0,0,0,0,0,
701,-2.964,-3.532,-5.806,-8.659,-2.462,-3.745,3.292,-7.914,-2.092,-0.357,12.05,1.92,2.218,4.499,-2.303,-9.672,0,0,0,0,0,0,0,0,0,0,0,0,0,0,0,0,
702,-2.035,-0.4838,-3.236,-6.013,-0.6301,-0.4514,4.844,-5.018,1.467,3.431,13.99,3.773,5.274,7.582,1.434,-7.142,0,0,0,0,0,0,0,0,0,0,0,0,0,0,0,0,
703,1.831,2.552,-0.565,-7.616,2.268,1.832,5.301,-8.538,5.817,4.785,15.61,0.8596,6.504,7.151,2.387,-6.348,0,0,0,0,0,0,0,0,0,0,0,0,0,0,0,0,
704,1.467,-0.2881,-2.585,-10.72,0.3877,-1.169,2.617,-12.31,6.117,2.756,13.67,-2.643,4.109,3.134,-0.3286,-8.517,0,0,0,0,0,0,0,0,0,0,0,0,0,0,0,0,
705,0.6973,-2.188,-3.202,-7.651,-1.345,-1.944,1.679,-9.434,2.483,-0.1272,11.96,-2.086,2.604,2.302,0.1537,-7.24,0,0,0,0,0,0,0,0,0,0,0,0,0,0,0,0,
706,6.014,0.0534,0.7094,-3.646,3.29,2.544,4.706,-5.754,2.626,1.009,15.01,0.9168,5.46,7.677,6.3,-0.6231,0,0,0,0,0,0,0,0,0,0,0,0,0,0,0,0,
707,9.911,1.746,1.552,-4.095,6.119,4.78,4.698,-4.236,6.098,5.657,17.0,2.667,7.653,11.95,11.11,3.1,0,0,0,0,0,0,0,0,0,0,0,0,0,0,0,0,
708,6.842,1.643,-2.4,-4.576,3.441,3.568,0.3632,-3.901,5.824,8.227,14.65,1.606,6.765,11.37,10.02,0.7814,0,0,0,0,0,0,0,0,0,0,0,0,0,0,0,0,
709,4.541,-0.3908,-4.256,-4.568,3.907,4.247,-1.062,-4.048,4.295,7.818,13.45,-0.015,6.454,10.52,9.022,-0.1926,0,0,0,0,0,0,0,0,0,0,0,0,0,0,0,0,
710,8.12,1.09,-0.8988,-4.617,8.721,7.395,2.017,-1.183,6.897,8.443,14.4,1.259,6.932,11.45,10.26,1.726,0,0,0,0,0,0,0,0,0,0,0,0,0,0,0,0,
711,12.14,7.858,3.086,-0.1798,10.12,8.905,2.949,1.87,8.672,10.04,13.31,3.967,5.711,12.1,7.911,1.392,0,0,0,0,0,0,0,0,0,0,0,0,0,0,0,0,
712,11.95,8.864,1.788,6.019,6.897,7.653,-1.932,2.259,5.307,10.19,9.847,5.268,3.103,12.2,4.223,0.1784,0,0,0,0,0,0,0,0,0,0,0,0,0,0,0,0,
713,10.43,5.823,-2.05,5.279,4.402,6.583,-6.445,4.342,1.324,10.3,6.833,5.821,0.985,12.6,3.944,0.4786,0,0,0,0,0,0,0,0,0,0,0,0,0,0,0,0,
714,10.18,7.396,-2.05,-0.9799,3.65,5.638,-4.754,5.01,0.0315,10.37,6.937,5.046,0.674,11.87,4.734,0.243,0,0,0,0,0,0,0,0,0,0,0,0,0,0,0,0,
715,7.923,5.174,-1.301,-5.478,1.799,2.598,-1.477,1.514,0.6639,7.421,9.4,2.254,1.77,8.921,5.881,-0.2486,0,0,0,0,0,0,0,0,0,0,0,0,0,0,0,0,
716,3.827,0.2731,-2.196,-6.334,0.6409,0.4236,-0.3225,0.427,2.481,3.816,10.77,1.145,2.968,6.776,7.489,0.408,0,0,0,0,0,0,0,0,0,0,0,0,0,0,0,0,
717,4.445,4.237,-0.1783,-3.522,2.074,1.459,1.048,0.1967,3.599,3.747,10.59,2.039,2.832,6.541,6.856,0.0169,0,0,0,0,0,0,0,0,0,0,0,0,0,0,0,0,
718,7.552,6.443,0.5779,-1.099,1.174,0.6698,0.2277,-2.802,1.753,3.674,9.156,0.605,-0.1869,4.685,3.493,-3.314,0,0,0,0,0,0,0,0,0,0,0,0,0,0,0,0,
719,5.325,-0.776,-4.402,-4.981,-2.868,-3.198,-3.255,-2.668,-2.17,0.308,6.258,-1.305,-3.81,2.184,0.0817,-5.949,0,0,0,0,0,0,0,0,0,0,0,0,0,0,0,0,
720,3.003,-2.904,-6.156,-8.046,-3.573,-3.836,-3.147,0.707,-4.812,-1.803,5.325,-0.4164,-3.721,2.65,0.2767,-4.805,0,0,0,0,0,0,0,0,0,0,0,0,0,0,0,0,
721,6.449,2.36,-2.7,-4.602,-1.422,-1.482,-1.065,2.082,-4.311,-0.2052,7.854,0.2037,-1.113,4.322,3.962,-3.389,0,0,0,0,0,0,0,0,0,0,0,0,0,0,0,0,
722,6.763,2.495,-3.532,-6.028,-2.379,-2.412,-2.109,1.631,-2.551,1.036,9.201,-1.419,-0.5763,3.551,5.229,-5.037,0,0,0,0,0,0,0,0,0,0,0,0,0,0,0,0,
723,-0.2139,-3.913,-7.953,-13.69,-6.242,-6.472,-3.472,-0.8083,-3.428,-1.67,6.937,-5.032,-3.716,-1.282,1.309,-9.716,0,0,0,0,0,0,0,0,0,0,0,0,0,0,0,0,
724,-4.432,-7.64,-7.651,-13.55,-8.078,-8.756,-2.356,-3.548,-6.532,-6.882,5.291,-8.208,-7.04,-5.718,-1.411,-13.41,0,0,0,0,0,0,0,0,0,0,0,0,0,0,0,0,
725,-1.267,-4.425,-2.348,-7.066,-5.616,-7.705,0.3747,-1.761,-6.231,-9.069,7.115,-6.077,-6.739,-3.673,0.8676,-10.82,0,0,0,0,0,0,0,0,0,0,0,0,0,0,0,0,
726,2.413,-1.414,1.198,-5.77,-2.549,-5.95,2.308,0.3923,-3.316,-7.201,8.45,-2.932,-5.24,-0.4708,1.753,-6.805,0,0,0,0,0,0,0,0,0,0,0,0,0,0,0,0,
727,4.058,-0.9167,0.9993,-5.938,-0.678,-3.368,2.783,-1.867,-3.101,-5.363,9.265,-3.262,-3.128,0.4814,2.201,-4.955,0,0,0,0,0,0,0,0,0,0,0,0,0,0,0,0,
728,7.452,4.058,2.855,-0.755,3.585,2.72,5.956,-1.561,-0.6878,-1.865,14.87,-0.4325,2.571,5.584,9.046,0.3438,0,0,0,0,0,0,0,0,0,0,0,0,0,0,0,0,
729,9.827,8.199,6.367,2.964,6.075,6.058,9.194,3.125,5.257,3.139,19.56,3.249,5.433,9.203,12.85,3.603,0,0,0,0,0,0,0,0,0,0,0,0,0,0,0,0,
730,8.205,5.174,5.859,1.405,2.558,1.606,7.837,4.175,4.409,2.322,17.52,2.285,3.083,6.484,9.244,1.8,0,0,0,0,0,0,0,0,0,0,0,0,0,0,0,0,
731,8.298,3.922,6.457,1.664,3.016,-0.7109,10.41,2.403,2.147,-0.0384,18.05,3.828,5.673,8.25,10.47,5.122,0,0,0,0,0,0,0,0,0,0,0,0,0,0,0,0,
732,11.04,6.39,10.5,3.526,7.525,1.248,15.42,2.904,8.004,3.077,20.83,4.653,8.671,10.45,11.08,6.583,0,0,0,0,0,0,0,0,0,0,0,0,0,0,0,0,
733,10.67,6.868,8.438,0.8939,4.883,-0.814,10.46,3.322,8.654,3.366,16.92,-0.3511,4.083,5.73,4.927,0.8122,0,0,0,0,0,0,0,0,0,0,0,0,0,0,0,0,
734,7.009,5.241,4.583,-3.471,4.406,0.403,7.236,3.203,3.875,2.202,16.72,2.436,5.749,9.053,8.45,4.801,0,0,0,0,0,0,0,0,0,0,0,0,0,0,0,0,
735,4.612,1.532,8.87,-2.721,12.02,7.782,14.48,4.797,10.64,9.112,23.25,9.402,12.32,16.12,15.51,11.5,0,0,0,0,0,0,0,0,0,0,0,0,0,0,0,0,
736,6.169,0.8238,9.062,4.349,8.03,4.464,11.95,4.526,13.93,9.635,17.28,2.196,3.028,6.027,4.835,0.2566,0,0,0,0,0,0,0,0,0,0,0,0,0,0,0,0,
737,7.988,5.726,-0.7855,9.775,-5.895,-7.332,0.3667,0.6693,-1.324,-4.152,4.527,-6.834,-10.21,-5.653,-6.516,-10.59,0,0,0,0,0,0,0,0,0,0,0,0,0,0,0,0,
738,5.362,5.972,-3.752,6.264,-6.912,-8.652,1.23,-0.6995,-9.739,-9.684,7.311,-2.377,-6.085,-0.3545,0.7424,-2.718,0,0,0,0,0,0,0,0,0,0,0,0,0,0,0,0,
739,1.792,0.6757,0.2249,1.387,-1.242,-3.374,6.632,2.918,-2.085,-2.105,15.32,2.014,1.252,5.319,8.321,4.242,0,0,0,0,0,0,0,0,0,0,0,0,0,0,0,0,
740,0.4832,-1.865,-2.31,1.947,-2.798,-2.86,3.683,5.022,0.5919,0.7446,12.42,-0.5579,-0.6136,2.628,5.089,-0.3708,0,0,0,0,0,0,0,0,0,0,0,0,0,0,0,0,
741,-0.1834,-2.515,-4.456,1.496,-3.337,-3.328,2.288,1.905,-1.496,-1.253,8.438,-2.069,-1.988,1.371,2.825,-3.134,0,0,0,0,0,0,0,0,0,0,0,0,0,0,0,0,
742,0.086,-1.958,-0.4988,-1.415,-0.9017,-3.081,4.464,-0.8794,0.8598,-1.458,10.17,-1.22,-0.1022,3.028,3.913,-0.6031,0,0,0,0,0,0,0,0,0,0,0,0,0,0,0,0,
743,0.6347,0.1476,-0.0632,-1.376,-1.697,-4.546,4.339,0.6386,2.487,-1.524,12.41,1.654,1.5,5.869,4.813,1.909,0,0,0,0,0,0,0,0,0,0,0,0,0,0,0,0,
744,0.9687,-0.056,-1.741,1.669,-2.234,-4.712,5.433,2.287,2.996,0.1014,13.74,3.795,2.748,7.87,6.809,3.373,0,0,0,0,0,0,0,0,0,0,0,0,0,0,0,0,
745,1.485,-1.94,-0.0032,3.119,-1.767,-3.371,6.852,0.384,4.281,2.576,14.37,0.9052,3.618,6.962,8.086,4.075,0,0,0,0,0,0,0,0,0,0,0,0,0,0,0,0,
746,-0.5447,-3.53,-0.5614,-0.0923,-2.617,-3.168,5.737,-2.572,4.053,2.412,14.67,-0.9253,5.003,7.174,8.045,5.774,0,0,0,0,0,0,0,0,0,0,0,0,0,0,0,0,
747,-2.427,-3.839,-2.695,-1.922,-1.816,-2.755,6.588,-2.845,4.025,1.778,15.17,0.6539,5.502,7.752,8.814,7.785,0,0,0,0,0,0,0,0,0,0,0,0,0,0,0,0,
748,-0.0719,-1.277,-0.6495,0.7709,0.5603,-0.4233,8.436,-0.4646,4.524,2.57,14.92,1.734,4.944,7.219,9.741,8.405,0,0,0,0,0,0,0,0,0,0,0,0,0,0,0,0,
749,1.328,0.5506,1.253,-0.3493,2.039,2.471,6.769,2.044,4.87,5.306,14.4,5.579,5.414,9.58,8.566,8.784,0,0,0,0,0,0,0,0,0,0,0,0,0,0,0,0,
750,0.5226,0.4987,0.5509,-2.436,2.0,2.323,4.272,3.361,5.479,7.483,13.06,8.152,3.695,9.961,4.499,6.97,0,0,0,0,0,0,0,0,0,0,0,0,0,0,0,0,
751,0.7866,0.623,1.077,0.7473,0.6623,-0.8296,4.353,3.268,4.793,4.675,11.31,3.52,1.744,6.01,2.953,4.27,0,0,0,0,0,0,0,0,0,0,0,0,0,0,0,0,
752,0.2351,-1.579,1.217,1.642,0.7507,-1.369,5.615,1.969,5.293,1.925,11.03,0.4903,3.373,4.382,4.478,3.134,0,0,0,0,0,0,0,0,0,0,0,0,0,0,0,0,
753,0.501,-1.782,-0.2197,1.297,1.817,0.8256,5.01,1.508,6.589,2.687,10.23,1.669,2.305,2.985,1.52,-0.4352,0,0,0,0,0,0,0,0,0,0,0,0,0,0,0,0,
754,0.0416,0.9402,-0.9414,0.9029,0.8345,1.293,3.241,2.751,4.165,2.013,11.31,3.231,2.162,3.693,2.304,0.3091,0,0,0,0,0,0,0,0,0,0,0,0,0,0,0,0,
755,-6.883,-4.592,-3.507,-6.847,0.2879,1.427,3.572,3.524,3.881,3.651,16.12,7.339,8.719,10.72,11.82,8.726,0,0,0,0,0,0,0,0,0,0,0,0,0,0,0,0,
756,-9.047,-8.685,-7.96,-7.382,-0.2037,1.286,2.373,3.617,6.212,8.407,13.63,7.266,7.225,9.785,9.981,6.952,0,0,0,0,0,0,0,0,0,0,0,0,0,0,0,0,
757,-0.1205,3.016,-11.04,8.658,-4.982,-1.98,-5.159,4.608,0.2593,5.043,2.615,0.0426,-5.087,-1.539,-2.964,-3.783,0,0,0,0,0,0,0,0,0,0,0,0,0,0,0,0,
758,3.63,13.34,-14.54,20.38,-8.542,-3.026,-11.53,6.403,-8.256,-2.273,-1.782,-1.347,-9.27,-4.031,-4.629,-3.928,0,0,0,0,0,0,0,0,0,0,0,0,0,0,0,0,
759,1.995,13.79,-15.66,22.25,-4.45,2.594,-8.916,8.582,-6.808,0.3554,2.712,3.928,-3.318,2.643,1.852,2.224,0,0,0,0,0,0,0,0,0,0,0,0,0,0,0,0,
760,4.665,15.59,-13.0,22.66,0.073,7.454,-5.055,9.512,-1.259,7.628,5.791,5.498,0.0865,5.529,3.149,3.982,0,0,0,0,0,0,0,0,0,0,0,0,0,0,0,0,
761,1.369,13.86,-16.18,18.76,-2.215,5.848,-8.162,8.2,-0.8266,8.208,4.402,4.08,-1.151,4.988,1.883,4.884,0,0,0,0,0,0,0,0,0,0,0,0,0,0,0,0,
762,-6.742,7.299,-21.94,15.81,-6.69,1.823,-11.71,7.76,-3.518,4.829,2.062,3.222,-2.987,4.143,1.216,5.663,0,0,0,0,0,0,0,0,0,0,0,0,0,0,0,0,
763,-6.847,4.559,-20.67,17.04,-9.192,-1.488,-11.37,8.015,-5.635,3.077,0.1682,1.251,-6.039,1.18,-2.172,2.272,0,0,0,0,0,0,0,0,0,0,0,0,0,0,0,0,
764,-5.881,1.608,-20.52,14.31,-11.16,-4.267,-12.54,5.638,-8.441,1.017,-2.094,-1.683,-10.05,-2.657,-7.187,-3.395,0,0,0,0,0,0,0,0,0,0,0,0,0,0,0,0,
765,-5.439,0.4838,-22.14,12.15,-10.86,-4.426,-12.5,3.021,-10.71,-1.675,-2.179,-3.107,-9.178,-3.409,-6.369,-4.773,0,0,0,0,0,0,0,0,0,0,0,0,0,0,0,0,
766,0.524,6.091,-17.9,14.84,-8.486,-2.643,-8.826,1.772,-8.222,-1.134,0.3139,-3.918,-5.243,-2.582,-2.39,-3.088,0,0,0,0,0,0,0,0,0,0,0,0,0,0,0,0,
767,0.2267,6.805,-17.65,14.5,-9.973,-4.278,-10.92,0.4779,-7.068,-0.7177,-0.536,-6.634,-7.136,-5.188,-5.333,-5.045,0,0,0,0,0,0,0,0,0,0,0,0,0,0,0,0,
768,-7.129,0.775,-22.52,12.27,-13.41,-7.878,-15.9,2.235,-12.6,-4.387,-3.154,-7.244,-9.935,-6.872,-8.769,-5.853,0,0,0,0,0,0,0,0,0,0,0,0,0,0,0,0,
769,-7.208,-0.9399,-19.86,12.89,-12.21,-7.459,-12.28,6.25,-13.6,-4.537,-0.4139,-2.394,-5.336,-1.706,-4.391,-0.1467,0,0,0,0,0,0,0,0,0,0,0,0,0,0,0,0,
770,-5.687,0.0469,-16.29,11.1,-10.53,-6.763,-7.726,5.624,-7.334,0.2423,4.539,-0.0887,-0.7677,1.872,-0.8131,3.607,0,0,0,0,0,0,0,0,0,0,0,0,0,0,0,0,
771,-10.47,-0.5128,-20.02,5.402,-13.09,-9.779,-10.21,1.398,-6.54,-0.4449,5.864,-4.115,-1.734,-2.1,-2.676,1.102,0,0,0,0,0,0,0,0,0,0,0,0,0,0,0,0,
772,-11.7,1.18,-21.15,5.615,-13.9,-8.83,-10.92,0.164,-9.207,-3.863,5.888,-5.066,-2.059,-4.109,-4.523,-0.0006,0,0,0,0,0,0,0,0,0,0,0,0,0,0,0,0,
773,-6.426,4.768,-16.18,14.22,-10.03,-2.756,-7.954,2.305,-6.254,-0.7295,8.02,-1.084,0.2276,-0.4869,-3.897,3.442,0,0,0,0,0,0,0,0,0,0,0,0,0,0,0,0,
774,-3.339,6.562,-12.63,17.87,-6.947,-1.173,-7.63,3.991,-2.791,2.422,10.67,-0.0792,1.505,1.626,-1.737,5.888,0,0,0,0,0,0,0,0,0,0,0,0,0,0,0,0,
775,-4.507,7.591,-13.15,14.08,-6.367,-2.735,-8.022,4.502,-2.729,0.6918,11.28,-0.8429,1.685,1.941,0.3286,5.464,0,0,0,0,0,0,0,0,0,0,0,0,0,0,0,0,
776,-5.836,8.082,-15.37,14.47,-6.825,-2.294,-7.852,5.001,-2.93,0.7106,10.79,0.1897,1.351,2.471,1.618,5.15,0,0,0,0,0,0,0,0,0,0,0,0,0,0,0,0,
777,-6.757,6.314,-17.11,15.34,-9.48,-4.841,-10.57,3.642,-4.624,0.5151,10.43,-0.662,-1.199,-0.0626,1.373,3.91,0,0,0,0,0,0,0,0,0,0,0,0,0,0,0,0,
778,-8.489,5.192,-18.1,10.36,-12.22,-8.616,-13.3,1.075,-7.467,-3.651,8.881,-2.256,-4.516,-3.171,-1.199,1.407,0,0,0,0,0,0,0,0,0,0,0,0,0,0,0,0,
779,-10.27,5.056,-18.68,8.219,-12.04,-7.451,-12.76,2.0,-8.324,-5.063,6.08,-1.923,-5.757,-2.866,-3.373,0.2781,0,0,0,0,0,0,0,0,0,0,0,0,0,0,0,0,
780,-12.02,2.062,-18.57,9.987,-12.91,-7.391,-12.66,4.464,-10.03,-4.261,3.802,-2.659,-6.627,-3.142,-3.499,-0.4892,0,0,0,0,0,0,0,0,0,0,0,0,0,0,0,0,
781,-13.53,-0.1254,-18.76,10.06,-16.66,-11.02,-14.88,4.134,-14.13,-6.828,2.008,-2.542,-8.77,-4.898,-4.631,-1.731,0,0,0,0,0,0,0,0,0,0,0,0,0,0,0,0,
782,-13.79,0.2633,-20.74,9.972,-19.24,-12.65,-18.17,2.654,-17.36,-8.47,-1.582,-0.9499,-11.36,-5.96,-9.152,-4.689,0,0,0,0,0,0,0,0,0,0,0,0,0,0,0,0,
783,-14.02,-2.966,-23.79,9.028,-20.75,-14.37,-21.38,0.6406,-20.19,-8.819,-6.241,-3.812,-13.77,-8.758,-13.59,-10.06,0,0,0,0,0,0,0,0,0,0,0,0,0,0,0,0,
784,-13.07,-5.012,-24.09,8.087,-21.24,-16.35,-20.42,-1.282,-21.5,-11.79,-5.986,-7.685,-13.05,-10.84,-11.61,-10.51,0,0,0,0,0,0,0,0,0,0,0,0,0,0,0,0,
785,-8.549,2.28,-18.8,11.38,-16.97,-12.78,-14.41,0.0181,-16.38,-11.55,0.2099,-6.991,-8.435,-8.165,-5.097,-5.359,0,0,0,0,0,0,0,0,0,0,0,0,0,0,0,0,
786,-5.22,8.805,-14.32,13.56,-12.33,-8.525,-11.26,2.797,-9.654,-7.238,4.037,-6.157,-5.707,-5.774,-2.43,-4.302,0,0,0,0,0,0,0,0,0,0,0,0,0,0,0,0,
787,-6.804,4.976,-17.85,9.539,-13.92,-9.473,-15.03,3.665,-9.55,-6.503,1.75,-6.374,-6.604,-6.145,-5.227,-6.607,0,0,0,0,0,0,0,0,0,0,0,0,0,0,0,0,
788,-8.741,0.3661,-22.65,6.333,-16.68,-10.21,-18.43,2.66,-11.67,-7.13,-0.909,-5.801,-7.038,-6.137,-9.183,-6.758,0,0,0,0,0,0,0,0,0,0,0,0,0,0,0,0,
789,-9.315,2.183,-22.77,8.841,-16.87,-10.16,-17.28,0.8631,-11.05,-6.093,-1.416,-6.464,-7.269,-6.934,-10.91,-6.635,0,0,0,0,0,0,0,0,0,0,0,0,0,0,0,0,
790,-10.88,3.511,-22.8,11.02,-17.52,-12.27,-16.61,-0.1931,-11.2,-7.553,-2.15,-6.248,-7.371,-7.36,-9.615,-5.838,0,0,0,0,0,0,0,0,0,0,0,0,0,0,0,0,
791,-11.71,1.947,-21.39,9.305,-15.78,-10.92,-16.45,-1.279,-9.887,-7.82,-2.069,-3.48,-4.525,-4.131,-8.006,-2.802,0,0,0,0,0,0,0,0,0,0,0,0,0,0,0,0,
792,-12.15,1.115,-19.07,8.317,-13.48,-8.318,-15.18,-2.826,-5.966,-4.241,-1.897,-3.67,-3.851,-3.1,-8.912,-2.336,0,0,0,0,0,0,0,0,0,0,0,0,0,0,0,0,
793,-14.88,0.0204,-23.33,8.712,-17.79,-12.0,-17.68,-1.02,-8.784,-4.938,-4.303,-7.555,-8.329,-6.674,-10.73,-6.029,0,0,0,0,0,0,0,0,0,0,0,0,0,0,0,0,
794,-14.23,0.2866,-25.1,8.682,-19.53,-13.16,-18.52,2.182,-14.0,-7.745,-4.471,-9.513,-8.587,-6.878,-10.54,-7.411,0,0,0,0,0,0,0,0,0,0,0,0,0,0,0,0,
795,-8.762,2.137,-17.77,10.86,-13.92,-8.442,-12.35,0.9815,-9.867,-5.399,-1.705,-9.456,-5.072,-4.701,-9.837,-4.851,0,0,0,0,0,0,0,0,0,0,0,0,0,0,0,0,
796,-9.265,-1.306,-17.39,11.5,-15.15,-10.6,-12.52,-0.7558,-7.706,-5.306,-2.776,-9.625,-6.533,-6.386,-9.576,-3.368,0,0,0,0,0,0,0,0,0,0,0,0,0,0,0,0,
797,-14.29,-6.065,-24.35,6.094,-20.99,-16.43,-19.57,0.2896,-14.49,-9.577,-3.78,-8.248,-7.457,-8.322,-7.291,-3.504,0,0,0,0,0,0,0,0,0,0,0,0,0,0,0,0,
798,-13.89,-4.521,-23.93,3.019,-20.0,-15.85,-18.86,-0.6264,-15.49,-9.704,-0.5917,-6.007,-4.388,-8.475,-5.86,-3.466,0,0,0,0,0,0,0,0,0,0,0,0,0,0,0,0,
799,-11.42,-2.739,-20.24,6.988,-18.69,-14.64,-14.92,-2.577,-11.09,-8.592,0.6147,-5.901,-3.993,-9.196,-7.128,-3.24,0,0,0,0,0,0,0,0,0,0,0,0,0,0,0,0,
800,-8.967,-2.463,-18.28,10.62,-19.14,-15.31,-14.73,-2.603,-11.12,-10.32,0.6055,-7.286,-4.385,-9.152,-6.041,-2.877,0,0,0,0,0,0,0,0,0,0,0,0,0,0,0,0,
801,-5.186,1.067,-14.19,11.06,-15.92,-13.96,-13.03,-3.6,-10.42,-10.29,2.997,-8.183,-2.604,-8.604,-3.749,-3.587,0,0,0,0,0,0,0,0,0,0,0,0,0,0,0,0,
802,-4.833,5.022,-10.26,12.61,-12.75,-11.5,-10.86,-4.373,-6.999,-8.535,4.585,-7.471,-1.599,-7.832,-3.589,-4.417,0,0,0,0,0,0,0,0,0,0,0,0,0,0,0,0,
803,-3.697,7.895,-7.593,16.01,-11.35,-8.925,-10.92,-3.154,-6.122,-7.289,4.559,-5.815,-1.718,-5.832,-3.952,-3.996,0,0,0,0,0,0,0,0,0,0,0,0,0,0,0,0,
804,2.546,11.45,-5.975,18.17,-10.58,-7.962,-11.16,-2.503,-7.309,-6.926,4.287,-4.733,-2.591,-4.652,-5.144,-3.603,0,0,0,0,0,0,0,0,0,0,0,0,0,0,0,0,
805,8.892,17.7,-5.54,21.17,-9.944,-6.644,-10.31,-0.4104,-7.668,-7.226,5.162,-3.132,-2.54,-3.344,-5.977,-2.231,0,0,0,0,0,0,0,0,0,0,0,0,0,0,0,0,
806,18.44,29.69,-0.8857,29.66,-5.659,-0.1264,-7.333,3.465,-5.314,-4.521,7.171,-1.261,-1.027,-1.211,-6.194,-1.645,0,0,0,0,0,0,0,0,0,0,0,0,0,0,0,0,
807,32.07,44.71,7.284,40.48,0.9884,7.409,-4.511,6.422,-2.427,0.4345,6.714,0.5945,-0.3703,-0.3905,-6.795,-2.849,0,0,0,0,0,0,0,0,0,0,0,0,0,0,0,0,
808,47.44,63.58,16.49,51.23,8.805,15.22,-1.571,11.87,-0.4132,4.518,7.211,5.812,3.718,3.51,-1.94,1.521,0,0,0,0,0,0,0,0,0,0,0,0,0,0,0,0,
809,71.94,90.71,30.72,66.09,20.56,28.07,5.452,18.41,5.972,11.41,13.15,11.49,12.17,10.91,6.017,8.901,0,0,0,0,0,0,0,0,0,0,0,0,0,0,0,0,
810,96.74,116.3,42.41,83.22,29.52,38.8,9.823,21.37,14.05,19.71,16.3,12.56,16.26,13.89,7.973,9.771,0,0,0,0,0,0,0,0,0,0,0,0,0,0,0,0,
811,110.5,134.6,44.98,96.19,32.25,43.94,7.603,24.95,15.71,23.65,14.46,13.03,16.38,13.65,8.4,8.989,0,0,0,0,0,0,0,0,0,0,0,0,0,0,0,0,
812,131.8,152.7,54.01,103.6,38.91,51.96,10.22,28.3,16.36,26.31,17.1,13.87,17.72,14.2,9.744,10.72,0,0,0,0,0,0,0,0,0,0,0,0,0,0,0,0,
813,160.3,163.9,74.2,106.3,49.45,60.32,18.37,26.02,21.49,28.63,20.34,11.5,16.58,12.0,6.323,9.016,0,0,0,0,0,0,0,0,0,0,0,0,0,0,0,0,
814,167.6,162.6,85.23,105.6,52.69,60.61,19.97,23.58,23.29,25.85,16.4,10.16,12.65,8.605,3.265,5.102,0,0,0,0,0,0,0,0,0,0,0,0,0,0,0,0,
815,158.5,157.8,81.1,103.4,49.74,56.67,16.51,25.25,19.23,22.0,14.39,12.82,11.86,9.38,5.424,5.224,0,0,0,0,0,0,0,0,0,0,0,0,0,0,0,0,
816,151.5,149.0,74.85,99.24,47.94,53.92,14.88,26.6,16.29,22.52,13.42,13.42,12.31,10.65,5.455,6.407,0,0,0,0,0,0,0,0,0,0,0,0,0,0,0,0,
817,140.8,134.4,69.79,92.49,45.2,49.91,12.5,24.69,14.33,22.17,-2.697,9.438,8.984,7.312,0.9202,2.61,0,0,0,0,0,0,0,0,0,0,0,0,0,0,0,0,
818,128.6,124.1,64.06,85.12,40.11,44.51,9.988,19.76,10.76,18.4,-23.55,6.844,6.111,3.848,-1.431,-1.457,0,0,0,0,0,0,0,0,0,0,0,0,0,0,0,0,
819,121.6,117.3,60.76,78.96,37.54,41.69,10.74,14.47,9.848,17.22,-27.18,8.843,7.285,4.712,-0.6886,0.2949,0,0,0,0,0,0,0,0,0,0,0,0,0,0,0,0,
820,110.6,106.7,57.82,72.61,36.59,40.47,12.11,12.36,11.57,18.62,-21.16,11.66,8.771,6.915,0.7947,4.354,0,0,0,0,0,0,0,0,0,0,0,0,0,0,0,0,
821,96.85,95.84,53.06,66.99,34.05,38.0,14.04,13.48,12.58,19.1,-16.7,12.74,11.45,9.228,5.87,8.239,0,0,0,0,0,0,0,0,0,0,0,0,0,0,0,0,
822,87.77,85.69,48.02,63.72,30.92,34.61,15.19,14.76,14.45,20.07,-12.61,11.23,15.24,10.85,10.13,9.649,0,0,0,0,0,0,0,0,0,0,0,0,0,0,0,0,
823,74.77,72.57,39.02,56.83,25.73,29.14,9.013,13.29,14.25,18.4,-14.72,7.245,12.72,7.503,5.776,4.936,0,0,0,0,0,0,0,0,0,0,0,0,0,0,0,0,
824,58.7,60.26,28.73,47.48,20.1,23.3,2.094,11.17,9.76,12.18,-20.91,5.921,7.514,3.651,0.991,0.894,0,0,0,0,0,0,0,0,0,0,0,0,0,0,0,0,
825,52.17,54.26,27.52,46.17,20.95,23.58,5.255,11.55,8.713,10.68,-19.12,7.593,9.335,5.76,3.889,1.881,0,0,0,0,0,0,0,0,0,0,0,0,0,0,0,0,
826,49.99,51.49,30.28,45.02,24.69,27.01,10.72,10.7,12.25,14.33,-13.81,5.802,13.0,6.692,7.378,1.243,0,0,0,0,0,0,0,0,0,0,0,0,0,0,0,0,
827,42.43,45.19,25.99,34.36,21.88,24.2,8.967,8.066,12.84,12.3,-15.04,2.113,10.6,2.101,5.91,-1.797,0,0,0,0,0,0,0,0,0,0,0,0,0,0,0,0,
828,34.31,35.73,18.5,28.78,15.27,17.85,4.501,8.604,9.55,6.904,-19.54,1.954,5.913,-0.1509,2.098,-3.211,0,0,0,0,0,0,0,0,0,0,0,0,0,0,0,0,
829,29.17,27.08,14.15,30.63,12.76,16.05,2.561,8.474,6.282,7.05,-20.68,4.475,4.669,1.841,-0.104,-1.872,0,0,0,0,0,0,0,0,0,0,0,0,0,0,0,0,
830,23.44,19.07,12.42,24.31,12.86,16.19,2.207,4.675,5.423,9.345,-20.09,6.965,5.025,2.113,-0.8832,0.1957,0,0,0,0,0,0,0,0,0,0,0,0,0,0,0,0,
831,16.87,13.57,10.61,15.78,9.235,11.87,0.025,4.239,4.115,7.298,-24.04,5.871,0.875,-1.906,-4.896,-3.093,0,0,0,0,0,0,0,0,0,0,0,0,0,0,0,0,
832,10.69,10.37,5.843,14.65,2.574,4.736,-4.362,5.063,-2.215,1.758,-29.41,0.398,-5.877,-7.932,-10.17,-9.808,0,0,0,0,0,0,0,0,0,0,0,0,0,0,0,0,
833,5.026,3.858,1.838,13.76,-0.6342,0.8367,-5.53,1.248,-7.862,-2.933,-27.63,-2.304,-6.554,-10.27,-9.858,-9.893,0,0,0,0,0,0,0,0,0,0,0,0,0,0,0,0,
834,2.099,-0.862,2.044,12.59,-0.2731,1.393,-3.574,0.0928,-7.027,-3.549,-24.35,0.8367,-3.703,-7.669,-7.393,-5.485,0,0,0,0,0,0,0,0,0,0,0,0,0,0,0,0,
835,0.422,1.228,-1.109,12.43,-2.327,2.475,-6.107,3.16,-7.197,-1.581,-28.29,2.461,-5.577,-6.513,-9.403,-5.825,0,0,0,0,0,0,0,0,0,0,0,0,0,0,0,0,
836,-3.811,0.4662,-7.94,9.668,-5.296,2.928,-10.6,3.718,-10.77,-0.0817,-32.0,-0.0979,-7.221,-6.985,-11.16,-7.656,0,0,0,0,0,0,0,0,0,0,0,0,0,0,0,0,
837,-7.761,-4.271,-9.121,7.862,-4.569,2.942,-9.544,4.363,-10.27,1.437,-29.86,-1.2,-4.065,-5.087,-8.737,-4.998,0,0,0,0,0,0,0,0,0,0,0,0,0,0,0,0,
838,-10.46,-6.279,-7.973,5.469,-4.707,-0.5515,-7.911,3.698,-8.435,1.122,-29.06,-1.001,-3.719,-5.567,-9.146,-3.477,0,0,0,0,0,0,0,0,0,0,0,0,0,0,0,0,
839,-13.77,-9.242,-9.331,-0.4101,-7.285,-4.388,-9.333,-2.381,-10.36,-3.257,-29.51,-2.962,-6.279,-9.056,-11.35,-4.855,0,0,0,0,0,0,0,0,0,0,0,0,0,0,0,0,
840,-14.41,-13.63,-9.174,-0.9334,-6.611,-2.994,-8.928,-4.379,-10.63,-5.396,-26.15,-3.257,-5.031,-8.215,-6.71,-1.728,0,0,0,0,0,0,0,0,0,0,0,0,0,0,0,0,
841,-15.25,-14.91,-9.832,3.176,-5.617,-2.209,-8.556,-1.3,-9.031,-2.554,-23.48,-0.6981,-3.501,-5.987,-2.089,2.148,0,0,0,0,0,0,0,0,0,0,0,0,0,0,0,0,
842,-18.93,-15.49,-11.6,3.755,-7.242,-3.944,-8.721,-3.371,-10.04,-1.851,-22.82,-1.092,-4.135,-7.443,-5.08,-0.7243,0,0,0,0,0,0,0,0,0,0,0,0,0,0,0,0,
843,-16.55,-16.73,-8.557,3.696,-5.244,-0.7943,-4.161,-5.718,-9.22,-2.853,-20.13,-3.63,-2.909,-7.519,-8.595,-4.731,0,0,0,0,0,0,0,0,0,0,0,0,0,0,0,0,
844,-11.42,-16.85,-5.323,2.78,-1.56,1.948,-1.069,-3.521,-5.395,-0.838,-19.79,-4.542,-2.647,-6.644,-11.63,-6.878,0,0,0,0,0,0,0,0,0,0,0,0,0,0,0,0,
845,-14.17,-16.94,-6.967,-1.955,-3.256,-3.136,-5.208,-3.986,-5.596,-1.369,-24.29,-6.417,-6.142,-10.09,-17.33,-10.62,0,0,0,0,0,0,0,0,0,0,0,0,0,0,0,0,
846,-17.75,-18.59,-9.485,-5.359,-7.072,-7.266,-8.689,-4.852,-9.522,-6.003,-28.12,-7.646,-8.418,-12.26,-20.12,-12.45,0,0,0,0,0,0,0,0,0,0,0,0,0,0,0,0,
