%OpenBCI Raw EXG Data
%Number of channels = 16
%Sample Rate = 125 Hz
%Board = OpenBCI_GUI$BoardCytonSerialDaisy
Sample Index,EXG Channel 0,EXG Channel 1,EXG Channel 2,EXG Channel 3,EXG Channel 4,EXG Channel 5,EXG Channel 6,EXG Channel 7,EXG Channel 8,EXG Channel 9,EXG Channel 10,EXG Channel 11,EXG Channel 12,EXG Channel 13,EXG Channel 14,EXG Channel 15,Accel Channel 0,Accel Channel 1,Accel Channel 2,Other,Other,Other,Other,Other,Other,Other,Analog Channel 0,Analog Channel 1,Analog Channel 2,Timestamp,Other,Timestamp (Formatted),Annotations
1,0,0,0,0,0,0,0,0,0,0,0,0,0,0,-0,-0,0,0,0,0,0,0,0,0,0,0,0,0,0,0,0,0,T0
2,-17.29,5.915,70.75,16.14,16.95,-82.98,-7.486,31.86,-22.85,26.18,-25.15,-24.08,5.327,-0.0582,-34.86,-14.75,0,0,0,0,0,0,0,0,0,0,0,0,0,0,0,0,
3,-58.77,-7.38,54.12,-5.234,4.933,-123.7,-54.21,26.21,-42.92,15.63,-63.88,-67.85,-23.86,-30.56,-65.3,-46.94,0,0,0,0,0,0,0,0,0,0,0,0,0,0,0,0,
4,-76.46,-15.27,49.66,-4.901,21.38,-77.65,-46.96,26.8,-29.21,16.27,-61.23,-71.34,-36.99,-54.58,-58.99,-58.83,0,0,0,0,0,0,0,0,0,0,0,0,0,0,0,0,
5,-77.83,-29.07,80.18,-9.847,28.53,-48.8,-22.01,20.27,-30.22,-4.863,-52.29,-70.04,-57.41,-82.85,-65.63,-77.35,0,0,0,0,0,0,0,0,0,0,0,0,0,0,0,0,
6,-92.08,-60.65,58.33,-41.54,-7.212,-73.34,-43.37,3.947,-43.94,-38.48,-54.73,-82.28,-89.62,-104.4,-83.22,-106.8,0,0,0,0,0,0,0,0,0,0,0,0,0,0,0,0,
7,-74.96,-64.86,18.28,-18.32,-17.38,-41.03,-42.85,28.21,-23.84,-17.26,-30.77,-55.91,-84.26,-97.91,-56.7,-108.9,0,0,0,0,0,0,0,0,0,0,0,0,0,0,0,0,
8,-37.56,-45.64,27.19,24.33,-8.422,2.429,-21.38,61.19,-22.13,-5.074,-19.51,-30.76,-73.51,-106.5,-27.73,-95.42,0,0,0,0,0,0,0,0,0,0,0,0,0,0,0,0,
9,-42.85,-41.31,55.84,12.54,-1.857,-38.85,-18.44,68.42,-39.86,-18.37,-19.63,-23.98,-56.56,-92.89,-10.64,-48.1,0,0,0,0,0,0,0,0,0,0,0,0,0,0,0,0,
10,-59.06,-25.47,79.63,9.776,40,-84.84,-14.8,74.65,-21.85,14.61,4.671,6.479,0.5456,-16.58,20.87,26.7,0,0,0,0,0,0,0,0,0,0,0,0,0,0,0,0,
11,-43.29,5.567,97.26,25.11,78.46,-64.84,-20.67,74.11,6.539,45.96,13.48,27.03,39,35.26,33.49,50.34,0,0,0,0,0,0,0,0,0,0,0,0,0,0,0,0,
12,-29.37,6.565,81.34,-0.3671,64.54,-34.93,-31.03,65.49,20.19,33.36,0.8345,10.25,25.7,34.36,20.64,25.34,0,0,0,0,0,0,0,0,0,0,0,0,0,0,0,0,
13,-41.23,-19.32,34.39,-24.89,34.49,-48.25,-34.03,61.37,17.08,29.83,0.3114,-9.599,4.661,36.89,10.91,9.17,0,0,0,0,0,0,0,0,0,0,0,0,0,0,0,0,
14,-55.3,-38.53,15.49,-8.453,20.8,-71.08,-53.21,48.23,2.075,40.96,7.764,-9.545,-0.6596,40.41,8.776,7.022,0,0,0,0,0,0,0,0,0,0,0,0,0,0,0,0,
15,-46.92,-38.39,46.17,8.656,16.08,-55.64,-52.8,36.06,5.127,42.27,17.74,8.132,3.116,26.57,18.86,8.346,0,0,0,0,0,0,0,0,0,0,0,0,0,0,0,0,
16,-23.78,-23.44,65.44,9.279,7.147,-27.9,-14.48,47.08,16.92,46.79,40.57,33.84,13.12,17.5,47.75,19.17,0,0,0,0,0,0,0,0,0,0,0,0,0,0,0,0,
17,-1.97,0.1215,47.65,20.35,7.375,-18.23,-4.12,65.24,13.75,58.62,70.16,55.05,31.11,24.1,70.83,37.32,0,0,0,0,0,0,0,0,0,0,0,0,0,0,0,0,
18,6.425,20.08,56.74,46.85,23.6,-12.83,-24.12,63.47,-2.011,53.84,56.62,42.73,33.79,20.41,47.65,31.69,0,0,0,0,0,0,0,0,0,0,0,0,0,0,0,0,
19,-16.2,10.16,107,59.74,10.02,-11.99,-26.24,44.89,-23.98,29.5,-5.934,-0.546,1.716,-2.005,3.202,-3.258,0,0,0,0,0,0,0,0,0,0,0,0,0,0,0,0,
20,-46.49,-24.21,113.7,43.88,-37.49,-30.63,-24.27,31.87,-29.26,8.575,-37.04,-23.71,-38.9,-22.08,-14.25,-30.02,0,0,0,0,0,0,0,0,0,0,0,0,0,0,0,0,
21,-53.15,-48.83,55.76,16.21,-52.13,-57.51,-38.75,29.3,-27.8,-1.501,-32.97,-31.17,-65.5,-39.67,-37.05,-45.63,0,0,0,0,0,0,0,0,0,0,0,0,0,0,0,0,
22,-57.14,-53.46,30.04,3.921,-19.8,-46.76,-44.54,36.78,-51.19,-0.2575,-48.74,-52.88,-74.03,-55.9,-79.93,-64.4,0,0,0,0,0,0,0,0,0,0,0,0,0,0,0,0,
23,-65.91,-44.49,59.85,10.67,3.621,-17.46,-34.46,51.73,-72.99,-0.7956,-58.54,-66.89,-70.27,-64.94,-97.96,-80.28,0,0,0,0,0,0,0,0,0,0,0,0,0,0,0,0,
24,-69.33,-40.36,61.88,13.83,-10.46,-45.16,-31.14,57.96,-57.04,-17.79,-36.37,-60.85,-68.28,-73.4,-84.23,-86.88,0,0,0,0,0,0,0,0,0,0,0,0,0,0,0,0,
25,-64.84,-39.99,33.36,21.51,-31.4,-59.06,-21.04,61.99,-0.1973,-16.7,0.2608,-34.54,-48.43,-65.23,-45.88,-67.78,0,0,0,0,0,0,0,0,0,0,0,0,0,0,0,0,
26,-35.67,-15.73,26.37,42.57,-30.9,-7.327,1.162,66.5,59.49,3.763,33.95,7.136,-6.238,-32.62,3.698,-30.87,0,0,0,0,0,0,0,0,0,0,0,0,0,0,0,0,
27,-6.8,5.726,49.56,42.1,0.1954,-32.19,-13.78,56.73,65.47,3.8,40.36,26.21,13.12,-8.61,24.48,-12.89,0,0,0,0,0,0,0,0,0,0,0,0,0,0,0,0,
28,-18.93,-13.47,102.5,29.22,56.66,-102.7,-61.1,52.63,33.71,11,21.53,12.14,-0.6677,-13.55,14.56,-14.08,0,0,0,0,0,0,0,0,0,0,0,0,0,0,0,0,
29,-48.45,-46.99,130,38.8,77.91,-59.26,-77.8,61.97,13.88,34.53,3.945,-4.996,-16.86,-38.38,7.027,-11.49,0,0,0,0,0,0,0,0,0,0,0,0,0,0,0,0,
30,-63.75,-60.05,83.75,49.24,44.05,-10.01,-59.93,69.56,15.43,40.36,-1.421,-8.272,-14.07,-55.86,12.95,1.085,0,0,0,0,0,0,0,0,0,0,0,0,0,0,0,0,
31,-64.17,-43.8,35.67,40.24,19.41,-60.45,-47.99,81.5,26.42,50.76,0.522,-6.838,-1.723,-53.64,10.1,8.222,0,0,0,0,0,0,0,0,0,0,0,0,0,0,0,0,
32,-56.61,-20.88,26.54,25.97,4.172,-84.68,-46.31,87.6,14.81,67.23,-7.504,-16.08,-5.869,-55.45,-18.24,-3.399,0,0,0,0,0,0,0,0,0,0,0,0,0,0,0,0,
33,-46.72,-17.38,22.61,32.53,-7.962,-40.92,-25.49,86.56,-20.52,57.11,-33.36,-34.74,-21.21,-68.93,-56.06,-24.1,0,0,0,0,0,0,0,0,0,0,0,0,0,0,0,0,
34,-44.11,-22.61,34.28,64.32,34.47,-17.81,5.886,100.7,-35.89,41.03,-64.19,-60.99,-38.97,-85.08,-89.49,-51.74,0,0,0,0,0,0,0,0,0,0,0,0,0,0,0,0,
35,-62.42,-32.22,77.17,88.08,98.5,-18.47,8.548,121.8,-24.75,40.32,-69.77,-81.25,-65.6,-106.6,-101.4,-82.25,0,0,0,0,0,0,0,0,0,0,0,0,0,0,0,0,
36,-74.8,-45.41,133.7,99.86,124.2,-2.584,-4.717,137,-7.932,39.32,-35.9,-68.23,-88.03,-126.8,-84.05,-104.5,0,0,0,0,0,0,0,0,0,0,0,0,0,0,0,0,
37,-48.42,-43.27,160,111,119.4,5.769,-6.486,145.2,9.138,31.98,-2.627,-40.36,-96.21,-127.2,-72.88,-123,0,0,0,0,0,0,0,0,0,0,0,0,0,0,0,0,
38,-12.85,-27.24,128.9,109.6,99.19,4.667,-0.5385,153.8,29.44,36.17,14.52,-22.49,-82.79,-96.28,-65.58,-116.6,0,0,0,0,0,0,0,0,0,0,0,0,0,0,0,0,
39,1.579,-11.16,91.59,111.3,89.95,28.39,12.24,168.4,45.54,50.7,39.65,-8.965,-49,-58.13,-32.64,-73.26,0,0,0,0,0,0,0,0,0,0,0,0,0,0,0,0,
40,-3.666,-7.322,84.41,119.9,96.04,38.68,19.46,158.8,40.52,46.2,54.2,0.0297,-15.16,-38.32,6.803,-23.01,0,0,0,0,0,0,0,0,0,0,0,0,0,0,0,0,
41,-10.8,-9.158,93.17,110.6,78.91,17.59,12.67,129.8,23.58,31.1,44.1,18.45,26.97,-18.93,40.06,26.44,0,0,0,0,0,0,0,0,0,0,0,0,0,0,0,0,
42,-0.8302,4.931,105.5,92.78,42.51,19.09,4.503,116.3,6.037,29.2,20.58,35.19,62.02,-6.17,57.79,54.26,0,0,0,0,0,0,0,0,0,0,0,0,0,0,0,0,
43,-7.209,9.12,80.54,81.58,12.6,10.18,-10.15,98.95,-19.35,28.61,-14.64,10.92,43.41,-18.28,39.59,33.76,0,0,0,0,0,0,0,0,0,0,0,0,0,0,0,0,
44,-50.12,-21.69,25.31,70.05,-15.56,-50.68,-32.33,79.87,-46.44,25.1,-39.43,-25.57,0.5758,-32.34,9.712,4.196,0,0,0,0,0,0,0,0,0,0,0,0,0,0,0,0,
45,-81,-54.72,14.28,52.81,-39.1,-75.74,-45.57,88.44,-53.04,30.72,-34.61,-30.78,-15.52,-43.13,1.784,-3.549,0,0,0,0,0,0,0,0,0,0,0,0,0,0,0,0,
46,-74.72,-56.67,51.06,51.37,-36.72,-28.83,-34.92,104.1,-7.449,55.91,-4.265,-11.29,-5.798,-41.11,12.7,1.407,0,0,0,0,0,0,0,0,0,0,0,0,0,0,0,0,
47,-46.2,-24.35,83.29,84.53,-17.21,-6.582,-2.359,107.3,38.67,81.13,19.82,5.068,4.279,-18.89,1.552,-2.528,0,0,0,0,0,0,0,0,0,0,0,0,0,0,0,0,
48,-25.91,0.562,73.95,98.82,-13.52,-33.8,8.232,96.6,-16.03,64.06,-7.017,-18.66,-20.11,-29.96,-56.38,-47.36,0,0,0,0,0,0,0,0,0,0,0,0,0,0,0,0,
49,-39.03,-20.44,36.68,67,-10.53,-32.78,-17.53,75.25,-87.02,35.44,-48.26,-67.82,-66.15,-70.48,-108.7,-108,0,0,0,0,0,0,0,0,0,0,0,0,0,0,0,0,
50,-57.28,-50.01,37.9,60.99,13.51,-5.698,-27,68.19,-57.09,39.06,-51.59,-89.73,-85.05,-74.12,-119.3,-128.7,0,0,0,0,0,0,0,0,0,0,0,0,0,0,0,0,
51,-50.79,-46.58,79.59,98.6,34.29,6.082,-1.855,88.74,-9.948,43.83,-43.14,-77.97,-69.82,-52,-107.1,-111.6,0,0,0,0,0,0,0,0,0,0,0,0,0,0,0,0,
52,-27.23,-14.76,109.3,117.7,47.97,32.01,24.87,123.2,0.2725,44.92,-31.88,-51.81,-40.19,-42.14,-78.05,-87.48,0,0,0,0,0,0,0,0,0,0,0,0,0,0,0,0,
53,-3.842,18.99,116.6,104.2,43.59,42.96,33.54,149.4,10.92,56.41,-15.69,-33.96,-19.82,-39.49,-56.53,-73.06,0,0,0,0,0,0,0,0,0,0,0,0,0,0,0,0,
54,-2,22.08,95.62,98.95,3.609,-12.59,33.56,161.6,3.935,56.83,-16.81,-32.81,-16.38,-36.06,-58.5,-57.99,0,0,0,0,0,0,0,0,0,0,0,0,0,0,0,0,
55,-14.39,4.053,61.66,109.7,-10.78,-41.92,32.18,166.6,-14.05,52.26,-19.79,-27.59,-11.83,-37.63,-52.71,-33.33,0,0,0,0,0,0,0,0,0,0,0,0,0,0,0,0,
56,-16.81,-4.732,66.7,102.5,32.66,14,17.95,161.4,-8.613,58.51,-8.483,-10.93,1.065,-43.6,-29.52,-15.67,0,0,0,0,0,0,0,0,0,0,0,0,0,0,0,0,
57,-6.771,1.192,109.5,95.54,74.33,57.23,7.689,159.3,7.524,64.59,8.581,12.09,19.76,-38.16,-0.8456,-5.662,0,0,0,0,0,0,0,0,0,0,0,0,0,0,0,0,
58,6.751,14.15,126.4,113.6,81.26,37.41,21.8,165.7,13.51,56.2,17.33,20.9,26,-37.32,8.782,-4.901,0,0,0,0,0,0,0,0,0,0,0,0,0,0,0,0,
59,-3.984,7.437,79.63,112.5,67.12,6.949,27.89,157,3.251,36.23,-2.699,-8.399,1.322,-72.71,-22.14,-26.29,0,0,0,0,0,0,0,0,0,0,0,0,0,0,0,0,
60,-42.57,-22.08,31.38,92.33,55.56,-4.609,9.441,149.7,-13.75,29.44,-30.03,-42.52,-27.21,-107.9,-52.38,-48.83,0,0,0,0,0,0,0,0,0,0,0,0,0,0,0,0,
61,-62.23,-40.12,44.52,83.46,60.66,9.1,-3.024,165.6,-19.61,35.91,-26.92,-46.92,-37.5,-99.12,-47.66,-53.43,0,0,0,0,0,0,0,0,0,0,0,0,0,0,0,0,
62,-44.2,-37.58,54.44,75.9,73.04,51.66,12.69,188.9,6.249,39.84,-4.391,-38.26,-38.31,-75.99,-38.46,-48.22,0,0,0,0,0,0,0,0,0,0,0,0,0,0,0,0,
63,-11.22,-19.46,32.76,87.64,90.47,66.61,39.97,207.2,58.86,50.35,12.15,-29.92,-33.51,-66.73,-38.6,-39.24,0,0,0,0,0,0,0,0,0,0,0,0,0,0,0,0,
64,10.09,2.576,66.7,109.6,112.7,19.55,42.52,198.3,79.91,62.13,19.49,-19.15,-28.59,-48.87,-21.77,-25.59,0,0,0,0,0,0,0,0,0,0,0,0,0,0,0,0,
65,10.2,8.858,132.6,100.8,121.9,-11.64,25.37,165.7,60.18,62.67,36,1.756,-20.05,-15.61,20.19,-2.671,0,0,0,0,0,0,0,0,0,0,0,0,0,0,0,0,
66,14.47,10.96,133.4,92.3,111.6,12.94,18.35,159.5,60.42,60.9,71.33,33.9,0.9128,4.046,58.5,18.81,0,0,0,0,0,0,0,0,0,0,0,0,0,0,0,0,
67,37.13,22.12,114.8,102.3,99.35,44.41,28.65,178.1,76.68,57.81,91.84,52.84,17.8,0.3828,62.41,15.91,0,0,0,0,0,0,0,0,0,0,0,0,0,0,0,0,
68,46.57,27.09,124.3,100.5,90.03,53.09,47.99,177,59.2,37.29,68.47,38.05,10.95,-24.81,34.78,-9.227,0,0,0,0,0,0,0,0,0,0,0,0,0,0,0,0,
69,25.5,18.22,103.3,94.03,79.77,43.62,55.14,162.9,31.26,5.958,47.57,23.31,6.445,-46.28,26.93,-13.73,0,0,0,0,0,0,0,0,0,0,0,0,0,0,0,0,
70,23.06,26.15,74.42,103,99.28,66.23,69.32,179.3,52.01,15.94,79.99,52.05,43.59,-7.078,64.78,25.95,0,0,0,0,0,0,0,0,0,0,0,0,0,0,0,0,
71,59.88,64.37,88.51,122.5,131.7,108.4,104.5,216.4,87.35,62.29,100.8,68.34,70.05,44.66,70.6,41.58,0,0,0,0,0,0,0,0,0,0,0,0,0,0,0,0,
72,59.9,72.35,89.4,134.2,108.9,73.64,89.72,224.3,68.64,69.96,56.52,20.95,29.82,21.21,18.89,-2.584,0,0,0,0,0,0,0,0,0,0,0,0,0,0,0,0,
73,15.47,33.2,80.33,124.9,71.83,19.88,34.72,206.2,27.09,48.99,16.48,-19.02,-11.15,-21.75,-6.81,-32.81,0,0,0,0,0,0,0,0,0,0,0,0,0,0,0,0,
74,-9.872,-1.651,94.5,91.11,63.54,18.18,17.49,175.9,-13.81,38.28,-8.371,-35.04,-22.25,-39.46,-13.69,-36.98,0,0,0,0,0,0,0,0,0,0,0,0,0,0,0,0,
75,-41.2,-31.64,79.81,56.66,38.77,-5.843,10.64,147.2,-64.16,23.02,-46.48,-62.25,-35.42,-60.82,-31.74,-47.95,0,0,0,0,0,0,0,0,0,0,0,0,0,0,0,0,
76,-72.35,-42.25,61.9,69.83,24.33,-28.31,-0.0738,170.1,-73.99,14.7,-51.6,-59.98,-32.29,-65.97,-26.54,-51.62,0,0,0,0,0,0,0,0,0,0,0,0,0,0,0,0,
77,-65.52,-23.87,58.4,91.66,24.78,-32.98,-6.71,195.7,-63.43,6.961,-43.17,-48.49,-32.3,-64.36,-27.89,-62.55,0,0,0,0,0,0,0,0,0,0,0,0,0,0,0,0,
78,-76.7,-35.06,-8.06,56.46,-14.85,-79,-43.01,152.4,-71.31,-5.513,-36.32,-53.14,-43.65,-68.4,-24.74,-62.51,0,0,0,0,0,0,0,0,0,0,0,0,0,0,0,0,
79,-82.41,-45.98,-67.95,27.97,-33.96,-75.38,-58.14,116.5,-25.52,11.4,24.91,-17.12,-17.84,-42.87,25.49,-22.69,0,0,0,0,0,0,0,0,0,0,0,0,0,0,0,0,
80,-31.43,-19.59,-34.79,43.05,-0.1045,-14.64,-28.11,115.7,51.27,18.77,73.03,10.03,-2.583,-26.62,34.97,-14.95,0,0,0,0,0,0,0,0,0,0,0,0,0,0,0,0,
81,-13.57,-26.73,11.44,47.91,23.61,-22.42,-27.41,95.97,67.57,-0.3626,47.89,-24.89,-33.46,-44.29,-8.729,-48.57,0,0,0,0,0,0,0,0,0,0,0,0,0,0,0,0,
82,-40.24,-50.17,42.95,52.86,40.09,-32.87,-34.84,91.38,62.4,11.5,35.03,-38.64,-41.9,-37.72,-5.661,-51,0,0,0,0,0,0,0,0,0,0,0,0,0,0,0,0,
83,-25.32,-30.75,72.19,77.07,62.53,27.3,-5.164,115.4,85.94,27.77,59.12,-9.792,-21.55,-11,21.3,-33.36,0,0,0,0,0,0,0,0,0,0,0,0,0,0,0,0,
84,9.128,-10.6,64.69,101.1,73.27,60.24,13.47,121.6,112.8,14.08,70.61,3.777,-9.179,-10.86,14.8,-29.38,0,0,0,0,0,0,0,0,0,0,0,0,0,0,0,0,
85,14.16,-8.154,54.77,116,66.69,32.29,14,115.4,105.8,6.414,60.96,-1.299,0.3819,-33.12,1.676,-33.5,0,0,0,0,0,0,0,0,0,0,0,0,0,0,0,0,
86,10.08,5.214,68.1,108.8,38.14,29.29,41.09,119.4,65.83,10.84,41.83,-0.426,9.717,-47.9,2.416,-36.82,0,0,0,0,0,0,0,0,0,0,0,0,0,0,0,0,
87,14.64,21.52,60.56,93.93,7.801,71.86,68.22,126.4,30.78,8.331,12.9,-4.522,6.869,-50.15,-9.068,-39.16,0,0,0,0,0,0,0,0,0,0,0,0,0,0,0,0,
88,3.202,15.9,36.89,91.63,-8.762,66.9,42.15,117.6,-4.721,-6.718,-35.29,-36.76,-11.74,-56.65,-46.91,-53.1,0,0,0,0,0,0,0,0,0,0,0,0,0,0,0,0,
89,-25.36,-2.007,43.22,97.4,-11.14,16.03,11.58,98.48,-46.17,-16.53,-71.56,-60.54,-23.88,-60.8,-68.56,-68.62,0,0,0,0,0,0,0,0,0,0,0,0,0,0,0,0,
90,-22.97,2.424,81.17,117.8,4.272,27.67,39.89,105.6,-46.32,2.049,-59.27,-41.07,-15.89,-58.34,-52.47,-66.87,0,0,0,0,0,0,0,0,0,0,0,0,0,0,0,0,
91,5.423,23.3,99.8,131.3,4.37,64.99,72.73,145.7,-13.42,31.19,-32.8,-18.41,-3.005,-55.55,-34.34,-53.4,0,0,0,0,0,0,0,0,0,0,0,0,0,0,0,0,
92,14.72,36.82,67.54,118,-21.67,50.09,62.38,178.6,-4.16,44.68,-28.1,-16.2,9.746,-37.89,-26.85,-34.43,0,0,0,0,0,0,0,0,0,0,0,0,0,0,0,0,
93,5.03,42.78,27.98,110.8,-38.27,27.5,44.91,170.9,-28.11,42.13,-31.85,-21.24,15.93,-18.54,-19.98,-17.49,0,0,0,0,0,0,0,0,0,0,0,0,0,0,0,0,
94,-17.49,34.9,32.28,111.1,-44.93,9.378,36.11,148.1,-43.46,43.88,-14.35,-23.78,16.92,-12.06,0.1525,2.9,0,0,0,0,0,0,0,0,0,0,0,0,0,0,0,0,
95,-41.74,20.82,53.73,87.19,-52.65,-16.72,23.83,152.5,-22.61,59.87,23.86,-15.05,25.48,-6.581,33.96,28.32,0,0,0,0,0,0,0,0,0,0,0,0,0,0,0,0,
96,-47.55,11.68,34.4,49.88,-45.96,-29.23,10.07,167.3,0.2283,60.86,41.08,-10.13,20.53,-22.59,41.99,24.6,0,0,0,0,0,0,0,0,0,0,0,0,0,0,0,0,
97,-46.9,-3.288,-9.198,38.48,-21.78,-47.79,-1.393,171.2,16.92,45.59,37.58,-14.47,-2.187,-51.47,22.67,-5.832,0,0,0,0,0,0,0,0,0,0,0,0,0,0,0,0,
98,-44.7,-15.47,-25.13,55.17,-17.52,-49.82,-11.58,169.5,55.63,41.6,41.2,-10.76,-13.61,-50.73,14.99,-23.75,0,0,0,0,0,0,0,0,0,0,0,0,0,0,0,0,
99,-25.99,-13.53,-13.41,63.33,-40.82,15.37,-4.061,160.4,76.14,44.04,40.92,-1.338,-9.451,-36.49,13.21,-24.88,0,0,0,0,0,0,0,0,0,0,0,0,0,0,0,0,
100,3.673,-0.2791,26.08,61.9,-25.9,60.33,33.84,163.9,46.67,50.49,32.94,5.875,2.047,-28.5,-1.896,-24.57,0,0,0,0,0,0,0,0,0,0,0,0,0,0,0,0,
101,13.5,16.03,79.22,65.08,21.26,13.52,50.63,179.1,14.99,54.88,19.95,3.917,11.96,-12.04,-11.25,-26.36,0,0,0,0,0,0,0,0,0,0,0,0,0,0,0,0,
102,-3.822,22.95,74.13,68.04,36.36,-8.354,35.55,177.6,20.19,52.99,12.72,7.207,26.19,17.36,10.2,-12.08,0,0,0,0,0,0,0,0,0,0,0,0,0,0,0,0,
103,6.102,44.07,24.23,93.81,48.82,50.07,68.82,178.8,50.74,66.43,31.96,37.54,55.52,43.92,34.16,15.33,0,0,0,0,0,0,0,0,0,0,0,0,0,0,0,0,
104,58.74,86.4,28.4,131.2,65.52,80.19,121.3,182.4,70.93,68.84,44.39,57.74,67.25,39.64,25.34,15.4,0,0,0,0,0,0,0,0,0,0,0,0,0,0,0,0,
105,87.73,95.17,69.32,123.6,39.65,70.77,106.1,156,62.64,33.51,31.04,41.19,44.13,11.9,19.3,-4.748,0,0,0,0,0,0,0,0,0,0,0,0,0,0,0,0,
106,67.21,59.44,58.07,87.84,7.994,80.16,67.56,128,34.69,10.78,23.95,18.21,22.05,-0.6841,32.73,-5.275,0,0,0,0,0,0,0,0,0,0,0,0,0,0,0,0,
107,31.92,31.16,22.25,78.67,7.091,69.39,48.12,137.3,15.28,26.49,22.77,9.037,27.5,5.183,34.76,12.75,0,0,0,0,0,0,0,0,0,0,0,0,0,0,0,0,
108,15.89,34.93,20.11,88.76,2.935,28.07,25.77,154.5,29.43,41.77,21.93,17.21,46.08,5.779,31.19,23.97,0,0,0,0,0,0,0,0,0,0,0,0,0,0,0,0,
109,18.41,40.66,7.476,67.74,-22.86,1.046,17.22,132.3,38.4,34.07,21.79,23.93,40.25,-5.472,20.97,11.41,0,0,0,0,0,0,0,0,0,0,0,0,0,0,0,0,
110,10.31,27.02,-19.09,18.34,-33.37,-9.051,29.71,99.64,14.4,29.23,12.48,11.74,14.55,-11.13,-6.24,-7.205,0,0,0,0,0,0,0,0,0,0,0,0,0,0,0,0,
111,1.689,20.21,-0.5344,8.434,-0.5907,-9.158,30.95,105.9,12.01,36.69,17.51,6.239,1.659,-11.12,-20.3,-11.71,0,0,0,0,0,0,0,0,0,0,0,0,0,0,0,0,
112,14.67,17.92,21.56,38.25,22.77,-5.836,17.84,109.6,55,30.94,55.33,23.4,-2.76,-17.46,-1.788,-7.552,0,0,0,0,0,0,0,0,0,0,0,0,0,0,0,0,
113,38.22,9.467,16.37,60.2,9.099,9.843,21.84,102.9,110.5,33.63,97.22,51.4,5.477,-7.241,36.18,8.863,0,0,0,0,0,0,0,0,0,0,0,0,0,0,0,0,
114,61.74,25.84,32.72,83.63,18.13,42.64,41.74,139.3,134.1,55.64,104.6,65.87,23.24,12.49,62.37,19.44,0,0,0,0,0,0,0,0,0,0,0,0,0,0,0,0,
115,57.52,38.75,60.46,99.99,63.29,46.22,37.64,167.2,105.6,48.04,83.51,51.54,19.31,11.22,63.02,11.92,0,0,0,0,0,0,0,0,0,0,0,0,0,0,0,0,
116,27.45,16.22,84.73,86.97,105.1,32.04,19.14,137,82.62,26.76,74.36,37.15,10.68,15.67,54.18,16.39,0,0,0,0,0,0,0,0,0,0,0,0,0,0,0,0,
117,22.36,5.493,92.87,70.87,112.8,45.06,21.53,107.5,82.54,21.7,62.66,29.65,10.17,22.25,25.42,11.01,0,0,0,0,0,0,0,0,0,0,0,0,0,0,0,0,
118,26.03,6.337,42.81,59.09,75.37,52.95,20.73,97.48,53.56,3.381,30.45,13.77,2.686,7.613,-3.341,-14.99,0,0,0,0,0,0,0,0,0,0,0,0,0,0,0,0,
119,8.344,-2.487,1.233,41.37,35.49,49.35,-0.2294,82.7,28.56,-10.09,28.42,19.59,10.42,17.07,25.38,-0.8715,0,0,0,0,0,0,0,0,0,0,0,0,0,0,0,0,
120,5.414,6.677,28.51,29.85,20.48,41.24,-6.46,78.49,41.93,5.256,56.83,44.3,27.46,47.71,67.83,34.04,0,0,0,0,0,0,0,0,0,0,0,0,0,0,0,0,
121,18.99,15.41,42.52,26.31,-0.0796,-7.96,-0.4813,84.57,40.02,15.72,57.57,38.98,20.94,43.76,55.05,30.82,0,0,0,0,0,0,0,0,0,0,0,0,0,0,0,0,
122,8.435,-5.595,0.5884,7.311,-35.25,-59.38,-32.13,65.22,6.013,15.27,28.4,9.419,10.49,21.97,26.21,18.87,0,0,0,0,0,0,0,0,0,0,0,0,0,0,0,0,
123,-21.98,-19.1,-42.4,-27.2,-54.92,-60.06,-70.48,33.66,-17,28.81,6.899,-3.691,19.79,14.83,23.89,25.27,0,0,0,0,0,0,0,0,0,0,0,0,0,0,0,0,
124,-31.58,0.7616,-29.32,-21.57,-34.35,-47.56,-33.63,45.08,-12.26,49.97,4.078,-3.238,27.13,8.91,17.23,20.72,0,0,0,0,0,0,0,0,0,0,0,0,0,0,0,0,
125,-24.09,12.62,15.42,21.38,-8.229,-50.75,12.03,70.01,-8.855,43.9,-2.214,-17.45,5.407,-2.42,-5.611,-3.46,0,0,0,0,0,0,0,0,0,0,0,0,0,0,0,0,
126,-32.64,-13.91,-1.431,23.7,-11.9,-57.87,-28.26,47.77,-3.017,12.91,-2.622,-22.19,-18.9,-1.677,1.429,-9.802,0,0,0,0,0,0,0,0,0,0,0,0,0,0,0,0,
127,-27.72,-32.9,-45.81,2.929,-3.793,-51.97,-61.2,22.45,40.77,-1.417,30.27,7.307,-6.698,13.37,33.79,11.97,0,0,0,0,0,0,0,0,0,0,0,0,0,0,0,0,
128,1.927,-17.5,-23.74,9.255,16.69,-26.16,-30.54,28.54,72.42,-2.639,55.53,19.87,12.15,24.49,35.05,20.88,0,0,0,0,0,0,0,0,0,0,0,0,0,0,0,0,
129,-0.4888,-6.836,-0.5522,6.921,12.02,-12.41,-26.3,21.86,43.96,-7.985,46.37,5.463,12.23,31.42,25.04,11.69,0,0,0,0,0,0,0,0,0,0,0,0,0,0,0,0,
130,-13.71,-1.021,-21.63,-5.181,11.89,-10.85,-36.81,6.125,24.34,-0.3406,40.78,14.6,19.96,38.44,37.6,11.39,0,0,0,0,0,0,0,0,0,0,0,0,0,0,0,0,
131,10.93,21.69,-12.49,12.23,14.17,26.92,0.3266,22.16,43.53,8.316,38.32,29.3,29.47,38.73,36.61,11.89,0,0,0,0,0,0,0,0,0,0,0,0,0,0,0,0,
132,24.23,31.15,24.85,40.08,-2.146,55.88,26.72,53.49,39.28,-2.288,21.88,14.05,16.76,42.41,14.76,3.479,0,0,0,0,0,0,0,0,0,0,0,0,0,0,0,0,
133,-4.94,9.595,43.59,45.38,7.411,5.786,1.973,57.6,7.636,-7.659,8.138,-11.17,-4.495,50.53,-0.2372,-5.42,0,0,0,0,0,0,0,0,0,0,0,0,0,0,0,0,
134,-35.64,-9.927,43.35,31.38,29,-43.8,-24.92,35.69,5.038,6.112,2.133,-26.2,-17.5,39.76,-8.027,-15.84,0,0,0,0,0,0,0,0,0,0,0,0,0,0,0,0,
135,-44.87,-10.16,14.34,14.13,12.99,-30.08,-33.5,14.04,26.55,11.78,5.459,-22.46,-23.78,12.24,1.47,-24.34,0,0,0,0,0,0,0,0,0,0,0,0,0,0,0,0,
136,-30.42,-8.939,-11.02,4.415,11.2,-26.51,-30.21,0.3974,30.3,5.329,32.03,6.866,-15.96,3.973,38.84,-13.13,0,0,0,0,0,0,0,0,0,0,0,0,0,0,0,0,
137,3.478,-4.341,13.15,13.45,47.74,-36.36,-13.02,-0.1135,30.34,12.66,59.14,32.97,5.193,28.64,59.71,8.315,0,0,0,0,0,0,0,0,0,0,0,0,0,0,0,0,
138,19.74,6.492,20.6,28.82,50.18,-9.197,-10.58,7.674,41.63,12.65,51.84,23.65,8.702,56.31,39.6,7.197,0,0,0,0,0,0,0,0,0,0,0,0,0,0,0,0,
139,10.16,2.863,-8.153,18.8,37.05,10.77,-24.77,10.76,50.96,-10.73,49.28,18.16,1.435,69.95,38,-1.537,0,0,0,0,0,0,0,0,0,0,0,0,0,0,0,0,
140,19.92,-1.763,11.03,2.969,55.84,-1.222,-18.55,15.05,58.44,-18.44,69.17,35.35,8.736,66.6,49.11,-1.671,0,0,0,0,0,0,0,0,0,0,0,0,0,0,0,0,
141,24.75,-3.724,32.51,8.139,27.94,-12.54,-24.87,8.279,39.86,-21.68,33.55,7.923,-3.923,36.13,-4.756,-25.72,0,0,0,0,0,0,0,0,0,0,0,0,0,0,0,0,
142,-18.54,-26.81,-6.909,8.37,-28.86,-20.42,-63.17,-9.336,-1.195,-39.34,-36.9,-46,-33.16,14.09,-66.56,-54.1,0,0,0,0,0,0,0,0,0,0,0,0,0,0,0,0,
143,-47.83,-35.9,-28.85,-0.5216,-10.49,-30.5,-65.2,-4.373,-22.28,-36.89,-50.2,-51.69,-33.03,20.5,-60.58,-50.37,0,0,0,0,0,0,0,0,0,0,0,0,0,0,0,0,
144,-44.11,-20.47,-13.62,-1.977,2.113,-40.85,-32.46,4.842,-52.13,-30.06,-42.49,-43.62,-26.86,14.59,-42.13,-43.46,0,0,0,0,0,0,0,0,0,0,0,0,0,0,0,0,
145,-54.43,-22.6,10.37,0.3532,-31.08,-45.98,-21.11,1.926,-85.07,-34.85,-39.62,-39.69,-26.99,11.16,-22.74,-35.55,0,0,0,0,0,0,0,0,0,0,0,0,0,0,0,0,
146,-45.8,-22.54,44.52,7.475,-4.578,-47.59,-15.95,7.229,-46.02,-26.44,-0.9532,-8.211,-11.99,33.16,16.04,-11.22,0,0,0,0,0,0,0,0,0,0,0,0,0,0,0,0,
147,-4.961,-4.115,41.58,12.37,43.36,-47.74,0.5982,-4.293,31.28,-25.09,41.27,20.32,2.492,40.24,30.85,7.143,0,0,0,0,0,0,0,0,0,0,0,0,0,0,0,0,
148,20.03,8.144,26.32,8.79,57.22,-16.05,5.441,-34.4,69.04,-32.64,57.03,31.46,10.94,35.46,27.57,11.47,0,0,0,0,0,0,0,0,0,0,0,0,0,0,0,0,
149,27.33,13.16,53.39,9.992,78.17,27.4,-4.157,-45.09,68.67,-27.54,57.7,35.35,10.82,41.45,27.21,0.4675,0,0,0,0,0,0,0,0,0,0,0,0,0,0,0,0,
150,24.2,3.83,52.42,21.16,62.24,20.59,-9.837,-54.91,46.67,-35.26,38.4,16.84,-6.101,37.7,13.19,-19.82,0,0,0,0,0,0,0,0,0,0,0,0,0,0,0,0,
151,3.018,-15.08,13.85,31.84,0.3358,-9.724,-17.96,-78.25,9.344,-47.84,11.91,-9.95,-15.1,22.11,-1.669,-27.77,0,0,0,0,0,0,0,0,0,0,0,0,0,0,0,0,
152,-26.6,-17.59,15.32,26.33,-24.53,-24.95,-37.19,-82.78,-24.28,-31.61,-9.416,-25.06,-13.35,13.25,-11.96,-31.15,0,0,0,0,0,0,0,0,0,0,0,0,0,0,0,0,
153,-44.52,-10.9,47.69,11.78,-22.36,-42.13,-36.72,-71.36,-36.37,-14.23,-29.44,-32.23,-19.38,20.11,-26.95,-38.41,0,0,0,0,0,0,0,0,0,0,0,0,0,0,0,0,
154,-39.56,-8.959,67.48,5.719,-32.18,-55.07,-17.71,-78.26,-33.3,-24.34,-36.32,-32.8,-23.39,35.14,-27.33,-41.1,0,0,0,0,0,0,0,0,0,0,0,0,0,0,0,0,
155,-36.31,-11.71,58.27,2.622,-36.85,-46.45,-16.73,-92.02,-29.27,-36.71,-28.07,-32.81,-20.63,34.21,-18.24,-46.64,0,0,0,0,0,0,0,0,0,0,0,0,0,0,0,0,
156,-48.92,-21.13,20.24,5.34,-53.01,-25.33,-25.09,-87.47,-31.5,-31.19,-29.06,-41.69,-25.44,13.89,-34.24,-56.7,0,0,0,0,0,0,0,0,0,0,0,0,0,0,0,0,
157,-57.23,-36.05,-23.79,5.684,-92.74,-23.39,-43.11,-91.32,-42.44,-18.51,-40.79,-51.39,-33.32,6.831,-54.97,-51.71,0,0,0,0,0,0,0,0,0,0,0,0,0,0,0,0,
158,-49.27,-42.1,-44.57,-11.57,-98.24,-45.6,-71.49,-106,-25.76,-4.932,-22,-34.44,-22.54,30.49,-33.34,-30.85,0,0,0,0,0,0,0,0,0,0,0,0,0,0,0,0,
159,-20.15,-27.48,-36.3,-12.91,-63.4,-39.1,-66.67,-101.3,14.44,-4.698,13.34,-6.391,-14.17,41.15,-6.338,-33.42,0,0,0,0,0,0,0,0,0,0,0,0,0,0,0,0,
160,-3.036,-22.7,-34.28,1.965,-46.51,-9.428,-40.23,-97.93,7.808,-21.47,7.764,-15.57,-35.21,18.11,-19.41,-57.52,0,0,0,0,0,0,0,0,0,0,0,0,0,0,0,0,
161,-25.15,-39.87,-34.51,-5.093,-24.7,-23.84,-30.14,-96.94,-4.838,-13.42,0.4877,-32.64,-41.33,17.73,-26.15,-45.34,0,0,0,0,0,0,0,0,0,0,0,0,0,0,0,0,
162,-36.82,-39.51,0.5503,-11.16,20.55,-61.88,-29.07,-83.07,25.68,7.479,24.67,-22.35,-21.09,35.55,-8.457,-18.13,0,0,0,0,0,0,0,0,0,0,0,0,0,0,0,0,
163,-30.6,-34.93,33.44,3.636,27.65,-64.73,-38.1,-92.26,14.31,-9.659,24.12,-19.47,-24.82,21.64,-4.923,-32.78,0,0,0,0,0,0,0,0,0,0,0,0,0,0,0,0,
164,-39.49,-52.11,44.96,15.23,11.09,-50.95,-50.62,-111.2,-30.71,-27.73,3.9,-26.12,-43.64,12.72,-15.84,-60.59,0,0,0,0,0,0,0,0,0,0,0,0,0,0,0,0,
165,-35.01,-56.95,57.66,16.86,14.35,-41.52,-48.95,-100.8,-20.15,-11.82,2.29,-23.72,-47.91,32.94,-24.34,-66.79,0,0,0,0,0,0,0,0,0,0,0,0,0,0,0,0,
166,-15.18,-40.42,32.8,18.28,6.309,-11.1,-38.05,-82.92,11.63,4.2,5.159,-20.58,-39.55,41.04,-23.11,-55.77,0,0,0,0,0,0,0,0,0,0,0,0,0,0,0,0,
167,-13.12,-25.52,-26.6,18.77,-21.26,7.213,-29.09,-71.18,5.579,-0.9269,-4.287,-22.97,-24.47,22.29,-29.38,-45.27,0,0,0,0,0,0,0,0,0,0,0,0,0,0,0,0,
168,-23.95,-21.46,-52.52,4.689,-41.48,-26.99,-33.09,-65.64,-17.01,-14.94,-25.08,-31.6,-13.54,-0.6197,-46.17,-48.58,0,0,0,0,0,0,0,0,0,0,0,0,0,0,0,0,
169,-29.04,-19.19,-32.65,-10.5,-31.9,-30.99,-27.34,-64.95,-6.704,-2.6,-16.87,-14.61,4.639,11.39,-14.05,-34.05,0,0,0,0,0,0,0,0,0,0,0,0,0,0,0,0,
170,-9.341,-0.435,-3.194,-0.8499,-9.475,17.83,-0.984,-60.08,27.92,21.37,24.82,27.71,26.44,45.32,38.74,-3.151,0,0,0,0,0,0,0,0,0,0,0,0,0,0,0,0,
171,13.35,9.426,-6.364,6.651,-35.07,5.701,-10.3,-72.69,20.25,-2.983,14.27,17.57,9.294,34.52,8.128,-18.49,0,0,0,0,0,0,0,0,0,0,0,0,0,0,0,0,
172,-12.22,-20.15,-41.87,-9.485,-76.52,-60.95,-53.65,-101.2,-25.47,-43.99,-51.36,-44.15,-35.34,-9.591,-62.52,-69.73,0,0,0,0,0,0,0,0,0,0,0,0,0,0,0,0,
173,-57.78,-56.75,-47.91,-14.53,-49.48,-74.22,-64.61,-105.3,-41.54,-45.28,-73.01,-69.44,-54.8,-27.87,-70.03,-83.81,0,0,0,0,0,0,0,0,0,0,0,0,0,0,0,0,
174,-57.36,-61.3,5.372,18.56,10.62,-20.31,-38.66,-83.95,-12.71,-26.07,-30.16,-44.11,-35.97,-18.62,-36.24,-51.4,0,0,0,0,0,0,0,0,0,0,0,0,0,0,0,0,
175,-27.29,-39.16,42.67,54.21,19.3,25.16,-17.33,-69.15,15.31,-8.206,4.712,-28.19,-15.09,-2.307,-34.29,-34.12,0,0,0,0,0,0,0,0,0,0,0,0,0,0,0,0,
176,-23.06,-30.22,-5.381,36.25,-24.99,1.905,-23.41,-76.87,7.358,0.7975,-9.588,-43.65,-27.2,9.445,-60.56,-55.9,0,0,0,0,0,0,0,0,0,0,0,0,0,0,0,0,
177,-35.03,-46.12,-47.93,3.515,-50.44,-30.94,-28.03,-83.38,-0.1113,0.4543,-28.06,-50.56,-43.5,4.601,-59.67,-70.63,0,0,0,0,0,0,0,0,0,0,0,0,0,0,0,0,
178,-30.5,-49.05,-9.802,13.36,-33.19,-23.3,-10.25,-69.27,11,-5.935,-22.08,-42.65,-39.91,-16.66,-47.47,-70.13,0,0,0,0,0,0,0,0,0,0,0,0,0,0,0,0,
179,-27.08,-41.17,17.76,15.56,-30.09,-40.67,-19.78,-62.89,0.6978,-24.37,-25.39,-52.44,-46.69,-31.68,-66.66,-79.33,0,0,0,0,0,0,0,0,0,0,0,0,0,0,0,0,
180,-37.81,-55.03,5.596,-3.522,-46.35,-71.43,-62.4,-77.51,-13.83,-36.47,-40.28,-68.22,-67.26,-31.97,-82.14,-84.94,0,0,0,0,0,0,0,0,0,0,0,0,0,0,0,0,
181,-56.49,-81.68,-23.92,-2.176,-59.89,-60.87,-78.36,-88.96,-17.82,-33.42,-49.02,-73.86,-81.34,-44.37,-74.11,-82.34,0,0,0,0,0,0,0,0,0,0,0,0,0,0,0,0,
182,-76.18,-92.33,-88.79,-1.726,-79.34,-31.85,-63.68,-80.59,-31.38,-28.99,-51.67,-75.58,-78.94,-68.55,-74.8,-81.66,0,0,0,0,0,0,0,0,0,0,0,0,0,0,0,0,
183,-69.5,-75.3,-86.51,-5.192,-72.67,0.6686,-50.71,-65.63,-26.98,-17.99,-50.16,-76.71,-62.8,-81.72,-88.8,-85.77,0,0,0,0,0,0,0,0,0,0,0,0,0,0,0,0,
184,-52.09,-56.01,12.17,3.874,-45.6,-3.631,-36.73,-63.62,-17.28,-8.018,-52.3,-80.6,-51.56,-79.45,-87.28,-85.65,0,0,0,0,0,0,0,0,0,0,0,0,0,0,0,0,
185,-50.73,-48.86,50.22,17.38,-51.72,-41.32,-4.409,-51.63,-28.9,-4.816,-40.1,-62.92,-37.3,-51.56,-50.66,-54.78,0,0,0,0,0,0,0,0,0,0,0,0,0,0,0,0,
186,-32.56,-33.91,20.31,43.43,-65.51,-23.33,20.22,-32.84,-18.88,3.321,-13.05,-27.98,-18.56,-23.14,-21.48,-22.2,0,0,0,0,0,0,0,0,0,0,0,0,0,0,0,0,
187,-9.289,-27.6,14.54,51.12,-56.07,10.98,5.394,-47.21,3.003,9.673,-11.04,-26.76,-20.4,-30.51,-40.1,-30.89,0,0,0,0,0,0,0,0,0,0,0,0,0,0,0,0,
188,-8.367,-36.73,15.6,23.81,-46.99,1.39,-9.466,-53.84,3.707,15.39,-14.87,-41.34,-25.82,-38.01,-61.25,-42.38,0,0,0,0,0,0,0,0,0,0,0,0,0,0,0,0,
189,4.16,-27.3,16.5,24.98,-42.97,12.71,3.578,-27.73,16.79,20.07,4.797,-29.94,-15.86,-20.17,-51.4,-26.17,0,0,0,0,0,0,0,0,0,0,0,0,0,0,0,0,
190,25.21,-2.708,40.12,57.71,-26,54.36,24.94,-18.85,43.75,14.33,28.08,-3.117,2.577,6.95,-22.7,6.563,0,0,0,0,0,0,0,0,0,0,0,0,0,0,0,0,
191,35.92,25.33,55.19,68.05,1.423,81.39,57.82,-14.34,52.17,11.71,49.13,22.63,27.14,32.75,11.8,35.97,0,0,0,0,0,0,0,0,0,0,0,0,0,0,0,0,
192,44.88,44.5,20.28,54.33,-1.402,62.6,69.25,-2.201,44.05,9.614,46.95,17.97,29.65,24.38,11.73,24.02,0,0,0,0,0,0,0,0,0,0,0,0,0,0,0,0,
193,29.67,21.01,-31.45,28.29,-40.07,-10.06,15.97,-17.08,18.82,0.8201,6.013,-22.98,2.147,-14.07,-24.52,-9.893,0,0,0,0,0,0,0,0,0,0,0,0,0,0,0,0,
194,-6.953,-22.05,-24.68,2.553,-46.81,-41.5,-31.9,-25.49,-12.81,6.286,-15.16,-39.14,-11.9,-23.21,-27.02,-11.27,0,0,0,0,0,0,0,0,0,0,0,0,0,0,0,0,
195,-14.98,-28.57,30.8,11,-3.626,16.36,-0.7755,6.063,-0.6881,22.9,12.53,-9.662,-4.432,-8.616,4.268,-4.663,0,0,0,0,0,0,0,0,0,0,0,0,0,0,0,0,
196,7.43,-5.29,67.32,42.42,20.97,46.81,40.56,29.49,35.78,25.79,24.41,2.759,-8.077,-19.11,-9.324,-28.46,0,0,0,0,0,0,0,0,0,0,0,0,0,0,0,0,
197,16.43,3.868,60.93,43.65,-4.771,7.177,11.17,10.8,28.3,19.17,-4.915,-20.05,-21.2,-34.2,-49.66,-48.22,0,0,0,0,0,0,0,0,0,0,0,0,0,0,0,0,
198,10.48,-4.549,33.03,23.19,-33.72,-0.724,-23.18,-22.24,19.7,22.48,-13.98,-24.38,-18.8,-15.07,-38.84,-36.31,0,0,0,0,0,0,0,0,0,0,0,0,0,0,0,0,
199,9.267,-12.74,17.25,11.85,-41.58,37.27,0.2773,-49.02,35.6,22.8,-3.97,-24.36,-21.44,-2.071,-27.33,-35.06,0,0,0,0,0,0,0,0,0,0,0,0,0,0,0,0,
200,-10.16,-32.7,12.68,-3.289,-52.13,46.31,16.01,-68.8,10.12,9.643,-22.58,-55.67,-40.56,-21.16,-65.21,-54.58,0,0,0,0,0,0,0,0,0,0,0,0,0,0,0,0,
201,-30.35,-41.99,14.15,6.321,-50.98,35.12,8.013,-60.54,-12.37,13.7,-30.59,-60.21,-30.52,-19.17,-77.22,-48.61,0,0,0,0,0,0,0,0,0,0,0,0,0,0,0,0,
202,-11.8,-13.82,27.01,44.44,-36.79,18.99,16.05,-40.66,6.911,21.98,-13.84,-34.81,-8.235,1.43,-55.51,-32.03,0,0,0,0,0,0,0,0,0,0,0,0,0,0,0,0,
203,-8.04,-7.664,18.04,33.17,-44.09,-16.08,7.05,-47.58,1.721,8.453,-10.67,-33.78,-16.55,6.876,-41.3,-26.83,0,0,0,0,0,0,0,0,0,0,0,0,0,0,0,0,
204,-30.66,-35.85,-2.725,-5.11,-42.02,-12.9,-24.14,-53.29,2.695,10.92,-1.124,-30.8,-22.64,17.94,-19.96,-15.78,0,0,0,0,0,0,0,0,0,0,0,0,0,0,0,0,
205,-25.01,-46.25,3.271,-3.332,-20.02,7.998,-38.54,-52.09,33.88,23.36,8.843,-21.5,-18.76,20.99,-12.29,-18.07,0,0,0,0,0,0,0,0,0,0,0,0,0,0,0,0,
206,-9.803,-39.04,15.75,14.66,-17.67,-24.38,-30.55,-66.17,41.1,24.47,10.94,-11.92,-5.999,16.55,-4.615,-14.67,0,0,0,0,0,0,0,0,0,0,0,0,0,0,0,0,
207,9.386,-8.549,30.01,28.5,-23.45,-27.31,-8.098,-70.78,42.64,40.64,37.25,25.42,30.25,40.85,35.57,19.17,0,0,0,0,0,0,0,0,0,0,0,0,0,0,0,0,
208,33.15,23.74,27.98,18.74,-39.52,18.68,4.182,-76.84,39.9,46.56,48.34,41.91,38.82,52.06,45.9,24.72,0,0,0,0,0,0,0,0,0,0,0,0,0,0,0,0,
209,25.78,10.93,1.325,0.5866,-47.24,27.69,8.9,-84.03,23.53,37.4,38.13,27.33,17.97,35.71,25.33,8.252,0,0,0,0,0,0,0,0,0,0,0,0,0,0,0,0,
210,23.25,-2.689,25.44,35.41,4.672,28.25,17.42,-54.84,31.79,46.85,48.58,29.52,14.94,32.01,20.4,11.37,0,0,0,0,0,0,0,0,0,0,0,0,0,0,0,0,
211,27.73,-5.646,64.15,60.87,45.11,19.5,-6.837,-39.61,34.15,38.85,39.61,15.76,1.589,22.11,10.46,1.942,0,0,0,0,0,0,0,0,0,0,0,0,0,0,0,0,
212,0.7302,-31.99,31.25,23.13,21.51,-18.12,-36.49,-65.57,23.39,17.76,25.83,-3.737,-18.88,11.26,11.75,-9.417,0,0,0,0,0,0,0,0,0,0,0,0,0,0,0,0,
213,1.832,-36.29,4.396,2.728,-0.24,-7.042,-24.84,-77.97,37.99,21.47,52.86,10.02,-14.92,23.21,22.25,-1.678,0,0,0,0,0,0,0,0,0,0,0,0,0,0,0,0,
214,29.43,-16.62,17.28,6.437,-18.56,18.18,-15.39,-78.61,31.72,14.28,56.43,4.095,-16.96,23.59,-1.276,-9.398,0,0,0,0,0,0,0,0,0,0,0,0,0,0,0,0,
215,12.54,-17.88,8.28,-2.808,-47.77,-7.653,-23.85,-80.42,-7.646,-2.394,21.09,-26.8,-30.96,7.679,-17.99,-27.16,0,0,0,0,0,0,0,0,0,0,0,0,0,0,0,0,
216,-14.52,-21.88,6.604,3.199,-50.95,-11.12,-30.04,-67.45,-26.2,6.529,9.546,-32.35,-32.3,3.099,-3.212,-28.04,0,0,0,0,0,0,0,0,0,0,0,0,0,0,0,0,
217,-15.41,-18.9,31.93,15.25,-46.98,15.63,-32.19,-55.71,-26.92,17.65,19.49,-19.77,-18.31,9.136,0.789,-15.42,0,0,0,0,0,0,0,0,0,0,0,0,0,0,0,0,
218,-9.656,-17.97,31.45,3.008,-59.59,16.6,-16.19,-63.01,-30.45,11.04,13.82,-13.6,-1.679,12.47,-13.58,-7.206,0,0,0,0,0,0,0,0,0,0,0,0,0,0,0,0,
219,0.3731,-14.98,5.325,-9.96,-51.01,14.85,-2.543,-76.43,-29.2,5.239,-2.747,-17.7,-1.953,4.757,-27.89,-17.58,0,0,0,0,0,0,0,0,0,0,0,0,0,0,0,0,
220,6.126,-12.31,2.665,10.55,-2.222,20.13,-6.412,-67.99,-15.8,19.74,4,-14.67,-2.928,-0.7613,-19.54,-21.77,0,0,0,0,0,0,0,0,0,0,0,0,0,0,0,0,
221,5.334,4.194,33.95,39.56,42.72,23.9,17.92,-49.38,1.638,42.67,29.98,6.385,19.9,6.453,8.858,2.798,0,0,0,0,0,0,0,0,0,0,0,0,0,0,0,0,
222,17.97,39.69,63.54,31.92,44.54,51.94,65.81,-61.57,15.26,51.31,41.24,22.17,40.87,11.84,14.35,24.68,0,0,0,0,0,0,0,0,0,0,0,0,0,0,0,0,
223,38.29,59.53,62.6,17.82,26.96,80.09,76.4,-80.08,28.28,49.92,43.01,23.06,37.8,11.39,0.4248,21.5,0,0,0,0,0,0,0,0,0,0,0,0,0,0,0,0,
224,46.44,45.46,39.72,27.81,22.42,67.84,54.96,-68.95,35.24,39.6,48.73,27.47,28.79,9.546,12.39,21.95,0,0,0,0,0,0,0,0,0,0,0,0,0,0,0,0,
225,50.78,27.12,18.95,29.62,18.32,51.88,49.53,-57.52,36.18,23.02,47.93,37.89,29.15,-3.467,33.53,38.93,0,0,0,0,0,0,0,0,0,0,0,0,0,0,0,0,
226,62.61,27.79,13.86,17.92,-2.712,62.21,47.59,-63.02,29.96,22.64,37.34,39.2,32.23,-24.51,23.41,41.7,0,0,0,0,0,0,0,0,0,0,0,0,0,0,0,0,
227,71.93,35.36,43.12,6.202,-3.857,74.68,35.29,-62.93,14.68,39.55,36.08,42.15,43.54,-13.2,18.8,37.21,0,0,0,0,0,0,0,0,0,0,0,0,0,0,0,0,
228,75.65,48.3,99.65,-4.288,47.98,68.19,48.52,-45.82,16.47,54.1,53.86,59.65,65.43,34.47,44.87,49.17,0,0,0,0,0,0,0,0,0,0,0,0,0,0,0,0,
229,65.22,62.5,108.8,2.936,80.84,46.69,61.1,-18.64,21.6,51.98,54.35,57.05,64.63,47.9,45.24,44.71,0,0,0,0,0,0,0,0,0,0,0,0,0,0,0,0,
230,39.76,61.19,66.62,26.14,52.08,54.37,44.86,9.443,13.24,42.36,33.79,34.19,47.25,19.2,20.02,25.1,0,0,0,0,0,0,0,0,0,0,0,0,0,0,0,0,
231,38.7,62.63,53.38,33.62,37.63,80.76,51.79,21.7,37.7,42.58,37.43,31.79,47.01,9.867,13.37,26.24,0,0,0,0,0,0,0,0,0,0,0,0,0,0,0,0,
232,51.3,63.43,38.32,13.62,38.88,50.19,61.95,9.388,62.24,42.6,47.73,29.81,42.35,14.17,8.857,29.76,0,0,0,0,0,0,0,0,0,0,0,0,0,0,0,0,
233,37.79,42.36,0.2676,6.905,13.17,26.64,39.7,4.355,31.39,45.45,43.95,22.14,33.53,14.11,14.88,32.72,0,0,0,0,0,0,0,0,0,0,0,0,0,0,0,0,
234,35.37,35.11,16.62,36.42,7.805,77.58,42.93,15.93,11.32,60.56,52.58,39.42,41.46,17.87,43.81,42.34,0,0,0,0,0,0,0,0,0,0,0,0,0,0,0,0,
235,52.89,42.32,41.79,45.84,27.35,92.43,62.55,7.397,22.41,60.3,54.56,50.85,34.58,1.593,42.66,31.35,0,0,0,0,0,0,0,0,0,0,0,0,0,0,0,0,
236,48.6,25.77,22.25,19.13,33.88,53.82,49.75,-9.241,11.59,41,35.4,35.51,10.9,-28.94,8.353,15.34,0,0,0,0,0,0,0,0,0,0,0,0,0,0,0,0,
237,37.36,8.946,32.71,8.948,37.65,42.71,39.48,-3.825,-0.5329,25.31,25.84,21.73,-0.2379,-38.46,-13.05,15.54,0,0,0,0,0,0,0,0,0,0,0,0,0,0,0,0,
238,35.02,12.04,51.11,12.63,28.64,47.7,49.39,5.493,4.939,17.31,24.1,14.36,-2.513,-32.63,-17.24,13.67,0,0,0,0,0,0,0,0,0,0,0,0,0,0,0,0,
239,34.96,19.06,2.043,6.124,3.491,70.4,52.26,1.967,0.8366,20.03,20.07,16.34,7.645,-27.41,-5.678,21.18,0,0,0,0,0,0,0,0,0,0,0,0,0,0,0,0,
240,48.93,28.51,-57.11,0.1148,-2.273,86.23,47.98,-9.342,-2.65,24.56,29.37,39.65,33.03,-24.52,23.63,47.06,0,0,0,0,0,0,0,0,0,0,0,0,0,0,0,0,
241,67.47,40.29,-53.02,-10.82,0.4179,50.58,44.18,-16.34,6.298,18.01,39.96,60.27,46.4,-21.24,37.41,52.09,0,0,0,0,0,0,0,0,0,0,0,0,0,0,0,0,
242,64.62,46.64,-21.13,-34.58,-14.18,40.69,30.34,-19.86,7.536,12.35,23.85,48.54,38.95,-12.49,15,28.4,0,0,0,0,0,0,0,0,0,0,0,0,0,0,0,0,
243,49.11,50.97,-21.53,-38.37,-11.75,65.49,27.08,-15.44,14.12,24.86,11.72,36.78,48.07,8.543,4.74,31.06,0,0,0,0,0,0,0,0,0,0,0,0,0,0,0,0,
244,59.4,70.83,-26.29,-1.317,15.94,54.02,70.85,23.34,41.05,45.75,33.53,59.09,86.14,37.53,29.66,64.42,0,0,0,0,0,0,0,0,0,0,0,0,0,0,0,0,
245,85.68,90.59,-2.103,21.8,7.509,61.06,103.4,56.1,50.25,35.97,42.09,69.64,96.32,43.63,34.89,63.13,0,0,0,0,0,0,0,0,0,0,0,0,0,0,0,0,
246,76.68,71.11,18.46,1.252,-19.77,94.41,67.13,38.13,38.53,4.24,35.17,55.45,65.06,27.04,25.61,36.71,0,0,0,0,0,0,0,0,0,0,0,0,0,0,0,0,
247,57.27,40.79,35.38,-2.835,4.549,69.93,34.58,35.05,40.49,4.083,56.93,61.21,43.97,22.05,36.94,31.05,0,0,0,0,0,0,0,0,0,0,0,0,0,0,0,0,
248,61.95,38.58,52.29,15.76,35.69,40.94,44.04,71.38,43.46,21.51,64.41,60.1,32.78,12.87,25.39,18.27,0,0,0,0,0,0,0,0,0,0,0,0,0,0,0,0,
249,52.71,41.33,55.59,18.81,36.1,77.98,55.93,93.6,45.2,24.05,44.24,36.3,17.87,-11.25,2.014,1.095,0,0,0,0,0,0,0,0,0,0,0,0,0,0,0,0,
250,39.91,35.64,64.91,25.9,43.88,96.22,62.71,94.17,59.91,24.39,53.26,38.74,16.73,-11.61,19.92,14.47,0,0,0,0,0,0,0,0,0,0,0,0,0,0,0,0,
251,54.28,19.53,34.22,20.9,23.68,47.09,38.23,72.61,52.05,13.42,56.49,47.56,13.78,-0.0946,26.1,21.81,0,0,0,0,0,0,0,0,0,0,0,0,0,0,0,0,
252,55.25,-9.716,-53.83,-31.05,-43.4,8.714,-14.77,30.02,10.61,-16.82,13.19,27.76,-2.556,-14.69,-8.075,2.383,0,0,0,0,0,0,0,0,0,0,0,0,0,0,0,0,
253,40.46,-16.02,-74.24,-71.07,-80.39,14.32,-12.72,4.844,-4.667,-28.83,-4.285,31.04,4.38,-19.63,-2.317,6.557,0,0,0,0,0,0,0,0,0,0,0,0,0,0,0,0,
254,65.08,26.3,-5.123,-43.56,-55.46,33.54,47.16,16.79,39.67,3.024,41.22,83.38,50.63,20.55,56.68,48.75,0,0,0,0,0,0,0,0,0,0,0,0,0,0,0,0,
255,110.8,79.33,49.35,-2.733,-4.27,43.39,71.51,43.44,77.26,39.75,71.96,109.2,82.49,54.14,75.42,69.88,0,0,0,0,0,0,0,0,0,0,0,0,0,0,0,0,
256,100.3,83.45,63.32,-17.17,29.04,28.41,31.77,43.32,50.92,29.84,44.31,64.8,59.06,42.87,29.67,44.88,0,0,0,0,0,0,0,0,0,0,0,0,0,0,0,0,
257,44.34,46.58,48.75,-46.2,25.42,30.92,-8.109,20.32,21.16,3.832,8.301,17.61,28.15,22.01,-12.21,21.83,0,0,0,0,0,0,0,0,0,0,0,0,0,0,0,0,
258,20.97,28.46,23.28,-34.65,-1.77,66.2,-1.555,20.24,19.87,9.386,-18.42,5.851,24.04,5.267,-34.53,12.3,0,0,0,0,0,0,0,0,0,0,0,0,0,0,0,0,
259,29.98,32.55,21.73,-19.51,-30.5,57.59,29.15,36.41,12,27.71,-34.64,5.598,25.03,-8.246,-41.7,3.192,0,0,0,0,0,0,0,0,0,0,0,0,0,0,0,0,
260,45.45,40.37,31.77,-7.421,-19.08,32.75,58.68,46.18,24.7,40.92,1.548,28.16,33.98,-1.802,-3.042,21.06,0,0,0,0,0,0,0,0,0,0,0,0,0,0,0,0,
261,71.89,53.75,43.67,25.21,24.2,57.21,71.45,54.25,43.05,40.85,45.72,51.43,39.27,-3.702,36.78,44.47,0,0,0,0,0,0,0,0,0,0,0,0,0,0,0,0,
262,59.9,42.43,63.27,20.69,19.33,55.61,39.15,40.99,8.308,15.54,25.97,28.47,16.94,-26.04,21.55,31.76,0,0,0,0,0,0,0,0,0,0,0,0,0,0,0,0,
263,-5.621,4.789,39.67,-42.73,-21.42,25.63,-17.56,3.767,-24.35,-12.96,0.1359,5.002,-0.0967,-27.33,4.82,17.13,0,0,0,0,0,0,0,0,0,0,0,0,0,0,0,0,
264,-31.03,-7.986,-24.67,-85.2,-14.36,60.58,-28.46,-11.53,-3.48,-18.84,23.22,23.98,11.98,-12.69,26.51,27.57,0,0,0,0,0,0,0,0,0,0,0,0,0,0,0,0,
265,17.95,17.83,-16.57,-53.52,25.16,101.6,26.04,16,34.8,3.445,52.64,46.93,31.32,-15.25,41.51,38.5,0,0,0,0,0,0,0,0,0,0,0,0,0,0,0,0,
266,65.5,54.4,66.13,14.48,31.08,60.43,84.1,53.32,57.37,29.51,51.09,49.31,38.41,-37.12,26.3,35.52,0,0,0,0,0,0,0,0,0,0,0,0,0,0,0,0,
267,73.9,73.3,89.91,49.26,13.2,12.18,97.02,69.47,46.77,26.09,32.9,51.83,34.07,-56.64,18.14,29.84,0,0,0,0,0,0,0,0,0,0,0,0,0,0,0,0,
268,77.16,70.61,52.67,41.5,17.02,21.17,80.35,73.17,17.98,11.36,22.5,61.67,33.48,-46.77,29.89,33.01,0,0,0,0,0,0,0,0,0,0,0,0,0,0,0,0,
269,75.66,58.48,47.42,15.51,16.91,29.2,43.94,71.46,-1.788,0.9814,14.39,57.55,38.49,-23.4,23.42,38.02,0,0,0,0,0,0,0,0,0,0,0,0,0,0,0,0,
270,48.59,39.45,31.68,-27.62,-29.99,19.9,0.9272,51.64,-19.37,-13.25,6.05,40.48,43.8,-14.68,0.8767,38.08,0,0,0,0,0,0,0,0,0,0,0,0,0,0,0,0,
271,28.06,27.68,-43.34,-64.27,-80.69,14.86,-10.1,16.43,-36.02,-11.78,7.821,29.15,50.18,-9.769,-1.076,37.24,0,0,0,0,0,0,0,0,0,0,0,0,0,0,0,0,
272,25.81,31.42,-67.01,-65.69,-80.82,-16.27,-1.51,-6.453,-40.4,0.698,8.431,22.48,50.44,-1.974,14.05,39.92,0,0,0,0,0,0,0,0,0,0,0,0,0,0,0,0,
273,19.61,33.36,9.301,-41.08,-45.34,-24.86,3.422,10.3,-27.47,-0.7064,8.352,17.92,39.38,0.9376,21.53,41.15,0,0,0,0,0,0,0,0,0,0,0,0,0,0,0,0,
274,15.86,22.75,53.73,-15.9,-21.45,23.93,14.19,41.49,-13.09,-11.09,6.059,-0.0473,9.078,-12.5,0.0593,19.45,0,0,0,0,0,0,0,0,0,0,0,0,0,0,0,0,
275,0.8074,-2.934,23.48,-12.52,-25.53,15.75,17.23,49.63,-24.89,-24.85,-15.64,-38.62,-31.89,-47.11,-41.46,-14.22,0,0,0,0,0,0,0,0,0,0,0,0,0,0,0,0,
276,-33.64,-30.44,5.388,-13.04,-30.28,-27.09,6.262,59.49,-39.49,-37.99,-38.92,-66.31,-55.53,-78.67,-68.6,-28.53,0,0,0,0,0,0,0,0,0,0,0,0,0,0,0,0,
277,-56.67,-49.89,-5.949,3.531,-32.48,15.75,-10.91,76.8,-25.65,-48.98,-47.05,-75.63,-67.66,-85.14,-73.04,-32.43,0,0,0,0,0,0,0,0,0,0,0,0,0,0,0,0,
278,-59.74,-63.79,-11.86,10.38,-42.72,57.64,-27.19,75.89,-3.782,-50.03,-31.17,-56.72,-58.84,-56.62,-45.14,-14.17,0,0,0,0,0,0,0,0,0,0,0,0,0,0,0,0,
279,-28.84,-42.3,29.69,-2.388,-52.52,21.11,-16.89,74.04,11.83,-28.83,13.4,5.655,-10.77,-9.154,9.391,34.58,0,0,0,0,0,0,0,0,0,0,0,0,0,0,0,0,
280,20.49,3.884,30.02,-25.03,-83.83,-27.86,-2.779,75.57,19.61,-17.59,38.75,53.08,23.23,6.253,46.36,57.98,0,0,0,0,0,0,0,0,0,0,0,0,0,0,0,0,
281,20.92,14.38,-37.84,-46.57,-115.7,-74.59,-19.45,75.98,5.843,-26.64,30.97,58.08,23.69,-6.979,60.79,51.03,0,0,0,0,0,0,0,0,0,0,0,0,0,0,0,0,
282,-3.787,9.327,-57.89,-36.93,-84.89,-88.76,-24.35,91.26,-29.71,-12.2,30.02,62.62,32.52,-6.639,59.4,51.63,0,0,0,0,0,0,0,0,0,0,0,0,0,0,0,0,
283,12.27,28.73,-33.99,-11.36,-30,-11.69,4.407,103.4,-52.75,17.26,34.39,67.41,45,1.96,42.39,51.97,0,0,0,0,0,0,0,0,0,0,0,0,0,0,0,0,
284,48.09,48.71,-12.3,-10.03,-2.484,60.02,23.68,101.7,-27.42,19.18,38.82,65.33,48.02,9.401,41.48,50.89,0,0,0,0,0,0,0,0,0,0,0,0,0,0,0,0,
285,68.72,48.41,18.38,-17.35,18.29,27.01,9.494,97.07,15.49,-5.735,44.72,60.88,46.87,16.63,44.99,51.62,0,0,0,0,0,0,0,0,0,0,0,0,0,0,0,0,
286,73.34,29.87,24.73,-11.11,35.56,-3.078,-11.8,83.15,33.37,-27.42,38.64,46.96,40.29,11.93,26.59,45.68,0,0,0,0,0,0,0,0,0,0,0,0,0,0,0,0,
287,71.34,9.882,16.07,-6.158,50.1,40.15,-12.54,70.83,42.09,-34.52,25.5,32.55,31.66,-3.719,7.111,39.74,0,0,0,0,0,0,0,0,0,0,0,0,0,0,0,0,
288,60.78,-2.764,28.61,-20.81,66.59,47.98,-17.16,66.9,47.45,-46.32,8.595,15.41,14.99,-11.36,-7.543,32.7,0,0,0,0,0,0,0,0,0,0,0,0,0,0,0,0,
289,30.5,-21.14,18.98,-41.19,59,13.37,-42.13,60.44,46.06,-46.74,3.095,-2.398,-2.36,9.302,-9.026,27.96,0,0,0,0,0,0,0,0,0,0,0,0,0,0,0,0,
290,1.429,-36.55,-30.25,-44.24,20.14,5.44,-61.8,63.48,49.32,-12.63,19.43,-7.024,-9.572,32.59,0.9143,26.26,0,0,0,0,0,0,0,0,0,0,0,0,0,0,0,0,
291,-15.36,-39.53,-49.16,-39.8,-12.61,-25.32,-66.54,85.8,38.43,9.938,11.16,-25.69,-29.6,13.98,-20.91,4.393,0,0,0,0,0,0,0,0,0,0,0,0,0,0,0,0,
292,-44.45,-38.8,11.39,-27.73,-2.291,-51.36,-43.97,112.2,1.421,-2.469,-34.28,-68.35,-64.05,-24.31,-62.42,-34.88,0,0,0,0,0,0,0,0,0,0,0,0,0,0,0,0,
293,-73.83,-32.64,72.44,4.035,27.99,5.053,5.948,120.4,-31.94,-16.14,-57.88,-86.93,-83.16,-53,-67.82,-61.13,0,0,0,0,0,0,0,0,0,0,0,0,0,0,0,0,
294,-60.34,-17.46,68.07,30.29,49.37,63.39,48.62,113.4,-15.95,-23.08,-22.67,-44.69,-65.83,-71.56,-26.07,-51.66,0,0,0,0,0,0,0,0,0,0,0,0,0,0,0,0,
295,1.663,11.04,77.87,32.82,81.56,81.61,77.5,104.3,43.2,-34.3,37.86,29.37,-20.48,-56.01,26.56,-15.9,0,0,0,0,0,0,0,0,0,0,0,0,0,0,0,0,
296,58.96,37.35,88.2,21.05,91.56,100.2,78.54,77.2,64.4,-46.17,65.94,70.81,14.51,-12.33,47.59,12.36,0,0,0,0,0,0,0,0,0,0,0,0,0,0,0,0,
297,77.24,42.24,27.61,8.904,50.09,89.53,38.08,56.73,53.74,-35.71,78.87,87.66,46.36,20.87,58.44,44.59,0,0,0,0,0,0,0,0,0,0,0,0,0,0,0,0,
298,101,59.48,15.68,11.13,33.55,70.6,15.24,85.97,87.86,5.459,112.3,123.2,101.1,45.75,92.13,97.15,0,0,0,0,0,0,0,0,0,0,0,0,0,0,0,0,
299,137.7,95.37,92.09,17.09,62.61,92.14,31.29,115.8,118.8,41.05,123,140.3,128.9,72.13,106.2,124.3,0,0,0,0,0,0,0,0,0,0,0,0,0,0,0,0,
300,132.5,95.48,113.8,13.17,69.89,89.33,28.15,109.1,103.8,43.49,101.5,110.9,98.57,82.71,78.25,108.4,0,0,0,0,0,0,0,0,0,0,0,0,0,0,0,0,
301,98.76,55.65,54.86,6.412,42.41,46.45,-2.568,101.5,100.3,19.49,87.42,73.12,57.74,66.37,45.12,84.26,0,0,0,0,0,0,0,0,0,0,0,0,0,0,0,0,
302,80.39,16.65,-10.78,-3.553,20.86,54.44,-20.01,100.3,97.31,-5.159,67.87,44.14,34.67,35.4,18.31,61.32,0,0,0,0,0,0,0,0,0,0,0,0,0,0,0,0,
303,69.85,-3.593,-10.95,-5.32,45.8,92.54,-12.62,102.9,68.5,-8.34,39.82,23.65,17.47,8.709,-5.894,37.57,0,0,0,0,0,0,0,0,0,0,0,0,0,0,0,0,
304,56.82,-7.558,78.19,19.11,97.4,70.54,3.025,115.1,59.87,-8.383,30.41,15.62,-1.969,-9.855,-15.61,23.85,0,0,0,0,0,0,0,0,0,0,0,0,0,0,0,0,
305,43.19,-14.56,139.4,44.07,99.83,35.71,1.502,112,63.4,-20.39,18.69,-0.8235,-30.7,-34.29,-23.19,8.755,0,0,0,0,0,0,0,0,0,0,0,0,0,0,0,0,
306,15.67,-46.18,101.6,37.16,49.81,38.5,-24.09,88.37,23.86,-31.37,-26.73,-44.7,-72.37,-70.34,-56.33,-29.21,0,0,0,0,0,0,0,0,0,0,0,0,0,0,0,0,
307,-24.08,-79.27,63.23,27.42,21.25,28.93,-20.02,86.54,-30.62,-32.25,-77.07,-88.36,-96.63,-86.39,-93.16,-65.78,0,0,0,0,0,0,0,0,0,0,0,0,0,0,0,0,
308,-43.66,-63.49,62.82,46.05,30.23,19.6,41.29,120.8,-49.76,-9.305,-99.05,-103.8,-86.11,-69.84,-107,-73.96,0,0,0,0,0,0,0,0,0,0,0,0,0,0,0,0,
309,-44.05,-21.81,34.57,45.44,13.03,22,69.79,141.3,-68.54,19.5,-112.4,-109.2,-81.29,-61.87,-116.3,-72.76,0,0,0,0,0,0,0,0,0,0,0,0,0,0,0,0,
310,-51.13,-9.62,-11.1,6.483,-45.15,-0.3753,36.96,129.2,-95.53,20.35,-107.3,-96.14,-76.87,-55.4,-95.3,-56.17,0,0,0,0,0,0,0,0,0,0,0,0,0,0,0,0,
311,-41.03,4.67,-19.89,-15.18,-74.96,4.171,28.88,114.3,-71.11,14.99,-47.65,-38.88,-31.24,-18.42,-19.7,-8.893,0,0,0,0,0,0,0,0,0,0,0,0,0,0,0,0,
312,-7.157,37.45,-19.03,-31.91,-56.57,29.67,16.93,76.21,-20.25,10.64,21.39,18.38,15.4,11.93,40.75,31.45,0,0,0,0,0,0,0,0,0,0,0,0,0,0,0,0,
313,9.129,39.05,-37.42,-71.11,-31.22,-6.775,-55.18,12.71,6.426,-15.98,61.89,49.27,34.06,25.05,62.95,48.1,0,0,0,0,0,0,0,0,0,0,0,0,0,0,0,0,
314,19.4,25.89,-33,-79.76,-4.821,-43.44,-98.15,-9.398,47.16,-42.46,106.7,84.97,55.09,46.42,92.35,57.66,0,0,0,0,0,0,0,0,0,0,0,0,0,0,0,0,
315,48.88,28.9,1.069,-55.13,26.54,-22.02,-75.73,11.87,105.4,-47.44,144,109.6,61.74,49.53,103.5,55.06,0,0,0,0,0,0,0,0,0,0,0,0,0,0,0,0,
316,69.08,18.29,8.125,-48.32,45.43,-6.694,-66.91,35.89,126,-41.67,135.1,93.9,35.59,33.35,72.78,40.74,0,0,0,0,0,0,0,0,0,0,0,0,0,0,0,0,
317,63.98,-5.27,-23.72,-48.82,44.42,-8.118,-76.99,79.94,105.1,-25.37,98.43,60.39,12.62,37.79,45.82,30.51,0,0,0,0,0,0,0,0,0,0,0,0,0,0,0,0,
318,50.67,-11.56,-28.73,-24.33,31.85,5.368,-48.81,137.9,81.84,-4.692,65.77,31.32,10.71,49.87,29.37,28.4,0,0,0,0,0,0,0,0,0,0,0,0,0,0,0,0,
319,36.03,-3.325,27.4,7.024,18.93,31.83,2.417,152.4,75.68,-8.14,39.13,4.589,11.08,38.19,-1.408,24.6,0,0,0,0,0,0,0,0,0,0,0,0,0,0,0,0,
320,19.14,6.93,83.02,17.8,22.54,74.07,29.54,131.1,69.37,-36.04,20.98,-9.043,5.798,18.42,-13.22,20.28,0,0,0,0,0,0,0,0,0,0,0,0,0,0,0,0,
321,15.37,19.91,97.13,38.77,50.59,106.3,51.14,130,49.31,-54.97,17.82,-4.688,-1.489,9.782,0.7772,20.43,0,0,0,0,0,0,0,0,0,0,0,0,0,0,0,0,
322,17.83,21.47,89.87,77.36,50.8,66.16,66.46,130.1,22.79,-62.28,-0.5609,-23.16,-22.2,-2.656,-25.03,0.758,0,0,0,0,0,0,0,0,0,0,0,0,0,0,0,0,
323,-8.008,-0.9048,61.89,77.21,-1.313,-14.57,37.45,107.1,-4.064,-56.29,-41.87,-64.75,-45.41,-14.09,-70.51,-33.95,0,0,0,0,0,0,0,0,0,0,0,0,0,0,0,0,
324,-34,-9.127,24.42,53.94,-25.79,-18.34,19.44,110.5,-18.35,-17,-57.88,-69.21,-43.19,-9.422,-65.27,-46.67,0,0,0,0,0,0,0,0,0,0,0,0,0,0,0,0,
325,-20.39,10.85,7.212,47.12,-28.21,30.31,58.02,136.6,-26.06,14.77,-59.97,-48.95,-37.16,-18.93,-45.41,-49.11,0,0,0,0,0,0,0,0,0,0,0,0,0,0,0,0,
326,-1.308,15.41,22.27,35.13,-71.9,14.41,87.03,141,-49.06,15.06,-79.68,-41.68,-41.68,-42.95,-39.12,-47.11,0,0,0,0,0,0,0,0,0,0,0,0,0,0,0,0,
327,0.3335,4.13,59,32.05,-85.39,-22.42,66.02,131.9,-74.87,24.1,-84.9,-34.82,-44.95,-50.7,-25.01,-32.51,0,0,0,0,0,0,0,0,0,0,0,0,0,0,0,0,
328,-20.13,-14.19,61.33,37.32,-54.34,-14.13,11.39,103.1,-87.25,22.92,-77.94,-42.48,-68.49,-69.64,-28.08,-36.99,0,0,0,0,0,0,0,0,0,0,0,0,0,0,0,0,
329,-59.07,-49.66,26.08,13.19,-56.75,-17.51,-33.15,62.66,-73.03,-1.957,-66.12,-51.5,-93.36,-103.2,-32.46,-49.73,0,0,0,0,0,0,0,0,0,0,0,0,0,0,0,0,
330,-54.25,-57.27,13.11,-8.158,-43.61,-28.59,-22.64,46.64,-19.17,-4.489,-9.328,-11.6,-66.16,-95.38,4.554,-29.4,0,0,0,0,0,0,0,0,0,0,0,0,0,0,0,0,
331,5.355,-15.77,2.96,-1.476,12.22,9.596,6.554,32.5,38.69,3.07,63.71,44.81,-4.075,-38.49,45.34,16.09,0,0,0,0,0,0,0,0,0,0,0,0,0,0,0,0,
332,52.49,27.64,-6.135,10.72,34.12,62.73,16.16,12.07,69.84,-4.886,91.06,69.45,46.87,19.31,59.22,64.81,0,0,0,0,0,0,0,0,0,0,0,0,0,0,0,0,
333,68.08,46.63,33.11,22.36,33.36,72.39,27.41,14.61,89.82,-13.23,90.65,73.59,65.86,33.81,62.36,88.1,0,0,0,0,0,0,0,0,0,0,0,0,0,0,0,0,
334,66.65,42.61,68.03,19.43,54.07,44.03,25.38,24.54,98.75,-27.3,95,66.87,55.66,11.71,56.53,69.02,0,0,0,0,0,0,0,0,0,0,0,0,0,0,0,0,
335,51.44,26.42,51.88,-1.52,66.32,14.61,-8.276,21.84,88.98,-50.76,90.03,50.21,38.09,1.667,44.42,41.55,0,0,0,0,0,0,0,0,0,0,0,0,0,0,0,0,
336,33.2,12.94,25.75,-7.314,56.13,2.751,-30.45,20.32,80.01,-59.68,72.14,37.7,26.64,15.65,42.76,39.89,0,0,0,0,0,0,0,0,0,0,0,0,0,0,0,0,
337,28.66,8.249,14.01,21.91,49.33,15.76,-8.528,44.62,81.56,-41.34,57.44,32.61,20.07,24.44,43.97,52.41,0,0,0,0,0,0,0,0,0,0,0,0,0,0,0,0,
338,33.19,6.991,8.307,49.88,39.88,37.74,17.98,81.15,62.1,-25.9,24.34,11.57,2.384,15.06,22.25,45.31,0,0,0,0,0,0,0,0,0,0,0,0,0,0,0,0,
339,12.16,-9.919,0.5267,30.84,11.45,10.57,2.95,85.49,7.433,-32.15,-30.45,-21.08,-22.25,1.819,0.8949,27,0,0,0,0,0,0,0,0,0,0,0,0,0,0,0,0,
340,-24.85,-26.78,5.914,9.946,-14.11,-57.39,-13.8,85.19,-37,-13.99,-57.3,-27.25,-20.16,-10.8,7.883,28.25,0,0,0,0,0,0,0,0,0,0,0,0,0,0,0,0,
341,-35.43,-13.06,13.5,30.25,-30.71,-66.46,7.691,113.3,-54.3,30.68,-66.6,-27.41,-10.82,-38.52,-3.261,21.72,0,0,0,0,0,0,0,0,0,0,0,0,0,0,0,0,
342,-37.35,1.598,-18.91,33.95,-45.98,-14.55,17.38,113.7,-74.64,39.86,-93.71,-53.28,-28.84,-70.62,-43.41,-10.92,0,0,0,0,0,0,0,0,0,0,0,0,0,0,0,0,
343,-49.38,-9.203,-51.17,7.744,-39.9,-17.04,-7.147,69.58,-88.17,14.92,-102.7,-69.41,-48.53,-90.86,-53.53,-32.83,0,0,0,0,0,0,0,0,0,0,0,0,0,0,0,0,
344,-53.2,-24.74,-41.02,-7.734,-25.59,-71.83,-14.24,30.17,-70.27,-8.043,-71.21,-54.66,-46.37,-102.3,-29.91,-30.8,0,0,0,0,0,0,0,0,0,0,0,0,0,0,0,0,
345,-43.44,-20.97,-15.22,-13.77,-22.93,-53.97,11.83,6.646,-30.98,-20.14,-23.1,-23.82,-22.29,-85.49,-7.237,-14.23,0,0,0,0,0,0,0,0,0,0,0,0,0,0,0,0,
346,-16.66,8.826,18.19,-5.06,-15.74,15.64,29.88,-10.38,9.681,-21.25,19.61,9.729,7.777,-49.02,8.068,4.157,0,0,0,0,0,0,0,0,0,0,0,0,0,0,0,0,
347,16.85,33.37,9.426,3.241,-19.2,23.59,21.15,-16.16,33.84,-25,43.27,29.65,16.03,-33.81,24.82,10.7,0,0,0,0,0,0,0,0,0,0,0,0,0,0,0,0,
348,36.13,30.58,-56.19,-23.44,-31.63,6.625,12.08,-15.39,35.5,-38.28,53.16,36.77,14.68,-27.95,46.92,16.36,0,0,0,0,0,0,0,0,0,0,0,0,0,0,0,0,
349,38.83,24.7,-42.49,-40.8,-5.401,9.753,18.74,-15.32,36.83,-49.49,59.13,41.94,28.38,-10.89,63.96,32.93,0,0,0,0,0,0,0,0,0,0,0,0,0,0,0,0,
350,27.03,28.15,65.36,-7.47,45.6,-7.806,31.1,0.5724,58.9,-47.13,65.62,49.3,48.93,11.17,74.43,58.16,0,0,0,0,0,0,0,0,0,0,0,0,0,0,0,0,
351,15.02,31.91,102,23.63,54.13,-19.7,27.81,26.44,70.4,-34.69,68.26,53.29,55.12,32.93,77.63,74.9,0,0,0,0,0,0,0,0,0,0,0,0,0,0,0,0,
352,9.955,21.68,37.3,9.583,3.832,-9.089,-7.017,23.27,44.42,-31.92,52.21,40.98,39.84,45.85,60.41,68.73,0,0,0,0,0,0,0,0,0,0,0,0,0,0,0,0,
353,4.457,-4.449,-17.9,-18.86,-42.42,-3.171,-40.63,13.01,23.29,-32.96,26.85,19.43,23.1,52.9,25.97,60.86,0,0,0,0,0,0,0,0,0,0,0,0,0,0,0,0,
354,3.65,-25.67,-24.69,-35.29,-44.01,7.147,-44.39,32.27,18.05,-22.79,-4.717,-10.59,7.591,41.23,-17.51,52.15,0,0,0,0,0,0,0,0,0,0,0,0,0,0,0,0,
355,-7.374,-38.41,-14.02,-40.13,-37.79,-13.7,-40.22,56.88,6.482,-6.711,-42.96,-44.72,-14.25,-3.803,-45.49,26.73,0,0,0,0,0,0,0,0,0,0,0,0,0,0,0,0,
356,-26.53,-36.19,5.391,-20.61,-28,-49.07,-25.69,82.4,15.13,15.4,-43.78,-42.64,-20.1,-46.56,-36.17,9.5,0,0,0,0,0,0,0,0,0,0,0,0,0,0,0,0,
357,-13.2,-13.64,23.67,14.16,1.178,3.208,8.634,104.3,29.14,19.87,-9.891,-12.41,-17.94,-80.88,-24.57,2.981,0,0,0,0,0,0,0,0,0,0,0,0,0,0,0,0,
358,24.19,0.9335,26.24,42.73,17.49,70.75,41.7,100.5,19.24,-3.691,6.1,9.216,-22.35,-126.5,-21.24,-14.09,0,0,0,0,0,0,0,0,0,0,0,0,0,0,0,0,
359,56.26,14.38,40.81,70.35,27.38,51.64,61.18,99.39,26.48,-10.46,10.73,32.74,-10.25,-152.7,-4.133,-30.62,0,0,0,0,0,0,0,0,0,0,0,0,0,0,0,0,
360,73.38,38.05,66.74,76.6,49.74,55.97,52.07,97.62,45.88,-1.369,25.45,50.51,6.247,-145.2,13.03,-30.87,0,0,0,0,0,0,0,0,0,0,0,0,0,0,0,0,
361,58.99,33.83,50.18,46.43,49.33,103.9,18.96,56.96,38.12,-2.665,42.25,48.16,7.733,-121.8,42.72,-6.186,0,0,0,0,0,0,0,0,0,0,0,0,0,0,0,0,
362,27.08,4.862,-7.7,13.06,18.97,56.87,-6.984,11.95,24.25,0.3369,54.34,46.02,12.86,-89.68,91.43,34.09,0,0,0,0,0,0,0,0,0,0,0,0,0,0,0,0,
363,7.565,-13.06,-49.18,-5.801,-6.217,-30.24,-22.07,3.426,25.04,1.737,57.5,43.02,22.97,-61.01,106.4,57.57,0,0,0,0,0,0,0,0,0,0,0,0,0,0,0,0,
364,-5.751,-23.5,-45.93,-10.61,-11.8,-33.41,-37.86,-0.2658,20.75,-14.64,42.91,16.58,13.78,-46.29,71.17,42.95,0,0,0,0,0,0,0,0,0,0,0,0,0,0,0,0,
365,-37.1,-47.3,-33.3,-20.58,-16.7,-42.26,-71.2,-43.96,-15.54,-36.72,5.141,-29.91,-21.39,-44.38,26.63,5.583,0,0,0,0,0,0,0,0,0,0,0,0,0,0,0,0,
366,-77.38,-75.83,-47.41,-51.14,-27.21,-103.9,-102.4,-93.96,-52.26,-36.2,-16.34,-49.9,-36.68,-34.47,15.52,0.0077,0,0,0,0,0,0,0,0,0,0,0,0,0,0,0,0,
367,-77.04,-69.88,-59.91,-63.92,-25.99,-102.3,-78.36,-87.01,-34.77,-4.338,10.1,-26.2,-7.084,-1.251,26.96,33.39,0,0,0,0,0,0,0,0,0,0,0,0,0,0,0,0,
368,-44.89,-42.06,-60.36,-58.47,-30.88,-45.33,-43.87,-59.98,-5.089,11.34,31.94,-14.53,11.49,32.21,11.59,50.09,0,0,0,0,0,0,0,0,0,0,0,0,0,0,0,0,
369,-38.77,-36.15,-72.87,-64.07,-40.81,-33.92,-53.68,-58.04,-15,-10.26,13.27,-28.65,2.94,53.48,-19.29,46.39,0,0,0,0,0,0,0,0,0,0,0,0,0,0,0,0,
370,-48.31,-32.35,-75.55,-54.55,-23.36,-53.2,-52.73,-51.07,-33.54,-31.86,-20.71,-35.13,-1.457,59.41,-34.68,37.9,0,0,0,0,0,0,0,0,0,0,0,0,0,0,0,0,
371,-44.49,-19.43,-64.68,-36.4,-32.75,-40.3,-32.26,-45.8,-36,-39.26,-40.55,-32.02,-10.05,41.37,-37.77,19.18,0,0,0,0,0,0,0,0,0,0,0,0,0,0,0,0,
372,-27.31,-16.62,-72.3,-39.98,-92.37,1.162,-30.05,-55,-30.94,-30.93,-28.09,-16.36,-20.5,23.07,-25.3,10.34,0,0,0,0,0,0,0,0,0,0,0,0,0,0,0,0,
373,-5.068,-15.12,-86.68,-46.25,-103,12.64,-18.15,-47.13,-27.4,-17.34,-13.93,-0.0438,-24.35,15.81,-13.19,7.024,0,0,0,0,0,0,0,0,0,0,0,0,0,0,0,0,
374,-6.527,-15.96,-78.73,-38.79,-53.82,-12.26,11.8,-26.71,-17.65,-16.06,-16.79,5.446,-23.77,12.4,-0.6642,0.7267,0,0,0,0,0,0,0,0,0,0,0,0,0,0,0,0,
375,-18.63,-13.06,-43.96,-17.31,-30.6,-11.77,24.66,-14.8,-3.901,-10.02,-0.6805,30.67,1.136,19.99,39.04,12.64,0,0,0,0,0,0,0,0,0,0,0,0,0,0,0,0,
376,-5.62,11.66,-11.71,-4.968,-37.8,-0.8374,16.1,-15.41,-12,-4.279,21.93,62.63,36.61,28.61,69.84,21.52,0,0,0,0,0,0,0,0,0,0,0,0,0,0,0,0,
377,8.966,36.13,-14.89,-28.75,-47.03,-39.67,3.848,-33.7,-17.92,-10.79,22.72,57.35,46.51,41.35,61.39,9.596,0,0,0,0,0,0,0,0,0,0,0,0,0,0,0,0,
378,2.62,37.47,-36.26,-59.21,-63.83,-85.31,-7.817,-51.35,-6.914,-7.101,14.21,23.36,36.5,65.78,41.01,4.654,0,0,0,0,0,0,0,0,0,0,0,0,0,0,0,0,
379,-14.67,22.76,-51.58,-63.11,-67.48,-56.34,-19.08,-36.24,-9.692,-6.535,3.46,-3.15,26.82,73.64,25.21,14.17,0,0,0,0,0,0,0,0,0,0,0,0,0,0,0,0,
380,-25.39,10.5,-63.12,-43.54,-46.61,16.5,-24.27,-3.579,4.138,-25.27,0.3097,-3.965,20.69,68.4,15.8,22.33,0,0,0,0,0,0,0,0,0,0,0,0,0,0,0,0,
381,-20.77,1.876,-63.35,-19.4,-38.06,31,-30.21,-3.522,31.89,-36.99,7.094,2.126,11.39,80.24,9.712,26.87,0,0,0,0,0,0,0,0,0,0,0,0,0,0,0,0,
382,-14.02,-14.16,-39.01,-10.36,-35.6,-0.9181,-27.26,-23.14,19.74,-35.82,15.52,5.571,10.86,104.7,10.41,42.81,0,0,0,0,0,0,0,0,0,0,0,0,0,0,0,0,
383,-7.537,-20.13,-10.37,-16.2,-32.12,-13.36,-6.046,-30.05,-8.832,-41.66,8.227,3.363,14.18,116.6,7.497,48.99,0,0,0,0,0,0,0,0,0,0,0,0,0,0,0,0,
384,-23.05,-29.97,-29.72,-43.08,-73.86,-48.83,-17.81,-59.7,-42.79,-56.36,-35.6,-33.35,-14.35,110.6,-21.03,16.6,0,0,0,0,0,0,0,0,0,0,0,0,0,0,0,0,
385,-70.82,-67.7,-78.32,-73.97,-107.7,-89.58,-58.47,-87.49,-68.36,-55.31,-57.38,-63.88,-41.67,118,-31.1,-1.742,0,0,0,0,0,0,0,0,0,0,0,0,0,0,0,0,
386,-83.84,-80.34,-73.53,-63.25,-72.62,-51.05,-60.96,-61.08,-41.37,-44.14,-29.59,-52.18,-38.17,126.8,-16.69,3.963,0,0,0,0,0,0,0,0,0,0,0,0,0,0,0,0,
387,-73.81,-69.41,-48.61,-40.89,-59.41,-19.1,-55.64,-52.66,-33.32,-55.11,-41.23,-71.66,-59.82,90.82,-49.72,-28.99,0,0,0,0,0,0,0,0,0,0,0,0,0,0,0,0,
388,-105.6,-88.79,-78.56,-42.81,-79.35,-68.05,-68.07,-82.23,-73.82,-58.32,-77.8,-111.1,-91.84,64.03,-86.7,-59.9,0,0,0,0,0,0,0,0,0,0,0,0,0,0,0,0,
389,-121.6,-96.9,-99.83,-43.31,-57.72,-86.93,-60.72,-78.98,-61.93,-33.02,-63.85,-96.78,-80.46,96.05,-66.51,-46.41,0,0,0,0,0,0,0,0,0,0,0,0,0,0,0,0,
390,-103.9,-79.25,-64.69,-56.65,-42.95,-48.06,-67.46,-73.4,-21.04,-26.23,-48.98,-79.44,-68.78,111.9,-57.12,-48.7,0,0,0,0,0,0,0,0,0,0,0,0,0,0,0,0,
391,-114.5,-89.17,-50.21,-88.25,-50.99,-65.76,-97.09,-92.53,-33.17,-36.17,-62.2,-92.61,-81.48,77.56,-72.39,-65.58,0,0,0,0,0,0,0,0,0,0,0,0,0,0,0,0,
392,-118.8,-102.2,-86.04,-94.93,-33.66,-119.5,-86.89,-83.51,-44.98,-31.64,-62.23,-87.11,-79.94,63.65,-61.45,-53.11,0,0,0,0,0,0,0,0,0,0,0,0,0,0,0,0,
393,-90.19,-79.97,-116.1,-82.4,-41.02,-87.85,-56.7,-53.31,-18.57,-28.19,-56.45,-70.27,-63.32,92.73,-47.51,-37.98,0,0,0,0,0,0,0,0,0,0,0,0,0,0,0,0,
394,-78.72,-56.27,-109.3,-68.19,-70.66,-31.96,-56.35,-42.08,-9.536,-31.39,-57.57,-66.98,-50.79,108.9,-43.27,-33.13,0,0,0,0,0,0,0,0,0,0,0,0,0,0,0,0,
395,-77.69,-47.81,-55.76,-35.58,-15.73,-45.7,-55.66,-36.06,-7.682,-26.16,-40.85,-50.89,-30.05,98,-17.95,-9.435,0,0,0,0,0,0,0,0,0,0,0,0,0,0,0,0,
396,-50.59,-24.51,13.85,-0.4751,80.69,-31.19,-20.36,-16.71,38.27,-20.78,-12.14,-23.74,-3.836,92.21,0.4986,9.313,0,0,0,0,0,0,0,0,0,0,0,0,0,0,0,0,
397,-21.53,3.624,9.892,2.241,68.94,16.35,18.43,-3.222,65.4,-30.33,-10.4,-22.91,-5.957,80.37,-14.9,-9.145,0,0,0,0,0,0,0,0,0,0,0,0,0,0,0,0,
398,-20.43,-1.205,-46.62,-3.627,-3.414,-14.2,19.53,-3.354,19.3,-38.83,-23.84,-31.36,-24.7,55.76,-18.17,-21.36,0,0,0,0,0,0,0,0,0,0,0,0,0,0,0,0,
399,-27.41,-17.21,-46.88,16.64,7.783,-50.1,0.8859,4.004,-18.6,-32.17,-18.82,-21.11,-25.5,51.05,-2.804,-9.16,0,0,0,0,0,0,0,0,0,0,0,0,0,0,0,0,
400,-23.72,-15.32,-11.42,28.99,53.86,-15.99,2.973,15.19,-6.099,-30.53,-15.06,-16.86,-19.44,66.69,-2.596,-6.822,0,0,0,0,0,0,0,0,0,0,0,0,0,0,0,0,
401,-18.87,-9.015,4.108,16.86,48.43,9.654,19.72,17.06,-0.7954,-28.46,-23.93,-21.07,-10.22,90.95,-0.3292,1.252,0,0,0,0,0,0,0,0,0,0,0,0,0,0,0,0,
402,-22.02,-1.26,-6.709,14.65,34.31,-11.07,14.92,15.94,-23.11,-7.763,-29.62,-20.17,4.743,120.8,3.033,19.69,0,0,0,0,0,0,0,0,0,0,0,0,0,0,0,0,
403,-34.72,6.45,-67.66,11.68,21.92,-36.37,-11.29,11.31,-39.21,7.837,-23.5,-22.21,9.51,141,-4.593,19.53,0,0,0,0,0,0,0,0,0,0,0,0,0,0,0,0,
404,-37.22,8.145,-107.5,-4.035,-3.571,-20.8,-17.78,0.6451,-33.69,3.985,-0.7882,-15.76,12.74,146.9,4.18,18.44,0,0,0,0,0,0,0,0,0,0,0,0,0,0,0,0,
405,-22.23,4.309,-64.89,-13.18,-2.665,0.2171,-7.894,-21.46,-32.41,-13.33,3.591,-10.14,12.76,138.3,12.61,24.59,0,0,0,0,0,0,0,0,0,0,0,0,0,0,0,0,
406,-27.63,-14.27,-46.26,-25.46,20.14,-46.86,-33.05,-52.57,-42.46,-33.02,-19.6,-25.75,0.4558,129.2,1.688,26.52,0,0,0,0,0,0,0,0,0,0,0,0,0,0,0,0,
407,-58.01,-35.33,-73.13,-40.23,28.15,-99.25,-87.92,-72.46,-42.77,-33.38,-19.4,-40.55,-7.858,133,-6.971,27.07,0,0,0,0,0,0,0,0,0,0,0,0,0,0,0,0,
408,-79.55,-48.31,-69.4,-44.19,24.37,-84.51,-116.9,-87.36,-40.83,-27.82,-12.29,-51.06,-22.26,116.6,-25.74,8.174,0,0,0,0,0,0,0,0,0,0,0,0,0,0,0,0,
409,-85.32,-70.21,-74.28,-44.07,13.39,-67.58,-106.6,-98.84,-40.02,-38.81,-37.03,-68.09,-48.36,74.98,-53.39,-22.51,0,0,0,0,0,0,0,0,0,0,0,0,0,0,0,0,
410,-85.2,-90.01,-105.9,-40.26,-14.28,-77.68,-88.09,-83.82,-36.66,-48.23,-66.03,-81.22,-59.94,47.16,-64.96,-32.11,0,0,0,0,0,0,0,0,0,0,0,0,0,0,0,0,
411,-84.89,-84.32,-98.81,-38.49,-32.09,-64.92,-64.48,-53.23,-33.26,-36.97,-71.34,-79.16,-48.95,39.29,-60.12,-25.44,0,0,0,0,0,0,0,0,0,0,0,0,0,0,0,0,
412,-63.44,-46.79,-46.23,-23.71,9.191,-25.1,-10.84,-22.05,-10.06,-13.28,-48.28,-49.88,-18.76,47.95,-35.92,-13.82,0,0,0,0,0,0,0,0,0,0,0,0,0,0,0,0,
413,-14.06,10.73,17.57,33.44,87.86,13.52,47.18,12.86,14.68,2.011,-19.59,-10.96,15.03,70.59,-9.43,0.2519,0,0,0,0,0,0,0,0,0,0,0,0,0,0,0,0,
414,25.22,54.32,72.45,87.56,139.4,55.79,72.53,45.54,25.32,12.08,0.9506,19.25,35.48,83.04,6.352,17.56,0,0,0,0,0,0,0,0,0,0,0,0,0,0,0,0,
415,57.06,72.36,96.57,89.37,150.2,102.1,78.14,73.11,50.11,16.87,29.96,45.93,41.09,62.61,26.34,33.29,0,0,0,0,0,0,0,0,0,0,0,0,0,0,0,0,
416,78.38,62.66,78.33,76.57,135.1,107.2,63.79,86.05,50.64,-9.611,41.76,41.9,27.16,26.23,34.62,33.58,0,0,0,0,0,0,0,0,0,0,0,0,0,0,0,0,
417,52.76,31.55,48.53,78.98,121.9,66.58,43.97,81.74,19.92,-30.25,31.55,20.25,20.01,32.01,32.99,38.24,0,0,0,0,0,0,0,0,0,0,0,0,0,0,0,0,
418,32.02,26.19,44.9,72.13,121.9,35.69,59.85,71.88,22.11,-11.24,35.37,28.33,34.62,68.05,36,48.29,0,0,0,0,0,0,0,0,0,0,0,0,0,0,0,0,
419,46.06,38.7,48.92,53.54,111.4,29.87,65.36,45.53,22.93,-9.428,25.89,29.44,28.91,58.35,18.7,29.08,0,0,0,0,0,0,0,0,0,0,0,0,0,0,0,0,
420,34.52,23.35,39.51,44.31,112.1,36.24,19.57,8.611,4.804,-21.62,1.247,6.985,8.538,31.23,0.9479,8.023,0,0,0,0,0,0,0,0,0,0,0,0,0,0,0,0,
421,13.42,7.838,37.09,34.24,131.1,44.92,-8.976,-7.006,20.68,-4.006,5.59,0.3228,3.246,50.52,7.379,10.66,0,0,0,0,0,0,0,0,0,0,0,0,0,0,0,0,
422,8.806,5.469,30.24,7.794,102.7,27.43,-7.603,-13.96,25.75,4.513,10.94,-8.585,-7.769,82.87,1.387,4.187,0,0,0,0,0,0,0,0,0,0,0,0,0,0,0,0,
423,-19.14,-14.63,-16.29,-33.66,33.71,-19.84,-36.84,-46.2,-7.997,-5.837,-0.7661,-24.87,-15.21,94.25,-7.85,-3.057,0,0,0,0,0,0,0,0,0,0,0,0,0,0,0,0,
424,-39.59,-30.73,-57.19,-71.93,7.719,-52.46,-62.13,-75.98,-8.798,5.799,10.52,-8.002,8.971,98.6,15.3,17.78,0,0,0,0,0,0,0,0,0,0,0,0,0,0,0,0,
425,-6.231,-9.396,-8.836,-44.63,54.14,-30.32,-24.06,-47.38,31.61,24.94,36.59,24.45,34.97,101.7,36.04,38.45,0,0,0,0,0,0,0,0,0,0,0,0,0,0,0,0,
426,29.85,20.32,74.74,44.33,112.5,28.73,27.59,5.102,56.83,21.37,34.47,24.02,24.8,97.15,15.8,22.16,0,0,0,0,0,0,0,0,0,0,0,0,0,0,0,0,
427,28.16,16.92,73.31,80.95,110.1,65.81,41.41,14.85,44.82,16.24,7.615,-1.998,-2.877,90.4,-16.95,-10.95,0,0,0,0,0,0,0,0,0,0,0,0,0,0,0,0,
428,16.46,2.49,26.49,51.87,75.13,47.35,35.52,9.144,7.366,31.38,-18.41,-24.32,-11.94,93.32,-32.24,-24.07,0,0,0,0,0,0,0,0,0,0,0,0,0,0,0,0,
429,-1.314,5.433,12.65,28.98,59.57,-10.15,9.228,5.137,-34.82,31.04,-44.83,-49.04,-16.1,91.3,-48.09,-24.43,0,0,0,0,0,0,0,0,0,0,0,0,0,0,0,0,
430,-41.1,-6.303,-2.913,2.79,44.88,-50.66,-33.35,-23.65,-64.54,3.807,-61.88,-69.19,-29.31,72.61,-56.44,-16.57,0,0,0,0,0,0,0,0,0,0,0,0,0,0,0,0,
431,-67.01,-31.2,-23.44,-17.96,38.83,-45.54,-45.19,-37.64,-72.74,2.954,-43.44,-51.19,-21.55,66.63,-24.86,9.421,0,0,0,0,0,0,0,0,0,0,0,0,0,0,0,0,
432,-48.89,-21.99,-13.96,8.61,60.44,-30.64,-20.74,-17.24,-58.04,24.45,-10.82,-14.14,3.03,78.13,11.78,24.19,0,0,0,0,0,0,0,0,0,0,0,0,0,0,0,0,
433,-23.91,4.127,6.846,36.99,73.64,-21.23,2.216,-17.04,-40.88,16.42,-5.758,-8.011,4.072,66.5,5.372,6.941,0,0,0,0,0,0,0,0,0,0,0,0,0,0,0,0,
434,-33.41,-0.1472,13.96,23.76,59.17,-14.5,-1.05,-51.41,-55.96,-17.85,-26.96,-33.35,-20.15,25.02,-23.92,-20.2,0,0,0,0,0,0,0,0,0,0,0,0,0,0,0,0,
435,-60.72,-26.19,-2.298,10.01,34.17,-31.39,-19.86,-73.97,-82.72,-48.18,-38.34,-51.01,-38.27,-4.806,-34.86,-38.73,0,0,0,0,0,0,0,0,0,0,0,0,0,0,0,0,
436,-60.65,-41.21,-28.24,17.91,20.18,-61.45,-12.72,-55.92,-73.43,-61.04,-26.74,-47.5,-41.63,-8.631,-25.22,-47.64,0,0,0,0,0,0,0,0,0,0,0,0,0,0,0,0,
437,-46.2,-48.95,-33.27,10.58,31.27,-80.57,8.692,-40.69,-62.84,-59.37,-26.05,-49.79,-46.5,-2.435,-22.27,-44.62,0,0,0,0,0,0,0,0,0,0,0,0,0,0,0,0,
438,-54.89,-54.53,-5.42,-2.45,59.16,-71.33,-3.362,-63.1,-74.05,-44.1,-36.38,-51.48,-36.06,28.76,-27.84,-17.41,0,0,0,0,0,0,0,0,0,0,0,0,0,0,0,0,
439,-51.23,-30.62,41.69,19.15,72.38,-21.93,-16.45,-75.03,-49.25,-18.4,-24.64,-30.47,-1.73,75.03,-27.26,14.76,0,0,0,0,0,0,0,0,0,0,0,0,0,0,0,0,
440,-19.65,4.448,51.95,32.17,47.01,28.77,13.52,-64.39,0.1919,-11.42,-1.7,-15.52,11.79,85.12,-21.49,20.61,0,0,0,0,0,0,0,0,0,0,0,0,0,0,0,0,
441,-4.022,12.88,18.4,10.7,27.12,50.33,43.61,-73.62,12.59,-20.77,24.01,-9.458,8.866,74.51,-5.678,25.65,0,0,0,0,0,0,0,0,0,0,0,0,0,0,0,0,
442,1.414,19.68,27.62,11.74,57.14,43.59,27.94,-90.75,-8.194,-20.7,36.9,1.67,15.07,67.65,0.3945,30.19,0,0,0,0,0,0,0,0,0,0,0,0,0,0,0,0,
443,1.609,21.09,73.62,29.63,77.46,4.059,-2.835,-91.63,-34.25,-31.3,4.516,-14.99,-3.09,36.93,-24.76,2.064,0,0,0,0,0,0,0,0,0,0,0,0,0,0,0,0,
444,-22.22,-12.06,59.84,25.34,47.57,-16.62,-6.668,-87.58,-39.11,-48.41,-18.6,-38.81,-29.5,9.678,-28.77,-9.004,0,0,0,0,0,0,0,0,0,0,0,0,0,0,0,0,
445,-29.43,-35.58,-8.597,21.97,31.73,31.63,6.515,-81.04,-13.03,-37.87,9.999,-19.76,-15.61,24.01,9.497,25.62,0,0,0,0,0,0,0,0,0,0,0,0,0,0,0,0,
446,-1.823,-23.51,-43.2,37.23,61.24,88.05,20.85,-65.59,7.676,-26.1,17.33,0.1678,1.51,36.24,19.72,39.04,0,0,0,0,0,0,0,0,0,0,0,0,0,0,0,0,
447,0.8958,-24.32,-8.344,51.75,73.14,56.82,16.34,-64.18,-11.19,-44.03,-18.66,-19.68,-15.48,15.32,-10.36,15.58,0,0,0,0,0,0,0,0,0,0,0,0,0,0,0,0,
448,-33.98,-51.19,31.78,38.39,48.26,-42.51,-22.89,-92.19,-42.19,-55.3,-22.79,-25.34,-23.95,1.174,-6.027,12.4,0,0,0,0,0,0,0,0,0,0,0,0,0,0,0,0,
449,-34.94,-51.59,33.05,14.73,72.15,-59.79,-33.74,-97.51,-21.26,-31.34,20.32,17.07,6.247,23.38,37.98,39.45,0,0,0,0,0,0,0,0,0,0,0,0,0,0,0,0,
450,8.093,-16.52,50.34,29.42,134.3,24.61,4.039,-68.62,16.33,-20.94,35.94,38.02,28.36,45.88,38.14,43.31,0,0,0,0,0,0,0,0,0,0,0,0,0,0,0,0,
451,11.3,-8.437,70.72,51.04,108.1,42.49,4.296,-78.4,-25.65,-57.42,-4.248,-3.335,8.902,34.83,-12.72,6.907,0,0,0,0,0,0,0,0,0,0,0,0,0,0,0,0,
452,-28.52,-32.42,20.71,30.4,24.65,-7.737,-29.08,-109.7,-86.39,-84.5,-42.04,-45.43,-14.12,12.65,-46.06,-19.7,0,0,0,0,0,0,0,0,0,0,0,0,0,0,0,0,
453,-48.07,-40.56,-31.44,3.976,5.79,-9.213,-32.8,-94.31,-78.51,-70.61,-57.13,-59.72,-20.74,2.556,-60.65,-16.33,0,0,0,0,0,0,0,0,0,0,0,0,0,0,0,0,
454,-60.46,-42,-15.93,-3.492,30.25,-15.07,-22.79,-71.14,-84.66,-51.62,-79.38,-73.69,-34.17,2.412,-80.09,-21.41,0,0,0,0,0,0,0,0,0,0,0,0,0,0,0,0,
455,-78.12,-52.18,-18.41,-13.18,27.87,-68.92,-20.76,-86.7,-141.7,-45.54,-107.7,-90,-58.99,-1.325,-91.62,-53.79,0,0,0,0,0,0,0,0,0,0,0,0,0,0,0,0,
456,-80.39,-57.74,-53.2,-16.13,0.8638,-82.19,-21.87,-105.2,-151.2,-44.47,-117.4,-99.89,-75.76,-12.72,-87.29,-76.65,0,0,0,0,0,0,0,0,0,0,0,0,0,0,0,0,
457,-78.76,-60.09,-31.75,0.4051,-7.279,-31.31,-21.32,-94.26,-102.1,-42.69,-85.26,-91.74,-71.37,-8.539,-61.66,-61.96,0,0,0,0,0,0,0,0,0,0,0,0,0,0,0,0,
458,-72.86,-63.09,3.446,4.507,2.593,3.231,-31.71,-82.27,-75.38,-51.55,-29.12,-65.25,-59.37,9.577,-25.7,-35.67,0,0,0,0,0,0,0,0,0,0,0,0,0,0,0,0,
459,-54.66,-62.42,-3.587,-9.107,-10.6,-19.1,-61.36,-91.53,-63.96,-65.04,9.282,-30.69,-34.99,31.01,10.76,2.023,0,0,0,0,0,0,0,0,0,0,0,0,0,0,0,0,
460,-28.9,-39.33,8.839,6.418,-8.362,-38.95,-53.56,-91.49,-22.12,-45.66,30.47,13.18,18.05,69.76,53.74,59.17,0,0,0,0,0,0,0,0,0,0,0,0,0,0,0,0,
461,0.5151,2.064,18.96,30.05,40.06,-20.03,-3.016,-84.78,1.292,-17.63,32.24,34.22,51.81,89.57,65.81,75.94,0,0,0,0,0,0,0,0,0,0,0,0,0,0,0,0,
462,10.57,17.99,-19.59,13.51,71.81,0.4342,15,-100.2,-24.4,-22.55,10.13,11.3,41.87,61.27,33.31,48.21,0,0,0,0,0,0,0,0,0,0,0,0,0,0,0,0,
463,-4.855,7.457,-33.2,-1.886,75,17.07,7.047,-120.9,-48.54,-38.24,-12.46,-21.48,23.49,28.59,0.7958,27.74,0,0,0,0,0,0,0,0,0,0,0,0,0,0,0,0,
464,-31.35,-12.64,-7.623,3.323,72.42,28.45,-1.701,-143.7,-59.38,-61.34,-30.12,-44.65,-4.21,3.957,-17.24,1.993,0,0,0,0,0,0,0,0,0,0,0,0,0,0,0,0,
465,-49.17,-39.59,8.677,5.752,63.64,15.35,-19.2,-163.6,-53.39,-85.15,-25.57,-37.16,-21.17,-24.39,-14.77,-14.95,0,0,0,0,0,0,0,0,0,0,0,0,0,0,0,0,
466,-25.48,-41.38,11.68,21.72,68.94,12.43,-12.2,-150.2,-21.35,-84.14,-1.59,-6.747,-6.743,-40.88,-8.697,-0.2709,0,0,0,0,0,0,0,0,0,0,0,0,0,0,0,0,
467,5.011,-30.56,1.551,37.38,74.39,34.96,11.62,-127.5,-10.38,-88.46,-8.611,-15.4,-11.48,-39.71,-36.36,-2.74,0,0,0,0,0,0,0,0,0,0,0,0,0,0,0,0,
468,-2.6,-40.29,9.48,32.15,63.05,51.3,19.1,-115.8,-21.69,-98.57,-18.07,-37.96,-29.11,-26.71,-52.18,-18.51,0,0,0,0,0,0,0,0,0,0,0,0,0,0,0,0,
469,-0.8584,-36.42,26.63,23.73,59.27,60.47,24.59,-97.85,-11.14,-80.27,8.89,-19.28,-20.04,-27.26,-25.91,-16.93,0,0,0,0,0,0,0,0,0,0,0,0,0,0,0,0,
470,17.17,-20.32,7.717,11.23,57.16,57.63,22.36,-84.89,4.408,-61.18,19.88,-0.7438,-19.7,-56.05,-11.97,-29.27,0,0,0,0,0,0,0,0,0,0,0,0,0,0,0,0,
471,8.974,-29.54,8.104,6.835,47.36,30.31,11.64,-80.41,-9.364,-61.22,4.363,-2.945,-37.62,-74.2,-10.99,-46.52,0,0,0,0,0,0,0,0,0,0,0,0,0,0,0,0,
472,-1.874,-37.18,17.43,16.04,34.18,7.477,13.57,-64.45,-55.15,-57.95,-1.652,6.304,-32.83,-52.77,14.93,-25.81,0,0,0,0,0,0,0,0,0,0,0,0,0,0,0,0,
473,4.518,-12.04,-26.75,12.64,14.19,1.371,15.62,-32.8,-95.2,-40.34,-0.2677,27.37,-0.7381,-4.383,51.49,12.96,0,0,0,0,0,0,0,0,0,0,0,0,0,0,0,0,
474,10.18,23.52,-35.19,8.316,8.64,-10.4,16.18,-3.869,-89.23,-17.27,8.156,44.89,31.9,41.68,73.3,36.27,0,0,0,0,0,0,0,0,0,0,0,0,0,0,0,0,
475,14.5,38.68,2.253,9.555,23.26,-16.56,27.83,-3.429,-55.49,-9.195,27.49,53.31,50.05,65.4,77.31,55.33,0,0,0,0,0,0,0,0,0,0,0,0,0,0,0,0,
476,15.57,35.68,-19.25,-3.112,17,-12.78,27.5,-23.41,-31.55,-20.96,27.64,42.58,56.41,80.13,57.56,72.45,0,0,0,0,0,0,0,0,0,0,0,0,0,0,0,0,
477,-3.524,26.03,-66.86,-27.1,-26.65,-32.88,-1.794,-38.54,-40.15,-35.01,-12.34,7.982,54.81,94.29,15.72,68.14,0,0,0,0,0,0,0,0,0,0,0,0,0,0,0,0,
478,-31.41,11.99,-80.85,-58.72,-52.52,-52.74,-30.56,-34.93,-62.4,-28.83,-42.23,-18.27,56.38,101.3,-11.48,59.37,0,0,0,0,0,0,0,0,0,0,0,0,0,0,0,0,
479,-34.01,9.331,-66.71,-75.06,-27.87,-38.44,-32.53,-11.84,-52.07,-6.167,-26.21,-17.94,57.94,93.98,-14.04,56.09,0,0,0,0,0,0,0,0,0,0,0,0,0,0,0,0,
480,-26.86,10.94,-37,-53.15,-8.824,-29.6,-18.74,0.5321,-27.39,-2.725,-15.79,-21.38,37.5,55.45,-22.32,38.95,0,0,0,0,0,0,0,0,0,0,0,0,0,0,0,0,
481,-28.31,0.2303,-29.06,-23.15,0.1742,-17.05,7.052,3.591,-5.843,-11.06,-17.32,-17.02,19.64,11.03,-26.25,27.56,0,0,0,0,0,0,0,0,0,0,0,0,0,0,0,0,
482,1.015,2.217,-31.64,-11.91,29.51,34.08,39.2,24.14,25.59,-8.85,7.384,11.42,23.69,0.4593,-18.19,27.07,0,0,0,0,0,0,0,0,0,0,0,0,0,0,0,0,
483,43.57,11.1,-6.489,-13.17,18.09,61.04,48.13,27.77,21.31,-24.92,22.52,17.84,15.27,1.619,-16.67,13.02,0,0,0,0,0,0,0,0,0,0,0,0,0,0,0,0,
484,41.87,0.0922,9.595,-13.93,-18.65,29.38,33.33,3.789,-18.53,-53.89,8.525,3.76,-1.736,-3.252,-3.636,6.566,0,0,0,0,0,0,0,0,0,0,0,0,0,0,0,0,
485,22.74,-12.07,-3.268,-10.85,4.87,1.433,8.547,-1.524,-30.83,-59.15,2.891,8.777,-7.947,-2.817,22.53,12.6,0,0,0,0,0,0,0,0,0,0,0,0,0,0,0,0,
486,18.3,-20.32,-9.748,-17.43,35.02,7.366,-12.56,12.78,-26.84,-48.72,6.503,17.31,-20.83,-9.812,29.3,0.2828,0,0,0,0,0,0,0,0,0,0,0,0,0,0,0,0,
487,7.642,-34.53,-16.43,-38.14,9.598,5.576,-10.92,10.47,-44.2,-44.04,-10.55,2.146,-40.67,-29.44,7.977,-26.38,0,0,0,0,0,0,0,0,0,0,0,0,0,0,0,0,
488,-16.56,-41.46,-41.64,-59.55,-29.24,-21.17,-9.128,-17.97,-78.04,-47.48,-44.68,-22.9,-42.98,-28.04,-15.64,-33.64,0,0,0,0,0,0,0,0,0,0,0,0,0,0,0,0,
489,-25.79,-21.92,-36.33,-56.16,-36.6,-16.82,2.799,-23.31,-90.1,-31.34,-46.4,-13.33,-4.706,16.27,2.981,9.189,0,0,0,0,0,0,0,0,0,0,0,0,0,0,0,0,
490,0.8406,26.53,17.4,-33.19,-10.84,17.23,53.7,17.34,-65.35,6.338,-18.52,22.23,51.07,63.69,42.09,70.56,0,0,0,0,0,0,0,0,0,0,0,0,0,0,0,0,
491,19.41,57.6,38.81,-45.89,-4.467,5.445,58.71,25.33,-59.02,14.22,-22.04,25.26,72.14,73.41,39.47,91.99,0,0,0,0,0,0,0,0,0,0,0,0,0,0,0,0,
492,-1.441,48.15,7.858,-80.88,-34.95,-23.93,-5.362,-14.45,-63.53,1.746,-29.04,19.79,76.25,65.23,25.49,95.73,0,0,0,0,0,0,0,0,0,0,0,0,0,0,0,0,
493,-2.627,49.84,-18.67,-75.06,-42.42,-14.62,-15.28,-16.15,-11.5,9.338,10.44,50.16,94.55,54.27,38.72,105.9,0,0,0,0,0,0,0,0,0,0,0,0,0,0,0,0,
494,40.81,71.8,-38.95,-49.29,-17.91,-0.3159,35.46,23.99,47.31,11.81,42.3,68.66,93.68,36.89,37.98,88.78,0,0,0,0,0,0,0,0,0,0,0,0,0,0,0,0,
495,67.7,70.29,-34.88,-30.86,11.22,25.49,51.55,51.72,52.19,-0.183,24.83,40.63,63.02,33.41,8.341,53.89,0,0,0,0,0,0,0,0,0,0,0,0,0,0,0,0,
496,50.55,47.02,23.61,-6.608,52.54,82.14,43.54,63.36,57.06,4.394,7.914,15.14,45.37,52.74,-4.458,46.95,0,0,0,0,0,0,0,0,0,0,0,0,0,0,0,0,
497,38.04,36.86,57.54,12,77.18,102.8,55.71,70.75,79.64,26.82,31.14,33.6,53.98,70.87,15.17,55.07,0,0,0,0,0,0,0,0,0,0,0,0,0,0,0,0,
498,58.14,39.85,20.04,16.31,40.67,65.23,57.47,66.04,62.28,36.73,46.31,53.2,46.51,61.15,23.99,34.04,0,0,0,0,0,0,0,0,0,0,0,0,0,0,0,0,
499,67.22,25.77,9.853,8.942,1.4,44.98,38.24,61.29,25.03,26.36,28.93,42.57,18.63,43.41,24.83,13.86,0,0,0,0,0,0,0,0,0,0,0,0,0,0,0,0,
500,57,9.778,70.28,0.3575,31.94,68.85,40.34,80,31.73,22.45,37.11,47.22,14.53,55.06,53.54,32.2,0,0,0,0,0,0,0,0,0,0,0,0,0,0,0,0,
501,58.47,10.41,87.89,2.305,51.41,81.82,38.73,73.86,33.54,13.56,41.44,47.96,7.867,57.04,54.25,25.17,0,0,0,0,0,0,0,0,0,0,0,0,0,0,0,0,
502,39.37,-11.13,13.62,-9.581,-5.755,62.23,-4.652,12.34,-17.92,-16.63,-15.01,0.1246,-23.81,21.63,7.749,-16.77,0,0,0,0,0,0,0,0,0,0,0,0,0,0,0,0,
503,-8.674,-34.17,-37.86,-36.25,-36.72,13.64,-28.7,-19.25,-53.99,-28.95,-51.54,-29.62,-15.86,12.56,-2.28,-8.015,0,0,0,0,0,0,0,0,0,0,0,0,0,0,0,0,
504,-32.19,-8.372,-14.23,-48.36,-12.01,-64.64,-7.945,-8.658,-64.64,-23.76,-37.91,-14.37,27.23,43.88,16.57,33.03,0,0,0,0,0,0,0,0,0,0,0,0,0,0,0,0,
505,-31.39,16.75,-1.924,-61.93,-17.12,-105.8,2.112,-36.19,-103.5,-26.46,-40.44,-12.04,39.45,62.63,9.827,44.37,0,0,0,0,0,0,0,0,0,0,0,0,0,0,0,0,
506,-39.13,3.823,-46.93,-85.76,-43.42,-78.35,-17.1,-75.65,-126.3,-18.48,-44.91,-23.55,28.2,61.14,-1.255,45.83,0,0,0,0,0,0,0,0,0,0,0,0,0,0,0,0,
507,-56.58,-11.44,-94.86,-90.45,-48.49,-54.7,-48.65,-68.17,-85.31,-0.1128,-26.19,-27.53,21.07,57.93,-9.551,47.02,0,0,0,0,0,0,0,0,0,0,0,0,0,0,0,0,
508,-60.78,-14.85,-87.08,-78.05,-38.4,-48.55,-55.42,-35.73,-25.19,17.73,-13.61,-28.51,18.49,47.82,-28.91,33.59,0,0,0,0,0,0,0,0,0,0,0,0,0,0,0,0,
509,-37.75,-9.511,-52.35,-68.95,-16.31,-28.94,-22.18,-12.27,12.23,32.23,-14.3,-22.78,24.85,21,-41.51,24.4,0,0,0,0,0,0,0,0,0,0,0,0,0,0,0,0,
510,-8.746,12.15,-42.46,-50.78,10.74,-0.6322,1.817,-8.998,28.62,31.29,-13.89,-6.503,44.08,-3.602,-32.65,35.97,0,0,0,0,0,0,0,0,0,0,0,0,0,0,0,0,
511,14.63,43.76,-18.11,-16.18,33.63,35.23,13.56,-12.69,26.7,32.77,-4.022,12.83,61.23,-5.266,-9.404,47.66,0,0,0,0,0,0,0,0,0,0,0,0,0,0,0,0,
512,33.15,58.97,42.06,5.79,52.78,40.98,45.36,-5.325,14.53,41.15,12.51,25.32,54.22,-0.4103,18.08,41.5,0,0,0,0,0,0,0,0,0,0,0,0,0,0,0,0,
513,33.63,44.02,76.33,6.924,69.94,2.022,48.34,-4.113,18.41,22.34,30.48,34.57,31.47,-7.435,46.38,35.94,0,0,0,0,0,0,0,0,0,0,0,0,0,0,0,0,
514,32.81,14.19,75.06,6.728,70.66,-0.8267,-0.4224,-24.55,40.74,-11.02,51.06,47.52,10.05,-23.16,67.08,34.34,0,0,0,0,0,0,0,0,0,0,0,0,0,0,0,0,
515,50.62,-13.22,59.45,6.126,33.48,48.98,-21.92,-42.28,59.17,-15.96,62.41,55.77,-14.59,-30.06,70.23,11.97,0,0,0,0,0,0,0,0,0,0,0,0,0,0,0,0,
516,59.37,-28.08,9.098,0.1976,-14.98,59.01,-2.457,-56.36,46.68,-5.483,34.88,39.3,-41.65,-22.1,44.9,-30.04,0,0,0,0,0,0,0,0,0,0,0,0,0,0,0,0,
517,28.5,-34.63,-38.18,-16.91,-42.19,2.289,-10.79,-102.4,-15.85,-12.59,-26.14,-2.833,-51.83,-14.69,-2.425,-52.56,0,0,0,0,0,0,0,0,0,0,0,0,0,0,0,0,
518,-9.885,-27.69,-9.226,-35.06,-42.82,-26.96,-13.12,-141.9,-58.51,-3.361,-40.66,-9.565,-11.17,25.79,-8.22,-9.345,0,0,0,0,0,0,0,0,0,0,0,0,0,0,0,0,
519,7.665,21.6,31.56,-33.42,-13.34,5.708,34.48,-125.3,-23.56,38.64,8.713,36.54,60.75,116.2,34.68,66.05,0,0,0,0,0,0,0,0,0,0,0,0,0,0,0,0,
520,36.65,64.46,-21.95,-50.18,-13.84,-3.567,25.2,-129,-15.5,33.21,7.198,37.26,78.87,163.3,31.2,87.08,0,0,0,0,0,0,0,0,0,0,0,0,0,0,0,0,
521,-12.54,28.07,-99.57,-102.3,-77.93,-72.92,-72.57,-181.4,-73.5,-24.77,-57.8,-20.02,51.3,138.7,-14.8,76.79,0,0,0,0,0,0,0,0,0,0,0,0,0,0,0,0,
522,-79.36,-21.17,-95.95,-123.1,-107.5,-105.8,-124.2,-188,-87.86,-38.55,-69.21,-37.5,60.12,121.8,-12.45,102.2,0,0,0,0,0,0,0,0,0,0,0,0,0,0,0,0,
523,-74.39,-2.188,-48.53,-95.56,-71.55,-90.83,-82.44,-140.4,-45.09,-6.49,-18.47,-3.298,98.76,121.2,34.53,135.8,0,0,0,0,0,0,0,0,0,0,0,0,0,0,0,0,
524,-28.14,47.63,-29.63,-59.57,-56.13,-57.2,-17.75,-99.54,1.99,7.924,22.96,33.41,116.9,95.98,65.86,133.6,0,0,0,0,0,0,0,0,0,0,0,0,0,0,0,0,
525,6.745,68.25,-54.02,-35.32,-77.52,-21.99,10.9,-82.12,35.61,-2.709,32.22,43.54,99.75,46.83,52.41,96.87,0,0,0,0,0,0,0,0,0,0,0,0,0,0,0,0,
526,13.6,50.08,-47.03,-30.54,-82.03,-20.5,-5.557,-89.36,31.39,-10.84,21.03,27.53,68.99,10.03,20.04,65.12,0,0,0,0,0,0,0,0,0,0,0,0,0,0,0,0,
527,13.87,30.72,35.1,-25.19,-47.59,-27.98,-17.29,-95.23,17.84,-3.446,17.18,24.45,59.57,19.19,18.91,72.96,0,0,0,0,0,0,0,0,0,0,0,0,0,0,0,0,
528,34.15,32.17,60.24,-8.385,-9.172,-7.178,8.658,-72.36,39.96,-1.612,32.05,38.98,55.2,40.72,39.88,78.76,0,0,0,0,0,0,0,0,0,0,0,0,0,0,0,0,
529,52.43,26.54,1.275,-1.956,-9.108,21.13,34.89,-44.79,62.52,-11.44,41.93,37.17,19.19,21.12,42.24,34.38,0,0,0,0,0,0,0,0,0,0,0,0,0,0,0,0,
530,52.01,-0.6622,2.711,-2.287,-28.36,36.16,19.58,-40.32,51.92,-17.56,21.2,15.19,-38.29,-21.81,16.65,-32.86,0,0,0,0,0,0,0,0,0,0,0,0,0,0,0,0,
531,38.34,-39.81,36.7,3.385,-23.29,20.6,-13.61,-54.78,25.2,-29.38,-20.7,-14.84,-87.98,-42.16,-22.72,-78.42,0,0,0,0,0,0,0,0,0,0,0,0,0,0,0,0,
532,9.389,-71.27,23.15,5.511,-5.67,-7.704,-7.841,-69.84,1.422,-37.77,-43.17,-37.72,-106.4,-30.64,-44.77,-84.84,0,0,0,0,0,0,0,0,0,0,0,0,0,0,0,0,
533,-16.39,-71.01,-4.263,-10.01,-11.44,-3.527,7.639,-72.86,-8.426,-25.07,-40.44,-41.06,-84,-4.246,-34.52,-53.23,0,0,0,0,0,0,0,0,0,0,0,0,0,0,0,0,
534,-25.55,-46.12,-51.05,-38.39,-27.12,-13.92,-23.58,-63.32,-11.54,-10.23,-40.29,-33.69,-35.68,27.92,-17.6,-2.439,0,0,0,0,0,0,0,0,0,0,0,0,0,0,0,0,
535,-37.84,-17.26,-93.62,-56.07,-37.13,-83.52,-55.98,-67.95,-30.8,-2.036,-42.45,-26.98,11.12,61.9,-14.2,45.1,0,0,0,0,0,0,0,0,0,0,0,0,0,0,0,0,
536,-58.91,3.336,-86.39,-63.13,-58.73,-118.3,-59.42,-110.9,-47.8,2.662,-32.15,-17.32,48.02,92.59,-3.845,94.12,0,0,0,0,0,0,0,0,0,0,0,0,0,0,0,0,
537,-65.91,12,-74.22,-69.04,-73.21,-85.15,-68.18,-145.3,-39.46,0.9087,-24.11,-9.668,78.6,118.8,13.75,135.2,0,0,0,0,0,0,0,0,0,0,0,0,0,0,0,0,
538,-63.09,11.86,-78.53,-72.85,-80.21,-94.94,-77.22,-144.2,-56.07,-7.414,-53.38,-36.24,71.98,114.6,-11.5,113.2,0,0,0,0,0,0,0,0,0,0,0,0,0,0,0,0,
539,-83.46,-4.955,-84.59,-77.72,-108.5,-129,-72.44,-150.9,-99.81,-25.27,-95.66,-84.12,26.03,70.57,-61.73,47.89,0,0,0,0,0,0,0,0,0,0,0,0,0,0,0,0,
540,-109.8,-24.1,-75.96,-63.14,-104.3,-89.38,-61.57,-150.8,-94.94,-39.59,-88.99,-90.49,1.471,35.34,-63.79,21.27,0,0,0,0,0,0,0,0,0,0,0,0,0,0,0,0,
541,-104.2,-22.94,-25.41,-35.12,-56.76,-58.12,-49.64,-129.2,-60.88,-37.82,-50.15,-56.57,7.826,28.43,-26.48,27.05,0,0,0,0,0,0,0,0,0,0,0,0,0,0,0,0,
542,-69.9,-14.98,22.41,-32.68,-38.97,-70.31,-39.8,-127.3,-30.11,-32.95,-8.006,-10.03,22.63,30.77,15.87,39.02,0,0,0,0,0,0,0,0,0,0,0,0,0,0,0,0,
543,-7.286,-1.815,21.93,-26.89,-27.59,-19.86,-28.88,-126.7,30.44,-38.98,38.63,41.39,42.46,31.86,45.19,53.27,0,0,0,0,0,0,0,0,0,0,0,0,0,0,0,0,
544,59.61,12.56,13.9,2.152,4.671,38.92,-20.71,-110.1,76.06,-55.67,56.32,65.74,40.42,20.76,42.19,37.37,0,0,0,0,0,0,0,0,0,0,0,0,0,0,0,0,
545,87.7,13.39,26.59,18.37,18.93,33.88,-9.904,-105.6,81.56,-55.94,60.41,74.7,27.74,15.22,45.2,15.96,0,0,0,0,0,0,0,0,0,0,0,0,0,0,0,0,
546,97.83,25.54,39.71,35.14,43.29,50.76,19.32,-97.78,106.7,-22.81,82.18,92.75,35.09,28.15,62.99,26.02,0,0,0,0,0,0,0,0,0,0,0,0,0,0,0,0,
547,110.2,47.48,35.51,62.57,83.3,85.12,55.88,-77.5,127,14.34,72.53,81.78,31.78,29.26,44.77,30.31,0,0,0,0,0,0,0,0,0,0,0,0,0,0,0,0,
548,101.7,44.85,27.7,53.18,60.44,59.6,75.4,-65.77,85.22,33.9,18.8,36.78,6.452,20.14,3.987,15.37,0,0,0,0,0,0,0,0,0,0,0,0,0,0,0,0,
549,57.64,19.76,24.4,3.504,-19.4,-5.556,48.66,-70.79,4.385,39.96,-37.57,-13.65,-13.73,29.13,-31.36,3.525,0,0,0,0,0,0,0,0,0,0,0,0,0,0,0,0,
550,-8.096,-6.251,5.982,-17.85,-61.89,-53.8,-5.697,-88.57,-52.36,45.22,-63.8,-46.9,-14.99,55.42,-53.31,5.364,0,0,0,0,0,0,0,0,0,0,0,0,0,0,0,0,
551,-36.22,-3.891,-5.828,11.96,-53.04,-58.85,-15.04,-93.73,-44.75,56,-41.95,-38.78,1.809,78.11,-40.49,22.54,0,0,0,0,0,0,0,0,0,0,0,0,0,0,0,0,
552,-16.93,22.75,6.918,22.39,-52.97,-39.39,3.628,-75.07,-14.28,59.24,-18.23,-25.88,16.09,83.63,-16.42,40.66,0,0,0,0,0,0,0,0,0,0,0,0,0,0,0,0,
553,-21.39,31.17,-9.82,-4.29,-68.85,-16.29,-9.366,-56.48,-16.57,62.57,-29.17,-42.8,19.18,81.6,-13.83,54.99,0,0,0,0,0,0,0,0,0,0,0,0,0,0,0,0,
554,-50.7,14.05,-67.31,-24.39,-88.67,-9.836,-37.66,-66.58,-37.99,63.04,-42.39,-57,10.03,69.04,-25.15,56.87,0,0,0,0,0,0,0,0,0,0,0,0,0,0,0,0,
555,-61.14,-19.65,-90.74,-51.97,-103.9,-51.7,-67.05,-106,-40.63,38.51,-37.09,-49.07,-9.055,50.55,-26.54,40.74,0,0,0,0,0,0,0,0,0,0,0,0,0,0,0,0,
556,-51.69,-42.43,-46.4,-64.91,-62.96,-80.57,-74.83,-117.7,-6.54,26.59,-4.898,-16.21,0.1205,61.14,7.045,40.01,0,0,0,0,0,0,0,0,0,0,0,0,0,0,0,0,
557,-21.06,-19.81,-2.24,-27.09,5.351,-55.57,-34.96,-85.46,29.46,35.2,36.26,29.53,32.78,71.85,46.31,48.48,0,0,0,0,0,0,0,0,0,0,0,0,0,0,0,0,
558,20.65,9.083,0.6719,-1.954,18.31,-48.99,-2.373,-70.94,43.23,18.11,47.98,57.52,45.49,48.3,50.28,36.95,0,0,0,0,0,0,0,0,0,0,0,0,0,0,0,0,
559,59.04,18.76,18.34,5.518,13.78,-20.87,7.535,-65.79,73.52,8.025,51.45,73.29,52.17,47.61,45.22,33.39,0,0,0,0,0,0,0,0,0,0,0,0,0,0,0,0,
560,95.3,39.42,46.31,41.83,26.53,73.01,42.56,-32.76,97.41,33.94,67.5,86.04,62.96,83.88,51.87,45.2,0,0,0,0,0,0,0,0,0,0,0,0,0,0,0,0,
561,107.9,55.08,30.74,58.84,19.83,92,68.45,-10.67,73.52,54.44,69.16,84.18,60.28,99.89,56.11,44.39,0,0,0,0,0,0,0,0,0,0,0,0,0,0,0,0,
562,85.53,48.8,20.31,35.7,4.118,15.68,44.62,-16.64,52.73,60.13,46.75,66.92,49.92,88.27,47.29,31.64,0,0,0,0,0,0,0,0,0,0,0,0,0,0,0,0,
563,57.78,43.77,49.23,26.24,-1.351,1.923,19.61,-21.85,42.65,55.11,14.99,37.31,33.72,75.87,17.1,12.47,0,0,0,0,0,0,0,0,0,0,0,0,0,0,0,0,
564,48.3,39.22,62.44,42.11,-2.716,47.23,22.07,-28.85,-4.451,29.79,-13.75,2.636,9.317,65.8,-24,-9.834,0,0,0,0,0,0,0,0,0,0,0,0,0,0,0,0,
565,39.28,21.39,38.98,44.48,-9.549,28.8,21.55,-45.29,-50,13.67,-31.15,-23.68,-6.304,64.35,-39.65,-6.827,0,0,0,0,0,0,0,0,0,0,0,0,0,0,0,0,
566,14.69,8.42,2.326,21.6,-27.08,-24.55,14.48,-43.06,-36.58,39.15,-21,-26.48,0.3293,94.32,-10.92,36.04,0,0,0,0,0,0,0,0,0,0,0,0,0,0,0,0,
567,-0.7424,17.53,-18.03,17.18,-28.4,-29.56,9.666,-23.1,-5.919,69.4,4.797,-14.8,7.647,126.9,17.95,71.27,0,0,0,0,0,0,0,0,0,0,0,0,0,0,0,0,
568,-10.43,19,-0.9435,37.63,-9.534,-16.45,-3.968,-30.38,1.73,61.65,10.89,-12.75,1.453,117.2,16.35,73.45,0,0,0,0,0,0,0,0,0,0,0,0,0,0,0,0,
569,-17,10.25,27.74,43.43,3.132,6.331,-1.754,-49.93,33.1,54.98,25.56,7.521,18.84,105.6,33.03,85.8,0,0,0,0,0,0,0,0,0,0,0,0,0,0,0,0,
570,22.97,24.92,24.92,42.83,13.42,45.67,18.41,-48.64,71.17,65.79,59.31,52.14,47.78,107.8,66.96,97.72,0,0,0,0,0,0,0,0,0,0,0,0,0,0,0,0,
571,68.91,27.5,11.29,48.2,29.19,29.95,12.46,-52.53,49.74,56.07,68.99,74.4,46.99,92.34,79.38,85.38,0,0,0,0,0,0,0,0,0,0,0,0,0,0,0,0,
572,70.68,15.06,27.92,45.92,38.13,-1.758,10.45,-52.77,30.95,56.61,86.95,95.89,66.97,105.1,102.1,97.63,0,0,0,0,0,0,0,0,0,0,0,0,0,0,0,0,
573,85.12,49.65,26.1,31.89,16.3,26.17,30.97,-39.34,50.06,74.86,111.5,126.5,113,144.4,121,117.9,0,0,0,0,0,0,0,0,0,0,0,0,0,0,0,0,
574,104.8,83.23,-11.57,8.622,-12.44,31.15,18.81,-50.72,34.59,53.4,74.27,113.6,110.3,131,92.48,94.07,0,0,0,0,0,0,0,0,0,0,0,0,0,0,0,0,
575,82.98,63.8,6.117,7.085,10.39,-2.46,-1.174,-60.63,-1.105,27.02,25.2,79,80.16,91.42,57.26,62.45,0,0,0,0,0,0,0,0,0,0,0,0,0,0,0,0,
576,62.86,49.67,55.38,33.19,37.52,-8.135,11.69,-38.64,-18.79,38.32,16.43,61.4,71.73,80.5,32.82,47.23,0,0,0,0,0,0,0,0,0,0,0,0,0,0,0,0,
577,57.16,54.63,39.27,38.46,9.913,-0.6065,18.03,-25.49,-34.27,41.39,-0.084,38.58,61.46,72.53,0.2453,29.5,0,0,0,0,0,0,0,0,0,0,0,0,0,0,0,0,
578,36.04,44.29,-12.77,17.12,-29.78,22.96,8.385,-32.9,-39.14,28.54,-29.81,2.119,32.11,57.03,-25.43,6.417,0,0,0,0,0,0,0,0,0,0,0,0,0,0,0,0,
579,9.692,24.4,-55.49,-5.825,-61.35,28.42,0.1052,-43.3,-51.93,34.98,-47.14,-33.17,5.19,58.57,-35.72,-15.2,0,0,0,0,0,0,0,0,0,0,0,0,0,0,0,0,
580,-11.84,18.38,-54.18,-17.96,-65.66,-33.88,-7.043,-46.43,-84.92,53.85,-53.09,-47.42,4.436,76.93,-31.01,-16.74,0,0,0,0,0,0,0,0,0,0,0,0,0,0,0,0,
581,-30.36,33.68,19.57,-2.984,-24.32,-61.9,-1.719,-28.15,-90.51,59.28,-47.76,-39.42,11.93,82.86,-20.36,-4.563,0,0,0,0,0,0,0,0,0,0,0,0,0,0,0,0,
582,-42.24,43.96,72.57,30,-1.501,-28.24,18.29,0.8796,-74.17,56.81,-37.91,-38.36,-2.561,68.81,-20.06,-3.441,0,0,0,0,0,0,0,0,0,0,0,0,0,0,0,0,
583,-48.98,28.54,43,45.37,-7.453,-39.38,27.19,7.337,-78.66,55.32,-32.46,-50.46,-22.54,62.5,-18.85,2.573,0,0,0,0,0,0,0,0,0,0,0,0,0,0,0,0,
584,-59.19,-0.6511,-5.507,11.37,-8.008,-56.14,0.7288,-23.13,-85.15,32.73,-28.03,-51.51,-24.13,71.67,-4.208,29.81,0,0,0,0,0,0,0,0,0,0,0,0,0,0,0,0,
585,-57.55,-19.7,-29.98,-37.87,-21.47,-13.65,-25.35,-52.95,-56.99,4.154,-8.466,-18.18,-0.5933,78.86,22.49,65.11,0,0,0,0,0,0,0,0,0,0,0,0,0,0,0,0,
586,-6.731,-0.7368,-7.483,-11.88,-15.02,14.38,0.029,-42.75,-14.88,8.444,27.59,39.91,36.91,71.63,53.21,90.34,0,0,0,0,0,0,0,0,0,0,0,0,0,0,0,0,
587,60.76,34.11,50.02,58.43,25.28,6.054,31.4,-23.06,-3.84,15.34,47.77,75.7,52.46,53.89,70.38,92.53,0,0,0,0,0,0,0,0,0,0,0,0,0,0,0,0,
588,74.94,33.42,62.91,63.94,29.84,18.07,21.02,-20.83,-10.65,-4.193,44.78,77.05,45.18,43.76,70.38,80.81,0,0,0,0,0,0,0,0,0,0,0,0,0,0,0,0,
589,63.28,17.01,30.01,33.87,12.7,40.48,15.13,-13.98,1.99,-19.11,50.4,79.64,48.44,40.03,65.68,75.53,0,0,0,0,0,0,0,0,0,0,0,0,0,0,0,0,
590,84.62,26.66,28.28,38.73,20.8,33.3,35.25,-4.67,21.07,-9.357,68.23,93.68,63.56,31.53,65.3,80.7,0,0,0,0,0,0,0,0,0,0,0,0,0,0,0,0,
591,108.9,45.84,40.63,43.09,13.11,15.12,41.82,-15.02,19.99,11.88,59.61,86.85,69.71,24.68,54.86,78.75,0,0,0,0,0,0,0,0,0,0,0,0,0,0,0,0,
592,88.63,49.94,10.49,16.83,-4.363,25.88,27.09,-32.15,5.126,28.42,14.73,46.75,63.46,20.88,18.75,57.95,0,0,0,0,0,0,0,0,0,0,0,0,0,0,0,0,
593,53.07,53.29,-4.981,4.31,29.76,44.42,22.31,-23.27,-5.539,35.89,-18.92,9.197,51.98,9.64,-14.88,34.35,0,0,0,0,0,0,0,0,0,0,0,0,0,0,0,0,
594,37.56,59.88,31.04,23.61,66.87,27.42,29.53,-0.8985,-17.89,27.03,-27.67,-12.3,26.08,-15.39,-26.39,15.12,0,0,0,0,0,0,0,0,0,0,0,0,0,0,0,0,
595,21.01,42.98,33.65,28.04,40.21,7.512,17.13,-6.322,-36.92,5.756,-34.07,-28.96,-8.452,-36.26,-28.24,0.6206,0,0,0,0,0,0,0,0,0,0,0,0,0,0,0,0,
596,1.059,15.54,-4.132,-3.587,3.577,5.084,-17.39,-25.44,-42.03,4.602,-22.7,-29.27,-21.31,-36.88,-17.78,3.473,0,0,0,0,0,0,0,0,0,0,0,0,0,0,0,0,
597,-11.49,4.811,-21.81,-38.39,-4.404,-16.14,-41.8,-28.33,-27.46,21.15,6.431,-20.48,-16.14,-30.32,5.277,19.63,0,0,0,0,0,0,0,0,0,0,0,0,0,0,0,0,
598,-21.93,0.3065,-44.66,-41.42,-11.11,-9.278,-24.62,-24.14,4.132,29.89,32.67,-6.078,-2.172,-3.25,36.88,47.19,0,0,0,0,0,0,0,0,0,0,0,0,0,0,0,0,
599,-1.509,7.562,-73.4,-17.15,-30.24,29.78,15.73,-33.33,23.75,35.2,44.97,18.89,15.91,36.32,61.66,76.19,0,0,0,0,0,0,0,0,0,0,0,0,0,0,0,0,
600,25.37,15.07,-70.68,-22.57,-72.22,-11.23,7.477,-76.15,-26.96,28.21,17.07,15.8,8.295,25.23,54.57,76.93,0,0,0,0,0,0,0,0,0,0,0,0,0,0,0,0,
601,2.14,-3.888,-51.25,-63.85,-83.27,-65.4,-32.9,-119.2,-88.08,7.106,-13.76,3.346,-2.9,-11.34,52.12,68.89,0,0,0,0,0,0,0,0,0,0,0,0,0,0,0,0,
602,-6.217,-8.01,-18.84,-59.63,-6.486,-15.4,-19.43,-104,-62.5,-5.477,8.467,32.48,13.17,-18.1,75.58,71.99,0,0,0,0,0,0,0,0,0,0,0,0,0,0,0,0,
603,29.56,10.32,18.86,-8.514,53.61,30.94,12.08,-67.03,-19.64,-10.94,28.24,50.42,13.44,-32.3,64.28,57.99,0,0,0,0,0,0,0,0,0,0,0,0,0,0,0,0,
604,30.68,-0.9132,27.92,12.57,25.49,20.92,-0.8023,-64.6,-25.67,-10.46,8.192,28.47,-5.348,-54.85,18.8,35.95,0,0,0,0,0,0,0,0,0,0,0,0,0,0,0,0,
605,13.74,-20.85,14.97,5.051,-0.8915,24.18,-9.894,-75.38,-29.01,-8.986,-7.594,21.94,-1.542,-45.9,0.0887,31.07,0,0,0,0,0,0,0,0,0,0,0,0,0,0,0,0,
606,27.93,-9.506,-2.979,0.0617,0.4351,17.09,8.133,-71.76,-26.97,-23.34,-16.24,28.77,10.12,-35.2,-3.339,25.99,0,0,0,0,0,0,0,0,0,0,0,0,0,0,0,0,
607,35.66,6.605,-29.06,-25.36,-19.47,-6.834,3.721,-67.7,-54.25,-38.34,-35,11.3,1.477,-56.3,-27.35,8.643,0,0,0,0,0,0,0,0,0,0,0,0,0,0,0,0,
608,23.33,-1.435,-42.55,-54.45,-29.56,-1.921,-22.17,-74.62,-75.12,-33.02,-41.53,-13.06,-15.93,-81.58,-42.32,-2.227,0,0,0,0,0,0,0,0,0,0,0,0,0,0,0,0,
609,19.69,-13.01,-3.833,-20.38,10.87,10.27,-13.98,-64.48,-54.8,-9.589,-27.37,-19.81,-23.31,-77.72,-28.86,-3.244,0,0,0,0,0,0,0,0,0,0,0,0,0,0,0,0,
610,11.62,-9.472,57.31,26.89,38.58,-7.351,9.9,-42.35,-37.26,7.813,-27.88,-35.96,-35.04,-68.79,-37.5,-22.69,0,0,0,0,0,0,0,0,0,0,0,0,0,0,0,0,
611,-25.85,-18.79,57.01,-5.157,6.255,-34.24,-13.8,-56.97,-49.3,5.034,-46.25,-67.94,-56.49,-78.9,-64.29,-44.7,0,0,0,0,0,0,0,0,0,0,0,0,0,0,0,0,
612,-58.69,-37.08,19.86,-42.16,-1.423,-24.74,-38.67,-82.3,-49.05,10.38,-45.04,-74.79,-60.54,-79.53,-53.92,-33.71,0,0,0,0,0,0,0,0,0,0,0,0,0,0,0,0,
613,-58.23,-35.05,16.09,-28.77,40.09,-1.228,-13.77,-84.32,-38.68,16.03,-41.67,-72.02,-64.52,-76.1,-39.54,-25.15,0,0,0,0,0,0,0,0,0,0,0,0,0,0,0,0,
614,-59.65,-43.31,3.69,-40.14,40.19,-16.57,-11.08,-90.86,-39.17,-5.56,-49.89,-82.75,-82.11,-85.71,-40.16,-25.12,0,0,0,0,0,0,0,0,0,0,0,0,0,0,0,0,
615,-70.28,-67.45,-33.84,-53.03,10.33,-44.7,-56.13,-88.8,-34.53,-16.84,-37.91,-71.53,-74.89,-80.3,-14.72,2.703,0,0,0,0,0,0,0,0,0,0,0,0,0,0,0,0,
616,-68.88,-71.41,-40.71,-32.36,-5.726,-48.86,-82.82,-69.67,-49.2,-5.32,-29.85,-48.14,-54.82,-72.42,2.21,23.08,0,0,0,0,0,0,0,0,0,0,0,0,0,0,0,0,
617,-62.45,-64.91,-36.02,-46.09,-26.24,-34.95,-80.06,-63.28,-71.21,-2.522,-37.11,-35.15,-44.59,-76.67,-11.69,21.99,0,0,0,0,0,0,0,0,0,0,0,0,0,0,0,0,
618,-40.43,-55.34,-43.21,-71.07,-13.21,-32.64,-77.59,-59.6,-43.15,-10.49,-18.23,-8.643,-21.46,-60.87,-5.094,38.25,0,0,0,0,0,0,0,0,0,0,0,0,0,0,0,0,
619,-1.236,-40.57,-16.49,-56.04,27.52,-66.57,-69.96,-56.91,-7.766,-26.16,9.339,21.72,1.725,-43.71,18.14,57.52,0,0,0,0,0,0,0,0,0,0,0,0,0,0,0,0,
620,20.33,-38.54,22,-48.78,16.01,-79.6,-49.41,-65.76,-7.887,-41.99,10.58,27.92,1.442,-60.05,11.73,53.16,0,0,0,0,0,0,0,0,0,0,0,0,0,0,0,0,
621,9.635,-44.05,-2.163,-58.59,-10.08,-40.99,-42.06,-69.03,-17.05,-49.52,-8.921,13,-5.545,-79.3,-19.22,39.7,0,0,0,0,0,0,0,0,0,0,0,0,0,0,0,0,
622,-12.62,-39.15,-33.86,-47.22,12.23,-14.33,-53.73,-65.21,-30.24,-52.29,-24.2,4.494,3.284,-70.19,-24.32,42.64,0,0,0,0,0,0,0,0,0,0,0,0,0,0,0,0,
623,-2.438,-19.79,10.82,-21.51,31.48,3.115,-51.58,-51.34,-22.18,-46.84,-10.65,20.7,19.61,-56.51,-2.389,53.8,0,0,0,0,0,0,0,0,0,0,0,0,0,0,0,0,
624,36.86,-3.271,51.55,1.526,28.46,38.44,-31.92,-19.9,19.77,-42.34,2.747,24.73,8.763,-65.32,-13.97,37.14,0,0,0,0,0,0,0,0,0,0,0,0,0,0,0,0,
625,42.24,-11.41,29.1,22.82,50.73,54.38,-15.74,3.76,24.98,-41.73,-20.78,-10.65,-25.85,-77.86,-57.38,0.97,0,0,0,0,0,0,0,0,0,0,0,0,0,0,0,0,
626,2.175,-33.42,21.18,26.9,70.9,31.95,-20.42,-2.851,-31.97,-43.52,-62.22,-60.74,-56.05,-81.61,-86.61,-27.88,0,0,0,0,0,0,0,0,0,0,0,0,0,0,0,0,
627,-55.15,-55.91,35.45,-2.019,40.87,-11.02,-45.63,-28.41,-78.03,-68.3,-91.6,-101.5,-81.65,-92.28,-94.2,-47.19,0,0,0,0,0,0,0,0,0,0,0,0,0,0,0,0,
628,-100.8,-69.49,13.32,-31.93,3.343,-29,-45.13,-45.51,-71.11,-93.03,-86.49,-108.4,-93.34,-104.8,-75.13,-43.26,0,0,0,0,0,0,0,0,0,0,0,0,0,0,0,0,
629,-89.79,-60.45,-25.2,-28.7,3.493,-15.61,-14.91,-41.6,-46.08,-79.77,-49.72,-79.08,-82.87,-103.3,-38.63,-17.12,0,0,0,0,0,0,0,0,0,0,0,0,0,0,0,0,
630,-40.11,-47.05,-16.89,-2.643,27.83,-27.94,-15.59,-24.32,-31.54,-50.15,-15.6,-46.75,-65.13,-78.66,-11.31,9.555,0,0,0,0,0,0,0,0,0,0,0,0,0,0,0,0,
631,-22.39,-46.8,31.92,12.25,46.69,-55.97,-47.91,-17.56,-33.46,-36.99,-6.956,-29.57,-48.79,-45.5,4.239,31.3,0,0,0,0,0,0,0,0,0,0,0,0,0,0,0,0,
632,-45.3,-55.77,31.41,-20.63,49.11,-68.78,-73.1,-49.86,-51.38,-48.94,-17.79,-24.99,-36.07,-39.45,10.31,51.44,0,0,0,0,0,0,0,0,0,0,0,0,0,0,0,0,
633,-56.83,-65.37,-10.16,-65.43,65.98,-79.59,-78.34,-89.83,-47.49,-60.82,-19.87,-16.29,-18.33,-44.98,9.224,71.39,0,0,0,0,0,0,0,0,0,0,0,0,0,0,0,0,
634,-31.14,-55.26,1.982,-49.76,88.58,-55.12,-59.09,-84.43,-16.7,-49.43,-13.44,-0.2852,0.511,-37.89,2.542,74.56,0,0,0,0,0,0,0,0,0,0,0,0,0,0,0,0,
635,-0.6018,-31.64,26.07,-6.8,76.72,5.239,-19.14,-56.47,-2.302,-37.56,-13.67,9.522,3.683,-41.36,-2.949,63.19,0,0,0,0,0,0,0,0,0,0,0,0,0,0,0,0,
636,19.03,-15.34,24.1,13.22,75.75,28.25,27.14,-44.83,0.8934,-31.1,-4.167,16.72,1.555,-56.23,-2.937,59.3,0,0,0,0,0,0,0,0,0,0,0,0,0,0,0,0,
637,34.41,-6.942,60.21,28.85,93.99,17.97,35.39,-55.59,-5.981,-23.5,-9.876,5.139,-7.268,-68.75,-24.81,38.46,0,0,0,0,0,0,0,0,0,0,0,0,0,0,0,0,
638,24.18,-8.651,99,42.47,85.69,37.77,-0.4845,-72.59,-24.13,-26.12,-39.64,-19.34,-18.62,-73.56,-46.79,12.28,0,0,0,0,0,0,0,0,0,0,0,0,0,0,0,0,
639,7.259,-4.565,85.67,49.31,94.9,70.14,0.227,-61.66,-9.353,-23.62,-25.02,-5.62,-7.289,-64.31,-19.31,24.33,0,0,0,0,0,0,0,0,0,0,0,0,0,0,0,0,
640,15.32,9.233,52.71,47.64,111.3,61.52,27.92,-40.21,20.19,-9.373,19.62,22.53,-1.359,-61.3,12.1,31.32,0,0,0,0,0,0,0,0,0,0,0,0,0,0,0,0,
641,26.17,10.85,29.7,38.32,85.92,59.46,14.14,-40.89,38.2,4.719,38.05,25.89,-11.37,-59.53,14.58,19.41,0,0,0,0,0,0,0,0,0,0,0,0,0,0,0,0,
642,38.26,19.46,51.07,53.29,94.38,107.4,17.86,-42.88,60.52,14.41,46.13,24.32,-7.475,-39.65,20.83,26.52,0,0,0,0,0,0,0,0,0,0,0,0,0,0,0,0,
643,35.17,26.22,92.04,72.49,141.7,102.2,52.42,-49.69,41.55,-1.298,35.58,6.21,-19.06,-32.86,21.65,21.47,0,0,0,0,0,0,0,0,0,0,0,0,0,0,0,0,
644,-13.68,-10.73,72.03,48.44,134.7,6.22,23.41,-76.05,-11.39,-28.38,3.421,-23.19,-50.39,-33.83,9.225,3.276,0,0,0,0,0,0,0,0,0,0,0,0,0,0,0,0,
645,-43.26,-46.9,29.85,14.08,92.47,-49.51,-37.96,-97.86,-22.45,-26.43,-7.417,-21.39,-52.51,-11.46,3.596,14.04,0,0,0,0,0,0,0,0,0,0,0,0,0,0,0,0,
646,-13.23,-38.86,26.43,3.028,76.41,-28.12,-47.32,-106.2,-10.43,-11.85,1.103,-3.384,-34,-0.1893,3.383,35.42,0,0,0,0,0,0,0,0,0,0,0,0,0,0,0,0,
647,15.92,-23.21,14.58,3.656,87.97,-9.853,-35.13,-99.19,-1.497,-8.436,9.586,6.455,-16.19,-12.19,5.318,56.06,0,0,0,0,0,0,0,0,0,0,0,0,0,0,0,0,
648,25.2,-17.22,-2.308,16.46,101.7,3.388,-24.5,-73.91,12.72,-11.57,13.62,11.06,4.734,-15.42,-0.0322,79.83,0,0,0,0,0,0,0,0,0,0,0,0,0,0,0,0,
649,35.72,-10.48,35.06,26.57,101.9,29.72,10.65,-57.49,-0.0726,-23.96,-3.396,1.939,8.218,-28.45,-23.73,73.85,0,0,0,0,0,0,0,0,0,0,0,0,0,0,0,0,
650,35.57,-10.62,83.1,9.361,113.9,33.62,33.27,-63.82,-26.03,-38.85,-31,-13.39,-8,-64.92,-44.17,44.08,0,0,0,0,0,0,0,0,0,0,0,0,0,0,0,0,
651,25.2,-11.78,82.43,1.87,146.2,34.45,15.11,-63.33,-15.07,-35.54,-31.44,-11.84,-8.645,-78.95,-40.91,33.44,0,0,0,0,0,0,0,0,0,0,0,0,0,0,0,0,
652,26.91,-0.0599,68.8,36.2,152.9,56.84,12.24,-46.41,8.354,-21.15,-14.18,-4.511,-0.2027,-71.79,-35.28,27.65,0,0,0,0,0,0,0,0,0,0,0,0,0,0,0,0,
653,27.95,4.614,78.93,48.03,135.6,62.82,31.58,-48.26,10.24,-23.19,-18.74,-14.17,-13.26,-86.91,-45.36,5.813,0,0,0,0,0,0,0,0,0,0,0,0,0,0,0,0,
654,10.17,-4.606,104,6.472,147,75.66,19.66,-64.03,13.69,-31.13,-24.16,-23.78,-27.88,-104.5,-47.13,-6.841,0,0,0,0,0,0,0,0,0,0,0,0,0,0,0,0,
655,-3.262,-5.959,98.18,-19.88,148.8,82.82,-10.06,-63.2,19.02,-29.07,-4.819,-19.94,-34.64,-115.7,-35.64,-19.3,0,0,0,0,0,0,0,0,0,0,0,0,0,0,0,0,
656,-1.029,-14.1,40.59,-14.17,84.64,4.127,-11.51,-72.32,12.71,-35.24,13.4,-10.65,-47.19,-140.7,-23.09,-36.6,0,0,0,0,0,0,0,0,0,0,0,0,0,0,0,0,
657,15.33,-24.12,33.17,-4.332,51.97,-49.63,9.255,-90.75,35.71,-34.7,40.08,17.98,-37.53,-132.7,7.723,-15.53,0,0,0,0,0,0,0,0,0,0,0,0,0,0,0,0,T2
658,44.28,-8.187,93.88,7.972,92.15,-6.08,7.752,-83.39,74.07,-18.43,68.2,42.17,-18.18,-89.84,34.53,13.98,0,0,0,0,0,0,0,0,0,0,0,0,0,0,0,0,
659,44.74,-10.22,87.79,6.581,79.47,-9.885,-22.62,-78.01,61.69,-20.7,48.15,25.69,-27.1,-74.59,29.86,9.249,0,0,0,0,0,0,0,0,0,0,0,0,0,0,0,0,
660,21,-35.5,52.27,-2.187,29.11,-23.57,-28.32,-87.06,36.03,-27.39,21.92,13.44,-28.01,-62.21,31.18,16.42,0,0,0,0,0,0,0,0,0,0,0,0,0,0,0,0,
661,23.01,-30.69,68.23,-5.328,43.07,32.87,-1.28,-88.11,36.09,-26.11,30.53,22.47,-11.35,-22.02,41.4,44.39,0,0,0,0,0,0,0,0,0,0,0,0,0,0,0,0,
662,30.22,-16.95,48.95,-12.12,70.73,41.13,19.44,-90.74,30.92,-36.64,30.17,21.83,-0.43,9.59,38.64,65.97,0,0,0,0,0,0,0,0,0,0,0,0,0,0,0,0,
663,32.44,-4.73,25.06,5.96,70.7,23.62,32.39,-90.4,29.95,-38.09,20.21,26.61,18.38,11.24,34.61,81.85,0,0,0,0,0,0,0,0,0,0,0,0,0,0,0,0,
664,51.38,19.16,80.41,41.12,71.8,44.67,37.92,-78.27,37.14,-34.16,19.1,34.08,25.83,-13.96,22.46,75.17,0,0,0,0,0,0,0,0,0,0,0,0,0,0,0,0,
665,62.38,19.21,132.8,52.11,73.23,39.18,42.73,-63.77,45.73,-40.74,15,25.91,13.44,-34.88,2.635,55.06,0,0,0,0,0,0,0,0,0,0,0,0,0,0,0,0,
666,60.31,9.698,127.7,60.26,78.7,50.93,64.22,-41.62,67.45,-30.39,9.919,8.187,9.588,-31.84,-15.55,43.09,0,0,0,0,0,0,0,0,0,0,0,0,0,0,0,0,
667,43.92,16.91,88.07,65.44,82.43,90.4,71.21,-17.8,56.12,-20.78,-6.363,-27.46,1.54,-35.2,-40.56,23.43,0,0,0,0,0,0,0,0,0,0,0,0,0,0,0,0,
668,-4.018,13.49,45.79,49.23,65.46,67.34,45.53,-11.39,-0.4147,-36.57,-38.73,-57.94,-8.972,-49.03,-51.65,8.463,0,0,0,0,0,0,0,0,0,0,0,0,0,0,0,0,
669,-34.57,8.483,40.61,30.43,33.56,30.53,13.36,-28.32,-28.89,-44.2,-46.28,-41.99,-1.683,-56.68,-33.45,14.3,0,0,0,0,0,0,0,0,0,0,0,0,0,0,0,0,
670,-5.632,17.61,51.66,9.593,18.02,31.05,-4.001,-50.9,-3.352,-36.79,-1.384,5.639,7.897,-56.99,-4.71,23.11,0,0,0,0,0,0,0,0,0,0,0,0,0,0,0,0,
671,47.88,22.79,65.65,3.924,54.56,26.76,7.964,-57.77,41.76,-38.83,51.32,48.94,15.17,-44.6,21.08,30.99,0,0,0,0,0,0,0,0,0,0,0,0,0,0,0,0,
672,84.33,22.79,99.74,27.87,97.24,25.73,31.38,-65.95,64.32,-42.88,63.02,70.55,23.27,-32.8,39.84,37.91,0,0,0,0,0,0,0,0,0,0,0,0,0,0,0,0,
673,100.7,25.58,104.2,38.69,82.44,47.8,41.78,-77.09,63.81,-30.29,65.51,78.08,21.26,-31.45,55.14,35.96,0,0,0,0,0,0,0,0,0,0,0,0,0,0,0,0,
674,114.6,28.89,60.15,30.51,64.84,86.03,50.92,-67.97,82.75,-17.29,78.84,78.24,7.738,-29.08,56.89,27.09,0,0,0,0,0,0,0,0,0,0,0,0,0,0,0,0,
675,114.9,25.64,38.75,39.06,84.7,121.5,61.65,-59.27,94.9,-17.83,68.2,62.26,-4.92,-27.2,42.99,22.54,0,0,0,0,0,0,0,0,0,0,0,0,0,0,0,0,
676,88.46,22.69,70.46,60.43,77.4,106.4,67.27,-64.52,41.54,-12.84,41.33,41.94,-4.865,-27.65,40.76,21.93,0,0,0,0,0,0,0,0,0,0,0,0,0,0,0,0,
677,65.78,31.72,95.92,65.31,26.79,45.81,64.38,-69.4,-29.36,-4.927,20.78,31.68,2.951,-22.65,42.87,17.8,0,0,0,0,0,0,0,0,0,0,0,0,0,0,0,0,
678,60.47,45.99,71.21,54.31,10.03,8.934,56.54,-67.74,-38.03,7.955,12.72,30.67,21.71,3.677,35.96,34.32,0,0,0,0,0,0,0,0,0,0,0,0,0,0,0,0,
679,47.22,60.59,39.42,49.97,39.17,3.554,61.73,-56.29,-19.42,39.31,12.69,21.94,46.54,42.19,26.18,61.6,0,0,0,0,0,0,0,0,0,0,0,0,0,0,0,0,
680,2.772,60,43.25,39.72,38.25,2.407,62.73,-57.2,-43.97,44.24,-14.1,-15.79,44.74,47.56,1.368,50.5,0,0,0,0,0,0,0,0,0,0,0,0,0,0,0,0,
681,-47.39,41.25,66.68,18.88,24.34,27.63,44.86,-69.18,-71.32,16.63,-42,-38.16,34.03,27.82,-16.92,35.06,0,0,0,0,0,0,0,0,0,0,0,0,0,0,0,0,
682,-43.16,40.06,69.69,5.242,43.99,55.82,36.43,-63.34,-51.85,8.943,-25.72,-10.78,41.58,14.86,-11.39,47.02,0,0,0,0,0,0,0,0,0,0,0,0,0,0,0,0,
683,1.739,45.09,30.87,-23.04,38.39,30.21,30.83,-67.16,-22.75,10.11,-4.236,18.01,44.62,-0.4465,-6.789,49.55,0,0,0,0,0,0,0,0,0,0,0,0,0,0,0,0,
684,33.98,34.24,5.548,-45.28,21.44,-2.781,11.93,-88.79,2.686,8.403,14.31,38.85,48.98,-4.245,10.74,49.72,0,0,0,0,0,0,0,0,0,0,0,0,0,0,0,0,
685,54.16,34.76,26.73,-22.03,46.4,5.019,-1.318,-94.55,31.18,14.94,44.15,63.58,52.76,0.4741,35.23,48.19,0,0,0,0,0,0,0,0,0,0,0,0,0,0,0,0,
686,65.67,36.94,28.08,-7.78,47.15,27.35,2.128,-88.72,42.85,6.442,52.82,66.57,30.73,-22.45,27.77,19.4,0,0,0,0,0,0,0,0,0,0,0,0,0,0,0,0,
687,72,26.9,-0.6229,-18.32,19.01,54.55,25.48,-70.87,43.25,-9.718,48.54,55.81,7.793,-50.42,10.02,-9.764,0,0,0,0,0,0,0,0,0,0,0,0,0,0,0,0,
688,84.75,24.67,-15.42,-3.285,25.57,65.23,55.16,-43.64,45.72,-8.316,50.81,46.75,-3.278,-50.93,8.538,-23.82,0,0,0,0,0,0,0,0,0,0,0,0,0,0,0,0,
689,93.46,23.83,-0.9073,23.77,42.75,50.3,70.96,-32.16,62.28,2,52.64,42.36,-11.84,-29.5,21.87,-27.32,0,0,0,0,0,0,0,0,0,0,0,0,0,0,0,0,
690,96.28,20.17,58.01,30.48,42.87,63.52,79.68,-33.77,83.33,5.828,54.66,44.92,-7.969,-4.4,42.21,-13.66,0,0,0,0,0,0,0,0,0,0,0,0,0,0,0,0,
691,87.33,19.82,114.5,23.83,41.31,105.6,87.55,-37,74.86,2.752,49.4,41.04,1.763,0.4078,53.88,2.069,0,0,0,0,0,0,0,0,0,0,0,0,0,0,0,0,
692,73.89,29.09,106.8,25.93,51.11,118,90.31,-30.01,68.51,16.42,53.64,50.13,16.6,2.032,70.48,17.57,0,0,0,0,0,0,0,0,0,0,0,0,0,0,0,0,
693,76.63,51.75,46.44,22.87,51.06,81.63,72.32,-17.75,68.07,36.6,70.31,69.67,35.17,24.9,89.27,37.61,0,0,0,0,0,0,0,0,0,0,0,0,0,0,0,0,
694,49.92,55.29,-33.75,-12.14,13.33,33.95,38.9,-20.98,16.11,30.59,53.48,49.97,41.09,41.24,76.04,45.16,0,0,0,0,0,0,0,0,0,0,0,0,0,0,0,0,
695,-10.01,44.99,-52.15,-25.52,-7.603,19.39,41.25,-14.65,-24.17,32.45,19.67,21.01,50.06,41.67,50.42,42.7,0,0,0,0,0,0,0,0,0,0,0,0,0,0,0,0,
696,-19.03,61.95,17.19,-3.302,20.33,22.18,68.63,-0.617,9.366,56.83,18.02,31.95,70.09,53.29,47.37,47.2,0,0,0,0,0,0,0,0,0,0,0,0,0,0,0,0,
697,19.18,83.68,50.91,-20.44,38.93,23.77,63.57,-22.9,40.36,60.25,38.11,58.15,87.01,75.75,65.15,65.28,0,0,0,0,0,0,0,0,0,0,0,0,0,0,0,0,
698,49.03,92.41,18.82,-48.87,38.21,29.52,42.67,-52.4,41.57,46.41,62.41,86.06,104.5,84.36,95.16,87.39,0,0,0,0,0,0,0,0,0,0,0,0,0,0,0,0,
699,73.91,100.6,-8.6,-41.91,25.22,11.93,33.99,-53.01,55.42,37.97,88.48,119.9,116.4,75.64,118.3,91.67,0,0,0,0,0,0,0,0,0,0,0,0,0,0,0,0,
700,102.8,100.2,-41.36,-46.23,-8.062,-2.187,41.65,-43.42,76.69,34.73,107.4,143.2,114.6,69.87,119.9,76.3,0,0,0,0,0,0,0,0,0,0,0,0,0,0,0,0,
701,133.7,106.6,-57.73,-42.7,-9.715,34.35,72.56,-24.34,85.39,44.88,113,150.3,111.6,76.04,117.5,63.72,0,0,0,0,0,0,0,0,0,0,0,0,0,0,0,0,
702,159.6,129.6,-10.29,0.5571,34.86,72.45,92.78,5.221,87.76,64.61,115.8,155.2,118.1,90.08,127.3,73.26,0,0,0,0,0,0,0,0,0,0,0,0,0,0,0,0,
703,167.3,137.9,37.7,17.56,69.7,92.91,90.58,22.01,96.3,67.38,125.7,161.1,124.2,97.57,126.8,84.24,0,0,0,0,0,0,0,0,0,0,0,0,0,0,0,0,
704,162.9,123.1,41.87,-0.7681,78.04,117.1,109.8,22.81,99.4,41.22,115.5,146.3,103.8,78.3,96.83,59.4,0,0,0,0,0,0,0,0,0,0,0,0,0,0,0,0,
705,149.7,103,51.78,7.79,74.15,111.5,133.7,24.28,81.22,13.88,71.39,103.8,62.61,47.08,64.46,23.29,0,0,0,0,0,0,0,0,0,0,0,0,0,0,0,0,
706,119.4,86.01,72.32,26.81,68.81,90.06,118.3,23.77,58.8,16.98,35.94,66.37,41.87,31.82,52.94,19.06,0,0,0,0,0,0,0,0,0,0,0,0,0,0,0,0,
707,93.03,77.09,75.17,25.27,79.4,101.5,98.84,16.9,54.91,35.24,37.61,62.45,51.08,27.6,55.8,36.42,0,0,0,0,0,0,0,0,0,0,0,0,0,0,0,0,
708,94.87,76.03,80.35,33.31,94.98,110.6,96.22,19.12,62.24,22.86,43.05,66.41,53.25,11.14,52.06,44.25,0,0,0,0,0,0,0,0,0,0,0,0,0,0,0,0,
709,83.83,58.65,72.11,34.14,81.82,81.92,66.36,19.7,48.55,-24.23,16.57,35.43,29.73,-21.34,23.87,32.45,0,0,0,0,0,0,0,0,0,0,0,0,0,0,0,0,
710,30.35,25.39,26.6,-0.6833,59.2,60.14,32.63,9.91,18.77,-35.97,-2.597,7.033,23.97,-29.3,11.6,31.25,0,0,0,0,0,0,0,0,0,0,0,0,0,0,0,0,
711,1.911,26.94,11.54,-25.8,60.38,72.72,40.07,16.24,16.1,-0.8314,18.23,22.2,47.26,-13.05,35.11,45.1,0,0,0,0,0,0,0,0,0,0,0,0,0,0,0,0,
712,12.11,46.4,45.33,-30.24,63.39,83.64,42.19,25.76,27.71,-11.88,18.75,20.88,36.5,-36.37,24.55,21.5,0,0,0,0,0,0,0,0,0,0,0,0,0,0,0,0,
713,-5.22,22.27,63.55,-29.25,68.21,66.18,24.62,22.72,28.07,-56.39,-13.04,-7.196,-0.6785,-73.83,-14.14,-23.82,0,0,0,0,0,0,0,0,0,0,0,0,0,0,0,0,
714,-23.55,-10.69,52.92,-13.04,77.69,17.82,13.72,27,39.08,-51.25,-12.32,1.732,-7.749,-62.17,-3.688,-30.69,0,0,0,0,0,0,0,0,0,0,0,0,0,0,0,0,
715,-3.169,-14.89,16.67,-18.83,54.84,-25.36,-15.01,26.69,57.13,-35.54,21.18,32.29,-2.366,-38.25,32.5,-14.57,0,0,0,0,0,0,0,0,0,0,0,0,0,0,0,0,
716,18.36,-14.21,-6.944,-43.43,46.75,-0.7327,-34.38,26.43,65.35,-39.17,50.11,47.84,-3.748,-37.97,37.07,-10.67,0,0,0,0,0,0,0,0,0,0,0,0,0,0,0,0,
717,29.75,-9.123,38.37,-28.82,94.96,44.08,-7.376,46.85,63.11,-28.09,49.8,49.19,-6.623,-49.12,18.68,-23.57,0,0,0,0,0,0,0,0,0,0,0,0,0,0,0,0,
718,33.36,-6.034,69.08,-7.489,120.1,32.44,7.38,58.29,42.28,-22.15,18.01,32.71,-18.98,-63.37,5.293,-40.96,0,0,0,0,0,0,0,0,0,0,0,0,0,0,0,0,
719,22.69,-17.78,27.84,-21.25,110.1,23.98,-7.019,52.52,22.01,-32.33,2.849,15.3,-29.55,-62.94,1.4,-45.64,0,0,0,0,0,0,0,0,0,0,0,0,0,0,0,0,
720,17.93,-25.66,18.9,-46.19,112,55.46,-3.457,45.19,27.01,-39.8,18.83,13.94,-29.92,-41.79,-0.4274,-41.61,0,0,0,0,0,0,0,0,0,0,0,0,0,0,0,0,
721,23.9,-22.97,47.31,-54.19,103.3,75.97,16.11,36.49,38.28,-48.52,23.59,16.58,-24.78,-17.74,4.827,-32.51,0,0,0,0,0,0,0,0,0,0,0,0,0,0,0,0,
722,20.15,-16.07,29.31,-25.31,89.62,62.36,20.26,41.06,21.77,-56.62,0.8022,3.026,-22.26,-11.87,3.393,-25.62,0,0,0,0,0,0,0,0,0,0,0,0,0,0,0,0,
723,-11.43,-20.36,17.07,-6.335,85.38,9.329,-4.676,43.92,-26.13,-68.26,-34.76,-32.54,-40.55,-28.96,-23,-37.3,0,0,0,0,0,0,0,0,0,0,0,0,0,0,0,0,
724,-55.57,-45.73,51.49,-49.58,60.03,-38.76,-37.27,23.01,-52.75,-82.37,-52.31,-52.35,-56.44,-36.5,-35.71,-42.24,0,0,0,0,0,0,0,0,0,0,0,0,0,0,0,0,
725,-64.57,-56.2,47.93,-77.86,44.96,-33.72,-43.64,15.37,-20.61,-68.28,-36.17,-32.67,-34.97,-17.91,-12.03,-18.62,0,0,0,0,0,0,0,0,0,0,0,0,0,0,0,0,
726,-41.12,-34.24,8.74,-38.95,66.1,-24.29,-27.94,30.08,14.37,-34.68,-15.23,-12.65,-5.345,0.8866,4.57,2.541,0,0,0,0,0,0,0,0,0,0,0,0,0,0,0,0,
727,-29.28,-19.63,19.55,-14.37,52.92,-26.69,-17.34,27.25,1.859,-26.53,-15.26,-17.15,-3.703,5.226,-7.425,-0.2058,0,0,0,0,0,0,0,0,0,0,0,0,0,0,0,0,
728,-29.71,-27.78,51.7,-28.71,7.666,0.3872,-14.97,17.42,-5.207,-35.26,-18.71,-21.39,-11.98,4.213,-13.53,-8.695,0,0,0,0,0,0,0,0,0,0,0,0,0,0,0,0,
729,-17.99,-25.9,48.75,-19.67,19.49,34.62,-5.037,25.17,34.83,-32.32,0.8588,-7.984,-9.332,5.228,1.765,-12.18,0,0,0,0,0,0,0,0,0,0,0,0,0,0,0,0,
730,-5.061,-16.68,32.51,-2.295,61.04,37.13,-9.915,21.31,50.4,-45.28,7.894,-8.943,-24.55,-8.777,-7.976,-35.3,0,0,0,0,0,0,0,0,0,0,0,0,0,0,0,0,
731,-20.88,-40.12,32.85,-10.87,72.08,17.07,-43.45,7.115,15.14,-70.79,-31.34,-38.99,-59.86,-34.3,-44.13,-66.78,0,0,0,0,0,0,0,0,0,0,0,0,0,0,0,0,
732,-39.71,-64.7,60.77,-13.77,74.36,9.004,-45.56,8.912,11.74,-54.69,-50.38,-42.7,-55.55,-25.72,-34.87,-52.32,0,0,0,0,0,0,0,0,0,0,0,0,0,0,0,0,
733,-21.93,-46.58,61.26,-25.21,39.66,21.16,-15.57,-9.484,27.82,-31.74,-23.71,-13.71,-24.92,-3.414,3.207,-21.25,0,0,0,0,0,0,0,0,0,0,0,0,0,0,0,0,
734,-3.106,-31.52,6.492,-40.91,-19.17,26.85,-11.9,-23.29,0.6465,-44.89,-19.73,-12.11,-31.77,-20.1,-0.3213,-35.42,0,0,0,0,0,0,0,0,0,0,0,0,0,0,0,0,
735,-13.05,-36.5,10.16,10.91,-10.41,19.26,-8.624,40.89,-33.69,-45.08,-45.59,-40.14,-55.38,-38.91,-27.93,-64.92,0,0,0,0,0,0,0,0,0,0,0,0,0,0,0,0,
736,-37.51,-37.96,65.62,61.97,-7.17,1.944,3.317,101.1,-70.27,-39.57,-72.85,-68.42,-63.09,-23.48,-46.62,-72.59,0,0,0,0,0,0,0,0,0,0,0,0,0,0,0,0,
737,-72.86,-55.6,44.09,34.16,-86.2,-22.15,-8.848,87.33,-122.3,-57.04,-96.59,-84.47,-65.06,-7.799,-58.84,-69.95,0,0,0,0,0,0,0,0,0,0,0,0,0,0,0,0,
738,-95.87,-74.46,-5.299,24.7,-148.2,-43.01,-15.06,78.37,-131.7,-46.73,-98.97,-82.86,-63.57,-18.38,-63.24,-64.19,0,0,0,0,0,0,0,0,0,0,0,0,0,0,0,0,
739,-93.51,-70.64,-18.84,44.76,-162.9,-57.89,-11.8,86.08,-98.13,-13.61,-85.37,-79.73,-62.63,-37.34,-60.73,-52.81,0,0,0,0,0,0,0,0,0,0,0,0,0,0,0,0,
740,-90.44,-70.84,-24.12,27.69,-156.2,-38.6,-20.62,84.63,-68.95,-7.019,-69.8,-77.63,-61.45,-32.17,-51.82,-39.51,0,0,0,0,0,0,0,0,0,0,0,0,0,0,0,0,
741,-81.89,-69.28,1.923,24.41,-116.6,3.924,-18.91,111.7,-46.4,-4.034,-46.76,-65.15,-51.61,-9.916,-42.92,-37.82,0,0,0,0,0,0,0,0,0,0,0,0,0,0,0,0,
742,-59.77,-55.13,15.68,38.79,-99.14,-3.29,-18.65,145,-31.79,17.65,-35.71,-55.89,-42.47,-4.308,-45.54,-48.04,0,0,0,0,0,0,0,0,0,0,0,0,0,0,0,0,
743,-47.43,-57.35,-27.38,20.25,-118.4,-39.11,-37.35,142.4,-36.85,27.95,-53.19,-60.06,-43.98,-14.41,-54.18,-54.73,0,0,0,0,0,0,0,0,0,0,0,0,0,0,0,0,
744,-58.49,-73.42,-30.01,7.123,-123,-47.13,-43.03,129.2,-62.75,12.94,-75.1,-67.38,-48.94,-18.4,-53.48,-56.68,0,0,0,0,0,0,0,0,0,0,0,0,0,0,0,0,
745,-78.04,-70.54,22.6,18.64,-121.9,-45.03,-25.89,128.9,-86.37,3.812,-77.83,-63.28,-41.91,-10.01,-39.33,-54.61,0,0,0,0,0,0,0,0,0,0,0,0,0,0,0,0,
746,-73.65,-42.98,36.32,24.23,-121.4,-19.99,-0.2554,138.5,-80.66,15.06,-71.15,-50.29,-29.73,-7.799,-40.68,-55.91,0,0,0,0,0,0,0,0,0,0,0,0,0,0,0,0,
747,-42.56,-15.5,9.375,34.57,-107,26.48,31.78,148.3,-60.93,19.28,-69.24,-41.93,-30.87,-23.11,-66.16,-72.7,0,0,0,0,0,0,0,0,0,0,0,0,0,0,0,0,
748,-15.17,-2.007,-0.1049,54.66,-89.08,29.6,54.33,152.3,-40.71,11.82,-56.3,-27.61,-28.98,-23.75,-58.68,-77.65,0,0,0,0,0,0,0,0,0,0,0,0,0,0,0,0,
749,-1.126,9.075,18.68,51.72,-71.91,0.4695,46.32,152.7,-15.06,12.86,-23.81,-4.083,-11.19,5.306,-9.201,-47.64,0,0,0,0,0,0,0,0,0,0,0,0,0,0,0,0,
750,2.37,18.32,16.58,30,-75.53,-15.64,23.35,143.2,-5.295,18.01,-5.681,-0.1465,-0.1584,30.4,11.17,-14.29,0,0,0,0,0,0,0,0,0,0,0,0,0,0,0,0,
751,-15.87,9.091,-34.29,12.6,-121.5,-42.68,2.158,111.4,-29.27,8.515,-31.75,-25.7,-3.911,43.55,-11.37,2.758,0,0,0,0,0,0,0,0,0,0,0,0,0,0,0,0,
752,-58.09,-18.93,-74.62,-19.19,-167.3,-76.05,-32.75,69.87,-61.43,-10.4,-67.29,-47.69,0.8668,69.88,-15.13,32.28,0,0,0,0,0,0,0,0,0,0,0,0,0,0,0,0,
753,-87.39,-37.91,-71.37,-48.39,-159.1,-74.03,-72.16,54.12,-60.22,-10.87,-55.98,-35.04,24.61,95.38,20.51,71.89,0,0,0,0,0,0,0,0,0,0,0,0,0,0,0,0,
754,-74.5,-34.54,-74.53,-34.5,-120.9,-61.77,-82.75,60.28,-30.19,1.583,-18.59,-8.302,41.36,83.26,52.59,73.45,0,0,0,0,0,0,0,0,0,0,0,0,0,0,0,0,
755,-47.9,-22.22,-81.4,-8.197,-103.1,-53.43,-45.7,67.85,-5.818,3.294,2.573,9.39,44.03,56.19,60.99,42.96,0,0,0,0,0,0,0,0,0,0,0,0,0,0,0,0,
756,-21.66,6.415,-52.83,16.75,-103.2,-13.22,29.25,98.97,7.938,1.498,14.63,25.77,46.43,41.86,52.53,14.53,0,0,0,0,0,0,0,0,0,0,0,0,0,0,0,0,
757,7.805,36.72,-33.51,52.66,-107.6,20.36,73.81,142.3,11.58,-1.251,13.56,26.86,31.99,13.65,28.47,-15.31,0,0,0,0,0,0,0,0,0,0,0,0,0,0,0,0,
758,17.35,32.77,-39.52,68.17,-105.1,16.37,64.41,162.3,13.6,9.753,8.267,18.47,14.3,-16.9,16.1,-27.49,0,0,0,0,0,0,0,0,0,0,0,0,0,0,0,0,
759,22.88,24.36,-15.12,71.45,-87.5,24.34,63.54,174.7,20.76,44.83,15.19,21.36,13.65,-31.2,15.16,-25.64,0,0,0,0,0,0,0,0,0,0,0,0,0,0,0,0,
760,33.31,21.83,14.3,80.87,-89.11,26.94,63.42,175.1,9.665,56.6,5.818,10.78,-5.297,-52.88,-1.178,-49.06,0,0,0,0,0,0,0,0,0,0,0,0,0,0,0,0,
761,20.16,1.365,23.64,76.79,-96.08,3.777,46.05,158,7.254,52.93,2.186,4.094,-21.66,-44.87,3.382,-54.72,0,0,0,0,0,0,0,0,0,0,0,0,0,0,0,0,
762,11.98,0.7604,48.78,74.48,-69.18,-1.676,54.4,155.9,22.57,74.96,21.55,17.92,-2.283,5.22,23.54,-21.79,0,0,0,0,0,0,0,0,0,0,0,0,0,0,0,0,
763,12,11.58,33.04,70.47,-78.74,-10.52,57.89,150.5,-18.26,79.07,-1.272,-3.343,1.794,17.66,1.173,-13.44,0,0,0,0,0,0,0,0,0,0,0,0,0,0,0,0,
764,-21.14,-11.55,-52.36,36.76,-146.9,-30.63,27.6,117.9,-79.13,55.28,-46.52,-40.16,-14.18,-14.66,-25.76,-23.97,0,0,0,0,0,0,0,0,0,0,0,0,0,0,0,0,
765,-52.82,-31.69,-95.64,-1.062,-168.7,-30.71,2.42,87.9,-72.02,42.4,-51,-42.53,-17.23,-40.26,-20.12,-21.32,0,0,0,0,0,0,0,0,0,0,0,0,0,0,0,0,
766,-55.32,-33.03,-59.36,-10.12,-118.6,-45.59,-17.73,85.28,-43.05,33.21,-44.78,-45.91,-22.05,-40.19,-17.22,-20.86,0,0,0,0,0,0,0,0,0,0,0,0,0,0,0,0,
767,-57.38,-40.43,-14.16,17.98,-68.38,-58.63,-26.89,106.9,-34.5,26.51,-42.8,-56.78,-29.33,-11.99,-19.26,-24.44,0,0,0,0,0,0,0,0,0,0,0,0,0,0,0,0,
768,-60.07,-46.52,0.3655,50.02,-64.21,-29.94,-17.79,115,-20.94,21.82,-26.17,-48.16,-33.6,4.871,-14.9,-31.72,0,0,0,0,0,0,0,0,0,0,0,0,0,0,0,0,
769,-53.84,-53,-21.14,29.75,-94.18,-34.18,-35.33,93.02,-11.11,8.269,-15.17,-39.28,-41.77,-18.72,-19.54,-44.81,0,0,0,0,0,0,0,0,0,0,0,0,0,0,0,0,
770,-51.5,-62.63,-67.18,-20.6,-121.4,-85.54,-68.52,74.82,-23.13,-0.4762,-29.03,-50.71,-48.67,-45.77,-39.08,-53.12,0,0,0,0,0,0,0,0,0,0,0,0,0,0,0,0,
771,-66.54,-68.13,-106.5,-44.62,-136.7,-95.75,-69.81,60.88,-34.61,-2.74,-45.91,-65.38,-52.24,-44.55,-50.13,-50.47,0,0,0,0,0,0,0,0,0,0,0,0,0,0,0,0,
772,-76.62,-71.65,-121.3,-44.51,-140.3,-76.07,-63.8,42.14,-26.84,-4.528,-40.24,-56.4,-45.54,-26.42,-32.77,-40.01,0,0,0,0,0,0,0,0,0,0,0,0,0,0,0,0,
773,-55.48,-65.77,-123.3,-35.61,-122.5,-75.07,-73.89,43.96,-28.86,-5.725,-32.58,-36.26,-28.37,-25.27,-15.69,-37.23,0,0,0,0,0,0,0,0,0,0,0,0,0,0,0,0,
774,-35.65,-46.13,-94.21,-7.393,-73.65,-67.34,-61.22,74.78,-44.26,-1.289,-33.87,-29.41,-12.49,-40.39,-14.68,-32.58,0,0,0,0,0,0,0,0,0,0,0,0,0,0,0,0,
775,-38.42,-25.6,-14.05,33.12,-7.315,-64.82,-24.99,109.8,-38.24,18.34,-21.45,-27.2,0.6372,-32.12,-6.395,-6.816,0,0,0,0,0,0,0,0,0,0,0,0,0,0,0,0,
776,-39.83,-20.9,26.99,33.75,7.226,-75.92,-15.57,107.7,-27.73,27.77,-7.282,-19.54,13.44,1.712,10.1,19.69,0,0,0,0,0,0,0,0,0,0,0,0,0,0,0,0,
777,-28.81,-17.24,-13.04,-3.625,-37.56,-36.59,-9.516,78.76,-16.6,22.63,4.037,-0.9229,36.48,35.67,28.76,36.76,0,0,0,0,0,0,0,0,0,0,0,0,0,0,0,0,
778,-4.492,13.78,-22.87,5.596,-47.85,10.48,27.39,85.33,17.87,35.39,20.42,16.95,57.52,48.2,36.56,42.68,0,0,0,0,0,0,0,0,0,0,0,0,0,0,0,0,
779,15.55,37.79,7.543,60.54,-18.26,-3.342,38.73,120.7,36.7,43.97,20.86,16.14,52.59,35.77,30.22,33.8,0,0,0,0,0,0,0,0,0,0,0,0,0,0,0,0,
780,16.56,28.96,0.1987,77.07,-19.52,-0.0112,14.2,135.4,16.92,32.91,17.27,18.11,45.51,31.16,40.38,33.53,0,0,0,0,0,0,0,0,0,0,0,0,0,0,0,0,
781,6.991,18.63,-16.49,42.72,-62.19,1.689,-0.9857,121.5,-19.58,31.79,19.33,16.61,41.04,37.5,43.4,30.08,0,0,0,0,0,0,0,0,0,0,0,0,0,0,0,0,
782,-18.54,7.639,-24.53,6.052,-110.4,-67.26,-7.421,99.47,-39.44,40.04,10.5,-5.046,26.5,37.61,15.68,11.17,0,0,0,0,0,0,0,0,0,0,0,0,0,0,0,0,
783,-34.42,0.983,-53.4,-0.7175,-121.8,-85.66,0.2432,96.56,-14.32,45.96,2.951,-9.949,24.56,38.56,5.026,8.382,0,0,0,0,0,0,0,0,0,0,0,0,0,0,0,0,
784,-23.4,3.399,-73.95,4.702,-111.9,-46.57,1.483,98.53,-8.8,42.48,-12.92,-9.442,13.74,20.82,5.056,2.162,0,0,0,0,0,0,0,0,0,0,0,0,0,0,0,0,
785,-36.41,-21.96,-63.33,-2.378,-121.3,-83.16,-40.69,82.25,-57.9,30.5,-36.46,-31.19,-19.04,-10.92,-13.1,-20.53,0,0,0,0,0,0,0,0,0,0,0,0,0,0,0,0,
786,-57.93,-46.02,-52.81,0.5959,-118.6,-116,-65.27,77.64,-74.34,30.03,-31.95,-39.32,-21.29,-17.87,-22.38,-18.21,0,0,0,0,0,0,0,0,0,0,0,0,0,0,0,0,
787,-39.8,-29.01,-50.62,14.5,-91.57,-62.7,-33.18,89.11,-58.59,32.9,-25.95,-35.38,-1.337,-18.81,-21.66,-6.966,0,0,0,0,0,0,0,0,0,0,0,0,0,0,0,0,
788,-28.89,-17.43,-32.84,7.603,-74.52,-27.75,-10.6,84.6,-66.85,23.55,-38.86,-39.95,-0.088,-22.68,-15.72,-12.34,0,0,0,0,0,0,0,0,0,0,0,0,0,0,0,0,
789,-45.05,-24.33,-22.92,-9.777,-60.84,-45.29,-25.92,63.7,-60.42,17.74,-29.07,-25.27,4.886,-0.7151,13.65,-0.1136,0,0,0,0,0,0,0,0,0,0,0,0,0,0,0,0,
790,-37.42,-17.57,-50.51,-13.85,-50.02,-58.14,-43.56,41.89,-27.04,23.04,1.606,8.053,28.5,26.94,44.99,28.2,0,0,0,0,0,0,0,0,0,0,0,0,0,0,0,0,
791,-14.01,-10.61,-74.44,-11.51,-67.31,-61.46,-52.23,28.49,-19.85,18.71,4,8.945,31.46,21.98,36.73,21.06,0,0,0,0,0,0,0,0,0,0,0,0,0,0,0,0,
792,-32.04,-33.63,-83.26,-17.87,-94.41,-61.42,-73.57,21.16,-47.89,-8.307,-30.01,-34.2,-5.317,-8.213,-3.126,-15.57,0,0,0,0,0,0,0,0,0,0,0,0,0,0,0,0,
793,-69.85,-70.34,-99.93,-23.61,-85.66,-48.38,-98.62,19.65,-54.48,-25.4,-41.21,-51.12,-29.1,-20.38,-14.51,-17.96,0,0,0,0,0,0,0,0,0,0,0,0,0,0,0,0,
794,-51.66,-72.48,-87.16,-18.56,-57.36,-45.03,-91.58,30.64,-11.94,-15.92,-5.672,-12.64,-9.876,-1.366,15.14,10.37,0,0,0,0,0,0,0,0,0,0,0,0,0,0,0,0,
795,-4.431,-43.36,-47.31,-17.68,-65.13,-64.21,-63.91,46.53,11.99,-15.08,13.24,9.58,7.724,10.4,23.8,14.3,0,0,0,0,0,0,0,0,0,0,0,0,0,0,0,0,
796,0.5059,-21.45,-40.62,-8.525,-80.16,-68.53,-40.85,73.76,-18.92,-18.56,-5.112,-8.833,6.921,0.6395,-0.6431,2.461,0,0,0,0,0,0,0,0,0,0,0,0,0,0,0,0,
797,-19.46,-9.06,-59.05,15.51,-62.06,-59.97,-23.07,112.8,-45.35,-6.957,-22.35,-28.52,1.294,-16.87,-12.2,1.016,0,0,0,0,0,0,0,0,0,0,0,0,0,0,0,0,
798,-39.38,-10.15,-63.33,10.39,-62.74,-66.02,-23.27,126,-46.18,1.164,-29.57,-38.01,-12.86,-36.2,-4.194,-2.24,0,0,0,0,0,0,0,0,0,0,0,0,0,0,0,0,
799,-53.36,-28.68,-66.52,-18.91,-92.59,-56.14,-29.46,107.8,-53.17,3.945,-31.89,-34.72,-22.68,-41.14,-1.85,-13.76,0,0,0,0,0,0,0,0,0,0,0,0,0,0,0,0,
800,-45.46,-38.35,-90.74,-27.16,-100,-35.03,-13.88,92.85,-62.76,1.201,-32.38,-25.53,-13.84,-25.75,-7.507,-21.14,0,0,0,0,0,0,0,0,0,0,0,0,0,0,0,0,
801,-35.6,-27.3,-103.4,-11.14,-87.48,-48.46,-4.896,101.6,-52.2,0.1839,-24.48,-21.18,6.97,-8.649,-4.751,-14.29,0,0,0,0,0,0,0,0,0,0,0,0,0,0,0,0,
802,-32.77,-10.19,-88.44,2.906,-81.93,-74.8,-27.4,122,-34.07,19.06,-11.86,-19.85,16,-12.06,-2.631,-15.93,0,0,0,0,0,0,0,0,0,0,0,0,0,0,0,0,
803,-27.71,-7.817,-93.41,-17.76,-85.99,-77.44,-41.06,125.6,-33.65,25.24,-22.95,-29.17,-0.9389,-37.27,-8.392,-36.97,0,0,0,0,0,0,0,0,0,0,0,0,0,0,0,0,
804,-33.72,-14.32,-99.56,-44.65,-81.5,-58.11,-20,120.6,-39.15,15.41,-32.24,-30.17,-6.728,-50.81,4.168,-33.86,0,0,0,0,0,0,0,0,0,0,0,0,0,0,0,0,
805,-31.1,-0.6504,-66.84,-27.98,-72.38,-31.46,-1.442,126.8,-27.82,29.15,-8.423,-4.228,13.18,-43.34,25.86,-10.4,0,0,0,0,0,0,0,0,0,0,0,0,0,0,0,0,
806,-8.023,17.27,-55.44,-18.65,-103.4,-10.77,-7.735,126.3,-6.085,34.5,1.105,9.004,17.97,-40.34,24.46,-13.77,0,0,0,0,0,0,0,0,0,0,0,0,0,0,0,0,
807,-8.457,9.633,-76.9,-47.41,-150.2,-3.982,-17.75,113.7,-0.129,10.6,-20.01,-8.272,7.431,-34.34,10.26,-24.87,0,0,0,0,0,0,0,0,0,0,0,0,0,0,0,0,
808,-31.6,-1.512,-75.15,-54.66,-130.2,-26.67,-23,101.1,-14.03,4.43,-24.81,-19.91,10.66,-10.96,1.881,-13.32,0,0,0,0,0,0,0,0,0,0,0,0,0,0,0,0,
809,-35.97,6.27,-64.75,-35.57,-71.47,-61.27,-25.11,91.03,-16.91,9.703,-9.555,-15.03,21.21,5.561,0.821,-3.263,0,0,0,0,0,0,0,0,0,0,0,0,0,0,0,0,
810,-34.47,9.753,-68.72,-30.19,-69.47,-70.55,-27.52,82.71,-16.1,-12.47,-9.426,-17.41,14.95,-5.236,-0.4048,-16.6,0,0,0,0,0,0,0,0,0,0,0,0,0,0,0,0,
811,-43.5,-9.192,-73.26,-36.71,-101.8,-61.47,-30.67,77.57,-25.6,-31.54,-15.93,-22.62,-4.951,-19.76,1.049,-31.49,0,0,0,0,0,0,0,0,0,0,0,0,0,0,0,0,
812,-34.58,-19.3,-72.83,-38,-88.01,-37.29,-17.37,93.91,-7.837,-15.4,-5.69,-12.9,-12.5,-16.29,13.44,-32.35,0,0,0,0,0,0,0,0,0,0,0,0,0,0,0,0,
813,-25.07,-9.02,-72.04,-37.11,-64.93,-29.9,-8.009,119.5,3.206,-0.4352,-11.95,-13.79,-11.7,-16.99,13.09,-40.09,0,0,0,0,0,0,0,0,0,0,0,0,0,0,0,0,
814,-46.68,-8.663,-81.03,-50.76,-88.82,-82.5,-24.33,112.7,-34.4,0.197,-39.15,-28.33,-10.11,-20.91,-0.6338,-41.99,0,0,0,0,0,0,0,0,0,0,0,0,0,0,0,0,
815,-52.33,-9.067,-96.73,-76.47,-111.6,-107.6,-32.97,92.98,-45.28,9.342,-38.91,-24.95,2.532,-8.489,-2.181,-22.01,0,0,0,0,0,0,0,0,0,0,0,0,0,0,0,0,
816,-37.6,-4.724,-109.2,-87.28,-106.5,-60.56,-31.29,98.75,-20.55,8.971,-27.6,-22.2,4.841,-9.46,-6.345,-20.39,0,0,0,0,0,0,0,0,0,0,0,0,0,0,0,0,
817,-49.84,-15.88,-105.4,-64.45,-96.04,-44.35,-23.98,122.1,-21.53,-1.466,-24.98,-24.22,-5.738,-28.34,-6.18,-33.54,0,0,0,0,0,0,0,0,0,0,0,0,0,0,0,0,
818,-54.1,-19.83,-71.23,-26.58,-77.46,-58.63,-3.571,143.5,-23.24,5.023,-7.473,-7.948,-2.338,-27.67,10.62,-32.91,0,0,0,0,0,0,0,0,0,0,0,0,0,0,0,0,
819,-34.04,-15.32,-42.07,-8.887,-61.35,-43.27,-15.22,150.8,-4.008,15.44,1.255,-4.377,-1.192,-11.67,2.325,-46.05,0,0,0,0,0,0,0,0,0,0,0,0,0,0,0,0,
820,-30.77,-23.96,-59.55,-11.22,-69.3,-38.63,-48.05,140.2,14.26,14.77,-15.66,-26.47,-17.34,-4.064,-27.93,-70.36,0,0,0,0,0,0,0,0,0,0,0,0,0,0,0,0,
821,-40,-28.56,-96.85,-23.49,-103,-61.26,-46.41,109,15.67,-1.269,-32.85,-45.25,-34.05,-11.93,-34.77,-74.01,0,0,0,0,0,0,0,0,0,0,0,0,0,0,0,0,
822,-56.17,-31.53,-96.68,-34.24,-127.4,-73.98,-36.28,83.71,-5.359,-19.86,-42.35,-50.34,-39.9,-22.09,-22.73,-66.58,0,0,0,0,0,0,0,0,0,0,0,0,0,0,0,0,
823,-73.17,-36.7,-53.52,-20.61,-101,-67.23,-32.87,104.4,-19.18,-12.13,-48.17,-47.34,-41.44,-24.23,-27.88,-69.58,0,0,0,0,0,0,0,0,0,0,0,0,0,0,0,0,
824,-70.15,-32.62,-39.84,-20.99,-76.03,-48.99,-22.35,129.6,-12.69,-5.136,-54.58,-51.3,-51.06,-33.53,-55.42,-80.62,0,0,0,0,0,0,0,0,0,0,0,0,0,0,0,0,
825,-58.78,-30.04,-78.2,-50.46,-96.85,-26.97,-13.54,118.3,-8.817,-12.73,-44.26,-42.98,-40.48,-31.08,-52.79,-65.84,0,0,0,0,0,0,0,0,0,0,0,0,0,0,0,0,
826,-36.68,-13.66,-101.7,-37.9,-108.1,-7.519,1.128,108.4,-9.338,0.6294,-13.04,-2.907,4.107,2.405,-4.974,-24.63,0,0,0,0,0,0,0,0,0,0,0,0,0,0,0,0,
827,-13.93,12.84,-98.4,-15.28,-101.6,-18.91,-4.032,104.4,-8.162,8.542,-7.788,11.39,18.23,19.52,16.02,-18.94,0,0,0,0,0,0,0,0,0,0,0,0,0,0,0,0,
828,-34.34,-3.76,-89.44,-51.79,-107.5,-79.63,-53.14,92.11,-7.242,-14.94,-23.12,-21.56,-20.8,3.586,-11.17,-58.88,0,0,0,0,0,0,0,0,0,0,0,0,0,0,0,0,
829,-68.44,-46.58,-91.92,-75.03,-120.9,-115.3,-82.7,84.14,-17.81,-30.68,-12.76,-39.01,-51.37,-4.982,-30.25,-83.39,0,0,0,0,0,0,0,0,0,0,0,0,0,0,0,0,
830,-58.97,-50.34,-133.1,-47.58,-137.8,-66.44,-54.39,72.32,-34.93,-25.12,1.868,-24.55,-43.99,1.548,-26.88,-75.2,0,0,0,0,0,0,0,0,0,0,0,0,0,0,0,0,
831,-33.29,-23.59,-144.5,-43.83,-134.4,-27.04,-20.83,55.97,-36.36,-23,-19.5,-30.55,-37.09,-7.807,-41.03,-78.1,0,0,0,0,0,0,0,0,0,0,0,0,0,0,0,0,
832,-48.12,-23.84,-80.22,-74.74,-111.3,-69.9,-23.81,44.13,-47.31,-32.17,-59.78,-67.44,-49.06,-33.84,-67.35,-90.52,0,0,0,0,0,0,0,0,0,0,0,0,0,0,0,0,
833,-80.46,-41.36,-35.56,-74.36,-91.4,-107.3,-30.08,43.71,-67.63,-23.74,-65.78,-68.04,-35.98,-28.93,-55.94,-64.76,0,0,0,0,0,0,0,0,0,0,0,0,0,0,0,0,
834,-67.37,-23.37,-41.95,-35.92,-54.27,-83.62,-9.453,64.67,-45.95,3.609,-42.47,-28.54,-4.608,3.798,-34.64,-35,0,0,0,0,0,0,0,0,0,0,0,0,0,0,0,0,
835,-35.99,-0.5113,-61.66,-25.51,-30.32,-48.22,-1.589,81.33,-4.558,6.451,-38.38,-20.46,-7.978,15.97,-39.2,-46.3,0,0,0,0,0,0,0,0,0,0,0,0,0,0,0,0,
836,-28.85,-10.51,-90.83,-44.31,-58.9,-39.72,-22.21,75.23,19.43,-3.094,-25.39,-23.05,-20.85,16.8,-16.68,-56.04,0,0,0,0,0,0,0,0,0,0,0,0,0,0,0,0,
837,-20.31,-22.14,-90.89,-34.25,-81.68,-76.37,-41.35,60.3,28.44,-4.109,13.14,-4.921,-26.55,10.02,16.56,-64.16,0,0,0,0,0,0,0,0,0,0,0,0,0,0,0,0,
838,-25.16,-37.7,-52.15,-13.11,-69.03,-104.9,-55.49,44.19,10.83,-16.23,23.63,-8.117,-43.51,-8.558,5.35,-83.04,0,0,0,0,0,0,0,0,0,0,0,0,0,0,0,0,
839,-49.26,-52.13,-33.14,-20.87,-56.76,-53.32,-54.97,44.18,-4.203,-17.08,14.63,-17.11,-36.46,-2.208,-4.601,-70.19,0,0,0,0,0,0,0,0,0,0,0,0,0,0,0,0,
840,-44.48,-34.7,-52.44,-38.23,-62.62,-10.91,-37.62,55.68,5.334,-6.055,4.975,-14.76,-19.79,-1.781,-6.398,-62.51,0,0,0,0,0,0,0,0,0,0,0,0,0,0,0,0,
841,-37.84,-25.81,-87.5,-44.77,-84.72,-59.03,-35.53,51.53,-11.78,-18.24,-32.03,-37.13,-40.56,-42.17,-37.24,-94.37,0,0,0,0,0,0,0,0,0,0,0,0,0,0,0,0,
842,-63.19,-42.38,-109.6,-47.9,-101.9,-107.8,-50.1,37.86,-50.32,-28.16,-69.65,-62.76,-58.27,-60.31,-60.33,-102,0,0,0,0,0,0,0,0,0,0,0,0,0,0,0,0,
843,-84.09,-45.94,-107,-59.69,-99.99,-100.6,-63.51,21.26,-45.67,-24.11,-72.33,-62.5,-48.95,-44.44,-62.13,-83.38,0,0,0,0,0,0,0,0,0,0,0,0,0,0,0,0,
844,-91.09,-48.55,-117,-75.09,-99.93,-88.56,-74.58,9.307,-17.22,-32.01,-63.24,-59.59,-43.11,-41.89,-69.73,-82.09,0,0,0,0,0,0,0,0,0,0,0,0,0,0,0,0,
845,-92.6,-60.68,-145.9,-83.11,-108.5,-107.9,-83.4,19.56,-27.36,-36.25,-59.03,-56.27,-37.66,-33.89,-60.45,-76.61,0,0,0,0,0,0,0,0,0,0,0,0,0,0,0,0,
846,-79.14,-56.03,-116.9,-77.02,-84.25,-120.8,-87.41,41.78,-45.22,-15.26,-40.5,-37.3,-20.09,5.133,-21.1,-51.65,0,0,0,0,0,0,0,0,0,0,0,0,0,0,0,0,
847,-60.05,-38.94,-29.66,-47.27,-27.37,-90.62,-84.07,68.23,-22.71,11.58,-15.3,-27.77,-13,36.66,-3.958,-42.74,0,0,0,0,0,0,0,0,0,0,0,0,0,0,0,0,
848,-57.62,-39.6,-13.15,-20.61,-28.7,-75.04,-79.7,99.5,-5.564,9.969,-20.97,-51.52,-37.64,20.7,-28.93,-66.71,0,0,0,0,0,0,0,0,0,0,0,0,0,0,0,0,
849,-68.92,-60.89,-76.54,-22.58,-80.33,-99.37,-68.92,130.9,-10.47,-8.853,-33.47,-66.26,-64.2,-18.6,-37.86,-90.06,0,0,0,0,0,0,0,0,0,0,0,0,0,0,0,0,
850,-68.58,-71.86,-89.4,-21.13,-65.78,-102.4,-44.45,165.1,-3.884,-3.681,-20.27,-48.59,-64.3,-39.62,-22.02,-103.2,0,0,0,0,0,0,0,0,0,0,0,0,0,0,0,0,
851,-67.34,-62.46,-68.72,-13.51,-27.89,-72.91,-34.96,182,-12.77,10.1,-26.49,-48.55,-66.63,-50.31,-35.51,-137.3,0,0,0,0,0,0,0,0,0,0,0,0,0,0,0,0,
852,-82.81,-51.1,-96.69,-25.08,-62.85,-42.38,-41.74,168.3,-34.68,1.696,-57.83,-70.09,-80.09,-63.85,-68.69,-171.4,0,0,0,0,0,0,0,0,0,0,0,0,0,0,0,0,
853,-78.62,-41.61,-90.67,-31.06,-92.96,-48.72,-33.49,154.4,-35.01,-13.29,-70.84,-77.7,-79.37,-59.32,-88.82,-163.9,0,0,0,0,0,0,0,0,0,0,0,0,0,0,0,0,
854,-57.47,-37.07,-8.772,-12.77,-59.75,-83.52,-22.69,155.4,-43.09,-21.16,-78.12,-85.01,-68.26,-30.83,-101.1,-131.8,0,0,0,0,0,0,0,0,0,0,0,0,0,0,0,0,
855,-70.68,-43.27,8.061,7.548,-32.45,-83.31,-23.6,159.9,-44.93,-19.23,-82.11,-87.71,-51.13,-6.302,-89.14,-95.73,0,0,0,0,0,0,0,0,0,0,0,0,0,0,0,0,
856,-87.85,-47.11,-68.61,13.7,-38.38,-85.57,-21.99,167.1,-1.558,-7.684,-53.95,-54.69,-24.31,-1.146,-42.15,-62.32,0,0,0,0,0,0,0,0,0,0,0,0,0,0,0,0,
857,-58.29,-42.54,-79.34,11.26,-42.58,-107.2,-18.94,177.2,29.44,-12.05,-22.71,-16.17,-13.25,-7.633,-3.261,-59.52,0,0,0,0,0,0,0,0,0,0,0,0,0,0,0,0,
858,-32.7,-45.29,-19.41,12.56,-34.77,-69.76,-20.23,182.1,20.36,-36.39,-27.71,-14.69,-24.95,-19.3,1.106,-75.22,0,0,0,0,0,0,0,0,0,0,0,0,0,0,0,0,
