%OpenBCI Raw EXG Data
%Number of channels = 16
%Sample Rate = 125 Hz
%Board = OpenBCI_GUI$BoardCytonSerialDaisy
Sample Index,EXG Channel 0,EXG Channel 1,EXG Channel 2,EXG Channel 3,EXG Channel 4,EXG Channel 5,EXG Channel 6,EXG Channel 7,EXG Channel 8,EXG Channel 9,EXG Channel 10,EXG Channel 11,EXG Channel 12,EXG Channel 13,EXG Channel 14,EXG Channel 15,Accel Channel 0,Accel Channel 1,Accel Channel 2,Other,Other,Other,Other,Other,Other,Other,Analog Channel 0,Analog Channel 1,Analog Channel 2,Timestamp,Other,Timestamp (Formatted),Annotations
1,0,0,-0,-0,-0,-0,0,0,-0,0,0,-0,-0,0,0,-0,0,0,0,0,0,0,0,0,0,0,0,0,0,0,0,0,T0
2,-40.29,-23.1,-24.59,-17.06,-18.58,-8.632,-2.811,-5.817,8.453,0.686,28.57,27.64,29.83,36.29,50.82,49.25,0,0,0,0,0,0,0,0,0,0,0,0,0,0,0,0,
3,-14.06,4.343,-9.048,9.76,-21.65,14.05,11.56,-13.85,27.91,-14.48,28.89,33.85,26.1,17.35,47.91,35.73,0,0,0,0,0,0,0,0,0,0,0,0,0,0,0,0,
4,-24.19,-4.8,-22.94,15.57,-45.68,9.38,4.256,-36.26,2.577,-37.88,21.2,25.76,2.737,-7.322,58.36,19.86,0,0,0,0,0,0,0,0,0,0,0,0,0,0,0,0,
5,-42.15,-27.85,-10.71,9.873,-26.75,15.18,-0.425,-38.97,-12.82,-50.1,46.32,53.03,14.64,10.76,118,56.78,0,0,0,0,0,0,0,0,0,0,0,0,0,0,0,0,
6,7.908,-1.125,61.67,33.54,47.43,69.37,22.26,-18.78,30.87,-57.19,72.8,93.82,47.03,28.86,147,87.52,0,0,0,0,0,0,0,0,0,0,0,0,0,0,0,0,
7,37.18,10.7,62.84,43.41,57.44,83.48,28,-25.08,56.86,-73.58,63.89,85.31,37.49,14.56,121.9,69.63,0,0,0,0,0,0,0,0,0,0,0,0,0,0,0,0,
8,16.64,-9.812,-0.3633,28.48,10.99,48.59,22.72,-47.47,57.1,-86.16,71.2,69.63,14.26,8.893,120.6,61.7,0,0,0,0,0,0,0,0,0,0,0,0,0,0,0,0,
9,16.63,-9.985,1.966,22.41,4.893,42.26,32.98,-48.21,75.47,-84.37,108.1,90.8,26.48,27.9,147.1,85.26,0,0,0,0,0,0,0,0,0,0,0,0,0,0,0,0,
10,29.05,-5.671,41.7,20.24,20.58,55.8,25.75,-42.64,85.84,-82.47,108.9,99.77,39.09,31.35,134.4,86.91,0,0,0,0,0,0,0,0,0,0,0,0,0,0,0,0,
11,30.9,-15.85,38.91,19.75,17.07,65.27,13.67,-38.84,88.83,-73.07,82.57,87.17,37.71,17.76,101.9,76.09,0,0,0,0,0,0,0,0,0,0,0,0,0,0,0,0,
12,46.56,-3.519,36.76,45.55,14.52,88.84,41.94,-17.48,95.44,-42.95,74.52,83.02,46.15,11.97,87.81,78.19,0,0,0,0,0,0,0,0,0,0,0,0,0,0,0,0,
13,51.9,16.2,54.01,64.14,-1.502,87.84,51.63,-6.912,55.21,-30.64,48.06,58.55,34.77,-1.954,55.68,49.66,0,0,0,0,0,0,0,0,0,0,0,0,0,0,0,0,
14,13.3,-4.437,36.77,28.75,-31.34,40.93,10.6,-21.8,-1.661,-32.66,8.857,27.71,14.06,-10.5,31.64,18.82,0,0,0,0,0,0,0,0,0,0,0,0,0,0,0,0,
15,-2.488,-11.62,19.47,7.47,-5.399,18.71,10.72,-3.147,14.9,4.677,24.28,54.45,40.86,15.52,71.23,45.15,0,0,0,0,0,0,0,0,0,0,0,0,0,0,0,0,
16,37.81,28.39,41.04,40.5,41.89,25.08,47.02,38.28,57.62,28.11,53.58,92.15,65.48,26.56,105.1,61.89,0,0,0,0,0,0,0,0,0,0,0,0,0,0,0,0,
17,53.81,39.58,52.29,50.64,28.4,25.71,45.88,38.32,58.69,-3.824,48.04,83.44,45.96,8.594,90.13,40.12,0,0,0,0,0,0,0,0,0,0,0,0,0,0,0,0,
18,36.96,23.79,48.31,36.11,19.85,60.58,49.42,23.69,52.62,-13.71,48.51,72.62,39.75,13.68,82.06,41,0,0,0,0,0,0,0,0,0,0,0,0,0,0,0,0,
19,31.19,25.14,35.5,40.2,45.24,90.21,64.25,23.26,38.92,-8.121,45.61,66.12,39.37,17.79,81.87,44.67,0,0,0,0,0,0,0,0,0,0,0,0,0,0,0,0,
20,15.46,10.72,14,41.74,40.99,55.11,41.75,26.38,23.89,-30.93,32.41,51.06,15.49,-1.607,81.22,33.67,0,0,0,0,0,0,0,0,0,0,0,0,0,0,0,0,
21,6.925,-6.086,40.49,43.78,34.16,43.43,21.01,35.15,52.75,-34.65,49.65,61.86,9.892,-0.5741,99.38,48.58,0,0,0,0,0,0,0,0,0,0,0,0,0,0,0,0,
22,27.76,2.371,76.26,44.52,34.82,74.3,20.38,23.18,65.6,-28.06,60.92,76.86,23.38,15.4,104.3,70.68,0,0,0,0,0,0,0,0,0,0,0,0,0,0,0,0,
23,26.29,-1.836,50,26.31,12.65,52.06,15.35,-3.879,28.77,-45.15,41.52,62.63,27.49,16.41,91.33,74.84,0,0,0,0,0,0,0,0,0,0,0,0,0,0,0,0,
24,-0.9422,-17.08,29.44,18.22,10.4,0.747,11.87,-0.14,24.57,-47.69,33.67,48.63,27.32,6.461,94.33,72.98,0,0,0,0,0,0,0,0,0,0,0,0,0,0,0,0,
25,-17.1,-22.42,24.11,9.642,11.27,-16.48,-8.606,12.18,36.96,-40.47,26.49,42.84,16.83,-12.73,88.41,54.63,0,0,0,0,0,0,0,0,0,0,0,0,0,0,0,0,
26,-32.62,-35.66,-25.88,-22.52,-35.37,-26.98,-42.97,5.84,8.007,-60.98,8.476,29.33,-4.035,-28.42,54.89,26.47,0,0,0,0,0,0,0,0,0,0,0,0,0,0,0,0,
27,-45.66,-49.9,-49.09,-28.02,-56.59,-26.96,-42.14,5.897,8.591,-82.73,13.39,22.98,-6.357,-20.35,34.04,21.85,0,0,0,0,0,0,0,0,0,0,0,0,0,0,0,0,
28,-30.33,-36.58,-2.87,2.985,-13.77,7.476,-13.45,26.04,54.79,-72.9,21.13,29.35,14.14,-7.961,31.81,29.58,0,0,0,0,0,0,0,0,0,0,0,0,0,0,0,0,
29,-5.288,-4.821,23.51,20.8,9.245,23.41,7.158,57.28,43.58,-52.72,-4.568,26.74,29.34,-14.96,22.76,27.64,0,0,0,0,0,0,0,0,0,0,0,0,0,0,0,0,
30,-0.7239,16.71,21.16,35.46,5.541,23.4,29.26,85.11,1.203,-35.02,-17.34,25.9,38.45,-12.77,30.87,39.52,0,0,0,0,0,0,0,0,0,0,0,0,0,0,0,0,
31,2.005,28.21,43.45,63.38,25.05,60.37,50.94,91.79,20.59,-4.373,6.33,36.45,45.56,3.773,48.53,49.68,0,0,0,0,0,0,0,0,0,0,0,0,0,0,0,0,
32,-0.7201,23.28,39.42,51.36,7.87,51.87,31.29,62.45,30.54,11.84,-6.727,11.88,19.16,-13.87,16.27,11.57,0,0,0,0,0,0,0,0,0,0,0,0,0,0,0,0,
33,-39.5,-10.74,-10.48,-0.1083,-58.73,-25.51,-9.395,25.7,-15.29,-3.914,-52.11,-31.97,-18.25,-38.06,-21.39,-24.36,0,0,0,0,0,0,0,0,0,0,0,0,0,0,0,0,
34,-62.8,-30.75,-21.96,-20.19,-64.48,-28.37,-9.918,32.98,-20.95,-14.71,-44.62,-21.98,-16.84,-20.8,-0.9292,-15.22,0,0,0,0,0,0,0,0,0,0,0,0,0,0,0,0,
35,-28.54,-20.18,1.863,-8.458,-10.34,30.16,8.196,60.46,23,-18.23,-0.0833,18.91,-6.799,-9.915,29.46,-6.49,0,0,0,0,0,0,0,0,0,0,0,0,0,0,0,0,
36,11.83,-13.46,21.49,15.5,31.07,49.04,19.62,74.17,54.27,-15.03,29.88,42.93,-5.338,-15.01,44.41,2.194,0,0,0,0,0,0,0,0,0,0,0,0,0,0,0,0,
37,31.92,0.3763,58.61,52.58,51.36,57.71,44.63,94.86,57.98,6.319,31.91,43.91,0.3779,-3.101,47.72,13.05,0,0,0,0,0,0,0,0,0,0,0,0,0,0,0,0,
38,29.47,18.67,63.82,61.1,30.72,49.8,58.08,104.8,32.75,9.214,4.124,19.09,-9.671,0.3738,28.95,0.5242,0,0,0,0,0,0,0,0,0,0,0,0,0,0,0,0,
39,5.31,17.96,15.11,51.88,-1.605,18,54.02,86.08,19.51,-7.698,1.13,12.61,-14.15,0.3485,30.15,5.981,0,0,0,0,0,0,0,0,0,0,0,0,0,0,0,0,
40,1.587,17.34,6.644,56.63,11.01,27.62,56.38,66.54,40.87,-17.95,37.47,40.33,6.071,17.37,58.48,32.62,0,0,0,0,0,0,0,0,0,0,0,0,0,0,0,0,
41,18.71,11.76,33.14,32.97,17.18,45.8,41.02,44.25,49.05,-36.09,47.94,52.34,15.44,19.6,75.21,36.16,0,0,0,0,0,0,0,0,0,0,0,0,0,0,0,0,
42,25.49,-3.013,21.45,1.965,-3.65,28.83,19.05,19.88,48.4,-52.93,43.76,56.74,17.66,4.118,86.51,39.42,0,0,0,0,0,0,0,0,0,0,0,0,0,0,0,0,
43,32.43,1.358,6.329,15.67,4.688,29.13,29.37,21.93,69.79,-55.25,67.7,74.42,29.24,-0.468,86.97,51.84,0,0,0,0,0,0,0,0,0,0,0,0,0,0,0,0,
44,39.79,11.02,25.35,37.44,31.61,47.94,42.82,39.46,80.39,-56.49,82.35,73.86,27.86,2.145,67.45,45.33,0,0,0,0,0,0,0,0,0,0,0,0,0,0,0,0,
45,27.87,3.809,35.27,37.57,33.3,33.04,24.85,34.89,49.23,-55.23,50.25,46.32,7.311,-4.21,49.73,26.08,0,0,0,0,0,0,0,0,0,0,0,0,0,0,0,0,
46,-4.031,-10.85,20.07,17.82,10.14,3.895,0.2166,12.99,15.31,-50.32,17.07,23.79,-5.009,-0.4092,43.23,17.59,0,0,0,0,0,0,0,0,0,0,0,0,0,0,0,0,
47,-27.09,-18.61,14.81,-7.571,-6.802,10.61,-1.902,6.273,27.66,-40.04,35.28,27.88,1.734,26.85,46.47,21.65,0,0,0,0,0,0,0,0,0,0,0,0,0,0,0,0,
48,-17.34,-16.64,8.104,-13.37,-4.791,20.24,-4.153,7.276,42.01,-30.11,50.61,33.58,-3.523,30.56,41.65,12.37,0,0,0,0,0,0,0,0,0,0,0,0,0,0,0,0,
49,-1.424,-18.86,-16.2,-11.55,3.576,-0.8386,-18.13,9.354,26.11,-28.13,17.92,23.41,-20.91,4.567,23.34,-5.399,0,0,0,0,0,0,0,0,0,0,0,0,0,0,0,0,
50,-2.705,-24.33,-20.33,-8.942,8.443,-15.25,-20.44,26.78,27.29,-13.87,-15.08,9.903,-28.77,-8.758,5.025,-14.29,0,0,0,0,0,0,0,0,0,0,0,0,0,0,0,0,
51,-22.11,-37.75,-19.62,-7.34,-14.38,-36.2,-32.15,30.86,6.832,4.017,-43.88,-17.46,-47.42,-24.6,-19.64,-31.64,0,0,0,0,0,0,0,0,0,0,0,0,0,0,0,0,
52,-48.28,-55.48,-22.55,-13.51,-35.05,-55.17,-35.09,33.65,-46.7,14.95,-52.52,-25,-44.48,-26.75,-14.92,-20.49,0,0,0,0,0,0,0,0,0,0,0,0,0,0,0,0,
53,-27.25,-21.45,25.7,15.89,9.278,-0.5079,25.64,78.25,-21.63,40.73,0.859,22.18,8.525,11.47,31.14,32.08,0,0,0,0,0,0,0,0,0,0,0,0,0,0,0,0,
54,23.69,33.68,59.25,67,45.21,52.54,66.77,102.2,37.47,51.06,31.89,44.09,23.66,15.56,38.09,34.4,0,0,0,0,0,0,0,0,0,0,0,0,0,0,0,0,
55,20.08,20.17,14.34,63.7,15.57,30.92,29.69,74.44,31.07,31.06,8.824,23.76,-3.722,-18.81,17.5,0.6842,0,0,0,0,0,0,0,0,0,0,0,0,0,0,0,0,
56,0.2172,-5.701,-2.076,37.67,13.98,31.76,10.89,58.68,41.07,30.25,29.09,42.21,14.48,-12.04,36.49,13.13,0,0,0,0,0,0,0,0,0,0,0,0,0,0,0,0,
57,26.22,20.83,30.69,48.71,47.94,65.56,27.83,54.16,85.36,40.89,65.73,70.68,43.9,7.166,47.62,23.49,0,0,0,0,0,0,0,0,0,0,0,0,0,0,0,0,
58,47.06,38.42,25.08,62.85,42.33,64.28,21,38.14,77.85,24.74,48.45,52.97,26.53,-8.38,23.08,-1.67,0,0,0,0,0,0,0,0,0,0,0,0,0,0,0,0,
59,31.99,17.67,1.861,46.91,19.76,51.65,6.01,25.41,46.29,-2.746,31.75,28.07,-2.158,-24.65,14.48,-6.829,0,0,0,0,0,0,0,0,0,0,0,0,0,0,0,0,
60,7.668,-9.88,1.641,25.77,14.76,40.65,-0.1856,18.62,35.32,-16.75,40.78,18.72,-17.11,-24.24,23.36,4.622,0,0,0,0,0,0,0,0,0,0,0,0,0,0,0,0,
61,-18.84,-32.45,10.58,23.5,10.88,28.68,-4.758,26.87,27.13,-16.73,28.78,2.302,-30.27,-25.27,18.32,-2.352,0,0,0,0,0,0,0,0,0,0,0,0,0,0,0,0,
62,-37.76,-41.67,39.93,33.66,12.04,40.58,11.99,51.36,30.8,-3.823,9.856,-10.84,-36.56,-27.3,11.81,-5.075,0,0,0,0,0,0,0,0,0,0,0,0,0,0,0,0,
63,-26.72,-29.14,77.39,49.98,22.23,51,44.72,69.44,36.71,23.73,18.17,-1.623,-27.1,-13.96,19.69,12.21,0,0,0,0,0,0,0,0,0,0,0,0,0,0,0,0,
64,-5.533,-14.4,55.28,56.42,8.804,31.54,45.84,64.58,11.1,38.47,14.03,-0.1098,-21.29,12.03,12.63,17.94,0,0,0,0,0,0,0,0,0,0,0,0,0,0,0,0,
65,-10.18,-17.05,-20.34,32.16,-19.96,11.24,13.9,38.59,-9.895,26.29,-18.92,-16.38,-27.18,28.32,-14.34,6.427,0,0,0,0,0,0,0,0,0,0,0,0,0,0,0,0,
66,-15.49,-16.2,-57.64,15.12,-14.35,13.02,-0.2235,22.84,8.083,34.31,-19.35,-5.002,-19.26,27.95,-11.66,6.147,0,0,0,0,0,0,0,0,0,0,0,0,0,0,0,0,
67,7.41,6.158,-43.16,36.36,2.141,29.3,13.68,32.7,29.87,70.12,22.57,31.47,4.956,30.4,24,19.44,0,0,0,0,0,0,0,0,0,0,0,0,0,0,0,0,
68,27.45,28.98,-32.16,49.7,-5.016,41.42,30.14,42.29,38.11,84.63,50.26,49.89,25.46,49.39,44.13,30.15,0,0,0,0,0,0,0,0,0,0,0,0,0,0,0,0,
69,25.71,35.89,-28.35,30.31,-5.103,30.4,31.68,43.82,34.36,76.58,42.16,46.82,32.42,58.98,33.06,27,0,0,0,0,0,0,0,0,0,0,0,0,0,0,0,0,
70,13.74,29.37,-24.39,12.73,-3.164,5.504,11.88,46.76,13.07,65.05,19.2,32.66,21.74,34.88,11,9.829,0,0,0,0,0,0,0,0,0,0,0,0,0,0,0,0,
71,-2.095,18.52,-28.96,22.04,-16.26,-8.361,2.808,50.12,-0.8964,44.93,6.089,18.14,8.803,6.08,2.24,-3.283,0,0,0,0,0,0,0,0,0,0,0,0,0,0,0,0,
72,-7.09,17.23,-27.29,44.23,-9.498,3.974,27.12,61.39,7.727,31.54,9.893,21.87,15.67,3.831,18.03,3.271,0,0,0,0,0,0,0,0,0,0,0,0,0,0,0,0,
73,10.44,30.96,-2.378,58.64,24.25,51.27,51.24,89.74,27.73,43.67,26.08,40.95,33.75,16.13,44.17,23.1,0,0,0,0,0,0,0,0,0,0,0,0,0,0,0,0,
74,29.19,44.75,31.21,71.34,46.34,82.1,50.81,110.1,35.34,53.37,38.83,47.15,31.35,16.56,53.1,24.83,0,0,0,0,0,0,0,0,0,0,0,0,0,0,0,0,
75,10.85,27.08,26.92,71.75,29.34,37.97,25.38,90.36,1.641,34.98,25.22,26.71,-1.168,-2.033,42.17,-2.828,0,0,0,0,0,0,0,0,0,0,0,0,0,0,0,0,
76,-31.34,-16.78,-17.18,43.07,-0.4232,-6.626,-10.53,60.56,-25.76,16.03,8.769,7.056,-32.19,-26.04,34.11,-20.54,0,0,0,0,0,0,0,0,0,0,0,0,0,0,0,0,
77,-41.24,-45.37,-39.29,26.18,-0.4506,9.063,-26.28,59.33,4.923,12.98,22.69,5.524,-44.7,-47,28.56,-17.94,0,0,0,0,0,0,0,0,0,0,0,0,0,0,0,0,
78,-29.88,-60.15,-26.54,36.14,2.748,8.137,-29.34,61.51,23.79,9.485,31.17,-1.133,-55.63,-57.59,12.66,-25.02,0,0,0,0,0,0,0,0,0,0,0,0,0,0,0,0,
79,-44.68,-78.92,-19.71,19,-21.76,-35.13,-48.81,46.33,-11.66,-1.533,1.697,-23.58,-71.41,-54.18,-7.228,-38.37,0,0,0,0,0,0,0,0,0,0,0,0,0,0,0,0,
80,-71.99,-94.73,-43.87,-23.29,-36.89,-63.73,-78.11,29.81,-29.94,-20.51,-21.07,-39.65,-80.67,-49,-12.47,-34.61,0,0,0,0,0,0,0,0,0,0,0,0,0,0,0,0,
81,-77.2,-95.43,-78.91,-24.68,-15.54,-56.05,-88.5,33.35,4.079,-14.07,7.889,-24.17,-61.29,-30.23,13.49,-7.436,0,0,0,0,0,0,0,0,0,0,0,0,0,0,0,0,
82,-58.71,-62.73,-69.42,13.03,10.35,-31.35,-70.73,61.1,34.53,34.11,39.51,0.7988,-24.52,1.816,33.66,13.8,0,0,0,0,0,0,0,0,0,0,0,0,0,0,0,0,
83,-48.14,-24.87,-37.14,23.56,0.3003,-31.35,-55.67,70.71,19.69,52.99,14.01,-8.376,-17.49,5.812,6.857,-0.077,0,0,0,0,0,0,0,0,0,0,0,0,0,0,0,0,
84,-60.23,-28.26,-50.72,-1.962,-32.2,-53.19,-62.96,40.95,-6.501,25.54,-21.26,-23.85,-27.42,-5.868,-16.94,-18.45,0,0,0,0,0,0,0,0,0,0,0,0,0,0,0,0,
85,-63.53,-39.34,-77.3,-22.34,-53.3,-56.47,-65.47,14.58,-12.53,14.14,-19.37,-10.2,-16.66,3.651,-5.222,-15.57,0,0,0,0,0,0,0,0,0,0,0,0,0,0,0,0,
86,-47.74,-25.2,-69.8,-18.65,-56.56,-42.73,-42.98,14.52,-7.105,19.4,-3.232,9.178,1.436,13.94,9.8,-5.799,0,0,0,0,0,0,0,0,0,0,0,0,0,0,0,0,
87,-27.69,-6.52,-50.49,6.843,-33.2,-14.11,-13.64,26.66,2.434,17.22,11.22,21.55,10.85,1.37,18.23,-0.5319,0,0,0,0,0,0,0,0,0,0,0,0,0,0,0,0,
88,-15.3,4.149,-36.77,23.68,-4.911,14.84,-4.719,35.88,-3.264,10.64,4.743,19.45,7.302,-21.42,10.27,-7.616,0,0,0,0,0,0,0,0,0,0,0,0,0,0,0,0,
89,-25.78,3.029,-31.58,21.15,-5.694,14.79,-3.49,41.3,-15.28,7.886,-10.18,8.269,0.5825,-19.77,-0.8082,-2.516,0,0,0,0,0,0,0,0,0,0,0,0,0,0,0,0,
90,-32.34,-2.433,-29.15,37.68,-7.141,19.07,12.45,46.62,-3.367,13.78,6.205,16.49,1.569,3.029,16.01,22.56,0,0,0,0,0,0,0,0,0,0,0,0,0,0,0,0,
91,-13.86,-9.219,-14.55,59.28,-0.5315,41.69,15.17,34.27,-4.332,8.046,10.05,19.21,-15.7,-7.529,18.33,11.35,0,0,0,0,0,0,0,0,0,0,0,0,0,0,0,0,
92,-7.677,-31.02,4.364,54.97,-5.089,42.99,-1.524,10.58,-29.11,-8.332,-20.75,-2.38,-47.68,-44.91,-8.694,-25.62,0,0,0,0,0,0,0,0,0,0,0,0,0,0,0,0,
93,-20.11,-55.97,0.7167,48.99,-1.419,26.87,-5.143,1.678,-27,-12.89,-17.81,-3.948,-52.92,-56.76,-1.067,-22.81,0,0,0,0,0,0,0,0,0,0,0,0,0,0,0,0,
94,-18.8,-61.75,-25.31,41.99,6.338,29.09,3.074,-0.2378,0.663,-8.396,29.46,26.95,-29.69,-44.11,38.9,7.059,0,0,0,0,0,0,0,0,0,0,0,0,0,0,0,0,
95,2.119,-43.13,-33.38,30.29,-5.921,48.64,10.24,-0.6082,17.54,12.74,58.7,45.53,-12.28,-33.34,45.6,13.62,0,0,0,0,0,0,0,0,0,0,0,0,0,0,0,0,
96,5.648,-26.47,-25.3,29.64,-38.54,21.6,-4.12,-5.949,-2.335,35.19,29.72,17.46,-27.99,-36.32,13.73,-10.89,0,0,0,0,0,0,0,0,0,0,0,0,0,0,0,0,
97,-35.48,-40.27,-40.73,22.68,-68.32,-60.94,-43.47,-18.07,-35.69,30.59,-16.41,-20.94,-47.45,-40.15,-6.469,-28.69,0,0,0,0,0,0,0,0,0,0,0,0,0,0,0,0,
98,-70.31,-48.01,-65.08,-1.071,-65.18,-93.28,-65.19,-10.77,-34.27,27.11,-21.59,-27.01,-37.94,-36.87,-11.29,-24.66,0,0,0,0,0,0,0,0,0,0,0,0,0,0,0,0,
99,-68.86,-31.09,-76.87,-23.01,-54.3,-59.64,-66.85,3.657,-26.66,34.58,-15.32,-26.97,-28.53,-37.54,-18.62,-17.49,0,0,0,0,0,0,0,0,0,0,0,0,0,0,0,0,
100,-62.28,-19.1,-67.22,-9.808,-51.21,-37.31,-54.13,15.79,-23.4,41.67,-12.82,-17.5,-12.22,-21.9,2.904,11.81,0,0,0,0,0,0,0,0,0,0,0,0,0,0,0,0,
101,-42.14,2.864,-24.94,38.21,-25.45,-26.1,-11.33,37.61,2.68,51.86,10.11,15,22.46,-2.182,35.59,46.74,0,0,0,0,0,0,0,0,0,0,0,0,0,0,0,0,
102,-21.64,26.23,7.386,56.16,-2.059,-7.95,13.27,27.6,4.196,39.16,16.89,22.83,20.98,-30.7,25.77,27.12,0,0,0,0,0,0,0,0,0,0,0,0,0,0,0,0,
103,-23.68,20,7.531,46.3,6.212,15.19,6.411,-2.485,-15.02,14.55,3.616,16.28,-6.287,-68.4,8.885,-9.151,0,0,0,0,0,0,0,0,0,0,0,0,0,0,0,0,
104,-4.819,17.77,1.26,65.23,24.23,42.37,23.93,12.13,-3.868,21.16,10.66,34.88,-2.514,-50.04,26.78,2.565,0,0,0,0,0,0,0,0,0,0,0,0,0,0,0,0,
105,24.15,30.56,-4.06,90.84,29.96,51.46,54.85,42.11,-0.076,42.18,22.81,51.85,20.08,-1.633,60.15,39.03,0,0,0,0,0,0,0,0,0,0,0,0,0,0,0,0,
106,20.49,24.76,13.01,97.71,22.94,49,59.05,42.12,-15.25,42.07,18.76,44.66,17.35,7.92,66.54,44.17,0,0,0,0,0,0,0,0,0,0,0,0,0,0,0,0,
107,4.113,-10.25,33.51,89.89,22.06,51.65,36.99,26.41,-8.873,14.8,6.199,17.64,-24.95,-35.38,27.6,9.167,0,0,0,0,0,0,0,0,0,0,0,0,0,0,0,0,
108,-6.862,-48.85,16.71,77.8,27.22,52.48,17.47,18.45,14.37,-0.0248,3.575,-0.4172,-55.26,-59.7,4.391,-9.379,0,0,0,0,0,0,0,0,0,0,0,0,0,0,0,0,
109,-1.709,-49.49,5.238,87.42,43.47,46.08,19.91,22.54,23.65,20.24,6.326,5.581,-42.78,-46.52,15.31,-1.889,0,0,0,0,0,0,0,0,0,0,0,0,0,0,0,0,
110,5.627,-35.13,8.346,80.51,36.42,17.57,6.743,13.88,7.248,18.52,-12.31,-3.056,-36.68,-52.5,0.2073,-13.29,0,0,0,0,0,0,0,0,0,0,0,0,0,0,0,0,
111,-14.73,-40.39,3.893,38.05,1.038,-8.178,-24.31,-4.225,3.059,-6.017,-25.03,-16.01,-34.69,-54.43,-14.44,-16.2,0,0,0,0,0,0,0,0,0,0,0,0,0,0,0,0,
112,-24.76,-25.86,17.33,30.59,-8.255,10.72,-12.65,-4.684,18.2,0.7026,-12.83,1.054,-7.429,-32.38,2.539,6.923,0,0,0,0,0,0,0,0,0,0,0,0,0,0,0,0,
113,-1.054,10.92,19.23,51.7,6.101,39.87,31.94,3.058,6.684,13.63,-12.79,18.79,15.71,-27.54,8.252,15.24,0,0,0,0,0,0,0,0,0,0,0,0,0,0,0,0,
114,20.6,36.29,-1.998,51.97,23.37,44.53,55.16,16.88,1.764,18.37,-17.48,24.36,28.28,-19.17,9.612,15.78,0,0,0,0,0,0,0,0,0,0,0,0,0,0,0,0,
115,28.42,56,4.406,53,36.47,45.12,53.6,35.56,31.91,38.82,-7.138,27,40.23,9.837,29.56,28.08,0,0,0,0,0,0,0,0,0,0,0,0,0,0,0,0,
116,24.06,63.35,15.94,68.96,28.66,61.47,53.96,40.66,36.46,49.33,5.126,26.11,45.19,25.99,54.22,43.03,0,0,0,0,0,0,0,0,0,0,0,0,0,0,0,0,
117,16.05,54.3,11.41,86.68,25.31,78.29,63.55,43.5,10.93,32.49,16.59,33.67,44.6,23.36,70.09,46.77,0,0,0,0,0,0,0,0,0,0,0,0,0,0,0,0,
118,19.55,44.26,27.54,96.65,44.01,70.23,65.15,52.35,3.689,13.47,22.79,44.68,30.64,7.726,68.48,30,0,0,0,0,0,0,0,0,0,0,0,0,0,0,0,0,
119,29.77,35.26,59.76,96.81,61.51,70.01,61.36,56.64,27.41,6.856,25.23,48.72,10.33,-13.8,61.04,11.29,0,0,0,0,0,0,0,0,0,0,0,0,0,0,0,0,
120,39.2,27.61,67.72,87.46,63.26,82.61,54.55,52.96,59.55,2.484,24.77,41.38,-4.252,-32.08,48.74,-2.088,0,0,0,0,0,0,0,0,0,0,0,0,0,0,0,0,
121,34.87,11.62,39.61,60.38,44.54,42.9,29.02,40.8,57.13,-6.538,10.59,19.14,-19.19,-42.61,28.52,-9.615,0,0,0,0,0,0,0,0,0,0,0,0,0,0,0,0,
122,15.2,-12.8,21.92,38.65,28.41,-7.901,1.814,28.16,28.67,-10.22,-1.154,6.808,-23.59,-36.45,33.72,12.81,0,0,0,0,0,0,0,0,0,0,0,0,0,0,0,0,
123,-2.579,-34.49,34.97,37.11,28.27,-6.345,-22.8,6.741,20.73,-8.7,-2.032,7.567,-26.68,-30.38,51.66,39.42,0,0,0,0,0,0,0,0,0,0,0,0,0,0,0,0,
124,-24.06,-66.25,20.17,20.09,13.44,-18.37,-59.12,-29.43,18.8,-6.191,-9.034,-4.974,-45.33,-30.78,40.3,37.79,0,0,0,0,0,0,0,0,0,0,0,0,0,0,0,0,
125,-45.76,-89.17,-20.23,-2.036,-10.87,-47.07,-70.57,-43.56,4.39,-1.456,-15.77,-15.41,-43.29,-11.3,31.85,43.56,0,0,0,0,0,0,0,0,0,0,0,0,0,0,0,0,
126,-40.98,-64.56,-28.71,6.848,-12.05,-22.07,-38.94,-27.19,10.37,-3.438,-1.758,1.553,-11.07,13.14,58.91,65.31,0,0,0,0,0,0,0,0,0,0,0,0,0,0,0,0,
127,-13.79,-18.88,-20.15,19.13,-0.0368,9.883,-2.999,-17.52,28.01,-5.726,26.95,30.39,8.8,14.72,85.68,70.74,0,0,0,0,0,0,0,0,0,0,0,0,0,0,0,0,
128,10.13,9.483,-12.46,13.37,2.294,1.964,13.34,-17.71,24.44,9.026,37.92,45.74,15.68,13.3,84.18,70.93,0,0,0,0,0,0,0,0,0,0,0,0,0,0,0,0,
129,21.92,31.35,13.99,20.02,7.574,12.85,17.15,1.337,32.34,38.99,27.96,44.89,31.86,26.85,67.64,81.92,0,0,0,0,0,0,0,0,0,0,0,0,0,0,0,0,
130,18.74,48.17,35.32,41.2,25.14,36.23,16.6,30.62,45.27,59.94,12.02,26.96,29.9,27.65,42.71,69.78,0,0,0,0,0,0,0,0,0,0,0,0,0,0,0,0,
131,-7.408,35.02,30.75,41.12,31.03,22.52,12.67,36.94,16.68,44.7,-12.86,-0.5352,-1.223,-5.327,22.45,33.83,0,0,0,0,0,0,0,0,0,0,0,0,0,0,0,0,
132,-20.93,19.41,46.32,40.22,42.86,34.97,27.37,44.36,15.41,18.89,-13.61,4.173,-8.883,-32.82,30.7,30.19,0,0,0,0,0,0,0,0,0,0,0,0,0,0,0,0,
133,15.14,41.27,86.37,70.7,74.95,85.88,63.54,67.34,59.2,14.15,8.093,27.07,3.268,-33.54,30.53,42.53,0,0,0,0,0,0,0,0,0,0,0,0,0,0,0,0,
134,39.9,52.84,86.37,86.8,73.54,81.72,69.94,56.2,47.72,1.737,-7.141,11.59,-17.56,-41.62,-3.067,23.7,0,0,0,0,0,0,0,0,0,0,0,0,0,0,0,0,
135,22.9,25.02,57.22,73.66,60.05,53.02,50.71,29.96,29.29,-23.22,-14.68,-3.261,-47.06,-61.18,-6.016,12.52,0,0,0,0,0,0,0,0,0,0,0,0,0,0,0,0,
136,22.31,3.384,54.21,65.91,77.61,61.03,49.87,36.37,66.46,-38.12,26.18,14.22,-57.54,-77.67,28.99,24.07,0,0,0,0,0,0,0,0,0,0,0,0,0,0,0,0,
137,23.34,-10.25,62.42,53.6,63.99,54.37,40.06,33.58,65.05,-56.36,35.05,10.27,-71.89,-86.82,33.62,19.88,0,0,0,0,0,0,0,0,0,0,0,0,0,0,0,0,
138,-7.962,-40.2,51.77,29.06,18.49,5.644,-13.4,-11.2,16.01,-91.83,-2.552,-20.01,-88.11,-80.36,1.688,8.82,0,0,0,0,0,0,0,0,0,0,0,0,0,0,0,0,
139,-42.37,-83.93,14.54,-18.44,2.247,-68.09,-88.47,-79.74,-17.15,-136.1,-33.5,-43.21,-95.31,-77.47,-24.63,8.451,0,0,0,0,0,0,0,0,0,0,0,0,0,0,0,0,
140,-67.46,-118.8,-24.7,-84.09,6.488,-110.8,-126.6,-130.9,-35.13,-146.7,-48.91,-50.18,-88.87,-85.14,-24.89,14.07,0,0,0,0,0,0,0,0,0,0,0,0,0,0,0,0,
141,-69.24,-103.7,-24.83,-85.2,11.05,-71.25,-98.24,-113,-27.53,-96.18,-41.67,-39.59,-64.69,-74.83,-12.78,26.07,0,0,0,0,0,0,0,0,0,0,0,0,0,0,0,0,
142,-43.81,-54.52,-10.68,-23.81,3.201,-27.41,-55.9,-54.11,1.426,-41.17,-14.74,-22.8,-33.8,-41.15,2.917,44.46,0,0,0,0,0,0,0,0,0,0,0,0,0,0,0,0,
143,-23.54,-17.81,-3.696,-0.4024,-6.566,-22.24,-36.08,-26.2,19.93,-17.79,-1.126,-8.078,-6.186,-3.321,24.36,59.72,0,0,0,0,0,0,0,0,0,0,0,0,0,0,0,0,
144,-17.67,4.652,12.25,-16.97,8.852,-8.118,-32.19,-33.79,15.69,2.065,-18.48,-10.29,-6.347,3.164,16.85,46.28,0,0,0,0,0,0,0,0,0,0,0,0,0,0,0,0,
145,-30.93,2.496,5.659,-23.12,14.21,-12.09,-46.85,-41.42,-8.562,13.48,-41.4,-34.3,-36.98,-30.02,-17.2,10.28,0,0,0,0,0,0,0,0,0,0,0,0,0,0,0,0,
146,-47.9,-14.78,-12.99,-4.873,4.675,-20.32,-36.93,-26.3,-5.891,-0.1687,-34.12,-37.8,-47.91,-51.99,-18.43,-3.303,0,0,0,0,0,0,0,0,0,0,0,0,0,0,0,0,
147,-22.02,-1.717,18.09,36.78,33.64,27.74,20.03,3.317,39.38,-11.77,-5.333,-3.75,-25.06,-45.23,11.76,16.75,0,0,0,0,0,0,0,0,0,0,0,0,0,0,0,0,
148,36.69,34.98,81.83,72.42,77.77,81.82,66.36,24.89,69.13,-0.4894,28.2,43.83,9.636,-34.51,46.85,52.66,0,0,0,0,0,0,0,0,0,0,0,0,0,0,0,0,
149,87.15,67.28,129.5,80.53,83.5,100.6,82.43,31.01,74.52,1.706,57.64,77.37,32.71,-29.96,71.44,71.12,0,0,0,0,0,0,0,0,0,0,0,0,0,0,0,0,
150,102,74.59,133.8,72.51,57.12,101.5,74.29,19.91,66.01,-22.54,46.39,57.7,5.795,-49.72,42.71,40.83,0,0,0,0,0,0,0,0,0,0,0,0,0,0,0,0,
151,61.29,35.76,85.1,52.56,17.62,73.08,33.2,-3.093,16.11,-33.43,-6.479,-3.048,-51.86,-88.09,-20.53,-3.442,0,0,0,0,0,0,0,0,0,0,0,0,0,0,0,0,
152,2.919,-17.95,33.89,27.97,-19.43,26.26,-2.694,-28.89,-38.69,-33.45,-46.59,-40.04,-78.67,-98.99,-43.09,-13.28,0,0,0,0,0,0,0,0,0,0,0,0,0,0,0,0,
153,-12.68,-40.07,38.7,21.05,-20.2,1.225,-4.696,-47.04,-37.61,-54.41,-46.53,-36.68,-73.97,-78.02,-27.26,-2.487,0,0,0,0,0,0,0,0,0,0,0,0,0,0,0,0,
154,2.404,-41.5,66.4,24.21,5,0.2316,-5.96,-52.62,-18.28,-69,-33.01,-28.06,-70.71,-68.52,-23,-3.139,0,0,0,0,0,0,0,0,0,0,0,0,0,0,0,0,
155,-0.8816,-49.4,51.45,9.15,-1.919,2.878,-15.55,-62.57,-21.85,-61.26,-29.47,-29.16,-71.31,-77.11,-22.26,-10.18,0,0,0,0,0,0,0,0,0,0,0,0,0,0,0,0,
156,-10.89,-43.54,30.66,-0.6517,-13.03,12.06,-0.2806,-66.14,-5.736,-54.97,-13.35,-15.16,-58.24,-69.35,-1.928,0.6927,0,0,0,0,0,0,0,0,0,0,0,0,0,0,0,0,
157,9.515,-8.786,49.22,15.35,18.74,24.92,26.32,-51.75,26.19,-61.74,10.22,9.771,-38.41,-48.32,9.266,18.64,0,0,0,0,0,0,0,0,0,0,0,0,0,0,0,0,
158,23.79,5.259,44.26,11.91,27.54,13.64,21.4,-58.86,15.12,-70.55,2.294,7.113,-30.79,-38.65,1.652,23.41,0,0,0,0,0,0,0,0,0,0,0,0,0,0,0,0,
159,-6.076,-15.69,12.21,-16.2,-6.387,-18.51,-10.25,-79.51,-20.52,-57.1,-21.12,-19.43,-35.58,-37.86,-8.342,15.39,0,0,0,0,0,0,0,0,0,0,0,0,0,0,0,0,
160,-48.8,-29.62,6.827,-39.27,-25.76,-52.08,-51.8,-75.45,-41.54,-33.66,-40.3,-47.15,-56.34,-43.79,-33.55,-8.814,0,0,0,0,0,0,0,0,0,0,0,0,0,0,0,0,
161,-70.47,-33.28,-6.367,-56.61,-32.53,-71.29,-74.53,-60.55,-39.8,-14.44,-47.13,-53.45,-67.55,-38.89,-43.34,-16.84,0,0,0,0,0,0,0,0,0,0,0,0,0,0,0,0,
162,-49,-21.52,-25.11,-40.01,-29.31,-48.81,-42.7,-45.68,-4.176,16.37,-19.1,-24.04,-39.69,-15.16,-12.65,11.89,0,0,0,0,0,0,0,0,0,0,0,0,0,0,0,0,
163,-1.984,6.797,-6.662,3.673,-8.282,-12.85,-2.965,-38.98,28.77,25.7,6.391,-0.7892,-18.76,-13.57,-1.208,21.28,0,0,0,0,0,0,0,0,0,0,0,0,0,0,0,0,
164,22.29,16.08,27.96,18.76,19.49,1.65,7.324,-34.71,29.45,6.141,2.854,2.4,-21.89,-26.4,-9.984,3.113,0,0,0,0,0,0,0,0,0,0,0,0,0,0,0,0,
165,38.07,19.6,62.96,20.05,55.16,24.06,23.52,-5.546,38.18,14.09,11.15,19.66,-10.95,-16.19,5.201,-4.06,0,0,0,0,0,0,0,0,0,0,0,0,0,0,0,0,
166,58.34,35.19,72.05,33.81,67.77,41.21,35.56,14.25,70.9,36.67,35.8,37.95,1.212,-2.467,22.26,-10.06,0,0,0,0,0,0,0,0,0,0,0,0,0,0,0,0,
167,61.83,39.43,52.32,44.62,53.53,30.08,38.96,4.741,98.12,35.98,53.44,40.51,1.088,1.509,23.83,-14.33,0,0,0,0,0,0,0,0,0,0,0,0,0,0,0,0,
168,61.69,37.61,65.17,45.23,57.37,36.61,60.25,11.74,84.3,19.12,45.33,30.52,-4.521,-6.187,12.47,-11.37,0,0,0,0,0,0,0,0,0,0,0,0,0,0,0,0,
169,57.27,36.52,88.85,42.48,60.69,63.71,70.39,34.02,38.43,-4.569,15.4,16.78,-16.46,-25.87,1.835,-15.21,0,0,0,0,0,0,0,0,0,0,0,0,0,0,0,0,
170,50.14,34.67,76,59.51,53.03,64.19,62.24,41.93,26.25,-21.58,7.459,25.84,-14.46,-28.54,9.91,-16.68,0,0,0,0,0,0,0,0,0,0,0,0,0,0,0,0,
171,60.12,36.49,54.99,75.39,65.8,46.68,57.32,30.17,41.93,-32.91,11.08,36.37,-3.286,-16.95,5.583,-13.08,0,0,0,0,0,0,0,0,0,0,0,0,0,0,0,0,
172,58.59,27.31,30.98,50.89,71.41,51.95,44.14,6.613,32.51,-41.38,-4.751,21.79,-1.863,-12.3,-9.846,-10.23,0,0,0,0,0,0,0,0,0,0,0,0,0,0,0,0,
173,37.71,14.41,10.78,28.26,42.62,57.58,29.41,-7.657,17.88,-37.23,-11.03,10.18,0.3912,-11.34,-0.2248,-7.392,0,0,0,0,0,0,0,0,0,0,0,0,0,0,0,0,
174,22.61,12.34,17.66,26.81,14.77,19.06,18.91,-14.12,13.09,-35.82,-2.537,5.259,1.79,-10.05,11.3,-8.396,0,0,0,0,0,0,0,0,0,0,0,0,0,0,0,0,
175,9.481,13.87,34.43,17.03,26.14,-13.48,5.306,-19.86,11.68,-34.26,7.662,8.675,9.434,8.831,18.7,-0.3364,0,0,0,0,0,0,0,0,0,0,0,0,0,0,0,0,
176,10.36,23.28,48.84,7.732,53.46,-5.11,-2.84,-23.72,21.78,-29.97,19.87,29.59,26.85,33.72,31.9,9.152,0,0,0,0,0,0,0,0,0,0,0,0,0,0,0,0,
177,16.66,18.89,39.98,-22.58,32.79,-29.86,-23.76,-52.89,10.62,-60.87,8.767,23.09,13.09,21.09,12.26,-13.9,0,0,0,0,0,0,0,0,0,0,0,0,0,0,0,0,
178,-11.6,-21.2,-11,-81.56,-25.23,-83.45,-67.05,-99.69,-19.45,-106.9,-16.98,-19.44,-29.39,-10.38,-33.26,-49.49,0,0,0,0,0,0,0,0,0,0,0,0,0,0,0,0,
179,-40.26,-48.71,-51.94,-91.85,-46.63,-81.02,-88.54,-106.7,0.3965,-106.5,-10.42,-34.85,-44.28,-22.9,-43.23,-47.76,0,0,0,0,0,0,0,0,0,0,0,0,0,0,0,0,
180,-21.82,-33.45,-44.12,-50.02,-21.21,-51.45,-74.78,-73.65,48.93,-68.41,20.41,-11.03,-27.68,-25.07,-12.52,-16.7,0,0,0,0,0,0,0,0,0,0,0,0,0,0,0,0,
181,-0.4144,-23.89,-31.79,-49.41,-3.757,-63.05,-74.83,-57.48,46.52,-46.95,26.74,-3.878,-28.23,-28.99,1.641,-9.633,0,0,0,0,0,0,0,0,0,0,0,0,0,0,0,0,
182,-22.13,-49.85,-53.64,-94.59,-22.93,-80.83,-104.7,-73.67,16.68,-57.12,0.7516,-32.47,-59.34,-37.7,-24.78,-35.37,0,0,0,0,0,0,0,0,0,0,0,0,0,0,0,0,
183,-54.74,-71.19,-77.97,-105.5,-46.19,-71.23,-118.7,-85.47,8.046,-61.07,-27.27,-60.45,-85.35,-49.37,-51.51,-51.9,0,0,0,0,0,0,0,0,0,0,0,0,0,0,0,0,
184,-69.5,-63.81,-63.05,-80.66,-50.27,-79.31,-102.1,-76.04,-6.774,-41.51,-46.19,-72.41,-85.2,-48.26,-54.88,-46.22,0,0,0,0,0,0,0,0,0,0,0,0,0,0,0,0,
185,-76.02,-48.86,-17.51,-61.77,-49.24,-89.62,-71.46,-47.84,-22.48,-14.14,-49.1,-68.94,-62.62,-23.93,-46.46,-30,0,0,0,0,0,0,0,0,0,0,0,0,0,0,0,0,
186,-61.12,-24.36,30.3,-24.52,-30.38,-44.75,-25.35,-4.928,-4.931,11.19,-33.32,-44.69,-33.18,0.9202,-34.03,-14.41,0,0,0,0,0,0,0,0,0,0,0,0,0,0,0,0,
187,-26.61,6.214,48.9,25.93,4.645,-2.631,11.71,15.99,1.312,8.989,-32.1,-23.84,-22.4,-7.089,-29.27,-16.66,0,0,0,0,0,0,0,0,0,0,0,0,0,0,0,0,
188,-9.768,13.34,27.02,37.41,6.26,-2.085,21.37,4.266,-30.14,-24.37,-48.77,-22.58,-26.45,-42.73,-35.31,-32.48,0,0,0,0,0,0,0,0,0,0,0,0,0,0,0,0,
189,-11.99,3.274,12.87,26.45,-23.63,7.119,26.45,-4.349,-47.96,-51.27,-52.26,-23.69,-27.65,-73.18,-37.81,-47.89,0,0,0,0,0,0,0,0,0,0,0,0,0,0,0,0,
190,-12.42,-2.925,34.66,34.26,-26.67,3.635,28.1,-8.387,-23.12,-56.07,-31.57,-7.979,-15.59,-60.48,-18.05,-43.86,0,0,0,0,0,0,0,0,0,0,0,0,0,0,0,0,
191,8.187,9.93,54.53,56.08,3.416,-12.21,27.52,-13.87,31.28,-40.51,19.56,32.34,21.05,-5.293,22.08,-7.522,0,0,0,0,0,0,0,0,0,0,0,0,0,0,0,0,
192,48.18,39.85,45.82,58.27,11.32,22.27,34.65,-11.24,70.2,-26.46,60.25,57.42,43.06,15.42,37.7,12.33,0,0,0,0,0,0,0,0,0,0,0,0,0,0,0,0,
193,60.03,46.33,21.41,31.92,-4.669,59.19,36.26,-5.912,55.08,-35.29,43.61,39.02,19.46,-20.27,22.85,-8.293,0,0,0,0,0,0,0,0,0,0,0,0,0,0,0,0,
194,40.83,31.3,14.19,24.94,7.382,43.28,34.56,3.702,26.15,-37.4,23,24.23,-2.248,-35.91,23.34,-19.96,0,0,0,0,0,0,0,0,0,0,0,0,0,0,0,0,
195,26.27,21.25,30.04,35.36,20.03,14.18,21.76,3.646,25.98,-33.7,32.29,19.96,-15.86,-23.67,19.07,-27.83,0,0,0,0,0,0,0,0,0,0,0,0,0,0,0,0,
196,-5.898,-15.23,17.44,0.614,-19.36,-24.72,-27.92,-30.28,16.94,-63.96,16.16,-19.2,-61.15,-33.98,-29.2,-68.03,0,0,0,0,0,0,0,0,0,0,0,0,0,0,0,0,
197,-62.38,-75.23,-40.82,-59.82,-72.57,-79.51,-82.1,-67.38,-19.54,-98.9,-27.91,-71.06,-106.9,-56.23,-74.32,-102.8,0,0,0,0,0,0,0,0,0,0,0,0,0,0,0,0,
198,-87.82,-93.06,-70.47,-69.65,-82.98,-86,-81.56,-56.33,-17.68,-78.16,-31,-74.2,-96.49,-50.1,-60.15,-85.81,0,0,0,0,0,0,0,0,0,0,0,0,0,0,0,0,
199,-55.15,-51.65,-22.46,-13.62,-48.44,-32.55,-35.55,-5.135,33.89,-18.39,14.05,-32.42,-45.23,-17.19,-21.4,-47.87,0,0,0,0,0,0,0,0,0,0,0,0,0,0,0,0,
200,-9.146,-7.921,34.05,31.15,-22.92,-9.255,-16.27,23.24,45.28,5.445,32.27,-7.667,-15.18,1.395,-16.64,-38.07,0,0,0,0,0,0,0,0,0,0,0,0,0,0,0,0,
201,-1.694,-9.646,26.91,3.546,-44.79,-37.85,-37.54,11.14,16.28,-13,8.934,-11.95,-14.44,3.276,-19.29,-34.73,0,0,0,0,0,0,0,0,0,0,0,0,0,0,0,0,
202,-12.36,-26.04,-1.173,-26.11,-61.2,-47.99,-33.71,3.299,18.34,-16,3.94,-5.737,-6.4,14.57,3.315,-16.71,0,0,0,0,0,0,0,0,0,0,0,0,0,0,0,0,
203,-1.21,-16.23,3.164,-6.116,-36.36,-29.6,0.0744,5.961,38.19,-4.23,23.49,15.47,6.511,16.6,20.12,-12.44,0,0,0,0,0,0,0,0,0,0,0,0,0,0,0,0,
204,34.59,8.901,18.72,17.55,-6.827,3.788,24.55,12.86,71.72,6.689,46.09,45.31,17.23,12.35,28.41,-11.04,0,0,0,0,0,0,0,0,0,0,0,0,0,0,0,0,
205,82.59,37.59,32.78,50.47,17.52,58.91,46.91,35.27,110.4,21.3,61.5,67.67,29.15,28.92,33.95,0.9549,0,0,0,0,0,0,0,0,0,0,0,0,0,0,0,0,
206,97.81,55.26,60.61,91.67,41.03,90.56,62.58,45.43,74.6,11.2,41.17,48.6,25.93,33.82,15.83,-3.066,0,0,0,0,0,0,0,0,0,0,0,0,0,0,0,0,
207,63.63,45.82,80.85,78.56,37.77,72.93,49.63,35.27,-0.672,-20.01,-2.497,9.24,10.91,4.952,-10.02,-19.81,0,0,0,0,0,0,0,0,0,0,0,0,0,0,0,0,
208,26.42,23.65,63,31.88,2.173,31.61,12.77,28.21,-16.1,-38.2,-26.01,-16.85,-5.444,-15.98,-25.36,-35.92,0,0,0,0,0,0,0,0,0,0,0,0,0,0,0,0,
209,-3.98,3.143,35.57,19.64,-25.02,-23.74,-25.1,18.87,-6.325,-38.01,-23.8,-29.88,-22.23,2.836,-30.47,-43.7,0,0,0,0,0,0,0,0,0,0,0,0,0,0,0,0,
210,-33.1,-12.51,21.96,25.57,-32.66,-74.48,-42.32,4.74,-30.6,-20.78,-22.25,-32.31,-33.37,26.93,-31.55,-40.6,0,0,0,0,0,0,0,0,0,0,0,0,0,0,0,0,
211,-53.42,-30.63,-6.387,6.532,-58.92,-95.38,-49.85,-12.65,-71.53,-13.72,-49.15,-45.61,-48.88,9.529,-47.58,-51.12,0,0,0,0,0,0,0,0,0,0,0,0,0,0,0,0,
212,-78.96,-52.66,-27.29,-12.85,-78.53,-80.4,-57.71,-29.89,-90.85,-30.36,-84.12,-70.53,-66.83,-21.76,-58.27,-66.99,0,0,0,0,0,0,0,0,0,0,0,0,0,0,0,0,
213,-98.12,-61.25,-23.31,-9.353,-60.86,-53.74,-56.94,-36.68,-83.19,-33.4,-88.29,-78.69,-71.95,-32.63,-46.78,-64.93,0,0,0,0,0,0,0,0,0,0,0,0,0,0,0,0,
214,-96.65,-64.48,-45.84,-12.15,-50.73,-50.48,-52.11,-38.48,-64.8,-16.83,-58.3,-63.71,-61.74,-33.06,-31.79,-51.42,0,0,0,0,0,0,0,0,0,0,0,0,0,0,0,0,
215,-73.85,-56.77,-46.25,-7.908,-28.14,-43.65,-34.09,-22.38,-16.81,2.863,-4.001,-23.14,-29.99,-18.43,-9.003,-26.41,0,0,0,0,0,0,0,0,0,0,0,0,0,0,0,0,
216,-21.33,-19.51,24.38,15.64,18.67,-23.98,-13.17,0.7212,41.04,17.08,27.97,7.981,-5.045,-5.747,-2.66,-14.71,0,0,0,0,0,0,0,0,0,0,0,0,0,0,0,0,
217,13.17,0.7432,54.26,11.23,9.318,-34.03,-18.89,-16.18,38.53,9.986,9.597,-6.004,-14.51,-9.11,-23.31,-31.55,0,0,0,0,0,0,0,0,0,0,0,0,0,0,0,0,
218,0.6104,-11.34,14.44,-6.174,-25.85,-38.82,-22.4,-44.18,11.07,-2.724,-0.1407,-13.37,-18.96,6.782,-11.11,-33.44,0,0,0,0,0,0,0,0,0,0,0,0,0,0,0,0,
219,-3.384,-9.986,-2.544,0.4594,-16.88,-8.598,-8.49,-40.84,25.71,1.506,18.82,8.593,-1.922,27.96,17.85,-14.93,0,0,0,0,0,0,0,0,0,0,0,0,0,0,0,0,
220,14,1.887,13.36,17.5,-0.3298,14.72,5.106,-24.58,38.4,9.058,26.23,19.06,9.131,26.15,9.563,-4.438,0,0,0,0,0,0,0,0,0,0,0,0,0,0,0,0,
221,26.92,9.683,31.91,43.47,13.27,25.45,30.44,-9.257,15.41,4.622,18.02,19.64,9.755,24.66,-2.691,-3.065,0,0,0,0,0,0,0,0,0,0,0,0,0,0,0,0,
222,40.19,18.59,36.37,48.02,26.51,23.96,48.19,-14.88,1.964,-4.543,6.563,20.36,7.744,24.94,-2.227,-9.076,0,0,0,0,0,0,0,0,0,0,0,0,0,0,0,0,
223,46.17,25.06,16.07,12.83,11.84,3.891,29.44,-42.01,0.0511,-7.293,-4.487,8.795,7.903,26.34,-15.88,-12.78,0,0,0,0,0,0,0,0,0,0,0,0,0,0,0,0,
224,26.81,27.63,-10.02,-9.333,-8.451,-14.49,-2.613,-50.79,-30.51,-11.81,-15.86,-6.841,8.319,41.9,-22.98,-2.535,0,0,0,0,0,0,0,0,0,0,0,0,0,0,0,0,
225,-3.337,22.11,-19.02,-9.007,-9.796,-25.88,-15.72,-44.39,-55.07,-7.822,-15.8,1.036,16.72,59.2,5.362,18.95,0,0,0,0,0,0,0,0,0,0,0,0,0,0,0,0,
226,-10.4,21.99,0.575,-3.362,-6.608,-24.24,-1.126,-39.78,-39.64,21.01,1.934,26,35.79,69.82,26.76,32.22,0,0,0,0,0,0,0,0,0,0,0,0,0,0,0,0,
227,-0.2672,32.75,24.58,10.6,-2.955,-8.582,11.26,-25.88,-25.4,35.25,8.909,23.7,28.85,67.38,2.894,14.3,0,0,0,0,0,0,0,0,0,0,0,0,0,0,0,0,
228,3.454,29.26,33.39,20.42,25.83,15.39,14.45,-9.866,-1.633,26.21,19.24,7.886,-1.647,53.64,-13.62,-7.894,0,0,0,0,0,0,0,0,0,0,0,0,0,0,0,0,
229,19.28,21.54,60.36,37.27,76.14,51.46,38.81,-5.551,40.21,25.1,45.71,13.19,-16.72,48.27,-2.062,-10.98,0,0,0,0,0,0,0,0,0,0,0,0,0,0,0,0,
230,37.89,11.93,83.69,53.27,75.07,54.36,49.6,-14.84,30.11,5.056,31.83,6.139,-28.14,38,-11.2,-22.74,0,0,0,0,0,0,0,0,0,0,0,0,0,0,0,0,
231,26.25,-19.71,60.8,37.67,11.93,5.506,23.64,-32.97,-4.158,-29.29,3.027,-8.586,-36.68,11.72,-16.85,-30.37,0,0,0,0,0,0,0,0,0,0,0,0,0,0,0,0,
232,17.61,-25.97,37.05,29.9,-14.79,-17,16.39,-39.65,14.93,-23.6,30.54,18.51,-12.22,7.231,21.6,-4.292,0,0,0,0,0,0,0,0,0,0,0,0,0,0,0,0,
233,42.56,24.94,40.05,52.49,25.17,22.31,38.06,-21.45,53.45,3.508,75.2,66.64,31.05,36.79,62.06,25.48,0,0,0,0,0,0,0,0,0,0,0,0,0,0,0,0,
234,77.3,72.66,54.41,60.29,59.41,74.75,55.13,-3.644,63.58,13.77,81.42,83.87,50.53,56.91,60.81,25.92,0,0,0,0,0,0,0,0,0,0,0,0,0,0,0,0,
235,88.61,76.02,71.55,43.02,46.59,90.18,57.95,-11.08,42.29,26.08,52.43,57.03,37.42,51.69,26.98,7.071,0,0,0,0,0,0,0,0,0,0,0,0,0,0,0,0,
236,64.6,65.37,64.52,26.4,22.36,65.74,52.8,-19.89,10.67,45.58,15.88,16.61,24.46,48.12,-1.504,-5.955,0,0,0,0,0,0,0,0,0,0,0,0,0,0,0,0,
237,33.18,60.63,38.56,20.34,15.79,45.6,46.38,-25.97,-6.536,33.82,-9.476,-10.65,12.91,40.49,-18.93,-16.13,0,0,0,0,0,0,0,0,0,0,0,0,0,0,0,0,
238,7.889,40.49,25.74,16.4,1.637,40.4,27.65,-49.79,-22.82,11.79,-28.95,-29.23,-10.53,26.56,-41.6,-24.45,0,0,0,0,0,0,0,0,0,0,0,0,0,0,0,0,
239,-12.38,28.82,23.73,15.26,-6.958,22.21,15.49,-42.57,-23.89,48.65,-20.8,-17.66,2.429,42.73,-35.84,-1.945,0,0,0,0,0,0,0,0,0,0,0,0,0,0,0,0,
240,6.039,62.66,31.66,32.95,25.79,3.567,44.24,7.802,15.14,97.01,14.18,23.12,43.56,60.3,-0.6652,24.1,0,0,0,0,0,0,0,0,0,0,0,0,0,0,0,0,
241,40.33,80.29,43.97,52.58,50,3.281,65.25,16.14,35.91,76.34,13.71,26.17,32.14,34.22,0.8138,5.395,0,0,0,0,0,0,0,0,0,0,0,0,0,0,0,0,
242,26.82,41.53,35.3,41.4,31.22,2.583,37.34,-16.64,17.36,36.99,-2.254,-4.238,-2.693,16.78,-17.38,-12.22,0,0,0,0,0,0,0,0,0,0,0,0,0,0,0,0,
243,3.881,15.24,20.36,20.06,28.23,4.436,19.1,-17.18,34.94,27.92,32.9,1.23,5.468,38.13,-2.893,7.515,0,0,0,0,0,0,0,0,0,0,0,0,0,0,0,0,
244,23.78,24.82,27.54,28.16,52.47,25.49,38.37,-0.6308,77.9,22.74,64.52,21.44,14.72,42.19,10.69,9.465,0,0,0,0,0,0,0,0,0,0,0,0,0,0,0,0,
245,30.42,21.49,24.28,46.73,40.44,20.72,40.93,-16.08,50.21,16.39,32.44,5.89,-1.945,23.38,0.2927,-12.86,0,0,0,0,0,0,0,0,0,0,0,0,0,0,0,0,
246,-3.736,12,-0.6456,39.92,8.628,-19.6,20.03,-38.42,-0.7396,31.46,17.11,8.785,19.84,49.7,26.43,19.38,0,0,0,0,0,0,0,0,0,0,0,0,0,0,0,0,
247,4.313,43.69,22.73,31.61,28.13,-2.559,32.81,-22.13,37.91,72.49,72.6,72.21,91.07,120.3,90.32,103.6,0,0,0,0,0,0,0,0,0,0,0,0,0,0,0,0,
248,72.79,97.34,80.59,49.6,58.97,69.58,80.16,8.978,93.45,104.2,113.9,120.7,135.7,155.8,114.7,147,0,0,0,0,0,0,0,0,0,0,0,0,0,0,0,0,
249,113.1,122.6,73.47,71.1,46.9,88.37,109.9,18.23,76.32,107.6,99.95,113.4,134.2,147,100.2,133.2,0,0,0,0,0,0,0,0,0,0,0,0,0,0,0,0,
250,92.14,119.2,24.03,65.47,35.64,39.97,94.7,11.99,42.69,101.2,74.23,83.15,109.8,131.3,83.98,100.7,0,0,0,0,0,0,0,0,0,0,0,0,0,0,0,0,
251,32.49,85.82,3.928,27.9,25.04,-22.36,42.93,-9.336,10.12,77.25,40.51,36.79,59.68,99.92,55.27,59.37,0,0,0,0,0,0,0,0,0,0,0,0,0,0,0,0,
252,-27.62,33.26,-5.348,2.172,-10.57,-48.8,7.877,-30.73,-22,58.06,11.01,6.293,24.92,66.55,28.38,32.75,0,0,0,0,0,0,0,0,0,0,0,0,0,0,0,0,
253,-23.02,24.39,-17.21,25.63,-26.33,-14.28,27.51,-29.28,-3.914,79.79,13.83,22.6,38.1,59.79,24.78,31.01,0,0,0,0,0,0,0,0,0,0,0,0,0,0,0,0,
254,32.91,61.31,-4.04,61.16,-7.657,29.08,64.33,-22.7,31.97,92.11,27.61,43.57,56.92,68.34,30.8,34.48,0,0,0,0,0,0,0,0,0,0,0,0,0,0,0,0,
255,61.83,84.03,35.61,73.81,10.65,32.99,75.93,-15.31,28.58,67.63,31.23,40.03,54.48,77.39,29.18,34.17,0,0,0,0,0,0,0,0,0,0,0,0,0,0,0,0,
256,45.91,71.04,56.15,58.26,7.347,11.59,49.24,-12.35,6.197,48.45,21.53,21.37,34.45,73.81,10.93,22.84,0,0,0,0,0,0,0,0,0,0,0,0,0,0,0,0,
257,19.19,40.28,34.58,23.61,-0.0023,-0.5288,12.53,-28.82,10.44,49.66,21.66,13.49,20.38,72.27,8.089,18.26,0,0,0,0,0,0,0,0,0,0,0,0,0,0,0,0,
258,19.27,26.35,17.43,12.44,14.53,11.38,10.03,-35.08,44.18,55.2,47.89,27.08,28.75,86.65,26.45,22.53,0,0,0,0,0,0,0,0,0,0,0,0,0,0,0,0,
259,28.92,22.22,9.758,15.21,10.84,11.18,10.8,-32.97,44.87,41.26,45.63,17.6,19.18,75.12,13.37,0.6905,0,0,0,0,0,0,0,0,0,0,0,0,0,0,0,0,
260,12.04,5.482,-14.11,-0.991,-13.41,2.548,1.133,-50.58,5.462,23.31,9.377,-11.12,-5.125,46.24,-10.56,-19.74,0,0,0,0,0,0,0,0,0,0,0,0,0,0,0,0,
261,3.959,7.235,-16.34,-5.579,-3.276,15,19.11,-64.75,-12.3,28.48,-1.118,-14.13,-1.919,39.5,-7.836,-14.09,0,0,0,0,0,0,0,0,0,0,0,0,0,0,0,0,
262,13.59,19.01,-1.041,1.083,1.028,3.873,30.23,-56.62,-6.402,26.36,18.33,-0.5242,13.76,34.92,10.49,-3.772,0,0,0,0,0,0,0,0,0,0,0,0,0,0,0,0,
263,18.35,20.98,-0.9757,10.2,-9.603,-9.163,26.39,-23.98,20.13,22.5,54.8,31.46,37.9,39.63,53.91,25,0,0,0,0,0,0,0,0,0,0,0,0,0,0,0,0,
264,38.63,44.35,7.133,39.86,13.68,21.78,39.67,5.798,41.6,40.61,62.82,49.29,54.94,50.48,64.68,35.89,0,0,0,0,0,0,0,0,0,0,0,0,0,0,0,0,
265,34.06,50.79,9.32,38.51,7.283,18.08,20.95,-13.87,-9.583,42.51,-1.454,-7.7,24.98,27.19,-7.751,-10.51,0,0,0,0,0,0,0,0,0,0,0,0,0,0,0,0,
266,-18.47,17.45,-3.029,-4.069,-33.38,-15.33,-13.05,-36.11,-59.12,45.44,-47.77,-58.16,1.122,15.77,-54.55,-30.81,0,0,0,0,0,0,0,0,0,0,0,0,0,0,0,0,
267,-24.58,22.01,12.17,-4.213,-19.06,4.27,15.7,-15.43,-17.89,81.64,-10.07,-18.86,28.69,47.75,-18.96,2.234,0,0,0,0,0,0,0,0,0,0,0,0,0,0,0,0,
268,26.89,57.37,23.71,25.29,5.317,31.25,49.98,-11.37,34.43,89.35,42.5,36.44,49.6,54.66,19.95,11.84,0,0,0,0,0,0,0,0,0,0,0,0,0,0,0,0,
269,52.08,54.75,1.102,5.172,-9.642,28.88,27.78,-31.52,55.28,58.59,65.21,49.31,37.56,25.22,29.63,-4.83,0,0,0,0,0,0,0,0,0,0,0,0,0,0,0,0,
270,48.78,38.18,9.252,-32.16,-0.391,32.4,13.33,-19.7,72.44,55.66,66.79,48.93,29.95,18.14,30.82,-3.066,0,0,0,0,0,0,0,0,0,0,0,0,0,0,0,0,
271,51.24,46.98,43.24,-16.27,23.35,28.11,32.32,-2.227,48.85,63.84,56.49,49.95,36.33,40.58,34.91,10.04,0,0,0,0,0,0,0,0,0,0,0,0,0,0,0,0,
272,46.49,53.75,11.09,3.671,-8.785,-0.1222,20.46,-34.53,-6.103,38.06,46.79,41.14,36.23,61.32,44.44,14.13,0,0,0,0,0,0,0,0,0,0,0,0,0,0,0,0,
273,29.39,40.25,-49.99,-28.26,-58.16,-20.39,-14.42,-73.76,-12.21,29.48,45.43,38.26,36.49,76.16,56.73,25.92,0,0,0,0,0,0,0,0,0,0,0,0,0,0,0,0,
274,33.96,42.06,-28.84,-40.06,-47.28,-5.741,4.274,-52.82,22.32,68.71,56.31,59.53,51.74,87.5,69.14,50.64,0,0,0,0,0,0,0,0,0,0,0,0,0,0,0,0,
275,64.75,67.7,33.15,-0.5864,-3.814,34.65,62.33,-8.872,33.21,86.03,64.22,74.09,62.56,85.63,66.06,51.93,0,0,0,0,0,0,0,0,0,0,0,0,0,0,0,0,
276,80.04,80.94,49.58,17.83,9.814,64.99,93.02,-2.198,22.91,63.27,47.41,58.46,60.52,80.81,39.02,29.44,0,0,0,0,0,0,0,0,0,0,0,0,0,0,0,0,
277,66.4,76.2,42.17,4.767,-3.642,57.84,83.86,-16.4,13.47,49.89,24.52,38.76,56.16,80.94,13.91,20.44,0,0,0,0,0,0,0,0,0,0,0,0,0,0,0,0,
278,48.84,66.57,30.72,-7.247,-15.25,31.26,50.08,-22.36,7.911,48.92,28.87,38.2,51.82,74.48,11.73,27.06,0,0,0,0,0,0,0,0,0,0,0,0,0,0,0,0,
279,48.62,60.04,3.265,-17.04,-17.42,25.73,26.78,-23.41,22.33,46.76,49.64,50.34,57.01,63.78,14.32,28.96,0,0,0,0,0,0,0,0,0,0,0,0,0,0,0,0,
280,62.09,66.33,-14.86,-15.31,-10.24,46.17,42.62,-29.83,49.06,41.67,59.97,59.91,68.14,57.85,13.18,23.28,0,0,0,0,0,0,0,0,0,0,0,0,0,0,0,0,
281,78.27,80,18.01,9.676,27.85,81.02,75.49,-26.53,68.19,34.51,78.64,76.18,74.5,65.26,39.19,24.89,0,0,0,0,0,0,0,0,0,0,0,0,0,0,0,0,
282,105.4,93.22,86.56,45.82,79.74,111.2,97.45,0.8816,81.65,31.19,105.3,97.66,73.54,78.58,71.55,29.58,0,0,0,0,0,0,0,0,0,0,0,0,0,0,0,0,
283,124.9,90.02,99.36,60.29,72.65,96.87,95,12,80.47,16.24,94.99,87.17,53.1,75.33,60.2,21.82,0,0,0,0,0,0,0,0,0,0,0,0,0,0,0,0,
284,108.8,63.79,46.13,38.87,31.37,62.63,68.45,-10.7,63.79,-4.878,69.03,59.4,29.17,70.57,45.56,16.83,0,0,0,0,0,0,0,0,0,0,0,0,0,0,0,0,
285,83.58,47,17.12,9.61,24.15,55.94,39.28,-25.03,34.18,-8.725,60.55,48.08,20.15,69.92,53.76,12.97,0,0,0,0,0,0,0,0,0,0,0,0,0,0,0,0,
286,62.03,42.83,7.817,-1.191,15.5,46.77,26.83,-20.93,-0.7683,-9.342,48.73,37.18,10.01,52.06,46.75,0.1397,0,0,0,0,0,0,0,0,0,0,0,0,0,0,0,0,
287,43.61,36.36,-3.345,10.61,6.134,34.95,38.23,-11.15,10.85,-0.4299,54.4,39.74,14.39,47.05,43.6,12.01,0,0,0,0,0,0,0,0,0,0,0,0,0,0,0,0,
288,58.62,47.93,26.27,23.42,39.95,52.48,52.45,-2.175,62.5,31.33,87.76,66.33,46.55,75.55,54.32,46.16,0,0,0,0,0,0,0,0,0,0,0,0,0,0,0,0,
289,89.75,71.47,47.9,17.79,70.69,71.26,48.37,-2.963,78.7,49.87,94.63,67.43,64.42,98.8,33.86,52.34,0,0,0,0,0,0,0,0,0,0,0,0,0,0,0,0,
290,84.76,73.35,3.673,11.24,56.67,69.44,38.03,-9.514,46.07,32.65,51.18,20.37,36,85.66,-17.93,14.84,0,0,0,0,0,0,0,0,0,0,0,0,0,0,0,0,
291,36.41,39.51,-39.53,-1.133,22.3,47.42,21.11,-25.52,-4.256,-2.029,-7.703,-34.62,-15.77,42.81,-60.97,-30.75,0,0,0,0,0,0,0,0,0,0,0,0,0,0,0,0,
292,-10.56,-7.775,-23.11,-27.66,8.86,11.53,2.585,-37.64,-30.97,-20.13,-17.23,-43.12,-32.9,18.64,-59.91,-30.46,0,0,0,0,0,0,0,0,0,0,0,0,0,0,0,0,
293,-11.05,-21.73,6.139,-33.37,19.92,-13.68,-4.727,-22.63,-20.95,-15.37,20.45,-14.91,-11.52,29.26,-22.12,1.089,0,0,0,0,0,0,0,0,0,0,0,0,0,0,0,0,
294,2.246,-10.31,-12.33,-20.2,12.85,-17.51,-14.6,-11.94,-20.08,-17.94,34.29,-0.857,-3.339,29.06,11.3,8.473,0,0,0,0,0,0,0,0,0,0,0,0,0,0,0,0,
295,-1.172,-3.454,-39.53,-11.47,5.992,5.049,-5.682,-17.82,-20.23,-19.75,37.54,15.2,2.411,21.6,35.91,7.684,0,0,0,0,0,0,0,0,0,0,0,0,0,0,0,0,
296,18.98,16.49,-19.18,-2.113,30.71,31.6,29.98,-15.06,5.806,-9.475,59.71,45.6,28.59,27.32,51.88,16.8,0,0,0,0,0,0,0,0,0,0,0,0,0,0,0,0,
297,52.22,39.45,16.25,12.49,51.85,37.94,42.36,-13.53,20.52,-11.87,66.74,55.07,41.75,18.76,46.53,16.16,0,0,0,0,0,0,0,0,0,0,0,0,0,0,0,0,
298,61.02,39.23,38.56,40.19,65.04,53.86,35.87,-13.21,19.36,-14.31,60.96,48.47,32.95,4.689,29.35,9.464,0,0,0,0,0,0,0,0,0,0,0,0,0,0,0,0,
299,53.76,30.17,36.68,53.53,52.08,47.42,28.82,-11.29,8.5,-6.796,38.91,27.11,15.06,13.18,-0.5706,-7.278,0,0,0,0,0,0,0,0,0,0,0,0,0,0,0,0,
300,24.16,18.15,-8.692,26.42,-10.42,-18.1,11.84,-24.94,-19.59,-8.102,0.8522,-7.485,-4.014,30.67,-27.57,-27.84,0,0,0,0,0,0,0,0,0,0,0,0,0,0,0,0,
301,-4.678,9.567,-41.37,20.07,-34.05,-34.6,22.03,-23.77,-15.74,2.035,14.71,0.7554,3.059,54.6,-11.69,-11.87,0,0,0,0,0,0,0,0,0,0,0,0,0,0,0,0,
302,22.58,29.16,-15.18,56.8,13.89,38.81,61.01,12.31,21.29,29.12,62.88,46.08,33.21,88.59,18,23.68,0,0,0,0,0,0,0,0,0,0,0,0,0,0,0,0,
303,67.82,56.84,10.99,61.96,36.28,69.31,63.14,19.5,14.52,22.35,47.78,45.57,31.91,87.98,1.368,17.46,0,0,0,0,0,0,0,0,0,0,0,0,0,0,0,0,
304,51.24,39.15,2.558,16.62,9.761,6.267,22.07,-29.97,-26.02,-23.65,-0.7278,2.747,-4.908,45.73,-23.89,-7.764,0,0,0,0,0,0,0,0,0,0,0,0,0,0,0,0,
305,3.595,0.3332,3.716,-7.565,0.5918,-39.05,-2.845,-54.23,-19.71,-38.06,13.57,2.191,-6.93,42.35,11.98,13.25,0,0,0,0,0,0,0,0,0,0,0,0,0,0,0,0,
306,1.06,5.827,11.95,19.48,13.95,-17.2,7.757,-19.45,9.276,-5.288,53.78,30.93,17.28,70.29,48.93,34.55,0,0,0,0,0,0,0,0,0,0,0,0,0,0,0,0,
307,11.52,15.36,-22.45,35.98,4.298,-4.044,18.07,-0.1954,-13.7,11.08,40.87,16.27,-3.507,46.27,17.9,2.272,0,0,0,0,0,0,0,0,0,0,0,0,0,0,0,0,
308,0.0215,-6.474,-37.97,29.71,2.838,5.269,27.55,-6.685,-32.48,5.715,25.99,-0.1224,-29.52,18.51,-5.707,-14.8,0,0,0,0,0,0,0,0,0,0,0,0,0,0,0,0,
309,22.02,0.5603,25.13,50.56,38.98,51.48,47.97,-1.916,10.15,-2.902,47.3,16.26,-21.39,33.07,3.058,-6.636,0,0,0,0,0,0,0,0,0,0,0,0,0,0,0,0,
310,57.79,16.11,52.5,64.78,45.11,60.72,44.65,-12.93,35.02,-29.95,43.74,8.61,-25.36,29.46,-17.59,-30.4,0,0,0,0,0,0,0,0,0,0,0,0,0,0,0,0,
311,50.73,0.5187,9.929,44.11,23.14,29.84,25.55,-30.44,7.606,-33.05,20.71,-4.399,-25.68,22.7,-34.59,-45.61,0,0,0,0,0,0,0,0,0,0,0,0,0,0,0,0,
312,38.22,8.187,-9.372,29.81,18.52,21.26,18.27,-24.96,-26.13,4.131,16.76,10.68,-3.431,40.65,-20.27,-31.42,0,0,0,0,0,0,0,0,0,0,0,0,0,0,0,0,
313,31.1,32.52,-31.5,15.77,-3.359,2.048,5.249,-19.76,-39.55,11.96,22.11,22.31,8.973,42.5,-3.676,-21.57,0,0,0,0,0,0,0,0,0,0,0,0,0,0,0,0,
314,20.33,37.31,-55.17,-1.794,-20.6,-13.91,1.652,-14.44,-16.9,-20.41,34.79,36.28,17.84,36.69,17.98,-8.271,0,0,0,0,0,0,0,0,0,0,0,0,0,0,0,0,
315,34,38.02,-24.39,-0.4294,-3.533,8.401,13.57,-20.72,0.4736,-50.35,30.05,44.46,14.08,34.09,21.96,-6.075,0,0,0,0,0,0,0,0,0,0,0,0,0,0,0,0,
316,46.9,22.64,-18.8,-0.9545,0.5162,16.15,7.229,-61.18,-19.22,-54.14,8.53,28.82,-4.124,23.99,8.132,-14.14,0,0,0,0,0,0,0,0,0,0,0,0,0,0,0,0,
317,39.3,2.257,-50.74,-14.07,3.367,7.91,-6.716,-86.72,-22.27,-30.99,21.56,27.08,9.058,33.03,22.3,7.444,0,0,0,0,0,0,0,0,0,0,0,0,0,0,0,0,
318,32.63,6.889,-33.83,-26.17,7.949,1.464,-14.9,-72.41,-14.16,-13.43,35.55,25.75,26.34,50.4,25.59,23.73,0,0,0,0,0,0,0,0,0,0,0,0,0,0,0,0,
319,7.154,5.386,-14.81,-28.7,-27.05,-36.92,-22.18,-51.83,-36.77,-13.08,7.59,-9.872,0.3619,43.3,-16.43,1.605,0,0,0,0,0,0,0,0,0,0,0,0,0,0,0,0,
320,-37.79,-14.41,-34.87,-17.03,-49.74,-79.57,-18.55,-31.96,-50.4,-10.3,-8.233,-34.86,-28.26,39.44,-33.31,-8.14,0,0,0,0,0,0,0,0,0,0,0,0,0,0,0,0,
321,-52.63,-22.07,-36.77,-3.671,-17.02,-70.19,-16.76,-12.83,-30.25,-4.032,8.435,-23.78,-30.74,51.27,-3.378,6.373,0,0,0,0,0,0,0,0,0,0,0,0,0,0,0,0,
322,-36.53,-27.27,-32.81,-5.044,10.63,-34.65,-35.89,-21.3,-17.12,-13.57,11.79,-21.33,-44.16,27.53,-1.251,-9.593,0,0,0,0,0,0,0,0,0,0,0,0,0,0,0,0,
323,-33.87,-57.95,-55.19,-27.06,3.266,-24.45,-58.76,-59.54,-23.29,-48.53,0.5661,-37.76,-71.98,-25.18,-34.48,-46.46,0,0,0,0,0,0,0,0,0,0,0,0,0,0,0,0,
324,-32.75,-75.14,-51.28,-35.79,5.487,-23.38,-48.36,-65.37,-11.72,-64.86,6.373,-30.78,-66.47,-29.16,-39.74,-48.37,0,0,0,0,0,0,0,0,0,0,0,0,0,0,0,0,
325,-9.381,-41.79,-12.8,-10.01,14.02,-23.66,-15.92,-26.27,-7.511,-47.17,-3.017,-20.69,-49.08,-8.39,-40.71,-52.47,0,0,0,0,0,0,0,0,0,0,0,0,0,0,0,0,
326,-20.21,-26.56,-18.03,-12.07,-23.32,-61.35,-16,-15.12,-62.01,-45.87,-53.06,-48.16,-66.37,-23.25,-67.74,-86.29,0,0,0,0,0,0,0,0,0,0,0,0,0,0,0,0,
327,-62.14,-47.85,-58.77,-28.33,-55.73,-81.5,-22.53,-10.68,-89.43,-32.99,-62.86,-53,-65.02,-12.12,-55.55,-71.75,0,0,0,0,0,0,0,0,0,0,0,0,0,0,0,0,
328,-47.34,-26.52,-45.74,13.62,-8.545,-32.21,7.245,35.94,-30.04,13.27,-7.47,-11.33,-26.8,37.73,-9.119,-17.96,0,0,0,0,0,0,0,0,0,0,0,0,0,0,0,0,
329,-9.12,6.03,5.609,35.51,45.48,-0.0935,12.49,47.21,9.527,14.38,20.92,3.898,-17.55,43.56,5.646,-11.35,0,0,0,0,0,0,0,0,0,0,0,0,0,0,0,0,
330,-16.66,-15.56,6.636,-12.6,29.73,-25.98,-31.07,-6.681,-2.473,-25.33,6.232,-12.12,-29.04,13.91,-0.2326,-34.86,0,0,0,0,0,0,0,0,0,0,0,0,0,0,0,0,
331,-30.67,-43.19,-37.02,-34.16,-7.31,-52.98,-60.24,-51.17,-1.773,-43.5,2.936,-21.9,-24.1,-2.498,-14.49,-43.07,0,0,0,0,0,0,0,0,0,0,0,0,0,0,0,0,
332,-29.37,-40.11,-47.15,-15.47,-7.084,-54.7,-50.62,-57,1.796,-49.46,7.143,-29.67,-20.61,-5.892,-39.07,-40.87,0,0,0,0,0,0,0,0,0,0,0,0,0,0,0,0,
333,-33.54,-26.8,-27.86,-16.06,11.31,-44.3,-29.58,-41.27,-9.881,-53.45,-9.106,-38.42,-33.44,-9.131,-51.8,-42.98,0,0,0,0,0,0,0,0,0,0,0,0,0,0,0,0,
334,-38.3,-21.59,-35.75,-19.87,7.272,-44.61,-15.23,-17.34,-16.71,-41.89,-27.42,-42.67,-50.04,-18.62,-50.59,-50.71,0,0,0,0,0,0,0,0,0,0,0,0,0,0,0,0,
335,-29.02,-19.96,-30.68,11.19,8.589,-32.58,8.772,10.4,-10.36,-8.104,-17.57,-35.87,-47.06,-9.958,-38.41,-43.66,0,0,0,0,0,0,0,0,0,0,0,0,0,0,0,0,
336,-4.93,-6.678,11.46,44.89,33.08,3.992,30.33,20.49,-0.5028,22.28,-8.775,-26.5,-34.47,10.86,-27.58,-32.33,0,0,0,0,0,0,0,0,0,0,0,0,0,0,0,0,
337,4.504,-8.239,8.386,21.44,16.03,-7.79,1.627,-14.34,-8.235,5.994,-29.68,-32.47,-42.41,-6.817,-34.79,-44.89,0,0,0,0,0,0,0,0,0,0,0,0,0,0,0,0,
338,-12.05,-38.67,-37.2,-30.48,-42.14,-56.02,-39.79,-56.13,-30.47,-27.32,-45.76,-39.7,-52.62,-35.01,-36.83,-56.44,0,0,0,0,0,0,0,0,0,0,0,0,0,0,0,0,
339,-27.74,-51.95,-58.95,-41.68,-65.81,-50.8,-28.04,-58.76,-37.17,-30.8,-36.62,-37.76,-45.35,-22.43,-24.65,-46.57,0,0,0,0,0,0,0,0,0,0,0,0,0,0,0,0,
340,-40.99,-40.82,-69.48,-25.29,-51.63,-32.61,-2.675,-43.92,-27.42,-29.65,-16.1,-37.52,-38.57,-5.428,-19.92,-34.28,0,0,0,0,0,0,0,0,0,0,0,0,0,0,0,0,
341,-55.91,-36.7,-67.04,-19.8,-32.84,-61.63,-9.632,-37.66,-27.78,-33.79,-6.653,-36.34,-35.28,-13.7,-22.23,-26.64,0,0,0,0,0,0,0,0,0,0,0,0,0,0,0,0,
342,-55.67,-29,-29.18,-14.91,-8.886,-75.11,-11.54,-27.75,-33.38,-14.08,-24.62,-28.85,-24.31,-20.9,-22.33,-20.59,0,0,0,0,0,0,0,0,0,0,0,0,0,0,0,0,
343,-44.55,-5.936,0.785,-2.505,5.396,-52.2,6.914,-1.714,-31.93,12.79,-45.23,-24.24,-15.38,-23.65,-23.45,-21.9,0,0,0,0,0,0,0,0,0,0,0,0,0,0,0,0,
344,-47.54,-2.044,-16.91,-9.482,-18.07,-62.66,-5.758,8.177,-50.35,3.481,-52.84,-35.79,-23.34,-33.84,-27.78,-28.4,0,0,0,0,0,0,0,0,0,0,0,0,0,0,0,0,
345,-64.89,-30,-48.62,-35.95,-46.2,-88.23,-47.63,-27.71,-68.64,-33.59,-53.23,-49.32,-39.21,-40.38,-28.54,-28.83,0,0,0,0,0,0,0,0,0,0,0,0,0,0,0,0,
346,-67.78,-53.61,-47.01,-50.1,-35.52,-76.14,-64.76,-73.04,-38.16,-63.4,-37.26,-45.85,-57.03,-52.42,-28.96,-33.93,0,0,0,0,0,0,0,0,0,0,0,0,0,0,0,0,
347,-56.53,-68.11,-34.04,-62.05,-15.78,-75.57,-68.04,-94.87,-3.168,-82.14,-22.1,-43.58,-79.52,-73.49,-36.81,-50.75,0,0,0,0,0,0,0,0,0,0,0,0,0,0,0,0,
348,-51.37,-84.77,-46.3,-72.85,-5.52,-91.27,-75.54,-98.78,-2.825,-89.44,-22.8,-50.66,-90.17,-70.47,-44.81,-59.07,0,0,0,0,0,0,0,0,0,0,0,0,0,0,0,0,
349,-49.15,-86.7,-55.41,-56.49,7.527,-74.83,-68.28,-89.06,-7.398,-73.67,-25.01,-54.47,-88.08,-53.73,-52.75,-60.29,0,0,0,0,0,0,0,0,0,0,0,0,0,0,0,0,
350,-47.59,-72.9,-31.22,-38.72,16.29,-57.07,-47.1,-65.05,4.034,-34.24,-20.69,-42.33,-70.66,-37.46,-46.95,-49.45,0,0,0,0,0,0,0,0,0,0,0,0,0,0,0,0,
351,-32.49,-43.81,0.53,-25.8,35.37,-46.77,-11.42,-28.96,27.16,0.8663,-11.87,-15.57,-32.53,-3.455,-23.4,-23.37,0,0,0,0,0,0,0,0,0,0,0,0,0,0,0,0,
352,-16.66,-19.12,-7.603,-5.708,41.53,-37.58,10.43,-15.73,2.178,-10.05,-33.38,-26.2,-26.76,9.581,-34.22,-27.74,0,0,0,0,0,0,0,0,0,0,0,0,0,0,0,0,
353,-51.32,-35.52,-43.24,-9.463,3.493,-53.93,-8.666,-34,-74.42,-29.86,-80.53,-69.45,-45.64,-4.26,-65.62,-40.73,0,0,0,0,0,0,0,0,0,0,0,0,0,0,0,0,
354,-83.9,-43.1,-45.02,-12.71,-5.468,-45.31,-9.214,-22.58,-88.36,-2.713,-82.28,-62.82,-19.26,6.76,-49.63,-14.03,0,0,0,0,0,0,0,0,0,0,0,0,0,0,0,0,
355,-48.67,-10.99,-25.76,6.883,27.95,-0.9948,18.45,10.31,-43.99,14.23,-46.91,-20.3,7.861,9.839,-11.04,-0.5688,0,0,0,0,0,0,0,0,0,0,0,0,0,0,0,0,
356,-7.752,-0.1017,-16.38,4.538,32.38,2.425,15.21,11.76,-21.89,-12.47,-16.45,4.563,-4.297,-18.31,10.51,-13.83,0,0,0,0,0,0,0,0,0,0,0,0,0,0,0,0,
357,2.105,-10.83,-1.839,-12.85,19.66,-33.34,-7.467,-2.511,-1.838,-35.95,7.204,9.517,-14.96,-32.06,8.354,-19.58,0,0,0,0,0,0,0,0,0,0,0,0,0,0,0,0,
358,-6.322,-20.74,-7.084,-28.6,10.84,-64.27,-23.84,-25.77,9.111,-49.83,-4.194,-13.67,-31.12,-28.96,-18.5,-34.81,0,0,0,0,0,0,0,0,0,0,0,0,0,0,0,0,
359,-32.31,-37.38,-22.91,-48.8,3.863,-67.99,-29.91,-51.02,-15.26,-55.17,-37.07,-33.55,-50.06,-30.69,-27.39,-46.51,0,0,0,0,0,0,0,0,0,0,0,0,0,0,0,0,
360,-43.27,-40.6,-13.75,-50.57,10.62,-49.18,-28.2,-54.24,-39.02,-60.79,-47.98,-25.86,-53.32,-52.63,-15.98,-45.56,0,0,0,0,0,0,0,0,0,0,0,0,0,0,0,0,
361,-37.91,-43.01,-20.2,-43.27,15.11,-43.72,-38.83,-58.15,-32.83,-87.93,-42.24,-24.34,-60.29,-75,-16.78,-48.33,0,0,0,0,0,0,0,0,0,0,0,0,0,0,0,0,
362,-29.44,-51.45,-24.18,-32.3,29.24,-31.28,-32.93,-56.21,10.83,-98.96,-11.13,-12.15,-49.89,-46.19,-4.256,-25.57,0,0,0,0,0,0,0,0,0,0,0,0,0,0,0,0,
363,0.6718,-33.22,12.58,-4.084,57.01,-1.746,3.417,-30.22,38.6,-86.78,20.7,15.21,-19.68,-7.387,9.822,1.42,0,0,0,0,0,0,0,0,0,0,0,0,0,0,0,0,
364,13.22,-21.01,16.61,-4.627,43.23,-20.48,6.818,-27.43,-5.86,-87.57,-5.368,2.056,-22.86,-22.4,-15.27,-22.73,0,0,0,0,0,0,0,0,0,0,0,0,0,0,0,0,
365,-19.77,-38.99,-29.14,-43.34,3.922,-66.39,-21.06,-46.61,-54.1,-75.38,-46.21,-32.27,-40.89,-39.47,-40.72,-51.54,0,0,0,0,0,0,0,0,0,0,0,0,0,0,0,0,
366,-38.81,-33.34,-48.25,-56.48,3.428,-51.68,-14.76,-28.7,-43.51,-29.47,-39.8,-28.34,-21.15,-9.13,-25.83,-28.6,0,0,0,0,0,0,0,0,0,0,0,0,0,0,0,0,
367,-21.08,1.912,-24.93,-30.8,21.96,-6.609,12.7,11.32,-21.9,10.81,-22.64,-5.423,4.876,19.5,0.1157,3.534,0,0,0,0,0,0,0,0,0,0,0,0,0,0,0,0,
368,-13.83,6.352,-12.55,-6.052,11.39,-17.96,5.901,17.04,-30.22,12.81,-29.86,-6.526,-10.25,0.5522,5.5,1.402,0,0,0,0,0,0,0,0,0,0,0,0,0,0,0,0,
369,-29.18,-22.84,-31.23,-2.32,-1.228,-45.51,-12.21,4.504,-34.89,-4.05,-23.55,-8.879,-27.66,-21.78,14.67,4.828,0,0,0,0,0,0,0,0,0,0,0,0,0,0,0,0,
370,-22.03,-25.39,-25.2,-6.033,21.4,-11.35,5.562,17.01,-9.827,-10.08,7.109,9.612,-13.97,-12.65,37.67,29.33,0,0,0,0,0,0,0,0,0,0,0,0,0,0,0,0,
371,3.735,-10.94,3.819,-4.805,27.32,13.14,15.66,27.29,-10.84,-25.08,1.262,-0.3939,-21.79,-22.53,20.84,13.89,0,0,0,0,0,0,0,0,0,0,0,0,0,0,0,0,
372,-13.21,-33.33,-17.11,-10.18,-9.736,-36.48,-19.73,6.726,-60.28,-48.58,-51.74,-52.3,-62.17,-54.28,-38.95,-38.95,0,0,0,0,0,0,0,0,0,0,0,0,0,0,0,0,
373,-64.08,-61.81,-53.5,-25,-24.06,-76.9,-47.38,-13.88,-83.32,-42.32,-88.54,-83.9,-77.52,-54.94,-67.21,-58.58,0,0,0,0,0,0,0,0,0,0,0,0,0,0,0,0,
374,-82.23,-52.52,-34.1,-24.14,-6.445,-54.47,-31.62,-13.98,-59.09,-23.25,-70.87,-63.67,-53.86,-36.73,-33.17,-32.04,0,0,0,0,0,0,0,0,0,0,0,0,0,0,0,0,
375,-53.44,-24.73,-7.274,-9.556,-5.786,-22.42,-6.077,-7.995,-47.83,-24.19,-27.65,-25.61,-24.11,-30.4,7.514,-3.671,0,0,0,0,0,0,0,0,0,0,0,0,0,0,0,0,
376,-32.41,-14.54,-41.72,-31.9,-31.92,-46.57,-20.34,-24.07,-69.05,-39.86,-22.73,-18.77,-21.66,-34.58,4.147,-3.964,0,0,0,0,0,0,0,0,0,0,0,0,0,0,0,0,
377,-47.41,-30.64,-88.7,-71.89,-50.31,-90.7,-49.45,-50.75,-65.55,-44.16,-36.57,-21.25,-29.11,-36.06,0.4241,-7.726,0,0,0,0,0,0,0,0,0,0,0,0,0,0,0,0,
378,-37.76,-30.02,-64.29,-55.04,-23.94,-56.35,-26.52,-43.1,-15.48,-20.9,-10.87,5.208,-16.48,-34.22,19.85,-0.098,0,0,0,0,0,0,0,0,0,0,0,0,0,0,0,0,
379,-0.3136,-11.93,-21.63,-27.12,6.264,-8.223,-6.181,-31.46,4.332,-10.81,0.2181,7.414,-22.06,-49.2,6.864,-11.62,0,0,0,0,0,0,0,0,0,0,0,0,0,0,0,0,
380,-5.639,-29.83,-32.84,-35.56,0.0843,-43.94,-43.73,-44.03,-4.771,-32.03,-20.1,-18.43,-46.44,-58.26,-9.978,-22.61,0,0,0,0,0,0,0,0,0,0,0,0,0,0,0,0,
381,-18.94,-53.98,-40.77,-22.36,4.687,-69.06,-61.93,-37.05,21.42,-40.45,-9.173,-13.21,-46.76,-43.63,5.932,-16.24,0,0,0,0,0,0,0,0,0,0,0,0,0,0,0,0,
382,-10.74,-55.15,-38.06,-21.37,12.55,-45.34,-57.4,-38.44,11.47,-41.68,-7.811,-17.14,-57.77,-50.22,-7.594,-32.86,0,0,0,0,0,0,0,0,0,0,0,0,0,0,0,0,
383,-35.82,-74.37,-71.57,-80.37,-19.71,-55.96,-88.01,-80.03,-54.83,-58.08,-44.31,-50.49,-87.31,-66.28,-38.16,-52.72,0,0,0,0,0,0,0,0,0,0,0,0,0,0,0,0,
384,-63.16,-93.48,-91.22,-105.2,-43.23,-73.79,-101.3,-83.04,-64.03,-60.93,-58.78,-54.67,-77.86,-48.57,-33.96,-36.09,0,0,0,0,0,0,0,0,0,0,0,0,0,0,0,0,
385,-43.77,-70.12,-62.35,-56.16,-15.38,-40.73,-51.05,-22.42,-32.1,-31.5,-50.02,-33.55,-34.19,-21.45,-24.38,-6.083,0,0,0,0,0,0,0,0,0,0,0,0,0,0,0,0,
386,-12.2,-23.31,-19.8,-0.9218,27.15,6.244,15.33,27.67,-27.64,7.762,-42.17,-15.75,-1.575,-8.91,-16.25,11.36,0,0,0,0,0,0,0,0,0,0,0,0,0,0,0,0,
387,9.506,9.483,7.599,30.24,40.24,24.22,42.48,39.77,-17.02,21.68,-28.46,1.485,4.34,-13.13,8.657,8.306,0,0,0,0,0,0,0,0,0,0,0,0,0,0,0,0,
388,20.91,13.01,6.464,42.94,26.3,20.15,31.27,43.56,-9.118,17.79,-14.87,11.63,-3.252,-32.7,27.31,-3.741,0,0,0,0,0,0,0,0,0,0,0,0,0,0,0,0,
389,15.37,3.321,-4.177,34.27,8.627,5.563,20.91,38.72,-38.05,23.83,-15.44,5.206,-7.704,-47.12,20.52,-5.292,0,0,0,0,0,0,0,0,0,0,0,0,0,0,0,0,
390,-1.146,-4.185,-4.322,12.97,-4.095,-13.57,18.83,16.57,-48.75,23.3,-23.45,-5.527,-3.368,-40.68,9.527,2.725,0,0,0,0,0,0,0,0,0,0,0,0,0,0,0,0,
391,-14.48,-4.701,-9.151,8.733,-5.387,-14.61,6.388,7.313,-30.75,8.767,-16.47,-1.286,7.509,-20.81,14.4,12.42,0,0,0,0,0,0,0,0,0,0,0,0,0,0,0,0,
392,-23.35,-2.335,-36.17,6.977,-19.33,-16.84,-20.86,4.063,-59.18,-1.14,-10.98,-2.716,-0.3032,-14.86,6.473,7.521,0,0,0,0,0,0,0,0,0,0,0,0,0,0,0,0,
393,-44.35,-22.9,-77.44,-34.24,-63.61,-52.4,-53.63,-27.12,-105.6,-7.339,-35.15,-34.03,-32.43,-24.47,-29,-13.65,0,0,0,0,0,0,0,0,0,0,0,0,0,0,0,0,
394,-71.46,-57.24,-99.95,-74.67,-81.09,-77.88,-70.67,-54.03,-88.06,-16.81,-61.5,-66.67,-53.65,-22.19,-57.56,-27.89,0,0,0,0,0,0,0,0,0,0,0,0,0,0,0,0,
395,-79.37,-70.65,-92.49,-63.81,-54.35,-70.9,-60.58,-45.74,-41.48,-24.84,-57.28,-69.22,-54.86,-16.76,-56.27,-25.11,0,0,0,0,0,0,0,0,0,0,0,0,0,0,0,0,
396,-58.92,-63.81,-66.06,-30.57,-32.02,-56.97,-29.58,-27.11,-12,-13.32,-25.34,-40.86,-44.22,-17.77,-25.58,-11.66,0,0,0,0,0,0,0,0,0,0,0,0,0,0,0,0,
397,-29.83,-52.97,-41.64,-24.84,-33.79,-45.69,-15.7,-36.78,-7.316,-1.835,-8.074,-21.41,-37.27,-18.72,-7.867,-18.29,0,0,0,0,0,0,0,0,0,0,0,0,0,0,0,0,
398,-38.12,-61.93,-65.67,-65.26,-59.9,-55.85,-53.56,-75.85,-36.22,-20.82,-27.08,-36.58,-46.57,-28.42,-25.06,-41.76,0,0,0,0,0,0,0,0,0,0,0,0,0,0,0,0,
399,-58.16,-75.37,-100.2,-89.06,-72.81,-63.74,-77.15,-76.75,-31.45,-19.44,-16.5,-25.98,-33.27,-23.54,-7.669,-20.12,0,0,0,0,0,0,0,0,0,0,0,0,0,0,0,0,
400,-25.54,-46.81,-63.41,-45.36,-50.49,-44.9,-40.25,-37,22.52,6.849,25.47,19.3,3.739,5.936,40.97,23.15,0,0,0,0,0,0,0,0,0,0,0,0,0,0,0,0,
401,6.777,-9.906,-19.46,-12.68,-43.73,-49.26,-15.05,-37.07,15.53,-3.291,18.59,29.34,19.94,20.1,42.73,24.13,0,0,0,0,0,0,0,0,0,0,0,0,0,0,0,0,
402,-0.5137,1.224,-34.17,-27.18,-43.06,-55.43,-9.546,-50.55,-42.85,-9.463,-9.804,22.25,32.86,21.29,26.19,15.14,0,0,0,0,0,0,0,0,0,0,0,0,0,0,0,0,
403,12.76,21.24,-40.39,-21.16,-10.11,-12.57,21.31,-30.48,-41.82,11.09,-10.04,33.05,47.93,29.6,28.95,18.71,0,0,0,0,0,0,0,0,0,0,0,0,0,0,0,0,
404,33.37,36.67,-21.36,0.3304,5.575,13.95,30.05,-28.3,-8.197,-0.6091,-16.49,22.36,31.31,27.36,10.4,7.739,0,0,0,0,0,0,0,0,0,0,0,0,0,0,0,0,
405,4.459,8.194,-45.77,-22.84,-29.94,-13.79,-12.97,-49.08,-38.98,-20.7,-44.85,-22.23,-4.924,6.891,-32.87,-14.09,0,0,0,0,0,0,0,0,0,0,0,0,0,0,0,0,
406,-48.28,-35.01,-103.9,-69.84,-67.64,-35.25,-37.31,-37.85,-90.23,2.508,-65.18,-51.74,-24.65,-8.147,-49.62,-19.6,0,0,0,0,0,0,0,0,0,0,0,0,0,0,0,0,
407,-60.31,-36.03,-107.4,-59.44,-56.86,-26.09,-1.773,9.107,-68.58,43.21,-56.03,-34.56,-12.28,2.152,-29.31,-3.532,0,0,0,0,0,0,0,0,0,0,0,0,0,0,0,0,
408,-33.68,-3.181,-57.71,0.2666,-36.81,-27.62,27.42,41.74,-61.14,51.15,-52.87,-25.75,2.804,12,-33.97,-8.448,0,0,0,0,0,0,0,0,0,0,0,0,0,0,0,0,
409,-38.68,5.371,-33.8,19.26,-59.6,-42.28,11.11,35.61,-129.8,26.5,-81.12,-61.43,-6.471,-1.927,-75.55,-41.43,0,0,0,0,0,0,0,0,0,0,0,0,0,0,0,0,
410,-61.25,-2.599,-26.54,0.2675,-62.25,-28.51,6.026,25.49,-123.1,18.66,-80.56,-72.22,-12.83,-11.99,-82.68,-47.51,0,0,0,0,0,0,0,0,0,0,0,0,0,0,0,0,
411,-39.95,-2.713,-12.9,-9.998,-18.69,-15.79,6.884,15.64,-30.06,23.51,-37.87,-43.36,-14.91,-10.46,-50.81,-32.67,0,0,0,0,0,0,0,0,0,0,0,0,0,0,0,0,
412,-21.16,-27.17,-30.71,-25.79,-11.29,-38.99,-28.99,-14.43,1.867,3.987,-6.983,-24.84,-27.64,-12.84,-20.67,-25.07,0,0,0,0,0,0,0,0,0,0,0,0,0,0,0,0,
413,-27.7,-56.56,-54.19,-42.55,-39.62,-44.59,-50.72,-34.82,3.569,-16.94,13.71,-4.385,-24.46,-10.06,13.56,-4.047,0,0,0,0,0,0,0,0,0,0,0,0,0,0,0,0,
414,-7.532,-46.5,-41.4,-41.34,-36.64,-17.52,-28.98,-28.14,37.62,-17,36.28,24.97,-4.136,4.363,45.74,22.81,0,0,0,0,0,0,0,0,0,0,0,0,0,0,0,0,
415,24.6,-19.99,-25.81,-27.7,-0.7198,-1.823,-3.474,-8.968,51.26,-10.3,41.65,33.09,5.13,16.99,44.03,21.54,0,0,0,0,0,0,0,0,0,0,0,0,0,0,0,0,
416,27.21,-11.79,-39.32,-18.38,11.39,-10.99,-2.099,4.785,31.24,-19.73,14.62,5.334,-11.26,1.242,-6.395,-16.53,0,0,0,0,0,0,0,0,0,0,0,0,0,0,0,0,
417,-0.1196,-31.64,-58.47,-34.35,-23.65,-30.68,-27.2,-3.203,5.767,-38.38,-32.14,-40.06,-34.35,-28.82,-66.05,-51.33,0,0,0,0,0,0,0,0,0,0,0,0,0,0,0,0,
418,-24.53,-44,-32.48,-39.71,-29.75,-22.95,-34.75,-3.973,-0.4366,-16.26,-47.76,-47.59,-19.74,-18.63,-67.92,-30.57,0,0,0,0,0,0,0,0,0,0,0,0,0,0,0,0,
419,-8.532,-16.29,14.77,-9.387,18.51,12.07,-6.242,8.106,16.24,14.77,-24.14,-16.12,8.18,5.04,-35.52,2.202,0,0,0,0,0,0,0,0,0,0,0,0,0,0,0,0,
420,14.9,-1.102,2.695,-8.993,26.8,16.83,2.321,-16.91,9.695,-19,-8.036,-5.581,-2.678,-12.29,-33.01,-15.83,0,0,0,0,0,0,0,0,0,0,0,0,0,0,0,0,
421,6.995,-21.48,-35.49,-40.18,-7.046,-2.487,-9.427,-50.58,-13.33,-57.74,0.5765,-4.65,-10.13,-24.43,-29.79,-31.42,0,0,0,0,0,0,0,0,0,0,0,0,0,0,0,0,
422,8.849,-19.44,-35.8,-37.76,-10.67,4.155,1.689,-35.75,5.233,-41.4,19.62,21.1,15.57,-2.116,8.975,-2.898,0,0,0,0,0,0,0,0,0,0,0,0,0,0,0,0,
423,19.92,-4.082,-58.35,-40.65,-23.19,1.825,-5.027,-23.1,14.95,-24.94,10.92,21.93,13.82,-0.2677,28.6,9.047,0,0,0,0,0,0,0,0,0,0,0,0,0,0,0,0,
424,-26.66,-34.48,-120.4,-96.96,-79.88,-62.14,-67.2,-54.15,-48.63,-25.48,-41.15,-27.93,-22.9,-12.57,5.829,-10.27,0,0,0,0,0,0,0,0,0,0,0,0,0,0,0,0,
425,-96.33,-75.66,-120.3,-124.9,-97.19,-121.9,-108.5,-60.44,-94.73,-11.11,-67.88,-55.37,-29.19,18.23,-3.217,-6.822,0,0,0,0,0,0,0,0,0,0,0,0,0,0,0,0,
426,-99.2,-64.08,-67.76,-75.73,-59.71,-110.8,-78.8,-17.33,-71.4,-1.618,-50.42,-39.62,-14.79,49.61,-1.802,-0.6492,0,0,0,0,0,0,0,0,0,0,0,0,0,0,0,0,
427,-75.89,-42.85,-74.08,-39.49,-62.73,-91.94,-52.53,3.005,-69.16,-10.84,-59.26,-48.56,-33.41,23.21,-37,-31.55,0,0,0,0,0,0,0,0,0,0,0,0,0,0,0,0,
428,-93.79,-60.35,-105.4,-55.86,-95.53,-102.8,-64.91,-4.591,-98.08,-8.297,-91.11,-83.16,-61.37,-6.625,-79.28,-57.52,0,0,0,0,0,0,0,0,0,0,0,0,0,0,0,0,
429,-112.6,-75.63,-88.25,-59.53,-89.34,-104.7,-63.52,12.83,-109.4,6.819,-98.03,-99.43,-65.04,-1.64,-98.87,-56.47,0,0,0,0,0,0,0,0,0,0,0,0,0,0,0,0,
430,-96.51,-61.3,-67.55,-22,-65.29,-84.38,-26.47,55.96,-104,25.96,-85.08,-90.95,-49.85,7.392,-103.1,-46.98,0,0,0,0,0,0,0,0,0,0,0,0,0,0,0,0,
431,-53.83,-27.47,-47.01,27.59,-36.03,-32.42,24.05,101.7,-66.54,52.4,-59.23,-62.56,-27.47,5.401,-88.2,-39.28,0,0,0,0,0,0,0,0,0,0,0,0,0,0,0,0,
432,-17.54,-1.565,-15.48,31.27,-12.61,2.221,34.67,111.2,-34.92,47.88,-52.04,-51.07,-32.37,-20.54,-82.84,-58.45,0,0,0,0,0,0,0,0,0,0,0,0,0,0,0,0,
433,-31.5,-16.1,-19.61,-8.897,-17.17,-35.68,-1.779,80.91,-40.7,23.13,-70.07,-61.37,-48.33,-40.87,-86.78,-74.79,0,0,0,0,0,0,0,0,0,0,0,0,0,0,0,0,
434,-47.31,-26.17,-22.36,-0.7738,-1.296,-57.3,-8.141,74.56,-20.12,33.84,-52.45,-40.47,-23.48,-11.19,-55.51,-45.49,0,0,0,0,0,0,0,0,0,0,0,0,0,0,0,0,
435,-20.94,-1.639,-3.247,30.94,19.1,-23.3,12.13,84.19,-8.222,36.55,-22.06,-13.45,0.5635,12.12,-18.36,-22.13,0,0,0,0,0,0,0,0,0,0,0,0,0,0,0,0,
436,-9.05,4.741,-6.452,7.475,-2.5,-5.203,11.87,74.7,-39.62,16.14,-18.87,-9.69,-0.4986,0.9295,-3.294,-18.83,0,0,0,0,0,0,0,0,0,0,0,0,0,0,0,0,
437,-5.957,4.105,9.309,-1.78,4.245,3.311,23.68,83.32,-21.17,25.44,0.3598,11.01,16.53,6.382,15.26,1.494,0,0,0,0,0,0,0,0,0,0,0,0,0,0,0,0,
438,20.09,21.72,36.64,21.15,38.94,12.07,32.45,95.32,16.37,23.36,26.48,31.29,30.62,16.12,28.43,15.3,0,0,0,0,0,0,0,0,0,0,0,0,0,0,0,0,
439,21.89,13.36,-0.1426,-2.59,23.9,-5.343,-5.25,70.06,-6.147,-3.485,23.7,18.36,16.25,10.96,21.46,12.53,0,0,0,0,0,0,0,0,0,0,0,0,0,0,0,0,
440,-14.99,-25.15,-69.7,-48.6,-23.41,-47.58,-58.59,29.36,-43.32,-4.8,-8.503,-15.21,-7.196,10.33,-4.981,4.397,0,0,0,0,0,0,0,0,0,0,0,0,0,0,0,0,
441,-65.68,-62.57,-118.8,-72.81,-69.24,-108.3,-98.97,-11.83,-68.57,-11.42,-61.87,-59.81,-31.82,6.941,-40.41,-14.01,0,0,0,0,0,0,0,0,0,0,0,0,0,0,0,0,
442,-103.3,-77.88,-122.3,-81.38,-81.7,-129,-107.3,-31.64,-64.79,-26.07,-73.77,-80.96,-39.45,5.289,-51.21,-17.56,0,0,0,0,0,0,0,0,0,0,0,0,0,0,0,0,
443,-93.88,-60.03,-72.63,-66.22,-37.27,-86.74,-78.81,-6.019,-32.57,-8.088,-34.66,-66.83,-30.3,11.89,-48.53,-5.099,0,0,0,0,0,0,0,0,0,0,0,0,0,0,0,0,
444,-70.27,-46.37,-51.21,-50.29,-14.87,-81.05,-65.44,14.57,-58.75,1.254,-48.68,-71.13,-36.92,-0.2043,-72.56,-14.34,0,0,0,0,0,0,0,0,0,0,0,0,0,0,0,0,
445,-85.78,-64.81,-104.5,-71.76,-60.89,-130.1,-85.49,-11.11,-127.6,-19.26,-114.2,-94.24,-47.3,-22.53,-93.4,-30.2,0,0,0,0,0,0,0,0,0,0,0,0,0,0,0,0,
446,-101.8,-71.95,-141.9,-94.07,-88.89,-133.6,-84.57,-22.17,-124.1,-21.38,-111.5,-72.56,-25.75,-18.39,-58.55,-14.32,0,0,0,0,0,0,0,0,0,0,0,0,0,0,0,0,
447,-67.49,-37.93,-97.2,-62.86,-52.62,-75.91,-43.68,24.28,-65.14,-3.934,-38.47,-15.92,8.858,-8.617,0.1635,7.556,0,0,0,0,0,0,0,0,0,0,0,0,0,0,0,0,
448,-23.79,-6.323,-27.29,-10.59,-10.65,-36.79,-13.41,61.5,-26.83,-1.321,10.02,12.22,20.6,-19.34,26.29,6.437,0,0,0,0,0,0,0,0,0,0,0,0,0,0,0,0,
449,-7.8,-0.1836,11.29,16.46,12.62,-29.33,0.2403,66.87,8.36,4.534,31.05,26.64,32.01,-7.82,44.8,21.45,0,0,0,0,0,0,0,0,0,0,0,0,0,0,0,0,
450,20.4,22.28,36.99,29.25,35.1,0.7927,34.07,92.98,47.61,35.25,54.61,54.52,59.27,24.94,72.17,55.53,0,0,0,0,0,0,0,0,0,0,0,0,0,0,0,0,
451,53.35,50.74,40.92,22.86,34.94,22.67,52.62,108,48.38,53.11,52.2,58.63,65.25,19.94,68.7,58.32,0,0,0,0,0,0,0,0,0,0,0,0,0,0,0,0,
452,44.28,43,7.791,11.52,20.27,-6.699,34.12,85.85,26.12,44.11,30.23,42.8,50.26,-0.444,43.73,42.08,0,0,0,0,0,0,0,0,0,0,0,0,0,0,0,0,
453,21.01,28.15,-4.274,33.52,27.02,-20.25,24.23,80.81,8.529,33.87,8.454,28.38,37.69,-6.073,15.45,32.36,0,0,0,0,0,0,0,0,0,0,0,0,0,0,0,0,
454,9.8,26.83,6.461,41.86,26.85,4.638,25.28,81.44,-4.946,15.27,-20.9,3.749,29.05,-17.93,-17.45,30.3,0,0,0,0,0,0,0,0,0,0,0,0,0,0,0,0,
455,8.857,29.82,-14.62,10.94,8.23,16.44,32.33,61.75,7.043,-6.294,-28.29,-3.851,37.62,-14.95,-22.69,48.1,0,0,0,0,0,0,0,0,0,0,0,0,0,0,0,0,
456,23.08,42.01,-33.08,-2.578,2.168,19.96,46.5,56.18,17.31,-3.664,-13.32,8.295,46.47,4.122,-7.622,57.99,0,0,0,0,0,0,0,0,0,0,0,0,0,0,0,0,
457,23.64,40.65,-16.12,8.031,7.27,20.6,28.96,63.79,-6.788,2.056,-4.822,5.568,30.29,6.185,-5.286,44.33,0,0,0,0,0,0,0,0,0,0,0,0,0,0,0,0,
458,6.289,13.65,-15.01,12.07,13.32,-1.059,-11.46,59.55,-8.409,-22.75,12.72,0.443,13.22,3.947,-6.918,37.69,0,0,0,0,0,0,0,0,0,0,0,0,0,0,0,0,
459,-4.308,-15.24,-39.49,-8.347,9.465,-18.64,-30.7,42.41,15.03,-54.75,22.58,-3.175,4.391,0.4392,-7.918,27.22,0,0,0,0,0,0,0,0,0,0,0,0,0,0,0,0,
460,-18.94,-31.74,-37.1,-44.47,-5.182,-21.76,-33.21,15.53,-5.836,-51.17,-2.852,-17.87,-12.81,-20.31,-12.38,-3.067,0,0,0,0,0,0,0,0,0,0,0,0,0,0,0,0,
461,-40.76,-38.97,-24.72,-62.54,-17.72,-49.28,-45.35,-15.31,-60.7,-27.84,-33.24,-35.92,-40.92,-44.99,-24.96,-33.52,0,0,0,0,0,0,0,0,0,0,0,0,0,0,0,0,
462,-58.95,-51.97,-51.98,-64.09,-32.48,-78.59,-63.5,-18.68,-80.25,-8.776,-31.63,-42.35,-52.36,-44.7,-28.32,-38.99,0,0,0,0,0,0,0,0,0,0,0,0,0,0,0,0,
463,-56.29,-53.84,-82.9,-50.74,-39.68,-71.65,-60.95,25.9,-53.64,15.48,-4.032,-27.12,-30.84,-25.32,-5.443,-25.24,0,0,0,0,0,0,0,0,0,0,0,0,0,0,0,0,
464,-41.38,-38.61,-93.75,-37.57,-45.68,-89.13,-65.2,52,-45.18,18.24,-6.165,-27.59,-29.26,-38.38,-7.696,-34.95,0,0,0,0,0,0,0,0,0,0,0,0,0,0,0,0,
465,-57.79,-43.32,-90.91,-63.08,-55.92,-116.2,-87.36,33.76,-45.46,7.884,-23.28,-42.35,-40.2,-54.94,-23.64,-33.38,0,0,0,0,0,0,0,0,0,0,0,0,0,0,0,0,
466,-57.42,-33.8,-42.26,-63.7,-24.08,-57.89,-57.32,53.25,6.122,34.19,5.203,-19.13,-3.07,-16.56,-2.647,15.47,0,0,0,0,0,0,0,0,0,0,0,0,0,0,0,0,
467,-10.29,-0.2152,-13.85,-11.91,10.53,-1.1,-13.31,84.57,29.84,51.53,3.159,-16.12,13.25,-3.387,-20.9,15.8,0,0,0,0,0,0,0,0,0,0,0,0,0,0,0,0,
468,-11.96,-12.96,-53.3,-2.559,-4.454,-22.54,-25.8,67.78,-10.53,38.35,-49.39,-54.07,-22.4,-48.15,-72.03,-33.22,0,0,0,0,0,0,0,0,0,0,0,0,0,0,0,0,
469,-35.47,-25.85,-31.93,-11.44,10.16,-9.602,-12.92,74.03,-0.1636,44.56,-35.43,-32.99,-19.73,-61.73,-49.82,-26.84,0,0,0,0,0,0,0,0,0,0,0,0,0,0,0,0,
470,8.03,13.21,42,26.85,53.47,46.74,41.42,107.4,46.09,51.75,10.65,20.43,13.55,-41.39,-7.606,6.26,0,0,0,0,0,0,0,0,0,0,0,0,0,0,0,0,
471,53.43,43.92,44.37,59.72,50.8,65.76,63.74,110.5,44.47,55.16,13.01,32.87,35.61,-18.98,-5.114,17.94,0,0,0,0,0,0,0,0,0,0,0,0,0,0,0,0,
472,61.99,63.81,38.32,69.62,37.48,67.18,73.32,110.7,30.77,64.37,21.14,37.96,54.3,1.047,-1.059,23.57,0,0,0,0,0,0,0,0,0,0,0,0,0,0,0,0,
473,70.37,78.48,59.53,72.49,30.42,60.51,74.66,109.4,33.29,36.36,33.63,40.53,43.51,-9.878,0.374,13.89,0,0,0,0,0,0,0,0,0,0,0,0,0,0,0,0,
474,62.87,53.23,25.25,50.35,1.889,30.41,42.97,85.29,25.79,1.761,19.54,21.42,13.27,-29.49,0.5313,5.994,0,0,0,0,0,0,0,0,0,0,0,0,0,0,0,0,
475,29.07,20.78,-19.13,17.59,-17.78,-1.182,13.96,60.05,-8.754,9.623,4.218,0.4772,2.544,-27.44,18.31,17.67,0,0,0,0,0,0,0,0,0,0,0,0,0,0,0,0,
476,-12.04,0.8981,-9.034,-12.99,-18.58,-25.9,-6.475,32.78,-45.12,22.29,-1.625,-14.54,-5.455,-27.09,27.66,20.87,0,0,0,0,0,0,0,0,0,0,0,0,0,0,0,0,
477,-43.23,-25.35,-12.83,-49.4,-30.18,-46.29,-40.61,8.998,-32.46,16.21,4.463,-18.78,-13.91,-25.12,25.63,20.22,0,0,0,0,0,0,0,0,0,0,0,0,0,0,0,0,
478,-42.99,-33.75,-53.37,-62.44,-42.07,-48.62,-59.9,19.49,8.686,7.324,15.07,-9.414,-0.9879,-19.56,21.95,31.59,0,0,0,0,0,0,0,0,0,0,0,0,0,0,0,0,
479,-22.59,-19.3,-58.7,-35.15,-28.92,-29.83,-47.83,46.85,18.74,11.15,-6.951,-15.97,8.47,-39.44,-7.387,23.29,0,0,0,0,0,0,0,0,0,0,0,0,0,0,0,0,
480,-25.85,-20.05,-33.93,-17.85,-17.56,-30.81,-43.76,50.74,-5.932,23.32,-58.77,-55.4,-16.66,-66.45,-54.56,-16.16,0,0,0,0,0,0,0,0,0,0,0,0,0,0,0,0,
481,-54.75,-36.2,-38.28,-35.7,-37.98,-65.88,-56.85,41.83,-35.12,16.43,-82.2,-82.9,-39,-56.13,-70.96,-35.92,0,0,0,0,0,0,0,0,0,0,0,0,0,0,0,0,
482,-62.27,-35.81,-56.42,-45.87,-59.34,-73.71,-49.04,46.03,-35.05,1.65,-55.9,-62.67,-17.75,-20.96,-52.44,-12.77,0,0,0,0,0,0,0,0,0,0,0,0,0,0,0,0,
483,-39.59,-17.5,-57.6,-38.04,-51.87,-45.96,-24.53,54.73,1.455,17.49,-15.27,-28.67,16.99,6.317,-28.11,20.05,0,0,0,0,0,0,0,0,0,0,0,0,0,0,0,0,
484,-13.32,5.251,-37.45,-21.74,-18.61,-27.85,-10.52,68.68,43.74,52.23,22.35,-3.357,35.11,31.28,0.44,44.48,0,0,0,0,0,0,0,0,0,0,0,0,0,0,0,0,
485,11.49,24.49,-0.0661,10.21,19.27,-10.79,-2.149,88.24,62.53,60.11,46.74,16.54,32.2,42.63,19.52,43.08,0,0,0,0,0,0,0,0,0,0,0,0,0,0,0,0,
486,21.61,22.48,16.44,15,25.71,9.444,8.111,88.27,62.08,46.22,46.4,18.76,9.161,20.04,14.41,8.831,0,0,0,0,0,0,0,0,0,0,0,0,0,0,0,0,
487,18.39,14.43,11.45,-14.32,15.56,13.06,20.36,83.61,67.56,48.78,47.84,14.99,-3.433,-0.1135,8.972,-15.99,0,0,0,0,0,0,0,0,0,0,0,0,0,0,0,0,
488,25.09,22.38,18.14,-8.214,23.35,1.328,20.08,93.81,60.97,40.88,45.21,9.842,-5.136,0.3502,1.926,-24.14,0,0,0,0,0,0,0,0,0,0,0,0,0,0,0,0,
489,24.23,16.6,14.98,24.88,27.82,-8.084,5.155,96.91,29.68,5.766,20.88,-5.133,-20.28,0.139,-7.4,-30.48,0,0,0,0,0,0,0,0,0,0,0,0,0,0,0,0,
490,15.31,-2.55,-0.2853,23.31,12.83,7.695,2.419,90.43,23.1,-8.482,17.12,-4.744,-23.31,3.004,6.005,-12.44,0,0,0,0,0,0,0,0,0,0,0,0,0,0,0,0,
491,14.42,-10.69,-1.672,-12.34,-16.51,16.99,-12.87,76.57,31.86,-13,23.98,3.09,-6.825,6.074,17.64,16,0,0,0,0,0,0,0,0,0,0,0,0,0,0,0,0,
492,-0.547,-19.79,1.712,-36.92,-39.99,-18.9,-52.04,63.07,25.32,-16.83,9.009,-0.9208,7.34,9.29,16.26,29.71,0,0,0,0,0,0,0,0,0,0,0,0,0,0,0,0,
493,-10.98,-17,13.36,-18.97,-20.16,-49.72,-49.03,74.37,41.66,16.48,16.61,6.315,15.77,19.21,26.23,36.37,0,0,0,0,0,0,0,0,0,0,0,0,0,0,0,0,
494,-3.511,-5.8,28.3,2.358,6.909,-49.58,-23.53,79.25,42.7,27.3,28.32,0.9848,-6.452,-2.046,11.57,16.09,0,0,0,0,0,0,0,0,0,0,0,0,0,0,0,0,
495,-27.7,-29.46,8.608,-22.14,-19.79,-57.04,-45.84,52.26,-20.57,-19.64,-16.48,-44.64,-55.5,-54.16,-40.59,-26.04,0,0,0,0,0,0,0,0,0,0,0,0,0,0,0,0,
496,-60.43,-56.02,-33.6,-51.03,-54.7,-54.26,-64.29,42.64,-48.85,-29.75,-53.7,-70.24,-66.05,-69.38,-61.85,-32.13,0,0,0,0,0,0,0,0,0,0,0,0,0,0,0,0,
497,-39.07,-33.24,-28.63,-31.87,-35.37,-17.98,-27.82,65.7,-8.232,9.781,-32.65,-50.07,-35.87,-40.19,-50.94,-12.33,0,0,0,0,0,0,0,0,0,0,0,0,0,0,0,0,
498,-7.511,-2.047,28.04,-2.354,-6.058,-4.472,-2.699,71.84,-6.953,15.6,-32.98,-52.76,-36.38,-19.75,-80.7,-30.99,0,0,0,0,0,0,0,0,0,0,0,0,0,0,0,0,
499,-24.38,-12.97,35.33,-22.48,-23.92,-31.01,-25.91,46.28,-39.02,-3.275,-65.96,-87.51,-68.94,-18.32,-127.5,-67.43,0,0,0,0,0,0,0,0,0,0,0,0,0,0,0,0,
500,-42.42,-33.78,-21.69,-56.89,-42.84,-35.11,-35.35,31.68,-20.66,4.617,-47.99,-80.51,-67.04,-14.85,-107.5,-60.69,0,0,0,0,0,0,0,0,0,0,0,0,0,0,0,0,
501,-15.88,-21.49,-32.23,-38.89,-22.82,-19.48,-9.44,41.17,7.886,13.01,-3.057,-35.11,-31.3,-12.15,-44.72,-31.51,0,0,0,0,0,0,0,0,0,0,0,0,0,0,0,0,
502,9.883,2.315,10.06,-4.586,-11.32,-15.04,3.582,45.18,10.23,8.552,12.12,-7.392,-2.972,-8.652,-1.224,-12.03,0,0,0,0,0,0,0,0,0,0,0,0,0,0,0,0,
503,8.772,13.64,30.03,-8.429,-22.72,0.1897,-3.255,40.15,28.89,19.92,25.05,4.599,14.76,1.254,20.7,2.722,0,0,0,0,0,0,0,0,0,0,0,0,0,0,0,0,
504,2.795,15.3,23.02,-31.14,-34.82,-11.01,-10.97,27.94,34.17,14.93,26.39,1.703,12.39,-4.031,17.15,-1.964,0,0,0,0,0,0,0,0,0,0,0,0,0,0,0,0,
505,-6.869,8.644,9.564,-43.71,-46.09,-50.82,-12.3,17.03,1.675,-10.92,4.102,-14.82,-0.7542,-20,2.138,-11.51,0,0,0,0,0,0,0,0,0,0,0,0,0,0,0,0,
506,-6.46,12.59,6.438,-36.44,-37.94,-22.48,2.605,37.11,-9.542,0.0134,-4.811,-16.76,6.463,-28.5,-1.571,-1.91,0,0,0,0,0,0,0,0,0,0,0,0,0,0,0,0,
507,6.579,20.75,21.97,-25.77,-16.4,27.31,13.37,58.24,1.929,16.53,-15.56,-18.74,2.805,-43.83,-15.9,-6.955,0,0,0,0,0,0,0,0,0,0,0,0,0,0,0,0,
508,-0.6393,1.776,42.59,-28.2,-11.97,6.551,6.92,46.33,3.921,0.7674,-29.62,-33.14,-31.48,-55.29,-33.63,-27.49,0,0,0,0,0,0,0,0,0,0,0,0,0,0,0,0,
509,-21.45,-22.76,48.62,-23.08,-18.95,-23.36,-5.249,31.79,-1.071,-9.447,-21.48,-42.65,-59.03,-60.57,-38.84,-39.17,0,0,0,0,0,0,0,0,0,0,0,0,0,0,0,0,
510,-35.72,-35.17,23.2,-14.88,-26.35,-30.45,-33.75,14.14,-10.07,-20.66,-19.96,-50.55,-71.84,-91.61,-53.22,-60.92,0,0,0,0,0,0,0,0,0,0,0,0,0,0,0,0,
511,-38.53,-48.87,3.5,-28.78,-30.53,-42.4,-56.08,-13.02,-4.661,-43.59,-19.45,-46.35,-76.36,-117.3,-59.45,-84.27,0,0,0,0,0,0,0,0,0,0,0,0,0,0,0,0,
512,-25.67,-53.13,18.11,-49.11,-34.43,-47.9,-45.06,-15.62,7.391,-43.79,3.511,-26.1,-69.23,-91.6,-34.43,-76.67,0,0,0,0,0,0,0,0,0,0,0,0,0,0,0,0,
513,-22.94,-51.03,9.48,-57.65,-37.39,-48.16,-44.32,-2.284,1.894,-29.24,16.18,-19.35,-59.89,-39.93,-8.262,-46.59,0,0,0,0,0,0,0,0,0,0,0,0,0,0,0,0,
514,-42.73,-60.41,-32.06,-69.61,-32.9,-53.57,-71.03,-7.962,-7.257,-30.99,0.0177,-35.73,-54.38,-6.068,-13.13,-25.6,0,0,0,0,0,0,0,0,0,0,0,0,0,0,0,0,
515,-64.55,-67.47,-48.01,-92.99,-52.81,-68.17,-79.95,-23.99,-30.1,-33.4,-29.63,-56.68,-45.59,-2.922,-35.24,-22.48,0,0,0,0,0,0,0,0,0,0,0,0,0,0,0,0,
516,-73.13,-50.9,-24.22,-89.24,-88.12,-79.04,-53.68,-23.78,-58.85,-11.23,-45.78,-57.11,-27.75,-9.825,-38.82,-19.76,0,0,0,0,0,0,0,0,0,0,0,0,0,0,0,0,
517,-62.89,-24.13,5.823,-53.27,-80.07,-66.22,-28.58,-10.53,-53.28,3.48,-46.28,-49.09,-18.35,-10.04,-40.91,-21.07,0,0,0,0,0,0,0,0,0,0,0,0,0,0,0,0,
518,-56.88,-16.97,7.006,-45.42,-50.82,-54.54,-32.57,4.231,-39.53,-3.051,-50.47,-56.5,-20.35,-6.718,-61.42,-28.72,0,0,0,0,0,0,0,0,0,0,0,0,0,0,0,0,
519,-58.18,-14.99,7.257,-52.93,-38.6,-59.59,-39.5,21.38,-32.13,18.04,-39.07,-55.47,-14.07,-8.364,-70.57,-29.86,0,0,0,0,0,0,0,0,0,0,0,0,0,0,0,0,
520,-45.49,-7.71,24.12,-35.21,-41.81,-75.61,-38,16.56,-11.15,33.54,-23.86,-52.65,-29.14,-39.22,-80.78,-51.34,0,0,0,0,0,0,0,0,0,0,0,0,0,0,0,0,
521,-42.83,-25.11,-1.758,-32.02,-61.07,-92.29,-47.11,-11.19,-2.051,-6.918,-30.96,-60.59,-67.84,-81.75,-91.9,-81.97,0,0,0,0,0,0,0,0,0,0,0,0,0,0,0,0,
522,-39.24,-41.59,-41.13,-47.9,-60.07,-62.99,-47.35,-18.36,-10.95,-32,-14.23,-37.67,-66.26,-83.87,-56.87,-65.23,0,0,0,0,0,0,0,0,0,0,0,0,0,0,0,0,
523,-7.46,-27.73,-20.88,-50.87,-35.11,-12.23,-26.17,-12.78,-22.46,-16.74,16.31,-13.3,-36.77,-64.04,-16.49,-32.47,0,0,0,0,0,0,0,0,0,0,0,0,0,0,0,0,
524,-4.222,-21.19,17.13,-40.63,-34.09,-19.39,-7.176,-6.178,-41.64,-9.77,6.948,-34,-28.22,-55.47,-14.17,-30.92,0,0,0,0,0,0,0,0,0,0,0,0,0,0,0,0,
525,-41.91,-28.92,30.77,-18.98,-45.42,-54.3,-10.59,10.09,-54.98,-8.288,-6.443,-49.38,-32.9,-52.11,-7.367,-41.63,0,0,0,0,0,0,0,0,0,0,0,0,0,0,0,0,
526,-61.93,-37.6,13.85,-26.38,-55.94,-62.04,-45.82,-8.602,-51.49,-17.58,2.708,-38.3,-44.18,-62.97,1.202,-57.79,0,0,0,0,0,0,0,0,0,0,0,0,0,0,0,0,
527,-56.86,-48.76,-34.42,-73.99,-77.7,-62.72,-78.76,-50.94,-40.66,-34.69,5.846,-31.25,-47.85,-81.23,-21.41,-77.28,0,0,0,0,0,0,0,0,0,0,0,0,0,0,0,0,
528,-40.16,-38.37,-45.15,-75.55,-75.32,-57.85,-57.97,-39.79,-20.73,-18.25,1.288,-23.81,-19.14,-71.56,-42.77,-69.64,0,0,0,0,0,0,0,0,0,0,0,0,0,0,0,0,
529,-13.15,-3.223,8.658,-14.21,-42.13,-16.71,3.046,5.392,7.773,11.44,2.94,-11.82,20.14,-30.96,-36.22,-33.08,0,0,0,0,0,0,0,0,0,0,0,0,0,0,0,0,
530,2.53,20.91,27.2,9.424,-42.13,17.26,30.94,11.7,8.268,4.584,0.0835,-19.61,28.12,-1.465,-44.1,-16.76,0,0,0,0,0,0,0,0,0,0,0,0,0,0,0,0,
531,-15.98,12.29,-24.82,-39.78,-79.25,-18.04,-8.646,-19.81,-34.8,-19.33,-16.37,-45.08,11.5,-4.829,-75.84,-30.59,0,0,0,0,0,0,0,0,0,0,0,0,0,0,0,0,
532,-41.78,-3.633,-42.16,-69.08,-77.53,-49.21,-41.48,-29.02,-58.01,-11.52,-16.81,-43.53,15.32,-2.74,-69.42,-20.62,0,0,0,0,0,0,0,0,0,0,0,0,0,0,0,0,
533,-31.66,8.5,-0.661,-43.28,-51.14,-26.73,-20.91,-5.575,-42.78,10.1,4.326,-17.5,28.52,8.079,-30.61,4.251,0,0,0,0,0,0,0,0,0,0,0,0,0,0,0,0,
534,-11.51,16.55,14.11,-41.25,-62.6,-33.22,-4.086,-0.7055,-30.77,-0.3664,16.5,-10.36,12.55,-10.26,-10.53,-0.9581,0,0,0,0,0,0,0,0,0,0,0,0,0,0,0,0,
535,-11.34,-9.329,10.06,-51.12,-63.17,-53.03,-4.594,-17.02,-4.34,-23,29.77,-11.25,-7.751,-36.61,0.5757,-16.2,0,0,0,0,0,0,0,0,0,0,0,0,0,0,0,0,
536,-18.63,-36.04,-1.304,-29.04,-53.5,-50.26,-20.07,-32.66,7.381,-36.8,35.76,-11.61,-17.13,-51.99,1.138,-29.31,0,0,0,0,0,0,0,0,0,0,0,0,0,0,0,0,
537,-38.28,-48.03,-50.31,-36.87,-94.27,-79.01,-59.36,-41.1,-34.74,-46.31,15.78,-14.83,-19.11,-61.51,-2.083,-32.67,0,0,0,0,0,0,0,0,0,0,0,0,0,0,0,0,
538,-39.27,-38.68,-36.1,-55.7,-99.81,-73.85,-49.85,-14.04,-35.84,-30.9,15.09,5.467,3.691,-42.21,23.12,-7.565,0,0,0,0,0,0,0,0,0,0,0,0,0,0,0,0,
539,0.2173,-12.3,52.85,-26.2,-38.34,-3.684,-0.8615,19.68,10.34,-9.25,26.53,16.1,16.65,-13.23,27.72,0.3465,0,0,0,0,0,0,0,0,0,0,0,0,0,0,0,0,
540,9.151,-11.66,60.04,-8.832,-17.57,5.928,-9.539,11,7.943,-11.71,3.796,-17.11,-3.76,-11,-16.56,-29.36,0,0,0,0,0,0,0,0,0,0,0,0,0,0,0,0,
541,-20.73,-29.02,19.25,-18.42,-27.96,-33.39,-36.27,-1.124,-6.513,-10.61,-12.79,-37.11,-10.6,-14.18,-43.38,-44.67,0,0,0,0,0,0,0,0,0,0,0,0,0,0,0,0,
542,-23.2,-22.04,26.55,-10.77,-25.59,-38.81,-26.14,8.15,4.951,6.384,10.05,-15.64,12.32,0.9936,-28.11,-24.76,0,0,0,0,0,0,0,0,0,0,0,0,0,0,0,0,
543,-1.44,7.542,9.806,-7.521,-46.88,-44.98,-15.38,14.68,0.3207,25.33,32.35,11.28,46.69,32.96,-1.885,11.77,0,0,0,0,0,0,0,0,0,0,0,0,0,0,0,0,
544,13.13,36.85,-29.57,-17.03,-70.71,-55.45,-4.815,15.4,-5.571,34.33,30.33,19.63,70.55,60.73,12.38,35.78,0,0,0,0,0,0,0,0,0,0,0,0,0,0,0,0,
545,14.55,42.59,-10.6,-15.26,-55.26,-37.33,5.527,16.98,13.5,23.12,28.5,12.55,61.2,55.65,10.62,36.36,0,0,0,0,0,0,0,0,0,0,0,0,0,0,0,0,
546,3.734,20.32,22.82,-16.97,-36.82,-32.03,-16.35,20.71,19.84,2.901,24.49,-2.723,29.79,23.67,-2.655,27.33,0,0,0,0,0,0,0,0,0,0,0,0,0,0,0,0,
547,-18.38,-15.13,3.423,-37.79,-47.82,-57.84,-45.88,14.73,-11.31,-16.69,-3.027,-21.61,5.772,4.575,-17.39,15.11,0,0,0,0,0,0,0,0,0,0,0,0,0,0,0,0,
548,-31.55,-31.17,-16.26,-30.88,-40.5,-47.69,-26.42,10.3,-17.79,-16.13,1.719,-10.1,16.05,26.79,-4.687,20.18,0,0,0,0,0,0,0,0,0,0,0,0,0,0,0,0,
549,1.421,5.961,25.07,29.22,7.15,7.944,27.62,33.21,25.91,11.25,42.95,26.44,42.46,50.7,10.43,30.21,0,0,0,0,0,0,0,0,0,0,0,0,0,0,0,0,
550,38.22,40.22,62.85,61.17,16.36,27.49,43.35,42.31,21.19,8.988,15.97,11.11,21.74,21.99,-29.39,-8.167,0,0,0,0,0,0,0,0,0,0,0,0,0,0,0,0,
551,9.442,9.405,39.75,29.63,-27.84,-4.601,8.833,16.26,-28.49,-22.98,-42,-40.71,-30.12,-19.92,-70.39,-61.48,0,0,0,0,0,0,0,0,0,0,0,0,0,0,0,0,
552,-32.57,-25.1,19.02,7.946,-43.92,-38.96,-18.58,8.307,-8.6,-23.94,-31.31,-51.79,-48.09,-25,-57.46,-73.33,0,0,0,0,0,0,0,0,0,0,0,0,0,0,0,0,
553,-30.22,-22.01,32.15,17.04,-27.07,-46.43,-7.43,24.99,33,-10.55,-15.06,-44.3,-40.82,-16.98,-46.8,-70.03,0,0,0,0,0,0,0,0,0,0,0,0,0,0,0,0,
554,-20.49,-17.02,45.47,27.13,-21.08,-14.65,23.01,34.85,7.097,-6.02,-35.34,-52.36,-33.77,-15.89,-55.19,-61.24,0,0,0,0,0,0,0,0,0,0,0,0,0,0,0,0,
555,-24.68,-11.84,61.82,28.66,-21.38,9.926,31.03,33.36,-18.42,3.661,-38.02,-49.72,-21.77,-19.18,-40.93,-28.07,0,0,0,0,0,0,0,0,0,0,0,0,0,0,0,0,
556,-27.28,-5.696,69.7,18.44,-15.59,-16.13,6.275,21.88,0.8469,-4.951,-23.24,-30,-9.949,-31.65,-16.07,1.631,0,0,0,0,0,0,0,0,0,0,0,0,0,0,0,0,
557,-25.74,-15.43,36.76,11.56,-7.418,-40.79,-18.44,9.128,12.72,-30.13,-12.46,-14.96,-4.362,-46.24,-10.05,0.7637,0,0,0,0,0,0,0,0,0,0,0,0,0,0,0,0,
558,-21.21,-17.58,9.187,14.03,3.51,-31.63,-24.91,8.438,12.08,-25.15,-3.895,-8.48,8.274,-45.46,-11.14,-7.848,0,0,0,0,0,0,0,0,0,0,0,0,0,0,0,0,
559,-10.2,9.092,37.87,19.29,17.4,-14.59,-13.2,17.95,18.62,-2.627,-6.601,-5.003,28.56,-35.81,-10.27,-7.019,0,0,0,0,0,0,0,0,0,0,0,0,0,0,0,0,
560,-3.31,32.16,67.11,38.38,17.54,0.5531,12.02,27,11.69,-4.054,-14.42,-10.54,32.68,-35.3,-18.4,-12.9,0,0,0,0,0,0,0,0,0,0,0,0,0,0,0,0,
561,-10.62,33.4,62.03,59.7,2.986,3.354,35.74,33.8,1.364,-7.984,-8.895,-14.42,26.05,-27.96,-23.42,-21.17,0,0,0,0,0,0,0,0,0,0,0,0,0,0,0,0,
562,-10.6,36.54,62.01,57.29,-5.799,-18.33,39.72,32.08,3.918,-5.192,-9.358,-8.932,21.01,-16.82,-23.42,-24.33,0,0,0,0,0,0,0,0,0,0,0,0,0,0,0,0,
563,-6.574,23.34,46.47,35.69,-17.75,-47.83,8.734,5.865,-15.11,-35.63,-34.17,-21.59,-3.795,-38.05,-42.42,-37.06,0,0,0,0,0,0,0,0,0,0,0,0,0,0,0,0,
564,-23.47,-18.65,9.135,21.71,-26.57,-47.35,-21.69,-12.62,-37.58,-65.71,-44.87,-38.39,-24.8,-55.17,-57.41,-38.53,0,0,0,0,0,0,0,0,0,0,0,0,0,0,0,0,
565,-23.93,-24.43,11.81,30.76,-6.098,-10.03,0.6673,10.52,-15.83,-43.48,-26.03,-28.47,-6.729,-24.23,-45.39,-16.36,0,0,0,0,0,0,0,0,0,0,0,0,0,0,0,0,
566,1.736,10.19,38.11,39.94,13.66,12.55,32.28,23.48,4.667,-22.93,-23.12,-34.87,5.784,7.335,-45.09,-13.25,0,0,0,0,0,0,0,0,0,0,0,0,0,0,0,0,
567,-13.99,11.5,45.95,26.55,1.359,-12.5,8.362,-4.441,-17.22,-34.59,-45.09,-74.46,-12.26,10.67,-65.71,-31.54,0,0,0,0,0,0,0,0,0,0,0,0,0,0,0,0,
568,-63.98,-15.89,36.79,1.306,-26.65,-53.5,-36.09,-30.56,-33.7,-25.21,-50.32,-80.55,-14.4,17.93,-53.9,-19.49,0,0,0,0,0,0,0,0,0,0,0,0,0,0,0,0,
569,-70.99,-15.23,13.3,-12.45,-33.48,-64.74,-41.04,-39.41,-7.889,6.965,-20.08,-31.83,15.88,42.36,2.486,26.79,0,0,0,0,0,0,0,0,0,0,0,0,0,0,0,0,
570,-35.62,8.491,14.78,-3.617,-4.27,-47.12,-27.16,-42.29,24.61,11.82,9.319,3.492,34.97,58.86,30.9,45.71,0,0,0,0,0,0,0,0,0,0,0,0,0,0,0,0,
571,-14.8,9.399,28.24,1.145,12.09,-35.97,-39.31,-37.12,30.04,-5.99,10.4,-5.187,22.36,50.33,11.07,23.07,0,0,0,0,0,0,0,0,0,0,0,0,0,0,0,0,
572,-6.184,-6.795,-4.476,-8.608,4.957,-20.04,-46.06,-25.67,41.18,-2.781,20.92,-2.166,16.47,40.98,19.01,19.17,0,0,0,0,0,0,0,0,0,0,0,0,0,0,0,0,
573,14.59,-4.804,-20.18,1.255,19.24,3.173,-21.96,-20.38,62.19,7.753,38.92,17.99,20.75,34.81,44.98,29.61,0,0,0,0,0,0,0,0,0,0,0,0,0,0,0,0,
574,15.77,-7.891,27.55,19.55,29.21,-15.16,-13.35,-23.32,46.39,-8.005,19.23,6.957,-0.1985,6.525,27.88,5.549,0,0,0,0,0,0,0,0,0,0,0,0,0,0,0,0,
575,-7.179,-30.72,68.44,14.54,18.88,-35.53,-23.66,-21.15,21.81,-24.99,-2.855,-15.97,-27.58,-23.39,2.981,-27.25,0,0,0,0,0,0,0,0,0,0,0,0,0,0,0,0,
576,-14.58,-39.16,73.52,2.551,24.28,-1.408,-21.69,-19.67,27.81,-31.29,-3.056,-29.58,-36.1,-30.3,-14.18,-41.32,0,0,0,0,0,0,0,0,0,0,0,0,0,0,0,0,
577,-16.93,-32.31,61.1,0.4362,30.67,17.06,-15.18,-26.31,24.36,-38.28,-20.98,-49.4,-30.28,-23.86,-44.4,-45.56,0,0,0,0,0,0,0,0,0,0,0,0,0,0,0,0,
578,-29.5,-16.53,46.04,8.82,19.09,-12.46,-4.061,-24.39,-2.347,-29.11,-40.55,-55.49,-5.983,-11.22,-49.8,-34.08,0,0,0,0,0,0,0,0,0,0,0,0,0,0,0,0,
579,-29.74,12.72,47.04,27.48,4.107,-15.53,12.31,-12.33,-5.001,-12.29,-26.1,-36.81,19.27,-5.298,-26.51,-14.55,0,0,0,0,0,0,0,0,0,0,0,0,0,0,0,0,
580,-12.36,28.46,54.38,44.67,-6.368,6.109,10.55,-6.122,23.56,-9.412,-11.43,-27.3,11.32,-16.32,-26.89,-14.39,0,0,0,0,0,0,0,0,0,0,0,0,0,0,0,0,
581,-6.84,10.05,43.68,35.18,-18.3,-26.47,-17.43,-22.86,11.11,-17.07,-36.89,-48.39,-24.46,-26.23,-49.82,-33.19,0,0,0,0,0,0,0,0,0,0,0,0,0,0,0,0,
582,-36.13,-21.19,29.24,2.369,-32.33,-74.13,-37.44,-44.36,-54.02,-23.71,-54.93,-60.97,-35.84,-8.769,-33.77,-24.79,0,0,0,0,0,0,0,0,0,0,0,0,0,0,0,0,
583,-56.96,-25.1,45.4,-6.186,-23.95,-48.63,-21.06,-24.28,-68.83,-8.205,-14.17,-27,-3.635,17.96,27.49,20.31,0,0,0,0,0,0,0,0,0,0,0,0,0,0,0,0,
584,-34.26,-7.427,61.16,8.691,-6.625,-17.08,-11.56,4.126,-18.61,12.19,24.22,5.821,18.97,13.38,58.57,42.58,0,0,0,0,0,0,0,0,0,0,0,0,0,0,0,0,
585,-6.642,1.288,45.24,26.27,-2.044,-18.61,-17.58,6.306,18.67,6.959,28.05,11.37,25.8,8.808,51.18,43.38,0,0,0,0,0,0,0,0,0,0,0,0,0,0,0,0,
586,15.2,20.8,56.34,65.27,24.65,17.44,7.168,24.11,23.44,-3.745,34.16,18.62,40.51,24.08,51.13,51.54,0,0,0,0,0,0,0,0,0,0,0,0,0,0,0,0,
587,25.38,36.66,82.53,70.03,44.62,28.23,14.87,31,2.629,-11.79,21.86,10.51,29.88,8.589,45.28,37.52,0,0,0,0,0,0,0,0,0,0,0,0,0,0,0,0,
588,8.2,17.01,61.72,19.96,27.6,-18.23,-10.38,2.827,-1.363,-14.61,8.765,1.784,16.33,-11.67,36.23,20.21,0,0,0,0,0,0,0,0,0,0,0,0,0,0,0,0,
589,13.25,11.94,47.13,18.63,36.3,-10.73,1.238,-4.138,34.04,-7.36,25.74,16.84,27.75,-3.308,35.38,22.1,0,0,0,0,0,0,0,0,0,0,0,0,0,0,0,0,
590,33.3,22.62,58.35,44.65,54.94,17.65,18.43,1.292,37.36,-20.6,19.84,11.19,16.02,-11.96,25.99,15.19,0,0,0,0,0,0,0,0,0,0,0,0,0,0,0,0,
591,24.05,15.42,64.33,31.68,48.05,6.279,17.61,7.587,21.05,-31.06,13.7,4.771,5.796,-18.74,32.31,19.97,0,0,0,0,0,0,0,0,0,0,0,0,0,0,0,0,
592,29.82,27.57,93.65,49.47,59.93,14.12,34.68,35.21,38.24,-4.615,39.81,24.54,24.93,-4.447,49.32,32.77,0,0,0,0,0,0,0,0,0,0,0,0,0,0,0,0,
593,42.29,39.8,107.3,87.29,67.43,19.97,27.43,36.32,23.28,4.13,26.41,14.3,17.08,-18.61,35.06,13.17,0,0,0,0,0,0,0,0,0,0,0,0,0,0,0,0,
594,10.55,10.43,58.14,65.03,40.76,-11.72,-9.741,0.596,-35.28,-27.79,-22.57,-22.46,-14.16,-49.75,2.181,-16.79,0,0,0,0,0,0,0,0,0,0,0,0,0,0,0,0,
595,-33.14,-22.44,13.79,23.52,22.24,-32.85,-27.53,-25.08,-65.14,-58.94,-46.21,-46.44,-35.18,-62.65,-26.01,-35.4,0,0,0,0,0,0,0,0,0,0,0,0,0,0,0,0,
596,-55.48,-35.34,17.02,14.89,20.18,-29.56,-34.72,-36.48,-56.07,-66.21,-36.05,-49.89,-38.94,-51.14,-21.04,-26.46,0,0,0,0,0,0,0,0,0,0,0,0,0,0,0,0,
597,-43.76,-26.31,38.21,13.84,25.36,-25.92,-32.38,-41.56,-27.56,-46.79,3.247,-21.42,-9.992,-8.593,26.56,24.07,0,0,0,0,0,0,0,0,0,0,0,0,0,0,0,0,
598,-8.039,-2.283,37.29,1.785,35.36,-33.3,-17.79,-49.44,-5.405,-25.97,30.94,5.115,18.11,29.02,55,64.1,0,0,0,0,0,0,0,0,0,0,0,0,0,0,0,0,
599,1.06,2.275,9.897,3.811,33.93,-37,-17.47,-60.06,-10.71,-27.81,20.17,-0.023,15.06,31.83,49.4,70.6,0,0,0,0,0,0,0,0,0,0,0,0,0,0,0,0,
600,-8.31,-6.423,13.3,21.03,33.74,-23.74,-27.94,-53.3,-16.62,-37.63,12.95,-0.0991,16.82,26.74,51.44,73.63,0,0,0,0,0,0,0,0,0,0,0,0,0,0,0,0,
601,1.042,-6.685,56.5,12.1,46.95,-17.13,-30.83,-40.55,-3.688,-48.04,16.2,7.151,22.07,16.77,41.75,53.42,0,0,0,0,0,0,0,0,0,0,0,0,0,0,0,0,
602,5.229,-12.93,66.51,-12.95,47.19,-29.4,-25.49,-37.44,5.361,-59.9,4.466,-6.392,2.093,-11.17,9.579,6.83,0,0,0,0,0,0,0,0,0,0,0,0,0,0,0,0,
603,-2.015,-17.23,40.45,-5.982,43.69,-32.28,-15.16,-25.53,11.37,-47.9,7.51,-7.045,-5.27,-22.74,13.21,-4.024,0,0,0,0,0,0,0,0,0,0,0,0,0,0,0,0,
604,21.96,10.2,51.56,33.02,74.09,6.167,4.058,1.514,34.21,-17.29,40.59,28.31,21.86,-13.6,51.67,13,0,0,0,0,0,0,0,0,0,0,0,0,0,0,0,0,
605,64.1,45.95,89.87,73.04,98.26,57.51,29.34,19.76,42.56,-18.15,50.28,43.25,27.81,-35.8,52.43,-7.572,0,0,0,0,0,0,0,0,0,0,0,0,0,0,0,0,
606,73.94,51,99.24,95.95,87.86,70.56,51.6,29.85,34.67,-28.18,45.69,37.53,19.46,-52.4,38.94,-20.66,0,0,0,0,0,0,0,0,0,0,0,0,0,0,0,0,
607,86.39,59.41,113.4,110.5,106,79.13,75.16,53.34,62.78,-1.757,86.05,72.62,51.37,-3.72,71.13,23.49,0,0,0,0,0,0,0,0,0,0,0,0,0,0,0,0,
608,121.7,83.91,135.9,111.6,124.9,96.15,80.44,53.04,71.3,-3.979,109.2,89.55,64.57,18.76,81.4,34.61,0,0,0,0,0,0,0,0,0,0,0,0,0,0,0,0,
609,94.67,63.2,101.3,81.83,75.49,74.93,53.97,9.129,9.618,-48.14,57.84,27.53,18.34,-33.43,32.1,-11.27,0,0,0,0,0,0,0,0,0,0,0,0,0,0,0,0,
610,17.49,15.28,61.84,55.81,29.41,47.96,38.37,-13.83,-28.29,-46.75,10.57,-22.17,-8.136,-57.4,7.07,-20.91,0,0,0,0,0,0,0,0,0,0,0,0,0,0,0,0,
611,-3.761,7.017,81.15,56.65,30.25,36.49,42.73,-7.274,-13.69,-11.32,12.53,-4.495,10.86,-25.41,37.78,18.86,0,0,0,0,0,0,0,0,0,0,0,0,0,0,0,0,
612,26.77,28.92,89.23,62.3,33.32,15.24,44.82,-8.81,4.847,15.87,41.17,31.78,36.67,3.857,76.36,59.54,0,0,0,0,0,0,0,0,0,0,0,0,0,0,0,0,
613,51.21,44.41,51.95,57.77,26.28,3.491,32.54,-17.46,16.08,29.96,61.98,39.67,40.02,-0.2997,71.4,59.13,0,0,0,0,0,0,0,0,0,0,0,0,0,0,0,0,
614,43.01,25.26,17.5,21.95,5.64,-11.69,-16.66,-42.2,-6.358,7.094,40.94,14.38,14.44,-24.82,37.5,27.23,0,0,0,0,0,0,0,0,0,0,0,0,0,0,0,0,
615,14.79,-4.757,10.51,-17.44,2.033,-35.75,-51.22,-59.46,-30.74,-3.396,25.38,10.41,13.38,-16.06,48.47,39.02,0,0,0,0,0,0,0,0,0,0,0,0,0,0,0,0,
616,15.14,8.512,20.34,-4.907,28.36,-31.24,-21.46,-38.83,-10.78,27.21,44.22,33.59,42.09,11.54,73.06,66.79,0,0,0,0,0,0,0,0,0,0,0,0,0,0,0,0,
617,29.52,28.92,32.04,23.25,23.98,-13.66,-0.1333,-21.63,-7.221,29.99,41.92,24.17,38.38,0.3666,42.07,35.54,0,0,0,0,0,0,0,0,0,0,0,0,0,0,0,0,
618,21.44,23.4,47.95,29.67,7.221,1.482,-12.24,-19.58,-30.25,20.11,28.52,1.728,13.3,-22.69,10.85,-3.318,0,0,0,0,0,0,0,0,0,0,0,0,0,0,0,0,
619,18.87,19.43,56.55,32.96,25.43,6.782,-14.27,-16.19,-22.15,22.11,33.45,-1.924,-8.225,-41.29,16.28,-18.53,0,0,0,0,0,0,0,0,0,0,0,0,0,0,0,0,
620,27.8,3.253,52.72,36.23,48.23,2.536,-15.42,-22.81,9.674,-8.761,36.58,-7.661,-27.82,-65.22,21.6,-37.14,0,0,0,0,0,0,0,0,0,0,0,0,0,0,0,0,
621,30.16,-13.29,61.72,44.54,59.71,24.35,-14.81,-27.04,30.62,-38.84,38.14,-8.528,-23.54,-64.6,14.26,-40.46,0,0,0,0,0,0,0,0,0,0,0,0,0,0,0,0,
622,27.21,-1.016,60.3,48.12,48.25,25.38,-5.226,-30.98,15.27,-37.31,21.76,-8.445,-16.45,-57.91,-15.41,-40.17,0,0,0,0,0,0,0,0,0,0,0,0,0,0,0,0,
623,10.93,-2.202,42.42,32.97,21.77,-13.93,-1.301,-48.86,-15.39,-41.74,-22.42,-28.84,-33.24,-70.69,-60.13,-60.73,0,0,0,0,0,0,0,0,0,0,0,0,0,0,0,0,
624,-10.19,-17.58,63.01,26.59,29.62,-1.184,8.508,-51.98,-8.473,-40.17,-44.1,-49.57,-42.98,-64.66,-83.48,-76.32,0,0,0,0,0,0,0,0,0,0,0,0,0,0,0,0,
625,-12.16,-1.733,96.01,35.95,46,32.41,26.04,-28.17,7.297,-14.45,-28.54,-51.78,-37.33,-38.78,-78.94,-81.72,0,0,0,0,0,0,0,0,0,0,0,0,0,0,0,0,
626,2.06,20.72,96.14,51.45,27.55,22.95,34.91,0.1785,-16.82,10.11,-17.61,-45.96,-29.73,-26.3,-62.24,-77.2,0,0,0,0,0,0,0,0,0,0,0,0,0,0,0,0,
627,11.4,19.89,97.48,74.41,12.28,29.14,36.39,16.88,-44.83,31.95,-20.9,-38.9,-8.217,-13.35,-35.81,-36.39,0,0,0,0,0,0,0,0,0,0,0,0,0,0,0,0,
628,10.47,21.91,102.9,81.67,28.44,43.69,32.14,19.04,-40.82,52.75,-10.79,-25.29,17.36,14.08,1.882,15.7,0,0,0,0,0,0,0,0,0,0,0,0,0,0,0,0,
629,8.931,26.72,75.46,56.86,35.04,20.88,8.701,1.816,-48.49,35.29,2.244,-16.38,6.821,20.04,25.01,20.63,0,0,0,0,0,0,0,0,0,0,0,0,0,0,0,0,
630,-4.974,-1.086,17.18,11.91,-10.06,-11.19,-33.79,-41.45,-104.2,-22.85,-16.68,-25.61,-27,-7.06,14.67,-1.1,0,0,0,0,0,0,0,0,0,0,0,0,0,0,0,0,
631,-29.1,-34.9,-30.34,-19.68,-57.9,-35.63,-45.66,-73.9,-140.5,-57.53,-40.18,-28.21,-23.1,-17.42,4.856,5.459,0,0,0,0,0,0,0,0,0,0,0,0,0,0,0,0,
632,-26.33,-22.63,-27.38,-9.892,-45.08,-34.22,-4.993,-61.4,-98.2,-44.39,-23.01,-9.889,17.03,5.355,15.65,25.11,0,0,0,0,0,0,0,0,0,0,0,0,0,0,0,0,
633,-4.145,12.05,9.3,12.88,-13.63,-2.181,24.33,-39.32,-37.54,-21.44,16.42,6.467,44.61,26.35,23.5,27.9,0,0,0,0,0,0,0,0,0,0,0,0,0,0,0,0,
634,1.499,29.02,33.66,28.28,0.6778,-3.304,14.81,-28.93,-14.65,-7.103,34.11,7.749,46.87,26.69,14.21,16.39,0,0,0,0,0,0,0,0,0,0,0,0,0,0,0,0,
635,-7.372,30.41,44.54,53.43,27.02,-33.11,9.301,-13.11,-0.0851,5.91,25.06,1.145,35.82,4.73,-2.525,-1.896,0,0,0,0,0,0,0,0,0,0,0,0,0,0,0,0,
636,-5.898,30.08,61.79,68.67,58.98,-7.284,19.65,-0.9508,29.03,21.49,23.83,7.216,27.57,-25.34,-5.949,-9.659,0,0,0,0,0,0,0,0,0,0,0,0,0,0,0,0,
637,21.95,33.88,73.11,66.67,79.07,48.63,25.46,-4.6,47.04,23.57,29.9,22.37,19.68,-40.41,-3.581,-10.96,0,0,0,0,0,0,0,0,0,0,0,0,0,0,0,0,
638,48.61,23.01,72.59,78.96,93.86,56.68,20.61,-14.78,37.57,2.473,10.41,14.86,-4.646,-44.02,-21.18,-27.9,0,0,0,0,0,0,0,0,0,0,0,0,0,0,0,0,
639,40.67,-9.513,83.23,86.99,83.47,45.08,11.23,-26.83,19.47,-12.66,-17.12,-7.1,-32.54,-54.27,-46,-48.59,0,0,0,0,0,0,0,0,0,0,0,0,0,0,0,0,
640,24.82,-32.72,97.58,73.49,51.04,49.03,6.239,-39.85,20.38,-15.92,-16.81,-9.121,-39.94,-59.43,-45.88,-46.17,0,0,0,0,0,0,0,0,0,0,0,0,0,0,0,0,
641,36.05,-22.99,102,85.37,55.53,43.36,13.04,-39.19,51.28,-20,15.07,17.5,-13.65,-25.39,-10.02,-8.89,0,0,0,0,0,0,0,0,0,0,0,0,0,0,0,0,
642,55.46,13.58,102.5,105.6,73.2,22.06,15.37,-29.52,62.73,-12.45,41.8,38.74,23.24,19.49,21.55,26.1,0,0,0,0,0,0,0,0,0,0,0,0,0,0,0,0,
643,46.11,37.32,88.8,74.75,33.39,8.831,2.363,-40.31,11.93,-7.39,25.24,23.34,28.41,20.07,13.94,21.25,0,0,0,0,0,0,0,0,0,0,0,0,0,0,0,0,
644,34.8,36.38,94.69,56.57,15.22,35.36,14,-57.8,-19.24,-18.86,15.14,19.28,30.67,10.85,16.08,23.13,0,0,0,0,0,0,0,0,0,0,0,0,0,0,0,0,
645,63.36,44.39,127.7,83.88,69.59,71.27,34.76,-67.18,12.42,-37.78,38.26,41.78,44.52,10.16,34.17,37.84,0,0,0,0,0,0,0,0,0,0,0,0,0,0,0,0,
646,74.55,34.68,95.08,59.59,78.7,45.45,0.8692,-89.67,18.87,-63.95,28.86,26.51,19.57,-22.03,15.62,14.18,0,0,0,0,0,0,0,0,0,0,0,0,0,0,0,0,
647,37.55,-7.314,33.42,14.28,39.37,9.851,-27.69,-97.2,-6.93,-66.2,1.548,-1.912,-10.16,-48.2,-1.639,-7.332,0,0,0,0,0,0,0,0,0,0,0,0,0,0,0,0,
648,16.06,-17.02,48.72,37.99,30.54,23.35,-4.806,-74.86,-21.77,-38.44,-4.744,-1.615,-0.7254,-36.91,3.751,-0.9743,0,0,0,0,0,0,0,0,0,0,0,0,0,0,0,0,
649,6.139,-2.086,71.23,60.57,14.38,17.73,-11.82,-65.85,-52.36,-22.99,-21.85,-11.9,2.522,-27.57,-12.83,-8.798,0,0,0,0,0,0,0,0,0,0,0,0,0,0,0,0,
650,-13.8,-6.89,51.08,40.67,-1.988,-9.114,-42.04,-60.35,-81.13,-3.802,-28.02,-21.65,-3.91,-24.79,-26.29,-15.98,0,0,0,0,0,0,0,0,0,0,0,0,0,0,0,0,
651,-8.972,-9.54,39.96,33.65,20.55,-6.189,-37.29,-43.79,-69.3,30.41,-5.981,-9.434,1.306,-24.17,-15.25,-13.48,0,0,0,0,0,0,0,0,0,0,0,0,0,0,0,0,
652,-1.251,-7.714,34.26,37.89,30.73,-16.3,-41.8,-50.15,-44.59,34.22,-1.496,-10.96,-7.076,-29.91,-16.37,-29.18,0,0,0,0,0,0,0,0,0,0,0,0,0,0,0,0,
653,-23.69,-21.75,36.09,24.12,11.88,-60.08,-74.69,-79.74,-32.18,8.209,-6.852,-23.33,-29.99,-28.31,-30.12,-45.47,0,0,0,0,0,0,0,0,0,0,0,0,0,0,0,0,
654,-43.88,-40.26,53.14,-2.748,-5.037,-85.17,-79.56,-100.5,-17.92,-8.78,9.219,-16.83,-36.12,-23.89,-28.57,-35.73,0,0,0,0,0,0,0,0,0,0,0,0,0,0,0,0,
655,-26.76,-38.29,60.68,6.178,-1.096,-56.69,-33.62,-87.93,15.48,-4.13,35.87,8.721,-14.02,-14.29,-2.696,-8.067,0,0,0,0,0,0,0,0,0,0,0,0,0,0,0,0,
656,25.04,-5.936,82.1,72.61,35.81,12.91,18.67,-58.57,50.77,3.529,52.07,33.61,13.9,3.454,22.47,12.79,0,0,0,0,0,0,0,0,0,0,0,0,0,0,0,0,
657,66.79,25.78,122.6,111.3,66.25,67.92,28.23,-56.15,62.5,-4.604,46.16,36.34,24.44,4.631,14.08,14.35,0,0,0,0,0,0,0,0,0,0,0,0,0,0,0,0,T2
658,65.92,27.56,126.5,83.66,54.16,66.34,10.66,-69.09,56.26,-14.84,29.86,22.39,25.58,-4.697,-9.886,11.23,0,0,0,0,0,0,0,0,0,0,0,0,0,0,0,0,
659,51.04,19.38,98.22,68.38,38.04,36.15,7.099,-65.2,38.06,-11.87,20.25,14.29,29.97,2.717,-15.53,12.79,0,0,0,0,0,0,0,0,0,0,0,0,0,0,0,0,
660,47.82,21.98,90.11,82.96,35.55,18.86,13.03,-63.76,9.231,-9.305,0.4487,8.092,28.6,12.66,-23.83,2.871,0,0,0,0,0,0,0,0,0,0,0,0,0,0,0,0,
661,34.57,15.95,91.13,73.93,12.28,6.007,1.395,-87.99,-20.71,-35.56,-37.43,-11.71,10.22,0.6992,-52.85,-19.32,0,0,0,0,0,0,0,0,0,0,0,0,0,0,0,0,
662,13.3,-0.7199,82.5,57.48,0.8419,0.27,-6.999,-105.3,-20.64,-83.06,-32.45,-12.58,2.25,-8.882,-49.53,-13.1,0,0,0,0,0,0,0,0,0,0,0,0,0,0,0,0,
663,31.87,15.78,96.1,79.43,41.38,27.08,25.42,-78.94,21.7,-101.5,26.47,21.31,18.28,-0.8357,-11.12,14.16,0,0,0,0,0,0,0,0,0,0,0,0,0,0,0,0,
664,53.28,35.56,98.99,96.28,38.29,37.74,42.01,-59.25,18.64,-94.04,24.97,12.55,-3.291,-22.74,-22.84,-7.054,0,0,0,0,0,0,0,0,0,0,0,0,0,0,0,0,
665,-3.598,-11.66,47.12,63.46,-37.67,-10.69,-12.8,-81.42,-55.98,-83.6,-46.42,-49.09,-61.18,-65.72,-69.06,-51.22,0,0,0,0,0,0,0,0,0,0,0,0,0,0,0,0,
666,-70.85,-61.27,12.69,34.08,-60.15,-68.08,-71.98,-79.13,-86.54,-43.24,-70.36,-77.65,-78.2,-65.25,-81.29,-55.85,0,0,0,0,0,0,0,0,0,0,0,0,0,0,0,0,
667,-76.02,-54.74,23.45,35.61,-38.35,-103.3,-89.59,-44.38,-72.55,4.576,-57.05,-77.9,-69.19,-44.13,-86.23,-56.53,0,0,0,0,0,0,0,0,0,0,0,0,0,0,0,0,
668,-77.43,-48.55,31.97,44.47,-49.41,-111.7,-83.02,-29.37,-92.55,18.22,-62.72,-79.22,-65.52,-36.23,-88.01,-60.96,0,0,0,0,0,0,0,0,0,0,0,0,0,0,0,0,
669,-83.31,-43.21,45.42,58.73,-42.77,-96.32,-58.16,-25.29,-111.7,14.34,-62.56,-62.93,-48.97,-23.12,-67.74,-43.42,0,0,0,0,0,0,0,0,0,0,0,0,0,0,0,0,
670,-67.73,-23.85,55.76,56.01,-18.02,-91.95,-48.64,-26.56,-101.8,-2.931,-56.72,-53.21,-39.73,-15.46,-60.42,-35.97,0,0,0,0,0,0,0,0,0,0,0,0,0,0,0,0,
671,-57.41,-24.73,49.18,44.88,-19.49,-80.11,-59.76,-36,-81.86,-15.24,-50,-56.68,-42.67,-20.47,-65.61,-41.9,0,0,0,0,0,0,0,0,0,0,0,0,0,0,0,0,
672,-43.61,-26,49.13,74.24,-19.09,-41.35,-44.47,-31.3,-49.8,2.961,-28.24,-42.88,-33.52,-23.5,-63.42,-39.58,0,0,0,0,0,0,0,0,0,0,0,0,0,0,0,0,
673,-13,-6.695,58.05,110.3,-12.15,-15.07,-9.312,-21.48,-17.15,8.077,-8.119,-18.55,-19.05,-26.32,-54.84,-33.5,0,0,0,0,0,0,0,0,0,0,0,0,0,0,0,0,
674,14.12,12.19,92.6,109.8,-3.654,3.642,14.54,-23.57,3.234,-10.4,-3.718,-1.617,-7.17,-29.92,-38.17,-20.82,0,0,0,0,0,0,0,0,0,0,0,0,0,0,0,0,
675,30.57,24.79,138.1,107,25.92,27.58,29.76,-29.59,15.74,-4.958,-11.52,0.6594,-0.5074,-31.13,-32.93,-7.498,0,0,0,0,0,0,0,0,0,0,0,0,0,0,0,0,
676,38.09,29.2,137.5,120.9,59.21,32,38.56,-35.73,20.08,4.884,-13.24,-0.6386,1.411,-24.65,-37.96,-4.198,0,0,0,0,0,0,0,0,0,0,0,0,0,0,0,0,
677,39.23,22.5,115.2,123.1,61.44,11.91,29.51,-51.8,1.617,-23.95,-6.274,2.272,-1.484,-20.45,-33.87,-9.917,0,0,0,0,0,0,0,0,0,0,0,0,0,0,0,0,
678,27.32,9.573,108.5,109.8,31.06,-5.236,13.08,-71.91,-30.63,-53.3,-16.33,-5.289,-13.61,-32.27,-33.87,-20.06,0,0,0,0,0,0,0,0,0,0,0,0,0,0,0,0,
679,10.61,2.05,111.2,110.9,5.574,11.66,10.9,-77.02,-25.98,-48.35,-27.88,-11.23,-20.49,-36.99,-39.87,-25.61,0,0,0,0,0,0,0,0,0,0,0,0,0,0,0,0,
680,6.365,-4.24,110.3,104.9,-2.713,11.81,-9.74,-96.58,-2.991,-52.78,-20.45,-12.29,-28.25,-31.47,-45.87,-34.48,0,0,0,0,0,0,0,0,0,0,0,0,0,0,0,0,
681,-9.15,-25.9,74.28,66.31,-11.39,-33.59,-49.06,-134.3,-9.746,-70.93,-9.954,-19.38,-42.67,-32.01,-44.73,-39.45,0,0,0,0,0,0,0,0,0,0,0,0,0,0,0,0,
682,-19.23,-27.94,46.73,57.38,-0.916,-21.46,-33.99,-118.8,9.682,-60.47,10.27,0.9187,-28.27,-18.91,-20.14,-17.16,0,0,0,0,0,0,0,0,0,0,0,0,0,0,0,0,
683,20.25,5.507,85.45,83.66,26.82,29.97,-0.86,-77.1,61.55,-47.59,38.38,41.53,2.321,2.419,-0.1313,5.52,0,0,0,0,0,0,0,0,0,0,0,0,0,0,0,0,
684,54.71,16.78,110.3,80.29,36.87,7.01,-22.23,-87.15,56.98,-57.41,41.21,45.66,4.652,0.0452,-10.63,0.7304,0,0,0,0,0,0,0,0,0,0,0,0,0,0,0,0,
685,34.33,-2.147,79.78,68.68,32.98,-32.23,-44.25,-106.4,14.37,-69.04,20.73,23.88,-9.854,-17.76,-18.77,-10.94,0,0,0,0,0,0,0,0,0,0,0,0,0,0,0,0,
686,8.802,-12.91,73.77,77.57,34.74,-20.91,-35.18,-90.11,19.47,-65.82,30.31,32.73,-5.563,-12.2,6.018,2.82,0,0,0,0,0,0,0,0,0,0,0,0,0,0,0,0,
687,25.98,-0.5874,106.7,98.51,61.62,7.78,-17.52,-59.61,79.49,-25.82,90.3,77.73,27.36,30.43,47.13,45.36,0,0,0,0,0,0,0,0,0,0,0,0,0,0,0,0,
688,70.41,33.02,133.4,133.9,101.1,40.55,17.65,-29.56,144.8,21.57,131.3,105.8,51.3,60.21,65.1,69.52,0,0,0,0,0,0,0,0,0,0,0,0,0,0,0,0,
689,99.8,58.29,160.5,155.3,119.4,63.94,58.22,-5.059,169.4,32.16,118.8,99.55,42.26,47.99,57.95,55.74,0,0,0,0,0,0,0,0,0,0,0,0,0,0,0,0,
690,105.3,62.02,192.9,158.6,127.6,73.76,73.15,13.16,143.2,29.72,92.56,84.87,25.18,28.03,39.12,31.45,0,0,0,0,0,0,0,0,0,0,0,0,0,0,0,0,
691,94.66,47.19,180,152.4,106.8,77.19,44.31,6.434,95.08,9.189,55.23,54.27,-3.666,4.184,3.877,-2.638,0,0,0,0,0,0,0,0,0,0,0,0,0,0,0,0,
692,66.75,7.386,121.5,108.8,47.25,54.67,-3.821,-24.37,65.04,-21.44,31.84,27.19,-31.65,-14.05,-9.793,-21.93,0,0,0,0,0,0,0,0,0,0,0,0,0,0,0,0,
693,51.1,-6.009,91.94,80.26,29.89,17.2,-8.759,-24.14,62.59,0.3345,58.6,44.17,-8.764,10.3,18.69,3.96,0,0,0,0,0,0,0,0,0,0,0,0,0,0,0,0,
694,62.12,38.88,101,119.3,48.78,4.741,19.1,2.791,68.73,42.2,80.09,70.76,36.71,45.69,42.25,31.16,0,0,0,0,0,0,0,0,0,0,0,0,0,0,0,0,
695,75.73,80.71,109.4,141.2,38.88,31,32.62,4.605,73.91,49.24,71.04,80.47,54.17,52.11,48.81,31.55,0,0,0,0,0,0,0,0,0,0,0,0,0,0,0,0,
696,90.08,89.91,117.7,104.2,35.84,59.97,41.28,-10.55,65.72,36.97,62.96,89.78,58.09,48.77,46.69,24.71,0,0,0,0,0,0,0,0,0,0,0,0,0,0,0,0,
697,104.6,86.36,122.1,84.3,48.37,43.94,42.95,-28.55,45.63,8.875,51.03,93.13,63.69,50.85,37.11,18.37,0,0,0,0,0,0,0,0,0,0,0,0,0,0,0,0,
698,106.5,74.95,113.5,97.29,37.84,3.979,24.87,-57.03,33.93,-16.03,37.94,90.12,62.55,51.16,43.4,17.81,0,0,0,0,0,0,0,0,0,0,0,0,0,0,0,0,
699,97.89,65.68,103,98.27,35.03,-1.73,24.05,-69.78,27.37,-11.23,37.38,91.84,57.61,47.5,57.37,25.81,0,0,0,0,0,0,0,0,0,0,0,0,0,0,0,0,
700,97.74,75.71,108.8,108.9,62.13,48.75,63.17,-44.92,37.68,2.243,47.5,96.27,59.86,45.87,54.31,29.59,0,0,0,0,0,0,0,0,0,0,0,0,0,0,0,0,
701,108.4,89.37,135.4,138.6,69.19,90.68,78.52,-29.88,48.92,0.681,42.06,73.39,45.35,35.23,26.89,6.978,0,0,0,0,0,0,0,0,0,0,0,0,0,0,0,0,
702,73.19,59.9,123.4,120,25.48,31.73,18.23,-61.76,-2.403,-20.61,-6.541,9.673,0.1084,14.09,-15.31,-25.98,0,0,0,0,0,0,0,0,0,0,0,0,0,0,0,0,
703,-3.257,9.105,58.57,77.06,-15.89,-41.35,-30.18,-79.34,-54.91,-28.92,-33.65,-18.28,-13.07,23.88,-19.93,-14.18,0,0,0,0,0,0,0,0,0,0,0,0,0,0,0,0,
704,-12.51,15.72,55.56,92.7,-3.822,-3.237,9.336,-50.01,-16.57,1.945,10.41,20.15,20.01,58.51,13.47,19.98,0,0,0,0,0,0,0,0,0,0,0,0,0,0,0,0,
705,32.18,51.91,130.7,121.5,19.31,44.42,57.31,-34.22,35.83,24.61,44.99,36.79,28.72,67.74,19.12,18.32,0,0,0,0,0,0,0,0,0,0,0,0,0,0,0,0,
706,35.15,46.27,155.8,117.1,2.926,24.53,58.71,-43.02,32.05,20.04,33.7,19.37,13.8,62.71,8.424,8.355,0,0,0,0,0,0,0,0,0,0,0,0,0,0,0,0,
707,24.67,26.04,121.2,124.8,-23.36,22.47,56.71,-43.37,14.13,27.13,24.52,23.03,12.36,60.8,14.27,7.114,0,0,0,0,0,0,0,0,0,0,0,0,0,0,0,0,
708,38.21,25.7,119.3,140.4,-13.57,45.21,64.19,-36.18,15.38,43.69,25.84,33.49,13.67,51.45,10.78,-8.506,0,0,0,0,0,0,0,0,0,0,0,0,0,0,0,0,
709,52.1,37.1,145.2,142.5,20.28,52.27,71.65,-13.96,40.78,54.56,35.75,42.68,23.9,50.77,5.156,-10.1,0,0,0,0,0,0,0,0,0,0,0,0,0,0,0,0,
710,78.72,59.66,149.9,157.4,33.97,59.65,80.92,12.96,68.04,64.96,56.18,69.39,46.1,58.39,23.77,12.17,0,0,0,0,0,0,0,0,0,0,0,0,0,0,0,0,
711,109.2,76.31,140.9,163,20.68,61.6,73.91,1.163,65.83,67,64.19,87.99,53.28,57.8,46.48,23.96,0,0,0,0,0,0,0,0,0,0,0,0,0,0,0,0,
712,103.9,76.04,146.1,132.5,25.94,63.46,56.44,-22.73,60.65,65.34,69.15,93.21,68.75,76.45,65.46,48.34,0,0,0,0,0,0,0,0,0,0,0,0,0,0,0,0,
713,100.2,96.46,179,131.4,76.57,99.69,74.97,6.354,76.16,76.65,94.5,118.2,119.8,116.7,92.84,98.89,0,0,0,0,0,0,0,0,0,0,0,0,0,0,0,0,
714,129.6,134.6,200.7,179.7,108,134.6,114.5,49.9,75.21,81.04,103.3,136.5,140.5,117.1,104.8,105.8,0,0,0,0,0,0,0,0,0,0,0,0,0,0,0,0,
715,133.3,127,168.6,188,70.9,117.8,112.5,34.21,55.35,60.27,74.6,114,98.64,77.58,86.56,62.7,0,0,0,0,0,0,0,0,0,0,0,0,0,0,0,0,
716,101.4,83.8,152.3,149.1,45.98,87.24,85.54,-14.21,45.94,34.34,41.57,79.88,61.43,55.95,49.44,30.65,0,0,0,0,0,0,0,0,0,0,0,0,0,0,0,0,
717,74.67,52.8,185.2,130.9,64.4,74.23,65.12,-50.24,19.03,9.244,-2.796,37.26,33.8,35.45,-3.817,-3.902,0,0,0,0,0,0,0,0,0,0,0,0,0,0,0,0,
718,36.86,15.92,179.1,126,59.71,61.96,36.58,-63.31,-8.115,-10.46,-35.49,-5.026,-9.778,1.68,-27.91,-35.61,0,0,0,0,0,0,0,0,0,0,0,0,0,0,0,0,
719,5.825,-18.58,149.5,124.3,52.17,54.33,16.68,-52.19,21.51,-13.19,0.5222,-3.39,-31.18,-6.242,-7.096,-25.13,0,0,0,0,0,0,0,0,0,0,0,0,0,0,0,0,
720,5.863,-35.78,145.9,117.8,52.66,29.71,-6.301,-69.8,32.82,-31.3,28.84,-5.351,-47.39,-10.62,-19.02,-24.88,0,0,0,0,0,0,0,0,0,0,0,0,0,0,0,0,
721,-20.95,-72.39,117.5,75.85,27.42,-21.39,-57.79,-115.3,-11.72,-58.69,-0.8991,-42.03,-75.79,-21.33,-49.03,-43.17,0,0,0,0,0,0,0,0,0,0,0,0,0,0,0,0,
722,-61.7,-93.92,104.7,64.37,27.74,-36.56,-76.7,-102.3,-5.599,-38.87,0.052,-43,-61.38,0.7257,-29.49,-23.89,0,0,0,0,0,0,0,0,0,0,0,0,0,0,0,0,
723,-55.75,-64.11,150,122.9,50.05,-13.72,-48.91,-53.63,43.28,5.431,26.02,-15.8,-27.57,21.88,-9.293,-5.637,0,0,0,0,0,0,0,0,0,0,0,0,0,0,0,0,
724,-29.72,-38.51,186.7,178.6,57.21,10.56,-21.51,-24.61,59.89,26.09,26.1,-6.491,-26.56,14.04,-13.25,-13.95,0,0,0,0,0,0,0,0,0,0,0,0,0,0,0,0,
725,-3.081,-28.11,267,260.2,111.9,56.83,23.27,17.87,66.3,28.15,29.2,0.2955,-32.57,4.855,-10.32,-15.26,0,0,0,0,0,0,0,0,0,0,0,0,0,0,0,0,
726,27.17,-6.717,439.1,428.1,201.7,129.7,100.5,92.42,74.36,38.25,34.1,10.63,-19.67,3.294,-3.813,-10.38,0,0,0,0,0,0,0,0,0,0,0,0,0,0,0,0,
727,57.79,31.67,566,591.8,255.6,221,201.9,210.2,85.92,81.51,40.38,37.15,21.12,24.51,21.33,9.743,0,0,0,0,0,0,0,0,0,0,0,0,0,0,0,0,
728,108.1,95.98,593.2,668.4,302.2,320.1,322.5,354.6,115.1,128,62,79.35,73.06,59.3,53.18,41.34,0,0,0,0,0,0,0,0,0,0,0,0,0,0,0,0,
729,156.1,155.4,597.4,680.4,372.5,398.8,418.3,457,133.4,152,68.72,99.74,99.43,71.34,56.15,53.09,0,0,0,0,0,0,0,0,0,0,0,0,0,0,0,0,
730,171.3,182.4,594.2,665.6,424.3,444.3,452.4,515.3,119.3,179.5,54.49,96.42,102.9,71.97,52.37,54.87,0,0,0,0,0,0,0,0,0,0,0,0,0,0,0,0,
731,164.8,183.8,586.3,660.5,405,421,436.6,552.1,80.95,186.1,36.92,79.24,94.32,75.74,49.96,56.32,0,0,0,0,0,0,0,0,0,0,0,0,0,0,0,0,
732,137.7,161.6,598.9,682.4,346,352.9,414.1,558.1,49.41,169.3,25.45,58.47,84.18,84.51,39.51,54.49,0,0,0,0,0,0,0,0,0,0,0,0,0,0,0,0,
733,108.3,145,605.9,687,303.6,331.8,398.3,540.4,43.64,173.4,20.8,50.84,83.07,98.18,32.97,56.18,0,0,0,0,0,0,0,0,0,0,0,0,0,0,0,0,
734,89.87,140.8,581.6,649.3,237,313.1,346.2,496.2,26.32,160.2,1.465,37.32,68.2,86.96,24.16,47.58,0,0,0,0,0,0,0,0,0,0,0,0,0,0,0,0,
735,60.6,113,533.5,598.8,154.4,237.7,275,443.4,-6.872,117.5,-20.56,14.36,36.25,51.56,9.397,21.53,0,0,0,0,0,0,0,0,0,0,0,0,0,0,0,0,
736,27.73,73.96,448.2,524.8,127.6,177,238.7,407.2,-22.28,97.4,-20.45,2.286,14.11,28.57,-3.846,-0.5213,0,0,0,0,0,0,0,0,0,0,0,0,0,0,0,0,
737,10.36,55.58,350.7,434.6,117.4,153.6,215.5,363.2,-22.03,85.3,-14.18,1.096,16.86,27.06,-4.801,0.8862,0,0,0,0,0,0,0,0,0,0,0,0,0,0,0,0,
738,10.75,61.04,300.3,391.2,94.49,142.8,189.9,310.6,-11.51,61.09,-8.162,10.08,40.09,32.68,10.99,13.94,0,0,0,0,0,0,0,0,0,0,0,0,0,0,0,0,
739,21.97,75.64,271.4,355.4,97.38,148.1,173.3,264.5,3.988,46.12,2.558,19.62,52.34,29.55,14.72,14.16,0,0,0,0,0,0,0,0,0,0,0,0,0,0,0,0,
740,30.54,79.71,241.1,281.1,112.2,162,163.9,225.4,23.68,53.36,19.37,28.66,51.04,33.54,7.263,16.57,0,0,0,0,0,0,0,0,0,0,0,0,0,0,0,0,
741,48.38,86.25,242.5,249.5,126.6,190.4,178.1,215.7,57.42,82.55,41.58,51.72,66.59,63.34,23.63,36.21,0,0,0,0,0,0,0,0,0,0,0,0,0,0,0,0,
742,79.81,104.3,244,266,146.9,213.4,204.6,227,87.54,111.9,52.11,73.59,86.04,83.93,50.57,52.02,0,0,0,0,0,0,0,0,0,0,0,0,0,0,0,0,
743,101.6,111.9,223.9,249.9,146.5,193.9,207.6,227.2,92.97,124.2,44.07,76.15,86.18,73.17,49.98,50.22,0,0,0,0,0,0,0,0,0,0,0,0,0,0,0,0,
744,104,103.5,212.2,210,119,170.2,192.8,210.7,67.29,116.3,22.3,60.22,74.02,58.95,20.92,32.68,0,0,0,0,0,0,0,0,0,0,0,0,0,0,0,0,
745,90.79,89.1,197.6,186.5,103,176.4,185.8,184,41.51,93.06,8.782,45.1,64.3,58.74,11.8,24.22,0,0,0,0,0,0,0,0,0,0,0,0,0,0,0,0,
746,85.23,86.26,185.4,183.4,117.5,185.9,195.6,176.7,54.56,81.94,26.1,53.63,61.54,61.5,43.79,37.76,0,0,0,0,0,0,0,0,0,0,0,0,0,0,0,0,
747,90.89,91.82,181.8,178.3,117.3,189.9,192.5,191.8,60.78,82.95,37.75,58.4,47.98,55.83,55.43,34.93,0,0,0,0,0,0,0,0,0,0,0,0,0,0,0,0,
748,74.72,79.47,148.3,141.6,84.31,187.9,161.1,188.4,43.45,73.87,18.71,34.11,23.11,44.36,17.55,9.731,0,0,0,0,0,0,0,0,0,0,0,0,0,0,0,0,
749,49.81,64.04,104.4,98.03,62.79,157.5,148.1,172.9,49.88,66.73,-2.266,8.428,14.43,31.86,-14.32,2.285,0,0,0,0,0,0,0,0,0,0,0,0,0,0,0,0,
750,42.22,68.29,87.07,87.83,58.02,120.5,164.5,175.2,47.1,70.24,-5.57,11.13,31.6,31.86,10.88,25.9,0,0,0,0,0,0,0,0,0,0,0,0,0,0,0,0,
751,44.75,76.3,87.15,89,60.47,120.7,162.1,179.5,17.35,64.67,15.67,41.34,50.94,45.09,67.64,54.55,0,0,0,0,0,0,0,0,0,0,0,0,0,0,0,0,
752,49.47,67.7,94.34,64.73,68.51,121.1,127.2,157.9,2.39,38.64,27.88,51.8,39.65,36.62,71.81,53.66,0,0,0,0,0,0,0,0,0,0,0,0,0,0,0,0,
753,34.32,43.67,86.74,33.27,53.69,88.56,92,127.3,-3.078,24.8,3.033,25.27,20.41,17.43,27.61,42.42,0,0,0,0,0,0,0,0,0,0,0,0,0,0,0,0,
754,3.292,30.11,52.73,17.88,20.81,54.23,70.49,114.6,-4.403,39.59,-12.56,10.38,22.72,14.56,15.54,42.24,0,0,0,0,0,0,0,0,0,0,0,0,0,0,0,0,
755,-18.8,17.11,5.252,-15.1,-11.3,8.904,36.54,94.54,-1.844,26.91,-3.247,5.325,6.591,-6.928,29.58,21.29,0,0,0,0,0,0,0,0,0,0,0,0,0,0,0,0,
756,-41.37,-21.7,-44.17,-62.06,-30.85,-23.49,-2.843,66.75,6.406,-5.158,12.29,-6.855,-22.33,-33.32,39.19,0.7296,0,0,0,0,0,0,0,0,0,0,0,0,0,0,0,0,
757,-52.23,-45.94,-69.82,-73.07,-20.16,10.14,-11.88,74.17,34.26,10.64,29.8,-8.83,-22.39,-23.89,38.25,8.74,0,0,0,0,0,0,0,0,0,0,0,0,0,0,0,0,
758,-45.99,-42.41,-73.53,-71.97,-24.76,34.27,-1.738,96.41,38.87,37.84,16.99,-20.87,-19.59,-7.99,5.449,8.689,0,0,0,0,0,0,0,0,0,0,0,0,0,0,0,0,
759,-49.52,-42.27,-79.52,-77.37,-55.62,12.61,18.18,103.6,14.03,37.64,-18.24,-40.87,-18.66,4.793,-26.44,5.39,0,0,0,0,0,0,0,0,0,0,0,0,0,0,0,0,
760,-47.36,-34.14,-73.57,-62.23,-43.19,20.22,41.09,104.5,8.444,39.74,-39.58,-43.61,-13.45,14.36,-30.91,6.673,0,0,0,0,0,0,0,0,0,0,0,0,0,0,0,0,
761,-35.26,-29.13,-54.11,-57.91,-14.05,40.5,31.66,96.6,2.22,40.43,-55.31,-45.28,-30.81,0.5239,-37.96,-9.151,0,0,0,0,0,0,0,0,0,0,0,0,0,0,0,0,
762,-32.69,-41.69,-49.22,-76.66,-25.21,32.58,7.533,90.5,-4.286,32.29,-53.83,-40.41,-46.76,-11.88,-38.32,-18.67,0,0,0,0,0,0,0,0,0,0,0,0,0,0,0,0,
763,-28.63,-43.92,-71.62,-81.22,-43.87,9.794,1.063,86.87,13.67,20.89,-37.43,-27.83,-43.91,-13.02,-30.18,-19.78,0,0,0,0,0,0,0,0,0,0,0,0,0,0,0,0,
764,-28.7,-42.41,-102.9,-83.09,-46.82,-18.87,-1.46,69.68,14.06,10.51,-42.01,-31.23,-40.81,-11.77,-38.16,-28.62,0,0,0,0,0,0,0,0,0,0,0,0,0,0,0,0,
765,-32.52,-35.62,-95.44,-89.99,-29.77,-7.091,7.336,63.13,-1.122,28.97,-47.66,-29.35,-19.93,9.049,-37.3,-19.48,0,0,0,0,0,0,0,0,0,0,0,0,0,0,0,0,
766,-17.56,-1.752,-52.26,-81.71,5.909,43.63,33.32,70.49,8.141,57.4,-37.21,-14.23,8.861,20.39,-16.71,-2.082,0,0,0,0,0,0,0,0,0,0,0,0,0,0,0,0,
767,-5.314,15.4,-42.29,-82.97,11.84,42.09,40.05,56.55,15.04,44.02,-36.78,-16.91,2.961,-11.68,-6.371,-7.647,0,0,0,0,0,0,0,0,0,0,0,0,0,0,0,0,
768,-19.06,-13.87,-77.28,-115.1,-21.5,-9.406,9.064,23.49,-4.778,9.365,-41.93,-27.49,-18.38,-41.42,-0.4231,-10.6,0,0,0,0,0,0,0,0,0,0,0,0,0,0,0,0,
769,-37.04,-38.99,-104.7,-136.3,-44.33,-36.47,-29.73,-3.668,-35.78,-10.05,-41.42,-20.82,-13.88,-29.73,17.82,12.52,0,0,0,0,0,0,0,0,0,0,0,0,0,0,0,0,
770,-47.23,-37.35,-118.4,-131.5,-64.45,-46.39,-46.03,-20.61,-71.76,-26.9,-56.88,-17.25,1.314,-10.27,24.02,30.01,0,0,0,0,0,0,0,0,0,0,0,0,0,0,0,0,
771,-60.15,-40.75,-138.1,-142.5,-95.69,-56.15,-47.62,-31.14,-88.02,-27.24,-74.77,-28.33,3.866,-6.198,16.51,27.47,0,0,0,0,0,0,0,0,0,0,0,0,0,0,0,0,
772,-60.88,-43.47,-138.6,-162.2,-84.72,-41.2,-46.95,-32.53,-46.59,7.415,-45.95,-24.22,4.497,1.985,25.98,28.19,0,0,0,0,0,0,0,0,0,0,0,0,0,0,0,0,
773,-43.08,-37.47,-132,-174.4,-60.28,-38.05,-53.67,-42.87,5.708,5.472,-1.621,-16.58,-9.129,-2.625,27.76,16.91,0,0,0,0,0,0,0,0,0,0,0,0,0,0,0,0,
774,-46.1,-55.46,-163.3,-195.3,-85.43,-72.8,-70.61,-68.59,2.671,-48.8,-2.342,-30.56,-36.5,-22.85,5.259,-8.382,0,0,0,0,0,0,0,0,0,0,0,0,0,0,0,0,
775,-58.22,-67.61,-179.7,-187.3,-86.73,-71.02,-63.87,-62.7,-10.25,-44.36,-19.34,-32.81,-28.65,-3.031,-1.917,-1.921,0,0,0,0,0,0,0,0,0,0,0,0,0,0,0,0,
776,-42.33,-42.24,-157.2,-163.2,-48.43,-31.56,-40.63,-34.53,-1.628,5.051,-32.81,-27.49,-5.011,31.58,-5.367,15.51,0,0,0,0,0,0,0,0,0,0,0,0,0,0,0,0,
777,-35.45,-36.77,-158.2,-183.9,-47.66,-25.92,-38.13,-35.6,-11.54,-3.626,-48.45,-32.78,-5.159,24.58,-11.15,14.18,0,0,0,0,0,0,0,0,0,0,0,0,0,0,0,0,
778,-34.14,-42.64,-146,-180.1,-34.92,-19.54,-22.66,-28.83,-11.26,-26.27,-23.48,-4.904,8.68,20.29,20.55,30.95,0,0,0,0,0,0,0,0,0,0,0,0,0,0,0,0,
779,1.06,-11.71,-98.53,-129.2,9.826,16.73,13.34,4.63,23.9,-8.214,18.98,33.17,31.06,41.45,48.93,52.01,0,0,0,0,0,0,0,0,0,0,0,0,0,0,0,0,
780,23.06,11.35,-99.31,-126.5,6.397,30.03,25.74,17.64,32.1,5.566,8.207,23.41,25.24,51.09,30.09,38.38,0,0,0,0,0,0,0,0,0,0,0,0,0,0,0,0,
781,11.9,10.06,-126.4,-144.4,-11.1,22.2,26.62,17.87,9.73,-3.715,-19.92,8.628,20.17,48.06,12.69,19.73,0,0,0,0,0,0,0,0,0,0,0,0,0,0,0,0,
782,14.54,17.17,-104.5,-121.4,17.3,33.99,36.11,23.72,19.24,-11.24,-4.01,27.21,30.92,46.21,23.51,25.97,0,0,0,0,0,0,0,0,0,0,0,0,0,0,0,0,
783,28.95,23.17,-65.76,-100.8,41.56,49.77,38.05,15.07,38.23,1.567,20.13,39.47,35.05,46.92,33.78,39.12,0,0,0,0,0,0,0,0,0,0,0,0,0,0,0,0,
784,21.36,16.88,-71.47,-121.1,8.732,20.46,16.26,-5.635,-0.3934,21.63,-2.236,19.5,29.21,46.61,26.91,38.7,0,0,0,0,0,0,0,0,0,0,0,0,0,0,0,0,
785,-11.09,3.509,-123.6,-168.1,-48.83,-39.3,-19.23,-16.1,-55.81,18.89,-39.53,-4.467,20.5,42.86,12.89,33.62,0,0,0,0,0,0,0,0,0,0,0,0,0,0,0,0,
786,-39.29,-13.51,-168.8,-196.5,-68.09,-63.79,-36.86,-25.23,-67.98,-13.55,-47.6,-11.01,6.961,37.45,1.723,31.21,0,0,0,0,0,0,0,0,0,0,0,0,0,0,0,0,
787,-46.95,-31.3,-180.1,-191.5,-62.03,-59.15,-42.9,-56.59,-74.13,-54.61,-48.84,-12.01,-4.53,32.65,0.1804,31.66,0,0,0,0,0,0,0,0,0,0,0,0,0,0,0,0,
788,-42.64,-39.2,-168.8,-184.4,-56.54,-53.13,-46.55,-75.09,-76.51,-58.28,-47.74,-8.134,0.9889,36.75,8.449,39.88,0,0,0,0,0,0,0,0,0,0,0,0,0,0,0,0,
789,-32.15,-30.3,-133.3,-175.1,-34.72,-36.04,-31.76,-46.58,-49.29,-25.7,-34.43,-10.51,-4.345,30.45,-2.731,25.63,0,0,0,0,0,0,0,0,0,0,0,0,0,0,0,0,
790,-36.18,-34.77,-119.5,-164.6,-31.58,-28.92,-28.31,-17.52,-27.51,-11.9,-27.37,-28.5,-35.73,-3.698,-23.64,-9.938,0,0,0,0,0,0,0,0,0,0,0,0,0,0,0,0,
791,-48.68,-51.99,-165.2,-171.6,-58.51,-33.14,-45.55,-18.09,-3.741,-12.23,-16.04,-23.45,-41.98,-22.39,-11.03,-10.26,0,0,0,0,0,0,0,0,0,0,0,0,0,0,0,0,
792,-34.5,-44.97,-199.9,-186.4,-60.74,-32.53,-44.05,-34.34,24.98,-3.346,-8.015,-3.309,-25.2,-10.37,0.1337,4.748,0,0,0,0,0,0,0,0,0,0,0,0,0,0,0,0,
793,-16.87,-34.56,-173.3,-192.7,-37.64,-36.81,-31.06,-46.53,18.52,11.74,-22.81,-3.231,-20.1,0.5268,-10.26,3.325,0,0,0,0,0,0,0,0,0,0,0,0,0,0,0,0,
794,-9.458,-32.54,-125.8,-179.4,-8.833,-16.44,-20.75,-28.05,12.71,35.38,-22.99,1.847,-7.688,4.92,-5.978,14.05,0,0,0,0,0,0,0,0,0,0,0,0,0,0,0,0,
795,5.971,-20.97,-109.7,-156,5.653,15.72,-1.88,-5.488,16.41,38.85,-10.21,6.354,2.168,1.069,-5.519,22.1,0,0,0,0,0,0,0,0,0,0,0,0,0,0,0,0,
796,4.858,-16.01,-122.3,-140.2,-18.83,-0.4074,17.44,-4.4,-7.469,33.33,-13.59,-2.998,-0.4483,-4.036,-9.639,18.78,0,0,0,0,0,0,0,0,0,0,0,0,0,0,0,0,
797,-2.736,-7.925,-114.6,-125,-35.28,-20.61,18.28,6.209,-10.94,53.53,-11.5,3.842,8.136,-1.696,2.955,27.84,0,0,0,0,0,0,0,0,0,0,0,0,0,0,0,0,
798,9.384,8.311,-107.3,-126.4,-19.57,-7.421,-5.418,11.65,9.367,44.11,-6.865,8.855,7.822,-9.355,3.212,31.11,0,0,0,0,0,0,0,0,0,0,0,0,0,0,0,0,
799,5.588,0.6969,-147.2,-149.1,-23.16,-17.86,-25.38,-7.334,-8.176,9.86,-18.33,-5.92,-6.242,-15.3,-0.6139,24.94,0,0,0,0,0,0,0,0,0,0,0,0,0,0,0,0,
800,-14.5,-10.19,-174.7,-152.5,-41.05,-49.39,-18.22,-15.86,-31.3,28.37,-27.83,-14.14,-6.632,-1.221,4.656,24.27,0,0,0,0,0,0,0,0,0,0,0,0,0,0,0,0,
801,-14.58,0.3633,-150.5,-141.8,-33.02,-35.72,-4.948,-4.215,-22.67,61.66,-22.28,-14.44,0.0733,17.21,-4.351,27.6,0,0,0,0,0,0,0,0,0,0,0,0,0,0,0,0,
802,-6.429,7.082,-138.5,-146.9,-20.24,15.42,0.1251,12.46,-24.47,50.82,-17.32,-13.39,5.692,27.02,-8.451,38.69,0,0,0,0,0,0,0,0,0,0,0,0,0,0,0,0,
803,-14.72,-2.138,-157.5,-160.3,-32.27,20.61,-7.003,12.6,-49.75,26.47,-37.54,-18.76,2.959,16.14,-9.026,35.92,0,0,0,0,0,0,0,0,0,0,0,0,0,0,0,0,
804,-39.65,-21.32,-169.1,-171.9,-56.22,-45.79,-36.02,-17.75,-72.95,20.86,-70.72,-46.02,-15.84,-4.846,-37.59,7.518,0,0,0,0,0,0,0,0,0,0,0,0,0,0,0,0,
805,-71.13,-41.83,-179.7,-185.6,-86.37,-108.3,-71.94,-48.46,-94.36,19.87,-83.91,-73.16,-25.28,-1.796,-59.03,-3.401,0,0,0,0,0,0,0,0,0,0,0,0,0,0,0,0,
806,-92.99,-45.05,-198.6,-202.8,-114,-107.9,-82.55,-52.61,-103.1,5.842,-77.08,-65.88,-7.959,18.3,-39.64,20.62,0,0,0,0,0,0,0,0,0,0,0,0,0,0,0,0,
807,-86.99,-25.23,-200.7,-209.4,-100.9,-72.13,-62.33,-41.96,-81.66,2.552,-60.67,-37.65,11.81,29.81,-11.7,43.27,0,0,0,0,0,0,0,0,0,0,0,0,0,0,0,0,
808,-65.17,-9.642,-195.4,-199.1,-69,-59.82,-53.44,-36.21,-54.26,22.09,-40.25,-23.18,7.903,32.12,1.512,42.52,0,0,0,0,0,0,0,0,0,0,0,0,0,0,0,0,
809,-55.32,-16.53,-200.6,-190,-68.58,-79.49,-69.97,-35.07,-32.57,31.81,-23.19,-21.02,-10.86,21.64,5.262,26.56,0,0,0,0,0,0,0,0,0,0,0,0,0,0,0,0,
810,-53.61,-29.37,-211.1,-198.7,-83.32,-99.78,-73.65,-38.86,-29.82,18.97,-25.92,-29.34,-33.63,-14.03,-14.38,-7.192,0,0,0,0,0,0,0,0,0,0,0,0,0,0,0,0,
811,-58.87,-47.59,-228,-221.3,-94.45,-99.87,-65.96,-58.26,-58.08,3.962,-48.97,-48.01,-53.61,-42,-37.59,-36.12,0,0,0,0,0,0,0,0,0,0,0,0,0,0,0,0,
812,-56.02,-53.52,-198.1,-208.6,-80.55,-61.8,-48.17,-51.18,-37.94,16.21,-35.26,-26.15,-35.33,-12.76,-4.888,-7.079,0,0,0,0,0,0,0,0,0,0,0,0,0,0,0,0,
813,-14.13,-14.61,-117.1,-149.9,-40.8,-24.87,-12.08,1.547,26.86,41.72,7.147,16.78,-0.4313,22.11,33.59,31.8,0,0,0,0,0,0,0,0,0,0,0,0,0,0,0,0,
814,3.337,6.524,-120.9,-133.6,-51.07,-54.09,-11.98,18.93,8.087,31.14,-6.592,-4.866,-12.4,1.909,3.749,7.962,0,0,0,0,0,0,0,0,0,0,0,0,0,0,0,0,
815,-40.77,-22.64,-192.9,-160.8,-92.73,-80.1,-40.65,-9.593,-42.62,13.34,-31.17,-33.74,-26.8,-12.01,-11.3,-8.659,0,0,0,0,0,0,0,0,0,0,0,0,0,0,0,0,
816,-47.77,-19.95,-180.2,-154.3,-81.84,-44.04,-36.9,-26.23,-21.37,23.05,-0.401,-0.7334,1.962,6.548,32.36,23.47,0,0,0,0,0,0,0,0,0,0,0,0,0,0,0,0,
817,-12.15,3.646,-135.6,-153.9,-70.21,-39.73,-37.74,-49.2,-15.71,14.49,8.141,12.31,14.45,5.466,37.44,27.63,0,0,0,0,0,0,0,0,0,0,0,0,0,0,0,0,
818,-26.24,-17.74,-164.7,-193.6,-99.6,-85.13,-63.35,-79.59,-70.32,-9.045,-31.46,-23.21,-5.71,-1.502,-2.845,0.872,0,0,0,0,0,0,0,0,0,0,0,0,0,0,0,0,
819,-66.61,-42.62,-205.6,-211.3,-112.2,-100.4,-66.68,-81.31,-100.8,-11.69,-48.1,-38.97,-14.1,10.16,-11.47,4.017,0,0,0,0,0,0,0,0,0,0,0,0,0,0,0,0,
820,-75.9,-42.04,-201.9,-193.6,-101.7,-100.8,-64.63,-75.71,-82.88,-17.71,-42.12,-33.23,-10.93,14.55,-1.768,18.12,0,0,0,0,0,0,0,0,0,0,0,0,0,0,0,0,
821,-78.61,-49.56,-193.6,-178.7,-109.8,-124.7,-84.77,-87.38,-66.37,-31.29,-52.48,-40.34,-15.55,8.847,-12.89,1.501,0,0,0,0,0,0,0,0,0,0,0,0,0,0,0,0,
822,-84.82,-56.7,-208,-175.8,-130.1,-125.8,-89.12,-99.29,-56.16,-26.41,-52.06,-40.34,-15.87,12.38,-13.11,-12.74,0,0,0,0,0,0,0,0,0,0,0,0,0,0,0,0,
823,-61.88,-42.36,-210.7,-177.3,-121.8,-82.03,-66.46,-96.82,-10.97,-19.17,-16.57,-20.78,-10.21,14.58,7.54,-1.629,0,0,0,0,0,0,0,0,0,0,0,0,0,0,0,0,
824,-37.16,-37.88,-195.8,-187.5,-102,-57.68,-64.17,-93.28,22.76,-23.88,1.111,-23.68,-23.98,0.8177,1.292,-5.491,0,0,0,0,0,0,0,0,0,0,0,0,0,0,0,0,
825,-53.94,-56.77,-196.7,-194.5,-114.2,-70.81,-81.98,-94.67,-7.019,-9.244,-17.15,-46.46,-41.19,-1.295,-26.07,-17.95,0,0,0,0,0,0,0,0,0,0,0,0,0,0,0,0,
826,-63.67,-60.41,-194.7,-174.4,-123.1,-71.49,-78.27,-86.38,-21.65,17.4,-18.96,-44.23,-36.98,9.541,-34.5,-12.77,0,0,0,0,0,0,0,0,0,0,0,0,0,0,0,0,
827,-42.2,-49.65,-187.3,-158.3,-105.9,-65.56,-64.66,-77.14,-4.691,10.23,-7.721,-33.1,-33.85,-4.708,-29.82,-13.59,0,0,0,0,0,0,0,0,0,0,0,0,0,0,0,0,
828,-34.36,-44.89,-204.6,-167.6,-94.31,-62.72,-49.03,-69.66,-19.66,0.9229,-12.69,-31.84,-29.58,-15.87,-21.18,-10.66,0,0,0,0,0,0,0,0,0,0,0,0,0,0,0,0,
829,-31.86,-29.97,-205.8,-163.4,-76.63,-47.04,-21.86,-51.17,-29.12,21.74,-16.61,-25.11,-17.93,1.476,-8.034,3.766,0,0,0,0,0,0,0,0,0,0,0,0,0,0,0,0,
830,-21.92,-17.11,-159.2,-141.3,-41.44,-36.96,-15.69,-35.88,-6.686,28.18,-2.42,-10,-16.04,12.22,14.12,1.637,0,0,0,0,0,0,0,0,0,0,0,0,0,0,0,0,
831,-11.64,-13.69,-105.8,-117.2,-11.87,-16.59,-22.21,-21.31,15.71,29.04,28.99,21.22,1.722,25.43,47.4,8.637,0,0,0,0,0,0,0,0,0,0,0,0,0,0,0,0,
832,16.97,6.095,-94.62,-102.9,-1.94,15.23,-9.592,-3.616,42.98,60.05,51.27,48.17,34.97,50.41,56.71,38.68,0,0,0,0,0,0,0,0,0,0,0,0,0,0,0,0,
833,33.77,24.15,-125.3,-121,-13.74,4.075,-5.998,-7.005,50.38,79.73,37.05,34.05,39.57,53.49,33.76,47.34,0,0,0,0,0,0,0,0,0,0,0,0,0,0,0,0,
834,9.348,20.22,-138.8,-136.1,-31.9,-23.81,-19.73,-20.87,7.604,55.12,5.51,0.8921,21.25,35.68,12.1,26.18,0,0,0,0,0,0,0,0,0,0,0,0,0,0,0,0,
835,-15.08,4.726,-133.7,-120.9,-44.43,-22.78,-28.45,-22.93,-27.6,21.93,-10.34,-14.88,4.492,18.42,1.901,9.703,0,0,0,0,0,0,0,0,0,0,0,0,0,0,0,0,
836,-18.31,-11.88,-154,-114.1,-43.6,-14.03,-30.8,-14.24,-15.82,18.63,-6.078,-11.27,-2.586,9.158,2.978,11.15,0,0,0,0,0,0,0,0,0,0,0,0,0,0,0,0,
837,-19.8,-16.23,-166.9,-128.8,-26.76,-12.81,-32.62,-6.382,-6.265,21.76,-8.872,-14,-7.82,-4.327,-3.802,-0.7606,0,0,0,0,0,0,0,0,0,0,0,0,0,0,0,0,
838,-30,-21.15,-155.3,-146.6,-17.48,-21.64,-38.09,-11.91,-5.487,12.8,-11.57,-25.86,-17.63,-20.85,-16.41,-24.17,0,0,0,0,0,0,0,0,0,0,0,0,0,0,0,0,
839,-27.59,-26,-142.8,-137.7,-9.909,-27.56,-33.28,-8.306,27.23,25.83,18.58,-11.09,-9.377,-11.1,-0.1438,-18.48,0,0,0,0,0,0,0,0,0,0,0,0,0,0,0,0,
840,-7.192,-15.53,-125.6,-112.4,-6.047,-28.37,-24.7,2.499,46.89,24.39,25.11,0.093,-1.443,-6.262,-1.101,-16.77,0,0,0,0,0,0,0,0,0,0,0,0,0,0,0,0,
841,-14.04,-26.89,-123.2,-131,-38.91,-34.94,-36.92,-13.36,26.61,-23.7,-10.34,-20.76,-16.37,-29.73,-33.37,-34.64,0,0,0,0,0,0,0,0,0,0,0,0,0,0,0,0,
842,-26.85,-43.41,-120.9,-148.1,-51.51,-11.1,-32.4,-16.7,32.79,-27.03,2.525,-7.627,-8.489,-23.21,-14.24,-19.09,0,0,0,0,0,0,0,0,0,0,0,0,0,0,0,0,
843,9.916,-10.15,-83.36,-99.3,-9.135,28.67,8.908,15.08,52.45,16.36,34.83,26.52,11.95,-1.935,19.94,-7.886,0,0,0,0,0,0,0,0,0,0,0,0,0,0,0,0,
844,38.61,15.98,-74.86,-67.64,-4.28,26.22,29.33,28,35.03,14.2,7.843,6.026,-8.533,-17.25,-9.635,-45.64,0,0,0,0,0,0,0,0,0,0,0,0,0,0,0,0,
845,8.756,-14.37,-119.2,-99.41,-47.75,3.948,-0.6065,14.42,9.878,-6.97,-32.68,-40.65,-44.94,-32.42,-52.13,-73.87,0,0,0,0,0,0,0,0,0,0,0,0,0,0,0,0,
846,-31.15,-48.37,-132.7,-123.7,-57.15,-18.19,-39.2,4.805,-12.06,1.636,-50.68,-62.1,-55.3,-26.58,-61.41,-68.83,0,0,0,0,0,0,0,0,0,0,0,0,0,0,0,0,
847,-43.09,-44.67,-115,-111.1,-35.42,-26.36,-26.96,11.05,-28.89,13.46,-53.15,-55.1,-38.74,-15.45,-53.05,-57.57,0,0,0,0,0,0,0,0,0,0,0,0,0,0,0,0,
848,-29.94,-19.28,-119.9,-89.93,-24.39,14.09,18.32,34.44,-6.322,13.73,-34.83,-33.02,-21.36,-2.812,-40.49,-48.45,0,0,0,0,0,0,0,0,0,0,0,0,0,0,0,0,
849,-6.924,-8.421,-103.5,-74.67,-13.66,44.78,25.2,56,37.35,16.12,-15.73,-18.85,-27.25,-8.685,-35.2,-51.25,0,0,0,0,0,0,0,0,0,0,0,0,0,0,0,0,
850,3.74,-20.29,-52.61,-65.49,-3.369,11.66,4.46,52.93,46.08,24.28,-11.92,-21.57,-43.69,-30.45,-36.67,-64.24,0,0,0,0,0,0,0,0,0,0,0,0,0,0,0,0,
851,-11.83,-35.84,-59.14,-74.35,-21.52,-20.68,-3.407,30.43,19.07,23.9,-10.4,-27.17,-44.08,-25.56,-28.79,-56.31,0,0,0,0,0,0,0,0,0,0,0,0,0,0,0,0,
852,-23.7,-36.63,-102.4,-91.28,-38.91,-1.519,-2.994,24.26,12,16.91,-1.562,-14.62,-19.06,12.81,-9.743,-21.56,0,0,0,0,0,0,0,0,0,0,0,0,0,0,0,0,
853,3.756,-14.76,-89.94,-88.18,-29.37,28.59,4.032,35.25,29.2,13.7,-5.354,-0.224,1.157,34.24,-8.518,-7.207,0,0,0,0,0,0,0,0,0,0,0,0,0,0,0,0,
854,17.92,-4.216,-78.04,-86.61,-43.51,14.61,-0.3285,14.46,17.56,0.0819,-33.06,-15.38,-12.15,19.5,-28.14,-22.51,0,0,0,0,0,0,0,0,0,0,0,0,0,0,0,0,
855,-16.16,-23.41,-110.2,-102,-76.03,-21.23,-24.4,-26.46,-6.37,-16.82,-38.99,-25.3,-19.01,17.84,-24.1,-19.33,0,0,0,0,0,0,0,0,0,0,0,0,0,0,0,0,
856,-29.73,-31.3,-119,-112.1,-72.45,-17.02,-34.03,-42,-2.651,-12.65,-11.09,-6.067,1.781,43.71,0.3641,-2.748,0,0,0,0,0,0,0,0,0,0,0,0,0,0,0,0,
857,-12,-24.9,-110.5,-120.9,-55.35,10.92,-33.67,-43.18,12.06,3.063,4.244,1.785,8.118,55.1,3.602,-4.851,0,0,0,0,0,0,0,0,0,0,0,0,0,0,0,0,
858,-14.64,-34.8,-126,-122.6,-58.66,2.365,-46.89,-46.01,25.62,6.177,0.1737,-15.76,-15.17,36.29,-16.1,-23.99,0,0,0,0,0,0,0,0,0,0,0,0,0,0,0,0,
