%OpenBCI Raw EXG Data
%Number of channels = 16
%Sample Rate = 125 Hz
%Board = OpenBCI_GUI$BoardCytonSerialDaisy
Sample Index,EXG Channel 0,EXG Channel 1,EXG Channel 2,EXG Channel 3,EXG Channel 4,EXG Channel 5,EXG Channel 6,EXG Channel 7,EXG Channel 8,EXG Channel 9,EXG Channel 10,EXG Channel 11,EXG Channel 12,EXG Channel 13,EXG Channel 14,EXG Channel 15,Accel Channel 0,Accel Channel 1,Accel Channel 2,Other,Other,Other,Other,Other,Other,Other,Analog Channel 0,Analog Channel 1,Analog Channel 2,Timestamp,Other,Timestamp (Formatted),Annotations
1,-0,-0,0,0,0,0,-0,-0,-0,0,0,0,-0,0,-0,-0,0,0,0,0,0,0,0,0,0,0,0,0,0,0,0,0,T0
2,1.649,-31,17.44,-17.38,-16.69,-14.7,-24.63,54.05,-39.96,-44.97,-5.386,-16.14,-14.07,-9.143,-14.58,-16.31,0,0,0,0,0,0,0,0,0,0,0,0,0,0,0,0,
3,-24.81,-31.5,-7.787,3.775,-11.78,-65.78,-65.94,126.5,-78.76,-38.59,-31.99,-56.13,-36.52,-38.19,-47.07,-51,0,0,0,0,0,0,0,0,0,0,0,0,0,0,0,0,
4,-71.98,-46.38,-74.33,-15.45,-52.42,-74.71,-90,120.9,-71.9,-66.93,-54.91,-88.1,-53.89,-68.65,-68.34,-72.77,0,0,0,0,0,0,0,0,0,0,0,0,0,0,0,0,
5,-78.58,-42.88,-108.9,-20.7,-98.7,-47.52,-41.73,102.7,-35.45,-74.37,-52.85,-69.88,-37.94,-53.2,-51.3,-60.84,0,0,0,0,0,0,0,0,0,0,0,0,0,0,0,0,
6,-50.85,-3.78,-45.05,37.68,-85.96,-70.55,-2.968,147.5,-37.16,-36.86,-44.83,-31.62,-13.62,-21.27,-28.42,-38.77,0,0,0,0,0,0,0,0,0,0,0,0,0,0,0,0,
7,-42.97,-3.796,27.4,40.85,-67.17,-84.23,-23.16,146.3,-52.05,-47.51,-32.22,-5.887,1.187,-20.43,-7.972,-13.13,0,0,0,0,0,0,0,0,0,0,0,0,0,0,0,0,
8,-26.91,-5.706,9.395,-1.882,-48.85,-34.45,5.203,115.2,-51.46,-34.34,-4.192,24.92,28.6,-17.33,34.87,19.35,0,0,0,0,0,0,0,0,0,0,0,0,0,0,0,0,
9,0.68,30.63,-33.46,0.6045,-20.22,-21.79,41.64,137,-84.96,17.59,12.9,48.18,41.23,0.0862,67.27,39.16,0,0,0,0,0,0,0,0,0,0,0,0,0,0,0,0,
10,-4.302,20.39,-59.01,13.54,-38.76,-50.63,-1.178,159.9,-90.87,1.267,19.11,51.75,36.21,8.847,73.56,51.15,0,0,0,0,0,0,0,0,0,0,0,0,0,0,0,0,
11,-7.268,-7.131,-85.41,38.19,-73.93,-47.76,-21.93,194.4,2.781,-26.4,36.7,53.92,46.48,5.054,77.52,58.31,0,0,0,0,0,0,0,0,0,0,0,0,0,0,0,0,
12,-5.119,5.482,-75.43,60.14,-80.84,-56.37,-5.532,205.8,35.86,-48.02,27.01,36.4,32.12,-24.86,58.48,36.37,0,0,0,0,0,0,0,0,0,0,0,0,0,0,0,0,
13,-37.68,-8.171,-34.63,12.04,-104.1,-74.01,-1.759,102.8,-69.41,-88.26,-15.01,7.07,2.307,-46.46,28.38,14.72,0,0,0,0,0,0,0,0,0,0,0,0,0,0,0,0,
14,-48.45,-17.97,-19.33,3.207,-111.2,-50.09,35.16,69.08,-108.6,-25.48,-24.96,5.694,13.88,-20.31,22.38,19.71,0,0,0,0,0,0,0,0,0,0,0,0,0,0,0,0,
15,-28.1,7.976,-32.29,87.92,-66.32,-41.47,37.81,203.5,-40.33,57.33,-22.2,-2.216,11.61,-13.98,-1.453,-0.4113,0,0,0,0,0,0,0,0,0,0,0,0,0,0,0,0,
16,-46.37,-12.45,-33.04,104.5,-48.57,-61.76,-24.49,260,-48.66,-17.23,-53.92,-39.43,-25.7,-55.7,-52.38,-49.42,0,0,0,0,0,0,0,0,0,0,0,0,0,0,0,0,
17,-76.28,-37.59,-40.16,41.78,-68.89,-68.18,-20.23,170,-107.1,-82.04,-77.72,-67.28,-36.83,-79.14,-81.95,-75.03,0,0,0,0,0,0,0,0,0,0,0,0,0,0,0,0,
18,-91.18,-20.4,-111.4,5.189,-77.8,-90.05,10.77,89.91,-93.86,-22.8,-81,-86.96,-42.69,-72.04,-96.41,-79.62,0,0,0,0,0,0,0,0,0,0,0,0,0,0,0,0,
19,-113.5,-32.59,-134.5,5.168,-84.44,-115.1,-26.18,93.25,-85.45,-9.682,-88.48,-101.6,-56.49,-48.84,-103.1,-72.43,0,0,0,0,0,0,0,0,0,0,0,0,0,0,0,0,
20,-109.3,-46.56,-22.72,36.39,-81.03,-102.1,-53.26,161.9,-117,-56.16,-83.72,-98.86,-49.63,-23.05,-93.47,-53.66,0,0,0,0,0,0,0,0,0,0,0,0,0,0,0,0,
21,-92.47,-38.35,17.7,26.08,-69.9,-98.43,-58.81,183.2,-108.2,-49.02,-86.89,-106,-59.1,-36.45,-93.68,-51.09,0,0,0,0,0,0,0,0,0,0,0,0,0,0,0,0,
22,-112.1,-69.63,-62.84,-49.81,-88.71,-118.6,-89.14,139.6,-89.41,-38.19,-108,-113.6,-82.55,-62.46,-91.31,-56.91,0,0,0,0,0,0,0,0,0,0,0,0,0,0,0,0,
23,-116.4,-88.67,-89.97,-58.95,-103.8,-103.4,-95.51,132.1,-96.12,-78.4,-89.37,-85.18,-69.85,-48.29,-53.19,-49.17,0,0,0,0,0,0,0,0,0,0,0,0,0,0,0,0,
24,-78.78,-50.51,-117.2,-34.11,-80.54,-62.09,-60.52,89.59,-75.93,-104.1,-43.18,-42.65,-48.3,-31.61,-9.941,-48.67,0,0,0,0,0,0,0,0,0,0,0,0,0,0,0,0,
25,-47.78,-29.4,-159.9,-76.82,-61.58,-52.89,-25.77,1.439,-54.68,-82.6,-23.65,-7.163,-45.75,-44.43,10.25,-57.18,0,0,0,0,0,0,0,0,0,0,0,0,0,0,0,0,
26,-26.84,-36.2,-95.36,-80.81,-60.74,-59.08,-16.4,34.74,-63.93,-46.34,-16.8,21.47,-38.58,-51.44,23.9,-50.38,0,0,0,0,0,0,0,0,0,0,0,0,0,0,0,0,
27,-11.25,-27.93,-36.12,-22.42,-52.43,-37.48,-37.31,140.3,-34.28,-15.96,-3.184,32.59,-20.17,-38.41,42.16,-29.98,0,0,0,0,0,0,0,0,0,0,0,0,0,0,0,0,
28,-17.08,-13.03,-45.99,5.845,-42.38,-21.31,-63.19,173,5.21,-31.93,6.819,32.51,-6.107,-44.52,50.94,-22.02,0,0,0,0,0,0,0,0,0,0,0,0,0,0,0,0,
29,-35.79,-11.74,-13.86,19.17,-48.32,-42.28,-68.67,141.8,-56.78,-115.4,-4.588,24.66,-11.18,-87.75,33.79,-40.3,0,0,0,0,0,0,0,0,0,0,0,0,0,0,0,0,
30,-45.48,-18.5,-18.94,3.143,-65.09,-61.72,-46.35,85.25,-128.6,-146.4,-20.89,22.89,-11.36,-99.55,17.81,-49.27,0,0,0,0,0,0,0,0,0,0,0,0,0,0,0,0,
31,-17.19,-2.861,-105.5,-49.1,-62.91,-52.62,-7.019,72.45,-59.13,-34.31,4.095,56.15,21.91,-44.06,26.46,-31.89,0,0,0,0,0,0,0,0,0,0,0,0,0,0,0,0,
32,23.92,31.75,-88.07,-27.9,-41.04,-30.29,-5.319,124.9,37.04,44.95,25.55,69.7,37.86,-16.83,12.92,-39.53,0,0,0,0,0,0,0,0,0,0,0,0,0,0,0,0,
33,8.16,35.57,30.91,43.71,-57.71,-25.95,-39.28,128.4,1.595,-53.63,-14.91,14.57,8.11,-52.93,-33.1,-72.15,0,0,0,0,0,0,0,0,0,0,0,0,0,0,0,0,
34,-29.68,16.41,24.62,22.7,-113.7,-53.67,-16.63,56.11,-75.94,-133.6,-49.1,-33.3,-11.09,-58.34,-57.77,-75.86,0,0,0,0,0,0,0,0,0,0,0,0,0,0,0,0,
35,-34.21,16.98,-91.44,-30.72,-121.4,-64.63,44.83,23.46,-71.9,-53.25,-40.35,-39.34,-8.702,-19.03,-62.32,-58.9,0,0,0,0,0,0,0,0,0,0,0,0,0,0,0,0,
36,-47.05,29.01,-84.16,33.16,-77.44,-33.66,41.76,94.36,-39.27,22.88,-38.71,-48.09,-7.317,1.843,-61.92,-44.43,0,0,0,0,0,0,0,0,0,0,0,0,0,0,0,0,
37,-54.54,35.12,1.044,104.6,-68.99,-20.51,11.8,175.4,-65.17,9.451,-43,-45.44,1.589,4.812,-37.91,-26.23,0,0,0,0,0,0,0,0,0,0,0,0,0,0,0,0,
38,-19.57,29.74,-32.61,35.64,-93.44,-36.01,35.82,155.5,-82.87,-18.15,-18.94,-13.17,12.7,18.21,5.525,-1.038,0,0,0,0,0,0,0,0,0,0,0,0,0,0,0,0,
39,3.926,23.71,-49.32,11.51,-76.52,-19.2,79.52,124.7,8.003,-20.54,40.1,30.9,32.14,45.51,65.26,40.86,0,0,0,0,0,0,0,0,0,0,0,0,0,0,0,0,
40,17.79,47.23,76.29,162.5,-24.72,34.99,103.4,166.3,79.42,26.23,90.71,76.51,66.43,70.65,123.1,81.17,0,0,0,0,0,0,0,0,0,0,0,0,0,0,0,0,
41,57.42,77.79,123,237.4,-8.551,71.19,109,163.1,11.62,64.36,83.68,95.83,75.63,72.83,130.1,79.23,0,0,0,0,0,0,0,0,0,0,0,0,0,0,0,0,
42,69.42,73.75,29.09,123,-42.2,56.3,90.47,101.9,-18.14,17.29,55.82,75.74,49.52,42.28,96.08,41.87,0,0,0,0,0,0,0,0,0,0,0,0,0,0,0,0,
43,37.83,50.57,-30.54,32.32,-73.54,12.55,70.99,82.29,32.9,-28.36,40.49,42.05,18.18,-18.73,59.76,-1.123,0,0,0,0,0,0,0,0,0,0,0,0,0,0,0,0,
44,13.68,37.3,-43.77,56.31,-77.91,-17.12,90.59,90.21,-15.27,-6.947,21.04,25.43,9.707,-50.07,36.86,-19.11,0,0,0,0,0,0,0,0,0,0,0,0,0,0,0,0,
45,16.47,60.7,-16.33,113.7,-68.8,-18.04,132.8,118.2,-56.17,26.49,22.29,45.89,43.32,-2.647,41.04,0.3611,0,0,0,0,0,0,0,0,0,0,0,0,0,0,0,0,
46,38.6,106.5,63.69,136.6,-42.93,6.4,132.7,142.5,30.14,34.52,33.69,63.16,68.53,31.93,35.08,7.509,0,0,0,0,0,0,0,0,0,0,0,0,0,0,0,0,
47,53.52,107.1,59.67,97.82,-22.89,38.32,82.87,100.5,45.8,27.1,13.24,40.99,45.34,9.124,-4.47,-12.08,0,0,0,0,0,0,0,0,0,0,0,0,0,0,0,0,
48,51.19,80.25,-3.225,70.37,-37.19,41.1,56.06,83.53,-18.61,56.34,3.202,29.67,35.31,24.43,-20.02,-6.873,0,0,0,0,0,0,0,0,0,0,0,0,0,0,0,0,
49,46.96,77.55,16.66,99.43,-35.59,21.27,60.38,137.7,2.341,91.25,15.02,35.32,45.58,56.78,-10.52,9.893,0,0,0,0,0,0,0,0,0,0,0,0,0,0,0,0,
50,29.05,61.43,16.55,90.36,-11.21,11.45,40.05,151.9,22.71,45.06,3.385,19.07,28.14,35.16,-15,7.035,0,0,0,0,0,0,0,0,0,0,0,0,0,0,0,0,
51,4.036,34.01,-49.6,34.51,-32.03,-10.47,18.53,126.8,-31.08,-7.611,-10.07,6.531,10.09,16.67,-12.83,11.76,0,0,0,0,0,0,0,0,0,0,0,0,0,0,0,0,
52,-8.987,27.72,-63.54,12.67,-52.86,-46.73,18.71,87.82,-61.82,-13.78,-9.825,1.584,2.137,14.69,-4.675,20.59,0,0,0,0,0,0,0,0,0,0,0,0,0,0,0,0,
53,-28.59,4.838,-55.75,0.1794,-18.47,-38.61,-3.468,32.42,-47.67,-17.13,-16.68,-12.18,-16.4,0.7783,-3.89,13.71,0,0,0,0,0,0,0,0,0,0,0,0,0,0,0,0,
54,-43.19,-28.54,-41.73,-15.87,-13.74,-4.621,-38.28,73.22,-18.25,16.2,-19.69,-15.67,-29.59,-1.426,1.472,1.1,0,0,0,0,0,0,0,0,0,0,0,0,0,0,0,0,
55,-43.55,-39.9,4.033,6.957,-54.76,-22.04,-49.17,150.4,-0.5924,17.41,-27.31,-26.96,-47.79,-24.31,-8.507,-25.63,0,0,0,0,0,0,0,0,0,0,0,0,0,0,0,0,
56,-56.27,-52.31,-26.51,15.92,-59.25,-64.19,-49.64,66.98,-26.15,-70.11,-49.11,-50.03,-73.52,-72.34,-33.33,-59.16,0,0,0,0,0,0,0,0,0,0,0,0,0,0,0,0,
57,-52.85,-55.71,-94.56,-14.2,-39.95,-51.14,-41.44,-22.66,-36.01,-72.62,-52.85,-47.69,-68.56,-70.16,-41.52,-65.25,0,0,0,0,0,0,0,0,0,0,0,0,0,0,0,0,
58,-23.26,-29.91,-44.26,7.607,-21.63,4.756,-19.4,82.17,2.112,10.43,-42.75,-36.28,-45.5,-41.71,-44.56,-55.3,0,0,0,0,0,0,0,0,0,0,0,0,0,0,0,0,
59,-16.15,-9.249,55.79,57.5,20.64,27.33,-15.66,174,-11.69,8.275,-46.37,-38.97,-42.18,-54.87,-54.93,-58.97,0,0,0,0,0,0,0,0,0,0,0,0,0,0,0,0,
60,-22.97,-16.94,64.86,29.43,34.36,-0.2654,-33.25,100.6,-72.45,-23.55,-52.49,-42.69,-48.86,-75.6,-58.61,-64.25,0,0,0,0,0,0,0,0,0,0,0,0,0,0,0,0,
61,-20.03,-25.61,-7.986,1.796,-12.44,-7.895,-18.95,61.05,-47.8,-2.613,-44.72,-35.86,-32.33,-52.28,-50.01,-45.63,0,0,0,0,0,0,0,0,0,0,0,0,0,0,0,0,
62,-7.637,3.29,-52.82,55.1,-34.54,27.79,24.81,125.5,-2.159,2.381,-32.02,-18.98,-1.825,-20.97,-43.12,-20.82,0,0,0,0,0,0,0,0,0,0,0,0,0,0,0,0,
63,14.9,32.44,-18.52,56.96,-20.53,23.22,21.35,104.3,-61.59,-11.47,-38.3,-24.54,-7.355,-30.06,-55.5,-23.38,0,0,0,0,0,0,0,0,0,0,0,0,0,0,0,0,
64,-1.72,3.734,-9.976,-25.52,-45.78,-35.63,-29.15,12.88,-81.1,11.47,-55.95,-53.09,-29.18,-26.31,-62.33,-28.08,0,0,0,0,0,0,0,0,0,0,0,0,0,0,0,0,
65,-62.9,-24.21,-60.37,-43,-91.08,-60.83,-50.21,34.1,-5.371,7.284,-55.61,-58.7,-22.04,5.436,-48.49,-17.37,0,0,0,0,0,0,0,0,0,0,0,0,0,0,0,0,
66,-82.81,-12.23,-60.99,-4.739,-104.9,-56.54,-37,84.48,-33.45,-75.85,-58.32,-59.57,-31.22,-20.28,-53.65,-25.93,0,0,0,0,0,0,0,0,0,0,0,0,0,0,0,0,
67,-62.87,-19.04,-50.73,-24.74,-101.2,-72.95,-26.57,42.81,-110,-90.55,-70.01,-69.83,-57.17,-48.67,-63.74,-29.43,0,0,0,0,0,0,0,0,0,0,0,0,0,0,0,0,
68,-65.74,-26.23,-107,-73.33,-95.57,-71.6,-11.26,39.49,-71.57,9.686,-53.84,-51.12,-41.74,-0.3733,-45.69,-0.1614,0,0,0,0,0,0,0,0,0,0,0,0,0,0,0,0,
69,-78.18,-4.467,-116.9,-60.6,-94.99,-50.06,0.1973,92.43,-37.68,43.8,-39.35,-34.09,-30.36,13.7,-40.07,8.069,0,0,0,0,0,0,0,0,0,0,0,0,0,0,0,0,
70,-78.81,-11.99,-46.99,12.83,-101.4,-60.17,-25.77,80.12,-60.01,8.712,-49.92,-43.79,-52.48,-28.92,-45.85,-2.808,0,0,0,0,0,0,0,0,0,0,0,0,0,0,0,0,
71,-67.95,-34.17,-26.34,41.03,-101,-66.9,-43.33,53.26,-52.33,-4.364,-40.17,-32.28,-47.57,-31.19,-23.8,10.7,0,0,0,0,0,0,0,0,0,0,0,0,0,0,0,0,
72,-41.45,-15.5,-48.87,-19.11,-96.59,-42.97,5.009,53.64,-39.81,-39.86,-20.79,-12.38,-30.67,-22.88,-8.13,14.33,0,0,0,0,0,0,0,0,0,0,0,0,0,0,0,0,
73,-31.48,-3.737,-42.19,-41.59,-87.37,-41.93,31.23,41.05,-29.81,-42.07,-26.1,-20.26,-48.18,-37.19,-23.92,-11.39,0,0,0,0,0,0,0,0,0,0,0,0,0,0,0,0,
74,-48.29,-33.33,-50.45,3.782,-66.45,-45.6,-24.94,74.35,-36.56,-3.122,-37.01,-24.92,-63.58,-46.79,-39.46,-27.29,0,0,0,0,0,0,0,0,0,0,0,0,0,0,0,0,
75,-38.39,-42.47,-74.88,-1.968,-58.92,-8.666,-34.41,138.2,-79.84,-32.12,-38.98,-13.46,-48.79,-50.18,-41.58,-17.39,0,0,0,0,0,0,0,0,0,0,0,0,0,0,0,0,
76,-5.523,-11.92,-82.96,-32.88,-78.08,2.734,27.53,119.6,-48.51,-19.15,-27.71,-8.547,-32.75,-24.13,-39.38,0.9291,0,0,0,0,0,0,0,0,0,0,0,0,0,0,0,0,
77,-16.3,-4.652,-105.8,-4.074,-95.21,-47.82,19.72,65.27,13.66,49.38,-16.67,-15.2,-32.59,11.91,-39.27,6.566,0,0,0,0,0,0,0,0,0,0,0,0,0,0,0,0,
78,-57.07,-24.85,-82.71,38.42,-88.54,-88.12,-30.11,67.53,-24.55,-11.03,-27.59,-26.75,-32.49,3.186,-36.17,6.886,0,0,0,0,0,0,0,0,0,0,0,0,0,0,0,0,
79,-60.21,-21.47,10.04,42.22,-75.11,-82.59,-20.77,82.38,-27.32,-66.73,-32.79,-29.62,-24.11,-13.32,-22.79,16.51,0,0,0,0,0,0,0,0,0,0,0,0,0,0,0,0,
80,-39.76,-15,18.92,11.65,-68.66,-52.85,-14.11,66.59,19.26,8.441,-27.47,-23.8,-18.87,-13.08,-15.25,15.88,0,0,0,0,0,0,0,0,0,0,0,0,0,0,0,0,
81,-43.8,-27.41,-54.45,-6.174,-53.49,-25.2,-38.95,46.82,-51.96,17.31,-39.96,-22.83,-14.44,-21.71,-17.35,9.015,0,0,0,0,0,0,0,0,0,0,0,0,0,0,0,0,
82,-44.25,-12.6,-70.18,15.71,-44.24,-20.59,-21.96,41.77,-88.26,-31.57,-37.88,-14.41,-2.257,-15.73,-8.017,22.46,0,0,0,0,0,0,0,0,0,0,0,0,0,0,0,0,
83,-10.07,19.42,-40.51,8.198,-45.42,-15.28,13.41,58.85,17.37,-0.0494,-12.25,-0.2901,2.61,-0.4991,-2.026,28.92,0,0,0,0,0,0,0,0,0,0,0,0,0,0,0,0,
84,9.961,16.03,2.363,-14.04,-17.74,-1.589,1.864,94.8,54.52,25.42,-14.13,-11.33,-6.383,-10.38,-22.09,6.629,0,0,0,0,0,0,0,0,0,0,0,0,0,0,0,0,
85,-14.8,6.365,32.36,28.59,-8.857,-19.27,-5.377,115.9,16.32,30.15,-30.48,-27.49,-9.024,-13.5,-39.21,-7.799,0,0,0,0,0,0,0,0,0,0,0,0,0,0,0,0,
86,-31.97,29.99,-13.51,48.81,-49.64,-34.6,37.23,99.01,-0.0542,59.1,-24.25,-12.64,-4.027,-2.397,-34.72,-4.877,0,0,0,0,0,0,0,0,0,0,0,0,0,0,0,0,
87,-6.816,47.04,-36.31,17.88,-42.43,-4.749,55.89,66.38,-48.85,12.6,-17.64,6.031,-8.653,-11.41,-31.56,-10.66,0,0,0,0,0,0,0,0,0,0,0,0,0,0,0,0,
88,21.64,30.31,23.98,46.35,-9.707,10.61,31.02,66.56,-57.22,-51.1,-19.64,1.115,-13.15,-10.12,-32.16,-14.94,0,0,0,0,0,0,0,0,0,0,0,0,0,0,0,0,
89,15.55,21.04,22.4,63.87,-34.03,-1.758,30.25,107.4,25.51,14.15,-13.01,-15.69,-9.911,12.86,-30.97,-9.183,0,0,0,0,0,0,0,0,0,0,0,0,0,0,0,0,
90,-9.801,26.67,-18.33,0.6323,-38.88,10.66,29.05,111.4,67.9,67.92,-10.48,-32.52,-18.89,2.793,-36.94,-15.4,0,0,0,0,0,0,0,0,0,0,0,0,0,0,0,0,
91,-24.01,10.74,3.367,-12.82,-14.51,9.362,2.75,50.85,27.41,8.027,-21.22,-35.78,-25.53,-15.47,-32.33,-16.07,0,0,0,0,0,0,0,0,0,0,0,0,0,0,0,0,
92,-21.05,-1.786,-15.59,35.25,-31.53,-36.08,3.466,29.38,-51.92,-0.6606,-26.46,-23.94,-4.607,5.03,-12.15,7.13,0,0,0,0,0,0,0,0,0,0,0,0,0,0,0,0,
93,-7.548,14.15,-52.85,42.88,-40.76,-48.29,4.142,69.45,-83.87,45.1,-19.37,-19.07,8.413,7.75,-11.23,13,0,0,0,0,0,0,0,0,0,0,0,0,0,0,0,0,
94,-0.8752,15.71,-3.169,27.33,-30.9,-19.79,-12.39,84.93,-7.136,21.14,-10.4,-23.72,-2.936,-13.1,-23.43,-2.518,0,0,0,0,0,0,0,0,0,0,0,0,0,0,0,0,
95,-17.52,3.011,-10.87,30.09,-45.27,-19.39,3.842,92.95,50.51,0.5054,-7.136,-22.97,-3.034,-2.842,-21.02,-5.329,0,0,0,0,0,0,0,0,0,0,0,0,0,0,0,0,
96,-22.12,9.425,-90.81,54.31,-52.84,-17.9,14.01,105,29.86,12.61,-5.541,-13.33,4.067,-7.88,-16.76,-11.38,0,0,0,0,0,0,0,0,0,0,0,0,0,0,0,0,
97,10.43,19.83,-50.33,86.49,-53.91,6.464,16.33,51.55,-3.903,-14.98,-0.076,0.609,1.781,-32.71,-15.62,-25.34,0,0,0,0,0,0,0,0,0,0,0,0,0,0,0,0,
98,26.67,28.81,26.14,88.26,-55.55,-5.813,62.84,9.701,-72.87,-17.28,-1.864,4.922,2.353,-2.537,-15.41,-26.84,0,0,0,0,0,0,0,0,0,0,0,0,0,0,0,0,
99,17.08,33.32,3.082,71.72,-31.28,-21.88,64.13,64.83,-83.11,10.54,-10.18,-9.855,-6.798,19.8,-30.51,-34.38,0,0,0,0,0,0,0,0,0,0,0,0,0,0,0,0,
100,24,13.18,-8.034,54.21,-24.11,5.08,2.89,96.57,35.35,-9.558,-11.77,-35.44,-32.09,-23.12,-46.51,-51.33,0,0,0,0,0,0,0,0,0,0,0,0,0,0,0,0,
101,8.26,-4.009,12.01,21.86,-48.98,4.699,-5.771,70.67,72.32,-0.8439,-24.11,-63.69,-45.06,-42.99,-49.8,-56.14,0,0,0,0,0,0,0,0,0,0,0,0,0,0,0,0,
102,-48.7,-4.849,-9.997,32.57,-62.7,-35.88,2.337,91.84,-13.57,25.79,-49.51,-81.79,-42.21,-33.05,-55.61,-56.15,0,0,0,0,0,0,0,0,0,0,0,0,0,0,0,0,
103,-63.88,-15.5,-30.95,81.82,-72.1,-49.24,-9.155,112.9,-45.44,-41.58,-63,-79.79,-38.41,-42.37,-58.19,-53.71,0,0,0,0,0,0,0,0,0,0,0,0,0,0,0,0,
104,-36.94,-22.5,-41.35,47.73,-64.2,-35.13,11.71,74.15,-57.1,-70.46,-81.88,-84.1,-43.25,-40.29,-59.67,-48.83,0,0,0,0,0,0,0,0,0,0,0,0,0,0,0,0,
105,-56.96,-35.92,-38.17,-21.8,-43.18,-34.34,-5.469,55.24,-121.5,1.991,-110.1,-107.3,-61.75,-43.18,-77.27,-59.74,0,0,0,0,0,0,0,0,0,0,0,0,0,0,0,0,
106,-96.62,-68.61,13.72,4.736,-73.18,-57.04,-56.93,53.05,-124.6,-13.15,-99.78,-104.9,-62.44,-59.78,-78.59,-65.29,0,0,0,0,0,0,0,0,0,0,0,0,0,0,0,0,
107,-72.19,-52.8,14.56,61.71,-97.27,-59.1,-30.5,24.89,-27.56,-59.08,-53.91,-67.2,-33.13,-27.49,-49,-40.48,0,0,0,0,0,0,0,0,0,0,0,0,0,0,0,0,
108,-30.29,-11.62,-42.17,71.93,-38.92,-16.46,-17.08,34.73,21.49,-4.986,-28.14,-50.52,-32.66,-2.329,-42.23,-32.22,0,0,0,0,0,0,0,0,0,0,0,0,0,0,0,0,
109,-39.52,-45.02,0.3222,56.69,4.559,0.3681,-83.55,47.9,-20.53,-16.97,-38.67,-69.28,-69.86,-49.94,-63.83,-62.7,0,0,0,0,0,0,0,0,0,0,0,0,0,0,0,0,
110,-60.28,-86.52,26.81,3.029,-30.4,-31.72,-92.02,-22.29,-35.9,-85.22,-51.97,-81.47,-77.25,-68.65,-62.75,-74.31,0,0,0,0,0,0,0,0,0,0,0,0,0,0,0,0,
111,-65.63,-58.19,-100.9,-55.33,-60.36,-48.23,-44.13,-53.75,-47.6,-49,-47.84,-77.05,-53.9,-33.56,-45.49,-57.43,0,0,0,0,0,0,0,0,0,0,0,0,0,0,0,0,
112,-70.43,-39.47,-120.8,-47.7,-36.66,-39.46,-46.6,25.94,-101.3,-50.05,-44.16,-74.12,-46.32,-38.04,-44.69,-53.61,0,0,0,0,0,0,0,0,0,0,0,0,0,0,0,0,
113,-54.64,-48.58,38.57,-1.292,-8.295,-21.64,-64.71,60.35,-59.25,-95.72,-35.29,-67.07,-42.82,-48.56,-41.34,-51.09,0,0,0,0,0,0,0,0,0,0,0,0,0,0,0,0,
114,-27.25,-34.8,67.6,27.97,-18.45,3.117,-57.53,34.32,53.98,1.549,-7.708,-51.24,-30.04,-18.33,-22.93,-38.85,0,0,0,0,0,0,0,0,0,0,0,0,0,0,0,0,
115,-17.65,-31.66,-21.08,17.66,-26.05,11.58,-41.6,65.89,44.46,58.86,-2.599,-44.78,-29.22,-17.27,-17.65,-36.72,0,0,0,0,0,0,0,0,0,0,0,0,0,0,0,0,
116,-3.925,-41.81,-11.16,-5.871,-2.666,5.972,-16.33,90.85,-41.55,-53.18,-24.74,-43.99,-28.08,-38.66,-23.51,-26.45,0,0,0,0,0,0,0,0,0,0,0,0,0,0,0,0,
117,9.249,-18.4,-4.263,9.224,-8.936,2.525,-4.932,50.45,-42.65,-71.5,-21.41,-29.22,-5.339,-7.345,-12.83,1.646,0,0,0,0,0,0,0,0,0,0,0,0,0,0,0,0,
118,-4.187,13.3,-82.42,36.28,-35.79,1.42,-16,36.71,14.65,27.77,-5.673,-15.37,17.31,41.38,0.2574,17.96,0,0,0,0,0,0,0,0,0,0,0,0,0,0,0,0,
119,-13.4,20.56,-77.04,36.21,-21.54,-5.104,-26.62,49.7,-5.326,22.47,-23.51,-24.19,11.85,31.67,-17.59,11.22,0,0,0,0,0,0,0,0,0,0,0,0,0,0,0,0,
120,-18.25,-1.538,18.66,6.548,-20.22,-44.08,-55.86,15.1,-104.1,-68.47,-61.06,-49.17,-23.14,-19.7,-58.92,-14.09,0,0,0,0,0,0,0,0,0,0,0,0,0,0,0,0,
121,-49.74,-48.95,25.76,-57.97,-49.6,-77.69,-79.97,-31.22,-111.2,-94.51,-71.34,-64.26,-45.18,-33.9,-74.68,-30.38,0,0,0,0,0,0,0,0,0,0,0,0,0,0,0,0,
122,-57.7,-55.66,-28.1,-65.15,-31.29,-34.13,-34.99,-15.9,-1.764,-22.36,-38.31,-42.79,-17.45,1.761,-46.49,-11.32,0,0,0,0,0,0,0,0,0,0,0,0,0,0,0,0,
123,-14.86,-11.83,-8.537,33.03,1.185,19.36,8.791,46.48,34.45,43.99,-12.81,-14.11,2.765,10.93,-30.56,-0.8183,0,0,0,0,0,0,0,0,0,0,0,0,0,0,0,0,
124,6.034,-13.49,10.34,85.22,-10.72,8.613,-23.87,75.35,-23.41,25.59,-26.79,-22.65,-24.15,-10.82,-49.14,-24.44,0,0,0,0,0,0,0,0,0,0,0,0,0,0,0,0,
125,-9.754,-41.44,-47.14,43.84,-19.49,-2.371,-43.32,45.41,-31.07,-2.53,-31.89,-33.58,-36.98,-11.87,-51.3,-43.42,0,0,0,0,0,0,0,0,0,0,0,0,0,0,0,0,
126,-13.34,-23.85,-84.51,16.62,-14.09,5.221,-11.97,23.98,-1.278,-5.936,-19.58,-23.84,-32.99,-25.69,-37.1,-55.76,0,0,0,0,0,0,0,0,0,0,0,0,0,0,0,0,
127,-7.79,-17.11,-53.63,18.18,-15.67,-4.245,-0.1333,39.91,-14.79,-28.81,-16.61,-16.67,-40.17,-43.24,-24.05,-55.81,0,0,0,0,0,0,0,0,0,0,0,0,0,0,0,0,
128,9.625,-20.93,19.74,28.95,-4.016,7.731,12.78,48.82,-30.11,-30.78,9.911,8.842,-11.91,-6.926,12.59,-20.75,0,0,0,0,0,0,0,0,0,0,0,0,0,0,0,0,
129,52.3,20.87,83.3,44.65,3.326,35.41,47.84,45.99,-11.75,-12.5,49.26,38.97,25.84,13.86,38.57,-1.069,0,0,0,0,0,0,0,0,0,0,0,0,0,0,0,0,
130,72.27,37.98,68.18,51.47,-10.06,21.79,46.97,57.11,8.094,-27.67,44.46,26.37,18.98,-9.742,24.79,-10.15,0,0,0,0,0,0,0,0,0,0,0,0,0,0,0,0,
131,48.46,22.48,40,75.08,-6.417,10.46,34.13,58.27,35.01,-19.26,27.48,14.34,29.48,9.496,22.99,11.47,0,0,0,0,0,0,0,0,0,0,0,0,0,0,0,0,
132,34.17,53.7,36.94,92.12,8.811,45.71,58.3,30.48,47.19,40.85,29.59,25.59,60.08,38.7,23.93,30.76,0,0,0,0,0,0,0,0,0,0,0,0,0,0,0,0,
133,49.07,68.85,-13.94,62.3,8.843,72.5,72.78,29.13,3.281,57.41,13.52,6.911,42.69,15,-9.095,3.079,0,0,0,0,0,0,0,0,0,0,0,0,0,0,0,0,
134,51.6,31.76,-4.479,43.52,18.52,70.35,54.62,83.41,-10.99,8.626,-10.7,-29.96,18.25,1.621,-33.82,-15.66,0,0,0,0,0,0,0,0,0,0,0,0,0,0,0,0,
135,27.25,29.84,104.4,63.7,37.37,68.44,35.14,111.9,19.2,-13.01,-18.74,-48.93,16.85,9.314,-43.34,-18.9,0,0,0,0,0,0,0,0,0,0,0,0,0,0,0,0,
136,5.124,34.8,89.07,74.33,30.56,47.62,12.55,62.07,-27.67,-1.584,-35.21,-70.71,-10.77,-22.76,-67.11,-47.48,0,0,0,0,0,0,0,0,0,0,0,0,0,0,0,0,
137,-18.29,-10.17,-20,30.27,2.591,2.611,-6.487,-4.883,-66.6,-35.91,-47.77,-91.8,-40.66,-60.91,-72.28,-62.5,0,0,0,0,0,0,0,0,0,0,0,0,0,0,0,0,
138,-42.77,-28.23,-8.114,-66.73,-23.55,-14.73,9.523,-28.04,7.738,-67.34,-23.46,-75.15,-23.1,-37.33,-40.96,-34.26,0,0,0,0,0,0,0,0,0,0,0,0,0,0,0,0,
139,-21.56,4.635,51.37,-86.63,-19.13,3.095,32.32,11.55,32.07,-17.75,13.26,-34.83,9.151,21.9,-8.337,-3.613,0,0,0,0,0,0,0,0,0,0,0,0,0,0,0,0,
140,12.04,16.8,25.24,40.85,17.81,9.626,12.62,78.16,-12.52,32.1,22.56,-21.89,17.05,45.29,6.652,6.236,0,0,0,0,0,0,0,0,0,0,0,0,0,0,0,0,
141,-6.206,2.689,-43.72,110.6,7.798,-7.154,-17.19,68.88,16.41,20.04,-2.678,-37.62,3.366,15.48,4.369,-2.301,0,0,0,0,0,0,0,0,0,0,0,0,0,0,0,0,
142,-21.76,-4.425,-77.8,3.014,-57.69,-23.93,-15.59,-2.287,18.05,0.735,-28.22,-39.63,-11.3,-12.04,2.08,-17.26,0,0,0,0,0,0,0,0,0,0,0,0,0,0,0,0,
143,-6.797,-3.361,-28.22,-70.38,-63.29,-22.56,-10.42,9.095,-56.58,8.408,-15.01,-16.28,2.779,9.819,26.85,-7.608,0,0,0,0,0,0,0,0,0,0,0,0,0,0,0,0,
144,-8.613,10.81,39.6,6.986,-17.55,-3.046,-10.46,76.37,-49.21,4.366,10.41,7.374,30.64,25.05,54.24,14.59,0,0,0,0,0,0,0,0,0,0,0,0,0,0,0,0,
145,-5.341,29.23,-3.179,63.84,-13.05,11.07,13.33,51.17,6.454,-41.18,11.75,9.763,24.31,-11.27,45.31,10.62,0,0,0,0,0,0,0,0,0,0,0,0,0,0,0,0,
146,12.08,23.5,-66.87,32.43,-15.76,5.634,46.73,-12.36,18.4,-34.14,15.37,0.375,9.047,-12.71,29.99,4.112,0,0,0,0,0,0,0,0,0,0,0,0,0,0,0,0,
147,0.4508,9.936,5.985,25.66,-10.68,-3.374,46.22,19.16,36,36.75,25.03,-1.555,19.98,21.13,26.96,7.962,0,0,0,0,0,0,0,0,0,0,0,0,0,0,0,0,
148,-15.7,13.17,81.38,25.98,-37.64,-5.731,9.056,81.86,22.56,8.761,6.012,-7.722,17.16,-15.71,0.348,-11.19,0,0,0,0,0,0,0,0,0,0,0,0,0,0,0,0,
149,0.1557,17.12,32.92,-8.471,-34.05,-0.2442,-5.133,73.64,-25.8,-29.58,-17.6,-13.39,8.307,-46.43,-27.03,-20.01,0,0,0,0,0,0,0,0,0,0,0,0,0,0,0,0,
150,20.6,20.34,-0.6259,19.74,15.34,9.73,29.85,34.13,-29.48,43.49,-12.11,0.8646,27.63,-0.101,-20.98,5.899,0,0,0,0,0,0,0,0,0,0,0,0,0,0,0,0,
151,16.28,27.52,-0.9304,69.25,15.98,2.291,46.12,-4.404,-46.35,17.71,-9.141,-1.129,24.76,1.154,-27.14,3.693,0,0,0,0,0,0,0,0,0,0,0,0,0,0,0,0,
152,0.6603,23.38,-42.98,36.6,-24,-13.27,23.07,-45.37,-47.87,-64.4,-15.75,-24.24,0.3676,-26.48,-46.61,-17.24,0,0,0,0,0,0,0,0,0,0,0,0,0,0,0,0,
153,-1.286,18.64,-28.68,10.56,-28.98,-1.302,11.05,-32.16,46.29,-1.761,-2.339,-24.49,9.953,9.001,-36.89,-7.07,0,0,0,0,0,0,0,0,0,0,0,0,0,0,0,0,
154,-3.146,22.44,2.583,4.391,-8.571,10.6,8.321,22.12,66.63,26.56,2.027,-28.98,15.48,27.38,-28.77,-7.081,0,0,0,0,0,0,0,0,0,0,0,0,0,0,0,0,
155,-16.12,12.39,-57.33,-24.64,-6.209,-12.92,1.817,38.61,-10.26,-19,-19.81,-46.47,-3.826,6.263,-31.82,-22.27,0,0,0,0,0,0,0,0,0,0,0,0,0,0,0,0,
156,-14.37,-8.015,-40.09,18.02,-13.47,-26.63,-8.28,35.8,-7.377,1.404,-19.12,-23.88,-2.85,-3.75,-7.238,-11.97,0,0,0,0,0,0,0,0,0,0,0,0,0,0,0,0,
157,-0.4045,-5.609,87.61,61.37,6.793,0.4313,-20.95,23.53,-8.722,-19.84,5.397,13.6,8.672,-20.01,27.51,-1.404,0,0,0,0,0,0,0,0,0,0,0,0,0,0,0,0,
158,8.074,20.83,94.67,-7.471,30.31,23.27,0.0961,-14.45,-44.33,-57.33,23.93,28.52,15.47,-4.382,51.62,4.454,0,0,0,0,0,0,0,0,0,0,0,0,0,0,0,0,
159,14.3,26.5,4.609,-32.44,7.253,13.15,17.21,-15.7,41.26,-4.189,39.4,43.41,21.07,41.44,68.64,18.8,0,0,0,0,0,0,0,0,0,0,0,0,0,0,0,0,
160,10.36,-7.13,-17.86,37.57,-23.35,-0.7756,-30.4,-4.4,102.2,18.21,32.29,44.7,4.953,26.17,60.8,10.74,0,0,0,0,0,0,0,0,0,0,0,0,0,0,0,0,
161,-1.694,-32.02,-39.01,50.73,-22.76,2.436,-48.42,-41.64,-8.445,-8.618,0.4531,21.93,-8.207,-9.73,39.15,-1.844,0,0,0,0,0,0,0,0,0,0,0,0,0,0,0,0,
162,-7.184,-16.99,-94.74,-0.083,-14.69,12.45,8.899,-30.62,-58.63,-7.576,-10.09,10.25,9.558,3.137,26.84,8.441,0,0,0,0,0,0,0,0,0,0,0,0,0,0,0,0,
163,3.862,7.158,-35.05,-5.349,11.27,31.06,27.37,56.55,37.06,17.11,-1.308,13.77,13.92,10.64,9.65,3.21,0,0,0,0,0,0,0,0,0,0,0,0,0,0,0,0,
164,38.47,8.91,110.4,51.01,42.58,52.32,-1.332,95.11,46.74,47.26,-1.898,18.86,-1.695,-6.859,-2.612,-10.38,0,0,0,0,0,0,0,0,0,0,0,0,0,0,0,0,
165,57.04,6.49,131.4,62.55,36.93,50.27,15.38,55.5,-31.93,25.46,12.43,30.76,14,5.458,19.54,18.46,0,0,0,0,0,0,0,0,0,0,0,0,0,0,0,0,
166,36.82,33.36,66.25,30.1,45.09,44.75,57.78,22.15,25.09,10.05,63.71,49.04,53.22,56.07,58.36,71.09,0,0,0,0,0,0,0,0,0,0,0,0,0,0,0,0,
167,30.76,54.65,68.41,80.83,81.47,57.34,52.92,47.62,136.1,64.67,102.7,60.35,68.56,82.71,71.8,93.43,0,0,0,0,0,0,0,0,0,0,0,0,0,0,0,0,
168,40.52,35.19,39.24,106.5,56.37,51.48,25.62,59.07,73.41,41.34,77.81,52.64,58.07,58.76,46.8,76.46,0,0,0,0,0,0,0,0,0,0,0,0,0,0,0,0,
169,26.85,28.92,-74.21,-2.119,-11.59,21.93,30.45,-11.25,-32.22,-17.23,27.11,31.15,41.79,43.38,7.455,47.31,0,0,0,0,0,0,0,0,0,0,0,0,0,0,0,0,
170,5.993,38.85,-85.55,-27.39,-30.91,-2.093,26.36,-51.45,1.237,39.78,1.796,5.684,18,43.71,-20.63,21.58,0,0,0,0,0,0,0,0,0,0,0,0,0,0,0,0,
171,-13.98,16.59,26.06,59.26,-19.83,-21.52,-14.22,-25.27,48.14,66.3,-4.896,-11.65,-4.443,21.64,-26.35,5.391,0,0,0,0,0,0,0,0,0,0,0,0,0,0,0,0,
172,-24.76,0.7509,72.82,48.27,-16.65,-28.36,-33.54,-48.83,12.51,10.54,1.331,-3.453,-9.854,10.43,-3.894,5.113,0,0,0,0,0,0,0,0,0,0,0,0,0,0,0,0,
173,-13.65,-9.973,8.877,-20.97,-17.68,-25.69,-46.04,-77.7,-29.69,-16.56,5.737,4.815,-24.06,1.842,22.71,-2.418,0,0,0,0,0,0,0,0,0,0,0,0,0,0,0,0,
174,-29.38,-58.92,-61.28,-65.58,-46.24,-43.66,-83.98,-69.34,-28.54,-50.3,-4.15,-7.66,-48.55,-34.26,33.09,-23.4,0,0,0,0,0,0,0,0,0,0,0,0,0,0,0,0,
175,-61.74,-70.43,-62.6,-99.93,-76.36,-53.3,-72.49,-107.8,-4.994,-68.57,9.878,4.073,-32.99,-27.16,54.16,-17.95,0,0,0,0,0,0,0,0,0,0,0,0,0,0,0,0,
176,-36.63,-19.25,-34.31,-57.49,-46.06,-23.61,-18.27,-110,-19.46,-37.64,37.66,35.3,0.5675,15.4,78.08,3.911,0,0,0,0,0,0,0,0,0,0,0,0,0,0,0,0,
177,1.967,-2.457,-64.55,11.88,-17.47,-14.34,-19.48,-31.31,-49.94,-25.23,33,37.27,-2.222,10.41,67.02,5.077,0,0,0,0,0,0,0,0,0,0,0,0,0,0,0,0,
178,-1.955,-20.23,-82.04,-1.995,-50.85,-52.49,-48.33,-32.2,-7.241,10.13,25.68,35.72,-7.932,0.9205,44.53,4.902,0,0,0,0,0,0,0,0,0,0,0,0,0,0,0,0,
179,0.5025,-21.26,5.211,-20.83,-65.06,-66.85,-46.28,-79.74,44.36,45.52,28.12,41.14,3.43,16.1,31.7,11.03,0,0,0,0,0,0,0,0,0,0,0,0,0,0,0,0,
180,12.47,-23.11,55.71,1.198,-29.19,-26.96,-37.82,-37.01,3.81,-5.346,5.223,22.01,3.48,6.728,14.5,11.18,0,0,0,0,0,0,0,0,0,0,0,0,0,0,0,0,
181,1.673,-23.01,15.59,11.33,-8.49,10.56,-23.18,16.93,-55.25,-24.76,-25.21,0.4009,4.543,-9.61,-1.486,16.78,0,0,0,0,0,0,0,0,0,0,0,0,0,0,0,0,
182,-11.06,-10.85,-0.8622,14.08,-27.77,2.836,-2.531,9.929,-47.47,2.793,-41.78,-18.44,6.812,-17.58,-27.17,12.26,0,0,0,0,0,0,0,0,0,0,0,0,0,0,0,0,
183,-19.61,-6.623,-34.54,-5.89,-59.19,-15.79,7.367,-18.15,-13.24,-32.77,-54.82,-50.58,-1.777,-22.62,-64.96,-5.838,0,0,0,0,0,0,0,0,0,0,0,0,0,0,0,0,
184,-16.86,-2.737,-43.33,-33.2,-49.57,5.095,30.22,-42.73,-14.42,-32.53,-60.44,-68.52,-3.973,-7.149,-80.82,-5.255,0,0,0,0,0,0,0,0,0,0,0,0,0,0,0,0,
185,-5.018,-16.4,55.38,-10.08,-26.13,12.27,27.47,-35.66,-49.65,10.65,-69.39,-87.79,-27.25,-17.12,-92.19,-11.89,0,0,0,0,0,0,0,0,0,0,0,0,0,0,0,0,
186,-40.75,-65.93,39.49,-0.5468,-50.85,-53.96,-30.33,-24.54,-75.47,-23.99,-85.39,-119.3,-68.66,-49.91,-107,-37.1,0,0,0,0,0,0,0,0,0,0,0,0,0,0,0,0,
187,-81.3,-70.63,-72.39,-18.09,-39.93,-87.12,-30.21,-41.62,-47.83,-20.03,-69.08,-99.43,-54.58,-17.89,-74.11,-25.62,0,0,0,0,0,0,0,0,0,0,0,0,0,0,0,0,
188,-45.17,-16.03,-9.575,18.22,2.616,-26.66,19.38,0.0837,4.081,47.91,-34.08,-50.52,-18.06,22.42,-24.02,-1.058,0,0,0,0,0,0,0,0,0,0,0,0,0,0,0,0,
189,-20.42,-4.211,53.07,33.84,-52.74,-6.081,-16.8,71.87,-24.65,5.696,-29,-33.67,-18.76,-6.966,-4.845,-7.917,0,0,0,0,0,0,0,0,0,0,0,0,0,0,0,0,
190,-42.96,-11.72,-38.32,-20.8,-95.09,-51.19,-57.51,29.56,-84.42,-43.42,-13.02,5.196,1.213,-18.33,34.8,3.885,0,0,0,0,0,0,0,0,0,0,0,0,0,0,0,0,
191,-5.801,31.63,-78.29,-45.1,-27.37,-46.86,-9.436,-34.71,-15.26,39.91,41.02,74.69,42.83,13.28,92.95,35.91,0,0,0,0,0,0,0,0,0,0,0,0,0,0,0,0,
192,51.98,55.15,-56.66,-26.31,6.308,-7.26,7.485,18.34,77.91,77.67,66.21,96.91,40.79,10.59,101.6,31.66,0,0,0,0,0,0,0,0,0,0,0,0,0,0,0,0,
193,44.19,30.51,-41.15,9.986,-2.157,-0.4456,-18.4,84.77,46.72,12.02,56.67,86.59,26.45,-8.899,80.55,12.83,0,0,0,0,0,0,0,0,0,0,0,0,0,0,0,0,
194,33.79,32.93,-10.99,46.64,14.03,-1.693,11.19,82.85,18.4,13.07,55.95,87.76,39.15,-7.859,68.79,8.187,0,0,0,0,0,0,0,0,0,0,0,0,0,0,0,0,
195,45.52,60.28,-44.99,10.96,15.77,9.345,43.11,60.26,17.83,43.13,42.34,76.07,47.41,-17.92,47.71,-0.081,0,0,0,0,0,0,0,0,0,0,0,0,0,0,0,0,
196,39.27,61.92,-81.14,-47.85,24.04,6.296,30.85,27.95,-49.82,-19.37,15.38,54.96,43.77,-30.37,24.43,1.087,0,0,0,0,0,0,0,0,0,0,0,0,0,0,0,0,
197,39.87,54.7,-0.3947,-33.23,22.66,-14.95,35.23,11.92,-57.95,-37.36,10.01,53.51,51.87,-1.299,21.75,24.13,0,0,0,0,0,0,0,0,0,0,0,0,0,0,0,0,
198,49.2,62.44,77.14,0.7443,-23.68,-22.9,45.03,38.04,40.43,61.69,4.546,44.18,52.91,28.69,11.18,30.88,0,0,0,0,0,0,0,0,0,0,0,0,0,0,0,0,
199,30.23,41.1,57.26,20.09,-21.86,-6.604,8.862,43.85,57.83,66.09,-25.34,2.731,18.85,0.7146,-27.02,9.613,0,0,0,0,0,0,0,0,0,0,0,0,0,0,0,0,
200,10.7,-16.38,13.24,45.73,19.66,13.17,-31.2,26.81,-19.19,-32.53,-52.29,-32.8,-7.275,-27.36,-54.4,9.486,0,0,0,0,0,0,0,0,0,0,0,0,0,0,0,0,
201,10.58,-26.82,18.41,36.95,20.86,26.34,-15.7,51.16,-35.92,-20.77,-57.75,-42.68,6.442,-3.523,-53.53,36.18,0,0,0,0,0,0,0,0,0,0,0,0,0,0,0,0,
202,-11.29,2.199,44.09,0.551,31.43,22.6,28.38,61.49,-2.997,23.56,-57.42,-47.76,8.677,10.13,-47.33,37.02,0,0,0,0,0,0,0,0,0,0,0,0,0,0,0,0,
203,-34.22,-6.643,-7.263,-9.536,43.14,5.841,44.84,4.629,-31.68,-23.93,-50.58,-34.7,-4.151,-2.939,-26.62,23.49,0,0,0,0,0,0,0,0,0,0,0,0,0,0,0,0,
204,-5.899,-8.126,-79.17,-2.143,-1.913,9.978,37.67,-23.21,-69.87,-22.66,-16.05,8.395,9.263,6.762,18.99,33.65,0,0,0,0,0,0,0,0,0,0,0,0,0,0,0,0,
205,25.29,24.77,-32.05,12.28,-39.22,10.31,26.33,7.784,-8.861,32.88,32.3,50.3,15.77,19.86,61.22,34.67,0,0,0,0,0,0,0,0,0,0,0,0,0,0,0,0,
206,20.15,18.2,56.56,23.79,-22.63,-26.8,-9.803,11.25,55.36,15.11,65.76,81.66,2.639,12.59,90.85,17.48,0,0,0,0,0,0,0,0,0,0,0,0,0,0,0,0,
207,24.76,-7.748,43.39,-17.27,8.613,-24.47,-46.91,1.078,29.8,-20.23,80,103.9,11.56,10.27,107.9,17.74,0,0,0,0,0,0,0,0,0,0,0,0,0,0,0,0,
208,40.61,6.373,-36.67,-63.8,21.29,36.41,-21.43,14.32,34.89,-12.44,76.1,103,28.77,8.743,96.11,20.93,0,0,0,0,0,0,0,0,0,0,0,0,0,0,0,0,
209,40.73,36.14,-51.05,-13.79,13.91,36.44,26.2,-3.296,83.1,-1.773,69.47,95.16,35.69,1.604,69.63,11.47,0,0,0,0,0,0,0,0,0,0,0,0,0,0,0,0,
210,42.16,62.43,34.61,51.44,24.99,-11.17,31.91,-23.63,44.88,1.746,65.24,91.67,43.71,7.224,46.2,4.791,0,0,0,0,0,0,0,0,0,0,0,0,0,0,0,0,
211,46.67,72.62,67.83,15.86,47.91,15.25,40.35,21.79,-8.98,1.525,38.13,74.48,34.38,9.126,14.91,-6.468,0,0,0,0,0,0,0,0,0,0,0,0,0,0,0,0,
212,47.52,49.4,-18.04,-32.11,29.1,58.41,60.48,59.57,37.3,3.822,10.07,59.3,19.92,1.935,-6.672,-13.45,0,0,0,0,0,0,0,0,0,0,0,0,0,0,0,0,
213,51.12,39.64,-34.74,0.6527,18.84,38.37,43.62,46.13,94.14,27,12.02,64.04,41.07,20.18,-0.0541,11.03,0,0,0,0,0,0,0,0,0,0,0,0,0,0,0,0,
214,39.35,62.29,61.28,51.48,50.96,20.06,18.19,46.23,63.23,46.87,-2.097,50.44,54.23,29.17,-6.678,36.02,0,0,0,0,0,0,0,0,0,0,0,0,0,0,0,0,
215,3.944,43.45,68.92,27.44,28.66,0.9702,1.482,29.35,-1.81,17.87,-46.88,-0.065,17.37,-11.3,-43.41,29.2,0,0,0,0,0,0,0,0,0,0,0,0,0,0,0,0,
216,-29.68,-16.64,-22.24,-44.63,-23.42,-29.59,-21.31,-20.56,-13,-21.28,-62.83,-37.22,-3.763,-24,-60.84,25.99,0,0,0,0,0,0,0,0,0,0,0,0,0,0,0,0,
217,-39.71,-26.03,-52.12,-25.93,4.485,2.287,-17.62,3.417,-19.37,-15.33,-55.79,-43.22,7.622,-3.629,-57.55,25.83,0,0,0,0,0,0,0,0,0,0,0,0,0,0,0,0,
218,-30,-7.572,-19.48,50.54,33.2,29.14,-0.8014,51.86,-79.88,-56.22,-75.99,-60.09,-21.55,-48.99,-69.42,-14.92,0,0,0,0,0,0,0,0,0,0,0,0,0,0,0,0,
219,-27.31,-38.19,1.761,14.61,-1.178,-7.862,2.55,1.28,-64.71,-138.7,-78.51,-68,-63.04,-91.05,-55.72,-46.33,0,0,0,0,0,0,0,0,0,0,0,0,0,0,0,0,
220,-29.13,-64.69,6.382,-43.51,0.445,0.7614,11.76,-43.52,31.05,-64.34,-16.27,-22.45,-53.73,-39.4,7.219,-23.79,0,0,0,0,0,0,0,0,0,0,0,0,0,0,0,0,
221,-7.61,-55.36,4.367,-3.548,31,20.49,-12.81,-6.767,21.77,55.61,36.2,19.68,-51.94,-13.59,44.98,-25.3,0,0,0,0,0,0,0,0,0,0,0,0,0,0,0,0,
222,3.133,-74.54,16.94,22.68,16.02,-35.13,-69.99,14.94,-6.866,-7.377,37.43,15.77,-78.49,-55.05,38.97,-63.5,0,0,0,0,0,0,0,0,0,0,0,0,0,0,0,0,
223,-32.9,-91.02,25.43,32.13,5.17,-57.06,-76.02,20.86,49.86,-52.18,39.41,14.78,-70.77,-58.41,38.26,-67.27,0,0,0,0,0,0,0,0,0,0,0,0,0,0,0,0,
224,-56.42,-54.25,-25.05,40.54,15.18,-16.48,-47.02,16.86,0.6096,17.36,36.49,21.35,-51.06,-41.76,28.59,-61.43,0,0,0,0,0,0,0,0,0,0,0,0,0,0,0,0,
225,-30.55,-26.72,-67.77,-50.73,-15.89,-2.185,-20.64,-54.18,-95.31,-8.188,15.91,11.52,-51.56,-41.19,3.025,-69.22,0,0,0,0,0,0,0,0,0,0,0,0,0,0,0,0,
226,-12.88,-25.35,-13.52,-94.57,-53.78,0.4814,11.02,-77.01,-9.128,-42.36,17.18,10.41,-32.43,-10.23,1.269,-46.75,0,0,0,0,0,0,0,0,0,0,0,0,0,0,0,0,
227,-22.7,-10.86,69.74,25.89,-29.13,3.025,-0.4696,27.41,70.06,3.207,16.03,15.9,-7.175,8.78,0.9148,-19.15,0,0,0,0,0,0,0,0,0,0,0,0,0,0,0,0,
228,-20.31,-10.32,78.38,70.48,3.575,-20.14,-36.59,82.12,-19.32,-40.17,-15.01,6.095,-10.66,-20.75,-29.87,-20.69,0,0,0,0,0,0,0,0,0,0,0,0,0,0,0,0,
229,-12.28,-29.79,-2.783,-14.28,-21.13,-31.54,-16.21,18.92,-54.93,-82.53,-32.96,-2.206,-8.266,-14.26,-52.41,-11.67,0,0,0,0,0,0,0,0,0,0,0,0,0,0,0,0,
230,-15.36,-20.07,-72.01,-19.65,-31.36,-0.3189,19.35,-26.04,-5.155,8.469,-34.5,-3.639,19.44,45.81,-45.42,22.58,0,0,0,0,0,0,0,0,0,0,0,0,0,0,0,0,
231,-5.262,15.97,-9.419,31.59,8.079,42.32,26.08,-15.6,-28.98,71.35,-42.2,-9.22,44.57,80.58,-35.12,53.98,0,0,0,0,0,0,0,0,0,0,0,0,0,0,0,0,
232,2.718,33.48,75.37,17.63,-6.622,30.71,29.85,5.505,-33.96,44.06,-46.01,-16.52,43.84,63.67,-36.68,62.71,0,0,0,0,0,0,0,0,0,0,0,0,0,0,0,0,
233,-29.95,12.45,11.87,-21.16,-69.99,-40.86,4.952,20.56,9.229,0.1195,-50.32,-23.96,17.48,29.04,-41.79,47.87,0,0,0,0,0,0,0,0,0,0,0,0,0,0,0,0,
234,-58.32,-22.19,-68.87,-27.2,-69.99,-70.35,-34.15,8.686,-26.66,-22.83,-47.66,-19.66,3.742,21.98,-28.86,38.34,0,0,0,0,0,0,0,0,0,0,0,0,0,0,0,0,
235,-34.94,-25.37,-19.8,-3.963,-34.19,-34.18,-20.6,-10.7,-28.59,1.04,-17.9,-1.835,14.2,33.91,-0.7916,41.59,0,0,0,0,0,0,0,0,0,0,0,0,0,0,0,0,
236,-16.07,-14.16,-1.115,-3.898,-30.55,-34.87,-2.101,-10.95,24.6,-25.63,1.355,-1.725,-2.539,3.395,9.009,21.01,0,0,0,0,0,0,0,0,0,0,0,0,0,0,0,0,
237,-35.19,-36.31,-98.97,-67.36,-32.16,-72.51,-22.58,-15.7,-56.37,-110.3,-10.22,-16.15,-39.78,-41.04,8.918,-15.84,0,0,0,0,0,0,0,0,0,0,0,0,0,0,0,0,
238,-37.43,-61.35,-111.6,-88.9,-19.3,-53.6,-21.33,-11.56,-110,-55.85,-3.167,-11.6,-46.23,-31.43,27.41,-33.09,0,0,0,0,0,0,0,0,0,0,0,0,0,0,0,0,
239,-18.94,-60.15,13.33,-3.209,-6.19,3.885,-18.65,10.26,15.05,63.84,19.57,-4.109,-51.73,-24.43,35.33,-52.41,0,0,0,0,0,0,0,0,0,0,0,0,0,0,0,0,
240,-24.38,-67.58,66.3,22.05,-7.477,10.41,-58.14,-10.71,70.34,23.91,14.73,-15.94,-78.84,-60.52,11.86,-85.26,0,0,0,0,0,0,0,0,0,0,0,0,0,0,0,0,
241,-40.19,-74.62,0.1019,-57.4,-15.63,-26.16,-55.07,-50.42,9.748,-54.1,9.276,-20.65,-78.83,-63.1,-4.228,-89.22,0,0,0,0,0,0,0,0,0,0,0,0,0,0,0,0,
242,-38.27,-55.81,-35.58,-45.54,3.57,-31.67,1.012,-7.376,-11.66,-10.04,24.64,-5.827,-52.03,-24.27,-1.873,-65.52,0,0,0,0,0,0,0,0,0,0,0,0,0,0,0,0,
243,-21.76,-45.61,-2.56,45.86,31.4,-15.16,4.351,66.79,-10.42,28.92,26.02,-2.569,-42.42,-16.76,-17.71,-56.66,0,0,0,0,0,0,0,0,0,0,0,0,0,0,0,0,
244,-13.49,-54.75,28.58,51.23,15.29,-38.07,-29.77,34.56,6.581,-27.23,3.383,-28.65,-45.28,-31.55,-56.64,-58.58,0,0,0,0,0,0,0,0,0,0,0,0,0,0,0,0,
245,-40.23,-51.11,14.23,11.51,-35.64,-77.93,-33.78,-40.41,10.75,-59.09,-28.06,-58.82,-34.05,-15.07,-83.73,-44.26,0,0,0,0,0,0,0,0,0,0,0,0,0,0,0,0,
246,-71.71,-31.24,-30.66,-10.55,-64.75,-75.86,-34.45,-14.3,-39.87,-13.77,-50.22,-68.59,-13.34,13.45,-86.15,-20.93,0,0,0,0,0,0,0,0,0,0,0,0,0,0,0,0,
247,-71.68,-16.84,-46.12,-46.47,-43.02,-46.85,-36.82,17.72,-59.95,6.736,-53.39,-71.39,-6.314,10.26,-83.81,-7.264,0,0,0,0,0,0,0,0,0,0,0,0,0,0,0,0,
248,-74.7,-17,-24.25,-59.39,-36.68,-39.85,-13.65,-56.53,-74.12,-5.653,-57.07,-72.01,-6.108,2.15,-77.67,4.92,0,0,0,0,0,0,0,0,0,0,0,0,0,0,0,0,
249,-73.66,-13.31,-13.43,-35.38,-84.14,-54.87,1.8,-90.16,-101.7,16.77,-48.45,-41.34,14.83,26.01,-44.82,30.24,0,0,0,0,0,0,0,0,0,0,0,0,0,0,0,0,
250,-21.76,6.329,-14.98,-11.24,-70.3,-45.45,-4.436,-17.71,-19.99,31.18,-2.515,17.34,43.79,50.94,7.367,56.57,0,0,0,0,0,0,0,0,0,0,0,0,0,0,0,0,
251,33.2,18.71,-8.117,13.06,8.865,-7.004,2.179,12.99,58.2,11.17,33.67,58.21,49.62,46.9,42.33,64.31,0,0,0,0,0,0,0,0,0,0,0,0,0,0,0,0,
252,40.17,10.45,2.271,12.63,10.43,6.401,7.547,-2.876,1.362,-3.786,33.24,64.12,30.02,18.25,50.35,47.2,0,0,0,0,0,0,0,0,0,0,0,0,0,0,0,0,
253,36.75,-6.342,-4.313,-4.864,-18.97,-2.753,-10.14,12.33,-23.14,-19.22,33.29,52.22,-5.808,-27.57,51.22,9.985,0,0,0,0,0,0,0,0,0,0,0,0,0,0,0,0,
254,37.06,-24.22,-48.52,5.012,-9.732,0.5796,-12.97,-3.457,0.683,-23.27,32.34,28.61,-42.17,-56.23,48.41,-28.67,0,0,0,0,0,0,0,0,0,0,0,0,0,0,0,0,
255,14.88,-36.16,-82.81,3.181,-43.47,-13.45,3.824,-40.07,-31.51,5.112,14.28,-2.607,-59.44,-50.2,30.72,-55.8,0,0,0,0,0,0,0,0,0,0,0,0,0,0,0,0,
256,-7.549,-33.57,-37.16,-17.63,-58.35,-29.12,-1.55,6.769,-3.64,26.75,-0.9411,-21.79,-53.53,-49.71,7.005,-70.88,0,0,0,0,0,0,0,0,0,0,0,0,0,0,0,0,
257,2.895,-13.64,34.53,-15.35,9.454,17.72,-0.2853,56.93,50.12,-1.147,-17.19,-26.44,-30.36,-59.12,-10.91,-67.5,0,0,0,0,0,0,0,0,0,0,0,0,0,0,0,0,
258,22.66,19.71,48.9,-13.26,21.1,67,58.54,9.825,-21.33,-47.52,-47.75,-27.21,1.783,-36.22,-23.21,-46.31,0,0,0,0,0,0,0,0,0,0,0,0,0,0,0,0,
259,26.75,50.69,41.4,8.489,-25.5,41.85,114.4,0.7171,-56.82,-4.438,-58.85,-15.46,34.12,13.3,-21.06,-17.38,0,0,0,0,0,0,0,0,0,0,0,0,0,0,0,0,
260,23.41,60.65,35.17,70.09,-20.23,-0.8336,78.2,74.67,4.546,98.65,-42.46,-3.904,50.63,41.51,-11.51,9.667,0,0,0,0,0,0,0,0,0,0,0,0,0,0,0,0,
261,4.079,44.11,-9.977,83.76,-12.55,-13.37,-0.36,57.23,-28.91,83.7,-41.99,-21.54,38.07,33.69,-17.77,24.89,0,0,0,0,0,0,0,0,0,0,0,0,0,0,0,0,
262,-25.67,22.94,-41.53,25.84,-34.05,-12.22,-6.018,-25.85,-74.6,-1.939,-41.95,-42.18,19.04,26.12,-29.49,35.04,0,0,0,0,0,0,0,0,0,0,0,0,0,0,0,0,
263,-25.39,15.86,-13.2,-35.02,-28.36,0.8566,30.81,-19.44,-2.778,-1.768,-9.013,-41.38,9.616,40.87,-37.57,44.72,0,0,0,0,0,0,0,0,0,0,0,0,0,0,0,0,
264,-14.17,-6.695,2.636,-41.73,-4.101,6.062,0.3581,15.44,49.06,21.4,12.02,-44.77,-8.689,50.47,-56.61,43.14,0,0,0,0,0,0,0,0,0,0,0,0,0,0,0,0,
265,-33.11,-48.81,24.76,18.98,2.496,-8.418,-51.49,12.02,26.51,20.37,3.42,-47.96,-21.03,33.6,-75.06,37.46,0,0,0,0,0,0,0,0,0,0,0,0,0,0,0,0,
266,-44.48,-52.22,78.51,46.1,-20.64,-14.28,-23.73,23.89,-22.76,25.52,-1.439,-36.19,-8.14,2.165,-78.68,31.5,0,0,0,0,0,0,0,0,0,0,0,0,0,0,0,0,
267,-23.12,-16.89,17.74,-9.307,-49.45,-21.19,31.04,43.76,-62.4,-23.05,1.645,-24.4,1.085,-16.56,-63.23,23.1,0,0,0,0,0,0,0,0,0,0,0,0,0,0,0,0,
268,-2.782,4.618,-98.27,-28.94,-36.15,-29.48,41.91,38.23,-20.53,-67.93,26.94,2.868,1.095,-2.25,-14.57,29.92,0,0,0,0,0,0,0,0,0,0,0,0,0,0,0,0,
269,11.9,7.039,-37.5,3.706,-8.861,-6.596,29.81,10.81,37.66,6.941,63.53,39.05,3.824,19.44,33.84,35.5,0,0,0,0,0,0,0,0,0,0,0,0,0,0,0,0,
270,20.09,-3.635,66.05,12.2,-20.61,6.014,5.163,-3.096,25.86,67.14,56.39,31.21,-7.733,8.462,41.07,10.26,0,0,0,0,0,0,0,0,0,0,0,0,0,0,0,0,
271,3.024,-20.61,8.433,3.912,-37.28,-17.59,-16.49,28.11,5.841,-3.468,27.36,2.41,-29.7,-25.35,40.29,-21.57,0,0,0,0,0,0,0,0,0,0,0,0,0,0,0,0,
272,-21.68,-27.1,-72.92,-30.6,-34.22,-24.75,-21.32,40.86,-15.95,-51.51,15.81,-4.373,-48.18,-48.53,44.15,-40.71,0,0,0,0,0,0,0,0,0,0,0,0,0,0,0,0,
273,-35.65,-40.33,-74.21,-72.07,-36.77,-12.23,-35.45,11.57,-37.08,-7.755,0.0886,-13.38,-53.3,-38.98,31.98,-43.32,0,0,0,0,0,0,0,0,0,0,0,0,0,0,0,0,
274,-28.32,-36.73,-32.92,-51,-14.33,13.61,-5.68,17.52,-4.918,0.9588,-6.311,-11.91,-17,-4.173,32.06,-15.81,0,0,0,0,0,0,0,0,0,0,0,0,0,0,0,0,
275,10.28,22.46,35.88,-10.43,46.12,51.38,77.79,37.03,15.56,-24.03,3.995,10.52,26.3,4.674,37.45,7.332,0,0,0,0,0,0,0,0,0,0,0,0,0,0,0,0,
276,28.44,48.29,58.32,13.89,64.69,45.06,60.8,35.75,-12.99,3.212,-8.453,7.602,26.67,-18.73,14.88,4.232,0,0,0,0,0,0,0,0,0,0,0,0,0,0,0,0,
277,14.38,4.762,46.78,62.2,36.51,30.73,-26.07,68.55,-10.58,38.16,-16.42,10.65,41.62,-5.337,9.122,25.35,0,0,0,0,0,0,0,0,0,0,0,0,0,0,0,0,
278,35.56,6.835,93.47,86.59,28.33,66.41,-11.89,99.09,33.05,40.75,9.652,44.96,81.41,38.12,24.07,63.22,0,0,0,0,0,0,0,0,0,0,0,0,0,0,0,0,
279,51.36,40.1,106.1,44.73,17.4,63.55,14.95,76.67,50.01,31.17,16.65,36.93,67.28,35.45,1.533,65.38,0,0,0,0,0,0,0,0,0,0,0,0,0,0,0,0,
280,15.85,14.52,26.8,6.129,1.662,15.87,-24.63,65.53,33.45,-4.876,2.541,6.719,36.87,11.48,-25.61,65.9,0,0,0,0,0,0,0,0,0,0,0,0,0,0,0,0,
281,13.21,-10.44,-25.09,6.035,24.72,16.35,-17.11,72.46,26.9,-42.94,4.136,10.47,42.31,18.84,-29.54,82.28,0,0,0,0,0,0,0,0,0,0,0,0,0,0,0,0,
282,32.35,-4.145,-40.15,5.332,28.38,23.5,5.251,39.43,-17.04,-39.05,-14.31,-8.92,20.66,17.15,-63.12,57.41,0,0,0,0,0,0,0,0,0,0,0,0,0,0,0,0,
283,3.949,-23.27,-62.87,-19.87,-9.487,4.965,-24.73,-3.85,-96.05,-18.76,-45.66,-43.69,-25.22,-10.18,-103.6,9.75,0,0,0,0,0,0,0,0,0,0,0,0,0,0,0,0,
284,-18.51,-46.77,-24.27,-52.74,-17.93,7.04,-38.71,-6.264,-44.07,-11.36,-26.79,-31.14,-40.36,-26.81,-88.36,-3.19,0,0,0,0,0,0,0,0,0,0,0,0,0,0,0,0,
285,-15.53,-43.16,73.33,-52.37,-8.646,0.169,-39.24,8.776,66.72,-10.14,17.73,-6.485,-42.58,-26.14,-34.56,0.7465,0,0,0,0,0,0,0,0,0,0,0,0,0,0,0,0,
286,-15.04,-27.16,96.32,-16.88,-10.41,-23.8,-43.06,12.38,29.49,4.815,53.72,8.742,-36.57,-9.07,27.04,5.966,0,0,0,0,0,0,0,0,0,0,0,0,0,0,0,0,
287,-0.4211,-10.86,6.548,-6.19,-4.858,-10.57,-26.1,19.43,1.685,15.64,88.41,21.35,-26.17,0.948,71.17,10.09,0,0,0,0,0,0,0,0,0,0,0,0,0,0,0,0,
288,-4.329,-23.52,-76.29,-31.5,-12,10.9,-29.27,22.37,61.51,-15.73,86.61,5.437,-45.2,-23.4,68.7,-14.34,0,0,0,0,0,0,0,0,0,0,0,0,0,0,0,0,
289,-36.62,-53.63,-100.6,-59.53,-31.31,-15.45,-36.59,-14.45,-0.3231,-35.85,51.88,-10.92,-57.53,-38.49,44.38,-45.5,0,0,0,0,0,0,0,0,0,0,0,0,0,0,0,0,
290,-36.07,-42.4,-119.1,-93.78,-24.99,-46.12,-6.539,-42.2,-63.15,-9.241,38.62,6.138,-25.65,-23.53,31.89,-43.69,0,0,0,0,0,0,0,0,0,0,0,0,0,0,0,0,
291,-10.92,-2.8,-76.61,-81.55,6.901,-8.042,12.9,17.42,36.56,9.772,40.99,33.93,15.58,-9.936,29.74,-21.46,0,0,0,0,0,0,0,0,0,0,0,0,0,0,0,0,
292,14.78,26.33,52.9,-3.139,43.9,64.58,32.4,90.55,74.09,37.56,46.49,70.6,58.13,15.44,47.09,16.83,0,0,0,0,0,0,0,0,0,0,0,0,0,0,0,0,
293,64.31,64.94,108.3,23.82,73.86,87.32,88.29,93.15,43.69,73.33,73.58,117.5,115.8,62.26,90.91,82.13,0,0,0,0,0,0,0,0,0,0,0,0,0,0,0,0,
294,122.7,116.8,75.88,40.33,110.6,89.79,127.3,102.5,133.5,65.2,113,151.9,164.7,104.6,134.6,151.5,0,0,0,0,0,0,0,0,0,0,0,0,0,0,0,0,
295,159.6,143.2,92.3,130.4,153.1,133.6,134.4,123.6,169.8,66.72,127.3,156,175.4,119.7,138.5,184.3,0,0,0,0,0,0,0,0,0,0,0,0,0,0,0,0,
296,165.5,132.9,92.51,129.6,141.3,164.6,138.1,72.92,63.21,79.29,88.79,114.9,143.6,95.83,90.55,164.3,0,0,0,0,0,0,0,0,0,0,0,0,0,0,0,0,
297,138.4,113.3,27.66,47.22,72.83,131.1,123,35.77,28.78,51.88,27.72,52.47,100.5,69.75,27.31,121,0,0,0,0,0,0,0,0,0,0,0,0,0,0,0,0,
298,100.7,98.19,29.01,62.72,30.23,83.02,93.07,82.02,45.97,41.41,-8.788,17.74,74.11,61.31,-17.77,86.92,0,0,0,0,0,0,0,0,0,0,0,0,0,0,0,0,
299,74.88,79.18,58.24,73.8,36.69,67.14,81.07,104.1,12.16,29.63,-24.96,11.16,55.93,33.76,-48.2,64.16,0,0,0,0,0,0,0,0,0,0,0,0,0,0,0,0,
300,64.69,63.54,7.948,20.3,49.22,63.19,80.4,62.95,1.984,-2.04,-32.33,8.349,42.77,13.83,-63.69,53.6,0,0,0,0,0,0,0,0,0,0,0,0,0,0,0,0,
301,62.66,60.82,1.442,17,45.63,52.86,72.02,18.97,-18.86,36.68,-32.25,7.054,35.15,28.53,-51.49,48.02,0,0,0,0,0,0,0,0,0,0,0,0,0,0,0,0,
302,56.09,55.66,82.89,28.65,43.61,62.42,66.85,10.67,-55.05,64.42,-18.73,24.49,17.37,18.72,-8.453,32.62,0,0,0,0,0,0,0,0,0,0,0,0,0,0,0,0,
303,52.75,35.06,84.62,31.53,49.05,73.97,49.57,36.66,-1.37,0.9162,16.91,55.8,-6.16,-18.84,42.64,18.91,0,0,0,0,0,0,0,0,0,0,0,0,0,0,0,0,
304,46.96,2.988,29.65,51.15,30.73,32.54,-6.449,25.68,44.42,-30.22,37.32,59.66,-16.95,-29.03,70.77,18.27,0,0,0,0,0,0,0,0,0,0,0,0,0,0,0,0,
305,14.31,-17.83,51.57,35.3,6.57,-7.814,-38.21,-25.42,20.15,-17.14,33.57,40.74,-8.275,-9.74,84.12,20.94,0,0,0,0,0,0,0,0,0,0,0,0,0,0,0,0,
306,-17.81,-6.488,32.18,8.479,10.78,11.84,-9.703,-22.26,23,-12.99,37.66,30.48,5.321,13.33,84,10.77,0,0,0,0,0,0,0,0,0,0,0,0,0,0,0,0,
307,-33.08,-1.642,-88.4,-4.559,-10.65,7.747,-16.15,-3.313,-16.38,2.957,15.65,3.067,-6.516,13.86,42.98,-22.29,0,0,0,0,0,0,0,0,0,0,0,0,0,0,0,0,
308,-64.43,-35.89,-115.4,-21.21,-56.94,-44.57,-68.93,-31.2,-96.94,-11.62,-26.03,-35.7,-31.49,-13.24,-4.089,-54.6,0,0,0,0,0,0,0,0,0,0,0,0,0,0,0,0,
309,-82.05,-52.29,-48.5,-2.777,-40.91,-52.58,-68.32,-39.98,-47.06,-26.81,-19.98,-40.65,-33.23,-30.99,-14.6,-54.66,0,0,0,0,0,0,0,0,0,0,0,0,0,0,0,0,
310,-55.13,-29.9,-29.43,-1.646,-0.8398,-33.82,-32.06,-34.02,46.08,17.77,-1.996,-37.22,-25.22,-21.52,-21.74,-32.75,0,0,0,0,0,0,0,0,0,0,0,0,0,0,0,0,
311,-45.02,-23.26,-3.161,-50.59,-16.19,-55.21,-29.18,-41.9,22.03,12.57,-21.01,-51.81,-25.66,-10.25,-40.54,-16.44,0,0,0,0,0,0,0,0,0,0,0,0,0,0,0,0,
312,-65.53,-26.86,32.8,-48.46,-33.62,-66.47,-36.97,-19.56,-36.4,-63.04,-47.72,-65.71,-30.97,-16.92,-57.39,-17.86,0,0,0,0,0,0,0,0,0,0,0,0,0,0,0,0,
313,-60.59,-16.75,-0.9387,-20.06,-13.86,-29.32,-26.68,-25.77,-53.51,-81.91,-65.5,-79.27,-46.16,-27.88,-80.43,-26.87,0,0,0,0,0,0,0,0,0,0,0,0,0,0,0,0,
314,-38.35,-15.86,-46.15,-23.73,-2.67,-1.824,-3.627,-87.63,-37.93,-39.17,-67.33,-87.65,-59.14,-25.47,-98.01,-30.2,0,0,0,0,0,0,0,0,0,0,0,0,0,0,0,0,
315,-35.02,-23.01,-93.74,-8.216,-8.487,-5.795,12.74,-83.23,-7.084,4.876,-55.68,-84.17,-62.76,-20.46,-101.1,-37.5,0,0,0,0,0,0,0,0,0,0,0,0,0,0,0,0,
316,-38.82,-32.33,-122.5,4.76,-9.9,0.794,-5.572,-16.29,-9.95,20.74,-51.59,-78.93,-67.02,-16.83,-95.1,-41.7,0,0,0,0,0,0,0,0,0,0,0,0,0,0,0,0,
317,-32.2,-40.43,-11.33,10.36,-7.307,9.694,-35.41,22.76,-8.089,-23.07,-45.09,-62.47,-59.67,-10.57,-66.74,-22.17,0,0,0,0,0,0,0,0,0,0,0,0,0,0,0,0,
318,-24.91,-31.27,95,30.55,-6.548,-22.11,-38.93,25.84,24.92,-86.59,-38.4,-43.29,-50.6,-16.98,-32.27,-2.379,0,0,0,0,0,0,0,0,0,0,0,0,0,0,0,0,
319,-30.26,-37.87,12,-24.21,-21.96,-61.62,-32.63,-25.01,-10.03,-84.77,-48.27,-38.57,-50.54,-10.29,-6.286,8.135,0,0,0,0,0,0,0,0,0,0,0,0,0,0,0,0,
320,-35.04,-56.41,-73.14,-96.66,-48.47,-53.2,-27.84,-70.78,-58.56,-19.42,-44.13,-20.72,-21.21,38.56,38.01,36.86,0,0,0,0,0,0,0,0,0,0,0,0,0,0,0,0,
321,-27.12,-32.53,-55.79,-46.15,-54.28,-26.23,-34.95,-23.44,-20.71,19.49,-17.56,7.018,15.04,62.39,76.99,58.97,0,0,0,0,0,0,0,0,0,0,0,0,0,0,0,0,
322,-35.55,-22.71,-77.68,4.609,-51.91,-31.51,-73.53,-1.92,-30.39,-14.53,-7.047,6.277,3.912,22.83,75.03,42.07,0,0,0,0,0,0,0,0,0,0,0,0,0,0,0,0,
323,-72.61,-61.62,-110.6,-37.71,-58.71,-55.61,-87.22,-65.78,-96.61,-47.73,-8.135,-9.929,-11.89,-11.69,65.75,18.12,0,0,0,0,0,0,0,0,0,0,0,0,0,0,0,0,
324,-91.22,-63.05,-89.12,-54.19,-36.43,-55.87,-45.42,-67.42,-57.28,-30.71,7.071,-17.19,-6.602,-18.34,59.56,1.75,0,0,0,0,0,0,0,0,0,0,0,0,0,0,0,0,
325,-68.07,-40.81,-72.99,-27.44,8.073,-30.99,-35.24,-13.86,11.88,-20.6,24.1,-21.49,-23.51,-32.29,32.14,-29.23,0,0,0,0,0,0,0,0,0,0,0,0,0,0,0,0,
326,-53.67,-56.37,-30.99,-11.06,13.39,-30.8,-72.56,-12.56,3.718,-37.41,12.56,-36,-51.34,-47.01,-4.244,-63.47,0,0,0,0,0,0,0,0,0,0,0,0,0,0,0,0,
327,-78.86,-64.61,33.98,1.752,-27.42,-69.29,-78.53,-13.25,-18.9,-59.97,-26.36,-68.37,-60.55,-50.19,-32.57,-73.4,0,0,0,0,0,0,0,0,0,0,0,0,0,0,0,0,
328,-91.14,-54.3,19.3,0.0247,-76.21,-81.66,-52.74,23.15,-48.86,-70.89,-49.73,-90.06,-60.61,-43.84,-42.39,-54.18,0,0,0,0,0,0,0,0,0,0,0,0,0,0,0,0,
329,-60.26,-56.83,-17.19,-8.924,-83.34,-37.12,-33.99,43.4,-54.54,-21.23,-30.8,-74.15,-48.62,-22.51,-26.28,-20.31,0,0,0,0,0,0,0,0,0,0,0,0,0,0,0,0,
330,-37.5,-46.04,9.223,-10.16,-28.39,3.453,-25.34,38.47,12.86,31.28,-6.64,-51.44,-30.11,-7.585,-10.94,-1.009,0,0,0,0,0,0,0,0,0,0,0,0,0,0,0,0,
331,-36.14,-22.43,34.17,-10.71,22.05,6.946,-23.37,26.28,27.78,-22.88,-1.534,-43,-31.9,-24.75,-20.49,-14.3,0,0,0,0,0,0,0,0,0,0,0,0,0,0,0,0,
332,-14.35,-22.5,14.7,0.3492,17.67,14.6,-6.617,-2.944,-31.15,-83.66,5.651,-31.61,-43.35,-49.24,-40.19,-39.35,0,0,0,0,0,0,0,0,0,0,0,0,0,0,0,0,
333,15.42,-23.94,-35.47,-0.2026,-2.558,28.41,27.18,-40.31,-4.038,-42.56,12.1,-10.39,-27.68,-36.37,-44.93,-35.64,0,0,0,0,0,0,0,0,0,0,0,0,0,0,0,0,
334,31.11,8.877,-34.06,-4.219,-10.12,21.95,32.62,-28.18,65.35,11.7,11.3,16,11.8,11.35,-33.57,2.061,0,0,0,0,0,0,0,0,0,0,0,0,0,0,0,0,
335,57.17,42.92,84.8,42.07,-3.889,34.39,13.83,28.15,46.28,26.6,14.27,32.28,36.84,42.27,-27.32,35.3,0,0,0,0,0,0,0,0,0,0,0,0,0,0,0,0,
336,76.59,42.45,136.5,77.1,8.836,60.82,23.85,18.06,19.54,32.44,16.08,37.58,49.11,52.18,-14.5,57.55,0,0,0,0,0,0,0,0,0,0,0,0,0,0,0,0,
337,60.45,42.86,39.7,47.5,-4.981,33.72,49.92,-45.56,32.37,32.35,28.33,60.45,81.2,89.02,34.61,93.29,0,0,0,0,0,0,0,0,0,0,0,0,0,0,0,0,
338,53.46,65.02,30.61,17.81,-24.05,12.06,45.93,-33.07,0.2938,25.13,60.36,88.68,111.3,119.2,89.65,116.7,0,0,0,0,0,0,0,0,0,0,0,0,0,0,0,0,
339,68.71,69.57,77.87,11.15,3.728,66.06,33.03,13.52,-13.7,10.1,84.78,89.79,107.4,92.15,115.9,101.9,0,0,0,0,0,0,0,0,0,0,0,0,0,0,0,0,
340,58.21,55.46,0.0808,9.307,25.99,95.49,35.7,2.833,63.53,21.66,91.11,75.78,92.48,58.07,120.8,71.4,0,0,0,0,0,0,0,0,0,0,0,0,0,0,0,0,
341,29.85,48.85,-29.7,-12.1,-14.66,43.41,17.78,-17.92,92.49,37.8,75.98,46.63,67.63,26.1,94.08,26.32,0,0,0,0,0,0,0,0,0,0,0,0,0,0,0,0,
342,6.995,31.88,37.42,-53.85,-51,-5.458,-9.273,-30.25,40.98,-20.4,48.39,7.529,26.23,-21.6,54.93,-14.86,0,0,0,0,0,0,0,0,0,0,0,0,0,0,0,0,
343,-5.23,14.96,10.85,-25.31,-29.37,-4.489,13.83,-23.02,43.12,-18.92,53.84,11.83,24.07,-2.388,59.83,4.419,0,0,0,0,0,0,0,0,0,0,0,0,0,0,0,0,
344,20.28,36.54,-8.504,48.53,7.735,24.55,43.34,44.12,51.4,96.12,68.51,40.27,53,54.04,75.28,46.3,0,0,0,0,0,0,0,0,0,0,0,0,0,0,0,0,
345,38.34,49.46,46.03,28.75,19.47,35.21,11.57,80.98,-4.075,54.3,39.55,20.1,28.2,20.74,48.01,39.92,0,0,0,0,0,0,0,0,0,0,0,0,0,0,0,0,
346,0.3228,9.401,-3.023,-24.81,4.81,3.364,-23.13,30.16,-5.191,-89.69,21.1,-8.377,-17.59,-21.19,24.97,26.98,0,0,0,0,0,0,0,0,0,0,0,0,0,0,0,0,
347,-10.71,-14.51,-41.17,-11.91,2.787,-12.49,-12.49,-10.83,63.37,-38.25,42.96,12.7,-13.82,9.898,25.35,35.81,0,0,0,0,0,0,0,0,0,0,0,0,0,0,0,0,
348,22.9,7.426,62.1,-2.56,38,8.236,0.9509,1.003,76.97,55.75,41.85,31.56,-9.652,11.28,1.337,17.05,0,0,0,0,0,0,0,0,0,0,0,0,0,0,0,0,
349,26.47,17.23,36.94,-26.44,38.33,7.051,15,37.08,30.33,-0.6707,22.25,24.78,-25.95,-16.52,-33.09,-14.79,0,0,0,0,0,0,0,0,0,0,0,0,0,0,0,0,
350,29.64,18.36,-122.5,-40.8,-19.81,7.214,40.23,47.69,0.1239,-64.64,26.51,29.43,-19.6,-12.63,-47.16,-14.98,0,0,0,0,0,0,0,0,0,0,0,0,0,0,0,0,
351,46,35.38,-76.23,-29.5,-29.06,43.06,37.95,9.708,13.24,-45.92,24.17,32.2,-6.902,-13.1,-57.61,0.2842,0,0,0,0,0,0,0,0,0,0,0,0,0,0,0,0,
352,30.68,43.06,82.37,26.89,23.14,41.54,17.22,31.39,58.53,31.31,5.013,27.62,7.683,6.359,-52.76,24.78,0,0,0,0,0,0,0,0,0,0,0,0,0,0,0,0,
353,28.22,40.17,81.27,87.63,39.44,2.743,8.147,118.4,85.58,92.91,0.4833,41.52,38.88,46.61,-22.74,53.25,0,0,0,0,0,0,0,0,0,0,0,0,0,0,0,0,
354,52.23,32.01,41.8,73.89,9.835,14.8,-4.838,113.7,44.21,60.14,-12.12,47.08,45.15,24.5,-8.476,44.15,0,0,0,0,0,0,0,0,0,0,0,0,0,0,0,0,
355,40.36,17.24,49.03,19.16,-21.65,37.46,-2.196,49.25,-13.99,19.29,-43.05,29.72,32.02,-7.612,-16.39,10.53,0,0,0,0,0,0,0,0,0,0,0,0,0,0,0,0,
356,14.62,27.46,-15.43,12.8,-34.15,2.506,37.11,44.08,-24.77,26.61,-48.55,23.64,42.48,12.56,-20.3,-7.626,0,0,0,0,0,0,0,0,0,0,0,0,0,0,0,0,
357,20.42,51.14,-64.85,45.44,-28.3,-14.86,56.72,63.37,-41.78,17.32,-38.08,24.48,42.96,5.984,-21.68,-28.61,0,0,0,0,0,0,0,0,0,0,0,0,0,0,0,0,
358,25.46,41.05,-5.075,26.45,-39.21,19.66,33.21,54.38,-81.36,12.08,-36.83,14.26,16.35,-28.33,-16.88,-52.7,0,0,0,0,0,0,0,0,0,0,0,0,0,0,0,0,
359,6.035,21.08,35.37,-43.29,-53.23,25.19,14.37,2.033,-56.69,25.85,-26.94,-1.065,1.325,-22.48,-8.213,-55.72,0,0,0,0,0,0,0,0,0,0,0,0,0,0,0,0,
360,-16.48,22.48,29.13,-34.57,-22.52,-1.61,4.098,-32.31,1.16,21.07,-27.81,-25.55,-11.88,-15.48,-20.57,-61.52,0,0,0,0,0,0,0,0,0,0,0,0,0,0,0,0,
361,-35.68,13.47,26.2,50.69,-9.434,-15.14,-20.5,27.45,-18.01,-1.661,-49.34,-44.95,-40.39,-41.69,-37.64,-72.47,0,0,0,0,0,0,0,0,0,0,0,0,0,0,0,0,
362,-46.95,-11.28,-22.12,56.8,-43.49,-17,-21.65,62.6,-65.75,-32.78,-42.15,-30.25,-45.7,-39.36,-26.76,-48.35,0,0,0,0,0,0,0,0,0,0,0,0,0,0,0,0,
363,-21.07,-8.262,-40.87,14.31,-11.03,11.99,20.29,15.64,-43.1,-6.253,-11.86,-2.538,-21.68,9.043,-13.37,-9.568,0,0,0,0,0,0,0,0,0,0,0,0,0,0,0,0,
364,10.84,12.09,23.4,32.04,48.72,34.1,29.93,14.51,-0.308,63.52,-11.87,-11.74,-29.27,19.96,-36.99,-17.29,0,0,0,0,0,0,0,0,0,0,0,0,0,0,0,0,
365,-18.55,-5.659,-6.681,14.3,-11.96,-23.87,-16.62,5.984,-6.756,27.8,-36.58,-50.75,-77.87,-25.29,-78.39,-56.15,0,0,0,0,0,0,0,0,0,0,0,0,0,0,0,0,
366,-49.66,-36.03,-91.21,-47.75,-74.91,-53.12,-26.99,-68.74,-9.981,-32.77,-32.38,-48.95,-89.3,-29.58,-83.2,-49.66,0,0,0,0,0,0,0,0,0,0,0,0,0,0,0,0,
367,-4.048,-16.63,-17.58,-18.9,-16.27,18.28,2.243,-64.94,30.75,12.51,11.8,2.536,-45.94,14.25,-49.12,3.804,0,0,0,0,0,0,0,0,0,0,0,0,0,0,0,0,
368,29.32,13.59,70.81,28.1,8.569,28.99,-13.07,-15.96,40.44,-3.707,32.16,23.83,-18.43,17.7,-27.86,32.83,0,0,0,0,0,0,0,0,0,0,0,0,0,0,0,0,
369,-8.687,5.739,18.23,9.735,-45.12,-35.25,-33.73,-41,-33.91,-75.39,8.388,11.36,-13.42,1.872,-24.26,33.87,0,0,0,0,0,0,0,0,0,0,0,0,0,0,0,0,
370,-15.21,0.8473,-9.629,20.43,-58.28,-31.89,-12.52,-57.99,-85.88,2.12,6.482,29.4,11.74,21.53,-0.5798,52.11,0,0,0,0,0,0,0,0,0,0,0,0,0,0,0,0,
371,31.08,12.06,30.5,46,-48.5,-8.866,-14.74,-36,-9.214,69.26,29.41,56.27,42,35.76,33.92,74.84,0,0,0,0,0,0,0,0,0,0,0,0,0,0,0,0,
372,32.22,12.64,6.127,20.47,-33.24,-20.27,-24.5,-28.41,63.88,-23.1,23.33,51.36,54.07,20.19,43.32,68.13,0,0,0,0,0,0,0,0,0,0,0,0,0,0,0,0,
373,1.877,21.85,-59.76,-4.43,5.142,-0.6823,18.31,-31.18,3.944,-43.5,2.627,40.11,51,-4.097,25.17,30.65,0,0,0,0,0,0,0,0,0,0,0,0,0,0,0,0,
374,18.5,42.78,-55.62,4.134,3.965,25.4,57.1,-47.24,-36.56,50.43,2.477,41.33,39.5,-17.16,8.653,-9.039,0,0,0,0,0,0,0,0,0,0,0,0,0,0,0,0,
375,50.32,49.75,27.83,43.76,-5.868,24.85,54.57,-24.6,8.369,59.51,9.697,42.87,33.4,2.293,9.078,-21.87,0,0,0,0,0,0,0,0,0,0,0,0,0,0,0,0,
376,34.45,40.96,107.3,75.88,23.75,13.14,36.23,25.35,-7.824,7.382,-4.592,19.26,12.58,12.11,-3.336,-25.94,0,0,0,0,0,0,0,0,0,0,0,0,0,0,0,0,
377,-16.46,10.55,111,37.98,16.1,-24.78,15.15,-44.52,-49.11,-14.22,-34.98,-28.57,-33.49,-21.93,-31.99,-32.36,0,0,0,0,0,0,0,0,0,0,0,0,0,0,0,0,
378,-47.38,-15,41.34,-1.442,-2.973,-35.33,24.64,-140.9,-23.63,-16.46,-37.54,-46.07,-42.25,-15.98,-30.71,-7.161,0,0,0,0,0,0,0,0,0,0,0,0,0,0,0,0,
379,-30.61,3.827,-13.17,26.18,30.9,5.661,37.26,-72.9,1.064,45.84,-8.749,-33.7,-16.85,48.43,-13.96,28.9,0,0,0,0,0,0,0,0,0,0,0,0,0,0,0,0,
380,-20,10.1,15.6,50.67,31.04,7.652,-11.52,36.62,1.002,121.2,-3.731,-50.83,-37.16,54.14,-30.66,18.89,0,0,0,0,0,0,0,0,0,0,0,0,0,0,0,0,
381,-52.07,-32.11,-1.772,41.35,-16.74,-9.945,-53.52,42.72,-30.41,23.74,-28.36,-75.26,-81.92,-16.22,-58.84,-16.28,0,0,0,0,0,0,0,0,0,0,0,0,0,0,0,0,
382,-55.27,-53.95,-126.4,9.087,-28.03,0.6145,-29.56,-29.95,-75.62,-133.5,-30.02,-64.18,-90.73,-46.27,-63.67,-23.66,0,0,0,0,0,0,0,0,0,0,0,0,0,0,0,0,
383,-16.1,-44.05,-99.8,-46.3,-18.41,-20.49,-4.366,-106.2,-25.01,-60.36,-0.7788,-37.92,-73.62,5.119,-47.3,-0.8903,0,0,0,0,0,0,0,0,0,0,0,0,0,0,0,0,
384,-4.929,-35.13,95.01,-59.56,-8.771,-33.05,1.603,-59.94,58.1,95.09,27.59,4.51,-38.24,43.12,-17.68,24.41,0,0,0,0,0,0,0,0,0,0,0,0,0,0,0,0,
385,3.497,-10.07,101.4,-13.26,18.84,12.68,13.92,41.79,58.23,61.32,51.12,67.48,13.97,21.62,14.94,44.73,0,0,0,0,0,0,0,0,0,0,0,0,0,0,0,0,
386,52.53,25.18,-34.71,29.88,39.77,38.2,31.97,13.14,72.21,21.32,74.08,120.1,66.95,21.28,55.09,76.61,0,0,0,0,0,0,0,0,0,0,0,0,0,0,0,0,
387,104.3,57.32,-1.737,51.52,63.67,54.93,68.81,-19.8,116.1,103.3,92.7,164,115.2,45.09,104.2,109.1,0,0,0,0,0,0,0,0,0,0,0,0,0,0,0,0,
388,147.5,99.39,74.26,51.34,105.4,103.2,115.2,73.16,119.5,113.3,115.3,202.4,141.3,27.34,130.7,109.9,0,0,0,0,0,0,0,0,0,0,0,0,0,0,0,0,
389,181.4,124.7,31.89,52.67,101.8,118.9,127.8,113.5,128.8,61.86,125,203.4,135.4,12.18,122.8,77.59,0,0,0,0,0,0,0,0,0,0,0,0,0,0,0,0,
390,168,109,35.95,64.15,40.1,95.37,101.8,18.85,91.93,35.45,90.57,160.1,105.7,2.052,91.18,14.89,0,0,0,0,0,0,0,0,0,0,0,0,0,0,0,0,
391,117.3,79.11,90.97,19.5,1.364,55.38,80.15,-51.74,-4.028,-29.85,40.01,95.87,53.83,-54.49,38.52,-63.1,0,0,0,0,0,0,0,0,0,0,0,0,0,0,0,0,
392,76.43,60.65,78.81,-19.89,22.82,2.361,85.17,8.686,23.64,-30.16,20.7,47.36,20.55,-60.64,2.249,-93.46,0,0,0,0,0,0,0,0,0,0,0,0,0,0,0,0,
393,57.36,60.25,52.1,39.94,47.71,-0.242,77.62,87.61,101,84.71,24.51,37.16,31.61,18.03,7.068,-67.37,0,0,0,0,0,0,0,0,0,0,0,0,0,0,0,0,
394,49.23,62.78,11.55,60.37,22.72,32.32,37.74,48.88,43.33,114.2,14.31,22.76,25.85,43.59,3.209,-54.8,0,0,0,0,0,0,0,0,0,0,0,0,0,0,0,0,
395,32.14,38.64,-39.16,-6.666,-17.92,15.01,1.554,-17.13,-12.27,59.03,-17.41,-20.01,-11.39,9.764,-27.21,-60.14,0,0,0,0,0,0,0,0,0,0,0,0,0,0,0,0,
396,-2.361,0.0446,-25.31,-26.07,-31.65,-14.63,-19.65,-36.79,-20.88,55.63,-36.9,-37.84,-19.87,19.65,-37.47,-40.82,0,0,0,0,0,0,0,0,0,0,0,0,0,0,0,0,
397,-26.07,-10.48,-29.54,-35.64,-29.62,-13.64,-29.37,-63.58,-81.55,37.49,-30.86,-28.79,-14.9,47.35,-31.74,-25.69,0,0,0,0,0,0,0,0,0,0,0,0,0,0,0,0,
398,-30.61,-3.901,-62.32,-75.34,-19.51,-38.6,-34.95,-26.38,-63.59,-27.38,-30.25,-39.69,-37.51,33.89,-35.38,-35.15,0,0,0,0,0,0,0,0,0,0,0,0,0,0,0,0,
399,-42.51,-17.77,-24.26,-58.52,-22.27,-90.76,-63.19,40.8,38.98,-19.17,-32.3,-41.02,-44.41,35.68,-16.06,-17.67,0,0,0,0,0,0,0,0,0,0,0,0,0,0,0,0,
400,-44.71,-33.17,-8.211,-26.06,-38.97,-102.4,-94.46,-20.85,46.23,57.01,-12.28,-7.452,-17.26,84.85,22.23,28.3,0,0,0,0,0,0,0,0,0,0,0,0,0,0,0,0,
401,-16.1,-29.11,-40.9,-26.65,-17.41,-73.88,-98.99,-77.75,-10.5,34.16,0.7568,14.32,-3.25,83.89,30.64,46.58,0,0,0,0,0,0,0,0,0,0,0,0,0,0,0,0,
402,3.531,-18.89,-51.69,-31.75,4.093,-53.69,-73.22,-29.75,-57.98,-89.93,-8.913,24.13,7.346,16.7,36.76,46.41,0,0,0,0,0,0,0,0,0,0,0,0,0,0,0,0,
403,9.027,6.605,-99.06,-65.86,-25.99,-32.42,-6.152,-35.79,-60.99,-78.71,9.223,65.32,48.08,5.934,80,67.64,0,0,0,0,0,0,0,0,0,0,0,0,0,0,0,0,
404,43.17,34.83,-98.77,-72.23,-29.2,5.017,31.75,-43.61,35.98,86.35,63.71,119.4,86.42,55.38,120.5,87.44,0,0,0,0,0,0,0,0,0,0,0,0,0,0,0,0,
405,87.5,35.26,15.55,2.308,7.525,8.809,-11.03,48.59,101.5,143.4,92.38,142.4,95.5,62.25,127.4,70.15,0,0,0,0,0,0,0,0,0,0,0,0,0,0,0,0,
406,98.27,38.56,39.73,22.87,20.83,-25.89,-14.65,73.26,50.2,60.42,83.45,135.6,86.94,17.94,109.6,27.02,0,0,0,0,0,0,0,0,0,0,0,0,0,0,0,0,
407,91.3,52.93,-22.95,-27.81,31.91,-28.55,44.53,-6.405,20.92,1.93,77.39,124.3,70.68,-17.33,77.62,-12.08,0,0,0,0,0,0,0,0,0,0,0,0,0,0,0,0,
408,99.08,47.54,2.938,-7.931,34.14,8.541,45.49,-16.06,32.02,-14.57,67.19,109.6,59.56,-12.35,49.52,-35.09,0,0,0,0,0,0,0,0,0,0,0,0,0,0,0,0,
409,98.48,44.04,34.02,21.66,-2.583,22.37,21.63,47.55,13.34,-5.252,36.22,70.01,47.05,-0.7175,29.28,-49.02,0,0,0,0,0,0,0,0,0,0,0,0,0,0,0,0,
410,49.4,47.88,0.702,-25.8,-20.86,-7.271,34.39,55.59,0.9012,42.35,14.59,22.3,25.89,-9.111,11.95,-54.17,0,0,0,0,0,0,0,0,0,0,0,0,0,0,0,0,
411,-1.283,39.19,23.05,-25.24,-1.265,-35.75,24.79,20.61,-4.199,51.28,10.09,1.659,24.28,-1.946,6.34,-44.9,0,0,0,0,0,0,0,0,0,0,0,0,0,0,0,0,
412,8.331,37.44,67.12,25.45,3.229,-32.42,8.747,35.73,-28.5,-23.04,-11.39,-18.17,28.35,5.612,-5.308,-35.04,0,0,0,0,0,0,0,0,0,0,0,0,0,0,0,0,
413,21.09,33.05,-32.86,-8.453,-20.88,-21.64,24.17,48.24,-27.2,-68.22,-53.31,-63.93,1.879,-6.025,-38.88,-31.22,0,0,0,0,0,0,0,0,0,0,0,0,0,0,0,0,
414,-13.71,10.05,-162.1,-62.15,-44.89,-16.73,19.11,-22.17,-2.137,-0.8367,-80.23,-97.79,-24.64,18.71,-62.89,-23.68,0,0,0,0,0,0,0,0,0,0,0,0,0,0,0,0,
415,-43.81,-6.266,-79.12,-57.15,-41.19,-16.28,-11.09,-71.37,-31.69,47.93,-82.98,-107.5,-39.05,39.22,-63.26,-25.63,0,0,0,0,0,0,0,0,0,0,0,0,0,0,0,0,
416,-54.68,-29.27,52.39,-64.41,-21.32,-54.35,-35.58,-32.66,-79.43,-13.74,-82.89,-117.2,-66.3,-0.8529,-53.73,-37.81,0,0,0,0,0,0,0,0,0,0,0,0,0,0,0,0,
417,-75.77,-64.64,8.491,-65.44,-13.73,-97.4,-55.8,-4.332,-42.75,-42.26,-76.23,-109.8,-75.76,-10.83,-29.71,-33.49,0,0,0,0,0,0,0,0,0,0,0,0,0,0,0,0,
418,-74.92,-64.95,-31.45,-15.45,-7.952,-60.51,-50.39,-2.697,-12.53,1.964,-55.91,-69.45,-51.2,14.16,0.6763,-27.97,0,0,0,0,0,0,0,0,0,0,0,0,0,0,0,0,
419,-22.13,-39.45,-7.686,20.43,-0.3212,-9.725,-16.06,15.29,-61.05,-2.776,-38.23,-21.81,-31.65,-13.7,12.38,-42.34,0,0,0,0,0,0,0,0,0,0,0,0,0,0,0,0,
420,32.54,-30.38,-50.25,17.2,-3.266,-26.71,5.992,20.68,-26.13,-43.63,-23.46,7.848,-23.13,-49.42,2.165,-56.75,0,0,0,0,0,0,0,0,0,0,0,0,0,0,0,0,
421,30.82,-30.22,-45.2,-5.221,-0.2995,-27.49,-5.306,14.26,77.82,-86.15,-13.9,8.557,-14.58,-57,-13.91,-68.03,0,0,0,0,0,0,0,0,0,0,0,0,0,0,0,0,
422,3.95,-26.35,8.924,-30.71,5.854,5.642,-24.54,-11.3,60.93,-130.1,-5.646,7.999,-2.206,-66.47,-4.216,-63.92,0,0,0,0,0,0,0,0,0,0,0,0,0,0,0,0,
423,23.17,-6.731,-2.261,-12.54,13.45,7.017,8.609,-65.8,36.49,-72.43,42.89,48.57,34.57,-27.27,43.73,-18.12,0,0,0,0,0,0,0,0,0,0,0,0,0,0,0,0,
424,75.54,37.99,66.02,42.55,67.19,34.24,80.77,-37.24,136.5,72.31,112.2,98.55,75.43,45.43,86.41,23.2,0,0,0,0,0,0,0,0,0,0,0,0,0,0,0,0,
425,104.6,63.57,157.5,78.37,131.1,94.79,84.53,74.46,159.8,115.2,124.7,101,70.27,36.45,86.66,12.16,0,0,0,0,0,0,0,0,0,0,0,0,0,0,0,0,
426,93.58,33.68,60.75,73.61,99.76,73.95,16.35,86.82,37.26,29.57,73.01,54.85,25.08,-29.66,46.25,-27.5,0,0,0,0,0,0,0,0,0,0,0,0,0,0,0,0,
427,25.87,-18.54,-40.41,20.59,9.829,-23.7,-33.55,11.95,-24.79,-29.59,-4.905,-20.36,-27.09,-61.3,-20.9,-75.07,0,0,0,0,0,0,0,0,0,0,0,0,0,0,0,0,
428,-69.68,-50.93,-16.52,-40.2,-24.88,-94.14,-61.47,-17.69,-8.644,-26.21,-70.07,-85.91,-66.18,-68.93,-70.16,-109.9,0,0,0,0,0,0,0,0,0,0,0,0,0,0,0,0,
429,-108.2,-57.63,-31.65,-45.26,-27.81,-103.2,-99.75,-46.96,-50.61,-50.77,-92.41,-110.2,-82.63,-67.91,-75.3,-106.6,0,0,0,0,0,0,0,0,0,0,0,0,0,0,0,0,
430,-110.8,-67.09,-93.43,-38.38,-59.85,-104.3,-133.3,-88.78,-92.81,-70.46,-91.88,-121.3,-91.15,-50.4,-70.54,-85.48,0,0,0,0,0,0,0,0,0,0,0,0,0,0,0,0,
431,-137.6,-95.81,-118.3,-70.69,-73.52,-137,-139.5,-61.7,-56.65,-37.61,-86.82,-126.4,-99.04,-40.63,-62.95,-65.53,0,0,0,0,0,0,0,0,0,0,0,0,0,0,0,0,
432,-139.4,-110,-102.5,-101.1,-39.27,-142.8,-125,-44.68,-65.68,-67.41,-78.97,-111.6,-102.9,-53.32,-44.35,-50.35,0,0,0,0,0,0,0,0,0,0,0,0,0,0,0,0,
433,-116.6,-101.9,-79.46,-119,-17.24,-102.1,-123.7,-109.6,-140.7,-130.4,-86.27,-104.2,-108,-70.72,-36.11,-49.09,0,0,0,0,0,0,0,0,0,0,0,0,0,0,0,0,
434,-124.3,-96.92,-94.01,-111.5,-28,-88.11,-124.5,-118,-104.4,-62.56,-82.54,-87.24,-88.46,-55.22,-21.05,-39.65,0,0,0,0,0,0,0,0,0,0,0,0,0,0,0,0,
435,-110,-74.25,-72.56,-54.56,-30.25,-87.42,-86.73,-25.87,-0.4752,25.83,-53.01,-38.6,-36.68,-8.279,10.33,-14.83,0,0,0,0,0,0,0,0,0,0,0,0,0,0,0,0,
436,-58.69,-31.11,7.957,-47.73,-13.69,-60.1,-45.58,8.241,-20.89,-8.418,-52.58,-19.3,-6.179,3.363,16.5,-9.213,0,0,0,0,0,0,0,0,0,0,0,0,0,0,0,0,
437,-38.73,-13.6,13.85,-98.62,5.673,-45.32,-38.63,-47.7,-82.04,-48.68,-69.87,-30.33,-4.917,-24.51,4.79,-19.26,0,0,0,0,0,0,0,0,0,0,0,0,0,0,0,0,
438,-29.9,-16.63,-35.65,-57.06,18.33,-41.74,-25.83,-75.46,-48.92,-36.04,-52.53,-16.85,0.688,-31.7,1.038,-22.57,0,0,0,0,0,0,0,0,0,0,0,0,0,0,0,0,
439,-13.09,-10.15,-61.34,11.8,13.44,-28.96,10.14,-45.4,-2.055,-25.59,-39.43,-14.53,-1.141,-27.93,-14.22,-28.64,0,0,0,0,0,0,0,0,0,0,0,0,0,0,0,0,
440,-31.02,-6.354,-74.58,-0.0676,-6.785,-31.4,28,-6.164,-27.85,-12.32,-63.1,-45.4,-15.13,-33.66,-38.34,-39.51,0,0,0,0,0,0,0,0,0,0,0,0,0,0,0,0,
441,-51.99,-13.4,-26.46,16.61,-34.13,-48.9,10.22,4.086,-117.5,-21.96,-86,-65,-22.37,-32.31,-57.89,-50.83,0,0,0,0,0,0,0,0,0,0,0,0,0,0,0,0,
442,-47.37,-18.45,26.33,31.58,-64.5,-65.52,-10.8,-10.29,-158.8,-59.13,-98.38,-86.27,-36.4,-51.2,-86.24,-73.45,0,0,0,0,0,0,0,0,0,0,0,0,0,0,0,0,
443,-62.91,-21.48,-26.36,-37.59,-70.78,-67.67,-11.07,-21.74,-81.43,-48.34,-106.4,-113.5,-54.84,-83.82,-103.9,-92.51,0,0,0,0,0,0,0,0,0,0,0,0,0,0,0,0,
444,-70.67,-19.29,-58.38,-55,-46.2,-42.25,1.51,-64.57,-36.79,-12.07,-85.29,-89.45,-40.87,-58.23,-79.33,-78.59,0,0,0,0,0,0,0,0,0,0,0,0,0,0,0,0,
445,-29.57,-1.2,2.296,-27.22,-38.33,-27.3,13.84,-107.9,-58.68,-8.062,-49.63,-50.97,-16.5,-8.573,-48.6,-54.88,0,0,0,0,0,0,0,0,0,0,0,0,0,0,0,0,
446,-28.83,3.006,-8.953,-66.47,-62.06,-65.36,-2.92,-49.55,-46.88,-11.87,-50.62,-77.58,-33.72,-17.75,-51.16,-52.62,0,0,0,0,0,0,0,0,0,0,0,0,0,0,0,0,
447,-95.23,-32.91,-140.4,-77.81,-85.85,-114.6,-49.68,-12.37,-100.9,-26.61,-73.46,-113.8,-61.82,-30.85,-49.11,-42.78,0,0,0,0,0,0,0,0,0,0,0,0,0,0,0,0,
448,-114.9,-61.68,-209.6,-37.62,-96.26,-108.1,-70.31,-97.49,-163.5,-37.74,-68.36,-98.89,-57.55,6.143,-19.8,-12.03,0,0,0,0,0,0,0,0,0,0,0,0,0,0,0,0,
449,-85.79,-56.76,-103.4,-44.03,-81.37,-68.85,-70.39,-105.4,-74.9,-8.345,-47.39,-85.1,-51.13,27.92,-4.721,2.656,0,0,0,0,0,0,0,0,0,0,0,0,0,0,0,0,
450,-85.68,-55.18,15.22,-70.5,-51.28,-69.65,-87.91,-26.62,-31.63,-6.824,-42.35,-85.56,-55.83,14.92,-3.025,-2.35,0,0,0,0,0,0,0,0,0,0,0,0,0,0,0,0,
451,-80.85,-55.33,-15.82,-86.46,-45.17,-94.68,-76.83,-50.31,-77.52,-51.05,-36.37,-61.59,-45.65,7.177,17.95,-5.068,0,0,0,0,0,0,0,0,0,0,0,0,0,0,0,0,
452,-44.77,-35,-78.71,-88.16,-32.24,-71.61,-30.73,-81.83,-18.68,-57.15,-10.77,-31.61,-26.68,-0.2697,35.64,-7.3,0,0,0,0,0,0,0,0,0,0,0,0,0,0,0,0,
453,-15.03,-11.12,-46.32,-29.05,17.39,-18.34,-14.14,-20.03,17.92,-20.02,5.038,-20.77,-14.68,-3.937,24.84,-10.95,0,0,0,0,0,0,0,0,0,0,0,0,0,0,0,0,
454,-4.979,-1.858,10.15,42.32,40.47,-4.545,-15.99,19.78,-38.76,23.87,-10.04,-22.19,-6.867,5.077,6.197,-9.543,0,0,0,0,0,0,0,0,0,0,0,0,0,0,0,0,
455,-15.81,-2.375,10.8,35.5,44.8,-12.22,3.342,12.21,-33.46,31.83,-12.98,-13.77,7.755,2.737,6.905,1.504,0,0,0,0,0,0,0,0,0,0,0,0,0,0,0,0,
456,-0.2724,11.34,-20.74,-5.834,88.05,15.46,31.3,4.775,-4.605,-2.728,25.26,24.47,32.38,-4.63,23.29,14.76,0,0,0,0,0,0,0,0,0,0,0,0,0,0,0,0,
457,60.06,40.09,-1.932,14.97,102.2,40.27,48.73,16.02,17.46,5.771,49.75,45.38,40.13,-3.102,20.33,8.853,0,0,0,0,0,0,0,0,0,0,0,0,0,0,0,0,
458,59.06,45.5,70.35,71.63,54.18,14.01,44.8,54,66.87,25.45,26.42,11.9,26.12,-9.061,-2.159,-7.719,0,0,0,0,0,0,0,0,0,0,0,0,0,0,0,0,
459,3.77,27.13,63.9,68.09,21.21,-4.721,28.39,51.15,51.44,-16.69,8.406,-9.834,23.88,-18.83,-5.385,-8.636,0,0,0,0,0,0,0,0,0,0,0,0,0,0,0,0,
460,7.987,14.54,-27.61,28.05,-6.319,5.561,21.95,-2.88,-2.142,-37.13,12.3,-0.4205,26.85,-20.51,0.8101,-4.811,0,0,0,0,0,0,0,0,0,0,0,0,0,0,0,0,
461,15.75,10.82,-28.51,13.41,-46.69,-18.86,23.01,-25.11,-22.89,-37.54,-3.931,-9.328,20.45,-12.52,-3.082,-3.144,0,0,0,0,0,0,0,0,0,0,0,0,0,0,0,0,
462,-27.16,19.79,46.77,-8.207,-25.7,-49.8,27.98,-16.42,-64.3,-40.08,-15.08,-11,27.05,10.47,8.988,12.19,0,0,0,0,0,0,0,0,0,0,0,0,0,0,0,0,
463,-35.92,34.72,17.17,-17.92,28.43,-23.78,26.88,11.86,-63.7,32.93,15.04,11.7,36.03,34.24,30.15,25.55,0,0,0,0,0,0,0,0,0,0,0,0,0,0,0,0,
464,-15.85,27.14,-65.52,24.88,7.986,4.789,-16.43,55.06,24.8,66.28,33.35,8.577,19.74,39.94,31.32,21.94,0,0,0,0,0,0,0,0,0,0,0,0,0,0,0,0,
465,-28.65,-1.305,-48.36,43.3,-44.87,-18.23,-78.6,39.71,41.24,-6.708,13.81,-12.92,-5.382,34.61,28.98,20.67,0,0,0,0,0,0,0,0,0,0,0,0,0,0,0,0,
466,-48.07,-23.94,12.82,-1.393,-29.42,-43.26,-81.16,-10.36,-46.22,-14.87,-0.1134,-13.07,-17.09,33.57,33.52,24.81,0,0,0,0,0,0,0,0,0,0,0,0,0,0,0,0,
467,-43.56,-26.04,29.26,-49.36,10.48,-21.72,-31.33,-20.59,-74.48,3.645,-1.022,-1.162,-12.13,38.77,34.51,26.47,0,0,0,0,0,0,0,0,0,0,0,0,0,0,0,0,
468,-16.87,-11.88,24.84,-53.94,6.256,13.73,1.798,-23.58,-23.98,-44.71,4.733,18.08,9.412,40.03,44.59,36.65,0,0,0,0,0,0,0,0,0,0,0,0,0,0,0,0,
469,22.84,8.808,38.41,-2.862,8.042,25.29,21.94,-8.45,-0.373,-41.58,32.48,52.55,38.28,45.04,61.59,52.11,0,0,0,0,0,0,0,0,0,0,0,0,0,0,0,0,
470,50.75,30.17,50.66,49.48,32.72,43.39,48.62,53.97,21.83,-11.8,53.66,69.15,45.47,50.71,51.74,45.26,0,0,0,0,0,0,0,0,0,0,0,0,0,0,0,0,
471,46.23,25.65,-13.78,44.13,24.18,68.96,38.9,77.11,82.07,-38.32,31.96,46.66,17.95,19.78,21.24,12.91,0,0,0,0,0,0,0,0,0,0,0,0,0,0,0,0,
472,24.59,-7.248,-78.35,32.39,22.17,50.03,10.39,55.09,84.56,-27.48,11.34,42.08,9.648,-10.8,18.62,-0.3067,0,0,0,0,0,0,0,0,0,0,0,0,0,0,0,0,
473,37.09,-4.035,19.82,71.83,63.31,31.32,33.18,84.67,39.87,25.29,29.51,78.77,50.13,17.66,36.28,18.76,0,0,0,0,0,0,0,0,0,0,0,0,0,0,0,0,
474,75.72,39.5,147.2,104,64.53,65.62,61.63,112.3,36.69,30.82,22.59,73.93,61.91,32.41,15.87,9.636,0,0,0,0,0,0,0,0,0,0,0,0,0,0,0,0,
475,58.49,49.54,118,45.32,26.18,66.44,50.69,48.63,-9.598,-0.4115,-33.87,12.24,22.3,-3.568,-29.21,-33.51,0,0,0,0,0,0,0,0,0,0,0,0,0,0,0,0,
476,4.674,36.06,22.67,-46.57,34.09,19.6,65.46,4.261,-82.43,-25.18,-53.1,-15.22,9.765,-6.78,-38.83,-44.08,0,0,0,0,0,0,0,0,0,0,0,0,0,0,0,0,
477,9.143,41.99,-27.2,-33.3,60.83,38.33,80.09,55.63,-7.482,-9.856,-18.71,5.958,25.18,18.73,-20.35,-24.96,0,0,0,0,0,0,0,0,0,0,0,0,0,0,0,0,
478,44.09,35.11,4.87,55.26,60.16,86.9,31.07,90.79,99.33,39.79,-1.044,21.19,20.97,20.25,-9.861,-17.99,0,0,0,0,0,0,0,0,0,0,0,0,0,0,0,0,
479,27.95,7.9,55.1,79.55,52.17,44.46,-1.581,83.32,50.02,42.41,-13.04,7.963,0.1499,6.577,-17.29,-28.19,0,0,0,0,0,0,0,0,0,0,0,0,0,0,0,0,
480,-24.06,-10.87,-9.873,33.28,28.5,-32.28,8.372,69.52,-14.15,-25.41,-27.38,-22.58,-28.33,-21.49,-31.81,-47.39,0,0,0,0,0,0,0,0,0,0,0,0,0,0,0,0,
481,-41.74,-21.67,-52.79,-12.18,9.846,-25.94,-11.11,16.02,-9.232,-70,-18.99,-20.34,-34.52,-30.33,-14.04,-41.37,0,0,0,0,0,0,0,0,0,0,0,0,0,0,0,0,
482,-6.718,-19.19,49.43,-22.89,36.64,24.1,-39.33,4.61,-46.5,-42.08,10.96,18.6,-8.8,1.494,27.16,-11.98,0,0,0,0,0,0,0,0,0,0,0,0,0,0,0,0,
483,7.939,-19.4,49.75,-10.44,44.57,12.39,-47,47.06,-47.58,-19.85,19.54,22.94,-9.481,-1.005,28.91,-14.98,0,0,0,0,0,0,0,0,0,0,0,0,0,0,0,0,
484,-33.65,-43.68,-84.15,-30.66,9.193,-33.39,-49.08,-21.15,55.01,-52.61,11.6,4.379,-28.89,-33.52,9,-28.48,0,0,0,0,0,0,0,0,0,0,0,0,0,0,0,0,
485,-46.11,-52.42,-79.26,-59.79,19.56,-14.17,-33.18,-88.9,73.5,-51.36,18.53,16.99,-20.19,-23.7,12.21,-14.68,0,0,0,0,0,0,0,0,0,0,0,0,0,0,0,0,
486,-8.938,-46.52,24.89,-13.76,65.73,26.01,-24.09,7.786,-3.443,27.42,12.92,20.65,-13.67,-0.7287,7.838,-13.48,0,0,0,0,0,0,0,0,0,0,0,0,0,0,0,0,
487,-10.55,-59.65,27.21,40.03,67.4,-3.271,-43.62,73.8,-15.33,48.24,-21.16,-14.36,-21.99,-3.273,-21.07,-33.85,0,0,0,0,0,0,0,0,0,0,0,0,0,0,0,0,
488,-48.41,-57.67,-16.16,10.74,44.44,-29.24,-55.42,30.61,-21.02,-52.69,-53.94,-51.21,-27.64,-27.82,-50.07,-49.85,0,0,0,0,0,0,0,0,0,0,0,0,0,0,0,0,
489,-54.2,-40.49,10.77,-15.08,39.06,8.084,-48.88,4.412,-40.66,-97.44,-55.22,-65.97,-34.54,-53.56,-60.55,-52.7,0,0,0,0,0,0,0,0,0,0,0,0,0,0,0,0,
490,-35.99,-31.66,46.59,16.75,35.29,12.99,-24.91,-33.08,10.26,-3.186,-33.52,-62.82,-27.93,-34.03,-49.72,-37.79,0,0,0,0,0,0,0,0,0,0,0,0,0,0,0,0,
491,-37.69,-11.57,11.36,27.86,12.36,-36.45,-3.176,-52.49,14.79,34.13,-38.81,-63.8,-24.28,-8.076,-49.31,-34.65,0,0,0,0,0,0,0,0,0,0,0,0,0,0,0,0,
492,-61.17,-18.42,-27.46,-0.5845,-9.744,-44.73,-27.17,13.17,-44.85,-44.38,-59.56,-68.66,-46.6,-34.63,-65.87,-51.53,0,0,0,0,0,0,0,0,0,0,0,0,0,0,0,0,
493,-63.6,-51.96,-21.66,-30.57,2.722,-16.23,-43.67,25.31,-30.89,-56.17,-47.31,-54.63,-49.26,-54.58,-60.71,-46.41,0,0,0,0,0,0,0,0,0,0,0,0,0,0,0,0,
494,-33.19,-29.51,-19.11,-29.83,27.52,-15.55,-2.47,-42.57,-11.11,6.18,-29.83,-39.75,-28.14,-35.71,-39.9,-28.19,0,0,0,0,0,0,0,0,0,0,0,0,0,0,0,0,
495,-16.65,2.404,13.34,39.5,37.64,-14.19,9.55,-34.75,-13.41,20.04,-19.21,-33.95,-23.66,-17.09,-24.64,-25.97,0,0,0,0,0,0,0,0,0,0,0,0,0,0,0,0,
496,-12.99,-25.85,70.69,92.45,54.11,10.54,-42.59,26.22,24.75,7.721,4.878,-15.72,-25.07,-16.53,-8.409,-28.24,0,0,0,0,0,0,0,0,0,0,0,0,0,0,0,0,
497,5.091,-51.16,28.03,24.94,63.08,7.264,-71.34,13.88,-1.282,-3.221,11.11,-0.9271,-26.63,-41.32,0.7415,-31.17,0,0,0,0,0,0,0,0,0,0,0,0,0,0,0,0,
498,4.818,-51.26,-47.99,-36.96,46.08,-13.6,-44.91,-50.15,-66.74,-36.69,3.998,3.067,-33.7,-61.2,8.22,-33.35,0,0,0,0,0,0,0,0,0,0,0,0,0,0,0,0,
499,-7.013,-53.5,-4.724,-6.152,28.45,-0.8987,-14.25,-80.89,-26.41,-57.36,19.55,15.17,-31.22,-53.63,25.78,-29.06,0,0,0,0,0,0,0,0,0,0,0,0,0,0,0,0,
500,11.5,-45.7,55.32,-3.205,19.38,13.7,-12.58,-66.23,44.83,-37.78,33.47,14.51,-23.66,-43.44,32.15,-24.62,0,0,0,0,0,0,0,0,0,0,0,0,0,0,0,0,
501,14.89,-39.86,31.35,-12.33,37.59,6.075,-28.32,-24.69,47.26,5.86,22.42,-13.09,-17.85,-18.36,18.61,-20.8,0,0,0,0,0,0,0,0,0,0,0,0,0,0,0,0,
502,-23.48,-46.25,21.72,41.13,59.64,5.272,-44.51,27.94,-4.334,45.19,-6.455,-43.14,-17.13,-1.215,-10.59,-25.83,0,0,0,0,0,0,0,0,0,0,0,0,0,0,0,0,
503,-38.2,-47.32,33.34,46.46,11.17,-3.592,-57.37,28.78,-52.09,39.1,-38.49,-63.74,-27.1,-37.62,-49.57,-42.06,0,0,0,0,0,0,0,0,0,0,0,0,0,0,0,0,
504,-29.96,-37.22,-22.75,-11.02,-31.48,-22.71,-50.12,-48.94,-13.56,-14.51,-47.13,-72.21,-25.21,-52.57,-66.5,-41.89,0,0,0,0,0,0,0,0,0,0,0,0,0,0,0,0,
505,-51.37,-7.646,-68.82,-11.14,12.64,-7.893,-18.74,-86.85,41.87,-38.09,-32.7,-63.61,-7.467,-10.89,-55.94,-21.71,0,0,0,0,0,0,0,0,0,0,0,0,0,0,0,0,
506,-55.78,17.93,0.8247,23.6,27.64,14.18,-12.02,-16.39,0.9674,28.97,-20.97,-50.94,-7.329,3.104,-55.07,-15.82,0,0,0,0,0,0,0,0,0,0,0,0,0,0,0,0,
507,-17.2,-0.1804,60.49,18.71,-10.61,-11.98,-48.68,31.69,-46.91,75.19,-24.94,-55.3,-28.33,-20.58,-71.23,-34.06,0,0,0,0,0,0,0,0,0,0,0,0,0,0,0,0,
508,-21.24,-27.92,4.264,-23.2,-11.69,-49.37,-60.57,-18.46,-34.91,-9.436,-40.19,-65.79,-40.2,-30.85,-73.52,-41.6,0,0,0,0,0,0,0,0,0,0,0,0,0,0,0,0,
509,-53.28,-20.72,-15.59,-52.5,-9.893,-35.19,-17.05,-63.14,-35.26,-58.3,-45.22,-53.4,-26.26,-15.67,-50.98,-18.42,0,0,0,0,0,0,0,0,0,0,0,0,0,0,0,0,
510,-26.36,-0.5494,30.59,-10.17,-18.81,10.06,14.99,-45.51,-58.19,33.72,-33.87,-31.66,-7.96,6.086,-28.76,2.517,0,0,0,0,0,0,0,0,0,0,0,0,0,0,0,0,
511,6.25,4.162,-28.79,36.73,-4.84,20.15,5.292,-15.98,-54.58,59.68,-18.87,-17.75,-9.382,-0.8982,-12.69,7.329,0,0,0,0,0,0,0,0,0,0,0,0,0,0,0,0,
512,0.71,-4.164,-104.2,-14.27,-9.127,-10.23,-0.4799,-18.21,-12.82,-25.17,7.049,9.083,-11.87,-16.86,17.33,23.73,0,0,0,0,0,0,0,0,0,0,0,0,0,0,0,0,
513,8.487,-9.09,-43.96,-82.48,-13.7,-19.3,8.842,-57.37,33.71,-38.22,40.62,40.88,0.0798,7.593,45.23,39.88,0,0,0,0,0,0,0,0,0,0,0,0,0,0,0,0,
514,21.32,-4.449,11.45,-69.35,12.74,13.9,0.2568,-75.42,45.55,13.97,58.46,58.13,8.804,29.84,47.64,31.65,0,0,0,0,0,0,0,0,0,0,0,0,0,0,0,0,
515,28.59,-10.44,14.1,-6.995,15.8,30.34,-26.35,-27.18,33.32,43.44,58.09,65.89,6.912,3.825,37.57,18.5,0,0,0,0,0,0,0,0,0,0,0,0,0,0,0,0,
516,39.05,-23.3,60.59,51.54,14.18,12.51,-26.63,20.13,29.06,49.17,45.15,56.05,12.58,-11.44,29.32,16.73,0,0,0,0,0,0,0,0,0,0,0,0,0,0,0,0,
517,26.7,2.633,65.91,57.4,40.77,24.38,14.82,12.06,32.03,2.616,28.33,42.51,37.71,10.71,27.46,22.92,0,0,0,0,0,0,0,0,0,0,0,0,0,0,0,0,
518,17.67,46.58,3.164,6.162,26.36,52.2,43.99,-17.51,17.33,-51.78,19,39.29,46.01,2.561,14.79,18.02,0,0,0,0,0,0,0,0,0,0,0,0,0,0,0,0,
519,13.55,31.38,10.84,-24.98,-23.21,21.97,40.31,-28.32,-16.2,-8.516,7.61,17.08,11.39,-34.32,-25.43,-14.27,0,0,0,0,0,0,0,0,0,0,0,0,0,0,0,0,
520,-17.39,-4.997,60.51,-3.037,-22.43,-15.98,45.37,0.4294,-14.06,64.89,-1.316,-3.535,-8.732,-25.1,-51.48,-36.4,0,0,0,0,0,0,0,0,0,0,0,0,0,0,0,0,
521,-10.25,17.75,25.63,21.44,8.804,2.455,45.22,23.8,37.84,53.31,9.709,5.744,6.465,10.13,-42.44,-25.39,0,0,0,0,0,0,0,0,0,0,0,0,0,0,0,0,
522,25.28,42.06,-44.11,12.58,7.082,22.26,23.24,-6.724,61.2,11.79,18.61,6.84,4.956,17.43,-36.28,-16.14,0,0,0,0,0,0,0,0,0,0,0,0,0,0,0,0,
523,7.323,23.34,-29.49,-0.6571,-6.509,21.14,23.9,-5.36,37.96,15.71,10.46,2.613,1.489,28.19,-29.43,-5.074,0,0,0,0,0,0,0,0,0,0,0,0,0,0,0,0,
524,-3.135,22.76,33.12,22.07,3.704,35.22,34.21,48.24,26.19,29.33,6.286,10.97,18.94,45.28,-9.845,17.62,0,0,0,0,0,0,0,0,0,0,0,0,0,0,0,0,
525,27.98,35.61,32.46,45.2,21.4,58.62,36.65,24.4,13.57,32.03,10.92,9.315,21.16,34.95,2.542,22.91,0,0,0,0,0,0,0,0,0,0,0,0,0,0,0,0,
526,36.64,31.88,9.58,25.81,24.3,60.53,68.93,-27.14,-10.56,51.34,21.44,14.05,21.89,40.53,19.25,27.7,0,0,0,0,0,0,0,0,0,0,0,0,0,0,0,0,
527,30.11,43.55,59.36,18.91,8.788,22.84,79.68,25.02,13.48,57.11,34.15,30.2,38.65,69.49,39.31,41.98,0,0,0,0,0,0,0,0,0,0,0,0,0,0,0,0,
528,29.86,58.19,106.8,50.61,1.15,-4.037,36.47,59.21,52.13,20.75,36.03,31.31,34.17,47.82,38.58,28.72,0,0,0,0,0,0,0,0,0,0,0,0,0,0,0,0,
529,36.62,50.81,60.76,43.35,34.76,33.21,34.96,-20.46,28.68,3.962,36.89,36.35,17.51,5.488,35.42,7.89,0,0,0,0,0,0,0,0,0,0,0,0,0,0,0,0,
530,50.8,38.91,-3.533,-6.11,66.1,63.69,53.56,-62.7,10.56,41.14,40.21,42.37,13.26,19.73,33.04,2.486,0,0,0,0,0,0,0,0,0,0,0,0,0,0,0,0,
531,34.2,10.97,-10.29,-13.15,47.18,42.12,-1.549,-5.426,22.7,61.37,25.04,19.04,-1.393,30.52,8.796,-17.34,0,0,0,0,0,0,0,0,0,0,0,0,0,0,0,0,
532,-8.104,-27.26,-5.464,3.733,21.89,21.25,-50.92,22.35,-32.89,5.642,1.971,-6.851,-17.05,-8.931,-14.03,-36.07,0,0,0,0,0,0,0,0,0,0,0,0,0,0,0,0,
533,-31.36,-25.86,-25.09,-19.29,4.857,-4.59,-27.81,-19.62,-81.14,-61.08,-2.628,-3.452,-0.9347,-17.52,-14.32,-27.95,0,0,0,0,0,0,0,0,0,0,0,0,0,0,0,0,
534,-30.52,7.115,-14.78,-35.5,-17.62,-33.88,-4.936,-28.18,-6.978,-32.89,14.11,19.5,24.52,15,-11.46,-19.34,0,0,0,0,0,0,0,0,0,0,0,0,0,0,0,0,
535,-3.94,19.1,41.59,-5.402,3.446,-9.338,-5.071,23.54,55.18,56.72,36.75,36.59,26.09,22.8,-13.84,-15.65,0,0,0,0,0,0,0,0,0,0,0,0,0,0,0,0,
536,25.75,3.85,45.28,19.01,45.35,33.58,-13.48,43.73,34.22,90.8,39.33,31.69,14.62,18.33,-14.74,-3.933,0,0,0,0,0,0,0,0,0,0,0,0,0,0,0,0,
537,17.98,-11.28,-9.997,14.74,33.47,26.24,-37.36,12.87,30.29,44.54,20.52,18.93,4.576,5.077,-16.92,1.554,0,0,0,0,0,0,0,0,0,0,0,0,0,0,0,0,
538,-4.37,-18.25,0.6785,-6.364,4.296,-3.246,-25.17,-24.48,2.155,-37.14,3.625,12.6,-1.413,-26.43,-19.96,2.476,0,0,0,0,0,0,0,0,0,0,0,0,0,0,0,0,
539,-1.144,-12.11,15.55,-45.64,-6.021,-0.5268,33.91,-53.83,-50.17,-72.77,5.557,14.58,12.61,-3.754,-8.528,23.22,0,0,0,0,0,0,0,0,0,0,0,0,0,0,0,0,
540,23.73,14.58,-74.4,-66.2,-11.86,30.13,51.03,-20.99,15.64,-9.673,29.84,27.02,35.45,57.46,13.89,48.6,0,0,0,0,0,0,0,0,0,0,0,0,0,0,0,0,
541,42.75,25.39,-77.1,-28.95,15.75,44.68,13.13,56.12,91.55,60.34,43.22,27.41,25.63,50.66,14.9,39.22,0,0,0,0,0,0,0,0,0,0,0,0,0,0,0,0,
542,39.03,-3.943,74.96,30.97,55.32,31.12,-18.74,54.7,29.89,55.76,28.32,7.313,-4.516,9.75,0.5614,10.65,0,0,0,0,0,0,0,0,0,0,0,0,0,0,0,0,
543,24.34,-21.97,106.3,43.82,43.41,27.03,-24.69,13.98,1.395,7.273,25.9,-3.19,-14.75,2.386,8.096,3.171,0,0,0,0,0,0,0,0,0,0,0,0,0,0,0,0,
544,11.31,-2.236,17.36,0.7001,25.22,44.95,8.072,17.04,46.89,-36.75,38.44,2.169,-7.23,2.677,30.55,11.82,0,0,0,0,0,0,0,0,0,0,0,0,0,0,0,0,
545,10.18,17.19,44.95,-8.897,53.16,46.97,49.5,4.04,9.035,-10.79,43.06,11.73,4.358,1.75,43.54,15.75,0,0,0,0,0,0,0,0,0,0,0,0,0,0,0,0,
546,22.93,11.04,92.97,43.92,62.22,20.11,23.7,-10.65,-11.19,22.21,46.89,11.53,-3.205,-22.8,34.25,-3.05,0,0,0,0,0,0,0,0,0,0,0,0,0,0,0,0,
547,16.61,-20.31,11.86,30.15,15.13,7.873,-27.5,-7.421,57.36,-62.45,32.21,-11.82,-38.63,-73.06,-0.5952,-41.09,0,0,0,0,0,0,0,0,0,0,0,0,0,0,0,0,
548,-4.47,-43.17,-43.17,-56.91,-4.438,30.34,-13.53,-51.68,56.51,-96.38,11.52,-19.08,-41.81,-54.2,-19.7,-46.16,0,0,0,0,0,0,0,0,0,0,0,0,0,0,0,0,
549,3.162,-20.72,12.49,-41.49,37.05,52.81,18.93,-41.24,26.32,34.84,22.8,8.811,-1.296,6.793,-9.518,-19.69,0,0,0,0,0,0,0,0,0,0,0,0,0,0,0,0,
550,15.02,4.595,23.86,46.7,48.91,51.69,3.523,73.96,43.83,87.38,19.69,9.064,4.632,-10.35,-27.86,-26.7,0,0,0,0,0,0,0,0,0,0,0,0,0,0,0,0,
551,0.8509,-13.13,-35.24,37.4,10.54,26.96,-22.47,86.92,10.39,20.51,-7.455,-19.57,-15.8,-39.68,-60.48,-42.5,0,0,0,0,0,0,0,0,0,0,0,0,0,0,0,0,
552,4.247,-22.98,-5.688,0.0437,9.774,6.609,-13.89,0.5601,-3.448,31.01,18.14,-5.462,10.22,4.962,-36.08,-4.024,0,0,0,0,0,0,0,0,0,0,0,0,0,0,0,0,
553,41.23,19.25,85.47,35.51,58.42,38.08,21.89,14.79,64.7,70.22,74.51,37.92,52.82,46.13,12.15,48.82,0,0,0,0,0,0,0,0,0,0,0,0,0,0,0,0,
554,57.36,58.56,79.02,39.38,77.04,76.24,45.11,74.05,71.13,45.7,78.46,42.75,47.11,42.83,17.6,56.84,0,0,0,0,0,0,0,0,0,0,0,0,0,0,0,0,
555,26.81,40.49,35.87,-9.287,33.51,41.27,31.29,74.48,41.21,46.72,43.5,13.53,20.74,43.26,3.201,45.69,0,0,0,0,0,0,0,0,0,0,0,0,0,0,0,0,
556,-0.4372,11.45,32.55,-0.9335,-6.35,-3.829,14.41,72.97,48.74,97.45,18.21,-0.3345,25.06,56.72,4.513,54.16,0,0,0,0,0,0,0,0,0,0,0,0,0,0,0,0,
557,9.959,21.95,-13.8,41.77,-4.905,7.619,9.419,62.82,2.022,100.8,-6.541,-1.558,29.5,45.13,1.35,49.68,0,0,0,0,0,0,0,0,0,0,0,0,0,0,0,0,
558,9.018,19.61,-48.46,34.43,-33.31,-4.304,-27.07,16.12,-60.02,22.9,-39.63,-23.32,-9.501,-5.877,-16.36,5.953,0,0,0,0,0,0,0,0,0,0,0,0,0,0,0,0,
559,-25.66,-26.04,-5.609,-7.314,-76.85,-62.79,-68.21,-28.88,-53.32,-40.36,-44.29,-41,-46.14,-38.88,-15.05,-20.54,0,0,0,0,0,0,0,0,0,0,0,0,0,0,0,0,
560,-32.6,-43.3,-2.4,-37.81,-41.53,-64.49,-41.28,-58.02,-41.49,-13.8,-18.23,-25.55,-39.73,-22.42,6.611,-9.405,0,0,0,0,0,0,0,0,0,0,0,0,0,0,0,0,
561,-5.89,-17.42,-26.31,-49.76,-1.741,0.3026,6.577,-42.49,-27.48,23.54,-3.033,-11.33,-29.16,-17.16,11.35,-12.48,0,0,0,0,0,0,0,0,0,0,0,0,0,0,0,0,
562,5.073,-6.449,0.6363,-51.88,-20.93,43.27,9.707,8.74,24.21,3.504,8.773,-6.499,-24.06,-32.29,9.3,-20.46,0,0,0,0,0,0,0,0,0,0,0,0,0,0,0,0,
563,21.23,-4.89,9.731,-28.09,-16.48,42.92,8.499,14.77,48.02,-3.956,26.81,5.869,-10.29,-25.76,16.17,-10.49,0,0,0,0,0,0,0,0,0,0,0,0,0,0,0,0,
564,44.55,-1.983,20.46,32.52,-19.51,13.3,1.794,-8.108,0.386,25.28,13.3,-5.911,-18.85,-19.38,0.4949,-20.35,0,0,0,0,0,0,0,0,0,0,0,0,0,0,0,0,
565,16.71,-19.31,57.9,60.84,-65.08,-34.9,-39.29,-1.255,-44.44,32.96,-14.59,-34.7,-33.55,-16.48,-24.27,-31.76,0,0,0,0,0,0,0,0,0,0,0,0,0,0,0,0,
566,-22.79,-19.49,19.29,14.47,-54.27,-50.78,-46.32,4.696,-9.136,24.87,-13.45,-32.71,-10.95,-0.4721,-24,-6.068,0,0,0,0,0,0,0,0,0,0,0,0,0,0,0,0,
567,-9.95,11.1,-31.13,-18.26,-14.47,-27.98,-7.629,-15.89,14.12,-3.489,-18.86,-27.21,6.372,-10.37,-33.45,5.479,0,0,0,0,0,0,0,0,0,0,0,0,0,0,0,0,
568,4.24,16.44,-2.983,3.753,-18.28,-13.43,10.4,-30.85,-62.83,-53.32,-48.85,-44.28,-2.309,-25.67,-57.11,-8.122,0,0,0,0,0,0,0,0,0,0,0,0,0,0,0,0,
569,-4.606,11.2,-3.655,7.735,-13.74,3.907,24.78,-0.0479,-77.63,-5.627,-50.53,-45.04,15.59,13.95,-48.71,14.05,0,0,0,0,0,0,0,0,0,0,0,0,0,0,0,0,
570,2.49,29.08,-18.44,-12.34,-18.78,26.34,33.85,50.01,19.84,100.1,-27.92,-31.28,43.37,57.74,-31.69,49.07,0,0,0,0,0,0,0,0,0,0,0,0,0,0,0,0,
571,8.223,27.07,32.07,-4.221,-64.22,18.14,0.5384,38.12,-10.71,76.04,-31.03,-33.65,36.05,54.27,-36.21,48.8,0,0,0,0,0,0,0,0,0,0,0,0,0,0,0,0,
572,-1.954,11.64,41,20.31,-66.08,5.851,-3.422,-20.83,-136.6,26.3,-41.56,-35.53,29.09,46.07,-25.57,44.96,0,0,0,0,0,0,0,0,0,0,0,0,0,0,0,0,
573,1.414,33.58,-2.334,20.6,-24.4,11.07,51.49,-45.87,-74.67,65.26,-23.24,-19.74,40.88,46.56,3.461,53.86,0,0,0,0,0,0,0,0,0,0,0,0,0,0,0,0,
574,20.01,57.18,10.75,3.612,-3.698,19.55,71.03,-25.97,70.75,45.81,6.339,2.806,36.43,35.77,19.74,52.53,0,0,0,0,0,0,0,0,0,0,0,0,0,0,0,0,
575,42.02,39.79,43.31,28.81,25.8,50.47,38.76,24.94,57.21,2.308,22.61,21.18,21.56,24.9,31.03,42.18,0,0,0,0,0,0,0,0,0,0,0,0,0,0,0,0,
576,61.75,19.53,56.79,79.47,59.41,74.92,22,76.06,22.02,15.09,30.57,32.89,22.95,10.79,47.63,30.31,0,0,0,0,0,0,0,0,0,0,0,0,0,0,0,0,
577,67,28.47,77.93,35.96,38.88,53.69,41.49,59.25,63.45,-22.52,46.05,48.45,35.24,-7.256,64.64,25.09,0,0,0,0,0,0,0,0,0,0,0,0,0,0,0,0,
578,69.71,49.37,80.01,-48.73,18.97,57.13,70.35,-6.299,39.38,-16.01,67.43,74.1,51.55,6.575,83.02,36.88,0,0,0,0,0,0,0,0,0,0,0,0,0,0,0,0,
579,92.43,69.53,71.99,4.03,62.83,102.4,76.04,-9.364,26.46,101.8,83.55,95.15,74.73,49.22,94.84,56.15,0,0,0,0,0,0,0,0,0,0,0,0,0,0,0,0,
580,114.1,89.37,67.05,109.5,87.88,101.2,59.01,57.05,109,124.8,92.71,95.3,93.61,69.51,89.23,69.54,0,0,0,0,0,0,0,0,0,0,0,0,0,0,0,0,
581,101.8,93.28,34.54,91.27,46.32,65.51,44.54,68.26,99.63,52.35,85.34,72.67,88.98,48.63,64.13,65.95,0,0,0,0,0,0,0,0,0,0,0,0,0,0,0,0,
582,75.99,73.82,21.15,23.67,30.99,61.56,41.4,-1.399,29.05,5.77,61.21,45.09,66.18,14.91,26.49,43.57,0,0,0,0,0,0,0,0,0,0,0,0,0,0,0,0,
583,63.64,53.23,21.98,0.0744,53.55,56.48,42.56,-31.21,53.02,-40.87,40.27,28.99,51.95,2.646,-3.354,25.63,0,0,0,0,0,0,0,0,0,0,0,0,0,0,0,0,
584,46.05,41.89,-39.24,-20.31,29.99,23.24,30.89,4.932,44.38,-35.83,24.41,16.62,49.45,18.15,-16.76,21.67,0,0,0,0,0,0,0,0,0,0,0,0,0,0,0,0,
585,29.05,28.66,-65.38,-26.05,-0.5504,11.07,7.687,26.32,-1.536,31.53,12.7,2.115,39.95,36.51,-26.89,15.49,0,0,0,0,0,0,0,0,0,0,0,0,0,0,0,0,
586,32.49,14.09,19.21,11.36,18.95,26.61,4.231,42.41,40.43,35.47,3.893,-10.86,24.25,28.97,-35.56,4.944,0,0,0,0,0,0,0,0,0,0,0,0,0,0,0,0,
587,20.03,5.191,70.33,22.07,11.25,14.52,13.13,59.37,33.76,-29.83,-8.956,-16.98,17.58,-2.752,-27.19,6.021,0,0,0,0,0,0,0,0,0,0,0,0,0,0,0,0,
588,-9.135,1.455,25.48,-33.19,-40.92,-16.1,-0.9578,-8.136,-38.45,-76.91,-2.128,-3.975,21.3,-14.19,-0.1504,25.83,0,0,0,0,0,0,0,0,0,0,0,0,0,0,0,0,
589,-4.44,1.1,-18.21,-60.94,-51.34,-1.106,-18.39,-88.96,-9.111,-30.93,18.11,15.36,26.77,19.6,26.19,48.03,0,0,0,0,0,0,0,0,0,0,0,0,0,0,0,0,
590,9.692,3.151,-10.9,3.962,-26.72,31.55,-12.15,-22.63,31.86,75.23,13.34,19.08,31.99,49.65,47.1,56.84,0,0,0,0,0,0,0,0,0,0,0,0,0,0,0,0,
591,-1.412,5.629,17.22,68.76,-14.4,17.9,-14.41,78.38,0.9717,70.67,14.64,25.97,37.27,36.65,71.81,57.28,0,0,0,0,0,0,0,0,0,0,0,0,0,0,0,0,
592,1.63,7.861,4.542,48.44,6.111,0.2841,-32.52,56.03,1.004,-26.87,40.52,41.61,33.7,9.089,83.58,49.03,0,0,0,0,0,0,0,0,0,0,0,0,0,0,0,0,
593,14.94,8.482,-42.4,-19.12,13.3,2.787,-22.06,3.554,-1.298,-47.96,43.63,40.34,15.7,-8.358,70.86,28.11,0,0,0,0,0,0,0,0,0,0,0,0,0,0,0,0,
594,1.137,-0.6086,-30.35,-64.56,-25.53,-21.02,2.659,-21.83,-36.18,-19.38,37.07,37.34,1.653,-6.771,64.02,13.3,0,0,0,0,0,0,0,0,0,0,0,0,0,0,0,0,
595,5.293,-12.89,36.44,-27.18,-26.84,-23.27,0.9577,-35.9,3.027,9.758,56.53,52.29,9.881,15.66,75.34,16.02,0,0,0,0,0,0,0,0,0,0,0,0,0,0,0,0,
596,42.6,-6.866,53.89,55.4,30.25,25.15,-3.731,7.069,65.88,50.04,58.89,50.68,17.21,10.93,71.77,11.06,0,0,0,0,0,0,0,0,0,0,0,0,0,0,0,0,
597,34.82,-0.0099,25.51,42.71,22.05,20.84,-1.867,21.91,32.06,14.13,22.55,22.3,0.4376,-37,42.09,-12.11,0,0,0,0,0,0,0,0,0,0,0,0,0,0,0,0,
598,-3.098,-12.75,19.24,-33.03,-31.94,-22.76,1.625,-34.2,-23.13,-62.84,6.637,10.3,-10.24,-56.74,16.4,-17.98,0,0,0,0,0,0,0,0,0,0,0,0,0,0,0,0,
599,8.962,-12.33,-12.86,-28.28,-13.22,0.7237,28.6,-18.82,-6.304,-42.4,18.98,11.34,-0.3664,-29.96,2.315,-2.432,0,0,0,0,0,0,0,0,0,0,0,0,0,0,0,0,
600,23.39,-0.9857,-80.55,2.446,17.57,35.12,33.54,33.48,37.46,19.84,-0.7372,-11.59,-1.836,-6.399,-18.98,-1.754,0,0,0,0,0,0,0,0,0,0,0,0,0,0,0,0,
601,-12.12,-18.26,-35.43,-6.891,5.436,5.828,-17.32,32.78,33.28,27.39,-33.56,-35.06,-11.36,8.044,-36.23,-3.081,0,0,0,0,0,0,0,0,0,0,0,0,0,0,0,0,
602,-37.95,-38.84,81.59,3.158,14.69,-35.32,-51.62,36.55,-42.43,-2.396,-33.5,-39.48,-12.06,8.909,-39.2,9.936,0,0,0,0,0,0,0,0,0,0,0,0,0,0,0,0,
603,-40.18,-39.04,45.45,-10.03,9.85,-55.28,-56.64,-16.93,-102.1,-41.22,-39.07,-55.85,-20.54,-14.51,-47.29,9.307,0,0,0,0,0,0,0,0,0,0,0,0,0,0,0,0,
604,-50.3,-43.73,-62.53,-63.49,-35.78,-60.35,-69.08,-104.3,-50.95,-55.84,-54.18,-71.49,-29.87,-20.19,-50.53,5.946,0,0,0,0,0,0,0,0,0,0,0,0,0,0,0,0,
605,-48.84,-45.82,-48.43,-48.58,-30.84,-41.07,-60.73,-36.13,16.47,-40.26,-41.02,-59.74,-27.53,-3.372,-35.78,19.03,0,0,0,0,0,0,0,0,0,0,0,0,0,0,0,0,
606,-42.57,-38.83,-24.57,-17.61,13.71,-14.01,-49.3,53.81,11.49,-28.41,-29.97,-50.13,-34.23,-7.321,-29.45,20.36,0,0,0,0,0,0,0,0,0,0,0,0,0,0,0,0,
607,-51.68,-45.36,-65.27,-70.22,23.37,-19.15,-71.32,-16.83,0.4172,-34.25,-36.45,-51.31,-49.12,-22.08,-31.09,5.121,0,0,0,0,0,0,0,0,0,0,0,0,0,0,0,0,
608,-45.76,-54.93,-55.23,-115.1,16.49,-57.73,-72.55,-74.26,-25.33,-57.07,-33.17,-41.89,-54.91,-30.95,-20.02,-9.104,0,0,0,0,0,0,0,0,0,0,0,0,0,0,0,0,
609,-22.67,-50.73,-25.12,-97.64,12.17,-69.61,-32.88,-52.44,-72.39,-46.68,-24.98,-26.14,-51.47,-38.54,-6.034,-18.97,0,0,0,0,0,0,0,0,0,0,0,0,0,0,0,0,
610,-9.266,-39.36,-30.07,-67.77,15.09,-24.98,-9.001,-64.23,-31.94,-4.338,-15.61,-7.733,-40.55,-38.03,5.311,-18.92,0,0,0,0,0,0,0,0,0,0,0,0,0,0,0,0,
611,-1.045,-27.29,10.44,-23,41.68,19.88,-11.94,-66.03,44.22,-38.01,-2.904,11.85,-28.36,-39.4,17.96,-7.905,0,0,0,0,0,0,0,0,0,0,0,0,0,0,0,0,
612,14.36,-22.56,52.64,23.88,53.79,36.64,-4.498,-40.8,34.78,-75.18,5.527,26.36,-11.39,-29.72,28.83,20.99,0,0,0,0,0,0,0,0,0,0,0,0,0,0,0,0,
613,44.09,-16.67,0.3389,17.99,38.55,39.67,13.31,-50.06,12.92,0.9598,17.55,40.56,14.48,-0.0698,33.94,64.67,0,0,0,0,0,0,0,0,0,0,0,0,0,0,0,0,
614,59.34,0.7847,-38.91,-21.05,54.87,21.26,13.42,-55.82,34.9,35.46,23.28,42.9,24.85,-8.125,19.43,85.01,0,0,0,0,0,0,0,0,0,0,0,0,0,0,0,0,
615,24.82,17.6,10.63,-24.57,93.4,11.2,23.03,-43.31,44.52,-8.065,4.168,25.1,24.31,-30.67,-6.83,76.61,0,0,0,0,0,0,0,0,0,0,0,0,0,0,0,0,
616,-0.3141,36.51,35.93,-5.279,94.96,25.14,60.01,-35.15,26.38,23.68,-15.43,8.753,35.59,0.904,-16.88,67.56,0,0,0,0,0,0,0,0,0,0,0,0,0,0,0,0,
617,17.7,45.98,0.3973,-14.65,66.73,11.51,53.31,-4.396,-20.33,49.79,-18.42,-4.919,33.85,23.87,-22.52,60.03,0,0,0,0,0,0,0,0,0,0,0,0,0,0,0,0,
618,6.523,24.8,-23.2,-8.126,33.3,-2.209,8.903,14.31,-56.49,7.12,-25.81,-23.67,21.37,18.12,-35.03,61.97,0,0,0,0,0,0,0,0,0,0,0,0,0,0,0,0,
619,-21.8,15.64,-16.53,36.13,3.762,28.19,12.45,-10.95,-16.9,9.541,-36.65,-34.69,27.57,42.56,-35.02,74.16,0,0,0,0,0,0,0,0,0,0,0,0,0,0,0,0,
620,-12.11,30.95,2.534,44.48,-13.24,21.83,27.52,-2.289,15.11,8.834,-33.28,-38.65,26.83,45.28,-27.94,71.09,0,0,0,0,0,0,0,0,0,0,0,0,0,0,0,0,
621,-6.76,22.7,6.801,31.07,-25.63,-31.11,8.105,31.22,-20,-23.08,-20.68,-30.45,15.36,15.01,-18.46,68.7,0,0,0,0,0,0,0,0,0,0,0,0,0,0,0,0,
622,-10.73,6.402,6.226,33.52,-14.63,-24.58,3.185,-5.626,0.0572,9.97,1.054,-2.205,17.66,15.74,4.112,79.95,0,0,0,0,0,0,0,0,0,0,0,0,0,0,0,0,
623,2.727,1.269,29.1,5.15,17.57,13.27,16.44,-49.86,36.59,5.722,25.19,17.56,9.481,2.411,23.21,67,0,0,0,0,0,0,0,0,0,0,0,0,0,0,0,0,
624,0.6856,-11.04,-3.762,-40.92,3.324,-12.6,22.68,-28.19,-34.98,-85.56,27.9,22.18,-5.737,-29.61,39.59,43.26,0,0,0,0,0,0,0,0,0,0,0,0,0,0,0,0,
625,-13.38,-11.41,-80.78,-65.91,-21.09,-50.05,15.03,-32.32,-48.96,-68.58,29.3,31.4,2.027,-12.69,72.2,50.99,0,0,0,0,0,0,0,0,0,0,0,0,0,0,0,0,
626,-17.03,-0.5562,-51.07,-56.44,20.08,-23.19,-5.788,-62.17,52.54,34,47.36,33.89,13.16,12.18,94.25,62.72,0,0,0,0,0,0,0,0,0,0,0,0,0,0,0,0,
627,-10.11,5.012,1.317,3.051,32.33,16.61,-7.308,-25.83,52.84,27.02,44.97,27.91,14.56,8.79,79.65,50.76,0,0,0,0,0,0,0,0,0,0,0,0,0,0,0,0,
628,10.08,13.73,-33.17,21.87,-25.64,2.72,-7.62,9.355,-1.855,-23.87,20.77,23.22,11.06,3.511,48.41,35.44,0,0,0,0,0,0,0,0,0,0,0,0,0,0,0,0,
629,4.776,9.688,-15.15,-35.54,-30.17,-26.73,-21.61,-15.89,3.545,5.528,3.8,16.49,8.888,0.0186,29.35,34.05,0,0,0,0,0,0,0,0,0,0,0,0,0,0,0,0,
630,-10.62,14.31,5.662,-33.99,14.96,-6.415,19.01,-22.64,-39.02,33.89,-7.704,23.09,28.71,18.66,27.68,43.14,0,0,0,0,0,0,0,0,0,0,0,0,0,0,0,0,
631,25.37,54.35,-81.46,19.88,15.15,37.11,76.52,8.786,-37.81,8.507,-7.468,34.28,47.47,45.33,20.68,43.57,0,0,0,0,0,0,0,0,0,0,0,0,0,0,0,0,
632,52.21,69.67,-58.86,30.54,7.186,56.01,72.78,22.07,86.69,21.26,4.824,26.48,45.2,40.72,7.708,40.16,0,0,0,0,0,0,0,0,0,0,0,0,0,0,0,0,
633,50.94,60.88,86.83,48.06,45.13,72.61,75.27,2.102,97.65,82.04,11.59,33.49,61.56,43.63,17.52,59.37,0,0,0,0,0,0,0,0,0,0,0,0,0,0,0,0,
634,93.85,81.5,101.7,73.39,84.66,86.74,108.7,-2.378,16.67,68.83,17.59,62.85,82.94,57.4,35.38,78.41,0,0,0,0,0,0,0,0,0,0,0,0,0,0,0,0,
635,119.1,89.25,60.36,60.41,78.02,70.85,116.3,45.58,42.6,-19.94,20.11,68.91,67.96,35.76,34.92,72.02,0,0,0,0,0,0,0,0,0,0,0,0,0,0,0,0,
636,88.13,68.46,100.9,75.37,62.13,76.29,114.4,79.76,50.17,-29.08,15.55,60.27,52.5,20.39,38.03,67.2,0,0,0,0,0,0,0,0,0,0,0,0,0,0,0,0,
637,95.18,68.93,128.1,119.6,95.7,128.2,118.6,49.22,5.917,53.06,31.68,67.61,61.7,42.28,57.46,71.44,0,0,0,0,0,0,0,0,0,0,0,0,0,0,0,0,
638,127.3,74.86,117.2,116.1,129.4,139.7,104.4,1.433,56.09,56.11,64.92,78.66,63.15,42.31,74.48,68.53,0,0,0,0,0,0,0,0,0,0,0,0,0,0,0,0,
639,112.3,63.3,66.25,79.88,104.2,89.76,81.99,-42.46,103.8,-33.71,77.54,80.04,47.16,12.16,83.79,65.81,0,0,0,0,0,0,0,0,0,0,0,0,0,0,0,0,
640,80.68,60.61,-14.83,35.32,96.22,70.82,86.13,-67.56,87.23,-44.96,78.54,76.76,37.36,16.81,96.71,73.61,0,0,0,0,0,0,0,0,0,0,0,0,0,0,0,0,
641,73.54,61.15,20.92,-0.9537,134,94.04,98.72,-41.3,94.82,14.87,91.25,70.69,34.1,45,107.5,78.81,0,0,0,0,0,0,0,0,0,0,0,0,0,0,0,0,
642,72.78,34.01,113.5,26.02,123.9,81.96,52.06,-14.82,62.94,-6.344,82.72,50.11,9.026,23.15,86.93,54.43,0,0,0,0,0,0,0,0,0,0,0,0,0,0,0,0,
643,47.98,-9.145,69.6,54.53,80.17,45.38,-18.28,-38,-15.95,-63.35,39.67,15.75,-26.74,-20.27,41.19,14.31,0,0,0,0,0,0,0,0,0,0,0,0,0,0,0,0,
644,16.18,-33.13,1.196,0.4253,70.01,42.36,-12.32,-62.25,-16.79,-50.71,15.9,-3.334,-30.26,-13.55,17.12,6.248,0,0,0,0,0,0,0,0,0,0,0,0,0,0,0,0,
645,6.448,-28.09,30.54,-22.66,50.23,50.22,19.6,-41.23,50.63,-3.488,18.41,-3.235,-12.06,16.49,16.07,23.29,0,0,0,0,0,0,0,0,0,0,0,0,0,0,0,0,
646,-6.549,-12.86,63.48,44.14,27.92,41.91,-5.322,3.745,80.09,38.18,0.495,-9.268,-5.455,22.51,3.683,27.91,0,0,0,0,0,0,0,0,0,0,0,0,0,0,0,0,
647,-21.59,-12.8,66.31,63.01,53.92,23.55,-22.42,27.67,-6.712,4.606,-30.57,-17.71,-4.395,0.2297,-19.94,19.54,0,0,0,0,0,0,0,0,0,0,0,0,0,0,0,0,
648,-8.627,-12.91,15.98,2.537,47.03,-5.29,26.46,8.471,-104,-102.1,-44.44,-16.56,3.654,-21.61,-37,11.67,0,0,0,0,0,0,0,0,0,0,0,0,0,0,0,0,
649,-4.617,20.14,-80.86,-37.62,-18.11,-1.201,71.27,-29.53,-20.62,-65.52,-40.42,-14.22,14.37,4.735,-39.35,15.43,0,0,0,0,0,0,0,0,0,0,0,0,0,0,0,0,
650,-21.26,45.17,-46.81,-15.05,-23.89,37.46,37.06,-25.58,93.03,95.43,-21.15,-8.425,16.42,42.52,-30.8,24.67,0,0,0,0,0,0,0,0,0,0,0,0,0,0,0,0,
651,-17.78,17.05,86.75,27.16,15.07,15.11,-32.68,25.63,40.47,94.49,-4.549,-1.346,1.429,22.22,-28.02,15.38,0,0,0,0,0,0,0,0,0,0,0,0,0,0,0,0,
652,-18.57,-19.62,53.02,-5.862,2.447,-47.31,-55.26,44.2,-20.91,-25.23,-12.37,-12.66,-19.37,-11.83,-27.31,-2.649,0,0,0,0,0,0,0,0,0,0,0,0,0,0,0,0,
653,-41.61,-28.59,-92.71,-69.41,-12.13,-42.99,-31.13,22.99,-6.462,-45.23,-17.7,-21.22,-19.66,0.3128,-0.8091,4.707,0,0,0,0,0,0,0,0,0,0,0,0,0,0,0,0,
654,-37.79,-12.46,-97.6,-15.37,10.98,-2.285,4.743,33.35,5.373,14.59,11.28,7.409,4.719,34.39,45.41,35.17,0,0,0,0,0,0,0,0,0,0,0,0,0,0,0,0,
655,-5.682,17.22,-4.511,53.78,5.459,16.34,26.86,58.26,11.33,47.27,39.81,34.16,14.46,37.54,70.25,44.56,0,0,0,0,0,0,0,0,0,0,0,0,0,0,0,0,
656,7.437,16.64,11.96,-6.17,-22.8,22.11,16.23,56.99,-5.026,9.072,34.56,21.51,-10.54,1.918,65.07,13.32,0,0,0,0,0,0,0,0,0,0,0,0,0,0,0,0,
657,-7.54,-10.7,-27.5,-45.63,-19.3,1.552,-2.918,57.22,2.868,-33.09,25.33,5.022,-33.27,-10.71,50.8,-16.56,0,0,0,0,0,0,0,0,0,0,0,0,0,0,0,0,T2
658,-25.34,-20.93,-22.97,17.4,-2.82,-26.48,-15.73,64.77,45.91,-9.145,12.41,-7.821,-47.43,-5.143,24.92,-28.2,0,0,0,0,0,0,0,0,0,0,0,0,0,0,0,0,
659,-30.54,-35.82,-16.47,26.72,-4.128,-18,-35.12,53.04,-14.8,-16.86,-26.31,-42.1,-77.97,-53.2,-12.2,-49.91,0,0,0,0,0,0,0,0,0,0,0,0,0,0,0,0,
660,-38.92,-60.99,-67.94,-45.79,-18.03,-8.372,-41.6,30.85,-77.12,-61.98,-40.81,-65.84,-88.82,-81.03,-29.34,-58.01,0,0,0,0,0,0,0,0,0,0,0,0,0,0,0,0,
661,-54.16,-54.49,-62.83,-58.12,-21.4,-13.79,-28.99,32.79,5.679,-29.93,-14.78,-54.15,-53.99,-20.46,-20.47,-27.42,0,0,0,0,0,0,0,0,0,0,0,0,0,0,0,0,
662,-44.42,-30.39,31.83,-7.896,0.0404,1.215,-13.7,32.44,28.37,-7.785,-6.797,-39.65,-26.52,8.586,-15,-3.709,0,0,0,0,0,0,0,0,0,0,0,0,0,0,0,0,
663,-16.51,-20.47,50.17,-24.68,13.12,3.781,-2.855,-12.91,-40.93,-43,-11.52,-37.18,-28.22,-20,-20.99,-5.342,0,0,0,0,0,0,0,0,0,0,0,0,0,0,0,0,
664,-15.34,-20.2,7.777,-65.73,4.331,-23.6,-15.95,-19.4,7.083,-18.37,-7.069,-38.59,-24.87,-9.405,-27.96,-2.282,0,0,0,0,0,0,0,0,0,0,0,0,0,0,0,0,
665,-39.16,-21.3,10.54,-25.24,9.702,-19.68,-32.55,45.82,45.73,5.632,-24.08,-45.09,-16.42,8.182,-36.17,6.248,0,0,0,0,0,0,0,0,0,0,0,0,0,0,0,0,
666,-48.06,-19.06,-40.68,4.687,14.55,4.295,-20.49,63.11,-49.06,-25.12,-45.24,-44.53,-19.73,-7.655,-41.28,4.996,0,0,0,0,0,0,0,0,0,0,0,0,0,0,0,0,
667,-32.58,-22.71,-116.7,-7.581,-5.274,-9.022,-19.84,40.38,-51.21,-13.9,-36.99,-30.73,-27.17,-21.7,-34.87,-5.833,0,0,0,0,0,0,0,0,0,0,0,0,0,0,0,0,
668,-25.06,-35.32,-60.58,2.037,-19.52,-30.18,-33.8,37.71,32.37,-12.25,-25.75,-20.66,-29.18,-40.61,-20.65,-13.7,0,0,0,0,0,0,0,0,0,0,0,0,0,0,0,0,
669,-29.78,-27.06,21.23,-30.16,-22.87,-28.3,-21.03,17.49,-18.86,-32.07,-19.24,-9.807,-19.01,-44.08,0.104,-4.632,0,0,0,0,0,0,0,0,0,0,0,0,0,0,0,0,
670,-13.42,-3.673,17.23,-56.82,-14.3,-23.4,-17.28,29.79,-67.36,20.13,-0.2638,9.127,-6.442,-16.8,24.35,5.59,0,0,0,0,0,0,0,0,0,0,0,0,0,0,0,0,
671,4.907,-8.527,-0.2743,-24.2,15.74,-9.538,-35.2,51.3,17.75,0.5829,9.28,10.98,-14.39,-20.97,33.47,-4.862,0,0,0,0,0,0,0,0,0,0,0,0,0,0,0,0,
672,-3.69,-26.85,-38.13,-88.1,17.12,10.3,-22.69,-36.04,43.02,-114.4,-1.606,-6.182,-28.74,-37.41,22.44,-17.36,0,0,0,0,0,0,0,0,0,0,0,0,0,0,0,0,
673,-11.19,-25.18,-101.2,-151.3,-18.12,-1.607,-11.43,-90.29,-4.222,-75.91,-8.944,-17.99,-31.76,-21.43,5.603,-20.65,0,0,0,0,0,0,0,0,0,0,0,0,0,0,0,0,
674,-15.84,-28.6,-109.8,-29.47,-26.33,-35.92,-56.47,-7.273,-1.554,22.33,-13.38,-28.8,-42.73,-25.52,-11.92,-35.2,0,0,0,0,0,0,0,0,0,0,0,0,0,0,0,0,
675,-32.23,-50.38,-74.74,50.6,-14.27,-57.01,-100.3,37.93,-25.92,-35.04,-25.53,-47.41,-58.32,-42.29,-30.25,-53.66,0,0,0,0,0,0,0,0,0,0,0,0,0,0,0,0,
676,-44.35,-56.04,-48.54,-31.45,-14.72,-67.92,-74.33,8.32,-77.63,-84.72,-35.21,-61.65,-55.45,-29.02,-44.23,-53.02,0,0,0,0,0,0,0,0,0,0,0,0,0,0,0,0,
677,-49.08,-37.07,-41.03,-74.27,-11.55,-62.85,-18.65,-22.39,-57.35,-23.71,-34.25,-58.52,-40.87,-20.04,-46.88,-38.49,0,0,0,0,0,0,0,0,0,0,0,0,0,0,0,0,
678,-42.55,-21.54,-41.49,-40.55,-5.201,-31.47,-9.083,-50.32,-4.832,13.58,-19.84,-42.59,-25.76,-14.92,-39.43,-20.78,0,0,0,0,0,0,0,0,0,0,0,0,0,0,0,0,
679,-37.27,-18.86,-18.63,-11.04,1.015,-16.87,-27.06,-3.754,2.529,-9.277,-16.35,-42.79,-15.26,-1.683,-42.52,-10.87,0,0,0,0,0,0,0,0,0,0,0,0,0,0,0,0,
680,-48.38,-13.3,-6.087,-9.992,11.57,-34.18,-2.469,68.03,-50.92,-36.86,-45.69,-55.44,-10.79,-6.809,-56.18,-12.02,0,0,0,0,0,0,0,0,0,0,0,0,0,0,0,0,
681,-25.01,-2.247,-32.78,-35.73,8.422,-23.04,37.46,30.51,-59.77,-7.115,-41.93,-30.9,8.409,6.653,-35.97,7.591,0,0,0,0,0,0,0,0,0,0,0,0,0,0,0,0,
682,30.37,9.902,17.54,-1.209,14.96,31.91,40.57,13.54,53.21,58.76,29.62,23.25,46.87,53.54,23.14,53.85,0,0,0,0,0,0,0,0,0,0,0,0,0,0,0,0,
683,52.79,37.64,134.6,95.96,64.15,73.11,55.59,97.01,97.07,38.17,74.15,48.78,68.12,60.49,57.71,72.58,0,0,0,0,0,0,0,0,0,0,0,0,0,0,0,0,
684,55.44,67.38,110.7,117.5,96.69,72.11,85.69,106.4,14.56,-22.07,52.83,34.75,51.5,29.39,39.72,43.8,0,0,0,0,0,0,0,0,0,0,0,0,0,0,0,0,
685,37.94,57.45,-1.34,73.3,61.22,50.22,57.74,41.37,12.82,-2.048,19.45,2.826,19.25,20.91,6.251,6.858,0,0,0,0,0,0,0,0,0,0,0,0,0,0,0,0,
686,-10.17,18.64,-11.28,34.61,-1.643,20.97,9.372,20.44,17.02,13.84,-17.14,-26.44,-7.8,10.29,-18.7,-20.27,0,0,0,0,0,0,0,0,0,0,0,0,0,0,0,0,
687,-25.14,-17.16,-17.99,-45.17,-48.48,-23.02,-0.8838,-4.249,-69.24,-12.86,-48.08,-38.09,-30.8,-35.57,-37.09,-44.54,0,0,0,0,0,0,0,0,0,0,0,0,0,0,0,0,
688,-25.64,-41.7,-52.64,-96.92,-43.07,-55.41,-19.27,-40.71,-33.2,-2.432,-43.26,-37.96,-37.88,-61.07,-39.5,-48.69,0,0,0,0,0,0,0,0,0,0,0,0,0,0,0,0,
689,-50.73,-32.93,24.02,-7.647,21.06,-35.67,-43.12,-11.93,56.98,-0.8455,-19.18,-24.03,-14.94,-27.67,-22.36,-23.21,0,0,0,0,0,0,0,0,0,0,0,0,0,0,0,0,
690,-30.83,-4.307,91.93,91.62,48.17,-6.719,-32.38,51.76,-7.952,-26.43,-2.944,0.9261,1.226,-3.323,-9.146,-8.107,0,0,0,0,0,0,0,0,0,0,0,0,0,0,0,0,
691,4.813,-11.82,50.05,76.39,1.391,-27.72,-30.21,63.31,-54.16,-31.95,-7.552,-4.236,-22.94,-43.75,-15.8,-27.93,0,0,0,0,0,0,0,0,0,0,0,0,0,0,0,0,
692,-25.47,-38.82,3.053,19.92,-28.35,-61.13,-44.21,-9.909,-35.07,-83.28,-31.34,-36.65,-44.87,-79.05,-23.82,-43.72,0,0,0,0,0,0,0,0,0,0,0,0,0,0,0,0,
693,-53.23,-37.4,-75.48,-26.52,-33.78,-58.46,-28.97,-72.89,-96.38,-114.9,-39.44,-41.42,-30.27,-42.98,-15.8,-31.12,0,0,0,0,0,0,0,0,0,0,0,0,0,0,0,0,
694,-40.92,-27.22,-135,-48.69,-46.88,-35.64,-10.94,-15.65,-83.07,0.3781,-20.08,-24.38,-13.41,1.296,-6.92,-19.48,0,0,0,0,0,0,0,0,0,0,0,0,0,0,0,0,
695,-39.55,-23.75,-55.05,-33,-26.87,-32.65,-8.42,35.27,25.77,67.49,-6.723,-16.74,-10.63,-1.77,-6.529,-20.56,0,0,0,0,0,0,0,0,0,0,0,0,0,0,0,0,
696,-26.56,-9.022,8.005,-20.31,-9.537,-59.4,8.216,-21.66,8.913,0.7216,-7.274,-4.344,-3.18,-4.866,0.7539,-13.17,0,0,0,0,0,0,0,0,0,0,0,0,0,0,0,0,
697,2.942,3.313,-1.853,-10.41,-30.74,-64.14,10.7,-21.87,-30.93,16.77,-1.562,5.135,0.4866,8.566,7.777,-1.01,0,0,0,0,0,0,0,0,0,0,0,0,0,0,0,0,
698,-5.411,-1.012,32.43,9.757,-19.75,-31.28,-13.25,34.6,1.071,42.79,5.614,-8.86,-6.937,5.96,-1.328,-3.95,0,0,0,0,0,0,0,0,0,0,0,0,0,0,0,0,
699,-27.78,-4.783,27.05,16.28,-8.823,-23.87,-14.16,-2.702,-48.17,-33.72,3.022,-18.66,-8.143,2.738,-5.99,-14.05,0,0,0,0,0,0,0,0,0,0,0,0,0,0,0,0,
700,-21.8,-5.168,-44.82,21.63,-59.78,-33.69,-4.413,-35.96,-90.42,-24.24,-0.6747,-14.41,-9.048,-6.541,-0.8919,-25.04,0,0,0,0,0,0,0,0,0,0,0,0,0,0,0,0,
701,-11.27,-9.84,-83.26,2.264,-73.39,-14.08,-1.16,-2.883,-15.48,11.86,-9.549,-21.81,-21.56,-50.68,-11.42,-47.65,0,0,0,0,0,0,0,0,0,0,0,0,0,0,0,0,
702,-8.994,-8.564,-77.72,-44.72,-25.06,-5.543,25.85,-0.1404,9.135,-48.15,-24.9,-29.58,-22.12,-63.84,-22.1,-58.63,0,0,0,0,0,0,0,0,0,0,0,0,0,0,0,0,
703,-3.436,3.505,4.056,-29.84,-19.8,-27.05,40.71,-4.7,-42,-12.64,-20.66,-17.62,2.048,-9.312,-5.192,-32.82,0,0,0,0,0,0,0,0,0,0,0,0,0,0,0,0,
704,7.511,18,81.36,15.31,-34.07,-34.35,31.74,-12.53,-36.86,70.75,-0.8955,1.998,26.91,24.1,17.96,-2.129,0,0,0,0,0,0,0,0,0,0,0,0,0,0,0,0,
705,27.1,36.23,20.36,11.72,-3.855,-13.52,60.12,-27.55,3.688,34.4,9.961,22.22,39.3,15.11,27.02,7.554,0,0,0,0,0,0,0,0,0,0,0,0,0,0,0,0,
706,43.87,52.61,-28.8,17.13,9.412,22.53,84.86,31.06,-0.3251,31.44,17.93,35.61,42.94,14.35,29.38,8.569,0,0,0,0,0,0,0,0,0,0,0,0,0,0,0,0,
707,39.46,44.56,15.47,40.21,-15.33,40.37,61.74,54.11,-39.18,54.61,19.99,26.35,36.27,-2.505,24.37,4.826,0,0,0,0,0,0,0,0,0,0,0,0,0,0,0,0,
708,29.39,29.39,-0.7758,23.27,-11.21,23.9,64.02,-30.63,-38.08,-32.71,11.55,14.36,29.91,-32.26,12.4,2.458,0,0,0,0,0,0,0,0,0,0,0,0,0,0,0,0,
709,39.65,45.7,-45,-7.546,3.398,24.3,88.2,-26.54,8.498,-48.41,14.69,29.15,38.6,-11.94,7.809,12,0,0,0,0,0,0,0,0,0,0,0,0,0,0,0,0,
710,59.18,62.48,-9.029,-5.753,-17.8,48.83,68.05,59.07,6.006,75.91,24.23,50.29,50.23,30.97,15.06,19.63,0,0,0,0,0,0,0,0,0,0,0,0,0,0,0,0,
711,58.1,46.04,45.85,26.12,-21.35,36.06,36.48,57.43,-34.16,114.4,17.24,44.26,47.51,30.79,21.36,12.95,0,0,0,0,0,0,0,0,0,0,0,0,0,0,0,0,
712,37.56,35.7,46.49,34.66,4.357,3.797,32,23.07,-17.3,46.2,5.897,19.96,35.78,8.609,19.06,3.313,0,0,0,0,0,0,0,0,0,0,0,0,0,0,0,0,
713,20.92,40.68,-3.926,5.486,-3.148,16.95,35.74,5.055,14.87,19.3,9.233,7.099,25.23,5.043,16.64,1.343,0,0,0,0,0,0,0,0,0,0,0,0,0,0,0,0,
714,18.27,28.16,-34.71,6.075,-17.24,44.63,42.03,-30.99,-6.17,19.82,17.87,8.768,12.48,3.958,15.39,-2.696,0,0,0,0,0,0,0,0,0,0,0,0,0,0,0,0,
715,27.58,11.12,-5.338,17.05,-0.4786,30.19,59.01,-23.54,-8.252,-2.506,17.78,4.616,-3.062,-9.246,6.162,-18.36,0,0,0,0,0,0,0,0,0,0,0,0,0,0,0,0,
716,31.47,7.971,31.52,-7.306,10.21,17.71,77.36,37.51,52.56,8.482,13.29,-7.62,-8.67,-12.24,-6.734,-32.55,0,0,0,0,0,0,0,0,0,0,0,0,0,0,0,0,
717,16.79,6.615,61.54,7.03,20.71,50.19,66.76,52.31,69.55,31.84,4.184,-12.93,-7.689,-12.86,-17.98,-38.73,0,0,0,0,0,0,0,0,0,0,0,0,0,0,0,0,
718,8.41,1.602,75.95,55.01,37.12,64.42,29.68,-4.067,22.16,-5.349,-7.464,-9.684,-14.15,-29.27,-28.76,-46,0,0,0,0,0,0,0,0,0,0,0,0,0,0,0,0,
719,10.05,-3.31,37.34,55.32,26.41,31.88,15.05,-34,25.75,-8.709,-3.611,-6.675,-16.01,-24.04,-32.73,-48.4,0,0,0,0,0,0,0,0,0,0,0,0,0,0,0,0,
720,-11.02,-3.184,-0.0095,39.82,14.13,20.3,20.65,2.702,34.58,57.45,3.255,-6.669,-4.123,8.409,-27.98,-35.29,0,0,0,0,0,0,0,0,0,0,0,0,0,0,0,0,
721,-24.75,8.52,16.12,37.01,13.34,43.13,21.2,7.908,-11.23,49.9,2.772,3.633,11.85,28.39,-14.65,-7.723,0,0,0,0,0,0,0,0,0,0,0,0,0,0,0,0,
722,10.95,31.61,59.85,37.93,1.881,53.26,40.37,-16.55,23.5,11.98,17.07,28.36,27.75,43.27,4.172,18.37,0,0,0,0,0,0,0,0,0,0,0,0,0,0,0,0,
723,34.33,39.6,78.69,61.39,7.644,46.15,53.58,20.71,81.38,33.04,22.12,36.61,26.78,39.03,10.52,20.52,0,0,0,0,0,0,0,0,0,0,0,0,0,0,0,0,
724,6.356,10.35,17.86,62.64,19.97,41.78,27.41,41.88,21.23,1.11,9.328,31.57,11.95,-3.478,12.13,16.15,0,0,0,0,0,0,0,0,0,0,0,0,0,0,0,0,
725,5.516,-6.805,-33.81,9.155,-2.127,41.42,30.98,-4.299,13.1,-26.74,29.25,53.99,26.26,-7.269,31.74,36.76,0,0,0,0,0,0,0,0,0,0,0,0,0,0,0,0,
726,48.25,24.22,29.31,-28.24,-20.04,34.46,77.11,-21.12,70.42,48.23,49.32,74.38,57.44,42.66,46.81,59.71,0,0,0,0,0,0,0,0,0,0,0,0,0,0,0,0,
727,55.56,49.36,63.78,-2.173,-12.6,31.31,79.9,-17.44,12.23,47.28,21.82,55.94,61.06,58.19,37.45,58.76,0,0,0,0,0,0,0,0,0,0,0,0,0,0,0,0,
728,31.51,48.63,-7.746,49.77,-26.52,42.5,41.07,-20.29,-13.77,-24.18,2.698,39.56,50.59,45.08,21.73,46.74,0,0,0,0,0,0,0,0,0,0,0,0,0,0,0,0,
729,20.6,45.91,-26.58,54.75,-67.05,29.09,12.77,6.729,61.11,14.83,4.08,34.57,36.62,44.61,5.324,28.09,0,0,0,0,0,0,0,0,0,0,0,0,0,0,0,0,
730,2.055,23.85,14.5,12.96,-78.36,-9.757,-7.856,9.5,48.56,56.18,-15.97,17.69,11.35,28.05,-9.605,1.305,0,0,0,0,0,0,0,0,0,0,0,0,0,0,0,0,
731,-22.48,-8.09,-5.011,-7.648,-48.55,-19.07,-24.8,-16.63,13.18,14.61,-26.16,13.55,-3.08,5.425,-10.61,-18.42,0,0,0,0,0,0,0,0,0,0,0,0,0,0,0,0,
732,-18.23,-13.75,-44.38,-19.72,-43.55,-17.47,-24.34,-5.93,36.35,7.682,-4.59,24.95,-0.8092,11.12,-5.881,-23.63,0,0,0,0,0,0,0,0,0,0,0,0,0,0,0,0,
733,0.3478,-3.603,-34.12,-25.49,-62.76,-34.65,-3.681,-5.389,18.63,28.89,2.514,20.35,-1.141,12.57,-10.64,-24.63,0,0,0,0,0,0,0,0,0,0,0,0,0,0,0,0,
734,-7.897,0.9356,-19.21,5.316,-54.14,-45.5,8.26,-41.93,-6.986,24.87,-15.81,3.919,-6.58,-13.57,-21.3,-30.37,0,0,0,0,0,0,0,0,0,0,0,0,0,0,0,0,
735,-39.03,-2.683,-21.73,-8.695,-66.25,-48.46,-15.46,-54.28,-13.87,27.09,-20.11,-3.655,-6.975,-23.24,-21.76,-32.85,0,0,0,0,0,0,0,0,0,0,0,0,0,0,0,0,
736,-36.63,-2.093,-8.963,-41.82,-97.47,-26.07,-31.11,-26.01,-38.14,41.59,-4.125,3.324,4.83,0.0736,-8.53,-23.19,0,0,0,0,0,0,0,0,0,0,0,0,0,0,0,0,
737,1.312,10.41,-19.84,-8.071,-77.48,14.79,-9.617,6.413,-26.74,35.99,2.751,12.15,11.33,2.818,-3.24,-14.62,0,0,0,0,0,0,0,0,0,0,0,0,0,0,0,0,
738,2.509,12.08,-76.89,-40.93,-77.69,-7.73,0.6654,-17.2,-2.436,-10.7,-0.7226,8.605,-7.805,-23.63,-13.68,-15.78,0,0,0,0,0,0,0,0,0,0,0,0,0,0,0,0,
739,-27.67,-2.641,-76.08,-105.9,-108.3,-61.98,-9.505,-75.68,-6.296,-33.05,6.136,6.826,-25.99,-19.02,-16.72,-8.736,0,0,0,0,0,0,0,0,0,0,0,0,0,0,0,0,
740,-25.5,-9.146,-6.758,-10.18,-59.97,-47.13,-10.98,-50.24,25.51,16.38,18.61,17.57,-15.94,14.54,-4.169,11.99,0,0,0,0,0,0,0,0,0,0,0,0,0,0,0,0,
741,-4.677,-6.774,19.56,75.06,-19.46,-2.608,-13.53,33.23,67.64,30.69,15.85,19.31,-5.142,18.08,-0.9163,19.53,0,0,0,0,0,0,0,0,0,0,0,0,0,0,0,0,
742,-5.824,-11.71,9.31,22.71,-80.89,3.522,-14.56,39.33,28.43,-8.046,-5.085,3.272,-19.18,-5.922,-20.92,1.767,0,0,0,0,0,0,0,0,0,0,0,0,0,0,0,0,
743,-14.63,-17.52,2.322,18.11,-122.6,-9.354,14.17,1.67,-43.52,-1.059,-19.08,-4.283,-31.32,-14.73,-36.19,-18.52,0,0,0,0,0,0,0,0,0,0,0,0,0,0,0,0,
744,-1.599,-3.729,-12.35,45.66,-98.46,-3.984,52.42,10.48,-28.61,-6.081,-9.055,5.913,-25.22,-16.45,-30.4,-33.75,0,0,0,0,0,0,0,0,0,0,0,0,0,0,0,0,
745,6.582,11.06,-1.256,19.4,-92.94,13.02,48.26,2.292,24.95,-57.8,-2.41,5.091,-28.16,-38.91,-29.8,-54,0,0,0,0,0,0,0,0,0,0,0,0,0,0,0,0,
746,-18.41,-0.1799,3.243,22.07,-117,2.51,27.04,-48.11,6.929,-21.14,-11.84,-1.937,-28.47,-46.19,-30.97,-59.17,0,0,0,0,0,0,0,0,0,0,0,0,0,0,0,0,
747,-15.12,3.752,-44.36,28.21,-123.3,-7.195,43.54,-25.98,7.698,86.89,-1.724,18.48,1.671,-16.7,-13.34,-43.28,0,0,0,0,0,0,0,0,0,0,0,0,0,0,0,0,
748,26.29,27.81,-38.92,8.558,-98.89,20.45,45.19,37.76,43.8,85.6,19.17,35.88,15.38,-20.38,-6.503,-44.33,0,0,0,0,0,0,0,0,0,0,0,0,0,0,0,0,
749,17.07,10.67,51.19,23.11,-82.58,15.33,11.74,2.436,-20.65,-12.36,8.824,19.59,-0.4178,-51,-13.86,-47.05,0,0,0,0,0,0,0,0,0,0,0,0,0,0,0,0,
750,-17.8,-2.905,102,28.8,-91.69,-26.63,26.13,-49.11,-55.61,-34.77,2.113,14.38,19.17,-9.309,7.145,-2.27,0,0,0,0,0,0,0,0,0,0,0,0,0,0,0,0,
751,-11.31,35.88,78.65,14.51,-95.53,-28.23,35.84,1.386,26.85,19.39,26.18,26.07,52.51,57.56,35.59,46.87,0,0,0,0,0,0,0,0,0,0,0,0,0,0,0,0,
752,-13.53,33.23,34.38,40.41,-95.86,-31.79,-35.44,54.15,12.54,35.03,21.86,10.93,37.04,50.26,29.64,49.37,0,0,0,0,0,0,0,0,0,0,0,0,0,0,0,0,
753,-35.65,-20,-13.34,71.05,-102.3,-73.64,-67.69,41.47,-52.42,13.35,-7.846,-10.78,11.56,29.41,13.31,44.52,0,0,0,0,0,0,0,0,0,0,0,0,0,0,0,0,
754,-33.89,-27.42,-63.72,45.54,-108.3,-86.96,-33.81,3.888,-8.953,-18.04,-6.653,-14.26,1.94,34.3,1.282,39.13,0,0,0,0,0,0,0,0,0,0,0,0,0,0,0,0,
755,-43.87,-27.12,-87.48,-32.86,-122.5,-72.97,-53.18,-39.08,3.811,-37.57,-3.706,-26.6,-26.43,14.65,-20.07,4.723,0,0,0,0,0,0,0,0,0,0,0,0,0,0,0,0,
756,-79.13,-64.43,-45.17,-73.99,-121.5,-70.84,-89.83,-38.13,-31.51,4.043,-15.7,-39.41,-51.57,1.834,-30.86,-20.55,0,0,0,0,0,0,0,0,0,0,0,0,0,0,0,0,
757,-79.24,-71.39,3.281,-26.35,-103.9,-65.37,-90.48,-8.469,-16.12,17.29,-13.63,-35.37,-57.65,2.805,-32.48,-29.29,0,0,0,0,0,0,0,0,0,0,0,0,0,0,0,0,
758,-54.16,-63.25,-40.69,-12.51,-119.1,-62.26,-101.3,-42.98,-48.35,-49.22,-23.82,-43.41,-81.68,-38.82,-51.89,-55.8,0,0,0,0,0,0,0,0,0,0,0,0,0,0,0,0,
759,-59.36,-79.79,-97.1,-47.47,-137.9,-70.1,-80.07,-79.06,-98.29,-50.01,-39.85,-51.8,-95.37,-61.15,-58.11,-63.72,0,0,0,0,0,0,0,0,0,0,0,0,0,0,0,0,
760,-63.59,-65.45,-54.07,-28.52,-116.9,-57.92,-31.46,-39.31,-25.53,-24.54,-21.46,-30.85,-72.45,-34.58,-37.57,-49.14,0,0,0,0,0,0,0,0,0,0,0,0,0,0,0,0,
761,-37.64,-49.7,-0.4046,-46.53,-87.29,-31.71,-58.54,-28.38,43.42,-88.88,-11.38,-19.18,-69.54,-52.66,-36.11,-67.49,0,0,0,0,0,0,0,0,0,0,0,0,0,0,0,0,
762,-32.76,-78.87,-10.57,-91.54,-60.19,-34.76,-90.45,-76.85,-7.367,-83.85,-29.07,-30.68,-75.18,-72.05,-40.95,-86.06,0,0,0,0,0,0,0,0,0,0,0,0,0,0,0,0,
763,-47.1,-65.04,-1.961,-11.31,-46.88,-60.57,-33.89,-78.46,-33.64,19.43,-25.92,-27.25,-40.68,-22.92,-22.68,-66.98,0,0,0,0,0,0,0,0,0,0,0,0,0,0,0,0,
764,-30.79,-13.51,29.99,49.64,-62.79,-57.74,7.891,-33.67,-1.94,29.29,-15.27,-20.33,-19.88,-11.31,-19.9,-53.75,0,0,0,0,0,0,0,0,0,0,0,0,0,0,0,0,
765,-15.79,-18.83,-2.344,-10.21,-68.88,-25.37,-9.589,-10.27,-50.24,-13.25,-34.93,-32.9,-34.43,-49.79,-37.99,-46.31,0,0,0,0,0,0,0,0,0,0,0,0,0,0,0,0,
766,-39.45,-34.32,-36.09,-17.45,-61.17,-14.13,-9.631,3.505,-98.75,6.22,-52.54,-40.16,-22.61,-25.58,-34.48,-15.21,0,0,0,0,0,0,0,0,0,0,0,0,0,0,0,0,
767,-56.43,-15.02,13.55,13.57,-62.14,-22.71,-1.343,24.71,-8.702,17.74,-35.89,-30.76,2.362,19.22,-18.41,8.426,0,0,0,0,0,0,0,0,0,0,0,0,0,0,0,0,
768,-41.81,-18.51,11.09,-6.175,-58.05,-26.6,-22.35,11.6,58.5,-24.09,-19.95,-26.91,-6.852,7.716,-19.5,5.81,0,0,0,0,0,0,0,0,0,0,0,0,0,0,0,0,
769,-32.35,-40.65,-83.52,-6.828,-65.07,-39.82,-38.42,-35.79,4.418,-56.86,-23.31,-27.63,-17.01,3.259,-18.95,7.639,0,0,0,0,0,0,0,0,0,0,0,0,0,0,0,0,
770,-28.65,-36.14,-60.05,7.418,-78.52,-38.27,-33.12,-46.39,-4.651,-35.7,-7.957,-13.85,-6.036,22.55,-2.091,12.28,0,0,0,0,0,0,0,0,0,0,0,0,0,0,0,0,
771,-16.4,-28.15,42.52,1.369,-57.5,-14.4,-39.58,-29.53,32.3,-21.07,11.92,-11.19,-20.66,-10.08,-7.646,-15.36,0,0,0,0,0,0,0,0,0,0,0,0,0,0,0,0,
772,-34.29,-45.08,4.096,-16.97,-40.28,-30.06,-53.44,-50.99,5.718,-79.3,-4.89,-35.38,-55.27,-61.61,-38.85,-56.41,0,0,0,0,0,0,0,0,0,0,0,0,0,0,0,0,
773,-56.62,-46.95,-50.87,-52.13,-54.12,-47.62,-34.43,-54.18,-22.1,-108.7,-16.46,-31.41,-48.01,-45.84,-40.41,-60.81,0,0,0,0,0,0,0,0,0,0,0,0,0,0,0,0,
774,-17.38,-10.79,23.67,-43.63,-49.66,-8.137,-0.3435,7.068,-17.09,-25.34,3.679,-0.2921,-20.56,-11.71,-23.03,-43.38,0,0,0,0,0,0,0,0,0,0,0,0,0,0,0,0,
775,9.475,4.37,59.57,5.618,-36.73,5.325,4.744,44.94,-6.377,34.99,10.78,-5.498,-24.49,-19.28,-31.57,-41.27,0,0,0,0,0,0,0,0,0,0,0,0,0,0,0,0,
776,-25.78,-14.62,-12.62,7.616,-50.96,-27.71,-6.325,41.6,16.08,-10.94,-3.644,-25.43,-27.85,-15.03,-39.77,-37.9,0,0,0,0,0,0,0,0,0,0,0,0,0,0,0,0,
777,-30.35,-10.32,-62.85,-1.831,-51.67,-25.31,-13.53,52.06,2.791,-35.38,-16.97,-22.52,-12.04,8.751,-29.24,-20.14,0,0,0,0,0,0,0,0,0,0,0,0,0,0,0,0,
778,-3.631,1.889,-41.91,14.39,-23.78,-1.834,-27.72,43.79,-34.31,-0.0858,-22.73,-17.57,-8.364,-8.71,-24.35,-13.16,0,0,0,0,0,0,0,0,0,0,0,0,0,0,0,0,
779,-11.2,-11.13,-7.993,4.74,-29.4,-10.24,-40.7,-1.757,-25.98,-24.99,-19.12,-9.236,-4.71,-37.23,-21.42,-18.16,0,0,0,0,0,0,0,0,0,0,0,0,0,0,0,0,
780,-21.31,-5.236,-4.717,-13.39,-64.98,-38.24,-23.52,-6.25,-7.961,-58.82,-12.19,9.99,22.05,-10.62,-3.831,-5.534,0,0,0,0,0,0,0,0,0,0,0,0,0,0,0,0,
781,1.525,29.3,16.34,10.92,-47.18,-32.21,18.06,59.63,-1.581,16.75,3.212,34.14,50.8,32.48,26.36,23.72,0,0,0,0,0,0,0,0,0,0,0,0,0,0,0,0,
782,44.07,45.22,38.74,47.39,1.343,20.88,43.78,87.55,11.21,55.83,30.27,58.63,58.57,31.07,49.92,38.21,0,0,0,0,0,0,0,0,0,0,0,0,0,0,0,0,
783,62.95,38.11,-27.85,22.66,-4.135,37.61,34.84,18.16,19.08,-13.91,38.04,52.75,43.87,13.24,48.25,30.66,0,0,0,0,0,0,0,0,0,0,0,0,0,0,0,0,
784,27.33,19.06,-43.86,-36.77,-16.69,2.798,-0.6173,-22.54,49.86,-18.45,21.78,22.65,17.94,7.924,36.41,20.28,0,0,0,0,0,0,0,0,0,0,0,0,0,0,0,0,
785,-3.403,-13.33,60.71,-29.62,8.002,1.308,-26.89,12.85,73.9,19.65,16.65,18.87,3.664,-1.092,34.21,18.38,0,0,0,0,0,0,0,0,0,0,0,0,0,0,0,0,
786,13.77,-20.01,36.79,7.155,8.293,18.67,-0.5911,7.81,36.57,2.546,23.33,32.62,10.34,1.387,33.74,18.15,0,0,0,0,0,0,0,0,0,0,0,0,0,0,0,0,
787,32.29,8.729,-55.83,0.4922,-2.83,15.69,26.49,-18.6,10.01,4.73,16.17,27.48,10.94,11.61,24.98,8.035,0,0,0,0,0,0,0,0,0,0,0,0,0,0,0,0,
788,23.86,10.73,18.91,0.6012,6.852,12.74,-5.527,6.805,12.97,-5.416,-2.536,5.658,-7.663,-4.999,9.978,-3.305,0,0,0,0,0,0,0,0,0,0,0,0,0,0,0,0,
789,-1.027,-8.756,49.96,12.98,-20.48,-9.735,-30.74,8.859,0.3315,-47.42,-10.65,-15.06,-17.08,-12.96,0.9791,-0.0574,0,0,0,0,0,0,0,0,0,0,0,0,0,0,0,0,
790,-15.95,-5.76,-48.06,6.706,-63.99,-38.63,-27.84,-26.79,2.979,-12.25,-6.125,-22.05,-14.4,8.925,2.637,9.49,0,0,0,0,0,0,0,0,0,0,0,0,0,0,0,0,
791,-14.31,-14.08,-21.24,6.072,-48.11,-34.84,-43.28,-24.04,-11.35,25.71,-8.449,-21.85,-14.43,19.97,5.685,19.36,0,0,0,0,0,0,0,0,0,0,0,0,0,0,0,0,
792,-33.88,-29.29,35.6,13.55,-8.753,-35.32,-43.01,-4.687,-47.25,-13.46,-14.56,-21.87,-4.884,28.86,11.77,32.49,0,0,0,0,0,0,0,0,0,0,0,0,0,0,0,0,
793,-56.8,-14.9,-41.56,28.02,-11.98,-45.27,-27.54,-24.16,-6.317,-27.52,-11,-16,1.485,40.47,14.64,33.75,0,0,0,0,0,0,0,0,0,0,0,0,0,0,0,0,
794,-38.68,-13.22,-72.5,17.09,-44.62,-28.63,-27.01,-62.99,38.21,-14.44,-10.2,-6.544,-4.947,33.37,4.133,26.5,0,0,0,0,0,0,0,0,0,0,0,0,0,0,0,0,
795,-8.975,-18.34,2.605,-38.06,-42.86,-6.122,-2.965,-50.76,-7.696,-16.31,-6.255,7.619,10.61,43.6,2.304,34.55,0,0,0,0,0,0,0,0,0,0,0,0,0,0,0,0,
796,6.784,10.02,53.47,-30.63,-4.877,-4.279,13.19,11.75,-24.44,18.78,9.195,16.55,32.12,70.1,9.944,42.73,0,0,0,0,0,0,0,0,0,0,0,0,0,0,0,0,
797,5.046,19.38,37.96,44.44,-8.882,-14.74,-13.49,20.69,35.95,57.92,4.01,3.409,19.82,51.98,0.841,29.02,0,0,0,0,0,0,0,0,0,0,0,0,0,0,0,0,
798,-9.979,-3.286,-14.01,62.77,-33.59,-12.7,-13.53,-17.73,62.95,19.07,-10.68,-0.5095,2.868,2.729,-9.562,9.161,0,0,0,0,0,0,0,0,0,0,0,0,0,0,0,0,
799,7.202,-8.703,-16.82,21.59,-4.208,4.276,10.79,-21.51,5.373,-41.88,1.751,18.12,7.071,-13.72,-4.057,-1.284,0,0,0,0,0,0,0,0,0,0,0,0,0,0,0,0,
800,41.66,1.933,29.32,-32.44,16,8.062,17.37,-38.54,-51.57,-8.266,12.68,19.52,18.18,14.85,0.8991,-1.271,0,0,0,0,0,0,0,0,0,0,0,0,0,0,0,0,
801,32.14,18.3,10.8,-49.52,-9.057,10.01,23.78,-52.1,-1.15,64.08,5.907,3.216,17.2,31.44,-8.512,-6.206,0,0,0,0,0,0,0,0,0,0,0,0,0,0,0,0,
802,6.251,17.16,-18.85,2.215,-6.928,29.62,15.29,25.67,65.56,20.43,-1.913,-12.8,-7.509,1.398,-34.85,-35.23,0,0,0,0,0,0,0,0,0,0,0,0,0,0,0,0,
803,4.896,-8.819,32.98,22.98,11.38,43.61,3.604,76.99,33.12,-49.04,-13.11,-25.16,-24.26,-12.42,-51.97,-57.66,0,0,0,0,0,0,0,0,0,0,0,0,0,0,0,0,
804,12.71,-5.724,56.3,-5.053,8.382,31.77,14.27,16.28,10.98,9.069,-13.38,-19.54,-17.32,6.812,-40.83,-52.05,0,0,0,0,0,0,0,0,0,0,0,0,0,0,0,0,
805,6.288,-0.2231,-2.486,4.701,6.974,-11.99,-13.08,-22.1,28.44,50.4,-8.677,-15.34,-25.64,-6.092,-34.99,-58.71,0,0,0,0,0,0,0,0,0,0,0,0,0,0,0,0,
806,-22.78,-29.6,-28.12,7.503,0.8219,-39.75,-51.27,7.812,15.73,3.341,-18.53,-26.27,-29.96,-18.31,-38.27,-72.47,0,0,0,0,0,0,0,0,0,0,0,0,0,0,0,0,
807,-33.99,-18.51,1.442,-24.34,-18.03,-11.92,-18.74,19.14,12.86,12.85,-17.87,-22.23,-8.478,6.814,-31.09,-61.99,0,0,0,0,0,0,0,0,0,0,0,0,0,0,0,0,
808,-11.71,4.789,-22.14,-43.65,-28.55,-7.086,-0.9908,-19.74,-45.39,20.64,-24.23,-21.42,-16.21,3.631,-39.26,-50.92,0,0,0,0,0,0,0,0,0,0,0,0,0,0,0,0,
809,-21.33,-31.57,-106.4,-51.55,-25.92,-33.5,-41.02,-66.45,-139.8,-24.7,-51.51,-42.43,-34.72,-8.897,-48.05,-31.49,0,0,0,0,0,0,0,0,0,0,0,0,0,0,0,0,
810,-53.46,-39.62,-113.4,-33.57,-23.48,-18.38,-36.28,-63.76,-63.49,11.04,-36.91,-45.52,-15.73,16.32,-25.48,5.356,0,0,0,0,0,0,0,0,0,0,0,0,0,0,0,0,
811,-45.19,-12.09,-11.34,-24.27,-33.78,-29.46,-12.04,-26.09,41.98,48.33,-3.436,-38.98,-12.5,19.65,-18.71,7.699,0,0,0,0,0,0,0,0,0,0,0,0,0,0,0,0,
812,-39.64,-35.58,51.55,-63.65,-27.48,-87.06,-45.57,1.19,-5.524,2.468,-10.49,-48.69,-31.08,5.686,-37.39,-11.45,0,0,0,0,0,0,0,0,0,0,0,0,0,0,0,0,
813,-64.95,-54.77,11.92,-45.76,4.564,-84.8,-74.38,14.98,-6.063,3.346,-6.174,-47.47,-22.82,16.5,-27.94,-5.231,0,0,0,0,0,0,0,0,0,0,0,0,0,0,0,0,
814,-61.04,-39.05,-36.72,22.66,9.125,-40.95,-55.81,-0.2091,41.02,1.884,32.12,-24.59,-7.101,12.17,13.43,13.1,0,0,0,0,0,0,0,0,0,0,0,0,0,0,0,0,
815,-16.92,-30.4,-40.91,-3.596,27.45,-5.221,-17.96,-20.49,6.367,-42.6,75.58,22.77,24.55,23.14,72.09,51.84,0,0,0,0,0,0,0,0,0,0,0,0,0,0,0,0,
816,42.46,10.85,-1.099,-41.53,106.6,38.91,26.7,7.48,37.25,22.7,123.4,82.85,79.75,78.5,116.5,94.12,0,0,0,0,0,0,0,0,0,0,0,0,0,0,0,0,
817,88.03,58.09,71.75,35.93,112.3,49.3,33.25,31.29,94.2,88.67,124.5,84.64,82.63,73.82,92.67,69.73,0,0,0,0,0,0,0,0,0,0,0,0,0,0,0,0,
818,67.13,38.08,77.88,74.2,5.194,10.26,-6.364,-4.673,19.24,7.595,61.5,34.14,43.9,13.16,40.22,13.35,0,0,0,0,0,0,0,0,0,0,0,0,0,0,0,0,
819,17.13,19.09,-20.47,-28.45,-41.73,-24.38,-5.878,-51.28,-12.4,-37.19,28.14,20.35,38.77,2.601,24.28,-6.588,0,0,0,0,0,0,0,0,0,0,0,0,0,0,0,0,
820,14.29,35.94,-68.94,-88.52,9.27,-30.77,31.04,-48.53,60.85,12.8,36.32,26.36,31.44,4.105,9.499,-28.12,0,0,0,0,0,0,0,0,0,0,0,0,0,0,0,0,
821,18,14.57,-22.02,-14.55,38.15,-12.57,10.58,-3.075,35.09,15.52,16.21,1.38,-8.052,-29.81,-23.89,-69.79,0,0,0,0,0,0,0,0,0,0,0,0,0,0,0,0,
822,-2.11,-33.16,-2.414,45.01,22.43,-13.17,-50.41,8.692,-44.1,-14.27,-10.8,-19.51,-31.47,-52.96,-38.4,-89.45,0,0,0,0,0,0,0,0,0,0,0,0,0,0,0,0,
823,-11.88,-49.58,-5.328,13.03,15.14,-59.68,-75.07,-41.27,-30.73,-33.87,-15.65,-27.12,-32.73,-62.88,-39.79,-82.09,0,0,0,0,0,0,0,0,0,0,0,0,0,0,0,0,
824,-26.77,-37.82,4.432,-41.53,22.64,-74.43,-62.38,-74.95,-22.84,-57.78,-29.51,-35.32,-23.73,-54.54,-39.02,-49.38,0,0,0,0,0,0,0,0,0,0,0,0,0,0,0,0,
825,-34.93,-13.6,-9.405,-63.9,17.87,-22.26,-42.29,-48.17,-55.79,-37.75,-34.59,-19.11,3.021,-0.6406,-19.74,6.976,0,0,0,0,0,0,0,0,0,0,0,0,0,0,0,0,
826,-7.504,1.797,5.696,-42.75,-0.8574,0.9424,-32.16,-3.71,-16.39,9.836,-20.07,-7.274,13.58,41.3,-6.486,36.46,0,0,0,0,0,0,0,0,0,0,0,0,0,0,0,0,
827,-15.98,-12.48,35.4,-10.97,-8.738,-52.4,-47.72,-9.924,20.92,0.6388,-38.69,-45.31,-20.56,22.09,-27.63,16.29,0,0,0,0,0,0,0,0,0,0,0,0,0,0,0,0,
828,-76.81,-40.15,-21.59,-21.09,-3.718,-97.91,-70.84,-63.42,-37.61,-28.42,-68.23,-79.88,-57.75,-5.634,-48.13,-5.402,0,0,0,0,0,0,0,0,0,0,0,0,0,0,0,0,
829,-89.83,-52.01,-78.07,-55.12,-0.6482,-74.64,-61.7,-67.31,-57.64,-15.91,-55.95,-67.46,-61.43,-0.612,-43.47,-6.832,0,0,0,0,0,0,0,0,0,0,0,0,0,0,0,0,
830,-56.19,-46.55,-56.88,-57.08,-7.14,-49.46,-47.49,-29.54,-22.03,-13.71,-47.31,-56.22,-59.94,3.694,-43.42,-14.57,0,0,0,0,0,0,0,0,0,0,0,0,0,0,0,0,
831,-60.23,-56.11,-56.76,-37.82,-25.66,-79.24,-83.48,-36.03,-43.03,-32.89,-56.84,-61.4,-71.28,-17.82,-47.64,-27.6,0,0,0,0,0,0,0,0,0,0,0,0,0,0,0,0,
832,-78.18,-81.76,-75.06,-42.29,-22.03,-97.35,-113.9,-44.54,-27.74,-17.78,-36.48,-46.41,-63.56,-34.65,-31.63,-23.74,0,0,0,0,0,0,0,0,0,0,0,0,0,0,0,0,
833,-57.32,-69.96,-56.18,-62.65,18.92,-61.16,-72.5,-39.91,26.25,-16.76,-17.64,-27.43,-39,-33.13,-19.38,-17.16,0,0,0,0,0,0,0,0,0,0,0,0,0,0,0,0,
834,-40.03,-28.28,-41.71,-69.25,28.13,-34.57,-36.61,-72.81,-43.55,-64.58,-35.08,-28.31,-33.13,-43.26,-25.66,-31.16,0,0,0,0,0,0,0,0,0,0,0,0,0,0,0,0,
835,-40.26,-19.13,-18,-61.76,-2.98,-42.68,-54.05,-68.43,-104.3,-52.01,-40.31,-19.55,-33.34,-55.45,-23.65,-48.53,0,0,0,0,0,0,0,0,0,0,0,0,0,0,0,0,
836,-15.63,-29.69,14.25,-55.83,0.0422,-45.95,-52.68,-0.1417,-19.35,26.9,-23.59,-1.429,-20.3,-36.11,-16.38,-49.66,0,0,0,0,0,0,0,0,0,0,0,0,0,0,0,0,
837,-3.13,-23.15,-18.58,-56.25,17.21,-35.33,-33.74,20.83,29.01,34.33,-27.39,-9.119,-15.38,-16.39,-22.73,-51.3,0,0,0,0,0,0,0,0,0,0,0,0,0,0,0,0,
838,-33.27,-20.36,-47.87,-22.83,3.459,-18.93,-50.49,-14.36,-10.61,-17.42,-44.17,-31.55,-24.29,-30.25,-35.05,-61.51,0,0,0,0,0,0,0,0,0,0,0,0,0,0,0,0,
839,-42.16,-26.48,3.344,37.48,-6.95,-10.4,-62.52,-35.93,-37.75,-21.37,-45.78,-38.49,-24.67,-34.22,-42.14,-59.7,0,0,0,0,0,0,0,0,0,0,0,0,0,0,0,0,
840,-22.41,-14.5,19.29,17.56,-10.86,-30.98,-37.96,-33.24,-46.83,-7.058,-40.6,-34.54,-16.42,-9.639,-45.48,-48.13,0,0,0,0,0,0,0,0,0,0,0,0,0,0,0,0,
841,-30.02,-3.345,-44.1,-52.22,-27.75,-54.85,-30.81,-15.06,-21.99,-18.83,-42.28,-39.04,-21.99,-12.06,-56.43,-48.81,0,0,0,0,0,0,0,0,0,0,0,0,0,0,0,0,
842,-51.92,-23.42,-76.43,-47.27,-41.67,-46.62,-50.3,-16.23,-23.34,-10.61,-45.88,-45.87,-31.87,-30.54,-66.47,-45.96,0,0,0,0,0,0,0,0,0,0,0,0,0,0,0,0,
843,-39.15,-31.05,-58.42,-37.13,-47.54,-27.5,-35.97,-73.17,-99.5,-3.508,-41.65,-36.57,-21.7,-11.09,-55.47,-21.28,0,0,0,0,0,0,0,0,0,0,0,0,0,0,0,0,
844,-6.813,1.563,-39.95,-56.94,-37.46,-21.71,1.597,-120,-92.28,-44.84,-31.01,-29.44,-15.52,2.112,-43.7,-7.076,0,0,0,0,0,0,0,0,0,0,0,0,0,0,0,0,
845,-13.28,11.51,-11.25,-3.442,-11.83,-17.09,1.943,-70.07,14.92,-49,-23.83,-37.74,-25.52,-14.47,-40.45,-14.62,0,0,0,0,0,0,0,0,0,0,0,0,0,0,0,0,
846,-39.57,-16.5,26.39,32.81,0.0773,-8.32,-23.69,19.79,44.58,5.598,-20.33,-33.93,-24.1,-12.55,-21.29,-13.59,0,0,0,0,0,0,0,0,0,0,0,0,0,0,0,0,
847,-27.59,-29.91,16.24,-30.62,1.242,-15.84,-45.28,34.02,-10.61,-4.456,-17.47,-22.86,-22.41,-12.91,-2.289,-6.96,0,0,0,0,0,0,0,0,0,0,0,0,0,0,0,0,
848,-11.79,-21.11,-23.82,-39.59,7.746,-28.87,-48.47,2.675,-40.62,-40.1,-13.83,-21.53,-24.1,-20.25,3.158,-2.978,0,0,0,0,0,0,0,0,0,0,0,0,0,0,0,0,
849,-7.713,-3.455,8.25,19.91,9.826,-7.084,-25.49,15.87,-11.03,-12,-6.164,-14.41,-13.04,-4.485,13.01,0.7245,0,0,0,0,0,0,0,0,0,0,0,0,0,0,0,0,
850,15.03,-3.771,45.82,19.32,0.5327,11.17,-32.19,14.1,-1.98,-40.45,-5.602,-10.35,-19.85,-24.04,14.19,-15.55,0,0,0,0,0,0,0,0,0,0,0,0,0,0,0,0,
851,-0.3341,-34.01,-51.45,-24.82,-19.45,-26.28,-63.8,-70.06,-62.54,-113.1,-10.78,-8.985,-27.81,-63.71,7.707,-28.49,0,0,0,0,0,0,0,0,0,0,0,0,0,0,0,0,
852,-40.65,-26.34,-124.6,-72.71,-26.11,-46.88,-26.75,-111.8,-49.31,-48.79,5.008,16.56,7.396,-34.46,18.25,-5.086,0,0,0,0,0,0,0,0,0,0,0,0,0,0,0,0,
853,-5.58,22.32,-13.51,-73.77,1.541,-4.435,29.04,-8.949,64.05,62.65,31.56,41.89,37.55,5.871,28.18,12.53,0,0,0,0,0,0,0,0,0,0,0,0,0,0,0,0,
854,39.44,34.84,85.41,33.82,25.04,22.31,16.54,96.4,73.94,55.25,32.34,38.45,38.4,3.835,19.42,5.617,0,0,0,0,0,0,0,0,0,0,0,0,0,0,0,0,
