%OpenBCI Raw EXG Data
%Number of channels = 16
%Sample Rate = 125 Hz
%Board = OpenBCI_GUI$BoardCytonSerialDaisy
Sample Index,EXG Channel 0,EXG Channel 1,EXG Channel 2,EXG Channel 3,EXG Channel 4,EXG Channel 5,EXG Channel 6,EXG Channel 7,EXG Channel 8,EXG Channel 9,EXG Channel 10,EXG Channel 11,EXG Channel 12,EXG Channel 13,EXG Channel 14,EXG Channel 15,Accel Channel 0,Accel Channel 1,Accel Channel 2,Other,Other.1,Other.2,Other.3,Other.4,Other.5,Other.6,Analog Channel 0,Analog Channel 1,Analog Channel 2,Timestamp,Other.7,Timestamp (Formatted),Annotations
1,-0.0,-0.0,0.0,-0.0,0.0,0.0,0.0,0.0,-0.0,-0.0,-0.0,-0.0,-0.0,0.0,-0.0,0.0,0,0,0,0,0,0,0,0,0,0,0,0,0,0,0,0,T0
2,19.38,6.46,5.685,19.81,-6.495,-4.982,23.94,2.493,4.401,6.822,-5.781,-10.45,-11.44,-11.34,-16.35,-7.786,0,0,0,0,0,0,0,0,0,0,0,0,0,0,0,0,
3,-16.49,6.575,-24.98,1.371,-12.04,-5.509,-4.66,-14.41,-7.925,-7.213,-18.83,-21.67,-21.27,-19.19,-23.83,-15.05,0,0,0,0,0,0,0,0,0,0,0,0,0,0,0,0,
4,-23.49,3.384,-20.62,-4.656,-7.312,-3.155,-6.368,-7.829,-3.352,-9.528,-23.51,-11.65,-24.11,-25.96,-25.54,-22.19,0,0,0,0,0,0,0,0,0,0,0,0,0,0,0,0,
5,24.94,-1.556,30.33,17.39,-7.927,-10.95,20.4,8.136,-2.942,-8.653,-16.01,-0.4828,-19.16,-28.93,-17.7,-20.44,0,0,0,0,0,0,0,0,0,0,0,0,0,0,0,0,
6,37.51,-7.319,52.26,12.17,-9.332,-15.52,23.77,-2.804,-8.371,-12.66,4.392,-10.92,-0.4809,-17.91,4.122,-4.628,0,0,0,0,0,0,0,0,0,0,0,0,0,0,0,0,
7,-0.8474,-15.26,25.03,-11.07,-0.3933,-4.996,25.73,-8.599,17.36,-1.808,19.79,-13.53,11.71,-7.945,8.819,-1.19,0,0,0,0,0,0,0,0,0,0,0,0,0,0,0,0,
8,-15.89,-12.14,-2.826,10.14,-6.021,-2.68,11.43,4.194,25.45,-1.35,-5.586,-1.51,-16.22,-23.76,-25.91,-28.23,0,0,0,0,0,0,0,0,0,0,0,0,0,0,0,0,
9,4.548,14.92,-1.34,46.39,-24.35,-11.74,-20.07,5.668,-14.0,-20.41,-39.5,-2.731,-48.81,-45.57,-53.07,-47.59,0,0,0,0,0,0,0,0,0,0,0,0,0,0,0,0,
10,11.92,27.27,3.184,31.08,-30.31,-15.01,-2.39,-2.265,-39.32,-25.68,-29.9,-10.79,-38.48,-43.19,-38.4,-35.32,0,0,0,0,0,0,0,0,0,0,0,0,0,0,0,0,
11,1.981,2.369,-5.694,2.198,-24.18,-11.98,20.44,-4.35,-31.58,-17.53,-14.39,-11.1,-19.45,-30.49,-26.18,-27.37,0,0,0,0,0,0,0,0,0,0,0,0,0,0,0,0,
12,2.091,-8.246,-7.702,5.298,-13.81,-4.826,-13.85,-7.647,-20.82,-13.68,-28.21,-13.6,-24.27,-25.97,-36.77,-32.29,0,0,0,0,0,0,0,0,0,0,0,0,0,0,0,0,
13,6.464,14.95,-2.643,3.362,-10.28,1.343,-26.56,-7.139,-11.87,-11.91,-30.31,-12.24,-24.79,-18.88,-32.73,-22.65,0,0,0,0,0,0,0,0,0,0,0,0,0,0,0,0,
14,-2.603,21.31,-7.737,-12.64,-20.77,-7.257,-1.279,3.071,-4.81,-10.95,-15.08,-3.363,-18.63,-12.46,-23.34,-16.4,0,0,0,0,0,0,0,0,0,0,0,0,0,0,0,0,
15,-19.43,-5.511,-27.04,-11.26,-36.31,-28.03,-10.91,1.43,-12.42,-19.7,-21.24,-7.477,-31.33,-23.82,-37.54,-32.49,0,0,0,0,0,0,0,0,0,0,0,0,0,0,0,0,
16,-27.62,-19.73,-39.7,5.441,-45.4,-35.75,-24.21,-9.109,-29.1,-31.81,-31.25,-15.69,-42.88,-35.38,-43.84,-38.65,0,0,0,0,0,0,0,0,0,0,0,0,0,0,0,0,
17,-25.67,-3.844,-25.02,20.2,-38.32,-23.86,-5.001,-3.649,-31.93,-28.64,-20.95,-7.133,-34.28,-28.36,-28.54,-24.0,0,0,0,0,0,0,0,0,0,0,0,0,0,0,0,0,
18,-25.36,5.759,-10.19,15.36,-19.09,-14.41,1.964,8.225,-22.04,-17.23,-13.31,4.003,-26.22,-18.0,-22.9,-14.32,0,0,0,0,0,0,0,0,0,0,0,0,0,0,0,0,
19,-28.22,-4.094,-12.43,-15.41,-13.35,-14.19,-5.429,6.287,-14.55,-10.32,-15.46,-1.441,-26.81,-17.49,-29.4,-19.58,0,0,0,0,0,0,0,0,0,0,0,0,0,0,0,0,
20,-29.63,-12.38,-6.186,-37.26,-34.05,-21.32,3.532,-11.52,-13.42,-8.973,-18.97,-21.36,-32.86,-26.09,-34.86,-29.15,0,0,0,0,0,0,0,0,0,0,0,0,0,0,0,0,
21,-27.06,-8.955,3.042,-17.58,-49.64,-35.95,16.98,-23.07,-21.55,-19.58,-20.29,-28.55,-37.16,-30.56,-32.26,-25.31,0,0,0,0,0,0,0,0,0,0,0,0,0,0,0,0,
22,-23.52,-1.381,-7.417,10.77,-35.26,-40.81,-4.303,-10.54,-27.91,-28.25,-14.99,-14.1,-30.08,-24.61,-24.25,-14.57,0,0,0,0,0,0,0,0,0,0,0,0,0,0,0,0,
23,-36.36,-5.88,-31.33,2.395,-25.14,-33.21,-53.34,-3.632,-24.38,-24.27,-18.07,-10.21,-29.93,-25.72,-27.32,-15.13,0,0,0,0,0,0,0,0,0,0,0,0,0,0,0,0,
24,-52.75,-10.35,-40.76,-10.48,-32.55,-24.07,-40.37,-7.127,-23.68,-23.77,-27.04,-10.9,-36.58,-25.8,-29.62,-10.19,0,0,0,0,0,0,0,0,0,0,0,0,0,0,0,0,
25,-35.03,3.671,-18.24,6.328,-26.92,-14.48,38.68,4.512,-21.52,-20.23,-22.38,0.1029,-29.0,-14.89,-22.03,-1.028,0,0,0,0,0,0,0,0,0,0,0,0,0,0,0,0,
26,-3.159,7.923,1.117,13.22,-18.25,-15.47,46.22,4.446,-15.18,-11.44,-18.98,-5.275,-23.9,-17.87,-23.57,-11.4,0,0,0,0,0,0,0,0,0,0,0,0,0,0,0,0,
27,6.288,3.249,-2.221,3.909,-15.95,-18.25,-24.06,-7.31,-10.19,-10.43,-18.17,-13.28,-23.46,-23.48,-21.61,-20.55,0,0,0,0,0,0,0,0,0,0,0,0,0,0,0,0,
28,5.85,16.85,1.017,8.076,-9.862,-7.766,-33.29,0.0404,2.507,-3.18,-8.597,-5.297,-14.02,-14.34,-12.34,-19.99,0,0,0,0,0,0,0,0,0,0,0,0,0,0,0,0,
29,3.727,18.6,-2.459,4.257,-17.24,-6.081,9.968,-4.479,4.721,4.569,-11.7,-14.99,-15.5,-15.68,-20.06,-26.56,0,0,0,0,0,0,0,0,0,0,0,0,0,0,0,0,
30,-6.63,4.679,-18.6,-8.698,-19.59,-8.759,1.712,-22.18,-10.45,-2.513,-26.07,-28.48,-24.72,-24.04,-29.61,-24.6,0,0,0,0,0,0,0,0,0,0,0,0,0,0,0,0,
31,-10.73,9.454,-6.208,-1.122,-0.1064,2.403,-18.17,-13.09,-8.26,-5.345,-26.61,-15.6,-22.11,-22.7,-25.46,-16.15,0,0,0,0,0,0,0,0,0,0,0,0,0,0,0,0,
32,1.904,15.46,14.5,7.277,-2.282,4.921,11.82,2.2,-0.4829,-1.857,-15.03,-3.216,-16.66,-19.35,-18.23,-17.88,0,0,0,0,0,0,0,0,0,0,0,0,0,0,0,0,
33,14.49,11.0,4.899,-0.8566,-13.92,-0.1671,15.25,0.8598,-8.103,0.6545,-5.785,-4.572,-11.3,-12.31,-10.5,-13.74,0,0,0,0,0,0,0,0,0,0,0,0,0,0,0,0,
34,11.2,13.68,-0.5767,-0.3054,1.476,5.181,-23.21,0.0838,-4.769,8.611,-4.661,-4.365,-4.539,-3.566,-6.12,-1.735,0,0,0,0,0,0,0,0,0,0,0,0,0,0,0,0,
35,3.962,19.98,22.86,11.34,9.569,7.685,-15.44,4.785,7.229,12.15,-1.886,-0.0807,-1.83,-0.7864,-3.334,4.983,0,0,0,0,0,0,0,0,0,0,0,0,0,0,0,0,
36,3.398,23.51,33.12,6.31,3.052,4.593,1.205,5.692,7.518,7.972,4.115,-0.1367,-2.128,-3.209,-0.9172,7.351,0,0,0,0,0,0,0,0,0,0,0,0,0,0,0,0,
37,3.534,23.8,12.43,-2.621,10.39,6.473,-21.49,1.861,5.628,5.827,3.511,-5.386,-2.699,-8.157,-2.829,8.145,0,0,0,0,0,0,0,0,0,0,0,0,0,0,0,0,
38,8.82,26.04,13.64,17.05,15.84,10.33,-0.5808,5.013,6.182,7.961,8.351,-0.7092,1.946,-1.299,3.244,14.77,0,0,0,0,0,0,0,0,0,0,0,0,0,0,0,0,
39,13.21,33.13,39.07,29.27,6.198,9.212,51.26,15.44,3.796,15.81,18.09,10.78,6.127,14.19,11.23,21.7,0,0,0,0,0,0,0,0,0,0,0,0,0,0,0,0,
40,1.238,28.88,23.78,-1.244,-5.399,-0.0913,38.08,14.07,-0.9232,18.72,11.7,6.293,-3.432,10.49,2.533,11.64,0,0,0,0,0,0,0,0,0,0,0,0,0,0,0,0,
41,-6.385,13.83,-8.259,-23.99,-17.95,-10.7,-4.069,1.334,-10.71,6.151,-6.234,-7.074,-19.96,-10.9,-13.73,-7.037,0,0,0,0,0,0,0,0,0,0,0,0,0,0,0,0,
42,5.538,5.976,0.6845,-2.846,-26.52,-14.72,-7.837,-2.385,-27.6,-9.193,-25.3,-7.599,-33.68,-27.09,-30.52,-19.35,0,0,0,0,0,0,0,0,0,0,0,0,0,0,0,0,
43,5.675,6.291,9.875,24.95,-19.25,-15.2,-4.441,1.795,-40.23,-16.3,-37.9,-3.66,-41.54,-31.71,-42.5,-24.71,0,0,0,0,0,0,0,0,0,0,0,0,0,0,0,0,
44,-25.61,7.151,-4.214,18.39,-8.297,-13.67,-24.85,-2.841,-38.75,-17.29,-32.67,-9.302,-39.35,-30.75,-37.57,-23.85,0,0,0,0,0,0,0,0,0,0,0,0,0,0,0,0,
45,-53.4,2.553,-0.0973,-6.257,-5.487,-8.834,-20.87,-5.428,-32.18,-14.54,-19.94,-8.369,-32.46,-27.65,-27.39,-21.95,0,0,0,0,0,0,0,0,0,0,0,0,0,0,0,0,
46,-34.96,0.2618,16.93,-1.691,-6.154,-6.961,20.67,6.126,-27.08,-12.14,-14.52,2.822,-29.03,-20.57,-25.21,-22.24,0,0,0,0,0,0,0,0,0,0,0,0,0,0,0,0,
47,6.294,10.48,21.44,16.28,-14.7,-8.929,15.5,6.348,-22.19,-10.92,-16.14,-1.477,-28.97,-12.61,-23.47,-19.1,0,0,0,0,0,0,0,0,0,0,0,0,0,0,0,0,
48,11.77,19.53,22.18,12.5,-19.12,-0.9073,-24.96,-2.858,-19.58,-0.8455,-18.2,-8.993,-25.95,-7.956,-18.81,-13.75,0,0,0,0,0,0,0,0,0,0,0,0,0,0,0,0,
49,-14.72,21.55,17.88,13.51,-3.28,11.67,3.338,5.925,-13.15,14.13,-14.47,1.643,-19.9,-7.445,-18.61,-14.59,0,0,0,0,0,0,0,0,0,0,0,0,0,0,0,0,
50,-27.78,23.45,6.508,14.05,3.651,6.847,55.76,11.62,-6.487,12.26,-13.06,5.427,-21.28,-13.32,-23.82,-21.28,0,0,0,0,0,0,0,0,0,0,0,0,0,0,0,0,
51,-22.62,14.84,5.081,-10.59,-7.215,-1.76,48.04,2.496,-11.29,2.095,-20.76,-2.155,-26.92,-20.1,-27.01,-26.88,0,0,0,0,0,0,0,0,0,0,0,0,0,0,0,0,
52,-20.3,0.5553,13.59,-12.92,-7.213,2.931,23.22,1.212,-15.1,4.085,-26.56,-3.103,-25.91,-21.48,-26.34,-28.0,0,0,0,0,0,0,0,0,0,0,0,0,0,0,0,0,
53,-15.8,5.34,27.01,19.22,-2.091,5.373,5.109,2.758,-10.21,5.973,-23.93,-3.835,-20.45,-18.15,-21.25,-21.4,0,0,0,0,0,0,0,0,0,0,0,0,0,0,0,0,
54,0.0597,17.74,45.17,28.58,1.887,4.166,-19.91,1.589,-5.243,5.218,-19.46,-4.015,-15.41,-13.52,-14.23,-12.58,0,0,0,0,0,0,0,0,0,0,0,0,0,0,0,0,
55,6.671,12.41,45.62,13.74,10.75,6.244,-17.05,3.002,-1.104,10.0,-19.03,-1.594,-16.35,-17.06,-16.82,-18.05,0,0,0,0,0,0,0,0,0,0,0,0,0,0,0,0,
56,-1.365,8.449,21.73,16.5,6.979,5.822,20.57,1.133,-1.847,8.725,-17.06,-3.611,-21.76,-26.02,-22.25,-31.35,0,0,0,0,0,0,0,0,0,0,0,0,0,0,0,0,
57,3.392,22.15,5.875,30.12,-3.486,5.099,55.5,-0.2509,-6.202,4.265,-11.76,-5.381,-22.44,-28.82,-19.84,-31.05,0,0,0,0,0,0,0,0,0,0,0,0,0,0,0,0,
58,21.72,25.25,17.25,20.17,-0.9659,0.8508,58.76,-2.042,-6.917,1.071,-15.61,-8.498,-24.0,-30.02,-23.21,-24.21,0,0,0,0,0,0,0,0,0,0,0,0,0,0,0,0,
59,27.24,8.313,34.58,-6.998,0.6637,-8.531,14.13,-9.953,-11.78,-11.17,-26.37,-15.07,-31.06,-31.12,-32.78,-25.61,0,0,0,0,0,0,0,0,0,0,0,0,0,0,0,0,
60,14.16,-5.988,26.48,-20.48,-2.314,-8.675,-31.68,-10.98,-18.79,-19.12,-29.88,-13.75,-33.56,-26.03,-32.79,-25.22,0,0,0,0,0,0,0,0,0,0,0,0,0,0,0,0,
61,5.454,-7.44,13.3,-14.09,5.797,1.012,-2.124,-0.9946,-11.89,-7.862,-24.09,-4.791,-26.35,-16.34,-24.57,-15.73,0,0,0,0,0,0,0,0,0,0,0,0,0,0,0,0,
62,18.26,4.041,28.38,2.063,16.36,9.477,51.9,5.085,2.686,9.272,-15.35,-0.7293,-17.27,-8.524,-20.31,-11.8,0,0,0,0,0,0,0,0,0,0,0,0,0,0,0,0,
63,29.76,18.75,29.85,13.9,12.85,12.28,35.02,1.862,5.986,15.96,-13.89,-3.475,-17.35,-11.38,-23.33,-16.06,0,0,0,0,0,0,0,0,0,0,0,0,0,0,0,0,
64,25.74,25.4,1.95,15.21,4.124,11.54,5.134,1.431,3.006,12.73,-15.18,-1.507,-19.37,-16.58,-19.66,-10.62,0,0,0,0,0,0,0,0,0,0,0,0,0,0,0,0,
65,28.79,24.67,3.418,14.98,3.812,12.09,18.39,6.662,7.31,10.82,-8.513,3.788,-13.85,-10.88,-8.664,0.0254,0,0,0,0,0,0,0,0,0,0,0,0,0,0,0,0,
66,29.09,13.24,30.41,5.441,9.609,11.53,4.728,4.106,8.378,10.12,-5.654,-0.1029,-13.25,-6.854,-9.496,-1.26,0,0,0,0,0,0,0,0,0,0,0,0,0,0,0,0,
67,6.697,2.597,41.01,-15.42,16.97,10.48,-20.14,0.3041,2.33,7.391,-8.523,-2.556,-17.67,-9.758,-14.94,-6.02,0,0,0,0,0,0,0,0,0,0,0,0,0,0,0,0,
68,-8.733,10.01,30.94,-13.94,17.04,12.56,20.0,8.481,2.475,9.62,-6.242,6.295,-16.79,-7.485,-13.32,-5.021,0,0,0,0,0,0,0,0,0,0,0,0,0,0,0,0,
69,3.588,19.24,4.349,11.46,3.259,9.559,64.47,14.44,-0.8884,12.98,-6.141,10.5,-17.95,-2.193,-15.0,-2.831,0,0,0,0,0,0,0,0,0,0,0,0,0,0,0,0,
70,21.84,18.03,-8.673,16.59,-8.322,-1.133,47.24,6.905,-12.68,9.177,-8.93,2.055,-21.44,-2.805,-16.14,-0.0329,0,0,0,0,0,0,0,0,0,0,0,0,0,0,0,0,
71,18.28,11.16,0.4193,-2.744,-6.547,-8.488,16.45,-1.78,-13.23,0.0214,-6.362,-5.807,-20.05,-7.348,-9.822,3.502,0,0,0,0,0,0,0,0,0,0,0,0,0,0,0,0,
72,-6.887,-0.3692,-7.311,-8.988,-1.552,-4.054,3.091,0.5744,-5.271,-6.454,-4.598,-2.503,-19.26,-6.724,-8.004,5.785,0,0,0,0,0,0,0,0,0,0,0,0,0,0,0,0,
73,-16.83,-5.003,-16.12,-3.558,-4.77,1.681,-15.33,4.304,-6.844,-4.387,-10.83,0.5607,-25.87,-5.912,-16.84,1.316,0,0,0,0,0,0,0,0,0,0,0,0,0,0,0,0,
74,-0.8172,-0.1068,-1.778,-10.82,-17.86,-7.914,-18.63,1.163,-17.8,-5.972,-18.5,-2.107,-33.96,-13.08,-24.4,-8.261,0,0,0,0,0,0,0,0,0,0,0,0,0,0,0,0,
75,1.45,5.096,-1.466,-11.89,-24.73,-18.64,19.22,6.16,-25.45,-13.04,-17.24,3.894,-31.7,-12.64,-20.73,-6.58,0,0,0,0,0,0,0,0,0,0,0,0,0,0,0,0,
76,-16.93,9.606,-19.1,5.887,-18.36,-15.7,32.28,11.07,-24.57,-10.42,-14.74,6.589,-26.69,-3.802,-16.83,3.29,0,0,0,0,0,0,0,0,0,0,0,0,0,0,0,0,
77,-17.22,6.097,-18.09,11.36,-16.59,-13.81,-8.418,2.749,-25.04,-7.534,-19.31,-0.7334,-30.63,-4.104,-19.05,4.729,0,0,0,0,0,0,0,0,0,0,0,0,0,0,0,0,
78,6.074,-0.5665,-2.506,-2.403,-25.2,-15.64,-13.97,8.439,-28.26,-9.449,-20.65,8.108,-33.74,-6.135,-17.93,3.812,0,0,0,0,0,0,0,0,0,0,0,0,0,0,0,0,
79,18.08,2.751,-1.124,-9.623,-34.08,-16.78,7.719,21.08,-28.96,-7.261,-20.57,17.79,-34.38,-5.051,-17.84,5.633,0,0,0,0,0,0,0,0,0,0,0,0,0,0,0,0,
80,5.147,2.482,-11.22,-3.532,-31.49,-18.5,-19.38,10.63,-31.19,-9.403,-24.35,5.704,-36.98,-8.676,-22.13,1.259,0,0,0,0,0,0,0,0,0,0,0,0,0,0,0,0,
81,-9.598,-4.114,-14.28,-1.307,-18.92,-9.333,-28.4,1.997,-29.55,-10.19,-23.77,-0.5375,-34.77,-12.69,-23.36,-5.739,0,0,0,0,0,0,0,0,0,0,0,0,0,0,0,0,
82,-6.026,1.232,-12.98,-6.999,-17.22,3.681,19.89,8.189,-23.43,-3.337,-22.64,4.637,-31.99,-13.73,-23.28,-2.55,0,0,0,0,0,0,0,0,0,0,0,0,0,0,0,0,
83,4.625,9.282,-5.098,-2.268,-20.84,-0.5202,29.36,4.41,-26.5,-6.881,-25.17,-0.6394,-33.7,-13.43,-22.21,5.869,0,0,0,0,0,0,0,0,0,0,0,0,0,0,0,0,
84,0.2432,1.869,6.873,3.857,-12.78,-11.35,-11.4,-6.172,-34.23,-16.37,-26.1,-10.06,-34.03,-15.45,-19.04,1.482,0,0,0,0,0,0,0,0,0,0,0,0,0,0,0,0,
85,-11.25,-5.357,-7.977,-5.435,-7.083,-7.928,-26.94,-4.864,-32.24,-14.23,-21.73,-7.128,-28.83,-17.59,-14.87,-8.654,0,0,0,0,0,0,0,0,0,0,0,0,0,0,0,0,
86,-7.516,3.839,-32.12,-7.596,-7.261,2.912,-14.18,3.026,-19.95,-6.108,-11.6,1.224,-18.95,-11.15,-9.747,-5.602,0,0,0,0,0,0,0,0,0,0,0,0,0,0,0,0,
87,5.001,11.52,-14.91,-0.0215,-4.87,3.427,-3.805,1.466,-11.24,-3.461,-9.506,-1.011,-13.04,-4.196,-8.183,2.373,0,0,0,0,0,0,0,0,0,0,0,0,0,0,0,0,
88,5.509,11.62,18.25,3.162,-1.391,2.79,9.43,-0.6263,-13.99,-3.335,-17.03,-2.682,-11.78,-1.375,-7.066,4.816,0,0,0,0,0,0,0,0,0,0,0,0,0,0,0,0,
89,-10.25,18.38,18.75,12.42,2.46,12.05,18.98,8.635,-16.48,2.917,-20.18,6.014,-13.1,1.795,-9.921,0.5413,0,0,0,0,0,0,0,0,0,0,0,0,0,0,0,0,
90,-14.01,20.43,-1.2,15.64,-6.678,12.35,4.938,10.82,-20.23,4.599,-26.69,6.362,-23.18,-2.24,-22.84,-11.09,0,0,0,0,0,0,0,0,0,0,0,0,0,0,0,0,
91,12.53,14.15,-21.84,6.842,-20.49,5.381,-11.73,5.301,-26.51,-4.535,-30.8,1.754,-25.14,-5.816,-21.43,-14.31,0,0,0,0,0,0,0,0,0,0,0,0,0,0,0,0,
92,14.11,16.28,-38.24,12.82,-7.671,11.36,-17.88,7.956,-13.87,-6.298,-17.68,4.636,-11.67,-3.286,-6.057,-8.468,0,0,0,0,0,0,0,0,0,0,0,0,0,0,0,0,
93,-22.35,16.84,-24.85,22.76,12.37,18.19,-29.45,4.659,3.237,-3.107,-10.54,-0.6849,-11.9,-10.11,-9.425,-13.43,0,0,0,0,0,0,0,0,0,0,0,0,0,0,0,0,
94,-16.07,3.981,7.425,10.19,6.852,11.82,-23.31,-7.877,-5.04,-7.991,-18.58,-12.08,-26.29,-17.83,-21.23,-19.47,0,0,0,0,0,0,0,0,0,0,0,0,0,0,0,0,
95,13.17,-8.142,1.758,-5.486,-14.74,-1.652,9.169,-6.319,-23.93,-13.04,-24.03,-6.948,-35.23,-15.75,-24.18,-14.73,0,0,0,0,0,0,0,0,0,0,0,0,0,0,0,0,
96,0.4969,-1.79,-17.57,-1.587,-29.6,-8.058,17.81,8.017,-34.27,-12.81,-26.05,6.161,-37.37,-13.8,-24.85,-9.337,0,0,0,0,0,0,0,0,0,0,0,0,0,0,0,0,
97,0.6042,11.79,-0.3442,-8.249,-19.65,0.4897,-11.26,5.543,-27.97,-6.764,-20.6,-1.511,-25.31,-8.682,-14.55,-0.0387,0,0,0,0,0,0,0,0,0,0,0,0,0,0,0,0,
98,20.86,0.7119,0.2224,-39.76,0.5369,3.594,-29.85,-12.37,-6.139,-0.982,-6.501,-16.89,-6.535,-2.094,0.1368,8.856,0,0,0,0,0,0,0,0,0,0,0,0,0,0,0,0,
99,2.422,-9.457,-31.88,-29.83,-2.519,-4.849,-3.434,-8.717,0.6517,-6.125,-6.51,-7.652,-10.16,-9.98,-7.57,-3.95,0,0,0,0,0,0,0,0,0,0,0,0,0,0,0,0,
100,-18.91,17.77,-30.44,28.12,-17.92,-3.655,28.73,2.772,-19.04,-14.8,-22.4,-0.4143,-29.75,-26.09,-24.79,-22.39,0,0,0,0,0,0,0,0,0,0,0,0,0,0,0,0,
101,-17.72,33.51,-9.691,50.01,-20.19,-1.13,18.51,-7.283,-32.59,-18.97,-26.72,-11.77,-32.89,-27.17,-21.8,-15.68,0,0,0,0,0,0,0,0,0,0,0,0,0,0,0,0,
102,-17.8,15.74,-18.54,36.48,-16.89,-8.056,1.883,-4.814,-24.43,-19.08,-21.89,-4.427,-23.67,-14.75,-14.9,-6.111,0,0,0,0,0,0,0,0,0,0,0,0,0,0,0,0,
103,2.571,12.25,-41.92,25.41,-18.11,-7.257,-0.4752,9.474,-17.6,-14.15,-30.15,5.915,-27.16,-13.38,-25.85,-18.77,0,0,0,0,0,0,0,0,0,0,0,0,0,0,0,0,
104,28.83,24.46,-53.96,6.309,-18.36,3.039,-21.42,0.132,-21.86,-8.152,-34.71,-5.887,-32.2,-19.9,-28.61,-21.86,0,0,0,0,0,0,0,0,0,0,0,0,0,0,0,0,
105,13.67,25.81,-50.09,-0.7393,-18.08,6.679,-29.94,-5.588,-20.35,-4.117,-23.0,-6.519,-23.74,-15.64,-15.05,-2.938,0,0,0,0,0,0,0,0,0,0,0,0,0,0,0,0,
106,-10.29,13.85,-40.72,9.336,-21.86,1.232,-0.8183,4.772,-17.16,-5.353,-20.16,3.705,-19.73,-10.37,-13.7,4.116,0,0,0,0,0,0,0,0,0,0,0,0,0,0,0,0,
107,-8.931,-1.817,-33.1,11.81,-20.89,-2.3,13.99,6.387,-23.13,-11.53,-23.23,3.374,-22.55,-11.11,-17.29,0.437,0,0,0,0,0,0,0,0,0,0,0,0,0,0,0,0,
108,-16.44,-5.671,-28.33,18.98,-14.71,-4.46,3.774,2.647,-24.65,-14.67,-17.62,-0.1475,-20.37,-10.08,-12.91,7.209,0,0,0,0,0,0,0,0,0,0,0,0,0,0,0,0,
109,-33.29,-5.373,-30.28,24.9,-16.05,-9.905,3.536,-0.8941,-21.79,-15.39,-15.29,-3.616,-17.68,-6.741,-12.81,15.01,0,0,0,0,0,0,0,0,0,0,0,0,0,0,0,0,
110,-16.44,-9.803,-24.14,16.93,-18.31,-8.523,5.435,0.8084,-20.74,-12.63,-12.55,-0.6303,-14.36,-3.231,-11.55,13.97,0,0,0,0,0,0,0,0,0,0,0,0,0,0,0,0,
111,12.32,-4.726,-13.23,13.66,-16.96,-5.745,-5.112,5.605,-17.16,-10.01,-8.164,2.518,-15.05,-8.5,-10.19,3.994,0,0,0,0,0,0,0,0,0,0,0,0,0,0,0,0,
112,2.724,1.299,-25.97,17.79,-18.73,-8.071,-3.172,-1.95,-22.54,-17.23,-13.68,-5.657,-23.99,-18.76,-18.12,-8.402,0,0,0,0,0,0,0,0,0,0,0,0,0,0,0,0,
113,-19.55,1.187,-46.48,28.85,-12.89,3.214,11.06,-1.032,-31.0,-14.34,-16.1,-0.966,-23.19,-12.42,-19.71,-5.313,0,0,0,0,0,0,0,0,0,0,0,0,0,0,0,0,
114,-13.15,14.41,-48.76,28.67,-2.006,14.39,-2.486,15.62,-22.35,2.66,-13.15,12.96,-14.32,1.377,-14.4,6.731,0,0,0,0,0,0,0,0,0,0,0,0,0,0,0,0,
115,0.2488,26.59,-33.91,-5.065,-4.984,0.2517,-33.51,13.97,-14.21,0.698,-18.43,7.244,-16.84,-0.254,-17.11,4.092,0,0,0,0,0,0,0,0,0,0,0,0,0,0,0,0,
116,-8.554,11.13,-12.4,-16.05,-13.74,-11.08,-41.67,4.832,-20.85,-12.82,-22.64,2.563,-22.57,-9.454,-19.82,-3.78,0,0,0,0,0,0,0,0,0,0,0,0,0,0,0,0,
117,-25.04,-2.607,-18.88,27.05,-13.64,0.2202,-29.96,11.59,-25.54,-10.63,-19.02,10.89,-18.13,-11.31,-15.51,0.9048,0,0,0,0,0,0,0,0,0,0,0,0,0,0,0,0,
118,-23.09,14.47,-50.7,51.89,-9.314,7.806,-12.93,10.76,-23.34,-4.025,-14.4,5.868,-11.32,-9.395,-10.48,7.695,0,0,0,0,0,0,0,0,0,0,0,0,0,0,0,0,
119,-8.863,27.89,-50.34,28.92,-8.858,-1.713,-5.496,-3.153,-22.76,-7.974,-8.169,-7.647,-9.285,-11.34,-5.753,8.399,0,0,0,0,0,0,0,0,0,0,0,0,0,0,0,0,
120,-5.395,14.52,-23.54,2.742,-11.77,-10.12,-20.03,-5.925,-21.97,-13.66,-1.796,-7.373,-6.589,-10.5,-2.616,7.927,0,0,0,0,0,0,0,0,0,0,0,0,0,0,0,0,
121,-8.744,6.791,-22.63,-2.687,-11.39,-3.653,-33.64,3.724,-13.81,-7.063,-2.215,3.076,-1.88,-1.572,-4.311,8.094,0,0,0,0,0,0,0,0,0,0,0,0,0,0,0,0,
122,0.1025,17.91,-35.54,14.72,-5.534,8.168,-22.29,13.83,-2.751,7.164,-3.374,12.88,0.8428,5.345,-3.106,15.02,0,0,0,0,0,0,0,0,0,0,0,0,0,0,0,0,
123,11.48,25.53,-25.31,39.47,0.2367,9.851,-5.521,16.34,0.6172,10.19,-0.0168,13.89,0.5307,3.307,0.3767,21.23,0,0,0,0,0,0,0,0,0,0,0,0,0,0,0,0,
124,-3.872,17.79,-11.45,38.9,-1.64,-0.7674,-19.96,9.892,-6.169,-2.768,-6.441,7.677,-6.683,-3.878,-7.209,10.88,0,0,0,0,0,0,0,0,0,0,0,0,0,0,0,0,
125,-29.28,6.749,-17.83,18.22,-7.347,-7.304,-36.63,11.67,-14.51,-13.47,-14.76,11.29,-11.23,-2.554,-10.97,5.795,0,0,0,0,0,0,0,0,0,0,0,0,0,0,0,0,
126,-19.62,10.34,-18.07,7.702,-6.408,0.3869,-8.112,17.96,-9.765,-5.004,-2.989,14.12,-1.587,7.59,1.855,16.89,0,0,0,0,0,0,0,0,0,0,0,0,0,0,0,0,
127,0.3789,12.75,-7.525,8.163,-3.641,1.808,3.579,3.17,-0.6356,3.181,6.348,-2.28,2.796,2.838,7.287,15.71,0,0,0,0,0,0,0,0,0,0,0,0,0,0,0,0,
128,-2.75,0.3218,-14.7,17.23,0.4527,-5.682,-26.05,-4.949,-5.165,-7.028,1.889,-3.782,-2.14,-6.948,5.671,12.08,0,0,0,0,0,0,0,0,0,0,0,0,0,0,0,0,
129,1.13,0.1841,-25.37,31.98,10.09,1.959,-18.45,18.28,-6.475,-8.358,5.161,19.73,0.475,2.078,8.934,21.84,0,0,0,0,0,0,0,0,0,0,0,0,0,0,0,0,
130,-8.38,4.538,-20.83,25.63,7.125,10.34,-12.74,26.3,-0.5274,1.961,1.505,21.51,-2.043,6.209,2.06,17.91,0,0,0,0,0,0,0,0,0,0,0,0,0,0,0,0,
131,-58.24,-9.001,-21.1,4.216,-10.74,-0.5073,-43.51,7.788,-9.124,-5.91,-11.6,4.242,-11.34,-5.462,-3.895,3.188,0,0,0,0,0,0,0,0,0,0,0,0,0,0,0,0,
132,-66.8,-11.21,-28.5,1.901,-22.02,-10.67,-11.67,2.157,-18.66,-20.89,-4.255,1.581,-9.025,-10.82,5.304,-0.9752,0,0,0,0,0,0,0,0,0,0,0,0,0,0,0,0,
133,-11.28,2.171,-19.81,11.6,-19.83,-7.703,36.21,8.394,-14.52,-21.58,8.036,6.72,-3.09,-8.506,8.8,-3.287,0,0,0,0,0,0,0,0,0,0,0,0,0,0,0,0,
134,17.57,5.987,-1.245,11.86,-9.834,-1.619,-8.96,10.73,-9.429,-11.84,1.649,8.995,-3.097,-4.43,2.684,-3.976,0,0,0,0,0,0,0,0,0,0,0,0,0,0,0,0,
135,2.582,7.575,-8.938,4.907,-9.164,-2.143,-50.91,11.41,-5.003,-1.239,-7.121,9.769,-5.33,0.3222,-1.081,-0.4068,0,0,0,0,0,0,0,0,0,0,0,0,0,0,0,0,
136,-10.72,8.674,-30.59,6.686,-16.3,-5.342,-17.52,11.76,-0.8688,1.555,-6.819,8.983,-6.936,1.434,-1.693,-3.75,0,0,0,0,0,0,0,0,0,0,0,0,0,0,0,0,
137,-20.75,1.456,-17.54,19.75,-8.787,-3.834,6.197,9.807,-1.45,-0.8035,-4.027,5.649,-6.555,-3.404,-1.48,-11.48,0,0,0,0,0,0,0,0,0,0,0,0,0,0,0,0,
138,-29.49,-1.895,2.639,13.93,-4.932,-8.237,-5.519,2.364,-4.577,-6.696,-3.32,-1.831,-8.907,-12.26,-4.118,-15.0,0,0,0,0,0,0,0,0,0,0,0,0,0,0,0,0,
139,-18.66,5.567,-9.664,-8.08,-16.24,-15.64,-8.276,-3.133,-6.601,-14.28,-3.135,-5.188,-12.65,-12.32,-7.047,-14.24,0,0,0,0,0,0,0,0,0,0,0,0,0,0,0,0,
140,-2.724,11.52,-16.49,-7.976,-17.71,-10.26,-4.017,0.6449,-7.415,-9.307,-6.557,-0.5375,-15.89,-3.298,-10.2,-13.59,0,0,0,0,0,0,0,0,0,0,0,0,0,0,0,0,
141,-17.87,4.907,-20.06,-7.007,-18.65,-5.654,-10.54,6.647,-15.15,-0.0472,-15.45,5.252,-21.15,-1.26,-15.79,-16.61,0,0,0,0,0,0,0,0,0,0,0,0,0,0,0,0,
142,-43.29,-1.488,-51.09,-24.58,-22.32,-9.239,-20.91,9.729,-21.02,-0.3032,-15.03,8.25,-18.25,-3.804,-12.54,-19.35,0,0,0,0,0,0,0,0,0,0,0,0,0,0,0,0,
143,-29.48,6.264,-51.8,-14.74,-9.952,-7.233,-12.44,7.14,-9.521,-0.2373,-0.622,4.33,-7.757,-4.478,-0.389,-18.06,0,0,0,0,0,0,0,0,0,0,0,0,0,0,0,0,
144,-3.317,15.02,-3.061,19.94,-3.991,-3.264,10.72,1.872,-1.502,0.1064,9.579,-0.9612,-3.675,-5.702,3.381,-15.98,0,0,0,0,0,0,0,0,0,0,0,0,0,0,0,0,
145,-8.884,15.04,9.435,23.48,-14.8,-5.534,1.484,0.829,-8.105,-3.689,3.752,-0.0082,-7.425,-7.03,-7.486,-17.08,0,0,0,0,0,0,0,0,0,0,0,0,0,0,0,0,
146,-8.859,14.55,-20.02,4.088,-18.39,-7.504,-21.2,4.573,-12.15,-6.509,-6.543,5.258,-13.44,-7.496,-15.21,-15.81,0,0,0,0,0,0,0,0,0,0,0,0,0,0,0,0,
147,19.05,22.18,-15.96,6.192,-11.3,-0.0031,-1.783,11.92,-12.76,-5.054,-0.4339,10.95,-7.841,-2.48,-1.75,-6.195,0,0,0,0,0,0,0,0,0,0,0,0,0,0,0,0,
148,25.1,33.55,9.29,16.33,3.566,11.09,0.0646,6.999,-3.738,1.43,10.09,2.464,6.686,0.8295,8.674,-4.064,0,0,0,0,0,0,0,0,0,0,0,0,0,0,0,0,
149,8.15,28.96,9.141,3.657,16.12,11.25,-31.18,-6.724,15.3,2.233,1.622,-8.903,4.392,-5.391,-3.794,-14.77,0,0,0,0,0,0,0,0,0,0,0,0,0,0,0,0,
150,16.91,12.68,3.513,-10.79,4.947,4.064,-5.574,4.376,13.03,-4.063,-4.539,6.067,-6.063,-4.696,-8.701,-15.26,0,0,0,0,0,0,0,0,0,0,0,0,0,0,0,0,
151,29.65,12.09,3.912,-2.505,-11.88,-0.4874,20.47,22.75,-6.087,-3.433,4.951,21.82,-2.989,3.035,-0.2383,-7.416,0,0,0,0,0,0,0,0,0,0,0,0,0,0,0,0,
152,6.688,22.94,0.0066,17.69,-4.326,1.519,-14.65,21.13,-5.127,2.224,5.873,18.2,2.837,4.841,-2.577,-8.644,0,0,0,0,0,0,0,0,0,0,0,0,0,0,0,0,
153,-15.51,23.65,0.0019,27.98,4.842,9.444,-17.3,15.21,5.591,8.765,-3.852,10.68,1.793,5.422,-9.892,-12.8,0,0,0,0,0,0,0,0,0,0,0,0,0,0,0,0,
154,-5.641,14.13,-7.547,5.566,-4.576,8.135,-3.636,-1.254,-0.1358,10.78,-8.367,-7.519,-2.871,1.417,-11.9,-15.48,0,0,0,0,0,0,0,0,0,0,0,0,0,0,0,0,
155,10.41,7.921,-20.25,-26.21,-5.159,-1.635,-32.72,-15.57,-6.195,0.1079,-4.751,-16.2,-6.929,-7.114,-10.36,-19.14,0,0,0,0,0,0,0,0,0,0,0,0,0,0,0,0,
156,14.82,10.23,-6.481,-14.79,1.874,-4.368,-35.7,-0.5003,0.0821,-8.204,-1.429,1.278,-8.85,-11.69,-9.201,-23.04,0,0,0,0,0,0,0,0,0,0,0,0,0,0,0,0,
157,15.2,11.61,8.116,8.567,-5.0,-6.066,-15.99,6.157,3.446,-8.976,-5.37,3.533,-10.72,-15.28,-11.26,-25.41,0,0,0,0,0,0,0,0,0,0,0,0,0,0,0,0,
158,17.3,10.61,-8.339,-4.215,0.5622,-2.494,-13.84,-1.742,6.786,-9.544,-2.825,-2.864,-6.066,-10.63,-6.816,-16.86,0,0,0,0,0,0,0,0,0,0,0,0,0,0,0,0,
159,14.49,11.3,-17.42,-10.62,17.34,9.092,-0.1138,7.805,13.73,0.1909,8.27,7.17,-0.1876,-0.1349,-2.244,-6.436,0,0,0,0,0,0,0,0,0,0,0,0,0,0,0,0,
160,0.8466,5.661,-2.136,7.648,5.278,1.286,-8.059,5.686,6.067,8.045,3.493,1.241,-9.669,-4.293,-14.07,-15.13,0,0,0,0,0,0,0,0,0,0,0,0,0,0,0,0,
161,-3.114,-3.136,10.96,10.62,-11.93,-15.92,-40.0,-8.012,-7.619,-1.899,-9.537,-8.96,-19.19,-12.6,-22.36,-27.21,0,0,0,0,0,0,0,0,0,0,0,0,0,0,0,0,
162,15.65,-2.812,23.3,8.089,-3.371,-10.01,-18.48,5.638,-7.743,-5.776,-3.678,7.796,-11.36,-10.16,-11.56,-24.66,0,0,0,0,0,0,0,0,0,0,0,0,0,0,0,0,
163,19.73,1.737,25.75,9.941,1.314,-3.811,15.65,14.58,-5.618,-0.3612,7.74,11.76,-5.787,-11.12,-4.47,-22.19,0,0,0,0,0,0,0,0,0,0,0,0,0,0,0,0,
164,-14.61,-3.397,-5.363,-11.09,-10.86,-18.88,-10.72,-4.515,-10.77,-11.35,2.151,-7.882,-13.35,-15.95,-10.08,-21.86,0,0,0,0,0,0,0,0,0,0,0,0,0,0,0,0,
165,-37.14,-18.55,-26.51,-22.37,-15.33,-24.74,-42.43,-8.068,-17.18,-24.79,-7.688,-6.183,-15.34,-9.096,-13.06,-14.33,0,0,0,0,0,0,0,0,0,0,0,0,0,0,0,0,
166,-9.532,-20.29,-5.053,5.881,-3.955,-9.707,-34.35,6.719,-17.74,-14.38,-6.669,7.957,-7.6,0.6071,-11.72,-10.96,0,0,0,0,0,0,0,0,0,0,0,0,0,0,0,0,
167,20.73,-0.023,1.776,14.21,4.188,0.5104,-17.17,6.555,-10.11,2.235,-0.712,4.559,-3.145,-1.823,-9.294,-14.21,0,0,0,0,0,0,0,0,0,0,0,0,0,0,0,0,
168,16.58,12.21,-20.07,-9.324,-1.15,2.575,-6.092,4.265,-1.18,8.076,5.408,3.208,1.448,-3.092,-1.42,-11.62,0,0,0,0,0,0,0,0,0,0,0,0,0,0,0,0,
169,6.726,3.906,-23.98,-5.926,-4.078,3.063,-5.786,11.98,5.687,12.49,4.65,10.68,6.65,3.296,0.0687,-10.2,0,0,0,0,0,0,0,0,0,0,0,0,0,0,0,0,
170,5.12,-6.304,-14.87,16.56,0.1879,-5.897,-19.08,10.73,7.341,9.834,-5.19,8.298,1.536,0.4298,-12.03,-17.93,0,0,0,0,0,0,0,0,0,0,0,0,0,0,0,0,
171,11.63,-10.89,1.276,23.01,-1.26,-11.25,-18.91,4.102,0.3594,-0.6083,-4.953,2.489,-4.192,-8.643,-16.97,-22.82,0,0,0,0,0,0,0,0,0,0,0,0,0,0,0,0,
172,29.41,-11.45,29.27,18.27,-5.922,-3.831,-0.4754,0.6139,-5.035,-3.135,2.359,-2.256,-3.973,-10.92,-11.61,-19.59,0,0,0,0,0,0,0,0,0,0,0,0,0,0,0,0,
173,22.22,-8.199,28.51,4.501,-4.103,-4.424,0.2567,-8.082,-6.512,-5.525,-4.517,-11.5,-8.304,-10.87,-13.51,-17.08,0,0,0,0,0,0,0,0,0,0,0,0,0,0,0,0,
174,-9.403,-6.559,-2.642,-10.96,-0.1889,-12.5,-23.22,-15.93,-10.34,-11.07,-15.39,-16.77,-13.78,-12.65,-21.57,-22.06,0,0,0,0,0,0,0,0,0,0,0,0,0,0,0,0,
175,-3.848,-8.376,-15.92,-11.18,-2.583,-11.66,-28.12,-11.98,-10.85,-7.854,-15.26,-11.25,-14.15,-12.32,-22.8,-25.99,0,0,0,0,0,0,0,0,0,0,0,0,0,0,0,0,
176,25.32,-7.465,-7.55,-1.291,-6.67,-6.62,9.944,-0.1188,-6.513,-3.82,-7.099,0.2331,-10.49,-5.605,-14.16,-17.41,0,0,0,0,0,0,0,0,0,0,0,0,0,0,0,0,
177,20.95,-9.76,-4.062,-1.916,-10.06,-8.551,36.0,0.9521,-8.505,-6.301,-3.82,-0.8764,-8.339,-3.32,-11.36,-11.39,0,0,0,0,0,0,0,0,0,0,0,0,0,0,0,0,
178,4.992,-22.92,-7.387,-14.81,-15.72,-14.63,3.761,-10.89,-20.12,-12.47,-13.23,-12.88,-10.7,-12.24,-16.03,-14.45,0,0,0,0,0,0,0,0,0,0,0,0,0,0,0,0,
179,9.097,-22.98,3.397,-6.491,-6.976,-8.292,-19.67,-8.222,-18.45,-14.9,-12.83,-8.753,-2.551,-10.29,-7.712,-6.518,0,0,0,0,0,0,0,0,0,0,0,0,0,0,0,0,
180,11.22,-3.427,15.98,14.56,11.55,3.012,11.88,-3.031,3.797,-7.817,-0.2026,-6.136,8.993,0.0053,0.2086,1.417,0,0,0,0,0,0,0,0,0,0,0,0,0,0,0,0,
181,4.616,-0.1212,-4.623,-6.595,6.99,-1.74,33.05,-14.66,8.491,-7.56,-2.01,-16.53,4.528,-1.027,-2.415,-2.211,0,0,0,0,0,0,0,0,0,0,0,0,0,0,0,0,
182,5.657,-8.003,-23.79,-32.95,-5.202,-2.11,13.48,-8.315,-3.178,-12.6,-3.552,-5.668,7.02,3.644,8.649,6.628,0,0,0,0,0,0,0,0,0,0,0,0,0,0,0,0,
183,9.969,1.031,-2.631,-0.6598,1.896,12.39,-5.608,7.069,5.005,-3.195,5.832,6.309,20.06,13.6,18.52,18.43,0,0,0,0,0,0,0,0,0,0,0,0,0,0,0,0,
184,16.33,11.19,16.25,38.75,12.63,17.24,2.052,-1.514,12.46,5.998,6.151,-3.966,18.68,11.47,11.87,11.38,0,0,0,0,0,0,0,0,0,0,0,0,0,0,0,0,
185,29.11,12.34,10.71,32.9,17.3,16.3,23.73,-4.278,4.502,6.717,5.22,-3.18,16.41,12.45,13.57,6.014,0,0,0,0,0,0,0,0,0,0,0,0,0,0,0,0,
186,32.35,13.22,10.69,11.18,16.72,18.43,17.05,2.463,5.493,9.827,6.578,1.791,19.57,16.51,16.96,8.717,0,0,0,0,0,0,0,0,0,0,0,0,0,0,0,0,
187,32.71,13.49,23.23,3.352,13.81,14.95,-6.635,-3.861,8.42,8.233,1.578,-6.443,14.02,9.561,9.941,4.031,0,0,0,0,0,0,0,0,0,0,0,0,0,0,0,0,
188,45.11,16.72,24.25,5.173,17.46,12.39,15.62,-6.269,5.093,4.888,3.156,-7.788,9.471,3.671,7.958,-0.9008,0,0,0,0,0,0,0,0,0,0,0,0,0,0,0,0,
189,38.04,18.06,0.167,-1.054,20.07,19.84,47.19,-2.928,5.572,11.1,7.546,-4.525,10.6,6.946,8.486,3.104,0,0,0,0,0,0,0,0,0,0,0,0,0,0,0,0,
190,14.32,15.88,-12.67,-5.258,19.0,32.48,24.72,-2.986,6.647,19.97,3.263,-3.029,11.35,10.29,6.262,8.113,0,0,0,0,0,0,0,0,0,0,0,0,0,0,0,0,
191,13.54,22.5,4.154,10.34,19.17,31.16,8.812,-0.048,10.98,18.51,1.718,1.142,12.62,5.625,5.436,5.852,0,0,0,0,0,0,0,0,0,0,0,0,0,0,0,0,
192,5.202,23.46,1.03,12.21,15.66,11.19,29.55,-1.391,19.31,4.059,3.826,-1.71,11.23,-1.331,3.039,-0.7492,0,0,0,0,0,0,0,0,0,0,0,0,0,0,0,0,
193,-20.16,8.237,-17.29,-4.439,15.27,4.371,22.58,-7.36,20.06,-4.346,0.7931,-8.07,7.362,-0.2079,0.2909,-3.958,0,0,0,0,0,0,0,0,0,0,0,0,0,0,0,0,
194,-4.639,6.309,-0.2098,12.05,19.6,18.77,6.882,-4.486,16.11,3.507,-2.943,-3.82,5.812,3.536,-1.549,-2.945,0,0,0,0,0,0,0,0,0,0,0,0,0,0,0,0,
195,24.39,25.46,21.94,37.34,21.16,30.62,18.08,4.458,19.35,12.07,-3.86,5.243,7.163,6.459,-3.277,-1.015,0,0,0,0,0,0,0,0,0,0,0,0,0,0,0,0,
196,16.25,37.5,15.23,17.22,25.17,35.52,2.579,6.773,28.89,17.49,-5.174,5.624,9.187,10.2,-2.739,0.5497,0,0,0,0,0,0,0,0,0,0,0,0,0,0,0,0,
197,15.43,34.59,8.707,-4.04,26.13,30.15,-18.5,2.859,30.33,19.33,-5.962,1.109,7.743,7.022,-2.576,2.799,0,0,0,0,0,0,0,0,0,0,0,0,0,0,0,0,
198,30.08,28.84,13.17,11.83,21.58,14.42,15.38,1.752,20.43,10.35,-4.867,0.5769,4.11,-0.1468,-4.34,4.699,0,0,0,0,0,0,0,0,0,0,0,0,0,0,0,0,
199,20.85,23.91,17.92,23.42,26.82,10.36,48.93,0.1782,15.33,2.089,-3.208,-1.298,3.544,-1.506,-4.549,2.689,0,0,0,0,0,0,0,0,0,0,0,0,0,0,0,0,
200,9.613,19.01,17.26,13.47,33.34,18.9,40.67,-2.483,18.67,6.106,-1.514,-2.962,4.297,0.0102,-4.049,0.8603,0,0,0,0,0,0,0,0,0,0,0,0,0,0,0,0,
201,10.17,10.96,4.24,3.34,21.96,16.89,16.19,-1.47,17.02,10.4,-7.016,-1.838,-0.7748,-2.285,-8.027,2.932,0,0,0,0,0,0,0,0,0,0,0,0,0,0,0,0,
202,10.48,3.316,-3.208,0.92,7.824,6.775,-4.058,-5.14,6.376,3.301,-15.28,-6.223,-5.817,-4.844,-9.293,5.926,0,0,0,0,0,0,0,0,0,0,0,0,0,0,0,0,
203,21.33,9.47,7.837,3.656,14.63,9.081,7.366,-7.135,2.28,-0.3813,-5.67,-6.085,5.116,2.568,3.473,12.82,0,0,0,0,0,0,0,0,0,0,0,0,0,0,0,0,
204,25.36,17.17,16.73,4.547,27.54,17.59,14.63,1.141,15.41,10.79,8.911,2.132,19.55,11.91,14.77,21.09,0,0,0,0,0,0,0,0,0,0,0,0,0,0,0,0,
205,14.95,12.17,22.12,9.428,25.68,17.81,-10.53,6.192,26.29,17.72,8.906,5.834,16.77,11.63,11.81,22.3,0,0,0,0,0,0,0,0,0,0,0,0,0,0,0,0,
206,14.16,14.16,17.01,22.81,22.17,17.65,14.63,12.54,22.48,16.14,10.71,14.31,9.789,12.65,8.661,22.38,0,0,0,0,0,0,0,0,0,0,0,0,0,0,0,0,
207,-0.8356,18.08,-14.34,25.56,20.02,15.44,64.57,24.2,16.55,17.23,12.01,25.7,7.088,14.32,7.729,25.13,0,0,0,0,0,0,0,0,0,0,0,0,0,0,0,0,
208,-23.53,6.648,-16.28,17.77,10.85,5.523,37.43,22.6,10.24,13.53,4.399,20.55,2.986,6.26,5.316,22.5,0,0,0,0,0,0,0,0,0,0,0,0,0,0,0,0,
209,-2.761,1.394,20.95,3.627,7.254,1.457,-4.565,5.389,5.115,8.523,4.583,0.8731,1.468,-3.707,3.049,13.36,0,0,0,0,0,0,0,0,0,0,0,0,0,0,0,0,
210,17.44,-1.075,7.37,-20.72,4.321,-0.1468,-4.638,-16.0,4.518,7.378,3.209,-18.97,-3.448,-9.473,-6.142,5.658,0,0,0,0,0,0,0,0,0,0,0,0,0,0,0,0,
211,-4.47,-18.88,-31.81,-18.15,-7.882,-7.092,-7.736,-19.38,-2.606,2.206,-9.648,-15.84,-13.03,-7.784,-14.82,6.37,0,0,0,0,0,0,0,0,0,0,0,0,0,0,0,0,
212,-15.1,-26.05,-22.49,17.87,-12.44,-8.553,-11.68,4.26,-10.91,2.614,-16.54,8.304,-15.73,-1.047,-14.05,11.2,0,0,0,0,0,0,0,0,0,0,0,0,0,0,0,0,
213,-9.596,-14.84,-23.06,35.35,-7.367,-7.652,-7.668,15.22,-9.179,6.023,-16.28,12.29,-14.68,-3.071,-12.02,12.21,0,0,0,0,0,0,0,0,0,0,0,0,0,0,0,0,
214,-16.12,-7.588,-47.14,26.71,-4.143,-7.075,-0.2169,1.101,-4.247,-0.5133,-9.539,-1.54,-8.908,-6.995,-4.115,13.59,0,0,0,0,0,0,0,0,0,0,0,0,0,0,0,0,
215,-12.95,-4.903,-33.35,12.78,-3.806,0.0234,26.45,-2.971,3.079,0.3325,3.993,-1.871,3.96,-0.5102,7.649,16.68,0,0,0,0,0,0,0,0,0,0,0,0,0,0,0,0,
216,-10.14,-6.663,-12.21,4.832,-4.796,2.118,39.26,-0.2013,7.271,10.22,3.712,-0.7769,4.581,4.268,2.914,13.25,0,0,0,0,0,0,0,0,0,0,0,0,0,0,0,0,
217,-24.96,-16.12,-9.113,16.48,-1.691,-3.997,6.975,-3.295,-3.64,7.381,-11.54,-2.659,-9.604,1.171,-11.37,7.827,0,0,0,0,0,0,0,0,0,0,0,0,0,0,0,0,
218,-16.53,-15.55,3.451,29.49,3.379,-1.863,-20.38,3.776,-11.7,1.727,-15.46,6.56,-12.23,-0.3959,-10.37,11.61,0,0,0,0,0,0,0,0,0,0,0,0,0,0,0,0,
219,17.25,0.7584,5.651,24.0,3.88,4.073,2.38,7.506,1.383,7.643,0.2792,5.743,2.066,-0.618,3.933,17.37,0,0,0,0,0,0,0,0,0,0,0,0,0,0,0,0,
220,28.84,3.731,-13.11,11.15,1.627,-1.604,38.26,-6.575,13.75,7.652,14.4,-8.9,9.357,-3.508,9.437,14.01,0,0,0,0,0,0,0,0,0,0,0,0,0,0,0,0,
221,15.35,-15.66,-25.38,1.351,-2.624,-5.182,28.48,-6.116,8.617,-0.9232,7.992,-2.477,2.151,-0.2514,0.8705,11.11,0,0,0,0,0,0,0,0,0,0,0,0,0,0,0,0,
222,-6.978,-22.58,-22.32,9.377,-1.755,6.549,-6.304,11.88,3.192,4.571,-7.096,14.61,-3.158,10.58,-5.319,18.21,0,0,0,0,0,0,0,0,0,0,0,0,0,0,0,0,
223,-26.64,-6.725,-2.451,30.8,6.928,12.43,-6.651,12.17,5.508,14.71,-8.782,10.18,0.7321,13.96,-0.2243,25.63,0,0,0,0,0,0,0,0,0,0,0,0,0,0,0,0,
224,-14.23,2.592,12.81,28.67,7.945,4.914,4.619,-0.9162,9.167,8.927,3.138,-2.968,10.01,9.137,8.838,24.75,0,0,0,0,0,0,0,0,0,0,0,0,0,0,0,0,
225,10.1,-5.027,-4.616,3.84,1.563,0.7371,-6.273,-9.441,14.86,1.516,16.78,-10.46,20.59,7.407,17.31,22.79,0,0,0,0,0,0,0,0,0,0,0,0,0,0,0,0,
226,-6.478,-13.68,-22.8,-1.135,4.082,-0.9814,9.915,-8.878,18.41,0.9758,29.97,-7.648,29.88,14.04,29.59,30.52,0,0,0,0,0,0,0,0,0,0,0,0,0,0,0,0,
227,-32.49,-11.51,-17.43,17.24,9.092,-2.468,44.94,3.787,18.61,3.792,36.74,5.433,33.21,24.15,34.19,35.34,0,0,0,0,0,0,0,0,0,0,0,0,0,0,0,0,
228,-23.52,-7.633,-12.75,15.18,0.8461,-0.9673,27.81,5.868,15.23,11.99,21.03,3.388,19.94,18.92,13.71,18.66,0,0,0,0,0,0,0,0,0,0,0,0,0,0,0,0,
229,-17.53,-12.77,0.9937,-1.898,-5.784,-0.3421,1.238,-2.648,2.286,13.77,0.1687,-4.435,3.412,5.342,-3.987,5.182,0,0,0,0,0,0,0,0,0,0,0,0,0,0,0,0,
230,-32.91,-18.07,23.42,14.09,2.462,1.815,5.667,6.488,-3.338,9.952,3.35,7.333,6.889,10.72,6.595,16.7,0,0,0,0,0,0,0,0,0,0,0,0,0,0,0,0,
231,-34.57,-20.91,11.17,34.48,4.204,3.372,-12.32,16.16,4.193,13.33,11.02,16.39,15.18,24.75,15.35,27.65,0,0,0,0,0,0,0,0,0,0,0,0,0,0,0,0,
232,-26.7,-20.58,-13.04,19.21,5.395,9.169,-23.76,20.77,6.986,20.36,8.848,22.4,20.67,34.12,14.7,30.02,0,0,0,0,0,0,0,0,0,0,0,0,0,0,0,0,
233,-36.44,-9.232,-8.649,7.663,22.94,26.31,6.39,30.63,16.96,31.76,15.27,29.28,35.09,39.23,24.5,33.12,0,0,0,0,0,0,0,0,0,0,0,0,0,0,0,0,
234,-44.46,-1.286,1.482,10.96,20.91,30.4,26.87,18.41,29.61,38.56,25.52,13.31,40.52,29.59,30.37,26.61,0,0,0,0,0,0,0,0,0,0,0,0,0,0,0,0,
235,-25.86,-4.973,11.31,5.895,1.214,18.55,38.42,4.665,18.29,30.3,26.13,5.191,31.02,21.22,23.52,18.46,0,0,0,0,0,0,0,0,0,0,0,0,0,0,0,0,
236,-6.036,-9.182,20.15,6.04,9.425,16.83,30.58,17.6,9.188,26.2,16.43,19.0,24.09,25.65,15.83,19.5,0,0,0,0,0,0,0,0,0,0,0,0,0,0,0,0,
237,-9.466,-12.54,11.56,11.27,22.67,18.46,-10.45,18.23,19.88,27.11,5.854,15.55,20.27,21.09,13.13,18.15,0,0,0,0,0,0,0,0,0,0,0,0,0,0,0,0,
238,-16.28,-8.28,8.328,10.52,14.55,16.15,-8.107,10.96,23.21,19.15,10.88,11.47,20.03,14.49,18.71,16.65,0,0,0,0,0,0,0,0,0,0,0,0,0,0,0,0,
239,-11.49,-2.888,6.654,12.15,10.94,17.16,10.82,18.5,17.66,13.54,16.73,19.64,22.15,18.84,23.03,19.91,0,0,0,0,0,0,0,0,0,0,0,0,0,0,0,0,
240,-7.613,-12.16,-14.61,14.82,14.41,17.39,-18.66,14.36,14.79,16.81,8.525,13.21,22.43,22.47,20.95,22.11,0,0,0,0,0,0,0,0,0,0,0,0,0,0,0,0,
241,-10.75,-11.02,-10.17,20.18,15.38,19.38,-17.0,7.115,13.03,23.04,5.856,8.146,24.88,23.52,19.94,22.8,0,0,0,0,0,0,0,0,0,0,0,0,0,0,0,0,
242,-11.17,7.379,22.59,31.21,18.9,21.17,19.08,13.27,12.06,22.47,6.945,13.49,21.25,20.31,15.22,18.18,0,0,0,0,0,0,0,0,0,0,0,0,0,0,0,0,
243,-11.8,5.835,19.6,26.89,14.13,15.34,14.26,10.24,8.398,11.55,2.685,8.435,11.95,13.48,10.39,11.23,0,0,0,0,0,0,0,0,0,0,0,0,0,0,0,0,
244,-25.53,-6.99,-3.522,3.075,0.7701,10.05,-2.33,1.314,3.577,6.059,3.656,1.857,11.71,11.68,12.8,11.56,0,0,0,0,0,0,0,0,0,0,0,0,0,0,0,0,
245,-25.8,5.476,2.589,-3.551,4.746,10.25,-2.294,4.056,4.735,7.4,5.089,5.694,15.38,11.5,13.3,14.28,0,0,0,0,0,0,0,0,0,0,0,0,0,0,0,0,
246,1.067,20.42,3.463,12.95,18.05,11.93,6.961,11.12,9.675,5.933,4.968,11.45,17.94,14.31,14.25,17.93,0,0,0,0,0,0,0,0,0,0,0,0,0,0,0,0,
247,-1.386,1.624,-25.79,8.769,9.428,9.374,14.61,12.25,11.61,6.957,7.13,11.34,19.82,20.6,17.49,22.47,0,0,0,0,0,0,0,0,0,0,0,0,0,0,0,0,
248,-20.92,-14.75,-21.03,-3.888,2.076,4.218,2.838,5.794,13.39,7.682,3.874,4.092,14.29,17.33,13.39,15.69,0,0,0,0,0,0,0,0,0,0,0,0,0,0,0,0,
249,12.74,7.745,36.01,18.17,19.42,8.13,11.65,-1.653,21.45,5.593,6.494,-1.863,11.25,10.97,14.55,8.666,0,0,0,0,0,0,0,0,0,0,0,0,0,0,0,0,
250,37.67,27.63,63.8,29.22,27.63,16.41,40.92,-0.1237,27.12,10.32,24.46,1.296,21.59,17.46,31.26,20.2,0,0,0,0,0,0,0,0,0,0,0,0,0,0,0,0,
251,-3.11,20.44,36.12,-0.0537,25.06,18.26,26.39,6.931,27.95,19.42,32.71,6.72,28.44,24.73,36.33,25.29,0,0,0,0,0,0,0,0,0,0,0,0,0,0,0,0,
252,-13.72,12.04,12.21,-8.114,30.53,14.39,4.019,7.657,31.32,20.57,16.83,6.628,16.35,16.16,14.69,7.717,0,0,0,0,0,0,0,0,0,0,0,0,0,0,0,0,
253,28.57,5.934,15.73,8.341,20.09,4.383,10.73,2.974,23.47,10.98,0.7379,3.345,1.239,5.814,-0.7212,1.458,0,0,0,0,0,0,0,0,0,0,0,0,0,0,0,0,
254,28.23,-0.4061,13.18,-1.169,-1.25,-3.509,-0.3133,-3.639,6.199,3.506,2.189,-3.845,1.276,8.585,6.029,12.31,0,0,0,0,0,0,0,0,0,0,0,0,0,0,0,0,
255,-6.503,-6.625,-11.22,-24.34,-5.731,-1.51,-16.35,-9.593,2.085,6.402,3.839,-8.712,4.253,11.56,6.915,9.898,0,0,0,0,0,0,0,0,0,0,0,0,0,0,0,0,
256,-3.446,-14.77,-13.65,-27.09,0.0292,3.842,-12.64,-2.749,2.786,11.59,-3.369,0.0532,2.092,8.242,0.7067,1.429,0,0,0,0,0,0,0,0,0,0,0,0,0,0,0,0,
257,9.04,-6.989,19.83,-6.954,8.43,6.507,-15.77,2.952,1.176,12.29,-2.488,1.608,5.646,3.3,5.85,2.215,0,0,0,0,0,0,0,0,0,0,0,0,0,0,0,0,
258,-16.13,5.33,26.14,19.68,10.0,-0.2144,-12.23,-10.59,4.592,3.399,5.829,-13.03,7.069,-6.432,8.565,-0.99,0,0,0,0,0,0,0,0,0,0,0,0,0,0,0,0,
259,-34.71,-3.699,8.287,27.79,-1.847,-12.43,2.876,-16.21,0.1926,-10.33,6.529,-14.18,-3.693,-15.13,0.39,-9.729,0,0,0,0,0,0,0,0,0,0,0,0,0,0,0,0,
260,-17.52,-12.24,16.86,11.62,-12.82,-18.09,-9.302,-10.77,-15.18,-16.42,-2.365,-10.46,-14.74,-18.76,-7.411,-15.78,0,0,0,0,0,0,0,0,0,0,0,0,0,0,0,0,
261,-13.33,-10.59,10.03,-7.603,-21.57,-21.56,-37.08,-18.79,-25.66,-21.84,-15.6,-20.28,-18.78,-22.08,-14.09,-19.45,0,0,0,0,0,0,0,0,0,0,0,0,0,0,0,0,
262,-30.64,-15.89,-28.06,-18.89,-26.23,-22.16,-45.38,-24.22,-26.54,-28.18,-25.21,-22.3,-20.78,-21.36,-20.44,-18.54,0,0,0,0,0,0,0,0,0,0,0,0,0,0,0,0,
263,-22.23,-16.43,-23.09,-17.71,-14.99,-12.5,-35.97,-18.56,-21.14,-25.55,-25.72,-16.56,-21.45,-18.47,-21.46,-13.33,0,0,0,0,0,0,0,0,0,0,0,0,0,0,0,0,
264,8.671,-1.041,25.95,7.854,1.19,-2.299,-24.16,-16.8,-12.11,-22.77,-17.83,-16.91,-14.78,-17.95,-14.54,-7.986,0,0,0,0,0,0,0,0,0,0,0,0,0,0,0,0,
265,13.95,11.27,45.3,23.89,7.104,-0.4792,-24.43,-18.47,-4.246,-23.8,-6.688,-18.59,-3.362,-17.47,-3.765,-4.178,0,0,0,0,0,0,0,0,0,0,0,0,0,0,0,0,
266,-12.81,7.144,23.11,-3.928,2.287,-4.185,-20.88,-17.48,-5.11,-23.22,-0.6482,-16.08,2.078,-17.22,4.269,-1.54,0,0,0,0,0,0,0,0,0,0,0,0,0,0,0,0,
267,-23.37,1.817,4.92,-16.09,-8.93,-9.598,-2.998,-9.328,-13.03,-24.77,-3.164,-8.367,-0.2828,-16.34,3.882,-2.304,0,0,0,0,0,0,0,0,0,0,0,0,0,0,0,0,
268,-3.673,2.887,0.4782,8.976,-20.66,-17.84,-19.43,-8.632,-18.7,-30.21,-14.57,-10.99,-11.03,-20.78,-11.61,-13.45,0,0,0,0,0,0,0,0,0,0,0,0,0,0,0,0,
269,0.9998,-5.616,-12.55,1.836,-25.48,-25.11,-56.04,-20.85,-21.04,-36.59,-26.48,-21.3,-24.7,-30.47,-28.18,-26.56,0,0,0,0,0,0,0,0,0,0,0,0,0,0,0,0,
270,-13.21,-16.32,-26.61,-20.06,-20.17,-20.27,-39.07,-17.51,-20.24,-33.06,-24.62,-14.1,-26.91,-28.03,-25.47,-25.34,0,0,0,0,0,0,0,0,0,0,0,0,0,0,0,0,
271,-11.07,-9.713,-20.03,-9.399,-14.93,-10.67,-1.962,-6.251,-22.02,-17.0,-17.25,-4.651,-23.97,-16.78,-19.08,-17.03,0,0,0,0,0,0,0,0,0,0,0,0,0,0,0,0,
272,0.8133,4.558,11.16,-8.294,-8.719,-7.27,2.202,-7.507,-30.43,-8.028,-17.88,-7.301,-25.72,-12.75,-22.29,-12.96,0,0,0,0,0,0,0,0,0,0,0,0,0,0,0,0,
273,2.532,8.946,34.88,-22.94,3.359,-4.971,-10.28,-10.92,-30.31,-14.17,-18.48,-12.51,-22.87,-15.49,-18.71,-9.663,0,0,0,0,0,0,0,0,0,0,0,0,0,0,0,0,
274,-9.086,-4.065,0.8686,-21.08,-4.765,-7.409,-36.25,-20.85,-23.21,-23.89,-10.12,-23.36,-11.87,-16.89,-4.171,-3.567,0,0,0,0,0,0,0,0,0,0,0,0,0,0,0,0,
275,-19.71,-18.67,-47.09,-15.41,-27.77,-12.67,-43.0,-25.23,-22.42,-23.45,-1.021,-22.54,-2.54,-10.73,2.182,-0.3556,0,0,0,0,0,0,0,0,0,0,0,0,0,0,0,0,
276,0.1454,-10.23,-20.28,-9.195,-25.27,-12.14,-8.288,-10.53,-21.97,-13.95,-9.053,-8.153,-7.62,-10.13,-12.08,-10.75,0,0,0,0,0,0,0,0,0,0,0,0,0,0,0,0,
277,25.55,2.058,39.18,-5.833,-10.17,-14.85,0.643,-8.699,-22.3,-14.49,-22.21,-10.66,-17.47,-20.33,-22.81,-22.88,0,0,0,0,0,0,0,0,0,0,0,0,0,0,0,0,
278,7.121,-7.343,52.72,-20.59,-3.902,-17.27,-6.504,-16.68,-18.88,-18.93,-9.757,-15.59,-9.43,-17.46,-8.182,-14.96,0,0,0,0,0,0,0,0,0,0,0,0,0,0,0,0,
279,-17.76,-15.63,43.61,-29.07,7.426,-9.046,36.31,-11.33,-4.179,-11.12,8.39,-9.348,0.6822,-6.052,2.438,-2.025,0,0,0,0,0,0,0,0,0,0,0,0,0,0,0,0,
280,-3.366,-2.139,44.94,-28.09,19.72,-1.459,67.82,-12.65,4.333,-5.01,4.586,-14.04,-3.929,-6.75,-7.056,-5.367,0,0,0,0,0,0,0,0,0,0,0,0,0,0,0,0,
281,17.16,12.56,55.04,-47.18,24.53,-1.108,39.45,-23.11,6.812,-5.315,0.0071,-23.67,-4.401,-12.49,-10.88,-15.37,0,0,0,0,0,0,0,0,0,0,0,0,0,0,0,0,
282,29.29,10.12,79.23,-55.94,28.49,-2.931,24.52,-24.5,15.93,-6.272,9.631,-23.17,4.898,-15.0,0.0113,-16.18,0,0,0,0,0,0,0,0,0,0,0,0,0,0,0,0,
283,49.96,5.952,98.02,-31.61,27.33,-5.38,47.97,-20.23,23.06,-10.75,24.16,-18.64,15.17,-9.534,13.96,-7.439,0,0,0,0,0,0,0,0,0,0,0,0,0,0,0,0,
284,50.88,6.965,77.45,-26.87,17.05,-12.3,51.78,-18.72,24.91,-14.32,27.5,-17.47,17.04,-2.532,13.9,-6.232,0,0,0,0,0,0,0,0,0,0,0,0,0,0,0,0,
285,23.03,-0.9189,47.85,-44.74,7.547,-21.38,26.74,-21.06,19.13,-17.72,10.74,-20.59,3.781,-8.02,-1.587,-16.48,0,0,0,0,0,0,0,0,0,0,0,0,0,0,0,0,
286,11.01,-8.558,52.38,-42.32,2.087,-22.27,18.86,-23.78,3.787,-18.7,-5.03,-23.75,-8.684,-13.7,-10.51,-21.26,0,0,0,0,0,0,0,0,0,0,0,0,0,0,0,0,
287,17.75,-6.987,54.69,-43.85,-5.115,-22.03,39.74,-24.23,-12.44,-14.22,-8.493,-23.95,-14.3,-14.93,-14.65,-26.04,0,0,0,0,0,0,0,0,0,0,0,0,0,0,0,0,
288,19.25,-3.09,40.3,-54.6,-1.29,-22.2,58.65,-19.36,-23.77,-16.46,-10.35,-18.57,-19.1,-21.08,-21.01,-35.43,0,0,0,0,0,0,0,0,0,0,0,0,0,0,0,0,
289,29.3,7.936,55.19,-38.4,17.51,-7.926,55.77,-14.55,-15.56,-16.11,-5.578,-14.63,-11.3,-18.88,-13.13,-28.22,0,0,0,0,0,0,0,0,0,0,0,0,0,0,0,0,
290,48.67,12.3,72.33,-26.08,20.05,3.438,37.76,-19.26,6.852,-3.487,3.099,-18.74,2.214,-6.656,0.6061,-12.25,0,0,0,0,0,0,0,0,0,0,0,0,0,0,0,0,
291,52.63,2.228,55.47,-33.72,8.974,-2.746,24.44,-17.84,10.53,0.4932,1.955,-15.38,2.392,-2.606,-0.2991,-13.45,0,0,0,0,0,0,0,0,0,0,0,0,0,0,0,0,
292,41.72,7.094,49.97,-27.89,9.416,-9.707,30.03,-11.17,1.754,-8.164,-3.554,-11.49,-2.585,-7.342,-5.926,-19.87,0,0,0,0,0,0,0,0,0,0,0,0,0,0,0,0,
293,31.27,17.28,61.86,-28.05,5.325,-16.43,44.82,-20.37,0.8624,-15.38,-2.175,-21.77,-0.7978,-8.196,-1.707,-14.15,0,0,0,0,0,0,0,0,0,0,0,0,0,0,0,0,
294,23.77,8.253,60.09,-39.4,0.2599,-18.41,38.24,-21.39,3.735,-13.98,6.13,-18.88,5.435,-2.515,5.867,-9.633,0,0,0,0,0,0,0,0,0,0,0,0,0,0,0,0,
295,12.54,4.413,56.36,-24.93,13.34,-4.894,7.956,-4.778,13.72,-5.896,11.3,-3.498,9.114,0.8357,6.732,-10.73,0,0,0,0,0,0,0,0,0,0,0,0,0,0,0,0,
296,8.183,11.17,52.81,-4.468,18.71,5.764,3.703,-4.53,25.07,-3.278,12.11,-6.367,10.01,2.474,8.39,-1.673,0,0,0,0,0,0,0,0,0,0,0,0,0,0,0,0,
297,31.21,9.002,37.28,-7.878,6.67,1.768,26.18,-15.18,20.64,-6.382,14.61,-15.57,11.14,3.781,13.1,8.203,0,0,0,0,0,0,0,0,0,0,0,0,0,0,0,0,
298,50.55,6.778,15.14,-20.51,-6.002,-7.143,17.86,-15.41,6.462,-10.49,10.34,-13.98,10.02,0.1667,10.82,3.63,0,0,0,0,0,0,0,0,0,0,0,0,0,0,0,0,
299,25.01,6.883,3.338,-29.66,-16.45,-12.3,6.899,-8.826,-1.609,-14.33,3.905,-6.521,14.08,7.187,10.99,3.199,0,0,0,0,0,0,0,0,0,0,0,0,0,0,0,0,
300,1.032,1.607,33.62,-27.64,-4.067,-6.403,37.85,0.8174,6.338,-6.17,13.64,2.887,27.47,26.48,20.18,13.95,0,0,0,0,0,0,0,0,0,0,0,0,0,0,0,0,
301,30.39,9.74,97.11,-10.64,36.43,7.537,54.8,7.877,29.73,7.579,29.94,8.77,35.78,33.06,25.79,19.07,0,0,0,0,0,0,0,0,0,0,0,0,0,0,0,0,
302,62.99,32.25,120.6,1.28,55.56,15.8,43.01,8.914,49.24,10.9,37.83,8.796,37.34,30.14,29.21,21.01,0,0,0,0,0,0,0,0,0,0,0,0,0,0,0,0,
303,50.0,35.49,83.96,-9.979,37.5,13.8,50.53,6.943,48.43,12.04,43.96,5.88,41.81,29.6,37.77,24.8,0,0,0,0,0,0,0,0,0,0,0,0,0,0,0,0,
304,32.59,24.84,56.7,-28.01,26.64,11.84,52.23,4.444,39.7,15.01,48.43,4.341,46.17,25.16,42.88,22.31,0,0,0,0,0,0,0,0,0,0,0,0,0,0,0,0,
305,37.47,28.19,64.05,-28.05,30.16,12.06,22.71,1.991,37.62,11.02,38.5,2.208,40.9,18.04,34.37,16.02,0,0,0,0,0,0,0,0,0,0,0,0,0,0,0,0,
306,32.99,27.33,61.07,-23.44,21.26,4.392,15.26,-7.617,31.72,3.035,25.51,-8.985,28.93,14.29,25.1,16.0,0,0,0,0,0,0,0,0,0,0,0,0,0,0,0,0,
307,22.36,11.27,47.21,-41.34,12.07,-2.163,45.0,-18.31,23.62,2.6,33.29,-17.78,26.85,17.99,32.76,21.99,0,0,0,0,0,0,0,0,0,0,0,0,0,0,0,0,
308,26.28,5.289,48.45,-61.79,16.06,2.412,53.88,-11.2,27.11,8.633,46.34,-7.251,34.47,26.95,41.0,26.92,0,0,0,0,0,0,0,0,0,0,0,0,0,0,0,0,
309,28.51,13.39,50.86,-43.9,22.44,9.012,31.05,6.94,32.73,11.78,44.77,10.44,40.3,31.39,37.8,30.12,0,0,0,0,0,0,0,0,0,0,0,0,0,0,0,0,
310,29.75,22.41,45.72,-11.35,29.78,15.0,26.45,13.6,37.15,17.28,41.85,14.03,43.96,28.41,36.72,31.27,0,0,0,0,0,0,0,0,0,0,0,0,0,0,0,0,
311,35.45,24.83,39.18,-14.11,28.79,15.13,46.8,8.098,39.55,21.33,41.37,7.342,40.61,23.33,34.93,28.4,0,0,0,0,0,0,0,0,0,0,0,0,0,0,0,0,
312,28.19,23.42,36.4,-23.68,21.07,10.95,46.12,8.488,31.6,15.38,39.82,8.632,34.45,26.65,31.57,28.96,0,0,0,0,0,0,0,0,0,0,0,0,0,0,0,0,
313,24.09,26.64,46.47,-12.39,26.19,16.42,14.1,10.38,31.78,17.76,36.78,8.28,33.29,31.64,31.21,30.15,0,0,0,0,0,0,0,0,0,0,0,0,0,0,0,0,
314,31.26,22.33,51.38,-21.52,25.01,16.0,9.237,-3.269,36.06,22.09,29.04,-6.79,26.99,20.96,26.63,23.26,0,0,0,0,0,0,0,0,0,0,0,0,0,0,0,0,
315,17.27,10.5,37.09,-38.75,11.29,4.381,43.12,-13.13,22.09,10.81,31.32,-12.2,25.67,12.82,26.96,20.93,0,0,0,0,0,0,0,0,0,0,0,0,0,0,0,0,
316,-2.034,14.44,26.56,-25.98,17.69,7.489,39.17,-3.062,20.7,10.23,38.8,0.3396,38.3,21.88,33.52,27.86,0,0,0,0,0,0,0,0,0,0,0,0,0,0,0,0,
317,10.55,26.15,26.85,-18.18,31.68,20.92,17.85,10.83,40.63,23.8,34.92,13.08,44.38,29.7,34.85,33.08,0,0,0,0,0,0,0,0,0,0,0,0,0,0,0,0,
318,38.72,32.64,33.02,-24.94,29.65,30.26,44.33,18.91,45.22,28.52,37.09,19.27,42.82,29.8,36.71,32.15,0,0,0,0,0,0,0,0,0,0,0,0,0,0,0,0,
319,61.77,40.59,48.37,-20.61,31.67,37.49,41.84,15.16,40.36,28.86,38.15,13.09,39.83,23.35,32.87,22.77,0,0,0,0,0,0,0,0,0,0,0,0,0,0,0,0,
320,67.94,46.1,56.54,-15.37,45.6,39.48,6.852,10.14,44.4,27.83,27.98,10.57,34.52,19.58,24.59,20.54,0,0,0,0,0,0,0,0,0,0,0,0,0,0,0,0,
321,40.13,44.64,44.57,-7.707,46.51,34.65,30.04,19.83,46.8,25.54,30.52,22.89,32.68,27.82,25.8,32.67,0,0,0,0,0,0,0,0,0,0,0,0,0,0,0,0,
322,11.75,34.83,34.45,3.364,24.0,21.82,39.07,20.72,36.54,23.49,26.3,20.4,22.55,24.28,18.95,27.13,0,0,0,0,0,0,0,0,0,0,0,0,0,0,0,0,
323,30.65,25.61,47.31,-5.285,8.26,8.898,5.109,8.116,18.15,15.78,5.632,6.305,8.201,7.717,7.058,6.26,0,0,0,0,0,0,0,0,0,0,0,0,0,0,0,0,
324,58.35,31.7,55.08,-23.49,13.09,6.212,23.86,2.441,9.042,9.059,8.018,1.542,12.72,5.612,13.0,6.05,0,0,0,0,0,0,0,0,0,0,0,0,0,0,0,0,
325,38.47,34.51,30.15,-23.45,11.33,3.365,48.02,-2.566,8.789,5.062,19.45,-2.277,19.69,9.616,17.47,14.71,0,0,0,0,0,0,0,0,0,0,0,0,0,0,0,0,
326,6.43,25.78,15.69,-7.195,9.28,3.364,24.62,0.8498,6.896,3.442,13.79,4.389,15.45,7.888,10.7,10.22,0,0,0,0,0,0,0,0,0,0,0,0,0,0,0,0,
327,13.04,30.4,36.95,6.976,22.0,13.91,12.66,14.59,10.98,10.94,11.0,17.55,14.82,5.505,8.226,3.205,0,0,0,0,0,0,0,0,0,0,0,0,0,0,0,0,
328,41.55,45.96,51.38,15.64,25.08,19.07,20.57,13.09,16.87,13.15,13.58,12.69,15.37,2.015,6.872,0.398,0,0,0,0,0,0,0,0,0,0,0,0,0,0,0,0,
329,64.59,57.09,55.58,18.68,22.75,17.99,38.1,5.787,16.07,7.42,17.93,5.801,15.34,5.663,9.665,5.314,0,0,0,0,0,0,0,0,0,0,0,0,0,0,0,0,
330,76.83,59.18,67.59,5.636,32.21,17.7,50.53,7.612,20.63,10.1,30.56,9.371,24.51,18.49,22.39,19.24,0,0,0,0,0,0,0,0,0,0,0,0,0,0,0,0,
331,80.82,60.77,65.11,6.079,36.5,19.07,27.56,9.66,27.88,13.98,31.4,11.21,28.97,22.65,22.09,18.63,0,0,0,0,0,0,0,0,0,0,0,0,0,0,0,0,
332,108.2,101.4,66.19,53.11,40.49,36.32,12.59,10.27,21.06,14.82,13.26,10.14,15.23,12.72,3.36,-1.456,0,0,0,0,0,0,0,0,0,0,0,0,0,0,0,0,
333,178.7,176.4,110.5,102.3,67.1,66.17,29.41,8.442,14.81,23.07,8.84,8.497,9.615,7.266,-0.7449,-6.215,0,0,0,0,0,0,0,0,0,0,0,0,0,0,0,0,
334,238.1,221.3,146.6,122.2,98.28,84.64,33.46,14.26,32.81,35.56,19.68,16.5,23.25,13.73,7.814,3.302,0,0,0,0,0,0,0,0,0,0,0,0,0,0,0,0,
335,254.3,237.4,121.1,142.4,104.8,89.86,28.96,34.64,47.22,42.27,14.98,36.57,23.09,14.74,1.48,-2.783,0,0,0,0,0,0,0,0,0,0,0,0,0,0,0,0,
336,282.4,274.3,109.8,166.8,105.3,99.76,45.65,47.76,32.59,43.68,11.36,48.63,14.67,11.96,1.872,-6.632,0,0,0,0,0,0,0,0,0,0,0,0,0,0,0,0,
337,327.5,317.1,161.5,174.6,117.0,115.2,65.41,48.48,26.61,48.44,24.77,48.87,22.6,18.38,15.53,4.708,0,0,0,0,0,0,0,0,0,0,0,0,0,0,0,0,
338,331.7,333.2,170.9,165.3,108.7,117.8,43.95,46.17,36.63,52.94,18.28,43.97,19.78,18.91,4.771,0.6931,0,0,0,0,0,0,0,0,0,0,0,0,0,0,0,0,
339,321.5,334.9,115.7,165.0,95.11,114.1,-1.482,37.28,31.35,51.26,-1.509,34.52,4.294,9.982,-13.99,-15.52,0,0,0,0,0,0,0,0,0,0,0,0,0,0,0,0,
340,345.4,335.6,126.7,189.0,117.1,120.3,13.46,34.88,28.42,50.21,5.285,35.96,7.689,8.284,-6.961,-14.87,0,0,0,0,0,0,0,0,0,0,0,0,0,0,0,0,
341,362.8,330.5,182.0,192.9,125.7,119.8,58.34,49.34,35.31,47.34,19.5,51.61,17.11,13.73,5.984,-1.7,0,0,0,0,0,0,0,0,0,0,0,0,0,0,0,0,
342,331.6,312.2,140.6,160.7,94.07,109.6,28.13,56.36,31.56,43.45,16.83,54.88,17.37,20.35,6.763,5.99,0,0,0,0,0,0,0,0,0,0,0,0,0,0,0,0,
343,285.4,285.4,71.67,160.2,82.77,106.7,-5.163,48.44,29.49,48.03,10.89,47.28,16.22,24.07,0.8249,5.303,0,0,0,0,0,0,0,0,0,0,0,0,0,0,0,0,
344,291.3,278.2,119.2,194.6,93.7,104.2,47.4,51.67,29.68,53.21,11.0,54.85,13.29,23.03,-3.187,4.61,0,0,0,0,0,0,0,0,0,0,0,0,0,0,0,0,
345,334.8,284.7,189.6,188.0,85.49,96.06,75.01,61.25,17.68,50.43,11.39,61.97,8.693,17.58,-2.936,3.884,0,0,0,0,0,0,0,0,0,0,0,0,0,0,0,0,
346,319.7,262.4,148.9,149.2,68.82,90.13,26.76,52.55,5.74,40.28,6.054,49.07,3.945,7.877,-5.206,-1.599,0,0,0,0,0,0,0,0,0,0,0,0,0,0,0,0,
347,242.1,221.7,71.7,130.5,64.48,87.72,11.57,34.27,6.809,32.61,1.858,32.12,2.615,5.872,-6.936,-2.279,0,0,0,0,0,0,0,0,0,0,0,0,0,0,0,0,
348,170.8,183.9,48.85,112.1,65.35,81.44,38.23,21.16,16.87,38.25,1.031,21.24,3.675,12.67,-7.291,4.018,0,0,0,0,0,0,0,0,0,0,0,0,0,0,0,0,
349,128.0,144.7,64.58,100.2,56.76,65.48,29.36,28.51,15.07,39.4,-4.374,32.6,-1.567,16.08,-9.719,9.08,0,0,0,0,0,0,0,0,0,0,0,0,0,0,0,0,
350,141.6,134.5,95.81,129.7,39.46,50.15,-8.925,55.07,-2.469,28.79,-6.878,57.79,-5.277,16.54,-7.474,10.74,0,0,0,0,0,0,0,0,0,0,0,0,0,0,0,0,
351,171.1,140.1,81.42,131.7,22.92,42.07,-25.97,47.82,-6.919,24.66,-3.883,41.84,-2.853,9.611,-6.417,4.022,0,0,0,0,0,0,0,0,0,0,0,0,0,0,0,0,
352,112.1,102.2,-5.396,70.09,8.529,36.87,5.918,13.76,0.8734,23.15,-0.7698,11.09,-1.548,1.323,-7.689,-2.976,0,0,0,0,0,0,0,0,0,0,0,0,0,0,0,0,
353,35.2,56.27,-45.89,40.16,1.232,36.16,49.86,17.61,0.6631,21.18,6.545,21.82,1.992,6.624,-2.37,0.2733,0,0,0,0,0,0,0,0,0,0,0,0,0,0,0,0,
354,43.07,47.81,-1.014,53.14,4.194,31.12,30.26,29.42,0.8408,22.08,7.697,28.73,3.664,9.117,-3.666,-0.3656,0,0,0,0,0,0,0,0,0,0,0,0,0,0,0,0,
355,46.67,41.13,10.01,34.0,5.886,18.87,-20.46,17.54,6.203,17.87,-2.927,16.71,-1.379,4.377,-12.38,-7.02,0,0,0,0,0,0,0,0,0,0,0,0,0,0,0,0,
356,-5.163,17.7,-32.34,4.881,-6.762,11.74,-15.14,19.02,3.598,13.26,-10.71,20.95,-7.851,4.376,-14.03,-9.047,0,0,0,0,0,0,0,0,0,0,0,0,0,0,0,0,
357,-45.21,-14.23,-47.47,11.1,-27.66,1.859,4.4,18.98,-13.44,5.622,-12.84,16.37,-14.9,-0.3491,-13.35,-8.47,0,0,0,0,0,0,0,0,0,0,0,0,0,0,0,0,
358,-55.12,-43.47,-35.48,21.38,-30.21,-10.34,-21.26,1.969,-26.24,-9.439,-9.193,0.6376,-12.08,-1.893,-10.34,-2.839,0,0,0,0,0,0,0,0,0,0,0,0,0,0,0,0,
359,-43.75,-45.61,-33.3,4.075,-18.45,-8.814,-33.02,2.1,-14.77,-12.67,-1.044,5.098,1.814,7.548,-2.22,3.375,0,0,0,0,0,0,0,0,0,0,0,0,0,0,0,0,
360,-31.19,-37.47,-37.36,-18.38,-22.7,-5.235,-10.55,13.25,-1.847,-5.727,-0.3148,14.11,6.149,8.671,2.485,1.595,0,0,0,0,0,0,0,0,0,0,0,0,0,0,0,0,
361,-57.6,-53.95,-49.33,-19.35,-29.58,-9.097,-12.15,12.33,-4.553,-3.988,-3.643,11.74,3.158,3.973,2.704,1.558,0,0,0,0,0,0,0,0,0,0,0,0,0,0,0,0,
362,-87.38,-74.18,-65.26,-13.48,-23.44,-9.626,-16.06,4.322,-0.1366,-1.917,-0.9209,3.817,6.455,3.688,1.929,1.253,0,0,0,0,0,0,0,0,0,0,0,0,0,0,0,0,
363,-73.39,-72.94,-56.28,-17.58,-27.28,-11.85,-0.982,-5.752,6.367,-0.3837,-0.0448,-7.645,6.284,-1.318,-1.031,-10.09,0,0,0,0,0,0,0,0,0,0,0,0,0,0,0,0,
364,-61.97,-73.28,-46.12,-31.11,-39.18,-23.69,-24.55,-15.48,-8.5,-8.873,-10.29,-16.3,-4.472,-10.14,-9.134,-18.91,0,0,0,0,0,0,0,0,0,0,0,0,0,0,0,0,
365,-75.9,-82.81,-61.64,-50.3,-37.43,-28.73,-45.2,-14.83,-25.82,-19.29,-19.31,-11.91,-10.82,-10.67,-14.96,-12.49,0,0,0,0,0,0,0,0,0,0,0,0,0,0,0,0,
366,-79.57,-76.17,-56.73,-51.99,-31.96,-20.32,-7.061,-2.652,-24.0,-15.81,-13.57,-0.7217,-4.697,-3.192,-7.982,-1.976,0,0,0,0,0,0,0,0,0,0,0,0,0,0,0,0,
367,-86.59,-71.97,-44.91,-34.28,-40.17,-21.6,-3.007,-3.512,-20.15,-7.991,-4.565,-6.323,1.441,1.088,2.154,1.593,0,0,0,0,0,0,0,0,0,0,0,0,0,0,0,0,
368,-103.2,-97.26,-72.38,-30.45,-47.57,-29.26,-41.3,-15.55,-19.42,-11.09,1.219,-15.25,5.503,4.242,7.064,3.572,0,0,0,0,0,0,0,0,0,0,0,0,0,0,0,0,
369,-93.18,-112.1,-79.21,-40.02,-37.63,-22.47,-28.02,-1.859,-4.504,-10.2,7.923,2.988,10.18,11.28,7.701,6.897,0,0,0,0,0,0,0,0,0,0,0,0,0,0,0,0,
370,-78.28,-97.14,-44.17,-41.75,-31.89,-24.14,-0.5419,15.27,5.556,-6.537,5.588,13.98,5.15,9.564,0.7311,4.336,0,0,0,0,0,0,0,0,0,0,0,0,0,0,0,0,
371,-86.76,-90.87,-34.65,-35.97,-44.05,-41.67,-3.132,-4.076,-8.594,-17.77,-4.972,-10.19,-4.322,-1.12,-7.637,-3.926,0,0,0,0,0,0,0,0,0,0,0,0,0,0,0,0,
372,-95.24,-101.0,-60.8,-34.18,-55.34,-45.42,-6.681,-28.28,-21.34,-27.07,-15.9,-29.98,-10.68,-7.81,-15.72,-11.52,0,0,0,0,0,0,0,0,0,0,0,0,0,0,0,0,
373,-106.9,-111.0,-86.85,-37.56,-57.09,-42.02,-25.24,-26.47,-23.54,-24.72,-23.46,-24.16,-16.19,-7.634,-20.69,-12.49,0,0,0,0,0,0,0,0,0,0,0,0,0,0,0,0,
374,-123.3,-115.0,-75.0,-32.41,-47.84,-42.71,-40.98,-14.78,-21.36,-21.3,-11.65,-13.41,-8.522,-0.2591,-5.375,-4.387,0,0,0,0,0,0,0,0,0,0,0,0,0,0,0,0,
375,-122.2,-109.4,-42.05,-39.03,-36.31,-35.63,-19.11,-13.3,-10.05,-14.95,9.376,-13.91,8.216,8.296,16.36,7.032,0,0,0,0,0,0,0,0,0,0,0,0,0,0,0,0,
376,-118.0,-106.7,-65.31,-73.96,-39.33,-24.95,-9.184,-15.22,-2.444,-6.24,14.79,-13.05,18.09,17.66,23.85,22.36,0,0,0,0,0,0,0,0,0,0,0,0,0,0,0,0,
377,-118.1,-112.2,-103.3,-77.72,-42.13,-17.74,-22.95,1.67,3.37,5.806,16.66,6.412,26.3,30.95,28.56,37.92,0,0,0,0,0,0,0,0,0,0,0,0,0,0,0,0,
378,-112.2,-104.6,-63.35,-39.8,-37.35,-21.38,-7.705,18.04,15.82,13.34,20.61,17.46,26.49,29.8,29.06,36.27,0,0,0,0,0,0,0,0,0,0,0,0,0,0,0,0,
379,-114.7,-91.08,-10.8,-33.12,-41.55,-38.53,18.51,3.828,9.716,-0.9311,12.85,-0.169,14.45,14.41,19.96,24.63,0,0,0,0,0,0,0,0,0,0,0,0,0,0,0,0,
380,-122.2,-99.06,-16.56,-53.31,-43.02,-45.22,8.092,-13.69,-10.51,-16.59,0.7944,-14.09,8.076,8.325,13.98,21.19,0,0,0,0,0,0,0,0,0,0,0,0,0,0,0,0,
381,-127.2,-111.8,-42.05,-55.47,-34.93,-35.6,-22.28,-12.81,-14.29,-12.18,-4.024,-12.2,6.161,9.212,10.55,17.62,0,0,0,0,0,0,0,0,0,0,0,0,0,0,0,0,
382,-142.9,-108.6,-69.74,-65.03,-37.51,-34.81,-47.24,-14.09,-10.39,-5.713,-7.682,-14.89,-1.226,6.506,2.696,7.44,0,0,0,0,0,0,0,0,0,0,0,0,0,0,0,0,
383,-152.2,-114.0,-85.75,-93.22,-48.59,-45.98,-60.05,-20.35,-14.06,-9.332,-15.96,-19.71,-7.673,0.0117,-4.344,-1.753,0,0,0,0,0,0,0,0,0,0,0,0,0,0,0,0,
384,-138.7,-125.2,-57.51,-94.04,-52.99,-51.31,-39.59,-17.69,-18.06,-17.46,-15.41,-15.87,-7.078,-7.472,-3.848,-6.042,0,0,0,0,0,0,0,0,0,0,0,0,0,0,0,0,
385,-124.7,-115.8,-30.3,-65.25,-53.99,-49.45,-13.11,-13.74,-17.2,-24.34,-5.207,-13.88,-5.941,-10.99,-3.207,-6.791,0,0,0,0,0,0,0,0,0,0,0,0,0,0,0,0,
386,-119.5,-111.5,-45.44,-52.25,-53.1,-48.59,-38.69,-18.8,-16.76,-27.42,-10.74,-20.05,-13.16,-13.54,-12.32,-9.412,0,0,0,0,0,0,0,0,0,0,0,0,0,0,0,0,
387,-120.0,-118.6,-54.73,-49.77,-39.89,-44.56,-66.22,-19.8,-16.57,-25.71,-21.23,-18.54,-17.16,-12.41,-16.13,-10.73,0,0,0,0,0,0,0,0,0,0,0,0,0,0,0,0,
388,-133.6,-106.1,-47.6,-38.69,-25.55,-38.76,-29.5,-10.65,-10.96,-17.13,-12.28,-8.386,-9.732,-2.319,-6.439,-3.029,0,0,0,0,0,0,0,0,0,0,0,0,0,0,0,0,
389,-144.8,-95.77,-51.33,-49.77,-32.33,-39.59,3.351,-9.137,-11.45,-8.618,-6.073,-9.702,-8.788,2.756,-3.148,3.831,0,0,0,0,0,0,0,0,0,0,0,0,0,0,0,0,
390,-127.5,-101.8,-43.0,-72.82,-46.24,-39.64,-16.79,-16.89,-22.01,-7.807,-12.47,-18.28,-15.96,-3.305,-9.231,1.054,0,0,0,0,0,0,0,0,0,0,0,0,0,0,0,0,
391,-92.78,-93.62,-34.12,-64.02,-47.87,-36.36,-20.95,-14.75,-23.24,-10.85,-9.962,-13.07,-14.1,-6.045,-9.0,-0.5687,0,0,0,0,0,0,0,0,0,0,0,0,0,0,0,0,
392,-69.58,-76.72,-42.66,-52.46,-40.96,-32.75,5.902,-2.876,-13.55,-9.61,1.125,-1.042,-2.489,0.305,-0.1135,3.07,0,0,0,0,0,0,0,0,0,0,0,0,0,0,0,0,
393,-63.37,-68.7,-25.29,-63.52,-29.34,-25.8,-2.309,-5.281,-3.357,-1.095,4.201,-8.011,4.253,2.648,4.73,1.849,0,0,0,0,0,0,0,0,0,0,0,0,0,0,0,0,
394,-66.08,-68.85,-11.57,-58.68,-28.35,-30.43,-29.43,-23.4,-1.72,-2.154,-6.006,-25.43,-4.486,-6.454,-1.793,-1.838,0,0,0,0,0,0,0,0,0,0,0,0,0,0,0,0,
395,-82.0,-81.78,-44.4,-36.08,-43.46,-48.6,-17.36,-24.81,-17.86,-18.46,-14.41,-21.21,-15.44,-12.66,-8.312,-0.5948,0,0,0,0,0,0,0,0,0,0,0,0,0,0,0,0,
396,-111.0,-93.84,-52.53,-28.89,-47.0,-54.57,9.62,-9.678,-31.93,-23.89,-9.41,-6.638,-14.51,-11.73,-9.391,-2.146,0,0,0,0,0,0,0,0,0,0,0,0,0,0,0,0,
397,-119.3,-87.95,-19.23,-29.57,-36.35,-46.62,26.47,-5.758,-25.83,-16.4,-1.86,-5.143,-10.32,-12.88,-8.154,-4.634,0,0,0,0,0,0,0,0,0,0,0,0,0,0,0,0,
398,-86.98,-76.15,-9.147,-25.54,-33.12,-37.77,33.97,-7.43,-16.25,-12.35,2.937,-6.873,-5.801,-10.02,-1.139,2.707,0,0,0,0,0,0,0,0,0,0,0,0,0,0,0,0,
399,-61.23,-72.34,-27.96,-26.76,-33.99,-34.72,1.96,-11.64,-13.27,-10.09,1.764,-14.21,-2.273,-4.558,1.146,8.763,0,0,0,0,0,0,0,0,0,0,0,0,0,0,0,0,
400,-76.43,-74.94,-56.58,-28.19,-30.28,-40.38,-40.37,-24.23,-14.66,-12.1,-11.84,-26.94,-8.027,-6.852,-7.95,4.006,0,0,0,0,0,0,0,0,0,0,0,0,0,0,0,0,
401,-90.6,-75.82,-61.76,-29.49,-25.24,-38.5,-32.6,-25.24,-17.33,-14.19,-18.8,-23.33,-12.71,-10.61,-11.92,-2.589,0,0,0,0,0,0,0,0,0,0,0,0,0,0,0,0,
402,-72.2,-68.12,-13.78,-40.78,-20.33,-23.88,-2.554,-12.9,-11.69,-5.244,-4.034,-10.08,-5.777,-9.841,-7.069,-6.969,0,0,0,0,0,0,0,0,0,0,0,0,0,0,0,0,
403,-44.48,-54.05,21.95,-41.29,-17.84,-17.86,16.1,-3.341,-3.14,3.937,9.196,-1.972,0.8251,-7.109,-3.629,-9.298,0,0,0,0,0,0,0,0,0,0,0,0,0,0,0,0,
404,-41.4,-49.39,-6.191,-28.87,-22.11,-23.91,24.6,0.1543,-6.835,2.966,2.035,-0.145,-3.218,-7.853,-4.291,-8.984,0,0,0,0,0,0,0,0,0,0,0,0,0,0,0,0,
405,-70.67,-60.85,-31.87,-29.97,-24.83,-27.34,17.5,-7.938,-16.01,-4.231,-6.216,-9.665,-7.277,-12.4,-3.58,-7.424,0,0,0,0,0,0,0,0,0,0,0,0,0,0,0,0,
406,-81.29,-65.38,-12.58,-23.99,-17.33,-25.08,10.45,-18.13,-13.21,-10.87,0.6547,-18.44,-1.168,-12.06,2.357,-5.052,0,0,0,0,0,0,0,0,0,0,0,0,0,0,0,0,
407,-38.18,-58.03,-2.217,-7.407,-14.33,-22.58,13.79,-14.06,-2.823,-12.28,5.179,-12.6,2.329,-10.07,3.84,-4.017,0,0,0,0,0,0,0,0,0,0,0,0,0,0,0,0,
408,-12.92,-64.01,-33.03,-25.17,-20.39,-19.35,18.98,-4.468,-1.004,-9.407,-1.453,-2.474,-3.561,-11.56,-2.537,-5.428,0,0,0,0,0,0,0,0,0,0,0,0,0,0,0,0,
409,-48.08,-74.58,-53.81,-48.35,-18.91,-16.45,16.99,-2.899,-6.0,-3.479,-8.787,-2.652,-9.352,-13.24,-8.385,-10.45,0,0,0,0,0,0,0,0,0,0,0,0,0,0,0,0,
410,-69.1,-68.99,-23.38,-22.99,-17.2,-22.43,2.697,-13.58,-12.04,-3.448,-13.6,-16.75,-15.33,-20.04,-12.09,-17.99,0,0,0,0,0,0,0,0,0,0,0,0,0,0,0,0,
411,-54.72,-61.17,9.252,1.492,-23.08,-30.41,14.31,-24.61,-18.87,-14.66,-8.588,-26.07,-18.38,-26.4,-10.41,-16.65,0,0,0,0,0,0,0,0,0,0,0,0,0,0,0,0,
412,-60.17,-57.7,0.3,-28.27,-19.16,-26.02,49.62,-17.74,-17.76,-19.16,1.386,-15.22,-13.93,-21.05,-5.244,-4.258,0,0,0,0,0,0,0,0,0,0,0,0,0,0,0,0,
413,-65.46,-46.62,-3.602,-59.06,-5.002,-13.88,34.41,-4.006,-6.892,-8.818,-2.277,-3.373,-11.31,-13.37,-5.461,3.815,0,0,0,0,0,0,0,0,0,0,0,0,0,0,0,0,
414,-42.89,-36.37,16.72,-37.06,0.8515,-6.296,-1.9,-4.192,0.9925,0.617,-11.72,-6.585,-14.55,-13.46,-11.0,-2.796,0,0,0,0,0,0,0,0,0,0,0,0,0,0,0,0,
415,-37.93,-42.95,7.399,-4.681,-9.525,-12.64,14.11,-13.55,-5.678,-3.424,-17.22,-14.8,-21.73,-19.23,-19.62,-15.77,0,0,0,0,0,0,0,0,0,0,0,0,0,0,0,0,
416,-47.57,-51.18,-26.15,-10.98,-24.07,-24.98,37.24,-17.51,-18.64,-14.02,-18.46,-17.37,-24.1,-22.32,-19.71,-17.6,0,0,0,0,0,0,0,0,0,0,0,0,0,0,0,0,
417,-37.99,-42.94,-33.23,-35.68,-24.85,-23.76,24.54,-16.11,-13.27,-13.71,-10.61,-16.35,-16.16,-20.38,-9.164,-11.13,0,0,0,0,0,0,0,0,0,0,0,0,0,0,0,0,
418,-31.86,-34.06,-15.13,-37.88,-14.71,-16.0,6.307,-15.48,-0.5344,-8.336,-10.24,-14.91,-16.18,-18.52,-11.51,-9.967,0,0,0,0,0,0,0,0,0,0,0,0,0,0,0,0,
419,-25.32,-30.47,8.61,-10.29,-4.771,-13.07,5.043,-11.1,-9.486,-7.758,-21.25,-10.58,-23.66,-11.28,-20.39,-7.076,0,0,0,0,0,0,0,0,0,0,0,0,0,0,0,0,
420,-7.79,-25.5,17.14,7.598,-1.298,-11.83,17.6,-7.457,-21.92,-1.02,-19.03,-9.585,-19.29,-4.362,-14.77,-1.88,0,0,0,0,0,0,0,0,0,0,0,0,0,0,0,0,
421,-16.3,-34.65,0.1446,-5.388,-10.64,-20.51,19.75,-12.29,-20.29,0.1313,-10.37,-13.71,-15.21,-11.79,-10.84,-5.519,0,0,0,0,0,0,0,0,0,0,0,0,0,0,0,0,
422,-32.28,-50.83,-10.66,-16.79,-24.89,-36.4,5.428,-14.51,-22.11,-16.77,-12.87,-14.67,-21.74,-20.38,-17.61,-12.5,0,0,0,0,0,0,0,0,0,0,0,0,0,0,0,0,
423,-28.6,-53.43,-12.76,-28.43,-30.86,-41.24,1.807,-16.59,-28.7,-27.44,-17.38,-18.67,-25.49,-20.2,-21.15,-16.05,0,0,0,0,0,0,0,0,0,0,0,0,0,0,0,0,
424,-49.02,-55.34,-31.93,-43.31,-25.52,-34.56,-5.611,-22.26,-26.83,-20.26,-19.23,-21.65,-24.95,-16.71,-20.39,-14.9,0,0,0,0,0,0,0,0,0,0,0,0,0,0,0,0,
425,-81.05,-60.86,-45.44,-17.58,-19.73,-29.03,-30.86,-17.06,-21.08,-10.72,-24.74,-14.11,-28.72,-13.31,-22.58,-10.73,0,0,0,0,0,0,0,0,0,0,0,0,0,0,0,0,
426,-62.82,-59.3,-30.81,13.36,-29.77,-31.25,-14.73,-10.4,-27.14,-13.61,-27.95,-11.17,-32.12,-16.64,-23.13,-8.837,0,0,0,0,0,0,0,0,0,0,0,0,0,0,0,0,
427,-18.79,-52.07,-4.761,-6.863,-35.01,-30.27,32.62,-10.23,-36.87,-22.01,-18.76,-11.05,-23.11,-18.44,-13.49,-5.361,0,0,0,0,0,0,0,0,0,0,0,0,0,0,0,0,
428,-17.4,-43.88,6.746,-27.1,-16.44,-23.16,7.653,-8.68,-26.76,-17.79,-13.45,-8.667,-14.06,-15.36,-8.549,-6.547,0,0,0,0,0,0,0,0,0,0,0,0,0,0,0,0,
429,-54.01,-47.21,-11.14,-16.95,-13.47,-29.91,-55.1,-16.66,-15.49,-17.32,-26.1,-18.39,-22.33,-23.0,-16.96,-17.5,0,0,0,0,0,0,0,0,0,0,0,0,0,0,0,0,
430,-61.07,-61.07,-40.75,-9.21,-40.57,-44.5,-39.97,-27.02,-26.5,-33.17,-30.34,-26.59,-28.7,-31.34,-15.18,-17.44,0,0,0,0,0,0,0,0,0,0,0,0,0,0,0,0,
431,-31.75,-64.34,-56.34,-11.12,-58.14,-47.32,9.842,-27.78,-38.12,-40.59,-19.1,-27.68,-23.64,-31.22,-7.195,-11.01,0,0,0,0,0,0,0,0,0,0,0,0,0,0,0,0,
432,-24.52,-56.8,-46.15,-23.19,-50.88,-45.86,11.47,-35.2,-41.51,-39.69,-19.01,-36.85,-24.25,-32.42,-13.13,-15.16,0,0,0,0,0,0,0,0,0,0,0,0,0,0,0,0,
433,-35.88,-50.42,-17.47,-32.93,-33.31,-40.66,-8.861,-35.36,-41.58,-39.13,-24.64,-31.03,-24.89,-25.24,-16.2,-9.643,0,0,0,0,0,0,0,0,0,0,0,0,0,0,0,0,
434,-36.44,-45.12,-10.1,-15.35,-21.43,-27.31,-16.55,-13.86,-28.44,-26.5,-21.89,-8.024,-19.72,-13.14,-11.85,1.419,0,0,0,0,0,0,0,0,0,0,0,0,0,0,0,0,
435,-42.48,-39.45,-28.06,3.757,-19.46,-20.5,-10.81,-6.614,-18.08,-16.24,-24.17,-8.248,-22.75,-18.68,-18.94,-10.55,0,0,0,0,0,0,0,0,0,0,0,0,0,0,0,0,
436,-41.78,-37.56,-31.35,-4.638,-18.12,-23.56,-5.861,-17.92,-28.53,-22.85,-34.35,-19.95,-31.55,-31.26,-28.58,-23.05,0,0,0,0,0,0,0,0,0,0,0,0,0,0,0,0,
437,-15.37,-39.14,-24.23,-16.23,-18.09,-23.88,-13.74,-13.99,-37.33,-24.98,-35.76,-11.56,-30.4,-28.41,-22.68,-10.85,0,0,0,0,0,0,0,0,0,0,0,0,0,0,0,0,
438,-3.174,-35.12,-27.93,-19.73,-24.23,-22.0,-17.33,-7.314,-31.03,-17.49,-27.15,-7.411,-21.8,-18.64,-12.67,-2.436,0,0,0,0,0,0,0,0,0,0,0,0,0,0,0,0,
439,-27.27,-33.45,-40.48,-29.41,-30.99,-27.45,-15.32,-19.0,-30.96,-20.41,-26.4,-21.19,-23.86,-21.19,-18.53,-16.62,0,0,0,0,0,0,0,0,0,0,0,0,0,0,0,0,
440,-51.24,-43.8,-51.75,-28.33,-30.76,-33.52,-13.84,-27.55,-43.64,-30.38,-31.9,-27.54,-34.64,-30.89,-29.14,-30.54,0,0,0,0,0,0,0,0,0,0,0,0,0,0,0,0,
441,-47.92,-46.45,-38.36,-8.175,-22.89,-30.53,-3.188,-29.24,-46.83,-30.12,-26.83,-30.57,-34.93,-33.83,-25.31,-30.79,0,0,0,0,0,0,0,0,0,0,0,0,0,0,0,0,
442,-26.72,-36.63,-5.729,6.072,-17.22,-26.52,-10.01,-33.67,-34.77,-25.28,-19.97,-34.05,-27.39,-30.87,-18.41,-26.46,0,0,0,0,0,0,0,0,0,0,0,0,0,0,0,0,
443,-3.936,-27.38,6.807,9.736,-17.75,-24.02,-39.22,-19.92,-23.66,-23.17,-23.52,-15.0,-23.47,-23.58,-19.88,-22.13,0,0,0,0,0,0,0,0,0,0,0,0,0,0,0,0,
444,-3.017,-20.56,-15.82,-4.923,-22.37,-20.87,-40.99,-0.2939,-21.78,-20.92,-28.02,1.88,-23.04,-17.91,-20.54,-18.76,0,0,0,0,0,0,0,0,0,0,0,0,0,0,0,0,
445,-39.55,-27.02,-51.66,-35.75,-29.66,-22.5,-19.75,-7.606,-28.36,-23.26,-25.84,-10.46,-24.87,-20.43,-14.22,-14.65,0,0,0,0,0,0,0,0,0,0,0,0,0,0,0,0,
446,-67.15,-40.01,-56.63,-31.58,-29.13,-24.97,-11.29,-16.06,-33.23,-25.42,-19.03,-16.02,-23.94,-17.8,-5.503,-4.825,0,0,0,0,0,0,0,0,0,0,0,0,0,0,0,0,
447,-47.9,-38.0,-25.65,-2.833,-24.0,-27.83,-6.508,-6.814,-29.07,-22.65,-15.23,-5.33,-20.65,-8.65,-5.757,0.5685,0,0,0,0,0,0,0,0,0,0,0,0,0,0,0,0,
448,-30.59,-28.34,-6.032,-5.277,-23.8,-31.22,-11.08,-6.696,-26.2,-25.11,-19.4,-8.691,-23.25,-10.26,-16.15,-9.284,0,0,0,0,0,0,0,0,0,0,0,0,0,0,0,0,
449,-36.15,-17.09,-7.673,-16.91,-18.67,-23.5,-38.9,-20.5,-25.0,-27.79,-21.97,-22.85,-23.13,-16.27,-17.83,-15.53,0,0,0,0,0,0,0,0,0,0,0,0,0,0,0,0,
450,-30.25,-14.04,-9.897,-20.91,-13.35,-12.72,-40.37,-25.51,-13.97,-22.04,-11.22,-23.78,-7.881,-9.182,-2.429,-1.879,0,0,0,0,0,0,0,0,0,0,0,0,0,0,0,0,
451,-29.08,-30.04,-14.67,-28.72,-16.84,-11.3,-3.005,-11.5,0.3872,-12.82,0.8513,-7.806,2.678,-1.979,5.722,3.401,0,0,0,0,0,0,0,0,0,0,0,0,0,0,0,0,
452,-44.01,-31.54,-25.77,-13.49,-20.3,-14.75,-10.11,-0.6475,-3.277,-9.399,-10.36,-0.1,-15.63,-17.74,-10.3,-18.76,0,0,0,0,0,0,0,0,0,0,0,0,0,0,0,0,
453,-38.58,-11.23,-43.32,10.48,-26.21,-20.38,-57.76,-7.718,-27.4,-19.49,-29.15,-8.373,-34.85,-33.49,-21.71,-29.28,0,0,0,0,0,0,0,0,0,0,0,0,0,0,0,0,
454,-24.19,-7.58,-59.11,9.576,-33.76,-21.07,-57.86,-8.207,-41.18,-24.39,-27.48,-6.655,-27.71,-20.46,-16.01,-13.78,0,0,0,0,0,0,0,0,0,0,0,0,0,0,0,0,
455,-32.99,-11.78,-58.04,18.59,-34.43,-19.09,-34.8,0.7483,-37.61,-14.82,-27.63,1.732,-26.52,-9.879,-23.54,-12.89,0,0,0,0,0,0,0,0,0,0,0,0,0,0,0,0,
456,-38.11,-0.5544,-48.09,47.45,-30.26,-20.94,-39.91,0.9066,-42.14,-15.85,-36.58,0.3827,-36.78,-19.4,-34.18,-27.34,0,0,0,0,0,0,0,0,0,0,0,0,0,0,0,0,
457,-21.31,8.94,-48.29,45.0,-20.88,-12.19,-46.07,-1.681,-41.85,-18.89,-31.53,-2.213,-29.29,-23.1,-26.36,-32.09,0,0,0,0,0,0,0,0,0,0,0,0,0,0,0,0,
458,-16.02,4.774,-59.03,11.76,-15.77,-2.198,-47.18,-5.849,-26.78,-10.36,-29.49,-5.838,-24.46,-24.31,-24.67,-36.03,0,0,0,0,0,0,0,0,0,0,0,0,0,0,0,0,
459,-32.59,-6.381,-64.69,-0.1118,-22.12,-10.01,-51.24,-8.592,-25.25,-11.49,-33.81,-7.544,-31.19,-27.95,-26.3,-36.22,0,0,0,0,0,0,0,0,0,0,0,0,0,0,0,0,
460,-46.17,-14.92,-62.43,8.44,-25.0,-15.0,-52.64,1.947,-28.32,-13.99,-24.48,2.822,-24.01,-18.83,-15.41,-20.79,0,0,0,0,0,0,0,0,0,0,0,0,0,0,0,0,
461,-49.76,-10.93,-61.97,7.556,-25.59,-11.03,-52.71,11.87,-20.42,-6.169,-21.54,11.53,-19.21,-9.71,-16.86,-9.905,0,0,0,0,0,0,0,0,0,0,0,0,0,0,0,0,
462,-48.49,-2.695,-55.67,11.58,-32.4,-15.61,-42.6,4.809,-25.27,-8.742,-31.96,2.499,-31.41,-16.58,-31.67,-17.11,0,0,0,0,0,0,0,0,0,0,0,0,0,0,0,0,
463,-39.27,-2.718,-43.13,24.13,-32.12,-17.91,-38.23,-8.563,-37.76,-18.73,-31.34,-10.68,-34.98,-26.44,-31.83,-24.76,0,0,0,0,0,0,0,0,0,0,0,0,0,0,0,0,
464,-19.06,3.724,-37.42,24.4,-18.05,-4.401,-43.47,-4.569,-31.76,-15.54,-18.19,-2.448,-21.13,-23.09,-16.18,-20.26,0,0,0,0,0,0,0,0,0,0,0,0,0,0,0,0,
465,-0.5173,19.13,-31.94,18.91,-5.567,7.152,-34.73,9.622,-19.6,-2.584,-8.765,10.34,-9.966,-15.11,-5.533,-18.55,0,0,0,0,0,0,0,0,0,0,0,0,0,0,0,0,
466,-9.493,18.58,-28.85,12.01,-10.08,0.157,-44.14,1.514,-20.12,1.032,-11.65,-2.224,-13.08,-18.36,-9.664,-26.75,0,0,0,0,0,0,0,0,0,0,0,0,0,0,0,0,
467,-35.78,10.13,-41.7,6.822,-22.81,-10.68,-60.53,-11.15,-22.62,-7.893,-14.91,-11.23,-18.3,-20.83,-14.1,-24.84,0,0,0,0,0,0,0,0,0,0,0,0,0,0,0,0,
468,-40.42,8.548,-60.92,13.43,-28.79,-11.71,-31.48,-3.536,-21.65,-13.21,-12.25,-1.347,-19.04,-16.27,-12.73,-13.66,0,0,0,0,0,0,0,0,0,0,0,0,0,0,0,0,
469,-28.12,-0.7709,-67.15,17.21,-29.07,-9.826,-18.18,-1.213,-26.38,-11.51,-14.8,-1.206,-20.05,-17.12,-12.74,-9.878,0,0,0,0,0,0,0,0,0,0,0,0,0,0,0,0,
470,-22.75,-5.108,-52.85,15.19,-21.77,-4.388,-48.95,-2.911,-22.96,-7.232,-14.91,-1.569,-16.12,-16.04,-11.0,-8.349,0,0,0,0,0,0,0,0,0,0,0,0,0,0,0,0,
471,-19.49,5.961,-33.8,13.3,-11.8,2.15,-52.68,5.308,-7.754,-1.228,-12.35,6.278,-13.89,-12.36,-14.08,-9.943,0,0,0,0,0,0,0,0,0,0,0,0,0,0,0,0,
472,-12.41,9.182,-24.99,8.037,-8.953,3.246,-29.86,8.3,-5.849,1.462,-17.9,7.65,-18.19,-13.62,-20.98,-17.14,0,0,0,0,0,0,0,0,0,0,0,0,0,0,0,0,
473,-6.761,8.738,-21.47,18.49,-2.006,9.679,-10.62,9.924,-5.975,7.715,-14.23,9.636,-13.04,-8.712,-13.98,-16.96,0,0,0,0,0,0,0,0,0,0,0,0,0,0,0,0,
474,-11.84,7.458,-22.8,31.48,5.57,16.29,-3.62,8.653,4.763,17.2,-2.853,6.854,-6.852,-1.659,-3.073,-8.816,0,0,0,0,0,0,0,0,0,0,0,0,0,0,0,0,
475,-27.13,-6.745,-20.5,13.81,-0.8961,9.388,-20.74,-1.246,0.891,13.62,-2.281,-2.012,-10.63,-0.2112,1.333,4.559,0,0,0,0,0,0,0,0,0,0,0,0,0,0,0,0,
476,-36.82,-14.12,-14.7,-1.329,-7.983,1.985,-24.19,2.276,-9.139,4.468,-1.733,3.714,-9.281,1.753,5.955,16.86,0,0,0,0,0,0,0,0,0,0,0,0,0,0,0,0,
477,-38.63,-8.907,-24.73,9.104,-6.983,1.277,-4.027,8.62,-4.847,1.444,0.0849,7.488,-4.841,-1.423,4.342,11.98,0,0,0,0,0,0,0,0,0,0,0,0,0,0,0,0,
478,-30.18,-2.088,-27.27,18.65,-2.969,1.927,-10.75,-1.043,-0.9426,0.2915,-3.273,-2.017,-3.944,-3.717,0.9583,4.684,0,0,0,0,0,0,0,0,0,0,0,0,0,0,0,0,
479,-1.718,10.35,-12.85,22.37,4.556,7.055,-32.34,0.7711,2.235,3.808,-3.319,3.141,-0.5342,7.147,3.357,9.126,0,0,0,0,0,0,0,0,0,0,0,0,0,0,0,0,
480,18.27,10.71,-20.07,20.07,6.527,14.05,-34.49,16.17,8.133,11.62,-5.619,16.61,-1.431,12.42,-1.352,0.1181,0,0,0,0,0,0,0,0,0,0,0,0,0,0,0,0,
481,-1.026,-7.235,-34.94,9.268,-5.787,11.24,-32.34,15.57,-0.245,12.71,-12.32,12.53,-8.732,-0.7066,-8.325,-18.52,0,0,0,0,0,0,0,0,0,0,0,0,0,0,0,0,
482,-29.73,-13.3,-35.72,6.111,-21.18,-4.185,-30.81,2.784,-17.23,0.7411,-11.66,-0.1252,-11.54,-13.99,-5.592,-16.77,0,0,0,0,0,0,0,0,0,0,0,0,0,0,0,0,
483,-28.09,-6.487,-46.03,6.567,-26.34,-17.88,-24.62,-9.383,-21.68,-16.31,-11.12,-11.57,-12.36,-16.75,-7.263,-10.34,0,0,0,0,0,0,0,0,0,0,0,0,0,0,0,0,
484,-13.38,-9.205,-54.63,-4.264,-24.23,-18.31,-24.0,-18.35,-19.32,-24.99,-15.36,-18.99,-16.54,-15.39,-13.61,-14.4,0,0,0,0,0,0,0,0,0,0,0,0,0,0,0,0,
485,-14.65,-15.47,-32.91,-11.46,-17.11,-8.848,-25.24,-11.38,-21.29,-21.8,-7.599,-9.629,-13.13,-8.281,-5.448,-7.702,0,0,0,0,0,0,0,0,0,0,0,0,0,0,0,0,
486,-13.53,-12.85,-1.203,-3.664,-5.965,1.367,-18.87,-0.7806,-15.61,-7.547,2.611,-0.8862,-4.383,-0.5883,1.39,0.1689,0,0,0,0,0,0,0,0,0,0,0,0,0,0,0,0,
487,-6.464,-16.7,-7.08,4.471,-10.82,-2.977,-10.46,-11.09,-4.63,1.549,-7.507,-12.12,-8.683,-7.724,-9.613,-8.471,0,0,0,0,0,0,0,0,0,0,0,0,0,0,0,0,
488,-22.92,-27.25,-40.35,10.51,-23.84,-14.18,-3.004,-12.48,-5.434,-9.779,-13.5,-9.198,-10.89,-12.59,-7.262,-5.803,0,0,0,0,0,0,0,0,0,0,0,0,0,0,0,0,
489,-37.13,-17.46,-34.86,16.58,-12.76,-7.914,-6.313,7.305,-3.582,-15.49,0.7205,8.026,2.372,-2.865,9.233,8.835,0,0,0,0,0,0,0,0,0,0,0,0,0,0,0,0,
490,-21.97,-8.595,-13.04,7.715,-2.544,-2.212,-32.01,1.239,4.671,-6.262,3.766,-4.157,3.21,-4.447,5.962,5.346,0,0,0,0,0,0,0,0,0,0,0,0,0,0,0,0,
491,-17.15,-27.63,-33.74,-8.591,-13.89,-9.25,-42.15,-17.66,-2.328,-6.947,-1.128,-18.71,-4.099,-10.07,1.721,0.5946,0,0,0,0,0,0,0,0,0,0,0,0,0,0,0,0,
492,-29.35,-34.84,-43.65,-12.61,-11.45,-3.096,-0.8933,-6.892,-9.684,-7.384,8.636,-3.936,4.693,0.0748,12.36,8.363,0,0,0,0,0,0,0,0,0,0,0,0,0,0,0,0,
493,-28.28,-21.01,-19.74,-8.411,2.228,7.726,44.25,5.008,-2.645,2.277,16.03,4.679,11.52,5.001,12.8,6.798,0,0,0,0,0,0,0,0,0,0,0,0,0,0,0,0,
494,-23.51,-20.62,-20.42,-0.9924,1.482,6.569,33.57,0.5345,1.561,5.058,12.75,-0.2141,9.473,1.766,7.753,1.687,0,0,0,0,0,0,0,0,0,0,0,0,0,0,0,0,
495,-23.14,-22.38,-30.99,0.2525,-1.403,8.54,-12.77,-0.2164,3.356,5.191,7.953,-0.3219,11.51,4.405,9.311,6.682,0,0,0,0,0,0,0,0,0,0,0,0,0,0,0,0,
496,-17.09,-15.38,-31.48,-6.156,-1.063,11.39,-22.19,-3.404,7.522,8.909,1.835,-4.534,10.0,4.8,6.761,7.85,0,0,0,0,0,0,0,0,0,0,0,0,0,0,0,0,
497,-16.77,-18.78,-49.83,-0.842,-6.024,6.314,7.387,-8.283,2.405,7.6,-3.747,-6.97,2.957,3.654,1.511,2.934,0,0,0,0,0,0,0,0,0,0,0,0,0,0,0,0,
498,-34.6,-24.18,-46.06,2.088,-6.881,6.682,-0.7051,5.135,-7.491,4.535,-4.823,9.042,3.14,11.55,4.09,6.78,0,0,0,0,0,0,0,0,0,0,0,0,0,0,0,0,
499,-47.54,-11.5,6.152,-8.029,6.125,17.57,-18.39,23.21,-2.84,10.05,6.653,23.63,13.37,21.33,14.11,13.19,0,0,0,0,0,0,0,0,0,0,0,0,0,0,0,0,
500,-22.79,4.687,27.29,-5.997,17.18,22.47,20.84,13.89,10.16,17.51,20.47,9.263,18.46,16.16,15.99,4.998,0,0,0,0,0,0,0,0,0,0,0,0,0,0,0,0,
501,12.5,2.018,-4.635,-4.565,12.3,15.63,31.83,-7.599,6.62,11.88,15.79,-10.22,12.09,2.8,7.73,-4.509,0,0,0,0,0,0,0,0,0,0,0,0,0,0,0,0,
502,2.833,-6.964,-19.91,-11.4,7.574,14.52,-11.19,-5.065,-2.115,6.382,9.827,-3.401,10.78,3.107,7.668,-0.4406,0,0,0,0,0,0,0,0,0,0,0,0,0,0,0,0,
503,-23.63,-9.72,-20.29,-1.796,2.558,16.98,-5.697,3.031,0.9812,12.24,11.19,4.007,11.16,6.23,8.803,-0.9199,0,0,0,0,0,0,0,0,0,0,0,0,0,0,0,0,
504,-9.951,-15.83,-36.13,1.34,-13.49,8.746,22.81,-2.176,-6.793,8.224,2.071,-0.5109,2.813,0.2726,1.896,-7.44,0,0,0,0,0,0,0,0,0,0,0,0,0,0,0,0,
505,16.63,-13.04,-26.31,-12.98,-13.29,5.375,17.68,4.485,-20.15,-0.1639,-5.114,7.781,0.578,1.162,-0.6996,-6.258,0,0,0,0,0,0,0,0,0,0,0,0,0,0,0,0,
506,18.29,4.589,10.74,-9.869,5.195,10.44,17.73,13.92,-11.77,4.69,-1.339,13.21,2.946,3.79,-1.101,-7.052,0,0,0,0,0,0,0,0,0,0,0,0,0,0,0,0,
507,10.27,8.592,14.95,-0.213,8.53,6.956,11.68,1.577,-1.817,5.337,0.7945,-1.755,-0.4476,-2.563,-1.378,-9.959,0,0,0,0,0,0,0,0,0,0,0,0,0,0,0,0,
508,1.204,-0.3852,-8.447,-2.179,1.672,2.772,-16.53,-9.274,-7.476,-0.1342,-0.4109,-8.865,-2.494,-7.296,-0.9497,-9.836,0,0,0,0,0,0,0,0,0,0,0,0,0,0,0,0,
509,-6.47,2.573,-12.33,6.709,1.249,4.971,-28.41,1.081,-9.593,2.689,-4.511,4.05,-1.019,-5.357,-3.927,-11.63,0,0,0,0,0,0,0,0,0,0,0,0,0,0,0,0,
510,-2.216,9.07,-11.28,13.53,0.4725,3.903,-19.05,12.32,0.1928,6.585,-2.478,11.9,5.45,3.809,2.74,-4.822,0,0,0,0,0,0,0,0,0,0,0,0,0,0,0,0,
511,-1.327,-3.366,-41.93,-10.94,-7.965,-1.006,-1.224,5.174,6.649,4.67,7.369,2.63,9.848,11.89,11.13,4.449,0,0,0,0,0,0,0,0,0,0,0,0,0,0,0,0,
512,-13.07,-22.1,-61.6,-31.58,-17.59,-4.452,-0.0242,-1.69,-1.185,0.3686,4.052,-1.073,-0.4166,7.4,0.6245,-2.821,0,0,0,0,0,0,0,0,0,0,0,0,0,0,0,0,
513,-17.66,-18.38,-24.79,-14.86,-15.67,-6.498,-29.86,4.318,-8.384,-3.003,-6.816,3.725,-8.642,-0.0154,-7.047,-9.285,0,0,0,0,0,0,0,0,0,0,0,0,0,0,0,0,
514,-10.33,-9.279,0.0021,-0.7993,-11.05,-9.939,-30.39,-1.54,-3.995,-5.791,-3.329,-4.029,0.9502,0.1736,4.047,-0.985,0,0,0,0,0,0,0,0,0,0,0,0,0,0,0,0,
515,-2.234,-18.66,-25.58,-19.2,-12.31,-8.203,16.66,-6.392,2.962,-3.603,9.754,-2.893,16.53,8.913,16.07,8.63,0,0,0,0,0,0,0,0,0,0,0,0,0,0,0,0,
516,-4.777,-20.72,-30.83,-39.41,-6.147,1.035,36.83,11.81,11.28,9.071,19.13,14.32,23.1,19.0,17.78,11.32,0,0,0,0,0,0,0,0,0,0,0,0,0,0,0,0,
517,-19.69,-11.09,-13.39,-37.2,0.2234,1.408,2.475,12.81,15.09,15.25,15.75,7.42,14.32,15.69,8.896,4.125,0,0,0,0,0,0,0,0,0,0,0,0,0,0,0,0,
518,-24.16,-14.67,-18.03,-17.03,-4.453,-5.362,-47.91,-7.797,7.835,7.197,-0.9741,-11.27,-0.3786,4.419,-3.955,-7.051,0,0,0,0,0,0,0,0,0,0,0,0,0,0,0,0,
519,-16.99,-15.92,-17.44,5.083,-5.874,-2.179,-58.13,-11.08,0.1116,2.931,-12.62,-11.36,-6.41,-0.9863,-8.344,-8.579,0,0,0,0,0,0,0,0,0,0,0,0,0,0,0,0,
520,-22.33,-4.194,-9.578,1.477,-0.5934,2.67,-4.008,-8.933,-4.618,-0.0152,-4.361,-10.66,-0.9592,-1.815,-0.4755,-2.329,0,0,0,0,0,0,0,0,0,0,0,0,0,0,0,0,
521,-22.23,-6.732,-25.22,-32.97,0.6342,-3.293,27.82,-12.13,-0.6703,-8.114,7.527,-11.53,8.499,-0.0504,7.271,1.266,0,0,0,0,0,0,0,0,0,0,0,0,0,0,0,0,
522,1.349,-24.87,-32.67,-55.2,-4.715,-10.2,-24.84,-6.564,13.41,-8.407,2.413,-4.727,6.98,0.0681,2.493,-1.404,0,0,0,0,0,0,0,0,0,0,0,0,0,0,0,0,
523,13.22,-29.54,-9.617,-31.8,-8.91,-7.074,-65.47,-2.18,13.77,-1.385,-7.21,-1.914,-5.671,-4.147,-5.709,-6.537,0,0,0,0,0,0,0,0,0,0,0,0,0,0,0,0,
524,0.302,-16.4,6.42,4.046,-6.844,-2.774,-33.34,-2.524,1.369,1.662,-5.349,-0.8611,-10.89,-3.549,-6.029,-4.291,0,0,0,0,0,0,0,0,0,0,0,0,0,0,0,0,
525,-3.11,-4.671,2.765,11.35,-5.706,-5.001,3.417,3.401,0.4744,1.413,0.6436,5.33,-3.874,5.042,-2.201,5.277,0,0,0,0,0,0,0,0,0,0,0,0,0,0,0,0,
526,6.937,-3.546,-0.3008,-1.098,-7.509,-2.382,0.1457,7.192,6.219,5.558,1.859,6.332,2.582,10.62,-0.1178,7.038,0,0,0,0,0,0,0,0,0,0,0,0,0,0,0,0,
527,-0.0739,-14.56,-5.804,-18.04,-9.093,2.029,-29.92,1.144,4.848,9.295,-2.105,-0.4192,-0.2068,5.545,-2.046,0.4117,0,0,0,0,0,0,0,0,0,0,0,0,0,0,0,0,
528,-17.29,-27.38,-16.68,-25.68,-9.562,-4.45,-48.7,-4.966,1.397,1.367,-2.025,-5.571,-5.112,-1.96,-3.401,-0.3029,0,0,0,0,0,0,0,0,0,0,0,0,0,0,0,0,
529,-14.43,-23.21,-23.55,-12.3,-7.245,-10.94,-36.46,-6.61,1.921,-9.897,1.694,-6.518,-5.912,-5.168,-4.83,1.222,0,0,0,0,0,0,0,0,0,0,0,0,0,0,0,0,
530,-4.862,-13.3,-31.05,-1.707,-8.885,-8.462,-25.92,-0.2364,0.7557,-12.34,-0.1496,1.84,-5.05,-3.241,-5.731,3.971,0,0,0,0,0,0,0,0,0,0,0,0,0,0,0,0,
531,-6.91,-11.77,-25.93,1.579,-7.982,0.8315,-10.24,16.78,0.9015,-3.003,11.54,18.23,6.055,10.92,10.31,22.93,0,0,0,0,0,0,0,0,0,0,0,0,0,0,0,0,
532,4.309,-3.874,4.237,13.38,6.689,11.65,20.24,19.3,12.56,13.27,35.68,16.73,24.17,25.51,31.88,43.36,0,0,0,0,0,0,0,0,0,0,0,0,0,0,0,0,
533,30.14,7.064,20.58,10.5,16.38,13.54,1.203,2.396,23.26,16.43,38.0,1.222,30.97,24.23,35.82,41.56,0,0,0,0,0,0,0,0,0,0,0,0,0,0,0,0,
534,30.82,5.018,4.639,-1.508,17.82,15.1,-44.83,2.853,25.87,12.03,30.38,5.224,31.1,21.51,32.81,29.12,0,0,0,0,0,0,0,0,0,0,0,0,0,0,0,0,
535,8.892,-4.341,-14.79,4.992,19.85,20.8,-41.17,15.0,27.45,20.22,24.13,15.79,22.95,20.12,19.22,17.49,0,0,0,0,0,0,0,0,0,0,0,0,0,0,0,0,
536,0.0432,-13.48,-29.47,0.7496,0.0966,9.357,-36.62,12.32,12.48,16.83,-1.932,12.22,-2.905,8.804,-8.742,6.994,0,0,0,0,0,0,0,0,0,0,0,0,0,0,0,0,
537,-3.623,-21.04,-38.42,-21.67,-34.4,-14.68,-59.57,5.502,-16.9,-7.552,-22.92,4.947,-22.24,-0.1982,-19.21,4.779,0,0,0,0,0,0,0,0,0,0,0,0,0,0,0,0,
538,-20.12,-25.36,-33.25,-24.24,-42.48,-24.36,-45.48,-1.139,-28.58,-16.85,-12.68,-2.246,-17.37,1.768,-8.592,8.078,0,0,0,0,0,0,0,0,0,0,0,0,0,0,0,0,
539,-32.51,-22.81,-29.33,-8.32,-24.65,-15.26,-12.45,-1.59,-17.86,-5.001,0.8999,0.9645,-2.481,7.97,1.11,9.111,0,0,0,0,0,0,0,0,0,0,0,0,0,0,0,0,
540,-36.74,-15.45,-37.41,6.742,-8.061,-0.038,-21.84,10.01,-0.8242,5.767,-0.9457,12.44,6.373,11.28,4.851,9.77,0,0,0,0,0,0,0,0,0,0,0,0,0,0,0,0,
541,-36.5,-14.62,-37.74,12.24,0.6304,10.06,-42.74,8.79,7.559,11.19,-6.611,7.356,2.778,8.636,1.607,11.42,0,0,0,0,0,0,0,0,0,0,0,0,0,0,0,0,
542,-22.37,-15.78,-24.96,-5.628,5.709,10.69,-30.6,-2.519,2.053,14.52,-4.961,-2.571,-3.517,4.802,-2.21,9.003,0,0,0,0,0,0,0,0,0,0,0,0,0,0,0,0,
543,-15.36,-13.77,-20.38,-28.48,4.25,1.349,-15.4,-3.204,-1.505,9.1,-2.315,-2.082,-2.696,0.0834,-2.747,-0.4358,0,0,0,0,0,0,0,0,0,0,0,0,0,0,0,0,
544,-18.63,-18.76,-16.63,-16.08,-1.945,-7.961,-24.08,-2.311,2.831,-2.263,-6.574,-2.053,1.129,-2.24,-4.777,-5.801,0,0,0,0,0,0,0,0,0,0,0,0,0,0,0,0,
545,3.748,-19.59,1.462,16.57,-2.905,-3.202,-25.24,1.612,5.508,-0.9688,-4.335,3.357,6.728,5.519,0.3107,2.806,0,0,0,0,0,0,0,0,0,0,0,0,0,0,0,0,
546,20.34,-5.43,4.21,28.4,2.231,7.925,-2.792,12.73,9.435,9.727,7.534,14.66,13.03,13.57,11.95,13.72,0,0,0,0,0,0,0,0,0,0,0,0,0,0,0,0,
547,-7.817,5.436,-12.33,24.81,10.11,14.21,12.04,16.92,16.91,14.46,9.47,16.74,13.96,14.22,12.47,13.69,0,0,0,0,0,0,0,0,0,0,0,0,0,0,0,0,
548,-25.43,4.888,-9.769,17.07,15.3,15.21,0.4215,12.34,18.48,15.9,2.324,10.73,9.741,12.85,5.483,10.6,0,0,0,0,0,0,0,0,0,0,0,0,0,0,0,0,
549,-3.501,3.263,7.765,3.723,13.5,11.27,-12.04,7.157,16.25,13.81,5.757,6.271,10.32,14.52,8.903,19.31,0,0,0,0,0,0,0,0,0,0,0,0,0,0,0,0,
550,14.67,5.677,16.58,6.904,12.29,10.89,4.793,7.048,23.26,11.85,16.71,7.865,19.77,20.76,16.82,29.96,0,0,0,0,0,0,0,0,0,0,0,0,0,0,0,0,
551,13.41,6.591,15.72,26.27,11.22,14.47,28.23,11.99,32.19,16.93,18.5,13.16,25.72,22.84,15.89,24.9,0,0,0,0,0,0,0,0,0,0,0,0,0,0,0,0,
552,6.44,3.739,10.07,31.81,12.0,17.94,20.3,17.77,33.1,20.37,18.88,18.74,25.68,22.6,16.58,19.85,0,0,0,0,0,0,0,0,0,0,0,0,0,0,0,0,
553,6.54,5.632,6.532,22.51,21.41,24.08,0.4327,18.76,36.84,21.77,23.9,18.12,24.59,25.91,20.07,24.25,0,0,0,0,0,0,0,0,0,0,0,0,0,0,0,0,
554,15.94,8.813,-1.269,6.032,21.77,18.44,3.108,7.83,35.53,16.75,18.25,5.985,16.18,17.39,13.72,19.17,0,0,0,0,0,0,0,0,0,0,0,0,0,0,0,0,
555,10.92,3.893,-12.99,-14.17,16.54,7.456,19.44,0.3333,24.49,2.414,11.41,1.789,10.44,4.333,11.07,11.62,0,0,0,0,0,0,0,0,0,0,0,0,0,0,0,0,
556,-10.46,-3.425,-10.04,-16.42,23.01,15.59,27.09,10.9,28.14,3.357,15.34,13.01,13.88,6.514,15.25,14.06,0,0,0,0,0,0,0,0,0,0,0,0,0,0,0,0,
557,-14.0,-4.849,0.597,8.174,17.24,17.62,24.55,15.11,31.17,12.57,9.928,13.06,8.243,8.796,6.678,11.74,0,0,0,0,0,0,0,0,0,0,0,0,0,0,0,0,
558,2.482,2.627,11.58,31.45,2.131,1.73,13.69,5.351,12.71,7.745,-4.564,3.716,-1.904,4.299,-6.832,3.424,0,0,0,0,0,0,0,0,0,0,0,0,0,0,0,0,
559,12.04,8.726,26.15,24.49,6.275,2.049,-5.667,7.19,4.774,8.911,-7.786,8.554,-1.92,4.997,-9.576,-0.8389,0,0,0,0,0,0,0,0,0,0,0,0,0,0,0,0,
560,8.75,3.954,21.98,6.186,12.69,13.54,-6.967,16.84,11.05,17.05,-0.3202,16.76,1.107,6.229,-3.587,-3.059,0,0,0,0,0,0,0,0,0,0,0,0,0,0,0,0,
561,1.395,1.082,-0.066,7.757,8.543,11.93,16.76,9.391,4.77,11.71,6.112,6.807,1.206,-0.238,1.649,-6.874,0,0,0,0,0,0,0,0,0,0,0,0,0,0,0,0,
562,-1.675,2.237,-7.746,10.21,2.021,3.049,18.49,-7.509,-5.541,0.8046,3.771,-8.555,-2.14,-8.955,-2.696,-10.58,0,0,0,0,0,0,0,0,0,0,0,0,0,0,0,0,
563,1.93,0.6136,-1.372,-0.14,-7.678,-5.645,-9.266,-5.776,-8.755,-7.677,-3.826,-3.713,-5.876,-7.999,-8.245,-8.528,0,0,0,0,0,0,0,0,0,0,0,0,0,0,0,0,
564,6.64,4.62,0.5484,4.134,-10.22,-10.02,-26.21,7.617,-11.38,-11.27,-12.1,9.452,-8.359,-2.361,-10.19,-7.558,0,0,0,0,0,0,0,0,0,0,0,0,0,0,0,0,
565,11.93,10.64,-1.699,20.33,-0.7949,-5.558,-20.52,7.19,-12.11,-5.365,-15.85,7.208,-12.2,-5.454,-13.75,-16.18,0,0,0,0,0,0,0,0,0,0,0,0,0,0,0,0,
566,13.81,10.63,0.0413,16.61,5.683,-1.734,1.309,-0.7156,-5.979,-1.15,-3.711,-1.071,-11.52,-10.22,-10.7,-19.42,0,0,0,0,0,0,0,0,0,0,0,0,0,0,0,0,
567,8.345,8.531,3.363,-0.3628,3.249,-6.663,22.64,-3.061,-1.644,-7.444,7.352,-2.703,-8.757,-10.85,-5.159,-12.26,0,0,0,0,0,0,0,0,0,0,0,0,0,0,0,0,
568,9.218,4.828,2.342,1.879,1.673,-8.588,27.43,0.5575,-8.66,-10.57,-0.0636,1.675,-8.581,-8.506,-3.934,-7.308,0,0,0,0,0,0,0,0,0,0,0,0,0,0,0,0,
569,12.68,2.279,-0.5832,13.92,5.248,-4.415,19.81,4.613,-13.84,-1.453,-3.556,4.302,-3.027,-0.8207,3.793,-2.49,0,0,0,0,0,0,0,0,0,0,0,0,0,0,0,0,
570,3.529,1.465,-3.209,7.679,3.088,-8.155,3.044,-1.591,-8.954,2.004,1.475,-2.349,1.025,2.634,9.356,2.735,0,0,0,0,0,0,0,0,0,0,0,0,0,0,0,0,
571,-0.2807,0.3946,0.8105,2.195,0.8312,-9.346,-10.67,-5.001,-4.587,-4.469,1.508,-3.602,-1.494,0.4449,4.38,2.581,0,0,0,0,0,0,0,0,0,0,0,0,0,0,0,0,
572,9.714,3.759,10.45,7.373,11.09,1.586,-17.5,1.642,1.596,-0.393,2.783,1.3,-0.2609,1.008,1.907,1.897,0,0,0,0,0,0,0,0,0,0,0,0,0,0,0,0,
573,17.38,9.378,7.197,3.441,15.17,3.04,-22.41,-3.618,10.05,5.93,5.146,-5.486,2.448,0.1667,3.749,1.145,0,0,0,0,0,0,0,0,0,0,0,0,0,0,0,0,
574,21.52,15.48,2.374,7.353,9.417,-1.929,7.133,-9.113,12.25,1.056,10.2,-7.409,6.566,0.299,9.891,-1.762,0,0,0,0,0,0,0,0,0,0,0,0,0,0,0,0,
575,16.99,23.59,15.85,20.3,13.86,4.715,51.84,1.17,13.39,1.837,23.59,3.11,16.08,5.209,21.51,1.223,0,0,0,0,0,0,0,0,0,0,0,0,0,0,0,0,
576,5.25,29.17,21.33,16.37,19.83,11.59,42.73,3.248,16.45,10.53,29.19,2.214,22.28,8.715,26.7,8.532,0,0,0,0,0,0,0,0,0,0,0,0,0,0,0,0,
577,8.306,31.34,6.402,13.42,19.42,11.93,11.07,-3.721,19.75,14.33,22.76,-4.202,22.28,9.706,24.05,7.792,0,0,0,0,0,0,0,0,0,0,0,0,0,0,0,0,
578,22.29,27.71,0.0457,16.35,22.21,11.63,3.812,0.6075,24.34,13.38,21.11,2.11,20.5,7.936,22.93,2.854,0,0,0,0,0,0,0,0,0,0,0,0,0,0,0,0,
579,28.81,19.06,6.847,2.908,17.29,8.494,-2.824,7.04,22.08,10.94,19.32,7.284,15.79,2.521,17.39,-0.5465,0,0,0,0,0,0,0,0,0,0,0,0,0,0,0,0,
580,19.09,9.656,-1.761,-14.41,-4.255,-1.081,-7.178,-2.662,6.845,4.477,3.341,-5.01,4.309,-6.752,1.389,-11.57,0,0,0,0,0,0,0,0,0,0,0,0,0,0,0,0,
581,-3.829,-3.763,-25.9,-16.17,-16.31,-10.25,-10.83,-13.4,-9.616,-7.765,-8.626,-12.12,-5.412,-12.33,-5.025,-19.88,0,0,0,0,0,0,0,0,0,0,0,0,0,0,0,0,
582,-9.693,-5.036,-23.57,0.5269,-1.573,-5.186,-29.08,0.5803,-8.143,-9.613,0.1232,5.934,-1.228,-2.896,4.939,-12.14,0,0,0,0,0,0,0,0,0,0,0,0,0,0,0,0,
583,4.069,14.46,3.969,17.42,12.53,2.781,-25.67,14.73,3.938,3.319,3.85,14.43,0.7379,3.799,3.81,-10.27,0,0,0,0,0,0,0,0,0,0,0,0,0,0,0,0,
584,4.287,21.69,3.865,9.21,8.614,-3.272,-1.861,2.169,2.784,4.562,-8.017,-2.368,-8.745,-5.989,-5.887,-19.28,0,0,0,0,0,0,0,0,0,0,0,0,0,0,0,0,
585,-0.8329,10.85,-16.6,-8.383,2.581,-6.991,-8.592,-9.079,-1.864,-2.502,-11.26,-10.07,-9.312,-10.94,-3.019,-19.14,0,0,0,0,0,0,0,0,0,0,0,0,0,0,0,0,
586,5.678,9.409,-11.21,-14.47,-1.426,-3.986,-31.34,-5.207,1.175,1.688,-8.865,-4.022,-5.572,-6.695,-2.413,-17.39,0,0,0,0,0,0,0,0,0,0,0,0,0,0,0,0,
587,11.67,14.7,8.047,-11.5,-2.825,-6.792,-37.13,0.6599,-1.419,4.145,-12.71,1.453,-10.4,-4.711,-8.066,-19.65,0,0,0,0,0,0,0,0,0,0,0,0,0,0,0,0,
588,11.91,11.94,12.36,-1.952,-1.38,-8.97,-38.38,2.681,-4.33,-1.16,-12.68,1.372,-10.81,-4.845,-4.847,-15.78,0,0,0,0,0,0,0,0,0,0,0,0,0,0,0,0,
589,6.021,6.767,7.646,-8.917,-4.632,-7.716,-31.82,-7.409,-2.135,-6.253,-7.877,-9.438,-3.548,-8.638,0.316,-15.77,0,0,0,0,0,0,0,0,0,0,0,0,0,0,0,0,
590,6.903,9.215,-0.5794,-32.12,1.542,-4.076,-4.143,-12.87,-1.547,-8.071,-4.456,-10.68,3.192,-11.6,0.664,-25.44,0,0,0,0,0,0,0,0,0,0,0,0,0,0,0,0,
591,23.7,12.16,-13.17,-20.1,13.1,1.354,16.48,0.6375,0.7676,-2.962,-4.932,3.25,4.461,-9.251,-1.858,-29.5,0,0,0,0,0,0,0,0,0,0,0,0,0,0,0,0,
592,26.89,5.593,-12.07,17.01,3.925,-1.545,-1.814,4.152,-1.436,-0.2418,-10.16,2.424,-1.29,-8.126,-6.715,-24.93,0,0,0,0,0,0,0,0,0,0,0,0,0,0,0,0,
593,10.95,-1.069,1.631,14.36,-10.45,-10.34,-40.72,-7.189,-8.709,-8.208,-15.34,-9.237,-8.892,-11.72,-12.35,-25.52,0,0,0,0,0,0,0,0,0,0,0,0,0,0,0,0,
594,2.316,-2.144,-5.837,-13.67,-16.27,-16.75,-48.94,-10.47,-11.84,-19.1,-17.83,-10.29,-16.5,-17.98,-18.22,-33.22,0,0,0,0,0,0,0,0,0,0,0,0,0,0,0,0,
595,-0.6238,-2.561,-22.86,-16.81,-17.6,-16.89,-15.09,-7.22,-18.08,-23.04,-12.81,-6.196,-17.51,-18.24,-15.98,-34.52,0,0,0,0,0,0,0,0,0,0,0,0,0,0,0,0,
596,2.823,1.442,-13.14,-10.68,-3.413,-8.197,8.596,-3.494,-19.77,-15.63,-0.894,-3.455,-6.713,-11.68,-5.392,-27.55,0,0,0,0,0,0,0,0,0,0,0,0,0,0,0,0,
597,18.08,9.912,4.237,-10.22,7.93,-4.051,-8.815,-1.864,-7.982,-9.253,2.582,-3.544,0.084,-9.307,-0.5204,-21.23,0,0,0,0,0,0,0,0,0,0,0,0,0,0,0,0,
598,23.72,14.3,7.577,2.273,-1.562,-7.968,-33.02,-5.91,-4.603,-10.64,-4.627,-7.054,-4.105,-8.47,-2.384,-17.97,0,0,0,0,0,0,0,0,0,0,0,0,0,0,0,0,
599,18.94,9.609,2.03,8.114,-8.255,-5.144,-29.31,-4.752,-13.39,-6.363,-10.22,-3.738,-8.361,-5.101,-6.931,-19.27,0,0,0,0,0,0,0,0,0,0,0,0,0,0,0,0,
600,23.43,3.571,-13.49,-3.699,-8.067,1.926,-10.93,8.104,-15.32,0.7359,-7.659,10.09,-7.716,-2.412,-10.43,-20.82,0,0,0,0,0,0,0,0,0,0,0,0,0,0,0,0,
601,27.31,8.364,-20.64,-5.588,-7.355,6.036,-13.3,16.36,-9.009,1.513,-0.5099,17.09,-4.282,1.376,-7.266,-15.45,0,0,0,0,0,0,0,0,0,0,0,0,0,0,0,0,
602,22.32,16.8,-3.518,-2.916,5.509,7.467,-27.44,11.11,-2.761,1.181,2.915,10.4,-2.771,3.157,-3.388,-9.431,0,0,0,0,0,0,0,0,0,0,0,0,0,0,0,0,
603,22.81,19.42,11.74,-7.824,17.83,2.951,-20.29,5.878,1.116,1.434,6.019,5.689,-1.525,1.147,-2.315,-9.736,0,0,0,0,0,0,0,0,0,0,0,0,0,0,0,0,
604,24.42,17.18,4.22,-8.457,11.13,-2.799,-12.09,3.702,2.675,0.7387,10.62,4.11,1.679,-2.832,-2.619,-15.1,0,0,0,0,0,0,0,0,0,0,0,0,0,0,0,0,
605,16.91,10.91,-8.47,-5.125,3.94,0.3132,-13.91,2.796,0.9235,-1.073,12.21,3.619,4.676,-5.137,0.3809,-15.96,0,0,0,0,0,0,0,0,0,0,0,0,0,0,0,0,
606,17.85,13.37,0.0927,5.194,11.65,10.44,2.109,11.11,2.975,0.9512,19.05,10.55,12.37,2.945,13.42,-5.57,0,0,0,0,0,0,0,0,0,0,0,0,0,0,0,0,
607,35.98,22.95,23.73,13.47,18.02,15.93,17.42,9.713,13.51,7.247,23.52,4.982,16.11,7.849,16.58,-3.515,0,0,0,0,0,0,0,0,0,0,0,0,0,0,0,0,
608,43.4,19.42,29.02,0.3012,18.46,14.7,11.86,-8.925,16.5,4.222,12.62,-11.86,6.268,0.4905,2.714,-13.68,0,0,0,0,0,0,0,0,0,0,0,0,0,0,0,0,
609,15.87,9.062,2.966,-7.065,19.14,14.63,-1.017,-5.147,8.022,0.3998,5.57,-2.017,4.091,6.959,2.949,-4.533,0,0,0,0,0,0,0,0,0,0,0,0,0,0,0,0,
610,-18.57,0.1176,-22.8,7.419,9.565,13.86,-13.58,16.93,4.384,12.77,11.18,18.41,15.63,23.39,14.58,14.98,0,0,0,0,0,0,0,0,0,0,0,0,0,0,0,0,
611,-5.3,-2.322,-1.667,14.82,4.892,13.27,-0.868,17.54,8.037,22.91,21.39,15.67,24.12,22.31,17.42,12.47,0,0,0,0,0,0,0,0,0,0,0,0,0,0,0,0,
612,44.44,17.69,47.86,15.85,26.02,20.01,20.51,11.72,18.83,18.67,35.61,11.84,29.45,14.81,19.98,3.802,0,0,0,0,0,0,0,0,0,0,0,0,0,0,0,0,
613,66.08,35.65,56.39,19.94,39.32,21.97,4.641,15.76,33.32,13.05,37.18,15.44,25.14,10.84,16.41,1.895,0,0,0,0,0,0,0,0,0,0,0,0,0,0,0,0,
614,49.62,24.39,32.7,11.19,26.3,11.03,-0.6126,10.62,29.63,5.727,22.59,8.219,7.283,1.328,4.083,-5.873,0,0,0,0,0,0,0,0,0,0,0,0,0,0,0,0,
615,30.04,12.94,32.37,0.3794,20.41,6.74,27.84,4.886,12.78,-2.269,19.75,3.869,4.344,-1.525,6.835,-6.457,0,0,0,0,0,0,0,0,0,0,0,0,0,0,0,0,
616,21.75,17.65,39.69,7.427,26.93,16.38,20.67,7.888,16.54,4.183,24.06,5.994,18.97,6.48,12.46,1.312,0,0,0,0,0,0,0,0,0,0,0,0,0,0,0,0,
617,15.57,15.78,25.36,11.93,19.05,16.24,-16.1,-1.723,28.12,13.15,9.613,-4.213,15.76,3.49,-3.552,-5.318,0,0,0,0,0,0,0,0,0,0,0,0,0,0,0,0,
618,3.057,2.976,15.38,4.967,3.116,0.4375,-26.02,-7.179,12.44,2.286,-2.482,-4.054,3.258,-3.373,-10.27,-7.016,0,0,0,0,0,0,0,0,0,0,0,0,0,0,0,0,
619,9.93,-3.101,28.28,9.313,6.257,-5.385,-16.4,13.02,-2.598,-7.09,12.56,15.7,12.15,4.089,10.22,11.86,0,0,0,0,0,0,0,0,0,0,0,0,0,0,0,0,
620,40.09,-0.009,35.94,12.34,16.72,-0.2796,-13.37,16.46,9.622,-0.3674,23.83,12.17,20.19,5.345,18.91,18.72,0,0,0,0,0,0,0,0,0,0,0,0,0,0,0,0,
621,38.47,4.191,20.93,-0.7489,11.63,-1.607,-8.009,-2.5,13.49,-2.934,11.97,-4.152,10.22,-4.066,7.284,10.58,0,0,0,0,0,0,0,0,0,0,0,0,0,0,0,0,
622,14.56,7.9,5.191,-0.6252,4.252,-3.013,18.71,0.3933,3.295,-10.51,2.897,3.321,4.407,-3.018,0.2583,8.998,0,0,0,0,0,0,0,0,0,0,0,0,0,0,0,0,
623,21.55,3.875,4.679,12.14,3.781,1.409,34.21,12.88,3.97,-4.838,3.481,13.77,3.562,1.971,-2.806,10.32,0,0,0,0,0,0,0,0,0,0,0,0,0,0,0,0,
624,34.09,0.1642,17.77,15.06,8.639,10.9,10.79,16.8,6.56,5.792,6.197,17.3,3.577,8.675,-1.127,14.78,0,0,0,0,0,0,0,0,0,0,0,0,0,0,0,0,
625,28.98,11.64,27.98,12.07,16.38,17.71,4.416,17.95,7.603,16.72,11.6,17.04,9.116,18.57,5.875,18.91,0,0,0,0,0,0,0,0,0,0,0,0,0,0,0,0,
626,20.62,11.98,22.08,1.644,10.02,7.473,29.66,9.393,7.803,15.48,12.65,7.735,9.908,16.09,7.041,15.03,0,0,0,0,0,0,0,0,0,0,0,0,0,0,0,0,
627,5.045,-1.334,28.46,-2.69,8.126,3.63,28.65,8.407,4.262,3.313,13.4,9.398,9.726,9.517,8.111,13.53,0,0,0,0,0,0,0,0,0,0,0,0,0,0,0,0,
628,2.044,5.569,40.3,11.55,27.99,17.51,14.43,13.03,11.93,4.801,12.16,11.47,7.677,1.844,3.137,7.665,0,0,0,0,0,0,0,0,0,0,0,0,0,0,0,0,
629,23.88,12.89,20.56,15.76,29.51,15.36,22.82,4.005,14.98,3.489,-3.143,2.81,-5.504,-10.23,-10.99,-0.1523,0,0,0,0,0,0,0,0,0,0,0,0,0,0,0,0,
630,32.24,3.982,16.85,12.24,16.99,7.61,21.83,9.752,2.692,-4.947,-7.759,12.48,-2.023,2.392,-3.084,16.7,0,0,0,0,0,0,0,0,0,0,0,0,0,0,0,0,
631,15.38,2.243,45.42,17.3,25.47,15.17,5.368,20.04,10.29,9.32,12.13,18.76,21.65,28.23,19.14,34.6,0,0,0,0,0,0,0,0,0,0,0,0,0,0,0,0,
632,0.6853,3.128,47.49,10.49,31.56,18.93,19.06,10.13,28.34,24.27,24.09,9.197,28.52,28.25,20.05,25.14,0,0,0,0,0,0,0,0,0,0,0,0,0,0,0,0,
633,5.796,3.815,39.48,3.428,21.03,20.14,50.59,13.95,26.13,18.9,20.13,17.02,21.49,17.01,12.89,18.77,0,0,0,0,0,0,0,0,0,0,0,0,0,0,0,0,
634,19.59,11.33,40.59,18.84,13.78,20.25,49.81,21.74,21.28,13.36,22.65,20.57,22.47,13.04,18.93,29.62,0,0,0,0,0,0,0,0,0,0,0,0,0,0,0,0,
635,17.93,13.99,29.45,30.41,22.96,15.11,34.79,13.1,25.27,11.66,28.91,11.4,28.18,12.53,23.5,33.03,0,0,0,0,0,0,0,0,0,0,0,0,0,0,0,0,
636,12.99,15.34,26.7,15.67,42.19,21.2,30.21,12.7,28.58,13.95,17.04,13.51,24.9,12.39,10.66,20.2,0,0,0,0,0,0,0,0,0,0,0,0,0,0,0,0,
637,27.04,20.69,23.75,-5.323,40.08,26.94,19.74,11.66,26.33,19.22,-0.9049,10.73,11.98,11.19,-1.707,9.377,0,0,0,0,0,0,0,0,0,0,0,0,0,0,0,0,
638,38.5,22.2,6.313,-2.959,19.23,18.89,25.48,7.942,20.24,21.61,3.769,7.842,8.773,19.04,5.79,15.24,0,0,0,0,0,0,0,0,0,0,0,0,0,0,0,0,
639,25.95,17.22,9.694,11.88,14.32,14.51,51.95,12.65,21.56,26.04,14.41,12.42,17.0,29.15,15.12,24.47,0,0,0,0,0,0,0,0,0,0,0,0,0,0,0,0,
640,5.072,6.175,22.47,12.49,19.9,15.06,49.36,7.415,30.19,26.73,15.03,6.335,22.87,26.16,18.38,24.97,0,0,0,0,0,0,0,0,0,0,0,0,0,0,0,0,
641,2.514,5.28,22.99,10.47,20.15,15.45,23.1,3.376,31.92,24.03,19.03,4.871,26.96,23.21,23.65,23.28,0,0,0,0,0,0,0,0,0,0,0,0,0,0,0,0,
642,21.18,18.29,27.06,13.09,19.16,18.09,14.65,7.271,21.38,27.32,17.45,8.143,26.19,24.75,20.76,22.76,0,0,0,0,0,0,0,0,0,0,0,0,0,0,0,0,
643,36.64,21.06,24.39,12.35,23.98,22.79,33.98,4.177,14.68,30.16,13.45,4.689,25.47,25.71,19.5,27.55,0,0,0,0,0,0,0,0,0,0,0,0,0,0,0,0,
644,39.86,18.21,17.1,20.21,34.2,30.66,59.52,11.82,28.63,34.13,20.81,14.01,31.34,28.54,25.75,32.8,0,0,0,0,0,0,0,0,0,0,0,0,0,0,0,0,
645,44.19,24.86,29.47,32.21,32.24,29.25,58.33,20.54,38.1,34.64,15.46,19.88,26.03,22.85,15.66,24.36,0,0,0,0,0,0,0,0,0,0,0,0,0,0,0,0,
646,51.96,29.73,44.52,30.54,21.64,16.22,47.78,7.688,23.69,20.89,-0.2602,5.481,13.86,11.97,1.997,12.64,0,0,0,0,0,0,0,0,0,0,0,0,0,0,0,0,
647,56.81,32.72,40.26,23.1,22.51,13.18,42.86,0.5481,15.62,15.05,-0.4561,0.5579,13.03,11.46,4.88,12.24,0,0,0,0,0,0,0,0,0,0,0,0,0,0,0,0,
648,62.55,52.49,32.69,34.9,29.27,23.01,22.52,8.967,19.44,25.56,2.753,9.979,12.77,14.86,6.807,17.04,0,0,0,0,0,0,0,0,0,0,0,0,0,0,0,0,
649,97.44,100.6,47.45,78.23,45.56,38.21,25.71,20.17,16.85,29.03,3.107,22.72,10.52,14.48,5.362,19.7,0,0,0,0,0,0,0,0,0,0,0,0,0,0,0,0,
650,175.1,163.1,87.87,117.0,75.11,61.09,56.29,34.24,22.5,26.72,10.57,36.94,16.25,14.28,10.79,17.61,0,0,0,0,0,0,0,0,0,0,0,0,0,0,0,0,
651,242.4,212.0,122.3,123.6,98.51,87.25,56.6,34.29,43.23,35.74,18.1,33.32,23.02,15.5,13.09,11.45,0,0,0,0,0,0,0,0,0,0,0,0,0,0,0,0,
652,264.3,250.6,112.0,139.6,116.5,109.6,60.05,20.06,56.67,50.41,16.7,18.37,20.99,12.98,5.483,2.443,0,0,0,0,0,0,0,0,0,0,0,0,0,0,0,0,
653,287.5,295.5,79.22,179.3,130.6,125.9,68.16,24.46,52.67,55.34,10.62,26.58,16.28,10.99,3.133,-1.632,0,0,0,0,0,0,0,0,0,0,0,0,0,0,0,0,
654,330.2,329.6,95.95,203.4,131.7,136.2,41.93,44.9,47.17,57.16,14.35,48.48,22.63,24.0,14.82,12.44,0,0,0,0,0,0,0,0,0,0,0,0,0,0,0,0,
655,351.3,337.8,164.0,205.6,133.0,141.5,70.42,55.69,50.47,66.49,27.22,57.23,32.74,39.43,23.07,30.03,0,0,0,0,0,0,0,0,0,0,0,0,0,0,0,0,
656,344.3,336.0,194.6,198.7,135.3,142.0,129.6,58.31,48.17,70.35,30.28,57.09,31.91,36.78,22.4,28.17,0,0,0,0,0,0,0,0,0,0,0,0,0,0,0,0,
657,335.9,326.4,147.1,186.8,126.0,135.4,73.34,53.67,39.77,64.75,22.23,50.5,28.02,27.92,22.14,17.68,0,0,0,0,0,0,0,0,0,0,0,0,0,0,0,0,T1
658,338.6,302.9,101.1,186.9,119.8,122.6,7.319,43.13,41.72,61.27,14.75,41.66,25.96,24.05,15.19,12.19,0,0,0,0,0,0,0,0,0,0,0,0,0,0,0,0,
659,339.9,289.2,128.1,201.7,122.0,113.6,56.75,44.64,46.25,57.03,13.02,44.24,22.1,23.23,7.199,10.94,0,0,0,0,0,0,0,0,0,0,0,0,0,0,0,0,
660,313.0,283.8,154.2,204.2,112.5,111.8,91.7,49.3,42.93,50.5,15.24,45.94,20.33,24.58,9.396,13.96,0,0,0,0,0,0,0,0,0,0,0,0,0,0,0,0,
661,271.8,257.7,112.4,182.5,94.62,106.4,67.34,42.18,40.2,49.39,13.4,39.47,17.34,20.9,7.104,15.13,0,0,0,0,0,0,0,0,0,0,0,0,0,0,0,0,
662,247.8,228.6,84.42,154.9,84.35,90.41,68.33,35.06,37.56,48.92,8.594,34.17,10.69,13.44,0.7068,14.67,0,0,0,0,0,0,0,0,0,0,0,0,0,0,0,0,
663,219.6,201.6,98.91,130.5,72.7,66.64,68.91,24.89,27.58,37.69,9.854,22.8,10.77,13.83,7.118,22.37,0,0,0,0,0,0,0,0,0,0,0,0,0,0,0,0,
664,180.0,152.8,89.12,103.1,59.23,52.28,51.48,14.39,21.35,27.12,15.45,15.07,19.03,20.56,16.72,28.89,0,0,0,0,0,0,0,0,0,0,0,0,0,0,0,0,
665,156.5,119.8,75.11,83.36,57.04,56.66,49.82,17.71,28.17,34.33,15.08,19.76,19.19,19.89,11.68,22.63,0,0,0,0,0,0,0,0,0,0,0,0,0,0,0,0,
666,134.8,118.9,75.14,82.56,51.38,53.41,39.52,19.04,28.4,36.72,7.761,18.49,7.495,10.44,0.0857,16.68,0,0,0,0,0,0,0,0,0,0,0,0,0,0,0,0,
667,105.2,98.82,48.74,79.74,33.99,34.4,19.89,18.73,15.59,19.16,4.062,19.63,3.045,7.01,-2.564,16.7,0,0,0,0,0,0,0,0,0,0,0,0,0,0,0,0,
668,72.4,61.52,14.54,48.05,24.24,23.27,18.88,25.49,9.306,10.42,0.006,25.88,3.959,7.65,-4.558,10.99,0,0,0,0,0,0,0,0,0,0,0,0,0,0,0,0,
669,25.01,41.45,0.2658,5.701,18.9,15.83,22.53,19.05,2.755,11.38,-10.85,16.53,-4.914,1.343,-13.31,2.939,0,0,0,0,0,0,0,0,0,0,0,0,0,0,0,0,
670,9.363,30.87,2.855,-1.072,2.904,1.361,26.18,7.166,-13.16,1.223,-14.26,6.146,-11.33,-4.536,-19.07,-3.151,0,0,0,0,0,0,0,0,0,0,0,0,0,0,0,0,
671,42.46,19.84,18.03,21.81,-10.45,-7.13,26.93,5.923,-20.0,-9.908,-12.14,5.415,-9.901,-6.886,-22.21,-10.59,0,0,0,0,0,0,0,0,0,0,0,0,0,0,0,0,
672,35.56,12.36,15.97,24.81,-3.839,-3.784,13.33,3.98,-11.41,-12.14,-14.02,3.282,-8.468,-5.463,-19.97,-6.587,0,0,0,0,0,0,0,0,0,0,0,0,0,0,0,0,
673,-13.69,3.728,-8.759,0.7622,3.709,-1.577,15.01,1.355,2.144,-10.45,-9.267,1.314,-4.574,-0.547,-9.264,4.227,0,0,0,0,0,0,0,0,0,0,0,0,0,0,0,0,
674,-33.49,-17.02,-26.01,-18.29,-15.13,-12.85,38.15,-1.13,1.614,-14.09,-4.018,-1.782,-6.524,-5.459,-8.198,-1.374,0,0,0,0,0,0,0,0,0,0,0,0,0,0,0,0,
675,-45.68,-39.38,-32.37,-16.97,-33.94,-23.4,27.0,-1.46,-15.11,-23.08,-7.798,-0.0741,-13.45,-11.06,-14.3,-9.017,0,0,0,0,0,0,0,0,0,0,0,0,0,0,0,0,
676,-67.15,-41.98,-32.89,-12.08,-20.41,-15.54,-17.48,4.336,-13.48,-19.55,-8.28,6.021,-10.84,-4.317,-10.24,-1.696,0,0,0,0,0,0,0,0,0,0,0,0,0,0,0,0,
677,-67.22,-42.27,-29.23,-25.31,-4.247,-6.021,-15.88,1.6,2.888,-9.551,-6.877,0.9314,-8.519,-1.898,-6.51,4.228,0,0,0,0,0,0,0,0,0,0,0,0,0,0,0,0,
678,-65.33,-57.12,-31.41,-44.42,-13.57,-11.24,29.94,-1.676,-4.626,-11.23,-13.2,-0.0359,-13.04,-3.793,-11.72,3.285,0,0,0,0,0,0,0,0,0,0,0,0,0,0,0,0,
679,-68.83,-61.45,-43.81,-48.79,-31.12,-22.26,36.7,4.635,-20.61,-12.77,-19.37,6.47,-12.96,0.3398,-15.59,2.491,0,0,0,0,0,0,0,0,0,0,0,0,0,0,0,0,
680,-56.62,-52.22,-59.17,-45.23,-36.29,-27.22,18.59,-2.201,-18.33,-9.95,-17.1,-3.633,-10.54,1.248,-14.85,-0.0154,0,0,0,0,0,0,0,0,0,0,0,0,0,0,0,0,
681,-63.57,-56.86,-60.77,-43.42,-34.81,-27.11,23.97,-14.57,-16.76,-15.74,-17.36,-14.72,-15.93,-4.025,-19.93,-4.483,0,0,0,0,0,0,0,0,0,0,0,0,0,0,0,0,
682,-101.5,-72.78,-52.44,-45.26,-44.52,-30.47,11.53,-11.05,-28.29,-25.29,-27.5,-9.986,-23.86,-8.704,-29.7,-6.585,0,0,0,0,0,0,0,0,0,0,0,0,0,0,0,0,
683,-103.4,-73.98,-48.65,-47.88,-47.29,-27.48,-19.59,-4.549,-29.79,-22.49,-28.75,-4.375,-19.45,-8.207,-27.09,-5.356,0,0,0,0,0,0,0,0,0,0,0,0,0,0,0,0,
684,-59.71,-60.36,-37.8,-50.77,-26.11,-13.21,-23.32,-2.223,-13.08,-9.688,-19.63,-1.417,-11.72,-8.562,-19.45,-7.219,0,0,0,0,0,0,0,0,0,0,0,0,0,0,0,0,
685,-45.86,-57.88,-28.13,-60.37,-19.12,-11.24,-7.494,-1.155,-6.028,-9.039,-13.41,-0.6935,-12.36,-13.87,-14.56,-7.791,0,0,0,0,0,0,0,0,0,0,0,0,0,0,0,0,
686,-82.07,-71.21,-39.99,-56.62,-29.77,-19.31,24.03,-3.906,-8.2,-17.15,3.091,-4.163,-0.352,-7.727,5.421,5.976,0,0,0,0,0,0,0,0,0,0,0,0,0,0,0,0,
687,-109.7,-79.2,-49.35,-29.72,-20.57,-17.09,51.15,-3.792,3.241,-11.83,16.45,-2.955,18.43,7.637,22.96,22.46,0,0,0,0,0,0,0,0,0,0,0,0,0,0,0,0,
688,-95.27,-73.25,-47.13,-27.64,-13.21,-12.73,34.59,0.9336,7.188,-2.637,1.643,1.526,12.98,11.87,14.09,26.14,0,0,0,0,0,0,0,0,0,0,0,0,0,0,0,0,
689,-74.5,-64.66,-50.62,-58.63,-27.91,-13.84,9.945,-1.639,-8.445,-1.985,-11.86,-3.341,-0.9049,8.274,2.886,21.14,0,0,0,0,0,0,0,0,0,0,0,0,0,0,0,0,
690,-86.56,-66.71,-45.37,-64.83,-30.5,-17.26,5.609,-9.122,-16.83,-3.585,-9.208,-10.57,-0.9442,3.596,3.013,13.36,0,0,0,0,0,0,0,0,0,0,0,0,0,0,0,0,
691,-107.5,-74.91,-39.45,-43.74,-20.5,-21.25,3.268,-5.458,-13.45,-4.665,-7.82,-4.672,4.901,0.9743,6.928,12.69,0,0,0,0,0,0,0,0,0,0,0,0,0,0,0,0,
692,-104.9,-76.28,-59.65,-40.39,-26.73,-21.51,5.944,2.573,-7.15,-1.465,-4.087,2.134,7.957,3.688,11.16,18.79,0,0,0,0,0,0,0,0,0,0,0,0,0,0,0,0,
693,-94.36,-74.41,-65.98,-52.33,-36.46,-18.68,-8.22,-2.144,-2.523,2.855,-2.635,-5.114,3.6,3.186,9.387,17.65,0,0,0,0,0,0,0,0,0,0,0,0,0,0,0,0,
694,-87.73,-75.27,-40.28,-57.53,-36.01,-15.88,-39.47,-13.86,-4.602,1.273,-8.667,-16.51,-1.847,0.5663,7.051,14.98,0,0,0,0,0,0,0,0,0,0,0,0,0,0,0,0,
695,-82.76,-72.82,-34.99,-52.84,-38.75,-16.2,-20.43,-18.54,-3.449,-2.419,-4.669,-18.36,0.728,2.2,10.43,17.77,0,0,0,0,0,0,0,0,0,0,0,0,0,0,0,0,
696,-85.38,-61.36,-41.77,-36.0,-29.55,-13.46,28.8,-4.649,7.007,-2.261,10.42,-1.199,10.11,7.308,17.78,20.61,0,0,0,0,0,0,0,0,0,0,0,0,0,0,0,0,
697,-83.71,-52.54,-30.02,-31.54,-2.755,-0.3258,18.81,14.83,20.96,8.027,17.1,15.74,19.0,12.08,23.05,18.9,0,0,0,0,0,0,0,0,0,0,0,0,0,0,0,0,
698,-70.1,-58.64,-29.36,-55.97,-1.724,1.95,-22.92,5.729,27.39,14.14,2.817,1.507,9.02,0.4956,8.271,1.851,0,0,0,0,0,0,0,0,0,0,0,0,0,0,0,0,
699,-64.95,-56.79,-38.52,-58.22,-21.13,-10.7,-18.54,-11.99,13.84,-0.0671,-15.06,-13.7,-10.01,-16.14,-9.042,-13.54,0,0,0,0,0,0,0,0,0,0,0,0,0,0,0,0,
700,-76.17,-44.98,-44.67,-26.19,-20.46,-10.96,-1.906,-4.277,0.1712,-6.803,-9.007,-2.52,-2.97,-5.704,3.211,0.3249,0,0,0,0,0,0,0,0,0,0,0,0,0,0,0,0,
701,-85.83,-57.85,-51.93,-13.5,-14.34,-7.212,-20.5,0.6744,7.627,2.95,3.714,0.429,11.22,7.712,12.87,10.45,0,0,0,0,0,0,0,0,0,0,0,0,0,0,0,0,
702,-76.47,-68.54,-20.25,-15.64,-11.99,-12.39,-22.81,-8.564,14.2,-0.9458,-1.169,-9.85,1.759,-5.587,-1.901,-6.375,0,0,0,0,0,0,0,0,0,0,0,0,0,0,0,0,
703,-52.45,-46.64,37.64,-11.49,0.0359,-10.32,5.701,-10.59,11.63,-12.34,-3.431,-11.5,-7.077,-16.83,-6.034,-12.92,0,0,0,0,0,0,0,0,0,0,0,0,0,0,0,0,
704,-27.29,-32.59,59.99,-20.83,8.528,-4.745,18.72,-12.12,17.36,-12.82,6.516,-12.54,-2.373,-11.37,0.7286,-6.69,0,0,0,0,0,0,0,0,0,0,0,0,0,0,0,0,
705,-3.774,-32.59,68.32,-43.0,11.26,-4.743,36.53,-16.02,23.51,-11.91,11.4,-15.67,-1.292,-8.789,-0.9952,-8.614,0,0,0,0,0,0,0,0,0,0,0,0,0,0,0,0,
706,4.551,-23.18,82.27,-65.24,17.71,-2.071,65.14,-15.7,22.93,-12.73,16.88,-16.25,2.693,-5.593,6.595,1.603,0,0,0,0,0,0,0,0,0,0,0,0,0,0,0,0,
707,-15.13,-19.81,78.33,-75.87,20.43,0.145,64.81,-18.02,30.51,-8.644,29.19,-18.62,14.76,5.286,21.07,20.81,0,0,0,0,0,0,0,0,0,0,0,0,0,0,0,0,
708,-37.82,-28.75,69.26,-71.86,16.98,-5.192,51.23,-22.87,37.78,-3.338,27.19,-22.69,14.35,6.896,15.33,17.41,0,0,0,0,0,0,0,0,0,0,0,0,0,0,0,0,
709,-40.03,-39.91,63.8,-77.15,16.98,-8.265,29.41,-26.26,29.43,-2.919,12.87,-26.86,3.665,1.682,3.232,6.672,0,0,0,0,0,0,0,0,0,0,0,0,0,0,0,0,
710,-38.56,-47.28,57.86,-84.22,21.84,-3.483,5.248,-26.06,25.37,-2.25,10.59,-25.73,3.026,6.046,4.714,9.208,0,0,0,0,0,0,0,0,0,0,0,0,0,0,0,0,
711,-43.33,-44.88,58.52,-76.33,12.94,-5.588,28.7,-18.61,30.15,1.069,14.8,-15.7,6.199,7.908,6.526,8.863,0,0,0,0,0,0,0,0,0,0,0,0,0,0,0,0,
712,-33.87,-42.11,56.51,-76.06,-5.879,-15.07,54.67,-10.71,25.54,-1.559,15.51,-8.207,6.515,1.973,7.918,4.966,0,0,0,0,0,0,0,0,0,0,0,0,0,0,0,0,
713,-26.82,-47.29,45.73,-77.43,-4.781,-14.98,30.48,-10.59,22.19,-6.961,17.4,-9.894,9.457,3.449,14.54,10.61,0,0,0,0,0,0,0,0,0,0,0,0,0,0,0,0,
714,-55.95,-50.88,37.15,-62.62,1.916,-9.041,17.0,-9.289,24.13,-5.376,17.69,-7.849,11.85,10.64,17.93,19.94,0,0,0,0,0,0,0,0,0,0,0,0,0,0,0,0,
715,-70.1,-44.68,38.62,-52.92,-1.775,-3.585,11.54,-1.747,23.52,3.41,17.59,-1.045,13.91,13.89,18.5,21.57,0,0,0,0,0,0,0,0,0,0,0,0,0,0,0,0,
716,-38.65,-41.16,40.95,-57.08,1.456,-1.88,-17.57,-6.723,26.54,9.336,12.76,-8.814,9.543,7.728,12.07,14.41,0,0,0,0,0,0,0,0,0,0,0,0,0,0,0,0,
717,-41.47,-54.22,33.95,-58.47,-2.714,-12.0,-12.9,-18.75,17.63,-0.2658,1.59,-17.85,-1.648,2.277,4.862,18.19,0,0,0,0,0,0,0,0,0,0,0,0,0,0,0,0,
718,-77.91,-59.43,32.93,-50.27,-13.21,-13.2,10.18,-9.917,1.897,-7.177,5.312,-6.067,3.05,14.91,16.63,38.35,0,0,0,0,0,0,0,0,0,0,0,0,0,0,0,0,
719,-64.17,-43.36,33.65,-46.95,-0.2525,1.576,0.0137,-1.053,9.76,6.299,14.36,-1.347,12.91,23.17,24.48,38.92,0,0,0,0,0,0,0,0,0,0,0,0,0,0,0,0,
720,-31.11,-36.95,22.41,-53.23,11.83,3.364,4.842,-9.392,15.86,11.98,8.851,-10.42,7.134,9.81,12.86,16.55,0,0,0,0,0,0,0,0,0,0,0,0,0,0,0,0,
721,-35.42,-41.62,24.3,-45.26,0.7488,-1.811,29.03,-7.5,6.049,0.9379,8.465,-5.84,5.609,1.363,8.74,5.437,0,0,0,0,0,0,0,0,0,0,0,0,0,0,0,0,
722,-45.81,-40.02,32.68,-26.8,-6.353,2.171,17.88,-1.694,8.129,-4.941,11.05,-0.7063,10.74,3.326,10.5,3.213,0,0,0,0,0,0,0,0,0,0,0,0,0,0,0,0,
723,-41.06,-37.76,29.2,-19.18,3.729,5.797,-13.63,-3.029,15.16,-3.083,5.505,-1.234,15.41,9.198,13.56,3.864,0,0,0,0,0,0,0,0,0,0,0,0,0,0,0,0,
724,-33.35,-31.39,38.89,-14.25,16.2,9.365,-25.0,5.226,22.82,5.938,12.89,6.332,28.87,22.3,28.16,15.17,0,0,0,0,0,0,0,0,0,0,0,0,0,0,0,0,
725,-34.32,-24.63,44.52,-19.62,14.02,9.113,0.4258,6.958,32.09,13.06,24.78,4.299,31.54,24.01,29.43,16.21,0,0,0,0,0,0,0,0,0,0,0,0,0,0,0,0,
726,-49.68,-29.52,23.53,-39.33,2.172,1.221,34.86,-6.428,20.14,6.615,18.22,-7.705,15.28,10.65,10.09,-0.5765,0,0,0,0,0,0,0,0,0,0,0,0,0,0,0,0,
727,-55.32,-34.03,11.28,-39.0,-1.64,-1.073,27.11,-8.726,3.353,2.44,9.739,-7.019,9.859,5.711,5.27,-6.865,0,0,0,0,0,0,0,0,0,0,0,0,0,0,0,0,
728,-45.92,-33.85,13.42,-24.21,-0.2704,0.2891,8.178,-1.462,8.077,5.982,15.17,-0.7003,19.74,12.17,20.19,4.368,0,0,0,0,0,0,0,0,0,0,0,0,0,0,0,0,
729,-59.35,-38.33,11.55,-32.45,0.3306,-5.154,15.33,-4.586,15.54,5.617,20.67,-5.348,24.37,14.24,26.82,11.27,0,0,0,0,0,0,0,0,0,0,0,0,0,0,0,0,
730,-81.07,-44.31,10.32,-49.86,1.11,-13.56,13.6,-13.65,11.44,1.155,15.92,-13.46,19.24,7.734,19.51,6.278,0,0,0,0,0,0,0,0,0,0,0,0,0,0,0,0,
731,-60.71,-45.78,12.31,-43.38,-0.793,-16.12,13.24,-8.667,6.101,-4.069,14.95,-6.295,17.76,8.0,17.83,3.074,0,0,0,0,0,0,0,0,0,0,0,0,0,0,0,0,
732,-26.15,-45.14,13.98,-24.09,-6.055,-16.44,23.34,2.358,8.816,-6.162,18.52,2.474,21.02,14.13,19.85,3.107,0,0,0,0,0,0,0,0,0,0,0,0,0,0,0,0,
733,-25.92,-50.18,6.293,-23.38,-20.3,-29.17,6.85,-6.626,8.862,-10.21,9.615,-9.917,13.38,7.503,13.88,-0.8831,0,0,0,0,0,0,0,0,0,0,0,0,0,0,0,0,
734,-41.39,-57.77,-3.259,-37.61,-35.47,-42.43,0.5008,-17.02,-5.777,-19.57,4.423,-17.41,4.051,1.167,15.46,1.415,0,0,0,0,0,0,0,0,0,0,0,0,0,0,0,0,
735,-57.29,-56.93,-1.842,-37.64,-26.98,-35.7,21.56,-9.145,-15.32,-20.99,14.5,-8.082,6.147,5.128,21.62,8.028,0,0,0,0,0,0,0,0,0,0,0,0,0,0,0,0,
736,-72.27,-52.69,-7.451,-25.38,-8.603,-27.24,12.78,-9.505,-9.85,-20.12,11.99,-11.64,3.147,-2.001,11.31,-0.4871,0,0,0,0,0,0,0,0,0,0,0,0,0,0,0,0,
737,-54.43,-52.75,-6.984,-25.6,-13.36,-31.21,-3.657,-18.29,-10.02,-27.74,0.2008,-18.61,-3.747,-14.0,3.642,-13.56,0,0,0,0,0,0,0,0,0,0,0,0,0,0,0,0,
738,-19.07,-51.27,18.51,-32.35,-28.22,-33.46,18.47,-12.67,-16.3,-28.11,6.761,-9.356,2.434,-9.042,12.9,-10.82,0,0,0,0,0,0,0,0,0,0,0,0,0,0,0,0,
739,-22.99,-47.09,15.39,-33.48,-28.57,-34.25,46.02,-10.02,-18.26,-20.06,14.57,-10.4,5.873,-0.4783,11.14,-5.321,0,0,0,0,0,0,0,0,0,0,0,0,0,0,0,0,
740,-58.38,-51.39,-23.1,-43.05,-28.78,-41.89,33.83,-25.9,-25.86,-23.38,-2.304,-29.52,-8.548,-7.202,-6.958,-10.56,0,0,0,0,0,0,0,0,0,0,0,0,0,0,0,0,
741,-82.95,-61.24,-29.04,-45.28,-35.9,-45.75,-16.2,-33.25,-38.43,-34.69,-20.66,-32.25,-17.91,-15.63,-11.99,-13.39,0,0,0,0,0,0,0,0,0,0,0,0,0,0,0,0,
742,-77.88,-58.49,-13.93,-18.51,-34.08,-41.06,-37.45,-20.77,-38.34,-35.46,-16.6,-17.86,-12.82,-13.81,-6.865,-13.99,0,0,0,0,0,0,0,0,0,0,0,0,0,0,0,0,
743,-56.53,-54.23,-22.46,-7.529,-39.42,-45.37,0.2826,-17.73,-35.04,-34.27,-14.48,-18.03,-19.72,-21.48,-16.92,-28.57,0,0,0,0,0,0,0,0,0,0,0,0,0,0,0,0,
744,-56.52,-61.91,-27.41,-24.87,-56.16,-55.03,16.95,-23.46,-45.75,-45.38,-21.55,-21.8,-31.4,-34.21,-22.77,-37.51,0,0,0,0,0,0,0,0,0,0,0,0,0,0,0,0,
745,-64.8,-54.67,-19.04,-17.8,-44.94,-46.0,-23.02,-12.86,-47.37,-47.17,-12.07,-9.476,-18.1,-21.62,-4.574,-15.83,0,0,0,0,0,0,0,0,0,0,0,0,0,0,0,0,
746,-47.28,-33.53,-22.93,-1.152,-22.78,-33.66,-57.28,-5.381,-30.89,-32.49,-2.301,-6.7,-3.752,-4.003,2.74,3.948,0,0,0,0,0,0,0,0,0,0,0,0,0,0,0,0,
747,-39.28,-35.59,-26.46,-20.67,-35.01,-41.89,-46.92,-21.04,-30.62,-30.58,-16.15,-25.33,-16.07,-13.79,-16.62,-11.89,0,0,0,0,0,0,0,0,0,0,0,0,0,0,0,0,
748,-52.95,-54.79,-29.02,-46.65,-51.38,-53.47,-13.47,-38.85,-47.31,-42.34,-29.39,-41.34,-30.38,-29.89,-28.19,-32.48,0,0,0,0,0,0,0,0,0,0,0,0,0,0,0,0,
749,-53.2,-58.86,-42.67,-35.09,-40.79,-51.63,-3.408,-38.58,-49.53,-46.52,-21.41,-37.22,-26.0,-25.67,-16.56,-23.75,0,0,0,0,0,0,0,0,0,0,0,0,0,0,0,0,
750,-60.37,-46.65,-39.69,-9.853,-31.92,-43.75,-18.75,-24.88,-40.51,-40.99,-10.07,-23.26,-19.58,-15.04,-10.08,-14.95,0,0,0,0,0,0,0,0,0,0,0,0,0,0,0,0,
751,-77.01,-41.98,-24.29,-25.99,-38.63,-41.97,-20.86,-21.94,-44.54,-35.55,-17.17,-23.63,-26.75,-21.02,-23.21,-30.98,0,0,0,0,0,0,0,0,0,0,0,0,0,0,0,0,
752,-57.26,-45.23,-20.69,-54.55,-34.01,-39.36,-15.47,-23.61,-52.92,-33.0,-21.18,-21.71,-24.94,-24.19,-19.09,-30.57,0,0,0,0,0,0,0,0,0,0,0,0,0,0,0,0,
753,-25.92,-35.8,-14.74,-27.44,-13.92,-21.57,-18.57,-4.544,-37.6,-20.75,-1.444,-0.1301,-2.314,-4.726,6.439,-2.519,0,0,0,0,0,0,0,0,0,0,0,0,0,0,0,0,
754,-24.66,-29.41,-22.5,1.907,-14.21,-12.46,-25.82,1.458,-19.0,-7.066,1.072,-1.447,0.9867,1.671,3.736,2.953,0,0,0,0,0,0,0,0,0,0,0,0,0,0,0,0,
755,-29.76,-35.56,-46.41,-27.9,-33.47,-25.02,-41.69,-21.18,-29.05,-14.86,-19.86,-24.2,-16.75,-14.37,-12.18,-10.6,0,0,0,0,0,0,0,0,0,0,0,0,0,0,0,0,
756,-25.54,-25.4,-36.93,-48.32,-33.62,-26.23,-41.73,-21.87,-37.42,-25.2,-15.59,-18.34,-13.93,-16.87,-3.381,-8.587,0,0,0,0,0,0,0,0,0,0,0,0,0,0,0,0,
757,-19.24,-13.0,-13.29,-27.46,-22.4,-18.45,-20.75,-6.237,-26.4,-24.25,-2.71,-5.168,-4.818,-11.83,-0.8846,-7.079,0,0,0,0,0,0,0,0,0,0,0,0,0,0,0,0,
758,-14.74,-23.44,-15.69,-20.7,-18.29,-20.25,-22.27,-13.29,-22.13,-28.11,-10.13,-15.34,-11.46,-15.73,-13.57,-13.49,0,0,0,0,0,0,0,0,0,0,0,0,0,0,0,0,
759,-19.94,-29.54,-21.65,-27.93,-11.2,-15.47,-25.92,-21.65,-21.72,-27.12,-10.64,-20.44,-14.73,-17.25,-13.55,-11.17,0,0,0,0,0,0,0,0,0,0,0,0,0,0,0,0,
760,-23.63,-21.91,-27.21,-26.8,-9.809,-10.63,-7.498,-12.88,-19.34,-17.91,-5.098,-11.26,-13.55,-16.41,-9.834,-6.847,0,0,0,0,0,0,0,0,0,0,0,0,0,0,0,0,
761,-19.64,-23.09,-37.28,-39.95,-23.73,-19.81,-15.78,-10.29,-27.56,-18.94,-14.29,-11.43,-18.11,-16.18,-14.21,-7.169,0,0,0,0,0,0,0,0,0,0,0,0,0,0,0,0,
762,-20.71,-31.41,-34.54,-51.82,-35.57,-23.81,-29.14,-19.84,-38.05,-22.39,-22.12,-20.0,-20.37,-12.8,-16.59,-5.889,0,0,0,0,0,0,0,0,0,0,0,0,0,0,0,0,
763,-17.44,-25.77,-28.52,-26.5,-30.86,-17.33,-8.934,-20.59,-38.53,-17.51,-16.01,-18.89,-14.13,-9.058,-10.6,-1.349,0,0,0,0,0,0,0,0,0,0,0,0,0,0,0,0,
764,-18.23,-9.243,-35.01,-6.063,-14.63,-13.31,-19.64,-11.71,-29.47,-11.88,-8.06,-11.36,-5.4,-7.752,-2.149,4.255,0,0,0,0,0,0,0,0,0,0,0,0,0,0,0,0,
765,-39.9,-11.28,-46.93,-14.49,-8.707,-14.28,-43.06,-6.292,-22.45,-8.442,-7.554,-5.301,-4.492,-7.348,-3.739,6.774,0,0,0,0,0,0,0,0,0,0,0,0,0,0,0,0,
766,-45.4,-24.68,-46.5,-12.84,-17.73,-17.37,-9.296,-1.106,-29.14,-4.848,-13.28,0.7338,-10.19,-3.783,-11.78,7.185,0,0,0,0,0,0,0,0,0,0,0,0,0,0,0,0,
767,-27.47,-21.11,-23.13,-29.98,-17.45,-16.6,-5.957,-1.52,-32.06,0.7174,-17.95,-3.685,-12.1,-0.0488,-11.54,7.367,0,0,0,0,0,0,0,0,0,0,0,0,0,0,0,0,
768,-23.53,-20.54,1.1,-76.4,-11.41,-16.16,-62.72,-11.36,-20.62,4.318,-14.31,-13.99,-9.848,-2.802,-6.829,1.002,0,0,0,0,0,0,0,0,0,0,0,0,0,0,0,0,
769,-24.12,-33.05,-4.46,-65.05,-24.12,-29.06,-59.24,-13.04,-19.6,-3.623,-11.22,-12.42,-11.36,-9.033,-12.22,-10.27,0,0,0,0,0,0,0,0,0,0,0,0,0,0,0,0,
770,-15.21,-31.28,-31.43,-6.789,-36.0,-41.57,-9.22,-11.3,-30.2,-18.84,-17.02,-11.57,-16.41,-14.47,-21.19,-13.23,0,0,0,0,0,0,0,0,0,0,0,0,0,0,0,0,
771,-4.72,-23.9,-41.21,6.656,-22.67,-33.47,-3.61,-14.97,-26.68,-22.65,-15.0,-14.96,-14.24,-15.5,-14.51,-5.436,0,0,0,0,0,0,0,0,0,0,0,0,0,0,0,0,
772,1.517,-29.1,-22.7,-21.16,-13.6,-23.63,-27.43,-11.08,-15.38,-14.57,-7.03,-9.255,-6.813,-11.89,-4.62,-1.552,0,0,0,0,0,0,0,0,0,0,0,0,0,0,0,0,
773,-15.64,-31.84,-6.597,-45.6,-26.09,-29.39,-43.07,-9.312,-17.02,-13.12,-16.34,-9.541,-9.642,-13.8,-15.21,-12.55,0,0,0,0,0,0,0,0,0,0,0,0,0,0,0,0,
774,-34.33,-29.04,-4.008,-51.11,-33.35,-34.48,-30.47,-18.21,-27.02,-17.85,-29.82,-18.47,-21.76,-22.84,-32.03,-27.83,0,0,0,0,0,0,0,0,0,0,0,0,0,0,0,0,
775,-17.87,-28.39,-0.231,-36.12,-29.23,-30.69,-13.17,-14.95,-36.07,-16.25,-28.21,-11.77,-28.19,-25.22,-33.36,-27.53,0,0,0,0,0,0,0,0,0,0,0,0,0,0,0,0,
776,-3.363,-21.49,-1.298,-10.86,-21.14,-22.85,-37.47,0.3787,-35.72,-9.348,-20.03,2.272,-21.48,-15.62,-22.51,-13.09,0,0,0,0,0,0,0,0,0,0,0,0,0,0,0,0,
777,-15.29,-14.46,-23.04,6.876,-11.77,-16.58,-53.78,-0.9589,-21.77,-3.853,-16.01,-3.984,-13.54,-10.65,-17.0,-7.418,0,0,0,0,0,0,0,0,0,0,0,0,0,0,0,0,
778,-28.29,-18.42,-50.44,0.9596,-15.24,-19.27,-27.02,-15.2,-16.14,-6.26,-21.65,-17.57,-17.64,-17.31,-23.54,-11.84,0,0,0,0,0,0,0,0,0,0,0,0,0,0,0,0,
779,-33.3,-13.62,-34.08,-5.99,-19.14,-18.23,-14.18,-11.27,-21.86,-8.414,-24.06,-9.429,-17.52,-13.49,-21.0,-4.381,0,0,0,0,0,0,0,0,0,0,0,0,0,0,0,0,
780,-17.76,0.2283,15.91,0.762,-9.352,-4.376,-20.58,5.483,-15.48,3.147,-13.24,6.589,-4.712,1.765,-5.713,8.953,0,0,0,0,0,0,0,0,0,0,0,0,0,0,0,0,
781,7.155,-2.47,17.61,-17.29,-5.722,5.591,-29.6,9.43,-7.659,15.16,-8.715,7.937,0.8515,4.911,-2.167,7.66,0,0,0,0,0,0,0,0,0,0,0,0,0,0,0,0,
782,4.029,-5.642,-11.04,-32.31,-6.268,3.675,-46.59,3.682,-9.927,15.74,-12.85,1.611,-2.18,-0.6179,-7.832,1.079,0,0,0,0,0,0,0,0,0,0,0,0,0,0,0,0,
783,-6.806,3.96,-2.816,2.431,-6.178,-6.834,-36.46,-4.087,-13.21,9.255,-12.02,-6.116,-4.25,-1.591,-8.701,4.828,0,0,0,0,0,0,0,0,0,0,0,0,0,0,0,0,
784,-7.145,2.781,-5.686,16.27,-14.03,-11.93,-8.758,-9.028,-19.95,1.78,-7.117,-9.793,-3.35,1.735,-5.506,13.12,0,0,0,0,0,0,0,0,0,0,0,0,0,0,0,0,
785,-20.07,-5.114,-33.24,-16.82,-12.97,-3.514,-17.74,-7.671,-18.46,4.659,-0.2539,-9.162,0.9418,0.8853,-1.563,11.18,0,0,0,0,0,0,0,0,0,0,0,0,0,0,0,0,
786,-22.91,-5.684,-14.11,-16.42,-7.113,-8.61,-38.31,-13.27,-9.628,3.605,-2.096,-16.22,-3.205,-11.78,-5.271,-1.647,0,0,0,0,0,0,0,0,0,0,0,0,0,0,0,0,
787,1.684,-4.052,25.49,15.98,-12.97,-25.21,-30.29,-19.39,-19.43,-15.24,-13.9,-19.81,-14.09,-20.89,-13.46,-10.28,0,0,0,0,0,0,0,0,0,0,0,0,0,0,0,0,
788,9.694,-3.192,19.57,18.57,-18.49,-23.38,-23.39,-13.68,-33.8,-22.51,-19.11,-13.47,-18.15,-19.18,-16.63,-11.92,0,0,0,0,0,0,0,0,0,0,0,0,0,0,0,0,
789,-8.349,-11.32,-10.91,3.257,-22.61,-18.55,-43.65,-10.92,-36.61,-14.83,-22.17,-11.66,-20.34,-19.56,-17.98,-11.0,0,0,0,0,0,0,0,0,0,0,0,0,0,0,0,0,
790,-16.72,-19.49,-25.14,7.249,-17.73,-16.7,-58.16,-6.662,-35.93,-10.83,-22.95,-4.955,-17.14,-13.45,-14.07,-4.23,0,0,0,0,0,0,0,0,0,0,0,0,0,0,0,0,
791,-9.422,-9.458,-20.9,15.64,-0.9615,-3.928,-27.56,5.945,-23.71,-1.018,-9.021,7.286,-6.177,-2.454,-6.188,0.3014,0,0,0,0,0,0,0,0,0,0,0,0,0,0,0,0,
792,-4.359,-1.155,-15.45,4.746,-6.862,-4.965,12.75,3.602,-12.18,3.601,-1.46,1.24,-6.512,-5.843,-7.487,-2.743,0,0,0,0,0,0,0,0,0,0,0,0,0,0,0,0,
793,-10.94,-11.7,-14.22,-10.9,-28.78,-24.08,-4.738,-14.67,-21.16,-11.12,-17.06,-16.99,-18.22,-13.57,-15.67,-4.051,0,0,0,0,0,0,0,0,0,0,0,0,0,0,0,0,
794,-16.59,-21.27,-7.611,-14.79,-31.85,-27.32,-47.57,-19.32,-31.97,-21.07,-30.19,-17.59,-23.43,-12.81,-19.48,-4.572,0,0,0,0,0,0,0,0,0,0,0,0,0,0,0,0,
795,0.634,-9.669,-1.242,-6.515,-25.31,-11.27,-42.83,-0.075,-30.12,-11.79,-25.88,3.428,-17.86,-8.25,-16.34,-6.844,0,0,0,0,0,0,0,0,0,0,0,0,0,0,0,0,
796,20.15,11.13,-10.41,15.66,-20.52,0.1469,-9.072,12.57,-22.07,3.057,-23.67,11.99,-14.15,-7.187,-15.91,-8.227,0,0,0,0,0,0,0,0,0,0,0,0,0,0,0,0,
797,6.565,10.81,-23.72,36.22,-16.75,-4.801,15.23,-3.314,-17.7,3.732,-29.37,-6.457,-22.26,-14.82,-22.6,-12.63,0,0,0,0,0,0,0,0,0,0,0,0,0,0,0,0,
798,-8.793,-3.039,-16.95,26.37,-20.27,-17.96,4.444,-18.89,-22.77,-11.16,-30.69,-19.32,-29.73,-21.74,-25.28,-18.81,0,0,0,0,0,0,0,0,0,0,0,0,0,0,0,0,
799,6.771,-8.252,-7.329,-6.404,-28.0,-29.22,-61.73,-15.98,-28.9,-22.32,-32.63,-14.42,-27.29,-20.64,-24.58,-20.12,0,0,0,0,0,0,0,0,0,0,0,0,0,0,0,0,
800,9.568,-15.39,-23.98,-18.05,-29.69,-31.29,-89.25,-9.365,-29.48,-21.02,-34.08,-7.63,-21.64,-16.11,-24.96,-16.64,0,0,0,0,0,0,0,0,0,0,0,0,0,0,0,0,
801,-18.02,-17.24,-36.39,-0.1118,-21.82,-20.16,-18.05,-4.454,-27.11,-11.0,-29.29,-4.543,-18.98,-11.32,-24.64,-14.55,0,0,0,0,0,0,0,0,0,0,0,0,0,0,0,0,
802,-25.53,-2.023,-17.41,9.656,-18.21,-12.76,25.55,-6.096,-28.1,-3.362,-34.18,-7.803,-25.26,-12.31,-29.69,-14.95,0,0,0,0,0,0,0,0,0,0,0,0,0,0,0,0,
803,-6.442,3.998,-1.879,9.886,-25.87,-16.73,-3.264,-10.27,-33.94,-5.386,-37.24,-9.088,-26.9,-13.02,-27.02,-8.82,0,0,0,0,0,0,0,0,0,0,0,0,0,0,0,0,
804,5.593,-3.249,-4.206,20.42,-22.47,-12.6,-19.66,-4.646,-27.46,-1.626,-19.34,-2.36,-9.383,-4.525,-7.332,1.012,0,0,0,0,0,0,0,0,0,0,0,0,0,0,0,0,
805,10.55,-1.915,-5.271,17.12,-5.974,-2.669,-20.39,0.8727,-6.405,8.536,-9.448,0.5002,3.176,0.7835,-0.7651,2.384,0,0,0,0,0,0,0,0,0,0,0,0,0,0,0,0,
806,3.198,4.558,-10.04,-10.05,-3.498,-3.054,-18.4,-0.4539,3.348,8.702,-18.84,-1.54,-4.555,-1.007,-14.94,-0.62,0,0,0,0,0,0,0,0,0,0,0,0,0,0,0,0,
807,-18.52,6.87,-15.17,-22.66,-15.02,-7.281,-10.26,-2.774,-6.382,6.593,-24.41,-3.526,-14.64,-2.242,-21.82,-3.057,0,0,0,0,0,0,0,0,0,0,0,0,0,0,0,0,
808,-9.323,10.78,-2.9,-1.923,-18.78,-6.239,-18.18,-3.462,-19.69,8.449,-21.58,-3.623,-14.83,-3.467,-12.99,-7.346,0,0,0,0,0,0,0,0,0,0,0,0,0,0,0,0,
809,25.55,14.95,7.845,16.94,-11.9,-3.824,-17.99,-0.6398,-20.07,6.23,-13.16,-0.4728,-6.19,-1.973,-1.399,-7.02,0,0,0,0,0,0,0,0,0,0,0,0,0,0,0,0,
810,21.37,8.836,-0.8773,4.16,-4.264,-2.896,-7.023,-0.1801,-7.358,5.497,-5.549,-0.7182,2.702,5.718,3.632,3.521,0,0,0,0,0,0,0,0,0,0,0,0,0,0,0,0,
811,-9.052,3.589,-7.144,-7.292,1.652,2.153,-27.14,-2.941,3.092,15.52,-6.851,-3.242,5.431,15.37,6.061,15.5,0,0,0,0,0,0,0,0,0,0,0,0,0,0,0,0,
812,-13.34,11.4,-3.965,2.868,0.4651,6.08,-43.87,-3.129,5.222,25.93,-8.366,-3.118,3.15,17.24,7.763,16.12,0,0,0,0,0,0,0,0,0,0,0,0,0,0,0,0,
813,3.859,13.97,-5.987,6.688,-10.17,-1.556,-11.72,-1.546,0.7038,21.1,-3.003,-0.9636,-2.332,10.37,4.758,8.248,0,0,0,0,0,0,0,0,0,0,0,0,0,0,0,0,
814,17.61,8.673,-10.51,9.63,-14.04,-7.455,21.47,0.3925,-7.572,9.992,3.124,0.7875,-3.436,6.661,4.297,3.0,0,0,0,0,0,0,0,0,0,0,0,0,0,0,0,0,
815,10.27,7.343,-12.8,13.14,-7.098,-2.747,5.283,-3.977,-9.528,4.866,1.537,-4.877,2.329,5.852,8.197,-0.587,0,0,0,0,0,0,0,0,0,0,0,0,0,0,0,0,
816,-0.7021,4.511,-9.702,1.963,1.099,3.872,-11.57,-5.592,-3.345,2.945,-4.785,-3.718,6.395,5.556,8.249,-3.9,0,0,0,0,0,0,0,0,0,0,0,0,0,0,0,0,
817,17.07,9.184,-2.136,9.172,7.854,10.68,14.29,8.632,2.129,9.504,-6.489,11.56,4.772,9.664,4.667,-6.274,0,0,0,0,0,0,0,0,0,0,0,0,0,0,0,0,
818,25.05,19.08,-6.177,24.88,3.823,10.73,12.56,12.58,2.844,16.33,-9.563,10.76,-1.105,9.941,-0.4037,-10.79,0,0,0,0,0,0,0,0,0,0,0,0,0,0,0,0,
819,2.629,12.28,-10.57,5.815,-2.046,5.39,-38.38,1.729,5.629,8.312,-14.87,-0.0099,-3.01,9.969,-2.115,-9.174,0,0,0,0,0,0,0,0,0,0,0,0,0,0,0,0,
820,4.998,6.103,4.508,-8.089,9.521,10.07,-46.41,3.382,14.75,4.021,-8.342,4.54,3.614,16.83,4.148,0.4007,0,0,0,0,0,0,0,0,0,0,0,0,0,0,0,0,
821,19.69,15.01,16.1,3.886,19.11,14.92,2.691,5.523,16.96,8.742,5.516,5.451,8.03,14.56,11.4,2.589,0,0,0,0,0,0,0,0,0,0,0,0,0,0,0,0,
822,6.392,19.88,8.9,2.173,13.54,7.279,35.6,-1.218,8.521,1.593,9.522,-1.056,5.08,3.25,12.65,-2.988,0,0,0,0,0,0,0,0,0,0,0,0,0,0,0,0,
823,4.592,18.93,-1.777,-3.759,8.672,0.5535,19.21,-0.2839,5.861,-9.794,3.478,1.253,1.465,-0.758,10.17,-7.279,0,0,0,0,0,0,0,0,0,0,0,0,0,0,0,0,
824,18.97,16.54,-0.6704,2.291,6.09,4.899,-7.123,2.717,13.29,-5.472,3.788,2.803,3.866,1.732,11.23,-11.07,0,0,0,0,0,0,0,0,0,0,0,0,0,0,0,0,
825,5.016,9.081,8.166,1.518,3.137,10.61,8.549,1.34,19.95,7.014,11.22,1.265,10.25,5.202,12.59,-12.45,0,0,0,0,0,0,0,0,0,0,0,0,0,0,0,0,
826,-18.11,3.64,-6.706,2.723,4.008,8.839,21.78,7.319,18.37,7.03,5.671,9.503,11.19,8.674,5.525,-8.22,0,0,0,0,0,0,0,0,0,0,0,0,0,0,0,0,
827,-16.39,1.882,-29.81,9.216,5.274,8.698,-16.8,15.87,15.29,1.223,-8.747,15.88,5.421,8.581,-1.692,-4.788,0,0,0,0,0,0,0,0,0,0,0,0,0,0,0,0,
828,-6.466,-6.553,-12.51,-15.02,-3.056,6.698,-34.42,4.883,10.75,4.395,-13.73,0.6398,-5.228,-0.0867,-3.705,-6.214,0,0,0,0,0,0,0,0,0,0,0,0,0,0,0,0,
829,-4.625,-15.13,1.239,-46.24,-13.17,-4.733,-2.158,-10.6,-4.923,0.6229,-10.5,-10.67,-10.77,-7.819,-2.583,-6.407,0,0,0,0,0,0,0,0,0,0,0,0,0,0,0,0,
830,-6.424,-6.022,-22.92,-20.99,0.4777,-1.326,7.642,0.5252,-4.086,-6.966,-2.079,3.96,2.86,-2.746,5.588,-7.237,0,0,0,0,0,0,0,0,0,0,0,0,0,0,0,0,
831,-13.57,1.213,-16.23,16.61,16.79,9.676,-4.78,7.896,20.89,-0.4776,3.289,6.112,12.99,-0.142,9.227,-12.89,0,0,0,0,0,0,0,0,0,0,0,0,0,0,0,0,
832,-21.74,-14.42,15.34,9.78,2.511,0.3795,8.424,-5.88,17.53,1.056,-2.292,-6.931,1.029,-5.372,0.8661,-12.73,0,0,0,0,0,0,0,0,0,0,0,0,0,0,0,0,
833,-17.08,-18.23,2.92,6.561,-4.156,0.6218,17.63,-0.9772,-4.056,-2.421,-6.29,2.108,-7.565,-5.118,-4.572,-10.37,0,0,0,0,0,0,0,0,0,0,0,0,0,0,0,0,
834,-11.07,-1.308,-12.15,11.45,15.37,17.31,-6.975,11.8,2.424,4.144,-1.313,11.38,-4.484,-5.82,-2.668,-15.73,0,0,0,0,0,0,0,0,0,0,0,0,0,0,0,0,
835,-17.95,0.6164,4.457,-9.331,17.63,13.09,-10.77,6.041,9.769,3.539,4.816,3.927,-3.135,-6.596,-0.8553,-15.21,0,0,0,0,0,0,0,0,0,0,0,0,0,0,0,0,
836,-17.84,-4.742,-5.658,-12.13,2.128,-0.0687,23.53,-0.238,0.0493,-4.27,1.246,-0.9484,-6.7,-4.322,-6.457,-15.32,0,0,0,0,0,0,0,0,0,0,0,0,0,0,0,0,
837,-2.699,-3.037,-24.32,8.409,-1.133,0.4657,24.55,-6.314,-5.23,-8.11,-9.026,-6.307,-14.8,-12.0,-15.32,-30.04,0,0,0,0,0,0,0,0,0,0,0,0,0,0,0,0,
838,8.223,-7.255,2.825,10.09,0.8474,3.753,-16.03,-8.013,-8.933,-12.58,-10.67,-5.579,-20.42,-18.52,-16.54,-35.09,0,0,0,0,0,0,0,0,0,0,0,0,0,0,0,0,
839,10.68,-10.07,21.4,10.66,-7.976,0.7602,-35.04,1.81,-16.0,-14.59,-12.23,2.789,-24.81,-17.24,-19.72,-27.88,0,0,0,0,0,0,0,0,0,0,0,0,0,0,0,0,
840,-0.882,-6.344,-1.984,14.98,-16.34,-8.759,-24.75,-2.377,-22.23,-19.48,-15.75,-4.301,-29.64,-23.78,-23.11,-32.33,0,0,0,0,0,0,0,0,0,0,0,0,0,0,0,0,
841,-36.32,-8.17,-27.73,1.047,-12.25,-15.89,-21.33,-16.04,-26.04,-29.84,-6.505,-16.65,-24.42,-30.04,-15.49,-38.49,0,0,0,0,0,0,0,0,0,0,0,0,0,0,0,0,
842,-59.2,-15.38,-47.02,-10.91,-12.27,-14.38,-28.08,-17.04,-25.34,-30.46,-6.421,-17.25,-20.1,-24.82,-15.31,-33.09,0,0,0,0,0,0,0,0,0,0,0,0,0,0,0,0,
843,-34.93,-21.1,-42.32,-11.1,-20.7,-11.9,-10.19,-12.97,-24.6,-22.56,-17.94,-12.01,-22.79,-11.86,-18.85,-22.23,0,0,0,0,0,0,0,0,0,0,0,0,0,0,0,0,
844,-6.419,-21.69,-14.94,-14.96,-22.05,-11.86,24.3,-4.73,-25.7,-14.71,-9.162,-1.792,-16.31,2.194,-6.091,-8.874,0,0,0,0,0,0,0,0,0,0,0,0,0,0,0,0,
845,-9.871,-17.23,-17.41,-13.39,-20.28,-9.088,22.82,4.321,-24.72,-6.496,7.951,4.294,-3.459,6.947,7.89,2.67,0,0,0,0,0,0,0,0,0,0,0,0,0,0,0,0,
846,-12.71,-8.114,-17.86,-1.704,-11.93,-0.0711,6.933,1.345,-13.29,0.0076,18.97,-0.5417,9.909,6.551,16.66,8.794,0,0,0,0,0,0,0,0,0,0,0,0,0,0,0,0,
847,-5.447,1.977,20.28,4.271,1.407,3.037,7.131,-2.505,5.73,-0.9049,24.28,-2.245,15.4,3.652,18.32,6.033,0,0,0,0,0,0,0,0,0,0,0,0,0,0,0,0,
848,-9.604,0.9462,19.28,2.921,-9.713,-10.41,-15.38,-1.766,2.584,-13.88,5.552,-2.1,-4.192,-10.04,-2.158,-9.301,0,0,0,0,0,0,0,0,0,0,0,0,0,0,0,0,
