%OpenBCI Raw EXG Data
%Number of channels = 16
%Sample Rate = 125 Hz
%Board = OpenBCI_GUI$BoardCytonSerialDaisy
Sample Index,EXG Channel 0,EXG Channel 1,EXG Channel 2,EXG Channel 3,EXG Channel 4,EXG Channel 5,EXG Channel 6,EXG Channel 7,EXG Channel 8,EXG Channel 9,EXG Channel 10,EXG Channel 11,EXG Channel 12,EXG Channel 13,EXG Channel 14,EXG Channel 15,Accel Channel 0,Accel Channel 1,Accel Channel 2,Other,Other,Other,Other,Other,Other,Other,Analog Channel 0,Analog Channel 1,Analog Channel 2,Timestamp,Other,Timestamp (Formatted),Annotations
1,0,0,0,0,0,0,0,0,0,0,0,0,0,0,0,-0,0,0,0,0,0,0,0,0,0,0,0,0,0,0,0,0,T0
2,-118.1,-12.38,-96.54,-128.1,-20.29,-70.33,25.07,-89.34,35.38,-45.41,-36.59,-45.25,-33.88,-30.01,-20.21,-31.1,0,0,0,0,0,0,0,0,0,0,0,0,0,0,0,0,
3,-121,-13.47,-102.4,-166.9,3.608,-93.93,17.54,-62.08,-31.56,-48.12,3.562,-19.39,-23.54,-22.56,2.597,-14.39,0,0,0,0,0,0,0,0,0,0,0,0,0,0,0,0,
4,-80.31,-23.89,-134.6,-66.78,10.49,-58.55,-44.59,-38.73,-98.3,-27.79,23.28,-7.229,-9.796,-2.901,20.31,1.83,0,0,0,0,0,0,0,0,0,0,0,0,0,0,0,0,
5,-72.49,-21.59,-221.8,-48.44,-13.09,-18.94,-44.99,-82.88,-61.72,-18.25,9.456,-24.23,4.318,22.31,27.67,13.58,0,0,0,0,0,0,0,0,0,0,0,0,0,0,0,0,
6,-82.2,1.079,-201,-137.9,-19.5,-40.34,-2.485,-76.24,-2.25,-20.16,7.719,-21.64,21.51,33.88,28.2,24.67,0,0,0,0,0,0,0,0,0,0,0,0,0,0,0,0,
7,-91.9,-3.897,-92.16,-83.17,-1.015,-80.61,-38.43,-15.49,-4.283,-13.77,-7.105,-23.58,12.87,13.52,6.332,11.69,0,0,0,0,0,0,0,0,0,0,0,0,0,0,0,0,
8,-82.36,-15.02,-74.04,-13.92,9.643,-76.09,-29.03,-25.52,-37.54,7.075,-17,-29.13,9.148,6.435,2.345,13.94,0,0,0,0,0,0,0,0,0,0,0,0,0,0,0,0,
9,-61.1,6.945,-139.7,-124.3,-22.64,-57.47,55.9,-61.03,-49.32,9.803,-7.64,-18.43,26.01,19.49,18.85,35.37,0,0,0,0,0,0,0,0,0,0,0,0,0,0,0,0,
10,-70.49,13.4,-187.6,-172.4,-52.05,-37.17,26.66,-18.9,-23.76,-14.84,-1.709,-10.81,28.23,25.12,20.28,28.55,0,0,0,0,0,0,0,0,0,0,0,0,0,0,0,0,
11,-73.95,-0.6744,-171.1,-65.14,-17.71,-9.906,-48.48,10.05,-17.1,-16.68,14.74,3.296,29.84,40.54,25.46,19.3,0,0,0,0,0,0,0,0,0,0,0,0,0,0,0,0,
12,-25.06,10.23,-99.58,-32.01,18.81,-13.82,-27.68,-11.97,-46.39,2.892,30.72,30.95,45.18,59.21,41.62,33.78,0,0,0,0,0,0,0,0,0,0,0,0,0,0,0,0,
13,1.857,27.15,-82.61,-72.38,19.33,-27.28,-8.734,-13.44,-8.418,3.233,34.24,39.96,49.61,57.55,48.12,39.79,0,0,0,0,0,0,0,0,0,0,0,0,0,0,0,0,
14,-33.4,33.65,-123.7,-44.35,33.66,-29.82,-20.57,-46.11,62.81,15.66,47.92,28.94,42.97,49.99,44.64,31.21,0,0,0,0,0,0,0,0,0,0,0,0,0,0,0,0,
15,-57.3,31.06,-101.6,-18.84,47.91,-52.15,2.072,-78.13,43.49,44.82,56.34,28.43,36.39,42.37,43.02,27.64,0,0,0,0,0,0,0,0,0,0,0,0,0,0,0,0,
16,-40.4,11.88,-85.17,-59.09,35.26,-36.64,30.47,-17.15,5.289,30.91,59.67,45.11,28.66,24.09,48.39,18.33,0,0,0,0,0,0,0,0,0,0,0,0,0,0,0,0,
17,-13.29,4.922,-140,-77.35,4.804,31.51,40.12,20.97,-6.061,-5.962,70.39,45.6,11.92,-0.5467,32.99,-13.45,0,0,0,0,0,0,0,0,0,0,0,0,0,0,0,0,
18,-5.78,1.046,-140.1,-81.5,-36.71,28.57,23.43,-6.969,-25.32,-3.181,46.57,8.588,-11.92,-10.56,-1.786,-33.16,0,0,0,0,0,0,0,0,0,0,0,0,0,0,0,0,
19,-35.43,-24.78,-99.49,-122.7,-36.3,-43.12,-9.491,-29.74,8.172,26.15,8.575,-22.21,-16.21,5.886,-0.7048,-10.04,0,0,0,0,0,0,0,0,0,0,0,0,0,0,0,0,
20,-62.69,-23.28,-118.2,-118.3,1.74,-73.29,-17.98,-67.74,24.4,32,22.19,-15.29,-5.743,23.35,23.64,16.32,0,0,0,0,0,0,0,0,0,0,0,0,0,0,0,0,
21,-60.03,-3.623,-131.8,-52.04,12.62,-60.57,-32.04,-46.77,-33.34,15.85,52.37,-4.482,-4.589,29.1,33.99,29.42,0,0,0,0,0,0,0,0,0,0,0,0,0,0,0,0,
22,-57.78,-9.452,-86.91,-2.408,47.39,-28.1,-43.06,39.02,1.865,32.57,54.8,-5.269,4.415,42.21,50.69,52.38,0,0,0,0,0,0,0,0,0,0,0,0,0,0,0,0,
23,-56.85,1.205,-50.31,15.61,96.82,3.138,6.377,12.97,80.26,63.36,39.26,-14.72,5.408,40.87,48.64,50.56,0,0,0,0,0,0,0,0,0,0,0,0,0,0,0,0,
24,-74.49,7.963,-84.83,-43.65,36.02,-19.68,31.86,-68.08,21.62,34.12,-0.6707,-44.16,-32.82,1.248,4.781,8.127,0,0,0,0,0,0,0,0,0,0,0,0,0,0,0,0,
25,-114.4,-33.13,-145.2,-140.7,-52.29,-40.31,-9.252,-63.93,-65.68,-1.502,-30.94,-59.99,-55.35,-30.97,-15.56,-18.4,0,0,0,0,0,0,0,0,0,0,0,0,0,0,0,0,
26,-94.97,-48.91,-138.1,-109.6,-26.41,-8.802,-25.52,-39.92,-64.78,17.32,-10.67,-39.1,-34.22,-29.72,-1.896,-20.29,0,0,0,0,0,0,0,0,0,0,0,0,0,0,0,0,
27,-50.84,-24.71,-102,-34.05,16.46,-22.54,-27.6,-13.86,-35.49,22.17,7.463,-24.03,-21.5,-24.95,-5.92,-28.04,0,0,0,0,0,0,0,0,0,0,0,0,0,0,0,0,
28,-62.91,-14,-104.2,-55.64,-1.582,-69.76,-34.5,9.142,-28.2,11.54,8.613,-12.59,-15.5,-13.89,-8.658,-28.51,0,0,0,0,0,0,0,0,0,0,0,0,0,0,0,0,
29,-48.89,7.783,-87.33,-53.24,3.515,-49.96,1.119,-39.73,-23.79,30.29,32.96,14.71,3.426,5.803,10.46,-17.36,0,0,0,0,0,0,0,0,0,0,0,0,0,0,0,0,
30,-20.23,33.09,-62.58,-27.03,32.2,-24.6,26.93,-79.14,3.482,28.38,31.03,8.685,-2.295,-7.575,8.323,-23.08,0,0,0,0,0,0,0,0,0,0,0,0,0,0,0,0,
31,-67.12,14.33,-122,-77.76,6.333,-31.08,10.43,-32.35,-10.98,6.316,-19.09,-34.6,-33.96,-39.71,-23.15,-44.92,0,0,0,0,0,0,0,0,0,0,0,0,0,0,0,0,
32,-93.85,-16.71,-204.9,-97.22,-25.75,-8.954,7.774,8.478,-61.19,9.904,-41.56,-56.75,-46.07,-38.65,-41.68,-54.29,0,0,0,0,0,0,0,0,0,0,0,0,0,0,0,0,
33,-59.85,-19.97,-176,-66.63,18.43,2.889,13.9,-5.072,-22.14,7.675,-34.44,-51.35,-32.43,-24.88,-41.04,-46.91,0,0,0,0,0,0,0,0,0,0,0,0,0,0,0,0,
34,-43.99,0.4241,-59.36,-77.39,67.23,-20.43,12.3,-18.4,33.28,-2.941,-39.74,-41.04,-18.85,-29.33,-42.37,-42.7,0,0,0,0,0,0,0,0,0,0,0,0,0,0,0,0,
35,-27.58,23.29,7.294,-48.82,51.94,-22.62,9.879,-1.698,4.221,10.72,-23.21,-25.77,-12.31,-29.43,-31.39,-36.16,0,0,0,0,0,0,0,0,0,0,0,0,0,0,0,0,
36,-8.624,23.15,-2.478,48.83,48.74,-2.706,-2.096,13.08,3.91,16.71,25.79,0.9225,2.034,-14.22,0.0373,-10.9,0,0,0,0,0,0,0,0,0,0,0,0,0,0,0,0,
37,-10.22,19.53,-22.81,64.99,72.53,17.48,17.6,-6.196,44.38,-7.459,38.27,23.73,18.2,-5.921,10.7,1.378,0,0,0,0,0,0,0,0,0,0,0,0,0,0,0,0,
38,-0.2456,36.26,-75.29,-52.71,59.63,26.99,84.38,-25.53,46.97,-17.96,9.908,25.03,14.5,-11.56,0.3686,-14.25,0,0,0,0,0,0,0,0,0,0,0,0,0,0,0,0,
39,7.071,44.74,-150.7,-148.6,49.56,30.58,111.8,-19.96,30.08,8.876,24.75,37.23,7.576,-12.48,14.2,-9.71,0,0,0,0,0,0,0,0,0,0,0,0,0,0,0,0,
40,11.42,39.15,-121.4,-89.59,57.13,50.81,61.84,-27.58,-10.95,24.34,59.81,60.35,10.22,-10.42,24.85,8.37,0,0,0,0,0,0,0,0,0,0,0,0,0,0,0,0,
41,15.88,34.83,-20.15,29.11,19.57,40.97,2.968,-35.02,-30.66,3.217,21.39,32.4,2.237,-20.15,-0.4067,-3.201,0,0,0,0,0,0,0,0,0,0,0,0,0,0,0,0,
42,-44.01,22.15,-16.71,70.71,-22.78,-15.57,0.0268,-0.2528,32.29,0.4681,-29.74,-13.45,-2.137,-21.99,-12.55,-13.14,0,0,0,0,0,0,0,0,0,0,0,0,0,0,0,0,
43,-106,19,-65.98,36.71,-18.62,-31.51,48.38,20.69,56.83,22.27,-14.62,-6.388,10.62,-8.233,-2.753,-6.384,0,0,0,0,0,0,0,0,0,0,0,0,0,0,0,0,
44,-55.82,41.95,-61.58,-54.55,-3.909,-2.317,92.59,-9.443,-4.514,15.33,7.295,18.11,12.44,-0.7034,-8.276,-16.11,0,0,0,0,0,0,0,0,0,0,0,0,0,0,0,0,
45,9.86,52.21,-100.8,-132.2,16.96,6.671,83.29,-2.545,-9.911,2.286,12.66,21.4,1.827,0.8346,-15.03,-29.03,0,0,0,0,0,0,0,0,0,0,0,0,0,0,0,0,
46,-16.83,28.37,-162,-72.79,31.22,-12.14,17.16,48.62,32.37,15.99,24.52,14.32,-6.707,-5.207,-10.92,-26.83,0,0,0,0,0,0,0,0,0,0,0,0,0,0,0,0,
47,-56.74,3.442,-68.92,39.09,10.99,-33.49,-34.96,14.36,15.03,17.38,24.77,10.83,-13.97,-21.09,-4.595,-20.23,0,0,0,0,0,0,0,0,0,0,0,0,0,0,0,0,
48,-47.48,4.12,29.31,20.3,2.653,-14.66,-4.343,-72.19,0.7276,-3.517,23.42,19.63,-15.87,-27.31,0.4357,-18.54,0,0,0,0,0,0,0,0,0,0,0,0,0,0,0,0,
49,-40.31,11.82,-74.24,-64.2,11.52,25.59,36.17,-54.18,34.53,-12.56,29.23,21.64,-16.03,-24.6,-10.76,-29.66,0,0,0,0,0,0,0,0,0,0,0,0,0,0,0,0,
50,-37.92,12.43,-135.4,-45.78,8.563,23.64,24.07,3.882,25.36,-9.092,38.59,23.69,-8.023,-19.6,-15,-30.46,0,0,0,0,0,0,0,0,0,0,0,0,0,0,0,0,
51,5.04,31.98,-1.235,5.955,40.62,16.74,44.74,-9.124,-0.8304,-10.22,64.23,48.84,11.68,-12.43,8.347,-9.69,0,0,0,0,0,0,0,0,0,0,0,0,0,0,0,0,
52,42.41,51.81,37.14,-45.68,84.8,29.45,74.99,-19.7,40.33,-9.088,61.91,51.17,5.619,-19.94,5.971,-11.95,0,0,0,0,0,0,0,0,0,0,0,0,0,0,0,0,
53,17.88,21.8,-92.39,-96.79,57.19,15.97,12.05,-26.2,73.99,0.8409,12.68,18.26,-26.77,-40.42,-28.56,-39.85,0,0,0,0,0,0,0,0,0,0,0,0,0,0,0,0,
54,-29.57,-18.82,-137.5,-54.55,6.511,5.072,-37.21,-54.41,51.96,-4.952,-11.17,5.791,-35.86,-51.86,-33.42,-45.77,0,0,0,0,0,0,0,0,0,0,0,0,0,0,0,0,
55,-52.16,-16.22,-71.41,-12.67,17.21,19.35,10.32,-15,32.6,-32.58,-0.1609,14.22,-16.99,-45.67,-12.38,-25.96,0,0,0,0,0,0,0,0,0,0,0,0,0,0,0,0,
56,-40.01,1.127,-10.36,21.53,53.31,20.89,26.7,14.6,10.09,-40.09,-10.99,10.5,-7.373,-39.06,-14.76,-18.16,0,0,0,0,0,0,0,0,0,0,0,0,0,0,0,0,
57,-25.4,0.8646,29.95,36.36,33.56,16.12,-13.45,-50.36,-21.54,-26.19,-47.84,-11.76,-21.62,-55.45,-40.92,-35.04,0,0,0,0,0,0,0,0,0,0,0,0,0,0,0,0,
58,-38.01,-4.606,0.4587,-59.83,-19.69,24.02,-2.557,-51.3,-39.61,-33.62,-68.31,-30.73,-30.43,-71.2,-48.08,-41.11,0,0,0,0,0,0,0,0,0,0,0,0,0,0,0,0,
59,-24.78,10.01,-90.57,-116.6,-7.388,38.87,48.32,6.193,-61.19,-40.9,-46.89,-21.34,-21.33,-67.67,-28.34,-28.22,0,0,0,0,0,0,0,0,0,0,0,0,0,0,0,0,
60,11.19,29.53,-103.6,-13.07,46.54,35.06,59.93,-15.5,-34.51,-13.54,-16.38,-8.704,-28.47,-70.89,-17.72,-27.96,0,0,0,0,0,0,0,0,0,0,0,0,0,0,0,0,
61,-24.96,14.2,-27.47,47.39,47.82,-8.956,35.38,-17.73,64.78,4.281,-12.33,-11.32,-40.39,-67.05,-13.91,-26.07,0,0,0,0,0,0,0,0,0,0,0,0,0,0,0,0,
62,-85.55,-5.153,32.24,27.93,22.23,-31.58,17.53,42.34,86.63,-15.22,-16.12,-0.7538,-22.19,-44.43,-2.295,-10.17,0,0,0,0,0,0,0,0,0,0,0,0,0,0,0,0,
63,-53.49,16.59,45.41,53.6,13.8,10.51,14.09,49.36,8.872,-29.25,-13.34,19.22,-0.44,-32.68,0.7191,-5.033,0,0,0,0,0,0,0,0,0,0,0,0,0,0,0,0,
64,2.934,43.87,8.322,13.22,8.104,26.51,17.49,13.85,10.92,-15.63,-18.92,20.56,6.652,-22.16,3.012,-2.961,0,0,0,0,0,0,0,0,0,0,0,0,0,0,0,0,
65,-28.73,41.19,-67.8,-89,-6.129,-21.94,15.71,-24.77,51.26,3.626,-27.76,10.93,14.12,-1.655,11.55,7.553,0,0,0,0,0,0,0,0,0,0,0,0,0,0,0,0,
66,-51,31.76,-113.3,-50.45,-22.52,-22.46,6.772,-44.9,-28.83,11.46,7.53,33.04,33.16,23.61,25.31,31.04,0,0,0,0,0,0,0,0,0,0,0,0,0,0,0,0,
67,42.45,53.15,-86.93,38.07,14.18,42.64,33.48,6.37,-72.88,16.02,78.99,79.29,61.8,53.11,51.66,63.58,0,0,0,0,0,0,0,0,0,0,0,0,0,0,0,0,
68,77.93,82.86,-37.74,14.37,70.7,26.93,70.77,42.34,50.03,30.87,61.28,50.61,52.05,42.23,38.27,47.26,0,0,0,0,0,0,0,0,0,0,0,0,0,0,0,0,
69,-51.56,55.47,-39.64,-21.74,19.54,-63.53,41.17,-10.49,111.7,38.1,-40.97,-36,4.993,-1.22,-15.59,-8.093,0,0,0,0,0,0,0,0,0,0,0,0,0,0,0,0,
70,-112.4,16.29,-61.23,-38.33,-49.91,-61.58,21.49,-24.09,35.21,21.09,-46.13,-34.8,4.692,-2.184,-8.587,-10.9,0,0,0,0,0,0,0,0,0,0,0,0,0,0,0,0,
71,-33.44,41.94,-33.63,-75.73,-15.81,0.7409,53.43,28.42,7.138,8.823,17.71,19.4,35.65,17.23,28.39,15.84,0,0,0,0,0,0,0,0,0,0,0,0,0,0,0,0,
72,-6.045,61.04,-29.94,-51.26,-3.382,6.551,19.76,19.1,8.338,18.92,0.6954,18.43,32.37,19.8,9.631,9.323,0,0,0,0,0,0,0,0,0,0,0,0,0,0,0,0,
73,-19.29,36.8,-86.53,6.544,-37.84,4.291,-12.55,-37.41,-26.1,28.22,-20.95,16.43,26.83,34.77,-2.836,4.209,0,0,0,0,0,0,0,0,0,0,0,0,0,0,0,0,
74,-4.282,43.14,-78.27,11.35,-16.51,2.102,55.24,-48.13,-10.38,26.27,7.901,28.89,30.55,35.37,12.38,9.543,0,0,0,0,0,0,0,0,0,0,0,0,0,0,0,0,
75,-13.12,64.04,-24.92,-3.327,9.14,-8.985,81.47,-26.88,-10.52,26.39,0.6791,12.69,16.87,4.959,-0.7871,-2.924,0,0,0,0,0,0,0,0,0,0,0,0,0,0,0,0,
76,-0.8699,58.68,-63.05,-66.88,5.979,49.47,63.21,-14.11,-73.19,25.29,-16.24,10.85,8.367,-5.484,-16.82,-15.32,0,0,0,0,0,0,0,0,0,0,0,0,0,0,0,0,
77,25.66,52.02,-108.1,-141.1,3.254,80.32,93.47,-6.91,-33.56,0.9429,-15.28,10.31,2.578,-6.763,-24.33,-25.78,0,0,0,0,0,0,0,0,0,0,0,0,0,0,0,0,
78,-29.23,27.33,-49.89,-67.98,-27.45,-10.54,46.31,0.5734,50.9,-31.08,-39.19,-23.55,-16.97,-22.62,-44.67,-43.87,0,0,0,0,0,0,0,0,0,0,0,0,0,0,0,0,
79,-70,-15.08,-10.88,46.93,-43.14,-48.56,-55.17,7.483,-7.579,-34.43,-39.89,-28.26,-17.82,-20.08,-45.73,-42.53,0,0,0,0,0,0,0,0,0,0,0,0,0,0,0,0,
80,-27.23,-16.1,-41.32,54.18,-11.35,-1.238,-33.5,8.815,-62.48,-29.8,-13.46,-12.86,1.261,-10.56,-27.51,-24.23,0,0,0,0,0,0,0,0,0,0,0,0,0,0,0,0,
81,-30.06,8.323,-29.84,40.77,-5.03,-17.11,14.88,-14.34,9.597,-33.88,-17.37,-19.52,10.83,-19.07,-14.74,-15.01,0,0,0,0,0,0,0,0,0,0,0,0,0,0,0,0,
82,-69.48,5.856,-23.65,-19.41,-7.886,-34.02,-3.505,-56.69,28.45,-19.32,-2.079,3.865,16.96,-21.11,1.857,-8.573,0,0,0,0,0,0,0,0,0,0,0,0,0,0,0,0,
83,-34.87,-4.164,-85.61,-121.6,27.74,11.49,5.895,-59.33,-28.42,-9.434,33.25,34.72,21.01,-18.04,6.013,-5.986,0,0,0,0,0,0,0,0,0,0,0,0,0,0,0,0,
84,0.4391,-1.783,-91.34,-69.3,38.17,4.619,8.242,-16.68,-19.36,-25.98,16.3,12.01,12.28,-24.6,-9.806,-16.9,0,0,0,0,0,0,0,0,0,0,0,0,0,0,0,0,
85,-34.1,-5.61,-54.13,8.542,2.009,-64.47,-33.07,-17.55,-2.899,-25.98,-7.377,-7.49,-0.9044,-30.7,-19.36,-31.23,0,0,0,0,0,0,0,0,0,0,0,0,0,0,0,0,
86,-66.24,-12.58,-94.32,-92.65,-22.92,-104.2,-26.27,-64.81,-28.86,-15.67,-0.5887,-2.743,-9.261,-34.97,-26.69,-41.24,0,0,0,0,0,0,0,0,0,0,0,0,0,0,0,0,
87,-76.11,-8.118,-124.4,-130.7,-24.83,-88.68,-2.964,-59.93,-13.64,-24.28,-10.06,-12.72,-2.637,-28.77,-31.14,-39.16,0,0,0,0,0,0,0,0,0,0,0,0,0,0,0,0,
88,-78,0.5876,-79.88,-9.525,-18.11,-38.79,-20.85,-8.392,4.659,-19.85,-21.5,-11.36,13.03,-20.12,-20.69,-29.76,0,0,0,0,0,0,0,0,0,0,0,0,0,0,0,0,
89,-50.22,6.128,-50.77,12.65,7.748,-11.75,-16.05,10.26,-17.75,-1.96,-6.795,6.419,11.8,-32.9,-10.4,-28,0,0,0,0,0,0,0,0,0,0,0,0,0,0,0,0,
90,-30.88,11.07,-46.09,-47.35,51.91,-26.11,7.451,-8.68,-10.9,0.5832,14.46,14.69,7.332,-31.67,-1.686,-18.56,0,0,0,0,0,0,0,0,0,0,0,0,0,0,0,0,
91,-32.46,14.12,-37.67,-30.73,76.06,-32.2,-4.881,-29.11,9.454,5.123,24.62,20.6,15.81,-8.7,-1.596,-7.251,0,0,0,0,0,0,0,0,0,0,0,0,0,0,0,0,
92,-23.89,7.801,-61.1,-22.85,56.47,-48.14,-27.45,-23.51,6.756,10.15,1.026,3.128,7.174,-19.64,-29.07,-23.76,0,0,0,0,0,0,0,0,0,0,0,0,0,0,0,0,
93,-54.5,-10.36,-115,-74.33,24.62,-97.02,-25.32,-7.084,-3.079,-10.39,-39.5,-34.82,-15.69,-43.75,-48.56,-39.57,0,0,0,0,0,0,0,0,0,0,0,0,0,0,0,0,
94,-93.47,-22.36,-121.6,-103.2,10.66,-95.01,9.983,-34.45,-49.36,-33.99,-36.83,-31.67,-15.82,-35.24,-30.16,-26.1,0,0,0,0,0,0,0,0,0,0,0,0,0,0,0,0,
95,-45.61,-5.176,-59.28,-106.2,24.82,-14.73,56.97,-68.31,-68.51,-27.45,-8.062,-3.346,4.471,-17.69,-6.696,-7.955,0,0,0,0,0,0,0,0,0,0,0,0,0,0,0,0,
96,-3.988,21.94,-64.92,-101.3,68.25,42.56,52.06,-48.17,2.459,-3.034,-13.06,-7.573,17.67,-12.47,-7.661,-3.979,0,0,0,0,0,0,0,0,0,0,0,0,0,0,0,0,
97,-39.08,12.89,-160.4,-73.16,77.33,5.221,-12.72,-57.86,13.86,7.562,-36.91,-24.59,8.756,-21.01,-29.18,-13.06,0,0,0,0,0,0,0,0,0,0,0,0,0,0,0,0,
98,-58.05,-18.82,-145.9,-52.26,13.85,-77.11,-59.68,-121.6,-54.58,-2.754,-42.7,-33.18,-9.447,-34.18,-45.67,-23.58,0,0,0,0,0,0,0,0,0,0,0,0,0,0,0,0,
99,-68.2,-20.87,-49.6,-61.01,-21.11,-108.6,-44.45,-107,-37.12,-19,-42.03,-53.89,-24.43,-36.53,-49.31,-35.74,0,0,0,0,0,0,0,0,0,0,0,0,0,0,0,0,
100,-111,-13.28,-61.56,-77.8,17.58,-94.02,-10.96,-18.59,11.91,-36.92,-53.09,-76.64,-46.06,-40.8,-61.72,-59.07,0,0,0,0,0,0,0,0,0,0,0,0,0,0,0,0,
101,-125.7,-36.91,-95.01,-80.98,34.87,-96.88,-20.8,25.56,-19.04,-52.18,-61.76,-69.85,-53.85,-43.84,-62,-60.11,0,0,0,0,0,0,0,0,0,0,0,0,0,0,0,0,
102,-100.3,-52.95,-60.89,-43.69,22.98,-88.55,-73.33,22.59,-64.34,-48.62,-48.67,-37.02,-24.99,-24.45,-30.15,-26.28,0,0,0,0,0,0,0,0,0,0,0,0,0,0,0,0,
103,-68.04,-31.41,-63.83,-6.883,40.35,-52,-99.99,-15.15,-80.14,-30.62,-35.39,-16.38,2.438,-5.958,-21.69,-12.26,0,0,0,0,0,0,0,0,0,0,0,0,0,0,0,0,
104,-51.03,-6.305,-103.6,-66.05,45.87,-42.5,-57.18,-83,-65.14,-14.74,-53.14,-32.63,-3.06,-14.4,-54.56,-33.87,0,0,0,0,0,0,0,0,0,0,0,0,0,0,0,0,
105,-75.6,0.0981,-123,-150.4,9.097,-49.6,-5.113,-87.68,-29.45,-9.531,-70.04,-58.08,-29.22,-35.65,-73.58,-56.24,0,0,0,0,0,0,0,0,0,0,0,0,0,0,0,0,
106,-111.4,-17.86,-126.1,-121.4,-22.32,-60.6,-11.18,-24.19,-32.72,-20.82,-51.08,-57.9,-52.24,-47.67,-68.68,-61.6,0,0,0,0,0,0,0,0,0,0,0,0,0,0,0,0,
107,-113.3,-49.21,-113.6,-62.3,-23.34,-89.46,-42.68,-13.22,-51.27,-28.2,-36.32,-44.53,-45.96,-42.77,-63.32,-47.39,0,0,0,0,0,0,0,0,0,0,0,0,0,0,0,0,
108,-87.5,-45.49,-126.8,-84.83,-5.068,-71.67,-45.63,-56.73,-24.1,-14.75,-40.64,-33.5,-19.06,-30.77,-46.44,-27.64,0,0,0,0,0,0,0,0,0,0,0,0,0,0,0,0,
109,-49.66,-5.222,-144.1,-88.56,10.69,-15.78,-17.89,-51.48,-0.4799,-11.21,-17.51,-16.38,-9.708,-26.93,-18.59,-24.81,0,0,0,0,0,0,0,0,0,0,0,0,0,0,0,0,
110,-22.04,9.4,-73.7,-3.493,24.23,-11.47,13.55,4.434,-15.85,-16.92,12.7,-4.815,-20.46,-32.66,-17.12,-38.14,0,0,0,0,0,0,0,0,0,0,0,0,0,0,0,0,
111,-16.34,0.2075,9.252,50.71,55.81,-16.3,31.76,6.976,-16.55,1.214,-4.803,-15.99,-23.39,-32.06,-44.88,-48.68,0,0,0,0,0,0,0,0,0,0,0,0,0,0,0,0,
112,-20.3,21.87,3.283,-4.527,66.58,5.933,55.97,-59.8,9.407,6.471,-36.29,-32.04,-13.34,-25.18,-57.6,-44.44,0,0,0,0,0,0,0,0,0,0,0,0,0,0,0,0,
113,-40.36,36.21,-18.79,-73.4,29.33,-13.73,59.13,-52.27,8.139,-27.43,-34.24,-34.24,-17.11,-37.45,-43.47,-32.92,0,0,0,0,0,0,0,0,0,0,0,0,0,0,0,0,
114,-76.18,-19.95,-11.81,-62.87,3.251,-57.1,-10.14,40.65,-22.68,-43.3,-22.95,-31.82,-36.31,-53.95,-31.66,-24.76,0,0,0,0,0,0,0,0,0,0,0,0,0,0,0,0,
115,-93.69,-69.25,-31.24,-26.09,5.748,-53.88,-56.52,13.05,-26.44,-28.3,-25.64,-28.61,-35.03,-38.83,-31.46,-21.19,0,0,0,0,0,0,0,0,0,0,0,0,0,0,0,0,
116,-70.31,-40.46,-85.79,-41.02,11.18,-17.8,-8.003,-107.6,-3.169,-27.38,-20.39,-15.22,-23.15,-22.71,-28.01,-24.01,0,0,0,0,0,0,0,0,0,0,0,0,0,0,0,0,
117,-37.22,-25.65,-106.6,-55.68,15.8,-13.98,6.178,-77.61,-2.252,-42.75,1.634,-2.95,-33.94,-39.19,-17.07,-28.44,0,0,0,0,0,0,0,0,0,0,0,0,0,0,0,0,
118,-39.82,-64.77,-53.34,2.193,-10.56,-65.59,-51.63,39.66,-17,-52.89,13.09,-5.448,-35.72,-47.34,-13.04,-23.44,0,0,0,0,0,0,0,0,0,0,0,0,0,0,0,0,
119,-52.63,-59.06,-15.89,38.6,-43.85,-95.71,-64.24,34.88,-4.316,-44.52,0.744,-12.65,-10.26,-19.85,-21.73,-14.88,0,0,0,0,0,0,0,0,0,0,0,0,0,0,0,0,
120,-47.77,-6.719,-62.59,-40.09,-25.71,-67.92,-36.77,-33.3,15.92,-17.09,-18.4,-27.5,-7.136,-6.35,-27.43,-18.16,0,0,0,0,0,0,0,0,0,0,0,0,0,0,0,0,
121,-65.92,3.808,-92.6,-103.4,-15.81,-63.45,-35.04,-47.72,-0.8843,-1.515,-26.95,-46.16,-24.49,-28.97,-21.04,-21.94,0,0,0,0,0,0,0,0,0,0,0,0,0,0,0,0,
122,-89.31,-13.31,-56.64,-55.9,-41.57,-83.94,-37.35,-28.97,-9.391,-14.28,-16,-30.75,-7.214,-27.5,-4.446,-3.523,0,0,0,0,0,0,0,0,0,0,0,0,0,0,0,0,
123,-60.85,-3.201,-36.71,-17.79,-30.64,-60.15,-18.09,-16.22,22.57,-20.41,6.099,11.16,27.22,7.553,20.34,17.26,0,0,0,0,0,0,0,0,0,0,0,0,0,0,0,0,
124,-15.64,15.25,-53.68,-42.83,-8.103,-18.6,19.72,-34.21,17.79,8.216,20.21,35.51,31.32,15.99,36.9,14.36,0,0,0,0,0,0,0,0,0,0,0,0,0,0,0,0,
125,9.081,18.16,-78.4,-78.31,-16.81,-4.142,50.9,-66.91,-18.18,31.98,27.98,44.48,23.44,6.942,31.23,8.467,0,0,0,0,0,0,0,0,0,0,0,0,0,0,0,0,
126,28.64,20.06,-69.63,-86.13,-0.8766,4.242,28.74,-37.95,-2.284,5.894,35.97,50.26,31.02,16.33,21.88,16.18,0,0,0,0,0,0,0,0,0,0,0,0,0,0,0,0,
127,37.52,27.29,11.61,4.227,43.47,27.43,-28.2,46.23,28.07,-14.26,38.97,51.26,45.22,24.34,27.1,27.24,0,0,0,0,0,0,0,0,0,0,0,0,0,0,0,0,
128,31.25,35.95,48.26,92.07,45.87,34.58,-42.27,50.94,25.75,18.18,34.08,46.18,52.11,25.97,26.28,30.98,0,0,0,0,0,0,0,0,0,0,0,0,0,0,0,0,
129,17.66,44.25,-53.7,-14.95,-1.597,-6.349,5.725,-40.82,20.08,27.76,13.51,23.54,48.35,34.71,6.527,23.34,0,0,0,0,0,0,0,0,0,0,0,0,0,0,0,0,
130,2.008,48.03,-112.1,-131.8,-19.96,-40.29,67.07,-61.23,16.15,5.638,-9.463,7.978,49.66,39.98,1.164,23.01,0,0,0,0,0,0,0,0,0,0,0,0,0,0,0,0,
131,10.04,48.17,-35.99,-57.98,27.54,-8.701,86.67,-4.776,22.45,26.09,5.361,28.86,55.09,31.39,21.36,34.09,0,0,0,0,0,0,0,0,0,0,0,0,0,0,0,0,
132,34.32,32.11,0.6891,16.6,50.79,32.64,37.5,-6.766,44.85,34.25,38.24,42.74,33,9.415,28.67,26.35,0,0,0,0,0,0,0,0,0,0,0,0,0,0,0,0,
133,33.03,-2.359,-6.855,35.79,11.76,29.32,-33.91,-2.467,47.63,-12.87,33.73,28.56,1.615,-9.572,13.96,8.807,0,0,0,0,0,0,0,0,0,0,0,0,0,0,0,0,
134,33.99,-2.413,37.62,83.62,9.489,19.78,-39.04,45.04,26.16,-18.02,21.77,28.86,4.949,-4.437,12.15,12.44,0,0,0,0,0,0,0,0,0,0,0,0,0,0,0,0,
135,59.38,36.49,23.06,40.97,41.43,23.96,10.06,23.63,7.85,19.16,44.77,37.51,16.87,12.12,30.31,23.74,0,0,0,0,0,0,0,0,0,0,0,0,0,0,0,0,
136,37.33,37.9,-54.7,-44.74,16.35,7.27,18.63,-5.643,9.322,13.16,48.03,18.65,4.893,12.16,28.27,21.73,0,0,0,0,0,0,0,0,0,0,0,0,0,0,0,0,
137,-22.5,12.24,-55.21,-64.23,-19.89,-18.61,7.151,-14.66,16.73,-3.193,3.383,-7.754,-0.3457,3.949,-3.594,14.21,0,0,0,0,0,0,0,0,0,0,0,0,0,0,0,0,
138,-17.25,27.44,-50.12,-139.9,-13.73,-7.059,50.93,-97.39,-3.465,8.397,-18.61,-12,16.73,10.79,-14.28,14.82,0,0,0,0,0,0,0,0,0,0,0,0,0,0,0,0,
139,20.39,43.9,-75.32,-134.2,-3.21,22.62,62.39,-91.3,-11.69,-2.076,2.925,-10.5,21.3,13.57,2.748,16.11,0,0,0,0,0,0,0,0,0,0,0,0,0,0,0,0,
140,9.372,13.46,-1.639,94.17,32.34,21.63,-24.78,69.1,33.74,-27.54,14.81,-14.65,6.64,-6.187,4.19,8.412,0,0,0,0,0,0,0,0,0,0,0,0,0,0,0,0,
141,-4.603,-11.89,60.96,163.9,75.98,-3.358,-63.76,92.27,51.24,-14.11,12.2,-3.349,3.475,-13.83,0.9494,5.176,0,0,0,0,0,0,0,0,0,0,0,0,0,0,0,0,
142,5.831,-0.9291,-22.31,-21.7,41.41,-13.49,-5.049,-24.26,16.18,7.517,17.17,12.09,10.03,3.526,8.596,7.118,0,0,0,0,0,0,0,0,0,0,0,0,0,0,0,0,
143,0.1947,13.35,-57.1,-78.52,-0.5044,-3.544,15.65,-34.02,13.27,1.988,22.92,4.673,12.08,13.46,8.251,4.879,0,0,0,0,0,0,0,0,0,0,0,0,0,0,0,0,
144,-12.03,22.24,20.57,-32.56,20.41,-19.58,1.562,-12.82,16.57,6.292,26.01,-3.371,19.72,9.731,11.81,8.625,0,0,0,0,0,0,0,0,0,0,0,0,0,0,0,0,
145,-10.18,35.04,4.018,-77.47,20.75,-44.59,30.36,-45.4,-17.53,11.88,21.17,-1.687,26.62,7.461,21.3,13.89,0,0,0,0,0,0,0,0,0,0,0,0,0,0,0,0,
146,-2.19,36.12,-73.43,-51.1,26.2,11.01,47.27,2.487,-9.052,-14.37,6.524,-15.17,17.53,5.824,14.59,7.854,0,0,0,0,0,0,0,0,0,0,0,0,0,0,0,0,
147,-0.4803,14.58,-30.12,81.94,79.54,71.25,14.42,64.59,39.78,-25.05,-1.108,-38.09,-5.792,-8.617,0.4353,-6.719,0,0,0,0,0,0,0,0,0,0,0,0,0,0,0,0,
148,-18.91,-15.45,61.92,122.2,76.15,9.682,-18.69,8.267,37.54,-8.595,-16.2,-59.84,-38.8,-37.4,-21.93,-33.4,0,0,0,0,0,0,0,0,0,0,0,0,0,0,0,0,
149,-32.7,-31.79,66.13,53.98,42.53,-40.62,-13.68,-29.97,7,-16.82,-51.94,-84.05,-57.93,-58.14,-54.08,-60.56,0,0,0,0,0,0,0,0,0,0,0,0,0,0,0,0,
150,-24.02,-23.3,6.68,-11.42,61.43,14.31,20.05,24.11,3.737,-28.02,-60.93,-83.06,-40.2,-54.26,-52.51,-55.27,0,0,0,0,0,0,0,0,0,0,0,0,0,0,0,0,
151,-20.63,-1.722,-37.61,-41.2,55.38,31.1,34.52,27.05,7.271,-11.74,-19.86,-35.25,-5.812,-29.67,-6.278,-18.34,0,0,0,0,0,0,0,0,0,0,0,0,0,0,0,0,
152,1.364,18.64,-19.29,-64.32,29.89,8.372,41.69,-42.01,0.4594,-1.498,22.9,13.82,12.97,-8.345,29.21,9.512,0,0,0,0,0,0,0,0,0,0,0,0,0,0,0,0,
153,44.53,27.5,22.05,-71.74,54.77,32.78,67.45,-49.47,-4.209,-3.793,24.44,6.543,4.845,-15,19.9,4.739,0,0,0,0,0,0,0,0,0,0,0,0,0,0,0,0,
154,23.92,6.365,16.87,15.54,68.67,26.37,32.03,20.58,6.514,-4.884,-3.037,-30.8,-10.85,-23.07,-1.059,-6.662,0,0,0,0,0,0,0,0,0,0,0,0,0,0,0,0,
155,-27.48,-21.21,2.203,132.7,57.84,-5.285,-30.74,56.18,22.66,-12.92,-13.41,-31.31,-1.989,-4.412,7.278,1.449,0,0,0,0,0,0,0,0,0,0,0,0,0,0,0,0,
156,-8.972,-9.887,17.01,103.5,67.67,16.11,4.546,49.71,14.52,-21.53,0.1368,-10.6,10.39,2.221,18.54,5.135,0,0,0,0,0,0,0,0,0,0,0,0,0,0,0,0,
157,16.95,-4.016,17.14,11.83,63.67,21.41,34.67,46.92,-2.07,-19.81,-4.24,-20.32,-15.54,-29.18,-5.394,-19.57,0,0,0,0,0,0,0,0,0,0,0,0,0,0,0,0,
158,-1.651,-35.89,-12.2,-9.319,47.7,19.4,10.79,-30.21,-0.2318,-10.43,-14.9,-30.92,-37.77,-55.24,-19.71,-35.94,0,0,0,0,0,0,0,0,0,0,0,0,0,0,0,0,
159,20.26,-15.26,-39.55,-66.84,55.36,85.88,83.61,-117,-13.99,-2.755,8.53,-6.67,-4.758,-39.64,7.455,-9.799,0,0,0,0,0,0,0,0,0,0,0,0,0,0,0,0,
160,61.07,53.27,-21.48,-96.45,57.06,95.2,136.6,-14.78,-24.33,-10.84,17.61,0.2496,22.8,-19.42,12.29,9.418,0,0,0,0,0,0,0,0,0,0,0,0,0,0,0,0,
161,11,40.71,25.9,58.78,45.69,-9.2,10.01,133.9,28.96,-18.48,-29.78,-38.96,-2.783,-30.77,-18.93,-12.92,0,0,0,0,0,0,0,0,0,0,0,0,0,0,0,0,
162,-58.59,-16.71,13.92,167.3,41.32,-49.18,-82.25,110.3,47.85,-2.506,-55.72,-55.16,-13.06,-29.14,-21.47,-19.84,0,0,0,0,0,0,0,0,0,0,0,0,0,0,0,0,
163,-24.17,0.6474,-0.407,61.85,30.33,0.0965,-13.05,35.73,-24.31,6.603,-19.01,-26.77,11.42,-0.6124,-8.265,-2.451,0,0,0,0,0,0,0,0,0,0,0,0,0,0,0,0,
164,25.53,39.04,78,-19.49,26.69,1.96,57.97,26.16,-23.79,-10.09,0.8318,-20.11,8.454,-1.871,-17.15,-7.152,0,0,0,0,0,0,0,0,0,0,0,0,0,0,0,0,
165,6.517,19.75,100.7,26.21,48.27,-4.375,49.45,40.17,24.66,-17.93,-6.573,-26.04,-4.768,-21.93,-7.853,-9.031,0,0,0,0,0,0,0,0,0,0,0,0,0,0,0,0,
166,15.26,-4.654,6.456,52.97,63.46,50.13,10.15,27.59,-29.69,-10.54,24.93,1.024,11.18,-18.09,24.4,5.556,0,0,0,0,0,0,0,0,0,0,0,0,0,0,0,0,
167,38.17,12.99,-20.86,11.28,67.27,58.34,15.01,-33.03,-28.02,-7.515,51.13,8.555,20.23,-8.051,33.17,3.319,0,0,0,0,0,0,0,0,0,0,0,0,0,0,0,0,
168,-15.8,33.82,19.36,-31.65,65.89,1.362,59.33,-38.87,73.97,-4.041,23.29,-19.62,10.19,-5.727,31.66,4.124,0,0,0,0,0,0,0,0,0,0,0,0,0,0,0,0,
169,-45.02,22.32,-1.506,-13.55,34.29,6.364,40.95,20.64,61.29,1.052,9.573,-20.21,6.722,-9.02,41.13,19.32,0,0,0,0,0,0,0,0,0,0,0,0,0,0,0,0,
170,-2.717,6.596,-43.61,14.52,12.53,46.45,-5.856,-7.255,7.838,0.4732,17.92,-9.039,3.431,-20.15,35.63,15.08,0,0,0,0,0,0,0,0,0,0,0,0,0,0,0,0,
171,11.19,10.39,-41.79,-18.61,51.03,27.13,16.44,-27.48,7.612,-7.138,4.663,-13.44,-1.379,-22.47,17.12,1.492,0,0,0,0,0,0,0,0,0,0,0,0,0,0,0,0,
172,23.87,10.44,8.931,1.631,77.83,6.351,33.01,69.38,-42.18,-16.67,5.859,-1.792,5.732,-11.49,14.92,8.027,0,0,0,0,0,0,0,0,0,0,0,0,0,0,0,0,
173,42.07,2.158,74.9,103.6,38.66,15.49,-8.812,84.89,-29.52,-10.62,14.1,-3.407,5.401,-8.141,14.72,18.33,0,0,0,0,0,0,0,0,0,0,0,0,0,0,0,0,
174,-16.57,-7.821,64.6,71.09,7.398,0.9083,-24.94,-1.341,68.26,-0.0265,-13.6,-38.8,-14.23,-14.73,-4.528,9.203,0,0,0,0,0,0,0,0,0,0,0,0,0,0,0,0,
175,-60.51,-24.38,-0.8656,-75.26,21.27,-11.61,7.521,-21.47,41.22,-7.891,-22.35,-35.59,-11.74,-9.566,-6.978,4.852,0,0,0,0,0,0,0,0,0,0,0,0,0,0,0,0,
176,-9.432,-16.53,-11.44,-86.85,24.98,3.171,20.75,-11.74,-25.53,-3.257,13.19,9.356,21.72,6.915,24.56,28.9,0,0,0,0,0,0,0,0,0,0,0,0,0,0,0,0,
177,15,10.49,-4.045,-9.941,12.67,1.615,-8.604,8.034,1.723,19.55,25.42,15.89,27.72,7.048,35.78,43.88,0,0,0,0,0,0,0,0,0,0,0,0,0,0,0,0,
178,-19.01,-2.994,-32.69,3.34,16.37,-16.45,-29.45,54.2,-7.665,9.816,-0.6494,-11.87,5.229,-3.582,16.89,32.81,0,0,0,0,0,0,0,0,0,0,0,0,0,0,0,0,
179,-21.81,-27.29,-34.8,24.18,6.026,-26.95,-24.59,6.728,-43.45,-15.36,-18.48,-12.24,8.431,2.536,20.13,36.37,0,0,0,0,0,0,0,0,0,0,0,0,0,0,0,0,
180,-9.325,-4.727,-25.16,36.94,-25.71,-25.3,-18.32,-73.13,-0.2886,-1.666,-14.92,9.723,20.81,10.25,33.14,46.56,0,0,0,0,0,0,0,0,0,0,0,0,0,0,0,0,
181,-12.86,20.69,-46.07,-54.64,-25.82,6.939,11.59,-14.69,26.9,27.37,-16,10.83,7.741,-3.652,14.23,27.13,0,0,0,0,0,0,0,0,0,0,0,0,0,0,0,0,
182,2.192,13.56,-7.087,-92.72,-7.417,37.78,45.71,62.72,-17.36,26.77,-24.66,-3.697,-3.564,-19.61,-10.08,4.952,0,0,0,0,0,0,0,0,0,0,0,0,0,0,0,0,
183,12.94,7.923,81.65,18.89,-6.133,10.57,30.75,27.58,-41.13,6.381,-13.86,-1.029,4.341,-14.82,-7.277,9.307,0,0,0,0,0,0,0,0,0,0,0,0,0,0,0,0,
184,4.914,15.7,71.81,64.8,4.511,-13.39,16.67,0.6558,-42.47,-6.421,5.311,14.31,11.47,-7.09,5.221,16.86,0,0,0,0,0,0,0,0,0,0,0,0,0,0,0,0,
185,24.6,10.46,8.939,-9.443,8.756,16.82,13.89,32.81,-59.76,-8.187,0.4869,14.67,4.634,-16.41,7.13,10.16,0,0,0,0,0,0,0,0,0,0,0,0,0,0,0,0,
186,24.55,-12.71,5.163,-17.86,-20.03,22.7,-30.05,21.01,-36.38,-5.984,-14.5,-1.759,-8.077,-22.61,3.672,1.939,0,0,0,0,0,0,0,0,0,0,0,0,0,0,0,0,
187,-24.41,-14.74,-13.83,17.91,-16.65,11.71,-40.93,-13.23,4.955,-4.753,-13.43,-8.818,-5.823,-15.86,7.234,3.242,0,0,0,0,0,0,0,0,0,0,0,0,0,0,0,0,
188,-14.95,13.45,-50.95,-14.74,29.1,40.32,15.54,19.8,-6.041,-6.231,7.788,8.902,13.94,-7.229,32.61,28.31,0,0,0,0,0,0,0,0,0,0,0,0,0,0,0,0,
189,25.71,23.89,-13.08,-25.75,31.04,23.31,36.89,37.14,21.38,4.617,53.31,35.69,37.68,21.06,93.43,88.43,0,0,0,0,0,0,0,0,0,0,0,0,0,0,0,0,
190,-6.215,16.89,37.78,9.792,8.348,-30.84,21.49,-24.22,98.13,30.2,109.6,57.75,61.25,61.14,151.1,140.7,0,0,0,0,0,0,0,0,0,0,0,0,0,0,0,0,
191,-5.831,26.36,42.09,-25.43,35.57,1.611,27.81,-42.5,73.1,36.08,129.1,71.52,71.82,71.36,138.4,132.3,0,0,0,0,0,0,0,0,0,0,0,0,0,0,0,0,
192,70.69,35.41,32.05,-77.96,49.81,51.27,26.63,-13.57,10.07,19.48,89.67,56.78,59.72,63.27,81.34,91.67,0,0,0,0,0,0,0,0,0,0,0,0,0,0,0,0,
193,65.39,29.29,-0.9428,-38.23,-6.635,23.44,-18.53,-20.51,41.48,12.25,36.83,14.85,37.39,51.69,52.66,64.06,0,0,0,0,0,0,0,0,0,0,0,0,0,0,0,0,
194,-10.5,8.943,-21.79,31.64,-42.7,-10.54,-86.51,6.602,41.3,6.315,19.75,-6.439,12.53,19.63,42.4,39.05,0,0,0,0,0,0,0,0,0,0,0,0,0,0,0,0,
195,-7.597,-11.3,11.92,62.68,-11.58,-13.46,-81.87,37.8,-32.11,-1.428,28.89,11.63,1.728,-0.0766,28.53,17.66,0,0,0,0,0,0,0,0,0,0,0,0,0,0,0,0,
196,36.25,13.27,28.44,41.53,17.96,1.019,26.28,-19.42,-13.45,16.38,30.9,29.44,15.89,17.51,28.77,18.23,0,0,0,0,0,0,0,0,0,0,0,0,0,0,0,0,
197,20.43,46.57,-6.91,-20.2,14.5,25.5,75.08,-38.59,44.48,32.57,23.05,30.86,23.77,26.95,33.41,22.85,0,0,0,0,0,0,0,0,0,0,0,0,0,0,0,0,
198,1.24,24.18,-35.4,-34.98,-9.148,15.17,11.62,18.18,-4.965,16.35,29.27,39.01,20.22,20.53,34.7,25.54,0,0,0,0,0,0,0,0,0,0,0,0,0,0,0,0,
199,18.64,1.638,-32.06,-0.9942,-35.6,-22.03,-12.27,28.51,-39.63,10.08,36.81,32.38,23.78,26.02,33.64,35.47,0,0,0,0,0,0,0,0,0,0,0,0,0,0,0,0,
200,-13.27,4.557,-22.07,-17.85,-36.7,-46.04,-8.109,7.476,5.987,19.12,2.729,-16.63,11.12,21.46,12.82,27.02,0,0,0,0,0,0,0,0,0,0,0,0,0,0,0,0,
201,-74.08,-12.98,-35.48,-67.15,-35.28,-70.58,-58.15,-26.57,-8.868,2.885,-40.96,-51.57,-11.33,3.608,-0.3057,5.319,0,0,0,0,0,0,0,0,0,0,0,0,0,0,0,0,
202,-60.38,-22,-77.93,-86.96,-58,-73.97,-68.51,-77.36,-37.35,-12.98,-36.89,-41.01,-12.22,0.7552,11.52,4.662,0,0,0,0,0,0,0,0,0,0,0,0,0,0,0,0,
203,-30.8,-12.38,-101.1,-66.42,-55.4,-38.97,-25.98,-55.98,9.248,-13.3,-21.94,-36.5,-16.02,-2.818,-1.089,2.61,0,0,0,0,0,0,0,0,0,0,0,0,0,0,0,0,
204,-41.3,-18.44,-52.53,-16.91,-25.18,-28.56,-31.72,7.974,0.9442,-29.51,-26.01,-34.63,-19.17,-4.809,-20.67,-5.739,0,0,0,0,0,0,0,0,0,0,0,0,0,0,0,0,
205,-21.54,-12.87,-7.156,-21.29,-27.96,-45.65,-52.69,20.86,-50.5,-26.79,-13.78,-5.295,12.3,20.2,3.331,16.94,0,0,0,0,0,0,0,0,0,0,0,0,0,0,0,0,
206,1.981,7.203,-55.35,-67.29,-33.67,-34.78,-36.92,10.44,-12.09,9.976,3.797,12.32,38.45,36.23,27.68,41.42,0,0,0,0,0,0,0,0,0,0,0,0,0,0,0,0,
207,-16.04,10.12,-71.54,-31.31,-6.976,-20.78,-25.32,-20.29,20.85,7.664,0.081,3.239,24.13,23.19,22.25,27.87,0,0,0,0,0,0,0,0,0,0,0,0,0,0,0,0,
208,-17.74,7.491,-3.646,0.0373,-10.72,-34.3,-23.39,-65.45,-7.362,-26.14,-12.58,-14.01,-1.274,10.29,12,2.83,0,0,0,0,0,0,0,0,0,0,0,0,0,0,0,0,
209,-24.93,-2.601,-43.31,-78.16,-42.11,-43.94,-14.37,-38.36,4.902,-21.69,-35.68,-41.64,-18.71,-5.661,-1.165,-8.614,0,0,0,0,0,0,0,0,0,0,0,0,0,0,0,0,
210,-51.59,-20.09,-113.2,-94.81,-24.42,-39.43,-12.81,17.07,-0.5588,-3.709,-46.86,-41.95,-23.21,-23.46,-4.819,-7.318,0,0,0,0,0,0,0,0,0,0,0,0,0,0,0,0,
211,-10.49,-10,2.214,6.333,23.14,-19.46,-9.089,-12.69,-54.82,-8.053,-17.65,-1.643,-16.43,-28.04,9.203,-6.374,0,0,0,0,0,0,0,0,0,0,0,0,0,0,0,0,
212,42.41,15.72,87.09,32.91,34.05,24.61,5.216,-39.99,-14.85,-0.2125,0.7097,14.02,-14.42,-31.69,15.76,-14.35,0,0,0,0,0,0,0,0,0,0,0,0,0,0,0,0,
213,18.88,17.75,-14.05,1.019,9.616,55.71,2.311,32.25,58.61,24.91,-0.5676,18.12,-6.286,-25.29,24.35,-9.427,0,0,0,0,0,0,0,0,0,0,0,0,0,0,0,0,
214,23.67,13.21,-39.77,65.41,-2.709,56.05,-7.551,62.51,26.74,24.22,40.3,62.26,20.18,-1.561,45.38,12.31,0,0,0,0,0,0,0,0,0,0,0,0,0,0,0,0,
215,77.28,30.57,50.47,93.81,15.68,42.42,14.05,-16.45,6.335,-0.8409,75.56,77,33.05,8.084,47.29,23.04,0,0,0,0,0,0,0,0,0,0,0,0,0,0,0,0,
216,55.89,35.3,49.28,-37.17,18.82,-0.441,34.48,-33.62,42.61,-8.632,41.92,21.26,9.349,0.332,25.78,16.93,0,0,0,0,0,0,0,0,0,0,0,0,0,0,0,0,
217,-6.765,-9.536,-14.18,-109.4,-16.61,-43.52,2.324,13.8,20.99,-4.308,6.555,-23.31,-26.22,-7.357,2.436,3.685,0,0,0,0,0,0,0,0,0,0,0,0,0,0,0,0,
218,-25.56,-54.71,-52.44,-39.02,-47.58,-39.77,-46.29,-23.35,-13.8,-17.93,4.113,-23.71,-40.69,-14.95,-10.84,-6.002,0,0,0,0,0,0,0,0,0,0,0,0,0,0,0,0,
219,-34.08,-48.13,-94.76,-1.247,-48.46,-27.63,-51.59,-49.03,-12.14,-24.85,-3.259,-9.545,-28.21,-14.16,-4.416,-1.219,0,0,0,0,0,0,0,0,0,0,0,0,0,0,0,0,
220,-25.88,-17.55,-109.3,2.685,-25.77,-13.84,-22.05,21.18,-22.74,1.522,-4.772,15.69,-3.104,0.2911,13.21,12.53,0,0,0,0,0,0,0,0,0,0,0,0,0,0,0,0,
221,11.21,12.53,-76.51,0.3697,-9.095,22.14,10.42,25.9,-12,30.1,10.28,39.26,18.15,15.23,29.34,26.55,0,0,0,0,0,0,0,0,0,0,0,0,0,0,0,0,
222,22.05,39.73,-42.95,-39.51,-12.07,28.98,39.33,-30.26,1.945,37.48,30.14,54.36,27.48,24.3,47.04,39.19,0,0,0,0,0,0,0,0,0,0,0,0,0,0,0,0,
223,33.09,40.97,4.82,10.93,11.66,16.41,42.59,-6.12,-21.61,33.46,55.37,70.26,27.8,32.35,56.96,45.32,0,0,0,0,0,0,0,0,0,0,0,0,0,0,0,0,
224,55.65,21.27,39.37,76.89,31.74,28.02,6.191,15.22,12.1,23.25,53.92,51.68,15.72,34.68,45.75,35.92,0,0,0,0,0,0,0,0,0,0,0,0,0,0,0,0,
225,11.83,4.621,-17.33,-45.85,-17.56,11.01,-9.466,-27.85,63.35,8.875,18.38,-2.197,-8.788,22.41,23.44,15.82,0,0,0,0,0,0,0,0,0,0,0,0,0,0,0,0,
226,-42.8,-4.783,-81.24,-131.3,-45.56,-31.75,20.18,-38.92,21.07,-6.805,7.341,-17.86,-13.49,12.23,12.27,15.08,0,0,0,0,0,0,0,0,0,0,0,0,0,0,0,0,
227,-24.43,6.644,-59.12,-30.47,-9.643,-22.75,19.65,-41.27,1.699,-15.26,18.52,5.469,9.572,18.37,20.06,35.99,0,0,0,0,0,0,0,0,0,0,0,0,0,0,0,0,
228,-2.128,24.97,-59.92,-6.006,-13.37,17.3,-12.83,-66.35,31.35,-10.75,2.859,14.13,15.5,15.27,27.57,37.72,0,0,0,0,0,0,0,0,0,0,0,0,0,0,0,0,
229,5.762,11.67,-107.5,-39.64,-37.83,26.89,-9.477,-26.39,-15.53,-13.37,-11.77,22.88,1.915,-3.377,28.56,19.67,0,0,0,0,0,0,0,0,0,0,0,0,0,0,0,0,
230,25.12,-8.839,-54.96,36.88,-19.18,5.08,-5.797,40.14,-44.88,-19.13,5.613,37.71,3.615,-5.07,38.8,12.73,0,0,0,0,0,0,0,0,0,0,0,0,0,0,0,0,
231,-4.268,-9.482,28.08,37.16,-21.09,-24.4,-38.06,21.85,0.75,-5.189,17.39,27.47,5.335,4.105,42.89,13.08,0,0,0,0,0,0,0,0,0,0,0,0,0,0,0,0,
232,-50.34,-13.19,-37.99,-84.4,-52.84,-39.72,-37.46,-31.27,-23.83,-5.183,18.54,14.53,-7.941,-2.039,34.05,14.36,0,0,0,0,0,0,0,0,0,0,0,0,0,0,0,0,
233,-28.18,-11.79,-116.1,-77.11,-44.19,-46.93,-5.933,-37.89,-63.34,-19.66,38.94,17.5,-11.67,-2.595,39.27,19.49,0,0,0,0,0,0,0,0,0,0,0,0,0,0,0,0,
234,-6.057,1.599,-46.85,18.2,-18.56,-72.19,-20.24,-35.96,2.834,9.168,38.86,1.386,-5.332,8.91,31.77,14.45,0,0,0,0,0,0,0,0,0,0,0,0,0,0,0,0,
235,-37.29,2.634,6.882,-5.224,-23.8,-79.76,-27.96,-46.4,52.86,43.85,-6.723,-21.99,3.768,5.272,-0.9978,6.959,0,0,0,0,0,0,0,0,0,0,0,0,0,0,0,0,
236,-28.7,16,-31.64,-45.87,-14.01,-14.56,35.44,-8.519,13.54,32.29,-9.377,5.165,29.57,8.023,12.61,21.29,0,0,0,0,0,0,0,0,0,0,0,0,0,0,0,0,
237,51.86,54.17,-9.78,18.66,28.53,61.79,67.59,47.33,-2.317,23.37,52.59,57.81,49.14,25.82,53.6,35.51,0,0,0,0,0,0,0,0,0,0,0,0,0,0,0,0,
238,95.9,62.81,51.14,56.31,34.32,69.93,28.82,39.26,65.3,26.5,70.45,56.36,31.16,16.92,39.74,23.5,0,0,0,0,0,0,0,0,0,0,0,0,0,0,0,0,
239,56.41,38.66,11.36,17.92,-2.403,66.85,20.88,26.8,111.7,17.63,41.64,25.74,11.78,12.36,19.84,10.8,0,0,0,0,0,0,0,0,0,0,0,0,0,0,0,0,
240,35.29,34.25,-80.77,-12.25,-22.01,91.29,42.23,16.46,41.96,27.67,43.72,32.58,22.34,42.88,34.83,10.74,0,0,0,0,0,0,0,0,0,0,0,0,0,0,0,0,
241,64.03,51.03,-92.97,-40.73,-11.77,65.61,45.16,-68.41,1.408,41.88,40.51,32.97,28.89,41.65,32.61,8.849,0,0,0,0,0,0,0,0,0,0,0,0,0,0,0,0,
242,34.18,44.71,-15.59,-32.85,1.854,-15.27,40.37,-81.75,79.74,24.26,10.9,2.173,13.68,4.779,27.67,11.73,0,0,0,0,0,0,0,0,0,0,0,0,0,0,0,0,
243,-20.84,7.885,37.69,21.94,-14.43,-43.83,19.5,26.83,67.51,8.647,8.199,5.529,-0.8388,-7.523,32.94,10.27,0,0,0,0,0,0,0,0,0,0,0,0,0,0,0,0,
244,27.75,-2.626,-9.156,-31.16,-31.13,22.93,30.61,19.93,-21.92,5.419,8.116,20.01,-12.2,-7.564,4.377,-16.59,0,0,0,0,0,0,0,0,0,0,0,0,0,0,0,0,
245,67.89,18.21,-61.25,-109,2.996,77.82,59.55,-48.61,31.58,-10.47,-20.94,-21.34,-36.84,-20.68,-28.32,-48.4,0,0,0,0,0,0,0,0,0,0,0,0,0,0,0,0,
246,-25.06,-11.89,-15.22,12.41,10.11,17.16,-23.86,8.386,80.24,-21.93,-36.69,-68,-64.31,-36.63,-31.36,-62.88,0,0,0,0,0,0,0,0,0,0,0,0,0,0,0,0,
247,-81.07,-62.94,36.83,111.8,-37.59,-54.43,-91.74,36.55,-11.86,-20.59,-18.17,-53.82,-58.8,-39.18,-27.12,-55.08,0,0,0,0,0,0,0,0,0,0,0,0,0,0,0,0,
248,-9.845,-36.52,-4.57,-6.181,-21.12,-19.38,-3.408,-8.563,-40.25,-27.75,6.067,-16.03,-29.4,-26.63,-16.74,-33.86,0,0,0,0,0,0,0,0,0,0,0,0,0,0,0,0,
249,15.05,-7.239,-37.36,-49.14,15.04,1.967,17.69,-7.311,10.4,-36.21,-12.19,-21.23,-27,-29.68,-20.32,-34.71,0,0,0,0,0,0,0,0,0,0,0,0,0,0,0,0,
250,-46.18,-42.48,-1.905,22.88,-46.84,-51,-49.78,-41.25,-6.664,-30.99,-57.06,-49.56,-37.57,-38.76,-42.22,-46.54,0,0,0,0,0,0,0,0,0,0,0,0,0,0,0,0,
251,-58,-47.22,-28.68,-53.29,-98.29,-41.99,-5.258,-74.24,-39.09,-23.38,-47.1,-39.4,-24.28,-14.47,-34.09,-29.93,0,0,0,0,0,0,0,0,0,0,0,0,0,0,0,0,
252,-24.82,-28.84,-116.1,-123.9,-62.2,-1.057,-2.609,-21.15,-41.48,-24.26,-20.9,-29.33,-28.51,1.404,-25.99,-22.49,0,0,0,0,0,0,0,0,0,0,0,0,0,0,0,0,
253,-46.99,-64.22,-105.3,-24.32,-55.36,-54.73,-121,-51.96,-55.76,-31.7,-51.32,-61,-61.2,-22.11,-48.14,-44.9,0,0,0,0,0,0,0,0,0,0,0,0,0,0,0,0,
254,-88.39,-76.76,-26.01,17.56,-82.47,-107.2,-116.9,-120.4,-67.73,-34.02,-53.37,-56.2,-54.44,-26.19,-29.46,-38.73,0,0,0,0,0,0,0,0,0,0,0,0,0,0,0,0,
255,-65.48,-27.41,-8.592,-47.39,-53.45,-77.76,-21.37,-47.01,-63.92,-21.38,-7.688,-13.42,-14.05,-3.318,14.9,-8.769,0,0,0,0,0,0,0,0,0,0,0,0,0,0,0,0,
256,-44.14,-4.722,-40.67,-88.39,-32.59,-70.74,-16.46,-12.8,-50.71,-17.48,-16.66,-27.37,-10.92,-10.78,0.5695,-13.42,0,0,0,0,0,0,0,0,0,0,0,0,0,0,0,0,
257,-77.42,-18.43,-64.54,-112.3,-62.5,-88.43,-44.71,-75.55,-45.54,-40.49,-45.07,-56.85,-35.17,-33.35,-33.53,-31.86,0,0,0,0,0,0,0,0,0,0,0,0,0,0,0,0,
258,-73.19,-28,-59.24,-77.27,-61.11,-58.62,-69.61,-34.09,-68.91,-48.35,-32.04,-36.32,-33.81,-20.31,-27.16,-21.21,0,0,0,0,0,0,0,0,0,0,0,0,0,0,0,0,
259,-36.8,-37.08,-44.24,10.12,-54.83,-49.1,-112.2,15.54,-75.93,-15.6,-31.04,-26.62,-14.66,3.089,-13.73,-8.657,0,0,0,0,0,0,0,0,0,0,0,0,0,0,0,0,
260,-50.19,-30.93,-65.53,15.62,-74.82,-75.09,-99.41,-43.36,-44.17,13.59,-44.84,-45.03,-9.289,0.6096,-19.96,-22.16,0,0,0,0,0,0,0,0,0,0,0,0,0,0,0,0,
261,-60.74,-9.468,-90.28,-52.3,-50.81,-43.65,-38.87,-65.05,-26.49,9.724,-44.85,-43.81,-19.68,-11.09,-19.97,-39.18,0,0,0,0,0,0,0,0,0,0,0,0,0,0,0,0,
262,-33.24,-5.891,-69.94,-103.1,-29.99,1.584,-3.594,-26.7,-37.89,-4.021,-34.93,-19.5,-32.58,-27.48,3.315,-40.78,0,0,0,0,0,0,0,0,0,0,0,0,0,0,0,0,
263,1.385,-8.247,-28.69,-74.54,-48.14,-16,3.053,11.96,-50.26,-1.756,0.6603,14.41,-36.59,-48.61,20.74,-36.39,0,0,0,0,0,0,0,0,0,0,0,0,0,0,0,0,
264,32.46,-8.007,23.42,24.02,-31.5,-40.53,-30.84,41.26,-28.62,8.612,13.04,14.14,-38.09,-49.93,-0.4151,-40.7,0,0,0,0,0,0,0,0,0,0,0,0,0,0,0,0,
265,-5.114,-28.22,55.9,46.58,-18.65,-36.67,-74.69,-5.448,11.85,1.245,-36.12,-39.4,-42.22,-30.64,-32.85,-49.01,0,0,0,0,0,0,0,0,0,0,0,0,0,0,0,0,
266,-75.83,-36.23,23.32,-3.178,-22.74,-22.72,-42.12,-55.51,-11.9,-14.89,-47.06,-58.47,-29.53,-3.213,-34.54,-40.16,0,0,0,0,0,0,0,0,0,0,0,0,0,0,0,0,
267,-46.34,-11.29,-15.95,-0.8688,15.97,-7.134,7.033,-7.133,-45.76,-13.84,-9.134,-28.99,-16.5,10.55,-24.05,-28.19,0,0,0,0,0,0,0,0,0,0,0,0,0,0,0,0,
268,-8.483,-15.14,-7.704,-0.5788,32.24,-19.13,-25.39,3.449,16.43,-7.883,-25.52,-38.92,-42.09,-21.38,-34.87,-45.47,0,0,0,0,0,0,0,0,0,0,0,0,0,0,0,0,
269,-55.1,-47.66,8.469,-3.132,10.08,-33.84,-62.02,-51.29,43.06,-10.63,-54.93,-55.57,-68.02,-57.78,-48.05,-66.25,0,0,0,0,0,0,0,0,0,0,0,0,0,0,0,0,
270,-44.43,-40.19,-22.41,11.79,-3.817,3.802,-33.78,-50.85,-34.17,-10.89,-30.2,-26.27,-55.15,-44.91,-39.09,-61.95,0,0,0,0,0,0,0,0,0,0,0,0,0,0,0,0,
271,11.58,-15.74,-90.86,-72.25,-43.17,25.44,-1.973,-50.14,-34.22,-8.214,-17.29,-24.35,-51.11,-33.48,-36.07,-64.77,0,0,0,0,0,0,0,0,0,0,0,0,0,0,0,0,
272,-31.48,-27.46,-70.14,-123.6,-54.7,-28.57,-7.722,-47.85,27.19,-16.44,-38.7,-57.95,-70.01,-56.08,-51.2,-79.95,0,0,0,0,0,0,0,0,0,0,0,0,0,0,0,0,
273,-79.4,-44.07,61.26,11.14,3.62,-65.29,-33.32,37.78,-11.37,-39.88,-40.3,-49.24,-62.01,-59.78,-39.91,-67.89,0,0,0,0,0,0,0,0,0,0,0,0,0,0,0,0,
274,-40.5,-36.33,108,97.2,30.01,-42.33,-47.32,74.41,-40.94,-47.43,-30.51,-23.76,-34.93,-43.3,-7.17,-40.63,0,0,0,0,0,0,0,0,0,0,0,0,0,0,0,0,
275,-41.05,-29.71,37.27,49.24,11.51,-41.44,-40.19,6.784,29.7,-20.8,-39.89,-33.79,-30.34,-44.11,-5.191,-34.72,0,0,0,0,0,0,0,0,0,0,0,0,0,0,0,0,
276,-85.69,-38.98,-16.35,49.11,-2.633,-53.84,-39.5,-20.11,11.75,-15.48,-42.09,-33.01,-34.91,-40.88,-18.9,-36.37,0,0,0,0,0,0,0,0,0,0,0,0,0,0,0,0,
277,-46.52,-40.94,-62.05,38.2,-25.54,-16.88,-23.69,-24.15,-102.1,-43.68,-24.86,-6.043,-27.23,-23.22,-20.26,-32.24,0,0,0,0,0,0,0,0,0,0,0,0,0,0,0,0,
278,-3.018,-21.32,-95.84,-72.93,-42.78,-1.46,25.94,-60.28,-78.49,-34.79,-25.73,-10.42,-21.97,-18.85,-26.06,-32.98,0,0,0,0,0,0,0,0,0,0,0,0,0,0,0,0,
279,-54.46,-16.23,-43.33,-110.4,-46.72,-54.91,19.57,-35.02,8.298,-8.005,-42.31,-29.72,-22.64,-17.12,-27.85,-26.79,0,0,0,0,0,0,0,0,0,0,0,0,0,0,0,0,
280,-69.46,-38.3,31.07,-7.915,-48.7,-72.43,-47.36,32.37,-45.65,-24.69,-38.01,-14.52,-14.29,-10.09,-15.71,-14,0,0,0,0,0,0,0,0,0,0,0,0,0,0,0,0,
281,-8.886,-32.46,39.46,50.39,-30.5,-25.22,-54,47.26,-95.66,-31.99,-23.92,3.148,0.7175,-18.45,-6.846,-15.5,0,0,0,0,0,0,0,0,0,0,0,0,0,0,0,0,
282,-0.2439,-0.1472,15.85,22.07,-9.216,-3.289,-11.18,37.79,-31.86,6.62,-9.215,7.837,16.06,-16.44,9.444,-10.55,0,0,0,0,0,0,0,0,0,0,0,0,0,0,0,0,
283,-14.68,7.949,4.85,46.64,0.9958,-4.692,17.44,28.63,-5.068,28.2,24.42,31.51,34.6,18.13,36.96,18.39,0,0,0,0,0,0,0,0,0,0,0,0,0,0,0,0,
284,24.69,17.03,-18.7,67.08,19.97,30.06,57.09,-1.569,-14.29,14.02,43.52,47.8,43.83,39.09,41.14,32.87,0,0,0,0,0,0,0,0,0,0,0,0,0,0,0,0,
285,47,38.21,-43.01,-26.74,18,69.34,71.3,-37.39,20.3,6.417,9.343,22.94,26.04,22.29,12.99,9.426,0,0,0,0,0,0,0,0,0,0,0,0,0,0,0,0,
286,20.7,28.69,10.62,-50.85,-10.21,55.43,39.35,-36.66,35.59,11.44,-31.05,-6.392,-1.589,-0.0407,-14.54,-18.77,0,0,0,0,0,0,0,0,0,0,0,0,0,0,0,0,
287,6.356,15.02,78.61,83.13,-0.567,9.275,32.77,25.46,18.58,6.626,-27.24,-9.197,-9.597,-9.434,-16.43,-20.29,0,0,0,0,0,0,0,0,0,0,0,0,0,0,0,0,
288,13.34,16.01,46.81,127.4,26.97,-13.97,16.96,67.8,-11.17,-7.245,-6.642,-2.685,-6.711,-9.195,-7.137,-10.78,0,0,0,0,0,0,0,0,0,0,0,0,0,0,0,0,
289,19.96,-6.938,7.087,28.99,4.66,-0.0993,-20.95,20.12,-57.95,-8.877,4.692,5.303,-5.461,4.392,0.2997,-5.973,0,0,0,0,0,0,0,0,0,0,0,0,0,0,0,0,
290,32.67,-18.02,16.42,-3.017,-13.52,29.28,21,-11.9,-33.65,6.029,22.73,23.36,12.56,27.08,27.23,15.1,0,0,0,0,0,0,0,0,0,0,0,0,0,0,0,0,
291,44.15,14.28,13.8,42.09,30,43.29,63.8,16.67,59.22,18.63,39.08,34.1,39.23,37.75,60.42,42.54,0,0,0,0,0,0,0,0,0,0,0,0,0,0,0,0,
292,28.9,26.98,33.88,56.72,41.96,18.17,-6.609,18.32,61.01,18.65,29.33,19.44,35.21,30.45,46.23,29.1,0,0,0,0,0,0,0,0,0,0,0,0,0,0,0,0,
293,-0.8989,4.504,39.01,45.77,-34.58,-30.27,-64.1,-2.497,-13.93,11.74,5.022,-2.842,3.747,19.78,-2.566,-14.03,0,0,0,0,0,0,0,0,0,0,0,0,0,0,0,0,
294,-10.51,-7.271,-20.08,24.81,-68.03,-41.17,-33.64,-28.17,-12.41,9.157,1.403,-3.503,-13.49,11.74,-13.92,-28.94,0,0,0,0,0,0,0,0,0,0,0,0,0,0,0,0,
295,16.42,2.02,-10.64,23.95,7.368,16.79,-8.855,-57.22,11.72,14.97,29.73,27.26,-6.059,-1.312,16.71,-14.45,0,0,0,0,0,0,0,0,0,0,0,0,0,0,0,0,
296,79.24,15.6,39.98,57.1,42.4,80.82,-11.11,-28.22,-41.13,13.07,44.68,54.82,-4.574,-18.31,20.49,-17.39,0,0,0,0,0,0,0,0,0,0,0,0,0,0,0,0,
297,114.3,12.2,-1.154,12.85,-0.3196,75.35,15.2,16.42,-32.75,-0.8895,15.16,32.46,-18.63,-15.17,-6.646,-31.14,0,0,0,0,0,0,0,0,0,0,0,0,0,0,0,0,
298,43.92,-7.402,-29.25,-83.15,11.33,12.66,55.75,3.296,77.29,-8.655,-13.91,-17.19,-24,6.263,-4.94,-14.96,0,0,0,0,0,0,0,0,0,0,0,0,0,0,0,0,
299,-50.13,-23.89,5.135,-31.14,19.05,-45.34,20.19,-14.87,72.18,-13.08,-11.26,-38.65,-20.82,3.118,13.15,10.82,0,0,0,0,0,0,0,0,0,0,0,0,0,0,0,0,
300,-43.42,-37.03,4.171,79.27,-57.64,-55.45,-67,-19.41,-40.19,-18.5,8.572,-26.82,-20.21,-11.42,12.3,15.69,0,0,0,0,0,0,0,0,0,0,0,0,0,0,0,0,
301,1.058,-35.35,-5.682,44.79,-56.65,-24.35,-59.86,-21.07,-57.68,-15.09,28.34,-3.032,-5.412,4.354,21.91,19.57,0,0,0,0,0,0,0,0,0,0,0,0,0,0,0,0,
302,13.27,-3.985,6.355,27.21,27.59,24.13,5.056,15.25,-31.61,-13.81,28.76,28.28,27.5,26.31,48.96,34.96,0,0,0,0,0,0,0,0,0,0,0,0,0,0,0,0,
303,61.2,33.75,7.947,105.5,15.33,84.06,19.52,41.35,-47.76,-2.3,31.58,67.18,56.38,43.22,65.23,52.77,0,0,0,0,0,0,0,0,0,0,0,0,0,0,0,0,
304,111.7,56.05,12.77,35.44,-24.8,85.76,61.62,2.805,-19.06,39.92,51.92,81.87,60.96,61.46,64.52,55.4,0,0,0,0,0,0,0,0,0,0,0,0,0,0,0,0,
305,60.11,55.91,15.26,-93.85,11.75,-3.277,111.3,-20.87,26.74,56.87,41.43,48.59,38.65,48.2,48.88,34.12,0,0,0,0,0,0,0,0,0,0,0,0,0,0,0,0,
306,-9.515,33.29,2.132,-10.31,18.6,-41.21,43.74,15.83,4.234,25.4,22.28,20.55,19.79,23.69,40.35,26.45,0,0,0,0,0,0,0,0,0,0,0,0,0,0,0,0,
307,4.888,14.52,1.716,103.5,-23.18,-0.7245,-27.68,32.58,-28.63,11.61,45.2,36.2,28.82,31.71,57.26,48.49,0,0,0,0,0,0,0,0,0,0,0,0,0,0,0,0,
308,41.53,21.74,30.57,85.57,-29.36,10.79,4.073,16.68,-21.5,14,59.58,55.78,51.73,46.12,75.66,63.44,0,0,0,0,0,0,0,0,0,0,0,0,0,0,0,0,
309,66.12,46.63,51.91,98.94,-24.85,57.71,24.39,36.24,9.104,2.501,56.71,64.74,72.92,48.97,80.56,65.75,0,0,0,0,0,0,0,0,0,0,0,0,0,0,0,0,
310,87.48,64.61,4.665,89.29,-30.31,127,14.99,50.99,38.24,17.41,72.4,70.06,78.92,49.59,71.45,62.14,0,0,0,0,0,0,0,0,0,0,0,0,0,0,0,0,
311,73.17,58.65,-38.32,-27.63,7.763,70.67,55.69,5.575,22.56,37.7,61.3,53.73,57.51,42.99,44.81,36.02,0,0,0,0,0,0,0,0,0,0,0,0,0,0,0,0,
312,58.54,41.97,43.59,-33.9,67.73,1.69,78.1,-26.58,-9.315,16.22,18.86,27.17,22.75,29.11,18.55,-4.581,0,0,0,0,0,0,0,0,0,0,0,0,0,0,0,0,
313,67.77,24.5,109.5,70.81,71.62,26.47,14.52,-8.464,16.36,20.55,-0.8624,10.65,-6.921,7.178,2.881,-33.85,0,0,0,0,0,0,0,0,0,0,0,0,0,0,0,0,
314,34.14,2.663,3.638,54.08,22.27,21.98,-38.25,8.987,40.6,60.9,-5.307,0.6968,-17.45,-8.834,-6.57,-36.34,0,0,0,0,0,0,0,0,0,0,0,0,0,0,0,0,
315,-1.347,2.629,-79.62,-12.08,-21.56,10.2,-0.379,24.91,-5.196,38.56,-9.906,-2.597,1.898,6.837,-4.39,-15.59,0,0,0,0,0,0,0,0,0,0,0,0,0,0,0,0,
316,32.79,26.32,28.33,38.38,-24.37,39.23,43.99,44.51,-20.79,-10.99,-11.4,-16.51,19.2,32.34,-5.112,-2.186,0,0,0,0,0,0,0,0,0,0,0,0,0,0,0,0,
317,30.55,15.93,119.6,83.09,-2.99,-0.3015,-6.622,19.87,34.28,3.215,-21.18,-52.63,-1.515,28.99,-26.38,-14.7,0,0,0,0,0,0,0,0,0,0,0,0,0,0,0,0,
318,-37.28,-27.33,26.5,17.25,-9.585,-44.89,-75.72,-35.42,15.99,20.95,-29.89,-65.32,-22.59,9.806,-41.97,-28.05,0,0,0,0,0,0,0,0,0,0,0,0,0,0,0,0,
319,-14.74,-30.08,-52.39,-12.28,-35.26,20.57,-36.18,-34.49,-80.6,1.233,-21.96,-24.05,1.062,11.58,-21.13,-11.79,0,0,0,0,0,0,0,0,0,0,0,0,0,0,0,0,
320,72.12,6.66,3.641,33.97,-25.42,77.75,38.18,13.51,-76.29,6.046,-0.6958,25.76,35.97,27.62,19.04,19.41,0,0,0,0,0,0,0,0,0,0,0,0,0,0,0,0,
321,66.69,20.68,21.42,17.62,5.525,60.69,29.17,27.59,12.11,29.72,15.93,36.29,40,23.6,34.62,26.12,0,0,0,0,0,0,0,0,0,0,0,0,0,0,0,0,
322,25.89,13.39,5.732,1.716,23.31,32.26,3.696,24.91,24.67,35.14,-5.191,8.998,22.26,5.358,10.1,4.653,0,0,0,0,0,0,0,0,0,0,0,0,0,0,0,0,
323,19.48,11.7,66.07,70.76,27.46,-13.37,24.81,22.06,-13.97,38.03,-43.57,-28.91,0.6275,-1.876,-22.82,-16.5,0,0,0,0,0,0,0,0,0,0,0,0,0,0,0,0,
324,-10.51,8.073,46.02,72.69,6.344,-28.87,33.49,-11.08,-43.2,36.13,-41.36,-41.3,-7.605,2.64,-24.47,-14.38,0,0,0,0,0,0,0,0,0,0,0,0,0,0,0,0,
325,-12.57,-0.4562,-62.61,12.41,-32.77,23.39,6.115,-2.629,-92.57,25.14,-26.66,-30.64,-0.0328,9.628,-3.283,3.431,0,0,0,0,0,0,0,0,0,0,0,0,0,0,0,0,
326,25.19,-13.54,-33.09,15.59,-45.64,16.62,-9.234,59.33,-93.23,18.72,-39.84,-42.19,-9.341,4.819,-1.695,0.5846,0,0,0,0,0,0,0,0,0,0,0,0,0,0,0,0,
327,-8.791,-25.73,57.85,-11.03,-19.09,-40.98,20.71,56.92,-17.17,3.674,-38.08,-60.49,-34.67,-10.11,-16.02,-21.4,0,0,0,0,0,0,0,0,0,0,0,0,0,0,0,0,
328,-41.57,-22.95,45.84,-41.98,-2.505,-19.11,34,13.12,9.54,-9.35,-11.98,-40.31,-39.55,-10.5,-11.01,-22.91,0,0,0,0,0,0,0,0,0,0,0,0,0,0,0,0,
329,4.018,-20.37,31.92,54.31,-21.29,4.113,-18.54,-3.537,-1.497,4.482,-1.525,-17.44,-24.08,7.411,-1.706,-11.28,0,0,0,0,0,0,0,0,0,0,0,0,0,0,0,0,
330,7.954,-12.21,57.59,107.2,-11.1,-18.7,-9.533,-28.05,31.83,8.873,-2.301,-23.13,-4.142,23.73,-8.429,-14.31,0,0,0,0,0,0,0,0,0,0,0,0,0,0,0,0,
331,-15.11,21.34,47.21,43,35.11,19.49,76.79,-21.7,21.71,-9.168,2.477,-26.14,3.53,19.63,-6.289,-22.68,0,0,0,0,0,0,0,0,0,0,0,0,0,0,0,0,
332,16.39,21.05,9.52,47.97,20.48,53.38,34.31,31.7,-45.8,-4.802,4.95,-29.63,-17.18,1.835,-0.4384,-26.75,0,0,0,0,0,0,0,0,0,0,0,0,0,0,0,0,
333,11.35,-32.82,-34.3,60.2,-25.9,5.183,-72.71,41.06,-47.19,5.212,-11.09,-51.79,-38.08,-1.959,-19.11,-31.22,0,0,0,0,0,0,0,0,0,0,0,0,0,0,0,0,
334,-30.93,-50.77,-31.98,-3.67,4.67,-1.039,-25.54,34.33,-11.17,-16.63,-35.25,-58.12,-38.14,0.7745,-29.99,-34.37,0,0,0,0,0,0,0,0,0,0,0,0,0,0,0,0,
335,-11.19,-29.03,47.07,13.17,40.32,42.26,35.35,56.84,-13.34,-33.73,-31.41,-38.21,-47.56,-13.13,-9.61,-36.52,0,0,0,0,0,0,0,0,0,0,0,0,0,0,0,0,
336,10.91,-41.04,72.01,70.45,0.8274,13.09,-25.32,28.81,1.742,-28.27,-23.1,-35.72,-66.37,-30.83,-7.013,-43.34,0,0,0,0,0,0,0,0,0,0,0,0,0,0,0,0,
337,-15.11,-54.59,31.05,42.33,-2.59,-38.14,-26.55,-24.65,30.2,-30.9,-34.02,-40.26,-57.33,-28.76,-27.59,-46.64,0,0,0,0,0,0,0,0,0,0,0,0,0,0,0,0,
338,-8.073,-19.57,50.33,2.302,42.59,-23.45,53.67,-9.855,16.12,-33.65,-13.7,-12.04,-25.93,-2.502,-18.92,-34.55,0,0,0,0,0,0,0,0,0,0,0,0,0,0,0,0,
339,23.39,5.995,27.01,-34.1,7.534,-0.8643,40.01,5.565,9.303,-15.23,17.39,6.011,-7.219,18.19,6.283,-20.43,0,0,0,0,0,0,0,0,0,0,0,0,0,0,0,0,
340,-1.632,-17.39,-78.09,-49.8,-42.88,-6.455,-31.98,-49.31,15.74,9.242,4.923,-17.08,-3.498,12.76,9.858,-16.24,0,0,0,0,0,0,0,0,0,0,0,0,0,0,0,0,
341,-42.51,-38.51,-56.28,5.712,-11.12,-10.39,-34.06,-82.49,-14.95,11.66,-11.87,-34.54,-3.463,8.036,0.4939,-16.57,0,0,0,0,0,0,0,0,0,0,0,0,0,0,0,0,
342,-28.82,-28.78,37.3,3.027,10.33,-10.12,24.24,-18.3,-28.29,-11.43,-21.34,-38.07,-19.54,-0.9727,-16.77,-27.53,0,0,0,0,0,0,0,0,0,0,0,0,0,0,0,0,
343,11.33,-12.1,28.14,-32.65,-3.146,17.68,69.7,72.48,-13.94,-25.96,-37.38,-42.56,-51.85,-36.01,-36.12,-46.37,0,0,0,0,0,0,0,0,0,0,0,0,0,0,0,0,
344,27.49,-13.37,17.92,71.57,-14.51,55.81,28.11,98.22,-24.84,-25.69,-35.54,-42.02,-75.4,-58.64,-40.13,-55.48,0,0,0,0,0,0,0,0,0,0,0,0,0,0,0,0,
345,-0.4636,-35.97,58.07,147.8,-31.88,25.6,-43.8,51.22,-0.1407,-35.93,-33.28,-47.98,-73.18,-45.59,-36.58,-50.94,0,0,0,0,0,0,0,0,0,0,0,0,0,0,0,0,
346,-35.85,-33.35,81.03,45.27,7.552,-15.2,10.38,-24.24,51.55,-33.74,-37.78,-40.63,-39.99,-19.34,-32.3,-32.98,0,0,0,0,0,0,0,0,0,0,0,0,0,0,0,0,
347,-17.75,8.786,88.02,-33.4,56.74,3.758,94.82,-53.18,27.07,-13.93,-26.61,-5.402,2.67,8.915,-18.46,-13.18,0,0,0,0,0,0,0,0,0,0,0,0,0,0,0,0,
348,6.655,18.78,41.82,-7.762,11.85,-1.855,32.33,2.976,-10.99,-14.04,-10.11,14.24,22.3,35.61,2.929,-4.384,0,0,0,0,0,0,0,0,0,0,0,0,0,0,0,0,
349,-5.021,4.384,-27.89,0.7417,-5.519,-12.48,-36.57,55.63,-13.34,-15.05,13.45,15.58,21.13,52.39,9.924,-2.788,0,0,0,0,0,0,0,0,0,0,0,0,0,0,0,0,
350,18.6,20.63,-26.1,-4.37,30.89,46.91,-10.69,34.29,-54.85,-9.235,20.33,5.801,0.569,40.79,-12.64,-19.11,0,0,0,0,0,0,0,0,0,0,0,0,0,0,0,0,
351,38.2,1.566,0.1198,34.32,1.207,65.52,-31.4,7.505,-57.07,-24.42,-20.5,-38.44,-40.19,0.0716,-29.28,-45.39,0,0,0,0,0,0,0,0,0,0,0,0,0,0,0,0,
352,-31.37,-61.78,31,65.89,-8.835,2.37,-63.46,-0.5881,38.97,-27.84,-53.81,-72.63,-63.93,-31.02,-24.95,-50.44,0,0,0,0,0,0,0,0,0,0,0,0,0,0,0,0,
353,-71.05,-59.31,81.67,18.33,30.7,-24.38,12.66,-38.54,50.21,-8.565,-51.94,-52.96,-55.09,-35.49,-43.36,-49.75,0,0,0,0,0,0,0,0,0,0,0,0,0,0,0,0,
354,-7.651,-10.74,56.82,-72.58,5.607,-7.37,75.23,-59.31,-40.74,-0.5129,-49.4,-28.79,-42.48,-29.41,-64.06,-57.45,0,0,0,0,0,0,0,0,0,0,0,0,0,0,0,0,
355,14.91,-8.382,-7.916,-98.03,-25.6,-11.66,17.71,-14.51,-31.73,1.372,-45.47,-40.09,-39.22,-22.27,-46.9,-56.05,0,0,0,0,0,0,0,0,0,0,0,0,0,0,0,0,
356,-39.95,-30.48,-6.941,-20.02,-8.352,-21.26,-57.64,43.56,14.42,-8.26,-30.6,-49.3,-31.3,-13.75,-35.51,-49.89,0,0,0,0,0,0,0,0,0,0,0,0,0,0,0,0,
357,-33.77,-30.78,-20.93,76.7,-5.245,1.599,-65.08,71.69,-47.25,-21.54,-15.03,-28.24,-12.55,2.551,-49.42,-45.35,0,0,0,0,0,0,0,0,0,0,0,0,0,0,0,0,
358,22.03,-17.94,-54.15,86.07,-12.33,22.86,-41.77,46.51,-56.88,-4.364,-28.42,-30.63,-11.88,11.65,-61.02,-46.52,0,0,0,0,0,0,0,0,0,0,0,0,0,0,0,0,
359,-6.205,-6.505,5.771,1.141,-20.1,4.167,2.738,-15.78,48.06,8.156,-58.47,-63.47,-33.62,1.768,-55.77,-51.11,0,0,0,0,0,0,0,0,0,0,0,0,0,0,0,0,
360,-57.49,9.729,73.51,-101,-22.73,8.679,96.99,-21.5,76.88,-1.686,-32.39,-44.69,-32.6,-0.5906,-23.45,-36.14,0,0,0,0,0,0,0,0,0,0,0,0,0,0,0,0,
361,-24.43,23.24,47.5,-124.4,2.386,44.11,132.5,15.33,31.18,0.6996,13.87,-5.713,-26.13,1.229,1.801,-22.75,0,0,0,0,0,0,0,0,0,0,0,0,0,0,0,0,
362,4.035,1.012,7.38,-12.63,5.355,29.28,19.99,2.356,9.371,-10.81,7.231,-13.86,-48.09,-10.03,-4.934,-35.08,0,0,0,0,0,0,0,0,0,0,0,0,0,0,0,0,
363,2.517,-28.1,-7.363,127,-9.375,24.41,-69.76,1.471,-18.65,-36.17,13.08,-0.5672,-43.57,-11.02,4.271,-34.09,0,0,0,0,0,0,0,0,0,0,0,0,0,0,0,0,
364,40.99,-7.441,9.04,143.2,22.21,60.7,-29.5,48.13,-9.397,-20.57,47.42,33.29,-7.84,-4.347,24.17,-18.95,0,0,0,0,0,0,0,0,0,0,0,0,0,0,0,0,
365,41.63,15.98,86.94,92.93,45.14,16.12,0.6655,44.36,50.85,4.025,34.38,3.977,-5.98,-6.131,4.535,-25.67,0,0,0,0,0,0,0,0,0,0,0,0,0,0,0,0,
366,-20.76,3.971,109.5,32.15,11.14,-48.12,9.87,14.01,50.9,-9.512,-8.536,-39.4,-15.71,2.581,-27.13,-34.52,0,0,0,0,0,0,0,0,0,0,0,0,0,0,0,0,
367,-41.45,10.78,1.704,-106.8,-25.89,-0.8094,89,14.4,10.8,-21.81,-29.41,-35.97,0.0607,20.29,-35.61,-28.44,0,0,0,0,0,0,0,0,0,0,0,0,0,0,0,0,
368,-21.1,25.97,-64.49,-183.9,-38.35,52.11,119.6,3.172,0.4422,-10.62,-17.21,-23.97,0.2409,22.08,-34.4,-30.1,0,0,0,0,0,0,0,0,0,0,0,0,0,0,0,0,
369,1.066,-2.569,-13.24,-40.66,-25.1,22.56,14.49,12.31,-5.443,-4.636,10.85,-21.04,-31.02,-0.0316,-27.66,-41.17,0,0,0,0,0,0,0,0,0,0,0,0,0,0,0,0,
370,13.85,-38.46,27.76,116.8,2.846,-6.137,-72.63,49.8,-3.868,-9.195,8.854,-14.38,-53.12,-30.33,-14.89,-45.1,0,0,0,0,0,0,0,0,0,0,0,0,0,0,0,0,
371,3.996,-38.16,29.8,107.1,22.11,13.59,-58.23,27.37,6.184,-15.92,-7.745,-4.49,-44.5,-35.63,-5.559,-41.04,0,0,0,0,0,0,0,0,0,0,0,0,0,0,0,0,
372,18.78,-16.05,41.19,24.93,45.12,29.54,-30.05,-21.83,0.363,-20.39,7.608,5.602,-20.87,-11.97,-4.197,-33.06,0,0,0,0,0,0,0,0,0,0,0,0,0,0,0,0,
373,45.65,8.885,32.64,-61.61,46.86,7.932,2.34,-35.33,-12.47,-3.277,13.37,5.966,-0.6667,7.676,-17.56,-21.24,0,0,0,0,0,0,0,0,0,0,0,0,0,0,0,0,
374,18.4,27.15,-23.09,-112,-8.818,7.173,61.86,-25.36,-20.95,20.54,-22,-7.767,16.5,12.05,-29.2,-5.585,0,0,0,0,0,0,0,0,0,0,0,0,0,0,0,0,
375,-9.112,35.04,-68.31,-49.03,-49.79,42.86,59.14,39.49,-2.484,9.888,-39.59,-14.05,33.67,15.17,-5.277,12.38,0,0,0,0,0,0,0,0,0,0,0,0,0,0,0,0,
376,1.802,33.89,-25.24,63.15,-31.96,27.8,-12.86,93.1,17.93,-8.125,-10.6,4.361,36.67,15.59,21.7,15.45,0,0,0,0,0,0,0,0,0,0,0,0,0,0,0,0,
377,8.478,21.81,50.14,79.3,-22.13,-21.9,-34.29,23.07,-18.28,1.099,14.17,15.39,13.21,2.542,5.831,-4.391,0,0,0,0,0,0,0,0,0,0,0,0,0,0,0,0,
378,9.808,5.48,35.35,-18.18,-38.47,-15.22,-4.037,-38.08,-46.08,6.648,12.36,-2.981,-16.86,-9.86,-2.195,-12.42,0,0,0,0,0,0,0,0,0,0,0,0,0,0,0,0,
379,10.47,-0.1381,-16.15,-97.7,-29.66,18.25,8.846,3.98,-9.534,4.471,25.59,-1.485,-21.65,-0.0939,28.35,4.284,0,0,0,0,0,0,0,0,0,0,0,0,0,0,0,0,
380,15.89,7.525,-8.796,-67.51,1.72,16.76,21.96,4.503,28.8,11.91,46.64,20.86,-7.758,21.7,36.72,12.08,0,0,0,0,0,0,0,0,0,0,0,0,0,0,0,0,
381,22.5,12.37,8.776,5.523,2.188,-9.228,25.05,-26.89,33.15,9.25,31.82,7.667,-1.701,37.49,19.41,8.96,0,0,0,0,0,0,0,0,0,0,0,0,0,0,0,0,
382,7.083,8.099,31.58,68.19,-12.16,-12.48,-8.309,18.87,-2.815,4.544,21.84,1.144,3.529,47.09,22.71,13.04,0,0,0,0,0,0,0,0,0,0,0,0,0,0,0,0,
383,18.83,15.92,72.14,92.01,5.934,32.34,-2.511,50.59,-21.33,19.69,34.88,28.08,17,47.64,24.43,13.62,0,0,0,0,0,0,0,0,0,0,0,0,0,0,0,0,
384,46.2,29.64,30.67,6.335,-0.6553,65.13,52.1,24.32,43.97,32.54,9.343,11.46,20.24,40.56,6.212,9.345,0,0,0,0,0,0,0,0,0,0,0,0,0,0,0,0,
385,13.85,19.84,-50.33,-79.57,-37.39,47.42,49.65,10.24,70.18,27.56,-6.704,-12.11,23.9,49.18,13.1,24.1,0,0,0,0,0,0,0,0,0,0,0,0,0,0,0,0,
386,15.6,19.12,-15.06,-44.21,0.693,38.69,9.728,-19.46,23.95,22.57,54,35.52,54.88,78.83,60.27,66.33,0,0,0,0,0,0,0,0,0,0,0,0,0,0,0,0,
387,79.75,51.41,54.83,-14.76,59.66,37.57,15.16,-49.93,55.42,34.78,105.1,75.5,87.61,100.3,111.1,113.5,0,0,0,0,0,0,0,0,0,0,0,0,0,0,0,0,
388,70.73,61.22,35.4,-2.189,49.29,9.243,22.44,-2.675,101.9,46.88,120.5,70.45,93.25,107.5,145.5,138.5,0,0,0,0,0,0,0,0,0,0,0,0,0,0,0,0,
389,38.63,44.87,37.22,74.73,45.43,8.991,14.15,62.04,90.31,29.09,155.4,77.71,83,109.3,154.8,128.7,0,0,0,0,0,0,0,0,0,0,0,0,0,0,0,0,
390,56.19,45.76,89.68,65.77,39.78,46.45,39.92,46.44,115.3,10.79,149.2,78.74,61.97,85.67,131.2,92.18,0,0,0,0,0,0,0,0,0,0,0,0,0,0,0,0,
391,54.97,43.79,45.21,-42.31,-5.521,62.15,60.64,-21.02,95.09,24.76,91.28,70.86,41.15,50.03,102.5,62.53,0,0,0,0,0,0,0,0,0,0,0,0,0,0,0,0,
392,70.92,36.88,-40.99,-55.02,6.36,54.11,34.12,-34.33,-4.128,28.73,67.82,78.85,36.66,42.69,80.36,46.57,0,0,0,0,0,0,0,0,0,0,0,0,0,0,0,0,
393,91.72,41.02,-10.9,-15.43,32.45,21.36,-10.57,15.59,-10.31,8.014,44.84,54.14,26.9,46.67,40.42,20.19,0,0,0,0,0,0,0,0,0,0,0,0,0,0,0,0,
394,23.19,19.51,33.51,-30.72,-21.27,-29.62,-40.39,12.31,27.08,5.911,-0.8662,13.06,10.71,41.47,15.33,10.9,0,0,0,0,0,0,0,0,0,0,0,0,0,0,0,0,
395,-22.94,-3.086,-25.98,-22.39,-46.07,-19.77,-15.44,-24.11,-0.078,16.41,9.788,22.88,19.81,38.5,33.52,34.81,0,0,0,0,0,0,0,0,0,0,0,0,0,0,0,0,
396,15.18,22.08,-66.12,11.95,-14.44,39.26,38.63,2.957,7.715,14.51,34.76,35.83,34.72,31.16,35.25,33.16,0,0,0,0,0,0,0,0,0,0,0,0,0,0,0,0,
397,9.553,38.93,-15.56,-12.98,-15.19,41.87,43.96,13.18,37.76,17.92,-6.335,11.77,27.09,22.61,5.412,6.247,0,0,0,0,0,0,0,0,0,0,0,0,0,0,0,0,
398,-11.65,25.01,18.77,-45.73,-7.081,14.96,31.64,-5.305,0.6495,29.27,-37.49,2.736,16.67,18.74,-3.14,6.533,0,0,0,0,0,0,0,0,0,0,0,0,0,0,0,0,
399,14.29,21.11,-2.806,-24.78,15.54,19.68,31.23,19.43,-26.48,21.56,-8.274,10.82,11.95,3.597,4.178,14.13,0,0,0,0,0,0,0,0,0,0,0,0,0,0,0,0,
400,-6.731,6.767,-4.725,-8.776,-11.09,-1.573,-0.8536,-14.93,-13.32,-1.255,9.647,6.99,11.74,-2.367,7.324,13.1,0,0,0,0,0,0,0,0,0,0,0,0,0,0,0,0,
401,-36.62,-7.244,41.44,-2.913,-25.04,-36.98,-4.643,-74.09,-42.13,2.248,8.547,25.33,30.51,19,24.36,31.18,0,0,0,0,0,0,0,0,0,0,0,0,0,0,0,0,
402,30.04,21.8,68.77,37.87,2.494,-4.098,52.8,11.51,-69.83,27.9,22.48,60.52,47.07,25,34.55,42.4,0,0,0,0,0,0,0,0,0,0,0,0,0,0,0,0,
403,70.13,41.03,36.26,73.02,-4.918,45.55,59.93,105.9,-20.71,16.3,4.283,42.87,35.05,8.052,10.3,21.06,0,0,0,0,0,0,0,0,0,0,0,0,0,0,0,0,
404,7.931,27.51,12.79,77.72,-23.13,41.82,29.2,59.72,14.15,-12.09,-38.54,0.3914,26.64,16.36,-7.886,9.452,0,0,0,0,0,0,0,0,0,0,0,0,0,0,0,0,
405,-8.949,37.85,34.47,42.81,-0.6563,26.09,55.8,5.957,-23.67,8.459,-30.26,2.575,33.9,40.58,-0.6513,11.2,0,0,0,0,0,0,0,0,0,0,0,0,0,0,0,0,
406,25.4,45.83,17.4,-57.66,7.256,14.88,74.1,11.51,-38.38,30.07,-14.18,-0.0659,17.7,35.11,-7.337,-7.013,0,0,0,0,0,0,0,0,0,0,0,0,0,0,0,0,
407,-14.25,10.54,-42.45,-105.3,-26.88,-23.47,29.67,-3.239,-17.15,8.956,-40.16,-33.01,-9.656,15.36,-14.05,-10.21,0,0,0,0,0,0,0,0,0,0,0,0,0,0,0,0,
408,-61.46,-12.21,-32.11,-11.27,-53.77,-61.49,-5.704,-51.65,-29.35,-1.11,-37.49,-24.24,-10.64,11.3,10.56,16.48,0,0,0,0,0,0,0,0,0,0,0,0,0,0,0,0,
409,-25.55,-1.448,21.63,62.19,-45.98,-48.09,-5.322,-76.51,-45.04,-0.7236,0.4885,16.01,-6.254,15.46,24.25,20.01,0,0,0,0,0,0,0,0,0,0,0,0,0,0,0,0,
410,18.52,-2.67,-6.985,0.343,-26.36,-8.758,3.037,-46.12,-31.05,-12.37,14.39,31.45,-7.234,22.85,18.46,13.68,0,0,0,0,0,0,0,0,0,0,0,0,0,0,0,0,
411,20.02,-10.44,-65.84,-85.03,-37.84,-7.198,2.466,8.981,-7.636,-4.91,13.83,33.51,6.272,25.07,33.41,30.68,0,0,0,0,0,0,0,0,0,0,0,0,0,0,0,0,
412,-0.823,1.824,-40.79,-67.89,-63.79,-30.32,-22.32,52.12,18.97,-0.1016,0.0597,24.79,15.11,11.39,37.74,30.78,0,0,0,0,0,0,0,0,0,0,0,0,0,0,0,0,
413,-25.77,8.874,1.764,25.71,-37.53,-29.24,-51.3,51.18,2.278,-16.65,-27.12,7.705,4.823,0.6061,11.32,11.31,0,0,0,0,0,0,0,0,0,0,0,0,0,0,0,0,
414,-17.91,-5.752,-17.14,54.47,3.175,-23.78,-51.37,-13.21,-57.01,-11.54,-17.71,11.81,-2.306,0.9583,7.904,5.453,0,0,0,0,0,0,0,0,0,0,0,0,0,0,0,0,
415,1.733,-15.53,-32.14,-7.998,-24.91,-40.6,-39.03,-55.47,-39.43,-4.377,-2.311,8.467,-14.71,-4.306,15.75,-8.682,0,0,0,0,0,0,0,0,0,0,0,0,0,0,0,0,
416,-30.67,-22.37,-26.09,-52,-60.16,-56.09,-43.1,-18.56,29.9,-20.28,-38.22,-25.36,-43.32,-12.88,-6.429,-29.9,0,0,0,0,0,0,0,0,0,0,0,0,0,0,0,0,
417,-61.66,-42.08,-62.65,-82.58,-24.18,-49.05,-46.08,-7.734,5.065,-11.72,-48.93,-24.06,-40.81,1.437,-3.775,-15.13,0,0,0,0,0,0,0,0,0,0,0,0,0,0,0,0,
418,-23.53,-37.34,-96.6,-136.5,16.92,-16.54,-21.48,-49.86,-46.15,11.33,7.195,25.49,4.685,40.35,42.11,18.54,0,0,0,0,0,0,0,0,0,0,0,0,0,0,0,0,
419,-0.55,-2.267,-70.9,-119.4,-8.165,6.704,-8.012,-34.1,-8.066,3.375,25.34,39.63,26.3,50.54,51.71,27.2,0,0,0,0,0,0,0,0,0,0,0,0,0,0,0,0,
420,-52.63,3.796,-36.48,-17.82,-63.13,-29.01,-42.35,28.46,23.18,-3.074,-14.48,16.25,18.53,25.89,30.23,27.88,0,0,0,0,0,0,0,0,0,0,0,0,0,0,0,0,
421,-72.02,-6.896,8.928,48,-65.18,-73.43,-64.58,33.51,-18.54,14.74,-14.77,30.57,38.2,35.73,41.27,45.05,0,0,0,0,0,0,0,0,0,0,0,0,0,0,0,0,
422,-4.82,14.56,73.77,55.7,11.11,-50.57,-30.36,-0.3647,-44.08,20.76,21.1,63.21,63.2,59.58,53.59,55.98,0,0,0,0,0,0,0,0,0,0,0,0,0,0,0,0,
423,32.15,31.22,76.13,57.48,72.94,-13.22,15.95,9.985,-13.85,10.16,24.08,57.51,53.95,35.16,42.45,53.01,0,0,0,0,0,0,0,0,0,0,0,0,0,0,0,0,
424,4.215,19.61,31.89,7.897,41.02,-9.516,35.63,35.29,11.71,6.572,4.287,37.61,36.66,3.1,40.55,48.45,0,0,0,0,0,0,0,0,0,0,0,0,0,0,0,0,
425,5.681,14.55,-13.12,-104.7,-12.67,1.953,20.76,6.868,7.399,6.207,-7.933,26.2,19.24,-10.73,33.6,28.25,0,0,0,0,0,0,0,0,0,0,0,0,0,0,0,0,
426,10.46,10.96,-78.37,-117,-3.733,10.29,-3.059,-20.09,27.35,-3.692,-9.347,24.15,-0.6289,-26.23,26.13,3.069,0,0,0,0,0,0,0,0,0,0,0,0,0,0,0,0,
427,-17.92,3.465,-62.49,18.16,32.71,4.174,7.11,11.19,59.87,-15.75,10.42,52.39,-1.174,-23.95,53.5,3.336,0,0,0,0,0,0,0,0,0,0,0,0,0,0,0,0,
428,11.03,12.38,46.34,93.46,35.27,17.5,21.41,26.64,22.67,-10.43,35.95,74.43,3.937,-10.41,64.02,10.61,0,0,0,0,0,0,0,0,0,0,0,0,0,0,0,0,
429,43.79,18.54,67.98,42.4,12.08,4.562,3.076,0.3403,-30.44,5.913,24.65,41.84,4.702,-8.558,27.39,10.7,0,0,0,0,0,0,0,0,0,0,0,0,0,0,0,0,
430,-15.5,16.36,45.92,20.52,15.05,-33.16,3.359,6.885,-19.54,5.655,-14.26,10.51,23.33,2.135,13.55,23.04,0,0,0,0,0,0,0,0,0,0,0,0,0,0,0,0,
431,-32.02,37.67,96.13,48.04,48.02,-5.27,50.08,34.53,-16.52,9.684,-18.81,28.78,46.82,23.67,34.49,40.34,0,0,0,0,0,0,0,0,0,0,0,0,0,0,0,0,
432,29.85,68.26,100.3,32.66,53.91,39.83,85.84,33.76,-24.16,40,11.76,43.42,49.36,32.12,36.67,39.82,0,0,0,0,0,0,0,0,0,0,0,0,0,0,0,0,
433,26.79,62.86,22.97,-5.71,22.92,38.09,63.4,32.24,28.25,44.5,11.58,19.11,30.36,25.23,20.43,21.67,0,0,0,0,0,0,0,0,0,0,0,0,0,0,0,0,
434,-6.741,19.5,-36.51,0.2058,9.194,47.18,12.69,28.65,51.61,11.65,4.741,2.683,2.803,14.47,17.71,5.871,0,0,0,0,0,0,0,0,0,0,0,0,0,0,0,0,
435,6.482,-12.46,-36.53,47.96,32.07,45.65,-3.426,4.183,8.38,-6.11,45.87,19.19,-9.687,3.482,27.48,4.045,0,0,0,0,0,0,0,0,0,0,0,0,0,0,0,0,
436,7.513,-0.0572,45.15,67.88,56.46,1.64,24.42,0.7819,26.83,-4.488,55.74,25.8,-7.512,-8.574,28.67,4.104,0,0,0,0,0,0,0,0,0,0,0,0,0,0,0,0,
437,-1.112,21.31,116.4,17.27,59.08,-4.553,66.72,1.022,67.56,15.92,7.116,17.72,-5.396,-7.595,25.2,9.442,0,0,0,0,0,0,0,0,0,0,0,0,0,0,0,0,
438,21.37,22.86,73.34,-30.84,58.86,24.62,88.21,-36.2,25.31,47.95,0.7367,31.16,5.096,10.12,34.48,30.24,0,0,0,0,0,0,0,0,0,0,0,0,0,0,0,0,
439,31.16,22.56,44.21,7.566,61.54,29.68,49.33,-25.11,12.59,37.28,21,44.28,17.24,18.52,45.59,38.79,0,0,0,0,0,0,0,0,0,0,0,0,0,0,0,0,
440,20.04,18.82,100.3,98.67,49.98,49.7,-5.641,63.36,55.61,3.678,10.39,41.29,14,7.521,36.67,18.61,0,0,0,0,0,0,0,0,0,0,0,0,0,0,0,0,
441,40,9.532,94.74,139.5,45.96,84.96,5.016,92.68,25.58,1.646,8.488,43.47,1.236,-13.59,4.018,-7.05,0,0,0,0,0,0,0,0,0,0,0,0,0,0,0,0,
442,59.71,10.59,18.44,78.96,48.2,60.51,42.18,36.85,-15.28,7.172,1.308,27.58,-14.01,-34.26,-25.47,-16.76,0,0,0,0,0,0,0,0,0,0,0,0,0,0,0,0,
443,20.41,11.57,18.22,10.81,18.76,9.761,46.64,12.22,10.98,8.743,-31.06,-1.742,-14.23,-30.3,-14.55,-0.0604,0,0,0,0,0,0,0,0,0,0,0,0,0,0,0,0,
444,-17.96,14.35,79.22,36.16,3.194,10.37,44.03,19.11,3.981,10.22,-35.87,0.2819,9.881,-0.195,11.76,23.95,0,0,0,0,0,0,0,0,0,0,0,0,0,0,0,0,
445,-3.092,32.06,64.16,48.6,29.37,19.63,47.95,-7.202,-49.74,0.0325,-26.88,4.494,19.57,17.83,0.5013,14.28,0,0,0,0,0,0,0,0,0,0,0,0,0,0,0,0,
446,11.03,34.24,-12.48,-37.36,33.14,7.716,53.83,-36.05,-61.26,8.378,-32.87,-12.81,-1.547,11.5,-24.93,-15.52,0,0,0,0,0,0,0,0,0,0,0,0,0,0,0,0,
447,10.1,12.48,-26.65,-72.68,24.08,29.73,46.88,-31.05,-23.82,26.26,-23.3,-12.14,-16.21,10.35,-23.53,-20.53,0,0,0,0,0,0,0,0,0,0,0,0,0,0,0,0,
448,21.21,5.284,8.176,0.1281,25.58,62.79,-6.005,-3.895,-1.889,12.24,-11.53,4.682,-12.37,19.31,-28.44,-13.1,0,0,0,0,0,0,0,0,0,0,0,0,0,0,0,0,
449,35.37,12.19,4.256,39.64,0.4068,51.12,-47.73,22.11,-25.01,1.483,-19.69,9.917,-11.14,11.24,-77.02,-17.94,0,0,0,0,0,0,0,0,0,0,0,0,0,0,0,0,
450,41,3.089,-19.21,8.509,-14.65,13.9,-20.27,7.926,-33.32,0.4577,-30.52,-1.167,-21.91,-13.33,-137.1,-18.84,0,0,0,0,0,0,0,0,0,0,0,0,0,0,0,0,
451,7.449,-19.49,-20.79,-13.5,-3.589,-23.45,-14.59,-25.8,-11.22,-29.4,-50.67,-27.27,-34.01,-26.06,-164.8,-12.63,0,0,0,0,0,0,0,0,0,0,0,0,0,0,0,0,
452,-46.85,-27.85,-2.496,9.215,-13.05,-20.97,-48.47,-13.46,-12.05,-44.07,-62.53,-33.61,-22.23,-8.794,-155.5,-4.945,0,0,0,0,0,0,0,0,0,0,0,0,0,0,0,0,
453,-30.61,-6.529,23.68,31.33,-8.332,18.76,-2.72,9.805,-14.1,-17.72,-19.77,0.9952,9.874,28.01,-121.1,13.07,0,0,0,0,0,0,0,0,0,0,0,0,0,0,0,0,
454,15.56,16.92,5.476,-25.14,4.117,-8.29,67.49,-8.943,-15.48,-10.55,26.41,16.77,16.62,46.04,-99.5,18.4,0,0,0,0,0,0,0,0,0,0,0,0,0,0,0,0,
455,-8.333,4.117,-52.95,-95.37,-26.12,-80.41,17.48,-25.29,-38.72,-20.41,-1.171,-15.48,-6.591,37.94,-122.1,-1.252,0,0,0,0,0,0,0,0,0,0,0,0,0,0,0,0,
456,-35.63,-23.83,-53.34,-50.46,-30.18,-62.5,-66.24,-18.9,-31.23,-1.281,-38.97,-27.39,-13.33,37.16,-139.3,-6.056,0,0,0,0,0,0,0,0,0,0,0,0,0,0,0,0,
457,5.431,-18.28,-18.57,2.614,0.0353,11.63,-44.31,-22.44,-27.47,10.79,-12.25,9.716,3.517,40.31,-119.2,4.393,0,0,0,0,0,0,0,0,0,0,0,0,0,0,0,0,
458,48.72,8.884,-40.5,-49.64,-18.36,24.54,8.904,-28.96,-59.31,-13.66,10.87,32.66,11.92,27.64,-106.5,-0.5473,0,0,0,0,0,0,0,0,0,0,0,0,0,0,0,0,
459,33.6,9.538,-45.73,-49.08,-42.66,-16.83,-7.84,-15.96,-30.5,-22.12,-5.194,19.5,7.246,13.78,-89.11,2.749,0,0,0,0,0,0,0,0,0,0,0,0,0,0,0,0,
460,-11.95,-8.932,18.56,37.4,-32.07,-28.92,-25.05,2.687,9.7,-0.959,8.521,17.76,12.19,12.72,-49.84,29.38,0,0,0,0,0,0,0,0,0,0,0,0,0,0,0,0,
461,-25.2,-1.392,26.26,3.989,-40.55,2.871,23.5,-17.18,-20.57,7.657,29.9,24.36,27.99,25.18,-53.57,39.9,0,0,0,0,0,0,0,0,0,0,0,0,0,0,0,0,
462,-3.159,20.54,-45.3,-109.3,-47.06,5.35,57.23,-80.13,-13.86,6.039,7.071,7.518,29.23,40.54,-86.45,26.66,0,0,0,0,0,0,0,0,0,0,0,0,0,0,0,0,
463,6.831,17.59,-65.31,-81.68,-11.18,-14.7,21.09,-97.44,14.91,8.256,6.239,2.382,18.82,43.22,-74.98,23.68,0,0,0,0,0,0,0,0,0,0,0,0,0,0,0,0,
464,9.576,4.58,-29.67,36.54,12.08,-1.465,-22.12,-20.32,-41.76,3.138,30.53,19.84,19.61,42,-63.04,26.51,0,0,0,0,0,0,0,0,0,0,0,0,0,0,0,0,
465,17.2,3.541,-16.46,58.24,-10.1,-7.843,-18.08,44.96,-80.83,1.734,1.781,11.53,20.45,44.05,-91.43,15.51,0,0,0,0,0,0,0,0,0,0,0,0,0,0,0,0,
466,2.25,7.94,-6.838,-16.69,-37.16,-29.96,29.64,8.053,-24.16,8.783,-28.6,-2.978,13.62,34.37,-95.47,12.92,0,0,0,0,0,0,0,0,0,0,0,0,0,0,0,0,
467,-18.29,16.85,9.612,-76.18,-45.9,-1.401,63.35,-51.35,16.39,-2.009,-5.1,11.68,12.18,14.16,-64.14,25.01,0,0,0,0,0,0,0,0,0,0,0,0,0,0,0,0,
468,-12.81,14.56,5.907,-46.18,-33.56,11.74,24.93,-29.87,-16.94,-23.45,5.692,15.83,4.274,5.685,-59.12,19.2,0,0,0,0,0,0,0,0,0,0,0,0,0,0,0,0,
469,-0.8579,-10.95,34.57,76.45,3.468,-14.64,-35.42,42.81,-56.85,-21.72,-9.172,-6.808,-15.18,11.74,-84.26,-3.136,0,0,0,0,0,0,0,0,0,0,0,0,0,0,0,0,
470,-2.516,-24.69,93.01,172.1,21.98,-14.37,-43.21,69.27,-54.53,-0.7034,-11.64,-26.1,-22.81,11.13,-97.3,-13.01,0,0,0,0,0,0,0,0,0,0,0,0,0,0,0,0,
471,-15.53,-13.02,45.04,81.82,-17.86,-14.94,-8.711,11.65,-40.87,15.45,-15.44,-24.42,-13.95,8.023,-86.49,-8.938,0,0,0,0,0,0,0,0,0,0,0,0,0,0,0,0,
472,-21.09,-4.583,-81.56,-103,-50.26,-16.59,30.19,-51.4,-37.84,18,-14.44,5.767,2.632,21.98,-66.67,2.479,0,0,0,0,0,0,0,0,0,0,0,0,0,0,0,0,
473,9.445,5.209,-93.97,-112.4,-7.137,22.64,38.54,-29.92,-17.02,10.45,9.788,42.65,21.95,35.79,-47.03,22.01,0,0,0,0,0,0,0,0,0,0,0,0,0,0,0,0,
474,40.75,22.11,-20.66,4.807,24.59,22.47,8.134,6.926,14.19,5.098,20.77,35.94,14.2,30.71,-49.3,16.67,0,0,0,0,0,0,0,0,0,0,0,0,0,0,0,0,
475,-7.871,-1.264,6.385,3.964,-43.42,-58.35,-31.6,-32.63,28.49,0.1228,-13.57,-28.1,-40.06,13.83,-93.52,-37.42,0,0,0,0,0,0,0,0,0,0,0,0,0,0,0,0,
476,-81.61,-58.97,31.57,-31.63,-85.48,-89.95,-55.57,-56.58,2.886,-11.03,-46.1,-79.31,-80.22,-2.219,-121.1,-66.83,0,0,0,0,0,0,0,0,0,0,0,0,0,0,0,0,
477,-48.07,-66.01,45.56,23.26,-11.37,-24,-52.92,7.19,-64.95,-8.079,-27.98,-59.72,-58.29,-4.69,-87.39,-27.4,0,0,0,0,0,0,0,0,0,0,0,0,0,0,0,0,
478,2.929,-36.51,0.7862,34.85,18.67,-10.51,-52.23,38.59,-59.58,2.854,-26.13,-45.12,-32.17,-4.307,-70.93,-4.392,0,0,0,0,0,0,0,0,0,0,0,0,0,0,0,0,
479,-58.67,-37.98,-14.85,-19.91,-32.31,-67.07,-45,-34.15,33.31,-0.8538,-65.24,-65.66,-25.19,-3.119,-89.33,-16.38,0,0,0,0,0,0,0,0,0,0,0,0,0,0,0,0,
480,-71.47,-21.6,-51.41,-59.57,-15.62,-20.73,29.05,-68.27,41.51,9.889,-30.38,-24.49,-2.235,16.46,-62.66,0.2245,0,0,0,0,0,0,0,0,0,0,0,0,0,0,0,0,
481,27.19,8.778,-136.1,-68.69,12.94,71.26,71.11,30.25,14.84,28.21,49.78,30.43,-2.201,23.36,-28.16,15.51,0,0,0,0,0,0,0,0,0,0,0,0,0,0,0,0,
482,40.62,-20.24,-41.61,-1.245,-11.33,45.85,5.925,65.29,53.12,10.69,43.46,9.753,-25.71,11.59,-46.01,4.574,0,0,0,0,0,0,0,0,0,0,0,0,0,0,0,0,
483,14.18,-21.45,137.2,52.02,18.34,12.28,4.973,-78.1,20.96,-0.5262,7.378,2.935,-6.762,23.55,-59.03,5.981,0,0,0,0,0,0,0,0,0,0,0,0,0,0,0,0,
484,56.36,36.87,102.5,-0.2071,48.48,29.89,64.5,-126.7,-3.899,17.52,1.464,17.05,11.63,25.1,-45.22,10.3,0,0,0,0,0,0,0,0,0,0,0,0,0,0,0,0,
485,10.44,17.99,32.25,20.77,14.11,-15.7,0.2863,23.93,92.31,7.767,-20.57,-22.29,-11.18,-3.666,-41.21,5.075,0,0,0,0,0,0,0,0,0,0,0,0,0,0,0,0,
486,-88.91,-39.48,76.67,109.3,23.31,-65.48,-80.07,81.43,70.35,-19.9,-20.82,-43.01,-20.3,-4.742,-42.71,1.637,0,0,0,0,0,0,0,0,0,0,0,0,0,0,0,0,
487,-58.25,-34.78,7.319,47.55,42.85,-32.83,-51.4,-5.789,-51.5,-24.11,14.25,-21.53,-22.08,7.098,-37.16,-1.945,0,0,0,0,0,0,0,0,0,0,0,0,0,0,0,0,
488,-13.45,-50.54,-147.7,-73.11,2.911,3.567,-57.44,-46.85,-24.49,-24,9.463,-33.59,-45.23,-9.823,-36.13,-0.8573,0,0,0,0,0,0,0,0,0,0,0,0,0,0,0,0,
489,-54.8,-95.65,-152.6,-101.5,-19.52,-19.81,-122.3,-66.42,20.47,-32.33,-22.39,-55.85,-59.71,-27.12,-51.57,-9.8,0,0,0,0,0,0,0,0,0,0,0,0,0,0,0,0,
490,-72.24,-83.94,-33.73,-87.57,-20.69,-89.77,-115.8,-93.73,-18.75,-38.24,-22.34,-44.5,-55.72,-29.05,-62.48,-28.56,0,0,0,0,0,0,0,0,0,0,0,0,0,0,0,0,
491,-50.67,-53.5,50.3,-43.7,-14.3,-122.9,-67,-63.62,-16.4,-33.87,5.28,-18.67,-35.86,-18.22,-45.41,-16.31,0,0,0,0,0,0,0,0,0,0,0,0,0,0,0,0,
492,-33.81,-43.01,28.56,-17.74,22.87,-66.86,-51.25,-56.84,-10.85,-23.73,21.83,-0.4323,-4.054,7.221,-34.21,7.781,0,0,0,0,0,0,0,0,0,0,0,0,0,0,0,0,
493,-18.69,-24.36,-28.33,-70.2,28.77,-30.64,-40.68,-105.1,-22.19,-29.01,1.845,-7.41,5.457,17.1,-48.21,2.161,0,0,0,0,0,0,0,0,0,0,0,0,0,0,0,0,
494,-26.41,-24.49,-34.12,-93.76,14.77,-59.65,-51.46,-95.05,8.953,-37.74,-23.05,-32.07,-12.49,0.5846,-52.43,-9.486,0,0,0,0,0,0,0,0,0,0,0,0,0,0,0,0,
495,-48.17,-56.89,-46.91,-52.68,37.15,-57.98,-100.9,-36.12,20.06,-26.59,-14.92,-45.95,-24.75,-8.058,-40.23,-6.948,0,0,0,0,0,0,0,0,0,0,0,0,0,0,0,0,
496,-55.6,-66.78,-84.9,-35.34,33.4,-48.53,-91.97,-25.56,-5.129,-22.42,-4.489,-49.19,-26.49,-5.26,-33.45,-5.927,0,0,0,0,0,0,0,0,0,0,0,0,0,0,0,0,
497,-58.17,-50,-82.55,-50.78,-5.474,-92.47,-31.99,-59.77,-32.96,-40.36,-15.25,-57.92,-36.48,-15.06,-39.19,-15.5,0,0,0,0,0,0,0,0,0,0,0,0,0,0,0,0,
498,-66.52,-53.4,-74.3,-77.18,-29.22,-107.6,-56.22,-57.12,-51.24,-53.21,-9.614,-63.56,-49.42,-25.26,-39.85,-23.16,0,0,0,0,0,0,0,0,0,0,0,0,0,0,0,0,
499,-84.72,-73.95,-62.64,-61.41,-39.71,-64.38,-124.5,-11.52,-30.19,-45.57,19.31,-43.04,-44.18,-11.93,-19.15,-15.06,0,0,0,0,0,0,0,0,0,0,0,0,0,0,0,0,
500,-79.98,-77.06,-4.6,-1.487,-14.5,-62.26,-112,-22.78,-37.95,-23.77,18.73,-15.43,-21.95,15.31,-9.363,-1.34,0,0,0,0,0,0,0,0,0,0,0,0,0,0,0,0,
501,-34.76,-54.6,13.49,-39.29,17.9,-93.99,-58.23,-60.7,-71.26,-4.995,-13.69,-11.93,3.054,37.21,-21.06,12.41,0,0,0,0,0,0,0,0,0,0,0,0,0,0,0,0,
502,-15.19,-21.25,-30.76,-110.8,5.442,-48.56,-22.06,-28.5,-7.443,5.281,-19.6,-0.7487,22.71,50.75,-15.69,30.61,0,0,0,0,0,0,0,0,0,0,0,0,0,0,0,0,
503,-11.81,7.043,-27.67,-44.14,14.13,30.17,21.65,-34.37,44.64,13.05,0.1831,30.47,29.91,56.76,-7.697,36.91,0,0,0,0,0,0,0,0,0,0,0,0,0,0,0,0,
504,25.59,23.65,6.708,10.08,34.77,12.64,47.04,-93.01,-15.22,-0.7014,9.705,33.42,24.16,45.78,-13.09,28.58,0,0,0,0,0,0,0,0,0,0,0,0,0,0,0,0,
505,17.99,14.84,0.2148,-11.39,-12.7,-51.15,-0.934,-52.74,-27.22,-32.02,22.18,17.73,10.51,21.72,2.828,28.06,0,0,0,0,0,0,0,0,0,0,0,0,0,0,0,0,
506,-36.03,-17.71,-7.143,24.76,-40.11,-57.34,-57.39,-21.15,17.22,-29.96,35.98,22.34,0.7812,15.71,24.63,37.08,0,0,0,0,0,0,0,0,0,0,0,0,0,0,0,0,
507,-34.78,-24.49,-3.22,-30.3,5.627,-46.22,-26.18,-93.96,1.102,-3.332,26.47,26.96,11.45,30.48,18.74,40.73,0,0,0,0,0,0,0,0,0,0,0,0,0,0,0,0,
508,-17,2.348,-35.88,-161.3,15.21,-46.94,12.18,-82.91,-27.46,-9.316,18.57,27.07,34.09,44.43,12.27,43.21,0,0,0,0,0,0,0,0,0,0,0,0,0,0,0,0,
509,-14.59,9.258,-70.82,-58.04,-15.86,-16.6,-40.37,26.05,-24.35,-27.81,31.11,44.24,48.14,58.51,28.21,56.52,0,0,0,0,0,0,0,0,0,0,0,0,0,0,0,0,
510,24.02,1.806,-37.87,106.3,-3.056,19.99,-79.58,68.74,-11.1,-15.9,35.48,56.07,48.51,51.6,39.88,59.85,0,0,0,0,0,0,0,0,0,0,0,0,0,0,0,0,
511,49.63,11.38,40.98,63.96,34.45,20.28,-39.75,33.49,16.15,-8.455,25.99,43.6,37.24,18.86,26.07,40.96,0,0,0,0,0,0,0,0,0,0,0,0,0,0,0,0,
512,24.03,16.54,73,30.14,37.84,4.248,-9.159,-17.73,45.88,-28.38,24.75,29.08,30.91,20.54,22.9,43.36,0,0,0,0,0,0,0,0,0,0,0,0,0,0,0,0,
513,8.663,13.64,15.47,40.64,21.04,-2.069,6.227,-35.78,51.77,-32.03,34.88,31.41,40.64,47.73,50.36,71.35,0,0,0,0,0,0,0,0,0,0,0,0,0,0,0,0,
514,29.89,24.01,-54,-68.95,36.43,21.26,34.09,-38.51,22.23,-6.497,44.2,45.53,46.6,44.43,51.45,70.31,0,0,0,0,0,0,0,0,0,0,0,0,0,0,0,0,
515,56.15,34.32,-41.82,-128.1,55.34,59.59,24.89,-64.08,1.151,16.97,42.57,47.83,42.67,41.15,17.53,47.8,0,0,0,0,0,0,0,0,0,0,0,0,0,0,0,0,
516,46.97,26.22,32.09,-25.15,5.9,54.82,-6.651,-21.08,28.21,27.23,37.59,37.38,46.72,52.77,12.23,47.17,0,0,0,0,0,0,0,0,0,0,0,0,0,0,0,0,
517,30.07,20.06,76.75,63.96,-45.53,27.74,-4.796,55.64,49.71,26.58,45.99,46.58,59.92,45.9,30.68,57.02,0,0,0,0,0,0,0,0,0,0,0,0,0,0,0,0,
518,53.42,39.76,30.99,39.26,-14.72,35.07,19.32,-14.37,42.07,18.19,55.75,62.53,63.47,32.35,30.55,51.63,0,0,0,0,0,0,0,0,0,0,0,0,0,0,0,0,
519,55.01,52.96,-45.44,-59.88,8.087,32.18,41.65,-101.4,17.31,12.46,52.58,48.24,44.09,15.55,22.35,32.54,0,0,0,0,0,0,0,0,0,0,0,0,0,0,0,0,
520,16.93,27.86,-25.9,-95.01,-20.59,2.478,39.26,-11.4,-19.3,6.992,51.97,26.94,21.15,-9.092,23.22,18.96,0,0,0,0,0,0,0,0,0,0,0,0,0,0,0,0,
521,2.929,1.312,41.44,27.49,-5.792,4.52,-12.62,83.73,14.87,-10.24,51.02,24.22,17.95,-9.165,29.1,24.95,0,0,0,0,0,0,0,0,0,0,0,0,0,0,0,0,
522,-11.03,-8.842,34.35,132.4,26.67,13.56,-65.48,44.64,77.8,-26.62,44.59,35.44,22.94,9.777,38.55,35.61,0,0,0,0,0,0,0,0,0,0,0,0,0,0,0,0,
523,-11.31,-12.67,25.58,80.91,-1.523,2.523,-36.4,-19.58,44.9,-18.92,58.89,63.45,32.23,17.66,52.87,39.4,0,0,0,0,0,0,0,0,0,0,0,0,0,0,0,0,
524,32.22,13.88,52.54,7.685,-17.22,15.07,36.15,-54.71,32.67,-5.306,72.03,80.43,49.76,18.88,56.2,48.09,0,0,0,0,0,0,0,0,0,0,0,0,0,0,0,0,
525,33.29,43.46,24.4,-7.945,21.12,28.95,41.52,-47.72,60.58,-7.461,42.79,61.6,49.53,14.84,26.25,52.16,0,0,0,0,0,0,0,0,0,0,0,0,0,0,0,0,
526,15.72,23.44,9.598,-9.835,30.58,13.65,1.464,25.6,-19.85,-4.444,6.934,37.26,24.17,1.193,-13.54,31.01,0,0,0,0,0,0,0,0,0,0,0,0,0,0,0,0,
527,28.81,-10.8,66.08,26.44,0.6965,1.239,-9.995,68.09,-40.97,-12.26,-13.06,13.05,-1.837,-17.95,-23.51,1.516,0,0,0,0,0,0,0,0,0,0,0,0,0,0,0,0,
528,-20.5,-23.97,75.01,94.74,-5.407,-5.98,-19.45,25.87,75.74,-47.68,-29.75,-10.36,-14.55,-33.75,-15.12,-11.68,0,0,0,0,0,0,0,0,0,0,0,0,0,0,0,0,
529,-57.55,-25.81,32.17,95.84,10.07,-3.452,-22.38,0.0941,56.18,-39.74,-11.75,3.726,-13.64,-32.21,-13.64,-19.57,0,0,0,0,0,0,0,0,0,0,0,0,0,0,0,0,
530,9.261,-17.48,17.81,15.36,8.261,7.802,12.59,12.42,-36.58,1.148,18.8,22.69,-16.92,-34.41,-21.64,-35.43,0,0,0,0,0,0,0,0,0,0,0,0,0,0,0,0,
531,12.16,-14.32,25.67,-9.563,-10.11,-14.26,21.48,-2.164,24.51,-16.73,4.403,2.66,-27.31,-56.63,-26.27,-39.34,0,0,0,0,0,0,0,0,0,0,0,0,0,0,0,0,
532,-50.38,-15.8,57.73,70.14,-20.54,-26.86,-0.4689,-16.16,56.29,-41.58,-10.5,-6.598,-18.52,-57.54,-14.86,-22.92,0,0,0,0,0,0,0,0,0,0,0,0,0,0,0,0,
533,-22.28,-2.305,67.41,77.01,-19.48,11.6,13.92,0.7111,-41.16,-20.97,-12.63,-0.387,-10.9,-39.67,-15.37,-19.72,0,0,0,0,0,0,0,0,0,0,0,0,0,0,0,0,
534,-0.5954,-0.8724,6.596,-33.5,-26.39,7.881,23.37,9.513,-49.85,-12.12,-55.52,-30.62,-34.05,-41.55,-44.51,-39.74,0,0,0,0,0,0,0,0,0,0,0,0,0,0,0,0,
535,-65.24,-26.6,-14.51,-53.68,-47.92,-55.16,-10.97,12.85,17.28,-0.4941,-92.96,-69.11,-57.72,-45.33,-67.19,-56.62,0,0,0,0,0,0,0,0,0,0,0,0,0,0,0,0,
536,-96.58,-47.99,16.06,21.29,-57.7,-71.35,-29.26,17.92,-33.08,11,-81.54,-80.7,-67.73,-47.72,-82.37,-68.86,0,0,0,0,0,0,0,0,0,0,0,0,0,0,0,0,
537,-73.37,-45.24,-29.07,31.69,-40.58,-33.57,-9.28,-6.263,-110.5,-28.57,-65.73,-83.43,-66.09,-49.42,-92.83,-73.77,0,0,0,0,0,0,0,0,0,0,0,0,0,0,0,0,
538,-68.99,-18.65,-61.63,30.05,-29.26,-11.43,15.34,-9.858,-50.25,-39.01,-52.62,-77.52,-43.99,-29.37,-71.3,-60.41,0,0,0,0,0,0,0,0,0,0,0,0,0,0,0,0,
539,-77.68,-2.666,40.06,75.91,-31.65,-17.38,11.67,42.96,8.197,5.709,-38.46,-58.29,-38.25,-39.93,-53.02,-55.99,0,0,0,0,0,0,0,0,0,0,0,0,0,0,0,0,
540,-53.03,-25.07,119.7,85.82,-18.23,-35.25,-25.67,41,-43.09,-0.976,-38.18,-35.69,-54.14,-81.71,-58.8,-60.06,0,0,0,0,0,0,0,0,0,0,0,0,0,0,0,0,
541,-20.06,-37.6,58.67,38.13,-10.65,-57.86,-33,-20.35,-34.77,-35.8,-36.75,-23.27,-42.36,-63.12,-44.72,-39.14,0,0,0,0,0,0,0,0,0,0,0,0,0,0,0,0,
542,-37.81,-15.6,-1.718,-28.4,-14.51,-62.25,19.15,2.816,26.77,-30.89,-34.99,-30.95,-25.65,-25.7,-28.92,-15.59,0,0,0,0,0,0,0,0,0,0,0,0,0,0,0,0,
543,-53.47,-10.47,26.56,-34,6.329,-39.55,31.3,50.56,-23.74,-28.05,-33.91,-33.2,-33.26,-36.37,-30.12,-8.604,0,0,0,0,0,0,0,0,0,0,0,0,0,0,0,0,
544,-24.33,-31.67,26.98,60.75,4.031,-34.82,-34.63,-5.216,-67.4,-35.85,-20.39,-18.68,-33.36,-39.74,-11.65,1.595,0,0,0,0,0,0,0,0,0,0,0,0,0,0,0,0,
545,-31.45,-43.6,-38.76,88.51,-41.01,-50.9,-62.42,-52.56,-5.331,-25.82,-17.87,-16.29,-31.9,-34.91,5.511,4.712,0,0,0,0,0,0,0,0,0,0,0,0,0,0,0,0,
546,-57.51,-44.77,-48.88,-14.16,-39.71,-31.77,-32.86,-23.99,18.39,-20.07,-29.95,-20.64,-40.94,-49.13,-2.357,-7.613,0,0,0,0,0,0,0,0,0,0,0,0,0,0,0,0,
547,-37.4,-42.74,16.2,-32.09,2.06,-12.19,-46.93,-6.997,-5.013,-34.76,-30.99,-19.33,-36.13,-46.94,-2.645,-16.98,0,0,0,0,0,0,0,0,0,0,0,0,0,0,0,0,
548,-30.17,-31.37,73.12,52.96,18.06,-35,-62.52,21.14,-17.55,-45.55,-24.84,-20.52,-25.67,-39.8,5.99,-17.46,0,0,0,0,0,0,0,0,0,0,0,0,0,0,0,0,
549,-32.98,-21.03,87.88,50.45,28.1,-31.18,-12.53,57.52,-46.85,-35.91,-20.41,-16.46,-27.71,-49.55,4.71,-15.52,0,0,0,0,0,0,0,0,0,0,0,0,0,0,0,0,
550,-14.81,-25.54,28.8,2.599,28.77,-1.506,4.301,12.87,-38.75,-29.6,-29.84,-23.95,-37.94,-53.78,-8.457,-24.27,0,0,0,0,0,0,0,0,0,0,0,0,0,0,0,0,
551,-33.98,-34.13,-64.19,-3.144,-7.809,-10.12,-22.66,-37.65,-19.63,-35.96,-49.72,-47.43,-48.18,-54.07,-26.63,-34.57,0,0,0,0,0,0,0,0,0,0,0,0,0,0,0,0,
552,-46.92,-34.22,-73.83,-48.21,-34.2,-19.9,0.8283,-28.05,-70.39,-28.79,-42.33,-41.04,-40.67,-53.07,-28.06,-20.23,0,0,0,0,0,0,0,0,0,0,0,0,0,0,0,0,
553,-14.41,-29.66,-30.54,-76.65,-30.88,-18.14,5.367,-28.04,-70.57,-22.33,-21.01,-21.58,-19.23,-40.1,-13.78,-1.765,0,0,0,0,0,0,0,0,0,0,0,0,0,0,0,0,
554,-32.36,-27.3,-14.37,5.678,-48.72,-40.85,-55.72,-1.969,-6.908,-38.09,-21.99,-32.42,-13.38,-32.11,-1.831,-8.283,0,0,0,0,0,0,0,0,0,0,0,0,0,0,0,0,
555,-59.66,-32.09,9.763,60.04,-63.63,-36,-62.66,57.98,-24.68,-46.46,-18.01,-37.2,-21.9,-42.59,9.924,-24.4,0,0,0,0,0,0,0,0,0,0,0,0,0,0,0,0,
556,-9.981,-34,27.26,36.67,-16.63,5.468,-10.53,28.63,-42.8,-37.63,-8.394,-27.55,-27.76,-54.04,4.383,-37,0,0,0,0,0,0,0,0,0,0,0,0,0,0,0,0,
557,-6.934,-25.08,-3.906,41.08,15.95,-4.393,-1.595,-48.67,9.605,-35.07,-38.66,-52.01,-36.41,-54.59,-30.58,-46.57,0,0,0,0,0,0,0,0,0,0,0,0,0,0,0,0,
558,-76.11,-29.91,-9.587,29.82,-18.4,-36.21,-22.43,-48.18,-0.6738,-44.52,-68.98,-75.52,-43.16,-52.15,-46.38,-41.77,0,0,0,0,0,0,0,0,0,0,0,0,0,0,0,0,
559,-45.93,-39.16,43.78,-9.095,-18.38,-1.447,-11.96,-7.473,-50.52,-42.61,-34.27,-39.23,-29.25,-46.52,-21.7,-22.03,0,0,0,0,0,0,0,0,0,0,0,0,0,0,0,0,
560,34.11,-17.87,64.26,19.62,5.139,25.19,7.817,4.958,-28.64,-10.13,1.173,-7.679,-17.74,-43.14,-11.83,-17.37,0,0,0,0,0,0,0,0,0,0,0,0,0,0,0,0,
561,-1.422,-16.29,28.08,50.94,-26.23,-16.96,-21.55,0.5633,-12.2,4.529,-23.64,-33.87,-37.97,-56.89,-28.37,-36.93,0,0,0,0,0,0,0,0,0,0,0,0,0,0,0,0,
562,-43.09,-59.24,9.342,10.07,-15.95,-16.45,-63.92,7.031,-45.75,-31.77,-30.03,-45.97,-51.76,-68.66,-19.17,-39.1,0,0,0,0,0,0,0,0,0,0,0,0,0,0,0,0,
563,-3.129,-62.59,2.906,-13.16,41.44,25.63,-45.71,11.97,-24.47,-44,2.941,-27.73,-27.47,-57.49,10.2,-11.36,0,0,0,0,0,0,0,0,0,0,0,0,0,0,0,0,
564,-12.59,-26.77,-13.18,44.37,14.86,3.693,-25.38,-9.944,52.56,-5.004,8.628,-18.38,13.23,-27.74,36.93,26.65,0,0,0,0,0,0,0,0,0,0,0,0,0,0,0,0,
565,-27.15,-6.497,24.02,103.1,-16.1,4.528,-23.97,-25.31,84.86,22.38,38.51,30.36,63.42,17.62,91.17,81.67,0,0,0,0,0,0,0,0,0,0,0,0,0,0,0,0,
566,55.28,34.57,82.31,45.18,47.09,71.57,58.11,-20.52,82.28,33.24,107.7,89.59,93.51,46.31,130.2,112.4,0,0,0,0,0,0,0,0,0,0,0,0,0,0,0,0,
567,85.95,67.61,81.26,-49.3,80.08,63.29,128.4,-15.98,83.68,32.31,93.48,54.8,60.67,34.7,87.17,75.62,0,0,0,0,0,0,0,0,0,0,0,0,0,0,0,0,
568,32.37,30,59.35,-3.385,28.87,13.75,43.23,29.77,39.43,1.756,39,4.682,20.57,24.96,46.31,51.03,0,0,0,0,0,0,0,0,0,0,0,0,0,0,0,0,
569,32.63,-1.153,-0.025,66.92,-8.482,22.06,-56.73,77.02,-25.7,-12.16,59.58,19.49,20.86,35.15,65.13,73.31,0,0,0,0,0,0,0,0,0,0,0,0,0,0,0,0,
570,20.33,-1.721,-92.32,9.468,-14.82,1.149,-61.8,26.03,-9.53,4.073,56.25,-2.182,12.05,33.63,56.88,61.88,0,0,0,0,0,0,0,0,0,0,0,0,0,0,0,0,
571,-59.2,-31.12,-58.55,-14.2,-29.49,-50.63,-68.67,-44,39.11,-1.108,-5.933,-52.64,-4.483,11.95,22.64,29.94,0,0,0,0,0,0,0,0,0,0,0,0,0,0,0,0,
572,-64.88,-35.25,36.56,46.16,-24.21,-49.74,-80.54,-44.34,13.36,-11.83,0.1677,-24.73,7.874,-15.59,27.1,31.74,0,0,0,0,0,0,0,0,0,0,0,0,0,0,0,0,
573,-4.573,-3.998,-12.3,4.957,-1.229,-42.94,-44.73,-37.66,-20.95,-3.515,28.11,9.037,6.593,-37.11,25.03,21.36,0,0,0,0,0,0,0,0,0,0,0,0,0,0,0,0,
574,-16.44,-15.95,-87.11,-99.73,-24.35,-44.68,-6.888,-55.56,2.868,-5.535,-10.16,-25.69,-25.97,-51.08,-2.675,-12.81,0,0,0,0,0,0,0,0,0,0,0,0,0,0,0,0,
575,-60.48,-30.09,-42.66,-83.07,-58.83,-29.48,-0.3744,-68.95,1.073,-12.85,-23.89,-43.47,-40.76,-59.88,-5.025,-21.42,0,0,0,0,0,0,0,0,0,0,0,0,0,0,0,0,
576,-52.16,-13.46,5.962,6.388,-43.12,-49.21,-16.43,-50.5,-32.83,-17.26,-1.646,-29.56,-33.76,-61.34,-1.448,-15.52,0,0,0,0,0,0,0,0,0,0,0,0,0,0,0,0,
577,-45.94,-19.91,2.687,36.62,-30.98,-70.13,-26.99,3.277,-20.75,-29.1,-24.03,-43.6,-29.87,-54,-17.88,-22.02,0,0,0,0,0,0,0,0,0,0,0,0,0,0,0,0,
578,-60.48,-24.84,0.2026,37.48,-32.22,-28.44,-5.621,24.47,-5.931,-20.43,-45.47,-54.09,-28.37,-38.94,-25.62,-34.82,0,0,0,0,0,0,0,0,0,0,0,0,0,0,0,0,
579,-46.33,-13,-4.337,25.54,-10.19,-4.834,2.771,-9.887,-18.28,-1.362,-30.58,-38.66,-26.34,-33.88,-19.54,-42.59,0,0,0,0,0,0,0,0,0,0,0,0,0,0,0,0,
580,-25.41,-18.41,-10.87,-30.12,-7.779,-27.87,-13.12,-17.04,-2.752,-11.28,-24.22,-24.3,-12.31,-41.11,-5.595,-27.56,0,0,0,0,0,0,0,0,0,0,0,0,0,0,0,0,
581,-13.65,-8.925,-28.48,-25.26,-17.41,-25.44,-2.468,20.26,12.77,-14.32,-24.82,-15.58,1.419,-38.5,-0.032,-16.87,0,0,0,0,0,0,0,0,0,0,0,0,0,0,0,0,
582,-16.36,-4.339,-63.22,54.43,-12.42,-23.35,-13.98,27.3,1.905,-1.217,-35.47,-36.56,-29.71,-50.14,-32.15,-52.16,0,0,0,0,0,0,0,0,0,0,0,0,0,0,0,0,
583,-62.72,-46.29,-24.95,60.83,-26.91,-37.92,-62.83,-16.11,-1.613,-17.78,-59.36,-67.66,-66.56,-75.52,-56.16,-73.44,0,0,0,0,0,0,0,0,0,0,0,0,0,0,0,0,
584,-66.18,-47.77,70.89,18.52,-13.08,-10.82,-38.5,-54.01,-5.375,-31.19,-53.94,-51.31,-50.15,-59.31,-36.38,-43.15,0,0,0,0,0,0,0,0,0,0,0,0,0,0,0,0,
585,-5.537,-6.992,53.02,-9.263,30.94,7.524,17.49,-40.87,7.659,-14.16,-48.39,-50.56,-39.99,-38.59,-36.7,-37.01,0,0,0,0,0,0,0,0,0,0,0,0,0,0,0,0,
586,-33.93,-26.86,-34.3,-56.66,-4.164,-31.06,-12.27,-0.6587,24.6,-8.985,-80.72,-92.63,-56.14,-52.85,-54.78,-55.63,0,0,0,0,0,0,0,0,0,0,0,0,0,0,0,0,
587,-93.17,-44.08,-33.79,-45.63,-61.45,-36.42,-40.66,-8.321,-32.84,-0.2589,-77.42,-67.35,-29.33,-39.82,-29.78,-36.3,0,0,0,0,0,0,0,0,0,0,0,0,0,0,0,0,
588,-31.88,7.66,-20.34,26.02,-34.52,10.8,-0.2763,-49.75,-80.13,24.08,-22,3.529,10.8,-6.789,2.237,-8.398,0,0,0,0,0,0,0,0,0,0,0,0,0,0,0,0,
589,27.06,29.88,-25.71,52.72,-2.434,28.76,8.93,-16.73,-10.23,14.86,-4.853,9.677,8.385,-10.78,7.532,-4.784,0,0,0,0,0,0,0,0,0,0,0,0,0,0,0,0,
590,-1.777,6.378,39.49,68.11,-12.86,14.72,-12.46,30.67,53.69,-2.161,-26.69,-10.56,0.7309,-23.28,16.38,-2.678,0,0,0,0,0,0,0,0,0,0,0,0,0,0,0,0,
591,-5.975,14.83,85.5,60.52,2.668,21.53,23.95,-20.61,21.58,11.03,-9.669,5.146,5.126,-15.77,28.39,2.576,0,0,0,0,0,0,0,0,0,0,0,0,0,0,0,0,
592,40.68,33.44,55.94,5.396,36.29,50.47,63.4,-27.81,-23.31,14.65,33.56,22.48,0.1713,-13.33,31.16,-0.2716,0,0,0,0,0,0,0,0,0,0,0,0,0,0,0,0,
593,64.84,21.32,49.42,20.4,35.98,50.09,30.07,54.3,-24.59,15.78,33.66,9.664,-5.298,-26.87,27.69,-12.15,0,0,0,0,0,0,0,0,0,0,0,0,0,0,0,0,
594,34.49,14.39,60.96,77.12,30.81,13.1,-2.625,41.03,6.803,38.51,-1.964,-10.7,5.183,-24.21,17.89,-15.47,0,0,0,0,0,0,0,0,0,0,0,0,0,0,0,0,
595,0.7991,31.52,49.23,76.02,32.6,-0.5969,10.4,-12.89,34.81,45,-23.1,-9.823,27.28,11.92,13.31,-0.2925,0,0,0,0,0,0,0,0,0,0,0,0,0,0,0,0,
596,6.988,34.45,13.1,66.17,0.9063,5.38,4.162,9.255,36.34,33.13,-18.58,1.735,41.88,37.43,20.14,9.276,0,0,0,0,0,0,0,0,0,0,0,0,0,0,0,0,
597,13.97,20.11,-41.59,43.16,-13.78,-0.5933,-9.362,10.2,33.06,30.71,5.369,15.67,46.15,32.5,32.39,11.95,0,0,0,0,0,0,0,0,0,0,0,0,0,0,0,0,
598,31.35,30.1,-34.65,-11.5,13.86,16.03,14.48,-13.97,26.56,38.2,30.93,42.2,47.44,27.83,47.04,21.99,0,0,0,0,0,0,0,0,0,0,0,0,0,0,0,0,
599,64.87,47.22,24.8,-15.93,-17.43,28.17,26.61,-21.03,15.58,47.9,35.82,52.75,29.93,16.03,51.19,14.76,0,0,0,0,0,0,0,0,0,0,0,0,0,0,0,0,
600,31.68,31.58,32.48,32.7,-68.63,-15.38,11.35,-34.43,19.52,33.06,29.11,25.41,-3.957,-15.77,32.05,-14.77,0,0,0,0,0,0,0,0,0,0,0,0,0,0,0,0,
601,-19.65,5.434,27.33,42.56,-30.77,-48.44,-7.225,-9.285,12.53,6.173,10.81,-11.21,-24.55,-36.13,1.374,-32.19,0,0,0,0,0,0,0,0,0,0,0,0,0,0,0,0,
602,-0.3097,-7.996,46.27,-1.96,13.68,-28.78,-37.14,13.65,-1.877,18.18,-19.4,-34.44,-24.12,-26.79,-8.601,-25.14,0,0,0,0,0,0,0,0,0,0,0,0,0,0,0,0,
603,15.8,-1.387,38.73,12.68,14.73,3.576,-38.93,-10.25,10.72,30.68,-14.63,-31.54,-5.879,-3.393,11.95,-6.071,0,0,0,0,0,0,0,0,0,0,0,0,0,0,0,0,
604,10.4,26,30.5,88,8.805,20.69,0.9625,12.03,1.696,4.226,19.84,-9.148,16.27,11.25,24.25,6.086,0,0,0,0,0,0,0,0,0,0,0,0,0,0,0,0,
605,23.47,32.45,23.71,28.38,-39.55,-1.533,19.12,25.34,-25.04,-0.1042,20.7,-1.81,21.75,13.35,16.79,6.038,0,0,0,0,0,0,0,0,0,0,0,0,0,0,0,0,
606,13.45,18.42,-8.977,-87.1,-64.52,-20.12,20.33,-25.78,6.932,28.01,17.96,6.153,29.25,26.77,35.45,19.26,0,0,0,0,0,0,0,0,0,0,0,0,0,0,0,0,
607,9.595,35.36,-5.688,17.26,-1.624,27.65,35.8,2.905,48.38,36.1,59.49,37.77,49.55,53,74.47,46.63,0,0,0,0,0,0,0,0,0,0,0,0,0,0,0,0,
608,43.66,62.25,40.63,167.9,21.2,63.59,51.21,64.65,42.04,33.79,75.19,42.77,46.98,52.74,75.13,44.42,0,0,0,0,0,0,0,0,0,0,0,0,0,0,0,0,
609,55.57,67.05,90.78,120.5,1.2,61.56,81.35,31.42,25.71,43.8,35.15,19.18,26.31,27.58,51.91,17.33,0,0,0,0,0,0,0,0,0,0,0,0,0,0,0,0,
610,80.36,76.84,156.1,90.46,46.7,118.2,118.5,39.85,10.88,52.53,21.5,26.76,27.68,26.22,55.28,12.54,0,0,0,0,0,0,0,0,0,0,0,0,0,0,0,0,
611,125.6,87.91,166.1,163.4,73.66,159.9,114.1,105.2,31.22,56.19,37.44,39.18,36.59,38.83,61.95,16.63,0,0,0,0,0,0,0,0,0,0,0,0,0,0,0,0,
612,79.73,76.57,78.98,118.3,27.9,90.27,81.91,49.66,73.53,56.44,35.83,31.86,32.96,31.78,57.82,13.55,0,0,0,0,0,0,0,0,0,0,0,0,0,0,0,0,
613,20.89,61.34,30.09,2.144,7.041,40.43,68.06,-36.55,35.17,45.72,58.55,58.44,40.54,33.21,83.44,35.23,0,0,0,0,0,0,0,0,0,0,0,0,0,0,0,0,
614,72.09,60.5,61.96,-4.214,26.04,68.87,79.78,-4.152,9.514,28.91,96.85,88.54,54.13,42.16,108.4,52.87,0,0,0,0,0,0,0,0,0,0,0,0,0,0,0,0,
615,95.32,62.58,68.9,57.36,39.92,74.07,84.93,39.67,90.99,18.99,70.77,60.77,47.33,21.51,79.27,24.3,0,0,0,0,0,0,0,0,0,0,0,0,0,0,0,0,
616,41.03,49.92,54.91,122.9,37.78,67.33,50.5,51.31,87.21,14.57,28.32,36.62,39.6,4.378,47.09,3.619,0,0,0,0,0,0,0,0,0,0,0,0,0,0,0,0,
617,52.65,30.24,86.11,161.5,33.81,89.56,14.68,78.13,-2.738,7.667,42.02,50.27,51.87,17.04,54.05,24.1,0,0,0,0,0,0,0,0,0,0,0,0,0,0,0,0,
618,82.28,30.29,130.8,113.4,53.33,79.6,26.58,40.28,28.53,1.216,47.18,42.68,57.6,16.49,55.95,33.85,0,0,0,0,0,0,0,0,0,0,0,0,0,0,0,0,
619,37.99,32.65,128.4,52.05,51.06,34.31,37.39,-41.58,66.45,4.615,17.18,20.84,30.59,-8.06,36.61,10.44,0,0,0,0,0,0,0,0,0,0,0,0,0,0,0,0,
620,18.03,-1.38,105.2,59.98,9.528,19.4,11.13,-48.72,-1.113,15.72,16.66,24.81,-3.49,-22.99,28.6,-9.064,0,0,0,0,0,0,0,0,0,0,0,0,0,0,0,0,
621,39.03,-33.39,116.2,46.25,8.368,27.42,2.805,-21.6,-13.47,10.71,27.37,30.74,-5.223,-20.21,37.75,-4.467,0,0,0,0,0,0,0,0,0,0,0,0,0,0,0,0,
622,30.76,-11.39,108.2,2.536,18.75,25.14,22.6,2.26,11.28,-14.47,11.82,31.78,8.339,-16.46,44.14,-0.7629,0,0,0,0,0,0,0,0,0,0,0,0,0,0,0,0,
623,34.8,17.55,56.97,55.25,-1.819,35.72,13.72,41.75,-11.45,-25.42,12.98,43.11,-0.1978,-26.16,36.01,-17.55,0,0,0,0,0,0,0,0,0,0,0,0,0,0,0,0,
624,48.05,7.294,69.34,144.4,33.24,58.15,-29.61,35.6,21.13,-24.84,22.9,34.21,-16.95,-47.86,18.63,-37.75,0,0,0,0,0,0,0,0,0,0,0,0,0,0,0,0,
625,16.42,1.692,103.4,105.8,78.67,44.71,-43.8,-5.47,60.28,-37.02,2.44,7.173,-11.96,-53.33,10.72,-38.56,0,0,0,0,0,0,0,0,0,0,0,0,0,0,0,0,
626,-4.688,19.79,43.28,-2.634,26.27,-2.086,9.21,-30.87,9.285,-32.74,-13.43,0.472,5.21,-26.09,9.845,-25,0,0,0,0,0,0,0,0,0,0,0,0,0,0,0,0,
627,-4.189,16.9,5.683,-35.06,-24.99,-36.3,50.97,-73.83,-12.39,-7.037,-15.1,-9.624,9.88,1.316,-3.313,-19.33,0,0,0,0,0,0,0,0,0,0,0,0,0,0,0,0,
628,-26.64,-8.368,58.64,-4.588,2.03,-24.93,2.99,-73.24,-2.022,1.876,-16.17,-25.6,6.253,14.46,-2.264,-16.09,0,0,0,0,0,0,0,0,0,0,0,0,0,0,0,0,
629,-7.314,-24.26,79.04,44.71,20.21,27.6,-55.68,15.97,-44.05,-0.3324,-3.247,-16.24,-1.562,24.01,16.86,-13.1,0,0,0,0,0,0,0,0,0,0,0,0,0,0,0,0,
630,39.59,-44.09,76.73,97.19,7.268,51.08,-45.56,43.17,-31.39,-7.109,-19.7,-31.14,-29.79,3.523,-11.18,-41.81,0,0,0,0,0,0,0,0,0,0,0,0,0,0,0,0,
631,9.135,-64.58,113.6,67.2,26.35,18.59,4.078,-24.11,32.04,-18.62,-63.91,-64.11,-45.76,-26.99,-54.26,-70.66,0,0,0,0,0,0,0,0,0,0,0,0,0,0,0,0,
632,-11.47,-35.35,128.8,-8.076,67.15,13.66,60.75,-35.1,13.72,-8.057,-50.1,-30.54,-13.74,-14.15,-32.46,-52.53,0,0,0,0,0,0,0,0,0,0,0,0,0,0,0,0,
633,45.82,15.35,97.89,44.61,59.22,42.49,56.12,20.16,2.602,1.599,-12.07,13.91,5.652,-8.243,-6.648,-42.79,0,0,0,0,0,0,0,0,0,0,0,0,0,0,0,0,
634,43.08,9.781,44.61,141.8,3.217,17.18,-30.88,37.73,57.53,-15.28,-9.547,4.815,-21.27,-47.79,-13.74,-62.13,0,0,0,0,0,0,0,0,0,0,0,0,0,0,0,0,
635,-6.509,-16.21,18.14,91.83,-14.31,-26.84,-58.45,6.085,49.93,-22.31,19.27,18.88,-30.59,-68.63,11.17,-54.54,0,0,0,0,0,0,0,0,0,0,0,0,0,0,0,0,
636,30.01,3.58,90.35,16.58,28.71,5.283,5.921,-11.35,17.49,-21.88,69.14,56.41,-5.917,-48.83,41.05,-32.87,0,0,0,0,0,0,0,0,0,0,0,0,0,0,0,0,
637,62.35,27.79,154.8,47.98,37.06,47.49,27.03,3.1,41.4,-27.53,55.11,32.08,0.9012,-30.09,19.73,-36.1,0,0,0,0,0,0,0,0,0,0,0,0,0,0,0,0,
638,-10.29,6.874,85.83,72.16,-19.39,-7.8,-10.48,6.369,14.17,-16.43,-1.469,-28.44,-20.21,-29.79,-12.64,-50.14,0,0,0,0,0,0,0,0,0,0,0,0,0,0,0,0,
639,-72.81,-26.76,40.95,60.08,-40.24,-78.69,-38.67,3.016,-56.84,-13.29,-27.85,-48.72,-26.28,-28.41,-17.74,-50.18,0,0,0,0,0,0,0,0,0,0,0,0,0,0,0,0,
640,-52.72,-29.31,90.93,59.2,-13.23,-57.18,-37.45,-6.334,-57,-26.91,-27.37,-33.85,-6.366,-16.38,-7.089,-33.82,0,0,0,0,0,0,0,0,0,0,0,0,0,0,0,0,
641,-25.4,-14.96,52.19,6.186,-20.76,-12.34,9.925,-63.83,-35.63,-13.83,-33.22,-23.21,5.251,-14.52,1.312,-17.7,0,0,0,0,0,0,0,0,0,0,0,0,0,0,0,0,
642,-12.1,-8.964,-20.01,-44.4,-15.47,12.53,69.71,-57.23,-34.09,7.014,-34.04,-9.19,17.3,-7.732,5.515,-3.086,0,0,0,0,0,0,0,0,0,0,0,0,0,0,0,0,
643,25.79,4.678,51.65,47.41,42.37,59.73,64.43,81.38,-4.9,6.368,-14.26,19.91,46.69,20.8,13.51,9.411,0,0,0,0,0,0,0,0,0,0,0,0,0,0,0,0,
644,49.32,27.63,131.1,168.1,42.52,71.15,22.03,114.1,36.01,9.05,2.385,36.99,58.03,28.02,20.25,4.024,0,0,0,0,0,0,0,0,0,0,0,0,0,0,0,0,
645,26.33,49.05,91.76,128.7,-6.815,36.61,40.48,-13.68,48.91,18.83,7.984,41.78,55.51,19.87,20.68,-1.98,0,0,0,0,0,0,0,0,0,0,0,0,0,0,0,0,
646,29.18,77.81,47.97,18.28,4.516,57.42,95.43,-27.61,3.974,30.15,24.25,53.33,59.84,29.89,17.53,-0.156,0,0,0,0,0,0,0,0,0,0,0,0,0,0,0,0,
647,72.19,79.8,61.77,25.02,27.97,84.01,83.7,79.47,-53.01,41.39,39.22,45.36,41.62,22.58,6.357,-13.65,0,0,0,0,0,0,0,0,0,0,0,0,0,0,0,0,
648,54.42,37.06,110.1,124.1,12.01,31.12,20.66,96.08,-16.44,33.36,17.02,3.869,7.245,-6.059,-13.01,-32.8,0,0,0,0,0,0,0,0,0,0,0,0,0,0,0,0,
649,-14.17,7.107,178.5,176,29.38,-0.7356,1.353,39.7,31.68,23.21,-28.57,-29.59,-18.03,-22.47,-31.35,-46.75,0,0,0,0,0,0,0,0,0,0,0,0,0,0,0,0,
650,-11.49,-0.3261,214.9,158.1,74.67,47.58,54.43,11.59,3.128,25.28,-45.08,-28.4,-37.09,-33.51,-34.85,-53.73,0,0,0,0,0,0,0,0,0,0,0,0,0,0,0,0,
651,35.65,-15.43,204.5,125.5,71.31,83.93,118.1,-8.805,18.62,6.313,-28.63,-11.07,-30.16,-36.97,-13.64,-34.94,0,0,0,0,0,0,0,0,0,0,0,0,0,0,0,0,
652,32.97,-26.16,208.7,99.21,47.52,86.67,125.3,-24.53,49.42,-15.49,-11.04,14.35,-1.708,-31.7,20.37,-5.657,0,0,0,0,0,0,0,0,0,0,0,0,0,0,0,0,
653,47.19,-18.06,237.2,103,63.48,121.4,125.1,24.21,-9.432,1.956,13.08,57.7,17.04,-29.21,44.03,12.1,0,0,0,0,0,0,0,0,0,0,0,0,0,0,0,0,
654,109.6,11.34,215,142,85.91,159.4,146,112.2,-16.18,25.9,35.7,81.41,37.5,-5.798,46.54,27.04,0,0,0,0,0,0,0,0,0,0,0,0,0,0,0,0,
655,95.33,30.74,151.7,192,80.77,115.1,74,150.1,60.5,23.4,13.97,41.96,49.65,22.92,35.45,29.56,0,0,0,0,0,0,0,0,0,0,0,0,0,0,0,0,
656,11.87,9.971,174.8,261.5,69.79,27.86,-37.53,134.1,42.09,8.162,-17.95,-5.142,29.53,7.305,25.18,16.88,0,0,0,0,0,0,0,0,0,0,0,0,0,0,0,0,
657,-4.771,9.719,253,268.4,63.66,9.112,11.34,75.03,-26.88,0.3339,0.7236,1.27,20.95,-6.868,16.96,15.59,0,0,0,0,0,0,0,0,0,0,0,0,0,0,0,0,T2
658,31.17,54.23,229.1,121.6,72.73,56.26,132.7,-9.268,10.72,18.67,1.339,3.37,36.97,22.53,-2.053,17.49,0,0,0,0,0,0,0,0,0,0,0,0,0,0,0,0,
659,38.2,63.83,181.3,39.42,93.94,96.27,118.9,15.53,56.07,37.11,-67.1,-37.14,24.71,25.03,-31.82,-6.025,0,0,0,0,0,0,0,0,0,0,0,0,0,0,0,0,
660,40.37,29.01,243.9,198.2,90.27,101.2,11.8,146.3,-3.859,8.31,-87.78,-47.81,-0.3529,-12.04,-38.65,-29.59,0,0,0,0,0,0,0,0,0,0,0,0,0,0,0,0,
661,38.29,5.5,282.5,314.3,56.35,53.8,-61.16,165.1,-25.78,-25.52,-38.64,-21.76,7.968,-13.23,-7.991,-15.13,0,0,0,0,0,0,0,0,0,0,0,0,0,0,0,0,
662,-17.7,1.927,193.9,204.5,6.205,-21.08,-60.44,70.83,15.8,-1.365,-40.81,-18.11,25.51,16.71,17.62,13.22,0,0,0,0,0,0,0,0,0,0,0,0,0,0,0,0,
663,-46.65,14.74,110.6,102.4,-18.92,-27.46,-4.816,56.12,-39.03,30.2,-50.87,-3.823,32.82,28.78,19.62,19.5,0,0,0,0,0,0,0,0,0,0,0,0,0,0,0,0,
664,12.07,23.57,107.3,103.1,25.4,13.74,21.83,90.69,-84.18,6.554,-14.51,16.06,26.99,11.59,9.368,0.6578,0,0,0,0,0,0,0,0,0,0,0,0,0,0,0,0,
665,13.91,-7.249,123.1,91.24,53.33,-8.986,-10.41,61.57,-25.05,-24.54,-34.95,-22.63,-4.787,-27.22,-17.06,-29.88,0,0,0,0,0,0,0,0,0,0,0,0,0,0,0,0,
666,-42.31,-30.48,154.3,108.4,12.78,-23.12,1.156,66.82,-44.45,-18.25,-57.91,-34.25,-10.14,-37.36,-18.69,-32.1,0,0,0,0,0,0,0,0,0,0,0,0,0,0,0,0,
667,9.458,8.225,223.1,202.3,19.95,56.69,60.71,136.9,-75.05,-0.3464,-5.145,16.25,28.8,0.9208,14.23,-6.768,0,0,0,0,0,0,0,0,0,0,0,0,0,0,0,0,
668,51.07,39.43,300.3,274,86.91,98.92,64.55,78.05,22.58,38.16,-21.76,-8.066,25.91,22.22,1.928,-9.192,0,0,0,0,0,0,0,0,0,0,0,0,0,0,0,0,
669,-37.42,25.51,410.1,316.1,121.6,78.45,88.57,-42.4,52.98,90.61,-84.18,-59.95,3.641,19.87,-23.62,-7.764,0,0,0,0,0,0,0,0,0,0,0,0,0,0,0,0,
670,-44.46,45.35,568.4,423.7,166.3,143,212.8,96.02,8.677,87.79,-28.65,-0.1609,49.59,47.62,31,49.07,0,0,0,0,0,0,0,0,0,0,0,0,0,0,0,0,
671,72.57,93.26,661.6,575.5,277.6,266.4,289.9,351.9,63.89,78.42,47.18,79.65,99.28,81.1,92.79,92.28,0,0,0,0,0,0,0,0,0,0,0,0,0,0,0,0,
672,122.1,101.8,649.7,659.6,359.9,335.2,291.3,331.6,100.2,133.9,41.05,88.75,91.99,72.86,84.67,80.72,0,0,0,0,0,0,0,0,0,0,0,0,0,0,0,0,
673,110.2,102.3,637.1,644,330,353.9,344.7,198.2,45.24,142.8,27.21,80.02,83.92,51.65,67.46,70.51,0,0,0,0,0,0,0,0,0,0,0,0,0,0,0,0,
674,112.9,114.9,648.2,619.7,299.4,337.5,375.2,286.4,44.69,80.08,19.28,72.47,84.58,50.07,68.6,70.21,0,0,0,0,0,0,0,0,0,0,0,0,0,0,0,0,
675,104.9,103.2,648.7,652.8,361.9,292.9,284.6,416.5,105.8,82.53,14.11,64.45,64.25,37.6,56.39,52.65,0,0,0,0,0,0,0,0,0,0,0,0,0,0,0,0,
676,96.59,82.81,629.3,629.6,397.8,260.2,196.7,357.1,119.2,114.1,37.21,67.29,45.78,14.32,39.47,37.95,0,0,0,0,0,0,0,0,0,0,0,0,0,0,0,0,
677,110.3,76.05,541,483.7,358.1,239.7,188.1,255.9,64.64,81.42,43.4,60.05,37.63,23.13,28.78,36.71,0,0,0,0,0,0,0,0,0,0,0,0,0,0,0,0,
678,105.4,61.52,383.2,386.9,313.2,189.5,148.1,234.3,23.63,50.02,19.46,31.52,12.75,28.35,17.46,23.75,0,0,0,0,0,0,0,0,0,0,0,0,0,0,0,0,
679,49.02,24.45,218.8,337.4,222.6,108.8,38.48,212.5,39.82,42.85,13.29,2.54,-16.44,2.006,18.07,2.158,0,0,0,0,0,0,0,0,0,0,0,0,0,0,0,0,
680,1.403,-12.65,49.84,126.5,126.5,65.55,1.333,154.9,39.56,29.45,26.65,-1.482,-16.54,5.444,28.82,-4.732,0,0,0,0,0,0,0,0,0,0,0,0,0,0,0,0,
681,16.2,-12.13,-112.3,-107,114,78.09,59.02,94.06,24.65,30.16,36.25,11.62,-3.145,25.93,28.04,1.094,0,0,0,0,0,0,0,0,0,0,0,0,0,0,0,0,
682,16.79,2.41,-215.4,-133.6,67.05,64.12,48.92,67.83,53.52,17.45,35.02,14.4,-1.079,7.311,26.36,7.313,0,0,0,0,0,0,0,0,0,0,0,0,0,0,0,0,
683,-7.832,-5.973,-260.8,-119.4,-21.18,10.11,-5.427,69.73,43.68,-0.1452,19.61,15.5,-3.423,-15.29,27.12,-4.961,0,0,0,0,0,0,0,0,0,0,0,0,0,0,0,0,
684,22.01,-1.448,-278.3,-186.9,-10.22,-21.39,10.51,25.03,-14.99,43.71,-17.8,3.895,-20.82,-22.63,-4.512,-48.09,0,0,0,0,0,0,0,0,0,0,0,0,0,0,0,0,
685,22.18,7.203,-300,-216.4,-3.979,-46.18,-12.46,-34.28,-18.29,75.33,-64.63,-44.56,-53.14,-30.04,-52.56,-81.11,0,0,0,0,0,0,0,0,0,0,0,0,0,0,0,0,
686,-44.03,-15.96,-355.8,-240.3,-73.58,-79.01,-83.91,-13.19,-20.57,33.06,-69.01,-62.96,-51.19,-9.809,-55.75,-61.2,0,0,0,0,0,0,0,0,0,0,0,0,0,0,0,0,
687,-34.12,-13.64,-419.9,-328.4,-74.64,-88.13,-67.68,36.42,-54.37,13.1,-33.13,-25.38,-21.58,22.77,-24.85,-24.18,0,0,0,0,0,0,0,0,0,0,0,0,0,0,0,0,
688,-2.314,-1.156,-444,-361.3,-61.64,-101.6,-78.62,36.93,-36.83,27.06,-23.51,-21.77,-26.73,14.36,-18.2,-21.35,0,0,0,0,0,0,0,0,0,0,0,0,0,0,0,0,
689,-48.79,-49.3,-436.4,-323.1,-132.5,-115.4,-162.6,-20.07,-27.45,16.28,-23.93,-41.21,-44.42,-4.489,-28.09,-27.97,0,0,0,0,0,0,0,0,0,0,0,0,0,0,0,0,
690,-35.72,-70.01,-448.6,-369.5,-144.5,-79.16,-117.5,-89.91,-37.25,9.896,1.817,-17.03,-28.5,6.327,-17.12,-7.047,0,0,0,0,0,0,0,0,0,0,0,0,0,0,0,0,
691,22.3,-26.25,-459.8,-454.1,-89.96,-55.31,-29.48,-88.42,39.15,3.105,-1.794,-10.72,-24.84,0.6889,-10.62,3.515,0,0,0,0,0,0,0,0,0,0,0,0,0,0,0,0,
692,-16.26,-29.73,-399.3,-390,-93.9,-76.8,-77.91,-74.86,77.34,-17.97,-28.62,-37.29,-45.79,-25.95,-27.63,-17.79,0,0,0,0,0,0,0,0,0,0,0,0,0,0,0,0,
693,-30.44,-47.1,-347.5,-282.9,-101.6,-54.83,-104.5,-113.7,-5.718,-0.7303,-14.45,-16.88,-29.1,-14.82,-26.94,-20.24,0,0,0,0,0,0,0,0,0,0,0,0,0,0,0,0,
694,36.71,-0.1156,-392.2,-321,-92.52,-16.44,-45.91,-72.84,-10.84,27.32,-4.713,16.41,5.358,5.608,-9.373,-1.512,0,0,0,0,0,0,0,0,0,0,0,0,0,0,0,0,
695,38.8,25.27,-397.8,-358.1,-104.2,-29.54,-40.78,31.86,52.58,14.45,-26,11.75,2.107,-3.712,-8.41,-2.528,0,0,0,0,0,0,0,0,0,0,0,0,0,0,0,0,
696,17.55,-1.32,-312.4,-267.3,-66.66,-28.5,-61.65,27.79,20.7,5.832,-13.53,10.7,-12.92,-3.566,-10.28,-15.2,0,0,0,0,0,0,0,0,0,0,0,0,0,0,0,0,
697,43.24,-4.052,-274.6,-227.3,-27.43,-10.68,-48.61,-37.89,-6.005,17.97,8.877,5.595,-16.76,-1.155,-10.4,-24.3,0,0,0,0,0,0,0,0,0,0,0,0,0,0,0,0,
698,32.53,15.07,-298.7,-322.8,-61.78,-24.53,-19.88,-52.47,35.26,23.55,-15.86,-18.03,-16.05,-14.33,-19.22,-28.55,0,0,0,0,0,0,0,0,0,0,0,0,0,0,0,0,
699,8.213,20.78,-340.1,-404.9,-69.41,-21.41,28.56,-56.62,28.03,29.56,-49.14,-24.24,-4.512,-6.627,-26.2,-27.62,0,0,0,0,0,0,0,0,0,0,0,0,0,0,0,0,
700,8.107,17.83,-377.2,-370.8,-47.58,-11.55,39.19,-80.25,-6.15,30.93,-49.55,-19.89,8.57,15.96,-26.49,-26.01,0,0,0,0,0,0,0,0,0,0,0,0,0,0,0,0,
701,-3.11,19.38,-320.5,-259.7,-61.91,-37.54,-16.44,-66.51,-3.975,20.27,-13.4,0.047,19.34,38.13,-5.813,-10.45,0,0,0,0,0,0,0,0,0,0,0,0,0,0,0,0,
702,22.04,27.76,-224.1,-182.7,-59.08,-54.09,-54.77,-25.57,2.549,12.67,25.24,33.56,22.66,59.83,17.47,-0.0743,0,0,0,0,0,0,0,0,0,0,0,0,0,0,0,0,
703,44.35,14.14,-233.6,-193,-53.1,-67.73,-69.89,-29.94,7.846,7.39,13.17,15.67,-0.0397,55.58,-4.119,-23.43,0,0,0,0,0,0,0,0,0,0,0,0,0,0,0,0,
704,-9.341,-20.41,-282.6,-210.4,-74.08,-85.29,-94.32,-25.37,-6.527,14.16,-7.047,-16,-9.483,52.99,-20.82,-25.46,0,0,0,0,0,0,0,0,0,0,0,0,0,0,0,0,
705,-15.26,-19.07,-287,-218.7,-65.77,-54.75,-70.96,5.16,-48.22,45.5,5.59,-0.3569,14.6,76.09,2.394,4.107,0,0,0,0,0,0,0,0,0,0,0,0,0,0,0,0,
706,20.96,8.855,-306.9,-321.3,-70.11,-43.69,-2.923,-47.32,-44.15,61.3,-11.82,-11.93,13.69,71.63,-3.654,-3.981,0,0,0,0,0,0,0,0,0,0,0,0,0,0,0,0,
707,-31.62,10.35,-328.2,-413.7,-114.4,-91.95,3.998,-75.08,-5.196,36.33,-30.71,-38.08,-2.607,49.45,-18.57,-21.52,0,0,0,0,0,0,0,0,0,0,0,0,0,0,0,0,
708,-40.36,2.333,-292,-311,-91.68,-82.38,-60.32,-13.06,-7.986,10.74,14.67,-3.226,6.571,54.83,3.321,-6.143,0,0,0,0,0,0,0,0,0,0,0,0,0,0,0,0,
709,43.59,4.708,-271.9,-211.9,-34,-41.23,-83.89,-87.88,-25.78,3.924,31.16,8.458,1.58,51.47,1.819,-5.743,0,0,0,0,0,0,0,0,0,0,0,0,0,0,0,0,
710,20.53,5.875,-336.1,-300.4,-66.82,-72.38,-35.27,-197.5,-21.4,-2.909,-12.69,-29.61,-16.99,30.85,-9.641,-14.74,0,0,0,0,0,0,0,0,0,0,0,0,0,0,0,0,
711,-50.73,11.62,-381.6,-318.2,-108.1,-83.79,-15.64,-74.78,-6.172,-6.787,-13.13,-23.98,-10.68,32.02,11.03,-2.186,0,0,0,0,0,0,0,0,0,0,0,0,0,0,0,0,
712,-19.8,1.364,-316.9,-177.7,-68.12,-48.54,-81.22,69.04,16.04,0.8742,8.463,-10.26,-10.15,36.42,1.547,-4.092,0,0,0,0,0,0,0,0,0,0,0,0,0,0,0,0,
713,5.573,-31.51,-231.7,-125.3,-50.47,-73.86,-149.7,48.21,3.205,16.09,-9.12,-26.87,-17.98,27.41,-20.06,-10.58,0,0,0,0,0,0,0,0,0,0,0,0,0,0,0,0,
714,1.467,-24.54,-222,-185.9,-74.17,-86.07,-131.5,8.793,-45.61,30.59,-14.4,-12.44,0.4065,29.69,8.973,7.794,0,0,0,0,0,0,0,0,0,0,0,0,0,0,0,0,
715,31.02,12.47,-266.9,-271.5,-61.17,-27.37,-67.7,-25.7,-45.74,28.68,-10.82,-0.5962,9.343,35.47,18.62,6.264,0,0,0,0,0,0,0,0,0,0,0,0,0,0,0,0,
716,6.849,11.69,-301.2,-360.8,-63.2,-32.91,-25.48,-101.6,-20.94,23.82,-32.43,-21.38,-0.5191,36.11,-7.278,-5.22,0,0,0,0,0,0,0,0,0,0,0,0,0,0,0,0,
717,-45.49,12.53,-278.4,-339.2,-96.98,-85.13,13.62,-151.8,-39.92,34.49,-21.87,-2.982,19.85,42.4,8.905,22.4,0,0,0,0,0,0,0,0,0,0,0,0,0,0,0,0,
718,-24.18,37.45,-241.5,-215.4,-87.87,-76.43,19,-118.6,-46.94,27.73,9.576,20.48,36.29,29.01,22.83,30.05,0,0,0,0,0,0,0,0,0,0,0,0,0,0,0,0,
719,-12.67,16.26,-242.5,-133.6,-66.96,-65.46,-55,-3.525,-28.02,5.425,2.017,-3.533,20.96,11.17,-3.427,4.26,0,0,0,0,0,0,0,0,0,0,0,0,0,0,0,0,
720,-23.58,-12.07,-235.7,-110.8,-68.83,-61.89,-109.5,68.48,-20.26,12.85,13.16,9.25,47.83,46.38,15.27,33.39,0,0,0,0,0,0,0,0,0,0,0,0,0,0,0,0,
721,24.76,27.25,-229.7,-162.4,-63.09,-36.73,-88.81,10.06,4.739,21.75,47.33,43.13,91.09,75.85,50.07,64.78,0,0,0,0,0,0,0,0,0,0,0,0,0,0,0,0,
722,29.08,46.81,-260.2,-269.8,-76.97,-72.71,-76,-13.34,-7.641,4.921,11.93,-10.16,44.62,25.38,-2.568,-1.138,0,0,0,0,0,0,0,0,0,0,0,0,0,0,0,0,
723,-62.18,-15.31,-250,-279.4,-113.8,-134.3,-85.88,45.07,-90.33,8.769,-56.08,-88.6,-33.16,-29.03,-73.59,-74.66,0,0,0,0,0,0,0,0,0,0,0,0,0,0,0,0,
724,-113,-59.13,-203.4,-209.8,-128,-131.1,-67.03,-2.092,-103.8,28.44,-78.25,-98.91,-41.04,-25.55,-70.19,-68.23,0,0,0,0,0,0,0,0,0,0,0,0,0,0,0,0,
725,-112.9,-30.98,-216.7,-200.4,-149.1,-135.3,-11.55,-67.41,-62.6,16.41,-73.42,-78.76,-19.63,-13.75,-42.17,-40.46,0,0,0,0,0,0,0,0,0,0,0,0,0,0,0,0,
726,-122,-2.093,-248.2,-198.3,-203.7,-158.7,29.85,30.86,-104.2,-7.889,-49.91,-53.53,-12.04,-17.99,-25.59,-26.51,0,0,0,0,0,0,0,0,0,0,0,0,0,0,0,0,
727,-94.8,-18.2,-234.2,-139.4,-226,-135.3,-17.08,108,-129.5,-17.65,-19.01,-26.51,-3.669,-20.6,-3.447,-12.79,0,0,0,0,0,0,0,0,0,0,0,0,0,0,0,0,
728,-58.95,-44.63,-231.5,-120.7,-187.1,-109.6,-105.3,52.15,-64.25,-26.08,-20.78,-35.97,-5.021,-18.36,-1.78,-14.86,0,0,0,0,0,0,0,0,0,0,0,0,0,0,0,0,
729,-84.55,-49.15,-274.8,-197.7,-170.6,-108,-124.2,32.74,-54.87,-26.6,-35.7,-65.21,-17.11,-6.98,-24.61,-24.48,0,0,0,0,0,0,0,0,0,0,0,0,0,0,0,0,
730,-110.4,-46.03,-295.9,-267.8,-214.9,-114.6,-105,40.97,-117.5,-17.56,-29.32,-60.78,-14.2,7.938,-21.23,-12.45,0,0,0,0,0,0,0,0,0,0,0,0,0,0,0,0,
731,-95.63,-42.85,-227.6,-223.3,-224,-144.8,-99.46,6.578,-128.6,-27.06,-10.56,-35.59,-1.099,8.618,2.865,0.6766,0,0,0,0,0,0,0,0,0,0,0,0,0,0,0,0,
732,-92.17,-31.31,-122.2,-120.3,-162.6,-159.6,-85.4,21.79,-69.67,-39.85,-7.848,-38.17,-4.67,0.2936,-5.997,-9.783,0,0,0,0,0,0,0,0,0,0,0,0,0,0,0,0,
733,-106.5,-31.09,-89.79,-82.02,-136,-137.8,-78.87,51.37,-16.91,-28.43,-33.24,-58.53,-18.6,-4.444,-25.86,-14.85,0,0,0,0,0,0,0,0,0,0,0,0,0,0,0,0,
734,-102.1,-37.23,-144,-135.1,-167.8,-116.6,-66.84,18.08,-51.56,-20.8,-32.36,-37.29,-7.742,-4.399,3.375,6.389,0,0,0,0,0,0,0,0,0,0,0,0,0,0,0,0,
735,-69.22,-21.67,-208.8,-210,-173.8,-91.91,-31.74,-7.194,-111.7,-20.14,16,6.332,12.77,-1.264,46.88,22.29,0,0,0,0,0,0,0,0,0,0,0,0,0,0,0,0,
736,-52.21,-21.18,-218.9,-207.6,-152.9,-80.41,-37.5,-38.44,-73.34,-3.743,28.86,-6.86,-2.046,-8.428,41.08,10.98,0,0,0,0,0,0,0,0,0,0,0,0,0,0,0,0,
737,-81.16,-41.44,-198,-174.6,-148.8,-97.92,-39.62,-90.42,-29.91,-1.727,-5.364,-48.01,-22.31,-24.11,14.46,-5.741,0,0,0,0,0,0,0,0,0,0,0,0,0,0,0,0,
738,-99.24,-27.1,-225.1,-244,-156.1,-108.1,11.28,-49.93,-65.89,-20.84,-26.3,-57.5,-21.48,-27.97,3.53,-14.48,0,0,0,0,0,0,0,0,0,0,0,0,0,0,0,0,
739,-97.66,-28.39,-257.4,-283.3,-174.9,-121.7,-21.02,29.42,-86.48,-29.15,-43.15,-63.13,-39.03,-36.51,-3.206,-17.14,0,0,0,0,0,0,0,0,0,0,0,0,0,0,0,0,
740,-110.6,-77.81,-194.4,-161.4,-183.7,-118.9,-96.53,28.44,-97.82,-38.17,-51.31,-60.27,-50.09,-54.28,-1.064,-2.201,0,0,0,0,0,0,0,0,0,0,0,0,0,0,0,0,
741,-88.54,-72.59,-124.1,-90.34,-156.9,-66.57,-60.93,17.39,-100.7,-43.39,-36.78,-43.36,-26.66,-51.25,-3.798,9.962,0,0,0,0,0,0,0,0,0,0,0,0,0,0,0,0,
742,-62.71,-35.79,-155.1,-129.7,-148.9,-71.09,-58.93,-4.997,-36.49,-23.98,-46.83,-62.68,-34.72,-50.1,-32.75,-13.85,0,0,0,0,0,0,0,0,0,0,0,0,0,0,0,0,
743,-98.08,-60.76,-183.7,-128.5,-160.8,-138.5,-132.4,-93.15,-28.84,-18.49,-60.33,-74.9,-60.35,-62.1,-46.04,-36.7,0,0,0,0,0,0,0,0,0,0,0,0,0,0,0,0,
744,-93.62,-69.54,-132.3,-150,-128.8,-130,-99.64,-84.29,-98.01,-36.74,-26.54,-37.61,-40.12,-47.08,-34.32,-32.7,0,0,0,0,0,0,0,0,0,0,0,0,0,0,0,0,
745,-40.32,-34.39,-91.82,-169.3,-108.9,-96.1,-61.98,62.11,-83.51,-36.68,2.718,-19.88,-23.25,-32.58,-34.98,-35.2,0,0,0,0,0,0,0,0,0,0,0,0,0,0,0,0,
746,-50.03,-37.72,-109.1,-76.88,-138.9,-115.4,-104.8,100.1,-37.21,-21.93,-14.46,-26.07,-31.07,-50.07,-36.89,-36.42,0,0,0,0,0,0,0,0,0,0,0,0,0,0,0,0,
747,-75.13,-50.13,-147.9,-75.91,-141.7,-97.86,-76.23,10.05,-57.37,-9.438,-53.69,-30.14,-28.11,-54.19,-43.11,-30.96,0,0,0,0,0,0,0,0,0,0,0,0,0,0,0,0,
748,-70.42,-40.22,-182.3,-197.1,-134,-57.09,-32.31,-33.21,-85.73,1.248,-73.23,-47.6,-33.76,-39.57,-54.45,-44.66,0,0,0,0,0,0,0,0,0,0,0,0,0,0,0,0,
749,-72.42,-29.16,-175.8,-187.1,-150,-67.41,-29.71,-104.5,-90.73,-3.065,-40.61,-32.59,-33.67,-42.88,-27.28,-43.46,0,0,0,0,0,0,0,0,0,0,0,0,0,0,0,0,
750,-47.44,0.907,-130.9,-132.1,-131.3,-75.48,27.58,-200.1,-63.23,-15.16,-16.32,-0.3071,-12.33,-57.66,-6.702,-19.54,0,0,0,0,0,0,0,0,0,0,0,0,0,0,0,0,
751,-27.34,0.8875,-102.6,-152.7,-106.7,-78.69,16.93,-78.73,-27.45,-19.92,-54.66,-26.35,-24.13,-61.91,-40.16,-24.06,0,0,0,0,0,0,0,0,0,0,0,0,0,0,0,0,
752,-63.52,-59.39,-79.69,-75.24,-122.5,-110.5,-101.2,132.4,-43.39,-27.49,-65.28,-46.78,-54,-61.81,-47.53,-34.29,0,0,0,0,0,0,0,0,0,0,0,0,0,0,0,0,
753,-71.28,-87.76,-41.23,31.78,-117.9,-111.1,-123,122.9,-68.57,-35.13,-14.46,-21.75,-58.58,-78.23,-17.64,-22.63,0,0,0,0,0,0,0,0,0,0,0,0,0,0,0,0,
754,-50.14,-80.11,-53.65,-37.42,-96.54,-85.73,-79.42,3.379,-63.03,-38.08,-3.722,-30.86,-70.61,-91.39,-22.61,-25.49,0,0,0,0,0,0,0,0,0,0,0,0,0,0,0,0,
755,-70.36,-87.86,-122.8,-138.6,-90.04,-67,-68.81,-40.52,-54.43,-39.19,-34.77,-52.11,-82.78,-67.58,-32.42,-30.96,0,0,0,0,0,0,0,0,0,0,0,0,0,0,0,0,
756,-56.47,-70.05,-126.8,-113.8,-48.4,-14.12,-10.79,-23.52,-32.92,-21.44,-13.87,-17.14,-54.71,-38.83,3.118,-1.501,0,0,0,0,0,0,0,0,0,0,0,0,0,0,0,0,
757,5.491,-30.21,-32.51,-59.4,-15.67,7.167,34.46,11.54,-1.647,1.582,50.34,31.74,-9.238,-24.21,55.51,45.49,0,0,0,0,0,0,0,0,0,0,0,0,0,0,0,0,
758,3.47,-11.64,28.63,-31.02,-51.11,-49.82,-14.75,-34.51,13.46,2.997,82.66,46.64,21.35,12.61,85.92,79.35,0,0,0,0,0,0,0,0,0,0,0,0,0,0,0,0,
759,-19.27,-0.194,-3.065,-4.011,-46.12,-42.6,-31.6,-97.04,1.784,10.45,87.83,46.64,25.53,42.9,88.85,84.6,0,0,0,0,0,0,0,0,0,0,0,0,0,0,0,0,
760,21.49,-2.565,-35.25,-13.04,4.739,21.03,6.688,1.829,-22.99,15.4,99.7,47.28,5.471,18.83,85.87,66.86,0,0,0,0,0,0,0,0,0,0,0,0,0,0,0,0,
761,30.39,-29.01,-29.58,-63.36,-25.59,-13.5,-18.68,83.47,4.416,-21.08,72.23,23.71,-15.39,-11.8,71.87,47.82,0,0,0,0,0,0,0,0,0,0,0,0,0,0,0,0,
762,-36.43,-49.8,-43.4,-110.3,-79.39,-79.88,-68.9,-9.047,40.51,-41.94,-5.294,-25.07,-24.79,-9.238,28.86,31.43,0,0,0,0,0,0,0,0,0,0,0,0,0,0,0,0,
763,-64.54,-45.28,-84.67,-125.3,-73.72,-70.74,-42.02,-73.5,-18.64,-15.12,-33.29,-40.84,-18.26,-3.714,6.004,21.01,0,0,0,0,0,0,0,0,0,0,0,0,0,0,0,0,
764,-31.62,-13.54,-99.49,-77.93,-60.64,-49.48,4.222,-37.95,-56.85,-10.48,0.839,-17.14,-4.726,-8.393,21.11,18.19,0,0,0,0,0,0,0,0,0,0,0,0,0,0,0,0,
765,-24.6,0.4216,-68.87,-14.96,-44.2,-58.37,-26.83,13.21,-2.883,-27.15,5.567,-13.2,-17.44,-19.54,7.317,-2.469,0,0,0,0,0,0,0,0,0,0,0,0,0,0,0,0,
766,-36.49,-32.55,-48.24,-37,-24.78,-61.43,-77.5,38.66,-8.438,-18.35,-1.69,-15.43,-34.18,-31.32,-21.92,-28.47,0,0,0,0,0,0,0,0,0,0,0,0,0,0,0,0,
767,-2.978,-35.81,-70.38,-76.46,-17.39,-30.5,-50.23,-25.39,-52.75,-8.98,27.1,6.112,-16.63,-21.22,-10.63,-22.86,0,0,0,0,0,0,0,0,0,0,0,0,0,0,0,0,
768,30.54,-1.043,-87.65,-37.49,-16.84,-14.82,-2.8,-76.52,-10.79,-13.94,24.79,-0.1234,-9.233,-5.668,-0.389,-10.81,0,0,0,0,0,0,0,0,0,0,0,0,0,0,0,0,
769,-14.13,-11.73,-93.82,-32.05,-94.53,-76.03,-10.88,3.249,43.59,-21.14,-15.54,-25.43,-18.55,-6.496,-8.006,-2.941,0,0,0,0,0,0,0,0,0,0,0,0,0,0,0,0,
770,-62.54,-26.75,-111.3,-91.78,-172.7,-102.6,-28.65,44.29,26.06,-33.81,-3.117,-0.4588,0.3641,-1.922,5.565,17.81,0,0,0,0,0,0,0,0,0,0,0,0,0,0,0,0,
771,-16.79,-0.8541,-85.4,-72.96,-68.6,-20.98,-39.46,-28.61,-16.6,-37.98,37.55,30.45,3.699,-5.338,14.7,12.33,0,0,0,0,0,0,0,0,0,0,0,0,0,0,0,0,
772,44.4,1.535,7.637,-18.58,77.44,26.66,-40.18,-62.18,5.107,-34.39,42.49,23.48,-17.46,-20.04,11.92,-6.115,0,0,0,0,0,0,0,0,0,0,0,0,0,0,0,0,
773,53.25,0.2972,103.9,-33.77,114.9,35.01,15.68,-46.89,95.32,-36.98,59.18,44.11,6.734,-6.927,29.42,15.51,0,0,0,0,0,0,0,0,0,0,0,0,0,0,0,0,
774,68.64,29.13,135.6,-2.561,157.9,94.69,43.52,-43.81,136.3,-25.98,84.67,75.84,30.63,-4.74,25.87,21.9,0,0,0,0,0,0,0,0,0,0,0,0,0,0,0,0,
775,79.72,17.38,92.58,85.78,181.6,112.1,-15.14,-29.3,103.1,-8.842,54.23,49.41,3.207,-32.07,-7.697,-3.28,0,0,0,0,0,0,0,0,0,0,0,0,0,0,0,0,
776,57.96,-11.97,73.47,58.95,128.2,78.08,-5.71,-52.22,78.49,-11.79,25.35,26.68,4.295,-12.18,5.329,17.66,0,0,0,0,0,0,0,0,0,0,0,0,0,0,0,0,
777,60.53,19.65,116,-21.23,117.1,92.76,80.27,-131.4,67.93,-13.69,54.28,54.27,42.06,33.45,53.06,59.01,0,0,0,0,0,0,0,0,0,0,0,0,0,0,0,0,
778,72.31,47.9,81.6,-6.398,128,98.95,67.16,-132.7,54.33,-9.311,69.47,63.49,35.88,23.47,56.41,54.58,0,0,0,0,0,0,0,0,0,0,0,0,0,0,0,0,
779,55.04,10.63,-8.733,18.69,88.31,59.91,-16.31,-64.06,49.39,-15.6,49.53,41.91,2.943,-9.256,31.36,35.85,0,0,0,0,0,0,0,0,0,0,0,0,0,0,0,0,
780,46.41,-26.06,34.28,9.626,90.09,40.24,-46.59,-83.62,73.68,-17.99,56.23,42.81,4.419,-7.212,38.58,44.15,0,0,0,0,0,0,0,0,0,0,0,0,0,0,0,0,
781,38.96,-18.54,124.9,23.26,133.8,40.86,-41.02,-135.2,119.3,-24.64,80.9,56.96,18.11,10.89,58.45,56.35,0,0,0,0,0,0,0,0,0,0,0,0,0,0,0,0,
782,24.8,-12.13,72.25,15.1,118.2,46.57,-37.71,-83.98,107.5,-47.97,77.06,47.23,1.602,12.14,43.88,34.92,0,0,0,0,0,0,0,0,0,0,0,0,0,0,0,0,
783,37.02,-24.46,0.489,14.22,84.18,52.25,-36.96,-9.851,64.66,-49.74,60.59,30.94,-15,9.489,21.04,6.982,0,0,0,0,0,0,0,0,0,0,0,0,0,0,0,0,
784,43.11,-14.36,56.06,70.71,101.4,42.06,-38.61,-10.8,70.64,-28.36,51.08,30.44,-2.8,16.11,23.89,16.88,0,0,0,0,0,0,0,0,0,0,0,0,0,0,0,0,
785,39.41,12.89,110.6,66.41,119.7,39.64,-23.53,-56.22,41.64,-17.21,34.82,32.84,7.912,16.25,33.15,35.62,0,0,0,0,0,0,0,0,0,0,0,0,0,0,0,0,
786,78.31,24.58,69.61,-1.796,107.8,58.03,24.83,-98.81,-12.77,-1.907,33.33,48.93,22.4,25.74,47.66,43.08,0,0,0,0,0,0,0,0,0,0,0,0,0,0,0,0,
787,116,47.38,18.21,-37.58,101.1,70.69,75.33,-108.7,45.7,19.22,65.87,80.54,56.3,51.72,72.38,61.45,0,0,0,0,0,0,0,0,0,0,0,0,0,0,0,0,
788,94.5,77.57,0.6699,-81.16,103.4,67.92,70.21,-82.31,143.6,21.31,89.74,80.67,60.43,54.5,78.55,71.14,0,0,0,0,0,0,0,0,0,0,0,0,0,0,0,0,
789,57.59,63.74,4.111,-78.33,114.2,61.92,17.4,-34.67,143.2,10.78,86.6,59.73,31.19,37.87,65.42,55.55,0,0,0,0,0,0,0,0,0,0,0,0,0,0,0,0,
790,48.48,31.9,35.97,48.9,131,51.05,-23.46,15.42,72.61,-4.537,73.6,56.11,15.13,19.55,54.07,40.79,0,0,0,0,0,0,0,0,0,0,0,0,0,0,0,0,
791,43.86,21.07,59.72,130.8,112.3,16.56,-41.57,21.66,22.71,-9.546,45.86,39.35,5.613,-4.105,49.34,38,0,0,0,0,0,0,0,0,0,0,0,0,0,0,0,0,
792,20.19,15.22,24.69,52.76,72.11,-8.394,-28.77,-27.4,37.24,6.616,29.82,16.31,2.086,-2.029,53.1,42.05,0,0,0,0,0,0,0,0,0,0,0,0,0,0,0,0,
793,13.56,26.27,-42.06,-73.07,63.21,24.05,19.88,-80.44,42.59,7.112,48.73,30.91,18.5,19.4,48.03,48.01,0,0,0,0,0,0,0,0,0,0,0,0,0,0,0,0,
794,47.5,41.82,-67.51,-119.9,66.47,47.1,26.45,-100.2,6.849,-3.009,47.56,39.77,20.92,16.56,21.66,46.47,0,0,0,0,0,0,0,0,0,0,0,0,0,0,0,0,
795,44.28,13.35,-39.46,-70.78,58.8,6.585,-16.6,-94.21,43.71,12.74,12.57,10.54,8.254,18.85,5.434,41.92,0,0,0,0,0,0,0,0,0,0,0,0,0,0,0,0,
796,-13.36,0.9548,-34.43,-54.3,61.84,-4.061,0.903,-88.59,90.9,23.57,17.33,9.412,27.08,55.22,23.63,54.74,0,0,0,0,0,0,0,0,0,0,0,0,0,0,0,0,
797,5.345,55.09,-58.34,-90.92,71.62,49.26,52.13,-64.7,18.83,22.49,55.71,46.94,53.24,77.27,48,75.71,0,0,0,0,0,0,0,0,0,0,0,0,0,0,0,0,
798,77.85,70.41,-14.77,-5.166,62.68,59.27,25.76,-3.354,0.614,34.86,41.45,40.2,37.57,56.74,40.61,70.35,0,0,0,0,0,0,0,0,0,0,0,0,0,0,0,0,
799,43.73,24.56,64.18,128.1,39.94,13.03,-14.94,32.38,85.08,29.32,-0.04,5.671,27.04,38.56,24.99,56.42,0,0,0,0,0,0,0,0,0,0,0,0,0,0,0,0,
800,-2.683,30.09,75.26,111.6,39.96,10.88,1.399,23.1,53.05,7.221,8.454,26.07,56.6,43.59,38.61,64.09,0,0,0,0,0,0,0,0,0,0,0,0,0,0,0,0,
801,58.39,60.03,56.15,57.04,74.1,39.25,-2.547,-9.098,-0.9859,9.279,20.54,48.18,58.6,26.56,43.68,60.02,0,0,0,0,0,0,0,0,0,0,0,0,0,0,0,0,
802,70.17,39.46,36.71,31.75,90.56,23.18,-9.75,-96.99,64.17,15.91,7.296,26.66,25.38,-8.534,21.48,38.22,0,0,0,0,0,0,0,0,0,0,0,0,0,0,0,0,
803,19.91,29.98,-6.787,-48.16,60.36,14.02,42.14,-139.8,62.67,-1.378,28.35,40.44,24.94,-10.57,22.81,37.88,0,0,0,0,0,0,0,0,0,0,0,0,0,0,0,0,
804,60.67,43.46,-10.57,-68.92,46.72,50.32,42.41,-24.58,16.37,-31.07,54.78,73.74,40.19,5.401,42.25,49.36,0,0,0,0,0,0,0,0,0,0,0,0,0,0,0,0,
805,102.1,30.45,22.33,-5.006,71.55,48.39,-17.32,54.04,74.61,-41.2,41.07,50.24,25.7,7.499,37.08,46.8,0,0,0,0,0,0,0,0,0,0,0,0,0,0,0,0,
806,43.91,21.93,4.8,-26.54,57.58,0.8572,5.204,-20.31,103.4,-11.67,27.73,9.538,-0.5928,0.7188,23.71,31.6,0,0,0,0,0,0,0,0,0,0,0,0,0,0,0,0,
807,-6.991,22.63,-4.925,-47,22.24,0.0321,38.86,-40.35,61.84,8.946,26.19,6.774,-8.399,-4.969,30.12,18.57,0,0,0,0,0,0,0,0,0,0,0,0,0,0,0,0,
808,18.85,18.17,48.3,60.85,49.89,38.89,-14.79,12.99,53.93,-20.32,29.41,34.44,8.823,-1.637,38.58,17.98,0,0,0,0,0,0,0,0,0,0,0,0,0,0,0,0,
809,65.42,30.41,51.57,109.7,81.16,34.09,-42.37,-32.76,57.46,-40.97,40.28,50.93,21.58,-2.389,25.99,12.84,0,0,0,0,0,0,0,0,0,0,0,0,0,0,0,0,
810,54.86,30.04,-13.1,29.15,66.59,10.02,-8.155,-104.1,35.78,-15.95,54.36,45.5,21.18,-1.819,26.34,12.32,0,0,0,0,0,0,0,0,0,0,0,0,0,0,0,0,
811,36.66,26.4,-16.8,-10.56,64.22,34.78,14.94,-85.06,-24.95,5.2,79.16,55.16,30.28,20.77,53.24,33.32,0,0,0,0,0,0,0,0,0,0,0,0,0,0,0,0,
812,62.01,44.01,12.9,-42.78,36.05,36.59,23.25,-51,-42.07,0.3375,59.37,35.51,11.52,19.81,36.33,25.93,0,0,0,0,0,0,0,0,0,0,0,0,0,0,0,0,
813,5.3,12.13,-38.45,-139.5,-32.6,-25.36,20.46,-51.94,61.76,-9.774,-15.14,-29.75,-31.85,-12.27,-13.7,-9.405,0,0,0,0,0,0,0,0,0,0,0,0,0,0,0,0,
814,-74.34,-24.07,-70.92,-115.1,-25.65,-33.48,2.628,-57.27,93.05,-25.02,-21.47,-25.87,-21.92,-12.46,-15.29,-10.17,0,0,0,0,0,0,0,0,0,0,0,0,0,0,0,0,
815,-8.207,13.41,10.2,34.29,19.42,-5.484,-29.75,-38.8,7.577,-40.07,11.44,9.742,1.264,-0.1459,-8.065,-4.777,0,0,0,0,0,0,0,0,0,0,0,0,0,0,0,0,
816,22.34,8.631,53.27,58.19,-11.57,-36.66,-63.75,-15.98,7.043,-32.96,-22.32,-23.68,-16.19,-3.977,-27.04,-21.79,0,0,0,0,0,0,0,0,0,0,0,0,0,0,0,0,
817,-43.84,-37.01,13.04,1.47,-28.49,-30.49,-44.66,-55.13,18.69,-17.59,-29.19,-29.55,-7.308,4.727,-13.66,-12.96,0,0,0,0,0,0,0,0,0,0,0,0,0,0,0,0,
818,-5.267,-2.807,19.01,28.97,24.81,18.71,-0.9922,-79.51,-24.39,-24,9.57,-0.0534,17.98,1.601,2.933,7.075,0,0,0,0,0,0,0,0,0,0,0,0,0,0,0,0,
819,18.63,18.51,27.96,21.49,25.74,-19.23,-3.885,3.985,1.314,-33.07,-21.83,-38.96,-6.558,-23,-31.95,-9.989,0,0,0,0,0,0,0,0,0,0,0,0,0,0,0,0,
820,-64.51,-33.06,-16.21,-58.53,-23.39,-66.22,-10.19,13.74,16.51,-14.65,-63.48,-71.94,-35.76,-22.83,-59.07,-32.32,0,0,0,0,0,0,0,0,0,0,0,0,0,0,0,0,
821,-58.81,-43.41,-24.51,-52.88,-19.11,-37.07,-1.249,-97.94,-17.03,1.152,-38.84,-39.36,-24.19,-10.68,-39.82,-22.71,0,0,0,0,0,0,0,0,0,0,0,0,0,0,0,0,
822,-2.312,-8.966,-18.62,16.01,-4.481,-17.56,-27.09,-71.42,0.1928,-20.3,-21.67,-13.37,-0.4129,-12.81,-18.94,-4.31,0,0,0,0,0,0,0,0,0,0,0,0,0,0,0,0,
823,-6.82,2.78,-39.24,45.58,-23.49,-20.24,-72.35,40.9,-6.985,-46.59,-35.64,-9.735,5.826,-14.13,-21.31,-3.453,0,0,0,0,0,0,0,0,0,0,0,0,0,0,0,0,
824,-2.914,-7.59,-18.79,34.74,-24.57,-15.85,-89.74,-3.45,-44.53,-43.48,-47.85,-20.41,-11.71,-18.42,-31.55,-11.93,0,0,0,0,0,0,0,0,0,0,0,0,0,0,0,0,
825,-4.012,-19.73,17.48,-16.7,-15.32,-14.6,-51.39,-66.53,-21.62,-29.95,-51.96,-39.33,-28.16,-24.62,-33.38,-14.89,0,0,0,0,0,0,0,0,0,0,0,0,0,0,0,0,
826,-23.94,-16.83,34.26,-32.74,-12.84,-0.3731,-5.222,-9.984,-16.05,-29.18,-33.88,-35.17,-27.04,-19.37,-32.04,-17.21,0,0,0,0,0,0,0,0,0,0,0,0,0,0,0,0,
827,-20.15,-16.83,67.56,49.99,-0.0963,0.4816,-32.37,6.142,-53.97,-42.65,-21.58,-34.62,-27.39,-20.71,-40.77,-23.98,0,0,0,0,0,0,0,0,0,0,0,0,0,0,0,0,
828,-26.23,-30.06,46.77,58.5,-7.389,-26,-61.37,-56.4,-62.75,-57.43,-47.23,-51.59,-29.38,-32.27,-41.57,-24.16,0,0,0,0,0,0,0,0,0,0,0,0,0,0,0,0,
829,-35.52,-27.86,-47.59,-82.65,-29.57,-36.92,-23.76,-95.73,-41.56,-57.87,-56.89,-44.36,-23.04,-28.13,-19.21,-12.64,0,0,0,0,0,0,0,0,0,0,0,0,0,0,0,0,
830,-28.63,-23.19,-70.76,-133.8,-18.67,-38.74,-4.167,-101.4,-3.521,-46.02,-21.6,-18.93,-8.95,-3.337,0.8874,5.042,0,0,0,0,0,0,0,0,0,0,0,0,0,0,0,0,
831,-12.64,-13.4,-18.91,-27.37,6.934,-22.03,-8.538,-62.05,2.136,-23.94,10.85,9.335,12.74,17.61,4.941,15.66,0,0,0,0,0,0,0,0,0,0,0,0,0,0,0,0,
832,35.53,17.05,2.324,33.57,10.29,8.674,-4.349,-1.28,-16.76,-6.947,8.594,25.19,6.757,2.824,-0.8112,-1.512,0,0,0,0,0,0,0,0,0,0,0,0,0,0,0,0,
833,36.77,2.335,16.29,33.2,-10.1,-10.58,-37.48,-2.151,37.42,-23.83,-12.48,2.589,-30.79,-27.47,-9.242,-27.75,0,0,0,0,0,0,0,0,0,0,0,0,0,0,0,0,
834,-27.15,-41.39,21.34,56.81,-28.59,-6.779,-50.43,-25.7,69.49,-38.64,1.19,0.6541,-28.09,-24.03,3.412,-21.31,0,0,0,0,0,0,0,0,0,0,0,0,0,0,0,0,
835,-1.644,-14.68,-14.21,25.73,-18.75,62.13,7.162,-20.19,-2.663,-19.56,40.56,35.85,6.302,-14.26,23.97,-1.713,0,0,0,0,0,0,0,0,0,0,0,0,0,0,0,0,
836,53.69,28.43,4.808,-54.14,-0.1636,38.95,32.61,-43.02,-13.91,-17.51,17.69,18.48,6.683,-16.28,10.07,0.5196,0,0,0,0,0,0,0,0,0,0,0,0,0,0,0,0,
837,7.355,12.11,67.64,-50.41,12.68,-42.03,0.6166,-74.55,31.47,-29.15,-36.4,-22.3,2.302,9.87,-16.98,0.1141,0,0,0,0,0,0,0,0,0,0,0,0,0,0,0,0,
838,-7.304,-3.035,42.07,19.98,19.55,-12.39,-20.94,-46.82,-5.279,-12.91,-36.02,-20.65,8.188,15.92,-29.72,-7.365,0,0,0,0,0,0,0,0,0,0,0,0,0,0,0,0,
839,31.67,-0.482,-10.19,51.67,-11.39,26.88,-33.45,-7.336,-43.47,-9.422,-29.58,-30.66,-18.86,-37.4,-44.97,-27.91,0,0,0,0,0,0,0,0,0,0,0,0,0,0,0,0,
840,-8.365,-25.67,15.54,28.9,-44.25,-18.26,-44.35,-7.228,-13.29,-35.86,-43.69,-51.62,-52.41,-67.59,-55.14,-38.02,0,0,0,0,0,0,0,0,0,0,0,0,0,0,0,0,
841,-46.96,-46.08,56.83,20.32,-5.896,-16.3,-27.39,1.576,23.59,-55.11,-30.82,-31.44,-51.57,-55.76,-42.01,-33.61,0,0,0,0,0,0,0,0,0,0,0,0,0,0,0,0,
842,1.889,-18.27,67.81,70.56,47.77,61.13,13.38,37.6,32.81,-56.87,-5.6,7.08,-28.39,-47.32,-8.134,-16.38,0,0,0,0,0,0,0,0,0,0,0,0,0,0,0,0,
843,39.95,16.54,68.36,98.83,39.3,89.48,35.29,17.13,12.68,-34.51,16.38,35.99,0.7535,-31.58,30.06,8.286,0,0,0,0,0,0,0,0,0,0,0,0,0,0,0,0,
844,22.47,12.72,66.17,47.78,16.62,46.62,19.23,-45.28,6.966,-10.39,33.73,46.61,18.21,-16.46,42.2,19.05,0,0,0,0,0,0,0,0,0,0,0,0,0,0,0,0,
845,22.99,5.647,74.35,14.13,36.12,28.36,17.6,-20.31,12.66,-20.13,21.04,41.84,21.82,-22.4,28.63,20.95,0,0,0,0,0,0,0,0,0,0,0,0,0,0,0,0,
846,63.67,26.7,84.2,50.62,62.88,53.18,45.92,29.36,-27.76,-33.8,-1.029,35.09,22.7,-30,7.316,14.75,0,0,0,0,0,0,0,0,0,0,0,0,0,0,0,0,
847,50.34,28.97,59.46,81.03,46.95,39.73,36.68,12.37,-42.23,-32.76,-13.45,8.431,10.42,-30.36,-21,-9.538,0,0,0,0,0,0,0,0,0,0,0,0,0,0,0,0,
848,-26.59,5.526,7.49,62.3,15.62,15.02,16.01,33.32,8.154,-30.38,-26.68,-15.94,1.581,-22.25,-25.12,-13.03,0,0,0,0,0,0,0,0,0,0,0,0,0,0,0,0,
849,-15.02,23.36,8.387,40.3,29.25,67.5,65.79,22.79,26.03,-11.82,-14.34,16.29,24.64,-3.814,12.35,21.33,0,0,0,0,0,0,0,0,0,0,0,0,0,0,0,0,
850,77.65,63.95,79.95,34.73,59.57,106.6,111.9,-100.8,21.59,1.502,13.39,52.8,41.33,10.07,35.46,38.32,0,0,0,0,0,0,0,0,0,0,0,0,0,0,0,0,
851,72.19,46.21,103.1,1.225,40.36,36.15,72.49,-88.27,41.7,-13,5.647,29.34,24.2,14.95,17.15,21.23,0,0,0,0,0,0,0,0,0,0,0,0,0,0,0,0,
852,-3.153,6.264,69.29,-17.54,15.11,-11.07,33.46,57.19,40.3,-5.05,-12.46,9.03,22.62,23.33,3.276,17.95,0,0,0,0,0,0,0,0,0,0,0,0,0,0,0,0,
853,10.62,17.09,78.87,49.43,37.85,50.31,34.57,66.84,16.71,21.92,1.914,37.55,43.58,32.65,10.42,28.25,0,0,0,0,0,0,0,0,0,0,0,0,0,0,0,0,
854,70.78,31.15,68.27,99.09,39.62,78.85,13.57,17.48,14.94,10.35,14.15,41.59,26.45,18.66,-1.084,3.982,0,0,0,0,0,0,0,0,0,0,0,0,0,0,0,0,
855,49.81,11.77,14.77,57.73,-4.451,27.86,0.847,-4.847,32.17,-3.701,-10.78,-3.599,-20.78,-18.74,-34.47,-38.84,0,0,0,0,0,0,0,0,0,0,0,0,0,0,0,0,
856,1.348,6.682,31.34,25.65,-6.153,23.46,26.8,-77.92,19.29,15.32,-30.68,-13.12,-37.24,-42.01,-38.49,-45.85,0,0,0,0,0,0,0,0,0,0,0,0,0,0,0,0,
