%OpenBCI Raw EXG Data
%Number of channels = 16
%Sample Rate = 125 Hz
%Board = OpenBCI_GUI$BoardCytonSerialDaisy
Sample Index,EXG Channel 0,EXG Channel 1,EXG Channel 2,EXG Channel 3,EXG Channel 4,EXG Channel 5,EXG Channel 6,EXG Channel 7,EXG Channel 8,EXG Channel 9,EXG Channel 10,EXG Channel 11,EXG Channel 12,EXG Channel 13,EXG Channel 14,EXG Channel 15,Accel Channel 0,Accel Channel 1,Accel Channel 2,Other,Other.1,Other.2,Other.3,Other.4,Other.5,Other.6,Analog Channel 0,Analog Channel 1,Analog Channel 2,Timestamp,Other.7,Timestamp (Formatted),Annotations
1,0.0,0.0,-0.0,-0.0,-0.0,-0.0,-0.0,0.0,0.0,0.0,-0.0,0.0,0.0,0.0,-0.0,0.0,0,0,0,0,0,0,0,0,0,0,0,0,0,0,0,0,T0
2,103.7,114.4,-4.795,34.49,-69.24,-8.405,0.2165,0.0839,-11.76,-4.374,-0.4561,5.593,-1.529,-4.156,-13.13,-5.771,0,0,0,0,0,0,0,0,0,0,0,0,0,0,0,0,
3,118.8,135.7,-34.12,-77.84,-108.0,10.73,-8.69,18.41,-47.82,-25.11,-11.13,2.428,-22.94,-14.76,-27.89,-17.32,0,0,0,0,0,0,0,0,0,0,0,0,0,0,0,0,
4,95.51,23.21,-36.54,-149.6,-103.3,61.35,-5.961,11.07,-76.21,-31.47,-1.293,18.25,-32.18,-7.389,-19.07,-10.96,0,0,0,0,0,0,0,0,0,0,0,0,0,0,0,0,
5,50.03,-74.9,-26.05,-37.9,-51.42,78.05,9.592,-5.338,-55.5,-18.44,33.45,40.0,-12.13,8.329,9.899,11.84,0,0,0,0,0,0,0,0,0,0,0,0,0,0,0,0,
6,-35.3,-4.587,-29.19,82.23,-0.3623,23.52,22.18,4.76,-13.82,-19.25,51.27,32.95,7.273,14.02,19.11,25.64,0,0,0,0,0,0,0,0,0,0,0,0,0,0,0,0,
7,-43.67,103.4,-21.63,36.74,-17.52,-18.43,21.59,10.66,-4.001,-20.7,34.55,22.78,8.762,22.82,6.219,28.5,0,0,0,0,0,0,0,0,0,0,0,0,0,0,0,0,
8,72.23,79.74,1.196,-65.29,-76.4,7.979,-6.483,7.166,-23.49,-0.7827,17.4,24.31,2.969,22.42,5.966,24.51,0,0,0,0,0,0,0,0,0,0,0,0,0,0,0,0,
9,147.8,27.13,15.19,-48.71,-103.1,27.01,-32.24,5.097,-46.8,-4.925,24.45,5.807,-7.111,-6.822,12.07,8.19,0,0,0,0,0,0,0,0,0,0,0,0,0,0,0,0,
10,113.4,53.25,-27.37,7.98,-97.99,-5.938,-10.17,-4.388,-65.98,-50.21,29.05,-13.78,-23.12,-36.94,-7.875,-12.94,0,0,0,0,0,0,0,0,0,0,0,0,0,0,0,0,
11,68.93,67.34,-78.12,-31.04,-109.9,-35.13,9.476,-0.8506,-80.72,-77.82,11.37,-6.313,-40.15,-47.84,-40.36,-25.33,0,0,0,0,0,0,0,0,0,0,0,0,0,0,0,0,
12,61.97,34.1,-36.22,-60.18,-141.2,-46.28,-22.3,-2.866,-98.19,-79.75,-6.777,-4.788,-59.12,-56.97,-55.4,-26.39,0,0,0,0,0,0,0,0,0,0,0,0,0,0,0,0,
13,64.93,49.29,-5.703,5.891,-137.5,-67.8,-44.62,-37.28,-113.1,-94.02,-9.733,-12.84,-74.84,-64.09,-54.31,-21.09,0,0,0,0,0,0,0,0,0,0,0,0,0,0,0,0,
14,33.63,97.66,-66.51,8.295,-97.21,-71.88,-37.36,-41.31,-106.1,-96.28,-7.27,-9.714,-76.97,-58.05,-50.62,-23.52,0,0,0,0,0,0,0,0,0,0,0,0,0,0,0,0,
15,-30.19,50.8,-84.32,-116.9,-102.2,-28.05,-53.45,-12.12,-91.05,-67.55,-14.6,-15.74,-77.72,-51.01,-56.84,-39.29,0,0,0,0,0,0,0,0,0,0,0,0,0,0,0,0,
16,-41.81,-52.66,-64.24,-146.0,-145.4,37.97,-65.53,-23.09,-94.45,-50.74,-24.96,-26.31,-81.46,-47.2,-64.26,-47.34,0,0,0,0,0,0,0,0,0,0,0,0,0,0,0,0,
17,21.62,-35.8,-81.12,21.83,-127.5,66.35,-33.82,-43.94,-101.4,-54.58,-16.73,-21.83,-69.57,-42.93,-49.71,-39.78,0,0,0,0,0,0,0,0,0,0,0,0,0,0,0,0,
18,72.34,77.72,-59.41,103.8,-76.25,4.39,-22.32,-17.31,-95.3,-58.92,-12.17,-19.4,-57.59,-50.14,-36.25,-36.61,0,0,0,0,0,0,0,0,0,0,0,0,0,0,0,0,
19,66.0,103.8,-43.85,-72.7,-96.01,-80.88,-67.88,20.76,-99.09,-76.35,-41.58,-14.61,-75.86,-61.61,-52.37,-39.38,0,0,0,0,0,0,0,0,0,0,0,0,0,0,0,0,
20,40.03,22.11,-101.6,-208.6,-164.1,-63.82,-106.3,9.661,-131.8,-98.33,-64.55,2.252,-101.8,-57.09,-63.59,-31.1,0,0,0,0,0,0,0,0,0,0,0,0,0,0,0,0,
21,36.16,-26.19,-99.35,-77.2,-188.2,-18.19,-102.9,-45.59,-162.9,-99.66,-51.12,6.317,-101.4,-45.79,-50.1,-11.21,0,0,0,0,0,0,0,0,0,0,0,0,0,0,0,0,
22,49.78,35.37,-36.67,84.33,-156.0,-71.65,-81.7,-56.98,-151.2,-95.49,-38.58,-0.7015,-84.23,-36.57,-41.38,5.311,0,0,0,0,0,0,0,0,0,0,0,0,0,0,0,0,
23,31.01,101.3,-42.31,60.61,-128.7,-99.47,-50.71,-0.8547,-112.2,-86.33,-37.34,5.965,-69.25,-21.4,-41.45,7.403,0,0,0,0,0,0,0,0,0,0,0,0,0,0,0,0,
24,-7.182,54.48,-61.02,-21.5,-136.6,-10.49,-35.74,21.36,-92.91,-56.94,-31.9,18.25,-64.12,-11.79,-42.61,0.4741,0,0,0,0,0,0,0,0,0,0,0,0,0,0,0,0,
25,17.27,6.966,-40.55,-31.64,-147.8,25.6,-63.98,-8.961,-101.1,-47.05,-35.71,14.67,-74.71,-22.57,-50.67,-2.189,0,0,0,0,0,0,0,0,0,0,0,0,0,0,0,0,
26,54.85,58.96,-40.95,-23.52,-145.3,-34.49,-81.05,-21.34,-114.8,-76.11,-38.92,-0.7426,-83.9,-38.44,-47.52,0.262,0,0,0,0,0,0,0,0,0,0,0,0,0,0,0,0,
27,6.982,74.0,-54.87,-35.57,-135.3,-46.04,-64.26,-21.65,-120.5,-92.97,-24.96,-7.783,-75.89,-44.2,-30.12,-2.122,0,0,0,0,0,0,0,0,0,0,0,0,0,0,0,0,
28,-13.41,15.17,-71.17,-47.09,-123.5,-14.37,-74.82,-14.52,-120.1,-83.21,-22.09,-0.5552,-71.68,-42.28,-27.42,-6.284,0,0,0,0,0,0,0,0,0,0,0,0,0,0,0,0,
29,74.92,-9.492,-95.24,-78.27,-126.8,3.787,-93.0,18.86,-119.1,-71.26,-31.8,9.501,-74.79,-31.2,-34.85,-4.28,0,0,0,0,0,0,0,0,0,0,0,0,0,0,0,0,
30,116.0,-18.02,-81.35,-108.4,-119.9,30.7,-75.51,23.28,-109.6,-54.47,-31.38,6.244,-67.22,-18.34,-37.74,-11.29,0,0,0,0,0,0,0,0,0,0,0,0,0,0,0,0,
31,70.21,-4.925,-61.49,-63.91,-86.76,18.73,-78.04,-13.95,-88.94,-42.79,-30.6,-6.529,-57.42,-13.85,-35.85,-21.5,0,0,0,0,0,0,0,0,0,0,0,0,0,0,0,0,
32,47.55,93.58,-86.55,31.4,-86.58,-44.07,-102.0,-25.05,-73.18,-50.89,-21.68,-1.28,-45.5,-7.169,-20.33,-6.865,0,0,0,0,0,0,0,0,0,0,0,0,0,0,0,0,
33,30.45,168.9,-91.15,70.25,-105.0,-57.93,-81.92,-13.29,-65.28,-62.41,-4.01,13.4,-33.41,-6.676,-15.14,-2.013,0,0,0,0,0,0,0,0,0,0,0,0,0,0,0,0,
34,4.268,85.1,-65.32,-4.715,-90.67,-9.784,-40.11,-12.42,-68.86,-64.68,-10.75,10.13,-45.59,-21.3,-35.3,-27.53,0,0,0,0,0,0,0,0,0,0,0,0,0,0,0,0,
35,6.39,-67.11,-66.58,-76.72,-105.3,23.9,-31.35,-10.12,-90.28,-52.32,-20.96,8.103,-58.67,-21.77,-39.41,-25.42,0,0,0,0,0,0,0,0,0,0,0,0,0,0,0,0,
36,7.801,-59.95,-57.75,-11.52,-154.8,-5.919,-55.12,-3.058,-99.56,-40.17,-15.19,12.35,-49.06,-14.22,-35.42,-4.748,0,0,0,0,0,0,0,0,0,0,0,0,0,0,0,0,
37,41.17,99.47,-35.23,-10.58,-156.6,-55.6,-74.55,14.63,-91.09,-48.71,-30.1,3.518,-54.88,-18.11,-50.61,-11.99,0,0,0,0,0,0,0,0,0,0,0,0,0,0,0,0,
38,109.4,105.7,-67.1,-164.9,-120.5,-13.0,-59.56,26.58,-99.16,-39.9,-48.91,-0.9897,-72.11,-5.09,-46.28,-10.96,0,0,0,0,0,0,0,0,0,0,0,0,0,0,0,0,
39,83.47,-34.26,-104.8,-87.11,-73.69,56.64,-40.63,-7.779,-93.96,-15.01,-38.97,1.272,-62.49,8.992,-27.01,3.523,0,0,0,0,0,0,0,0,0,0,0,0,0,0,0,0,
40,12.43,5.218,-85.73,139.6,-30.3,10.48,-46.83,-33.3,-53.94,-38.59,-30.43,-4.764,-50.42,-10.14,-36.73,-8.674,0,0,0,0,0,0,0,0,0,0,0,0,0,0,0,0,
41,44.45,112.1,-61.63,41.52,-47.68,-21.06,-46.68,-9.771,-49.19,-65.65,-33.99,-5.626,-57.97,-27.12,-54.22,-27.21,0,0,0,0,0,0,0,0,0,0,0,0,0,0,0,0,
42,92.74,75.46,-35.69,-84.33,-94.1,34.86,-41.09,-7.322,-79.13,-43.91,-31.36,-7.956,-58.24,-30.55,-54.68,-31.72,0,0,0,0,0,0,0,0,0,0,0,0,0,0,0,0,
43,64.95,101.7,0.7877,26.87,-94.94,-0.5802,-53.45,-2.994,-71.14,-43.34,-22.02,-21.17,-44.93,-41.4,-47.79,-31.79,0,0,0,0,0,0,0,0,0,0,0,0,0,0,0,0,
44,35.77,123.8,-30.54,-49.6,-72.01,-41.44,-48.74,51.42,-47.85,-55.25,-7.334,-16.91,-34.48,-36.02,-36.45,-22.34,0,0,0,0,0,0,0,0,0,0,0,0,0,0,0,0,
45,52.43,-57.71,-72.27,-185.5,-47.91,70.73,-15.22,64.09,-42.36,-14.06,1.486,6.239,-24.65,-9.819,-28.19,-13.59,0,0,0,0,0,0,0,0,0,0,0,0,0,0,0,0,
46,124.2,-69.16,-4.848,15.55,-47.37,99.58,-5.188,20.13,-34.96,12.17,-11.98,15.62,-22.09,-1.845,-37.81,-25.43,0,0,0,0,0,0,0,0,0,0,0,0,0,0,0,0,
47,207.6,195.1,57.05,179.0,-93.49,-28.08,-24.24,9.51,-48.13,-27.82,-34.01,7.77,-39.75,-19.75,-59.21,-43.9,0,0,0,0,0,0,0,0,0,0,0,0,0,0,0,0,
48,185.6,245.3,13.7,72.8,-90.63,-48.39,-22.25,18.03,-66.42,-61.01,-31.29,8.892,-43.03,-28.25,-59.69,-41.99,0,0,0,0,0,0,0,0,0,0,0,0,0,0,0,0,
49,95.71,88.03,-25.51,6.197,-23.1,4.893,-5.051,11.0,-31.25,-49.61,-7.217,26.03,-15.12,-12.82,-36.86,-24.95,0,0,0,0,0,0,0,0,0,0,0,0,0,0,0,0,
50,77.41,57.87,-12.16,-0.9288,-15.5,-3.459,-11.78,22.67,3.95,-24.66,-3.308,34.84,-8.102,-3.515,-30.06,-17.56,0,0,0,0,0,0,0,0,0,0,0,0,0,0,0,0,
51,92.02,59.1,16.65,-44.74,-19.77,48.84,-16.21,52.49,-8.989,0.0967,-4.126,31.34,-17.37,-0.4345,-21.26,-9.447,0,0,0,0,0,0,0,0,0,0,0,0,0,0,0,0,
52,56.63,7.841,26.72,-10.7,29.11,112.0,-0.5545,61.34,-8.331,19.06,33.09,41.83,7.879,28.09,20.09,18.95,0,0,0,0,0,0,0,0,0,0,0,0,0,0,0,0,
53,28.7,41.83,-25.47,46.72,3.982,36.03,-7.16,42.79,8.179,15.79,57.99,62.79,32.24,59.17,34.74,40.91,0,0,0,0,0,0,0,0,0,0,0,0,0,0,0,0,
54,56.32,135.4,-67.39,22.4,-64.92,-37.51,-21.73,23.03,1.139,0.3209,28.5,63.02,19.72,57.2,-1.722,32.59,0,0,0,0,0,0,0,0,0,0,0,0,0,0,0,0,
55,98.09,151.8,-35.02,-1.684,-55.79,-25.03,-9.534,21.76,-10.5,-9.876,-6.34,39.61,-3.95,32.8,-35.89,7.761,0,0,0,0,0,0,0,0,0,0,0,0,0,0,0,0,
56,110.2,27.53,-9.116,-38.9,-68.73,-9.996,-12.93,31.86,-43.3,-24.35,-27.36,16.35,-38.6,1.222,-59.8,-21.37,0,0,0,0,0,0,0,0,0,0,0,0,0,0,0,0,
57,88.97,-105.3,2.44,-98.34,-100.2,51.75,-30.59,30.55,-94.96,-36.52,-37.49,-0.3211,-67.6,-25.22,-73.88,-44.4,0,0,0,0,0,0,0,0,0,0,0,0,0,0,0,0,
58,64.5,-22.54,-0.4801,-22.19,-19.43,120.9,-9.966,10.13,-79.85,-37.46,-17.47,-20.64,-49.07,-36.45,-54.41,-46.51,0,0,0,0,0,0,0,0,0,0,0,0,0,0,0,0,
59,72.44,153.5,-64.52,105.5,29.84,63.78,5.924,-6.404,-20.3,-44.92,-0.2021,-36.5,-22.62,-39.06,-29.9,-35.06,0,0,0,0,0,0,0,0,0,0,0,0,0,0,0,0,
60,130.3,180.1,-69.41,97.28,-65.52,-37.43,-28.76,-8.81,-25.27,-47.4,-17.64,-38.06,-41.54,-39.83,-32.85,-30.15,0,0,0,0,0,0,0,0,0,0,0,0,0,0,0,0,
61,201.1,178.4,13.09,55.44,-139.8,-95.87,-61.51,-7.665,-81.72,-45.55,-44.02,-39.89,-80.34,-48.95,-47.45,-36.69,0,0,0,0,0,0,0,0,0,0,0,0,0,0,0,0,
62,183.0,184.4,17.48,-8.906,-153.1,-114.8,-68.37,9.664,-133.1,-69.9,-73.47,-48.07,-111.7,-66.21,-64.07,-46.9,0,0,0,0,0,0,0,0,0,0,0,0,0,0,0,0,
63,69.88,10.78,-33.03,-141.4,-156.0,-7.547,-69.88,29.26,-163.4,-76.9,-99.87,-49.57,-125.7,-63.96,-76.83,-47.61,0,0,0,0,0,0,0,0,0,0,0,0,0,0,0,0,
64,20.45,-135.2,-53.79,-108.1,-63.68,132.6,-47.66,8.472,-118.3,-41.97,-87.65,-45.46,-98.47,-43.22,-69.65,-33.33,0,0,0,0,0,0,0,0,0,0,0,0,0,0,0,0,
65,81.85,30.66,-65.39,88.09,57.47,68.77,-0.6497,-25.54,-5.237,-44.58,-55.73,-49.48,-57.89,-46.52,-61.82,-28.99,0,0,0,0,0,0,0,0,0,0,0,0,0,0,0,0,
66,125.6,250.1,-19.26,146.3,27.03,-70.57,28.7,-29.63,41.51,-88.83,-52.9,-60.31,-61.2,-75.22,-79.52,-50.47,0,0,0,0,0,0,0,0,0,0,0,0,0,0,0,0,
67,153.0,255.1,59.55,86.14,-72.5,-46.68,25.15,-17.57,-18.63,-90.94,-61.01,-56.48,-77.59,-74.39,-89.33,-56.41,0,0,0,0,0,0,0,0,0,0,0,0,0,0,0,0,
68,214.7,188.5,64.41,85.79,-73.98,-4.74,8.823,2.405,-67.33,-56.08,-39.17,-27.89,-52.86,-32.02,-56.48,-22.6,0,0,0,0,0,0,0,0,0,0,0,0,0,0,0,0,
69,173.7,150.1,20.72,71.49,-33.23,-66.87,1.286,29.12,-50.92,-42.02,-0.5584,1.787,-19.65,-1.033,-14.0,4.945,0,0,0,0,0,0,0,0,0,0,0,0,0,0,0,0,
70,38.88,42.94,-20.82,-75.52,-48.86,-31.25,8.624,43.42,-35.75,-31.7,21.65,11.06,-9.276,5.371,3.244,4.87,0,0,0,0,0,0,0,0,0,0,0,0,0,0,0,0,
71,41.11,-113.4,-21.39,-209.3,-68.81,110.9,18.67,33.9,-43.39,5.937,23.81,8.414,1.462,13.16,7.776,8.577,0,0,0,0,0,0,0,0,0,0,0,0,0,0,0,0,
72,103.3,-141.6,37.6,-112.5,-27.28,103.2,22.62,2.098,-26.46,18.58,20.57,3.425,13.83,11.0,11.31,17.94,0,0,0,0,0,0,0,0,0,0,0,0,0,0,0,0,
73,30.23,28.34,51.95,100.0,26.68,-45.83,28.79,-24.11,15.9,-25.03,22.09,-2.605,19.11,-0.9139,11.32,18.52,0,0,0,0,0,0,0,0,0,0,0,0,0,0,0,0,
74,31.28,207.0,13.99,168.4,19.38,-122.3,39.46,-19.48,34.64,-57.12,26.2,-4.531,28.41,1.055,12.49,18.84,0,0,0,0,0,0,0,0,0,0,0,0,0,0,0,0,
75,205.7,189.1,40.87,73.45,-33.99,-55.95,38.43,-5.512,15.76,-46.79,29.05,-7.572,35.19,0.3455,16.47,11.85,0,0,0,0,0,0,0,0,0,0,0,0,0,0,0,0,
76,239.0,55.76,78.14,-53.86,-53.29,85.85,29.6,6.822,-0.9385,-25.96,36.88,-11.28,33.54,-6.586,18.06,-2.05,0,0,0,0,0,0,0,0,0,0,0,0,0,0,0,0,
77,106.9,18.71,39.68,-83.24,-5.99,140.9,33.69,27.46,11.85,-1.94,43.18,5.065,31.48,8.628,16.15,9.24,0,0,0,0,0,0,0,0,0,0,0,0,0,0,0,0,
78,75.56,110.7,11.49,1.117,38.73,36.09,30.21,28.77,20.74,8.395,34.48,27.97,22.98,28.8,13.64,29.7,0,0,0,0,0,0,0,0,0,0,0,0,0,0,0,0,
79,119.0,209.9,41.21,72.99,11.86,-71.25,13.54,3.094,3.561,-7.309,29.21,22.91,14.09,26.27,13.37,18.7,0,0,0,0,0,0,0,0,0,0,0,0,0,0,0,0,
80,134.5,199.3,63.13,84.32,-43.96,-67.61,30.64,5.69,-1.599,-17.87,38.67,10.68,19.23,15.81,11.55,1.765,0,0,0,0,0,0,0,0,0,0,0,0,0,0,0,0,
81,162.2,46.3,60.47,39.92,-49.44,34.71,55.8,48.46,10.86,-9.103,35.36,18.36,18.93,8.568,-2.849,0.4827,0,0,0,0,0,0,0,0,0,0,0,0,0,0,0,0,
82,145.0,-109.1,62.56,-38.86,-11.07,170.3,34.51,61.7,8.144,11.3,18.96,22.25,3.182,1.03,-21.53,-5.931,0,0,0,0,0,0,0,0,0,0,0,0,0,0,0,0,
83,63.52,-35.33,57.54,9.848,25.89,151.3,16.13,22.09,7.012,20.04,19.42,8.835,-3.409,-5.733,-18.24,-9.802,0,0,0,0,0,0,0,0,0,0,0,0,0,0,0,0,
84,62.59,237.6,35.24,156.3,44.89,-43.65,17.0,-3.533,17.57,-15.66,27.85,-5.455,-1.869,-16.48,-8.27,-9.735,0,0,0,0,0,0,0,0,0,0,0,0,0,0,0,0,
85,159.3,382.2,19.9,134.9,9.985,-148.3,-6.309,10.27,5.088,-58.46,23.03,-7.259,-8.675,-26.97,-20.48,-20.65,0,0,0,0,0,0,0,0,0,0,0,0,0,0,0,0,
86,211.4,259.7,26.77,0.2355,-71.07,-75.66,-0.9512,17.19,-17.84,-49.09,28.22,7.439,-6.413,-17.3,-15.15,-11.04,0,0,0,0,0,0,0,0,0,0,0,0,0,0,0,0,
87,172.6,76.94,64.3,-31.81,-85.01,19.06,45.45,12.21,-15.36,-14.49,54.27,23.94,8.913,8.951,22.55,25.34,0,0,0,0,0,0,0,0,0,0,0,0,0,0,0,0,
88,121.3,-12.75,98.98,-21.24,-25.57,76.1,38.01,15.73,-3.923,-0.522,55.64,26.76,10.66,28.29,26.32,40.45,0,0,0,0,0,0,0,0,0,0,0,0,0,0,0,0,
89,92.01,-50.13,74.3,-26.78,-3.458,117.0,9.242,10.0,7.75,1.364,32.16,27.48,14.26,40.16,9.367,41.09,0,0,0,0,0,0,0,0,0,0,0,0,0,0,0,0,
90,37.48,-52.13,48.91,3.339,0.4429,105.4,38.78,0.9642,33.52,4.412,44.49,37.51,44.16,52.07,34.26,60.92,0,0,0,0,0,0,0,0,0,0,0,0,0,0,0,0,
91,-5.934,18.71,63.07,19.97,5.498,9.185,53.84,8.603,39.12,-9.477,67.53,44.45,59.06,52.43,54.26,77.44,0,0,0,0,0,0,0,0,0,0,0,0,0,0,0,0,
92,62.72,132.0,27.89,6.674,-60.88,-111.9,14.53,1.806,-3.055,-43.9,46.56,41.25,40.22,44.87,38.98,77.35,0,0,0,0,0,0,0,0,0,0,0,0,0,0,0,0,
93,164.9,183.5,4.372,24.78,-122.4,-163.8,-6.174,-17.81,-36.3,-55.61,34.7,44.99,36.38,54.0,42.12,83.11,0,0,0,0,0,0,0,0,0,0,0,0,0,0,0,0,
94,142.8,100.7,102.2,37.75,-89.92,-108.8,2.094,2.408,-18.62,-24.7,52.72,57.46,50.53,73.17,54.15,86.96,0,0,0,0,0,0,0,0,0,0,0,0,0,0,0,0,
95,47.84,-41.78,169.0,-11.69,-47.42,9.445,8.97,34.16,3.976,9.413,44.98,57.1,47.84,75.16,45.9,73.83,0,0,0,0,0,0,0,0,0,0,0,0,0,0,0,0,
96,13.15,-62.99,114.2,-62.81,-25.89,63.15,15.94,17.58,1.003,18.81,32.92,46.57,34.43,58.17,35.73,55.91,0,0,0,0,0,0,0,0,0,0,0,0,0,0,0,0,
97,46.58,75.16,72.61,-41.49,-1.078,-3.069,10.05,-6.428,-6.754,0.809,37.39,33.45,13.41,29.92,11.12,31.94,0,0,0,0,0,0,0,0,0,0,0,0,0,0,0,0,
98,85.62,143.9,67.01,-19.07,-5.507,-45.76,-7.639,2.672,-16.86,-31.63,19.28,13.9,-10.29,5.385,-20.86,5.875,0,0,0,0,0,0,0,0,0,0,0,0,0,0,0,0,
99,59.57,-2.132,50.73,-68.5,-15.05,24.37,-8.623,6.536,-21.49,-30.84,4.901,10.25,-1.916,11.77,-13.13,8.204,0,0,0,0,0,0,0,0,0,0,0,0,0,0,0,0,
100,6.115,-99.22,51.66,-50.35,-7.165,87.78,6.661,-2.775,-2.644,5.309,23.45,28.48,24.43,36.64,16.71,33.27,0,0,0,0,0,0,0,0,0,0,0,0,0,0,0,0,
101,71.54,69.1,55.41,99.45,-21.69,49.32,18.47,-3.176,4.43,11.09,34.5,37.9,26.99,43.17,30.42,45.89,0,0,0,0,0,0,0,0,0,0,0,0,0,0,0,0,
102,167.0,225.8,40.99,156.4,-37.84,-37.95,7.075,-6.084,-21.44,-18.62,27.64,32.67,19.11,31.88,29.16,37.21,0,0,0,0,0,0,0,0,0,0,0,0,0,0,0,0,
103,76.74,154.0,13.27,43.84,-27.85,-67.54,-26.71,-8.158,-32.04,-33.28,23.28,23.1,17.48,18.15,18.58,18.89,0,0,0,0,0,0,0,0,0,0,0,0,0,0,0,0,
104,-31.76,75.69,-17.05,-34.39,-31.59,-19.09,-35.78,-1.726,-18.64,-27.59,26.9,16.08,13.92,12.25,16.34,11.74,0,0,0,0,0,0,0,0,0,0,0,0,0,0,0,0,
105,62.89,91.98,14.64,-28.82,-60.8,1.934,-7.08,-4.926,-24.79,-22.96,36.88,17.52,12.14,16.42,24.28,18.31,0,0,0,0,0,0,0,0,0,0,0,0,0,0,0,0,
106,137.4,28.11,77.89,-59.57,-75.15,-16.07,7.79,-6.45,-41.01,-25.98,45.29,21.6,17.64,17.28,25.71,22.91,0,0,0,0,0,0,0,0,0,0,0,0,0,0,0,0,
107,36.09,-91.73,54.61,-90.52,-53.43,38.39,7.702,9.852,-30.12,-17.38,66.82,45.55,38.21,34.43,49.54,51.35,0,0,0,0,0,0,0,0,0,0,0,0,0,0,0,0,
108,-14.95,-72.26,13.76,-14.69,-20.45,93.42,33.53,26.15,-1.911,20.58,108.8,96.8,74.34,86.12,101.3,115.2,0,0,0,0,0,0,0,0,0,0,0,0,0,0,0,0,
109,69.92,90.8,59.58,108.5,8.944,13.79,65.35,34.98,23.8,45.25,130.0,118.4,96.55,111.7,124.3,147.2,0,0,0,0,0,0,0,0,0,0,0,0,0,0,0,0,
110,136.5,219.9,85.96,150.0,39.91,-70.67,68.72,31.98,48.38,23.1,116.8,89.93,86.92,79.99,110.2,120.7,0,0,0,0,0,0,0,0,0,0,0,0,0,0,0,0,
111,129.0,207.9,33.43,72.65,28.58,-36.32,53.4,17.5,52.48,1.328,91.78,59.83,55.78,50.26,87.92,88.86,0,0,0,0,0,0,0,0,0,0,0,0,0,0,0,0,
112,83.21,116.4,15.36,-27.45,-34.05,-1.002,31.26,19.18,18.62,5.254,53.05,39.36,14.89,41.57,50.26,63.87,0,0,0,0,0,0,0,0,0,0,0,0,0,0,0,0,
113,38.88,6.87,40.98,-20.47,-55.69,-1.448,6.381,31.45,-10.92,4.799,12.12,19.37,-14.2,26.42,2.724,28.77,0,0,0,0,0,0,0,0,0,0,0,0,0,0,0,0,
114,20.85,-131.2,0.6563,-14.62,-17.96,56.32,-12.18,24.63,-8.992,-0.617,-3.83,19.51,-19.19,17.41,-22.23,8.787,0,0,0,0,0,0,0,0,0,0,0,0,0,0,0,0,
115,-8.244,-187.2,-67.4,-143.4,-2.37,99.16,-19.04,16.92,-17.78,3.173,-0.7791,36.38,-20.01,22.7,-18.18,14.84,0,0,0,0,0,0,0,0,0,0,0,0,0,0,0,0,
116,-33.59,-39.77,-46.53,-157.5,-33.59,8.063,-11.79,22.55,-45.7,-5.278,6.392,45.24,-23.18,22.76,-0.5981,25.94,0,0,0,0,0,0,0,0,0,0,0,0,0,0,0,0,
117,22.4,134.0,10.48,45.91,-78.16,-124.9,-4.966,11.67,-59.38,-41.6,17.41,46.35,-10.97,22.56,18.16,40.22,0,0,0,0,0,0,0,0,0,0,0,0,0,0,0,0,
118,103.6,159.8,13.65,140.9,-90.27,-170.0,-12.98,-16.13,-63.65,-73.59,30.26,41.37,11.77,26.66,27.9,47.57,0,0,0,0,0,0,0,0,0,0,0,0,0,0,0,0,
119,102.5,149.7,-0.9755,80.47,-59.94,-141.2,-7.947,-20.81,-58.34,-75.12,37.52,22.97,22.14,17.03,24.94,32.5,0,0,0,0,0,0,0,0,0,0,0,0,0,0,0,0,
120,59.6,103.9,-11.68,56.52,-52.06,-79.63,19.64,-5.398,-33.99,-68.69,33.68,4.057,14.29,1.509,12.98,16.81,0,0,0,0,0,0,0,0,0,0,0,0,0,0,0,0,
121,49.7,-40.39,-29.95,28.38,-73.01,-9.95,19.62,-5.494,-21.93,-63.42,23.11,-3.715,-0.6582,0.6976,-3.302,9.18,0,0,0,0,0,0,0,0,0,0,0,0,0,0,0,0,
122,42.94,-76.17,-36.35,-19.83,-47.56,34.23,-8.15,-3.668,-29.56,-42.75,14.57,-7.226,-7.855,8.221,-11.42,-0.828,0,0,0,0,0,0,0,0,0,0,0,0,0,0,0,0,
123,17.62,17.87,-40.09,-39.27,2.099,60.39,-9.524,19.95,-27.65,-19.08,10.19,-5.835,-5.314,15.1,-6.572,0.834,0,0,0,0,0,0,0,0,0,0,0,0,0,0,0,0,
124,23.87,28.18,-45.38,-64.32,-4.835,37.62,-2.777,23.78,-23.3,-15.16,7.347,3.317,-12.59,13.8,-6.891,7.85,0,0,0,0,0,0,0,0,0,0,0,0,0,0,0,0,
125,33.15,24.19,-46.12,-45.15,-50.13,-71.4,-19.89,-0.0464,-36.94,-34.86,0.0424,14.57,-34.91,-1.729,-14.55,3.248,0,0,0,0,0,0,0,0,0,0,0,0,0,0,0,0,
126,-9.211,68.98,-60.48,14.66,-70.4,-127.8,-16.92,-8.805,-55.41,-58.02,-13.6,18.93,-47.71,-10.91,-16.82,1.611,0,0,0,0,0,0,0,0,0,0,0,0,0,0,0,0,
127,-6.806,40.09,-56.9,7.002,-58.51,-54.24,10.41,-2.28,-54.83,-53.95,-27.87,7.638,-52.16,-9.609,-26.89,-2.146,0,0,0,0,0,0,0,0,0,0,0,0,0,0,0,0,
128,57.66,-9.184,-27.74,-14.26,-55.17,-8.507,5.01,-1.277,-47.49,-44.41,-43.8,-9.046,-73.0,-23.9,-47.4,-17.38,0,0,0,0,0,0,0,0,0,0,0,0,0,0,0,0,
129,61.0,-10.8,-32.64,0.7826,-85.99,-27.43,-24.28,-3.752,-65.09,-62.52,-56.72,-18.33,-86.55,-36.86,-50.42,-16.48,0,0,0,0,0,0,0,0,0,0,0,0,0,0,0,0,
130,53.8,9.485,-53.6,-30.33,-106.3,-25.2,-24.87,-5.861,-79.12,-67.47,-44.07,-23.92,-57.17,-18.71,-32.07,1.125,0,0,0,0,0,0,0,0,0,0,0,0,0,0,0,0,
131,71.99,70.73,-51.87,-43.58,-73.47,-43.58,-0.5568,-12.34,-49.02,-40.24,-9.941,-22.2,-19.33,-3.701,-17.28,2.357,0,0,0,0,0,0,0,0,0,0,0,0,0,0,0,0,
132,28.84,105.8,-45.35,33.74,-54.16,-90.39,3.503,-30.98,-23.12,-37.42,8.886,-16.96,-15.54,-19.9,-16.13,-10.33,0,0,0,0,0,0,0,0,0,0,0,0,0,0,0,0,
133,25.12,76.98,-50.23,30.15,-88.64,-113.0,-15.5,-38.08,-41.28,-65.52,5.699,-13.61,-24.32,-26.77,-14.28,-7.467,0,0,0,0,0,0,0,0,0,0,0,0,0,0,0,0,
134,58.85,36.59,-94.39,-88.33,-73.56,-102.4,-17.08,-2.601,-56.63,-67.04,0.6816,6.767,-24.72,-2.984,-5.769,9.496,0,0,0,0,0,0,0,0,0,0,0,0,0,0,0,0,
135,-24.72,-48.42,-128.7,-80.43,-18.37,-28.13,-15.29,26.32,-50.19,-37.39,-5.184,27.52,-32.27,9.241,-6.944,13.54,0,0,0,0,0,0,0,0,0,0,0,0,0,0,0,0,
136,-39.37,-91.46,-71.7,49.94,-80.4,19.5,-39.85,-4.622,-60.15,-31.79,-15.0,12.46,-44.72,-7.247,-16.22,5.545,0,0,0,0,0,0,0,0,0,0,0,0,0,0,0,0,
137,94.03,29.66,-23.34,60.5,-165.6,-73.48,-42.52,-37.25,-79.65,-60.5,-25.23,-12.25,-44.71,-19.68,-16.61,1.934,0,0,0,0,0,0,0,0,0,0,0,0,0,0,0,0,
138,90.84,136.0,-51.06,-32.84,-90.02,-136.3,-20.76,-21.06,-67.63,-68.34,-36.04,-21.22,-39.45,-22.71,-16.01,-6.359,0,0,0,0,0,0,0,0,0,0,0,0,0,0,0,0,
139,8.707,101.4,-51.33,-54.12,-21.83,-71.38,-36.66,-15.73,-44.93,-48.27,-34.71,-32.7,-40.52,-37.09,-18.08,-22.21,0,0,0,0,0,0,0,0,0,0,0,0,0,0,0,0,
140,34.75,50.58,-26.93,-7.886,-85.16,-44.78,-50.87,-46.51,-52.14,-51.67,-12.83,-38.07,-36.61,-46.89,-5.15,-21.93,0,0,0,0,0,0,0,0,0,0,0,0,0,0,0,0,
141,31.15,1.408,-26.37,-6.732,-78.53,-27.88,-20.08,-40.4,-52.23,-57.72,7.799,-17.75,-17.09,-27.82,19.19,0.0829,0,0,0,0,0,0,0,0,0,0,0,0,0,0,0,0,
142,1.396,-74.76,-11.33,-60.09,20.57,74.77,-7.587,2.171,-12.07,-18.26,11.95,4.694,1.407,-3.357,31.3,13.04,0,0,0,0,0,0,0,0,0,0,0,0,0,0,0,0,
143,51.18,-53.15,-17.52,-48.93,48.53,94.78,-31.0,-0.3046,15.3,12.25,5.45,4.575,-0.7493,-1.774,23.81,1.931,0,0,0,0,0,0,0,0,0,0,0,0,0,0,0,0,
144,83.14,90.3,-70.0,40.9,19.75,-11.03,-51.98,-24.57,-0.3191,-11.16,-8.824,-0.3212,-12.96,-3.459,13.33,1.354,0,0,0,0,0,0,0,0,0,0,0,0,0,0,0,0,
145,79.83,154.2,-75.01,58.38,-19.94,-42.22,-57.12,-8.627,-19.0,-28.28,-19.84,11.23,-17.31,9.404,14.44,23.68,0,0,0,0,0,0,0,0,0,0,0,0,0,0,0,0,
146,73.55,64.16,-11.08,11.84,-49.12,4.065,-27.94,0.4504,-22.32,-19.21,-14.33,22.11,-18.25,11.19,14.91,25.89,0,0,0,0,0,0,0,0,0,0,0,0,0,0,0,0,
147,33.23,30.29,25.19,19.43,-2.524,-7.144,6.93,-24.37,-20.14,-29.95,-5.907,14.15,-22.46,-4.744,1.291,4.298,0,0,0,0,0,0,0,0,0,0,0,0,0,0,0,0,
148,27.22,86.57,-3.831,22.56,56.74,4.507,-2.878,-25.8,-3.312,-35.48,-6.333,7.311,-21.06,-1.297,-9.175,1.714,0,0,0,0,0,0,0,0,0,0,0,0,0,0,0,0,
149,49.1,-1.72,-17.3,3.051,40.65,105.4,-9.711,-3.506,23.31,2.184,-1.155,15.58,-10.86,20.84,1.231,15.08,0,0,0,0,0,0,0,0,0,0,0,0,0,0,0,0,
150,33.47,-108.5,27.75,30.35,8.933,110.5,19.21,-5.672,23.8,26.05,10.34,14.18,-7.859,13.79,13.82,11.09,0,0,0,0,0,0,0,0,0,0,0,0,0,0,0,0,
151,74.0,48.78,57.61,12.96,1.661,-13.63,20.41,-21.22,-1.192,-1.761,8.427,-7.422,-20.05,-21.79,7.994,-4.849,0,0,0,0,0,0,0,0,0,0,0,0,0,0,0,0,
152,146.8,197.6,37.76,-51.95,-10.08,-50.83,-17.62,-16.97,-16.65,-30.74,-3.058,-18.18,-30.23,-36.75,3.603,-4.165,0,0,0,0,0,0,0,0,0,0,0,0,0,0,0,0,
153,105.3,96.46,9.212,-22.8,-28.52,1.209,-37.45,-10.95,-27.1,-32.36,-8.223,-2.493,-27.17,-21.64,12.19,10.62,0,0,0,0,0,0,0,0,0,0,0,0,0,0,0,0,
154,14.63,15.66,-17.4,16.2,-37.63,11.44,-25.57,-26.45,-38.7,-22.28,-11.61,17.73,-17.23,-0.8912,13.8,18.56,0,0,0,0,0,0,0,0,0,0,0,0,0,0,0,0,
155,-22.86,16.04,-40.68,-19.58,-17.5,17.37,-11.84,-32.72,-20.99,-8.156,-5.848,26.98,-1.744,14.88,25.42,29.24,0,0,0,0,0,0,0,0,0,0,0,0,0,0,0,0,
156,-20.83,-29.39,-45.6,-1.065,11.09,22.26,-12.88,-12.46,9.998,-4.684,19.86,28.67,8.639,17.74,57.94,48.47,0,0,0,0,0,0,0,0,0,0,0,0,0,0,0,0,
157,7.301,-19.89,-31.76,51.37,-15.21,-16.81,-22.92,-4.079,-0.9788,-17.15,25.47,28.16,-7.363,9.164,56.9,51.13,0,0,0,0,0,0,0,0,0,0,0,0,0,0,0,0,
158,17.45,3.711,-27.04,25.85,-79.94,-29.55,-35.08,-13.64,-45.51,-23.8,-7.051,32.75,-32.61,12.05,27.86,48.8,0,0,0,0,0,0,0,0,0,0,0,0,0,0,0,0,
159,9.273,-24.13,-58.39,-31.71,-89.25,-7.181,-43.31,-8.165,-67.46,-17.82,-22.23,47.59,-32.84,30.82,33.54,68.28,0,0,0,0,0,0,0,0,0,0,0,0,0,0,0,0,
160,33.67,29.77,-73.77,-73.3,-42.84,-13.8,-46.09,1.744,-54.54,-5.324,-10.51,59.52,-21.08,42.81,45.37,77.66,0,0,0,0,0,0,0,0,0,0,0,0,0,0,0,0,
161,31.3,91.88,-46.45,-59.09,-39.68,-37.26,-50.39,-8.841,-42.64,0.5399,-9.733,49.98,-18.6,36.13,29.56,57.91,0,0,0,0,0,0,0,0,0,0,0,0,0,0,0,0,
162,-13.98,43.43,-55.38,21.55,-72.95,-43.37,-35.26,-19.5,-41.79,-18.55,-2.652,30.31,-8.675,21.54,28.37,42.37,0,0,0,0,0,0,0,0,0,0,0,0,0,0,0,0,
163,-20.11,-34.99,-77.53,38.31,-42.76,-10.83,6.883,-10.33,-26.1,-33.3,18.9,22.25,14.49,17.19,43.34,35.28,0,0,0,0,0,0,0,0,0,0,0,0,0,0,0,0,
164,-9.89,-83.15,-31.23,-19.16,20.46,39.72,20.32,-1.16,2.068,-10.4,31.53,22.22,34.4,28.65,51.52,26.76,0,0,0,0,0,0,0,0,0,0,0,0,0,0,0,0,
165,5.603,-32.72,21.91,-27.97,21.0,53.63,0.8884,-1.023,14.91,16.92,49.58,25.5,42.8,40.77,55.84,28.51,0,0,0,0,0,0,0,0,0,0,0,0,0,0,0,0,
166,62.02,72.85,31.34,-8.051,-15.97,42.32,0.0338,3.294,5.109,20.56,55.01,25.75,21.57,31.6,30.64,23.4,0,0,0,0,0,0,0,0,0,0,0,0,0,0,0,0,
167,72.28,100.8,25.52,8.277,-30.41,7.39,-0.6186,-6.068,-15.72,5.385,10.83,11.83,-29.01,3.072,-15.01,0.9581,0,0,0,0,0,0,0,0,0,0,0,0,0,0,0,0,
168,19.58,111.7,8.44,17.5,-22.65,-44.21,-10.82,-32.18,-29.07,-18.45,-25.64,5.546,-56.23,-12.51,-26.37,-8.804,0,0,0,0,0,0,0,0,0,0,0,0,0,0,0,0,
169,11.85,67.64,-1.802,-31.07,-2.014,-11.08,0.7776,-26.35,-23.97,-15.23,-17.08,10.62,-46.22,-10.11,-23.94,-13.74,0,0,0,0,0,0,0,0,0,0,0,0,0,0,0,0,
170,32.28,-48.65,-14.7,-46.66,29.33,56.83,-1.934,-3.122,-11.47,4.872,-22.04,-6.327,-45.92,-22.51,-40.96,-33.66,0,0,0,0,0,0,0,0,0,0,0,0,0,0,0,0,
171,45.76,16.22,-43.39,30.21,46.93,20.03,-30.08,-14.11,-5.566,-15.22,-42.25,-25.48,-52.36,-39.58,-44.21,-40.84,0,0,0,0,0,0,0,0,0,0,0,0,0,0,0,0,
172,84.78,129.1,-19.26,29.76,9.86,-11.64,-30.68,-11.76,-7.364,-38.51,-33.22,-21.95,-36.56,-31.18,-32.57,-34.6,0,0,0,0,0,0,0,0,0,0,0,0,0,0,0,0,
173,84.22,23.22,18.14,-56.8,-57.26,36.27,-26.56,24.45,-17.96,-16.6,-23.1,-24.32,-26.63,-23.0,-35.57,-39.25,0,0,0,0,0,0,0,0,0,0,0,0,0,0,0,0,
174,6.128,-58.74,-33.29,-33.84,-52.69,37.28,-42.8,15.56,-35.16,-3.688,-35.75,-24.03,-36.88,-27.07,-39.32,-34.68,0,0,0,0,0,0,0,0,0,0,0,0,0,0,0,0,
175,-52.31,-31.38,-72.32,54.43,19.17,14.49,-32.72,-21.32,-38.62,-9.708,-37.95,-4.279,-36.45,-14.41,-30.89,-12.2,0,0,0,0,0,0,0,0,0,0,0,0,0,0,0,0,
176,-41.46,-34.07,-17.66,26.78,24.63,14.72,-9.944,-18.33,-26.26,4.205,-23.88,-2.529,-29.87,-3.232,-19.52,-0.5958,0,0,0,0,0,0,0,0,0,0,0,0,0,0,0,0,
177,-6.293,43.01,12.93,-36.22,-40.04,-44.62,-16.54,-12.14,-29.69,0.0937,-12.98,-17.37,-36.19,-16.98,-5.896,0.5287,0,0,0,0,0,0,0,0,0,0,0,0,0,0,0,0,
178,0.871,120.9,-27.96,-5.819,-59.71,-88.79,-28.56,-15.66,-44.52,-33.27,-8.958,-13.04,-38.12,-24.62,-0.5759,6.312,0,0,0,0,0,0,0,0,0,0,0,0,0,0,0,0,
179,-17.33,15.23,-74.66,-2.393,-53.87,-31.84,-33.15,-5.567,-44.01,-39.96,-21.56,-3.073,-29.98,-20.95,-16.03,3.011,0,0,0,0,0,0,0,0,0,0,0,0,0,0,0,0,
180,-10.9,-96.24,-90.91,-50.39,-75.64,-6.676,-31.52,-13.36,-46.29,-29.33,-39.96,-0.2552,-26.57,-25.79,-29.9,-12.4,0,0,0,0,0,0,0,0,0,0,0,0,0,0,0,0,
181,13.15,-57.89,-52.23,-9.596,-64.34,-53.99,-6.95,-11.95,-51.29,-33.57,-27.77,8.547,-25.52,-24.87,-23.5,-18.13,0,0,0,0,0,0,0,0,0,0,0,0,0,0,0,0,
182,20.74,13.07,20.23,36.24,-24.69,-48.81,9.792,16.89,-32.14,-29.01,-5.643,9.57,-25.36,-21.75,-21.94,-20.33,0,0,0,0,0,0,0,0,0,0,0,0,0,0,0,0,
183,16.12,23.93,39.06,7.782,-2.635,3.662,-9.922,-7.019,-17.12,-17.74,-17.41,-10.32,-28.77,-34.48,-37.83,-35.64,0,0,0,0,0,0,0,0,0,0,0,0,0,0,0,0,
184,-19.23,29.52,-26.5,-2.345,38.41,14.12,-25.91,-39.36,-24.64,-24.2,-36.86,-25.45,-25.8,-35.71,-41.18,-39.36,0,0,0,0,0,0,0,0,0,0,0,0,0,0,0,0,
185,-62.79,36.0,-85.28,-45.95,44.41,12.66,-22.72,1.655,-23.21,-20.95,-34.25,-13.45,-20.51,-12.43,-24.97,-15.88,0,0,0,0,0,0,0,0,0,0,0,0,0,0,0,0,
186,-38.08,-21.81,-48.18,-98.97,-44.15,15.02,-25.09,13.73,-24.55,-1.111,-28.05,9.283,-29.04,-1.879,-15.42,2.106,0,0,0,0,0,0,0,0,0,0,0,0,0,0,0,0,
187,26.05,-24.75,9.294,-13.67,-96.58,-56.43,-21.97,-27.45,-50.55,-16.67,-22.73,13.71,-45.51,-20.87,-20.22,-6.558,0,0,0,0,0,0,0,0,0,0,0,0,0,0,0,0,
188,45.53,74.57,-22.19,65.34,-69.51,-132.9,-2.553,-19.03,-67.32,-60.18,-13.54,4.131,-51.62,-44.83,-28.17,-23.5,0,0,0,0,0,0,0,0,0,0,0,0,0,0,0,0,
189,6.597,26.68,-71.2,13.43,-67.51,-89.28,12.65,-0.7673,-60.52,-68.21,-2.756,3.809,-37.59,-49.3,-19.55,-27.0,0,0,0,0,0,0,0,0,0,0,0,0,0,0,0,0,
190,-45.47,-115.8,-45.02,-16.6,-66.0,-23.01,15.82,-19.35,-51.51,-46.72,14.05,3.913,-14.34,-41.54,6.05,-23.89,0,0,0,0,0,0,0,0,0,0,0,0,0,0,0,0,
191,-33.21,-43.39,14.36,-0.6424,-31.69,-22.96,10.29,-17.94,-40.29,-38.19,9.095,-13.18,-11.88,-46.57,2.156,-38.96,0,0,0,0,0,0,0,0,0,0,0,0,0,0,0,0,
192,31.16,105.7,46.39,-24.91,-23.84,-21.84,-2.51,-9.922,-27.04,-35.99,-30.91,-35.27,-30.32,-59.63,-34.8,-64.04,0,0,0,0,0,0,0,0,0,0,0,0,0,0,0,0,
193,37.01,65.34,17.31,-43.25,-19.77,-12.31,-15.27,-20.38,-19.24,-20.75,-48.29,-40.93,-35.46,-54.58,-42.78,-62.45,0,0,0,0,0,0,0,0,0,0,0,0,0,0,0,0,
194,-15.39,-26.46,-56.03,-16.19,4.906,-9.344,-27.36,-10.19,-11.03,1.394,-33.38,-16.54,-27.06,-28.7,-27.0,-34.31,0,0,0,0,0,0,0,0,0,0,0,0,0,0,0,0,
195,-54.36,-7.072,-97.38,-7.824,11.26,1.129,-31.5,16.32,-7.002,10.78,-37.35,19.66,-26.17,-1.335,-32.56,-14.18,0,0,0,0,0,0,0,0,0,0,0,0,0,0,0,0,
196,-80.19,-7.574,-85.57,-39.42,20.18,6.916,-9.813,31.64,-5.753,5.907,-41.85,28.73,-20.22,10.93,-34.98,-11.18,0,0,0,0,0,0,0,0,0,0,0,0,0,0,0,0,
197,-76.16,-104.8,-35.46,-23.91,28.16,33.63,15.09,34.87,5.456,11.14,-19.02,18.06,-4.432,7.153,-20.17,-9.692,0,0,0,0,0,0,0,0,0,0,0,0,0,0,0,0,
198,-14.62,-99.4,34.09,31.56,-15.12,48.77,7.442,17.07,8.824,15.68,-4.496,6.314,-0.4737,-10.69,-20.06,-13.07,0,0,0,0,0,0,0,0,0,0,0,0,0,0,0,0,
199,57.99,75.13,63.39,28.08,-43.93,-7.3,-4.208,-17.71,3.224,-9.66,-3.484,-16.12,-2.793,-41.72,-26.54,-27.71,0,0,0,0,0,0,0,0,0,0,0,0,0,0,0,0,
200,81.22,174.6,60.37,29.51,7.673,-36.84,12.45,-41.59,13.22,-34.11,0.695,-31.55,-4.114,-64.39,-26.64,-37.19,0,0,0,0,0,0,0,0,0,0,0,0,0,0,0,0,
201,33.76,115.1,53.56,77.19,45.62,-9.838,21.76,-46.8,9.507,-33.2,-16.95,-30.17,-27.68,-63.85,-42.43,-37.77,0,0,0,0,0,0,0,0,0,0,0,0,0,0,0,0,
202,-28.76,49.83,-1.398,43.08,14.94,-24.9,-0.6381,-45.07,-24.78,-33.33,-51.49,-26.48,-57.67,-49.6,-57.81,-31.01,0,0,0,0,0,0,0,0,0,0,0,0,0,0,0,0,
203,-32.85,-10.51,-50.16,-56.69,1.196,-26.98,-27.13,-29.24,-35.32,-26.18,-58.49,3.04,-49.16,-19.66,-40.64,-2.312,0,0,0,0,0,0,0,0,0,0,0,0,0,0,0,0,
204,-23.36,-116.3,-37.47,-107.6,13.79,33.65,-42.81,11.53,-13.68,5.277,-45.42,45.24,-23.55,10.74,-20.17,25.47,0,0,0,0,0,0,0,0,0,0,0,0,0,0,0,0,
205,-29.02,-135.3,-59.71,-102.8,-13.77,46.91,-44.65,41.38,-5.551,22.96,-39.5,47.93,-18.2,10.9,-20.95,23.75,0,0,0,0,0,0,0,0,0,0,0,0,0,0,0,0,
206,3.102,-0.5438,-84.93,-39.99,-39.38,-3.177,-29.66,25.56,-8.739,8.12,-22.38,44.84,-7.598,6.756,-12.37,23.77,0,0,0,0,0,0,0,0,0,0,0,0,0,0,0,0,
207,5.618,78.32,-17.82,45.82,-21.79,-40.12,-22.93,0.3497,-8.376,-9.047,2.746,62.4,15.59,18.35,4.471,32.14,0,0,0,0,0,0,0,0,0,0,0,0,0,0,0,0,
208,-49.84,19.26,22.25,79.76,-20.52,-60.93,-20.34,0.5213,-24.59,-16.05,0.9365,45.45,17.47,8.306,-1.252,15.29,0,0,0,0,0,0,0,0,0,0,0,0,0,0,0,0,
209,-20.22,28.23,1.987,65.27,-36.68,-70.27,21.44,4.445,-47.14,-18.68,-1.768,6.36,14.66,-15.81,-3.816,-4.818,0,0,0,0,0,0,0,0,0,0,0,0,0,0,0,0,
210,51.95,80.93,42.85,20.54,-13.98,-45.98,74.48,-2.155,-31.92,-10.73,28.45,-2.063,32.96,-19.45,19.29,-6.471,0,0,0,0,0,0,0,0,0,0,0,0,0,0,0,0,
211,19.21,6.412,71.78,-15.25,35.69,3.98,81.01,-13.06,11.52,2.5,46.08,-11.97,36.98,-26.47,25.67,-21.32,0,0,0,0,0,0,0,0,0,0,0,0,0,0,0,0,
212,-9.44,-54.81,28.5,-12.05,61.56,42.53,63.88,-23.6,32.75,0.6461,24.61,-36.94,11.92,-44.59,-0.1669,-43.84,0,0,0,0,0,0,0,0,0,0,0,0,0,0,0,0,
213,47.93,-28.56,41.19,-39.91,34.51,43.53,54.9,-18.07,24.03,-9.017,4.983,-27.39,-7.171,-41.43,-22.84,-45.61,0,0,0,0,0,0,0,0,0,0,0,0,0,0,0,0,
214,62.06,-44.5,79.06,-84.74,-10.42,31.46,45.89,3.085,7.084,-0.8558,-0.1566,5.422,-12.3,-26.34,-33.14,-44.97,0,0,0,0,0,0,0,0,0,0,0,0,0,0,0,0,
215,9.947,-24.56,42.94,-54.07,-9.941,23.13,39.17,11.44,-10.18,13.12,-6.747,19.64,-16.31,-22.26,-38.71,-49.39,0,0,0,0,0,0,0,0,0,0,0,0,0,0,0,0,
216,-27.01,78.91,22.82,12.45,14.1,-20.14,30.89,3.855,-18.9,3.6,-5.773,25.79,-17.01,-21.69,-34.76,-43.23,0,0,0,0,0,0,0,0,0,0,0,0,0,0,0,0,
217,-31.46,113.2,46.08,39.64,17.41,-66.75,19.31,9.34,-10.58,-14.05,4.034,30.28,-16.57,-21.87,-30.34,-36.53,0,0,0,0,0,0,0,0,0,0,0,0,0,0,0,0,
218,-1.446,33.04,40.79,-2.146,24.11,-25.31,31.68,28.39,4.369,-13.11,2.131,25.14,-18.33,-23.95,-35.28,-31.37,0,0,0,0,0,0,0,0,0,0,0,0,0,0,0,0,
219,28.95,-108.8,27.64,-75.68,33.05,58.55,54.35,19.03,10.71,-10.66,-10.27,18.67,-19.11,-27.26,-37.21,-21.34,0,0,0,0,0,0,0,0,0,0,0,0,0,0,0,0,
220,22.71,-162.2,20.56,-56.96,6.35,60.42,42.33,-22.21,2.917,-25.39,-10.77,8.301,-20.44,-38.46,-24.95,-17.35,0,0,0,0,0,0,0,0,0,0,0,0,0,0,0,0,
221,25.46,4.664,25.4,23.08,-25.12,-21.29,20.17,-36.47,-15.52,-43.19,0.3188,-0.5313,-16.02,-42.68,-2.776,-11.8,0,0,0,0,0,0,0,0,0,0,0,0,0,0,0,0,
222,48.85,168.9,67.55,31.92,-0.3084,-77.42,31.22,-21.12,-24.85,-51.08,1.053,4.587,-3.113,-25.77,11.69,-0.1188,0,0,0,0,0,0,0,0,0,0,0,0,0,0,0,0,
223,65.24,140.9,88.43,29.19,56.05,-39.28,42.93,-28.33,-6.571,-44.43,-11.21,4.468,-0.3731,-8.98,6.843,4.156,0,0,0,0,0,0,0,0,0,0,0,0,0,0,0,0,
224,77.48,94.1,68.51,61.08,82.46,22.06,20.93,-29.49,18.55,-21.1,-20.11,-2.615,-6.835,2.167,-1.704,11.13,0,0,0,0,0,0,0,0,0,0,0,0,0,0,0,0,
225,36.37,59.73,48.61,33.7,85.75,36.65,-6.065,7.73,27.84,7.104,-22.67,1.961,-2.261,16.26,-9.14,13.37,0,0,0,0,0,0,0,0,0,0,0,0,0,0,0,0,
226,-37.85,-58.96,14.52,-37.58,67.36,67.32,-12.67,22.87,33.89,24.23,-22.4,2.335,6.229,13.6,-22.57,-3.989,0,0,0,0,0,0,0,0,0,0,0,0,0,0,0,0,
227,-9.184,-98.0,8.914,-55.5,11.38,98.86,4.19,0.7286,31.6,15.56,-6.468,-7.508,14.73,-3.704,-8.679,2.622,0,0,0,0,0,0,0,0,0,0,0,0,0,0,0,0,
228,64.83,0.3503,57.13,-7.649,2.882,37.41,39.12,-18.24,20.24,-13.29,28.72,-9.818,38.68,-7.174,43.17,44.51,0,0,0,0,0,0,0,0,0,0,0,0,0,0,0,0,
229,46.58,36.22,71.07,22.26,73.53,-30.04,49.52,-34.34,39.62,-23.08,54.94,-13.96,59.55,-6.201,76.28,63.68,0,0,0,0,0,0,0,0,0,0,0,0,0,0,0,0,
230,30.63,9.547,55.52,-32.5,86.21,-8.368,24.21,-31.18,67.48,-10.37,55.81,-28.41,51.23,-17.02,71.85,47.9,0,0,0,0,0,0,0,0,0,0,0,0,0,0,0,0,
231,61.26,18.68,59.51,-63.79,24.74,31.6,24.71,-12.84,46.83,-7.981,47.65,-32.77,36.02,-20.88,62.28,32.19,0,0,0,0,0,0,0,0,0,0,0,0,0,0,0,0,
232,19.31,12.64,62.33,25.44,13.58,32.33,49.5,-27.54,18.46,-3.903,41.22,-15.09,38.35,-4.164,56.51,32.44,0,0,0,0,0,0,0,0,0,0,0,0,0,0,0,0,
233,-41.91,39.23,61.23,73.48,20.13,-21.26,33.85,-22.69,28.03,11.93,37.19,15.99,45.75,25.35,56.6,46.97,0,0,0,0,0,0,0,0,0,0,0,0,0,0,0,0,
234,-25.5,89.55,4.599,-25.05,-21.62,-75.05,-4.25,40.36,39.4,20.78,35.79,49.8,45.03,55.55,58.99,62.88,0,0,0,0,0,0,0,0,0,0,0,0,0,0,0,0,
235,-17.69,-34.58,-91.03,-83.96,-36.03,-21.06,-16.02,53.7,29.29,33.71,29.07,70.58,36.22,65.29,43.75,64.15,0,0,0,0,0,0,0,0,0,0,0,0,0,0,0,0,
236,-28.29,-182.7,-57.22,-17.42,-12.22,55.61,-11.88,4.703,4.26,39.57,22.18,66.96,22.64,45.62,27.79,52.38,0,0,0,0,0,0,0,0,0,0,0,0,0,0,0,0,
237,19.71,-75.17,35.9,19.5,-2.481,32.12,-3.62,0.2327,-21.84,14.81,26.12,53.42,15.01,22.86,34.87,38.64,0,0,0,0,0,0,0,0,0,0,0,0,0,0,0,0,
238,37.34,71.58,0.4801,6.832,17.47,-4.574,-2.585,19.39,-17.27,0.6031,25.84,35.6,14.11,9.527,36.69,20.21,0,0,0,0,0,0,0,0,0,0,0,0,0,0,0,0,
239,-26.91,58.05,-25.55,34.24,25.79,-15.43,-22.51,-7.41,9.472,10.05,15.64,9.43,10.59,-4.848,23.9,3.931,0,0,0,0,0,0,0,0,0,0,0,0,0,0,0,0,
240,-28.58,55.3,36.82,38.01,-3.842,-49.55,-22.23,-37.18,22.33,8.728,11.35,-0.0705,13.03,-3.879,23.76,13.28,0,0,0,0,0,0,0,0,0,0,0,0,0,0,0,0,
241,45.62,94.48,4.063,-15.69,-12.05,-61.84,8.88,-19.49,23.55,5.982,2.192,0.807,18.38,11.54,18.49,24.11,0,0,0,0,0,0,0,0,0,0,0,0,0,0,0,0,
242,47.15,16.24,-62.77,-57.17,-24.66,-22.42,6.864,13.85,9.557,9.228,-19.37,-15.55,6.514,12.79,-0.6032,11.28,0,0,0,0,0,0,0,0,0,0,0,0,0,0,0,0,
243,-20.19,-182.4,-6.413,-93.9,-66.27,50.33,-17.94,18.1,-21.05,16.75,-21.62,-18.21,-6.173,15.93,8.857,15.59,0,0,0,0,0,0,0,0,0,0,0,0,0,0,0,0,
244,-67.96,-263.3,21.6,-101.1,-41.52,91.28,-12.31,-1.836,-32.1,32.12,-7.972,-11.71,-11.1,18.98,23.61,23.16,0,0,0,0,0,0,0,0,0,0,0,0,0,0,0,0,
245,-80.23,-49.82,-46.9,-7.936,16.67,2.313,-5.159,-27.39,-30.02,9.201,-16.91,-35.62,-29.52,-13.1,2.936,-8.646,0,0,0,0,0,0,0,0,0,0,0,0,0,0,0,0,
246,-40.45,200.8,-43.63,109.9,6.13,-107.7,-6.326,-50.44,-35.65,-44.55,-23.39,-41.28,-31.14,-34.28,5.242,-12.86,0,0,0,0,0,0,0,0,0,0,0,0,0,0,0,0,
247,14.08,171.7,9.684,117.5,-0.7992,-71.49,11.58,-43.72,-11.71,-44.45,10.49,-6.696,9.436,-4.133,47.53,34.95,0,0,0,0,0,0,0,0,0,0,0,0,0,0,0,0,
248,15.26,-27.17,-2.82,6.295,45.13,26.33,20.66,-11.28,34.73,-2.357,51.12,12.56,45.16,26.1,65.66,57.12,0,0,0,0,0,0,0,0,0,0,0,0,0,0,0,0,
249,10.46,-173.7,-1.78,-76.71,51.57,87.24,15.78,-5.659,49.33,22.7,68.4,21.11,53.59,35.94,62.62,53.13,0,0,0,0,0,0,0,0,0,0,0,0,0,0,0,0,
250,20.09,-165.6,53.92,-34.52,-5.435,91.09,16.98,-19.85,37.01,26.76,60.88,29.7,42.63,35.54,50.53,46.54,0,0,0,0,0,0,0,0,0,0,0,0,0,0,0,0,
251,-5.118,12.09,56.84,4.131,-50.97,-14.56,-2.324,-17.33,11.11,1.011,21.94,8.052,5.324,12.22,5.898,11.48,0,0,0,0,0,0,0,0,0,0,0,0,0,0,0,0,
252,-27.03,153.9,-0.8277,-30.3,-46.06,-117.5,-29.21,-25.0,-24.21,-32.42,-11.72,-19.96,-30.06,-13.84,-31.62,-24.67,0,0,0,0,0,0,0,0,0,0,0,0,0,0,0,0,
253,-31.96,80.61,-27.73,-48.57,-9.851,-81.99,-19.56,-49.01,-30.87,-35.6,-6.194,-27.76,-40.14,-29.29,-34.04,-34.88,0,0,0,0,0,0,0,0,0,0,0,0,0,0,0,0,
254,-47.15,-79.11,-12.58,-68.98,24.87,-10.22,5.947,-49.89,-17.34,-42.36,-1.876,-43.31,-48.18,-57.03,-39.07,-50.73,0,0,0,0,0,0,0,0,0,0,0,0,0,0,0,0,
255,-11.09,-151.1,20.08,-70.27,27.28,17.17,14.66,-36.29,-25.75,-64.62,-15.69,-65.1,-52.0,-80.76,-45.78,-62.74,0,0,0,0,0,0,0,0,0,0,0,0,0,0,0,0,
256,73.7,-73.18,79.57,20.33,-1.605,13.3,6.197,-37.46,-34.45,-68.75,-15.99,-57.13,-39.21,-70.14,-35.19,-40.4,0,0,0,0,0,0,0,0,0,0,0,0,0,0,0,0,
257,107.7,110.7,121.8,47.53,-9.374,-37.45,-6.112,-49.37,-23.02,-61.46,-9.668,-24.87,-25.6,-37.37,-19.89,-8.274,0,0,0,0,0,0,0,0,0,0,0,0,0,0,0,0,
258,56.48,170.2,86.93,-50.34,17.97,-62.97,-7.392,-54.03,-11.48,-45.56,-9.368,-8.315,-7.699,-10.11,-0.7725,8.642,0,0,0,0,0,0,0,0,0,0,0,0,0,0,0,0,
259,-34.66,28.08,23.03,-76.25,26.82,-24.39,-4.811,-38.65,4.443,-19.83,1.766,-18.52,21.91,-3.166,22.28,19.48,0,0,0,0,0,0,0,0,0,0,0,0,0,0,0,0,
260,-58.96,-37.45,-9.849,-14.34,21.83,-2.377,-3.982,-25.04,29.89,-8.43,17.82,-32.21,42.38,-3.126,36.47,27.1,0,0,0,0,0,0,0,0,0,0,0,0,0,0,0,0,
261,8.34,19.32,-16.45,6.004,37.42,20.08,-6.413,-31.83,43.49,-0.8664,14.89,-38.17,40.18,6.274,37.56,22.96,0,0,0,0,0,0,0,0,0,0,0,0,0,0,0,0,
262,53.39,-27.59,9.938,-2.501,22.1,54.09,-24.87,-21.93,30.19,10.35,-1.08,-41.91,25.16,8.863,31.98,12.28,0,0,0,0,0,0,0,0,0,0,0,0,0,0,0,0,
263,51.87,-71.14,35.43,5.074,-25.82,14.64,-25.29,5.354,0.6636,2.448,4.304,-38.38,23.36,5.088,43.63,14.97,0,0,0,0,0,0,0,0,0,0,0,0,0,0,0,0,
264,16.93,12.75,8.363,25.33,-19.48,-45.62,15.47,-1.557,-7.281,-4.531,38.17,-24.82,43.17,15.46,70.68,29.71,0,0,0,0,0,0,0,0,0,0,0,0,0,0,0,0,
265,-55.53,35.94,2.493,39.76,-0.6114,-37.27,30.76,-24.88,6.291,4.036,56.92,-17.17,45.59,14.82,64.04,23.78,0,0,0,0,0,0,0,0,0,0,0,0,0,0,0,0,
266,-43.55,12.68,47.87,18.77,-37.45,-28.18,4.809,-17.53,-7.242,-4.082,42.14,-20.13,17.14,-12.25,27.57,-2.379,0,0,0,0,0,0,0,0,0,0,0,0,0,0,0,0,
267,21.0,53.88,31.63,-9.877,-58.15,-63.83,-4.86,-1.769,-35.58,-28.99,20.42,-22.56,-7.072,-26.46,9.159,-11.9,0,0,0,0,0,0,0,0,0,0,0,0,0,0,0,0,
268,-25.79,30.45,-26.82,-5.471,-73.3,-83.82,-7.768,-9.404,-48.52,-42.65,-0.5828,-19.33,-22.29,-14.2,4.397,-2.27,0,0,0,0,0,0,0,0,0,0,0,0,0,0,0,0,
269,-70.44,-76.6,-34.08,-3.688,-105.2,-42.21,-10.35,-15.8,-62.43,-27.36,-0.6825,6.737,-18.36,17.77,18.35,23.32,0,0,0,0,0,0,0,0,0,0,0,0,0,0,0,0,
270,-55.64,-168.9,-50.87,-12.94,-19.26,39.28,29.58,14.68,-35.69,19.89,46.94,56.76,33.22,66.81,69.2,71.08,0,0,0,0,0,0,0,0,0,0,0,0,0,0,0,0,
271,-92.72,-179.7,-53.62,3.57,100.3,69.73,77.2,57.35,44.17,56.36,92.13,80.94,79.4,87.97,102.3,99.01,0,0,0,0,0,0,0,0,0,0,0,0,0,0,0,0,
272,-37.07,-5.16,59.61,29.79,45.13,7.21,69.15,63.5,63.34,46.62,89.34,59.76,61.97,60.7,83.47,78.21,0,0,0,0,0,0,0,0,0,0,0,0,0,0,0,0,
273,110.4,177.1,125.6,65.25,-37.93,-40.21,14.48,45.67,5.672,22.83,59.1,22.84,14.78,23.82,44.85,36.6,0,0,0,0,0,0,0,0,0,0,0,0,0,0,0,0,
274,59.4,95.54,19.29,93.48,-19.08,0.074,-49.68,29.2,-34.16,9.524,9.875,-10.35,-29.51,-7.427,1.939,-2.747,0,0,0,0,0,0,0,0,0,0,0,0,0,0,0,0,
275,-71.07,-34.94,-46.94,27.31,-27.81,45.65,-75.37,7.243,-52.0,4.227,-30.5,-12.93,-53.66,-15.57,-18.71,-13.71,0,0,0,0,0,0,0,0,0,0,0,0,0,0,0,0,
276,-15.14,-2.931,7.519,-59.34,-45.79,48.13,-48.84,0.9895,-59.03,21.26,-29.12,11.42,-36.28,16.87,-4.378,6.602,0,0,0,0,0,0,0,0,0,0,0,0,0,0,0,0,
277,62.47,13.35,19.99,-26.06,-26.0,45.22,-34.57,21.8,-36.74,46.52,-29.12,6.89,-11.76,37.28,-0.9104,7.738,0,0,0,0,0,0,0,0,0,0,0,0,0,0,0,0,
278,28.25,1.147,-19.47,29.64,-40.48,37.33,-45.37,28.48,-12.18,43.66,-36.13,-21.27,-4.331,17.02,-5.724,-8.756,0,0,0,0,0,0,0,0,0,0,0,0,0,0,0,0,
279,-8.405,46.04,-53.68,20.27,-12.98,27.01,-23.36,13.89,16.12,20.7,-8.755,-35.25,12.73,-1.638,7.681,-6.517,0,0,0,0,0,0,0,0,0,0,0,0,0,0,0,0,
280,-53.57,6.048,-95.9,19.51,77.44,37.56,5.413,0.9157,50.84,1.679,8.035,-58.1,25.43,-8.843,1.805,-13.85,0,0,0,0,0,0,0,0,0,0,0,0,0,0,0,0,
281,-108.2,-60.41,-79.44,37.29,64.97,40.4,-15.08,-14.72,36.48,-9.692,-14.46,-86.59,9.983,-20.02,-27.28,-42.65,0,0,0,0,0,0,0,0,0,0,0,0,0,0,0,0,
282,-58.28,29.73,6.546,43.22,-18.54,23.7,-47.43,-16.94,-14.62,-14.07,-27.18,-78.74,-14.38,-29.14,-42.14,-57.57,0,0,0,0,0,0,0,0,0,0,0,0,0,0,0,0,
283,38.74,85.6,38.0,14.53,-32.35,11.86,-55.28,8.622,-48.79,-13.97,-32.2,-53.44,-44.26,-35.88,-55.38,-63.82,0,0,0,0,0,0,0,0,0,0,0,0,0,0,0,0,
284,42.04,-12.93,-8.784,-23.46,-36.17,-14.63,-65.39,19.65,-76.77,-15.17,-48.82,-37.28,-78.52,-38.52,-73.91,-69.7,0,0,0,0,0,0,0,0,0,0,0,0,0,0,0,0,
285,-2.934,-38.19,-75.3,30.96,-79.36,-55.32,-75.87,10.97,-90.51,-28.55,-48.11,-13.53,-86.05,-28.29,-68.75,-53.54,0,0,0,0,0,0,0,0,0,0,0,0,0,0,0,0,
286,-19.59,20.29,-119.8,82.34,-79.4,-65.32,-54.06,24.79,-66.13,-53.88,-24.83,-0.176,-61.23,-19.64,-47.82,-34.87,0,0,0,0,0,0,0,0,0,0,0,0,0,0,0,0,
287,-21.75,27.26,-79.26,5.384,-33.46,-41.73,-17.41,29.46,-35.71,-60.91,-3.514,-26.88,-31.62,-32.85,-42.98,-45.08,0,0,0,0,0,0,0,0,0,0,0,0,0,0,0,0,
288,-22.82,36.49,-1.322,-15.09,-13.8,-2.376,-1.016,-10.29,-22.62,-45.05,-1.841,-59.59,-16.81,-53.55,-53.45,-62.31,0,0,0,0,0,0,0,0,0,0,0,0,0,0,0,0,
289,-60.75,3.271,-0.8731,50.52,-3.917,39.75,1.978,-31.68,-19.39,-35.91,-23.49,-57.28,-21.59,-47.77,-61.37,-61.67,0,0,0,0,0,0,0,0,0,0,0,0,0,0,0,0,
290,-109.1,-104.1,-17.74,8.461,49.53,62.94,0.8901,-2.343,-12.65,-12.29,-37.45,-20.99,-27.07,-9.866,-55.73,-41.7,0,0,0,0,0,0,0,0,0,0,0,0,0,0,0,0,
291,-30.23,-58.34,16.72,-9.681,89.77,64.37,-0.9072,31.7,16.71,42.59,-21.12,19.21,-13.94,23.43,-36.35,-12.29,0,0,0,0,0,0,0,0,0,0,0,0,0,0,0,0,
292,121.4,137.6,23.39,97.41,34.02,41.38,7.638,55.33,41.73,58.86,-9.919,21.39,-11.45,18.01,-28.48,-9.634,0,0,0,0,0,0,0,0,0,0,0,0,0,0,0,0,
293,136.4,164.1,-7.48,92.42,-39.89,5.353,5.942,61.9,19.02,19.18,-26.3,-3.91,-36.42,-3.471,-42.9,-34.29,0,0,0,0,0,0,0,0,0,0,0,0,0,0,0,0,
294,40.37,16.11,-22.14,9.952,-7.882,4.597,-6.461,27.9,-14.38,4.087,-31.31,-16.53,-35.55,-0.4709,-36.27,-32.22,0,0,0,0,0,0,0,0,0,0,0,0,0,0,0,0,
295,-18.69,-14.92,-28.12,49.2,64.43,23.55,11.43,-13.03,-3.284,19.73,-6.075,-35.65,4.386,8.853,-0.8435,-10.95,0,0,0,0,0,0,0,0,0,0,0,0,0,0,0,0,
296,-37.15,43.03,-16.48,30.26,50.7,14.27,26.75,-23.52,26.32,16.24,4.01,-73.07,18.23,-2.909,3.966,-18.4,0,0,0,0,0,0,0,0,0,0,0,0,0,0,0,0,
297,-29.48,-21.85,7.992,-102.0,8.05,15.17,0.1751,-30.24,28.82,14.58,-21.29,-91.74,-2.749,-7.229,-19.16,-28.09,0,0,0,0,0,0,0,0,0,0,0,0,0,0,0,0,
298,20.99,-50.56,23.91,-46.85,18.52,39.58,-12.31,-36.5,19.31,28.69,-32.42,-92.12,-9.463,8.473,-13.91,-13.34,0,0,0,0,0,0,0,0,0,0,0,0,0,0,0,0,
299,66.06,90.49,55.8,123.6,13.24,41.07,1.363,-10.79,18.71,23.33,-12.45,-99.75,-6.313,7.037,-2.423,-24.14,0,0,0,0,0,0,0,0,0,0,0,0,0,0,0,0,
300,53.4,112.7,42.24,103.3,1.552,50.62,6.76,23.82,13.44,9.852,-3.716,-107.0,-12.5,-14.92,-24.4,-69.95,0,0,0,0,0,0,0,0,0,0,0,0,0,0,0,0,
301,-16.27,-25.28,-40.2,20.28,69.92,86.48,25.89,29.14,17.85,19.34,-5.835,-89.41,-10.23,-20.99,-41.54,-82.18,0,0,0,0,0,0,0,0,0,0,0,0,0,0,0,0,
302,-65.65,-39.66,-15.94,50.23,97.81,77.31,43.18,18.9,37.86,27.78,3.816,-48.14,-5.098,-13.23,-33.18,-56.75,0,0,0,0,0,0,0,0,0,0,0,0,0,0,0,0,
303,5.163,22.62,81.34,65.29,6.619,27.2,16.99,8.979,25.93,13.05,7.748,-20.48,-11.09,-16.66,-30.63,-51.2,0,0,0,0,0,0,0,0,0,0,0,0,0,0,0,0,
304,93.9,25.25,22.93,32.82,-21.86,4.033,-18.24,4.202,-0.2844,2.215,2.589,-15.92,-10.68,-17.96,-33.69,-55.36,0,0,0,0,0,0,0,0,0,0,0,0,0,0,0,0,
305,37.29,43.34,-61.79,10.38,35.45,9.812,-27.91,27.24,5.262,10.19,-13.18,-5.645,-17.65,-5.413,-38.85,-43.99,0,0,0,0,0,0,0,0,0,0,0,0,0,0,0,0,
306,-16.24,53.3,17.55,-28.19,16.06,39.58,-17.81,59.28,-10.28,13.97,-51.06,6.16,-47.19,3.006,-54.32,-38.71,0,0,0,0,0,0,0,0,0,0,0,0,0,0,0,0,
307,69.33,25.65,85.66,-10.64,-39.69,82.42,-0.8093,51.82,-47.72,14.05,-58.99,11.38,-45.32,14.8,-47.4,-28.85,0,0,0,0,0,0,0,0,0,0,0,0,0,0,0,0,
308,87.46,45.37,51.0,83.9,-16.87,72.43,5.037,31.83,-22.24,31.05,-11.91,29.57,-0.2332,42.62,-12.67,3.167,0,0,0,0,0,0,0,0,0,0,0,0,0,0,0,0,
309,-21.19,68.51,29.7,79.29,57.21,22.53,7.153,38.76,30.45,48.98,18.38,52.6,22.43,62.24,5.325,28.32,0,0,0,0,0,0,0,0,0,0,0,0,0,0,0,0,
310,-45.82,21.99,12.15,-7.384,101.7,19.84,14.82,37.82,34.47,50.78,16.84,62.71,19.56,69.04,11.85,39.64,0,0,0,0,0,0,0,0,0,0,0,0,0,0,0,0,
311,27.59,4.25,-1.152,25.55,74.3,45.47,16.28,14.78,26.38,53.16,29.86,70.39,35.12,86.24,35.2,58.26,0,0,0,0,0,0,0,0,0,0,0,0,0,0,0,0,
312,88.49,71.93,54.54,107.3,46.22,56.25,19.35,1.164,40.58,63.41,44.87,78.81,63.26,108.5,61.59,80.35,0,0,0,0,0,0,0,0,0,0,0,0,0,0,0,0,
313,120.9,84.15,106.5,64.61,79.85,95.45,26.13,6.99,62.17,75.4,42.58,79.11,86.42,121.2,76.09,91.9,0,0,0,0,0,0,0,0,0,0,0,0,0,0,0,0,
314,98.08,10.23,105.7,-9.289,84.03,137.2,34.25,34.36,84.22,88.98,37.35,74.15,101.1,126.6,76.71,90.52,0,0,0,0,0,0,0,0,0,0,0,0,0,0,0,0,
315,48.39,45.84,108.7,4.667,42.75,99.88,57.23,64.13,92.0,96.69,31.93,66.03,97.57,117.5,61.28,77.88,0,0,0,0,0,0,0,0,0,0,0,0,0,0,0,0,
316,45.63,151.8,85.44,52.66,48.69,40.0,70.09,58.07,82.45,90.35,30.45,54.13,80.88,90.98,39.97,56.72,0,0,0,0,0,0,0,0,0,0,0,0,0,0,0,0,
317,44.73,93.22,19.15,78.61,62.33,46.33,53.69,39.31,71.41,73.64,39.27,42.44,67.39,69.01,24.6,31.49,0,0,0,0,0,0,0,0,0,0,0,0,0,0,0,0,
318,21.82,-13.97,11.29,61.46,47.96,67.16,47.22,53.06,56.69,57.81,47.97,20.68,59.97,53.64,13.33,0.1117,0,0,0,0,0,0,0,0,0,0,0,0,0,0,0,0,
319,44.39,4.823,72.87,-2.293,72.92,58.12,67.2,74.41,51.35,52.47,50.57,-17.5,54.45,22.38,0.2056,-38.24,0,0,0,0,0,0,0,0,0,0,0,0,0,0,0,0,
320,96.33,5.735,98.88,-35.94,102.4,81.82,83.39,59.77,71.88,50.95,49.63,-45.06,44.01,-12.59,-10.26,-64.98,0,0,0,0,0,0,0,0,0,0,0,0,0,0,0,0,
321,119.3,-8.923,69.24,22.74,77.58,128.0,63.34,27.05,81.95,44.84,43.8,-45.83,27.9,-22.2,-11.86,-69.94,0,0,0,0,0,0,0,0,0,0,0,0,0,0,0,0,
322,103.9,106.9,52.64,106.5,51.69,105.5,18.03,18.32,55.9,42.21,30.12,-36.68,16.16,-15.04,-17.52,-71.05,0,0,0,0,0,0,0,0,0,0,0,0,0,0,0,0,
323,42.26,197.3,58.55,117.5,45.93,46.97,6.317,27.88,22.36,42.68,9.509,-29.94,6.109,-12.95,-36.56,-75.77,0,0,0,0,0,0,0,0,0,0,0,0,0,0,0,0,
324,-16.55,118.7,42.9,61.45,32.08,40.11,19.34,36.33,5.247,33.37,-6.199,-24.7,-8.859,-18.32,-48.27,-72.63,0,0,0,0,0,0,0,0,0,0,0,0,0,0,0,0,
325,14.02,5.385,17.72,1.702,21.31,51.78,-10.31,46.79,1.654,12.91,-11.69,-13.36,-19.7,-25.23,-40.39,-58.49,0,0,0,0,0,0,0,0,0,0,0,0,0,0,0,0,
326,76.68,-59.67,2.004,-25.71,37.91,42.27,-46.34,34.61,-4.324,-7.927,-16.34,6.554,-21.38,-24.55,-29.0,-37.28,0,0,0,0,0,0,0,0,0,0,0,0,0,0,0,0,
327,67.1,-51.04,-21.16,12.33,73.6,36.26,-16.14,-6.455,-8.251,-9.342,-10.5,21.38,-9.723,-8.081,-16.02,-12.35,0,0,0,0,0,0,0,0,0,0,0,0,0,0,0,0,
328,51.14,92.79,-3.245,90.61,65.66,11.43,36.7,-25.23,14.68,8.509,9.787,20.64,15.59,12.76,9.758,7.598,0,0,0,0,0,0,0,0,0,0,0,0,0,0,0,0,
329,80.8,203.6,63.22,77.21,6.864,-25.63,38.56,-21.81,35.91,13.38,7.74,9.154,31.1,24.19,35.69,17.49,0,0,0,0,0,0,0,0,0,0,0,0,0,0,0,0,
330,34.93,60.0,54.17,-44.87,-7.832,12.42,-3.85,-19.52,19.75,14.51,-20.63,6.037,31.4,37.48,43.38,23.58,0,0,0,0,0,0,0,0,0,0,0,0,0,0,0,0,
331,-80.49,-136.4,-32.6,-96.4,14.62,78.9,-38.61,2.693,4.791,39.67,-29.43,18.57,33.44,51.03,38.61,23.65,0,0,0,0,0,0,0,0,0,0,0,0,0,0,0,0,
332,-56.99,-97.43,-63.59,-9.136,9.554,50.29,-31.47,16.08,10.07,43.32,-8.67,26.02,35.65,48.11,39.52,17.67,0,0,0,0,0,0,0,0,0,0,0,0,0,0,0,0,
333,94.31,24.79,-20.62,77.86,30.92,-0.1031,-1.945,-0.6868,13.58,11.12,12.53,28.94,36.92,45.48,41.71,16.52,0,0,0,0,0,0,0,0,0,0,0,0,0,0,0,0,
334,122.5,48.5,28.5,91.85,65.51,13.84,1.85,8.225,19.98,6.38,8.145,29.74,23.49,39.45,13.75,-3.82,0,0,0,0,0,0,0,0,0,0,0,0,0,0,0,0,
335,34.2,94.96,33.91,79.43,18.9,4.639,-18.13,26.99,9.562,13.48,-16.88,3.897,-19.4,-0.1525,-31.56,-51.88,0,0,0,0,0,0,0,0,0,0,0,0,0,0,0,0,
336,30.1,121.4,-3.88,27.11,-37.2,-19.24,-18.03,8.698,-27.11,-9.031,-18.03,-17.96,-42.31,-35.52,-36.66,-67.81,0,0,0,0,0,0,0,0,0,0,0,0,0,0,0,0,
337,35.9,4.036,-22.55,-58.15,2.176,26.26,3.458,-1.669,-32.09,-15.79,3.759,-3.582,-20.59,-32.85,-11.7,-45.25,0,0,0,0,0,0,0,0,0,0,0,0,0,0,0,0,
338,-44.09,-48.68,-17.67,-59.07,62.32,65.57,19.18,6.51,-7.709,-2.622,1.023,-1.016,0.1947,-23.77,1.219,-30.3,0,0,0,0,0,0,0,0,0,0,0,0,0,0,0,0,
339,-31.42,5.099,-23.22,22.89,56.76,61.79,28.36,-4.958,-2.013,-3.563,-5.024,-14.26,22.37,-5.672,18.82,-9.772,0,0,0,0,0,0,0,0,0,0,0,0,0,0,0,0,
340,74.03,-30.86,-11.17,54.33,43.29,72.98,22.79,-13.09,12.79,8.368,10.03,-8.627,47.6,19.65,32.25,5.821,0,0,0,0,0,0,0,0,0,0,0,0,0,0,0,0,
341,83.58,0.0248,1.493,23.71,73.95,42.97,-4.839,-6.601,34.84,22.47,2.026,-15.55,27.87,4.391,6.959,-22.69,0,0,0,0,0,0,0,0,0,0,0,0,0,0,0,0,
342,44.9,138.2,-13.75,11.53,83.86,-22.24,-13.22,-19.48,12.06,-0.5516,-21.09,-38.46,-10.3,-34.49,-19.48,-50.8,0,0,0,0,0,0,0,0,0,0,0,0,0,0,0,0,
343,33.06,98.02,9.928,22.24,36.31,3.596,2.2,-38.35,-23.09,-25.22,-18.3,-36.57,-21.8,-52.08,-19.42,-45.71,0,0,0,0,0,0,0,0,0,0,0,0,0,0,0,0,
344,13.74,-2.523,50.23,-22.64,-9.662,66.68,-23.47,-24.56,-37.01,-25.72,-19.03,-22.29,-39.37,-55.94,-24.93,-42.5,0,0,0,0,0,0,0,0,0,0,0,0,0,0,0,0,
345,10.66,-4.496,-9.971,-104.4,-20.89,49.74,-77.26,-5.32,-57.59,-22.68,-38.32,-14.0,-63.22,-49.47,-34.67,-40.29,0,0,0,0,0,0,0,0,0,0,0,0,0,0,0,0,
346,-11.12,-69.21,-95.85,-57.32,-24.88,-3.858,-74.58,-29.7,-67.05,-30.05,-43.74,-4.085,-54.52,-30.6,-25.67,-18.84,0,0,0,0,0,0,0,0,0,0,0,0,0,0,0,0,
347,-58.33,-102.9,-62.58,33.19,-27.49,-49.6,-24.47,-56.57,-46.0,-53.83,-31.37,3.915,-19.7,-4.146,1.274,15.33,0,0,0,0,0,0,0,0,0,0,0,0,0,0,0,0,
348,-41.89,-53.24,-7.077,-78.39,4.374,-67.05,3.772,-33.68,-17.29,-51.99,-4.534,14.06,26.17,35.47,40.55,50.25,0,0,0,0,0,0,0,0,0,0,0,0,0,0,0,0,
349,-11.0,-64.57,-20.51,-190.6,35.25,-27.58,5.013,-16.75,13.57,-0.595,33.92,21.36,66.1,57.8,69.41,60.99,0,0,0,0,0,0,0,0,0,0,0,0,0,0,0,0,
350,-4.741,11.18,10.61,-76.99,3.961,4.167,10.25,-32.82,23.98,19.06,58.17,4.495,75.22,36.25,70.72,41.96,0,0,0,0,0,0,0,0,0,0,0,0,0,0,0,0,
351,11.45,110.3,49.07,16.6,-13.78,6.775,23.19,-23.38,12.22,-9.5,65.47,-14.84,65.39,12.88,62.76,26.04,0,0,0,0,0,0,0,0,0,0,0,0,0,0,0,0,
352,-26.96,-13.73,-29.67,-1.244,9.977,21.96,26.7,-4.805,20.41,-11.52,61.88,-11.27,43.51,5.98,43.55,12.51,0,0,0,0,0,0,0,0,0,0,0,0,0,0,0,0,
353,-70.14,-90.36,-83.66,28.83,-24.71,-13.87,20.08,-23.37,13.16,-11.37,35.34,-9.188,1.256,-13.93,4.548,-17.17,0,0,0,0,0,0,0,0,0,0,0,0,0,0,0,0,
354,-27.94,-3.746,-32.12,38.72,-59.49,-92.99,12.47,-37.35,-27.84,-46.32,7.778,-9.327,-26.54,-36.22,-18.24,-31.77,0,0,0,0,0,0,0,0,0,0,0,0,0,0,0,0,
355,-2.637,-30.18,-27.55,-56.19,-28.99,-97.89,-11.45,-13.23,-33.46,-65.23,0.7207,9.796,-25.91,-42.2,-13.28,-17.35,0,0,0,0,0,0,0,0,0,0,0,0,0,0,0,0,
356,-16.59,-83.55,-53.62,-148.0,-24.34,-40.77,-29.73,13.9,-23.37,-54.22,-2.09,24.5,-22.43,-39.9,-5.981,-5.876,0,0,0,0,0,0,0,0,0,0,0,0,0,0,0,0,
357,-22.4,-43.73,-14.16,-117.1,-12.8,19.55,14.67,10.85,-23.53,-33.15,7.197,20.33,2.695,-23.29,7.327,4.892,0,0,0,0,0,0,0,0,0,0,0,0,0,0,0,0,
358,-47.07,-34.2,7.697,-5.884,31.19,40.56,68.21,-2.484,19.88,-12.46,24.29,9.985,43.33,-6.949,19.49,17.93,0,0,0,0,0,0,0,0,0,0,0,0,0,0,0,0,
359,-19.65,5.096,-16.77,32.93,0.6361,-35.67,45.26,0.3801,50.97,-23.56,7.215,-14.01,39.3,-18.97,7.94,4.707,0,0,0,0,0,0,0,0,0,0,0,0,0,0,0,0,
360,48.46,93.71,-17.77,27.85,-40.59,-110.6,2.592,-11.92,11.83,-46.36,-30.6,-37.33,4.955,-26.15,-10.09,-14.24,0,0,0,0,0,0,0,0,0,0,0,0,0,0,0,0,
361,6.615,63.67,-16.88,41.77,-4.583,-74.02,-1.07,-36.8,-10.66,-30.01,-53.42,-36.39,-13.05,-4.394,-25.07,-11.48,0,0,0,0,0,0,0,0,0,0,0,0,0,0,0,0,
362,-69.06,-37.51,-27.76,-18.44,16.12,-25.77,-10.05,-11.05,0.4869,-6.607,-70.74,-34.09,-28.1,5.36,-43.58,-16.56,0,0,0,0,0,0,0,0,0,0,0,0,0,0,0,0,
363,-31.1,-35.88,-10.72,-77.23,-10.12,-23.61,-29.24,36.5,-15.08,-11.55,-82.2,-32.89,-38.69,-0.1153,-45.11,-24.7,0,0,0,0,0,0,0,0,0,0,0,0,0,0,0,0,
364,29.08,-17.86,0.5722,-53.67,-23.19,6.888,-23.6,44.72,-26.65,-6.39,-71.39,-2.687,-20.13,16.45,-22.62,0.5043,0,0,0,0,0,0,0,0,0,0,0,0,0,0,0,0,
365,4.669,-122.9,-13.81,-53.02,0.6691,67.29,-13.26,42.84,-3.083,26.78,-36.25,35.0,12.8,39.08,7.954,29.6,0,0,0,0,0,0,0,0,0,0,0,0,0,0,0,0,
366,-38.96,-148.0,-6.551,-10.61,28.13,82.39,-19.71,36.25,13.45,43.53,8.941,38.04,28.95,26.67,30.44,19.93,0,0,0,0,0,0,0,0,0,0,0,0,0,0,0,0,
367,-21.51,49.19,-8.877,90.81,1.61,-3.69,-20.49,4.578,-4.146,8.006,32.05,18.53,17.13,-13.95,30.19,-1.627,0,0,0,0,0,0,0,0,0,0,0,0,0,0,0,0,
368,12.72,165.1,-44.91,70.82,-32.75,-122.3,-7.045,-9.254,-33.55,-48.41,26.07,7.094,-7.002,-41.74,21.14,-0.3911,0,0,0,0,0,0,0,0,0,0,0,0,0,0,0,0,
369,3.953,54.78,-20.08,-25.84,-20.52,-120.7,-11.37,10.08,-49.29,-61.9,11.63,1.162,-23.73,-43.16,15.64,1.831,0,0,0,0,0,0,0,0,0,0,0,0,0,0,0,0,
370,4.442,-42.78,55.92,-71.48,-34.86,-29.15,-39.11,21.07,-54.76,-34.1,-2.127,-4.353,-29.79,-37.37,-0.7748,-10.14,0,0,0,0,0,0,0,0,0,0,0,0,0,0,0,0,
371,45.14,-42.97,49.22,-64.48,-67.83,1.895,-43.24,6.851,-47.25,-22.86,-2.264,2.076,-21.15,-27.46,-17.67,-10.57,0,0,0,0,0,0,0,0,0,0,0,0,0,0,0,0,
372,43.13,-38.8,-18.33,-9.88,-39.86,-6.222,-15.79,-14.28,-17.19,-31.39,11.32,15.53,-3.452,-11.45,-21.14,-1.899,0,0,0,0,0,0,0,0,0,0,0,0,0,0,0,0,
373,-29.39,-48.94,-22.24,7.148,0.9414,13.58,1.132,-14.8,2.559,-21.99,17.37,22.07,5.55,-6.517,-23.53,-7.079,0,0,0,0,0,0,0,0,0,0,0,0,0,0,0,0,
374,-81.54,-23.38,14.56,-34.8,12.83,5.884,-5.0,-2.127,-8.87,-9.026,15.81,16.58,7.035,-9.61,-20.97,-14.91,0,0,0,0,0,0,0,0,0,0,0,0,0,0,0,0,
375,-56.67,60.89,-8.6,-17.46,8.328,-49.77,-34.77,-2.46,-18.18,-15.04,11.0,6.008,11.08,2.462,-1.827,-7.558,0,0,0,0,0,0,0,0,0,0,0,0,0,0,0,0,
376,3.098,98.5,-70.61,46.58,-25.14,-93.82,-75.41,3.215,-12.44,-12.35,3.399,15.6,22.93,28.13,22.77,12.77,0,0,0,0,0,0,0,0,0,0,0,0,0,0,0,0,
377,30.73,26.76,-89.08,49.19,-27.6,-83.75,-78.1,19.1,-7.032,6.35,2.786,32.7,34.92,42.77,32.76,26.22,0,0,0,0,0,0,0,0,0,0,0,0,0,0,0,0,
378,4.97,-67.05,-59.66,-36.49,26.32,-11.8,-47.26,14.02,-4.752,11.91,5.476,15.24,30.67,33.94,30.51,21.06,0,0,0,0,0,0,0,0,0,0,0,0,0,0,0,0,
379,-19.33,-114.1,-3.337,-88.35,39.17,59.06,-23.48,3.508,-2.458,2.877,7.255,-11.58,27.99,18.17,36.52,21.93,0,0,0,0,0,0,0,0,0,0,0,0,0,0,0,0,
380,-2.932,-38.96,46.78,7.277,20.19,47.93,4.053,3.704,12.94,-7.014,5.43,-14.88,43.92,13.46,39.86,33.95,0,0,0,0,0,0,0,0,0,0,0,0,0,0,0,0,
381,5.924,120.2,25.43,68.4,26.43,-1.847,24.38,2.413,39.52,-6.835,-5.152,-15.82,51.82,19.91,26.7,32.45,0,0,0,0,0,0,0,0,0,0,0,0,0,0,0,0,
382,20.88,132.8,-18.39,-6.194,11.69,-2.526,11.55,11.37,42.85,16.62,-1.563,-4.481,48.86,38.12,25.41,31.47,0,0,0,0,0,0,0,0,0,0,0,0,0,0,0,0,
383,84.26,29.93,6.978,2.278,3.47,27.76,6.888,16.58,27.18,43.36,22.37,32.98,53.96,58.36,40.12,42.41,0,0,0,0,0,0,0,0,0,0,0,0,0,0,0,0,
384,96.73,32.58,34.28,68.42,40.97,30.82,17.36,3.095,25.96,42.93,32.91,54.77,48.7,54.29,39.73,37.89,0,0,0,0,0,0,0,0,0,0,0,0,0,0,0,0,
385,37.4,53.75,7.245,36.21,42.43,-2.936,-3.921,11.59,16.55,22.34,22.59,46.65,19.35,26.68,20.32,19.95,0,0,0,0,0,0,0,0,0,0,0,0,0,0,0,0,
386,10.15,-38.8,-15.09,16.38,6.978,-35.09,-33.35,31.23,-18.35,-0.2974,8.138,41.93,-9.301,5.741,-1.377,11.29,0,0,0,0,0,0,0,0,0,0,0,0,0,0,0,0,
387,-9.627,-97.73,-19.71,25.03,-3.602,-12.51,-32.81,27.94,-32.97,-6.869,-0.9691,47.03,-15.8,2.047,-12.72,5.121,0,0,0,0,0,0,0,0,0,0,0,0,0,0,0,0,
388,-14.81,-7.744,-17.14,-19.28,-7.796,38.97,-25.51,39.2,-19.49,12.23,-1.479,45.13,-9.842,3.463,-15.71,-3.746,0,0,0,0,0,0,0,0,0,0,0,0,0,0,0,0,
389,34.45,67.16,2.361,-58.11,-3.056,57.32,-21.05,58.24,-13.92,34.08,-0.1968,40.17,-8.787,6.397,-19.39,-6.526,0,0,0,0,0,0,0,0,0,0,0,0,0,0,0,0,
390,18.73,-15.18,16.48,-70.58,18.85,75.69,-7.928,46.62,-7.219,41.48,0.0349,40.08,-12.41,10.3,-23.26,-12.46,0,0,0,0,0,0,0,0,0,0,0,0,0,0,0,0,
391,-17.68,-59.08,1.468,-49.21,26.58,90.37,3.043,42.66,5.578,38.1,-6.218,38.96,-18.71,12.43,-33.05,-24.06,0,0,0,0,0,0,0,0,0,0,0,0,0,0,0,0,
392,44.07,46.62,-43.99,13.18,26.91,25.51,0.5555,49.69,-2.106,27.75,-27.59,39.76,-21.95,22.66,-40.67,-16.88,0,0,0,0,0,0,0,0,0,0,0,0,0,0,0,0,
393,52.16,61.67,-54.59,50.81,17.34,-36.97,-13.42,29.96,-14.31,26.56,-40.58,44.33,-3.589,40.71,-17.91,8.667,0,0,0,0,0,0,0,0,0,0,0,0,0,0,0,0,
394,8.607,-6.283,20.67,57.44,-11.05,-4.749,-25.88,19.44,-6.783,38.76,-28.1,40.64,22.51,47.87,12.6,22.88,0,0,0,0,0,0,0,0,0,0,0,0,0,0,0,0,
395,42.89,44.35,48.72,23.96,-15.29,27.72,-32.34,29.85,2.207,45.77,-21.6,24.27,17.1,38.68,1.963,13.46,0,0,0,0,0,0,0,0,0,0,0,0,0,0,0,0,
396,13.01,72.76,-31.75,-29.84,6.855,33.98,-47.89,17.28,1.568,44.58,-37.41,2.745,-11.28,19.22,-31.7,-7.888,0,0,0,0,0,0,0,0,0,0,0,0,0,0,0,0,
397,-53.02,3.969,-52.79,16.14,10.83,52.98,-54.21,4.933,-4.648,35.57,-43.39,-1.324,-18.78,5.285,-39.48,-14.49,0,0,0,0,0,0,0,0,0,0,0,0,0,0,0,0,
398,9.834,2.284,-2.791,84.0,-12.6,9.247,-27.18,20.27,-14.16,17.46,-23.1,14.45,-1.562,8.069,-25.19,-5.755,0,0,0,0,0,0,0,0,0,0,0,0,0,0,0,0,
399,36.54,35.79,-5.356,23.21,-41.21,-75.66,-5.63,22.63,-17.2,1.611,-7.212,6.675,6.88,2.264,-25.13,-16.18,0,0,0,0,0,0,0,0,0,0,0,0,0,0,0,0,
400,-17.29,26.26,-19.43,-66.99,-39.29,-83.44,-5.895,6.523,-14.59,-8.806,-11.02,-19.71,1.672,-17.1,-37.68,-32.44,0,0,0,0,0,0,0,0,0,0,0,0,0,0,0,0,
401,8.476,-4.844,-13.76,-75.16,-15.82,-35.47,3.974,5.919,-10.71,-5.662,-4.188,-12.16,6.173,-12.57,-26.83,-14.12,0,0,0,0,0,0,0,0,0,0,0,0,0,0,0,0,
402,16.48,-44.37,-17.52,-16.17,-19.86,9.036,10.16,12.07,-4.257,14.97,17.44,15.81,15.73,7.43,4.216,16.44,0,0,0,0,0,0,0,0,0,0,0,0,0,0,0,0,
403,-59.25,-33.01,1.005,30.87,-26.24,38.67,-1.409,5.693,-8.635,19.3,16.84,25.66,9.665,3.235,8.789,21.47,0,0,0,0,0,0,0,0,0,0,0,0,0,0,0,0,
404,-92.45,-27.89,7.186,-7.498,-6.4,28.73,-12.08,-2.45,-19.27,-1.166,-2.561,22.43,-5.184,-17.79,-16.46,7.469,0,0,0,0,0,0,0,0,0,0,0,0,0,0,0,0,
405,-53.89,-76.52,-30.06,-29.77,-18.59,-20.74,-26.87,0.2161,-18.19,-14.76,-5.486,22.01,-12.41,-29.23,-24.76,-3.039,0,0,0,0,0,0,0,0,0,0,0,0,0,0,0,0,
406,22.04,-5.455,-53.5,10.07,-57.09,-81.26,-28.52,8.436,-24.11,-24.24,1.81,28.26,-14.04,-32.25,-10.65,-5.283,0,0,0,0,0,0,0,0,0,0,0,0,0,0,0,0,
407,57.19,92.62,-78.29,-34.37,-56.98,-91.92,-1.423,10.34,-39.64,-38.55,2.686,24.63,-17.59,-37.26,-5.081,-7.592,0,0,0,0,0,0,0,0,0,0,0,0,0,0,0,0,
408,10.88,-15.05,-105.1,-116.2,-41.69,-21.43,-0.0404,4.328,-37.54,-35.98,9.662,7.545,-19.11,-32.88,-5.108,-0.195,0,0,0,0,0,0,0,0,0,0,0,0,0,0,0,0,
409,-1.682,-121.0,-65.61,-88.55,-26.59,21.95,-30.07,-10.29,-28.74,-16.51,13.94,3.724,-12.35,-5.467,1.558,23.17,0,0,0,0,0,0,0,0,0,0,0,0,0,0,0,0,
410,-5.854,-81.34,-12.34,-22.76,7.565,-7.921,-32.39,-29.78,-19.88,4.733,-0.8756,9.96,4.519,29.11,12.73,41.05,0,0,0,0,0,0,0,0,0,0,0,0,0,0,0,0,
411,-103.3,-57.21,-19.39,7.308,14.91,-12.51,-17.23,-29.53,9.119,31.65,-7.123,6.467,29.85,49.43,27.22,46.28,0,0,0,0,0,0,0,0,0,0,0,0,0,0,0,0,
412,-127.9,9.352,-30.69,30.22,4.99,-5.733,-8.704,-9.717,37.15,54.92,5.952,3.935,45.25,51.33,29.89,43.98,0,0,0,0,0,0,0,0,0,0,0,0,0,0,0,0,
413,12.97,133.2,2.747,21.45,22.17,-7.144,15.07,8.411,37.78,60.08,12.94,13.14,38.25,46.26,21.4,35.97,0,0,0,0,0,0,0,0,0,0,0,0,0,0,0,0,
414,110.0,76.46,40.27,-34.89,19.27,65.35,34.95,33.92,34.54,67.47,18.07,29.18,31.92,50.77,23.57,34.16,0,0,0,0,0,0,0,0,0,0,0,0,0,0,0,0,
415,66.0,-78.29,27.95,-56.44,27.17,112.0,21.2,44.67,54.36,82.68,27.13,41.93,37.75,56.49,24.23,34.67,0,0,0,0,0,0,0,0,0,0,0,0,0,0,0,0,
416,16.57,-54.17,-18.23,-3.405,78.66,24.36,7.981,3.096,79.3,71.7,25.41,46.2,38.4,50.49,18.07,30.37,0,0,0,0,0,0,0,0,0,0,0,0,0,0,0,0,
417,28.95,44.19,-34.24,36.7,39.45,-45.08,21.39,-34.18,63.34,38.38,23.88,48.26,35.04,42.58,23.34,31.01,0,0,0,0,0,0,0,0,0,0,0,0,0,0,0,0,
418,1.897,14.03,-24.94,22.84,-59.12,-32.88,29.89,-19.22,13.1,17.44,29.36,43.57,33.0,28.85,18.98,21.91,0,0,0,0,0,0,0,0,0,0,0,0,0,0,0,0,
419,-91.19,-66.44,-42.41,-5.731,-44.49,-22.12,16.21,-3.7,-8.726,6.498,27.25,23.13,22.09,6.154,-3.874,-5.481,0,0,0,0,0,0,0,0,0,0,0,0,0,0,0,0,
420,-91.96,-97.92,-64.96,-38.92,11.54,16.73,15.23,-7.892,5.73,1.656,28.9,0.7389,13.33,-3.638,-8.838,-17.69,0,0,0,0,0,0,0,0,0,0,0,0,0,0,0,0,
421,22.49,-67.41,-37.63,-37.4,15.14,46.96,42.13,0.6182,19.45,10.47,41.23,-5.162,19.51,-3.13,1.687,-8.738,0,0,0,0,0,0,0,0,0,0,0,0,0,0,0,0,
422,72.55,45.83,17.56,-10.87,16.2,-17.12,53.69,10.14,22.58,11.79,35.79,5.293,14.99,-10.23,-4.859,-6.249,0,0,0,0,0,0,0,0,0,0,0,0,0,0,0,0,
423,49.57,129.7,43.74,-30.49,-0.9167,-64.16,32.65,2.724,8.024,3.0,10.42,21.09,-8.854,-13.78,-20.5,-3.958,0,0,0,0,0,0,0,0,0,0,0,0,0,0,0,0,
424,67.19,75.88,43.02,-11.87,-17.07,-20.88,19.46,3.528,-7.371,10.88,-1.56,28.96,-14.4,-9.043,-18.81,11.31,0,0,0,0,0,0,0,0,0,0,0,0,0,0,0,0,
425,79.35,0.3289,28.32,59.59,26.93,32.68,24.82,16.94,12.91,25.88,7.37,16.92,5.776,-10.63,-2.776,17.65,0,0,0,0,0,0,0,0,0,0,0,0,0,0,0,0,
426,32.48,-31.73,-9.391,17.98,66.47,78.77,24.97,17.5,42.05,31.57,18.18,-2.446,17.02,-10.31,6.324,10.7,0,0,0,0,0,0,0,0,0,0,0,0,0,0,0,0,
427,-19.16,-61.97,-21.45,-53.09,60.69,76.77,24.1,15.54,40.62,33.13,15.72,-2.75,5.277,2.983,-0.7662,11.27,0,0,0,0,0,0,0,0,0,0,0,0,0,0,0,0,
428,-41.84,-33.39,27.26,10.61,28.54,-26.86,22.72,19.63,19.4,16.43,-2.013,3.722,-18.16,10.37,-16.24,10.89,0,0,0,0,0,0,0,0,0,0,0,0,0,0,0,0,
429,-18.61,37.04,56.15,62.55,-32.49,-86.79,3.586,8.031,-2.281,-7.953,-15.17,-1.258,-28.77,8.477,-20.65,1.979,0,0,0,0,0,0,0,0,0,0,0,0,0,0,0,0,
430,35.95,46.45,20.34,-3.304,-57.77,-14.43,-13.98,4.155,0.3644,5.124,-11.95,-0.4643,-14.69,14.48,-5.773,0.7965,0,0,0,0,0,0,0,0,0,0,0,0,0,0,0,0,
431,50.65,18.36,-4.2,-46.22,-21.95,28.39,-8.775,20.51,21.37,30.05,-9.368,3.492,-8.917,14.23,4.669,0.3159,0,0,0,0,0,0,0,0,0,0,0,0,0,0,0,0,
432,32.51,-2.129,14.18,4.313,-22.66,-12.44,-1.618,8.234,8.825,11.48,-13.34,-6.756,-26.9,-7.036,-9.517,-14.84,0,0,0,0,0,0,0,0,0,0,0,0,0,0,0,0,
433,19.06,-36.42,8.501,30.34,-58.91,-21.65,1.265,-9.827,-24.2,-20.22,-22.12,-19.23,-38.07,-32.78,-35.2,-36.59,0,0,0,0,0,0,0,0,0,0,0,0,0,0,0,0,
434,-43.78,-103.4,-49.79,-58.35,-37.14,3.427,10.29,10.21,-23.81,-22.71,-37.36,-23.79,-36.13,-52.39,-50.85,-49.14,0,0,0,0,0,0,0,0,0,0,0,0,0,0,0,0,
435,-119.1,-146.2,-92.78,-133.7,12.12,13.17,12.04,6.484,-6.226,-17.08,-37.53,-23.48,-32.55,-60.34,-49.08,-42.57,0,0,0,0,0,0,0,0,0,0,0,0,0,0,0,0,
436,-62.41,-38.28,-53.83,-41.16,7.517,-4.534,8.329,-35.96,-0.8441,-28.01,-21.31,-22.87,-26.14,-54.58,-37.63,-28.95,0,0,0,0,0,0,0,0,0,0,0,0,0,0,0,0,
437,64.76,138.8,28.24,109.8,-24.27,-70.24,11.35,-43.83,-6.503,-54.91,-16.57,-23.58,-24.59,-49.04,-23.98,-23.37,0,0,0,0,0,0,0,0,0,0,0,0,0,0,0,0,
438,79.77,138.7,52.29,124.4,-38.65,-103.1,0.963,-16.19,-21.24,-72.28,-14.87,-13.54,-26.97,-39.96,-11.57,-16.6,0,0,0,0,0,0,0,0,0,0,0,0,0,0,0,0,
439,34.43,12.61,5.317,22.12,-51.91,-20.93,-22.14,14.84,-24.0,-43.18,-7.378,2.939,-21.33,-17.77,-10.59,-5.926,0,0,0,0,0,0,0,0,0,0,0,0,0,0,0,0,
440,54.55,-33.38,-29.34,-38.89,-46.0,57.45,-19.05,43.39,-4.062,12.16,-8.692,6.167,-7.589,1.395,-12.24,2.952,0,0,0,0,0,0,0,0,0,0,0,0,0,0,0,0,
441,64.28,-9.452,-15.43,2.699,6.952,49.57,12.73,36.94,17.63,40.01,-4.465,0.8333,13.52,9.75,0.8101,11.96,0,0,0,0,0,0,0,0,0,0,0,0,0,0,0,0,
442,24.43,40.45,13.5,63.94,44.59,32.37,28.44,5.406,32.16,37.99,0.9094,-11.02,22.99,3.228,-1.653,4.214,0,0,0,0,0,0,0,0,0,0,0,0,0,0,0,0,
443,40.98,117.5,24.44,72.32,23.56,3.399,0.7031,5.554,24.44,19.07,-28.37,-35.31,-3.057,-28.89,-37.83,-28.67,0,0,0,0,0,0,0,0,0,0,0,0,0,0,0,0,
444,71.9,120.7,7.676,44.14,-0.0721,-36.0,-37.03,12.17,-9.27,-8.71,-61.0,-43.27,-27.52,-52.57,-48.75,-44.8,0,0,0,0,0,0,0,0,0,0,0,0,0,0,0,0,
445,10.16,-11.79,-0.0511,-2.721,4.055,21.56,-34.47,-9.057,-15.93,-2.45,-43.78,-17.35,-8.346,-30.25,-12.13,-20.35,0,0,0,0,0,0,0,0,0,0,0,0,0,0,0,0,
446,-35.48,-130.9,17.76,-60.11,-1.288,101.3,-2.466,-9.242,17.66,34.57,-11.33,-0.8657,16.14,-0.5984,6.872,-1.345,0,0,0,0,0,0,0,0,0,0,0,0,0,0,0,0,
447,31.09,-57.29,-3.937,-66.24,-27.27,33.72,11.45,9.383,29.66,28.68,-11.48,-15.49,7.548,-2.375,-5.609,-13.9,0,0,0,0,0,0,0,0,0,0,0,0,0,0,0,0,
448,77.05,89.81,-50.76,18.42,-37.18,-68.49,-5.774,-4.417,3.712,-14.56,-22.33,-19.04,-10.16,-8.799,-8.58,-21.25,0,0,0,0,0,0,0,0,0,0,0,0,0,0,0,0,
449,25.48,77.64,-18.25,94.2,-28.78,-53.35,-30.01,-21.17,-22.99,-27.4,-29.3,-5.402,-25.43,-9.459,-22.29,-18.21,0,0,0,0,0,0,0,0,0,0,0,0,0,0,0,0,
450,-4.341,0.0501,38.67,47.56,-39.07,-31.73,-31.42,-17.8,-39.16,-25.26,-51.67,-18.61,-50.78,-31.32,-60.84,-36.27,0,0,0,0,0,0,0,0,0,0,0,0,0,0,0,0,
451,26.85,-2.565,-5.739,-53.93,-38.81,-59.65,-11.3,-27.7,-46.54,-39.89,-71.81,-59.36,-71.52,-70.8,-80.74,-68.23,0,0,0,0,0,0,0,0,0,0,0,0,0,0,0,0,
452,22.06,-23.08,-57.87,-78.43,5.04,-29.23,4.519,-38.45,-34.3,-40.39,-65.88,-85.57,-71.65,-96.82,-79.48,-86.99,0,0,0,0,0,0,0,0,0,0,0,0,0,0,0,0,
453,-1.92,-33.7,6.197,-26.68,20.82,33.56,16.19,-30.69,-10.33,-24.34,-52.93,-72.11,-57.71,-90.1,-71.22,-78.08,0,0,0,0,0,0,0,0,0,0,0,0,0,0,0,0,
454,34.02,20.64,60.26,21.74,-15.95,33.21,27.32,-24.89,-4.56,-23.57,-42.91,-44.48,-42.17,-65.34,-43.51,-52.51,0,0,0,0,0,0,0,0,0,0,0,0,0,0,0,0,
455,65.89,10.52,-2.75,30.13,-36.91,-5.524,9.894,-22.27,-23.15,-35.74,-29.27,-42.63,-40.48,-58.71,-19.93,-43.59,0,0,0,0,0,0,0,0,0,0,0,0,0,0,0,0,
456,32.85,-31.76,-57.79,11.72,-46.25,-53.15,-35.46,-15.21,-47.78,-49.98,-25.08,-40.81,-50.63,-67.56,-19.17,-45.37,0,0,0,0,0,0,0,0,0,0,0,0,0,0,0,0,
457,-0.3694,-5.016,-35.76,-46.42,-74.48,-100.8,-54.97,-2.22,-69.83,-62.0,-32.39,-10.29,-47.31,-60.66,-16.23,-31.08,0,0,0,0,0,0,0,0,0,0,0,0,0,0,0,0,
458,-0.0022,-4.57,-12.17,-130.5,-82.79,-75.24,-24.42,12.54,-69.94,-51.64,-28.32,11.45,-20.4,-38.45,-4.665,-11.88,0,0,0,0,0,0,0,0,0,0,0,0,0,0,0,0,
459,5.726,-40.39,-9.357,-85.64,-41.62,26.24,7.802,1.295,-27.39,-16.85,-10.66,14.94,10.64,-15.66,6.561,3.337,0,0,0,0,0,0,0,0,0,0,0,0,0,0,0,0,
460,16.21,-10.27,-8.199,102.4,17.49,62.04,2.506,-30.05,19.7,4.343,-3.898,15.62,21.78,-0.1344,12.22,13.58,0,0,0,0,0,0,0,0,0,0,0,0,0,0,0,0,
461,46.47,80.08,7.991,159.8,35.61,-14.15,-5.012,-37.69,27.81,-1.201,-11.97,2.039,17.17,6.084,7.957,8.563,0,0,0,0,0,0,0,0,0,0,0,0,0,0,0,0,
462,72.64,137.2,31.37,44.21,19.46,-52.87,13.27,-14.74,23.63,7.314,-13.82,0.2278,16.05,16.29,6.454,2.128,0,0,0,0,0,0,0,0,0,0,0,0,0,0,0,0,
463,39.68,57.0,-10.55,-10.85,30.34,15.96,19.46,22.72,31.12,40.53,-11.47,27.84,8.697,30.26,8.988,5.757,0,0,0,0,0,0,0,0,0,0,0,0,0,0,0,0,
464,-9.132,-65.36,-78.78,-10.08,33.33,66.09,-1.205,50.35,21.72,58.63,-24.52,37.02,-16.02,30.73,0.1395,2.243,0,0,0,0,0,0,0,0,0,0,0,0,0,0,0,0,
465,41.92,2.285,-35.8,-11.49,-21.61,19.51,-15.28,39.82,-10.43,47.32,-41.82,17.63,-36.05,15.5,-13.46,-15.4,0,0,0,0,0,0,0,0,0,0,0,0,0,0,0,0,
466,118.2,162.1,53.24,53.33,-57.5,-38.4,-16.23,14.92,-31.26,14.43,-39.6,2.888,-38.17,-10.6,-17.56,-31.93,0,0,0,0,0,0,0,0,0,0,0,0,0,0,0,0,
467,65.5,130.4,37.3,45.45,-27.64,-22.97,-14.42,8.656,-30.4,-22.02,-29.23,-7.486,-32.1,-31.54,-12.9,-30.07,0,0,0,0,0,0,0,0,0,0,0,0,0,0,0,0,
468,-20.35,-52.46,-23.86,-83.28,8.002,27.14,-12.33,3.432,-24.03,-19.0,-36.07,-15.15,-25.12,-23.98,-9.682,-13.84,0,0,0,0,0,0,0,0,0,0,0,0,0,0,0,0,
469,-4.498,-139.7,-15.78,-71.25,15.74,36.55,-24.11,-10.07,-17.0,13.99,-52.05,-10.42,-20.96,1.125,-12.95,-3.949,0,0,0,0,0,0,0,0,0,0,0,0,0,0,0,0,
470,39.19,-30.95,23.59,55.86,21.36,23.99,-35.96,-17.46,0.0794,19.77,-49.9,-6.358,-16.58,14.95,-12.54,-5.983,0,0,0,0,0,0,0,0,0,0,0,0,0,0,0,0,
471,69.23,151.9,29.35,68.51,49.65,32.11,-8.973,-21.61,26.41,5.102,-25.0,-10.42,-7.113,9.991,-8.294,-15.67,0,0,0,0,0,0,0,0,0,0,0,0,0,0,0,0,
472,124.8,216.2,26.87,47.47,69.78,24.77,38.81,-30.31,30.76,-1.175,3.885,-11.95,0.853,-3.152,-8.216,-26.34,0,0,0,0,0,0,0,0,0,0,0,0,0,0,0,0,
473,147.8,149.3,46.38,64.31,46.71,0.2358,57.95,-32.28,1.706,-10.19,20.62,-7.203,8.924,-3.665,2.655,-17.75,0,0,0,0,0,0,0,0,0,0,0,0,0,0,0,0,
474,111.9,92.31,62.63,21.03,20.57,20.86,45.72,-11.33,-8.996,-11.22,30.24,8.129,30.29,13.07,28.47,10.24,0,0,0,0,0,0,0,0,0,0,0,0,0,0,0,0,
475,82.07,70.51,38.98,-30.51,18.78,58.3,23.1,12.67,14.82,11.59,39.54,22.92,50.05,19.15,37.9,18.57,0,0,0,0,0,0,0,0,0,0,0,0,0,0,0,0,
476,54.74,6.755,-23.16,-18.45,24.6,47.87,0.6994,10.66,21.26,27.88,34.59,10.95,37.78,-0.3881,20.06,-7.163,0,0,0,0,0,0,0,0,0,0,0,0,0,0,0,0,
477,18.91,-61.76,-50.38,9.682,37.06,30.59,-5.646,7.637,8.393,18.95,19.66,-6.839,6.441,-23.94,0.5213,-28.63,0,0,0,0,0,0,0,0,0,0,0,0,0,0,0,0,
478,21.72,-44.48,6.72,29.75,25.47,40.86,10.11,21.44,3.084,5.645,15.0,-1.403,-16.39,-35.99,-14.54,-30.62,0,0,0,0,0,0,0,0,0,0,0,0,0,0,0,0,
479,41.26,-5.188,49.63,4.239,-17.3,37.31,16.87,22.15,-13.95,-3.231,2.436,1.359,-41.34,-45.57,-35.3,-39.55,0,0,0,0,0,0,0,0,0,0,0,0,0,0,0,0,
480,7.995,-45.94,0.1072,-73.06,-24.11,19.99,-5.706,6.864,-38.34,-17.76,-22.96,-8.247,-66.18,-56.22,-44.76,-51.57,0,0,0,0,0,0,0,0,0,0,0,0,0,0,0,0,
481,-42.02,-56.9,-39.16,-67.78,-0.5602,-5.337,-20.97,-10.48,-39.18,-35.9,-22.84,-9.722,-63.11,-60.54,-33.62,-44.52,0,0,0,0,0,0,0,0,0,0,0,0,0,0,0,0,
482,1.581,96.61,0.8974,54.91,-9.701,-76.6,-7.035,-24.24,-27.7,-50.25,-5.924,-6.951,-45.5,-56.49,-23.97,-28.86,0,0,0,0,0,0,0,0,0,0,0,0,0,0,0,0,
483,112.1,238.2,17.6,104.0,-36.35,-131.7,0.3683,-15.87,-20.84,-53.47,-11.77,-4.828,-39.94,-43.73,-22.07,-18.95,0,0,0,0,0,0,0,0,0,0,0,0,0,0,0,0,
484,123.6,145.5,-35.24,7.229,-43.32,-67.51,-7.524,-5.359,-13.2,-31.32,-26.68,-2.401,-35.72,-25.64,-18.56,-10.36,0,0,0,0,0,0,0,0,0,0,0,0,0,0,0,0,
485,31.42,-29.73,-46.93,-48.24,-26.94,46.28,-3.398,-20.38,-7.238,0.9737,-24.36,-1.435,-25.0,-12.57,-11.33,2.041,0,0,0,0,0,0,0,0,0,0,0,0,0,0,0,0,
486,5.926,-62.77,11.42,15.35,2.616,77.72,-0.5099,-25.22,-8.118,4.979,-15.5,0.0776,-20.45,-10.74,-2.205,7.238,0,0,0,0,0,0,0,0,0,0,0,0,0,0,0,0,
487,73.86,-14.84,46.68,52.03,10.19,34.79,-8.31,-10.14,-12.41,-12.64,-9.411,-5.255,-21.4,-19.34,0.7082,-3.995,0,0,0,0,0,0,0,0,0,0,0,0,0,0,0,0,
488,122.8,45.4,59.34,28.62,-8.796,1.115,15.49,-3.817,-11.39,-20.93,8.021,-6.72,-10.3,-25.21,3.211,-6.271,0,0,0,0,0,0,0,0,0,0,0,0,0,0,0,0,
489,111.1,136.4,62.14,39.66,0.8435,-2.517,52.05,5.008,2.972,-18.18,30.38,9.643,7.884,-17.29,14.36,10.58,0,0,0,0,0,0,0,0,0,0,0,0,0,0,0,0,
490,63.0,154.0,-4.511,58.92,35.16,-18.86,23.97,7.429,10.72,-12.5,30.4,21.3,8.219,-3.88,21.3,21.63,0,0,0,0,0,0,0,0,0,0,0,0,0,0,0,0,
491,14.09,74.48,-66.53,38.95,25.9,-37.42,-19.68,-15.14,-11.24,-4.396,26.35,31.49,8.183,19.23,29.09,37.42,0,0,0,0,0,0,0,0,0,0,0,0,0,0,0,0,
492,1.692,38.39,-24.52,32.73,-7.92,0.1732,11.85,-10.43,-26.1,11.73,42.1,50.77,28.02,50.47,40.79,57.37,0,0,0,0,0,0,0,0,0,0,0,0,0,0,0,0,
493,29.65,36.47,35.3,41.52,-13.32,46.04,41.43,27.06,-8.348,27.62,38.02,38.09,24.82,47.29,28.37,36.03,0,0,0,0,0,0,0,0,0,0,0,0,0,0,0,0,
494,56.69,-9.427,34.35,20.54,-29.25,21.63,6.405,18.94,-6.931,14.3,5.442,-4.424,-6.185,6.389,5.516,-4.938,0,0,0,0,0,0,0,0,0,0,0,0,0,0,0,0,
495,48.44,-28.78,8.235,2.478,-55.75,-17.93,-6.425,-18.22,-20.27,-17.48,-0.69,-23.68,-10.11,-20.58,4.245,-10.44,0,0,0,0,0,0,0,0,0,0,0,0,0,0,0,0,
496,42.9,10.67,14.03,5.551,-28.24,-14.69,15.3,-15.39,-0.6186,-28.66,17.03,-19.56,1.659,-23.8,7.626,-0.8222,0,0,0,0,0,0,0,0,0,0,0,0,0,0,0,0,
497,73.98,45.7,66.57,-0.3946,8.822,-9.129,16.92,-7.872,11.31,-28.09,18.23,-15.73,-3.89,-23.86,8.742,-3.259,0,0,0,0,0,0,0,0,0,0,0,0,0,0,0,0,
498,97.32,78.44,95.71,12.84,-0.4572,-18.35,25.42,-23.15,-13.98,-34.33,19.82,-10.47,-6.264,-18.85,15.81,-3.145,0,0,0,0,0,0,0,0,0,0,0,0,0,0,0,0,
499,133.6,124.6,95.0,57.86,6.228,-7.564,41.13,-19.22,-24.52,-31.08,34.2,1.746,-5.051,-2.473,12.17,5.658,0,0,0,0,0,0,0,0,0,0,0,0,0,0,0,0,
500,239.1,164.6,132.8,92.59,57.06,33.48,44.79,1.005,-7.958,-12.05,39.88,24.92,-1.899,25.59,12.56,25.74,0,0,0,0,0,0,0,0,0,0,0,0,0,0,0,0,
501,325.0,214.0,153.1,125.5,128.7,85.39,80.44,19.91,31.53,9.409,63.46,53.64,38.07,55.08,53.33,61.51,0,0,0,0,0,0,0,0,0,0,0,0,0,0,0,0,
502,358.6,283.7,148.7,152.6,225.7,139.8,119.3,35.0,98.15,31.55,118.5,68.2,91.0,67.2,99.0,86.1,0,0,0,0,0,0,0,0,0,0,0,0,0,0,0,0,
503,448.2,366.4,221.9,159.2,284.7,182.4,95.2,30.14,131.7,52.36,129.3,54.17,94.01,54.76,89.27,71.24,0,0,0,0,0,0,0,0,0,0,0,0,0,0,0,0,
504,531.7,442.0,294.7,186.5,260.6,189.7,67.54,38.01,111.0,48.98,82.13,19.23,66.24,24.69,53.49,40.63,0,0,0,0,0,0,0,0,0,0,0,0,0,0,0,0,
505,521.5,412.3,270.1,166.7,252.4,225.5,86.32,73.53,106.3,34.55,58.95,-5.294,60.32,5.012,47.76,29.6,0,0,0,0,0,0,0,0,0,0,0,0,0,0,0,0,
506,555.9,299.7,236.4,50.4,272.7,348.9,98.28,69.7,122.9,64.28,60.0,-4.047,68.87,18.41,49.95,27.45,0,0,0,0,0,0,0,0,0,0,0,0,0,0,0,0,
507,641.8,350.2,248.1,43.88,241.3,410.8,90.41,27.53,112.0,107.1,45.22,0.0068,71.36,37.79,37.92,20.23,0,0,0,0,0,0,0,0,0,0,0,0,0,0,0,0,
508,620.8,571.0,301.2,208.7,229.5,279.5,92.24,15.57,100.8,84.65,48.62,2.061,78.29,43.2,42.82,28.68,0,0,0,0,0,0,0,0,0,0,0,0,0,0,0,0,
509,564.4,654.0,371.9,274.1,244.6,112.4,92.74,40.71,112.1,38.7,72.25,22.45,89.02,57.66,60.38,53.33,0,0,0,0,0,0,0,0,0,0,0,0,0,0,0,0,
510,557.9,524.8,366.4,161.0,167.6,93.34,83.74,71.36,94.87,41.87,70.88,43.83,84.52,73.57,59.68,59.05,0,0,0,0,0,0,0,0,0,0,0,0,0,0,0,0,
511,475.1,382.1,295.7,103.2,100.1,155.1,71.43,75.79,57.4,63.65,51.63,37.2,64.58,61.28,45.88,38.13,0,0,0,0,0,0,0,0,0,0,0,0,0,0,0,0,
512,329.8,339.4,235.9,192.4,130.5,146.2,45.82,46.16,54.22,59.97,31.21,15.44,40.5,35.98,23.4,15.65,0,0,0,0,0,0,0,0,0,0,0,0,0,0,0,0,
513,262.0,326.0,154.5,227.3,114.7,104.1,22.09,26.56,54.76,45.82,8.364,5.306,25.01,30.18,-2.149,6.453,0,0,0,0,0,0,0,0,0,0,0,0,0,0,0,0,
514,228.9,203.3,102.8,101.5,73.07,153.2,32.04,52.51,39.74,53.21,5.431,21.03,37.92,50.38,-1.533,13.9,0,0,0,0,0,0,0,0,0,0,0,0,0,0,0,0,
515,160.7,59.31,157.0,19.28,105.7,209.9,45.11,98.99,50.6,80.37,21.04,52.88,64.1,81.09,18.33,30.63,0,0,0,0,0,0,0,0,0,0,0,0,0,0,0,0,
516,101.2,100.0,172.3,57.36,118.1,148.4,20.2,109.2,64.13,98.35,20.24,71.55,63.89,103.9,24.71,43.84,0,0,0,0,0,0,0,0,0,0,0,0,0,0,0,0,
517,60.21,179.3,93.47,38.72,86.01,68.97,-0.4956,65.08,51.27,94.91,8.147,68.45,46.5,104.2,22.37,54.2,0,0,0,0,0,0,0,0,0,0,0,0,0,0,0,0,
518,19.61,108.8,59.32,12.41,47.2,36.34,8.236,13.85,33.71,60.55,10.47,47.85,34.71,70.45,23.53,53.41,0,0,0,0,0,0,0,0,0,0,0,0,0,0,0,0,
519,-17.91,36.34,39.41,81.22,-21.99,-15.22,-2.377,-10.86,4.642,2.622,19.05,18.25,22.56,28.34,28.2,35.94,0,0,0,0,0,0,0,0,0,0,0,0,0,0,0,0,
520,-68.23,-1.917,-11.43,71.19,-42.35,-32.27,-18.74,-22.08,-20.69,-23.68,18.31,5.099,17.51,20.59,36.14,26.09,0,0,0,0,0,0,0,0,0,0,0,0,0,0,0,0,
521,-129.7,-90.43,6.217,-28.42,2.442,23.46,2.885,-20.56,-14.16,-10.25,10.5,3.914,19.65,28.58,32.95,25.65,0,0,0,0,0,0,0,0,0,0,0,0,0,0,0,0,
522,-179.4,-118.9,23.21,-53.3,-2.628,45.92,14.42,0.6508,-10.38,-2.567,8.992,-6.224,17.89,26.81,25.24,20.24,0,0,0,0,0,0,0,0,0,0,0,0,0,0,0,0,
523,-206.3,-107.6,-42.49,-68.38,-22.27,23.39,-11.46,10.46,-8.495,8.499,18.66,-17.54,29.99,32.48,33.19,20.75,0,0,0,0,0,0,0,0,0,0,0,0,0,0,0,0,
524,-195.4,-159.1,-53.21,-108.6,-2.836,20.21,-23.93,-16.87,15.5,31.4,19.87,-33.98,46.83,33.04,32.57,20.94,0,0,0,0,0,0,0,0,0,0,0,0,0,0,0,0,
525,-156.0,-129.7,2.811,-57.72,-14.23,-5.701,-10.02,-38.67,18.86,27.08,10.11,-48.96,40.63,20.21,16.76,14.23,0,0,0,0,0,0,0,0,0,0,0,0,0,0,0,0,
526,-135.7,-29.58,-1.119,28.55,-38.88,-76.06,2.271,-23.49,0.2363,1.624,11.08,-33.86,35.14,23.68,14.51,17.38,0,0,0,0,0,0,0,0,0,0,0,0,0,0,0,0,
527,-174.3,-63.73,-42.23,23.77,-31.32,-104.7,1.976,-14.59,5.875,-7.271,13.31,-9.859,40.71,28.1,13.45,20.98,0,0,0,0,0,0,0,0,0,0,0,0,0,0,0,0,
528,-257.4,-162.1,-69.26,-39.07,-37.09,-62.57,-4.203,-17.2,16.69,-5.548,6.852,-1.681,31.81,11.12,6.63,15.93,0,0,0,0,0,0,0,0,0,0,0,0,0,0,0,0,
529,-299.7,-219.1,-78.68,-77.5,-59.39,-14.29,-12.46,1.276,3.632,-13.18,6.019,3.573,11.88,-2.979,9.924,9.64,0,0,0,0,0,0,0,0,0,0,0,0,0,0,0,0,
530,-268.0,-275.6,-43.43,-95.08,-65.6,0.9512,-34.15,10.73,-23.98,-21.74,-1.854,0.3184,-12.36,-10.4,-0.8675,-7.033,0,0,0,0,0,0,0,0,0,0,0,0,0,0,0,0,
531,-251.9,-259.8,-17.41,-124.3,-69.96,-21.05,-51.89,-10.52,-55.06,-20.47,-22.96,-13.74,-39.46,-20.11,-30.78,-24.5,0,0,0,0,0,0,0,0,0,0,0,0,0,0,0,0,
532,-277.5,-185.9,-57.92,-112.5,-82.34,-70.27,-33.36,-36.86,-67.29,-23.96,-29.34,-20.09,-46.12,-16.73,-39.59,-20.48,0,0,0,0,0,0,0,0,0,0,0,0,0,0,0,0,
533,-268.3,-168.5,-70.33,-48.16,-86.03,-106.4,-5.577,-42.91,-53.59,-33.8,-19.47,-15.66,-31.55,2.446,-21.51,-4.651,0,0,0,0,0,0,0,0,0,0,0,0,0,0,0,0,
534,-232.1,-152.8,-18.55,-68.49,-74.01,-95.25,7.131,-11.52,-40.39,-23.45,-6.596,-11.41,-18.83,16.54,1.884,8.017,0,0,0,0,0,0,0,0,0,0,0,0,0,0,0,0,
535,-240.3,-180.4,-22.02,-153.9,-54.0,-27.62,28.1,9.475,-24.24,1.252,13.66,-13.78,-5.548,13.44,24.1,21.0,0,0,0,0,0,0,0,0,0,0,0,0,0,0,0,0,
536,-288.7,-297.2,-74.14,-95.96,-30.44,41.44,40.78,-25.14,3.79,6.392,27.6,-9.657,8.764,3.944,34.18,32.95,0,0,0,0,0,0,0,0,0,0,0,0,0,0,0,0,
537,-302.8,-247.1,-63.26,24.19,-19.57,0.8969,16.5,-45.06,6.871,-13.79,15.29,1.475,1.875,-6.457,17.66,22.65,0,0,0,0,0,0,0,0,0,0,0,0,0,0,0,0,
538,-247.1,-43.89,-37.89,-33.9,-42.06,-99.49,-5.951,-18.64,-14.41,-36.19,-1.556,-2.808,-16.38,-18.76,-0.8207,-2.272,0,0,0,0,0,0,0,0,0,0,0,0,0,0,0,0,
539,-194.7,-35.42,-60.49,-112.4,-66.72,-105.0,-1.372,-6.396,-20.67,-33.96,-1.04,-13.16,-22.4,-19.22,5.047,-2.485,0,0,0,0,0,0,0,0,0,0,0,0,0,0,0,0,
540,-207.0,-172.3,-72.06,-29.29,-74.81,-79.91,-11.26,-11.43,-34.51,-22.55,-12.44,-17.15,-36.9,-16.5,3.389,5.904,0,0,0,0,0,0,0,0,0,0,0,0,0,0,0,0,
541,-236.2,-224.3,-85.86,-39.16,-101.6,-104.6,-44.23,-18.49,-66.65,-33.92,-40.4,-18.01,-55.42,-17.11,-7.225,6.264,0,0,0,0,0,0,0,0,0,0,0,0,0,0,0,0,
542,-257.6,-246.7,-127.5,-193.2,-114.7,-65.79,-53.5,-37.23,-61.75,-31.39,-35.64,-3.67,-38.44,4.928,15.33,36.1,0,0,0,0,0,0,0,0,0,0,0,0,0,0,0,0,
543,-297.0,-291.3,-131.1,-182.4,-90.22,-14.7,-34.78,-43.29,-35.85,-5.127,-8.847,5.442,-20.85,20.24,32.39,65.88,0,0,0,0,0,0,0,0,0,0,0,0,0,0,0,0,
544,-323.6,-290.5,-108.9,-74.34,-108.2,-83.37,-21.37,-32.83,-51.71,-23.29,-6.311,-7.27,-39.68,-4.067,10.56,48.4,0,0,0,0,0,0,0,0,0,0,0,0,0,0,0,0,
545,-304.1,-220.9,-101.1,-71.38,-145.4,-139.6,-15.51,-36.87,-77.24,-61.23,-6.397,-8.914,-45.43,-16.86,2.796,27.51,0,0,0,0,0,0,0,0,0,0,0,0,0,0,0,0,
546,-261.0,-118.0,-85.76,-35.81,-122.2,-134.3,-14.14,-52.99,-65.35,-56.05,5.205,-5.783,-27.0,-9.174,11.07,23.78,0,0,0,0,0,0,0,0,0,0,0,0,0,0,0,0,
547,-221.4,-76.78,-83.87,7.355,-117.4,-174.5,-27.59,-48.59,-45.66,-51.43,3.119,-9.206,-24.79,-14.81,7.622,17.06,0,0,0,0,0,0,0,0,0,0,0,0,0,0,0,0,
548,-204.0,-155.9,-93.29,-102.4,-149.5,-137.7,-44.48,-5.156,-42.73,-46.7,2.319,11.09,-20.8,-2.094,18.9,26.51,0,0,0,0,0,0,0,0,0,0,0,0,0,0,0,0,
549,-205.7,-268.0,-84.57,-177.7,-100.8,19.36,-36.97,32.99,-32.5,10.99,26.45,38.1,12.82,39.07,45.58,58.27,0,0,0,0,0,0,0,0,0,0,0,0,0,0,0,0,
550,-208.2,-271.9,-85.06,-62.88,-12.41,60.17,4.585,12.2,-0.0328,57.93,60.71,38.88,46.61,60.42,61.76,80.61,0,0,0,0,0,0,0,0,0,0,0,0,0,0,0,0,
551,-207.2,-140.1,-73.72,61.61,1.982,-30.24,44.88,-18.59,24.67,36.39,78.53,21.2,45.76,45.94,60.64,67.8,0,0,0,0,0,0,0,0,0,0,0,0,0,0,0,0,
552,-177.7,-17.93,-38.31,44.92,-20.5,-84.96,41.56,-0.3018,19.95,8.028,69.23,-0.3702,24.6,18.29,42.89,34.69,0,0,0,0,0,0,0,0,0,0,0,0,0,0,0,0,
553,-138.2,-35.79,-25.84,-55.27,-25.12,-90.23,21.99,21.91,16.88,10.23,55.45,-3.557,16.96,3.616,28.06,22.0,0,0,0,0,0,0,0,0,0,0,0,0,0,0,0,0,
554,-171.2,-123.3,-12.07,-119.5,-4.235,-35.27,30.33,12.16,31.72,17.79,54.0,10.95,18.83,9.607,25.28,25.18,0,0,0,0,0,0,0,0,0,0,0,0,0,0,0,0,
555,-209.1,-155.2,-9.551,-101.9,48.15,54.44,43.34,1.611,45.05,27.41,51.62,19.66,21.83,30.72,23.87,26.47,0,0,0,0,0,0,0,0,0,0,0,0,0,0,0,0,
556,-136.8,-134.3,-44.15,-29.02,67.43,40.29,43.18,-1.852,58.55,44.0,50.46,33.02,37.92,58.72,28.32,42.63,0,0,0,0,0,0,0,0,0,0,0,0,0,0,0,0,
557,-91.42,-118.5,-25.98,45.28,22.0,-44.84,54.59,-6.164,66.05,48.75,52.46,45.19,48.21,66.15,31.33,57.45,0,0,0,0,0,0,0,0,0,0,0,0,0,0,0,0,
558,-163.4,-94.34,5.864,54.34,2.124,-64.55,63.97,0.1387,56.74,39.86,43.53,29.7,40.89,51.73,25.56,48.39,0,0,0,0,0,0,0,0,0,0,0,0,0,0,0,0,
559,-164.9,-50.2,-36.0,19.53,8.545,-37.12,48.12,6.675,55.6,41.26,32.15,11.48,39.37,48.76,22.24,37.65,0,0,0,0,0,0,0,0,0,0,0,0,0,0,0,0,
560,-76.96,-77.0,-48.95,-7.782,-29.72,-11.01,35.32,8.216,53.54,46.78,22.43,8.046,30.35,43.86,10.16,25.45,0,0,0,0,0,0,0,0,0,0,0,0,0,0,0,0,
561,-101.6,-184.3,-39.34,-90.64,-46.79,10.28,31.06,25.57,27.0,36.31,5.301,-4.444,-0.4418,16.59,-12.32,-0.1648,0,0,0,0,0,0,0,0,0,0,0,0,0,0,0,0,
562,-214.8,-227.0,-86.97,-185.6,-4.046,11.26,10.3,28.09,12.2,26.4,-4.984,-20.34,-22.11,-7.456,-24.77,-23.14,0,0,0,0,0,0,0,0,0,0,0,0,0,0,0,0,
563,-238.3,-174.6,-79.14,-113.1,2.925,-7.145,-3.821,-16.48,12.66,17.3,-4.357,-27.44,-32.7,-27.77,-33.53,-40.29,0,0,0,0,0,0,0,0,0,0,0,0,0,0,0,0,
564,-155.5,-115.6,-14.14,32.51,-46.52,-52.02,-1.081,-47.72,-12.34,-22.3,-10.92,-44.32,-55.98,-62.83,-47.68,-59.31,0,0,0,0,0,0,0,0,0,0,0,0,0,0,0,0,
565,-88.02,-75.71,-26.84,28.16,-97.25,-112.4,-17.65,-40.23,-52.63,-75.32,-30.03,-67.51,-86.55,-97.52,-69.32,-79.02,0,0,0,0,0,0,0,0,0,0,0,0,0,0,0,0,
566,-116.6,-71.8,-67.53,-15.7,-127.5,-141.8,-33.0,-48.19,-83.26,-101.3,-55.51,-73.86,-108.5,-116.5,-94.53,-92.06,0,0,0,0,0,0,0,0,0,0,0,0,0,0,0,0,
567,-153.5,-98.34,-64.12,8.492,-126.8,-143.2,-16.17,-49.41,-95.42,-106.6,-68.39,-68.26,-111.0,-120.7,-91.69,-84.94,0,0,0,0,0,0,0,0,0,0,0,0,0,0,0,0,
568,-117.0,-116.3,-71.9,-97.22,-105.3,-111.7,-15.58,-11.98,-86.42,-100.5,-59.31,-60.61,-97.29,-111.6,-65.42,-69.42,0,0,0,0,0,0,0,0,0,0,0,0,0,0,0,0,
569,-129.4,-162.8,-103.4,-249.2,-71.4,-43.02,-43.01,-6.7,-72.85,-72.4,-51.34,-48.4,-83.38,-95.07,-53.69,-65.75,0,0,0,0,0,0,0,0,0,0,0,0,0,0,0,0,
570,-218.7,-218.4,-121.2,-108.6,-27.62,-32.97,-41.7,-42.92,-54.37,-50.42,-47.68,-41.63,-72.27,-81.35,-47.16,-62.49,0,0,0,0,0,0,0,0,0,0,0,0,0,0,0,0,
571,-228.1,-183.2,-132.8,105.9,-18.5,-86.93,-25.55,-47.64,-35.33,-65.6,-38.92,-46.16,-69.78,-78.12,-45.69,-61.14,0,0,0,0,0,0,0,0,0,0,0,0,0,0,0,0,
572,-183.8,-107.1,-137.4,31.99,-49.72,-85.56,-45.43,-34.57,-45.75,-74.66,-46.5,-48.31,-79.75,-72.85,-65.56,-68.22,0,0,0,0,0,0,0,0,0,0,0,0,0,0,0,0,
573,-171.8,-76.89,-98.65,-73.62,-86.3,-58.59,-73.35,-37.41,-64.57,-42.01,-63.87,-42.21,-77.64,-48.51,-67.09,-53.98,0,0,0,0,0,0,0,0,0,0,0,0,0,0,0,0,
574,-122.2,-78.96,-59.55,-29.45,-127.4,-75.77,-78.8,-22.66,-64.49,-12.99,-62.63,-29.73,-62.32,-21.48,-41.1,-22.82,0,0,0,0,0,0,0,0,0,0,0,0,0,0,0,0,
575,-77.99,-138.0,-86.16,-73.29,-141.6,-69.16,-87.56,6.501,-69.43,-9.921,-58.0,-13.43,-60.84,-14.43,-33.69,-16.57,0,0,0,0,0,0,0,0,0,0,0,0,0,0,0,0,
576,-131.5,-210.2,-120.0,-146.9,-116.7,-46.71,-96.57,5.545,-75.96,-11.75,-61.88,-14.45,-69.06,-27.6,-43.88,-33.44,0,0,0,0,0,0,0,0,0,0,0,0,0,0,0,0,
577,-200.7,-178.4,-139.7,-65.51,-112.8,-70.98,-89.97,-24.37,-74.33,-35.83,-63.76,-37.24,-78.57,-50.99,-55.01,-49.7,0,0,0,0,0,0,0,0,0,0,0,0,0,0,0,0,
578,-226.4,-131.9,-174.9,12.77,-115.2,-68.47,-89.93,-47.05,-80.23,-68.58,-60.05,-37.81,-84.78,-54.25,-60.76,-49.08,0,0,0,0,0,0,0,0,0,0,0,0,0,0,0,0,
579,-203.3,-145.6,-143.6,4.062,-79.75,-29.85,-84.49,-44.82,-71.54,-51.36,-42.07,-9.72,-63.54,-24.75,-42.68,-28.16,0,0,0,0,0,0,0,0,0,0,0,0,0,0,0,0,
580,-127.5,-75.5,-73.63,26.72,-47.35,-62.38,-54.86,-37.55,-37.59,-14.55,-22.72,-4.643,-27.4,-5.161,-20.67,-16.02,0,0,0,0,0,0,0,0,0,0,0,0,0,0,0,0,
581,-100.8,23.99,-69.71,39.34,-32.62,-113.5,-43.91,-35.68,-14.42,-16.51,-20.06,-15.43,-11.86,-11.17,-14.08,-19.64,0,0,0,0,0,0,0,0,0,0,0,0,0,0,0,0,
582,-120.6,-38.66,-53.93,-41.67,-25.11,-81.63,-54.01,-15.04,-10.42,-23.8,-14.98,-3.94,-10.05,-13.06,-7.857,-17.18,0,0,0,0,0,0,0,0,0,0,0,0,0,0,0,0,
583,-62.16,-134.1,-40.19,-100.8,-36.43,-29.38,-40.77,12.32,-14.08,-8.221,-8.167,7.157,-9.947,-9.525,-14.55,-17.65,0,0,0,0,0,0,0,0,0,0,0,0,0,0,0,0,
584,-17.92,-109.7,-98.03,-45.47,-21.25,10.29,-19.12,5.47,-14.1,5.613,-9.057,9.325,-10.66,-5.06,-22.65,-21.36,0,0,0,0,0,0,0,0,0,0,0,0,0,0,0,0,
585,-82.26,-76.49,-59.81,25.07,22.0,50.67,-8.081,-21.86,6.157,12.4,-0.7411,18.52,-7.968,6.126,-1.298,-9.517,0,0,0,0,0,0,0,0,0,0,0,0,0,0,0,0,
586,-97.12,-41.24,68.75,51.45,3.466,16.22,4.582,-31.88,22.39,15.02,-0.2271,16.56,-11.3,14.42,8.661,8.114,0,0,0,0,0,0,0,0,0,0,0,0,0,0,0,0,
587,-23.29,56.81,62.81,52.49,-26.47,-43.46,5.415,-21.59,16.32,14.28,-14.53,9.222,-11.18,25.94,-7.005,18.9,0,0,0,0,0,0,0,0,0,0,0,0,0,0,0,0,
588,-23.4,33.94,-7.867,-23.0,43.54,1.201,-1.922,-8.634,27.08,20.97,-8.471,9.054,6.197,35.91,-6.56,13.86,0,0,0,0,0,0,0,0,0,0,0,0,0,0,0,0,
589,-98.26,-151.6,-0.7896,-108.1,86.6,40.74,6.378,-7.685,42.3,18.31,-0.0469,-9.98,7.079,8.899,-8.688,-13.52,0,0,0,0,0,0,0,0,0,0,0,0,0,0,0,0,
590,-100.6,-192.4,-3.919,-50.52,-16.24,-28.18,7.841,-17.71,10.56,-9.727,-15.38,-35.75,-18.2,-36.75,-31.4,-38.69,0,0,0,0,0,0,0,0,0,0,0,0,0,0,0,0,
591,-23.15,-42.86,-28.28,48.01,-87.48,-71.35,-8.455,-32.73,-22.36,-33.4,-20.18,-38.66,-31.15,-54.3,-42.06,-45.91,0,0,0,0,0,0,0,0,0,0,0,0,0,0,0,0,
592,4.104,20.02,12.79,38.21,-33.27,-42.39,-3.239,-45.19,-8.613,-35.59,-6.65,-37.91,-33.84,-57.14,-37.96,-48.72,0,0,0,0,0,0,0,0,0,0,0,0,0,0,0,0,
593,-51.04,-23.1,41.23,-1.391,-13.33,-36.75,18.32,-32.76,-7.045,-37.16,-0.0031,-45.2,-47.83,-67.16,-32.14,-50.35,0,0,0,0,0,0,0,0,0,0,0,0,0,0,0,0,
594,-97.67,-55.26,-33.95,-8.037,-34.03,-46.35,11.48,-6.922,-37.69,-43.54,2.603,-45.99,-56.11,-68.86,-28.34,-46.82,0,0,0,0,0,0,0,0,0,0,0,0,0,0,0,0,
595,-107.0,-117.0,-91.16,-23.84,2.553,-22.16,-3.864,-10.34,-37.72,-38.96,0.5592,-39.67,-49.03,-56.54,-37.65,-42.63,0,0,0,0,0,0,0,0,0,0,0,0,0,0,0,0,
596,-101.3,-149.3,-31.17,-39.41,0.1519,-9.804,2.818,-16.23,-11.61,-27.96,-19.49,-35.39,-45.08,-47.36,-50.1,-43.21,0,0,0,0,0,0,0,0,0,0,0,0,0,0,0,0,
597,-52.94,-57.47,24.56,-26.2,-76.09,-57.98,-6.664,11.64,-15.24,-34.75,-39.68,-34.05,-47.64,-49.38,-49.56,-46.88,0,0,0,0,0,0,0,0,0,0,0,0,0,0,0,0,
598,5.538,16.13,13.38,1.541,-85.75,-86.71,-31.02,14.62,-34.32,-48.47,-36.16,-28.17,-44.63,-51.54,-45.67,-49.61,0,0,0,0,0,0,0,0,0,0,0,0,0,0,0,0,
599,-19.9,-43.08,18.12,28.49,-26.8,-20.42,-17.56,-16.0,-30.27,-34.22,-26.56,-15.44,-37.77,-43.69,-44.24,-48.04,0,0,0,0,0,0,0,0,0,0,0,0,0,0,0,0,
600,-86.41,-107.0,7.692,37.98,-3.096,22.62,4.889,-4.739,-16.5,-13.24,-24.91,-1.147,-33.42,-29.77,-39.69,-32.11,0,0,0,0,0,0,0,0,0,0,0,0,0,0,0,0,
601,-91.56,-71.26,-58.54,4.906,-8.695,-27.19,-3.477,18.56,-4.624,-16.04,-13.37,5.591,-27.48,-19.25,-36.72,-16.62,0,0,0,0,0,0,0,0,0,0,0,0,0,0,0,0,
602,-68.89,-19.81,-65.0,-32.93,2.035,-36.43,-6.291,5.553,17.79,-10.57,-5.438,-4.792,-20.52,-19.62,-42.05,-34.05,0,0,0,0,0,0,0,0,0,0,0,0,0,0,0,0,
603,-53.22,-13.26,8.722,-8.676,28.32,11.65,-0.7745,11.69,37.08,4.251,-23.15,-21.63,-18.07,-29.51,-49.05,-57.76,0,0,0,0,0,0,0,0,0,0,0,0,0,0,0,0,
604,3.217,4.187,30.41,39.69,43.05,24.85,-14.6,24.31,42.19,-9.917,-33.5,-26.27,-14.8,-34.84,-45.25,-46.85,0,0,0,0,0,0,0,0,0,0,0,0,0,0,0,0,
605,63.97,17.72,-1.817,33.74,22.45,36.44,-21.15,-1.874,46.73,-23.95,-21.51,-26.32,-10.34,-29.99,-33.66,-30.13,0,0,0,0,0,0,0,0,0,0,0,0,0,0,0,0,
606,43.86,-5.036,21.97,-23.34,-8.874,46.2,-2.662,-14.36,37.73,-11.61,-19.65,-39.57,-16.95,-33.04,-33.68,-41.06,0,0,0,0,0,0,0,0,0,0,0,0,0,0,0,0,
607,-36.28,4.561,73.0,-58.94,-5.773,2.132,9.348,-7.886,18.99,-9.287,-23.24,-57.51,-24.29,-47.45,-44.17,-59.83,0,0,0,0,0,0,0,0,0,0,0,0,0,0,0,0,
608,-80.61,10.75,47.71,-4.821,27.45,-22.45,0.8495,-6.711,37.52,-12.09,-12.69,-47.95,-15.29,-42.39,-42.16,-57.22,0,0,0,0,0,0,0,0,0,0,0,0,0,0,0,0,
609,-40.16,-61.52,-17.45,57.79,50.18,8.77,0.9494,15.66,67.35,3.92,-11.82,-11.99,-16.46,-18.03,-36.57,-38.65,0,0,0,0,0,0,0,0,0,0,0,0,0,0,0,0,
610,9.905,-78.95,-27.91,19.78,37.05,8.039,15.7,9.455,46.36,6.498,-27.78,6.808,-36.83,-9.143,-41.83,-25.2,0,0,0,0,0,0,0,0,0,0,0,0,0,0,0,0,
611,1.102,23.0,4.968,2.645,2.07,-25.69,5.284,-35.56,17.54,-10.65,-27.2,4.247,-25.47,-5.866,-25.82,-9.627,0,0,0,0,0,0,0,0,0,0,0,0,0,0,0,0,
612,-6.158,66.69,33.08,55.26,-16.96,-23.75,-18.99,-13.37,31.1,-8.896,-8.101,7.059,16.88,8.354,10.19,10.65,0,0,0,0,0,0,0,0,0,0,0,0,0,0,0,0,
613,-1.44,-1.663,49.55,-8.741,1.638,-9.182,-7.582,40.67,47.77,9.311,1.684,8.405,32.26,7.198,16.98,10.74,0,0,0,0,0,0,0,0,0,0,0,0,0,0,0,0,
614,-52.19,-53.34,47.0,-122.4,39.83,-7.202,18.42,28.73,50.77,21.05,4.444,6.335,28.85,-2.793,7.058,-1.252,0,0,0,0,0,0,0,0,0,0,0,0,0,0,0,0,
615,-108.0,-76.65,25.77,-58.38,50.98,16.84,34.57,5.585,60.69,26.16,9.306,10.03,38.54,5.054,10.43,-3.405,0,0,0,0,0,0,0,0,0,0,0,0,0,0,0,0,
616,-91.72,-125.6,7.628,51.06,28.1,39.95,52.82,3.864,63.13,25.94,3.251,5.304,37.72,8.863,3.702,-9.85,0,0,0,0,0,0,0,0,0,0,0,0,0,0,0,0,
617,-63.64,-141.3,-5.539,12.36,18.78,31.33,45.09,-11.62,49.67,24.56,-6.272,-7.619,14.33,-8.167,-13.02,-28.69,0,0,0,0,0,0,0,0,0,0,0,0,0,0,0,0,
618,-74.29,-71.35,-14.06,-59.03,7.718,13.6,12.16,-16.92,27.98,13.4,-4.13,-18.8,-13.39,-34.07,-22.87,-48.01,0,0,0,0,0,0,0,0,0,0,0,0,0,0,0,0,
619,-38.01,11.37,-14.87,-63.17,-40.0,-25.36,0.2218,-11.98,-7.214,-26.14,-8.117,-35.45,-37.63,-57.13,-35.77,-55.54,0,0,0,0,0,0,0,0,0,0,0,0,0,0,0,0,
620,26.22,5.31,-29.56,-42.18,-36.76,-64.91,-7.385,-20.56,-28.78,-52.92,-16.74,-41.76,-40.47,-50.11,-32.8,-35.6,0,0,0,0,0,0,0,0,0,0,0,0,0,0,0,0,
621,-57.67,-65.05,-35.47,14.69,35.91,-52.57,-30.11,-16.21,-7.09,-28.19,-6.729,-21.16,-13.47,-12.95,-2.182,-0.0547,0,0,0,0,0,0,0,0,0,0,0,0,0,0,0,0,
622,-174.3,-76.47,3.592,68.78,37.97,-35.1,-35.92,-10.51,16.33,-5.982,-1.812,-5.829,4.646,2.78,10.74,8.678,0,0,0,0,0,0,0,0,0,0,0,0,0,0,0,0,
623,-75.09,-38.24,20.72,25.49,-23.16,-31.73,-23.42,-22.85,3.288,-12.0,-13.71,-10.83,-1.197,-8.812,2.418,-8.62,0,0,0,0,0,0,0,0,0,0,0,0,0,0,0,0,
624,41.85,-39.15,-12.75,-31.0,-35.1,-10.95,-10.08,-9.052,-18.54,-5.042,2.969,-2.076,10.18,-3.897,18.76,-5.118,0,0,0,0,0,0,0,0,0,0,0,0,0,0,0,0,
625,1.736,-8.256,-8.446,4.229,-31.66,-19.95,2.101,14.17,-21.14,1.294,37.5,18.78,37.83,10.34,38.82,15.94,0,0,0,0,0,0,0,0,0,0,0,0,0,0,0,0,
626,18.27,55.71,30.38,21.06,-35.36,-45.24,-2.062,0.6468,-5.143,-14.13,30.47,19.4,35.24,4.261,16.8,9.897,0,0,0,0,0,0,0,0,0,0,0,0,0,0,0,0,
627,49.48,-15.62,30.82,-60.27,-2.27,-24.05,-23.34,5.2,16.34,-15.37,2.759,17.4,17.89,0.1912,-9.34,-4.387,0,0,0,0,0,0,0,0,0,0,0,0,0,0,0,0,
628,-62.03,-137.7,19.8,-122.3,24.58,2.062,-36.68,40.11,25.28,7.233,-1.535,32.61,24.1,18.79,1.895,12.24,0,0,0,0,0,0,0,0,0,0,0,0,0,0,0,0,
629,-101.9,-97.35,25.27,-62.92,9.555,13.47,-36.05,31.17,17.38,25.3,-9.741,36.5,26.86,34.32,10.83,30.9,0,0,0,0,0,0,0,0,0,0,0,0,0,0,0,0,
630,-23.34,8.999,9.798,69.69,-6.059,19.5,-23.82,2.897,-0.4465,21.3,-28.16,28.8,15.55,38.67,1.784,33.82,0,0,0,0,0,0,0,0,0,0,0,0,0,0,0,0,
631,-31.41,35.92,-19.41,120.1,18.98,-1.449,3.9,13.82,-2.987,8.28,-8.029,38.11,31.72,54.3,14.15,44.36,0,0,0,0,0,0,0,0,0,0,0,0,0,0,0,0,
632,-54.07,12.32,-17.39,10.15,77.04,4.825,28.59,24.01,33.93,25.16,31.0,43.51,55.45,66.87,25.1,41.5,0,0,0,0,0,0,0,0,0,0,0,0,0,0,0,0,
633,-5.429,-54.06,16.08,-77.4,83.99,44.94,36.69,11.75,63.38,59.16,23.95,25.08,37.28,49.36,-0.1586,10.77,0,0,0,0,0,0,0,0,0,0,0,0,0,0,0,0,
634,11.92,-86.1,54.74,13.43,20.98,26.98,42.82,12.01,42.21,51.41,-1.236,16.69,14.3,24.89,-11.84,-3.233,0,0,0,0,0,0,0,0,0,0,0,0,0,0,0,0,
635,15.78,24.6,75.09,89.65,1.779,-18.87,34.62,24.28,19.63,14.91,2.593,23.86,20.64,15.33,4.055,3.381,0,0,0,0,0,0,0,0,0,0,0,0,0,0,0,0,
636,25.77,116.0,54.39,10.67,38.11,-26.33,-2.502,30.77,15.81,0.6666,2.159,17.22,19.93,11.25,3.513,3.419,0,0,0,0,0,0,0,0,0,0,0,0,0,0,0,0,
637,-15.78,53.49,15.96,-31.43,39.79,-15.66,-22.7,30.34,6.167,8.09,-4.293,8.472,16.68,17.73,7.128,14.09,0,0,0,0,0,0,0,0,0,0,0,0,0,0,0,0,
638,-32.99,1.981,1.214,17.84,29.19,29.49,-3.128,24.2,17.98,23.24,10.72,8.849,30.76,24.29,21.09,25.76,0,0,0,0,0,0,0,0,0,0,0,0,0,0,0,0,
639,-2.266,-9.612,-12.2,-5.861,38.11,82.68,13.22,15.87,37.89,31.81,6.011,0.2402,21.1,4.284,1.621,7.956,0,0,0,0,0,0,0,0,0,0,0,0,0,0,0,0,
640,-15.35,-93.2,-17.95,-44.5,3.727,46.62,11.83,1.637,7.463,12.89,-19.55,-9.785,-7.52,-15.15,-16.03,-6.086,0,0,0,0,0,0,0,0,0,0,0,0,0,0,0,0,
641,-17.0,-104.5,22.18,9.598,-53.99,-36.47,11.02,-11.64,-37.2,-15.11,-12.45,-11.76,-3.495,-8.396,1.97,3.583,0,0,0,0,0,0,0,0,0,0,0,0,0,0,0,0,
642,8.913,14.21,25.52,19.48,-37.48,-53.48,10.41,-1.13,-32.56,-19.48,10.06,-9.757,20.84,2.298,16.11,11.39,0,0,0,0,0,0,0,0,0,0,0,0,0,0,0,0,
643,-62.08,13.06,-31.86,-36.27,32.18,-8.463,15.15,14.15,12.3,-1.888,33.39,4.559,41.7,14.52,33.17,21.02,0,0,0,0,0,0,0,0,0,0,0,0,0,0,0,0,
644,-117.0,-92.9,1.157,-11.04,77.77,41.02,40.07,8.826,59.48,22.04,67.31,14.17,60.72,29.38,58.73,31.7,0,0,0,0,0,0,0,0,0,0,0,0,0,0,0,0,
645,11.81,-34.81,107.3,33.82,83.84,63.46,65.36,8.463,75.84,41.92,62.32,4.117,61.48,32.33,48.59,29.84,0,0,0,0,0,0,0,0,0,0,0,0,0,0,0,0,
646,117.0,111.8,114.6,27.16,39.5,52.63,44.5,9.104,62.99,55.38,15.52,4.231,42.63,37.51,20.17,31.58,0,0,0,0,0,0,0,0,0,0,0,0,0,0,0,0,
647,35.02,123.0,48.55,56.13,-3.088,24.7,-6.584,-12.63,48.62,57.79,-12.44,17.79,24.19,48.28,10.48,37.08,0,0,0,0,0,0,0,0,0,0,0,0,0,0,0,0,
648,-26.96,53.32,19.3,51.93,37.05,1.318,-5.943,-11.76,33.61,39.99,-21.78,21.67,15.52,45.33,10.31,32.19,0,0,0,0,0,0,0,0,0,0,0,0,0,0,0,0,
649,11.34,-31.61,26.2,-37.3,61.2,8.774,41.31,24.1,18.81,20.78,-25.43,17.87,14.33,32.0,11.78,22.76,0,0,0,0,0,0,0,0,0,0,0,0,0,0,0,0,
650,-9.481,-155.9,42.77,-52.12,-1.797,47.49,43.77,20.27,14.04,18.38,-16.06,5.892,1.75,10.03,0.0691,7.135,0,0,0,0,0,0,0,0,0,0,0,0,0,0,0,0,
651,-59.38,-169.4,34.77,-5.241,-15.18,64.24,4.607,-31.48,7.744,10.0,-15.18,-12.8,-20.26,-16.97,-22.49,-11.29,0,0,0,0,0,0,0,0,0,0,0,0,0,0,0,0,
652,-18.73,13.56,-2.657,-1.556,29.34,19.24,-9.731,-50.43,1.196,-11.05,-25.34,-19.68,-22.35,-26.49,-25.04,-16.74,0,0,0,0,0,0,0,0,0,0,0,0,0,0,0,0,
653,39.45,165.5,-4.588,18.79,26.01,-57.73,-4.999,-23.85,3.819,-24.14,-28.34,-9.135,-14.57,-21.02,-20.33,-10.35,0,0,0,0,0,0,0,0,0,0,0,0,0,0,0,0,
654,38.46,125.6,19.17,15.82,24.03,-95.27,-6.034,-13.08,0.286,-29.49,-31.39,11.16,-23.38,-14.8,-26.19,1.151,0,0,0,0,0,0,0,0,0,0,0,0,0,0,0,0,
655,10.78,-2.711,-5.921,-59.23,33.09,-56.64,-12.16,-12.57,-17.15,-26.78,-39.55,29.66,-40.41,-2.014,-26.3,10.04,0,0,0,0,0,0,0,0,0,0,0,0,0,0,0,0,
656,-42.2,-110.1,-46.45,-60.1,-12.12,3.726,-24.85,11.21,-34.66,-10.09,-42.29,34.66,-48.63,10.83,-21.9,11.54,0,0,0,0,0,0,0,0,0,0,0,0,0,0,0,0,
657,-83.53,-131.7,-24.64,14.43,-45.86,11.61,-25.72,9.669,-36.42,1.637,-29.23,27.56,-38.02,6.401,-12.56,16.55,0,0,0,0,0,0,0,0,0,0,0,0,0,0,0,0,T1
658,-11.08,-23.59,28.22,23.05,-16.28,-19.85,-8.178,-21.97,-22.51,-5.786,-6.933,23.72,-11.46,-2.544,8.969,26.84,0,0,0,0,0,0,0,0,0,0,0,0,0,0,0,0,
659,95.29,93.41,33.46,16.54,27.58,-23.25,3.315,-9.401,-7.338,-15.08,4.497,35.78,15.96,11.65,24.55,33.41,0,0,0,0,0,0,0,0,0,0,0,0,0,0,0,0,
660,60.83,81.2,2.519,57.05,51.14,6.62,11.88,21.32,9.167,-7.945,12.48,50.18,34.88,37.12,26.73,34.83,0,0,0,0,0,0,0,0,0,0,0,0,0,0,0,0,
661,-27.53,2.566,-0.4803,23.92,29.83,7.624,20.26,15.78,19.69,11.01,34.5,50.24,43.78,43.71,31.89,34.14,0,0,0,0,0,0,0,0,0,0,0,0,0,0,0,0,
662,-17.93,-60.36,17.94,-80.39,-8.104,-16.66,18.97,14.93,13.72,31.06,62.04,48.06,60.09,44.88,50.37,39.89,0,0,0,0,0,0,0,0,0,0,0,0,0,0,0,0,
663,-2.254,-86.35,17.59,-69.45,-2.668,1.587,26.05,20.2,24.99,44.56,81.96,48.57,87.3,54.76,69.19,50.14,0,0,0,0,0,0,0,0,0,0,0,0,0,0,0,0,
664,-29.2,-20.41,18.55,34.39,8.002,30.55,30.64,-1.508,48.18,39.61,81.87,41.6,86.37,51.18,65.94,52.1,0,0,0,0,0,0,0,0,0,0,0,0,0,0,0,0,
665,29.38,87.74,47.11,66.71,-5.367,-1.66,21.41,-10.29,32.69,21.9,68.41,34.17,63.45,38.27,55.73,51.2,0,0,0,0,0,0,0,0,0,0,0,0,0,0,0,0,
666,127.4,112.5,63.67,48.22,18.51,-34.61,34.93,13.13,20.35,11.11,67.56,30.69,60.38,33.96,58.82,49.49,0,0,0,0,0,0,0,0,0,0,0,0,0,0,0,0,
667,77.32,52.23,30.96,-4.208,77.57,7.386,46.46,31.67,48.29,9.379,63.92,23.23,56.05,28.63,53.6,37.41,0,0,0,0,0,0,0,0,0,0,0,0,0,0,0,0,
668,-49.9,-48.46,10.3,-94.8,106.8,75.74,25.58,36.93,53.18,21.48,41.91,15.93,42.46,30.77,42.42,30.82,0,0,0,0,0,0,0,0,0,0,0,0,0,0,0,0,
669,-49.95,-123.1,51.56,-52.83,102.2,102.1,27.89,35.39,39.32,44.48,35.17,16.36,55.18,47.32,49.1,40.33,0,0,0,0,0,0,0,0,0,0,0,0,0,0,0,0,
670,36.91,-40.87,59.29,95.33,77.38,61.02,44.88,19.52,56.17,42.36,44.13,16.69,66.22,44.76,52.82,41.3,0,0,0,0,0,0,0,0,0,0,0,0,0,0,0,0,
671,97.71,150.8,4.423,87.73,22.91,-21.81,31.41,2.703,60.13,15.05,37.92,13.34,40.9,21.85,38.5,29.35,0,0,0,0,0,0,0,0,0,0,0,0,0,0,0,0,
672,126.4,195.8,16.33,-22.78,-9.455,-28.82,26.19,9.137,32.35,6.527,19.85,18.9,12.88,14.99,21.27,27.2,0,0,0,0,0,0,0,0,0,0,0,0,0,0,0,0,
673,76.68,56.02,78.11,-11.1,36.18,69.71,29.49,18.48,25.69,19.29,-2.806,25.59,5.184,21.8,5.483,32.13,0,0,0,0,0,0,0,0,0,0,0,0,0,0,0,0,
674,-2.235,-14.17,73.98,66.64,84.66,104.3,11.54,-0.1926,42.2,27.67,-20.77,18.95,13.57,27.94,4.214,32.8,0,0,0,0,0,0,0,0,0,0,0,0,0,0,0,0,
675,6.223,34.03,39.17,66.87,71.45,27.73,-0.3393,-15.33,47.8,30.78,-15.78,19.46,32.33,39.37,22.46,33.27,0,0,0,0,0,0,0,0,0,0,0,0,0,0,0,0,
676,7.005,3.145,8.461,24.82,58.7,-3.29,-11.77,1.005,38.24,32.94,-8.026,29.2,37.83,45.02,24.97,28.19,0,0,0,0,0,0,0,0,0,0,0,0,0,0,0,0,
677,-23.81,-42.92,-6.22,15.19,48.49,23.4,-26.45,10.8,21.56,29.13,-21.95,29.62,21.41,37.49,0.665,16.79,0,0,0,0,0,0,0,0,0,0,0,0,0,0,0,0,
678,50.87,69.18,46.95,26.52,-7.062,0.3581,-8.779,-1.506,-0.7896,20.24,-30.43,39.65,8.555,33.79,-14.2,15.92,0,0,0,0,0,0,0,0,0,0,0,0,0,0,0,0,
679,141.9,171.2,71.77,44.55,-33.37,-40.24,10.75,-4.671,-15.81,13.81,-5.226,53.72,20.77,32.4,0.677,22.86,0,0,0,0,0,0,0,0,0,0,0,0,0,0,0,0,
680,101.8,90.74,9.529,50.52,13.87,-6.904,12.6,11.46,7.233,16.36,34.43,41.55,52.56,24.75,28.62,21.14,0,0,0,0,0,0,0,0,0,0,0,0,0,0,0,0,
681,-27.44,-53.9,-3.095,-9.563,44.65,87.2,31.27,29.11,52.46,28.81,58.16,31.66,73.36,22.15,45.48,13.82,0,0,0,0,0,0,0,0,0,0,0,0,0,0,0,0,
682,-137.7,-147.0,0.3251,-79.69,24.71,120.0,30.35,19.71,56.66,36.96,67.73,36.62,66.55,21.78,47.14,10.34,0,0,0,0,0,0,0,0,0,0,0,0,0,0,0,0,
683,-104.0,-134.4,-77.35,-49.75,-10.6,20.88,-5.489,-8.118,24.61,20.84,70.77,22.19,49.62,9.426,42.84,9.988,0,0,0,0,0,0,0,0,0,0,0,0,0,0,0,0,
684,29.44,10.61,-99.57,9.982,-52.99,-83.84,-8.857,-6.221,4.861,-10.12,52.76,7.675,31.36,-5.338,32.31,11.29,0,0,0,0,0,0,0,0,0,0,0,0,0,0,0,0,
685,62.18,128.9,-44.39,-10.66,-72.08,-91.14,-4.891,-0.962,-14.28,-28.62,15.57,12.17,7.275,-12.38,15.88,11.98,0,0,0,0,0,0,0,0,0,0,0,0,0,0,0,0,
686,12.17,77.08,-47.93,-36.11,-69.33,-85.41,-50.71,-37.83,-54.35,-39.7,-18.6,-7.894,-20.41,-26.5,-0.7483,1.512,0,0,0,0,0,0,0,0,0,0,0,0,0,0,0,0,
687,3.553,-22.44,-60.34,12.5,-99.29,-86.57,-80.22,-49.57,-97.7,-62.45,-42.98,-42.81,-49.15,-46.04,-15.09,-14.85,0,0,0,0,0,0,0,0,0,0,0,0,0,0,0,0,
688,-5.529,-52.99,-28.34,34.65,-91.8,-24.6,-52.45,-6.707,-107.4,-71.98,-48.76,-33.89,-58.41,-36.49,-17.08,-11.25,0,0,0,0,0,0,0,0,0,0,0,0,0,0,0,0,
689,-62.05,-85.24,-32.04,-37.01,21.08,52.02,-26.18,7.051,-51.74,-33.86,-31.67,-5.389,-29.51,0.5972,-4.522,7.181,0,0,0,0,0,0,0,0,0,0,0,0,0,0,0,0,
690,-106.1,-109.6,-44.11,-68.87,75.09,65.63,-20.63,-18.04,17.21,14.98,-17.23,-2.516,5.416,22.55,4.923,16.2,0,0,0,0,0,0,0,0,0,0,0,0,0,0,0,0,
691,-53.1,8.94,-9.807,18.21,-9.881,14.03,-19.15,-22.37,17.63,16.41,-14.45,2.476,13.54,24.72,6.551,22.44,0,0,0,0,0,0,0,0,0,0,0,0,0,0,0,0,
692,73.45,191.1,-2.3,94.73,-35.63,-55.42,-25.74,-9.041,-5.849,-6.939,-2.274,16.26,17.86,24.34,14.18,30.65,0,0,0,0,0,0,0,0,0,0,0,0,0,0,0,0,
693,128.4,186.5,-26.57,84.96,49.4,-43.62,-20.6,-2.132,19.11,-6.44,25.65,8.951,46.54,21.12,34.51,34.05,0,0,0,0,0,0,0,0,0,0,0,0,0,0,0,0,
694,108.2,43.6,6.745,59.74,56.3,47.52,13.69,6.079,52.14,11.29,52.55,2.443,77.95,28.38,51.87,40.33,0,0,0,0,0,0,0,0,0,0,0,0,0,0,0,0,
695,128.1,29.49,59.0,45.83,-20.12,77.48,44.08,19.28,51.57,22.81,54.15,17.02,77.41,45.32,44.39,44.01,0,0,0,0,0,0,0,0,0,0,0,0,0,0,0,0,
696,111.9,98.88,39.85,33.28,-6.083,33.85,42.2,17.03,44.51,18.94,33.29,27.85,57.78,46.06,23.18,38.58,0,0,0,0,0,0,0,0,0,0,0,0,0,0,0,0,
697,-8.832,40.33,2.174,42.44,71.79,16.33,21.74,-4.298,44.84,7.857,18.62,32.31,39.31,40.56,7.337,38.22,0,0,0,0,0,0,0,0,0,0,0,0,0,0,0,0,
698,-48.84,-42.14,20.62,38.25,60.03,12.66,11.39,-9.545,28.01,8.371,8.206,36.54,7.085,38.99,-10.61,34.55,0,0,0,0,0,0,0,0,0,0,0,0,0,0,0,0,
699,57.61,26.42,44.48,-12.32,4.489,-13.1,24.07,3.123,-5.533,5.786,-2.57,20.04,-20.32,17.14,-23.37,7.557,0,0,0,0,0,0,0,0,0,0,0,0,0,0,0,0,
700,107.5,109.2,15.54,-40.98,3.486,-25.5,36.7,-4.13,-10.04,-17.65,3.711,-13.95,-10.25,-17.75,-19.9,-26.45,0,0,0,0,0,0,0,0,0,0,0,0,0,0,0,0,
701,50.64,67.41,-11.71,-4.728,-15.31,-18.9,25.95,-23.34,10.63,-34.62,3.124,-32.14,1.934,-33.83,-18.26,-37.01,0,0,0,0,0,0,0,0,0,0,0,0,0,0,0,0,
702,31.7,16.52,12.73,43.15,-61.14,-17.69,9.235,-24.82,2.728,-33.23,-18.54,-30.0,-5.061,-30.46,-18.22,-26.52,0,0,0,0,0,0,0,0,0,0,0,0,0,0,0,0,
703,30.07,-2.001,18.35,40.87,-38.2,-12.3,-3.564,-9.861,-11.5,-31.93,-18.86,-30.94,-5.426,-25.45,-12.0,-26.58,0,0,0,0,0,0,0,0,0,0,0,0,0,0,0,0,
704,-34.85,-59.41,-31.06,-10.66,-8.886,0.3003,-23.02,3.307,-4.65,-27.99,-7.502,-35.12,-11.97,-25.08,-15.89,-39.72,0,0,0,0,0,0,0,0,0,0,0,0,0,0,0,0,
705,-49.64,-43.75,-61.73,-25.99,-41.59,-26.43,-28.0,-7.471,-23.73,-19.79,-20.21,-29.33,-27.2,-20.55,-22.77,-35.95,0,0,0,0,0,0,0,0,0,0,0,0,0,0,0,0,
706,14.52,55.11,-63.19,7.882,-43.34,-78.26,-8.202,-24.75,-54.27,-21.6,-25.44,-26.04,-21.65,-14.46,-18.07,-24.11,0,0,0,0,0,0,0,0,0,0,0,0,0,0,0,0,
707,-1.41,7.904,-57.15,-29.82,-16.61,-38.02,1.046,-12.35,-49.09,-24.21,-15.24,-29.91,-11.52,-19.5,-12.06,-27.31,0,0,0,0,0,0,0,0,0,0,0,0,0,0,0,0,
708,-56.6,-107.5,-6.708,-97.65,-49.34,63.96,-8.002,-0.5805,-40.1,-10.75,-21.27,-18.69,-6.045,-19.37,2.42,-19.61,0,0,0,0,0,0,0,0,0,0,0,0,0,0,0,0,
709,-12.43,-58.34,38.07,-28.92,-81.89,49.53,-13.44,-16.66,-41.73,-2.454,-25.52,-0.1816,11.36,-5.099,24.55,4.401,0,0,0,0,0,0,0,0,0,0,0,0,0,0,0,0,
710,39.93,40.12,-1.107,93.14,-58.83,-46.82,-18.49,-20.85,-37.56,-21.72,-19.17,0.3572,13.61,-1.824,20.98,3.196,0,0,0,0,0,0,0,0,0,0,0,0,0,0,0,0,
711,33.2,76.13,-51.43,98.25,-52.1,-69.22,-32.93,-6.288,-44.99,-37.25,-30.92,-0.4657,-5.946,-3.534,0.3412,-11.72,0,0,0,0,0,0,0,0,0,0,0,0,0,0,0,0,
712,27.88,100.1,-45.14,49.69,-68.84,-53.31,-49.47,-6.121,-57.66,-25.42,-43.39,6.63,-12.52,4.421,3.37,-2.32,0,0,0,0,0,0,0,0,0,0,0,0,0,0,0,0,
713,8.738,70.22,-36.57,36.98,-44.18,-63.31,-50.45,-11.06,-51.23,-21.67,-25.91,-2.549,-7.904,-0.3446,24.58,9.494,0,0,0,0,0,0,0,0,0,0,0,0,0,0,0,0,
714,-8.701,-2.342,-48.77,-14.61,7.097,-40.5,-29.44,1.732,-26.4,-30.72,3.583,-6.815,9.062,-0.4786,47.46,19.18,0,0,0,0,0,0,0,0,0,0,0,0,0,0,0,0,
715,10.15,-52.49,-39.87,-102.9,33.95,35.27,-3.054,21.29,11.21,-3.185,33.09,29.01,53.36,44.06,89.18,63.22,0,0,0,0,0,0,0,0,0,0,0,0,0,0,0,0,
716,19.48,-58.25,0.5127,-63.83,20.54,85.88,20.68,31.85,39.6,51.54,67.56,70.26,86.46,91.76,134.9,111.6,0,0,0,0,0,0,0,0,0,0,0,0,0,0,0,0,
717,61.53,32.46,38.66,70.28,-8.819,58.82,31.27,37.03,38.21,68.34,74.88,80.42,72.77,88.14,129.1,112.3,0,0,0,0,0,0,0,0,0,0,0,0,0,0,0,0,
718,142.8,117.6,23.02,72.14,5.526,24.69,7.482,37.64,23.82,42.51,39.08,72.4,41.64,59.91,84.8,88.6,0,0,0,0,0,0,0,0,0,0,0,0,0,0,0,0,
719,112.9,46.69,-42.61,-12.35,29.35,34.0,-22.69,21.35,12.09,19.52,13.93,56.64,27.74,43.93,68.26,75.26,0,0,0,0,0,0,0,0,0,0,0,0,0,0,0,0,
720,-1.372,-36.84,-64.95,-2.791,-28.57,-2.747,-23.34,-5.193,-3.719,4.169,22.91,37.57,29.12,35.69,74.07,67.12,0,0,0,0,0,0,0,0,0,0,0,0,0,0,0,0,
721,-35.6,-5.935,-26.35,13.26,-66.81,-70.6,-8.454,-14.05,-16.93,-13.41,26.94,26.08,37.07,34.82,70.0,60.55,0,0,0,0,0,0,0,0,0,0,0,0,0,0,0,0,
722,-24.82,-3.809,-28.5,-34.72,15.02,-48.67,12.8,-6.576,-2.454,-9.86,23.55,22.29,53.09,44.01,71.02,58.39,0,0,0,0,0,0,0,0,0,0,0,0,0,0,0,0,
723,-53.85,-74.99,-76.73,-33.69,58.84,-13.29,20.53,-11.89,25.72,10.03,27.75,16.26,63.0,42.36,67.22,49.63,0,0,0,0,0,0,0,0,0,0,0,0,0,0,0,0,
724,-66.45,-78.13,-79.13,-4.342,-0.5187,-34.54,-7.382,-20.82,24.15,13.98,23.72,4.311,52.73,26.71,43.58,31.34,0,0,0,0,0,0,0,0,0,0,0,0,0,0,0,0,
725,-13.34,-18.86,-33.81,-23.77,-18.88,4.887,-24.51,0.8292,14.94,17.5,16.72,1.855,46.31,24.18,37.58,25.69,0,0,0,0,0,0,0,0,0,0,0,0,0,0,0,0,
726,63.17,-5.034,1.155,-17.11,8.02,65.02,-17.29,28.68,30.51,32.79,16.57,10.58,51.9,32.34,50.23,34.61,0,0,0,0,0,0,0,0,0,0,0,0,0,0,0,0,
727,90.26,8.748,17.99,24.93,-2.586,22.38,-27.12,13.62,25.25,29.29,9.691,4.812,40.22,25.21,44.89,27.64,0,0,0,0,0,0,0,0,0,0,0,0,0,0,0,0,
728,43.19,46.34,30.36,-3.555,-35.23,-18.34,-26.62,-23.72,-12.07,12.04,3.848,-11.25,21.18,6.232,33.12,6.887,0,0,0,0,0,0,0,0,0,0,0,0,0,0,0,0,
729,-9.015,18.89,11.49,-56.83,-55.63,1.085,-7.029,-36.36,-30.16,2.965,9.161,-17.45,25.38,-8.101,32.28,2.478,0,0,0,0,0,0,0,0,0,0,0,0,0,0,0,0,
730,-18.35,-17.33,-48.09,-18.73,-29.84,-22.22,-14.59,-33.44,-23.09,-11.4,13.99,-21.66,39.16,-11.57,33.03,10.06,0,0,0,0,0,0,0,0,0,0,0,0,0,0,0,0,
731,-31.15,8.744,-77.58,46.23,25.61,-49.59,-19.16,-39.95,-7.12,-22.92,16.13,-23.62,40.81,-3.906,32.63,9.498,0,0,0,0,0,0,0,0,0,0,0,0,0,0,0,0,
732,-20.64,18.17,-48.75,51.29,19.18,-13.18,-4.383,-38.77,8.15,-11.13,16.85,-17.94,31.29,0.4472,28.72,5.492,0,0,0,0,0,0,0,0,0,0,0,0,0,0,0,0,
733,66.34,15.05,-22.62,36.62,-41.79,-2.621,-20.82,-21.23,-1.339,-1.818,12.14,-19.57,16.01,-9.879,20.51,4.169,0,0,0,0,0,0,0,0,0,0,0,0,0,0,0,0,
734,93.52,23.52,-10.75,5.841,-68.71,-35.02,-38.87,-20.99,-33.17,-10.57,5.886,-29.24,2.924,-20.89,15.94,-6.752,0,0,0,0,0,0,0,0,0,0,0,0,0,0,0,0,
735,-4.581,-27.68,6.461,-50.86,-59.18,-24.25,-18.29,-32.31,-56.72,-8.126,7.313,-29.71,3.825,-17.01,18.3,-20.17,0,0,0,0,0,0,0,0,0,0,0,0,0,0,0,0,
736,-42.02,-76.87,5.646,-68.32,-52.17,3.235,-9.208,-20.1,-50.37,6.828,16.11,-20.94,18.65,-6.512,21.89,-10.47,0,0,0,0,0,0,0,0,0,0,0,0,0,0,0,0,
737,16.18,-13.49,-25.63,-61.58,-46.9,-14.81,-24.07,-14.0,-23.25,-0.8012,17.59,-22.07,25.73,-10.52,17.55,3.841,0,0,0,0,0,0,0,0,0,0,0,0,0,0,0,0,
738,16.38,56.91,-74.33,-82.53,-31.49,-33.11,-16.38,-34.92,-13.25,-24.23,16.39,-37.33,15.8,-27.66,13.17,-7.886,0,0,0,0,0,0,0,0,0,0,0,0,0,0,0,0,
739,-33.82,-8.933,-98.54,-64.89,-9.465,-17.48,13.05,-45.81,-17.89,-25.92,25.17,-45.81,6.182,-37.96,17.65,-20.53,0,0,0,0,0,0,0,0,0,0,0,0,0,0,0,0,
740,-46.56,-98.83,-53.82,2.336,-4.867,-22.43,24.99,-45.42,-9.092,-19.89,20.48,-37.66,-5.493,-41.6,17.6,-7.032,0,0,0,0,0,0,0,0,0,0,0,0,0,0,0,0,
741,-10.58,-41.03,13.48,28.48,-38.7,-56.53,10.52,-48.39,-14.02,-37.0,3.324,-25.29,-28.03,-41.77,16.29,12.48,0,0,0,0,0,0,0,0,0,0,0,0,0,0,0,0,
742,46.16,38.96,28.84,26.52,-83.37,-61.99,-3.336,-50.41,-42.9,-52.51,4.752,-23.41,-43.44,-33.1,16.87,9.994,0,0,0,0,0,0,0,0,0,0,0,0,0,0,0,0,
743,57.92,2.63,10.09,17.84,-85.46,-53.73,-10.18,-53.68,-53.53,-45.65,5.025,-29.99,-44.25,-26.92,2.075,-6.601,0,0,0,0,0,0,0,0,0,0,0,0,0,0,0,0,
744,13.85,-2.074,-3.643,-28.48,-45.17,-60.45,-20.09,-35.45,-40.76,-33.39,-5.317,-26.59,-33.42,-22.25,-6.187,-6.904,0,0,0,0,0,0,0,0,0,0,0,0,0,0,0,0,
745,-31.16,33.99,-32.25,-19.81,-7.593,-32.4,-16.8,-6.192,-19.75,-14.05,-0.158,-19.34,-15.14,-9.829,4.91,0.5591,0,0,0,0,0,0,0,0,0,0,0,0,0,0,0,0,
746,-63.41,-36.87,-71.17,30.33,4.16,12.81,-5.799,-18.93,-1.03,7.177,3.353,-20.42,-9.745,-6.687,4.105,-2.986,0,0,0,0,0,0,0,0,0,0,0,0,0,0,0,0,
747,-63.04,-101.9,-62.87,-63.74,-8.016,9.987,-5.506,-35.42,-7.802,6.808,0.2758,-11.27,-10.08,-8.894,6.565,5.33,0,0,0,0,0,0,0,0,0,0,0,0,0,0,0,0,
748,-31.75,-80.26,-20.72,-161.0,-25.98,-5.52,6.428,-13.05,-20.62,3.95,12.72,-2.053,1.565,-1.058,23.87,17.04,0,0,0,0,0,0,0,0,0,0,0,0,0,0,0,0,
749,-16.26,-66.7,-5.111,-47.59,-35.3,-20.66,21.44,-11.72,-11.54,9.304,18.8,-10.99,3.711,-1.722,21.89,7.896,0,0,0,0,0,0,0,0,0,0,0,0,0,0,0,0,
750,21.11,-8.344,11.48,41.96,-49.66,-52.17,10.75,-42.7,-9.797,-3.745,14.18,-6.37,-3.014,-4.372,20.14,11.81,0,0,0,0,0,0,0,0,0,0,0,0,0,0,0,0,
751,68.42,67.49,43.53,-14.14,-58.93,-41.56,0.5498,-49.57,-22.49,-13.64,19.56,12.4,3.495,11.65,35.92,34.14,0,0,0,0,0,0,0,0,0,0,0,0,0,0,0,0,
752,8.571,25.31,21.62,-3.233,-44.77,-25.12,-3.48,-32.1,-21.52,1.474,16.76,13.96,6.604,19.92,29.96,37.4,0,0,0,0,0,0,0,0,0,0,0,0,0,0,0,0,
753,-64.06,-15.2,-27.39,36.63,-47.46,-55.17,-23.51,-18.89,-14.76,7.105,6.381,12.27,-2.026,11.87,12.71,28.82,0,0,0,0,0,0,0,0,0,0,0,0,0,0,0,0,
754,-6.442,-25.16,-20.88,-24.12,-57.79,-1.898,-34.02,-9.649,-15.97,9.528,7.743,19.43,-4.247,14.75,17.27,25.89,0,0,0,0,0,0,0,0,0,0,0,0,0,0,0,0,
755,-7.104,-169.8,-23.41,-90.39,5.447,117.7,-19.11,6.216,-11.89,34.9,5.12,23.28,1.83,25.08,26.74,28.24,0,0,0,0,0,0,0,0,0,0,0,0,0,0,0,0,
756,-139.1,-244.2,-89.89,-95.46,71.34,90.67,-13.58,20.24,3.173,46.74,-1.395,22.52,8.822,25.88,28.58,33.82,0,0,0,0,0,0,0,0,0,0,0,0,0,0,0,0,
757,-92.54,-9.102,-106.9,-31.87,0.6161,-43.45,-33.4,11.9,9.54,22.17,6.23,11.77,12.13,14.54,26.84,25.4,0,0,0,0,0,0,0,0,0,0,0,0,0,0,0,0,
758,102.8,223.6,-27.22,39.19,-92.15,-93.16,-39.13,-12.41,0.5374,-7.09,17.86,-5.414,13.55,-4.479,20.71,7.394,0,0,0,0,0,0,0,0,0,0,0,0,0,0,0,0,
759,80.99,152.5,41.22,-11.94,-62.39,-37.58,-8.583,-24.45,0.688,-12.74,20.09,-3.745,16.3,-13.06,18.34,7.573,0,0,0,0,0,0,0,0,0,0,0,0,0,0,0,0,
760,-43.43,-57.19,34.92,-68.65,-21.12,60.31,10.06,-15.5,8.323,3.592,17.27,19.85,16.88,-3.807,28.07,21.06,0,0,0,0,0,0,0,0,0,0,0,0,0,0,0,0,
761,-31.25,-163.1,-19.96,15.5,-6.301,102.6,2.303,-6.363,12.21,14.19,21.5,39.25,22.57,9.971,44.24,33.18,0,0,0,0,0,0,0,0,0,0,0,0,0,0,0,0,
762,-43.96,-83.92,-49.13,55.08,44.12,15.66,9.233,-9.459,27.66,9.227,27.74,40.54,29.78,26.56,49.3,43.8,0,0,0,0,0,0,0,0,0,0,0,0,0,0,0,0,
763,-48.68,90.96,-8.783,-31.11,16.14,-86.14,12.25,-0.774,26.49,9.276,15.74,37.69,19.61,44.13,38.79,48.83,0,0,0,0,0,0,0,0,0,0,0,0,0,0,0,0,
764,84.92,140.9,12.73,-49.12,-61.47,-74.36,0.4563,24.2,-0.8929,13.31,2.503,44.5,10.31,49.12,33.86,52.48,0,0,0,0,0,0,0,0,0,0,0,0,0,0,0,0,
765,93.75,50.67,-13.19,4.819,-11.01,-2.475,18.08,29.97,6.527,16.39,11.53,47.52,16.28,41.11,33.8,51.63,0,0,0,0,0,0,0,0,0,0,0,0,0,0,0,0,
766,-35.9,-3.137,9.069,-9.606,37.81,56.3,27.22,9.459,23.85,27.13,12.72,32.06,6.822,23.32,13.25,25.11,0,0,0,0,0,0,0,0,0,0,0,0,0,0,0,0,
767,-26.37,-45.86,36.01,-33.03,-23.8,85.72,-17.49,-13.07,-2.592,23.4,-11.87,16.8,-20.35,-0.9599,-15.84,-8.861,0,0,0,0,0,0,0,0,0,0,0,0,0,0,0,0,
768,4.16,-114.4,5.841,10.22,-26.26,46.49,-41.06,-13.3,-25.65,-7.181,-30.98,17.08,-36.84,-15.43,-20.93,-13.41,0,0,0,0,0,0,0,0,0,0,0,0,0,0,0,0,
769,-38.64,-69.94,-1.397,10.43,11.47,-37.92,-16.98,9.136,-37.02,-28.02,-26.8,15.6,-38.79,-19.85,-8.76,-5.901,0,0,0,0,0,0,0,0,0,0,0,0,0,0,0,0,
770,22.11,38.24,6.607,-39.81,-34.24,-67.4,-25.18,8.187,-56.45,-24.94,-17.47,11.66,-33.01,-25.12,-9.339,-9.079,0,0,0,0,0,0,0,0,0,0,0,0,0,0,0,0,
771,100.6,72.64,1.37,-2.351,-63.49,-51.43,-54.28,-22.71,-43.45,-25.01,-30.86,14.67,-32.7,-23.26,-26.33,-11.39,0,0,0,0,0,0,0,0,0,0,0,0,0,0,0,0,
772,65.21,79.46,43.99,22.85,-31.1,-51.92,-25.38,-29.07,-21.84,-33.88,-53.14,8.618,-42.61,-12.81,-30.96,-10.06,0,0,0,0,0,0,0,0,0,0,0,0,0,0,0,0,
773,18.04,41.82,72.05,-84.78,-14.95,-4.803,25.27,-13.39,-27.36,-23.27,-30.8,7.871,-24.88,4.336,-6.687,-0.3875,0,0,0,0,0,0,0,0,0,0,0,0,0,0,0,0,
774,-13.95,-58.03,26.05,-93.07,27.29,94.36,29.24,-3.845,-0.4341,16.58,19.03,28.15,27.7,29.22,14.23,14.33,0,0,0,0,0,0,0,0,0,0,0,0,0,0,0,0,
775,-38.03,-65.95,1.853,58.43,106.4,95.8,9.855,8.639,53.25,43.04,20.69,23.57,45.12,29.31,-3.106,1.208,0,0,0,0,0,0,0,0,0,0,0,0,0,0,0,0,
776,-4.328,25.96,-4.202,74.26,78.74,0.6719,-21.86,9.554,45.35,21.11,-19.92,-5.683,-3.914,-8.425,-39.78,-29.75,0,0,0,0,0,0,0,0,0,0,0,0,0,0,0,0,
777,40.24,57.99,-43.08,-52.53,-62.95,-41.04,-69.33,-7.943,-21.83,-15.06,-49.96,-5.179,-62.66,-37.87,-62.98,-40.66,0,0,0,0,0,0,0,0,0,0,0,0,0,0,0,0,
778,52.06,-5.977,-34.53,-96.5,-140.7,-24.8,-71.37,-14.84,-81.03,-25.93,-62.67,13.7,-83.55,-41.49,-67.07,-38.33,0,0,0,0,0,0,0,0,0,0,0,0,0,0,0,0,
779,34.02,-65.25,-10.95,-47.49,-114.5,-24.83,-36.61,-12.77,-101.0,-26.8,-57.28,21.11,-71.08,-42.7,-57.41,-31.92,0,0,0,0,0,0,0,0,0,0,0,0,0,0,0,0,
780,-45.5,-23.65,-72.81,3.427,-78.59,-31.26,-42.25,-11.31,-78.45,-36.2,-40.13,15.31,-51.3,-46.64,-52.02,-30.22,0,0,0,0,0,0,0,0,0,0,0,0,0,0,0,0,
781,-112.7,42.65,-91.23,0.7087,-34.83,-24.92,-45.53,-5.904,-40.55,-38.6,-37.15,-11.0,-40.56,-48.35,-59.59,-50.51,0,0,0,0,0,0,0,0,0,0,0,0,0,0,0,0,
782,-40.44,24.06,-7.576,-13.63,21.75,-21.27,-0.1271,-6.646,-25.96,-22.42,-37.08,-34.65,-30.21,-44.2,-58.55,-62.18,0,0,0,0,0,0,0,0,0,0,0,0,0,0,0,0,
783,81.34,33.16,-0.7649,44.94,35.64,-25.86,21.63,-2.982,-20.63,-8.35,-28.26,-31.79,-18.08,-35.63,-50.86,-48.8,0,0,0,0,0,0,0,0,0,0,0,0,0,0,0,0,
784,90.33,90.73,-42.05,53.18,27.23,-11.58,16.39,17.75,-1.804,-9.951,-31.91,-31.51,-16.95,-34.39,-57.22,-52.89,0,0,0,0,0,0,0,0,0,0,0,0,0,0,0,0,
785,36.61,21.25,15.44,-53.31,36.94,40.84,39.32,20.4,4.862,-7.197,-36.61,-47.19,-21.47,-43.4,-64.6,-74.48,0,0,0,0,0,0,0,0,0,0,0,0,0,0,0,0,
786,2.773,-99.88,64.11,-72.65,28.23,75.45,47.01,-7.204,-6.938,-4.784,-25.37,-51.76,-26.15,-55.41,-61.57,-73.78,0,0,0,0,0,0,0,0,0,0,0,0,0,0,0,0,
787,-45.21,-92.76,40.11,-9.916,-20.25,42.19,11.13,-29.83,-19.65,-27.52,-20.73,-36.35,-34.94,-58.66,-57.55,-56.24,0,0,0,0,0,0,0,0,0,0,0,0,0,0,0,0,
788,-56.42,-13.31,41.03,-19.72,-64.44,-17.78,-16.32,-40.19,-38.25,-47.1,-29.48,-21.54,-40.58,-51.54,-57.69,-52.66,0,0,0,0,0,0,0,0,0,0,0,0,0,0,0,0,
789,8.83,52.98,27.93,-18.42,-46.08,-64.54,-23.95,-38.33,-48.51,-42.76,-42.21,-21.06,-48.4,-52.38,-68.96,-65.92,0,0,0,0,0,0,0,0,0,0,0,0,0,0,0,0,
790,14.09,32.29,-46.36,14.93,18.78,-63.28,-33.44,-12.57,-39.62,-41.84,-55.67,-18.55,-60.26,-51.17,-78.45,-66.83,0,0,0,0,0,0,0,0,0,0,0,0,0,0,0,0,
791,-44.44,-107.9,-90.49,-21.67,34.56,24.8,-37.04,3.185,-37.01,-27.57,-46.12,-1.32,-45.24,-24.27,-55.73,-40.36,0,0,0,0,0,0,0,0,0,0,0,0,0,0,0,0,
792,-20.59,-135.0,-47.83,-37.99,-9.001,92.56,-23.76,-6.255,-35.88,10.53,-15.11,5.868,-14.48,-7.502,-25.66,-22.79,0,0,0,0,0,0,0,0,0,0,0,0,0,0,0,0,
793,39.31,62.41,37.14,7.392,-40.47,20.25,-9.101,0.3295,-30.33,6.569,-14.71,-12.35,-25.94,-31.82,-40.13,-43.41,0,0,0,0,0,0,0,0,0,0,0,0,0,0,0,0,
794,38.4,175.5,49.47,-18.0,-53.67,-64.29,-15.22,4.618,-42.65,-37.23,-44.41,-25.0,-62.89,-54.0,-70.77,-66.6,0,0,0,0,0,0,0,0,0,0,0,0,0,0,0,0,
795,15.47,68.22,-27.75,-68.22,-30.32,-30.51,-21.58,-18.18,-44.81,-35.78,-44.69,-12.41,-60.28,-43.86,-59.43,-57.03,0,0,0,0,0,0,0,0,0,0,0,0,0,0,0,0,
796,-2.111,-15.58,-36.22,-10.47,45.56,22.25,-3.942,-16.83,-18.22,1.806,-21.17,-2.148,-34.7,-29.22,-34.65,-39.47,0,0,0,0,0,0,0,0,0,0,0,0,0,0,0,0,
797,2.548,9.046,17.59,67.02,73.13,20.11,5.295,-1.724,-11.22,4.126,-22.64,-11.05,-31.71,-29.53,-41.12,-40.93,0,0,0,0,0,0,0,0,0,0,0,0,0,0,0,0,
798,23.69,9.891,-23.08,47.65,29.83,2.502,-2.548,-15.89,-22.78,-22.91,-33.15,-22.06,-29.35,-36.94,-44.42,-46.16,0,0,0,0,0,0,0,0,0,0,0,0,0,0,0,0,
799,3.838,-4.207,-68.39,-11.44,2.971,-26.2,-1.779,-19.18,-17.5,-40.27,-22.69,-25.32,-13.22,-44.14,-23.16,-38.38,0,0,0,0,0,0,0,0,0,0,0,0,0,0,0,0,
800,3.936,38.64,0.6814,-32.01,-30.21,-40.66,-17.08,-11.57,-21.88,-46.25,-20.84,-24.33,-21.27,-49.75,-23.44,-33.18,0,0,0,0,0,0,0,0,0,0,0,0,0,0,0,0,
801,67.62,40.93,46.75,-15.92,-75.65,-11.7,-45.95,-24.34,-48.99,-45.14,-46.1,-24.78,-52.44,-54.97,-52.57,-49.3,0,0,0,0,0,0,0,0,0,0,0,0,0,0,0,0,
802,40.09,-62.55,-9.854,-6.179,-35.74,14.54,-30.24,-15.31,-53.69,-32.11,-53.01,-22.25,-54.77,-51.57,-56.03,-60.41,0,0,0,0,0,0,0,0,0,0,0,0,0,0,0,0,
803,-68.16,-99.71,-65.98,-15.16,60.67,31.35,14.04,12.37,-13.68,-9.322,-16.01,-2.845,-20.37,-28.43,-27.59,-41.27,0,0,0,0,0,0,0,0,0,0,0,0,0,0,0,0,
804,-35.26,13.19,-45.7,7.634,92.22,42.22,34.13,12.44,34.79,10.74,12.48,12.08,3.412,-5.542,-20.53,-30.91,0,0,0,0,0,0,0,0,0,0,0,0,0,0,0,0,
805,74.8,84.38,33.04,41.3,51.2,9.033,37.09,13.09,42.3,13.75,2.417,-2.789,0.3083,-7.905,-36.57,-43.16,0,0,0,0,0,0,0,0,0,0,0,0,0,0,0,0,
806,60.31,55.95,80.95,15.75,5.934,-9.079,34.15,29.02,20.35,6.449,0.9546,-13.07,-1.399,-20.3,-31.02,-36.34,0,0,0,0,0,0,0,0,0,0,0,0,0,0,0,0,
807,31.67,74.66,67.26,-2.388,-8.601,29.03,26.62,25.07,17.5,5.854,12.21,0.4078,-0.7787,-23.82,-19.25,-25.6,0,0,0,0,0,0,0,0,0,0,0,0,0,0,0,0,
808,87.43,91.19,63.42,27.04,9.553,40.53,20.53,10.6,20.94,6.261,-8.663,3.511,-13.11,-20.73,-31.92,-35.24,0,0,0,0,0,0,0,0,0,0,0,0,0,0,0,0,
809,83.68,16.53,47.23,18.66,40.8,29.11,-3.907,16.18,4.683,1.635,-29.02,-4.097,-16.07,-9.918,-32.39,-26.45,0,0,0,0,0,0,0,0,0,0,0,0,0,0,0,0,
810,22.37,-4.377,-21.07,-7.358,45.01,44.97,-32.15,33.66,-0.8787,6.516,-9.408,1.451,2.63,6.846,-6.953,-3.936,0,0,0,0,0,0,0,0,0,0,0,0,0,0,0,0,
811,-12.52,37.19,-42.7,-2.151,36.54,60.47,-16.78,40.05,15.89,28.44,-0.3645,7.788,15.21,20.97,-3.333,-7.287,0,0,0,0,0,0,0,0,0,0,0,0,0,0,0,0,
812,-68.08,-5.045,6.077,4.347,58.81,74.61,8.431,33.89,32.86,52.94,-20.11,6.315,12.14,28.2,-22.69,-12.78,0,0,0,0,0,0,0,0,0,0,0,0,0,0,0,0,
813,-54.16,-23.89,28.04,41.1,54.85,59.81,-6.234,23.63,37.41,52.25,-23.17,9.635,4.286,19.56,-32.28,-4.598,0,0,0,0,0,0,0,0,0,0,0,0,0,0,0,0,
814,70.62,56.81,-5.661,77.35,-0.9265,-8.758,-26.79,7.015,16.4,19.12,-16.7,12.37,-8.755,-4.784,-42.83,-9.817,0,0,0,0,0,0,0,0,0,0,0,0,0,0,0,0,
815,82.04,66.46,-42.58,33.47,-18.85,-22.93,-24.45,-0.9498,-11.79,-11.68,-21.61,10.58,-17.99,-18.68,-53.0,-12.96,0,0,0,0,0,0,0,0,0,0,0,0,0,0,0,0,
816,1.145,13.32,-16.74,-6.132,-6.364,28.25,-9.727,15.9,-15.38,-15.39,-17.95,10.95,-15.79,-10.41,-40.89,1.345,0,0,0,0,0,0,0,0,0,0,0,0,0,0,0,0,
817,0.4537,5.805,40.11,6.526,-11.47,26.34,12.94,20.34,-15.51,-6.173,-10.09,2.825,-14.6,-3.094,-26.27,-2.062,0,0,0,0,0,0,0,0,0,0,0,0,0,0,0,0,
818,-16.98,-0.1343,48.98,9.446,0.9945,-5.521,22.37,-8.004,-17.31,0.8068,-3.816,-9.806,-9.595,-6.091,-17.73,-11.84,0,0,0,0,0,0,0,0,0,0,0,0,0,0,0,0,
819,-33.68,17.63,44.11,23.58,11.55,-16.58,3.543,-18.09,5.519,-4.81,7.356,-13.85,-0.5473,-9.74,-7.155,1.779,0,0,0,0,0,0,0,0,0,0,0,0,0,0,0,0,
820,35.91,47.87,15.9,34.34,12.85,-35.58,-12.8,1.421,19.79,-23.37,-8.358,-24.31,-15.08,-18.61,-19.19,-3.022,0,0,0,0,0,0,0,0,0,0,0,0,0,0,0,0,
821,28.73,-10.33,-60.03,6.362,27.31,-28.95,-9.095,-3.163,-2.957,-28.84,-39.63,-32.15,-35.74,-26.83,-38.62,-29.36,0,0,0,0,0,0,0,0,0,0,0,0,0,0,0,0,
822,-25.93,-41.77,-52.73,-6.385,-18.72,12.46,-11.4,-29.96,-26.49,-17.11,-37.14,-23.86,-31.97,-25.09,-35.27,-29.68,0,0,0,0,0,0,0,0,0,0,0,0,0,0,0,0,
823,1.577,24.76,1.533,-28.04,-79.2,24.21,-22.24,-28.22,-33.61,-17.77,-25.38,-24.49,-27.0,-27.92,-36.75,-24.33,0,0,0,0,0,0,0,0,0,0,0,0,0,0,0,0,
824,-17.67,30.8,-37.97,-52.6,-32.63,-4.647,-4.665,-5.192,-23.24,-25.42,-18.45,-21.17,-17.46,-25.4,-38.2,-28.78,0,0,0,0,0,0,0,0,0,0,0,0,0,0,0,0,
825,-33.72,5.91,-33.7,3.845,11.85,-45.73,29.06,-2.607,10.35,-14.17,0.0043,-2.77,6.317,-8.008,-25.47,-21.57,0,0,0,0,0,0,0,0,0,0,0,0,0,0,0,0,
826,65.42,30.4,55.86,26.48,-10.84,-42.09,25.5,-12.63,27.76,2.912,-1.086,-6.484,4.564,-6.851,-27.4,-16.45,0,0,0,0,0,0,0,0,0,0,0,0,0,0,0,0,
827,68.76,-10.44,42.48,-35.8,13.47,26.28,-0.4342,-6.649,13.64,10.66,-5.409,-12.23,-4.637,-11.67,-21.43,-9.431,0,0,0,0,0,0,0,0,0,0,0,0,0,0,0,0,
828,-32.51,-29.43,-33.03,-7.927,48.29,40.39,-5.801,6.977,20.23,15.03,10.82,0.4925,10.67,1.093,-4.748,4.426,0,0,0,0,0,0,0,0,0,0,0,0,0,0,0,0,
829,-5.172,93.82,-26.89,44.43,22.79,-8.781,0.9898,12.64,43.24,11.83,-10.79,-9.196,2.116,-0.998,-32.34,-7.943,0,0,0,0,0,0,0,0,0,0,0,0,0,0,0,0,
830,80.93,103.7,29.33,-12.91,-6.476,29.18,4.549,13.14,30.1,8.359,-52.06,-22.4,-30.5,-16.83,-66.38,-29.13,0,0,0,0,0,0,0,0,0,0,0,0,0,0,0,0,
831,76.66,-41.22,56.39,-23.43,-34.67,67.82,-7.01,2.384,-2.654,11.21,-49.03,-9.601,-41.63,-20.33,-58.93,-31.11,0,0,0,0,0,0,0,0,0,0,0,0,0,0,0,0,
832,28.67,-20.38,13.93,33.54,-41.0,-36.88,-34.05,-20.74,-23.97,-9.504,-42.35,-7.342,-46.44,-30.45,-53.03,-33.23,0,0,0,0,0,0,0,0,0,0,0,0,0,0,0,0,
833,-31.54,72.8,-56.53,12.47,18.06,-100.7,-38.89,-34.83,-37.03,-44.4,-49.24,-16.49,-46.08,-43.56,-55.01,-31.42,0,0,0,0,0,0,0,0,0,0,0,0,0,0,0,0,
834,-79.42,-4.839,-62.38,-19.96,44.81,-19.86,-11.73,-34.75,-26.41,-44.79,-30.54,-21.3,-23.97,-42.38,-43.79,-26.24,0,0,0,0,0,0,0,0,0,0,0,0,0,0,0,0,
835,-36.15,-41.58,9.914,0.0497,4.929,31.82,20.44,-28.25,0.3724,-28.98,-6.387,-41.58,-8.668,-47.21,-38.01,-39.4,0,0,0,0,0,0,0,0,0,0,0,0,0,0,0,0,
836,62.47,63.16,74.91,16.53,3.559,26.87,42.97,-15.75,4.55,-29.41,-0.8554,-62.59,-10.85,-56.74,-39.72,-47.03,0,0,0,0,0,0,0,0,0,0,0,0,0,0,0,0,
837,90.82,100.5,29.43,21.45,20.67,32.9,39.24,-13.18,-3.853,-28.84,-6.499,-58.19,-20.76,-54.05,-45.14,-34.99,0,0,0,0,0,0,0,0,0,0,0,0,0,0,0,0,
838,55.86,65.85,-61.75,-13.24,-6.868,9.779,14.77,-21.93,-10.31,-29.83,-25.44,-46.62,-43.27,-50.75,-62.55,-35.58,0,0,0,0,0,0,0,0,0,0,0,0,0,0,0,0,
839,45.76,26.55,-26.46,-55.77,-19.85,-18.51,3.182,-19.84,-28.47,-40.4,-40.67,-45.98,-56.76,-52.86,-76.96,-50.95,0,0,0,0,0,0,0,0,0,0,0,0,0,0,0,0,
840,17.61,-32.02,64.61,-3.235,0.5821,-16.02,11.29,-19.24,-35.87,-43.83,-35.95,-55.66,-47.26,-55.65,-79.47,-57.72,0,0,0,0,0,0,0,0,0,0,0,0,0,0,0,0,
841,-69.63,-43.21,48.49,59.89,-1.539,-28.06,17.33,-27.26,-24.1,-48.88,-36.62,-70.99,-51.2,-62.92,-85.21,-58.07,0,0,0,0,0,0,0,0,0,0,0,0,0,0,0,0,
842,-92.22,-16.3,-7.98,23.75,-20.69,-36.97,-6.279,-24.55,-32.67,-60.38,-49.67,-73.31,-74.01,-69.19,-88.47,-56.86,0,0,0,0,0,0,0,0,0,0,0,0,0,0,0,0,
843,-18.46,-3.22,-34.43,-20.73,-17.16,-12.08,-38.82,-29.68,-50.59,-52.13,-41.25,-51.89,-68.87,-60.03,-65.17,-41.5,0,0,0,0,0,0,0,0,0,0,0,0,0,0,0,0,
844,22.38,33.81,-43.12,-10.62,-8.1,10.54,-19.04,-39.57,-39.78,-27.55,-13.92,-30.2,-34.53,-36.77,-29.43,-15.95,0,0,0,0,0,0,0,0,0,0,0,0,0,0,0,0,
845,35.6,29.83,17.66,-0.2502,-20.75,20.64,21.56,-9.417,-20.37,-12.38,-6.682,-22.21,-11.57,-12.03,-17.6,-1.882,0,0,0,0,0,0,0,0,0,0,0,0,0,0,0,0,
846,63.07,-49.99,81.19,-16.28,3.025,38.39,15.61,31.62,-2.082,1.716,-10.36,-10.49,5.132,11.4,-16.18,2.052,0,0,0,0,0,0,0,0,0,0,0,0,0,0,0,0,
847,8.046,-54.25,35.64,-27.32,73.72,49.65,0.1498,29.13,33.54,27.08,0.4727,-2.39,23.11,21.8,-6.385,1.483,0,0,0,0,0,0,0,0,0,0,0,0,0,0,0,0,
848,-55.46,42.67,5.352,2.048,53.33,0.59,3.409,0.94,44.89,28.06,-2.94,-20.34,6.132,-0.7036,-18.33,-15.48,0,0,0,0,0,0,0,0,0,0,0,0,0,0,0,0,
849,37.74,123.6,52.67,27.05,-49.97,-91.81,-2.321,-22.3,3.904,-15.35,-27.57,-40.36,-33.34,-32.59,-43.34,-34.75,0,0,0,0,0,0,0,0,0,0,0,0,0,0,0,0,
850,110.8,128.5,39.02,-12.88,-65.28,-97.63,-7.379,-29.41,-32.89,-46.62,-34.8,-39.79,-51.25,-42.77,-42.67,-37.1,0,0,0,0,0,0,0,0,0,0,0,0,0,0,0,0,
851,12.56,13.31,-3.106,-49.72,-25.64,-9.959,-18.88,-18.21,-49.07,-37.61,-40.81,-44.1,-70.9,-52.8,-49.07,-47.52,0,0,0,0,0,0,0,0,0,0,0,0,0,0,0,0,
