%OpenBCI Raw EXG Data
%Number of channels = 16
%Sample Rate = 125 Hz
%Board = OpenBCI_GUI$BoardCytonSerialDaisy
Sample Index,EXG Channel 0,EXG Channel 1,EXG Channel 2,EXG Channel 3,EXG Channel 4,EXG Channel 5,EXG Channel 6,EXG Channel 7,EXG Channel 8,EXG Channel 9,EXG Channel 10,EXG Channel 11,EXG Channel 12,EXG Channel 13,EXG Channel 14,EXG Channel 15,Accel Channel 0,Accel Channel 1,Accel Channel 2,Other,Other.1,Other.2,Other.3,Other.4,Other.5,Other.6,Analog Channel 0,Analog Channel 1,Analog Channel 2,Timestamp,Other.7,Timestamp (Formatted),Annotations
1,0.0,0.0,0.0,0.0,-0.0,0.0,0.0,-0.0,0.0,-0.0,-0.0,0.0,0.0,-0.0,0.0,-0.0,0,0,0,0,0,0,0,0,0,0,0,0,0,0,0,0,T0
2,77.68,187.5,16.36,128.2,88.69,-22.47,21.06,-11.23,59.67,13.81,20.99,-24.23,-1.561,-16.45,-31.81,-35.93,0,0,0,0,0,0,0,0,0,0,0,0,0,0,0,0,
3,-42.59,131.7,0.0567,54.17,97.11,-86.07,8.189,3.384,29.43,-42.66,12.01,-9.135,-5.201,-4.433,-13.85,-11.67,0,0,0,0,0,0,0,0,0,0,0,0,0,0,0,0,
4,-2.467,80.76,38.69,-24.25,78.44,-8.263,13.35,29.99,24.67,-15.75,6.042,2.019,4.503,11.0,-4.202,-3.49,0,0,0,0,0,0,0,0,0,0,0,0,0,0,0,0,
5,103.1,41.48,43.76,-32.68,38.89,83.44,9.862,10.61,30.57,34.57,-5.368,-15.79,3.053,-0.0146,-19.86,-25.07,0,0,0,0,0,0,0,0,0,0,0,0,0,0,0,0,
6,70.02,59.01,9.044,-23.7,14.63,-9.393,3.308,-7.574,16.35,14.21,-6.367,-16.84,3.057,-2.535,-13.81,-18.28,0,0,0,0,0,0,0,0,0,0,0,0,0,0,0,0,
7,41.44,208.5,37.47,9.416,67.11,-78.73,30.31,8.42,45.35,15.67,23.13,-4.592,21.97,11.22,-2.259,-8.382,0,0,0,0,0,0,0,0,0,0,0,0,0,0,0,0,
8,-12.25,156.2,48.61,27.52,119.3,17.14,47.72,7.744,72.17,30.21,50.39,-0.8008,35.44,18.37,6.803,-2.342,0,0,0,0,0,0,0,0,0,0,0,0,0,0,0,0,
9,-0.1005,22.23,42.56,69.46,115.4,78.56,55.35,16.98,80.56,29.69,63.18,10.58,45.89,29.23,27.57,19.18,0,0,0,0,0,0,0,0,0,0,0,0,0,0,0,0,
10,137.8,135.3,72.24,108.7,101.2,16.33,53.58,33.82,87.66,35.01,43.59,11.91,40.28,29.09,20.94,13.97,0,0,0,0,0,0,0,0,0,0,0,0,0,0,0,0,
11,113.9,184.3,61.91,31.29,98.17,-14.11,29.86,25.41,59.56,25.02,12.09,2.697,16.61,17.13,-6.036,-10.19,0,0,0,0,0,0,0,0,0,0,0,0,0,0,0,0,
12,5.478,95.66,33.47,-44.43,81.77,-1.721,24.38,25.82,42.11,21.28,9.912,-1.794,5.139,11.08,-19.72,-21.97,0,0,0,0,0,0,0,0,0,0,0,0,0,0,0,0,
13,62.07,148.5,35.09,9.319,52.63,-36.62,25.86,21.08,44.64,20.26,5.226,-12.42,-0.2539,-0.7545,-29.93,-33.54,0,0,0,0,0,0,0,0,0,0,0,0,0,0,0,0,
14,127.4,199.0,29.6,83.63,67.13,-23.02,17.78,5.367,31.63,4.843,6.889,-11.06,3.94,-1.631,-24.83,-30.07,0,0,0,0,0,0,0,0,0,0,0,0,0,0,0,0,
15,93.26,122.4,21.96,63.51,101.7,39.68,18.88,9.791,44.54,13.43,24.19,-5.217,13.95,6.281,-9.844,-16.67,0,0,0,0,0,0,0,0,0,0,0,0,0,0,0,0,
16,32.51,54.79,22.15,-19.43,93.64,33.97,20.17,12.75,64.35,27.48,16.7,-8.715,14.11,4.104,-3.501,-10.1,0,0,0,0,0,0,0,0,0,0,0,0,0,0,0,0,
17,-36.83,27.34,27.82,-62.35,92.11,39.01,28.37,9.274,59.72,30.26,18.57,1.687,23.88,11.3,3.095,-1.028,0,0,0,0,0,0,0,0,0,0,0,0,0,0,0,0,
18,-36.75,67.97,48.41,-29.43,94.94,56.23,37.6,9.667,56.52,32.53,35.32,3.669,26.56,11.26,0.4043,-2.696,0,0,0,0,0,0,0,0,0,0,0,0,0,0,0,0,
19,81.74,170.7,64.15,49.82,70.11,-29.58,31.92,10.85,41.01,11.37,26.24,-5.843,13.8,-0.2685,-2.594,-6.137,0,0,0,0,0,0,0,0,0,0,0,0,0,0,0,0,
20,155.2,185.0,43.13,106.2,75.01,-93.1,21.04,10.63,30.27,-7.363,13.19,-6.323,9.374,-1.066,-1.899,-6.67,0,0,0,0,0,0,0,0,0,0,0,0,0,0,0,0,
21,64.81,96.12,2.213,53.2,73.12,1.363,5.411,0.3965,40.47,-3.494,3.115,-15.05,-0.7199,-7.115,-12.69,-17.99,0,0,0,0,0,0,0,0,0,0,0,0,0,0,0,0,
22,-23.96,46.16,7.059,-34.35,31.91,102.6,10.12,0.0059,34.14,3.296,-2.148,-13.9,-2.982,-6.867,-8.44,-11.81,0,0,0,0,0,0,0,0,0,0,0,0,0,0,0,0,
23,35.89,86.5,35.9,-28.23,32.62,21.77,27.02,4.32,22.31,14.94,7.224,-5.473,7.632,0.1347,0.4909,-2.03,0,0,0,0,0,0,0,0,0,0,0,0,0,0,0,0,
24,117.4,151.1,25.45,24.47,62.84,-102.7,15.82,0.5839,24.21,11.47,12.92,-11.77,2.795,-4.789,-10.02,-12.17,0,0,0,0,0,0,0,0,0,0,0,0,0,0,0,0,
25,70.42,123.8,27.14,39.21,87.33,-28.93,16.49,18.13,36.21,1.505,21.48,-2.966,4.657,3.858,-14.09,-13.49,0,0,0,0,0,0,0,0,0,0,0,0,0,0,0,0,
26,-61.8,9.238,46.4,9.344,127.2,80.22,35.12,23.18,52.19,13.0,27.61,5.106,16.27,10.91,-12.67,-12.34,0,0,0,0,0,0,0,0,0,0,0,0,0,0,0,0,
27,-103.8,14.08,30.7,-1.643,126.9,24.24,28.59,-1.48,51.35,11.2,16.53,-10.07,16.77,-5.381,-9.92,-13.1,0,0,0,0,0,0,0,0,0,0,0,0,0,0,0,0,
28,44.77,161.4,25.28,29.55,41.46,-32.75,17.28,-4.848,38.03,-11.45,11.61,-17.7,12.72,-14.01,-6.938,-8.895,0,0,0,0,0,0,0,0,0,0,0,0,0,0,0,0,
29,220.1,201.5,37.29,8.867,-32.13,-23.21,17.76,4.69,23.13,-15.76,20.43,-8.12,9.949,-2.457,-11.67,-9.746,0,0,0,0,0,0,0,0,0,0,0,0,0,0,0,0,
30,197.6,108.7,31.65,-11.0,6.112,-32.66,24.86,13.63,25.88,9.847,25.9,5.213,17.4,14.11,-9.154,-5.815,0,0,0,0,0,0,0,0,0,0,0,0,0,0,0,0,
31,33.0,93.11,31.38,72.68,76.46,-40.2,26.37,20.14,46.38,21.88,12.88,0.08,13.52,8.221,-14.1,-7.417,0,0,0,0,0,0,0,0,0,0,0,0,0,0,0,0,
32,-72.23,133.0,31.96,84.86,98.25,-20.7,18.21,21.83,37.81,-0.7714,5.144,-3.179,2.408,2.35,-12.84,-4.837,0,0,0,0,0,0,0,0,0,0,0,0,0,0,0,0,
33,-99.26,34.64,21.6,-52.2,127.6,55.73,27.29,37.78,42.63,19.06,23.84,15.58,25.7,25.7,17.16,15.22,0,0,0,0,0,0,0,0,0,0,0,0,0,0,0,0,
34,-52.7,-51.41,22.92,-89.52,105.9,103.3,31.49,22.57,80.89,58.57,25.73,-0.0808,34.27,15.34,15.57,4.702,0,0,0,0,0,0,0,0,0,0,0,0,0,0,0,0,
35,149.6,148.7,38.26,55.23,3.729,-17.2,15.98,-18.56,56.31,10.18,17.36,-30.64,8.937,-22.0,-8.654,-16.37,0,0,0,0,0,0,0,0,0,0,0,0,0,0,0,0,
36,276.9,310.4,41.64,133.7,-3.256,-124.1,16.12,-8.614,8.443,-43.9,24.68,-19.07,5.975,-16.95,-4.948,-8.813,0,0,0,0,0,0,0,0,0,0,0,0,0,0,0,0,
37,108.8,136.6,32.82,51.95,59.35,-68.37,25.93,11.87,17.28,-18.26,21.42,-5.216,11.3,0.1339,1.131,-2.438,0,0,0,0,0,0,0,0,0,0,0,0,0,0,0,0,
38,-36.18,36.17,42.88,6.758,65.63,-2.725,39.12,8.586,35.15,13.51,30.81,-0.378,17.59,6.55,11.26,7.819,0,0,0,0,0,0,0,0,0,0,0,0,0,0,0,0,
39,-33.26,79.45,33.28,-1.796,98.69,57.01,38.56,13.12,50.47,21.1,38.86,4.744,28.08,9.75,18.88,13.52,0,0,0,0,0,0,0,0,0,0,0,0,0,0,0,0,
40,-78.45,-33.89,-5.257,-82.09,125.3,123.4,10.99,11.47,62.55,26.72,10.49,-1.131,13.15,1.366,1.556,-1.302,0,0,0,0,0,0,0,0,0,0,0,0,0,0,0,0,
41,2.965,-16.51,21.34,-42.47,39.9,53.54,13.09,5.56,38.06,22.53,8.255,-3.179,-4.42,-4.063,-8.534,-5.669,0,0,0,0,0,0,0,0,0,0,0,0,0,0,0,0,
42,209.3,225.2,66.99,127.9,-27.1,-73.06,32.32,5.747,-2.022,-7.544,25.37,-7.962,-3.245,-7.979,-2.233,-3.676,0,0,0,0,0,0,0,0,0,0,0,0,0,0,0,0,
43,201.0,273.6,42.35,137.5,14.88,-96.08,20.56,9.757,-12.59,-32.81,15.57,-7.555,7.101,-3.874,7.28,-1.286,0,0,0,0,0,0,0,0,0,0,0,0,0,0,0,0,
44,68.13,141.8,15.46,28.91,55.53,-71.03,6.826,17.54,15.87,-9.507,8.681,2.528,10.46,7.458,3.775,-1.55,0,0,0,0,0,0,0,0,0,0,0,0,0,0,0,0,
45,-7.319,32.18,10.07,-29.0,52.48,10.52,1.745,18.44,31.28,14.64,5.859,-0.2037,-3.033,4.372,-8.629,-8.283,0,0,0,0,0,0,0,0,0,0,0,0,0,0,0,0,
46,-84.82,-28.89,4.199,-78.43,71.05,134.1,11.53,30.8,25.74,24.03,8.932,9.033,5.408,14.61,7.667,7.617,0,0,0,0,0,0,0,0,0,0,0,0,0,0,0,0,
47,-79.4,42.86,16.03,-53.72,81.51,72.6,28.19,30.02,44.98,43.0,17.34,8.023,17.63,15.99,12.03,8.551,0,0,0,0,0,0,0,0,0,0,0,0,0,0,0,0,
48,80.16,192.5,33.01,85.13,17.3,-108.5,19.51,-7.117,37.34,5.068,9.233,-24.98,-4.513,-19.03,-13.18,-20.37,0,0,0,0,0,0,0,0,0,0,0,0,0,0,0,0,
49,226.9,241.0,53.28,136.5,-29.14,-100.6,21.88,-6.392,-2.927,-47.07,15.06,-19.56,0.6089,-16.57,-3.01,-12.24,0,0,0,0,0,0,0,0,0,0,0,0,0,0,0,0,
50,155.6,154.9,52.45,53.9,50.14,7.778,37.3,18.66,16.06,-14.25,31.52,5.236,31.65,14.71,14.18,6.627,0,0,0,0,0,0,0,0,0,0,0,0,0,0,0,0,
51,-57.6,72.42,19.81,7.419,136.5,7.096,29.09,7.358,61.75,21.38,34.42,-3.476,33.69,14.2,9.008,3.715,0,0,0,0,0,0,0,0,0,0,0,0,0,0,0,0,
52,-69.77,126.1,23.82,11.93,81.62,-14.8,28.18,1.977,62.3,12.81,39.27,-5.191,28.54,12.04,17.17,12.57,0,0,0,0,0,0,0,0,0,0,0,0,0,0,0,0,
53,66.55,148.0,48.27,-8.942,27.63,22.99,38.72,13.57,47.96,20.15,29.93,11.15,28.31,24.76,21.44,19.23,0,0,0,0,0,0,0,0,0,0,0,0,0,0,0,0,
54,-8.482,-18.61,38.94,-37.48,96.85,68.57,34.26,19.25,56.57,40.48,11.13,17.62,21.47,29.78,7.164,7.654,0,0,0,0,0,0,0,0,0,0,0,0,0,0,0,0,
55,-86.71,-109.7,23.66,-44.53,78.98,62.36,17.26,17.22,56.12,39.22,7.811,3.701,5.715,15.22,-8.706,-8.825,0,0,0,0,0,0,0,0,0,0,0,0,0,0,0,0,
56,108.3,40.53,19.42,17.16,-14.51,7.414,7.803,7.771,17.9,11.5,12.61,-7.642,-0.5867,3.515,-6.24,-8.397,0,0,0,0,0,0,0,0,0,0,0,0,0,0,0,0,
57,146.0,171.4,22.43,101.8,75.34,-8.731,22.9,10.16,15.36,-0.1739,23.0,2.493,19.99,16.39,8.855,5.198,0,0,0,0,0,0,0,0,0,0,0,0,0,0,0,0,
58,-115.8,127.9,25.76,45.91,146.4,7.754,27.17,10.14,58.75,18.55,17.0,-1.895,17.97,13.34,-5.923,-8.75,0,0,0,0,0,0,0,0,0,0,0,0,0,0,0,0,
59,-81.48,111.9,32.06,-29.86,-3.51,-17.17,12.01,2.747,41.1,15.23,-5.594,-16.11,-10.15,-7.923,-24.92,-25.98,0,0,0,0,0,0,0,0,0,0,0,0,0,0,0,0,
60,232.6,196.4,39.7,58.96,-67.29,-42.49,8.966,10.62,-9.983,-12.23,-11.67,-14.19,-9.012,-10.94,-14.64,-17.43,0,0,0,0,0,0,0,0,0,0,0,0,0,0,0,0,
61,192.4,149.8,18.09,98.97,43.1,-30.94,3.594,11.91,-6.529,-25.61,-3.044,-12.66,7.175,-4.479,-6.144,-10.3,0,0,0,0,0,0,0,0,0,0,0,0,0,0,0,0,
62,-71.62,-11.09,6.626,-8.747,79.3,-17.6,8.893,9.03,26.52,-5.416,17.83,-4.669,20.09,8.141,1.985,-2.243,0,0,0,0,0,0,0,0,0,0,0,0,0,0,0,0,
63,-68.03,-7.025,24.18,-45.56,27.69,-19.55,27.06,7.182,45.6,21.5,30.27,-5.971,20.9,6.574,2.173,-5.353,0,0,0,0,0,0,0,0,0,0,0,0,0,0,0,0,
64,43.16,102.2,13.47,-2.416,33.49,-4.103,19.37,-4.833,34.32,4.269,17.3,-21.01,1.809,-10.61,-14.18,-21.08,0,0,0,0,0,0,0,0,0,0,0,0,0,0,0,0,
65,-16.66,62.26,9.055,-0.0259,89.8,45.8,11.49,0.3476,17.75,-7.27,6.723,-10.66,-2.368,-0.4728,-13.53,-14.79,0,0,0,0,0,0,0,0,0,0,0,0,0,0,0,0,
66,-122.4,-36.83,26.56,-5.002,72.86,50.86,13.85,2.987,20.15,19.31,-4.676,-2.453,3.874,11.02,-6.203,-6.189,0,0,0,0,0,0,0,0,0,0,0,0,0,0,0,0,
67,-73.93,16.56,23.67,15.77,13.16,22.72,10.4,-5.85,22.15,22.15,-6.463,-3.815,3.741,9.53,-7.099,-5.339,0,0,0,0,0,0,0,0,0,0,0,0,0,0,0,0,
68,46.52,91.18,21.77,15.89,34.57,39.84,8.431,7.037,27.09,15.66,8.03,3.159,1.155,12.81,-14.81,-8.733,0,0,0,0,0,0,0,0,0,0,0,0,0,0,0,0,
69,12.63,46.66,-1.165,-14.19,62.21,-13.43,-8.645,7.866,21.55,8.897,-0.9407,-11.21,-12.82,-2.06,-25.35,-21.26,0,0,0,0,0,0,0,0,0,0,0,0,0,0,0,0,
70,-66.45,32.16,-38.46,-36.95,32.48,-93.77,-15.74,-1.408,5.263,-13.84,-4.993,-13.85,-7.722,-4.399,-10.0,-7.464,0,0,0,0,0,0,0,0,0,0,0,0,0,0,0,0,
71,-9.239,25.09,-10.46,-38.78,17.95,15.84,6.199,6.317,18.39,0.1258,7.731,7.249,9.658,15.65,2.074,10.69,0,0,0,0,0,0,0,0,0,0,0,0,0,0,0,0,
72,35.28,-18.19,43.61,12.0,9.217,93.24,16.24,2.393,19.56,18.95,2.573,1.357,-0.6275,9.26,-9.894,0.3224,0,0,0,0,0,0,0,0,0,0,0,0,0,0,0,0,
73,40.63,111.5,44.53,88.47,-4.031,-65.33,11.66,-2.085,-7.387,-9.791,0.3682,-11.88,-7.678,-4.335,-9.708,-4.529,0,0,0,0,0,0,0,0,0,0,0,0,0,0,0,0,
74,85.43,228.1,4.113,50.76,0.3041,-129.3,-6.05,0.1577,-7.332,-32.73,-8.383,-13.76,-5.955,-5.521,-12.0,-6.944,0,0,0,0,0,0,0,0,0,0,0,0,0,0,0,0,
75,43.77,44.64,-13.58,-58.11,10.23,-5.435,-13.37,-2.359,8.46,-18.83,-13.54,-7.489,-3.094,4.892,-11.94,-5.326,0,0,0,0,0,0,0,0,0,0,0,0,0,0,0,0,
76,-80.76,-140.4,4.751,-88.05,45.49,32.14,13.36,2.321,27.27,23.15,14.05,9.783,13.43,27.91,2.896,7.844,0,0,0,0,0,0,0,0,0,0,0,0,0,0,0,0,
77,-149.2,-102.1,-10.94,-64.64,69.46,11.1,8.214,-0.6109,41.69,52.29,12.24,10.96,13.39,28.87,0.2539,6.134,0,0,0,0,0,0,0,0,0,0,0,0,0,0,0,0,
78,-96.78,38.97,-26.47,9.757,21.46,9.185,-12.9,-1.088,27.63,22.57,-4.855,4.223,6.505,16.71,1.586,6.941,0,0,0,0,0,0,0,0,0,0,0,0,0,0,0,0,
79,52.35,171.8,22.77,103.5,-25.91,-64.22,13.17,12.03,13.66,-18.72,16.12,6.165,11.82,17.91,10.6,12.4,0,0,0,0,0,0,0,0,0,0,0,0,0,0,0,0,
80,109.9,153.9,47.66,69.25,3.503,-70.3,27.02,14.47,14.39,-14.71,18.92,8.965,10.61,24.01,6.108,9.744,0,0,0,0,0,0,0,0,0,0,0,0,0,0,0,0,
81,17.14,0.8773,20.23,-21.72,41.46,50.32,8.157,15.82,24.06,17.05,-1.135,15.97,16.56,33.02,12.0,16.2,0,0,0,0,0,0,0,0,0,0,0,0,0,0,0,0,
82,-37.66,-81.82,7.811,-22.22,13.04,32.96,2.262,12.06,34.06,26.31,1.79,11.42,18.26,27.54,12.18,11.62,0,0,0,0,0,0,0,0,0,0,0,0,0,0,0,0,
83,-16.59,0.2468,12.12,8.594,-9.217,-97.2,8.335,3.986,18.05,1.507,13.17,3.142,7.495,15.21,-0.3352,-1.042,0,0,0,0,0,0,0,0,0,0,0,0,0,0,0,0,
84,-16.6,144.6,16.94,-14.0,28.69,-79.06,12.42,12.72,9.218,-6.673,12.37,7.679,13.16,21.67,0.8738,2.056,0,0,0,0,0,0,0,0,0,0,0,0,0,0,0,0,
85,-33.56,118.8,13.72,-64.34,56.55,30.77,13.54,13.52,31.45,19.12,12.57,11.93,23.61,35.55,7.278,8.951,0,0,0,0,0,0,0,0,0,0,0,0,0,0,0,0,
86,-9.788,-20.46,13.81,-33.41,53.5,53.04,21.53,9.155,47.67,49.4,26.8,23.06,32.23,50.36,15.41,18.21,0,0,0,0,0,0,0,0,0,0,0,0,0,0,0,0,
87,43.37,30.43,22.21,75.87,24.28,-21.92,18.43,10.78,45.98,45.32,21.32,19.44,33.04,41.77,13.55,11.81,0,0,0,0,0,0,0,0,0,0,0,0,0,0,0,0,
88,48.72,153.2,16.1,91.99,-8.255,-71.2,2.81,7.859,30.87,-3.878,3.994,0.1505,17.84,17.44,5.442,-1.47,0,0,0,0,0,0,0,0,0,0,0,0,0,0,0,0,
89,4.317,73.99,14.84,-1.38,28.98,5.697,13.03,21.19,25.67,-12.29,16.96,10.98,15.27,28.97,11.82,9.052,0,0,0,0,0,0,0,0,0,0,0,0,0,0,0,0,
90,-46.18,-67.32,11.22,-51.2,63.26,73.18,11.71,27.29,35.62,34.26,10.4,18.6,14.84,40.69,6.736,7.748,0,0,0,0,0,0,0,0,0,0,0,0,0,0,0,0,
91,-57.2,-37.73,-5.793,-16.16,26.89,0.8981,-7.699,11.67,30.75,38.76,-8.001,8.866,12.7,30.41,1.863,-0.1649,0,0,0,0,0,0,0,0,0,0,0,0,0,0,0,0,
92,26.04,100.3,7.836,21.45,5.139,-55.9,11.55,11.43,27.11,20.65,17.8,11.72,24.32,30.71,9.529,6.214,0,0,0,0,0,0,0,0,0,0,0,0,0,0,0,0,
93,48.39,121.2,22.0,10.57,13.06,12.3,24.53,11.86,24.83,21.53,26.58,4.812,21.38,24.22,1.919,-0.1378,0,0,0,0,0,0,0,0,0,0,0,0,0,0,0,0,
94,-114.2,12.18,14.51,-6.156,58.36,85.48,14.1,12.35,22.18,19.35,14.32,6.515,25.42,25.61,13.1,8.925,0,0,0,0,0,0,0,0,0,0,0,0,0,0,0,0,
95,-163.5,-43.02,24.74,-6.046,119.4,64.26,24.86,25.11,50.48,32.39,30.65,26.21,46.66,45.27,33.66,28.9,0,0,0,0,0,0,0,0,0,0,0,0,0,0,0,0,
96,49.8,10.54,26.9,-19.8,72.18,-3.442,27.94,28.8,61.55,45.58,33.58,23.81,37.09,42.24,15.3,16.35,0,0,0,0,0,0,0,0,0,0,0,0,0,0,0,0,
97,164.2,76.45,9.466,-49.85,-13.44,-1.817,10.59,35.36,37.57,36.83,8.875,15.44,18.98,28.79,-3.236,1.186,0,0,0,0,0,0,0,0,0,0,0,0,0,0,0,0,
98,20.12,3.035,-1.867,-61.53,-1.668,85.38,-2.837,39.48,31.79,34.61,-6.455,14.44,16.47,24.81,-3.383,-0.5721,0,0,0,0,0,0,0,0,0,0,0,0,0,0,0,0,
99,-61.21,-100.5,4.352,21.39,39.71,93.45,4.716,26.52,28.61,31.1,9.646,10.85,14.36,24.08,-1.011,2.141,0,0,0,0,0,0,0,0,0,0,0,0,0,0,0,0,
100,63.55,90.03,32.59,137.6,29.8,-66.88,28.19,13.88,14.86,6.232,31.0,6.043,14.39,20.6,2.736,6.473,0,0,0,0,0,0,0,0,0,0,0,0,0,0,0,0,
101,136.2,311.4,37.76,107.8,-4.22,-160.3,27.25,10.16,6.152,-21.85,19.89,5.406,15.1,16.49,4.069,7.665,0,0,0,0,0,0,0,0,0,0,0,0,0,0,0,0,
102,42.42,159.0,20.93,13.89,17.93,-44.54,22.46,25.85,16.31,-7.51,21.1,23.46,26.81,34.05,16.07,19.67,0,0,0,0,0,0,0,0,0,0,0,0,0,0,0,0,
103,-50.61,-23.3,25.28,-20.27,63.22,25.43,31.22,30.12,46.31,36.63,34.16,26.42,30.43,41.12,16.95,17.14,0,0,0,0,0,0,0,0,0,0,0,0,0,0,0,0,
104,-77.9,-43.09,16.37,-73.18,32.61,5.822,12.88,11.48,35.71,36.71,10.87,6.31,8.061,19.67,-5.117,-5.836,0,0,0,0,0,0,0,0,0,0,0,0,0,0,0,0,
105,-96.7,-125.5,-7.185,-86.82,28.26,66.31,-1.978,20.62,5.754,20.67,2.345,8.881,3.503,17.7,-10.09,-6.754,0,0,0,0,0,0,0,0,0,0,0,0,0,0,0,0,
106,-98.19,-88.3,-9.865,-12.09,83.34,43.03,6.151,22.01,22.95,21.13,13.11,3.071,5.924,10.4,-10.17,-7.492,0,0,0,0,0,0,0,0,0,0,0,0,0,0,0,0,
107,-38.1,107.2,-0.9893,21.01,39.22,-62.16,4.042,-2.023,21.25,-8.966,-2.747,-17.54,-10.39,-15.51,-18.61,-18.98,0,0,0,0,0,0,0,0,0,0,0,0,0,0,0,0,
108,66.45,144.4,15.97,22.53,-45.8,-28.09,8.146,2.962,-14.99,-30.52,-7.86,-10.47,-10.2,-13.08,-12.18,-12.19,0,0,0,0,0,0,0,0,0,0,0,0,0,0,0,0,
109,128.3,103.2,29.27,44.06,-29.56,-16.75,26.68,14.74,-9.859,-12.42,19.76,3.42,12.06,5.998,9.213,8.012,0,0,0,0,0,0,0,0,0,0,0,0,0,0,0,0,
110,78.35,60.39,33.81,30.54,34.9,-58.09,39.28,26.34,25.53,4.957,45.74,16.31,32.1,24.98,28.58,25.44,0,0,0,0,0,0,0,0,0,0,0,0,0,0,0,0,
111,-43.42,-77.95,30.95,-15.28,55.37,28.32,27.78,37.57,32.01,19.21,27.96,19.18,18.92,27.17,14.56,13.2,0,0,0,0,0,0,0,0,0,0,0,0,0,0,0,0,
112,-75.1,-66.12,4.755,-58.24,18.72,52.26,1.823,17.34,-1.565,17.66,-9.262,2.171,-9.273,6.219,-3.673,-3.285,0,0,0,0,0,0,0,0,0,0,0,0,0,0,0,0,
113,8.579,84.08,-16.09,-72.77,11.48,-33.92,1.754,9.139,-11.61,7.192,0.2768,0.0758,1.526,2.583,11.45,10.74,0,0,0,0,0,0,0,0,0,0,0,0,0,0,0,0,
114,-44.99,34.46,-12.39,-37.68,80.87,-12.94,9.609,12.79,20.29,5.705,13.9,-3.516,9.661,-0.3438,4.845,3.103,0,0,0,0,0,0,0,0,0,0,0,0,0,0,0,0,
115,-204.6,-35.94,5.027,13.92,116.9,19.17,10.99,-0.889,24.86,-13.73,0.5338,-14.75,-3.719,-13.88,-11.97,-14.67,0,0,0,0,0,0,0,0,0,0,0,0,0,0,0,0,
116,-95.69,69.58,35.79,40.76,56.67,-45.91,28.45,8.105,10.99,-27.55,10.96,-6.493,5.487,-6.992,1.654,-3.243,0,0,0,0,0,0,0,0,0,0,0,0,0,0,0,0,
117,181.0,104.6,45.67,41.01,-15.0,-71.84,33.25,23.4,4.851,-17.81,23.35,-2.006,9.986,1.083,3.634,-1.028,0,0,0,0,0,0,0,0,0,0,0,0,0,0,0,0,
118,220.5,41.3,29.94,27.24,-25.56,-11.62,24.78,20.56,-6.308,-4.875,16.75,1.67,9.853,8.592,2.152,0.5629,0,0,0,0,0,0,0,0,0,0,0,0,0,0,0,0,
119,65.46,35.05,12.75,0.9009,-4.205,33.57,20.85,18.45,9.799,11.93,11.26,6.664,20.38,15.3,6.098,6.362,0,0,0,0,0,0,0,0,0,0,0,0,0,0,0,0,
120,-53.78,53.3,-4.585,-29.41,32.61,14.38,11.4,13.92,33.36,10.51,7.25,-0.6503,12.05,7.426,-5.368,-3.662,0,0,0,0,0,0,0,0,0,0,0,0,0,0,0,0,
121,-140.4,-9.832,0.2266,-56.49,115.9,20.01,15.6,12.44,33.25,18.0,13.16,4.316,7.642,13.66,-6.773,-2.729,0,0,0,0,0,0,0,0,0,0,0,0,0,0,0,0,
122,-208.9,-143.9,4.521,-71.1,150.6,69.83,12.93,4.876,38.34,50.34,7.829,4.176,7.967,15.2,-10.83,-4.301,0,0,0,0,0,0,0,0,0,0,0,0,0,0,0,0,
123,-107.2,-79.26,-5.808,-13.53,51.85,29.6,-5.582,-1.895,26.35,24.84,-12.72,-6.19,-9.677,-3.187,-25.66,-16.48,0,0,0,0,0,0,0,0,0,0,0,0,0,0,0,0,
124,142.2,182.6,13.16,77.83,-36.76,-75.48,2.049,13.94,-11.09,-26.78,-16.75,0.3007,-16.18,-3.714,-21.93,-12.92,0,0,0,0,0,0,0,0,0,0,0,0,0,0,0,0,
125,214.9,207.4,20.5,74.85,-10.83,-94.39,8.021,17.96,-28.86,-22.74,-13.48,-1.39,-11.85,-0.8611,-11.46,-6.814,0,0,0,0,0,0,0,0,0,0,0,0,0,0,0,0,
126,74.58,89.56,3.865,31.81,29.48,-56.37,4.186,17.2,-22.33,-9.794,0.6869,-4.273,-7.536,-2.735,-1.003,0.1532,0,0,0,0,0,0,0,0,0,0,0,0,0,0,0,0,
127,13.1,112.3,15.88,21.09,8.174,-23.19,14.92,30.07,-13.64,-8.846,15.53,7.762,-1.637,6.13,3.408,5.669,0,0,0,0,0,0,0,0,0,0,0,0,0,0,0,0,
128,22.04,17.86,16.38,-8.023,-4.444,42.81,12.23,25.37,-10.11,9.541,6.861,9.582,-0.1068,11.42,-2.416,1.776,0,0,0,0,0,0,0,0,0,0,0,0,0,0,0,0,
129,-39.55,-82.32,-2.317,-20.23,38.26,54.18,4.476,15.75,6.986,23.55,3.703,4.354,4.831,8.35,-2.336,0.883,0,0,0,0,0,0,0,0,0,0,0,0,0,0,0,0,
130,-72.92,117.3,-3.39,-6.56,44.93,-45.0,1.679,7.245,19.06,5.377,-2.801,-3.494,-2.876,-2.176,-11.73,-7.2,0,0,0,0,0,0,0,0,0,0,0,0,0,0,0,0,
131,-59.99,156.2,-12.47,-23.55,22.91,-30.08,-5.143,1.718,-2.956,-10.61,-13.93,-3.672,-14.46,-0.8218,-18.66,-10.3,0,0,0,0,0,0,0,0,0,0,0,0,0,0,0,0,
132,-115.4,-137.0,-20.4,-30.71,69.47,99.76,5.549,18.57,-2.798,15.01,5.573,11.5,3.361,18.13,2.096,7.696,0,0,0,0,0,0,0,0,0,0,0,0,0,0,0,0,
133,-127.2,-132.4,3.749,-3.704,93.52,31.99,22.58,25.87,24.07,28.61,25.62,20.39,24.09,23.44,28.03,27.35,0,0,0,0,0,0,0,0,0,0,0,0,0,0,0,0,
134,40.84,189.3,43.93,36.93,37.06,-106.5,39.81,26.9,25.12,6.484,40.52,30.37,33.96,28.13,47.1,44.55,0,0,0,0,0,0,0,0,0,0,0,0,0,0,0,0,
135,167.4,209.1,61.64,55.06,10.86,-9.533,56.64,38.66,23.42,10.47,55.46,34.35,35.91,35.59,40.84,38.83,0,0,0,0,0,0,0,0,0,0,0,0,0,0,0,0,
136,84.85,-6.023,36.07,7.886,24.39,93.21,33.73,30.74,20.18,29.23,27.55,15.43,13.19,18.92,5.101,5.594,0,0,0,0,0,0,0,0,0,0,0,0,0,0,0,0,
137,-14.66,1.602,-5.663,-26.71,23.29,-33.61,-16.88,12.72,-3.038,19.16,-21.63,-6.679,-22.06,-9.814,-24.44,-21.39,0,0,0,0,0,0,0,0,0,0,0,0,0,0,0,0,
138,-43.68,81.03,-33.51,1.942,3.903,-141.6,-40.79,0.3482,-26.2,-13.92,-41.34,-23.01,-45.36,-29.11,-33.68,-31.09,0,0,0,0,0,0,0,0,0,0,0,0,0,0,0,0,
139,-48.96,13.99,-25.16,19.04,-12.54,-31.84,-17.84,7.382,-36.75,-31.16,-22.88,-11.11,-29.81,-12.82,-16.91,-12.45,0,0,0,0,0,0,0,0,0,0,0,0,0,0,0,0,
140,-12.63,4.66,0.3349,20.83,12.53,90.02,7.258,28.09,-15.56,-1.062,-1.319,10.73,-1.109,12.38,-4.8,2.645,0,0,0,0,0,0,0,0,0,0,0,0,0,0,0,0,
141,-27.89,40.33,-10.11,17.7,56.26,46.85,-5.069,12.27,13.95,15.53,-10.77,-4.005,-8.849,-0.9255,-16.35,-11.73,0,0,0,0,0,0,0,0,0,0,0,0,0,0,0,0,
142,-70.54,-14.59,-6.085,-13.95,65.09,-12.57,2.213,2.313,18.11,0.0688,-4.952,-5.998,-6.65,-0.3602,-3.368,-2.389,0,0,0,0,0,0,0,0,0,0,0,0,0,0,0,0,
143,17.26,35.15,32.76,-3.534,28.95,-18.94,28.7,28.07,15.92,6.595,20.5,8.236,11.03,14.94,7.129,8.878,0,0,0,0,0,0,0,0,0,0,0,0,0,0,0,0,
144,99.41,190.1,21.18,57.43,-9.86,-46.08,11.2,21.16,-1.496,-3.582,12.14,-6.287,-2.836,-2.037,-12.1,-9.431,0,0,0,0,0,0,0,0,0,0,0,0,0,0,0,0,
145,28.74,127.0,-11.84,26.67,12.35,-23.79,-11.38,1.655,-14.87,-15.68,-7.597,-9.735,-13.26,-5.628,-15.28,-12.52,0,0,0,0,0,0,0,0,0,0,0,0,0,0,0,0,
146,-59.33,-87.64,-11.69,-66.8,40.63,12.03,-14.02,4.522,-0.1764,17.08,-19.51,-3.139,-18.65,1.376,-21.14,-15.72,0,0,0,0,0,0,0,0,0,0,0,0,0,0,0,0,
147,-74.7,-96.33,-6.292,-43.78,24.51,-1.354,-8.05,8.657,-3.457,22.5,-16.99,-2.772,-22.27,-2.925,-23.09,-16.05,0,0,0,0,0,0,0,0,0,0,0,0,0,0,0,0,
148,-88.89,3.069,-10.4,-8.493,48.98,73.76,8.279,18.71,1.97,16.41,3.534,11.99,6.017,11.81,2.938,6.346,0,0,0,0,0,0,0,0,0,0,0,0,0,0,0,0,
149,-125.4,-70.93,-25.24,-80.04,75.82,156.2,-1.443,19.21,37.48,46.56,-1.103,13.44,14.91,17.75,4.774,5.342,0,0,0,0,0,0,0,0,0,0,0,0,0,0,0,0,
150,-77.72,-99.87,-4.04,-25.63,24.58,69.08,-5.72,11.3,31.97,42.12,-8.126,3.612,-5.392,5.618,-7.591,-5.701,0,0,0,0,0,0,0,0,0,0,0,0,0,0,0,0,
151,44.09,131.1,37.0,133.2,1.522,-75.0,17.1,11.78,-3.945,-0.8678,6.844,1.404,-8.81,2.024,-5.783,-3.53,0,0,0,0,0,0,0,0,0,0,0,0,0,0,0,0,
152,66.13,256.8,5.404,84.35,39.43,-113.1,3.01,7.014,-13.38,-17.98,2.89,-1.706,-6.845,2.702,-6.895,-6.09,0,0,0,0,0,0,0,0,0,0,0,0,0,0,0,0,
153,-5.577,11.56,-22.76,-39.9,31.29,9.64,-12.45,9.962,1.25,4.744,-2.417,6.167,-3.24,10.88,-1.944,-1.984,0,0,0,0,0,0,0,0,0,0,0,0,0,0,0,0,
154,-44.89,-182.2,10.64,6.194,-1.545,105.8,5.741,14.71,11.62,22.27,3.502,5.055,-2.321,7.357,-3.117,-3.034,0,0,0,0,0,0,0,0,0,0,0,0,0,0,0,0,
155,-17.11,46.15,11.3,69.12,27.68,-27.59,6.367,8.062,8.072,-6.018,1.595,-8.23,-5.955,-8.265,-9.427,-9.984,0,0,0,0,0,0,0,0,0,0,0,0,0,0,0,0,
156,45.36,244.7,-8.128,16.03,54.71,-93.5,-0.831,7.715,15.63,-19.52,3.405,0.3931,5.316,0.1087,2.983,0.215,0,0,0,0,0,0,0,0,0,0,0,0,0,0,0,0,
157,35.41,31.61,2.284,-42.43,19.73,76.03,7.773,9.398,23.1,20.13,9.844,16.12,15.12,19.83,17.2,15.64,0,0,0,0,0,0,0,0,0,0,0,0,0,0,0,0,
158,-22.97,-95.62,17.65,-10.51,19.91,94.94,16.99,19.5,16.86,47.11,19.17,21.91,17.1,28.41,23.63,25.01,0,0,0,0,0,0,0,0,0,0,0,0,0,0,0,0,
159,3.858,96.22,20.37,58.55,48.83,-75.76,7.646,20.71,17.81,25.37,14.68,10.58,11.89,14.86,14.57,13.32,0,0,0,0,0,0,0,0,0,0,0,0,0,0,0,0,
160,65.78,175.4,14.02,86.68,15.12,-96.71,-2.768,-0.7248,6.27,-14.53,3.058,-3.09,2.901,-2.21,4.298,1.298,0,0,0,0,0,0,0,0,0,0,0,0,0,0,0,0,
161,96.48,107.5,28.16,86.06,6.761,2.08,26.14,8.187,2.911,-14.25,24.98,12.71,20.25,15.02,21.57,21.01,0,0,0,0,0,0,0,0,0,0,0,0,0,0,0,0,
162,52.98,58.15,32.1,40.8,61.61,51.06,41.1,19.3,38.05,23.42,38.34,22.46,35.69,30.35,28.26,26.39,0,0,0,0,0,0,0,0,0,0,0,0,0,0,0,0,
163,-90.46,-58.07,-3.799,-51.31,73.0,85.93,10.59,0.0652,53.36,44.28,20.29,15.86,26.37,26.3,13.72,11.32,0,0,0,0,0,0,0,0,0,0,0,0,0,0,0,0,
164,-104.5,-112.5,-4.235,-51.34,39.55,79.27,0.9543,5.073,34.94,50.98,8.608,17.21,19.6,26.69,4.797,7.292,0,0,0,0,0,0,0,0,0,0,0,0,0,0,0,0,
165,58.79,47.99,15.94,54.56,13.62,-17.52,2.298,10.28,9.971,28.05,-5.995,7.154,10.03,14.15,-0.0378,3.557,0,0,0,0,0,0,0,0,0,0,0,0,0,0,0,0,
166,58.7,185.2,-4.861,36.61,25.85,-36.74,-5.661,1.415,0.2879,-9.238,1.042,8.38,14.58,12.83,15.64,15.46,0,0,0,0,0,0,0,0,0,0,0,0,0,0,0,0,
167,-124.3,40.66,-19.06,-118.6,70.21,66.93,2.435,13.05,31.57,18.29,28.92,22.54,33.89,28.12,29.98,28.06,0,0,0,0,0,0,0,0,0,0,0,0,0,0,0,0,
168,-145.4,-142.5,-6.334,-80.01,60.45,57.41,7.358,8.176,43.13,40.06,21.42,9.073,24.93,14.75,18.96,16.72,0,0,0,0,0,0,0,0,0,0,0,0,0,0,0,0,
169,55.5,19.48,10.85,136.3,-7.254,-59.57,4.554,-8.118,7.652,-8.786,9.669,0.3119,9.346,3.098,19.2,17.0,0,0,0,0,0,0,0,0,0,0,0,0,0,0,0,0,
170,174.0,200.8,15.1,124.4,-32.54,-47.19,-1.691,-0.1527,-8.345,-22.58,7.145,8.638,8.033,11.23,22.64,22.35,0,0,0,0,0,0,0,0,0,0,0,0,0,0,0,0,
171,47.26,5.814,-5.893,-46.47,8.83,34.54,-10.68,2.075,-4.12,9.881,-9.403,4.831,7.48,6.701,14.72,14.9,0,0,0,0,0,0,0,0,0,0,0,0,0,0,0,0,
172,-112.7,-137.9,-19.48,-74.47,44.77,15.33,-6.158,-14.05,-0.8524,6.51,-8.225,-4.991,5.574,-5.64,9.122,6.766,0,0,0,0,0,0,0,0,0,0,0,0,0,0,0,0,
173,-130.6,2.45,-11.01,-67.0,25.96,-23.25,-3.385,-19.87,0.3909,-13.32,9.405,-7.01,-1.736,-8.732,5.612,1.484,0,0,0,0,0,0,0,0,0,0,0,0,0,0,0,0,
174,-64.18,75.67,5.737,-44.93,0.7511,-21.6,1.356,-3.145,-7.971,-7.373,21.22,3.371,3.663,-0.1831,16.44,10.76,0,0,0,0,0,0,0,0,0,0,0,0,0,0,0,0,
175,46.28,80.33,15.88,74.5,-0.4016,-59.43,11.62,-1.298,-9.95,-9.338,20.64,2.982,14.3,-1.266,23.46,14.98,0,0,0,0,0,0,0,0,0,0,0,0,0,0,0,0,
176,133.4,124.2,8.576,96.42,-0.271,-77.99,10.19,-15.75,-4.307,-31.08,15.93,-3.89,12.83,-6.128,18.48,9.342,0,0,0,0,0,0,0,0,0,0,0,0,0,0,0,0,
177,80.04,46.63,11.57,8.535,11.8,-8.982,16.38,3.185,8.998,-15.16,24.31,7.892,18.54,6.932,21.06,14.14,0,0,0,0,0,0,0,0,0,0,0,0,0,0,0,0,
178,-13.73,-68.39,19.08,-12.58,4.389,24.52,11.7,15.19,14.72,9.51,11.82,0.6223,7.504,-1.045,4.479,0.3284,0,0,0,0,0,0,0,0,0,0,0,0,0,0,0,0,
179,25.15,-13.96,15.6,11.57,-21.16,-15.94,-6.528,-6.425,-12.31,-12.26,-6.878,-14.45,-11.38,-17.58,-10.82,-13.62,0,0,0,0,0,0,0,0,0,0,0,0,0,0,0,0,
180,57.24,83.83,12.15,19.71,16.77,-41.87,2.335,-10.2,-14.85,-14.66,8.521,-4.942,2.466,-5.811,-1.022,-3.879,0,0,0,0,0,0,0,0,0,0,0,0,0,0,0,0,
181,-92.71,35.35,-25.55,-38.62,64.88,-29.23,-2.711,-12.29,21.51,7.76,3.861,-10.87,6.999,-7.731,-8.337,-9.332,0,0,0,0,0,0,0,0,0,0,0,0,0,0,0,0,
182,-180.4,-76.39,-46.9,-130.3,43.79,33.67,-17.76,-14.56,31.91,11.12,-8.126,-13.36,0.7742,-10.56,-11.3,-9.374,0,0,0,0,0,0,0,0,0,0,0,0,0,0,0,0,
183,-2.357,-94.29,13.36,-64.01,1.526,80.73,6.702,5.592,17.53,23.61,12.85,2.098,6.437,5.534,-2.5,1.279,0,0,0,0,0,0,0,0,0,0,0,0,0,0,0,0,
184,155.7,-2.929,43.55,109.2,-20.41,25.01,17.07,6.763,-3.694,14.34,8.198,-9.357,-7.472,-2.481,-19.35,-13.36,0,0,0,0,0,0,0,0,0,0,0,0,0,0,0,0,
185,85.8,106.2,4.305,117.5,-6.424,-35.2,-4.628,-6.058,-17.88,-24.82,-16.53,-24.05,-20.27,-17.4,-30.71,-26.09,0,0,0,0,0,0,0,0,0,0,0,0,0,0,0,0,
186,-0.8684,122.6,-9.276,5.652,7.543,-44.0,-13.41,-2.629,-14.62,-29.29,-15.31,-18.52,-13.08,-13.93,-22.05,-22.68,0,0,0,0,0,0,0,0,0,0,0,0,0,0,0,0,
187,47.23,79.92,3.974,10.7,-12.19,-71.12,-7.482,1.474,-15.52,-14.32,-4.555,-8.971,-2.591,-2.45,-9.781,-11.78,0,0,0,0,0,0,0,0,0,0,0,0,0,0,0,0,
188,51.5,48.34,-6.713,41.33,14.19,-69.92,-4.989,-2.67,2.599,2.077,-2.744,-0.9189,9.843,11.08,-0.8018,-0.8575,0,0,0,0,0,0,0,0,0,0,0,0,0,0,0,0,
189,-92.53,-61.07,-33.99,-76.57,60.13,33.59,-15.1,-5.696,32.53,30.86,-9.521,0.5743,3.896,12.18,-8.815,-7.225,0,0,0,0,0,0,0,0,0,0,0,0,0,0,0,0,
190,-121.3,-163.4,-21.69,-130.6,6.691,128.7,-13.04,4.441,17.19,41.99,-8.902,4.029,-12.14,5.459,-15.88,-12.73,0,0,0,0,0,0,0,0,0,0,0,0,0,0,0,0,
191,31.96,-44.72,14.78,24.08,-52.49,32.33,-1.541,0.7583,-14.93,11.04,-7.799,-1.002,-12.06,-7.423,-14.68,-12.02,0,0,0,0,0,0,0,0,0,0,0,0,0,0,0,0,
192,46.61,128.4,1.582,115.0,-5.356,-122.9,-9.977,-19.35,-17.19,-35.48,-7.888,-8.352,-1.364,-14.73,-5.478,-5.338,0,0,0,0,0,0,0,0,0,0,0,0,0,0,0,0,
193,-44.09,99.71,-13.26,26.84,30.17,-28.94,-7.122,-6.691,2.576,-24.33,13.35,9.122,12.07,4.834,18.57,16.06,0,0,0,0,0,0,0,0,0,0,0,0,0,0,0,0,
194,-10.13,-25.71,8.492,-32.94,-9.917,131.3,3.903,2.204,7.745,21.68,15.95,9.414,5.144,6.093,17.3,13.93,0,0,0,0,0,0,0,0,0,0,0,0,0,0,0,0,
195,40.94,-16.79,7.523,8.88,-26.4,24.56,-5.87,-18.3,-17.38,3.511,-6.295,-12.77,-13.6,-17.96,-6.283,-6.779,0,0,0,0,0,0,0,0,0,0,0,0,0,0,0,0,
196,72.13,92.62,-2.933,43.15,-29.9,-126.1,-13.81,-16.26,-28.92,-35.66,-9.955,-13.64,-15.11,-20.28,-11.12,-8.31,0,0,0,0,0,0,0,0,0,0,0,0,0,0,0,0,
197,90.25,41.5,-12.11,14.1,-41.45,-75.95,-24.05,-8.055,-22.01,-30.56,-16.47,-6.953,-12.56,-10.58,-3.974,-0.6059,0,0,0,0,0,0,0,0,0,0,0,0,0,0,0,0,
198,-75.38,-108.8,-42.93,-41.71,26.07,-8.589,-29.09,-9.007,-9.799,-12.09,-13.33,2.434,-1.02,2.748,9.89,11.52,0,0,0,0,0,0,0,0,0,0,0,0,0,0,0,0,
199,-252.8,-53.01,-47.3,-75.48,69.44,-31.36,-10.67,-4.775,16.08,1.695,11.67,6.448,8.713,7.509,11.18,11.37,0,0,0,0,0,0,0,0,0,0,0,0,0,0,0,0,
200,-122.3,60.38,-8.654,-54.55,-17.85,-15.34,-2.264,-12.09,5.958,-2.908,8.23,-6.423,-6.953,-8.001,-8.357,-4.955,0,0,0,0,0,0,0,0,0,0,0,0,0,0,0,0,
201,109.1,-11.47,13.26,8.043,-64.48,44.27,-7.85,-15.61,-24.86,-13.71,-7.851,-9.632,-15.61,-11.08,-18.15,-11.6,0,0,0,0,0,0,0,0,0,0,0,0,0,0,0,0,
202,120.0,-67.77,-3.639,53.01,-26.13,35.55,-10.15,-9.139,-14.7,-9.777,-8.155,-10.75,-10.33,-6.694,-18.19,-15.87,0,0,0,0,0,0,0,0,0,0,0,0,0,0,0,0,
203,32.87,10.87,-8.647,55.84,-16.95,-5.059,-8.143,-6.737,-4.31,-11.69,-4.346,-11.74,-1.838,-3.701,-7.846,-10.92,0,0,0,0,0,0,0,0,0,0,0,0,0,0,0,0,
204,17.2,46.11,6.555,3.618,-12.87,-2.998,-5.299,-5.527,-7.165,-4.953,-0.7984,-8.056,1.842,2.385,-3.929,-6.403,0,0,0,0,0,0,0,0,0,0,0,0,0,0,0,0,
205,-12.11,26.8,-3.62,-56.85,7.458,-9.634,-9.192,-9.077,-1.826,9.851,-6.196,-17.63,-14.95,-6.835,-23.54,-22.04,0,0,0,0,0,0,0,0,0,0,0,0,0,0,0,0,
206,-32.02,109.9,-5.038,-10.91,17.04,-54.46,-2.243,0.8787,-0.1948,2.535,-7.621,-13.49,-14.04,-9.184,-20.78,-16.99,0,0,0,0,0,0,0,0,0,0,0,0,0,0,0,0,
207,52.29,169.1,8.209,51.06,3.63,-82.23,-0.8884,11.25,1.049,-11.56,-7.362,-3.245,-1.267,-3.725,-7.748,-4.843,0,0,0,0,0,0,0,0,0,0,0,0,0,0,0,0,
208,88.69,-5.142,-13.33,6.978,-14.32,-18.93,-16.8,-0.5822,-6.537,-11.87,-10.91,-4.836,-5.373,-2.318,-4.718,-3.9,0,0,0,0,0,0,0,0,0,0,0,0,0,0,0,0,
209,4.616,-123.3,-12.24,-20.89,18.69,84.7,0.1218,4.674,2.047,19.99,7.236,15.62,16.68,21.46,23.08,21.23,0,0,0,0,0,0,0,0,0,0,0,0,0,0,0,0,
210,-31.28,30.56,14.0,-3.288,38.67,68.32,16.86,13.67,36.81,47.57,16.12,24.15,32.47,28.52,32.28,28.98,0,0,0,0,0,0,0,0,0,0,0,0,0,0,0,0,
211,-9.555,69.1,-1.442,-7.76,9.772,17.06,-1.008,2.474,30.98,18.67,6.594,5.962,7.463,5.069,7.438,6.158,0,0,0,0,0,0,0,0,0,0,0,0,0,0,0,0,
212,-44.39,-75.51,-13.9,8.553,24.08,67.57,-3.037,-1.783,3.369,-5.304,11.46,3.804,-1.989,-0.1295,-0.094,-0.5043,0,0,0,0,0,0,0,0,0,0,0,0,0,0,0,0,
213,-80.44,-46.02,-10.82,25.47,24.03,57.5,-5.386,-6.427,-2.314,-3.127,4.812,0.403,-0.7364,-2.171,1.795,-1.641,0,0,0,0,0,0,0,0,0,0,0,0,0,0,0,0,
214,-34.44,61.78,-21.61,21.77,-25.06,-45.18,-18.8,-4.637,-7.586,-14.29,-2.759,-4.281,-2.291,-5.729,7.595,1.295,0,0,0,0,0,0,0,0,0,0,0,0,0,0,0,0,
215,14.83,63.05,-19.42,6.743,-14.78,-85.47,-10.84,-2.204,-1.376,-11.08,8.304,-1.702,4.883,-2.294,11.8,5.793,0,0,0,0,0,0,0,0,0,0,0,0,0,0,0,0,
216,4.047,101.0,-0.3261,-40.88,25.61,-73.43,5.973,-18.22,7.323,-2.393,14.09,-5.724,4.272,-5.277,3.402,0.16,0,0,0,0,0,0,0,0,0,0,0,0,0,0,0,0,
217,25.8,143.0,25.29,-33.95,25.27,-24.14,23.36,-11.17,6.539,-3.611,23.02,-1.438,6.97,-0.1343,0.1419,-1.473,0,0,0,0,0,0,0,0,0,0,0,0,0,0,0,0,
218,110.1,51.51,28.96,23.32,-7.519,54.22,17.82,0.4634,11.6,6.037,12.62,-4.42,6.763,-1.063,-12.21,-13.03,0,0,0,0,0,0,0,0,0,0,0,0,0,0,0,0,
219,114.5,-80.0,0.3293,-1.026,-24.93,80.99,-9.634,-9.591,6.143,9.457,-16.37,-14.66,-4.134,-9.752,-22.63,-22.05,0,0,0,0,0,0,0,0,0,0,0,0,0,0,0,0,
220,-25.5,-152.6,-9.812,-50.32,25.29,67.42,-6.813,-3.665,8.876,11.6,-6.446,-8.471,-1.904,-2.009,-9.038,-10.45,0,0,0,0,0,0,0,0,0,0,0,0,0,0,0,0,
221,-125.8,-126.8,-5.541,-30.73,49.61,42.46,6.917,-4.6,20.02,13.11,14.92,-8.442,0.0314,-0.4587,-3.745,-7.253,0,0,0,0,0,0,0,0,0,0,0,0,0,0,0,0,
222,-32.8,31.63,-5.298,21.28,2.823,-9.36,5.274,-10.06,6.637,1.406,12.66,-8.327,1.835,-0.1218,-3.193,-5.084,0,0,0,0,0,0,0,0,0,0,0,0,0,0,0,0,
223,60.26,167.6,3.197,52.09,13.84,-56.29,5.434,8.758,10.07,0.8818,8.324,-1.233,12.04,9.356,3.655,0.8908,0,0,0,0,0,0,0,0,0,0,0,0,0,0,0,0,
224,13.08,132.7,7.081,35.1,53.62,-47.09,6.459,11.68,34.03,4.626,9.365,-0.9859,15.5,10.66,4.65,1.522,0,0,0,0,0,0,0,0,0,0,0,0,0,0,0,0,
225,29.3,65.5,13.39,16.41,14.77,-7.597,8.059,0.5652,30.17,7.626,8.584,4.483,15.1,11.31,2.479,4.54,0,0,0,0,0,0,0,0,0,0,0,0,0,0,0,0,
226,116.0,71.41,8.406,25.3,-33.35,-26.46,-3.225,-1.812,4.005,8.036,-7.083,1.381,0.5192,2.756,-7.859,-3.114,0,0,0,0,0,0,0,0,0,0,0,0,0,0,0,0,
227,99.11,44.59,-8.757,23.3,-17.76,-38.47,-9.712,-2.379,-13.58,-8.1,-9.464,0.1493,-7.636,-1.333,-3.121,-0.2757,0,0,0,0,0,0,0,0,0,0,0,0,0,0,0,0,
228,32.17,-74.87,6.937,9.93,21.56,60.63,10.14,0.4738,7.928,6.476,7.676,15.58,16.25,16.2,16.58,16.97,0,0,0,0,0,0,0,0,0,0,0,0,0,0,0,0,
229,-57.42,-192.1,11.75,-13.6,38.27,109.5,6.293,-3.968,38.6,38.67,-2.793,8.744,23.74,14.86,14.53,10.45,0,0,0,0,0,0,0,0,0,0,0,0,0,0,0,0,
230,-122.6,-125.8,-10.08,-37.07,29.41,12.56,-7.481,-6.687,30.8,23.38,-6.002,-2.561,10.6,2.569,12.87,6.121,0,0,0,0,0,0,0,0,0,0,0,0,0,0,0,0,
231,-27.9,93.15,-5.217,-36.16,0.6259,-44.44,2.522,-6.42,12.96,-1.476,13.68,5.422,5.482,4.422,13.83,11.44,0,0,0,0,0,0,0,0,0,0,0,0,0,0,0,0,
232,54.3,148.3,-8.262,-38.32,-13.92,-4.287,-4.368,-12.81,4.537,2.555,11.02,9.978,2.162,6.927,8.131,9.341,0,0,0,0,0,0,0,0,0,0,0,0,0,0,0,0,
233,-0.0825,32.68,-22.22,-27.08,5.081,-11.44,-13.66,-4.25,5.182,13.0,8.008,7.804,4.272,4.289,15.19,12.78,0,0,0,0,0,0,0,0,0,0,0,0,0,0,0,0,
234,24.66,50.6,-9.915,23.54,-14.29,-80.89,-9.109,-4.981,2.155,-7.504,0.1604,-11.19,-6.787,-18.26,3.6,-0.7257,0,0,0,0,0,0,0,0,0,0,0,0,0,0,0,0,
235,109.9,116.4,-1.447,39.9,-49.58,-70.72,-11.39,-16.5,-24.08,-46.66,-16.11,-18.75,-18.02,-26.83,-11.82,-12.37,0,0,0,0,0,0,0,0,0,0,0,0,0,0,0,0,
236,53.32,-13.92,-2.56,-11.39,-10.95,21.33,-5.158,-2.293,-19.65,-24.4,-0.6173,7.545,3.714,4.476,8.671,8.659,0,0,0,0,0,0,0,0,0,0,0,0,0,0,0,0,
237,-57.42,-154.8,-2.479,-48.19,21.95,56.04,-0.2313,-0.9686,14.77,22.97,11.99,13.56,15.31,13.7,22.18,18.61,0,0,0,0,0,0,0,0,0,0,0,0,0,0,0,0,
238,-88.91,-119.4,-8.433,-22.39,12.57,31.12,-5.738,-12.4,11.66,12.0,6.142,1.032,8.102,1.312,18.04,12.43,0,0,0,0,0,0,0,0,0,0,0,0,0,0,0,0,
239,-88.06,-75.45,-18.03,-3.473,16.98,-1.313,-8.651,-9.539,-1.711,-5.359,5.703,-1.857,7.768,1.363,13.5,8.32,0,0,0,0,0,0,0,0,0,0,0,0,0,0,0,0,
240,-32.28,-61.42,-20.61,-26.88,-7.987,-29.59,-8.179,-17.41,0.9052,-0.1008,0.8246,-5.648,4.32,-0.1504,8.762,6.57,0,0,0,0,0,0,0,0,0,0,0,0,0,0,0,0,
241,82.81,40.68,-0.2913,-27.18,-26.23,0.1568,4.656,-16.52,4.774,3.892,4.341,-5.153,4.865,1.518,10.65,10.77,0,0,0,0,0,0,0,0,0,0,0,0,0,0,0,0,
242,83.06,127.7,13.07,5.073,8.331,23.21,9.142,-3.773,10.17,3.534,10.19,-10.02,3.115,-1.664,2.487,2.584,0,0,0,0,0,0,0,0,0,0,0,0,0,0,0,0,
243,9.851,124.3,5.913,31.05,-3.404,-41.79,1.47,2.923,4.034,-12.38,6.511,-11.83,-1.791,-7.569,-2.828,-0.8069,0,0,0,0,0,0,0,0,0,0,0,0,0,0,0,0,
244,19.81,76.86,7.076,29.7,-30.73,-63.51,3.543,19.42,-1.026,-15.72,3.857,0.1691,0.1541,-0.7147,2.002,7.64,0,0,0,0,0,0,0,0,0,0,0,0,0,0,0,0,
245,-19.38,-24.12,-3.394,-5.858,19.22,15.08,-5.264,20.36,2.535,3.184,-9.123,0.6681,-5.428,1.707,-9.029,-0.6553,0,0,0,0,0,0,0,0,0,0,0,0,0,0,0,0,
246,-70.56,-73.49,-9.529,-28.15,50.1,56.41,-8.141,8.66,5.941,16.25,-10.05,6.699,1.732,11.29,-7.661,1.315,0,0,0,0,0,0,0,0,0,0,0,0,0,0,0,0,
247,26.36,-67.55,3.784,-34.03,-2.289,30.85,1.761,10.13,15.75,26.94,-1.121,13.31,8.119,17.29,1.48,8.301,0,0,0,0,0,0,0,0,0,0,0,0,0,0,0,0,
248,42.5,-137.5,-12.22,-37.12,-44.0,32.15,-12.24,-1.321,2.219,17.28,-16.51,-3.577,-16.71,-5.17,-11.97,-6.081,0,0,0,0,0,0,0,0,0,0,0,0,0,0,0,0,
249,-63.26,-100.8,-27.92,-5.62,-34.83,21.06,-24.46,-16.56,-26.64,-10.75,-26.72,-12.79,-26.82,-19.57,-21.75,-15.45,0,0,0,0,0,0,0,0,0,0,0,0,0,0,0,0,
250,-48.34,85.6,-30.24,-22.92,-10.55,-63.14,-31.08,-17.57,-30.66,-23.44,-31.7,-14.46,-24.39,-21.47,-27.27,-21.78,0,0,0,0,0,0,0,0,0,0,0,0,0,0,0,0,
251,-29.43,100.2,-46.41,-79.48,23.67,-61.26,-37.1,-11.41,-23.78,-21.66,-33.89,-8.768,-27.6,-15.63,-23.29,-17.34,0,0,0,0,0,0,0,0,0,0,0,0,0,0,0,0,
252,-111.0,-58.08,-28.2,-23.86,23.43,54.06,-14.52,-5.454,-4.079,-2.737,-10.02,4.728,-13.96,-0.2473,-7.271,-2.681,0,0,0,0,0,0,0,0,0,0,0,0,0,0,0,0,
253,-98.87,-158.3,-2.031,34.82,-29.97,60.07,-5.802,-17.17,7.006,6.592,-4.561,-10.73,-11.18,-11.75,-12.04,-13.63,0,0,0,0,0,0,0,0,0,0,0,0,0,0,0,0,
254,30.05,-88.17,-10.63,-2.676,-38.75,-20.4,-13.32,-17.6,-15.9,-13.18,-11.62,-19.97,-13.46,-23.5,-11.47,-16.47,0,0,0,0,0,0,0,0,0,0,0,0,0,0,0,0,
255,104.0,95.6,-4.992,6.053,-18.02,-44.78,-0.4971,0.2842,-23.53,-22.24,2.437,-3.452,-1.896,-11.83,1.539,-1.598,0,0,0,0,0,0,0,0,0,0,0,0,0,0,0,0,
256,75.72,116.7,3.093,38.01,-45.49,-51.57,-5.247,-5.698,-21.75,-25.82,-0.6239,-6.414,-8.248,-14.43,-2.536,-5.809,0,0,0,0,0,0,0,0,0,0,0,0,0,0,0,0,
257,66.14,22.31,-0.2714,17.3,-46.23,-62.08,-11.89,-14.84,-31.19,-32.18,-5.074,-12.95,-10.89,-17.79,3.057,-5.349,0,0,0,0,0,0,0,0,0,0,0,0,0,0,0,0,
258,103.6,100.1,17.38,21.33,1.532,-69.95,17.37,-10.9,-13.06,-20.53,19.99,-4.925,12.69,-4.109,23.34,10.56,0,0,0,0,0,0,0,0,0,0,0,0,0,0,0,0,
259,69.55,117.6,40.11,26.18,33.53,-37.16,44.07,-5.04,22.36,1.94,43.45,8.046,36.66,14.39,35.57,24.8,0,0,0,0,0,0,0,0,0,0,0,0,0,0,0,0,
260,5.229,-47.6,44.23,-19.57,39.82,40.8,41.43,-1.246,41.39,27.66,40.8,14.93,38.73,21.19,29.68,23.98,0,0,0,0,0,0,0,0,0,0,0,0,0,0,0,0,
261,9.7,-36.35,28.05,-38.22,22.58,28.43,24.99,-13.04,33.34,26.84,22.55,4.899,20.36,8.732,13.28,10.13,0,0,0,0,0,0,0,0,0,0,0,0,0,0,0,0,
262,-19.35,25.93,13.46,-22.67,35.0,10.67,21.65,-2.097,26.78,12.24,20.17,7.083,18.72,11.26,12.16,10.59,0,0,0,0,0,0,0,0,0,0,0,0,0,0,0,0,
263,-113.8,-131.9,7.971,-45.29,67.52,103.0,13.46,23.57,44.77,28.23,7.838,8.848,14.38,11.92,-2.571,-0.1047,0,0,0,0,0,0,0,0,0,0,0,0,0,0,0,0,
264,-105.1,-148.0,-7.121,-51.48,25.82,63.0,-15.57,1.345,24.34,16.3,-32.55,-14.3,-19.53,-16.34,-32.22,-26.86,0,0,0,0,0,0,0,0,0,0,0,0,0,0,0,0,
265,23.67,76.7,-7.894,9.148,-26.01,-110.6,-18.42,-19.53,-22.31,-26.31,-34.05,-19.78,-25.71,-23.39,-25.27,-22.77,0,0,0,0,0,0,0,0,0,0,0,0,0,0,0,0,
266,86.0,106.5,0.0917,31.76,-26.06,-112.9,-8.753,-9.659,-21.74,-27.07,-11.98,-10.92,-13.23,-14.59,-12.26,-11.46,0,0,0,0,0,0,0,0,0,0,0,0,0,0,0,0,
267,65.92,-3.575,-9.037,12.3,-36.06,-6.025,-16.73,-11.09,-15.36,-16.13,-18.65,-6.073,-17.27,-15.61,-12.65,-7.299,0,0,0,0,0,0,0,0,0,0,0,0,0,0,0,0,
268,62.97,50.23,-8.639,32.86,-38.55,-11.6,-12.07,-14.98,-20.18,-18.41,-22.26,-0.9455,-13.08,-12.49,-8.137,-1.972,0,0,0,0,0,0,0,0,0,0,0,0,0,0,0,0,
269,3.944,73.24,-9.831,24.69,-12.54,-52.24,-9.614,-18.33,-12.68,-18.12,-18.46,-11.04,-14.24,-17.94,-12.0,-11.71,0,0,0,0,0,0,0,0,0,0,0,0,0,0,0,0,
270,-65.68,-52.42,-18.29,-20.93,-6.099,-7.345,-18.07,-17.2,-18.53,-15.93,-18.0,-9.674,-19.45,-16.69,-5.938,-8.373,0,0,0,0,0,0,0,0,0,0,0,0,0,0,0,0,
271,23.89,-70.71,-13.41,-14.85,-27.71,10.84,-19.59,-3.502,-27.09,-8.437,-15.96,-0.0514,-18.29,-11.03,-2.136,-3.504,0,0,0,0,0,0,0,0,0,0,0,0,0,0,0,0,
272,94.38,14.65,-18.96,-6.102,-34.26,-43.82,-23.94,-3.121,-29.46,-21.32,-21.43,-16.61,-32.37,-30.58,-24.32,-26.2,0,0,0,0,0,0,0,0,0,0,0,0,0,0,0,0,
273,-34.93,-23.12,-26.38,-50.93,-8.9,-19.81,-23.05,-17.35,-36.99,-40.19,-26.06,-27.96,-41.51,-42.15,-33.97,-36.36,0,0,0,0,0,0,0,0,0,0,0,0,0,0,0,0,
274,-136.7,-108.5,-26.15,-100.2,-12.99,28.22,-23.71,-35.51,-39.94,-30.87,-27.68,-28.47,-37.47,-39.22,-27.82,-29.94,0,0,0,0,0,0,0,0,0,0,0,0,0,0,0,0,
275,-55.64,-21.09,-28.23,-90.55,-46.52,-46.4,-23.85,-35.1,-38.48,-25.81,-18.25,-26.9,-27.55,-36.84,-13.38,-18.23,0,0,0,0,0,0,0,0,0,0,0,0,0,0,0,0,
276,60.6,126.1,-9.813,-3.305,-39.05,-124.8,-6.454,-13.12,-27.89,-30.13,-3.26,-16.04,-12.91,-26.27,0.1197,-6.607,0,0,0,0,0,0,0,0,0,0,0,0,0,0,0,0,
277,78.82,74.23,4.529,68.37,-8.683,-95.31,-3.196,-12.42,-21.08,-30.95,-11.3,-15.71,-15.43,-20.74,-10.64,-13.27,0,0,0,0,0,0,0,0,0,0,0,0,0,0,0,0,
278,-0.1883,-85.22,-5.63,13.6,18.06,-3.95,-4.206,-8.316,-20.04,-18.17,-10.93,-10.18,-8.491,-9.664,-4.859,-7.616,0,0,0,0,0,0,0,0,0,0,0,0,0,0,0,0,
279,-96.97,-129.0,-14.31,-98.29,26.85,67.28,3.739,12.24,1.409,16.49,-0.6456,-0.7328,12.28,1.145,14.18,4.269,0,0,0,0,0,0,0,0,0,0,0,0,0,0,0,0,
280,-111.4,-97.48,-16.84,-80.52,10.49,72.88,-7.197,6.526,13.89,15.91,-11.41,-10.66,5.831,-10.01,0.8832,-7.491,0,0,0,0,0,0,0,0,0,0,0,0,0,0,0,0,
281,-39.37,-87.97,0.898,37.91,17.06,82.5,-4.13,3.826,6.45,-10.26,-7.783,-12.77,-5.203,-13.34,-15.24,-15.19,0,0,0,0,0,0,0,0,0,0,0,0,0,0,0,0,
282,22.49,-27.44,17.75,28.84,12.05,63.44,13.08,11.27,-4.054,-2.134,0.7465,-11.71,-11.62,-11.39,-19.41,-17.95,0,0,0,0,0,0,0,0,0,0,0,0,0,0,0,0,
283,45.37,139.9,9.776,-52.7,-5.594,-57.83,10.88,9.511,-22.5,4.321,-6.956,-12.22,-17.8,-10.29,-18.39,-16.83,0,0,0,0,0,0,0,0,0,0,0,0,0,0,0,0,
284,56.24,187.8,12.66,-4.798,33.53,-91.35,9.104,18.76,-9.919,1.448,-7.152,-0.0833,-9.004,3.989,-14.34,-7.495,0,0,0,0,0,0,0,0,0,0,0,0,0,0,0,0,
285,28.07,-38.56,9.257,62.02,40.76,22.72,2.264,13.18,14.32,10.56,-15.59,0.0002,-7.412,6.091,-16.13,-7.362,0,0,0,0,0,0,0,0,0,0,0,0,0,0,0,0,
286,-16.65,-157.6,-7.596,44.94,8.216,54.43,-3.68,-0.9187,1.855,11.94,-20.13,-0.294,-3.571,4.536,-2.32,2.647,0,0,0,0,0,0,0,0,0,0,0,0,0,0,0,0,
287,-23.62,39.82,-4.649,23.39,24.28,-18.6,1.384,9.614,1.073,8.11,-9.971,5.835,3.425,6.044,5.666,9.807,0,0,0,0,0,0,0,0,0,0,0,0,0,0,0,0,
288,9.735,148.6,-4.351,-10.72,4.502,-33.18,-9.062,11.99,4.654,-2.077,-17.41,-0.353,-14.76,-7.194,-11.29,-4.418,0,0,0,0,0,0,0,0,0,0,0,0,0,0,0,0,
289,83.2,46.32,-3.572,-28.31,-41.89,5.632,-13.14,0.2123,-22.12,-12.08,-27.26,0.0594,-25.42,-12.74,-12.36,-6.892,0,0,0,0,0,0,0,0,0,0,0,0,0,0,0,0,
290,90.91,-13.82,1.636,16.81,-20.04,0.4336,-5.47,-12.1,-40.46,-19.24,-27.91,-1.324,-21.31,-15.14,-6.564,-5.213,0,0,0,0,0,0,0,0,0,0,0,0,0,0,0,0,
291,-45.68,-43.71,-5.578,5.114,11.0,-9.862,-3.624,-17.41,-34.63,-32.88,-13.54,-5.968,-12.92,-16.82,1.881,-0.6505,0,0,0,0,0,0,0,0,0,0,0,0,0,0,0,0,
292,-123.5,-84.27,1.075,-83.92,9.087,12.04,5.974,-9.754,-12.19,-20.21,14.35,-2.705,5.79,-9.859,20.76,11.76,0,0,0,0,0,0,0,0,0,0,0,0,0,0,0,0,
293,-26.26,-35.17,4.567,-85.8,-17.68,-23.91,4.594,-15.73,-9.834,-10.86,12.14,-10.7,0.3317,-20.48,17.3,6.093,0,0,0,0,0,0,0,0,0,0,0,0,0,0,0,0,
294,52.53,13.91,-2.463,6.508,-40.69,-52.98,0.8846,-14.69,-35.61,-31.01,3.106,-3.523,-11.89,-19.91,11.84,6.434,0,0,0,0,0,0,0,0,0,0,0,0,0,0,0,0,
295,23.93,-63.32,7.568,23.94,-23.74,14.26,7.678,0.5026,-32.1,-16.58,8.369,12.56,-5.187,-2.899,18.33,14.31,0,0,0,0,0,0,0,0,0,0,0,0,0,0,0,0,
296,0.2548,-80.51,4.07,-16.76,-11.73,4.668,-4.581,-15.01,-23.59,-2.564,0.2492,-1.586,-5.207,-12.79,17.3,7.843,0,0,0,0,0,0,0,0,0,0,0,0,0,0,0,0,
297,2.784,83.64,-2.106,10.83,0.5335,-84.22,-5.653,-25.16,-25.99,-26.23,6.605,-8.404,3.241,-17.13,18.91,8.03,0,0,0,0,0,0,0,0,0,0,0,0,0,0,0,0,
298,-27.05,95.48,10.15,4.872,27.02,-36.4,10.5,-6.079,-2.892,-20.72,16.69,-0.5711,11.41,-4.124,12.71,5.282,0,0,0,0,0,0,0,0,0,0,0,0,0,0,0,0,
299,-65.26,-145.6,8.857,-80.04,16.4,83.5,9.124,5.817,3.053,7.476,7.06,1.924,5.589,3.497,8.171,2.276,0,0,0,0,0,0,0,0,0,0,0,0,0,0,0,0,
300,-91.35,-220.5,5.723,-60.27,22.46,97.88,9.428,4.386,-5.097,19.53,4.936,2.507,9.35,8.839,8.78,3.414,0,0,0,0,0,0,0,0,0,0,0,0,0,0,0,0,
301,-95.47,-42.3,4.546,38.17,59.45,32.62,7.926,-10.08,6.778,11.62,-6.857,-10.22,1.538,-1.157,-13.91,-15.16,0,0,0,0,0,0,0,0,0,0,0,0,0,0,0,0,
302,0.9871,117.4,2.303,44.05,38.49,-21.31,6.363,-6.151,8.014,-1.561,-11.54,-7.031,-3.109,-2.662,-16.94,-15.08,0,0,0,0,0,0,0,0,0,0,0,0,0,0,0,0,
303,129.2,161.5,21.48,10.48,-1.417,-33.73,23.95,18.2,10.06,9.9,14.41,11.03,16.41,12.89,2.559,3.155,0,0,0,0,0,0,0,0,0,0,0,0,0,0,0,0,
304,136.8,98.77,41.06,33.98,4.07,-17.8,33.16,10.77,14.31,14.0,20.48,2.979,17.02,8.718,-5.288,-3.494,0,0,0,0,0,0,0,0,0,0,0,0,0,0,0,0,
305,76.05,31.85,46.66,52.43,28.38,11.77,29.95,3.272,6.212,7.412,10.73,2.306,11.15,9.199,-8.822,-2.695,0,0,0,0,0,0,0,0,0,0,0,0,0,0,0,0,
306,7.714,-1.126,34.35,18.73,50.43,47.62,18.46,20.07,14.36,32.54,5.012,16.85,13.15,21.97,-2.369,6.866,0,0,0,0,0,0,0,0,0,0,0,0,0,0,0,0,
307,-39.34,-99.62,4.274,6.043,45.21,72.1,-1.117,18.69,17.76,41.91,-12.03,13.83,-3.681,15.75,-14.41,-2.84,0,0,0,0,0,0,0,0,0,0,0,0,0,0,0,0,
308,4.111,-100.5,-5.168,23.31,2.702,50.68,-4.223,5.109,-4.306,14.15,-22.82,4.809,-21.11,2.557,-24.28,-13.11,0,0,0,0,0,0,0,0,0,0,0,0,0,0,0,0,
309,14.85,62.36,1.552,6.559,-12.31,-8.348,-0.729,-0.7091,-20.25,-0.3414,-17.7,2.64,-17.61,-0.3536,-15.29,-7.355,0,0,0,0,0,0,0,0,0,0,0,0,0,0,0,0,
310,-54.96,68.91,4.135,5.91,22.83,-21.98,0.7997,0.3483,-14.78,4.29,-6.962,7.288,-1.794,5.515,4.318,10.25,0,0,0,0,0,0,0,0,0,0,0,0,0,0,0,0,
311,-33.77,-48.09,0.659,23.79,17.36,1.098,-1.446,-3.098,-4.324,3.311,-8.387,3.092,-2.272,-0.836,7.861,12.17,0,0,0,0,0,0,0,0,0,0,0,0,0,0,0,0,
312,-0.6224,-28.07,-18.0,-25.47,-18.92,-8.42,-13.83,-7.923,-14.04,-7.875,-14.67,-1.107,-14.11,-10.58,4.859,5.876,0,0,0,0,0,0,0,0,0,0,0,0,0,0,0,0,
313,-81.79,-23.23,-16.73,-54.6,6.326,-11.8,-8.639,7.717,-17.58,-0.2107,0.3961,12.73,-2.7,0.9197,14.7,11.7,0,0,0,0,0,0,0,0,0,0,0,0,0,0,0,0,
314,-80.43,-89.73,1.822,6.659,1.1,-23.35,-4.129,10.51,-10.57,4.085,-4.067,1.514,-5.963,-8.709,-0.0132,-4.768,0,0,0,0,0,0,0,0,0,0,0,0,0,0,0,0,
315,56.88,-33.63,-3.867,16.97,-60.98,-49.59,-16.89,-4.602,-37.16,-29.72,-24.56,-16.19,-26.39,-26.78,-13.06,-16.65,0,0,0,0,0,0,0,0,0,0,0,0,0,0,0,0,
316,33.8,-24.44,-11.7,-69.26,-12.09,21.61,-9.711,-0.1497,-40.5,-25.58,-2.57,1.833,-6.989,-6.929,11.89,6.413,0,0,0,0,0,0,0,0,0,0,0,0,0,0,0,0,
317,-176.8,-147.0,-16.31,-89.71,72.4,86.04,-3.751,-9.047,1.767,8.47,16.99,0.684,11.01,-3.904,16.28,6.732,0,0,0,0,0,0,0,0,0,0,0,0,0,0,0,0,
318,-177.3,-65.93,-15.28,8.317,20.17,3.703,-8.811,-24.26,0.6178,-14.69,4.67,-13.42,-2.928,-19.27,-1.028,-7.81,0,0,0,0,0,0,0,0,0,0,0,0,0,0,0,0,
319,56.0,98.9,6.161,60.91,-53.14,-51.87,1.413,-6.73,-26.34,-27.07,-0.2858,0.8837,-6.787,-5.298,-0.9936,-1.536,0,0,0,0,0,0,0,0,0,0,0,0,0,0,0,0,
320,127.4,32.25,15.09,29.35,-37.23,-18.14,8.019,8.991,-22.06,5.659,2.497,8.563,2.146,6.719,4.149,4.45,0,0,0,0,0,0,0,0,0,0,0,0,0,0,0,0,
321,54.62,9.11,14.24,29.0,-16.83,-33.47,8.189,6.425,-10.75,3.977,6.146,-0.6439,6.357,0.8575,4.243,2.202,0,0,0,0,0,0,0,0,0,0,0,0,0,0,0,0,
322,53.86,105.0,14.58,32.73,-25.79,-58.41,5.898,-5.282,-7.111,-13.77,4.351,-10.74,2.042,-4.434,-1.97,-5.627,0,0,0,0,0,0,0,0,0,0,0,0,0,0,0,0,
323,41.91,41.07,7.329,8.364,1.316,-37.04,2.305,-7.401,-1.813,1.662,-0.2556,-9.813,4.323,0.4677,-1.656,-4.718,0,0,0,0,0,0,0,0,0,0,0,0,0,0,0,0,
324,-17.49,-61.79,13.63,-21.11,43.34,-5.798,9.131,14.04,7.488,24.24,1.426,3.931,10.75,13.05,-0.2668,3.131,0,0,0,0,0,0,0,0,0,0,0,0,0,0,0,0,
325,-68.29,-95.09,15.08,-71.11,37.33,81.32,8.925,21.11,10.45,35.48,-2.486,7.678,1.464,17.34,-12.04,-1.842,0,0,0,0,0,0,0,0,0,0,0,0,0,0,0,0,
326,-88.83,-100.3,7.599,-32.39,31.29,142.0,10.23,16.82,11.55,42.44,0.2338,5.139,1.604,16.16,-10.27,-2.567,0,0,0,0,0,0,0,0,0,0,0,0,0,0,0,0,
327,-19.79,36.25,16.46,76.83,39.57,27.8,16.97,21.82,16.45,22.5,2.849,5.215,6.39,11.17,-2.438,2.292,0,0,0,0,0,0,0,0,0,0,0,0,0,0,0,0,
328,53.68,127.8,15.03,48.51,24.21,-46.82,9.107,20.96,7.04,-7.568,-5.653,13.83,3.15,15.71,4.871,13.04,0,0,0,0,0,0,0,0,0,0,0,0,0,0,0,0,
329,10.02,-26.88,8.735,-24.14,24.05,68.64,11.0,23.39,8.577,17.73,4.138,25.67,21.25,30.83,25.38,29.53,0,0,0,0,0,0,0,0,0,0,0,0,0,0,0,0,
330,-54.17,-102.8,10.11,11.88,18.91,75.16,12.12,11.02,22.6,33.99,11.79,5.147,24.58,8.587,21.31,15.09,0,0,0,0,0,0,0,0,0,0,0,0,0,0,0,0,
331,-16.19,49.49,3.606,45.68,-11.78,-67.18,0.3826,-12.28,9.264,-15.06,5.65,-12.88,2.32,-17.75,2.401,-4.513,0,0,0,0,0,0,0,0,0,0,0,0,0,0,0,0,
332,64.73,96.39,6.302,24.17,-2.733,-65.63,6.491,-1.086,0.7401,-16.2,4.463,2.334,-0.5507,-1.981,-0.2013,-2.458,0,0,0,0,0,0,0,0,0,0,0,0,0,0,0,0,
333,46.52,-61.58,11.03,-2.651,15.83,30.05,8.903,10.51,0.0739,23.79,-5.79,6.358,-1.742,6.15,-1.33,-2.455,0,0,0,0,0,0,0,0,0,0,0,0,0,0,0,0,
334,-31.86,-127.8,11.17,-4.851,6.098,33.12,5.117,1.625,-12.55,12.12,-0.1909,7.735,-1.61,4.808,10.62,8.029,0,0,0,0,0,0,0,0,0,0,0,0,0,0,0,0,
335,-43.9,-8.825,7.908,-6.703,-2.733,-10.82,7.21,-5.637,-6.843,-3.417,13.85,9.27,3.709,5.352,17.64,9.941,0,0,0,0,0,0,0,0,0,0,0,0,0,0,0,0,
336,-53.96,63.05,-10.04,-55.87,2.587,-4.756,-1.671,-7.523,-5.76,2.261,3.538,2.43,3.492,-0.8459,12.25,0.3399,0,0,0,0,0,0,0,0,0,0,0,0,0,0,0,0,
337,-82.03,7.321,-1.286,-62.44,31.99,39.04,4.624,15.05,-2.932,10.59,8.846,13.99,20.61,10.17,21.6,11.7,0,0,0,0,0,0,0,0,0,0,0,0,0,0,0,0,
338,-23.67,-43.45,20.33,12.56,16.55,5.108,12.3,23.41,20.11,12.47,12.72,4.801,17.63,3.771,7.675,0.1494,0,0,0,0,0,0,0,0,0,0,0,0,0,0,0,0,
339,66.55,6.784,14.12,50.12,-33.29,-71.73,4.112,-6.492,6.434,-13.61,0.3038,-16.68,-4.275,-16.42,-8.274,-16.49,0,0,0,0,0,0,0,0,0,0,0,0,0,0,0,0,
340,78.17,95.85,22.26,42.31,9.413,-29.32,17.95,-10.12,-6.739,-14.7,14.81,-0.4354,13.2,1.248,13.89,5.444,0,0,0,0,0,0,0,0,0,0,0,0,0,0,0,0,
341,22.11,49.02,24.36,29.11,42.57,38.15,20.62,2.58,11.7,12.01,19.01,-2.189,17.67,5.047,13.03,5.391,0,0,0,0,0,0,0,0,0,0,0,0,0,0,0,0,
342,-5.996,-39.6,6.593,8.768,-19.72,1.915,3.686,-5.055,-1.219,-1.478,3.751,-26.11,-4.483,-16.87,-6.313,-14.66,0,0,0,0,0,0,0,0,0,0,0,0,0,0,0,0,
343,25.55,11.23,15.43,4.075,-29.75,-29.68,9.34,-12.81,-15.16,-17.26,1.781,-29.17,0.2872,-17.88,-8.203,-18.01,0,0,0,0,0,0,0,0,0,0,0,0,0,0,0,0,
344,3.247,-19.69,13.63,-13.92,14.83,4.105,14.11,-11.39,-1.881,-1.437,-0.0011,-28.11,10.57,-10.45,-7.633,-14.46,0,0,0,0,0,0,0,0,0,0,0,0,0,0,0,0,
345,-61.13,-158.2,1.647,-41.25,37.55,57.67,16.75,3.077,11.62,18.96,13.09,-17.69,14.22,1.455,-0.0851,1.582,0,0,0,0,0,0,0,0,0,0,0,0,0,0,0,0,
346,-45.41,-89.1,15.17,-22.86,53.11,93.8,20.09,9.052,28.51,26.37,18.41,-9.367,7.45,5.745,-6.943,2.349,0,0,0,0,0,0,0,0,0,0,0,0,0,0,0,0,
347,-18.17,55.46,15.74,13.97,32.66,65.94,4.844,0.1216,22.43,8.173,-12.55,-16.57,-14.23,-7.205,-28.43,-16.93,0,0,0,0,0,0,0,0,0,0,0,0,0,0,0,0,
348,-35.69,57.74,3.923,37.88,-10.87,-19.07,-6.347,0.5856,-2.339,-4.301,-29.41,-12.23,-22.48,-10.74,-29.03,-18.1,0,0,0,0,0,0,0,0,0,0,0,0,0,0,0,0,
349,-16.98,65.03,-4.748,35.99,-14.91,-65.45,-13.55,-6.285,-10.5,-0.0605,-23.85,-2.16,-23.15,-5.638,-19.12,-8.137,0,0,0,0,0,0,0,0,0,0,0,0,0,0,0,0,
350,24.9,50.74,-7.24,-5.384,10.01,-6.492,-13.05,-2.051,-13.6,3.502,-12.11,9.963,-17.64,8.296,-5.855,4.972,0,0,0,0,0,0,0,0,0,0,0,0,0,0,0,0,
351,28.91,-61.77,11.52,-24.95,18.53,57.84,4.519,25.78,-11.05,21.24,-1.497,17.25,-7.691,17.26,-4.058,5.817,0,0,0,0,0,0,0,0,0,0,0,0,0,0,0,0,
352,8.56,-91.12,14.15,11.31,2.683,26.93,3.08,20.66,-7.165,19.62,-10.68,1.592,-14.29,-3.293,-15.51,-9.96,0,0,0,0,0,0,0,0,0,0,0,0,0,0,0,0,
353,-2.111,-22.39,-4.651,30.64,-4.831,-19.2,-7.513,-6.14,-10.98,-15.85,-12.43,-13.26,-13.62,-23.21,-5.184,-9.049,0,0,0,0,0,0,0,0,0,0,0,0,0,0,0,0,
354,14.83,46.34,-5.282,5.428,-19.97,-52.21,-5.362,-14.81,-15.09,-35.07,-0.6408,-16.02,-6.572,-26.01,4.553,-2.892,0,0,0,0,0,0,0,0,0,0,0,0,0,0,0,0,
355,40.16,118.2,0.2822,-6.299,-51.03,-93.15,-4.972,-8.949,-25.92,-33.63,4.878,-5.253,-6.741,-14.43,6.802,3.439,0,0,0,0,0,0,0,0,0,0,0,0,0,0,0,0,
356,23.13,47.38,-2.045,-0.4295,-33.35,-58.02,-2.203,2.878,-24.64,-22.01,11.85,11.79,4.655,3.945,22.38,17.71,0,0,0,0,0,0,0,0,0,0,0,0,0,0,0,0,
357,-21.58,-112.2,-4.057,-7.569,-3.69,4.737,-1.212,-1.257,-14.55,-12.25,9.462,10.26,8.176,3.122,17.61,14.26,0,0,0,0,0,0,0,0,0,0,0,0,0,0,0,0,
358,-43.84,-55.48,-2.611,-23.42,-16.82,-3.373,-3.88,-7.533,-18.87,-7.72,3.222,10.9,1.487,4.02,-0.0639,6.194,0,0,0,0,0,0,0,0,0,0,0,0,0,0,0,0,
359,-101.2,3.02,-10.38,-56.4,7.669,7.125,-3.852,-0.1205,-7.714,12.75,5.376,11.67,5.453,11.09,3.859,6.986,0,0,0,0,0,0,0,0,0,0,0,0,0,0,0,0,
360,-159.7,-112.2,-14.25,-50.78,64.55,51.24,4.702,-0.2158,13.35,18.13,12.53,-2.234,12.57,3.432,19.61,10.96,0,0,0,0,0,0,0,0,0,0,0,0,0,0,0,0,
361,-55.87,-32.11,23.44,27.22,44.16,38.53,29.26,3.208,17.77,5.01,26.92,-2.33,19.22,3.22,20.3,13.67,0,0,0,0,0,0,0,0,0,0,0,0,0,0,0,0,
362,71.79,75.51,48.64,40.58,-14.28,19.59,32.33,7.22,16.39,10.74,18.14,-11.02,10.95,-3.145,-9.167,-10.0,0,0,0,0,0,0,0,0,0,0,0,0,0,0,0,0,
363,41.9,-60.64,29.04,2.928,-0.8866,28.12,18.05,2.214,10.61,5.932,2.373,-33.97,-0.9245,-21.34,-24.86,-28.03,0,0,0,0,0,0,0,0,0,0,0,0,0,0,0,0,
364,38.62,5.633,26.88,42.21,18.08,-20.33,23.3,2.806,7.164,-17.92,12.5,-31.72,-0.5832,-19.94,-15.59,-17.24,0,0,0,0,0,0,0,0,0,0,0,0,0,0,0,0,
365,113.5,169.5,20.95,48.16,-30.02,-54.86,10.11,-1.582,-4.821,-23.16,1.292,-18.62,-14.43,-12.45,-22.62,-17.27,0,0,0,0,0,0,0,0,0,0,0,0,0,0,0,0,
366,101.9,-21.47,3.237,-9.13,-30.81,46.47,-5.427,0.1463,-18.66,0.6465,-12.68,-6.37,-16.41,-3.42,-19.4,-12.97,0,0,0,0,0,0,0,0,0,0,0,0,0,0,0,0,
367,29.84,-127.5,15.55,2.007,20.86,98.99,11.36,7.396,7.093,22.53,4.107,-3.78,3.11,0.9535,-6.207,-2.887,0,0,0,0,0,0,0,0,0,0,0,0,0,0,0,0,
368,-29.11,81.99,14.84,36.63,25.41,-26.44,13.34,-1.176,29.77,3.511,1.723,-11.47,4.062,-6.941,-11.53,-7.871,0,0,0,0,0,0,0,0,0,0,0,0,0,0,0,0,
369,-53.37,117.6,7.768,30.09,41.38,-70.97,8.403,1.179,19.73,-11.28,-9.868,-0.5901,6.332,2.199,-8.095,-3.871,0,0,0,0,0,0,0,0,0,0,0,0,0,0,0,0,
370,-17.85,-50.5,20.95,2.566,48.66,41.29,11.76,2.832,16.83,10.07,-5.72,3.842,7.675,8.433,-3.907,-2.484,0,0,0,0,0,0,0,0,0,0,0,0,0,0,0,0,
371,22.79,-94.29,9.496,-26.84,-16.12,50.65,0.3823,-8.424,8.812,11.96,-2.752,-2.025,-5.965,0.3885,-3.872,-4.748,0,0,0,0,0,0,0,0,0,0,0,0,0,0,0,0,
372,-1.407,-16.72,-10.78,-22.13,-27.3,-55.31,-8.324,-1.387,-7.203,-2.599,-3.297,5.485,-7.048,3.077,1.402,0.8338,0,0,0,0,0,0,0,0,0,0,0,0,0,0,0,0,
373,-61.72,41.98,-15.36,-7.606,19.23,-69.46,-12.9,2.174,-10.46,-9.843,-10.69,0.2215,-5.911,-0.8976,-5.889,-5.993,0,0,0,0,0,0,0,0,0,0,0,0,0,0,0,0,
374,-38.47,48.72,-10.51,5.937,7.097,-9.535,-7.833,-2.659,-2.761,-12.38,-0.5763,-1.571,0.6609,-1.324,1.178,-1.792,0,0,0,0,0,0,0,0,0,0,0,0,0,0,0,0,
375,26.45,0.4013,8.509,21.57,-17.87,-11.31,12.13,-2.311,11.23,-0.3797,23.93,7.246,15.18,6.493,16.85,10.32,0,0,0,0,0,0,0,0,0,0,0,0,0,0,0,0,
376,-51.61,-106.2,10.15,-41.1,2.058,5.509,12.69,-2.549,6.454,3.376,20.2,-0.4568,11.8,1.084,9.35,4.843,0,0,0,0,0,0,0,0,0,0,0,0,0,0,0,0,
377,-131.2,-187.0,-7.696,-112.3,24.7,116.5,0.5453,11.08,3.972,10.52,5.141,-2.633,9.158,2.93,5.223,3.634,0,0,0,0,0,0,0,0,0,0,0,0,0,0,0,0,
378,-35.7,-127.7,-13.63,-40.91,10.41,125.1,-9.743,-0.7353,19.62,25.66,-7.127,-9.106,2.44,-3.201,-1.297,-4.545,0,0,0,0,0,0,0,0,0,0,0,0,0,0,0,0,
379,31.02,43.95,-0.8635,70.85,-5.23,-10.32,-10.33,-33.74,0.8846,-3.226,-9.916,-22.25,-12.35,-21.72,-7.535,-12.25,0,0,0,0,0,0,0,0,0,0,0,0,0,0,0,0,
380,7.168,151.4,23.6,68.98,18.15,-64.39,11.2,-16.57,-19.73,-27.91,8.056,-11.28,-2.783,-14.1,5.379,0.1167,0,0,0,0,0,0,0,0,0,0,0,0,0,0,0,0,
381,25.29,88.1,25.32,16.36,28.18,-32.93,16.8,3.035,-1.926,-5.097,9.984,-6.409,7.32,-3.681,2.277,-4.062,0,0,0,0,0,0,0,0,0,0,0,0,0,0,0,0,
382,41.29,-9.19,15.64,7.814,11.57,-20.57,11.34,-3.62,9.501,7.734,8.7,-12.53,9.457,-3.115,-4.214,-9.742,0,0,0,0,0,0,0,0,0,0,0,0,0,0,0,0,
383,35.95,-40.11,27.19,1.856,10.81,27.4,27.7,9.577,15.46,8.589,31.61,-4.756,22.99,5.375,14.92,10.33,0,0,0,0,0,0,0,0,0,0,0,0,0,0,0,0,
384,28.94,-78.69,36.49,-3.591,27.07,86.59,42.53,19.28,29.63,20.24,48.41,9.734,35.52,18.69,38.04,33.14,0,0,0,0,0,0,0,0,0,0,0,0,0,0,0,0,
385,-8.19,-35.83,48.26,48.79,59.93,55.21,49.37,20.41,45.92,32.42,51.59,23.68,43.17,33.68,45.82,43.12,0,0,0,0,0,0,0,0,0,0,0,0,0,0,0,0,
386,-15.13,107.2,40.56,67.49,54.55,-8.027,31.27,22.49,51.3,28.5,26.97,16.73,27.51,26.76,23.05,28.09,0,0,0,0,0,0,0,0,0,0,0,0,0,0,0,0,
387,4.062,66.73,-14.2,-3.997,-4.491,19.8,-12.03,13.12,23.41,11.59,-14.21,5.194,-0.0622,13.15,-2.06,11.8,0,0,0,0,0,0,0,0,0,0,0,0,0,0,0,0,
388,-31.73,-116.9,-33.74,-58.41,-21.73,77.19,-22.33,11.96,2.164,22.86,-21.88,12.08,-3.605,20.46,-5.995,8.857,0,0,0,0,0,0,0,0,0,0,0,0,0,0,0,0,
389,-55.75,-95.19,-2.7,-53.71,-12.53,35.65,-8.461,10.13,0.0868,32.63,-17.36,5.881,-8.693,12.31,-15.59,-4.744,0,0,0,0,0,0,0,0,0,0,0,0,0,0,0,0,
390,13.34,72.35,10.72,1.728,-20.1,-33.27,-3.083,1.038,-12.96,-1.771,-18.66,-3.02,-10.88,-3.465,-14.6,-5.066,0,0,0,0,0,0,0,0,0,0,0,0,0,0,0,0,
391,88.96,87.02,7.658,51.82,-8.029,-41.39,0.6529,0.7802,-8.727,-22.36,-8.642,-1.638,6.734,-2.794,3.22,9.245,0,0,0,0,0,0,0,0,0,0,0,0,0,0,0,0,
392,46.72,-16.17,4.895,15.55,8.171,-35.9,4.308,-0.1006,5.428,-9.3,7.505,-3.57,15.92,-2.004,12.91,11.63,0,0,0,0,0,0,0,0,0,0,0,0,0,0,0,0,
393,-82.75,-37.17,6.997,-6.962,26.88,-27.53,11.94,3.74,9.986,4.175,20.82,2.913,15.71,1.014,14.51,10.46,0,0,0,0,0,0,0,0,0,0,0,0,0,0,0,0,
394,-121.3,-16.0,4.472,39.71,32.43,-6.418,1.443,6.288,13.78,-1.879,5.493,-0.7192,-0.1582,-5.726,0.335,-2.267,0,0,0,0,0,0,0,0,0,0,0,0,0,0,0,0,
395,-3.863,-40.62,-5.158,39.87,-16.09,27.19,-14.57,6.296,-5.964,-21.29,-10.99,-6.779,-14.22,-9.981,-2.478,-6.545,0,0,0,0,0,0,0,0,0,0,0,0,0,0,0,0,
396,87.09,-16.27,3.758,2.151,-48.93,42.57,3.0,19.49,-17.78,-6.578,10.28,5.253,2.944,3.488,14.37,6.825,0,0,0,0,0,0,0,0,0,0,0,0,0,0,0,0,
397,43.92,51.79,6.296,-3.225,-33.14,-27.34,4.973,14.47,-2.67,8.987,11.44,-1.794,4.59,-6.602,5.221,-2.31,0,0,0,0,0,0,0,0,0,0,0,0,0,0,0,0,
398,7.924,52.78,-7.664,2.773,-21.55,-89.38,-14.69,-5.517,-7.711,-16.56,-8.238,-12.8,-9.492,-20.5,-6.335,-12.03,0,0,0,0,0,0,0,0,0,0,0,0,0,0,0,0,
399,14.63,44.17,-9.737,-2.247,-17.7,-61.25,-10.67,-11.34,-15.61,-21.32,-7.176,-11.51,-8.98,-14.42,-8.531,-12.44,0,0,0,0,0,0,0,0,0,0,0,0,0,0,0,0,
400,-36.75,38.6,-14.85,-5.688,-6.116,-11.2,-10.85,-10.15,-13.42,-12.92,-14.45,-17.6,-17.34,-15.21,-23.13,-20.79,0,0,0,0,0,0,0,0,0,0,0,0,0,0,0,0,
401,-94.91,-104.8,-16.98,-11.86,14.09,89.86,-17.05,9.161,-13.2,-11.16,-20.09,-2.233,-15.22,-0.5897,-13.99,-6.445,0,0,0,0,0,0,0,0,0,0,0,0,0,0,0,0,
402,-114.4,-254.7,-14.78,-54.39,11.13,150.1,-12.96,22.29,4.253,22.5,-6.377,15.57,1.243,16.68,6.733,10.12,0,0,0,0,0,0,0,0,0,0,0,0,0,0,0,0,
403,-107.8,-92.41,-19.33,-62.1,-12.77,-4.651,-9.419,8.28,16.12,33.92,2.822,0.9024,-2.919,0.2861,-1.442,-1.486,0,0,0,0,0,0,0,0,0,0,0,0,0,0,0,0,
404,-16.33,190.3,-2.523,26.53,-6.91,-158.9,-3.332,6.684,-0.851,-11.01,-1.177,-14.45,-16.35,-19.14,-19.6,-15.27,0,0,0,0,0,0,0,0,0,0,0,0,0,0,0,0,
405,72.95,137.7,4.125,61.6,-8.199,-102.2,-12.04,11.76,-28.78,-43.18,-18.69,-16.1,-24.44,-20.66,-23.45,-16.02,0,0,0,0,0,0,0,0,0,0,0,0,0,0,0,0,
406,45.13,-96.63,-18.92,-6.664,-30.35,15.9,-26.23,10.68,-37.0,-25.16,-22.58,-6.479,-20.66,-8.038,-12.95,-4.684,0,0,0,0,0,0,0,0,0,0,0,0,0,0,0,0,
407,14.7,-123.1,-22.09,-42.89,-28.72,45.43,-20.76,4.295,-16.0,8.265,-10.26,-3.442,-17.0,-4.01,-16.67,-4.737,0,0,0,0,0,0,0,0,0,0,0,0,0,0,0,0,
408,20.09,10.7,-15.44,-12.78,-21.06,-33.7,-12.66,-14.34,-9.204,3.394,-9.97,-12.3,-20.81,-14.35,-23.03,-10.52,0,0,0,0,0,0,0,0,0,0,0,0,0,0,0,0,
409,-39.74,90.92,-11.73,39.07,12.95,-77.17,-1.507,-5.89,-4.051,-16.3,-3.114,-0.8309,-1.893,-3.187,-2.055,5.075,0,0,0,0,0,0,0,0,0,0,0,0,0,0,0,0,
410,-113.1,-21.03,-0.5779,36.63,47.56,57.09,3.649,19.47,20.27,-5.264,4.248,10.07,11.75,9.532,3.593,8.463,0,0,0,0,0,0,0,0,0,0,0,0,0,0,0,0,
411,-90.25,-180.4,1.543,-15.08,-1.618,141.5,-6.524,17.08,4.321,6.705,-6.093,5.795,-3.744,4.191,-7.481,-0.0054,0,0,0,0,0,0,0,0,0,0,0,0,0,0,0,0,
412,-11.62,-66.33,-3.445,-1.541,-43.9,9.219,-10.54,8.953,-20.63,6.881,-14.0,6.82,-9.354,4.706,-5.768,1.579,0,0,0,0,0,0,0,0,0,0,0,0,0,0,0,0,
413,37.26,91.39,-10.95,14.53,-11.55,-57.22,-12.84,7.007,-5.571,9.504,-14.58,1.572,-7.426,3.146,-8.805,-3.896,0,0,0,0,0,0,0,0,0,0,0,0,0,0,0,0,
414,58.6,-9.9,-11.23,-26.75,6.451,20.11,-7.868,10.78,0.9383,13.62,-2.933,1.096,-2.946,3.029,-3.271,0.8509,0,0,0,0,0,0,0,0,0,0,0,0,0,0,0,0,
415,29.59,-27.14,-8.931,-4.22,4.197,-28.65,-5.244,13.56,2.498,7.463,0.8738,4.221,5.18,2.499,4.968,8.266,0,0,0,0,0,0,0,0,0,0,0,0,0,0,0,0,
416,-65.1,104.3,-19.22,42.21,19.37,-116.5,-19.91,7.087,10.42,-19.64,-7.467,3.608,5.979,-0.1245,6.5,7.675,0,0,0,0,0,0,0,0,0,0,0,0,0,0,0,0,
417,-82.03,25.91,-3.142,17.45,16.93,-23.61,-5.535,20.71,3.091,-13.79,14.95,23.02,16.43,20.16,25.96,24.83,0,0,0,0,0,0,0,0,0,0,0,0,0,0,0,0,
418,11.42,-82.11,16.53,0.926,-15.64,50.45,11.72,26.51,-4.779,21.41,21.98,22.88,14.68,22.38,24.1,22.7,0,0,0,0,0,0,0,0,0,0,0,0,0,0,0,0,
419,45.72,4.461,-7.084,14.67,-31.34,5.503,-10.78,1.257,-13.46,6.289,-12.5,-2.877,-8.698,-2.937,-2.762,-1.535,0,0,0,0,0,0,0,0,0,0,0,0,0,0,0,0,
420,7.511,-12.49,-15.77,1.589,-23.08,19.28,-17.67,-3.928,-21.01,-10.38,-17.74,-2.216,-15.18,-3.345,-6.501,-3.964,0,0,0,0,0,0,0,0,0,0,0,0,0,0,0,0,
421,-4.544,-133.9,-3.451,-13.79,-24.93,38.7,-7.821,2.312,-19.1,4.067,-2.431,-0.0552,-12.5,-1.562,0.3991,0.1937,0,0,0,0,0,0,0,0,0,0,0,0,0,0,0,0,
422,-9.391,-52.17,-6.18,-0.7155,-1.576,9.091,-6.41,1.297,-12.2,-7.164,2.278,-4.959,-1.755,-5.942,11.27,8.212,0,0,0,0,0,0,0,0,0,0,0,0,0,0,0,0,
423,-40.9,58.16,-5.231,5.152,38.11,25.16,-1.672,2.328,7.738,-9.537,4.808,-1.182,12.32,0.5901,13.93,11.25,0,0,0,0,0,0,0,0,0,0,0,0,0,0,0,0,
424,-46.18,2.789,-1.424,-6.672,15.75,-3.117,-1.442,-6.802,15.08,6.094,3.441,-7.36,4.234,-4.139,0.91,-1.728,0,0,0,0,0,0,0,0,0,0,0,0,0,0,0,0,
425,-6.678,-10.2,6.726,-12.55,-13.91,-70.87,4.267,-5.304,-1.774,-3.888,10.42,-8.391,-0.3773,-7.516,3.21,-0.5361,0,0,0,0,0,0,0,0,0,0,0,0,0,0,0,0,
426,-30.65,-23.89,6.523,-17.49,-1.087,0.186,5.991,4.012,-10.16,-9.248,12.71,1.32,2.402,0.9585,3.154,3.326,0,0,0,0,0,0,0,0,0,0,0,0,0,0,0,0,
427,-109.8,-159.1,-11.66,-4.763,-0.0842,97.9,-5.886,0.9383,-2.798,7.974,7.632,9.718,5.071,10.47,-1.506,3.385,0,0,0,0,0,0,0,0,0,0,0,0,0,0,0,0,
428,-70.75,-144.0,-9.022,16.17,-12.95,33.55,-5.938,1.53,10.37,15.61,5.174,11.52,10.99,12.18,0.4958,4.734,0,0,0,0,0,0,0,0,0,0,0,0,0,0,0,0,
429,57.0,82.28,-6.797,8.997,-44.52,-80.62,-11.22,-5.092,-5.332,-10.05,-16.84,-0.1837,-8.225,-2.837,-15.61,-9.244,0,0,0,0,0,0,0,0,0,0,0,0,0,0,0,0,
430,100.1,191.0,-19.52,25.95,-70.09,-95.77,-15.23,-8.626,-34.51,-30.48,-19.18,3.221,-17.6,0.7407,-13.76,-4.417,0,0,0,0,0,0,0,0,0,0,0,0,0,0,0,0,
431,10.06,36.87,-16.14,34.87,-16.32,-20.37,-4.811,1.11,-8.182,0.6708,6.383,12.48,5.346,18.92,8.889,14.25,0,0,0,0,0,0,0,0,0,0,0,0,0,0,0,0,
432,-118.5,-140.4,-14.23,-35.5,47.75,81.79,-7.611,-2.605,24.0,28.11,5.908,3.535,10.22,14.96,7.908,10.57,0,0,0,0,0,0,0,0,0,0,0,0,0,0,0,0,
433,-99.84,-68.87,-3.36,-60.11,30.43,100.3,-1.692,-0.4613,14.38,21.69,3.968,5.375,8.028,13.4,7.378,9.066,0,0,0,0,0,0,0,0,0,0,0,0,0,0,0,0,
434,21.37,60.52,6.317,-3.189,-14.01,5.294,-1.362,0.3858,7.742,14.61,-7.629,-1.086,1.702,6.342,-0.4403,-0.9736,0,0,0,0,0,0,0,0,0,0,0,0,0,0,0,0,
435,14.6,-11.95,-21.17,23.2,-18.07,-36.5,-28.4,-14.66,-4.701,-1.037,-38.49,-18.54,-19.52,-11.32,-21.61,-17.93,0,0,0,0,0,0,0,0,0,0,0,0,0,0,0,0,
436,-33.17,-34.31,-25.33,27.6,-8.266,7.603,-20.91,-7.453,-16.69,-7.71,-22.22,-9.44,-15.49,-6.351,-13.29,-6.865,0,0,0,0,0,0,0,0,0,0,0,0,0,0,0,0,
437,39.6,114.4,1.183,28.98,-37.23,-22.33,2.975,-0.3761,-7.69,-2.296,4.718,-5.296,-3.74,-5.995,2.83,3.529,0,0,0,0,0,0,0,0,0,0,0,0,0,0,0,0,
438,105.8,140.1,2.462,27.49,-60.94,-79.63,-5.274,-12.01,-14.31,-19.78,-7.909,-12.49,-10.13,-15.98,2.138,1.254,0,0,0,0,0,0,0,0,0,0,0,0,0,0,0,0,
439,56.39,15.88,-9.594,38.05,-36.71,-61.88,-18.25,-14.55,-30.92,-34.75,-20.15,-10.5,-16.21,-15.0,-3.463,-1.633,0,0,0,0,0,0,0,0,0,0,0,0,0,0,0,0,
440,-38.52,-40.85,-21.65,18.56,-18.35,-41.53,-24.19,-13.07,-35.15,-33.14,-19.51,-9.408,-16.7,-13.43,-5.93,-5.849,0,0,0,0,0,0,0,0,0,0,0,0,0,0,0,0,
441,-81.67,-23.15,-19.44,-15.54,-8.477,-24.46,-16.51,-6.244,-22.81,-19.24,-6.547,-1.577,-3.871,-2.571,2.912,-1.741,0,0,0,0,0,0,0,0,0,0,0,0,0,0,0,0,
442,-72.89,-40.69,-9.629,-29.33,3.412,3.034,-8.64,-6.099,-2.384,9.139,2.988,-2.829,1.953,1.311,5.323,-4.691,0,0,0,0,0,0,0,0,0,0,0,0,0,0,0,0,
443,-49.98,-43.07,-21.26,-33.88,-17.26,-13.31,-19.23,-17.57,-11.02,7.803,-5.643,-13.92,-9.839,-12.52,2.276,-8.874,0,0,0,0,0,0,0,0,0,0,0,0,0,0,0,0,
444,5.35,26.62,-23.81,-12.94,-31.91,-32.33,-17.86,-10.86,-26.32,-22.13,-7.093,-5.746,-10.89,-11.77,5.311,0.4472,0,0,0,0,0,0,0,0,0,0,0,0,0,0,0,0,
445,27.09,14.83,-15.13,3.805,-10.0,-5.692,-10.73,-2.31,-18.83,-25.45,-7.756,3.922,-8.812,-2.358,1.132,1.782,0,0,0,0,0,0,0,0,0,0,0,0,0,0,0,0,
446,-48.62,-78.82,-21.32,-4.502,-1.427,24.88,-16.75,-3.935,-16.79,0.257,-14.43,2.512,-8.135,-1.295,-1.333,-1.356,0,0,0,0,0,0,0,0,0,0,0,0,0,0,0,0,
447,-95.57,-48.44,-29.81,-8.061,-33.79,11.63,-25.15,-13.4,-19.88,5.571,-19.09,-14.58,-11.98,-16.8,-11.32,-13.91,0,0,0,0,0,0,0,0,0,0,0,0,0,0,0,0,
448,-45.51,33.66,-33.8,-26.22,-57.67,-28.39,-29.24,-31.16,-23.04,-25.46,-22.22,-33.97,-25.34,-33.98,-25.79,-29.3,0,0,0,0,0,0,0,0,0,0,0,0,0,0,0,0,
449,-1.106,20.7,-16.61,-33.6,-28.0,-36.17,-13.21,-20.25,-21.17,-29.16,-7.506,-18.35,-16.92,-19.29,-11.97,-14.1,0,0,0,0,0,0,0,0,0,0,0,0,0,0,0,0,
450,-10.67,-10.88,5.233,-2.3,-10.79,-18.75,-0.5681,-2.981,-10.4,-4.078,2.168,-0.9429,-5.455,-4.925,-0.0167,1.174,0,0,0,0,0,0,0,0,0,0,0,0,0,0,0,0,
451,-16.73,-21.81,1.404,5.948,-24.8,-1.036,-5.745,-7.382,-13.32,-7.527,-3.386,1.788,-9.127,-3.202,-0.4903,2.344,0,0,0,0,0,0,0,0,0,0,0,0,0,0,0,0,
452,-2.052,7.303,0.8192,0.1317,-1.237,-4.358,1.462,-1.049,-7.646,-8.883,3.072,8.473,-3.796,4.681,0.3761,1.85,0,0,0,0,0,0,0,0,0,0,0,0,0,0,0,0,
453,-10.2,86.9,-2.174,18.93,2.167,-48.48,-1.28,-5.183,3.256,-11.64,-1.097,-6.874,-10.41,-10.13,-15.41,-13.6,0,0,0,0,0,0,0,0,0,0,0,0,0,0,0,0,
454,-25.13,47.6,-9.265,8.264,-26.61,-17.34,-9.66,-13.59,-12.28,-27.55,-4.46,-14.45,-15.22,-18.22,-15.89,-12.62,0,0,0,0,0,0,0,0,0,0,0,0,0,0,0,0,
455,-36.44,-103.1,5.614,-36.82,5.728,80.87,6.684,-0.4389,-10.07,0.6292,11.06,0.9649,0.8263,0.002,-2.902,-0.861,0,0,0,0,0,0,0,0,0,0,0,0,0,0,0,0,
456,-54.57,-89.7,7.495,-21.92,28.94,48.44,10.63,-10.31,3.527,17.88,2.944,-7.246,-3.446,-4.777,-12.97,-11.98,0,0,0,0,0,0,0,0,0,0,0,0,0,0,0,0,
457,-24.74,12.69,-4.939,48.01,-8.631,-30.1,-3.11,-23.26,-8.69,-10.98,-12.43,-10.24,-10.24,-8.908,-8.896,-9.007,0,0,0,0,0,0,0,0,0,0,0,0,0,0,0,0,
458,8.87,-14.14,-5.714,47.29,-21.63,-20.09,-9.633,-6.059,-7.208,-7.862,-6.373,7.212,2.908,6.418,7.917,5.197,0,0,0,0,0,0,0,0,0,0,0,0,0,0,0,0,
459,8.877,43.42,-2.365,-25.82,-20.4,-30.39,-5.316,3.111,5.681,3.758,2.226,7.683,5.877,7.032,3.318,0.892,0,0,0,0,0,0,0,0,0,0,0,0,0,0,0,0,
460,38.85,157.8,-0.1882,-72.36,-25.47,-25.76,-1.143,-3.032,1.438,-7.419,0.1652,-4.763,-5.535,-2.824,-9.34,-9.731,0,0,0,0,0,0,0,0,0,0,0,0,0,0,0,0,
461,-21.32,-21.29,-26.22,-66.06,16.36,55.98,-21.78,-9.684,-2.135,-3.668,-15.3,-9.982,-15.11,-5.331,-14.11,-13.5,0,0,0,0,0,0,0,0,0,0,0,0,0,0,0,0,
462,-150.6,-195.8,-40.81,-10.76,63.22,81.76,-23.44,-3.903,8.864,12.34,-9.202,4.64,-3.511,9.914,2.741,2.968,0,0,0,0,0,0,0,0,0,0,0,0,0,0,0,0,
463,-62.42,-48.82,3.326,35.84,25.63,35.34,8.899,4.443,19.19,26.51,11.19,12.04,8.655,16.99,20.15,14.43,0,0,0,0,0,0,0,0,0,0,0,0,0,0,0,0,
464,132.0,78.14,16.35,26.22,-49.2,-3.02,0.3858,-8.386,-4.239,10.6,-6.834,-3.56,-6.393,-3.811,15.94,4.118,0,0,0,0,0,0,0,0,0,0,0,0,0,0,0,0,
465,118.0,87.56,-19.6,12.08,-53.05,-36.37,-24.66,-15.14,-35.43,-30.99,-21.73,-0.7402,-12.41,-7.322,13.96,4.927,0,0,0,0,0,0,0,0,0,0,0,0,0,0,0,0,
466,-43.67,70.35,-24.35,-16.68,-0.8013,-40.06,-13.85,-7.383,-22.04,-29.31,-0.0115,11.08,-1.001,8.439,14.12,9.155,0,0,0,0,0,0,0,0,0,0,0,0,0,0,0,0,
467,-115.8,-63.89,-2.001,-41.54,27.02,14.86,1.86,2.787,7.145,10.67,13.87,9.468,5.477,11.24,13.09,7.422,0,0,0,0,0,0,0,0,0,0,0,0,0,0,0,0,
468,-16.13,-83.94,13.02,3.986,6.188,36.7,6.32,9.968,12.11,18.02,3.622,3.391,2.89,0.2094,7.992,2.307,0,0,0,0,0,0,0,0,0,0,0,0,0,0,0,0,
469,84.18,99.04,2.156,27.8,-27.09,-40.4,-2.266,-12.35,-3.388,-15.23,-10.32,-9.811,-11.12,-15.11,-6.797,-12.54,0,0,0,0,0,0,0,0,0,0,0,0,0,0,0,0,
470,59.85,123.6,-13.66,9.252,-27.78,-82.85,-11.97,-18.77,-11.8,-23.55,-3.088,-2.81,-8.759,-3.983,-1.342,-8.587,0,0,0,0,0,0,0,0,0,0,0,0,0,0,0,0,
471,23.63,-37.22,-7.651,5.89,-14.86,21.28,-9.185,17.21,1.204,11.19,9.907,18.22,8.092,19.97,11.39,5.9,0,0,0,0,0,0,0,0,0,0,0,0,0,0,0,0,
472,-38.31,-144.4,-5.642,-48.37,12.88,144.3,2.322,22.88,16.49,33.42,14.87,19.22,18.3,23.19,16.21,12.21,0,0,0,0,0,0,0,0,0,0,0,0,0,0,0,0,
473,-127.0,-110.7,7.729,-74.47,62.2,101.3,26.98,0.8944,39.76,38.52,28.37,14.55,28.68,17.81,25.8,17.57,0,0,0,0,0,0,0,0,0,0,0,0,0,0,0,0,
474,-30.06,84.39,25.74,25.32,33.21,-82.1,23.06,-12.68,42.15,18.1,15.21,-1.065,8.708,-5.311,7.662,-2.042,0,0,0,0,0,0,0,0,0,0,0,0,0,0,0,0,
475,121.2,232.2,0.0416,83.28,-26.75,-135.7,-11.35,-15.4,-1.762,-32.16,-16.23,-9.169,-15.05,-17.02,-11.46,-14.34,0,0,0,0,0,0,0,0,0,0,0,0,0,0,0,0,
476,23.99,99.42,-18.08,26.27,3.838,20.25,-9.369,3.528,-7.797,-22.48,-13.49,10.57,2.85,10.54,2.281,4.095,0,0,0,0,0,0,0,0,0,0,0,0,0,0,0,0,
477,-85.08,-54.22,1.602,-4.864,1.086,72.83,4.564,9.777,11.94,17.63,-2.673,11.38,4.966,16.71,8.528,5.939,0,0,0,0,0,0,0,0,0,0,0,0,0,0,0,0,
478,54.63,17.78,13.9,25.81,-50.95,-29.39,2.273,3.188,-6.608,0.5193,10.46,6.491,-0.5074,8.71,18.59,10.53,0,0,0,0,0,0,0,0,0,0,0,0,0,0,0,0,
479,140.0,31.39,8.184,21.08,-23.68,-15.68,2.796,12.5,0.4795,-6.989,18.17,11.66,11.77,11.52,20.51,15.74,0,0,0,0,0,0,0,0,0,0,0,0,0,0,0,0,
480,18.32,-88.91,-4.635,-18.79,2.094,51.95,-4.114,7.948,17.24,4.317,-0.7624,0.5989,-0.2065,-1.842,-3.626,-2.074,0,0,0,0,0,0,0,0,0,0,0,0,0,0,0,0,
481,-39.98,-46.82,1.786,-16.66,1.255,19.12,5.07,2.458,4.463,-0.3976,10.32,5.982,0.7878,2.813,5.963,4.539,0,0,0,0,0,0,0,0,0,0,0,0,0,0,0,0,
482,-40.59,37.92,15.07,-21.65,37.88,-9.038,20.71,11.77,19.16,21.45,28.66,17.59,17.78,18.37,18.27,11.86,0,0,0,0,0,0,0,0,0,0,0,0,0,0,0,0,
483,-94.99,8.779,1.948,-45.64,42.26,1.056,3.052,7.188,25.71,32.87,2.792,4.044,3.524,3.49,-4.904,-9.12,0,0,0,0,0,0,0,0,0,0,0,0,0,0,0,0,
484,-64.54,46.27,-10.12,-8.188,11.61,3.554,-11.97,0.0843,-4.496,0.4237,-7.713,-3.724,-4.114,-8.331,-6.636,-11.83,0,0,0,0,0,0,0,0,0,0,0,0,0,0,0,0,
485,-9.374,21.61,-18.77,16.11,-8.134,26.05,-12.66,0.7469,-13.38,-17.96,1.039,-0.0734,3.515,-3.109,10.11,1.504,0,0,0,0,0,0,0,0,0,0,0,0,0,0,0,0,
486,-6.048,-105.4,-18.46,2.107,-32.02,31.82,-9.733,8.652,-1.828,-1.932,-1.915,10.51,3.99,7.727,13.73,9.66,0,0,0,0,0,0,0,0,0,0,0,0,0,0,0,0,
487,93.06,-1.093,13.96,32.99,-33.31,-19.22,5.669,15.28,5.768,13.77,-0.3086,13.41,3.364,10.09,4.798,3.675,0,0,0,0,0,0,0,0,0,0,0,0,0,0,0,0,
488,164.6,154.1,29.86,37.6,-6.716,-40.92,15.94,6.235,4.124,-2.019,7.389,-0.6212,2.419,-0.4199,2.302,-3.83,0,0,0,0,0,0,0,0,0,0,0,0,0,0,0,0,
489,72.94,72.13,20.12,5.64,9.361,-6.309,18.65,10.09,7.41,-14.75,19.38,4.562,11.18,7.196,18.08,10.32,0,0,0,0,0,0,0,0,0,0,0,0,0,0,0,0,
490,14.11,27.17,8.331,11.69,4.085,-9.517,5.079,18.09,18.67,0.9895,10.87,11.01,9.752,12.98,12.82,9.357,0,0,0,0,0,0,0,0,0,0,0,0,0,0,0,0,
491,12.65,72.7,-15.09,-7.702,-4.617,-28.12,-15.59,7.813,5.131,1.236,-10.43,2.94,-4.263,3.276,2.244,0.1903,0,0,0,0,0,0,0,0,0,0,0,0,0,0,0,0,
492,-57.69,-9.057,-15.07,-44.29,10.19,-2.839,1.828,8.012,-2.493,-1.334,1.017,9.992,4.836,9.665,17.41,12.68,0,0,0,0,0,0,0,0,0,0,0,0,0,0,0,0,
493,-110.6,-66.54,6.618,-12.2,29.83,3.346,20.65,8.519,19.9,11.43,9.854,12.58,12.55,12.14,9.337,5.368,0,0,0,0,0,0,0,0,0,0,0,0,0,0,0,0,
494,-57.82,6.671,8.914,30.75,28.32,12.95,5.941,3.454,25.76,12.32,-1.387,8.977,6.218,7.026,-9.461,-8.591,0,0,0,0,0,0,0,0,0,0,0,0,0,0,0,0,
495,29.32,9.232,4.467,6.244,7.58,44.01,-6.344,6.532,12.53,10.01,-2.934,9.401,0.7318,5.887,-4.912,-2.892,0,0,0,0,0,0,0,0,0,0,0,0,0,0,0,0,
496,88.41,-29.73,-3.513,-36.01,-31.59,-4.406,-10.0,-0.4721,-7.117,-2.286,-6.1,3.176,-8.301,-1.894,-0.0692,-0.5026,0,0,0,0,0,0,0,0,0,0,0,0,0,0,0,0,
497,105.4,23.6,-12.83,-16.03,-48.68,-42.53,-8.793,-5.385,-17.72,-12.03,-5.578,10.2,-1.252,5.858,4.538,4.621,0,0,0,0,0,0,0,0,0,0,0,0,0,0,0,0,
498,43.36,29.13,-10.42,26.51,-18.05,30.8,-4.316,-4.941,-0.5843,7.14,-0.644,14.14,5.149,14.27,-0.2432,2.927,0,0,0,0,0,0,0,0,0,0,0,0,0,0,0,0,
499,-43.35,-6.82,-3.903,-6.839,15.72,64.02,-2.012,-10.14,9.265,10.87,-3.325,1.011,-8.13,2.398,-14.14,-9.628,0,0,0,0,0,0,0,0,0,0,0,0,0,0,0,0,
500,-65.58,32.46,-3.243,-93.19,19.15,21.23,-2.418,-5.393,7.474,4.926,-4.645,-1.834,-10.57,-1.462,-16.77,-11.74,0,0,0,0,0,0,0,0,0,0,0,0,0,0,0,0,
501,-96.71,-24.1,-18.02,-101.2,11.88,17.96,-12.25,-1.357,8.558,16.73,-5.229,-0.4271,-3.576,-0.0024,-9.762,-3.872,0,0,0,0,0,0,0,0,0,0,0,0,0,0,0,0,
502,-100.5,-123.8,-17.98,10.21,13.82,15.19,-7.045,-0.6061,1.47,7.492,7.583,3.969,7.858,0.7276,10.79,13.66,0,0,0,0,0,0,0,0,0,0,0,0,0,0,0,0,
503,54.46,3.464,2.095,89.56,-22.73,-53.72,1.144,-7.172,-3.336,-20.37,10.64,1.175,4.546,-5.52,8.949,8.999,0,0,0,0,0,0,0,0,0,0,0,0,0,0,0,0,
504,155.5,166.7,-8.058,46.49,-70.78,-90.85,-16.89,-22.03,-17.64,-34.66,-18.45,-10.63,-24.65,-15.62,-21.99,-15.8,0,0,0,0,0,0,0,0,0,0,0,0,0,0,0,0,
505,35.19,88.9,-20.42,-1.192,-19.06,-13.87,-14.61,-2.194,-25.81,-15.44,-21.92,4.74,-21.26,3.399,-22.02,-10.44,0,0,0,0,0,0,0,0,0,0,0,0,0,0,0,0,
506,-38.69,-57.46,-8.223,-0.0676,28.14,41.19,-2.131,14.64,1.894,16.06,-8.877,8.395,-3.518,9.849,-18.05,-10.92,0,0,0,0,0,0,0,0,0,0,0,0,0,0,0,0,
507,61.71,8.758,4.228,10.95,-26.46,-28.22,-4.437,-9.762,8.96,-0.6187,-10.06,-15.1,-13.23,-15.29,-26.34,-23.59,0,0,0,0,0,0,0,0,0,0,0,0,0,0,0,0,
508,105.2,143.9,28.42,20.49,-24.27,-53.14,20.89,-7.085,-6.099,-22.55,17.08,-1.724,1.31,-4.34,1.27,2.738,0,0,0,0,0,0,0,0,0,0,0,0,0,0,0,0,
509,15.57,12.23,40.4,-0.6069,47.12,52.37,43.76,18.06,12.59,8.914,52.21,28.49,35.73,29.72,37.83,35.16,0,0,0,0,0,0,0,0,0,0,0,0,0,0,0,0,
510,-42.9,-124.7,30.75,-19.91,67.06,100.5,42.06,16.33,43.45,39.28,57.83,35.22,50.49,42.49,52.34,45.83,0,0,0,0,0,0,0,0,0,0,0,0,0,0,0,0,
511,-42.95,47.14,30.36,-21.4,54.99,20.11,37.69,1.704,53.92,39.58,38.58,27.34,43.65,37.05,41.24,36.33,0,0,0,0,0,0,0,0,0,0,0,0,0,0,0,0,
512,-18.73,124.4,16.41,-45.85,24.86,-25.6,11.46,-1.152,40.25,30.67,7.743,14.92,15.69,22.65,7.892,8.051,0,0,0,0,0,0,0,0,0,0,0,0,0,0,0,0,
513,73.36,-5.7,-4.931,-27.46,-7.79,5.881,-9.157,14.07,25.03,19.57,-2.303,8.625,-3.498,12.61,-9.734,-8.202,0,0,0,0,0,0,0,0,0,0,0,0,0,0,0,0,
514,77.89,-1.492,-19.88,16.43,-8.251,6.872,-9.162,7.366,19.09,5.059,-10.34,-6.539,-7.266,-6.42,-11.33,-14.31,0,0,0,0,0,0,0,0,0,0,0,0,0,0,0,0,
515,-71.21,4.148,-29.76,-13.21,-9.325,12.9,-11.26,-15.68,-0.8519,-7.701,-21.71,-19.9,-9.04,-25.48,-9.405,-15.59,0,0,0,0,0,0,0,0,0,0,0,0,0,0,0,0,
516,-80.97,-87.49,-0.5441,-43.17,-10.53,52.62,0.1082,-7.084,-9.843,-2.026,-5.038,-14.8,-6.106,-23.25,-9.971,-13.57,0,0,0,0,0,0,0,0,0,0,0,0,0,0,0,0,
517,65.86,-24.62,19.94,-19.05,-14.36,-3.596,0.9566,-8.631,-8.894,-10.77,-2.757,-21.98,-16.42,-29.44,-25.99,-24.95,0,0,0,0,0,0,0,0,0,0,0,0,0,0,0,0,
518,123.0,130.1,-1.05,9.685,-29.11,-96.0,-8.492,-19.47,-27.08,-42.75,-11.63,-18.9,-17.81,-26.31,-19.86,-16.9,0,0,0,0,0,0,0,0,0,0,0,0,0,0,0,0,
519,82.41,118.4,-0.9207,6.7,9.753,-50.77,4.973,2.026,-13.47,-26.05,3.751,6.637,4.289,2.523,0.7423,3.915,0,0,0,0,0,0,0,0,0,0,0,0,0,0,0,0,
520,-17.9,-55.24,0.6473,-44.67,66.27,68.17,3.461,6.363,25.45,20.93,3.904,7.461,6.175,6.862,-7.941,-4.883,0,0,0,0,0,0,0,0,0,0,0,0,0,0,0,0,
521,-109.6,-150.5,-17.92,-61.7,33.34,123.2,-10.73,-13.61,26.7,23.02,-5.254,-8.753,-4.873,-12.34,-15.63,-18.02,0,0,0,0,0,0,0,0,0,0,0,0,0,0,0,0,
522,-70.7,-21.7,-16.21,5.705,-31.31,51.77,-7.231,-21.68,6.224,-11.57,-4.488,-21.26,-7.492,-25.16,-12.62,-21.15,0,0,0,0,0,0,0,0,0,0,0,0,0,0,0,0,
523,21.33,151.2,-3.429,68.21,-30.26,-90.89,-5.031,-18.63,-6.264,-38.61,-7.8,-19.67,-4.75,-18.77,-11.3,-15.6,0,0,0,0,0,0,0,0,0,0,0,0,0,0,0,0,
524,84.77,152.0,0.9875,67.67,-18.72,-120.9,-5.481,-5.105,-4.303,-30.81,-4.83,-2.375,0.3146,-0.4257,-9.196,-7.305,0,0,0,0,0,0,0,0,0,0,0,0,0,0,0,0,
525,125.3,37.86,-3.177,8.963,-36.09,-42.0,-4.253,1.916,-3.201,-11.74,-0.5683,0.6712,-4.252,1.097,-12.84,-13.13,0,0,0,0,0,0,0,0,0,0,0,0,0,0,0,0,
526,88.93,-14.87,4.002,-31.99,-10.62,-12.8,7.11,3.039,-5.219,0.4344,9.167,1.591,5.549,3.888,-0.5781,-4.506,0,0,0,0,0,0,0,0,0,0,0,0,0,0,0,0,
527,-0.8729,1.451,22.64,-8.103,29.58,-2.619,20.61,5.976,15.07,19.5,20.0,6.114,21.63,11.27,11.94,7.872,0,0,0,0,0,0,0,0,0,0,0,0,0,0,0,0,
528,-35.85,-7.035,12.13,-15.42,18.25,48.1,10.59,2.809,25.07,19.0,11.78,-4.184,8.729,0.7549,-0.4401,-3.189,0,0,0,0,0,0,0,0,0,0,0,0,0,0,0,0,
529,13.77,16.11,0.5083,-40.43,16.73,50.12,7.993,9.436,15.62,7.328,8.692,-12.52,0.5657,-5.029,-8.135,-8.898,0,0,0,0,0,0,0,0,0,0,0,0,0,0,0,0,
530,47.5,82.52,8.079,1.98,26.13,-16.05,12.16,3.851,17.11,3.593,-2.358,-25.77,-6.982,-13.25,-20.16,-17.37,0,0,0,0,0,0,0,0,0,0,0,0,0,0,0,0,
531,-1.865,67.53,-1.858,35.87,8.067,-39.7,-2.119,-19.2,6.688,-15.11,-22.51,-32.06,-26.33,-21.96,-31.28,-24.31,0,0,0,0,0,0,0,0,0,0,0,0,0,0,0,0,
532,-7.544,31.51,-5.838,27.52,2.354,-4.776,-2.654,-16.42,1.159,-13.89,-11.39,-17.5,-21.97,-12.22,-22.91,-16.01,0,0,0,0,0,0,0,0,0,0,0,0,0,0,0,0,
533,75.1,49.86,-0.8482,15.11,-15.07,-1.622,-3.624,-10.05,4.55,-3.977,-15.55,-22.03,-21.2,-20.28,-26.93,-22.86,0,0,0,0,0,0,0,0,0,0,0,0,0,0,0,0,
534,89.47,19.25,-15.18,-18.44,-44.11,-17.6,-22.92,-10.41,-22.36,-25.32,-39.49,-19.26,-26.94,-24.63,-21.66,-17.77,0,0,0,0,0,0,0,0,0,0,0,0,0,0,0,0,
535,6.4,-30.33,-25.4,-22.98,-27.08,-15.81,-24.49,-2.863,-28.38,-17.17,-22.8,7.765,-10.59,-0.1992,-1.512,3.515,0,0,0,0,0,0,0,0,0,0,0,0,0,0,0,0,
536,-44.96,7.735,-18.79,15.29,-6.934,-26.86,-8.669,-2.194,-1.25,6.045,5.004,13.24,-4.286,6.688,-6.232,0.2807,0,0,0,0,0,0,0,0,0,0,0,0,0,0,0,0,
537,-15.46,20.08,-5.917,-27.44,-11.63,-5.413,1.158,7.121,2.362,-0.4783,10.06,13.71,-6.246,5.091,-7.325,-0.831,0,0,0,0,0,0,0,0,0,0,0,0,0,0,0,0,
538,3.752,-80.23,-13.32,-106.9,-12.74,36.74,-12.53,2.995,-4.631,8.278,-3.969,12.24,-5.724,4.63,-1.502,1.392,0,0,0,0,0,0,0,0,0,0,0,0,0,0,0,0,
539,-25.58,-67.62,-31.3,-38.59,-6.688,-23.62,-24.17,-25.71,-11.49,5.245,-17.29,-5.078,-16.19,-12.2,-10.08,-9.232,0,0,0,0,0,0,0,0,0,0,0,0,0,0,0,0,
540,-3.465,122.4,-10.93,80.82,-4.381,-116.6,-4.357,-22.52,-24.61,-38.52,-5.112,-11.45,-22.14,-23.77,-11.16,-11.91,0,0,0,0,0,0,0,0,0,0,0,0,0,0,0,0,
541,52.06,134.5,3.46,53.06,-32.37,-72.36,-3.616,-9.905,-31.66,-57.26,-2.718,-9.605,-21.07,-22.16,-4.411,-9.302,0,0,0,0,0,0,0,0,0,0,0,0,0,0,0,0,
542,22.84,-59.94,-18.79,-30.56,-37.28,46.91,-19.8,-13.18,-24.87,-23.66,-13.48,0.2552,-8.539,-6.652,4.726,-0.1947,0,0,0,0,0,0,0,0,0,0,0,0,0,0,0,0,
543,-68.82,-121.0,-22.06,-55.17,23.23,74.48,-7.008,-4.49,1.887,17.81,0.628,11.63,11.15,7.971,10.41,7.083,0,0,0,0,0,0,0,0,0,0,0,0,0,0,0,0,
544,-113.5,-68.42,-4.534,-46.41,41.22,26.83,7.838,1.511,20.24,18.98,18.32,6.443,14.05,1.886,10.62,4.284,0,0,0,0,0,0,0,0,0,0,0,0,0,0,0,0,
545,-16.16,-9.102,17.38,-2.558,-7.786,-6.525,14.96,0.2336,12.6,-3.262,19.33,2.021,9.348,-3.449,11.33,4.627,0,0,0,0,0,0,0,0,0,0,0,0,0,0,0,0,
546,147.8,117.4,22.77,23.14,-38.87,-58.59,11.29,-9.067,-2.312,-18.7,5.22,-12.59,-5.701,-14.76,-10.07,-12.92,0,0,0,0,0,0,0,0,0,0,0,0,0,0,0,0,
547,161.0,159.9,2.46,-1.899,-32.17,-95.57,-1.16,-21.68,-13.17,-30.94,-5.858,-28.63,-15.13,-26.46,-26.76,-29.51,0,0,0,0,0,0,0,0,0,0,0,0,0,0,0,0,
548,53.35,42.68,13.85,11.52,6.313,-21.08,15.88,-10.14,5.865,-14.84,7.832,-15.14,8.14,-8.212,-9.271,-13.46,0,0,0,0,0,0,0,0,0,0,0,0,0,0,0,0,
549,12.53,-21.16,37.23,43.04,42.49,65.09,32.2,5.444,34.46,12.68,18.64,-6.167,18.8,9.134,-1.326,-2.675,0,0,0,0,0,0,0,0,0,0,0,0,0,0,0,0,
550,17.58,-12.64,22.95,6.591,48.39,86.09,23.3,17.77,32.92,19.62,16.17,-3.778,12.75,16.74,-2.236,-0.1926,0,0,0,0,0,0,0,0,0,0,0,0,0,0,0,0,
551,1.236,-44.01,9.855,-40.37,35.6,83.85,17.32,22.98,30.36,35.31,10.4,7.768,17.33,23.34,3.154,5.004,0,0,0,0,0,0,0,0,0,0,0,0,0,0,0,0,
552,32.73,17.89,8.024,0.0533,7.92,10.97,7.398,1.268,23.37,30.15,2.544,10.22,11.74,15.74,6.109,6.487,0,0,0,0,0,0,0,0,0,0,0,0,0,0,0,0,
553,80.59,154.0,4.829,62.61,10.94,-48.94,3.327,1.409,6.535,0.4794,8.537,15.05,9.331,16.47,12.97,14.27,0,0,0,0,0,0,0,0,0,0,0,0,0,0,0,0,
554,-13.86,55.66,-3.345,12.04,34.3,39.75,4.779,19.11,12.32,8.431,6.135,13.16,11.1,17.16,2.47,7.531,0,0,0,0,0,0,0,0,0,0,0,0,0,0,0,0,
555,-119.0,-108.7,-18.4,-52.02,-2.694,81.58,-6.087,1.027,14.09,14.42,-2.338,1.387,4.965,4.424,-4.073,0.3364,0,0,0,0,0,0,0,0,0,0,0,0,0,0,0,0,
556,5.441,18.29,-8.131,-3.476,-44.02,-47.41,-3.095,-16.84,2.649,-6.605,12.23,3.21,12.24,1.4,15.57,12.81,0,0,0,0,0,0,0,0,0,0,0,0,0,0,0,0,
557,125.8,121.4,8.159,20.34,-24.12,-110.8,2.227,-9.641,-4.348,-15.5,6.783,-1.177,7.257,-8.13,4.802,2.017,0,0,0,0,0,0,0,0,0,0,0,0,0,0,0,0,
558,40.93,13.79,-2.805,-23.27,-15.97,-35.1,-10.79,2.925,-22.04,-25.6,-13.81,-7.08,-17.53,-20.11,-19.93,-15.3,0,0,0,0,0,0,0,0,0,0,0,0,0,0,0,0,
559,14.58,13.76,-14.85,-29.51,-44.57,9.339,-20.46,3.353,-37.96,-30.27,-12.28,-0.7457,-25.36,-14.69,-14.73,-10.1,0,0,0,0,0,0,0,0,0,0,0,0,0,0,0,0,
560,56.92,24.2,-21.15,-14.17,-39.15,15.1,-20.75,-6.127,-39.88,-16.88,-16.36,0.077,-19.26,-10.56,-5.367,-4.553,0,0,0,0,0,0,0,0,0,0,0,0,0,0,0,0,
561,-39.93,-63.83,-17.33,2.208,-1.161,7.186,-10.64,-2.795,-28.91,-17.86,-17.17,-4.34,-10.34,-12.94,0.1608,-1.063,0,0,0,0,0,0,0,0,0,0,0,0,0,0,0,0,
562,-87.83,1.433,-5.626,9.144,-5.487,-70.43,-5.923,-19.61,-13.91,-28.36,-4.88,-20.8,-10.17,-24.61,-4.395,-10.29,0,0,0,0,0,0,0,0,0,0,0,0,0,0,0,0,
563,36.25,70.92,-7.915,-5.474,-22.01,-91.14,-9.798,-42.59,-15.95,-16.31,1.809,-28.61,-11.55,-29.62,-13.48,-19.82,0,0,0,0,0,0,0,0,0,0,0,0,0,0,0,0,
564,66.68,-13.73,-9.891,-13.65,5.474,1.728,3.292,-12.46,-9.15,-2.446,13.29,-10.08,3.177,-15.06,-5.317,-7.724,0,0,0,0,0,0,0,0,0,0,0,0,0,0,0,0,
565,-41.64,-23.04,-3.917,-46.65,13.62,34.19,13.02,3.794,5.578,-20.44,18.61,-1.418,9.189,-6.8,2.959,-0.1617,0,0,0,0,0,0,0,0,0,0,0,0,0,0,0,0,
566,-49.66,-26.2,7.248,-60.77,-5.307,33.23,7.353,-12.77,-0.8853,-17.35,9.817,7.059,4.827,6.135,3.643,2.272,0,0,0,0,0,0,0,0,0,0,0,0,0,0,0,0,
567,35.66,-85.6,10.7,19.84,-19.36,41.04,-4.493,0.6053,-7.652,16.52,-3.57,11.7,-4.471,11.1,-3.818,-0.0046,0,0,0,0,0,0,0,0,0,0,0,0,0,0,0,0,
568,85.32,78.31,-7.591,90.4,-52.84,-65.17,-19.14,9.769,-26.28,-13.24,-14.65,-9.865,-22.43,-13.33,-11.1,-8.673,0,0,0,0,0,0,0,0,0,0,0,0,0,0,0,0,
569,106.1,254.9,-5.754,69.07,-46.33,-125.3,-9.38,4.356,-46.39,-49.98,-9.425,-8.66,-16.51,-10.85,-2.19,-0.5798,0,0,0,0,0,0,0,0,0,0,0,0,0,0,0,0,
570,35.25,63.4,3.13,-8.734,10.45,-5.461,-0.2911,7.604,-22.74,-2.334,-10.44,7.361,-1.246,10.84,-1.971,4.147,0,0,0,0,0,0,0,0,0,0,0,0,0,0,0,0,
571,-70.19,-115.3,-10.99,-65.37,22.89,75.45,-9.386,3.344,2.75,35.69,-12.58,4.423,0.7777,12.14,-1.297,5.146,0,0,0,0,0,0,0,0,0,0,0,0,0,0,0,0,
572,-8.818,-13.89,2.709,-24.5,12.58,58.55,1.335,3.459,3.879,27.68,4.229,6.689,5.334,14.57,7.163,12.41,0,0,0,0,0,0,0,0,0,0,0,0,0,0,0,0,
573,49.87,-10.66,13.49,35.97,24.11,34.97,2.242,6.81,2.73,17.73,-3.44,5.025,-0.2618,9.067,-6.532,-0.1529,0,0,0,0,0,0,0,0,0,0,0,0,0,0,0,0,
574,-16.28,-58.87,-6.271,38.01,20.39,-10.11,-9.148,4.488,5.286,1.996,-14.08,2.033,2.713,3.4,-4.737,-2.594,0,0,0,0,0,0,0,0,0,0,0,0,0,0,0,0,
575,64.89,115.5,3.441,30.21,-13.23,-30.38,4.936,2.264,18.17,5.914,5.553,7.017,16.1,11.82,10.54,8.563,0,0,0,0,0,0,0,0,0,0,0,0,0,0,0,0,
576,173.2,209.1,7.482,9.776,-26.28,-4.027,4.823,-4.86,13.56,18.5,3.881,-0.657,0.1623,5.573,-6.86,-4.011,0,0,0,0,0,0,0,0,0,0,0,0,0,0,0,0,
577,7.574,68.58,-19.84,-17.83,19.19,-1.43,-12.84,-3.891,-1.465,4.85,-12.72,-3.839,-9.803,-0.6434,-16.53,-9.727,0,0,0,0,0,0,0,0,0,0,0,0,0,0,0,0,
578,-135.8,-39.43,-19.3,-18.75,37.28,3.646,-11.26,-4.745,7.288,-2.533,-8.608,5.018,3.817,8.183,-0.6199,3.565,0,0,0,0,0,0,0,0,0,0,0,0,0,0,0,0,
579,-11.42,-62.57,7.596,-11.56,-5.617,55.93,3.398,-9.575,7.232,14.16,6.535,15.97,14.0,18.97,14.19,15.41,0,0,0,0,0,0,0,0,0,0,0,0,0,0,0,0,
580,98.47,-37.92,19.37,11.29,-13.81,54.35,9.729,2.25,0.9398,29.42,8.574,18.64,17.07,20.14,10.15,11.3,0,0,0,0,0,0,0,0,0,0,0,0,0,0,0,0,
581,55.33,47.62,2.484,38.11,0.8651,-37.41,-4.222,2.127,2.124,8.858,-9.534,3.008,5.17,5.858,-8.447,-4.859,0,0,0,0,0,0,0,0,0,0,0,0,0,0,0,0,
582,1.025,75.2,-0.8051,29.47,21.47,-29.84,3.911,2.672,3.81,-10.8,6.359,13.1,16.37,19.12,13.04,15.09,0,0,0,0,0,0,0,0,0,0,0,0,0,0,0,0,
583,-43.71,-7.584,24.18,-8.763,63.77,86.53,31.85,21.39,36.93,31.46,38.89,36.87,46.98,46.49,42.1,38.59,0,0,0,0,0,0,0,0,0,0,0,0,0,0,0,0,
584,-39.82,-54.58,20.35,-36.49,31.41,71.27,17.1,12.78,49.98,56.21,17.87,19.09,25.1,26.46,14.75,12.42,0,0,0,0,0,0,0,0,0,0,0,0,0,0,0,0,
585,105.3,51.5,9.182,7.218,-42.77,-39.03,2.316,0.7468,2.329,13.3,3.204,0.7395,-5.457,0.5448,-3.485,-3.41,0,0,0,0,0,0,0,0,0,0,0,0,0,0,0,0,
586,200.3,161.2,13.03,68.31,-32.67,-64.71,11.85,11.55,-19.79,-19.03,16.94,0.9931,4.109,0.0319,9.79,6.877,0,0,0,0,0,0,0,0,0,0,0,0,0,0,0,0,
587,60.2,41.16,-14.04,21.21,15.03,-18.06,-1.409,15.84,2.234,-12.91,3.473,3.068,11.91,4.95,10.9,9.984,0,0,0,0,0,0,0,0,0,0,0,0,0,0,0,0,
588,-117.9,-173.5,-30.59,-64.15,31.62,64.34,-7.963,12.74,21.65,22.15,-4.426,14.16,11.36,14.92,8.392,11.17,0,0,0,0,0,0,0,0,0,0,0,0,0,0,0,0,
589,-119.7,-126.7,-2.986,-34.89,12.85,67.57,4.631,-2.482,19.1,36.16,8.47,6.987,6.445,5.636,3.671,4.242,0,0,0,0,0,0,0,0,0,0,0,0,0,0,0,0,
590,17.04,125.6,16.46,63.31,-25.37,-64.44,5.831,-11.48,-6.919,-15.75,8.55,-7.379,-1.057,-11.0,-1.95,-1.255,0,0,0,0,0,0,0,0,0,0,0,0,0,0,0,0,
591,123.6,150.9,11.99,58.49,-42.31,-84.36,2.893,1.974,-16.54,-39.67,0.2179,1.979,3.533,-0.9066,1.31,3.359,0,0,0,0,0,0,0,0,0,0,0,0,0,0,0,0,
592,100.4,-61.06,7.648,-36.77,-34.09,40.9,4.564,3.538,-1.701,2.03,5.612,13.31,14.69,14.51,11.59,9.97,0,0,0,0,0,0,0,0,0,0,0,0,0,0,0,0,
593,43.75,-69.95,10.3,-47.13,-14.73,35.41,7.618,-2.596,9.689,18.06,20.78,13.82,19.15,14.86,17.24,13.51,0,0,0,0,0,0,0,0,0,0,0,0,0,0,0,0,
594,8.448,90.27,-8.733,-0.1939,-4.724,-53.42,-4.74,-6.471,9.744,-7.145,9.252,0.9606,1.05,-2.528,-1.104,-2.384,0,0,0,0,0,0,0,0,0,0,0,0,0,0,0,0,
595,-38.48,47.66,-27.83,-9.723,-15.25,-16.4,-13.94,-7.393,-5.638,-21.7,-4.52,-4.002,-11.05,-10.9,-6.972,-6.534,0,0,0,0,0,0,0,0,0,0,0,0,0,0,0,0,
596,-25.18,-73.73,-3.356,-16.15,-21.05,33.98,1.063,1.504,-12.09,-9.205,5.472,5.596,2.201,-0.3991,6.601,6.873,0,0,0,0,0,0,0,0,0,0,0,0,0,0,0,0,
597,33.1,-15.95,-1.112,-6.16,-26.9,-27.95,-4.795,-6.303,-8.291,-1.978,-6.202,-4.033,-0.8808,-7.217,-4.1,-4.934,0,0,0,0,0,0,0,0,0,0,0,0,0,0,0,0,
598,30.66,69.37,-22.28,-23.23,-10.42,-55.27,-9.178,-2.526,-8.291,-5.632,-2.568,-2.093,3.196,-4.769,3.137,-1.187,0,0,0,0,0,0,0,0,0,0,0,0,0,0,0,0,
599,-27.88,-21.69,1.137,-26.18,39.18,27.06,15.12,22.95,10.25,10.84,28.56,15.73,21.04,13.61,22.49,16.92,0,0,0,0,0,0,0,0,0,0,0,0,0,0,0,0,
600,-73.73,-142.2,9.615,6.899,19.98,65.61,3.844,5.351,12.59,14.16,6.728,1.463,-0.8662,-1.649,-2.954,-2.399,0,0,0,0,0,0,0,0,0,0,0,0,0,0,0,0,
601,7.791,-22.89,-11.77,50.83,-62.83,-10.6,-20.6,-18.95,-17.55,-15.34,-21.71,-9.937,-16.36,-17.84,-14.68,-10.54,0,0,0,0,0,0,0,0,0,0,0,0,0,0,0,0,
602,159.1,172.2,-6.273,47.5,-71.38,-77.85,-10.27,-5.375,-25.21,-30.92,-1.078,-0.6053,2.106,-9.916,6.912,6.717,0,0,0,0,0,0,0,0,0,0,0,0,0,0,0,0,
603,145.8,135.2,6.639,3.814,-1.4,-57.06,5.902,6.687,-11.41,-21.51,18.38,1.202,6.539,-6.927,9.992,8.023,0,0,0,0,0,0,0,0,0,0,0,0,0,0,0,0,
604,30.43,28.17,8.766,12.44,26.17,-35.08,12.05,5.737,5.812,-10.26,12.64,-6.65,-2.903,-16.21,-4.892,-5.95,0,0,0,0,0,0,0,0,0,0,0,0,0,0,0,0,
605,0.3117,0.4178,-4.948,25.49,-23.08,-39.79,-2.353,-7.263,6.349,-21.05,-9.858,-21.7,-14.85,-30.39,-18.31,-21.34,0,0,0,0,0,0,0,0,0,0,0,0,0,0,0,0,
606,-2.419,-84.02,-12.94,-36.1,-43.29,22.54,-11.91,-5.84,-18.32,-23.19,-11.01,-12.43,-12.9,-16.53,-8.441,-11.17,0,0,0,0,0,0,0,0,0,0,0,0,0,0,0,0,
607,-39.59,-172.0,2.985,-94.33,-0.4248,81.9,0.8304,15.36,-15.36,16.24,7.143,9.445,-0.7727,7.023,4.403,4.704,0,0,0,0,0,0,0,0,0,0,0,0,0,0,0,0,
608,-68.72,-130.4,-10.53,-79.45,13.03,24.45,-6.414,1.492,0.4367,22.21,-4.998,-2.372,-8.574,-8.581,-8.225,-8.451,0,0,0,0,0,0,0,0,0,0,0,0,0,0,0,0,
609,-36.3,23.87,-27.36,5.289,-20.92,-61.53,-11.62,-21.14,-10.67,-21.99,-13.62,-15.6,-13.67,-25.86,-14.33,-17.34,0,0,0,0,0,0,0,0,0,0,0,0,0,0,0,0,
610,45.48,155.4,-1.929,82.87,-49.79,-89.33,1.508,-11.2,-17.37,-43.97,-2.468,-12.31,-11.83,-22.49,-11.86,-13.39,0,0,0,0,0,0,0,0,0,0,0,0,0,0,0,0,
611,69.81,93.93,7.946,51.93,-20.51,-22.8,0.3519,2.636,-10.69,-29.1,0.5912,-4.536,-10.83,-10.83,-6.17,-4.455,0,0,0,0,0,0,0,0,0,0,0,0,0,0,0,0,
612,31.61,-31.41,-1.164,-20.76,38.04,82.16,-0.0635,3.787,3.573,10.01,6.084,2.277,-0.3284,1.244,4.497,3.41,0,0,0,0,0,0,0,0,0,0,0,0,0,0,0,0,
613,-4.281,-25.97,-2.654,-10.77,6.825,49.68,-4.866,-10.95,-0.2703,11.69,-4.094,-12.78,-13.12,-14.39,-10.41,-13.52,0,0,0,0,0,0,0,0,0,0,0,0,0,0,0,0,
614,-30.22,-47.41,-8.256,15.94,-47.2,-33.92,-12.47,-13.04,-29.75,-30.49,-14.89,-13.28,-26.58,-19.19,-20.42,-18.91,0,0,0,0,0,0,0,0,0,0,0,0,0,0,0,0,
615,1.272,-124.0,-11.42,-49.07,-15.12,-6.308,-0.7844,5.33,-20.99,-6.464,1.363,10.45,-5.975,8.864,-1.701,0.0059,0,0,0,0,0,0,0,0,0,0,0,0,0,0,0,0,
616,63.21,-63.16,-11.94,-88.79,-5.397,16.59,-1.466,3.34,2.688,39.94,-0.4445,8.066,1.95,10.93,3.887,2.358,0,0,0,0,0,0,0,0,0,0,0,0,0,0,0,0,
617,56.64,44.36,-4.833,14.14,-28.45,4.349,-11.26,0.2236,-8.601,10.7,-13.77,-2.251,-4.549,-5.524,-5.95,-3.748,0,0,0,0,0,0,0,0,0,0,0,0,0,0,0,0,
618,25.47,82.7,-2.366,84.7,-6.479,-6.937,-10.73,5.451,-9.9,-26.64,-10.25,-6.157,-6.909,-12.2,-15.06,-10.0,0,0,0,0,0,0,0,0,0,0,0,0,0,0,0,0,
619,21.28,125.8,-16.24,23.37,5.169,-59.0,-9.192,0.9617,5.244,-21.08,-2.183,-9.372,-6.49,-10.05,-9.96,-9.673,0,0,0,0,0,0,0,0,0,0,0,0,0,0,0,0,
620,16.68,91.15,-8.241,-8.475,-7.709,-34.5,2.94,7.975,16.57,5.032,9.068,2.057,4.921,2.701,2.684,0.6473,0,0,0,0,0,0,0,0,0,0,0,0,0,0,0,0,
621,20.75,-51.99,3.169,14.78,-9.116,75.58,3.849,11.37,13.91,19.35,0.6073,5.713,-1.765,3.377,-8.465,-5.314,0,0,0,0,0,0,0,0,0,0,0,0,0,0,0,0,
622,14.17,-78.5,-9.743,-3.244,10.52,76.42,-12.36,5.995,-5.636,14.74,-16.28,2.583,-16.27,2.269,-18.27,-12.49,0,0,0,0,0,0,0,0,0,0,0,0,0,0,0,0,
623,-18.73,-1.083,-12.75,-37.6,34.38,-7.966,-10.19,8.97,1.207,26.98,-3.246,3.081,-5.643,8.22,-12.07,-11.39,0,0,0,0,0,0,0,0,0,0,0,0,0,0,0,0,
624,1.655,-6.908,-3.66,-2.412,13.23,-24.59,2.273,2.978,17.49,27.0,8.056,-4.197,1.232,-0.3471,-10.3,-11.94,0,0,0,0,0,0,0,0,0,0,0,0,0,0,0,0,
625,72.86,-4.852,8.567,84.99,-13.95,7.042,3.952,2.696,5.005,-6.65,-9.39,-2.573,-2.769,-3.655,-7.58,-5.523,0,0,0,0,0,0,0,0,0,0,0,0,0,0,0,0,
626,79.79,50.16,4.881,68.85,-8.86,-3.515,-11.17,9.737,-3.396,-15.95,-28.33,-0.3064,-7.234,-2.487,-10.12,-8.584,0,0,0,0,0,0,0,0,0,0,0,0,0,0,0,0,
627,33.23,40.22,-15.93,-25.91,-8.0,-21.25,-14.7,7.633,-0.7053,1.616,-11.8,-1.852,-5.68,-4.51,-4.606,-8.252,0,0,0,0,0,0,0,0,0,0,0,0,0,0,0,0,
628,3.011,25.66,-7.185,-20.18,11.46,16.07,7.449,9.71,6.299,15.1,14.04,1.423,3.26,2.221,3.047,-1.854,0,0,0,0,0,0,0,0,0,0,0,0,0,0,0,0,
629,-36.95,3.389,-4.547,-3.703,35.53,43.15,-0.457,2.395,12.7,13.45,-7.34,-11.79,-7.423,-4.365,-19.66,-21.67,0,0,0,0,0,0,0,0,0,0,0,0,0,0,0,0,
630,-37.55,-74.91,-24.51,-42.16,12.54,17.91,-17.49,-4.01,6.226,-0.3197,-22.19,-15.23,-11.51,-10.24,-16.29,-19.64,0,0,0,0,0,0,0,0,0,0,0,0,0,0,0,0,
631,63.26,-1.699,-0.9962,7.377,-17.7,-21.3,4.505,3.51,5.856,-5.441,9.124,2.05,11.65,0.9165,24.9,14.96,0,0,0,0,0,0,0,0,0,0,0,0,0,0,0,0,
632,125.6,140.3,32.39,69.22,-6.949,-22.02,20.85,4.636,10.03,-4.384,28.6,11.94,24.82,11.09,38.34,28.13,0,0,0,0,0,0,0,0,0,0,0,0,0,0,0,0,
633,57.85,2.022,31.38,28.57,30.19,58.85,25.64,21.48,23.88,12.82,33.72,26.48,31.73,27.24,34.87,31.35,0,0,0,0,0,0,0,0,0,0,0,0,0,0,0,0,
634,11.09,-146.7,22.73,-7.653,14.04,87.78,26.64,32.96,42.85,29.23,34.26,26.04,30.73,25.84,31.24,28.63,0,0,0,0,0,0,0,0,0,0,0,0,0,0,0,0,
635,96.75,67.94,16.02,12.04,-43.79,-33.95,10.96,12.15,21.47,4.354,21.17,12.56,20.94,10.3,25.54,20.6,0,0,0,0,0,0,0,0,0,0,0,0,0,0,0,0,
636,152.4,249.9,8.321,35.77,-22.4,-104.2,1.715,6.133,2.205,-2.083,7.163,17.58,18.36,15.71,15.7,15.25,0,0,0,0,0,0,0,0,0,0,0,0,0,0,0,0,
637,14.12,77.53,-17.33,34.74,21.64,-23.72,-9.514,4.528,14.69,20.38,-10.06,4.242,-3.037,4.601,-11.85,-7.33,0,0,0,0,0,0,0,0,0,0,0,0,0,0,0,0,
638,-123.7,-107.9,-33.64,3.024,9.016,56.57,-16.66,-3.888,8.519,7.494,-8.242,-16.31,-17.5,-17.13,-22.02,-19.23,0,0,0,0,0,0,0,0,0,0,0,0,0,0,0,0,
639,-71.19,-118.3,-11.5,-42.51,17.87,49.02,-6.385,-0.0318,1.052,-5.711,0.8595,-11.03,-3.607,-13.54,-16.0,-13.81,0,0,0,0,0,0,0,0,0,0,0,0,0,0,0,0,
640,-7.942,-103.5,-6.298,-52.71,30.86,5.866,-7.016,-7.851,3.302,2.754,-13.58,-5.345,-3.235,-6.397,-20.61,-14.26,0,0,0,0,0,0,0,0,0,0,0,0,0,0,0,0,
641,-20.56,-58.09,-11.31,-2.106,0.6941,11.86,0.0354,-10.15,5.334,10.17,-7.749,-0.4229,-1.744,0.2701,-11.6,-5.665,0,0,0,0,0,0,0,0,0,0,0,0,0,0,0,0,
642,37.26,41.38,2.587,26.36,-35.02,20.31,5.09,-1.336,12.58,8.576,-0.0798,-7.663,-4.134,-7.5,-10.92,-10.03,0,0,0,0,0,0,0,0,0,0,0,0,0,0,0,0,
643,119.1,106.9,0.3256,-3.156,-52.39,-34.64,-12.34,-4.814,-10.02,-16.78,-12.87,-21.08,-22.04,-23.81,-19.56,-20.09,0,0,0,0,0,0,0,0,0,0,0,0,0,0,0,0,
644,61.34,102.8,-5.467,-9.14,-22.35,-50.16,-5.751,-0.2097,-26.74,-25.28,-1.038,-13.12,-11.84,-16.35,-7.825,-7.606,0,0,0,0,0,0,0,0,0,0,0,0,0,0,0,0,
645,-67.63,-3.402,-9.826,-24.46,14.72,15.52,-0.9897,-2.147,-1.98,-9.602,-3.18,-11.04,0.7223,-12.3,-9.215,-7.592,0,0,0,0,0,0,0,0,0,0,0,0,0,0,0,0,
646,-39.68,-143.0,-13.49,-75.65,-1.819,67.53,-13.84,-12.15,7.104,-2.474,-16.17,-2.001,-0.6582,-4.215,-9.089,-4.08,0,0,0,0,0,0,0,0,0,0,0,0,0,0,0,0,
647,110.1,-98.15,2.262,-30.4,-20.9,29.03,-2.006,-10.36,6.902,19.54,5.715,17.02,5.996,13.11,4.828,11.34,0,0,0,0,0,0,0,0,0,0,0,0,0,0,0,0,
648,113.0,102.2,-6.647,82.18,-24.98,-82.36,-2.748,-20.77,6.441,13.48,4.458,0.1852,-5.199,-5.616,-4.445,0.9146,0,0,0,0,0,0,0,0,0,0,0,0,0,0,0,0,
649,29.45,162.4,-20.92,68.09,-41.03,-116.1,-14.05,-21.0,-13.53,-35.25,-12.18,-15.9,-13.21,-24.25,-7.605,-4.857,0,0,0,0,0,0,0,0,0,0,0,0,0,0,0,0,
650,51.58,38.42,5.597,-31.97,-40.61,-47.7,1.815,-8.111,-19.31,-42.0,1.691,-9.402,-1.112,-16.2,2.941,1.871,0,0,0,0,0,0,0,0,0,0,0,0,0,0,0,0,
651,8.056,-55.41,9.915,-34.25,-1.988,-11.33,6.703,-16.92,-15.11,-21.47,7.807,-5.531,-0.344,-8.207,2.704,0.4127,0,0,0,0,0,0,0,0,0,0,0,0,0,0,0,0,
652,-146.4,-96.85,-15.37,-13.79,37.54,22.18,-5.4,-12.34,-5.763,-1.295,0.0438,5.659,1.661,6.335,3.814,3.419,0,0,0,0,0,0,0,0,0,0,0,0,0,0,0,0,
653,-107.8,-125.8,-18.32,-73.79,14.55,68.13,-10.86,4.479,16.68,25.3,-3.852,7.761,5.321,8.71,-0.5509,0.844,0,0,0,0,0,0,0,0,0,0,0,0,0,0,0,0,
654,119.6,-19.11,-8.868,-47.17,-41.36,15.45,-11.39,-1.647,10.29,7.975,-7.374,-6.519,-3.701,-8.946,-8.733,-7.593,0,0,0,0,0,0,0,0,0,0,0,0,0,0,0,0,
655,182.3,110.2,-5.446,50.6,-44.91,-59.14,-8.9,-10.34,-15.37,-31.87,-10.97,-14.09,-13.17,-15.85,-11.63,-12.3,0,0,0,0,0,0,0,0,0,0,0,0,0,0,0,0,
656,30.79,53.52,-2.406,27.14,-9.424,-26.78,-3.744,-6.36,-19.93,-28.49,-5.166,-6.896,-9.074,-5.588,-5.803,-6.306,0,0,0,0,0,0,0,0,0,0,0,0,0,0,0,0,
657,-40.62,-4.865,5.008,-16.36,10.24,14.94,4.781,-0.2904,-4.281,-0.54,14.79,9.42,11.16,9.817,10.98,11.75,0,0,0,0,0,0,0,0,0,0,0,0,0,0,0,0,T2
658,28.86,24.31,-4.172,-22.37,-5.82,-25.01,-1.046,-10.94,11.97,8.522,11.18,3.193,13.03,4.685,6.776,7.326,0,0,0,0,0,0,0,0,0,0,0,0,0,0,0,0,
659,47.8,-28.39,-16.82,-75.16,-23.62,-43.29,-9.548,-17.48,4.629,0.6469,-6.543,-8.965,0.5682,-5.725,-3.163,-1.695,0,0,0,0,0,0,0,0,0,0,0,0,0,0,0,0,
660,1.495,-66.66,1.812,-67.06,-5.139,1.156,0.9603,0.8359,-3.305,2.037,1.076,3.477,5.327,3.05,4.104,7.601,0,0,0,0,0,0,0,0,0,0,0,0,0,0,0,0,
661,-8.475,3.684,7.723,-4.166,-4.851,8.556,-2.313,-1.753,4.333,-1.255,-0.0985,5.431,0.2392,1.627,-0.2719,3.308,0,0,0,0,0,0,0,0,0,0,0,0,0,0,0,0,
662,49.18,67.58,-3.103,3.184,-30.89,-21.65,-2.539,-13.69,4.121,-10.32,1.14,4.817,0.2263,2.334,9.959,10.11,0,0,0,0,0,0,0,0,0,0,0,0,0,0,0,0,
663,101.1,92.59,-1.303,25.36,-14.14,-33.97,10.89,-4.622,7.65,-2.554,18.18,9.358,16.46,10.45,24.51,21.45,0,0,0,0,0,0,0,0,0,0,0,0,0,0,0,0,
664,-1.192,27.36,-22.17,49.53,26.12,-16.41,-7.466,-5.853,11.91,-8.58,1.887,-3.447,4.333,-0.7824,-0.4617,0.7917,0,0,0,0,0,0,0,0,0,0,0,0,0,0,0,0,
665,-122.7,-72.08,-21.54,23.51,33.15,24.62,-12.52,-2.529,5.6,-11.54,-10.24,1.521,-5.777,2.608,-7.959,-0.2026,0,0,0,0,0,0,0,0,0,0,0,0,0,0,0,0,
666,1.168,4.632,24.57,21.81,-5.218,12.41,13.1,2.675,0.0863,11.55,5.484,15.23,3.933,14.84,9.845,18.53,0,0,0,0,0,0,0,0,0,0,0,0,0,0,0,0,
667,155.2,94.87,29.15,21.91,-32.91,-21.11,9.866,-12.41,-10.5,7.064,2.662,6.726,0.3553,6.161,4.679,12.81,0,0,0,0,0,0,0,0,0,0,0,0,0,0,0,0,
668,75.89,-38.36,-1.052,-25.1,-3.128,18.7,-6.667,-14.02,-10.99,-1.81,-5.876,-0.5257,-6.165,-0.2749,-5.233,-0.0828,0,0,0,0,0,0,0,0,0,0,0,0,0,0,0,0,
669,-16.04,-118.2,-17.08,-40.88,9.466,11.19,-12.16,-11.4,-5.932,6.438,-3.047,-4.3,-9.354,-4.702,-2.193,-1.635,0,0,0,0,0,0,0,0,0,0,0,0,0,0,0,0,
670,41.38,40.87,-10.38,5.626,-17.64,-62.09,-1.621,-15.32,-13.61,-8.046,7.872,0.6155,0.392,-2.118,9.221,11.53,0,0,0,0,0,0,0,0,0,0,0,0,0,0,0,0,
671,90.24,140.6,10.37,23.92,-26.56,-59.07,12.58,-17.51,-6.108,-13.94,11.61,3.503,12.97,2.617,6.904,11.96,0,0,0,0,0,0,0,0,0,0,0,0,0,0,0,0,
672,41.62,52.07,-1.043,-21.86,-14.54,-19.72,-3.212,-29.26,2.415,-6.048,-1.624,-10.2,0.961,-8.151,-5.167,-0.8,0,0,0,0,0,0,0,0,0,0,0,0,0,0,0,0,
673,-49.88,-56.78,-12.69,-51.2,29.78,41.91,-4.283,-14.16,4.287,-3.412,10.26,-0.2752,4.318,1.032,10.76,16.2,0,0,0,0,0,0,0,0,0,0,0,0,0,0,0,0,
674,-87.38,-104.1,12.74,-31.24,52.45,117.4,18.27,7.834,19.48,13.63,24.18,14.08,19.68,14.9,22.58,28.02,0,0,0,0,0,0,0,0,0,0,0,0,0,0,0,0,
675,24.09,-15.82,13.92,4.348,-12.59,48.45,6.457,-14.94,10.09,11.21,0.2879,1.133,8.848,1.29,12.86,16.21,0,0,0,0,0,0,0,0,0,0,0,0,0,0,0,0,
676,173.8,146.1,-5.5,22.88,-64.06,-88.82,-9.789,-29.36,-12.44,-12.99,-9.072,-5.385,0.5086,-4.01,12.8,17.03,0,0,0,0,0,0,0,0,0,0,0,0,0,0,0,0,
677,131.5,110.9,-7.362,-11.87,-40.97,-84.84,-4.47,-18.78,-14.75,-11.87,0.0518,-3.445,-2.795,3.512,8.095,14.2,0,0,0,0,0,0,0,0,0,0,0,0,0,0,0,0,
678,-15.56,-52.62,-0.0362,-35.18,-3.276,3.437,-0.3596,-13.35,-15.06,4.058,1.909,4.602,-4.573,12.97,3.888,9.786,0,0,0,0,0,0,0,0,0,0,0,0,0,0,0,0,
679,-19.95,-76.92,6.023,19.48,15.23,33.4,-0.5364,-6.461,-2.394,8.732,6.848,10.97,5.695,15.5,7.776,12.12,0,0,0,0,0,0,0,0,0,0,0,0,0,0,0,0,
680,47.56,10.0,-11.42,53.96,17.43,-12.13,-7.761,-2.451,11.51,-5.76,2.944,0.1903,6.622,2.524,3.692,7.074,0,0,0,0,0,0,0,0,0,0,0,0,0,0,0,0,
681,16.15,84.3,-24.28,9.335,29.93,-38.88,-5.784,0.6789,10.41,-9.98,-0.306,3.676,4.245,7.013,3.828,9.628,0,0,0,0,0,0,0,0,0,0,0,0,0,0,0,0,
682,-30.34,28.39,4.728,-42.08,29.0,32.51,10.28,-2.793,11.58,20.6,10.23,16.05,6.235,22.73,5.541,14.35,0,0,0,0,0,0,0,0,0,0,0,0,0,0,0,0,
683,48.04,-75.27,29.91,-27.91,-6.327,96.06,18.83,-7.209,8.72,42.15,12.68,19.45,12.17,26.7,10.92,18.62,0,0,0,0,0,0,0,0,0,0,0,0,0,0,0,0,
684,143.3,34.43,15.0,34.39,-18.61,40.97,9.862,1.972,17.74,32.16,-4.316,20.48,15.62,23.12,8.071,16.59,0,0,0,0,0,0,0,0,0,0,0,0,0,0,0,0,
685,72.42,143.1,-10.87,41.73,-12.32,-25.61,-10.79,-9.927,11.08,7.576,-21.66,3.323,-11.64,1.472,-22.43,-7.754,0,0,0,0,0,0,0,0,0,0,0,0,0,0,0,0,
686,-4.769,57.79,-3.207,7.493,-11.49,-24.63,-11.46,-17.33,-30.34,-16.18,-11.37,-5.133,-21.23,-9.175,-24.13,-8.705,0,0,0,0,0,0,0,0,0,0,0,0,0,0,0,0,
687,78.01,69.44,4.454,17.85,-5.463,-32.3,-9.307,0.5105,-15.01,-19.05,-4.208,3.716,3.671,1.114,-7.064,5.225,0,0,0,0,0,0,0,0,0,0,0,0,0,0,0,0,
688,68.82,60.88,-23.37,34.35,6.913,-6.791,-22.23,-18.45,12.24,8.051,-15.01,3.548,-6.218,9.539,-18.04,-1.585,0,0,0,0,0,0,0,0,0,0,0,0,0,0,0,0,
689,-44.06,-101.9,-11.37,46.92,58.85,87.57,-5.109,-36.18,1.23,65.58,-7.515,28.3,0.0815,44.53,0.9005,19.47,0,0,0,0,0,0,0,0,0,0,0,0,0,0,0,0,
690,54.55,-10.78,18.97,71.28,82.68,71.49,-2.469,-11.79,88.53,94.69,-20.39,54.31,55.95,68.65,31.47,42.47,0,0,0,0,0,0,0,0,0,0,0,0,0,0,0,0,
691,214.1,223.7,5.014,54.63,14.8,-27.01,-19.86,8.112,165.7,49.43,-38.59,26.66,55.07,29.78,15.91,19.68,0,0,0,0,0,0,0,0,0,0,0,0,0,0,0,0,
692,160.2,177.5,24.14,30.29,-0.9302,10.55,25.36,23.97,31.96,4.638,0.0685,-7.751,-6.769,-8.837,-2.296,-1.931,0,0,0,0,0,0,0,0,0,0,0,0,0,0,0,0,
693,55.73,50.62,45.05,49.69,59.92,100.4,48.57,22.24,-85.71,-7.594,16.07,-0.2592,-28.01,-3.733,-2.827,-2.262,0,0,0,0,0,0,0,0,0,0,0,0,0,0,0,0,
694,78.2,79.76,19.37,83.8,73.47,115.5,15.16,4.282,4.669,-2.787,-0.2222,27.58,10.58,19.8,14.47,13.83,0,0,0,0,0,0,0,0,0,0,0,0,0,0,0,0,
695,180.7,165.0,47.16,115.3,75.55,117.5,36.04,14.58,74.89,29.46,27.96,21.36,40.38,24.3,42.56,31.18,0,0,0,0,0,0,0,0,0,0,0,0,0,0,0,0,
696,228.1,217.2,83.09,126.5,133.8,116.7,66.78,23.55,27.13,41.27,50.99,-0.3254,39.75,16.5,43.0,26.58,0,0,0,0,0,0,0,0,0,0,0,0,0,0,0,0,
697,167.7,201.2,46.98,117.0,207.9,140.6,51.07,25.3,50.11,50.98,37.06,25.14,47.34,37.62,23.39,18.11,0,0,0,0,0,0,0,0,0,0,0,0,0,0,0,0,
698,167.7,184.8,34.06,135.6,209.1,204.6,43.49,42.87,111.9,89.86,18.07,40.59,40.64,45.25,4.874,7.328,0,0,0,0,0,0,0,0,0,0,0,0,0,0,0,0,
699,302.5,267.4,84.39,198.6,130.3,195.7,53.34,42.58,59.45,69.95,11.69,15.93,17.65,19.83,3.987,2.671,0,0,0,0,0,0,0,0,0,0,0,0,0,0,0,0,
700,360.5,345.8,122.0,245.3,109.5,112.0,66.58,32.32,5.867,23.93,34.6,18.44,31.3,23.87,27.74,21.23,0,0,0,0,0,0,0,0,0,0,0,0,0,0,0,0,
701,261.6,261.7,101.6,221.8,171.0,102.5,69.47,39.15,46.11,38.29,51.4,32.22,52.46,42.63,39.11,31.4,0,0,0,0,0,0,0,0,0,0,0,0,0,0,0,0,
702,191.7,69.23,76.87,178.4,195.9,211.1,62.94,50.13,84.95,65.87,43.03,38.03,54.69,51.45,36.37,34.07,0,0,0,0,0,0,0,0,0,0,0,0,0,0,0,0,
703,220.8,-14.06,96.39,165.0,192.8,267.7,67.02,57.02,89.31,87.4,41.05,52.12,56.91,63.44,36.87,41.41,0,0,0,0,0,0,0,0,0,0,0,0,0,0,0,0,
704,220.5,102.2,102.1,168.7,210.9,166.7,70.37,58.47,77.85,100.2,44.26,50.92,51.57,59.78,31.93,36.23,0,0,0,0,0,0,0,0,0,0,0,0,0,0,0,0,
705,160.2,213.1,79.0,197.2,200.9,105.9,68.99,52.89,67.52,79.07,45.75,39.4,48.19,46.21,25.85,26.96,0,0,0,0,0,0,0,0,0,0,0,0,0,0,0,0,
706,146.2,133.4,70.81,208.8,150.0,185.5,58.28,35.87,74.35,56.97,39.32,31.97,44.0,39.21,16.5,17.84,0,0,0,0,0,0,0,0,0,0,0,0,0,0,0,0,
707,200.7,22.81,70.5,169.9,122.9,228.3,42.48,27.72,62.16,62.41,29.14,32.81,34.41,41.92,14.55,16.9,0,0,0,0,0,0,0,0,0,0,0,0,0,0,0,0,
708,228.8,56.75,74.1,165.2,129.0,179.5,49.84,44.74,42.18,79.21,30.03,41.98,41.11,49.46,22.97,25.2,0,0,0,0,0,0,0,0,0,0,0,0,0,0,0,0,
709,208.7,156.4,76.73,201.9,130.8,105.6,57.99,55.61,49.03,68.75,28.63,36.37,42.47,42.05,15.73,19.31,0,0,0,0,0,0,0,0,0,0,0,0,0,0,0,0,
710,222.5,222.9,70.51,189.0,140.8,71.86,50.96,60.3,56.47,47.97,28.44,31.82,29.23,39.29,8.903,13.03,0,0,0,0,0,0,0,0,0,0,0,0,0,0,0,0,
711,209.7,152.3,55.61,133.4,144.9,145.0,38.72,62.79,54.08,70.14,20.35,34.88,19.92,43.79,7.405,8.999,0,0,0,0,0,0,0,0,0,0,0,0,0,0,0,0,
712,81.66,-22.29,27.7,120.3,120.3,193.0,18.12,49.25,41.88,82.07,-1.9,24.03,13.98,30.49,0.2335,1.252,0,0,0,0,0,0,0,0,0,0,0,0,0,0,0,0,
713,32.18,-4.349,25.36,172.4,107.7,109.5,16.36,48.95,26.48,46.89,3.16,16.63,15.4,20.15,2.318,4.822,0,0,0,0,0,0,0,0,0,0,0,0,0,0,0,0,
714,135.5,117.2,43.28,208.0,92.87,89.89,24.63,52.12,20.76,26.41,12.84,12.53,9.675,15.58,-3.679,-0.6167,0,0,0,0,0,0,0,0,0,0,0,0,0,0,0,0,
715,159.1,11.44,40.02,173.5,79.09,182.4,23.01,47.05,14.94,40.53,9.296,17.03,7.158,19.78,-5.02,-0.4887,0,0,0,0,0,0,0,0,0,0,0,0,0,0,0,0,
716,79.42,-106.3,36.44,94.0,117.0,183.0,30.41,60.35,24.4,74.69,22.15,35.14,26.17,37.87,18.35,21.52,0,0,0,0,0,0,0,0,0,0,0,0,0,0,0,0,
717,1.221,-64.3,18.26,25.84,138.9,140.3,21.07,60.38,39.69,91.19,16.94,29.01,24.42,31.44,21.96,20.53,0,0,0,0,0,0,0,0,0,0,0,0,0,0,0,0,
718,-46.56,-44.99,-0.2329,76.71,105.4,182.4,10.4,50.6,36.31,66.81,4.007,18.87,9.455,18.69,8.697,7.887,0,0,0,0,0,0,0,0,0,0,0,0,0,0,0,0,
719,62.38,48.17,33.91,208.5,64.3,137.1,28.9,54.97,34.65,41.51,11.08,20.6,8.531,19.26,1.543,3.112,0,0,0,0,0,0,0,0,0,0,0,0,0,0,0,0,
720,232.3,207.7,53.16,235.0,33.4,-8.812,25.64,43.38,20.45,20.4,0.2166,10.14,3.937,8.883,-3.675,-5.673,0,0,0,0,0,0,0,0,0,0,0,0,0,0,0,0,
721,182.9,164.1,25.87,180.4,43.71,-10.87,8.028,41.86,3.702,10.49,-8.528,10.51,5.738,7.625,-3.162,-8.524,0,0,0,0,0,0,0,0,0,0,0,0,0,0,0,0,
722,38.3,30.31,2.295,150.1,52.78,70.81,0.099,54.24,11.14,23.52,-6.448,10.11,-2.048,7.06,-18.22,-21.18,0,0,0,0,0,0,0,0,0,0,0,0,0,0,0,0,
723,21.17,-25.39,-13.87,116.1,22.57,88.94,-12.35,43.62,0.6454,25.05,-12.84,-1.747,-18.64,-1.35,-27.18,-28.79,0,0,0,0,0,0,0,0,0,0,0,0,0,0,0,0,
724,23.5,-79.38,-6.643,99.58,31.34,97.1,-5.224,31.92,-5.418,32.07,-5.208,-0.3128,-2.419,5.234,-7.378,-14.73,0,0,0,0,0,0,0,0,0,0,0,0,0,0,0,0,
725,-5.78,-64.81,14.02,117.9,46.21,52.67,5.085,19.89,13.04,32.42,-5.196,-7.183,8.12,-0.5365,-6.181,-18.14,0,0,0,0,0,0,0,0,0,0,0,0,0,0,0,0,
726,5.093,-16.8,18.49,96.4,34.04,1.363,4.357,21.84,4.414,5.047,-10.38,-6.673,-2.716,-3.289,-10.77,-18.02,0,0,0,0,0,0,0,0,0,0,0,0,0,0,0,0,
727,-40.92,-134.4,14.15,37.55,65.67,93.03,7.705,47.44,2.975,29.74,-2.237,9.721,-2.568,14.18,-3.984,-6.621,0,0,0,0,0,0,0,0,0,0,0,0,0,0,0,0,
728,-155.0,-219.3,-10.89,27.72,77.32,170.0,-10.55,36.27,25.74,68.33,-12.92,1.206,-3.575,7.012,-7.26,-14.3,0,0,0,0,0,0,0,0,0,0,0,0,0,0,0,0,
729,-140.6,-65.91,-23.3,59.24,25.32,93.41,-21.48,10.21,20.59,34.0,-12.29,-5.165,-2.113,-5.103,1.199,-10.83,0,0,0,0,0,0,0,0,0,0,0,0,0,0,0,0,
730,-19.37,21.45,-2.52,38.79,-11.81,11.37,-5.591,11.54,-2.422,-2.066,0.4269,0.4449,-4.008,-4.31,3.089,-5.152,0,0,0,0,0,0,0,0,0,0,0,0,0,0,0,0,
731,15.46,-54.85,-3.786,8.321,-21.45,-14.06,-5.681,9.888,-15.61,-4.433,-16.74,-0.3329,-10.03,-5.327,-11.75,-13.08,0,0,0,0,0,0,0,0,0,0,0,0,0,0,0,0,
732,-32.3,-28.53,-11.76,40.39,-11.27,-57.98,-5.202,8.974,-6.923,-4.106,-14.77,6.288,1.19,2.335,-8.682,-10.16,0,0,0,0,0,0,0,0,0,0,0,0,0,0,0,0,
733,-78.84,-5.815,-5.572,28.77,-4.185,-92.19,-0.4903,7.36,5.189,-4.234,5.171,-2.893,-5.593,-5.642,-10.85,-15.61,0,0,0,0,0,0,0,0,0,0,0,0,0,0,0,0,
734,-100.3,-156.7,-7.294,-40.35,-34.07,-19.59,-6.497,3.067,-6.587,-11.56,-1.695,-14.77,-18.83,-18.02,-16.72,-19.24,0,0,0,0,0,0,0,0,0,0,0,0,0,0,0,0,
735,-123.1,-253.9,-4.952,-49.09,-40.18,66.66,-1.558,12.01,-8.358,-5.866,-4.101,0.6232,-0.8371,-2.018,-5.074,-5.311,0,0,0,0,0,0,0,0,0,0,0,0,0,0,0,0,
736,-188.3,-189.5,-5.822,-17.32,3.268,1.983,-0.2836,9.295,5.376,6.939,4.623,2.472,3.885,1.099,-2.039,-5.351,0,0,0,0,0,0,0,0,0,0,0,0,0,0,0,0,
737,-186.4,-126.4,-0.9595,1.713,4.954,-87.1,-3.707,2.538,3.568,-8.959,1.985,-11.46,-8.374,-16.63,-7.337,-12.34,0,0,0,0,0,0,0,0,0,0,0,0,0,0,0,0,
738,-103.1,-161.9,13.11,-18.16,-43.47,-65.76,4.491,3.487,-9.622,-27.45,-3.631,-12.08,-7.959,-20.12,-10.63,-14.47,0,0,0,0,0,0,0,0,0,0,0,0,0,0,0,0,
739,-157.8,-241.5,-4.23,-88.16,-18.97,-39.35,8.934,-12.54,-15.86,-16.5,5.403,-6.794,-0.4085,-9.095,-7.692,-13.61,0,0,0,0,0,0,0,0,0,0,0,0,0,0,0,0,
740,-252.6,-242.4,-15.58,-117.1,40.22,-35.44,9.255,-24.99,5.179,1.647,17.47,-11.44,7.55,-8.066,-3.072,-10.91,0,0,0,0,0,0,0,0,0,0,0,0,0,0,0,0,
741,-125.1,-188.9,7.678,-85.67,-31.75,-30.86,3.904,-16.96,13.11,-14.42,1.234,-26.39,-3.317,-28.81,-16.96,-20.03,0,0,0,0,0,0,0,0,0,0,0,0,0,0,0,0,
742,25.06,-196.5,15.19,-76.19,-126.0,-61.21,-2.277,-7.06,-27.3,-46.32,-18.32,-25.05,-22.12,-37.01,-27.95,-25.4,0,0,0,0,0,0,0,0,0,0,0,0,0,0,0,0,
743,-43.56,-221.2,-0.3039,-81.96,-87.0,-88.56,-2.457,-9.162,-47.06,-46.03,-15.79,-15.47,-21.0,-25.97,-22.52,-20.62,0,0,0,0,0,0,0,0,0,0,0,0,0,0,0,0,
744,-178.1,-219.4,-19.86,-85.27,-42.15,-85.19,-9.716,-17.15,-18.05,-35.38,-8.375,-16.42,-3.93,-18.37,-10.13,-12.38,0,0,0,0,0,0,0,0,0,0,0,0,0,0,0,0,
745,-231.2,-244.8,-28.05,-128.0,-58.37,-65.84,-9.569,-13.87,17.39,-25.16,3.124,-11.82,10.85,-8.846,2.628,-2.504,0,0,0,0,0,0,0,0,0,0,0,0,0,0,0,0,
746,-237.0,-274.5,-20.98,-178.7,-69.57,-54.48,-7.5,-18.26,17.16,-12.08,-0.9054,-17.54,-7.978,-16.32,-9.749,-13.48,0,0,0,0,0,0,0,0,0,0,0,0,0,0,0,0,
747,-228.4,-257.2,-17.17,-135.1,-74.76,-81.23,-16.25,-21.61,-24.48,-26.69,-14.23,-22.17,-27.11,-27.86,-18.91,-18.41,0,0,0,0,0,0,0,0,0,0,0,0,0,0,0,0,
748,-216.2,-219.0,-15.31,-42.92,-72.79,-98.5,-15.23,-4.146,-36.47,-38.54,-9.786,-9.052,-14.32,-17.42,-12.47,-9.353,0,0,0,0,0,0,0,0,0,0,0,0,0,0,0,0,
749,-199.1,-200.6,-24.99,-53.93,-74.76,-98.59,-24.59,-13.64,-26.86,-35.6,-21.26,-19.34,-26.8,-24.38,-28.78,-25.26,0,0,0,0,0,0,0,0,0,0,0,0,0,0,0,0,
750,-192.5,-205.4,-46.09,-126.4,-79.59,-125.4,-38.95,-31.4,-46.12,-45.47,-29.11,-27.7,-36.05,-30.74,-23.73,-23.7,0,0,0,0,0,0,0,0,0,0,0,0,0,0,0,0,
751,-236.3,-236.2,-46.89,-154.2,-68.94,-118.3,-27.63,-22.34,-34.54,-37.95,-8.762,-16.16,-8.28,-15.97,-4.033,-8.033,0,0,0,0,0,0,0,0,0,0,0,0,0,0,0,0,
752,-245.4,-263.4,-30.18,-147.5,-80.35,-71.47,-19.97,-27.5,-10.94,-28.26,-12.87,-23.2,-12.94,-20.92,-24.63,-25.28,0,0,0,0,0,0,0,0,0,0,0,0,0,0,0,0,
753,-144.9,-212.5,-15.71,-101.5,-90.88,-68.67,-19.68,-27.12,-28.34,-38.91,-29.65,-24.92,-28.22,-25.48,-28.66,-27.75,0,0,0,0,0,0,0,0,0,0,0,0,0,0,0,0,
754,-110.5,-149.0,-21.55,-79.28,-73.55,-89.63,-17.6,-14.81,-33.59,-35.35,-29.3,-22.01,-17.33,-20.71,-11.4,-16.94,0,0,0,0,0,0,0,0,0,0,0,0,0,0,0,0,
755,-216.7,-189.8,-29.77,-126.9,-67.08,-92.66,-14.02,-21.79,-22.98,-27.19,-9.614,-25.42,-7.073,-18.46,-6.781,-14.43,0,0,0,0,0,0,0,0,0,0,0,0,0,0,0,0,
756,-272.7,-236.5,-5.697,-119.6,-46.11,-94.31,11.17,-16.33,-3.273,-19.41,35.08,-6.473,18.82,2.511,19.47,12.15,0,0,0,0,0,0,0,0,0,0,0,0,0,0,0,0,
757,-230.6,-206.3,6.454,-80.83,-24.72,-77.32,29.23,-5.884,29.28,-7.274,51.67,5.983,40.62,14.8,44.45,33.01,0,0,0,0,0,0,0,0,0,0,0,0,0,0,0,0,
758,-165.4,-184.1,-0.3376,-109.8,-60.89,-40.09,22.56,-7.859,19.13,-7.084,29.12,0.9545,26.48,5.968,38.24,26.82,0,0,0,0,0,0,0,0,0,0,0,0,0,0,0,0,
759,-112.8,-176.3,3.979,-109.2,-100.0,-57.88,2.174,-8.727,-18.99,-14.7,5.08,-5.361,3.505,-5.299,20.76,13.32,0,0,0,0,0,0,0,0,0,0,0,0,0,0,0,0,
760,-143.3,-169.2,-24.81,-77.83,-85.85,-119.1,-36.39,-19.75,-31.36,-38.53,-20.98,-17.24,-7.735,-16.55,8.912,3.241,0,0,0,0,0,0,0,0,0,0,0,0,0,0,0,0,
761,-211.1,-216.6,-56.84,-125.5,-60.52,-107.4,-46.29,-21.74,-20.3,-44.18,-21.59,-9.721,-2.048,-5.776,13.8,10.73,0,0,0,0,0,0,0,0,0,0,0,0,0,0,0,0,
762,-213.8,-256.4,-45.85,-182.9,-87.22,-51.65,-28.61,-24.32,-14.62,-8.991,-11.1,-4.886,-8.522,-2.131,3.388,5.175,0,0,0,0,0,0,0,0,0,0,0,0,0,0,0,0,
763,-178.9,-189.5,-42.17,-147.7,-132.8,-62.0,-35.75,-43.83,-43.04,-17.62,-29.89,-25.85,-36.79,-31.04,-22.26,-15.98,0,0,0,0,0,0,0,0,0,0,0,0,0,0,0,0,
764,-126.1,-97.51,-41.85,-84.72,-124.1,-112.6,-38.71,-35.42,-67.57,-64.76,-37.41,-27.63,-42.08,-39.68,-16.76,-9.625,0,0,0,0,0,0,0,0,0,0,0,0,0,0,0,0,
765,-101.6,-102.6,-31.41,-86.67,-98.7,-140.9,-30.8,-26.5,-57.5,-68.43,-27.34,-15.56,-29.79,-24.45,-3.352,1.288,0,0,0,0,0,0,0,0,0,0,0,0,0,0,0,0,
766,-175.0,-164.9,-36.07,-103.5,-77.3,-124.7,-34.94,-39.56,-45.3,-44.86,-22.53,-13.83,-22.61,-15.17,-6.092,-2.187,0,0,0,0,0,0,0,0,0,0,0,0,0,0,0,0,
767,-251.0,-219.8,-45.13,-94.66,-46.93,-69.8,-37.47,-29.96,-34.6,-32.77,-20.43,-16.67,-21.61,-16.95,-8.991,-4.754,0,0,0,0,0,0,0,0,0,0,0,0,0,0,0,0,
768,-229.3,-250.6,-51.7,-123.7,-72.51,-43.82,-40.83,-18.99,-35.89,-38.98,-29.35,-17.3,-26.15,-23.5,-6.455,-3.828,0,0,0,0,0,0,0,0,0,0,0,0,0,0,0,0,
769,-161.8,-190.9,-47.52,-144.9,-119.4,-86.83,-37.93,-24.63,-46.35,-43.38,-27.51,-9.451,-19.13,-18.25,-3.92,-2.201,0,0,0,0,0,0,0,0,0,0,0,0,0,0,0,0,
770,-136.4,-91.71,-41.94,-100.4,-105.8,-142.2,-32.03,-32.29,-39.92,-42.35,-15.66,-20.42,-20.21,-24.88,-16.78,-15.57,0,0,0,0,0,0,0,0,0,0,0,0,0,0,0,0,
771,-153.3,-100.8,-47.7,-90.38,-87.59,-140.2,-33.86,-37.81,-46.97,-59.23,-20.75,-37.95,-33.06,-41.19,-22.02,-23.11,0,0,0,0,0,0,0,0,0,0,0,0,0,0,0,0,
772,-135.9,-154.7,-39.14,-121.7,-105.5,-102.3,-28.87,-29.02,-58.28,-58.83,-26.51,-26.44,-26.44,-31.77,-9.875,-11.42,0,0,0,0,0,0,0,0,0,0,0,0,0,0,0,0,
773,-103.1,-134.9,-39.7,-102.9,-114.2,-87.14,-33.03,-27.75,-45.26,-40.76,-26.2,-18.25,-20.01,-20.46,-11.85,-11.0,0,0,0,0,0,0,0,0,0,0,0,0,0,0,0,0,
774,-127.3,-85.73,-47.97,-84.95,-75.91,-75.62,-35.54,-30.65,-34.62,-40.46,-16.7,-14.52,-13.75,-11.03,-7.542,-7.143,0,0,0,0,0,0,0,0,0,0,0,0,0,0,0,0,
775,-177.7,-90.36,-29.78,-134.2,-38.36,-50.54,-21.95,-16.67,-25.74,-22.86,-8.079,-8.104,-7.699,-2.349,-0.4997,-2.55,0,0,0,0,0,0,0,0,0,0,0,0,0,0,0,0,
776,-209.5,-186.1,-33.88,-177.1,-63.21,-11.73,-27.93,-15.34,-25.32,-2.168,-20.11,-15.53,-19.86,-12.84,-9.803,-10.44,0,0,0,0,0,0,0,0,0,0,0,0,0,0,0,0,
777,-195.5,-250.6,-46.81,-141.3,-75.7,29.96,-30.44,-17.98,-29.25,-7.76,-19.45,-6.921,-9.675,-8.35,-1.729,-0.2014,0,0,0,0,0,0,0,0,0,0,0,0,0,0,0,0,
778,-149.0,-126.9,-25.15,-51.62,-41.24,-26.38,-16.76,-17.82,-10.02,-13.54,-7.078,1.686,3.771,0.6568,3.719,4.583,0,0,0,0,0,0,0,0,0,0,0,0,0,0,0,0,
779,-132.3,25.48,-14.17,27.49,-47.08,-132.0,-16.48,-28.72,-12.62,-28.56,-7.723,-10.05,-14.96,-11.42,-4.497,-3.09,0,0,0,0,0,0,0,0,0,0,0,0,0,0,0,0,
780,-103.4,-1.677,-15.87,19.1,-80.4,-118.4,-14.87,-21.02,-41.53,-38.05,-11.62,-8.938,-18.91,-14.25,-1.109,3.401,0,0,0,0,0,0,0,0,0,0,0,0,0,0,0,0,
781,-42.83,-69.12,-22.3,-59.93,-83.42,-67.95,-22.11,-9.947,-42.26,-30.88,-26.15,-8.15,-13.03,-15.18,-5.802,0.6986,0,0,0,0,0,0,0,0,0,0,0,0,0,0,0,0,
782,-52.86,-33.01,-34.14,-78.63,-64.08,-69.02,-29.3,-13.45,-22.67,-35.84,-22.84,-8.373,-10.57,-14.07,-1.172,2.259,0,0,0,0,0,0,0,0,0,0,0,0,0,0,0,0,
783,-105.2,-18.1,-19.86,-55.7,-59.18,-58.4,-11.11,-12.73,-10.89,-32.64,1.672,-4.329,-2.142,-8.266,12.79,10.77,0,0,0,0,0,0,0,0,0,0,0,0,0,0,0,0,
784,-82.53,-65.49,-11.18,-78.36,-92.08,-71.86,-11.03,-21.78,-26.13,-28.66,-2.782,-14.72,-8.579,-19.27,5.087,2.848,0,0,0,0,0,0,0,0,0,0,0,0,0,0,0,0,
785,-24.85,-42.49,-19.47,-68.52,-96.81,-106.5,-18.49,-21.89,-40.97,-40.21,-3.347,-7.961,-1.366,-14.09,12.87,13.75,0,0,0,0,0,0,0,0,0,0,0,0,0,0,0,0,
786,-44.38,6.613,-12.91,-22.2,-51.56,-99.39,-4.806,-4.233,-19.68,-36.96,10.54,8.655,18.73,4.392,29.22,32.08,0,0,0,0,0,0,0,0,0,0,0,0,0,0,0,0,
787,-101.5,-29.75,-11.29,-19.61,-41.75,-92.26,-3.191,-7.194,-6.735,-31.34,3.827,3.99,10.08,1.791,23.38,27.83,0,0,0,0,0,0,0,0,0,0,0,0,0,0,0,0,
788,-106.3,-74.6,-16.39,-43.36,-58.73,-91.57,-9.407,-20.15,-12.0,-30.42,3.135,0.3189,0.0671,-0.9323,20.67,23.32,0,0,0,0,0,0,0,0,0,0,0,0,0,0,0,0,
789,-125.5,-107.5,-18.51,-90.95,-39.47,-42.26,-10.18,-21.51,-12.92,-21.72,10.08,1.491,5.512,3.218,25.81,25.2,0,0,0,0,0,0,0,0,0,0,0,0,0,0,0,0,
790,-157.9,-169.7,-15.23,-106.5,-2.69,34.45,-3.624,-6.437,-11.44,-7.929,18.82,12.05,17.65,15.73,35.5,36.27,0,0,0,0,0,0,0,0,0,0,0,0,0,0,0,0,
791,-107.6,-164.9,-3.412,-50.62,-5.527,38.48,5.689,11.22,8.889,12.8,25.42,19.8,22.0,22.56,29.26,33.14,0,0,0,0,0,0,0,0,0,0,0,0,0,0,0,0,
792,-94.13,-103.6,-7.41,-52.03,-36.23,-16.86,-2.638,6.559,11.76,14.47,5.077,4.932,6.952,6.514,6.028,12.65,0,0,0,0,0,0,0,0,0,0,0,0,0,0,0,0,
793,-164.5,-105.7,-8.614,-92.13,-16.84,-4.208,-2.926,1.632,-5.926,7.801,-1.328,3.808,9.825,5.828,12.94,20.46,0,0,0,0,0,0,0,0,0,0,0,0,0,0,0,0,
794,-116.2,-86.62,1.639,-56.62,2.922,2.099,3.903,-5.796,6.721,7.53,11.34,5.594,15.64,8.153,20.63,24.76,0,0,0,0,0,0,0,0,0,0,0,0,0,0,0,0,
795,35.92,45.41,-5.428,-9.009,-48.24,-75.66,-7.443,-21.47,-4.618,-20.47,2.158,-4.003,-1.238,-3.004,9.212,12.26,0,0,0,0,0,0,0,0,0,0,0,0,0,0,0,0,
796,82.33,112.4,-5.549,18.53,-67.65,-91.85,-9.496,-9.681,-32.54,-32.64,-3.614,5.424,-0.4732,5.037,12.11,17.88,0,0,0,0,0,0,0,0,0,0,0,0,0,0,0,0,
797,-0.3103,1.538,-7.707,26.07,-37.61,-52.94,-10.84,-0.942,-9.434,-20.57,-4.544,3.241,-2.984,0.3599,2.962,7.62,0,0,0,0,0,0,0,0,0,0,0,0,0,0,0,0,
798,-76.93,-78.5,-21.03,-22.26,-37.64,-36.23,-14.19,-10.31,-4.527,-32.78,-5.097,-7.046,-17.38,-11.98,-4.826,-3.784,0,0,0,0,0,0,0,0,0,0,0,0,0,0,0,0,
799,-70.19,-13.01,-6.965,-41.23,-31.54,-20.11,1.673,-3.747,-29.03,-18.28,9.882,6.645,-2.45,7.338,13.78,14.44,0,0,0,0,0,0,0,0,0,0,0,0,0,0,0,0,
800,-49.01,24.57,3.763,-11.13,-8.363,-57.34,3.854,0.0069,-12.86,7.878,11.41,11.21,12.44,17.08,16.43,19.08,0,0,0,0,0,0,0,0,0,0,0,0,0,0,0,0,
801,-94.84,-45.05,-5.596,-55.06,-1.057,-41.49,-6.631,0.9761,9.07,1.163,-2.717,5.659,6.881,10.84,5.134,8.214,0,0,0,0,0,0,0,0,0,0,0,0,0,0,0,0,
802,-166.1,-153.4,-21.01,-140.5,12.4,124.2,-15.37,5.856,3.61,21.57,-13.8,2.792,0.0337,9.025,-1.934,-1.716,0,0,0,0,0,0,0,0,0,0,0,0,0,0,0,0,
803,-172.8,-226.1,-46.49,-136.9,29.2,180.7,-22.6,0.4224,7.817,44.41,-5.113,0.8256,3.724,4.652,0.2105,-3.347,0,0,0,0,0,0,0,0,0,0,0,0,0,0,0,0,
804,-106.3,-131.5,-31.03,-73.84,13.5,28.97,-0.3444,-3.475,24.06,23.24,24.63,3.536,11.06,1.417,8.911,5.212,0,0,0,0,0,0,0,0,0,0,0,0,0,0,0,0,
805,-22.75,120.8,12.27,-16.09,-28.31,-124.8,16.61,-15.21,3.432,-7.506,17.31,-11.98,-10.74,-14.6,-7.237,-7.021,0,0,0,0,0,0,0,0,0,0,0,0,0,0,0,0,
806,64.02,253.8,16.43,56.93,-38.05,-153.1,1.387,-20.73,-35.59,-38.46,-12.19,-24.68,-26.21,-27.5,-19.78,-18.9,0,0,0,0,0,0,0,0,0,0,0,0,0,0,0,0,
807,116.9,123.0,10.07,89.41,-22.47,-44.44,-2.812,-5.274,-25.68,-46.8,-5.001,-12.28,-4.439,-15.09,-5.081,-7.528,0,0,0,0,0,0,0,0,0,0,0,0,0,0,0,0,
808,88.76,-4.538,11.68,32.33,-35.85,34.01,0.6557,-14.42,-10.96,-23.69,4.617,-10.1,-2.903,-8.887,-3.029,-3.868,0,0,0,0,0,0,0,0,0,0,0,0,0,0,0,0,
809,43.71,57.77,1.607,-14.09,-33.24,-48.09,-5.22,-30.69,-31.95,-13.95,-1.872,-14.9,-16.92,-14.07,-9.287,-6.572,0,0,0,0,0,0,0,0,0,0,0,0,0,0,0,0,
810,-16.94,38.43,-13.04,-16.5,-10.78,-79.23,-15.02,-19.9,-33.26,-25.69,-9.781,-12.81,-15.39,-16.79,-13.66,-9.298,0,0,0,0,0,0,0,0,0,0,0,0,0,0,0,0,
811,-87.24,-117.2,-14.95,-24.9,-22.53,34.81,-13.58,-8.481,-19.94,-23.64,-13.4,-1.954,-11.91,-5.275,-17.07,-7.298,0,0,0,0,0,0,0,0,0,0,0,0,0,0,0,0,
812,-45.0,-93.33,-2.234,-43.81,-15.84,67.47,0.9679,-2.34,-17.87,11.22,-7.314,11.64,-3.465,14.25,-9.87,1.007,0,0,0,0,0,0,0,0,0,0,0,0,0,0,0,0,
813,6.613,32.05,-11.18,-78.28,9.913,-13.47,-12.86,-7.534,-9.263,26.5,-14.63,-1.982,-1.754,3.296,-9.594,-6.005,0,0,0,0,0,0,0,0,0,0,0,0,0,0,0,0,
814,-55.83,47.51,-23.14,-70.86,7.63,-46.27,-22.38,-22.51,6.34,2.058,-11.55,-13.74,-6.865,-9.164,-11.2,-9.242,0,0,0,0,0,0,0,0,0,0,0,0,0,0,0,0,
815,-96.03,12.42,-4.131,-3.581,19.5,-29.83,9.418,-24.58,15.36,1.706,16.43,-4.685,-7.355,0.2174,-8.357,-4.027,0,0,0,0,0,0,0,0,0,0,0,0,0,0,0,0,
816,-73.18,-55.8,-5.133,13.77,27.87,-9.134,13.13,-13.64,0.0456,4.426,11.7,-7.832,-13.5,-6.469,-10.11,-7.629,0,0,0,0,0,0,0,0,0,0,0,0,0,0,0,0,
817,-14.97,-28.63,-10.48,-4.835,-5.386,22.18,-5.871,2.817,-13.14,-13.19,-8.963,-6.526,-10.51,-9.514,-6.496,-3.867,0,0,0,0,0,0,0,0,0,0,0,0,0,0,0,0,
818,44.97,120.9,11.28,11.68,-30.31,21.05,-4.087,0.5097,-5.533,-9.228,-9.443,-3.287,-8.301,-4.564,-11.21,-6.739,0,0,0,0,0,0,0,0,0,0,0,0,0,0,0,0,
819,23.53,120.2,12.04,28.79,-27.1,-25.63,-2.92,-17.3,-21.54,-15.76,-4.448,-12.02,-17.42,-14.88,-13.92,-11.24,0,0,0,0,0,0,0,0,0,0,0,0,0,0,0,0,
820,29.39,81.22,5.451,28.18,-17.53,-80.59,1.059,-23.99,-37.6,-26.53,3.259,-12.77,-15.07,-19.7,-5.348,-4.047,0,0,0,0,0,0,0,0,0,0,0,0,0,0,0,0,
821,40.67,118.0,0.7485,-4.207,-1.362,-66.64,-4.07,-26.66,-26.29,-2.582,-7.885,-16.48,-18.36,-22.35,-19.51,-16.26,0,0,0,0,0,0,0,0,0,0,0,0,0,0,0,0,
822,-77.73,-29.45,-12.8,-53.56,18.34,73.63,-14.28,-3.317,-22.09,9.408,-17.72,-10.3,-15.1,-15.69,-20.75,-16.61,0,0,0,0,0,0,0,0,0,0,0,0,0,0,0,0,
823,-51.55,-125.6,5.915,-53.58,4.691,133.8,7.619,18.63,-12.19,8.057,9.411,5.862,6.553,3.924,5.177,5.864,0,0,0,0,0,0,0,0,0,0,0,0,0,0,0,0,
824,147.1,68.98,24.78,-6.695,-27.9,-18.08,21.44,-12.48,-2.208,8.715,21.98,-2.779,3.919,1.5,6.947,3.808,0,0,0,0,0,0,0,0,0,0,0,0,0,0,0,0,
825,96.9,122.8,3.413,41.64,-6.976,-99.54,1.35,-16.36,-2.946,-12.53,2.19,-6.127,-2.435,-4.865,3.508,0.9962,0,0,0,0,0,0,0,0,0,0,0,0,0,0,0,0,
826,-83.12,-29.74,-14.94,27.63,19.47,-26.52,-13.74,14.12,4.918,-27.7,-8.277,2.376,2.567,-1.451,7.141,8.024,0,0,0,0,0,0,0,0,0,0,0,0,0,0,0,0,
827,-39.96,-26.9,-2.951,-41.04,-1.849,-2.629,0.063,5.0,-4.682,-12.47,4.982,-0.2185,-3.673,-2.839,-0.5648,2.627,0,0,0,0,0,0,0,0,0,0,0,0,0,0,0,0,
828,42.0,74.29,19.61,-40.26,6.162,-10.16,23.45,-2.915,-9.782,11.12,16.23,-2.322,-5.114,-2.889,-12.65,-9.736,0,0,0,0,0,0,0,0,0,0,0,0,0,0,0,0,
829,-13.83,101.0,6.781,10.75,29.34,-0.7111,7.786,-1.415,7.907,10.96,-6.053,-12.97,-10.97,-11.25,-27.02,-25.12,0,0,0,0,0,0,0,0,0,0,0,0,0,0,0,0,
830,-46.95,53.31,-18.96,3.982,13.85,10.09,-12.36,-6.116,4.175,-6.726,-16.02,-15.24,-14.63,-11.36,-19.38,-17.95,0,0,0,0,0,0,0,0,0,0,0,0,0,0,0,0,
831,-33.93,-47.26,-2.867,-23.91,-2.593,51.83,8.341,4.456,8.857,0.1152,7.386,-1.972,-0.268,1.672,0.1156,-0.4265,0,0,0,0,0,0,0,0,0,0,0,0,0,0,0,0,
832,-44.16,-43.35,9.525,-19.49,-16.79,42.06,10.83,-1.491,16.75,8.941,4.028,-4.587,-2.78,-3.9,-3.326,-5.728,0,0,0,0,0,0,0,0,0,0,0,0,0,0,0,0,
833,25.14,93.96,9.125,3.631,-18.62,-22.9,0.7512,-2.554,-12.4,-4.095,-5.114,0.2458,-7.064,-2.97,-1.858,-2.575,0,0,0,0,0,0,0,0,0,0,0,0,0,0,0,0,
834,124.3,101.5,25.88,5.015,9.347,-13.69,16.34,22.92,-16.13,-3.875,11.42,13.42,4.165,12.49,6.155,7.9,0,0,0,0,0,0,0,0,0,0,0,0,0,0,0,0,
835,46.18,-16.56,14.49,-11.89,33.31,40.3,13.97,16.67,13.47,10.32,16.19,12.36,7.022,18.93,7.462,8.638,0,0,0,0,0,0,0,0,0,0,0,0,0,0,0,0,
836,-96.87,-19.67,-10.54,15.86,40.11,32.22,-2.115,-4.598,19.15,19.64,4.175,10.06,6.789,18.59,11.16,10.13,0,0,0,0,0,0,0,0,0,0,0,0,0,0,0,0,
837,-66.85,68.12,-1.726,33.31,14.61,-45.05,0.8389,-5.812,1.618,8.268,-5.522,-1.993,-0.6192,1.942,5.267,2.518,0,0,0,0,0,0,0,0,0,0,0,0,0,0,0,0,
838,44.2,106.0,8.589,-28.62,-13.91,-72.07,8.606,-2.954,-12.22,-6.121,6.359,-6.939,-4.0,-5.997,10.79,4.657,0,0,0,0,0,0,0,0,0,0,0,0,0,0,0,0,
839,16.48,20.04,-3.769,-61.91,4.214,23.88,6.589,2.531,-0.6708,13.84,20.31,2.605,4.586,4.007,19.67,11.05,0,0,0,0,0,0,0,0,0,0,0,0,0,0,0,0,
840,-64.7,-93.97,-12.31,-3.168,1.25,63.33,-2.602,4.204,3.422,12.43,-0.0994,-5.501,-9.483,-6.388,-6.429,-7.725,0,0,0,0,0,0,0,0,0,0,0,0,0,0,0,0,
841,41.74,12.79,0.151,43.88,-39.74,-37.34,-6.116,3.819,-21.18,-24.16,-17.76,-4.703,-25.01,-10.22,-23.27,-13.0,0,0,0,0,0,0,0,0,0,0,0,0,0,0,0,0,
842,158.2,176.6,-2.735,0.3049,-29.48,-73.22,-9.525,4.845,-20.45,-17.51,-13.72,9.931,-17.11,4.454,-9.095,1.673,0,0,0,0,0,0,0,0,0,0,0,0,0,0,0,0,
843,7.943,91.01,-16.87,-38.78,20.28,-2.552,-8.736,2.655,4.233,6.522,-8.427,4.461,-8.964,2.324,2.274,4.703,0,0,0,0,0,0,0,0,0,0,0,0,0,0,0,0,
844,-107.2,-14.75,6.083,22.81,23.61,19.19,0.5019,0.0809,3.2,-5.235,-8.519,-10.38,-9.567,-11.54,-2.721,-4.165,0,0,0,0,0,0,0,0,0,0,0,0,0,0,0,0,
845,9.5,-13.17,8.977,49.9,-18.11,5.971,-13.85,-12.23,-24.59,-25.48,-26.74,-20.12,-23.31,-22.78,-18.76,-17.85,0,0,0,0,0,0,0,0,0,0,0,0,0,0,0,0,
846,20.23,-65.97,-28.58,-26.18,-15.1,33.47,-21.4,-13.88,-34.74,-19.68,-21.73,-10.85,-26.15,-13.24,-13.22,-11.79,0,0,0,0,0,0,0,0,0,0,0,0,0,0,0,0,
847,-71.0,-17.04,-22.55,-36.07,18.24,20.21,3.997,-3.294,-5.817,4.407,12.36,3.415,-8.559,3.664,4.12,3.553,0,0,0,0,0,0,0,0,0,0,0,0,0,0,0,0,
848,8.443,160.6,9.788,30.01,-9.824,-56.88,9.947,-13.88,4.372,-0.4801,6.999,0.2739,-2.827,-0.8717,3.979,4.285,0,0,0,0,0,0,0,0,0,0,0,0,0,0,0,0,
849,104.1,165.9,20.79,39.84,-31.56,-73.07,4.214,-9.094,-14.89,-15.88,-10.05,5.08,0.1054,0.0566,6.258,7.69,0,0,0,0,0,0,0,0,0,0,0,0,0,0,0,0,
850,48.67,31.46,16.73,8.524,9.412,-29.35,4.923,14.2,-12.5,-2.078,-2.27,7.385,1.654,2.86,1.863,2.471,0,0,0,0,0,0,0,0,0,0,0,0,0,0,0,0,
851,-4.557,5.359,2.784,-20.83,28.62,-8.397,2.386,11.1,-1.711,4.788,5.944,0.5053,-1.933,-1.206,-5.471,-5.208,0,0,0,0,0,0,0,0,0,0,0,0,0,0,0,0,
852,7.484,53.49,2.648,-42.66,10.4,3.397,13.25,5.086,7.138,5.058,12.13,6.055,5.545,7.158,-0.7901,-1.654,0,0,0,0,0,0,0,0,0,0,0,0,0,0,0,0,
853,14.84,33.92,2.95,-12.79,-11.97,-6.19,6.603,0.8128,8.239,1.022,-0.078,-2.451,-0.7874,-1.328,-10.89,-10.98,0,0,0,0,0,0,0,0,0,0,0,0,0,0,0,0,
854,25.39,30.08,-6.21,53.38,-19.27,-46.01,-13.59,-7.663,-9.725,-24.31,-12.07,-11.63,-8.021,-13.29,-5.74,-3.304,0,0,0,0,0,0,0,0,0,0,0,0,0,0,0,0,
