%OpenBCI Raw EXG Data
%Number of channels = 16
%Sample Rate = 125 Hz
%Board = OpenBCI_GUI$BoardCytonSerialDaisy
Sample Index,EXG Channel 0,EXG Channel 1,EXG Channel 2,EXG Channel 3,EXG Channel 4,EXG Channel 5,EXG Channel 6,EXG Channel 7,EXG Channel 8,EXG Channel 9,EXG Channel 10,EXG Channel 11,EXG Channel 12,EXG Channel 13,EXG Channel 14,EXG Channel 15,Accel Channel 0,Accel Channel 1,Accel Channel 2,Other,Other,Other,Other,Other,Other,Other,Analog Channel 0,Analog Channel 1,Analog Channel 2,Timestamp,Other,Timestamp (Formatted),Annotations
1,-0,0,0,0,0,0,0,0,-0,0,-0,0,-0,0,0,0,0,0,0,0,0,0,0,0,0,0,0,0,0,0,0,0,T0
2,-5.631,4.932,-4.873,15.38,-5.035,1.747,2.405,-16.21,-9.896,-5.854,-1.56,-3.737,0.2897,0.261,0.3135,5.16,0,0,0,0,0,0,0,0,0,0,0,0,0,0,0,0,
3,-14.21,3.09,-28.09,-14.97,-20.81,-1.105,0.1616,-44.12,-9.077,7.267,-9.163,-14.65,-5.515,-3.335,-7.834,-2.748,0,0,0,0,0,0,0,0,0,0,0,0,0,0,0,0,
4,-23.69,-3.256,-25.7,-19.42,-29.82,-9.081,-13.76,-28.51,-4.728,0.5859,-14.3,-22.8,-13.24,-9.92,-10.42,-10.96,0,0,0,0,0,0,0,0,0,0,0,0,0,0,0,0,
5,-27.25,-6.543,-9.617,-12.74,-29.71,-15.22,-14.5,-11.06,-6.001,-22.27,-10.34,-20.57,-16.52,-11.67,-6.721,-11.59,0,0,0,0,0,0,0,0,0,0,0,0,0,0,0,0,
6,-20.79,-5.031,-23.99,-43.41,-25.15,-4.983,6.407,-26.2,-4.021,-13.7,-4.114,-16.36,-18.32,-10.32,-7.402,-12.91,0,0,0,0,0,0,0,0,0,0,0,0,0,0,0,0,
7,-17.76,-9.245,-27.45,-36.21,-16.53,4.333,2.41,-16.68,0.823,5.948,-6.531,-20.24,-24.98,-14.7,-12.02,-18.48,0,0,0,0,0,0,0,0,0,0,0,0,0,0,0,0,
8,-29.85,-17.89,-5.538,2.156,-23.12,-7.526,-19.16,-10.43,-3.786,-5.943,-13.73,-27.12,-28.5,-16.42,-13.74,-18.89,0,0,0,0,0,0,0,0,0,0,0,0,0,0,0,0,
9,-40.79,-15.26,-10.28,-13.7,-40.21,-14.52,-7.392,-33.91,-10.03,-21.08,-13.46,-27.75,-22.27,-9.142,-10.34,-11.07,0,0,0,0,0,0,0,0,0,0,0,0,0,0,0,0,
10,-41.91,-14.22,-20.57,-28.29,-39.08,-13,1.706,-30.27,-15.34,-13.04,-13.41,-28.52,-21.33,-6.978,-13.18,-9.847,0,0,0,0,0,0,0,0,0,0,0,0,0,0,0,0,
11,-44.99,-29.14,-10.97,-10.86,-32.67,-20.43,-18.62,-19.5,-25.89,-11.35,-20.68,-31.51,-26.89,-9.191,-22.28,-13.44,0,0,0,0,0,0,0,0,0,0,0,0,0,0,0,0,
12,-44.31,-34.25,-13.29,-20.18,-38.57,-24.1,-19.94,-25.17,-20.68,-18.47,-19.39,-25.22,-22.9,-3.7,-20.09,-8.472,0,0,0,0,0,0,0,0,0,0,0,0,0,0,0,0,
13,-35.57,-24.13,-16.62,-23.42,-43.23,-25.44,-14.3,-17.95,2.667,-8.85,-9.192,-15.12,-17.83,-0.5113,-12.9,-7.103,0,0,0,0,0,0,0,0,0,0,0,0,0,0,0,0,
14,-31.68,-22.39,-14.7,-12.24,-41.3,-19.5,-25.57,-29.27,10.3,-8.522,-4.867,-11.16,-17.34,-3.799,-12.33,-10.3,0,0,0,0,0,0,0,0,0,0,0,0,0,0,0,0,
15,-28.13,-18.71,-23.09,-34.35,-32.2,-1.43,-13.13,-53.17,-0.6565,-35.9,-1.999,-4.746,-6.256,-0.2659,-7.417,-1.618,0,0,0,0,0,0,0,0,0,0,0,0,0,0,0,0,
16,-18.39,-2.103,-23.23,-48.26,-32.41,-16.46,13.06,-40.82,-10.43,-37.9,3.018,4.059,7.779,5.695,1.157,5.917,0,0,0,0,0,0,0,0,0,0,0,0,0,0,0,0,
17,-12.07,7.383,-29.63,-37.15,-59.64,-38.15,13.08,-31.89,-11.63,-0.1987,4.156,7.026,11.8,5.199,3.633,2.843,0,0,0,0,0,0,0,0,0,0,0,0,0,0,0,0,
18,-10.08,7.29,-38.68,-33.64,-62.73,-1.444,2.524,-38.41,0.7096,11.69,3.519,8.011,14.81,5.993,2.471,1.982,0,0,0,0,0,0,0,0,0,0,0,0,0,0,0,0,
19,-11.89,11.05,-7.108,-20.22,-26.68,20.49,-5.294,-13.05,10.57,-14.33,0.8634,6.589,16.68,8.653,-0.9496,-0.1224,0,0,0,0,0,0,0,0,0,0,0,0,0,0,0,0,
20,-19.41,15.12,13.58,1.38,-26.2,-16.99,-10.7,11.57,0.0794,-22.45,-4.693,-0.1353,13.39,5.917,-4.517,-5.303,0,0,0,0,0,0,0,0,0,0,0,0,0,0,0,0,
21,-24.36,13.07,-8.664,14.56,-48.48,-24.06,-2.093,-6.219,-10.11,-7.725,-7.399,-5.475,12.05,1.739,-3.554,-3.735,0,0,0,0,0,0,0,0,0,0,0,0,0,0,0,0,
22,-26.14,7.167,-13.51,20.7,-43.93,-1.488,9.223,-22.98,-9.647,-3.86,-9.975,-8.461,9.45,1.398,-1.712,-2.11,0,0,0,0,0,0,0,0,0,0,0,0,0,0,0,0,
23,-30.15,1.591,-8.088,8.249,-54.49,-15.73,3.597,-11.1,-13.37,-10,-14.9,-11.98,2.851,2.143,-4.148,-7.021,0,0,0,0,0,0,0,0,0,0,0,0,0,0,0,0,
24,-32.88,1.688,-5.17,-8.034,-72.44,-33.44,-3.427,-9.375,-15.84,-16.14,-15.27,-14.34,0.6356,1.014,-9.238,-11.19,0,0,0,0,0,0,0,0,0,0,0,0,0,0,0,0,
25,-35.17,4.682,2.137,-11.55,-65.54,-23.64,3.498,-20.44,-12.1,-18.02,-14,-18.58,-1.785,-1.409,-12.69,-12.46,0,0,0,0,0,0,0,0,0,0,0,0,0,0,0,0,
26,-41.97,-4.411,-36.59,-12.8,-69.95,-15.25,1.561,-8.04,-8.889,-10.24,-15.37,-23.78,-10.41,-2.247,-11.78,-11.97,0,0,0,0,0,0,0,0,0,0,0,0,0,0,0,0,
27,-48.97,-24,-61.55,-14.48,-60.75,-15.02,-12.52,-4.584,-4.818,-10.55,-11.27,-21.04,-14.89,-1.521,-6.149,-9.349,0,0,0,0,0,0,0,0,0,0,0,0,0,0,0,0,
28,-49.4,-33.82,0.4018,-19.71,-32.16,-19.65,-11.48,-29.91,-9.312,-22.38,-6.37,-16.89,-16.05,-4.333,-3.871,-11.26,0,0,0,0,0,0,0,0,0,0,0,0,0,0,0,0,
29,-49.94,-36.98,17.81,-9.285,-61.84,-29.66,-10.95,-24.36,-22.44,-17.95,-13.48,-24.64,-24.64,-10.35,-12.73,-19.72,0,0,0,0,0,0,0,0,0,0,0,0,0,0,0,0,
30,-61.68,-44.53,-40.34,21.18,-99.18,-31.76,-23.54,-3.027,-20.8,-9.141,-22.18,-34.14,-31.22,-12.47,-19.22,-22.91,0,0,0,0,0,0,0,0,0,0,0,0,0,0,0,0,
31,-71.71,-42.56,-34.94,20.06,-72.84,-31.52,-17.71,-20.27,-11.67,-18.69,-21.36,-31.29,-24.83,-8.769,-13.69,-17.49,0,0,0,0,0,0,0,0,0,0,0,0,0,0,0,0,
32,-63.63,-30.42,0.9207,-4.858,-61.76,-38.62,-6.396,-34.41,-14.51,-18.94,-18.59,-23.2,-12.32,-1.891,-8.841,-10.57,0,0,0,0,0,0,0,0,0,0,0,0,0,0,0,0,
33,-52.77,-24.19,-9.559,-5.665,-85.14,-37.23,-16.54,-21.47,-16.91,-2.481,-15.05,-17.36,1.108,5.844,-5.116,-1.175,0,0,0,0,0,0,0,0,0,0,0,0,0,0,0,0,
34,-51.41,-18.47,-11.68,4.428,-82.56,-29.02,-23.36,-18.02,-13.42,-1.697,-9.932,-11.32,12.88,10.38,0.8347,6.814,0,0,0,0,0,0,0,0,0,0,0,0,0,0,0,0,
35,-47.92,-8.893,-6.669,3.453,-72.92,-28.98,-19.34,-28.43,-10.59,-12.72,-10.59,-6.405,17.3,10.26,-1.329,4.365,0,0,0,0,0,0,0,0,0,0,0,0,0,0,0,0,
36,-41.75,-4.276,-19.66,-18.36,-80.47,-27.28,-16.27,-39.42,-9.552,-12.69,-14.35,-5.602,17.31,8.852,-6.246,-1.332,0,0,0,0,0,0,0,0,0,0,0,0,0,0,0,0,
37,-40.16,-3.836,-21.36,-39.57,-92.11,-23.34,-11.17,-38.6,-15.94,-9.753,-14.12,-6.962,17.18,7.626,-3.852,-1.593,0,0,0,0,0,0,0,0,0,0,0,0,0,0,0,0,
38,-39.15,-5.963,-23.79,-17.35,-97.5,-26.44,-13.4,-24.73,-16.69,-12.1,-9.51,-5.984,14.44,4.619,0.1747,-0.4362,0,0,0,0,0,0,0,0,0,0,0,0,0,0,0,0,
39,-37.58,-11.16,-20.68,9.839,-80.88,-22.58,-19.54,-22.41,-2.359,-12.31,-3.24,-3.508,8.801,-0.7562,1.303,-2.534,0,0,0,0,0,0,0,0,0,0,0,0,0,0,0,0,
40,-38.58,-15.38,9.231,2.937,-61.49,-13.02,-13.51,-32.4,-0.6242,-17.05,-2.646,-6.976,0.5989,-5.716,-3.27,-9.371,0,0,0,0,0,0,0,0,0,0,0,0,0,0,0,0,
41,-40.91,-21.24,14.7,-4.808,-67.95,-13.24,-8.789,-37.15,-9.002,-29.33,-6.759,-13.92,-10.58,-9.397,-10.42,-17.62,0,0,0,0,0,0,0,0,0,0,0,0,0,0,0,0,
42,-43.69,-33.41,-5.809,-11.92,-74.42,-9.5,-14.42,-40.89,1.148,-30.56,-5.533,-15.47,-21.67,-14.87,-9.489,-20.47,0,0,0,0,0,0,0,0,0,0,0,0,0,0,0,0,
43,-47.87,-48.25,0.3316,-17.74,-70.3,-3.646,-17.45,-45.76,9.463,-23.53,-3.036,-18.63,-30.72,-20.68,-6.264,-17.84,0,0,0,0,0,0,0,0,0,0,0,0,0,0,0,0,
44,-54.58,-58.92,5.606,-6.582,-79.04,-17.09,-15.49,-45.54,-3.041,-26.01,-7.406,-30.17,-36.06,-21.76,-12.24,-16.47,0,0,0,0,0,0,0,0,0,0,0,0,0,0,0,0,
45,-61.89,-59.85,-10.59,-11.82,-86.53,-26.66,-13.07,-38.94,-12.04,-28.52,-12.87,-37.64,-33.93,-19.69,-19.46,-19.35,0,0,0,0,0,0,0,0,0,0,0,0,0,0,0,0,
46,-65.47,-51.5,-8.486,-25.16,-78.41,-16.15,-12.83,-30.82,-10.16,-25.22,-15.43,-35.22,-26.8,-17.91,-19.37,-21.86,0,0,0,0,0,0,0,0,0,0,0,0,0,0,0,0,
47,-67.06,-40.37,3.738,-10.79,-79.98,-17.69,-15.56,-32.28,-10.81,-24.24,-19.01,-33.28,-20.63,-15.08,-18.46,-22.01,0,0,0,0,0,0,0,0,0,0,0,0,0,0,0,0,
48,-68.65,-30.34,-4.918,-6.462,-92.97,-30.85,-15.5,-39.28,-13.29,-19.51,-21.65,-32.61,-13.61,-11.35,-17.63,-20.38,0,0,0,0,0,0,0,0,0,0,0,0,0,0,0,0,
49,-65.95,-21.59,-16.12,-23.63,-95.67,-30.34,-12.99,-39.46,-12.5,-12.52,-19.15,-26.78,-2.695,-6.553,-10.76,-13.18,0,0,0,0,0,0,0,0,0,0,0,0,0,0,0,0,
50,-61.12,-14.43,-12.28,-23.81,-96.43,-28.13,-14.38,-37.67,-9.428,-10.56,-16.35,-20.45,7.071,2.927,-5.214,-4.761,0,0,0,0,0,0,0,0,0,0,0,0,0,0,0,0,
51,-59.04,-8.387,-8.792,-18.53,-99.56,-31.1,-15.25,-36.94,-8.364,-7.964,-15.36,-17.27,11.38,12.01,-5.67,-4.12,0,0,0,0,0,0,0,0,0,0,0,0,0,0,0,0,
52,-55.89,-4.178,-13.87,-21.72,-89.37,-27.33,-12.5,-34.57,-10.83,-8.464,-11.24,-13.86,12.69,12.06,-3.933,-6.927,0,0,0,0,0,0,0,0,0,0,0,0,0,0,0,0,
53,-53.58,-5.676,-15.83,-18.54,-79.12,-25.62,-14.13,-35.3,-12.08,-12.56,-9.698,-13.51,13.24,8.449,-3.392,-6.598,0,0,0,0,0,0,0,0,0,0,0,0,0,0,0,0,
54,-58.75,-11.89,-10.13,-18.58,-83.76,-32.04,-19.75,-37.16,-11.67,-9.827,-14.98,-17.91,11.94,7.359,-6.862,-5.261,0,0,0,0,0,0,0,0,0,0,0,0,0,0,0,0,
55,-63.88,-17.44,-7.132,-26.49,-87.16,-33.86,-23.31,-37.8,-12.02,-9.443,-16,-20.59,6.893,4.917,-6.26,-9.294,0,0,0,0,0,0,0,0,0,0,0,0,0,0,0,0,
56,-62.92,-24.39,-10.52,-26.64,-85.24,-28.96,-28.29,-41.92,-10.02,-17.39,-12.5,-21.81,-2.004,0.1644,-6.714,-19.62,0,0,0,0,0,0,0,0,0,0,0,0,0,0,0,0,
57,-64.76,-34.83,-9.998,-23.29,-85.81,-27.53,-33.81,-45.19,-7.08,-21.51,-12.83,-24.18,-10.38,-5.031,-11.24,-24.82,0,0,0,0,0,0,0,0,0,0,0,0,0,0,0,0,
58,-71,-41.88,-3.464,-24.4,-85.39,-31.35,-34.13,-44.78,-8.319,-22.56,-12.19,-24.16,-12.92,-7.033,-9.751,-21.29,0,0,0,0,0,0,0,0,0,0,0,0,0,0,0,0,
59,-76.21,-43.92,-1.836,-24.38,-84.85,-32.85,-34.24,-45.79,-13.33,-24.22,-11.01,-23.46,-10.79,-2.34,-5.013,-18.56,0,0,0,0,0,0,0,0,0,0,0,0,0,0,0,0,
60,-83.67,-44.96,-4.134,-23.49,-86.85,-31.98,-35.64,-45.38,-21.52,-23.26,-15.99,-25.27,-8.322,0.1806,-3.608,-15.92,0,0,0,0,0,0,0,0,0,0,0,0,0,0,0,0,
61,-87.8,-41.59,-1.997,-23.21,-89.04,-31.3,-31.6,-41.12,-26.7,-23.23,-18.08,-23.76,-3.807,-2.723,-0.695,-9.079,0,0,0,0,0,0,0,0,0,0,0,0,0,0,0,0,
62,-76.65,-32.53,0.621,-18.97,-88.41,-24.86,-25.08,-37.52,-18.73,-22.33,-10.74,-17.2,3.891,-0.0732,3.917,-2.862,0,0,0,0,0,0,0,0,0,0,0,0,0,0,0,0,
63,-62.25,-25.21,3.926,-13.24,-81.51,-16.86,-20.39,-34.94,-8.224,-16.78,-6.098,-14.43,7.46,4.005,2.758,-1.939,0,0,0,0,0,0,0,0,0,0,0,0,0,0,0,0,
64,-59.28,-22.19,12.75,-11.29,-73.56,-16.27,-15.31,-32.74,-12.54,-13.38,-12.04,-18.18,4.463,1.249,-4.765,-6.096,0,0,0,0,0,0,0,0,0,0,0,0,0,0,0,0,
65,-58.91,-20.22,15.84,-10.17,-71.64,-16.51,-13.63,-33.42,-23.72,-13.71,-20.32,-21.25,1.277,-0.4591,-10.88,-10.95,0,0,0,0,0,0,0,0,0,0,0,0,0,0,0,0,
66,-56.33,-18.77,8.62,-8.097,-72.1,-15.48,-16.7,-34.28,-26.06,-13.31,-21.56,-20.36,0.6321,0.765,-11.96,-13.96,0,0,0,0,0,0,0,0,0,0,0,0,0,0,0,0,
67,-54.25,-15.94,8.388,-5.157,-68.96,-16.14,-13.97,-28.09,-18.66,-11.17,-16.29,-17.56,2.494,1.113,-10.5,-15.74,0,0,0,0,0,0,0,0,0,0,0,0,0,0,0,0,
68,-47.08,-9.258,18.98,2.404,-61.57,-11.55,-3.771,-17.48,-12.65,-6.749,-14.05,-15.8,3.573,0.9578,-9.14,-16.51,0,0,0,0,0,0,0,0,0,0,0,0,0,0,0,0,
69,-39.18,-4.63,23.09,9.032,-58.89,-5.645,1.119,-14.41,-18.66,-4.01,-20.5,-18.31,-1.529,-3.312,-9.759,-19.22,0,0,0,0,0,0,0,0,0,0,0,0,0,0,0,0,
70,-39.36,-7.208,19.21,8.503,-63.92,-6.236,-1.206,-17.6,-25.22,-5.756,-24.64,-21.39,-5.658,-6.604,-9.137,-21.62,0,0,0,0,0,0,0,0,0,0,0,0,0,0,0,0,
71,-39.98,-10.19,23.33,10.69,-60.05,-2.949,0.7773,-14.9,-17.49,-6.207,-19.04,-19.42,-2.343,-1.326,-5.694,-17.68,0,0,0,0,0,0,0,0,0,0,0,0,0,0,0,0,
72,-36.64,-8.689,33.43,18.42,-45.47,6.28,6.41,-9.213,-9.311,-5.825,-16.75,-17.53,-1.85,0.719,-4.361,-12.28,0,0,0,0,0,0,0,0,0,0,0,0,0,0,0,0,
73,-38.01,-10.25,34.63,21.71,-38.23,6.793,3.783,-10.73,-10.45,-9.663,-20.24,-19.64,-6.324,-5.126,-2.197,-9.413,0,0,0,0,0,0,0,0,0,0,0,0,0,0,0,0,
74,-46.74,-17.34,29.82,18.97,-40.32,-1.75,-4.492,-15.25,-11.6,-12.01,-16.9,-19.75,-5.045,-4.712,2.891,-5.125,0,0,0,0,0,0,0,0,0,0,0,0,0,0,0,0,
75,-54.8,-18.44,26.92,12.95,-45.28,-7.033,-6.843,-15.47,-15.98,-8.501,-12.43,-16.15,0.73,1.367,3.1,-0.7059,0,0,0,0,0,0,0,0,0,0,0,0,0,0,0,0,
76,-55.42,-10.99,22.44,7.094,-49.77,-8.158,-6.36,-15.16,-23.49,-5.777,-14.82,-13.13,3.991,2.385,0.1273,0.2263,0,0,0,0,0,0,0,0,0,0,0,0,0,0,0,0,
77,-51.93,-7.195,18.06,5.943,-47.2,-10.37,-8.856,-18.4,-21.6,-6.517,-14.51,-10.55,7.031,2.988,1.507,1.75,0,0,0,0,0,0,0,0,0,0,0,0,0,0,0,0,
78,-47.86,-6.686,18.91,6.562,-39.38,-9.686,-7.942,-19.9,-15.59,-5.657,-7.818,-4.57,12.85,9.622,8.103,9.946,0,0,0,0,0,0,0,0,0,0,0,0,0,0,0,0,
79,-39.18,-0.8318,20.22,6.361,-30.8,-3.428,-3.744,-16.56,-14.15,-2.306,1.053,3.408,17.16,15.72,16.97,16.79,0,0,0,0,0,0,0,0,0,0,0,0,0,0,0,0,
80,-29.33,3.165,19.27,7.235,-21.64,0.4179,-4.107,-15.43,-13.04,-0.7679,7.275,6.041,15.74,16.02,19.98,13.24,0,0,0,0,0,0,0,0,0,0,0,0,0,0,0,0,
81,-25.8,0.8969,20.06,8.149,-19.13,-0.1618,-4.84,-17.74,-13.58,-1.895,4.659,3.549,14.06,15.83,15.9,12.54,0,0,0,0,0,0,0,0,0,0,0,0,0,0,0,0,
82,-24.43,0.5646,22.96,8.408,-21.63,1.739,-1.873,-16.35,-16.71,-2.969,0.6942,3.02,16.11,17.33,14.07,18.52,0,0,0,0,0,0,0,0,0,0,0,0,0,0,0,0,
83,-21.94,-1.094,25.87,8.509,-17.62,4.542,-2.834,-15.11,-18.71,-4.618,3.543,2.304,13.41,15.07,13.99,14.41,0,0,0,0,0,0,0,0,0,0,0,0,0,0,0,0,
84,-21.47,-7.805,27.06,8.82,-11.69,3.252,-7.177,-19.09,-20.64,-7.676,3.556,-1.894,6.178,11.48,11.37,6.633,0,0,0,0,0,0,0,0,0,0,0,0,0,0,0,0,
85,-22.51,-9.419,26.05,10.59,-8.664,2.37,-6.678,-19.22,-19.42,-8.124,-0.9496,-4.859,4.583,11.14,10.73,8.877,0,0,0,0,0,0,0,0,0,0,0,0,0,0,0,0,
86,-25.37,-7.556,25.11,12.93,-3.842,5.684,-4.468,-15.26,-15.51,-6.621,-2.101,-7.691,1.308,6.587,10.11,7.972,0,0,0,0,0,0,0,0,0,0,0,0,0,0,0,0,
87,-29.22,-13.06,22.55,15.04,-1.811,8.368,-6.509,-17.54,-18.68,-8.923,-4.343,-13.59,-11.12,-2.568,2.328,-2.457,0,0,0,0,0,0,0,0,0,0,0,0,0,0,0,0,
88,-29.24,-21.11,18.3,16.31,0.6506,7.129,-10.05,-21.25,-25.18,-12.07,-10.16,-18.67,-19.65,-5.326,-6.539,-7.683,0,0,0,0,0,0,0,0,0,0,0,0,0,0,0,0,
89,-29.51,-23.74,19.83,15.01,9.855,4.585,-12.56,-20.35,-26.06,-11.56,-15.02,-22.88,-19.71,-4.482,-9.112,-5.997,0,0,0,0,0,0,0,0,0,0,0,0,0,0,0,0,
90,-36.19,-21.76,22.78,13.2,9.916,2.69,-13.99,-20.61,-25.56,-10.77,-19.75,-26.71,-19.3,-7.502,-11.46,-8.257,0,0,0,0,0,0,0,0,0,0,0,0,0,0,0,0,
91,-43.28,-15.45,17.61,12.69,5.118,2.119,-12.68,-20.32,-26.98,-8.511,-22.39,-25.51,-16.45,-8.763,-14.67,-9.882,0,0,0,0,0,0,0,0,0,0,0,0,0,0,0,0,
92,-44.26,-6.857,13.88,10.88,19.14,3.585,-10.15,-16.68,-30.09,-2.3,-21.04,-22.58,-9.967,-5.891,-13.69,-3.817,0,0,0,0,0,0,0,0,0,0,0,0,0,0,0,0,
93,-42.03,-1.689,15.22,6.404,30.64,2.792,-10.85,-17.14,-35.35,0.6419,-22.1,-23.76,-6.247,-4.397,-13.28,0.502,0,0,0,0,0,0,0,0,0,0,0,0,0,0,0,0,
94,-41.3,-1.725,10.11,1.931,18.64,-3.554,-13.66,-21.55,-38.41,-1.831,-24.89,-24.21,-6.101,-4.688,-13.94,0.3381,0,0,0,0,0,0,0,0,0,0,0,0,0,0,0,0,
95,-39.24,-3.135,5.644,3.406,13.12,-7.052,-13.34,-22.05,-38.22,-2.747,-23.37,-20.7,-6.519,-4.771,-12.19,1.55,0,0,0,0,0,0,0,0,0,0,0,0,0,0,0,0,
96,-30.6,-2.152,10.55,10.17,21.52,-4.063,-11.5,-19.7,-37.99,-2.494,-20.98,-18.26,-6.89,-6.377,-13.46,1.176,0,0,0,0,0,0,0,0,0,0,0,0,0,0,0,0,
97,-22.01,-3.066,11.53,11.4,20.13,-5.665,-15.49,-20.54,-36.38,-5.53,-19.79,-17.72,-8.145,-10.81,-14.95,1.357,0,0,0,0,0,0,0,0,0,0,0,0,0,0,0,0,
98,-19.17,-9.448,6.317,6.09,18.09,-10.11,-22.87,-23.9,-31.52,-9.717,-15.5,-14.71,-10.32,-14.04,-10.48,5.636,0,0,0,0,0,0,0,0,0,0,0,0,0,0,0,0,
99,-13.72,-12.52,5.129,3.867,25.18,-5.437,-23.91,-23.81,-25.85,-12.17,-11.01,-10.21,-11.8,-13.58,-7.222,6.914,0,0,0,0,0,0,0,0,0,0,0,0,0,0,0,0,
100,-6.602,-10.38,4.793,4.329,26.9,-0.5771,-20.03,-20.69,-26.02,-12.58,-11.55,-9.432,-13.28,-14.74,-8.592,3.867,0,0,0,0,0,0,0,0,0,0,0,0,0,0,0,0,
101,-6.867,-12.83,3.613,3.792,28.21,-4.138,-18.5,-21.32,-33.29,-10.46,-13.93,-11.82,-15.6,-17.73,-10.81,0.7797,0,0,0,0,0,0,0,0,0,0,0,0,0,0,0,0,
102,-8.187,-17.85,4.979,5.03,32.06,-5.808,-19.39,-25.35,-37.07,-8.974,-14.57,-13.82,-18.84,-18,-14.45,-2.099,0,0,0,0,0,0,0,0,0,0,0,0,0,0,0,0,
103,-5.984,-19.66,3.621,5.774,23.49,-5.879,-21.26,-26.4,-34.46,-11.71,-15.69,-16.59,-25.41,-19.87,-20.47,-6.401,0,0,0,0,0,0,0,0,0,0,0,0,0,0,0,0,
104,-7.326,-20.5,0.6174,2.471,20.82,-10.06,-23.16,-23.56,-33.05,-14.01,-18.36,-20.5,-30.09,-22.01,-25.58,-11.27,0,0,0,0,0,0,0,0,0,0,0,0,0,0,0,0,
105,-12.46,-18.58,0.9083,0.1597,37.61,-10.95,-24.59,-22.04,-33.4,-11.97,-19.49,-22.75,-25.22,-15.87,-25.6,-9.87,0,0,0,0,0,0,0,0,0,0,0,0,0,0,0,0,
106,-18.01,-16.04,-2.472,2.232,38.37,-9.175,-28.61,-24.89,-36.1,-10.96,-19.38,-23.74,-20.02,-10.9,-24.16,-5.109,0,0,0,0,0,0,0,0,0,0,0,0,0,0,0,0,
107,-23.48,-18.73,-8.604,4.947,23.05,-11.6,-32.48,-26.5,-42.09,-12.92,-22.37,-24.84,-23.32,-16.88,-26.36,-7.303,0,0,0,0,0,0,0,0,0,0,0,0,0,0,0,0,
108,-27.87,-18.97,-9.722,4.215,25.05,-14.47,-30.38,-22.83,-45.2,-12.26,-26.47,-25.41,-26.72,-20.82,-27.86,-9.961,0,0,0,0,0,0,0,0,0,0,0,0,0,0,0,0,
109,-31.81,-12.79,-11.15,0.5884,26.15,-15.78,-26.35,-19.74,-45.44,-8.348,-25.73,-24.9,-24.91,-16.3,-26.32,-7.229,0,0,0,0,0,0,0,0,0,0,0,0,0,0,0,0,
110,-33.1,-8.304,-11.22,0.0633,15.06,-16,-23.99,-19.01,-45.09,-5.901,-21.64,-22.31,-21.53,-13.61,-23.39,-5.136,0,0,0,0,0,0,0,0,0,0,0,0,0,0,0,0,
111,-27.58,-4.583,-4.761,4.174,21.5,-10.54,-20.06,-16.02,-41.78,-4.854,-17.74,-17.14,-17.37,-13.16,-19.63,-2.658,0,0,0,0,0,0,0,0,0,0,0,0,0,0,0,0,
112,-16.76,1.111,-3.103,7.246,37.69,-1.718,-15.9,-12.66,-38.12,-2.681,-12.24,-10.8,-13.37,-9.711,-19.57,0.3664,0,0,0,0,0,0,0,0,0,0,0,0,0,0,0,0,
113,-5.288,3.111,-2.607,9.012,42.07,1.055,-15.22,-12.29,-34.06,-1.992,-7.502,-6.405,-12.61,-8.286,-22.15,-0.015,0,0,0,0,0,0,0,0,0,0,0,0,0,0,0,0,
114,-0.3631,1.008,5.792,10.88,41.19,-3.008,-17.64,-13.75,-30.01,-4.309,-9.823,-7.049,-14.84,-11.57,-21.51,-0.933,0,0,0,0,0,0,0,0,0,0,0,0,0,0,0,0,
115,-4.213,-2.077,2.473,10.57,33.75,-5.298,-20.66,-16.34,-32.74,-6.829,-14.38,-9.495,-17.05,-13.89,-19.61,-0.2346,0,0,0,0,0,0,0,0,0,0,0,0,0,0,0,0,
116,-6.267,-6.457,-11.42,10.17,26.76,-2.625,-21.29,-18.97,-34.55,-9.943,-12.42,-7.901,-17.53,-13.62,-18.78,1.252,0,0,0,0,0,0,0,0,0,0,0,0,0,0,0,0,
117,-1.256,-9.331,-6.651,10.2,35.28,0.2525,-19.21,-19.63,-28.27,-11.86,-8.896,-4.137,-16.27,-12.48,-17.6,4.104,0,0,0,0,0,0,0,0,0,0,0,0,0,0,0,0,
118,3.896,-7.263,8.955,8.825,42.34,1.894,-18.55,-19.38,-26.92,-9.181,-10.67,-2.497,-14.07,-9.734,-14.69,7.974,0,0,0,0,0,0,0,0,0,0,0,0,0,0,0,0,
119,5.323,-3.371,10.42,8.789,35.85,0.6041,-22.38,-21.05,-32.82,-8.416,-13.9,-3.665,-12.95,-6.904,-11.36,10.27,0,0,0,0,0,0,0,0,0,0,0,0,0,0,0,0,
120,2.477,-1.922,1.142,7.691,27.19,-7.046,-26.47,-23.11,-38.46,-11.25,-15.75,-7.268,-12.37,-6.086,-12.25,9.487,0,0,0,0,0,0,0,0,0,0,0,0,0,0,0,0,
121,-4.031,-1.859,-7.33,4.452,19.63,-13.04,-25.25,-22.18,-46.48,-10.37,-17.99,-10.41,-9.407,-6.264,-14.94,8.344,0,0,0,0,0,0,0,0,0,0,0,0,0,0,0,0,
122,-10.6,-1.276,-10.92,5.414,19.22,-10.65,-22.98,-21.81,-51.13,-9.485,-20.2,-10.21,-5.969,-7.072,-13.65,8.211,0,0,0,0,0,0,0,0,0,0,0,0,0,0,0,0,
123,-15.37,-0.9864,-9.865,6.949,27.84,-8.693,-23.92,-24.52,-46.36,-11.53,-20.44,-8.297,-4.283,-7.417,-9.325,9.719,0,0,0,0,0,0,0,0,0,0,0,0,0,0,0,0,
124,-17.61,-1.753,-8.115,4.52,28.15,-11.35,-24.09,-25.56,-42.61,-11.15,-18.39,-8.374,-4.215,-7.158,-4.92,12.88,0,0,0,0,0,0,0,0,0,0,0,0,0,0,0,0,
125,-18.97,-5.628,-10.57,2.629,19.86,-13,-24.99,-26.28,-42.52,-12.6,-18.81,-13.03,-9.52,-10.07,-6.267,9.826,0,0,0,0,0,0,0,0,0,0,0,0,0,0,0,0,
126,-21.42,-12.39,-17.99,0.2882,18.96,-12.16,-27.77,-28.33,-39.15,-16.91,-23.56,-18.76,-17.53,-13.53,-13.11,2.224,0,0,0,0,0,0,0,0,0,0,0,0,0,0,0,0,
127,-18.81,-14.01,-18.36,-0.6849,25.19,-8.361,-24.29,-24.09,-34.42,-14.93,-23.27,-17.87,-18.61,-11.72,-13.36,2.156,0,0,0,0,0,0,0,0,0,0,0,0,0,0,0,0,
128,-9.413,-9.18,-6.686,3.995,31.57,-2.886,-17.51,-17.46,-31.29,-9.537,-15.75,-12,-16.01,-9.058,-7.932,3.92,0,0,0,0,0,0,0,0,0,0,0,0,0,0,0,0,
129,-3.939,-9.107,-1.002,5.732,34.43,-1.287,-16.97,-19.46,-29.35,-8.604,-12.9,-9.779,-17.65,-9.837,-8.982,0.395,0,0,0,0,0,0,0,0,0,0,0,0,0,0,0,0,
130,-3.735,-15.11,-4.622,4.011,32.83,-0.9592,-16.51,-21.31,-29.11,-9.585,-15.94,-10.89,-18.99,-10.2,-13.97,-0.6075,0,0,0,0,0,0,0,0,0,0,0,0,0,0,0,0,
131,0.1161,-17.43,-3.088,7.873,34.06,4.975,-11.89,-15.33,-28.2,-9.256,-16.75,-11.19,-16.44,-9.978,-15.49,-0.1444,0,0,0,0,0,0,0,0,0,0,0,0,0,0,0,0,
132,4.024,-16.88,-1.624,8.938,38.25,9.962,-12.88,-14.04,-26.22,-8.996,-18.29,-14.81,-16.02,-13.43,-17.8,-4.784,0,0,0,0,0,0,0,0,0,0,0,0,0,0,0,0,
133,-0.119,-18.91,-5.577,3.083,34.92,5.493,-19.09,-18.53,-28.4,-10.11,-23.76,-22.01,-19.29,-19.18,-22.59,-9.509,0,0,0,0,0,0,0,0,0,0,0,0,0,0,0,0,
134,-5.816,-19.03,-4.809,4.555,28.13,-0.2812,-20.31,-16.34,-33.36,-10.27,-27.12,-24.63,-19.38,-20.56,-22.07,-7.571,0,0,0,0,0,0,0,0,0,0,0,0,0,0,0,0,
135,-7.17,-15.24,-2.094,10.32,28.03,-0.708,-19.52,-13.49,-33.78,-7.217,-27.88,-24.51,-14.79,-17.11,-19.13,-3.529,0,0,0,0,0,0,0,0,0,0,0,0,0,0,0,0,
136,-10.19,-13.53,-4.193,7.793,28.33,-2.954,-22.24,-18.04,-33.14,-5.519,-29.81,-27.44,-12.18,-16.5,-22.35,-6.257,0,0,0,0,0,0,0,0,0,0,0,0,0,0,0,0,
137,-14.63,-13.2,-5.018,5.229,23.67,-6.754,-21.55,-19.6,-38.15,-7.865,-30.76,-28.74,-13.81,-19.39,-24.35,-12.06,0,0,0,0,0,0,0,0,0,0,0,0,0,0,0,0,
138,-17.16,-11.92,-5.76,5.851,18.06,-8.016,-18.43,-17.66,-42.22,-9.54,-28.84,-27.85,-16.17,-19,-20.69,-12.09,0,0,0,0,0,0,0,0,0,0,0,0,0,0,0,0,
139,-22.93,-14.98,-13.56,-0.5704,10.11,-14.03,-22.88,-22.56,-41.22,-10.06,-26,-28.93,-16.38,-16.45,-18.74,-8.082,0,0,0,0,0,0,0,0,0,0,0,0,0,0,0,0,
140,-30.01,-21.39,-21.87,-7.149,0.8441,-23.3,-28.66,-28.3,-42.74,-12.18,-26.58,-30.98,-14.91,-16.39,-19.72,-6.077,0,0,0,0,0,0,0,0,0,0,0,0,0,0,0,0,
141,-33.55,-23.62,-21.58,-4.164,-2.47,-23.31,-25.15,-25.89,-47.12,-13.19,-33.61,-36.09,-15.95,-16.27,-24.15,-8.422,0,0,0,0,0,0,0,0,0,0,0,0,0,0,0,0,
142,-36.12,-21.42,-17.01,0.9729,0.0721,-15.42,-17.96,-19.46,-48.6,-11.27,-39.25,-41.26,-18.06,-13.3,-29.51,-11.13,0,0,0,0,0,0,0,0,0,0,0,0,0,0,0,0,
143,-32.08,-18.28,-14.8,3.578,2.942,-10.77,-14.17,-15.38,-47.09,-9.852,-36.45,-37.66,-15.53,-11.08,-28.54,-11.01,0,0,0,0,0,0,0,0,0,0,0,0,0,0,0,0,
144,-20.37,-16.18,-12.16,5.476,4.17,-10.99,-11.78,-15.98,-41.87,-10.52,-31.44,-29.9,-11.55,-11.7,-24.95,-11.29,0,0,0,0,0,0,0,0,0,0,0,0,0,0,0,0,
145,-13.01,-15.5,-7.399,6.913,7.92,-7.268,-6.9,-15.57,-33.17,-10.79,-26.16,-22.81,-9.307,-10.69,-21.25,-9.104,0,0,0,0,0,0,0,0,0,0,0,0,0,0,0,0,
146,-6.355,-13.89,-5.392,9.427,15.44,1.458,-0.9838,-8.992,-26.71,-9.196,-20.27,-14.8,-7.447,-8.005,-17.01,-4.559,0,0,0,0,0,0,0,0,0,0,0,0,0,0,0,0,
147,5.368,-12.14,-4.786,12.66,17.29,4.499,-0.2234,-5.151,-26.01,-7.362,-21.99,-11.71,-9.117,-9.038,-18.41,-6.769,0,0,0,0,0,0,0,0,0,0,0,0,0,0,0,0,
148,10.42,-12.58,-2.284,15.57,13.35,2.698,-3.583,-7.71,-29.38,-6.449,-26.41,-11.75,-11.07,-10.84,-20.45,-8.825,0,0,0,0,0,0,0,0,0,0,0,0,0,0,0,0,
149,7.96,-11.48,-1.78,17.77,14.74,3.338,-3.807,-7.696,-32.2,-5.953,-22.22,-8.668,-6.879,-8.949,-17.08,-3.109,0,0,0,0,0,0,0,0,0,0,0,0,0,0,0,0,
150,6.531,-6.081,-1.666,17.23,17.34,1.913,-1.655,-6.077,-31.11,-6.147,-17.37,-9.142,-3.724,-8.026,-15.11,-2.438,0,0,0,0,0,0,0,0,0,0,0,0,0,0,0,0,
151,4.955,-0.4498,-0.0191,15.54,14.92,-0.1614,-2.132,-7.969,-28.16,-6.704,-17.11,-11.98,-5.61,-9.133,-14.06,-8.754,0,0,0,0,0,0,0,0,0,0,0,0,0,0,0,0,
152,3.246,-0.0464,-4.311,12.4,14.99,1.171,-6.131,-10.82,-27.75,-5.845,-15.5,-10.2,-5.678,-7.76,-12.4,-9.194,0,0,0,0,0,0,0,0,0,0,0,0,0,0,0,0,
153,0.2234,-4.845,-12.12,4.807,14.16,-3.031,-10.94,-13.65,-33.13,-4.754,-17.43,-10.87,-4.82,-5.234,-15.21,-5.215,0,0,0,0,0,0,0,0,0,0,0,0,0,0,0,0,
154,-7.866,-7.129,-14.69,-1.21,3.606,-11.63,-11.79,-13.95,-40.09,-4.54,-23.68,-14.21,-5.866,-4.288,-17.34,-4.54,0,0,0,0,0,0,0,0,0,0,0,0,0,0,0,0,
155,-14.15,-3.017,-13.36,-2.292,-4.827,-13.53,-9.235,-9.665,-39.05,-2.667,-22.87,-11.25,-4.394,-3.434,-12.76,-4.248,0,0,0,0,0,0,0,0,0,0,0,0,0,0,0,0,
156,-14.21,0.1873,-11.44,-3.023,-0.3589,-10.78,-8.682,-8.112,-34.13,-1.868,-18.74,-7.756,-1.49,-2.215,-10.08,-3.865,0,0,0,0,0,0,0,0,0,0,0,0,0,0,0,0,
157,-14.95,-2.309,-13.26,-1.037,4.63,-9.491,-9.876,-10.64,-35.15,-5.795,-20.47,-11.48,-2.949,-2.773,-15.88,-8.332,0,0,0,0,0,0,0,0,0,0,0,0,0,0,0,0,
158,-17.66,-6.486,-16.92,3.736,2.316,-10.36,-10.09,-10.1,-35.75,-6.772,-19.53,-15.21,-7.163,-4.998,-20.23,-11.87,0,0,0,0,0,0,0,0,0,0,0,0,0,0,0,0,
159,-16.43,-9.541,-13.35,3.776,1.921,-11.04,-10.52,-8.931,-31.28,-2.263,-12.51,-11.63,-9.988,-6.804,-16.48,-10.31,0,0,0,0,0,0,0,0,0,0,0,0,0,0,0,0,
160,-10.39,-12.29,-10.7,1.005,4.734,-9.469,-12.01,-10.95,-28.56,-3.159,-9.807,-5.003,-11.53,-9.247,-12.95,-11.68,0,0,0,0,0,0,0,0,0,0,0,0,0,0,0,0,
161,-4.762,-14.48,-13.78,2.502,6.789,-8.082,-12.79,-11.01,-26.57,-9.204,-9.021,-1.71,-12.06,-13,-12.05,-14.56,0,0,0,0,0,0,0,0,0,0,0,0,0,0,0,0,
162,-1.46,-15.59,-7.958,7.265,12.29,-3.796,-11.64,-8.305,-20.58,-10.35,-2.884,-0.2367,-11.57,-14.29,-9.598,-12.97,0,0,0,0,0,0,0,0,0,0,0,0,0,0,0,0,
163,3.478,-16.91,1.081,10.78,19.19,6.639,-10.8,-7.649,-13.48,-9.373,0.6826,2.269,-11.14,-11.79,-8.074,-11.34,0,0,0,0,0,0,0,0,0,0,0,0,0,0,0,0,
164,8.138,-18.18,0.2255,11.46,21.83,11.33,-11.89,-8.67,-10.84,-11.5,-2.741,2.943,-10.59,-8.751,-8.594,-10.85,0,0,0,0,0,0,0,0,0,0,0,0,0,0,0,0,
165,8.127,-16.5,0.0488,11.4,21.91,6.993,-11.2,-8.788,-14.79,-11.86,-5.414,2.019,-10.07,-8.412,-10.19,-9.2,0,0,0,0,0,0,0,0,0,0,0,0,0,0,0,0,
166,8.396,-12.13,3.863,12.39,18.79,5.725,-8.408,-8.253,-18.92,-9.688,-5.738,3.534,-10.51,-11.49,-12.76,-8.436,0,0,0,0,0,0,0,0,0,0,0,0,0,0,0,0,
167,8.878,-9.04,2.011,12.07,14.52,6.035,-9.886,-7.663,-17.6,-9.621,-7.971,3.966,-11.23,-13.29,-14.59,-9.885,0,0,0,0,0,0,0,0,0,0,0,0,0,0,0,0,
168,2.542,-7.255,-2.08,10.47,15.97,2.545,-13.23,-6.548,-14.78,-8.292,-10.29,0.3936,-10.14,-9.17,-14.92,-10.15,0,0,0,0,0,0,0,0,0,0,0,0,0,0,0,0,
169,-3.51,-1.907,1.585,12.56,21.35,1.843,-8.336,-3.208,-12.26,-1.591,-7.868,0.2446,-6.269,-2.877,-10.62,-5.161,0,0,0,0,0,0,0,0,0,0,0,0,0,0,0,0,
170,-1.223,7.25,11.09,17.62,27.66,5.074,1.425,2.3,-9.624,4.289,-3.256,4.122,-4.767,-0.0459,-4.107,-2.019,0,0,0,0,0,0,0,0,0,0,0,0,0,0,0,0,
171,-0.3326,12.05,11.72,19.18,31.24,6.374,4.114,4.206,-11.94,3.891,-5.83,0.7696,-10.39,-0.9576,-7.319,-7.04,0,0,0,0,0,0,0,0,0,0,0,0,0,0,0,0,
172,-7.298,8.89,0.807,17.38,24.01,2.983,1.713,0.4654,-20.51,1.943,-16.22,-9.881,-14.25,-1.823,-17.11,-10.32,0,0,0,0,0,0,0,0,0,0,0,0,0,0,0,0,
173,-12.86,6.613,-4.353,17.43,15.31,-3.182,3.31,-0.1886,-28.24,3.892,-22.64,-15.22,-9.179,1.087,-18.71,-8.573,0,0,0,0,0,0,0,0,0,0,0,0,0,0,0,0,
174,-10.83,9.424,-1.78,19.47,17.68,-6.37,6.118,3.839,-28.62,7.201,-20.95,-13.08,-5.276,4.283,-13.82,-7.45,0,0,0,0,0,0,0,0,0,0,0,0,0,0,0,0,
175,-7.009,8.838,-5.391,20.09,18.83,-6.251,4.195,3.093,-23.09,6.529,-17.96,-10.77,-7.121,2.134,-11.59,-5.497,0,0,0,0,0,0,0,0,0,0,0,0,0,0,0,0,
176,-4.284,3.455,-10.35,19.75,15.7,-5.361,2.337,0.3837,-16.16,2.322,-13.26,-7.383,-6.605,-1.626,-8.883,-5.148,0,0,0,0,0,0,0,0,0,0,0,0,0,0,0,0,
177,2.858,0.5838,-5.17,21.89,23.2,-1.758,4.593,3.285,-8.067,-0.2326,-5.088,-1.306,-5.859,-2.669,-3.352,-8.669,0,0,0,0,0,0,0,0,0,0,0,0,0,0,0,0,
178,11.86,-1.112,3.42,25.26,34.04,1.54,5.614,5.238,-1.553,0.7513,-1.611,0.6648,-10.95,-3.709,-4.503,-11.22,0,0,0,0,0,0,0,0,0,0,0,0,0,0,0,0,
179,14.35,-3.819,6.321,25.72,34.77,1.875,3.836,3.753,-0.5547,1.329,-2.577,-1.158,-16.36,-5.524,-11.91,-13.29,0,0,0,0,0,0,0,0,0,0,0,0,0,0,0,0,
180,13.19,-2.949,4.441,23.92,31.45,3.441,2.5,2.95,-0.4296,-1.575,1.758,-0.0319,-18.44,-6.38,-12.99,-15.67,0,0,0,0,0,0,0,0,0,0,0,0,0,0,0,0,
181,13.36,0.5067,0.1375,22.57,27.89,5.167,0.4728,-1.111,0.7194,-3.783,7.769,1.99,-17.99,-5.02,-9.607,-15.09,0,0,0,0,0,0,0,0,0,0,0,0,0,0,0,0,
182,13.89,4.159,-1.631,22.89,26.02,5.398,0.0624,-5.058,0.1392,-1.233,8.479,2.297,-13.24,-0.6415,-9.16,-13.07,0,0,0,0,0,0,0,0,0,0,0,0,0,0,0,0,
183,15.72,9.565,3.585,24.67,31.13,6.896,4.582,-1.427,2.958,0.8317,8.864,2.754,-9.9,1.659,-8.62,-14.02,0,0,0,0,0,0,0,0,0,0,0,0,0,0,0,0,
184,17.92,12.43,9.163,27.07,35.22,8.824,6.956,2.519,8.226,-1.185,10.64,2.659,-12.46,-1.78,-7.016,-17,0,0,0,0,0,0,0,0,0,0,0,0,0,0,0,0,
185,16.52,10.36,9.45,30.89,31.68,9.169,3.95,2.333,6.172,-2.005,9.077,2.17,-11.99,-3.499,-5.64,-16.3,0,0,0,0,0,0,0,0,0,0,0,0,0,0,0,0,
186,8.99,8.56,7.444,31.91,28.02,5.239,1.776,1.733,1.55,-0.4685,4.697,0.6905,-6.747,0.3555,-3.887,-12.76,0,0,0,0,0,0,0,0,0,0,0,0,0,0,0,0,
187,-4.475,7.824,4.459,26.43,26.18,-1.948,1.213,-0.4487,1.684,-0.0091,0.857,-4.07,-4.959,2.187,-3.147,-11.87,0,0,0,0,0,0,0,0,0,0,0,0,0,0,0,0,
188,-14.88,6.587,3.737,25.12,22.95,-4.222,1.696,-2.195,-0.3256,-0.1895,-0.5965,-9.162,-7.304,-1.599,-4.896,-13.15,0,0,0,0,0,0,0,0,0,0,0,0,0,0,0,0,
189,-14.16,3.927,7.391,30.96,21.85,-1.809,5.047,-1.106,-1.919,-1.585,1.193,-11,-11.81,-5.256,-7.875,-14.22,0,0,0,0,0,0,0,0,0,0,0,0,0,0,0,0,
190,-7.682,-1.661,9.206,32.45,24.98,0.5516,7.544,-0.3213,5.263,-4.725,4.563,-8.773,-16,-4.849,-6.817,-13.54,0,0,0,0,0,0,0,0,0,0,0,0,0,0,0,0,
191,-0.1412,-4.459,9.398,32.98,27.42,4.889,7.369,1.178,10.24,-5.855,7.664,-3.267,-16.62,-3.668,-3.087,-13.44,0,0,0,0,0,0,0,0,0,0,0,0,0,0,0,0,
192,9.439,-0.6895,10.51,36.24,26.52,8.798,7.768,2.627,8.959,-4.784,13.25,1.623,-16.26,-3.651,-2.584,-16.05,0,0,0,0,0,0,0,0,0,0,0,0,0,0,0,0,
193,16.74,2.394,6.792,31.94,26.09,9.344,6.76,0.3456,13.54,-4.747,21.39,4.899,-15.09,-1.597,0.6889,-14.37,0,0,0,0,0,0,0,0,0,0,0,0,0,0,0,0,
194,18.18,1.349,2.024,24.89,26.41,8.486,2.339,-1.669,17.12,-4.985,23.65,6.914,-12.83,0.5431,5.877,-10.91,0,0,0,0,0,0,0,0,0,0,0,0,0,0,0,0,
195,18,-0.8236,4.707,25.48,24.83,5.237,0.2056,-0.5257,13.45,-3.609,19.77,5.46,-14.61,-1.962,2.82,-13.92,0,0,0,0,0,0,0,0,0,0,0,0,0,0,0,0,
196,19.12,-3.099,7.546,27.39,25.55,2.037,1.369,-0.0129,15.87,-2.353,18.56,2.849,-17.59,-5.831,-2.2,-15.81,0,0,0,0,0,0,0,0,0,0,0,0,0,0,0,0,
197,18.08,-5.552,2.72,25.16,28.78,1.179,-1.646,-2.854,18.57,-4.145,18.22,1.994,-17.4,-7.221,-3.163,-14.81,0,0,0,0,0,0,0,0,0,0,0,0,0,0,0,0,
198,14.79,-6.861,-3.083,21.46,28.27,-0.1627,-6.503,-6.744,12.29,-5.973,17.17,2.693,-16.76,-7.042,-2.404,-14.63,0,0,0,0,0,0,0,0,0,0,0,0,0,0,0,0,
199,15.59,-1.122,-3.033,19.93,26.41,2.299,-3.035,-5.131,12.46,-1.866,20.45,5.971,-13.28,-5.336,1.842,-9.291,0,0,0,0,0,0,0,0,0,0,0,0,0,0,0,0,
200,21.26,12.34,-0.6837,22.41,26.23,8.433,4.51,0.6231,17.95,3.076,23.31,9.268,-5.891,-2.072,5.294,-3.342,0,0,0,0,0,0,0,0,0,0,0,0,0,0,0,0,
201,25.48,20.99,-1.365,23.72,23.59,7.105,4.696,0.3676,15.12,1.581,23.14,9.701,-0.9097,2.501,6.148,-2.219,0,0,0,0,0,0,0,0,0,0,0,0,0,0,0,0,
202,23.67,20.14,-5.305,19.93,18.39,-0.6106,-0.6091,-4.471,12.3,0.6163,23.26,8.873,-1.122,6.777,7.882,-1.285,0,0,0,0,0,0,0,0,0,0,0,0,0,0,0,0,
203,16.36,17.71,-10.25,16.46,14.8,-5.438,-2.87,-5.088,13.21,3.132,19.07,5.426,-6.228,6.147,5.221,-3.858,0,0,0,0,0,0,0,0,0,0,0,0,0,0,0,0,
204,8.999,14.56,-11.82,16.87,16.51,-6.047,-0.7912,-3.725,11.45,0.6414,13.03,-0.8199,-12.05,1.415,0.2565,-8.694,0,0,0,0,0,0,0,0,0,0,0,0,0,0,0,0,
205,3.887,9.815,-7.689,18.68,22.03,-3.802,0.562,-4.336,10.67,-3.844,12.31,-4.266,-12.17,-1.149,1.427,-7.482,0,0,0,0,0,0,0,0,0,0,0,0,0,0,0,0,
206,-0.2227,8.417,-2.025,21.71,22.53,-3.028,-0.8873,-3.681,9.267,-3.434,11.76,-3.376,-10.11,-0.643,3.647,-4.118,0,0,0,0,0,0,0,0,0,0,0,0,0,0,0,0,
207,0.7226,9.441,2.844,27.59,17.5,-5.753,-0.7563,-1.147,2.672,-2.981,8.626,-2.697,-12.64,-0.7563,0.3763,-4.729,0,0,0,0,0,0,0,0,0,0,0,0,0,0,0,0,
208,6.218,8.389,5.48,32.55,16.53,-3.141,2.181,0.7966,-2.859,-3.477,5.897,-3.639,-17.03,-2.774,-2.793,-6.338,0,0,0,0,0,0,0,0,0,0,0,0,0,0,0,0,
209,10.78,4.836,1.758,31.3,20.29,5.175,2.739,1.359,-2.471,-2.815,4.634,-1.578,-18.83,-5.087,1.188,-4.653,0,0,0,0,0,0,0,0,0,0,0,0,0,0,0,0,
210,17.62,-0.8129,-1.647,25.73,22.81,6.846,0.3665,-0.0267,1.772,-5.013,7.125,3.321,-21.64,-7.805,5.367,-4.266,0,0,0,0,0,0,0,0,0,0,0,0,0,0,0,0,
211,25.46,-5.882,3.448,22.7,24,4.024,0.7922,-0.1242,3.885,-7.409,8.36,4.42,-29.62,-13.16,1.179,-10.92,0,0,0,0,0,0,0,0,0,0,0,0,0,0,0,0,
212,27.55,-6.597,8.014,25.66,26.91,7.995,4.554,3.435,3.023,-6.231,3.894,3.396,-36.26,-19.05,-4.151,-16.51,0,0,0,0,0,0,0,0,0,0,0,0,0,0,0,0,
213,30.12,-4.627,6.556,29.67,30.62,13.71,5.805,3.564,6.062,-6.785,1.947,4.588,-33.81,-21.03,-6.743,-15.45,0,0,0,0,0,0,0,0,0,0,0,0,0,0,0,0,
214,34.8,-1.366,5.453,28.6,29.18,11.09,3.767,-0.77,7.089,-7.762,1.66,2.587,-27.26,-18.91,-10.32,-15.1,0,0,0,0,0,0,0,0,0,0,0,0,0,0,0,0,
215,30.71,4.121,3.171,25.98,22.53,3.923,2.306,-0.4217,-0.9006,-4.252,-5.48,-3.589,-24.11,-14.76,-13.01,-17.48,0,0,0,0,0,0,0,0,0,0,0,0,0,0,0,0,
216,21.9,7.148,-1.149,24.53,19.04,-0.7052,-0.2959,2.284,-6.894,-1.889,-13.13,-7.791,-23.8,-11.89,-17.29,-18.73,0,0,0,0,0,0,0,0,0,0,0,0,0,0,0,0,
217,17.08,4.896,-4.4,18.17,16.91,-5.056,-6.645,-0.1888,-10.05,-3.883,-15.39,-11.61,-24.44,-12.44,-22.22,-17.79,0,0,0,0,0,0,0,0,0,0,0,0,0,0,0,0,
218,8.038,1.765,-12.77,9.004,10.48,-11.58,-13.02,-4.375,-14.71,-5.495,-16.2,-16.29,-25.22,-13.46,-19.48,-15.34,0,0,0,0,0,0,0,0,0,0,0,0,0,0,0,0,
219,-4.829,-0.7758,-21.48,7.384,8.915,-14.93,-15.45,-5.788,-10.64,-5.665,-14.65,-15.76,-23.93,-13.17,-15.45,-12.64,0,0,0,0,0,0,0,0,0,0,0,0,0,0,0,0,
220,-7.511,-1.176,-16.41,12.46,14.32,-13.01,-12.9,-3.851,-5.111,-5.481,-11.71,-11.34,-20.53,-12.89,-18.39,-11.63,0,0,0,0,0,0,0,0,0,0,0,0,0,0,0,0,
221,-3.194,3.797,-7.645,15.31,17.7,-7.886,-6.796,-0.3895,-10.64,-4.117,-11.59,-9.055,-16.97,-11.15,-20.33,-14.49,0,0,0,0,0,0,0,0,0,0,0,0,0,0,0,0,
222,-1.964,7.758,-6.987,14.06,22.24,1.348,-2.748,-0.2691,-12.7,-2.164,-9.406,-6.642,-13.6,-7.424,-15.47,-16.87,0,0,0,0,0,0,0,0,0,0,0,0,0,0,0,0,
223,-0.2658,3.516,-4.002,13.7,24.35,7.66,-3.842,-1.95,-8.301,-1.435,-3.784,-3.275,-13.89,-6.425,-10.64,-15.58,0,0,0,0,0,0,0,0,0,0,0,0,0,0,0,0,
224,4.763,-4.212,2.932,16.89,16.89,4.865,-4.879,-0.0165,-9.051,-3.243,-0.7288,-1.911,-21.04,-10.8,-10.94,-17.89,0,0,0,0,0,0,0,0,0,0,0,0,0,0,0,0,
225,12.75,-7.503,6.381,21.37,19.69,5.973,-0.8806,3.844,-4.742,-6.397,2.654,2.421,-25.87,-15.62,-9.611,-21.25,0,0,0,0,0,0,0,0,0,0,0,0,0,0,0,0,
226,24.23,-3.82,10.7,25.53,37.73,16.58,6.369,7.431,7.914,-6.418,8.776,11.39,-21.06,-16.02,-3.088,-17.07,0,0,0,0,0,0,0,0,0,0,0,0,0,0,0,0,
227,33.65,2.29,16.55,29.54,43.43,23.53,12.4,10.53,11.67,-2.54,11.13,15.33,-16.78,-14.56,-0.6413,-12.91,0,0,0,0,0,0,0,0,0,0,0,0,0,0,0,0,
228,37.84,3.418,18.09,31.06,35.45,23.03,13.21,10.36,5.218,-0.3212,8.231,11.67,-18.75,-14.39,-4.718,-15.03,0,0,0,0,0,0,0,0,0,0,0,0,0,0,0,0,
229,37.57,-0.0631,16.78,29.57,31.45,19.09,8.615,8.59,0.113,-0.8584,3.998,8.264,-18.7,-14.52,-6.699,-17.49,0,0,0,0,0,0,0,0,0,0,0,0,0,0,0,0,
230,31.53,-1.883,13.3,28.19,27.75,13.07,3.307,8.129,-0.7221,0.6489,1.421,7.401,-15.7,-15.04,-5.888,-17.44,0,0,0,0,0,0,0,0,0,0,0,0,0,0,0,0,
231,24.61,-0.8945,5.919,25.03,20.15,7.779,-0.68,5.184,-1.552,3.299,0.3094,3.95,-15.85,-16.56,-8.977,-18.23,0,0,0,0,0,0,0,0,0,0,0,0,0,0,0,0,
232,18.2,-1.583,-0.1863,18.72,13.6,1.134,-4.159,1.69,-7.921,3.003,-3.537,-2.812,-18.02,-17.82,-13.08,-20.2,0,0,0,0,0,0,0,0,0,0,0,0,0,0,0,0,
233,6.741,-6.113,-4.178,14.65,5.924,-8.405,-7.29,2.926,-17.26,0.7933,-7.899,-6.412,-18.66,-18.26,-10.19,-17.71,0,0,0,0,0,0,0,0,0,0,0,0,0,0,0,0,
234,-1.612,-9.779,-12.36,11.51,-3.614,-14.63,-11.81,2.483,-21.34,-1.343,-8.026,-6.471,-18.66,-18.61,-5.761,-13.05,0,0,0,0,0,0,0,0,0,0,0,0,0,0,0,0,
235,-1.849,-9.386,-17.98,5.594,-6.863,-17.1,-16.06,-1.544,-22.28,-2.658,-9.624,-10.5,-19.76,-19.75,-6.727,-13.44,0,0,0,0,0,0,0,0,0,0,0,0,0,0,0,0,
236,-8.271,-10.63,-14.69,1.941,-3.092,-20.21,-16.99,-1.682,-26.74,-3.51,-15.46,-18.25,-21.03,-21.21,-7.25,-13.03,0,0,0,0,0,0,0,0,0,0,0,0,0,0,0,0,
237,-21.26,-15.25,-14.92,1.069,-1.65,-22.43,-17.2,-0.5843,-30.26,-5.875,-19.79,-23.54,-20.56,-21.84,-5.832,-9.264,0,0,0,0,0,0,0,0,0,0,0,0,0,0,0,0,
238,-26.51,-15.48,-17.49,1.753,-1.466,-20.93,-14.85,0.6146,-28.42,-6.83,-23.09,-27.47,-19.52,-22.4,-6.776,-9.793,0,0,0,0,0,0,0,0,0,0,0,0,0,0,0,0,
239,-26.48,-10.87,-10.05,7.869,1.643,-16.72,-7.927,6.413,-28.4,-3.051,-28.1,-33.06,-19.6,-22.59,-9.991,-12.23,0,0,0,0,0,0,0,0,0,0,0,0,0,0,0,0,
240,-28.23,-9.461,-5.7,12.36,0.43,-14.39,-6.644,6.864,-30.47,-0.6224,-31.02,-36.43,-18.04,-20.58,-14.15,-10.95,0,0,0,0,0,0,0,0,0,0,0,0,0,0,0,0,
241,-26.97,-12.95,-12.34,8.471,-1.341,-16.44,-13.81,-2.164,-26.55,-3.083,-29.41,-34.64,-14.85,-17.58,-15.98,-8.47,0,0,0,0,0,0,0,0,0,0,0,0,0,0,0,0,
242,-21.25,-18.07,-14.57,5.457,4.476,-18.11,-18.1,-4.907,-23.93,-4.672,-27.76,-32.98,-17.63,-16.59,-16.92,-10.1,0,0,0,0,0,0,0,0,0,0,0,0,0,0,0,0,
243,-15.3,-24.13,-13.15,6.914,6.605,-16.72,-16.89,0.473,-28.18,-4.763,-29.36,-34.84,-27.84,-19.55,-21.55,-17.82,0,0,0,0,0,0,0,0,0,0,0,0,0,0,0,0,
244,-9.698,-30.31,-16.01,7.522,3.076,-15.09,-14.75,1.462,-24.52,-7.559,-29.44,-34.57,-35.89,-24.6,-24.37,-25.39,0,0,0,0,0,0,0,0,0,0,0,0,0,0,0,0,
245,-3.538,-33.11,-15.09,9.726,6.084,-12.17,-9.836,0.071,-11.75,-10.47,-24.18,-28.26,-37,-26.75,-21.38,-26.48,0,0,0,0,0,0,0,0,0,0,0,0,0,0,0,0,
246,3.976,-31,-8.915,16.05,10.38,-7.134,-1.664,2.836,-6.604,-10.12,-18.53,-20.54,-35.95,-27.1,-15.78,-23.25,0,0,0,0,0,0,0,0,0,0,0,0,0,0,0,0,
247,11.52,-26.57,-5.435,21.79,8.666,-3.139,4.472,6.59,-7.369,-8.625,-14.92,-15.77,-34.19,-28.5,-9.042,-20.16,0,0,0,0,0,0,0,0,0,0,0,0,0,0,0,0,
248,15.76,-19.53,-3.842,23.47,7.242,0.3009,7.419,8.336,-2.078,-6.867,-8.419,-9.998,-26.81,-26.55,-2.195,-16.3,0,0,0,0,0,0,0,0,0,0,0,0,0,0,0,0,
249,18.34,-8.98,-2.687,20.66,5.675,1.411,7.853,5.519,2.92,-5.667,-1.068,-0.6165,-15.69,-21.53,5.252,-7.743,0,0,0,0,0,0,0,0,0,0,0,0,0,0,0,0,
250,21.03,-1.533,-7.748,14.47,-0.4681,-2.302,3.712,-1.833,-2.188,-6.938,-0.2175,4.739,-8.234,-18.21,10.62,1.259,0,0,0,0,0,0,0,0,0,0,0,0,0,0,0,0,
251,22.19,1.586,-14.37,10.86,-4.824,-2.358,0.6828,-4.051,-7.454,-6.509,-2.725,3.425,-1.172,-12.61,9.023,5.409,0,0,0,0,0,0,0,0,0,0,0,0,0,0,0,0,
252,22.61,6.898,-9.646,12.41,-3.85,1.419,3.582,-0.9702,-4.766,-2.394,-5.202,0.3617,8.262,-3.943,3.936,8.562,0,0,0,0,0,0,0,0,0,0,0,0,0,0,0,0,
253,17.1,8.6,-2.245,10.28,-5.867,-2.933,2.771,-4.759,-6.72,-0.9894,-13.01,-7.517,9.569,0.2933,-1.941,9.675,0,0,0,0,0,0,0,0,0,0,0,0,0,0,0,0,
254,-0.0932,1.177,-7.669,1.601,-13.67,-10.62,-4.174,-11.57,-17.18,-2.124,-22.61,-18.97,3.411,0.8022,-6.623,7.281,0,0,0,0,0,0,0,0,0,0,0,0,0,0,0,0,
255,-17.32,-3.67,-17.07,-4.985,-20.79,-12.96,-7.987,-11.54,-24.47,-0.8952,-25.96,-23.66,1.997,3.213,-4.312,7.96,0,0,0,0,0,0,0,0,0,0,0,0,0,0,0,0,
256,-24.71,-1.813,-20.92,-7.231,-24.16,-15.56,-9.298,-10.01,-26.11,0.6332,-24.95,-22.69,2.237,6.415,1.553,10.7,0,0,0,0,0,0,0,0,0,0,0,0,0,0,0,0,
257,-26.87,-3.265,-22.86,-5.986,-22.2,-17.52,-11.04,-10.21,-22.38,0.7269,-20.16,-20.34,-1.591,6.268,5.917,11.51,0,0,0,0,0,0,0,0,0,0,0,0,0,0,0,0,
258,-23.68,-9.17,-22.46,-1.292,-15.39,-14.5,-12.12,-9.196,-14.35,-1.329,-12.96,-14.32,-4.976,2.683,9.203,11.27,0,0,0,0,0,0,0,0,0,0,0,0,0,0,0,0,
259,-14.95,-13.65,-20.19,1.086,-8.683,-10.53,-14.42,-8.242,-9.36,-6.897,-9.441,-8.318,-8.817,0.0768,8.701,8.879,0,0,0,0,0,0,0,0,0,0,0,0,0,0,0,0,
260,-7.821,-15.16,-17.83,1.254,-2.669,-7.199,-14.74,-7.521,-3.817,-10.51,-6.779,-5.694,-15.59,-1.83,5.398,4.847,0,0,0,0,0,0,0,0,0,0,0,0,0,0,0,0,
261,-2.474,-14.24,-13.32,2.893,1.579,-6.958,-10.43,-7.169,5.432,-9.096,-2.459,-3.559,-20.92,-6.938,3.737,0.5687,0,0,0,0,0,0,0,0,0,0,0,0,0,0,0,0,
262,3.829,-12.58,-10.29,2.968,1.178,-10.81,-7.102,-7.119,8.943,-7.723,-0.7507,-0.8353,-22.03,-9.617,5.498,-1.268,0,0,0,0,0,0,0,0,0,0,0,0,0,0,0,0,
263,8.386,-10.76,-11.01,3.571,2.038,-9.61,-4.588,-4.476,7.466,-6.874,-0.3694,2.249,-20.18,-5.089,11.33,1.591,0,0,0,0,0,0,0,0,0,0,0,0,0,0,0,0,
264,9.763,-6.568,-10.95,6.772,6.107,-3.38,-0.6639,-2.042,6.328,-4.316,-1.102,2.656,-18.62,-0.845,16.35,1.925,0,0,0,0,0,0,0,0,0,0,0,0,0,0,0,0,
265,9.168,-1.599,-11.43,6.023,7.113,-3.429,-0.0401,-2.803,2.648,-1.731,-4.696,-1.614,-19.33,-0.7989,15.23,-3.285,0,0,0,0,0,0,0,0,0,0,0,0,0,0,0,0,
266,8.761,-0.0494,-14.47,2.146,6.743,-7.647,-2.07,-2.921,-2.577,0.6001,-8.498,-4.586,-20.79,-2.034,8.625,-8.705,0,0,0,0,0,0,0,0,0,0,0,0,0,0,0,0,
267,10.17,-0.3903,-14.01,1.807,7.965,-7.943,-1.219,-3.085,-6.151,2.799,-13.13,-4.433,-21.52,-4.107,0.5696,-13.67,0,0,0,0,0,0,0,0,0,0,0,0,0,0,0,0,
268,11.86,1.966,-11.16,4.732,8.359,-7.18,2.409,-5.516,-5.533,3.862,-15.97,-4.733,-17.86,-3.385,-2.022,-13.65,0,0,0,0,0,0,0,0,0,0,0,0,0,0,0,0,
269,11.7,9.02,-13.53,8.484,8.404,-5.349,7.931,-4.323,-1.719,5.362,-11.86,-2.562,-5.915,4.001,2.73,-4.27,0,0,0,0,0,0,0,0,0,0,0,0,0,0,0,0,
270,9.678,19.58,-11.12,12.43,11.1,3.436,15.13,2.109,-2.17,7.862,-8.084,3.228,8.828,12.16,9.945,6.443,0,0,0,0,0,0,0,0,0,0,0,0,0,0,0,0,
271,9.24,28.46,4.89,15.9,19.79,13.38,19.21,5.914,-1.984,9.176,-10.31,6.703,18.56,14.81,14.23,12.45,0,0,0,0,0,0,0,0,0,0,0,0,0,0,0,0,
272,12.04,30.37,14.61,16.94,29.56,15.41,17.35,4.799,3.238,8.777,-13.4,5.423,22.33,13.79,11.16,14.81,0,0,0,0,0,0,0,0,0,0,0,0,0,0,0,0,
273,11.62,25.2,8.474,13.37,29.19,14.72,13.22,3.003,0.0142,6.863,-14.39,2.496,20.77,11.34,6.764,13.82,0,0,0,0,0,0,0,0,0,0,0,0,0,0,0,0,
274,5.634,16.22,4.398,8.574,25.39,16.99,8.973,1.302,-3.332,4.073,-11.07,0.8012,15.32,7.286,9.551,11.37,0,0,0,0,0,0,0,0,0,0,0,0,0,0,0,0,
275,1.577,5.981,5.898,8.669,27.08,15.04,3.492,-0.5398,9.085,2.025,-4.579,-0.4091,7.644,2.453,12.32,10.53,0,0,0,0,0,0,0,0,0,0,0,0,0,0,0,0,
276,2.412,-4.923,4.664,11.8,24.07,7.716,-1.261,-2.098,15.03,-1.178,-1.225,-1.404,-2.513,-3.498,9.272,8.398,0,0,0,0,0,0,0,0,0,0,0,0,0,0,0,0,
277,6.943,-12.72,4.81,12.92,23.35,8.496,-1.593,-2.876,8.491,-5.867,1.722,0.9791,-10.59,-10.06,7.135,1.486,0,0,0,0,0,0,0,0,0,0,0,0,0,0,0,0,
278,13.18,-11,9.049,13.22,38.36,16.62,0.6519,-0.7819,13.89,-6.064,6.564,4.697,-11.26,-12.08,7.844,-2.41,0,0,0,0,0,0,0,0,0,0,0,0,0,0,0,0,
279,14.18,-3.527,10.13,12.55,45.55,15.03,0.6181,1.305,20.58,-2.478,5.765,4.699,-8.735,-9.237,7.738,1.796,0,0,0,0,0,0,0,0,0,0,0,0,0,0,0,0,
280,11.02,1.029,4.905,10.07,33.97,8.346,0.9689,1.515,14.56,-1.446,1.577,3.269,-7.492,-8.471,8.192,5.396,0,0,0,0,0,0,0,0,0,0,0,0,0,0,0,0,
281,11.49,4.86,1.894,11.41,28.2,9.518,5.23,5.718,12.96,-0.1622,0.9624,2.665,-5.183,-9.58,11.08,6.854,0,0,0,0,0,0,0,0,0,0,0,0,0,0,0,0,
282,11.05,10.26,3.149,13.43,27.88,6.705,5.522,9.241,14.98,3.287,0.148,1.915,-1.295,-7.377,11.7,10.16,0,0,0,0,0,0,0,0,0,0,0,0,0,0,0,0,
283,6.159,12.25,-0.8798,7.815,22.55,-2.497,-1.034,4.255,13.32,3.035,-0.4938,2.665,1.382,-5.973,7.596,9.292,0,0,0,0,0,0,0,0,0,0,0,0,0,0,0,0,
284,3.965,12.19,-5.713,2.222,23.23,-2.138,-3.884,0.0439,15.29,0.5594,1.765,3.112,1.482,-9.734,3.515,2.485,0,0,0,0,0,0,0,0,0,0,0,0,0,0,0,0,
285,2.234,13.68,-3.87,0.8001,25.36,-1.137,-1.744,1.028,13.39,1.081,-0.3505,0.2195,2.198,-11.09,1.368,-1.901,0,0,0,0,0,0,0,0,0,0,0,0,0,0,0,0,
286,-5.232,13.89,-3.163,-3.732,18.01,-11.35,-1.783,0.7203,5.796,2.174,-6.205,-2.65,8.7,-4.468,1.993,1.423,0,0,0,0,0,0,0,0,0,0,0,0,0,0,0,0,
287,-13.84,12.81,-4.622,-6.507,11.06,-16.83,-2.381,0.9947,4.759,1.485,-6.409,-3.201,17.06,2.386,6.2,7.937,0,0,0,0,0,0,0,0,0,0,0,0,0,0,0,0,
288,-19.47,12.4,-4.728,-3.095,10.94,-11.91,-0.5681,2.758,4.192,0.144,-3.101,-1.06,20.57,2.942,10.08,11.69,0,0,0,0,0,0,0,0,0,0,0,0,0,0,0,0,
289,-20.21,9.624,-3.954,0.4489,14.87,-9.323,2.009,2.747,0.0138,-1.527,-1.753,3.567,22,0.8002,13.42,14.97,0,0,0,0,0,0,0,0,0,0,0,0,0,0,0,0,
290,-15.03,2.829,-0.4735,3.182,16,-10.35,2.442,1.816,-0.5604,-4.318,-2.537,4.058,18.84,-2.641,15.13,15.08,0,0,0,0,0,0,0,0,0,0,0,0,0,0,0,0,
291,-11.55,-5.33,-2.153,4.273,9.54,-11.23,-1.546,-0.9687,-0.3014,-9.172,-5.447,-0.2781,6.506,-8.539,11.03,8.463,0,0,0,0,0,0,0,0,0,0,0,0,0,0,0,0,
292,-11.63,-10.52,-8.639,3.176,10.13,-12.31,-5.149,-3.814,3.626,-12.04,-5.048,0.0192,-1.772,-11.71,7.694,6.085,0,0,0,0,0,0,0,0,0,0,0,0,0,0,0,0,
293,-6.927,-10.42,-3.519,3.034,21.6,-11.45,-4.686,-3.054,13.44,-8.862,1.474,3.971,-0.426,-11.26,8.616,7.268,0,0,0,0,0,0,0,0,0,0,0,0,0,0,0,0,
294,1.262,-9.772,4.527,1.157,23.96,-8.931,-5.532,-2.451,16.34,-6.271,5.663,4.907,-3.287,-12.16,6.69,1.449,0,0,0,0,0,0,0,0,0,0,0,0,0,0,0,0,
295,7.582,-10.16,-0.2661,-1.267,19.94,-7.336,-7.453,-3.236,14.39,-7.446,5.724,5.104,-8.949,-11.26,2.204,-3.332,0,0,0,0,0,0,0,0,0,0,0,0,0,0,0,0,
296,11.41,-5.826,-6.204,0.4714,22.35,-6.676,-7.559,-3.748,14.99,-5.723,5.679,4.199,-8.326,-6.819,-0.7704,-2.237,0,0,0,0,0,0,0,0,0,0,0,0,0,0,0,0,
297,9.545,-1.008,-6.675,1.336,22.57,-7.84,-9.959,-5.133,7.885,-4.22,3.412,1.638,-6.602,-4.081,0.6383,0.1094,0,0,0,0,0,0,0,0,0,0,0,0,0,0,0,0,
298,5.811,-0.8583,-8.604,-1.012,20.33,-10.61,-12.18,-3.756,-0.4535,-6.629,3.983,4.903,-2.433,-0.3214,8.429,6.888,0,0,0,0,0,0,0,0,0,0,0,0,0,0,0,0,
299,7.396,3.436,-10.26,-3.782,22.65,-12.15,-10.06,0.078,5.311,-4.345,11.41,11.38,8.698,5.88,15.06,14.34,0,0,0,0,0,0,0,0,0,0,0,0,0,0,0,0,
300,9.394,11.49,-9.165,-7.573,21.8,-11.26,-8.762,-0.6791,9.377,0.2041,12.62,11.77,17.52,7.846,15.07,16.34,0,0,0,0,0,0,0,0,0,0,0,0,0,0,0,0,
301,9.819,13.46,-8.098,-9.938,18.03,-7.974,-8.393,-3.309,2.002,-1.765,4.871,10.14,21.32,7.912,14.59,19.13,0,0,0,0,0,0,0,0,0,0,0,0,0,0,0,0,
302,11.07,13.95,-8.313,-9.546,19.55,-5.607,-6.317,-2.885,1.193,-3.538,2.283,11.04,25.57,9.961,17.06,24.76,0,0,0,0,0,0,0,0,0,0,0,0,0,0,0,0,
303,7.188,16.49,-8.233,-9.155,20.14,-9.031,-6.495,-1.77,7.124,-2.058,6.069,12.86,28.09,9.929,21.48,28.05,0,0,0,0,0,0,0,0,0,0,0,0,0,0,0,0,
304,0.5698,14.71,-7.342,-8.107,15.26,-14.02,-7.958,-0.8993,5.609,-3.193,8.995,17.73,30.04,10.48,28.71,29.86,0,0,0,0,0,0,0,0,0,0,0,0,0,0,0,0,
305,-0.0585,10.95,-10.31,-7.158,12.86,-14.28,-8.028,-2.16,-0.5755,-4.164,10.51,23.14,35.34,15.08,36.35,33.64,0,0,0,0,0,0,0,0,0,0,0,0,0,0,0,0,
306,3.416,8.787,-15.28,-7.682,15.98,-11.33,-7.821,-5.391,-2.046,-3.356,12.52,27.72,39.88,17.74,41.34,38.72,0,0,0,0,0,0,0,0,0,0,0,0,0,0,0,0,
307,12.77,5.898,-9.545,-5.744,21.97,-4.399,-4.128,-3.966,5.818,-4.11,17.44,36.88,41.18,16.29,46.5,42.93,0,0,0,0,0,0,0,0,0,0,0,0,0,0,0,0,
308,28.39,4.616,2.85,-1.9,28.15,5.71,1.2,-1.146,14.01,-4.656,20.26,40.68,38.36,13.96,48.65,42.6,0,0,0,0,0,0,0,0,0,0,0,0,0,0,0,0,
309,34.93,5.099,2.846,-1.225,28.96,8.9,1.465,-2.967,8.633,-3.768,14.21,30.49,28.37,9.853,40.08,33.7,0,0,0,0,0,0,0,0,0,0,0,0,0,0,0,0,
310,29.26,4.017,-4.1,-0.6475,25.56,4.486,1.56,-0.4988,2.464,-2.637,7.122,21.2,16.12,2.761,26.94,21.25,0,0,0,0,0,0,0,0,0,0,0,0,0,0,0,0,
311,25.4,4.734,-2.384,3.529,24.78,2.034,5.239,7.795,6.343,-1.986,2.449,16.05,9.225,-3.6,15.49,13,0,0,0,0,0,0,0,0,0,0,0,0,0,0,0,0,
312,24.83,8.339,-0.1105,5.868,23.12,1.759,6.098,10.06,3.029,-2.057,-4.33,6.339,7.323,-4.738,5.851,7.934,0,0,0,0,0,0,0,0,0,0,0,0,0,0,0,0,
313,21.9,9.785,-1.763,4.043,18.92,0.4747,3.993,7.642,-2.755,-0.2461,-3.643,2.254,6.682,-1.994,7.185,4.979,0,0,0,0,0,0,0,0,0,0,0,0,0,0,0,0,
314,18.9,8.654,-0.3336,1.534,21.65,0.2051,2.164,6.935,6.803,2.2,5.356,7.154,4.822,-0.0351,13.44,3.204,0,0,0,0,0,0,0,0,0,0,0,0,0,0,0,0,
315,17.58,7.02,-2.945,-1.416,28.76,0.7775,-0.6528,4.739,14.47,1.05,6.2,6.444,2.341,0.5739,7.093,-0.604,0,0,0,0,0,0,0,0,0,0,0,0,0,0,0,0,
316,15.49,5.167,-8.439,-2.481,28.67,-0.4536,-2.69,2.681,8.655,-0.2041,0.7934,-1.128,1.404,1.193,-1.461,-2.97,0,0,0,0,0,0,0,0,0,0,0,0,0,0,0,0,
317,9.626,3.807,-3.836,0.0879,25.74,-3.377,-2.352,4.439,4.94,0.4578,-0.6633,-7.458,1.715,0.8479,-2.405,-1.71,0,0,0,0,0,0,0,0,0,0,0,0,0,0,0,0,
318,0.9889,2.717,1.583,0.3484,28.03,-4.376,-2.179,4.946,4.727,-1.115,-2.038,-10.9,4.243,-0.7085,-4.842,-0.0104,0,0,0,0,0,0,0,0,0,0,0,0,0,0,0,0,
319,-4.155,3.484,-2.113,-1.213,30.09,-2.322,-1.529,3.387,2.465,-2.17,-2.608,-10.52,11.43,0.2094,-2.73,3.194,0,0,0,0,0,0,0,0,0,0,0,0,0,0,0,0,
320,-3.934,8.824,-4.215,0.5867,28.55,-0.9619,1.287,4.799,3.191,1.284,1.795,-6.241,21.38,6.818,9.082,9.772,0,0,0,0,0,0,0,0,0,0,0,0,0,0,0,0,
321,-1.698,13.05,-2.677,-0.3164,27.7,-1.457,3.124,6.171,4.969,3.574,4.786,-0.963,29.25,13.78,16.9,17.4,0,0,0,0,0,0,0,0,0,0,0,0,0,0,0,0,
322,2.591,9.456,-4.592,-5.95,27.66,-2.454,2.7,3.824,4.34,1.362,4.922,4.21,32.06,14.67,18.09,20.33,0,0,0,0,0,0,0,0,0,0,0,0,0,0,0,0,
323,11.49,3.877,-5.29,-5.916,30.68,-0.3177,3.946,2.849,7.97,0.4926,10.62,11.86,32.35,15.03,22.48,19.01,0,0,0,0,0,0,0,0,0,0,0,0,0,0,0,0,
324,25.4,3.937,-0.3608,-1.409,39.01,8.68,6.473,4.372,17.77,2.876,20.78,21.57,34.55,19.22,29.52,22.4,0,0,0,0,0,0,0,0,0,0,0,0,0,0,0,0,
325,37.44,7.026,3.082,-3.131,42.18,14.44,5.655,3.35,25.44,4.189,24.55,25.88,35.15,19.1,30.77,25.95,0,0,0,0,0,0,0,0,0,0,0,0,0,0,0,0,
326,37.96,7.56,1.071,-8.016,36.71,9.184,2.425,1.143,24.98,4.68,19.21,21.55,29.14,12.22,24.04,18.38,0,0,0,0,0,0,0,0,0,0,0,0,0,0,0,0,
327,30.26,4.67,-1.103,-9.519,33.56,6.274,0.3208,0.7361,18.41,5.734,10.99,13.75,20.53,6.795,14.43,6.377,0,0,0,0,0,0,0,0,0,0,0,0,0,0,0,0,
328,24.67,2.193,-0.7988,-10.06,35.06,10.04,0.7654,0.3441,12.95,4.9,5.041,6.998,13.52,4.37,6.835,-0.7022,0,0,0,0,0,0,0,0,0,0,0,0,0,0,0,0,
329,22.19,3.304,0.7937,-8.206,39.31,10.45,4.347,0.552,13.24,3.836,2.227,3.892,7.54,0.6154,2.163,-2.906,0,0,0,0,0,0,0,0,0,0,0,0,0,0,0,0,
330,20.43,6.438,3.871,-2.755,46.3,11.32,8.805,3.051,13.33,5.314,-0.5768,4.194,4.223,-3.784,-1.605,-2.696,0,0,0,0,0,0,0,0,0,0,0,0,0,0,0,0,
331,20.71,10.46,7.567,1.104,50.2,17.05,12.44,5.628,9.829,5.641,-3.179,4.163,3.939,-6.252,-3.295,-5.273,0,0,0,0,0,0,0,0,0,0,0,0,0,0,0,0,
332,22.59,13.72,10.41,3.716,50.29,19.68,14.33,5.286,11.25,2.958,-1.482,2.675,1.855,-7.163,-1.344,-11.22,0,0,0,0,0,0,0,0,0,0,0,0,0,0,0,0,
333,22.33,11.63,10.7,4.522,47.74,17.57,11.56,2.306,14.5,0.8785,0.5997,0.522,-1.875,-7.059,0.2009,-13.36,0,0,0,0,0,0,0,0,0,0,0,0,0,0,0,0,
334,18.99,8.41,8.227,0.9127,38.82,15.95,8.611,0.9857,9.204,0.8374,-0.9573,-0.7969,-0.1165,-4.401,1.861,-8.204,0,0,0,0,0,0,0,0,0,0,0,0,0,0,0,0,
335,15.73,11.12,5.693,-1.613,28.8,13.86,10,1.729,5.064,1.656,-1.133,1.557,7.915,1.748,6.354,-0.3414,0,0,0,0,0,0,0,0,0,0,0,0,0,0,0,0,
336,12.67,12.48,1.844,-3.752,24.7,7.995,8.47,-0.783,8.696,2.341,1.236,6.933,16.19,8.959,11.09,6.583,0,0,0,0,0,0,0,0,0,0,0,0,0,0,0,0,
337,10.56,7.037,-2.405,-7.654,26.1,3.729,4.848,-4.591,10.42,1.318,4.442,12.83,22.47,13.8,17.1,14.78,0,0,0,0,0,0,0,0,0,0,0,0,0,0,0,0,
338,15.13,3.501,-0.5717,-4.371,31.57,8.222,8.379,-2.869,10.53,-1.078,9.277,18.19,26.68,15.94,22.52,21.78,0,0,0,0,0,0,0,0,0,0,0,0,0,0,0,0,
339,23,5.81,4.147,2.54,34.22,14.91,13.73,2.35,11.52,-1.456,11.66,21.09,27.88,17.69,22.79,22.65,0,0,0,0,0,0,0,0,0,0,0,0,0,0,0,0,
340,25.72,9.413,6.252,1.812,31.25,14.68,12.92,4.257,10.61,0.4271,10.16,21.22,28.19,19.36,22.81,21.13,0,0,0,0,0,0,0,0,0,0,0,0,0,0,0,0,
341,26.51,12.08,5.552,-2.364,30.85,11.34,9.39,1.386,11.79,1.465,10.16,21.5,30.66,19.89,25.18,21.26,0,0,0,0,0,0,0,0,0,0,0,0,0,0,0,0,
342,28.32,13.71,-1.949,-5.631,32.75,9.188,6.104,-1.486,13.25,2.353,11.83,23.04,33.89,21.18,28.53,23.24,0,0,0,0,0,0,0,0,0,0,0,0,0,0,0,0,
343,27.24,15.56,-9.351,-8.165,31.38,7.485,4.224,0.0433,12.66,4.084,12.99,23.67,34.52,22.3,31.26,23.53,0,0,0,0,0,0,0,0,0,0,0,0,0,0,0,0,
344,27.23,19.61,-3.476,-6.455,30.59,10.91,7.627,3.96,17.24,3.367,14.95,23.54,33.77,18.89,27.38,18.06,0,0,0,0,0,0,0,0,0,0,0,0,0,0,0,0,
345,33.41,24.76,7.311,-2.722,35.84,22.27,14.2,6.041,22.45,0.777,15.18,22.84,33.32,14.5,19.75,13.37,0,0,0,0,0,0,0,0,0,0,0,0,0,0,0,0,
346,37.49,26.75,10.94,-1.284,43.92,31.84,15.55,5.79,20.07,1.243,9.647,16.71,28.89,12.62,12.52,10.82,0,0,0,0,0,0,0,0,0,0,0,0,0,0,0,0,
347,32.4,23.63,9.878,0.4814,42.79,30.61,13.18,6.285,15.01,4.674,2.802,7.463,21.24,7.909,2.643,4.374,0,0,0,0,0,0,0,0,0,0,0,0,0,0,0,0,
348,27.04,19.93,6.941,4.47,31.19,24.76,15.74,9.056,12.09,6.838,0.973,4.915,17.52,1.89,-2.925,-0.3278,0,0,0,0,0,0,0,0,0,0,0,0,0,0,0,0,
349,27.67,19.48,5.589,8.007,28.03,24.95,19.46,10.95,13.27,5.831,2.218,6.817,15.99,0.3394,-1.931,-4.146,0,0,0,0,0,0,0,0,0,0,0,0,0,0,0,0,
350,26.4,20.04,9.242,9.787,34.93,28.65,19.2,12.06,13.58,4.35,3.201,7.162,13.71,-0.7955,-1.756,-11.09,0,0,0,0,0,0,0,0,0,0,0,0,0,0,0,0,
351,21.83,20.36,12.25,10.21,30.17,26.87,21.83,15.02,5.434,5.728,4.026,9.301,13.92,-3.549,1.993,-10.16,0,0,0,0,0,0,0,0,0,0,0,0,0,0,0,0,
352,20.15,20.76,11.11,8.222,18.81,24.28,26.54,15.49,1.088,7.479,5.004,13.88,15.29,-2.876,10.25,-2.175,0,0,0,0,0,0,0,0,0,0,0,0,0,0,0,0,
353,19.57,20.27,11.29,5.981,23.31,28.88,26.67,12.31,8.159,6.919,7.375,19.21,18.96,2.487,15.19,4.13,0,0,0,0,0,0,0,0,0,0,0,0,0,0,0,0,
354,19.69,19.9,13.91,6.781,32.03,31.32,26.74,11.85,10.3,6.951,9.11,24.53,28.2,9.738,16.36,11.49,0,0,0,0,0,0,0,0,0,0,0,0,0,0,0,0,
355,24.5,21.44,13.25,6.999,25.41,25.6,29.41,13.48,4.791,7.419,6.729,26.02,36.19,15.34,15.65,18.15,0,0,0,0,0,0,0,0,0,0,0,0,0,0,0,0,
356,30.84,25.34,9.884,5.331,16.41,22.22,31.19,13.35,2.333,6.57,4.319,25.57,41.15,18.25,15.82,21.98,0,0,0,0,0,0,0,0,0,0,0,0,0,0,0,0,
357,34.01,30.7,8.016,5.635,16.5,22.16,32.21,13.08,1.342,7.841,5.06,26.51,46.73,19.47,18.2,24.22,0,0,0,0,0,0,0,0,0,0,0,0,0,0,0,0,
358,34.61,32.93,4.241,6.139,15.95,20.22,30.56,12.15,1.175,9.739,7.492,25.87,44.87,17.24,19.39,21.79,0,0,0,0,0,0,0,0,0,0,0,0,0,0,0,0,
359,34.49,28.56,-0.5846,4.067,13.45,20.69,25.35,7.662,4.266,6.989,12.12,25.49,35.54,12.41,20.92,19.1,0,0,0,0,0,0,0,0,0,0,0,0,0,0,0,0,
360,34.08,21.9,2.043,0.5375,14.61,21.9,22,1.782,7.866,3.651,15.88,27.51,32.15,9.594,25.2,22.24,0,0,0,0,0,0,0,0,0,0,0,0,0,0,0,0,
361,32.47,19.07,6.788,-2.365,14.77,19.53,20.9,0.2659,12.9,4.487,16.05,26.51,32.9,9.237,27.32,26.87,0,0,0,0,0,0,0,0,0,0,0,0,0,0,0,0,
362,28.73,18.82,2.764,-3.311,11.21,17.48,18.45,2.227,17.01,5.721,14,19.4,28.27,9.977,20.67,27.03,0,0,0,0,0,0,0,0,0,0,0,0,0,0,0,0,
363,22.44,15.75,-4.144,-5.565,7.852,14.46,15.24,-0.0549,12.29,4.35,7.075,8.146,21.65,10.71,7.981,22.24,0,0,0,0,0,0,0,0,0,0,0,0,0,0,0,0,
364,16.38,10.91,-5.947,-8.558,4.09,9.182,13.14,-3.971,5.299,2.224,-0.0673,-0.0439,18.58,9.965,2.756,18.15,0,0,0,0,0,0,0,0,0,0,0,0,0,0,0,0,
365,14.48,9.936,-4.097,-4.549,1.48,10.27,15.31,-0.0896,8.204,1.557,2.843,2.114,19.6,8.916,8.795,18.33,0,0,0,0,0,0,0,0,0,0,0,0,0,0,0,0,
366,14.93,13.3,1.139,4.627,7.856,19.14,22.04,6.303,14.62,2.835,9.229,8.617,23.53,6.46,15.43,18.42,0,0,0,0,0,0,0,0,0,0,0,0,0,0,0,0,
367,16.32,17.41,6.914,9.652,17.49,24.3,25.35,7.127,15.05,5.293,9.837,11.69,26.76,1.061,17.15,14.59,0,0,0,0,0,0,0,0,0,0,0,0,0,0,0,0,
368,17.29,19.05,6.982,8.823,17.46,20.95,22.73,7.827,14.95,7.945,9.489,14.24,28.38,-1.561,16.59,11.19,0,0,0,0,0,0,0,0,0,0,0,0,0,0,0,0,
369,11.93,17.01,4.175,7.19,16.67,19.74,21.69,10.76,16.57,8.768,10.73,15.76,29.85,0.6391,16.3,15.58,0,0,0,0,0,0,0,0,0,0,0,0,0,0,0,0,
370,5.426,13.65,4.399,8.883,22.4,23.57,23.4,10.99,13.55,6.974,10.16,12.54,28.51,1.72,15.2,21.37,0,0,0,0,0,0,0,0,0,0,0,0,0,0,0,0,
371,6.135,11.33,6.752,11.28,18.39,19.45,23.57,9.941,8.124,6.613,7.865,9.379,25.52,2.213,13.79,18.48,0,0,0,0,0,0,0,0,0,0,0,0,0,0,0,0,
372,5.629,11.89,7.612,10.28,6.561,10.78,22.95,10.39,6.432,9.598,5.616,10.07,27.1,5.867,16.45,15.35,0,0,0,0,0,0,0,0,0,0,0,0,0,0,0,0,
373,2.493,16.38,5.167,8.608,5.905,12.98,21.55,10.02,7.22,10.62,3.957,10.96,29.96,7.841,18.42,16.09,0,0,0,0,0,0,0,0,0,0,0,0,0,0,0,0,
374,6.863,19.38,4.494,10.18,8.413,19.41,18.88,8.778,8.09,8.375,2.919,11.34,28.35,5.024,16.11,13.43,0,0,0,0,0,0,0,0,0,0,0,0,0,0,0,0,
375,14.97,17.8,10.26,14.35,4.818,21.77,20.01,10.45,11.22,9.265,4.77,15.03,28.27,4.578,19.03,14.56,0,0,0,0,0,0,0,0,0,0,0,0,0,0,0,0,
376,21.91,17.88,14.82,16.22,9.04,26.61,25.55,14.22,17.34,12.43,11.18,21.01,32.67,8.846,25.93,23.63,0,0,0,0,0,0,0,0,0,0,0,0,0,0,0,0,
377,28.29,19.09,13.75,12.84,18.38,29.36,26.99,13.28,19.04,11.03,15.08,21.64,31.14,8.917,24.5,27.67,0,0,0,0,0,0,0,0,0,0,0,0,0,0,0,0,
378,25.69,13.57,12.8,9.705,14.11,23.06,21.08,7.375,12.56,7.946,9.158,12.44,19.15,2.023,14.36,22.24,0,0,0,0,0,0,0,0,0,0,0,0,0,0,0,0,
379,13.69,3.117,10.82,9.596,3.249,18.05,14.33,4.637,6.566,6.41,-0.1861,0.1612,7.33,-4.385,5.242,14.39,0,0,0,0,0,0,0,0,0,0,0,0,0,0,0,0,
380,5.255,-4.133,6.357,8.047,4.49,20.29,12.2,6.281,4.308,2.349,-4.609,-7.804,2.443,-7.545,2.115,4.524,0,0,0,0,0,0,0,0,0,0,0,0,0,0,0,0,
381,2.501,-4.842,5.104,6.755,10.42,20.46,14.32,8.106,1.927,0.1215,-7.36,-13.65,-0.9298,-9.529,-1.243,-7.548,0,0,0,0,0,0,0,0,0,0,0,0,0,0,0,0,
382,0.4655,-1.796,5.966,9.449,6.137,14.78,16.92,10.28,1.02,3.98,-9.465,-15.62,-3.298,-10,-3.988,-10.28,0,0,0,0,0,0,0,0,0,0,0,0,0,0,0,0,
383,0.7297,-0.3844,5.231,11.97,1.547,11.86,15.88,11.22,1.447,4.667,-5.829,-8.251,0.9313,-9.663,2.491,-2.718,0,0,0,0,0,0,0,0,0,0,0,0,0,0,0,0,
384,1.438,-1.96,4.876,10.38,6.595,14.11,12.59,9.469,2.754,0.9891,-1.605,-0.3287,9.143,-7.973,8.839,0.0582,0,0,0,0,0,0,0,0,0,0,0,0,0,0,0,0,
385,-1.181,-2.185,4.339,6.995,8.312,13.69,12.23,8.095,4.662,0.9011,-2.128,2.046,18.18,-0.5858,8.991,2.974,0,0,0,0,0,0,0,0,0,0,0,0,0,0,0,0,
386,-0.9101,2.474,2.417,5.247,3.962,11.25,12.66,6.703,1.277,1.601,-0.5346,7.162,28.06,9.085,13.26,13.82,0,0,0,0,0,0,0,0,0,0,0,0,0,0,0,0,
387,2.979,8.912,2.697,4.774,8.274,11.94,9.931,5.657,-0.3624,1.51,3.411,12.59,32.7,11.88,17.63,17.27,0,0,0,0,0,0,0,0,0,0,0,0,0,0,0,0,
388,1.19,11.58,5.49,3.12,16.54,11.04,8.984,7.468,8.938,4.484,3.948,12.35,30.77,9.8,16.67,13.37,0,0,0,0,0,0,0,0,0,0,0,0,0,0,0,0,
389,-1.8,10.39,5.748,0.6677,13.34,7.337,11.24,8.941,11.89,4.979,2.443,11.32,26.86,9.072,14.39,12.9,0,0,0,0,0,0,0,0,0,0,0,0,0,0,0,0,
390,-0.7089,7.614,4.013,1.125,5.541,6.226,12.5,10.97,0.6556,2.123,-1.051,7.855,21.53,8.86,8.323,9.662,0,0,0,0,0,0,0,0,0,0,0,0,0,0,0,0,
391,-2.495,7.162,6.754,5.235,9.002,8.363,17.06,14.62,-1.471,5.6,-0.2734,5.788,21.54,10.95,7.611,7.092,0,0,0,0,0,0,0,0,0,0,0,0,0,0,0,0,
392,1.615,13.61,13.32,7.526,22.54,14.69,24.52,11.81,12.33,11.25,13.29,14.69,27.11,14.61,18.33,10.57,0,0,0,0,0,0,0,0,0,0,0,0,0,0,0,0,
393,14.24,17.24,17.38,6.321,29.99,20.92,24.21,8.568,20.62,8.255,21.03,15.39,19.15,9.669,16.01,4.432,0,0,0,0,0,0,0,0,0,0,0,0,0,0,0,0,
394,9.398,6.779,18.14,7.018,22.19,16.7,18.43,16.68,12.86,1.924,7.521,-5.284,-2.348,-1.671,-5.734,-13.92,0,0,0,0,0,0,0,0,0,0,0,0,0,0,0,0,
395,-8.413,-5.912,16.93,8.045,11.97,9.384,15.87,22.12,1.135,-1.491,-4.59,-20.45,-14.31,-6.33,-19.26,-23.84,0,0,0,0,0,0,0,0,0,0,0,0,0,0,0,0,
396,-9.171,-10.13,14.19,4.625,13.47,12.03,14.77,15.11,-0.8634,-4.704,-1.356,-19.29,-15.07,-6.733,-18.06,-20,0,0,0,0,0,0,0,0,0,0,0,0,0,0,0,0,
397,-2.685,-13.13,14.18,3.356,19.95,17.04,15.04,11.58,6.466,-5.467,3.207,-19.08,-18.54,-11.09,-16.76,-17.42,0,0,0,0,0,0,0,0,0,0,0,0,0,0,0,0,
398,-5.415,-16.69,17.88,9.213,22.59,17.52,18.71,16.53,12.87,-3.675,5.197,-21.16,-24.67,-15.8,-17.12,-20.49,0,0,0,0,0,0,0,0,0,0,0,0,0,0,0,0,
399,-7.566,-17.44,17.98,13.74,22.61,18.48,21.23,19.34,10.95,-5.153,6.128,-22.8,-26.61,-15.96,-16.94,-22.35,0,0,0,0,0,0,0,0,0,0,0,0,0,0,0,0,
400,-13.35,-17.62,11.34,10.39,16.44,15.02,18.32,17.01,4.39,-5.4,0.4283,-28.91,-23.42,-12.39,-16.64,-22.76,0,0,0,0,0,0,0,0,0,0,0,0,0,0,0,0,
401,-27.8,-16.79,4.345,2.927,4.023,3.078,10.23,11.51,1.66,-0.3794,-5.125,-32.16,-17.48,-7.941,-12.73,-20.51,0,0,0,0,0,0,0,0,0,0,0,0,0,0,0,0,
402,-31.18,-13.33,1.044,-4.364,-2.556,-3.452,2.828,6.329,1.056,1.879,-1.555,-26.55,-9.46,-3.766,-7.259,-12.95,0,0,0,0,0,0,0,0,0,0,0,0,0,0,0,0,
403,-20.47,-8.812,-1.224,-9.713,-3.036,0.2258,1.546,5.014,-2.404,1.347,3.889,-19.5,0.1034,2.647,-2.924,-4.437,0,0,0,0,0,0,0,0,0,0,0,0,0,0,0,0,
404,-14.26,-4.149,-3.906,-10.22,-6.356,-0.0044,1.837,4.25,-3.714,3.827,5.286,-14.18,7.417,9.934,3.262,2.053,0,0,0,0,0,0,0,0,0,0,0,0,0,0,0,0,
405,-12.12,0.1039,-5.275,-7.325,-6.201,-4.835,0.4047,1.511,-0.1124,4.55,5.962,-8.778,11.7,13.06,6.877,5.466,0,0,0,0,0,0,0,0,0,0,0,0,0,0,0,0,
406,-5.216,3.578,-4.515,-6.555,1.457,-2.546,1.706,0.9675,3.679,2.96,6.17,-5.158,15.9,14.21,4.908,6.078,0,0,0,0,0,0,0,0,0,0,0,0,0,0,0,0,
407,-0.0715,5.852,-2.231,-6.7,4.266,2.739,5.446,4.514,4.919,5.432,4.887,-4.416,17.03,15.4,3.486,7.245,0,0,0,0,0,0,0,0,0,0,0,0,0,0,0,0,
408,0.3062,5.54,0.0259,-4.638,-0.5639,3.471,8.26,8.227,2.692,7.018,4.44,-4.648,12.15,12.11,2.156,6.851,0,0,0,0,0,0,0,0,0,0,0,0,0,0,0,0,
409,3.58,4.4,2.591,-2.527,-2.639,5.341,10.93,8.72,0.4219,3.114,5.199,-5.136,6.46,6.759,-2.197,3.024,0,0,0,0,0,0,0,0,0,0,0,0,0,0,0,0,
410,7.816,5.099,8.024,-0.6336,0.4073,9.287,12.92,7.093,1.995,1.533,5.278,-7.295,3.137,4.973,-7.894,-1.927,0,0,0,0,0,0,0,0,0,0,0,0,0,0,0,0,
411,5.885,4.338,12.14,0.2969,2.668,9.992,11.3,5.392,3.28,3.921,5.46,-9.992,0.6636,3.719,-12.42,-7.568,0,0,0,0,0,0,0,0,0,0,0,0,0,0,0,0,
412,3.262,-0.0743,9.788,-1.898,1.336,10.32,7.734,4.175,4.658,3.708,7.383,-9.235,0.6365,2.311,-12.35,-10.21,0,0,0,0,0,0,0,0,0,0,0,0,0,0,0,0,
413,7.155,-1.96,10.04,-1.578,1.86,14.18,8.631,5.35,10.35,1.772,9.101,-5.521,2.998,3.98,-10.92,-7.922,0,0,0,0,0,0,0,0,0,0,0,0,0,0,0,0,
414,12.44,0.867,18.03,5.233,9.535,20.13,14.83,9.992,14.14,1.613,7.989,-4.625,1.736,4.213,-13.29,-6.632,0,0,0,0,0,0,0,0,0,0,0,0,0,0,0,0,
415,10.63,0.2558,21.13,11.14,15.47,22.97,18.68,14.6,11.85,1.946,4.599,-10.23,-6.681,-1.085,-15.1,-11.04,0,0,0,0,0,0,0,0,0,0,0,0,0,0,0,0,
416,1.145,-7.168,16.8,10.4,10.38,18.22,16.39,14.9,6.705,1.807,1.955,-17.16,-16.13,-7.274,-13.27,-17.18,0,0,0,0,0,0,0,0,0,0,0,0,0,0,0,0,
417,-5.316,-13.54,14.11,6.789,2.558,13.81,12.81,11.01,1.472,1.893,4.482,-14.24,-14.5,-7.733,-8.058,-14.29,0,0,0,0,0,0,0,0,0,0,0,0,0,0,0,0,
418,2.333,-11.17,10.66,6.146,-1.269,16.08,12.05,8.118,2.291,2.453,12.11,-0.9874,-0.2385,-1.093,0.6013,-5.17,0,0,0,0,0,0,0,0,0,0,0,0,0,0,0,0,
419,16.63,-2.936,6.676,7.582,-3.377,15.27,11.54,8.616,6.521,2.468,17.61,10.47,12.15,5.809,7.092,-3.512,0,0,0,0,0,0,0,0,0,0,0,0,0,0,0,0,
420,23.52,1.7,8.154,4.128,0.1303,11.26,7.854,6.888,2.421,1.766,17.68,14.72,16.08,8.491,8.162,-4.36,0,0,0,0,0,0,0,0,0,0,0,0,0,0,0,0,
421,25.64,2.985,9.01,-2.535,4.038,11.91,5.013,2.768,-2.55,3.291,16.95,15.3,20.66,11.94,8.435,0.0285,0,0,0,0,0,0,0,0,0,0,0,0,0,0,0,0,
422,28.74,8.044,4.785,-2.843,-3.231,9.409,6.187,3.082,3.56,6.602,18.03,14.73,26.73,16.43,10.13,2.905,0,0,0,0,0,0,0,0,0,0,0,0,0,0,0,0,
423,27.89,12.06,-0.7268,-2.326,-8.781,2.705,4.704,3.454,8.388,6.657,17.38,13.41,26.8,16.95,9.903,3.722,0,0,0,0,0,0,0,0,0,0,0,0,0,0,0,0,
424,22.16,9.152,-5.418,-10.16,-3.41,3.01,-0.5415,-0.9372,2.866,3.412,12.44,10.17,24.52,16.52,7.699,6.018,0,0,0,0,0,0,0,0,0,0,0,0,0,0,0,0,
425,18.61,6.636,-6.263,-14.78,-4.05,5.198,-1.75,-2.373,-0.4796,1.21,8.346,6.76,27.01,19.28,8.29,8.318,0,0,0,0,0,0,0,0,0,0,0,0,0,0,0,0,
426,19.45,7.733,-6.402,-11.41,-12.36,2.04,-0.735,-1.571,1.785,1.508,8.212,4.507,28.74,21.11,6.644,6.58,0,0,0,0,0,0,0,0,0,0,0,0,0,0,0,0,
427,18.76,6.574,-8.72,-12.59,-15.83,0.643,-2.13,-3.9,-0.3141,1.887,4.888,-2.182,21.56,17.58,-4.549,-2.007,0,0,0,0,0,0,0,0,0,0,0,0,0,0,0,0,
428,14.01,3.008,-3.961,-14.09,-14.99,3.269,-0.8645,-3.254,-2.59,0.4835,-1.025,-9.98,11.97,12.7,-16.01,-8.26,0,0,0,0,0,0,0,0,0,0,0,0,0,0,0,0,
429,12.49,0.274,5.201,-8.12,-11.49,6.34,3.709,0.2143,0.6493,0.3558,-2.178,-12.14,6.615,9.24,-24.41,-10,0,0,0,0,0,0,0,0,0,0,0,0,0,0,0,0,
430,14.58,-3.452,6.631,-4.668,-9.577,9.435,6.116,2.024,-0.8941,1.917,-3.761,-17.4,-1.825,1.934,-35.94,-19.33,0,0,0,0,0,0,0,0,0,0,0,0,0,0,0,0,
431,13.24,-7.137,4.678,-6.146,-11.86,13.28,9.164,4.432,-1.897,0.5497,-2.564,-19.99,-6.94,-3.081,-36.35,-26.82,0,0,0,0,0,0,0,0,0,0,0,0,0,0,0,0,
432,17.62,-1.321,7.019,-5.939,-7.721,20.7,17.1,3.787,10.76,0.085,12.18,-3.778,4.388,3.115,-19.71,-22.01,0,0,0,0,0,0,0,0,0,0,0,0,0,0,0,0,
433,30.39,12.17,12.83,-3.002,-6.059,25.11,23.43,2.869,15.87,4.468,20.22,7.364,10.57,3.679,-13.67,-24.31,0,0,0,0,0,0,0,0,0,0,0,0,0,0,0,0,
434,25.66,13.6,14.91,1.925,-21.44,15.79,20.76,10.7,1.87,4.513,6.331,-7.545,-2.95,-8.687,-24.87,-34.62,0,0,0,0,0,0,0,0,0,0,0,0,0,0,0,0,
435,1.379,0.9772,9.158,4.558,-29.23,5.497,13.56,15.97,-4.448,-1.303,-3.366,-20.71,-8.609,-12.12,-26.58,-30.21,0,0,0,0,0,0,0,0,0,0,0,0,0,0,0,0,
436,-11.79,-4.961,5.69,3.258,-23.07,3.573,9.765,11.18,-4.212,-2.915,-0.9781,-20.54,-0.4533,-5.404,-17.66,-19.04,0,0,0,0,0,0,0,0,0,0,0,0,0,0,0,0,
437,-13.04,-1.32,2.643,0.9087,-33.4,-1.764,8.739,8.529,-14.43,-1.206,-4.731,-24.39,2.744,-1.583,-15.84,-16.73,0,0,0,0,0,0,0,0,0,0,0,0,0,0,0,0,
438,-18.7,0.1609,-6.535,-4.467,-42.62,-3.269,7.151,9.131,-16.45,-0.5317,-7.174,-25.89,7.777,4.346,-15.51,-12.23,0,0,0,0,0,0,0,0,0,0,0,0,0,0,0,0,
439,-19.67,0.08,-5.845,-10.77,-31.26,-0.4649,4.77,6.979,-10.88,1.288,-1.593,-18.52,17,9.402,-12.8,-5.647,0,0,0,0,0,0,0,0,0,0,0,0,0,0,0,0,
440,-11.52,0.9772,-5.404,-14.43,-42.03,-13.29,1.036,3.582,-20.42,1.643,-0.8098,-13.93,18.23,7.14,-15.08,-7.04,0,0,0,0,0,0,0,0,0,0,0,0,0,0,0,0,
441,-6.58,0.4049,-23.06,-18.82,-65.77,-21.32,-3.553,-0.0562,-26.42,-0.5914,-1.712,-12.03,17.6,7.233,-16.03,-8.17,0,0,0,0,0,0,0,0,0,0,0,0,0,0,0,0,
442,-5.402,-1.146,-25.8,-21.48,-49.47,-11.85,-6.804,-1.716,-14.52,-1.39,0.5253,-11.47,17.37,8.307,-15.77,-9.567,0,0,0,0,0,0,0,0,0,0,0,0,0,0,0,0,
443,-3.503,-4.175,-9.167,-19.28,-25.58,-13.23,-7.519,-0.5593,-6.335,-2.046,-0.9237,-16.03,10.14,3.018,-21.22,-16.98,0,0,0,0,0,0,0,0,0,0,0,0,0,0,0,0,
444,-3.473,-9.22,-6.098,-15.99,-29.36,-13.68,-6.551,1.538,-6.533,-2.462,-2.583,-20.66,1.051,-2.05,-25.15,-21.51,0,0,0,0,0,0,0,0,0,0,0,0,0,0,0,0,
445,-4.975,-14.28,-4.78,-13.44,-32.54,-5.733,-6.367,4.349,-10.06,-3.185,-3.981,-26.18,-9.035,-6.617,-29.83,-28.27,0,0,0,0,0,0,0,0,0,0,0,0,0,0,0,0,
446,-4.526,-19.45,-3.034,-13.38,-34.81,-15.93,-5.608,4.475,-16.62,-8.251,-10.21,-34.91,-21.75,-14.12,-40.59,-42.81,0,0,0,0,0,0,0,0,0,0,0,0,0,0,0,0,
447,-2.589,-24.7,-15.32,-13.28,-40.71,-18.05,-2.545,2.891,-15.17,-9.656,-14.63,-40,-29.11,-18.54,-48.1,-51.51,0,0,0,0,0,0,0,0,0,0,0,0,0,0,0,0,
448,-5.316,-29.54,-13.22,-9.788,-32.78,0.4859,-2.579,3.532,-11.38,-7.311,-16.9,-44.76,-31.25,-19.86,-53.22,-55.21,0,0,0,0,0,0,0,0,0,0,0,0,0,0,0,0,
449,-17.3,-33.26,1.603,-11.73,-26.8,-0.8298,-6.255,1.912,-18.43,-13.74,-20.54,-51.16,-29.37,-20.54,-55.73,-58.41,0,0,0,0,0,0,0,0,0,0,0,0,0,0,0,0,
450,-27.9,-29.39,-0.7482,-17.32,-30.25,-12.51,-6.791,0.041,-21.34,-14.89,-16.07,-44.8,-18.09,-16.13,-44.79,-50.78,0,0,0,0,0,0,0,0,0,0,0,0,0,0,0,0,
451,-20.86,-16.36,-4.761,-13.1,-28.85,-14.63,-4.848,1.019,-11.87,-4.775,-6.133,-27.07,-4.255,-9.628,-30.4,-36.61,0,0,0,0,0,0,0,0,0,0,0,0,0,0,0,0,
452,-4.73,-6.292,-6.461,-12.31,-31.31,-17.97,-4.181,-3.19,-6.383,-8.012,-4.648,-18.48,2.189,-8.039,-27.13,-28.59,0,0,0,0,0,0,0,0,0,0,0,0,0,0,0,0,
453,-2.682,-6.022,-13.68,-28.02,-34.32,-10.3,-5.624,-5.786,-9.859,-12.74,-6.759,-21.09,3.186,-8.025,-26.37,-24.62,0,0,0,0,0,0,0,0,0,0,0,0,0,0,0,0,
454,-10.9,-9.204,-6.781,-33.73,-29.03,-0.1123,-10.62,1.916,-14.13,-3.592,-4.191,-20.25,3.999,-4.833,-19.77,-18.48,0,0,0,0,0,0,0,0,0,0,0,0,0,0,0,0,
455,-10.91,-10.51,0.4109,-17.62,-32.54,-10.85,-15.14,3.97,-16.51,-10.82,-1.42,-13.44,8.194,-0.3596,-13.31,-11.64,0,0,0,0,0,0,0,0,0,0,0,0,0,0,0,0,
456,-7.146,-8.832,-7.835,-9.822,-40.4,-18.3,-14.36,-2.459,-16.16,-24.15,1.202,-8.315,13.27,2.2,-9.684,-9.589,0,0,0,0,0,0,0,0,0,0,0,0,0,0,0,0,
457,-8.056,-6.696,-5.832,-17,-36.08,-10.94,-12.89,-1.98,-13.05,-8.628,4.602,-5.638,14.39,1.532,-4.71,-11.25,0,0,0,0,0,0,0,0,0,0,0,0,0,0,0,0,
458,-6.907,-8.086,-3.202,-18.97,-33.44,-10.43,-13.75,0.9928,-13.48,6.064,2.976,-2.51,14.87,-0.1052,-1.758,-11.55,0,0,0,0,0,0,0,0,0,0,0,0,0,0,0,0,
459,-2.479,-8.523,-14.59,-17.79,-36.77,-13.65,-12.29,0.5916,-17.25,-1.313,-1.129,-0.1998,16.89,-0.0995,-3.483,-10.53,0,0,0,0,0,0,0,0,0,0,0,0,0,0,0,0,
460,0.5101,-4.123,-9.312,-16.2,-32.36,-9.784,-7.956,4.072,-16.01,-3.516,-0.8247,0.4801,16.05,-1.749,-2.095,-10.7,0,0,0,0,0,0,0,0,0,0,0,0,0,0,0,0,
461,2.366,-2.921,4.374,-8.565,-29.52,-5.688,-6.081,7.257,-15.04,-1.329,-0.3449,-0.1789,9.55,-7.749,0.4065,-14.97,0,0,0,0,0,0,0,0,0,0,0,0,0,0,0,0,
462,1.773,-9.764,-3.309,-6.636,-35.88,-5.782,-7.412,6.129,-18.23,-7.834,-2.269,-4.002,-2.625,-13.95,-3.23,-20.97,0,0,0,0,0,0,0,0,0,0,0,0,0,0,0,0,
463,-1.784,-21.11,-6.268,-10.93,-33.85,-5.984,-7.383,8.106,-13.45,-11.89,-2.1,-9.939,-14.91,-18.03,-7.454,-23.83,0,0,0,0,0,0,0,0,0,0,0,0,0,0,0,0,
464,-4.683,-34.03,9.306,-7.921,-23.95,-4.588,-6.257,9.879,-6.801,-12.46,-2.288,-13.91,-22.33,-22.71,-10.03,-28.06,0,0,0,0,0,0,0,0,0,0,0,0,0,0,0,0,
465,-7.878,-43.71,11.76,-5,-24.96,-5.331,-7.514,6.13,-10.96,-16.2,-5.981,-16.73,-29.38,-27.33,-13.86,-34.42,0,0,0,0,0,0,0,0,0,0,0,0,0,0,0,0,
466,-15.11,-46.34,1.114,-7.102,-31.49,-9.088,-8.159,4.798,-13.39,-18.33,-10.03,-21.88,-35.77,-27.83,-17.32,-37.19,0,0,0,0,0,0,0,0,0,0,0,0,0,0,0,0,
467,-23.95,-43.87,2.353,-5.874,-32.53,-13.5,-5.529,6.845,-13.32,-16.68,-15.05,-27.43,-36.25,-25.25,-22.19,-39.44,0,0,0,0,0,0,0,0,0,0,0,0,0,0,0,0,
468,-28.63,-38.01,3.945,-6.746,-33.59,-17.3,-5.252,4.892,-23.29,-13.57,-21.36,-29.37,-33.04,-22.99,-27.05,-41.5,0,0,0,0,0,0,0,0,0,0,0,0,0,0,0,0,
469,-28.43,-30.18,-10.17,-14.68,-35.86,-19.7,-10.3,0.7421,-28.21,-10.31,-23.05,-27.56,-24.99,-18.63,-25.38,-38.14,0,0,0,0,0,0,0,0,0,0,0,0,0,0,0,0,
470,-26.96,-22.38,-16.22,-20.92,-37.52,-23.02,-14.56,-2.459,-17.51,-8.207,-18.68,-23.14,-11.55,-10.44,-19.35,-31.98,0,0,0,0,0,0,0,0,0,0,0,0,0,0,0,0,
471,-25.84,-14.32,-2.821,-21.56,-37.99,-25,-13.91,-5.926,-9.041,-5.633,-12.25,-16.4,-1.823,-2.437,-13.79,-26.29,0,0,0,0,0,0,0,0,0,0,0,0,0,0,0,0,
472,-23.64,-6.645,0.7165,-21.11,-31.44,-19.9,-12.91,-7.946,-7.525,-1.724,-5.172,-8.119,4.341,3.734,-8.428,-20.75,0,0,0,0,0,0,0,0,0,0,0,0,0,0,0,0,
473,-19.35,-1.499,-10.78,-22.48,-23.15,-15.24,-15.68,-8.828,-4.121,-0.1363,1.524,0.3461,12.27,7.955,-4.354,-16.64,0,0,0,0,0,0,0,0,0,0,0,0,0,0,0,0,
474,-13.72,1.265,-12.1,-23.04,-23.13,-15.86,-16.89,-9.959,-1.995,-0.5237,5.975,7.682,17.47,9.475,-2.632,-14.09,0,0,0,0,0,0,0,0,0,0,0,0,0,0,0,0,
475,-7.246,3.579,-6.428,-21.27,-25.04,-13.56,-10.92,-7.224,-1.581,2.067,8.971,13.4,19.8,11.2,0.2265,-11.56,0,0,0,0,0,0,0,0,0,0,0,0,0,0,0,0,
476,-1.752,5.56,-9.382,-20.74,-26.9,-12.66,-5.577,-2.691,-0.0309,5.331,10.9,17.1,21.47,12.53,5.216,-9.929,0,0,0,0,0,0,0,0,0,0,0,0,0,0,0,0,
477,-0.9913,4.326,-12.71,-21.37,-33.02,-18.39,-8.093,-3.574,-1.6,4.583,11.65,18.37,19.1,10.14,8.399,-9.739,0,0,0,0,0,0,0,0,0,0,0,0,0,0,0,0,
478,-2.407,0.1034,-7.434,-20.54,-30.09,-17.28,-8.675,-4.719,-0.9706,4.571,13.2,17.48,15.15,7.082,8.862,-8.64,0,0,0,0,0,0,0,0,0,0,0,0,0,0,0,0,
479,-2.08,-4.609,-1.198,-20.42,-17.77,-9.366,-3.781,-1.552,5.38,7.209,13.5,12.98,11.49,4.367,6.854,-8.84,0,0,0,0,0,0,0,0,0,0,0,0,0,0,0,0,
480,-6.782,-12.38,-2.069,-22.03,-20.68,-10.62,-5.865,-1.976,5.308,5.346,10.03,5.677,5.577,0.2226,4.088,-12.27,0,0,0,0,0,0,0,0,0,0,0,0,0,0,0,0,
481,-17.16,-22.31,-3.625,-20.91,-31.29,-13.88,-11,-3.556,1.472,0.4141,8.612,1.89,0.6859,-2.44,5.544,-12.82,0,0,0,0,0,0,0,0,0,0,0,0,0,0,0,0,
482,-19.13,-27.41,2.785,-14.14,-21.8,-5.175,-6.137,2.061,5.533,-0.2106,11.18,2.981,-3.293,-4.137,6.544,-11.93,0,0,0,0,0,0,0,0,0,0,0,0,0,0,0,0,
483,-11.89,-29.47,8.429,-8.235,-5.844,2.703,-1.876,4.074,10.83,-0.5378,10.98,3.155,-11.87,-8.862,0.3013,-16.78,0,0,0,0,0,0,0,0,0,0,0,0,0,0,0,0,
484,-11.07,-35.62,4.369,-11.62,-8.49,-2.954,-8.589,-4.649,10.1,-6.248,6.795,-1.136,-24.96,-17.12,-8.113,-24.85,0,0,0,0,0,0,0,0,0,0,0,0,0,0,0,0,
485,-18.35,-44.74,-2.999,-19.77,-22.19,-12.21,-15.6,-10.26,4.714,-10.95,3.872,-6.344,-35.75,-24.24,-12.56,-29.57,0,0,0,0,0,0,0,0,0,0,0,0,0,0,0,0,
486,-20.89,-48.93,-7.138,-24.5,-28.69,-15.27,-18.66,-9.63,0.8492,-9.242,5.821,-4.649,-33.05,-21.61,-8.975,-24.52,0,0,0,0,0,0,0,0,0,0,0,0,0,0,0,0,
487,-16.93,-42.59,-5.116,-26.67,-20.33,-14.94,-21.97,-11.12,5.269,-6.91,8.683,1.236,-18.91,-13.6,-2.781,-15.68,0,0,0,0,0,0,0,0,0,0,0,0,0,0,0,0,
488,-14.82,-30.55,-1.003,-26.28,-8.879,-16.03,-21.2,-9.274,6.74,-6.939,4.759,0.1706,-9.775,-12.6,-6.223,-16.65,0,0,0,0,0,0,0,0,0,0,0,0,0,0,0,0,
489,-14.6,-21.15,-4.83,-23.2,-12.52,-18.11,-17.03,-2.36,-1.15,-4.485,-1.177,-3.076,-4.364,-10.6,-9.795,-16.96,0,0,0,0,0,0,0,0,0,0,0,0,0,0,0,0,
490,-12.86,-13.3,-9.929,-23.31,-22.74,-18,-17.26,-1.228,-2.145,-0.3242,0.0374,1.702,6.345,0.071,-3.012,-8.209,0,0,0,0,0,0,0,0,0,0,0,0,0,0,0,0,
491,-11.07,-4.86,-7.882,-25.37,-23.48,-16.61,-18.76,-3.866,1.97,0.9964,3.065,8.91,14.78,7.131,2.944,-4.131,0,0,0,0,0,0,0,0,0,0,0,0,0,0,0,0,
492,-8.08,0.9663,-9.74,-23.03,-20.82,-16.67,-16.07,-2.279,-1.694,0.3841,2.292,13.49,19.64,9.231,7.016,-1.204,0,0,0,0,0,0,0,0,0,0,0,0,0,0,0,0,
493,-4.021,4.53,-14.92,-19.42,-20.04,-16.38,-12.88,0.5155,-5.771,-0.0537,2.212,17.2,26.61,13.56,13.23,6.757,0,0,0,0,0,0,0,0,0,0,0,0,0,0,0,0,
494,-2.793,6.685,-9.723,-16.19,-16.29,-12.57,-10.42,2.38,-6.096,0.7184,4.93,18.28,30.03,15.08,15.94,8.838,0,0,0,0,0,0,0,0,0,0,0,0,0,0,0,0,
495,-1.354,5.269,0.2426,-10.1,-10.07,-6.088,-7.832,3.046,-3.275,1.999,8.666,18.45,30.74,14.38,19.06,9.267,0,0,0,0,0,0,0,0,0,0,0,0,0,0,0,0,
496,2.602,3.738,3.207,-7.309,-5.593,-1.998,-7.958,1.151,6.186,0.8743,11.82,21.37,35.16,16.54,24.87,14.86,0,0,0,0,0,0,0,0,0,0,0,0,0,0,0,0,
497,4.198,6.872,1.193,-11.35,-6.38,-2.753,-8.215,1.578,10.63,-0.4214,13.51,24.26,37.03,16.82,26.95,17.68,0,0,0,0,0,0,0,0,0,0,0,0,0,0,0,0,
498,3.822,11.55,1.469,-13.62,-9.018,-3.435,-4.103,4.606,4.947,1.506,15.59,25.13,34.48,16.26,27.52,18.85,0,0,0,0,0,0,0,0,0,0,0,0,0,0,0,0,
499,3.766,13.4,7.287,-13.09,-5.149,-0.1549,0.2548,3.456,5.168,2.978,18.9,24.64,34.13,19.49,29.29,23.38,0,0,0,0,0,0,0,0,0,0,0,0,0,0,0,0,
500,2.549,11.19,11.71,-15.17,-1.27,4.746,-0.136,0.2413,10.53,2.251,21.41,23.27,32.27,19.7,29.11,25.66,0,0,0,0,0,0,0,0,0,0,0,0,0,0,0,0,
501,4.579,5.779,8.914,-17.93,-5.908,7.507,-3.491,-0.4815,9.431,2.051,23.26,24.42,26.19,14.85,28.16,23.1,0,0,0,0,0,0,0,0,0,0,0,0,0,0,0,0,
502,11.45,3.265,6.95,-19.73,-7.545,6.635,-5.131,-0.2337,8.923,1.316,25.21,26.84,23.19,12.95,28.98,20.97,0,0,0,0,0,0,0,0,0,0,0,0,0,0,0,0,
503,12.19,7.024,7.265,-20.26,-3.992,5.718,-3.553,1.557,14.34,-0.587,25.1,23.72,23.11,13.77,28.23,19.85,0,0,0,0,0,0,0,0,0,0,0,0,0,0,0,0,
504,6.115,11.76,2.68,-17.05,-6.556,7.164,-1.518,5.087,19.39,0.2313,24.08,19.67,22.67,13.48,24.31,18.22,0,0,0,0,0,0,0,0,0,0,0,0,0,0,0,0,
505,6.215,16.03,1.957,-14.34,-4.6,6.898,-0.4737,7.29,21.95,4.106,25.59,22.06,25.2,14.23,22.43,19.59,0,0,0,0,0,0,0,0,0,0,0,0,0,0,0,0,
506,9.972,21.2,9.116,-16.73,6.492,6.58,0.3895,8.56,20.82,6.826,26.6,23.82,28.99,15.98,23.72,22.46,0,0,0,0,0,0,0,0,0,0,0,0,0,0,0,0,
507,9.289,24.08,8.053,-18.54,8.638,10.31,1.623,10.23,18.96,8.452,26.96,23.79,31.15,18.1,27.94,25.25,0,0,0,0,0,0,0,0,0,0,0,0,0,0,0,0,
508,10.62,24.79,0.7766,-16.91,4.377,9.076,1.719,9.905,21.91,10.7,30.31,27.84,32.08,20.36,35.05,29.88,0,0,0,0,0,0,0,0,0,0,0,0,0,0,0,0,
509,10.86,21.13,0.2364,-17.94,-3.067,-0.4749,-4.311,5.729,18.82,9.3,29.08,26.69,26.98,17.45,33.35,28.4,0,0,0,0,0,0,0,0,0,0,0,0,0,0,0,0,
510,3.329,7.924,-3.554,-21.75,-19.13,-3.355,-13.19,0.1576,6.616,3.077,21.46,19.06,18.9,11.56,21.85,22.07,0,0,0,0,0,0,0,0,0,0,0,0,0,0,0,0,
511,1.527,-4.752,-9.909,-21.18,-17.67,2.529,-13.51,-2.164,5.191,-0.5389,19.28,18.61,17.51,11.65,17.08,21.31,0,0,0,0,0,0,0,0,0,0,0,0,0,0,0,0,
512,5.833,-5.75,-0.3833,-16.08,2.275,2.41,-9.22,-0.3496,11.31,1.024,19.95,19.46,17.76,13.81,18.33,18.56,0,0,0,0,0,0,0,0,0,0,0,0,0,0,0,0,
513,0.6956,-2.026,11.82,-13.48,0.9547,-2.129,-9.828,1.494,7.969,2.458,16.55,13.79,14.87,12.26,17.85,14.84,0,0,0,0,0,0,0,0,0,0,0,0,0,0,0,0,
514,-5.964,0.1962,4.87,-15.18,-11.17,-0.4435,-8.123,2.045,6.552,2.092,16.55,13.48,15.51,12.47,18.79,20.43,0,0,0,0,0,0,0,0,0,0,0,0,0,0,0,0,
515,-3.247,2.77,-5.487,-14.75,-7.62,3.824,-1.577,3.609,9.885,2.414,20.24,19.36,19.08,15.91,19.88,23.69,0,0,0,0,0,0,0,0,0,0,0,0,0,0,0,0,
516,1.862,5.751,-2.045,-8.991,-4.78,4.78,-0.0951,4.483,3.917,3.542,21.14,21.52,21.22,18.96,20.71,22.58,0,0,0,0,0,0,0,0,0,0,0,0,0,0,0,0,
517,5.889,9.97,2.55,-5.495,-9.015,0.5538,-2.355,2.681,0.6941,4.38,20.62,21.62,22.78,21.29,22.99,28.33,0,0,0,0,0,0,0,0,0,0,0,0,0,0,0,0,
518,5.665,13.7,-2.721,-10.92,-13.37,-9.559,-3.801,0.4231,7.356,5.15,17.89,20.03,21.65,20.11,21.4,31.38,0,0,0,0,0,0,0,0,0,0,0,0,0,0,0,0,
519,-2.77,12.11,-10.15,-21.1,-20.07,-17.39,-9.069,-2.846,5.238,5.003,11.24,13.32,16.76,15.33,14.96,26,0,0,0,0,0,0,0,0,0,0,0,0,0,0,0,0,
520,-10.29,9.801,-14.1,-28.31,-26.74,-17.47,-14.36,-6.751,-3.569,3.729,5.878,7.524,14.17,14.7,9.644,23.68,0,0,0,0,0,0,0,0,0,0,0,0,0,0,0,0,
521,-10.14,13.23,-17.35,-28.13,-33.82,-14.97,-11.42,-6.112,-4.065,4.447,5.355,7.763,16.19,18.61,8.897,25.71,0,0,0,0,0,0,0,0,0,0,0,0,0,0,0,0,
522,-8.778,15.2,-18.66,-23.85,-33.52,-11.05,-7.776,-3.638,-0.0032,6.065,6.052,8.587,14.8,17.33,8.81,23.61,0,0,0,0,0,0,0,0,0,0,0,0,0,0,0,0,
523,-11.53,8.34,-14.74,-23.71,-19.09,-7.055,-11.28,-5.617,3.028,3.59,4.056,5.86,5.693,8.642,5.467,16.56,0,0,0,0,0,0,0,0,0,0,0,0,0,0,0,0,
524,-16.9,-1.014,-8.722,-26.88,-15.13,-9.646,-14.63,-7.549,3.321,-0.034,1.45,1.985,-2.973,1.344,3.952,11.17,0,0,0,0,0,0,0,0,0,0,0,0,0,0,0,0,
525,-21.46,-6.209,-6.562,-26.78,-25.97,-14.52,-13.51,-5.17,0.288,0.2414,0.1555,-1.834,-6.159,1.321,4.252,9.496,0,0,0,0,0,0,0,0,0,0,0,0,0,0,0,0,
526,-23.21,-8.942,-7.25,-23.59,-25.2,-11.5,-12.4,-2.916,0.5554,1.166,-1.63,-5.473,-8.63,3.596,0.4751,7.682,0,0,0,0,0,0,0,0,0,0,0,0,0,0,0,0,
527,-23.15,-11,-5.21,-21.27,-23.75,-7.042,-12.64,-3.544,1.413,-0.2368,-3.231,-8.208,-13.57,0.9656,-5.314,3.49,0,0,0,0,0,0,0,0,0,0,0,0,0,0,0,0,
528,-25.96,-13.36,-5.796,-22.98,-37.21,-13.27,-15.23,-5.928,-6.698,-2.601,-6.352,-12.3,-20.32,-4.35,-12.13,-1.803,0,0,0,0,0,0,0,0,0,0,0,0,0,0,0,0,
529,-33.45,-16.72,-14.69,-27.63,-40.23,-21.54,-20.86,-9.263,-16.04,-4.608,-13.95,-16.37,-24.91,-6.024,-17.63,-3.865,0,0,0,0,0,0,0,0,0,0,0,0,0,0,0,0,
530,-36.63,-16.49,-20.55,-31.45,-31.92,-21.39,-23.81,-12.17,-16.81,-3.641,-18.22,-13.12,-22.17,-4.591,-15.14,-2.228,0,0,0,0,0,0,0,0,0,0,0,0,0,0,0,0,
531,-29.08,-9.889,-19.55,-33.01,-38.38,-23.17,-21.25,-12.16,-13.87,0.386,-13.39,-3.655,-14.41,-1.969,-9.119,0.7739,0,0,0,0,0,0,0,0,0,0,0,0,0,0,0,0,
532,-19.49,-2.348,-19.6,-29.85,-42.78,-26.67,-17.6,-8.12,-10.08,4.038,-6.932,2.98,-6.372,3.311,-4.578,7.314,0,0,0,0,0,0,0,0,0,0,0,0,0,0,0,0,
533,-15.79,2.89,-16.48,-24.25,-29.39,-19.57,-15.04,-3.175,-4.941,7.293,-4.613,4.316,0.1751,7.835,-0.7491,11.73,0,0,0,0,0,0,0,0,0,0,0,0,0,0,0,0,
534,-15.55,6.491,-11.82,-23.53,-27.61,-14,-14.28,-2.341,-5.248,8.138,-7.053,2.616,0.6733,6.39,-2.225,6.785,0,0,0,0,0,0,0,0,0,0,0,0,0,0,0,0,
535,-16.16,5.229,-14.33,-24.54,-36.53,-18.2,-16.99,-5.643,-11.63,2.81,-12.39,-0.1045,-4.236,2.618,-5.701,2.799,0,0,0,0,0,0,0,0,0,0,0,0,0,0,0,0,
536,-17.31,-0.0736,-14.99,-23.45,-30.61,-17.09,-19.27,-6.921,-12,-1.753,-13.54,-0.2604,-5.007,2.399,-2.454,5.995,0,0,0,0,0,0,0,0,0,0,0,0,0,0,0,0,
537,-20.01,-2.482,-11.16,-24.6,-27.62,-15.21,-17.37,-3.287,-6.107,0.8979,-10.88,0.6336,-1.426,4.553,0.0893,6.979,0,0,0,0,0,0,0,0,0,0,0,0,0,0,0,0,
538,-24.87,-2.984,-13.81,-26.09,-35.75,-22.32,-16.18,-0.7041,-7.189,4.505,-12.06,-2.72,-2.397,5.173,-5.379,3.782,0,0,0,0,0,0,0,0,0,0,0,0,0,0,0,0,
539,-26.34,-6.164,-16.17,-24.58,-31.88,-21.94,-17.05,-2.037,-11.8,4.471,-14.88,-7.648,-8.328,2.749,-11.25,2.362,0,0,0,0,0,0,0,0,0,0,0,0,0,0,0,0,
540,-22.92,-11.25,-10.04,-22.79,-23.34,-12.84,-15.22,-1.669,-10.29,2.071,-16.54,-10.78,-14.84,-1.224,-15.3,2.048,0,0,0,0,0,0,0,0,0,0,0,0,0,0,0,0,
541,-23.24,-18.51,-4.758,-21.13,-24.08,-12.54,-13.7,1.282,-9.416,-1.889,-19.92,-15.08,-22.05,-5.108,-20.5,-1.107,0,0,0,0,0,0,0,0,0,0,0,0,0,0,0,0,
542,-27.07,-25.88,-3.595,-17.94,-23.29,-12.7,-15.26,2.252,-8.988,-4.415,-20.79,-19.72,-29.99,-10.3,-21.5,-6.404,0,0,0,0,0,0,0,0,0,0,0,0,0,0,0,0,
543,-27.24,-29.1,-1.25,-14.25,-17.68,-3.515,-13.9,1.281,-3.852,-4.46,-17.92,-22.25,-36.23,-15.32,-19.77,-10.19,0,0,0,0,0,0,0,0,0,0,0,0,0,0,0,0,
544,-28.87,-31.48,0.842,-13.58,-17.44,-2.59,-10.29,0.8707,-4.86,-4.662,-20.02,-25.83,-39.37,-16.25,-23.46,-10.53,0,0,0,0,0,0,0,0,0,0,0,0,0,0,0,0,
545,-38.42,-34.4,-2.507,-16.48,-28.76,-15.71,-12.3,1.462,-13.34,-4.758,-29.16,-33.49,-42.12,-17.29,-29.09,-10.92,0,0,0,0,0,0,0,0,0,0,0,0,0,0,0,0,
546,-50.89,-33.92,-13,-19.85,-37.07,-25.63,-18.87,1.611,-18.54,-3.895,-37.43,-40.33,-45.3,-20.67,-29.64,-14.24,0,0,0,0,0,0,0,0,0,0,0,0,0,0,0,0,
547,-57.63,-30.19,-21.44,-22.29,-28.03,-27.91,-21.62,0.8127,-20.3,-1.997,-35.13,-35.33,-41.72,-17.98,-21.78,-11.16,0,0,0,0,0,0,0,0,0,0,0,0,0,0,0,0,
548,-54.31,-23.05,-17.27,-22.28,-26.17,-30.52,-19.15,0.9219,-17.88,0.7587,-24.15,-21.11,-31.57,-10.81,-10.33,0.0507,0,0,0,0,0,0,0,0,0,0,0,0,0,0,0,0,
549,-46.05,-14.36,-11.12,-21.44,-39.98,-30.19,-17.8,1.646,-12.23,1.46,-18.15,-12.42,-24.96,-8.459,-7.762,4.177,0,0,0,0,0,0,0,0,0,0,0,0,0,0,0,0,
550,-37.64,-8.341,-13.14,-21.56,-34.15,-21.17,-16.08,3.579,-8.782,1.446,-14.85,-5.7,-19.45,-6.269,-7.293,6.312,0,0,0,0,0,0,0,0,0,0,0,0,0,0,0,0,
551,-26.26,-0.2474,-10.17,-15.66,-15.26,-12.46,-7.734,9.72,-2.811,5.568,-4.266,6.46,-9.021,1.02,2.565,18,0,0,0,0,0,0,0,0,0,0,0,0,0,0,0,0,
552,-16.73,10.29,-1.96,-7.099,-17.67,-12.78,-0.667,14.15,1.827,9.83,2.008,11.92,-1.367,7.549,8.694,24.03,0,0,0,0,0,0,0,0,0,0,0,0,0,0,0,0,
553,-15.03,14.3,-4.25,-7.836,-26.97,-16.27,-3.52,11.22,-4.704,9.269,-4.185,8.047,-0.631,10.48,5.704,20.71,0,0,0,0,0,0,0,0,0,0,0,0,0,0,0,0,
554,-15.54,14.52,-8.974,-10.98,-26.3,-18.7,-6.813,10.03,-9.707,8.769,-11.07,5.238,-1.925,10.91,3.298,20.19,0,0,0,0,0,0,0,0,0,0,0,0,0,0,0,0,
555,-16.97,16.48,-5.783,-9.308,-28.45,-19.89,-3.392,14.13,-5.102,10.1,-13.6,2.079,-3.325,9.442,1.192,17.55,0,0,0,0,0,0,0,0,0,0,0,0,0,0,0,0,
556,-21.71,14.01,-6.604,-9.444,-33.06,-16.56,-2.425,13.33,-4.575,7.845,-17.07,-5.934,-6.956,7.489,-2.538,9.427,0,0,0,0,0,0,0,0,0,0,0,0,0,0,0,0,
557,-27.93,5.587,-9.939,-11.17,-31.82,-15.4,-8.413,8.027,-10.76,3.757,-23.04,-17.42,-15.22,4.366,-8.551,2.099,0,0,0,0,0,0,0,0,0,0,0,0,0,0,0,0,
558,-35.35,-1.793,-2.658,-9.879,-27.38,-19.74,-11.27,7.313,-14.3,2.897,-27.44,-27.08,-24.09,0.0994,-15.08,-0.8888,0,0,0,0,0,0,0,0,0,0,0,0,0,0,0,0,
559,-38.34,-6.531,5.453,-5.628,-23.98,-16.89,-6.604,9.4,-13.61,1.756,-28.03,-30.68,-30.2,-4.58,-16.76,-0.6041,0,0,0,0,0,0,0,0,0,0,0,0,0,0,0,0,
560,-35.15,-11.35,5.647,-0.9045,-23.29,-8.735,-3.418,9.946,-10.94,-1.575,-29.25,-34.54,-39.18,-10.84,-18.46,-5.473,0,0,0,0,0,0,0,0,0,0,0,0,0,0,0,0,
561,-37.22,-14.68,6.435,0.6928,-23.16,-6.904,-4.824,10.78,-9.172,-1.753,-32.11,-41.19,-48.96,-15.51,-22.98,-13.27,0,0,0,0,0,0,0,0,0,0,0,0,0,0,0,0,
562,-44.32,-13.82,2.846,-0.5599,-24.6,-8.347,-5.342,10.94,-11.88,0.7748,-34.45,-44.31,-53.05,-16.58,-26.82,-14.29,0,0,0,0,0,0,0,0,0,0,0,0,0,0,0,0,
563,-48.02,-11.35,-5.627,-2.868,-30.59,-13.47,-4.513,9.599,-16.96,1.406,-38.81,-46.1,-56.51,-18.67,-32.76,-15.5,0,0,0,0,0,0,0,0,0,0,0,0,0,0,0,0,
564,-49.65,-9.572,-2.409,-5.744,-35.34,-22.78,-4.564,10.45,-19.65,1.845,-42.04,-47.1,-60.36,-20.92,-36.54,-19.28,0,0,0,0,0,0,0,0,0,0,0,0,0,0,0,0,
565,-48.25,-7.366,-0.463,-8.731,-34.89,-24.27,-6.723,12.22,-18.73,3.767,-39.8,-42.5,-58.96,-18.56,-33.49,-16.58,0,0,0,0,0,0,0,0,0,0,0,0,0,0,0,0,
566,-43.56,-4.751,-10.39,-11.19,-30,-19.11,-8.988,11.76,-15.75,4.398,-37.62,-36.39,-52.73,-12.58,-30.96,-9.617,0,0,0,0,0,0,0,0,0,0,0,0,0,0,0,0,
567,-38.02,0.4696,-4.128,-8.976,-23.42,-17.41,-4.917,12.29,-14.9,4.286,-34.78,-29.1,-41.43,-4.492,-28.16,-1.901,0,0,0,0,0,0,0,0,0,0,0,0,0,0,0,0,
568,-26.34,9.643,9.785,-4.207,-22.82,-15.13,1.436,14.65,-14.91,6.159,-25.7,-17.27,-27.76,3.781,-19.9,6.716,0,0,0,0,0,0,0,0,0,0,0,0,0,0,0,0,
569,-12.72,15.76,2.064,-4.203,-22.01,-9.919,1.056,15.5,-7.421,7.847,-17.99,-8.984,-20.54,7.98,-13.34,9.812,0,0,0,0,0,0,0,0,0,0,0,0,0,0,0,0,
570,-9.605,15.03,-4.101,-3.26,-12.99,-8.354,0.0235,15.77,1.278,7.216,-18.65,-8.528,-19.98,8.387,-15.21,4.577,0,0,0,0,0,0,0,0,0,0,0,0,0,0,0,0,
571,-12.85,11.72,1.858,0.4001,-12.52,-12.07,1.284,16.23,-2.149,6.286,-20.38,-8.641,-20.74,8.956,-19.52,-0.2155,0,0,0,0,0,0,0,0,0,0,0,0,0,0,0,0,
572,-12.87,7.493,-1.127,-1.988,-22.54,-15.14,-2.344,15.37,-8.829,5.304,-17.49,-5.676,-21.52,10.39,-17.51,2.151,0,0,0,0,0,0,0,0,0,0,0,0,0,0,0,0,
573,-8.001,3.525,-1.101,-2.983,-20.33,-9.534,-3.854,15.86,-4.702,4.327,-12.73,-1.414,-22.88,8.813,-11.51,4.606,0,0,0,0,0,0,0,0,0,0,0,0,0,0,0,0,
574,-0.4513,-0.3777,6.934,3.128,-9.856,0.3627,1.377,17.58,4.4,4.381,-8.88,-0.4516,-28.49,1.462,-9.47,0.9515,0,0,0,0,0,0,0,0,0,0,0,0,0,0,0,0,
575,1.824,-9.851,5.106,4.462,-9.686,0.9136,-0.1928,14.27,4.323,1.441,-10.56,-7.34,-39.65,-7.5,-14.73,-3.71,0,0,0,0,0,0,0,0,0,0,0,0,0,0,0,0,
576,-3.694,-20.68,6.413,2.77,-15.4,-2.695,-6.41,8.959,-6.213,-4.692,-18.91,-16.9,-49.5,-14.14,-23.37,-7.327,0,0,0,0,0,0,0,0,0,0,0,0,0,0,0,0,
577,-9.241,-22,16.01,6.041,-17.76,1.533,-3.488,10.12,-9.775,-6.837,-22.5,-20.89,-54.61,-21.01,-25.65,-11.99,0,0,0,0,0,0,0,0,0,0,0,0,0,0,0,0,
578,-14.53,-19.15,11.54,5.218,-16.18,4.114,0.3836,13.68,-1.239,-5.869,-18.57,-23.36,-60.39,-28.95,-24.7,-19.11,0,0,0,0,0,0,0,0,0,0,0,0,0,0,0,0,
579,-23.55,-20.95,3.242,-1.029,-12.74,-3.564,-2.912,13.87,-1.402,-6.181,-21.81,-31.81,-69.54,-35.96,-32.95,-30.81,0,0,0,0,0,0,0,0,0,0,0,0,0,0,0,0,
580,-30.99,-22.26,7.812,-1.316,-14,-11.06,-4.666,13.64,-11.24,-4.965,-31.71,-41.2,-75.37,-40.35,-41.59,-39.86,0,0,0,0,0,0,0,0,0,0,0,0,0,0,0,0,
581,-32.31,-19.56,9.963,2.397,-18.49,-11.45,-3.785,14.11,-11.78,-1.858,-31.9,-43.39,-71.59,-37.77,-38.05,-36.9,0,0,0,0,0,0,0,0,0,0,0,0,0,0,0,0,
582,-32.34,-15.48,7.498,2.833,-19.14,-11.96,-3.405,14.89,-9.096,0.6291,-25.26,-41.63,-63.06,-28.39,-32.45,-28.83,0,0,0,0,0,0,0,0,0,0,0,0,0,0,0,0,
583,-34.54,-10.76,4.088,0.8624,-26.35,-17.84,-1.094,16.01,-14.53,2.805,-25.57,-40.87,-55.97,-18.18,-32.52,-24.57,0,0,0,0,0,0,0,0,0,0,0,0,0,0,0,0,
584,-33.82,-7.667,-8.293,-2.753,-42.12,-23.29,0.3146,15.5,-21.06,4.189,-28.49,-37.78,-46.78,-7.202,-29.99,-19.08,0,0,0,0,0,0,0,0,0,0,0,0,0,0,0,0,
585,-27.65,-6.046,-10.37,-5.723,-42.2,-24.27,0.0219,15.41,-24.84,5.42,-26.33,-31.38,-34.91,3.756,-21.96,-9.522,0,0,0,0,0,0,0,0,0,0,0,0,0,0,0,0,
586,-20.83,-1.664,5.846,-4.968,-26,-20.95,2.148,17.32,-22,7.537,-24.19,-24.59,-26.09,9.375,-15.74,-3.389,0,0,0,0,0,0,0,0,0,0,0,0,0,0,0,0,
587,-13.22,3.999,10.64,-1.671,-17.2,-11.56,5.082,18.44,-10.01,8.434,-21.94,-16.06,-19.61,11.96,-12.09,-0.1365,0,0,0,0,0,0,0,0,0,0,0,0,0,0,0,0,
588,-3.687,6.543,8.549,4.62,-15.39,-7.093,7.711,19.31,-5.62,7.845,-15.69,-8.409,-15.01,13.43,-7.54,4.052,0,0,0,0,0,0,0,0,0,0,0,0,0,0,0,0,
589,0.1051,4.073,16.74,8.713,-10.77,-14.55,7.84,17.85,-14.04,5.803,-12.78,-7.909,-17,10.33,-6.544,2.404,0,0,0,0,0,0,0,0,0,0,0,0,0,0,0,0,
590,-4.188,-6.488,14.46,1.484,-8.623,-15.3,-1.069,9.93,-17.15,0.1486,-15.85,-11.74,-24.44,5.018,-10.05,-3.928,0,0,0,0,0,0,0,0,0,0,0,0,0,0,0,0,
591,-8.95,-22.97,-0.3699,-8.505,-14.89,-11.29,-11.09,2.954,-16.16,-6.225,-17.18,-14.91,-33.02,-1.821,-13.09,-8.399,0,0,0,0,0,0,0,0,0,0,0,0,0,0,0,0,
592,-9.59,-32.88,-5.624,-8.024,-24.08,-19.61,-7.797,5.062,-19.74,-8.271,-13.86,-15.87,-40.01,-10.69,-14.73,-12.45,0,0,0,0,0,0,0,0,0,0,0,0,0,0,0,0,
593,-7.672,-31.02,1.221,-1.704,-21.4,-20.16,0.4521,9.922,-16.08,-7.851,-8.148,-14.34,-41.82,-13.71,-14.5,-11.41,0,0,0,0,0,0,0,0,0,0,0,0,0,0,0,0,
594,-9.358,-27.87,13.05,0.5013,-8.924,-5.77,-0.3204,9.395,-7.199,-8.631,-5.896,-15.14,-39.09,-11.76,-16.01,-6.572,0,0,0,0,0,0,0,0,0,0,0,0,0,0,0,0,
595,-15.67,-27.3,18.76,-2.098,-5.739,-2.924,-2.368,7.27,-6.657,-8.909,-10.01,-18.5,-34.39,-12.45,-20.64,-7.28,0,0,0,0,0,0,0,0,0,0,0,0,0,0,0,0,
596,-18.21,-22.1,13.53,-2.068,-6.15,-7.143,1.517,9.332,-7.292,-6.474,-13.85,-18.68,-28.52,-11.44,-20.6,-6.514,0,0,0,0,0,0,0,0,0,0,0,0,0,0,0,0,
597,-16.34,-13.82,9.951,2.92,-0.5961,-5.66,3.709,12.46,-6.603,-3.321,-15.13,-17.75,-24.61,-8.19,-18.8,-1.655,0,0,0,0,0,0,0,0,0,0,0,0,0,0,0,0,
598,-13.72,-6.942,10.53,4.058,-3.911,-6.912,4.539,13.37,-9.809,-1.297,-15.24,-16.24,-22.37,-8.134,-19.41,0.1561,0,0,0,0,0,0,0,0,0,0,0,0,0,0,0,0,
599,-7.189,1.256,8.34,0.1736,-10.12,-5.085,9.175,14.08,-7.066,0.5519,-13.15,-12.84,-17.99,-6.152,-16.35,2.659,0,0,0,0,0,0,0,0,0,0,0,0,0,0,0,0,
600,-1.957,10.09,5.641,0.2611,-4.962,-0.2078,12.8,15.8,-0.9062,2.401,-14.3,-13.71,-13.95,-2.658,-14.17,4.569,0,0,0,0,0,0,0,0,0,0,0,0,0,0,0,0,
601,-4.056,16.75,3.9,4.277,-5.672,-5.067,14.32,19.15,-3.58,3.933,-17.56,-15.09,-12.83,-4.829,-15.26,3.927,0,0,0,0,0,0,0,0,0,0,0,0,0,0,0,0,
602,-5.037,20.66,2.492,5.259,-11.66,-7.907,16.34,22.63,-5.838,6.816,-14.79,-8.899,-10.99,-5.852,-12.31,7.847,0,0,0,0,0,0,0,0,0,0,0,0,0,0,0,0,
603,-0.7329,20.74,3.218,2.55,-5.816,-3.694,15.44,22.31,-4.035,10.19,-11.45,-2.419,-6.49,-1.017,-7.796,13.58,0,0,0,0,0,0,0,0,0,0,0,0,0,0,0,0,
604,4.047,19.25,5.717,2.25,-6.422,-7.766,12.51,19.77,-5.778,9.841,-9.628,0.2499,-3.414,1.325,-2.964,16.85,0,0,0,0,0,0,0,0,0,0,0,0,0,0,0,0,
605,6.186,16.52,5.676,6.401,-18.52,-12.44,10.82,18.03,-2.483,6.616,-3.241,4.234,-5.48,-0.3044,3.631,18.81,0,0,0,0,0,0,0,0,0,0,0,0,0,0,0,0,
606,3.811,10.29,0.6561,9.148,-16.72,-7.456,8.727,15.89,4.38,4.495,1.147,8.646,-9.51,-2.413,7.56,18.04,0,0,0,0,0,0,0,0,0,0,0,0,0,0,0,0,
607,1.76,6.588,0.3087,10.61,-9.255,-4.097,7.59,13.98,1.251,3.056,1.356,11.72,-10.6,-5.747,10.19,17.03,0,0,0,0,0,0,0,0,0,0,0,0,0,0,0,0,
608,3.525,8.644,8.794,14.96,-12.93,-2.64,9.102,13.44,-0.3546,2.429,4.542,13.51,-10.09,-9.038,11.5,15.3,0,0,0,0,0,0,0,0,0,0,0,0,0,0,0,0,
609,1.046,9.779,10.13,15.85,-17.43,0.7729,9.514,12.9,5.672,3.49,6.278,12.44,-11.62,-12.03,8.11,9.293,0,0,0,0,0,0,0,0,0,0,0,0,0,0,0,0,
610,-6.107,9.357,2.263,10.17,-20.81,-2.689,6.537,12.08,2.63,3.788,4.983,10.49,-13.7,-14.19,6.338,6.356,0,0,0,0,0,0,0,0,0,0,0,0,0,0,0,0,
611,-8.748,10.96,1.813,7.034,-23.14,-8.412,2.474,10.89,-2.687,4.594,7.544,11.51,-10.85,-9.764,10.33,11.67,0,0,0,0,0,0,0,0,0,0,0,0,0,0,0,0,
612,-5.636,12.56,6.734,7.655,-18.91,-5.348,0.0249,8.81,1.34,7.202,9.356,15.58,-3.615,-1.534,13.29,16.49,0,0,0,0,0,0,0,0,0,0,0,0,0,0,0,0,
613,1.95,13.87,6.076,5.738,-16.66,0.7683,-1.006,7.356,-0.6802,7.627,6.442,19.63,0.7657,1.081,10.31,14.5,0,0,0,0,0,0,0,0,0,0,0,0,0,0,0,0,
614,12.2,16.73,1.583,3.039,-17.73,4.196,-1.881,7.14,-6.275,7.859,5.879,21.42,2.215,0.7955,6.48,12.3,0,0,0,0,0,0,0,0,0,0,0,0,0,0,0,0,
615,17.9,18.44,-4.437,1.635,-16.48,6.716,-2.601,4.967,2.09,10.56,8.139,22.5,5.033,3.594,7.973,14.31,0,0,0,0,0,0,0,0,0,0,0,0,0,0,0,0,
616,19.26,18.64,-5.824,-0.0878,-13.31,8.244,-3.445,0.2777,11.91,11.03,8.901,22.91,6.891,5.776,10.16,15.14,0,0,0,0,0,0,0,0,0,0,0,0,0,0,0,0,
617,21.36,20.15,4.111,-1.18,-3.273,5.827,-4.335,-1.897,9.318,10.59,6.749,17.67,5.73,4.016,6.478,13.96,0,0,0,0,0,0,0,0,0,0,0,0,0,0,0,0,
618,18.68,18.61,10.74,-3.407,2.138,-3.41,-4.061,-0.0543,2.738,12.24,-0.2387,7.324,2.712,0.9154,1.151,12.17,0,0,0,0,0,0,0,0,0,0,0,0,0,0,0,0,
619,11.02,13.34,4.235,-5.016,-9.149,-7.716,-1.226,2.873,-1.309,11.53,-4.001,3.258,-1.119,-1.372,3.294,8.233,0,0,0,0,0,0,0,0,0,0,0,0,0,0,0,0,
620,11.25,12.67,1.968,1.211,-12.61,3.625,3.841,6.085,1.184,8.82,3.872,9.131,-4.49,-4.277,12.14,6.264,0,0,0,0,0,0,0,0,0,0,0,0,0,0,0,0,
621,16.86,10.57,10.57,9.093,-1.722,11.41,7.442,8.828,8.935,6.759,9.938,12.46,-10.09,-8.793,15.63,6.168,0,0,0,0,0,0,0,0,0,0,0,0,0,0,0,0,
622,16.07,-1.267,17.99,12.27,0.9968,9.203,9.304,10.93,8.938,4.139,4.922,7.022,-19.05,-12.78,10.11,1.72,0,0,0,0,0,0,0,0,0,0,0,0,0,0,0,0,
623,13.18,-7.023,19.8,17.76,1.195,16.47,12.53,13.95,2.784,3.828,-0.307,-0.7412,-24.59,-15.08,2.874,-4.908,0,0,0,0,0,0,0,0,0,0,0,0,0,0,0,0,
624,8.697,2.324,18.29,22.65,4.874,22.1,15.38,16.52,4.458,6.803,-2.216,-6.117,-22.03,-14.1,-1.207,-6.504,0,0,0,0,0,0,0,0,0,0,0,0,0,0,0,0,
625,-1.516,13.85,21.5,22.46,1.43,15.42,18.63,17.67,9.842,8.87,-2.956,-5.327,-12.86,-7.536,1.577,-0.1015,0,0,0,0,0,0,0,0,0,0,0,0,0,0,0,0,
626,-5.819,22.73,30.93,23.57,-1.439,16.94,23.22,18.48,7.606,10,-0.4837,1.494,-1.872,-0.6767,6.808,7.362,0,0,0,0,0,0,0,0,0,0,0,0,0,0,0,0,
627,-2.987,29.34,29.87,21.36,-3.599,16.23,20.26,17.37,0.0574,10.41,2.27,7.866,5.91,1.434,7.997,9.434,0,0,0,0,0,0,0,0,0,0,0,0,0,0,0,0,
628,-2.25,30.61,19.09,12.6,-15.61,1.331,12.35,14.38,-3.755,9.194,6.024,14.33,11.77,3.767,12.24,11.77,0,0,0,0,0,0,0,0,0,0,0,0,0,0,0,0,
629,3.277,31.98,15.06,8.299,-24.26,1.444,12.99,12.97,-0.472,9.501,10.76,20.7,16.66,7.642,17.21,14.69,0,0,0,0,0,0,0,0,0,0,0,0,0,0,0,0,
630,9.595,34.64,11.38,8.117,-25.67,7.052,14.73,13.37,-0.119,11.75,6.944,19.98,15.93,8.254,13.91,14.34,0,0,0,0,0,0,0,0,0,0,0,0,0,0,0,0,
631,4.668,31.56,3.356,4.633,-33.59,-10.28,7.145,13.07,-10.63,12.87,-0.422,16.98,11.61,7.493,12.79,14.49,0,0,0,0,0,0,0,0,0,0,0,0,0,0,0,0,
632,1.695,26.64,0.5051,0.1679,-37.36,-19.57,1.567,12.07,-15.65,12.46,1.178,19.29,11.38,8.855,18.56,14.83,0,0,0,0,0,0,0,0,0,0,0,0,0,0,0,0,
633,6.465,25.94,-1.93,-1.599,-27.58,-6.645,2.955,11.47,-5.469,10.88,4.234,20.87,14.89,9.908,20.9,16.59,0,0,0,0,0,0,0,0,0,0,0,0,0,0,0,0,
634,6.188,25.25,-5.433,0.1206,-21.86,-3.682,3.235,10.72,-1.351,9.444,1.466,18.22,15.88,8.511,18.48,21.12,0,0,0,0,0,0,0,0,0,0,0,0,0,0,0,0,
635,4.016,21.62,-0.1077,3.234,-24.98,-8.09,2.859,10.11,-6.957,8.853,-0.7553,15.11,13.48,6.868,15.7,20.77,0,0,0,0,0,0,0,0,0,0,0,0,0,0,0,0,
636,4.259,16.07,7.272,4.572,-26.38,-4.17,2.674,10.12,-4.581,6.439,-1.746,10.92,10.78,6.685,12.83,17.13,0,0,0,0,0,0,0,0,0,0,0,0,0,0,0,0,
637,1.075,7.966,6.25,4.848,-27.5,-2.303,0.1982,8.84,-5.78,3.613,-5.3,3.615,4.537,3.491,5.595,12.37,0,0,0,0,0,0,0,0,0,0,0,0,0,0,0,0,
638,-2.747,-1.283,4.327,5.301,-26.45,-3.002,1.303,8.175,-16.86,3.827,-8.75,-4.241,-7.691,-5.059,-4.319,1.804,0,0,0,0,0,0,0,0,0,0,0,0,0,0,0,0,
639,-5.698,-5.88,8.965,6.344,-14.86,1.619,7.841,11.88,-11.93,4.09,-7.233,-7.094,-15.42,-9.755,-5.349,-3.853,0,0,0,0,0,0,0,0,0,0,0,0,0,0,0,0,
640,-10.99,-3.399,12.71,8.106,-3.266,8.543,10.11,14.7,1.95,3.077,-1.995,-4.657,-13.2,-7.006,1.388,0.6747,0,0,0,0,0,0,0,0,0,0,0,0,0,0,0,0,
641,-16.64,-0.8389,7.13,7.945,-9.086,8.689,4.449,10.91,-3.896,3.179,-1.203,-4.077,-11.73,-7.736,5.42,1.648,0,0,0,0,0,0,0,0,0,0,0,0,0,0,0,0,
642,-24.3,-2.453,-2.382,4.467,-25.56,-4.839,-1.51,5.194,-15.03,2.571,-5.037,-5.55,-12.78,-12.29,8.498,-0.4321,0,0,0,0,0,0,0,0,0,0,0,0,0,0,0,0,
643,-33.85,-1.087,-5.977,1.889,-30.97,-19.31,-1.376,3.26,-11.97,1.718,-2.527,-1.553,-7.683,-9.423,13.3,4.294,0,0,0,0,0,0,0,0,0,0,0,0,0,0,0,0,
644,-35.77,5.034,-4.222,3.698,-23.81,-18.7,2.025,4.556,-7.431,4.19,5.447,5.926,-1.167,-2.632,14.67,9.388,0,0,0,0,0,0,0,0,0,0,0,0,0,0,0,0,
645,-27.98,9.226,-5.111,3.581,-22.44,-11.43,2.676,5.128,-8.621,6.69,7.694,8.828,0.0875,-1.427,10.15,7.535,0,0,0,0,0,0,0,0,0,0,0,0,0,0,0,0,
646,-20.1,11.32,-10.83,-3.318,-29.26,-9.749,-0.261,1.773,-9.528,5.375,4.812,6.106,1.071,-2.451,3.898,5.988,0,0,0,0,0,0,0,0,0,0,0,0,0,0,0,0,
647,-19.27,11.62,-13.99,-7.308,-31.73,-15.42,-5.197,-3.45,-10.8,3.504,1.867,2.025,3.497,-1.788,0.7468,8.276,0,0,0,0,0,0,0,0,0,0,0,0,0,0,0,0,
648,-20.78,9.237,-13.09,-4.113,-30.35,-21.13,-7.207,-4.447,-12.56,4.317,-0.1952,4.284,7.522,-0.3034,0.8215,9.398,0,0,0,0,0,0,0,0,0,0,0,0,0,0,0,0,
649,-13.62,10.75,-13.11,-1.825,-27.39,-11.67,-0.0019,0.8513,-9.922,6.625,2.03,15.86,15.91,4.252,3.798,13.12,0,0,0,0,0,0,0,0,0,0,0,0,0,0,0,0,
650,0.5826,16.66,-6.86,0.8811,-16.7,6.388,9.112,7.024,-3.473,8.264,6.9,25.62,22.95,10.35,8.296,20.29,0,0,0,0,0,0,0,0,0,0,0,0,0,0,0,0,
651,10.14,19.26,5.519,5.877,-7.462,8.907,9.617,8.149,-1.349,8.292,7.882,25.57,23.48,10.41,8.179,19.84,0,0,0,0,0,0,0,0,0,0,0,0,0,0,0,0,
652,11.74,15.78,1.846,4.057,-16.78,-1.677,5.271,4.235,-7.771,4.831,4.675,20.44,17.69,2.436,0.3573,10.46,0,0,0,0,0,0,0,0,0,0,0,0,0,0,0,0,
653,6.956,4.175,-13.81,-2.368,-31.9,-5.389,0.4891,-0.4332,-13.28,-2.248,0.823,13.37,4.729,-7.131,-9.285,0.1368,0,0,0,0,0,0,0,0,0,0,0,0,0,0,0,0,
654,1.039,-9.938,-8.453,0.13,-23.81,3.055,-1.418,-0.5669,-6.633,-6.061,2.987,9.09,-6.666,-11.87,-8.918,-4.436,0,0,0,0,0,0,0,0,0,0,0,0,0,0,0,0,
655,2.693,-13.23,13.96,11.32,-0.8958,14.63,5.14,4.431,5.202,-3.826,12.22,11.28,-9.876,-12.75,0.8811,-1.914,0,0,0,0,0,0,0,0,0,0,0,0,0,0,0,0,
656,4.322,-11.92,21.9,18.9,3.674,18.06,11.42,8.435,4.567,-3.87,12.98,6.564,-16.33,-15.68,1.144,-4.07,0,0,0,0,0,0,0,0,0,0,0,0,0,0,0,0,
657,-7.695,-19.7,15.06,17.04,-7.832,10.88,6.869,7.569,-10.35,-9.169,-2.247,-14.43,-30.68,-23.68,-13.07,-17.04,0,0,0,0,0,0,0,0,0,0,0,0,0,0,0,0,
658,-27.82,-30.74,7.704,8.846,-15.24,-1.853,-2.392,3.201,-24.55,-14.03,-18.69,-37.22,-44.07,-33.93,-27.35,-30.28,0,0,0,0,0,0,0,0,0,0,0,0,0,0,0,0,
659,-44.82,-37.37,-0.7083,0.6739,-21.9,-13.74,-10.06,-1.49,-30.61,-16.61,-24.5,-47.26,-50.97,-39.55,-34.57,-36.64,0,0,0,0,0,0,0,0,0,0,0,0,0,0,0,0,
660,-53.64,-39.27,-6.374,-1.654,-26.63,-17.52,-15.4,-3.188,-31.75,-17.32,-21.37,-46.48,-49.1,-36.97,-35.61,-36.42,0,0,0,0,0,0,0,0,0,0,0,0,0,0,0,0,
661,-54.28,-36.27,-7.587,-1.158,-21.55,-15.08,-18.36,-4.5,-27.67,-16.17,-17.3,-44.54,-43.84,-31.6,-35.37,-34.42,0,0,0,0,0,0,0,0,0,0,0,0,0,0,0,0,
662,-55.04,-32.92,-14.12,-3.619,-18.63,-14.66,-21.93,-8.326,-22.15,-14.3,-18.81,-45.22,-41.27,-28.24,-36.83,-34.55,0,0,0,0,0,0,0,0,0,0,0,0,0,0,0,0,
663,-56.38,-29.7,-17.94,-4.743,-21.42,-16.59,-24.47,-8.791,-23.78,-10.7,-21.07,-41.32,-34.71,-24.11,-33.3,-30.38,0,0,0,0,0,0,0,0,0,0,0,0,0,0,0,0,
664,-50.52,-23.1,-11.24,-4.34,-19.38,-19.06,-22.52,-4.441,-25.6,-6.076,-17.42,-29.6,-22.88,-17.03,-24.4,-19.99,0,0,0,0,0,0,0,0,0,0,0,0,0,0,0,0,
665,-40.9,-17.07,-11.36,-7.285,-13.9,-18.28,-18.62,-1.073,-19.17,-4.085,-11.08,-16.7,-12.78,-9.508,-16.01,-12.02,0,0,0,0,0,0,0,0,0,0,0,0,0,0,0,0,
666,-29.19,-10.75,-12.68,-4.754,-5.498,-9.245,-12.85,1.808,-14.66,-3.313,-4.714,-4.691,-2.883,-4.37,-7.007,-8.618,0,0,0,0,0,0,0,0,0,0,0,0,0,0,0,0,
667,-12.42,-1.197,4.053,6.515,4.588,-1.134,-5.33,5.814,-13.64,-1.324,2.234,7.674,6.234,-1.674,2.36,-4.429,0,0,0,0,0,0,0,0,0,0,0,0,0,0,0,0,
668,0.8726,3.059,16.86,13.81,8.399,1.178,-0.6662,8.775,-6.005,-0.7763,7.245,16.79,9.188,-0.0241,8.958,1.303,0,0,0,0,0,0,0,0,0,0,0,0,0,0,0,0,
669,7.733,0.7729,13.25,15.76,13.69,9.903,0.9111,9.942,1.188,-1.955,9.171,20.23,8.523,-0.107,10.91,4.332,0,0,0,0,0,0,0,0,0,0,0,0,0,0,0,0,
670,12.97,-0.418,15.53,17.93,21.97,19.1,1.86,8.19,0.5556,-2.353,7.605,18.64,7.083,-1.844,5.707,4.92,0,0,0,0,0,0,0,0,0,0,0,0,0,0,0,0,
671,12.96,-1.291,18.22,18.72,17.97,13.75,5.106,6.213,-0.9007,-3.026,1.48,13.57,3.113,-3.121,-4.08,3.632,0,0,0,0,0,0,0,0,0,0,0,0,0,0,0,0,
672,9.963,-1.429,12.39,20.82,13.74,9.454,14.03,10.34,-3.334,-3.661,-3.523,8.005,-2.706,-6.016,-11.11,-2.941,0,0,0,0,0,0,0,0,0,0,0,0,0,0,0,0,
673,7.859,1.374,17.29,25.61,23.47,19.15,22.66,17.02,-8.067,-1.535,-4.244,2.062,-8.36,-10.96,-13.85,-9.255,0,0,0,0,0,0,0,0,0,0,0,0,0,0,0,0,T1
674,-0.3936,2.919,26.4,25.92,27.9,23.18,23.36,18.29,-7.934,0.9247,-8.579,-5.388,-11.98,-11.25,-16.18,-9.407,0,0,0,0,0,0,0,0,0,0,0,0,0,0,0,0,
675,-10.72,3.519,22.86,20.59,24.48,13.7,19.44,14.95,-4.599,0.5154,-15.11,-10.02,-12.49,-7.814,-14.82,-7.804,0,0,0,0,0,0,0,0,0,0,0,0,0,0,0,0,
676,-13.46,4.809,16.45,15.91,24.57,7.354,14.4,11,-5.006,-0.7891,-13.06,-9.193,-11.86,-8.513,-6.716,-5.505,0,0,0,0,0,0,0,0,0,0,0,0,0,0,0,0,
677,-13.27,3.854,9.166,15.03,17.54,7.599,9.433,9.395,-6.829,-0.922,-6.054,-6.407,-10.67,-9.638,-1.911,-2.567,0,0,0,0,0,0,0,0,0,0,0,0,0,0,0,0,
678,-12.15,4.2,2.247,15.9,11.3,7.584,8.355,10.88,-5.521,0.4677,-0.5584,-2.18,-6.988,-4.732,-1.26,1.132,0,0,0,0,0,0,0,0,0,0,0,0,0,0,0,0,
679,-8.231,9.033,6.239,13.66,18.21,5.933,8.569,10.04,-1.939,2.177,6.839,3.6,-1.48,1.429,5.314,9.883,0,0,0,0,0,0,0,0,0,0,0,0,0,0,0,0,
680,-6.241,13.73,10.85,9.425,12.8,0.2394,6.984,6.261,1.862,2.062,14.03,8.614,5.577,6.178,12.85,19.49,0,0,0,0,0,0,0,0,0,0,0,0,0,0,0,0,
681,-3.383,17.96,9.025,11.34,-1.597,-1.477,8.99,7.257,6.398,2.579,17.82,16.18,14.61,11.24,16.97,24.67,0,0,0,0,0,0,0,0,0,0,0,0,0,0,0,0,
682,5.404,23.2,10.24,17.78,10.63,11.42,13.62,11.22,11.39,5.919,21.53,26.38,20.75,12.54,20.88,26.42,0,0,0,0,0,0,0,0,0,0,0,0,0,0,0,0,
683,14.18,25.59,15.4,19.79,31.78,24.37,14.97,11.65,15.62,8.396,25.72,31.96,21.88,10.57,20.79,25.23,0,0,0,0,0,0,0,0,0,0,0,0,0,0,0,0,
684,21.47,24.76,26.36,21.58,30.81,27.05,16.91,13.14,19.63,9.246,30.27,34.05,22.53,11.21,19,24.91,0,0,0,0,0,0,0,0,0,0,0,0,0,0,0,0,
685,30.17,23.58,38.92,29.28,24.12,30.96,21.5,17.07,19.43,10.15,32.66,35.01,21.21,12.13,17.91,23.81,0,0,0,0,0,0,0,0,0,0,0,0,0,0,0,0,
686,33.86,21.11,39.96,35.48,25.51,34.67,24.21,18.07,13.55,10.33,28.24,31.98,16.65,12.07,13.67,19.39,0,0,0,0,0,0,0,0,0,0,0,0,0,0,0,0,
687,31.82,19.18,37.26,36.85,26.77,34.56,27.41,20.32,12.7,12.18,23.01,30.27,16.5,14.78,12.84,20.9,0,0,0,0,0,0,0,0,0,0,0,0,0,0,0,0,
688,31.12,22.23,37.88,37.33,24.46,35.93,32.03,24.41,16.96,15.36,21.16,30.06,19.02,16.14,15.82,25.27,0,0,0,0,0,0,0,0,0,0,0,0,0,0,0,0,
689,25.41,25.44,33.09,33.95,19.67,31.77,29.61,20.07,14.24,14.1,17.1,22.26,16.07,14.46,13.99,23.17,0,0,0,0,0,0,0,0,0,0,0,0,0,0,0,0,
690,10.98,22.73,25.76,26.42,16.43,24.75,18.88,10.03,9.385,11.39,13.77,12.59,13.46,15.98,11.26,21.54,0,0,0,0,0,0,0,0,0,0,0,0,0,0,0,0,
691,2.308,19.79,20.01,20.87,12.74,23.24,9.687,5.061,8.274,12.27,14.16,8.589,15.41,17.99,9.234,21.93,0,0,0,0,0,0,0,0,0,0,0,0,0,0,0,0,
692,3.065,20.74,16.24,17.57,1.918,16.44,8.812,3.989,0.8334,12.06,11.18,4.645,15.08,16.69,4.102,20.57,0,0,0,0,0,0,0,0,0,0,0,0,0,0,0,0,
693,5.439,22.35,18.4,15.31,-3.48,10.57,13.73,4.729,-9.062,10.58,6.3,1.937,13.49,17.27,0.9276,20.63,0,0,0,0,0,0,0,0,0,0,0,0,0,0,0,0,
694,9.694,24.23,15.22,14.37,4.787,14.9,15.73,7.602,-8.756,13.04,5.494,2.979,13.12,17.06,0.6743,17.87,0,0,0,0,0,0,0,0,0,0,0,0,0,0,0,0,
695,9.807,23.08,0.8802,9.216,5.166,8.315,9.684,6.259,-6.973,15.25,4.779,1.161,8.124,10.26,-2.969,9.836,0,0,0,0,0,0,0,0,0,0,0,0,0,0,0,0,
696,2.239,16.11,-7.407,-1.152,-10.25,-5.905,0.8484,-0.3709,-11.05,12.62,2.349,-1.964,0.3735,3.671,-7.696,6.14,0,0,0,0,0,0,0,0,0,0,0,0,0,0,0,0,
697,1.402,11.29,-7.705,-7.46,-18.75,-6.441,-4.464,-4.538,-9.241,9.743,3.303,-0.2971,-3.008,1.872,-4.468,8.981,0,0,0,0,0,0,0,0,0,0,0,0,0,0,0,0,
698,7.372,10.18,-10.86,-7.76,-14.23,-4.372,-7.127,-4.186,-3.15,9.868,6.833,3.212,-2.894,-0.0569,5.085,9.798,0,0,0,0,0,0,0,0,0,0,0,0,0,0,0,0,
699,7.165,6.698,-14.58,-8.627,-15.53,-4.201,-8.43,-2.501,-6.535,10.85,7.973,5.687,-1.806,-2.608,9.643,7.951,0,0,0,0,0,0,0,0,0,0,0,0,0,0,0,0,
700,5.946,5.077,-18.23,-10.07,-22.39,-0.0451,-6.268,-0.6754,-10.59,11.59,8.56,7.82,-0.9283,-3.161,8.089,9.525,0,0,0,0,0,0,0,0,0,0,0,0,0,0,0,0,
701,8.038,5.945,-20.45,-8.526,-18.32,-4.598,-1.431,1.084,-5.886,13.16,11.39,8.868,-1.398,-2.139,6.782,10.61,0,0,0,0,0,0,0,0,0,0,0,0,0,0,0,0,
702,7.156,2.242,-14.56,-4.973,-12.22,-10.21,1.793,2.05,-4.468,15.42,13.22,8.894,-2.035,-0.1017,5.666,6.386,0,0,0,0,0,0,0,0,0,0,0,0,0,0,0,0,
703,5.409,-1.526,-6.544,-2.578,-14.65,-0.9092,3.362,2.017,-3.718,16.2,13.01,7.151,-4.46,0.5059,2.665,2.051,0,0,0,0,0,0,0,0,0,0,0,0,0,0,0,0,
704,3.667,-0.7734,-0.7837,-1.555,-10.63,4.846,6.829,3.92,4.435,15.51,12.08,2.852,-8.401,-1.976,-1.511,-0.5631,0,0,0,0,0,0,0,0,0,0,0,0,0,0,0,0,
705,0.8061,0.619,3.711,0.9197,-7.078,-1.484,10.54,8.851,4.547,16.17,10,1.192,-6.647,-3.035,-3.672,-2.353,0,0,0,0,0,0,0,0,0,0,0,0,0,0,0,0,
706,3.224,4.157,-0.313,3.297,-16.91,-1.986,10.29,11.45,-2.308,17.43,8.272,3.006,-1.944,-1.322,-4.441,-2.639,0,0,0,0,0,0,0,0,0,0,0,0,0,0,0,0,
707,7.252,8.416,-4.49,3.437,-15.23,2.584,8.185,11.21,-2.586,17.51,4.866,0.9309,-1.803,0.0721,-8.158,-2.221,0,0,0,0,0,0,0,0,0,0,0,0,0,0,0,0,
708,7.228,9.663,-4.741,2.848,-9.508,1.268,8.684,11.91,-7.843,19.88,-0.6409,0.1749,2.784,5.003,-8.47,3.359,0,0,0,0,0,0,0,0,0,0,0,0,0,0,0,0,
709,11.91,16.31,-21.28,-3.434,-29.47,-2.938,11.39,9.854,-13.3,24.17,1.787,8.944,15.3,14.74,-1.561,12.74,0,0,0,0,0,0,0,0,0,0,0,0,0,0,0,0,
710,18.07,27.43,-30.98,-11.91,-34.27,-4.013,12.86,5.472,-1.341,23.47,9.182,13.59,19.89,19.78,0.5846,15.54,0,0,0,0,0,0,0,0,0,0,0,0,0,0,0,0,
711,15.19,27.92,-1.878,-5.986,1.412,1.969,11.78,4.981,8.075,19.18,7.355,6.963,14.24,17.93,-2.644,13.53,0,0,0,0,0,0,0,0,0,0,0,0,0,0,0,0,
712,12.95,20.86,21.47,5.584,24.68,10.42,10.51,3.42,5.519,16.99,4.779,4.947,10.77,16.71,-0.0169,13.05,0,0,0,0,0,0,0,0,0,0,0,0,0,0,0,0,
713,15.27,18.11,14.3,5.064,23.18,11.79,10.17,-2.679,13.95,14.51,12.08,9.509,10.54,17.11,5.72,14.54,0,0,0,0,0,0,0,0,0,0,0,0,0,0,0,0,
714,13.7,15.6,16.57,4.543,30.51,14.98,7.817,-6.337,28.58,11.52,17.59,10.15,11.42,16.71,8.848,19.44,0,0,0,0,0,0,0,0,0,0,0,0,0,0,0,0,
715,14.37,9.338,25.77,8.331,42.38,26.79,3.024,-9.783,30.97,11.5,18.04,11.16,14.35,16.67,13.07,23.94,0,0,0,0,0,0,0,0,0,0,0,0,0,0,0,0,
716,20.14,4.084,19.96,3.529,44.55,30.53,-0.2181,-16.93,26.92,11.16,20.47,14.98,14.46,15.97,16.15,21.87,0,0,0,0,0,0,0,0,0,0,0,0,0,0,0,0,
717,22.54,1.404,18.63,0.2395,42.5,27.15,0.0859,-18.5,24.95,9.012,19.88,14.26,11.09,12.57,10.33,15.13,0,0,0,0,0,0,0,0,0,0,0,0,0,0,0,0,
718,21.79,-0.1074,24.87,7.4,44.11,32.94,1.518,-13.32,27.32,7.969,16.01,10.33,9.078,9.363,1.186,9.158,0,0,0,0,0,0,0,0,0,0,0,0,0,0,0,0,
719,15.87,-1.178,21.24,10.35,47.18,35.22,0.3924,-12.57,30.01,6.856,16.37,7.589,7.284,9.036,-0.8002,5.58,0,0,0,0,0,0,0,0,0,0,0,0,0,0,0,0,
720,4.92,-1.308,13.61,7.578,37.88,24.67,-1.943,-14.82,23.07,6.391,15.67,4.42,6.09,9.662,-1.478,0.4142,0,0,0,0,0,0,0,0,0,0,0,0,0,0,0,0,
721,1.912,1.267,12.73,10,24.15,20.08,-0.3529,-12.2,12.92,8.56,8.989,1.827,8.693,10.73,-8.35,-4.565,0,0,0,0,0,0,0,0,0,0,0,0,0,0,0,0,
722,5.441,5.789,17.17,12.47,28.54,23.46,3.055,-10.29,12.36,9.525,4.872,3.507,10.93,12.59,-11.86,-1.201,0,0,0,0,0,0,0,0,0,0,0,0,0,0,0,0,
723,6.323,8.383,20.17,8.65,37.12,21.48,2.163,-13.85,16,7.588,6.883,8.233,10.28,11.71,-4.535,7.352,0,0,0,0,0,0,0,0,0,0,0,0,0,0,0,0,
724,9.51,6.669,16.36,5.197,30.25,17.57,-0.301,-15.24,16,5.714,8.169,12.17,12.57,10.13,4.359,13.86,0,0,0,0,0,0,0,0,0,0,0,0,0,0,0,0,
725,15.54,5.37,10.37,6.566,23.54,18.52,2.619,-11.18,13.8,6.215,6.901,14.38,18.24,13.81,6.525,18.47,0,0,0,0,0,0,0,0,0,0,0,0,0,0,0,0,
726,20.17,9.659,9.92,10.18,31.04,24.07,9.612,-7.271,13.04,9.209,6.069,13.57,18.3,15.52,3.925,18.16,0,0,0,0,0,0,0,0,0,0,0,0,0,0,0,0,
727,23.7,11.53,14.6,10.84,41.64,30.04,12.25,-7.165,16.03,10.1,3.877,9.414,11.88,9.538,-1.577,12.89,0,0,0,0,0,0,0,0,0,0,0,0,0,0,0,0,
728,24.77,5.356,18.73,5.88,41.62,29.53,8.534,-10.26,18.9,6.778,1.631,9.866,11.81,7.977,-3.836,13.49,0,0,0,0,0,0,0,0,0,0,0,0,0,0,0,0,
729,27.39,2.717,18.33,4.107,37.97,26.82,6.037,-13.15,18.88,5.116,5.661,17.12,19.73,13.76,3.586,18.86,0,0,0,0,0,0,0,0,0,0,0,0,0,0,0,0,
730,30.91,6.632,15.62,10.46,43.54,28.34,6.361,-13.13,18.82,6.804,9.906,18.44,19.78,14.04,6.117,13.98,0,0,0,0,0,0,0,0,0,0,0,0,0,0,0,0,
731,26.64,6.871,15.02,12.56,47.6,26.51,4.298,-11.92,16.35,7.561,5.069,11.55,11.07,9.471,-5.58,3.731,0,0,0,0,0,0,0,0,0,0,0,0,0,0,0,0,
732,22.45,5.747,16.14,7.741,43.14,22.07,2.514,-11.48,12.71,7.37,0.0553,7.785,9.137,9.532,-12.92,2.773,0,0,0,0,0,0,0,0,0,0,0,0,0,0,0,0,
733,23.93,9.099,16.74,7.848,44.5,24.7,5.202,-11.11,15.13,8.285,2.116,6.744,13.9,11.83,-11.41,2.627,0,0,0,0,0,0,0,0,0,0,0,0,0,0,0,0,
734,18.86,11.62,16.08,10.2,45.84,27.61,7.767,-10.84,16.97,8.822,2.839,3.99,16.32,12.16,-12.73,-1.526,0,0,0,0,0,0,0,0,0,0,0,0,0,0,0,0,
735,10.51,11.14,14.33,6.836,34.81,23.48,6.776,-12.33,12.82,7.518,1.605,4.555,18.88,13.41,-11.62,1.913,0,0,0,0,0,0,0,0,0,0,0,0,0,0,0,0,
736,10.03,12.13,14.39,5.205,28.05,19.22,5.505,-14.03,13.56,7.632,4.215,8.792,22.46,15.08,-5.758,7.656,0,0,0,0,0,0,0,0,0,0,0,0,0,0,0,0,
737,10.29,14.21,15.78,9.727,31.03,16.59,5.843,-12.96,16.24,10.62,4.441,10.33,21.26,13.08,-4.067,6.057,0,0,0,0,0,0,0,0,0,0,0,0,0,0,0,0,
738,7.183,13.07,11.65,11.13,28.36,13.11,6.059,-12.2,8.6,10.37,-0.101,9.114,17.54,10.05,-5.111,3.292,0,0,0,0,0,0,0,0,0,0,0,0,0,0,0,0,
739,8.069,10.2,6.037,8.136,25.36,13.11,6.227,-13.63,3.83,5.478,0.4589,9.817,16.97,9.998,-3.051,4.448,0,0,0,0,0,0,0,0,0,0,0,0,0,0,0,0,
740,12.15,10.5,8.453,9.047,29.51,16.09,6.205,-13.54,13.31,2.434,6.013,12.81,18.12,9.774,2.643,9.43,0,0,0,0,0,0,0,0,0,0,0,0,0,0,0,0,
741,14.18,11.28,9.043,10.24,28.6,14.8,3.092,-14.69,18.94,1.831,9.65,15.16,19.7,8.426,9.22,13.42,0,0,0,0,0,0,0,0,0,0,0,0,0,0,0,0,
742,16.31,9.345,1.419,6.528,24.11,11.5,-0.5335,-19.29,14.75,1.276,13.29,15.16,21.46,8.93,11.68,11.43,0,0,0,0,0,0,0,0,0,0,0,0,0,0,0,0,
743,17.37,8.376,-0.2153,6.074,27.99,13.5,0.7336,-20.3,18.03,2.524,14.5,11.69,20.35,9.357,8.225,9.747,0,0,0,0,0,0,0,0,0,0,0,0,0,0,0,0,
744,12.42,9.146,4.171,9.021,32.79,14.87,4.128,-17.09,27.63,4.976,9.037,7.331,19.25,9.332,4.245,12.72,0,0,0,0,0,0,0,0,0,0,0,0,0,0,0,0,
745,8.616,9.803,3.631,8.134,31.29,9.523,5.767,-14.48,28.7,6.381,5.233,6.01,21.61,10.82,3.326,14.24,0,0,0,0,0,0,0,0,0,0,0,0,0,0,0,0,
746,10.85,9.863,4.097,8.995,30.4,9.185,6.876,-11.52,22.42,7.198,6.82,5.289,22.06,11.36,1.54,11.73,0,0,0,0,0,0,0,0,0,0,0,0,0,0,0,0,
747,11.24,9.421,9.89,13.46,30.24,17.72,7.822,-9.037,18.55,7.776,9.09,5.904,22.04,12.68,1.289,10.76,0,0,0,0,0,0,0,0,0,0,0,0,0,0,0,0,
748,10.96,11.91,12.25,13.05,26.33,20.07,7.39,-9.863,17.37,7.53,9.957,9.177,25.01,16.14,3.861,11.97,0,0,0,0,0,0,0,0,0,0,0,0,0,0,0,0,
749,11.16,13.63,7.715,9.285,22.21,15.69,4.404,-12.33,10.64,6.099,4.854,5.856,21.95,14.22,-2.11,7.88,0,0,0,0,0,0,0,0,0,0,0,0,0,0,0,0,
750,4.713,7.359,4.481,9.057,21.33,15.62,0.7961,-14.02,2.45,4.325,0.0248,0.1923,15.15,8.886,-8.709,4.37,0,0,0,0,0,0,0,0,0,0,0,0,0,0,0,0,
751,1.307,2.755,8.445,12.39,22.8,16.79,1.026,-13.95,6.415,3.732,7.14,5.958,15.83,8.731,-0.9953,10.38,0,0,0,0,0,0,0,0,0,0,0,0,0,0,0,0,
752,8.332,5.887,10.59,15.25,25.32,15.39,2.313,-13.71,11.73,3.28,13,12.38,16.3,8.925,4.627,13.13,0,0,0,0,0,0,0,0,0,0,0,0,0,0,0,0,
753,10.93,4.785,5.501,13.08,24.2,11.62,-0.6094,-15.94,3.641,1.266,7.464,10.08,12.44,6.114,0.8651,8.397,0,0,0,0,0,0,0,0,0,0,0,0,0,0,0,0,
754,5.937,-0.6934,2.421,7.147,14.14,3.543,-3.482,-17.94,-1.125,-0.2543,4.174,9.55,13.48,5.466,0.7744,7.924,0,0,0,0,0,0,0,0,0,0,0,0,0,0,0,0,
755,4.059,-1.209,1.185,4.886,5.749,1.314,-1.907,-16.09,4.446,0.6736,4.826,9.47,13.84,4.489,-0.3031,7.725,0,0,0,0,0,0,0,0,0,0,0,0,0,0,0,0,
756,5.208,-1.133,-2.096,7.616,12.37,8.209,-0.5489,-13.99,2.688,0.8252,3.057,4.417,6.722,1.276,-3.266,3.58,0,0,0,0,0,0,0,0,0,0,0,0,0,0,0,0,
757,4.303,-5.657,-0.5473,9.113,16.71,7.454,-3.17,-15.93,-2.559,-2.695,3.851,1.389,2.568,0.6953,1.805,3.612,0,0,0,0,0,0,0,0,0,0,0,0,0,0,0,0,
758,-0.2979,-9.675,3.405,8.5,5.213,1.945,-6.783,-19.09,1.338,-6.527,6.482,0.8743,6.047,1.092,7.648,7.868,0,0,0,0,0,0,0,0,0,0,0,0,0,0,0,0,
759,-4.238,-8.635,3.124,10.15,3.483,5.578,-8.345,-19.05,4.427,-7.112,5.32,-0.9722,10,-0.1249,4.68,8.574,0,0,0,0,0,0,0,0,0,0,0,0,0,0,0,0,
760,-1.921,-5.531,2.797,12.83,16.78,8.392,-7.388,-16.23,1.915,-6.359,2.162,-1.009,11.94,1.077,-1.146,5.106,0,0,0,0,0,0,0,0,0,0,0,0,0,0,0,0,
761,0.5961,-5.234,2.422,14.73,17.5,5.729,-4.569,-13.27,2.394,-6.792,0.4078,0.8558,13.75,4.76,-1.341,4.939,0,0,0,0,0,0,0,0,0,0,0,0,0,0,0,0,
762,-2.883,-5.484,-0.5457,17.79,9.592,5.399,-3.127,-11.81,3.34,-7.817,0.3789,0.4683,14.6,7.217,-0.2493,5.803,0,0,0,0,0,0,0,0,0,0,0,0,0,0,0,0,
763,-6.805,-3.553,-1.968,18.48,9.256,1.67,-4.497,-11.65,1.273,-8.334,0.5031,-0.7536,13.34,8.777,-3.576,1.328,0,0,0,0,0,0,0,0,0,0,0,0,0,0,0,0,
764,-7.995,-2.964,-2.183,14.26,7.532,-4.83,-4.764,-10.76,1.558,-7.782,0.8318,1.074,11.11,10.06,-3.359,0.1678,0,0,0,0,0,0,0,0,0,0,0,0,0,0,0,0,
765,-7.831,-3.184,-4.864,11.94,3.744,-3.216,-3.208,-8.76,2.025,-5.757,1.15,2.312,7.748,8.976,-0.2561,1.688,0,0,0,0,0,0,0,0,0,0,0,0,0,0,0,0,
766,-6.627,-2.314,-7.142,14.77,5.843,0.1013,-3.447,-7.262,-0.8138,-3.956,-1.095,-1.299,3.264,5.102,-2.667,-2.952,0,0,0,0,0,0,0,0,0,0,0,0,0,0,0,0,
767,-7.348,-3.529,-4.758,18.45,9.325,-2.2,-2.991,-4.809,-0.3149,-3.378,-1.296,-3.444,1.739,2.767,-2.221,-3.358,0,0,0,0,0,0,0,0,0,0,0,0,0,0,0,0,
768,-6.476,-3.396,1.73,21.81,13.71,0.5429,3.632,0.7752,5.475,-0.7062,5.459,0.1222,2.936,4.433,3.204,0.8639,0,0,0,0,0,0,0,0,0,0,0,0,0,0,0,0,
769,1.697,0.951,6.96,25.98,16.93,8.612,10.82,4.57,7.283,3.05,8.272,1.482,0.9627,3.651,0.6063,-3.837,0,0,0,0,0,0,0,0,0,0,0,0,0,0,0,0,
770,4.895,1.164,4.554,27.24,7.124,5.04,9.328,1.791,-0.8152,1.637,-1.052,-3.803,-2.363,-2.614,-9.463,-10.75,0,0,0,0,0,0,0,0,0,0,0,0,0,0,0,0,
771,-3.765,-2.017,-2.514,23.11,-7.021,-5.27,5.977,-1.528,-9.71,-2.326,-10.04,-8.723,-2.095,-6.171,-15.43,-11.65,0,0,0,0,0,0,0,0,0,0,0,0,0,0,0,0,
772,-7.886,-0.2587,-4.189,19.33,-4.276,-1.822,8.789,-1.485,-8.032,-2.322,-8.605,-8.194,-1.202,-4.519,-13.93,-12.49,0,0,0,0,0,0,0,0,0,0,0,0,0,0,0,0,
773,-3.563,2.232,-0.3788,18.08,6.552,5.386,8.485,-3.993,-1.036,-0.8623,-2.884,-5.051,-0.636,-2.532,-11,-14.25,0,0,0,0,0,0,0,0,0,0,0,0,0,0,0,0,
774,-0.7113,2.121,2.178,15.31,6.498,-0.1192,2.223,-8.127,3.662,-1.422,2.087,-1.957,2.159,0.017,-8.84,-12.18,0,0,0,0,0,0,0,0,0,0,0,0,0,0,0,0,
775,1.852,1.686,1.339,13.05,2.655,-5.27,-1.886,-9.513,6.127,-3.347,5.402,0.6703,4.144,2.225,-2.84,-6.136,0,0,0,0,0,0,0,0,0,0,0,0,0,0,0,0,
776,2.488,-1.981,-2.294,10.93,4.718,-2.636,-6.2,-12.73,2.85,-6.541,5.354,3.707,5.657,2.777,6.153,0.3605,0,0,0,0,0,0,0,0,0,0,0,0,0,0,0,0,
777,0.3772,-5.08,-3.247,5.411,9.947,0.2637,-10.82,-17.68,-0.5032,-9.367,6.593,9.547,10.92,6.95,14.74,7.271,0,0,0,0,0,0,0,0,0,0,0,0,0,0,0,0,
778,3.751,-3.674,-1.252,1.759,14.67,2.747,-11.45,-19.83,4.665,-9.707,11.28,13.68,15.66,14.07,20.61,14.91,0,0,0,0,0,0,0,0,0,0,0,0,0,0,0,0,
779,6.237,-5.975,-7.705,-0.8668,11.01,0.497,-14.57,-22.78,5.538,-9.372,12.47,10.52,16.18,17.21,22.64,19.8,0,0,0,0,0,0,0,0,0,0,0,0,0,0,0,0,
780,2.069,-10.5,-17.54,-8.311,4.116,-4.165,-19.69,-27.36,-0.8394,-10.91,10.84,7.868,16.03,16.5,26.03,21.85,0,0,0,0,0,0,0,0,0,0,0,0,0,0,0,0,
781,2.528,-9.848,-14.39,-13.87,11.3,-0.788,-20.8,-29.56,2.685,-12.72,12.41,10.86,16.04,14.45,29.24,21.9,0,0,0,0,0,0,0,0,0,0,0,0,0,0,0,0,
782,5.747,-10.05,-6.578,-16.53,21.15,0.6454,-24.62,-31.01,10.33,-12.19,14.68,12.32,14.95,11.21,26,19.25,0,0,0,0,0,0,0,0,0,0,0,0,0,0,0,0,
783,4.252,-13.13,-9.822,-22.73,18.28,-4.208,-30.4,-32.15,7.747,-12.09,13.63,10.2,11.69,7.315,20.26,14.3,0,0,0,0,0,0,0,0,0,0,0,0,0,0,0,0,
784,4.735,-14.24,-17.6,-25.19,15.77,-3.063,-28.91,-30.05,3.58,-14.22,10.16,6.833,6.133,3.891,14.57,5.793,0,0,0,0,0,0,0,0,0,0,0,0,0,0,0,0,
785,5.736,-14.79,-18.44,-20.55,13.85,-5.147,-25.2,-26.63,3.03,-13.53,7.419,2.783,2.953,3.939,11.06,-2.106,0,0,0,0,0,0,0,0,0,0,0,0,0,0,0,0,
786,1.426,-12.81,-17.25,-17.99,4.562,-14.51,-24.22,-24.25,0.0473,-9.694,6.647,1.416,3.911,6.483,12.82,-4.145,0,0,0,0,0,0,0,0,0,0,0,0,0,0,0,0,
787,-0.8057,-6.249,-20.64,-16.34,2.48,-12.85,-20.58,-21,-1.376,-8.261,5.888,3.269,6.136,6.105,12.65,-4.502,0,0,0,0,0,0,0,0,0,0,0,0,0,0,0,0,
788,1.517,-3.002,-21.28,-12.55,9.284,-6.588,-16.2,-17.53,2.808,-8.374,6.316,5.799,9.456,5.532,10.9,-2.771,0,0,0,0,0,0,0,0,0,0,0,0,0,0,0,0,
789,1.83,-5.052,-17.59,-13.59,10.88,-8.951,-17.04,-17.82,6.73,-6.785,10.07,9.762,13.08,9.228,16.2,3.547,0,0,0,0,0,0,0,0,0,0,0,0,0,0,0,0,
790,2.179,-3.83,-15.99,-15.16,10.8,-7.74,-18.63,-19.49,8.198,-4.672,13.76,13.87,15.88,12.25,22.68,7.514,0,0,0,0,0,0,0,0,0,0,0,0,0,0,0,0,
791,6.324,1.783,-11.83,-7.239,13.83,-0.7924,-14.37,-16.74,9.737,-3.178,14.63,14.52,18.31,12.61,23.25,7.907,0,0,0,0,0,0,0,0,0,0,0,0,0,0,0,0,
792,9.37,6.045,-6.207,1.349,16.97,3.421,-6.326,-11.58,11.67,-2.426,15.1,15.11,20.94,15.22,24.63,11.49,0,0,0,0,0,0,0,0,0,0,0,0,0,0,0,0,
793,10.92,11.1,-6.488,1.813,21.88,7.135,-0.3589,-8.888,14.16,-2.12,17.32,20.06,26.78,20.16,29.99,17.39,0,0,0,0,0,0,0,0,0,0,0,0,0,0,0,0,
794,14.49,18.1,-6.913,0.0155,22.28,6.922,-0.0025,-10.38,15.46,-1.444,17.78,22.01,32.21,23.18,29.62,18.36,0,0,0,0,0,0,0,0,0,0,0,0,0,0,0,0,
795,14.3,17.44,-6.164,-1.74,12.69,1.963,-4.061,-15.55,12.7,-0.9762,13.68,16.03,29.41,23.19,22.22,15.52,0,0,0,0,0,0,0,0,0,0,0,0,0,0,0,0,
796,10.47,9.904,-5.998,-2.827,8.362,1.847,-5.651,-18.33,9.278,-0.4521,11.4,12.87,25.59,22.82,20.4,16.46,0,0,0,0,0,0,0,0,0,0,0,0,0,0,0,0,
797,13.04,8.572,-0.9222,-0.2496,15.3,3.213,-1.007,-14.86,10.93,1.177,14.18,16.42,28.7,23.33,23.29,18.21,0,0,0,0,0,0,0,0,0,0,0,0,0,0,0,0,
798,18.35,12.57,3.627,2.427,18.37,3.137,4.467,-11.62,16.12,1.45,15.34,17.64,30.76,22.1,21.88,14.23,0,0,0,0,0,0,0,0,0,0,0,0,0,0,0,0,
799,18.8,14.39,3.517,5.107,19.59,10.2,6.017,-11.7,19.19,-0.5301,13.38,14.79,26.41,18.45,18.79,6.248,0,0,0,0,0,0,0,0,0,0,0,0,0,0,0,0,
800,17.84,14.8,4.523,10.7,28.08,17.21,4.516,-10.6,18.84,-0.7587,12.11,10.31,19.85,16.23,16.53,-0.1541,0,0,0,0,0,0,0,0,0,0,0,0,0,0,0,0,
801,14.82,12.33,3.783,12.33,29.08,12.28,-0.0025,-10.15,16.32,-0.2419,11.52,6.717,16.2,16.96,16.14,2.208,0,0,0,0,0,0,0,0,0,0,0,0,0,0,0,0,
802,8.646,7.185,0.0913,6.122,17.69,3.186,-7.58,-14.94,13.99,-3.709,11.75,8.159,16.34,17.4,16.37,6.872,0,0,0,0,0,0,0,0,0,0,0,0,0,0,0,0,
803,5.707,4.414,-2.1,-0.2644,12.73,-1.436,-13.79,-20.39,15.87,-8.495,13.36,8.483,13.48,14.35,10.74,0.3586,0,0,0,0,0,0,0,0,0,0,0,0,0,0,0,0,
804,6.01,1.43,-4.32,-2.031,15.23,-3.367,-15.89,-21.27,16.44,-10.95,13.53,2.583,6.162,9.486,4.638,-7.319,0,0,0,0,0,0,0,0,0,0,0,0,0,0,0,0,
805,6.18,-3.104,-6.824,-2.615,12.85,-4.742,-16.91,-20.26,9.624,-12.24,10.22,-1.182,2.048,7.222,3.758,-8.017,0,0,0,0,0,0,0,0,0,0,0,0,0,0,0,0,
806,6.907,-4.374,-6.913,-2.897,10.02,-5.592,-17.12,-18.23,8.406,-11.35,6.149,-1.135,0.5497,6.521,2.431,-11.4,0,0,0,0,0,0,0,0,0,0,0,0,0,0,0,0,
807,7.469,-4.128,-2.751,-0.3002,13.9,-4.597,-14.75,-14.12,17.28,-8.084,5.359,-1.347,-0.6686,4.849,2.994,-12.06,0,0,0,0,0,0,0,0,0,0,0,0,0,0,0,0,
808,8.257,-4.236,2.219,1.051,18.68,-2.762,-13.97,-12.53,19.76,-5.084,7.896,1.294,2.564,6.174,6.883,-5.118,0,0,0,0,0,0,0,0,0,0,0,0,0,0,0,0,
809,8.812,-3.454,-0.0439,-1.734,16.4,-3.495,-16.36,-14.05,14.4,-1.861,9.616,4.154,6.322,10.04,7.354,-3.128,0,0,0,0,0,0,0,0,0,0,0,0,0,0,0,0,
810,6.385,-4.334,-5.163,-3.476,10.12,-5.428,-16.56,-13.36,11.18,1.087,7.765,3.272,6.564,9.781,5.663,-6.043,0,0,0,0,0,0,0,0,0,0,0,0,0,0,0,0,
811,4.967,-4.05,-6.335,-3.841,7.629,-7.14,-15.14,-12.08,9.597,1.274,5.11,4.186,8.61,7.073,4.66,-5.267,0,0,0,0,0,0,0,0,0,0,0,0,0,0,0,0,
812,5.854,-0.0559,-9.865,-4.706,5.983,-11.24,-17.1,-13.57,8.57,0.0446,3.627,5.15,9.894,5.87,3.271,-4.132,0,0,0,0,0,0,0,0,0,0,0,0,0,0,0,0,
813,2.9,-0.3755,-14.27,-5.359,3.413,-15.01,-19.89,-14.33,6.721,-1.054,2.054,1.656,6.431,5.092,4.468,-4.34,0,0,0,0,0,0,0,0,0,0,0,0,0,0,0,0,
814,-0.538,-5.311,-14.45,-8.148,3.495,-15.53,-20.16,-13.21,1.917,-2.743,3.716,1.466,5.071,5.322,10.47,-1.541,0,0,0,0,0,0,0,0,0,0,0,0,0,0,0,0,
815,0.2055,-7.957,-17.58,-10.55,-1.082,-17.21,-19.82,-13.12,-1.813,-4.167,8.597,5.177,5.643,5.252,15.42,-0.9187,0,0,0,0,0,0,0,0,0,0,0,0,0,0,0,0,
816,0.3341,-9.528,-20.56,-9.727,-5.389,-17.52,-17.5,-12.16,-1.435,-3.629,8.981,4.706,3.684,4.217,13.31,-7.325,0,0,0,0,0,0,0,0,0,0,0,0,0,0,0,0,
817,0.4797,-9.648,-14.87,-10.14,3.598,-12.12,-13.28,-8.986,1.111,-2.435,6.405,2.596,2.725,5.363,6.941,-11.82,0,0,0,0,0,0,0,0,0,0,0,0,0,0,0,0,
818,2.218,-7.941,-10.89,-10.57,8.401,-10.57,-13.72,-8.132,1.404,-3.101,6.316,1.42,1.324,4.072,-0.8086,-12.57,0,0,0,0,0,0,0,0,0,0,0,0,0,0,0,0,
819,2.809,-9.351,-13.32,-9.594,3.014,-13.93,-15.34,-8.289,1.732,-3.702,6.633,-0.1461,-1.772,-1.022,-8.154,-14.41,0,0,0,0,0,0,0,0,0,0,0,0,0,0,0,0,
820,6.244,-10.52,-11.79,-10.3,5.373,-11.27,-10.81,-5.445,8.666,-2.523,6.957,0.1957,-1.343,-0.5314,-11.16,-12.48,0,0,0,0,0,0,0,0,0,0,0,0,0,0,0,0,
821,11.2,-7.371,-9.586,-8.233,5.022,-6.402,-7.734,-5.06,11.77,-2.962,6.461,-0.3727,-0.8179,3.226,-13.15,-10.2,0,0,0,0,0,0,0,0,0,0,0,0,0,0,0,0,
822,12.01,-3.537,-10.95,-2.964,0.4238,-4.226,-8.258,-7.239,5.233,-4.056,6.834,-0.1631,-0.7673,4.031,-11.09,-10.71,0,0,0,0,0,0,0,0,0,0,0,0,0,0,0,0,
823,15.56,1.767,-6.373,-1.37,8.109,-1.273,-3.307,-3.774,7.505,-1.599,14.94,8.941,6.321,7.55,2.559,-3.722,0,0,0,0,0,0,0,0,0,0,0,0,0,0,0,0,
824,21.98,8.05,-0.123,-2.209,11.2,-0.9838,2.181,1.598,18.15,0.7294,21.98,17.71,14.12,12.16,12.78,4.821,0,0,0,0,0,0,0,0,0,0,0,0,0,0,0,0,
825,21.49,9.526,-3.64,-4.29,8.072,-0.6336,1.056,1.711,18.47,-1.564,16.99,15.86,15.3,11.51,11.05,5.05,0,0,0,0,0,0,0,0,0,0,0,0,0,0,0,0,
826,18.12,7.561,-9.438,-8.37,17.12,4.05,-0.4005,0.0976,13.91,-5.193,11.5,12.61,16.67,10.97,11.28,5.804,0,0,0,0,0,0,0,0,0,0,0,0,0,0,0,0,
827,18.2,7.167,-7.204,-7.551,19.95,4.122,0.0872,0.162,15.29,-6.113,13.32,12.96,20.63,13.93,13.42,9.88,0,0,0,0,0,0,0,0,0,0,0,0,0,0,0,0,
828,19.05,7.988,-1.431,-2.441,11.97,0.5639,-0.7129,0.6859,17.22,-5.633,14.44,11.81,22.65,15.19,12.61,12.93,0,0,0,0,0,0,0,0,0,0,0,0,0,0,0,0,
829,18.92,6.693,-2.364,-1.728,11.22,0.9775,-0.6565,0.8105,17.17,-6.077,12.28,9.259,20.81,11.92,12.73,13.01,0,0,0,0,0,0,0,0,0,0,0,0,0,0,0,0,
830,17.22,3.373,-7.38,-1.185,9.007,2.202,1.829,1.344,17.52,-5.555,9.21,7.487,15.46,5.753,9.78,7.046,0,0,0,0,0,0,0,0,0,0,0,0,0,0,0,0,
831,14.67,1.06,-5.959,2.486,4.759,2.751,1.851,2.438,15.2,-3.425,5.617,5.277,10.58,1.178,3.304,-0.6821,0,0,0,0,0,0,0,0,0,0,0,0,0,0,0,0,
832,11.9,-1.708,-4.613,0.7498,8.901,0.1894,-2.547,2.268,9.407,-2.778,2.814,1.537,9.516,1.232,0.3295,-4.827,0,0,0,0,0,0,0,0,0,0,0,0,0,0,0,0,
833,8.839,-4.661,-7.933,-1.285,11.98,-6.197,-3.176,2.481,7.092,-2.608,0.3467,-1.682,9.699,2.884,-1.206,-7.839,0,0,0,0,0,0,0,0,0,0,0,0,0,0,0,0,
834,7.896,-3.991,-4.859,4.405,9.247,-6.578,1.143,4.197,9.319,-1.423,-3.746,-4.495,5.186,0.8011,-7.109,-13.87,0,0,0,0,0,0,0,0,0,0,0,0,0,0,0,0,
835,5.074,-6.672,-2.978,5.603,4.542,-2.864,-0.9227,2.913,8.838,-2.216,-6.794,-10.14,-5.616,-5.77,-14.62,-22.61,0,0,0,0,0,0,0,0,0,0,0,0,0,0,0,0,
836,-3.523,-17.27,-10.75,0.0465,0.563,-5.752,-8.012,0.1925,5.623,-4.206,-6.53,-15.54,-13.86,-10.18,-18.12,-25.36,0,0,0,0,0,0,0,0,0,0,0,0,0,0,0,0,
837,-9.995,-24.53,-12.74,-0.0123,-0.7076,-13.15,-10.54,0.5483,3.829,-4.535,-8.174,-17.93,-13.86,-7.878,-21.03,-20.93,0,0,0,0,0,0,0,0,0,0,0,0,0,0,0,0,
838,-12.57,-24.95,-10.17,0.7393,-4.386,-18.52,-12.33,-0.1551,2.709,-4.814,-12.04,-20.86,-12.61,-5.67,-25.86,-19.26,0,0,0,0,0,0,0,0,0,0,0,0,0,0,0,0,
839,-14.97,-25.67,-16.16,-3.669,-6.706,-17.44,-15.82,-3.186,1.204,-5.461,-11.04,-22.37,-13.97,-8.47,-25.88,-18.33,0,0,0,0,0,0,0,0,0,0,0,0,0,0,0,0,
840,-12.97,-26.36,-21.37,-5.64,-1.148,-13.02,-15.28,-3.412,-0.7854,-5.084,-7.842,-20.71,-16.25,-10.97,-20.85,-13.2,0,0,0,0,0,0,0,0,0,0,0,0,0,0,0,0,
841,-7.971,-25.68,-17.85,-4.76,2.292,-13.34,-13.53,-2.271,-0.4938,-4.838,-6.084,-19.88,-19.21,-10.68,-14.69,-8.132,0,0,0,0,0,0,0,0,0,0,0,0,0,0,0,0,
842,-4.902,-26.07,-14.56,-6.529,0.9897,-12.43,-16.14,-4.286,2.722,-4.514,-1.758,-19.18,-19.65,-9.186,-7.265,-4.346,0,0,0,0,0,0,0,0,0,0,0,0,0,0,0,0,
843,-3.162,-26.71,-16.32,-9.768,1.498,-7.542,-19.2,-6.986,1.746,-2.511,-0.4321,-18.59,-17.89,-6.85,-3.045,-3.197,0,0,0,0,0,0,0,0,0,0,0,0,0,0,0,0,
844,-5.638,-25.34,-17.13,-10.76,0.5557,-10.25,-17.8,-6.176,-2.413,-1.344,-6.921,-20.39,-18.71,-7,-4.38,-6.811,0,0,0,0,0,0,0,0,0,0,0,0,0,0,0,0,
845,-9.854,-22.16,-14.85,-8.807,-4.258,-15.69,-14.22,-3.544,-5.179,-3.816,-11.99,-22.08,-20.36,-10.22,-7.464,-10.88,0,0,0,0,0,0,0,0,0,0,0,0,0,0,0,0,
846,-9.114,-19.65,-15.23,-6.976,-11.08,-14.54,-12.53,-2.22,-11.54,-7.784,-13.25,-23.82,-20.56,-10.9,-10.01,-11.7,0,0,0,0,0,0,0,0,0,0,0,0,0,0,0,0,
847,-8.732,-18.18,-15.65,-7.528,-15.56,-14.4,-12.44,-2.688,-15.44,-10.03,-15.32,-25.61,-19.96,-8.623,-10.37,-10.72,0,0,0,0,0,0,0,0,0,0,0,0,0,0,0,0,
848,-9.817,-15.26,-11.76,-8.181,-10.73,-13.54,-12.34,-5.125,-8.982,-9.771,-15.15,-22.58,-18.56,-8.344,-9.99,-12.1,0,0,0,0,0,0,0,0,0,0,0,0,0,0,0,0,
849,-5.069,-12.54,-11,-5.968,-2.413,-7.593,-11.33,-7.014,-4.613,-8.606,-11.49,-16.88,-20.43,-11.61,-11.04,-17.82,0,0,0,0,0,0,0,0,0,0,0,0,0,0,0,0,
850,0.6444,-12.08,-11.99,-2.472,-2.082,-7.23,-8.166,-4.945,-4.361,-8.032,-7.986,-13.75,-25.3,-15.76,-11.6,-23.11,0,0,0,0,0,0,0,0,0,0,0,0,0,0,0,0,
851,1.851,-11.41,-6.678,-0.9663,-3.92,-7.984,-4.029,-1.699,2.885,-6.552,-4.737,-11.73,-25.46,-16.74,-11.08,-20.94,0,0,0,0,0,0,0,0,0,0,0,0,0,0,0,0,
