%OpenBCI Raw EXG Data
%Number of channels = 16
%Sample Rate = 125 Hz
%Board = OpenBCI_GUI$BoardCytonSerialDaisy
Sample Index,EXG Channel 0,EXG Channel 1,EXG Channel 2,EXG Channel 3,EXG Channel 4,EXG Channel 5,EXG Channel 6,EXG Channel 7,EXG Channel 8,EXG Channel 9,EXG Channel 10,EXG Channel 11,EXG Channel 12,EXG Channel 13,EXG Channel 14,EXG Channel 15,Accel Channel 0,Accel Channel 1,Accel Channel 2,Other,Other.1,Other.2,Other.3,Other.4,Other.5,Other.6,Analog Channel 0,Analog Channel 1,Analog Channel 2,Timestamp,Other.7,Timestamp (Formatted),Annotations
1,0.0,0.0,0.0,0.0,0.0,0.0,-0.0,0.0,-0.0,0.0,-0.0,0.0,0.0,-0.0,0.0,0.0,0,0,0,0,0,0,0,0,0,0,0,0,0,0,0,0,T0
2,-4.873,15.38,-5.035,-16.21,1.747,2.405,-9.896,-5.854,-5.631,4.932,-1.56,0.261,-3.737,0.2897,0.3135,5.16,0,0,0,0,0,0,0,0,0,0,0,0,0,0,0,0,
3,-28.09,-14.97,-20.81,-44.12,-1.105,0.1616,-9.077,7.267,-14.21,3.09,-9.163,-3.335,-14.65,-5.515,-7.834,-2.748,0,0,0,0,0,0,0,0,0,0,0,0,0,0,0,0,
4,-25.7,-19.42,-29.82,-28.51,-9.081,-13.76,-4.728,0.5859,-23.69,-3.256,-14.3,-9.92,-22.8,-13.24,-10.42,-10.96,0,0,0,0,0,0,0,0,0,0,0,0,0,0,0,0,
5,-9.617,-12.74,-29.71,-11.06,-15.22,-14.5,-6.001,-22.27,-27.25,-6.543,-10.34,-11.67,-20.57,-16.52,-6.721,-11.59,0,0,0,0,0,0,0,0,0,0,0,0,0,0,0,0,
6,-23.99,-43.41,-25.15,-26.2,-4.983,6.407,-4.021,-13.7,-20.79,-5.031,-4.114,-10.32,-16.36,-18.32,-7.402,-12.91,0,0,0,0,0,0,0,0,0,0,0,0,0,0,0,0,
7,-27.45,-36.21,-16.53,-16.68,4.333,2.41,0.823,5.948,-17.76,-9.245,-6.531,-14.7,-20.24,-24.98,-12.02,-18.48,0,0,0,0,0,0,0,0,0,0,0,0,0,0,0,0,
8,-5.538,2.156,-23.12,-10.43,-7.526,-19.16,-3.786,-5.943,-29.85,-17.89,-13.73,-16.42,-27.12,-28.5,-13.74,-18.89,0,0,0,0,0,0,0,0,0,0,0,0,0,0,0,0,
9,-10.28,-13.7,-40.21,-33.91,-14.52,-7.392,-10.03,-21.08,-40.79,-15.26,-13.46,-9.142,-27.75,-22.27,-10.34,-11.07,0,0,0,0,0,0,0,0,0,0,0,0,0,0,0,0,
10,-20.57,-28.29,-39.08,-30.27,-13.0,1.706,-15.34,-13.04,-41.91,-14.22,-13.41,-6.978,-28.52,-21.33,-13.18,-9.847,0,0,0,0,0,0,0,0,0,0,0,0,0,0,0,0,
11,-10.97,-10.86,-32.67,-19.5,-20.43,-18.62,-25.89,-11.35,-44.99,-29.14,-20.68,-9.191,-31.51,-26.89,-22.28,-13.44,0,0,0,0,0,0,0,0,0,0,0,0,0,0,0,0,
12,-13.29,-20.18,-38.57,-25.17,-24.1,-19.94,-20.68,-18.47,-44.31,-34.25,-19.39,-3.7,-25.22,-22.9,-20.09,-8.472,0,0,0,0,0,0,0,0,0,0,0,0,0,0,0,0,
13,-16.62,-23.42,-43.23,-17.95,-25.44,-14.3,2.667,-8.85,-35.57,-24.13,-9.192,-0.5113,-15.12,-17.83,-12.9,-7.103,0,0,0,0,0,0,0,0,0,0,0,0,0,0,0,0,
14,-14.7,-12.24,-41.3,-29.27,-19.5,-25.57,10.3,-8.522,-31.68,-22.39,-4.867,-3.799,-11.16,-17.34,-12.33,-10.3,0,0,0,0,0,0,0,0,0,0,0,0,0,0,0,0,
15,-23.09,-34.35,-32.2,-53.17,-1.43,-13.13,-0.6565,-35.9,-28.13,-18.71,-1.999,-0.2659,-4.746,-6.256,-7.417,-1.618,0,0,0,0,0,0,0,0,0,0,0,0,0,0,0,0,
16,-23.23,-48.26,-32.41,-40.82,-16.46,13.06,-10.43,-37.9,-18.39,-2.103,3.018,5.695,4.059,7.779,1.157,5.917,0,0,0,0,0,0,0,0,0,0,0,0,0,0,0,0,
17,-29.63,-37.15,-59.64,-31.89,-38.15,13.08,-11.63,-0.1987,-12.07,7.383,4.156,5.199,7.026,11.8,3.633,2.843,0,0,0,0,0,0,0,0,0,0,0,0,0,0,0,0,
18,-38.68,-33.64,-62.73,-38.41,-1.444,2.524,0.7096,11.69,-10.08,7.29,3.519,5.993,8.011,14.81,2.471,1.982,0,0,0,0,0,0,0,0,0,0,0,0,0,0,0,0,
19,-7.108,-20.22,-26.68,-13.05,20.49,-5.294,10.57,-14.33,-11.89,11.05,0.8634,8.653,6.589,16.68,-0.9496,-0.1224,0,0,0,0,0,0,0,0,0,0,0,0,0,0,0,0,
20,13.58,1.38,-26.2,11.57,-16.99,-10.7,0.0794,-22.45,-19.41,15.12,-4.693,5.917,-0.1353,13.39,-4.517,-5.303,0,0,0,0,0,0,0,0,0,0,0,0,0,0,0,0,
21,-8.664,14.56,-48.48,-6.219,-24.06,-2.093,-10.11,-7.725,-24.36,13.07,-7.399,1.739,-5.475,12.05,-3.554,-3.735,0,0,0,0,0,0,0,0,0,0,0,0,0,0,0,0,
22,-13.51,20.7,-43.93,-22.98,-1.488,9.223,-9.647,-3.86,-26.14,7.167,-9.975,1.398,-8.461,9.45,-1.712,-2.11,0,0,0,0,0,0,0,0,0,0,0,0,0,0,0,0,
23,-8.088,8.249,-54.49,-11.1,-15.73,3.597,-13.37,-10.0,-30.15,1.591,-14.9,2.143,-11.98,2.851,-4.148,-7.021,0,0,0,0,0,0,0,0,0,0,0,0,0,0,0,0,
24,-5.17,-8.034,-72.44,-9.375,-33.44,-3.427,-15.84,-16.14,-32.88,1.688,-15.27,1.014,-14.34,0.6356,-9.238,-11.19,0,0,0,0,0,0,0,0,0,0,0,0,0,0,0,0,
25,2.137,-11.55,-65.54,-20.44,-23.64,3.498,-12.1,-18.02,-35.17,4.682,-14.0,-1.409,-18.58,-1.785,-12.69,-12.46,0,0,0,0,0,0,0,0,0,0,0,0,0,0,0,0,
26,-36.59,-12.8,-69.95,-8.04,-15.25,1.561,-8.889,-10.24,-41.97,-4.411,-15.37,-2.247,-23.78,-10.41,-11.78,-11.97,0,0,0,0,0,0,0,0,0,0,0,0,0,0,0,0,
27,-61.55,-14.48,-60.75,-4.584,-15.02,-12.52,-4.818,-10.55,-48.97,-24.0,-11.27,-1.521,-21.04,-14.89,-6.149,-9.349,0,0,0,0,0,0,0,0,0,0,0,0,0,0,0,0,
28,0.4018,-19.71,-32.16,-29.91,-19.65,-11.48,-9.312,-22.38,-49.4,-33.82,-6.37,-4.333,-16.89,-16.05,-3.871,-11.26,0,0,0,0,0,0,0,0,0,0,0,0,0,0,0,0,
29,17.81,-9.285,-61.84,-24.36,-29.66,-10.95,-22.44,-17.95,-49.94,-36.98,-13.48,-10.35,-24.64,-24.64,-12.73,-19.72,0,0,0,0,0,0,0,0,0,0,0,0,0,0,0,0,
30,-40.34,21.18,-99.18,-3.027,-31.76,-23.54,-20.8,-9.141,-61.68,-44.53,-22.18,-12.47,-34.14,-31.22,-19.22,-22.91,0,0,0,0,0,0,0,0,0,0,0,0,0,0,0,0,
31,-34.94,20.06,-72.84,-20.27,-31.52,-17.71,-11.67,-18.69,-71.71,-42.56,-21.36,-8.769,-31.29,-24.83,-13.69,-17.49,0,0,0,0,0,0,0,0,0,0,0,0,0,0,0,0,
32,0.9207,-4.858,-61.76,-34.41,-38.62,-6.396,-14.51,-18.94,-63.63,-30.42,-18.59,-1.891,-23.2,-12.32,-8.841,-10.57,0,0,0,0,0,0,0,0,0,0,0,0,0,0,0,0,
33,-9.559,-5.665,-85.14,-21.47,-37.23,-16.54,-16.91,-2.481,-52.77,-24.19,-15.05,5.844,-17.36,1.108,-5.116,-1.175,0,0,0,0,0,0,0,0,0,0,0,0,0,0,0,0,
34,-11.68,4.428,-82.56,-18.02,-29.02,-23.36,-13.42,-1.697,-51.41,-18.47,-9.932,10.38,-11.32,12.88,0.8347,6.814,0,0,0,0,0,0,0,0,0,0,0,0,0,0,0,0,
35,-6.669,3.453,-72.92,-28.43,-28.98,-19.34,-10.59,-12.72,-47.92,-8.893,-10.59,10.26,-6.405,17.3,-1.329,4.365,0,0,0,0,0,0,0,0,0,0,0,0,0,0,0,0,
36,-19.66,-18.36,-80.47,-39.42,-27.28,-16.27,-9.552,-12.69,-41.75,-4.276,-14.35,8.852,-5.602,17.31,-6.246,-1.332,0,0,0,0,0,0,0,0,0,0,0,0,0,0,0,0,
37,-21.36,-39.57,-92.11,-38.6,-23.34,-11.17,-15.94,-9.753,-40.16,-3.836,-14.12,7.626,-6.962,17.18,-3.852,-1.593,0,0,0,0,0,0,0,0,0,0,0,0,0,0,0,0,
38,-23.79,-17.35,-97.5,-24.73,-26.44,-13.4,-16.69,-12.1,-39.15,-5.963,-9.51,4.619,-5.984,14.44,0.1747,-0.4362,0,0,0,0,0,0,0,0,0,0,0,0,0,0,0,0,
39,-20.68,9.839,-80.88,-22.41,-22.58,-19.54,-2.359,-12.31,-37.58,-11.16,-3.24,-0.7562,-3.508,8.801,1.303,-2.534,0,0,0,0,0,0,0,0,0,0,0,0,0,0,0,0,
40,9.231,2.937,-61.49,-32.4,-13.02,-13.51,-0.6242,-17.05,-38.58,-15.38,-2.646,-5.716,-6.976,0.5989,-3.27,-9.371,0,0,0,0,0,0,0,0,0,0,0,0,0,0,0,0,
41,14.7,-4.808,-67.95,-37.15,-13.24,-8.789,-9.002,-29.33,-40.91,-21.24,-6.759,-9.397,-13.92,-10.58,-10.42,-17.62,0,0,0,0,0,0,0,0,0,0,0,0,0,0,0,0,
42,-5.809,-11.92,-74.42,-40.89,-9.5,-14.42,1.148,-30.56,-43.69,-33.41,-5.533,-14.87,-15.47,-21.67,-9.489,-20.47,0,0,0,0,0,0,0,0,0,0,0,0,0,0,0,0,
43,0.3316,-17.74,-70.3,-45.76,-3.646,-17.45,9.463,-23.53,-47.87,-48.25,-3.036,-20.68,-18.63,-30.72,-6.264,-17.84,0,0,0,0,0,0,0,0,0,0,0,0,0,0,0,0,
44,5.606,-6.582,-79.04,-45.54,-17.09,-15.49,-3.041,-26.01,-54.58,-58.92,-7.406,-21.76,-30.17,-36.06,-12.24,-16.47,0,0,0,0,0,0,0,0,0,0,0,0,0,0,0,0,
45,-10.59,-11.82,-86.53,-38.94,-26.66,-13.07,-12.04,-28.52,-61.89,-59.85,-12.87,-19.69,-37.64,-33.93,-19.46,-19.35,0,0,0,0,0,0,0,0,0,0,0,0,0,0,0,0,
46,-8.486,-25.16,-78.41,-30.82,-16.15,-12.83,-10.16,-25.22,-65.47,-51.5,-15.43,-17.91,-35.22,-26.8,-19.37,-21.86,0,0,0,0,0,0,0,0,0,0,0,0,0,0,0,0,
47,3.738,-10.79,-79.98,-32.28,-17.69,-15.56,-10.81,-24.24,-67.06,-40.37,-19.01,-15.08,-33.28,-20.63,-18.46,-22.01,0,0,0,0,0,0,0,0,0,0,0,0,0,0,0,0,
48,-4.918,-6.462,-92.97,-39.28,-30.85,-15.5,-13.29,-19.51,-68.65,-30.34,-21.65,-11.35,-32.61,-13.61,-17.63,-20.38,0,0,0,0,0,0,0,0,0,0,0,0,0,0,0,0,
49,-16.12,-23.63,-95.67,-39.46,-30.34,-12.99,-12.5,-12.52,-65.95,-21.59,-19.15,-6.553,-26.78,-2.695,-10.76,-13.18,0,0,0,0,0,0,0,0,0,0,0,0,0,0,0,0,
50,-12.28,-23.81,-96.43,-37.67,-28.13,-14.38,-9.428,-10.56,-61.12,-14.43,-16.35,2.927,-20.45,7.071,-5.214,-4.761,0,0,0,0,0,0,0,0,0,0,0,0,0,0,0,0,
51,-8.792,-18.53,-99.56,-36.94,-31.1,-15.25,-8.364,-7.964,-59.04,-8.387,-15.36,12.01,-17.27,11.38,-5.67,-4.12,0,0,0,0,0,0,0,0,0,0,0,0,0,0,0,0,
52,-13.87,-21.72,-89.37,-34.57,-27.33,-12.5,-10.83,-8.464,-55.89,-4.178,-11.24,12.06,-13.86,12.69,-3.933,-6.927,0,0,0,0,0,0,0,0,0,0,0,0,0,0,0,0,
53,-15.83,-18.54,-79.12,-35.3,-25.62,-14.13,-12.08,-12.56,-53.58,-5.676,-9.698,8.449,-13.51,13.24,-3.392,-6.598,0,0,0,0,0,0,0,0,0,0,0,0,0,0,0,0,
54,-10.13,-18.58,-83.76,-37.16,-32.04,-19.75,-11.67,-9.827,-58.75,-11.89,-14.98,7.359,-17.91,11.94,-6.862,-5.261,0,0,0,0,0,0,0,0,0,0,0,0,0,0,0,0,
55,-7.132,-26.49,-87.16,-37.8,-33.86,-23.31,-12.02,-9.443,-63.88,-17.44,-16.0,4.917,-20.59,6.893,-6.26,-9.294,0,0,0,0,0,0,0,0,0,0,0,0,0,0,0,0,
56,-10.52,-26.64,-85.24,-41.92,-28.96,-28.29,-10.02,-17.39,-62.92,-24.39,-12.5,0.1644,-21.81,-2.004,-6.714,-19.62,0,0,0,0,0,0,0,0,0,0,0,0,0,0,0,0,
57,-9.998,-23.29,-85.81,-45.19,-27.53,-33.81,-7.08,-21.51,-64.76,-34.83,-12.83,-5.031,-24.18,-10.38,-11.24,-24.82,0,0,0,0,0,0,0,0,0,0,0,0,0,0,0,0,
58,-3.464,-24.4,-85.39,-44.78,-31.35,-34.13,-8.319,-22.56,-71.0,-41.88,-12.19,-7.033,-24.16,-12.92,-9.751,-21.29,0,0,0,0,0,0,0,0,0,0,0,0,0,0,0,0,
59,-1.836,-24.38,-84.85,-45.79,-32.85,-34.24,-13.33,-24.22,-76.21,-43.92,-11.01,-2.34,-23.46,-10.79,-5.013,-18.56,0,0,0,0,0,0,0,0,0,0,0,0,0,0,0,0,
60,-4.134,-23.49,-86.85,-45.38,-31.98,-35.64,-21.52,-23.26,-83.67,-44.96,-15.99,0.1806,-25.27,-8.322,-3.608,-15.92,0,0,0,0,0,0,0,0,0,0,0,0,0,0,0,0,
61,-1.997,-23.21,-89.04,-41.12,-31.3,-31.6,-26.7,-23.23,-87.8,-41.59,-18.08,-2.723,-23.76,-3.807,-0.695,-9.079,0,0,0,0,0,0,0,0,0,0,0,0,0,0,0,0,
62,0.621,-18.97,-88.41,-37.52,-24.86,-25.08,-18.73,-22.33,-76.65,-32.53,-10.74,-0.0732,-17.2,3.891,3.917,-2.862,0,0,0,0,0,0,0,0,0,0,0,0,0,0,0,0,
63,3.926,-13.24,-81.51,-34.94,-16.86,-20.39,-8.224,-16.78,-62.25,-25.21,-6.098,4.005,-14.43,7.46,2.758,-1.939,0,0,0,0,0,0,0,0,0,0,0,0,0,0,0,0,
64,12.75,-11.29,-73.56,-32.74,-16.27,-15.31,-12.54,-13.38,-59.28,-22.19,-12.04,1.249,-18.18,4.463,-4.765,-6.096,0,0,0,0,0,0,0,0,0,0,0,0,0,0,0,0,
65,15.84,-10.17,-71.64,-33.42,-16.51,-13.63,-23.72,-13.71,-58.91,-20.22,-20.32,-0.4591,-21.25,1.277,-10.88,-10.95,0,0,0,0,0,0,0,0,0,0,0,0,0,0,0,0,
66,8.62,-8.097,-72.1,-34.28,-15.48,-16.7,-26.06,-13.31,-56.33,-18.77,-21.56,0.765,-20.36,0.6321,-11.96,-13.96,0,0,0,0,0,0,0,0,0,0,0,0,0,0,0,0,
67,8.388,-5.157,-68.96,-28.09,-16.14,-13.97,-18.66,-11.17,-54.25,-15.94,-16.29,1.113,-17.56,2.494,-10.5,-15.74,0,0,0,0,0,0,0,0,0,0,0,0,0,0,0,0,
68,18.98,2.404,-61.57,-17.48,-11.55,-3.771,-12.65,-6.749,-47.08,-9.258,-14.05,0.9578,-15.8,3.573,-9.14,-16.51,0,0,0,0,0,0,0,0,0,0,0,0,0,0,0,0,
69,23.09,9.032,-58.89,-14.41,-5.645,1.119,-18.66,-4.01,-39.18,-4.63,-20.5,-3.312,-18.31,-1.529,-9.759,-19.22,0,0,0,0,0,0,0,0,0,0,0,0,0,0,0,0,
70,19.21,8.503,-63.92,-17.6,-6.236,-1.206,-25.22,-5.756,-39.36,-7.208,-24.64,-6.604,-21.39,-5.658,-9.137,-21.62,0,0,0,0,0,0,0,0,0,0,0,0,0,0,0,0,
71,23.33,10.69,-60.05,-14.9,-2.949,0.7773,-17.49,-6.207,-39.98,-10.19,-19.04,-1.326,-19.42,-2.343,-5.694,-17.68,0,0,0,0,0,0,0,0,0,0,0,0,0,0,0,0,
72,33.43,18.42,-45.47,-9.213,6.28,6.41,-9.311,-5.825,-36.64,-8.689,-16.75,0.719,-17.53,-1.85,-4.361,-12.28,0,0,0,0,0,0,0,0,0,0,0,0,0,0,0,0,
73,34.63,21.71,-38.23,-10.73,6.793,3.783,-10.45,-9.663,-38.01,-10.25,-20.24,-5.126,-19.64,-6.324,-2.197,-9.413,0,0,0,0,0,0,0,0,0,0,0,0,0,0,0,0,
74,29.82,18.97,-40.32,-15.25,-1.75,-4.492,-11.6,-12.01,-46.74,-17.34,-16.9,-4.712,-19.75,-5.045,2.891,-5.125,0,0,0,0,0,0,0,0,0,0,0,0,0,0,0,0,
75,26.92,12.95,-45.28,-15.47,-7.033,-6.843,-15.98,-8.501,-54.8,-18.44,-12.43,1.367,-16.15,0.73,3.1,-0.7059,0,0,0,0,0,0,0,0,0,0,0,0,0,0,0,0,
76,22.44,7.094,-49.77,-15.16,-8.158,-6.36,-23.49,-5.777,-55.42,-10.99,-14.82,2.385,-13.13,3.991,0.1273,0.2263,0,0,0,0,0,0,0,0,0,0,0,0,0,0,0,0,
77,18.06,5.943,-47.2,-18.4,-10.37,-8.856,-21.6,-6.517,-51.93,-7.195,-14.51,2.988,-10.55,7.031,1.507,1.75,0,0,0,0,0,0,0,0,0,0,0,0,0,0,0,0,
78,18.91,6.562,-39.38,-19.9,-9.686,-7.942,-15.59,-5.657,-47.86,-6.686,-7.818,9.622,-4.57,12.85,8.103,9.946,0,0,0,0,0,0,0,0,0,0,0,0,0,0,0,0,
79,20.22,6.361,-30.8,-16.56,-3.428,-3.744,-14.15,-2.306,-39.18,-0.8318,1.053,15.72,3.408,17.16,16.97,16.79,0,0,0,0,0,0,0,0,0,0,0,0,0,0,0,0,
80,19.27,7.235,-21.64,-15.43,0.4179,-4.107,-13.04,-0.7679,-29.33,3.165,7.275,16.02,6.041,15.74,19.98,13.24,0,0,0,0,0,0,0,0,0,0,0,0,0,0,0,0,
81,20.06,8.149,-19.13,-17.74,-0.1618,-4.84,-13.58,-1.895,-25.8,0.8969,4.659,15.83,3.549,14.06,15.9,12.54,0,0,0,0,0,0,0,0,0,0,0,0,0,0,0,0,
82,22.96,8.408,-21.63,-16.35,1.739,-1.873,-16.71,-2.969,-24.43,0.5646,0.6942,17.33,3.02,16.11,14.07,18.52,0,0,0,0,0,0,0,0,0,0,0,0,0,0,0,0,
83,25.87,8.509,-17.62,-15.11,4.542,-2.834,-18.71,-4.618,-21.94,-1.094,3.543,15.07,2.304,13.41,13.99,14.41,0,0,0,0,0,0,0,0,0,0,0,0,0,0,0,0,
84,27.06,8.82,-11.69,-19.09,3.252,-7.177,-20.64,-7.676,-21.47,-7.805,3.556,11.48,-1.894,6.178,11.37,6.633,0,0,0,0,0,0,0,0,0,0,0,0,0,0,0,0,
85,26.05,10.59,-8.664,-19.22,2.37,-6.678,-19.42,-8.124,-22.51,-9.419,-0.9496,11.14,-4.859,4.583,10.73,8.877,0,0,0,0,0,0,0,0,0,0,0,0,0,0,0,0,
86,25.11,12.93,-3.842,-15.26,5.684,-4.468,-15.51,-6.621,-25.37,-7.556,-2.101,6.587,-7.691,1.308,10.11,7.972,0,0,0,0,0,0,0,0,0,0,0,0,0,0,0,0,
87,22.55,15.04,-1.811,-17.54,8.368,-6.509,-18.68,-8.923,-29.22,-13.06,-4.343,-2.568,-13.59,-11.12,2.328,-2.457,0,0,0,0,0,0,0,0,0,0,0,0,0,0,0,0,
88,18.3,16.31,0.6506,-21.25,7.129,-10.05,-25.18,-12.07,-29.24,-21.11,-10.16,-5.326,-18.67,-19.65,-6.539,-7.683,0,0,0,0,0,0,0,0,0,0,0,0,0,0,0,0,
89,19.83,15.01,9.855,-20.35,4.585,-12.56,-26.06,-11.56,-29.51,-23.74,-15.02,-4.482,-22.88,-19.71,-9.112,-5.997,0,0,0,0,0,0,0,0,0,0,0,0,0,0,0,0,
90,22.78,13.2,9.916,-20.61,2.69,-13.99,-25.56,-10.77,-36.19,-21.76,-19.75,-7.502,-26.71,-19.3,-11.46,-8.257,0,0,0,0,0,0,0,0,0,0,0,0,0,0,0,0,
91,17.61,12.69,5.118,-20.32,2.119,-12.68,-26.98,-8.511,-43.28,-15.45,-22.39,-8.763,-25.51,-16.45,-14.67,-9.882,0,0,0,0,0,0,0,0,0,0,0,0,0,0,0,0,
92,13.88,10.88,19.14,-16.68,3.585,-10.15,-30.09,-2.3,-44.26,-6.857,-21.04,-5.891,-22.58,-9.967,-13.69,-3.817,0,0,0,0,0,0,0,0,0,0,0,0,0,0,0,0,
93,15.22,6.404,30.64,-17.14,2.792,-10.85,-35.35,0.6419,-42.03,-1.689,-22.1,-4.397,-23.76,-6.247,-13.28,0.502,0,0,0,0,0,0,0,0,0,0,0,0,0,0,0,0,
94,10.11,1.931,18.64,-21.55,-3.554,-13.66,-38.41,-1.831,-41.3,-1.725,-24.89,-4.688,-24.21,-6.101,-13.94,0.3381,0,0,0,0,0,0,0,0,0,0,0,0,0,0,0,0,
95,5.644,3.406,13.12,-22.05,-7.052,-13.34,-38.22,-2.747,-39.24,-3.135,-23.37,-4.771,-20.7,-6.519,-12.19,1.55,0,0,0,0,0,0,0,0,0,0,0,0,0,0,0,0,
96,10.55,10.17,21.52,-19.7,-4.063,-11.5,-37.99,-2.494,-30.6,-2.152,-20.98,-6.377,-18.26,-6.89,-13.46,1.176,0,0,0,0,0,0,0,0,0,0,0,0,0,0,0,0,
97,11.53,11.4,20.13,-20.54,-5.665,-15.49,-36.38,-5.53,-22.01,-3.066,-19.79,-10.81,-17.72,-8.145,-14.95,1.357,0,0,0,0,0,0,0,0,0,0,0,0,0,0,0,0,
98,6.317,6.09,18.09,-23.9,-10.11,-22.87,-31.52,-9.717,-19.17,-9.448,-15.5,-14.04,-14.71,-10.32,-10.48,5.636,0,0,0,0,0,0,0,0,0,0,0,0,0,0,0,0,
99,5.129,3.867,25.18,-23.81,-5.437,-23.91,-25.85,-12.17,-13.72,-12.52,-11.01,-13.58,-10.21,-11.8,-7.222,6.914,0,0,0,0,0,0,0,0,0,0,0,0,0,0,0,0,
100,4.793,4.329,26.9,-20.69,-0.5771,-20.03,-26.02,-12.58,-6.602,-10.38,-11.55,-14.74,-9.432,-13.28,-8.592,3.867,0,0,0,0,0,0,0,0,0,0,0,0,0,0,0,0,
101,3.613,3.792,28.21,-21.32,-4.138,-18.5,-33.29,-10.46,-6.867,-12.83,-13.93,-17.73,-11.82,-15.6,-10.81,0.7797,0,0,0,0,0,0,0,0,0,0,0,0,0,0,0,0,
102,4.979,5.03,32.06,-25.35,-5.808,-19.39,-37.07,-8.974,-8.187,-17.85,-14.57,-18.0,-13.82,-18.84,-14.45,-2.099,0,0,0,0,0,0,0,0,0,0,0,0,0,0,0,0,
103,3.621,5.774,23.49,-26.4,-5.879,-21.26,-34.46,-11.71,-5.984,-19.66,-15.69,-19.87,-16.59,-25.41,-20.47,-6.401,0,0,0,0,0,0,0,0,0,0,0,0,0,0,0,0,
104,0.6174,2.471,20.82,-23.56,-10.06,-23.16,-33.05,-14.01,-7.326,-20.5,-18.36,-22.01,-20.5,-30.09,-25.58,-11.27,0,0,0,0,0,0,0,0,0,0,0,0,0,0,0,0,
105,0.9083,0.1597,37.61,-22.04,-10.95,-24.59,-33.4,-11.97,-12.46,-18.58,-19.49,-15.87,-22.75,-25.22,-25.6,-9.87,0,0,0,0,0,0,0,0,0,0,0,0,0,0,0,0,
106,-2.472,2.232,38.37,-24.89,-9.175,-28.61,-36.1,-10.96,-18.01,-16.04,-19.38,-10.9,-23.74,-20.02,-24.16,-5.109,0,0,0,0,0,0,0,0,0,0,0,0,0,0,0,0,
107,-8.604,4.947,23.05,-26.5,-11.6,-32.48,-42.09,-12.92,-23.48,-18.73,-22.37,-16.88,-24.84,-23.32,-26.36,-7.303,0,0,0,0,0,0,0,0,0,0,0,0,0,0,0,0,
108,-9.722,4.215,25.05,-22.83,-14.47,-30.38,-45.2,-12.26,-27.87,-18.97,-26.47,-20.82,-25.41,-26.72,-27.86,-9.961,0,0,0,0,0,0,0,0,0,0,0,0,0,0,0,0,
109,-11.15,0.5884,26.15,-19.74,-15.78,-26.35,-45.44,-8.348,-31.81,-12.79,-25.73,-16.3,-24.9,-24.91,-26.32,-7.229,0,0,0,0,0,0,0,0,0,0,0,0,0,0,0,0,
110,-11.22,0.0633,15.06,-19.01,-16.0,-23.99,-45.09,-5.901,-33.1,-8.304,-21.64,-13.61,-22.31,-21.53,-23.39,-5.136,0,0,0,0,0,0,0,0,0,0,0,0,0,0,0,0,
111,-4.761,4.174,21.5,-16.02,-10.54,-20.06,-41.78,-4.854,-27.58,-4.583,-17.74,-13.16,-17.14,-17.37,-19.63,-2.658,0,0,0,0,0,0,0,0,0,0,0,0,0,0,0,0,
112,-3.103,7.246,37.69,-12.66,-1.718,-15.9,-38.12,-2.681,-16.76,1.111,-12.24,-9.711,-10.8,-13.37,-19.57,0.3664,0,0,0,0,0,0,0,0,0,0,0,0,0,0,0,0,
113,-2.607,9.012,42.07,-12.29,1.055,-15.22,-34.06,-1.992,-5.288,3.111,-7.502,-8.286,-6.405,-12.61,-22.15,-0.015,0,0,0,0,0,0,0,0,0,0,0,0,0,0,0,0,
114,5.792,10.88,41.19,-13.75,-3.008,-17.64,-30.01,-4.309,-0.3631,1.008,-9.823,-11.57,-7.049,-14.84,-21.51,-0.933,0,0,0,0,0,0,0,0,0,0,0,0,0,0,0,0,
115,2.473,10.57,33.75,-16.34,-5.298,-20.66,-32.74,-6.829,-4.213,-2.077,-14.38,-13.89,-9.495,-17.05,-19.61,-0.2346,0,0,0,0,0,0,0,0,0,0,0,0,0,0,0,0,
116,-11.42,10.17,26.76,-18.97,-2.625,-21.29,-34.55,-9.943,-6.267,-6.457,-12.42,-13.62,-7.901,-17.53,-18.78,1.252,0,0,0,0,0,0,0,0,0,0,0,0,0,0,0,0,
117,-6.651,10.2,35.28,-19.63,0.2525,-19.21,-28.27,-11.86,-1.256,-9.331,-8.896,-12.48,-4.137,-16.27,-17.6,4.104,0,0,0,0,0,0,0,0,0,0,0,0,0,0,0,0,
118,8.955,8.825,42.34,-19.38,1.894,-18.55,-26.92,-9.181,3.896,-7.263,-10.67,-9.734,-2.497,-14.07,-14.69,7.974,0,0,0,0,0,0,0,0,0,0,0,0,0,0,0,0,
119,10.42,8.789,35.85,-21.05,0.6041,-22.38,-32.82,-8.416,5.323,-3.371,-13.9,-6.904,-3.665,-12.95,-11.36,10.27,0,0,0,0,0,0,0,0,0,0,0,0,0,0,0,0,
120,1.142,7.691,27.19,-23.11,-7.046,-26.47,-38.46,-11.25,2.477,-1.922,-15.75,-6.086,-7.268,-12.37,-12.25,9.487,0,0,0,0,0,0,0,0,0,0,0,0,0,0,0,0,
121,-7.33,4.452,19.63,-22.18,-13.04,-25.25,-46.48,-10.37,-4.031,-1.859,-17.99,-6.264,-10.41,-9.407,-14.94,8.344,0,0,0,0,0,0,0,0,0,0,0,0,0,0,0,0,
122,-10.92,5.414,19.22,-21.81,-10.65,-22.98,-51.13,-9.485,-10.6,-1.276,-20.2,-7.072,-10.21,-5.969,-13.65,8.211,0,0,0,0,0,0,0,0,0,0,0,0,0,0,0,0,
123,-9.865,6.949,27.84,-24.52,-8.693,-23.92,-46.36,-11.53,-15.37,-0.9864,-20.44,-7.417,-8.297,-4.283,-9.325,9.719,0,0,0,0,0,0,0,0,0,0,0,0,0,0,0,0,
124,-8.115,4.52,28.15,-25.56,-11.35,-24.09,-42.61,-11.15,-17.61,-1.753,-18.39,-7.158,-8.374,-4.215,-4.92,12.88,0,0,0,0,0,0,0,0,0,0,0,0,0,0,0,0,
125,-10.57,2.629,19.86,-26.28,-13.0,-24.99,-42.52,-12.6,-18.97,-5.628,-18.81,-10.07,-13.03,-9.52,-6.267,9.826,0,0,0,0,0,0,0,0,0,0,0,0,0,0,0,0,
126,-17.99,0.2882,18.96,-28.33,-12.16,-27.77,-39.15,-16.91,-21.42,-12.39,-23.56,-13.53,-18.76,-17.53,-13.11,2.224,0,0,0,0,0,0,0,0,0,0,0,0,0,0,0,0,
127,-18.36,-0.6849,25.19,-24.09,-8.361,-24.29,-34.42,-14.93,-18.81,-14.01,-23.27,-11.72,-17.87,-18.61,-13.36,2.156,0,0,0,0,0,0,0,0,0,0,0,0,0,0,0,0,
128,-6.686,3.995,31.57,-17.46,-2.886,-17.51,-31.29,-9.537,-9.413,-9.18,-15.75,-9.058,-12.0,-16.01,-7.932,3.92,0,0,0,0,0,0,0,0,0,0,0,0,0,0,0,0,
129,-1.002,5.732,34.43,-19.46,-1.287,-16.97,-29.35,-8.604,-3.939,-9.107,-12.9,-9.837,-9.779,-17.65,-8.982,0.395,0,0,0,0,0,0,0,0,0,0,0,0,0,0,0,0,
130,-4.622,4.011,32.83,-21.31,-0.9592,-16.51,-29.11,-9.585,-3.735,-15.11,-15.94,-10.2,-10.89,-18.99,-13.97,-0.6075,0,0,0,0,0,0,0,0,0,0,0,0,0,0,0,0,
131,-3.088,7.873,34.06,-15.33,4.975,-11.89,-28.2,-9.256,0.1161,-17.43,-16.75,-9.978,-11.19,-16.44,-15.49,-0.1444,0,0,0,0,0,0,0,0,0,0,0,0,0,0,0,0,
132,-1.624,8.938,38.25,-14.04,9.962,-12.88,-26.22,-8.996,4.024,-16.88,-18.29,-13.43,-14.81,-16.02,-17.8,-4.784,0,0,0,0,0,0,0,0,0,0,0,0,0,0,0,0,
133,-5.577,3.083,34.92,-18.53,5.493,-19.09,-28.4,-10.11,-0.119,-18.91,-23.76,-19.18,-22.01,-19.29,-22.59,-9.509,0,0,0,0,0,0,0,0,0,0,0,0,0,0,0,0,
134,-4.809,4.555,28.13,-16.34,-0.2812,-20.31,-33.36,-10.27,-5.816,-19.03,-27.12,-20.56,-24.63,-19.38,-22.07,-7.571,0,0,0,0,0,0,0,0,0,0,0,0,0,0,0,0,
135,-2.094,10.32,28.03,-13.49,-0.708,-19.52,-33.78,-7.217,-7.17,-15.24,-27.88,-17.11,-24.51,-14.79,-19.13,-3.529,0,0,0,0,0,0,0,0,0,0,0,0,0,0,0,0,
136,-4.193,7.793,28.33,-18.04,-2.954,-22.24,-33.14,-5.519,-10.19,-13.53,-29.81,-16.5,-27.44,-12.18,-22.35,-6.257,0,0,0,0,0,0,0,0,0,0,0,0,0,0,0,0,
137,-5.018,5.229,23.67,-19.6,-6.754,-21.55,-38.15,-7.865,-14.63,-13.2,-30.76,-19.39,-28.74,-13.81,-24.35,-12.06,0,0,0,0,0,0,0,0,0,0,0,0,0,0,0,0,
138,-5.76,5.851,18.06,-17.66,-8.016,-18.43,-42.22,-9.54,-17.16,-11.92,-28.84,-19.0,-27.85,-16.17,-20.69,-12.09,0,0,0,0,0,0,0,0,0,0,0,0,0,0,0,0,
139,-13.56,-0.5704,10.11,-22.56,-14.03,-22.88,-41.22,-10.06,-22.93,-14.98,-26.0,-16.45,-28.93,-16.38,-18.74,-8.082,0,0,0,0,0,0,0,0,0,0,0,0,0,0,0,0,
140,-21.87,-7.149,0.8441,-28.3,-23.3,-28.66,-42.74,-12.18,-30.01,-21.39,-26.58,-16.39,-30.98,-14.91,-19.72,-6.077,0,0,0,0,0,0,0,0,0,0,0,0,0,0,0,0,
141,-21.58,-4.164,-2.47,-25.89,-23.31,-25.15,-47.12,-13.19,-33.55,-23.62,-33.61,-16.27,-36.09,-15.95,-24.15,-8.422,0,0,0,0,0,0,0,0,0,0,0,0,0,0,0,0,
142,-17.01,0.9729,0.0721,-19.46,-15.42,-17.96,-48.6,-11.27,-36.12,-21.42,-39.25,-13.3,-41.26,-18.06,-29.51,-11.13,0,0,0,0,0,0,0,0,0,0,0,0,0,0,0,0,
143,-14.8,3.578,2.942,-15.38,-10.77,-14.17,-47.09,-9.852,-32.08,-18.28,-36.45,-11.08,-37.66,-15.53,-28.54,-11.01,0,0,0,0,0,0,0,0,0,0,0,0,0,0,0,0,
144,-12.16,5.476,4.17,-15.98,-10.99,-11.78,-41.87,-10.52,-20.37,-16.18,-31.44,-11.7,-29.9,-11.55,-24.95,-11.29,0,0,0,0,0,0,0,0,0,0,0,0,0,0,0,0,
145,-7.399,6.913,7.92,-15.57,-7.268,-6.9,-33.17,-10.79,-13.01,-15.5,-26.16,-10.69,-22.81,-9.307,-21.25,-9.104,0,0,0,0,0,0,0,0,0,0,0,0,0,0,0,0,
146,-5.392,9.427,15.44,-8.992,1.458,-0.9838,-26.71,-9.196,-6.355,-13.89,-20.27,-8.005,-14.8,-7.447,-17.01,-4.559,0,0,0,0,0,0,0,0,0,0,0,0,0,0,0,0,
147,-4.786,12.66,17.29,-5.151,4.499,-0.2234,-26.01,-7.362,5.368,-12.14,-21.99,-9.038,-11.71,-9.117,-18.41,-6.769,0,0,0,0,0,0,0,0,0,0,0,0,0,0,0,0,
148,-2.284,15.57,13.35,-7.71,2.698,-3.583,-29.38,-6.449,10.42,-12.58,-26.41,-10.84,-11.75,-11.07,-20.45,-8.825,0,0,0,0,0,0,0,0,0,0,0,0,0,0,0,0,
149,-1.78,17.77,14.74,-7.696,3.338,-3.807,-32.2,-5.953,7.96,-11.48,-22.22,-8.949,-8.668,-6.879,-17.08,-3.109,0,0,0,0,0,0,0,0,0,0,0,0,0,0,0,0,
150,-1.666,17.23,17.34,-6.077,1.913,-1.655,-31.11,-6.147,6.531,-6.081,-17.37,-8.026,-9.142,-3.724,-15.11,-2.438,0,0,0,0,0,0,0,0,0,0,0,0,0,0,0,0,
151,-0.0191,15.54,14.92,-7.969,-0.1614,-2.132,-28.16,-6.704,4.955,-0.4498,-17.11,-9.133,-11.98,-5.61,-14.06,-8.754,0,0,0,0,0,0,0,0,0,0,0,0,0,0,0,0,
152,-4.311,12.4,14.99,-10.82,1.171,-6.131,-27.75,-5.845,3.246,-0.0464,-15.5,-7.76,-10.2,-5.678,-12.4,-9.194,0,0,0,0,0,0,0,0,0,0,0,0,0,0,0,0,
153,-12.12,4.807,14.16,-13.65,-3.031,-10.94,-33.13,-4.754,0.2234,-4.845,-17.43,-5.234,-10.87,-4.82,-15.21,-5.215,0,0,0,0,0,0,0,0,0,0,0,0,0,0,0,0,
154,-14.69,-1.21,3.606,-13.95,-11.63,-11.79,-40.09,-4.54,-7.866,-7.129,-23.68,-4.288,-14.21,-5.866,-17.34,-4.54,0,0,0,0,0,0,0,0,0,0,0,0,0,0,0,0,
155,-13.36,-2.292,-4.827,-9.665,-13.53,-9.235,-39.05,-2.667,-14.15,-3.017,-22.87,-3.434,-11.25,-4.394,-12.76,-4.248,0,0,0,0,0,0,0,0,0,0,0,0,0,0,0,0,
156,-11.44,-3.023,-0.3589,-8.112,-10.78,-8.682,-34.13,-1.868,-14.21,0.1873,-18.74,-2.215,-7.756,-1.49,-10.08,-3.865,0,0,0,0,0,0,0,0,0,0,0,0,0,0,0,0,
157,-13.26,-1.037,4.63,-10.64,-9.491,-9.876,-35.15,-5.795,-14.95,-2.309,-20.47,-2.773,-11.48,-2.949,-15.88,-8.332,0,0,0,0,0,0,0,0,0,0,0,0,0,0,0,0,
158,-16.92,3.736,2.316,-10.1,-10.36,-10.09,-35.75,-6.772,-17.66,-6.486,-19.53,-4.998,-15.21,-7.163,-20.23,-11.87,0,0,0,0,0,0,0,0,0,0,0,0,0,0,0,0,
159,-13.35,3.776,1.921,-8.931,-11.04,-10.52,-31.28,-2.263,-16.43,-9.541,-12.51,-6.804,-11.63,-9.988,-16.48,-10.31,0,0,0,0,0,0,0,0,0,0,0,0,0,0,0,0,
160,-10.7,1.005,4.734,-10.95,-9.469,-12.01,-28.56,-3.159,-10.39,-12.29,-9.807,-9.247,-5.003,-11.53,-12.95,-11.68,0,0,0,0,0,0,0,0,0,0,0,0,0,0,0,0,
161,-13.78,2.502,6.789,-11.01,-8.082,-12.79,-26.57,-9.204,-4.762,-14.48,-9.021,-13.0,-1.71,-12.06,-12.05,-14.56,0,0,0,0,0,0,0,0,0,0,0,0,0,0,0,0,
162,-7.958,7.265,12.29,-8.305,-3.796,-11.64,-20.58,-10.35,-1.46,-15.59,-2.884,-14.29,-0.2367,-11.57,-9.598,-12.97,0,0,0,0,0,0,0,0,0,0,0,0,0,0,0,0,
163,1.081,10.78,19.19,-7.649,6.639,-10.8,-13.48,-9.373,3.478,-16.91,0.6826,-11.79,2.269,-11.14,-8.074,-11.34,0,0,0,0,0,0,0,0,0,0,0,0,0,0,0,0,
164,0.2255,11.46,21.83,-8.67,11.33,-11.89,-10.84,-11.5,8.138,-18.18,-2.741,-8.751,2.943,-10.59,-8.594,-10.85,0,0,0,0,0,0,0,0,0,0,0,0,0,0,0,0,
165,0.0488,11.4,21.91,-8.788,6.993,-11.2,-14.79,-11.86,8.127,-16.5,-5.414,-8.412,2.019,-10.07,-10.19,-9.2,0,0,0,0,0,0,0,0,0,0,0,0,0,0,0,0,
166,3.863,12.39,18.79,-8.253,5.725,-8.408,-18.92,-9.688,8.396,-12.13,-5.738,-11.49,3.534,-10.51,-12.76,-8.436,0,0,0,0,0,0,0,0,0,0,0,0,0,0,0,0,
167,2.011,12.07,14.52,-7.663,6.035,-9.886,-17.6,-9.621,8.878,-9.04,-7.971,-13.29,3.966,-11.23,-14.59,-9.885,0,0,0,0,0,0,0,0,0,0,0,0,0,0,0,0,
168,-2.08,10.47,15.97,-6.548,2.545,-13.23,-14.78,-8.292,2.542,-7.255,-10.29,-9.17,0.3936,-10.14,-14.92,-10.15,0,0,0,0,0,0,0,0,0,0,0,0,0,0,0,0,
169,1.585,12.56,21.35,-3.208,1.843,-8.336,-12.26,-1.591,-3.51,-1.907,-7.868,-2.877,0.2446,-6.269,-10.62,-5.161,0,0,0,0,0,0,0,0,0,0,0,0,0,0,0,0,
170,11.09,17.62,27.66,2.3,5.074,1.425,-9.624,4.289,-1.223,7.25,-3.256,-0.0459,4.122,-4.767,-4.107,-2.019,0,0,0,0,0,0,0,0,0,0,0,0,0,0,0,0,
171,11.72,19.18,31.24,4.206,6.374,4.114,-11.94,3.891,-0.3326,12.05,-5.83,-0.9576,0.7696,-10.39,-7.319,-7.04,0,0,0,0,0,0,0,0,0,0,0,0,0,0,0,0,
172,0.807,17.38,24.01,0.4654,2.983,1.713,-20.51,1.943,-7.298,8.89,-16.22,-1.823,-9.881,-14.25,-17.11,-10.32,0,0,0,0,0,0,0,0,0,0,0,0,0,0,0,0,
173,-4.353,17.43,15.31,-0.1886,-3.182,3.31,-28.24,3.892,-12.86,6.613,-22.64,1.087,-15.22,-9.179,-18.71,-8.573,0,0,0,0,0,0,0,0,0,0,0,0,0,0,0,0,
174,-1.78,19.47,17.68,3.839,-6.37,6.118,-28.62,7.201,-10.83,9.424,-20.95,4.283,-13.08,-5.276,-13.82,-7.45,0,0,0,0,0,0,0,0,0,0,0,0,0,0,0,0,
175,-5.391,20.09,18.83,3.093,-6.251,4.195,-23.09,6.529,-7.009,8.838,-17.96,2.134,-10.77,-7.121,-11.59,-5.497,0,0,0,0,0,0,0,0,0,0,0,0,0,0,0,0,
176,-10.35,19.75,15.7,0.3837,-5.361,2.337,-16.16,2.322,-4.284,3.455,-13.26,-1.626,-7.383,-6.605,-8.883,-5.148,0,0,0,0,0,0,0,0,0,0,0,0,0,0,0,0,
177,-5.17,21.89,23.2,3.285,-1.758,4.593,-8.067,-0.2326,2.858,0.5838,-5.088,-2.669,-1.306,-5.859,-3.352,-8.669,0,0,0,0,0,0,0,0,0,0,0,0,0,0,0,0,
178,3.42,25.26,34.04,5.238,1.54,5.614,-1.553,0.7513,11.86,-1.112,-1.611,-3.709,0.6648,-10.95,-4.503,-11.22,0,0,0,0,0,0,0,0,0,0,0,0,0,0,0,0,
179,6.321,25.72,34.77,3.753,1.875,3.836,-0.5547,1.329,14.35,-3.819,-2.577,-5.524,-1.158,-16.36,-11.91,-13.29,0,0,0,0,0,0,0,0,0,0,0,0,0,0,0,0,
180,4.441,23.92,31.45,2.95,3.441,2.5,-0.4296,-1.575,13.19,-2.949,1.758,-6.38,-0.0319,-18.44,-12.99,-15.67,0,0,0,0,0,0,0,0,0,0,0,0,0,0,0,0,
181,0.1375,22.57,27.89,-1.111,5.167,0.4728,0.7194,-3.783,13.36,0.5067,7.769,-5.02,1.99,-17.99,-9.607,-15.09,0,0,0,0,0,0,0,0,0,0,0,0,0,0,0,0,
182,-1.631,22.89,26.02,-5.058,5.398,0.0624,0.1392,-1.233,13.89,4.159,8.479,-0.6415,2.297,-13.24,-9.16,-13.07,0,0,0,0,0,0,0,0,0,0,0,0,0,0,0,0,
183,3.585,24.67,31.13,-1.427,6.896,4.582,2.958,0.8317,15.72,9.565,8.864,1.659,2.754,-9.9,-8.62,-14.02,0,0,0,0,0,0,0,0,0,0,0,0,0,0,0,0,
184,9.163,27.07,35.22,2.519,8.824,6.956,8.226,-1.185,17.92,12.43,10.64,-1.78,2.659,-12.46,-7.016,-17.0,0,0,0,0,0,0,0,0,0,0,0,0,0,0,0,0,
185,9.45,30.89,31.68,2.333,9.169,3.95,6.172,-2.005,16.52,10.36,9.077,-3.499,2.17,-11.99,-5.64,-16.3,0,0,0,0,0,0,0,0,0,0,0,0,0,0,0,0,
186,7.444,31.91,28.02,1.733,5.239,1.776,1.55,-0.4685,8.99,8.56,4.697,0.3555,0.6905,-6.747,-3.887,-12.76,0,0,0,0,0,0,0,0,0,0,0,0,0,0,0,0,
187,4.459,26.43,26.18,-0.4487,-1.948,1.213,1.684,-0.0091,-4.475,7.824,0.857,2.187,-4.07,-4.959,-3.147,-11.87,0,0,0,0,0,0,0,0,0,0,0,0,0,0,0,0,
188,3.737,25.12,22.95,-2.195,-4.222,1.696,-0.3256,-0.1895,-14.88,6.587,-0.5965,-1.599,-9.162,-7.304,-4.896,-13.15,0,0,0,0,0,0,0,0,0,0,0,0,0,0,0,0,
189,7.391,30.96,21.85,-1.106,-1.809,5.047,-1.919,-1.585,-14.16,3.927,1.193,-5.256,-11.0,-11.81,-7.875,-14.22,0,0,0,0,0,0,0,0,0,0,0,0,0,0,0,0,
190,9.206,32.45,24.98,-0.3213,0.5516,7.544,5.263,-4.725,-7.682,-1.661,4.563,-4.849,-8.773,-16.0,-6.817,-13.54,0,0,0,0,0,0,0,0,0,0,0,0,0,0,0,0,
191,9.398,32.98,27.42,1.178,4.889,7.369,10.24,-5.855,-0.1412,-4.459,7.664,-3.668,-3.267,-16.62,-3.087,-13.44,0,0,0,0,0,0,0,0,0,0,0,0,0,0,0,0,
192,10.51,36.24,26.52,2.627,8.798,7.768,8.959,-4.784,9.439,-0.6895,13.25,-3.651,1.623,-16.26,-2.584,-16.05,0,0,0,0,0,0,0,0,0,0,0,0,0,0,0,0,
193,6.792,31.94,26.09,0.3456,9.344,6.76,13.54,-4.747,16.74,2.394,21.39,-1.597,4.899,-15.09,0.6889,-14.37,0,0,0,0,0,0,0,0,0,0,0,0,0,0,0,0,
194,2.024,24.89,26.41,-1.669,8.486,2.339,17.12,-4.985,18.18,1.349,23.65,0.5431,6.914,-12.83,5.877,-10.91,0,0,0,0,0,0,0,0,0,0,0,0,0,0,0,0,
195,4.707,25.48,24.83,-0.5257,5.237,0.2056,13.45,-3.609,18.0,-0.8236,19.77,-1.962,5.46,-14.61,2.82,-13.92,0,0,0,0,0,0,0,0,0,0,0,0,0,0,0,0,
196,7.546,27.39,25.55,-0.0129,2.037,1.369,15.87,-2.353,19.12,-3.099,18.56,-5.831,2.849,-17.59,-2.2,-15.81,0,0,0,0,0,0,0,0,0,0,0,0,0,0,0,0,
197,2.72,25.16,28.78,-2.854,1.179,-1.646,18.57,-4.145,18.08,-5.552,18.22,-7.221,1.994,-17.4,-3.163,-14.81,0,0,0,0,0,0,0,0,0,0,0,0,0,0,0,0,
198,-3.083,21.46,28.27,-6.744,-0.1627,-6.503,12.29,-5.973,14.79,-6.861,17.17,-7.042,2.693,-16.76,-2.404,-14.63,0,0,0,0,0,0,0,0,0,0,0,0,0,0,0,0,
199,-3.033,19.93,26.41,-5.131,2.299,-3.035,12.46,-1.866,15.59,-1.122,20.45,-5.336,5.971,-13.28,1.842,-9.291,0,0,0,0,0,0,0,0,0,0,0,0,0,0,0,0,
200,-0.6837,22.41,26.23,0.6231,8.433,4.51,17.95,3.076,21.26,12.34,23.31,-2.072,9.268,-5.891,5.294,-3.342,0,0,0,0,0,0,0,0,0,0,0,0,0,0,0,0,
201,-1.365,23.72,23.59,0.3676,7.105,4.696,15.12,1.581,25.48,20.99,23.14,2.501,9.701,-0.9097,6.148,-2.219,0,0,0,0,0,0,0,0,0,0,0,0,0,0,0,0,
202,-5.305,19.93,18.39,-4.471,-0.6106,-0.6091,12.3,0.6163,23.67,20.14,23.26,6.777,8.873,-1.122,7.882,-1.285,0,0,0,0,0,0,0,0,0,0,0,0,0,0,0,0,
203,-10.25,16.46,14.8,-5.088,-5.438,-2.87,13.21,3.132,16.36,17.71,19.07,6.147,5.426,-6.228,5.221,-3.858,0,0,0,0,0,0,0,0,0,0,0,0,0,0,0,0,
204,-11.82,16.87,16.51,-3.725,-6.047,-0.7912,11.45,0.6414,8.999,14.56,13.03,1.415,-0.8199,-12.05,0.2565,-8.694,0,0,0,0,0,0,0,0,0,0,0,0,0,0,0,0,
205,-7.689,18.68,22.03,-4.336,-3.802,0.562,10.67,-3.844,3.887,9.815,12.31,-1.149,-4.266,-12.17,1.427,-7.482,0,0,0,0,0,0,0,0,0,0,0,0,0,0,0,0,
206,-2.025,21.71,22.53,-3.681,-3.028,-0.8873,9.267,-3.434,-0.2227,8.417,11.76,-0.643,-3.376,-10.11,3.647,-4.118,0,0,0,0,0,0,0,0,0,0,0,0,0,0,0,0,
207,2.844,27.59,17.5,-1.147,-5.753,-0.7563,2.672,-2.981,0.7226,9.441,8.626,-0.7563,-2.697,-12.64,0.3763,-4.729,0,0,0,0,0,0,0,0,0,0,0,0,0,0,0,0,
208,5.48,32.55,16.53,0.7966,-3.141,2.181,-2.859,-3.477,6.218,8.389,5.897,-2.774,-3.639,-17.03,-2.793,-6.338,0,0,0,0,0,0,0,0,0,0,0,0,0,0,0,0,
209,1.758,31.3,20.29,1.359,5.175,2.739,-2.471,-2.815,10.78,4.836,4.634,-5.087,-1.578,-18.83,1.188,-4.653,0,0,0,0,0,0,0,0,0,0,0,0,0,0,0,0,
210,-1.647,25.73,22.81,-0.0267,6.846,0.3665,1.772,-5.013,17.62,-0.8129,7.125,-7.805,3.321,-21.64,5.367,-4.266,0,0,0,0,0,0,0,0,0,0,0,0,0,0,0,0,
211,3.448,22.7,24.0,-0.1242,4.024,0.7922,3.885,-7.409,25.46,-5.882,8.36,-13.16,4.42,-29.62,1.179,-10.92,0,0,0,0,0,0,0,0,0,0,0,0,0,0,0,0,
212,8.014,25.66,26.91,3.435,7.995,4.554,3.023,-6.231,27.55,-6.597,3.894,-19.05,3.396,-36.26,-4.151,-16.51,0,0,0,0,0,0,0,0,0,0,0,0,0,0,0,0,
213,6.556,29.67,30.62,3.564,13.71,5.805,6.062,-6.785,30.12,-4.627,1.947,-21.03,4.588,-33.81,-6.743,-15.45,0,0,0,0,0,0,0,0,0,0,0,0,0,0,0,0,
214,5.453,28.6,29.18,-0.77,11.09,3.767,7.089,-7.762,34.8,-1.366,1.66,-18.91,2.587,-27.26,-10.32,-15.1,0,0,0,0,0,0,0,0,0,0,0,0,0,0,0,0,
215,3.171,25.98,22.53,-0.4217,3.923,2.306,-0.9006,-4.252,30.71,4.121,-5.48,-14.76,-3.589,-24.11,-13.01,-17.48,0,0,0,0,0,0,0,0,0,0,0,0,0,0,0,0,
216,-1.149,24.53,19.04,2.284,-0.7052,-0.2959,-6.894,-1.889,21.9,7.148,-13.13,-11.89,-7.791,-23.8,-17.29,-18.73,0,0,0,0,0,0,0,0,0,0,0,0,0,0,0,0,
217,-4.4,18.17,16.91,-0.1888,-5.056,-6.645,-10.05,-3.883,17.08,4.896,-15.39,-12.44,-11.61,-24.44,-22.22,-17.79,0,0,0,0,0,0,0,0,0,0,0,0,0,0,0,0,
218,-12.77,9.004,10.48,-4.375,-11.58,-13.02,-14.71,-5.495,8.038,1.765,-16.2,-13.46,-16.29,-25.22,-19.48,-15.34,0,0,0,0,0,0,0,0,0,0,0,0,0,0,0,0,
219,-21.48,7.384,8.915,-5.788,-14.93,-15.45,-10.64,-5.665,-4.829,-0.7758,-14.65,-13.17,-15.76,-23.93,-15.45,-12.64,0,0,0,0,0,0,0,0,0,0,0,0,0,0,0,0,
220,-16.41,12.46,14.32,-3.851,-13.01,-12.9,-5.111,-5.481,-7.511,-1.176,-11.71,-12.89,-11.34,-20.53,-18.39,-11.63,0,0,0,0,0,0,0,0,0,0,0,0,0,0,0,0,
221,-7.645,15.31,17.7,-0.3895,-7.886,-6.796,-10.64,-4.117,-3.194,3.797,-11.59,-11.15,-9.055,-16.97,-20.33,-14.49,0,0,0,0,0,0,0,0,0,0,0,0,0,0,0,0,
222,-6.987,14.06,22.24,-0.2691,1.348,-2.748,-12.7,-2.164,-1.964,7.758,-9.406,-7.424,-6.642,-13.6,-15.47,-16.87,0,0,0,0,0,0,0,0,0,0,0,0,0,0,0,0,
223,-4.002,13.7,24.35,-1.95,7.66,-3.842,-8.301,-1.435,-0.2658,3.516,-3.784,-6.425,-3.275,-13.89,-10.64,-15.58,0,0,0,0,0,0,0,0,0,0,0,0,0,0,0,0,
224,2.932,16.89,16.89,-0.0165,4.865,-4.879,-9.051,-3.243,4.763,-4.212,-0.7288,-10.8,-1.911,-21.04,-10.94,-17.89,0,0,0,0,0,0,0,0,0,0,0,0,0,0,0,0,
225,6.381,21.37,19.69,3.844,5.973,-0.8806,-4.742,-6.397,12.75,-7.503,2.654,-15.62,2.421,-25.87,-9.611,-21.25,0,0,0,0,0,0,0,0,0,0,0,0,0,0,0,0,
226,10.7,25.53,37.73,7.431,16.58,6.369,7.914,-6.418,24.23,-3.82,8.776,-16.02,11.39,-21.06,-3.088,-17.07,0,0,0,0,0,0,0,0,0,0,0,0,0,0,0,0,
227,16.55,29.54,43.43,10.53,23.53,12.4,11.67,-2.54,33.65,2.29,11.13,-14.56,15.33,-16.78,-0.6413,-12.91,0,0,0,0,0,0,0,0,0,0,0,0,0,0,0,0,
228,18.09,31.06,35.45,10.36,23.03,13.21,5.218,-0.3212,37.84,3.418,8.231,-14.39,11.67,-18.75,-4.718,-15.03,0,0,0,0,0,0,0,0,0,0,0,0,0,0,0,0,
229,16.78,29.57,31.45,8.59,19.09,8.615,0.113,-0.8584,37.57,-0.0631,3.998,-14.52,8.264,-18.7,-6.699,-17.49,0,0,0,0,0,0,0,0,0,0,0,0,0,0,0,0,
230,13.3,28.19,27.75,8.129,13.07,3.307,-0.7221,0.6489,31.53,-1.883,1.421,-15.04,7.401,-15.7,-5.888,-17.44,0,0,0,0,0,0,0,0,0,0,0,0,0,0,0,0,
231,5.919,25.03,20.15,5.184,7.779,-0.68,-1.552,3.299,24.61,-0.8945,0.3094,-16.56,3.95,-15.85,-8.977,-18.23,0,0,0,0,0,0,0,0,0,0,0,0,0,0,0,0,
232,-0.1863,18.72,13.6,1.69,1.134,-4.159,-7.921,3.003,18.2,-1.583,-3.537,-17.82,-2.812,-18.02,-13.08,-20.2,0,0,0,0,0,0,0,0,0,0,0,0,0,0,0,0,
233,-4.178,14.65,5.924,2.926,-8.405,-7.29,-17.26,0.7933,6.741,-6.113,-7.899,-18.26,-6.412,-18.66,-10.19,-17.71,0,0,0,0,0,0,0,0,0,0,0,0,0,0,0,0,
234,-12.36,11.51,-3.614,2.483,-14.63,-11.81,-21.34,-1.343,-1.612,-9.779,-8.026,-18.61,-6.471,-18.66,-5.761,-13.05,0,0,0,0,0,0,0,0,0,0,0,0,0,0,0,0,
235,-17.98,5.594,-6.863,-1.544,-17.1,-16.06,-22.28,-2.658,-1.849,-9.386,-9.624,-19.75,-10.5,-19.76,-6.727,-13.44,0,0,0,0,0,0,0,0,0,0,0,0,0,0,0,0,
236,-14.69,1.941,-3.092,-1.682,-20.21,-16.99,-26.74,-3.51,-8.271,-10.63,-15.46,-21.21,-18.25,-21.03,-7.25,-13.03,0,0,0,0,0,0,0,0,0,0,0,0,0,0,0,0,
237,-14.92,1.069,-1.65,-0.5843,-22.43,-17.2,-30.26,-5.875,-21.26,-15.25,-19.79,-21.84,-23.54,-20.56,-5.832,-9.264,0,0,0,0,0,0,0,0,0,0,0,0,0,0,0,0,
238,-17.49,1.753,-1.466,0.6146,-20.93,-14.85,-28.42,-6.83,-26.51,-15.48,-23.09,-22.4,-27.47,-19.52,-6.776,-9.793,0,0,0,0,0,0,0,0,0,0,0,0,0,0,0,0,
239,-10.05,7.869,1.643,6.413,-16.72,-7.927,-28.4,-3.051,-26.48,-10.87,-28.1,-22.59,-33.06,-19.6,-9.991,-12.23,0,0,0,0,0,0,0,0,0,0,0,0,0,0,0,0,
240,-5.7,12.36,0.43,6.864,-14.39,-6.644,-30.47,-0.6224,-28.23,-9.461,-31.02,-20.58,-36.43,-18.04,-14.15,-10.95,0,0,0,0,0,0,0,0,0,0,0,0,0,0,0,0,
241,-12.34,8.471,-1.341,-2.164,-16.44,-13.81,-26.55,-3.083,-26.97,-12.95,-29.41,-17.58,-34.64,-14.85,-15.98,-8.47,0,0,0,0,0,0,0,0,0,0,0,0,0,0,0,0,
242,-14.57,5.457,4.476,-4.907,-18.11,-18.1,-23.93,-4.672,-21.25,-18.07,-27.76,-16.59,-32.98,-17.63,-16.92,-10.1,0,0,0,0,0,0,0,0,0,0,0,0,0,0,0,0,
243,-13.15,6.914,6.605,0.473,-16.72,-16.89,-28.18,-4.763,-15.3,-24.13,-29.36,-19.55,-34.84,-27.84,-21.55,-17.82,0,0,0,0,0,0,0,0,0,0,0,0,0,0,0,0,
244,-16.01,7.522,3.076,1.462,-15.09,-14.75,-24.52,-7.559,-9.698,-30.31,-29.44,-24.6,-34.57,-35.89,-24.37,-25.39,0,0,0,0,0,0,0,0,0,0,0,0,0,0,0,0,
245,-15.09,9.726,6.084,0.071,-12.17,-9.836,-11.75,-10.47,-3.538,-33.11,-24.18,-26.75,-28.26,-37.0,-21.38,-26.48,0,0,0,0,0,0,0,0,0,0,0,0,0,0,0,0,
246,-8.915,16.05,10.38,2.836,-7.134,-1.664,-6.604,-10.12,3.976,-31.0,-18.53,-27.1,-20.54,-35.95,-15.78,-23.25,0,0,0,0,0,0,0,0,0,0,0,0,0,0,0,0,
247,-5.435,21.79,8.666,6.59,-3.139,4.472,-7.369,-8.625,11.52,-26.57,-14.92,-28.5,-15.77,-34.19,-9.042,-20.16,0,0,0,0,0,0,0,0,0,0,0,0,0,0,0,0,
248,-3.842,23.47,7.242,8.336,0.3009,7.419,-2.078,-6.867,15.76,-19.53,-8.419,-26.55,-9.998,-26.81,-2.195,-16.3,0,0,0,0,0,0,0,0,0,0,0,0,0,0,0,0,
249,-2.687,20.66,5.675,5.519,1.411,7.853,2.92,-5.667,18.34,-8.98,-1.068,-21.53,-0.6165,-15.69,5.252,-7.743,0,0,0,0,0,0,0,0,0,0,0,0,0,0,0,0,
250,-7.748,14.47,-0.4681,-1.833,-2.302,3.712,-2.188,-6.938,21.03,-1.533,-0.2175,-18.21,4.739,-8.234,10.62,1.259,0,0,0,0,0,0,0,0,0,0,0,0,0,0,0,0,
251,-14.37,10.86,-4.824,-4.051,-2.358,0.6828,-7.454,-6.509,22.19,1.586,-2.725,-12.61,3.425,-1.172,9.023,5.409,0,0,0,0,0,0,0,0,0,0,0,0,0,0,0,0,
252,-9.646,12.41,-3.85,-0.9702,1.419,3.582,-4.766,-2.394,22.61,6.898,-5.202,-3.943,0.3617,8.262,3.936,8.562,0,0,0,0,0,0,0,0,0,0,0,0,0,0,0,0,
253,-2.245,10.28,-5.867,-4.759,-2.933,2.771,-6.72,-0.9894,17.1,8.6,-13.01,0.2933,-7.517,9.569,-1.941,9.675,0,0,0,0,0,0,0,0,0,0,0,0,0,0,0,0,
254,-7.669,1.601,-13.67,-11.57,-10.62,-4.174,-17.18,-2.124,-0.0932,1.177,-22.61,0.8022,-18.97,3.411,-6.623,7.281,0,0,0,0,0,0,0,0,0,0,0,0,0,0,0,0,
255,-17.07,-4.985,-20.79,-11.54,-12.96,-7.987,-24.47,-0.8952,-17.32,-3.67,-25.96,3.213,-23.66,1.997,-4.312,7.96,0,0,0,0,0,0,0,0,0,0,0,0,0,0,0,0,
256,-20.92,-7.231,-24.16,-10.01,-15.56,-9.298,-26.11,0.6332,-24.71,-1.813,-24.95,6.415,-22.69,2.237,1.553,10.7,0,0,0,0,0,0,0,0,0,0,0,0,0,0,0,0,
257,-22.86,-5.986,-22.2,-10.21,-17.52,-11.04,-22.38,0.7269,-26.87,-3.265,-20.16,6.268,-20.34,-1.591,5.917,11.51,0,0,0,0,0,0,0,0,0,0,0,0,0,0,0,0,
258,-22.46,-1.292,-15.39,-9.196,-14.5,-12.12,-14.35,-1.329,-23.68,-9.17,-12.96,2.683,-14.32,-4.976,9.203,11.27,0,0,0,0,0,0,0,0,0,0,0,0,0,0,0,0,
259,-20.19,1.086,-8.683,-8.242,-10.53,-14.42,-9.36,-6.897,-14.95,-13.65,-9.441,0.0768,-8.318,-8.817,8.701,8.879,0,0,0,0,0,0,0,0,0,0,0,0,0,0,0,0,
260,-17.83,1.254,-2.669,-7.521,-7.199,-14.74,-3.817,-10.51,-7.821,-15.16,-6.779,-1.83,-5.694,-15.59,5.398,4.847,0,0,0,0,0,0,0,0,0,0,0,0,0,0,0,0,
261,-13.32,2.893,1.579,-7.169,-6.958,-10.43,5.432,-9.096,-2.474,-14.24,-2.459,-6.938,-3.559,-20.92,3.737,0.5687,0,0,0,0,0,0,0,0,0,0,0,0,0,0,0,0,
262,-10.29,2.968,1.178,-7.119,-10.81,-7.102,8.943,-7.723,3.829,-12.58,-0.7507,-9.617,-0.8353,-22.03,5.498,-1.268,0,0,0,0,0,0,0,0,0,0,0,0,0,0,0,0,
263,-11.01,3.571,2.038,-4.476,-9.61,-4.588,7.466,-6.874,8.386,-10.76,-0.3694,-5.089,2.249,-20.18,11.33,1.591,0,0,0,0,0,0,0,0,0,0,0,0,0,0,0,0,
264,-10.95,6.772,6.107,-2.042,-3.38,-0.6639,6.328,-4.316,9.763,-6.568,-1.102,-0.845,2.656,-18.62,16.35,1.925,0,0,0,0,0,0,0,0,0,0,0,0,0,0,0,0,
265,-11.43,6.023,7.113,-2.803,-3.429,-0.0401,2.648,-1.731,9.168,-1.599,-4.696,-0.7989,-1.614,-19.33,15.23,-3.285,0,0,0,0,0,0,0,0,0,0,0,0,0,0,0,0,
266,-14.47,2.146,6.743,-2.921,-7.647,-2.07,-2.577,0.6001,8.761,-0.0494,-8.498,-2.034,-4.586,-20.79,8.625,-8.705,0,0,0,0,0,0,0,0,0,0,0,0,0,0,0,0,
267,-14.01,1.807,7.965,-3.085,-7.943,-1.219,-6.151,2.799,10.17,-0.3903,-13.13,-4.107,-4.433,-21.52,0.5696,-13.67,0,0,0,0,0,0,0,0,0,0,0,0,0,0,0,0,
268,-11.16,4.732,8.359,-5.516,-7.18,2.409,-5.533,3.862,11.86,1.966,-15.97,-3.385,-4.733,-17.86,-2.022,-13.65,0,0,0,0,0,0,0,0,0,0,0,0,0,0,0,0,
269,-13.53,8.484,8.404,-4.323,-5.349,7.931,-1.719,5.362,11.7,9.02,-11.86,4.001,-2.562,-5.915,2.73,-4.27,0,0,0,0,0,0,0,0,0,0,0,0,0,0,0,0,
270,-11.12,12.43,11.1,2.109,3.436,15.13,-2.17,7.862,9.678,19.58,-8.084,12.16,3.228,8.828,9.945,6.443,0,0,0,0,0,0,0,0,0,0,0,0,0,0,0,0,
271,4.89,15.9,19.79,5.914,13.38,19.21,-1.984,9.176,9.24,28.46,-10.31,14.81,6.703,18.56,14.23,12.45,0,0,0,0,0,0,0,0,0,0,0,0,0,0,0,0,
272,14.61,16.94,29.56,4.799,15.41,17.35,3.238,8.777,12.04,30.37,-13.4,13.79,5.423,22.33,11.16,14.81,0,0,0,0,0,0,0,0,0,0,0,0,0,0,0,0,
273,8.474,13.37,29.19,3.003,14.72,13.22,0.0142,6.863,11.62,25.2,-14.39,11.34,2.496,20.77,6.764,13.82,0,0,0,0,0,0,0,0,0,0,0,0,0,0,0,0,
274,4.398,8.574,25.39,1.302,16.99,8.973,-3.332,4.073,5.634,16.22,-11.07,7.286,0.8012,15.32,9.551,11.37,0,0,0,0,0,0,0,0,0,0,0,0,0,0,0,0,
275,5.898,8.669,27.08,-0.5398,15.04,3.492,9.085,2.025,1.577,5.981,-4.579,2.453,-0.4091,7.644,12.32,10.53,0,0,0,0,0,0,0,0,0,0,0,0,0,0,0,0,
276,4.664,11.8,24.07,-2.098,7.716,-1.261,15.03,-1.178,2.412,-4.923,-1.225,-3.498,-1.404,-2.513,9.272,8.398,0,0,0,0,0,0,0,0,0,0,0,0,0,0,0,0,
277,4.81,12.92,23.35,-2.876,8.496,-1.593,8.491,-5.867,6.943,-12.72,1.722,-10.06,0.9791,-10.59,7.135,1.486,0,0,0,0,0,0,0,0,0,0,0,0,0,0,0,0,
278,9.049,13.22,38.36,-0.7819,16.62,0.6519,13.89,-6.064,13.18,-11.0,6.564,-12.08,4.697,-11.26,7.844,-2.41,0,0,0,0,0,0,0,0,0,0,0,0,0,0,0,0,
279,10.13,12.55,45.55,1.305,15.03,0.6181,20.58,-2.478,14.18,-3.527,5.765,-9.237,4.699,-8.735,7.738,1.796,0,0,0,0,0,0,0,0,0,0,0,0,0,0,0,0,
280,4.905,10.07,33.97,1.515,8.346,0.9689,14.56,-1.446,11.02,1.029,1.577,-8.471,3.269,-7.492,8.192,5.396,0,0,0,0,0,0,0,0,0,0,0,0,0,0,0,0,
281,1.894,11.41,28.2,5.718,9.518,5.23,12.96,-0.1622,11.49,4.86,0.9624,-9.58,2.665,-5.183,11.08,6.854,0,0,0,0,0,0,0,0,0,0,0,0,0,0,0,0,
282,3.149,13.43,27.88,9.241,6.705,5.522,14.98,3.287,11.05,10.26,0.148,-7.377,1.915,-1.295,11.7,10.16,0,0,0,0,0,0,0,0,0,0,0,0,0,0,0,0,
283,-0.8798,7.815,22.55,4.255,-2.497,-1.034,13.32,3.035,6.159,12.25,-0.4938,-5.973,2.665,1.382,7.596,9.292,0,0,0,0,0,0,0,0,0,0,0,0,0,0,0,0,
284,-5.713,2.222,23.23,0.0439,-2.138,-3.884,15.29,0.5594,3.965,12.19,1.765,-9.734,3.112,1.482,3.515,2.485,0,0,0,0,0,0,0,0,0,0,0,0,0,0,0,0,
285,-3.87,0.8001,25.36,1.028,-1.137,-1.744,13.39,1.081,2.234,13.68,-0.3505,-11.09,0.2195,2.198,1.368,-1.901,0,0,0,0,0,0,0,0,0,0,0,0,0,0,0,0,
286,-3.163,-3.732,18.01,0.7203,-11.35,-1.783,5.796,2.174,-5.232,13.89,-6.205,-4.468,-2.65,8.7,1.993,1.423,0,0,0,0,0,0,0,0,0,0,0,0,0,0,0,0,
287,-4.622,-6.507,11.06,0.9947,-16.83,-2.381,4.759,1.485,-13.84,12.81,-6.409,2.386,-3.201,17.06,6.2,7.937,0,0,0,0,0,0,0,0,0,0,0,0,0,0,0,0,
288,-4.728,-3.095,10.94,2.758,-11.91,-0.5681,4.192,0.144,-19.47,12.4,-3.101,2.942,-1.06,20.57,10.08,11.69,0,0,0,0,0,0,0,0,0,0,0,0,0,0,0,0,
289,-3.954,0.4489,14.87,2.747,-9.323,2.009,0.0138,-1.527,-20.21,9.624,-1.753,0.8002,3.567,22.0,13.42,14.97,0,0,0,0,0,0,0,0,0,0,0,0,0,0,0,0,
290,-0.4735,3.182,16.0,1.816,-10.35,2.442,-0.5604,-4.318,-15.03,2.829,-2.537,-2.641,4.058,18.84,15.13,15.08,0,0,0,0,0,0,0,0,0,0,0,0,0,0,0,0,
291,-2.153,4.273,9.54,-0.9687,-11.23,-1.546,-0.3014,-9.172,-11.55,-5.33,-5.447,-8.539,-0.2781,6.506,11.03,8.463,0,0,0,0,0,0,0,0,0,0,0,0,0,0,0,0,
292,-8.639,3.176,10.13,-3.814,-12.31,-5.149,3.626,-12.04,-11.63,-10.52,-5.048,-11.71,0.0192,-1.772,7.694,6.085,0,0,0,0,0,0,0,0,0,0,0,0,0,0,0,0,
293,-3.519,3.034,21.6,-3.054,-11.45,-4.686,13.44,-8.862,-6.927,-10.42,1.474,-11.26,3.971,-0.426,8.616,7.268,0,0,0,0,0,0,0,0,0,0,0,0,0,0,0,0,
294,4.527,1.157,23.96,-2.451,-8.931,-5.532,16.34,-6.271,1.262,-9.772,5.663,-12.16,4.907,-3.287,6.69,1.449,0,0,0,0,0,0,0,0,0,0,0,0,0,0,0,0,
295,-0.2661,-1.267,19.94,-3.236,-7.336,-7.453,14.39,-7.446,7.582,-10.16,5.724,-11.26,5.104,-8.949,2.204,-3.332,0,0,0,0,0,0,0,0,0,0,0,0,0,0,0,0,
296,-6.204,0.4714,22.35,-3.748,-6.676,-7.559,14.99,-5.723,11.41,-5.826,5.679,-6.819,4.199,-8.326,-0.7704,-2.237,0,0,0,0,0,0,0,0,0,0,0,0,0,0,0,0,
297,-6.675,1.336,22.57,-5.133,-7.84,-9.959,7.885,-4.22,9.545,-1.008,3.412,-4.081,1.638,-6.602,0.6383,0.1094,0,0,0,0,0,0,0,0,0,0,0,0,0,0,0,0,
298,-8.604,-1.012,20.33,-3.756,-10.61,-12.18,-0.4535,-6.629,5.811,-0.8583,3.983,-0.3214,4.903,-2.433,8.429,6.888,0,0,0,0,0,0,0,0,0,0,0,0,0,0,0,0,
299,-10.26,-3.782,22.65,0.078,-12.15,-10.06,5.311,-4.345,7.396,3.436,11.41,5.88,11.38,8.698,15.06,14.34,0,0,0,0,0,0,0,0,0,0,0,0,0,0,0,0,
300,-9.165,-7.573,21.8,-0.6791,-11.26,-8.762,9.377,0.2041,9.394,11.49,12.62,7.846,11.77,17.52,15.07,16.34,0,0,0,0,0,0,0,0,0,0,0,0,0,0,0,0,
301,-8.098,-9.938,18.03,-3.309,-7.974,-8.393,2.002,-1.765,9.819,13.46,4.871,7.912,10.14,21.32,14.59,19.13,0,0,0,0,0,0,0,0,0,0,0,0,0,0,0,0,
302,-8.313,-9.546,19.55,-2.885,-5.607,-6.317,1.193,-3.538,11.07,13.95,2.283,9.961,11.04,25.57,17.06,24.76,0,0,0,0,0,0,0,0,0,0,0,0,0,0,0,0,
303,-8.233,-9.155,20.14,-1.77,-9.031,-6.495,7.124,-2.058,7.188,16.49,6.069,9.929,12.86,28.09,21.48,28.05,0,0,0,0,0,0,0,0,0,0,0,0,0,0,0,0,
304,-7.342,-8.107,15.26,-0.8993,-14.02,-7.958,5.609,-3.193,0.5698,14.71,8.995,10.48,17.73,30.04,28.71,29.86,0,0,0,0,0,0,0,0,0,0,0,0,0,0,0,0,
305,-10.31,-7.158,12.86,-2.16,-14.28,-8.028,-0.5755,-4.164,-0.0585,10.95,10.51,15.08,23.14,35.34,36.35,33.64,0,0,0,0,0,0,0,0,0,0,0,0,0,0,0,0,
306,-15.28,-7.682,15.98,-5.391,-11.33,-7.821,-2.046,-3.356,3.416,8.787,12.52,17.74,27.72,39.88,41.34,38.72,0,0,0,0,0,0,0,0,0,0,0,0,0,0,0,0,
307,-9.545,-5.744,21.97,-3.966,-4.399,-4.128,5.818,-4.11,12.77,5.898,17.44,16.29,36.88,41.18,46.5,42.93,0,0,0,0,0,0,0,0,0,0,0,0,0,0,0,0,
308,2.85,-1.9,28.15,-1.146,5.71,1.2,14.01,-4.656,28.39,4.616,20.26,13.96,40.68,38.36,48.65,42.6,0,0,0,0,0,0,0,0,0,0,0,0,0,0,0,0,
309,2.846,-1.225,28.96,-2.967,8.9,1.465,8.633,-3.768,34.93,5.099,14.21,9.853,30.49,28.37,40.08,33.7,0,0,0,0,0,0,0,0,0,0,0,0,0,0,0,0,
310,-4.1,-0.6475,25.56,-0.4988,4.486,1.56,2.464,-2.637,29.26,4.017,7.122,2.761,21.2,16.12,26.94,21.25,0,0,0,0,0,0,0,0,0,0,0,0,0,0,0,0,
311,-2.384,3.529,24.78,7.795,2.034,5.239,6.343,-1.986,25.4,4.734,2.449,-3.6,16.05,9.225,15.49,13.0,0,0,0,0,0,0,0,0,0,0,0,0,0,0,0,0,
312,-0.1105,5.868,23.12,10.06,1.759,6.098,3.029,-2.057,24.83,8.339,-4.33,-4.738,6.339,7.323,5.851,7.934,0,0,0,0,0,0,0,0,0,0,0,0,0,0,0,0,
313,-1.763,4.043,18.92,7.642,0.4747,3.993,-2.755,-0.2461,21.9,9.785,-3.643,-1.994,2.254,6.682,7.185,4.979,0,0,0,0,0,0,0,0,0,0,0,0,0,0,0,0,
314,-0.3336,1.534,21.65,6.935,0.2051,2.164,6.803,2.2,18.9,8.654,5.356,-0.0351,7.154,4.822,13.44,3.204,0,0,0,0,0,0,0,0,0,0,0,0,0,0,0,0,
315,-2.945,-1.416,28.76,4.739,0.7775,-0.6528,14.47,1.05,17.58,7.02,6.2,0.5739,6.444,2.341,7.093,-0.604,0,0,0,0,0,0,0,0,0,0,0,0,0,0,0,0,
316,-8.439,-2.481,28.67,2.681,-0.4536,-2.69,8.655,-0.2041,15.49,5.167,0.7934,1.193,-1.128,1.404,-1.461,-2.97,0,0,0,0,0,0,0,0,0,0,0,0,0,0,0,0,
317,-3.836,0.0879,25.74,4.439,-3.377,-2.352,4.94,0.4578,9.626,3.807,-0.6633,0.8479,-7.458,1.715,-2.405,-1.71,0,0,0,0,0,0,0,0,0,0,0,0,0,0,0,0,
318,1.583,0.3484,28.03,4.946,-4.376,-2.179,4.727,-1.115,0.9889,2.717,-2.038,-0.7085,-10.9,4.243,-4.842,-0.0104,0,0,0,0,0,0,0,0,0,0,0,0,0,0,0,0,
319,-2.113,-1.213,30.09,3.387,-2.322,-1.529,2.465,-2.17,-4.155,3.484,-2.608,0.2094,-10.52,11.43,-2.73,3.194,0,0,0,0,0,0,0,0,0,0,0,0,0,0,0,0,
320,-4.215,0.5867,28.55,4.799,-0.9619,1.287,3.191,1.284,-3.934,8.824,1.795,6.818,-6.241,21.38,9.082,9.772,0,0,0,0,0,0,0,0,0,0,0,0,0,0,0,0,
321,-2.677,-0.3164,27.7,6.171,-1.457,3.124,4.969,3.574,-1.698,13.05,4.786,13.78,-0.963,29.25,16.9,17.4,0,0,0,0,0,0,0,0,0,0,0,0,0,0,0,0,
322,-4.592,-5.95,27.66,3.824,-2.454,2.7,4.34,1.362,2.591,9.456,4.922,14.67,4.21,32.06,18.09,20.33,0,0,0,0,0,0,0,0,0,0,0,0,0,0,0,0,
323,-5.29,-5.916,30.68,2.849,-0.3177,3.946,7.97,0.4926,11.49,3.877,10.62,15.03,11.86,32.35,22.48,19.01,0,0,0,0,0,0,0,0,0,0,0,0,0,0,0,0,
324,-0.3608,-1.409,39.01,4.372,8.68,6.473,17.77,2.876,25.4,3.937,20.78,19.22,21.57,34.55,29.52,22.4,0,0,0,0,0,0,0,0,0,0,0,0,0,0,0,0,
325,3.082,-3.131,42.18,3.35,14.44,5.655,25.44,4.189,37.44,7.026,24.55,19.1,25.88,35.15,30.77,25.95,0,0,0,0,0,0,0,0,0,0,0,0,0,0,0,0,
326,1.071,-8.016,36.71,1.143,9.184,2.425,24.98,4.68,37.96,7.56,19.21,12.22,21.55,29.14,24.04,18.38,0,0,0,0,0,0,0,0,0,0,0,0,0,0,0,0,
327,-1.103,-9.519,33.56,0.7361,6.274,0.3208,18.41,5.734,30.26,4.67,10.99,6.795,13.75,20.53,14.43,6.377,0,0,0,0,0,0,0,0,0,0,0,0,0,0,0,0,
328,-0.7988,-10.06,35.06,0.3441,10.04,0.7654,12.95,4.9,24.67,2.193,5.041,4.37,6.998,13.52,6.835,-0.7022,0,0,0,0,0,0,0,0,0,0,0,0,0,0,0,0,
329,0.7937,-8.206,39.31,0.552,10.45,4.347,13.24,3.836,22.19,3.304,2.227,0.6154,3.892,7.54,2.163,-2.906,0,0,0,0,0,0,0,0,0,0,0,0,0,0,0,0,
330,3.871,-2.755,46.3,3.051,11.32,8.805,13.33,5.314,20.43,6.438,-0.5768,-3.784,4.194,4.223,-1.605,-2.696,0,0,0,0,0,0,0,0,0,0,0,0,0,0,0,0,
331,7.567,1.104,50.2,5.628,17.05,12.44,9.829,5.641,20.71,10.46,-3.179,-6.252,4.163,3.939,-3.295,-5.273,0,0,0,0,0,0,0,0,0,0,0,0,0,0,0,0,
332,10.41,3.716,50.29,5.286,19.68,14.33,11.25,2.958,22.59,13.72,-1.482,-7.163,2.675,1.855,-1.344,-11.22,0,0,0,0,0,0,0,0,0,0,0,0,0,0,0,0,
333,10.7,4.522,47.74,2.306,17.57,11.56,14.5,0.8785,22.33,11.63,0.5997,-7.059,0.522,-1.875,0.2009,-13.36,0,0,0,0,0,0,0,0,0,0,0,0,0,0,0,0,
334,8.227,0.9127,38.82,0.9857,15.95,8.611,9.204,0.8374,18.99,8.41,-0.9573,-4.401,-0.7969,-0.1165,1.861,-8.204,0,0,0,0,0,0,0,0,0,0,0,0,0,0,0,0,
335,5.693,-1.613,28.8,1.729,13.86,10.0,5.064,1.656,15.73,11.12,-1.133,1.748,1.557,7.915,6.354,-0.3414,0,0,0,0,0,0,0,0,0,0,0,0,0,0,0,0,
336,1.844,-3.752,24.7,-0.783,7.995,8.47,8.696,2.341,12.67,12.48,1.236,8.959,6.933,16.19,11.09,6.583,0,0,0,0,0,0,0,0,0,0,0,0,0,0,0,0,
337,-2.405,-7.654,26.1,-4.591,3.729,4.848,10.42,1.318,10.56,7.037,4.442,13.8,12.83,22.47,17.1,14.78,0,0,0,0,0,0,0,0,0,0,0,0,0,0,0,0,
338,-0.5717,-4.371,31.57,-2.869,8.222,8.379,10.53,-1.078,15.13,3.501,9.277,15.94,18.19,26.68,22.52,21.78,0,0,0,0,0,0,0,0,0,0,0,0,0,0,0,0,
339,4.147,2.54,34.22,2.35,14.91,13.73,11.52,-1.456,23.0,5.81,11.66,17.69,21.09,27.88,22.79,22.65,0,0,0,0,0,0,0,0,0,0,0,0,0,0,0,0,
340,6.252,1.812,31.25,4.257,14.68,12.92,10.61,0.4271,25.72,9.413,10.16,19.36,21.22,28.19,22.81,21.13,0,0,0,0,0,0,0,0,0,0,0,0,0,0,0,0,
341,5.552,-2.364,30.85,1.386,11.34,9.39,11.79,1.465,26.51,12.08,10.16,19.89,21.5,30.66,25.18,21.26,0,0,0,0,0,0,0,0,0,0,0,0,0,0,0,0,
342,-1.949,-5.631,32.75,-1.486,9.188,6.104,13.25,2.353,28.32,13.71,11.83,21.18,23.04,33.89,28.53,23.24,0,0,0,0,0,0,0,0,0,0,0,0,0,0,0,0,
343,-9.351,-8.165,31.38,0.0433,7.485,4.224,12.66,4.084,27.24,15.56,12.99,22.3,23.67,34.52,31.26,23.53,0,0,0,0,0,0,0,0,0,0,0,0,0,0,0,0,
344,-3.476,-6.455,30.59,3.96,10.91,7.627,17.24,3.367,27.23,19.61,14.95,18.89,23.54,33.77,27.38,18.06,0,0,0,0,0,0,0,0,0,0,0,0,0,0,0,0,
345,7.311,-2.722,35.84,6.041,22.27,14.2,22.45,0.777,33.41,24.76,15.18,14.5,22.84,33.32,19.75,13.37,0,0,0,0,0,0,0,0,0,0,0,0,0,0,0,0,
346,10.94,-1.284,43.92,5.79,31.84,15.55,20.07,1.243,37.49,26.75,9.647,12.62,16.71,28.89,12.52,10.82,0,0,0,0,0,0,0,0,0,0,0,0,0,0,0,0,
347,9.878,0.4814,42.79,6.285,30.61,13.18,15.01,4.674,32.4,23.63,2.802,7.909,7.463,21.24,2.643,4.374,0,0,0,0,0,0,0,0,0,0,0,0,0,0,0,0,
348,6.941,4.47,31.19,9.056,24.76,15.74,12.09,6.838,27.04,19.93,0.973,1.89,4.915,17.52,-2.925,-0.3278,0,0,0,0,0,0,0,0,0,0,0,0,0,0,0,0,
349,5.589,8.007,28.03,10.95,24.95,19.46,13.27,5.831,27.67,19.48,2.218,0.3394,6.817,15.99,-1.931,-4.146,0,0,0,0,0,0,0,0,0,0,0,0,0,0,0,0,
350,9.242,9.787,34.93,12.06,28.65,19.2,13.58,4.35,26.4,20.04,3.201,-0.7955,7.162,13.71,-1.756,-11.09,0,0,0,0,0,0,0,0,0,0,0,0,0,0,0,0,
351,12.25,10.21,30.17,15.02,26.87,21.83,5.434,5.728,21.83,20.36,4.026,-3.549,9.301,13.92,1.993,-10.16,0,0,0,0,0,0,0,0,0,0,0,0,0,0,0,0,
352,11.11,8.222,18.81,15.49,24.28,26.54,1.088,7.479,20.15,20.76,5.004,-2.876,13.88,15.29,10.25,-2.175,0,0,0,0,0,0,0,0,0,0,0,0,0,0,0,0,
353,11.29,5.981,23.31,12.31,28.88,26.67,8.159,6.919,19.57,20.27,7.375,2.487,19.21,18.96,15.19,4.13,0,0,0,0,0,0,0,0,0,0,0,0,0,0,0,0,
354,13.91,6.781,32.03,11.85,31.32,26.74,10.3,6.951,19.69,19.9,9.11,9.738,24.53,28.2,16.36,11.49,0,0,0,0,0,0,0,0,0,0,0,0,0,0,0,0,
355,13.25,6.999,25.41,13.48,25.6,29.41,4.791,7.419,24.5,21.44,6.729,15.34,26.02,36.19,15.65,18.15,0,0,0,0,0,0,0,0,0,0,0,0,0,0,0,0,
356,9.884,5.331,16.41,13.35,22.22,31.19,2.333,6.57,30.84,25.34,4.319,18.25,25.57,41.15,15.82,21.98,0,0,0,0,0,0,0,0,0,0,0,0,0,0,0,0,
357,8.016,5.635,16.5,13.08,22.16,32.21,1.342,7.841,34.01,30.7,5.06,19.47,26.51,46.73,18.2,24.22,0,0,0,0,0,0,0,0,0,0,0,0,0,0,0,0,
358,4.241,6.139,15.95,12.15,20.22,30.56,1.175,9.739,34.61,32.93,7.492,17.24,25.87,44.87,19.39,21.79,0,0,0,0,0,0,0,0,0,0,0,0,0,0,0,0,
359,-0.5846,4.067,13.45,7.662,20.69,25.35,4.266,6.989,34.49,28.56,12.12,12.41,25.49,35.54,20.92,19.1,0,0,0,0,0,0,0,0,0,0,0,0,0,0,0,0,
360,2.043,0.5375,14.61,1.782,21.9,22.0,7.866,3.651,34.08,21.9,15.88,9.594,27.51,32.15,25.2,22.24,0,0,0,0,0,0,0,0,0,0,0,0,0,0,0,0,
361,6.788,-2.365,14.77,0.2659,19.53,20.9,12.9,4.487,32.47,19.07,16.05,9.237,26.51,32.9,27.32,26.87,0,0,0,0,0,0,0,0,0,0,0,0,0,0,0,0,
362,2.764,-3.311,11.21,2.227,17.48,18.45,17.01,5.721,28.73,18.82,14.0,9.977,19.4,28.27,20.67,27.03,0,0,0,0,0,0,0,0,0,0,0,0,0,0,0,0,
363,-4.144,-5.565,7.852,-0.0549,14.46,15.24,12.29,4.35,22.44,15.75,7.075,10.71,8.146,21.65,7.981,22.24,0,0,0,0,0,0,0,0,0,0,0,0,0,0,0,0,
364,-5.947,-8.558,4.09,-3.971,9.182,13.14,5.299,2.224,16.38,10.91,-0.0673,9.965,-0.0439,18.58,2.756,18.15,0,0,0,0,0,0,0,0,0,0,0,0,0,0,0,0,
365,-4.097,-4.549,1.48,-0.0896,10.27,15.31,8.204,1.557,14.48,9.936,2.843,8.916,2.114,19.6,8.795,18.33,0,0,0,0,0,0,0,0,0,0,0,0,0,0,0,0,
366,1.139,4.627,7.856,6.303,19.14,22.04,14.62,2.835,14.93,13.3,9.229,6.46,8.617,23.53,15.43,18.42,0,0,0,0,0,0,0,0,0,0,0,0,0,0,0,0,
367,6.914,9.652,17.49,7.127,24.3,25.35,15.05,5.293,16.32,17.41,9.837,1.061,11.69,26.76,17.15,14.59,0,0,0,0,0,0,0,0,0,0,0,0,0,0,0,0,
368,6.982,8.823,17.46,7.827,20.95,22.73,14.95,7.945,17.29,19.05,9.489,-1.561,14.24,28.38,16.59,11.19,0,0,0,0,0,0,0,0,0,0,0,0,0,0,0,0,
369,4.175,7.19,16.67,10.76,19.74,21.69,16.57,8.768,11.93,17.01,10.73,0.6391,15.76,29.85,16.3,15.58,0,0,0,0,0,0,0,0,0,0,0,0,0,0,0,0,
370,4.399,8.883,22.4,10.99,23.57,23.4,13.55,6.974,5.426,13.65,10.16,1.72,12.54,28.51,15.2,21.37,0,0,0,0,0,0,0,0,0,0,0,0,0,0,0,0,
371,6.752,11.28,18.39,9.941,19.45,23.57,8.124,6.613,6.135,11.33,7.865,2.213,9.379,25.52,13.79,18.48,0,0,0,0,0,0,0,0,0,0,0,0,0,0,0,0,
372,7.612,10.28,6.561,10.39,10.78,22.95,6.432,9.598,5.629,11.89,5.616,5.867,10.07,27.1,16.45,15.35,0,0,0,0,0,0,0,0,0,0,0,0,0,0,0,0,
373,5.167,8.608,5.905,10.02,12.98,21.55,7.22,10.62,2.493,16.38,3.957,7.841,10.96,29.96,18.42,16.09,0,0,0,0,0,0,0,0,0,0,0,0,0,0,0,0,
374,4.494,10.18,8.413,8.778,19.41,18.88,8.09,8.375,6.863,19.38,2.919,5.024,11.34,28.35,16.11,13.43,0,0,0,0,0,0,0,0,0,0,0,0,0,0,0,0,
375,10.26,14.35,4.818,10.45,21.77,20.01,11.22,9.265,14.97,17.8,4.77,4.578,15.03,28.27,19.03,14.56,0,0,0,0,0,0,0,0,0,0,0,0,0,0,0,0,
376,14.82,16.22,9.04,14.22,26.61,25.55,17.34,12.43,21.91,17.88,11.18,8.846,21.01,32.67,25.93,23.63,0,0,0,0,0,0,0,0,0,0,0,0,0,0,0,0,
377,13.75,12.84,18.38,13.28,29.36,26.99,19.04,11.03,28.29,19.09,15.08,8.917,21.64,31.14,24.5,27.67,0,0,0,0,0,0,0,0,0,0,0,0,0,0,0,0,
378,12.8,9.705,14.11,7.375,23.06,21.08,12.56,7.946,25.69,13.57,9.158,2.023,12.44,19.15,14.36,22.24,0,0,0,0,0,0,0,0,0,0,0,0,0,0,0,0,
379,10.82,9.596,3.249,4.637,18.05,14.33,6.566,6.41,13.69,3.117,-0.1861,-4.385,0.1612,7.33,5.242,14.39,0,0,0,0,0,0,0,0,0,0,0,0,0,0,0,0,
380,6.357,8.047,4.49,6.281,20.29,12.2,4.308,2.349,5.255,-4.133,-4.609,-7.545,-7.804,2.443,2.115,4.524,0,0,0,0,0,0,0,0,0,0,0,0,0,0,0,0,
381,5.104,6.755,10.42,8.106,20.46,14.32,1.927,0.1215,2.501,-4.842,-7.36,-9.529,-13.65,-0.9298,-1.243,-7.548,0,0,0,0,0,0,0,0,0,0,0,0,0,0,0,0,
382,5.966,9.449,6.137,10.28,14.78,16.92,1.02,3.98,0.4655,-1.796,-9.465,-10.0,-15.62,-3.298,-3.988,-10.28,0,0,0,0,0,0,0,0,0,0,0,0,0,0,0,0,
383,5.231,11.97,1.547,11.22,11.86,15.88,1.447,4.667,0.7297,-0.3844,-5.829,-9.663,-8.251,0.9313,2.491,-2.718,0,0,0,0,0,0,0,0,0,0,0,0,0,0,0,0,
384,4.876,10.38,6.595,9.469,14.11,12.59,2.754,0.9891,1.438,-1.96,-1.605,-7.973,-0.3287,9.143,8.839,0.0582,0,0,0,0,0,0,0,0,0,0,0,0,0,0,0,0,
385,4.339,6.995,8.312,8.095,13.69,12.23,4.662,0.9011,-1.181,-2.185,-2.128,-0.5858,2.046,18.18,8.991,2.974,0,0,0,0,0,0,0,0,0,0,0,0,0,0,0,0,
386,2.417,5.247,3.962,6.703,11.25,12.66,1.277,1.601,-0.9101,2.474,-0.5346,9.085,7.162,28.06,13.26,13.82,0,0,0,0,0,0,0,0,0,0,0,0,0,0,0,0,
387,2.697,4.774,8.274,5.657,11.94,9.931,-0.3624,1.51,2.979,8.912,3.411,11.88,12.59,32.7,17.63,17.27,0,0,0,0,0,0,0,0,0,0,0,0,0,0,0,0,
388,5.49,3.12,16.54,7.468,11.04,8.984,8.938,4.484,1.19,11.58,3.948,9.8,12.35,30.77,16.67,13.37,0,0,0,0,0,0,0,0,0,0,0,0,0,0,0,0,
389,5.748,0.6677,13.34,8.941,7.337,11.24,11.89,4.979,-1.8,10.39,2.443,9.072,11.32,26.86,14.39,12.9,0,0,0,0,0,0,0,0,0,0,0,0,0,0,0,0,
390,4.013,1.125,5.541,10.97,6.226,12.5,0.6556,2.123,-0.7089,7.614,-1.051,8.86,7.855,21.53,8.323,9.662,0,0,0,0,0,0,0,0,0,0,0,0,0,0,0,0,
391,6.754,5.235,9.002,14.62,8.363,17.06,-1.471,5.6,-2.495,7.162,-0.2734,10.95,5.788,21.54,7.611,7.092,0,0,0,0,0,0,0,0,0,0,0,0,0,0,0,0,
392,13.32,7.526,22.54,11.81,14.69,24.52,12.33,11.25,1.615,13.61,13.29,14.61,14.69,27.11,18.33,10.57,0,0,0,0,0,0,0,0,0,0,0,0,0,0,0,0,
393,17.38,6.321,29.99,8.568,20.92,24.21,20.62,8.255,14.24,17.24,21.03,9.669,15.39,19.15,16.01,4.432,0,0,0,0,0,0,0,0,0,0,0,0,0,0,0,0,
394,18.14,7.018,22.19,16.68,16.7,18.43,12.86,1.924,9.398,6.779,7.521,-1.671,-5.284,-2.348,-5.734,-13.92,0,0,0,0,0,0,0,0,0,0,0,0,0,0,0,0,
395,16.93,8.045,11.97,22.12,9.384,15.87,1.135,-1.491,-8.413,-5.912,-4.59,-6.33,-20.45,-14.31,-19.26,-23.84,0,0,0,0,0,0,0,0,0,0,0,0,0,0,0,0,
396,14.19,4.625,13.47,15.11,12.03,14.77,-0.8634,-4.704,-9.171,-10.13,-1.356,-6.733,-19.29,-15.07,-18.06,-20.0,0,0,0,0,0,0,0,0,0,0,0,0,0,0,0,0,
397,14.18,3.356,19.95,11.58,17.04,15.04,6.466,-5.467,-2.685,-13.13,3.207,-11.09,-19.08,-18.54,-16.76,-17.42,0,0,0,0,0,0,0,0,0,0,0,0,0,0,0,0,
398,17.88,9.213,22.59,16.53,17.52,18.71,12.87,-3.675,-5.415,-16.69,5.197,-15.8,-21.16,-24.67,-17.12,-20.49,0,0,0,0,0,0,0,0,0,0,0,0,0,0,0,0,
399,17.98,13.74,22.61,19.34,18.48,21.23,10.95,-5.153,-7.566,-17.44,6.128,-15.96,-22.8,-26.61,-16.94,-22.35,0,0,0,0,0,0,0,0,0,0,0,0,0,0,0,0,
400,11.34,10.39,16.44,17.01,15.02,18.32,4.39,-5.4,-13.35,-17.62,0.4283,-12.39,-28.91,-23.42,-16.64,-22.76,0,0,0,0,0,0,0,0,0,0,0,0,0,0,0,0,
401,4.345,2.927,4.023,11.51,3.078,10.23,1.66,-0.3794,-27.8,-16.79,-5.125,-7.941,-32.16,-17.48,-12.73,-20.51,0,0,0,0,0,0,0,0,0,0,0,0,0,0,0,0,
402,1.044,-4.364,-2.556,6.329,-3.452,2.828,1.056,1.879,-31.18,-13.33,-1.555,-3.766,-26.55,-9.46,-7.259,-12.95,0,0,0,0,0,0,0,0,0,0,0,0,0,0,0,0,
403,-1.224,-9.713,-3.036,5.014,0.2258,1.546,-2.404,1.347,-20.47,-8.812,3.889,2.647,-19.5,0.1034,-2.924,-4.437,0,0,0,0,0,0,0,0,0,0,0,0,0,0,0,0,
404,-3.906,-10.22,-6.356,4.25,-0.0044,1.837,-3.714,3.827,-14.26,-4.149,5.286,9.934,-14.18,7.417,3.262,2.053,0,0,0,0,0,0,0,0,0,0,0,0,0,0,0,0,
405,-5.275,-7.325,-6.201,1.511,-4.835,0.4047,-0.1124,4.55,-12.12,0.1039,5.962,13.06,-8.778,11.7,6.877,5.466,0,0,0,0,0,0,0,0,0,0,0,0,0,0,0,0,
406,-4.515,-6.555,1.457,0.9675,-2.546,1.706,3.679,2.96,-5.216,3.578,6.17,14.21,-5.158,15.9,4.908,6.078,0,0,0,0,0,0,0,0,0,0,0,0,0,0,0,0,
407,-2.231,-6.7,4.266,4.514,2.739,5.446,4.919,5.432,-0.0715,5.852,4.887,15.4,-4.416,17.03,3.486,7.245,0,0,0,0,0,0,0,0,0,0,0,0,0,0,0,0,
408,0.0259,-4.638,-0.5639,8.227,3.471,8.26,2.692,7.018,0.3062,5.54,4.44,12.11,-4.648,12.15,2.156,6.851,0,0,0,0,0,0,0,0,0,0,0,0,0,0,0,0,
409,2.591,-2.527,-2.639,8.72,5.341,10.93,0.4219,3.114,3.58,4.4,5.199,6.759,-5.136,6.46,-2.197,3.024,0,0,0,0,0,0,0,0,0,0,0,0,0,0,0,0,
410,8.024,-0.6336,0.4073,7.093,9.287,12.92,1.995,1.533,7.816,5.099,5.278,4.973,-7.295,3.137,-7.894,-1.927,0,0,0,0,0,0,0,0,0,0,0,0,0,0,0,0,
411,12.14,0.2969,2.668,5.392,9.992,11.3,3.28,3.921,5.885,4.338,5.46,3.719,-9.992,0.6636,-12.42,-7.568,0,0,0,0,0,0,0,0,0,0,0,0,0,0,0,0,
412,9.788,-1.898,1.336,4.175,10.32,7.734,4.658,3.708,3.262,-0.0743,7.383,2.311,-9.235,0.6365,-12.35,-10.21,0,0,0,0,0,0,0,0,0,0,0,0,0,0,0,0,
413,10.04,-1.578,1.86,5.35,14.18,8.631,10.35,1.772,7.155,-1.96,9.101,3.98,-5.521,2.998,-10.92,-7.922,0,0,0,0,0,0,0,0,0,0,0,0,0,0,0,0,
414,18.03,5.233,9.535,9.992,20.13,14.83,14.14,1.613,12.44,0.867,7.989,4.213,-4.625,1.736,-13.29,-6.632,0,0,0,0,0,0,0,0,0,0,0,0,0,0,0,0,
415,21.13,11.14,15.47,14.6,22.97,18.68,11.85,1.946,10.63,0.2558,4.599,-1.085,-10.23,-6.681,-15.1,-11.04,0,0,0,0,0,0,0,0,0,0,0,0,0,0,0,0,
416,16.8,10.4,10.38,14.9,18.22,16.39,6.705,1.807,1.145,-7.168,1.955,-7.274,-17.16,-16.13,-13.27,-17.18,0,0,0,0,0,0,0,0,0,0,0,0,0,0,0,0,
417,14.11,6.789,2.558,11.01,13.81,12.81,1.472,1.893,-5.316,-13.54,4.482,-7.733,-14.24,-14.5,-8.058,-14.29,0,0,0,0,0,0,0,0,0,0,0,0,0,0,0,0,
418,10.66,6.146,-1.269,8.118,16.08,12.05,2.291,2.453,2.333,-11.17,12.11,-1.093,-0.9874,-0.2385,0.6013,-5.17,0,0,0,0,0,0,0,0,0,0,0,0,0,0,0,0,
419,6.676,7.582,-3.377,8.616,15.27,11.54,6.521,2.468,16.63,-2.936,17.61,5.809,10.47,12.15,7.092,-3.512,0,0,0,0,0,0,0,0,0,0,0,0,0,0,0,0,
420,8.154,4.128,0.1303,6.888,11.26,7.854,2.421,1.766,23.52,1.7,17.68,8.491,14.72,16.08,8.162,-4.36,0,0,0,0,0,0,0,0,0,0,0,0,0,0,0,0,
421,9.01,-2.535,4.038,2.768,11.91,5.013,-2.55,3.291,25.64,2.985,16.95,11.94,15.3,20.66,8.435,0.0285,0,0,0,0,0,0,0,0,0,0,0,0,0,0,0,0,
422,4.785,-2.843,-3.231,3.082,9.409,6.187,3.56,6.602,28.74,8.044,18.03,16.43,14.73,26.73,10.13,2.905,0,0,0,0,0,0,0,0,0,0,0,0,0,0,0,0,
423,-0.7268,-2.326,-8.781,3.454,2.705,4.704,8.388,6.657,27.89,12.06,17.38,16.95,13.41,26.8,9.903,3.722,0,0,0,0,0,0,0,0,0,0,0,0,0,0,0,0,
424,-5.418,-10.16,-3.41,-0.9372,3.01,-0.5415,2.866,3.412,22.16,9.152,12.44,16.52,10.17,24.52,7.699,6.018,0,0,0,0,0,0,0,0,0,0,0,0,0,0,0,0,
425,-6.263,-14.78,-4.05,-2.373,5.198,-1.75,-0.4796,1.21,18.61,6.636,8.346,19.28,6.76,27.01,8.29,8.318,0,0,0,0,0,0,0,0,0,0,0,0,0,0,0,0,
426,-6.402,-11.41,-12.36,-1.571,2.04,-0.735,1.785,1.508,19.45,7.733,8.212,21.11,4.507,28.74,6.644,6.58,0,0,0,0,0,0,0,0,0,0,0,0,0,0,0,0,
427,-8.72,-12.59,-15.83,-3.9,0.643,-2.13,-0.3141,1.887,18.76,6.574,4.888,17.58,-2.182,21.56,-4.549,-2.007,0,0,0,0,0,0,0,0,0,0,0,0,0,0,0,0,
428,-3.961,-14.09,-14.99,-3.254,3.269,-0.8645,-2.59,0.4835,14.01,3.008,-1.025,12.7,-9.98,11.97,-16.01,-8.26,0,0,0,0,0,0,0,0,0,0,0,0,0,0,0,0,
429,5.201,-8.12,-11.49,0.2143,6.34,3.709,0.6493,0.3558,12.49,0.274,-2.178,9.24,-12.14,6.615,-24.41,-10.0,0,0,0,0,0,0,0,0,0,0,0,0,0,0,0,0,
430,6.631,-4.668,-9.577,2.024,9.435,6.116,-0.8941,1.917,14.58,-3.452,-3.761,1.934,-17.4,-1.825,-35.94,-19.33,0,0,0,0,0,0,0,0,0,0,0,0,0,0,0,0,
431,4.678,-6.146,-11.86,4.432,13.28,9.164,-1.897,0.5497,13.24,-7.137,-2.564,-3.081,-19.99,-6.94,-36.35,-26.82,0,0,0,0,0,0,0,0,0,0,0,0,0,0,0,0,
432,7.019,-5.939,-7.721,3.787,20.7,17.1,10.76,0.085,17.62,-1.321,12.18,3.115,-3.778,4.388,-19.71,-22.01,0,0,0,0,0,0,0,0,0,0,0,0,0,0,0,0,
433,12.83,-3.002,-6.059,2.869,25.11,23.43,15.87,4.468,30.39,12.17,20.22,3.679,7.364,10.57,-13.67,-24.31,0,0,0,0,0,0,0,0,0,0,0,0,0,0,0,0,
434,14.91,1.925,-21.44,10.7,15.79,20.76,1.87,4.513,25.66,13.6,6.331,-8.687,-7.545,-2.95,-24.87,-34.62,0,0,0,0,0,0,0,0,0,0,0,0,0,0,0,0,
435,9.158,4.558,-29.23,15.97,5.497,13.56,-4.448,-1.303,1.379,0.9772,-3.366,-12.12,-20.71,-8.609,-26.58,-30.21,0,0,0,0,0,0,0,0,0,0,0,0,0,0,0,0,
436,5.69,3.258,-23.07,11.18,3.573,9.765,-4.212,-2.915,-11.79,-4.961,-0.9781,-5.404,-20.54,-0.4533,-17.66,-19.04,0,0,0,0,0,0,0,0,0,0,0,0,0,0,0,0,
437,2.643,0.9087,-33.4,8.529,-1.764,8.739,-14.43,-1.206,-13.04,-1.32,-4.731,-1.583,-24.39,2.744,-15.84,-16.73,0,0,0,0,0,0,0,0,0,0,0,0,0,0,0,0,
438,-6.535,-4.467,-42.62,9.131,-3.269,7.151,-16.45,-0.5317,-18.7,0.1609,-7.174,4.346,-25.89,7.777,-15.51,-12.23,0,0,0,0,0,0,0,0,0,0,0,0,0,0,0,0,
439,-5.845,-10.77,-31.26,6.979,-0.4649,4.77,-10.88,1.288,-19.67,0.08,-1.593,9.402,-18.52,17.0,-12.8,-5.647,0,0,0,0,0,0,0,0,0,0,0,0,0,0,0,0,
440,-5.404,-14.43,-42.03,3.582,-13.29,1.036,-20.42,1.643,-11.52,0.9772,-0.8098,7.14,-13.93,18.23,-15.08,-7.04,0,0,0,0,0,0,0,0,0,0,0,0,0,0,0,0,
441,-23.06,-18.82,-65.77,-0.0562,-21.32,-3.553,-26.42,-0.5914,-6.58,0.4049,-1.712,7.233,-12.03,17.6,-16.03,-8.17,0,0,0,0,0,0,0,0,0,0,0,0,0,0,0,0,
442,-25.8,-21.48,-49.47,-1.716,-11.85,-6.804,-14.52,-1.39,-5.402,-1.146,0.5253,8.307,-11.47,17.37,-15.77,-9.567,0,0,0,0,0,0,0,0,0,0,0,0,0,0,0,0,
443,-9.167,-19.28,-25.58,-0.5593,-13.23,-7.519,-6.335,-2.046,-3.503,-4.175,-0.9237,3.018,-16.03,10.14,-21.22,-16.98,0,0,0,0,0,0,0,0,0,0,0,0,0,0,0,0,
444,-6.098,-15.99,-29.36,1.538,-13.68,-6.551,-6.533,-2.462,-3.473,-9.22,-2.583,-2.05,-20.66,1.051,-25.15,-21.51,0,0,0,0,0,0,0,0,0,0,0,0,0,0,0,0,
445,-4.78,-13.44,-32.54,4.349,-5.733,-6.367,-10.06,-3.185,-4.975,-14.28,-3.981,-6.617,-26.18,-9.035,-29.83,-28.27,0,0,0,0,0,0,0,0,0,0,0,0,0,0,0,0,
446,-3.034,-13.38,-34.81,4.475,-15.93,-5.608,-16.62,-8.251,-4.526,-19.45,-10.21,-14.12,-34.91,-21.75,-40.59,-42.81,0,0,0,0,0,0,0,0,0,0,0,0,0,0,0,0,
447,-15.32,-13.28,-40.71,2.891,-18.05,-2.545,-15.17,-9.656,-2.589,-24.7,-14.63,-18.54,-40.0,-29.11,-48.1,-51.51,0,0,0,0,0,0,0,0,0,0,0,0,0,0,0,0,
448,-13.22,-9.788,-32.78,3.532,0.4859,-2.579,-11.38,-7.311,-5.316,-29.54,-16.9,-19.86,-44.76,-31.25,-53.22,-55.21,0,0,0,0,0,0,0,0,0,0,0,0,0,0,0,0,
449,1.603,-11.73,-26.8,1.912,-0.8298,-6.255,-18.43,-13.74,-17.3,-33.26,-20.54,-20.54,-51.16,-29.37,-55.73,-58.41,0,0,0,0,0,0,0,0,0,0,0,0,0,0,0,0,
450,-0.7482,-17.32,-30.25,0.041,-12.51,-6.791,-21.34,-14.89,-27.9,-29.39,-16.07,-16.13,-44.8,-18.09,-44.79,-50.78,0,0,0,0,0,0,0,0,0,0,0,0,0,0,0,0,
451,-4.761,-13.1,-28.85,1.019,-14.63,-4.848,-11.87,-4.775,-20.86,-16.36,-6.133,-9.628,-27.07,-4.255,-30.4,-36.61,0,0,0,0,0,0,0,0,0,0,0,0,0,0,0,0,
452,-6.461,-12.31,-31.31,-3.19,-17.97,-4.181,-6.383,-8.012,-4.73,-6.292,-4.648,-8.039,-18.48,2.189,-27.13,-28.59,0,0,0,0,0,0,0,0,0,0,0,0,0,0,0,0,
453,-13.68,-28.02,-34.32,-5.786,-10.3,-5.624,-9.859,-12.74,-2.682,-6.022,-6.759,-8.025,-21.09,3.186,-26.37,-24.62,0,0,0,0,0,0,0,0,0,0,0,0,0,0,0,0,
454,-6.781,-33.73,-29.03,1.916,-0.1123,-10.62,-14.13,-3.592,-10.9,-9.204,-4.191,-4.833,-20.25,3.999,-19.77,-18.48,0,0,0,0,0,0,0,0,0,0,0,0,0,0,0,0,
455,0.4109,-17.62,-32.54,3.97,-10.85,-15.14,-16.51,-10.82,-10.91,-10.51,-1.42,-0.3596,-13.44,8.194,-13.31,-11.64,0,0,0,0,0,0,0,0,0,0,0,0,0,0,0,0,
456,-7.835,-9.822,-40.4,-2.459,-18.3,-14.36,-16.16,-24.15,-7.146,-8.832,1.202,2.2,-8.315,13.27,-9.684,-9.589,0,0,0,0,0,0,0,0,0,0,0,0,0,0,0,0,
457,-5.832,-17.0,-36.08,-1.98,-10.94,-12.89,-13.05,-8.628,-8.056,-6.696,4.602,1.532,-5.638,14.39,-4.71,-11.25,0,0,0,0,0,0,0,0,0,0,0,0,0,0,0,0,
458,-3.202,-18.97,-33.44,0.9928,-10.43,-13.75,-13.48,6.064,-6.907,-8.086,2.976,-0.1052,-2.51,14.87,-1.758,-11.55,0,0,0,0,0,0,0,0,0,0,0,0,0,0,0,0,
459,-14.59,-17.79,-36.77,0.5916,-13.65,-12.29,-17.25,-1.313,-2.479,-8.523,-1.129,-0.0995,-0.1998,16.89,-3.483,-10.53,0,0,0,0,0,0,0,0,0,0,0,0,0,0,0,0,
460,-9.312,-16.2,-32.36,4.072,-9.784,-7.956,-16.01,-3.516,0.5101,-4.123,-0.8247,-1.749,0.4801,16.05,-2.095,-10.7,0,0,0,0,0,0,0,0,0,0,0,0,0,0,0,0,
461,4.374,-8.565,-29.52,7.257,-5.688,-6.081,-15.04,-1.329,2.366,-2.921,-0.3449,-7.749,-0.1789,9.55,0.4065,-14.97,0,0,0,0,0,0,0,0,0,0,0,0,0,0,0,0,
462,-3.309,-6.636,-35.88,6.129,-5.782,-7.412,-18.23,-7.834,1.773,-9.764,-2.269,-13.95,-4.002,-2.625,-3.23,-20.97,0,0,0,0,0,0,0,0,0,0,0,0,0,0,0,0,
463,-6.268,-10.93,-33.85,8.106,-5.984,-7.383,-13.45,-11.89,-1.784,-21.11,-2.1,-18.03,-9.939,-14.91,-7.454,-23.83,0,0,0,0,0,0,0,0,0,0,0,0,0,0,0,0,
464,9.306,-7.921,-23.95,9.879,-4.588,-6.257,-6.801,-12.46,-4.683,-34.03,-2.288,-22.71,-13.91,-22.33,-10.03,-28.06,0,0,0,0,0,0,0,0,0,0,0,0,0,0,0,0,
465,11.76,-5.0,-24.96,6.13,-5.331,-7.514,-10.96,-16.2,-7.878,-43.71,-5.981,-27.33,-16.73,-29.38,-13.86,-34.42,0,0,0,0,0,0,0,0,0,0,0,0,0,0,0,0,
466,1.114,-7.102,-31.49,4.798,-9.088,-8.159,-13.39,-18.33,-15.11,-46.34,-10.03,-27.83,-21.88,-35.77,-17.32,-37.19,0,0,0,0,0,0,0,0,0,0,0,0,0,0,0,0,
467,2.353,-5.874,-32.53,6.845,-13.5,-5.529,-13.32,-16.68,-23.95,-43.87,-15.05,-25.25,-27.43,-36.25,-22.19,-39.44,0,0,0,0,0,0,0,0,0,0,0,0,0,0,0,0,
468,3.945,-6.746,-33.59,4.892,-17.3,-5.252,-23.29,-13.57,-28.63,-38.01,-21.36,-22.99,-29.37,-33.04,-27.05,-41.5,0,0,0,0,0,0,0,0,0,0,0,0,0,0,0,0,
469,-10.17,-14.68,-35.86,0.7421,-19.7,-10.3,-28.21,-10.31,-28.43,-30.18,-23.05,-18.63,-27.56,-24.99,-25.38,-38.14,0,0,0,0,0,0,0,0,0,0,0,0,0,0,0,0,
470,-16.22,-20.92,-37.52,-2.459,-23.02,-14.56,-17.51,-8.207,-26.96,-22.38,-18.68,-10.44,-23.14,-11.55,-19.35,-31.98,0,0,0,0,0,0,0,0,0,0,0,0,0,0,0,0,
471,-2.821,-21.56,-37.99,-5.926,-25.0,-13.91,-9.041,-5.633,-25.84,-14.32,-12.25,-2.437,-16.4,-1.823,-13.79,-26.29,0,0,0,0,0,0,0,0,0,0,0,0,0,0,0,0,
472,0.7165,-21.11,-31.44,-7.946,-19.9,-12.91,-7.525,-1.724,-23.64,-6.645,-5.172,3.734,-8.119,4.341,-8.428,-20.75,0,0,0,0,0,0,0,0,0,0,0,0,0,0,0,0,
473,-10.78,-22.48,-23.15,-8.828,-15.24,-15.68,-4.121,-0.1363,-19.35,-1.499,1.524,7.955,0.3461,12.27,-4.354,-16.64,0,0,0,0,0,0,0,0,0,0,0,0,0,0,0,0,
474,-12.1,-23.04,-23.13,-9.959,-15.86,-16.89,-1.995,-0.5237,-13.72,1.265,5.975,9.475,7.682,17.47,-2.632,-14.09,0,0,0,0,0,0,0,0,0,0,0,0,0,0,0,0,
475,-6.428,-21.27,-25.04,-7.224,-13.56,-10.92,-1.581,2.067,-7.246,3.579,8.971,11.2,13.4,19.8,0.2265,-11.56,0,0,0,0,0,0,0,0,0,0,0,0,0,0,0,0,
476,-9.382,-20.74,-26.9,-2.691,-12.66,-5.577,-0.0309,5.331,-1.752,5.56,10.9,12.53,17.1,21.47,5.216,-9.929,0,0,0,0,0,0,0,0,0,0,0,0,0,0,0,0,
477,-12.71,-21.37,-33.02,-3.574,-18.39,-8.093,-1.6,4.583,-0.9913,4.326,11.65,10.14,18.37,19.1,8.399,-9.739,0,0,0,0,0,0,0,0,0,0,0,0,0,0,0,0,
478,-7.434,-20.54,-30.09,-4.719,-17.28,-8.675,-0.9706,4.571,-2.407,0.1034,13.2,7.082,17.48,15.15,8.862,-8.64,0,0,0,0,0,0,0,0,0,0,0,0,0,0,0,0,
479,-1.198,-20.42,-17.77,-1.552,-9.366,-3.781,5.38,7.209,-2.08,-4.609,13.5,4.367,12.98,11.49,6.854,-8.84,0,0,0,0,0,0,0,0,0,0,0,0,0,0,0,0,
480,-2.069,-22.03,-20.68,-1.976,-10.62,-5.865,5.308,5.346,-6.782,-12.38,10.03,0.2226,5.677,5.577,4.088,-12.27,0,0,0,0,0,0,0,0,0,0,0,0,0,0,0,0,
481,-3.625,-20.91,-31.29,-3.556,-13.88,-11.0,1.472,0.4141,-17.16,-22.31,8.612,-2.44,1.89,0.6859,5.544,-12.82,0,0,0,0,0,0,0,0,0,0,0,0,0,0,0,0,
482,2.785,-14.14,-21.8,2.061,-5.175,-6.137,5.533,-0.2106,-19.13,-27.41,11.18,-4.137,2.981,-3.293,6.544,-11.93,0,0,0,0,0,0,0,0,0,0,0,0,0,0,0,0,
483,8.429,-8.235,-5.844,4.074,2.703,-1.876,10.83,-0.5378,-11.89,-29.47,10.98,-8.862,3.155,-11.87,0.3013,-16.78,0,0,0,0,0,0,0,0,0,0,0,0,0,0,0,0,
484,4.369,-11.62,-8.49,-4.649,-2.954,-8.589,10.1,-6.248,-11.07,-35.62,6.795,-17.12,-1.136,-24.96,-8.113,-24.85,0,0,0,0,0,0,0,0,0,0,0,0,0,0,0,0,
485,-2.999,-19.77,-22.19,-10.26,-12.21,-15.6,4.714,-10.95,-18.35,-44.74,3.872,-24.24,-6.344,-35.75,-12.56,-29.57,0,0,0,0,0,0,0,0,0,0,0,0,0,0,0,0,
486,-7.138,-24.5,-28.69,-9.63,-15.27,-18.66,0.8492,-9.242,-20.89,-48.93,5.821,-21.61,-4.649,-33.05,-8.975,-24.52,0,0,0,0,0,0,0,0,0,0,0,0,0,0,0,0,
487,-5.116,-26.67,-20.33,-11.12,-14.94,-21.97,5.269,-6.91,-16.93,-42.59,8.683,-13.6,1.236,-18.91,-2.781,-15.68,0,0,0,0,0,0,0,0,0,0,0,0,0,0,0,0,
488,-1.003,-26.28,-8.879,-9.274,-16.03,-21.2,6.74,-6.939,-14.82,-30.55,4.759,-12.6,0.1706,-9.775,-6.223,-16.65,0,0,0,0,0,0,0,0,0,0,0,0,0,0,0,0,
489,-4.83,-23.2,-12.52,-2.36,-18.11,-17.03,-1.15,-4.485,-14.6,-21.15,-1.177,-10.6,-3.076,-4.364,-9.795,-16.96,0,0,0,0,0,0,0,0,0,0,0,0,0,0,0,0,
490,-9.929,-23.31,-22.74,-1.228,-18.0,-17.26,-2.145,-0.3242,-12.86,-13.3,0.0374,0.071,1.702,6.345,-3.012,-8.209,0,0,0,0,0,0,0,0,0,0,0,0,0,0,0,0,
491,-7.882,-25.37,-23.48,-3.866,-16.61,-18.76,1.97,0.9964,-11.07,-4.86,3.065,7.131,8.91,14.78,2.944,-4.131,0,0,0,0,0,0,0,0,0,0,0,0,0,0,0,0,
492,-9.74,-23.03,-20.82,-2.279,-16.67,-16.07,-1.694,0.3841,-8.08,0.9663,2.292,9.231,13.49,19.64,7.016,-1.204,0,0,0,0,0,0,0,0,0,0,0,0,0,0,0,0,
493,-14.92,-19.42,-20.04,0.5155,-16.38,-12.88,-5.771,-0.0537,-4.021,4.53,2.212,13.56,17.2,26.61,13.23,6.757,0,0,0,0,0,0,0,0,0,0,0,0,0,0,0,0,
494,-9.723,-16.19,-16.29,2.38,-12.57,-10.42,-6.096,0.7184,-2.793,6.685,4.93,15.08,18.28,30.03,15.94,8.838,0,0,0,0,0,0,0,0,0,0,0,0,0,0,0,0,
495,0.2426,-10.1,-10.07,3.046,-6.088,-7.832,-3.275,1.999,-1.354,5.269,8.666,14.38,18.45,30.74,19.06,9.267,0,0,0,0,0,0,0,0,0,0,0,0,0,0,0,0,
496,3.207,-7.309,-5.593,1.151,-1.998,-7.958,6.186,0.8743,2.602,3.738,11.82,16.54,21.37,35.16,24.87,14.86,0,0,0,0,0,0,0,0,0,0,0,0,0,0,0,0,
497,1.193,-11.35,-6.38,1.578,-2.753,-8.215,10.63,-0.4214,4.198,6.872,13.51,16.82,24.26,37.03,26.95,17.68,0,0,0,0,0,0,0,0,0,0,0,0,0,0,0,0,
498,1.469,-13.62,-9.018,4.606,-3.435,-4.103,4.947,1.506,3.822,11.55,15.59,16.26,25.13,34.48,27.52,18.85,0,0,0,0,0,0,0,0,0,0,0,0,0,0,0,0,
499,7.287,-13.09,-5.149,3.456,-0.1549,0.2548,5.168,2.978,3.766,13.4,18.9,19.49,24.64,34.13,29.29,23.38,0,0,0,0,0,0,0,0,0,0,0,0,0,0,0,0,
500,11.71,-15.17,-1.27,0.2413,4.746,-0.136,10.53,2.251,2.549,11.19,21.41,19.7,23.27,32.27,29.11,25.66,0,0,0,0,0,0,0,0,0,0,0,0,0,0,0,0,
501,8.914,-17.93,-5.908,-0.4815,7.507,-3.491,9.431,2.051,4.579,5.779,23.26,14.85,24.42,26.19,28.16,23.1,0,0,0,0,0,0,0,0,0,0,0,0,0,0,0,0,
502,6.95,-19.73,-7.545,-0.2337,6.635,-5.131,8.923,1.316,11.45,3.265,25.21,12.95,26.84,23.19,28.98,20.97,0,0,0,0,0,0,0,0,0,0,0,0,0,0,0,0,
503,7.265,-20.26,-3.992,1.557,5.718,-3.553,14.34,-0.587,12.19,7.024,25.1,13.77,23.72,23.11,28.23,19.85,0,0,0,0,0,0,0,0,0,0,0,0,0,0,0,0,
504,2.68,-17.05,-6.556,5.087,7.164,-1.518,19.39,0.2313,6.115,11.76,24.08,13.48,19.67,22.67,24.31,18.22,0,0,0,0,0,0,0,0,0,0,0,0,0,0,0,0,
505,1.957,-14.34,-4.6,7.29,6.898,-0.4737,21.95,4.106,6.215,16.03,25.59,14.23,22.06,25.2,22.43,19.59,0,0,0,0,0,0,0,0,0,0,0,0,0,0,0,0,
506,9.116,-16.73,6.492,8.56,6.58,0.3895,20.82,6.826,9.972,21.2,26.6,15.98,23.82,28.99,23.72,22.46,0,0,0,0,0,0,0,0,0,0,0,0,0,0,0,0,
507,8.053,-18.54,8.638,10.23,10.31,1.623,18.96,8.452,9.289,24.08,26.96,18.1,23.79,31.15,27.94,25.25,0,0,0,0,0,0,0,0,0,0,0,0,0,0,0,0,
508,0.7766,-16.91,4.377,9.905,9.076,1.719,21.91,10.7,10.62,24.79,30.31,20.36,27.84,32.08,35.05,29.88,0,0,0,0,0,0,0,0,0,0,0,0,0,0,0,0,
509,0.2364,-17.94,-3.067,5.729,-0.4749,-4.311,18.82,9.3,10.86,21.13,29.08,17.45,26.69,26.98,33.35,28.4,0,0,0,0,0,0,0,0,0,0,0,0,0,0,0,0,
510,-3.554,-21.75,-19.13,0.1576,-3.355,-13.19,6.616,3.077,3.329,7.924,21.46,11.56,19.06,18.9,21.85,22.07,0,0,0,0,0,0,0,0,0,0,0,0,0,0,0,0,
511,-9.909,-21.18,-17.67,-2.164,2.529,-13.51,5.191,-0.5389,1.527,-4.752,19.28,11.65,18.61,17.51,17.08,21.31,0,0,0,0,0,0,0,0,0,0,0,0,0,0,0,0,
512,-0.3833,-16.08,2.275,-0.3496,2.41,-9.22,11.31,1.024,5.833,-5.75,19.95,13.81,19.46,17.76,18.33,18.56,0,0,0,0,0,0,0,0,0,0,0,0,0,0,0,0,
513,11.82,-13.48,0.9547,1.494,-2.129,-9.828,7.969,2.458,0.6956,-2.026,16.55,12.26,13.79,14.87,17.85,14.84,0,0,0,0,0,0,0,0,0,0,0,0,0,0,0,0,
514,4.87,-15.18,-11.17,2.045,-0.4435,-8.123,6.552,2.092,-5.964,0.1962,16.55,12.47,13.48,15.51,18.79,20.43,0,0,0,0,0,0,0,0,0,0,0,0,0,0,0,0,
515,-5.487,-14.75,-7.62,3.609,3.824,-1.577,9.885,2.414,-3.247,2.77,20.24,15.91,19.36,19.08,19.88,23.69,0,0,0,0,0,0,0,0,0,0,0,0,0,0,0,0,
516,-2.045,-8.991,-4.78,4.483,4.78,-0.0951,3.917,3.542,1.862,5.751,21.14,18.96,21.52,21.22,20.71,22.58,0,0,0,0,0,0,0,0,0,0,0,0,0,0,0,0,
517,2.55,-5.495,-9.015,2.681,0.5538,-2.355,0.6941,4.38,5.889,9.97,20.62,21.29,21.62,22.78,22.99,28.33,0,0,0,0,0,0,0,0,0,0,0,0,0,0,0,0,
518,-2.721,-10.92,-13.37,0.4231,-9.559,-3.801,7.356,5.15,5.665,13.7,17.89,20.11,20.03,21.65,21.4,31.38,0,0,0,0,0,0,0,0,0,0,0,0,0,0,0,0,
519,-10.15,-21.1,-20.07,-2.846,-17.39,-9.069,5.238,5.003,-2.77,12.11,11.24,15.33,13.32,16.76,14.96,26.0,0,0,0,0,0,0,0,0,0,0,0,0,0,0,0,0,
520,-14.1,-28.31,-26.74,-6.751,-17.47,-14.36,-3.569,3.729,-10.29,9.801,5.878,14.7,7.524,14.17,9.644,23.68,0,0,0,0,0,0,0,0,0,0,0,0,0,0,0,0,
521,-17.35,-28.13,-33.82,-6.112,-14.97,-11.42,-4.065,4.447,-10.14,13.23,5.355,18.61,7.763,16.19,8.897,25.71,0,0,0,0,0,0,0,0,0,0,0,0,0,0,0,0,
522,-18.66,-23.85,-33.52,-3.638,-11.05,-7.776,-0.0032,6.065,-8.778,15.2,6.052,17.33,8.587,14.8,8.81,23.61,0,0,0,0,0,0,0,0,0,0,0,0,0,0,0,0,
523,-14.74,-23.71,-19.09,-5.617,-7.055,-11.28,3.028,3.59,-11.53,8.34,4.056,8.642,5.86,5.693,5.467,16.56,0,0,0,0,0,0,0,0,0,0,0,0,0,0,0,0,
524,-8.722,-26.88,-15.13,-7.549,-9.646,-14.63,3.321,-0.034,-16.9,-1.014,1.45,1.344,1.985,-2.973,3.952,11.17,0,0,0,0,0,0,0,0,0,0,0,0,0,0,0,0,
525,-6.562,-26.78,-25.97,-5.17,-14.52,-13.51,0.288,0.2414,-21.46,-6.209,0.1555,1.321,-1.834,-6.159,4.252,9.496,0,0,0,0,0,0,0,0,0,0,0,0,0,0,0,0,
526,-7.25,-23.59,-25.2,-2.916,-11.5,-12.4,0.5554,1.166,-23.21,-8.942,-1.63,3.596,-5.473,-8.63,0.4751,7.682,0,0,0,0,0,0,0,0,0,0,0,0,0,0,0,0,
527,-5.21,-21.27,-23.75,-3.544,-7.042,-12.64,1.413,-0.2368,-23.15,-11.0,-3.231,0.9656,-8.208,-13.57,-5.314,3.49,0,0,0,0,0,0,0,0,0,0,0,0,0,0,0,0,
528,-5.796,-22.98,-37.21,-5.928,-13.27,-15.23,-6.698,-2.601,-25.96,-13.36,-6.352,-4.35,-12.3,-20.32,-12.13,-1.803,0,0,0,0,0,0,0,0,0,0,0,0,0,0,0,0,
529,-14.69,-27.63,-40.23,-9.263,-21.54,-20.86,-16.04,-4.608,-33.45,-16.72,-13.95,-6.024,-16.37,-24.91,-17.63,-3.865,0,0,0,0,0,0,0,0,0,0,0,0,0,0,0,0,
530,-20.55,-31.45,-31.92,-12.17,-21.39,-23.81,-16.81,-3.641,-36.63,-16.49,-18.22,-4.591,-13.12,-22.17,-15.14,-2.228,0,0,0,0,0,0,0,0,0,0,0,0,0,0,0,0,
531,-19.55,-33.01,-38.38,-12.16,-23.17,-21.25,-13.87,0.386,-29.08,-9.889,-13.39,-1.969,-3.655,-14.41,-9.119,0.7739,0,0,0,0,0,0,0,0,0,0,0,0,0,0,0,0,
532,-19.6,-29.85,-42.78,-8.12,-26.67,-17.6,-10.08,4.038,-19.49,-2.348,-6.932,3.311,2.98,-6.372,-4.578,7.314,0,0,0,0,0,0,0,0,0,0,0,0,0,0,0,0,
533,-16.48,-24.25,-29.39,-3.175,-19.57,-15.04,-4.941,7.293,-15.79,2.89,-4.613,7.835,4.316,0.1751,-0.7491,11.73,0,0,0,0,0,0,0,0,0,0,0,0,0,0,0,0,
534,-11.82,-23.53,-27.61,-2.341,-14.0,-14.28,-5.248,8.138,-15.55,6.491,-7.053,6.39,2.616,0.6733,-2.225,6.785,0,0,0,0,0,0,0,0,0,0,0,0,0,0,0,0,
535,-14.33,-24.54,-36.53,-5.643,-18.2,-16.99,-11.63,2.81,-16.16,5.229,-12.39,2.618,-0.1045,-4.236,-5.701,2.799,0,0,0,0,0,0,0,0,0,0,0,0,0,0,0,0,
536,-14.99,-23.45,-30.61,-6.921,-17.09,-19.27,-12.0,-1.753,-17.31,-0.0736,-13.54,2.399,-0.2604,-5.007,-2.454,5.995,0,0,0,0,0,0,0,0,0,0,0,0,0,0,0,0,
537,-11.16,-24.6,-27.62,-3.287,-15.21,-17.37,-6.107,0.8979,-20.01,-2.482,-10.88,4.553,0.6336,-1.426,0.0893,6.979,0,0,0,0,0,0,0,0,0,0,0,0,0,0,0,0,
538,-13.81,-26.09,-35.75,-0.7041,-22.32,-16.18,-7.189,4.505,-24.87,-2.984,-12.06,5.173,-2.72,-2.397,-5.379,3.782,0,0,0,0,0,0,0,0,0,0,0,0,0,0,0,0,
539,-16.17,-24.58,-31.88,-2.037,-21.94,-17.05,-11.8,4.471,-26.34,-6.164,-14.88,2.749,-7.648,-8.328,-11.25,2.362,0,0,0,0,0,0,0,0,0,0,0,0,0,0,0,0,
540,-10.04,-22.79,-23.34,-1.669,-12.84,-15.22,-10.29,2.071,-22.92,-11.25,-16.54,-1.224,-10.78,-14.84,-15.3,2.048,0,0,0,0,0,0,0,0,0,0,0,0,0,0,0,0,
541,-4.758,-21.13,-24.08,1.282,-12.54,-13.7,-9.416,-1.889,-23.24,-18.51,-19.92,-5.108,-15.08,-22.05,-20.5,-1.107,0,0,0,0,0,0,0,0,0,0,0,0,0,0,0,0,
542,-3.595,-17.94,-23.29,2.252,-12.7,-15.26,-8.988,-4.415,-27.07,-25.88,-20.79,-10.3,-19.72,-29.99,-21.5,-6.404,0,0,0,0,0,0,0,0,0,0,0,0,0,0,0,0,
543,-1.25,-14.25,-17.68,1.281,-3.515,-13.9,-3.852,-4.46,-27.24,-29.1,-17.92,-15.32,-22.25,-36.23,-19.77,-10.19,0,0,0,0,0,0,0,0,0,0,0,0,0,0,0,0,
544,0.842,-13.58,-17.44,0.8707,-2.59,-10.29,-4.86,-4.662,-28.87,-31.48,-20.02,-16.25,-25.83,-39.37,-23.46,-10.53,0,0,0,0,0,0,0,0,0,0,0,0,0,0,0,0,
545,-2.507,-16.48,-28.76,1.462,-15.71,-12.3,-13.34,-4.758,-38.42,-34.4,-29.16,-17.29,-33.49,-42.12,-29.09,-10.92,0,0,0,0,0,0,0,0,0,0,0,0,0,0,0,0,
546,-13.0,-19.85,-37.07,1.611,-25.63,-18.87,-18.54,-3.895,-50.89,-33.92,-37.43,-20.67,-40.33,-45.3,-29.64,-14.24,0,0,0,0,0,0,0,0,0,0,0,0,0,0,0,0,
547,-21.44,-22.29,-28.03,0.8127,-27.91,-21.62,-20.3,-1.997,-57.63,-30.19,-35.13,-17.98,-35.33,-41.72,-21.78,-11.16,0,0,0,0,0,0,0,0,0,0,0,0,0,0,0,0,
548,-17.27,-22.28,-26.17,0.9219,-30.52,-19.15,-17.88,0.7587,-54.31,-23.05,-24.15,-10.81,-21.11,-31.57,-10.33,0.0507,0,0,0,0,0,0,0,0,0,0,0,0,0,0,0,0,
549,-11.12,-21.44,-39.98,1.646,-30.19,-17.8,-12.23,1.46,-46.05,-14.36,-18.15,-8.459,-12.42,-24.96,-7.762,4.177,0,0,0,0,0,0,0,0,0,0,0,0,0,0,0,0,
550,-13.14,-21.56,-34.15,3.579,-21.17,-16.08,-8.782,1.446,-37.64,-8.341,-14.85,-6.269,-5.7,-19.45,-7.293,6.312,0,0,0,0,0,0,0,0,0,0,0,0,0,0,0,0,
551,-10.17,-15.66,-15.26,9.72,-12.46,-7.734,-2.811,5.568,-26.26,-0.2474,-4.266,1.02,6.46,-9.021,2.565,18.0,0,0,0,0,0,0,0,0,0,0,0,0,0,0,0,0,
552,-1.96,-7.099,-17.67,14.15,-12.78,-0.667,1.827,9.83,-16.73,10.29,2.008,7.549,11.92,-1.367,8.694,24.03,0,0,0,0,0,0,0,0,0,0,0,0,0,0,0,0,
553,-4.25,-7.836,-26.97,11.22,-16.27,-3.52,-4.704,9.269,-15.03,14.3,-4.185,10.48,8.047,-0.631,5.704,20.71,0,0,0,0,0,0,0,0,0,0,0,0,0,0,0,0,
554,-8.974,-10.98,-26.3,10.03,-18.7,-6.813,-9.707,8.769,-15.54,14.52,-11.07,10.91,5.238,-1.925,3.298,20.19,0,0,0,0,0,0,0,0,0,0,0,0,0,0,0,0,
555,-5.783,-9.308,-28.45,14.13,-19.89,-3.392,-5.102,10.1,-16.97,16.48,-13.6,9.442,2.079,-3.325,1.192,17.55,0,0,0,0,0,0,0,0,0,0,0,0,0,0,0,0,
556,-6.604,-9.444,-33.06,13.33,-16.56,-2.425,-4.575,7.845,-21.71,14.01,-17.07,7.489,-5.934,-6.956,-2.538,9.427,0,0,0,0,0,0,0,0,0,0,0,0,0,0,0,0,
557,-9.939,-11.17,-31.82,8.027,-15.4,-8.413,-10.76,3.757,-27.93,5.587,-23.04,4.366,-17.42,-15.22,-8.551,2.099,0,0,0,0,0,0,0,0,0,0,0,0,0,0,0,0,
558,-2.658,-9.879,-27.38,7.313,-19.74,-11.27,-14.3,2.897,-35.35,-1.793,-27.44,0.0994,-27.08,-24.09,-15.08,-0.8888,0,0,0,0,0,0,0,0,0,0,0,0,0,0,0,0,
559,5.453,-5.628,-23.98,9.4,-16.89,-6.604,-13.61,1.756,-38.34,-6.531,-28.03,-4.58,-30.68,-30.2,-16.76,-0.6041,0,0,0,0,0,0,0,0,0,0,0,0,0,0,0,0,
560,5.647,-0.9045,-23.29,9.946,-8.735,-3.418,-10.94,-1.575,-35.15,-11.35,-29.25,-10.84,-34.54,-39.18,-18.46,-5.473,0,0,0,0,0,0,0,0,0,0,0,0,0,0,0,0,
561,6.435,0.6928,-23.16,10.78,-6.904,-4.824,-9.172,-1.753,-37.22,-14.68,-32.11,-15.51,-41.19,-48.96,-22.98,-13.27,0,0,0,0,0,0,0,0,0,0,0,0,0,0,0,0,
562,2.846,-0.5599,-24.6,10.94,-8.347,-5.342,-11.88,0.7748,-44.32,-13.82,-34.45,-16.58,-44.31,-53.05,-26.82,-14.29,0,0,0,0,0,0,0,0,0,0,0,0,0,0,0,0,
563,-5.627,-2.868,-30.59,9.599,-13.47,-4.513,-16.96,1.406,-48.02,-11.35,-38.81,-18.67,-46.1,-56.51,-32.76,-15.5,0,0,0,0,0,0,0,0,0,0,0,0,0,0,0,0,
564,-2.409,-5.744,-35.34,10.45,-22.78,-4.564,-19.65,1.845,-49.65,-9.572,-42.04,-20.92,-47.1,-60.36,-36.54,-19.28,0,0,0,0,0,0,0,0,0,0,0,0,0,0,0,0,
565,-0.463,-8.731,-34.89,12.22,-24.27,-6.723,-18.73,3.767,-48.25,-7.366,-39.8,-18.56,-42.5,-58.96,-33.49,-16.58,0,0,0,0,0,0,0,0,0,0,0,0,0,0,0,0,
566,-10.39,-11.19,-30.0,11.76,-19.11,-8.988,-15.75,4.398,-43.56,-4.751,-37.62,-12.58,-36.39,-52.73,-30.96,-9.617,0,0,0,0,0,0,0,0,0,0,0,0,0,0,0,0,
567,-4.128,-8.976,-23.42,12.29,-17.41,-4.917,-14.9,4.286,-38.02,0.4696,-34.78,-4.492,-29.1,-41.43,-28.16,-1.901,0,0,0,0,0,0,0,0,0,0,0,0,0,0,0,0,
568,9.785,-4.207,-22.82,14.65,-15.13,1.436,-14.91,6.159,-26.34,9.643,-25.7,3.781,-17.27,-27.76,-19.9,6.716,0,0,0,0,0,0,0,0,0,0,0,0,0,0,0,0,
569,2.064,-4.203,-22.01,15.5,-9.919,1.056,-7.421,7.847,-12.72,15.76,-17.99,7.98,-8.984,-20.54,-13.34,9.812,0,0,0,0,0,0,0,0,0,0,0,0,0,0,0,0,
570,-4.101,-3.26,-12.99,15.77,-8.354,0.0235,1.278,7.216,-9.605,15.03,-18.65,8.387,-8.528,-19.98,-15.21,4.577,0,0,0,0,0,0,0,0,0,0,0,0,0,0,0,0,
571,1.858,0.4001,-12.52,16.23,-12.07,1.284,-2.149,6.286,-12.85,11.72,-20.38,8.956,-8.641,-20.74,-19.52,-0.2155,0,0,0,0,0,0,0,0,0,0,0,0,0,0,0,0,
572,-1.127,-1.988,-22.54,15.37,-15.14,-2.344,-8.829,5.304,-12.87,7.493,-17.49,10.39,-5.676,-21.52,-17.51,2.151,0,0,0,0,0,0,0,0,0,0,0,0,0,0,0,0,
573,-1.101,-2.983,-20.33,15.86,-9.534,-3.854,-4.702,4.327,-8.001,3.525,-12.73,8.813,-1.414,-22.88,-11.51,4.606,0,0,0,0,0,0,0,0,0,0,0,0,0,0,0,0,
574,6.934,3.128,-9.856,17.58,0.3627,1.377,4.4,4.381,-0.4513,-0.3777,-8.88,1.462,-0.4516,-28.49,-9.47,0.9515,0,0,0,0,0,0,0,0,0,0,0,0,0,0,0,0,
575,5.106,4.462,-9.686,14.27,0.9136,-0.1928,4.323,1.441,1.824,-9.851,-10.56,-7.5,-7.34,-39.65,-14.73,-3.71,0,0,0,0,0,0,0,0,0,0,0,0,0,0,0,0,
576,6.413,2.77,-15.4,8.959,-2.695,-6.41,-6.213,-4.692,-3.694,-20.68,-18.91,-14.14,-16.9,-49.5,-23.37,-7.327,0,0,0,0,0,0,0,0,0,0,0,0,0,0,0,0,
577,16.01,6.041,-17.76,10.12,1.533,-3.488,-9.775,-6.837,-9.241,-22.0,-22.5,-21.01,-20.89,-54.61,-25.65,-11.99,0,0,0,0,0,0,0,0,0,0,0,0,0,0,0,0,
578,11.54,5.218,-16.18,13.68,4.114,0.3836,-1.239,-5.869,-14.53,-19.15,-18.57,-28.95,-23.36,-60.39,-24.7,-19.11,0,0,0,0,0,0,0,0,0,0,0,0,0,0,0,0,
579,3.242,-1.029,-12.74,13.87,-3.564,-2.912,-1.402,-6.181,-23.55,-20.95,-21.81,-35.96,-31.81,-69.54,-32.95,-30.81,0,0,0,0,0,0,0,0,0,0,0,0,0,0,0,0,
580,7.812,-1.316,-14.0,13.64,-11.06,-4.666,-11.24,-4.965,-30.99,-22.26,-31.71,-40.35,-41.2,-75.37,-41.59,-39.86,0,0,0,0,0,0,0,0,0,0,0,0,0,0,0,0,
581,9.963,2.397,-18.49,14.11,-11.45,-3.785,-11.78,-1.858,-32.31,-19.56,-31.9,-37.77,-43.39,-71.59,-38.05,-36.9,0,0,0,0,0,0,0,0,0,0,0,0,0,0,0,0,
582,7.498,2.833,-19.14,14.89,-11.96,-3.405,-9.096,0.6291,-32.34,-15.48,-25.26,-28.39,-41.63,-63.06,-32.45,-28.83,0,0,0,0,0,0,0,0,0,0,0,0,0,0,0,0,
583,4.088,0.8624,-26.35,16.01,-17.84,-1.094,-14.53,2.805,-34.54,-10.76,-25.57,-18.18,-40.87,-55.97,-32.52,-24.57,0,0,0,0,0,0,0,0,0,0,0,0,0,0,0,0,
584,-8.293,-2.753,-42.12,15.5,-23.29,0.3146,-21.06,4.189,-33.82,-7.667,-28.49,-7.202,-37.78,-46.78,-29.99,-19.08,0,0,0,0,0,0,0,0,0,0,0,0,0,0,0,0,
585,-10.37,-5.723,-42.2,15.41,-24.27,0.0219,-24.84,5.42,-27.65,-6.046,-26.33,3.756,-31.38,-34.91,-21.96,-9.522,0,0,0,0,0,0,0,0,0,0,0,0,0,0,0,0,
586,5.846,-4.968,-26.0,17.32,-20.95,2.148,-22.0,7.537,-20.83,-1.664,-24.19,9.375,-24.59,-26.09,-15.74,-3.389,0,0,0,0,0,0,0,0,0,0,0,0,0,0,0,0,
587,10.64,-1.671,-17.2,18.44,-11.56,5.082,-10.01,8.434,-13.22,3.999,-21.94,11.96,-16.06,-19.61,-12.09,-0.1365,0,0,0,0,0,0,0,0,0,0,0,0,0,0,0,0,
588,8.549,4.62,-15.39,19.31,-7.093,7.711,-5.62,7.845,-3.687,6.543,-15.69,13.43,-8.409,-15.01,-7.54,4.052,0,0,0,0,0,0,0,0,0,0,0,0,0,0,0,0,
589,16.74,8.713,-10.77,17.85,-14.55,7.84,-14.04,5.803,0.1051,4.073,-12.78,10.33,-7.909,-17.0,-6.544,2.404,0,0,0,0,0,0,0,0,0,0,0,0,0,0,0,0,
590,14.46,1.484,-8.623,9.93,-15.3,-1.069,-17.15,0.1486,-4.188,-6.488,-15.85,5.018,-11.74,-24.44,-10.05,-3.928,0,0,0,0,0,0,0,0,0,0,0,0,0,0,0,0,
591,-0.3699,-8.505,-14.89,2.954,-11.29,-11.09,-16.16,-6.225,-8.95,-22.97,-17.18,-1.821,-14.91,-33.02,-13.09,-8.399,0,0,0,0,0,0,0,0,0,0,0,0,0,0,0,0,
592,-5.624,-8.024,-24.08,5.062,-19.61,-7.797,-19.74,-8.271,-9.59,-32.88,-13.86,-10.69,-15.87,-40.01,-14.73,-12.45,0,0,0,0,0,0,0,0,0,0,0,0,0,0,0,0,
593,1.221,-1.704,-21.4,9.922,-20.16,0.4521,-16.08,-7.851,-7.672,-31.02,-8.148,-13.71,-14.34,-41.82,-14.5,-11.41,0,0,0,0,0,0,0,0,0,0,0,0,0,0,0,0,
594,13.05,0.5013,-8.924,9.395,-5.77,-0.3204,-7.199,-8.631,-9.358,-27.87,-5.896,-11.76,-15.14,-39.09,-16.01,-6.572,0,0,0,0,0,0,0,0,0,0,0,0,0,0,0,0,
595,18.76,-2.098,-5.739,7.27,-2.924,-2.368,-6.657,-8.909,-15.67,-27.3,-10.01,-12.45,-18.5,-34.39,-20.64,-7.28,0,0,0,0,0,0,0,0,0,0,0,0,0,0,0,0,
596,13.53,-2.068,-6.15,9.332,-7.143,1.517,-7.292,-6.474,-18.21,-22.1,-13.85,-11.44,-18.68,-28.52,-20.6,-6.514,0,0,0,0,0,0,0,0,0,0,0,0,0,0,0,0,
597,9.951,2.92,-0.5961,12.46,-5.66,3.709,-6.603,-3.321,-16.34,-13.82,-15.13,-8.19,-17.75,-24.61,-18.8,-1.655,0,0,0,0,0,0,0,0,0,0,0,0,0,0,0,0,
598,10.53,4.058,-3.911,13.37,-6.912,4.539,-9.809,-1.297,-13.72,-6.942,-15.24,-8.134,-16.24,-22.37,-19.41,0.1561,0,0,0,0,0,0,0,0,0,0,0,0,0,0,0,0,
599,8.34,0.1736,-10.12,14.08,-5.085,9.175,-7.066,0.5519,-7.189,1.256,-13.15,-6.152,-12.84,-17.99,-16.35,2.659,0,0,0,0,0,0,0,0,0,0,0,0,0,0,0,0,
600,5.641,0.2611,-4.962,15.8,-0.2078,12.8,-0.9062,2.401,-1.957,10.09,-14.3,-2.658,-13.71,-13.95,-14.17,4.569,0,0,0,0,0,0,0,0,0,0,0,0,0,0,0,0,
601,3.9,4.277,-5.672,19.15,-5.067,14.32,-3.58,3.933,-4.056,16.75,-17.56,-4.829,-15.09,-12.83,-15.26,3.927,0,0,0,0,0,0,0,0,0,0,0,0,0,0,0,0,
602,2.492,5.259,-11.66,22.63,-7.907,16.34,-5.838,6.816,-5.037,20.66,-14.79,-5.852,-8.899,-10.99,-12.31,7.847,0,0,0,0,0,0,0,0,0,0,0,0,0,0,0,0,
603,3.218,2.55,-5.816,22.31,-3.694,15.44,-4.035,10.19,-0.7329,20.74,-11.45,-1.017,-2.419,-6.49,-7.796,13.58,0,0,0,0,0,0,0,0,0,0,0,0,0,0,0,0,
604,5.717,2.25,-6.422,19.77,-7.766,12.51,-5.778,9.841,4.047,19.25,-9.628,1.325,0.2499,-3.414,-2.964,16.85,0,0,0,0,0,0,0,0,0,0,0,0,0,0,0,0,
605,5.676,6.401,-18.52,18.03,-12.44,10.82,-2.483,6.616,6.186,16.52,-3.241,-0.3044,4.234,-5.48,3.631,18.81,0,0,0,0,0,0,0,0,0,0,0,0,0,0,0,0,
606,0.6561,9.148,-16.72,15.89,-7.456,8.727,4.38,4.495,3.811,10.29,1.147,-2.413,8.646,-9.51,7.56,18.04,0,0,0,0,0,0,0,0,0,0,0,0,0,0,0,0,
607,0.3087,10.61,-9.255,13.98,-4.097,7.59,1.251,3.056,1.76,6.588,1.356,-5.747,11.72,-10.6,10.19,17.03,0,0,0,0,0,0,0,0,0,0,0,0,0,0,0,0,
608,8.794,14.96,-12.93,13.44,-2.64,9.102,-0.3546,2.429,3.525,8.644,4.542,-9.038,13.51,-10.09,11.5,15.3,0,0,0,0,0,0,0,0,0,0,0,0,0,0,0,0,
609,10.13,15.85,-17.43,12.9,0.7729,9.514,5.672,3.49,1.046,9.779,6.278,-12.03,12.44,-11.62,8.11,9.293,0,0,0,0,0,0,0,0,0,0,0,0,0,0,0,0,
610,2.263,10.17,-20.81,12.08,-2.689,6.537,2.63,3.788,-6.107,9.357,4.983,-14.19,10.49,-13.7,6.338,6.356,0,0,0,0,0,0,0,0,0,0,0,0,0,0,0,0,
611,1.813,7.034,-23.14,10.89,-8.412,2.474,-2.687,4.594,-8.748,10.96,7.544,-9.764,11.51,-10.85,10.33,11.67,0,0,0,0,0,0,0,0,0,0,0,0,0,0,0,0,
612,6.734,7.655,-18.91,8.81,-5.348,0.0249,1.34,7.202,-5.636,12.56,9.356,-1.534,15.58,-3.615,13.29,16.49,0,0,0,0,0,0,0,0,0,0,0,0,0,0,0,0,
613,6.076,5.738,-16.66,7.356,0.7683,-1.006,-0.6802,7.627,1.95,13.87,6.442,1.081,19.63,0.7657,10.31,14.5,0,0,0,0,0,0,0,0,0,0,0,0,0,0,0,0,
614,1.583,3.039,-17.73,7.14,4.196,-1.881,-6.275,7.859,12.2,16.73,5.879,0.7955,21.42,2.215,6.48,12.3,0,0,0,0,0,0,0,0,0,0,0,0,0,0,0,0,
615,-4.437,1.635,-16.48,4.967,6.716,-2.601,2.09,10.56,17.9,18.44,8.139,3.594,22.5,5.033,7.973,14.31,0,0,0,0,0,0,0,0,0,0,0,0,0,0,0,0,
616,-5.824,-0.0878,-13.31,0.2777,8.244,-3.445,11.91,11.03,19.26,18.64,8.901,5.776,22.91,6.891,10.16,15.14,0,0,0,0,0,0,0,0,0,0,0,0,0,0,0,0,
617,4.111,-1.18,-3.273,-1.897,5.827,-4.335,9.318,10.59,21.36,20.15,6.749,4.016,17.67,5.73,6.478,13.96,0,0,0,0,0,0,0,0,0,0,0,0,0,0,0,0,
618,10.74,-3.407,2.138,-0.0543,-3.41,-4.061,2.738,12.24,18.68,18.61,-0.2387,0.9154,7.324,2.712,1.151,12.17,0,0,0,0,0,0,0,0,0,0,0,0,0,0,0,0,
619,4.235,-5.016,-9.149,2.873,-7.716,-1.226,-1.309,11.53,11.02,13.34,-4.001,-1.372,3.258,-1.119,3.294,8.233,0,0,0,0,0,0,0,0,0,0,0,0,0,0,0,0,
620,1.968,1.211,-12.61,6.085,3.625,3.841,1.184,8.82,11.25,12.67,3.872,-4.277,9.131,-4.49,12.14,6.264,0,0,0,0,0,0,0,0,0,0,0,0,0,0,0,0,
621,10.57,9.093,-1.722,8.828,11.41,7.442,8.935,6.759,16.86,10.57,9.938,-8.793,12.46,-10.09,15.63,6.168,0,0,0,0,0,0,0,0,0,0,0,0,0,0,0,0,
622,17.99,12.27,0.9968,10.93,9.203,9.304,8.938,4.139,16.07,-1.267,4.922,-12.78,7.022,-19.05,10.11,1.72,0,0,0,0,0,0,0,0,0,0,0,0,0,0,0,0,
623,19.8,17.76,1.195,13.95,16.47,12.53,2.784,3.828,13.18,-7.023,-0.307,-15.08,-0.7412,-24.59,2.874,-4.908,0,0,0,0,0,0,0,0,0,0,0,0,0,0,0,0,
624,18.29,22.65,4.874,16.52,22.1,15.38,4.458,6.803,8.697,2.324,-2.216,-14.1,-6.117,-22.03,-1.207,-6.504,0,0,0,0,0,0,0,0,0,0,0,0,0,0,0,0,
625,21.5,22.46,1.43,17.67,15.42,18.63,9.842,8.87,-1.516,13.85,-2.956,-7.536,-5.327,-12.86,1.577,-0.1015,0,0,0,0,0,0,0,0,0,0,0,0,0,0,0,0,
626,30.93,23.57,-1.439,18.48,16.94,23.22,7.606,10.0,-5.819,22.73,-0.4837,-0.6767,1.494,-1.872,6.808,7.362,0,0,0,0,0,0,0,0,0,0,0,0,0,0,0,0,
627,29.87,21.36,-3.599,17.37,16.23,20.26,0.0574,10.41,-2.987,29.34,2.27,1.434,7.866,5.91,7.997,9.434,0,0,0,0,0,0,0,0,0,0,0,0,0,0,0,0,
628,19.09,12.6,-15.61,14.38,1.331,12.35,-3.755,9.194,-2.25,30.61,6.024,3.767,14.33,11.77,12.24,11.77,0,0,0,0,0,0,0,0,0,0,0,0,0,0,0,0,
629,15.06,8.299,-24.26,12.97,1.444,12.99,-0.472,9.501,3.277,31.98,10.76,7.642,20.7,16.66,17.21,14.69,0,0,0,0,0,0,0,0,0,0,0,0,0,0,0,0,
630,11.38,8.117,-25.67,13.37,7.052,14.73,-0.119,11.75,9.595,34.64,6.944,8.254,19.98,15.93,13.91,14.34,0,0,0,0,0,0,0,0,0,0,0,0,0,0,0,0,
631,3.356,4.633,-33.59,13.07,-10.28,7.145,-10.63,12.87,4.668,31.56,-0.422,7.493,16.98,11.61,12.79,14.49,0,0,0,0,0,0,0,0,0,0,0,0,0,0,0,0,
632,0.5051,0.1679,-37.36,12.07,-19.57,1.567,-15.65,12.46,1.695,26.64,1.178,8.855,19.29,11.38,18.56,14.83,0,0,0,0,0,0,0,0,0,0,0,0,0,0,0,0,
633,-1.93,-1.599,-27.58,11.47,-6.645,2.955,-5.469,10.88,6.465,25.94,4.234,9.908,20.87,14.89,20.9,16.59,0,0,0,0,0,0,0,0,0,0,0,0,0,0,0,0,
634,-5.433,0.1206,-21.86,10.72,-3.682,3.235,-1.351,9.444,6.188,25.25,1.466,8.511,18.22,15.88,18.48,21.12,0,0,0,0,0,0,0,0,0,0,0,0,0,0,0,0,
635,-0.1077,3.234,-24.98,10.11,-8.09,2.859,-6.957,8.853,4.016,21.62,-0.7553,6.868,15.11,13.48,15.7,20.77,0,0,0,0,0,0,0,0,0,0,0,0,0,0,0,0,
636,7.272,4.572,-26.38,10.12,-4.17,2.674,-4.581,6.439,4.259,16.07,-1.746,6.685,10.92,10.78,12.83,17.13,0,0,0,0,0,0,0,0,0,0,0,0,0,0,0,0,
637,6.25,4.848,-27.5,8.84,-2.303,0.1982,-5.78,3.613,1.075,7.966,-5.3,3.491,3.615,4.537,5.595,12.37,0,0,0,0,0,0,0,0,0,0,0,0,0,0,0,0,
638,4.327,5.301,-26.45,8.175,-3.002,1.303,-16.86,3.827,-2.747,-1.283,-8.75,-5.059,-4.241,-7.691,-4.319,1.804,0,0,0,0,0,0,0,0,0,0,0,0,0,0,0,0,
639,8.965,6.344,-14.86,11.88,1.619,7.841,-11.93,4.09,-5.698,-5.88,-7.233,-9.755,-7.094,-15.42,-5.349,-3.853,0,0,0,0,0,0,0,0,0,0,0,0,0,0,0,0,
640,12.71,8.106,-3.266,14.7,8.543,10.11,1.95,3.077,-10.99,-3.399,-1.995,-7.006,-4.657,-13.2,1.388,0.6747,0,0,0,0,0,0,0,0,0,0,0,0,0,0,0,0,
641,7.13,7.945,-9.086,10.91,8.689,4.449,-3.896,3.179,-16.64,-0.8389,-1.203,-7.736,-4.077,-11.73,5.42,1.648,0,0,0,0,0,0,0,0,0,0,0,0,0,0,0,0,
642,-2.382,4.467,-25.56,5.194,-4.839,-1.51,-15.03,2.571,-24.3,-2.453,-5.037,-12.29,-5.55,-12.78,8.498,-0.4321,0,0,0,0,0,0,0,0,0,0,0,0,0,0,0,0,
643,-5.977,1.889,-30.97,3.26,-19.31,-1.376,-11.97,1.718,-33.85,-1.087,-2.527,-9.423,-1.553,-7.683,13.3,4.294,0,0,0,0,0,0,0,0,0,0,0,0,0,0,0,0,
644,-4.222,3.698,-23.81,4.556,-18.7,2.025,-7.431,4.19,-35.77,5.034,5.447,-2.632,5.926,-1.167,14.67,9.388,0,0,0,0,0,0,0,0,0,0,0,0,0,0,0,0,
645,-5.111,3.581,-22.44,5.128,-11.43,2.676,-8.621,6.69,-27.98,9.226,7.694,-1.427,8.828,0.0875,10.15,7.535,0,0,0,0,0,0,0,0,0,0,0,0,0,0,0,0,
646,-10.83,-3.318,-29.26,1.773,-9.749,-0.261,-9.528,5.375,-20.1,11.32,4.812,-2.451,6.106,1.071,3.898,5.988,0,0,0,0,0,0,0,0,0,0,0,0,0,0,0,0,
647,-13.99,-7.308,-31.73,-3.45,-15.42,-5.197,-10.8,3.504,-19.27,11.62,1.867,-1.788,2.025,3.497,0.7468,8.276,0,0,0,0,0,0,0,0,0,0,0,0,0,0,0,0,
648,-13.09,-4.113,-30.35,-4.447,-21.13,-7.207,-12.56,4.317,-20.78,9.237,-0.1952,-0.3034,4.284,7.522,0.8215,9.398,0,0,0,0,0,0,0,0,0,0,0,0,0,0,0,0,
649,-13.11,-1.825,-27.39,0.8513,-11.67,-0.0019,-9.922,6.625,-13.62,10.75,2.03,4.252,15.86,15.91,3.798,13.12,0,0,0,0,0,0,0,0,0,0,0,0,0,0,0,0,
650,-6.86,0.8811,-16.7,7.024,6.388,9.112,-3.473,8.264,0.5826,16.66,6.9,10.35,25.62,22.95,8.296,20.29,0,0,0,0,0,0,0,0,0,0,0,0,0,0,0,0,
651,5.519,5.877,-7.462,8.149,8.907,9.617,-1.349,8.292,10.14,19.26,7.882,10.41,25.57,23.48,8.179,19.84,0,0,0,0,0,0,0,0,0,0,0,0,0,0,0,0,
652,1.846,4.057,-16.78,4.235,-1.677,5.271,-7.771,4.831,11.74,15.78,4.675,2.436,20.44,17.69,0.3573,10.46,0,0,0,0,0,0,0,0,0,0,0,0,0,0,0,0,
653,-13.81,-2.368,-31.9,-0.4332,-5.389,0.4891,-13.28,-2.248,6.956,4.175,0.823,-7.131,13.37,4.729,-9.285,0.1368,0,0,0,0,0,0,0,0,0,0,0,0,0,0,0,0,
654,-8.453,0.13,-23.81,-0.5669,3.055,-1.418,-6.633,-6.061,1.039,-9.938,2.987,-11.87,9.09,-6.666,-8.918,-4.436,0,0,0,0,0,0,0,0,0,0,0,0,0,0,0,0,
655,13.96,11.32,-0.8958,4.431,14.63,5.14,5.202,-3.826,2.693,-13.23,12.22,-12.75,11.28,-9.876,0.8811,-1.914,0,0,0,0,0,0,0,0,0,0,0,0,0,0,0,0,
656,21.9,18.9,3.674,8.435,18.06,11.42,4.567,-3.87,4.322,-11.92,12.98,-15.68,6.564,-16.33,1.144,-4.07,0,0,0,0,0,0,0,0,0,0,0,0,0,0,0,0,
657,15.06,17.04,-7.832,7.569,10.88,6.869,-10.35,-9.169,-7.695,-19.7,-2.247,-23.68,-14.43,-30.68,-13.07,-17.04,0,0,0,0,0,0,0,0,0,0,0,0,0,0,0,0,
658,7.704,8.846,-15.24,3.201,-1.853,-2.392,-24.55,-14.03,-27.82,-30.74,-18.69,-33.93,-37.22,-44.07,-27.35,-30.28,0,0,0,0,0,0,0,0,0,0,0,0,0,0,0,0,
659,-0.7083,0.6739,-21.9,-1.49,-13.74,-10.06,-30.61,-16.61,-44.82,-37.37,-24.5,-39.55,-47.26,-50.97,-34.57,-36.64,0,0,0,0,0,0,0,0,0,0,0,0,0,0,0,0,
660,-6.374,-1.654,-26.63,-3.188,-17.52,-15.4,-31.75,-17.32,-53.64,-39.27,-21.37,-36.97,-46.48,-49.1,-35.61,-36.42,0,0,0,0,0,0,0,0,0,0,0,0,0,0,0,0,
661,-7.587,-1.158,-21.55,-4.5,-15.08,-18.36,-27.67,-16.17,-54.28,-36.27,-17.3,-31.6,-44.54,-43.84,-35.37,-34.42,0,0,0,0,0,0,0,0,0,0,0,0,0,0,0,0,
662,-14.12,-3.619,-18.63,-8.326,-14.66,-21.93,-22.15,-14.3,-55.04,-32.92,-18.81,-28.24,-45.22,-41.27,-36.83,-34.55,0,0,0,0,0,0,0,0,0,0,0,0,0,0,0,0,
663,-17.94,-4.743,-21.42,-8.791,-16.59,-24.47,-23.78,-10.7,-56.38,-29.7,-21.07,-24.11,-41.32,-34.71,-33.3,-30.38,0,0,0,0,0,0,0,0,0,0,0,0,0,0,0,0,
664,-11.24,-4.34,-19.38,-4.441,-19.06,-22.52,-25.6,-6.076,-50.52,-23.1,-17.42,-17.03,-29.6,-22.88,-24.4,-19.99,0,0,0,0,0,0,0,0,0,0,0,0,0,0,0,0,
665,-11.36,-7.285,-13.9,-1.073,-18.28,-18.62,-19.17,-4.085,-40.9,-17.07,-11.08,-9.508,-16.7,-12.78,-16.01,-12.02,0,0,0,0,0,0,0,0,0,0,0,0,0,0,0,0,
666,-12.68,-4.754,-5.498,1.808,-9.245,-12.85,-14.66,-3.313,-29.19,-10.75,-4.714,-4.37,-4.691,-2.883,-7.007,-8.618,0,0,0,0,0,0,0,0,0,0,0,0,0,0,0,0,
667,4.053,6.515,4.588,5.814,-1.134,-5.33,-13.64,-1.324,-12.42,-1.197,2.234,-1.674,7.674,6.234,2.36,-4.429,0,0,0,0,0,0,0,0,0,0,0,0,0,0,0,0,
668,16.86,13.81,8.399,8.775,1.178,-0.6662,-6.005,-0.7763,0.8726,3.059,7.245,-0.0241,16.79,9.188,8.958,1.303,0,0,0,0,0,0,0,0,0,0,0,0,0,0,0,0,
669,13.25,15.76,13.69,9.942,9.903,0.9111,1.188,-1.955,7.733,0.7729,9.171,-0.107,20.23,8.523,10.91,4.332,0,0,0,0,0,0,0,0,0,0,0,0,0,0,0,0,
670,15.53,17.93,21.97,8.19,19.1,1.86,0.5556,-2.353,12.97,-0.418,7.605,-1.844,18.64,7.083,5.707,4.92,0,0,0,0,0,0,0,0,0,0,0,0,0,0,0,0,
671,18.22,18.72,17.97,6.213,13.75,5.106,-0.9007,-3.026,12.96,-1.291,1.48,-3.121,13.57,3.113,-4.08,3.632,0,0,0,0,0,0,0,0,0,0,0,0,0,0,0,0,
672,12.39,20.82,13.74,10.34,9.454,14.03,-3.334,-3.661,9.963,-1.429,-3.523,-6.016,8.005,-2.706,-11.11,-2.941,0,0,0,0,0,0,0,0,0,0,0,0,0,0,0,0,
673,17.29,25.61,23.47,17.02,19.15,22.66,-8.067,-1.535,7.859,1.374,-4.244,-10.96,2.062,-8.36,-13.85,-9.255,0,0,0,0,0,0,0,0,0,0,0,0,0,0,0,0,T1
674,26.4,25.92,27.9,18.29,23.18,23.36,-7.934,0.9247,-0.3936,2.919,-8.579,-11.25,-5.388,-11.98,-16.18,-9.407,0,0,0,0,0,0,0,0,0,0,0,0,0,0,0,0,
675,22.86,20.59,24.48,14.95,13.7,19.44,-4.599,0.5154,-10.72,3.519,-15.11,-7.814,-10.02,-12.49,-14.82,-7.804,0,0,0,0,0,0,0,0,0,0,0,0,0,0,0,0,
676,16.45,15.91,24.57,11.0,7.354,14.4,-5.006,-0.7891,-13.46,4.809,-13.06,-8.513,-9.193,-11.86,-6.716,-5.505,0,0,0,0,0,0,0,0,0,0,0,0,0,0,0,0,
677,9.166,15.03,17.54,9.395,7.599,9.433,-6.829,-0.922,-13.27,3.854,-6.054,-9.638,-6.407,-10.67,-1.911,-2.567,0,0,0,0,0,0,0,0,0,0,0,0,0,0,0,0,
678,2.247,15.9,11.3,10.88,7.584,8.355,-5.521,0.4677,-12.15,4.2,-0.5584,-4.732,-2.18,-6.988,-1.26,1.132,0,0,0,0,0,0,0,0,0,0,0,0,0,0,0,0,
679,6.239,13.66,18.21,10.04,5.933,8.569,-1.939,2.177,-8.231,9.033,6.839,1.429,3.6,-1.48,5.314,9.883,0,0,0,0,0,0,0,0,0,0,0,0,0,0,0,0,
680,10.85,9.425,12.8,6.261,0.2394,6.984,1.862,2.062,-6.241,13.73,14.03,6.178,8.614,5.577,12.85,19.49,0,0,0,0,0,0,0,0,0,0,0,0,0,0,0,0,
681,9.025,11.34,-1.597,7.257,-1.477,8.99,6.398,2.579,-3.383,17.96,17.82,11.24,16.18,14.61,16.97,24.67,0,0,0,0,0,0,0,0,0,0,0,0,0,0,0,0,
682,10.24,17.78,10.63,11.22,11.42,13.62,11.39,5.919,5.404,23.2,21.53,12.54,26.38,20.75,20.88,26.42,0,0,0,0,0,0,0,0,0,0,0,0,0,0,0,0,
683,15.4,19.79,31.78,11.65,24.37,14.97,15.62,8.396,14.18,25.59,25.72,10.57,31.96,21.88,20.79,25.23,0,0,0,0,0,0,0,0,0,0,0,0,0,0,0,0,
684,26.36,21.58,30.81,13.14,27.05,16.91,19.63,9.246,21.47,24.76,30.27,11.21,34.05,22.53,19.0,24.91,0,0,0,0,0,0,0,0,0,0,0,0,0,0,0,0,
685,38.92,29.28,24.12,17.07,30.96,21.5,19.43,10.15,30.17,23.58,32.66,12.13,35.01,21.21,17.91,23.81,0,0,0,0,0,0,0,0,0,0,0,0,0,0,0,0,
686,39.96,35.48,25.51,18.07,34.67,24.21,13.55,10.33,33.86,21.11,28.24,12.07,31.98,16.65,13.67,19.39,0,0,0,0,0,0,0,0,0,0,0,0,0,0,0,0,
687,37.26,36.85,26.77,20.32,34.56,27.41,12.7,12.18,31.82,19.18,23.01,14.78,30.27,16.5,12.84,20.9,0,0,0,0,0,0,0,0,0,0,0,0,0,0,0,0,
688,37.88,37.33,24.46,24.41,35.93,32.03,16.96,15.36,31.12,22.23,21.16,16.14,30.06,19.02,15.82,25.27,0,0,0,0,0,0,0,0,0,0,0,0,0,0,0,0,
689,33.09,33.95,19.67,20.07,31.77,29.61,14.24,14.1,25.41,25.44,17.1,14.46,22.26,16.07,13.99,23.17,0,0,0,0,0,0,0,0,0,0,0,0,0,0,0,0,
690,25.76,26.42,16.43,10.03,24.75,18.88,9.385,11.39,10.98,22.73,13.77,15.98,12.59,13.46,11.26,21.54,0,0,0,0,0,0,0,0,0,0,0,0,0,0,0,0,
691,20.01,20.87,12.74,5.061,23.24,9.687,8.274,12.27,2.308,19.79,14.16,17.99,8.589,15.41,9.234,21.93,0,0,0,0,0,0,0,0,0,0,0,0,0,0,0,0,
692,16.24,17.57,1.918,3.989,16.44,8.812,0.8334,12.06,3.065,20.74,11.18,16.69,4.645,15.08,4.102,20.57,0,0,0,0,0,0,0,0,0,0,0,0,0,0,0,0,
693,18.4,15.31,-3.48,4.729,10.57,13.73,-9.062,10.58,5.439,22.35,6.3,17.27,1.937,13.49,0.9276,20.63,0,0,0,0,0,0,0,0,0,0,0,0,0,0,0,0,
694,15.22,14.37,4.787,7.602,14.9,15.73,-8.756,13.04,9.694,24.23,5.494,17.06,2.979,13.12,0.6743,17.87,0,0,0,0,0,0,0,0,0,0,0,0,0,0,0,0,
695,0.8802,9.216,5.166,6.259,8.315,9.684,-6.973,15.25,9.807,23.08,4.779,10.26,1.161,8.124,-2.969,9.836,0,0,0,0,0,0,0,0,0,0,0,0,0,0,0,0,
696,-7.407,-1.152,-10.25,-0.3709,-5.905,0.8484,-11.05,12.62,2.239,16.11,2.349,3.671,-1.964,0.3735,-7.696,6.14,0,0,0,0,0,0,0,0,0,0,0,0,0,0,0,0,
697,-7.705,-7.46,-18.75,-4.538,-6.441,-4.464,-9.241,9.743,1.402,11.29,3.303,1.872,-0.2971,-3.008,-4.468,8.981,0,0,0,0,0,0,0,0,0,0,0,0,0,0,0,0,
698,-10.86,-7.76,-14.23,-4.186,-4.372,-7.127,-3.15,9.868,7.372,10.18,6.833,-0.0569,3.212,-2.894,5.085,9.798,0,0,0,0,0,0,0,0,0,0,0,0,0,0,0,0,
699,-14.58,-8.627,-15.53,-2.501,-4.201,-8.43,-6.535,10.85,7.165,6.698,7.973,-2.608,5.687,-1.806,9.643,7.951,0,0,0,0,0,0,0,0,0,0,0,0,0,0,0,0,
700,-18.23,-10.07,-22.39,-0.6754,-0.0451,-6.268,-10.59,11.59,5.946,5.077,8.56,-3.161,7.82,-0.9283,8.089,9.525,0,0,0,0,0,0,0,0,0,0,0,0,0,0,0,0,
701,-20.45,-8.526,-18.32,1.084,-4.598,-1.431,-5.886,13.16,8.038,5.945,11.39,-2.139,8.868,-1.398,6.782,10.61,0,0,0,0,0,0,0,0,0,0,0,0,0,0,0,0,
702,-14.56,-4.973,-12.22,2.05,-10.21,1.793,-4.468,15.42,7.156,2.242,13.22,-0.1017,8.894,-2.035,5.666,6.386,0,0,0,0,0,0,0,0,0,0,0,0,0,0,0,0,
703,-6.544,-2.578,-14.65,2.017,-0.9092,3.362,-3.718,16.2,5.409,-1.526,13.01,0.5059,7.151,-4.46,2.665,2.051,0,0,0,0,0,0,0,0,0,0,0,0,0,0,0,0,
704,-0.7837,-1.555,-10.63,3.92,4.846,6.829,4.435,15.51,3.667,-0.7734,12.08,-1.976,2.852,-8.401,-1.511,-0.5631,0,0,0,0,0,0,0,0,0,0,0,0,0,0,0,0,
705,3.711,0.9197,-7.078,8.851,-1.484,10.54,4.547,16.17,0.8061,0.619,10.0,-3.035,1.192,-6.647,-3.672,-2.353,0,0,0,0,0,0,0,0,0,0,0,0,0,0,0,0,
706,-0.313,3.297,-16.91,11.45,-1.986,10.29,-2.308,17.43,3.224,4.157,8.272,-1.322,3.006,-1.944,-4.441,-2.639,0,0,0,0,0,0,0,0,0,0,0,0,0,0,0,0,
707,-4.49,3.437,-15.23,11.21,2.584,8.185,-2.586,17.51,7.252,8.416,4.866,0.0721,0.9309,-1.803,-8.158,-2.221,0,0,0,0,0,0,0,0,0,0,0,0,0,0,0,0,
708,-4.741,2.848,-9.508,11.91,1.268,8.684,-7.843,19.88,7.228,9.663,-0.6409,5.003,0.1749,2.784,-8.47,3.359,0,0,0,0,0,0,0,0,0,0,0,0,0,0,0,0,
709,-21.28,-3.434,-29.47,9.854,-2.938,11.39,-13.3,24.17,11.91,16.31,1.787,14.74,8.944,15.3,-1.561,12.74,0,0,0,0,0,0,0,0,0,0,0,0,0,0,0,0,
710,-30.98,-11.91,-34.27,5.472,-4.013,12.86,-1.341,23.47,18.07,27.43,9.182,19.78,13.59,19.89,0.5846,15.54,0,0,0,0,0,0,0,0,0,0,0,0,0,0,0,0,
711,-1.878,-5.986,1.412,4.981,1.969,11.78,8.075,19.18,15.19,27.92,7.355,17.93,6.963,14.24,-2.644,13.53,0,0,0,0,0,0,0,0,0,0,0,0,0,0,0,0,
712,21.47,5.584,24.68,3.42,10.42,10.51,5.519,16.99,12.95,20.86,4.779,16.71,4.947,10.77,-0.0169,13.05,0,0,0,0,0,0,0,0,0,0,0,0,0,0,0,0,
713,14.3,5.064,23.18,-2.679,11.79,10.17,13.95,14.51,15.27,18.11,12.08,17.11,9.509,10.54,5.72,14.54,0,0,0,0,0,0,0,0,0,0,0,0,0,0,0,0,
714,16.57,4.543,30.51,-6.337,14.98,7.817,28.58,11.52,13.7,15.6,17.59,16.71,10.15,11.42,8.848,19.44,0,0,0,0,0,0,0,0,0,0,0,0,0,0,0,0,
715,25.77,8.331,42.38,-9.783,26.79,3.024,30.97,11.5,14.37,9.338,18.04,16.67,11.16,14.35,13.07,23.94,0,0,0,0,0,0,0,0,0,0,0,0,0,0,0,0,
716,19.96,3.529,44.55,-16.93,30.53,-0.2181,26.92,11.16,20.14,4.084,20.47,15.97,14.98,14.46,16.15,21.87,0,0,0,0,0,0,0,0,0,0,0,0,0,0,0,0,
717,18.63,0.2395,42.5,-18.5,27.15,0.0859,24.95,9.012,22.54,1.404,19.88,12.57,14.26,11.09,10.33,15.13,0,0,0,0,0,0,0,0,0,0,0,0,0,0,0,0,
718,24.87,7.4,44.11,-13.32,32.94,1.518,27.32,7.969,21.79,-0.1074,16.01,9.363,10.33,9.078,1.186,9.158,0,0,0,0,0,0,0,0,0,0,0,0,0,0,0,0,
719,21.24,10.35,47.18,-12.57,35.22,0.3924,30.01,6.856,15.87,-1.178,16.37,9.036,7.589,7.284,-0.8002,5.58,0,0,0,0,0,0,0,0,0,0,0,0,0,0,0,0,
720,13.61,7.578,37.88,-14.82,24.67,-1.943,23.07,6.391,4.92,-1.308,15.67,9.662,4.42,6.09,-1.478,0.4142,0,0,0,0,0,0,0,0,0,0,0,0,0,0,0,0,
721,12.73,10.0,24.15,-12.2,20.08,-0.3529,12.92,8.56,1.912,1.267,8.989,10.73,1.827,8.693,-8.35,-4.565,0,0,0,0,0,0,0,0,0,0,0,0,0,0,0,0,
722,17.17,12.47,28.54,-10.29,23.46,3.055,12.36,9.525,5.441,5.789,4.872,12.59,3.507,10.93,-11.86,-1.201,0,0,0,0,0,0,0,0,0,0,0,0,0,0,0,0,
723,20.17,8.65,37.12,-13.85,21.48,2.163,16.0,7.588,6.323,8.383,6.883,11.71,8.233,10.28,-4.535,7.352,0,0,0,0,0,0,0,0,0,0,0,0,0,0,0,0,
724,16.36,5.197,30.25,-15.24,17.57,-0.301,16.0,5.714,9.51,6.669,8.169,10.13,12.17,12.57,4.359,13.86,0,0,0,0,0,0,0,0,0,0,0,0,0,0,0,0,
725,10.37,6.566,23.54,-11.18,18.52,2.619,13.8,6.215,15.54,5.37,6.901,13.81,14.38,18.24,6.525,18.47,0,0,0,0,0,0,0,0,0,0,0,0,0,0,0,0,
726,9.92,10.18,31.04,-7.271,24.07,9.612,13.04,9.209,20.17,9.659,6.069,15.52,13.57,18.3,3.925,18.16,0,0,0,0,0,0,0,0,0,0,0,0,0,0,0,0,
727,14.6,10.84,41.64,-7.165,30.04,12.25,16.03,10.1,23.7,11.53,3.877,9.538,9.414,11.88,-1.577,12.89,0,0,0,0,0,0,0,0,0,0,0,0,0,0,0,0,
728,18.73,5.88,41.62,-10.26,29.53,8.534,18.9,6.778,24.77,5.356,1.631,7.977,9.866,11.81,-3.836,13.49,0,0,0,0,0,0,0,0,0,0,0,0,0,0,0,0,
729,18.33,4.107,37.97,-13.15,26.82,6.037,18.88,5.116,27.39,2.717,5.661,13.76,17.12,19.73,3.586,18.86,0,0,0,0,0,0,0,0,0,0,0,0,0,0,0,0,
730,15.62,10.46,43.54,-13.13,28.34,6.361,18.82,6.804,30.91,6.632,9.906,14.04,18.44,19.78,6.117,13.98,0,0,0,0,0,0,0,0,0,0,0,0,0,0,0,0,
731,15.02,12.56,47.6,-11.92,26.51,4.298,16.35,7.561,26.64,6.871,5.069,9.471,11.55,11.07,-5.58,3.731,0,0,0,0,0,0,0,0,0,0,0,0,0,0,0,0,
732,16.14,7.741,43.14,-11.48,22.07,2.514,12.71,7.37,22.45,5.747,0.0553,9.532,7.785,9.137,-12.92,2.773,0,0,0,0,0,0,0,0,0,0,0,0,0,0,0,0,
733,16.74,7.848,44.5,-11.11,24.7,5.202,15.13,8.285,23.93,9.099,2.116,11.83,6.744,13.9,-11.41,2.627,0,0,0,0,0,0,0,0,0,0,0,0,0,0,0,0,
734,16.08,10.2,45.84,-10.84,27.61,7.767,16.97,8.822,18.86,11.62,2.839,12.16,3.99,16.32,-12.73,-1.526,0,0,0,0,0,0,0,0,0,0,0,0,0,0,0,0,
735,14.33,6.836,34.81,-12.33,23.48,6.776,12.82,7.518,10.51,11.14,1.605,13.41,4.555,18.88,-11.62,1.913,0,0,0,0,0,0,0,0,0,0,0,0,0,0,0,0,
736,14.39,5.205,28.05,-14.03,19.22,5.505,13.56,7.632,10.03,12.13,4.215,15.08,8.792,22.46,-5.758,7.656,0,0,0,0,0,0,0,0,0,0,0,0,0,0,0,0,
737,15.78,9.727,31.03,-12.96,16.59,5.843,16.24,10.62,10.29,14.21,4.441,13.08,10.33,21.26,-4.067,6.057,0,0,0,0,0,0,0,0,0,0,0,0,0,0,0,0,
738,11.65,11.13,28.36,-12.2,13.11,6.059,8.6,10.37,7.183,13.07,-0.101,10.05,9.114,17.54,-5.111,3.292,0,0,0,0,0,0,0,0,0,0,0,0,0,0,0,0,
739,6.037,8.136,25.36,-13.63,13.11,6.227,3.83,5.478,8.069,10.2,0.4589,9.998,9.817,16.97,-3.051,4.448,0,0,0,0,0,0,0,0,0,0,0,0,0,0,0,0,
740,8.453,9.047,29.51,-13.54,16.09,6.205,13.31,2.434,12.15,10.5,6.013,9.774,12.81,18.12,2.643,9.43,0,0,0,0,0,0,0,0,0,0,0,0,0,0,0,0,
741,9.043,10.24,28.6,-14.69,14.8,3.092,18.94,1.831,14.18,11.28,9.65,8.426,15.16,19.7,9.22,13.42,0,0,0,0,0,0,0,0,0,0,0,0,0,0,0,0,
742,1.419,6.528,24.11,-19.29,11.5,-0.5335,14.75,1.276,16.31,9.345,13.29,8.93,15.16,21.46,11.68,11.43,0,0,0,0,0,0,0,0,0,0,0,0,0,0,0,0,
743,-0.2153,6.074,27.99,-20.3,13.5,0.7336,18.03,2.524,17.37,8.376,14.5,9.357,11.69,20.35,8.225,9.747,0,0,0,0,0,0,0,0,0,0,0,0,0,0,0,0,
744,4.171,9.021,32.79,-17.09,14.87,4.128,27.63,4.976,12.42,9.146,9.037,9.332,7.331,19.25,4.245,12.72,0,0,0,0,0,0,0,0,0,0,0,0,0,0,0,0,
745,3.631,8.134,31.29,-14.48,9.523,5.767,28.7,6.381,8.616,9.803,5.233,10.82,6.01,21.61,3.326,14.24,0,0,0,0,0,0,0,0,0,0,0,0,0,0,0,0,
746,4.097,8.995,30.4,-11.52,9.185,6.876,22.42,7.198,10.85,9.863,6.82,11.36,5.289,22.06,1.54,11.73,0,0,0,0,0,0,0,0,0,0,0,0,0,0,0,0,
747,9.89,13.46,30.24,-9.037,17.72,7.822,18.55,7.776,11.24,9.421,9.09,12.68,5.904,22.04,1.289,10.76,0,0,0,0,0,0,0,0,0,0,0,0,0,0,0,0,
748,12.25,13.05,26.33,-9.863,20.07,7.39,17.37,7.53,10.96,11.91,9.957,16.14,9.177,25.01,3.861,11.97,0,0,0,0,0,0,0,0,0,0,0,0,0,0,0,0,
749,7.715,9.285,22.21,-12.33,15.69,4.404,10.64,6.099,11.16,13.63,4.854,14.22,5.856,21.95,-2.11,7.88,0,0,0,0,0,0,0,0,0,0,0,0,0,0,0,0,
750,4.481,9.057,21.33,-14.02,15.62,0.7961,2.45,4.325,4.713,7.359,0.0248,8.886,0.1923,15.15,-8.709,4.37,0,0,0,0,0,0,0,0,0,0,0,0,0,0,0,0,
751,8.445,12.39,22.8,-13.95,16.79,1.026,6.415,3.732,1.307,2.755,7.14,8.731,5.958,15.83,-0.9953,10.38,0,0,0,0,0,0,0,0,0,0,0,0,0,0,0,0,
752,10.59,15.25,25.32,-13.71,15.39,2.313,11.73,3.28,8.332,5.887,13.0,8.925,12.38,16.3,4.627,13.13,0,0,0,0,0,0,0,0,0,0,0,0,0,0,0,0,
753,5.501,13.08,24.2,-15.94,11.62,-0.6094,3.641,1.266,10.93,4.785,7.464,6.114,10.08,12.44,0.8651,8.397,0,0,0,0,0,0,0,0,0,0,0,0,0,0,0,0,
754,2.421,7.147,14.14,-17.94,3.543,-3.482,-1.125,-0.2543,5.937,-0.6934,4.174,5.466,9.55,13.48,0.7744,7.924,0,0,0,0,0,0,0,0,0,0,0,0,0,0,0,0,
755,1.185,4.886,5.749,-16.09,1.314,-1.907,4.446,0.6736,4.059,-1.209,4.826,4.489,9.47,13.84,-0.3031,7.725,0,0,0,0,0,0,0,0,0,0,0,0,0,0,0,0,
756,-2.096,7.616,12.37,-13.99,8.209,-0.5489,2.688,0.8252,5.208,-1.133,3.057,1.276,4.417,6.722,-3.266,3.58,0,0,0,0,0,0,0,0,0,0,0,0,0,0,0,0,
757,-0.5473,9.113,16.71,-15.93,7.454,-3.17,-2.559,-2.695,4.303,-5.657,3.851,0.6953,1.389,2.568,1.805,3.612,0,0,0,0,0,0,0,0,0,0,0,0,0,0,0,0,
758,3.405,8.5,5.213,-19.09,1.945,-6.783,1.338,-6.527,-0.2979,-9.675,6.482,1.092,0.8743,6.047,7.648,7.868,0,0,0,0,0,0,0,0,0,0,0,0,0,0,0,0,
759,3.124,10.15,3.483,-19.05,5.578,-8.345,4.427,-7.112,-4.238,-8.635,5.32,-0.1249,-0.9722,10.0,4.68,8.574,0,0,0,0,0,0,0,0,0,0,0,0,0,0,0,0,
760,2.797,12.83,16.78,-16.23,8.392,-7.388,1.915,-6.359,-1.921,-5.531,2.162,1.077,-1.009,11.94,-1.146,5.106,0,0,0,0,0,0,0,0,0,0,0,0,0,0,0,0,
761,2.422,14.73,17.5,-13.27,5.729,-4.569,2.394,-6.792,0.5961,-5.234,0.4078,4.76,0.8558,13.75,-1.341,4.939,0,0,0,0,0,0,0,0,0,0,0,0,0,0,0,0,
762,-0.5457,17.79,9.592,-11.81,5.399,-3.127,3.34,-7.817,-2.883,-5.484,0.3789,7.217,0.4683,14.6,-0.2493,5.803,0,0,0,0,0,0,0,0,0,0,0,0,0,0,0,0,
763,-1.968,18.48,9.256,-11.65,1.67,-4.497,1.273,-8.334,-6.805,-3.553,0.5031,8.777,-0.7536,13.34,-3.576,1.328,0,0,0,0,0,0,0,0,0,0,0,0,0,0,0,0,
764,-2.183,14.26,7.532,-10.76,-4.83,-4.764,1.558,-7.782,-7.995,-2.964,0.8318,10.06,1.074,11.11,-3.359,0.1678,0,0,0,0,0,0,0,0,0,0,0,0,0,0,0,0,
765,-4.864,11.94,3.744,-8.76,-3.216,-3.208,2.025,-5.757,-7.831,-3.184,1.15,8.976,2.312,7.748,-0.2561,1.688,0,0,0,0,0,0,0,0,0,0,0,0,0,0,0,0,
766,-7.142,14.77,5.843,-7.262,0.1013,-3.447,-0.8138,-3.956,-6.627,-2.314,-1.095,5.102,-1.299,3.264,-2.667,-2.952,0,0,0,0,0,0,0,0,0,0,0,0,0,0,0,0,
767,-4.758,18.45,9.325,-4.809,-2.2,-2.991,-0.3149,-3.378,-7.348,-3.529,-1.296,2.767,-3.444,1.739,-2.221,-3.358,0,0,0,0,0,0,0,0,0,0,0,0,0,0,0,0,
768,1.73,21.81,13.71,0.7752,0.5429,3.632,5.475,-0.7062,-6.476,-3.396,5.459,4.433,0.1222,2.936,3.204,0.8639,0,0,0,0,0,0,0,0,0,0,0,0,0,0,0,0,
769,6.96,25.98,16.93,4.57,8.612,10.82,7.283,3.05,1.697,0.951,8.272,3.651,1.482,0.9627,0.6063,-3.837,0,0,0,0,0,0,0,0,0,0,0,0,0,0,0,0,
770,4.554,27.24,7.124,1.791,5.04,9.328,-0.8152,1.637,4.895,1.164,-1.052,-2.614,-3.803,-2.363,-9.463,-10.75,0,0,0,0,0,0,0,0,0,0,0,0,0,0,0,0,
771,-2.514,23.11,-7.021,-1.528,-5.27,5.977,-9.71,-2.326,-3.765,-2.017,-10.04,-6.171,-8.723,-2.095,-15.43,-11.65,0,0,0,0,0,0,0,0,0,0,0,0,0,0,0,0,
772,-4.189,19.33,-4.276,-1.485,-1.822,8.789,-8.032,-2.322,-7.886,-0.2587,-8.605,-4.519,-8.194,-1.202,-13.93,-12.49,0,0,0,0,0,0,0,0,0,0,0,0,0,0,0,0,
773,-0.3788,18.08,6.552,-3.993,5.386,8.485,-1.036,-0.8623,-3.563,2.232,-2.884,-2.532,-5.051,-0.636,-11.0,-14.25,0,0,0,0,0,0,0,0,0,0,0,0,0,0,0,0,
774,2.178,15.31,6.498,-8.127,-0.1192,2.223,3.662,-1.422,-0.7113,2.121,2.087,0.017,-1.957,2.159,-8.84,-12.18,0,0,0,0,0,0,0,0,0,0,0,0,0,0,0,0,
775,1.339,13.05,2.655,-9.513,-5.27,-1.886,6.127,-3.347,1.852,1.686,5.402,2.225,0.6703,4.144,-2.84,-6.136,0,0,0,0,0,0,0,0,0,0,0,0,0,0,0,0,
776,-2.294,10.93,4.718,-12.73,-2.636,-6.2,2.85,-6.541,2.488,-1.981,5.354,2.777,3.707,5.657,6.153,0.3605,0,0,0,0,0,0,0,0,0,0,0,0,0,0,0,0,
777,-3.247,5.411,9.947,-17.68,0.2637,-10.82,-0.5032,-9.367,0.3772,-5.08,6.593,6.95,9.547,10.92,14.74,7.271,0,0,0,0,0,0,0,0,0,0,0,0,0,0,0,0,
778,-1.252,1.759,14.67,-19.83,2.747,-11.45,4.665,-9.707,3.751,-3.674,11.28,14.07,13.68,15.66,20.61,14.91,0,0,0,0,0,0,0,0,0,0,0,0,0,0,0,0,
779,-7.705,-0.8668,11.01,-22.78,0.497,-14.57,5.538,-9.372,6.237,-5.975,12.47,17.21,10.52,16.18,22.64,19.8,0,0,0,0,0,0,0,0,0,0,0,0,0,0,0,0,
780,-17.54,-8.311,4.116,-27.36,-4.165,-19.69,-0.8394,-10.91,2.069,-10.5,10.84,16.5,7.868,16.03,26.03,21.85,0,0,0,0,0,0,0,0,0,0,0,0,0,0,0,0,
781,-14.39,-13.87,11.3,-29.56,-0.788,-20.8,2.685,-12.72,2.528,-9.848,12.41,14.45,10.86,16.04,29.24,21.9,0,0,0,0,0,0,0,0,0,0,0,0,0,0,0,0,
782,-6.578,-16.53,21.15,-31.01,0.6454,-24.62,10.33,-12.19,5.747,-10.05,14.68,11.21,12.32,14.95,26.0,19.25,0,0,0,0,0,0,0,0,0,0,0,0,0,0,0,0,
783,-9.822,-22.73,18.28,-32.15,-4.208,-30.4,7.747,-12.09,4.252,-13.13,13.63,7.315,10.2,11.69,20.26,14.3,0,0,0,0,0,0,0,0,0,0,0,0,0,0,0,0,
784,-17.6,-25.19,15.77,-30.05,-3.063,-28.91,3.58,-14.22,4.735,-14.24,10.16,3.891,6.833,6.133,14.57,5.793,0,0,0,0,0,0,0,0,0,0,0,0,0,0,0,0,
785,-18.44,-20.55,13.85,-26.63,-5.147,-25.2,3.03,-13.53,5.736,-14.79,7.419,3.939,2.783,2.953,11.06,-2.106,0,0,0,0,0,0,0,0,0,0,0,0,0,0,0,0,
786,-17.25,-17.99,4.562,-24.25,-14.51,-24.22,0.0473,-9.694,1.426,-12.81,6.647,6.483,1.416,3.911,12.82,-4.145,0,0,0,0,0,0,0,0,0,0,0,0,0,0,0,0,
787,-20.64,-16.34,2.48,-21.0,-12.85,-20.58,-1.376,-8.261,-0.8057,-6.249,5.888,6.105,3.269,6.136,12.65,-4.502,0,0,0,0,0,0,0,0,0,0,0,0,0,0,0,0,
788,-21.28,-12.55,9.284,-17.53,-6.588,-16.2,2.808,-8.374,1.517,-3.002,6.316,5.532,5.799,9.456,10.9,-2.771,0,0,0,0,0,0,0,0,0,0,0,0,0,0,0,0,
789,-17.59,-13.59,10.88,-17.82,-8.951,-17.04,6.73,-6.785,1.83,-5.052,10.07,9.228,9.762,13.08,16.2,3.547,0,0,0,0,0,0,0,0,0,0,0,0,0,0,0,0,
790,-15.99,-15.16,10.8,-19.49,-7.74,-18.63,8.198,-4.672,2.179,-3.83,13.76,12.25,13.87,15.88,22.68,7.514,0,0,0,0,0,0,0,0,0,0,0,0,0,0,0,0,
791,-11.83,-7.239,13.83,-16.74,-0.7924,-14.37,9.737,-3.178,6.324,1.783,14.63,12.61,14.52,18.31,23.25,7.907,0,0,0,0,0,0,0,0,0,0,0,0,0,0,0,0,
792,-6.207,1.349,16.97,-11.58,3.421,-6.326,11.67,-2.426,9.37,6.045,15.1,15.22,15.11,20.94,24.63,11.49,0,0,0,0,0,0,0,0,0,0,0,0,0,0,0,0,
793,-6.488,1.813,21.88,-8.888,7.135,-0.3589,14.16,-2.12,10.92,11.1,17.32,20.16,20.06,26.78,29.99,17.39,0,0,0,0,0,0,0,0,0,0,0,0,0,0,0,0,
794,-6.913,0.0155,22.28,-10.38,6.922,-0.0025,15.46,-1.444,14.49,18.1,17.78,23.18,22.01,32.21,29.62,18.36,0,0,0,0,0,0,0,0,0,0,0,0,0,0,0,0,
795,-6.164,-1.74,12.69,-15.55,1.963,-4.061,12.7,-0.9762,14.3,17.44,13.68,23.19,16.03,29.41,22.22,15.52,0,0,0,0,0,0,0,0,0,0,0,0,0,0,0,0,
796,-5.998,-2.827,8.362,-18.33,1.847,-5.651,9.278,-0.4521,10.47,9.904,11.4,22.82,12.87,25.59,20.4,16.46,0,0,0,0,0,0,0,0,0,0,0,0,0,0,0,0,
797,-0.9222,-0.2496,15.3,-14.86,3.213,-1.007,10.93,1.177,13.04,8.572,14.18,23.33,16.42,28.7,23.29,18.21,0,0,0,0,0,0,0,0,0,0,0,0,0,0,0,0,
798,3.627,2.427,18.37,-11.62,3.137,4.467,16.12,1.45,18.35,12.57,15.34,22.1,17.64,30.76,21.88,14.23,0,0,0,0,0,0,0,0,0,0,0,0,0,0,0,0,
799,3.517,5.107,19.59,-11.7,10.2,6.017,19.19,-0.5301,18.8,14.39,13.38,18.45,14.79,26.41,18.79,6.248,0,0,0,0,0,0,0,0,0,0,0,0,0,0,0,0,
800,4.523,10.7,28.08,-10.6,17.21,4.516,18.84,-0.7587,17.84,14.8,12.11,16.23,10.31,19.85,16.53,-0.1541,0,0,0,0,0,0,0,0,0,0,0,0,0,0,0,0,
801,3.783,12.33,29.08,-10.15,12.28,-0.0025,16.32,-0.2419,14.82,12.33,11.52,16.96,6.717,16.2,16.14,2.208,0,0,0,0,0,0,0,0,0,0,0,0,0,0,0,0,
802,0.0913,6.122,17.69,-14.94,3.186,-7.58,13.99,-3.709,8.646,7.185,11.75,17.4,8.159,16.34,16.37,6.872,0,0,0,0,0,0,0,0,0,0,0,0,0,0,0,0,
803,-2.1,-0.2644,12.73,-20.39,-1.436,-13.79,15.87,-8.495,5.707,4.414,13.36,14.35,8.483,13.48,10.74,0.3586,0,0,0,0,0,0,0,0,0,0,0,0,0,0,0,0,
804,-4.32,-2.031,15.23,-21.27,-3.367,-15.89,16.44,-10.95,6.01,1.43,13.53,9.486,2.583,6.162,4.638,-7.319,0,0,0,0,0,0,0,0,0,0,0,0,0,0,0,0,
805,-6.824,-2.615,12.85,-20.26,-4.742,-16.91,9.624,-12.24,6.18,-3.104,10.22,7.222,-1.182,2.048,3.758,-8.017,0,0,0,0,0,0,0,0,0,0,0,0,0,0,0,0,
806,-6.913,-2.897,10.02,-18.23,-5.592,-17.12,8.406,-11.35,6.907,-4.374,6.149,6.521,-1.135,0.5497,2.431,-11.4,0,0,0,0,0,0,0,0,0,0,0,0,0,0,0,0,
807,-2.751,-0.3002,13.9,-14.12,-4.597,-14.75,17.28,-8.084,7.469,-4.128,5.359,4.849,-1.347,-0.6686,2.994,-12.06,0,0,0,0,0,0,0,0,0,0,0,0,0,0,0,0,
808,2.219,1.051,18.68,-12.53,-2.762,-13.97,19.76,-5.084,8.257,-4.236,7.896,6.174,1.294,2.564,6.883,-5.118,0,0,0,0,0,0,0,0,0,0,0,0,0,0,0,0,
809,-0.0439,-1.734,16.4,-14.05,-3.495,-16.36,14.4,-1.861,8.812,-3.454,9.616,10.04,4.154,6.322,7.354,-3.128,0,0,0,0,0,0,0,0,0,0,0,0,0,0,0,0,
810,-5.163,-3.476,10.12,-13.36,-5.428,-16.56,11.18,1.087,6.385,-4.334,7.765,9.781,3.272,6.564,5.663,-6.043,0,0,0,0,0,0,0,0,0,0,0,0,0,0,0,0,
811,-6.335,-3.841,7.629,-12.08,-7.14,-15.14,9.597,1.274,4.967,-4.05,5.11,7.073,4.186,8.61,4.66,-5.267,0,0,0,0,0,0,0,0,0,0,0,0,0,0,0,0,
812,-9.865,-4.706,5.983,-13.57,-11.24,-17.1,8.57,0.0446,5.854,-0.0559,3.627,5.87,5.15,9.894,3.271,-4.132,0,0,0,0,0,0,0,0,0,0,0,0,0,0,0,0,
813,-14.27,-5.359,3.413,-14.33,-15.01,-19.89,6.721,-1.054,2.9,-0.3755,2.054,5.092,1.656,6.431,4.468,-4.34,0,0,0,0,0,0,0,0,0,0,0,0,0,0,0,0,
814,-14.45,-8.148,3.495,-13.21,-15.53,-20.16,1.917,-2.743,-0.538,-5.311,3.716,5.322,1.466,5.071,10.47,-1.541,0,0,0,0,0,0,0,0,0,0,0,0,0,0,0,0,
815,-17.58,-10.55,-1.082,-13.12,-17.21,-19.82,-1.813,-4.167,0.2055,-7.957,8.597,5.252,5.177,5.643,15.42,-0.9187,0,0,0,0,0,0,0,0,0,0,0,0,0,0,0,0,
816,-20.56,-9.727,-5.389,-12.16,-17.52,-17.5,-1.435,-3.629,0.3341,-9.528,8.981,4.217,4.706,3.684,13.31,-7.325,0,0,0,0,0,0,0,0,0,0,0,0,0,0,0,0,
817,-14.87,-10.14,3.598,-8.986,-12.12,-13.28,1.111,-2.435,0.4797,-9.648,6.405,5.363,2.596,2.725,6.941,-11.82,0,0,0,0,0,0,0,0,0,0,0,0,0,0,0,0,
818,-10.89,-10.57,8.401,-8.132,-10.57,-13.72,1.404,-3.101,2.218,-7.941,6.316,4.072,1.42,1.324,-0.8086,-12.57,0,0,0,0,0,0,0,0,0,0,0,0,0,0,0,0,
819,-13.32,-9.594,3.014,-8.289,-13.93,-15.34,1.732,-3.702,2.809,-9.351,6.633,-1.022,-0.1461,-1.772,-8.154,-14.41,0,0,0,0,0,0,0,0,0,0,0,0,0,0,0,0,
820,-11.79,-10.3,5.373,-5.445,-11.27,-10.81,8.666,-2.523,6.244,-10.52,6.957,-0.5314,0.1957,-1.343,-11.16,-12.48,0,0,0,0,0,0,0,0,0,0,0,0,0,0,0,0,
821,-9.586,-8.233,5.022,-5.06,-6.402,-7.734,11.77,-2.962,11.2,-7.371,6.461,3.226,-0.3727,-0.8179,-13.15,-10.2,0,0,0,0,0,0,0,0,0,0,0,0,0,0,0,0,
822,-10.95,-2.964,0.4238,-7.239,-4.226,-8.258,5.233,-4.056,12.01,-3.537,6.834,4.031,-0.1631,-0.7673,-11.09,-10.71,0,0,0,0,0,0,0,0,0,0,0,0,0,0,0,0,
823,-6.373,-1.37,8.109,-3.774,-1.273,-3.307,7.505,-1.599,15.56,1.767,14.94,7.55,8.941,6.321,2.559,-3.722,0,0,0,0,0,0,0,0,0,0,0,0,0,0,0,0,
824,-0.123,-2.209,11.2,1.598,-0.9838,2.181,18.15,0.7294,21.98,8.05,21.98,12.16,17.71,14.12,12.78,4.821,0,0,0,0,0,0,0,0,0,0,0,0,0,0,0,0,
825,-3.64,-4.29,8.072,1.711,-0.6336,1.056,18.47,-1.564,21.49,9.526,16.99,11.51,15.86,15.3,11.05,5.05,0,0,0,0,0,0,0,0,0,0,0,0,0,0,0,0,
826,-9.438,-8.37,17.12,0.0976,4.05,-0.4005,13.91,-5.193,18.12,7.561,11.5,10.97,12.61,16.67,11.28,5.804,0,0,0,0,0,0,0,0,0,0,0,0,0,0,0,0,
827,-7.204,-7.551,19.95,0.162,4.122,0.0872,15.29,-6.113,18.2,7.167,13.32,13.93,12.96,20.63,13.42,9.88,0,0,0,0,0,0,0,0,0,0,0,0,0,0,0,0,
828,-1.431,-2.441,11.97,0.6859,0.5639,-0.7129,17.22,-5.633,19.05,7.988,14.44,15.19,11.81,22.65,12.61,12.93,0,0,0,0,0,0,0,0,0,0,0,0,0,0,0,0,
829,-2.364,-1.728,11.22,0.8105,0.9775,-0.6565,17.17,-6.077,18.92,6.693,12.28,11.92,9.259,20.81,12.73,13.01,0,0,0,0,0,0,0,0,0,0,0,0,0,0,0,0,
830,-7.38,-1.185,9.007,1.344,2.202,1.829,17.52,-5.555,17.22,3.373,9.21,5.753,7.487,15.46,9.78,7.046,0,0,0,0,0,0,0,0,0,0,0,0,0,0,0,0,
831,-5.959,2.486,4.759,2.438,2.751,1.851,15.2,-3.425,14.67,1.06,5.617,1.178,5.277,10.58,3.304,-0.6821,0,0,0,0,0,0,0,0,0,0,0,0,0,0,0,0,
832,-4.613,0.7498,8.901,2.268,0.1894,-2.547,9.407,-2.778,11.9,-1.708,2.814,1.232,1.537,9.516,0.3295,-4.827,0,0,0,0,0,0,0,0,0,0,0,0,0,0,0,0,
833,-7.933,-1.285,11.98,2.481,-6.197,-3.176,7.092,-2.608,8.839,-4.661,0.3467,2.884,-1.682,9.699,-1.206,-7.839,0,0,0,0,0,0,0,0,0,0,0,0,0,0,0,0,
834,-4.859,4.405,9.247,4.197,-6.578,1.143,9.319,-1.423,7.896,-3.991,-3.746,0.8011,-4.495,5.186,-7.109,-13.87,0,0,0,0,0,0,0,0,0,0,0,0,0,0,0,0,
835,-2.978,5.603,4.542,2.913,-2.864,-0.9227,8.838,-2.216,5.074,-6.672,-6.794,-5.77,-10.14,-5.616,-14.62,-22.61,0,0,0,0,0,0,0,0,0,0,0,0,0,0,0,0,
836,-10.75,0.0465,0.563,0.1925,-5.752,-8.012,5.623,-4.206,-3.523,-17.27,-6.53,-10.18,-15.54,-13.86,-18.12,-25.36,0,0,0,0,0,0,0,0,0,0,0,0,0,0,0,0,
837,-12.74,-0.0123,-0.7076,0.5483,-13.15,-10.54,3.829,-4.535,-9.995,-24.53,-8.174,-7.878,-17.93,-13.86,-21.03,-20.93,0,0,0,0,0,0,0,0,0,0,0,0,0,0,0,0,
838,-10.17,0.7393,-4.386,-0.1551,-18.52,-12.33,2.709,-4.814,-12.57,-24.95,-12.04,-5.67,-20.86,-12.61,-25.86,-19.26,0,0,0,0,0,0,0,0,0,0,0,0,0,0,0,0,
839,-16.16,-3.669,-6.706,-3.186,-17.44,-15.82,1.204,-5.461,-14.97,-25.67,-11.04,-8.47,-22.37,-13.97,-25.88,-18.33,0,0,0,0,0,0,0,0,0,0,0,0,0,0,0,0,
840,-21.37,-5.64,-1.148,-3.412,-13.02,-15.28,-0.7854,-5.084,-12.97,-26.36,-7.842,-10.97,-20.71,-16.25,-20.85,-13.2,0,0,0,0,0,0,0,0,0,0,0,0,0,0,0,0,
841,-17.85,-4.76,2.292,-2.271,-13.34,-13.53,-0.4938,-4.838,-7.971,-25.68,-6.084,-10.68,-19.88,-19.21,-14.69,-8.132,0,0,0,0,0,0,0,0,0,0,0,0,0,0,0,0,
842,-14.56,-6.529,0.9897,-4.286,-12.43,-16.14,2.722,-4.514,-4.902,-26.07,-1.758,-9.186,-19.18,-19.65,-7.265,-4.346,0,0,0,0,0,0,0,0,0,0,0,0,0,0,0,0,
843,-16.32,-9.768,1.498,-6.986,-7.542,-19.2,1.746,-2.511,-3.162,-26.71,-0.4321,-6.85,-18.59,-17.89,-3.045,-3.197,0,0,0,0,0,0,0,0,0,0,0,0,0,0,0,0,
844,-17.13,-10.76,0.5557,-6.176,-10.25,-17.8,-2.413,-1.344,-5.638,-25.34,-6.921,-7.0,-20.39,-18.71,-4.38,-6.811,0,0,0,0,0,0,0,0,0,0,0,0,0,0,0,0,
845,-14.85,-8.807,-4.258,-3.544,-15.69,-14.22,-5.179,-3.816,-9.854,-22.16,-11.99,-10.22,-22.08,-20.36,-7.464,-10.88,0,0,0,0,0,0,0,0,0,0,0,0,0,0,0,0,
846,-15.23,-6.976,-11.08,-2.22,-14.54,-12.53,-11.54,-7.784,-9.114,-19.65,-13.25,-10.9,-23.82,-20.56,-10.01,-11.7,0,0,0,0,0,0,0,0,0,0,0,0,0,0,0,0,
847,-15.65,-7.528,-15.56,-2.688,-14.4,-12.44,-15.44,-10.03,-8.732,-18.18,-15.32,-8.623,-25.61,-19.96,-10.37,-10.72,0,0,0,0,0,0,0,0,0,0,0,0,0,0,0,0,
848,-11.76,-8.181,-10.73,-5.125,-13.54,-12.34,-8.982,-9.771,-9.817,-15.26,-15.15,-8.344,-22.58,-18.56,-9.99,-12.1,0,0,0,0,0,0,0,0,0,0,0,0,0,0,0,0,
849,-11.0,-5.968,-2.413,-7.014,-7.593,-11.33,-4.613,-8.606,-5.069,-12.54,-11.49,-11.61,-16.88,-20.43,-11.04,-17.82,0,0,0,0,0,0,0,0,0,0,0,0,0,0,0,0,
850,-11.99,-2.472,-2.082,-4.945,-7.23,-8.166,-4.361,-8.032,0.6444,-12.08,-7.986,-15.76,-13.75,-25.3,-11.6,-23.11,0,0,0,0,0,0,0,0,0,0,0,0,0,0,0,0,
