%OpenBCI Raw EXG Data
%Number of channels = 16
%Sample Rate = 125 Hz
%Board = OpenBCI_GUI$BoardCytonSerialDaisy
Sample Index,EXG Channel 0,EXG Channel 1,EXG Channel 2,EXG Channel 3,EXG Channel 4,EXG Channel 5,EXG Channel 6,EXG Channel 7,EXG Channel 8,EXG Channel 9,EXG Channel 10,EXG Channel 11,EXG Channel 12,EXG Channel 13,EXG Channel 14,EXG Channel 15,Accel Channel 0,Accel Channel 1,Accel Channel 2,Other,Other.1,Other.2,Other.3,Other.4,Other.5,Other.6,Analog Channel 0,Analog Channel 1,Analog Channel 2,Timestamp,Other.7,Timestamp (Formatted),Annotations
1,0.0,0.0,0.0,0.0,0.0,0.0,-0.0,0.0,0.0,0.0,-0.0,0.0,0.0,-0.0,0.0,-0.0,0,0,0,0,0,0,0,0,0,0,0,0,0,0,0,0,T0
2,3.363,4.057,0.7984,1.67,-0.6066,0.5957,0.413,-0.2683,2.578,-0.0947,-1.291,-2.907,-0.1917,-6.951,-4.704,-10.92,0,0,0,0,0,0,0,0,0,0,0,0,0,0,0,0,
3,2.922,11.02,2.82,5.241,4.111,4.293,7.473,-3.46,4.475,-3.551,1.115,-7.608,0.2676,-12.82,0.0311,-12.66,0,0,0,0,0,0,0,0,0,0,0,0,0,0,0,0,
4,1.751,13.85,-0.0085,3.279,4.274,3.955,3.148,-7.396,4.622,-7.047,0.6439,-9.764,-0.0819,-12.35,5.853,-5.209,0,0,0,0,0,0,0,0,0,0,0,0,0,0,0,0,
5,2.571,8.783,-1.188,-2.027,2.414,1.178,-1.974,-8.508,3.043,-7.353,2.265,-8.296,2.82,-8.268,9.373,2.566,0,0,0,0,0,0,0,0,0,0,0,0,0,0,0,0,
6,2.704,4.147,4.83,-2.426,4.117,1.104,5.623,-7.009,4.91,-6.811,9.819,-5.42,10.62,-8.515,12.78,4.722,0,0,0,0,0,0,0,0,0,0,0,0,0,0,0,0,
7,-1.598,1.787,4.853,-1.897,-0.4342,-1.838,7.276,-6.811,8.229,-9.233,12.42,-4.971,15.21,-13.34,11.79,-0.1986,0,0,0,0,0,0,0,0,0,0,0,0,0,0,0,0,
8,-7.268,-4.296,-1.192,-4.95,-7.454,-8.249,5.231,-9.649,4.192,-14.67,10.96,-9.866,13.73,-17.55,8.926,-7.109,0,0,0,0,0,0,0,0,0,0,0,0,0,0,0,0,
9,-7.097,-9.151,1.017,-6.358,-4.313,-10.57,10.19,-12.05,-2.229,-19.01,11.78,-14.23,11.69,-17.6,8.056,-7.143,0,0,0,0,0,0,0,0,0,0,0,0,0,0,0,0,
10,-2.202,-6.803,6.354,-4.398,0.3458,-8.589,7.558,-11.2,-3.633,-18.44,9.46,-13.4,10.86,-13.87,5.546,-2.498,0,0,0,0,0,0,0,0,0,0,0,0,0,0,0,0,
11,0.4025,-2.7,6.117,-3.79,-1.414,-7.227,1.502,-8.505,-4.418,-14.14,6.143,-10.74,10.47,-9.275,3.612,1.675,0,0,0,0,0,0,0,0,0,0,0,0,0,0,0,0,
12,0.0149,-1.323,5.34,-4.329,-1.7,-7.33,3.564,-6.718,-4.949,-10.77,5.416,-7.182,9.751,-5.343,2.086,4.958,0,0,0,0,0,0,0,0,0,0,0,0,0,0,0,0,
13,0.6088,-1.643,4.669,-2.78,1.569,-6.587,0.9573,-5.446,-2.806,-9.531,-0.2173,-3.307,6.717,-2.666,-4.668,4.334,0,0,0,0,0,0,0,0,0,0,0,0,0,0,0,0,
14,0.8876,-1.328,1.234,-0.7872,2.537,-4.678,-5.539,-2.393,-2.812,-8.322,-6.853,-2.405,2.045,-3.828,-10.29,1.819,0,0,0,0,0,0,0,0,0,0,0,0,0,0,0,0,
15,-1.473,1.724,-2.9,0.6234,-0.4218,-3.018,-6.7,-1.955,-6.662,-8.184,-4.998,-4.118,-2.318,-9.054,-8.734,2.042,0,0,0,0,0,0,0,0,0,0,0,0,0,0,0,0,
16,-0.8713,3.391,-5.015,1.35,-3.376,-2.271,-10.72,-8.049,-10.76,-9.762,-2.602,-7.612,-7.907,-13.85,-8.484,0.1379,0,0,0,0,0,0,0,0,0,0,0,0,0,0,0,0,
17,3.782,0.4668,-4.179,-0.817,-3.855,-3.729,-16.03,-10.59,-15.14,-11.38,-8.22,-13.99,-16.04,-18.16,-15.73,-8.296,0,0,0,0,0,0,0,0,0,0,0,0,0,0,0,0,
18,7.732,3.107,-0.1576,-0.0989,-1.36,-3.149,-12.84,-3.313,-18.92,-13.78,-13.29,-18.98,-19.86,-21.96,-20.01,-13.92,0,0,0,0,0,0,0,0,0,0,0,0,0,0,0,0,
19,13.63,13.36,7.693,6.424,6.548,5.997,-7.138,3.655,-14.67,-12.71,-8.492,-15.15,-12.38,-15.8,-10.94,-6.569,0,0,0,0,0,0,0,0,0,0,0,0,0,0,0,0,
20,16.42,13.28,10.28,7.336,12.28,14.41,-8.123,5.253,-2.451,-2.582,-1.678,-7.762,-3.046,-3.494,-2.329,0.5994,0,0,0,0,0,0,0,0,0,0,0,0,0,0,0,0,
21,8.451,2.697,-3.001,4.248,4.352,11.42,-15.38,5.157,3.125,5.37,-5.19,-10.96,-4.05,-4.949,-8.975,-8.265,0,0,0,0,0,0,0,0,0,0,0,0,0,0,0,0,
22,0.969,-0.5164,-18.52,8.143,-8.821,4.865,-24.64,3.266,-5.017,0.0181,-15.46,-19.62,-10.12,-14.91,-19.41,-18.59,0,0,0,0,0,0,0,0,0,0,0,0,0,0,0,0,
23,-1.734,-0.3453,-22.38,11.71,-15.01,2.202,-31.09,2.075,-16.08,-6.933,-20.07,-16.09,-10.76,-11.1,-20.38,-14.02,0,0,0,0,0,0,0,0,0,0,0,0,0,0,0,0,
24,-4.484,-3.697,-22.2,11.28,-13.49,3.776,-27.78,5.894,-17.46,-3.096,-13.73,-3.803,-2.982,2.051,-11.69,-1.773,0,0,0,0,0,0,0,0,0,0,0,0,0,0,0,0,
25,-0.3838,-0.6987,-19.39,14.69,-5.145,10.42,-15.13,10.62,-7.539,5.73,-2.059,3.538,8.303,9.62,1.428,9.622,0,0,0,0,0,0,0,0,0,0,0,0,0,0,0,0,
26,6.546,5.915,-13.2,18.02,2.394,15.74,-6.226,11.75,2.421,10.95,4.623,6.426,13.25,14.16,10.1,19.16,0,0,0,0,0,0,0,0,0,0,0,0,0,0,0,0,
27,7.071,6.622,-12.86,16.75,2.891,14.31,-5.952,11.52,3.065,12.2,3.033,6.586,9.349,17.44,9.36,22.29,0,0,0,0,0,0,0,0,0,0,0,0,0,0,0,0,
28,6.292,4.221,-17.66,13.95,1.694,11.21,-9.005,10.0,-1.089,11.58,-4.292,-0.1277,0.4209,11.71,-1.53,12.14,0,0,0,0,0,0,0,0,0,0,0,0,0,0,0,0,
29,4.051,1.678,-22.14,10.96,-0.8689,9.968,-15.55,5.763,-6.344,8.474,-13.28,-10.32,-9.607,-0.645,-14.36,-2.687,0,0,0,0,0,0,0,0,0,0,0,0,0,0,0,0,
30,0.8802,2.557,-23.89,11.1,-3.954,10.25,-18.73,4.333,-11.35,2.604,-15.92,-16.42,-12.04,-7.31,-14.77,-6.544,0,0,0,0,0,0,0,0,0,0,0,0,0,0,0,0,
31,2.393,9.516,-20.04,14.69,-1.062,12.21,-12.31,6.874,-8.394,-1.838,-12.09,-17.8,-6.55,-7.109,-9.904,-6.44,0,0,0,0,0,0,0,0,0,0,0,0,0,0,0,0,
32,3.198,15.11,-16.63,16.52,3.085,13.88,-9.134,4.48,-1.189,-2.205,-10.44,-16.44,-5.772,-8.849,-12.37,-10.07,0,0,0,0,0,0,0,0,0,0,0,0,0,0,0,0,
33,3.884,14.78,-16.09,16.3,4.03,13.2,-12.54,0.2723,-3.511,-3.351,-11.51,-12.92,-11.55,-13.8,-15.65,-8.208,0,0,0,0,0,0,0,0,0,0,0,0,0,0,0,0,
34,9.107,13.43,-13.79,15.24,4.174,10.65,-14.12,3.924,-13.13,-9.407,-14.4,-10.16,-17.8,-18.85,-19.99,-3.841,0,0,0,0,0,0,0,0,0,0,0,0,0,0,0,0,
35,9.42,14.14,-17.7,12.75,-0.4801,7.041,-19.38,6.507,-20.43,-16.99,-21.63,-8.87,-26.08,-23.53,-28.7,-1.264,0,0,0,0,0,0,0,0,0,0,0,0,0,0,0,0,
36,2.692,12.24,-26.3,9.94,-7.276,2.035,-26.2,1.783,-26.03,-22.12,-27.11,-5.965,-33.86,-23.47,-31.1,5.608,0,0,0,0,0,0,0,0,0,0,0,0,0,0,0,0,
37,-0.8069,5.196,-23.46,8.723,-7.286,-1.703,-24.76,1.11,-29.5,-23.1,-26.12,-4.3,-32.82,-15.74,-25.73,10.12,0,0,0,0,0,0,0,0,0,0,0,0,0,0,0,0,
38,0.3457,2.564,-17.18,10.56,-5.265,0.9962,-22.63,4.987,-25.78,-17.73,-24.21,-7.01,-24.23,-6.858,-21.45,7.381,0,0,0,0,0,0,0,0,0,0,0,0,0,0,0,0,
39,0.6131,7.026,-20.72,12.48,-5.648,5.865,-21.16,5.046,-17.25,-9.88,-22.77,-7.911,-15.1,-2.908,-18.62,5.62,0,0,0,0,0,0,0,0,0,0,0,0,0,0,0,0,
40,-1.721,6.854,-23.43,10.11,-5.368,3.448,-15.47,4.365,-11.25,-7.958,-17.99,-4.043,-7.899,-3.587,-14.32,5.586,0,0,0,0,0,0,0,0,0,0,0,0,0,0,0,0,
41,-4.283,1.281,-23.61,6.346,-9.575,-4.264,-15.08,5.665,-10.69,-11.21,-10.96,-0.8328,-3.032,-6.494,-9.146,4.539,0,0,0,0,0,0,0,0,0,0,0,0,0,0,0,0,
42,-6.005,-2.177,-30.0,5.303,-17.7,-9.376,-15.19,5.665,-13.46,-13.11,-4.754,0.7464,-0.7372,-6.867,-4.399,6.729,0,0,0,0,0,0,0,0,0,0,0,0,0,0,0,0,
43,-7.491,-3.363,-32.54,6.079,-17.0,-8.668,-5.835,5.053,-14.82,-12.04,-1.081,3.998,0.5692,-1.748,-0.918,14.29,0,0,0,0,0,0,0,0,0,0,0,0,0,0,0,0,
44,-6.708,-2.311,-23.91,7.46,-9.452,-3.225,-1.602,5.822,-13.2,-8.629,-0.1689,7.948,2.264,4.917,1.718,23.26,0,0,0,0,0,0,0,0,0,0,0,0,0,0,0,0,
45,-2.821,-0.2239,-14.88,9.154,-6.146,1.384,-4.875,6.091,-11.69,-4.321,0.6562,9.441,4.476,9.455,4.216,29.69,0,0,0,0,0,0,0,0,0,0,0,0,0,0,0,0,
46,0.8539,0.979,-12.24,11.53,-5.024,2.587,-3.448,4.55,-11.19,-1.177,2.369,8.466,5.827,11.45,3.222,30.18,0,0,0,0,0,0,0,0,0,0,0,0,0,0,0,0,
47,1.847,4.177,-16.07,14.47,-3.87,3.942,-3.679,4.435,-11.06,0.7961,3.324,7.78,5.599,10.28,-1.651,24.88,0,0,0,0,0,0,0,0,0,0,0,0,0,0,0,0,
48,0.9151,7.453,-22.83,14.99,-6.318,3.71,-7.774,6.124,-12.38,-0.0593,3.311,7.861,5.758,7.649,-3.621,22.72,0,0,0,0,0,0,0,0,0,0,0,0,0,0,0,0,
49,0.1274,7.649,-24.02,12.75,-8.486,0.3422,-7.494,6.083,-13.91,-5.111,2.722,7.433,5.999,6.085,-3.65,26.02,0,0,0,0,0,0,0,0,0,0,0,0,0,0,0,0,
50,1.652,10.22,-19.85,13.25,-4.449,2.861,-2.943,6.493,-10.43,-8.519,5.739,8.848,7.159,6.872,-2.807,26.96,0,0,0,0,0,0,0,0,0,0,0,0,0,0,0,0,
51,6.732,16.8,-17.27,18.3,3.434,12.8,4.584,6.334,0.3998,-5.536,13.2,11.23,12.3,9.977,3.659,23.9,0,0,0,0,0,0,0,0,0,0,0,0,0,0,0,0,
52,11.61,20.31,-16.51,21.23,7.819,16.83,8.173,1.347,9.257,-1.854,14.51,8.194,14.67,10.17,5.176,16.02,0,0,0,0,0,0,0,0,0,0,0,0,0,0,0,0,
53,10.89,18.64,-16.53,18.15,5.899,11.48,4.047,1.478,8.45,-2.495,11.77,3.178,11.89,7.03,0.4988,8.639,0,0,0,0,0,0,0,0,0,0,0,0,0,0,0,0,
54,7.731,17.5,-16.36,15.04,5.158,7.756,5.416,9.556,9.052,-3.135,16.66,2.469,15.4,8.006,6.84,12.58,0,0,0,0,0,0,0,0,0,0,0,0,0,0,0,0,
55,8.167,19.19,-11.64,16.05,9.463,8.133,11.98,9.809,17.03,-3.459,18.28,-0.1678,20.84,8.972,13.72,17.09,0,0,0,0,0,0,0,0,0,0,0,0,0,0,0,0,
56,9.821,19.02,-6.461,15.81,8.738,4.598,10.08,4.305,18.96,-8.864,9.516,-4.956,17.02,4.279,9.459,14.97,0,0,0,0,0,0,0,0,0,0,0,0,0,0,0,0,
57,6.918,15.56,-9.949,13.14,0.5034,-1.813,2.252,6.313,13.06,-12.79,4.824,-3.102,13.58,3.293,9.642,18.42,0,0,0,0,0,0,0,0,0,0,0,0,0,0,0,0,
58,1.867,14.0,-16.0,15.15,-2.563,-1.32,-5.577,9.964,10.41,-6.646,3.574,0.3006,13.81,6.721,11.82,20.46,0,0,0,0,0,0,0,0,0,0,0,0,0,0,0,0,
59,3.009,16.32,-15.02,19.7,0.2899,5.013,-12.89,8.784,9.681,0.839,-3.0,-1.756,7.119,4.832,5.881,11.9,0,0,0,0,0,0,0,0,0,0,0,0,0,0,0,0,
60,8.054,19.07,-13.17,19.38,-0.9538,7.48,-17.5,7.214,6.469,2.119,-10.28,-3.369,-2.166,0.7109,-0.0342,3.539,0,0,0,0,0,0,0,0,0,0,0,0,0,0,0,0,
61,8.209,20.44,-13.45,18.68,-2.562,6.275,-19.85,7.321,4.561,2.717,-16.17,-3.24,-7.222,-1.913,-5.968,-2.682,0,0,0,0,0,0,0,0,0,0,0,0,0,0,0,0,
62,5.605,20.58,-12.37,20.79,-1.435,6.566,-20.53,8.473,3.929,3.078,-21.84,-6.625,-14.25,-8.666,-15.88,-10.73,0,0,0,0,0,0,0,0,0,0,0,0,0,0,0,0,
63,3.982,20.69,-17.28,21.52,-4.898,9.211,-21.58,8.764,-0.0158,0.4727,-27.0,-10.75,-22.46,-15.75,-23.47,-15.99,0,0,0,0,0,0,0,0,0,0,0,0,0,0,0,0,
64,4.095,24.76,-26.03,24.5,-6.323,16.22,-24.6,8.058,-3.071,0.5676,-31.0,-9.237,-22.16,-12.36,-23.77,-13.64,0,0,0,0,0,0,0,0,0,0,0,0,0,0,0,0,
65,8.265,31.4,-25.69,30.28,0.8346,24.65,-24.07,8.711,2.779,5.095,-28.96,-4.487,-15.52,-2.909,-18.49,-4.7,0,0,0,0,0,0,0,0,0,0,0,0,0,0,0,0,
66,11.01,33.63,-22.38,30.56,3.787,26.64,-21.48,8.955,11.75,7.607,-23.34,-1.806,-11.36,0.9887,-12.56,3.381,0,0,0,0,0,0,0,0,0,0,0,0,0,0,0,0,
67,11.02,33.51,-21.41,27.31,2.76,25.28,-22.71,8.937,16.23,8.171,-19.17,2.267,-5.794,3.684,-5.691,8.157,0,0,0,0,0,0,0,0,0,0,0,0,0,0,0,0,
68,14.61,34.76,-16.43,26.81,6.753,25.72,-23.22,9.981,21.35,10.88,-13.25,7.034,3.628,10.28,0.4994,11.42,0,0,0,0,0,0,0,0,0,0,0,0,0,0,0,0,
69,14.45,32.07,-16.13,26.61,4.252,23.3,-21.88,8.134,24.03,11.31,-9.035,4.871,6.846,12.55,-0.1788,11.5,0,0,0,0,0,0,0,0,0,0,0,0,0,0,0,0,
70,6.916,25.28,-21.57,22.34,-4.076,16.94,-20.14,6.515,18.91,7.108,-6.414,4.84,7.844,14.44,0.8018,14.58,0,0,0,0,0,0,0,0,0,0,0,0,0,0,0,0,
71,3.411,20.26,-14.54,14.64,-0.6003,10.36,-14.33,8.198,19.63,6.199,1.812,13.6,16.04,23.23,7.677,22.44,0,0,0,0,0,0,0,0,0,0,0,0,0,0,0,0,
72,5.058,19.63,-3.025,12.14,3.563,4.519,-12.15,4.513,25.68,7.849,2.743,14.44,17.5,23.93,5.045,21.35,0,0,0,0,0,0,0,0,0,0,0,0,0,0,0,0,
73,6.522,23.75,-8.002,18.18,-5.477,2.746,-19.68,-0.194,19.11,3.646,-8.989,7.577,7.078,14.71,-5.744,11.98,0,0,0,0,0,0,0,0,0,0,0,0,0,0,0,0,
74,8.07,25.97,-15.49,21.11,-8.677,6.461,-22.54,5.959,10.69,-0.4338,-11.9,8.947,3.137,15.5,-9.147,10.6,0,0,0,0,0,0,0,0,0,0,0,0,0,0,0,0,
75,9.619,22.39,-7.213,18.12,0.1524,9.602,-15.89,11.68,16.18,2.716,-6.496,11.36,7.051,23.0,-7.971,15.96,0,0,0,0,0,0,0,0,0,0,0,0,0,0,0,0,
76,11.37,21.34,0.44,17.83,0.943,9.155,-16.07,7.476,21.03,5.391,-9.551,8.858,6.06,22.42,-10.2,13.78,0,0,0,0,0,0,0,0,0,0,0,0,0,0,0,0,
77,11.7,22.25,-6.595,17.75,-6.438,7.557,-25.94,4.65,16.4,3.31,-14.87,7.795,-0.2326,17.01,-13.05,5.747,0,0,0,0,0,0,0,0,0,0,0,0,0,0,0,0,
78,8.771,17.13,-11.72,13.98,-7.903,4.773,-29.04,5.005,11.56,-0.6142,-15.99,3.781,-6.208,12.26,-13.15,3.594,0,0,0,0,0,0,0,0,0,0,0,0,0,0,0,0,
79,6.451,12.16,-3.828,11.2,-5.744,0.6159,-22.77,1.835,9.692,-5.731,-16.64,0.5035,-6.772,10.57,-10.44,6.603,0,0,0,0,0,0,0,0,0,0,0,0,0,0,0,0,
80,7.44,13.36,3.665,10.68,-5.128,-1.633,-20.12,-0.3452,11.48,-9.132,-13.44,5.565,-3.259,12.53,-7.265,8.964,0,0,0,0,0,0,0,0,0,0,0,0,0,0,0,0,
81,9.894,13.96,3.317,10.16,-3.267,-1.377,-20.35,0.4537,16.79,-9.472,-7.7,6.907,-3.181,12.18,-7.202,9.505,0,0,0,0,0,0,0,0,0,0,0,0,0,0,0,0,
82,9.813,11.09,3.397,7.881,-0.6943,-2.909,-15.65,-0.8264,19.98,-9.62,-6.034,2.806,-3.743,10.23,-6.378,8.342,0,0,0,0,0,0,0,0,0,0,0,0,0,0,0,0,
83,5.367,10.12,4.743,3.837,-0.0549,-6.475,-11.69,-4.022,20.59,-10.34,-4.976,4.405,-0.2132,11.46,0.9832,9.067,0,0,0,0,0,0,0,0,0,0,0,0,0,0,0,0,
84,3.17,11.61,0.7692,2.251,-0.9752,-6.174,-11.84,-5.944,22.15,-12.09,-0.5892,6.933,2.629,13.48,8.113,11.4,0,0,0,0,0,0,0,0,0,0,0,0,0,0,0,0,
85,6.496,11.49,-4.416,3.883,-2.571,-2.613,-11.65,-4.131,22.88,-11.39,2.088,8.577,3.709,16.84,8.172,10.99,0,0,0,0,0,0,0,0,0,0,0,0,0,0,0,0,
86,6.007,10.33,-4.836,4.228,-4.001,-3.222,-13.94,-0.4135,19.52,-4.928,-0.3385,14.99,3.131,21.93,5.051,11.5,0,0,0,0,0,0,0,0,0,0,0,0,0,0,0,0,
87,-0.7362,10.01,-6.231,2.599,-4.493,-6.072,-18.6,-0.5071,14.08,-1.367,-2.458,19.15,-0.6205,23.71,2.344,14.86,0,0,0,0,0,0,0,0,0,0,0,0,0,0,0,0,
88,-3.022,9.65,-11.76,1.312,-4.911,-5.066,-18.77,-1.239,12.18,-3.314,-0.7154,17.2,-1.844,22.23,2.43,15.48,0,0,0,0,0,0,0,0,0,0,0,0,0,0,0,0,
89,-0.318,9.935,-14.81,1.322,-7.097,-4.321,-17.23,1.861,12.96,-1.635,-0.0716,14.44,0.4501,18.68,4.964,11.87,0,0,0,0,0,0,0,0,0,0,0,0,0,0,0,0,
90,-2.088,11.36,-11.94,2.332,-9.272,-5.569,-17.54,2.45,11.75,1.626,-0.6247,11.2,1.277,14.91,5.293,7.708,0,0,0,0,0,0,0,0,0,0,0,0,0,0,0,0,
91,-5.156,12.81,-7.22,3.155,-7.611,-2.858,-16.35,0.9281,12.44,2.535,1.629,9.035,3.348,17.31,5.022,5.958,0,0,0,0,0,0,0,0,0,0,0,0,0,0,0,0,
92,-2.088,14.75,-6.683,5.232,-5.129,2.706,-16.41,2.125,16.59,5.626,1.804,9.839,6.919,22.01,5.31,3.892,0,0,0,0,0,0,0,0,0,0,0,0,0,0,0,0,
93,1.539,16.75,-10.27,9.976,-6.024,6.947,-19.61,-0.9457,16.07,7.911,-2.772,9.104,5.328,19.41,1.92,-1.997,0,0,0,0,0,0,0,0,0,0,0,0,0,0,0,0,
94,0.015,17.22,-13.91,12.3,-7.325,9.229,-20.2,-6.071,11.18,5.918,-5.735,7.09,-0.9308,12.95,-2.316,-8.036,0,0,0,0,0,0,0,0,0,0,0,0,0,0,0,0,
95,-2.309,16.67,-17.09,10.62,-7.234,8.697,-19.31,-1.914,9.719,4.387,-3.992,7.94,-4.751,9.096,-2.56,-9.307,0,0,0,0,0,0,0,0,0,0,0,0,0,0,0,0,
96,-0.7248,16.67,-16.74,11.37,-6.638,8.948,-21.63,3.289,11.98,3.901,-1.444,8.415,-4.595,6.879,-2.166,-6.778,0,0,0,0,0,0,0,0,0,0,0,0,0,0,0,0,
97,1.63,16.06,-12.87,12.68,-6.098,11.39,-24.56,0.2671,13.28,2.421,-3.981,6.456,-6.356,5.846,-5.82,-6.346,0,0,0,0,0,0,0,0,0,0,0,0,0,0,0,0,
98,-1.181,11.63,-14.1,7.693,-8.505,8.115,-24.39,-2.66,10.47,0.1125,-8.262,6.167,-10.11,6.785,-8.199,-7.925,0,0,0,0,0,0,0,0,0,0,0,0,0,0,0,0,
99,-7.218,5.603,-17.28,1.41,-11.77,0.3086,-21.61,-2.984,6.278,-3.998,-5.319,6.174,-8.908,7.862,-2.095,-5.522,0,0,0,0,0,0,0,0,0,0,0,0,0,0,0,0,
100,-11.24,2.93,-15.47,0.9506,-10.54,-0.8394,-19.97,-3.853,7.065,-7.342,-0.6236,3.636,-4.609,8.975,3.333,-3.521,0,0,0,0,0,0,0,0,0,0,0,0,0,0,0,0,
101,-11.59,3.138,-13.5,3.431,-6.154,4.203,-19.57,-1.955,12.38,-4.823,-1.113,3.597,-1.133,12.53,1.259,-4.029,0,0,0,0,0,0,0,0,0,0,0,0,0,0,0,0,
102,-6.749,4.244,-9.311,4.414,-1.175,6.748,-16.14,0.5253,17.69,1.919,-1.027,7.339,4.75,16.4,1.929,-0.5368,0,0,0,0,0,0,0,0,0,0,0,0,0,0,0,0,
103,-0.9301,4.291,-2.738,3.381,0.7488,4.98,-13.32,-0.4532,20.37,6.612,-0.9006,8.897,9.688,16.7,5.993,0.5583,0,0,0,0,0,0,0,0,0,0,0,0,0,0,0,0,
104,-2.004,2.19,-3.107,1.209,-3.018,1.347,-14.24,-1.655,18.04,6.071,-1.767,7.451,10.06,15.74,8.455,-3.321,0,0,0,0,0,0,0,0,0,0,0,0,0,0,0,0,
105,-6.434,1.643,-3.075,-1.059,-4.681,-2.072,-11.52,-3.023,14.31,2.486,4.31,6.252,12.96,16.07,14.44,-2.272,0,0,0,0,0,0,0,0,0,0,0,0,0,0,0,0,
106,-4.813,4.014,3.225,-2.152,-1.818,-2.748,-7.047,-5.345,15.27,1.151,11.56,6.542,16.89,15.84,19.78,0.3452,0,0,0,0,0,0,0,0,0,0,0,0,0,0,0,0,
107,1.645,6.374,2.852,-1.482,-2.921,-1.859,-9.882,-4.62,15.47,2.514,8.025,7.56,11.88,14.11,16.57,-0.6114,0,0,0,0,0,0,0,0,0,0,0,0,0,0,0,0,
108,2.732,7.227,-3.275,-0.7791,-7.213,-2.891,-14.87,-1.935,8.772,1.203,-0.1968,6.366,1.798,10.79,11.02,-1.642,0,0,0,0,0,0,0,0,0,0,0,0,0,0,0,0,
109,-0.7257,8.027,-3.781,-0.5333,-9.615,-3.013,-16.02,-0.9254,2.49,-2.145,-5.661,2.714,-6.395,5.152,6.133,-4.948,0,0,0,0,0,0,0,0,0,0,0,0,0,0,0,0,
110,2.207,13.29,-1.266,1.704,-10.96,0.1545,-19.46,-1.116,-0.2579,-4.213,-13.75,0.2809,-17.96,-2.014,-5.307,-11.82,0,0,0,0,0,0,0,0,0,0,0,0,0,0,0,0,
111,5.339,19.58,-0.8476,4.508,-11.42,0.9499,-27.88,-1.954,-7.94,-9.197,-25.11,-1.14,-32.44,-8.686,-20.68,-17.98,0,0,0,0,0,0,0,0,0,0,0,0,0,0,0,0,
112,-0.9572,17.9,-2.737,3.331,-12.99,-3.278,-35.0,-1.755,-18.61,-16.77,-30.83,-4.467,-39.37,-13.34,-27.5,-21.05,0,0,0,0,0,0,0,0,0,0,0,0,0,0,0,0,
113,-4.836,14.08,-5.926,-0.6717,-16.8,-8.835,-35.61,-1.152,-21.89,-20.08,-27.57,-8.908,-36.62,-15.75,-23.78,-22.27,0,0,0,0,0,0,0,0,0,0,0,0,0,0,0,0,
114,-1.113,14.89,-7.707,-2.292,-17.93,-12.07,-30.84,-4.335,-18.73,-19.23,-19.9,-13.26,-29.15,-15.87,-17.97,-24.09,0,0,0,0,0,0,0,0,0,0,0,0,0,0,0,0,
115,-1.551,12.65,-9.993,-1.786,-17.5,-11.38,-27.99,-7.712,-15.41,-16.61,-14.16,-17.65,-22.67,-14.87,-15.95,-25.5,0,0,0,0,0,0,0,0,0,0,0,0,0,0,0,0,
116,-8.537,6.121,-15.91,-3.2,-21.22,-10.74,-30.7,-8.168,-15.22,-14.22,-14.83,-18.52,-22.7,-14.97,-16.33,-23.61,0,0,0,0,0,0,0,0,0,0,0,0,0,0,0,0,
117,-14.92,2.683,-20.67,-4.503,-25.28,-13.84,-30.34,-10.88,-18.68,-15.58,-17.28,-14.29,-25.42,-14.73,-11.48,-17.06,0,0,0,0,0,0,0,0,0,0,0,0,0,0,0,0,
118,-17.1,1.829,-22.37,-4.042,-25.49,-18.41,-24.46,-12.23,-21.01,-18.39,-15.27,-10.96,-24.82,-12.99,-3.306,-9.521,0,0,0,0,0,0,0,0,0,0,0,0,0,0,0,0,
119,-18.72,-1.646,-24.85,-8.047,-27.15,-24.0,-25.07,-6.698,-21.01,-21.6,-12.78,-8.77,-22.39,-10.25,-1.241,-5.686,0,0,0,0,0,0,0,0,0,0,0,0,0,0,0,0,
120,-22.25,-7.093,-23.38,-14.82,-30.04,-28.77,-28.88,-2.33,-20.86,-26.23,-11.46,-3.205,-17.52,-3.966,-0.6541,-1.08,0,0,0,0,0,0,0,0,0,0,0,0,0,0,0,0,
121,-20.07,-6.89,-14.27,-13.88,-26.1,-26.96,-22.71,-2.879,-16.59,-25.4,-7.257,-1.017,-10.98,2.474,1.414,3.491,0,0,0,0,0,0,0,0,0,0,0,0,0,0,0,0,
122,-10.16,0.521,-6.333,-7.525,-17.6,-19.97,-14.61,-2.783,-9.915,-19.39,-2.091,-6.565,-7.102,2.776,0.4448,0.2437,0,0,0,0,0,0,0,0,0,0,0,0,0,0,0,0,
123,-2.924,5.58,-3.367,-5.327,-13.06,-13.77,-11.57,-2.085,-6.672,-16.55,-0.132,-11.42,-5.548,0.5097,-0.4043,-6.272,0,0,0,0,0,0,0,0,0,0,0,0,0,0,0,0,
124,-1.729,6.358,-1.119,-5.656,-11.64,-10.84,-7.079,-2.474,-4.736,-14.96,-3.796,-13.72,-9.301,-3.726,-5.127,-13.05,0,0,0,0,0,0,0,0,0,0,0,0,0,0,0,0,
125,-0.9774,10.07,1.164,-3.051,-10.16,-10.16,-6.425,-2.796,-6.191,-13.31,-10.01,-17.7,-18.35,-13.47,-13.25,-19.81,0,0,0,0,0,0,0,0,0,0,0,0,0,0,0,0,
126,-0.4917,13.97,3.032,-0.6108,-11.66,-8.876,-12.15,-2.555,-12.81,-15.94,-11.8,-22.27,-24.28,-22.67,-14.93,-21.7,0,0,0,0,0,0,0,0,0,0,0,0,0,0,0,0,
127,-3.916,13.42,3.243,-1.993,-16.94,-8.509,-13.61,-1.278,-17.03,-19.4,-14.87,-25.85,-30.62,-27.33,-21.53,-26.03,0,0,0,0,0,0,0,0,0,0,0,0,0,0,0,0,
128,-7.091,14.56,2.73,-2.504,-19.67,-11.21,-11.88,-0.1443,-20.7,-20.13,-24.67,-25.33,-40.49,-29.06,-34.18,-30.58,0,0,0,0,0,0,0,0,0,0,0,0,0,0,0,0,
129,-4.892,16.01,2.758,-1.351,-18.14,-12.64,-13.86,-0.4326,-28.09,-20.63,-30.14,-20.83,-43.32,-27.76,-34.75,-23.93,0,0,0,0,0,0,0,0,0,0,0,0,0,0,0,0,
130,-3.551,8.965,-3.793,-4.572,-19.94,-11.77,-18.7,-0.862,-31.01,-21.38,-28.18,-20.99,-40.29,-27.84,-32.12,-20.83,0,0,0,0,0,0,0,0,0,0,0,0,0,0,0,0,
131,-7.637,1.04,-13.75,-7.722,-24.64,-12.26,-22.75,-0.2618,-28.43,-21.39,-24.83,-24.36,-37.86,-29.93,-33.78,-25.13,0,0,0,0,0,0,0,0,0,0,0,0,0,0,0,0,
132,-11.61,1.559,-12.85,-5.41,-24.04,-14.03,-20.37,1.574,-27.49,-21.18,-19.72,-21.59,-32.72,-27.56,-29.18,-19.87,0,0,0,0,0,0,0,0,0,0,0,0,0,0,0,0,
133,-11.94,3.403,-7.883,-5.759,-22.05,-16.57,-15.03,1.08,-27.61,-22.07,-16.66,-18.33,-28.3,-24.79,-24.41,-15.94,0,0,0,0,0,0,0,0,0,0,0,0,0,0,0,0,
134,-10.08,3.755,-10.61,-10.24,-24.48,-18.78,-16.04,-3.798,-26.95,-23.56,-15.33,-21.83,-27.22,-27.17,-23.35,-24.03,0,0,0,0,0,0,0,0,0,0,0,0,0,0,0,0,
135,-9.356,6.143,-11.87,-11.47,-24.59,-17.87,-17.31,-4.806,-25.71,-23.21,-7.872,-24.25,-22.9,-26.42,-19.93,-25.77,0,0,0,0,0,0,0,0,0,0,0,0,0,0,0,0,
136,-9.975,7.798,-7.269,-11.54,-20.77,-16.01,-13.89,0.2232,-22.84,-21.9,-1.319,-20.58,-16.79,-17.2,-17.19,-15.68,0,0,0,0,0,0,0,0,0,0,0,0,0,0,0,0,
137,-7.186,9.584,-5.227,-12.38,-20.33,-15.53,-13.63,1.376,-20.2,-21.07,-2.085,-16.45,-13.44,-8.339,-14.06,-8.214,0,0,0,0,0,0,0,0,0,0,0,0,0,0,0,0,
138,-3.465,13.18,-5.059,-10.98,-22.89,-14.67,-15.59,-1.378,-20.89,-20.21,-2.346,-16.0,-13.32,-8.382,-10.31,-7.047,0,0,0,0,0,0,0,0,0,0,0,0,0,0,0,0,
139,-6.107,12.69,-3.279,-11.39,-25.56,-16.16,-18.07,-2.52,-26.55,-22.71,-3.869,-19.32,-19.41,-14.19,-13.42,-7.273,0,0,0,0,0,0,0,0,0,0,0,0,0,0,0,0,
140,-11.03,8.644,-4.503,-15.18,-30.56,-21.9,-24.98,-4.075,-36.22,-29.36,-9.943,-23.23,-27.55,-18.59,-17.45,-8.667,0,0,0,0,0,0,0,0,0,0,0,0,0,0,0,0,
141,-9.172,9.364,-5.784,-15.05,-33.28,-23.5,-25.49,-4.934,-42.39,-32.92,-10.51,-23.87,-27.63,-21.41,-13.08,-8.086,0,0,0,0,0,0,0,0,0,0,0,0,0,0,0,0,
142,-4.566,13.41,0.6632,-11.13,-27.61,-17.41,-13.33,-3.646,-39.28,-31.15,-4.033,-23.47,-22.15,-24.69,-9.002,-2.763,0,0,0,0,0,0,0,0,0,0,0,0,0,0,0,0,
143,-7.364,11.62,5.221,-11.08,-23.38,-13.28,-6.877,-4.479,-32.2,-28.67,-0.8806,-23.25,-20.79,-25.88,-12.63,0.5627,0,0,0,0,0,0,0,0,0,0,0,0,0,0,0,0,
144,-11.96,5.124,-0.6293,-14.6,-28.1,-15.99,-14.67,-7.476,-28.83,-28.03,-5.88,-21.67,-25.21,-26.51,-17.91,-1.521,0,0,0,0,0,0,0,0,0,0,0,0,0,0,0,0,
145,-10.37,1.273,-4.616,-17.01,-31.21,-19.41,-22.25,-10.59,-30.12,-30.59,-14.66,-24.66,-30.38,-32.02,-23.16,-8.566,0,0,0,0,0,0,0,0,0,0,0,0,0,0,0,0,
146,-10.4,-1.467,-0.1224,-18.19,-27.75,-18.48,-21.43,-13.38,-31.34,-33.71,-17.69,-31.43,-29.61,-36.59,-26.85,-17.64,0,0,0,0,0,0,0,0,0,0,0,0,0,0,0,0,
147,-10.1,-3.451,7.962,-16.15,-22.18,-12.75,-17.17,-13.18,-27.47,-29.48,-12.92,-30.93,-21.11,-31.77,-22.09,-16.51,0,0,0,0,0,0,0,0,0,0,0,0,0,0,0,0,
148,-1.512,0.6296,17.05,-9.114,-14.79,-4.37,-12.86,-9.593,-20.81,-18.74,-7.219,-26.94,-11.52,-24.92,-14.67,-7.002,0,0,0,0,0,0,0,0,0,0,0,0,0,0,0,0,
149,3.933,6.777,22.28,-3.492,-9.2,3.736,-7.12,-5.298,-16.42,-10.98,-1.118,-25.98,-4.617,-21.21,-9.739,-2.627,0,0,0,0,0,0,0,0,0,0,0,0,0,0,0,0,
150,5.295,11.0,25.8,-1.38,-6.082,11.29,-0.3618,-3.532,-12.6,-6.052,5.141,-21.18,2.193,-12.56,-2.222,0.2656,0,0,0,0,0,0,0,0,0,0,0,0,0,0,0,0,
151,14.43,18.03,32.68,2.162,0.1007,16.56,3.353,-5.648,-7.739,1.459,7.276,-15.3,7.839,-1.358,2.99,6.163,0,0,0,0,0,0,0,0,0,0,0,0,0,0,0,0,
152,19.99,23.33,33.31,2.508,2.359,14.53,2.971,-6.17,-4.329,6.142,9.496,-14.08,11.29,3.123,6.344,12.13,0,0,0,0,0,0,0,0,0,0,0,0,0,0,0,0,
153,12.94,18.56,25.7,-4.022,-4.346,7.17,1.031,-3.022,-3.037,3.136,13.85,-10.43,16.3,5.125,14.75,18.99,0,0,0,0,0,0,0,0,0,0,0,0,0,0,0,0,
154,7.383,12.03,21.58,-7.446,-8.246,2.73,-0.9763,-2.567,-3.874,0.0972,15.69,-4.238,22.63,9.235,19.32,24.47,0,0,0,0,0,0,0,0,0,0,0,0,0,0,0,0,
155,8.873,13.78,22.63,-5.472,-5.1,2.965,0.2148,-3.891,-3.611,2.416,17.63,0.2129,26.75,12.14,17.98,28.77,0,0,0,0,0,0,0,0,0,0,0,0,0,0,0,0,
156,10.18,17.78,24.32,-5.716,-2.294,4.786,4.128,-2.394,1.623,5.878,18.58,4.766,26.81,13.19,16.75,32.32,0,0,0,0,0,0,0,0,0,0,0,0,0,0,0,0,
157,9.183,18.02,21.27,-6.72,-3.159,6.63,1.95,-1.47,3.296,7.387,13.64,5.553,22.04,11.37,11.79,29.57,0,0,0,0,0,0,0,0,0,0,0,0,0,0,0,0,
158,7.764,17.69,13.12,-6.47,-5.814,6.291,-4.845,-3.029,-3.898,6.647,10.64,1.742,16.85,4.997,7.665,23.51,0,0,0,0,0,0,0,0,0,0,0,0,0,0,0,0,
159,7.406,16.19,12.75,-7.311,-6.046,4.795,-5.153,-4.828,-6.544,3.411,12.19,-0.6176,15.31,-2.303,8.591,18.56,0,0,0,0,0,0,0,0,0,0,0,0,0,0,0,0,
160,7.858,12.98,17.91,-6.447,-5.353,5.928,-3.433,-5.703,-2.309,-0.3245,7.877,-4.218,11.12,-9.705,4.761,11.38,0,0,0,0,0,0,0,0,0,0,0,0,0,0,0,0,
161,8.454,13.87,11.5,-4.453,-7.986,7.573,-8.47,-4.588,-6.255,-3.354,-1.595,-10.17,1.749,-19.18,-4.11,3.219,0,0,0,0,0,0,0,0,0,0,0,0,0,0,0,0,
162,10.54,16.73,1.853,-4.464,-8.711,8.254,-13.39,-2.947,-14.02,-5.87,-6.352,-12.58,-2.654,-24.76,-8.487,-0.942,0,0,0,0,0,0,0,0,0,0,0,0,0,0,0,0,
163,13.46,14.73,3.731,-3.178,-5.287,9.75,-12.14,-2.185,-11.29,-6.066,-4.065,-12.96,1.716,-22.08,-6.754,0.0647,0,0,0,0,0,0,0,0,0,0,0,0,0,0,0,0,
164,13.17,11.36,8.905,-1.699,-3.757,8.931,-7.624,-1.056,-6.173,-4.28,0.4859,-13.16,7.693,-16.61,-3.376,3.255,0,0,0,0,0,0,0,0,0,0,0,0,0,0,0,0,
165,8.454,11.6,11.41,-2.233,-3.498,7.388,-3.224,0.1946,-6.601,-1.623,1.55,-10.87,12.94,-10.84,-0.2667,7.116,0,0,0,0,0,0,0,0,0,0,0,0,0,0,0,0,
166,4.031,14.04,13.05,0.7977,-2.305,11.14,-1.044,3.521,-3.906,4.464,0.04,-9.387,19.06,-4.382,2.701,12.1,0,0,0,0,0,0,0,0,0,0,0,0,0,0,0,0,
167,5.703,18.03,11.37,5.195,-2.342,14.39,1.817,7.946,0.8023,11.38,1.428,-10.51,23.23,-1.949,2.922,13.95,0,0,0,0,0,0,0,0,0,0,0,0,0,0,0,0,
168,10.05,20.72,9.373,3.031,-4.505,11.05,4.089,5.226,-1.324,13.18,3.034,-10.58,22.75,-3.706,1.094,12.79,0,0,0,0,0,0,0,0,0,0,0,0,0,0,0,0,
169,5.612,14.82,8.748,-2.31,-10.22,6.086,-1.212,0.7686,-7.984,13.25,-0.1872,-9.102,20.13,-3.907,1.333,14.13,0,0,0,0,0,0,0,0,0,0,0,0,0,0,0,0,
170,-3.964,5.232,5.279,-4.878,-16.71,2.471,-6.103,6.331,-13.52,14.78,-2.621,-7.479,20.19,-0.5661,3.66,18.07,0,0,0,0,0,0,0,0,0,0,0,0,0,0,0,0,
171,-3.314,5.739,3.686,-5.346,-16.98,0.0874,-3.448,12.58,-14.54,13.4,0.223,-6.019,22.29,5.103,7.441,24.55,0,0,0,0,0,0,0,0,0,0,0,0,0,0,0,0,
172,1.2,11.51,8.211,-4.117,-12.32,1.731,-2.319,11.31,-11.74,11.66,2.888,-3.706,22.24,10.33,10.29,30.35,0,0,0,0,0,0,0,0,0,0,0,0,0,0,0,0,
173,-1.758,11.44,12.23,-0.9064,-9.071,6.949,-0.9991,10.61,-10.02,15.37,3.291,0.1776,21.48,11.9,8.716,28.62,0,0,0,0,0,0,0,0,0,0,0,0,0,0,0,0,
174,-0.8005,11.46,10.61,1.082,-10.51,9.603,3.695,9.82,-7.495,17.96,2.166,0.947,19.24,8.735,3.872,21.46,0,0,0,0,0,0,0,0,0,0,0,0,0,0,0,0,
175,6.316,13.25,4.734,0.01,-14.26,6.766,2.133,5.433,-4.074,12.92,-2.724,-3.62,10.92,0.9012,-2.113,13.88,0,0,0,0,0,0,0,0,0,0,0,0,0,0,0,0,
176,7.993,12.92,1.956,-0.426,-12.84,4.225,-0.6661,3.652,-6.759,6.891,-6.912,-7.925,2.656,-8.862,-6.198,7.074,0,0,0,0,0,0,0,0,0,0,0,0,0,0,0,0,
177,7.86,17.04,5.711,0.4373,-8.445,4.986,1.612,4.331,-11.15,4.014,-7.049,-11.3,-1.311,-16.63,-9.307,0.3333,0,0,0,0,0,0,0,0,0,0,0,0,0,0,0,0,
178,8.231,22.21,7.002,-1.281,-9.932,4.287,-0.2096,3.022,-12.19,-0.0875,-8.035,-17.18,-8.246,-24.11,-16.29,-7.379,0,0,0,0,0,0,0,0,0,0,0,0,0,0,0,0,
179,4.673,20.0,4.396,-2.683,-11.8,2.956,-1.288,0.634,-14.82,-5.06,-7.353,-23.51,-15.73,-35.31,-22.16,-13.83,0,0,0,0,0,0,0,0,0,0,0,0,0,0,0,0,
180,3.364,18.8,5.199,-0.4728,-8.205,3.868,3.85,-1.541,-14.37,-8.895,-3.471,-27.02,-16.28,-46.31,-22.98,-17.91,0,0,0,0,0,0,0,0,0,0,0,0,0,0,0,0,
181,5.944,21.12,4.997,-0.159,-6.836,3.53,2.059,-2.696,-7.07,-12.66,-4.691,-26.17,-12.79,-47.52,-23.44,-16.8,0,0,0,0,0,0,0,0,0,0,0,0,0,0,0,0,
182,7.965,19.66,3.006,-2.415,-8.426,2.77,-2.6,-2.062,-1.362,-12.69,-7.796,-22.02,-7.041,-38.89,-22.88,-8.686,0,0,0,0,0,0,0,0,0,0,0,0,0,0,0,0,
183,10.56,17.63,7.472,-2.058,-6.564,3.679,3.513,1.788,4.516,-7.275,-4.92,-17.58,1.642,-28.55,-19.93,-1.889,0,0,0,0,0,0,0,0,0,0,0,0,0,0,0,0,
184,9.966,15.97,11.38,-1.967,-3.767,2.021,7.865,6.329,14.52,-1.483,-1.937,-13.54,9.96,-17.67,-15.16,2.309,0,0,0,0,0,0,0,0,0,0,0,0,0,0,0,0,
185,4.803,11.36,7.071,-4.577,-3.46,-0.8729,1.793,4.179,19.84,4.449,-2.277,-11.26,15.8,-6.972,-8.34,6.919,0,0,0,0,0,0,0,0,0,0,0,0,0,0,0,0,
186,3.317,11.01,5.121,-4.022,-4.165,0.1297,-2.241,2.499,19.18,11.81,-1.843,-10.09,18.93,-0.8876,-2.574,7.048,0,0,0,0,0,0,0,0,0,0,0,0,0,0,0,0,
187,4.651,16.58,7.1,-0.0976,-6.532,2.015,-5.211,11.08,18.21,16.24,-1.833,-6.426,20.2,2.812,0.7035,6.652,0,0,0,0,0,0,0,0,0,0,0,0,0,0,0,0,
188,1.558,16.3,0.9071,0.8751,-11.85,0.6361,-13.97,15.88,13.93,15.81,-5.391,-4.536,19.04,3.811,-1.192,6.441,0,0,0,0,0,0,0,0,0,0,0,0,0,0,0,0,
189,-4.171,9.686,-8.898,-0.5649,-17.75,-1.956,-18.9,10.47,5.329,12.16,-11.43,-6.869,12.46,-1.371,-9.13,0.6252,0,0,0,0,0,0,0,0,0,0,0,0,0,0,0,0,
190,-6.953,8.64,-10.21,0.3909,-20.09,-2.019,-16.98,8.183,-1.723,7.347,-14.81,-6.877,5.5,-6.269,-13.36,-2.045,0,0,0,0,0,0,0,0,0,0,0,0,0,0,0,0,
191,-3.855,13.71,-6.932,4.367,-17.57,1.621,-15.05,6.882,-3.34,5.143,-12.83,-7.311,4.911,-8.97,-12.59,-2.216,0,0,0,0,0,0,0,0,0,0,0,0,0,0,0,0,
192,3.285,16.7,-3.965,8.708,-12.66,6.268,-12.21,1.743,0.0825,5.379,-11.96,-13.07,4.952,-15.19,-13.89,-8.559,0,0,0,0,0,0,0,0,0,0,0,0,0,0,0,0,
193,7.481,17.03,0.8782,10.68,-7.192,8.549,-8.859,0.7912,3.219,3.623,-14.06,-16.99,1.909,-20.99,-13.03,-11.39,0,0,0,0,0,0,0,0,0,0,0,0,0,0,0,0,
194,6.769,18.31,6.388,10.68,-2.487,9.226,-4.806,1.328,2.907,0.1816,-9.596,-16.27,1.731,-23.29,-7.635,-8.222,0,0,0,0,0,0,0,0,0,0,0,0,0,0,0,0,
195,6.419,20.14,11.3,9.591,-1.216,9.57,2.434,-0.8758,3.052,-1.991,-0.6769,-15.23,2.357,-27.12,-5.183,-8.301,0,0,0,0,0,0,0,0,0,0,0,0,0,0,0,0,
196,7.659,20.15,13.95,5.748,-2.511,7.404,3.094,-1.144,2.846,-4.734,0.2682,-15.08,-2.505,-31.95,-7.801,-10.39,0,0,0,0,0,0,0,0,0,0,0,0,0,0,0,0,
197,9.15,20.2,14.43,3.232,-1.366,4.267,-2.691,-2.057,-0.9666,-9.806,-3.191,-18.34,-8.613,-35.22,-11.54,-12.9,0,0,0,0,0,0,0,0,0,0,0,0,0,0,0,0,
198,12.3,24.09,18.22,7.042,3.158,5.729,0.8708,-3.822,-2.655,-13.66,-2.506,-24.21,-12.02,-39.34,-16.44,-18.66,0,0,0,0,0,0,0,0,0,0,0,0,0,0,0,0,
199,14.64,27.82,20.79,10.48,5.662,10.19,6.181,-2.084,0.1541,-13.42,-2.215,-25.44,-15.27,-43.16,-22.6,-25.66,0,0,0,0,0,0,0,0,0,0,0,0,0,0,0,0,
200,13.89,26.61,18.42,9.025,4.422,12.52,1.069,-2.443,2.568,-9.854,-4.07,-22.12,-16.3,-41.3,-23.39,-27.15,0,0,0,0,0,0,0,0,0,0,0,0,0,0,0,0,
201,13.95,25.39,20.62,8.046,4.003,12.61,-1.331,-4.709,6.797,-4.969,-3.924,-20.42,-12.55,-34.93,-18.34,-21.17,0,0,0,0,0,0,0,0,0,0,0,0,0,0,0,0,
202,14.32,25.21,21.46,8.056,4.13,10.18,1.507,-1.884,13.97,-2.859,-3.29,-21.06,-8.494,-32.09,-15.44,-16.49,0,0,0,0,0,0,0,0,0,0,0,0,0,0,0,0,
203,12.7,21.53,13.74,7.573,3.117,6.8,0.2725,0.4186,16.54,-4.941,-3.137,-21.88,-7.793,-34.01,-16.65,-17.98,0,0,0,0,0,0,0,0,0,0,0,0,0,0,0,0,
204,12.8,17.8,12.22,8.623,3.888,7.264,0.9858,-0.7601,14.12,-5.328,-3.43,-19.7,-9.291,-32.16,-20.68,-18.45,0,0,0,0,0,0,0,0,0,0,0,0,0,0,0,0,
205,12.39,15.16,14.71,10.0,2.631,8.715,3.031,0.9837,11.61,-1.286,-7.075,-13.46,-10.15,-23.82,-23.17,-13.4,0,0,0,0,0,0,0,0,0,0,0,0,0,0,0,0,
206,8.99,11.34,10.73,12.56,-1.472,9.291,0.2944,3.317,8.08,2.232,-11.63,-10.73,-8.352,-17.25,-19.67,-9.594,0,0,0,0,0,0,0,0,0,0,0,0,0,0,0,0,
207,12.85,15.57,12.68,19.06,2.601,16.84,2.052,4.441,6.634,4.677,-12.46,-13.59,-5.308,-16.02,-17.26,-12.14,0,0,0,0,0,0,0,0,0,0,0,0,0,0,0,0,
208,24.96,28.88,18.96,25.77,11.46,29.17,7.529,9.184,11.24,10.33,-11.28,-11.99,-3.158,-14.08,-17.64,-13.32,0,0,0,0,0,0,0,0,0,0,0,0,0,0,0,0,
209,33.72,38.73,19.17,31.83,15.45,35.83,7.094,14.5,14.43,16.92,-9.716,-6.148,-0.995,-9.242,-14.68,-9.511,0,0,0,0,0,0,0,0,0,0,0,0,0,0,0,0,
210,45.44,51.62,27.8,41.36,24.06,40.39,10.39,16.47,13.4,20.54,-7.116,-5.098,2.16,-5.664,-13.2,-8.389,0,0,0,0,0,0,0,0,0,0,0,0,0,0,0,0,
211,68.99,75.26,46.78,50.2,38.67,48.52,20.19,17.64,15.44,23.59,-7.581,-6.478,2.881,-4.955,-15.67,-10.72,0,0,0,0,0,0,0,0,0,0,0,0,0,0,0,0,
212,88.56,94.23,55.95,54.14,46.25,55.73,20.01,18.17,18.38,25.49,-14.11,-5.63,-2.189,-5.64,-17.23,-13.36,0,0,0,0,0,0,0,0,0,0,0,0,0,0,0,0,
213,98.59,109.9,55.76,60.87,49.95,62.27,11.53,18.31,17.36,22.87,-20.2,-6.02,-7.504,-6.71,-17.01,-16.5,0,0,0,0,0,0,0,0,0,0,0,0,0,0,0,0,
214,116.3,134.7,61.92,73.12,57.17,70.01,10.67,20.07,16.68,20.16,-21.29,-8.339,-6.88,-8.566,-15.14,-18.13,0,0,0,0,0,0,0,0,0,0,0,0,0,0,0,0,
215,136.8,151.5,74.38,80.6,63.42,73.09,17.67,20.93,17.13,20.17,-19.63,-7.05,-4.007,-9.436,-12.1,-15.58,0,0,0,0,0,0,0,0,0,0,0,0,0,0,0,0,
216,141.4,150.3,79.17,80.13,65.47,71.06,24.76,19.33,16.66,19.51,-13.33,-0.2427,-0.7557,-4.769,-5.404,-7.134,0,0,0,0,0,0,0,0,0,0,0,0,0,0,0,0,
217,138.2,148.5,75.32,79.91,64.54,70.49,28.25,19.8,18.58,21.4,-3.922,5.626,6.923,2.802,4.925,0.5157,0,0,0,0,0,0,0,0,0,0,0,0,0,0,0,0,
218,141.2,150.2,77.71,82.32,65.1,72.37,28.0,23.15,25.13,28.81,1.35,6.614,17.42,6.793,9.504,0.7048,0,0,0,0,0,0,0,0,0,0,0,0,0,0,0,0,
219,142.9,148.0,82.2,82.26,68.96,73.39,27.99,22.13,33.79,34.69,4.806,8.199,24.13,9.249,8.474,2.964,0,0,0,0,0,0,0,0,0,0,0,0,0,0,0,0,
220,133.4,141.7,75.51,78.99,68.93,72.86,29.37,17.27,36.53,35.48,7.942,12.07,23.8,12.5,9.755,8.765,0,0,0,0,0,0,0,0,0,0,0,0,0,0,0,0,
221,120.0,132.5,71.09,77.18,65.3,73.37,30.34,19.52,31.12,36.06,6.22,12.97,21.83,13.75,12.22,9.291,0,0,0,0,0,0,0,0,0,0,0,0,0,0,0,0,
222,114.1,123.7,75.91,77.41,65.86,74.6,33.02,26.4,30.92,38.02,5.828,11.42,25.08,13.32,14.27,9.522,0,0,0,0,0,0,0,0,0,0,0,0,0,0,0,0,
223,113.0,120.2,75.4,75.56,67.9,72.6,36.67,26.05,38.82,38.67,9.915,11.57,28.59,13.52,16.12,11.34,0,0,0,0,0,0,0,0,0,0,0,0,0,0,0,0,
224,110.0,121.3,73.87,72.19,67.7,70.06,35.07,22.62,40.3,39.02,8.245,11.35,25.55,13.22,14.75,9.732,0,0,0,0,0,0,0,0,0,0,0,0,0,0,0,0,
225,107.5,118.6,75.85,70.11,67.25,70.92,29.28,21.79,34.63,38.95,1.463,6.614,20.59,8.034,9.609,5.588,0,0,0,0,0,0,0,0,0,0,0,0,0,0,0,0,
226,104.2,106.9,70.75,67.35,65.99,70.4,29.15,18.21,31.67,33.89,1.253,1.074,19.81,0.7014,6.282,0.0076,0,0,0,0,0,0,0,0,0,0,0,0,0,0,0,0,
227,98.42,98.19,67.57,62.77,63.88,66.53,35.64,15.5,31.5,28.11,6.374,1.968,21.22,1.942,8.224,-1.528,0,0,0,0,0,0,0,0,0,0,0,0,0,0,0,0,
228,92.5,96.74,70.03,58.2,60.78,62.68,36.53,17.59,29.37,27.99,6.268,6.104,19.59,8.945,9.231,3.017,0,0,0,0,0,0,0,0,0,0,0,0,0,0,0,0,
229,83.85,89.58,62.86,53.7,56.9,57.54,30.41,15.7,24.74,25.41,2.962,6.019,17.95,11.22,9.239,7.087,0,0,0,0,0,0,0,0,0,0,0,0,0,0,0,0,
230,75.72,81.56,55.5,48.54,55.79,50.23,28.75,11.22,23.78,16.9,4.904,4.145,21.87,10.95,13.42,9.394,0,0,0,0,0,0,0,0,0,0,0,0,0,0,0,0,
231,73.95,79.15,57.55,43.67,54.48,44.58,31.2,10.63,26.54,11.34,7.226,3.846,24.19,9.347,13.95,8.204,0,0,0,0,0,0,0,0,0,0,0,0,0,0,0,0,
232,69.68,71.03,54.88,41.8,49.15,42.32,32.11,7.65,23.37,9.302,6.361,3.154,22.22,6.804,11.97,6.883,0,0,0,0,0,0,0,0,0,0,0,0,0,0,0,0,
233,59.05,60.43,49.21,42.23,44.89,40.78,31.93,4.918,18.25,9.183,8.873,4.2,24.62,11.12,16.85,13.26,0,0,0,0,0,0,0,0,0,0,0,0,0,0,0,0,
234,50.0,54.39,46.54,39.27,41.2,37.66,27.34,10.33,17.92,11.78,10.15,9.052,26.02,17.2,18.29,17.59,0,0,0,0,0,0,0,0,0,0,0,0,0,0,0,0,
235,43.44,46.13,39.0,32.35,34.71,35.33,22.2,13.0,12.95,11.74,5.015,13.15,20.5,16.72,13.47,15.47,0,0,0,0,0,0,0,0,0,0,0,0,0,0,0,0,
236,38.59,38.82,32.21,27.15,30.96,35.29,25.28,8.447,5.666,11.24,2.797,13.07,17.64,15.66,13.41,15.82,0,0,0,0,0,0,0,0,0,0,0,0,0,0,0,0,
237,35.37,34.92,32.05,26.53,29.71,33.62,27.21,7.564,7.05,14.69,4.118,8.887,15.53,12.27,12.06,11.9,0,0,0,0,0,0,0,0,0,0,0,0,0,0,0,0,
238,29.2,26.75,28.11,28.31,24.03,30.02,21.55,8.729,7.848,13.84,2.05,3.854,7.585,2.983,5.72,2.557,0,0,0,0,0,0,0,0,0,0,0,0,0,0,0,0,
239,20.77,18.15,21.58,27.29,18.18,29.06,20.1,8.65,2.193,9.251,1.268,4.195,3.874,-0.9882,5.367,1.781,0,0,0,0,0,0,0,0,0,0,0,0,0,0,0,0,
240,14.97,13.39,23.26,22.38,18.58,29.84,23.38,10.97,0.7825,10.06,4.345,7.541,7.551,1.028,10.7,5.256,0,0,0,0,0,0,0,0,0,0,0,0,0,0,0,0,
241,12.73,7.454,26.89,19.4,19.38,28.76,22.44,10.69,4.758,12.5,5.589,6.659,10.07,0.6988,13.64,2.274,0,0,0,0,0,0,0,0,0,0,0,0,0,0,0,0,
242,13.71,4.774,23.69,19.79,17.62,29.17,20.62,8.814,9.5,15.26,5.371,5.328,12.74,2.821,14.45,-0.4466,0,0,0,0,0,0,0,0,0,0,0,0,0,0,0,0,
243,14.78,9.769,22.57,19.48,20.51,32.84,21.77,11.55,16.47,22.15,6.252,5.945,17.21,7.577,13.92,0.9933,0,0,0,0,0,0,0,0,0,0,0,0,0,0,0,0,
244,10.54,10.48,24.9,17.37,24.65,31.99,21.8,11.14,20.54,24.46,6.397,2.782,17.93,7.641,11.02,0.3753,0,0,0,0,0,0,0,0,0,0,0,0,0,0,0,0,
245,3.823,0.8551,19.2,13.54,20.38,24.85,20.26,6.859,15.93,18.57,7.744,0.2268,18.65,8.845,13.1,1.885,0,0,0,0,0,0,0,0,0,0,0,0,0,0,0,0,
246,1.143,-7.827,12.57,8.095,14.97,19.36,21.38,6.102,12.46,13.85,14.02,4.196,27.08,15.95,23.98,11.01,0,0,0,0,0,0,0,0,0,0,0,0,0,0,0,0,
247,-0.1786,-11.38,15.23,4.023,17.05,17.29,27.24,3.428,20.07,12.49,21.96,8.579,37.23,21.77,33.71,18.71,0,0,0,0,0,0,0,0,0,0,0,0,0,0,0,0,
248,-2.32,-14.85,19.04,3.608,20.06,17.5,34.03,0.6381,31.01,13.6,25.97,10.87,39.63,24.86,37.0,21.19,0,0,0,0,0,0,0,0,0,0,0,0,0,0,0,0,
249,-4.423,-18.05,19.52,3.227,17.9,18.43,34.99,5.189,34.06,16.95,23.9,13.06,35.98,27.67,34.34,22.23,0,0,0,0,0,0,0,0,0,0,0,0,0,0,0,0,
250,-12.92,-24.35,15.75,-1.61,10.86,13.61,30.94,6.783,29.59,15.72,17.71,12.61,31.64,26.63,27.89,19.57,0,0,0,0,0,0,0,0,0,0,0,0,0,0,0,0,
251,-23.44,-34.57,8.177,-6.269,4.508,7.678,28.14,2.113,22.69,11.14,12.85,10.2,27.43,20.9,27.12,16.94,0,0,0,0,0,0,0,0,0,0,0,0,0,0,0,0,
252,-22.88,-37.17,7.299,-4.571,6.609,10.1,25.5,2.194,16.33,11.54,10.28,6.464,22.24,14.74,27.21,17.33,0,0,0,0,0,0,0,0,0,0,0,0,0,0,0,0,
253,-20.15,-34.58,9.305,-2.374,9.7,11.5,20.02,4.15,11.46,12.64,5.99,-0.9733,15.82,9.132,16.56,12.91,0,0,0,0,0,0,0,0,0,0,0,0,0,0,0,0,
254,-25.46,-40.63,0.9324,-5.949,1.835,4.082,15.19,2.357,5.238,8.89,2.231,-4.883,10.43,4.162,8.773,7.17,0,0,0,0,0,0,0,0,0,0,0,0,0,0,0,0,
255,-29.06,-47.53,-8.681,-9.648,-7.378,-2.281,13.22,1.589,-2.546,5.796,3.976,0.5351,9.393,3.88,13.05,9.305,0,0,0,0,0,0,0,0,0,0,0,0,0,0,0,0,
256,-28.41,-45.09,-9.884,-9.667,-6.809,-3.374,13.54,1.359,-4.997,7.235,8.37,4.372,12.18,8.335,15.61,12.07,0,0,0,0,0,0,0,0,0,0,0,0,0,0,0,0,
257,-29.05,-43.45,-11.87,-10.18,-4.534,-3.026,16.13,0.0105,-1.534,10.64,10.87,1.421,15.95,11.6,14.05,9.166,0,0,0,0,0,0,0,0,0,0,0,0,0,0,0,0,
258,-29.56,-43.65,-17.14,-10.22,-5.413,-0.8332,17.68,0.8192,1.375,13.17,11.82,0.944,19.2,13.15,15.1,7.818,0,0,0,0,0,0,0,0,0,0,0,0,0,0,0,0,
259,-30.25,-36.92,-18.27,-6.267,-3.787,1.64,15.51,2.238,4.321,14.8,11.36,3.464,19.6,15.78,14.17,9.079,0,0,0,0,0,0,0,0,0,0,0,0,0,0,0,0,
260,-30.85,-33.11,-16.8,-2.514,0.0916,1.979,14.55,2.41,8.981,16.9,10.72,4.971,18.45,19.27,12.08,7.758,0,0,0,0,0,0,0,0,0,0,0,0,0,0,0,0,
261,-26.94,-38.17,-14.61,-2.264,3.919,2.603,17.62,2.073,12.14,17.68,13.91,8.914,21.1,24.8,18.7,10.02,0,0,0,0,0,0,0,0,0,0,0,0,0,0,0,0,
262,-21.35,-38.52,-6.944,-3.708,7.361,2.538,19.14,0.1294,12.52,13.64,18.63,12.2,24.81,28.88,28.91,18.92,0,0,0,0,0,0,0,0,0,0,0,0,0,0,0,0,
263,-18.82,-32.49,0.3279,-5.863,7.303,-0.8077,19.08,-1.123,11.05,5.407,21.47,9.485,26.24,24.43,32.32,23.33,0,0,0,0,0,0,0,0,0,0,0,0,0,0,0,0,
264,-15.88,-27.03,-0.0837,-5.16,6.569,-3.076,21.62,-2.58,12.81,-2.186,24.2,4.524,28.79,15.93,30.87,19.51,0,0,0,0,0,0,0,0,0,0,0,0,0,0,0,0,
265,-13.43,-21.65,-0.1008,-0.5004,8.784,-2.518,20.76,-9.523,18.59,-5.99,20.3,-1.366,25.21,9.665,21.52,12.44,0,0,0,0,0,0,0,0,0,0,0,0,0,0,0,0,
266,-18.25,-21.85,1.511,1.366,6.285,-3.575,15.11,-13.29,16.41,-7.586,7.244,-6.866,10.83,3.024,6.413,6.516,0,0,0,0,0,0,0,0,0,0,0,0,0,0,0,0,
267,-25.09,-28.85,-3.257,0.1732,-2.289,-5.685,14.19,-6.556,6.052,-8.545,0.4456,-6.652,1.068,-2.363,2.368,5.761,0,0,0,0,0,0,0,0,0,0,0,0,0,0,0,0,
268,-26.63,-33.22,-10.17,0.5513,-7.443,-6.941,15.34,-2.074,0.4784,-8.245,1.743,-4.782,-0.5756,-2.313,3.607,4.944,0,0,0,0,0,0,0,0,0,0,0,0,0,0,0,0,
269,-27.57,-35.29,-13.98,-0.344,-9.236,-9.645,10.88,-4.037,-2.895,-7.014,-1.041,-6.439,-5.452,-1.23,-3.785,-1.224,0,0,0,0,0,0,0,0,0,0,0,0,0,0,0,0,
270,-30.49,-38.74,-17.29,-3.368,-11.93,-13.26,5.623,-3.089,-8.559,-5.462,-4.014,-7.928,-10.61,-3.453,-10.12,-8.144,0,0,0,0,0,0,0,0,0,0,0,0,0,0,0,0,
271,-34.39,-41.9,-21.68,-5.71,-14.11,-16.21,3.848,-1.466,-10.63,-3.102,-2.608,-7.639,-11.82,-3.911,-11.74,-11.95,0,0,0,0,0,0,0,0,0,0,0,0,0,0,0,0,
272,-39.19,-44.11,-27.04,-9.457,-17.75,-19.76,2.701,-2.834,-12.2,0.2537,-2.772,-5.044,-12.59,1.659,-13.15,-8.986,0,0,0,0,0,0,0,0,0,0,0,0,0,0,0,0,
273,-41.54,-43.71,-30.02,-13.56,-23.19,-21.91,-0.6742,-2.553,-15.99,2.91,-3.222,0.1029,-9.538,7.397,-9.668,-1.409,0,0,0,0,0,0,0,0,0,0,0,0,0,0,0,0,
274,-43.09,-42.27,-29.49,-12.47,-22.86,-18.31,-2.985,-0.8708,-13.75,3.513,0.994,1.944,-0.7926,9.541,-0.9926,3.711,0,0,0,0,0,0,0,0,0,0,0,0,0,0,0,0,
275,-43.72,-40.32,-29.44,-7.668,-16.14,-10.08,0.9646,-0.8848,-6.303,5.389,7.329,-0.0094,6.912,11.27,8.052,8.196,0,0,0,0,0,0,0,0,0,0,0,0,0,0,0,0,
276,-36.12,-32.38,-27.18,-5.213,-11.0,-3.57,2.047,-2.285,-3.274,9.127,8.696,0.2176,8.658,10.58,11.2,10.57,0,0,0,0,0,0,0,0,0,0,0,0,0,0,0,0,
277,-25.1,-24.16,-19.97,-5.414,-7.683,-2.317,-4.943,-4.729,-5.525,6.356,5.468,1.932,6.256,6.762,8.994,10.8,0,0,0,0,0,0,0,0,0,0,0,0,0,0,0,0,
278,-18.84,-23.62,-14.2,-4.798,-2.773,-3.496,-3.834,-8.44,-7.949,-5.352,6.672,3.005,5.527,5.032,11.47,16.25,0,0,0,0,0,0,0,0,0,0,0,0,0,0,0,0,
279,-15.72,-24.56,-12.05,-4.268,-0.7519,-3.403,4.063,-12.77,-8.158,-16.42,10.06,3.022,7.289,1.7,13.52,17.55,0,0,0,0,0,0,0,0,0,0,0,0,0,0,0,0,
280,-16.52,-25.04,-8.765,-6.284,-1.887,-2.467,1.791,-16.32,-5.113,-22.05,7.095,-1.215,5.99,-7.655,6.299,9.303,0,0,0,0,0,0,0,0,0,0,0,0,0,0,0,0,
281,-18.67,-27.82,-3.446,-7.633,1.119,-2.446,-0.4617,-17.81,0.7641,-25.52,3.383,-6.773,1.231,-15.03,-0.9824,4.593,0,0,0,0,0,0,0,0,0,0,0,0,0,0,0,0,
282,-16.82,-28.41,-0.7105,-5.113,4.994,-1.977,6.184,-15.92,5.952,-26.1,2.245,-7.901,-2.977,-15.6,-2.717,2.836,0,0,0,0,0,0,0,0,0,0,0,0,0,0,0,0,
283,-15.86,-27.17,-4.443,-2.426,2.577,-0.3002,6.067,-12.6,8.178,-21.37,-2.84,-7.435,-6.092,-12.34,-1.421,1.706,0,0,0,0,0,0,0,0,0,0,0,0,0,0,0,0,
284,-17.96,-27.9,-10.82,-2.506,-0.0903,0.3816,-0.3109,-11.37,9.54,-14.22,-6.957,-5.464,-5.071,-4.371,2.931,8.845,0,0,0,0,0,0,0,0,0,0,0,0,0,0,0,0,
285,-18.68,-27.75,-12.54,-2.482,1.56,0.7786,0.1213,-8.088,13.94,-6.965,-2.893,1.079,2.986,6.04,7.167,17.08,0,0,0,0,0,0,0,0,0,0,0,0,0,0,0,0,
286,-20.44,-27.75,-11.08,-2.438,1.369,0.3595,1.074,-2.506,19.79,0.2417,-0.7315,6.126,7.275,9.998,6.323,16.37,0,0,0,0,0,0,0,0,0,0,0,0,0,0,0,0,
287,-26.46,-32.18,-12.27,-5.343,-0.6559,-4.16,-2.518,-4.001,19.65,5.924,-6.64,7.554,1.185,9.139,1.704,13.65,0,0,0,0,0,0,0,0,0,0,0,0,0,0,0,0,
288,-30.87,-35.77,-13.43,-8.678,-0.5036,-8.018,-2.993,-7.25,15.89,10.77,-7.995,9.441,-1.325,10.91,1.138,15.04,0,0,0,0,0,0,0,0,0,0,0,0,0,0,0,0,
289,-29.52,-35.63,-11.09,-10.93,-3.218,-8.486,-3.182,-2.325,16.44,13.76,-2.547,8.328,3.355,10.96,4.108,13.36,0,0,0,0,0,0,0,0,0,0,0,0,0,0,0,0,
290,-28.48,-37.67,-9.682,-13.39,-7.962,-10.19,-7.644,0.8606,16.29,11.48,-2.904,5.812,4.105,8.145,3.166,8.794,0,0,0,0,0,0,0,0,0,0,0,0,0,0,0,0,
291,-27.86,-36.63,-10.49,-11.81,-3.687,-8.178,-8.468,-2.788,14.03,8.303,-5.502,7.785,4.702,9.43,3.737,11.17,0,0,0,0,0,0,0,0,0,0,0,0,0,0,0,0,
292,-19.88,-26.16,-9.123,-6.581,5.11,-1.28,-5.178,-4.54,16.04,5.934,-1.593,7.319,7.491,8.858,8.484,12.22,0,0,0,0,0,0,0,0,0,0,0,0,0,0,0,0,
293,-11.47,-18.94,-6.022,-5.141,4.878,-1.091,-4.989,-4.738,13.69,-1.762,1.957,1.52,3.979,0.8365,8.8,3.892,0,0,0,0,0,0,0,0,0,0,0,0,0,0,0,0,
294,-13.29,-20.38,-5.302,-6.395,1.018,-5.537,-6.473,-7.995,3.045,-9.168,2.054,-2.527,-0.2481,-5.275,6.353,-0.3369,0,0,0,0,0,0,0,0,0,0,0,0,0,0,0,0,
295,-17.88,-20.27,-8.181,-6.821,2.303,-6.073,-7.515,-13.31,-3.088,-9.232,1.713,-5.806,-0.5923,-6.615,4.742,1.461,0,0,0,0,0,0,0,0,0,0,0,0,0,0,0,0,
296,-17.61,-21.05,-12.34,-8.096,1.241,-6.573,-8.62,-16.94,-6.134,-9.929,-1.542,-8.718,-5.134,-8.052,2.05,1.291,0,0,0,0,0,0,0,0,0,0,0,0,0,0,0,0,
297,-18.43,-27.73,-14.94,-8.897,-5.996,-8.439,-9.788,-15.84,-13.51,-13.68,-6.187,-8.884,-11.27,-10.64,-0.0142,0.3886,0,0,0,0,0,0,0,0,0,0,0,0,0,0,0,0,
298,-24.54,-31.15,-14.86,-9.017,-10.69,-9.363,-13.02,-15.04,-17.91,-15.26,-9.027,-12.96,-13.27,-16.18,-1.489,-4.295,0,0,0,0,0,0,0,0,0,0,0,0,0,0,0,0,
299,-29.39,-29.08,-12.12,-10.96,-9.877,-11.02,-13.13,-18.44,-16.89,-17.37,-10.74,-19.76,-13.7,-21.87,-1.741,-10.32,0,0,0,0,0,0,0,0,0,0,0,0,0,0,0,0,
300,-27.42,-29.03,-9.061,-11.74,-8.04,-11.12,-4.557,-18.52,-14.31,-18.77,-8.269,-17.78,-10.09,-20.4,0.8608,-8.295,0,0,0,0,0,0,0,0,0,0,0,0,0,0,0,0,
301,-23.24,-28.75,-7.467,-8.636,-5.122,-7.285,3.48,-12.58,-6.881,-12.96,-1.321,-11.07,-2.777,-13.9,1.797,-4.215,0,0,0,0,0,0,0,0,0,0,0,0,0,0,0,0,
302,-21.8,-25.44,-5.964,-5.527,-2.136,-4.13,4.648,-8.663,2.201,-5.003,1.968,-10.52,-1.043,-10.1,-2.127,-7.193,0,0,0,0,0,0,0,0,0,0,0,0,0,0,0,0,
303,-23.58,-27.16,-5.978,-5.978,-4.714,-5.487,3.713,-10.08,3.793,-3.109,-2.052,-11.54,-3.962,-9.687,-7.425,-12.53,0,0,0,0,0,0,0,0,0,0,0,0,0,0,0,0,
304,-28.18,-33.78,-7.921,-7.788,-9.012,-8.809,1.888,-11.42,2.36,-4.062,-6.865,-7.618,-3.107,-7.83,-7.802,-11.29,0,0,0,0,0,0,0,0,0,0,0,0,0,0,0,0,
305,-31.09,-34.42,-7.295,-7.477,-6.835,-9.362,-0.5518,-8.598,5.399,-2.443,-7.25,-1.821,0.0519,-3.665,-4.596,-4.341,0,0,0,0,0,0,0,0,0,0,0,0,0,0,0,0,
306,-30.12,-29.29,-4.484,-5.142,-1.074,-6.207,-1.817,-4.777,9.006,0.5813,-5.729,3.337,3.225,-0.0634,-5.363,0.9996,0,0,0,0,0,0,0,0,0,0,0,0,0,0,0,0,
307,-28.11,-24.7,-2.057,-2.31,4.037,-1.899,-1.996,-3.181,11.84,1.887,-3.556,6.097,9.189,3.148,-5.517,5.207,0,0,0,0,0,0,0,0,0,0,0,0,0,0,0,0,
308,-21.89,-20.49,1.723,-0.836,8.171,0.3846,1.548,-2.716,14.86,-0.0077,1.602,5.542,13.61,5.613,0.9679,10.25,0,0,0,0,0,0,0,0,0,0,0,0,0,0,0,0,
309,-11.26,-18.01,6.205,-2.371,9.035,-1.119,8.28,-1.962,12.27,-2.504,6.468,6.919,12.05,5.397,5.497,12.49,0,0,0,0,0,0,0,0,0,0,0,0,0,0,0,0,
310,-6.885,-18.61,8.248,-4.868,8.701,-3.57,11.65,0.9675,6.407,-1.384,6.117,8.671,8.757,3.513,3.019,10.07,0,0,0,0,0,0,0,0,0,0,0,0,0,0,0,0,
311,-9.87,-17.71,8.248,-5.645,10.11,-3.905,11.59,2.983,4.619,-0.4779,3.401,2.481,5.741,-0.9391,0.5626,4.215,0,0,0,0,0,0,0,0,0,0,0,0,0,0,0,0,
312,-9.381,-14.41,8.754,-6.269,9.924,-4.869,12.13,-2.822,3.172,-5.563,2.686,-5.3,2.85,-8.378,2.956,0.3273,0,0,0,0,0,0,0,0,0,0,0,0,0,0,0,0,
313,-7.861,-14.5,7.314,-9.66,6.801,-9.851,11.76,-9.334,-0.5305,-12.72,1.825,-5.032,0.7076,-13.18,4.694,0.8811,0,0,0,0,0,0,0,0,0,0,0,0,0,0,0,0,
314,-14.14,-17.17,1.142,-14.6,3.31,-16.92,9.9,-6.506,-3.517,-18.03,-1.02,-1.931,-2.734,-12.82,2.336,2.166,0,0,0,0,0,0,0,0,0,0,0,0,0,0,0,0,
315,-16.98,-15.54,-1.714,-16.09,3.236,-19.39,8.39,-3.136,-4.139,-21.14,-2.195,-0.738,-5.243,-11.47,1.487,2.95,0,0,0,0,0,0,0,0,0,0,0,0,0,0,0,0,
316,-8.774,-12.91,0.766,-12.87,7.508,-14.13,4.454,-6.138,0.3071,-19.21,-3.624,-2.124,-5.459,-13.35,-1.921,-2.263,0,0,0,0,0,0,0,0,0,0,0,0,0,0,0,0,
317,-5.337,-13.31,-2.712,-8.634,9.058,-7.859,-0.9607,-7.091,4.211,-15.79,-9.588,-7.273,-6.683,-15.22,-9.672,-10.83,0,0,0,0,0,0,0,0,0,0,0,0,0,0,0,0,
318,-7.552,-10.99,-7.824,-6.231,8.586,-4.518,2.137,-3.441,3.792,-14.17,-8.93,-7.247,-0.7149,-7.449,-4.167,-4.768,0,0,0,0,0,0,0,0,0,0,0,0,0,0,0,0,
319,-3.385,-9.031,-3.196,-6.867,14.57,-0.2007,13.45,-1.057,12.63,-5.809,3.846,2.162,14.75,5.013,11.14,9.728,0,0,0,0,0,0,0,0,0,0,0,0,0,0,0,0,
320,-3.106,-11.44,1.102,-7.447,16.91,2.218,16.97,-1.481,25.91,4.367,7.826,6.527,18.8,5.108,11.75,11.16,0,0,0,0,0,0,0,0,0,0,0,0,0,0,0,0,
321,-13.21,-10.52,-4.784,-4.22,6.442,-0.9166,8.789,-2.8,20.93,-0.2659,-2.829,1.558,8.391,-3.575,3.096,4.58,0,0,0,0,0,0,0,0,0,0,0,0,0,0,0,0,
322,-21.34,-9.931,-12.53,-3.528,-0.6288,-3.604,3.918,-2.391,7.904,-10.02,-5.244,-0.3907,4.465,-6.0,3.68,4.438,0,0,0,0,0,0,0,0,0,0,0,0,0,0,0,0,
323,-24.26,-16.0,-15.13,-9.727,0.9257,-4.915,6.881,1.372,4.301,-9.319,2.363,2.542,6.627,-3.791,8.102,11.37,0,0,0,0,0,0,0,0,0,0,0,0,0,0,0,0,
324,-23.21,-19.98,-15.36,-12.98,-1.607,-7.236,7.492,5.492,0.0839,-6.819,3.904,4.058,4.707,-2.533,6.195,14.91,0,0,0,0,0,0,0,0,0,0,0,0,0,0,0,0,
325,-17.99,-19.73,-16.92,-8.943,-4.489,-5.271,4.832,5.908,-4.495,-6.453,2.887,2.274,4.053,-3.343,0.032,6.452,0,0,0,0,0,0,0,0,0,0,0,0,0,0,0,0,
326,-16.12,-19.08,-18.98,-5.619,-1.408,-0.257,5.346,4.216,-1.084,-3.127,4.175,-2.284,3.977,-7.918,-4.713,-3.655,0,0,0,0,0,0,0,0,0,0,0,0,0,0,0,0,
327,-16.51,-15.47,-16.47,-3.115,2.066,2.743,9.068,4.024,1.646,-0.9416,4.325,-3.28,2.521,-9.002,-1.232,-1.663,0,0,0,0,0,0,0,0,0,0,0,0,0,0,0,0,
328,-10.9,-10.45,-8.301,2.211,6.929,6.728,12.62,3.98,4.575,2.077,7.675,2.672,7.54,-3.221,10.0,6.963,0,0,0,0,0,0,0,0,0,0,0,0,0,0,0,0,
329,-6.204,-7.293,-3.166,2.546,11.82,7.846,12.34,2.999,11.56,6.014,9.977,7.252,10.95,-2.402,14.81,10.5,0,0,0,0,0,0,0,0,0,0,0,0,0,0,0,0,
330,-7.239,-5.523,-4.701,-3.073,10.14,2.881,8.066,2.305,9.329,0.7202,2.868,8.749,3.03,-5.395,12.18,10.76,0,0,0,0,0,0,0,0,0,0,0,0,0,0,0,0,
331,-4.829,-6.019,-4.165,-3.621,7.453,2.538,4.019,-0.596,0.5819,-4.533,-3.166,12.22,-2.422,-0.5611,16.57,17.25,0,0,0,0,0,0,0,0,0,0,0,0,0,0,0,0,
332,-2.092,-9.916,-2.057,-2.841,6.918,5.723,0.8018,-3.686,0.3341,1.496,-1.685,14.57,1.498,7.466,23.15,27.55,0,0,0,0,0,0,0,0,0,0,0,0,0,0,0,0,
333,-5.788,-14.86,-5.802,-8.737,4.724,2.925,0.33,-0.6417,4.42,5.758,1.473,15.35,7.363,13.18,22.27,32.58,0,0,0,0,0,0,0,0,0,0,0,0,0,0,0,0,
334,-6.524,-17.11,-9.188,-13.36,5.027,-0.2491,5.186,2.35,7.169,5.021,5.065,16.63,12.03,16.58,18.59,30.45,0,0,0,0,0,0,0,0,0,0,0,0,0,0,0,0,
335,-5.45,-19.98,-9.55,-15.03,5.132,-2.414,7.07,-1.829,7.897,5.853,3.212,13.42,10.25,11.16,11.57,22.74,0,0,0,0,0,0,0,0,0,0,0,0,0,0,0,0,
336,-12.25,-26.13,-13.67,-18.45,-1.541,-7.946,3.878,-5.54,2.711,1.123,-3.766,7.398,6.141,2.931,6.614,17.35,0,0,0,0,0,0,0,0,0,0,0,0,0,0,0,0,
337,-18.79,-27.19,-17.59,-17.49,-5.199,-8.584,6.045,-4.228,0.5026,-5.062,-1.004,6.25,11.99,6.268,12.55,19.97,0,0,0,0,0,0,0,0,0,0,0,0,0,0,0,0,
338,-20.2,-24.29,-17.5,-13.42,-2.054,-4.339,10.39,-2.87,7.516,-0.9512,6.896,8.835,17.9,13.91,16.96,22.67,0,0,0,0,0,0,0,0,0,0,0,0,0,0,0,0,
339,-19.84,-27.67,-14.81,-14.22,-1.961,-5.595,9.191,-2.249,10.76,4.802,6.559,11.03,15.4,14.02,15.48,23.74,0,0,0,0,0,0,0,0,0,0,0,0,0,0,0,0,
340,-13.55,-31.74,-6.678,-14.6,-2.237,-6.841,9.211,-0.229,9.584,5.078,7.747,10.81,17.99,11.88,20.5,26.55,0,0,0,0,0,0,0,0,0,0,0,0,0,0,0,0,
341,-9.21,-30.51,-1.41,-11.62,0.9759,-2.329,11.65,1.654,14.27,6.57,14.52,7.052,23.17,10.73,27.34,25.34,0,0,0,0,0,0,0,0,0,0,0,0,0,0,0,0,
342,-17.98,-31.66,-7.713,-12.32,-1.39,-2.417,8.904,1.285,16.65,8.64,13.93,2.749,17.21,5.849,24.37,20.67,0,0,0,0,0,0,0,0,0,0,0,0,0,0,0,0,
343,-26.53,-36.74,-12.34,-15.46,-9.475,-9.665,2.148,0.8001,8.643,6.37,6.74,1.765,6.627,-0.7347,14.97,17.85,0,0,0,0,0,0,0,0,0,0,0,0,0,0,0,0,
344,-24.11,-39.39,-10.11,-15.76,-15.2,-13.86,-4.276,2.875,-2.178,2.068,1.535,4.435,-0.5494,-4.594,8.423,14.82,0,0,0,0,0,0,0,0,0,0,0,0,0,0,0,0,
345,-22.8,-38.62,-13.64,-15.94,-18.74,-13.8,-8.751,4.4,-10.67,-0.9758,-2.655,6.564,-6.398,-7.951,5.987,10.89,0,0,0,0,0,0,0,0,0,0,0,0,0,0,0,0,
346,-29.94,-36.83,-20.11,-18.47,-21.18,-16.7,-10.9,1.996,-17.14,-4.194,-6.678,3.487,-10.88,-11.82,2.246,8.533,0,0,0,0,0,0,0,0,0,0,0,0,0,0,0,0,
347,-34.92,-34.7,-20.62,-19.78,-21.84,-21.46,-12.99,-1.782,-22.95,-9.335,-8.696,-0.0147,-14.57,-12.41,-1.048,8.142,0,0,0,0,0,0,0,0,0,0,0,0,0,0,0,0,
348,-29.58,-33.03,-18.81,-16.97,-20.75,-19.92,-12.62,-0.899,-27.44,-10.93,-8.108,4.364,-14.96,-7.264,3.148,11.15,0,0,0,0,0,0,0,0,0,0,0,0,0,0,0,0,
349,-20.72,-31.7,-14.71,-12.55,-15.91,-13.03,-7.982,5.854,-23.38,-3.934,-4.442,13.05,-7.663,2.499,12.2,18.6,0,0,0,0,0,0,0,0,0,0,0,0,0,0,0,0,
350,-17.57,-27.72,-9.893,-11.24,-12.11,-10.81,-7.243,8.745,-14.8,2.655,-2.156,16.72,-1.699,10.41,15.87,22.92,0,0,0,0,0,0,0,0,0,0,0,0,0,0,0,0,
351,-20.98,-23.52,-13.07,-13.34,-15.14,-14.25,-10.62,4.405,-15.14,-0.3232,-4.999,14.97,-3.495,11.53,11.81,19.01,0,0,0,0,0,0,0,0,0,0,0,0,0,0,0,0,
352,-26.26,-26.69,-20.08,-15.24,-19.44,-16.2,-12.17,2.592,-18.25,-5.452,-9.218,13.69,-4.443,11.96,6.757,17.12,0,0,0,0,0,0,0,0,0,0,0,0,0,0,0,0,
353,-28.88,-34.12,-23.48,-15.32,-22.19,-16.31,-17.21,1.755,-17.21,-4.312,-13.89,14.74,-3.643,15.96,2.696,20.75,0,0,0,0,0,0,0,0,0,0,0,0,0,0,0,0,
354,-29.53,-35.5,-25.27,-13.83,-23.28,-15.45,-21.26,-2.139,-19.33,0.0831,-15.81,14.71,-3.02,18.47,1.619,20.84,0,0,0,0,0,0,0,0,0,0,0,0,0,0,0,0,
355,-30.5,-33.04,-24.61,-12.82,-19.55,-13.39,-14.01,-0.0558,-18.7,3.172,-8.511,10.97,3.219,17.8,7.304,17.96,0,0,0,0,0,0,0,0,0,0,0,0,0,0,0,0,
356,-29.65,-35.23,-22.56,-14.87,-17.56,-15.07,-7.613,4.904,-12.6,2.822,-1.752,7.221,9.126,17.4,11.15,16.57,0,0,0,0,0,0,0,0,0,0,0,0,0,0,0,0,
357,-25.14,-37.5,-20.05,-16.4,-17.4,-17.14,-7.067,3.746,-12.5,0.9194,-2.208,8.767,8.566,19.15,10.57,17.07,0,0,0,0,0,0,0,0,0,0,0,0,0,0,0,0,
358,-20.62,-34.8,-13.65,-15.71,-10.23,-12.3,-1.365,2.151,-11.79,2.758,0.0077,10.59,7.346,17.75,11.47,16.46,0,0,0,0,0,0,0,0,0,0,0,0,0,0,0,0,
359,-21.28,-35.47,-12.43,-18.09,-8.288,-10.07,0.0458,0.5804,-8.02,2.834,-0.3274,5.089,1.214,6.069,5.665,8.983,0,0,0,0,0,0,0,0,0,0,0,0,0,0,0,0,
360,-25.14,-38.41,-20.37,-20.74,-18.86,-16.42,-8.399,-4.75,-16.1,-7.303,-9.799,-1.832,-11.35,-8.006,-4.52,1.296,0,0,0,0,0,0,0,0,0,0,0,0,0,0,0,0,
361,-25.66,-34.5,-22.15,-17.77,-22.1,-18.91,-8.883,-7.756,-25.51,-16.98,-14.01,-2.119,-16.8,-11.99,-6.07,0.1909,0,0,0,0,0,0,0,0,0,0,0,0,0,0,0,0,
362,-22.5,-30.61,-15.65,-14.0,-14.18,-13.04,-2.264,-6.945,-21.13,-14.5,-11.31,0.1089,-15.89,-9.2,-7.71,-1.082,0,0,0,0,0,0,0,0,0,0,0,0,0,0,0,0,
363,-19.1,-30.77,-11.45,-13.37,-10.5,-7.92,-4.645,-6.466,-18.34,-8.512,-13.16,-1.856,-19.95,-8.737,-16.44,-3.288,0,0,0,0,0,0,0,0,0,0,0,0,0,0,0,0,
364,-19.65,-30.2,-11.83,-14.06,-12.81,-9.312,-11.65,-6.547,-26.16,-9.074,-15.61,-5.851,-25.0,-12.74,-22.0,-4.968,0,0,0,0,0,0,0,0,0,0,0,0,0,0,0,0,
365,-24.97,-34.05,-15.96,-14.75,-16.13,-14.15,-11.3,-6.061,-31.22,-13.69,-12.58,-5.008,-22.16,-15.35,-18.25,-6.122,0,0,0,0,0,0,0,0,0,0,0,0,0,0,0,0,
366,-26.36,-40.58,-20.02,-14.46,-20.34,-15.48,-7.102,-4.337,-28.24,-16.42,-9.683,-0.6131,-15.86,-11.88,-10.64,-2.291,0,0,0,0,0,0,0,0,0,0,0,0,0,0,0,0,
367,-24.26,-42.79,-21.58,-15.45,-24.18,-14.49,-7.404,-3.662,-26.82,-15.07,-10.67,1.506,-14.25,-8.316,-7.746,2.409,0,0,0,0,0,0,0,0,0,0,0,0,0,0,0,0,
368,-28.8,-45.11,-23.64,-18.78,-24.39,-16.59,-8.163,-4.953,-28.88,-11.59,-9.106,3.197,-11.48,-6.676,-5.106,4.963,0,0,0,0,0,0,0,0,0,0,0,0,0,0,0,0,
369,-32.91,-45.15,-24.44,-20.01,-21.83,-18.58,-3.708,-4.826,-25.51,-8.729,-2.321,5.095,-1.893,-1.571,1.125,8.319,0,0,0,0,0,0,0,0,0,0,0,0,0,0,0,0,
370,-28.56,-40.4,-21.9,-19.6,-21.05,-18.29,0.6065,-5.593,-18.9,-7.033,2.114,5.878,5.34,4.515,1.968,10.69,0,0,0,0,0,0,0,0,0,0,0,0,0,0,0,0,
371,-25.39,-39.5,-16.88,-20.75,-19.83,-17.16,1.962,-8.52,-15.0,-4.037,3.79,11.07,6.485,9.047,1.414,14.7,0,0,0,0,0,0,0,0,0,0,0,0,0,0,0,0,
372,-25.35,-38.85,-10.29,-20.0,-14.51,-11.77,2.843,-6.442,-10.28,2.111,5.517,17.84,5.8,12.59,3.895,17.91,0,0,0,0,0,0,0,0,0,0,0,0,0,0,0,0,
373,-19.81,-32.01,-6.07,-14.87,-9.57,-3.849,3.113,-1.275,-8.124,7.02,2.811,17.27,3.781,12.24,0.903,13.99,0,0,0,0,0,0,0,0,0,0,0,0,0,0,0,0,
374,-12.47,-27.31,-4.475,-11.05,-7.462,-1.086,3.453,-0.5565,-10.46,7.684,-1.107,13.29,3.267,9.93,-3.838,10.9,0,0,0,0,0,0,0,0,0,0,0,0,0,0,0,0,
375,-13.93,-29.05,-4.27,-13.42,-7.655,-3.684,3.581,0.3365,-10.78,7.316,-0.8367,10.99,2.463,8.331,-5.859,11.8,0,0,0,0,0,0,0,0,0,0,0,0,0,0,0,0,
376,-19.79,-31.51,-6.482,-16.82,-10.82,-7.636,5.174,2.076,-14.4,4.231,1.531,9.778,-2.721,6.188,-6.859,13.85,0,0,0,0,0,0,0,0,0,0,0,0,0,0,0,0,
377,-19.11,-31.45,-5.336,-16.7,-13.05,-10.74,9.65,-3.446,-21.71,-3.087,5.678,10.53,-5.596,5.316,-3.422,17.28,0,0,0,0,0,0,0,0,0,0,0,0,0,0,0,0,
378,-16.91,-31.22,-0.8406,-17.37,-12.46,-10.93,7.993,-8.034,-21.18,-6.736,6.213,10.38,-5.428,4.164,-1.874,14.3,0,0,0,0,0,0,0,0,0,0,0,0,0,0,0,0,
379,-19.0,-31.53,-3.133,-18.41,-12.37,-8.981,0.5765,-2.071,-17.53,-4.259,-0.6833,7.652,-8.237,-0.4502,-7.155,5.754,0,0,0,0,0,0,0,0,0,0,0,0,0,0,0,0,
380,-19.17,-29.43,-11.08,-16.49,-13.72,-8.87,-1.69,1.298,-18.58,-2.327,-5.721,5.621,-11.26,-4.504,-10.8,-0.2025,0,0,0,0,0,0,0,0,0,0,0,0,0,0,0,0,
381,-17.73,-26.78,-15.78,-14.55,-14.8,-9.856,-3.934,-3.55,-19.64,-2.17,-8.027,2.962,-13.55,-6.701,-12.04,-7.468,0,0,0,0,0,0,0,0,0,0,0,0,0,0,0,0,
382,-17.2,-25.5,-15.59,-11.34,-12.64,-6.385,-10.39,-4.119,-19.82,-0.6743,-14.19,-1.032,-16.67,-9.726,-14.37,-14.17,0,0,0,0,0,0,0,0,0,0,0,0,0,0,0,0,
383,-16.38,-24.3,-16.14,-6.462,-10.6,-1.277,-15.26,-0.8491,-20.28,1.585,-20.4,-2.244,-18.01,-10.48,-14.06,-12.34,0,0,0,0,0,0,0,0,0,0,0,0,0,0,0,0,
384,-19.68,-27.01,-21.57,-6.194,-15.01,-2.365,-22.0,-0.2753,-20.35,2.855,-24.34,-1.089,-18.66,-6.611,-11.51,-6.211,0,0,0,0,0,0,0,0,0,0,0,0,0,0,0,0,
385,-24.46,-30.47,-25.28,-6.817,-18.74,-6.115,-30.41,1.749,-21.64,3.839,-29.12,-1.549,-20.78,-2.867,-13.67,-5.261,0,0,0,0,0,0,0,0,0,0,0,0,0,0,0,0,
386,-24.7,-26.35,-23.8,-4.218,-18.18,-7.66,-35.21,5.712,-23.72,5.226,-33.54,-2.818,-22.82,-1.776,-18.3,-9.419,0,0,0,0,0,0,0,0,0,0,0,0,0,0,0,0,
387,-25.21,-21.33,-25.19,-5.368,-21.61,-10.41,-38.64,7.302,-25.18,5.402,-34.97,-1.006,-22.56,0.1129,-15.77,-9.169,0,0,0,0,0,0,0,0,0,0,0,0,0,0,0,0,
388,-26.12,-21.21,-28.95,-8.598,-24.49,-12.73,-38.29,6.465,-24.21,3.773,-33.08,1.44,-19.39,2.89,-11.72,-6.014,0,0,0,0,0,0,0,0,0,0,0,0,0,0,0,0,
389,-24.53,-21.38,-28.39,-7.966,-22.31,-11.94,-35.14,4.212,-20.94,1.336,-30.73,-1.712,-18.13,2.443,-14.54,-9.36,0,0,0,0,0,0,0,0,0,0,0,0,0,0,0,0,
390,-22.61,-22.25,-26.1,-6.954,-22.25,-11.56,-35.91,1.237,-21.46,-2.265,-30.75,-7.423,-21.24,-0.7018,-16.71,-14.29,0,0,0,0,0,0,0,0,0,0,0,0,0,0,0,0,
391,-17.21,-21.55,-23.16,-5.951,-19.11,-11.47,-32.74,-2.423,-24.04,-6.2,-29.64,-9.504,-21.78,-2.17,-15.86,-15.65,0,0,0,0,0,0,0,0,0,0,0,0,0,0,0,0,
392,-10.61,-16.15,-16.07,-3.923,-9.365,-10.86,-23.74,-6.362,-19.53,-8.616,-23.84,-10.96,-17.37,-0.6418,-15.1,-17.04,0,0,0,0,0,0,0,0,0,0,0,0,0,0,0,0,
393,-9.758,-13.18,-8.327,-2.664,-4.426,-9.27,-21.63,-8.035,-11.22,-9.628,-17.34,-14.22,-13.51,0.7923,-12.12,-18.72,0,0,0,0,0,0,0,0,0,0,0,0,0,0,0,0,
394,-8.324,-11.42,-5.249,1.024,-3.73,-3.596,-22.85,-7.933,-7.041,-8.935,-14.06,-15.56,-11.35,-1.758,-9.853,-20.29,0,0,0,0,0,0,0,0,0,0,0,0,0,0,0,0,
395,-5.23,-5.596,-5.049,3.753,-0.8614,-0.2987,-19.17,-9.355,-5.07,-8.333,-11.76,-14.19,-9.095,-7.428,-9.324,-20.17,0,0,0,0,0,0,0,0,0,0,0,0,0,0,0,0,
396,-9.187,-4.494,-5.581,-1.118,0.1816,-4.647,-16.54,-12.0,-2.971,-10.59,-9.354,-11.46,-6.533,-10.46,-7.19,-16.83,0,0,0,0,0,0,0,0,0,0,0,0,0,0,0,0,
397,-15.29,-9.982,-8.919,-6.167,-2.398,-7.979,-17.34,-12.53,-2.472,-11.1,-9.195,-8.498,-3.409,-8.663,-4.483,-14.28,0,0,0,0,0,0,0,0,0,0,0,0,0,0,0,0,
398,-17.57,-14.03,-13.44,-8.234,-7.999,-9.363,-20.75,-10.53,-3.353,-8.196,-10.06,-7.463,-1.36,-5.996,-1.101,-13.97,0,0,0,0,0,0,0,0,0,0,0,0,0,0,0,0,
399,-19.7,-17.51,-14.95,-12.33,-13.98,-12.79,-27.94,-10.6,-3.234,-8.302,-10.12,-6.102,-2.254,-3.313,0.6828,-13.43,0,0,0,0,0,0,0,0,0,0,0,0,0,0,0,0,
400,-22.13,-20.91,-16.55,-13.93,-15.73,-13.98,-33.25,-12.72,-1.928,-9.566,-12.94,-2.216,-5.106,0.9038,-3.108,-12.2,0,0,0,0,0,0,0,0,0,0,0,0,0,0,0,0,
401,-27.2,-23.97,-21.78,-14.29,-19.09,-16.54,-33.41,-8.838,-3.083,-8.676,-18.92,-0.3114,-9.177,2.316,-8.018,-12.47,0,0,0,0,0,0,0,0,0,0,0,0,0,0,0,0,
402,-33.86,-29.48,-25.95,-19.14,-25.58,-22.17,-32.47,-0.454,-6.762,-10.91,-21.81,-1.44,-12.79,-0.0531,-8.733,-13.69,0,0,0,0,0,0,0,0,0,0,0,0,0,0,0,0,
403,-33.32,-31.92,-26.35,-20.91,-25.02,-22.05,-30.94,0.8243,-8.066,-14.05,-20.39,-2.136,-12.66,-0.6101,-7.456,-13.3,0,0,0,0,0,0,0,0,0,0,0,0,0,0,0,0,
404,-30.38,-30.17,-23.86,-18.8,-19.13,-20.69,-26.68,-3.482,-6.373,-13.61,-18.61,-3.192,-9.531,-0.5936,-8.295,-15.26,0,0,0,0,0,0,0,0,0,0,0,0,0,0,0,0,
405,-28.91,-29.8,-16.04,-19.67,-15.09,-23.26,-20.74,-4.621,-3.351,-15.37,-17.98,-6.244,-8.253,-3.814,-9.783,-19.33,0,0,0,0,0,0,0,0,0,0,0,0,0,0,0,0,
406,-20.94,-28.01,-9.183,-19.87,-12.82,-22.88,-18.09,-6.243,-1.547,-20.32,-20.32,-11.35,-12.08,-8.118,-10.39,-20.26,0,0,0,0,0,0,0,0,0,0,0,0,0,0,0,0,
407,-16.2,-26.38,-12.33,-18.23,-12.29,-21.76,-20.0,-11.04,-4.024,-22.36,-23.77,-15.78,-16.11,-10.35,-12.29,-22.71,0,0,0,0,0,0,0,0,0,0,0,0,0,0,0,0,
408,-20.53,-26.9,-14.87,-17.78,-9.857,-21.56,-20.62,-12.76,-3.796,-20.1,-23.69,-14.29,-14.42,-9.625,-12.78,-25.49,0,0,0,0,0,0,0,0,0,0,0,0,0,0,0,0,
409,-18.39,-23.66,-11.5,-18.17,-7.048,-18.66,-20.84,-11.67,1.071,-16.37,-25.56,-9.358,-13.6,-8.718,-11.44,-22.24,0,0,0,0,0,0,0,0,0,0,0,0,0,0,0,0,
410,-13.44,-21.83,-14.99,-20.43,-10.36,-18.73,-22.37,-11.02,0.0463,-13.37,-28.82,-5.551,-14.98,-6.886,-10.06,-18.83,0,0,0,0,0,0,0,0,0,0,0,0,0,0,0,0,
411,-14.96,-22.79,-19.64,-20.61,-10.28,-19.06,-17.9,-9.346,0.0982,-8.48,-22.2,-1.18,-8.63,-0.6441,-4.421,-17.37,0,0,0,0,0,0,0,0,0,0,0,0,0,0,0,0,
412,-14.92,-18.68,-16.04,-16.96,-4.152,-13.4,-13.56,-8.459,7.473,-2.112,-15.45,1.149,-1.958,2.424,-0.4943,-16.5,0,0,0,0,0,0,0,0,0,0,0,0,0,0,0,0,
413,-14.11,-16.87,-16.11,-16.37,-5.089,-10.37,-17.72,-10.37,6.812,-0.4178,-17.94,0.6023,-2.324,1.409,-1.643,-15.97,0,0,0,0,0,0,0,0,0,0,0,0,0,0,0,0,
414,-13.85,-18.09,-19.31,-16.72,-7.279,-10.38,-16.97,-12.09,4.008,0.9483,-13.79,4.387,2.156,7.866,3.611,-8.761,0,0,0,0,0,0,0,0,0,0,0,0,0,0,0,0,
415,-11.6,-14.34,-17.42,-15.61,-4.809,-8.862,-11.03,-10.65,11.05,6.326,-5.423,10.78,7.593,15.4,10.02,0.145,0,0,0,0,0,0,0,0,0,0,0,0,0,0,0,0,
416,-14.96,-15.41,-18.57,-18.91,-8.68,-11.61,-14.53,-7.455,11.05,8.623,-7.585,14.28,4.971,15.88,9.104,0.9083,0,0,0,0,0,0,0,0,0,0,0,0,0,0,0,0,
417,-18.81,-20.38,-22.54,-21.21,-14.22,-13.89,-18.38,-8.309,4.278,10.89,-9.203,16.42,4.636,17.89,8.749,-1.059,0,0,0,0,0,0,0,0,0,0,0,0,0,0,0,0,
418,-14.72,-16.87,-21.41,-17.53,-13.66,-11.16,-14.53,-11.05,5.064,16.76,-6.458,15.19,3.99,18.18,6.723,-3.617,0,0,0,0,0,0,0,0,0,0,0,0,0,0,0,0,
419,-13.28,-15.18,-19.4,-16.66,-15.77,-14.12,-14.66,-6.474,2.284,15.09,-11.04,10.82,-5.774,10.38,0.4426,-9.32,0,0,0,0,0,0,0,0,0,0,0,0,0,0,0,0,
420,-16.61,-21.06,-21.32,-18.13,-21.35,-19.93,-18.52,0.1622,-6.864,6.94,-17.14,9.015,-13.9,2.905,-2.7,-16.05,0,0,0,0,0,0,0,0,0,0,0,0,0,0,0,0,
421,-17.23,-20.2,-26.32,-13.47,-24.41,-17.38,-19.1,0.4502,-11.33,3.663,-18.73,6.826,-16.4,-0.8109,-6.089,-21.77,0,0,0,0,0,0,0,0,0,0,0,0,0,0,0,0,
422,-16.32,-11.36,-29.58,-7.029,-25.16,-13.16,-19.03,0.8265,-13.96,3.421,-21.13,2.258,-19.61,-1.286,-13.31,-22.93,0,0,0,0,0,0,0,0,0,0,0,0,0,0,0,0,
423,-12.35,-4.659,-26.56,-5.847,-23.87,-14.04,-19.26,2.924,-15.69,1.177,-23.06,-0.3314,-22.91,-0.2216,-18.65,-22.97,0,0,0,0,0,0,0,0,0,0,0,0,0,0,0,0,
424,-6.006,-1.6,-22.28,-6.273,-22.22,-14.11,-22.11,0.455,-16.05,-3.997,-24.08,-4.508,-27.45,-6.069,-20.26,-28.23,0,0,0,0,0,0,0,0,0,0,0,0,0,0,0,0,
425,-5.707,-1.95,-20.69,-5.683,-20.12,-10.84,-27.99,-3.498,-19.63,-10.02,-27.13,-11.52,-32.78,-14.48,-21.0,-32.25,0,0,0,0,0,0,0,0,0,0,0,0,0,0,0,0,
426,-7.847,-7.183,-18.74,-7.402,-15.32,-8.809,-26.4,-4.284,-20.7,-10.67,-27.42,-14.23,-32.89,-14.26,-22.27,-31.03,0,0,0,0,0,0,0,0,0,0,0,0,0,0,0,0,
427,-3.322,-11.08,-15.93,-9.718,-11.59,-9.547,-17.48,-4.936,-15.91,-6.787,-21.0,-13.5,-27.6,-9.485,-21.21,-28.92,0,0,0,0,0,0,0,0,0,0,0,0,0,0,0,0,
428,1.686,-8.367,-11.62,-8.345,-8.882,-8.552,-12.03,-6.257,-9.656,-2.93,-12.17,-11.67,-19.38,-4.048,-16.09,-24.47,0,0,0,0,0,0,0,0,0,0,0,0,0,0,0,0,
429,0.2994,-6.472,-6.872,-5.364,-4.7,-4.889,-8.997,-4.185,-1.166,2.108,-6.839,-6.572,-10.63,2.979,-10.05,-17.92,0,0,0,0,0,0,0,0,0,0,0,0,0,0,0,0,
430,-1.094,-9.563,-6.325,-4.098,-4.167,-5.064,-5.968,-2.481,5.651,5.789,-4.99,-3.67,-5.178,6.458,-5.176,-15.77,0,0,0,0,0,0,0,0,0,0,0,0,0,0,0,0,
431,0.6952,-10.67,-6.836,-4.124,-4.534,-9.108,-3.679,-7.405,6.642,5.549,-0.4179,-5.96,-1.785,6.168,-2.571,-17.0,0,0,0,0,0,0,0,0,0,0,0,0,0,0,0,0,
432,1.738,-10.06,-4.379,-3.946,-1.057,-10.02,0.8621,-9.764,7.131,4.732,4.525,-7.446,-0.158,5.549,-4.103,-16.15,0,0,0,0,0,0,0,0,0,0,0,0,0,0,0,0,
433,1.31,-13.06,-2.754,-3.123,-1.909,-8.582,2.226,-3.416,5.51,2.429,1.414,-7.745,-3.476,3.715,-8.021,-16.41,0,0,0,0,0,0,0,0,0,0,0,0,0,0,0,0,
434,0.362,-14.42,-1.822,-2.23,-4.884,-7.767,-1.262,-0.2177,-0.3854,0.0408,-1.047,-7.535,-5.757,3.896,-7.571,-18.16,0,0,0,0,0,0,0,0,0,0,0,0,0,0,0,0,
435,1.268,-11.12,-1.086,-1.927,-1.771,-6.781,1.25,-2.119,-1.167,3.377,6.391,-4.117,-1.592,6.673,-1.671,-15.04,0,0,0,0,0,0,0,0,0,0,0,0,0,0,0,0,
436,3.675,-11.34,-4.14,-2.225,-0.1894,-7.877,7.051,-0.9671,3.164,7.023,12.15,-1.812,1.52,6.451,-0.163,-12.67,0,0,0,0,0,0,0,0,0,0,0,0,0,0,0,0,
437,3.613,-13.74,-4.891,-0.8693,0.0386,-8.431,8.358,-0.4664,3.364,5.52,11.05,-4.409,-1.456,5.078,-5.933,-17.02,0,0,0,0,0,0,0,0,0,0,0,0,0,0,0,0,
438,5.24,-9.502,-0.3073,2.53,4.614,-3.487,8.917,-3.257,0.2418,5.058,9.739,-7.307,-6.639,4.471,-12.09,-20.76,0,0,0,0,0,0,0,0,0,0,0,0,0,0,0,0,
439,9.958,-5.253,-1.843,2.849,3.845,-0.6665,8.451,-4.591,-2.298,6.558,7.79,-7.425,-8.939,3.346,-14.14,-20.26,0,0,0,0,0,0,0,0,0,0,0,0,0,0,0,0,
440,9.578,-7.232,-7.712,0.9799,0.1691,-4.005,7.18,-4.334,-2.646,6.024,7.162,-6.725,-6.168,6.377,-9.435,-16.54,0,0,0,0,0,0,0,0,0,0,0,0,0,0,0,0,
441,6.215,-8.623,-6.658,2.762,4.439,-5.879,7.217,-3.559,-0.4254,5.827,8.254,-7.066,-4.489,10.81,-5.383,-12.41,0,0,0,0,0,0,0,0,0,0,0,0,0,0,0,0,
442,5.782,-10.38,-4.94,3.652,6.412,-6.453,3.292,-1.928,-1.042,6.882,4.536,-7.474,-7.89,9.895,-8.281,-11.65,0,0,0,0,0,0,0,0,0,0,0,0,0,0,0,0,
443,3.969,-14.73,-8.271,-0.0229,0.1286,-8.521,-0.984,-0.7294,-4.244,7.701,0.6299,-6.679,-8.927,9.849,-7.042,-8.78,0,0,0,0,0,0,0,0,0,0,0,0,0,0,0,0,
444,-1.206,-14.01,-10.45,-1.314,-5.163,-8.65,-0.6619,-0.217,-4.321,9.555,1.133,-6.265,-6.221,11.92,-2.732,-4.045,0,0,0,0,0,0,0,0,0,0,0,0,0,0,0,0,
445,-4.611,-8.121,-10.47,0.9846,-7.014,-7.541,-3.963,1.113,-5.21,11.83,0.506,-6.939,-4.771,9.745,-5.148,-5.646,0,0,0,0,0,0,0,0,0,0,0,0,0,0,0,0,
446,-2.906,-3.16,-10.37,2.46,-6.132,-6.831,-8.892,3.263,-7.421,13.23,0.5381,-6.505,-1.98,9.108,-5.422,-7.808,0,0,0,0,0,0,0,0,0,0,0,0,0,0,0,0,
447,0.3703,-0.7995,-8.853,3.696,-3.644,-4.939,-5.303,4.008,-3.551,14.93,6.119,-3.336,4.245,14.9,1.566,-3.257,0,0,0,0,0,0,0,0,0,0,0,0,0,0,0,0,
448,1.338,-0.7614,-4.42,3.855,-2.284,-3.553,2.59,3.933,3.417,16.34,14.69,0.2378,10.53,18.27,8.538,1.341,0,0,0,0,0,0,0,0,0,0,0,0,0,0,0,0,
449,0.9754,-1.49,-0.666,0.7956,-1.821,-4.788,4.704,3.799,5.694,14.33,17.19,-1.995,10.09,11.01,5.53,-3.955,0,0,0,0,0,0,0,0,0,0,0,0,0,0,0,0,
450,-1.933,-3.412,-4.107,-0.935,-4.852,-6.317,-1.592,-0.6058,1.19,8.309,7.446,-9.537,-1.741,-2.199,-11.24,-17.25,0,0,0,0,0,0,0,0,0,0,0,0,0,0,0,0,
451,-5.881,-6.243,-7.122,1.822,-10.19,-5.258,-8.92,-5.104,-6.92,3.599,-1.045,-12.66,-12.83,-9.096,-21.08,-24.11,0,0,0,0,0,0,0,0,0,0,0,0,0,0,0,0,
452,-5.238,-6.724,-0.5455,3.998,-10.79,-3.725,-9.251,0.0672,-10.91,3.092,3.763,-10.1,-10.44,-8.532,-12.65,-22.34,0,0,0,0,0,0,0,0,0,0,0,0,0,0,0,0,
453,-2.32,-5.405,4.902,3.844,-7.89,-3.908,-6.188,6.956,-10.03,1.35,8.498,-10.25,-5.194,-9.093,-6.593,-21.67,0,0,0,0,0,0,0,0,0,0,0,0,0,0,0,0,
454,0.9239,-2.802,5.117,5.189,-3.853,-2.481,-5.583,4.95,-9.983,-2.729,4.72,-13.07,-7.964,-10.56,-8.498,-20.35,0,0,0,0,0,0,0,0,0,0,0,0,0,0,0,0,
455,5.652,0.0837,9.366,6.435,0.9721,-0.8765,-6.581,1.646,-10.53,-4.155,2.179,-11.75,-11.25,-10.49,-6.741,-15.91,0,0,0,0,0,0,0,0,0,0,0,0,0,0,0,0,
456,8.305,-0.2656,14.75,5.37,1.69,-3.098,-5.861,1.888,-10.61,-3.825,4.901,-7.419,-8.967,-10.67,-3.365,-12.84,0,0,0,0,0,0,0,0,0,0,0,0,0,0,0,0,
457,9.869,-0.5793,17.07,5.322,1.361,-3.631,-1.922,1.122,-10.05,-3.635,8.462,-7.181,-5.784,-8.706,-2.964,-12.76,0,0,0,0,0,0,0,0,0,0,0,0,0,0,0,0,
458,12.43,1.848,20.25,6.785,5.202,-1.415,0.6824,0.4376,-7.263,-3.268,10.45,-11.47,-4.856,-5.121,-2.406,-14.51,0,0,0,0,0,0,0,0,0,0,0,0,0,0,0,0,
459,13.84,4.393,22.8,7.414,6.748,-2.517,-0.2025,0.6205,-4.604,-4.306,12.75,-13.67,-2.818,-3.276,0.9307,-13.74,0,0,0,0,0,0,0,0,0,0,0,0,0,0,0,0,
460,14.67,7.711,21.98,7.251,4.03,-3.098,-0.3936,0.151,-3.259,-3.432,16.01,-10.11,1.358,0.6591,3.837,-10.02,0,0,0,0,0,0,0,0,0,0,0,0,0,0,0,0,
461,12.47,9.425,19.07,6.264,2.953,-0.8918,-2.263,1.828,-2.439,1.938,16.88,-4.367,3.711,6.392,3.971,-7.725,0,0,0,0,0,0,0,0,0,0,0,0,0,0,0,0,
462,7.519,7.03,14.45,4.391,1.683,-1.846,-6.912,4.297,-4.383,5.306,15.38,-2.937,3.792,7.142,3.031,-6.735,0,0,0,0,0,0,0,0,0,0,0,0,0,0,0,0,
463,7.289,5.66,10.18,3.027,-2.954,-3.742,-7.94,3.491,-7.584,5.142,12.66,-5.971,3.589,4.852,-0.9306,-7.252,0,0,0,0,0,0,0,0,0,0,0,0,0,0,0,0,
464,9.049,5.779,11.09,2.351,-5.677,-4.247,-7.851,1.924,-8.673,5.366,7.499,-6.397,2.376,4.245,-5.107,-7.897,0,0,0,0,0,0,0,0,0,0,0,0,0,0,0,0,
465,6.268,3.826,15.42,0.1547,-3.853,-8.141,-10.09,1.061,-8.724,3.896,3.484,-4.052,0.4126,3.123,-4.007,-5.583,0,0,0,0,0,0,0,0,0,0,0,0,0,0,0,0,
466,1.908,2.704,14.92,-3.481,-3.077,-11.77,-9.227,-0.9372,-7.926,0.7013,3.028,-6.055,-1.603,0.4398,-4.209,-4.953,0,0,0,0,0,0,0,0,0,0,0,0,0,0,0,0,
467,-0.2513,4.466,10.16,-4.515,-5.157,-9.704,-7.377,-2.513,-7.354,-1.242,1.583,-11.98,-4.857,-3.043,-9.011,-8.507,0,0,0,0,0,0,0,0,0,0,0,0,0,0,0,0,
468,0.6993,5.404,8.283,-2.313,-7.028,-6.968,-9.725,-2.526,-10.99,-3.308,-2.335,-16.02,-8.835,-7.191,-13.16,-11.11,0,0,0,0,0,0,0,0,0,0,0,0,0,0,0,0,
469,2.731,4.798,7.749,0.7392,-8.982,-5.752,-12.8,-1.958,-17.36,-4.147,-6.146,-16.74,-12.2,-8.191,-15.67,-9.33,0,0,0,0,0,0,0,0,0,0,0,0,0,0,0,0,
470,2.706,5.601,4.736,4.194,-10.2,-3.596,-14.6,-0.5433,-21.45,-2.237,-9.045,-16.38,-14.02,-6.351,-16.25,-7.689,0,0,0,0,0,0,0,0,0,0,0,0,0,0,0,0,
471,1.138,4.645,2.411,5.22,-9.482,-3.274,-15.78,0.6159,-22.39,-2.358,-10.59,-17.09,-12.2,-7.589,-15.44,-12.03,0,0,0,0,0,0,0,0,0,0,0,0,0,0,0,0,
472,-1.782,-1.777,3.081,2.502,-11.56,-6.075,-16.68,-0.7676,-22.11,-5.014,-11.26,-17.99,-9.228,-10.27,-14.35,-13.97,0,0,0,0,0,0,0,0,0,0,0,0,0,0,0,0,
473,-6.401,-8.567,1.763,0.5645,-17.73,-9.555,-19.78,-3.915,-23.54,-7.328,-13.74,-17.99,-11.65,-12.0,-12.9,-10.9,0,0,0,0,0,0,0,0,0,0,0,0,0,0,0,0,
474,-11.42,-12.1,-5.173,0.0713,-22.46,-12.99,-22.89,-6.697,-28.04,-11.34,-16.95,-19.03,-16.37,-15.95,-12.87,-16.77,0,0,0,0,0,0,0,0,0,0,0,0,0,0,0,0,
475,-14.96,-12.97,-9.345,-1.043,-23.41,-14.5,-22.34,-8.196,-31.17,-15.81,-14.81,-20.19,-14.1,-17.77,-10.48,-23.88,0,0,0,0,0,0,0,0,0,0,0,0,0,0,0,0,
476,-14.17,-11.34,-5.279,-2.737,-22.27,-14.93,-20.52,-7.74,-28.81,-16.71,-6.894,-18.26,-7.096,-13.28,-4.59,-18.18,0,0,0,0,0,0,0,0,0,0,0,0,0,0,0,0,
477,-12.28,-11.55,-1.826,-6.441,-21.24,-18.71,-18.06,-7.249,-24.24,-15.82,-1.589,-15.22,-4.731,-9.183,-4.997,-12.99,0,0,0,0,0,0,0,0,0,0,0,0,0,0,0,0,
478,-14.54,-14.71,-1.446,-9.143,-21.43,-21.58,-14.18,-8.828,-21.58,-14.29,-2.605,-12.69,-6.946,-7.195,-11.13,-14.07,0,0,0,0,0,0,0,0,0,0,0,0,0,0,0,0,
479,-15.14,-15.64,-0.2031,-6.629,-21.0,-17.96,-11.17,-8.152,-18.29,-10.45,-3.44,-7.616,-6.441,-2.942,-12.42,-12.19,0,0,0,0,0,0,0,0,0,0,0,0,0,0,0,0,
480,-11.42,-13.52,-1.043,-4.14,-18.25,-13.53,-8.993,-5.1,-11.54,-6.711,-1.005,-2.913,-2.172,0.4603,-9.142,-10.49,0,0,0,0,0,0,0,0,0,0,0,0,0,0,0,0,
481,-11.09,-9.37,-0.3998,-3.284,-13.82,-10.76,-6.789,-6.738,-5.454,-4.793,-0.5055,-4.473,0.1904,0.728,-7.284,-10.86,0,0,0,0,0,0,0,0,0,0,0,0,0,0,0,0,
482,-12.37,-5.306,5.707,0.5932,-10.04,-5.923,-5.646,-7.422,-3.162,-2.658,-2.966,-6.628,-0.6717,2.055,-6.395,-7.615,0,0,0,0,0,0,0,0,0,0,0,0,0,0,0,0,
483,-10.85,-5.513,8.205,3.072,-9.974,-3.272,-7.2,1.076,-2.134,-1.67,-6.17,-4.129,-2.681,3.486,-5.619,-4.965,0,0,0,0,0,0,0,0,0,0,0,0,0,0,0,0,
484,-10.93,-6.729,5.549,2.429,-11.0,-4.384,-11.57,8.743,-2.765,-3.778,-11.19,-4.468,-5.958,1.134,-8.022,-10.17,0,0,0,0,0,0,0,0,0,0,0,0,0,0,0,0,
485,-9.073,-5.14,5.099,5.154,-8.603,-1.999,-13.08,8.027,-4.769,-5.713,-14.06,-10.49,-8.012,-3.135,-11.02,-18.37,0,0,0,0,0,0,0,0,0,0,0,0,0,0,0,0,
486,-3.693,-5.8,3.855,6.818,-8.895,0.6423,-11.45,4.812,-4.57,-6.557,-12.35,-15.53,-8.789,-7.567,-10.28,-23.11,0,0,0,0,0,0,0,0,0,0,0,0,0,0,0,0,
487,-7.843,-10.92,-2.114,2.505,-16.46,-4.356,-16.5,2.643,-7.037,-8.985,-12.6,-17.23,-12.88,-12.3,-8.57,-25.53,0,0,0,0,0,0,0,0,0,0,0,0,0,0,0,0,
488,-17.18,-14.92,-7.464,-0.2525,-21.01,-10.83,-23.64,2.239,-14.16,-11.47,-12.39,-17.54,-14.96,-15.13,-6.501,-25.34,0,0,0,0,0,0,0,0,0,0,0,0,0,0,0,0,
489,-15.42,-12.9,-6.781,0.0581,-16.07,-11.73,-18.92,2.288,-14.69,-12.71,-6.628,-18.96,-9.202,-15.55,-5.439,-24.42,0,0,0,0,0,0,0,0,0,0,0,0,0,0,0,0,
490,-11.0,-6.362,-0.7697,-0.4691,-9.444,-9.828,-9.405,-0.1946,-8.14,-14.14,-2.571,-21.77,-3.455,-14.94,-8.089,-26.64,0,0,0,0,0,0,0,0,0,0,0,0,0,0,0,0,
491,-12.52,-3.574,3.604,-0.8035,-9.092,-8.333,-7.205,-2.116,-5.03,-13.93,-1.408,-21.01,-1.514,-12.76,-8.006,-26.9,0,0,0,0,0,0,0,0,0,0,0,0,0,0,0,0,
492,-11.68,-8.589,1.753,-2.738,-13.71,-9.386,-6.841,-1.344,-4.342,-11.68,0.721,-15.04,0.0639,-8.572,-4.694,-22.95,0,0,0,0,0,0,0,0,0,0,0,0,0,0,0,0,
493,-11.17,-12.95,-1.556,-5.934,-15.76,-13.0,-5.082,-1.103,-2.717,-11.0,-0.0435,-9.446,-0.8477,-4.458,-4.514,-19.13,0,0,0,0,0,0,0,0,0,0,0,0,0,0,0,0,
494,-14.88,-11.8,-3.837,-6.458,-13.96,-15.31,-7.292,-1.517,-2.439,-12.1,-1.018,-7.726,-4.049,-4.032,-4.798,-16.37,0,0,0,0,0,0,0,0,0,0,0,0,0,0,0,0,
495,-16.43,-13.79,-8.139,-7.956,-14.67,-16.37,-9.677,-1.686,-1.68,-13.8,1.596,-6.68,-5.914,-6.273,-4.032,-15.35,0,0,0,0,0,0,0,0,0,0,0,0,0,0,0,0,
496,-17.86,-20.25,-12.27,-12.2,-18.25,-19.02,-8.206,-2.531,-1.114,-17.64,1.291,-3.541,-7.545,-7.796,-3.567,-14.85,0,0,0,0,0,0,0,0,0,0,0,0,0,0,0,0,
497,-19.91,-20.36,-12.34,-14.33,-20.42,-21.24,-8.798,-3.343,-4.532,-22.61,-1.778,-3.316,-8.675,-11.15,-3.875,-16.24,0,0,0,0,0,0,0,0,0,0,0,0,0,0,0,0,
498,-16.45,-13.79,-8.022,-13.83,-18.26,-19.57,-9.856,-3.471,-5.806,-23.39,-2.159,-8.004,-7.548,-14.23,-6.26,-21.92,0,0,0,0,0,0,0,0,0,0,0,0,0,0,0,0,
499,-12.13,-9.185,-2.721,-11.85,-11.53,-15.65,-5.416,-3.666,-0.9298,-19.82,-1.575,-10.22,-6.546,-11.7,-4.763,-22.68,0,0,0,0,0,0,0,0,0,0,0,0,0,0,0,0,
500,-10.84,-6.454,-1.915,-8.05,-6.179,-13.86,-0.9105,-4.454,1.742,-18.74,0.1314,-11.31,-5.474,-11.08,1.055,-19.03,0,0,0,0,0,0,0,0,0,0,0,0,0,0,0,0,
501,-5.944,-0.9725,-0.9199,-3.478,-3.157,-11.92,1.469,-4.74,1.886,-18.26,4.103,-16.45,-1.373,-13.74,2.321,-22.51,0,0,0,0,0,0,0,0,0,0,0,0,0,0,0,0,
502,0.1439,4.718,4.81,0.7906,0.8085,-5.268,4.563,-2.76,6.13,-10.83,4.824,-16.48,1.92,-9.804,0.4693,-26.58,0,0,0,0,0,0,0,0,0,0,0,0,0,0,0,0,
503,-2.225,4.69,4.32,3.188,-0.0604,-0.4676,2.322,-1.2,8.394,-4.167,1.184,-10.03,-0.2175,-6.184,-2.581,-24.66,0,0,0,0,0,0,0,0,0,0,0,0,0,0,0,0,
504,-8.364,0.7844,-2.268,1.904,-4.123,-3.194,-4.222,-3.501,5.033,-7.614,-0.8557,-9.682,-3.412,-10.37,-10.0,-23.0,0,0,0,0,0,0,0,0,0,0,0,0,0,0,0,0,
505,-6.883,-0.5142,-2.479,-2.781,-2.692,-6.062,-4.726,-4.706,4.95,-12.62,-0.6282,-11.02,-3.478,-10.95,-16.79,-22.0,0,0,0,0,0,0,0,0,0,0,0,0,0,0,0,0,
506,-2.322,1.027,-0.6592,-6.032,-1.139,-5.808,-1.769,-2.285,8.004,-12.72,-0.8661,-5.077,-2.947,-4.863,-17.18,-20.22,0,0,0,0,0,0,0,0,0,0,0,0,0,0,0,0,
507,-5.029,1.595,-1.843,-2.36,-2.585,-6.722,-2.147,-3.9,6.518,-12.66,-0.601,-2.279,-2.542,-0.8786,-12.18,-17.53,0,0,0,0,0,0,0,0,0,0,0,0,0,0,0,0,
508,-8.48,-0.3246,-0.618,3.205,-1.366,-6.596,-3.091,-7.187,3.155,-12.09,1.303,-6.602,-0.0175,-0.0307,-6.659,-12.71,0,0,0,0,0,0,0,0,0,0,0,0,0,0,0,0,
509,-3.575,-0.5346,0.2751,3.344,0.7145,-3.506,-2.84,-2.24,4.213,-9.189,4.117,-8.504,2.807,-0.6487,-5.0,-10.4,0,0,0,0,0,0,0,0,0,0,0,0,0,0,0,0,
510,0.7572,4.87,-4.197,1.61,1.358,-2.697,-2.694,3.321,7.78,-9.086,5.341,-8.448,2.422,-3.451,-6.561,-12.72,0,0,0,0,0,0,0,0,0,0,0,0,0,0,0,0,
511,-3.299,7.547,-12.73,0.8106,-0.2443,-5.108,-1.721,0.3689,8.794,-13.21,3.437,-9.371,0.4626,-6.917,-7.745,-13.25,0,0,0,0,0,0,0,0,0,0,0,0,0,0,0,0,
512,-8.899,2.146,-20.48,-1.47,-5.925,-6.845,-2.374,-4.111,6.866,-16.72,1.444,-9.982,-1.137,-10.32,-5.918,-11.95,0,0,0,0,0,0,0,0,0,0,0,0,0,0,0,0,
513,-13.71,-1.953,-22.38,-4.773,-11.76,-9.223,-9.224,-6.77,1.908,-19.75,-0.7695,-12.35,-5.55,-14.58,-5.388,-16.19,0,0,0,0,0,0,0,0,0,0,0,0,0,0,0,0,
514,-18.15,-2.81,-21.56,-7.754,-16.38,-13.13,-15.99,-9.137,-7.158,-23.82,-4.662,-12.43,-10.18,-16.43,-8.617,-20.64,0,0,0,0,0,0,0,0,0,0,0,0,0,0,0,0,
515,-15.25,-4.408,-21.64,-8.266,-19.68,-13.23,-12.15,-8.883,-13.43,-23.68,-3.378,-8.304,-6.804,-12.14,-6.189,-16.74,0,0,0,0,0,0,0,0,0,0,0,0,0,0,0,0,
516,-9.42,-2.077,-19.58,-5.347,-15.83,-8.37,-3.228,-7.737,-8.841,-17.38,4.238,-9.191,1.735,-6.042,1.244,-13.45,0,0,0,0,0,0,0,0,0,0,0,0,0,0,0,0,
517,-9.808,3.267,-16.07,-2.845,-8.359,-3.013,0.4471,-6.098,2.706,-10.07,9.368,-11.79,7.654,-2.97,2.769,-13.34,0,0,0,0,0,0,0,0,0,0,0,0,0,0,0,0,
518,-8.319,4.88,-13.44,-1.78,-5.979,0.8929,2.552,-1.968,11.66,-4.521,10.28,-8.149,9.816,-1.103,-0.6835,-9.387,0,0,0,0,0,0,0,0,0,0,0,0,0,0,0,0,
519,-1.686,4.093,-12.34,0.6227,-5.282,2.813,5.071,0.3926,13.07,-2.098,8.822,-5.769,6.981,-0.0633,-5.542,-8.477,0,0,0,0,0,0,0,0,0,0,0,0,0,0,0,0,
520,-0.1809,5.067,-14.5,4.024,-2.78,3.205,2.935,-0.0773,10.22,-3.101,5.057,-5.232,1.247,-0.492,-9.019,-9.795,0,0,0,0,0,0,0,0,0,0,0,0,0,0,0,0,
521,-3.485,7.641,-17.82,5.066,-2.141,2.445,0.5907,-0.1118,9.55,-3.914,2.855,-0.2118,0.0131,0.6185,-6.914,-4.471,0,0,0,0,0,0,0,0,0,0,0,0,0,0,0,0,
522,-4.202,9.221,-19.13,1.884,-3.426,-1.002,2.119,-0.3621,10.83,-3.778,4.097,5.038,4.537,4.562,-0.8024,2.988,0,0,0,0,0,0,0,0,0,0,0,0,0,0,0,0,
523,-1.538,9.992,-18.93,-1.67,-4.685,-3.583,1.415,-0.0751,12.8,-4.392,7.674,8.849,11.73,9.002,8.61,10.07,0,0,0,0,0,0,0,0,0,0,0,0,0,0,0,0,
524,0.4105,10.9,-18.38,-1.56,-4.802,-2.155,-0.9167,1.52,17.11,-5.925,11.65,10.06,17.04,9.886,15.48,12.07,0,0,0,0,0,0,0,0,0,0,0,0,0,0,0,0,
525,-0.9806,9.179,-17.67,-0.0122,-1.896,-2.369,0.2721,1.519,19.47,-9.699,11.18,4.817,15.49,6.76,12.77,5.604,0,0,0,0,0,0,0,0,0,0,0,0,0,0,0,0,
526,-2.072,7.036,-15.42,0.4183,0.5353,-4.918,1.138,-0.1409,16.92,-14.56,8.386,1.674,12.62,5.302,11.12,5.176,0,0,0,0,0,0,0,0,0,0,0,0,0,0,0,0,
527,-1.502,8.799,-13.58,-0.808,-1.542,-4.461,-0.0139,-1.503,15.43,-17.92,9.283,3.918,14.62,4.63,14.37,9.159,0,0,0,0,0,0,0,0,0,0,0,0,0,0,0,0,
528,-0.9985,9.728,-14.85,-2.319,-2.314,-2.578,0.09,-1.934,16.34,-20.71,8.602,0.9441,14.15,-1.543,10.53,3.2,0,0,0,0,0,0,0,0,0,0,0,0,0,0,0,0,
529,3.025,8.411,-13.94,-0.2712,1.626,-1.075,-0.7963,-1.173,14.52,-21.72,2.427,-5.964,8.28,-9.859,1.045,-5.141,0,0,0,0,0,0,0,0,0,0,0,0,0,0,0,0,
530,8.671,9.956,-9.602,2.828,3.773,0.4548,-1.714,-1.17,10.55,-20.94,-1.154,-9.557,4.003,-14.43,-4.734,-8.828,0,0,0,0,0,0,0,0,0,0,0,0,0,0,0,0,
531,9.01,11.8,-8.831,1.629,2.428,-1.097,0.0114,-1.97,7.242,-21.71,0.1332,-8.818,1.624,-13.28,-4.268,-8.865,0,0,0,0,0,0,0,0,0,0,0,0,0,0,0,0,
532,6.366,10.37,-10.41,-0.6219,2.211,-3.229,-3.47,1.163,3.114,-18.98,0.0754,-1.681,-0.68,-4.75,0.1965,-4.023,0,0,0,0,0,0,0,0,0,0,0,0,0,0,0,0,
533,5.376,8.163,-9.981,-1.267,3.928,-1.043,-11.97,5.529,-1.116,-9.775,-1.613,5.123,-1.814,4.629,1.874,-1.45,0,0,0,0,0,0,0,0,0,0,0,0,0,0,0,0,
534,5.214,5.725,-9.854,-2.309,5.261,0.2157,-13.01,2.534,-3.128,-4.054,-2.042,3.857,-4.113,8.125,0.2096,-2.136,0,0,0,0,0,0,0,0,0,0,0,0,0,0,0,0,
535,3.055,3.978,-9.007,-1.665,4.337,-1.899,-8.959,-2.034,-4.106,-2.958,-0.9381,4.617,-5.028,11.77,4.321,3.261,0,0,0,0,0,0,0,0,0,0,0,0,0,0,0,0,
536,-1.19,5.529,-6.746,0.2021,1.286,-2.023,-8.345,2.158,-3.733,0.1657,2.087,11.33,-0.588,16.78,15.04,11.66,0,0,0,0,0,0,0,0,0,0,0,0,0,0,0,0,
537,-4.793,5.643,-12.15,-2.055,-4.158,-4.326,-8.382,7.042,-3.994,-1.358,3.891,12.36,0.1503,14.79,20.05,13.4,0,0,0,0,0,0,0,0,0,0,0,0,0,0,0,0,
538,-9.51,0.0778,-24.85,-6.439,-13.17,-13.19,-10.57,3.542,-11.51,-10.72,-0.2245,6.931,-8.299,6.909,14.86,7.789,0,0,0,0,0,0,0,0,0,0,0,0,0,0,0,0,
539,-14.76,-3.577,-28.4,-7.09,-19.45,-18.72,-16.04,-1.199,-21.26,-17.19,-5.81,2.481,-15.55,0.4345,9.767,0.5245,0,0,0,0,0,0,0,0,0,0,0,0,0,0,0,0,
540,-13.58,-0.2155,-21.58,-4.515,-16.0,-16.86,-15.15,-1.203,-21.93,-19.18,-5.636,0.107,-15.28,-2.907,7.488,-2.881,0,0,0,0,0,0,0,0,0,0,0,0,0,0,0,0,
541,-8.444,3.27,-19.49,-1.808,-10.19,-15.42,-9.708,-0.0142,-16.51,-22.88,-2.97,-1.105,-12.76,-4.639,1.246,-1.936,0,0,0,0,0,0,0,0,0,0,0,0,0,0,0,0,
542,-6.86,2.168,-22.32,-0.6602,-10.13,-14.76,-9.627,-0.9498,-12.58,-26.19,-4.244,-1.946,-12.59,-6.039,-6.486,-2.086,0,0,0,0,0,0,0,0,0,0,0,0,0,0,0,0,
543,-8.128,0.6019,-21.02,-0.7292,-9.447,-10.83,-8.561,-2.082,-9.863,-25.34,-5.912,-2.496,-11.54,-5.721,-7.829,-4.883,0,0,0,0,0,0,0,0,0,0,0,0,0,0,0,0,
544,-6.558,3.566,-15.02,1.462,-2.195,-4.538,0.1492,-0.1749,-5.86,-20.76,-0.5631,-1.961,-4.418,-1.894,-0.8394,-2.698,0,0,0,0,0,0,0,0,0,0,0,0,0,0,0,0,
545,3.34,9.884,-7.348,7.25,6.529,3.229,9.246,2.081,1.538,-13.62,9.543,-0.5043,5.222,3.954,8.274,5.298,0,0,0,0,0,0,0,0,0,0,0,0,0,0,0,0,
546,13.62,14.09,-3.885,12.35,12.48,10.97,13.14,2.181,10.71,-5.055,15.13,2.07,9.866,10.06,12.02,10.0,0,0,0,0,0,0,0,0,0,0,0,0,0,0,0,0,
547,10.42,13.84,-7.282,12.59,15.45,14.62,10.08,3.397,14.19,2.711,12.04,3.698,7.628,12.23,10.49,8.434,0,0,0,0,0,0,0,0,0,0,0,0,0,0,0,0,
548,2.214,9.481,-10.61,9.152,12.67,12.88,2.125,4.544,7.581,5.72,4.44,2.778,-0.1323,6.404,4.899,2.931,0,0,0,0,0,0,0,0,0,0,0,0,0,0,0,0,
549,1.53,4.157,-11.63,6.586,5.774,9.145,-2.388,2.922,-3.104,4.213,-1.991,2.373,-7.804,-0.3749,-2.565,-0.9984,0,0,0,0,0,0,0,0,0,0,0,0,0,0,0,0,
550,1.929,4.086,-14.01,5.629,2.082,6.568,-4.004,1.407,-7.6,3.531,-5.927,1.943,-9.086,-0.5548,-4.905,1.456,0,0,0,0,0,0,0,0,0,0,0,0,0,0,0,0,
551,0.7013,7.643,-14.59,3.978,1.644,4.559,-5.971,0.8514,-5.241,4.317,-6.389,-0.7505,-6.766,0.7831,-2.542,3.625,0,0,0,0,0,0,0,0,0,0,0,0,0,0,0,0,
552,1.598,9.133,-10.22,3.212,1.274,2.623,-1.767,1.399,-3.513,3.66,-2.915,-3.29,-5.133,-0.4831,-1.035,1.251,0,0,0,0,0,0,0,0,0,0,0,0,0,0,0,0,
553,0.9215,8.969,-5.454,3.937,1.818,0.9969,5.577,2.165,-2.963,0.9347,-0.6755,-5.139,-2.397,-0.1825,0.5515,0.0725,0,0,0,0,0,0,0,0,0,0,0,0,0,0,0,0,
554,0.5923,6.48,-2.578,2.821,1.856,-2.132,8.965,-2.053,0.0905,-2.684,0.8554,-5.483,2.355,2.611,5.101,2.747,0,0,0,0,0,0,0,0,0,0,0,0,0,0,0,0,
555,3.652,2.102,1.103,0.7053,1.393,-5.43,13.57,-6.552,3.722,-3.829,7.162,-2.191,6.735,3.554,10.46,7.207,0,0,0,0,0,0,0,0,0,0,0,0,0,0,0,0,
556,0.3992,-0.6047,2.997,-0.7858,1.985,-6.337,17.97,-2.784,5.96,-4.461,11.93,0.3286,8.783,1.132,11.47,7.314,0,0,0,0,0,0,0,0,0,0,0,0,0,0,0,0,
557,-7.801,-3.197,-0.491,-3.946,-0.717,-8.691,17.78,0.711,7.048,-11.95,11.66,-1.823,8.567,-3.132,9.076,2.031,0,0,0,0,0,0,0,0,0,0,0,0,0,0,0,0,
558,-5.925,-3.908,-4.359,-6.626,-4.974,-12.95,18.43,-3.883,6.778,-21.84,13.7,-5.908,6.762,-8.498,6.378,-1.127,0,0,0,0,0,0,0,0,0,0,0,0,0,0,0,0,
559,2.344,0.9567,-4.205,-4.208,-1.493,-10.94,20.13,-7.856,8.186,-23.75,15.77,-8.639,4.512,-12.67,2.743,-2.62,0,0,0,0,0,0,0,0,0,0,0,0,0,0,0,0,
560,6.341,4.851,-1.292,0.596,6.791,-2.171,22.13,-6.817,11.99,-20.49,14.06,-8.599,3.917,-13.27,2.156,-3.806,0,0,0,0,0,0,0,0,0,0,0,0,0,0,0,0,
561,8.262,4.762,1.824,2.924,9.969,3.483,26.11,-5.438,12.41,-17.84,13.38,-6.355,4.594,-11.05,4.692,-0.0663,0,0,0,0,0,0,0,0,0,0,0,0,0,0,0,0,
562,6.766,7.816,2.605,4.321,9.181,4.349,27.02,-3.425,11.17,-12.76,14.0,-2.606,5.798,-5.761,5.478,5.952,0,0,0,0,0,0,0,0,0,0,0,0,0,0,0,0,
563,3.855,14.08,2.506,7.198,9.751,7.434,24.45,0.059,14.05,-4.904,13.56,1.054,7.172,-0.668,6.128,9.272,0,0,0,0,0,0,0,0,0,0,0,0,0,0,0,0,
564,7.566,14.56,-0.2,8.514,8.893,10.98,19.72,1.405,13.93,-0.4803,9.428,0.4147,4.026,-1.909,1.943,7.758,0,0,0,0,0,0,0,0,0,0,0,0,0,0,0,0,
565,9.03,8.055,-10.17,6.579,3.432,9.22,11.44,-0.1488,6.407,0.3193,-0.4404,-3.555,-2.854,-4.831,-8.011,2.65,0,0,0,0,0,0,0,0,0,0,0,0,0,0,0,0,
566,3.154,3.801,-17.64,4.499,-0.1648,6.148,6.995,-2.018,0.8932,3.123,-8.904,-6.395,-5.368,-4.907,-11.25,-0.4233,0,0,0,0,0,0,0,0,0,0,0,0,0,0,0,0,
567,3.162,3.733,-15.25,3.878,2.933,5.578,8.152,-2.879,0.6422,7.004,-9.844,-8.779,-3.818,-7.943,-9.473,-1.729,0,0,0,0,0,0,0,0,0,0,0,0,0,0,0,0,
568,8.837,3.258,-12.72,4.701,6.339,4.85,9.389,-3.393,2.618,7.593,-6.263,-11.17,-3.22,-12.52,-9.748,-4.106,0,0,0,0,0,0,0,0,0,0,0,0,0,0,0,0,
569,8.683,4.489,-11.95,5.515,5.797,3.66,12.48,-3.964,4.799,5.988,-3.974,-12.79,-5.001,-13.79,-10.97,-8.455,0,0,0,0,0,0,0,0,0,0,0,0,0,0,0,0,
570,3.111,5.625,-10.06,2.655,4.008,1.392,13.81,-4.072,0.9699,3.318,-7.162,-15.32,-9.172,-16.1,-15.39,-15.44,0,0,0,0,0,0,0,0,0,0,0,0,0,0,0,0,
571,0.0078,2.177,-11.02,-1.371,1.77,-3.248,11.24,-5.596,-6.409,-2.286,-10.08,-18.04,-12.3,-20.17,-18.25,-19.03,0,0,0,0,0,0,0,0,0,0,0,0,0,0,0,0,
572,4.104,2.013,-10.61,0.1553,2.178,-3.963,13.3,-8.481,-6.552,-8.733,-6.427,-18.63,-12.98,-20.1,-15.99,-16.36,0,0,0,0,0,0,0,0,0,0,0,0,0,0,0,0,
573,11.5,8.744,-5.357,5.525,9.901,3.236,18.2,-8.891,-1.294,-10.1,-1.893,-16.36,-12.25,-15.11,-14.27,-10.4,0,0,0,0,0,0,0,0,0,0,0,0,0,0,0,0,
574,14.88,11.28,-2.737,7.811,18.25,8.905,20.26,-10.93,1.506,-7.785,0.8727,-11.8,-8.154,-11.8,-10.23,-2.544,0,0,0,0,0,0,0,0,0,0,0,0,0,0,0,0,
575,11.35,5.71,-6.425,5.898,17.25,6.399,19.85,-16.45,0.3758,-10.83,2.284,-9.244,-5.237,-14.77,-6.272,-1.013,0,0,0,0,0,0,0,0,0,0,0,0,0,0,0,0,
576,3.404,2.233,-13.61,5.196,10.8,5.181,14.22,-13.14,-1.793,-16.94,-1.116,-10.85,-7.438,-17.91,-9.721,-5.92,0,0,0,0,0,0,0,0,0,0,0,0,0,0,0,0,
577,0.3007,5.921,-16.5,9.037,8.569,11.58,9.15,-2.433,-1.246,-14.13,-4.532,-11.18,-7.791,-15.99,-12.7,-5.223,0,0,0,0,0,0,0,0,0,0,0,0,0,0,0,0,
578,4.717,9.417,-10.23,12.89,11.04,16.68,12.21,0.5363,-1.527,-4.969,-3.911,-8.909,-6.933,-14.14,-11.13,-2.583,0,0,0,0,0,0,0,0,0,0,0,0,0,0,0,0,
579,7.626,10.41,-5.708,13.31,13.38,17.86,14.7,-0.1275,-5.405,1.218,-4.689,-9.552,-9.604,-13.72,-10.41,-4.533,0,0,0,0,0,0,0,0,0,0,0,0,0,0,0,0,
580,9.23,14.21,-8.784,14.06,14.78,22.67,12.45,3.163,-5.317,7.283,-6.662,-11.28,-9.46,-9.837,-10.61,-5.065,0,0,0,0,0,0,0,0,0,0,0,0,0,0,0,0,
581,15.08,19.65,-8.389,15.83,17.53,27.54,11.97,3.479,-1.508,15.12,-7.2,-9.681,-6.304,-3.845,-10.92,-4.832,0,0,0,0,0,0,0,0,0,0,0,0,0,0,0,0,
582,19.78,24.47,-3.445,14.76,20.35,25.93,11.25,0.561,-2.398,19.26,-8.154,-9.592,-6.402,-0.5633,-10.92,-7.767,0,0,0,0,0,0,0,0,0,0,0,0,0,0,0,0,
583,18.28,26.95,-2.658,12.49,19.85,23.52,8.095,-0.4203,-5.799,19.53,-7.25,-10.66,-5.461,0.704,-8.864,-8.692,0,0,0,0,0,0,0,0,0,0,0,0,0,0,0,0,
584,12.8,22.94,-4.597,11.65,17.73,22.59,7.917,-0.7341,-7.042,18.89,-3.46,-6.253,-2.067,2.052,-6.868,-4.712,0,0,0,0,0,0,0,0,0,0,0,0,0,0,0,0,
585,7.008,18.52,-6.47,8.256,16.2,16.97,9.412,-1.359,-8.922,15.33,-2.182,-3.131,-3.259,1.711,-9.603,-2.717,0,0,0,0,0,0,0,0,0,0,0,0,0,0,0,0,
586,5.069,20.14,-9.083,2.815,13.51,8.251,6.845,-2.389,-11.66,7.975,-3.189,-6.968,-6.018,1.703,-13.6,-3.299,0,0,0,0,0,0,0,0,0,0,0,0,0,0,0,0,
587,7.399,21.73,-10.33,2.871,11.6,3.98,4.149,-3.59,-10.27,1.598,-1.076,-8.559,-3.48,4.977,-9.883,1.798,0,0,0,0,0,0,0,0,0,0,0,0,0,0,0,0,
588,9.036,21.35,-10.96,6.009,12.53,4.518,6.883,-4.699,-4.729,-2.771,2.415,-7.563,-0.6631,4.122,-3.974,6.272,0,0,0,0,0,0,0,0,0,0,0,0,0,0,0,0,
589,8.427,21.46,-12.29,5.035,12.07,5.51,10.24,-7.85,-0.5219,-9.126,1.937,-11.3,-2.699,-3.193,-5.166,1.578,0,0,0,0,0,0,0,0,0,0,0,0,0,0,0,0,
590,9.001,20.31,-11.81,4.268,9.606,6.921,9.391,-10.08,0.834,-14.35,-2.064,-14.32,-6.065,-7.731,-7.528,-2.627,0,0,0,0,0,0,0,0,0,0,0,0,0,0,0,0,
591,9.747,18.87,-10.42,7.161,8.508,10.18,8.224,-7.334,-0.2861,-14.17,-4.709,-11.83,-8.72,-10.13,-8.111,-3.023,0,0,0,0,0,0,0,0,0,0,0,0,0,0,0,0,
592,7.606,17.77,-8.8,9.479,8.057,13.05,10.08,-4.987,-4.274,-12.96,-3.562,-10.44,-11.55,-14.89,-10.26,-5.902,0,0,0,0,0,0,0,0,0,0,0,0,0,0,0,0,
593,6.735,16.75,-5.546,11.84,9.512,15.11,12.16,-6.027,-5.151,-11.61,-3.08,-12.93,-12.76,-16.35,-11.15,-9.756,0,0,0,0,0,0,0,0,0,0,0,0,0,0,0,0,
594,10.61,19.85,-3.546,14.4,14.67,17.9,11.46,-5.415,1.061,-7.44,-5.376,-14.35,-9.43,-12.57,-7.776,-11.56,0,0,0,0,0,0,0,0,0,0,0,0,0,0,0,0,
595,13.96,25.05,-3.3,12.98,17.3,18.39,9.316,-2.741,7.393,-3.812,-4.515,-12.36,-2.821,-8.383,-0.4922,-9.417,0,0,0,0,0,0,0,0,0,0,0,0,0,0,0,0,
596,11.76,24.33,-2.987,10.87,14.45,16.51,7.703,-0.3714,9.244,0.0237,-2.028,-8.841,-0.2537,-6.309,3.776,-6.571,0,0,0,0,0,0,0,0,0,0,0,0,0,0,0,0,
597,7.433,19.51,-4.206,11.93,12.53,17.65,4.0,2.966,8.876,7.325,-4.689,-5.243,-5.04,-6.533,-0.5836,-8.062,0,0,0,0,0,0,0,0,0,0,0,0,0,0,0,0,
598,6.705,17.2,-5.875,11.57,12.5,19.55,-2.651,4.955,7.071,11.59,-7.961,-1.476,-9.444,-6.494,-5.095,-7.248,0,0,0,0,0,0,0,0,0,0,0,0,0,0,0,0,
599,6.531,15.15,-7.045,9.151,11.42,17.21,-5.024,2.935,6.083,9.89,-6.886,2.959,-7.33,-4.713,-4.166,-2.769,0,0,0,0,0,0,0,0,0,0,0,0,0,0,0,0,
600,3.552,12.12,-8.378,8.223,11.59,14.09,-1.343,2.644,9.669,8.41,-4.258,5.908,-2.78,-3.654,-3.088,-3.295,0,0,0,0,0,0,0,0,0,0,0,0,0,0,0,0,
601,4.499,13.38,-6.81,6.217,12.38,12.97,0.2049,4.567,13.88,7.45,-2.065,5.088,-1.319,-2.969,-4.157,-5.034,0,0,0,0,0,0,0,0,0,0,0,0,0,0,0,0,
602,9.274,15.69,-4.007,2.62,12.42,12.68,1.427,0.0582,14.11,6.349,-0.5154,4.877,-0.8883,-0.1303,-4.437,-1.268,0,0,0,0,0,0,0,0,0,0,0,0,0,0,0,0,
603,9.385,12.49,-4.262,1.296,14.5,12.96,9.261,-6.171,17.28,8.364,4.009,6.843,4.894,3.789,0.2694,2.817,0,0,0,0,0,0,0,0,0,0,0,0,0,0,0,0,
604,7.467,9.311,-4.517,0.8158,15.09,12.52,15.79,-2.611,26.8,9.728,12.22,4.988,14.02,6.13,7.228,3.593,0,0,0,0,0,0,0,0,0,0,0,0,0,0,0,0,
605,7.87,10.71,-3.983,0.5504,11.94,12.6,14.2,4.047,31.67,8.048,13.5,1.671,16.85,5.014,8.234,3.943,0,0,0,0,0,0,0,0,0,0,0,0,0,0,0,0,
606,6.808,11.66,-5.983,2.46,11.01,14.73,9.852,4.295,28.26,8.566,5.737,1.277,11.81,0.422,3.308,1.905,0,0,0,0,0,0,0,0,0,0,0,0,0,0,0,0,
607,3.762,10.68,-7.9,2.567,11.38,13.6,5.559,3.433,24.88,9.86,0.4751,-1.528,5.284,-3.728,-1.517,-3.92,0,0,0,0,0,0,0,0,0,0,0,0,0,0,0,0,
608,-0.3072,10.18,-6.69,-0.6785,10.51,7.902,3.201,4.43,21.9,8.108,-1.039,-4.451,0.0906,-4.88,-3.28,-5.606,0,0,0,0,0,0,0,0,0,0,0,0,0,0,0,0,
609,-4.758,9.551,-6.496,-2.432,10.25,4.8,4.863,2.799,15.91,5.923,-3.776,-0.9821,-3.55,-6.093,-3.996,-2.965,0,0,0,0,0,0,0,0,0,0,0,0,0,0,0,0,
610,-4.302,9.785,-10.47,-1.367,7.132,6.972,6.799,-0.1056,10.72,4.253,-4.124,2.26,-4.126,-7.111,-4.29,-2.707,0,0,0,0,0,0,0,0,0,0,0,0,0,0,0,0,
611,-0.4102,11.89,-13.91,0.7086,2.727,10.27,6.563,-0.7433,8.484,3.645,-2.302,1.342,-2.892,-4.54,-1.692,-2.114,0,0,0,0,0,0,0,0,0,0,0,0,0,0,0,0,
612,-1.44,10.02,-13.94,0.924,2.261,10.34,3.823,-1.238,6.843,4.805,-2.604,1.66,-3.169,-2.726,-0.5674,-2.466,0,0,0,0,0,0,0,0,0,0,0,0,0,0,0,0,
613,-4.016,3.578,-13.81,-2.196,1.299,7.667,1.279,-2.84,6.822,4.377,0.1141,2.259,-3.36,-4.337,-1.921,-4.894,0,0,0,0,0,0,0,0,0,0,0,0,0,0,0,0,
614,-2.18,1.82,-14.23,-4.372,0.1844,6.314,3.58,-2.975,10.36,3.128,5.797,-0.1049,-1.405,-3.567,-0.1628,-1.958,0,0,0,0,0,0,0,0,0,0,0,0,0,0,0,0,
615,-3.109,3.372,-14.9,-3.943,2.312,5.466,3.713,-2.002,12.73,3.161,3.834,-2.422,-1.753,-1.729,-0.8989,-0.742,0,0,0,0,0,0,0,0,0,0,0,0,0,0,0,0,
616,-8.168,0.2296,-15.85,-2.85,2.376,4.536,-2.094,-1.922,10.8,1.78,-2.195,-2.901,-6.105,-4.311,-6.902,-8.123,0,0,0,0,0,0,0,0,0,0,0,0,0,0,0,0,
617,-8.874,-2.426,-14.54,1.241,2.491,9.366,-2.164,-0.9005,11.53,0.5894,-2.653,-4.534,-10.08,-8.734,-12.77,-14.48,0,0,0,0,0,0,0,0,0,0,0,0,0,0,0,0,
618,-7.669,1.73,-12.6,6.65,6.937,17.45,2.046,2.003,17.04,0.3531,-3.776,-7.386,-12.19,-12.54,-19.65,-18.76,0,0,0,0,0,0,0,0,0,0,0,0,0,0,0,0,
619,-7.501,8.342,-11.03,7.839,9.424,19.55,-0.2471,4.151,20.81,-2.528,-8.797,-6.287,-11.13,-13.53,-21.97,-21.22,0,0,0,0,0,0,0,0,0,0,0,0,0,0,0,0,
620,-2.173,12.45,-6.122,8.588,11.16,19.19,-2.39,5.03,25.07,-2.322,-8.626,-1.724,-4.333,-7.663,-15.04,-15.68,0,0,0,0,0,0,0,0,0,0,0,0,0,0,0,0,
621,4.663,13.67,-1.761,12.42,16.95,21.78,2.499,6.225,33.36,4.825,-1.869,-1.577,3.6,-1.624,-9.299,-9.807,0,0,0,0,0,0,0,0,0,0,0,0,0,0,0,0,
622,4.423,12.91,-1.814,12.53,20.18,21.04,7.696,6.815,37.53,8.986,2.846,-5.461,4.708,-3.608,-8.798,-11.71,0,0,0,0,0,0,0,0,0,0,0,0,0,0,0,0,
623,2.673,10.09,-0.4217,7.591,19.14,16.82,8.778,4.639,33.82,7.597,0.4214,-5.23,-1.451,-6.655,-9.655,-13.78,0,0,0,0,0,0,0,0,0,0,0,0,0,0,0,0,
624,6.562,8.097,3.223,5.026,19.48,15.98,6.558,1.463,27.86,6.724,-4.288,-2.245,-7.813,-4.691,-9.521,-9.818,0,0,0,0,0,0,0,0,0,0,0,0,0,0,0,0,
625,9.404,10.09,5.016,4.917,20.84,16.07,2.691,0.7168,22.67,4.929,-4.704,-2.422,-8.735,-2.527,-5.641,-4.826,0,0,0,0,0,0,0,0,0,0,0,0,0,0,0,0,
626,7.495,11.47,7.508,4.226,23.63,15.48,2.461,-0.08,20.78,4.159,-2.802,-2.742,-6.809,-1.857,-1.697,-2.81,0,0,0,0,0,0,0,0,0,0,0,0,0,0,0,0,
627,8.797,10.09,11.51,5.026,27.37,16.7,6.846,-3.115,21.81,8.136,-2.728,-1.986,-8.162,-2.418,-3.012,-2.519,0,0,0,0,0,0,0,0,0,0,0,0,0,0,0,0,
628,9.834,8.014,9.78,4.606,24.27,14.15,6.317,-3.037,17.73,7.272,-4.858,-5.364,-13.04,-6.81,-7.413,-5.465,0,0,0,0,0,0,0,0,0,0,0,0,0,0,0,0,
629,2.617,1.743,0.1538,0.049,15.1,7.362,-1.01,0.1628,8.546,-0.683,-8.07,-10.11,-16.69,-11.72,-10.18,-9.711,0,0,0,0,0,0,0,0,0,0,0,0,0,0,0,0,
630,-2.286,-4.805,-8.143,-2.557,8.926,4.293,-4.433,-0.833,2.24,-4.734,-10.12,-10.95,-17.38,-12.27,-11.23,-10.4,0,0,0,0,0,0,0,0,0,0,0,0,0,0,0,0,
631,-0.9163,-3.738,-9.629,-1.98,6.104,2.889,-3.863,-4.426,-1.978,-7.565,-10.56,-11.11,-16.47,-9.248,-14.47,-10.99,0,0,0,0,0,0,0,0,0,0,0,0,0,0,0,0,
632,-2.41,-1.242,-8.517,-2.621,5.596,0.4777,-4.872,-4.496,-3.557,-13.71,-8.972,-12.47,-13.27,-5.198,-17.09,-12.47,0,0,0,0,0,0,0,0,0,0,0,0,0,0,0,0,
633,-2.435,-0.5655,-7.107,-1.125,8.8,2.633,-2.567,-2.748,4.173,-13.94,-4.716,-13.16,-8.222,-4.657,-15.11,-13.29,0,0,0,0,0,0,0,0,0,0,0,0,0,0,0,0,
634,0.8286,3.051,-6.439,3.962,10.17,7.787,0.4,-1.877,15.95,-7.856,-2.521,-11.51,-4.092,-5.336,-12.02,-14.05,0,0,0,0,0,0,0,0,0,0,0,0,0,0,0,0,
635,-0.6814,5.008,-8.976,5.736,7.331,9.771,-4.066,-0.6194,22.51,-1.296,-3.795,-5.106,-0.7854,3.349,-7.304,-7.998,0,0,0,0,0,0,0,0,0,0,0,0,0,0,0,0,
636,-4.019,3.121,-11.39,4.419,5.638,8.969,-8.576,1.195,24.77,7.036,-4.561,1.499,1.812,15.41,-1.284,1.534,0,0,0,0,0,0,0,0,0,0,0,0,0,0,0,0,
637,-5.41,3.869,-10.72,6.84,5.34,8.805,-7.956,2.333,24.48,13.0,-5.886,1.623,2.366,17.43,1.099,2.848,0,0,0,0,0,0,0,0,0,0,0,0,0,0,0,0,
638,-6.061,5.961,-10.08,11.01,4.887,11.7,-8.462,3.304,23.64,13.59,-7.399,-0.6064,1.835,16.04,0.3876,1.111,0,0,0,0,0,0,0,0,0,0,0,0,0,0,0,0,
639,-4.747,5.166,-10.01,12.2,5.821,15.88,-10.19,5.138,24.89,14.82,-7.699,-0.9253,-1.699,15.97,-4.844,-0.0373,0,0,0,0,0,0,0,0,0,0,0,0,0,0,0,0,
640,-5.186,3.519,-10.69,13.43,5.137,16.25,-12.13,6.757,22.97,13.86,-12.68,-1.752,-11.96,8.519,-14.69,-4.671,0,0,0,0,0,0,0,0,0,0,0,0,0,0,0,0,
641,-9.841,0.964,-15.38,14.58,0.7443,12.09,-16.67,7.646,14.42,4.728,-21.87,-3.167,-25.24,-3.252,-22.34,-9.19,0,0,0,0,0,0,0,0,0,0,0,0,0,0,0,0,
642,-13.78,-3.939,-19.74,11.62,-3.19,7.535,-21.08,8.018,3.935,-4.925,-26.69,-4.65,-35.0,-10.93,-26.54,-13.55,0,0,0,0,0,0,0,0,0,0,0,0,0,0,0,0,
643,-15.34,-8.107,-18.03,7.636,-6.88,4.967,-23.17,6.136,-6.025,-8.251,-27.51,-7.218,-39.42,-15.85,-27.75,-18.57,0,0,0,0,0,0,0,0,0,0,0,0,0,0,0,0,
644,-16.57,-9.459,-17.84,4.225,-12.57,1.057,-23.51,2.773,-14.29,-11.43,-29.48,-9.579,-39.41,-18.47,-25.42,-19.1,0,0,0,0,0,0,0,0,0,0,0,0,0,0,0,0,
645,-17.87,-9.949,-23.93,-0.5855,-14.88,-5.993,-22.89,-1.075,-18.65,-19.09,-30.25,-10.23,-35.82,-17.2,-21.54,-15.58,0,0,0,0,0,0,0,0,0,0,0,0,0,0,0,0,
646,-16.62,-11.16,-26.03,-1.807,-11.3,-8.533,-22.98,-6.691,-20.05,-23.95,-25.04,-9.284,-28.96,-13.61,-15.94,-12.7,0,0,0,0,0,0,0,0,0,0,0,0,0,0,0,0,
647,-11.84,-10.66,-20.88,1.52,-7.563,-3.485,-21.6,-7.497,-17.57,-20.24,-16.37,-6.926,-20.34,-7.939,-10.86,-10.28,0,0,0,0,0,0,0,0,0,0,0,0,0,0,0,0,
648,-9.462,-6.698,-18.2,1.693,-5.759,-1.13,-18.93,0.0209,-9.304,-14.35,-10.6,-3.282,-11.11,0.6077,-5.782,-2.478,0,0,0,0,0,0,0,0,0,0,0,0,0,0,0,0,
649,-11.26,-4.984,-19.3,-1.037,-2.865,-3.556,-18.76,3.977,0.5725,-10.88,-7.82,0.3826,-1.051,10.43,3.055,8.289,0,0,0,0,0,0,0,0,0,0,0,0,0,0,0,0,
650,-10.52,-5.974,-15.6,-1.212,2.822,-0.3447,-15.76,1.604,8.639,-4.722,-5.12,2.682,6.274,17.86,8.426,11.03,0,0,0,0,0,0,0,0,0,0,0,0,0,0,0,0,
651,-6.12,-1.949,-7.726,0.0781,9.823,7.93,-8.965,3.199,16.43,4.934,-2.918,5.05,9.116,21.16,7.023,9.534,0,0,0,0,0,0,0,0,0,0,0,0,0,0,0,0,
652,-1.921,1.861,-6.64,1.339,14.0,12.14,-7.368,7.469,23.77,12.66,-0.7918,8.251,13.21,23.48,6.298,11.57,0,0,0,0,0,0,0,0,0,0,0,0,0,0,0,0,
653,-0.0409,-1.123,-12.15,3.814,13.98,12.25,-8.583,7.94,28.22,17.07,0.3608,9.464,17.68,24.98,5.644,11.76,0,0,0,0,0,0,0,0,0,0,0,0,0,0,0,0,
654,-3.757,-3.748,-14.21,5.463,11.51,11.33,-8.512,5.947,26.89,17.33,-2.218,7.017,15.59,20.29,3.119,8.589,0,0,0,0,0,0,0,0,0,0,0,0,0,0,0,0,
655,-10.27,-6.905,-15.42,4.63,6.843,9.653,-10.53,3.802,19.32,12.63,-4.173,2.426,10.12,11.93,3.135,5.398,0,0,0,0,0,0,0,0,0,0,0,0,0,0,0,0,
656,-10.65,-12.76,-19.58,4.325,2.463,9.191,-10.5,2.88,11.5,8.952,-2.131,-0.5976,4.862,7.238,3.486,2.757,0,0,0,0,0,0,0,0,0,0,0,0,0,0,0,0,
657,-7.523,-12.07,-18.25,5.865,2.555,10.17,-7.303,3.786,8.146,9.578,-2.952,-0.7366,-3.927,3.724,-3.023,0.7482,0,0,0,0,0,0,0,0,0,0,0,0,0,0,0,0,
658,-7.362,-7.309,-12.62,7.324,6.722,10.09,-7.233,4.377,6.62,9.546,-8.934,-1.96,-12.75,-0.315,-12.45,-1.216,0,0,0,0,0,0,0,0,0,0,0,0,0,0,0,0,
659,-5.293,-7.089,-11.23,6.378,10.71,6.956,-8.82,3.367,3.659,6.597,-14.03,-2.63,-15.97,0.9852,-14.32,0.598,0,0,0,0,0,0,0,0,0,0,0,0,0,0,0,0,
660,-1.699,-8.928,-10.83,1.47,10.73,1.34,-10.11,2.123,-1.004,1.238,-15.79,1.746,-15.94,4.47,-11.72,5.328,0,0,0,0,0,0,0,0,0,0,0,0,0,0,0,0,
661,-3.739,-9.679,-9.595,-2.705,7.726,-1.772,-10.17,0.6093,-4.566,-6.195,-13.94,3.347,-13.49,2.589,-11.53,4.365,0,0,0,0,0,0,0,0,0,0,0,0,0,0,0,0,
662,-7.476,-8.831,-11.47,-1.163,4.605,-1.929,-5.627,-2.023,-4.336,-11.42,-9.168,-1.547,-8.581,-0.0342,-9.524,1.55,0,0,0,0,0,0,0,0,0,0,0,0,0,0,0,0,
663,-6.028,-7.285,-10.88,2.659,3.461,-1.999,-0.9961,-1.585,-1.78,-11.6,-4.286,-2.694,-2.069,3.278,-5.305,4.567,0,0,0,0,0,0,0,0,0,0,0,0,0,0,0,0,
664,1.209,-4.318,-2.673,7.048,8.237,3.128,0.9911,2.241,3.769,-7.885,0.914,-0.499,7.109,9.545,-3.131,7.882,0,0,0,0,0,0,0,0,0,0,0,0,0,0,0,0,
665,8.739,1.247,2.805,10.79,13.82,9.969,2.757,1.307,11.31,-1.329,5.209,-1.427,12.58,13.22,-1.898,6.89,0,0,0,0,0,0,0,0,0,0,0,0,0,0,0,0,
666,7.047,0.857,-3.141,7.923,9.898,6.129,0.0059,-0.8083,12.02,4.013,7.324,-0.8794,10.05,13.65,0.1499,5.243,0,0,0,0,0,0,0,0,0,0,0,0,0,0,0,0,
667,0.4939,-4.7,-9.534,2.411,5.154,-0.4852,-1.903,4.118,7.796,4.543,12.15,0.9227,9.559,14.09,4.004,5.767,0,0,0,0,0,0,0,0,0,0,0,0,0,0,0,0,
668,0.3426,-2.645,-7.448,1.107,8.312,1.195,6.183,7.24,9.548,3.675,17.48,-0.0923,13.59,16.54,8.213,9.026,0,0,0,0,0,0,0,0,0,0,0,0,0,0,0,0,
669,-0.5481,-0.4305,-8.359,-0.7716,6.508,1.367,9.547,4.178,12.2,4.893,16.08,0.3654,14.27,18.86,10.74,14.93,0,0,0,0,0,0,0,0,0,0,0,0,0,0,0,0,
670,-10.11,-6.903,-17.81,-3.582,-4.318,-4.476,0.5568,3.283,6.782,5.621,12.17,2.201,12.75,18.78,12.29,18.78,0,0,0,0,0,0,0,0,0,0,0,0,0,0,0,0,
671,-18.76,-11.49,-23.1,-2.054,-11.78,-7.062,-2.286,3.927,-0.7786,4.184,10.15,3.346,11.22,18.94,12.41,18.31,0,0,0,0,0,0,0,0,0,0,0,0,0,0,0,0,
672,-19.52,-13.15,-21.14,0.0929,-12.9,-4.752,2.457,3.4,-4.934,4.268,7.445,5.512,7.642,19.98,12.87,19.27,0,0,0,0,0,0,0,0,0,0,0,0,0,0,0,0,
673,-19.32,-16.61,-21.64,-0.4091,-12.2,-3.323,0.0433,3.07,-8.161,5.359,4.637,3.705,3.953,16.47,12.07,18.7,0,0,0,0,0,0,0,0,0,0,0,0,0,0,0,0,T1
674,-23.34,-15.59,-24.08,-0.2742,-12.09,-4.428,-5.756,0.4752,-10.79,2.703,2.324,-0.6514,0.825,11.48,4.819,13.1,0,0,0,0,0,0,0,0,0,0,0,0,0,0,0,0,
675,-25.84,-11.33,-23.81,-0.798,-14.31,-6.463,-7.005,-3.025,-12.59,-0.8474,0.4917,1.47,-2.829,12.99,-0.9924,12.6,0,0,0,0,0,0,0,0,0,0,0,0,0,0,0,0,
676,-25.34,-11.24,-24.23,-4.922,-16.18,-9.221,-6.472,-4.633,-16.45,-3.907,2.171,3.809,-3.264,13.9,1.583,14.89,0,0,0,0,0,0,0,0,0,0,0,0,0,0,0,0,
677,-25.2,-10.87,-22.15,-7.141,-13.16,-9.907,-5.877,-6.217,-19.58,-10.48,6.597,1.514,1.194,9.029,6.348,12.34,0,0,0,0,0,0,0,0,0,0,0,0,0,0,0,0,
678,-19.48,-5.553,-13.14,-3.52,-7.97,-4.692,-5.352,-5.551,-16.28,-13.99,9.418,3.364,4.548,8.049,8.465,12.59,0,0,0,0,0,0,0,0,0,0,0,0,0,0,0,0,
679,-10.77,-2.26,-7.803,0.5143,-6.185,1.606,-3.315,-1.925,-11.07,-9.903,9.518,6.745,3.674,10.08,5.198,12.58,0,0,0,0,0,0,0,0,0,0,0,0,0,0,0,0,
680,-9.012,-2.075,-8.801,3.204,-4.775,5.046,2.127,-1.488,-8.824,-6.899,8.434,5.34,3.547,7.34,0.4986,6.021,0,0,0,0,0,0,0,0,0,0,0,0,0,0,0,0,
681,-4.544,2.638,-4.755,6.045,1.437,9.026,6.638,-3.685,-5.655,-5.07,8.48,5.684,6.524,6.287,2.81,4.309,0,0,0,0,0,0,0,0,0,0,0,0,0,0,0,0,
682,7.017,8.396,1.819,6.04,8.005,11.07,9.782,-3.198,-1.284,0.6955,12.75,8.548,11.38,11.57,8.251,11.59,0,0,0,0,0,0,0,0,0,0,0,0,0,0,0,0,
683,12.62,10.32,3.462,5.298,10.55,8.992,14.94,-1.276,3.084,5.879,20.77,7.798,18.11,15.67,11.97,17.97,0,0,0,0,0,0,0,0,0,0,0,0,0,0,0,0,
684,14.17,12.86,4.054,6.828,13.47,7.941,18.19,0.1455,9.195,9.269,26.52,4.951,22.01,14.19,14.9,16.27,0,0,0,0,0,0,0,0,0,0,0,0,0,0,0,0,
685,16.62,13.2,5.625,6.53,18.15,7.465,17.69,0.2583,12.79,12.6,26.41,1.002,19.18,8.891,13.21,8.465,0,0,0,0,0,0,0,0,0,0,0,0,0,0,0,0,
686,15.41,9.771,6.563,5.428,19.46,5.923,15.07,-2.553,11.6,11.58,21.77,-6.126,14.06,2.525,6.196,1.098,0,0,0,0,0,0,0,0,0,0,0,0,0,0,0,0,
687,16.35,9.774,7.143,6.37,18.12,5.912,11.95,-2.809,10.22,7.413,16.28,-12.43,10.51,-1.49,0.4744,-4.669,0,0,0,0,0,0,0,0,0,0,0,0,0,0,0,0,
688,20.53,9.538,7.826,5.677,18.79,4.936,15.27,1.042,9.216,6.311,15.45,-14.83,9.07,-2.033,-1.073,-7.92,0,0,0,0,0,0,0,0,0,0,0,0,0,0,0,0,
689,18.19,4.918,8.295,4.476,17.72,2.595,20.62,-0.9166,7.31,6.749,15.49,-15.76,6.636,-0.4217,-4.37,-6.788,0,0,0,0,0,0,0,0,0,0,0,0,0,0,0,0,
690,14.01,4.351,6.294,7.087,12.52,4.185,14.99,-3.909,3.329,5.979,8.775,-14.13,-0.3726,3.565,-10.28,-2.685,0,0,0,0,0,0,0,0,0,0,0,0,0,0,0,0,
691,14.75,8.923,2.818,9.886,10.88,7.202,6.299,3.449,-5.411,6.573,4.183,-8.299,-4.653,9.47,-9.656,4.963,0,0,0,0,0,0,0,0,0,0,0,0,0,0,0,0,
692,13.77,10.63,0.826,7.912,12.15,6.233,5.601,9.129,-14.97,7.539,7.359,-2.026,-1.514,13.75,-6.585,10.55,0,0,0,0,0,0,0,0,0,0,0,0,0,0,0,0,
693,9.683,8.068,-0.6374,4.048,9.217,3.801,4.949,5.122,-19.43,4.613,6.513,2.138,0.0636,14.1,-10.34,9.237,0,0,0,0,0,0,0,0,0,0,0,0,0,0,0,0,
694,7.364,5.16,-0.7582,3.531,6.321,2.044,0.1262,2.75,-19.99,-1.641,1.464,3.909,-1.259,11.91,-13.12,9.124,0,0,0,0,0,0,0,0,0,0,0,0,0,0,0,0,
695,6.454,4.199,-0.6604,5.919,5.41,0.2397,-2.265,2.38,-17.73,-6.775,2.112,3.228,1.332,11.42,-10.76,11.08,0,0,0,0,0,0,0,0,0,0,0,0,0,0,0,0,
696,6.852,5.089,-3.569,9.764,3.227,2.359,0.1944,1.18,-11.25,-5.143,5.696,3.003,5.749,16.04,-8.114,11.1,0,0,0,0,0,0,0,0,0,0,0,0,0,0,0,0,
697,9.262,7.802,-4.302,16.01,5.336,10.61,3.072,5.335,-3.056,4.309,6.49,5.149,8.232,22.69,-5.402,12.2,0,0,0,0,0,0,0,0,0,0,0,0,0,0,0,0,
698,11.67,11.67,-2.313,21.07,11.13,17.56,2.143,10.46,3.187,13.42,5.019,8.026,9.815,26.14,-4.294,12.83,0,0,0,0,0,0,0,0,0,0,0,0,0,0,0,0,
699,11.9,13.6,-5.104,19.64,11.78,15.69,-0.8754,9.95,7.169,16.07,2.143,8.814,9.211,24.48,-5.692,11.69,0,0,0,0,0,0,0,0,0,0,0,0,0,0,0,0,
700,7.593,11.19,-10.67,13.58,7.582,7.919,-4.166,7.488,7.467,14.47,-1.582,5.693,4.295,18.24,-8.912,9.221,0,0,0,0,0,0,0,0,0,0,0,0,0,0,0,0,
701,0.9582,5.73,-13.89,9.046,1.791,2.836,-7.51,5.121,1.773,12.07,-3.863,1.575,-1.377,12.11,-12.58,3.889,0,0,0,0,0,0,0,0,0,0,0,0,0,0,0,0,
702,-1.202,2.147,-13.61,9.285,-0.4838,3.718,-7.456,4.519,-4.122,11.55,-2.603,-1.409,-2.441,9.621,-9.719,0.8399,0,0,0,0,0,0,0,0,0,0,0,0,0,0,0,0,
703,1.085,4.111,-9.505,12.38,6.457,7.803,-5.662,6.062,-2.082,13.53,1.298,-4.187,1.239,9.377,-0.3673,3.931,0,0,0,0,0,0,0,0,0,0,0,0,0,0,0,0,
704,3.232,7.481,-7.416,14.4,13.34,11.69,-6.521,3.931,3.391,15.99,5.845,-3.945,6.029,11.27,6.463,9.305,0,0,0,0,0,0,0,0,0,0,0,0,0,0,0,0,
705,3.926,6.607,-9.732,13.55,11.74,11.68,-6.324,1.345,2.802,16.67,8.531,-2.028,7.87,11.84,7.8,11.96,0,0,0,0,0,0,0,0,0,0,0,0,0,0,0,0,
706,4.575,4.203,-10.5,11.43,9.373,8.187,-3.322,6.394,-2.301,13.99,8.532,-2.179,7.47,9.162,7.843,12.06,0,0,0,0,0,0,0,0,0,0,0,0,0,0,0,0,
707,7.703,4.43,-10.64,10.98,8.39,6.747,-1.5,11.4,-5.651,11.68,9.554,-0.8987,9.282,10.12,7.368,13.06,0,0,0,0,0,0,0,0,0,0,0,0,0,0,0,0,
708,10.52,5.103,-12.46,10.64,3.84,5.453,-0.7358,7.68,-9.337,10.88,10.83,-0.6569,9.79,12.06,2.042,10.59,0,0,0,0,0,0,0,0,0,0,0,0,0,0,0,0,
709,8.455,3.101,-12.66,5.934,-1.801,-0.9199,1.427,2.473,-16.69,4.384,11.61,-2.87,7.904,11.17,0.4505,8.606,0,0,0,0,0,0,0,0,0,0,0,0,0,0,0,0,
710,4.776,-2.021,-12.51,-0.1504,-6.185,-7.069,5.183,1.152,-21.03,-3.382,17.45,-0.2745,11.32,14.64,7.726,15.7,0,0,0,0,0,0,0,0,0,0,0,0,0,0,0,0,
711,2.62,-5.734,-12.24,-0.5648,-9.686,-8.565,7.689,-0.2131,-17.98,-3.531,21.46,0.1354,13.94,15.71,4.459,17.13,0,0,0,0,0,0,0,0,0,0,0,0,0,0,0,0,
712,1.419,-1.7,-11.74,3.195,-10.09,-7.276,6.48,-0.4689,-13.38,-2.075,17.21,-2.889,12.11,12.57,-3.084,15.61,0,0,0,0,0,0,0,0,0,0,0,0,0,0,0,0,
713,1.122,3.453,-16.64,5.159,-5.905,-0.9425,5.864,3.563,-6.79,2.857,16.81,5.732,18.54,21.26,5.918,29.04,0,0,0,0,0,0,0,0,0,0,0,0,0,0,0,0,
714,3.619,2.729,-16.85,6.513,2.015,7.918,9.096,7.182,3.572,15.1,17.71,13.29,23.03,28.4,7.032,33.38,0,0,0,0,0,0,0,0,0,0,0,0,0,0,0,0,
715,15.1,7.676,1.603,10.68,10.38,11.22,11.71,7.511,6.631,17.98,10.3,7.128,12.98,18.91,-6.102,20.54,0,0,0,0,0,0,0,0,0,0,0,0,0,0,0,0,
716,31.39,19.6,22.55,14.18,17.31,12.86,14.74,8.816,2.659,11.82,10.63,9.303,11.04,16.12,0.3972,22.86,0,0,0,0,0,0,0,0,0,0,0,0,0,0,0,0,
717,39.07,23.77,31.63,12.39,24.11,16.27,22.44,10.77,5.274,14.79,21.38,19.08,20.29,22.17,16.43,34.06,0,0,0,0,0,0,0,0,0,0,0,0,0,0,0,0,
718,40.03,21.33,37.08,4.653,24.96,11.22,25.37,7.467,6.84,17.22,20.44,16.72,15.99,16.68,15.84,33.07,0,0,0,0,0,0,0,0,0,0,0,0,0,0,0,0,
719,35.11,15.09,36.2,-6.64,14.97,-1.092,17.07,0.8343,-3.816,8.637,9.57,12.72,4.745,9.452,10.8,29.51,0,0,0,0,0,0,0,0,0,0,0,0,0,0,0,0,
720,17.97,1.539,27.34,-14.05,5.468,-6.212,8.491,-1.139,-13.55,2.54,2.892,12.83,0.0468,7.999,7.116,24.93,0,0,0,0,0,0,0,0,0,0,0,0,0,0,0,0,
721,5.959,-5.857,23.79,-13.13,4.728,-4.057,3.281,-0.9709,-16.54,-0.1234,-2.799,6.686,-7.569,1.158,-2.776,14.9,0,0,0,0,0,0,0,0,0,0,0,0,0,0,0,0,
722,11.15,-0.1904,22.28,-9.338,7.322,-1.729,-1.561,-6.11,-21.4,-5.439,-6.053,2.298,-13.67,-6.152,-10.63,9.896,0,0,0,0,0,0,0,0,0,0,0,0,0,0,0,0,
723,13.19,3.953,15.34,-7.065,11.21,1.153,2.243,-9.523,-22.73,-6.286,-0.3657,5.244,-7.483,-6.328,-10.3,13.65,0,0,0,0,0,0,0,0,0,0,0,0,0,0,0,0,
724,9.213,3.138,13.45,-5.309,16.02,4.183,11.88,-2.486,-15.71,-3.295,6.644,6.977,1.022,-3.666,-6.774,18.78,0,0,0,0,0,0,0,0,0,0,0,0,0,0,0,0,
725,16.29,4.311,18.15,-3.54,18.03,7.771,13.32,6.194,-10.66,-0.69,10.53,8.467,5.787,1.077,-1.537,21.11,0,0,0,0,0,0,0,0,0,0,0,0,0,0,0,0,
726,24.08,4.65,19.1,-1.918,17.76,12.75,11.67,8.096,-10.48,6.289,16.8,12.33,12.48,7.199,3.984,20.95,0,0,0,0,0,0,0,0,0,0,0,0,0,0,0,0,
727,20.26,1.669,17.25,-1.25,17.37,14.63,14.95,8.136,-7.291,14.67,23.11,15.01,19.86,11.38,6.887,21.35,0,0,0,0,0,0,0,0,0,0,0,0,0,0,0,0,
728,18.88,0.5554,18.29,-2.248,18.87,14.01,16.11,9.497,0.2968,18.3,24.39,16.77,22.97,14.22,7.991,22.88,0,0,0,0,0,0,0,0,0,0,0,0,0,0,0,0,
729,23.04,2.647,20.0,-3.105,23.19,15.43,13.62,10.64,5.225,20.48,22.12,18.32,20.4,16.63,5.774,20.66,0,0,0,0,0,0,0,0,0,0,0,0,0,0,0,0,
730,23.68,3.407,19.3,-0.9676,25.51,18.23,11.94,12.68,5.285,23.67,18.73,20.0,16.97,19.78,3.07,18.46,0,0,0,0,0,0,0,0,0,0,0,0,0,0,0,0,
731,24.11,2.395,19.19,2.952,24.44,21.0,9.187,15.55,7.024,27.02,16.66,23.53,19.28,25.09,7.968,24.27,0,0,0,0,0,0,0,0,0,0,0,0,0,0,0,0,
732,22.82,2.147,21.73,2.525,25.07,20.15,6.364,16.19,10.82,28.94,16.62,26.05,22.11,28.78,11.85,28.17,0,0,0,0,0,0,0,0,0,0,0,0,0,0,0,0,
733,21.91,4.182,25.04,-2.266,27.96,14.15,8.76,13.82,11.22,25.31,16.35,23.47,19.04,25.62,5.218,22.25,0,0,0,0,0,0,0,0,0,0,0,0,0,0,0,0,
734,33.08,9.248,28.02,-4.421,30.22,11.36,13.44,11.24,10.66,16.66,14.65,17.35,15.72,17.88,-1.374,16.56,0,0,0,0,0,0,0,0,0,0,0,0,0,0,0,0,
735,39.89,11.0,26.51,-3.239,28.95,14.71,11.87,10.9,9.781,10.5,11.31,13.49,13.52,14.04,-3.993,14.45,0,0,0,0,0,0,0,0,0,0,0,0,0,0,0,0,
736,28.22,5.539,18.14,-0.925,21.69,16.43,4.197,12.31,3.275,9.525,8.591,14.56,9.117,15.49,-7.347,13.92,0,0,0,0,0,0,0,0,0,0,0,0,0,0,0,0,
737,20.54,1.817,11.03,1.241,13.48,13.05,-0.7108,12.85,-5.36,6.998,10.51,15.27,8.047,14.46,-7.023,14.65,0,0,0,0,0,0,0,0,0,0,0,0,0,0,0,0,
738,20.95,1.502,9.647,-1.801,10.66,7.196,-0.0866,10.74,-10.12,1.01,14.86,13.26,12.32,11.03,-2.569,12.17,0,0,0,0,0,0,0,0,0,0,0,0,0,0,0,0,
739,15.6,-2.419,7.914,-6.895,8.767,2.851,0.056,9.353,-12.89,-0.4989,16.45,13.75,14.64,11.82,0.6599,10.73,0,0,0,0,0,0,0,0,0,0,0,0,0,0,0,0,
740,11.83,-5.876,4.077,-4.843,3.916,3.224,-1.398,11.31,-14.42,2.438,15.62,15.75,12.6,14.44,1.735,14.83,0,0,0,0,0,0,0,0,0,0,0,0,0,0,0,0,
741,11.15,-2.224,3.135,0.4366,2.775,7.767,-0.1346,11.24,-12.71,4.667,15.06,15.66,10.66,15.74,2.37,17.32,0,0,0,0,0,0,0,0,0,0,0,0,0,0,0,0,
742,10.96,5.457,6.834,2.274,7.811,12.57,3.379,9.127,-8.464,10.1,16.3,16.21,13.54,18.05,5.077,16.67,0,0,0,0,0,0,0,0,0,0,0,0,0,0,0,0,
743,19.52,8.39,12.01,2.631,11.39,13.17,7.851,12.81,-1.689,15.92,20.08,15.83,21.72,19.98,10.37,17.5,0,0,0,0,0,0,0,0,0,0,0,0,0,0,0,0,
744,26.4,3.278,16.85,1.522,11.3,9.861,12.64,17.75,6.874,13.93,24.07,12.71,28.9,21.37,16.25,22.42,0,0,0,0,0,0,0,0,0,0,0,0,0,0,0,0,
745,20.09,-0.0206,21.11,-0.7719,12.48,8.202,13.75,15.94,12.5,12.18,25.39,13.65,30.4,24.86,19.58,28.56,0,0,0,0,0,0,0,0,0,0,0,0,0,0,0,0,
746,15.11,4.064,20.95,-0.4075,14.52,10.9,13.42,14.1,15.54,17.86,26.02,19.4,30.6,27.73,20.34,30.19,0,0,0,0,0,0,0,0,0,0,0,0,0,0,0,0,
747,17.7,7.623,16.27,1.23,14.05,14.86,14.86,16.63,20.62,23.24,27.54,22.93,32.47,28.77,23.72,32.41,0,0,0,0,0,0,0,0,0,0,0,0,0,0,0,0,
748,19.14,8.492,15.89,2.122,13.68,16.78,12.78,18.4,25.0,25.29,28.21,23.14,32.95,30.23,28.02,37.74,0,0,0,0,0,0,0,0,0,0,0,0,0,0,0,0,
749,21.61,9.545,22.37,4.158,16.92,17.12,10.55,18.7,27.21,27.05,29.43,21.84,32.21,30.42,28.57,38.97,0,0,0,0,0,0,0,0,0,0,0,0,0,0,0,0,
750,24.74,7.654,25.34,4.822,18.24,15.82,12.2,17.34,29.8,26.89,29.95,19.28,30.59,28.91,28.66,38.3,0,0,0,0,0,0,0,0,0,0,0,0,0,0,0,0,
751,19.32,3.68,18.95,2.349,10.1,10.73,8.005,13.88,26.12,23.43,25.06,16.61,25.08,27.21,27.88,37.01,0,0,0,0,0,0,0,0,0,0,0,0,0,0,0,0,
752,12.29,2.808,11.6,1.437,-1.496,5.13,1.564,13.39,14.78,18.15,19.74,14.32,19.05,23.18,25.27,32.92,0,0,0,0,0,0,0,0,0,0,0,0,0,0,0,0,
753,12.6,2.108,8.66,1.477,-6.226,3.561,2.3,14.92,8.332,13.59,19.53,13.6,17.67,18.49,25.83,32.27,0,0,0,0,0,0,0,0,0,0,0,0,0,0,0,0,
754,10.37,-2.401,4.612,-0.2284,-6.83,3.526,1.143,13.5,9.967,12.74,19.81,15.21,19.2,18.19,27.75,32.75,0,0,0,0,0,0,0,0,0,0,0,0,0,0,0,0,
755,4.724,-5.279,1.48,0.4373,-7.993,2.764,-2.218,12.9,13.58,13.97,18.96,15.54,20.66,19.61,26.33,27.94,0,0,0,0,0,0,0,0,0,0,0,0,0,0,0,0,
756,4.167,-3.449,4.073,2.257,-7.907,1.832,-1.978,14.74,16.29,12.45,17.44,15.3,19.34,19.61,22.34,25.42,0,0,0,0,0,0,0,0,0,0,0,0,0,0,0,0,
757,3.762,-1.59,4.296,1.266,-7.505,1.864,-7.025,16.81,15.87,11.08,11.99,20.13,15.15,22.29,19.14,29.63,0,0,0,0,0,0,0,0,0,0,0,0,0,0,0,0,
758,3.446,-0.3601,1.287,2.18,-7.017,5.602,-13.23,20.67,15.44,16.27,5.955,25.73,13.09,27.19,20.0,31.75,0,0,0,0,0,0,0,0,0,0,0,0,0,0,0,0,
759,6.354,2.372,3.515,5.287,-4.416,10.14,-10.18,20.52,19.18,23.41,4.464,25.68,13.66,28.29,22.6,27.87,0,0,0,0,0,0,0,0,0,0,0,0,0,0,0,0,
760,4.531,5.685,4.842,5.73,-3.619,10.02,-8.503,13.65,21.87,24.68,3.108,25.77,12.85,26.11,22.21,24.33,0,0,0,0,0,0,0,0,0,0,0,0,0,0,0,0,
761,1.234,6.404,-0.3919,5.606,-7.72,7.632,-13.25,13.71,19.05,22.04,-1.748,27.02,9.835,22.05,19.19,21.13,0,0,0,0,0,0,0,0,0,0,0,0,0,0,0,0,
762,2.359,0.4796,-4.128,4.877,-12.46,5.259,-16.41,20.18,12.88,18.19,-4.348,22.99,5.127,14.52,17.94,17.02,0,0,0,0,0,0,0,0,0,0,0,0,0,0,0,0,
763,0.1122,-6.94,-4.796,1.615,-13.85,2.545,-18.62,18.44,6.058,13.17,-2.046,19.79,0.4292,10.95,20.51,20.29,0,0,0,0,0,0,0,0,0,0,0,0,0,0,0,0,
764,-1.271,-6.349,-5.466,1.422,-12.23,3.104,-21.93,14.31,0.3144,11.54,-2.357,22.46,-2.591,17.19,19.89,25.06,0,0,0,0,0,0,0,0,0,0,0,0,0,0,0,0,
765,5.555,-1.667,-4.107,4.462,-10.36,6.192,-24.99,15.33,-3.507,13.41,-8.12,21.83,-5.941,21.25,13.7,19.61,0,0,0,0,0,0,0,0,0,0,0,0,0,0,0,0,
766,7.44,0.132,-3.936,3.126,-10.88,5.112,-27.8,12.09,-5.627,11.49,-11.98,17.64,-9.251,16.63,11.74,16.13,0,0,0,0,0,0,0,0,0,0,0,0,0,0,0,0,
767,-0.0323,0.0975,-9.531,-0.2381,-14.88,0.3426,-29.68,6.446,-7.631,6.534,-11.01,17.57,-9.504,14.79,13.43,20.74,0,0,0,0,0,0,0,0,0,0,0,0,0,0,0,0,
768,-2.562,0.1984,-16.45,1.517,-20.96,-2.249,-33.84,7.567,-10.09,3.957,-10.27,17.66,-9.109,16.62,10.19,20.19,0,0,0,0,0,0,0,0,0,0,0,0,0,0,0,0,
769,-0.5941,2.227,-18.2,5.019,-23.16,-2.435,-39.61,9.217,-10.84,1.692,-11.65,14.73,-9.739,13.22,6.632,15.41,0,0,0,0,0,0,0,0,0,0,0,0,0,0,0,0,
770,-2.82,3.861,-12.2,4.822,-17.67,-2.838,-35.99,6.235,-8.485,-0.784,-8.717,13.28,-4.744,10.08,11.03,16.41,0,0,0,0,0,0,0,0,0,0,0,0,0,0,0,0,
771,-1.268,1.239,-2.26,2.903,-10.48,-2.4,-22.74,4.271,-0.4967,-0.3298,2.607,13.08,7.332,12.78,20.47,21.27,0,0,0,0,0,0,0,0,0,0,0,0,0,0,0,0,
772,6.217,-0.838,2.86,2.351,-5.918,0.5274,-13.15,4.662,13.05,1.567,12.07,13.9,15.31,15.24,26.69,24.44,0,0,0,0,0,0,0,0,0,0,0,0,0,0,0,0,
773,8.903,1.89,2.779,3.704,-1.497,3.79,-11.67,4.888,21.84,4.466,11.28,17.25,14.65,16.09,28.4,26.78,0,0,0,0,0,0,0,0,0,0,0,0,0,0,0,0,
774,9.922,6.137,3.431,5.353,0.52,4.262,-12.34,5.075,21.28,7.635,9.275,18.98,13.75,16.74,28.69,28.31,0,0,0,0,0,0,0,0,0,0,0,0,0,0,0,0,
775,11.83,7.69,3.151,5.378,-1.988,3.73,-10.98,4.843,20.4,7.032,11.66,17.72,14.82,14.14,26.69,23.99,0,0,0,0,0,0,0,0,0,0,0,0,0,0,0,0,
776,7.485,6.096,0.7446,5.381,-3.955,5.423,-9.863,4.072,20.86,5.52,12.01,14.74,12.54,7.717,23.02,16.53,0,0,0,0,0,0,0,0,0,0,0,0,0,0,0,0,
777,4.834,7.918,0.2174,6.319,-5.0,6.424,-11.59,3.004,17.09,5.312,10.42,9.135,8.655,0.5484,20.9,13.6,0,0,0,0,0,0,0,0,0,0,0,0,0,0,0,0,
778,10.61,16.16,0.969,6.43,-7.246,4.972,-11.94,1.279,12.93,3.155,10.88,7.629,9.094,-0.9571,21.78,15.59,0,0,0,0,0,0,0,0,0,0,0,0,0,0,0,0,
779,14.62,22.61,2.936,5.86,-5.272,5.772,-8.896,1.601,14.14,3.956,11.96,13.08,13.52,5.461,24.08,20.06,0,0,0,0,0,0,0,0,0,0,0,0,0,0,0,0,
780,14.4,24.28,9.073,5.239,2.292,9.767,-5.312,3.089,18.68,9.281,14.45,14.16,17.38,9.98,22.03,20.73,0,0,0,0,0,0,0,0,0,0,0,0,0,0,0,0,
781,16.03,25.85,16.07,6.09,7.794,14.53,0.0809,-0.0192,24.01,11.46,18.14,10.17,18.65,8.569,17.32,14.55,0,0,0,0,0,0,0,0,0,0,0,0,0,0,0,0,
782,19.65,26.51,17.95,9.112,7.93,19.1,3.399,-1.53,28.3,12.88,16.81,11.12,16.97,8.129,16.08,9.995,0,0,0,0,0,0,0,0,0,0,0,0,0,0,0,0,
783,22.78,25.35,15.44,9.749,7.083,19.7,-0.747,6.304,27.82,15.67,11.56,15.99,12.77,7.81,14.31,9.755,0,0,0,0,0,0,0,0,0,0,0,0,0,0,0,0,
784,24.11,25.82,14.52,8.07,8.373,16.15,-3.53,11.84,24.13,12.86,10.53,20.82,10.68,5.628,13.74,11.85,0,0,0,0,0,0,0,0,0,0,0,0,0,0,0,0,
785,22.93,26.41,15.02,8.785,8.559,14.36,-1.58,8.137,22.75,7.943,13.34,24.63,13.76,8.002,21.2,19.11,0,0,0,0,0,0,0,0,0,0,0,0,0,0,0,0,
786,19.21,24.76,10.88,9.199,5.405,14.02,-2.642,6.43,23.4,7.634,15.25,25.05,18.04,15.0,30.86,27.49,0,0,0,0,0,0,0,0,0,0,0,0,0,0,0,0,
787,16.71,24.5,5.485,6.819,1.722,10.01,-4.12,7.265,22.12,6.421,15.21,23.44,19.72,17.71,36.7,30.0,0,0,0,0,0,0,0,0,0,0,0,0,0,0,0,0,
788,16.91,24.47,5.827,4.871,-2.888,3.818,-3.949,2.757,17.25,0.5912,12.51,20.84,18.46,12.4,36.18,25.89,0,0,0,0,0,0,0,0,0,0,0,0,0,0,0,0,
789,15.52,22.12,8.217,5.138,-6.822,2.856,-6.888,-0.9515,12.76,-4.176,8.509,16.2,14.63,5.384,27.84,18.93,0,0,0,0,0,0,0,0,0,0,0,0,0,0,0,0,
790,14.45,24.31,6.465,7.217,-4.496,7.582,-10.41,0.9104,12.87,-4.321,4.22,11.98,8.306,1.682,17.88,12.97,0,0,0,0,0,0,0,0,0,0,0,0,0,0,0,0,
791,14.1,29.11,0.8749,7.96,-3.003,8.316,-12.67,1.347,10.24,-4.369,-1.661,7.362,-0.2951,-3.888,9.158,4.141,0,0,0,0,0,0,0,0,0,0,0,0,0,0,0,0,
792,10.44,27.05,-1.514,6.465,-7.905,4.773,-13.71,0.5701,1.385,-7.232,-4.515,0.9666,-6.078,-13.69,2.409,-8.55,0,0,0,0,0,0,0,0,0,0,0,0,0,0,0,0,
793,11.11,26.62,3.477,7.833,-6.436,6.933,-9.919,3.752,-0.0625,-6.338,-0.9949,-1.12,-4.053,-17.71,1.635,-14.92,0,0,0,0,0,0,0,0,0,0,0,0,0,0,0,0,
794,16.23,33.84,6.462,10.92,2.032,11.05,-5.867,6.561,7.924,0.7686,2.905,2.689,1.144,-9.951,3.245,-9.165,0,0,0,0,0,0,0,0,0,0,0,0,0,0,0,0,
795,14.1,34.43,0.4223,9.172,1.792,7.565,-7.677,5.624,11.73,4.48,4.405,6.746,4.862,1.033,4.819,3.698,0,0,0,0,0,0,0,0,0,0,0,0,0,0,0,0,
796,10.21,25.02,-6.972,4.481,-4.498,1.248,-9.21,3.876,11.64,1.129,5.651,11.7,9.729,7.999,12.58,16.25,0,0,0,0,0,0,0,0,0,0,0,0,0,0,0,0,
797,10.4,17.65,-8.648,2.544,-4.191,-1.005,-6.184,1.775,15.37,-0.8807,7.085,19.33,16.63,15.75,27.49,27.84,0,0,0,0,0,0,0,0,0,0,0,0,0,0,0,0,
798,8.87,16.15,-6.267,2.745,0.1039,-0.8785,-4.341,1.355,20.22,1.335,10.05,22.77,22.56,24.17,39.8,36.46,0,0,0,0,0,0,0,0,0,0,0,0,0,0,0,0,
799,9.575,18.47,-4.052,2.408,2.387,-0.2036,-4.561,2.819,21.87,2.286,13.21,18.58,23.76,22.86,40.27,32.85,0,0,0,0,0,0,0,0,0,0,0,0,0,0,0,0,
800,13.04,22.08,-3.365,3.02,3.289,1.692,-2.004,-0.4926,20.78,1.813,12.05,13.88,18.12,14.9,33.69,24.76,0,0,0,0,0,0,0,0,0,0,0,0,0,0,0,0,
801,10.86,20.81,-4.113,5.156,1.822,3.055,-0.2924,-3.75,18.34,2.991,7.969,12.63,11.03,12.36,28.61,24.47,0,0,0,0,0,0,0,0,0,0,0,0,0,0,0,0,
802,6.45,13.97,-5.676,4.554,-1.046,0.5376,-2.897,2.039,15.64,3.3,5.675,11.3,9.299,11.2,23.42,20.13,0,0,0,0,0,0,0,0,0,0,0,0,0,0,0,0,
803,3.948,9.773,-6.17,0.4674,-2.066,-4.213,-4.09,6.258,12.92,1.009,4.989,9.008,9.281,4.508,17.22,8.271,0,0,0,0,0,0,0,0,0,0,0,0,0,0,0,0,
804,-0.2768,10.84,-10.61,-1.846,-6.251,-5.967,-5.212,2.193,9.481,-1.046,3.956,7.274,5.345,-2.102,12.26,2.4,0,0,0,0,0,0,0,0,0,0,0,0,0,0,0,0,
805,-4.093,11.2,-18.93,-0.4078,-14.18,-4.427,-9.659,0.7013,6.535,-1.079,2.11,5.336,0.6052,-3.36,8.294,1.897,0,0,0,0,0,0,0,0,0,0,0,0,0,0,0,0,
806,-5.452,10.99,-15.55,0.8416,-15.1,-3.318,-10.22,2.341,6.081,1.085,-1.046,3.26,-0.9244,0.4419,5.56,1.843,0,0,0,0,0,0,0,0,0,0,0,0,0,0,0,0,
807,-5.982,14.71,-3.981,0.8855,-11.27,-2.45,-7.096,0.9879,7.054,4.225,-1.305,1.735,2.269,4.6,5.713,3.134,0,0,0,0,0,0,0,0,0,0,0,0,0,0,0,0,
808,-2.999,18.24,-2.605,4.537,-12.05,1.856,-5.97,0.2699,9.489,6.077,5.235,-0.342,9.469,3.478,10.95,3.888,0,0,0,0,0,0,0,0,0,0,0,0,0,0,0,0,
809,0.6165,15.92,-6.206,9.413,-12.38,7.472,-3.592,0.9325,13.86,6.797,9.68,-1.109,13.76,1.234,15.74,3.62,0,0,0,0,0,0,0,0,0,0,0,0,0,0,0,0,
810,-1.002,11.84,-7.037,8.044,-9.631,8.6,-1.203,0.5566,15.77,8.386,6.954,3.524,13.79,4.26,14.59,4.996,0,0,0,0,0,0,0,0,0,0,0,0,0,0,0,0,
811,-1.067,12.6,-7.877,5.826,-7.628,8.664,-1.935,1.984,15.97,12.11,6.986,10.42,16.43,9.456,17.67,10.1,0,0,0,0,0,0,0,0,0,0,0,0,0,0,0,0,
812,1.852,14.64,-6.34,7.369,-5.041,11.19,-1.235,4.276,19.19,15.68,11.07,13.48,19.23,12.79,26.09,16.89,0,0,0,0,0,0,0,0,0,0,0,0,0,0,0,0,
813,-1.18,11.2,-6.582,5.432,-5.767,9.51,-1.56,2.573,19.71,14.38,11.67,13.78,17.02,13.08,24.76,20.84,0,0,0,0,0,0,0,0,0,0,0,0,0,0,0,0,
814,-3.64,7.769,-10.18,3.262,-10.8,6.005,-7.095,-0.9324,13.9,9.405,8.209,13.2,12.21,9.451,14.69,20.35,0,0,0,0,0,0,0,0,0,0,0,0,0,0,0,0,
815,-0.3082,10.25,-10.66,6.553,-11.24,8.634,-10.7,-0.6164,8.954,6.233,1.761,11.77,6.181,6.084,8.749,16.89,0,0,0,0,0,0,0,0,0,0,0,0,0,0,0,0,
816,-2.617,11.14,-14.09,7.509,-9.742,8.985,-10.0,1.804,6.769,5.849,-2.999,12.57,3.047,6.518,9.414,14.51,0,0,0,0,0,0,0,0,0,0,0,0,0,0,0,0,
817,-6.396,9.73,-17.31,7.727,-9.79,5.032,-10.03,2.825,5.259,7.299,-1.491,14.31,6.646,6.653,9.747,12.8,0,0,0,0,0,0,0,0,0,0,0,0,0,0,0,0,
818,-0.0418,14.69,-7.655,14.02,-4.053,10.31,-8.004,4.881,7.598,11.91,0.0183,13.04,10.27,5.351,6.968,9.55,0,0,0,0,0,0,0,0,0,0,0,0,0,0,0,0,
819,7.631,21.46,3.106,17.98,1.589,19.3,-1.988,5.693,12.99,18.57,-0.8218,11.97,10.25,6.936,7.73,10.01,0,0,0,0,0,0,0,0,0,0,0,0,0,0,0,0,
820,14.57,25.08,9.15,16.83,2.818,20.71,2.372,1.573,15.08,21.37,2.254,12.43,12.22,10.9,12.82,12.73,0,0,0,0,0,0,0,0,0,0,0,0,0,0,0,0,
821,29.1,32.54,21.5,17.9,11.64,25.13,4.19,2.03,16.02,19.76,9.645,11.63,19.12,14.29,18.2,12.06,0,0,0,0,0,0,0,0,0,0,0,0,0,0,0,0,
822,37.14,39.66,28.34,18.82,20.22,33.17,5.032,10.1,22.22,20.87,15.07,10.64,25.61,15.04,22.01,10.48,0,0,0,0,0,0,0,0,0,0,0,0,0,0,0,0,
823,30.95,38.07,25.02,18.72,16.1,32.38,4.518,12.61,26.75,22.0,12.92,9.009,24.44,11.93,17.98,6.758,0,0,0,0,0,0,0,0,0,0,0,0,0,0,0,0,
824,33.11,38.17,30.98,22.94,16.74,32.31,5.971,9.342,23.86,18.12,8.881,6.627,21.66,10.99,12.33,3.613,0,0,0,0,0,0,0,0,0,0,0,0,0,0,0,0,
825,44.61,45.88,37.6,27.43,26.4,40.34,8.983,10.41,24.75,19.62,12.79,7.544,26.77,15.15,16.76,7.192,0,0,0,0,0,0,0,0,0,0,0,0,0,0,0,0,
826,46.47,51.83,32.41,27.87,26.7,41.12,9.408,12.14,30.3,26.28,17.18,10.29,30.42,15.81,21.07,10.87,0,0,0,0,0,0,0,0,0,0,0,0,0,0,0,0,
827,49.59,55.38,34.55,27.61,21.83,33.83,8.237,9.43,26.77,23.56,12.51,12.07,25.17,13.21,19.14,13.79,0,0,0,0,0,0,0,0,0,0,0,0,0,0,0,0,
828,60.51,60.24,43.24,27.42,23.17,32.92,5.122,7.821,18.13,17.62,6.755,14.96,20.96,15.21,19.01,18.27,0,0,0,0,0,0,0,0,0,0,0,0,0,0,0,0,
829,64.83,66.45,44.55,27.75,28.02,36.66,1.557,8.71,17.21,18.98,5.749,16.55,19.61,16.13,18.27,16.25,0,0,0,0,0,0,0,0,0,0,0,0,0,0,0,0,
830,71.98,77.42,50.12,29.55,34.43,36.68,3.035,7.239,19.12,18.85,3.591,13.72,13.41,10.1,13.59,10.49,0,0,0,0,0,0,0,0,0,0,0,0,0,0,0,0,
831,86.37,88.62,57.52,30.2,36.86,34.98,3.815,5.914,14.68,14.04,-1.75,10.44,5.45,5.085,8.841,7.986,0,0,0,0,0,0,0,0,0,0,0,0,0,0,0,0,
832,88.18,92.34,52.84,30.75,32.27,34.87,-2.581,9.0,9.018,11.46,-4.767,9.912,2.761,6.398,6.033,6.178,0,0,0,0,0,0,0,0,0,0,0,0,0,0,0,0,
833,84.33,94.09,47.89,32.45,29.36,34.82,-6.294,12.17,8.9,11.65,-1.788,11.25,3.47,9.338,5.614,4.958,0,0,0,0,0,0,0,0,0,0,0,0,0,0,0,0,
834,90.02,97.84,49.64,32.74,30.5,35.5,-0.08,13.62,9.261,13.41,4.419,11.75,5.048,9.981,7.77,4.267,0,0,0,0,0,0,0,0,0,0,0,0,0,0,0,0,
835,94.14,99.7,52.15,32.35,33.05,38.11,6.92,13.45,8.129,16.27,8.27,8.399,9.224,9.803,11.21,3.532,0,0,0,0,0,0,0,0,0,0,0,0,0,0,0,0,
836,93.41,98.5,58.16,30.33,37.78,37.24,9.233,6.707,11.57,17.38,8.526,4.157,13.34,10.9,12.31,4.703,0,0,0,0,0,0,0,0,0,0,0,0,0,0,0,0,
837,96.1,95.32,65.88,25.58,43.69,33.34,14.68,1.201,17.89,16.79,9.73,4.491,14.71,13.15,12.82,7.286,0,0,0,0,0,0,0,0,0,0,0,0,0,0,0,0,
838,99.73,94.15,71.89,23.66,50.4,34.68,23.46,6.703,23.85,17.71,13.61,6.631,17.94,14.48,16.52,9.393,0,0,0,0,0,0,0,0,0,0,0,0,0,0,0,0,
839,101.5,94.16,80.92,22.22,54.86,35.36,28.34,9.237,30.51,18.61,17.49,4.873,23.14,11.24,16.56,6.466,0,0,0,0,0,0,0,0,0,0,0,0,0,0,0,0,
840,100.0,84.64,88.92,13.91,53.44,25.62,31.95,1.74,32.2,14.48,20.01,0.258,22.69,2.743,10.83,-1.964,0,0,0,0,0,0,0,0,0,0,0,0,0,0,0,0,
841,88.88,64.65,84.78,2.966,48.84,12.67,32.02,-1.747,25.29,6.342,17.15,-2.34,14.94,-5.426,6.632,-6.927,0,0,0,0,0,0,0,0,0,0,0,0,0,0,0,0,
842,71.6,46.74,71.03,-5.602,41.08,4.109,24.76,0.6793,16.05,-0.0557,9.883,0.2162,7.936,-5.839,7.129,-3.258,0,0,0,0,0,0,0,0,0,0,0,0,0,0,0,0,
843,59.32,35.59,62.11,-12.96,32.31,-0.4057,24.49,3.05,10.77,-0.1404,9.905,5.94,7.949,2.243,13.56,4.005,0,0,0,0,0,0,0,0,0,0,0,0,0,0,0,0,
844,47.51,21.87,58.75,-19.79,26.84,-3.26,31.91,5.081,10.09,5.779,14.51,9.135,9.11,7.997,16.79,4.657,0,0,0,0,0,0,0,0,0,0,0,0,0,0,0,0,
845,26.89,-1.584,47.99,-29.02,17.17,-12.19,29.14,2.204,7.186,7.706,10.38,8.691,3.342,3.339,7.555,-1.576,0,0,0,0,0,0,0,0,0,0,0,0,0,0,0,0,
846,4.316,-28.16,31.31,-42.4,1.424,-29.0,19.53,-4.435,-3.696,-1.365,0.9404,6.832,-6.905,-3.824,-3.153,-4.428,0,0,0,0,0,0,0,0,0,0,0,0,0,0,0,0,
847,-15.76,-48.84,18.01,-54.13,-10.96,-42.55,13.42,-8.341,-17.65,-12.86,-6.038,2.019,-15.62,-6.326,-8.183,-6.406,0,0,0,0,0,0,0,0,0,0,0,0,0,0,0,0,
848,-33.28,-60.99,9.245,-58.48,-19.03,-45.87,9.68,-11.84,-27.02,-19.18,-7.75,-4.686,-17.74,-7.809,-8.833,-11.94,0,0,0,0,0,0,0,0,0,0,0,0,0,0,0,0,
849,-38.78,-64.95,9.236,-58.29,-22.09,-44.48,10.86,-13.72,-28.05,-21.53,-3.144,-8.756,-13.23,-10.66,-4.91,-15.57,0,0,0,0,0,0,0,0,0,0,0,0,0,0,0,0,
850,-37.01,-67.4,16.39,-59.85,-17.68,-46.18,15.72,-12.43,-25.24,-21.37,-1.847,-12.34,-12.08,-15.0,-6.436,-21.32,0,0,0,0,0,0,0,0,0,0,0,0,0,0,0,0,
851,-42.44,-72.09,16.57,-62.61,-14.5,-49.67,18.16,-16.9,-27.25,-22.32,-6.976,-17.64,-16.65,-21.01,-14.63,-30.68,0,0,0,0,0,0,0,0,0,0,0,0,0,0,0,0,
852,-48.64,-73.47,9.666,-63.78,-17.54,-49.95,19.08,-23.47,-30.79,-26.18,-8.375,-20.35,-18.81,-26.6,-19.84,-35.24,0,0,0,0,0,0,0,0,0,0,0,0,0,0,0,0,
