%OpenBCI Raw EXG Data
%Number of channels = 16
%Sample Rate = 125 Hz
%Board = OpenBCI_GUI$BoardCytonSerialDaisy
Sample Index,EXG Channel 0,EXG Channel 1,EXG Channel 2,EXG Channel 3,EXG Channel 4,EXG Channel 5,EXG Channel 6,EXG Channel 7,EXG Channel 8,EXG Channel 9,EXG Channel 10,EXG Channel 11,EXG Channel 12,EXG Channel 13,EXG Channel 14,EXG Channel 15,Accel Channel 0,Accel Channel 1,Accel Channel 2,Other,Other,Other,Other,Other,Other,Other,Analog Channel 0,Analog Channel 1,Analog Channel 2,Timestamp,Other,Timestamp (Formatted),Annotations
1,-0,0,0,-0,-0,-0,-0,-0,-0,-0,-0,0,-0,0,0,0,0,0,0,0,0,0,0,0,0,0,0,0,0,0,0,0,T0
2,-41.87,-27.95,-2.784,37.68,-21.86,-18.64,-9.058,5.319,-27.24,-22.25,-7.781,-11.42,-6.076,-11.79,3.7,-13.33,0,0,0,0,0,0,0,0,0,0,0,0,0,0,0,0,
3,-29.99,-36.68,9.674,35.81,-9.011,-4.532,-8.716,-11.17,-2.528,-32.48,24.58,13.15,-0.9598,-16.72,32.83,0.3426,0,0,0,0,0,0,0,0,0,0,0,0,0,0,0,0,
4,5.096,-35.22,34.26,13.91,40.42,21.38,-9.745,-37.58,50.74,-46.29,68.41,40.76,2.39,-14.95,59.34,7.983,0,0,0,0,0,0,0,0,0,0,0,0,0,0,0,0,
5,32.59,-27.86,50.81,-6.751,71.71,34.33,-10.25,-62.79,69.69,-47.67,84.98,49.39,4.561,-11.38,54.59,-6.008,0,0,0,0,0,0,0,0,0,0,0,0,0,0,0,0,
6,36.55,-16.4,39.03,-16.44,52.86,30.25,1.577,-49.96,25.57,-24.75,57.21,33.79,0.1902,-24.65,18.25,-43.88,0,0,0,0,0,0,0,0,0,0,0,0,0,0,0,0,
7,9.74,-10.36,2.397,-13.27,9.828,14.1,13.11,-10.48,-24.22,-15.16,11.36,3.009,-14.22,-48.19,-14.9,-83.73,0,0,0,0,0,0,0,0,0,0,0,0,0,0,0,0,
8,-5.869,-11.02,-41.68,-33.55,-26.06,5.195,8.782,-33.51,-18.76,-37.91,6.737,3.743,-15.22,-49.46,-1.498,-71.03,0,0,0,0,0,0,0,0,0,0,0,0,0,0,0,0,
9,14.5,-18.19,-83.96,-89.96,-29.12,13.81,-1.637,-96.13,12.82,-60.16,48.66,41.22,3.771,-28.22,43.33,-16.95,0,0,0,0,0,0,0,0,0,0,0,0,0,0,0,0,
10,41.22,-26.12,-121.2,-145.5,-10.93,20.12,-12.18,-110.9,40.38,-44.94,87.13,66.11,29.94,-0.1157,62.98,17.22,0,0,0,0,0,0,0,0,0,0,0,0,0,0,0,0,
11,46.05,-24.86,-161.3,-191.6,-22.82,2.567,-28.87,-103.8,49,-16.31,73.96,48.36,44.12,17.1,27.25,-0.6782,0,0,0,0,0,0,0,0,0,0,0,0,0,0,0,0,
12,19.02,-21.39,-206.9,-225,-67.18,-27.91,-38.95,-100.9,-1.165,-34.66,12.2,2.12,30.19,5.179,-23.58,-46.99,0,0,0,0,0,0,0,0,0,0,0,0,0,0,0,0,
13,-11.63,-23.18,-246.4,-231.4,-107,-44.95,-37.69,-94.22,-61.01,-76.71,-19.6,-21.39,7.41,-14.85,-21.95,-58.29,0,0,0,0,0,0,0,0,0,0,0,0,0,0,0,0,
14,-7.088,-33.28,-285.2,-251.8,-122.6,-48.24,-50.12,-128.9,-41.91,-79.83,12.08,-5.024,-11.04,-25.15,12.56,-35.04,0,0,0,0,0,0,0,0,0,0,0,0,0,0,0,0,
15,10.2,-54.53,-318.6,-308.7,-101.1,-47.54,-73.39,-190.6,12.41,-70.86,41.9,7.777,-30.39,-36.54,24.09,-22.49,0,0,0,0,0,0,0,0,0,0,0,0,0,0,0,0,
16,8.157,-63.59,-333.1,-352.9,-76.64,-46.94,-83.14,-206.7,26.57,-77.69,43.75,6.545,-28.56,-33.96,27.18,-12.49,0,0,0,0,0,0,0,0,0,0,0,0,0,0,0,0,
17,-4.587,-46.08,-357.1,-370.3,-104.1,-64.32,-88.84,-189.7,12.61,-64.2,41.42,10.72,-4.023,-11.31,33.99,-3.841,0,0,0,0,0,0,0,0,0,0,0,0,0,0,0,0,
18,-26.49,-34.51,-396.3,-378.6,-153.1,-98.1,-102.3,-179.6,-12.79,-40.94,27.12,4.114,6.386,-2.196,24.07,-13.23,0,0,0,0,0,0,0,0,0,0,0,0,0,0,0,0,
19,-58.39,-47.95,-421.6,-381.8,-179,-120.7,-118.6,-182.5,-41.93,-49.6,1.867,-18.83,-8.812,-19.96,4.116,-27.96,0,0,0,0,0,0,0,0,0,0,0,0,0,0,0,0,
20,-72.12,-63.1,-439.1,-399.6,-185,-121.2,-131.1,-199,-33.74,-67.77,-5.607,-26.25,-32.33,-43.8,-9.492,-38.26,0,0,0,0,0,0,0,0,0,0,0,0,0,0,0,0,
21,-48.18,-64.01,-437.8,-420.8,-152.3,-99.72,-124.4,-201.3,2.966,-62.47,2.384,-17.42,-50.61,-55.63,-18.3,-39.4,0,0,0,0,0,0,0,0,0,0,0,0,0,0,0,0,
22,-26.22,-66.09,-415.3,-415.7,-110.6,-86.11,-113.5,-181.8,-4.292,-54.18,-9.236,-29.91,-66.34,-56.09,-34.1,-39.34,0,0,0,0,0,0,0,0,0,0,0,0,0,0,0,0,
23,-51.87,-81.51,-427.4,-413.6,-137.6,-115.9,-127.8,-179.9,-42.41,-61,-35.74,-52.21,-75.45,-48.09,-44.76,-42.36,0,0,0,0,0,0,0,0,0,0,0,0,0,0,0,0,
24,-84.91,-90.93,-460.7,-428.2,-187.9,-145,-143.9,-192.8,-37.31,-67.24,-34.13,-39.94,-66.32,-39.7,-26.14,-25.35,0,0,0,0,0,0,0,0,0,0,0,0,0,0,0,0,
25,-80.31,-88.47,-461.5,-435.2,-185.1,-138.6,-150,-203.9,-14.33,-71.83,-13.6,-16.52,-59.71,-51.68,-7.04,-7.747,0,0,0,0,0,0,0,0,0,0,0,0,0,0,0,0,
26,-73.43,-95.62,-447,-438.9,-158.7,-132,-162.2,-216,-19.19,-78.6,-6.336,-17.69,-66.36,-66.8,-9.587,-17.66,0,0,0,0,0,0,0,0,0,0,0,0,0,0,0,0,
27,-80.82,-101.8,-423.7,-429.8,-132.9,-123.1,-157,-200.7,-21.05,-72,-2.428,-24.73,-65.03,-59.01,-8.977,-35.52,0,0,0,0,0,0,0,0,0,0,0,0,0,0,0,0,
28,-84.19,-92.04,-404.2,-407.2,-125.8,-112.2,-138.1,-169.1,-17.19,-60.71,-6.636,-35.81,-63.63,-59.05,-17.43,-59.76,0,0,0,0,0,0,0,0,0,0,0,0,0,0,0,0,
29,-92.92,-88.82,-429.1,-410.5,-166.1,-134.8,-143.5,-165.2,-37.1,-56.62,-30.89,-57.35,-71.99,-75.85,-43,-82.35,0,0,0,0,0,0,0,0,0,0,0,0,0,0,0,0,
30,-105.4,-94.67,-451.6,-420.2,-191.8,-157.4,-154.5,-168.1,-62.07,-46.89,-47.2,-62.07,-78.53,-79.18,-45.41,-76.42,0,0,0,0,0,0,0,0,0,0,0,0,0,0,0,0,
31,-108,-90.93,-431.8,-419.5,-163.2,-145.4,-154,-180.9,-50.25,-46.21,-30.98,-36.11,-78.26,-70.48,-16.19,-51.41,0,0,0,0,0,0,0,0,0,0,0,0,0,0,0,0,
32,-96.32,-81.23,-425.1,-449.4,-137.6,-130.4,-155,-222.2,1.235,-63.24,9.477,0.5045,-64.78,-59.85,14.54,-26.27,0,0,0,0,0,0,0,0,0,0,0,0,0,0,0,0,
33,-78.59,-79.88,-429.8,-463.7,-133.4,-126.5,-148.7,-213.5,15.05,-67.87,18.8,-2.507,-66.73,-68.9,6.666,-33.84,0,0,0,0,0,0,0,0,0,0,0,0,0,0,0,0,
34,-101.4,-97.69,-413.9,-412.7,-158.6,-136.5,-144.6,-143.7,-59.1,-62.09,-40.59,-59.54,-107.5,-109.1,-45,-83.39,0,0,0,0,0,0,0,0,0,0,0,0,0,0,0,0,
35,-151.6,-116.8,-419.8,-380.3,-215.1,-154.2,-151.2,-121.5,-121.2,-62.95,-84.52,-84.35,-124,-124.8,-69.76,-102.6,0,0,0,0,0,0,0,0,0,0,0,0,0,0,0,0,
36,-131.6,-97.92,-438.5,-390.6,-216.2,-132.4,-132.2,-148.2,-87.57,-60.25,-44.01,-34.54,-89.19,-98.69,-37.83,-65.39,0,0,0,0,0,0,0,0,0,0,0,0,0,0,0,0,
37,-52.73,-53.32,-408.1,-376.3,-146.1,-75.04,-89.41,-153.1,-18.75,-51.84,10.02,11.39,-54.97,-76.65,-8.172,-27.6,0,0,0,0,0,0,0,0,0,0,0,0,0,0,0,0,
38,-15.9,-25.74,-360.5,-353.1,-100.3,-43.64,-66.89,-143.2,21.01,-35.54,26.17,17.52,-25.52,-51.33,0.7622,-3.838,0,0,0,0,0,0,0,0,0,0,0,0,0,0,0,0,
39,-26.49,-12.46,-350,-348.1,-96.48,-48.5,-63.4,-127.1,17.81,-14.93,30.32,16.55,0.4044,-20.98,10.37,11.75,0,0,0,0,0,0,0,0,0,0,0,0,0,0,0,0,
40,-44.98,-4.091,-360.2,-336.4,-116,-65.32,-62.31,-98.79,-21.14,-17.09,19.78,5.07,-12.72,-29.52,6.72,0.1827,0,0,0,0,0,0,0,0,0,0,0,0,0,0,0,0,
41,-72.04,-17.4,-371.4,-322.7,-162.3,-84.35,-68.45,-87.85,-51.24,-31.66,-10.95,-21.07,-40.75,-53.86,-10.12,-23.43,0,0,0,0,0,0,0,0,0,0,0,0,0,0,0,0,
42,-89.81,-36.63,-366.2,-312.1,-173.7,-79.28,-65.89,-93.65,-46.72,-25.52,-28.52,-24.06,-30.61,-44.12,-7.954,-18.42,0,0,0,0,0,0,0,0,0,0,0,0,0,0,0,0,
43,-61.03,-21.62,-327.4,-297.8,-117.9,-30.74,-33.59,-89.58,-26.82,-12.32,-17.63,9.393,0.5357,-28.57,7.84,1.439,0,0,0,0,0,0,0,0,0,0,0,0,0,0,0,0,
44,-0.6195,13.17,-294.2,-294.8,-74.51,17.3,3.525,-82.51,-2.831,-11.71,3.731,38.88,5.292,-38.6,11,-1.694,0,0,0,0,0,0,0,0,0,0,0,0,0,0,0,0,
45,26.9,19.93,-305.3,-293,-91.33,11.16,6.837,-77.63,16.92,-16.42,21.06,38.68,-9.241,-40.17,16,-3.406,0,0,0,0,0,0,0,0,0,0,0,0,0,0,0,0,
46,0.0073,0.7556,-336.6,-280.9,-128.3,-31.34,-22.21,-74.12,15.8,-17.96,30.15,29.68,-10.74,-16.7,30.64,16.27,0,0,0,0,0,0,0,0,0,0,0,0,0,0,0,0,
47,-30.08,-13.22,-355.3,-289.1,-148.2,-60.51,-55.63,-90.67,3.054,-12.53,32.7,24.91,-11.5,-2.336,31.02,21.05,0,0,0,0,0,0,0,0,0,0,0,0,0,0,0,0,
48,-33.7,-19.91,-352.5,-317.2,-146.6,-65.55,-71.29,-115.8,5.023,-14.03,35.15,13.38,-29.19,-8.356,20.92,8.386,0,0,0,0,0,0,0,0,0,0,0,0,0,0,0,0,
49,-35.08,-25.71,-336.9,-322.4,-130.7,-58.78,-62.66,-109.8,9.115,-30.26,23.93,-10.53,-48.9,-21.42,3.927,-5.409,0,0,0,0,0,0,0,0,0,0,0,0,0,0,0,0,
50,-50.6,-29.14,-320,-295.5,-114.9,-47.28,-41.01,-77.05,-18.43,-33.25,-14.56,-40.45,-65.98,-35.14,-28.72,-25.12,0,0,0,0,0,0,0,0,0,0,0,0,0,0,0,0,
51,-70.04,-37.29,-304.6,-266,-113.5,-36.49,-23.28,-55.89,-46.88,-23.88,-39.37,-47.68,-76.19,-32.78,-34.49,-22.71,0,0,0,0,0,0,0,0,0,0,0,0,0,0,0,0,
52,-62.8,-55.93,-298.5,-258,-119.2,-28.98,-22.11,-67.58,-21.37,-34.62,-13.26,-8.876,-66.38,-14.66,7.972,8.882,0,0,0,0,0,0,0,0,0,0,0,0,0,0,0,0,
53,-15.65,-83.26,-301.6,-273.8,-109.6,-30.92,-47.3,-104.2,27.02,-49.32,30.24,42.31,-55.04,-6.294,42.75,23.96,0,0,0,0,0,0,0,0,0,0,0,0,0,0,0,0,
54,24.03,-107.6,-298.3,-294.4,-85.82,-45.76,-82.89,-126.5,45.31,-44.63,58.21,62.09,-59.38,-9.197,48.58,21.62,0,0,0,0,0,0,0,0,0,0,0,0,0,0,0,0,
55,23.22,-106,-287.5,-291,-73.15,-56.1,-87.75,-100.6,45.95,-40.19,66.89,49.4,-67.81,-19.25,43.1,20.28,0,0,0,0,0,0,0,0,0,0,0,0,0,0,0,0,
56,1.352,-82.57,-282.7,-260.6,-89.4,-58.79,-61.96,-52.59,22.87,-40.05,32.9,5.815,-80.59,-39.64,10.01,-4.917,0,0,0,0,0,0,0,0,0,0,0,0,0,0,0,0,
57,-45.26,-67.23,-297.4,-240.4,-131.1,-79.24,-55.17,-35.73,-52,-34.76,-37.91,-59.94,-97.64,-52.43,-39.01,-44.5,0,0,0,0,0,0,0,0,0,0,0,0,0,0,0,0,
58,-107.6,-67.22,-323.6,-253.7,-169.1,-111.1,-83.76,-62.03,-113.3,-40.3,-83.17,-99.48,-106.8,-55.68,-56.56,-53.6,0,0,0,0,0,0,0,0,0,0,0,0,0,0,0,0,
59,-127.2,-78.65,-335.5,-283.2,-170.5,-118.8,-112.3,-103.7,-93.26,-58.59,-74.7,-85.07,-112.1,-64.31,-44.63,-40.98,0,0,0,0,0,0,0,0,0,0,0,0,0,0,0,0,
60,-96.21,-93.03,-326.9,-304.2,-143.5,-100.6,-114.8,-124.8,-50.18,-65.91,-38.38,-44.65,-108.3,-56.99,-24.63,-26.48,0,0,0,0,0,0,0,0,0,0,0,0,0,0,0,0,
61,-67.68,-82.57,-307.9,-300.2,-131.9,-90.79,-104.4,-108.8,-44.09,-55.77,-8.513,-20.03,-84.92,-23.21,-6.626,-7.015,0,0,0,0,0,0,0,0,0,0,0,0,0,0,0,0,
62,-81.04,-55.97,-299.9,-279.7,-155.4,-114.3,-107.7,-80.16,-61.08,-39.21,-16.34,-38.99,-68.31,3.446,-17.46,-8.464,0,0,0,0,0,0,0,0,0,0,0,0,0,0,0,0,
63,-125.6,-47.13,-308.8,-263.7,-175,-138.5,-111,-63.51,-75.99,-22.73,-43.44,-76.27,-68.97,12.58,-43.71,-29.44,0,0,0,0,0,0,0,0,0,0,0,0,0,0,0,0,
64,-131.7,-35.87,-289.7,-241.1,-146.2,-107.1,-77.66,-49.65,-57.69,-14.57,-38.6,-75.94,-64.09,10.69,-44.35,-32.07,0,0,0,0,0,0,0,0,0,0,0,0,0,0,0,0,
65,-80.78,-12.4,-241.3,-213.5,-96.56,-51.63,-37.06,-45.05,-26.19,-23.38,-21.13,-52.39,-64.06,-11.43,-39.45,-33.27,0,0,0,0,0,0,0,0,0,0,0,0,0,0,0,0,
66,-56.27,-19.77,-226.3,-211.6,-82.55,-44.26,-41.67,-60.19,-44.24,-35.49,-30.4,-49.62,-77.69,-31.39,-41.98,-41.01,0,0,0,0,0,0,0,0,0,0,0,0,0,0,0,0,
67,-78.23,-48.66,-239.9,-217.1,-105.5,-68.96,-65.4,-62.68,-72.45,-33.48,-39.23,-52.05,-79.25,-24.59,-25.6,-25.32,0,0,0,0,0,0,0,0,0,0,0,0,0,0,0,0,
68,-86.48,-53.78,-245.3,-202.3,-130.3,-81.31,-71.61,-46.75,-49.35,-33.22,-29.24,-43.98,-69.15,-19.81,-9.311,-9.097,0,0,0,0,0,0,0,0,0,0,0,0,0,0,0,0,
69,-78.23,-45.24,-248,-191.5,-129.8,-83.53,-72.58,-49.04,-20.43,-48.01,-19.24,-37.08,-59.61,-26.41,-11.01,-10.67,0,0,0,0,0,0,0,0,0,0,0,0,0,0,0,0,
70,-75.12,-39.96,-240.4,-195.7,-102.8,-73.1,-69.59,-62.34,-9.714,-55.63,-8.494,-27.53,-42.28,-15.73,-4.196,-1.525,0,0,0,0,0,0,0,0,0,0,0,0,0,0,0,0,
71,-66.18,-30.14,-216.8,-202.1,-71.43,-47.33,-57.52,-64.05,14.39,-45.6,8.483,-15.35,-24.43,2.656,12.92,17.63,0,0,0,0,0,0,0,0,0,0,0,0,0,0,0,0,
72,-54.04,-26.46,-196.3,-206.4,-54.53,-34.1,-51.01,-64.07,21.29,-30.6,10.9,-15.89,-23.22,3.804,15.27,23.35,0,0,0,0,0,0,0,0,0,0,0,0,0,0,0,0,
73,-58.92,-39.51,-194.9,-199.5,-69.55,-51.77,-57.42,-62.36,-28.68,-16,-24.25,-37.96,-41.57,-6.329,-9.117,5.224,0,0,0,0,0,0,0,0,0,0,0,0,0,0,0,0,
74,-84.27,-60.82,-221.6,-195.2,-113.2,-85.51,-78.53,-59.3,-78.49,-13.61,-64.74,-62.75,-68.92,-18.74,-35.04,-17.63,0,0,0,0,0,0,0,0,0,0,0,0,0,0,0,0,
75,-97.93,-81.05,-247.4,-209.5,-124.4,-100.9,-99.51,-66.69,-55.17,-27.47,-44,-48.01,-78.91,-26.05,-14.14,-4.176,0,0,0,0,0,0,0,0,0,0,0,0,0,0,0,0,
76,-65.81,-84.34,-234.4,-211.3,-80.91,-79.6,-89.83,-71.65,8.729,-34.92,17.32,-3.492,-61.9,-18.19,37.66,33.59,0,0,0,0,0,0,0,0,0,0,0,0,0,0,0,0,
77,-25.36,-62.57,-211.6,-197.1,-55.04,-56.18,-66.76,-65.58,31.89,-34.18,32.32,6.117,-39.31,-3.864,51.67,42.95,0,0,0,0,0,0,0,0,0,0,0,0,0,0,0,0,
78,-41.38,-33.02,-216.5,-199,-81.59,-70.41,-67.66,-53.62,-2.065,-30.42,-4.88,-26.24,-22.49,3.412,23.43,22.65,0,0,0,0,0,0,0,0,0,0,0,0,0,0,0,0,
79,-91.75,-11.53,-233.1,-198.4,-120.3,-100.3,-76.32,-30.7,-50.25,-6.762,-35.73,-53.31,-12.42,4.312,-1.857,4.474,0,0,0,0,0,0,0,0,0,0,0,0,0,0,0,0,
80,-105.5,-5.641,-239.7,-185.8,-134.9,-101.4,-71.34,-18.91,-58.13,12.36,-36.3,-54.7,-17.86,-0.2437,-11.91,-6.832,0,0,0,0,0,0,0,0,0,0,0,0,0,0,0,0,
81,-69.06,-17.25,-223.7,-188.1,-103.2,-69.63,-59.26,-31.86,-9.119,-0.6507,-13.76,-29.98,-33.65,-6.952,-11.43,-16.97,0,0,0,0,0,0,0,0,0,0,0,0,0,0,0,0,
82,-21.91,-28.55,-182.3,-180.1,-48.71,-37.1,-40.11,-23.76,39.89,-3.465,7.305,-2.62,-46.42,-12.21,-5.842,-24.76,0,0,0,0,0,0,0,0,0,0,0,0,0,0,0,0,
83,-9.066,-28.86,-154.9,-144.8,-42.12,-33.54,-23.76,10.84,31.51,13.17,-5.575,-12.31,-54.4,-26.46,-15.62,-34.42,0,0,0,0,0,0,0,0,0,0,0,0,0,0,0,0,
84,-33.22,-21.95,-165.9,-124.8,-79.04,-42.67,-14.49,27.3,-4.504,9.505,-29.7,-27.23,-45.84,-40.25,-26.78,-30.66,0,0,0,0,0,0,0,0,0,0,0,0,0,0,0,0,
85,-31.7,6.709,-169.9,-118.4,-85.36,-19.13,13.97,30.83,0.1496,4.703,-9.712,9.82,-10.04,-25.35,0.6096,6.486,0,0,0,0,0,0,0,0,0,0,0,0,0,0,0,0,
86,19.9,55.05,-152.2,-105.4,-53.98,25.63,46.46,24.4,37.74,15.04,32.57,57.19,25.56,-0.1233,37.29,40.91,0,0,0,0,0,0,0,0,0,0,0,0,0,0,0,0,
87,54.54,82.34,-154.1,-117.9,-33.57,39.25,40.19,-11.34,40.01,9.741,39.75,62,35.58,5.279,37.82,44.28,0,0,0,0,0,0,0,0,0,0,0,0,0,0,0,0,
88,47.69,75,-166.3,-149.4,-39.39,26.06,23.27,-33.57,14.77,4.082,30.26,56.36,32.24,10.82,28.88,42.19,0,0,0,0,0,0,0,0,0,0,0,0,0,0,0,0,
89,42.02,57.17,-161.8,-148.6,-56.9,22.29,36.1,-8.839,24.74,22.76,38.37,59.28,23.77,24.94,29.2,31.71,0,0,0,0,0,0,0,0,0,0,0,0,0,0,0,0,
90,39.97,40.13,-155,-122.3,-70.7,26.29,51.94,18.04,49.58,35.61,46.97,51.53,10.37,26.98,25.54,11.81,0,0,0,0,0,0,0,0,0,0,0,0,0,0,0,0,
91,32.26,23.97,-147.7,-108.9,-67.2,31.34,49.01,15.62,49.08,28.55,48.13,48.14,5.062,24.79,29.88,19.03,0,0,0,0,0,0,0,0,0,0,0,0,0,0,0,0,
92,39.98,16.66,-133.8,-114.7,-41.7,49.51,47.51,-4.91,54.61,19,54.89,64.64,7.902,26.67,40.48,36.46,0,0,0,0,0,0,0,0,0,0,0,0,0,0,0,0,
93,56.59,25.54,-125.5,-127.2,-20.47,66.42,52.37,-23.32,55.59,12.91,54.51,74.41,11.43,22.17,35.69,27.61,0,0,0,0,0,0,0,0,0,0,0,0,0,0,0,0,
94,50.94,47.86,-131.1,-130.9,-44.4,49.17,45.47,-17.15,0.8408,19.8,33.66,59.76,22.36,23.97,25.43,13.7,0,0,0,0,0,0,0,0,0,0,0,0,0,0,0,0,
95,22.44,65.93,-156.3,-127.7,-96.01,5.619,18.28,-3.197,-49.6,35.32,18.64,42.04,32.38,37.08,27.01,13.9,0,0,0,0,0,0,0,0,0,0,0,0,0,0,0,0,
96,-0.5994,54.9,-192.8,-142.9,-121.4,-31.79,-23.22,-23.08,-27.51,23.53,27.89,35.69,21.31,31.66,32.75,14.42,0,0,0,0,0,0,0,0,0,0,0,0,0,0,0,0,
97,-5.319,16.43,-211.6,-173,-115.2,-50.9,-56.76,-58.32,5.288,-8.791,36.35,29.38,1.237,7.799,31.33,9.235,0,0,0,0,0,0,0,0,0,0,0,0,0,0,0,0,
98,-9.341,-16.24,-193.4,-177.9,-88.7,-49.8,-58.01,-57.17,13.46,-14.76,29.2,19.21,-9.008,-5.193,22.34,1.435,0,0,0,0,0,0,0,0,0,0,0,0,0,0,0,0,
99,-27.68,-29.4,-158.1,-151.1,-61.24,-43.55,-40.97,-25.78,19.61,-4.556,6.982,0.5731,-23.65,-12.77,3.906,-15,0,0,0,0,0,0,0,0,0,0,0,0,0,0,0,0,
100,-52.24,-35,-155.8,-131.2,-81.08,-52.36,-33.91,-10.89,-5.519,-6.293,-28.48,-25.18,-41.9,-22.09,-14.68,-28,0,0,0,0,0,0,0,0,0,0,0,0,0,0,0,0,
101,-61.1,-31.91,-184.7,-140.3,-114.9,-56.41,-34.81,-31.01,-26.71,-2.045,-32.44,-23.87,-36.67,-17.72,-5.141,-12.16,0,0,0,0,0,0,0,0,0,0,0,0,0,0,0,0,
102,-45.57,-26.75,-192.6,-170.4,-94.3,-51.55,-52.17,-70.99,14.8,-0.5967,11.29,2.222,-21.73,-12.28,25.34,10,0,0,0,0,0,0,0,0,0,0,0,0,0,0,0,0,
103,-29.3,-36.23,-192.1,-212.7,-79.02,-71.39,-95.79,-107.9,32.76,-23.79,36.18,7.348,-22.08,-14.93,35.88,12.3,0,0,0,0,0,0,0,0,0,0,0,0,0,0,0,0,
104,-31.32,-44.34,-212.7,-247.4,-112.6,-100.5,-122.9,-117.5,-3.454,-34.99,19.4,-9.53,-21.46,-6.625,19.01,11.4,0,0,0,0,0,0,0,0,0,0,0,0,0,0,0,0,
105,-47.17,-35.64,-222.6,-241.1,-130.7,-109.7,-109.9,-86.63,-8.979,-15.69,-0.8907,-29.67,-13.79,3.146,-2.943,7.603,0,0,0,0,0,0,0,0,0,0,0,0,0,0,0,0,
106,-63.35,-21.63,-224.2,-205.8,-139.4,-103,-80.72,-42.16,-6.61,0.8736,-8.995,-35.83,-8.441,1.965,-4.016,8.001,0,0,0,0,0,0,0,0,0,0,0,0,0,0,0,0,
107,-40.55,-8.986,-230.2,-184.1,-149.9,-58.92,-36.47,-32.67,-17.22,-2.817,1.189,-1.96,-7.921,-6.74,16.66,23.04,0,0,0,0,0,0,0,0,0,0,0,0,0,0,0,0,
108,28.91,-12.3,-184.4,-165.4,-91.28,11.64,6.396,-59.62,15.95,-25.29,17.46,36.47,-28.74,-34.62,21.84,15.92,0,0,0,0,0,0,0,0,0,0,0,0,0,0,0,0,
109,70.38,-37.79,-106.9,-133.1,-17.12,29.86,3.506,-76.79,48.72,-43.82,17.25,29.69,-57.05,-53.84,8.192,-1.382,0,0,0,0,0,0,0,0,0,0,0,0,0,0,0,0,
110,45.73,-51.69,-113.7,-133.6,-51.69,-21.71,-34.79,-69.92,21.94,-31.56,6.286,1.728,-50.56,-28.75,0.426,12.25,0,0,0,0,0,0,0,0,0,0,0,0,0,0,0,0,
111,-0.4489,-40.92,-192.2,-174,-143,-83.93,-69.94,-61.64,-32.86,-11.7,-16.42,-18.35,-18.08,0.3303,-9.293,24.02,0,0,0,0,0,0,0,0,0,0,0,0,0,0,0,0,
112,-34.51,-19.22,-227.3,-188.6,-171.7,-110,-81.74,-55.62,-74.6,-4.506,-34.72,-20.46,10.12,9.93,-10.61,26.33,0,0,0,0,0,0,0,0,0,0,0,0,0,0,0,0,
113,-39.7,13.44,-202.6,-169.7,-124.7,-86.46,-64.22,-51.05,-46.94,5.428,-7.405,3.33,22.64,24.21,12.42,41.21,0,0,0,0,0,0,0,0,0,0,0,0,0,0,0,0,
114,-10.56,29.01,-164.6,-163.6,-58.7,-44.14,-46.7,-56.75,39.51,7.925,34.1,24.36,9.981,29.03,23.76,32.41,0,0,0,0,0,0,0,0,0,0,0,0,0,0,0,0,
115,18.49,1.475,-137.6,-162.5,-38.45,-28.93,-48.17,-59.55,62.62,-5.678,31.81,22.83,-14.6,15.46,6.476,-4.663,0,0,0,0,0,0,0,0,0,0,0,0,0,0,0,0,
116,23.12,-29.06,-140,-144,-74.53,-41.63,-45.89,-45.45,9.47,-13.28,5.392,17.7,-28.82,7.745,-7.981,-23.86,0,0,0,0,0,0,0,0,0,0,0,0,0,0,0,0,
117,17.9,-31.65,-157.9,-126.5,-109.2,-54.99,-38.1,-27.73,-18.29,-17.54,-3.372,20.47,-31.2,1.016,-2.555,-21.53,0,0,0,0,0,0,0,0,0,0,0,0,0,0,0,0,
118,20.12,-21.87,-154.4,-113.8,-100.7,-45.87,-30.11,-21.45,-4.068,-32.82,11.17,32.63,-22.9,-15.62,11.91,-14.76,0,0,0,0,0,0,0,0,0,0,0,0,0,0,0,0,
119,31.36,-6.087,-127.6,-98.81,-62.79,-15.18,-14.58,-28.25,13.86,-40.21,31.64,41.3,-6.387,-18.96,22.43,-0.3151,0,0,0,0,0,0,0,0,0,0,0,0,0,0,0,0,
120,30.24,15.15,-106,-100.5,-43.83,-7.26,-16.79,-35.24,10.27,-20,31.16,21.55,14.74,5.996,21.72,15.59,0,0,0,0,0,0,0,0,0,0,0,0,0,0,0,0,
121,-7.436,29.59,-122.9,-117.8,-78.5,-50.6,-48.03,-28.77,-28.83,8.438,-5.038,-20.88,29.79,29.54,-4.343,13.23,0,0,0,0,0,0,0,0,0,0,0,0,0,0,0,0,
122,-64.83,22.27,-166,-126.8,-132.7,-98.18,-69.7,-20.01,-64.44,13.6,-55.28,-54.21,14.81,19.62,-45.51,-2.761,0,0,0,0,0,0,0,0,0,0,0,0,0,0,0,0,
123,-88.12,-8.374,-179.2,-125.1,-148.3,-95.03,-66.18,-24.66,-57.13,-1.317,-66.63,-51.88,-21.86,-9.97,-50.13,-14.15,0,0,0,0,0,0,0,0,0,0,0,0,0,0,0,0,
124,-45.68,-33.86,-152.8,-116.6,-111.1,-53.27,-54.94,-39.7,-21,-17.4,-18.38,-13.82,-45.38,-32.29,-12.1,-16.59,0,0,0,0,0,0,0,0,0,0,0,0,0,0,0,0,
125,20.13,-34.14,-114.8,-109.5,-44.79,-13.49,-39.45,-52.87,26.79,-32.22,37.76,22.41,-45.62,-39.24,20.35,-0.6475,0,0,0,0,0,0,0,0,0,0,0,0,0,0,0,0,
126,39.28,-20.28,-84.39,-111.9,-5.888,4.302,-18.95,-43.65,50.18,-37.51,50.37,25.67,-23.67,-28.73,33.59,27.01,0,0,0,0,0,0,0,0,0,0,0,0,0,0,0,0,
127,13.05,3.063,-88.94,-105.6,-35.89,-8.483,-7.199,-12.93,19.55,-26.23,31.27,10.37,12.02,-8.247,38.98,39.7,0,0,0,0,0,0,0,0,0,0,0,0,0,0,0,0,
128,-7.69,30.92,-119,-89.03,-84.22,-39.32,-11.93,0.7639,-4.07,-11.48,20.59,6.475,38.15,14.44,41.72,50.61,0,0,0,0,0,0,0,0,0,0,0,0,0,0,0,0,
129,-8.067,47.25,-128.3,-87.97,-78.9,-49.02,-19.91,-17.74,17.13,2.688,34.16,22.3,47.44,37.2,50.04,72.13,0,0,0,0,0,0,0,0,0,0,0,0,0,0,0,0,
130,6.204,46.67,-117.2,-100.8,-37.03,-29.35,-24.52,-46.94,29.55,11.62,54.48,44.33,37.91,38.71,55.71,67.8,0,0,0,0,0,0,0,0,0,0,0,0,0,0,0,0,
131,29.37,23.1,-117.3,-123,-20.36,-21.22,-40.74,-71.35,29.58,-1.273,60.67,49.51,-1.331,6.768,42.89,24.78,0,0,0,0,0,0,0,0,0,0,0,0,0,0,0,0,
132,22.03,-19.69,-137.2,-154.3,-52.83,-47.8,-65.48,-71,27.54,-18.06,42.01,19.72,-48.15,-24.03,16.02,-17.49,0,0,0,0,0,0,0,0,0,0,0,0,0,0,0,0,
133,-32.66,-46.3,-158.3,-155.3,-106.6,-75.19,-66.08,-34.98,-19.85,-15.93,1.229,-24.61,-58.66,-24.6,-6.993,-22.6,0,0,0,0,0,0,0,0,0,0,0,0,0,0,0,0,
134,-65.29,-34.07,-151.9,-115.5,-121.3,-57.37,-30.05,-1.85,-62.73,-23.23,-21.23,-29.47,-34.88,-16.14,-5.228,0.458,0,0,0,0,0,0,0,0,0,0,0,0,0,0,0,0,
135,-26.78,-3.567,-116.6,-91.42,-73.45,-5.377,9.89,-11.23,-26.55,-50.82,7.997,8.931,-15.12,-21.28,20.1,14.04,0,0,0,0,0,0,0,0,0,0,0,0,0,0,0,0,
136,23.63,10.22,-92.2,-106.6,-27.6,18.07,11.08,-49.33,19.69,-59.46,46.39,30.19,-14.17,-29.07,30.73,2.63,0,0,0,0,0,0,0,0,0,0,0,0,0,0,0,0,
137,19.36,-4.013,-111.3,-128.9,-47.99,-14.95,-26.85,-74.42,14.36,-41.03,37.69,5.436,-20.88,-26.15,5.453,-20.24,0,0,0,0,0,0,0,0,0,0,0,0,0,0,0,0,
138,-29.91,-19.45,-150.4,-137.7,-105,-66.6,-61.76,-64.32,-18.21,-18.89,-6.864,-38.56,-22.11,-9.729,-24.95,-33.55,0,0,0,0,0,0,0,0,0,0,0,0,0,0,0,0,
139,-82.23,-12.16,-164.8,-128.7,-133.8,-93.63,-69.2,-41.69,-61.93,1.829,-41.19,-69.56,-15.24,7.976,-34.57,-33.87,0,0,0,0,0,0,0,0,0,0,0,0,0,0,0,0,
140,-98.06,0.9624,-150.3,-105.5,-110.6,-78.96,-59.4,-42.26,-63.48,9.355,-35.39,-63.47,-15.16,-2.094,-31.49,-38.08,0,0,0,0,0,0,0,0,0,0,0,0,0,0,0,0,
141,-54.75,-0.4757,-120.1,-87.94,-45.55,-29.61,-40.31,-63.49,13.54,-9.649,5.38,-22.59,-26.96,-33.75,-18.19,-39.85,0,0,0,0,0,0,0,0,0,0,0,0,0,0,0,0,
142,14.25,-7.083,-84.21,-83.37,17.16,12.86,-21.55,-76.65,81.71,-32.19,44.67,11.32,-28.95,-42.57,3.521,-22.08,0,0,0,0,0,0,0,0,0,0,0,0,0,0,0,0,
143,42.88,-5.033,-68.28,-78.96,21.33,10.39,-18.54,-62.72,73.09,-32.22,52.92,7.61,-12.54,-19.55,11.42,0.026,0,0,0,0,0,0,0,0,0,0,0,0,0,0,0,0,
144,8.035,-2.677,-86.27,-75.33,-34.46,-28.36,-30.71,-34.36,18.06,-21.42,23.74,-27.06,-4.336,-0.6464,-7.641,2.171,0,0,0,0,0,0,0,0,0,0,0,0,0,0,0,0,
145,-58.15,-16.39,-121.3,-78.28,-94.92,-73.19,-54.83,-28.54,-38.96,-22.74,-22.23,-65.8,-18.71,-6.584,-31.74,-15.25,0,0,0,0,0,0,0,0,0,0,0,0,0,0,0,0,
146,-97.63,-34.72,-141.7,-84.76,-105.8,-89.41,-80.53,-53.92,-57.8,-29.03,-34.66,-68.45,-26.17,-13.9,-28.38,-24.64,0,0,0,0,0,0,0,0,0,0,0,0,0,0,0,0,
147,-74.55,-32.67,-127.4,-100.5,-61.12,-59.79,-81.24,-85.3,-41.04,-25,-6.768,-33.05,-14.55,-5.525,-8.178,-16.17,0,0,0,0,0,0,0,0,0,0,0,0,0,0,0,0,
148,-25.81,-15.22,-97.94,-114.8,-14.31,-19.82,-57.04,-98.38,-21.6,-24.16,14.62,-4.957,-5.999,3.006,4.143,-5.068,0,0,0,0,0,0,0,0,0,0,0,0,0,0,0,0,
149,2.539,2.029,-76.27,-96.55,-10.27,-4.421,-29.8,-78.25,8.801,-30.02,25.3,8.599,6.918,14.08,23.56,16.49,0,0,0,0,0,0,0,0,0,0,0,0,0,0,0,0,
150,17.52,7.047,-68.04,-60.94,-33.58,-9.363,-14.87,-50.07,20.69,-26.33,26.74,14.77,15.35,21.86,35.03,30.81,0,0,0,0,0,0,0,0,0,0,0,0,0,0,0,0,
151,11.72,-18.69,-82.1,-48.87,-53.5,-25.36,-25.14,-54.5,-16.66,-27.95,3.098,0.2024,-13.72,0.1192,16.39,10.24,0,0,0,0,0,0,0,0,0,0,0,0,0,0,0,0,
152,-16.2,-48.53,-87.31,-56.29,-39.45,-25.96,-38.94,-73.74,-12.39,-42.48,5.186,0.7651,-32.61,-20.52,19.95,-1.75,0,0,0,0,0,0,0,0,0,0,0,0,0,0,0,0,
153,-16.37,-35.41,-49.19,-62.89,16.37,3.37,-26.42,-78.16,40.26,-36.45,39.67,27.18,-8.381,-13.16,41.51,2.084,0,0,0,0,0,0,0,0,0,0,0,0,0,0,0,0,
154,3.025,-7.139,-24.48,-66.17,31.79,20.05,-10.93,-73.39,16.51,-6.994,28.73,20.27,4.149,-1.697,23.33,-11.08,0,0,0,0,0,0,0,0,0,0,0,0,0,0,0,0,
155,-0.9205,2.811,-61.91,-68.18,-37.28,9.588,-6.597,-60.43,-36.76,11.66,0.1122,-1.287,8.514,18.29,6.4,-5.954,0,0,0,0,0,0,0,0,0,0,0,0,0,0,0,0,
156,2.284,15.56,-95.27,-68.92,-74.67,8.352,3.754,-46.54,-11.71,9.865,10.15,12.82,25.23,34.41,14.7,12.02,0,0,0,0,0,0,0,0,0,0,0,0,0,0,0,0,
157,30.35,20.95,-61.02,-53.38,-17.17,31.28,18.98,-42.9,26.91,1.699,24.49,40.64,19.85,21.04,20.01,8.247,0,0,0,0,0,0,0,0,0,0,0,0,0,0,0,0,
158,65.69,9.424,7.092,-12.56,53.88,80.99,47.42,-33.71,55.07,0.9146,57.54,76.42,17.68,20.27,55.18,26.47,0,0,0,0,0,0,0,0,0,0,0,0,0,0,0,0,
159,98.62,15.5,54.83,20.25,95.81,121.1,74.53,-18.54,98.87,10.38,101.6,93.73,38.08,36.68,86.24,55,0,0,0,0,0,0,0,0,0,0,0,0,0,0,0,0,
160,68.44,23.77,52.65,11.43,88.83,80.75,45.87,-20.68,66.22,18.24,59.21,35.35,29.6,27.1,36.06,36.8,0,0,0,0,0,0,0,0,0,0,0,0,0,0,0,0,
161,-23.07,8.695,-3.509,-22.27,16.91,3.623,-6.173,-37.22,-23.6,16.68,-19.29,-26.23,8.652,17.49,-16.36,12.39,0,0,0,0,0,0,0,0,0,0,0,0,0,0,0,0,
162,-45.12,6.756,-50.39,-43.13,-22.32,-3.757,-7.428,-50.31,-26.33,9.771,-7.277,-5.484,15.06,23.85,3.861,13.16,0,0,0,0,0,0,0,0,0,0,0,0,0,0,0,0,
163,16.8,21.33,-31.27,-37.91,23.74,35.91,15.35,-54.82,20.22,1.375,41.07,30.58,14,13.24,24.72,4.003,0,0,0,0,0,0,0,0,0,0,0,0,0,0,0,0,
164,56.24,23.88,12.17,-15.2,62.78,55.15,26.4,-45.05,34.87,-3.263,49.38,34.61,-2.111,0.3262,15.59,-5.497,0,0,0,0,0,0,0,0,0,0,0,0,0,0,0,0,
165,58.59,23.51,27.36,6.067,55.15,52.53,37.75,-20.34,57.82,1.569,52.93,37.51,-0.9249,12.27,20.75,11.58,0,0,0,0,0,0,0,0,0,0,0,0,0,0,0,0,
166,32.49,15.65,3.537,3.576,22.6,19.8,27.18,-1.763,52.35,9.497,43.47,18.48,3.612,24.48,24.54,22.78,0,0,0,0,0,0,0,0,0,0,0,0,0,0,0,0,
167,-33.18,-10.75,-38.15,-14.05,-21.98,-27.55,-6.737,-2.35,-14.06,7.223,-2.734,-25.52,-12.68,8.793,-0.7227,0.4109,0,0,0,0,0,0,0,0,0,0,0,0,0,0,0,0,
168,-66.49,-29.85,-39.12,-20.92,-21.32,-24.66,-13.85,-12.5,-30.47,-7.529,-19.68,-25.65,-32.27,-22.44,-16.68,-24.4,0,0,0,0,0,0,0,0,0,0,0,0,0,0,0,0,
169,-23.16,-33.63,-2.731,-22.87,26.98,16.27,3.283,-29.15,7.638,-25.41,15.24,15.51,-35.23,-44.62,-1.792,-29.45,0,0,0,0,0,0,0,0,0,0,0,0,0,0,0,0,
170,17.72,-36.24,7.723,-25.89,36.22,24.41,5.307,-40.71,-7.167,-34.53,26.05,18.26,-33.77,-54.45,1.514,-33.55,0,0,0,0,0,0,0,0,0,0,0,0,0,0,0,0,
171,-1.582,-34.43,-10.46,-24.81,-3.146,-5.164,-7.923,-25.19,-41.37,-24.23,-8.472,-24.73,-42.98,-52.1,-25.64,-42.96,0,0,0,0,0,0,0,0,0,0,0,0,0,0,0,0,
172,-44.2,-30.09,-37.85,-34.25,-38.17,-36.23,-23.42,-3.261,-30.96,-0.8093,-35.35,-55.47,-56.32,-41.46,-45.09,-47.13,0,0,0,0,0,0,0,0,0,0,0,0,0,0,0,0,
173,-70.05,-35.8,-56.67,-43.29,-51.82,-48.02,-35.36,-7.798,-17.94,7.893,-36.06,-57.93,-62.09,-43.53,-31.32,-41.96,0,0,0,0,0,0,0,0,0,0,0,0,0,0,0,0,
174,-78.96,-46.33,-33.86,-29.6,-27.74,-32.61,-35.62,-26.39,-12.88,-4.719,-21.98,-45.71,-54.28,-53.58,-3.879,-23.7,0,0,0,0,0,0,0,0,0,0,0,0,0,0,0,0,
175,-66.02,-42.98,4.359,-22.68,25.15,-2.751,-25.79,-37.68,15.49,-12.32,0.4484,-19.49,-38.56,-46.95,6.269,-2.723,0,0,0,0,0,0,0,0,0,0,0,0,0,0,0,0,
176,-25.26,-26.57,16.55,-34.09,42.32,13.59,-14.68,-36.58,41.31,-7.808,10.9,2.915,-32.51,-34.04,-4.852,0.2198,0,0,0,0,0,0,0,0,0,0,0,0,0,0,0,0,
177,4.791,-15.95,9.771,-31.64,4.263,0.5387,-9.104,-23.03,24.04,-4.308,-0.7082,-3.156,-40.21,-33.52,-15.88,-12.34,0,0,0,0,0,0,0,0,0,0,0,0,0,0,0,0,
178,-9.259,-12.1,-16.43,-23.66,-39.15,-26.35,-10.16,-9.819,-18.04,0.3313,-15.43,-23.28,-49.61,-39.21,-19.39,-25.57,0,0,0,0,0,0,0,0,0,0,0,0,0,0,0,0,
179,-32.11,-7.256,-34.96,-21.69,-44.41,-28.58,-4.938,-6.415,-23.5,5.155,-19.79,-30.32,-48.87,-39.23,-18.36,-27.36,0,0,0,0,0,0,0,0,0,0,0,0,0,0,0,0,
180,-27.35,-1.732,-2.89,-5.634,-10.02,-3.119,6.287,-13.05,18.82,1.213,-8.535,-21.09,-27.24,-23.82,1.345,-0.7189,0,0,0,0,0,0,0,0,0,0,0,0,0,0,0,0,
181,-20.22,8.524,22.28,-5.107,10.88,1.509,-4.061,-32.93,46.09,-2.498,10.63,-7.78,7.045,0.0165,25.42,38.24,0,0,0,0,0,0,0,0,0,0,0,0,0,0,0,0,
182,-32.22,17.55,-4.423,-32.43,-9.014,-24.02,-22.68,-38.09,36.93,4.612,2.262,-6.921,26.88,10.04,11.17,43.32,0,0,0,0,0,0,0,0,0,0,0,0,0,0,0,0,
183,-35.45,20.71,-17.14,-22.47,-20.35,-32.32,-5.362,-5.474,21.18,10.95,-32.75,-16.89,24.26,5.116,-18.31,22.54,0,0,0,0,0,0,0,0,0,0,0,0,0,0,0,0,
184,-17.41,27.45,-24.1,-4.834,-27.07,-21.12,17.54,5.856,4.469,-0.6828,-37.18,-11.82,7.333,-5.572,-11.86,11.55,0,0,0,0,0,0,0,0,0,0,0,0,0,0,0,0,
185,6.217,20.01,-63.25,-48.75,-36.52,-15.08,3.994,-34.24,22.46,-24.58,3.546,13.11,-18.72,-25.1,8.274,-0.4589,0,0,0,0,0,0,0,0,0,0,0,0,0,0,0,0,
186,37.55,-13.54,-32.13,-63.1,29.52,1.605,-7.478,-53.67,90.89,-41.08,37.67,26.93,-39.37,-43.21,8.068,-15.74,0,0,0,0,0,0,0,0,0,0,0,0,0,0,0,0,
187,46.11,-36.29,57.84,-7.015,103.6,12.44,-4.138,-34.44,100.7,-43.4,28.4,9.352,-36.17,-36,-2.369,-13.07,0,0,0,0,0,0,0,0,0,0,0,0,0,0,0,0,
188,-9.622,-26.12,38.8,4.841,49.57,-15.18,-12.74,-25.63,17.99,-31.36,-12.9,-23.36,-13.85,-11.49,-19.23,-5.867,0,0,0,0,0,0,0,0,0,0,0,0,0,0,0,0,
189,-68.1,-2.679,-40.72,-26.95,-28.31,-38.38,-14.17,-31.77,-34.85,-20.48,-55.23,-46.45,-6.026,-12,-40.85,-13.08,0,0,0,0,0,0,0,0,0,0,0,0,0,0,0,0,
190,-64.76,6.636,-43.46,-32.92,-18.05,-26.48,-7.707,-54.03,-28.37,-34.27,-68.35,-44.74,-26.09,-38.36,-42.2,-19.73,0,0,0,0,0,0,0,0,0,0,0,0,0,0,0,0,
191,-31.62,-5.286,-18.58,-42.98,16.34,-5.806,-13.85,-86.67,-5.613,-49.47,-32.35,-10.27,-40.04,-40.07,-12.46,-6.852,0,0,0,0,0,0,0,0,0,0,0,0,0,0,0,0,
192,7.904,-17.82,-8.143,-56.41,41.41,10.95,-12.29,-87.93,45.04,-42.2,25.8,27.13,-42.36,-22.02,17.28,7.818,0,0,0,0,0,0,0,0,0,0,0,0,0,0,0,0,
193,33.97,-25.28,2.205,-33.89,40.57,6.649,-3.371,-60.31,73.21,-35.87,42.21,20.45,-57.42,-25.92,13.64,-3.528,0,0,0,0,0,0,0,0,0,0,0,0,0,0,0,0,
194,6.322,-33.13,-14.23,-3.207,-10.96,-23.18,-7.835,-36.1,26.48,-34.36,1.324,-19.12,-64.3,-32.6,-18.82,-28.44,0,0,0,0,0,0,0,0,0,0,0,0,0,0,0,0,
195,-44.63,-29.45,-37.94,-1.722,-53.17,-39.48,-16.53,-34.07,-33.59,-37.46,-55.99,-51.31,-56.39,-27.43,-57.08,-48.95,0,0,0,0,0,0,0,0,0,0,0,0,0,0,0,0,
196,-63.91,-21.38,-36.02,-25.69,-41.51,-26.13,-18.95,-63.32,-46.56,-53.48,-79.62,-50.49,-53.08,-21.87,-67.38,-45.09,0,0,0,0,0,0,0,0,0,0,0,0,0,0,0,0,
197,-41.7,-13.73,-21.37,-48.45,4.353,1.049,-11.48,-82.52,1.56,-46.75,-40.7,-6.919,-32.4,5.694,-32.28,3.753,0,0,0,0,0,0,0,0,0,0,0,0,0,0,0,0,
198,0.4335,2.781,-9.21,-58.14,37.34,12.08,-8.175,-66.97,58.85,-25.59,10.41,25.69,-14.39,32.11,-4.561,32.59,0,0,0,0,0,0,0,0,0,0,0,0,0,0,0,0,
199,9.197,-1.101,-20.02,-66.71,10.65,-13.45,-22.59,-56.21,43.88,-41.13,13.82,5.413,-41.82,12.63,-14.55,-3.157,0,0,0,0,0,0,0,0,0,0,0,0,0,0,0,0,
200,-16,-30.42,-39.87,-58.1,-21.61,-31.68,-22.59,-46.98,15.89,-56.03,6.941,-10.45,-64.48,-10.13,-14.62,-25.56,0,0,0,0,0,0,0,0,0,0,0,0,0,0,0,0,
201,-19.45,-43.4,-32.63,-26.15,0.5362,-16.51,-7.272,-31.02,35.94,-39.52,8.926,-3.815,-54.86,-7.884,-6.574,-17.89,0,0,0,0,0,0,0,0,0,0,0,0,0,0,0,0,
202,-16.1,-42.06,-17.75,-22.68,21.32,-8.717,-17.41,-50.79,31.02,-36.99,-11.13,-13.87,-47.5,-7.336,-18.03,-23.37,0,0,0,0,0,0,0,0,0,0,0,0,0,0,0,0,
203,-28.91,-33.35,-15.88,-57.73,20.97,-9.121,-30.98,-83.54,12.09,-43.82,-23.36,-17.54,-25.92,4.653,-21.08,-10.72,0,0,0,0,0,0,0,0,0,0,0,0,0,0,0,0,
204,-28.38,-3.215,-18.4,-76.93,18.85,-8.601,-25.13,-74.04,13.56,-30.91,-23.16,-11.93,4.784,28.17,-24.21,13.78,0,0,0,0,0,0,0,0,0,0,0,0,0,0,0,0,
205,-34.33,12.12,-33.85,-71.63,-26.12,-40.42,-39.35,-50.75,-34.27,-20.25,-56.43,-36.92,-6.439,20.47,-54.57,-6.057,0,0,0,0,0,0,0,0,0,0,0,0,0,0,0,0,
206,-67.25,-16.9,-62.16,-72.65,-87.36,-82.48,-72.78,-54.53,-86.5,-26.55,-83.73,-61.31,-43,-15.45,-71.31,-48.23,0,0,0,0,0,0,0,0,0,0,0,0,0,0,0,0,
207,-72.72,-55.27,-72.03,-72.08,-79.44,-75.65,-76.68,-67.41,-49.39,-38.35,-49.67,-41.2,-58.34,-35.47,-40.73,-54.36,0,0,0,0,0,0,0,0,0,0,0,0,0,0,0,0,
208,-26.05,-65.82,-40.95,-55.2,-21.96,-26.61,-45.96,-63.49,13.93,-40.49,9.415,1.173,-43.53,-23.56,8.798,-22.4,0,0,0,0,0,0,0,0,0,0,0,0,0,0,0,0,
209,19.19,-42.93,3.377,-38.76,14.5,13.4,-16.61,-46.99,32.67,-27,36.58,21.98,-14.13,-6.3,29.84,-2.014,0,0,0,0,0,0,0,0,0,0,0,0,0,0,0,0,
210,9.26,-19.5,15.63,-26.42,10.03,9.853,-11.92,-29.1,11.9,-17.29,14.12,-2.237,-2.433,-4.596,6.956,-10.57,0,0,0,0,0,0,0,0,0,0,0,0,0,0,0,0,
211,-43.9,-33.13,-0.5667,-14.73,-18.13,-23.59,-25.99,-13.95,-22.1,-24.68,-29.07,-42.97,-15.37,-9.337,-24.92,-17.08,0,0,0,0,0,0,0,0,0,0,0,0,0,0,0,0,
212,-74.32,-56.37,-14.86,-19.92,-28.67,-39.17,-39.66,-16.99,-26.68,-38.98,-48,-49.28,-24.97,-20.14,-31.3,-19.98,0,0,0,0,0,0,0,0,0,0,0,0,0,0,0,0,
213,-51.69,-53.69,-14.91,-32.1,-0.8721,-21.68,-42.54,-40.27,-14,-53.55,-37.8,-24.51,-20.95,-31.31,-12.36,-19.61,0,0,0,0,0,0,0,0,0,0,0,0,0,0,0,0,
214,-15.64,-48.82,-6.345,-31.96,25.4,-3.28,-40.49,-50.03,-14.76,-60.52,-15.08,-3.772,-8.287,-19.43,12.8,-3.901,0,0,0,0,0,0,0,0,0,0,0,0,0,0,0,0,
215,-0.6937,-47.38,-2.867,-32.5,14.88,-5.428,-37.86,-32.64,-5.965,-48.62,-0.6531,-4.265,6.569,-0.8084,11.01,-8.796,0,0,0,0,0,0,0,0,0,0,0,0,0,0,0,0,
216,-10.3,-23.39,-2.038,-24.75,-17.71,-15.03,-23.06,-7.63,-19.72,-27.43,-30.41,-34.77,5.67,-2.264,-29.41,-43.71,0,0,0,0,0,0,0,0,0,0,0,0,0,0,0,0,
217,-46.5,2.169,3.932,5.994,-43.56,-14.48,1.804,11.6,-84.91,-17.58,-89.66,-78.8,-13.51,-12.34,-69.12,-62,0,0,0,0,0,0,0,0,0,0,0,0,0,0,0,0,
218,-83.79,-5.826,5.17,19.85,-39.15,-2.804,9.028,9.611,-101,-22.56,-108.5,-91.11,-31.38,-26.91,-72.14,-62.67,0,0,0,0,0,0,0,0,0,0,0,0,0,0,0,0,
219,-78.65,-31.06,2.021,1.079,-1.357,11.06,-2.609,-11.55,-36.02,-29.35,-75,-62.59,-38.08,-41.79,-49.68,-64.83,0,0,0,0,0,0,0,0,0,0,0,0,0,0,0,0,
220,-40.62,-36.65,11.08,-3.98,37.1,21.34,-0.3129,-8.536,5.742,-23.77,-37.04,-29.33,-30.69,-29.58,-26.46,-53.05,0,0,0,0,0,0,0,0,0,0,0,0,0,0,0,0,
221,-10.04,-15.48,29.99,18.69,40.53,24.4,18.1,28,4.937,-3.577,-16.57,-14.71,-10.82,1.318,-14.64,-36.73,0,0,0,0,0,0,0,0,0,0,0,0,0,0,0,0,
222,-0.4663,3.992,22.83,34.15,0.4585,9.682,19.32,46.32,1.273,12.69,-16.42,-20.15,-0.4664,11.51,-20.67,-45.72,0,0,0,0,0,0,0,0,0,0,0,0,0,0,0,0,
223,-9.504,-0.6906,-15.76,27.1,-48.75,-16.68,1.272,28.6,-22.45,6.972,-33.34,-36.75,-10.25,-1.747,-34.69,-61.57,0,0,0,0,0,0,0,0,0,0,0,0,0,0,0,0,
224,-22.27,-12.05,-20.55,18.66,-48.59,-20.26,-3.499,11.73,-47.3,-8.024,-42.8,-44.16,-17.26,-14.67,-38.3,-53.93,0,0,0,0,0,0,0,0,0,0,0,0,0,0,0,0,
225,-22.58,-11.98,15,20.5,-9.735,3.066,8.65,8.811,-32.24,-13,-33.53,-34.29,-9.714,-18.41,-33.38,-37.85,0,0,0,0,0,0,0,0,0,0,0,0,0,0,0,0,
226,-17.85,-15.18,22.46,15.7,4.335,18.38,14.63,7.502,-7.865,-14.61,-23.21,-23.19,-7.602,-21.43,-32.76,-36.35,0,0,0,0,0,0,0,0,0,0,0,0,0,0,0,0,
227,-16.49,-30.12,17.79,11.77,-2.964,16.62,13.14,16.2,-7.034,-20.33,-23.17,-24.33,-21.98,-29.34,-36.68,-43.21,0,0,0,0,0,0,0,0,0,0,0,0,0,0,0,0,
228,-16.38,-33.05,23.56,24.06,-13.41,6.373,8.895,28.87,-9.151,-19.31,-15.17,-20.8,-24.59,-26.24,-23.43,-25.32,0,0,0,0,0,0,0,0,0,0,0,0,0,0,0,0,
229,-11.16,-10.08,-12.49,10.31,-40.6,-13.19,-8.236,13.84,6.153,-11.17,16.81,5.981,3.512,-7.633,11.9,23.79,0,0,0,0,0,0,0,0,0,0,0,0,0,0,0,0,
230,7.37,10.56,-43.91,-27.44,-31.15,-20.44,-24.79,-7.021,24.51,-9.001,41.27,28.83,24.01,-4.207,22.61,39.27,0,0,0,0,0,0,0,0,0,0,0,0,0,0,0,0,
231,29.18,13.37,8.618,-5.761,40.16,8.334,-6.767,15.9,27.03,-3.517,35.6,26.41,22.44,-11.91,-0.4219,7.917,0,0,0,0,0,0,0,0,0,0,0,0,0,0,0,0,
232,37.81,29.78,63.17,52.02,68.55,47.62,37.27,54.02,20.42,18.34,27.52,20.28,39.77,7.651,-9.842,5.397,0,0,0,0,0,0,0,0,0,0,0,0,0,0,0,0,
233,29.71,60.91,50.58,56.77,30.21,60.04,63.95,59.87,14.39,32.63,18.69,12.27,65.82,37.05,-11.51,26.56,0,0,0,0,0,0,0,0,0,0,0,0,0,0,0,0,
234,8.65,61.12,37.56,41.88,17.47,46.17,56.64,51.55,3.272,22.34,-4.017,-3.941,63.59,40.76,-21.74,22.28,0,0,0,0,0,0,0,0,0,0,0,0,0,0,0,0,
235,-11.23,24.49,37.21,38.23,21.74,21.26,24.41,36.08,-19.83,6.671,-17.01,-10.74,51.49,28.03,-15.46,20.2,0,0,0,0,0,0,0,0,0,0,0,0,0,0,0,0,
236,-15.78,-7.711,13.01,9.382,5.672,8.398,-1.882,7.59,-33.77,-1.587,-7.167,0.9737,47.39,14.04,1.271,36.94,0,0,0,0,0,0,0,0,0,0,0,0,0,0,0,0,
237,11.51,-2.495,19.53,11.78,18.07,40.99,26.98,19.14,-6.79,5.259,19.89,34.6,45.89,7.474,12.62,47.54,0,0,0,0,0,0,0,0,0,0,0,0,0,0,0,0,
238,69.48,30.23,79.81,86.58,45.9,95.4,90.74,81.25,14.71,24.12,43.32,64.03,39.64,1.227,14.6,34.25,0,0,0,0,0,0,0,0,0,0,0,0,0,0,0,0,
239,95.37,44.48,112.4,132.4,30.87,104.7,109.6,109.6,-22.34,20.63,35.81,47.14,22.09,-22.99,-2.202,0.6251,0,0,0,0,0,0,0,0,0,0,0,0,0,0,0,0,
240,57.24,34.37,86.95,103.5,5.259,70.96,79.62,74.32,-49.82,-2.817,24,14.19,20.07,-35.36,-11.27,-9.418,0,0,0,0,0,0,0,0,0,0,0,0,0,0,0,0,
241,15.68,37.45,47,65.08,4.921,41.62,49.82,34.9,-26.38,-4.296,34.61,6.868,47.55,-8.132,5.541,17.63,0,0,0,0,0,0,0,0,0,0,0,0,0,0,0,0,
242,3.9,46.18,31.64,48.42,19.57,33.61,34.45,34.08,-4.456,13.32,43.99,11.59,65.99,22.05,20.49,33.46,0,0,0,0,0,0,0,0,0,0,0,0,0,0,0,0,
243,7.092,36.98,54.58,58.94,51.33,49.64,41.58,65.37,15.65,27.47,47.3,21.74,62.42,29.25,19.46,23.09,0,0,0,0,0,0,0,0,0,0,0,0,0,0,0,0,
244,26.4,27.97,82.95,93.21,79.31,75.53,65.68,89.77,45.98,31.62,52.4,33.75,54.44,21.44,10.33,14.44,0,0,0,0,0,0,0,0,0,0,0,0,0,0,0,0,
245,55.54,30.07,94.91,110.9,82.87,87.95,77.23,80.43,66.39,18.35,62.81,47.07,50.17,6.537,17.82,25.53,0,0,0,0,0,0,0,0,0,0,0,0,0,0,0,0,
246,80.55,36.27,106.4,101.3,87.95,88.61,74.16,61.94,77.06,6.247,80.62,69.15,57.69,3.766,45.28,45.82,0,0,0,0,0,0,0,0,0,0,0,0,0,0,0,0,
247,90.5,47.86,94.05,86,91.48,79.51,64.39,56.71,61.88,16.97,74.17,69.07,71.44,23.29,46.53,52.85,0,0,0,0,0,0,0,0,0,0,0,0,0,0,0,0,
248,78.65,60.84,55.55,64.68,76.78,66.39,50.06,55.47,40.01,36.46,50.46,47.54,90.61,50.76,27.55,55.65,0,0,0,0,0,0,0,0,0,0,0,0,0,0,0,0,
249,59.17,72.69,49.66,56.48,68.08,64.92,50.96,64.13,58.96,57.99,55.65,45.97,122.1,73.95,33.79,67.96,0,0,0,0,0,0,0,0,0,0,0,0,0,0,0,0,
250,33.77,85.21,70.81,82.34,63.82,63.62,66.56,84.63,64.31,74.6,61.6,43.85,135.3,87.01,47.8,78.05,0,0,0,0,0,0,0,0,0,0,0,0,0,0,0,0,
251,6.532,84.48,68.61,94.45,46.54,56.22,69.53,80.8,24.79,58.81,43.34,31.03,114.3,87.11,51.81,82.39,0,0,0,0,0,0,0,0,0,0,0,0,0,0,0,0,
252,16.09,61.49,52.14,60.16,33.45,61.42,61.19,43.72,18.23,26.71,42.2,49.06,95.09,78.75,59.86,78.89,0,0,0,0,0,0,0,0,0,0,0,0,0,0,0,0,
253,64.88,41.62,55.04,35.7,38.79,86.23,71.54,25.54,46.7,24.51,61.25,86.9,90.17,71.62,64.42,61.89,0,0,0,0,0,0,0,0,0,0,0,0,0,0,0,0,
254,114.4,49.62,80.1,56.67,64.95,121.9,100.9,49.03,50.04,42.79,71.47,103.6,74.01,63.32,54.97,39.08,0,0,0,0,0,0,0,0,0,0,0,0,0,0,0,0,
255,134.2,56.96,95.99,80.72,85.26,128,101.6,65.94,43.77,43,67.14,91.08,42.38,38.99,33.89,15.4,0,0,0,0,0,0,0,0,0,0,0,0,0,0,0,0,
256,101.1,34.61,77.17,72.89,54.6,77.98,59.47,49.09,46.98,28.32,47.68,61.88,22.96,11.63,11.48,-5.266,0,0,0,0,0,0,0,0,0,0,0,0,0,0,0,0,
257,44.03,21.76,45.21,40.46,7.975,30.25,26.32,30.69,35.22,19.76,23.86,39.89,22.56,3.055,-0.2121,-14.82,0,0,0,0,0,0,0,0,0,0,0,0,0,0,0,0,
258,20.79,39.24,28.09,8.769,4.709,25.99,22.29,30.45,21.56,16.59,15,33.04,15.87,-0.6005,-4.4,-16.7,0,0,0,0,0,0,0,0,0,0,0,0,0,0,0,0,
259,26.94,44.06,24.29,3.791,20.21,34.7,26.74,35.61,27.09,18.22,18.7,27.8,5.497,-4.67,-6.269,-20.1,0,0,0,0,0,0,0,0,0,0,0,0,0,0,0,0,
260,36.83,34.53,29.74,16.27,26.44,48.72,40.15,40.11,19.47,27.89,15.73,19.55,8.328,1.253,-9.484,-18.36,0,0,0,0,0,0,0,0,0,0,0,0,0,0,0,0,
261,45.72,35.77,40.31,21.4,28.67,58.57,47.93,46.74,1.69,31.62,3.215,11.9,7.486,1.689,-16.68,0.4882,0,0,0,0,0,0,0,0,0,0,0,0,0,0,0,0,
262,40.73,26.74,36.71,21.8,15.9,30.57,22.62,44.59,9.93,20.9,-7.443,2.69,-4.909,-10.15,-20.23,15.98,0,0,0,0,0,0,0,0,0,0,0,0,0,0,0,0,
263,19.06,4.685,8.339,4.413,-8.36,-13.93,-19.37,15.92,7.218,7.977,-22.75,-14.47,-9.768,-16.14,-23.3,9.733,0,0,0,0,0,0,0,0,0,0,0,0,0,0,0,0,
264,-10.33,0.5095,-22.24,-37.73,-22.99,-35.44,-43.09,-18.63,-18.23,6.062,-38.63,-27.13,7.378,-5.28,-27.75,7.758,0,0,0,0,0,0,0,0,0,0,0,0,0,0,0,0,
265,-34.21,19.85,-22.47,-41.83,-19.41,-32.01,-30.83,-10.67,-14.95,17.04,-29.54,-15.84,41.3,17.91,-19.58,14.98,0,0,0,0,0,0,0,0,0,0,0,0,0,0,0,0,
266,-30.8,45.33,6.43,6.136,-2.692,-10.06,2.441,23.15,-13.54,23.19,-11.4,-3.222,51.69,28.16,-7.114,8.947,0,0,0,0,0,0,0,0,0,0,0,0,0,0,0,0,
267,-13.53,43.37,23.36,26.17,-1.439,7.158,13.68,21.93,-38.23,12.72,-8.426,-11.08,21.43,16.49,-2.924,4.7,0,0,0,0,0,0,0,0,0,0,0,0,0,0,0,0,
268,-6.463,8.642,7.727,12.66,-21.19,0.4777,-0.2319,-1.386,-24.69,9.972,1.621,-7.968,5.589,17.71,7.907,19.7,0,0,0,0,0,0,0,0,0,0,0,0,0,0,0,0,
269,6.826,-4.92,-7.813,9.131,-26.43,-11.84,-9.842,-4.8,9.727,23.04,17.72,16.48,23.28,35.64,20.31,33.08,0,0,0,0,0,0,0,0,0,0,0,0,0,0,0,0,
270,20.59,8.449,-11.48,-10.21,-22.05,-27.1,-26.25,-5.033,6.152,23.14,10.46,23.87,24.69,33.14,6.405,22.87,0,0,0,0,0,0,0,0,0,0,0,0,0,0,0,0,
271,10.95,2.558,-17.19,-27.81,-24.05,-44.53,-46.21,-5.278,2.97,13.87,-0.959,11.57,15.69,21.33,-16.5,6.082,0,0,0,0,0,0,0,0,0,0,0,0,0,0,0,0,
272,1.774,0.0108,3.8,10.95,-4.233,-29.52,-27.84,16.01,18.74,16.37,9.045,5.427,27.49,28.12,-12.66,4.223,0,0,0,0,0,0,0,0,0,0,0,0,0,0,0,0,
273,-7.017,13.49,46.02,48.67,20.78,-3.041,-1.759,26.48,13.11,8.51,7.714,-12.6,13.69,23.62,-7.586,-12.32,0,0,0,0,0,0,0,0,0,0,0,0,0,0,0,0,
274,-48.27,-16.84,51.17,33.78,10.33,-17.01,-22.47,1.283,-12.02,-21.69,-25.26,-51.42,-37.82,-5.576,-24.53,-42.23,0,0,0,0,0,0,0,0,0,0,0,0,0,0,0,0,
275,-81.06,-70.15,31.62,14.86,-1.663,-34.59,-46.28,-22.95,-40.63,-38.84,-47.79,-64.02,-54.3,-14.21,-22.76,-31.43,0,0,0,0,0,0,0,0,0,0,0,0,0,0,0,0,
276,-62.41,-77.17,20.27,3.528,3.529,-24.39,-41.48,-25.02,-62.73,-31.69,-38.7,-42.03,-42.02,-1.108,-1.874,-14.42,0,0,0,0,0,0,0,0,0,0,0,0,0,0,0,0,
277,-37.04,-76.34,3.727,-16.95,-7.921,-33.24,-55.64,-22.52,-50.26,-28.58,-24.09,-24.07,-58.21,-10.09,-5.129,-38.42,0,0,0,0,0,0,0,0,0,0,0,0,0,0,0,0,
278,-30.53,-103.9,-6.703,-25.07,-22.3,-62.2,-87.95,-35.56,-19.43,-38.17,-12.31,-13.87,-69.99,-29.33,-12.48,-42.1,0,0,0,0,0,0,0,0,0,0,0,0,0,0,0,0,
279,-30.17,-112.5,-11.2,-28.73,-31.49,-81.76,-104.9,-59.45,-26.97,-48.82,-12.89,-20.99,-60.77,-32.12,-8.669,-21.2,0,0,0,0,0,0,0,0,0,0,0,0,0,0,0,0,
280,-61.1,-102.3,-39.32,-42.23,-70.33,-108.4,-118.2,-55.15,-72.4,-52.98,-44.6,-61.42,-73.28,-34.45,-28.27,-41.02,0,0,0,0,0,0,0,0,0,0,0,0,0,0,0,0,
281,-107,-97.66,-59.17,-33.67,-98.65,-117.3,-111,-10.1,-94.6,-39.81,-69.7,-80.79,-74.5,-26.75,-47.6,-58.65,0,0,0,0,0,0,0,0,0,0,0,0,0,0,0,0,
282,-94.37,-66.66,-27.62,5.677,-61.07,-68.7,-57.67,32.92,-64.9,-11.59,-54.53,-50.3,-34.4,7.811,-33.76,-29.53,0,0,0,0,0,0,0,0,0,0,0,0,0,0,0,0,
283,-44.56,-27.56,17.76,32.3,-18.03,-21.87,-18.83,39.29,-37.76,5.631,-43.35,-35.17,-20.68,24.34,-31.79,-18.59,0,0,0,0,0,0,0,0,0,0,0,0,0,0,0,0,
284,-35.7,-40.34,20.9,17.46,-25.52,-34.23,-39.87,14.47,-54.04,3.776,-53.06,-47.67,-43.57,8.637,-43.52,-30.24,0,0,0,0,0,0,0,0,0,0,0,0,0,0,0,0,
285,-48.18,-66.15,-13.33,-10.19,-47.38,-67.24,-68.87,-7.567,-57.68,4.58,-42.58,-34.33,-38.47,12.35,-22.1,-7.456,0,0,0,0,0,0,0,0,0,0,0,0,0,0,0,0,
286,-43.57,-49.55,-48.17,-21.57,-64.57,-86.77,-71.31,-1.926,-28.04,18.62,-26.3,-17.65,-16.35,31.58,-7.654,6.799,0,0,0,0,0,0,0,0,0,0,0,0,0,0,0,0,
287,-55.14,-26.3,-63.81,-29.6,-81.46,-95.51,-68.19,14.9,-31.08,30.97,-39.3,-38.41,-17.49,29.12,-33.69,-23.82,0,0,0,0,0,0,0,0,0,0,0,0,0,0,0,0,
288,-79.54,-22.35,-48.48,-22.84,-70.19,-77.38,-55.36,22.78,-54.8,24.52,-46.91,-53.44,-26.93,23.48,-43.92,-37.44,0,0,0,0,0,0,0,0,0,0,0,0,0,0,0,0,
289,-68.91,-21.05,-3.689,15.02,-32.87,-32.42,-24.85,18.02,-38.6,5.585,-25.08,-32.65,-31.97,27.49,-27,-17.11,0,0,0,0,0,0,0,0,0,0,0,0,0,0,0,0,
290,-39.13,-24.43,33.72,34.5,-13.86,-5.217,-8.642,2.864,-21.73,-3.601,-12.41,-13.88,-34.49,23.36,-15.94,2.136,0,0,0,0,0,0,0,0,0,0,0,0,0,0,0,0,
291,-33.04,-26.96,26.53,13.48,-28.81,-21.39,-20.85,-5.309,-49.58,-2.391,-26.54,-18.71,-32.74,12.92,-6.423,8.962,0,0,0,0,0,0,0,0,0,0,0,0,0,0,0,0,
292,-41.77,-16.53,-10.91,1.206,-53.34,-46.52,-28.75,-0.6157,-65.84,-1.984,-32.3,-17.62,-28.17,9.821,4.991,2.642,0,0,0,0,0,0,0,0,0,0,0,0,0,0,0,0,
293,-27.54,2.242,-18.1,22.04,-49.22,-32.07,-5.858,14.1,-17.31,7.397,-3.247,14.52,-7.283,24.4,16.14,4.874,0,0,0,0,0,0,0,0,0,0,0,0,0,0,0,0,
294,7.885,28.33,20.25,54.24,-14.15,4.85,21.49,39.39,35.19,23.62,16.97,28.28,10.61,32.84,8.213,8.145,0,0,0,0,0,0,0,0,0,0,0,0,0,0,0,0,
295,1.75,34.87,41.08,57.88,-0.2293,5.463,10.27,37.59,12.9,24.75,-22.69,-24.28,-21.15,-4.096,-38.1,-22.57,0,0,0,0,0,0,0,0,0,0,0,0,0,0,0,0,
296,-50.59,0.7218,26.11,23.98,-20.04,-16.07,-13.9,-0.2193,-28.35,18.66,-64.27,-65.02,-61.38,-43.86,-61.35,-43.61,0,0,0,0,0,0,0,0,0,0,0,0,0,0,0,0,
297,-61.75,-26.81,15.37,3.496,-27.47,-12.5,-6.281,-11.04,-24.51,17.97,-48.36,-41.75,-60.33,-35.72,-32.99,-31.38,0,0,0,0,0,0,0,0,0,0,0,0,0,0,0,0,
298,-36.39,-33.48,-0.1646,10.51,-21.15,-12.56,-3.135,9.026,-40.62,8.602,-32.66,-35.47,-61.23,-23.43,-23.91,-36.44,0,0,0,0,0,0,0,0,0,0,0,0,0,0,0,0,
299,-44.53,-55.88,-25.24,11.74,-21.63,-32.96,-27.16,14.34,-75.39,-1.084,-41,-53.07,-71.41,-26.06,-33.65,-43.76,0,0,0,0,0,0,0,0,0,0,0,0,0,0,0,0,
300,-49.89,-66.76,-17.76,16.34,-6.249,-32.48,-34.17,10.92,-49.92,6.539,-30.71,-35.01,-57.95,-13.9,-22.3,-28.79,0,0,0,0,0,0,0,0,0,0,0,0,0,0,0,0,
301,-32.67,-43.86,7.331,22.16,12.57,-28.69,-31.92,1.782,-26.7,11.21,-27,-24.52,-44.23,-6.751,-23.09,-24.31,0,0,0,0,0,0,0,0,0,0,0,0,0,0,0,0,
302,-51.18,-25.96,-3.915,0.7453,-12.99,-51.63,-45.43,-14.59,-63.31,4.416,-50.23,-46.71,-37.1,-14.57,-38.72,-27.84,0,0,0,0,0,0,0,0,0,0,0,0,0,0,0,0,
303,-76.54,-11.51,-26.76,-13.35,-43.43,-49.87,-32.58,-4.401,-73.7,10.51,-47.83,-43.15,-16.91,-10.72,-27.91,-23.71,0,0,0,0,0,0,0,0,0,0,0,0,0,0,0,0,
304,-47.81,16.06,-4.057,14.83,-10.52,0.225,14.9,26.95,-29,28.3,-5.007,-5.835,-3.382,-9.134,3.117,-22.16,0,0,0,0,0,0,0,0,0,0,0,0,0,0,0,0,
305,5.821,27.25,35.31,45.2,44.06,42.1,40.48,38.95,14.31,31.08,30.51,22.06,-14.16,-35.26,17.22,-31.16,0,0,0,0,0,0,0,0,0,0,0,0,0,0,0,0,
306,33.77,5.361,32.86,39.87,49.23,34.74,18.25,26.34,21.31,11.26,28.82,14.56,-38.12,-67.42,6.315,-49.38,0,0,0,0,0,0,0,0,0,0,0,0,0,0,0,0,
307,10.59,-31.13,-0.1883,9.155,15.94,-11.65,-27.73,4.751,-13.83,-9.064,15.03,-10.34,-45.93,-61.56,8.546,-42.51,0,0,0,0,0,0,0,0,0,0,0,0,0,0,0,0,
308,-39.68,-49.17,-33.16,-21.18,-15.69,-55.61,-55.63,-7.392,-39.61,-5.409,17.47,-11.14,-19.16,-18,33.02,-1.755,0,0,0,0,0,0,0,0,0,0,0,0,0,0,0,0,
309,-51.56,-33.63,-55.33,-34.1,-27.65,-62.55,-49.22,-4.629,-30.22,7.871,13,-2.401,2.606,4.079,28.34,6.252,0,0,0,0,0,0,0,0,0,0,0,0,0,0,0,0,
310,-24.72,-14.43,-54.78,-30.97,-19.04,-42.32,-32,-5.379,-33.34,4.676,-6.558,-13.51,-3.938,-10.86,-6.064,-28.92,0,0,0,0,0,0,0,0,0,0,0,0,0,0,0,0,
311,0.3262,-4.115,-33.07,-21.55,0.9496,-14.01,-13.11,-9.899,-29.49,0.8869,-4.24,-13.42,2.407,-10.89,-18.99,-39.13,0,0,0,0,0,0,0,0,0,0,0,0,0,0,0,0,
312,21.67,12.53,-4.024,-10.75,21.84,9.831,5.677,-9.428,1.179,5.989,12.85,0.8704,15.78,1.063,-11.11,-24.91,0,0,0,0,0,0,0,0,0,0,0,0,0,0,0,0,
313,21.81,12.42,6.919,-5.251,20.19,1.785,-0.8064,-15.84,-3.477,-1.048,14.12,-3.169,2.115,-9.182,-4.253,-24.19,0,0,0,0,0,0,0,0,0,0,0,0,0,0,0,0,
314,-4.688,-7.82,-15.28,-8.736,-8.134,-25.82,-19.23,-19.62,-19.63,-5.51,17.81,-1.768,-1.763,-10.48,8.232,-19.29,0,0,0,0,0,0,0,0,0,0,0,0,0,0,0,0,
315,-7.372,-2.116,-30.08,-6.73,-16.38,-20.71,-7.726,-3.87,-0.6268,9.679,34.03,20.03,17.08,4.169,23.35,-12.02,0,0,0,0,0,0,0,0,0,0,0,0,0,0,0,0,
316,15.64,22.82,-11.07,9.768,4.895,13.88,20.81,7.178,-5.913,12.42,39.37,30.04,13.88,-8,27.74,-24.02,0,0,0,0,0,0,0,0,0,0,0,0,0,0,0,0,
317,27.22,31.28,8.438,18.37,8.546,37.14,35.62,-3.176,-33.37,-3.673,35.38,31.83,8.381,-19.38,25.69,-20.02,0,0,0,0,0,0,0,0,0,0,0,0,0,0,0,0,
318,30.45,36.44,4.199,3.763,-13.58,33.15,32.74,-18.63,-36.62,-11.55,27.99,32.12,32.58,7.221,19.38,6.93,0,0,0,0,0,0,0,0,0,0,0,0,0,0,0,0,
319,18.16,43.38,-25.34,-16.17,-39.94,1.59,10.72,-28.99,-54.08,-14.43,3.707,10.74,45.5,26.16,3.131,6.569,0,0,0,0,0,0,0,0,0,0,0,0,0,0,0,0,
320,-6.257,37.24,-52.5,-21.98,-50.74,-22.02,-5.859,-25.91,-69.49,-18.02,-14.87,-3.132,36.92,16.58,-10,-18.42,0,0,0,0,0,0,0,0,0,0,0,0,0,0,0,0,
321,3.271,32.81,-30.63,-4.129,-19.5,1.807,11.92,-8.482,-26.61,-18.06,4.099,21.76,39.09,5.942,-3.077,-29.69,0,0,0,0,0,0,0,0,0,0,0,0,0,0,0,0,
322,33.21,35.85,19.54,26.22,31,34.78,33.22,-2.147,24.99,-20.46,34.41,47.45,41.14,-9.242,18.62,-13.76,0,0,0,0,0,0,0,0,0,0,0,0,0,0,0,0,
323,36.76,31.15,37.13,33.79,46.05,32.71,29.76,-15.41,45.67,-11.93,46.41,46.5,35.29,-22.25,37.01,18.97,0,0,0,0,0,0,0,0,0,0,0,0,0,0,0,0,
324,24.21,27.09,11.7,12.39,21.42,12.01,18.16,-26.75,41.85,9.975,38.51,27.94,36.36,-12.91,34.02,31.35,0,0,0,0,0,0,0,0,0,0,0,0,0,0,0,0,
325,0.8548,30.99,-29.91,-12.99,-21.05,-16.13,0.4413,-28.12,-3.374,7.804,9.815,-2.134,33.99,-1.748,12.74,13.46,0,0,0,0,0,0,0,0,0,0,0,0,0,0,0,0,
326,-30.11,29.25,-52.23,-24.88,-53.41,-37.98,-17.3,-23.26,-34.8,-16.05,-7.807,-17.99,25.82,1.347,-2.296,-4.48,0,0,0,0,0,0,0,0,0,0,0,0,0,0,0,0,
327,-28.1,19.78,-36.65,-9.305,-42.9,-25.52,-11.74,-14.11,-4.525,-24.21,9.227,-4.394,20.45,5.227,-6.743,-17.19,0,0,0,0,0,0,0,0,0,0,0,0,0,0,0,0,
328,-6.309,7.314,-12.65,12.88,-13.61,-5.158,-3.467,-11.92,11.34,-26.48,19.02,6.777,7.005,-5.304,-12.14,-25.73,0,0,0,0,0,0,0,0,0,0,0,0,0,0,0,0,
329,-11.88,-3.839,-11.01,0.8785,-8.032,-9.084,-13.3,-17.82,1.932,-31.41,9.131,4.414,-2.316,-15.34,-10.85,-14.18,0,0,0,0,0,0,0,0,0,0,0,0,0,0,0,0,
330,-23.79,1.11,-18.04,-19.01,-11.82,-13.3,-12.66,-13.36,14.01,-13.72,7.853,7.635,11.79,5.254,2.767,11.32,0,0,0,0,0,0,0,0,0,0,0,0,0,0,0,0,
331,-16.82,19.39,-20.5,-9.491,-11.7,-8.789,3.044,2.755,1.722,8.39,-2.124,7.577,20.86,22.16,10.14,24.08,0,0,0,0,0,0,0,0,0,0,0,0,0,0,0,0,
332,-6.363,31.2,-19.08,5.825,-7.079,-3.339,11.42,11.98,-13.69,3.019,-20.3,0.997,12.13,14.07,6.602,20.32,0,0,0,0,0,0,0,0,0,0,0,0,0,0,0,0,
333,11.06,36.95,3.064,11.72,27.66,17.92,17.45,6.4,42.11,-7.64,-0.1792,15.27,15.7,19.35,14.44,23.79,0,0,0,0,0,0,0,0,0,0,0,0,0,0,0,0,
334,37.23,35.91,30.9,10.58,68.42,34.74,16.86,-9.143,96.66,-8.275,43.93,41.87,22.32,31.12,26.37,24.17,0,0,0,0,0,0,0,0,0,0,0,0,0,0,0,0,
335,47.53,21.44,19.19,-1.792,53.7,16.93,2.349,-14.78,81.39,-9.143,57.84,44.61,9.183,18.62,19.39,-4.11,0,0,0,0,0,0,0,0,0,0,0,0,0,0,0,0,
336,34.57,17.01,-13.09,-3.118,7.588,-2.575,4.303,11.04,42.97,-1.405,39.9,29.24,1.955,5.985,14.25,-27.07,0,0,0,0,0,0,0,0,0,0,0,0,0,0,0,0,
337,9.605,29.52,-28.42,14.2,-10.4,-2.635,21.22,42.95,6.74,10.87,12.83,12.85,4.567,3.855,16.02,-25.97,0,0,0,0,0,0,0,0,0,0,0,0,0,0,0,0,
338,-10.91,24.85,-30.44,19.92,-2.424,-2.035,17.31,39.82,-10.19,10.37,-6.877,-2.278,-9.918,-3.303,1.453,-28.8,0,0,0,0,0,0,0,0,0,0,0,0,0,0,0,0,
339,-2.246,6.186,-7.338,13.09,19.61,11.91,11.3,16.19,19.76,4.725,5.031,6.549,-26.13,-1.737,0.9633,-22.15,0,0,0,0,0,0,0,0,0,0,0,0,0,0,0,0,
340,30.12,1.435,25.83,9.514,44.34,32.41,17.29,-2.875,53.84,-3.55,35.93,35.76,-26.59,9.009,27.18,1.916,0,0,0,0,0,0,0,0,0,0,0,0,0,0,0,0,
341,46.61,0.7581,13.97,-0.1284,32.25,18.64,2.532,-20.63,49.47,-15.07,36.97,41.91,-20.28,13.24,29.05,14.98,0,0,0,0,0,0,0,0,0,0,0,0,0,0,0,0,
342,42.05,3.404,-24.09,-11.21,-6.766,-3.07,-11.58,-21.11,36.51,-11,14.62,31.58,1.217,21.43,11.48,25.08,0,0,0,0,0,0,0,0,0,0,0,0,0,0,0,0,
343,42.87,26.19,-34.19,-5.715,-13.97,4.003,7.881,-0.2636,34.14,6.322,12.71,33.87,32.64,36,12.19,39.66,0,0,0,0,0,0,0,0,0,0,0,0,0,0,0,0,
344,39.06,45.08,-19.94,0.9383,11.1,7.206,15.23,0.3227,23.67,13.16,22.8,30.05,38.77,39.57,13.02,34.89,0,0,0,0,0,0,0,0,0,0,0,0,0,0,0,0,
345,8.57,30.5,0.2324,-8.465,28.12,-6.601,-11.62,-24.61,16.44,2.469,22.14,10.84,13.63,25,8.888,16,0,0,0,0,0,0,0,0,0,0,0,0,0,0,0,0,
346,-22.83,-1.651,10.99,-19.06,18.72,-20.8,-34.89,-38.92,33.51,-14.07,21.07,-4.86,-14.52,7.02,18.65,6.527,0,0,0,0,0,0,0,0,0,0,0,0,0,0,0,0,
347,-30.43,-25.67,-12.49,-31.19,-19.77,-47.47,-51.97,-41.08,35.97,-18.82,9.738,-24.24,-30.42,6.104,13.22,-1.846,0,0,0,0,0,0,0,0,0,0,0,0,0,0,0,0,
348,-40.76,-38.57,-58.35,-52.23,-60.3,-75.6,-69.66,-39.46,-8.257,-12.36,-28.73,-52.33,-41.3,7.306,-22.39,-24.74,0,0,0,0,0,0,0,0,0,0,0,0,0,0,0,0,
349,-59.25,-37.82,-73.53,-50.18,-62.78,-63.97,-58.42,-28.06,-37.07,-9.036,-51.21,-52.18,-43.25,-5.527,-32.79,-39.49,0,0,0,0,0,0,0,0,0,0,0,0,0,0,0,0,
350,-40.5,-12.89,-32.1,-18.21,-23.34,-16.59,-19.47,-24.26,-3.69,-12.14,-22.65,-8.434,-26.19,-7.624,2,-19.7,0,0,0,0,0,0,0,0,0,0,0,0,0,0,0,0,
351,7.789,17.51,25.3,-2.349,24.23,17.14,2.279,-38.59,26.83,-21.41,9.585,29.97,-6.631,3.469,28.85,14.14,0,0,0,0,0,0,0,0,0,0,0,0,0,0,0,0,
352,18.62,20.08,25.31,-21.34,13.7,0.6771,-12.94,-48.33,4.9,-24.34,4.447,24.9,1.912,11.44,23.72,25.3,0,0,0,0,0,0,0,0,0,0,0,0,0,0,0,0,
353,-14.76,5.691,-45.93,-59.82,-65.02,-47.08,-43.72,-46.64,-21.48,-11.56,-17.99,-4.374,3.135,27.98,3.458,6.062,0,0,0,0,0,0,0,0,0,0,0,0,0,0,0,0,
354,-42.11,0.5568,-89.82,-79.88,-94.1,-64.84,-56.2,-38.74,-11.67,-8.071,-34.47,-25.28,-4.198,43.92,-19.33,-15.98,0,0,0,0,0,0,0,0,0,0,0,0,0,0,0,0,
355,-37.46,4.933,-33.16,-34.55,-19.83,-25.96,-31.87,-19.12,16.92,-14.5,-33.37,-20.91,-6.665,37.3,-26.2,-16.85,0,0,0,0,0,0,0,0,0,0,0,0,0,0,0,0,
356,-6.725,15.67,39.29,27.31,45.28,24.46,2.982,-7.327,35.48,-4.811,-20.66,-3.756,0.5948,21.84,-16.07,-12.29,0,0,0,0,0,0,0,0,0,0,0,0,0,0,0,0,
357,15.02,20.91,38.91,14.87,36.4,31.57,5.027,-25.85,27.89,0.6243,-23.59,-4.689,-5.41,10.89,-8.071,-9.472,0,0,0,0,0,0,0,0,0,0,0,0,0,0,0,0,
358,-5.315,5.661,-0.1411,-34.52,-0.808,-5.302,-21.83,-49.31,2.89,-15.72,-40.18,-22.84,-17.39,1.252,-1.088,3.229,0,0,0,0,0,0,0,0,0,0,0,0,0,0,0,0,
359,-41.16,-15.77,-35.6,-46.86,-36.2,-45.02,-44.12,-49.74,-24.23,-29.08,-50.35,-34.21,-15.6,-4.725,5.797,6.69,0,0,0,0,0,0,0,0,0,0,0,0,0,0,0,0,
360,-47.32,-23.74,-55.47,-36.51,-53.3,-51.82,-47.74,-38.46,-47.05,-31.58,-46.52,-23.2,-7.834,-0.1342,12.12,-1.145,0,0,0,0,0,0,0,0,0,0,0,0,0,0,0,0,
361,-17.42,-12.88,-37.91,-21.99,-28.65,-19.32,-31.4,-35.08,-29.82,-29.35,-11.23,15.27,6.059,15.83,33.71,11.74,0,0,0,0,0,0,0,0,0,0,0,0,0,0,0,0,
362,26.53,9.368,4.925,-6.854,22.62,22.56,-9.271,-46.35,28.21,-23.06,35.79,44.23,18.77,24.81,53.11,27.96,0,0,0,0,0,0,0,0,0,0,0,0,0,0,0,0,
363,36.44,14.51,21.05,-12.28,39.03,23.71,-12.19,-61.25,30.09,-18.23,27.3,11.86,3.991,10.86,30.38,7.831,0,0,0,0,0,0,0,0,0,0,0,0,0,0,0,0,
364,-15.98,-8.54,-15.71,-27.59,-18.21,-23.43,-37.71,-52.17,-43.75,-7.993,-35.27,-56.71,-27.54,-9.289,-20.84,-24.82,0,0,0,0,0,0,0,0,0,0,0,0,0,0,0,0,
365,-73.37,-31.15,-59.25,-24.38,-83.51,-57.98,-44.69,-14.52,-85.81,14.06,-81.94,-88.74,-40.01,-14.94,-50.78,-32.46,0,0,0,0,0,0,0,0,0,0,0,0,0,0,0,0,
366,-66.94,-29.34,-52.02,-1.801,-73.25,-34.01,-18.09,11.78,-74.88,30.06,-80.8,-61.5,-25.73,-8.169,-37.3,-25.87,0,0,0,0,0,0,0,0,0,0,0,0,0,0,0,0,
367,-12.92,-5.454,-16.28,21.41,-20.44,16.62,12.46,-0.3136,-55.65,26.6,-39.49,-4.238,1.461,3.709,8.267,-8.292,0,0,0,0,0,0,0,0,0,0,0,0,0,0,0,0,
368,31.79,21.6,6.633,17.57,6.089,39.24,20.29,-23.88,-16.68,15.17,16.98,43.74,27.42,17.61,55.77,28.41,0,0,0,0,0,0,0,0,0,0,0,0,0,0,0,0,
369,38.81,37.29,11.85,-9.566,-5.937,20.89,10.15,-32,11.15,12.89,42.67,55.68,42.36,29.82,72.22,48.25,0,0,0,0,0,0,0,0,0,0,0,0,0,0,0,0,
370,15.56,48.05,-14.01,-21.53,-47.86,-10.94,0.6214,-31.85,-11.78,19.49,27.85,35.98,45.11,38.72,55.34,34.17,0,0,0,0,0,0,0,0,0,0,0,0,0,0,0,0,
371,-8.921,51.91,-51,-11.42,-79.95,-20.69,1.242,-26.97,-33.18,24.15,9.108,10.89,36.79,43.41,32.77,18.66,0,0,0,0,0,0,0,0,0,0,0,0,0,0,0,0,
372,-7.903,33.67,-38.55,5.085,-49.58,3.103,10.87,-19.27,-24.95,24.06,4.597,0.9294,17.25,38.24,24.8,8.704,0,0,0,0,0,0,0,0,0,0,0,0,0,0,0,0,
373,18.46,4.933,13.17,22.41,17.89,38.16,22.79,-25.31,-1.257,15.73,12.56,10.05,0.47,25.74,32.39,0.0179,0,0,0,0,0,0,0,0,0,0,0,0,0,0,0,0,
374,37.34,-11.1,32.84,22.54,41.35,44.97,22.78,-40.25,30.84,1.056,22.9,21.53,5.429,24.85,41.79,3.107,0,0,0,0,0,0,0,0,0,0,0,0,0,0,0,0,
375,22.83,-7.747,-0.1585,-4.939,-7.353,8.37,2.75,-42.58,17.76,-0.2197,12.47,20.48,27.57,40.96,42.57,10.96,0,0,0,0,0,0,0,0,0,0,0,0,0,0,0,0,
376,2.075,16.95,-42.6,-39.31,-71.16,-30.97,-16.79,-37.3,-36.86,11.99,-5.326,21.34,49.16,49.36,45.77,12.66,0,0,0,0,0,0,0,0,0,0,0,0,0,0,0,0,
377,12.07,47.64,-51.95,-53.49,-77.96,-24.41,-8.547,-38.14,-40.83,13.89,8.402,36.18,56.28,32.84,57.43,8.993,0,0,0,0,0,0,0,0,0,0,0,0,0,0,0,0,
378,43.64,51.95,-17.96,-33.77,-25.27,19.8,19.77,-40.98,-6.012,-0.2492,41.3,51.56,39.78,4.672,63.88,7.033,0,0,0,0,0,0,0,0,0,0,0,0,0,0,0,0,
379,69.38,26.39,32.32,-1.812,25.23,53.78,34.96,-40.83,2.219,-20.17,47.82,49.14,9.027,-18.9,50.84,4.721,0,0,0,0,0,0,0,0,0,0,0,0,0,0,0,0,
380,67.92,-2.279,46.94,7.844,29.32,43.5,21.08,-34.29,2.195,-22.6,15.85,19.61,-11.7,-23.6,17.68,-10.47,0,0,0,0,0,0,0,0,0,0,0,0,0,0,0,0,
381,36.11,-14.78,13.26,-3.314,2.036,-0.1036,-5.744,-17.94,3.867,6.82,-18.57,-14.53,-11.46,2.001,-9.22,-23.65,0,0,0,0,0,0,0,0,0,0,0,0,0,0,0,0,
382,7.289,-10.08,-28.86,-25.79,-20.63,-33.47,-22.13,-10.17,-3.724,23.34,-15.8,-16.64,0.3129,30.1,-4.978,-19.94,0,0,0,0,0,0,0,0,0,0,0,0,0,0,0,0,
383,10.29,4.071,-38.89,-46.03,-14.28,-25.9,-16.7,-25.03,7.385,0.5923,16.3,9.869,16.54,33.68,23.2,-7.008,0,0,0,0,0,0,0,0,0,0,0,0,0,0,0,0,
384,39.78,22.92,4.712,-31.29,28.51,13.86,8.325,-35.38,40.15,-11.03,46,38.3,31.87,32.56,52.78,13.74,0,0,0,0,0,0,0,0,0,0,0,0,0,0,0,0,
385,66.15,31.49,51.41,-6.288,60.65,35.59,21.05,-27.12,43.39,-6.096,47.04,40.13,19.76,20.7,49.45,10.27,0,0,0,0,0,0,0,0,0,0,0,0,0,0,0,0,
386,40.77,3.748,17.22,-22.2,20.87,-2.408,-9.504,-22.94,-13.76,-21.63,5.209,-1.935,-20.6,-15.63,8.125,-32.17,0,0,0,0,0,0,0,0,0,0,0,0,0,0,0,0,
387,-31.47,-42.66,-49.91,-43.24,-42.97,-59.24,-48.65,-21.29,-69.94,-30.79,-42.01,-46.76,-39.91,-31.04,-23.24,-54.88,0,0,0,0,0,0,0,0,0,0,0,0,0,0,0,0,
388,-69.35,-59.01,-53.57,-30.23,-42.43,-67.34,-48.7,-12.35,-49.42,-20.81,-48.41,-48.14,-31.46,-21.82,-30.87,-52.47,0,0,0,0,0,0,0,0,0,0,0,0,0,0,0,0,
389,-43.93,-43.77,-19.57,-15.68,-1.863,-33.93,-24.55,-11.94,1.759,-21.5,-30.3,-23.3,-23.01,-25.12,-32.03,-60.09,0,0,0,0,0,0,0,0,0,0,0,0,0,0,0,0,
390,-2.399,-16.6,4.533,-8.723,17.54,-0.0634,0.8621,-12.6,17.02,-14.86,-10.41,5.011,1.279,-10.88,-14.67,-47.58,0,0,0,0,0,0,0,0,0,0,0,0,0,0,0,0,
391,26.5,19,11.47,5.843,9.422,14.06,23.82,3.059,10.19,7.82,3.591,19.5,27.62,24.9,3.611,-20.64,0,0,0,0,0,0,0,0,0,0,0,0,0,0,0,0,
392,21.31,29.23,-18.24,6.864,-27.78,-8.085,18.23,12.35,-30.07,8.956,-10.61,-9.773,4.178,24.52,-9.689,-30.78,0,0,0,0,0,0,0,0,0,0,0,0,0,0,0,0,
393,-29.37,-11.92,-59.93,-15.23,-67.81,-51.97,-22.09,-1.549,-87.52,-9.518,-33.16,-54.17,-41.42,-3.099,-23.61,-52.35,0,0,0,0,0,0,0,0,0,0,0,0,0,0,0,0,
394,-65.97,-55.26,-57.73,-32.37,-53.67,-65.25,-50.08,-21.45,-66.65,-21.9,-18.84,-51.09,-52.09,-19.91,-9.627,-46.74,0,0,0,0,0,0,0,0,0,0,0,0,0,0,0,0,
395,-39.05,-57.95,-23.03,-28.27,-7.682,-39.81,-41.96,-36.77,4.778,-26.52,8.632,-17.3,-42.11,-36.47,1.869,-45.27,0,0,0,0,0,0,0,0,0,0,0,0,0,0,0,0,
396,2.033,-45.15,-0.8502,-18.3,3.358,-19.67,-23.91,-40.52,11.82,-19.21,0.7211,-11.49,-35.65,-49.92,-12.44,-61.77,0,0,0,0,0,0,0,0,0,0,0,0,0,0,0,0,
397,6.43,-29.69,2.326,-10.51,-14.26,-12.96,-3.502,-14.25,-25.24,3.698,-34.06,-29.82,-18.23,-36.42,-34.81,-58.36,0,0,0,0,0,0,0,0,0,0,0,0,0,0,0,0,
398,-1.516,7.906,6.557,17.18,-19.84,8.973,34.25,33.33,-35.77,28.63,-56.15,-31.8,9.117,-8.42,-42.2,-33.43,0,0,0,0,0,0,0,0,0,0,0,0,0,0,0,0,
399,8.331,40.84,25.64,57.43,1.04,41.81,64.62,57.91,-17.54,35.78,-36.61,-7.444,15.97,-0.4625,-23.85,-18.63,0,0,0,0,0,0,0,0,0,0,0,0,0,0,0,0,
400,29.52,19.03,48.75,55.96,44.11,57.94,49.53,36.45,17.81,15.45,19.85,28.23,-3.953,-14.03,14.24,-10.36,0,0,0,0,0,0,0,0,0,0,0,0,0,0,0,0,
401,50.24,-35.23,51.47,8.764,77.42,49.76,8.705,-6.614,46.67,-13.95,62.83,49.76,-22.62,-18,36.45,1.034,0,0,0,0,0,0,0,0,0,0,0,0,0,0,0,0,
402,54.32,-61.79,26.81,-30.03,60.24,15.79,-22.91,-35.49,37.77,-26.15,45.65,25.62,-28.49,-8.462,14.69,2.917,0,0,0,0,0,0,0,0,0,0,0,0,0,0,0,0,
403,14.76,-59.28,-16.34,-43.66,-7.542,-41.03,-49.16,-36.43,-9.838,-21,-17.93,-38.34,-33.15,-9.407,-25.13,-9.038,0,0,0,0,0,0,0,0,0,0,0,0,0,0,0,0,
404,-50.99,-52.62,-52.27,-44.9,-72.16,-78.4,-60.73,-22.84,-69.25,-11.63,-65.35,-79.85,-32.62,-17.67,-36.07,-22.41,0,0,0,0,0,0,0,0,0,0,0,0,0,0,0,0,
405,-68.2,-33.01,-40.55,-28.4,-67.26,-50.99,-35.2,-18.25,-77.25,-10.31,-46.28,-54.69,-17.58,-20.07,-5.711,-15.43,0,0,0,0,0,0,0,0,0,0,0,0,0,0,0,0,
406,-17.12,-2.684,5.87,-3.373,-3.012,10.74,-0.6973,-26.99,-9.233,-20.94,10.5,-2.937,-1.067,-22.52,26.93,11.11,0,0,0,0,0,0,0,0,0,0,0,0,0,0,0,0,
407,28.08,3.505,27,1.536,35.32,33.46,2.293,-33.34,38.95,-27.07,24.59,10.25,1.673,-21.81,15.91,23.84,0,0,0,0,0,0,0,0,0,0,0,0,0,0,0,0,
408,21.2,-23.27,10.28,-13.63,11.95,0.6446,-20.54,-28.14,5.623,-20.66,-13.05,-16.34,-7.173,-15.1,-21.55,10.84,0,0,0,0,0,0,0,0,0,0,0,0,0,0,0,0,
409,-11.33,-48.35,-24.34,-23.26,-32.07,-43.04,-44.37,-17.72,-31.29,-13.39,-37.34,-42.52,-21.25,-20.79,-38.86,-8.184,0,0,0,0,0,0,0,0,0,0,0,0,0,0,0,0,
410,-40.99,-50.71,-55.37,-22.74,-55.88,-61.37,-58.17,-18.39,-22.15,-11.32,-26.26,-47.55,-36.93,-41.96,-32.7,-16.8,0,0,0,0,0,0,0,0,0,0,0,0,0,0,0,0,
411,-51.35,-50.71,-46.52,-26.79,-44.83,-52.08,-59.62,-34.97,-3.658,-22.07,-4.608,-32.27,-42.83,-53.82,-18.34,-15.24,0,0,0,0,0,0,0,0,0,0,0,0,0,0,0,0,
412,-35.27,-52.48,-10.66,-28.63,-22.26,-27.6,-41.75,-40.6,0.2683,-39.26,11.31,-16.05,-28.92,-40.1,-4.934,-13.11,0,0,0,0,0,0,0,0,0,0,0,0,0,0,0,0,
413,-22.27,-36.11,-5.669,-19.73,-30.44,-13.98,-17.36,-24.87,-27.07,-32.96,1.371,-26.83,-15.54,-15.89,-7.556,-12.99,0,0,0,0,0,0,0,0,0,0,0,0,0,0,0,0,
414,-35.64,-30.19,-25.93,-15.53,-44.3,-27.26,-20.74,-14.93,-60.38,-13.1,-30.5,-50.86,-31.51,-11.71,-24.9,-20.52,0,0,0,0,0,0,0,0,0,0,0,0,0,0,0,0,
415,-40.55,-64.23,-18.27,-9.207,-11.31,-35.04,-39.4,-9.212,-26.34,-14.52,-39.59,-48.34,-60.52,-30.04,-36.34,-35.47,0,0,0,0,0,0,0,0,0,0,0,0,0,0,0,0,
416,-17.64,-92.77,10.73,7.558,25.74,-21.35,-42.45,-1.594,26.72,-26.47,-20.82,-28.8,-68.57,-40.37,-32.09,-32.49,0,0,0,0,0,0,0,0,0,0,0,0,0,0,0,0,
417,-5.226,-80.81,14.18,2.554,15.31,-19.62,-44.1,-18.27,13.78,-27.67,-5.016,-18.41,-55.46,-28.71,-17.62,-11.09,0,0,0,0,0,0,0,0,0,0,0,0,0,0,0,0,
418,-1.448,-47.81,8.074,-13.62,-0.8842,-18.17,-34.08,-31,3.514,-21.5,3.197,-6.093,-33.06,-11.63,-8.581,1.402,0,0,0,0,0,0,0,0,0,0,0,0,0,0,0,0,
419,20.76,-10.89,19.46,2.674,-7.282,3.73,2.931,-1.454,9.371,-15.54,-8.627,-1.852,-11.83,-6.033,-20.73,1.382,0,0,0,0,0,0,0,0,0,0,0,0,0,0,0,0,
420,24.15,9.413,13.94,24.24,-23.94,5.625,16.03,17.18,-38.86,-14.65,-38.01,-21,-8.615,-12.95,-37.8,-5.883,0,0,0,0,0,0,0,0,0,0,0,0,0,0,0,0,
421,4.229,-1.474,6.445,23.1,-4.316,-4.25,-3.978,-3.106,-42.37,-11.09,-23.92,-17.01,-19.32,-19.55,-24.09,-12.28,0,0,0,0,0,0,0,0,0,0,0,0,0,0,0,0,
422,18.18,-21.12,40.64,22.06,60.39,19.02,-8.959,-17.67,48.25,-2.705,37.65,23.11,-22,-15.1,11.66,-3.772,0,0,0,0,0,0,0,0,0,0,0,0,0,0,0,0,
423,50.68,-28.75,69.39,16.96,92.8,40.78,-4.013,-17.3,78.61,-4.643,63.73,37.95,-14.98,-5.238,22.2,6.815,0,0,0,0,0,0,0,0,0,0,0,0,0,0,0,0,
424,53.54,-24.25,60.05,7.014,66.41,25.94,-3.724,-6.47,25.73,-9.122,26.16,11.36,-14.04,0.0085,-6.968,-1.445,0,0,0,0,0,0,0,0,0,0,0,0,0,0,0,0,
425,32.24,-13.72,38.7,19.91,14.26,3.333,7.073,18.92,-19.11,-2.414,-24.99,-19.49,-18.41,4.862,-39.63,-17.13,0,0,0,0,0,0,0,0,0,0,0,0,0,0,0,0,
426,9.29,-2.785,16.19,39.55,-22.83,2.687,23.72,26.39,-53.64,3.988,-41.61,-24.72,-4.163,21.54,-34.17,-11.31,0,0,0,0,0,0,0,0,0,0,0,0,0,0,0,0,
427,18.38,16.13,20.84,35.1,0.8746,31.38,35.5,4.601,-39,6.049,-10.87,9.565,30.84,44.73,7.289,21.74,0,0,0,0,0,0,0,0,0,0,0,0,0,0,0,0,
428,58.31,38.74,59.51,17.29,74.42,66.15,38.77,-13.05,45.92,5.375,38.21,49.22,47.96,50.15,42.5,50.8,0,0,0,0,0,0,0,0,0,0,0,0,0,0,0,0,
429,68.4,38.59,86.19,8.38,122.5,74.32,33.77,-11.72,95.66,-0.2719,61.42,48.34,29.87,30.24,43.47,45.48,0,0,0,0,0,0,0,0,0,0,0,0,0,0,0,0,
430,47.76,22.12,85.46,22.84,98.95,61.53,36.35,8.838,69.98,3.062,39.26,25.39,9.985,11.4,19.83,18.72,0,0,0,0,0,0,0,0,0,0,0,0,0,0,0,0,
431,40.29,18.8,61.89,51.78,35.34,44.15,46.41,41.92,15.86,16.04,-11.04,8.82,8.741,11.75,-4.609,5.235,0,0,0,0,0,0,0,0,0,0,0,0,0,0,0,0,
432,29.76,19.61,28.87,59.52,0.6844,28.23,45.01,54.49,-34.73,15.03,-41.79,-3.557,6.56,11.92,-11.29,6.324,0,0,0,0,0,0,0,0,0,0,0,0,0,0,0,0,
433,18.31,13.42,29.39,40.11,25.7,33.94,41.31,31.29,-19.51,2.405,-14.7,11.13,8.419,10.12,12.74,13.44,0,0,0,0,0,0,0,0,0,0,0,0,0,0,0,0,
434,51.04,24.99,60.57,19.99,77.52,60.38,48.43,0.8962,63.88,-0.5203,46.48,61.92,39.47,30.42,56.88,41.85,0,0,0,0,0,0,0,0,0,0,0,0,0,0,0,0,
435,93.11,45.35,63.27,3.398,89.15,57.76,40.7,-14.04,96.38,3.131,70.51,85.59,65.33,49.2,70.98,64.61,0,0,0,0,0,0,0,0,0,0,0,0,0,0,0,0,
436,74.38,35.21,21.61,-9.939,28.71,8.926,6.65,-14.85,39.4,7.325,34.66,49.86,48.47,41.75,36.46,43.44,0,0,0,0,0,0,0,0,0,0,0,0,0,0,0,0,
437,16.28,9.469,-13.06,-4.394,-36.45,-33.7,-21.88,-5.734,-15.3,16.47,-8.427,4.351,18.49,34.77,-0.9501,13.43,0,0,0,0,0,0,0,0,0,0,0,0,0,0,0,0,
438,-31,-10.95,-10.9,12.42,-35.81,-43.32,-34.77,0.3973,-26.02,12.98,-32.93,-26.4,-11.05,18.58,-22.87,-6.243,0,0,0,0,0,0,0,0,0,0,0,0,0,0,0,0,
439,-56.65,-36.88,7.42,20.26,-2.019,-34.23,-36.29,-8.251,-26.56,-11.85,-45.09,-39.35,-36.77,-16.98,-31.04,-24.42,0,0,0,0,0,0,0,0,0,0,0,0,0,0,0,0,
440,-37.97,-35.89,37.34,21.81,22.42,-2.147,-6.932,-16.71,-17.06,-23.57,-18.44,-4.52,-15.84,-15.67,-2.276,-5.586,0,0,0,0,0,0,0,0,0,0,0,0,0,0,0,0,
441,24.08,12.62,62.61,22.79,33.01,30.53,33.08,-10.29,20.79,-7.444,31.29,51.4,36.19,21.88,40,42.06,0,0,0,0,0,0,0,0,0,0,0,0,0,0,0,0,
442,66.27,51.32,39.41,16.59,12.22,20.22,34.91,-2.291,44.62,10.09,40.22,66.57,57.63,39.55,51.05,64.76,0,0,0,0,0,0,0,0,0,0,0,0,0,0,0,0,
443,61.97,48.56,-4.883,2.043,-22.66,-9.105,10.03,-6.163,17.02,13.65,17.12,51.61,48.66,40.55,41.91,59.52,0,0,0,0,0,0,0,0,0,0,0,0,0,0,0,0,
444,45.31,25.93,-7.774,-4.694,-12.12,-8.775,-4.743,-15.06,-0.1597,5.471,16.15,45.17,32.71,38.24,37.33,48.22,0,0,0,0,0,0,0,0,0,0,0,0,0,0,0,0,
445,38.91,0.9284,31.87,10.73,48.24,21.09,1.856,-15.08,41.01,-1.75,45.06,53.74,20.25,27.58,44.54,44.52,0,0,0,0,0,0,0,0,0,0,0,0,0,0,0,0,
446,39.46,-5.018,75.13,35.99,90.82,49.99,27.93,0.183,68.77,6.308,64.32,60.7,21.57,19.99,44.99,36.42,0,0,0,0,0,0,0,0,0,0,0,0,0,0,0,0,
447,33.75,15.06,81.42,56.57,69.59,53.65,54.54,22.23,44.96,18.36,39.76,48.78,30.42,13.61,15.47,6.831,0,0,0,0,0,0,0,0,0,0,0,0,0,0,0,0,
448,33.35,43.42,60.85,74.25,32.3,51.06,71.83,38.11,41.77,20.58,7.396,41.69,39.98,2.545,-11.31,-15.86,0,0,0,0,0,0,0,0,0,0,0,0,0,0,0,0,
449,67.39,67.95,61.61,81.16,41.99,72.12,86.86,43,71.31,17.03,18.87,65.93,42.11,-5.028,-1.51,-17.89,0,0,0,0,0,0,0,0,0,0,0,0,0,0,0,0,
450,112.8,68.38,81.87,72.75,77.74,95.79,84.36,29.74,85.24,5.521,55.02,101.3,28.33,-7.66,26.07,-11.36,0,0,0,0,0,0,0,0,0,0,0,0,0,0,0,0,
451,129.6,38.52,99.07,66.39,98.12,97.74,63.41,3.391,101.4,-9.575,86.86,124.8,18.55,-2.75,49.17,9.462,0,0,0,0,0,0,0,0,0,0,0,0,0,0,0,0,
452,116,12.8,105.2,65.8,88.53,78.69,49.46,-2.715,100.6,-9.902,95.74,107.7,17.49,9.166,45.57,24.57,0,0,0,0,0,0,0,0,0,0,0,0,0,0,0,0,
453,60.38,-0.7776,76.24,53.97,34.12,28.29,27.74,14.37,21.11,2.866,49.11,32.47,8.113,21,8.188,18.79,0,0,0,0,0,0,0,0,0,0,0,0,0,0,0,0,
454,-23.47,-19.74,24.72,34.86,-25.54,-26.95,-8.441,18.24,-49.86,14.75,-14.13,-26.68,9.271,33.63,-20.65,14.21,0,0,0,0,0,0,0,0,0,0,0,0,0,0,0,0,
455,-48.2,-20.04,14.56,35.35,-13.33,-20.1,-6.561,12.96,-8.877,21.71,-15.66,-1.79,26.69,36.93,-11.25,14.39,0,0,0,0,0,0,0,0,0,0,0,0,0,0,0,0,
456,11.62,6.046,57.13,52.61,53.73,37.65,34.01,17.66,58.28,17.68,22.68,46.29,19.52,14.75,10.12,15.07,0,0,0,0,0,0,0,0,0,0,0,0,0,0,0,0,
457,62.57,8.694,85.66,58.61,86.49,66.32,48.18,18.2,70.31,4.914,36.99,49.16,-14.44,-16.93,13.89,13.77,0,0,0,0,0,0,0,0,0,0,0,0,0,0,0,0,
458,55.66,-16.53,68.06,64.58,60.53,46.84,32.79,26.21,60.94,3.862,29.71,32.18,-32.87,-26.43,8.929,3.611,0,0,0,0,0,0,0,0,0,0,0,0,0,0,0,0,
459,32.65,-23.43,46.55,81.03,21.21,13.79,19.57,48.28,28.07,12.9,15.24,18.47,-34.89,-20.83,5.61,-9.968,0,0,0,0,0,0,0,0,0,0,0,0,0,0,0,0,
460,7.17,-24.15,33.81,66.31,-5.192,-19.19,-6.478,37.81,-23.65,7.911,-9.605,-6.633,-47.24,-31.55,-5.063,-26.54,0,0,0,0,0,0,0,0,0,0,0,0,0,0,0,0,
461,-27.55,-48.94,17.46,26.11,-8.084,-34.51,-37.83,3.497,-22.01,-3.868,-16.82,-21.05,-52.88,-42.9,-5.02,-28.08,0,0,0,0,0,0,0,0,0,0,0,0,0,0,0,0,
462,-39.34,-63.57,32.81,22.23,33.17,-9.888,-28.82,3.842,23.35,0.2742,6.943,-0.7418,-28.53,-22.37,13.87,5.101,0,0,0,0,0,0,0,0,0,0,0,0,0,0,0,0,
463,-21.08,-40.84,71.06,46.05,73.18,23.39,10.17,26.77,32.14,16.14,15.23,14.09,3.378,9.996,9.692,32.39,0,0,0,0,0,0,0,0,0,0,0,0,0,0,0,0,
464,-10.8,-5.829,65.99,56.9,38.87,20.29,30.06,43.07,1.869,38.07,-12.28,-4.853,22.53,33.51,-17.76,24.61,0,0,0,0,0,0,0,0,0,0,0,0,0,0,0,0,
465,-20.14,17.53,30.06,62.1,-22.94,-6.466,20.31,56.2,-29.83,60.55,-38.04,-24.92,27.82,49.28,-31.55,5.675,0,0,0,0,0,0,0,0,0,0,0,0,0,0,0,0,
466,-24.92,17.34,14.23,55.7,-33.24,-22.34,-2.19,44.29,-43.99,58.14,-38.45,-21.85,12.02,39.66,-33.9,-13.77,0,0,0,0,0,0,0,0,0,0,0,0,0,0,0,0,
467,-9.79,-6.918,13.19,25.73,-11.36,-21.49,-22.78,4.114,-15.65,30.33,-19.97,-7.08,-17.35,9.524,-30.26,-32.21,0,0,0,0,0,0,0,0,0,0,0,0,0,0,0,0,
468,7.057,-35.79,19.12,7.274,11.63,-14.05,-31.22,-21.51,28.86,10.7,-8.681,-4.961,-42.07,-10.49,-28.07,-40.08,0,0,0,0,0,0,0,0,0,0,0,0,0,0,0,0,
469,-1.256,-55.45,33.4,18.76,23.74,-8.765,-26.1,-17.66,21.17,10.5,-30.08,-26.99,-52.94,-15.73,-44.4,-37.99,0,0,0,0,0,0,0,0,0,0,0,0,0,0,0,0,
470,-23.64,-55.13,34.46,36.79,8.198,-6.267,-10.5,5.342,-14.75,18.04,-56.39,-43.45,-39.22,-7.373,-55.2,-34.38,0,0,0,0,0,0,0,0,0,0,0,0,0,0,0,0,
471,-28.21,-27.13,26.53,53.43,-7.27,-0.1088,6.098,28.47,-15.89,25.27,-50.12,-26.35,-8.748,7.977,-41.33,-32.77,0,0,0,0,0,0,0,0,0,0,0,0,0,0,0,0,
472,-10.89,0.5668,32.44,64.76,1.221,3.931,3.4,19.81,-10.05,22.43,-29.47,0.4714,11.87,12.06,-25.47,-22.58,0,0,0,0,0,0,0,0,0,0,0,0,0,0,0,0,
473,5.311,5.195,37.55,52.15,12.67,-2.539,-15.83,-2.832,-14.84,10.91,-7.785,13.77,20.65,19.64,-10.97,-0.1755,0,0,0,0,0,0,0,0,0,0,0,0,0,0,0,0,
474,5.023,8.291,37.95,33.77,19.64,-5.348,-17.15,2.131,7.561,11.64,19.72,20.11,25.95,42.46,5.236,17.27,0,0,0,0,0,0,0,0,0,0,0,0,0,0,0,0,
475,-2.707,12.88,47.49,43.13,12.73,-0.3369,1.849,14.09,17.91,26.19,13.82,6.848,15.08,47.93,-3.403,12.91,0,0,0,0,0,0,0,0,0,0,0,0,0,0,0,0,
476,-15.87,-6.326,38.17,51.04,-20.13,-9.312,2.078,9.948,-28.23,25.52,-40.21,-35.02,-17.4,27.14,-36.06,-14.94,0,0,0,0,0,0,0,0,0,0,0,0,0,0,0,0,
477,-44.14,-43.79,10.05,38.23,-46.24,-26.11,-20.18,8.419,-60.02,-0.0044,-71.84,-60.63,-54.16,1.759,-49.25,-44.09,0,0,0,0,0,0,0,0,0,0,0,0,0,0,0,0,
478,-59.49,-77.78,14.06,48.88,-33.03,-20.01,-30.19,9.469,-41.03,-23.98,-43.66,-39.19,-79.3,-26.23,-30.79,-52.03,0,0,0,0,0,0,0,0,0,0,0,0,0,0,0,0,
479,-30.5,-93.27,45.73,63.47,5.133,5.186,-19.18,4.502,-24.08,-27.64,-4.72,-3.542,-79.62,-41.07,-9.039,-43.37,0,0,0,0,0,0,0,0,0,0,0,0,0,0,0,0,
480,11.06,-68.65,72.98,49.9,25.18,21.92,2.127,10.09,-11.14,-14.56,10.7,15.52,-48.27,-20.36,-2.772,-33.65,0,0,0,0,0,0,0,0,0,0,0,0,0,0,0,0,
481,20.55,-12.08,86.59,71.96,5.81,17.65,24.8,34.43,8.924,7.258,6.72,12.31,-9.919,6.899,-17.92,-36.62,0,0,0,0,0,0,0,0,0,0,0,0,0,0,0,0,
482,0.1787,27.39,62.76,103.1,-16.39,-0.4074,27.18,54,-1.364,24.13,-10.92,-8.535,7.077,12.76,-37,-43.61,0,0,0,0,0,0,0,0,0,0,0,0,0,0,0,0,
483,-16.75,31.93,31.76,71.82,-6.427,-2.426,13.99,45.43,-22.06,25.04,-17.32,-13.41,9.167,13.02,-23.19,-32.43,0,0,0,0,0,0,0,0,0,0,0,0,0,0,0,0,
484,-1.218,32.06,81.7,83.62,31.16,37.43,31.4,35.62,-2.301,20.1,8.929,16.96,13.06,16.96,14.12,-15.31,0,0,0,0,0,0,0,0,0,0,0,0,0,0,0,0,
485,32.97,46.78,183,173.5,77.25,92.43,82.82,67.03,27.14,26.9,44.42,48.69,27.24,25.06,35.87,-8.352,0,0,0,0,0,0,0,0,0,0,0,0,0,0,0,0,
486,47.26,68.92,233.1,231,90.86,119.2,126,122.5,28.5,47.16,58.01,58.07,48.39,37.81,39.52,-4.754,0,0,0,0,0,0,0,0,0,0,0,0,0,0,0,0,
487,47.7,91.3,271.9,305.4,80.09,132,156.7,167.7,27.06,63.8,52.55,62.52,60.46,42.16,40.17,-1.662,0,0,0,0,0,0,0,0,0,0,0,0,0,0,0,0,
488,69.48,110.4,369.4,427.2,121.2,162,184.1,196.7,46.74,63.16,51.91,77.47,68.91,43.92,45.83,10.75,0,0,0,0,0,0,0,0,0,0,0,0,0,0,0,0,
489,108.6,124.6,452.9,467.9,201.8,194.5,194,201.4,83.76,59.2,67.75,97.45,91.12,61.23,58.92,38.62,0,0,0,0,0,0,0,0,0,0,0,0,0,0,0,0,
490,136.7,138.4,493,465.4,249,217,202.6,194.9,111,70.25,87.71,110.6,117.2,88.32,72.46,68.33,0,0,0,0,0,0,0,0,0,0,0,0,0,0,0,0,
491,146.3,153.6,540.4,513.4,263.4,237.5,231.3,206.2,93.32,86.45,91.62,107.3,130.6,109.3,72.97,79.23,0,0,0,0,0,0,0,0,0,0,0,0,0,0,0,0,
492,135.6,154.1,540.9,524.2,249.1,236.3,243.9,219.1,54.96,88.86,68.76,80.27,119.5,103.5,49.4,50.87,0,0,0,0,0,0,0,0,0,0,0,0,0,0,0,0,
493,104.3,121.4,483.6,482.1,216,213.2,221.7,212.2,47.97,74.28,41.58,49.2,86.26,70.36,29.12,13.19,0,0,0,0,0,0,0,0,0,0,0,0,0,0,0,0,
494,86.59,81.7,475.5,464.5,230.2,218.1,211.5,194.1,68.16,55.31,54.24,60.04,71.37,52.18,56.05,22.89,0,0,0,0,0,0,0,0,0,0,0,0,0,0,0,0,
495,115.6,88.23,496.2,437,276,254.2,230.2,173.6,94.62,48.03,95.76,106.7,91.47,63.98,98.94,56.21,0,0,0,0,0,0,0,0,0,0,0,0,0,0,0,0,
496,151.2,127.2,458.9,377.3,257.6,257.9,233.5,163.2,96.43,49.83,97.93,118.7,106.3,70.42,93.04,52.1,0,0,0,0,0,0,0,0,0,0,0,0,0,0,0,0,
497,132.5,137.8,376,326.6,171.4,202.7,195.9,163.1,32.45,48.71,45.44,77.97,100.1,59.35,52.87,13.77,0,0,0,0,0,0,0,0,0,0,0,0,0,0,0,0,
498,85.43,119,278.5,277.9,99.13,134.5,141.8,150.5,-27.06,45.82,4.314,47.28,89.8,45.24,30.8,-13.98,0,0,0,0,0,0,0,0,0,0,0,0,0,0,0,0,
499,69.18,95.04,201.9,220.2,85.92,97.01,97.57,115.9,5.791,34.52,11.18,50.09,68.59,22.82,26.55,-13.89,0,0,0,0,0,0,0,0,0,0,0,0,0,0,0,0,
500,70.39,55.68,171.3,159,99.75,81.62,63.83,70.07,48.17,4.627,25.09,46.57,35.15,-13.86,17.1,-10.83,0,0,0,0,0,0,0,0,0,0,0,0,0,0,0,0,
501,57.5,21.61,155.9,105.6,97.61,80.71,54.78,46.08,31.85,-18.05,19.64,33.92,23.58,-34.7,12.28,-15.42,0,0,0,0,0,0,0,0,0,0,0,0,0,0,0,0,
502,51.62,32.9,145.4,106.5,85.54,103.4,89.18,69.83,20.03,-3.417,11.33,38.52,48.98,-12.64,15.55,-10.96,0,0,0,0,0,0,0,0,0,0,0,0,0,0,0,0,
503,59.95,62.94,129.3,137.3,62.53,110.2,118,94.97,6.229,23.74,-5.378,39.78,73.03,16.69,2.377,-3.903,0,0,0,0,0,0,0,0,0,0,0,0,0,0,0,0,
504,48.1,64.8,70.53,101.1,12.44,62.96,83.43,71.15,-40.41,20.8,-27.05,21,61.46,7.205,-13.53,-3.622,0,0,0,0,0,0,0,0,0,0,0,0,0,0,0,0,
505,24.6,45.77,8.953,24.02,-16.27,19.22,32.31,31.39,-34.38,3.606,-9.333,21.59,39.17,-16.38,5.261,6.242,0,0,0,0,0,0,0,0,0,0,0,0,0,0,0,0,
506,40.8,33.87,3.333,-7.122,17.29,32.8,22.86,10.27,44.69,8.845,40.57,49.5,38.73,-13.06,34.98,23.2,0,0,0,0,0,0,0,0,0,0,0,0,0,0,0,0,
507,75.46,28.51,12.94,-23.89,43.91,46.06,18.43,-2.852,72.03,13.79,49.14,45.1,43.97,3.017,26.33,22.98,0,0,0,0,0,0,0,0,0,0,0,0,0,0,0,0,
508,51.07,20.39,-16.99,-58.44,-0.4986,10.45,-1.714,-1.306,0.5747,-3.126,-4.892,-5.621,42.62,8,-9.788,12.76,0,0,0,0,0,0,0,0,0,0,0,0,0,0,0,0,
509,-12.28,24.49,-68.57,-70.19,-67.62,-24,-1.889,13.93,-68.77,-9.882,-61.4,-42.1,47.71,0.1384,-31.25,11.05,0,0,0,0,0,0,0,0,0,0,0,0,0,0,0,0,
510,-36.35,39.84,-104.4,-73.76,-90.63,-24.1,2.752,3.807,-67.96,-5.737,-73.97,-42.84,44.99,-20.91,-33.84,-0.9757,0,0,0,0,0,0,0,0,0,0,0,0,0,0,0,0,
511,-37.66,37.02,-106.9,-93.88,-70.74,-21.3,-14.31,-25.5,-37.25,-12.68,-54.75,-37.32,25.01,-38.75,-33.31,-20.57,0,0,0,0,0,0,0,0,0,0,0,0,0,0,0,0,
512,-57.55,24.29,-85.54,-98.39,-51.75,-30.92,-26.93,-29.4,-24.9,-11.9,-34.32,-33.01,10.72,-39.58,-33.06,-18.48,0,0,0,0,0,0,0,0,0,0,0,0,0,0,0,0,
513,-70.99,18.55,-85.84,-101.8,-66.17,-46.27,-34.86,-21.02,-30.44,-6.386,-28.61,-29.63,-3.944,-47.56,-39.68,-28.2,0,0,0,0,0,0,0,0,0,0,0,0,0,0,0,0,
514,-57.27,-6.134,-116.6,-123.5,-87.29,-60.46,-54.19,-28.65,-31.16,-20.77,-30.02,-28.94,-36.58,-68.96,-48.05,-68.36,0,0,0,0,0,0,0,0,0,0,0,0,0,0,0,0,
515,-25.33,-51.22,-136.5,-120.6,-75.8,-60.58,-63.11,-39.74,-23.74,-37.85,-24.41,-19.48,-69.8,-79.85,-39.5,-78.54,0,0,0,0,0,0,0,0,0,0,0,0,0,0,0,0,
516,5.217,-80.36,-145.7,-107,-55.6,-47.3,-55.06,-49.21,-25.48,-41.14,-12.78,-1.333,-81.53,-76.88,-17.84,-42.14,0,0,0,0,0,0,0,0,0,0,0,0,0,0,0,0,
517,19.61,-71.78,-146.4,-125.1,-48.26,-24.97,-38.63,-53.3,-19.48,-32.44,6.991,18.68,-56.43,-54.3,9.726,5.441,0,0,0,0,0,0,0,0,0,0,0,0,0,0,0,0,
518,26.57,-25.62,-129.2,-139.8,-51.03,-8.175,-19.15,-37.05,-3.59,-8.899,25.03,21.92,-4.731,-11.44,32.89,41.03,0,0,0,0,0,0,0,0,0,0,0,0,0,0,0,0,
519,5.477,24,-143.9,-129,-92.26,-33.02,-19.88,-8.547,-35.71,16.98,8.903,-9.599,31.66,19.92,29.67,51.95,0,0,0,0,0,0,0,0,0,0,0,0,0,0,0,0,
520,-50.4,47.82,-176.2,-110.3,-135.3,-67.72,-23.96,19.01,-77.73,32.54,-17.13,-21.99,47.75,32.84,22.11,62.89,0,0,0,0,0,0,0,0,0,0,0,0,0,0,0,0,
521,-51.54,63.43,-149,-85.6,-95.54,-37.7,4.147,29.16,-33.07,34.38,-1.566,24.86,60.68,35.58,38.04,83.14,0,0,0,0,0,0,0,0,0,0,0,0,0,0,0,0,
522,25.46,67.74,-106.8,-74.5,-25.38,24.88,28.14,5.468,28.3,16.26,23,59.64,52.92,14.04,47.23,70.23,0,0,0,0,0,0,0,0,0,0,0,0,0,0,0,0,
523,78.03,44.58,-103.2,-81.01,-13.14,46.47,24.66,-19.27,17.35,-2.01,13.21,45.48,20.7,-15.61,32.41,36.3,0,0,0,0,0,0,0,0,0,0,0,0,0,0,0,0,
524,79.05,26.66,-99.75,-76.71,-34.38,33.83,26.83,-12.3,-2.338,2.036,-4.287,31.61,-5.407,-19.34,15.97,32.01,0,0,0,0,0,0,0,0,0,0,0,0,0,0,0,0,
525,68.09,27.94,-106.1,-73.29,-72.49,7.657,25.27,5.924,-2.894,13.12,-9.847,24.15,-5.859,0.8906,10.28,47.57,0,0,0,0,0,0,0,0,0,0,0,0,0,0,0,0,
526,33.9,23.85,-141.1,-83.12,-125.2,-28.79,-0.6431,15.95,-26.6,15.56,-13.08,1.747,7.932,22.92,18.36,51.83,0,0,0,0,0,0,0,0,0,0,0,0,0,0,0,0,
527,-11.91,17.47,-153.5,-85.65,-127.1,-46.35,-21.47,9.614,-42.38,10.5,-2.076,-11.8,17.32,30.93,41.49,53.05,0,0,0,0,0,0,0,0,0,0,0,0,0,0,0,0,
528,-18.13,23.98,-124.8,-80.11,-72.96,-26.22,-12.47,-7.112,-14.55,7.308,30.24,6.434,39.39,40.06,65.58,70.89,0,0,0,0,0,0,0,0,0,0,0,0,0,0,0,0,
529,12.43,47.87,-94.54,-69.14,-46,0.4815,15.1,2.045,3.69,22.83,34.82,22.27,76.43,63.27,53.75,84.32,0,0,0,0,0,0,0,0,0,0,0,0,0,0,0,0,
530,21.28,72.68,-90.41,-54.27,-65.63,-5.369,27.42,30.58,-37.04,43.84,-25.31,-8.299,69.45,58.95,-3.751,60.79,0,0,0,0,0,0,0,0,0,0,0,0,0,0,0,0,
531,-18.87,53.5,-99.35,-47.73,-77.64,-26.53,14.65,34.41,-75.09,35.86,-79.95,-46.38,10.43,7.652,-43.9,15.65,0,0,0,0,0,0,0,0,0,0,0,0,0,0,0,0,
532,-45.66,-3.397,-87.57,-39.25,-54.57,-12.58,15.95,19.7,-29.69,5.803,-54.92,-25.26,-36.7,-41.86,-26.52,-17.03,0,0,0,0,0,0,0,0,0,0,0,0,0,0,0,0,
533,-0.0546,-34,-49.91,-25.68,-7.432,31.16,38.26,6.915,49.66,-10.95,4.298,26.3,-53.7,-58.49,6.611,-19.92,0,0,0,0,0,0,0,0,0,0,0,0,0,0,0,0,
534,58.93,-28.77,-21.74,-22.78,30.67,48.91,39.9,-0.9062,74.8,-4.413,25.91,36.96,-59.41,-56.19,18.65,-4.769,0,0,0,0,0,0,0,0,0,0,0,0,0,0,0,0,
535,46.3,-25.37,-34.48,-32.63,12.1,12.16,11.31,4.513,41.09,7.33,-0.9017,-2.04,-57.96,-53.72,4.293,-10.2,0,0,0,0,0,0,0,0,0,0,0,0,0,0,0,0,
536,-19.4,-30.59,-79.79,-63.28,-49.56,-50.19,-26.12,3.346,-19.25,9.479,-43.63,-45.95,-52.23,-56.72,-24.96,-31.89,0,0,0,0,0,0,0,0,0,0,0,0,0,0,0,0,
537,-61.1,-33.94,-113.3,-93.69,-70.66,-78.43,-50.69,-17.5,-46.44,3.135,-50.48,-54.52,-41.31,-61,-37.12,-32.07,0,0,0,0,0,0,0,0,0,0,0,0,0,0,0,0,
538,-47.77,-36.31,-99.15,-82.79,-34.39,-54.87,-49.41,-30.86,-2.646,-9.555,-16.31,-29.34,-20.71,-62.48,-24.04,-13.48,0,0,0,0,0,0,0,0,0,0,0,0,0,0,0,0,
539,-9.653,-31.37,-60.42,-69.34,-2.497,-21,-31.2,-40.26,46.86,-18.57,16.05,5.462,9.405,-52.16,-5.532,12.74,0,0,0,0,0,0,0,0,0,0,0,0,0,0,0,0,
540,13.71,-8.408,-53.48,-87.77,-2.148,-12.88,-14.66,-46.4,41.2,-8.865,17.77,12.22,22.88,-42.01,-8.303,25.15,0,0,0,0,0,0,0,0,0,0,0,0,0,0,0,0,
541,-9.569,-1.998,-80.55,-90.1,-31.76,-44.69,-26.51,-16.6,-8.164,2.143,-26.17,-42.82,-19.84,-64.97,-50.01,-14.25,0,0,0,0,0,0,0,0,0,0,0,0,0,0,0,0,
542,-71.11,-48.48,-92.99,-70.97,-66.92,-90.06,-66.94,15.21,-54.47,-4.38,-67.61,-95.16,-74.17,-88.83,-77.15,-53.02,0,0,0,0,0,0,0,0,0,0,0,0,0,0,0,0,
543,-87.62,-89.31,-79.98,-71.99,-55.14,-87.27,-85.65,-4.486,-32.25,-10.87,-32.53,-63.62,-66.23,-62.51,-43.16,-21.85,0,0,0,0,0,0,0,0,0,0,0,0,0,0,0,0,
544,-39.41,-77.56,-74.09,-96.08,-19.05,-55.77,-79.88,-45.38,20.57,-13.79,10.69,-23.97,-39.25,-28.65,-21.92,9.507,0,0,0,0,0,0,0,0,0,0,0,0,0,0,0,0,
545,-28.01,-66.45,-86.24,-121.4,-22.37,-61.35,-85.54,-61.72,-1.563,-19.39,-23.84,-49.99,-36.59,-20.12,-49.12,-6.649,0,0,0,0,0,0,0,0,0,0,0,0,0,0,0,0,
546,-69.19,-62.72,-94.84,-114.1,-47.51,-78.09,-75.82,-42.79,-51.23,-4.49,-62.32,-69.83,-10.01,4.318,-50.92,6.817,0,0,0,0,0,0,0,0,0,0,0,0,0,0,0,0,
547,-82.33,-27.09,-90.94,-71.4,-62.56,-69.2,-39.17,-0.7569,-41.07,29.44,-55.31,-51.62,28.27,33.38,-29.11,43.82,0,0,0,0,0,0,0,0,0,0,0,0,0,0,0,0,
548,-62.52,7.644,-86.17,-44.6,-62.96,-51.96,-13.96,24.82,-10.77,40.26,-42.83,-34.34,22.35,18.08,-27.98,31.67,0,0,0,0,0,0,0,0,0,0,0,0,0,0,0,0,
549,-31.89,11.19,-71.13,-48.61,-26.33,-26.43,-4.32,11.88,16.29,13.92,-10.69,-5.986,-4.71,-20.4,-12.78,7.208,0,0,0,0,0,0,0,0,0,0,0,0,0,0,0,0,
550,10.22,-7.771,-36.76,-47.96,28.98,-3.352,-9.017,-14.19,56.86,-17.59,38.14,26.17,-23.55,-38.87,16.45,8.25,0,0,0,0,0,0,0,0,0,0,0,0,0,0,0,0,
551,30.06,-43.7,-19.29,-40.31,43.27,-10.14,-29.65,-22.46,74.43,-23.3,43.55,21.63,-37.92,-37.39,14.41,7.817,0,0,0,0,0,0,0,0,0,0,0,0,0,0,0,0,
552,20.08,-61.49,-41.03,-52.04,14.35,-27.48,-35.99,-10.92,52.99,-9.897,19.19,4.227,-33.22,-29.84,5.844,13.79,0,0,0,0,0,0,0,0,0,0,0,0,0,0,0,0,
553,15.44,-45.46,-65.63,-66.31,-7.394,-30,-24.91,0.1981,27.39,0.2888,13.59,4.093,-14.3,-22.64,15.66,23.86,0,0,0,0,0,0,0,0,0,0,0,0,0,0,0,0,
554,5.927,-38.66,-59.98,-48.41,2.427,-24.57,-23.47,-2.824,20.99,1.476,15.36,2.448,-7.509,-19.43,16.5,18.19,0,0,0,0,0,0,0,0,0,0,0,0,0,0,0,0,
555,-17.28,-42.1,-35.64,-31.18,22.29,-14.29,-25.48,-13.82,38.23,-3.116,12.61,3.578,4.404,-11.85,11.35,27.28,0,0,0,0,0,0,0,0,0,0,0,0,0,0,0,0,
556,-5.459,-10.68,-18.47,-48.07,31.55,0.1515,-11.71,-16.73,57.75,1.818,16.29,21.64,42.78,11.47,19.64,57.34,0,0,0,0,0,0,0,0,0,0,0,0,0,0,0,0,
557,32.02,39.86,-23.19,-60.91,25.84,-6.333,-3.911,-6.126,44.77,25.31,12.77,22.49,70.56,36.44,23.94,71.53,0,0,0,0,0,0,0,0,0,0,0,0,0,0,0,0,
558,18.5,47.18,-52.9,-61.19,0.0416,-45.29,-31.31,0.1362,12.54,35.5,-5.398,-9.268,53.57,41.75,12.47,65.41,0,0,0,0,0,0,0,0,0,0,0,0,0,0,0,0,
559,-25.83,7.711,-79.32,-70.37,-19.46,-68.6,-61.03,-8.524,9.161,14.62,-7.296,-31.76,15.92,31.62,2.411,53.05,0,0,0,0,0,0,0,0,0,0,0,0,0,0,0,0,
560,-36.55,-31.87,-67.92,-69.9,-5.23,-51.83,-60.28,-21.02,31.88,-7.506,17.9,-32.34,-12.48,17,2.619,40.82,0,0,0,0,0,0,0,0,0,0,0,0,0,0,0,0,
561,-48.99,-55.47,-46.53,-65.95,4.463,-44.97,-59.9,-28.99,34.6,-13.58,38.74,-35.47,-23.83,6.686,6.876,31.58,0,0,0,0,0,0,0,0,0,0,0,0,0,0,0,0,
562,-74.48,-61.16,-46.54,-71.54,-11.86,-54.44,-61.99,-21.5,17.56,-6.153,36.05,-35.65,-12.25,13.4,11.37,30.18,0,0,0,0,0,0,0,0,0,0,0,0,0,0,0,0,
563,-57.85,-45.12,-43.04,-57.15,-16.75,-43.47,-39.73,3.143,8.945,9.982,16.23,-23.75,6.178,27.74,15.25,43.42,0,0,0,0,0,0,0,0,0,0,0,0,0,0,0,0,
564,-21.59,-31.62,-34.61,-30.84,-3.484,-26.44,-17.3,18.29,-2.435,12.16,-2.484,-9.925,6.333,27.78,25.44,55.48,0,0,0,0,0,0,0,0,0,0,0,0,0,0,0,0,
565,-0.1031,-30.05,-33.79,-22.11,14.56,-9.36,-8.289,10.34,-11.07,-8.29,3.428,7.319,-2.547,14.92,41.35,50.82,0,0,0,0,0,0,0,0,0,0,0,0,0,0,0,0,
566,25.86,-28.79,-21.59,-18.99,38.03,17.79,2.167,-8.796,20.2,-23.94,29.24,22.07,-7.52,4.091,41.46,48.01,0,0,0,0,0,0,0,0,0,0,0,0,0,0,0,0,
567,34.27,-32.36,-6.526,-13.99,47.22,23.24,5.006,-22.36,61.51,-15.75,48.63,19.93,-7.589,14.18,30.42,57.95,0,0,0,0,0,0,0,0,0,0,0,0,0,0,0,0,
568,7.848,-25.41,-12.86,-13.58,26.89,-0.1959,2.161,-13.9,47.71,5.821,47.26,5.133,8.361,51.1,27.7,62.17,0,0,0,0,0,0,0,0,0,0,0,0,0,0,0,0,
569,-22.89,4.187,-42.71,-20.53,-13.69,-25.85,3.352,2.318,-5.701,23.6,20.52,-17.05,30.77,80.4,17.19,51.82,0,0,0,0,0,0,0,0,0,0,0,0,0,0,0,0,
570,-45.58,26.02,-77.9,-38.91,-51.16,-41.47,1.524,-0.3312,-31.71,29.62,-6.908,-32.67,33.71,74.41,3.09,39.43,0,0,0,0,0,0,0,0,0,0,0,0,0,0,0,0,
571,-45.09,28.63,-74.31,-51.67,-47.78,-31.26,2.596,-7.419,-16.86,23.87,-3.83,-25.35,17.56,49.61,7.124,27.46,0,0,0,0,0,0,0,0,0,0,0,0,0,0,0,0,
572,-20.36,19.4,-41.16,-46,-17.45,-11.29,2.045,-5.482,-12.91,12.13,3.847,-17.7,-6.284,23.83,4.76,11.86,0,0,0,0,0,0,0,0,0,0,0,0,0,0,0,0,
573,-13.92,-4.858,-41.54,-42.97,-19.43,-22.86,-14.47,-8.812,-36.08,4.568,-7.48,-23.95,-21.87,6.759,-10.83,5.19,0,0,0,0,0,0,0,0,0,0,0,0,0,0,0,0,
574,-21.33,-23.71,-67.71,-46.32,-44.41,-46.51,-25.3,-10.39,-32.32,5.599,-13.62,-21.67,-13.86,8.106,-17.71,2.345,0,0,0,0,0,0,0,0,0,0,0,0,0,0,0,0,
575,-15.27,-21.33,-80.94,-39.67,-55.01,-49.05,-20.08,-3.604,-2.808,11.99,-13.42,-14.6,-0.7409,17.02,-24.07,-12.66,0,0,0,0,0,0,0,0,0,0,0,0,0,0,0,0,
576,-22.82,-14.82,-83.11,-33.57,-57.48,-42.51,-22.21,-12.88,-5.722,19.47,-13.69,-18.37,0.1722,21.14,-21.26,-17.89,0,0,0,0,0,0,0,0,0,0,0,0,0,0,0,0,
577,-43.53,-9.736,-68.14,-37.75,-43.28,-33.27,-27.53,-33.39,-15.75,21.54,3.054,-22.68,2.556,24.88,1.426,-1.112,0,0,0,0,0,0,0,0,0,0,0,0,0,0,0,0,
578,-49.09,-1.704,-43.57,-38.74,-26.94,-30.89,-25.6,-30.68,-8.298,16.33,9.189,-33.57,6.289,28.98,1.996,11.48,0,0,0,0,0,0,0,0,0,0,0,0,0,0,0,0,
579,-71.65,2.153,-52.13,-37.58,-65.61,-61.74,-36.81,-14.57,-49.85,12.11,-33.81,-65.91,3.897,30.37,-30.31,7.427,0,0,0,0,0,0,0,0,0,0,0,0,0,0,0,0,
580,-117.7,1.122,-94.73,-41.02,-120.8,-103.1,-56.97,-10.46,-118.7,12.62,-76.44,-88.2,5.356,28.07,-46.4,-3.107,0,0,0,0,0,0,0,0,0,0,0,0,0,0,0,0,
581,-122.8,-5.118,-117.6,-38.25,-111.4,-106.4,-58.31,-7.558,-111.8,7.045,-60.78,-65.92,0.7312,13.72,-33.02,-8.35,0,0,0,0,0,0,0,0,0,0,0,0,0,0,0,0,
582,-84.92,-28.84,-95.01,-28.5,-65.27,-77.16,-48.61,-7.272,-50.41,-14.3,-19.86,-26.12,-23.42,-13.88,-19.02,-7.612,0,0,0,0,0,0,0,0,0,0,0,0,0,0,0,0,
583,-51.97,-62.59,-60.22,-19.57,-32.19,-46.22,-41.95,-22.79,-12.62,-36.48,-1.599,-6.142,-38.04,-29.32,-12.06,-4.268,0,0,0,0,0,0,0,0,0,0,0,0,0,0,0,0,
584,-28.18,-75.85,-49.25,-17.36,-21.95,-33.73,-36.28,-35.28,-15.53,-38.72,-12.23,-13.47,-31.04,-18.45,-16.97,-1.451,0,0,0,0,0,0,0,0,0,0,0,0,0,0,0,0,
585,-32.7,-69.24,-66.88,-33.69,-51.23,-56.04,-43.75,-35.33,-54.63,-29.72,-45.48,-50.28,-33.76,-10.97,-44.48,-12.9,0,0,0,0,0,0,0,0,0,0,0,0,0,0,0,0,
586,-70,-65.71,-87.66,-46.64,-84.85,-82.69,-53.72,-31.47,-88.25,-23.79,-64.03,-77.3,-41.13,-22.42,-56.6,-23.92,0,0,0,0,0,0,0,0,0,0,0,0,0,0,0,0,
587,-66.86,-60.64,-79.59,-29.79,-68.43,-66.88,-38.86,-23.79,-76.93,-22.32,-34.68,-45.66,-35.13,-33.14,-28.3,-13.17,0,0,0,0,0,0,0,0,0,0,0,0,0,0,0,0,
588,-19.16,-55.72,-60.12,-29.8,-33.16,-38.42,-28.15,-30.47,-48.17,-30.78,6.747,2.483,-36.35,-39.97,-7.365,-10.15,0,0,0,0,0,0,0,0,0,0,0,0,0,0,0,0,
589,1.212,-61.31,-57.57,-61.95,-13.97,-33.16,-41.22,-47.22,-13.84,-33.85,30.21,20.56,-27,-33.26,-2.734,-9.714,0,0,0,0,0,0,0,0,0,0,0,0,0,0,0,0,
590,4.036,-42.75,-47.87,-50.76,-0.0636,-25.02,-34.28,-29.85,16.69,-6.993,39.67,27.8,19.66,-0.3311,9.31,15.78,0,0,0,0,0,0,0,0,0,0,0,0,0,0,0,0,
591,5.157,8.471,-31.34,-7.476,-10.74,-20.5,-12.31,0.2189,-6.756,21.31,10.99,10.91,45.02,15.92,-8.23,12.48,0,0,0,0,0,0,0,0,0,0,0,0,0,0,0,0,
592,-33.12,28.51,-43.58,-19.89,-51.29,-46.99,-25.23,-7.91,-55.94,18.03,-45.43,-37.74,16.03,-0.62,-52.38,-33.44,0,0,0,0,0,0,0,0,0,0,0,0,0,0,0,0,
593,-74.86,4.955,-60.9,-56.49,-59.94,-62.2,-47.67,-18.99,-57.5,7.829,-63.01,-55.26,-9.46,1.135,-55.64,-42.73,0,0,0,0,0,0,0,0,0,0,0,0,0,0,0,0,
594,-53.28,-8.06,-40.93,-42.49,-11.53,-30.27,-31.82,-2.617,-23.34,6.503,-30.99,-19.94,-5.129,18.42,-19.27,-5.941,0,0,0,0,0,0,0,0,0,0,0,0,0,0,0,0,
595,2.791,-5.773,1.969,2.307,28.81,7.275,-2.585,4.17,7.012,-1.681,4.472,19.99,4.5,12.96,6.874,17.01,0,0,0,0,0,0,0,0,0,0,0,0,0,0,0,0,
596,29.16,-10.6,36.74,40.77,16.87,7.036,0.3308,4.232,12.6,-6.31,16.34,30.83,8.12,-0.812,12.03,10.25,0,0,0,0,0,0,0,0,0,0,0,0,0,0,0,0,
597,16.63,-11.34,59.5,66.11,-3.571,-22.65,-19.11,23.26,-7.894,1.574,8.151,15.54,6.934,-10.92,12.26,-3.136,0,0,0,0,0,0,0,0,0,0,0,0,0,0,0,0,
598,-2.134,-3.181,94.07,99.84,16.75,-40.69,-32.51,35.91,-10.38,2.089,3.33,3.146,13.37,-19.64,18.32,-0.5619,0,0,0,0,0,0,0,0,0,0,0,0,0,0,0,0,
599,3.519,9.288,167.3,175.1,73.98,-12.86,-14.95,39.71,10.35,-0.9522,11.86,10.72,32.17,-8.59,23.82,19.87,0,0,0,0,0,0,0,0,0,0,0,0,0,0,0,0,
600,28.21,28.98,265.5,257.3,138.7,43.93,27.12,65.99,8.275,5.114,11.22,13.76,36.95,12.69,16.41,29.3,0,0,0,0,0,0,0,0,0,0,0,0,0,0,0,0,
601,40.1,41.43,355.6,326.1,177.6,86.51,71.2,107.2,3.565,8.201,0.4842,3.381,24.1,22.69,2.675,15.98,0,0,0,0,0,0,0,0,0,0,0,0,0,0,0,0,
602,41.48,44.71,430,420.6,181.6,108.2,113.7,145.3,30.05,13.78,8.916,8.991,27.81,33.97,0.9539,14.23,0,0,0,0,0,0,0,0,0,0,0,0,0,0,0,0,
603,61.47,59.79,472,478.9,181,121.8,143.2,166.5,53.09,26.75,30.01,30.98,46.51,42.69,11.11,30.89,0,0,0,0,0,0,0,0,0,0,0,0,0,0,0,0,
604,88.07,72.63,476.5,464.7,206.5,134.4,144.5,158.6,63.91,24.84,43.02,44.73,53.77,36.79,24.36,36.24,0,0,0,0,0,0,0,0,0,0,0,0,0,0,0,0,
605,101.4,62,494.7,483.1,251,156.1,138.7,151.1,88.99,15.48,64.73,54.34,55.24,30.06,43.92,34.91,0,0,0,0,0,0,0,0,0,0,0,0,0,0,0,0,
606,110.4,44.99,516.2,501.3,269.8,172.8,142,154.4,105.2,13.46,91.86,60.08,49.57,14.94,58.35,31.95,0,0,0,0,0,0,0,0,0,0,0,0,0,0,0,0,
607,107.4,38.97,485.1,440.5,248,171.1,152.8,145.9,91.81,4.04,93.48,49.32,29.1,-5.173,56.71,24.46,0,0,0,0,0,0,0,0,0,0,0,0,0,0,0,0,
608,94.73,50.2,449.9,410.4,229.3,174.6,174.7,149.3,73.75,-2.949,81.03,39.75,23.97,3.743,56.23,36.01,0,0,0,0,0,0,0,0,0,0,0,0,0,0,0,0,
609,95.03,71.7,431.6,415.1,217,177,178.8,156.7,66.83,3.978,77.78,45.25,40.46,23.11,55.36,52.35,0,0,0,0,0,0,0,0,0,0,0,0,0,0,0,0,
610,100.3,79.47,372.3,343.7,190.6,157.5,147.5,121.5,82.06,7.578,84.96,59.42,52.28,32.22,51.71,55.52,0,0,0,0,0,0,0,0,0,0,0,0,0,0,0,0,
611,113.1,76.63,312.9,264.5,184.2,144.3,121.6,78.05,107.8,9.652,99.3,78.47,63.32,51.61,62.23,72.04,0,0,0,0,0,0,0,0,0,0,0,0,0,0,0,0,
612,129,72.76,279,228.8,176.4,133.6,105,58,85.45,9.369,95.78,75.66,69.91,59.48,59.68,77.78,0,0,0,0,0,0,0,0,0,0,0,0,0,0,0,0,
613,100.7,54.97,213.9,181.5,116.7,99.95,78.61,42.1,32.23,-0.322,67.6,42.7,58.85,44,29.5,46.76,0,0,0,0,0,0,0,0,0,0,0,0,0,0,0,0,
614,50.76,40.58,153,152.1,69.65,79.43,73.09,43.34,29.32,-0.2643,49.59,19.52,49.81,38.12,14.09,22.94,0,0,0,0,0,0,0,0,0,0,0,0,0,0,0,0,
615,40.93,48.23,125,133.5,67.44,83.94,83.12,45.25,39.47,3.051,42.02,12.03,51.26,37.79,14.64,23.85,0,0,0,0,0,0,0,0,0,0,0,0,0,0,0,0,
616,46.08,56.33,78.3,64.74,49.19,78.86,70.77,18.21,5.957,-3.385,26.79,4.65,55.89,42.86,7.993,36.53,0,0,0,0,0,0,0,0,0,0,0,0,0,0,0,0,
617,43.6,62.79,27.49,-4.492,24.38,65.04,50.98,-0.6849,-10.79,5.328,13.69,10.46,63.86,60.74,1.828,54.68,0,0,0,0,0,0,0,0,0,0,0,0,0,0,0,0,
618,51.32,71.58,-9.742,-38.17,3.011,43.74,33.42,-3.657,-4.74,19.59,4.423,26.95,65.21,58.6,0.9884,63.23,0,0,0,0,0,0,0,0,0,0,0,0,0,0,0,0,
619,52.33,60.37,-62.7,-70.03,-48.29,9.248,6.702,-13.05,-29.44,10.42,4.85,40.12,60.15,40.46,15.11,66.66,0,0,0,0,0,0,0,0,0,0,0,0,0,0,0,0,
620,42,36.54,-103,-87.3,-78.61,-12.16,-8.829,-14.68,-36.66,-5.169,27.55,51.47,56.76,29.62,45.66,70.98,0,0,0,0,0,0,0,0,0,0,0,0,0,0,0,0,
621,42.92,28.48,-98.91,-89.68,-52.78,-5.966,-1.135,-16.67,2.229,-10.4,56.65,64.49,55.99,16.81,66.39,72.11,0,0,0,0,0,0,0,0,0,0,0,0,0,0,0,0,
622,49.61,41.67,-81,-102.8,-33.8,13.13,14.42,-24.56,22.65,-2.376,73.62,73.71,68.09,21.05,64.7,76.79,0,0,0,0,0,0,0,0,0,0,0,0,0,0,0,0,
623,34.93,62.31,-84.81,-114.8,-53.05,10.34,14.31,-20.33,0.964,14.5,58.46,43.48,72.07,39.44,33.84,57.31,0,0,0,0,0,0,0,0,0,0,0,0,0,0,0,0,
624,-25.16,53.58,-124.6,-133.6,-97.04,-42.39,-23.93,-28.65,-53.8,10.96,-3.022,-36.05,30.75,21.84,-24.22,-4.179,0,0,0,0,0,0,0,0,0,0,0,0,0,0,0,0,
625,-94.97,5.723,-177.3,-162.8,-136.4,-92.5,-70.08,-56.31,-111,-12.15,-66.1,-94.03,-20.66,-18.95,-67.85,-44.5,0,0,0,0,0,0,0,0,0,0,0,0,0,0,0,0,
626,-94.86,-26.71,-193.1,-167.5,-126.1,-77.71,-72.3,-67.49,-100,-27.07,-81.97,-87.78,-28.78,-39.86,-69.31,-27.07,0,0,0,0,0,0,0,0,0,0,0,0,0,0,0,0,
627,-39.28,-23.07,-172,-161.1,-89.73,-44.08,-51.89,-66.43,-48.34,-43.47,-65.08,-56.88,-15.18,-46.11,-48.95,-4.011,0,0,0,0,0,0,0,0,0,0,0,0,0,0,0,0,
628,-9.684,-28.26,-157.2,-165.7,-83.15,-43.87,-48.86,-61.23,-43.4,-57.47,-42.93,-33.98,-18.66,-49.26,-36.38,-11.38,0,0,0,0,0,0,0,0,0,0,0,0,0,0,0,0,
629,-16.16,-49.74,-153.5,-153.7,-93.29,-52.85,-50.41,-40.01,-56.52,-37.05,-31.02,-26.48,-31.74,-50.94,-46.32,-34.12,0,0,0,0,0,0,0,0,0,0,0,0,0,0,0,0,
630,-30.87,-54.76,-145.8,-134.6,-98.04,-58.71,-51.17,-29.3,-51.3,-7.147,-41.61,-40.85,-43.93,-54.05,-69.73,-61,0,0,0,0,0,0,0,0,0,0,0,0,0,0,0,0,
631,-50.86,-48.64,-150.9,-146.4,-102.5,-72.25,-69.6,-52.43,-64.05,-11.63,-55.87,-62.16,-60.16,-50.81,-80.47,-73.47,0,0,0,0,0,0,0,0,0,0,0,0,0,0,0,0,
632,-68.08,-53.54,-172.6,-178.7,-99.37,-81.5,-95.97,-84.15,-73.74,-32.06,-46.07,-67.87,-66.13,-38.01,-68.41,-54.1,0,0,0,0,0,0,0,0,0,0,0,0,0,0,0,0,
633,-74.11,-64.9,-181,-200.3,-92.33,-84.24,-110.2,-96.93,-62.91,-42.08,-35.27,-75.26,-69.78,-34.26,-60.22,-43.22,0,0,0,0,0,0,0,0,0,0,0,0,0,0,0,0,
634,-87.81,-84.24,-176.2,-198.6,-102.9,-94.63,-112.8,-86.05,-89.9,-49.14,-60.56,-113.5,-106.7,-51.12,-79.14,-62.45,0,0,0,0,0,0,0,0,0,0,0,0,0,0,0,0,
635,-119.1,-113.1,-187.4,-183.7,-128.6,-107.2,-103.9,-63.24,-129.7,-52.24,-92.85,-147.3,-142.2,-68.32,-95.85,-62.13,0,0,0,0,0,0,0,0,0,0,0,0,0,0,0,0,
636,-134.1,-123.3,-207.8,-174.8,-141.3,-112.4,-94.77,-56.74,-109.2,-51.34,-85.44,-126.5,-129.5,-74.68,-79.46,-38.42,0,0,0,0,0,0,0,0,0,0,0,0,0,0,0,0,
637,-114.3,-114.6,-216,-191.1,-129.2,-117.6,-113,-86.7,-76.35,-63.43,-56.19,-74.05,-104.4,-82.16,-48.57,-25.37,0,0,0,0,0,0,0,0,0,0,0,0,0,0,0,0,
638,-85,-104.9,-216.2,-228.6,-107.2,-110.6,-129.6,-118.1,-68.69,-74.36,-28.13,-24.65,-75.07,-77.46,-20.26,-8.76,0,0,0,0,0,0,0,0,0,0,0,0,0,0,0,0,
639,-46.18,-60.01,-196.3,-227.4,-83.36,-69.05,-90.74,-92.97,-40.49,-54.34,2.878,11.39,-20.93,-49.58,2.391,8.587,0,0,0,0,0,0,0,0,0,0,0,0,0,0,0,0,
640,-8.005,13.17,-158.2,-173.1,-72.71,-34.16,-42.06,-36.1,-29.88,-22.14,5.399,1.949,3.916,-29.13,-0.3553,-4.292,0,0,0,0,0,0,0,0,0,0,0,0,0,0,0,0,
641,-26.91,32.39,-162.1,-151.4,-97.47,-57.68,-49.98,-18.92,-79.74,-11.87,-36.56,-53.34,-30.37,-35.18,-30.16,-38.03,0,0,0,0,0,0,0,0,0,0,0,0,0,0,0,0,
642,-83.59,-6.878,-204.4,-177.3,-126.2,-96.71,-79.83,-35.12,-107.1,-20.18,-73.05,-103.5,-74.47,-57.92,-58.53,-67.21,0,0,0,0,0,0,0,0,0,0,0,0,0,0,0,0,
643,-107.3,-45.77,-214.4,-191.1,-119.9,-102,-92.45,-48.98,-83.79,-31.6,-77.88,-124.4,-104.5,-82.66,-68.65,-77.86,0,0,0,0,0,0,0,0,0,0,0,0,0,0,0,0,
644,-102.8,-74.02,-200.9,-200.3,-101.5,-95.98,-99.86,-62.48,-72.29,-41.45,-65.33,-114.3,-117,-88.95,-59.68,-62.92,0,0,0,0,0,0,0,0,0,0,0,0,0,0,0,0,
645,-90.08,-86.95,-188.7,-202.3,-88.11,-88.6,-96.28,-63.11,-64.14,-46.18,-46,-81.51,-95.61,-73.77,-39.52,-31.71,0,0,0,0,0,0,0,0,0,0,0,0,0,0,0,0,
646,-71.29,-72.84,-158.7,-169.5,-78.88,-76.94,-81.63,-45.8,-47.88,-43.67,-51.28,-64.94,-54.64,-55.04,-30.33,0.5035,0,0,0,0,0,0,0,0,0,0,0,0,0,0,0,0,
647,-69.96,-48.7,-146.7,-153.2,-96.56,-84.17,-79.18,-46.11,-75.78,-41.67,-96.03,-75.68,-21.98,-40.25,-40.3,21,0,0,0,0,0,0,0,0,0,0,0,0,0,0,0,0,
648,-73.59,-22.29,-179.1,-184,-126.1,-95.36,-80.15,-68.46,-123.5,-48.11,-125.1,-72.79,-0.8858,-26.83,-43.77,22.3,0,0,0,0,0,0,0,0,0,0,0,0,0,0,0,0,
649,-48.74,9.963,-200.3,-204.1,-114.2,-72.44,-62.52,-78.26,-97.46,-46.3,-90.24,-36.78,14.92,-8.144,-22.32,18.72,0,0,0,0,0,0,0,0,0,0,0,0,0,0,0,0,
650,-8.895,36.65,-182.5,-188.3,-72.18,-36.03,-37.97,-66.92,-15.29,-19.48,-25.22,-1.39,18.83,14.85,-2.226,22.68,0,0,0,0,0,0,0,0,0,0,0,0,0,0,0,0,
651,14.03,40.49,-163.5,-171.9,-61.11,-30.32,-33.21,-56.06,12.44,3.224,1.435,-6.995,-2.861,20.08,-13.66,14.58,0,0,0,0,0,0,0,0,0,0,0,0,0,0,0,0,
652,-0.0174,11.04,-169.7,-173.3,-86.17,-55.45,-54.87,-60.38,-21.55,-6.19,-17.26,-39.72,-34.72,2.353,-29.17,-4.701,0,0,0,0,0,0,0,0,0,0,0,0,0,0,0,0,
653,-36.78,-27.4,-182.5,-182.3,-95.32,-79.66,-82.6,-72.38,-34.07,-25.06,-26.5,-45.9,-40.55,-14.07,-7.862,3.626,0,0,0,0,0,0,0,0,0,0,0,0,0,0,0,0,
654,-48.86,-34.78,-184.5,-190.1,-72.27,-77.36,-89.18,-79.64,-23.2,-33.31,-6.793,-12.59,-24.97,-21.83,25.96,30.36,0,0,0,0,0,0,0,0,0,0,0,0,0,0,0,0,
655,-20.67,-18.52,-176.9,-185.2,-47.23,-45,-64.86,-78.92,-15.73,-39.29,20.78,29.17,-17.79,-31.17,37.57,31.66,0,0,0,0,0,0,0,0,0,0,0,0,0,0,0,0,
656,24.88,-8.935,-142.8,-157.8,-26.79,-3.188,-26.51,-69.44,22.44,-41.82,52.25,57.39,-18.32,-41.06,41.85,16.78,0,0,0,0,0,0,0,0,0,0,0,0,0,0,0,0,
657,62.96,-8.883,-94.23,-123.3,-3.019,20.4,1.792,-51.07,59.18,-32.53,68.53,61.22,-18.05,-45.05,42.72,9.121,0,0,0,0,0,0,0,0,0,0,0,0,0,0,0,0,T1
658,67.78,-15.71,-83.91,-103.4,-1.272,16.23,9.03,-35.54,27.41,-23.61,46.15,40.15,-27.04,-47.1,25.14,-2.733,0,0,0,0,0,0,0,0,0,0,0,0,0,0,0,0,
659,34.37,-35.66,-111.1,-113,-32.88,-11.48,-13.82,-43.53,-10.62,-34.33,16.58,10.15,-48.32,-59.17,1.105,-25.75,0,0,0,0,0,0,0,0,0,0,0,0,0,0,0,0,
660,-5.52,-58.74,-131.1,-142.5,-46.78,-39.71,-48.47,-56.21,0.694,-46.56,8.771,-10.03,-61.49,-70.59,-14.44,-41.88,0,0,0,0,0,0,0,0,0,0,0,0,0,0,0,0,
661,-16.31,-54.5,-113.2,-131.6,-9.882,-27.39,-39.21,-27.64,4.747,-26.88,9.06,-5.757,-47.03,-55.41,-17.29,-37.42,0,0,0,0,0,0,0,0,0,0,0,0,0,0,0,0,
662,2.583,-15.74,-65.48,-72.32,26.99,12.8,6.553,11.06,2.304,1.184,7.674,8.607,-23.56,-33.22,-12.09,-33.42,0,0,0,0,0,0,0,0,0,0,0,0,0,0,0,0,
663,15.1,20.39,-39.46,-43.96,19.83,23.03,21.34,6.005,16.88,5.384,-6.678,-3.986,-18.38,-36.31,-19.62,-45.99,0,0,0,0,0,0,0,0,0,0,0,0,0,0,0,0,
664,2.295,36.23,-49.59,-53.58,-4.179,10.02,11.84,0.0735,-6.209,12.97,-35.16,-28.46,-12.31,-42.7,-33.18,-51.36,0,0,0,0,0,0,0,0,0,0,0,0,0,0,0,0,
665,-4.716,56.4,-57.31,-44.89,-7.801,19.32,26.94,29.42,-30.01,33.5,-37.05,-19.29,6.89,-37.71,-25.15,-45.4,0,0,0,0,0,0,0,0,0,0,0,0,0,0,0,0,
666,19.48,70.59,-38.69,-18.21,23.2,49.8,56,60.59,24.33,38.01,-4.278,4.873,4.062,-42.09,-10.43,-44.62,0,0,0,0,0,0,0,0,0,0,0,0,0,0,0,0,
667,42.68,43.89,1.022,6.57,62.51,69.96,65.95,80.2,68.18,34.19,12.28,4.84,-17.52,-43.63,-13.31,-41.31,0,0,0,0,0,0,0,0,0,0,0,0,0,0,0,0,
668,23.97,3.832,11.62,12.85,50.08,49.35,42.92,76.33,32.55,37.19,-5.722,-9.404,-14.09,-23.57,-24.65,-33.54,0,0,0,0,0,0,0,0,0,0,0,0,0,0,0,0,
669,-14.85,-6.032,-30.02,-14.59,-5.828,-3.354,-3.105,33.33,-10.17,30.64,-38.14,-24.95,-0.6871,-10.27,-37.68,-31.15,0,0,0,0,0,0,0,0,0,0,0,0,0,0,0,0,
670,-28.23,-2.745,-66.96,-55.1,-42.39,-35.26,-35.21,-12.46,-38.02,11.73,-65.98,-35.41,-15.56,-26.95,-45.96,-38.66,0,0,0,0,0,0,0,0,0,0,0,0,0,0,0,0,
671,-13.18,-4.611,-76.39,-80.06,-44.44,-24.98,-29.37,-24.42,-47.14,0.3401,-59.65,-17.26,-34.47,-49.61,-29.77,-51.5,0,0,0,0,0,0,0,0,0,0,0,0,0,0,0,0,
672,19.81,6.016,-55.95,-63.47,-11.8,10.71,7.057,-3.268,-4.79,8.106,-23.85,15.42,-24.55,-47.08,-1.989,-47.05,0,0,0,0,0,0,0,0,0,0,0,0,0,0,0,0,
673,52.68,27.56,-8.62,-20.5,22.79,42.56,42.4,21.51,18.83,27.05,-13.23,15,-6.986,-28.83,-2.279,-30.85,0,0,0,0,0,0,0,0,0,0,0,0,0,0,0,0,
674,37.98,34.56,-16.87,-27.67,-12.37,25.96,34.95,17.93,-14.36,40.96,-35.03,-13.67,-13.74,-28.97,-28.33,-38.47,0,0,0,0,0,0,0,0,0,0,0,0,0,0,0,0,
675,-14.44,19.9,-60.52,-55.32,-55.06,-14.4,3.607,21.64,-10.88,45.11,-41.57,-23.26,-34.29,-43.73,-39.85,-57.06,0,0,0,0,0,0,0,0,0,0,0,0,0,0,0,0,
676,-17.35,6.897,-23.46,-14.22,-1.045,1.388,9.242,53.46,32.56,41.27,-18,4.392,-27.79,-34.18,-20.39,-43.76,0,0,0,0,0,0,0,0,0,0,0,0,0,0,0,0,
677,44.51,17.65,19.13,13.17,62.22,49.56,37.21,42.58,43.64,28.74,9.221,40.55,6.217,-3.219,3.889,-5.606,0,0,0,0,0,0,0,0,0,0,0,0,0,0,0,0,
678,88.41,32.07,-17.56,-35.09,49.75,59.68,42.64,-2.801,37.97,13.57,12.22,42.85,13.16,3.592,1.313,10.7,0,0,0,0,0,0,0,0,0,0,0,0,0,0,0,0,
679,74.16,24.29,-29.37,-44.36,26.56,50.46,42.63,2.244,19.13,2.736,-14.99,7.006,-19.63,-19.93,-22.74,-8.81,0,0,0,0,0,0,0,0,0,0,0,0,0,0,0,0,
680,30.5,10.35,3.492,-0.0883,13.19,47.53,47.48,29.15,-26.91,-5.699,-47.84,-29.11,-46.42,-41.71,-40.1,-36.03,0,0,0,0,0,0,0,0,0,0,0,0,0,0,0,0,
681,-5.894,8.66,4.531,9.586,0.9187,41.68,43.23,24.89,-27.92,-12.34,-52.26,-29.16,-46.09,-49.18,-35.01,-47.46,0,0,0,0,0,0,0,0,0,0,0,0,0,0,0,0,
682,2.366,23.77,1.344,-0.8457,27.66,49.94,47.89,21.81,26.69,-10.24,-23.64,8.363,-21.9,-40.14,-8.229,-32.85,0,0,0,0,0,0,0,0,0,0,0,0,0,0,0,0,
683,51,58.1,17.64,-6.178,59.58,75.55,68.8,33.63,44.17,4.955,3.219,42.74,12.75,-19.2,15.47,-11.71,0,0,0,0,0,0,0,0,0,0,0,0,0,0,0,0,
684,84.86,90.87,20.79,-12.92,48.48,96.71,92.33,46.89,21.55,26.35,8.143,46.8,30.23,-7.277,15.67,-15.18,0,0,0,0,0,0,0,0,0,0,0,0,0,0,0,0,
685,93.84,106.7,22.01,0.6244,27.31,109.7,115.3,59.85,3.678,39.12,7.883,39.07,31.96,-5.798,9.896,-20.24,0,0,0,0,0,0,0,0,0,0,0,0,0,0,0,0,
686,90.2,107,28.38,12.07,11.63,94.84,105.2,47.56,-21.81,33.28,1.348,22.79,28.95,-4.667,9.779,-6.986,0,0,0,0,0,0,0,0,0,0,0,0,0,0,0,0,
687,50.34,77.95,4.119,-18.34,-13.73,37.43,41.42,3.731,-37.45,19.84,-8.225,1.922,17.97,-2.391,19.03,6.576,0,0,0,0,0,0,0,0,0,0,0,0,0,0,0,0,
688,3.266,35.1,-47.38,-61.65,-29.87,-13.16,-17.03,-26.73,-26.08,17.15,10.07,7.735,12.23,6.12,41.07,17.19,0,0,0,0,0,0,0,0,0,0,0,0,0,0,0,0,
689,0.7456,20.07,-63.3,-71.23,-11.54,-17.32,-25.62,-19.95,-16.29,20.4,34.97,21.39,10.62,8.778,40.02,8.433,0,0,0,0,0,0,0,0,0,0,0,0,0,0,0,0,
690,12.65,24.64,-35.08,-53.52,9.058,-3.573,-12.01,-8.999,-2.341,22.57,33.83,17.64,12.59,6.792,19.33,-6.684,0,0,0,0,0,0,0,0,0,0,0,0,0,0,0,0,
691,14.23,31.7,-41.67,-56.51,-22.82,-2.08,-2.566,-22.05,12.51,29.37,35.81,25.34,38.52,25.18,29.28,14.04,0,0,0,0,0,0,0,0,0,0,0,0,0,0,0,0,
692,18.76,42.73,-68.19,-70.31,-50.53,-10.66,-5.006,-28.37,2.578,27.38,36.75,26.16,46.16,29.55,34.08,14.46,0,0,0,0,0,0,0,0,0,0,0,0,0,0,0,0,
693,3.057,28.14,-31.12,-45.89,-3.793,-26.92,-28.64,-11.89,-9.819,8.591,6.737,-12.93,0.8607,-5.509,1.661,-33.85,0,0,0,0,0,0,0,0,0,0,0,0,0,0,0,0,
694,-26.85,-18.93,-6.885,-34.12,26.98,-43.61,-56.37,-16.81,-5.519,-2.339,-7.254,-34.33,-29.32,-22,-4.845,-45.11,0,0,0,0,0,0,0,0,0,0,0,0,0,0,0,0,
695,-9.888,-44.07,-46.76,-63.61,8.52,-28.77,-44.08,-29.58,22.57,4.685,26.24,-0.8506,-15.57,-13.66,19.08,-24.17,0,0,0,0,0,0,0,0,0,0,0,0,0,0,0,0,
696,45.68,-24.43,-27.9,-44.41,34.74,18.14,7.764,0.6457,57.84,15.97,45.82,28.78,-2.794,-23.51,20.51,-31.33,0,0,0,0,0,0,0,0,0,0,0,0,0,0,0,0,
697,61.4,1.7,29.92,8.928,60.53,37.1,35.93,29.25,37.06,21.78,24.29,20.72,9.113,-26.16,17.2,-30.11,0,0,0,0,0,0,0,0,0,0,0,0,0,0,0,0,
698,29.2,12.14,16.43,7.505,30.04,13.35,23.54,20.49,2.917,20.62,16.84,14.19,30.09,-2.21,36.08,1.27,0,0,0,0,0,0,0,0,0,0,0,0,0,0,0,0,
699,14.16,19.01,-6.925,-14.31,25.71,-0.8469,17.23,17.73,34.43,19.22,32.58,20.4,30.18,8.964,41.67,6.457,0,0,0,0,0,0,0,0,0,0,0,0,0,0,0,0,
700,21.5,16.1,-3.191,-15.14,42.76,5.331,18.76,21.43,53.31,14.47,22.35,5.541,3.677,-4.88,11.41,-30.75,0,0,0,0,0,0,0,0,0,0,0,0,0,0,0,0,
701,14.96,-3.974,-3.985,-5.408,38.69,19.32,17.77,15.76,27.65,6.447,2.829,-10.59,-10.91,-10.55,-12.08,-48.01,0,0,0,0,0,0,0,0,0,0,0,0,0,0,0,0,
702,16.54,-4.722,19.05,20.71,48.28,42.16,35.32,18.36,38.87,17.09,12.91,5.187,0.9163,4.338,-3.203,-26.99,0,0,0,0,0,0,0,0,0,0,0,0,0,0,0,0,
703,32.65,20.86,22.38,24.93,34.46,35.26,39.57,13.1,54.37,31.92,14.68,8.776,4.31,9.129,0.377,-24.78,0,0,0,0,0,0,0,0,0,0,0,0,0,0,0,0,
704,18.85,21.75,-35.75,-16.87,-20.14,-9.25,6.452,-5.365,22.9,22.4,-7.171,-13.58,-3.259,1.95,-4.555,-32.7,0,0,0,0,0,0,0,0,0,0,0,0,0,0,0,0,
705,-2.865,6.903,-68.72,-39.48,-26.79,-20.81,-1.819,-3.722,4.351,20.21,-5.054,-3.395,14.23,20.33,15.73,-5.574,0,0,0,0,0,0,0,0,0,0,0,0,0,0,0,0,
706,16.19,23.68,-44.86,-18.05,10.13,11.66,27.04,10.71,25.42,36.6,15.31,28.08,33.48,43.15,33.07,14.58,0,0,0,0,0,0,0,0,0,0,0,0,0,0,0,0,
707,31.3,36.85,-10.94,6.214,21.36,25.58,32.37,13.38,44.13,30.23,14.09,20.68,13.38,26.13,16.73,-0.5587,0,0,0,0,0,0,0,0,0,0,0,0,0,0,0,0,
708,-4.2,9.518,12.57,19.46,16.32,10.28,14.25,8.992,38.1,7.98,1.18,-8.838,-16.59,-0.0495,5.286,-5.77,0,0,0,0,0,0,0,0,0,0,0,0,0,0,0,0,
709,-39.94,-12.05,6.308,16.87,12.66,-3.799,6.811,3.615,21.28,2.469,-3.3,-9.967,-16.33,4.412,23.14,12.71,0,0,0,0,0,0,0,0,0,0,0,0,0,0,0,0,
710,-28.78,4.288,-17.91,-8.268,6.596,-7.681,7.567,2.306,18.58,11.15,0.4226,17.82,11.99,30.48,44.09,30.57,0,0,0,0,0,0,0,0,0,0,0,0,0,0,0,0,
711,-1.486,33.93,-25.94,-28.3,1.923,-4.531,9.601,7.18,31.35,25.73,12.19,41.37,43.07,55.72,49.83,35.55,0,0,0,0,0,0,0,0,0,0,0,0,0,0,0,0,
712,4.72,49.41,-28.54,-20.68,-7.405,-1.016,11.75,8.317,34.44,33.53,22.52,43.27,47.97,56.69,45,24.6,0,0,0,0,0,0,0,0,0,0,0,0,0,0,0,0,
713,-1.89,44.35,-26.89,-5.237,-10.82,0.4812,11.18,5.73,23.79,24.63,22.18,38.32,28.82,33.55,37.62,7.48,0,0,0,0,0,0,0,0,0,0,0,0,0,0,0,0,
714,-4.374,32.24,-7.644,-4.878,1.448,0.1353,3.897,3.596,27.71,14.87,21.46,34.1,10.43,15.79,31.09,-0.3105,0,0,0,0,0,0,0,0,0,0,0,0,0,0,0,0,
715,-13.24,21.02,-6.127,-19.56,1.846,-16.65,-19.89,-3.417,39.1,13.36,20.22,16.42,0.8823,14.82,27.71,2.587,0,0,0,0,0,0,0,0,0,0,0,0,0,0,0,0,
716,-31.26,11.04,-36.99,-39.95,-7.481,-42.79,-44.19,-11.9,22.03,15.11,11.14,1.375,5.64,25.14,35.15,19.93,0,0,0,0,0,0,0,0,0,0,0,0,0,0,0,0,
717,-27.89,11.94,-49.89,-52.51,3.649,-44.09,-41.93,-16.12,4.277,17.08,10.92,13.93,19.81,38.48,45.54,49.18,0,0,0,0,0,0,0,0,0,0,0,0,0,0,0,0,
718,-10.03,9.944,-30.56,-43.85,15.91,-30.22,-31.37,-21.21,19.53,9.479,23.01,25.33,15.95,35.12,38.72,55.08,0,0,0,0,0,0,0,0,0,0,0,0,0,0,0,0,
719,-22.14,-15.27,-17.04,-24.33,5.098,-37.43,-39.85,-30.7,30.83,-10.34,24.61,7.648,-10.33,10.98,24.15,26.38,0,0,0,0,0,0,0,0,0,0,0,0,0,0,0,0,
720,-54.2,-48.61,-20.06,-30.12,-9.818,-60.83,-62.62,-45.47,20.28,-29.64,8.882,-25.26,-46.97,-16.9,9.463,-5.998,0,0,0,0,0,0,0,0,0,0,0,0,0,0,0,0,
721,-82.51,-79.52,-26.69,-57.8,-13.89,-74.78,-82,-53.4,0.7334,-35.13,-22.39,-64.27,-88.33,-35.98,-21.45,-33.67,0,0,0,0,0,0,0,0,0,0,0,0,0,0,0,0,
722,-113.5,-100.6,-24.92,-52.23,-6.23,-65.66,-76.34,-32.85,-22.18,-20.64,-55.03,-92.38,-107.9,-36.99,-44.18,-49.69,0,0,0,0,0,0,0,0,0,0,0,0,0,0,0,0,
723,-119.8,-94.2,-11.96,-16.52,9.746,-41.51,-51.75,-3.641,-17.2,-1.163,-56.91,-85.66,-96.17,-27.57,-33.26,-41.79,0,0,0,0,0,0,0,0,0,0,0,0,0,0,0,0,
724,-89.94,-81.6,-8.045,-5.531,15.9,-30.85,-42.92,-4.643,-0.9411,-2.037,-42.68,-69.5,-85.06,-31.41,-22.37,-33.19,0,0,0,0,0,0,0,0,0,0,0,0,0,0,0,0,
725,-75.28,-83.64,-18.89,-15.15,3.129,-42.21,-51.99,-24.65,-33.16,-23.95,-52.28,-72.94,-80.3,-40.96,-22.81,-27.51,0,0,0,0,0,0,0,0,0,0,0,0,0,0,0,0,
726,-83.94,-76.35,-33.11,-25.39,-14.91,-54.18,-58.01,-37.51,-65.82,-39.96,-60.58,-69.04,-60.23,-28.35,-11.74,-8.748,0,0,0,0,0,0,0,0,0,0,0,0,0,0,0,0,
727,-73.99,-53.21,-47.29,-39.14,-18.19,-50.47,-55.5,-42.44,-29.11,-29.44,-30.07,-37.53,-27.6,-1.485,1.768,5.394,0,0,0,0,0,0,0,0,0,0,0,0,0,0,0,0,
728,-49.32,-36.81,-44.15,-39.75,-1.504,-40.42,-52.59,-43.71,15.22,-17.24,1.892,-14.87,-8.891,4.94,-2.716,-0.5227,0,0,0,0,0,0,0,0,0,0,0,0,0,0,0,0,
729,-45.24,-39.76,-31,-36.19,2.85,-46.63,-64,-52.39,-3.918,-37.75,-8.406,-26.08,-20.85,-18.24,-22.14,-22.67,0,0,0,0,0,0,0,0,0,0,0,0,0,0,0,0,
730,-50.74,-52.51,-36.29,-46.29,-26.71,-57.67,-76.29,-69.83,-39.43,-66.89,-21.77,-25.27,-33.36,-38.9,-21.32,-29.1,0,0,0,0,0,0,0,0,0,0,0,0,0,0,0,0,
731,-22.88,-51.18,-38.44,-48.37,-46.64,-47.28,-68.24,-79.59,-18.23,-72.47,8.271,17.7,-16.74,-31.83,17.99,9.713,0,0,0,0,0,0,0,0,0,0,0,0,0,0,0,0,
732,21.92,-37.88,-33.23,-53.55,-29.88,-38.87,-64.53,-83.17,33.11,-67.69,40.32,48.74,-1.451,-14.44,42.24,38.26,0,0,0,0,0,0,0,0,0,0,0,0,0,0,0,0,
733,27.81,-27.7,-45.62,-68.65,-12.11,-42.56,-64.47,-76.37,44.44,-56.44,31.31,33.33,-1.304,-3.288,21.16,14.6,0,0,0,0,0,0,0,0,0,0,0,0,0,0,0,0,
734,2.172,-10.11,-37.29,-43.47,-1.916,-22.25,-32.54,-43.86,28.66,-33.8,11.38,2.36,5.887,2.747,-0.6828,-7.399,0,0,0,0,0,0,0,0,0,0,0,0,0,0,0,0,
735,-20.66,0.6982,5.454,4.704,12.51,1.779,-6.446,-17.9,23.11,-25.05,2.442,-23.96,-2.44,-12.37,-5.516,-10.65,0,0,0,0,0,0,0,0,0,0,0,0,0,0,0,0,
736,-39.89,-25.93,17.16,7.059,3.346,-14.45,-29.05,-30.75,11.15,-39.46,-4.218,-35.43,-40.13,-48.13,-8.418,-25.4,0,0,0,0,0,0,0,0,0,0,0,0,0,0,0,0,
737,-41.62,-60.4,-16.27,-25.43,-27.44,-41.24,-55.64,-50.87,-4.87,-50.38,-3.577,-22.72,-61.64,-63.16,-7.4,-38.03,0,0,0,0,0,0,0,0,0,0,0,0,0,0,0,0,
738,-17.77,-64.48,-47.97,-53.73,-38.92,-48.13,-59,-53.02,-10.85,-44.74,-0.7541,-8.711,-50.18,-49.48,-7.788,-35.47,0,0,0,0,0,0,0,0,0,0,0,0,0,0,0,0,
739,-4.522,-52.08,-55.64,-65.8,-31.12,-46.11,-57.41,-47.98,-16.17,-32.2,-5.463,-8.805,-35.29,-41.88,-16.3,-34.45,0,0,0,0,0,0,0,0,0,0,0,0,0,0,0,0,
740,-8.813,-41.1,-35.3,-41.72,-15.93,-33.05,-44.14,-34.27,-2.282,-23.5,-7.582,-11.27,-33.45,-45,-21.07,-35.73,0,0,0,0,0,0,0,0,0,0,0,0,0,0,0,0,
741,-9.967,-42.92,-3.472,2.963,-4.066,-25.08,-33.59,-21.45,16.43,-29.43,-13.13,-20.04,-42.1,-44.12,-17.89,-28.04,0,0,0,0,0,0,0,0,0,0,0,0,0,0,0,0,
742,-33.41,-64.65,-2.667,11.21,-22.4,-49.66,-53.08,-33.43,-8.301,-46.34,-29.06,-37.92,-47.05,-40.15,-16.28,-17.17,0,0,0,0,0,0,0,0,0,0,0,0,0,0,0,0,
743,-77.06,-76.57,-27.2,-16.6,-42.55,-70.9,-66.85,-50.67,-25.93,-51.35,-28.91,-43.65,-42.03,-34.68,-17.14,-13.87,0,0,0,0,0,0,0,0,0,0,0,0,0,0,0,0,
744,-76.47,-65.61,-35.33,-34.46,-28.86,-60.18,-55.75,-50.39,2.99,-45.46,-11.14,-35.83,-47.43,-38.21,-18.88,-23.18,0,0,0,0,0,0,0,0,0,0,0,0,0,0,0,0,
745,-37.94,-61.2,-34.72,-32.25,-20.37,-51.07,-52.57,-47.55,4.839,-44.82,-11.81,-34.79,-59.75,-50.14,-28.26,-43.18,0,0,0,0,0,0,0,0,0,0,0,0,0,0,0,0,
746,-21.29,-57.25,-35.7,-18.1,-26.24,-48.48,-49.86,-40.09,-20.56,-36.45,-28.04,-36.96,-48.84,-39.94,-35.06,-49.38,0,0,0,0,0,0,0,0,0,0,0,0,0,0,0,0,
747,-20.4,-45.57,-31.24,-6.97,-23.78,-42.24,-41.74,-26.4,-6.742,-23.19,-27.94,-30.59,-34.44,-19.36,-22.63,-32.13,0,0,0,0,0,0,0,0,0,0,0,0,0,0,0,0,
748,-16.71,-57.05,-46.69,-19.24,-38.58,-54.22,-54.57,-28.24,13.42,-29.29,-14.2,-22.45,-42.32,-19.79,-4.883,-17.06,0,0,0,0,0,0,0,0,0,0,0,0,0,0,0,0,
749,-21.69,-72.09,-70.58,-35.79,-59.41,-72.37,-67.55,-30.95,0.7313,-33.32,-6.423,-20.02,-39.43,-11.92,1.343,-7.84,0,0,0,0,0,0,0,0,0,0,0,0,0,0,0,0,
750,-34.49,-57.24,-63.94,-35.48,-47.09,-71.28,-60.7,-16.38,-11.02,-16.58,-10.92,-29.54,-21.33,7.416,-7.021,-2.511,0,0,0,0,0,0,0,0,0,0,0,0,0,0,0,0,
751,-54.16,-40.15,-44.4,-24.01,-28.35,-59.64,-51.02,-7.226,-10.81,-5.218,-25.1,-46.02,-18.47,1.167,-25.68,-7.135,0,0,0,0,0,0,0,0,0,0,0,0,0,0,0,0,
752,-64.53,-24.73,-27.22,0.3719,-28.72,-39.6,-31.56,-11.53,-21.06,-3.409,-32.7,-41.5,-8.917,-0.8855,-25.05,5.993,0,0,0,0,0,0,0,0,0,0,0,0,0,0,0,0,
753,-39.45,0.8156,-22.24,5.993,-41.09,-24.27,-14.64,-23.26,-42.69,-3.424,-24.47,-13.97,17.55,18.74,-1.246,35.75,0,0,0,0,0,0,0,0,0,0,0,0,0,0,0,0,
754,-3.62,4.555,-49.5,-30.76,-62.05,-29.65,-25.59,-37.82,-42.18,-10.54,-13.74,11.5,26.63,18.94,8.259,46.88,0,0,0,0,0,0,0,0,0,0,0,0,0,0,0,0,
755,16.04,-5.153,-66.51,-44.85,-64.14,-24.02,-27.32,-31.96,0.613,-5.798,1.169,35.52,27.52,14.16,12.15,47.02,0,0,0,0,0,0,0,0,0,0,0,0,0,0,0,0,
756,25.53,10.51,-45.25,-15.31,-39.83,-4.506,-6.383,-8.009,30.24,10.65,22.84,47.19,32.43,22.05,24.69,35.56,0,0,0,0,0,0,0,0,0,0,0,0,0,0,0,0,
757,5.609,24,-29.26,-7.111,-37.44,-14.38,-8.251,-0.813,2.896,3.76,21.47,18.98,12.88,3.975,11.38,0.913,0,0,0,0,0,0,0,0,0,0,0,0,0,0,0,0,
758,-37.58,4.75,-29.97,-18.14,-56.98,-34.28,-22.81,-11.07,-21.11,-13.11,4.832,-4.669,-9.021,-21.4,-3.765,-15.19,0,0,0,0,0,0,0,0,0,0,0,0,0,0,0,0,
759,-37.29,-11.75,-31.36,-12.14,-46.26,-19.13,-10.86,-12.87,-4.329,-6.134,18.21,28.11,12.17,-7.249,24.38,5.454,0,0,0,0,0,0,0,0,0,0,0,0,0,0,0,0,
760,5.512,1.503,-37.54,-14.27,-21,3.062,3.891,-4.079,2.358,5.815,32.76,57.11,43,13.58,36.54,15.11,0,0,0,0,0,0,0,0,0,0,0,0,0,0,0,0,
761,15.29,17.59,-48.67,-35.25,-29.29,-8.518,-9.783,-0.0444,-10.94,3.153,6.85,30.58,38.41,5.482,0.4398,-7.613,0,0,0,0,0,0,0,0,0,0,0,0,0,0,0,0,
762,-10.53,15.73,-56.77,-40.14,-52.21,-31.35,-29.42,-0.3815,-11.61,2.635,-9.504,8.289,22.36,-5.33,-12.38,-28.64,0,0,0,0,0,0,0,0,0,0,0,0,0,0,0,0,
763,-26.02,9.662,-52.01,-22.9,-65.36,-36.06,-29.32,3.466,-21.29,8.731,1.679,13.49,18.47,-3.963,2.043,-30.1,0,0,0,0,0,0,0,0,0,0,0,0,0,0,0,0,
764,-43.74,2.707,-48.13,-20.67,-84.02,-41.26,-26.46,2.559,-51.7,6.493,-10.68,-0.5826,10.66,-7.188,-5.804,-26.78,0,0,0,0,0,0,0,0,0,0,0,0,0,0,0,0,
765,-66.89,-10.56,-65.33,-44.92,-93.9,-55.62,-35.52,-2.735,-56.43,1.468,-26.24,-12.6,2.624,-8.057,-10.14,-17.57,0,0,0,0,0,0,0,0,0,0,0,0,0,0,0,0,
766,-54.91,-10.45,-72.31,-50.94,-73.18,-49.89,-32.95,4.903,-33.45,10.89,-8.938,8.334,11,8.679,0.3462,-9.269,0,0,0,0,0,0,0,0,0,0,0,0,0,0,0,0,
767,-21.67,9.811,-48.98,-22.95,-52.23,-26.62,-14.72,10.06,-19.9,21.69,4.118,17.62,16.6,21.84,-4.366,-22.95,0,0,0,0,0,0,0,0,0,0,0,0,0,0,0,0,
768,-9.35,17.73,-37.8,-13.4,-56.82,-22.01,-16.43,-11.5,-10.83,11.9,1.375,6.164,3.211,14.84,-6.691,-34.02,0,0,0,0,0,0,0,0,0,0,0,0,0,0,0,0,
769,-9.732,1.06,-52.89,-35.53,-65.8,-34.86,-35.9,-34.56,-6.654,-0.5298,0.8042,8.234,-5.721,10.08,0.2474,-19.51,0,0,0,0,0,0,0,0,0,0,0,0,0,0,0,0,
770,-3.606,-4.284,-55.45,-41.76,-53.22,-32.6,-29.57,-26.09,-16.49,6.865,-5.488,13.84,9.33,21.24,-1.362,-0.2481,0,0,0,0,0,0,0,0,0,0,0,0,0,0,0,0,
771,8.759,19.79,-36.21,-25.86,-28.43,-10.6,0.5351,0.7848,-12.25,14.72,-9.549,7.833,27.07,27.87,-1.188,8.54,0,0,0,0,0,0,0,0,0,0,0,0,0,0,0,0,
772,13.45,32.72,-22.73,-12.41,-20.66,1.003,8.997,13.89,5.212,7.904,-6.86,-5.232,17.35,13.93,-8.866,-1.733,0,0,0,0,0,0,0,0,0,0,0,0,0,0,0,0,
773,-1.683,9.248,-18.05,-3.118,-19.86,-8.491,-10.57,2.645,10.38,4.337,-8.875,-16.37,-2.172,-1.754,-21.82,-15.27,0,0,0,0,0,0,0,0,0,0,0,0,0,0,0,0,
774,-12.06,-14.22,-11.01,-8.461,3.152,-15,-26.19,-22,14.12,5.05,-3.092,-8.098,-2.017,0.0945,-6.933,-2.744,0,0,0,0,0,0,0,0,0,0,0,0,0,0,0,0,
775,-4.928,-20.65,-15.73,-32.84,23.55,-17.27,-32.69,-42.17,18.83,-5.506,3.854,0.0923,-8.775,-1.941,0.2172,1.401,0,0,0,0,0,0,0,0,0,0,0,0,0,0,0,0,
776,-14.94,-32.78,-33.57,-50.39,16.75,-31.23,-42.19,-43.65,19.36,-12.29,-10.1,-21.18,-34.31,-20.27,-32.01,-31.6,0,0,0,0,0,0,0,0,0,0,0,0,0,0,0,0,
777,-40.23,-39.19,-32.31,-50.09,16.51,-33.69,-39.87,-27.53,20.18,0.6483,-27.38,-39.81,-34.05,-23.33,-51.12,-55.81,0,0,0,0,0,0,0,0,0,0,0,0,0,0,0,0,
778,-41.91,-22.54,-1.761,-35.21,32.81,-12.42,-22.08,-14.78,3.495,7.501,-32.46,-31.88,-16.02,-8.331,-39.2,-52.23,0,0,0,0,0,0,0,0,0,0,0,0,0,0,0,0,
779,-24.03,-16.06,19.37,-23.62,30.74,-7.865,-26.13,-33.07,-12.01,-15.99,-23.14,-15.89,-29.22,-10.01,-17.6,-46.25,0,0,0,0,0,0,0,0,0,0,0,0,0,0,0,0,
780,-8.868,-42.4,1.339,-49.51,16.88,-28.05,-58.63,-76.24,14.27,-48.65,11.25,8.838,-51.26,-20.91,19.7,-33.91,0,0,0,0,0,0,0,0,0,0,0,0,0,0,0,0,
781,-0.5795,-70.91,-21.79,-82.86,24.02,-37.01,-76.42,-93.96,39.76,-58.86,40.07,27.56,-46.95,-16.17,41.8,-17.44,0,0,0,0,0,0,0,0,0,0,0,0,0,0,0,0,
782,-6.936,-73.9,-18.55,-75.47,38.19,-36.93,-68.5,-72.58,25.21,-47.62,17.77,5.887,-42.19,-12.8,7.809,-29.6,0,0,0,0,0,0,0,0,0,0,0,0,0,0,0,0,
783,-21.54,-55.97,-9.299,-60.57,38.96,-34.91,-53.23,-52.6,18.84,-26.03,-26.03,-25.22,-43.61,-16.38,-36.14,-54.6,0,0,0,0,0,0,0,0,0,0,0,0,0,0,0,0,
784,-14.85,-26.48,1.982,-52.45,38.46,-12.77,-31.87,-41.86,33.42,2.896,-41.09,-23.93,-30.06,-7.396,-41.9,-49.41,0,0,0,0,0,0,0,0,0,0,0,0,0,0,0,0,
785,2.403,-7.278,5.932,-36.26,27.27,-6.035,-29.16,-37.9,17.48,14.08,-44.47,-21.41,-29.5,-3.975,-39.89,-34.39,0,0,0,0,0,0,0,0,0,0,0,0,0,0,0,0,
786,-12.21,-30.96,-28.6,-52.8,-3.28,-46.07,-64.41,-57.82,-13.46,-6.452,-48.31,-32.47,-53.93,-14.31,-36.82,-27.88,0,0,0,0,0,0,0,0,0,0,0,0,0,0,0,0,
787,-34.1,-72.51,-57.77,-81.67,-9.364,-65.8,-81.6,-66.65,2.882,-18.29,-18.73,-19.95,-54.41,-0.1609,-0.9719,-9.525,0,0,0,0,0,0,0,0,0,0,0,0,0,0,0,0,
788,-13.51,-74.23,-37.02,-57.42,20.51,-33.32,-50.49,-37.8,37.34,-4.526,23.7,5.945,-34.5,27.42,34.46,-2.036,0,0,0,0,0,0,0,0,0,0,0,0,0,0,0,0,
789,13.08,-47.35,-8.513,-24.7,35.16,-8.671,-22.33,-15.45,27.48,1.643,26.22,6.722,-36.68,23.59,28.68,-17.25,0,0,0,0,0,0,0,0,0,0,0,0,0,0,0,0,
790,1.819,-27.59,8.691,-19.61,18.28,-7.909,-14.92,-11.04,3.272,-2.731,7.397,-5.918,-38.15,5.334,12.52,-15.16,0,0,0,0,0,0,0,0,0,0,0,0,0,0,0,0,
791,-15.14,-9.964,16.16,-9.185,-7.089,-12.1,-10.37,-6.688,1.218,-0.2699,-3.039,-8.452,-15.28,1.874,11.25,4.942,0,0,0,0,0,0,0,0,0,0,0,0,0,0,0,0,
792,-15.49,1.964,-6.999,-13.54,-25.86,-24.79,-14.22,-10.35,-3.923,6.148,-16.27,-5.45,2.022,1.673,8.651,14.14,0,0,0,0,0,0,0,0,0,0,0,0,0,0,0,0,
793,-15.16,-2.82,-28.95,-30.04,-27.18,-29.81,-19.15,-8.422,-14.79,12.43,-28.79,-12.95,-8.03,-9.544,-9.434,-1.111,0,0,0,0,0,0,0,0,0,0,0,0,0,0,0,0,
794,-14.39,-17.23,-12.56,-10.1,-11.09,-16.63,-13.28,3.652,-8.832,14.07,-24.2,-28.72,-33.95,-24.89,-28.08,-31.78,0,0,0,0,0,0,0,0,0,0,0,0,0,0,0,0,
795,-3.127,-32.13,19.55,13.95,15.44,2.558,-1.733,-0.8165,10.38,11.84,-3.253,-22.92,-42.04,-21.41,-14.58,-33.82,0,0,0,0,0,0,0,0,0,0,0,0,0,0,0,0,
796,13.4,-30,36.95,2,28.11,14.55,4.421,-18.18,22.42,11.05,11.09,-5.453,-21.36,1.838,11.77,-0.19,0,0,0,0,0,0,0,0,0,0,0,0,0,0,0,0,
797,4.268,-18.98,8.976,-25.21,-15.76,-13.4,-20.22,-35.52,1.946,3.302,-7.575,-22.6,-7.064,18.79,2.41,25,0,0,0,0,0,0,0,0,0,0,0,0,0,0,0,0,
798,-38.09,-30.33,-48.46,-46.65,-76.22,-58.88,-52.39,-41.39,-43.15,-5.867,-34.71,-44.83,-5.221,28.62,-15.49,35.47,0,0,0,0,0,0,0,0,0,0,0,0,0,0,0,0,
799,-47.88,-37.54,-46.75,-31.77,-59.22,-40.68,-30.76,-19.05,-54.34,-4.555,-24.78,-18.48,8.333,33.77,-1.018,41.89,0,0,0,0,0,0,0,0,0,0,0,0,0,0,0,0,
800,3.934,-15.45,12.85,10.09,0.1422,12.78,7.176,-6.308,-10.84,-9.041,6.805,20.03,18.94,14.83,15.48,32.49,0,0,0,0,0,0,0,0,0,0,0,0,0,0,0,0,
801,47.53,-4.943,34.83,14.92,11.39,20.06,0.9514,-35.12,29.02,-22.63,20.89,27.89,12.53,-14.73,12.19,10.9,0,0,0,0,0,0,0,0,0,0,0,0,0,0,0,0,
802,50.37,-11.78,24.14,0.8576,-0.1328,6.467,-8.877,-49.14,27.24,-23.17,15.14,20.94,6.151,-24.66,4.052,-6.064,0,0,0,0,0,0,0,0,0,0,0,0,0,0,0,0,
803,36.14,-4.803,23.05,12.68,-7.386,-1.302,-2.226,-18.48,8.983,-5.704,-3.01,4.402,3.728,-22.9,-14.81,-18.72,0,0,0,0,0,0,0,0,0,0,0,0,0,0,0,0,
804,1.749,3.612,-2.328,10.51,-38.79,-21.37,-7.369,7.626,-12.78,16.13,-23.8,-16.29,2.079,-23.92,-35.85,-34.4,0,0,0,0,0,0,0,0,0,0,0,0,0,0,0,0,
805,-20.1,3.518,-25.1,-1.497,-46.7,-13.12,0.8188,11.31,-28.29,24.33,-15.54,-1.534,9.701,-22.02,-15.66,-32.99,0,0,0,0,0,0,0,0,0,0,0,0,0,0,0,0,
806,22.74,8.061,13.06,22.67,2.662,37.66,31.63,9.216,-4.138,13.57,24.47,42.9,27.58,-14.39,34.74,9.1,0,0,0,0,0,0,0,0,0,0,0,0,0,0,0,0,
807,74.1,13.11,46.08,41.13,25.16,59.69,42.41,-0.8659,27.27,2.815,46.82,59.71,47.43,-0.9083,58.27,61.76,0,0,0,0,0,0,0,0,0,0,0,0,0,0,0,0,
808,65.18,19.12,27.36,31.49,1.549,42.32,35.75,-0.5019,8.072,7.428,33.79,45.8,57.61,18.8,51.79,79.89,0,0,0,0,0,0,0,0,0,0,0,0,0,0,0,0,
809,37.62,27.14,17.39,37.52,-1.063,32.91,32.42,23.77,-17.94,17.75,16.4,34.85,43.52,26.75,38.42,60.7,0,0,0,0,0,0,0,0,0,0,0,0,0,0,0,0,
810,25.2,16.18,19.23,34.68,1.199,22.65,17.17,28.66,1.534,15.58,10.36,26.21,12.44,8.921,22.6,25,0,0,0,0,0,0,0,0,0,0,0,0,0,0,0,0,
811,8.958,-5.814,6.082,0.9025,-8.339,6.71,0.6189,6.592,25.72,3.675,13.31,20.84,-4.288,-14,16.15,-3.446,0,0,0,0,0,0,0,0,0,0,0,0,0,0,0,0,
812,7.559,-3.559,25.51,3.475,20.79,18.49,9.902,6.809,16.22,-0.8864,13.46,26.94,-0.3962,-25.17,12.84,-12.38,0,0,0,0,0,0,0,0,0,0,0,0,0,0,0,0,
813,31.87,12.41,77.23,47,58.89,36.72,21.74,20.65,-0.0321,-7.114,1.549,28.65,-0.6525,-33.5,-0.8256,-12.9,0,0,0,0,0,0,0,0,0,0,0,0,0,0,0,0,
814,39.38,8.048,75.36,53.46,37.11,17.22,7.602,9.97,-2.087,-25.17,-5.665,21.18,-9.412,-33.9,-4.288,-12.33,0,0,0,0,0,0,0,0,0,0,0,0,0,0,0,0,
815,17.3,-11.21,18.5,21.39,-7.796,-14.49,-12.41,-6.764,-13.21,-28.26,-4.248,17.8,-8.873,-15.64,3.936,-3.571,0,0,0,0,0,0,0,0,0,0,0,0,0,0,0,0,
816,-1.285,-25.91,1.834,9.79,-10.68,-16.32,-14.16,-5.898,-24.97,-8.872,-8.477,14.32,-5.462,-1.818,-2.277,-1.567,0,0,0,0,0,0,0,0,0,0,0,0,0,0,0,0,
817,-6.106,-37,38.56,26.2,17.25,-3.599,-10.95,-1.061,-2.512,0.407,-17.79,-1.753,-19.25,-16.77,-21.13,-25.6,0,0,0,0,0,0,0,0,0,0,0,0,0,0,0,0,
818,-14.96,-45.46,59.57,40.52,31.37,-5.835,-17.6,-4.391,18.51,-7.889,-29.8,-16.4,-27.59,-36.18,-26.84,-40.82,0,0,0,0,0,0,0,0,0,0,0,0,0,0,0,0,
819,-21.41,-35.16,55.74,46.15,22.53,-13.77,-13.79,-0.8953,4.555,-8.155,-31.37,-5.982,-2.564,-28.55,-8.707,-27.23,0,0,0,0,0,0,0,0,0,0,0,0,0,0,0,0,
820,-9.175,-2.625,46.52,51.13,3.623,-17.39,4.209,19.39,-17.36,4.563,-26.61,1.175,12.83,-19.23,-2.078,-35.7,0,0,0,0,0,0,0,0,0,0,0,0,0,0,0,0,
821,-8.095,12.52,22.66,45.77,-25.59,-29.18,0.797,30.23,-43.24,7.48,-45.9,-22.9,-12.15,-36.02,-26.78,-63.66,0,0,0,0,0,0,0,0,0,0,0,0,0,0,0,0,
822,-28.29,-12.05,14.71,38.31,-35.41,-31.17,-12,25.71,-45.76,1.544,-50.34,-25.84,-24.42,-46,-32.91,-53.84,0,0,0,0,0,0,0,0,0,0,0,0,0,0,0,0,
823,-18.46,-30.31,51.73,57.74,6.057,-3.657,2.892,33.61,-1.815,8.901,-15.67,1.913,-7.298,-28.53,-19.04,-27.28,0,0,0,0,0,0,0,0,0,0,0,0,0,0,0,0,
824,6.136,-18.32,75.76,69.68,33.1,6.002,9.175,35.72,-1.054,13.67,-22.18,-12.15,-3.466,-15.66,-37.87,-26.22,0,0,0,0,0,0,0,0,0,0,0,0,0,0,0,0,
825,-12.13,-7.75,46.46,35.72,-1.244,-22.64,-12.31,16.53,-48.74,0.607,-57.2,-46.7,-5.149,-17.96,-57.44,-32.7,0,0,0,0,0,0,0,0,0,0,0,0,0,0,0,0,
826,-30.73,0.6681,20.61,17.69,-22.57,-27.69,-5.779,23.58,-33.41,1.381,-38.95,-35.75,7.749,-13.74,-41.37,-25.35,0,0,0,0,0,0,0,0,0,0,0,0,0,0,0,0,
827,-14.22,15.96,32.46,47.45,-6.744,3.899,28.72,56.96,4.001,20.43,-17.25,-13.27,17.07,0.8127,-23.83,-5.179,0,0,0,0,0,0,0,0,0,0,0,0,0,0,0,0,
828,-4.355,18.11,48.02,67.43,-3.131,24.32,42.14,61.8,-3.206,25.8,-17.31,0.8996,22.25,11.11,2.802,14.07,0,0,0,0,0,0,0,0,0,0,0,0,0,0,0,0,
829,8.296,10.67,57.05,67.63,2.565,26.4,35.13,40,9.996,15.69,18,29.41,25.96,6.886,44.34,18.71,0,0,0,0,0,0,0,0,0,0,0,0,0,0,0,0,
830,32.18,3.371,55.97,61.07,18.42,18.31,22.29,24.35,27.94,7.459,38.46,34.78,19.54,0.6602,45.2,18.09,0,0,0,0,0,0,0,0,0,0,0,0,0,0,0,0,
831,19.87,-4.83,29.96,35.13,18.49,5.873,15.38,26,4.068,13.39,3.241,6.554,21.47,14.27,12.3,21.92,0,0,0,0,0,0,0,0,0,0,0,0,0,0,0,0,
832,-8.32,2.533,15.33,26.14,24.33,8.915,24.95,39.88,2.355,26.29,-19.83,-13.67,31.73,33.77,-10.83,15.65,0,0,0,0,0,0,0,0,0,0,0,0,0,0,0,0,
833,-18.29,10.7,26.32,47.29,31.62,9.841,21.28,39.34,18.38,20.11,-25.9,-33.78,22.41,32.87,-35.02,-8.004,0,0,0,0,0,0,0,0,0,0,0,0,0,0,0,0,
834,-36.44,-6.462,26.91,45.12,10.32,-8.645,-2.52,20.75,-2.813,2.426,-36.06,-47.89,11.65,26.25,-42.9,-22.35,0,0,0,0,0,0,0,0,0,0,0,0,0,0,0,0,
835,-42.73,-18.67,29.51,27.4,-4.677,-13.27,-5.62,13.68,-15.15,-3.117,-16.58,-22.08,22.09,28.97,-11.21,-7.504,0,0,0,0,0,0,0,0,0,0,0,0,0,0,0,0,
836,-11.49,-10.41,35.9,29.75,1.349,-0.1181,9.961,17.44,4.686,-3.074,9.953,11,30.57,26.44,13.07,17.59,0,0,0,0,0,0,0,0,0,0,0,0,0,0,0,0,
837,13.48,-3.877,15.46,29.32,-8.093,3.01,16.55,21.04,5.233,-0.1683,0.3214,15.02,26.49,17.59,6.452,27.49,0,0,0,0,0,0,0,0,0,0,0,0,0,0,0,0,
838,6.2,-3.053,-3.066,22.48,-28.65,-6.556,10.06,25.06,-26.82,3.357,-28.1,-2.747,11.99,10.36,-11.61,13.4,0,0,0,0,0,0,0,0,0,0,0,0,0,0,0,0,
839,-22.04,-13.72,1.077,31.38,-37.42,-22.76,-5.218,19.43,-52.18,-0.2252,-47.82,-23.17,-4.406,10.77,-24.79,4.295,0,0,0,0,0,0,0,0,0,0,0,0,0,0,0,0,
840,-38.17,-20.37,8.796,43.44,-32.9,-26.94,-4.731,18.3,-29.92,6.595,-34.57,-7.696,13.71,30.79,-5.723,32,0,0,0,0,0,0,0,0,0,0,0,0,0,0,0,0,
841,-16.38,4.937,14.24,37.13,-30.45,-21.24,6.604,26.39,7.004,16.82,-5.242,23.24,45.99,45.1,19.25,46.5,0,0,0,0,0,0,0,0,0,0,0,0,0,0,0,0,
842,-10.33,16.79,-5.923,4.579,-53.32,-45.94,-19.16,7.221,-13.01,4.492,-13.48,7.784,33.44,29.96,3.043,20.66,0,0,0,0,0,0,0,0,0,0,0,0,0,0,0,0,
843,-42.02,-11.28,-46.99,-33.48,-78.74,-76.39,-55.15,-16.81,-51.59,-4.173,-34.57,-16.66,7.959,24.44,-13.76,20.34,0,0,0,0,0,0,0,0,0,0,0,0,0,0,0,0,
844,-48.77,-25.16,-55.32,-34.98,-69.21,-65.24,-50.27,-5.694,-44.05,3.608,-31.49,-17.46,0.7132,30.31,-18.26,27.39,0,0,0,0,0,0,0,0,0,0,0,0,0,0,0,0,
845,-49.24,-31,-30.25,-6.389,-47.53,-51.22,-41.6,1.493,-38.77,-0.6581,-42.9,-40.72,-30.85,3.262,-50.43,-18.86,0,0,0,0,0,0,0,0,0,0,0,0,0,0,0,0,
846,-80.45,-58.51,-5.605,12.96,-37.8,-56.18,-46.77,-4.758,-60.95,-5.92,-60.99,-58.71,-63.36,-27.54,-60.52,-50.81,0,0,0,0,0,0,0,0,0,0,0,0,0,0,0,0,
847,-77.25,-55.23,11.6,21.14,-27.6,-45.08,-30.21,9.278,-52.39,3.035,-35.91,-19.96,-38.36,-19.92,-8.855,-14.44,0,0,0,0,0,0,0,0,0,0,0,0,0,0,0,0,
848,-22.01,-7.567,14.61,23.98,-14.08,-19.65,-0.8647,23.39,-11.31,10.43,9.815,35.26,11.55,1.508,35.43,28.18,0,0,0,0,0,0,0,0,0,0,0,0,0,0,0,0,
849,24.92,28.79,5.602,17.21,0.9321,6.007,21.04,27.96,12.87,21.52,34.27,64.04,38.27,13.39,34.61,30.53,0,0,0,0,0,0,0,0,0,0,0,0,0,0,0,0,
850,38.65,38.92,11.85,22.49,19.27,30.47,37.25,40.31,19.51,36.15,36.84,59.27,38.3,17.77,18.49,12.35,0,0,0,0,0,0,0,0,0,0,0,0,0,0,0,0,
851,18.74,27.36,36.4,47.56,29.58,35.06,35.43,39.97,24.98,30.39,24.43,26.43,15.9,20.18,-0.1963,6.135,0,0,0,0,0,0,0,0,0,0,0,0,0,0,0,0,
