%OpenBCI Raw EXG Data
%Number of channels = 16
%Sample Rate = 125 Hz
%Board = OpenBCI_GUI$BoardCytonSerialDaisy
Sample Index,EXG Channel 0,EXG Channel 1,EXG Channel 2,EXG Channel 3,EXG Channel 4,EXG Channel 5,EXG Channel 6,EXG Channel 7,EXG Channel 8,EXG Channel 9,EXG Channel 10,EXG Channel 11,EXG Channel 12,EXG Channel 13,EXG Channel 14,EXG Channel 15,Accel Channel 0,Accel Channel 1,Accel Channel 2,Other,Other.1,Other.2,Other.3,Other.4,Other.5,Other.6,Analog Channel 0,Analog Channel 1,Analog Channel 2,Timestamp,Other.7,Timestamp (Formatted),Annotations
1,-0.0,0.0,-0.0,0.0,0.0,-0.0,-0.0,-0.0,-0.0,0.0,-0.0,0.0,-0.0,-0.0,-0.0,0.0,0,0,0,0,0,0,0,0,0,0,0,0,0,0,0,0,T0
2,-38.73,-51.72,-30.69,5.639,-45.72,-39.08,-33.43,-0.029,-51.12,-29.45,-20.97,27.5,-33.4,3.864,-9.532,21.22,0,0,0,0,0,0,0,0,0,0,0,0,0,0,0,0,
3,-62.86,-77.31,-29.82,-5.548,-49.46,-39.78,-11.22,7.572,-81.91,-31.03,-11.44,48.99,-36.46,17.29,-4.065,33.63,0,0,0,0,0,0,0,0,0,0,0,0,0,0,0,0,
4,-47.11,-64.34,-9.963,-22.71,-30.48,-28.36,3.147,5.161,-68.78,-22.11,8.729,55.28,-18.92,22.56,11.6,50.26,0,0,0,0,0,0,0,0,0,0,0,0,0,0,0,0,
5,-53.55,-65.66,-24.06,-27.59,-34.31,-43.87,-24.59,-7.217,-48.53,-39.1,-4.091,43.01,-23.26,3.585,5.254,44.89,0,0,0,0,0,0,0,0,0,0,0,0,0,0,0,0,
6,-99.42,-105.4,-62.79,-29.17,-55.84,-65.09,-46.84,-12.19,-55.64,-64.48,-35.8,28.13,-43.49,-10.74,-12.92,21.81,0,0,0,0,0,0,0,0,0,0,0,0,0,0,0,0,
7,-107.9,-120.9,-60.05,-39.94,-54.24,-51.87,-46.41,-7.822,-55.67,-56.04,-45.95,20.42,-43.45,1.942,-12.98,15.94,0,0,0,0,0,0,0,0,0,0,0,0,0,0,0,0,
8,-75.44,-96.73,-22.11,-29.98,-28.49,-20.42,-35.69,1.853,-34.25,-28.61,-39.56,10.66,-35.49,9.741,-12.29,7.291,0,0,0,0,0,0,0,0,0,0,0,0,0,0,0,0,
9,-50.11,-87.44,-5.437,-4.804,-14.72,-13.51,-12.56,7.76,-20.63,-17.54,-25.26,5.193,-31.25,-0.2979,-9.35,-1.916,0,0,0,0,0,0,0,0,0,0,0,0,0,0,0,0,
10,-53.76,-105.1,-11.57,-29.43,-26.35,-34.25,5.085,0.3256,-20.58,-22.15,-1.976,11.14,-17.73,-2.396,13.43,17.12,0,0,0,0,0,0,0,0,0,0,0,0,0,0,0,0,
11,-82.46,-127.8,-11.62,-67.9,-45.02,-55.82,-6.722,-4.811,-26.47,-32.68,10.07,13.97,-11.77,-1.209,23.33,34.21,0,0,0,0,0,0,0,0,0,0,0,0,0,0,0,0,
12,-102.8,-148.1,-4.511,-49.33,-54.74,-64.55,-18.13,4.326,-35.58,-44.07,10.43,17.25,-23.56,-9.015,9.569,27.5,0,0,0,0,0,0,0,0,0,0,0,0,0,0,0,0,
13,-106.0,-154.2,0.4612,-38.87,-58.42,-73.18,-7.356,5.282,-41.44,-56.66,12.73,22.45,-36.58,-20.72,-0.2901,14.25,0,0,0,0,0,0,0,0,0,0,0,0,0,0,0,0,
14,-99.35,-142.1,9.295,-72.13,-61.11,-90.98,-7.488,-14.4,-48.81,-85.68,3.247,1.742,-53.27,-51.4,-13.46,-8.547,0,0,0,0,0,0,0,0,0,0,0,0,0,0,0,0,
15,-70.5,-129.0,27.18,-84.36,-54.5,-94.26,-10.01,-32.69,-58.09,-118.1,-10.43,-28.5,-68.02,-87.44,-28.67,-31.34,0,0,0,0,0,0,0,0,0,0,0,0,0,0,0,0,
16,-45.56,-121.2,35.48,-76.21,-46.45,-78.76,3.427,-33.89,-60.53,-114.3,-14.01,-28.43,-73.16,-84.0,-31.47,-31.0,0,0,0,0,0,0,0,0,0,0,0,0,0,0,0,0,
17,-64.08,-127.7,5.928,-76.8,-69.75,-88.58,-15.97,-30.91,-80.3,-92.34,-43.11,-20.31,-98.66,-65.33,-47.93,-27.32,0,0,0,0,0,0,0,0,0,0,0,0,0,0,0,0,
18,-107.7,-152.0,-47.07,-76.38,-107.3,-116.7,-57.29,-35.28,-128.1,-92.44,-86.57,-19.46,-131.8,-63.38,-64.26,-25.48,0,0,0,0,0,0,0,0,0,0,0,0,0,0,0,0,
19,-123.3,-147.9,-59.62,-69.47,-95.24,-103.9,-55.83,-36.1,-142.5,-90.12,-74.76,-6.03,-115.1,-48.49,-35.32,-4.907,0,0,0,0,0,0,0,0,0,0,0,0,0,0,0,0,
20,-86.24,-105.7,-10.4,-57.4,-43.14,-68.23,-28.61,-32.15,-94.52,-74.65,-27.32,-4.198,-68.58,-35.52,0.2907,0.9766,0,0,0,0,0,0,0,0,0,0,0,0,0,0,0,0,
21,-37.9,-92.32,38.55,-63.34,-17.85,-62.73,0.6048,-41.42,-48.25,-82.39,-4.07,-24.95,-48.44,-54.65,6.499,-17.45,0,0,0,0,0,0,0,0,0,0,0,0,0,0,0,0,
22,-25.02,-110.3,42.07,-88.15,-27.25,-69.51,27.79,-55.76,-46.04,-95.45,1.004,-26.9,-52.35,-60.74,8.807,-13.14,0,0,0,0,0,0,0,0,0,0,0,0,0,0,0,0,
23,-39.54,-106.7,23.71,-81.51,-42.39,-63.8,11.4,-49.32,-66.96,-80.52,-8.671,-10.56,-58.06,-33.67,6.089,-0.4509,0,0,0,0,0,0,0,0,0,0,0,0,0,0,0,0,
24,-54.17,-91.42,14.98,-45.59,-44.29,-50.25,-21.13,-27.31,-78.01,-57.46,-23.44,-0.0632,-43.57,-5.033,8.699,2.652,0,0,0,0,0,0,0,0,0,0,0,0,0,0,0,0,
25,-44.41,-80.59,27.16,-29.53,-15.79,-26.17,-1.14,-16.59,-51.48,-33.41,-9.596,8.347,-7.536,12.67,32.18,19.58,0,0,0,0,0,0,0,0,0,0,0,0,0,0,0,0,
26,-18.72,-73.84,49.97,-47.77,14.9,-12.64,27.34,-29.74,-11.27,-16.08,1.339,6.264,2.447,5.87,33.04,26.03,0,0,0,0,0,0,0,0,0,0,0,0,0,0,0,0,
27,-20.09,-95.09,52.45,-76.96,2.43,-31.25,11.69,-48.82,-14.44,-34.72,-15.74,-2.914,-20.6,-16.31,19.72,21.39,0,0,0,0,0,0,0,0,0,0,0,0,0,0,0,0,
28,-43.43,-120.8,35.01,-76.83,-24.44,-49.12,-2.325,-49.17,-45.63,-58.67,-12.96,4.786,-27.23,-17.0,39.04,41.71,0,0,0,0,0,0,0,0,0,0,0,0,0,0,0,0,
29,-54.37,-113.5,29.37,-58.9,-25.16,-45.12,2.554,-39.86,-58.42,-48.78,4.568,16.95,-20.22,-9.458,51.28,58.02,0,0,0,0,0,0,0,0,0,0,0,0,0,0,0,0,
30,-53.57,-107.3,33.51,-64.11,-17.6,-42.24,-6.408,-37.44,-62.12,-35.7,-6.655,17.4,-25.87,-15.17,29.48,47.82,0,0,0,0,0,0,0,0,0,0,0,0,0,0,0,0,
31,-42.67,-110.7,35.86,-68.05,-11.2,-43.32,-5.836,-33.91,-62.49,-35.44,-18.76,15.23,-22.28,-16.12,17.3,32.07,0,0,0,0,0,0,0,0,0,0,0,0,0,0,0,0,
32,-30.06,-99.55,41.98,-58.73,1.195,-36.93,21.63,-27.52,-42.47,-27.72,-1.028,12.88,2.971,-10.2,30.87,22.28,0,0,0,0,0,0,0,0,0,0,0,0,0,0,0,0,
33,-46.77,-108.3,35.21,-69.07,2.093,-31.63,29.24,-23.65,-21.13,-16.63,19.34,16.3,21.76,-6.55,52.47,28.44,0,0,0,0,0,0,0,0,0,0,0,0,0,0,0,0,
34,-75.53,-129.7,22.56,-73.42,-7.151,-30.01,20.84,-17.43,-21.19,-15.81,25.6,25.45,17.13,-8.746,64.87,34.34,0,0,0,0,0,0,0,0,0,0,0,0,0,0,0,0,
35,-64.47,-99.35,37.48,-38.89,-2.995,-23.3,31.27,-12.19,-27.46,-29.43,30.77,20.19,4.226,-25.49,58.82,17.54,0,0,0,0,0,0,0,0,0,0,0,0,0,0,0,0,
36,-35.75,-54.86,42.11,-11.0,4.849,-17.08,24.64,-16.05,-30.0,-49.34,27.31,3.121,-1.291,-42.91,37.05,-4.0,0,0,0,0,0,0,0,0,0,0,0,0,0,0,0,0,
37,-40.85,-61.8,10.29,-24.41,1.979,-20.01,-3.172,-24.03,-34.43,-56.14,5.472,-2.648,-5.671,-38.67,9.655,-13.47,0,0,0,0,0,0,0,0,0,0,0,0,0,0,0,0,
38,-56.32,-85.57,-2.688,-35.79,-0.9953,-24.08,-7.005,-22.66,-31.59,-45.58,-11.82,7.701,-14.9,-16.94,-4.446,-7.645,0,0,0,0,0,0,0,0,0,0,0,0,0,0,0,0,
39,-67.09,-102.1,-6.703,-22.62,-11.33,-25.6,-16.35,-7.473,-24.17,-23.03,-22.13,20.26,-24.57,2.386,-7.975,1.961,0,0,0,0,0,0,0,0,0,0,0,0,0,0,0,0,
40,-98.01,-122.1,-41.71,-28.54,-38.1,-35.32,-47.57,3.264,-37.4,-4.829,-39.89,21.35,-33.94,-0.2297,-15.98,-0.9479,0,0,0,0,0,0,0,0,0,0,0,0,0,0,0,0,
41,-111.8,-117.7,-53.66,-50.5,-51.24,-47.95,-39.55,-2.723,-63.63,-21.28,-36.49,14.33,-33.49,-19.24,-10.25,2.387,0,0,0,0,0,0,0,0,0,0,0,0,0,0,0,0,
42,-84.65,-97.83,-26.22,-51.75,-37.1,-49.4,1.821,-10.05,-68.11,-56.81,-11.02,6.237,-19.1,-31.07,3.219,11.78,0,0,0,0,0,0,0,0,0,0,0,0,0,0,0,0,
43,-75.25,-108.8,-17.77,-54.88,-29.26,-51.06,12.68,-10.13,-54.05,-69.29,-11.59,0.9593,-15.49,-33.34,-5.819,5.119,0,0,0,0,0,0,0,0,0,0,0,0,0,0,0,0,
44,-102.7,-138.6,-27.66,-60.98,-42.65,-62.21,0.7832,-5.011,-48.5,-63.08,-20.13,14.57,-25.73,-27.24,-8.618,9.611,0,0,0,0,0,0,0,0,0,0,0,0,0,0,0,0,
45,-134.3,-154.6,-36.57,-43.09,-57.61,-68.24,1.492,9.038,-48.49,-47.31,0.8316,38.63,-25.07,-9.704,11.82,32.69,0,0,0,0,0,0,0,0,0,0,0,0,0,0,0,0,
46,-152.6,-149.8,-50.61,-32.01,-62.31,-63.86,3.082,21.0,-44.38,-22.87,15.64,37.44,-17.73,1.077,15.67,32.63,0,0,0,0,0,0,0,0,0,0,0,0,0,0,0,0,
47,-133.7,-122.6,-34.37,-30.28,-46.35,-47.87,6.615,20.26,-43.35,-18.68,17.31,18.44,-6.991,-1.618,10.31,19.59,0,0,0,0,0,0,0,0,0,0,0,0,0,0,0,0,
48,-71.86,-89.49,25.52,-9.763,-4.481,-15.33,30.79,18.97,-30.05,-31.42,38.87,11.22,18.26,1.153,26.54,30.25,0,0,0,0,0,0,0,0,0,0,0,0,0,0,0,0,
49,-28.31,-73.24,54.81,-5.272,25.78,7.197,34.21,18.75,2.584,-26.37,42.39,11.68,28.47,9.35,34.4,42.52,0,0,0,0,0,0,0,0,0,0,0,0,0,0,0,0,
50,-51.33,-77.05,19.17,-14.83,12.48,-4.458,-1.123,14.33,10.11,-15.02,4.211,15.7,6.509,8.676,14.2,30.13,0,0,0,0,0,0,0,0,0,0,0,0,0,0,0,0,
51,-89.68,-88.7,-14.54,2.044,-10.97,-22.92,-3.482,16.97,-9.136,-16.11,-11.56,25.6,-6.002,2.14,-0.3053,15.02,0,0,0,0,0,0,0,0,0,0,0,0,0,0,0,0,
52,-89.24,-87.94,-8.165,0.3063,-12.38,-25.63,33.2,19.33,-6.768,-16.91,11.16,26.03,5.182,-2.389,5.472,9.802,0,0,0,0,0,0,0,0,0,0,0,0,0,0,0,0,
53,-77.55,-76.43,5.591,-30.88,-9.353,-28.33,45.23,4.257,-1.47,-19.84,26.62,18.08,14.91,-8.521,16.99,5.78,0,0,0,0,0,0,0,0,0,0,0,0,0,0,0,0,
54,-71.48,-75.25,9.081,-22.59,-14.52,-35.27,41.87,-7.837,-19.05,-32.38,28.52,19.72,18.3,-17.75,23.46,8.668,0,0,0,0,0,0,0,0,0,0,0,0,0,0,0,0,
55,-63.84,-75.39,7.679,3.874,-17.39,-31.95,43.04,1.124,-18.8,-35.77,20.34,28.89,17.67,-16.86,14.54,18.28,0,0,0,0,0,0,0,0,0,0,0,0,0,0,0,0,
56,-69.81,-63.16,7.01,1.922,-11.88,-18.26,32.42,13.15,3.488,-20.24,4.923,38.4,13.82,-5.118,-0.2874,24.62,0,0,0,0,0,0,0,0,0,0,0,0,0,0,0,0,
57,-68.22,-56.74,21.3,3.26,-0.9915,-9.155,23.44,16.31,8.921,-8.998,5.819,39.82,7.882,-13.53,-3.331,17.67,0,0,0,0,0,0,0,0,0,0,0,0,0,0,0,0,
58,-36.96,-59.06,41.73,8.56,4.031,-13.8,26.88,10.01,-5.166,-20.78,11.2,22.02,-11.16,-50.51,-11.09,-8.881,0,0,0,0,0,0,0,0,0,0,0,0,0,0,0,0,
59,-19.8,-55.31,38.07,-0.6969,-7.514,-29.29,38.64,-7.412,-27.65,-42.8,4.606,6.478,-30.7,-75.45,-26.08,-28.16,0,0,0,0,0,0,0,0,0,0,0,0,0,0,0,0,
60,-43.87,-57.41,13.26,-9.346,-31.14,-49.19,58.07,-20.08,-46.32,-60.52,10.48,15.01,-21.06,-68.0,-18.35,-23.78,0,0,0,0,0,0,0,0,0,0,0,0,0,0,0,0,
61,-75.97,-75.44,-6.907,-22.32,-51.05,-63.74,52.73,-16.99,-45.3,-74.05,16.89,27.43,-4.517,-52.92,-4.68,-23.96,0,0,0,0,0,0,0,0,0,0,0,0,0,0,0,0,
62,-81.0,-86.72,-13.49,-29.19,-53.82,-64.12,17.91,-13.14,-42.0,-78.61,-9.334,29.34,-21.36,-48.01,-26.12,-37.57,0,0,0,0,0,0,0,0,0,0,0,0,0,0,0,0,
63,-61.43,-73.4,-5.866,-19.12,-39.08,-54.16,8.437,-15.29,-54.35,-71.26,-39.91,22.88,-50.23,-47.32,-60.56,-52.17,0,0,0,0,0,0,0,0,0,0,0,0,0,0,0,0,
64,-41.34,-54.55,8.936,-34.12,-26.75,-47.9,22.34,-17.81,-61.73,-60.85,-42.65,8.119,-54.43,-43.57,-61.85,-55.54,0,0,0,0,0,0,0,0,0,0,0,0,0,0,0,0,
65,-40.04,-63.18,2.918,-63.1,-46.72,-63.97,13.61,-22.68,-60.61,-56.91,-37.59,2.22,-50.32,-41.3,-41.95,-39.1,0,0,0,0,0,0,0,0,0,0,0,0,0,0,0,0,
66,-67.01,-94.54,-26.43,-54.0,-89.3,-96.5,-0.0334,-27.07,-72.75,-65.9,-43.68,10.12,-54.88,-43.14,-40.09,-28.57,0,0,0,0,0,0,0,0,0,0,0,0,0,0,0,0,
67,-92.32,-107.3,-32.26,-33.19,-95.82,-99.55,2.637,-27.8,-80.49,-79.11,-48.51,11.85,-45.05,-38.85,-49.72,-33.27,0,0,0,0,0,0,0,0,0,0,0,0,0,0,0,0,
68,-75.87,-85.55,-2.306,-28.92,-53.56,-61.05,3.271,-31.37,-55.39,-76.48,-37.09,5.4,-21.13,-34.02,-44.45,-29.63,0,0,0,0,0,0,0,0,0,0,0,0,0,0,0,0,
69,-40.77,-52.11,24.05,-19.18,-18.49,-29.45,17.2,-35.65,-21.02,-59.35,-16.72,-5.268,-12.93,-42.22,-31.58,-26.54,0,0,0,0,0,0,0,0,0,0,0,0,0,0,0,0,
70,-19.73,-33.34,35.96,-13.07,-12.75,-26.77,45.78,-37.98,-5.909,-45.09,-8.341,-16.15,-19.09,-47.93,-24.56,-25.08,0,0,0,0,0,0,0,0,0,0,0,0,0,0,0,0,
71,-20.62,-43.35,32.55,-35.63,-23.15,-39.7,27.21,-43.2,-6.636,-43.17,-23.67,-10.47,-33.55,-42.04,-28.2,-12.82,0,0,0,0,0,0,0,0,0,0,0,0,0,0,0,0,
72,-51.18,-68.53,-1.408,-65.18,-54.14,-66.43,-37.22,-40.95,-29.19,-53.77,-56.24,3.834,-64.91,-38.17,-49.7,-14.31,0,0,0,0,0,0,0,0,0,0,0,0,0,0,0,0,
73,-73.04,-74.09,-29.64,-62.65,-76.89,-85.73,-60.25,-27.13,-66.64,-64.96,-72.97,7.143,-79.13,-33.83,-61.88,-23.97,0,0,0,0,0,0,0,0,0,0,0,0,0,0,0,0,
74,-49.5,-53.92,-3.386,-44.13,-50.01,-70.4,-19.62,-26.76,-68.9,-68.47,-40.84,3.178,-42.82,-30.11,-30.93,-7.627,0,0,0,0,0,0,0,0,0,0,0,0,0,0,0,0,
75,-16.56,-43.54,42.23,-54.82,-12.61,-46.74,23.58,-46.14,-28.04,-72.38,7.442,-8.274,-2.243,-37.97,3.325,9.385,0,0,0,0,0,0,0,0,0,0,0,0,0,0,0,0,
76,-9.512,-59.28,43.94,-64.17,-19.33,-48.76,32.15,-54.73,-5.429,-73.1,6.001,-23.18,-8.075,-45.75,-11.85,-7.303,0,0,0,0,0,0,0,0,0,0,0,0,0,0,0,0,
77,-30.43,-68.55,7.385,-29.65,-55.34,-70.84,5.786,-40.08,-31.29,-68.71,-38.83,-23.32,-44.88,-49.19,-46.57,-32.35,0,0,0,0,0,0,0,0,0,0,0,0,0,0,0,0,
78,-61.83,-56.76,-13.68,-9.809,-84.35,-95.94,-36.12,-26.13,-75.86,-81.4,-62.05,-16.97,-74.55,-56.71,-53.08,-39.55,0,0,0,0,0,0,0,0,0,0,0,0,0,0,0,0,
79,-56.35,-42.76,11.84,-31.93,-75.58,-94.95,-36.31,-22.46,-93.3,-98.05,-38.15,-18.84,-69.02,-54.43,-40.1,-40.38,0,0,0,0,0,0,0,0,0,0,0,0,0,0,0,0,
80,-1.83,-25.44,62.14,-31.25,-27.97,-58.49,19.35,-13.54,-58.56,-83.63,-3.244,-17.37,-37.45,-41.62,-26.09,-33.89,0,0,0,0,0,0,0,0,0,0,0,0,0,0,0,0,
81,35.82,-20.6,84.14,-12.2,-4.371,-38.89,49.32,-7.277,-14.63,-67.66,8.284,-6.796,-23.07,-38.13,-13.92,-14.06,0,0,0,0,0,0,0,0,0,0,0,0,0,0,0,0,
82,8.207,-46.53,54.57,-15.03,-30.13,-55.21,22.99,-17.25,-14.61,-78.1,2.495,2.214,-30.55,-39.62,-17.92,-11.29,0,0,0,0,0,0,0,0,0,0,0,0,0,0,0,0,
83,-39.25,-50.99,14.0,-10.0,-50.2,-59.35,5.914,-19.32,-29.47,-80.69,-6.836,0.9783,-34.96,-40.99,-35.45,-32.0,0,0,0,0,0,0,0,0,0,0,0,0,0,0,0,0,
84,-47.06,-20.71,14.92,7.199,-41.27,-41.33,18.96,-2.413,-24.53,-67.02,-9.047,-6.776,-33.03,-42.79,-36.5,-38.58,0,0,0,0,0,0,0,0,0,0,0,0,0,0,0,0,
85,-19.52,-18.28,47.72,7.737,-19.0,-24.54,28.18,5.81,-12.9,-50.49,2.268,-6.937,-25.23,-30.51,-28.8,-31.66,0,0,0,0,0,0,0,0,0,0,0,0,0,0,0,0,
86,7.181,-39.22,51.87,-2.705,-2.799,-20.66,18.6,-1.239,-1.401,-26.42,3.327,1.889,-18.41,-13.35,-36.97,-30.51,0,0,0,0,0,0,0,0,0,0,0,0,0,0,0,0,
87,1.586,-42.5,21.65,-7.605,-11.19,-28.06,8.579,2.024,7.08,-11.21,-1.503,17.16,-9.726,2.164,-31.22,-15.52,0,0,0,0,0,0,0,0,0,0,0,0,0,0,0,0,
88,-18.74,-29.73,24.69,22.12,-7.451,-8.46,26.17,25.65,22.71,3.028,21.04,40.0,18.41,34.97,-4.859,7.392,0,0,0,0,0,0,0,0,0,0,0,0,0,0,0,0,
89,-6.093,-10.84,59.38,64.38,30.33,38.51,44.32,45.34,53.86,38.99,36.59,49.11,37.72,52.17,-4.525,-0.635,0,0,0,0,0,0,0,0,0,0,0,0,0,0,0,0,
90,24.23,0.6992,67.37,48.72,56.32,59.82,40.19,43.02,68.01,55.89,36.98,42.91,41.76,34.4,-2.247,-10.86,0,0,0,0,0,0,0,0,0,0,0,0,0,0,0,0,
91,47.97,15.02,76.59,25.62,72.07,70.02,59.77,36.96,73.1,48.4,71.45,49.13,69.63,37.32,36.67,14.02,0,0,0,0,0,0,0,0,0,0,0,0,0,0,0,0,
92,66.77,38.7,98.62,52.18,85.16,86.51,78.37,39.25,89.59,63.44,81.58,55.33,77.62,54.69,38.78,22.85,0,0,0,0,0,0,0,0,0,0,0,0,0,0,0,0,
93,54.1,29.93,81.97,54.85,67.64,78.7,51.21,42.55,74.36,80.41,28.64,52.27,41.28,49.66,-1.921,4.869,0,0,0,0,0,0,0,0,0,0,0,0,0,0,0,0,
94,41.78,15.86,73.17,40.57,65.92,79.09,53.21,47.34,52.2,80.97,14.53,56.28,37.43,53.2,-1.228,12.76,0,0,0,0,0,0,0,0,0,0,0,0,0,0,0,0,
95,74.07,46.08,109.5,60.94,102.2,103.0,88.45,42.27,74.5,84.59,46.08,47.26,59.45,60.67,21.86,27.41,0,0,0,0,0,0,0,0,0,0,0,0,0,0,0,0,
96,101.5,62.94,133.3,56.35,116.6,102.7,82.01,19.24,86.87,72.02,49.16,30.94,61.53,51.86,27.59,37.05,0,0,0,0,0,0,0,0,0,0,0,0,0,0,0,0,
97,114.0,56.41,149.3,30.38,111.4,92.61,73.95,3.668,78.02,50.58,45.42,39.32,71.6,52.16,40.67,66.95,0,0,0,0,0,0,0,0,0,0,0,0,0,0,0,0,
98,98.18,55.49,124.7,32.88,90.71,81.05,70.56,11.45,78.59,52.13,38.99,46.48,69.16,49.29,42.55,75.74,0,0,0,0,0,0,0,0,0,0,0,0,0,0,0,0,
99,-10.12,-1.343,2.193,24.54,30.29,41.36,15.16,32.66,43.57,54.47,4.76,44.53,31.65,38.15,22.65,55.33,0,0,0,0,0,0,0,0,0,0,0,0,0,0,0,0,
100,-89.5,-65.36,-45.83,11.23,-0.1405,22.39,-15.22,48.01,-7.632,47.2,-12.43,50.0,16.9,41.8,18.76,49.89,0,0,0,0,0,0,0,0,0,0,0,0,0,0,0,0,
101,8.545,-14.09,87.56,27.91,46.71,50.6,36.01,35.64,-1.491,42.06,4.925,34.85,31.83,32.17,26.0,44.03,0,0,0,0,0,0,0,0,0,0,0,0,0,0,0,0,
102,140.7,63.51,188.2,31.11,93.64,65.73,74.17,7.419,30.68,25.97,18.4,9.784,33.09,8.255,27.04,30.72,0,0,0,0,0,0,0,0,0,0,0,0,0,0,0,0,
103,138.4,48.66,149.0,4.216,82.55,46.8,54.45,-4.435,33.09,5.723,19.61,18.21,22.69,8.93,31.9,34.26,0,0,0,0,0,0,0,0,0,0,0,0,0,0,0,0,
104,71.37,3.933,94.42,-13.06,41.92,24.94,39.99,1.842,17.33,0.9093,31.09,47.73,28.04,23.33,48.97,53.74,0,0,0,0,0,0,0,0,0,0,0,0,0,0,0,0,
105,45.55,-4.183,75.53,-4.553,24.51,20.43,64.77,11.58,21.62,8.795,61.95,65.92,54.33,32.02,72.22,75.72,0,0,0,0,0,0,0,0,0,0,0,0,0,0,0,0,
106,50.02,6.46,81.62,-1.339,37.6,24.18,84.34,13.61,45.61,14.57,80.37,52.96,63.5,27.21,72.09,73.85,0,0,0,0,0,0,0,0,0,0,0,0,0,0,0,0,
107,56.07,8.849,117.6,-23.95,49.58,18.83,75.65,8.227,44.1,-0.0781,74.71,24.41,48.29,11.24,53.99,59.35,0,0,0,0,0,0,0,0,0,0,0,0,0,0,0,0,
108,73.43,6.076,145.0,-12.72,60.47,22.68,88.58,10.9,31.73,-15.86,78.5,17.3,53.88,11.32,51.13,62.11,0,0,0,0,0,0,0,0,0,0,0,0,0,0,0,0,
109,75.93,12.1,124.6,35.16,59.97,33.08,98.69,18.86,42.59,-6.292,61.51,12.81,48.12,12.96,28.56,39.44,0,0,0,0,0,0,0,0,0,0,0,0,0,0,0,0,
110,31.72,5.802,72.89,17.89,22.15,14.94,35.22,20.19,21.04,-5.473,-8.405,-2.839,-9.406,-3.014,-21.27,-11.37,0,0,0,0,0,0,0,0,0,0,0,0,0,0,0,0,
111,4.451,-3.895,50.51,-24.17,8.961,10.25,-14.9,23.96,-24.31,-15.61,-44.47,7.468,-33.74,2.333,-19.34,-12.14,0,0,0,0,0,0,0,0,0,0,0,0,0,0,0,0,
112,44.02,22.61,84.96,1.786,55.1,46.22,26.79,25.91,-2.138,5.83,-1.304,29.27,14.16,26.94,34.25,37.21,0,0,0,0,0,0,0,0,0,0,0,0,0,0,0,0,
113,80.7,34.84,122.2,7.642,71.28,44.11,67.01,10.56,46.12,19.41,46.73,23.56,52.03,29.71,68.84,73.74,0,0,0,0,0,0,0,0,0,0,0,0,0,0,0,0,
114,68.48,5.996,127.4,-29.7,41.4,5.651,72.57,-7.108,42.22,-10.1,60.25,7.164,50.65,18.99,71.21,74.43,0,0,0,0,0,0,0,0,0,0,0,0,0,0,0,0,
115,40.54,3.4,105.7,-13.23,27.32,2.721,75.48,-10.89,20.05,-27.54,40.71,0.2991,33.5,12.39,45.87,49.94,0,0,0,0,0,0,0,0,0,0,0,0,0,0,0,0,
116,0.3193,6.184,53.57,5.816,6.832,-0.2076,30.04,-9.945,-6.525,-25.06,-7.236,0.7562,3.957,14.36,7.144,25.01,0,0,0,0,0,0,0,0,0,0,0,0,0,0,0,0,
117,-32.35,-19.45,34.97,-10.29,-14.15,-16.97,-15.28,-7.109,-38.35,-30.45,-21.91,10.21,-1.76,33.22,7.314,23.9,0,0,0,0,0,0,0,0,0,0,0,0,0,0,0,0,
118,7.492,-5.227,99.43,17.09,26.99,15.67,34.44,2.794,-17.38,-12.11,19.59,29.23,34.31,54.65,42.4,50.17,0,0,0,0,0,0,0,0,0,0,0,0,0,0,0,0,
119,72.46,30.84,146.9,29.89,71.82,52.88,81.9,12.38,33.83,20.57,37.68,51.54,48.73,62.11,51.06,75.27,0,0,0,0,0,0,0,0,0,0,0,0,0,0,0,0,
120,57.84,11.0,110.7,-28.31,42.5,26.4,45.51,16.6,30.82,17.23,9.246,68.19,22.42,62.13,34.12,69.8,0,0,0,0,0,0,0,0,0,0,0,0,0,0,0,0,
121,5.813,-21.25,58.89,-49.03,-3.554,-8.754,14.55,17.07,-1.051,0.7567,-7.555,72.81,10.37,56.5,30.83,52.16,0,0,0,0,0,0,0,0,0,0,0,0,0,0,0,0,
122,-2.193,-12.69,35.23,-25.49,-11.51,-11.15,19.88,7.665,-8.123,-3.196,-1.058,63.95,18.42,47.52,40.98,52.81,0,0,0,0,0,0,0,0,0,0,0,0,0,0,0,0,
123,9.07,3.705,43.76,-32.89,5.919,-1.416,33.8,-6.339,-4.422,-11.81,19.73,51.6,31.95,51.76,59.36,68.48,0,0,0,0,0,0,0,0,0,0,0,0,0,0,0,0,
124,18.89,4.302,84.12,-34.6,40.77,20.21,67.33,-6.355,17.32,-6.265,53.68,54.22,62.63,68.82,80.21,83.17,0,0,0,0,0,0,0,0,0,0,0,0,0,0,0,0,
125,34.76,-6.934,101.5,-27.2,55.06,30.46,62.6,1.263,53.55,21.21,56.13,66.83,72.34,77.3,73.83,84.09,0,0,0,0,0,0,0,0,0,0,0,0,0,0,0,0,
126,16.95,-32.8,59.75,-49.26,9.187,-3.235,-4.292,-0.7811,41.7,25.33,19.16,67.74,35.58,70.09,48.18,69.06,0,0,0,0,0,0,0,0,0,0,0,0,0,0,0,0,
127,-31.1,-48.94,22.88,-50.92,-36.85,-35.05,-14.65,-6.771,-1.961,4.385,10.88,54.22,16.56,56.4,44.85,53.76,0,0,0,0,0,0,0,0,0,0,0,0,0,0,0,0,
128,-29.83,-27.8,52.37,-26.86,-18.64,-23.66,45.44,-15.28,-0.5411,-6.207,37.43,31.73,34.12,42.16,54.81,52.21,0,0,0,0,0,0,0,0,0,0,0,0,0,0,0,0,
129,13.12,-10.12,103.2,-39.56,18.45,-8.657,59.38,-34.98,19.63,-13.68,45.65,14.96,37.68,36.37,54.92,57.42,0,0,0,0,0,0,0,0,0,0,0,0,0,0,0,0,
130,17.12,-24.49,106.6,-62.1,28.82,-4.848,35.62,-48.69,12.12,-16.21,39.88,28.66,31.91,50.51,57.02,57.41,0,0,0,0,0,0,0,0,0,0,0,0,0,0,0,0,
131,-4.22,-25.22,72.73,-48.77,29.11,11.52,23.93,-37.01,8.583,13.24,26.99,54.16,29.58,68.47,46.05,50.65,0,0,0,0,0,0,0,0,0,0,0,0,0,0,0,0,
132,-15.47,-12.49,30.58,-31.51,9.945,12.68,-11.24,-15.68,5.793,43.11,-8.79,54.7,9.463,61.79,12.02,36.28,0,0,0,0,0,0,0,0,0,0,0,0,0,0,0,0,
133,-36.78,-23.26,-7.645,-29.33,-29.16,-14.13,-35.6,-5.849,-15.88,35.94,-19.55,48.97,0.0501,41.78,12.52,28.32,0,0,0,0,0,0,0,0,0,0,0,0,0,0,0,0,
134,-46.17,-40.62,-6.066,-36.88,-35.61,-27.38,-2.663,-9.002,-11.2,18.54,21.43,56.73,27.46,33.26,53.82,43.56,0,0,0,0,0,0,0,0,0,0,0,0,0,0,0,0,
135,-27.72,-53.74,30.89,-57.05,-6.831,-22.97,22.24,-12.5,24.56,1.916,53.76,62.73,55.1,37.11,69.65,63.22,0,0,0,0,0,0,0,0,0,0,0,0,0,0,0,0,
136,-15.38,-51.21,42.92,-42.72,17.94,-6.281,24.06,3.272,46.0,-9.957,53.37,74.9,62.56,57.21,60.78,71.28,0,0,0,0,0,0,0,0,0,0,0,0,0,0,0,0,
137,-15.19,-21.0,10.66,16.65,27.52,23.48,22.53,28.48,45.45,14.05,24.93,90.86,42.72,75.15,45.42,61.13,0,0,0,0,0,0,0,0,0,0,0,0,0,0,0,0,
138,-28.26,-17.33,-33.88,19.82,7.848,18.2,-21.73,26.0,17.94,35.83,-37.47,82.39,-7.402,55.02,6.528,25.29,0,0,0,0,0,0,0,0,0,0,0,0,0,0,0,0,
139,-31.18,-36.86,-40.28,-33.05,-21.29,-15.2,-51.45,1.421,-20.13,14.75,-69.09,70.05,-30.52,32.6,-11.12,9.678,0,0,0,0,0,0,0,0,0,0,0,0,0,0,0,0,
140,8.48,-17.28,6.011,-36.19,-12.21,-12.66,-4.139,-11.46,-18.28,9.171,-26.45,74.62,2.728,48.82,25.17,37.42,0,0,0,0,0,0,0,0,0,0,0,0,0,0,0,0,
141,29.04,-7.985,40.41,-23.85,6.262,-2.495,28.61,-14.94,6.777,27.7,23.75,73.42,36.65,63.08,59.75,57.3,0,0,0,0,0,0,0,0,0,0,0,0,0,0,0,0,
142,7.666,-34.49,27.09,-35.53,2.111,-13.47,18.75,-14.17,15.64,18.33,37.54,77.2,45.6,62.06,66.31,65.46,0,0,0,0,0,0,0,0,0,0,0,0,0,0,0,0,
143,10.42,-10.67,8.502,2.782,10.81,4.314,19.41,1.565,23.86,11.27,22.43,95.67,42.76,68.54,56.14,73.79,0,0,0,0,0,0,0,0,0,0,0,0,0,0,0,0,
144,23.53,42.45,5.302,41.26,28.63,32.45,-1.576,13.14,30.22,26.21,-14.01,89.0,21.37,52.03,25.98,49.02,0,0,0,0,0,0,0,0,0,0,0,0,0,0,0,0,
145,20.22,32.62,15.67,7.777,24.24,16.62,-29.86,0.3439,19.29,14.24,-27.13,58.6,-0.9173,10.58,3.377,16.51,0,0,0,0,0,0,0,0,0,0,0,0,0,0,0,0,
146,33.21,-0.4563,42.75,-2.669,15.17,-9.037,-0.6847,-13.24,11.64,-12.05,11.82,48.71,7.411,-1.608,15.7,25.53,0,0,0,0,0,0,0,0,0,0,0,0,0,0,0,0,
147,47.55,5.098,51.96,12.97,1.616,-20.12,30.96,-8.967,12.46,-12.38,45.99,54.77,21.63,6.373,28.39,42.45,0,0,0,0,0,0,0,0,0,0,0,0,0,0,0,0,
148,22.32,3.624,15.33,-27.67,-41.07,-49.46,6.222,-2.167,-6.074,-18.11,20.55,44.11,0.0498,-11.34,2.801,20.61,0,0,0,0,0,0,0,0,0,0,0,0,0,0,0,0,
149,-27.01,-21.36,-22.1,-44.94,-74.75,-75.39,-25.45,3.238,-41.67,-47.22,-36.3,22.33,-41.38,-35.34,-36.36,-12.45,0,0,0,0,0,0,0,0,0,0,0,0,0,0,0,0,
150,-38.66,-14.67,-4.888,-1.313,-48.66,-53.31,-21.06,13.99,-52.11,-57.98,-65.53,15.49,-57.69,-28.73,-40.72,-6.401,0,0,0,0,0,0,0,0,0,0,0,0,0,0,0,0,
151,9.929,18.52,55.62,7.408,9.638,-12.23,17.32,15.69,-22.67,-38.92,-44.22,23.93,-33.89,-2.043,-7.14,28.43,0,0,0,0,0,0,0,0,0,0,0,0,0,0,0,0,
152,62.56,38.74,106.2,-0.7994,47.86,9.254,63.12,7.079,16.18,-15.55,1.502,28.78,3.173,16.91,22.96,46.66,0,0,0,0,0,0,0,0,0,0,0,0,0,0,0,0,
153,71.85,40.62,98.85,19.71,38.02,5.241,53.24,7.63,25.57,-2.591,11.21,21.1,2.846,10.79,9.429,31.14,0,0,0,0,0,0,0,0,0,0,0,0,0,0,0,0,
154,31.3,14.27,31.02,12.71,-20.5,-29.01,-7.458,9.537,-12.06,-13.13,-20.24,14.01,-31.09,-7.175,-25.04,6.883,0,0,0,0,0,0,0,0,0,0,0,0,0,0,0,0,
155,-25.34,-19.21,-21.53,-21.97,-62.11,-55.38,-16.76,1.025,-44.19,-31.13,-16.77,23.29,-27.66,-0.5557,-14.78,13.56,0,0,0,0,0,0,0,0,0,0,0,0,0,0,0,0,
156,-24.69,-16.0,3.036,-36.06,-29.48,-29.49,36.43,-5.21,-11.68,-18.83,23.42,27.89,14.09,18.44,23.85,32.69,0,0,0,0,0,0,0,0,0,0,0,0,0,0,0,0,
157,27.52,7.673,56.88,-29.87,31.53,13.37,72.67,-8.11,37.32,2.788,34.21,8.233,34.55,15.82,29.71,27.01,0,0,0,0,0,0,0,0,0,0,0,0,0,0,0,0,
158,53.22,25.74,74.84,-14.47,63.37,35.15,87.06,-10.58,54.8,7.122,34.52,1.317,40.07,18.21,27.49,31.85,0,0,0,0,0,0,0,0,0,0,0,0,0,0,0,0,
159,33.99,35.76,56.14,-7.324,58.47,42.64,92.48,-1.737,61.33,22.93,49.33,26.52,44.51,41.04,48.24,59.55,0,0,0,0,0,0,0,0,0,0,0,0,0,0,0,0,
160,0.6675,31.87,26.83,-7.515,25.16,31.72,66.75,13.41,43.59,41.63,42.28,43.8,28.88,42.99,58.71,63.01,0,0,0,0,0,0,0,0,0,0,0,0,0,0,0,0,
161,-9.331,29.87,19.45,6.086,-2.461,9.371,33.39,17.65,2.527,26.2,19.27,31.35,11.51,16.07,43.78,41.17,0,0,0,0,0,0,0,0,0,0,0,0,0,0,0,0,
162,11.73,35.53,47.43,4.83,2.94,2.159,32.18,7.246,-7.045,1.812,14.67,7.406,14.65,-5.198,22.75,21.34,0,0,0,0,0,0,0,0,0,0,0,0,0,0,0,0,
163,27.98,26.47,76.65,-18.73,24.55,9.848,59.68,-5.633,20.27,-0.4635,24.63,-0.6186,25.82,-3.355,9.564,15.14,0,0,0,0,0,0,0,0,0,0,0,0,0,0,0,0,
164,34.57,8.487,72.3,-12.47,35.34,17.0,74.94,-1.833,43.47,8.841,19.96,19.69,21.3,12.7,-0.4304,18.84,0,0,0,0,0,0,0,0,0,0,0,0,0,0,0,0,
165,39.98,7.483,47.81,16.69,20.59,15.43,52.38,16.79,32.76,22.63,-10.8,42.22,-9.382,22.16,-13.31,15.08,0,0,0,0,0,0,0,0,0,0,0,0,0,0,0,0,
166,24.54,21.5,31.64,14.79,-7.713,-1.411,32.14,20.28,-3.266,25.07,-28.14,34.96,-34.79,10.98,-11.1,8.711,0,0,0,0,0,0,0,0,0,0,0,0,0,0,0,0,
167,2.482,15.85,26.12,-21.49,-25.61,-31.18,38.34,-1.566,-23.94,-12.57,-3.93,5.392,-27.84,-12.8,12.8,7.051,0,0,0,0,0,0,0,0,0,0,0,0,0,0,0,0,
168,7.608,-11.27,32.95,-44.97,-31.13,-50.77,38.92,-16.86,-26.44,-61.71,24.23,-12.52,-12.76,-19.69,29.89,6.315,0,0,0,0,0,0,0,0,0,0,0,0,0,0,0,0,
169,24.57,-16.16,41.69,-29.23,-31.39,-47.43,16.01,-6.394,-34.62,-68.41,9.55,-5.263,-21.24,-3.83,11.42,9.905,0,0,0,0,0,0,0,0,0,0,0,0,0,0,0,0,
170,15.57,-12.18,14.57,-11.2,-38.18,-46.09,-34.97,9.68,-50.55,-53.86,-47.87,2.433,-57.49,-1.367,-35.54,-0.0371,0,0,0,0,0,0,0,0,0,0,0,0,0,0,0,0,
171,-9.042,-24.65,-21.97,-6.921,-52.25,-53.39,-76.14,20.84,-69.98,-55.88,-89.47,-7.172,-87.0,-16.11,-63.33,-24.31,0,0,0,0,0,0,0,0,0,0,0,0,0,0,0,0,
172,-9.947,-13.16,-9.081,4.701,-47.43,-48.05,-48.16,21.88,-73.47,-61.29,-74.89,-31.02,-81.02,-28.11,-58.24,-39.73,0,0,0,0,0,0,0,0,0,0,0,0,0,0,0,0,
173,6.702,6.929,22.24,-4.07,-27.54,-43.85,-1.398,-6.325,-55.93,-72.82,-46.43,-60.11,-65.16,-44.37,-53.23,-50.73,0,0,0,0,0,0,0,0,0,0,0,0,0,0,0,0,
174,17.57,-11.11,31.39,-30.44,-23.59,-53.51,-4.545,-36.05,-48.45,-88.17,-34.14,-59.01,-53.97,-40.43,-42.9,-39.96,0,0,0,0,0,0,0,0,0,0,0,0,0,0,0,0,
175,17.88,-29.17,20.86,-22.07,-36.13,-58.78,-28.31,-26.92,-54.84,-71.42,-32.0,-25.17,-47.5,-6.239,-31.62,-11.37,0,0,0,0,0,0,0,0,0,0,0,0,0,0,0,0,
176,-2.426,-22.39,-17.28,3.41,-50.2,-54.81,-58.27,-8.479,-66.22,-41.76,-59.82,-19.57,-70.33,-3.442,-57.66,-31.15,0,0,0,0,0,0,0,0,0,0,0,0,0,0,0,0,
177,-23.81,-5.092,-48.44,22.04,-47.77,-37.28,-94.92,-6.396,-82.2,-29.09,-96.97,-49.46,-97.52,-34.76,-86.94,-77.68,0,0,0,0,0,0,0,0,0,0,0,0,0,0,0,0,
178,-13.47,19.38,-31.06,27.65,-24.53,-17.94,-89.61,-10.25,-79.63,-18.73,-87.48,-72.01,-85.67,-51.52,-70.69,-75.81,0,0,0,0,0,0,0,0,0,0,0,0,0,0,0,0,
179,12.37,13.1,2.32,-14.17,-10.78,-31.32,-36.39,-26.8,-58.85,-33.01,-45.77,-81.15,-58.23,-58.04,-36.45,-46.11,0,0,0,0,0,0,0,0,0,0,0,0,0,0,0,0,
180,28.2,-21.51,25.49,-43.5,-14.4,-49.72,14.25,-34.57,-42.55,-69.64,-17.92,-67.82,-38.35,-48.49,-12.83,-23.13,0,0,0,0,0,0,0,0,0,0,0,0,0,0,0,0,
181,21.7,-18.2,25.66,1.136,-18.92,-36.49,29.05,-7.168,-32.72,-61.3,-17.57,-29.6,-30.11,-14.16,-3.64,0.7152,0,0,0,0,0,0,0,0,0,0,0,0,0,0,0,0,
182,-14.49,-2.104,-20.71,14.75,-36.95,-34.86,-9.733,11.48,-45.77,-21.4,-45.09,-12.77,-47.93,1.343,-15.87,5.844,0,0,0,0,0,0,0,0,0,0,0,0,0,0,0,0,
183,-48.07,-25.51,-59.57,-35.29,-55.97,-53.49,-65.6,-0.5857,-77.56,-10.18,-68.38,-35.31,-60.79,-14.67,-27.23,-19.67,0,0,0,0,0,0,0,0,0,0,0,0,0,0,0,0,
184,-28.75,-28.7,-21.91,-33.87,-23.19,-31.0,-43.55,-1.464,-67.05,-8.62,-40.85,-57.97,-30.42,-27.08,-10.86,-34.8,0,0,0,0,0,0,0,0,0,0,0,0,0,0,0,0,
185,34.07,17.12,41.97,10.82,40.47,22.55,28.32,12.73,-11.65,11.39,-7.607,-56.53,-4.89,-22.97,-3.747,-25.57,0,0,0,0,0,0,0,0,0,0,0,0,0,0,0,0,
186,61.79,31.41,42.8,15.52,44.51,27.6,11.46,13.88,1.994,23.4,-44.33,-43.89,-35.43,-16.37,-35.66,-22.81,0,0,0,0,0,0,0,0,0,0,0,0,0,0,0,0,
187,16.39,-8.761,-15.05,-1.739,-16.99,-21.66,-63.91,9.557,-52.8,3.675,-94.35,-28.28,-70.08,-15.31,-47.67,-15.8,0,0,0,0,0,0,0,0,0,0,0,0,0,0,0,0,
188,-35.46,-34.82,-55.87,-11.94,-52.8,-49.82,-74.94,16.35,-95.82,-19.34,-86.02,-9.921,-54.94,-8.905,-20.63,3.403,0,0,0,0,0,0,0,0,0,0,0,0,0,0,0,0,
189,-37.91,-25.22,-40.04,-19.18,-28.29,-33.15,-51.83,19.94,-77.75,-11.81,-64.25,-14.77,-25.93,-7.204,-14.88,-8.107,0,0,0,0,0,0,0,0,0,0,0,0,0,0,0,0,
190,-14.41,-15.61,0.4743,-18.93,5.877,-17.4,-32.38,3.104,-37.04,-5.457,-40.67,-46.49,-8.395,-33.93,-15.04,-36.62,0,0,0,0,0,0,0,0,0,0,0,0,0,0,0,0,
191,10.93,-10.84,27.1,-22.91,20.06,-12.74,-1.321,-12.79,-9.238,-22.32,-2.091,-49.86,9.485,-55.44,8.177,-34.0,0,0,0,0,0,0,0,0,0,0,0,0,0,0,0,0,
192,28.24,0.121,23.41,-26.01,15.38,-5.601,-20.01,-1.943,-3.79,-20.97,-13.94,-14.19,2.989,-41.09,2.376,-20.15,0,0,0,0,0,0,0,0,0,0,0,0,0,0,0,0,
193,11.11,2.088,-18.38,-7.073,-11.24,-11.88,-75.73,15.08,-26.86,-5.943,-60.98,6.748,-26.2,-26.05,-24.83,-17.51,0,0,0,0,0,0,0,0,0,0,0,0,0,0,0,0,
194,-23.96,-0.1935,-59.91,0.273,-29.08,-17.28,-65.8,15.55,-45.03,-10.85,-52.17,6.583,-24.18,-14.89,-16.08,-9.582,0,0,0,0,0,0,0,0,0,0,0,0,0,0,0,0,
195,-10.15,18.94,-40.68,-22.98,1.468,7.223,-14.19,10.76,-18.07,-9.113,-8.721,7.477,9.859,13.4,13.24,6.094,0,0,0,0,0,0,0,0,0,0,0,0,0,0,0,0,
196,41.95,32.25,14.17,-29.82,44.7,26.47,14.35,3.927,25.0,2.673,15.65,-1.448,31.07,22.62,33.63,16.43,0,0,0,0,0,0,0,0,0,0,0,0,0,0,0,0,
197,56.23,10.09,30.74,-11.1,48.66,18.69,20.13,-7.394,34.38,-8.433,20.07,-10.23,25.17,-1.167,39.36,18.99,0,0,0,0,0,0,0,0,0,0,0,0,0,0,0,0,
198,44.71,3.818,13.81,3.428,38.12,24.78,1.948,-8.63,19.82,-16.2,-1.809,-0.9866,7.117,-16.26,26.3,15.08,0,0,0,0,0,0,0,0,0,0,0,0,0,0,0,0,
199,48.52,39.6,7.599,17.29,39.2,41.37,-9.81,-0.841,12.9,5.545,-28.24,-1.452,-2.921,-19.24,12.23,-3.198,0,0,0,0,0,0,0,0,0,0,0,0,0,0,0,0,
200,39.26,55.0,9.139,23.99,32.42,32.85,4.491,0.0461,7.994,22.68,-20.09,-15.78,3.124,-24.66,15.22,-17.16,0,0,0,0,0,0,0,0,0,0,0,0,0,0,0,0,
201,26.65,30.77,14.6,-0.4631,32.7,24.34,10.63,-8.313,4.82,20.38,8.512,-13.56,21.53,-19.7,28.54,1.69,0,0,0,0,0,0,0,0,0,0,0,0,0,0,0,0,
202,49.05,11.82,34.21,-23.67,56.99,35.58,22.02,-18.95,27.47,19.14,22.97,-5.94,37.78,-12.18,29.49,16.59,0,0,0,0,0,0,0,0,0,0,0,0,0,0,0,0,
203,58.24,5.003,29.85,-0.3854,54.76,31.13,29.41,-16.94,43.91,17.69,0.722,-10.38,20.07,-22.39,-0.7874,-6.342,0,0,0,0,0,0,0,0,0,0,0,0,0,0,0,0,
204,9.533,-6.287,-28.84,24.27,5.444,0.991,-27.12,-3.325,-2.21,0.7547,-54.07,-22.67,-30.03,-46.19,-40.45,-35.85,0,0,0,0,0,0,0,0,0,0,0,0,0,0,0,0,
205,-37.98,-17.36,-75.15,-7.416,-30.39,-24.4,-86.27,-5.447,-70.17,-27.85,-88.85,-47.09,-57.49,-67.72,-48.94,-50.74,0,0,0,0,0,0,0,0,0,0,0,0,0,0,0,0,
206,-26.1,-20.17,-48.75,-40.9,-17.0,-23.19,-60.89,-14.86,-82.46,-43.79,-64.67,-60.81,-34.65,-63.61,-23.24,-42.14,0,0,0,0,0,0,0,0,0,0,0,0,0,0,0,0,
207,8.723,-15.54,-0.2142,-23.49,18.24,3.135,0.4566,-2.454,-42.1,-26.53,-9.847,-39.62,8.803,-29.08,8.916,-6.321,0,0,0,0,0,0,0,0,0,0,0,0,0,0,0,0,
208,12.74,-14.65,10.79,-5.574,36.83,24.44,26.31,13.3,1.232,7.827,20.64,-11.62,29.2,1.79,18.56,20.88,0,0,0,0,0,0,0,0,0,0,0,0,0,0,0,0,
209,-12.61,-16.97,-14.52,-7.521,18.49,15.82,0.2954,18.65,7.262,21.65,1.432,5.187,4.922,7.276,-0.1685,18.81,0,0,0,0,0,0,0,0,0,0,0,0,0,0,0,0,
210,-38.69,-6.814,-54.36,-3.33,-13.61,-1.604,-41.43,28.07,-24.38,9.65,-34.6,12.47,-30.95,-2.207,-19.31,1.173,0,0,0,0,0,0,0,0,0,0,0,0,0,0,0,0,
211,-36.1,-0.6632,-64.03,-13.91,-16.71,-5.324,-43.85,28.57,-46.43,-1.443,-35.8,-0.0136,-31.16,-12.27,-16.46,-19.3,0,0,0,0,0,0,0,0,0,0,0,0,0,0,0,0,
212,-9.712,-16.36,-23.25,-29.84,2.691,-4.505,-20.78,19.3,-36.9,2.325,-0.0667,-12.3,-5.457,-9.116,0.5927,-21.6,0,0,0,0,0,0,0,0,0,0,0,0,0,0,0,0,
213,8.267,-20.28,13.47,-12.42,17.1,1.447,2.915,27.08,-12.18,12.97,35.36,-5.965,14.73,2.974,14.5,-3.361,0,0,0,0,0,0,0,0,0,0,0,0,0,0,0,0,
214,14.47,1.614,4.688,8.936,26.09,19.41,23.02,42.76,15.58,18.72,31.21,-5.381,11.84,1.653,3.428,-0.745,0,0,0,0,0,0,0,0,0,0,0,0,0,0,0,0,
215,1.129,15.89,-32.71,18.07,20.74,29.75,-4.109,50.13,14.56,16.52,-19.24,-15.06,-21.52,-9.177,-33.15,-22.22,0,0,0,0,0,0,0,0,0,0,0,0,0,0,0,0,
216,-33.71,9.994,-67.91,27.39,-3.458,16.62,-52.91,50.06,-19.02,12.11,-59.77,-20.93,-51.1,-13.8,-51.6,-27.72,0,0,0,0,0,0,0,0,0,0,0,0,0,0,0,0,
217,-50.12,-11.09,-71.18,-0.6078,-18.04,-7.683,-45.39,29.47,-31.34,3.087,-51.54,-31.64,-46.64,-20.96,-38.1,-10.25,0,0,0,0,0,0,0,0,0,0,0,0,0,0,0,0,
218,-44.65,-33.53,-35.79,-44.72,-8.466,-19.11,-9.123,5.451,-20.57,-11.56,-28.44,-43.38,-32.46,-27.53,-25.78,-2.434,0,0,0,0,0,0,0,0,0,0,0,0,0,0,0,0,
219,-26.46,-26.14,5.011,-28.64,12.78,-2.55,10.57,12.83,-9.08,-8.942,-9.316,-39.73,-19.05,-17.93,-13.26,3.59,0,0,0,0,0,0,0,0,0,0,0,0,0,0,0,0,
220,0.3102,-5.819,-0.718,6.787,16.25,14.05,1.589,24.05,14.7,8.386,1.427,-33.55,-10.18,-17.52,-2.932,11.44,0,0,0,0,0,0,0,0,0,0,0,0,0,0,0,0,
221,-21.8,-19.24,-59.58,-3.427,-23.28,-10.11,-53.44,10.54,7.772,-5.935,-26.37,-43.87,-34.48,-48.69,-29.41,-11.77,0,0,0,0,0,0,0,0,0,0,0,0,0,0,0,0,
222,-71.1,-45.52,-92.7,-23.14,-62.39,-46.14,-86.48,0.8239,-48.22,-45.03,-61.4,-59.1,-62.35,-71.12,-58.28,-31.96,0,0,0,0,0,0,0,0,0,0,0,0,0,0,0,0,
223,-64.37,-47.24,-60.33,-30.28,-47.65,-45.08,-47.21,5.582,-68.53,-50.42,-42.08,-57.18,-46.14,-56.75,-34.33,-2.85,0,0,0,0,0,0,0,0,0,0,0,0,0,0,0,0,
224,-43.54,-44.96,-32.7,-33.6,-20.7,-29.95,-23.0,7.571,-40.16,-30.28,-7.069,-43.87,-25.55,-44.31,-1.442,23.41,0,0,0,0,0,0,0,0,0,0,0,0,0,0,0,0,
225,-55.39,-56.76,-45.76,-18.13,-34.67,-38.56,-44.93,8.662,-30.13,-32.69,-18.56,-40.71,-39.65,-56.15,-12.19,10.26,0,0,0,0,0,0,0,0,0,0,0,0,0,0,0,0,
226,-73.15,-66.76,-70.16,-0.1794,-68.2,-57.88,-59.17,10.43,-41.27,-47.31,-45.11,-38.56,-53.96,-56.4,-29.45,4.323,0,0,0,0,0,0,0,0,0,0,0,0,0,0,0,0,
227,-91.27,-63.2,-84.09,5.23,-78.11,-59.65,-68.88,4.921,-49.78,-45.57,-34.61,-24.32,-39.34,-34.64,-8.067,25.14,0,0,0,0,0,0,0,0,0,0,0,0,0,0,0,0,
228,-74.65,-42.19,-53.2,17.86,-46.29,-39.03,-56.92,-5.304,-40.77,-38.38,5.157,-25.04,-7.941,-29.45,28.1,36.4,0,0,0,0,0,0,0,0,0,0,0,0,0,0,0,0,
229,-12.91,-16.56,9.374,14.98,-2.096,-20.05,-0.034,-13.26,-4.417,-38.52,32.89,-40.88,13.28,-42.12,30.83,23.99,0,0,0,0,0,0,0,0,0,0,0,0,0,0,0,0,
230,7.465,-17.94,17.99,-17.03,-0.1221,-25.01,12.48,-13.62,10.45,-35.85,16.35,-32.01,0.5969,-40.31,-3.352,7.773,0,0,0,0,0,0,0,0,0,0,0,0,0,0,0,0,
231,-26.7,-32.61,-27.84,-19.86,-35.11,-38.47,-49.53,-1.05,-29.27,-26.64,-23.4,-11.48,-32.16,-31.67,-30.89,-3.758,0,0,0,0,0,0,0,0,0,0,0,0,0,0,0,0,
232,-41.05,-17.46,-49.45,12.34,-55.25,-41.99,-67.87,17.52,-62.06,-22.86,-29.62,-10.88,-43.52,-32.5,-25.25,-12.51,0,0,0,0,0,0,0,0,0,0,0,0,0,0,0,0,
233,-32.68,-1.177,-40.2,10.83,-50.98,-47.65,-17.54,21.52,-51.03,-26.6,-8.318,-15.82,-30.88,-32.39,-13.69,-21.57,0,0,0,0,0,0,0,0,0,0,0,0,0,0,0,0,
234,-28.08,-21.59,-25.05,-26.82,-37.63,-54.23,13.98,5.889,-31.1,-25.96,4.625,-20.76,-16.87,-26.92,-8.974,-30.25,0,0,0,0,0,0,0,0,0,0,0,0,0,0,0,0,
235,-10.28,-31.31,0.3957,-42.57,-17.28,-41.94,14.08,-10.33,-13.81,-22.73,24.66,-32.3,-2.678,-22.92,5.892,-27.68,0,0,0,0,0,0,0,0,0,0,0,0,0,0,0,0,
236,6.249,-7.611,7.46,-27.16,-9.426,-23.33,1.507,-16.1,-6.612,-34.86,31.12,-40.97,-3.658,-35.16,-4.738,-35.2,0,0,0,0,0,0,0,0,0,0,0,0,0,0,0,0,
237,-6.979,7.17,-22.54,-5.579,-24.89,-19.0,-25.25,-13.44,-33.38,-57.31,-16.29,-43.8,-33.65,-60.52,-54.58,-65.68,0,0,0,0,0,0,0,0,0,0,0,0,0,0,0,0,
238,-14.81,12.15,-36.79,17.87,-32.54,-18.24,-39.53,-4.835,-57.91,-59.52,-57.41,-38.1,-54.23,-62.53,-69.79,-68.61,0,0,0,0,0,0,0,0,0,0,0,0,0,0,0,0,
239,-2.504,23.17,-9.74,31.2,-17.51,-13.52,-33.69,-2.443,-42.97,-39.92,-42.72,-26.95,-39.04,-43.21,-42.55,-42.86,0,0,0,0,0,0,0,0,0,0,0,0,0,0,0,0,
240,2.346,22.01,21.31,13.75,5.978,-6.108,-7.955,-8.623,-18.07,-23.29,-8.603,-19.9,-5.325,-28.66,-23.81,-32.09,0,0,0,0,0,0,0,0,0,0,0,0,0,0,0,0,
241,14.31,7.59,29.29,-8.877,23.64,7.522,35.66,-2.325,4.644,-8.051,22.43,-4.202,24.65,0.6375,-4.101,-17.14,0,0,0,0,0,0,0,0,0,0,0,0,0,0,0,0,
242,21.21,-1.555,0.9488,0.5116,12.34,11.17,27.23,18.01,15.26,11.75,28.97,19.66,21.89,39.74,8.975,4.513,0,0,0,0,0,0,0,0,0,0,0,0,0,0,0,0,
243,-8.917,1.893,-46.51,21.85,-15.9,-0.4876,-31.38,28.57,-14.23,20.03,1.709,27.84,-1.648,47.51,-0.854,2.699,0,0,0,0,0,0,0,0,0,0,0,0,0,0,0,0,
244,-25.0,9.876,-54.79,20.21,-12.68,0.6033,-30.71,20.49,-32.68,15.11,-6.166,17.85,4.355,28.68,0.9385,-9.26,0,0,0,0,0,0,0,0,0,0,0,0,0,0,0,0,
245,-5.775,3.25,-18.27,3.316,13.66,13.62,10.72,5.332,1.941,6.613,18.64,-2.243,22.3,2.293,6.767,-22.74,0,0,0,0,0,0,0,0,0,0,0,0,0,0,0,0,
246,2.148,-10.27,12.12,1.257,25.1,15.85,18.31,-0.8681,27.28,-3.125,38.88,-20.33,14.73,-25.44,-3.061,-41.14,0,0,0,0,0,0,0,0,0,0,0,0,0,0,0,0,
247,0.9917,-0.5367,15.65,21.84,19.81,12.74,21.27,5.691,15.97,-6.944,43.13,-23.13,-1.86,-38.44,-7.97,-51.48,0,0,0,0,0,0,0,0,0,0,0,0,0,0,0,0,
248,-0.2295,22.25,-6.346,35.9,-2.218,9.412,-1.904,12.84,-8.338,-6.088,12.95,-20.59,-26.89,-36.38,-21.94,-54.26,0,0,0,0,0,0,0,0,0,0,0,0,0,0,0,0,
249,-9.079,25.96,-41.34,29.81,-27.02,2.832,-69.6,15.01,-45.94,-7.997,-37.31,-17.85,-54.48,-31.01,-45.41,-54.7,0,0,0,0,0,0,0,0,0,0,0,0,0,0,0,0,
250,-4.469,15.56,-48.27,23.7,-20.82,0.4273,-68.75,12.55,-62.8,-10.89,-40.12,-9.108,-43.17,-26.86,-39.09,-48.02,0,0,0,0,0,0,0,0,0,0,0,0,0,0,0,0,
251,12.18,6.799,-10.89,8.808,7.122,3.341,7.184,0.9684,-30.89,-19.36,1.778,-1.172,-7.602,-28.06,-14.09,-27.18,0,0,0,0,0,0,0,0,0,0,0,0,0,0,0,0,
252,24.49,-1.712,29.66,-9.151,27.33,13.7,43.07,-7.21,5.409,-26.43,32.88,9.228,3.609,-29.34,-0.6313,-4.611,0,0,0,0,0,0,0,0,0,0,0,0,0,0,0,0,
253,35.12,0.4677,24.28,18.27,27.41,28.55,37.09,3.007,13.19,-13.21,32.78,17.85,-14.78,-31.36,-7.282,-14.37,0,0,0,0,0,0,0,0,0,0,0,0,0,0,0,0,
254,23.57,19.3,-24.92,47.05,-3.758,20.37,12.83,10.46,-11.17,-0.8921,-1.151,1.253,-49.43,-44.19,-32.61,-46.67,0,0,0,0,0,0,0,0,0,0,0,0,0,0,0,0,
255,-15.76,25.91,-58.89,12.17,-37.21,-5.53,-29.67,-0.0943,-54.83,-12.61,-29.44,-20.4,-66.19,-48.04,-36.37,-55.12,0,0,0,0,0,0,0,0,0,0,0,0,0,0,0,0,
256,-25.99,8.769,-35.7,-11.79,-19.91,-2.986,-23.6,-5.256,-55.04,-16.65,-4.677,-9.955,-30.56,-19.82,-1.054,-32.81,0,0,0,0,0,0,0,0,0,0,0,0,0,0,0,0,
257,14.81,-1.532,13.1,6.024,27.15,25.27,14.54,-3.985,3.567,5.307,30.66,10.52,16.43,15.22,20.82,-4.496,0,0,0,0,0,0,0,0,0,0,0,0,0,0,0,0,
258,44.37,6.931,31.51,-7.718,41.98,38.16,-2.445,-14.96,42.8,22.45,29.47,15.45,18.93,24.51,10.82,10.82,0,0,0,0,0,0,0,0,0,0,0,0,0,0,0,0,
259,31.67,17.26,8.628,-19.31,18.31,29.62,-29.12,-15.23,29.55,21.74,17.13,24.1,-6.28,16.34,-0.3186,10.76,0,0,0,0,0,0,0,0,0,0,0,0,0,0,0,0,
260,10.28,19.65,-18.97,8.818,-12.41,11.37,-9.491,6.529,-1.258,16.31,13.46,34.4,-26.43,6.184,-9.247,-0.3809,0,0,0,0,0,0,0,0,0,0,0,0,0,0,0,0,
261,-14.11,4.875,-22.71,1.632,-26.99,-7.922,8.362,11.33,-25.64,7.844,18.53,22.9,-31.97,-6.603,-15.57,-17.78,0,0,0,0,0,0,0,0,0,0,0,0,0,0,0,0,
262,-35.94,-19.05,-4.453,-32.44,-14.21,-10.71,12.18,-5.588,-24.79,-1.207,34.19,5.183,-15.57,-13.96,-7.32,-24.8,0,0,0,0,0,0,0,0,0,0,0,0,0,0,0,0,
263,-10.29,-10.15,34.65,-23.99,23.02,11.04,37.14,-10.53,6.63,-0.4738,51.34,4.109,14.75,-6.205,6.672,-18.85,0,0,0,0,0,0,0,0,0,0,0,0,0,0,0,0,
264,41.53,30.17,70.38,6.331,63.82,46.38,72.49,-4.733,47.41,13.39,64.32,14.72,40.68,7.631,20.87,-12.0,0,0,0,0,0,0,0,0,0,0,0,0,0,0,0,0,
265,47.09,47.18,60.7,23.93,73.31,66.45,73.11,-6.497,74.17,30.45,60.88,24.43,45.22,8.217,33.58,-7.148,0,0,0,0,0,0,0,0,0,0,0,0,0,0,0,0,
266,14.66,35.24,27.08,12.92,40.11,42.38,36.94,-11.81,58.09,23.37,41.49,25.01,21.88,-9.342,36.29,-7.597,0,0,0,0,0,0,0,0,0,0,0,0,0,0,0,0,
267,-13.47,17.96,3.062,-30.77,7.803,2.433,20.7,-9.986,12.2,-5.061,48.9,32.58,10.5,-13.39,45.18,4.182,0,0,0,0,0,0,0,0,0,0,0,0,0,0,0,0,
268,-33.99,-5.024,-19.58,-51.99,12.6,-1.752,31.16,-4.486,3.241,-4.674,74.65,52.96,30.9,6.525,51.36,23.35,0,0,0,0,0,0,0,0,0,0,0,0,0,0,0,0,
269,-21.35,-4.458,-14.2,-24.94,26.35,13.43,18.53,-5.557,22.58,16.48,53.69,43.5,23.29,1.203,10.58,-4.893,0,0,0,0,0,0,0,0,0,0,0,0,0,0,0,0,
270,29.12,30.67,15.26,1.988,14.4,12.69,-3.831,-4.002,7.319,5.231,8.587,14.02,-14.88,-23.32,-31.47,-46.74,0,0,0,0,0,0,0,0,0,0,0,0,0,0,0,0,
271,33.37,41.24,-11.44,6.651,-13.71,4.678,-8.303,8.238,-15.52,-7.948,7.339,25.16,-11.38,-8.182,-3.132,-28.77,0,0,0,0,0,0,0,0,0,0,0,0,0,0,0,0,
272,-32.72,11.05,-77.42,-5.948,-35.54,-9.328,-18.44,6.957,-9.878,9.377,24.67,42.45,15.38,12.65,35.42,-6.959,0,0,0,0,0,0,0,0,0,0,0,0,0,0,0,0,
273,-72.91,-23.01,-85.31,-32.52,-40.46,-29.68,-20.33,-12.6,-12.8,8.122,19.28,16.33,14.13,-5.025,25.43,-28.03,0,0,0,0,0,0,0,0,0,0,0,0,0,0,0,0,
274,-40.95,-37.45,-35.73,-35.92,-20.07,-19.86,12.56,-14.46,-17.7,-5.66,23.73,3.177,17.68,-3.483,20.15,-29.81,0,0,0,0,0,0,0,0,0,0,0,0,0,0,0,0,
275,14.89,-0.4807,6.537,5.181,19.78,26.83,38.34,7.38,10.32,24.11,47.85,29.02,37.14,34.28,36.39,-2.082,0,0,0,0,0,0,0,0,0,0,0,0,0,0,0,0,
276,39.52,58.21,9.874,31.12,39.3,52.85,25.58,15.17,32.32,59.89,42.67,33.98,32.65,41.82,31.37,-0.7257,0,0,0,0,0,0,0,0,0,0,0,0,0,0,0,0,
277,20.02,52.5,-9.723,-3.368,16.58,28.68,0.0279,-6.039,19.66,42.3,3.519,9.19,12.67,18.43,13.56,-18.72,0,0,0,0,0,0,0,0,0,0,0,0,0,0,0,0,
278,8.958,18.96,-7.341,-32.05,-2.208,4.25,-14.6,-21.98,5.563,9.865,-20.5,3.703,9.37,19.78,12.42,-11.14,0,0,0,0,0,0,0,0,0,0,0,0,0,0,0,0,
279,37.36,33.68,23.69,-3.727,14.15,14.06,-4.139,-9.658,0.7732,14.2,-9.576,18.14,18.23,35.81,20.2,5.125,0,0,0,0,0,0,0,0,0,0,0,0,0,0,0,0,
280,52.33,45.58,42.56,17.43,21.4,15.81,26.33,0.5225,-6.517,25.98,8.865,13.44,18.21,21.68,14.88,-9.117,0,0,0,0,0,0,0,0,0,0,0,0,0,0,0,0,
281,34.06,27.39,24.19,-1.527,-4.845,-10.94,31.73,-10.12,-17.92,7.663,-1.533,-8.978,0.1628,-11.65,-13.47,-39.62,0,0,0,0,0,0,0,0,0,0,0,0,0,0,0,0,
282,19.09,27.37,-22.32,-13.95,-31.07,-29.46,-0.356,-19.58,-37.79,-20.0,-39.57,-23.3,-24.26,-36.41,-47.89,-63.32,0,0,0,0,0,0,0,0,0,0,0,0,0,0,0,0,
283,8.95,28.09,-52.59,-13.81,-37.56,-34.2,-21.03,-26.42,-50.15,-40.21,-59.01,-31.45,-31.97,-52.45,-57.74,-72.97,0,0,0,0,0,0,0,0,0,0,0,0,0,0,0,0,
284,2.071,13.27,-20.74,-17.25,-24.74,-35.63,-6.347,-37.48,-32.03,-55.03,-37.11,-32.28,-14.55,-47.04,-42.45,-56.76,0,0,0,0,0,0,0,0,0,0,0,0,0,0,0,0,
285,20.99,16.41,37.98,-18.41,-2.702,-24.7,15.1,-34.85,-4.402,-45.94,-11.79,-12.87,5.537,-16.39,-30.38,-28.07,0,0,0,0,0,0,0,0,0,0,0,0,0,0,0,0,
286,47.11,22.11,45.2,-19.29,-1.716,-18.11,16.25,-16.8,0.4999,-20.39,-10.42,14.99,6.577,9.05,-26.01,-5.203,0,0,0,0,0,0,0,0,0,0,0,0,0,0,0,0,
287,38.69,14.48,2.72,-16.26,-24.61,-26.92,4.684,-1.271,-15.16,-6.692,-10.72,32.33,2.862,21.55,-10.54,13.29,0,0,0,0,0,0,0,0,0,0,0,0,0,0,0,0,
288,5.496,9.566,-33.1,-16.29,-42.56,-32.79,-6.552,-0.7225,-35.54,-0.3764,-7.082,25.86,4.161,23.63,8.473,16.18,0,0,0,0,0,0,0,0,0,0,0,0,0,0,0,0,
289,-18.97,-7.053,-43.48,-32.26,-45.08,-36.13,-23.68,-18.94,-46.68,-5.093,-8.925,-3.912,8.363,7.167,22.75,10.88,0,0,0,0,0,0,0,0,0,0,0,0,0,0,0,0,
290,-28.6,-29.14,-32.55,-38.74,-32.65,-37.89,-25.67,-38.02,-31.05,-22.1,11.02,-23.68,36.38,-7.015,43.59,20.05,0,0,0,0,0,0,0,0,0,0,0,0,0,0,0,0,
291,-23.18,-30.39,-12.71,-30.89,-15.36,-31.27,5.818,-39.75,5.171,-23.25,41.85,-18.85,69.68,-7.051,47.12,20.77,0,0,0,0,0,0,0,0,0,0,0,0,0,0,0,0,
292,-3.765,-11.23,-3.154,-21.86,-5.191,-15.13,24.39,-26.31,26.86,-10.18,35.98,-1.947,67.89,4.052,24.92,10.13,0,0,0,0,0,0,0,0,0,0,0,0,0,0,0,0,
293,19.65,35.14,8.004,7.201,14.58,21.28,17.08,0.3161,33.61,14.7,23.52,31.63,63.16,43.78,24.05,28.34,0,0,0,0,0,0,0,0,0,0,0,0,0,0,0,0,
294,34.49,67.5,22.5,24.28,34.83,49.76,16.23,23.28,43.78,57.94,27.89,58.11,66.36,79.63,33.71,50.4,0,0,0,0,0,0,0,0,0,0,0,0,0,0,0,0,
295,22.0,33.59,15.97,-3.366,24.62,33.91,11.1,20.61,35.6,73.78,13.81,48.05,45.34,67.99,21.9,39.62,0,0,0,0,0,0,0,0,0,0,0,0,0,0,0,0,
296,5.083,3.155,14.39,-7.96,16.39,20.15,14.0,10.79,22.55,54.87,7.984,35.21,38.69,50.87,23.2,32.41,0,0,0,0,0,0,0,0,0,0,0,0,0,0,0,0,
297,23.65,14.79,39.36,23.68,31.53,33.7,39.95,8.867,45.77,47.67,25.02,27.19,57.16,40.39,25.73,21.0,0,0,0,0,0,0,0,0,0,0,0,0,0,0,0,0,
298,44.63,11.07,51.87,22.59,34.29,33.97,49.27,-2.608,66.58,32.99,20.43,-6.458,50.6,-3.126,-0.6614,-26.56,0,0,0,0,0,0,0,0,0,0,0,0,0,0,0,0,
299,47.64,24.74,48.19,2.214,33.93,34.22,57.23,-17.4,63.27,3.938,21.27,-32.75,44.53,-38.61,-3.851,-44.13,0,0,0,0,0,0,0,0,0,0,0,0,0,0,0,0,
300,58.31,72.12,49.73,4.855,45.56,51.48,71.25,-14.13,74.0,14.37,41.74,-19.09,56.6,-19.42,19.62,-4.484,0,0,0,0,0,0,0,0,0,0,0,0,0,0,0,0,
301,51.39,66.87,39.27,19.0,38.48,51.88,32.26,3.185,69.95,53.29,28.05,11.46,43.89,18.29,19.92,22.95,0,0,0,0,0,0,0,0,0,0,0,0,0,0,0,0,
302,25.21,31.83,15.96,30.57,25.33,43.21,-14.93,19.73,33.77,75.13,1.024,42.17,21.63,40.77,8.628,20.63,0,0,0,0,0,0,0,0,0,0,0,0,0,0,0,0,
303,20.0,37.2,-4.965,26.53,27.43,41.91,-9.32,19.89,21.85,74.67,-4.368,53.85,9.595,38.49,-5.398,2.194,0,0,0,0,0,0,0,0,0,0,0,0,0,0,0,0,
304,20.65,46.49,-24.63,10.8,15.93,26.52,-6.614,2.687,27.19,46.31,-7.042,38.08,-4.205,14.8,-13.88,-18.76,0,0,0,0,0,0,0,0,0,0,0,0,0,0,0,0,
305,13.77,41.28,-28.4,7.135,-4.823,8.106,-6.864,-9.936,22.19,4.848,7.281,24.75,8.274,-0.6445,13.8,-4.939,0,0,0,0,0,0,0,0,0,0,0,0,0,0,0,0,
306,1.445,26.2,-16.5,4.394,-10.52,0.2957,18.7,-12.95,36.47,-13.23,30.26,11.98,38.69,-3.708,35.08,15.08,0,0,0,0,0,0,0,0,0,0,0,0,0,0,0,0,
307,-19.29,-16.92,-17.92,-10.57,-14.82,-11.99,9.533,-15.06,50.37,-14.22,18.72,-6.08,36.49,-5.183,13.7,3.369,0,0,0,0,0,0,0,0,0,0,0,0,0,0,0,0,
308,-9.915,-29.89,-22.63,-21.19,-14.18,-9.645,-28.99,-6.504,20.41,-8.555,-2.077,12.12,14.36,14.55,-3.259,1.887,0,0,0,0,0,0,0,0,0,0,0,0,0,0,0,0,
309,20.16,16.92,-14.27,-17.95,-4.283,10.87,-34.67,12.78,-25.32,14.8,-10.66,53.48,-8.064,41.04,-13.13,12.75,0,0,0,0,0,0,0,0,0,0,0,0,0,0,0,0,
310,13.29,31.31,-16.96,-6.62,-13.49,5.444,-35.53,23.45,-52.63,30.41,-32.85,61.65,-34.99,34.12,-36.22,3.662,0,0,0,0,0,0,0,0,0,0,0,0,0,0,0,0,
311,-5.237,-4.875,-22.17,-10.39,-28.84,-16.74,-47.89,16.99,-55.69,16.05,-45.94,45.0,-38.6,13.15,-35.64,-1.901,0,0,0,0,0,0,0,0,0,0,0,0,0,0,0,0,
312,-7.716,-23.26,-2.357,-29.86,-24.4,-24.13,-26.85,0.1578,-34.98,-2.852,-22.34,27.64,-17.05,4.018,-13.15,1.302,0,0,0,0,0,0,0,0,0,0,0,0,0,0,0,0,
313,-15.14,-21.36,16.54,-22.54,-20.78,-30.3,20.62,-5.94,-14.42,-13.61,7.232,15.05,-1.52,-4.469,-6.602,-8.897,0,0,0,0,0,0,0,0,0,0,0,0,0,0,0,0,
314,-3.37,-5.875,19.99,-2.276,-15.72,-25.32,44.25,8.455,-7.715,-13.73,17.9,18.62,4.948,-10.63,-11.29,-23.02,0,0,0,0,0,0,0,0,0,0,0,0,0,0,0,0,
315,28.6,23.32,23.33,-16.01,-4.307,-5.119,18.53,16.98,-13.5,3.033,3.619,15.11,-9.593,-19.27,-25.28,-37.1,0,0,0,0,0,0,0,0,0,0,0,0,0,0,0,0,
316,27.83,27.24,16.29,-26.23,-11.77,-5.947,-21.13,8.271,-38.4,5.186,-23.16,-12.26,-37.94,-40.09,-42.28,-48.3,0,0,0,0,0,0,0,0,0,0,0,0,0,0,0,0,
317,16.94,17.45,14.99,-3.21,-5.801,-7.092,-6.338,2.304,-36.31,-13.73,-15.29,-24.82,-22.81,-44.31,-26.91,-31.92,0,0,0,0,0,0,0,0,0,0,0,0,0,0,0,0,
318,37.31,21.12,47.41,5.355,31.71,14.18,44.36,1.058,25.34,-10.93,23.58,-14.3,20.32,-24.97,0.3926,-6.793,0,0,0,0,0,0,0,0,0,0,0,0,0,0,0,0,
319,43.53,9.439,75.59,-3.679,33.28,12.41,57.99,0.8777,65.34,4.507,38.58,-6.573,26.83,-14.86,-0.5189,-7.752,0,0,0,0,0,0,0,0,0,0,0,0,0,0,0,0,
320,25.31,-0.1722,67.47,5.963,-1.36,-10.05,35.95,7.877,45.79,4.908,31.59,5.34,11.11,-14.26,-3.08,-5.744,0,0,0,0,0,0,0,0,0,0,0,0,0,0,0,0,
321,25.18,19.48,35.76,16.18,-22.34,-20.42,-3.876,12.94,17.61,5.401,12.07,22.04,-9.317,-10.18,-3.722,4.497,0,0,0,0,0,0,0,0,0,0,0,0,0,0,0,0,
322,19.35,24.66,-2.748,8.89,-47.96,-35.5,-49.03,10.73,-25.25,2.941,-35.22,24.03,-45.99,-10.14,-28.36,-14.56,0,0,0,0,0,0,0,0,0,0,0,0,0,0,0,0,
323,-0.4208,14.12,-12.48,9.941,-64.76,-42.19,-48.23,9.464,-69.39,-7.939,-63.43,14.98,-58.43,-12.1,-40.43,-28.57,0,0,0,0,0,0,0,0,0,0,0,0,0,0,0,0,
324,11.91,24.57,14.78,24.62,-29.63,-11.86,-16.44,7.932,-46.98,-6.037,-41.53,6.362,-28.33,-9.226,-24.91,-11.15,0,0,0,0,0,0,0,0,0,0,0,0,0,0,0,0,
325,40.76,40.88,32.94,25.51,12.9,21.0,-10.11,4.611,11.73,4.111,-23.26,-2.533,-4.338,-7.104,-25.14,-11.15,0,0,0,0,0,0,0,0,0,0,0,0,0,0,0,0,
326,49.21,50.43,22.5,12.2,11.0,19.61,-11.29,0.0276,32.57,5.042,-28.82,-18.9,-9.825,-17.93,-40.59,-33.25,0,0,0,0,0,0,0,0,0,0,0,0,0,0,0,0,
327,36.8,52.84,2.003,5.569,-21.68,-12.3,-7.813,-11.03,10.21,-8.029,-32.37,-39.44,-28.67,-39.44,-42.01,-44.51,0,0,0,0,0,0,0,0,0,0,0,0,0,0,0,0,
328,12.13,31.17,-0.9689,-9.307,-54.53,-48.61,-5.729,-21.59,-27.84,-29.76,-25.57,-37.68,-34.94,-39.68,-20.85,-32.91,0,0,0,0,0,0,0,0,0,0,0,0,0,0,0,0,
329,3.155,1.315,23.83,-31.05,-57.23,-52.44,7.373,-18.66,-45.58,-30.71,-10.48,-15.68,-20.56,-17.47,4.653,-5.789,0,0,0,0,0,0,0,0,0,0,0,0,0,0,0,0,
330,18.0,10.53,40.1,-1.743,-24.65,-18.96,-0.5823,-6.333,-36.77,-7.433,-8.282,-10.03,-14.17,-14.14,1.622,-1.114,0,0,0,0,0,0,0,0,0,0,0,0,0,0,0,0,
331,41.96,69.66,33.47,61.17,12.99,21.88,-28.86,5.679,-22.77,6.093,-17.8,-11.74,-14.97,-15.1,-4.368,-9.207,0,0,0,0,0,0,0,0,0,0,0,0,0,0,0,0,
332,65.25,114.6,23.23,70.61,28.87,42.21,-29.68,15.44,4.079,12.44,-5.242,2.962,0.6341,10.15,18.79,12.44,0,0,0,0,0,0,0,0,0,0,0,0,0,0,0,0,
333,47.21,80.55,-0.7055,33.45,10.86,20.77,-24.54,19.99,27.8,15.85,8.87,18.28,9.499,22.56,30.47,34.71,0,0,0,0,0,0,0,0,0,0,0,0,0,0,0,0,
334,-4.598,14.56,-21.77,2.033,-26.86,-27.34,-21.99,16.81,15.8,-7.512,1.909,33.29,1.871,12.37,25.12,42.04,0,0,0,0,0,0,0,0,0,0,0,0,0,0,0,0,
335,-21.72,-1.579,-11.05,-2.551,-47.08,-48.23,-0.7391,13.25,-1.938,-29.67,1.317,46.68,-2.168,19.01,25.53,48.71,0,0,0,0,0,0,0,0,0,0,0,0,0,0,0,0,
336,-7.564,23.91,1.178,32.9,-31.61,-21.31,5.305,14.78,-3.317,-13.37,0.4971,34.04,-7.374,29.92,13.96,30.81,0,0,0,0,0,0,0,0,0,0,0,0,0,0,0,0,
337,16.08,51.5,7.62,54.95,11.04,27.04,0.6252,12.24,1.888,11.69,-7.514,9.452,-4.23,21.84,12.64,6.343,0,0,0,0,0,0,0,0,0,0,0,0,0,0,0,0,
338,47.78,66.18,21.0,23.77,48.9,62.22,12.72,-1.418,29.22,23.35,3.525,-5.96,17.16,9.441,34.16,10.18,0,0,0,0,0,0,0,0,0,0,0,0,0,0,0,0,
339,48.32,61.54,17.76,11.0,53.54,64.66,22.85,-10.89,66.52,31.48,25.76,-10.22,37.48,9.229,44.59,27.99,0,0,0,0,0,0,0,0,0,0,0,0,0,0,0,0,
340,35.4,51.6,21.34,31.14,52.21,57.73,42.02,1.504,87.53,34.12,50.95,14.75,63.63,34.16,65.44,53.42,0,0,0,0,0,0,0,0,0,0,0,0,0,0,0,0,
341,55.01,47.12,49.09,28.74,68.59,67.16,55.42,21.75,105.2,39.23,73.4,47.81,87.17,67.82,92.93,73.36,0,0,0,0,0,0,0,0,0,0,0,0,0,0,0,0,
342,59.72,43.7,38.4,21.7,70.54,69.71,25.18,27.19,101.4,51.38,62.16,52.18,74.46,76.88,80.81,77.92,0,0,0,0,0,0,0,0,0,0,0,0,0,0,0,0,
343,29.71,51.34,-4.181,28.13,58.22,62.07,7.659,24.62,63.18,57.08,41.02,51.58,56.76,74.18,67.81,90.16,0,0,0,0,0,0,0,0,0,0,0,0,0,0,0,0,
344,21.06,60.44,-14.37,24.62,61.41,69.63,19.79,17.97,50.44,62.83,44.04,46.75,57.84,71.02,75.1,90.98,0,0,0,0,0,0,0,0,0,0,0,0,0,0,0,0,
345,26.52,42.8,-9.323,10.75,60.6,67.98,8.171,-4.75,72.4,63.13,40.24,14.68,46.4,46.2,59.02,57.18,0,0,0,0,0,0,0,0,0,0,0,0,0,0,0,0,
346,14.79,21.04,-0.4814,4.141,48.48,45.25,12.02,-23.4,78.35,37.51,34.19,-3.664,40.86,14.92,40.9,30.14,0,0,0,0,0,0,0,0,0,0,0,0,0,0,0,0,
347,20.74,27.09,30.93,19.15,53.9,42.18,45.85,-14.22,81.71,12.6,50.56,10.08,56.37,5.661,44.52,28.06,0,0,0,0,0,0,0,0,0,0,0,0,0,0,0,0,
348,42.81,32.49,35.73,25.45,55.78,43.04,36.73,-3.612,84.65,6.014,47.93,11.38,40.46,1.505,33.74,20.2,0,0,0,0,0,0,0,0,0,0,0,0,0,0,0,0,
349,25.96,12.67,-3.061,-3.56,24.49,10.24,5.478,-12.74,40.1,-7.145,18.33,-0.6177,-2.672,-12.19,13.62,6.86,0,0,0,0,0,0,0,0,0,0,0,0,0,0,0,0,
350,-12.69,-6.495,-20.78,-16.03,-4.753,-15.06,3.677,-21.93,-11.23,-13.75,9.998,6.413,-12.84,-14.68,17.17,16.15,0,0,0,0,0,0,0,0,0,0,0,0,0,0,0,0,
351,-26.56,-9.803,-8.159,-5.993,-4.704,-7.588,2.126,-21.87,-4.125,2.104,14.87,21.64,2.173,-0.0105,28.62,39.68,0,0,0,0,0,0,0,0,0,0,0,0,0,0,0,0,
352,-17.27,-5.144,9.888,-13.95,8.89,0.5749,7.219,-16.53,22.31,9.859,7.098,22.03,8.64,11.93,28.29,47.1,0,0,0,0,0,0,0,0,0,0,0,0,0,0,0,0,
353,9.247,14.45,40.17,-3.062,26.67,11.71,39.95,-3.754,32.11,9.414,5.605,14.53,14.4,15.06,27.27,37.37,0,0,0,0,0,0,0,0,0,0,0,0,0,0,0,0,
354,25.91,37.26,47.99,17.66,28.1,21.12,44.73,0.0882,37.09,12.46,2.216,3.595,10.43,3.51,16.92,14.85,0,0,0,0,0,0,0,0,0,0,0,0,0,0,0,0,
355,7.484,25.31,9.815,-12.47,-7.361,-9.482,4.688,-18.52,16.52,-10.34,-26.99,-20.04,-20.68,-28.51,-14.18,-20.66,0,0,0,0,0,0,0,0,0,0,0,0,0,0,0,0,
356,-14.41,-12.52,-12.43,-48.63,-41.48,-51.14,-17.59,-36.47,-25.05,-47.28,-43.71,-42.71,-41.11,-46.54,-28.84,-43.6,0,0,0,0,0,0,0,0,0,0,0,0,0,0,0,0,
357,-29.48,-34.52,-4.186,-48.71,-40.74,-53.61,-4.084,-36.74,-37.74,-53.08,-21.09,-47.43,-25.59,-34.41,-10.78,-40.8,0,0,0,0,0,0,0,0,0,0,0,0,0,0,0,0,
358,-37.71,-26.89,-8.06,-29.9,-26.68,-34.1,7.775,-25.39,-24.68,-41.06,-1.288,-44.99,-9.332,-26.7,-1.012,-36.38,0,0,0,0,0,0,0,0,0,0,0,0,0,0,0,0,
359,-9.799,10.38,-1.604,11.28,-9.7,-11.25,0.8171,-4.125,-14.62,-28.67,-4.809,-36.94,-7.445,-20.46,-12.32,-43.08,0,0,0,0,0,0,0,0,0,0,0,0,0,0,0,0,
360,16.03,42.61,12.17,24.62,-0.7737,1.591,-11.32,12.51,-6.931,-3.752,-17.33,-17.91,-9.79,0.2337,-26.0,-48.27,0,0,0,0,0,0,0,0,0,0,0,0,0,0,0,0,
361,-14.1,13.16,-22.2,-22.67,-26.51,-22.5,-16.22,5.516,-12.87,8.949,-38.61,-10.52,-22.04,2.735,-38.94,-46.34,0,0,0,0,0,0,0,0,0,0,0,0,0,0,0,0,
362,-55.44,-40.7,-54.0,-43.23,-51.8,-46.99,-16.02,-7.369,-33.61,-7.31,-47.96,-21.57,-29.17,-13.23,-43.74,-43.24,0,0,0,0,0,0,0,0,0,0,0,0,0,0,0,0,
363,-49.85,-42.04,-23.68,-16.6,-32.05,-26.35,-9.65,-7.273,-34.11,-16.28,-28.65,-25.17,-18.64,-13.71,-40.13,-40.43,0,0,0,0,0,0,0,0,0,0,0,0,0,0,0,0,
364,-15.32,-13.89,-5.07,-2.077,-4.504,1.821,-5.711,-11.01,-15.37,-7.541,-20.24,-24.85,-20.67,-9.239,-44.14,-41.95,0,0,0,0,0,0,0,0,0,0,0,0,0,0,0,0,
365,-3.586,1.322,-32.16,11.9,-2.976,7.919,-21.1,-26.99,-11.88,-2.562,-34.18,-37.47,-34.85,-9.706,-41.9,-42.81,0,0,0,0,0,0,0,0,0,0,0,0,0,0,0,0,
366,-23.71,10.97,-42.79,18.71,-9.729,7.761,-27.73,-34.61,-13.38,-0.3573,-26.16,-38.4,-25.49,2.593,-15.04,-19.93,0,0,0,0,0,0,0,0,0,0,0,0,0,0,0,0,
367,-45.91,0.4398,-30.75,-10.42,-20.95,-3.027,-7.135,-24.02,0.1241,2.02,2.867,-14.84,-5.994,20.7,13.24,16.08,0,0,0,0,0,0,0,0,0,0,0,0,0,0,0,0,
368,-55.14,-34.41,-19.83,-22.68,-31.12,-18.49,2.622,-6.498,7.404,1.024,23.02,3.423,-0.2196,31.04,25.31,31.95,0,0,0,0,0,0,0,0,0,0,0,0,0,0,0,0,
369,-43.2,-43.28,-5.364,2.634,-14.12,-9.319,4.433,11.95,5.745,5.454,31.93,8.371,2.378,34.51,16.34,23.96,0,0,0,0,0,0,0,0,0,0,0,0,0,0,0,0,
370,-13.15,-9.822,-1.95,16.1,13.91,14.43,5.898,25.1,11.41,14.75,4.247,6.23,-13.44,21.86,-28.51,-6.556,0,0,0,0,0,0,0,0,0,0,0,0,0,0,0,0,
371,5.905,20.36,-16.27,15.29,13.22,22.75,-33.09,19.12,5.197,16.73,-59.35,-12.71,-50.17,1.727,-66.84,-36.71,0,0,0,0,0,0,0,0,0,0,0,0,0,0,0,0,
372,5.431,21.73,-24.12,17.48,0.9721,21.68,-64.16,5.045,-7.993,16.44,-74.34,-30.14,-48.59,6.591,-41.01,-27.19,0,0,0,0,0,0,0,0,0,0,0,0,0,0,0,0,
373,3.22,14.46,-12.9,18.88,10.17,24.39,-21.49,5.93,9.168,22.75,-30.99,-29.64,-12.77,25.27,-7.705,-10.2,0,0,0,0,0,0,0,0,0,0,0,0,0,0,0,0,
374,7.72,8.917,8.379,30.47,16.89,16.05,21.67,10.9,29.18,20.57,-15.77,-40.28,-14.68,16.78,-25.41,-30.62,0,0,0,0,0,0,0,0,0,0,0,0,0,0,0,0,
375,6.769,-7.971,12.97,41.48,-0.3365,-6.021,11.26,4.891,11.0,0.0644,-20.73,-61.3,-38.41,-9.911,-35.5,-55.44,0,0,0,0,0,0,0,0,0,0,0,0,0,0,0,0,
376,-10.95,-27.54,-10.06,13.62,-15.39,-19.32,-6.096,-4.837,-13.9,-17.5,0.6199,-60.62,-34.61,-19.76,-12.37,-54.27,0,0,0,0,0,0,0,0,0,0,0,0,0,0,0,0,
377,-25.6,-30.72,-30.68,-35.1,-22.36,-27.0,-5.868,-18.95,-15.64,-23.71,11.72,-48.43,-24.95,-14.1,-5.712,-42.64,0,0,0,0,0,0,0,0,0,0,0,0,0,0,0,0,
378,-22.08,-30.0,-26.69,-42.05,-30.78,-36.51,12.84,-30.03,-2.302,-29.91,9.954,-31.95,-16.75,-4.207,-7.897,-24.47,0,0,0,0,0,0,0,0,0,0,0,0,0,0,0,0,
379,-6.649,-34.82,-0.1046,-8.222,-14.78,-20.5,32.35,-16.54,20.58,-21.4,26.24,2.217,1.18,10.43,4.877,-0.5442,0,0,0,0,0,0,0,0,0,0,0,0,0,0,0,0,
380,13.91,-27.06,28.94,9.071,19.7,15.13,19.64,4.207,32.35,5.269,23.04,24.01,-2.949,14.75,0.5374,1.669,0,0,0,0,0,0,0,0,0,0,0,0,0,0,0,0,
381,15.34,-3.591,25.14,7.716,24.53,26.92,1.334,4.081,14.14,14.41,-8.469,14.37,-28.34,0.6432,-23.31,-19.99,0,0,0,0,0,0,0,0,0,0,0,0,0,0,0,0,
382,4.2,16.46,4.167,17.87,10.95,20.57,0.6294,-0.631,-4.335,5.623,-24.7,7.907,-38.27,-11.76,-34.9,-33.1,0,0,0,0,0,0,0,0,0,0,0,0,0,0,0,0,
383,8.158,12.81,3.964,12.05,8.296,12.72,-13.05,-1.239,0.5265,5.202,-32.89,9.327,-40.03,-18.45,-39.01,-40.21,0,0,0,0,0,0,0,0,0,0,0,0,0,0,0,0,
384,-5.982,-21.12,-2.582,-21.29,-10.35,-14.98,-29.8,-14.03,4.902,-0.7217,-36.79,4.787,-42.42,-28.18,-38.06,-47.65,0,0,0,0,0,0,0,0,0,0,0,0,0,0,0,0,
385,-35.25,-49.25,-28.95,-29.41,-43.08,-43.81,-31.81,-24.36,-4.551,-19.57,-20.83,10.96,-38.75,-29.67,-28.97,-36.23,0,0,0,0,0,0,0,0,0,0,0,0,0,0,0,0,
386,-31.49,-39.29,-45.57,-10.56,-54.03,-45.68,-47.78,-18.69,-19.44,-27.6,-27.26,19.29,-52.71,-23.77,-40.24,-30.67,0,0,0,0,0,0,0,0,0,0,0,0,0,0,0,0,
387,-37.24,-34.95,-69.87,-16.16,-66.36,-56.48,-74.4,-22.09,-44.72,-28.23,-66.47,8.377,-86.22,-27.52,-62.85,-49.82,0,0,0,0,0,0,0,0,0,0,0,0,0,0,0,0,
388,-78.5,-69.0,-103.4,-44.39,-96.86,-87.88,-85.6,-40.63,-74.1,-39.21,-77.65,-5.774,-100.3,-39.26,-56.86,-55.75,0,0,0,0,0,0,0,0,0,0,0,0,0,0,0,0,
389,-85.36,-90.88,-89.19,-62.6,-96.08,-89.32,-77.95,-52.8,-78.74,-52.71,-51.97,-10.81,-82.89,-49.41,-34.97,-41.99,0,0,0,0,0,0,0,0,0,0,0,0,0,0,0,0,
390,-45.43,-72.22,-33.78,-62.66,-54.96,-56.81,-46.42,-53.38,-51.04,-54.14,-24.19,-7.136,-50.66,-49.04,-21.01,-30.48,0,0,0,0,0,0,0,0,0,0,0,0,0,0,0,0,
391,-13.01,-36.01,2.709,-44.66,-23.59,-30.51,-7.237,-44.54,-15.9,-40.33,-4.948,8.975,-21.13,-29.56,-11.77,-19.44,0,0,0,0,0,0,0,0,0,0,0,0,0,0,0,0,
392,2.742,7.16,13.33,-18.91,-15.59,-17.17,11.86,-30.39,3.038,-19.96,4.687,27.18,-4.226,-2.675,0.7862,-3.117,0,0,0,0,0,0,0,0,0,0,0,0,0,0,0,0,
393,15.04,26.33,9.169,-12.19,-19.9,-16.43,13.29,-24.41,3.933,-7.523,11.37,34.93,5.287,9.581,22.41,16.49,0,0,0,0,0,0,0,0,0,0,0,0,0,0,0,0,
394,9.129,-0.7989,-11.68,-21.97,-32.82,-26.87,3.24,-23.37,-1.467,-8.323,17.91,30.94,10.64,6.999,32.37,22.56,0,0,0,0,0,0,0,0,0,0,0,0,0,0,0,0,
395,-2.516,-14.28,-17.52,-7.846,-24.0,-15.65,2.283,-13.03,5.532,-10.31,18.17,22.69,11.25,6.594,15.51,7.937,0,0,0,0,0,0,0,0,0,0,0,0,0,0,0,0,
396,17.67,14.66,6.913,19.22,11.17,13.75,19.11,-4.074,28.74,-1.475,13.23,17.71,3.589,4.115,-3.725,-8.347,0,0,0,0,0,0,0,0,0,0,0,0,0,0,0,0,
397,34.43,27.99,12.49,8.549,15.18,13.13,6.096,-10.31,31.6,1.87,0.3744,10.68,-16.63,-11.61,-9.703,-16.52,0,0,0,0,0,0,0,0,0,0,0,0,0,0,0,0,
398,9.373,19.83,-14.85,-1.875,-19.32,-7.351,-26.69,-16.77,-0.339,-10.78,-8.115,14.63,-23.2,-8.591,3.488,-4.261,0,0,0,0,0,0,0,0,0,0,0,0,0,0,0,0,
399,-8.026,19.17,-30.29,21.3,-43.63,-17.39,-32.88,-15.38,-26.33,-10.59,-4.297,43.44,-9.348,25.83,26.78,26.92,0,0,0,0,0,0,0,0,0,0,0,0,0,0,0,0,
400,-9.545,-0.1743,-32.0,4.188,-55.31,-35.21,-54.23,-21.9,-36.68,1.913,-17.97,56.8,-14.44,37.44,21.12,32.18,0,0,0,0,0,0,0,0,0,0,0,0,0,0,0,0,
401,-29.25,-19.76,-33.64,-33.59,-52.72,-42.08,-80.64,-28.51,-39.4,-3.482,-37.5,36.31,-24.13,14.75,-8.244,6.747,0,0,0,0,0,0,0,0,0,0,0,0,0,0,0,0,
402,-21.38,13.18,-10.44,-0.2723,-14.62,-4.527,-47.51,-14.7,-14.71,-8.871,-28.63,21.34,-9.767,0.5829,-23.82,-9.107,0,0,0,0,0,0,0,0,0,0,0,0,0,0,0,0,
403,27.34,50.9,17.19,37.14,19.84,28.42,-14.27,0.3244,10.66,-1.086,-22.32,12.17,-9.802,-6.926,-26.68,-20.01,0,0,0,0,0,0,0,0,0,0,0,0,0,0,0,0,
404,40.0,44.69,0.3334,15.11,14.85,21.68,-22.56,-3.727,3.864,-3.782,-33.68,-5.666,-25.47,-18.24,-21.36,-35.74,0,0,0,0,0,0,0,0,0,0,0,0,0,0,0,0,
405,8.633,31.76,-30.23,0.6946,-0.2616,7.263,-21.67,-8.979,-4.501,-7.361,-37.13,-2.374,-19.96,-13.7,-6.245,-25.23,0,0,0,0,0,0,0,0,0,0,0,0,0,0,0,0,
406,-10.29,20.49,-29.44,3.788,-9.462,-5.323,-22.89,-5.736,-8.279,-0.495,-37.16,19.24,-13.21,-0.3121,1.284,1.217,0,0,0,0,0,0,0,0,0,0,0,0,0,0,0,0,
407,-9.935,5.774,-18.68,5.016,-14.15,-13.48,-30.62,-3.567,-21.36,1.157,-37.44,20.06,-23.16,-1.617,-12.26,-8.68,0,0,0,0,0,0,0,0,0,0,0,0,0,0,0,0,
408,3.907,19.31,-16.08,26.3,-5.487,-2.542,-17.56,-1.771,-27.38,2.506,-35.55,7.569,-35.01,-12.33,-34.75,-35.57,0,0,0,0,0,0,0,0,0,0,0,0,0,0,0,0,
409,36.56,47.34,-16.81,37.16,3.501,11.11,-25.94,1.678,-30.45,5.988,-35.8,8.274,-39.99,-13.48,-33.74,-26.2,0,0,0,0,0,0,0,0,0,0,0,0,0,0,0,0,
410,56.92,59.59,-31.92,21.13,3.598,18.02,-55.26,2.925,-29.46,5.964,-25.5,12.09,-30.07,-3.682,-11.57,-5.491,0,0,0,0,0,0,0,0,0,0,0,0,0,0,0,0,
411,40.89,57.99,-55.68,7.541,2.597,19.4,-49.6,-3.982,-12.41,9.548,-17.45,0.6521,-21.04,-1.401,-12.12,-11.44,0,0,0,0,0,0,0,0,0,0,0,0,0,0,0,0,
412,15.39,35.27,-54.46,-5.048,-1.857,4.532,-33.34,-18.45,-8.295,3.043,-31.4,-16.8,-29.91,-10.22,-32.45,-27.14,0,0,0,0,0,0,0,0,0,0,0,0,0,0,0,0,
413,19.97,21.68,-11.98,11.22,8.965,7.664,-27.1,-14.22,-11.21,-6.791,-34.42,-13.32,-25.08,-4.773,-33.85,-30.47,0,0,0,0,0,0,0,0,0,0,0,0,0,0,0,0,
414,61.18,55.01,41.37,59.61,44.91,50.53,-1.808,15.78,17.66,21.52,-18.03,9.748,-3.613,17.76,-24.67,-22.08,0,0,0,0,0,0,0,0,0,0,0,0,0,0,0,0,
415,80.17,71.34,45.38,47.5,48.91,60.33,4.74,25.56,38.68,56.97,-24.57,18.52,-10.19,24.41,-29.44,-19.06,0,0,0,0,0,0,0,0,0,0,0,0,0,0,0,0,
416,31.81,23.31,-1.671,-15.36,0.4021,10.21,-33.64,6.352,13.73,43.96,-41.67,16.18,-26.09,16.31,-26.38,-10.54,0,0,0,0,0,0,0,0,0,0,0,0,0,0,0,0,
417,-16.43,-22.25,-24.2,-25.96,-30.17,-22.73,-34.22,2.394,-4.423,20.15,-15.71,26.8,-3.094,23.67,7.311,25.1,0,0,0,0,0,0,0,0,0,0,0,0,0,0,0,0,
418,-7.068,-22.65,1.651,-9.001,-16.31,-16.63,23.19,7.369,16.27,21.16,33.78,20.39,26.72,25.9,29.54,33.52,0,0,0,0,0,0,0,0,0,0,0,0,0,0,0,0,
419,16.39,-4.879,29.43,-12.0,0.1488,-7.301,49.55,-4.602,36.03,14.15,45.89,-17.19,23.29,-4.068,7.732,-12.45,0,0,0,0,0,0,0,0,0,0,0,0,0,0,0,0,
420,27.06,16.25,46.82,2.598,11.74,10.44,39.72,-9.198,38.0,-2.54,28.2,-35.71,15.14,-29.24,-9.768,-34.16,0,0,0,0,0,0,0,0,0,0,0,0,0,0,0,0,
421,32.12,29.81,49.67,21.74,20.68,25.15,35.19,0.2825,46.23,2.19,13.16,-26.84,13.32,-26.48,-1.908,-16.92,0,0,0,0,0,0,0,0,0,0,0,0,0,0,0,0,
422,15.81,14.61,16.3,14.71,2.174,2.971,6.151,0.5248,48.49,16.9,-10.01,-28.76,-8.52,-24.56,-10.91,-22.02,0,0,0,0,0,0,0,0,0,0,0,0,0,0,0,0,
423,-13.23,-15.23,-19.6,9.544,-33.86,-31.56,-32.19,-2.549,9.211,12.07,-31.97,-38.13,-37.94,-35.52,-30.1,-40.63,0,0,0,0,0,0,0,0,0,0,0,0,0,0,0,0,
424,-28.14,-29.89,-25.4,6.779,-56.36,-49.02,-37.17,-1.113,-48.02,-12.97,-23.69,-36.32,-48.29,-50.04,-26.02,-36.02,0,0,0,0,0,0,0,0,0,0,0,0,0,0,0,0,
425,-33.79,-30.73,-31.84,4.881,-57.59,-51.4,-40.35,-3.362,-67.49,-34.36,-6.942,-33.14,-39.7,-59.96,-16.0,-21.22,0,0,0,0,0,0,0,0,0,0,0,0,0,0,0,0,
426,-27.14,-21.6,-33.04,27.06,-33.01,-28.19,-34.69,-9.233,-40.95,-32.41,-7.209,-42.16,-18.01,-57.96,-13.58,-12.36,0,0,0,0,0,0,0,0,0,0,0,0,0,0,0,0,
427,-1.738,-4.649,-3.888,31.67,-3.723,-2.761,6.505,-20.92,-0.0384,-20.75,-6.582,-56.83,0.9007,-50.06,0.6013,0.5237,0,0,0,0,0,0,0,0,0,0,0,0,0,0,0,0,
428,1.499,-3.902,13.22,-7.908,-4.496,-12.41,27.5,-33.05,26.44,-17.85,2.062,-55.28,3.008,-37.06,20.09,15.45,0,0,0,0,0,0,0,0,0,0,0,0,0,0,0,0,
429,-23.14,-11.97,1.121,-20.53,-13.97,-19.9,6.601,-27.76,27.5,-7.331,-0.7438,-36.43,-5.912,-14.46,17.35,13.97,0,0,0,0,0,0,0,0,0,0,0,0,0,0,0,0,
430,-13.42,6.065,-8.655,15.42,-8.274,0.9196,-20.41,-12.61,3.034,16.54,-14.26,-26.49,-23.39,-4.637,-1.629,-4.513,0,0,0,0,0,0,0,0,0,0,0,0,0,0,0,0,
431,30.52,37.5,-14.13,37.05,-6.899,11.76,-40.04,-7.544,-34.59,24.05,-17.51,-31.51,-39.32,-20.42,-16.39,-27.82,0,0,0,0,0,0,0,0,0,0,0,0,0,0,0,0,
432,58.57,53.54,-13.43,31.45,-10.18,4.659,-40.58,-11.57,-50.98,7.355,-15.89,-37.57,-39.32,-41.16,-29.54,-40.78,0,0,0,0,0,0,0,0,0,0,0,0,0,0,0,0,
433,61.94,59.41,-18.15,26.25,-8.038,-1.432,-31.32,-16.38,-32.79,-14.16,-21.48,-37.82,-30.04,-50.28,-35.06,-30.37,0,0,0,0,0,0,0,0,0,0,0,0,0,0,0,0,
434,59.26,84.99,-33.76,31.73,8.574,9.172,-19.45,-10.92,-0.8063,-24.29,-7.018,-21.38,-5.211,-35.2,-14.67,-8.021,0,0,0,0,0,0,0,0,0,0,0,0,0,0,0,0,
435,120.4,172.3,19.65,72.26,62.83,57.21,20.99,9.204,42.65,-5.343,26.63,0.6522,26.37,-4.506,5.946,1.604,0,0,0,0,0,0,0,0,0,0,0,0,0,0,0,0,
436,277.8,312.4,135.4,149.0,123.4,114.0,51.15,23.1,74.9,31.37,22.96,-7.912,14.43,0.1645,-9.343,-13.61,0,0,0,0,0,0,0,0,0,0,0,0,0,0,0,0,
437,411.1,425.1,177.1,199.9,137.3,134.0,30.9,19.53,49.46,44.06,-3.764,-24.68,-16.32,-12.55,-19.13,-24.64,0,0,0,0,0,0,0,0,0,0,0,0,0,0,0,0,
438,449.1,462.6,163.9,191.9,132.2,135.8,31.43,15.12,14.85,36.4,20.45,-3.874,9.411,3.629,22.97,9.961,0,0,0,0,0,0,0,0,0,0,0,0,0,0,0,0,
439,456.9,454.8,200.3,166.7,147.2,145.5,79.78,16.7,47.71,43.73,72.19,20.65,61.22,29.97,63.08,49.51,0,0,0,0,0,0,0,0,0,0,0,0,0,0,0,0,
440,462.6,451.2,240.4,169.1,172.4,159.6,100.1,22.07,107.4,61.92,81.94,17.17,78.52,35.62,57.67,42.94,0,0,0,0,0,0,0,0,0,0,0,0,0,0,0,0,
441,463.9,463.8,242.4,194.0,196.7,175.4,79.8,32.8,134.4,70.37,68.59,15.31,76.5,32.33,45.33,23.88,0,0,0,0,0,0,0,0,0,0,0,0,0,0,0,0,
442,459.1,462.7,236.5,198.8,202.3,176.6,64.85,37.2,134.1,62.63,56.29,13.34,60.46,16.86,26.79,6.932,0,0,0,0,0,0,0,0,0,0,0,0,0,0,0,0,
443,419.8,427.1,203.2,174.7,172.6,153.5,48.68,29.57,102.3,45.07,15.73,-0.7172,21.56,-0.6741,-12.46,-9.762,0,0,0,0,0,0,0,0,0,0,0,0,0,0,0,0,
444,358.2,366.6,146.9,155.5,129.8,126.6,18.19,24.95,44.03,43.4,-25.63,4.18,-0.5669,15.0,-18.55,10.62,0,0,0,0,0,0,0,0,0,0,0,0,0,0,0,0,
445,294.3,295.0,114.8,132.2,100.0,103.8,6.58,25.4,12.62,59.8,-15.19,23.5,13.28,39.43,17.3,42.63,0,0,0,0,0,0,0,0,0,0,0,0,0,0,0,0,
446,223.0,230.0,104.5,93.83,84.85,81.46,27.11,19.71,28.33,57.63,12.43,15.45,26.49,28.12,33.7,32.07,0,0,0,0,0,0,0,0,0,0,0,0,0,0,0,0,
447,169.6,183.5,99.26,78.95,77.0,64.88,48.3,8.767,50.78,29.88,22.92,-15.94,21.48,-4.682,23.91,0.118,0,0,0,0,0,0,0,0,0,0,0,0,0,0,0,0,
448,133.0,139.8,78.95,68.19,59.14,44.96,36.66,-2.913,49.16,2.513,34.41,-39.09,10.02,-32.78,16.45,-19.47,0,0,0,0,0,0,0,0,0,0,0,0,0,0,0,0,
449,79.44,86.82,23.46,19.0,22.15,13.62,-7.274,-12.08,26.21,-12.26,28.73,-43.84,-4.359,-42.25,6.97,-22.11,0,0,0,0,0,0,0,0,0,0,0,0,0,0,0,0,
450,23.74,38.14,-23.68,-14.99,-11.77,-8.716,-33.17,-9.329,2.445,-6.465,-5.403,-26.16,-14.59,-16.33,-6.482,-6.043,0,0,0,0,0,0,0,0,0,0,0,0,0,0,0,0,
451,-11.55,2.163,-27.76,5.092,-22.63,-10.77,-18.63,6.377,-3.85,17.36,-24.06,13.46,-10.75,28.57,-7.839,24.12,0,0,0,0,0,0,0,0,0,0,0,0,0,0,0,0,
452,-31.28,-25.66,-19.24,25.82,-14.56,-3.82,-7.38,18.26,-1.837,32.0,-16.86,43.41,2.678,52.71,5.282,53.51,0,0,0,0,0,0,0,0,0,0,0,0,0,0,0,0,
453,-28.03,-36.7,-4.343,13.25,12.14,14.08,-0.4842,18.21,4.528,31.63,-1.208,40.93,24.57,54.46,23.18,67.69,0,0,0,0,0,0,0,0,0,0,0,0,0,0,0,0,
454,-2.769,-24.77,15.6,-2.097,47.04,40.98,20.9,18.81,34.56,35.87,23.84,26.19,49.42,48.52,35.87,59.96,0,0,0,0,0,0,0,0,0,0,0,0,0,0,0,0,
455,3.456,-19.18,2.523,3.703,49.15,43.57,17.3,20.13,66.2,33.91,39.96,4.541,53.17,21.55,31.28,29.83,0,0,0,0,0,0,0,0,0,0,0,0,0,0,0,0,
456,-34.04,-48.13,-31.24,2.846,10.83,8.258,-9.723,11.97,59.14,5.237,34.05,-22.35,36.13,-17.01,16.27,0.4425,0,0,0,0,0,0,0,0,0,0,0,0,0,0,0,0,
457,-74.93,-84.21,-37.8,-11.16,-19.1,-23.65,-13.69,8.687,31.8,-22.97,29.04,-15.15,26.92,-20.49,16.19,2.517,0,0,0,0,0,0,0,0,0,0,0,0,0,0,0,0,
458,-76.35,-85.31,-18.51,0.7342,-12.98,-18.54,10.2,16.91,15.99,-18.85,37.9,18.32,35.1,9.946,32.73,22.57,0,0,0,0,0,0,0,0,0,0,0,0,0,0,0,0,
459,-50.48,-69.54,1.464,0.0304,8.078,-1.813,48.22,14.31,16.08,-1.688,55.2,28.36,54.39,32.14,52.77,43.26,0,0,0,0,0,0,0,0,0,0,0,0,0,0,0,0,
460,-36.34,-81.19,4.45,-58.5,17.63,-4.831,66.48,5.211,30.26,8.651,68.71,26.18,76.98,44.98,71.47,64.31,0,0,0,0,0,0,0,0,0,0,0,0,0,0,0,0,
461,-54.98,-114.7,-12.81,-82.83,9.826,-14.42,43.06,12.35,45.15,23.85,61.29,26.77,84.32,57.01,71.21,55.17,0,0,0,0,0,0,0,0,0,0,0,0,0,0,0,0,
462,-86.88,-136.5,-32.61,-33.33,-5.693,-17.73,16.03,20.96,49.38,31.86,36.93,3.709,61.11,38.86,41.71,10.68,0,0,0,0,0,0,0,0,0,0,0,0,0,0,0,0,
463,-108.3,-137.0,-47.18,-8.604,-19.38,-25.77,1.272,10.69,38.04,5.624,17.11,-27.44,21.75,-9.461,11.9,-19.2,0,0,0,0,0,0,0,0,0,0,0,0,0,0,0,0,
464,-119.7,-128.6,-51.37,-26.33,-23.09,-31.79,-8.077,-4.179,8.492,-30.69,14.96,-24.43,3.501,-31.07,11.87,-9.355,0,0,0,0,0,0,0,0,0,0,0,0,0,0,0,0,
465,-115.5,-127.5,-37.67,-38.82,-19.9,-29.79,-3.457,-8.277,-12.33,-37.52,22.6,1.37,8.205,-11.39,25.3,13.88,0,0,0,0,0,0,0,0,0,0,0,0,0,0,0,0,
466,-112.7,-145.5,-42.23,-59.65,-37.81,-46.52,-15.85,-10.37,-19.27,-30.53,11.97,10.16,-6.551,-2.469,15.35,13.26,0,0,0,0,0,0,0,0,0,0,0,0,0,0,0,0,
467,-145.0,-184.2,-85.19,-79.57,-76.86,-79.76,-49.75,-16.87,-45.33,-36.51,-15.79,4.689,-32.49,-8.803,-3.831,0.5323,0,0,0,0,0,0,0,0,0,0,0,0,0,0,0,0,
468,-174.6,-212.6,-101.9,-65.17,-83.31,-78.97,-47.58,-14.67,-58.24,-30.73,-21.92,11.44,-17.3,11.22,3.75,10.19,0,0,0,0,0,0,0,0,0,0,0,0,0,0,0,0,
469,-146.8,-179.8,-52.11,-37.46,-37.97,-35.24,-9.01,-2.002,-12.77,3.005,-3.106,15.76,22.43,35.45,19.65,17.18,0,0,0,0,0,0,0,0,0,0,0,0,0,0,0,0,
470,-85.86,-104.2,6.382,-17.51,10.94,0.794,24.94,0.9043,41.16,21.29,17.29,2.213,39.8,28.19,28.17,2.535,0,0,0,0,0,0,0,0,0,0,0,0,0,0,0,0,
471,-57.32,-68.87,15.28,-14.6,19.7,-2.099,45.34,-10.17,57.1,1.818,38.07,-4.596,41.17,14.81,44.38,0.8614,0,0,0,0,0,0,0,0,0,0,0,0,0,0,0,0,
472,-88.99,-101.7,-14.31,-51.27,-13.94,-33.77,43.8,-21.52,48.48,-24.67,45.38,-3.732,34.33,6.98,44.87,9.784,0,0,0,0,0,0,0,0,0,0,0,0,0,0,0,0,
473,-130.3,-151.5,-38.84,-89.88,-51.97,-62.17,16.05,-24.48,20.63,-40.43,21.77,-3.769,11.63,-1.933,13.76,2.178,0,0,0,0,0,0,0,0,0,0,0,0,0,0,0,0,
474,-125.5,-160.2,-38.7,-68.96,-49.07,-53.01,-10.13,-12.9,-9.083,-36.09,-4.965,12.09,-5.942,9.236,-12.0,-11.13,0,0,0,0,0,0,0,0,0,0,0,0,0,0,0,0,
475,-97.52,-125.8,-25.81,-29.32,-16.32,-21.15,-0.3914,1.933,-5.669,-8.721,-5.038,23.99,2.327,29.18,-12.33,-14.17,0,0,0,0,0,0,0,0,0,0,0,0,0,0,0,0,
476,-73.82,-98.66,-7.09,-30.95,6.936,-6.861,35.41,-0.6071,20.84,6.864,14.35,12.08,27.59,27.89,4.065,-7.182,0,0,0,0,0,0,0,0,0,0,0,0,0,0,0,0,
477,-52.01,-94.48,15.23,-39.77,21.56,0.5023,55.94,-7.63,42.76,2.001,38.99,6.247,53.37,24.08,26.93,4.843,0,0,0,0,0,0,0,0,0,0,0,0,0,0,0,0,
478,-48.74,-90.59,22.36,-28.59,35.17,17.37,67.84,-3.491,61.59,4.928,59.36,8.166,68.95,30.09,42.18,12.48,0,0,0,0,0,0,0,0,0,0,0,0,0,0,0,0,
479,-62.1,-91.03,9.936,-24.99,34.06,22.7,84.37,-2.654,74.76,8.505,62.2,8.994,67.59,33.66,43.17,11.71,0,0,0,0,0,0,0,0,0,0,0,0,0,0,0,0,
480,-65.46,-92.21,0.4903,-22.55,22.69,17.97,69.3,-3.098,63.81,7.665,44.55,31.28,50.9,43.33,33.17,13.54,0,0,0,0,0,0,0,0,0,0,0,0,0,0,0,0,
481,-56.18,-74.59,5.026,-5.811,21.23,23.47,39.73,7.065,34.67,19.3,28.07,51.84,37.7,51.4,24.28,21.49,0,0,0,0,0,0,0,0,0,0,0,0,0,0,0,0,
482,-40.25,-57.44,14.91,-8.997,32.45,33.99,36.67,10.37,16.91,27.51,27.4,40.07,40.58,39.43,27.14,24.46,0,0,0,0,0,0,0,0,0,0,0,0,0,0,0,0,
483,-27.32,-62.49,14.65,-37.19,41.83,41.87,25.16,4.376,19.94,24.78,25.01,31.79,46.05,35.29,30.84,31.66,0,0,0,0,0,0,0,0,0,0,0,0,0,0,0,0,
484,-36.29,-75.08,-4.233,-40.12,39.01,47.81,7.584,11.44,33.54,33.4,17.87,34.75,51.49,52.01,30.39,47.1,0,0,0,0,0,0,0,0,0,0,0,0,0,0,0,0,
485,-54.04,-74.63,-20.5,-15.03,30.28,44.29,28.01,20.37,48.52,39.42,23.16,13.58,59.19,46.83,31.2,39.63,0,0,0,0,0,0,0,0,0,0,0,0,0,0,0,0,
486,-47.87,-59.51,-13.55,-3.175,23.93,30.96,47.16,9.57,44.44,18.08,23.58,-15.02,44.73,11.59,17.52,8.159,0,0,0,0,0,0,0,0,0,0,0,0,0,0,0,0,
487,-29.88,-55.59,-5.893,-9.177,20.23,21.64,30.5,-6.33,14.24,-8.287,3.091,-24.92,9.62,-13.65,-10.21,-15.35,0,0,0,0,0,0,0,0,0,0,0,0,0,0,0,0,
488,-36.23,-76.58,-19.55,-23.51,15.73,15.58,7.739,-15.22,-18.48,-17.08,-14.09,-30.76,-14.84,-20.69,-24.41,-24.04,0,0,0,0,0,0,0,0,0,0,0,0,0,0,0,0,
489,-62.55,-89.67,-38.6,-34.4,3.574,3.428,-13.86,-23.02,-49.54,-17.11,-18.33,-25.91,-24.07,-17.31,-25.55,-16.98,0,0,0,0,0,0,0,0,0,0,0,0,0,0,0,0,
490,-81.39,-83.35,-50.36,-27.48,-9.145,-2.226,-34.06,-20.42,-70.19,-7.068,-19.63,3.914,-14.91,7.182,-22.92,7.129,0,0,0,0,0,0,0,0,0,0,0,0,0,0,0,0,
491,-83.81,-85.13,-59.67,-28.33,-8.393,1.569,-39.69,-3.944,-47.49,8.494,-16.88,21.36,7.829,27.33,-12.59,21.26,0,0,0,0,0,0,0,0,0,0,0,0,0,0,0,0,
492,-71.95,-83.27,-59.71,-38.46,-7.02,-7.268,-30.59,4.367,-18.54,-6.349,-10.82,-0.9696,7.489,6.587,-9.061,4.367,0,0,0,0,0,0,0,0,0,0,0,0,0,0,0,0,
493,-54.91,-64.22,-45.91,-28.71,-18.82,-26.88,-1.345,-3.95,-34.79,-44.35,1.383,-24.73,-7.716,-18.74,-12.76,-12.43,0,0,0,0,0,0,0,0,0,0,0,0,0,0,0,0,
494,-55.42,-69.12,-39.67,-30.32,-36.64,-44.18,23.62,-14.68,-53.27,-56.13,13.48,-21.44,-7.522,-14.86,-6.44,-0.6408,0,0,0,0,0,0,0,0,0,0,0,0,0,0,0,0,
495,-79.02,-95.51,-53.53,-33.19,-55.21,-58.11,-1.054,-14.85,-56.86,-46.51,2.433,-11.42,-16.88,-11.49,-6.881,8.111,0,0,0,0,0,0,0,0,0,0,0,0,0,0,0,0,
496,-88.71,-90.63,-64.43,11.4,-61.35,-55.22,-43.11,-1.412,-77.97,-37.88,-19.09,-5.116,-37.78,-11.7,-23.54,-2.455,0,0,0,0,0,0,0,0,0,0,0,0,0,0,0,0,
497,-67.49,-71.42,-56.7,26.56,-52.15,-46.79,-48.84,6.45,-87.87,-28.41,-29.9,-7.968,-45.04,-11.67,-43.38,-17.57,0,0,0,0,0,0,0,0,0,0,0,0,0,0,0,0,
498,-57.92,-74.79,-50.28,-23.75,-57.49,-63.86,-36.91,-8.433,-83.49,-45.81,-40.55,-34.39,-58.31,-42.14,-64.8,-46.18,0,0,0,0,0,0,0,0,0,0,0,0,0,0,0,0,
499,-70.17,-76.85,-57.98,-39.09,-74.02,-79.76,-29.86,-21.45,-97.37,-84.91,-35.24,-53.93,-64.71,-67.39,-60.31,-53.08,0,0,0,0,0,0,0,0,0,0,0,0,0,0,0,0,
500,-69.69,-69.87,-63.66,-19.9,-71.87,-68.53,-21.86,-15.34,-86.94,-81.31,-6.269,-38.54,-30.84,-42.59,-23.07,-9.447,0,0,0,0,0,0,0,0,0,0,0,0,0,0,0,0,
501,-70.88,-73.67,-62.44,-19.98,-67.3,-62.18,-13.9,-12.87,-47.05,-47.49,1.135,-27.19,-6.239,-25.31,-11.75,6.092,0,0,0,0,0,0,0,0,0,0,0,0,0,0,0,0,
502,-88.14,-77.4,-64.31,-8.419,-68.93,-60.97,-4.598,-14.18,-40.79,-41.47,-17.48,-39.93,-25.46,-43.44,-33.99,-31.76,0,0,0,0,0,0,0,0,0,0,0,0,0,0,0,0,
503,-79.73,-64.13,-52.21,10.13,-46.25,-34.57,-2.926,-0.7955,-47.99,-42.21,-28.53,-50.25,-42.11,-50.62,-47.86,-54.96,0,0,0,0,0,0,0,0,0,0,0,0,0,0,0,0,
504,-41.09,-37.73,-17.7,17.48,-10.38,-2.159,-19.85,14.7,-35.79,-25.93,-31.13,-51.39,-35.6,-45.72,-52.09,-51.88,0,0,0,0,0,0,0,0,0,0,0,0,0,0,0,0,
505,-30.31,-27.84,-8.617,31.39,-2.723,5.537,-38.21,22.13,-38.98,-19.59,-25.4,-42.4,-23.79,-42.86,-43.39,-35.51,0,0,0,0,0,0,0,0,0,0,0,0,0,0,0,0,
506,-69.43,-57.51,-47.54,26.35,-20.37,-2.846,-49.21,29.4,-48.63,-20.88,-15.89,-22.88,-14.2,-31.15,-23.8,-14.75,0,0,0,0,0,0,0,0,0,0,0,0,0,0,0,0,
507,-101.8,-80.51,-83.3,16.52,-27.47,0.6918,-53.62,34.65,-32.22,-5.858,-20.22,-9.551,-7.209,-16.16,-22.39,-14.53,0,0,0,0,0,0,0,0,0,0,0,0,0,0,0,0,
508,-81.01,-49.61,-75.49,50.05,-0.9501,34.65,-39.89,37.07,-8.073,23.55,-14.38,1.68,12.75,5.583,-15.09,-7.019,0,0,0,0,0,0,0,0,0,0,0,0,0,0,0,0,
509,-35.18,1.476,-29.09,66.08,46.9,79.88,-14.19,36.22,18.43,56.82,25.16,19.72,48.91,37.82,25.45,33.69,0,0,0,0,0,0,0,0,0,0,0,0,0,0,0,0,
510,-0.2894,26.27,18.59,22.55,73.03,93.1,7.147,26.85,47.12,77.05,49.73,26.24,57.73,50.33,40.24,56.32,0,0,0,0,0,0,0,0,0,0,0,0,0,0,0,0,
511,6.533,7.82,10.13,-6.019,46.84,61.2,3.188,20.57,33.44,67.71,13.99,19.64,17.55,37.29,2.716,41.34,0,0,0,0,0,0,0,0,0,0,0,0,0,0,0,0,
512,-25.61,-38.19,-43.72,7.314,-8.487,12.47,-39.55,25.55,-25.05,42.61,-33.11,16.97,-26.71,25.85,-19.11,33.28,0,0,0,0,0,0,0,0,0,0,0,0,0,0,0,0,
513,-63.7,-54.11,-66.95,18.97,-37.92,-14.39,-68.82,26.89,-60.48,23.43,-31.75,10.84,-38.0,15.38,-6.69,30.6,0,0,0,0,0,0,0,0,0,0,0,0,0,0,0,0,
514,-69.52,-29.09,-49.18,16.78,-23.87,-8.393,-45.82,19.95,-47.97,9.462,-14.65,-8.688,-27.51,-4.873,-3.979,8.997,0,0,0,0,0,0,0,0,0,0,0,0,0,0,0,0,
515,-42.7,-15.03,-29.18,10.24,-1.958,1.875,-22.34,12.66,-22.46,-4.12,-17.55,-26.91,-11.71,-24.8,-2.287,-1.149,0,0,0,0,0,0,0,0,0,0,0,0,0,0,0,0,
516,-8.204,-22.59,-16.95,-1.59,-6.681,-11.21,-24.86,1.078,-9.822,-18.78,-16.49,-36.15,-7.193,-41.51,6.165,6.878,0,0,0,0,0,0,0,0,0,0,0,0,0,0,0,0,
517,-20.34,-43.23,-29.05,-26.98,-46.17,-51.93,-36.98,-18.64,-28.82,-41.97,-21.2,-48.53,-33.28,-63.04,-13.06,-2.122,0,0,0,0,0,0,0,0,0,0,0,0,0,0,0,0,
518,-78.77,-81.74,-63.27,-55.1,-100.6,-104.9,-64.7,-35.16,-79.72,-69.76,-48.41,-60.76,-64.89,-80.09,-37.67,-11.62,0,0,0,0,0,0,0,0,0,0,0,0,0,0,0,0,
519,-103.6,-102.7,-64.23,-57.17,-117.4,-123.3,-74.29,-34.58,-108.9,-75.64,-46.15,-50.68,-51.94,-72.05,-20.8,2.696,0,0,0,0,0,0,0,0,0,0,0,0,0,0,0,0,
520,-73.48,-88.77,-24.3,-46.25,-73.57,-84.65,-23.75,-23.49,-73.03,-49.38,5.74,-23.22,-1.1,-43.22,16.56,23.3,0,0,0,0,0,0,0,0,0,0,0,0,0,0,0,0,
521,-35.1,-79.17,3.963,-52.06,-24.77,-47.15,34.34,-23.08,-10.25,-26.85,41.34,-18.58,29.86,-29.93,26.46,32.93,0,0,0,0,0,0,0,0,0,0,0,0,0,0,0,0,
522,-19.6,-76.05,5.718,-55.19,-22.87,-54.13,31.41,-30.34,12.59,-37.32,20.19,-39.39,11.88,-44.83,-0.4209,20.51,0,0,0,0,0,0,0,0,0,0,0,0,0,0,0,0,
523,-33.66,-60.58,-6.785,-39.57,-47.31,-69.16,-13.31,-23.86,-12.43,-53.45,-18.94,-31.86,-26.17,-52.07,-28.09,4.238,0,0,0,0,0,0,0,0,0,0,0,0,0,0,0,0,
524,-52.13,-53.94,-24.25,-27.05,-60.11,-63.86,-42.49,-7.147,-43.43,-45.17,-33.65,4.808,-48.07,-38.59,-35.72,6.106,0,0,0,0,0,0,0,0,0,0,0,0,0,0,0,0,
525,-45.72,-56.55,-25.53,-26.91,-54.04,-52.18,-38.82,2.403,-53.87,-30.34,-22.03,16.45,-42.67,-27.47,-34.43,6.566,0,0,0,0,0,0,0,0,0,0,0,0,0,0,0,0,
526,-23.56,-45.94,-12.25,-34.53,-36.14,-41.92,-12.07,-0.0109,-38.06,-29.61,9.477,12.61,-12.92,-17.96,-14.79,6.626,0,0,0,0,0,0,0,0,0,0,0,0,0,0,0,0,
527,-11.84,-34.21,-2.948,-49.99,-18.71,-34.71,23.67,-12.81,-5.101,-33.34,33.84,18.08,9.378,-10.13,6.287,8.999,0,0,0,0,0,0,0,0,0,0,0,0,0,0,0,0,
528,-14.26,-29.47,3.815,-56.47,-13.48,-32.68,32.42,-22.66,9.322,-32.55,17.2,11.19,-2.536,-15.85,-5.929,-3.909,0,0,0,0,0,0,0,0,0,0,0,0,0,0,0,0,
529,-14.99,-19.12,0.6783,-36.64,-15.7,-27.17,3.669,-18.03,-4.144,-29.92,-7.412,4.204,-17.41,-15.87,-15.65,-5.416,0,0,0,0,0,0,0,0,0,0,0,0,0,0,0,0,
530,-18.63,-8.177,-11.46,-16.56,-13.82,-15.86,-11.86,-15.79,-14.93,-21.51,-5.484,11.83,-18.0,-2.583,-9.794,6.394,0,0,0,0,0,0,0,0,0,0,0,0,0,0,0,0,
531,-23.85,-4.306,-2.131,-24.45,-6.53,-9.843,8.762,-23.97,-16.76,-7.088,-5.65,5.762,-25.06,3.342,-22.49,-2.016,0,0,0,0,0,0,0,0,0,0,0,0,0,0,0,0,
532,-11.37,-11.37,17.55,-36.99,-1.854,-15.87,24.84,-26.11,-15.64,-5.677,-11.08,-8.39,-27.4,0.6536,-27.45,-9.892,0,0,0,0,0,0,0,0,0,0,0,0,0,0,0,0,
533,-11.51,-31.95,8.075,-37.21,-9.996,-29.77,12.24,-27.1,-11.98,-24.75,-9.804,-12.32,-25.69,-11.21,-15.29,-6.139,0,0,0,0,0,0,0,0,0,0,0,0,0,0,0,0,
534,-42.2,-44.44,-18.64,-42.43,-30.09,-42.14,-5.21,-35.37,-25.78,-40.38,-19.95,-14.59,-42.81,-31.14,-17.01,-5.573,0,0,0,0,0,0,0,0,0,0,0,0,0,0,0,0,
535,-58.17,-37.89,-27.77,-47.96,-44.53,-46.19,-2.454,-32.89,-50.41,-38.93,-19.14,-7.969,-44.57,-31.54,-6.646,3.905,0,0,0,0,0,0,0,0,0,0,0,0,0,0,0,0,
536,-49.64,-29.23,-14.09,-46.81,-38.77,-40.56,13.97,-17.89,-45.26,-33.08,12.33,3.824,-11.59,-9.434,18.05,9.513,0,0,0,0,0,0,0,0,0,0,0,0,0,0,0,0,
537,-30.24,-19.59,-2.775,-52.12,-25.0,-33.92,23.03,-10.64,-19.96,-31.59,18.88,-5.728,-4.298,-0.771,1.565,-14.88,0,0,0,0,0,0,0,0,0,0,0,0,0,0,0,0,
538,-10.14,-13.81,-17.4,-54.03,-29.71,-40.97,3.986,-16.54,-25.22,-39.44,-23.52,-31.81,-42.84,-19.63,-43.98,-47.64,0,0,0,0,0,0,0,0,0,0,0,0,0,0,0,0,
539,-24.3,-22.97,-37.12,-39.46,-50.74,-54.05,-39.62,-24.7,-61.23,-54.39,-56.97,-47.74,-67.78,-40.55,-58.35,-52.26,0,0,0,0,0,0,0,0,0,0,0,0,0,0,0,0,
540,-56.14,-24.57,-38.58,-17.36,-63.25,-53.46,-54.8,-21.18,-81.27,-54.63,-52.54,-45.68,-58.68,-44.64,-47.87,-38.44,0,0,0,0,0,0,0,0,0,0,0,0,0,0,0,0,
541,-63.17,-14.86,-46.6,-0.9954,-66.39,-48.81,-24.93,-11.69,-75.64,-37.64,-43.32,-40.72,-52.25,-44.65,-54.42,-45.46,0,0,0,0,0,0,0,0,0,0,0,0,0,0,0,0,
542,-58.71,-19.23,-59.6,-6.725,-64.06,-48.99,-0.5187,-17.25,-64.14,-28.88,-33.12,-41.26,-44.23,-43.04,-57.01,-55.45,0,0,0,0,0,0,0,0,0,0,0,0,0,0,0,0,
543,-42.46,-20.25,-35.07,-16.2,-43.88,-37.28,13.39,-27.09,-35.51,-30.09,0.5963,-34.49,-11.54,-24.4,-24.66,-26.65,0,0,0,0,0,0,0,0,0,0,0,0,0,0,0,0,
544,-21.02,-4.741,-11.0,7.232,-30.04,-26.88,19.23,-20.32,-2.603,-26.54,15.82,-22.91,3.528,-3.232,-7.856,4.88,0,0,0,0,0,0,0,0,0,0,0,0,0,0,0,0,
545,-50.08,-6.074,-58.06,28.93,-58.36,-46.18,-19.32,-11.91,-17.39,-23.93,-21.08,-19.29,-24.64,1.544,-33.62,-0.0567,0,0,0,0,0,0,0,0,0,0,0,0,0,0,0,0,
546,-96.67,-19.71,-107.8,10.71,-86.94,-64.44,-59.78,-10.43,-52.5,-23.68,-42.27,-10.66,-37.37,6.958,-38.67,-6.858,0,0,0,0,0,0,0,0,0,0,0,0,0,0,0,0,
547,-66.16,-7.556,-68.38,-3.325,-59.07,-39.65,-46.62,-3.83,-36.93,-9.563,-8.61,4.303,-8.324,24.08,-5.622,8.363,0,0,0,0,0,0,0,0,0,0,0,0,0,0,0,0,
548,-3.575,15.17,-16.75,9.466,-13.69,-1.631,-23.33,-1.375,5.891,13.91,22.95,-3.048,14.51,32.32,12.88,16.46,0,0,0,0,0,0,0,0,0,0,0,0,0,0,0,0,
549,-11.73,5.722,-38.19,10.97,-15.09,-1.587,-25.91,-11.4,13.91,17.46,16.94,-27.97,5.461,20.02,3.665,3.668,0,0,0,0,0,0,0,0,0,0,0,0,0,0,0,0,
550,-54.21,-22.52,-74.55,0.0326,-43.79,-25.31,-42.58,-15.33,-7.637,-2.276,-3.977,-26.29,-7.623,17.37,-4.266,3.462,0,0,0,0,0,0,0,0,0,0,0,0,0,0,0,0,
551,-52.94,-12.95,-69.31,13.95,-45.44,-22.81,-52.79,-1.928,-17.3,-6.974,-8.882,4.586,2.443,48.33,4.748,29.41,0,0,0,0,0,0,0,0,0,0,0,0,0,0,0,0,
552,-19.81,34.51,-41.71,48.17,-14.63,9.689,-32.97,16.93,-3.867,22.77,2.438,21.19,16.93,77.12,14.29,45.59,0,0,0,0,0,0,0,0,0,0,0,0,0,0,0,0,
553,9.959,58.76,-17.39,56.91,21.7,38.17,0.557,22.98,11.44,53.24,4.428,14.0,12.31,73.02,6.055,40.46,0,0,0,0,0,0,0,0,0,0,0,0,0,0,0,0,
554,17.78,42.97,-16.17,27.8,35.42,41.22,14.87,8.906,20.56,52.73,2.547,1.6,9.534,55.67,-0.5648,40.69,0,0,0,0,0,0,0,0,0,0,0,0,0,0,0,0,
555,-7.157,12.73,-46.95,-4.592,8.368,13.36,3.692,-8.028,24.03,28.79,9.48,-14.55,14.1,34.97,6.382,45.71,0,0,0,0,0,0,0,0,0,0,0,0,0,0,0,0,
556,-46.01,-14.13,-86.57,-11.73,-30.84,-21.95,-25.3,-5.511,5.552,1.109,3.563,-24.01,3.148,13.98,2.189,31.29,0,0,0,0,0,0,0,0,0,0,0,0,0,0,0,0,
557,-59.29,-3.833,-87.28,11.41,-28.82,-20.66,-37.79,7.79,-17.43,-14.74,-10.46,-16.43,-5.902,13.92,-10.24,4.867,0,0,0,0,0,0,0,0,0,0,0,0,0,0,0,0,
558,-22.49,40.22,-31.39,39.39,13.01,13.54,-19.01,9.204,-2.76,-9.989,-7.134,-11.66,8.399,29.53,-6.374,-4.644,0,0,0,0,0,0,0,0,0,0,0,0,0,0,0,0,
559,29.17,55.79,15.96,34.67,46.99,35.96,-7.641,2.11,31.98,6.244,3.95,-17.14,23.33,35.88,4.625,0.7671,0,0,0,0,0,0,0,0,0,0,0,0,0,0,0,0,
560,34.51,38.64,1.812,14.55,39.74,26.59,-23.17,0.278,38.09,14.46,6.399,-16.5,17.52,29.09,7.312,5.856,0,0,0,0,0,0,0,0,0,0,0,0,0,0,0,0,
561,3.048,25.64,-22.67,16.74,-0.1446,-1.236,-45.44,2.421,8.177,6.676,-1.232,-4.267,1.427,22.67,9.22,17.35,0,0,0,0,0,0,0,0,0,0,0,0,0,0,0,0,
562,-16.77,17.27,-12.22,26.22,-20.33,-13.18,-34.08,8.548,-18.57,-2.6,0.0247,16.38,6.319,34.06,24.45,38.6,0,0,0,0,0,0,0,0,0,0,0,0,0,0,0,0,
563,-10.47,19.06,5.896,24.13,2.175,2.351,22.45,16.92,0.5991,-0.0875,28.64,33.09,34.18,52.25,46.87,56.37,0,0,0,0,0,0,0,0,0,0,0,0,0,0,0,0,
564,4.414,21.07,7.108,12.22,14.61,1.724,50.02,9.544,35.58,-5.881,44.59,26.2,36.69,39.75,44.35,53.42,0,0,0,0,0,0,0,0,0,0,0,0,0,0,0,0,
565,-4.204,-5.906,-9.083,-17.99,-12.13,-34.05,9.059,-15.92,24.22,-39.19,11.6,1.447,0.0672,1.607,14.84,31.89,0,0,0,0,0,0,0,0,0,0,0,0,0,0,0,0,
566,-29.97,-32.85,-30.35,-45.73,-43.47,-62.46,-32.83,-32.71,-13.93,-70.82,-34.61,-13.54,-35.98,-19.0,-8.747,21.4,0,0,0,0,0,0,0,0,0,0,0,0,0,0,0,0,
567,-36.89,-30.51,-33.84,-26.57,-54.0,-54.11,-41.55,-24.94,-36.62,-62.03,-68.35,-6.829,-54.83,-7.411,-23.97,28.39,0,0,0,0,0,0,0,0,0,0,0,0,0,0,0,0,
568,-21.09,-8.342,-12.32,27.96,-31.7,-12.71,-40.68,-5.862,-44.94,-18.42,-88.76,5.707,-54.6,19.89,-29.52,34.32,0,0,0,0,0,0,0,0,0,0,0,0,0,0,0,0,
569,10.73,40.03,14.81,66.93,14.74,34.86,-30.63,4.372,-28.24,21.85,-70.93,2.04,-27.49,37.77,-5.131,37.03,0,0,0,0,0,0,0,0,0,0,0,0,0,0,0,0,
570,32.04,73.75,12.43,66.06,33.76,42.86,-2.79,1.008,10.84,30.27,-17.11,-6.731,11.62,34.9,28.87,40.77,0,0,0,0,0,0,0,0,0,0,0,0,0,0,0,0,
571,10.18,34.15,-19.41,24.8,12.56,10.98,37.46,-6.999,37.98,16.35,31.31,7.441,42.91,31.19,45.72,51.99,0,0,0,0,0,0,0,0,0,0,0,0,0,0,0,0,
572,-19.82,-18.73,-28.99,-31.0,-5.301,-12.06,60.55,-13.17,47.79,6.716,47.77,28.31,53.91,34.08,47.68,57.23,0,0,0,0,0,0,0,0,0,0,0,0,0,0,0,0,
573,-27.59,-18.85,-7.928,-46.96,-8.165,-11.22,42.76,-11.84,43.61,3.929,28.41,30.95,34.3,25.29,24.71,29.93,0,0,0,0,0,0,0,0,0,0,0,0,0,0,0,0,
574,-30.48,-8.242,1.046,-20.14,-9.814,-8.108,14.49,0.613,20.65,-0.4996,-7.524,29.7,-1.985,10.57,-18.07,-5.495,0,0,0,0,0,0,0,0,0,0,0,0,0,0,0,0,
575,-25.94,-10.23,-6.973,-12.28,-11.16,-12.09,-1.569,7.971,-4.994,-4.816,-29.51,19.62,-27.6,4.987,-39.38,-19.92,0,0,0,0,0,0,0,0,0,0,0,0,0,0,0,0,
576,-19.97,0.1482,-15.42,-33.87,-11.23,-13.09,-9.289,-2.956,-17.06,-9.25,-21.22,-5.15,-20.95,12.81,-15.0,-11.46,0,0,0,0,0,0,0,0,0,0,0,0,0,0,0,0,
577,-22.47,12.52,-16.96,-39.33,-2.307,0.248,11.57,-12.24,-4.739,-5.084,15.01,-0.5156,20.72,43.59,31.7,30.41,0,0,0,0,0,0,0,0,0,0,0,0,0,0,0,0,
578,-23.6,-0.5496,-12.55,-30.11,7.95,11.3,40.08,-3.317,28.33,17.7,41.75,33.89,55.61,76.1,46.87,67.94,0,0,0,0,0,0,0,0,0,0,0,0,0,0,0,0,
579,-33.9,-33.91,-15.81,-27.76,4.248,5.156,32.18,12.59,51.23,39.41,28.44,52.33,56.2,80.84,23.07,61.07,0,0,0,0,0,0,0,0,0,0,0,0,0,0,0,0,
580,-32.27,-36.66,-10.47,-11.81,13.96,12.78,24.98,25.46,60.47,50.03,12.11,59.22,48.53,74.25,11.24,43.39,0,0,0,0,0,0,0,0,0,0,0,0,0,0,0,0,
581,-6.625,9.88,4.551,15.0,32.05,28.22,34.83,26.18,59.81,53.02,11.45,53.22,26.05,51.08,7.264,16.86,0,0,0,0,0,0,0,0,0,0,0,0,0,0,0,0,
582,-26.54,28.82,-15.07,15.21,1.801,-3.018,10.89,6.867,19.74,19.19,-12.31,19.21,-24.9,-0.9884,-24.47,-25.52,0,0,0,0,0,0,0,0,0,0,0,0,0,0,0,0,
583,-63.26,2.401,-33.68,8.931,-39.16,-41.56,-19.16,-7.719,-30.17,-33.02,-38.22,2.579,-44.83,-19.55,-42.52,-28.86,0,0,0,0,0,0,0,0,0,0,0,0,0,0,0,0,
584,-15.68,27.46,1.013,32.83,-18.8,-17.21,0.6966,4.332,-23.85,-26.8,-17.84,15.24,-13.16,13.5,-16.97,-5.167,0,0,0,0,0,0,0,0,0,0,0,0,0,0,0,0,
585,57.73,104.8,35.71,49.11,15.28,18.07,24.17,14.55,7.368,13.54,8.876,5.292,4.313,26.4,0.4777,-14.19,0,0,0,0,0,0,0,0,0,0,0,0,0,0,0,0,
586,96.77,149.6,44.57,35.39,17.12,17.13,3.208,2.333,4.559,14.6,-1.704,-18.45,-9.105,13.08,-9.943,-25.96,0,0,0,0,0,0,0,0,0,0,0,0,0,0,0,0,
587,164.0,194.5,54.08,45.65,29.33,30.56,-22.79,-9.457,-11.11,3.386,-19.98,-27.01,-17.79,6.411,-16.77,-13.84,0,0,0,0,0,0,0,0,0,0,0,0,0,0,0,0,
588,253.4,310.1,69.75,99.57,62.98,68.29,-20.14,-9.754,-10.85,3.991,-24.68,-38.4,-19.73,-10.21,-16.04,-19.01,0,0,0,0,0,0,0,0,0,0,0,0,0,0,0,0,
589,325.1,425.0,113.7,150.4,86.13,86.42,-10.81,-4.656,-8.483,-9.248,-16.97,-35.38,-15.27,-16.65,-5.5,-28.31,0,0,0,0,0,0,0,0,0,0,0,0,0,0,0,0,
590,394.6,450.3,167.5,172.1,99.55,92.13,2.555,10.88,-4.173,-5.943,15.24,4.308,10.93,19.27,23.98,-3.487,0,0,0,0,0,0,0,0,0,0,0,0,0,0,0,0,
591,449.6,459.3,192.2,186.8,124.4,118.9,32.56,30.67,23.21,35.0,48.52,35.04,42.9,49.35,40.59,14.43,0,0,0,0,0,0,0,0,0,0,0,0,0,0,0,0,
592,485.5,521.1,211.1,209.1,156.1,154.8,41.76,38.19,60.16,65.54,42.35,39.66,52.79,45.38,29.07,10.62,0,0,0,0,0,0,0,0,0,0,0,0,0,0,0,0,
593,502.4,544.1,206.1,217.2,165.1,163.1,22.05,35.76,71.32,69.88,20.64,48.81,45.16,42.69,22.91,26.63,0,0,0,0,0,0,0,0,0,0,0,0,0,0,0,0,
594,478.3,500.5,169.9,210.2,151.1,146.1,20.14,33.37,59.5,62.91,13.83,48.91,32.33,39.03,24.71,36.98,0,0,0,0,0,0,0,0,0,0,0,0,0,0,0,0,
595,460.6,486.2,176.8,219.4,144.7,135.4,25.31,37.05,44.81,41.64,3.036,36.53,17.33,26.17,17.29,23.43,0,0,0,0,0,0,0,0,0,0,0,0,0,0,0,0,
596,468.6,495.7,205.3,232.6,148.8,140.4,27.19,51.19,37.54,34.38,-1.539,53.76,18.74,39.71,17.0,35.6,0,0,0,0,0,0,0,0,0,0,0,0,0,0,0,0,
597,448.4,487.9,201.2,220.7,155.0,155.9,59.75,63.92,53.11,64.44,25.45,81.79,40.12,67.79,32.99,60.64,0,0,0,0,0,0,0,0,0,0,0,0,0,0,0,0,
598,424.6,484.4,205.7,199.6,162.1,169.5,86.92,59.37,73.92,85.52,48.18,70.22,45.52,61.02,47.07,53.82,0,0,0,0,0,0,0,0,0,0,0,0,0,0,0,0,
599,403.3,446.7,206.1,182.5,156.5,161.4,76.38,49.82,67.25,74.9,44.49,49.62,34.83,38.67,48.92,43.68,0,0,0,0,0,0,0,0,0,0,0,0,0,0,0,0,
600,333.3,353.7,170.7,162.6,141.2,137.2,68.3,51.14,59.2,67.57,47.16,62.34,43.87,37.02,46.43,61.77,0,0,0,0,0,0,0,0,0,0,0,0,0,0,0,0,
601,261.3,275.5,142.0,145.6,125.3,112.5,55.68,50.82,66.3,58.66,53.36,78.1,53.81,36.11,42.74,80.36,0,0,0,0,0,0,0,0,0,0,0,0,0,0,0,0,
602,218.2,229.1,116.1,127.1,98.35,89.91,29.3,39.93,55.06,35.55,37.78,67.68,38.03,24.73,27.72,65.42,0,0,0,0,0,0,0,0,0,0,0,0,0,0,0,0,
603,161.2,187.2,72.22,94.42,71.2,77.56,27.41,29.49,31.61,31.37,17.06,47.8,23.63,19.52,9.376,35.07,0,0,0,0,0,0,0,0,0,0,0,0,0,0,0,0,
604,111.1,147.6,45.67,59.07,59.25,70.68,30.66,22.58,19.33,43.64,10.43,34.29,22.21,22.15,10.81,27.64,0,0,0,0,0,0,0,0,0,0,0,0,0,0,0,0,
605,79.1,90.23,41.2,35.22,50.74,55.85,24.16,19.27,14.85,47.99,23.92,34.85,28.21,38.7,30.92,40.88,0,0,0,0,0,0,0,0,0,0,0,0,0,0,0,0,
606,34.51,21.22,41.07,14.91,45.44,46.4,47.21,25.15,28.76,59.29,53.89,46.89,48.59,64.75,45.91,48.88,0,0,0,0,0,0,0,0,0,0,0,0,0,0,0,0,
607,4.632,-8.314,48.22,0.7219,51.4,53.13,69.62,32.64,50.63,70.6,61.77,43.78,59.85,65.85,34.67,33.92,0,0,0,0,0,0,0,0,0,0,0,0,0,0,0,0,
608,5.63,-0.9405,43.66,11.35,57.41,61.91,44.88,33.27,50.54,63.6,37.1,24.37,47.73,47.28,10.32,9.64,0,0,0,0,0,0,0,0,0,0,0,0,0,0,0,0,
609,-4.635,-10.31,6.359,18.41,42.02,48.47,15.44,29.6,38.38,54.8,19.01,14.15,34.23,35.76,2.122,9.178,0,0,0,0,0,0,0,0,0,0,0,0,0,0,0,0,
610,-41.66,-55.2,-38.05,-22.49,-2.227,1.591,3.822,19.7,10.93,36.38,6.064,5.472,13.0,12.52,-0.7252,16.69,0,0,0,0,0,0,0,0,0,0,0,0,0,0,0,0,
611,-74.81,-106.5,-48.41,-63.95,-37.98,-36.99,-18.6,8.043,-37.17,4.398,-11.92,-6.549,-9.425,-13.67,-9.02,7.94,0,0,0,0,0,0,0,0,0,0,0,0,0,0,0,0,
612,-83.92,-131.0,-29.88,-50.12,-27.79,-24.56,-27.3,5.787,-47.37,4.381,-9.805,-3.994,3.412,-4.529,-11.19,3.51,0,0,0,0,0,0,0,0,0,0,0,0,0,0,0,0,
613,-82.3,-126.9,-24.18,-34.29,-1.222,2.179,5.464,6.679,-5.443,31.7,-3.549,-0.3765,25.06,9.047,-24.03,-4.482,0,0,0,0,0,0,0,0,0,0,0,0,0,0,0,0,
614,-84.87,-116.7,-36.02,-49.08,1.975,0.8241,29.92,0.4102,20.12,33.27,-18.49,-12.83,17.63,-7.628,-45.93,-29.91,0,0,0,0,0,0,0,0,0,0,0,0,0,0,0,0,
615,-99.91,-119.5,-42.13,-56.15,-16.36,-16.37,15.86,-15.75,11.29,11.41,-31.35,-31.04,3.825,-27.54,-43.54,-37.73,0,0,0,0,0,0,0,0,0,0,0,0,0,0,0,0,
616,-129.1,-145.3,-52.32,-70.32,-46.25,-40.7,1.715,-38.2,-3.376,-10.54,-34.5,-47.79,-8.519,-38.8,-28.72,-24.1,0,0,0,0,0,0,0,0,0,0,0,0,0,0,0,0,
617,-146.8,-174.4,-66.81,-85.82,-67.33,-60.99,-4.849,-42.65,-24.71,-29.32,-36.5,-53.64,-28.87,-47.06,-23.78,-21.18,0,0,0,0,0,0,0,0,0,0,0,0,0,0,0,0,
618,-135.4,-159.4,-52.24,-43.99,-55.07,-47.73,-19.55,-20.35,-46.99,-27.69,-28.17,-42.93,-34.37,-39.82,-12.92,-19.13,0,0,0,0,0,0,0,0,0,0,0,0,0,0,0,0,
619,-112.2,-107.8,-25.27,-4.945,-28.82,-19.52,-17.64,-7.846,-46.16,-8.267,-13.09,-31.6,-17.28,-24.86,14.38,3.178,0,0,0,0,0,0,0,0,0,0,0,0,0,0,0,0,
620,-107.7,-93.73,-36.76,-40.29,-28.77,-23.4,-7.173,-21.69,-27.59,-6.117,-5.21,-33.15,-3.668,-24.81,36.09,22.5,0,0,0,0,0,0,0,0,0,0,0,0,0,0,0,0,
621,-138.1,-138.1,-70.91,-74.11,-53.43,-50.42,-18.76,-35.48,-17.28,-18.63,-10.39,-44.53,-3.849,-31.7,24.65,19.62,0,0,0,0,0,0,0,0,0,0,0,0,0,0,0,0,
622,-166.5,-183.5,-76.06,-68.78,-67.78,-64.09,-9.668,-35.19,-15.02,-16.85,-18.77,-48.27,-3.653,-22.96,-1.916,16.2,0,0,0,0,0,0,0,0,0,0,0,0,0,0,0,0,
623,-158.8,-191.3,-50.43,-66.72,-61.67,-63.45,25.79,-24.48,-5.384,-5.363,-11.01,-36.56,0.7058,-7.729,-7.197,17.35,0,0,0,0,0,0,0,0,0,0,0,0,0,0,0,0,
624,-149.1,-175.1,-33.19,-61.05,-58.56,-61.58,18.65,-9.584,-3.394,-0.0075,3.173,-25.35,-2.619,-10.51,-0.8983,13.87,0,0,0,0,0,0,0,0,0,0,0,0,0,0,0,0,
625,-151.1,-159.6,-46.67,-61.05,-66.72,-59.71,-4.142,-5.091,-24.14,-2.309,9.577,-14.87,-8.18,-20.34,10.1,21.31,0,0,0,0,0,0,0,0,0,0,0,0,0,0,0,0,
626,-148.9,-156.3,-69.24,-79.15,-78.79,-66.0,7.035,-15.65,-41.22,-14.99,23.59,-1.599,1.408,-17.24,43.75,36.32,0,0,0,0,0,0,0,0,0,0,0,0,0,0,0,0,
627,-160.4,-173.4,-77.93,-80.5,-96.39,-86.8,4.59,-29.64,-38.55,-31.83,41.11,-2.273,22.12,-7.362,79.89,47.12,0,0,0,0,0,0,0,0,0,0,0,0,0,0,0,0,
628,-174.4,-197.3,-74.65,-82.44,-96.27,-92.06,-4.904,-36.1,-27.48,-31.45,45.98,-3.514,40.2,10.73,87.62,61.4,0,0,0,0,0,0,0,0,0,0,0,0,0,0,0,0,
629,-145.7,-180.4,-48.85,-88.4,-49.7,-50.84,23.34,-25.84,-3.273,-3.351,51.17,17.22,50.19,39.84,74.51,63.02,0,0,0,0,0,0,0,0,0,0,0,0,0,0,0,0,
630,-94.15,-137.3,-12.95,-56.77,0.7753,-0.8368,42.7,-4.437,26.39,37.08,56.33,36.95,49.83,58.49,57.03,46.7,0,0,0,0,0,0,0,0,0,0,0,0,0,0,0,0,
631,-85.43,-140.3,-19.4,-45.11,-0.433,1.221,30.03,1.74,31.02,55.98,44.31,36.97,42.17,56.15,43.68,43.55,0,0,0,0,0,0,0,0,0,0,0,0,0,0,0,0,
632,-117.6,-165.5,-50.36,-74.02,-24.31,-21.93,17.1,-11.53,20.1,39.24,25.62,31.68,30.98,46.19,38.7,54.79,0,0,0,0,0,0,0,0,0,0,0,0,0,0,0,0,
633,-129.2,-153.8,-41.48,-48.39,-24.22,-20.25,2.767,-18.06,20.22,19.74,15.88,32.57,18.84,40.41,35.49,57.19,0,0,0,0,0,0,0,0,0,0,0,0,0,0,0,0,
634,-115.6,-141.7,-6.328,-4.346,-11.34,-6.161,3.345,-12.92,23.45,21.99,21.31,42.19,22.9,43.52,37.92,51.7,0,0,0,0,0,0,0,0,0,0,0,0,0,0,0,0,
635,-105.8,-145.2,14.54,-23.42,0.4916,1.213,29.62,-11.32,32.36,31.0,48.32,54.63,51.5,53.74,60.36,54.5,0,0,0,0,0,0,0,0,0,0,0,0,0,0,0,0,
636,-94.22,-126.4,13.76,-33.7,13.16,12.09,32.2,-11.72,52.71,41.64,66.86,50.72,65.49,58.55,76.05,58.1,0,0,0,0,0,0,0,0,0,0,0,0,0,0,0,0,
637,-93.69,-108.5,-8.076,-12.76,10.26,12.16,14.11,-11.39,46.81,50.76,46.28,28.17,41.66,50.53,57.2,42.93,0,0,0,0,0,0,0,0,0,0,0,0,0,0,0,0,
638,-107.5,-122.2,-20.39,-22.96,-2.689,-4.321,30.11,-18.22,18.83,42.53,24.49,9.703,24.22,41.97,35.67,21.53,0,0,0,0,0,0,0,0,0,0,0,0,0,0,0,0,
639,-98.91,-135.4,-4.856,-26.85,0.9611,-7.704,48.58,-29.03,20.91,27.53,14.82,-5.835,17.85,28.95,9.647,-6.62,0,0,0,0,0,0,0,0,0,0,0,0,0,0,0,0,
640,-76.34,-123.4,-0.3865,3.217,7.697,-2.093,16.03,-33.38,22.53,9.254,-23.48,-34.07,-20.99,-8.351,-49.73,-54.67,0,0,0,0,0,0,0,0,0,0,0,0,0,0,0,0,
641,-61.37,-99.62,-9.065,9.897,6.635,-2.479,-20.01,-30.2,-11.81,-23.8,-55.74,-53.91,-52.44,-38.13,-82.1,-75.59,0,0,0,0,0,0,0,0,0,0,0,0,0,0,0,0,
642,-49.79,-84.4,-1.977,-4.872,13.93,5.843,-17.48,-26.92,-23.89,-38.87,-41.32,-53.07,-34.73,-25.21,-57.02,-50.87,0,0,0,0,0,0,0,0,0,0,0,0,0,0,0,0,
643,-56.03,-89.82,-4.023,-7.575,13.18,9.68,-14.02,-28.33,-7.664,-21.28,-28.96,-49.45,-17.53,-5.851,-38.3,-30.48,0,0,0,0,0,0,0,0,0,0,0,0,0,0,0,0,
644,-77.14,-108.0,-23.24,-16.79,-2.629,-5.416,-7.502,-27.92,-8.596,-9.127,-18.65,-33.48,-5.334,0.5188,-24.24,-15.96,0,0,0,0,0,0,0,0,0,0,0,0,0,0,0,0,
645,-84.3,-116.1,-21.7,-21.55,0.9578,-7.579,27.43,-19.7,1.125,-2.543,18.38,-5.858,23.47,15.46,4.973,3.367,0,0,0,0,0,0,0,0,0,0,0,0,0,0,0,0,
646,-56.33,-99.27,1.184,9.282,23.09,11.74,44.26,-10.86,25.72,12.39,26.0,-1.195,15.77,19.67,-0.4419,-3.873,0,0,0,0,0,0,0,0,0,0,0,0,0,0,0,0,
647,-4.992,-67.18,22.57,22.72,35.12,22.27,28.0,-13.75,19.85,11.92,-7.383,-13.98,-28.21,-0.7699,-33.27,-32.33,0,0,0,0,0,0,0,0,0,0,0,0,0,0,0,0,
648,1.488,-55.69,32.73,-23.65,25.28,6.831,19.67,-31.01,-0.3323,-9.819,-28.98,-24.23,-49.28,-18.71,-47.29,-54.98,0,0,0,0,0,0,0,0,0,0,0,0,0,0,0,0,
649,-54.1,-88.52,20.83,-60.04,-10.93,-28.93,5.551,-44.33,-17.09,-36.86,-49.37,-38.0,-60.2,-30.12,-58.73,-71.08,0,0,0,0,0,0,0,0,0,0,0,0,0,0,0,0,
650,-99.28,-132.4,-2.436,-45.79,-40.3,-51.31,-11.6,-32.97,-38.87,-52.12,-64.03,-34.73,-61.85,-31.84,-64.87,-68.62,0,0,0,0,0,0,0,0,0,0,0,0,0,0,0,0,
651,-103.2,-138.5,-3.76,-24.99,-17.87,-30.91,13.3,-7.137,-26.12,-34.3,-30.02,-4.793,-16.79,-5.285,-36.86,-39.29,0,0,0,0,0,0,0,0,0,0,0,0,0,0,0,0,
652,-78.99,-110.2,13.89,-12.74,21.55,4.696,32.62,4.966,21.94,-1.152,4.979,1.854,24.11,15.07,-10.74,-15.33,0,0,0,0,0,0,0,0,0,0,0,0,0,0,0,0,
653,-48.22,-81.42,2.582,-6.194,18.2,12.37,-3.989,-3.981,30.13,6.386,-9.488,-25.8,9.462,-9.354,-14.17,-10.6,0,0,0,0,0,0,0,0,0,0,0,0,0,0,0,0,
654,-54.62,-72.95,-44.17,-8.79,-10.34,-6.367,-26.33,-16.69,-0.9323,-8.962,-20.72,-35.51,-8.327,-40.12,-11.27,-1.187,0,0,0,0,0,0,0,0,0,0,0,0,0,0,0,0,
655,-88.95,-85.98,-61.31,-2.969,-22.34,-25.96,-3.934,-19.39,-9.091,-27.68,-6.306,-20.6,-4.669,-42.5,0.3052,6.458,0,0,0,0,0,0,0,0,0,0,0,0,0,0,0,0,
656,-99.81,-95.35,-28.26,1.017,-20.88,-33.85,7.354,-15.09,-7.006,-45.53,-0.6645,-13.45,-8.864,-34.75,-1.612,-1.891,0,0,0,0,0,0,0,0,0,0,0,0,0,0,0,0,
657,-85.01,-87.1,-5.649,-13.4,-21.39,-33.13,8.16,-11.51,-18.75,-48.85,3.734,-18.11,-8.231,-28.69,-6.226,-13.08,0,0,0,0,0,0,0,0,0,0,0,0,0,0,0,0,T1
658,-79.84,-92.03,-23.66,-28.76,-32.71,-38.37,16.52,-16.41,-18.55,-37.77,1.601,-33.95,-3.789,-31.26,-21.43,-30.25,0,0,0,0,0,0,0,0,0,0,0,0,0,0,0,0,
659,-107.9,-122.3,-61.45,-49.5,-62.62,-62.81,5.44,-30.09,-19.96,-39.6,-31.71,-51.79,-23.46,-43.9,-46.81,-42.48,0,0,0,0,0,0,0,0,0,0,0,0,0,0,0,0,
660,-137.9,-142.4,-93.2,-69.75,-88.79,-85.89,-24.65,-37.7,-42.77,-48.06,-55.54,-46.16,-39.97,-39.39,-42.23,-25.22,0,0,0,0,0,0,0,0,0,0,0,0,0,0,0,0,
661,-121.7,-132.7,-91.88,-53.39,-81.33,-76.94,-50.82,-34.14,-48.87,-35.17,-45.43,-33.01,-35.7,-19.73,-22.06,-8.569,0,0,0,0,0,0,0,0,0,0,0,0,0,0,0,0,
662,-89.28,-108.8,-62.91,-25.81,-60.81,-57.27,-62.76,-30.19,-41.82,-23.46,-43.29,-38.36,-44.99,-21.27,-28.47,-18.46,0,0,0,0,0,0,0,0,0,0,0,0,0,0,0,0,
663,-77.92,-85.21,-40.53,-22.88,-53.2,-51.84,-52.63,-28.54,-58.84,-38.05,-52.69,-44.22,-58.29,-37.97,-39.21,-31.31,0,0,0,0,0,0,0,0,0,0,0,0,0,0,0,0,
664,-59.62,-61.54,-34.91,-12.22,-39.29,-33.38,-33.1,-26.74,-60.15,-43.16,-44.19,-42.3,-37.19,-32.48,-25.52,-22.89,0,0,0,0,0,0,0,0,0,0,0,0,0,0,0,0,
665,-49.24,-53.59,-46.94,-2.819,-20.04,-7.668,-27.21,-25.47,-16.36,-18.48,-27.87,-45.81,-0.0709,-4.14,-3.429,8.361,0,0,0,0,0,0,0,0,0,0,0,0,0,0,0,0,
666,-81.35,-80.25,-69.79,-34.95,-24.8,-15.62,-33.19,-24.45,11.0,-1.016,-21.14,-48.92,16.44,11.22,8.709,30.7,0,0,0,0,0,0,0,0,0,0,0,0,0,0,0,0,
667,-87.63,-93.85,-62.1,-35.58,-27.46,-22.43,-23.24,-20.01,0.6776,-1.625,-8.413,-42.57,23.31,3.274,16.83,28.17,0,0,0,0,0,0,0,0,0,0,0,0,0,0,0,0,
668,-30.38,-44.81,-10.56,40.1,6.63,12.02,11.11,-9.09,4.826,4.559,18.44,-34.93,38.68,-2.87,22.33,23.33,0,0,0,0,0,0,0,0,0,0,0,0,0,0,0,0,
669,1.936,5.018,25.62,71.85,34.81,36.71,24.56,-3.333,20.16,9.191,29.76,-34.64,40.94,-2.356,12.77,15.39,0,0,0,0,0,0,0,0,0,0,0,0,0,0,0,0,
670,-19.48,-9.854,8.624,19.36,21.03,19.09,11.24,-11.22,10.88,-0.2832,23.11,-33.64,24.39,-4.507,5.815,6.002,0,0,0,0,0,0,0,0,0,0,0,0,0,0,0,0,
671,-42.6,-51.56,-14.9,-16.14,-6.864,-9.27,22.51,-15.2,0.138,-3.537,32.5,-25.57,17.67,-2.98,17.74,11.05,0,0,0,0,0,0,0,0,0,0,0,0,0,0,0,0,
672,-70.31,-80.07,-12.02,-18.21,-28.05,-30.27,35.8,-4.223,2.849,2.386,41.25,-18.13,17.66,5.114,19.48,16.08,0,0,0,0,0,0,0,0,0,0,0,0,0,0,0,0,
673,-89.38,-92.54,-11.05,-10.17,-33.97,-31.34,16.75,10.94,-1.763,8.415,22.19,-12.35,9.051,15.06,4.995,11.38,0,0,0,0,0,0,0,0,0,0,0,0,0,0,0,0,
674,-57.08,-71.7,-12.54,13.13,-15.39,-9.247,3.502,16.84,-2.467,17.65,3.991,-12.06,4.003,13.79,-1.739,2.68,0,0,0,0,0,0,0,0,0,0,0,0,0,0,0,0,
675,-17.42,-28.13,0.5152,14.23,6.199,6.925,1.552,7.749,8.546,15.21,2.572,-19.44,6.644,-2.281,2.572,2.199,0,0,0,0,0,0,0,0,0,0,0,0,0,0,0,0,
676,-16.73,-13.45,4.083,8.708,13.62,14.16,-4.364,1.08,12.99,6.154,4.89,-17.39,14.69,-4.713,13.87,17.58,0,0,0,0,0,0,0,0,0,0,0,0,0,0,0,0,
677,-25.16,-40.3,-6.764,28.66,18.31,27.67,-6.168,12.39,20.98,22.71,7.515,-12.04,30.57,7.227,15.44,12.88,0,0,0,0,0,0,0,0,0,0,0,0,0,0,0,0,
678,-31.85,-66.67,-5.463,17.17,27.9,37.14,-4.037,22.69,46.26,45.12,9.151,-22.0,44.22,-1.007,-4.845,-23.18,0,0,0,0,0,0,0,0,0,0,0,0,0,0,0,0,
679,-37.14,-56.47,10.7,-8.146,46.18,45.73,29.97,20.51,75.02,46.0,20.06,-32.73,53.83,-20.56,-17.14,-44.63,0,0,0,0,0,0,0,0,0,0,0,0,0,0,0,0,
680,-14.64,-22.33,26.46,7.826,65.6,60.11,84.58,20.1,89.56,48.11,43.37,-30.97,66.82,-20.85,0.4752,-33.4,0,0,0,0,0,0,0,0,0,0,0,0,0,0,0,0,
681,23.24,4.966,40.2,15.54,72.47,65.69,86.12,24.04,77.22,54.8,49.9,-19.22,72.1,-7.84,27.09,-5.722,0,0,0,0,0,0,0,0,0,0,0,0,0,0,0,0,
682,45.36,27.06,65.42,23.58,77.72,68.06,48.94,24.58,51.7,50.85,27.44,-5.697,60.15,2.061,33.64,11.02,0,0,0,0,0,0,0,0,0,0,0,0,0,0,0,0,
683,40.9,35.24,71.54,61.15,81.72,75.8,14.05,22.41,40.7,50.16,-2.977,-2.929,44.71,8.154,14.5,2.783,0,0,0,0,0,0,0,0,0,0,0,0,0,0,0,0,
684,12.96,16.69,34.36,63.44,79.55,84.67,-22.57,23.95,39.77,59.98,-24.69,-5.187,38.47,5.138,-14.54,-15.07,0,0,0,0,0,0,0,0,0,0,0,0,0,0,0,0,
685,24.08,32.79,37.99,60.06,98.62,103.9,-17.46,30.5,45.12,67.05,-32.6,-10.68,35.11,-16.02,-37.86,-40.66,0,0,0,0,0,0,0,0,0,0,0,0,0,0,0,0,
686,71.68,75.38,67.64,84.09,110.9,105.7,12.58,32.86,62.06,62.25,-27.58,-20.32,28.56,-32.32,-36.4,-50.75,0,0,0,0,0,0,0,0,0,0,0,0,0,0,0,0,
687,14.76,12.69,-13.78,27.11,51.79,46.51,-6.848,27.32,57.3,42.13,-18.76,-13.76,21.63,-23.6,-14.52,-22.13,0,0,0,0,0,0,0,0,0,0,0,0,0,0,0,0,
688,-101.3,-103.8,-97.11,-67.29,-20.2,-19.68,-19.78,21.11,16.76,13.5,-21.43,-8.342,9.05,-20.53,-19.49,-19.72,0,0,0,0,0,0,0,0,0,0,0,0,0,0,0,0,
689,-69.58,-87.31,-12.47,-42.47,-12.05,-15.89,12.82,20.1,-13.37,-4.984,-32.94,-28.2,-6.399,-28.63,-45.18,-59.57,0,0,0,0,0,0,0,0,0,0,0,0,0,0,0,0,
690,56.49,15.11,106.3,32.16,46.54,33.29,28.79,26.77,-7.469,1.958,-21.11,-33.88,0.3745,-11.87,-35.79,-61.05,0,0,0,0,0,0,0,0,0,0,0,0,0,0,0,0,
691,115.6,56.12,141.7,32.11,94.24,71.67,46.02,34.35,22.45,30.13,14.23,-17.64,27.27,11.37,-14.04,-34.29,0,0,0,0,0,0,0,0,0,0,0,0,0,0,0,0,
692,111.9,40.46,144.6,-4.187,105.2,76.8,69.77,33.72,52.55,51.99,24.81,-16.16,35.91,7.622,-23.44,-34.24,0,0,0,0,0,0,0,0,0,0,0,0,0,0,0,0,
693,63.53,7.769,107.8,-27.16,65.87,45.01,43.3,30.76,49.09,46.8,8.127,-12.31,21.93,2.147,-29.78,-29.68,0,0,0,0,0,0,0,0,0,0,0,0,0,0,0,0,
694,4.982,-20.82,58.54,-35.51,17.76,10.33,21.69,31.96,27.55,32.38,10.28,10.38,17.11,10.67,-10.88,-5.752,0,0,0,0,0,0,0,0,0,0,0,0,0,0,0,0,
695,5.943,-12.48,73.93,-21.05,17.04,16.59,51.79,37.32,34.05,37.58,32.83,23.75,28.66,13.62,3.954,-0.5179,0,0,0,0,0,0,0,0,0,0,0,0,0,0,0,0,
696,36.91,19.84,107.8,1.042,47.6,49.13,64.77,46.22,53.81,56.4,45.43,23.23,40.02,11.16,7.59,-7.946,0,0,0,0,0,0,0,0,0,0,0,0,0,0,0,0,
697,50.1,38.87,97.57,0.0654,58.21,57.08,45.18,46.02,54.91,61.71,41.8,21.36,36.11,9.13,10.58,-2.51,0,0,0,0,0,0,0,0,0,0,0,0,0,0,0,0,
698,35.65,24.06,65.63,-15.19,31.93,31.47,23.57,35.23,39.94,51.67,33.93,23.09,18.56,3.746,15.41,11.13,0,0,0,0,0,0,0,0,0,0,0,0,0,0,0,0,
699,-7.435,-16.79,40.88,-20.71,1.435,13.29,-4.224,36.52,19.59,49.89,35.44,39.78,13.52,9.2,26.77,29.76,0,0,0,0,0,0,0,0,0,0,0,0,0,0,0,0,
700,-30.76,-39.3,35.6,-30.46,-2.165,15.25,-15.67,45.39,11.24,58.96,40.83,57.6,25.5,28.68,30.38,39.26,0,0,0,0,0,0,0,0,0,0,0,0,0,0,0,0,
701,-16.3,-25.71,52.71,-47.4,8.619,15.43,8.139,39.39,16.29,57.54,40.0,57.35,35.34,43.67,22.1,33.03,0,0,0,0,0,0,0,0,0,0,0,0,0,0,0,0,
702,1.754,-5.386,77.8,-41.22,25.27,24.07,29.98,28.53,24.75,52.4,47.61,61.78,49.33,54.3,34.17,45.83,0,0,0,0,0,0,0,0,0,0,0,0,0,0,0,0,
703,14.13,-3.624,80.96,-31.11,40.56,38.82,22.2,21.91,41.89,57.71,54.61,68.13,56.09,48.58,49.38,60.18,0,0,0,0,0,0,0,0,0,0,0,0,0,0,0,0,
704,7.308,-22.47,54.38,-43.58,27.77,27.79,8.45,15.62,45.16,50.34,36.07,51.53,32.09,12.05,29.64,35.2,0,0,0,0,0,0,0,0,0,0,0,0,0,0,0,0,
705,-14.84,-35.11,36.22,-39.71,7.166,15.82,13.97,24.48,20.62,33.55,15.15,45.75,10.94,-12.08,11.02,16.8,0,0,0,0,0,0,0,0,0,0,0,0,0,0,0,0,
706,-21.63,-22.85,39.35,-9.997,11.19,26.3,19.66,42.1,5.782,38.06,10.96,59.85,12.62,-5.199,16.09,22.84,0,0,0,0,0,0,0,0,0,0,0,0,0,0,0,0,
707,-15.79,-8.098,45.39,-3.984,22.41,28.8,11.9,38.62,7.661,41.21,17.66,52.12,17.51,-2.443,22.35,17.54,0,0,0,0,0,0,0,0,0,0,0,0,0,0,0,0,
708,-0.8895,-3.946,61.6,-33.9,36.66,33.99,13.06,27.27,17.41,31.21,37.13,41.88,33.49,3.413,27.82,19.82,0,0,0,0,0,0,0,0,0,0,0,0,0,0,0,0,
709,10.35,-5.996,69.7,-53.6,49.76,54.58,17.15,32.44,46.63,42.77,41.82,49.04,50.29,16.22,21.85,29.18,0,0,0,0,0,0,0,0,0,0,0,0,0,0,0,0,
710,-15.6,-24.23,44.81,-37.55,33.68,49.48,5.567,39.09,65.42,58.66,25.55,46.22,46.23,5.627,12.89,19.54,0,0,0,0,0,0,0,0,0,0,0,0,0,0,0,0,
711,-50.22,-48.12,33.47,-27.02,12.08,24.34,-0.22,37.25,52.57,46.7,29.64,48.03,41.69,-12.25,23.24,11.53,0,0,0,0,0,0,0,0,0,0,0,0,0,0,0,0,
712,-44.13,-45.62,55.01,-38.46,17.65,17.1,8.728,35.23,35.49,28.36,35.16,57.42,36.88,-17.62,16.08,4.616,0,0,0,0,0,0,0,0,0,0,0,0,0,0,0,0,
713,-17.43,-27.85,58.74,-37.56,24.32,15.37,9.563,29.5,17.91,17.05,18.32,38.41,24.55,-23.87,-3.385,-9.188,0,0,0,0,0,0,0,0,0,0,0,0,0,0,0,0,
714,-15.48,-32.71,39.2,-40.27,12.66,3.92,-0.8592,21.71,4.492,12.68,18.09,18.58,29.51,-21.72,13.66,-3.213,0,0,0,0,0,0,0,0,0,0,0,0,0,0,0,0,
715,-42.8,-47.51,25.53,-53.7,-1.468,-3.398,4.346,24.98,22.85,24.62,28.99,29.31,45.51,-7.648,26.7,9.584,0,0,0,0,0,0,0,0,0,0,0,0,0,0,0,0,
716,-63.63,-43.2,22.98,-38.11,-1.386,1.647,34.72,32.62,55.47,38.12,24.69,32.58,48.39,-7.311,9.666,-2.816,0,0,0,0,0,0,0,0,0,0,0,0,0,0,0,0,
717,-44.92,-38.33,42.63,-17.05,12.26,9.139,48.04,28.56,58.2,33.91,22.48,17.66,37.67,-22.97,7.809,-20.01,0,0,0,0,0,0,0,0,0,0,0,0,0,0,0,0,
718,-0.6511,-38.71,67.17,-17.6,19.39,5.425,22.02,20.58,30.76,19.29,19.54,15.82,19.53,-30.23,13.76,-14.42,0,0,0,0,0,0,0,0,0,0,0,0,0,0,0,0,
719,16.84,-27.73,46.27,-23.39,8.928,-9.059,-2.143,17.96,5.492,5.511,8.041,20.75,7.173,-24.24,2.324,-6.775,0,0,0,0,0,0,0,0,0,0,0,0,0,0,0,0,
720,-2.795,-27.93,4.981,-42.3,-9.998,-27.43,-12.94,10.45,-8.773,-7.673,2.158,15.1,0.8445,-25.1,-6.528,-17.52,0,0,0,0,0,0,0,0,0,0,0,0,0,0,0,0,
721,-19.82,-47.79,-2.343,-49.65,-25.8,-40.7,-26.86,5.22,-17.85,-17.15,3.72,19.08,-2.247,-28.74,2.341,-13.01,0,0,0,0,0,0,0,0,0,0,0,0,0,0,0,0,
722,-44.62,-65.67,-10.43,-29.96,-29.28,-37.88,-24.36,19.02,-5.808,-8.988,15.66,41.13,14.99,-14.4,21.39,20.86,0,0,0,0,0,0,0,0,0,0,0,0,0,0,0,0,
723,-73.66,-71.31,-28.9,-31.27,-18.8,-26.13,-8.129,31.98,17.39,8.477,30.78,47.13,31.1,-3.904,26.79,29.55,0,0,0,0,0,0,0,0,0,0,0,0,0,0,0,0,
724,-27.88,-35.3,14.06,-33.03,1.074,-15.72,8.417,23.23,13.49,5.749,33.16,23.45,18.29,-19.1,12.85,-0.9189,0,0,0,0,0,0,0,0,0,0,0,0,0,0,0,0,
725,49.42,19.29,81.94,-16.54,13.52,-10.22,35.59,9.684,-2.798,-10.65,37.75,5.456,12.11,-30.44,14.34,-5.992,0,0,0,0,0,0,0,0,0,0,0,0,0,0,0,0,
726,32.58,5.198,62.26,-30.89,-0.6956,-17.17,29.96,11.47,-2.147,-13.59,43.51,16.7,25.2,-17.82,34.06,27.66,0,0,0,0,0,0,0,0,0,0,0,0,0,0,0,0,
727,-26.78,-41.11,-2.676,-33.42,-15.86,-17.36,-21.36,27.29,3.969,-2.445,28.16,33.57,24.55,-2.194,33.95,34.03,0,0,0,0,0,0,0,0,0,0,0,0,0,0,0,0,
728,-25.27,-26.0,-5.655,-0.0768,-2.949,2.873,-27.54,37.12,9.538,8.613,11.61,29.21,11.03,-6.005,17.61,0.7537,0,0,0,0,0,0,0,0,0,0,0,0,0,0,0,0,
729,8.23,14.23,30.26,-10.92,11.57,9.317,11.49,27.3,8.122,0.5074,13.2,10.99,-1.254,-24.25,12.25,-22.64,0,0,0,0,0,0,0,0,0,0,0,0,0,0,0,0,
730,29.96,23.14,40.96,-44.46,8.542,-6.958,10.6,13.61,-11.56,-26.89,16.16,-6.948,-10.17,-32.47,11.69,-28.62,0,0,0,0,0,0,0,0,0,0,0,0,0,0,0,0,
731,32.93,0.5208,21.22,-51.99,-9.405,-26.88,-15.95,4.064,-31.0,-42.72,13.19,-21.59,-11.58,-29.12,7.61,-26.59,0,0,0,0,0,0,0,0,0,0,0,0,0,0,0,0,
732,2.924,-39.07,-16.56,-64.17,-41.54,-48.49,-27.98,-7.692,-40.84,-38.75,11.95,-21.55,-9.025,-28.06,7.365,-12.38,0,0,0,0,0,0,0,0,0,0,0,0,0,0,0,0,
733,-38.66,-44.34,-43.18,-54.42,-52.43,-49.13,-21.65,-6.673,-41.86,-27.03,17.31,-9.506,-0.5975,-22.34,6.939,-6.47,0,0,0,0,0,0,0,0,0,0,0,0,0,0,0,0,
734,-45.54,-16.43,-30.99,-25.66,-34.58,-31.13,4.075,2.306,-24.7,-10.35,20.32,-12.67,6.388,-20.8,1.702,-15.61,0,0,0,0,0,0,0,0,0,0,0,0,0,0,0,0,
735,-20.28,-21.79,-4.933,-44.62,-35.33,-40.2,4.085,-9.734,-19.71,-8.593,11.59,-26.49,-8.42,-37.51,1.38,-18.23,0,0,0,0,0,0,0,0,0,0,0,0,0,0,0,0,
736,5.107,-38.52,5.444,-61.36,-45.83,-58.5,-25.75,-24.03,-43.64,-25.54,6.895,-24.18,-21.62,-39.85,4.779,-8.788,0,0,0,0,0,0,0,0,0,0,0,0,0,0,0,0,
737,8.085,-33.95,-4.244,-32.87,-47.41,-58.51,-32.57,-17.04,-54.62,-31.23,-1.336,-16.74,-16.84,-21.11,-7.203,2.631,0,0,0,0,0,0,0,0,0,0,0,0,0,0,0,0,
738,-30.26,-54.63,-44.39,-35.65,-72.87,-72.72,-48.5,-15.18,-57.36,-32.24,-31.5,-15.49,-26.64,-20.84,-25.28,4.216,0,0,0,0,0,0,0,0,0,0,0,0,0,0,0,0,
739,-75.78,-79.6,-79.1,-65.4,-92.24,-85.34,-78.59,-20.64,-71.5,-43.04,-33.01,-1.54,-32.42,-25.18,-12.45,2.354,0,0,0,0,0,0,0,0,0,0,0,0,0,0,0,0,
740,-67.05,-54.34,-47.67,-50.69,-62.48,-65.31,-52.04,-12.96,-57.18,-39.32,11.04,11.34,-6.846,-12.13,14.07,6.061,0,0,0,0,0,0,0,0,0,0,0,0,0,0,0,0,
741,-32.37,-24.56,-0.4943,-29.24,-42.55,-59.27,-10.33,-17.5,-31.98,-31.03,29.31,-5.609,-0.8693,-14.24,11.4,3.999,0,0,0,0,0,0,0,0,0,0,0,0,0,0,0,0,
742,-23.48,-28.39,-16.55,-52.19,-62.93,-78.92,-14.71,-40.4,-54.01,-46.17,14.47,-21.68,-24.19,-22.84,-0.0115,6.405,0,0,0,0,0,0,0,0,0,0,0,0,0,0,0,0,
743,-27.94,-31.44,-49.94,-64.12,-69.73,-72.1,-29.24,-38.04,-84.43,-50.26,-0.1334,-7.118,-32.5,-3.419,-9.031,17.5,0,0,0,0,0,0,0,0,0,0,0,0,0,0,0,0,
744,-34.86,-23.95,-46.17,-32.88,-55.58,-47.18,-43.71,-17.89,-76.92,-22.37,-28.28,4.506,-37.49,8.552,-38.94,4.98,0,0,0,0,0,0,0,0,0,0,0,0,0,0,0,0,
745,-38.13,-28.51,-32.89,-21.86,-52.33,-48.6,-52.7,-21.58,-64.2,-12.69,-44.59,-6.889,-47.88,-14.29,-56.42,-24.99,0,0,0,0,0,0,0,0,0,0,0,0,0,0,0,0,
746,-30.41,-41.47,-22.73,-46.4,-51.05,-64.86,-35.58,-36.8,-64.93,-39.19,-22.36,-15.4,-42.48,-33.29,-36.02,-37.21,0,0,0,0,0,0,0,0,0,0,0,0,0,0,0,0,
747,-25.53,-36.22,-12.53,-48.75,-38.98,-63.67,-36.25,-40.36,-63.21,-55.89,-9.313,-13.91,-39.82,-26.67,-18.68,-28.54,0,0,0,0,0,0,0,0,0,0,0,0,0,0,0,0,
748,-19.46,-11.36,-22.19,-21.04,-32.74,-47.51,-67.24,-33.87,-61.16,-42.6,-21.5,-15.65,-51.81,-10.94,-20.44,-14.23,0,0,0,0,0,0,0,0,0,0,0,0,0,0,0,0,
749,-19.97,-3.265,-44.11,5.09,-40.42,-36.13,-71.49,-14.86,-64.91,-21.7,-22.77,-13.9,-52.97,-0.63,-16.88,-5.774,0,0,0,0,0,0,0,0,0,0,0,0,0,0,0,0,
750,-46.21,-24.1,-48.64,8.861,-42.92,-35.53,-42.49,1.923,-60.0,-13.95,-6.964,-6.958,-37.77,-2.994,-1.335,-4.137,0,0,0,0,0,0,0,0,0,0,0,0,0,0,0,0,
751,-54.44,-36.67,-27.76,-19.4,-22.85,-35.0,-12.91,-4.036,-31.76,-24.51,6.686,-10.75,-20.28,-10.0,3.886,-10.5,0,0,0,0,0,0,0,0,0,0,0,0,0,0,0,0,
752,-19.28,-23.96,-2.354,-46.19,2.726,-28.4,5.711,-14.95,0.2305,-34.49,7.811,-14.57,-10.23,-3.536,-7.937,-14.66,0,0,0,0,0,0,0,0,0,0,0,0,0,0,0,0,
753,0.7291,-13.72,-10.54,-38.76,-2.711,-29.25,2.784,-15.87,-0.7635,-25.17,2.446,-5.487,-14.86,7.057,-10.56,2.654,0,0,0,0,0,0,0,0,0,0,0,0,0,0,0,0,
754,-21.1,-18.27,-46.45,-16.9,-34.62,-39.71,-19.1,-16.67,-27.94,-15.96,-3.493,-2.438,-24.29,6.672,-4.114,21.8,0,0,0,0,0,0,0,0,0,0,0,0,0,0,0,0,
755,-38.24,-18.07,-56.98,6.509,-45.27,-34.62,-25.9,-10.76,-36.0,-17.59,-3.914,0.7766,-15.7,13.14,4.262,29.13,0,0,0,0,0,0,0,0,0,0,0,0,0,0,0,0,
756,-27.38,-6.6,-36.77,20.04,-23.34,-14.95,-10.59,2.303,-14.41,-8.869,9.836,12.93,2.399,18.71,24.7,34.93,0,0,0,0,0,0,0,0,0,0,0,0,0,0,0,0,
757,-13.5,1.077,-18.52,-2.321,-4.036,-9.701,-9.241,-2.054,4.023,-1.103,15.73,6.408,0.7158,-4.583,23.28,22.02,0,0,0,0,0,0,0,0,0,0,0,0,0,0,0,0,
758,-8.169,-3.643,-9.622,-25.47,-2.794,-15.16,-18.82,-15.14,6.84,-11.23,1.832,2.59,-10.91,-15.85,-4.64,6.795,0,0,0,0,0,0,0,0,0,0,0,0,0,0,0,0,
759,-13.31,-15.65,-19.02,-9.514,-14.39,-17.65,-8.008,-9.435,3.016,-12.43,-2.65,26.78,-14.55,7.184,-6.896,16.19,0,0,0,0,0,0,0,0,0,0,0,0,0,0,0,0,
760,-33.71,-23.07,-42.24,5.879,-31.21,-24.43,7.07,-1.932,-11.69,-3.951,-1.117,30.31,-25.75,5.407,-1.651,13.19,0,0,0,0,0,0,0,0,0,0,0,0,0,0,0,0,
761,-44.22,-21.06,-40.18,2.15,-33.33,-27.53,8.071,-11.46,-26.15,-9.485,-12.45,12.41,-40.34,-20.14,-19.55,-10.89,0,0,0,0,0,0,0,0,0,0,0,0,0,0,0,0,
762,-35.9,-19.26,-13.52,2.211,-18.14,-21.14,5.171,-23.37,-20.04,-16.89,-22.0,11.17,-39.72,-24.02,-30.72,-26.8,0,0,0,0,0,0,0,0,0,0,0,0,0,0,0,0,
763,-24.72,-18.39,3.436,-6.709,-2.281,-16.34,3.53,-32.19,-4.179,-18.58,-20.07,5.919,-29.18,-16.79,-25.5,-24.27,0,0,0,0,0,0,0,0,0,0,0,0,0,0,0,0,
764,-3.883,-12.72,5.26,-18.67,7.882,-8.41,6.756,-37.77,10.62,-14.68,-11.83,-0.7127,-15.24,-5.575,-15.68,-2.095,0,0,0,0,0,0,0,0,0,0,0,0,0,0,0,0,
765,0.9047,-15.79,-12.54,-9.886,-1.418,-6.101,-4.791,-36.29,15.51,-2.083,-18.8,5.12,-17.55,-2.98,-18.91,1.809,0,0,0,0,0,0,0,0,0,0,0,0,0,0,0,0,
766,-29.65,-27.98,-41.53,-5.282,-22.98,-19.03,-34.82,-34.15,-4.544,-10.22,-41.05,0.7468,-37.98,-27.87,-35.2,-21.83,0,0,0,0,0,0,0,0,0,0,0,0,0,0,0,0,
767,-36.23,-23.09,-35.85,-12.68,-10.56,-12.4,-22.86,-25.58,-14.58,-30.78,-30.25,7.181,-29.6,-34.21,-25.4,-18.58,0,0,0,0,0,0,0,0,0,0,0,0,0,0,0,0,
768,-5.782,0.106,0.8396,-8.85,25.51,11.2,24.2,-12.53,14.61,-19.96,-6.855,23.36,-6.025,-16.06,-14.69,-7.125,0,0,0,0,0,0,0,0,0,0,0,0,0,0,0,0,
769,8.945,14.4,6.42,-4.507,25.75,4.778,25.04,-18.2,32.11,-13.54,-29.08,0.2499,-21.12,-29.59,-44.65,-27.65,0,0,0,0,0,0,0,0,0,0,0,0,0,0,0,0,
770,-4.607,-2.217,-29.58,-11.54,-8.56,-19.76,-9.541,-28.17,9.223,-40.88,-52.13,-22.31,-42.24,-48.03,-54.4,-33.04,0,0,0,0,0,0,0,0,0,0,0,0,0,0,0,0,
771,-33.54,-37.27,-60.19,-16.03,-40.43,-35.18,-23.28,-16.83,-16.75,-53.74,-43.74,-2.358,-36.66,-32.13,-26.56,-8.994,0,0,0,0,0,0,0,0,0,0,0,0,0,0,0,0,
772,-55.74,-42.82,-64.84,-6.216,-54.24,-47.71,-20.51,-2.506,-28.16,-45.08,-44.37,10.21,-32.23,-15.02,-22.09,-3.026,0,0,0,0,0,0,0,0,0,0,0,0,0,0,0,0,
773,-57.94,-26.7,-62.98,0.5077,-44.84,-49.08,-20.51,-1.37,-28.56,-33.87,-44.42,5.531,-27.0,-7.157,-26.39,-10.96,0,0,0,0,0,0,0,0,0,0,0,0,0,0,0,0,
774,-58.01,-45.73,-63.7,-30.32,-31.52,-45.51,-24.62,-13.48,-17.15,-14.47,-31.1,3.701,-16.75,-5.757,-13.76,-6.433,0,0,0,0,0,0,0,0,0,0,0,0,0,0,0,0,
775,-49.45,-64.76,-58.34,-64.74,-44.57,-61.53,-31.43,-37.27,-15.9,-20.68,-39.0,-14.09,-31.97,-31.01,-17.38,-11.78,0,0,0,0,0,0,0,0,0,0,0,0,0,0,0,0,
776,-27.64,-34.62,-58.5,-37.78,-73.82,-77.77,-53.27,-46.02,-44.31,-64.51,-61.9,-26.34,-61.39,-56.01,-29.87,-28.6,0,0,0,0,0,0,0,0,0,0,0,0,0,0,0,0,
777,-30.09,-17.21,-75.1,8.721,-85.98,-70.68,-84.21,-26.13,-70.5,-77.78,-63.53,-2.883,-62.79,-40.84,-23.16,-19.57,0,0,0,0,0,0,0,0,0,0,0,0,0,0,0,0,
778,-51.24,-35.17,-80.25,8.679,-74.87,-57.41,-74.49,-9.662,-59.63,-40.14,-43.22,16.3,-43.86,-16.9,-18.33,-8.529,0,0,0,0,0,0,0,0,0,0,0,0,0,0,0,0,
779,-42.03,-31.03,-57.69,-12.29,-57.1,-51.77,-28.33,-13.23,-37.74,-15.61,-24.22,4.507,-35.61,-19.57,-22.71,-23.79,0,0,0,0,0,0,0,0,0,0,0,0,0,0,0,0,
780,-14.73,-18.58,-37.11,-24.85,-42.68,-48.39,-9.121,-18.22,-30.67,-24.1,-20.09,-10.56,-31.19,-21.71,-14.28,-20.84,0,0,0,0,0,0,0,0,0,0,0,0,0,0,0,0,
781,-24.49,-35.64,-40.73,-28.56,-39.27,-47.42,-16.97,-18.15,-18.27,-26.03,-24.7,-15.99,-20.91,-11.98,-5.136,-3.72,0,0,0,0,0,0,0,0,0,0,0,0,0,0,0,0,
782,-58.45,-53.18,-55.09,-12.89,-51.37,-51.84,-20.71,-21.31,-4.762,-21.16,-26.79,-19.27,-20.83,-20.58,-8.194,-12.6,0,0,0,0,0,0,0,0,0,0,0,0,0,0,0,0,
783,-56.87,-45.88,-51.03,2.126,-53.92,-50.66,-18.43,-25.23,-10.75,-30.33,-19.48,-17.83,-24.56,-38.03,-1.604,-14.98,0,0,0,0,0,0,0,0,0,0,0,0,0,0,0,0,
784,-21.84,-23.55,-13.11,-3.433,-24.11,-31.66,-4.37,-25.53,-11.81,-31.5,-4.694,-14.74,-13.5,-36.44,10.43,-2.126,0,0,0,0,0,0,0,0,0,0,0,0,0,0,0,0,
785,5.644,2.338,24.88,-2.018,9.803,-8.676,13.55,-28.07,7.099,-17.63,2.487,-19.79,-2.915,-29.45,6.762,-7.883,0,0,0,0,0,0,0,0,0,0,0,0,0,0,0,0,
786,7.065,11.47,11.56,-1.716,6.267,-9.721,10.84,-34.15,19.0,-18.65,-5.283,-18.72,-7.896,-23.55,4.17,-3.617,0,0,0,0,0,0,0,0,0,0,0,0,0,0,0,0,
787,-25.14,-18.68,-39.5,-24.01,-30.62,-33.4,-19.15,-33.47,9.219,-26.94,-18.98,5.746,-16.17,-3.894,11.46,25.49,0,0,0,0,0,0,0,0,0,0,0,0,0,0,0,0,
788,-61.51,-54.59,-65.88,-14.53,-51.34,-40.6,-52.07,-20.54,-6.66,-13.52,-22.88,25.96,-12.6,15.7,11.3,23.56,0,0,0,0,0,0,0,0,0,0,0,0,0,0,0,0,
789,-50.33,-33.06,-43.77,24.34,-25.47,-15.18,-34.08,-8.256,-2.296,5.745,-3.877,10.01,1.543,8.941,9.965,-14.61,0,0,0,0,0,0,0,0,0,0,0,0,0,0,0,0,
790,-5.99,15.62,-3.125,3.907,5.682,2.428,21.84,-14.43,15.66,-1.583,13.52,-21.04,1.804,-20.76,8.328,-37.05,0,0,0,0,0,0,0,0,0,0,0,0,0,0,0,0,
791,14.29,14.8,14.44,-44.05,-2.189,-11.77,26.26,-30.38,3.213,-27.41,-7.939,-36.34,-20.42,-43.98,-11.96,-37.97,0,0,0,0,0,0,0,0,0,0,0,0,0,0,0,0,
792,-0.5594,-15.53,-7.594,-35.22,-25.02,-26.21,-10.66,-30.83,-30.35,-39.3,-37.13,-29.61,-27.45,-36.34,-23.27,-25.46,0,0,0,0,0,0,0,0,0,0,0,0,0,0,0,0,
793,-22.79,-25.8,-42.51,-9.079,-30.02,-19.33,-18.43,-16.61,-31.46,-27.78,-28.38,-2.182,-4.58,-3.957,2.332,6.505,0,0,0,0,0,0,0,0,0,0,0,0,0,0,0,0,
794,-40.8,-21.83,-55.34,-8.038,-25.32,-8.798,-16.22,-7.466,-15.17,-6.919,-10.12,18.28,7.023,19.23,19.82,17.93,0,0,0,0,0,0,0,0,0,0,0,0,0,0,0,0,
795,-47.71,-15.3,-44.74,-16.54,-24.49,-14.26,-12.41,-9.9,-21.62,-0.84,-13.22,0.7203,-9.711,4.438,1.316,-12.36,0,0,0,0,0,0,0,0,0,0,0,0,0,0,0,0,
796,-23.87,-18.78,-22.78,-39.01,-25.96,-30.33,11.89,-19.49,-32.94,-24.54,-23.9,-28.01,-30.6,-32.81,-21.27,-35.02,0,0,0,0,0,0,0,0,0,0,0,0,0,0,0,0,
797,5.319,-38.3,-5.248,-61.11,-31.36,-40.8,7.302,-28.05,-39.49,-52.66,-40.73,-30.06,-45.6,-50.69,-34.08,-32.79,0,0,0,0,0,0,0,0,0,0,0,0,0,0,0,0,
798,-6.517,-44.59,-14.18,-51.7,-42.66,-40.75,-23.06,-25.11,-51.04,-55.91,-55.14,-14.09,-46.01,-38.73,-32.88,-24.82,0,0,0,0,0,0,0,0,0,0,0,0,0,0,0,0,
799,-31.27,-26.36,-33.48,-18.72,-39.76,-25.18,-12.89,-8.665,-39.33,-37.16,-41.24,2.394,-21.47,-17.15,-16.02,-12.47,0,0,0,0,0,0,0,0,0,0,0,0,0,0,0,0,
800,-23.76,-8.302,-26.5,9.31,-13.01,-0.4003,6.963,5.972,-5.07,-7.827,-24.57,8.215,-4.12,-9.369,-16.71,-14.97,0,0,0,0,0,0,0,0,0,0,0,0,0,0,0,0,
801,0.0151,-2.153,-4.234,5.783,7.774,7.765,-9.499,-0.7285,3.914,3.323,-34.45,-4.628,-15.23,-24.15,-30.18,-37.42,0,0,0,0,0,0,0,0,0,0,0,0,0,0,0,0,
802,11.56,-5.248,3.019,-18.61,8.389,2.845,-23.03,-19.91,-0.375,-17.24,-34.47,-15.78,-18.33,-34.25,-14.58,-37.52,0,0,0,0,0,0,0,0,0,0,0,0,0,0,0,0,
803,-3.266,-18.7,-16.55,-29.45,-5.228,-7.427,-21.39,-29.07,11.0,-31.47,-16.29,-11.01,-12.39,-27.39,1.179,-18.93,0,0,0,0,0,0,0,0,0,0,0,0,0,0,0,0,
804,-47.85,-39.32,-60.92,-34.06,-41.37,-39.52,-33.68,-31.85,-2.958,-35.4,-20.8,-7.778,-32.04,-33.39,-14.05,-26.28,0,0,0,0,0,0,0,0,0,0,0,0,0,0,0,0,
805,-87.1,-50.15,-86.32,-37.51,-69.9,-58.94,-39.48,-29.59,-41.47,-46.08,-27.34,-2.322,-43.4,-39.56,-12.2,-35.61,0,0,0,0,0,0,0,0,0,0,0,0,0,0,0,0,
806,-68.14,-38.42,-53.74,-26.2,-45.5,-30.17,-11.76,-15.91,-36.82,-31.1,-4.287,11.43,-15.92,-23.5,11.85,-19.51,0,0,0,0,0,0,0,0,0,0,0,0,0,0,0,0,
807,-7.193,-19.51,-11.16,-20.46,-5.386,-6.378,12.24,-13.95,-4.342,-6.133,5.84,4.504,-0.6078,-28.7,6.709,-25.01,0,0,0,0,0,0,0,0,0,0,0,0,0,0,0,0,
808,11.68,-14.48,-9.861,-23.71,-2.774,-17.65,2.43,-27.27,0.9158,-20.63,-6.371,-13.08,-10.11,-50.78,-4.903,-45.86,0,0,0,0,0,0,0,0,0,0,0,0,0,0,0,0,
809,-25.49,-23.39,-24.69,-25.85,-20.42,-26.98,-3.152,-24.73,4.436,-34.46,0.8802,-1.632,-3.782,-32.68,11.08,-28.66,0,0,0,0,0,0,0,0,0,0,0,0,0,0,0,0,
810,-48.16,-31.32,-36.0,-35.43,-31.36,-28.78,13.2,-8.682,19.41,-18.55,12.41,18.85,2.466,-8.135,19.82,-6.799,0,0,0,0,0,0,0,0,0,0,0,0,0,0,0,0,
811,-34.99,-16.38,-46.09,-18.41,-29.7,-29.93,16.46,8.118,10.35,-20.72,12.12,18.65,-8.686,-20.74,21.46,-5.828,0,0,0,0,0,0,0,0,0,0,0,0,0,0,0,0,
812,-12.25,14.16,-30.48,17.36,-14.22,-18.92,9.416,26.33,-6.235,-38.69,23.75,7.811,-10.07,-30.2,35.07,2.782,0,0,0,0,0,0,0,0,0,0,0,0,0,0,0,0,
813,6.025,17.86,-5.738,-3.24,-6.528,-8.724,15.31,27.86,-2.591,-32.68,24.36,-5.022,-11.54,-23.46,25.15,3.892,0,0,0,0,0,0,0,0,0,0,0,0,0,0,0,0,
814,2.941,-3.919,-27.62,-38.69,-17.41,-7.853,6.618,15.97,-2.707,-17.96,-6.398,-9.42,-28.98,-22.05,-0.733,-1.65,0,0,0,0,0,0,0,0,0,0,0,0,0,0,0,0,
815,-16.79,-9.276,-66.38,-18.46,-19.01,0.7724,-28.42,16.18,-17.9,-12.5,-29.54,-1.19,-36.71,-16.74,-6.245,3.457,0,0,0,0,0,0,0,0,0,0,0,0,0,0,0,0,
816,-23.74,2.534,-57.33,7.1,-4.169,12.88,-43.34,20.19,-28.96,-3.288,-34.96,-1.01,-36.86,-17.71,-22.44,-17.37,0,0,0,0,0,0,0,0,0,0,0,0,0,0,0,0,
817,-12.02,8.199,-26.38,8.299,1.841,7.294,-32.73,14.33,-29.53,-4.77,-44.86,-14.77,-51.54,-47.02,-53.95,-56.58,0,0,0,0,0,0,0,0,0,0,0,0,0,0,0,0,
818,8.115,-0.0408,-17.84,-4.237,-8.758,-17.56,-35.89,0.6858,-35.43,-38.34,-52.26,-28.07,-69.08,-78.52,-52.77,-61.35,0,0,0,0,0,0,0,0,0,0,0,0,0,0,0,0,
819,19.45,-13.49,-19.85,-32.93,-25.08,-40.43,-34.59,-13.91,-60.17,-71.87,-46.61,-26.36,-74.62,-79.05,-26.5,-38.47,0,0,0,0,0,0,0,0,0,0,0,0,0,0,0,0,
820,3.434,-3.915,-25.27,-33.08,-33.38,-36.05,-11.9,-8.678,-77.33,-65.11,-37.13,-4.837,-64.46,-52.2,-10.02,-14.85,0,0,0,0,0,0,0,0,0,0,0,0,0,0,0,0,
821,-21.25,19.46,-42.03,0.4207,-22.48,-8.824,-8.907,14.33,-54.78,-27.05,-28.33,16.22,-33.59,-17.18,3.292,8.499,0,0,0,0,0,0,0,0,0,0,0,0,0,0,0,0,
822,-20.23,15.0,-47.06,11.25,2.537,13.45,-14.89,26.48,-16.15,11.39,-10.06,23.28,6.028,7.301,26.42,24.67,0,0,0,0,0,0,0,0,0,0,0,0,0,0,0,0,
823,7.75,10.1,-13.38,6.0,30.57,27.23,6.38,28.99,8.297,28.16,12.4,22.64,28.49,9.447,38.84,13.4,0,0,0,0,0,0,0,0,0,0,0,0,0,0,0,0,
824,48.13,40.35,32.37,3.089,55.41,43.18,24.26,33.41,24.69,22.12,9.685,12.37,24.82,-4.037,15.8,-20.77,0,0,0,0,0,0,0,0,0,0,0,0,0,0,0,0,
825,75.09,60.64,38.03,-4.744,60.82,50.05,18.18,32.42,27.54,13.47,-20.59,3.616,8.786,-14.02,-21.19,-42.4,0,0,0,0,0,0,0,0,0,0,0,0,0,0,0,0,
826,55.87,49.25,9.684,10.2,42.09,42.38,5.545,32.24,7.083,10.21,-41.62,15.16,-0.9854,-7.405,-27.76,-38.4,0,0,0,0,0,0,0,0,0,0,0,0,0,0,0,0,
827,24.26,48.43,-0.8067,47.55,35.8,45.33,3.2,42.53,-5.835,7.31,-26.12,34.22,7.316,13.69,0.1979,-18.15,0,0,0,0,0,0,0,0,0,0,0,0,0,0,0,0,
828,44.28,71.26,19.13,57.23,64.25,69.66,23.12,46.45,14.06,14.18,14.4,43.03,28.83,31.98,30.66,9.529,0,0,0,0,0,0,0,0,0,0,0,0,0,0,0,0,
829,86.22,84.87,43.02,33.95,87.74,81.8,39.63,32.56,39.0,29.36,41.95,45.18,42.54,32.97,45.25,25.03,0,0,0,0,0,0,0,0,0,0,0,0,0,0,0,0,
830,90.99,68.81,50.55,19.21,73.05,59.02,39.17,18.83,40.37,29.96,41.47,45.87,38.43,23.76,47.71,22.75,0,0,0,0,0,0,0,0,0,0,0,0,0,0,0,0,
831,66.29,45.33,33.69,25.36,43.5,31.35,47.09,19.24,29.79,15.93,28.66,37.65,22.55,14.5,32.64,8.2,0,0,0,0,0,0,0,0,0,0,0,0,0,0,0,0,
832,37.72,37.56,11.4,30.66,29.65,28.87,39.88,27.66,24.97,8.335,5.656,16.32,5.208,6.514,1.916,-17.89,0,0,0,0,0,0,0,0,0,0,0,0,0,0,0,0,
833,28.45,41.39,17.6,33.9,37.79,40.42,5.79,36.43,31.94,8.35,-22.15,-4.88,0.5109,1.641,-18.23,-40.78,0,0,0,0,0,0,0,0,0,0,0,0,0,0,0,0,
834,47.8,58.81,43.7,40.58,55.29,46.33,0.8105,34.87,46.27,4.292,-31.36,-21.51,2.027,-5.755,-23.48,-54.51,0,0,0,0,0,0,0,0,0,0,0,0,0,0,0,0,
835,65.91,74.48,54.1,25.37,55.82,40.4,23.85,16.11,47.96,-1.14,-21.91,-30.71,-3.879,-11.86,-15.71,-49.0,0,0,0,0,0,0,0,0,0,0,0,0,0,0,0,0,
836,53.69,50.94,41.03,-7.163,29.94,22.71,26.74,0.1802,34.61,1.286,-7.711,-7.483,-0.6509,2.664,17.51,-6.619,0,0,0,0,0,0,0,0,0,0,0,0,0,0,0,0,
837,7.992,8.942,10.42,-10.12,-3.349,0.3874,14.16,4.97,24.48,6.312,4.671,33.62,8.16,20.46,39.19,26.14,0,0,0,0,0,0,0,0,0,0,0,0,0,0,0,0,
838,-33.2,-5.147,-23.12,7.314,-21.09,-12.29,2.705,12.72,10.9,-3.51,5.27,39.07,-3.702,10.69,16.61,4.21,0,0,0,0,0,0,0,0,0,0,0,0,0,0,0,0,
839,-23.09,3.646,-23.08,3.182,-10.13,-5.416,-0.9266,5.141,-5.211,-24.51,3.948,13.92,-11.39,-6.662,0.9441,-27.84,0,0,0,0,0,0,0,0,0,0,0,0,0,0,0,0,
840,12.08,23.12,14.4,-7.152,14.92,10.14,20.5,-7.617,8.85,-24.7,22.27,-0.1467,7.576,-6.591,19.12,-29.96,0,0,0,0,0,0,0,0,0,0,0,0,0,0,0,0,
841,21.96,37.96,37.39,-9.691,17.07,9.884,42.03,-9.864,36.4,-0.9706,38.17,0.1513,16.6,2.62,26.31,-23.28,0,0,0,0,0,0,0,0,0,0,0,0,0,0,0,0,
842,3.352,12.73,21.59,-13.57,-8.496,-8.329,23.92,0.9655,26.03,10.34,21.96,1.058,1.156,11.7,10.94,-27.03,0,0,0,0,0,0,0,0,0,0,0,0,0,0,0,0,
843,-11.58,-19.06,10.25,9.892,-26.02,-18.48,5.137,14.29,-6.67,-1.066,-0.9408,0.9181,-12.03,12.72,0.4156,-28.89,0,0,0,0,0,0,0,0,0,0,0,0,0,0,0,0,
844,7.938,2.757,26.34,40.25,-16.6,-8.032,21.99,17.22,-20.1,-14.77,-4.437,6.49,-15.82,5.83,-2.981,-16.19,0,0,0,0,0,0,0,0,0,0,0,0,0,0,0,0,
845,21.81,26.21,31.22,8.991,1.624,1.758,32.63,11.59,-13.92,-20.09,0.8081,14.74,-15.26,2.646,-3.167,-2.128,0,0,0,0,0,0,0,0,0,0,0,0,0,0,0,0,
846,2.528,5.223,19.91,-34.88,6.555,-6.453,23.72,2.18,1.71,-21.9,7.545,0.7705,-14.84,-8.092,0.646,-8.682,0,0,0,0,0,0,0,0,0,0,0,0,0,0,0,0,
847,17.23,8.359,26.05,-16.36,-4.348,-15.9,9.865,-9.658,2.669,-32.48,-1.601,-27.5,-31.0,-29.21,-11.73,-32.37,0,0,0,0,0,0,0,0,0,0,0,0,0,0,0,0,
848,56.55,48.69,30.34,27.84,-11.51,-4.289,-17.96,-2.807,-29.11,-38.22,-32.82,-16.11,-50.5,-22.17,-31.44,-33.41,0,0,0,0,0,0,0,0,0,0,0,0,0,0,0,0,
849,51.94,65.0,21.74,59.62,7.708,25.63,-24.51,26.74,-43.28,-8.556,-37.05,26.75,-31.16,14.56,-18.43,-5.405,0,0,0,0,0,0,0,0,0,0,0,0,0,0,0,0,
850,39.84,64.28,37.2,62.56,42.81,54.66,4.951,36.55,-4.013,29.86,-8.06,32.42,12.52,31.93,6.015,-5.532,0,0,0,0,0,0,0,0,0,0,0,0,0,0,0,0,
