%OpenBCI Raw EXG Data
%Number of channels = 16
%Sample Rate = 125 Hz
%Board = OpenBCI_GUI$BoardCytonSerialDaisy
Sample Index,EXG Channel 0,EXG Channel 1,EXG Channel 2,EXG Channel 3,EXG Channel 4,EXG Channel 5,EXG Channel 6,EXG Channel 7,EXG Channel 8,EXG Channel 9,EXG Channel 10,EXG Channel 11,EXG Channel 12,EXG Channel 13,EXG Channel 14,EXG Channel 15,Accel Channel 0,Accel Channel 1,Accel Channel 2,Other,Other.1,Other.2,Other.3,Other.4,Other.5,Other.6,Analog Channel 0,Analog Channel 1,Analog Channel 2,Timestamp,Other.7,Timestamp (Formatted),Annotations
1,0.0,0.0,0.0,-0.0,0.0,0.0,0.0,-0.0,-0.0,0.0,-0.0,0.0,-0.0,0.0,0.0,0.0,0,0,0,0,0,0,0,0,0,0,0,0,0,0,0,0,T0
2,-21.89,-25.78,-25.65,-31.96,-4.522,-6.201,-32.25,9.769,-1.909,-0.3888,19.6,1.645,11.15,-8.009,20.54,20.19,0,0,0,0,0,0,0,0,0,0,0,0,0,0,0,0,
3,-19.23,-32.77,-18.78,-60.22,-14.28,-22.78,6.528,-20.85,-3.415,-29.88,44.87,-9.064,22.46,-16.79,25.05,4.913,0,0,0,0,0,0,0,0,0,0,0,0,0,0,0,0,
4,-58.98,-68.03,-41.46,-71.26,-50.79,-50.62,14.97,-40.1,-32.44,-52.79,37.27,-18.31,5.097,-23.27,18.72,-5.028,0,0,0,0,0,0,0,0,0,0,0,0,0,0,0,0,
5,-99.57,-100.3,-63.29,-59.5,-69.02,-51.76,-22.93,-27.3,-79.06,-42.7,18.57,-17.42,-10.09,-17.15,20.73,-1.443,0,0,0,0,0,0,0,0,0,0,0,0,0,0,0,0,
6,-73.11,-73.85,-30.91,-23.63,-39.67,-18.72,-31.51,3.881,-88.43,-19.7,20.77,-16.48,1.82,2.074,22.44,-3.169,0,0,0,0,0,0,0,0,0,0,0,0,0,0,0,0,
7,-41.31,-32.35,-16.24,13.64,-16.31,6.834,-47.07,35.41,-55.81,2.753,15.04,-18.39,3.356,23.76,14.25,3.361,0,0,0,0,0,0,0,0,0,0,0,0,0,0,0,0,
8,-45.98,-22.42,-45.21,2.459,-20.11,8.922,-68.72,21.29,-32.46,18.45,3.866,-22.09,-2.267,34.35,16.43,11.53,0,0,0,0,0,0,0,0,0,0,0,0,0,0,0,0,
9,-71.99,-47.85,-61.7,-40.92,-32.21,-10.58,-27.99,-15.07,-32.07,12.86,11.59,-28.8,6.699,20.86,29.17,13.38,0,0,0,0,0,0,0,0,0,0,0,0,0,0,0,0,
10,-118.8,-98.13,-75.32,-55.39,-60.91,-51.56,8.49,-20.73,-32.35,-15.53,19.76,-30.12,4.756,-11.25,31.71,20.18,0,0,0,0,0,0,0,0,0,0,0,0,0,0,0,0,
11,-154.3,-129.4,-99.15,-51.64,-100.0,-89.39,-19.89,-20.97,-46.71,-57.71,19.6,-19.96,-11.19,-31.62,28.64,23.41,0,0,0,0,0,0,0,0,0,0,0,0,0,0,0,0,
12,-140.8,-117.7,-92.6,-45.33,-107.8,-89.19,-44.74,-15.1,-84.19,-83.95,24.88,-3.674,-8.996,-10.57,33.5,29.14,0,0,0,0,0,0,0,0,0,0,0,0,0,0,0,0,
13,-104.9,-94.16,-70.36,-24.5,-72.94,-51.39,-44.39,5.515,-92.11,-57.37,29.12,4.047,13.19,29.62,34.77,39.99,0,0,0,0,0,0,0,0,0,0,0,0,0,0,0,0,
14,-93.52,-88.98,-74.64,-30.01,-41.92,-24.11,-34.35,-5.767,-47.6,-15.56,25.48,-11.62,32.38,31.88,22.47,28.94,0,0,0,0,0,0,0,0,0,0,0,0,0,0,0,0,
15,-101.4,-95.88,-61.6,-54.52,-38.55,-27.69,-0.8806,-13.58,-7.013,-18.08,28.9,-34.72,37.65,8.946,18.39,10.5,0,0,0,0,0,0,0,0,0,0,0,0,0,0,0,0,
16,-93.82,-81.85,-6.493,-33.82,-24.62,-18.03,18.37,19.48,5.233,-27.1,43.58,-44.78,31.41,9.671,27.07,3.968,0,0,0,0,0,0,0,0,0,0,0,0,0,0,0,0,
17,-76.96,-50.84,7.114,-9.969,0.6774,3.269,-9.12,15.29,11.17,-13.44,45.48,-62.77,16.37,4.88,20.75,-10.54,0,0,0,0,0,0,0,0,0,0,0,0,0,0,0,0,
18,-76.0,-53.74,-39.66,-31.47,-12.66,-15.83,-34.79,-21.89,-7.61,-35.61,30.1,-92.2,-3.717,-30.25,9.955,-22.7,0,0,0,0,0,0,0,0,0,0,0,0,0,0,0,0,
19,-87.42,-87.55,-67.44,-51.76,-57.91,-56.94,-27.3,-23.14,-58.37,-84.47,29.32,-92.54,-15.1,-45.0,20.84,-15.34,0,0,0,0,0,0,0,0,0,0,0,0,0,0,0,0,
20,-111.6,-112.9,-70.73,-56.88,-89.73,-78.74,-27.72,-31.98,-91.94,-88.05,41.0,-67.5,-9.146,-26.89,30.73,-5.202,0,0,0,0,0,0,0,0,0,0,0,0,0,0,0,0,
21,-142.7,-127.1,-70.52,-58.29,-95.32,-85.97,-40.03,-61.4,-89.2,-65.53,35.92,-60.08,5.878,-17.37,22.33,-4.299,0,0,0,0,0,0,0,0,0,0,0,0,0,0,0,0,
22,-141.6,-118.8,-44.01,-54.89,-73.66,-67.36,-0.261,-46.37,-62.4,-57.61,37.24,-64.64,29.24,-19.37,19.48,-8.737,0,0,0,0,0,0,0,0,0,0,0,0,0,0,0,0,
23,-106.5,-90.35,-22.77,-77.27,-30.71,-23.15,62.96,-13.99,-9.548,-47.15,66.89,-59.55,63.48,-16.25,32.61,-3.735,0,0,0,0,0,0,0,0,0,0,0,0,0,0,0,0,
24,-78.65,-81.88,-30.2,-99.44,8.429,1.519,63.1,-16.53,42.73,-41.84,85.5,-61.08,86.12,-14.43,43.64,9.566,0,0,0,0,0,0,0,0,0,0,0,0,0,0,0,0,
25,-65.44,-80.45,-27.26,-58.76,19.82,-2.176,35.43,-23.38,56.19,-53.44,69.74,-70.27,73.72,-17.4,37.58,6.127,0,0,0,0,0,0,0,0,0,0,0,0,0,0,0,0,
26,-69.38,-64.16,-33.44,-13.31,-9.017,-17.36,16.51,-14.42,29.77,-51.9,37.46,-60.66,34.83,-15.23,20.04,-7.28,0,0,0,0,0,0,0,0,0,0,0,0,0,0,0,0,
27,-101.7,-70.6,-64.27,-33.36,-54.29,-40.52,-22.86,-3.111,-22.51,-33.24,9.195,-32.7,3.267,0.6877,13.76,-1.989,0,0,0,0,0,0,0,0,0,0,0,0,0,0,0,0,
28,-122.8,-98.42,-64.67,-60.51,-66.27,-47.37,-43.31,12.49,-66.26,-14.91,6.143,-12.28,3.795,21.78,25.98,15.96,0,0,0,0,0,0,0,0,0,0,0,0,0,0,0,0,
29,-106.7,-105.0,-48.07,-54.09,-46.81,-32.78,-28.94,18.16,-69.51,-0.8913,22.91,-15.27,20.37,25.3,34.85,24.7,0,0,0,0,0,0,0,0,0,0,0,0,0,0,0,0,
30,-89.22,-93.16,-49.65,-53.76,-34.27,-24.38,-23.32,5.608,-51.5,-2.968,34.02,-28.74,30.7,15.8,33.53,28.13,0,0,0,0,0,0,0,0,0,0,0,0,0,0,0,0,
31,-84.05,-87.4,-38.32,-52.95,-34.6,-23.61,-9.346,6.226,-31.91,-15.14,37.85,-33.89,39.34,12.95,31.92,32.06,0,0,0,0,0,0,0,0,0,0,0,0,0,0,0,0,
32,-85.04,-94.96,-34.26,-28.7,-37.93,-24.59,13.52,11.98,-10.91,-18.61,37.85,-37.54,45.44,7.882,23.69,18.37,0,0,0,0,0,0,0,0,0,0,0,0,0,0,0,0,
33,-83.93,-95.23,-54.41,-10.84,-29.32,-19.46,17.91,-1.404,2.736,-18.02,37.07,-39.83,47.91,2.878,17.48,-2.882,0,0,0,0,0,0,0,0,0,0,0,0,0,0,0,0,
34,-57.47,-68.58,-42.2,-8.79,-5.033,-1.486,16.1,5.188,9.086,-13.17,37.67,-36.13,48.37,11.47,27.0,-1.194,0,0,0,0,0,0,0,0,0,0,0,0,0,0,0,0,
35,-36.81,-49.11,-28.11,-16.91,-5.75,-7.181,-3.079,24.45,-4.778,-6.792,20.74,-44.92,27.49,11.16,28.19,5.024,0,0,0,0,0,0,0,0,0,0,0,0,0,0,0,0,
36,-62.14,-66.78,-68.88,-41.21,-40.46,-39.73,-32.91,7.599,-46.54,-11.46,-9.012,-51.94,-3.942,-0.9728,14.17,0.8959,0,0,0,0,0,0,0,0,0,0,0,0,0,0,0,0,
37,-95.6,-90.19,-100.6,-41.03,-62.36,-48.75,-41.33,0.7133,-74.96,-14.3,-22.92,-35.78,-7.221,3.095,8.002,1.051,0,0,0,0,0,0,0,0,0,0,0,0,0,0,0,0,
38,-104.4,-86.66,-79.0,-8.876,-60.74,-39.15,-45.91,14.06,-73.57,-13.13,-15.9,-37.17,13.85,11.07,11.44,-7.449,0,0,0,0,0,0,0,0,0,0,0,0,0,0,0,0,
39,-87.11,-58.66,-37.88,-13.65,-44.47,-31.13,-26.99,-10.41,-55.53,-21.36,13.18,-69.01,40.57,-2.566,21.35,-23.6,0,0,0,0,0,0,0,0,0,0,0,0,0,0,0,0,
40,-50.75,-40.52,-10.12,-41.81,-20.39,-19.6,29.25,-22.46,-19.34,-31.32,41.88,-88.18,59.92,-29.97,28.23,-24.34,0,0,0,0,0,0,0,0,0,0,0,0,0,0,0,0,
41,-38.62,-60.19,-21.25,-37.54,-27.38,-31.59,37.6,-2.634,-0.9944,-46.63,29.65,-89.16,48.89,-47.72,16.75,-22.13,0,0,0,0,0,0,0,0,0,0,0,0,0,0,0,0,
42,-63.19,-78.71,-51.88,-39.3,-63.38,-63.81,-15.45,-22.88,-27.41,-65.86,1.124,-84.42,14.89,-45.3,2.335,-30.77,0,0,0,0,0,0,0,0,0,0,0,0,0,0,0,0,
43,-88.95,-65.34,-78.12,-47.61,-75.11,-67.0,-51.04,-33.53,-60.34,-64.8,-8.101,-64.77,-10.91,-34.96,-5.077,-36.07,0,0,0,0,0,0,0,0,0,0,0,0,0,0,0,0,
44,-96.99,-57.42,-112.5,-9.464,-55.73,-41.0,-46.63,11.31,-74.22,-48.4,-13.58,-34.87,-11.9,-15.57,-9.076,-22.76,0,0,0,0,0,0,0,0,0,0,0,0,0,0,0,0,
45,-75.39,-55.19,-105.7,10.13,-29.6,-17.42,-20.19,30.33,-63.51,-28.29,-9.411,-16.82,10.73,13.64,5.88,2.008,0,0,0,0,0,0,0,0,0,0,0,0,0,0,0,0,
46,-44.02,-38.98,-42.57,-43.24,-17.72,-19.13,-9.607,4.452,-34.34,-11.79,12.54,-23.4,27.77,13.08,26.83,10.34,0,0,0,0,0,0,0,0,0,0,0,0,0,0,0,0,
47,-52.18,-49.31,-28.08,-74.76,-43.24,-51.11,-28.97,-17.41,-28.55,-26.1,19.62,-44.64,20.69,-22.77,23.21,-1.939,0,0,0,0,0,0,0,0,0,0,0,0,0,0,0,0,
48,-86.4,-73.82,-64.43,-47.06,-81.03,-73.51,-29.64,-7.075,-45.65,-54.5,11.08,-62.96,15.98,-48.51,13.89,-14.46,0,0,0,0,0,0,0,0,0,0,0,0,0,0,0,0,
49,-100.4,-53.25,-63.56,-30.0,-80.01,-61.22,-20.67,12.79,-40.14,-56.1,11.72,-76.64,22.11,-56.31,17.19,-24.65,0,0,0,0,0,0,0,0,0,0,0,0,0,0,0,0,
50,-93.15,-33.23,-53.15,-23.05,-52.4,-47.45,-31.47,-28.4,-21.78,-51.69,10.95,-90.52,14.39,-65.32,9.1,-37.75,0,0,0,0,0,0,0,0,0,0,0,0,0,0,0,0,
51,-76.4,-55.91,-59.42,-9.049,-42.03,-50.14,-17.29,-73.85,-27.16,-64.92,-0.5831,-98.86,-5.311,-74.73,-13.86,-46.84,0,0,0,0,0,0,0,0,0,0,0,0,0,0,0,0,
52,-56.21,-60.06,-46.18,-18.56,-49.96,-51.71,-1.472,-18.83,-50.16,-71.95,-16.98,-87.15,-19.08,-68.73,-33.51,-48.21,0,0,0,0,0,0,0,0,0,0,0,0,0,0,0,0,
53,-56.12,-42.05,-47.6,-23.12,-55.5,-46.37,-40.64,36.0,-69.17,-55.43,-49.51,-61.95,-34.93,-42.66,-62.48,-57.93,0,0,0,0,0,0,0,0,0,0,0,0,0,0,0,0,
54,-82.33,-52.74,-76.75,-2.025,-59.09,-42.54,-75.34,9.976,-80.98,-27.71,-86.43,-54.1,-54.82,-26.07,-93.58,-75.17,0,0,0,0,0,0,0,0,0,0,0,0,0,0,0,0,
55,-97.05,-62.13,-77.05,-1.361,-66.54,-40.7,-64.84,0.2533,-86.24,-10.84,-79.85,-60.27,-49.99,-32.7,-78.93,-66.27,0,0,0,0,0,0,0,0,0,0,0,0,0,0,0,0,
56,-82.64,-40.49,-70.41,-9.068,-67.9,-36.63,-43.87,17.63,-78.92,-12.68,-34.55,-60.69,-25.35,-46.14,-38.32,-47.77,0,0,0,0,0,0,0,0,0,0,0,0,0,0,0,0,
57,-66.54,-30.29,-87.69,-10.47,-62.06,-42.2,-25.29,-10.12,-69.02,-30.26,-14.08,-75.93,-28.43,-78.41,-36.4,-63.17,0,0,0,0,0,0,0,0,0,0,0,0,0,0,0,0,
58,-63.12,-50.32,-72.46,-39.38,-61.48,-64.35,-29.94,-52.86,-74.0,-63.75,-32.31,-102.6,-53.32,-118.4,-55.62,-76.7,0,0,0,0,0,0,0,0,0,0,0,0,0,0,0,0,
59,-68.37,-66.07,-23.99,-57.49,-61.31,-76.21,-55.15,-45.84,-81.16,-92.8,-45.52,-96.61,-51.97,-111.1,-51.47,-56.48,0,0,0,0,0,0,0,0,0,0,0,0,0,0,0,0,
60,-72.87,-59.95,-6.213,-42.63,-50.7,-60.98,-43.65,-0.1624,-73.64,-86.74,-44.66,-69.89,-32.34,-69.0,-40.87,-45.77,0,0,0,0,0,0,0,0,0,0,0,0,0,0,0,0,
61,-56.19,-46.5,-15.64,-40.18,-33.32,-35.38,-12.82,26.92,-61.76,-52.34,-54.61,-68.92,-32.15,-53.46,-48.46,-61.68,0,0,0,0,0,0,0,0,0,0,0,0,0,0,0,0,
62,-30.32,-38.12,-20.13,-33.11,-23.93,-23.06,-27.37,18.18,-58.11,-27.95,-67.58,-86.69,-49.92,-67.68,-63.75,-75.09,0,0,0,0,0,0,0,0,0,0,0,0,0,0,0,0,
63,-34.83,-48.27,-29.3,-32.44,-47.8,-48.08,-56.93,-4.833,-72.41,-36.68,-60.78,-88.93,-66.62,-81.19,-67.84,-73.18,0,0,0,0,0,0,0,0,0,0,0,0,0,0,0,0,
64,-65.39,-80.07,-54.89,-74.47,-97.04,-99.31,-54.99,-27.78,-106.5,-60.01,-47.34,-72.62,-78.43,-87.9,-63.15,-63.05,0,0,0,0,0,0,0,0,0,0,0,0,0,0,0,0,
65,-85.29,-99.35,-74.11,-81.38,-119.0,-124.6,-57.56,-22.63,-132.3,-75.55,-46.29,-56.18,-85.47,-94.04,-61.13,-58.63,0,0,0,0,0,0,0,0,0,0,0,0,0,0,0,0,
66,-83.38,-87.4,-57.66,-46.14,-95.45,-104.0,-65.55,5.004,-123.1,-85.57,-41.54,-50.61,-75.03,-91.89,-52.16,-65.38,0,0,0,0,0,0,0,0,0,0,0,0,0,0,0,0,
67,-61.43,-58.89,-21.55,-50.59,-45.44,-54.08,-14.43,-6.914,-80.41,-76.45,-12.12,-55.84,-34.92,-72.85,-26.66,-66.81,0,0,0,0,0,0,0,0,0,0,0,0,0,0,0,0,
68,-19.24,-20.88,1.094,-44.52,8.667,-1.407,48.31,-39.09,-22.29,-42.2,24.83,-64.94,11.7,-54.25,-0.8662,-53.87,0,0,0,0,0,0,0,0,0,0,0,0,0,0,0,0,
69,2.707,-3.914,9.807,-1.275,15.62,8.701,15.85,-21.97,6.382,-20.9,31.04,-66.61,21.65,-54.37,5.067,-46.26,0,0,0,0,0,0,0,0,0,0,0,0,0,0,0,0,
70,-31.07,-30.11,-2.971,-2.288,-33.81,-25.01,-45.71,3.634,-22.79,-22.02,10.91,-53.38,-0.9768,-60.21,-1.063,-47.05,0,0,0,0,0,0,0,0,0,0,0,0,0,0,0,0,
71,-67.63,-51.35,-42.79,-26.55,-66.34,-44.08,-38.91,-13.3,-57.66,-17.94,5.828,-32.59,-11.71,-56.07,8.026,-33.42,0,0,0,0,0,0,0,0,0,0,0,0,0,0,0,0,
72,-61.15,-41.34,-61.11,-5.955,-55.18,-30.56,-33.8,-15.54,-54.53,-7.916,17.98,-20.77,-1.7,-45.77,28.94,-12.38,0,0,0,0,0,0,0,0,0,0,0,0,0,0,0,0,
73,-38.85,-25.17,-30.25,33.36,-33.63,-12.8,-55.0,16.9,-50.46,-0.4044,31.08,-14.4,9.682,-30.37,41.42,2.643,0,0,0,0,0,0,0,0,0,0,0,0,0,0,0,0,
74,-24.46,-18.56,-6.376,22.07,-15.64,-6.252,-25.39,16.97,-57.91,6.495,51.58,4.445,22.46,-6.225,54.51,24.33,0,0,0,0,0,0,0,0,0,0,0,0,0,0,0,0,
75,-44.98,-42.53,-39.24,-46.26,-17.25,-12.85,3.373,-8.358,-43.78,13.1,58.03,21.73,33.55,16.05,65.39,40.33,0,0,0,0,0,0,0,0,0,0,0,0,0,0,0,0,
76,-88.96,-70.57,-82.9,-57.82,-29.1,-10.05,-35.41,2.737,-23.25,23.73,34.0,9.2,32.32,18.89,53.22,27.94,0,0,0,0,0,0,0,0,0,0,0,0,0,0,0,0,
77,-66.24,-34.85,-64.31,19.52,-8.297,22.29,-54.78,18.59,-19.13,34.69,18.77,-19.92,28.5,0.8635,29.8,4.633,0,0,0,0,0,0,0,0,0,0,0,0,0,0,0,0,
78,5.054,17.43,-15.32,31.07,22.53,44.8,-25.49,-9.84,-10.06,34.71,26.21,-28.55,33.49,-12.84,17.27,-1.938,0,0,0,0,0,0,0,0,0,0,0,0,0,0,0,0,
79,12.26,5.0,-10.28,-31.39,20.59,29.3,-17.32,-35.83,5.413,30.38,39.85,-9.916,48.71,-2.061,22.82,8.396,0,0,0,0,0,0,0,0,0,0,0,0,0,0,0,0,
80,-26.34,-28.63,-27.48,-30.19,3.464,8.434,-15.27,-19.17,10.87,29.11,59.86,7.043,64.74,8.23,37.09,12.43,0,0,0,0,0,0,0,0,0,0,0,0,0,0,0,0,
81,-52.0,-43.01,-44.29,-13.69,-24.42,-11.81,-13.3,-1.063,6.29,17.54,55.92,6.38,54.09,-2.01,33.62,2.618,0,0,0,0,0,0,0,0,0,0,0,0,0,0,0,0,
82,-81.41,-62.39,-92.42,-35.74,-63.53,-41.14,-54.09,-4.333,-22.02,0.9115,13.02,4.918,15.71,-3.611,14.36,-3.761,0,0,0,0,0,0,0,0,0,0,0,0,0,0,0,0,
83,-96.16,-72.24,-120.4,-15.49,-70.76,-49.18,-73.68,4.0,-72.77,3.616,-13.48,4.117,-15.94,5.513,4.2,-7.433,0,0,0,0,0,0,0,0,0,0,0,0,0,0,0,0,
84,-73.88,-61.1,-79.21,-2.886,-48.88,-38.1,-46.85,14.06,-108.1,5.155,-13.0,-10.49,-32.09,-7.052,-2.342,-16.89,0,0,0,0,0,0,0,0,0,0,0,0,0,0,0,0,
85,-56.59,-54.84,-55.81,-48.12,-45.1,-37.55,-66.7,-5.191,-114.7,-12.4,-21.45,-21.44,-34.37,-18.93,-8.812,-18.17,0,0,0,0,0,0,0,0,0,0,0,0,0,0,0,0,
86,-61.38,-49.5,-90.97,-38.03,-51.91,-36.12,-92.5,-8.746,-94.46,-7.002,-12.86,-11.56,-6.894,-1.105,3.436,-1.456,0,0,0,0,0,0,0,0,0,0,0,0,0,0,0,0,
87,-66.5,-38.43,-104.2,11.64,-46.99,-31.12,-48.32,16.33,-49.18,14.15,20.54,-5.403,26.45,7.473,20.13,12.36,0,0,0,0,0,0,0,0,0,0,0,0,0,0,0,0,
88,-58.01,-34.38,-62.1,4.597,-40.47,-31.14,-21.13,-1.598,-20.52,-2.338,27.04,-19.25,27.32,-14.93,15.92,1.609,0,0,0,0,0,0,0,0,0,0,0,0,0,0,0,0,
89,-24.75,-22.77,-5.468,-3.06,-29.74,-21.65,-23.78,-44.74,-26.31,-27.77,20.66,-26.55,21.32,-29.18,14.43,-5.64,0,0,0,0,0,0,0,0,0,0,0,0,0,0,0,0,
90,8.925,0.7297,18.11,2.809,-17.78,-20.19,10.85,-38.14,-32.33,-26.17,32.82,-11.47,28.4,-21.22,30.4,13.01,0,0,0,0,0,0,0,0,0,0,0,0,0,0,0,0,
91,-7.018,-4.573,-18.65,-21.58,-35.67,-47.14,1.468,-3.692,-49.75,-25.32,13.64,2.041,10.4,-15.24,25.57,15.84,0,0,0,0,0,0,0,0,0,0,0,0,0,0,0,0,
92,-55.72,-39.75,-80.07,-13.63,-71.68,-62.8,-77.19,15.95,-92.65,-21.69,-42.09,4.126,-26.73,-10.07,-5.028,-3.705,0,0,0,0,0,0,0,0,0,0,0,0,0,0,0,0,
93,-72.71,-44.45,-95.28,23.97,-70.95,-39.67,-87.27,16.88,-102.9,8.381,-55.53,12.93,-25.18,8.364,-15.26,-4.118,0,0,0,0,0,0,0,0,0,0,0,0,0,0,0,0,
94,-43.37,-10.42,-48.47,10.96,-30.16,-4.786,-21.84,8.257,-56.61,43.63,-11.17,22.82,16.29,24.15,4.253,3.96,0,0,0,0,0,0,0,0,0,0,0,0,0,0,0,0,
95,-2.163,4.891,2.567,-16.71,1.947,6.896,15.34,15.52,-2.066,49.96,33.93,11.44,50.1,15.64,21.51,-2.711,0,0,0,0,0,0,0,0,0,0,0,0,0,0,0,0,
96,14.65,-12.19,7.207,-16.84,-3.169,-17.55,30.54,18.61,24.49,17.68,46.45,-13.96,50.75,-9.576,19.68,-16.65,0,0,0,0,0,0,0,0,0,0,0,0,0,0,0,0,
97,-3.57,-30.23,-8.771,-21.17,-36.59,-51.96,34.57,-12.66,10.47,-22.42,31.48,-27.42,22.63,-26.46,8.301,-32.79,0,0,0,0,0,0,0,0,0,0,0,0,0,0,0,0,
98,-31.18,-33.06,-16.57,-17.58,-63.07,-57.83,-14.86,-27.04,-35.47,-31.73,5.946,-23.61,-15.32,-24.66,-3.84,-42.46,0,0,0,0,0,0,0,0,0,0,0,0,0,0,0,0,
99,-34.04,-17.59,-34.43,9.672,-52.64,-37.72,-52.87,3.238,-74.07,-17.87,-16.56,-18.75,-44.92,-18.7,-20.34,-43.67,0,0,0,0,0,0,0,0,0,0,0,0,0,0,0,0,
100,-4.606,-0.6457,-41.79,20.03,-26.03,-19.95,-14.86,31.06,-83.25,-4.782,-28.19,-21.05,-58.68,-22.1,-32.98,-45.23,0,0,0,0,0,0,0,0,0,0,0,0,0,0,0,0,
101,18.92,-5.848,-18.69,1.433,-23.65,-21.5,-4.52,29.42,-79.8,-0.5814,-31.24,-25.66,-55.43,-27.92,-31.32,-42.82,0,0,0,0,0,0,0,0,0,0,0,0,0,0,0,0,
102,-2.648,-24.14,-11.74,-5.612,-42.68,-41.67,-50.84,11.06,-75.69,-9.579,-28.56,-27.8,-32.76,-25.27,-23.11,-36.21,0,0,0,0,0,0,0,0,0,0,0,0,0,0,0,0,
103,-33.77,-42.75,-22.23,8.508,-55.34,-59.47,-24.88,4.274,-56.72,-22.26,-4.273,-27.44,5.369,-21.18,-7.597,-36.94,0,0,0,0,0,0,0,0,0,0,0,0,0,0,0,0,
104,-35.6,-54.25,-19.81,6.177,-54.29,-55.44,37.61,3.89,-25.04,-26.68,32.61,-35.13,27.67,-32.04,8.672,-49.96,0,0,0,0,0,0,0,0,0,0,0,0,0,0,0,0,
105,-27.31,-29.45,-24.74,-2.942,-41.58,-36.22,19.94,-18.73,-15.09,-27.44,36.39,-52.99,6.963,-53.48,-1.515,-68.0,0,0,0,0,0,0,0,0,0,0,0,0,0,0,0,0,
106,-0.0959,22.62,-22.01,16.94,-17.82,-20.86,-3.797,-26.59,-31.67,-29.02,4.121,-60.93,-35.35,-65.26,-29.05,-74.36,0,0,0,0,0,0,0,0,0,0,0,0,0,0,0,0,
107,26.44,25.63,-9.484,15.13,-11.78,-29.5,-2.911,-0.6046,-50.14,-34.41,-28.88,-49.77,-67.51,-60.99,-39.35,-57.45,0,0,0,0,0,0,0,0,0,0,0,0,0,0,0,0,
108,-24.47,-40.24,-54.14,-37.54,-47.91,-64.31,-52.69,2.024,-73.08,-45.51,-45.57,-31.8,-75.88,-47.15,-31.35,-31.26,0,0,0,0,0,0,0,0,0,0,0,0,0,0,0,0,
109,-88.88,-78.45,-97.01,-56.94,-78.27,-83.43,-66.79,-12.24,-87.28,-54.66,-31.91,-22.13,-51.05,-37.2,-22.33,-28.27,0,0,0,0,0,0,0,0,0,0,0,0,0,0,0,0,
110,-51.06,-35.36,-33.71,-21.27,-55.31,-58.13,13.87,-0.4871,-53.83,-55.31,8.16,-24.85,-10.75,-38.6,-18.19,-42.92,0,0,0,0,0,0,0,0,0,0,0,0,0,0,0,0,
111,12.82,9.356,25.64,-4.384,-23.15,-31.26,52.24,16.77,-8.432,-45.32,29.37,-27.35,5.745,-37.88,-18.16,-37.88,0,0,0,0,0,0,0,0,0,0,0,0,0,0,0,0,
112,9.177,4.476,-17.07,-21.27,-27.87,-38.95,21.67,13.66,-19.21,-30.52,12.05,-28.98,-10.47,-30.4,-19.78,-24.82,0,0,0,0,0,0,0,0,0,0,0,0,0,0,0,0,
113,-15.68,-9.472,-51.98,-35.81,-46.13,-52.48,6.628,-14.07,-58.03,-20.77,-9.723,-35.1,-34.26,-22.83,-19.2,-23.67,0,0,0,0,0,0,0,0,0,0,0,0,0,0,0,0,
114,-33.41,-22.77,-33.42,-34.3,-56.47,-53.68,-20.67,-32.52,-68.53,-10.28,-16.12,-27.27,-45.17,-10.66,-19.27,-15.97,0,0,0,0,0,0,0,0,0,0,0,0,0,0,0,0,
115,-50.37,-37.12,-31.67,-26.82,-60.13,-56.78,-55.36,-1.775,-62.89,-2.633,-14.03,-9.358,-42.53,-2.966,-20.27,-11.65,0,0,0,0,0,0,0,0,0,0,0,0,0,0,0,0,
116,-43.98,-24.08,-43.36,-25.72,-49.26,-53.05,-28.42,20.44,-52.16,-16.62,3.564,-12.58,-27.94,-12.89,-8.643,-20.38,0,0,0,0,0,0,0,0,0,0,0,0,0,0,0,0,
117,-30.07,-7.163,-49.81,-25.86,-33.92,-43.1,4.042,-7.617,-26.82,-41.87,24.1,-36.3,-13.11,-34.35,2.483,-21.63,0,0,0,0,0,0,0,0,0,0,0,0,0,0,0,0,
118,-36.3,-23.62,-64.49,-34.27,-46.12,-61.11,-22.23,-25.23,-22.13,-64.93,9.836,-58.16,-26.29,-58.6,-14.48,-24.67,0,0,0,0,0,0,0,0,0,0,0,0,0,0,0,0,
119,-46.3,-48.33,-65.87,-55.14,-80.19,-89.84,-54.07,-23.76,-61.24,-84.35,-20.65,-57.6,-55.91,-60.49,-34.3,-31.91,0,0,0,0,0,0,0,0,0,0,0,0,0,0,0,0,
120,-48.27,-44.46,-44.18,-43.86,-85.16,-70.53,-52.51,-25.54,-88.12,-66.8,-25.67,-31.27,-58.53,-25.28,-33.8,-23.18,0,0,0,0,0,0,0,0,0,0,0,0,0,0,0,0,
121,-36.79,-8.211,-18.84,-1.343,-46.26,-20.62,-36.16,-3.053,-62.67,-9.248,-22.41,-9.568,-40.98,8.693,-30.79,-8.981,0,0,0,0,0,0,0,0,0,0,0,0,0,0,0,0,
122,-6.749,24.08,3.803,8.439,-9.858,-0.689,-34.63,21.44,-29.91,24.95,-22.68,-6.707,-30.89,16.9,-16.85,3.598,0,0,0,0,0,0,0,0,0,0,0,0,0,0,0,0,
123,20.1,25.88,16.45,-6.222,-3.308,-10.96,-48.19,8.931,-26.53,15.15,-6.226,-7.043,-18.46,13.32,9.374,20.2,0,0,0,0,0,0,0,0,0,0,0,0,0,0,0,0,
124,24.28,23.18,12.04,-12.08,-15.73,-29.12,-29.87,-15.53,-30.73,-8.384,15.28,-11.68,0.8855,2.519,21.0,26.91,0,0,0,0,0,0,0,0,0,0,0,0,0,0,0,0,
125,3.842,12.67,-5.626,-30.09,-35.45,-47.12,9.154,-21.08,-32.88,-32.19,28.44,-21.45,10.73,-5.196,29.48,23.55,0,0,0,0,0,0,0,0,0,0,0,0,0,0,0,0,
126,-24.81,-20.44,-23.32,-35.0,-39.66,-43.58,9.805,4.121,-38.23,-36.68,41.77,-22.74,12.05,2.743,40.15,27.71,0,0,0,0,0,0,0,0,0,0,0,0,0,0,0,0,
127,-26.47,-22.37,-22.13,9.07,-19.45,-16.2,-4.113,33.95,-30.61,-10.05,43.22,-17.24,16.5,15.88,29.38,33.18,0,0,0,0,0,0,0,0,0,0,0,0,0,0,0,0,
128,-0.2176,16.9,-8.324,41.86,1.042,11.72,-0.984,26.94,-10.96,23.37,26.49,-14.48,19.71,24.83,13.54,26.72,0,0,0,0,0,0,0,0,0,0,0,0,0,0,0,0,
129,22.25,34.82,-4.905,20.16,11.96,28.84,-9.614,11.38,-0.7039,43.85,9.725,-11.91,10.44,25.67,13.2,25.7,0,0,0,0,0,0,0,0,0,0,0,0,0,0,0,0,
130,20.41,21.34,-14.67,-7.536,8.338,22.91,-32.32,11.17,-5.923,37.13,0.7232,-1.629,-5.448,19.07,15.91,42.0,0,0,0,0,0,0,0,0,0,0,0,0,0,0,0,0,
131,-4.924,8.238,-20.5,-7.903,-7.946,3.402,-46.17,-3.931,-20.93,5.495,4.924,12.56,-9.64,17.11,20.69,50.46,0,0,0,0,0,0,0,0,0,0,0,0,0,0,0,0,
132,-14.23,10.42,-4.655,-2.45,-1.563,6.963,-37.2,-13.27,-28.65,-10.18,23.98,14.64,2.712,19.28,32.52,42.99,0,0,0,0,0,0,0,0,0,0,0,0,0,0,0,0,
133,11.44,20.29,20.3,-4.074,26.62,25.31,2.847,15.22,-15.15,1.129,43.11,4.031,22.76,22.7,43.88,36.49,0,0,0,0,0,0,0,0,0,0,0,0,0,0,0,0,
134,27.57,24.05,22.54,1.281,41.4,34.68,41.39,41.6,12.66,20.55,52.55,-3.244,36.51,34.48,40.26,24.05,0,0,0,0,0,0,0,0,0,0,0,0,0,0,0,0,
135,8.87,21.72,-10.24,4.776,37.23,39.23,22.78,30.54,32.67,50.54,37.84,-4.299,25.79,39.98,10.15,0.794,0,0,0,0,0,0,0,0,0,0,0,0,0,0,0,0,
136,-33.85,-0.9958,-59.97,-12.23,10.09,27.7,-34.28,11.86,18.14,65.75,2.627,-2.746,2.187,30.55,-17.36,-9.851,0,0,0,0,0,0,0,0,0,0,0,0,0,0,0,0,
137,-65.33,-32.13,-69.11,-22.24,-18.58,7.479,-45.37,26.02,-9.278,42.71,-1.009,3.18,0.6177,28.16,-7.555,0.6807,0,0,0,0,0,0,0,0,0,0,0,0,0,0,0,0,
138,-42.54,-17.44,-24.88,-13.55,-4.66,8.06,-5.33,37.91,-6.467,20.69,30.94,6.166,11.31,30.67,10.03,10.28,0,0,0,0,0,0,0,0,0,0,0,0,0,0,0,0,
139,3.106,19.74,-5.355,-8.555,29.59,19.77,20.64,3.447,0.9044,15.99,43.74,6.146,13.61,27.95,10.95,14.09,0,0,0,0,0,0,0,0,0,0,0,0,0,0,0,0,
140,25.16,28.03,-14.44,1.929,44.75,33.96,28.93,-10.48,-2.622,11.89,39.02,12.07,24.2,33.21,18.32,24.9,0,0,0,0,0,0,0,0,0,0,0,0,0,0,0,0,
141,22.28,22.34,8.117,4.093,38.84,44.5,33.0,23.34,11.03,15.76,35.23,4.061,30.56,28.83,22.19,16.51,0,0,0,0,0,0,0,0,0,0,0,0,0,0,0,0,
142,-4.514,15.79,28.12,-11.51,25.71,39.02,33.06,25.14,22.61,19.31,23.56,-25.22,19.5,4.927,8.219,-21.45,0,0,0,0,0,0,0,0,0,0,0,0,0,0,0,0,
143,-9.754,24.84,15.81,-3.554,37.22,48.1,48.3,14.78,28.08,19.5,24.67,-36.45,26.92,1.917,5.162,-34.24,0,0,0,0,0,0,0,0,0,0,0,0,0,0,0,0,
144,12.76,33.89,-1.978,-8.612,50.72,58.55,43.84,34.99,43.89,34.25,39.36,-23.05,39.63,15.98,10.29,-11.97,0,0,0,0,0,0,0,0,0,0,0,0,0,0,0,0,
145,-6.587,-9.976,-20.55,-38.56,20.29,20.11,7.1,24.27,33.61,35.6,33.26,-13.49,19.39,13.0,-0.1123,0.9346,0,0,0,0,0,0,0,0,0,0,0,0,0,0,0,0,
146,-23.21,-39.42,-10.38,-7.991,-6.295,-16.45,2.688,2.32,3.175,7.203,9.138,-9.704,-8.305,1.242,-17.51,-4.256,0,0,0,0,0,0,0,0,0,0,0,0,0,0,0,0,
147,7.332,-4.585,25.5,19.72,-5.473,-11.75,13.06,22.12,-14.88,-14.07,-16.22,-11.42,-27.89,-13.78,-32.14,-14.51,0,0,0,0,0,0,0,0,0,0,0,0,0,0,0,0,
148,7.867,3.075,22.89,-15.88,-16.32,-9.321,0.3131,21.14,-41.73,-23.57,-28.1,-18.55,-42.21,-24.26,-33.14,-16.03,0,0,0,0,0,0,0,0,0,0,0,0,0,0,0,0,
149,-3.74,-5.543,8.912,-2.153,-12.5,-3.383,5.702,-8.415,-56.2,-31.28,-10.63,-22.03,-30.61,-16.69,-17.22,-13.32,0,0,0,0,0,0,0,0,0,0,0,0,0,0,0,0,
150,22.17,24.88,17.46,24.2,18.25,13.7,27.31,-1.276,-22.29,-23.9,13.65,-28.27,-3.365,-15.24,-7.089,-21.29,0,0,0,0,0,0,0,0,0,0,0,0,0,0,0,0,
151,28.03,25.97,-4.534,-21.9,27.02,5.024,28.77,20.41,20.28,-11.55,15.23,-31.31,9.28,-21.75,-8.079,-15.53,0,0,0,0,0,0,0,0,0,0,0,0,0,0,0,0,
152,2.137,-14.04,-36.12,-38.59,2.997,-20.75,5.931,13.48,30.32,-10.27,-3.08,-21.16,-1.813,-14.65,-14.22,2.745,0,0,0,0,0,0,0,0,0,0,0,0,0,0,0,0,
153,-24.61,-42.11,-36.0,-17.99,-40.65,-43.98,-19.19,-2.707,3.183,-15.45,-21.75,-11.35,-28.81,-9.075,-23.69,2.532,0,0,0,0,0,0,0,0,0,0,0,0,0,0,0,0,
154,-50.71,-55.6,-47.5,-21.94,-77.97,-64.14,-11.51,-0.8399,-37.06,-24.27,-20.8,0.7044,-43.74,-8.739,-21.27,7.264,0,0,0,0,0,0,0,0,0,0,0,0,0,0,0,0,
155,-54.36,-51.03,-48.99,-11.32,-70.51,-62.22,0.0318,15.54,-48.11,-31.03,-5.55,14.85,-36.75,-5.77,-8.176,24.68,0,0,0,0,0,0,0,0,0,0,0,0,0,0,0,0,
156,-32.92,-39.54,-8.118,-16.38,-38.92,-41.95,-20.98,23.03,-32.5,-31.45,6.846,7.694,-26.7,-12.47,2.318,25.29,0,0,0,0,0,0,0,0,0,0,0,0,0,0,0,0,
157,-18.21,-36.45,-13.09,-50.19,-29.82,-31.56,-26.26,9.303,-23.13,-32.24,7.885,-18.27,-19.71,-23.64,5.069,12.6,0,0,0,0,0,0,0,0,0,0,0,0,0,0,0,0,
158,-20.21,-25.64,-63.72,-38.73,-34.09,-27.23,1.078,-17.07,-22.77,-29.06,-5.92,-44.34,-13.28,-28.1,-3.376,-5.639,0,0,0,0,0,0,0,0,0,0,0,0,0,0,0,0,
159,-23.59,-16.9,-43.46,-10.77,-19.65,-10.68,20.36,-28.43,-13.23,-11.38,-7.464,-59.1,-3.599,-26.39,-3.485,-19.82,0,0,0,0,0,0,0,0,0,0,0,0,0,0,0,0,
160,-7.322,-6.875,14.89,3.275,7.326,8.72,18.84,-5.799,9.52,8.966,14.45,-54.41,5.572,-21.56,7.531,-16.68,0,0,0,0,0,0,0,0,0,0,0,0,0,0,0,0,
161,21.11,19.62,18.49,17.32,14.46,7.589,4.113,8.356,19.27,6.682,17.47,-41.83,-2.825,-27.11,0.3469,-8.346,0,0,0,0,0,0,0,0,0,0,0,0,0,0,0,0,
162,23.48,13.62,1.313,-17.65,-11.61,-20.15,-9.02,-14.87,-2.715,-22.6,1.031,-35.99,-21.66,-39.56,-10.14,5.621,0,0,0,0,0,0,0,0,0,0,0,0,0,0,0,0,
163,-16.94,-37.01,-19.39,-61.08,-57.59,-60.18,-23.23,-22.05,-37.46,-56.29,-3.7,-32.11,-32.74,-41.41,-6.451,25.83,0,0,0,0,0,0,0,0,0,0,0,0,0,0,0,0,
164,-61.62,-64.29,-49.29,-31.59,-84.56,-77.83,-43.74,-5.178,-61.12,-66.03,-11.21,-20.25,-38.21,-34.95,-15.76,27.53,0,0,0,0,0,0,0,0,0,0,0,0,0,0,0,0,
165,-53.38,-42.92,-27.3,10.25,-55.42,-46.88,-32.61,-8.896,-58.75,-42.55,-23.55,-7.626,-37.63,-28.87,-35.56,10.52,0,0,0,0,0,0,0,0,0,0,0,0,0,0,0,0,
166,0.7261,0.1106,20.27,25.13,-1.514,-2.335,11.21,-6.961,-27.41,-17.96,-22.09,-22.98,-30.3,-39.28,-44.99,-8.671,0,0,0,0,0,0,0,0,0,0,0,0,0,0,0,0,
167,45.61,35.43,17.92,31.37,16.9,6.714,28.64,4.255,5.97,-26.39,-20.88,-65.12,-26.53,-70.28,-46.46,-28.37,0,0,0,0,0,0,0,0,0,0,0,0,0,0,0,0,
168,54.38,36.45,7.568,5.646,-4.388,-14.23,10.14,-30.09,8.973,-45.74,-22.21,-89.72,-26.22,-84.38,-28.78,-36.75,0,0,0,0,0,0,0,0,0,0,0,0,0,0,0,0,
169,23.36,8.975,10.85,-12.51,-37.76,-40.06,1.928,-61.44,-11.54,-51.46,-4.876,-79.45,-16.65,-66.91,10.53,-15.38,0,0,0,0,0,0,0,0,0,0,0,0,0,0,0,0,
170,-16.53,-11.23,-4.439,7.234,-55.96,-50.89,15.9,-26.89,-19.36,-60.45,14.64,-54.88,-3.694,-52.2,28.93,13.82,0,0,0,0,0,0,0,0,0,0,0,0,0,0,0,0,
171,-12.55,-7.21,1.787,-1.252,-47.28,-39.55,13.51,1.126,-14.71,-69.85,4.528,-36.0,-14.32,-53.38,4.531,9.221,0,0,0,0,0,0,0,0,0,0,0,0,0,0,0,0,
172,18.05,5.936,29.75,-16.91,-34.28,-32.26,-11.87,-15.56,-28.41,-62.97,-19.69,-28.57,-41.79,-51.48,-26.09,-13.07,0,0,0,0,0,0,0,0,0,0,0,0,0,0,0,0,
173,22.93,4.943,8.041,7.462,-32.48,-41.12,-19.34,-14.48,-48.5,-52.3,-31.66,-19.58,-52.17,-36.43,-36.05,-14.24,0,0,0,0,0,0,0,0,0,0,0,0,0,0,0,0,
174,2.433,-15.97,-45.37,0.3558,-37.92,-45.42,-12.43,9.033,-51.66,-40.61,-38.85,-3.874,-47.65,-16.18,-30.42,-3.73,0,0,0,0,0,0,0,0,0,0,0,0,0,0,0,0,
175,-27.11,-41.91,-59.59,-41.5,-52.05,-44.8,-24.89,17.03,-48.55,-24.76,-38.77,1.793,-39.37,-7.166,-10.3,1.083,0,0,0,0,0,0,0,0,0,0,0,0,0,0,0,0,
176,-50.0,-51.16,-28.34,-41.21,-55.1,-43.24,-31.4,7.512,-37.99,-27.03,-13.86,-10.8,-18.93,-15.8,9.002,-4.486,0,0,0,0,0,0,0,0,0,0,0,0,0,0,0,0,
177,-29.06,-28.77,15.05,-16.44,-21.1,-21.26,11.48,-9.682,-10.35,-42.27,23.5,-32.43,4.563,-29.67,9.044,-19.63,0,0,0,0,0,0,0,0,0,0,0,0,0,0,0,0,
178,24.62,5.437,41.69,-4.504,19.06,8.228,64.61,-16.47,19.8,-40.35,41.65,-48.86,11.15,-41.71,1.762,-28.93,0,0,0,0,0,0,0,0,0,0,0,0,0,0,0,0,
179,33.07,3.743,34.45,-10.3,14.09,2.017,48.91,-8.512,28.49,-32.81,24.61,-47.06,-0.8341,-47.24,-4.459,-29.85,0,0,0,0,0,0,0,0,0,0,0,0,0,0,0,0,
180,-11.6,-27.98,0.8256,-33.21,-14.15,-21.94,-7.319,1.015,11.71,-24.8,-2.121,-18.54,-10.81,-20.73,-3.398,-15.24,0,0,0,0,0,0,0,0,0,0,0,0,0,0,0,0,
181,-34.0,-37.81,-26.28,-24.13,-11.36,-16.57,-18.28,14.66,0.8557,5.984,-2.949,25.52,-4.717,27.75,11.49,22.55,0,0,0,0,0,0,0,0,0,0,0,0,0,0,0,0,
182,-22.99,-30.37,-18.81,10.84,7.363,-1.759,5.238,15.38,10.77,24.95,10.46,46.71,3.013,41.12,17.86,40.38,0,0,0,0,0,0,0,0,0,0,0,0,0,0,0,0,
183,-5.995,-28.31,13.5,-2.91,17.58,4.253,29.39,-4.362,21.3,4.911,24.98,31.65,13.09,22.58,17.74,21.71,0,0,0,0,0,0,0,0,0,0,0,0,0,0,0,0,
184,24.5,-12.24,33.62,-33.23,37.82,22.96,55.33,-3.314,35.73,-5.131,48.33,16.16,33.43,16.81,37.81,17.13,0,0,0,0,0,0,0,0,0,0,0,0,0,0,0,0,
185,36.16,-0.864,30.16,-28.46,44.58,29.84,56.82,8.595,49.24,0.3378,56.76,19.35,40.14,20.5,57.47,39.24,0,0,0,0,0,0,0,0,0,0,0,0,0,0,0,0,
186,-1.154,-26.08,28.61,-23.87,17.19,8.867,40.59,-6.671,39.29,-4.212,39.38,21.38,34.07,25.19,51.31,48.86,0,0,0,0,0,0,0,0,0,0,0,0,0,0,0,0,
187,-28.56,-43.39,30.52,-15.48,9.847,6.615,37.03,-17.33,34.53,7.829,23.68,9.006,38.31,28.02,32.13,27.74,0,0,0,0,0,0,0,0,0,0,0,0,0,0,0,0,
188,-2.956,-12.75,17.01,7.847,38.48,31.01,30.63,-6.085,52.5,25.85,16.58,-5.716,41.8,15.54,13.67,-0.759,0,0,0,0,0,0,0,0,0,0,0,0,0,0,0,0,
189,34.78,31.0,7.109,2.997,58.78,48.82,31.4,-4.843,57.25,24.57,15.51,-5.166,39.34,10.71,5.664,-5.173,0,0,0,0,0,0,0,0,0,0,0,0,0,0,0,0,
190,39.22,38.67,12.67,-17.61,58.26,47.6,48.46,-14.75,44.33,32.61,24.26,8.724,41.95,24.87,20.84,17.15,0,0,0,0,0,0,0,0,0,0,0,0,0,0,0,0,
191,15.08,8.126,7.625,-7.739,42.2,29.04,35.57,-16.55,29.3,30.83,32.3,25.64,43.31,26.74,52.53,48.0,0,0,0,0,0,0,0,0,0,0,0,0,0,0,0,0,
192,-8.205,-16.75,-7.177,21.11,22.35,18.54,-2.771,-7.5,8.017,-6.146,31.15,40.99,38.89,18.07,63.48,58.98,0,0,0,0,0,0,0,0,0,0,0,0,0,0,0,0,
193,-10.85,-8.14,-4.909,33.06,27.82,33.7,-9.808,2.903,-4.6,-21.15,22.88,44.82,32.47,14.75,35.84,33.53,0,0,0,0,0,0,0,0,0,0,0,0,0,0,0,0,
194,11.87,16.92,15.19,14.91,50.31,45.56,18.86,11.25,8.565,0.5545,17.17,42.86,30.79,17.03,13.74,6.485,0,0,0,0,0,0,0,0,0,0,0,0,0,0,0,0,
195,26.42,23.28,15.67,-12.06,43.94,32.57,34.03,21.52,26.59,13.29,17.99,48.93,34.0,32.35,21.78,9.976,0,0,0,0,0,0,0,0,0,0,0,0,0,0,0,0,
196,-6.997,-15.85,-26.66,-24.27,-3.56,-1.249,3.608,16.06,15.29,10.4,0.3119,42.02,18.48,37.66,15.98,16.93,0,0,0,0,0,0,0,0,0,0,0,0,0,0,0,0,
197,-56.34,-66.06,-67.2,-26.43,-52.97,-41.57,-39.3,-4.562,-27.51,-1.534,-38.99,18.93,-12.93,17.48,-12.96,11.32,0,0,0,0,0,0,0,0,0,0,0,0,0,0,0,0,
198,-76.84,-62.87,-70.9,-13.27,-53.79,-43.78,-45.81,4.229,-52.52,-10.1,-47.15,18.39,-11.4,15.02,-15.77,16.83,0,0,0,0,0,0,0,0,0,0,0,0,0,0,0,0,
199,-56.96,-15.4,-41.57,16.93,4.436,10.04,-10.51,31.03,-14.47,6.254,-8.146,26.54,23.57,24.55,8.116,22.14,0,0,0,0,0,0,0,0,0,0,0,0,0,0,0,0,
200,15.5,29.87,35.26,23.54,65.62,54.01,40.59,19.92,45.93,18.88,24.14,6.113,35.55,0.2142,16.46,3.29,0,0,0,0,0,0,0,0,0,0,0,0,0,0,0,0,
201,78.48,47.39,97.2,2.679,65.4,37.82,54.93,-3.823,54.26,-0.1695,24.47,-3.175,19.83,-14.23,15.01,-3.212,0,0,0,0,0,0,0,0,0,0,0,0,0,0,0,0,
202,47.43,23.05,52.37,3.657,20.21,2.615,13.79,8.277,23.2,-11.58,15.21,24.23,14.29,19.99,18.79,15.4,0,0,0,0,0,0,0,0,0,0,0,0,0,0,0,0,
203,-19.46,-12.0,-17.82,16.06,-10.62,-11.67,-14.48,24.07,11.66,4.993,4.133,33.71,15.53,42.09,4.972,8.289,0,0,0,0,0,0,0,0,0,0,0,0,0,0,0,0,
204,-34.67,-15.79,-11.92,2.393,-10.99,-12.47,7.214,15.06,17.08,11.4,-2.483,15.64,15.27,30.26,-11.38,-9.585,0,0,0,0,0,0,0,0,0,0,0,0,0,0,0,0,
205,-5.957,5.774,35.22,-2.972,22.56,12.26,37.69,9.864,24.7,1.028,17.07,11.76,36.08,28.21,11.0,10.89,0,0,0,0,0,0,0,0,0,0,0,0,0,0,0,0,
206,50.09,43.33,94.04,20.73,88.6,66.45,64.65,10.69,58.34,4.526,55.24,10.74,67.39,29.65,46.32,35.62,0,0,0,0,0,0,0,0,0,0,0,0,0,0,0,0,
207,97.48,71.99,117.3,27.56,121.1,92.08,79.9,-2.479,92.11,12.71,65.49,-6.246,62.14,11.45,41.62,26.56,0,0,0,0,0,0,0,0,0,0,0,0,0,0,0,0,
208,72.25,52.69,41.36,7.364,71.15,60.65,39.95,-10.57,59.61,4.55,23.96,-18.01,15.55,-4.455,0.3875,0.8647,0,0,0,0,0,0,0,0,0,0,0,0,0,0,0,0,
209,9.726,23.7,-27.97,-3.479,11.49,29.29,-21.6,-1.182,-7.277,6.008,-16.29,-12.74,-15.15,5.155,-25.43,-14.67,0,0,0,0,0,0,0,0,0,0,0,0,0,0,0,0,
210,1.326,31.28,23.95,6.431,21.86,38.07,-18.17,7.692,-14.37,32.44,0.5899,2.98,6.452,27.05,-11.01,-6.198,0,0,0,0,0,0,0,0,0,0,0,0,0,0,0,0,
211,41.16,39.93,104.1,13.45,70.73,57.48,44.97,12.36,35.31,46.23,42.3,10.45,44.05,25.17,10.17,8.719,0,0,0,0,0,0,0,0,0,0,0,0,0,0,0,0,
212,74.29,42.27,130.2,-4.579,101.8,66.2,105.3,3.467,77.97,29.46,69.14,0.8701,63.51,3.256,23.03,16.11,0,0,0,0,0,0,0,0,0,0,0,0,0,0,0,0,
213,83.13,59.62,132.8,-17.35,97.96,67.58,115.8,-26.08,93.13,13.18,72.4,1.769,57.56,3.533,28.58,23.24,0,0,0,0,0,0,0,0,0,0,0,0,0,0,0,0,
214,49.41,45.23,87.5,5.931,44.74,43.26,48.18,-29.05,59.27,12.49,22.46,17.06,7.418,13.25,-5.853,13.66,0,0,0,0,0,0,0,0,0,0,0,0,0,0,0,0,
215,-19.78,-5.616,-4.554,17.3,-22.81,1.416,-42.32,10.02,-23.15,12.01,-45.25,15.6,-49.19,-1.281,-54.4,-7.787,0,0,0,0,0,0,0,0,0,0,0,0,0,0,0,0,
216,-50.92,-16.93,-32.04,-4.06,-25.18,-10.17,-63.83,22.69,-67.1,3.896,-44.6,3.987,-42.01,-14.56,-45.28,0.723,0,0,0,0,0,0,0,0,0,0,0,0,0,0,0,0,
217,-8.297,4.503,27.13,-12.46,27.79,7.627,-20.95,-4.191,-30.23,-6.367,8.563,4.641,7.716,-5.826,4.99,35.22,0,0,0,0,0,0,0,0,0,0,0,0,0,0,0,0,
218,49.16,0.9653,81.14,-19.85,64.31,24.39,44.3,-18.98,28.77,-5.316,56.5,9.563,52.53,10.95,41.31,57.86,0,0,0,0,0,0,0,0,0,0,0,0,0,0,0,0,
219,60.03,-11.96,91.54,-41.43,64.21,31.64,93.83,-24.0,70.51,10.03,79.13,16.48,80.53,29.48,49.99,57.83,0,0,0,0,0,0,0,0,0,0,0,0,0,0,0,0,
220,27.23,-12.52,58.08,-27.54,34.84,16.85,65.43,-20.4,73.24,20.58,55.32,32.33,65.72,41.08,33.41,44.95,0,0,0,0,0,0,0,0,0,0,0,0,0,0,0,0,
221,-0.3191,-6.63,-7.143,14.9,3.674,-4.983,2.683,11.7,27.27,23.77,10.89,33.99,23.25,35.41,8.266,23.73,0,0,0,0,0,0,0,0,0,0,0,0,0,0,0,0,
222,14.19,9.996,-27.36,25.79,15.08,2.789,5.602,23.88,-3.777,28.26,1.142,5.804,11.6,20.38,-3.721,2.13,0,0,0,0,0,0,0,0,0,0,0,0,0,0,0,0,
223,48.72,18.05,38.05,-1.342,50.76,22.46,30.1,-7.651,21.15,24.09,22.45,-14.76,30.94,12.02,4.387,6.207,0,0,0,0,0,0,0,0,0,0,0,0,0,0,0,0,
224,52.64,0.4283,99.33,-25.75,55.21,21.17,31.49,-22.01,55.69,15.75,48.63,-8.76,44.62,10.36,20.7,30.62,0,0,0,0,0,0,0,0,0,0,0,0,0,0,0,0,
225,15.81,-18.14,70.73,-16.77,17.98,0.5544,46.71,-8.151,57.59,6.181,56.49,-5.97,34.62,-1.757,17.01,31.86,0,0,0,0,0,0,0,0,0,0,0,0,0,0,0,0,
226,-27.19,-26.61,1.237,-4.073,-30.48,-27.17,26.51,-5.977,18.46,-21.02,35.96,-3.02,3.122,-17.25,-2.352,10.6,0,0,0,0,0,0,0,0,0,0,0,0,0,0,0,0,
227,-47.55,-33.46,-22.05,-18.9,-50.59,-44.75,-29.24,-11.74,-32.35,-46.11,29.1,11.96,-20.53,-20.35,-3.597,-1.869,0,0,0,0,0,0,0,0,0,0,0,0,0,0,0,0,
228,-40.93,-36.95,-2.694,-22.15,-38.81,-49.84,-9.259,-3.231,-40.13,-51.39,53.54,10.11,-16.02,-30.1,9.364,-5.857,0,0,0,0,0,0,0,0,0,0,0,0,0,0,0,0,
229,-15.55,-37.75,17.21,-13.12,-26.59,-46.95,36.46,3.645,-14.23,-52.59,62.62,-3.88,-1.276,-41.51,15.03,-5.416,0,0,0,0,0,0,0,0,0,0,0,0,0,0,0,0,
230,7.516,-31.81,25.43,-24.18,-19.38,-23.68,4.568,-16.8,4.211,-33.5,42.01,2.778,8.24,-20.35,14.76,10.59,0,0,0,0,0,0,0,0,0,0,0,0,0,0,0,0,
231,0.7132,-17.11,11.24,-14.81,-17.48,-2.339,-36.65,-20.13,21.68,8.545,16.22,22.82,16.31,17.12,9.964,36.84,0,0,0,0,0,0,0,0,0,0,0,0,0,0,0,0,
232,-33.51,-8.464,-16.97,6.408,-33.36,-13.44,-37.94,26.82,27.82,32.6,-1.236,34.0,20.44,34.21,3.886,46.57,0,0,0,0,0,0,0,0,0,0,0,0,0,0,0,0,
233,-42.15,-5.979,-16.1,-16.08,-35.92,-23.63,-22.67,39.09,2.81,30.34,7.52,22.33,15.57,21.04,11.92,28.53,0,0,0,0,0,0,0,0,0,0,0,0,0,0,0,0,
234,2.853,4.559,16.83,-32.26,0.0052,-7.625,16.43,-3.149,-10.32,7.056,43.98,-2.96,15.01,-11.14,33.57,6.884,0,0,0,0,0,0,0,0,0,0,0,0,0,0,0,0,
235,36.87,18.45,26.85,-11.67,25.35,6.964,36.34,-11.08,12.06,-22.63,72.18,-4.774,26.6,-20.27,48.5,5.364,0,0,0,0,0,0,0,0,0,0,0,0,0,0,0,0,
236,10.93,20.21,-7.462,4.426,3.104,3.414,6.589,1.017,25.77,-18.62,65.77,15.51,24.82,6.488,40.21,9.7,0,0,0,0,0,0,0,0,0,0,0,0,0,0,0,0,
237,-27.53,9.325,-31.34,30.15,-29.99,-10.14,-16.47,-1.141,10.56,0.162,30.74,23.31,-2.051,21.67,8.869,-7.855,0,0,0,0,0,0,0,0,0,0,0,0,0,0,0,0,
238,-37.7,0.0346,-5.666,47.7,-35.35,-20.32,-24.88,12.73,-3.806,-3.216,0.2329,19.3,-19.51,14.64,-17.47,-29.74,0,0,0,0,0,0,0,0,0,0,0,0,0,0,0,0,
239,-24.89,-3.343,33.21,8.09,-22.08,-22.06,-27.33,8.488,1.387,-5.586,5.269,11.46,-13.49,7.756,-17.32,-25.28,0,0,0,0,0,0,0,0,0,0,0,0,0,0,0,0,
240,0.9039,-8.707,49.29,-31.42,-14.81,-24.59,-1.522,-16.02,-0.0167,-9.326,16.3,-7.6,-19.31,-13.91,-21.26,-27.54,0,0,0,0,0,0,0,0,0,0,0,0,0,0,0,0,
241,12.23,-16.95,31.36,-29.89,-19.89,-28.47,-2.544,-5.45,-33.46,-34.22,-13.97,-26.28,-52.8,-48.1,-52.76,-62.65,0,0,0,0,0,0,0,0,0,0,0,0,0,0,0,0,
242,1.518,-18.48,-18.38,-24.68,-25.79,-24.54,-56.11,6.642,-69.51,-52.21,-62.74,-32.21,-84.86,-59.08,-81.1,-86.84,0,0,0,0,0,0,0,0,0,0,0,0,0,0,0,0,
243,4.116,5.975,-39.99,-9.23,-14.56,-5.337,-68.02,6.392,-68.47,-43.33,-74.1,-24.39,-78.84,-39.28,-73.23,-70.12,0,0,0,0,0,0,0,0,0,0,0,0,0,0,0,0,
244,18.03,39.39,-3.034,11.18,15.37,24.27,-16.25,25.16,-27.71,-10.81,-32.01,1.317,-24.1,-3.326,-28.21,-28.69,0,0,0,0,0,0,0,0,0,0,0,0,0,0,0,0,
245,13.17,21.17,30.6,-1.939,35.28,31.49,27.41,27.83,30.84,23.2,24.73,24.78,36.06,26.01,14.26,0.0198,0,0,0,0,0,0,0,0,0,0,0,0,0,0,0,0,
246,8.651,-25.63,41.03,-16.2,26.08,8.669,43.24,20.75,65.12,25.28,43.49,26.62,48.58,34.34,19.28,-2.127,0,0,0,0,0,0,0,0,0,0,0,0,0,0,0,0,
247,16.15,-25.13,35.99,2.439,1.292,-4.701,22.55,37.64,50.94,19.71,22.57,33.14,23.05,39.43,12.35,1.35,0,0,0,0,0,0,0,0,0,0,0,0,0,0,0,0,
248,-4.101,-11.38,-17.2,30.19,-25.43,-3.28,-37.22,43.31,7.224,26.71,-11.4,44.5,-11.31,35.67,4.532,11.49,0,0,0,0,0,0,0,0,0,0,0,0,0,0,0,0,
249,-34.83,-21.09,-65.11,49.47,-36.33,-5.12,-53.15,40.44,-39.15,2.133,-38.96,21.53,-39.49,-0.8575,-15.92,-7.939,0,0,0,0,0,0,0,0,0,0,0,0,0,0,0,0,
250,-7.269,-3.385,-26.27,41.38,-10.89,4.204,5.052,41.25,-48.97,-36.14,-27.7,-14.51,-27.86,-32.44,-10.32,-18.79,0,0,0,0,0,0,0,0,0,0,0,0,0,0,0,0,
251,49.56,25.3,33.32,5.542,26.16,21.67,45.32,20.1,-1.124,-26.0,17.04,-12.54,22.21,-18.31,25.82,9.775,0,0,0,0,0,0,0,0,0,0,0,0,0,0,0,0,
252,54.03,14.72,30.39,-10.22,29.14,21.73,43.31,17.16,48.47,8.521,40.26,19.25,54.32,16.77,44.46,34.49,0,0,0,0,0,0,0,0,0,0,0,0,0,0,0,0,
253,11.12,1.553,-5.288,11.41,-6.136,8.64,28.39,46.09,47.06,28.1,25.45,44.55,45.63,39.98,40.9,32.07,0,0,0,0,0,0,0,0,0,0,0,0,0,0,0,0,
254,-21.02,16.77,-30.71,44.77,-36.81,5.025,-20.74,47.76,20.06,41.07,-5.411,45.73,20.1,38.08,21.67,11.0,0,0,0,0,0,0,0,0,0,0,0,0,0,0,0,0,
255,-1.319,45.81,-26.08,66.15,-12.55,25.71,-42.92,33.2,10.03,41.44,-23.34,21.01,4.972,7.612,-3.597,-16.16,0,0,0,0,0,0,0,0,0,0,0,0,0,0,0,0,
256,58.7,69.79,20.56,61.82,44.44,52.08,24.98,18.75,19.64,11.99,-7.339,-21.33,6.959,-38.77,-6.41,-34.31,0,0,0,0,0,0,0,0,0,0,0,0,0,0,0,0,
257,89.97,57.65,62.8,45.98,56.39,45.06,69.33,-17.83,23.4,-41.95,9.953,-54.77,5.02,-76.6,-3.165,-37.05,0,0,0,0,0,0,0,0,0,0,0,0,0,0,0,0,
258,62.44,20.52,46.8,25.05,23.55,17.49,38.6,-32.01,18.58,-84.59,-4.027,-44.95,-5.239,-73.81,-13.23,-20.85,0,0,0,0,0,0,0,0,0,0,0,0,0,0,0,0,
259,17.34,4.597,1.486,-3.542,-0.223,4.922,26.0,-2.735,24.51,-72.17,-26.81,-6.802,-10.63,-31.3,-17.09,-6.413,0,0,0,0,0,0,0,0,0,0,0,0,0,0,0,0,
260,-14.88,-0.8472,-29.78,-2.211,-17.53,-6.872,13.72,16.79,24.61,-25.18,-47.06,5.59,-22.97,0.1345,-20.43,-20.76,0,0,0,0,0,0,0,0,0,0,0,0,0,0,0,0,
261,-26.09,-16.74,-45.1,18.45,-36.76,-28.9,-35.87,17.79,1.14,-5.964,-61.82,-12.64,-39.76,-2.281,-30.53,-41.02,0,0,0,0,0,0,0,0,0,0,0,0,0,0,0,0,
262,-11.34,-23.13,-29.99,7.466,-33.47,-36.05,-38.77,11.04,-15.18,-17.87,-45.76,-23.8,-34.38,-11.2,-23.15,-37.61,0,0,0,0,0,0,0,0,0,0,0,0,0,0,0,0,
263,16.3,-12.17,13.43,0.6795,-9.352,-18.89,7.212,-7.9,-3.591,-23.8,-12.21,-15.5,-16.9,-10.16,-1.327,-22.33,0,0,0,0,0,0,0,0,0,0,0,0,0,0,0,0,
264,33.19,8.511,27.39,17.07,4.723,3.863,12.27,-10.25,11.77,-13.5,-6.34,-6.185,-17.48,-10.34,1.274,-18.77,0,0,0,0,0,0,0,0,0,0,0,0,0,0,0,0,
265,20.64,22.16,-12.28,8.744,-12.46,4.269,-17.36,8.038,-1.307,-6.467,-29.19,-12.4,-31.42,-25.06,-16.04,-27.48,0,0,0,0,0,0,0,0,0,0,0,0,0,0,0,0,
266,-12.08,14.2,-49.84,-4.064,-35.84,-14.89,-27.41,8.22,-31.18,-20.36,-37.75,-22.0,-25.48,-38.56,-10.98,-23.46,0,0,0,0,0,0,0,0,0,0,0,0,0,0,0,0,
267,-21.39,11.65,-30.09,-2.597,-19.92,-16.17,-18.08,-6.439,-23.09,-34.32,-6.468,-22.32,9.812,-32.42,27.28,-3.719,0,0,0,0,0,0,0,0,0,0,0,0,0,0,0,0,
268,8.713,23.57,14.21,-22.54,9.952,-5.486,-1.748,-8.892,20.84,-29.77,32.36,-30.38,36.03,-33.07,48.56,0.8849,0,0,0,0,0,0,0,0,0,0,0,0,0,0,0,0,
269,33.89,19.99,8.182,-32.17,3.691,-12.33,18.82,-5.347,35.7,-30.0,34.19,-40.93,27.79,-44.04,34.66,-10.93,0,0,0,0,0,0,0,0,0,0,0,0,0,0,0,0,
270,15.86,7.873,-27.85,0.6741,-18.1,-18.74,16.88,-6.416,13.45,-32.76,9.914,-24.86,7.365,-25.27,28.01,-6.36,0,0,0,0,0,0,0,0,0,0,0,0,0,0,0,0,
271,-22.34,-0.5584,-26.35,19.92,-26.76,-14.3,-14.03,-7.967,-9.134,-19.51,-3.915,3.938,-4.154,6.443,38.84,18.35,0,0,0,0,0,0,0,0,0,0,0,0,0,0,0,0,
272,-25.33,-2.145,-9.842,3.339,-13.55,-4.653,-18.03,-13.17,-12.45,-6.952,-0.2299,15.73,2.659,11.64,37.24,31.39,0,0,0,0,0,0,0,0,0,0,0,0,0,0,0,0,
273,20.97,24.64,-6.67,-8.462,28.86,18.26,17.9,-28.94,16.6,0.2315,8.122,9.662,23.42,-1.251,19.5,19.35,0,0,0,0,0,0,0,0,0,0,0,0,0,0,0,0,
274,56.82,43.11,11.11,-7.742,47.23,22.19,26.02,-39.58,44.73,-4.993,10.54,-3.87,24.4,-22.77,3.883,2.276,0,0,0,0,0,0,0,0,0,0,0,0,0,0,0,0,
275,38.52,16.01,25.09,-6.026,6.628,-6.647,-0.2098,-19.89,26.28,-32.56,10.43,-1.866,7.27,-27.25,4.777,-0.1075,0,0,0,0,0,0,0,0,0,0,0,0,0,0,0,0,
276,13.21,6.875,6.617,13.49,-17.89,-8.788,-0.7781,12.31,4.116,-32.55,16.35,19.91,13.1,9.782,19.41,10.86,0,0,0,0,0,0,0,0,0,0,0,0,0,0,0,0,
277,18.9,40.93,-4.728,47.56,11.74,26.3,17.68,19.68,15.73,4.905,17.11,22.22,29.44,34.89,23.2,14.35,0,0,0,0,0,0,0,0,0,0,0,0,0,0,0,0,
278,33.2,57.8,18.2,46.68,47.09,56.61,17.59,19.3,21.44,22.25,8.46,6.154,27.31,22.11,16.82,5.239,0,0,0,0,0,0,0,0,0,0,0,0,0,0,0,0,
279,53.73,44.96,47.98,12.14,68.53,72.05,15.96,30.0,17.24,28.97,7.444,11.2,22.18,19.74,20.22,5.025,0,0,0,0,0,0,0,0,0,0,0,0,0,0,0,0,
280,69.45,33.34,48.93,15.77,64.57,61.96,18.56,21.39,19.78,40.14,2.837,24.47,12.41,22.94,11.4,7.647,0,0,0,0,0,0,0,0,0,0,0,0,0,0,0,0,
281,40.61,26.55,-0.6261,48.45,16.74,28.05,-2.79,7.928,-1.894,26.9,-24.13,32.45,-15.97,15.29,-18.75,-3.734,0,0,0,0,0,0,0,0,0,0,0,0,0,0,0,0,
282,-12.69,5.903,-71.58,28.3,-35.81,0.411,-32.72,30.62,-41.52,13.98,-48.99,51.71,-37.89,23.06,-29.53,-11.26,0,0,0,0,0,0,0,0,0,0,0,0,0,0,0,0,
283,-35.43,-17.57,-81.42,-17.09,-39.14,-12.65,-31.84,45.97,-46.75,14.29,-40.14,60.59,-22.32,32.74,-8.626,-0.4987,0,0,0,0,0,0,0,0,0,0,0,0,0,0,0,0,
284,-3.657,3.964,-6.086,-10.4,11.47,3.02,10.71,16.13,-0.743,2.353,9.051,48.52,33.11,36.03,27.05,25.79,0,0,0,0,0,0,0,0,0,0,0,0,0,0,0,0,
285,60.94,55.27,66.14,16.03,71.69,50.69,66.5,-5.79,68.86,6.083,64.29,40.2,82.72,49.78,58.21,46.07,0,0,0,0,0,0,0,0,0,0,0,0,0,0,0,0,
286,84.65,68.21,62.33,13.27,80.78,72.25,62.28,6.427,97.18,27.36,65.64,25.24,70.13,42.08,56.74,31.46,0,0,0,0,0,0,0,0,0,0,0,0,0,0,0,0,
287,44.26,47.73,14.46,2.085,38.56,49.03,-0.6214,6.758,52.1,23.17,22.1,3.542,22.2,11.6,30.59,9.432,0,0,0,0,0,0,0,0,0,0,0,0,0,0,0,0,
288,4.58,30.77,-19.29,0.0539,5.41,28.29,-14.13,-21.3,0.8762,10.13,-7.371,1.678,-3.618,-0.1198,7.996,8.97,0,0,0,0,0,0,0,0,0,0,0,0,0,0,0,0,
289,-2.403,16.55,-14.64,-1.954,9.695,19.02,22.61,-35.52,-4.261,3.317,-13.28,6.133,-7.94,-9.015,-4.629,2.258,0,0,0,0,0,0,0,0,0,0,0,0,0,0,0,0,
290,17.67,15.19,23.74,-17.35,35.1,18.09,32.05,-13.41,16.39,-10.46,3.218,11.08,9.625,-18.06,6.034,-6.547,0,0,0,0,0,0,0,0,0,0,0,0,0,0,0,0,
291,49.88,30.14,47.35,-26.75,56.29,37.74,34.57,12.9,51.25,-7.719,38.13,31.82,43.79,1.483,28.91,1.064,0,0,0,0,0,0,0,0,0,0,0,0,0,0,0,0,
292,43.83,30.13,16.19,10.33,45.62,46.39,27.02,19.08,69.83,6.411,38.37,43.71,39.86,19.78,22.68,-5.09,0,0,0,0,0,0,0,0,0,0,0,0,0,0,0,0,
293,-1.358,13.09,-23.1,49.14,9.145,28.17,-21.2,21.72,33.58,5.655,-6.785,35.58,-4.431,20.14,-4.543,-25.37,0,0,0,0,0,0,0,0,0,0,0,0,0,0,0,0,
294,-25.48,7.125,-19.64,28.37,-10.06,22.49,-45.32,34.89,-12.01,17.02,-40.57,29.66,-29.09,23.73,-24.43,-30.77,0,0,0,0,0,0,0,0,0,0,0,0,0,0,0,0,
295,-20.13,7.664,-10.45,-8.051,-0.3543,27.44,-31.28,41.05,-26.32,30.7,-44.52,19.28,-29.52,9.017,-36.98,-34.43,0,0,0,0,0,0,0,0,0,0,0,0,0,0,0,0,
296,-8.966,0.2198,-14.15,-29.56,17.23,20.98,-17.79,18.28,-29.98,6.04,-26.14,6.52,-22.58,-17.04,-26.12,-37.12,0,0,0,0,0,0,0,0,0,0,0,0,0,0,0,0,
297,6.217,3.467,9.726,-39.83,34.15,25.28,22.2,-7.242,-8.37,-16.79,16.41,18.11,10.11,-6.408,14.6,-8.431,0,0,0,0,0,0,0,0,0,0,0,0,0,0,0,0,
298,10.53,20.36,21.72,-12.11,30.71,30.3,45.86,1.732,33.26,-11.7,41.37,35.37,40.3,9.668,35.65,20.72,0,0,0,0,0,0,0,0,0,0,0,0,0,0,0,0,
299,-12.28,17.12,-25.14,6.744,-9.363,4.6,-2.656,12.89,26.53,-18.41,13.55,27.27,19.35,-12.51,14.77,-0.5477,0,0,0,0,0,0,0,0,0,0,0,0,0,0,0,0,
300,-39.56,-9.886,-42.16,-25.53,-41.71,-20.69,-32.51,-0.5763,-18.51,-28.93,-16.7,9.729,-12.02,-30.43,-0.7836,-30.72,0,0,0,0,0,0,0,0,0,0,0,0,0,0,0,0,
301,-42.88,-34.35,-1.085,-39.88,-33.9,-23.51,-7.044,-8.716,-33.91,-24.18,-13.99,-2.464,-15.03,-20.01,-1.601,-27.54,0,0,0,0,0,0,0,0,0,0,0,0,0,0,0,0,
302,-37.03,-50.65,-2.458,-30.73,-31.07,-31.58,-7.908,-12.57,-34.06,-30.17,-26.73,-17.68,-37.17,-21.15,-29.25,-36.0,0,0,0,0,0,0,0,0,0,0,0,0,0,0,0,0,
303,-54.64,-53.8,-39.25,-38.0,-58.42,-45.38,-44.85,-16.64,-62.2,-44.24,-70.09,-31.97,-83.95,-43.94,-66.04,-70.93,0,0,0,0,0,0,0,0,0,0,0,0,0,0,0,0,
304,-83.34,-40.25,-52.24,-31.84,-80.69,-50.1,-74.53,-10.7,-98.53,-48.59,-89.51,-35.67,-95.24,-58.22,-66.43,-85.0,0,0,0,0,0,0,0,0,0,0,0,0,0,0,0,0,
305,-82.2,-41.86,-62.99,-33.12,-80.01,-55.6,-67.22,-28.21,-101.9,-52.29,-61.3,-37.11,-65.45,-59.05,-44.62,-71.04,0,0,0,0,0,0,0,0,0,0,0,0,0,0,0,0,
306,-51.74,-64.61,-43.79,-64.41,-63.61,-63.05,-21.09,-47.7,-68.44,-61.56,-13.27,-46.87,-28.71,-66.68,-25.63,-55.86,0,0,0,0,0,0,0,0,0,0,0,0,0,0,0,0,
307,-25.81,-60.56,19.33,-68.29,-39.67,-59.78,8.129,-21.02,-27.37,-73.73,22.05,-43.69,-0.1559,-71.72,-7.19,-40.25,0,0,0,0,0,0,0,0,0,0,0,0,0,0,0,0,
308,-31.67,-39.63,19.38,-60.89,-35.64,-52.63,3.889,-13.55,-7.261,-75.06,23.06,-13.34,0.6513,-56.81,0.2223,-25.82,0,0,0,0,0,0,0,0,0,0,0,0,0,0,0,0,
309,-77.52,-57.55,-54.95,-78.49,-65.08,-64.87,-6.283,-38.04,-27.64,-68.31,-13.1,-5.61,-38.49,-58.32,-20.64,-43.48,0,0,0,0,0,0,0,0,0,0,0,0,0,0,0,0,
310,-105.2,-76.06,-78.01,-65.64,-84.68,-84.52,-31.54,-18.2,-78.07,-85.44,-53.64,-38.77,-79.44,-86.99,-47.23,-83.19,0,0,0,0,0,0,0,0,0,0,0,0,0,0,0,0,
311,-48.83,-38.56,-21.06,-25.0,-56.02,-66.5,-36.28,-1.828,-92.49,-99.04,-50.0,-46.51,-67.67,-74.78,-38.88,-80.25,0,0,0,0,0,0,0,0,0,0,0,0,0,0,0,0,
312,22.18,0.5291,32.8,-23.09,-11.05,-22.55,-2.351,-28.0,-40.92,-58.1,-8.346,-15.81,-15.25,-14.85,-5.116,-32.01,0,0,0,0,0,0,0,0,0,0,0,0,0,0,0,0,
313,17.64,-5.575,26.76,-47.3,1.762,-6.133,-7.667,-13.55,7.586,-3.276,16.94,11.03,15.61,25.7,17.84,7.766,0,0,0,0,0,0,0,0,0,0,0,0,0,0,0,0,
314,-15.34,-18.43,-20.85,-47.28,-12.18,-9.437,-39.7,29.52,7.167,19.56,10.03,35.27,10.78,39.27,21.84,20.96,0,0,0,0,0,0,0,0,0,0,0,0,0,0,0,0,
315,-18.61,-16.1,-41.22,-22.51,-14.51,0.2752,-37.92,28.04,-7.849,26.12,-7.266,44.47,2.386,41.23,10.03,5.05,0,0,0,0,0,0,0,0,0,0,0,0,0,0,0,0,
316,1.39,-9.687,-10.64,-11.44,11.31,13.23,-26.96,1.212,-5.713,21.62,-10.62,17.92,7.173,19.9,-0.6535,-27.39,0,0,0,0,0,0,0,0,0,0,0,0,0,0,0,0,
317,26.69,-8.223,16.59,-33.07,36.2,12.01,8.09,-30.43,13.49,7.615,11.5,-6.173,17.69,-2.724,3.578,-45.37,0,0,0,0,0,0,0,0,0,0,0,0,0,0,0,0,
318,25.24,-23.32,6.94,-52.55,22.38,-4.613,48.68,-55.24,24.06,-1.113,19.07,-3.258,12.26,2.396,-3.758,-48.16,0,0,0,0,0,0,0,0,0,0,0,0,0,0,0,0,
319,0.6654,-37.99,-21.34,-33.15,-14.39,-20.42,3.366,-30.63,2.575,1.169,-16.76,13.83,-11.56,22.62,-27.86,-39.87,0,0,0,0,0,0,0,0,0,0,0,0,0,0,0,0,
320,-14.08,-29.57,-41.56,3.166,-34.48,-19.24,-65.62,18.51,-29.6,15.88,-52.13,31.81,-32.12,30.96,-46.2,-30.81,0,0,0,0,0,0,0,0,0,0,0,0,0,0,0,0,
321,-27.82,-20.72,-32.02,2.943,-36.96,-18.54,-67.88,27.4,-51.16,17.81,-62.34,21.07,-45.83,10.87,-62.09,-52.83,0,0,0,0,0,0,0,0,0,0,0,0,0,0,0,0,
322,-28.69,-16.62,-4.622,-30.31,-25.44,-24.23,-54.35,5.287,-58.59,-12.73,-55.69,-15.41,-44.49,-22.16,-60.75,-84.0,0,0,0,0,0,0,0,0,0,0,0,0,0,0,0,0,
323,6.128,6.484,10.96,-32.86,4.037,-11.26,-34.96,-9.787,-32.08,-38.72,-26.0,-29.38,-17.1,-34.03,-34.73,-80.56,0,0,0,0,0,0,0,0,0,0,0,0,0,0,0,0,
324,31.22,23.07,15.39,-2.119,22.29,12.96,2.254,-13.73,9.324,-36.29,-2.492,-11.91,1.352,-18.89,-30.09,-60.63,0,0,0,0,0,0,0,0,0,0,0,0,0,0,0,0,
325,23.88,18.82,11.0,14.86,18.04,31.05,8.907,-7.765,19.83,-15.91,-13.45,12.38,-5.314,6.435,-45.8,-49.35,0,0,0,0,0,0,0,0,0,0,0,0,0,0,0,0,
326,21.59,37.14,5.412,29.7,22.78,46.58,3.852,4.665,18.68,17.6,-20.77,20.01,-1.911,19.93,-35.18,-45.62,0,0,0,0,0,0,0,0,0,0,0,0,0,0,0,0,
327,28.07,59.61,22.75,44.02,35.2,44.95,20.87,6.644,32.23,33.92,1.483,-4.893,17.62,7.574,-7.034,-51.02,0,0,0,0,0,0,0,0,0,0,0,0,0,0,0,0,
328,29.56,38.92,41.89,25.33,38.97,31.33,29.82,-0.2842,44.37,17.39,29.09,-26.69,35.33,-6.04,12.45,-52.19,0,0,0,0,0,0,0,0,0,0,0,0,0,0,0,0,
329,37.89,22.15,34.74,7.152,44.76,39.06,19.81,4.551,54.73,10.87,32.99,-7.056,39.62,6.932,18.36,-33.14,0,0,0,0,0,0,0,0,0,0,0,0,0,0,0,0,
330,37.05,33.04,14.05,19.29,38.59,51.48,-6.042,19.29,55.41,26.81,-2.08,19.27,13.83,28.24,0.2678,-19.55,0,0,0,0,0,0,0,0,0,0,0,0,0,0,0,0,
331,7.037,26.59,-16.82,30.44,15.59,47.13,-24.54,30.02,32.78,40.66,-44.96,24.54,-17.29,37.38,-25.94,-34.33,0,0,0,0,0,0,0,0,0,0,0,0,0,0,0,0,
332,0.2033,29.97,-24.17,30.13,23.33,50.24,7.246,37.07,24.14,51.22,-37.47,27.45,-6.129,38.05,-20.5,-44.45,0,0,0,0,0,0,0,0,0,0,0,0,0,0,0,0,
333,40.44,57.87,28.22,8.836,58.36,55.39,48.88,27.01,45.06,48.74,12.57,22.48,27.18,26.21,11.23,-27.42,0,0,0,0,0,0,0,0,0,0,0,0,0,0,0,0,
334,53.5,37.75,67.01,-38.01,60.81,36.99,53.87,-6.405,57.33,25.06,45.02,4.94,35.01,6.904,25.56,-13.62,0,0,0,0,0,0,0,0,0,0,0,0,0,0,0,0,
335,18.52,-13.57,42.31,-46.48,26.66,9.046,51.57,-11.47,49.46,5.276,31.05,2.237,11.91,4.05,1.542,-22.9,0,0,0,0,0,0,0,0,0,0,0,0,0,0,0,0,
336,-14.57,-19.9,8.008,3.843,-10.01,-7.673,19.83,28.55,25.5,1.061,-22.89,11.62,-29.72,12.63,-42.21,-44.49,0,0,0,0,0,0,0,0,0,0,0,0,0,0,0,0,
337,-36.32,-7.705,-18.58,26.76,-24.44,-4.105,-52.1,36.2,-8.815,5.41,-79.26,0.9328,-62.51,5.446,-67.84,-62.33,0,0,0,0,0,0,0,0,0,0,0,0,0,0,0,0,
338,-35.67,-16.24,-20.95,-9.223,2.778,18.01,-55.99,-5.087,-18.49,12.14,-74.23,-30.57,-49.8,-14.36,-53.01,-61.53,0,0,0,0,0,0,0,0,0,0,0,0,0,0,0,0,
339,-1.022,-20.8,26.21,-29.31,46.5,38.14,25.62,-18.85,7.785,12.63,-4.825,-46.39,-2.502,-16.25,-12.22,-39.22,0,0,0,0,0,0,0,0,0,0,0,0,0,0,0,0,
340,21.95,-10.92,31.88,-8.711,50.19,38.85,58.5,0.29,34.4,15.41,40.66,-27.98,23.23,4.098,14.1,-12.01,0,0,0,0,0,0,0,0,0,0,0,0,0,0,0,0,
341,-2.348,-14.57,-47.21,-15.98,3.254,6.635,9.967,1.576,24.52,13.32,13.52,-9.014,2.184,11.11,-0.6584,-7.992,0,0,0,0,0,0,0,0,0,0,0,0,0,0,0,0,
342,-48.64,-43.75,-82.27,-58.92,-42.53,-39.76,-11.81,-14.11,-13.17,-17.07,-19.45,-4.938,-18.99,4.178,-21.43,-20.45,0,0,0,0,0,0,0,0,0,0,0,0,0,0,0,0,
343,-61.56,-53.48,-19.97,-63.61,-28.72,-37.3,23.57,-29.6,-12.21,-32.56,-4.064,10.39,2.811,21.25,-4.922,-10.02,0,0,0,0,0,0,0,0,0,0,0,0,0,0,0,0,
344,-30.34,-24.5,37.07,-34.12,22.58,4.339,29.55,-32.71,33.86,-2.462,11.2,15.85,28.36,39.59,13.35,7.655,0,0,0,0,0,0,0,0,0,0,0,0,0,0,0,0,
345,-8.128,-16.87,30.89,-24.18,40.4,17.33,-11.97,-11.55,40.83,10.6,-7.059,-8.579,23.24,28.26,4.464,1.51,0,0,0,0,0,0,0,0,0,0,0,0,0,0,0,0,
346,-6.771,-34.98,0.7137,-16.8,29.61,16.89,-29.87,7.504,13.34,1.75,-17.53,-9.991,22.16,28.9,7.083,2.328,0,0,0,0,0,0,0,0,0,0,0,0,0,0,0,0,
347,-11.21,-30.58,-21.28,-4.167,22.59,23.76,-18.54,1.182,17.6,24.45,-8.452,19.57,34.34,48.07,22.82,23.77,0,0,0,0,0,0,0,0,0,0,0,0,0,0,0,0,
348,-38.8,-22.53,-33.31,-18.26,4.918,1.291,-6.75,-9.043,26.09,36.75,-0.6234,28.9,40.01,44.56,29.15,44.88,0,0,0,0,0,0,0,0,0,0,0,0,0,0,0,0,
349,-48.02,-24.14,-13.67,-41.88,-6.873,-27.47,27.46,-9.609,18.17,3.314,24.09,25.98,56.35,34.8,49.48,65.65,0,0,0,0,0,0,0,0,0,0,0,0,0,0,0,0,
350,-4.829,-23.06,35.83,-46.83,15.33,-15.98,78.95,-9.361,36.69,-8.378,70.26,38.65,85.6,47.88,81.5,81.51,0,0,0,0,0,0,0,0,0,0,0,0,0,0,0,0,
351,13.63,-34.57,45.81,-35.54,35.33,9.3,93.24,-8.164,65.15,23.83,81.54,46.15,84.84,61.16,77.33,72.08,0,0,0,0,0,0,0,0,0,0,0,0,0,0,0,0,
352,-10.16,-28.6,-2.936,-7.78,21.74,16.07,34.0,3.595,48.77,43.28,23.19,33.34,35.13,46.81,26.66,29.41,0,0,0,0,0,0,0,0,0,0,0,0,0,0,0,0,
353,0.1578,20.1,-35.93,25.86,6.761,22.38,-50.38,23.3,2.777,40.29,-42.15,22.94,-10.59,24.82,-15.27,-7.376,0,0,0,0,0,0,0,0,0,0,0,0,0,0,0,0,
354,29.87,45.54,-11.54,44.85,26.07,46.31,-41.6,25.15,-6.531,49.99,-34.4,26.47,6.728,34.31,1.061,9.488,0,0,0,0,0,0,0,0,0,0,0,0,0,0,0,0,
355,19.72,17.11,37.85,34.85,52.04,55.67,50.36,7.239,28.88,64.57,21.79,26.02,53.1,55.0,44.92,46.36,0,0,0,0,0,0,0,0,0,0,0,0,0,0,0,0,
356,2.659,-9.766,56.19,-1.76,40.32,23.61,80.59,8.084,45.66,53.91,56.96,27.94,68.66,52.08,66.95,63.57,0,0,0,0,0,0,0,0,0,0,0,0,0,0,0,0,
357,4.773,-11.7,13.91,-17.43,4.051,-15.38,32.41,20.32,25.15,27.15,55.94,45.96,55.22,44.45,62.73,74.01,0,0,0,0,0,0,0,0,0,0,0,0,0,0,0,0,
358,-21.65,-17.73,-50.57,7.275,-31.45,-35.02,-8.68,1.345,-4.79,0.0005,22.78,46.68,19.92,32.92,33.95,61.79,0,0,0,0,0,0,0,0,0,0,0,0,0,0,0,0,
359,-56.44,-23.82,-77.66,11.7,-43.63,-26.11,-20.46,-18.07,-31.75,-20.25,-15.75,22.33,-11.17,10.57,6.928,32.55,0,0,0,0,0,0,0,0,0,0,0,0,0,0,0,0,
360,-26.34,-0.5508,-45.72,-10.61,4.073,24.34,0.9274,2.97,-15.61,-6.382,-12.1,12.32,9.519,12.68,15.54,30.65,0,0,0,0,0,0,0,0,0,0,0,0,0,0,0,0,
361,30.43,22.58,24.51,2.595,68.35,60.67,32.91,20.65,50.94,30.36,11.01,15.89,44.23,38.07,25.9,39.49,0,0,0,0,0,0,0,0,0,0,0,0,0,0,0,0,
362,41.09,9.043,56.48,31.62,69.6,40.52,22.49,11.76,81.2,44.13,7.1,17.22,37.74,54.71,11.1,34.37,0,0,0,0,0,0,0,0,0,0,0,0,0,0,0,0,
363,16.0,-7.534,0.7641,25.33,27.92,14.04,-15.11,14.65,43.27,42.73,-4.299,22.73,14.58,53.31,1.458,27.57,0,0,0,0,0,0,0,0,0,0,0,0,0,0,0,0,
364,-25.49,-14.29,-67.65,8.14,-15.5,-12.6,-39.26,25.67,-12.8,32.15,-5.202,27.85,-6.188,26.76,4.877,21.38,0,0,0,0,0,0,0,0,0,0,0,0,0,0,0,0,
365,-61.92,-38.52,-70.21,-4.312,-44.58,-46.45,-40.03,19.11,-60.99,-6.673,-7.193,27.14,-20.53,-1.989,7.798,19.76,0,0,0,0,0,0,0,0,0,0,0,0,0,0,0,0,
366,-42.22,-45.66,-21.25,-16.49,-14.59,-25.09,-10.47,-1.236,-64.74,-26.66,-1.585,9.961,-5.148,-2.466,11.45,19.16,0,0,0,0,0,0,0,0,0,0,0,0,0,0,0,0,
367,24.01,2.417,46.84,3.171,55.3,33.05,24.35,-22.2,-0.8653,4.352,16.27,-25.49,23.52,2.468,16.3,12.63,0,0,0,0,0,0,0,0,0,0,0,0,0,0,0,0,
368,54.42,39.14,87.58,27.91,75.63,49.44,40.81,-12.45,60.3,28.24,25.24,-36.29,30.84,-1.25,16.2,15.27,0,0,0,0,0,0,0,0,0,0,0,0,0,0,0,0,
369,18.24,2.06,56.2,4.156,38.85,37.4,56.22,15.11,63.86,23.79,15.28,-15.71,22.08,-0.1307,4.667,21.72,0,0,0,0,0,0,0,0,0,0,0,0,0,0,0,0,
370,-19.12,-40.3,-8.997,-14.88,3.866,18.43,51.09,-0.4411,43.07,18.88,3.138,-10.67,13.84,-0.5628,-3.916,22.56,0,0,0,0,0,0,0,0,0,0,0,0,0,0,0,0,
371,-13.59,-27.99,-43.27,-1.381,-8.28,-20.33,16.19,-21.35,25.33,3.982,12.17,-12.38,16.15,5.098,15.95,41.69,0,0,0,0,0,0,0,0,0,0,0,0,0,0,0,0,
372,1.385,-21.1,-25.72,-10.6,1.212,-38.07,16.62,5.104,14.43,-11.11,37.21,6.859,25.64,32.33,42.87,70.82,0,0,0,0,0,0,0,0,0,0,0,0,0,0,0,0,
373,11.83,-32.93,16.16,-11.97,24.01,-5.185,38.45,20.29,18.63,8.669,32.61,17.18,11.78,50.17,30.95,67.55,0,0,0,0,0,0,0,0,0,0,0,0,0,0,0,0,
374,22.66,-11.23,10.54,27.09,27.94,30.46,3.189,12.32,20.12,33.36,-19.01,6.032,-28.77,31.91,-8.076,41.18,0,0,0,0,0,0,0,0,0,0,0,0,0,0,0,0,
375,-3.527,4.512,-43.59,37.85,4.885,32.33,-42.18,14.88,7.066,26.51,-60.27,-1.996,-49.79,6.045,-27.77,27.59,0,0,0,0,0,0,0,0,0,0,0,0,0,0,0,0,
376,-55.24,-18.47,-62.69,16.6,-11.87,13.06,-34.36,-4.901,6.18,13.24,-46.94,-10.78,-34.07,-7.521,-18.13,23.52,0,0,0,0,0,0,0,0,0,0,0,0,0,0,0,0,
377,-51.62,-26.41,-40.12,6.921,-10.92,-12.95,-15.03,-32.6,24.68,-3.709,-1.929,-27.86,-4.712,-27.51,9.314,27.14,0,0,0,0,0,0,0,0,0,0,0,0,0,0,0,0,
378,-4.436,-20.49,-26.18,-13.15,-17.0,-39.01,1.377,-27.58,34.69,-42.39,39.1,-35.03,21.15,-47.67,37.3,47.07,0,0,0,0,0,0,0,0,0,0,0,0,0,0,0,0,
379,-8.097,-30.65,-32.6,-23.95,-43.71,-57.42,14.1,-20.77,11.61,-64.6,44.55,-22.48,21.81,-33.63,39.86,63.98,0,0,0,0,0,0,0,0,0,0,0,0,0,0,0,0,
380,-46.41,-27.94,-51.96,10.04,-67.37,-58.05,-20.16,-11.98,-35.43,-41.4,9.613,3.011,-3.574,9.133,27.82,68.23,0,0,0,0,0,0,0,0,0,0,0,0,0,0,0,0,
381,-38.16,-9.866,-53.59,22.98,-53.71,-34.53,-60.46,10.83,-55.15,-6.18,-17.69,19.16,-15.99,35.56,23.92,59.63,0,0,0,0,0,0,0,0,0,0,0,0,0,0,0,0,
382,-6.214,-2.229,-17.54,-10.68,-10.02,-2.111,-28.55,6.681,-23.73,15.18,-11.76,9.451,-4.127,30.68,15.54,35.25,0,0,0,0,0,0,0,0,0,0,0,0,0,0,0,0,
383,10.28,9.277,22.6,-13.07,22.24,15.12,23.95,-8.409,16.45,24.73,1.725,-2.118,10.66,21.64,8.903,28.88,0,0,0,0,0,0,0,0,0,0,0,0,0,0,0,0,
384,21.39,23.3,25.64,18.02,14.49,4.404,6.353,11.98,25.07,18.39,-0.0505,-2.959,11.68,14.8,11.28,41.71,0,0,0,0,0,0,0,0,0,0,0,0,0,0,0,0,
385,-1.548,12.9,-26.51,24.0,-29.81,-29.45,-47.03,33.78,-1.509,-3.741,-19.73,-10.34,-6.453,1.829,-0.1556,32.41,0,0,0,0,0,0,0,0,0,0,0,0,0,0,0,0,
386,-51.16,-6.837,-89.72,19.64,-66.97,-51.26,-55.49,21.33,-32.65,-15.47,-28.61,-9.986,-13.71,5.433,-5.07,25.94,0,0,0,0,0,0,0,0,0,0,0,0,0,0,0,0,
387,-57.62,-15.91,-83.36,13.29,-53.26,-34.43,-29.91,2.653,-24.19,2.324,-2.125,2.076,12.37,20.38,16.02,41.57,0,0,0,0,0,0,0,0,0,0,0,0,0,0,0,0,
388,-16.98,-17.09,-17.38,-11.63,1.866,-0.3944,4.853,-5.576,21.1,19.65,30.69,-7.772,38.5,3.689,24.69,36.81,0,0,0,0,0,0,0,0,0,0,0,0,0,0,0,0,
389,35.02,3.19,36.96,-6.124,54.56,23.37,62.51,-16.12,61.98,7.026,40.89,-32.26,37.12,-32.72,12.18,14.81,0,0,0,0,0,0,0,0,0,0,0,0,0,0,0,0,
390,63.68,26.95,46.19,26.62,55.11,21.61,79.49,-20.16,63.38,-16.99,23.71,-39.99,7.659,-48.79,-4.465,2.885,0,0,0,0,0,0,0,0,0,0,0,0,0,0,0,0,
391,29.4,8.423,4.429,14.04,-8.249,-16.16,-2.671,-13.3,9.457,-33.57,-28.28,-34.47,-44.12,-48.93,-34.19,-10.38,0,0,0,0,0,0,0,0,0,0,0,0,0,0,0,0,
392,-34.42,-25.86,-59.24,-7.068,-77.57,-67.87,-99.27,-14.26,-71.36,-41.81,-88.69,-32.69,-89.71,-49.19,-64.68,-24.41,0,0,0,0,0,0,0,0,0,0,0,0,0,0,0,0,
393,-61.31,-30.15,-88.5,10.07,-97.1,-88.0,-128.3,-11.58,-124.9,-37.34,-103.3,-36.44,-94.5,-43.05,-60.22,-12.44,0,0,0,0,0,0,0,0,0,0,0,0,0,0,0,0,
394,-37.79,-16.98,-50.06,12.45,-52.39,-50.62,-89.35,3.899,-107.8,-15.74,-61.39,-27.11,-46.32,-19.74,-20.37,28.96,0,0,0,0,0,0,0,0,0,0,0,0,0,0,0,0,
395,17.31,1.559,33.47,-0.5953,28.74,12.71,-5.878,2.271,-17.62,18.07,-11.31,-6.861,16.06,0.894,10.44,59.22,0,0,0,0,0,0,0,0,0,0,0,0,0,0,0,0,
396,46.25,15.8,68.8,2.125,55.79,30.98,39.76,-10.63,55.24,25.86,-2.551,-10.08,22.92,-10.06,5.818,53.21,0,0,0,0,0,0,0,0,0,0,0,0,0,0,0,0,
397,10.65,5.988,10.36,-0.6791,3.068,-1.886,2.549,-11.38,30.62,-13.6,-17.9,-23.98,-9.882,-25.55,0.259,45.05,0,0,0,0,0,0,0,0,0,0,0,0,0,0,0,0,
398,-27.96,-2.718,-51.88,4.496,-31.65,-26.57,-27.4,-13.69,-23.71,-43.0,-11.13,-17.01,-10.38,-16.58,13.89,53.44,0,0,0,0,0,0,0,0,0,0,0,0,0,0,0,0,
399,-18.35,18.69,-51.65,32.38,-17.05,-26.62,-15.1,-9.561,-31.81,-39.2,5.099,-21.32,2.465,-15.57,10.69,44.57,0,0,0,0,0,0,0,0,0,0,0,0,0,0,0,0,
400,7.147,45.84,-23.51,38.86,-2.364,-13.2,-27.52,3.949,-26.82,-40.34,0.3754,-47.92,-13.12,-27.73,-12.86,12.2,0,0,0,0,0,0,0,0,0,0,0,0,0,0,0,0,
401,23.9,56.64,3.178,14.54,13.58,12.06,-39.29,-11.35,-26.73,-25.65,-8.697,-51.23,-25.23,-18.82,-15.56,-4.508,0,0,0,0,0,0,0,0,0,0,0,0,0,0,0,0,
402,32.88,56.97,16.2,4.407,20.12,21.25,-5.402,-31.25,-11.41,9.485,-10.25,-32.46,-20.02,-5.24,1.387,3.988,0,0,0,0,0,0,0,0,0,0,0,0,0,0,0,0,
403,21.33,49.78,6.689,25.04,-7.132,5.0,-0.0892,-5.997,-2.574,10.97,-14.8,-15.54,-13.7,-6.715,10.14,18.22,0,0,0,0,0,0,0,0,0,0,0,0,0,0,0,0,
404,1.834,41.29,-2.108,39.25,-16.96,-1.715,-32.7,24.99,-6.691,-0.4027,-3.75,7.027,12.68,3.022,18.21,36.48,0,0,0,0,0,0,0,0,0,0,0,0,0,0,0,0,
405,10.99,41.12,8.789,21.8,15.85,6.061,-13.31,24.14,12.92,10.49,29.84,19.14,51.35,23.41,27.52,43.45,0,0,0,0,0,0,0,0,0,0,0,0,0,0,0,0,
406,33.25,43.46,22.21,0.6306,31.6,9.413,17.29,14.05,41.86,18.69,37.87,13.22,52.4,32.88,18.36,26.42,0,0,0,0,0,0,0,0,0,0,0,0,0,0,0,0,
407,26.84,41.15,16.57,-2.734,11.61,12.08,-12.18,1.367,30.09,31.82,3.313,18.26,14.68,35.83,0.9813,15.57,0,0,0,0,0,0,0,0,0,0,0,0,0,0,0,0,
408,3.823,39.54,-4.744,17.73,-2.893,14.02,-24.47,-6.473,-9.232,47.68,-30.17,15.37,-22.86,25.94,-11.86,7.626,0,0,0,0,0,0,0,0,0,0,0,0,0,0,0,0,
409,-1.018,45.34,-24.69,61.81,1.421,12.62,12.5,5.094,-29.55,30.82,-38.22,-11.19,-34.14,2.735,-21.8,-14.87,0,0,0,0,0,0,0,0,0,0,0,0,0,0,0,0,
410,19.29,55.15,-28.36,68.75,11.69,16.88,26.58,4.545,-21.17,10.13,-25.61,-17.01,-12.77,-2.44,-11.58,-14.04,0,0,0,0,0,0,0,0,0,0,0,0,0,0,0,0,
411,43.93,47.51,-6.885,13.56,16.43,11.94,12.85,-14.9,-5.997,10.29,-6.915,-8.233,6.618,6.106,7.936,6.058,0,0,0,0,0,0,0,0,0,0,0,0,0,0,0,0,
412,33.11,11.2,5.998,-12.54,-5.834,-18.96,-14.56,0.52,-19.57,2.249,-15.4,-11.86,-13.15,2.278,-2.598,-0.6468,0,0,0,0,0,0,0,0,0,0,0,0,0,0,0,0,
413,-14.24,-12.67,-34.12,19.26,-50.35,-42.81,-72.61,36.44,-66.55,-4.386,-57.26,3.046,-45.87,1.414,-31.8,-19.43,0,0,0,0,0,0,0,0,0,0,0,0,0,0,0,0,
414,-35.35,12.68,-74.99,36.41,-61.22,-26.04,-117.7,23.27,-91.24,8.618,-86.61,23.72,-52.84,10.59,-40.94,-24.36,0,0,0,0,0,0,0,0,0,0,0,0,0,0,0,0,
415,-6.632,39.68,-48.51,26.98,-24.89,3.222,-103.4,-9.966,-60.49,16.71,-71.89,3.603,-40.15,2.385,-26.11,-27.25,0,0,0,0,0,0,0,0,0,0,0,0,0,0,0,0,
416,19.22,19.37,-0.1566,16.87,0.0271,2.002,-58.72,-8.128,-17.79,1.48,-34.62,-32.26,-26.66,-24.33,-8.645,-35.25,0,0,0,0,0,0,0,0,0,0,0,0,0,0,0,0,
417,23.24,-2.478,19.96,9.058,-3.722,-17.58,-17.21,-16.38,-6.463,-30.38,-5.505,-39.11,-16.4,-34.81,-0.0,-29.44,0,0,0,0,0,0,0,0,0,0,0,0,0,0,0,0,
418,28.57,13.19,24.19,21.34,-10.25,-19.93,6.976,-44.96,-19.62,-47.94,-1.907,-21.99,-14.33,-20.39,-3.888,-10.04,0,0,0,0,0,0,0,0,0,0,0,0,0,0,0,0,
419,20.88,31.19,8.022,44.36,-21.32,-6.954,-6.734,-26.6,-35.01,-26.92,-35.59,-17.39,-29.25,-16.89,-28.45,-25.25,0,0,0,0,0,0,0,0,0,0,0,0,0,0,0,0,
420,6.142,42.81,-15.58,49.24,-19.37,11.46,-34.73,16.14,-34.51,3.58,-68.82,-36.52,-35.79,-30.84,-44.27,-65.71,0,0,0,0,0,0,0,0,0,0,0,0,0,0,0,0,
421,32.26,66.07,4.173,54.96,23.88,43.54,-14.74,17.73,-2.331,15.5,-41.02,-43.42,1.326,-23.32,-13.48,-52.76,0,0,0,0,0,0,0,0,0,0,0,0,0,0,0,0,
422,75.24,76.27,57.43,58.23,70.49,70.53,40.72,-2.994,51.19,25.63,17.06,-23.82,46.86,7.295,24.05,3.808,0,0,0,0,0,0,0,0,0,0,0,0,0,0,0,0,
423,72.57,57.45,77.53,29.21,68.44,58.16,51.89,-14.13,78.07,33.33,33.04,-2.085,43.37,26.54,21.05,29.07,0,0,0,0,0,0,0,0,0,0,0,0,0,0,0,0,
424,32.96,29.7,41.04,3.452,24.04,18.8,2.639,-13.67,44.07,15.92,9.358,15.93,2.958,26.44,-4.447,13.18,0,0,0,0,0,0,0,0,0,0,0,0,0,0,0,0,
425,-1.772,17.33,-4.15,7.406,-14.07,-1.427,-45.11,-1.226,-12.26,-2.439,-12.03,32.27,-23.59,23.3,-21.02,-2.32,0,0,0,0,0,0,0,0,0,0,0,0,0,0,0,0,
426,-5.848,36.1,-7.059,17.12,-4.497,13.65,-39.97,16.69,-19.23,14.58,-7.413,33.3,-11.59,24.83,-15.06,2.929,0,0,0,0,0,0,0,0,0,0,0,0,0,0,0,0,
427,30.92,69.89,23.37,42.55,37.5,40.27,2.004,31.17,23.29,36.39,7.203,16.18,11.4,19.85,-5.863,1.844,0,0,0,0,0,0,0,0,0,0,0,0,0,0,0,0,
428,95.46,111.9,58.11,86.55,77.58,71.9,29.39,32.34,57.27,36.93,4.023,8.68,20.01,16.6,-5.748,-9.662,0,0,0,0,0,0,0,0,0,0,0,0,0,0,0,0,
429,166.7,185.0,94.74,121.6,115.0,119.4,42.09,32.62,76.52,55.98,7.542,26.23,41.07,34.88,11.6,1.824,0,0,0,0,0,0,0,0,0,0,0,0,0,0,0,0,
430,227.6,263.8,123.7,148.8,131.3,144.7,46.69,48.89,93.18,84.13,20.04,31.14,59.11,39.82,19.23,13.36,0,0,0,0,0,0,0,0,0,0,0,0,0,0,0,0,
431,269.2,315.2,129.4,154.9,100.1,111.0,9.629,48.34,63.17,60.44,-4.316,13.16,27.76,12.34,-11.19,5.078,0,0,0,0,0,0,0,0,0,0,0,0,0,0,0,0,
432,305.0,353.8,129.7,132.1,62.2,64.92,-24.27,28.71,-2.832,15.56,-25.75,13.88,1.911,5.558,-13.45,14.0,0,0,0,0,0,0,0,0,0,0,0,0,0,0,0,0,
433,358.7,379.1,151.3,133.5,66.76,58.48,-6.447,29.3,-17.96,11.19,2.899,22.18,23.58,24.51,18.3,25.62,0,0,0,0,0,0,0,0,0,0,0,0,0,0,0,0,
434,424.6,402.1,187.0,165.0,98.92,84.01,-13.96,32.25,12.38,26.06,11.53,17.39,21.23,28.67,8.44,10.74,0,0,0,0,0,0,0,0,0,0,0,0,0,0,0,0,
435,461.6,442.5,194.7,170.8,122.4,119.8,-53.16,32.66,20.3,37.98,-31.08,30.72,-22.22,26.49,-25.61,0.9637,0,0,0,0,0,0,0,0,0,0,0,0,0,0,0,0,
436,450.8,453.5,151.4,158.1,118.1,133.9,-44.88,43.94,12.16,51.49,-60.91,44.82,-44.63,21.32,-32.58,3.286,0,0,0,0,0,0,0,0,0,0,0,0,0,0,0,0,
437,423.2,419.9,107.5,160.7,95.71,105.4,-16.99,21.81,9.763,37.52,-57.48,23.61,-34.37,2.335,-31.56,-4.495,0,0,0,0,0,0,0,0,0,0,0,0,0,0,0,0,
438,409.7,392.9,130.5,159.2,92.47,73.53,9.889,-7.62,11.57,-1.225,-36.1,5.865,-8.417,-1.823,-29.84,-12.61,0,0,0,0,0,0,0,0,0,0,0,0,0,0,0,0,
439,407.4,370.0,201.1,147.7,109.0,70.08,52.54,27.19,30.2,-7.766,-1.621,15.69,20.82,17.41,-12.06,-16.05,0,0,0,0,0,0,0,0,0,0,0,0,0,0,0,0,
440,384.3,332.1,230.0,152.2,95.0,69.81,46.63,66.8,44.06,20.47,11.82,26.3,24.7,27.84,-2.697,-23.34,0,0,0,0,0,0,0,0,0,0,0,0,0,0,0,0,
441,322.4,298.2,171.8,156.5,44.93,55.12,-6.031,52.34,17.69,37.88,-13.47,32.15,-0.2061,17.98,-14.08,-22.24,0,0,0,0,0,0,0,0,0,0,0,0,0,0,0,0,
442,254.0,263.8,88.38,130.4,7.576,29.98,-25.17,33.74,-22.28,30.23,-33.0,28.37,-25.92,-4.48,-15.34,-12.75,0,0,0,0,0,0,0,0,0,0,0,0,0,0,0,0,
443,203.8,218.7,61.7,91.86,3.437,9.082,-7.109,21.1,-34.02,4.801,-19.31,9.6,-32.26,-20.05,0.9141,-3.583,0,0,0,0,0,0,0,0,0,0,0,0,0,0,0,0,
444,169.3,179.7,70.41,66.8,30.12,25.71,37.2,-12.7,-5.688,-12.26,5.442,7.631,-10.56,-4.31,15.75,22.59,0,0,0,0,0,0,0,0,0,0,0,0,0,0,0,0,
445,142.8,148.3,63.12,58.09,66.86,57.14,80.15,-31.45,40.87,3.377,17.34,20.75,14.11,15.93,17.34,37.32,0,0,0,0,0,0,0,0,0,0,0,0,0,0,0,0,
446,98.15,111.9,49.05,62.47,50.31,34.6,63.8,-6.011,46.48,13.1,6.736,10.55,5.409,2.941,0.2931,-3.135,0,0,0,0,0,0,0,0,0,0,0,0,0,0,0,0,
447,42.16,69.27,23.34,63.37,-25.02,-21.95,26.93,22.25,3.2,-10.59,-14.19,-0.5064,-12.52,-9.588,-17.51,-36.87,0,0,0,0,0,0,0,0,0,0,0,0,0,0,0,0,
448,3.218,18.56,-12.27,41.15,-71.12,-48.38,22.43,17.17,-26.95,-21.46,-20.99,13.48,-7.569,5.726,-16.67,-23.23,0,0,0,0,0,0,0,0,0,0,0,0,0,0,0,0,
449,-28.44,-26.74,-4.21,11.86,-48.07,-44.53,30.93,7.124,-26.7,-6.074,-3.495,18.18,5.332,15.1,-3.74,-22.15,0,0,0,0,0,0,0,0,0,0,0,0,0,0,0,0,
450,-27.75,-28.48,29.45,16.86,-1.892,-20.05,40.4,20.37,-14.09,-1.099,28.12,7.182,16.64,6.271,11.71,-35.23,0,0,0,0,0,0,0,0,0,0,0,0,0,0,0,0,
451,6.759,-0.7231,17.34,43.8,18.5,13.95,27.26,24.25,3.474,-7.013,33.03,8.557,14.19,-0.1381,9.909,-25.97,0,0,0,0,0,0,0,0,0,0,0,0,0,0,0,0,
452,-15.04,-7.713,-26.54,31.84,0.837,15.98,0.135,0.9428,-2.758,-5.103,-8.174,19.93,-13.53,2.671,-13.15,-10.96,0,0,0,0,0,0,0,0,0,0,0,0,0,0,0,0,
453,-80.83,-46.74,-47.88,-6.829,-33.55,-21.66,11.56,-12.21,-31.77,-4.322,-42.68,16.93,-32.4,0.4343,-23.23,-5.971,0,0,0,0,0,0,0,0,0,0,0,0,0,0,0,0,
454,-99.19,-75.17,-26.43,-23.62,-61.82,-65.52,25.47,-17.72,-43.14,-25.17,-35.69,-11.88,-23.13,-20.86,-16.91,-16.96,0,0,0,0,0,0,0,0,0,0,0,0,0,0,0,0,
455,-85.87,-92.59,17.93,-40.4,-63.27,-78.27,25.82,-39.72,-33.64,-53.0,-3.272,-33.24,1.944,-32.31,-4.129,-33.03,0,0,0,0,0,0,0,0,0,0,0,0,0,0,0,0,
456,-67.48,-89.94,35.78,-51.73,-27.38,-44.97,65.09,-36.63,-11.68,-46.92,39.25,-17.99,32.16,-13.69,21.29,-31.12,0,0,0,0,0,0,0,0,0,0,0,0,0,0,0,0,
457,-47.02,-64.33,11.71,-17.22,-7.071,-14.5,79.83,0.2445,5.636,-21.49,45.2,-2.371,21.89,-8.42,20.27,-32.08,0,0,0,0,0,0,0,0,0,0,0,0,0,0,0,0,
458,-68.65,-59.34,-31.93,14.46,-40.81,-27.42,16.94,3.995,-24.27,-22.7,-10.42,-4.821,-35.84,-21.17,-19.93,-44.52,0,0,0,0,0,0,0,0,0,0,0,0,0,0,0,0,
459,-108.0,-79.39,-71.04,1.72,-67.14,-44.4,-39.26,-24.96,-70.19,-35.01,-53.44,1.303,-57.68,-8.669,-34.9,-34.47,0,0,0,0,0,0,0,0,0,0,0,0,0,0,0,0,
460,-102.8,-93.45,-72.31,-14.07,-52.04,-42.38,-44.64,-28.96,-63.96,-28.05,-37.26,2.199,-24.47,11.26,-16.57,-5.886,0,0,0,0,0,0,0,0,0,0,0,0,0,0,0,0,
461,-84.96,-102.4,-38.44,-18.74,-38.72,-44.56,-14.19,-11.76,-36.23,-18.75,-9.713,-22.81,-0.8974,3.8,-12.49,7.124,0,0,0,0,0,0,0,0,0,0,0,0,0,0,0,0,
462,-84.81,-96.39,-9.164,-18.57,-33.91,-41.89,26.28,-12.83,-29.84,-21.35,-1.719,-41.66,2.143,-12.06,-14.18,0.7617,0,0,0,0,0,0,0,0,0,0,0,0,0,0,0,0,
463,-80.61,-63.31,1.35,1.366,-21.95,-20.02,26.67,-38.4,-17.53,-21.6,-3.39,-27.02,4.202,-14.56,-4.045,-6.836,0,0,0,0,0,0,0,0,0,0,0,0,0,0,0,0,
464,-85.99,-44.5,-17.45,18.73,-21.96,-9.758,1.598,-57.47,-4.99,-20.5,-15.59,-4.282,-7.642,-18.27,-5.256,-12.66,0,0,0,0,0,0,0,0,0,0,0,0,0,0,0,0,
465,-109.7,-70.01,-61.07,-3.817,-38.32,-33.5,-9.972,-48.22,-23.51,-40.55,-31.17,-0.1506,-27.45,-33.98,-14.65,-18.05,0,0,0,0,0,0,0,0,0,0,0,0,0,0,0,0,
466,-119.6,-103.9,-78.35,-45.93,-50.63,-62.03,-28.94,-33.51,-43.09,-67.47,-29.22,5.242,-28.99,-37.12,-14.07,-13.89,0,0,0,0,0,0,0,0,0,0,0,0,0,0,0,0,
467,-111.5,-106.6,-49.36,-54.75,-55.12,-64.96,-42.68,-34.99,-42.85,-60.46,-23.51,17.15,-26.95,-24.52,-28.38,-16.09,0,0,0,0,0,0,0,0,0,0,0,0,0,0,0,0,
468,-97.32,-83.96,-15.64,-17.78,-55.68,-51.29,-9.427,-37.81,-50.05,-31.96,-35.7,2.889,-41.91,-29.27,-58.88,-35.61,0,0,0,0,0,0,0,0,0,0,0,0,0,0,0,0,
469,-87.79,-62.44,-18.42,18.99,-55.25,-40.05,31.04,-30.89,-55.91,-23.05,-48.19,-33.11,-53.35,-47.16,-65.84,-44.59,0,0,0,0,0,0,0,0,0,0,0,0,0,0,0,0,
470,-103.2,-59.23,-48.64,4.735,-61.89,-41.41,5.413,-37.95,-43.92,-37.51,-52.82,-62.63,-50.8,-55.87,-48.85,-38.42,0,0,0,0,0,0,0,0,0,0,0,0,0,0,0,0,
471,-112.3,-73.32,-53.19,-51.4,-59.84,-48.49,-46.21,-76.34,-36.61,-55.9,-42.54,-69.57,-33.45,-49.66,-12.66,-20.11,0,0,0,0,0,0,0,0,0,0,0,0,0,0,0,0,
472,-80.04,-79.72,-26.09,-83.55,-28.63,-36.47,-26.84,-97.83,-20.75,-53.35,8.159,-34.9,10.11,-14.44,39.0,19.27,0,0,0,0,0,0,0,0,0,0,0,0,0,0,0,0,
473,-54.06,-63.6,-23.97,-58.39,-1.277,-13.24,4.22,-59.28,17.79,-26.02,49.76,18.95,41.71,31.63,50.66,45.0,0,0,0,0,0,0,0,0,0,0,0,0,0,0,0,0,
474,-64.62,-48.7,-54.6,-21.16,-8.706,-5.641,-38.66,-14.37,27.31,-4.822,25.09,50.52,27.01,54.19,16.79,40.95,0,0,0,0,0,0,0,0,0,0,0,0,0,0,0,0,
475,-80.92,-49.52,-72.73,-13.77,-21.31,0.2278,-55.4,-5.934,0.3177,6.202,-7.473,71.09,10.1,67.61,-3.083,42.91,0,0,0,0,0,0,0,0,0,0,0,0,0,0,0,0,
476,-89.34,-55.6,-59.55,-27.88,-20.15,6.393,-4.139,-1.317,-9.596,25.69,-7.418,80.1,11.18,71.61,-7.665,45.42,0,0,0,0,0,0,0,0,0,0,0,0,0,0,0,0,
477,-90.21,-70.66,-30.98,-50.31,-21.64,-13.86,16.17,-4.974,-1.323,30.72,-5.219,47.37,4.924,39.4,-9.617,22.45,0,0,0,0,0,0,0,0,0,0,0,0,0,0,0,0,
478,-81.98,-86.86,-14.96,-60.28,-26.43,-39.66,8.756,-36.71,0.3335,-0.4307,4.146,-2.44,-0.9673,-8.159,7.013,-5.333,0,0,0,0,0,0,0,0,0,0,0,0,0,0,0,0,
479,-64.9,-79.49,-19.74,-41.51,-26.65,-38.27,6.439,-56.41,-2.976,-39.37,20.77,-24.81,0.4657,-38.8,26.75,-10.14,0,0,0,0,0,0,0,0,0,0,0,0,0,0,0,0,
480,-47.17,-62.08,-34.34,-30.43,-24.02,-25.8,-9.141,-49.62,-6.085,-54.66,22.33,-22.35,2.397,-43.73,35.7,2.537,0,0,0,0,0,0,0,0,0,0,0,0,0,0,0,0,
481,-55.09,-55.37,-61.27,-42.41,-26.58,-23.3,-10.69,-41.97,-6.334,-47.48,14.56,-13.51,5.512,-19.92,33.69,11.66,0,0,0,0,0,0,0,0,0,0,0,0,0,0,0,0,
482,-77.99,-54.23,-78.61,-40.58,-38.63,-29.39,-5.045,-32.08,-18.25,-37.4,0.4616,-2.452,1.057,10.26,13.31,15.28,0,0,0,0,0,0,0,0,0,0,0,0,0,0,0,0,
483,-75.72,-61.98,-48.13,-37.74,-33.8,-26.84,-11.84,-24.73,-36.33,-26.19,2.771,18.62,11.0,31.79,8.313,33.7,0,0,0,0,0,0,0,0,0,0,0,0,0,0,0,0,
484,-53.92,-68.51,-3.233,-52.47,1.02,-3.085,9.616,-26.59,-7.473,5.223,43.86,49.23,55.71,60.39,39.27,64.15,0,0,0,0,0,0,0,0,0,0,0,0,0,0,0,0,
485,-37.88,-60.05,5.282,-48.76,16.39,13.9,26.45,-15.72,42.67,36.36,58.87,59.16,68.98,70.39,45.9,62.82,0,0,0,0,0,0,0,0,0,0,0,0,0,0,0,0,
486,-41.64,-60.99,-9.993,-35.8,-8.022,1.892,-5.367,-2.405,25.04,20.06,15.84,30.85,17.15,24.3,7.094,16.43,0,0,0,0,0,0,0,0,0,0,0,0,0,0,0,0,
487,-61.06,-64.66,-27.13,-41.65,-23.14,-14.01,-11.78,-12.73,-21.63,-31.5,-6.816,-5.568,-22.29,-35.53,-17.1,-21.34,0,0,0,0,0,0,0,0,0,0,0,0,0,0,0,0,
488,-67.35,-47.83,-38.56,-51.85,-22.93,-31.81,22.92,-30.5,-18.23,-75.37,4.232,-27.65,-23.02,-58.11,-17.35,-25.04,0,0,0,0,0,0,0,0,0,0,0,0,0,0,0,0,
489,-68.5,-54.34,-43.58,-69.86,-41.91,-66.87,13.45,-49.99,-14.88,-100.6,-10.06,-40.74,-31.69,-55.37,-28.97,-25.56,0,0,0,0,0,0,0,0,0,0,0,0,0,0,0,0,
490,-80.48,-86.26,-44.78,-71.35,-56.44,-78.31,-23.47,-66.0,-43.04,-96.91,-30.36,-35.27,-33.82,-37.9,-42.53,-26.79,0,0,0,0,0,0,0,0,0,0,0,0,0,0,0,0,
491,-68.52,-76.2,-30.24,-30.07,-41.06,-44.36,-18.39,-38.76,-36.45,-57.47,-29.07,-11.9,-11.96,-8.296,-54.58,-25.1,0,0,0,0,0,0,0,0,0,0,0,0,0,0,0,0,
492,-43.14,-46.21,-26.81,-17.76,-33.43,-20.84,-20.35,8.742,-5.043,-18.92,-43.5,-5.564,-11.37,1.526,-79.79,-39.33,0,0,0,0,0,0,0,0,0,0,0,0,0,0,0,0,
493,-45.31,-46.61,-53.18,-42.06,-39.58,-22.91,-52.44,15.62,-11.94,-16.46,-59.17,-21.07,-26.54,-14.86,-85.78,-52.99,0,0,0,0,0,0,0,0,0,0,0,0,0,0,0,0,
494,-41.04,-42.73,-40.9,-32.16,-17.56,-9.387,-21.96,6.817,-20.36,-28.44,-33.38,-31.72,-18.39,-30.22,-65.59,-50.52,0,0,0,0,0,0,0,0,0,0,0,0,0,0,0,0,
495,-22.52,-42.08,-8.389,-30.04,8.991,-2.933,28.93,9.194,-2.839,-32.16,-15.86,-41.61,-25.13,-48.33,-72.08,-59.79,0,0,0,0,0,0,0,0,0,0,0,0,0,0,0,0,
496,-44.42,-85.24,-52.97,-51.43,-15.01,-38.28,-22.25,-7.546,-24.2,-52.49,-43.84,-47.16,-67.09,-67.64,-92.47,-70.15,0,0,0,0,0,0,0,0,0,0,0,0,0,0,0,0,
497,-90.26,-116.5,-115.3,-41.9,-70.11,-76.13,-93.06,-32.66,-80.34,-81.04,-63.98,-22.53,-86.82,-58.48,-74.97,-44.5,0,0,0,0,0,0,0,0,0,0,0,0,0,0,0,0,
498,-115.7,-111.3,-116.3,-56.98,-114.1,-98.81,-87.87,-38.42,-103.0,-75.08,-52.03,-1.99,-67.45,-42.64,-40.84,-9.787,0,0,0,0,0,0,0,0,0,0,0,0,0,0,0,0,
499,-125.6,-125.4,-97.24,-99.47,-132.3,-122.0,-63.36,-29.89,-93.53,-65.48,-22.66,-23.26,-34.63,-52.31,-14.56,4.512,0,0,0,0,0,0,0,0,0,0,0,0,0,0,0,0,
500,-110.5,-140.3,-62.86,-86.93,-115.5,-122.9,-32.0,-14.12,-70.12,-82.52,12.32,-39.18,-4.646,-56.15,5.364,13.97,0,0,0,0,0,0,0,0,0,0,0,0,0,0,0,0,
501,-81.18,-130.1,-20.87,-73.56,-87.44,-106.5,4.337,-16.52,-41.79,-81.25,15.01,-24.73,-3.948,-44.41,-5.885,5.458,0,0,0,0,0,0,0,0,0,0,0,0,0,0,0,0,
502,-80.45,-124.0,-31.49,-84.73,-78.75,-99.37,-7.393,-33.04,-37.12,-58.95,-8.451,-14.2,-23.19,-38.03,-29.85,-23.27,0,0,0,0,0,0,0,0,0,0,0,0,0,0,0,0,
503,-94.72,-107.9,-76.38,-60.67,-78.57,-84.46,-43.46,-15.63,-44.41,-43.53,-11.28,-7.923,-32.57,-25.01,-23.15,-25.21,0,0,0,0,0,0,0,0,0,0,0,0,0,0,0,0,
504,-108.9,-98.64,-109.1,-62.86,-88.37,-75.7,-63.87,-0.9515,-53.8,-25.01,-8.098,-0.2031,-50.34,-16.84,-13.87,-7.518,0,0,0,0,0,0,0,0,0,0,0,0,0,0,0,0,
505,-128.2,-134.3,-115.2,-99.35,-108.3,-91.7,-64.49,-32.58,-79.82,-21.28,-3.815,-3.138,-66.03,-30.97,-17.6,-7.336,0,0,0,0,0,0,0,0,0,0,0,0,0,0,0,0,
506,-114.1,-146.3,-78.41,-80.69,-96.27,-83.79,-26.7,-37.6,-78.38,-39.66,23.96,-2.851,-42.4,-31.52,-11.01,-10.77,0,0,0,0,0,0,0,0,0,0,0,0,0,0,0,0,
507,-73.5,-106.4,-48.46,-56.59,-52.61,-47.13,12.89,0.0303,-33.8,-37.75,35.2,3.744,-10.88,-14.26,-12.85,-9.499,0,0,0,0,0,0,0,0,0,0,0,0,0,0,0,0,
508,-60.59,-83.51,-77.96,-65.99,-33.32,-34.64,-4.226,4.567,-7.888,-24.11,15.18,-2.148,-3.849,-15.45,-25.04,-12.24,0,0,0,0,0,0,0,0,0,0,0,0,0,0,0,0,
509,-71.98,-85.28,-109.2,-57.93,-56.25,-52.01,-54.45,-18.63,-15.46,-36.63,2.262,-19.54,-11.48,-32.91,-21.95,-16.74,0,0,0,0,0,0,0,0,0,0,0,0,0,0,0,0,
510,-90.57,-92.21,-99.84,-65.55,-80.42,-72.23,-78.64,-24.31,-34.94,-56.18,-2.932,-32.47,-25.66,-43.9,-12.81,-16.94,0,0,0,0,0,0,0,0,0,0,0,0,0,0,0,0,
511,-101.3,-101.8,-81.46,-85.83,-64.93,-69.72,-47.67,-14.9,-50.05,-47.94,7.577,-21.69,-20.46,-31.22,3.279,4.418,0,0,0,0,0,0,0,0,0,0,0,0,0,0,0,0,
512,-76.95,-95.29,-63.82,-55.38,-31.72,-39.31,-6.15,-4.482,-33.74,-13.7,39.55,10.87,9.81,4.708,26.67,35.09,0,0,0,0,0,0,0,0,0,0,0,0,0,0,0,0,
513,-34.9,-72.86,-45.72,-17.47,-13.42,-2.832,-18.03,4.553,-3.177,25.6,47.27,31.43,25.07,33.39,26.05,35.89,0,0,0,0,0,0,0,0,0,0,0,0,0,0,0,0,
514,-5.84,-32.35,-32.55,-10.92,13.12,31.73,-34.68,24.89,10.02,55.28,23.58,18.96,14.48,28.27,-1.206,7.992,0,0,0,0,0,0,0,0,0,0,0,0,0,0,0,0,
515,-0.3951,12.07,-19.43,-17.07,35.9,43.75,-7.336,38.41,14.23,53.38,-3.478,-14.71,-4.404,-9.577,-30.4,-20.82,0,0,0,0,0,0,0,0,0,0,0,0,0,0,0,0,
516,-11.96,7.706,-19.86,-37.28,16.17,11.81,-8.862,10.58,9.682,9.996,-23.59,-36.8,-9.015,-42.08,-34.59,-21.92,0,0,0,0,0,0,0,0,0,0,0,0,0,0,0,0,
517,-5.955,-21.36,-25.05,-30.18,-0.2939,-13.06,-47.49,-11.05,4.793,-23.86,-13.45,-30.3,16.61,-34.7,-7.52,0.7922,0,0,0,0,0,0,0,0,0,0,0,0,0,0,0,0,
518,11.95,-16.61,-0.3519,12.6,16.94,4.784,-34.23,8.885,12.22,-10.16,11.44,-17.59,33.99,-16.76,5.445,3.481,0,0,0,0,0,0,0,0,0,0,0,0,0,0,0,0,
519,10.47,4.084,18.68,15.28,21.24,27.47,14.22,12.11,3.867,16.95,5.983,-8.263,17.07,-11.14,-8.824,-4.578,0,0,0,0,0,0,0,0,0,0,0,0,0,0,0,0,
520,7.136,17.6,-11.85,-14.2,8.763,35.6,15.88,0.3188,-16.98,33.63,-10.29,-1.002,0.7576,-4.218,-14.97,2.987,0,0,0,0,0,0,0,0,0,0,0,0,0,0,0,0,
521,-0.892,5.93,-48.99,-33.04,0.5848,23.89,-29.33,16.15,-21.26,32.57,-21.1,-14.64,-12.13,-16.29,-22.34,-5.346,0,0,0,0,0,0,0,0,0,0,0,0,0,0,0,0,
522,-27.23,-42.03,-53.86,-55.31,-12.46,-10.84,-72.17,17.55,-26.25,1.142,-38.62,-28.18,-29.9,-41.44,-33.46,-21.68,0,0,0,0,0,0,0,0,0,0,0,0,0,0,0,0,
523,-27.75,-57.6,-35.99,-43.59,-17.14,-25.23,-63.06,-1.277,-26.51,-23.93,-31.41,-9.867,-21.25,-32.25,-21.68,-10.65,0,0,0,0,0,0,0,0,0,0,0,0,0,0,0,0,
524,6.734,-4.42,-14.84,14.11,-3.58,-0.6188,-3.11,11.57,-1.257,-10.85,-8.874,7.453,-4.331,-8.263,-18.64,-2.563,0,0,0,0,0,0,0,0,0,0,0,0,0,0,0,0,
525,23.55,40.16,-23.43,39.38,0.9574,20.01,10.85,21.74,-1.942,8.528,-35.51,0.8146,-30.84,-9.577,-51.44,-22.42,0,0,0,0,0,0,0,0,0,0,0,0,0,0,0,0,
526,6.142,29.32,-50.12,24.76,-9.959,13.9,-46.49,-0.9856,-53.55,11.92,-81.53,-6.802,-70.62,-21.94,-70.62,-39.44,0,0,0,0,0,0,0,0,0,0,0,0,0,0,0,0,
527,-13.69,-8.026,-34.38,0.1135,-15.57,-5.997,-47.12,-12.3,-80.39,5.475,-66.64,-9.503,-57.13,-28.05,-41.79,-27.02,0,0,0,0,0,0,0,0,0,0,0,0,0,0,0,0,
528,-14.77,-46.13,11.29,-49.44,-14.44,-27.09,21.57,-22.74,-44.65,-7.383,-8.653,-13.37,-7.843,-28.04,-1.057,-3.452,0,0,0,0,0,0,0,0,0,0,0,0,0,0,0,0,
529,-13.01,-62.64,32.46,-79.25,-21.54,-42.63,33.37,-39.69,-11.76,-18.47,32.46,-13.57,11.33,-27.81,11.91,-1.172,0,0,0,0,0,0,0,0,0,0,0,0,0,0,0,0,
530,-19.53,-40.16,29.79,-47.56,-37.39,-51.26,19.23,-9.332,-23.84,-25.28,47.37,-11.43,-4.81,-36.59,0.2266,-18.44,0,0,0,0,0,0,0,0,0,0,0,0,0,0,0,0,
531,-24.84,-14.47,-3.195,-21.31,-58.53,-60.19,43.4,25.03,-51.64,-35.27,26.2,-17.85,-35.47,-55.19,-27.53,-42.4,0,0,0,0,0,0,0,0,0,0,0,0,0,0,0,0,
532,-41.58,-36.13,-65.06,-42.93,-85.71,-75.05,8.405,-2.767,-86.27,-48.93,-37.99,-32.16,-80.22,-73.36,-61.95,-63.73,0,0,0,0,0,0,0,0,0,0,0,0,0,0,0,0,
533,-69.27,-75.72,-75.32,-62.19,-86.97,-74.59,-64.74,-30.8,-120.1,-51.27,-81.51,-40.46,-97.57,-72.25,-70.77,-66.75,0,0,0,0,0,0,0,0,0,0,0,0,0,0,0,0,
534,-67.6,-72.08,-16.09,-40.8,-43.64,-43.12,-43.95,-24.54,-100.5,-28.02,-66.43,-47.28,-65.08,-59.24,-57.81,-67.99,0,0,0,0,0,0,0,0,0,0,0,0,0,0,0,0,
535,-32.53,-40.95,13.56,-9.578,-13.42,-17.76,4.85,-20.51,-44.99,-6.96,-46.78,-59.0,-43.05,-67.54,-57.79,-82.5,0,0,0,0,0,0,0,0,0,0,0,0,0,0,0,0,
536,-3.987,-25.29,-14.18,-17.7,-25.47,-23.1,5.94,-12.36,-24.43,-19.66,-39.27,-56.59,-42.81,-84.7,-56.53,-78.43,0,0,0,0,0,0,0,0,0,0,0,0,0,0,0,0,
537,-8.701,-30.23,-39.7,-43.11,-39.03,-37.75,22.36,-11.06,-20.14,-38.04,-21.44,-37.54,-28.03,-73.82,-38.83,-44.89,0,0,0,0,0,0,0,0,0,0,0,0,0,0,0,0,
538,-35.17,-44.07,-40.74,-34.59,-46.82,-50.12,37.98,-32.89,-9.61,-33.35,-12.31,-11.72,-18.37,-37.11,-20.15,-3.311,0,0,0,0,0,0,0,0,0,0,0,0,0,0,0,0,
539,-44.38,-48.76,-27.12,-28.67,-46.29,-44.04,24.68,-24.53,-18.05,-12.71,-3.015,24.15,-9.504,7.354,9.12,32.48,0,0,0,0,0,0,0,0,0,0,0,0,0,0,0,0,
540,-34.33,-51.99,-18.83,-56.58,-10.21,-4.315,28.4,21.54,-13.48,20.36,23.16,46.38,22.59,36.44,38.03,41.58,0,0,0,0,0,0,0,0,0,0,0,0,0,0,0,0,
541,-22.29,-55.34,-17.4,-44.06,31.21,33.94,30.96,41.36,14.06,50.03,20.81,30.31,28.68,27.88,23.41,18.65,0,0,0,0,0,0,0,0,0,0,0,0,0,0,0,0,
542,15.0,-16.18,5.295,21.88,34.29,35.29,11.02,24.73,10.67,50.44,-14.51,1.581,-8.914,-1.786,-12.69,-2.012,0,0,0,0,0,0,0,0,0,0,0,0,0,0,0,0,
543,43.02,26.04,14.28,37.12,7.05,5.368,-11.94,3.185,-13.32,27.45,-31.13,-10.52,-30.04,-15.06,-18.79,4.453,0,0,0,0,0,0,0,0,0,0,0,0,0,0,0,0,
544,-7.113,-6.576,-35.32,-17.15,-31.73,-30.21,-36.25,-13.64,-23.89,6.59,-26.95,-11.65,-19.27,-4.572,-7.273,18.98,0,0,0,0,0,0,0,0,0,0,0,0,0,0,0,0,
545,-66.06,-53.09,-77.28,-54.52,-47.94,-36.3,-27.19,-22.22,-26.95,0.7542,-20.35,-20.55,-6.756,1.912,-2.462,16.6,0,0,0,0,0,0,0,0,0,0,0,0,0,0,0,0,
546,-45.63,-43.6,-53.15,-46.99,-13.64,-5.162,10.97,-22.52,-14.39,0.8823,-5.745,-31.08,1.126,-2.79,9.169,14.97,0,0,0,0,0,0,0,0,0,0,0,0,0,0,0,0,
547,4.499,-13.04,-13.61,-25.57,27.82,30.32,8.784,-24.5,3.104,4.938,5.524,-18.48,5.876,9.243,25.9,33.82,0,0,0,0,0,0,0,0,0,0,0,0,0,0,0,0,
548,20.94,4.696,-25.24,-3.204,24.09,36.07,-16.86,-22.03,-4.506,22.29,-3.935,4.021,2.211,28.17,26.97,46.04,0,0,0,0,0,0,0,0,0,0,0,0,0,0,0,0,
549,1.509,0.9317,-72.11,5.673,-5.967,8.067,-22.24,-5.015,-15.83,32.83,-15.08,12.99,-3.643,27.86,23.47,40.99,0,0,0,0,0,0,0,0,0,0,0,0,0,0,0,0,
550,-21.57,-11.77,-68.25,-15.88,-16.76,-14.2,-17.62,7.448,-2.885,28.87,-3.316,19.18,0.9198,29.33,29.89,42.42,0,0,0,0,0,0,0,0,0,0,0,0,0,0,0,0,
551,-8.983,-11.75,-5.401,-37.93,3.757,-1.137,12.46,7.168,23.11,35.37,15.45,13.66,13.55,33.26,27.04,35.97,0,0,0,0,0,0,0,0,0,0,0,0,0,0,0,0,
552,21.74,-1.42,24.62,-23.89,33.18,20.39,51.25,14.16,45.07,36.31,14.09,-14.17,15.25,16.06,5.373,3.704,0,0,0,0,0,0,0,0,0,0,0,0,0,0,0,0,
553,41.01,23.51,9.142,0.9041,42.22,30.0,37.59,22.16,42.93,15.33,-6.603,-33.29,-7.463,-5.151,-18.77,-21.58,0,0,0,0,0,0,0,0,0,0,0,0,0,0,0,0,
554,55.85,44.19,3.163,10.08,30.35,37.38,0.5545,17.41,8.473,1.322,-23.88,-35.25,-33.05,-16.41,-25.58,-16.92,0,0,0,0,0,0,0,0,0,0,0,0,0,0,0,0,
555,56.14,40.61,13.9,20.6,27.26,43.46,3.17,11.34,-15.15,2.196,-6.291,-27.05,-18.55,-9.464,5.463,13.32,0,0,0,0,0,0,0,0,0,0,0,0,0,0,0,0,
556,57.89,62.03,42.2,28.15,43.75,52.1,32.43,8.79,10.11,17.94,42.94,4.251,28.34,32.83,56.78,59.12,0,0,0,0,0,0,0,0,0,0,0,0,0,0,0,0,
557,107.2,119.6,83.13,32.98,62.92,68.82,58.02,16.8,46.51,51.38,72.7,33.21,52.57,70.26,71.24,79.17,0,0,0,0,0,0,0,0,0,0,0,0,0,0,0,0,
558,178.7,173.1,108.5,64.02,79.08,82.66,66.14,33.87,54.77,67.91,65.18,24.27,44.02,60.42,45.43,48.93,0,0,0,0,0,0,0,0,0,0,0,0,0,0,0,0,
559,228.4,230.2,121.8,85.94,90.04,88.24,55.18,31.33,53.69,55.15,52.36,-0.5699,33.7,36.16,29.67,10.96,0,0,0,0,0,0,0,0,0,0,0,0,0,0,0,0,
560,279.4,292.9,142.3,71.71,99.23,100.9,55.67,19.28,55.62,46.08,48.48,-8.634,34.55,30.48,38.33,3.495,0,0,0,0,0,0,0,0,0,0,0,0,0,0,0,0,
561,374.4,365.0,187.0,107.0,140.7,142.3,72.13,30.39,65.19,60.2,47.37,2.499,49.48,40.39,52.24,18.34,0,0,0,0,0,0,0,0,0,0,0,0,0,0,0,0,
562,502.6,468.7,261.1,202.1,215.7,204.0,74.67,52.07,98.08,90.67,48.59,13.04,68.08,49.76,58.38,30.59,0,0,0,0,0,0,0,0,0,0,0,0,0,0,0,0,
563,587.0,552.2,308.9,238.9,260.5,239.8,73.18,65.9,125.2,103.8,52.03,5.172,63.73,38.04,51.36,28.56,0,0,0,0,0,0,0,0,0,0,0,0,0,0,0,0,
564,585.7,555.2,284.4,213.8,239.9,223.6,76.73,60.62,112.6,79.76,52.12,-4.861,38.72,17.85,35.55,27.13,0,0,0,0,0,0,0,0,0,0,0,0,0,0,0,0,
565,543.7,505.4,230.1,204.0,190.8,179.8,78.08,36.04,88.91,53.16,49.25,-0.1688,26.3,11.77,22.33,29.36,0,0,0,0,0,0,0,0,0,0,0,0,0,0,0,0,
566,500.4,454.5,198.9,183.6,164.4,147.5,91.99,33.87,88.68,46.96,53.21,4.308,38.4,8.648,17.4,18.91,0,0,0,0,0,0,0,0,0,0,0,0,0,0,0,0,
567,477.5,433.0,208.6,153.2,170.2,140.9,87.55,53.16,100.5,47.52,49.59,-5.234,41.67,-1.522,6.665,-4.981,0,0,0,0,0,0,0,0,0,0,0,0,0,0,0,0,
568,486.5,438.6,254.5,178.4,175.5,144.5,46.28,46.92,87.16,48.28,22.42,-23.84,12.46,-13.92,-18.5,-35.17,0,0,0,0,0,0,0,0,0,0,0,0,0,0,0,0,
569,476.0,435.1,285.3,206.9,164.5,147.0,36.09,43.98,46.68,47.53,4.025,-31.78,-13.96,-17.99,-27.57,-46.81,0,0,0,0,0,0,0,0,0,0,0,0,0,0,0,0,
570,410.9,398.7,235.2,169.0,145.6,143.7,52.32,65.91,24.81,46.51,3.265,-27.27,-14.93,-12.04,-14.73,-24.23,0,0,0,0,0,0,0,0,0,0,0,0,0,0,0,0,
571,321.7,324.4,124.8,113.9,109.7,112.4,41.55,53.64,28.6,41.18,-4.652,-36.39,-13.52,-19.49,-9.881,-1.372,0,0,0,0,0,0,0,0,0,0,0,0,0,0,0,0,
572,231.4,219.0,68.83,71.28,67.19,61.25,35.01,20.34,30.2,20.82,8.828,-39.85,-1.444,-26.59,6.749,19.59,0,0,0,0,0,0,0,0,0,0,0,0,0,0,0,0,
573,162.9,130.6,101.1,51.45,56.72,45.01,33.1,25.43,40.31,12.47,45.47,-7.924,29.01,2.378,36.61,52.73,0,0,0,0,0,0,0,0,0,0,0,0,0,0,0,0,
574,123.4,104.4,97.69,84.98,66.28,62.85,11.05,37.12,60.34,37.9,41.23,14.66,34.13,30.98,20.89,50.09,0,0,0,0,0,0,0,0,0,0,0,0,0,0,0,0,
575,74.89,101.6,20.41,104.0,51.59,60.43,7.507,31.79,54.03,57.76,3.697,7.481,7.049,29.74,-22.67,11.19,0,0,0,0,0,0,0,0,0,0,0,0,0,0,0,0,
576,21.07,64.58,-19.5,60.34,20.59,39.38,15.97,35.35,17.56,54.79,-13.86,6.756,-9.769,28.8,-31.99,-2.781,0,0,0,0,0,0,0,0,0,0,0,0,0,0,0,0,
577,-11.7,8.089,-29.84,27.78,2.341,24.19,6.612,30.6,-9.85,52.34,-9.327,1.076,-2.701,23.72,-13.78,8.733,0,0,0,0,0,0,0,0,0,0,0,0,0,0,0,0,
578,-42.97,-41.11,-68.78,12.0,-3.964,6.51,15.52,16.33,-1.677,42.17,13.59,-20.72,19.7,7.763,11.59,21.44,0,0,0,0,0,0,0,0,0,0,0,0,0,0,0,0,
579,-61.92,-71.49,-46.05,-4.596,3.388,3.639,50.19,27.6,25.37,26.84,42.67,-23.57,43.64,11.25,29.33,37.23,0,0,0,0,0,0,0,0,0,0,0,0,0,0,0,0,
580,-55.15,-67.47,33.01,27.27,17.56,25.99,53.71,47.55,41.97,37.28,39.62,-7.105,45.44,26.01,21.58,54.53,0,0,0,0,0,0,0,0,0,0,0,0,0,0,0,0,
581,-80.73,-63.67,8.127,46.15,-2.7,20.55,-1.413,44.92,34.65,50.57,6.736,2.813,19.2,25.13,2.826,57.36,0,0,0,0,0,0,0,0,0,0,0,0,0,0,0,0,
582,-140.5,-94.83,-98.56,-13.75,-49.49,-26.08,-51.59,20.6,-2.798,28.1,-18.65,0.1488,-16.95,9.818,-18.51,26.99,0,0,0,0,0,0,0,0,0,0,0,0,0,0,0,0,
583,-159.0,-129.0,-124.0,-58.14,-59.91,-55.48,-29.45,-3.12,-46.58,-4.908,-20.78,-15.56,-40.82,-15.33,-42.79,-13.47,0,0,0,0,0,0,0,0,0,0,0,0,0,0,0,0,
584,-141.6,-153.3,-59.46,-50.5,-42.49,-50.2,9.812,3.851,-57.71,-18.53,-9.863,-33.64,-41.0,-37.41,-49.41,-25.34,0,0,0,0,0,0,0,0,0,0,0,0,0,0,0,0,
585,-144.0,-169.3,-15.84,-39.28,-45.7,-40.23,0.5726,13.78,-45.66,-20.82,-4.698,-39.09,-24.68,-40.14,-39.55,-22.61,0,0,0,0,0,0,0,0,0,0,0,0,0,0,0,0,
586,-160.2,-148.7,-40.63,-16.31,-50.68,-33.58,-26.18,-5.442,-34.19,-16.82,-10.25,-37.73,-7.613,-31.43,-26.41,-23.24,0,0,0,0,0,0,0,0,0,0,0,0,0,0,0,0,
587,-166.2,-117.6,-81.36,-10.84,-38.83,-26.86,-49.15,-7.881,-20.13,-8.311,-15.08,-36.34,1.577,-23.76,-7.132,-17.28,0,0,0,0,0,0,0,0,0,0,0,0,0,0,0,0,
588,-164.7,-131.6,-77.6,-53.05,-37.22,-31.13,-52.82,9.584,-7.992,-1.597,-7.482,-28.53,6.907,-17.89,8.949,-2.673,0,0,0,0,0,0,0,0,0,0,0,0,0,0,0,0,
589,-163.5,-172.7,-39.82,-69.78,-48.09,-49.24,-17.44,5.693,-8.997,3.865,13.09,-16.94,8.896,-16.93,13.56,17.07,0,0,0,0,0,0,0,0,0,0,0,0,0,0,0,0,
590,-165.0,-191.0,-18.68,-32.01,-56.4,-62.26,-1.968,1.457,-22.87,-3.287,24.23,-11.6,-2.544,-22.77,9.353,25.17,0,0,0,0,0,0,0,0,0,0,0,0,0,0,0,0,
591,-167.8,-175.3,-41.16,-13.5,-65.92,-61.76,-34.52,0.4975,-36.41,-28.4,2.138,-13.95,-21.34,-30.78,-12.96,2.142,0,0,0,0,0,0,0,0,0,0,0,0,0,0,0,0,
592,-175.7,-158.7,-80.82,-51.76,-75.47,-64.09,-70.27,-10.13,-38.47,-46.48,-46.27,-28.14,-38.1,-45.7,-50.53,-32.99,0,0,0,0,0,0,0,0,0,0,0,0,0,0,0,0,
593,-181.9,-170.4,-87.87,-83.28,-70.74,-68.07,-100.3,-3.614,-42.84,-50.1,-82.26,-47.16,-51.22,-61.37,-63.14,-43.32,0,0,0,0,0,0,0,0,0,0,0,0,0,0,0,0,
594,-163.4,-181.6,-58.48,-55.43,-42.79,-51.96,-85.81,7.856,-39.46,-44.71,-60.48,-40.88,-35.14,-45.15,-25.11,-20.27,0,0,0,0,0,0,0,0,0,0,0,0,0,0,0,0,
595,-134.0,-162.5,-29.55,-36.12,-13.48,-25.51,-3.143,7.861,-1.308,-16.23,-2.541,-14.14,5.404,-7.115,16.81,10.03,0,0,0,0,0,0,0,0,0,0,0,0,0,0,0,0,
596,-132.5,-141.7,-30.22,-56.61,-17.34,-17.58,30.29,13.34,23.86,13.21,12.93,-2.407,12.45,2.1,13.49,25.71,0,0,0,0,0,0,0,0,0,0,0,0,0,0,0,0,
597,-155.5,-139.3,-59.06,-43.71,-42.36,-29.64,-25.88,10.9,-4.101,2.863,-9.258,-1.066,-9.233,-10.02,-0.2757,36.55,0,0,0,0,0,0,0,0,0,0,0,0,0,0,0,0,
598,-173.5,-142.9,-76.48,-33.0,-56.75,-49.54,-48.72,1.854,-27.26,-26.9,-0.5161,3.2,-4.664,-9.292,14.73,48.5,0,0,0,0,0,0,0,0,0,0,0,0,0,0,0,0,
599,-167.6,-152.9,-61.59,-72.97,-56.85,-62.37,-21.4,-3.595,-14.14,-41.11,31.3,-0.1218,18.27,-5.129,35.01,47.58,0,0,0,0,0,0,0,0,0,0,0,0,0,0,0,0,
600,-145.6,-164.7,-49.61,-78.58,-43.8,-55.97,-20.81,-22.41,0.1624,-38.19,42.08,-7.069,21.93,-7.324,37.03,29.67,0,0,0,0,0,0,0,0,0,0,0,0,0,0,0,0,
601,-140.5,-159.2,-70.34,-53.47,-39.5,-55.01,-29.27,-28.24,-0.5746,-25.88,27.99,-13.48,-0.173,-12.53,20.23,6.299,0,0,0,0,0,0,0,0,0,0,0,0,0,0,0,0,
602,-157.6,-138.5,-109.0,-52.73,-70.02,-73.33,-21.24,-8.028,-17.44,-19.54,-0.4641,-23.8,-28.3,-19.94,-2.78,-6.921,0,0,0,0,0,0,0,0,0,0,0,0,0,0,0,0,
603,-167.9,-124.1,-116.4,-40.93,-91.36,-67.64,-29.79,-1.771,-40.4,-19.89,-20.98,-25.45,-34.24,-16.61,-5.769,0.1404,0,0,0,0,0,0,0,0,0,0,0,0,0,0,0,0,
604,-158.8,-128.1,-65.62,-50.05,-64.41,-36.71,-49.95,-4.047,-43.19,-11.72,-17.65,-13.34,-18.44,-1.744,7.736,22.64,0,0,0,0,0,0,0,0,0,0,0,0,0,0,0,0,
605,-136.1,-135.6,-10.47,-93.72,-29.66,-30.69,-47.47,-4.746,-24.42,-5.331,-4.283,2.957,3.693,12.35,16.15,43.27,0,0,0,0,0,0,0,0,0,0,0,0,0,0,0,0,
606,-114.0,-127.4,-6.468,-86.81,-18.66,-38.84,-29.38,-16.21,3.162,-5.122,19.35,20.27,34.18,27.43,32.08,50.73,0,0,0,0,0,0,0,0,0,0,0,0,0,0,0,0,
607,-120.3,-120.7,-42.33,-61.03,-33.81,-40.29,-25.65,-8.492,23.06,-0.6938,50.81,27.8,53.09,30.35,54.25,45.75,0,0,0,0,0,0,0,0,0,0,0,0,0,0,0,0,
608,-157.1,-134.0,-84.67,-63.85,-69.02,-54.28,-25.35,16.54,11.77,-7.684,53.55,17.93,35.96,6.011,48.83,31.05,0,0,0,0,0,0,0,0,0,0,0,0,0,0,0,0,
609,-174.8,-143.1,-88.04,-48.43,-77.05,-59.36,0.819,10.33,-10.79,-22.51,27.06,7.409,9.193,-17.42,27.02,20.32,0,0,0,0,0,0,0,0,0,0,0,0,0,0,0,0,
610,-142.3,-137.9,-42.08,-45.57,-43.55,-40.96,14.41,-12.42,-16.87,-20.6,8.488,3.739,-1.408,-18.31,20.39,21.66,0,0,0,0,0,0,0,0,0,0,0,0,0,0,0,0,
611,-99.23,-132.6,-7.41,-68.9,-17.32,-34.65,-1.686,-11.65,-24.72,-15.08,3.774,-2.134,-0.2475,-11.9,15.54,19.06,0,0,0,0,0,0,0,0,0,0,0,0,0,0,0,0,
612,-81.17,-116.0,-13.87,-52.02,-9.612,-33.57,22.18,-2.669,-25.09,-10.41,3.92,-1.577,12.21,-3.734,4.655,19.97,0,0,0,0,0,0,0,0,0,0,0,0,0,0,0,0,
613,-83.26,-92.95,-44.62,-22.72,-12.33,-22.65,41.67,-4.136,-2.509,5.086,-1.401,12.76,18.31,3.854,-0.6726,35.68,0,0,0,0,0,0,0,0,0,0,0,0,0,0,0,0,
614,-102.0,-93.56,-74.8,-23.48,-31.0,-26.4,-28.19,0.4684,2.442,7.393,-21.2,23.95,1.227,0.4263,-7.149,36.42,0,0,0,0,0,0,0,0,0,0,0,0,0,0,0,0,
615,-125.2,-106.9,-54.73,-25.22,-36.68,-36.18,-68.75,12.53,-8.597,-7.555,-26.71,20.78,-8.296,-6.95,-6.129,24.1,0,0,0,0,0,0,0,0,0,0,0,0,0,0,0,0,
616,-133.0,-113.6,-1.964,-26.8,-16.87,-33.83,-5.381,11.31,5.034,-12.59,3.66,9.801,12.96,-9.215,18.49,28.9,0,0,0,0,0,0,0,0,0,0,0,0,0,0,0,0,
617,-110.1,-108.2,11.72,-30.99,6.477,-20.16,50.1,5.703,28.32,-5.191,40.49,7.577,47.11,3.125,45.33,38.55,0,0,0,0,0,0,0,0,0,0,0,0,0,0,0,0,
618,-46.62,-68.56,9.277,-12.22,35.33,19.69,60.3,19.73,39.07,20.43,52.56,21.77,64.66,34.85,47.45,39.56,0,0,0,0,0,0,0,0,0,0,0,0,0,0,0,0,
619,2.069,-23.31,16.74,25.25,53.6,59.63,45.25,39.43,29.64,57.98,32.06,25.01,43.98,49.33,26.62,34.38,0,0,0,0,0,0,0,0,0,0,0,0,0,0,0,0,
620,-31.02,-40.44,-12.91,25.16,32.72,47.61,13.53,32.76,3.604,63.81,2.914,6.026,14.11,30.82,8.578,23.27,0,0,0,0,0,0,0,0,0,0,0,0,0,0,0,0,
621,-93.12,-88.85,-57.63,-42.55,2.117,4.474,14.02,10.87,4.145,36.44,-0.4035,-0.4081,15.39,16.78,10.03,20.22,0,0,0,0,0,0,0,0,0,0,0,0,0,0,0,0,
622,-97.85,-87.87,-54.47,-81.44,-5.617,-23.21,24.04,7.621,28.08,7.483,10.86,10.75,24.69,9.819,15.44,23.81,0,0,0,0,0,0,0,0,0,0,0,0,0,0,0,0,
623,-63.45,-56.83,-26.11,-30.88,-4.842,-28.97,5.156,10.36,27.92,-16.13,18.48,17.76,27.97,-0.0854,17.86,16.6,0,0,0,0,0,0,0,0,0,0,0,0,0,0,0,0,
624,-53.2,-56.41,-23.16,4.937,-10.33,-20.99,-10.49,10.21,18.92,-15.78,23.5,23.56,36.86,3.939,21.61,5.136,0,0,0,0,0,0,0,0,0,0,0,0,0,0,0,0,
625,-68.1,-68.15,-38.6,-2.617,-16.65,-11.36,-23.39,33.66,17.94,11.72,12.78,24.76,28.39,8.012,18.45,3.591,0,0,0,0,0,0,0,0,0,0,0,0,0,0,0,0,
626,-73.65,-58.57,-36.43,0.1772,-16.66,-7.471,-22.17,42.14,7.408,23.57,-1.607,12.49,8.886,1.391,16.46,10.14,0,0,0,0,0,0,0,0,0,0,0,0,0,0,0,0,
627,-74.11,-61.02,-16.14,-26.19,-12.05,-9.351,-5.142,1.512,-2.439,9.449,0.2075,-4.747,6.34,-2.826,19.52,11.51,0,0,0,0,0,0,0,0,0,0,0,0,0,0,0,0,
628,-67.48,-83.94,-1.343,-61.12,-2.927,-18.76,-10.04,-18.63,-4.583,-8.189,-0.168,-17.01,4.036,-15.03,13.5,4.752,0,0,0,0,0,0,0,0,0,0,0,0,0,0,0,0,
629,-34.31,-73.75,5.99,-44.22,9.773,-22.19,18.62,-1.938,0.9327,-22.44,1.029,-10.76,4.856,-22.5,8.433,1.391,0,0,0,0,0,0,0,0,0,0,0,0,0,0,0,0,
630,-12.43,-38.66,0.9079,-28.3,8.375,-12.52,59.76,-2.469,20.11,-20.58,10.21,11.05,20.91,0.2518,9.747,2.584,0,0,0,0,0,0,0,0,0,0,0,0,0,0,0,0,
631,-25.35,-37.0,-26.96,-21.0,-12.25,-15.5,0.7124,-4.207,25.81,-1.652,1.644,22.04,23.4,25.06,6.606,11.51,0,0,0,0,0,0,0,0,0,0,0,0,0,0,0,0,
632,-42.76,-62.14,-47.64,-7.186,-32.43,-37.22,-55.5,10.22,7.293,9.579,-8.812,18.34,13.95,30.35,10.69,33.61,0,0,0,0,0,0,0,0,0,0,0,0,0,0,0,0,
633,-58.38,-81.71,-22.18,-43.13,-36.84,-45.76,-16.96,13.03,-4.753,10.14,6.568,8.46,19.24,27.77,28.25,49.43,0,0,0,0,0,0,0,0,0,0,0,0,0,0,0,0,
634,-53.03,-87.66,28.78,-79.36,-16.75,-30.05,11.27,6.516,-4.858,9.689,29.61,-5.809,31.48,18.23,42.59,42.8,0,0,0,0,0,0,0,0,0,0,0,0,0,0,0,0,
635,-16.11,-67.08,43.16,-46.13,10.23,-9.995,23.3,7.809,-0.1815,6.368,46.49,-5.718,39.73,12.16,43.97,25.12,0,0,0,0,0,0,0,0,0,0,0,0,0,0,0,0,
636,-1.32,-35.07,8.497,-14.35,3.901,-1.587,43.95,11.16,10.26,4.545,52.04,14.44,43.99,23.93,38.54,17.32,0,0,0,0,0,0,0,0,0,0,0,0,0,0,0,0,
637,-23.42,-36.25,-26.94,-24.8,-27.84,-12.9,19.81,-0.9463,14.12,5.305,40.1,32.18,45.26,43.24,38.43,31.86,0,0,0,0,0,0,0,0,0,0,0,0,0,0,0,0,
638,-51.58,-65.1,-35.64,-42.91,-40.97,-34.55,2.57,-11.01,15.94,14.35,30.48,51.16,52.76,66.94,44.84,61.61,0,0,0,0,0,0,0,0,0,0,0,0,0,0,0,0,
639,-68.38,-76.14,-19.08,-52.41,-24.84,-35.31,32.33,19.49,29.48,48.95,33.79,81.07,62.47,93.8,45.72,80.65,0,0,0,0,0,0,0,0,0,0,0,0,0,0,0,0,
640,-51.02,-57.7,12.46,-42.42,1.911,-10.83,38.74,55.72,36.21,81.51,27.23,80.27,54.03,89.94,26.57,56.25,0,0,0,0,0,0,0,0,0,0,0,0,0,0,0,0,
641,-19.51,-33.51,26.59,-20.9,19.39,11.0,8.954,53.45,26.43,67.96,7.322,29.32,29.46,45.8,-3.24,3.204,0,0,0,0,0,0,0,0,0,0,0,0,0,0,0,0,
642,-15.32,-19.55,14.87,-2.599,25.47,23.08,-0.9428,41.19,23.12,33.12,8.954,-7.648,21.44,17.16,0.0439,-10.94,0,0,0,0,0,0,0,0,0,0,0,0,0,0,0,0,
643,-16.09,-10.47,13.22,10.26,33.55,29.16,44.62,24.79,38.83,17.31,39.87,3.68,45.33,30.46,37.74,17.25,0,0,0,0,0,0,0,0,0,0,0,0,0,0,0,0,
644,-5.312,-7.656,38.05,2.243,37.24,21.48,91.12,2.194,62.7,17.38,55.74,13.44,70.69,42.96,53.53,27.96,0,0,0,0,0,0,0,0,0,0,0,0,0,0,0,0,
645,-13.69,-27.59,46.7,-20.35,21.94,6.35,56.58,7.127,71.99,28.24,43.72,1.244,73.85,41.33,38.19,14.76,0,0,0,0,0,0,0,0,0,0,0,0,0,0,0,0,
646,-35.27,-52.56,1.355,-28.87,5.222,1.935,13.05,15.94,59.4,43.29,39.7,0.9844,69.53,52.2,22.15,6.123,0,0,0,0,0,0,0,0,0,0,0,0,0,0,0,0,
647,-27.4,-37.58,-29.76,-8.589,10.01,15.99,29.99,2.136,50.4,46.62,36.89,14.82,57.62,64.14,3.09,6.492,0,0,0,0,0,0,0,0,0,0,0,0,0,0,0,0,
648,-1.218,-0.3618,9.559,20.85,17.85,31.9,10.41,5.104,44.25,41.74,4.243,13.04,20.79,51.46,-21.82,-1.269,0,0,0,0,0,0,0,0,0,0,0,0,0,0,0,0,
649,-6.216,0.8388,20.12,-0.416,2.345,18.44,-37.98,17.35,9.276,32.43,-27.45,-8.834,-15.97,25.86,-32.16,-28.26,0,0,0,0,0,0,0,0,0,0,0,0,0,0,0,0,
650,-27.34,-22.82,-32.27,-49.75,-14.21,-13.3,-7.344,0.1757,-28.48,14.42,-17.54,-26.64,-14.85,8.945,-17.47,-42.8,0,0,0,0,0,0,0,0,0,0,0,0,0,0,0,0,
651,-18.59,-26.52,-25.55,-39.08,-2.547,-15.26,35.44,-13.93,-17.58,4.629,14.37,-23.75,13.51,5.978,10.02,-24.46,0,0,0,0,0,0,0,0,0,0,0,0,0,0,0,0,
652,11.49,-10.74,38.71,-6.874,17.16,13.72,24.75,3.381,23.86,17.19,36.9,-10.29,38.77,10.11,25.17,-9.956,0,0,0,0,0,0,0,0,0,0,0,0,0,0,0,0,
653,29.63,14.82,42.33,-3.538,14.67,26.05,27.84,13.02,40.34,28.06,37.75,-3.969,40.6,7.158,12.98,-16.12,0,0,0,0,0,0,0,0,0,0,0,0,0,0,0,0,
654,11.54,29.42,-11.28,7.787,-14.4,-0.5072,21.75,-1.104,9.713,11.62,7.668,-2.286,10.12,-2.144,-12.35,-21.23,0,0,0,0,0,0,0,0,0,0,0,0,0,0,0,0,
655,-29.65,2.028,-42.59,-1.209,-48.1,-32.22,-42.08,-7.126,-37.54,-8.766,-34.5,3.096,-24.67,0.8457,-27.17,-22.3,0,0,0,0,0,0,0,0,0,0,0,0,0,0,0,0,
656,-41.03,-26.5,-28.24,-26.99,-45.2,-28.9,-75.3,-8.203,-51.23,0.8267,-48.69,-1.357,-27.14,13.76,-28.82,-32.33,0,0,0,0,0,0,0,0,0,0,0,0,0,0,0,0,
657,-16.3,-16.88,9.741,-0.7386,-8.111,-7.332,-35.94,-17.21,-23.47,21.48,-28.71,-15.34,-5.471,22.06,-22.25,-44.94,0,0,0,0,0,0,0,0,0,0,0,0,0,0,0,0,T1
658,7.87,-4.615,33.24,25.37,15.79,5.337,-3.776,-2.643,16.86,30.19,-1.776,-7.208,16.2,32.02,-8.489,-38.72,0,0,0,0,0,0,0,0,0,0,0,0,0,0,0,0,
659,25.02,26.98,17.54,21.57,25.54,28.81,-6.598,24.0,46.13,46.02,12.29,18.15,29.5,40.43,2.845,-15.61,0,0,0,0,0,0,0,0,0,0,0,0,0,0,0,0,
660,34.48,76.45,-9.455,39.76,34.47,49.55,-14.01,13.15,47.42,60.94,20.05,24.59,31.54,32.14,15.28,4.713,0,0,0,0,0,0,0,0,0,0,0,0,0,0,0,0,
661,17.97,43.44,-19.84,25.86,14.02,19.51,-26.47,-9.896,24.4,35.6,29.95,14.5,26.19,19.1,35.6,15.61,0,0,0,0,0,0,0,0,0,0,0,0,0,0,0,0,
662,-6.079,-16.7,-32.68,-24.51,-15.89,-21.83,-28.48,-12.76,9.019,-12.69,31.3,8.069,23.98,20.43,41.7,17.62,0,0,0,0,0,0,0,0,0,0,0,0,0,0,0,0,
663,12.36,16.6,-24.8,-13.4,-2.639,-12.7,4.49,-17.98,18.31,-26.81,25.99,10.47,29.28,36.96,31.86,18.95,0,0,0,0,0,0,0,0,0,0,0,0,0,0,0,0,
664,49.27,50.25,42.75,24.11,22.63,15.14,26.33,-16.56,31.67,3.7,25.0,20.06,31.02,55.92,28.07,27.04,0,0,0,0,0,0,0,0,0,0,0,0,0,0,0,0,
665,63.71,61.27,96.99,36.08,25.76,30.95,11.16,4.03,28.86,39.82,21.35,30.01,20.92,58.85,24.95,34.12,0,0,0,0,0,0,0,0,0,0,0,0,0,0,0,0,
666,106.6,141.0,78.64,59.74,33.5,43.4,9.742,8.229,19.0,49.15,14.27,35.23,7.364,42.99,16.41,30.76,0,0,0,0,0,0,0,0,0,0,0,0,0,0,0,0,
667,156.9,183.1,56.23,69.0,40.57,43.16,12.16,-5.546,9.475,35.72,7.446,29.69,-4.2,25.29,10.56,18.27,0,0,0,0,0,0,0,0,0,0,0,0,0,0,0,0,
668,168.2,175.5,83.62,66.94,55.47,61.18,-8.506,2.815,5.609,29.66,11.52,24.66,5.262,31.43,22.25,28.99,0,0,0,0,0,0,0,0,0,0,0,0,0,0,0,0,
669,267.2,288.8,143.6,119.6,122.2,126.8,13.94,32.58,38.71,49.21,48.88,50.41,54.73,69.19,61.84,79.45,0,0,0,0,0,0,0,0,0,0,0,0,0,0,0,0,
670,441.2,427.8,194.6,170.4,188.4,174.6,71.52,42.85,98.79,73.3,86.89,84.45,97.32,99.89,90.69,109.6,0,0,0,0,0,0,0,0,0,0,0,0,0,0,0,0,
671,499.3,458.1,204.8,164.0,197.0,178.6,70.89,26.4,123.0,76.26,77.68,78.31,90.1,95.07,75.52,84.06,0,0,0,0,0,0,0,0,0,0,0,0,0,0,0,0,
672,507.4,499.3,216.7,168.5,201.3,190.7,44.02,18.95,109.4,70.99,49.83,48.83,68.13,78.03,46.3,41.85,0,0,0,0,0,0,0,0,0,0,0,0,0,0,0,0,
673,579.9,556.3,262.8,187.7,219.9,210.2,52.61,30.06,98.98,84.17,38.83,35.07,62.44,72.08,31.23,13.93,0,0,0,0,0,0,0,0,0,0,0,0,0,0,0,0,
674,611.4,542.2,279.7,190.4,229.5,230.0,62.56,49.52,99.26,115.6,45.37,43.07,71.91,84.64,39.16,19.57,0,0,0,0,0,0,0,0,0,0,0,0,0,0,0,0,
675,586.7,538.3,257.0,224.3,250.0,263.1,75.58,70.14,112.8,140.5,65.62,63.38,90.98,109.1,64.56,56.56,0,0,0,0,0,0,0,0,0,0,0,0,0,0,0,0,
676,573.8,566.1,258.2,261.5,268.3,277.4,100.1,56.85,129.1,144.6,78.46,83.89,102.4,121.9,78.0,88.9,0,0,0,0,0,0,0,0,0,0,0,0,0,0,0,0,
677,539.2,534.4,258.3,216.9,261.2,261.1,82.86,23.09,130.7,136.0,83.35,96.27,106.0,116.6,78.86,103.8,0,0,0,0,0,0,0,0,0,0,0,0,0,0,0,0,
678,477.2,456.9,208.8,129.1,250.7,233.5,54.89,25.65,134.8,111.4,94.19,89.11,104.6,96.04,76.85,97.0,0,0,0,0,0,0,0,0,0,0,0,0,0,0,0,0,
679,415.9,388.9,166.9,81.02,230.6,196.2,81.84,20.35,134.4,74.69,84.11,64.24,81.95,68.59,54.64,66.79,0,0,0,0,0,0,0,0,0,0,0,0,0,0,0,0,
680,352.4,331.4,164.3,93.86,194.9,176.5,105.1,-20.1,110.4,67.37,49.57,46.97,53.25,59.72,19.87,36.82,0,0,0,0,0,0,0,0,0,0,0,0,0,0,0,0,
681,298.7,288.5,137.4,136.8,174.1,186.7,73.62,-15.57,96.68,91.9,20.64,35.42,40.03,64.06,-7.466,12.24,0,0,0,0,0,0,0,0,0,0,0,0,0,0,0,0,
682,256.7,261.0,96.25,132.3,163.1,183.0,28.82,9.978,94.85,100.6,-6.067,15.19,27.79,55.78,-25.65,-5.808,0,0,0,0,0,0,0,0,0,0,0,0,0,0,0,0,
683,214.7,222.9,111.6,76.91,144.8,156.0,6.456,-13.2,73.47,85.52,-21.66,3.211,19.25,38.33,-23.9,-3.04,0,0,0,0,0,0,0,0,0,0,0,0,0,0,0,0,
684,168.3,158.2,143.8,48.45,129.1,125.5,28.35,-22.76,62.02,59.48,-4.558,3.121,25.88,18.53,-9.539,0.1094,0,0,0,0,0,0,0,0,0,0,0,0,0,0,0,0,
685,97.28,80.79,133.7,31.85,106.0,83.95,62.93,-2.95,66.09,23.72,13.62,-0.6484,24.25,0.3897,-9.351,-15.07,0,0,0,0,0,0,0,0,0,0,0,0,0,0,0,0,
686,18.98,17.08,106.7,-3.268,66.55,41.85,41.76,-18.86,39.26,-2.533,12.3,-2.253,7.734,-2.869,-8.979,-24.39,0,0,0,0,0,0,0,0,0,0,0,0,0,0,0,0,
687,-18.99,-13.83,58.11,-5.144,30.43,25.59,11.75,-33.94,6.844,-8.201,18.93,5.838,5.497,9.737,14.23,-9.235,0,0,0,0,0,0,0,0,0,0,0,0,0,0,0,0,
688,-41.35,-28.75,-8.185,13.09,3.576,21.53,18.48,-4.856,9.088,-0.4868,27.5,9.497,14.2,22.29,33.23,10.26,0,0,0,0,0,0,0,0,0,0,0,0,0,0,0,0,
689,-86.46,-67.76,-18.21,3.345,-17.06,0.9745,-3.813,14.57,7.563,6.397,12.0,-5.982,3.942,10.18,20.97,4.115,0,0,0,0,0,0,0,0,0,0,0,0,0,0,0,0,
690,-123.4,-122.2,2.953,-10.95,-31.52,-34.95,-34.96,-4.724,-17.58,-16.63,-15.48,-30.02,-23.25,-29.22,-10.69,-23.53,0,0,0,0,0,0,0,0,0,0,0,0,0,0,0,0,
691,-146.2,-152.3,-25.2,-23.3,-59.47,-72.02,-22.56,-27.16,-48.58,-60.87,-41.74,-42.23,-57.44,-60.38,-43.76,-47.67,0,0,0,0,0,0,0,0,0,0,0,0,0,0,0,0,
692,-182.4,-168.0,-51.24,-47.34,-100.1,-103.6,-22.87,-31.93,-91.67,-81.51,-63.81,-43.7,-93.32,-64.0,-62.73,-60.45,0,0,0,0,0,0,0,0,0,0,0,0,0,0,0,0,
693,-209.3,-189.9,-38.2,-59.33,-117.1,-120.6,-41.18,-34.79,-122.6,-81.87,-68.62,-44.56,-102.2,-59.13,-59.2,-63.28,0,0,0,0,0,0,0,0,0,0,0,0,0,0,0,0,
694,-209.4,-206.8,-47.36,-53.54,-108.4,-118.1,-37.12,-34.85,-104.3,-86.56,-52.82,-44.49,-76.46,-56.02,-44.76,-56.6,0,0,0,0,0,0,0,0,0,0,0,0,0,0,0,0,
695,-208.5,-223.5,-66.26,-58.67,-102.2,-112.0,-24.38,-16.66,-70.36,-85.0,-25.49,-39.69,-47.64,-43.97,-30.45,-45.2,0,0,0,0,0,0,0,0,0,0,0,0,0,0,0,0,
696,-222.7,-244.6,-63.61,-75.99,-108.6,-118.3,-6.935,-11.25,-59.16,-70.12,-12.93,-30.73,-34.75,-23.16,-25.4,-36.89,0,0,0,0,0,0,0,0,0,0,0,0,0,0,0,0,
697,-246.1,-243.6,-75.85,-65.19,-123.3,-125.8,-10.59,-28.79,-62.82,-51.92,-28.64,-18.32,-33.98,-1.75,-24.45,-27.09,0,0,0,0,0,0,0,0,0,0,0,0,0,0,0,0,
698,-243.0,-219.5,-73.4,-30.22,-117.5,-106.9,-38.97,-17.26,-66.66,-27.37,-21.94,0.4484,-23.5,23.1,0.6708,-2.911,0,0,0,0,0,0,0,0,0,0,0,0,0,0,0,0,
699,-199.3,-201.6,-17.19,-27.84,-75.38,-65.9,-10.76,6.923,-47.57,1.696,22.11,13.65,7.072,36.82,30.51,14.48,0,0,0,0,0,0,0,0,0,0,0,0,0,0,0,0,
700,-178.3,-202.9,14.12,-45.2,-43.74,-47.21,47.89,-4.404,-6.329,8.742,36.45,9.24,23.91,21.96,23.7,2.792,0,0,0,0,0,0,0,0,0,0,0,0,0,0,0,0,
701,-207.7,-217.5,-24.42,-43.41,-51.32,-60.81,31.51,-11.6,11.75,-8.853,14.19,8.816,9.533,7.831,7.612,-7.213,0,0,0,0,0,0,0,0,0,0,0,0,0,0,0,0,
702,-230.1,-222.8,-67.14,-44.12,-68.65,-68.92,-20.74,2.959,-6.096,-14.94,2.294,21.13,-8.653,10.41,9.496,2.063,0,0,0,0,0,0,0,0,0,0,0,0,0,0,0,0,
703,-218.7,-206.2,-78.41,-40.56,-79.58,-61.53,-31.09,2.939,-28.36,-6.282,5.81,25.74,-12.94,4.862,15.78,10.48,0,0,0,0,0,0,0,0,0,0,0,0,0,0,0,0,
704,-201.5,-195.3,-73.98,-27.18,-77.14,-55.52,-19.02,-1.72,-32.36,-6.891,17.89,29.19,-2.777,2.994,26.77,17.9,0,0,0,0,0,0,0,0,0,0,0,0,0,0,0,0,
705,-197.0,-199.9,-57.76,-42.02,-55.8,-49.55,-17.7,-4.25,-14.77,-4.766,22.88,40.11,11.79,19.06,30.89,25.8,0,0,0,0,0,0,0,0,0,0,0,0,0,0,0,0,
706,-196.5,-195.1,-45.68,-55.31,-47.57,-43.5,-24.62,-20.31,1.915,6.118,4.674,40.58,8.826,19.32,11.2,17.21,0,0,0,0,0,0,0,0,0,0,0,0,0,0,0,0,
707,-187.2,-177.5,-57.6,-38.94,-66.35,-46.23,-28.44,-31.22,-7.915,3.74,-14.43,28.61,-14.51,-2.304,-12.05,-9.047,0,0,0,0,0,0,0,0,0,0,0,0,0,0,0,0,
708,-183.6,-163.0,-77.14,-36.83,-79.4,-53.33,-34.5,-29.89,-33.15,-4.982,-20.44,10.72,-37.57,-18.05,-23.73,-39.31,0,0,0,0,0,0,0,0,0,0,0,0,0,0,0,0,
709,-196.9,-166.2,-87.99,-39.86,-73.44,-55.2,-36.45,-28.74,-46.66,-8.822,-19.34,-12.83,-43.07,-27.21,-29.59,-62.4,0,0,0,0,0,0,0,0,0,0,0,0,0,0,0,0,
710,-189.9,-179.5,-84.15,-26.2,-54.49,-49.54,-11.64,-19.17,-38.51,-21.05,-11.82,-22.83,-33.09,-31.9,-28.87,-61.88,0,0,0,0,0,0,0,0,0,0,0,0,0,0,0,0,
711,-147.4,-165.7,-53.02,-30.52,-31.91,-41.86,11.9,-8.569,-25.21,-30.65,-8.101,-10.53,-23.92,-23.19,-20.99,-38.36,0,0,0,0,0,0,0,0,0,0,0,0,0,0,0,0,
712,-123.5,-134.8,-25.51,-39.88,-36.76,-42.26,2.978,-13.75,-30.97,-20.65,-9.698,-7.289,-24.66,-18.88,-16.95,-34.73,0,0,0,0,0,0,0,0,0,0,0,0,0,0,0,0,
713,-140.1,-134.2,-41.13,-23.69,-65.2,-49.85,-16.73,-20.02,-46.06,-15.13,-13.5,-25.34,-31.95,-34.05,-26.93,-60.67,0,0,0,0,0,0,0,0,0,0,0,0,0,0,0,0,
714,-151.8,-148.5,-56.0,-22.47,-66.86,-53.17,-33.91,-24.84,-45.25,-28.0,-23.91,-33.05,-36.95,-45.33,-38.33,-66.37,0,0,0,0,0,0,0,0,0,0,0,0,0,0,0,0,
715,-142.8,-144.3,-31.9,-53.85,-45.09,-52.84,-31.09,-37.98,-33.73,-35.75,-24.88,-24.3,-36.81,-44.73,-38.78,-55.51,0,0,0,0,0,0,0,0,0,0,0,0,0,0,0,0,
716,-133.1,-137.5,-24.89,-66.35,-48.31,-63.08,-6.66,-38.59,-31.72,-38.08,-21.04,-27.02,-47.36,-52.98,-44.99,-66.94,0,0,0,0,0,0,0,0,0,0,0,0,0,0,0,0,
717,-136.9,-140.3,-66.55,-52.22,-76.86,-82.63,-17.55,-33.04,-49.65,-51.23,-42.84,-43.35,-73.53,-67.29,-60.11,-82.14,0,0,0,0,0,0,0,0,0,0,0,0,0,0,0,0,
718,-158.3,-135.9,-94.03,-51.21,-95.94,-86.08,-51.55,-47.02,-76.32,-57.74,-64.16,-57.03,-89.56,-77.57,-61.35,-88.04,0,0,0,0,0,0,0,0,0,0,0,0,0,0,0,0,
719,-163.1,-115.3,-69.5,-49.69,-88.94,-70.4,-43.01,-48.89,-82.8,-54.56,-47.39,-64.85,-82.76,-88.04,-47.73,-97.43,0,0,0,0,0,0,0,0,0,0,0,0,0,0,0,0,
720,-132.7,-104.1,-37.78,-34.29,-68.79,-68.36,-19.37,-32.21,-68.27,-71.18,-25.35,-69.77,-74.46,-95.6,-40.65,-100.6,0,0,0,0,0,0,0,0,0,0,0,0,0,0,0,0,
721,-109.1,-113.8,-25.52,-40.58,-57.4,-78.62,-24.65,-32.54,-62.5,-95.54,-35.31,-71.0,-85.49,-99.32,-53.25,-97.77,0,0,0,0,0,0,0,0,0,0,0,0,0,0,0,0,
722,-100.0,-110.5,-26.49,-48.96,-56.52,-69.2,-52.74,-25.07,-76.59,-95.86,-63.23,-63.67,-110.4,-98.95,-76.56,-98.31,0,0,0,0,0,0,0,0,0,0,0,0,0,0,0,0,
723,-99.71,-102.0,-66.35,-20.79,-68.77,-57.89,-82.86,-4.375,-99.85,-85.96,-82.13,-55.03,-123.6,-87.32,-84.15,-92.73,0,0,0,0,0,0,0,0,0,0,0,0,0,0,0,0,
724,-127.6,-116.7,-114.4,-0.4,-90.44,-66.03,-72.22,-13.83,-109.9,-81.82,-73.07,-55.57,-105.9,-72.41,-65.99,-79.99,0,0,0,0,0,0,0,0,0,0,0,0,0,0,0,0,
725,-129.8,-106.9,-77.27,-16.39,-75.61,-59.43,-29.03,-31.39,-84.86,-72.73,-39.64,-52.16,-70.52,-64.12,-49.22,-74.15,0,0,0,0,0,0,0,0,0,0,0,0,0,0,0,0,
726,-73.9,-64.08,2.151,-33.09,-26.03,-35.47,-13.03,-25.67,-45.35,-60.13,-20.65,-36.07,-51.52,-56.58,-54.4,-74.51,0,0,0,0,0,0,0,0,0,0,0,0,0,0,0,0,
727,-50.51,-61.4,6.456,-39.19,-16.24,-34.71,-16.6,-11.92,-31.76,-51.99,-31.11,-17.15,-55.45,-43.92,-61.13,-64.13,0,0,0,0,0,0,0,0,0,0,0,0,0,0,0,0,
728,-92.7,-95.35,-36.21,-43.85,-51.62,-53.67,-19.8,-6.39,-43.42,-41.22,-42.65,-7.763,-60.63,-31.91,-58.4,-54.52,0,0,0,0,0,0,0,0,0,0,0,0,0,0,0,0,
729,-131.3,-114.8,-54.42,-45.28,-77.6,-69.26,-37.63,-27.83,-57.36,-31.84,-46.32,-22.8,-58.45,-32.32,-57.01,-64.34,0,0,0,0,0,0,0,0,0,0,0,0,0,0,0,0,
730,-139.7,-120.5,-61.23,-51.74,-77.23,-74.13,-36.22,-48.21,-55.79,-36.88,-35.93,-42.96,-40.5,-34.34,-40.83,-61.94,0,0,0,0,0,0,0,0,0,0,0,0,0,0,0,0,
731,-129.3,-111.4,-62.47,-62.16,-50.81,-60.9,4.042,-21.67,-24.67,-40.18,-1.996,-38.07,-6.085,-26.94,-14.23,-41.99,0,0,0,0,0,0,0,0,0,0,0,0,0,0,0,0,
732,-106.8,-93.61,-52.12,-52.1,-28.2,-49.96,19.21,3.292,12.93,-31.6,7.52,-35.42,-0.0456,-36.79,-22.17,-49.44,0,0,0,0,0,0,0,0,0,0,0,0,0,0,0,0,
733,-98.32,-98.0,-56.75,-31.59,-46.45,-59.6,-14.12,-6.855,9.307,-36.23,-27.98,-43.03,-36.96,-56.9,-49.65,-67.85,0,0,0,0,0,0,0,0,0,0,0,0,0,0,0,0,
734,-115.9,-107.8,-72.37,-41.81,-58.97,-57.19,-29.78,-4.961,-25.03,-42.49,-42.04,-23.19,-55.72,-42.06,-46.21,-56.62,0,0,0,0,0,0,0,0,0,0,0,0,0,0,0,0,
735,-121.8,-98.83,-66.4,-58.94,-27.63,-29.98,-3.029,0.8994,-32.35,-16.29,-18.57,0.9197,-29.36,-10.78,-23.02,-37.34,0,0,0,0,0,0,0,0,0,0,0,0,0,0,0,0,
736,-99.99,-101.9,-45.96,-40.82,-7.29,-15.13,13.11,-9.495,-3.646,10.67,-3.625,-3.033,0.7084,-2.054,-11.26,-33.69,0,0,0,0,0,0,0,0,0,0,0,0,0,0,0,0,
737,-95.0,-121.5,-40.39,-38.63,-22.86,-29.68,-2.249,-0.7466,19.89,1.302,-4.429,-2.918,1.838,-6.883,-16.98,-39.16,0,0,0,0,0,0,0,0,0,0,0,0,0,0,0,0,
738,-115.9,-122.2,-57.83,-75.34,-43.22,-54.11,-30.43,3.014,13.05,-22.65,-18.83,9.122,-23.82,-16.23,-33.76,-46.22,0,0,0,0,0,0,0,0,0,0,0,0,0,0,0,0,
739,-122.1,-112.6,-82.29,-77.77,-55.58,-59.46,-58.8,-31.48,-12.01,-36.6,-37.17,13.87,-41.61,-18.0,-34.21,-39.06,0,0,0,0,0,0,0,0,0,0,0,0,0,0,0,0,
740,-105.6,-108.3,-79.16,-52.01,-41.74,-34.31,-41.58,-40.11,-14.41,-29.45,-20.55,21.03,-18.25,1.113,-5.395,-10.16,0,0,0,0,0,0,0,0,0,0,0,0,0,0,0,0,
741,-82.12,-87.03,-42.01,-56.44,-2.868,-6.091,22.62,-5.143,19.56,-5.772,15.21,26.15,16.77,12.35,15.38,8.25,0,0,0,0,0,0,0,0,0,0,0,0,0,0,0,0,
742,-72.1,-63.67,-16.91,-51.86,13.68,1.3,38.87,7.184,40.17,3.352,20.78,24.01,21.32,7.33,8.555,-2.342,0,0,0,0,0,0,0,0,0,0,0,0,0,0,0,0,
743,-81.53,-65.14,-21.43,-12.07,10.53,5.302,3.411,5.127,30.77,0.0909,10.37,35.79,13.18,15.19,1.792,-12.92,0,0,0,0,0,0,0,0,0,0,0,0,0,0,0,0,
744,-80.56,-57.94,-38.89,6.795,13.15,9.873,-4.463,18.16,27.75,7.847,2.187,42.83,4.965,14.38,-4.051,-22.75,0,0,0,0,0,0,0,0,0,0,0,0,0,0,0,0,
745,-80.01,-46.7,-75.34,-18.29,-13.98,-13.91,-1.965,5.84,16.02,-2.687,-16.84,18.55,-19.26,-20.17,-22.22,-46.41,0,0,0,0,0,0,0,0,0,0,0,0,0,0,0,0,
746,-103.5,-77.99,-94.8,-54.74,-57.96,-51.49,-8.032,-22.06,-15.38,-46.16,-22.13,-0.8779,-30.31,-39.93,-23.48,-46.94,0,0,0,0,0,0,0,0,0,0,0,0,0,0,0,0,
747,-97.62,-101.9,-53.39,-60.29,-48.7,-52.48,7.972,-17.08,-15.52,-63.3,2.828,7.226,-4.512,-14.02,0.6341,-17.05,0,0,0,0,0,0,0,0,0,0,0,0,0,0,0,0,
748,-53.68,-73.51,-12.41,-35.75,-14.4,-28.17,16.29,-8.183,6.66,-30.72,18.54,16.74,12.52,14.72,15.61,-0.8127,0,0,0,0,0,0,0,0,0,0,0,0,0,0,0,0,
749,-40.95,-62.55,-24.81,-32.11,-21.07,-26.9,7.338,-15.28,-3.246,-7.047,9.902,16.53,1.276,11.89,14.21,-2.107,0,0,0,0,0,0,0,0,0,0,0,0,0,0,0,0,
750,-59.28,-83.92,-65.2,-47.73,-50.77,-46.3,6.693,-14.71,-28.19,-20.34,-1.389,12.78,-6.263,-4.338,7.961,-3.166,0,0,0,0,0,0,0,0,0,0,0,0,0,0,0,0,
751,-74.87,-81.87,-108.0,-51.21,-70.6,-60.79,-13.97,-28.17,-35.84,-36.92,-7.876,11.33,-10.03,-11.34,0.9135,-2.967,0,0,0,0,0,0,0,0,0,0,0,0,0,0,0,0,
752,-86.56,-74.94,-100.5,-58.34,-66.1,-61.43,-28.02,-50.06,-30.2,-45.85,-5.611,10.9,-15.43,-16.49,3.643,-3.329,0,0,0,0,0,0,0,0,0,0,0,0,0,0,0,0,
753,-66.22,-72.87,-30.97,-46.21,-24.21,-41.31,15.35,-29.85,-5.391,-53.08,5.401,3.665,-2.032,-19.66,15.69,-3.52,0,0,0,0,0,0,0,0,0,0,0,0,0,0,0,0,
754,-15.92,-43.85,-1.502,2.131,12.36,-15.36,40.98,-4.358,25.43,-38.19,8.618,5.148,10.97,-4.945,19.6,4.425,0,0,0,0,0,0,0,0,0,0,0,0,0,0,0,0,
755,-3.214,-24.23,-38.51,15.78,-8.05,-13.08,1.043,-19.47,12.56,-12.68,-2.997,20.39,-9.546,7.395,7.899,7.71,0,0,0,0,0,0,0,0,0,0,0,0,0,0,0,0,
756,-32.1,-34.98,-63.54,-7.772,-47.92,-27.29,-39.9,-28.67,-35.5,-17.01,-16.84,20.63,-34.1,-3.968,-5.899,-12.71,0,0,0,0,0,0,0,0,0,0,0,0,0,0,0,0,
757,-54.32,-40.85,-63.2,-13.55,-59.27,-39.35,-56.68,-19.67,-53.3,-37.44,-22.21,8.419,-34.23,-16.41,-9.977,-33.84,0,0,0,0,0,0,0,0,0,0,0,0,0,0,0,0,
758,-71.99,-55.46,-49.82,-29.36,-55.9,-49.24,-48.79,-27.28,-38.43,-46.89,-13.85,1.742,-26.97,-22.14,-5.05,-33.21,0,0,0,0,0,0,0,0,0,0,0,0,0,0,0,0,
759,-76.89,-68.72,-12.57,-51.84,-33.59,-41.07,2.418,-40.94,-21.26,-49.09,19.26,-2.425,-4.07,-21.78,16.65,-13.35,0,0,0,0,0,0,0,0,0,0,0,0,0,0,0,0,
760,-41.91,-27.94,17.83,-24.58,14.25,-9.297,52.87,-43.35,12.02,-30.3,55.95,8.255,28.71,-0.9496,37.73,10.91,0,0,0,0,0,0,0,0,0,0,0,0,0,0,0,0,
761,-13.37,17.52,5.715,15.24,25.08,2.667,31.9,-25.28,32.87,-1.37,40.58,26.73,11.81,9.32,17.1,8.195,0,0,0,0,0,0,0,0,0,0,0,0,0,0,0,0,
762,-40.49,-0.6194,-37.98,3.717,-25.85,-26.38,-38.14,6.53,-5.884,-12.43,-8.162,20.72,-34.25,-15.13,-17.26,-15.07,0,0,0,0,0,0,0,0,0,0,0,0,0,0,0,0,
763,-85.05,-43.42,-77.49,-32.06,-67.95,-58.28,-53.75,4.11,-46.62,-43.38,-20.19,10.96,-32.68,-27.33,-18.89,-17.23,0,0,0,0,0,0,0,0,0,0,0,0,0,0,0,0,
764,-94.98,-65.57,-81.94,-29.72,-64.16,-64.53,-3.903,-21.63,-38.06,-40.72,-10.27,23.39,-9.587,-10.8,-12.51,-3.66,0,0,0,0,0,0,0,0,0,0,0,0,0,0,0,0,
765,-73.6,-59.83,-55.0,12.71,-44.81,-52.95,-1.818,-11.9,-19.49,-25.07,-13.09,27.58,-10.51,-4.928,-16.75,-6.606,0,0,0,0,0,0,0,0,0,0,0,0,0,0,0,0,
766,-56.52,-29.71,-29.14,30.4,-35.63,-40.27,-46.85,6.198,-8.351,-26.14,-11.95,15.25,-15.98,-18.21,-22.69,-21.59,0,0,0,0,0,0,0,0,0,0,0,0,0,0,0,0,
767,-56.35,-10.81,-23.57,0.4272,-42.74,-38.66,-33.42,-6.374,-8.559,-33.25,-18.09,15.35,-29.26,-30.62,-31.83,-23.19,0,0,0,0,0,0,0,0,0,0,0,0,0,0,0,0,
768,-52.46,-12.64,-22.26,-16.75,-47.45,-39.89,4.56,-20.57,-35.59,-39.15,-33.89,22.55,-45.33,-27.68,-27.31,-13.05,0,0,0,0,0,0,0,0,0,0,0,0,0,0,0,0,
769,-41.39,-8.382,-3.271,-1.475,-27.4,-27.95,-0.0336,-28.37,-45.3,-32.43,-20.1,19.06,-23.26,-8.152,-6.51,-10.75,0,0,0,0,0,0,0,0,0,0,0,0,0,0,0,0,
770,-35.04,-11.39,18.55,7.251,-2.959,-13.23,1.174,-38.8,-8.159,-8.676,5.539,19.37,15.11,10.72,3.666,-7.248,0,0,0,0,0,0,0,0,0,0,0,0,0,0,0,0,
771,-23.97,-17.5,20.22,13.78,-0.4214,-9.046,14.66,-22.32,28.15,7.108,3.733,32.08,23.45,18.26,5.479,10.63,0,0,0,0,0,0,0,0,0,0,0,0,0,0,0,0,
772,-14.67,1.31,7.028,14.51,-18.37,-13.94,-8.187,18.48,32.75,4.038,-10.91,34.89,5.873,8.786,2.894,18.77,0,0,0,0,0,0,0,0,0,0,0,0,0,0,0,0,
773,-40.61,-2.75,-16.15,-24.76,-57.77,-39.22,-41.9,20.29,-0.845,-21.47,-27.15,11.59,-32.51,-30.17,-17.56,-4.946,0,0,0,0,0,0,0,0,0,0,0,0,0,0,0,0,
774,-81.79,-46.57,-39.17,-44.6,-94.53,-72.55,-41.58,-21.64,-65.58,-68.8,-39.15,-15.13,-67.68,-61.93,-29.92,-32.47,0,0,0,0,0,0,0,0,0,0,0,0,0,0,0,0,
775,-75.11,-52.43,-30.35,4.677,-74.13,-59.78,-14.93,-32.77,-89.68,-77.26,-24.19,-7.508,-47.62,-30.3,-7.259,-22.55,0,0,0,0,0,0,0,0,0,0,0,0,0,0,0,0,
776,-31.1,-16.55,9.447,32.28,-11.35,-5.512,12.0,-4.16,-37.37,-15.55,2.649,22.32,0.3553,21.16,13.15,0.1812,0,0,0,0,0,0,0,0,0,0,0,0,0,0,0,0,
777,-11.67,4.848,29.35,17.8,15.35,22.27,13.9,10.39,9.936,32.77,6.08,21.93,4.169,15.97,-0.8625,-12.72,0,0,0,0,0,0,0,0,0,0,0,0,0,0,0,0,
778,-25.85,8.753,-3.01,30.18,-16.21,3.734,-21.03,5.316,-3.901,12.15,-14.1,-13.8,-27.42,-25.72,-23.13,-42.77,0,0,0,0,0,0,0,0,0,0,0,0,0,0,0,0,
779,-51.7,-6.088,-45.23,20.12,-58.72,-31.8,-46.01,-14.81,-39.01,-36.56,-32.02,-39.91,-44.59,-53.7,-26.51,-55.67,0,0,0,0,0,0,0,0,0,0,0,0,0,0,0,0,
780,-62.97,-27.92,-26.22,-27.15,-61.23,-49.91,-10.07,-41.75,-51.07,-67.94,-16.68,-32.79,-31.27,-54.35,-8.42,-45.67,0,0,0,0,0,0,0,0,0,0,0,0,0,0,0,0,
781,-36.05,-22.4,37.32,-19.66,-25.08,-30.26,25.64,-31.65,-36.67,-56.39,13.65,-10.98,-8.504,-32.59,10.35,-21.29,0,0,0,0,0,0,0,0,0,0,0,0,0,0,0,0,
782,-10.78,-19.11,47.01,6.982,-10.14,-8.049,-0.899,-2.859,-23.81,-18.17,-0.6737,-1.431,-13.64,-19.66,-3.669,-17.46,0,0,0,0,0,0,0,0,0,0,0,0,0,0,0,0,
783,-35.3,-41.61,-22.69,-9.17,-36.95,-16.97,-25.52,-7.659,-33.04,-6.021,-40.26,-1.953,-37.56,-26.7,-29.2,-32.84,0,0,0,0,0,0,0,0,0,0,0,0,0,0,0,0,
784,-73.29,-44.0,-82.26,-6.058,-56.42,-26.27,-24.84,-21.87,-45.05,-18.89,-48.47,-2.179,-41.23,-28.81,-25.91,-28.94,0,0,0,0,0,0,0,0,0,0,0,0,0,0,0,0,
785,-69.09,-23.05,-65.28,10.67,-48.06,-23.99,-35.49,-23.08,-43.33,-30.25,-44.71,-13.69,-32.97,-33.94,-19.45,-24.45,0,0,0,0,0,0,0,0,0,0,0,0,0,0,0,0,
786,-23.57,-19.4,-6.615,-21.4,-26.14,-28.68,-5.947,-27.55,-30.67,-47.6,-40.33,-29.58,-23.77,-45.79,-26.92,-35.45,0,0,0,0,0,0,0,0,0,0,0,0,0,0,0,0,
787,18.79,-25.18,40.21,-50.13,1.626,-21.78,45.86,-33.14,-6.373,-54.91,-19.44,-27.98,-6.63,-35.38,-25.42,-33.5,0,0,0,0,0,0,0,0,0,0,0,0,0,0,0,0,
788,24.05,-17.29,56.78,-21.01,14.42,3.576,8.007,-37.44,12.81,-30.15,-18.12,-20.17,-6.526,-16.21,-22.78,-24.98,0,0,0,0,0,0,0,0,0,0,0,0,0,0,0,0,
789,-0.4364,-10.25,20.73,11.66,-0.9026,12.53,-60.73,-29.85,6.847,-6.214,-44.36,-20.03,-27.44,-18.99,-27.63,-26.16,0,0,0,0,0,0,0,0,0,0,0,0,0,0,0,0,
790,-36.51,-21.06,-46.39,0.6727,-29.02,-7.782,-52.08,-7.256,-12.69,-15.58,-47.38,-19.39,-31.46,-29.59,-20.28,-20.07,0,0,0,0,0,0,0,0,0,0,0,0,0,0,0,0,
791,-55.94,-37.3,-48.45,-18.86,-42.86,-28.63,-10.62,-10.61,-22.7,-38.53,-15.11,-12.75,-8.204,-25.14,5.721,2.662,0,0,0,0,0,0,0,0,0,0,0,0,0,0,0,0,
792,-33.95,-44.74,21.34,-13.26,-21.77,-24.93,21.89,-37.71,-8.666,-42.97,16.23,-7.007,17.32,-12.96,25.46,16.29,0,0,0,0,0,0,0,0,0,0,0,0,0,0,0,0,
793,-7.231,-45.29,50.43,-8.208,0.7155,-16.59,27.7,-40.23,10.26,-36.83,5.478,-14.45,10.75,-14.77,8.425,-3.463,0,0,0,0,0,0,0,0,0,0,0,0,0,0,0,0,
794,-18.9,-40.4,8.745,-18.67,-20.42,-27.99,-25.1,-26.66,-4.506,-40.77,-39.62,-21.79,-27.8,-23.51,-23.76,-23.01,0,0,0,0,0,0,0,0,0,0,0,0,0,0,0,0,
795,-53.85,-41.51,-43.17,-15.49,-52.24,-39.4,-68.08,-20.94,-33.09,-37.29,-62.34,-9.548,-50.86,-19.26,-30.89,-13.31,0,0,0,0,0,0,0,0,0,0,0,0,0,0,0,0,
796,-80.85,-59.7,-78.13,1.276,-60.92,-42.95,-53.73,-13.57,-37.04,-23.42,-56.48,-4.965,-46.3,-18.67,-30.85,-10.08,0,0,0,0,0,0,0,0,0,0,0,0,0,0,0,0,
797,-71.77,-64.64,-72.14,-0.16,-60.02,-49.85,-39.04,-6.669,-32.6,-30.28,-48.62,-19.08,-37.98,-29.94,-36.27,-14.36,0,0,0,0,0,0,0,0,0,0,0,0,0,0,0,0,
798,-24.52,-37.24,-16.21,-13.73,-42.54,-41.3,-18.68,-10.22,-26.35,-42.97,-28.51,-15.79,-24.14,-28.55,-25.38,7.67,0,0,0,0,0,0,0,0,0,0,0,0,0,0,0,0,
799,7.215,-18.6,19.31,-13.34,-19.66,-19.51,9.471,-18.54,-13.39,-32.14,-7.203,2.315,-11.37,-12.21,-7.604,30.52,0,0,0,0,0,0,0,0,0,0,0,0,0,0,0,0,
800,-10.89,-25.72,-7.67,-2.481,-22.7,-10.0,-10.19,-13.79,-14.99,-11.92,-2.683,8.799,-7.508,5.814,6.859,29.2,0,0,0,0,0,0,0,0,0,0,0,0,0,0,0,0,
801,-38.7,-29.13,-41.06,2.941,-28.88,-6.014,-33.87,3.351,-14.78,6.431,3.794,0.9358,-0.0327,10.12,19.69,18.19,0,0,0,0,0,0,0,0,0,0,0,0,0,0,0,0,
802,-42.52,-33.09,-47.12,-2.526,-27.91,-12.68,-27.26,-5.089,-4.241,5.452,-2.061,-22.21,-9.542,-14.91,8.297,0.6723,0,0,0,0,0,0,0,0,0,0,0,0,0,0,0,0,
803,-38.28,-43.76,-45.23,-6.751,-33.41,-31.17,-42.71,-30.25,-24.02,-28.02,-28.96,-30.88,-35.29,-33.77,-13.24,-5.769,0,0,0,0,0,0,0,0,0,0,0,0,0,0,0,0,
804,-21.05,-27.1,-28.98,7.102,-14.08,-18.56,-41.83,-15.06,-40.0,-37.83,-29.34,3.874,-23.35,-5.529,-4.133,18.99,0,0,0,0,0,0,0,0,0,0,0,0,0,0,0,0,
805,11.1,1.909,-10.31,14.8,12.67,11.26,-0.2109,12.58,-8.623,2.177,-11.89,34.17,4.959,29.45,10.04,40.11,0,0,0,0,0,0,0,0,0,0,0,0,0,0,0,0,
806,2.665,-8.171,-35.92,-5.073,-15.95,3.321,-10.7,3.079,1.274,25.61,-16.62,30.79,-3.242,30.11,5.087,36.84,0,0,0,0,0,0,0,0,0,0,0,0,0,0,0,0,
807,-38.55,-29.6,-72.93,-13.31,-55.45,-13.85,-54.27,-3.879,-24.42,17.3,-13.41,30.43,-9.021,20.7,11.6,37.73,0,0,0,0,0,0,0,0,0,0,0,0,0,0,0,0,
808,-34.55,-19.53,-55.02,-4.583,-35.81,-0.9776,-34.03,8.743,-11.8,19.5,-0.1574,28.08,5.733,11.62,18.3,39.48,0,0,0,0,0,0,0,0,0,0,0,0,0,0,0,0,
809,4.675,-2.204,-6.573,-5.65,10.7,20.89,6.286,12.71,20.89,20.23,-9.836,13.74,4.421,0.6566,8.242,35.15,0,0,0,0,0,0,0,0,0,0,0,0,0,0,0,0,
810,30.8,16.8,26.16,22.32,38.97,43.52,-0.5965,16.45,25.39,15.31,-10.12,26.31,5.102,20.22,19.51,50.9,0,0,0,0,0,0,0,0,0,0,0,0,0,0,0,0,
811,38.0,42.84,23.61,64.08,38.6,57.02,-18.31,21.19,21.75,39.91,7.111,55.72,18.31,61.65,41.76,72.41,0,0,0,0,0,0,0,0,0,0,0,0,0,0,0,0,
812,17.79,35.44,-23.82,40.13,12.13,39.03,-12.54,30.1,17.17,69.44,9.142,67.41,21.09,72.86,46.65,81.25,0,0,0,0,0,0,0,0,0,0,0,0,0,0,0,0,
813,-4.598,5.919,-54.28,3.04,2.079,23.97,2.539,58.0,15.24,63.43,18.63,76.08,32.11,60.03,60.26,93.87,0,0,0,0,0,0,0,0,0,0,0,0,0,0,0,0,
814,4.094,5.982,-13.68,20.77,29.35,37.56,20.22,59.33,39.68,49.4,37.25,77.19,47.18,50.0,66.1,90.16,0,0,0,0,0,0,0,0,0,0,0,0,0,0,0,0,
815,18.37,15.62,32.48,31.14,43.22,40.09,44.47,23.71,64.41,44.67,35.18,59.42,35.77,33.78,45.65,62.28,0,0,0,0,0,0,0,0,0,0,0,0,0,0,0,0,
816,27.61,13.66,29.95,20.5,24.34,27.76,42.94,16.93,49.33,31.9,26.17,52.08,14.11,17.66,36.5,44.06,0,0,0,0,0,0,0,0,0,0,0,0,0,0,0,0,
817,33.53,20.74,6.619,29.37,8.824,30.04,-12.92,22.34,10.8,23.6,3.508,51.48,-7.833,15.48,21.84,28.43,0,0,0,0,0,0,0,0,0,0,0,0,0,0,0,0,
818,14.01,25.28,-13.38,25.13,6.926,32.12,-51.32,0.6163,-7.313,29.53,-28.6,34.4,-17.95,17.77,-6.026,12.4,0,0,0,0,0,0,0,0,0,0,0,0,0,0,0,0,
819,-3.648,16.1,-7.509,-2.247,20.79,27.85,-4.168,-1.068,19.37,30.84,-12.08,18.96,16.45,16.74,10.53,19.45,0,0,0,0,0,0,0,0,0,0,0,0,0,0,0,0,
820,21.24,12.99,32.15,-6.572,60.14,40.86,54.68,17.16,64.72,25.11,32.51,16.71,59.49,13.05,48.31,33.01,0,0,0,0,0,0,0,0,0,0,0,0,0,0,0,0,
821,61.64,27.8,58.52,19.54,95.59,66.22,66.53,16.47,86.51,24.3,44.13,24.61,67.8,20.57,53.8,44.08,0,0,0,0,0,0,0,0,0,0,0,0,0,0,0,0,
822,77.48,60.19,46.42,42.59,98.87,84.04,85.03,21.94,91.42,33.19,46.68,43.77,70.01,46.87,54.42,65.98,0,0,0,0,0,0,0,0,0,0,0,0,0,0,0,0,
823,66.49,80.03,32.16,39.63,86.35,85.42,102.6,30.59,92.05,47.33,59.76,50.89,75.11,59.97,62.51,77.83,0,0,0,0,0,0,0,0,0,0,0,0,0,0,0,0,
824,49.84,56.39,40.72,29.98,78.12,73.73,63.98,21.77,79.62,54.54,59.89,31.13,73.62,42.53,58.15,62.37,0,0,0,0,0,0,0,0,0,0,0,0,0,0,0,0,
825,46.08,21.47,57.07,24.66,86.39,72.77,28.22,26.1,81.29,53.19,58.5,8.957,86.45,24.77,52.34,37.42,0,0,0,0,0,0,0,0,0,0,0,0,0,0,0,0,
826,50.61,12.54,70.22,4.894,110.0,88.14,59.27,27.79,114.9,51.82,67.6,5.2,99.53,25.4,48.27,26.39,0,0,0,0,0,0,0,0,0,0,0,0,0,0,0,0,
827,50.65,23.25,79.73,8.654,113.7,89.49,89.26,9.683,131.9,52.84,58.27,20.28,79.1,34.62,29.34,35.17,0,0,0,0,0,0,0,0,0,0,0,0,0,0,0,0,
828,40.88,37.91,59.98,53.95,74.92,61.99,59.66,27.5,101.5,49.16,24.27,34.79,41.55,32.66,4.78,37.28,0,0,0,0,0,0,0,0,0,0,0,0,0,0,0,0,
829,19.84,33.29,9.342,51.89,21.66,20.84,19.16,54.98,50.45,24.02,0.3013,17.38,9.765,1.734,-6.381,9.332,0,0,0,0,0,0,0,0,0,0,0,0,0,0,0,0,
830,5.22,5.931,-8.38,-11.21,0.3578,-3.781,9.28,22.96,7.134,-14.88,0.9822,-17.58,-9.944,-32.1,-6.377,-16.32,0,0,0,0,0,0,0,0,0,0,0,0,0,0,0,0,
831,23.67,-8.259,26.33,-34.51,36.05,17.51,25.33,-8.261,-0.8527,-18.34,23.17,-18.22,9.98,-17.29,10.32,2.893,0,0,0,0,0,0,0,0,0,0,0,0,0,0,0,0,
832,56.68,6.155,55.09,5.181,89.99,64.56,57.27,15.03,47.18,28.53,57.41,8.77,61.42,29.27,39.8,39.33,0,0,0,0,0,0,0,0,0,0,0,0,0,0,0,0,
833,52.78,30.63,39.58,42.32,90.22,82.13,49.49,33.75,98.78,69.93,46.55,10.96,66.74,40.43,30.26,34.85,0,0,0,0,0,0,0,0,0,0,0,0,0,0,0,0,
834,9.128,41.21,-14.85,42.38,43.34,63.92,-20.76,16.4,78.19,64.59,-21.83,-11.2,16.58,13.47,-17.35,-1.789,0,0,0,0,0,0,0,0,0,0,0,0,0,0,0,0,
835,-19.43,26.83,-48.58,32.5,17.63,42.24,-39.27,0.6901,21.79,34.88,-41.68,-20.77,2.148,-2.82,-20.92,-11.95,0,0,0,0,0,0,0,0,0,0,0,0,0,0,0,0,
836,-5.847,9.332,-3.791,27.19,22.58,22.14,28.53,4.306,9.196,11.14,15.23,-12.59,35.47,0.1675,19.78,19.34,0,0,0,0,0,0,0,0,0,0,0,0,0,0,0,0,
837,9.305,0.6092,43.23,-5.074,22.51,1.644,49.91,2.667,13.28,0.5801,42.64,0.6892,37.17,6.306,30.13,45.88,0,0,0,0,0,0,0,0,0,0,0,0,0,0,0,0,
838,-0.6987,-6.822,15.11,-30.87,14.72,-1.051,15.91,1.539,-8.114,6.622,16.56,15.92,0.8416,14.28,7.53,34.45,0,0,0,0,0,0,0,0,0,0,0,0,0,0,0,0,
839,-7.212,10.2,-20.78,10.62,8.637,13.46,4.781,35.05,-16.11,20.77,-12.75,27.32,-25.68,16.68,-17.44,3.376,0,0,0,0,0,0,0,0,0,0,0,0,0,0,0,0,
840,-11.35,38.89,-32.31,52.05,-2.84,20.16,-31.87,59.98,-1.535,24.22,-46.88,20.38,-39.07,7.186,-41.72,-23.14,0,0,0,0,0,0,0,0,0,0,0,0,0,0,0,0,
841,-28.64,22.39,-48.46,27.8,-14.68,10.79,-67.19,29.06,-1.529,14.06,-61.28,-2.544,-36.12,-0.9632,-43.4,-27.3,0,0,0,0,0,0,0,0,0,0,0,0,0,0,0,0,
842,-18.76,-10.11,-26.63,-6.375,-8.994,-1.848,2.845,1.337,-0.6197,-0.2512,-12.68,-11.69,3.248,5.353,-8.264,5.882,0,0,0,0,0,0,0,0,0,0,0,0,0,0,0,0,
843,13.12,-7.152,28.7,-18.21,5.276,-11.53,78.17,4.636,26.62,-5.482,47.2,0.6868,44.67,21.55,27.54,43.83,0,0,0,0,0,0,0,0,0,0,0,0,0,0,0,0,
844,3.789,-4.69,35.18,-25.43,-11.01,-30.99,43.28,-2.824,33.2,-6.011,47.12,4.952,28.02,21.45,26.83,43.36,0,0,0,0,0,0,0,0,0,0,0,0,0,0,0,0,
845,-26.98,-13.44,-5.408,-19.36,-57.56,-59.77,-23.26,-10.55,-29.44,-28.95,0.6675,-10.35,-31.49,-10.67,-3.978,17.33,0,0,0,0,0,0,0,0,0,0,0,0,0,0,0,0,
846,-27.22,1.506,-34.82,4.836,-69.26,-62.3,-57.69,-0.6367,-101.5,-59.81,-34.71,-31.07,-60.08,-40.62,-20.99,-2.858,0,0,0,0,0,0,0,0,0,0,0,0,0,0,0,0,
847,-10.63,18.41,-28.85,22.67,-26.18,-31.42,-56.21,4.253,-90.76,-57.09,-24.23,-38.53,-31.44,-31.55,5.468,3.088,0,0,0,0,0,0,0,0,0,0,0,0,0,0,0,0,
848,6.826,17.51,11.64,5.16,9.146,-9.327,-3.488,-5.33,-24.98,-31.57,12.71,-15.67,13.68,0.6466,41.29,36.4,0,0,0,0,0,0,0,0,0,0,0,0,0,0,0,0,
849,25.84,21.77,46.89,-23.98,7.251,-7.705,38.95,-19.34,13.16,-11.06,28.98,15.28,33.69,21.84,43.72,62.27,0,0,0,0,0,0,0,0,0,0,0,0,0,0,0,0,
