%OpenBCI Raw EXG Data
%Number of channels = 16
%Sample Rate = 125 Hz
%Board = OpenBCI_GUI$BoardCytonSerialDaisy
Sample Index,EXG Channel 0,EXG Channel 1,EXG Channel 2,EXG Channel 3,EXG Channel 4,EXG Channel 5,EXG Channel 6,EXG Channel 7,EXG Channel 8,EXG Channel 9,EXG Channel 10,EXG Channel 11,EXG Channel 12,EXG Channel 13,EXG Channel 14,EXG Channel 15,Accel Channel 0,Accel Channel 1,Accel Channel 2,Other,Other,Other,Other,Other,Other,Other,Analog Channel 0,Analog Channel 1,Analog Channel 2,Timestamp,Other,Timestamp (Formatted),Annotations
1,0,0,0,0,-0,-0,-0,-0,0,-0,0,-0,0,0,0,0,0,0,0,0,0,0,0,0,0,0,0,0,0,0,0,0,T0
2,-51.86,-39.28,-17.3,8.069,-5.358,-5.221,22.85,31.18,36.97,42.99,79.27,64.71,76.37,72.75,-46.77,86.92,0,0,0,0,0,0,0,0,0,0,0,0,0,0,0,0,
3,-15.54,-6.433,8.886,3.169,-17.97,-19.1,6.607,20.49,17.65,35.29,53.74,26.92,41.13,35.81,-21.97,39.2,0,0,0,0,0,0,0,0,0,0,0,0,0,0,0,0,
4,-30.58,-25.48,-4.288,-34.85,-35.46,-31.84,0.665,-21.01,2.268,16.66,37.93,15.32,29.15,27.85,-28.52,34.69,0,0,0,0,0,0,0,0,0,0,0,0,0,0,0,0,
5,-51.93,-47.66,-20.65,-45.72,-17.05,-21.14,20.31,-38.11,19.32,14.24,62.49,39.08,45.44,53.18,-43.24,58.49,0,0,0,0,0,0,0,0,0,0,0,0,0,0,0,0,
6,-29.9,-27.66,-7.686,-22.73,4.609,-8.697,13.88,-21.42,23.38,27.23,56.19,22.24,25.8,38.89,-19.5,28.42,0,0,0,0,0,0,0,0,0,0,0,0,0,0,0,0,
7,-39.34,-34.16,-4.467,-6.442,1.276,-5.393,3.121,-15.18,27.45,51.3,50.69,22.48,37.1,43.51,-25.72,41.71,0,0,0,0,0,0,0,0,0,0,0,0,0,0,0,0,
8,-35.5,-28.71,0.7258,1.574,6.199,3.049,16.11,-37.6,38.21,44.99,51.97,34.86,54.15,46.65,-33.95,63.95,0,0,0,0,0,0,0,0,0,0,0,0,0,0,0,0,
9,-24.22,-17.65,-11.52,-14.1,-1.413,5.65,20.84,-38.48,18.45,30.73,35.3,21.95,41,25.96,-23.82,49.44,0,0,0,0,0,0,0,0,0,0,0,0,0,0,0,0,
10,-38.5,-25.92,-28.17,-26.35,-29.73,9.034,17.94,-0.541,-11.12,52.57,34.62,23.88,47.88,32.88,-40.2,53.01,0,0,0,0,0,0,0,0,0,0,0,0,0,0,0,0,
11,-36.04,-21.16,-15.99,-17.85,-52.12,9.843,4.385,9.347,-23.88,50.46,40.74,24.43,49.09,32.14,-41.09,51.6,0,0,0,0,0,0,0,0,0,0,0,0,0,0,0,0,
12,-36.7,-19.89,-11.18,-22.9,-44.25,-2.377,-2.132,1.059,-18.2,30.04,42.85,21.01,43.33,27.4,-22.25,48.95,0,0,0,0,0,0,0,0,0,0,0,0,0,0,0,0,
13,-37.16,-10.09,-10.33,-22.73,-5.773,-2.009,29.62,-4.225,-2.72,42.12,51.64,33.6,56.33,51.37,-27.08,55.14,0,0,0,0,0,0,0,0,0,0,0,0,0,0,0,0,
14,-27.01,2.606,-10.37,-8.803,-9.68,3.704,39.22,-56.49,-3.148,40.29,49.16,27.06,51.57,49.77,-30.46,44.11,0,0,0,0,0,0,0,0,0,0,0,0,0,0,0,0,
15,-31.12,-3.252,-17.18,2.46,-41.62,6.123,24.73,-73.25,5.282,24.7,54.22,25.07,49.48,39.35,-25.93,51.44,0,0,0,0,0,0,0,0,0,0,0,0,0,0,0,0,
16,-21.39,11.64,-2.362,6.073,-32.93,13.42,36.4,-4.991,26.35,20.43,56.32,37.28,57.45,51.12,-24.92,59.84,0,0,0,0,0,0,0,0,0,0,0,0,0,0,0,0,
17,-12.57,14.96,6.289,-11.88,-30.25,2.191,25.16,13.26,12.1,23.06,30.55,25.28,44.23,44.38,-23.93,46.35,0,0,0,0,0,0,0,0,0,0,0,0,0,0,0,0,
18,-25.04,-11.59,-2.33,-24.22,-30.15,-13.92,-8.842,-33.7,-16.35,41.92,28.57,19.86,39.55,32.64,-29.53,50.94,0,0,0,0,0,0,0,0,0,0,0,0,0,0,0,0,
19,-28.98,-18,-8.369,-26.61,-16.2,-14.02,-18.61,-64.63,-23.58,23.5,49.65,27.31,41.92,36.58,-26.82,51.04,0,0,0,0,0,0,0,0,0,0,0,0,0,0,0,0,
20,-32.25,-19.4,-23.38,-36.49,-43.74,-9.931,-19.15,-71.18,-9.511,-9.919,62.76,33,43.52,46.67,-16.69,49.64,0,0,0,0,0,0,0,0,0,0,0,0,0,0,0,0,
21,-28.87,-18.14,-27.85,-31,-72.4,2.112,-13.49,-60.43,-0.1087,23.86,73.3,41.81,56.53,56.62,-15.42,65.22,0,0,0,0,0,0,0,0,0,0,0,0,0,0,0,0,
22,-26.03,-10.38,-23.82,-27.93,-76.49,1.334,-3.917,-51.33,-26.39,53.38,62.12,27.73,54.21,56,-17.58,57.69,0,0,0,0,0,0,0,0,0,0,0,0,0,0,0,0,
23,-43.52,-15.79,-23.41,-27.76,-93.18,-17.76,0.6609,-29.79,-35.99,47.29,48.43,15.38,49.73,61.38,-25.33,46.72,0,0,0,0,0,0,0,0,0,0,0,0,0,0,0,0,
24,-47.35,-13.88,-11.29,-23.35,-90.38,-23.3,-0.7606,9.203,-18.31,44.82,54.09,23,50.57,60.62,-27.3,49.66,0,0,0,0,0,0,0,0,0,0,0,0,0,0,0,0,
25,-46.21,-11.99,-16.03,-46.92,-71.07,-25.31,-11.47,12.83,-32.48,23.42,59.4,17.82,40.19,34.48,-24.66,48.89,0,0,0,0,0,0,0,0,0,0,0,0,0,0,0,0,
26,-52.99,-16.12,-31.71,-45.9,-77.68,-31.37,-10.15,-9.58,-42.14,21.19,59.78,11.66,40.93,20.6,-37.95,49.63,0,0,0,0,0,0,0,0,0,0,0,0,0,0,0,0,
27,-51.67,-16.62,-27.86,-14.3,-94.41,-34.61,-8,-35.11,-27.42,44.01,42.69,6.387,37.77,22.29,-41.96,38.34,0,0,0,0,0,0,0,0,0,0,0,0,0,0,0,0,
28,-53.09,-23.01,-22.85,-16.68,-93.02,-35.75,-12.01,-54.99,-11.85,38.33,43.37,11.32,35.6,31.58,-28.84,39.42,0,0,0,0,0,0,0,0,0,0,0,0,0,0,0,0,
29,-36.39,-7.784,-22.13,-21.71,-83.9,-23.57,10.4,-43.78,12.55,27.9,76.11,37.74,58.19,51.31,-20.69,61.62,0,0,0,0,0,0,0,0,0,0,0,0,0,0,0,0,
30,-15.94,9.36,-26.16,-31.81,-92.93,-12.35,24.01,-28,11.16,18.58,67.38,38.35,60.96,51.79,-16.09,61.56,0,0,0,0,0,0,0,0,0,0,0,0,0,0,0,0,
31,-26.21,-6.086,-13.64,-45.08,-89.02,-8.969,6.61,-1.312,-3.224,11.66,47.06,27.8,50.08,42.2,-18.73,62.2,0,0,0,0,0,0,0,0,0,0,0,0,0,0,0,0,
32,-32.66,-13.66,12.93,-14.05,-57.06,-4.844,-4.75,37.54,9.469,24.63,54.3,30.55,50.47,42.08,-20.56,65.71,0,0,0,0,0,0,0,0,0,0,0,0,0,0,0,0,
33,-34.75,-12.8,-2.077,-3.453,-49.13,-6.539,-1.338,22.15,14.2,25.29,42.69,23.69,46.49,47.21,-16.56,56.8,0,0,0,0,0,0,0,0,0,0,0,0,0,0,0,0,
34,-28.21,-4.2,-14.97,-25.85,-58.78,4.458,22.04,-14.96,11.34,17.64,44.64,29.56,52.83,51.27,-17.54,66.29,0,0,0,0,0,0,0,0,0,0,0,0,0,0,0,0,
35,-5.995,14.83,-3.403,-19.17,-61.58,11.45,36.63,-28.51,5.041,23.55,68.69,35.47,54.61,31.57,-12.75,67.56,0,0,0,0,0,0,0,0,0,0,0,0,0,0,0,0,
36,-15.95,3.717,-27.87,-6.68,-56.9,-9.262,19.36,-39.88,-9.188,38.68,74.69,28.82,46.79,22,-9.87,56.89,0,0,0,0,0,0,0,0,0,0,0,0,0,0,0,0,
37,-24.86,-4.68,-37.33,-5.202,-29.58,-8.754,13.63,-31.55,4.7,49.34,83.8,43.25,54.86,44.49,-8.681,64.68,0,0,0,0,0,0,0,0,0,0,0,0,0,0,0,0,
38,-5.537,6.239,-10.08,-21.51,-12.1,7.491,19.16,-15.95,15.42,28.84,88.07,52.58,57.18,50.06,3.537,68.1,0,0,0,0,0,0,0,0,0,0,0,0,0,0,0,0,
39,-5.04,2.506,-5.998,-45.95,-18.55,-0.0393,19.29,-12.72,-10.53,9,67.42,41.88,54.53,48.39,-4.667,67.38,0,0,0,0,0,0,0,0,0,0,0,0,0,0,0,0,
40,-15.62,2.243,-15.49,-39.66,-26.2,-12.81,14.97,-9.039,-37.39,16.14,36.99,22.42,45.55,39.85,-28.23,54.71,0,0,0,0,0,0,0,0,0,0,0,0,0,0,0,0,
41,-33.29,-8.444,-29.96,-27.04,-36.94,-19.23,-5.759,-3.726,-40.15,28.63,25.25,1.009,23.39,10.65,-39.59,31.32,0,0,0,0,0,0,0,0,0,0,0,0,0,0,0,0,
42,-46.52,-25.63,-35.64,-18.14,-30.42,-5.864,-9.572,31.08,-23.51,43.46,44,7.353,26.44,8.479,-48.74,34.88,0,0,0,0,0,0,0,0,0,0,0,0,0,0,0,0,
43,-33.43,-16.04,-23.09,-13.44,-29.92,14.84,4.931,56.41,-30.96,23.57,39.67,10.27,31.07,11.85,-49.2,33.18,0,0,0,0,0,0,0,0,0,0,0,0,0,0,0,0,
44,-36.42,-17,-30.68,-33.08,-55.57,2.173,-0.2461,6.843,-50.25,-3.917,18.67,-4.804,17.65,4.873,-47.21,19.48,0,0,0,0,0,0,0,0,0,0,0,0,0,0,0,0,
45,-48.88,-27.43,-37.72,-35.82,-54.21,-16.46,-10.71,-48.08,-33.07,27.02,29.99,1.619,21.48,28.69,-45.84,29.06,0,0,0,0,0,0,0,0,0,0,0,0,0,0,0,0,
46,-48.13,-25.76,-23.12,-23.38,-54.62,-20.59,-23.47,-39.21,-30.24,34.09,36.44,4.197,23.16,41.08,-31.09,35.21,0,0,0,0,0,0,0,0,0,0,0,0,0,0,0,0,
47,-51.96,-29.23,-12.57,-26.35,-76.86,-27.1,-30.73,7.549,-43.69,-0.9989,40.87,-1.103,16.93,31.03,-32.43,31.97,0,0,0,0,0,0,0,0,0,0,0,0,0,0,0,0,
48,-42.24,-27.04,-8.208,-22.4,-67.56,-20.01,-16.38,24.46,-31.12,3.017,54.34,5.367,19.47,45.83,-39.49,34.43,0,0,0,0,0,0,0,0,0,0,0,0,0,0,0,0,
49,-27.96,-19.03,-11.63,-21.78,-56.81,-0.3635,-3.331,-4.207,-31.77,19.23,48.2,11.22,25.65,61.97,-19.98,46.93,0,0,0,0,0,0,0,0,0,0,0,0,0,0,0,0,
50,-22.35,-8.892,-13.67,-27.3,-69.29,8.359,6.634,1.575,-30.41,31.08,60.47,25.68,38.25,54.42,-6.927,62.51,0,0,0,0,0,0,0,0,0,0,0,0,0,0,0,0,
51,-17.62,-8.819,-14.92,-25.81,-77.13,1.254,3.928,16.79,-11.42,41.17,80.7,30,37.9,43.44,-7.357,53.97,0,0,0,0,0,0,0,0,0,0,0,0,0,0,0,0,
52,-25.65,-27.36,-14.3,-13.66,-62.54,-4.479,-9.66,-29.65,-21.46,23.33,71.13,27.99,39.11,48.62,0.518,57.61,0,0,0,0,0,0,0,0,0,0,0,0,0,0,0,0,
53,-14.91,-12.21,11.26,17.32,-16.34,7.145,2.464,-50.27,-29.27,13.73,68.16,50.6,60.62,52.59,15.66,82.34,0,0,0,0,0,0,0,0,0,0,0,0,0,0,0,0,
54,7.735,13.25,17.73,15.73,7.166,15.7,15.28,-4.233,-2.587,25.06,73.22,57.33,62.16,40.81,24.83,75.13,0,0,0,0,0,0,0,0,0,0,0,0,0,0,0,0,
55,2.133,0.613,1.632,-13.42,-9.987,14.8,18.39,36.36,15.76,28.26,78.9,46.36,57.22,43.41,9.695,67.19,0,0,0,0,0,0,0,0,0,0,0,0,0,0,0,0,
56,1.277,-1.059,13.02,-12.25,-13.62,13.59,29.63,32.09,1.365,23.63,81.9,42.63,56.37,45.02,-8.1,67.55,0,0,0,0,0,0,0,0,0,0,0,0,0,0,0,0,
57,2.962,2.326,8.259,-23.05,-14.17,3.979,28.05,-8.356,-10.07,20.94,64.06,29.74,36.29,32.41,-15.22,44.52,0,0,0,0,0,0,0,0,0,0,0,0,0,0,0,0,
58,-4.6,-8.18,-7.216,-36.72,-22.6,1.817,29.56,-17.99,5.971,32.22,57.77,24.17,28.27,41.02,-28.56,31.55,0,0,0,0,0,0,0,0,0,0,0,0,0,0,0,0,
59,-5.286,-8.465,7.259,-16.12,-21.67,0.102,25.56,0.1093,2.662,35.17,65.11,22.07,29.09,43.22,-28.96,33.86,0,0,0,0,0,0,0,0,0,0,0,0,0,0,0,0,
60,-22.42,-14.52,4.607,-13.36,-23.02,-21.84,-8.7,-30.26,-21.32,8.455,61.39,11.69,23.51,37.42,-22.95,36.75,0,0,0,0,0,0,0,0,0,0,0,0,0,0,0,0,
61,-39.05,-16.78,-14.5,-21.95,-33.89,-39.14,-27.65,-56.32,-27.83,-16.95,53.93,6.044,23.54,56.99,-27.9,35.39,0,0,0,0,0,0,0,0,0,0,0,0,0,0,0,0,
62,-46.8,-25.35,-26.33,-29.34,-46.61,-53.9,-34.18,-26.29,-41.22,-14.25,35.16,-8.139,7.949,52.43,-25.9,23.89,0,0,0,0,0,0,0,0,0,0,0,0,0,0,0,0,
63,-67.57,-60.45,-37.4,-57.59,-31.79,-68.73,-48.39,-16.68,-45.33,8.767,22.14,-12.28,-5.569,18.6,-30.57,25.47,0,0,0,0,0,0,0,0,0,0,0,0,0,0,0,0,
64,-68.64,-64.59,-43.14,-65.2,-15.5,-59.54,-46,-45.12,-30.29,4.724,29.88,-0.9779,2.388,10.29,-39.46,22.1,0,0,0,0,0,0,0,0,0,0,0,0,0,0,0,0,
65,-55.72,-40.08,-54.76,-38.5,-50.08,-44.31,-36.65,-48.11,-37.56,-20.89,42.33,0.6396,10.95,27.8,-34.37,10.82,0,0,0,0,0,0,0,0,0,0,0,0,0,0,0,0,
66,-48.7,-29.63,-47.83,-19.03,-71.49,-38.47,-21.72,-37.28,-37.59,-7.664,52.07,9.436,23.1,38.09,-30.16,29,0,0,0,0,0,0,0,0,0,0,0,0,0,0,0,0,
67,-39.07,-20.87,-20.75,-33.33,-58.41,-37.4,-2.725,-47.08,-24.32,12.28,36.05,11.41,28.74,22.55,-21.61,43.74,0,0,0,0,0,0,0,0,0,0,0,0,0,0,0,0,
68,-41.09,-8.147,-18.55,-52.93,-67.93,-32.43,2.074,-23.51,-18.72,18.15,13,1.703,31.39,17.65,-19.62,40.34,0,0,0,0,0,0,0,0,0,0,0,0,0,0,0,0,
69,-35.37,3.532,-15.48,-31.47,-67.93,-15.03,-0.3796,20.52,-0.5022,29.29,9.301,4.858,36.77,34.54,-33.48,31.17,0,0,0,0,0,0,0,0,0,0,0,0,0,0,0,0,
70,-25.88,-3.488,-7.47,-1.273,-45.89,-10.85,-11.07,3.871,5.351,15.32,11.78,4.9,26.98,35.22,-28.93,17.02,0,0,0,0,0,0,0,0,0,0,0,0,0,0,0,0,
71,-31.25,-10.97,-15.11,12.57,-40.83,-11.77,-8.065,-16.89,11.34,15.61,45.75,16.39,33.83,39.37,-16.1,32.46,0,0,0,0,0,0,0,0,0,0,0,0,0,0,0,0,
72,-18.23,8.161,-12.45,13.35,-52.31,4.183,17.06,-11.86,40.02,37.76,67.34,30.87,44.54,42.88,-12.66,43.97,0,0,0,0,0,0,0,0,0,0,0,0,0,0,0,0,
73,-11.25,0.3372,-7.534,-17.08,-51.13,7.119,22.05,-29.92,36.58,22.59,34.56,18.2,26.42,22.03,-8.147,27.8,0,0,0,0,0,0,0,0,0,0,0,0,0,0,0,0,
74,-23.44,-20.34,4.249,-32.3,-10.53,5.051,13.47,-17.21,22.97,17.87,35.91,16.7,26.01,15.92,-12.12,34.49,0,0,0,0,0,0,0,0,0,0,0,0,0,0,0,0,
75,-23.13,-8.933,20.42,-23.52,10.9,11.38,-0.3239,16.88,36.39,18.47,59.48,17.29,32.79,24.22,-18.72,36.39,0,0,0,0,0,0,0,0,0,0,0,0,0,0,0,0,
76,-27.48,-10.67,8.491,-22.35,-12.33,12.32,-17.93,14.99,37.22,-7.892,54.49,9.237,27.64,35.61,-21.57,24.46,0,0,0,0,0,0,0,0,0,0,0,0,0,0,0,0,
77,-18.87,-11.39,6.764,13.05,-1.263,24.99,-5.576,20.81,27.32,14.9,62.95,23.8,34.71,50.56,-22.75,28.98,0,0,0,0,0,0,0,0,0,0,0,0,0,0,0,0,
78,1.387,2.872,19.28,38.9,15.08,29.65,8.101,23.14,30.97,58.18,61.57,28.03,27.97,41.23,-16.63,27.88,0,0,0,0,0,0,0,0,0,0,0,0,0,0,0,0,
79,-5.604,-7.027,14,4.697,-4.561,9.57,2.584,1.165,41.47,48.92,44.3,21.86,20.46,32.58,-18.49,37.37,0,0,0,0,0,0,0,0,0,0,0,0,0,0,0,0,
80,-9.236,-17.4,10.78,-27.23,-6.593,-1.504,8.126,-24.27,27.18,23.7,42.82,23.75,28.63,36.49,-21.73,47.95,0,0,0,0,0,0,0,0,0,0,0,0,0,0,0,0,
81,-9.201,-19.37,0.3611,-50.88,-1.428,-6.901,17.64,-56.41,-0.4623,21.84,40.78,16.4,23,33,-14.95,30.05,0,0,0,0,0,0,0,0,0,0,0,0,0,0,0,0,
82,-15.51,-15.51,-4.28,-56.21,-4.181,-9.001,21.64,-41.14,18.74,42.26,50.98,23.33,23.16,41.22,-16.43,22,0,0,0,0,0,0,0,0,0,0,0,0,0,0,0,0,
83,-6.184,0.2949,16.59,-18.3,2.341,-0.0199,8.668,7.571,36.79,42.51,54.01,29.46,29.31,44.15,-20.27,23.52,0,0,0,0,0,0,0,0,0,0,0,0,0,0,0,0,
84,-5.333,-2.468,20.71,9.53,9.982,7.015,-7.618,5.455,9.105,26.73,35.35,17.89,27.91,39.39,-21.16,27.32,0,0,0,0,0,0,0,0,0,0,0,0,0,0,0,0,
85,-8.674,-8.13,10.79,14.33,8.571,14.19,7.941,-9.121,5.45,35.19,45.46,19.76,28.69,47.78,-18.57,35.96,0,0,0,0,0,0,0,0,0,0,0,0,0,0,0,0,
86,-9.545,-7.207,3.938,2.356,-19.55,7.452,15.48,-13.85,19.13,22.02,58.43,12.61,11.68,38.14,-14,19.07,0,0,0,0,0,0,0,0,0,0,0,0,0,0,0,0,
87,-23.47,-19.34,0.5171,-22.71,-26.98,-7.441,6.887,-25.76,17,-2.25,41.51,-1.893,-4.806,22.17,-29.41,5.113,0,0,0,0,0,0,0,0,0,0,0,0,0,0,0,0,
88,-18.87,-17.18,13.88,-15.37,17.04,6.337,18.08,-10.06,18.81,11.01,24.85,3.556,4.158,23.11,-33.67,16.04,0,0,0,0,0,0,0,0,0,0,0,0,0,0,0,0,
89,-2.582,-0.1009,24.14,8.978,25.91,27.22,25.28,5.989,10.76,17.74,22.87,12.04,19.28,31.27,-10.75,27.26,0,0,0,0,0,0,0,0,0,0,0,0,0,0,0,0,
90,2.685,13.51,29.1,10.73,-4.627,23.41,25.01,-11.61,3.819,19.78,36.11,20.36,30.34,48.51,-10.42,32.63,0,0,0,0,0,0,0,0,0,0,0,0,0,0,0,0,
91,0.7551,9.1,23.45,0.3518,-28.28,0.6132,14.58,-37.8,14.42,33.28,38.86,19.29,23.63,43.89,-16.14,24.64,0,0,0,0,0,0,0,0,0,0,0,0,0,0,0,0,
92,-15.72,-18.91,-8.786,-6.514,-66.8,-18.23,-12.96,-60.95,18.86,34.05,28.56,14.2,20.07,27.32,-3.992,27.58,0,0,0,0,0,0,0,0,0,0,0,0,0,0,0,0,
93,-20.5,-22.65,-21.43,-9.66,-89.39,-15.14,-21.66,-69.45,11.27,40.17,22.32,14.79,31.6,35.01,-6.863,39.3,0,0,0,0,0,0,0,0,0,0,0,0,0,0,0,0,
94,-21.77,-11.81,-15.12,-20.49,-66.83,-14.24,-24.3,-49.18,1.692,48.09,6.613,-1.004,21.81,34.39,-20.85,24.46,0,0,0,0,0,0,0,0,0,0,0,0,0,0,0,0,
95,-39.17,-20.46,-24.44,-22.7,-42.59,-22.06,-30.41,-15.69,3.85,39.89,8.34,-4.94,14.95,27.33,-26.86,19.23,0,0,0,0,0,0,0,0,0,0,0,0,0,0,0,0,
96,-37.57,-21.22,-33.06,-22.09,-53.96,-28.26,-21.16,-18.19,-4.067,18.01,17.88,1.239,16.96,21.74,-26.34,19.82,0,0,0,0,0,0,0,0,0,0,0,0,0,0,0,0,
97,-38.91,-22.79,-36.19,-40.07,-75.93,-43.12,-21.64,-47.29,-27.2,-9.05,-4.003,-12.98,1.938,-1.197,-28.07,1.451,0,0,0,0,0,0,0,0,0,0,0,0,0,0,0,0,
98,-45.35,-22.27,-22.75,-24.45,-49.67,-38.52,-28.73,-23.02,-12.73,-6.726,-10.65,-5.413,3.137,-16.12,-30.96,4.366,0,0,0,0,0,0,0,0,0,0,0,0,0,0,0,0,
99,-25.76,-15.41,-10.47,6.637,-16.01,-17.22,-28.81,8.89,11.64,11.5,-1.091,10.2,11.36,-23.78,-18.58,16.24,0,0,0,0,0,0,0,0,0,0,0,0,0,0,0,0,
100,-20.63,-29.3,-23.08,-10.1,-24.32,-17.59,-22.39,-36.96,9.706,13.37,-0.3749,4.069,11.6,-20.06,-11.64,16.94,0,0,0,0,0,0,0,0,0,0,0,0,0,0,0,0,
101,-25.38,-28.01,-16.3,-27.56,-24.57,-19.41,-8.045,-76.74,1.187,15.23,8.045,-0.2586,15.35,7.16,-25.73,10.18,0,0,0,0,0,0,0,0,0,0,0,0,0,0,0,0,
102,-29.2,-23.3,-13.3,-26.17,-32.72,-25.23,-19.85,-29.78,-40.72,19.63,-3.541,-15.97,0.4782,9.67,-36.73,-9.517,0,0,0,0,0,0,0,0,0,0,0,0,0,0,0,0,
103,-51.77,-40.61,-38.6,-18.04,-65.82,-41.83,-31.93,34.04,-71.52,17.53,-18.11,-20.8,-3.946,-7.49,-39.07,-4.632,0,0,0,0,0,0,0,0,0,0,0,0,0,0,0,0,
104,-50.03,-26.04,-38.2,-5.074,-68.87,-33.25,-8.71,25.33,-36.29,-1.964,-9.192,-2.273,11.06,-10.49,-27.71,13.51,0,0,0,0,0,0,0,0,0,0,0,0,0,0,0,0,
105,-30.77,-12.46,-30.47,-17.1,-53.26,-15.91,1.525,-10.64,-13.81,-6.205,-10.25,-1.65,8.05,-4.654,-15.59,12.21,0,0,0,0,0,0,0,0,0,0,0,0,0,0,0,0,
106,-26.51,-25.84,-27.74,-14.7,-39.03,-15.49,4.274,-2.51,-25.2,34.82,-3.072,0.1247,11.51,13.8,-23.36,16.39,0,0,0,0,0,0,0,0,0,0,0,0,0,0,0,0,
107,-21.78,-22.18,-15.7,1.593,-35.83,-20.62,10,-28.7,-26.39,31.29,11.88,5.17,17.12,12.51,-23.2,14.98,0,0,0,0,0,0,0,0,0,0,0,0,0,0,0,0,
108,-24.93,-23.64,-24.9,-16.13,-55.41,-19.27,-4.914,-81.86,-18.94,-7.754,6.798,1.158,14.15,-16.13,-16.66,11.09,0,0,0,0,0,0,0,0,0,0,0,0,0,0,0,0,
109,-23.63,-19.94,-25.53,-5.82,-51.36,-11.33,-5.849,-29.04,-7.404,12.77,2.491,9.162,26.23,-22.82,-16.67,20.44,0,0,0,0,0,0,0,0,0,0,0,0,0,0,0,0,
110,-17.5,4.718,-3.733,21.39,-31.05,-21.93,3.081,44.81,-3.913,25.75,1.434,9.336,28.68,-7.57,-6.393,20.95,0,0,0,0,0,0,0,0,0,0,0,0,0,0,0,0,
111,-22.94,7.232,-1.786,4.37,-39.2,-32.05,-0.5089,20.93,2.703,22.15,5.34,6.538,22.92,7.549,-6.228,25.24,0,0,0,0,0,0,0,0,0,0,0,0,0,0,0,0,
112,-13.46,-3.606,-11.68,-4.775,-56.29,-11.91,-1.583,2.868,14.22,53.69,7.94,11.43,24.27,9.375,-11.87,26.39,0,0,0,0,0,0,0,0,0,0,0,0,0,0,0,0,
113,-10.74,-8.547,-22.34,-1.012,-61.37,-4.538,-12,36.34,-5.354,45.45,1.725,5.682,22.01,13.87,-2.732,21.92,0,0,0,0,0,0,0,0,0,0,0,0,0,0,0,0,
114,-22.95,-3.548,-29.82,-14.15,-55.69,-14.68,-17.35,16.88,-32.22,12.95,15.03,9.301,24.82,36.57,-5.019,33.8,0,0,0,0,0,0,0,0,0,0,0,0,0,0,0,0,
115,-18.5,-0.4468,-31.16,-23.93,-63.22,-17.22,-12.88,-38.1,-36.05,23.28,21.92,10.4,11.12,25.33,-13.39,22.35,0,0,0,0,0,0,0,0,0,0,0,0,0,0,0,0,
116,-21.48,-24.5,-30.31,-13.6,-75.92,-26.59,-27.65,3.192,-19.58,34.18,10.94,-0.5284,-9.139,-3.591,-15.53,3.814,0,0,0,0,0,0,0,0,0,0,0,0,0,0,0,0,
117,-27.53,-35.41,-23.05,14.94,-47.81,-34.03,-38.04,62.6,4.086,23.19,10.43,-0.6449,-1.726,0.9581,-19.41,13.6,0,0,0,0,0,0,0,0,0,0,0,0,0,0,0,0,
118,-32.65,-25.53,-35.56,8.6,-5.125,-34.85,-29.15,-1.822,-7.284,3.686,0.0114,-9.623,-2.708,-1.316,-15.33,9.981,0,0,0,0,0,0,0,0,0,0,0,0,0,0,0,0,
119,-50.54,-27.59,-45.39,-30.39,18.36,-32.4,-17.92,-39.05,-28.01,-10.57,4.58,-11.21,-10.59,-1.009,-13.33,6.576,0,0,0,0,0,0,0,0,0,0,0,0,0,0,0,0,
120,-41.51,-21.17,-19.85,-24.26,11.66,-20.24,-19.82,27.71,-12.58,-18.67,26.1,4.69,-4.982,18.75,-15.91,14.33,0,0,0,0,0,0,0,0,0,0,0,0,0,0,0,0,
121,-20.99,-15.54,-12.87,4.708,-20.79,-16.51,-33.31,27.88,3.787,-25.9,13.67,5.952,-0.4462,16.77,-12.21,14.35,0,0,0,0,0,0,0,0,0,0,0,0,0,0,0,0,
122,-16.86,-14.3,-15.07,3.216,-13.66,-13.94,-19.51,-24.21,3.366,-0.3591,8.048,11.04,14.07,13.11,-10.45,25.24,0,0,0,0,0,0,0,0,0,0,0,0,0,0,0,0,
123,-10.3,-2.9,-4.309,-12.61,2.203,-3.994,2.325,-19.02,-10.07,36.26,16.64,12.13,20.79,15.67,-6.177,23.78,0,0,0,0,0,0,0,0,0,0,0,0,0,0,0,0,
124,-15.98,-5.029,-12.17,-5.177,-24.71,-4.384,-2.093,18.08,-22.91,30.17,9.073,0.9726,14.6,6.073,-4.219,13.61,0,0,0,0,0,0,0,0,0,0,0,0,0,0,0,0,
125,-20.22,-7.088,-5.834,23.72,-21.57,-2.641,0.8318,31.48,-11.8,-0.9542,19.32,8.358,20.12,6.831,-7.42,21.93,0,0,0,0,0,0,0,0,0,0,0,0,0,0,0,0,
126,-11.2,-4.409,1.376,12.01,-4.355,2.747,7.085,-7.523,0.9597,-9.286,31.69,12.98,16.1,17.12,-7.331,15.47,0,0,0,0,0,0,0,0,0,0,0,0,0,0,0,0,
127,-9.417,-6.998,-16.35,-15.91,-5.735,5.571,6.903,-19.12,10.56,27.86,22.24,9.931,8.194,21.29,-18.55,4.49,0,0,0,0,0,0,0,0,0,0,0,0,0,0,0,0,
128,-5.448,-2.03,-10.02,2.631,19.03,9.775,5.847,25.88,15.73,41.22,7.339,5.492,4.431,10.4,-26.41,4.256,0,0,0,0,0,0,0,0,0,0,0,0,0,0,0,0,
129,-14.48,-13.98,-6.969,10.45,26.14,-0.4374,-11.03,0.4604,6.588,-8.757,-4.038,-10.17,-7.886,-0.2471,-22.59,-5.109,0,0,0,0,0,0,0,0,0,0,0,0,0,0,0,0,
130,-26.83,-20.52,-19.77,-14.15,13.49,-11.88,-7.92,-53.9,11.52,-24.77,4.55,-9.453,-8.638,10.56,-31.54,-12.81,0,0,0,0,0,0,0,0,0,0,0,0,0,0,0,0,
131,-20.06,-7.223,-6.62,-34.36,22.41,-13.39,7.471,-23.85,8.294,2.192,9.547,-8.404,-11.79,7.483,-33.14,-16.14,0,0,0,0,0,0,0,0,0,0,0,0,0,0,0,0,
132,-31.56,-28,4.007,-32.84,12.66,-17.37,-14.38,4.385,-4.217,14.19,-0.0127,-19.95,-21.19,-5.587,-25.03,-8.825,0,0,0,0,0,0,0,0,0,0,0,0,0,0,0,0,
133,-42.27,-43.29,5.188,9.009,6.432,-11.09,-31,-28.56,18.02,23.77,-0.5315,-16.9,-17.68,-3.087,-27.94,-0.3763,0,0,0,0,0,0,0,0,0,0,0,0,0,0,0,0,
134,-31.48,-29.24,5.641,26.91,31.07,-5.434,-17.15,-47.98,22.21,19.16,-9.672,-19.06,-20.43,-11.45,-26.08,-9.166,0,0,0,0,0,0,0,0,0,0,0,0,0,0,0,0,
135,-28.03,-29.1,-9.749,-7.541,38.21,-11.46,-0.037,-25.74,-1.259,15.05,-14.33,-20.16,-16.72,-8.664,-23.59,-6.207,0,0,0,0,0,0,0,0,0,0,0,0,0,0,0,0,
136,-20.72,-22.2,-22.96,-17.65,21.94,-17.99,3.377,-31.5,2.088,26.69,-4.318,-12.66,-9.876,9.165,-21.61,-4.502,0,0,0,0,0,0,0,0,0,0,0,0,0,0,0,0,
137,-21.78,-17.28,-22.68,-16.26,8.111,-33.92,-13.5,-64.77,6.774,17.71,-1.681,-16.44,-14.45,7.571,-10.26,-4.942,0,0,0,0,0,0,0,0,0,0,0,0,0,0,0,0,
138,-31.18,-20.65,-6.281,-36.51,16.37,-40.13,-17.96,-31.46,1.648,15.6,10.84,-6.148,4.856,14.32,-0.1827,26.71,0,0,0,0,0,0,0,0,0,0,0,0,0,0,0,0,
139,-24.23,-5.309,5.511,-45.05,36.23,-31.53,-12.69,21.51,-1.329,13.1,19.44,5.684,22.16,23.24,15.51,41.41,0,0,0,0,0,0,0,0,0,0,0,0,0,0,0,0,
140,-28.64,-3.52,-7.811,-26.23,42.97,-37.07,-26.27,20.01,-4.075,-22.34,20.44,2.614,18.83,18.08,25.76,32.5,0,0,0,0,0,0,0,0,0,0,0,0,0,0,0,0,
141,-33.29,-12.66,-12.48,2.862,44.42,-37.7,-34.32,22.19,-0.0037,-21.36,31.85,6.704,26.78,25.24,15.83,32.75,0,0,0,0,0,0,0,0,0,0,0,0,0,0,0,0,
142,-23.93,-13.4,-13.47,-0.6134,32.21,-25.58,-31.33,2.17,1.158,26.79,23.12,4.195,24.52,26.46,5.763,17.68,0,0,0,0,0,0,0,0,0,0,0,0,0,0,0,0,
143,-21.14,-18.84,-18.06,-24.16,16.22,-21.17,-20.56,-65.28,17.11,46.07,22.25,6.991,16.69,18.13,-5.205,8.88,0,0,0,0,0,0,0,0,0,0,0,0,0,0,0,0,
144,-13.29,-19.71,-8.272,-37.72,24.42,-23.22,-10.62,-74.21,33.67,14.06,40.74,12.51,15.85,19.92,-13.6,13.48,0,0,0,0,0,0,0,0,0,0,0,0,0,0,0,0,
145,-15.43,-28.08,-15.04,-57.63,36.62,-27.57,-22.76,-14.53,9.947,-16.97,28.86,-4.044,3.602,18.71,-13.15,8.959,0,0,0,0,0,0,0,0,0,0,0,0,0,0,0,0,
146,-25.25,-33.91,-20.76,-40.59,42.48,-25.94,-23.43,21.06,-6.717,-1.149,14.47,-7.368,0.6756,7.589,-17.49,12.33,0,0,0,0,0,0,0,0,0,0,0,0,0,0,0,0,
147,-25.71,-20.67,-8.07,-2.511,27.34,-30.37,-16.84,0.6158,-11.36,10.36,0.6847,-7.755,2.709,-9.399,-15.5,10.05,0,0,0,0,0,0,0,0,0,0,0,0,0,0,0,0,
148,-40.92,-19.58,-11.77,-20.53,-3.1,-37.69,-26.26,-32.82,-33.43,-3.603,-22.32,-16.72,2.808,-11.06,-7.744,10.6,0,0,0,0,0,0,0,0,0,0,0,0,0,0,0,0,
149,-39.7,-15.89,-4.247,-30.25,2.411,-16.56,-14.45,-50.3,-33.41,4.929,-5.057,-0.5018,13.65,-1.194,0.9676,25.81,0,0,0,0,0,0,0,0,0,0,0,0,0,0,0,0,
150,-19.68,-7.638,11.65,1.197,12.18,-0.1645,-0.586,-67.63,-19.32,6.886,25.13,9.533,13.29,-6.671,16.05,23.8,0,0,0,0,0,0,0,0,0,0,0,0,0,0,0,0,
151,-21.35,-14.74,10.72,13.15,8.444,1.499,-3.96,-56.12,-10.03,-17.04,31.01,4.186,10.32,-6.494,11.4,23.18,0,0,0,0,0,0,0,0,0,0,0,0,0,0,0,0,
152,-13.97,-14.91,17.59,5.001,32.06,23.15,0.3417,-20.18,-1.501,-30.07,29.94,1.02,6.814,-7.311,-3.23,21.76,0,0,0,0,0,0,0,0,0,0,0,0,0,0,0,0,
153,-6.133,-23.91,10.68,-13.88,33.61,26.42,-5.051,-25.98,-4.623,-14.12,27.25,-7.271,-3.945,-19.61,-2.336,8.553,0,0,0,0,0,0,0,0,0,0,0,0,0,0,0,0,
154,-12.18,-30.12,-2.686,-19.25,0.8363,3.955,-11.79,-48.36,11.73,23.02,35.58,4.895,11.39,-10.35,-1.01,20.26,0,0,0,0,0,0,0,0,0,0,0,0,0,0,0,0,
155,-1.668,-4.756,5.738,-4.383,-3.408,-2.623,-7.064,-59.07,27.24,27.77,45.08,22.37,27.07,1.974,3.249,30.3,0,0,0,0,0,0,0,0,0,0,0,0,0,0,0,0,
156,3.802,10.17,2.608,-16.01,11.34,-2.796,-5.545,-70.54,3.825,10.84,46.54,22.53,22.3,10.9,4.7,23.13,0,0,0,0,0,0,0,0,0,0,0,0,0,0,0,0,
157,5.25,12.25,-2.986,-31.91,18.97,0.0731,-3.137,-54.09,-0.6965,16.67,48.84,28.04,22.76,20.92,2.146,22.66,0,0,0,0,0,0,0,0,0,0,0,0,0,0,0,0,
158,13.13,10.62,4.379,-11.47,25.25,9.248,-13.62,-23.26,22.89,1.858,42.81,28.84,16.35,4.201,14.86,18.32,0,0,0,0,0,0,0,0,0,0,0,0,0,0,0,0,
159,9.883,0.5549,11.68,19.66,37.98,14.69,-14.56,-6.669,31.16,-1.075,43.73,27.63,15.94,-0.909,17.9,22.52,0,0,0,0,0,0,0,0,0,0,0,0,0,0,0,0,
160,9.931,5.111,18.27,18.37,40.17,18.38,14.45,-8.162,21.86,38.75,43.45,27.62,25.49,16.53,15.31,28.37,0,0,0,0,0,0,0,0,0,0,0,0,0,0,0,0,
161,6.606,2.447,12.41,-9.157,11.89,16.94,20.07,-35.31,12.97,31.2,35.88,23.51,26.01,25.12,31.18,28.66,0,0,0,0,0,0,0,0,0,0,0,0,0,0,0,0,
162,5.764,-0.0164,13.95,-5.684,-5.959,12.36,8.042,-52.9,21.35,-0.6564,45.93,32.68,36.66,40.8,33.12,44.21,0,0,0,0,0,0,0,0,0,0,0,0,0,0,0,0,
163,14.08,17.29,15.05,3.915,2.489,-0.0302,7.989,-51.38,13.63,14.46,28.37,22.9,38.05,35.76,21.29,41.01,0,0,0,0,0,0,0,0,0,0,0,0,0,0,0,0,
164,-0.9559,14.22,-8.249,-16.48,3.972,-15.87,5.785,-47.26,-8.978,34.57,3.418,4.093,27.84,12.52,19.8,28.79,0,0,0,0,0,0,0,0,0,0,0,0,0,0,0,0,
165,-4.903,11.37,-5.607,-14.2,-1.674,-13.53,7.449,-27.01,0.4644,24.97,30.3,17.98,33.09,13.93,21.34,39.26,0,0,0,0,0,0,0,0,0,0,0,0,0,0,0,0,
166,10.12,20.53,3.749,-3.191,-12.9,-15.42,4.666,-9.344,1.55,8.805,39.32,19.16,28.63,8.689,20,36.41,0,0,0,0,0,0,0,0,0,0,0,0,0,0,0,0,
167,6.194,15.45,-15.12,-1.467,-17.38,-25.11,1.456,-2.937,-9.595,22.07,33.23,15.81,25.76,12.01,14.83,28.88,0,0,0,0,0,0,0,0,0,0,0,0,0,0,0,0,
168,10.54,15.36,-15,10.89,-9.05,-21.92,4.072,-17.37,6.764,33.36,52.37,29.35,27.21,38.61,19.27,26.92,0,0,0,0,0,0,0,0,0,0,0,0,0,0,0,0,
169,4.786,-0.4212,-15.23,-6.112,-12.48,-31.99,-14.45,-66.23,4.929,1.985,41.63,17.52,6.974,34.53,25.41,17.87,0,0,0,0,0,0,0,0,0,0,0,0,0,0,0,0,
170,-21.47,-23.42,-26.95,-25.89,-11.24,-39.47,-19.07,-75.26,-13.9,-21.34,26.49,5.733,2.077,20.12,13.47,20.87,0,0,0,0,0,0,0,0,0,0,0,0,0,0,0,0,
171,-19.99,-9.44,-18.91,-19.87,2.475,-16.57,8.12,-34.86,-16.31,-30.64,32.19,8.093,11.08,17.64,9.724,21.56,0,0,0,0,0,0,0,0,0,0,0,0,0,0,0,0,
172,-13.37,3.541,-15.83,-27.43,7.044,-6.163,15.02,-25.7,-30.17,-39.66,16.28,2.587,10.68,9.569,12.33,21.85,0,0,0,0,0,0,0,0,0,0,0,0,0,0,0,0,
173,-16.06,1.194,-20.43,-16.24,-7.82,-21.58,-3.259,-36.79,-48.39,-8.892,-0.2037,1.433,14.77,12.04,3.764,30.25,0,0,0,0,0,0,0,0,0,0,0,0,0,0,0,0,
174,-15.86,-4.223,-23.99,6.043,-34.53,-28.77,-22.4,-33.24,-42.69,22.7,1.006,-2.619,11.29,17.21,1.261,19.16,0,0,0,0,0,0,0,0,0,0,0,0,0,0,0,0,
175,-18.56,-11.12,-17.11,-5.655,-9.764,-19.12,-21.63,-33.54,-31.79,11.85,4.053,-0.2404,8.232,10.86,-3.817,8.906,0,0,0,0,0,0,0,0,0,0,0,0,0,0,0,0,
176,-10.83,-0.7274,11.7,-14.07,41.77,-19.27,-8.024,-52.54,-47.82,-6.759,-3.667,7.138,6.302,2.065,-8.209,7.327,0,0,0,0,0,0,0,0,0,0,0,0,0,0,0,0,
177,-11.64,-2.187,17.64,-9.027,26.61,-27.88,-6.32,-53.27,-61.06,-4.445,-11.5,-1.087,-7.756,0.5722,1.055,4.871,0,0,0,0,0,0,0,0,0,0,0,0,0,0,0,0,
178,-16.88,-14.84,4.593,-6.125,-1.41,-8.432,2.002,-11.17,-33.84,4.03,10.61,2.954,-8.751,5.261,4.314,14.18,0,0,0,0,0,0,0,0,0,0,0,0,0,0,0,0,
179,-4.941,-11.97,0.4938,-12.62,-15.9,3.543,0.904,7.187,-25.54,-21.49,28.23,7.501,-9.834,-3.972,4.597,12.23,0,0,0,0,0,0,0,0,0,0,0,0,0,0,0,0,
180,-9.111,-19.41,-14.73,-23.9,-48.57,-18.53,-21.55,3.653,-41.36,-36.9,24.04,0.4083,-11.48,-0.9894,6.709,13.37,0,0,0,0,0,0,0,0,0,0,0,0,0,0,0,0,
181,-15.19,-17.96,-24.08,-15.46,-47.58,-20.68,-21.68,12.87,-29.26,-5.191,24.41,5.153,6.852,24.99,9.736,29.08,0,0,0,0,0,0,0,0,0,0,0,0,0,0,0,0,
182,-16.69,-5.13,-26.52,-22.38,-46.75,-18.23,-18.16,-21.8,-38.3,-6.589,5.947,-4.534,9.038,17.83,12.89,20.66,0,0,0,0,0,0,0,0,0,0,0,0,0,0,0,0,
183,-35.42,-8.976,-25.57,-38,-67.74,-30.12,-14.79,-37.74,-49.6,-22.11,-3.457,-13.13,4.267,-4.621,-1.78,14.52,0,0,0,0,0,0,0,0,0,0,0,0,0,0,0,0,
184,-25.34,2.044,-7.274,-18.8,-43.03,-18.26,11.5,3.324,-2.222,-0.3193,25.46,5.281,11.87,-2.806,-5.91,17.78,0,0,0,0,0,0,0,0,0,0,0,0,0,0,0,0,
185,4.156,13.65,-11.07,-13.14,-22.84,-13.57,10.87,-9.239,23.85,1.491,32.81,12.39,6.446,-1.455,4.859,5.114,0,0,0,0,0,0,0,0,0,0,0,0,0,0,0,0,
186,6.81,2.88,-20.77,-7.919,-36.43,-30.43,-18.13,-12.01,-4.099,-8.547,10.91,5.312,-1.458,-8.05,-13.85,1.836,0,0,0,0,0,0,0,0,0,0,0,0,0,0,0,0,
187,-3.532,-6.384,-10.13,22.67,-42.33,-28.12,-35.3,33.27,-22.04,-11.54,-5.07,-4.195,-8.181,-12.06,-22.67,3.898,0,0,0,0,0,0,0,0,0,0,0,0,0,0,0,0,
188,-13.82,-14.47,-13.5,16.88,-50.71,-14.24,-36.63,4.498,-14.72,-25.4,-4.198,-4.251,-9.092,-1.51,1.044,8.124,0,0,0,0,0,0,0,0,0,0,0,0,0,0,0,0,
189,-8.327,-8.827,-6.061,-4.528,-39.37,-9.603,-19.66,-23.8,-6.952,-20.53,1.688,5.885,0.1477,7.103,5.566,14.37,0,0,0,0,0,0,0,0,0,0,0,0,0,0,0,0,
190,-6.09,-1.672,1.175,-10.28,-28.61,-15.97,-9.488,15.57,-17.77,1.188,-8.97,-8.86,-8.659,-4.267,-10.6,-0.5458,0,0,0,0,0,0,0,0,0,0,0,0,0,0,0,0,
191,-25.3,-12.73,-22.07,-14.83,-62.63,-17.87,-7.567,-0.166,-21.16,23.92,-8.691,-22.48,-13.94,3.281,-25.44,-8.52,0,0,0,0,0,0,0,0,0,0,0,0,0,0,0,0,
192,-26.33,-10.8,-18.7,-8.76,-71.16,-9.662,6.704,-52.85,-11.93,16.8,-1.573,-17.6,-8.196,7.241,-27.83,-6.432,0,0,0,0,0,0,0,0,0,0,0,0,0,0,0,0,
193,-22.56,-7.731,2.7,-19.06,-37.72,-14.76,9.483,-37.71,-26.56,-39.12,-16.99,-21.81,-15.64,-23.64,-21.13,-11.86,0,0,0,0,0,0,0,0,0,0,0,0,0,0,0,0,
194,-22.39,-15.07,-1.177,-26.11,-28.2,-21.55,-3.073,-5.279,-37.11,-49.2,-16.81,-13.93,-12.74,-28.44,-22.88,-5.696,0,0,0,0,0,0,0,0,0,0,0,0,0,0,0,0,
195,-5.151,-19.75,-14.59,12.2,-34.8,-20.64,-20.3,-13.49,-21.6,-4.239,-4.974,-3.839,-7.348,-10.28,-18.51,-3.399,0,0,0,0,0,0,0,0,0,0,0,0,0,0,0,0,
196,-3.229,-26.64,-21.23,37.41,-28.7,-25.25,-19.69,-1.822,-10.07,1.841,-6.548,-6.725,-8.034,-5.213,-11.93,-4.538,0,0,0,0,0,0,0,0,0,0,0,0,0,0,0,0,
197,-5.752,-9.573,-6.494,21.39,-29.49,-15.63,16.65,24.6,-12.31,-8.146,-7.542,-3.439,-0.0508,-1.264,-16.65,-1.891,0,0,0,0,0,0,0,0,0,0,0,0,0,0,0,0,
198,2.53,10.7,6.829,-0.7955,-46.52,2.067,32.39,-0.8023,-18.64,-1.067,-15.13,-9.706,-3.305,-4.778,-14.45,-9.305,0,0,0,0,0,0,0,0,0,0,0,0,0,0,0,0,
199,0.421,0.1134,3.273,-9.197,-50.15,3.83,19.66,-6.378,-1.431,-6.676,-12.11,-10.1,-6.678,-9.547,-16.01,-3.783,0,0,0,0,0,0,0,0,0,0,0,0,0,0,0,0,
200,5.112,-6.446,5.017,-4.436,-44.62,-1.534,17.67,32.75,22.57,-23.64,4.956,3.653,-5.242,-17.83,-18.09,-3.044,0,0,0,0,0,0,0,0,0,0,0,0,0,0,0,0,
201,10.55,-8.338,-0.8048,-0.4059,-45.15,-3.231,11.62,13.53,13.65,-15.78,16.08,9.894,-6.795,-30.24,1.476,-12.46,0,0,0,0,0,0,0,0,0,0,0,0,0,0,0,0,
202,15.66,-2.689,-1.593,9.51,-29.94,6.572,16.4,-21.47,3.974,24.92,24.38,21.53,5.84,-21.25,16.92,5.768,0,0,0,0,0,0,0,0,0,0,0,0,0,0,0,0,
203,22.07,8.791,5.585,9.672,-21.9,10.3,32.06,9.617,-3.49,30.65,-7.336,9.949,-0.9247,-23.39,9.327,9.793,0,0,0,0,0,0,0,0,0,0,0,0,0,0,0,0,
204,-1.393,-5.74,-8.233,-5.783,-21.11,3.688,29.55,42.71,-27.42,-9.095,-49.77,-19.51,-18.93,-42.25,-10.55,-4.851,0,0,0,0,0,0,0,0,0,0,0,0,0,0,0,0,
205,-11.57,-4.221,-5.598,6.238,4.262,15.36,28.62,18.75,-31.3,-18.61,-33.48,-11.63,-4.506,-38.48,-16.72,2.261,0,0,0,0,0,0,0,0,0,0,0,0,0,0,0,0,
206,9.216,8.541,10.78,16.12,5.066,19.53,22.96,-13.9,-14.6,4.724,-13.04,-0.0437,3.181,-25.77,-1.636,7.243,0,0,0,0,0,0,0,0,0,0,0,0,0,0,0,0,
207,11.41,-8.412,4.738,-1.113,-7.565,3.29,11.27,5.751,-8.005,24.08,-12.26,-2.519,-0.4043,-7.851,-0.4241,9.057,0,0,0,0,0,0,0,0,0,0,0,0,0,0,0,0,
208,5.481,-4.333,0.3684,-1.747,5.522,0.3605,11.98,8.86,-28.59,19.65,-5.925,-0.4496,3.875,-0.0488,-1.012,7.085,0,0,0,0,0,0,0,0,0,0,0,0,0,0,0,0,
209,-3.288,12.31,-2.172,6.606,-1.538,4.582,7.896,-39.29,-50.47,10.6,-8.482,0.5583,2.636,-20.19,17.12,0.4824,0,0,0,0,0,0,0,0,0,0,0,0,0,0,0,0,
210,-5.459,5.179,-3.107,7.093,0.5897,13.03,14.69,-32.85,-27.03,33.18,0.1991,13.69,5.464,-31.89,17.13,7.713,0,0,0,0,0,0,0,0,0,0,0,0,0,0,0,0,
211,12.13,-1.755,-1.508,-3.322,13.76,23.27,30.27,-15.03,-7.709,30.46,8.895,13.16,-4.898,-38.08,0.852,-4.163,0,0,0,0,0,0,0,0,0,0,0,0,0,0,0,0,
212,9.391,-9.329,-5.893,-9.785,-25.6,17.82,21.51,-41.57,-19.94,-1.867,-1.785,-6.251,-20.12,-37.77,-7.722,-17.81,0,0,0,0,0,0,0,0,0,0,0,0,0,0,0,0,
213,-0.9363,-13.45,11.96,18.21,-43.21,6.36,3.306,-2.819,-16.45,2.274,-3.823,-6.898,-9.88,-15.34,-7.205,-1.621,0,0,0,0,0,0,0,0,0,0,0,0,0,0,0,0,
214,-3.485,-14.85,22.56,28.2,-9.479,-10.64,-12.41,47.77,-29.75,2.787,-7.683,-12.24,-4.257,-10,0.3819,0.1787,0,0,0,0,0,0,0,0,0,0,0,0,0,0,0,0,
215,-13.73,-12.21,5.055,5.546,-10.7,-21.51,-6.789,17.16,-62.18,9.012,-7.936,-18.58,1.126,-13.01,0.3298,-3.199,0,0,0,0,0,0,0,0,0,0,0,0,0,0,0,0,
216,-6.911,9.355,4.138,-0.6395,-31.27,-13.23,18.17,0.5054,-52.98,49.21,3.988,-7.811,12.39,-0.4691,2.957,4.843,0,0,0,0,0,0,0,0,0,0,0,0,0,0,0,0,
217,2.81,16.11,5.32,-3.928,-15.11,-3.769,19.12,23.86,-14.06,43.78,6.661,-0.5983,10.92,7.572,9.635,4.875,0,0,0,0,0,0,0,0,0,0,0,0,0,0,0,0,
218,11.37,16.19,10.42,11.91,17.26,16.72,12.42,16.83,17.48,15.79,11,8.975,16.39,8.461,-0.2483,5.484,0,0,0,0,0,0,0,0,0,0,0,0,0,0,0,0,
219,27.5,19.37,27.17,30.45,20.07,31.96,7.311,-18.11,16.56,22.01,2.804,5.427,13.12,-5.021,-0.1819,2.177,0,0,0,0,0,0,0,0,0,0,0,0,0,0,0,0,
220,12.3,-3.469,19.37,1.396,6.864,17.26,-0.8024,-3.913,3.578,16.64,-11.73,-3.634,6.339,-11.21,11.26,6.905,0,0,0,0,0,0,0,0,0,0,0,0,0,0,0,0,
221,1.588,1.478,17.77,-3.077,13.58,9.369,12.27,56.45,13.93,4.224,0.2001,9.887,21.87,4.178,8.042,14.8,0,0,0,0,0,0,0,0,0,0,0,0,0,0,0,0,
222,16.74,25.69,23.48,24.46,17.63,4.607,13.58,48.03,13.95,24.27,3.652,7.767,20.54,0.9291,5.027,-0.5344,0,0,0,0,0,0,0,0,0,0,0,0,0,0,0,0,
223,13.27,13.68,5.097,15.67,12.08,-2.46,12.83,14.06,4.139,56.44,-1.976,-0.9186,15.37,-5.017,2.479,-0.5304,0,0,0,0,0,0,0,0,0,0,0,0,0,0,0,0,
224,9.655,16.84,0.352,-2.034,-7.804,9.042,37.9,46.22,2.28,54.3,-5.556,1.419,23.17,-2.663,-3.589,6.789,0,0,0,0,0,0,0,0,0,0,0,0,0,0,0,0,
225,2.687,24.58,8.827,-9.547,-51.45,2.696,22.71,45.33,-8.507,33.01,-26.38,-11.91,13.7,-8.9,-10.64,-3.018,0,0,0,0,0,0,0,0,0,0,0,0,0,0,0,0,
226,-10.38,10.04,14.06,-2.779,-53.72,-14.9,-8.304,6.598,-4.681,43.04,-26.83,-10.8,12.81,4.475,-19.96,4.48,0,0,0,0,0,0,0,0,0,0,0,0,0,0,0,0,
227,3.156,13.19,18.53,18.2,-18.48,-7.257,9.415,27.56,1.548,46.7,-8.027,2.831,18.88,15.91,-9.506,4.742,0,0,0,0,0,0,0,0,0,0,0,0,0,0,0,0,
228,14.62,13.96,13.38,25.8,-1.193,8.159,25.9,56.29,1.008,23.57,1.845,6.086,16.75,13.36,7.475,-2.555,0,0,0,0,0,0,0,0,0,0,0,0,0,0,0,0,
229,19.66,10.38,19.41,28.74,13.1,24.47,16.38,31.98,27.12,18.65,13.65,16.12,26.34,28.98,11.05,12.74,0,0,0,0,0,0,0,0,0,0,0,0,0,0,0,0,
230,23.55,12.78,18.49,11.89,3.002,24.61,5.057,6.158,29.79,24.19,9.231,12.99,25.78,29.96,16.44,13.64,0,0,0,0,0,0,0,0,0,0,0,0,0,0,0,0,
231,6.893,0.1807,-1.747,-20.04,-15.7,7.197,3.581,31.88,-1.125,33.45,-1.959,4.187,19.57,14.81,9.781,5.908,0,0,0,0,0,0,0,0,0,0,0,0,0,0,0,0,
232,2.007,-0.3176,-3.768,-25.1,-1.562,6.018,7.484,42.66,-7.409,31.56,-5.631,7.148,23.12,15.7,-1.045,6.501,0,0,0,0,0,0,0,0,0,0,0,0,0,0,0,0,
233,9.558,9.347,-9.838,-33.47,-9.101,5.798,-1.016,-18.58,-3.415,9.443,-13.7,5.916,19.08,20.45,6.861,3.617,0,0,0,0,0,0,0,0,0,0,0,0,0,0,0,0,
234,15.61,9.914,-15.65,-35.37,-21.4,4.939,-5.695,-37.66,3.633,13.82,-4.361,15.64,19.3,29.12,10.08,7.301,0,0,0,0,0,0,0,0,0,0,0,0,0,0,0,0,
235,26.78,12.11,3.673,-4.928,-7.038,19.26,2.176,16.25,20.25,8.223,5.066,20.35,17.41,32.97,6.51,2.544,0,0,0,0,0,0,0,0,0,0,0,0,0,0,0,0,
236,21.28,9.989,10.56,11.6,-8.214,28.84,10.16,35.79,32.26,-18.05,6.894,17.03,15.68,29.27,9.347,3.537,0,0,0,0,0,0,0,0,0,0,0,0,0,0,0,0,
237,23.74,18.44,15.1,14.7,6.616,39.23,16.12,31.65,36.5,9.902,24.16,36.44,30.31,32.18,19.5,21.7,0,0,0,0,0,0,0,0,0,0,0,0,0,0,0,0,
238,40.85,26.86,22.28,6.005,30.19,47.7,4.293,40.16,23.12,35.42,19.22,40.84,29.05,29.62,26.87,12.18,0,0,0,0,0,0,0,0,0,0,0,0,0,0,0,0,
239,36.35,15.4,6.71,-11.96,13.57,42.32,-6.052,34.08,15.74,13.44,2.075,25.49,18.61,35.01,9.722,-5.959,0,0,0,0,0,0,0,0,0,0,0,0,0,0,0,0,
240,30.46,13.81,-2.785,-5.493,0.6292,39.33,3.072,7.388,14.46,12.77,4.518,20.44,18.21,48.85,0.2984,-5.558,0,0,0,0,0,0,0,0,0,0,0,0,0,0,0,0,
241,22.43,12.93,-2.443,-11.27,6.065,30.72,10.91,-23.61,-5.369,32.88,4.784,16.71,18.46,47.29,18.25,3.112,0,0,0,0,0,0,0,0,0,0,0,0,0,0,0,0,
242,11.63,13.31,-2.979,-20.68,10.08,19.63,21.48,-22.18,0.8296,30.51,7.103,20.94,28.85,47.63,21.97,20.58,0,0,0,0,0,0,0,0,0,0,0,0,0,0,0,0,
243,16.08,23.87,1.376,8.966,12.54,18.82,10.33,10.14,14.63,0.0741,-3.952,15.94,24.48,47.54,14.29,17.49,0,0,0,0,0,0,0,0,0,0,0,0,0,0,0,0,
244,7.461,9.904,-1.324,18.29,3.236,11.47,-20.41,34.18,-4.303,-12.68,-24.86,1.537,5.833,36.02,12.51,6.566,0,0,0,0,0,0,0,0,0,0,0,0,0,0,0,0,
245,-0.0525,-1.477,-5.915,-3.859,-2.678,1.024,-14.69,32.48,-3.655,9.642,-16.84,8.94,7.055,25.36,16.56,16.09,0,0,0,0,0,0,0,0,0,0,0,0,0,0,0,0,
246,2.671,3.03,-10.07,-7.668,1.796,-7.035,-6.236,6.901,1.995,-1.141,-11.1,8.612,2.334,18.43,23.36,11.31,0,0,0,0,0,0,0,0,0,0,0,0,0,0,0,0,
247,-8.624,-6.469,-4.407,-0.79,-1.154,-12.21,-16.8,-3.865,-13.02,-32.38,-12.87,-2.389,-10.66,17.36,8.369,-1.924,0,0,0,0,0,0,0,0,0,0,0,0,0,0,0,0,
248,-6.772,-9.521,8.442,-7.552,-11.36,-9.231,-12.2,-13.11,-3.658,-23.65,-6.332,-3.784,-16.59,3.06,-3.709,-4.851,0,0,0,0,0,0,0,0,0,0,0,0,0,0,0,0,
249,-0.7758,-11.06,-7.917,-24.59,-1.062,-14.96,-7.406,-47.37,16.62,0.1683,-15.72,-7.318,-20.39,-6.652,10.66,-2.624,0,0,0,0,0,0,0,0,0,0,0,0,0,0,0,0,
250,-4.965,-11.21,-19.73,-28.37,33.51,-26.2,0.7297,-27.63,14.04,8.797,-17.66,-2.666,-10.45,20.07,17.72,8.924,0,0,0,0,0,0,0,0,0,0,0,0,0,0,0,0,
251,-0.9726,-0.2366,-10.19,-32.12,19.81,-34.07,1.425,25.31,-1.179,-10.06,-2.834,-2.158,-9.302,27.63,21.01,6.356,0,0,0,0,0,0,0,0,0,0,0,0,0,0,0,0,
252,-9.672,-13.3,-19.53,-38.56,-26.9,-41.91,-28.42,21.21,2.779,-25.06,2.926,-9.414,-19.29,21.14,19.11,-4.535,0,0,0,0,0,0,0,0,0,0,0,0,0,0,0,0,
253,-17.7,-30.92,-19.41,-12.6,-17.61,-33.09,-45.97,8.591,28.81,-8.277,0.091,-4.324,-15.99,42.57,4.466,-3.836,0,0,0,0,0,0,0,0,0,0,0,0,0,0,0,0,
254,-9.867,-29.02,-9.947,0.1725,-9.644,-17.95,-37.31,11.04,37.57,-7.587,-0.5043,-3.972,-15.63,37.85,7.296,-3.956,0,0,0,0,0,0,0,0,0,0,0,0,0,0,0,0,
255,-5.535,-20.33,-12.73,-23.31,-32.53,-14.05,-12.92,-7.556,41.38,-11.96,16.71,0.3597,-9.356,17.78,10.18,1.423,0,0,0,0,0,0,0,0,0,0,0,0,0,0,0,0,
256,0.3405,-6.73,-3.326,-31.04,-29.22,-11.29,9.873,-27.93,46.92,-8.535,19.07,5.894,-1.798,25.15,3.446,3.272,0,0,0,0,0,0,0,0,0,0,0,0,0,0,0,0,
257,-5.097,-14.6,0.0179,-30.33,-25.5,-6.003,-1.151,-14.88,33.58,-28.92,4.762,0.6932,-5.104,30.4,11.22,6.942,0,0,0,0,0,0,0,0,0,0,0,0,0,0,0,0,
258,-4.186,-17.79,3.113,-19.33,-11.21,6.538,-7.669,17.34,40.85,-23.09,30.05,16.65,12.27,35.19,17.51,24.36,0,0,0,0,0,0,0,0,0,0,0,0,0,0,0,0,
259,18.31,8.88,17.83,5.278,25.17,13.93,4.755,-6.379,54.45,2.611,44.87,24.94,27.41,47.79,23.78,22.58,0,0,0,0,0,0,0,0,0,0,0,0,0,0,0,0,
260,16.84,14.27,13.47,7.835,26.95,15.65,4.08,-42.26,42.25,2.952,25.91,11.5,25.44,61.82,29.82,23.41,0,0,0,0,0,0,0,0,0,0,0,0,0,0,0,0,
261,10.6,9.687,11.09,0.9179,3.85,31.14,2.23,5.191,41.42,15.3,26.16,12.39,25.07,65.31,14.79,26.4,0,0,0,0,0,0,0,0,0,0,0,0,0,0,0,0,
262,11.17,8.561,9.551,-11.49,-25.42,25.71,-5.875,35.37,37.42,16.16,20.02,6.943,8.762,38.32,0.0259,-4.664,0,0,0,0,0,0,0,0,0,0,0,0,0,0,0,0,
263,-3.026,-0.2922,2.809,-20.52,-40.55,0.7712,-3.93,10.56,24.66,-8.046,18.48,3.356,0.7095,18.49,-5.042,-14.56,0,0,0,0,0,0,0,0,0,0,0,0,0,0,0,0,
264,1.637,7.612,18.64,-3.54,-16.03,3.442,19.95,12.42,27.58,-6.864,28.89,4.365,2.547,14.92,-11.24,-8.703,0,0,0,0,0,0,0,0,0,0,0,0,0,0,0,0,
265,3.588,1.204,16.84,1.632,-9.679,11.92,13.34,-0.3736,30.22,-1.789,6.099,-12.98,-11.03,3.033,-14.6,-20.43,0,0,0,0,0,0,0,0,0,0,0,0,0,0,0,0,
266,-9.524,-13.48,5.088,-1.215,-30.66,11.41,-6.303,-13.96,40.98,-6.645,-5.94,-9.74,-3.535,10.61,-15.49,-7.021,0,0,0,0,0,0,0,0,0,0,0,0,0,0,0,0,
267,-1.387,0.3146,16.5,6.564,-30.4,12.21,-7.937,29.37,39.71,1.519,-3.303,-2.699,6.859,17.54,-10.71,-0.4423,0,0,0,0,0,0,0,0,0,0,0,0,0,0,0,0,
268,1.256,1.944,2.159,1.466,-20.94,10.5,-7.475,61.73,18.17,10.63,-15.47,-15.53,-3.972,1.492,-11.09,-15.12,0,0,0,0,0,0,0,0,0,0,0,0,0,0,0,0,
269,1.532,1.487,-12.52,-5.995,-21.26,13.12,4.064,39.55,31.16,-6.09,-5.674,-13.56,-11.2,-9.049,-25.11,-17.39,0,0,0,0,0,0,0,0,0,0,0,0,0,0,0,0,
270,5.886,4.429,8.933,-19.48,-21.09,3.503,6.972,-7.908,41.8,-40.4,3.231,-16.84,-26.72,-22.22,-34.06,-29.66,0,0,0,0,0,0,0,0,0,0,0,0,0,0,0,0,
271,-3.133,-11.63,18.83,-19.01,8.665,-1.482,6.75,-27.89,19.82,-21.94,6.561,-14.5,-23.2,-18.55,-26.6,-25.08,0,0,0,0,0,0,0,0,0,0,0,0,0,0,0,0,
272,9.545,0.492,11.65,12.18,31.99,24.57,23.68,-17.67,16.75,37,29.54,9.084,4.398,10.1,-1.561,0.2862,0,0,0,0,0,0,0,0,0,0,0,0,0,0,0,0,
273,19.45,17.49,10.31,8.85,0.1516,26.31,12.56,-30.92,20.79,37.78,32.4,10.53,1.414,8.32,14.36,-1.194,0,0,0,0,0,0,0,0,0,0,0,0,0,0,0,0,
274,6.193,3.307,18.93,-0.399,-2.44,6.909,-8.372,-22.35,14.94,-0.3321,27.5,9.11,-6.26,-10.09,6.268,-3.254,0,0,0,0,0,0,0,0,0,0,0,0,0,0,0,0,
275,13.55,2.446,17.99,21.16,28.38,15.82,-4.509,31.7,14.77,-15.1,36.08,16.36,4.48,-0.305,10.13,5.048,0,0,0,0,0,0,0,0,0,0,0,0,0,0,0,0,
276,19.28,11.59,2.009,9.79,10.58,24.9,-1.222,48.29,19.87,-1.49,31.33,14.47,13.71,16.74,17.87,11.89,0,0,0,0,0,0,0,0,0,0,0,0,0,0,0,0,
277,15.64,18.17,7.203,-0.4076,6.452,20.42,7.439,23.46,28.14,24.43,18.42,14.83,16.79,3.096,6.598,13.54,0,0,0,0,0,0,0,0,0,0,0,0,0,0,0,0,
278,13.98,15.23,11.6,10.07,24.8,9.302,11.02,-8.45,23.67,19.65,3.926,-0.9184,0.5217,-22.21,-6.125,-7.005,0,0,0,0,0,0,0,0,0,0,0,0,0,0,0,0,
279,-4.604,-4.741,-0.3374,-13.45,-1.303,-12.73,2.887,-22.14,9.45,-9.94,-1.542,-19.03,-11.83,-14.42,-18.03,-15.37,0,0,0,0,0,0,0,0,0,0,0,0,0,0,0,0,
280,-12.88,-6.657,5.275,-23.7,-29.98,-25.7,3.934,12.93,-5.196,-22.05,6.231,-15.74,-8.064,-5.718,-14.62,-5.68,0,0,0,0,0,0,0,0,0,0,0,0,0,0,0,0,
281,-7.125,-1.384,3.452,6.275,-39.97,-25.47,-6.575,46.07,-15.09,-7.025,14.6,-12.07,-7.869,-9.794,1.286,-5.625,0,0,0,0,0,0,0,0,0,0,0,0,0,0,0,0,
282,-0.6638,-2.833,-3.048,23.59,-43.18,-18.91,-18.11,39.52,0.2051,21.53,29.59,-0.45,1.556,11.57,0.5048,3.932,0,0,0,0,0,0,0,0,0,0,0,0,0,0,0,0,
283,10.59,4.927,2.208,11.5,-24.88,-9.963,-9.891,26.98,7.652,14.65,29.8,8.848,4.392,20.17,3.506,10.69,0,0,0,0,0,0,0,0,0,0,0,0,0,0,0,0,
284,2.507,4.195,-11.11,-10.68,-11.26,-3.893,0.4684,10.43,-2.741,-8.616,15.03,5.753,-3.221,13.88,9.577,10.56,0,0,0,0,0,0,0,0,0,0,0,0,0,0,0,0,
285,-4.906,2.557,-13.54,-16.75,-24.73,2.394,5.732,-15.93,1.061,8.889,10.5,7.362,0.0735,26.78,2.2,18.27,0,0,0,0,0,0,0,0,0,0,0,0,0,0,0,0,
286,-2.197,-3.246,2.883,-7.689,-34.49,-7.815,-15.62,-11.23,-10.93,16.41,-2.112,-3.566,-8.022,17.04,-0.467,8.341,0,0,0,0,0,0,0,0,0,0,0,0,0,0,0,0,
287,-15.39,-19,1.937,4.477,-12.26,-27.52,-42.08,36.1,-21.55,-5.359,-8.317,-11.7,-15.25,-2.233,-6.548,-6.637,0,0,0,0,0,0,0,0,0,0,0,0,0,0,0,0,
288,-16.51,-8.699,-5.096,4.687,-0.1952,-23.78,-27.08,54.77,-9.046,-10.18,-3.795,-5.407,-9.461,-3.09,-5.858,-7.073,0,0,0,0,0,0,0,0,0,0,0,0,0,0,0,0,
289,-10.35,3.799,-12.27,-16.41,-16.68,-5.949,-3.076,28.56,-22.72,4.384,-15.91,-9.498,-9.85,-8.721,9.491,1.113,0,0,0,0,0,0,0,0,0,0,0,0,0,0,0,0,
290,-14.13,0.829,-7.429,-13.7,-1.379,6.715,5.621,12.15,-36.16,20.23,-22.82,-10.36,-8.15,-8.074,1.786,8.005,0,0,0,0,0,0,0,0,0,0,0,0,0,0,0,0,
291,-12.29,-1.972,2.059,8.869,16.87,-0.9916,1.507,-8.945,-28.2,2.138,-26.17,-15.82,-18.33,-16.06,-14.29,-12.23,0,0,0,0,0,0,0,0,0,0,0,0,0,0,0,0,
292,-16.99,-16.62,-9.803,9.017,4.687,-16.82,-11.83,-11.74,-21.28,-17.43,-23.46,-21.65,-23.8,-27.52,-16.33,-22.88,0,0,0,0,0,0,0,0,0,0,0,0,0,0,0,0,
293,-12.6,-12.82,-9.089,15.1,7.557,-4.652,-7.193,35.69,-4.899,15.33,-7.25,-8.014,-1.164,-3.456,-17.04,-2.488,0,0,0,0,0,0,0,0,0,0,0,0,0,0,0,0,
294,-1.626,3.836,-2.955,18.57,-7.904,3.245,5.646,52.35,-19.52,29.39,-22,-14.67,0.157,8.098,-13.69,-2.799,0,0,0,0,0,0,0,0,0,0,0,0,0,0,0,0,
295,-11.8,-0.2669,-9.271,-0.7712,-21.5,-12.92,17.99,45.42,-55,1.88,-38.82,-27.7,-11.9,-8.551,-17.73,-12.49,0,0,0,0,0,0,0,0,0,0,0,0,0,0,0,0,
296,-14.64,2.194,0.4247,-9.381,20.64,-13.87,27.45,50.33,-39.1,-16.05,-31.11,-23.11,-14.37,-8.995,-25.39,-17.28,0,0,0,0,0,0,0,0,0,0,0,0,0,0,0,0,
297,-13.49,-6.603,-2.827,-4.036,37.44,-4.436,6.229,18.37,-6.285,-31.19,-35.88,-29.88,-30.19,-8.961,-23.33,-28.84,0,0,0,0,0,0,0,0,0,0,0,0,0,0,0,0,
298,-14.95,-24.17,-15.23,16.44,31.84,4.914,-12.46,-3.979,5.902,-26.15,-27.06,-26.62,-35.7,-26.87,-25.95,-29.05,0,0,0,0,0,0,0,0,0,0,0,0,0,0,0,0,
299,-0.8327,-10.58,-6.326,32.19,46.88,15.57,-1.965,9.401,6.447,4.345,-10.96,-12.41,-26.81,-42.72,-23.14,-28.94,0,0,0,0,0,0,0,0,0,0,0,0,0,0,0,0,
300,6.131,0.6939,-2.033,17.06,32.16,19.83,16.16,18.93,-6.113,18.51,-16.23,-6.304,-15.05,-30.2,-14.77,-23.36,0,0,0,0,0,0,0,0,0,0,0,0,0,0,0,0,
301,12.04,5.753,11.09,4.638,20.81,25.05,38.19,37.05,-7.838,8.259,-12.75,3.137,0.8709,-6.3,-13.63,-10.19,0,0,0,0,0,0,0,0,0,0,0,0,0,0,0,0,
302,15.65,12.76,25.42,-6.262,32.99,18.62,31.76,22.36,13.41,-6.003,-6.457,1.649,-1.176,-4.844,-5.561,-10.02,0,0,0,0,0,0,0,0,0,0,0,0,0,0,0,0,
303,6.388,6.324,13.14,-9.094,20.78,11.64,-1.585,-12.26,40.11,5.512,0.3167,3.228,2.155,0.8523,1.548,5.999,0,0,0,0,0,0,0,0,0,0,0,0,0,0,0,0,
304,15.54,8.416,6.783,19.39,9.716,25.5,-13.5,11.35,35.2,13.23,7.074,9.847,13.73,8.829,3.222,19.14,0,0,0,0,0,0,0,0,0,0,0,0,0,0,0,0,
305,15.04,3.218,6.265,28.07,21.93,21.19,-13.93,27.68,1.648,-6.085,-0.1661,-3.17,3.853,-2.595,5.488,7.743,0,0,0,0,0,0,0,0,0,0,0,0,0,0,0,0,
306,-2.687,-9.958,7.672,14.55,39.23,1.476,-14.19,6.705,11.77,5.518,9.563,-4.95,0.6858,-3.609,-0.2876,8.733,0,0,0,0,0,0,0,0,0,0,0,0,0,0,0,0,
307,0.0763,-3.345,12.34,7.639,39.75,-3.038,-13.85,25.3,46.82,19.5,16.51,-2.715,-3.246,-6.123,-3.305,-3.369,0,0,0,0,0,0,0,0,0,0,0,0,0,0,0,0,
308,-3.477,-2.653,-1.129,5.093,30.24,-7.642,-13.95,57.35,49.74,3.233,1.937,-12.36,-16.89,-13.95,-6.496,-22.77,0,0,0,0,0,0,0,0,0,0,0,0,0,0,0,0,
309,-6.236,-2.027,-2.621,21.39,43.82,-9.582,-0.1703,42.03,51.67,9.714,3.278,-11.27,-14.53,-2.849,-15.05,-17.65,0,0,0,0,0,0,0,0,0,0,0,0,0,0,0,0,
310,1.327,-2.451,2.32,9.592,43.9,-10.56,3.342,17.3,47.73,0.3503,0.4381,-18.46,-19.7,-2.162,-16.79,-24.51,0,0,0,0,0,0,0,0,0,0,0,0,0,0,0,0,
311,-7.679,-19.35,-15.07,-24.77,23.94,-21.09,-6.899,17.01,26.64,-46.75,-9.99,-21.77,-23.47,-7.063,-20.59,-24.87,0,0,0,0,0,0,0,0,0,0,0,0,0,0,0,0,
312,-6.713,-11.67,-18.52,-4.81,33.4,-27.33,-5.811,-6.107,21.7,-62.06,-10.25,-10.11,-10.06,-2.75,-15.59,-5.186,0,0,0,0,0,0,0,0,0,0,0,0,0,0,0,0,
313,1.912,3.975,-11.03,8.087,37.72,-18.67,-3.08,-32.83,28.56,-30.74,-11.35,-10.82,-4.691,-11.21,-3.968,-1.309,0,0,0,0,0,0,0,0,0,0,0,0,0,0,0,0,
314,8.042,-1.009,-6.604,-13.39,33.71,14.67,3.95,-5.608,32.95,14.22,4.671,-1.871,2.004,-15,-9.186,-1.363,0,0,0,0,0,0,0,0,0,0,0,0,0,0,0,0,
315,22.47,0.488,6.102,8.962,56.96,41.12,6.115,15.3,25.66,18.18,11.79,10.07,4.413,-8.629,-2.075,-1.506,0,0,0,0,0,0,0,0,0,0,0,0,0,0,0,0,
316,17.7,8.251,14.99,47.96,72.09,35.37,4.351,25.18,21.26,-10.24,-5.762,11.01,2.492,-8.944,14.47,1.616,0,0,0,0,0,0,0,0,0,0,0,0,0,0,0,0,
317,16.44,23.23,24.51,48,69.06,44.84,27.75,46.48,35.08,-4.151,-2.838,21.95,11.43,-15.54,12.7,8.244,0,0,0,0,0,0,0,0,0,0,0,0,0,0,0,0,
318,30.88,31.6,27.88,24.27,55.89,62.28,42.22,13.45,34.85,9.223,2.109,21.03,6.809,-19.92,14.07,-1.118,0,0,0,0,0,0,0,0,0,0,0,0,0,0,0,0,
319,27.87,22.88,24.09,17.64,29.97,50.84,32.95,2.986,35.59,3.786,3.088,17.68,4.372,-5.25,15.82,0.2957,0,0,0,0,0,0,0,0,0,0,0,0,0,0,0,0,
320,30,24.37,24.34,36.36,15.95,39.48,21.95,46.86,46.35,-3.608,20.49,23.69,12.11,-2.633,12.97,5.858,0,0,0,0,0,0,0,0,0,0,0,0,0,0,0,0,
321,29.38,17.96,3.181,41.65,12.12,35.89,-0.7203,20.87,32.9,-25.96,24.18,11.05,5.012,-22.91,10.67,-3.034,0,0,0,0,0,0,0,0,0,0,0,0,0,0,0,0,
322,13.25,9.143,-12.53,29.73,2.846,27.66,-7.351,-2.54,27.59,-32.25,13.62,2.912,6.476,-13.92,-2.917,2.252,0,0,0,0,0,0,0,0,0,0,0,0,0,0,0,0,
323,10.74,21.45,-3.665,9.036,-9.052,17.13,8.579,29.43,29.3,-6.347,0.7169,3.692,11.22,2.298,-4.825,2.874,0,0,0,0,0,0,0,0,0,0,0,0,0,0,0,0,
324,9.077,21.92,-9.913,-5.634,-12.68,10.62,17.8,18.92,17.36,9.286,-9.112,-0.5867,7.812,-6.376,1.253,-4.684,0,0,0,0,0,0,0,0,0,0,0,0,0,0,0,0,
325,8.854,20.36,-7.395,13.57,-10.91,19.95,26.58,15.05,25.83,2.517,-8.876,-1.735,9.925,-15.37,-11.75,-5.411,0,0,0,0,0,0,0,0,0,0,0,0,0,0,0,0,
326,7.816,23.4,6.167,18.65,-21.56,23.35,21.07,50.92,20.76,-5.883,-15.54,-15.15,0.1945,-21.24,-20.43,-18.2,0,0,0,0,0,0,0,0,0,0,0,0,0,0,0,0,
327,-5.398,15.78,-0.7125,9.596,-14.68,15.84,11.49,62.22,-7.455,4.176,-13.41,-19.05,-4.109,-19.74,-18.56,-16.44,0,0,0,0,0,0,0,0,0,0,0,0,0,0,0,0,
328,1.532,20.68,-3.952,31.12,12.88,23.9,16.56,41.4,-2.011,2.665,-3.301,-5.436,3.401,-18.53,-11.87,-1.837,0,0,0,0,0,0,0,0,0,0,0,0,0,0,0,0,
329,13.08,21.45,-5.067,20.57,19.11,28.94,10.38,-2.978,18.47,-20.7,-6.502,-4.788,-2.92,-20.47,-2.588,-4.888,0,0,0,0,0,0,0,0,0,0,0,0,0,0,0,0,
330,12.78,14.37,-14.51,-21.3,24.63,16.28,12.78,-20.72,18.78,-21.78,-1.82,-3.289,-5.434,-11.83,-10.56,-7.707,0,0,0,0,0,0,0,0,0,0,0,0,0,0,0,0,
331,13.19,11.18,-31.56,-35.9,14.65,-2.223,18.18,8.603,-2.494,-25.6,-3.628,-10.34,-8.474,-16.88,-18.06,-13.41,0,0,0,0,0,0,0,0,0,0,0,0,0,0,0,0,
332,-4.113,-10.73,-48.79,-36.48,-19.42,-11.33,-4.858,18.76,-18.59,-32.54,-10.65,-22.04,-12.63,-14.82,-13.65,-15.33,0,0,0,0,0,0,0,0,0,0,0,0,0,0,0,0,
333,-11.58,-16.57,-27.26,-4.563,-0.9923,3.766,-13.38,8.706,-5.925,-12.49,-3.236,-11.13,-6.298,6.543,-13.19,-10.45,0,0,0,0,0,0,0,0,0,0,0,0,0,0,0,0,
334,-2.318,-0.2067,1.26,39.07,35.53,17.63,2.164,14.03,0.1894,-14.56,-15.52,-11.03,-13.22,-8.53,-12.54,-20.36,0,0,0,0,0,0,0,0,0,0,0,0,0,0,0,0,
335,-6.891,0.67,-0.3378,26.23,25.94,22.76,20.11,10.31,-4.5,-20.04,-25.6,-17.76,-15,-31.87,-19.79,-21.59,0,0,0,0,0,0,0,0,0,0,0,0,0,0,0,0,
336,-4.09,2.509,2.493,-12.68,8.201,34.7,31.49,-32.84,-12.42,-13.18,-19.34,-19.33,-12.03,-30.78,-29.14,-25.66,0,0,0,0,0,0,0,0,0,0,0,0,0,0,0,0,
337,-8.178,-2.712,1.767,-19.57,-6.158,30.94,14.58,-40.42,-28.84,-42.73,-21.07,-30.55,-27.66,-30.3,-25.58,-42.31,0,0,0,0,0,0,0,0,0,0,0,0,0,0,0,0,
338,-19.28,-11.18,-7.763,9.299,-11.47,16.4,-3.213,54.81,-9.919,-47.32,1.653,-21.34,-28.1,-20.79,-22.84,-34.77,0,0,0,0,0,0,0,0,0,0,0,0,0,0,0,0,
339,-8.037,-6.263,-13.74,16.39,-6.749,6.981,-3.831,97.09,7.798,-10.42,19.06,-10.44,-21.89,-16.09,-14.38,-25.1,0,0,0,0,0,0,0,0,0,0,0,0,0,0,0,0,
340,-6.304,-12.41,-20.09,-23.77,-15.91,-0.5712,2.332,26.83,-20.86,-8.531,6.468,-15.19,-20.8,-16.38,-3.316,-17.07,0,0,0,0,0,0,0,0,0,0,0,0,0,0,0,0,
341,-6.517,-8.185,-10.53,-34.69,-23.37,1.233,19.13,23.66,-30.15,-30.33,8.73,-8.852,-11.6,-5.715,-7.017,-8.537,0,0,0,0,0,0,0,0,0,0,0,0,0,0,0,0,
342,-2.679,2.508,-12.85,-2.836,-22.93,-6.419,16.02,53.03,-28.32,-42.82,1.713,-14.77,-16.45,-8.665,-7.305,-22.36,0,0,0,0,0,0,0,0,0,0,0,0,0,0,0,0,
343,-14.44,-2.375,-24.67,16.57,-4.371,-12.68,8.037,9.21,-42.98,-39.55,-0.5226,-12.93,-7.677,2.419,5.036,-8.341,0,0,0,0,0,0,0,0,0,0,0,0,0,0,0,0,
344,-2.212,10.61,-5.722,13.79,19.53,4.553,19.58,8.478,-37.24,-40.13,30.05,10.74,15.49,28.07,19.53,19.66,0,0,0,0,0,0,0,0,0,0,0,0,0,0,0,0,
345,13.18,15.49,-6.117,2.475,-11.83,0.6331,7.465,63.63,-34.82,-47.51,30.76,6.569,7.424,22.37,17.64,7.154,0,0,0,0,0,0,0,0,0,0,0,0,0,0,0,0,
346,0.3953,1.291,-22.99,10.69,-48.21,-17.61,-4.244,64.31,-48.75,-18.71,7.563,-1.857,3.079,17.73,2.671,1.778,0,0,0,0,0,0,0,0,0,0,0,0,0,0,0,0,
347,-0.9298,3.161,-17.08,11.88,-31.15,-13.56,6.353,21.16,-51.34,-5.111,3.961,7.326,13.25,30.77,14.71,14.47,0,0,0,0,0,0,0,0,0,0,0,0,0,0,0,0,
348,7.116,2.632,-26,-22.07,-20.37,-9.113,5.145,-12.85,-47.47,-30.79,13.62,14.65,17.08,45.13,33.19,21.57,0,0,0,0,0,0,0,0,0,0,0,0,0,0,0,0,
349,13.68,6.082,-27.95,-27.42,-30.51,-11.54,10.51,-34.38,-46.87,-20.26,19.72,13.83,20.65,51.48,18.82,17.98,0,0,0,0,0,0,0,0,0,0,0,0,0,0,0,0,
350,3.664,10.79,-8.028,-6.681,-34.78,-22.64,20.42,-47.37,-45.87,-7.26,4.744,-9.466,10.48,37.69,0.4582,-3.746,0,0,0,0,0,0,0,0,0,0,0,0,0,0,0,0,
351,-27.55,3.016,-8.676,-1.885,-40.2,-31.15,19.14,-38.47,-28.21,-16.93,-0.4227,-19.05,7.871,43.67,-3.676,-5.667,0,0,0,0,0,0,0,0,0,0,0,0,0,0,0,0,
352,-29.52,11.59,-16.34,3.044,-49.61,-16.25,15.07,-12.36,-14.6,-11.36,6.776,-3.977,13.79,51.59,2.156,2.658,0,0,0,0,0,0,0,0,0,0,0,0,0,0,0,0,
353,-15.75,7.421,-15.07,-2.536,-40.58,-10.66,1.087,15.97,-23.29,-16.4,-4.983,-6.175,-1.297,13.39,7.428,-8.743,0,0,0,0,0,0,0,0,0,0,0,0,0,0,0,0,
354,-9.669,-11.92,-2.735,-11.33,3.015,-17.98,1.188,28.58,-11.79,-20.56,3.192,-4.391,-6.93,-3.501,2.082,-8.705,0,0,0,0,0,0,0,0,0,0,0,0,0,0,0,0,
355,3.124,-8.697,4.362,-12.37,23.94,-16.44,6.383,-2.955,0.4978,-11.12,22.64,-0.5678,-7.521,16.99,4.185,-12.97,0,0,0,0,0,0,0,0,0,0,0,0,0,0,0,0,
356,-3.059,-13.77,-17.54,-22.09,1.018,-20.58,-9.265,-31,-16.36,-8.063,15.6,-11.22,-17.88,20.49,-0.7559,-28.57,0,0,0,0,0,0,0,0,0,0,0,0,0,0,0,0,
357,-12.17,-20.48,-29.67,-20.45,-10,-29.42,-9.14,-19.22,-23.45,3.99,5.326,-13.4,-17.77,12.71,-21.35,-32.21,0,0,0,0,0,0,0,0,0,0,0,0,0,0,0,0,
358,-12.55,-14.66,-25.36,-19.43,-22.36,-44.1,-5.41,-15.73,-23.23,-1.082,-5.466,-18.48,-21.98,9.259,-19.57,-33.5,0,0,0,0,0,0,0,0,0,0,0,0,0,0,0,0,
359,-23.19,-13.46,-24.68,-26.12,-35.9,-50.79,-12.19,-4.837,-23.1,-26.63,-3.292,-14.31,-18.64,24.16,-5.745,-17.43,0,0,0,0,0,0,0,0,0,0,0,0,0,0,0,0,
360,-13.54,-1.617,-17.75,-17.25,-22.12,-27.44,-4.87,2.713,-26.03,-28.38,11.11,0.5193,-6.631,36.39,-0.0072,-4.693,0,0,0,0,0,0,0,0,0,0,0,0,0,0,0,0,
361,-5.247,-2.176,-23.23,-22.78,-11.91,-16.01,-13.26,-19.56,-35.59,-14.9,8.313,-4.252,-12.45,16.05,6.204,-13.74,0,0,0,0,0,0,0,0,0,0,0,0,0,0,0,0,
362,-16.65,-17.41,-26.85,-36.96,-4.193,-26.79,-32.75,1.835,-10.81,-2.592,9.15,-1.512,-12.14,-1.703,9.099,-3.535,0,0,0,0,0,0,0,0,0,0,0,0,0,0,0,0,
363,-15.03,-21.36,-21.25,-37.55,-7.757,-30.74,-30.98,10.1,2.333,-11.9,0.1853,-3.064,-14.86,-15.96,11.46,0.9338,0,0,0,0,0,0,0,0,0,0,0,0,0,0,0,0,
364,-28.57,-36.97,-35.32,-34.35,-19.83,-40.94,-23.64,-43.15,-36.34,-32.75,-22.49,-25.42,-27.6,-34.29,5.623,-10.94,0,0,0,0,0,0,0,0,0,0,0,0,0,0,0,0,
365,-45.89,-42.55,-30.96,-11.12,7.31,-45.91,-20.64,-18.05,-40.4,-24.27,-9.829,-22.28,-20.75,-25.37,-0.6409,-3.957,0,0,0,0,0,0,0,0,0,0,0,0,0,0,0,0,
366,-28.22,-26.91,-8.545,3.085,8.452,-25.45,-23.85,52.26,-10.85,-21.74,12.84,-4.051,-16.15,-9.923,12.86,2.602,0,0,0,0,0,0,0,0,0,0,0,0,0,0,0,0,
367,-9.652,-20.61,-6.24,-10.04,-29.12,-4.45,-19.31,28.48,-7.165,-27.96,12.22,3.428,-18.69,-12.47,15.56,4.608,0,0,0,0,0,0,0,0,0,0,0,0,0,0,0,0,
368,-8.997,-17.95,-7.566,-19.14,-9.421,-6.976,-10.64,-41.17,-17.06,-3.064,-9.935,-0.0445,-18.22,-19.17,10.04,4.078,0,0,0,0,0,0,0,0,0,0,0,0,0,0,0,0,
369,-17.63,-28.38,-16.43,-35.91,22.45,-24.34,-19.59,-47.22,-25.49,12.17,-37.52,-5.292,-16.72,-6.506,21.9,2.745,0,0,0,0,0,0,0,0,0,0,0,0,0,0,0,0,
370,-16.62,-29.66,-20.68,-37.78,16.9,-30.94,-14.08,13.07,-23.85,-2.909,-30.67,7.846,-1.57,18.98,21.62,12.42,0,0,0,0,0,0,0,0,0,0,0,0,0,0,0,0,
371,-11.17,-7.285,-9.92,-11.18,8.818,-34.75,-5.776,11.15,-27.31,-13.36,-20.08,4.843,-1.227,10.09,9.257,2.894,0,0,0,0,0,0,0,0,0,0,0,0,0,0,0,0,
372,-25.59,-9.197,-10.59,2.296,-8.451,-37.6,-23.01,-50.03,-37.68,0.7527,-27.66,-10.31,-7.265,-5.79,7.102,-4.239,0,0,0,0,0,0,0,0,0,0,0,0,0,0,0,0,
373,-21.39,-10.08,-7.227,7.297,-24.95,-18.2,-21.1,-18.82,-31.51,14.49,-24.47,0.3919,8.338,-0.4509,10.09,12.96,0,0,0,0,0,0,0,0,0,0,0,0,0,0,0,0,
374,-7.776,-2.16,-6.439,-3.925,-22.59,-9.812,-5.144,25.66,-35.97,-4.238,-31.28,-2.357,4.678,-18.71,13.69,10.61,0,0,0,0,0,0,0,0,0,0,0,0,0,0,0,0,
375,-19.57,-18.11,-9.841,-16.15,-8.45,-18.64,0.417,0.8669,-36.57,-10.73,-30,-7.442,0.2886,-25.39,12.87,10.41,0,0,0,0,0,0,0,0,0,0,0,0,0,0,0,0,
376,-12.54,-18.14,3.649,3.49,-7.192,-10.66,-3.634,10.57,-7.407,2.249,-9.755,7.027,12.73,-2.721,17.26,19.88,0,0,0,0,0,0,0,0,0,0,0,0,0,0,0,0,
377,-4.868,-15.06,-8.819,-11.73,-33.2,-14.56,-26.56,-1.807,-1.016,-8.266,-15.69,2.275,-0.8287,-6.227,19.46,8.276,0,0,0,0,0,0,0,0,0,0,0,0,0,0,0,0,
378,-17.39,-30.67,-26.66,-53.13,-24.1,-33.55,-30.44,-64.9,-21.76,-5.846,-23.9,-3.688,-14.08,-14.03,1.832,-0.7312,0,0,0,0,0,0,0,0,0,0,0,0,0,0,0,0,
379,-12.97,-28.92,-10.71,-36.28,4.046,-35.13,-23.58,-28.07,-33.66,1.56,-24.93,-7.09,-9.678,-11.04,-8.063,-7.093,0,0,0,0,0,0,0,0,0,0,0,0,0,0,0,0,
380,-13.94,-20.18,-11.62,1.307,-23.08,-26.98,-37.22,45.98,-23.48,-18.57,-35.97,-20.76,-6.803,-14.41,-12.36,-11.24,0,0,0,0,0,0,0,0,0,0,0,0,0,0,0,0,
381,-18.25,-11.52,-24.91,0.9758,-31.21,-17.55,-23.66,5.435,-8.349,-22.65,-40.67,-22.99,-7.813,-14.57,-27.53,-12.74,0,0,0,0,0,0,0,0,0,0,0,0,0,0,0,0,
382,-12.46,-12.63,-28.8,-13.67,2.177,-18.15,-8.257,-48.54,-33.29,-14.41,-49.2,-28.52,-23.09,-20.81,-30.48,-28.34,0,0,0,0,0,0,0,0,0,0,0,0,0,0,0,0,
383,-16.81,-27.04,-28.16,1.075,-11.12,-22.39,-23.06,-34.74,-59.1,-13.9,-45.45,-28.23,-25.57,-24.36,-27.72,-23.72,0,0,0,0,0,0,0,0,0,0,0,0,0,0,0,0,
384,-12.63,-17.61,-12.34,8.111,-38.56,-10.94,-12.03,-60.36,-52.68,-13.3,-27.45,-16.75,-13.64,-21.85,-22.6,-12.96,0,0,0,0,0,0,0,0,0,0,0,0,0,0,0,0,
385,-11.54,-14.05,-9.756,-30.07,-13.72,-4.344,6.258,-81.89,-58.51,-12.76,-27.69,-18.52,-15.51,-24.17,-5.404,-18.49,0,0,0,0,0,0,0,0,0,0,0,0,0,0,0,0,
386,-16.16,-22.94,-16.51,-24.91,22.19,-1.514,-3.167,-2.094,-48.11,-2.622,-21.45,-8.223,-6.24,-12.94,5.059,-0.8342,0,0,0,0,0,0,0,0,0,0,0,0,0,0,0,0,
387,0.4404,-2.261,-16.21,16.27,10.75,7.663,-9.732,25.5,-16.96,-8.855,-15.54,2.384,1.481,-1.412,6.735,4.604,0,0,0,0,0,0,0,0,0,0,0,0,0,0,0,0,
388,7.208,12.75,-21.07,9.822,-2.413,8.955,0.8731,-19.99,-14.17,-17.13,-20,-0.5349,-4.392,5.068,0.0711,-14.83,0,0,0,0,0,0,0,0,0,0,0,0,0,0,0,0,
389,8.461,10.24,1.015,18.78,34.1,13.19,17.81,15.67,-14.26,10.17,-8.783,11.96,2.184,12.62,-5.524,-10.5,0,0,0,0,0,0,0,0,0,0,0,0,0,0,0,0,
390,19.35,10.43,25.48,47.11,47.35,18.25,23.05,37.99,-8.345,9.736,-12.17,15.09,2.768,-1.706,7.331,0.4397,0,0,0,0,0,0,0,0,0,0,0,0,0,0,0,0,
391,18.96,11.15,21.2,42.5,24.42,16.17,23.93,-7.745,0.7194,-18.53,-21.82,11.62,3.951,-9.235,13.49,9.584,0,0,0,0,0,0,0,0,0,0,0,0,0,0,0,0,
392,22.17,16.51,27.19,37.29,26.54,17.99,26.49,-13.12,22.22,-19.44,-12.57,17.09,11.48,2.64,11.94,12.85,0,0,0,0,0,0,0,0,0,0,0,0,0,0,0,0,
393,17.78,3.108,13.29,12.18,14.57,15.19,17.17,-18.75,20.14,-14.64,-13.21,5.54,2.859,6.005,11.25,-0.5359,0,0,0,0,0,0,0,0,0,0,0,0,0,0,0,0,
394,-0.0174,-13.4,-23.98,-18.09,-17.62,5.133,8.534,-36.54,3.547,-0.4724,-18.17,-5.261,-2.94,7.767,-6.77,-5.173,0,0,0,0,0,0,0,0,0,0,0,0,0,0,0,0,
395,-9.484,-8.827,-31.07,-4.846,-18.77,-11.75,-10.66,-21.79,5.152,8.864,-28.49,-8.923,-7.085,-5.841,-11.47,-5.373,0,0,0,0,0,0,0,0,0,0,0,0,0,0,0,0,
396,-19.41,-10.19,-20.72,1.95,2.742,-20.48,-30.42,-20.35,10.74,-10.08,-36.09,-4.625,-3.621,-18.35,7.48,4.195,0,0,0,0,0,0,0,0,0,0,0,0,0,0,0,0,
397,-8.669,2.642,-6.034,-11.06,21.85,1.012,-9.222,-23.37,2.035,-6.413,-22.24,14.65,15.75,0.2953,13.88,19.12,0,0,0,0,0,0,0,0,0,0,0,0,0,0,0,0,
398,8.316,17.01,-7.946,-20.05,12.91,9.14,4.436,-22.03,-12.89,13.81,-19.74,11.56,12.15,9.099,10.01,7.28,0,0,0,0,0,0,0,0,0,0,0,0,0,0,0,0,
399,-0.5352,6.052,-25.06,-20.49,-6.154,-6.063,-8.252,-32.86,12.65,8.848,-7.683,10.05,10.5,7.38,5.896,5.948,0,0,0,0,0,0,0,0,0,0,0,0,0,0,0,0,
400,9.338,15.96,-12.28,-8.875,-3.754,2.576,-3.014,-14.08,55.01,-7.257,16.06,28.21,24.6,6.256,8.436,17.17,0,0,0,0,0,0,0,0,0,0,0,0,0,0,0,0,
401,23.71,22.96,-3.051,-14.51,-4.219,16.82,2.588,11.2,46.74,-7.212,1.99,22.43,17.02,-5.394,14.84,11.52,0,0,0,0,0,0,0,0,0,0,0,0,0,0,0,0,
402,16.38,12.16,-8.127,-9.624,1.191,17.31,6.807,-2.687,36.96,9.083,-6.671,17.82,15.72,5.569,9.537,15.98,0,0,0,0,0,0,0,0,0,0,0,0,0,0,0,0,
403,17.86,24.04,6.157,27.84,10.45,13.86,16.3,-12.62,52.22,1.107,-0.1715,21.43,19.78,22.1,7.248,11.13,0,0,0,0,0,0,0,0,0,0,0,0,0,0,0,0,
404,13.91,23.62,12.42,37.47,-2.826,8.754,15.23,19.86,53.75,-7.908,-5.241,13.13,12.04,15.62,9.812,-0.9955,0,0,0,0,0,0,0,0,0,0,0,0,0,0,0,0,
405,12.06,14.58,11.38,29.19,-3.716,14.97,18.48,50.83,61.03,17.25,8.534,19.68,19.52,11.72,15.17,17.51,0,0,0,0,0,0,0,0,0,0,0,0,0,0,0,0,
406,21.14,28.38,6.982,25.53,9.056,14.47,20.92,21.1,72.11,17.92,14.14,29.32,26.33,9.869,33.37,33.72,0,0,0,0,0,0,0,0,0,0,0,0,0,0,0,0,
407,19.96,34.46,-7.804,8.091,14.77,7.165,23.49,-24.81,68.97,13.42,0.6819,33.1,27.62,11.44,40.79,36.7,0,0,0,0,0,0,0,0,0,0,0,0,0,0,0,0,
408,30.06,26.74,0.4279,-0.2971,13.51,21.93,29.11,-22.32,61.12,37.02,4.522,37.2,31.25,12.14,38.03,36.64,0,0,0,0,0,0,0,0,0,0,0,0,0,0,0,0,
409,36.55,14.57,19.31,5.984,0.1911,29.52,19.69,4.992,54.39,27.28,10.28,30.25,26.24,2.825,31.35,29.11,0,0,0,0,0,0,0,0,0,0,0,0,0,0,0,0,
410,26.02,15.36,28.73,25.31,10.75,18.18,23.82,33.5,62,-0.344,10.14,26.65,24.82,1.244,6.656,23.32,0,0,0,0,0,0,0,0,0,0,0,0,0,0,0,0,
411,23.1,24.75,26.93,50.53,12.37,11.85,30.07,46.76,58.92,-13.42,2.261,18.03,14.48,-8.37,-3.293,8.207,0,0,0,0,0,0,0,0,0,0,0,0,0,0,0,0,
412,12.98,10.16,7.247,44.32,-34.14,10.23,15.85,22.84,42.15,-8.901,-7.465,9.092,1.21,-17.38,4.303,1.193,0,0,0,0,0,0,0,0,0,0,0,0,0,0,0,0,
413,8.414,4.307,8.883,16.76,-30.03,11.74,24.78,-21.81,48.18,29.38,-5.725,16.57,2.619,-3.962,1.747,9.846,0,0,0,0,0,0,0,0,0,0,0,0,0,0,0,0,
414,11.02,8.765,26.12,0.171,12.88,0.98,26.71,-33.4,41.69,34.91,-16.39,4.866,-9.691,3.154,2.894,3.437,0,0,0,0,0,0,0,0,0,0,0,0,0,0,0,0,
415,-1.996,-2.242,22.17,15.18,4.47,-11.48,-1.645,32.81,21.12,-6.715,-21.73,-7.835,-11.77,15.49,-0.0628,4.955,0,0,0,0,0,0,0,0,0,0,0,0,0,0,0,0,
416,0.7778,6.449,14.88,42.83,0.9886,1.642,-6.787,86.28,22.86,-15.88,-9.403,-0.1277,6.031,27.75,-6.085,12.65,0,0,0,0,0,0,0,0,0,0,0,0,0,0,0,0,
417,8.777,16.01,6.808,30.57,27.2,9.042,4.352,43.48,22.74,-5.029,-6.726,-0.7077,7.544,13.88,3.709,10.85,0,0,0,0,0,0,0,0,0,0,0,0,0,0,0,0,
418,7.769,13.46,9.282,11.95,34.39,2.479,16.27,9.46,27.73,-13.28,2.88,8.775,14.61,14.64,10.69,21.43,0,0,0,0,0,0,0,0,0,0,0,0,0,0,0,0,
419,18.84,23.41,22.62,18,27.38,4.383,26.02,21.4,34.34,-19.76,6.455,16.82,17.57,22.94,11.56,17.27,0,0,0,0,0,0,0,0,0,0,0,0,0,0,0,0,
420,17.43,16.93,19.77,17.38,27.55,9.451,24,27.37,16.57,-1.514,-4.772,5.995,0.7176,14,6.336,3.431,0,0,0,0,0,0,0,0,0,0,0,0,0,0,0,0,
421,12.51,9.792,29.28,28.25,32.67,18.5,32.1,45.77,9.686,9.938,-2.935,7.373,-1.638,9.656,-4.396,7.168,0,0,0,0,0,0,0,0,0,0,0,0,0,0,0,0,
422,16.73,22.05,50.34,47.68,30.45,20.93,39.6,46.17,20.36,-14.17,-10.57,9.656,3.712,3.513,2.174,6.102,0,0,0,0,0,0,0,0,0,0,0,0,0,0,0,0,
423,14.3,26.36,65.37,53.42,43.57,22.56,43.72,30.14,29.94,-8.643,-16.62,12.26,10.72,5.041,11.82,13.37,0,0,0,0,0,0,0,0,0,0,0,0,0,0,0,0,
424,25.87,27.97,93.74,61.48,70.69,42.46,57.91,54.58,32.85,26.64,-9.21,17.04,13.65,12.38,11.83,18.16,0,0,0,0,0,0,0,0,0,0,0,0,0,0,0,0,
425,31.95,22.07,116.8,78.88,73.21,47.89,58.71,76.92,18.34,24.18,-16.72,9.442,7.286,6.447,13.33,8.187,0,0,0,0,0,0,0,0,0,0,0,0,0,0,0,0,
426,26.97,25.99,146.2,122.8,85.35,40.12,71.46,65.6,14.77,24.74,-9.209,20.48,25.39,20.47,18.39,25.15,0,0,0,0,0,0,0,0,0,0,0,0,0,0,0,0,
427,41.85,54.82,181,158.3,98.39,51.25,102.3,42.06,25,36.72,6.426,33.7,44.72,44.51,36.13,42.88,0,0,0,0,0,0,0,0,0,0,0,0,0,0,0,0,
428,46.79,61,174.9,149.2,62.81,58.89,103.2,48.44,22.39,30.39,3.566,25.83,41.4,45.64,45.08,39.46,0,0,0,0,0,0,0,0,0,0,0,0,0,0,0,0,
429,42.22,52.21,172.6,159.3,50.92,49.99,86.92,114.4,16.26,34.88,11.5,27.11,40.09,41.47,33.91,37.04,0,0,0,0,0,0,0,0,0,0,0,0,0,0,0,0,
430,43.77,47.07,187,181.8,89.46,42.32,72.37,140.5,5.572,31.46,12.84,25.66,34.44,41.75,31.95,29.91,0,0,0,0,0,0,0,0,0,0,0,0,0,0,0,0,
431,37.6,37.4,176.1,172.9,106.5,44.68,67.02,85.82,-1.179,23.1,-3.234,18.76,33.36,45.11,26.68,29.14,0,0,0,0,0,0,0,0,0,0,0,0,0,0,0,0,
432,38.31,40.96,168.3,159.8,96.33,43.69,74.28,65.97,-0.5897,26.2,-11.88,16.65,33.31,33.28,17.95,24.71,0,0,0,0,0,0,0,0,0,0,0,0,0,0,0,0,
433,36.19,38.23,162.8,143.1,92,33.23,66.62,99.47,-7.81,3.859,-4.664,18.65,24.54,14.19,27.79,20.89,0,0,0,0,0,0,0,0,0,0,0,0,0,0,0,0,
434,38.39,38.83,144.2,128.2,97.45,43.76,61.2,107.4,-0.5699,0.4079,20.48,41.15,38.05,23.55,33.7,43.74,0,0,0,0,0,0,0,0,0,0,0,0,0,0,0,0,
435,56.09,57.16,124.5,118.8,78.18,58.9,59.45,72.75,10.03,35.98,21.23,46.38,43.03,27.06,29.2,42.83,0,0,0,0,0,0,0,0,0,0,0,0,0,0,0,0,
436,46.85,45.28,99.84,105,41,40.53,37.33,44.27,7.499,38.95,1.014,28.75,24.82,9.485,20.41,22.96,0,0,0,0,0,0,0,0,0,0,0,0,0,0,0,0,
437,31.72,30.22,84.54,94.46,37.93,16.23,34.45,27.26,12.56,17.5,5.217,30.31,20.83,-0.3732,7.804,21.97,0,0,0,0,0,0,0,0,0,0,0,0,0,0,0,0,
438,26.58,30.24,68.66,51.29,40.17,-0.0035,42.4,-15.41,4.71,11.67,-0.2617,20.21,8.923,-7.208,3.523,4.443,0,0,0,0,0,0,0,0,0,0,0,0,0,0,0,0,
439,7.657,9.632,50.56,17.07,27.79,-6.763,17.66,-19.66,-8.124,11.1,-10.47,5.659,-3.754,-4.134,0.0225,-5.46,0,0,0,0,0,0,0,0,0,0,0,0,0,0,0,0,
440,9.422,1.024,56.98,43.93,31.61,7.057,-12.01,31.75,-6.101,1.023,0.9374,14.88,2.195,-6.233,4.002,10.25,0,0,0,0,0,0,0,0,0,0,0,0,0,0,0,0,
441,20.74,5.453,53.96,37.64,36.7,16.66,-14.55,29.78,-11.47,-4.929,1.68,19.25,4.015,-14.7,16.36,14.11,0,0,0,0,0,0,0,0,0,0,0,0,0,0,0,0,
442,18.58,2.419,39.88,12.52,33.21,14.73,7.801,-12.38,-11.33,0.6314,-0.7461,20.97,8.464,-0.8241,9.961,12.94,0,0,0,0,0,0,0,0,0,0,0,0,0,0,0,0,
443,19.04,5.758,33.6,27.03,11.37,2.527,21.53,-30.88,-15.19,-12.66,-5.536,12.76,4.82,-11.36,1.228,7.75,0,0,0,0,0,0,0,0,0,0,0,0,0,0,0,0,
444,3.804,0.9067,12.19,13.76,-11.95,-16.84,7.824,-36.92,-20.7,-13.06,-14.11,0.2508,-3.663,-33.21,4.536,10.43,0,0,0,0,0,0,0,0,0,0,0,0,0,0,0,0,
445,-3.756,-2.907,1.442,0.7333,1.809,-15.23,-14.73,-29.44,13.52,21.18,-5.349,10.59,2.954,-11.15,8.723,23.59,0,0,0,0,0,0,0,0,0,0,0,0,0,0,0,0,
446,3.854,-6.918,-0.5528,13.63,-2.482,-16.39,-36.84,-15.3,32.6,17.3,-6.965,7.654,-6.254,-0.4839,12,13.87,0,0,0,0,0,0,0,0,0,0,0,0,0,0,0,0,
447,-8.507,-22.13,-15.24,-8.652,-23.44,-33.1,-29.11,7.069,8.522,-4.85,-8.386,-3.3,-15.4,-8.171,2.316,5.853,0,0,0,0,0,0,0,0,0,0,0,0,0,0,0,0,
448,-10.24,-16.23,-17.34,-41.77,-7.68,-32.11,1.206,15.05,-6.156,-0.3327,6.528,2.931,-7.375,-6.543,-1.861,6.791,0,0,0,0,0,0,0,0,0,0,0,0,0,0,0,0,
449,-2.365,-9.668,-29.12,-58.36,-5.844,-31.75,3.713,-26.28,-13.17,0.4421,3.255,3.462,-8.594,-18.51,11.34,4.894,0,0,0,0,0,0,0,0,0,0,0,0,0,0,0,0,
450,-1.985,-13.54,-44.88,-53.83,-9.199,-32.43,1.973,-48.35,-14.63,10.87,-1.035,9.074,-1.615,-21.38,12.12,17.77,0,0,0,0,0,0,0,0,0,0,0,0,0,0,0,0,
451,9.08,-2.246,-33.56,-21.9,5.131,-14.87,0.2271,-36.25,-14.32,13.91,0.0764,12.65,4.656,-13.54,9.226,12.02,0,0,0,0,0,0,0,0,0,0,0,0,0,0,0,0,
452,8.307,-0.2815,-28.93,0.3148,-4.937,-6.149,-16.7,-37.86,-21.3,-1.33,-4.657,7.918,-0.5508,-12.23,7.906,-3.732,0,0,0,0,0,0,0,0,0,0,0,0,0,0,0,0,
453,2.793,-0.2425,-26.47,2.172,3.489,-5.526,-5.244,-29.03,-8.301,10.99,2.124,16.52,7.604,-3.252,1.976,6.364,0,0,0,0,0,0,0,0,0,0,0,0,0,0,0,0,
454,6.832,10.58,-11.19,-11.93,29.26,0.9191,12.76,-25.94,9.231,19.81,9.255,18.47,12.57,0.7748,11.52,10.44,0,0,0,0,0,0,0,0,0,0,0,0,0,0,0,0,
455,6.818,13.19,-2.193,-21.06,14.91,9.233,4.028,-28.46,15.08,22.14,17.21,21.5,11.53,1.644,16.31,7.949,0,0,0,0,0,0,0,0,0,0,0,0,0,0,0,0,
456,14.73,12.31,-9.998,-10.27,-2.47,17.08,-3.466,-15.66,17.5,40.18,9.734,23.6,4.63,-7.907,1.699,-3.329,0,0,0,0,0,0,0,0,0,0,0,0,0,0,0,0,
457,6.85,-0.0276,-38.71,-29.86,-5.639,11.3,-4.284,-37.12,12.23,27.29,-22.4,1.933,-12.27,-37.08,-9.367,-22.79,0,0,0,0,0,0,0,0,0,0,0,0,0,0,0,0,
458,-9.418,-7.817,-42.55,-49.77,-13.23,5.375,2.526,-55.73,26.16,3.267,-18.08,-0.5937,-10.36,-45.76,-11.92,-14.31,0,0,0,0,0,0,0,0,0,0,0,0,0,0,0,0,
459,2.194,-2.145,-22.02,-18.39,-17.1,11.92,-0.0652,-45.2,40.8,1.509,0.1019,5.223,-10.02,-42.85,-6.556,-9.824,0,0,0,0,0,0,0,0,0,0,0,0,0,0,0,0,
460,1.278,-8.462,-29.27,2.605,-9.929,13.15,-16.53,-58.06,19.21,15.12,-14.92,-11.33,-17.62,-41.79,-11.39,-17.34,0,0,0,0,0,0,0,0,0,0,0,0,0,0,0,0,
461,-11.45,-0.2841,-33.22,-9.658,0.3778,9.092,-13.81,-38.08,3.336,41.57,-25.49,-18.31,-11.26,-30.9,-27.18,-11.96,0,0,0,0,0,0,0,0,0,0,0,0,0,0,0,0,
462,-15.1,5.444,-40.72,-25.99,-13.81,-0.7346,-15.94,16.06,7.737,33.97,-26.52,-22.71,-19.78,-40.59,-23.6,-18.99,0,0,0,0,0,0,0,0,0,0,0,0,0,0,0,0,
463,-26.24,-15.83,-65.15,-23.68,-16.65,-8.527,-29.82,19.09,11.08,9.312,-13.54,-21.28,-23.74,-47.26,-12.85,-16.35,0,0,0,0,0,0,0,0,0,0,0,0,0,0,0,0,
464,-22.38,-13.26,-50.42,-7.2,16.43,-3.192,-30.37,-1.466,2.034,14.34,6.817,-6.882,-7.101,-25.73,-2.4,1.602,0,0,0,0,0,0,0,0,0,0,0,0,0,0,0,0,
465,-13.29,-3.693,-38.79,-34.31,8.291,-2.791,-27.33,-30.41,-20.59,7.085,0.9884,-5.943,-5.943,-21.87,9.116,-1.278,0,0,0,0,0,0,0,0,0,0,0,0,0,0,0,0,
466,-14.18,-2.399,-57.91,-74.49,-26.31,-3.255,-5.371,-79.01,-22.91,-3.25,-1.768,-5.267,-6.947,-36.66,1.552,-9.935,0,0,0,0,0,0,0,0,0,0,0,0,0,0,0,0,
467,-10.64,8.838,-54.52,-62.07,-22.67,-3.529,5.438,-74.91,-14.3,5.114,-8.262,-10.11,-7.479,-41.94,-3.948,-16.28,0,0,0,0,0,0,0,0,0,0,0,0,0,0,0,0,
468,-19.72,-0.6217,-48.26,-35,-8.953,-13.8,-26,-5.33,-14.89,-2.597,-32.08,-17.78,-8.174,-28.19,4.267,-7.691,0,0,0,0,0,0,0,0,0,0,0,0,0,0,0,0,
469,-20.78,-6.223,-51.2,-25.65,-1.989,-13.23,-33.59,32.64,-2.773,-11.84,-27.13,-2.895,4.421,-17.03,10.03,10.48,0,0,0,0,0,0,0,0,0,0,0,0,0,0,0,0,
470,-10.04,1.675,-53.7,-35.68,-14.93,-7.523,-18.96,6.793,-1.342,-4.92,-11.64,-0.9753,4.943,-32.83,16.34,2.341,0,0,0,0,0,0,0,0,0,0,0,0,0,0,0,0,
471,-18.43,-7.418,-64.51,-42.79,-54.5,-3.636,-17.6,-20.33,-12.92,5.714,-4.979,-7.915,7.163,-33.3,12.26,0.3433,0,0,0,0,0,0,0,0,0,0,0,0,0,0,0,0,
472,-20.4,-3.72,-56.68,-25.53,-73.03,8.786,-7.183,-43,-11.67,10.46,0.2687,-2.429,16.97,-17.94,5.455,9.059,0,0,0,0,0,0,0,0,0,0,0,0,0,0,0,0,
473,-21.68,0.8941,-34.52,-23.94,-49.07,9.572,1.05,-65.78,-19.41,10.93,-12.88,-9.974,7.75,-25.6,5.526,-0.8561,0,0,0,0,0,0,0,0,0,0,0,0,0,0,0,0,
474,-29.63,-6.104,-30.63,-33.29,-15.93,2.455,3.861,-33.27,-30.61,19.78,-18.01,-14.26,1.615,-31.5,-6.708,-6.616,0,0,0,0,0,0,0,0,0,0,0,0,0,0,0,0,
475,-21.43,-1.64,-43.36,-33.17,-23.29,-1.589,3.237,14.93,-29.29,14.28,-8.24,-11.09,-1.577,-31.29,-10.7,-10.86,0,0,0,0,0,0,0,0,0,0,0,0,0,0,0,0,
476,-18.33,-3.634,-45.3,-37.3,-35.92,-4.938,-9.775,11.81,-19.19,-2.774,-5.45,-7.41,-1.549,-23.28,1.521,-8.833,0,0,0,0,0,0,0,0,0,0,0,0,0,0,0,0,
477,-11.77,2.078,-28.67,-23.97,-6.293,4.908,-7.236,-11.49,-10.1,1.632,-6.053,4.733,11.22,-2.918,4.549,-1.229,0,0,0,0,0,0,0,0,0,0,0,0,0,0,0,0,
478,-1.77,9.329,-35.9,-11.25,-22.74,5.741,1.458,-30.13,-23.65,11.38,-17.94,0.3421,5.68,-4.618,2.362,-14.08,0,0,0,0,0,0,0,0,0,0,0,0,0,0,0,0,
479,-10.62,-3.233,-44.82,-2.264,-71.07,-1.653,-4.579,-20.9,-22.76,19.05,-19.19,-1.634,3.758,-8.039,-0.7572,-8.526,0,0,0,0,0,0,0,0,0,0,0,0,0,0,0,0,
480,-7.261,3.269,-18.43,18.43,-44.78,15.4,-9.206,4.841,8.698,12.74,-4.672,8.825,13.06,-8.654,1.344,6.832,0,0,0,0,0,0,0,0,0,0,0,0,0,0,0,0,
481,-1.472,6.02,-17.23,-19.98,-20.92,32.75,-4.631,-5.083,20.5,-1.577,-5.582,1.179,2.885,-33.74,4.541,-5.517,0,0,0,0,0,0,0,0,0,0,0,0,0,0,0,0,
482,-3.635,-10.97,-30.02,-66.9,-38.99,36.21,5.037,-13.09,20.15,16.27,-5.655,0.739,5.999,-43.09,-0.6747,-3.923,0,0,0,0,0,0,0,0,0,0,0,0,0,0,0,0,
483,3.991,-10.68,-19.09,-19.31,-20.25,28.41,-16.9,-6.701,16.8,15.23,-6.031,5.46,16.52,-33.05,10.21,6.389,0,0,0,0,0,0,0,0,0,0,0,0,0,0,0,0,
484,-2.819,-11.47,-21.55,24.98,11.43,13.59,-49.35,-21.05,9.308,-5.708,-3.855,4.813,12.61,-22.42,22.55,8.596,0,0,0,0,0,0,0,0,0,0,0,0,0,0,0,0,
485,-2.683,-8.86,-20.05,0.1998,7.899,26.2,-25.09,-23.01,14.39,16.22,16.63,17.74,15.33,-4.539,16.74,17.64,0,0,0,0,0,0,0,0,0,0,0,0,0,0,0,0,
486,9.011,-1.474,-16.7,-19.41,-23.85,37.73,-1.127,-14.86,4.987,16.39,12.24,14.05,11.48,-2.506,17.84,14,0,0,0,0,0,0,0,0,0,0,0,0,0,0,0,0,
487,-3.57,-9.456,-32.18,-16.6,-51.91,16.85,-12.26,-13.49,-2.711,-7.28,-6.9,2.432,9.767,1.331,11.46,6.744,0,0,0,0,0,0,0,0,0,0,0,0,0,0,0,0,
488,-7.795,-2.332,-26.09,-41.63,-50.11,9.137,-5.078,-5.789,4.694,4.213,-7.894,2.7,14.9,17.7,-3.036,2.6,0,0,0,0,0,0,0,0,0,0,0,0,0,0,0,0,
489,-5.616,6.352,-12.73,-74.53,-32.06,19.16,-1.234,1.309,-15.95,6.633,-10.42,-9.956,4.627,16.25,-2.585,-4.067,0,0,0,0,0,0,0,0,0,0,0,0,0,0,0,0,
490,-14.24,0.9997,-12.11,-32.43,-3.791,26.03,-18.67,17.73,-25.81,3.259,-0.7869,-13.93,0.032,12.77,-2.363,-0.5132,0,0,0,0,0,0,0,0,0,0,0,0,0,0,0,0,
491,-10.15,0.1752,-12.33,28.77,8.078,30.2,-32.52,6.837,-5.103,4.282,18.14,-6.707,-5.084,5.78,3.255,-6.888,0,0,0,0,0,0,0,0,0,0,0,0,0,0,0,0,
492,-8.914,-12.15,-14.16,10.73,-16.08,23.65,-30.11,-38.32,2.227,-10.31,27.69,-3.736,-12.97,-6.111,10.77,-9.529,0,0,0,0,0,0,0,0,0,0,0,0,0,0,0,0,
493,-5.969,-14.57,2.145,-20.74,-24.27,12.46,-7.24,-25.04,6.362,-1.446,28.91,4.04,-1.219,0.3077,6.489,4.875,0,0,0,0,0,0,0,0,0,0,0,0,0,0,0,0,
494,1.6,-0.9373,5.691,-25.59,-10.14,1.969,4.247,10.93,5.139,15.43,9.74,-0.4421,3.507,2.791,12.48,4.38,0,0,0,0,0,0,0,0,0,0,0,0,0,0,0,0,
495,-1.945,-0.9108,-13.73,-26.67,-5.352,-0.7204,4.843,3.245,-3.49,13.85,-1.107,-1.987,2.075,1.075,15.57,7.202,0,0,0,0,0,0,0,0,0,0,0,0,0,0,0,0,
496,4.002,0.0349,-6.414,-12,-12.76,6.496,8.107,16.42,0.8256,11.82,-0.412,3.764,2.38,8.034,7.023,9.559,0,0,0,0,0,0,0,0,0,0,0,0,0,0,0,0,
497,0.0059,-4.741,-9.76,-14.37,-29.53,3.43,-7.46,34.64,9.614,-3.808,-11.85,-7.08,-5.934,11.66,7.331,-1.765,0,0,0,0,0,0,0,0,0,0,0,0,0,0,0,0,
498,-14.1,-8.062,-30.86,-27.94,-27.64,-3.61,-15.82,-3.36,18.84,-19.14,-4.93,-9.182,-4.047,13.1,2.025,0.3226,0,0,0,0,0,0,0,0,0,0,0,0,0,0,0,0,
499,-10.89,1.425,-24.34,-17.38,-15.17,-11.92,-15.63,-39.16,9.594,-20.86,-3.382,-10.75,-10.49,-0.0481,-6.289,-8.244,0,0,0,0,0,0,0,0,0,0,0,0,0,0,0,0,
500,-17.23,-9.645,-18.14,-19.8,-9.643,-18.24,-19.55,-21.87,-7.23,-14.22,-19.33,-15.99,-22.61,-11.38,-4.21,-18,0,0,0,0,0,0,0,0,0,0,0,0,0,0,0,0,
501,-16.01,-16.29,-15.56,-41.57,5.684,-2.35,3.459,-8.829,3.372,2.023,-7.304,-3.029,-13.72,-1.045,-1.825,-5.671,0,0,0,0,0,0,0,0,0,0,0,0,0,0,0,0,
502,-4.756,-9.406,-12,-49.07,-7.06,-0.0457,8.389,-26.81,6.879,-9.034,1.631,-5.63,-15.7,2.254,-3.014,-10.51,0,0,0,0,0,0,0,0,0,0,0,0,0,0,0,0,
503,-16.1,-15.08,-20.6,-23.77,-34.74,-17.67,-18.87,-13.12,2.871,-24.12,-5.501,-12.3,-20.86,3.697,-14.32,-18.66,0,0,0,0,0,0,0,0,0,0,0,0,0,0,0,0,
504,-14.37,-10.4,-20.08,0.3342,-27.86,-15.01,-18.84,-3.271,1.525,-9.007,-4.585,-5.486,-17.01,-0.8827,-21.31,-19.25,0,0,0,0,0,0,0,0,0,0,0,0,0,0,0,0,
505,-7.133,-7.485,-16.57,-25.87,-36.84,-13.97,-13.34,-54.6,-23.99,-23.98,-4.287,-10.9,-21.14,-17.51,-12.97,-21.58,0,0,0,0,0,0,0,0,0,0,0,0,0,0,0,0,
506,-13.3,-8.68,-11.72,-41.63,-56.84,-22.74,-16.41,-65.52,-25.64,-53.4,2.139,-6.719,-14.7,-12.98,-11.57,-8.005,0,0,0,0,0,0,0,0,0,0,0,0,0,0,0,0,
507,-8.368,-4.042,-8.491,-23.1,-41.69,-28.05,-14.17,-11.85,-3.198,-31.49,1.444,-3.28,-16.9,-15.29,-11.25,-11.74,0,0,0,0,0,0,0,0,0,0,0,0,0,0,0,0,
508,-11.18,-17.92,-19.69,-28.25,-28.77,-29.68,-22.15,17.52,-5.666,3.881,3.214,-9.861,-27.88,-27.71,-6.986,-23.71,0,0,0,0,0,0,0,0,0,0,0,0,0,0,0,0,
509,-11.72,-15.65,-11.71,-25.96,-40.5,-10.42,-27.7,13.64,-3.667,-7.062,20.35,-0.4311,-20.45,-17.08,-10.41,-12.92,0,0,0,0,0,0,0,0,0,0,0,0,0,0,0,0,
510,-4.206,-3.981,-4.893,-12.17,-48.89,0.4222,-24.87,-7.443,-3.378,-35.41,4.69,-3.193,-23.85,-16.54,-11.36,-16.07,0,0,0,0,0,0,0,0,0,0,0,0,0,0,0,0,
511,-7.839,-15.24,-17.3,-18.37,-21.36,-5.274,-9.843,-11.35,-10.15,-12.81,-12.65,-5.636,-20.78,-13.99,-10.55,-17.84,0,0,0,0,0,0,0,0,0,0,0,0,0,0,0,0,
512,3.399,-4.256,-8.454,-17.52,-11.68,7.97,6.025,2.581,-1.991,14.14,-4.223,1.469,-7.464,3.818,-15.39,-13.9,0,0,0,0,0,0,0,0,0,0,0,0,0,0,0,0,
513,0.5357,3.338,-7.489,-15.17,-69.4,7.42,-12.2,-3.066,-9.561,-10.19,-13.95,-17.94,-21.47,0.3868,-29.08,-28.46,0,0,0,0,0,0,0,0,0,0,0,0,0,0,0,0,
514,-23.25,-9.651,-10.48,-2.874,-73.29,-3.888,-24.05,25.66,-11.92,-13.69,-10.28,-21.52,-23.68,-5.211,-39.81,-26.95,0,0,0,0,0,0,0,0,0,0,0,0,0,0,0,0,
515,-12.78,-1.474,11.54,20.52,-7.171,11.86,-13.29,49.71,9.244,-0.5481,5.735,-6.389,-16.79,-11.81,-27.11,-22.37,0,0,0,0,0,0,0,0,0,0,0,0,0,0,0,0,
516,-0.1025,-4.729,8.409,12.27,-6.797,23.44,-19.18,-11.24,6.429,-18.25,-0.9715,-11.93,-27.73,-22.74,-19.96,-28.39,0,0,0,0,0,0,0,0,0,0,0,0,0,0,0,0,
517,-3.385,-11.7,-9.974,-1.81,-39.26,24.19,-20.8,-36.47,-15.21,-21.75,0.5082,-12.63,-23.52,-12.58,-25.57,-19.47,0,0,0,0,0,0,0,0,0,0,0,0,0,0,0,0,
518,-3.395,-2.514,-15.64,-11.75,-34.28,21.96,-16.17,2.794,-25.79,-14.08,3.232,-14.67,-17.19,-11.92,-17.79,-15.44,0,0,0,0,0,0,0,0,0,0,0,0,0,0,0,0,
519,-13.72,-12.49,-23.25,-29.23,-24.64,6.838,-17.81,-4.421,-10.09,-14.84,1.709,-22.64,-18.74,-19.09,-21.44,-14.84,0,0,0,0,0,0,0,0,0,0,0,0,0,0,0,0,
520,-17.35,-18.28,-18.39,-16.98,-32.47,-2.056,-18.62,-20.29,11.82,-17.31,4.184,-20.1,-15.69,-4.38,-28.06,-11.59,0,0,0,0,0,0,0,0,0,0,0,0,0,0,0,0,
521,-16.55,-13.04,-10.17,10.43,-47.82,-4.258,-35.64,-2.648,2.804,-27,-6.34,-20.06,-17.52,10.01,-17.83,-15.23,0,0,0,0,0,0,0,0,0,0,0,0,0,0,0,0,
522,-20.25,-13.21,-7.874,24,-29.71,-7.035,-44.52,-15.48,3.091,-15.77,-5.222,-18.86,-15.16,15.47,-23.73,-14.01,0,0,0,0,0,0,0,0,0,0,0,0,0,0,0,0,
523,-18.61,-7.228,-13.65,15.21,-0.1421,-6.274,-34.73,-51.13,22.14,-4.938,4.661,-24.75,-19.19,15.21,-29.44,-18.07,0,0,0,0,0,0,0,0,0,0,0,0,0,0,0,0,
524,-26.79,-10.77,-32.48,-18.85,-10.64,-3.953,-32.17,-37.05,12.16,-16.28,1.61,-29.23,-26.12,20.51,-18.57,-16.52,0,0,0,0,0,0,0,0,0,0,0,0,0,0,0,0,
525,-23.2,-14.63,-27.24,-36.2,-17.2,7.847,-19.47,-5.078,-5.08,-7.116,-4.423,-15.76,-18.33,35.55,-16.1,-6.497,0,0,0,0,0,0,0,0,0,0,0,0,0,0,0,0,
526,-10.97,-11.24,-15.12,-29.9,-3.743,13.83,-10.99,-13.2,-4.837,-7.95,-17.95,-19.28,-20.32,36.53,-13.89,-11.38,0,0,0,0,0,0,0,0,0,0,0,0,0,0,0,0,
527,-16.9,-12.93,-17.67,-10.56,10.28,7.173,-21.52,-8.176,0.9351,-28.94,-12.48,-23.73,-19.77,32.52,-15.3,-7.837,0,0,0,0,0,0,0,0,0,0,0,0,0,0,0,0,
528,-8.763,-6.855,-2.544,19.05,22.24,7.717,-23.2,-8.902,-1.659,-22.99,4.195,-16.44,-14.05,24.81,-28.87,-13.47,0,0,0,0,0,0,0,0,0,0,0,0,0,0,0,0,
529,-5.192,-8.26,-0.364,14.43,13.76,4.244,-19.71,-51.01,-5.921,-19.95,-7.685,-27.26,-21.94,16.98,-35.22,-34.23,0,0,0,0,0,0,0,0,0,0,0,0,0,0,0,0,
530,-19.72,-9.034,-16.96,-13.84,17.58,0.3517,-11.96,-25.66,17.81,-34.03,-10.94,-25.52,-15.11,31.26,-28.51,-22.19,0,0,0,0,0,0,0,0,0,0,0,0,0,0,0,0,
531,-15.49,-1.268,-23.58,-29.91,30.96,8.912,-11.61,24.66,34.53,-35.9,-6.861,-16.36,-12.07,27.75,-16.82,-15.04,0,0,0,0,0,0,0,0,0,0,0,0,0,0,0,0,
532,-13.9,-19.03,-31.43,-23.07,17.56,13.8,-29.27,5.918,22.9,-28.35,-8.329,-20.23,-20.98,16.49,-14.32,-18.71,0,0,0,0,0,0,0,0,0,0,0,0,0,0,0,0,
533,-11.55,-23.28,-18.98,15.22,21.27,12.92,-29.22,18.4,26.63,-29.17,10.59,-10.8,-10.51,38.32,-12.15,-0.812,0,0,0,0,0,0,0,0,0,0,0,0,0,0,0,0,
534,0.6353,-3.896,-5.905,19.23,24.98,6.012,-16.48,24.52,27.11,-34.57,8.588,-9.296,-12.65,38.68,-2.861,-5.408,0,0,0,0,0,0,0,0,0,0,0,0,0,0,0,0,
535,-4.191,-5.993,-19.43,-9.593,3.969,-1.63,-7.127,-46.02,17.37,-9.38,-12.81,-16.61,-24.33,19.95,-12.18,-18.53,0,0,0,0,0,0,0,0,0,0,0,0,0,0,0,0,
536,-6.235,-5.929,-16.5,1.469,8.362,-9.699,1.97,-42.15,15.08,14.65,-13.96,-17.62,-22.59,22.73,-20.33,-15.02,0,0,0,0,0,0,0,0,0,0,0,0,0,0,0,0,
537,-9.134,-4.213,-13.12,-2.574,4.648,-32.04,-3.471,35.93,-7.883,-5.384,-12.77,-26.19,-25.15,22.25,-12.58,-19.59,0,0,0,0,0,0,0,0,0,0,0,0,0,0,0,0,
538,-16.01,-8.213,-21.17,-29.87,-28.96,-36.75,-7.809,32.88,-24.57,-14.2,-2.942,-19.46,-17.1,23.02,-17.63,-17.67,0,0,0,0,0,0,0,0,0,0,0,0,0,0,0,0,
539,-6.998,-3.06,-13.77,-15.17,-33.47,-23.28,-16.59,-11.14,-18.59,-9.559,6.092,-10.7,-7.64,27.8,-17.4,-15.47,0,0,0,0,0,0,0,0,0,0,0,0,0,0,0,0,
540,-11.29,-10.84,-8.402,4.562,-1.227,-32.87,-34.09,-3.774,-24.18,-20.46,2.434,-18.59,-10.03,17.27,-10.99,-18.61,0,0,0,0,0,0,0,0,0,0,0,0,0,0,0,0,
541,-19.34,-14.64,-6.622,-7.744,21.12,-39.83,-18.71,-11.58,-22.12,-29.19,4.357,-18.71,-10.27,-4.494,-18.07,-17.04,0,0,0,0,0,0,0,0,0,0,0,0,0,0,0,0,
542,-17.8,-14.25,-19.29,-40.18,-1.785,-31.67,-4.728,-57.23,-14.02,-51.96,-8.261,-25.43,-25.06,-22.91,-17.35,-26.22,0,0,0,0,0,0,0,0,0,0,0,0,0,0,0,0,
543,-26.19,-32.23,-38.34,-40.8,-26.62,-28.93,-23.65,-36.06,-27.86,-56.66,-13.75,-28.94,-37.26,-15.08,-17.52,-25.89,0,0,0,0,0,0,0,0,0,0,0,0,0,0,0,0,
544,-22.33,-34.17,-20.96,2.694,-27.62,-23.31,-32.65,11.68,-41.31,-22,3.022,-21.11,-35.53,-6.926,-24.07,-20.31,0,0,0,0,0,0,0,0,0,0,0,0,0,0,0,0,
545,-20.07,-29.9,-10.76,-10.42,-50.74,-25.99,-29.65,-8.548,-33.52,-20.95,-5.814,-31.03,-42.36,-19.79,-24.58,-32.19,0,0,0,0,0,0,0,0,0,0,0,0,0,0,0,0,
546,-30.87,-33.3,-31.17,-57.94,-62.39,-42.96,-30.06,-18.21,-28.14,-48.95,-21.17,-35.82,-39.72,-16.59,-30.98,-34.15,0,0,0,0,0,0,0,0,0,0,0,0,0,0,0,0,
547,-28.58,-26.13,-41.69,-39.23,-44.49,-55.16,-37.31,-3.426,-46.55,-47.82,-15.8,-26.73,-29.37,-6.659,-23.29,-23.21,0,0,0,0,0,0,0,0,0,0,0,0,0,0,0,0,
548,-25.25,-20.62,-37.26,-10.07,-35.75,-48.32,-36.53,-22.4,-41.78,-13.76,1.998,-12.03,-16.69,-0.8262,-1.522,-3.642,0,0,0,0,0,0,0,0,0,0,0,0,0,0,0,0,
549,-12.47,-4.698,-21.36,-20.3,-16.62,-25.22,-11.69,-31.34,-8.055,-2.191,23.42,4.368,-2.828,2.835,0.1743,6.717,0,0,0,0,0,0,0,0,0,0,0,0,0,0,0,0,
550,-0.4015,1.621,-25.45,-33.46,-14.73,-22.72,-5.266,-19.81,-11.64,-50.28,23.49,-5.689,-13.02,-16.72,-3.427,-11.16,0,0,0,0,0,0,0,0,0,0,0,0,0,0,0,0,
551,-9.203,-20.13,-38.04,-25.62,-30.73,-38.52,-18.53,-11.11,-14.08,-59.93,25.26,-8.511,-14.12,-25.05,-2.931,-10.96,0,0,0,0,0,0,0,0,0,0,0,0,0,0,0,0,
552,-2.125,-19.41,-10.76,-11.63,-10.1,-42.03,-23.31,-21.03,12.69,-8.694,33.13,4.394,-1.438,-20.56,-8.602,-3.261,0,0,0,0,0,0,0,0,0,0,0,0,0,0,0,0,
553,0.0743,-13.14,-2.578,-21.62,-12.12,-43.38,-32.82,-49.66,8.727,-4.43,24.72,-6.94,-7.645,-26.66,-12.33,-11.71,0,0,0,0,0,0,0,0,0,0,0,0,0,0,0,0,
554,-9.92,-12.92,-22.88,-23.78,-34.74,-27.92,-18.9,-41.42,-2.648,-18.1,35.92,-7.486,-0.6515,-7.67,-9.136,-0.152,0,0,0,0,0,0,0,0,0,0,0,0,0,0,0,0,
555,4.931,3.617,-13.58,-9.898,-5.594,0.5487,6.023,-30.59,-1.581,-10.43,40.52,-3.299,4.186,2.214,-2.688,0.9693,0,0,0,0,0,0,0,0,0,0,0,0,0,0,0,0,
556,5.722,-5.856,-8.169,-19.04,13.74,1.51,-3.654,-42.29,-7.702,-17.28,14.96,-17.68,-11.72,-18.84,-8.727,-10.97,0,0,0,0,0,0,0,0,0,0,0,0,0,0,0,0,
557,-6.944,-19.86,-14.09,-19.62,-10.75,-4.657,-5.693,-8.313,-7.883,-17.52,10.48,-14.64,-10.64,-14.18,-18.26,-3.222,0,0,0,0,0,0,0,0,0,0,0,0,0,0,0,0,
558,-5.367,-3.8,-6.615,-4.192,-14.64,-3.947,5.427,15.66,-19.74,-15.62,11.74,-10.72,-6.903,-0.0275,-12.58,-6.731,0,0,0,0,0,0,0,0,0,0,0,0,0,0,0,0,
559,-8.23,3.095,3.336,1.221,9.597,-8.925,-1.689,5.295,-31.51,-17.81,11.33,-9.949,-4.212,1.37,-11.27,-6.038,0,0,0,0,0,0,0,0,0,0,0,0,0,0,0,0,
560,-3.953,1.844,9.065,-2.731,10.28,-11.42,-8.232,20.57,-24.77,-12.42,22.4,1.42,4.099,3.361,-6.069,7.003,0,0,0,0,0,0,0,0,0,0,0,0,0,0,0,0,
561,-1.928,1.037,-2.192,-24.4,-3.517,-13.7,-4.12,2.96,-22.31,-18.59,23.47,2.741,2.129,4.668,11.97,6.327,0,0,0,0,0,0,0,0,0,0,0,0,0,0,0,0,
562,-3.843,0.6315,-6.542,-21.31,19.92,-7.256,6.902,-38.83,-7.525,-9.953,32.75,6.303,5.316,11.48,13.87,10.64,0,0,0,0,0,0,0,0,0,0,0,0,0,0,0,0,
563,6.163,0.5936,6.792,3.898,20.36,-0.6367,4.978,-30.48,-6.42,7.681,30.86,0.7513,2.166,7.809,6.327,5.602,0,0,0,0,0,0,0,0,0,0,0,0,0,0,0,0,
564,-2.726,-9.222,5.704,-9.524,-27,-10.77,-3.095,-10.82,-34.78,4.144,3.629,-12.58,-2.991,3.627,-1.452,-5.28,0,0,0,0,0,0,0,0,0,0,0,0,0,0,0,0,
565,-7.366,-0.1902,2.766,-18.45,-18.59,-10.74,9.401,-12.74,-28.31,11.22,3.424,-1.849,9.698,15.43,-7.421,1.22,0,0,0,0,0,0,0,0,0,0,0,0,0,0,0,0,
566,2.66,5.571,-12.04,-15.05,4.442,-11.5,2.703,-24.62,-9.046,11.86,11.31,-5.604,0.793,6.112,-1.692,-5.81,0,0,0,0,0,0,0,0,0,0,0,0,0,0,0,0,
567,-11.89,-20.19,-31.84,-29.74,-30.23,-25.48,-20.53,-24.48,-13.86,-3.686,5.31,-20.41,-13.72,-8.926,-4.42,-14.2,0,0,0,0,0,0,0,0,0,0,0,0,0,0,0,0,
568,-16.63,-24.03,-12,-18.55,-41.19,-20.18,-20.16,-22.85,-17.13,1.63,4.512,-11.21,-4.421,-7.921,-5.244,-11.37,0,0,0,0,0,0,0,0,0,0,0,0,0,0,0,0,
569,-4.824,-11.17,-2.145,-10.28,-12.24,-10.76,-12.54,-53.82,-13.22,6.408,3.62,-3.679,-0.0628,-10.91,7.625,-13.66,0,0,0,0,0,0,0,0,0,0,0,0,0,0,0,0,
570,-0.7994,-2.028,-13.2,-33.14,4.167,-16.45,4.605,-58.29,5.22,0.5077,10.8,1.835,1.891,-5.324,4.335,-7.927,0,0,0,0,0,0,0,0,0,0,0,0,0,0,0,0,
571,5.163,8.005,-1.666,-31.97,-3.568,-28.27,3.677,-16.01,7.586,2.134,7.971,1.492,-3.808,0.4552,-1.235,-8.33,0,0,0,0,0,0,0,0,0,0,0,0,0,0,0,0,
572,-2.478,-7.306,-2.804,-8.871,-17.76,-37.57,-27.73,5.825,-13.48,6.368,-4.401,-3.372,-11.98,0.3326,2.74,-7.405,0,0,0,0,0,0,0,0,0,0,0,0,0,0,0,0,
573,-6.568,-14.84,-15.61,0.5158,-4.71,-27.3,-19.19,2.768,-0.4472,3.279,8.651,9.379,-1.223,2.994,1.961,5.862,0,0,0,0,0,0,0,0,0,0,0,0,0,0,0,0,
574,3.569,-1.536,-12.03,-12.03,7.558,-15.39,3.379,-21.86,17.57,-0.7088,14.72,11.17,0.7818,-8.542,3.944,-3.141,0,0,0,0,0,0,0,0,0,0,0,0,0,0,0,0,
575,6.404,0.4829,0.2398,-19.97,-1.585,-9.137,-2.661,-41.44,12.57,20.33,10.82,8.483,3.305,-5.111,2.389,-10.22,0,0,0,0,0,0,0,0,0,0,0,0,0,0,0,0,
576,20.03,9.005,13.53,-7.591,-2.843,3.368,3.657,-24.57,15.81,29.9,14.67,16.09,14.24,15.67,2.846,-1.017,0,0,0,0,0,0,0,0,0,0,0,0,0,0,0,0,
577,20.4,6.1,4.86,-6.802,-6.365,-8.21,9.614,-31.5,11.35,4.769,-4.283,5.785,4.893,10.64,6.949,-2.078,0,0,0,0,0,0,0,0,0,0,0,0,0,0,0,0,
578,-2.422,-9.056,-4.66,-0.1025,0.1288,-28.12,1.878,-52.41,-5.991,5.762,-23.03,-3.361,-4.076,-1.022,-4.504,-2.14,0,0,0,0,0,0,0,0,0,0,0,0,0,0,0,0,
579,-7.098,-4.647,-0.2955,13.87,15.26,-24.66,-6.669,-29.04,-31.21,8.989,-19.9,-7.922,-8.489,-5.799,-8.051,-4.902,0,0,0,0,0,0,0,0,0,0,0,0,0,0,0,0,
580,-10.9,-7.883,-14.41,-12.49,-6.957,-19.41,-11.15,-5.068,-47.82,-2.442,-10.73,-14.24,-10.24,-3.617,-1.994,-2.705,0,0,0,0,0,0,0,0,0,0,0,0,0,0,0,0,
581,-11.46,-6.989,-21.47,-37.07,-41.93,-5.141,7.859,-12.53,-21.66,19.71,-0.6828,-4.303,2.845,5.196,-4.161,10.54,0,0,0,0,0,0,0,0,0,0,0,0,0,0,0,0,
582,0.117,6.273,-20.07,-25.95,-58.67,8.669,12.09,-16.79,-1.895,22.51,-6.8,-5.218,3.673,-4.851,2.647,8.882,0,0,0,0,0,0,0,0,0,0,0,0,0,0,0,0,
583,-6.272,1.064,-31.59,-13.23,-57.4,-11.69,-17.76,6.688,-20.83,-0.5374,-13.28,-13.25,-0.4263,-12.17,4.558,8.281,0,0,0,0,0,0,0,0,0,0,0,0,0,0,0,0,
584,-16.77,-4.433,-26.43,-14.69,-46.02,-38.46,-31.34,12.14,-34.34,4.3,-11.24,-10.48,0.0899,-9.032,0.6527,8.641,0,0,0,0,0,0,0,0,0,0,0,0,0,0,0,0,
585,-23.59,-10.98,-19.7,-29.99,-53.6,-37.5,-26.55,-21.67,-30.46,3.027,-12.11,-10.4,-2.844,-10.89,12.74,6.632,0,0,0,0,0,0,0,0,0,0,0,0,0,0,0,0,
586,-18.02,-11.29,-21.32,-25.24,-48.93,-10.42,-12.21,-11.43,-23.87,-4.988,6.512,3.24,12.61,4.826,20.03,17.96,0,0,0,0,0,0,0,0,0,0,0,0,0,0,0,0,
587,7.543,9.004,-14.74,-2.127,-10.48,13.46,6.194,18.33,-34.42,-2.369,16.88,12.11,20.82,11.3,16.65,7.197,0,0,0,0,0,0,0,0,0,0,0,0,0,0,0,0,
588,12.41,10.46,-12.25,1.231,2.425,15.8,6.345,-7.349,-40.58,-1.081,3.593,2.409,12.79,-4.228,8.937,-5.778,0,0,0,0,0,0,0,0,0,0,0,0,0,0,0,0,
589,8.757,5.173,-5.786,4.878,-26.32,17.76,1.138,-3.404,-18.59,3.576,5.272,2.15,16.01,-6.083,2.477,10.12,0,0,0,0,0,0,0,0,0,0,0,0,0,0,0,0,
590,10.95,10.8,-4.955,5.928,-49.27,11.93,6.099,41.61,-13.21,0.1264,8.389,-1.359,11.5,-3.048,11.59,13.21,0,0,0,0,0,0,0,0,0,0,0,0,0,0,0,0,
591,0.7102,13.06,-5.127,5.211,-30.52,-6.192,22.77,43.84,-8.938,10.01,10.61,-0.3226,13.76,4.312,14.64,15.03,0,0,0,0,0,0,0,0,0,0,0,0,0,0,0,0,
592,5.101,21.63,16.12,23.33,-7.518,-6.2,24.77,39.51,14.65,27.39,12.53,7.605,23.78,6.223,10.77,18.34,0,0,0,0,0,0,0,0,0,0,0,0,0,0,0,0,
593,12.84,14.9,17.95,13.51,-7.385,5.999,5.328,45.71,13.93,10.95,2.439,2.04,15.47,-3.745,17.67,7.768,0,0,0,0,0,0,0,0,0,0,0,0,0,0,0,0,
594,10.94,11.46,9.754,-12.36,8.145,17.27,22.33,13.03,15.75,10.26,12.39,9.248,19.38,10.06,15.54,12.19,0,0,0,0,0,0,0,0,0,0,0,0,0,0,0,0,
595,15.65,30.43,10.07,-3.727,-8.436,23.3,37.11,-13.08,24.48,21.15,22.27,11.87,18.18,16.45,5.313,5.414,0,0,0,0,0,0,0,0,0,0,0,0,0,0,0,0,
596,5.968,13.12,-9.278,21.87,-47.97,20.2,-3.638,24.82,14.26,-0.7325,16.76,-0.7436,-3.168,1.345,-5.58,-13.38,0,0,0,0,0,0,0,0,0,0,0,0,0,0,0,0,
597,1.925,-12.4,-2.142,42.51,-0.1199,19.68,-19.7,43.42,17.77,-8.319,23.2,5.325,-4.402,4.625,-13.23,-8.9,0,0,0,0,0,0,0,0,0,0,0,0,0,0,0,0,
598,7.407,-6.786,21.63,19.55,41.98,10.24,-4.777,-3.419,13.04,-6.965,16.34,4.483,0.2028,3.95,-2.977,-4.965,0,0,0,0,0,0,0,0,0,0,0,0,0,0,0,0,
599,-4.942,-4.45,6.869,-16.87,0.4153,-1.331,-10.02,0.9045,-3.247,-14.49,9.119,-0.7962,5.529,0.1299,2.876,1.053,0,0,0,0,0,0,0,0,0,0,0,0,0,0,0,0,
600,-2.465,1.008,-1.471,4.59,-12.59,5.54,-10.93,42.62,8.486,-11.29,12.3,3.619,11.85,4.087,-0.1865,4.405,0,0,0,0,0,0,0,0,0,0,0,0,0,0,0,0,
601,4.118,1.547,2.151,16.24,12,8.008,-1.603,6.683,16.26,-19.9,3.868,-1.074,3.838,-1.987,5.599,-4.482,0,0,0,0,0,0,0,0,0,0,0,0,0,0,0,0,
602,2.692,-1.872,-0.8386,-6.314,29.5,11.72,9.213,-31.95,16.25,-19.63,21.67,10.3,9.824,7.945,8.377,7.665,0,0,0,0,0,0,0,0,0,0,0,0,0,0,0,0,
603,17.2,10.8,7.138,-0.2603,32.83,19.49,9.329,-14.35,25.71,-3.423,35.93,19.58,14.87,20.76,12.28,17.16,0,0,0,0,0,0,0,0,0,0,0,0,0,0,0,0,
604,14.91,7.038,11.16,3.812,19.34,4.511,-5.338,14.29,29.21,-13.56,13.34,8.875,7.151,11.4,15.89,13.58,0,0,0,0,0,0,0,0,0,0,0,0,0,0,0,0,
605,5.304,0.8924,13.34,-8.783,31.8,-6.579,-2.259,50.51,25.35,-18.02,12.7,14.55,15.54,6.403,12.39,15.15,0,0,0,0,0,0,0,0,0,0,0,0,0,0,0,0,
606,9.306,7.979,9.283,-4.597,38.47,-0.6302,5.881,50.02,6.945,9.653,16.03,12.57,14.53,4.056,12.62,0.4087,0,0,0,0,0,0,0,0,0,0,0,0,0,0,0,0,
607,2.725,4.484,-2.564,18.66,9.338,2.386,4.426,25.33,1.028,22.32,-0.7178,-1.935,4.036,4.766,1.508,-6.981,0,0,0,0,0,0,0,0,0,0,0,0,0,0,0,0,
608,0.9414,6.337,6.019,38.8,6.612,8.994,3.046,37.43,17.24,-12.23,-9.738,-7.797,0.8805,10.9,-12.47,-0.7869,0,0,0,0,0,0,0,0,0,0,0,0,0,0,0,0,
609,-2.205,3.713,10.02,20.48,14.07,19.62,-4.569,19.84,13.13,-37.66,-15.36,-16.11,-5.024,12.6,-9.83,-4.614,0,0,0,0,0,0,0,0,0,0,0,0,0,0,0,0,
610,-7.013,-1.255,6.649,-5.663,9.576,28.28,6.792,-13.88,10.84,-0.3019,-9.357,-9.51,0.7767,13.48,-10.97,-2.206,0,0,0,0,0,0,0,0,0,0,0,0,0,0,0,0,
611,3.226,7.219,15.52,2.253,18.11,21.75,19.52,28.35,15.14,19.53,-2.661,-5.413,-2.515,-5.553,-12.88,-9.611,0,0,0,0,0,0,0,0,0,0,0,0,0,0,0,0,
612,-3.796,-5.462,14.23,19.44,21.4,10.34,2.207,77.46,4.082,-12.01,-0.8242,-14.26,-16.5,-22.69,-12.91,-17.84,0,0,0,0,0,0,0,0,0,0,0,0,0,0,0,0,
613,-6.697,-19.03,15.19,31.18,15.21,27.3,-1.785,64.17,10.87,-25.59,10.43,-5.449,-9.342,-14.41,-19.17,-6.213,0,0,0,0,0,0,0,0,0,0,0,0,0,0,0,0,
614,4.989,-15.91,13.2,23.51,-0.8282,32.14,0.7942,39.94,17.14,-27.02,-5.193,-7.918,-7.335,-19.59,-17.75,-9.085,0,0,0,0,0,0,0,0,0,0,0,0,0,0,0,0,
615,-6.009,-18.52,-2.278,1.787,-12.68,4.129,-6.205,22.76,4.912,-11.57,-24.45,-14.99,-2.924,-15.43,-12.67,-9.616,0,0,0,0,0,0,0,0,0,0,0,0,0,0,0,0,
616,-5.521,-8.513,-0.4806,-9.496,4.123,-1.321,4.037,-13.7,3.612,20.07,-10.35,0.4415,14.15,4.461,-0.1302,2.862,0,0,0,0,0,0,0,0,0,0,0,0,0,0,0,0,
617,7.181,-1.487,-0.4985,-21.49,13.17,12.96,8.743,-13.82,5.739,7.063,-3.04,6.88,12.81,-3.267,14.98,5.956,0,0,0,0,0,0,0,0,0,0,0,0,0,0,0,0,
618,6.367,-3.145,-2.384,-7.467,6.286,19.36,-3.725,54.97,12.01,-14.31,2.483,8.691,11.97,-3.353,5.481,11.75,0,0,0,0,0,0,0,0,0,0,0,0,0,0,0,0,
619,10.41,3.548,10.43,33.49,1.341,17.2,-20.66,71.38,20.37,-12.4,12.52,9.037,12.65,6.156,-3.276,5.809,0,0,0,0,0,0,0,0,0,0,0,0,0,0,0,0,
620,8.308,-3.467,11.8,36.07,3.63,9.571,-20.55,20.74,25.98,-16.47,13.11,7.797,9.205,-3.669,4.913,0.4999,0,0,0,0,0,0,0,0,0,0,0,0,0,0,0,0,
621,9.385,0.2709,17.06,4.604,18.37,8.891,11.79,18.3,30.83,-6.809,18.77,20.31,17.11,-4.685,10.79,15.11,0,0,0,0,0,0,0,0,0,0,0,0,0,0,0,0,
622,14.06,12.81,20.23,-19.66,-7.592,0.7128,17.96,16.16,6.995,-0.6992,17.01,17.58,12.48,-0.3449,15.89,14.04,0,0,0,0,0,0,0,0,0,0,0,0,0,0,0,0,
623,2.841,4.279,4.33,-13.31,-40.78,-10.33,1.047,-22.28,-3.737,-16.98,16.09,10.94,8.007,1.95,11.34,11.56,0,0,0,0,0,0,0,0,0,0,0,0,0,0,0,0,
624,6.706,6.515,0.5748,5.399,1.589,-4.466,10.88,-17.37,22.09,-18.09,14.08,15.56,11.62,6.693,2.337,13.93,0,0,0,0,0,0,0,0,0,0,0,0,0,0,0,0,
625,9.67,1.484,-0.2311,-1.743,28.4,-9.348,7.268,7.948,11.52,-2.992,-9.563,7.842,0.5381,7.407,3.728,3.917,0,0,0,0,0,0,0,0,0,0,0,0,0,0,0,0,
626,2.112,-9.033,7.007,7.061,2.826,-11.81,-1.943,25.68,-6.777,0.7519,-5.756,14.3,2.901,19.4,7.718,7.401,0,0,0,0,0,0,0,0,0,0,0,0,0,0,0,0,
627,15.33,10.13,22.14,24.88,3.001,2.422,9.916,54.19,12.16,-17.42,16.59,24.69,8.688,27.74,20.1,11.64,0,0,0,0,0,0,0,0,0,0,0,0,0,0,0,0,
628,15.15,8.539,8.177,-1.379,4.924,-6.417,9.016,41.88,27.82,-14.82,9.27,15.96,3.654,23.22,27.34,13.2,0,0,0,0,0,0,0,0,0,0,0,0,0,0,0,0,
629,8.17,-7.05,3.094,-22.15,-6.001,-21.74,5.157,-19.83,38.67,16.57,1.354,17.94,14.05,22.66,21.81,23.63,0,0,0,0,0,0,0,0,0,0,0,0,0,0,0,0,
630,20.06,-1.454,9.502,-19.84,-6.745,-20.67,-1.136,-45.02,37.94,7.458,-1.755,17.29,16.15,12.93,23.95,17.48,0,0,0,0,0,0,0,0,0,0,0,0,0,0,0,0,
631,19.49,1.498,-1.662,-0.6924,-9.345,-17.22,-6.324,-13.55,22.11,-5.269,-6.09,12.71,12.5,8.538,14.54,12.82,0,0,0,0,0,0,0,0,0,0,0,0,0,0,0,0,
632,17.34,15.01,10.14,34.62,-2.536,-7.342,17.94,3.509,19.86,21.55,-2.607,16.33,18.51,17.64,1.524,13.31,0,0,0,0,0,0,0,0,0,0,0,0,0,0,0,0,
633,17.84,22.79,21.56,17.99,5.757,-4.122,28.09,12.99,21.69,20.96,2.507,12.41,12.74,18.11,12.43,7.54,0,0,0,0,0,0,0,0,0,0,0,0,0,0,0,0,
634,11.78,7.084,7.715,-15.71,0.0018,-14.5,7.043,34.6,23.26,5.433,12.26,16.16,9.493,17.01,15.61,15.58,0,0,0,0,0,0,0,0,0,0,0,0,0,0,0,0,
635,11.42,4.385,5.5,-9.104,2.622,-19.46,-5.35,-5.833,23.37,9.835,7.241,17.69,10.14,14.15,7.323,13.12,0,0,0,0,0,0,0,0,0,0,0,0,0,0,0,0,
636,7.259,8.489,7.329,-6.191,14.29,-9.391,-1.551,-33.65,20.35,15.83,0.6086,14.44,13.88,25.8,9.978,10.15,0,0,0,0,0,0,0,0,0,0,0,0,0,0,0,0,
637,13.3,12.3,13.33,11.49,17.84,6.524,9.77,37.77,22.65,28.84,13.49,24.28,24.74,49.6,16.32,24.78,0,0,0,0,0,0,0,0,0,0,0,0,0,0,0,0,
638,17.75,12.87,21.68,26.92,18.31,-1.609,9.251,51.96,8.839,33.07,8.658,14.9,13.63,38.78,19.71,17.05,0,0,0,0,0,0,0,0,0,0,0,0,0,0,0,0,
639,2.24,7.381,14.71,-1.82,23.74,-14.56,9.405,-3.507,-0.3927,30.34,9.716,6.71,9.137,26.74,15.6,13,0,0,0,0,0,0,0,0,0,0,0,0,0,0,0,0,
640,10.46,19.54,8.41,-6.947,12.8,-2.68,23.15,-4.243,11.33,34.81,17.27,17.27,19.36,30.28,11.91,19,0,0,0,0,0,0,0,0,0,0,0,0,0,0,0,0,
641,17.42,15.79,3.37,4.147,-1.876,-6.386,11.68,-6.812,9.205,20.33,-13.74,5.013,0.3156,7.105,6.525,-1.444,0,0,0,0,0,0,0,0,0,0,0,0,0,0,0,0,
642,-1.854,-9.407,5.9,-8.795,21.39,-20.63,-15.74,-11.05,11.14,-5.272,-22.05,-5.792,-13.5,-3.764,-8.179,-12,0,0,0,0,0,0,0,0,0,0,0,0,0,0,0,0,
643,-5.575,-9.629,8.624,-0.9438,34.33,-14.58,-32.06,27.65,6.606,-19.37,-3.559,-7.827,-6.585,17.44,-8.299,-7.608,0,0,0,0,0,0,0,0,0,0,0,0,0,0,0,0,
644,-10,-4.931,-7.435,10.59,16.93,-16.91,-33.27,30.93,-18.34,-3.903,-12.64,-17.62,-6.819,32.01,-3.642,-7.659,0,0,0,0,0,0,0,0,0,0,0,0,0,0,0,0,
645,-17.56,-6.68,-4.081,-19.94,17.55,-26.92,-10.88,-1.27,-10.68,22.77,-13.02,-11.67,-10.45,33.01,-8.776,-4.846,0,0,0,0,0,0,0,0,0,0,0,0,0,0,0,0,
646,-14.67,-12.33,3.694,-46.45,11.89,-24.46,-5.282,-17.34,-6.447,3.636,-5.1,-9.167,-19.46,22.33,-5.051,-7.932,0,0,0,0,0,0,0,0,0,0,0,0,0,0,0,0,
647,-17.22,-19.14,-7.966,-13.57,16.7,-11.13,-13.06,-31.56,-29.45,-13.62,-7.868,-10.77,-15.94,10.4,-6.797,-3.779,0,0,0,0,0,0,0,0,0,0,0,0,0,0,0,0,
648,-5.667,0.4064,6.985,13.88,44.57,3.539,8.444,-44.17,-19.28,5.446,-7.147,-1.928,-4.9,-2.167,-10.26,-0.2326,0,0,0,0,0,0,0,0,0,0,0,0,0,0,0,0,
649,7.085,7.276,23.14,-14.47,27.97,-1.155,14.13,-26.05,-2.743,5.415,-9.258,-4.036,-11.48,-8.488,-3.082,-6.92,0,0,0,0,0,0,0,0,0,0,0,0,0,0,0,0,
650,4.444,-10.42,16.81,-2.923,22.76,-8.154,-4.766,22.83,-6.216,7.015,-3.458,-0.0981,-6.704,6.139,-3.747,4.583,0,0,0,0,0,0,0,0,0,0,0,0,0,0,0,0,
651,6.882,-6.088,17.97,34.44,52.41,-0.0784,-3.926,40.88,-3.489,9.584,-2.064,9.03,2.768,1.672,6.058,13.34,0,0,0,0,0,0,0,0,0,0,0,0,0,0,0,0,
652,1.835,-1.836,13.89,5.495,29.87,5.378,8.233,-5.286,-8.415,-12.58,-13.8,7.332,0.8797,-12.47,17.41,8.735,0,0,0,0,0,0,0,0,0,0,0,0,0,0,0,0,
653,-1.017,-4.707,9.51,-15.88,8.062,12.52,18.36,-75.16,-24.79,-9.469,-12.51,7.55,7.834,5.861,2.085,6.033,0,0,0,0,0,0,0,0,0,0,0,0,0,0,0,0,
654,5.63,2.872,14.31,-2.546,25.66,17.37,19.26,-97.24,-31.08,13.77,-13.38,2.534,11.86,17.76,-2.114,0.7887,0,0,0,0,0,0,0,0,0,0,0,0,0,0,0,0,
655,7.083,7.903,20.78,-2.477,26.75,9.424,10.68,-17.2,-18.23,28.25,-10.13,3.466,11.24,9.758,8.062,9.13,0,0,0,0,0,0,0,0,0,0,0,0,0,0,0,0,
656,10.07,3.429,28.5,4.228,24.74,-5.65,-4.466,45.66,-13.57,31.3,0.8884,0.364,-1.993,-6.999,0.7576,5.051,0,0,0,0,0,0,0,0,0,0,0,0,0,0,0,0,
657,-7.775,-19.25,16.75,-1.244,22.31,-23.3,-19.99,-9.231,-32.59,18.78,-13.47,-23.29,-26.3,-29.6,-13.44,-18.53,0,0,0,0,0,0,0,0,0,0,0,0,0,0,0,0,T1
658,-23.52,-25.06,5.787,-10.65,11.71,-18.6,-8.224,-28.25,-33.22,19.02,-29.15,-23.91,-20.06,-29.16,-19.03,-14.75,0,0,0,0,0,0,0,0,0,0,0,0,0,0,0,0,
659,-6.948,-2.765,7.167,6.597,17.02,-3.392,0.719,3.639,-25.55,14.17,-34.71,-17.96,-11.08,-23.75,-12.18,-12.41,0,0,0,0,0,0,0,0,0,0,0,0,0,0,0,0,
660,-8.407,-2.506,-3.364,7.068,27.01,-9.432,-11.03,-44.5,-36.23,10.75,-32.82,-22.4,-13.34,-17.97,-2.741,-13.89,0,0,0,0,0,0,0,0,0,0,0,0,0,0,0,0,
661,-9.519,-1.126,2.813,-11.47,25.72,-14.45,1.029,-76.76,-35.15,45.77,-7.622,-3.886,4.284,7.27,7.848,7.824,0,0,0,0,0,0,0,0,0,0,0,0,0,0,0,0,
662,5.654,4.534,10.11,-24.23,15.7,-19.49,3.045,-17.19,-33.16,32.94,6.561,2.793,7.394,12.08,21.28,12.69,0,0,0,0,0,0,0,0,0,0,0,0,0,0,0,0,
663,-4.8,-13.57,-6.341,-14.17,9.626,-23.3,-15.88,29.09,-34.95,-22.96,8.187,-3.4,-0.0202,-0.2498,17.7,9.126,0,0,0,0,0,0,0,0,0,0,0,0,0,0,0,0,
664,-5.511,-11.71,-4.768,18.21,6.103,-2.851,-0.8194,2.401,-23.26,-13.05,11.43,5.487,8.134,-2.074,15.51,11.23,0,0,0,0,0,0,0,0,0,0,0,0,0,0,0,0,
665,8.381,0.5041,6.124,19.37,1.36,6.669,21.57,-35,-18.16,17.79,-3.059,4.504,11.16,-1.311,24.23,4.806,0,0,0,0,0,0,0,0,0,0,0,0,0,0,0,0,
666,9.227,3.021,17.88,10.51,8.319,0.4858,26.82,-10.36,-12.27,18.84,-9.098,3.582,14.36,2.637,14.45,7.578,0,0,0,0,0,0,0,0,0,0,0,0,0,0,0,0,
667,13.62,12.71,26.73,15.46,-15.78,3.983,26.55,3.014,-6.276,16.94,-5.5,3.468,9.385,-8.626,7.229,6.28,0,0,0,0,0,0,0,0,0,0,0,0,0,0,0,0,
668,8.116,4.347,9.302,-9.53,-54.64,-4.41,20.05,-23.78,-11.72,16.53,-8.885,-2.104,-0.1025,-16.18,10.1,4.098,0,0,0,0,0,0,0,0,0,0,0,0,0,0,0,0,
669,0.8074,-2.859,9.649,-20.65,-24.23,-21.43,19.97,20.77,-16.38,18.75,-9.135,1.484,5.44,5.284,2.874,7.345,0,0,0,0,0,0,0,0,0,0,0,0,0,0,0,0,
670,-0.6944,2.772,15.82,-1.057,3.08,-27.11,11.92,65.88,-34.19,15.49,-22.54,-7.752,0.5444,13.08,4.331,-6.309,0,0,0,0,0,0,0,0,0,0,0,0,0,0,0,0,
671,-12.17,-6.705,-7.46,2.538,-21.02,-15.89,-3.278,20.78,-38.53,17.31,-23.76,-11.4,0.882,12.54,9.79,-1.363,0,0,0,0,0,0,0,0,0,0,0,0,0,0,0,0,
672,-6.395,-5.783,-2.814,9.025,-20.86,4.986,-0.7967,-10.16,-15.47,23.61,-5.245,3.121,12.04,12.36,7.636,10.87,0,0,0,0,0,0,0,0,0,0,0,0,0,0,0,0,
673,4.81,3.244,18.44,6.542,-17.7,9.926,12.88,-13.17,-15.77,11.41,-12.39,4.398,6.405,-4.588,7.763,-3.603,0,0,0,0,0,0,0,0,0,0,0,0,0,0,0,0,
674,10.26,12.43,19.99,-13.49,-20.95,17.14,36.51,-22.18,-10.04,12.82,-17.81,14.86,12.07,0.8217,9.807,-0.3254,0,0,0,0,0,0,0,0,0,0,0,0,0,0,0,0,
675,27.65,29.32,23.67,-1.472,2.957,34.11,38.89,10.05,12.32,22.94,-7.973,24.03,18.33,14.53,17.17,7.472,0,0,0,0,0,0,0,0,0,0,0,0,0,0,0,0,
676,26.23,24.91,22.33,29.69,8.857,25.45,14.33,55.24,-4.095,16,-0.8711,12.59,8.12,3.045,12.96,-0.7706,0,0,0,0,0,0,0,0,0,0,0,0,0,0,0,0,
677,18.55,19.53,17.44,27.97,-12.02,11.19,17.28,55.42,-24.66,16.09,15.49,14.3,8.525,-2.363,1.414,2.865,0,0,0,0,0,0,0,0,0,0,0,0,0,0,0,0,
678,19.28,19.37,10,-4.19,-26.93,10.01,16.86,21.26,-21.42,7.922,18.36,11.84,3.36,2.689,11.85,6.227,0,0,0,0,0,0,0,0,0,0,0,0,0,0,0,0,
679,1.295,0.199,2.786,-13.27,-22.4,3.01,-2.902,-22.48,-28.37,-2.229,8.609,-1.158,-2.695,8.327,11.23,6.992,0,0,0,0,0,0,0,0,0,0,0,0,0,0,0,0,
680,-10.5,-4.445,14.42,-5.673,-4.834,-2.591,10.76,-53.13,-41.73,-0.0389,4.85,-4.502,0.7116,4.256,-4.654,2.216,0,0,0,0,0,0,0,0,0,0,0,0,0,0,0,0,
681,-10.72,1.965,15.86,-18.95,-4.517,4.298,27.48,-28.61,-35.15,-15.37,3.344,-4.32,-3.178,-6.105,0.6465,-6.748,0,0,0,0,0,0,0,0,0,0,0,0,0,0,0,0,
682,-4.435,8.754,11.05,7.269,-3.099,17.92,19.17,30.54,-12.55,-11.64,18.47,6.769,0.6604,1.863,3.825,-2.738,0,0,0,0,0,0,0,0,0,0,0,0,0,0,0,0,
683,13.33,19.75,18.02,52.81,14.34,13.1,11.92,34.14,-9.779,15.66,21.6,7.862,-0.8274,1.408,0.9419,-11.59,0,0,0,0,0,0,0,0,0,0,0,0,0,0,0,0,
684,8.748,5.397,9.704,22.44,14.15,-3.703,16.34,15.19,-12.85,15.25,7.88,-0.7236,-5.935,-2.232,10.83,-12.45,0,0,0,0,0,0,0,0,0,0,0,0,0,0,0,0,
685,-0.4292,-2.283,3.962,-18.21,-5.502,4.901,24.05,15.22,-1.111,7.565,11.84,3.906,4.969,12.01,12.6,7.1,0,0,0,0,0,0,0,0,0,0,0,0,0,0,0,0,
686,-5.105,2.879,4.633,-12.46,-20.7,4.192,4.718,-42.99,-17.82,3.005,4.658,-10.69,-3.014,1.684,-1.536,-1.485,0,0,0,0,0,0,0,0,0,0,0,0,0,0,0,0,
687,-26.88,-15.75,0.4753,-2.738,-4.954,-18.51,-15.71,-74.85,-31.92,1.169,2.18,-20.81,-8.186,-6.542,-9.095,-0.2838,0,0,0,0,0,0,0,0,0,0,0,0,0,0,0,0,
688,-24.85,-15.13,10.44,3.993,4.76,-11.17,-2.57,0.2242,-14.3,13.18,19.04,-5.313,10.31,12.64,4.673,18.58,0,0,0,0,0,0,0,0,0,0,0,0,0,0,0,0,
689,-12.38,0.7441,11.19,10.74,-29.98,2.998,2.909,32.55,-24.76,15.33,4.734,-12.83,6.702,11.73,6.836,1.699,0,0,0,0,0,0,0,0,0,0,0,0,0,0,0,0,
690,-20.8,-5.633,6.308,20.7,-34.05,-5.644,7.396,2.906,-33.71,7.364,-12.46,-25.48,-7.707,2.918,-18.75,-17.55,0,0,0,0,0,0,0,0,0,0,0,0,0,0,0,0,
691,-22.29,-12.63,4.777,7.578,-25.3,-13.43,24.52,-2.399,-12.91,-4.673,-8.758,-25.67,-15.79,-0.7041,-22.71,-21.3,0,0,0,0,0,0,0,0,0,0,0,0,0,0,0,0,
692,-24.23,-12.76,-15.03,-24.93,-61.39,-13.43,19.38,-5.073,-18.17,-5.592,-7.62,-25.4,-16.04,-5.612,-11.21,-20.32,0,0,0,0,0,0,0,0,0,0,0,0,0,0,0,0,
693,-20.92,3.647,-11.81,-4.358,-52.74,-3.752,10.88,-9.936,-40.59,21.3,-7.487,-17.36,-0.3136,3.849,-14.19,-11.32,0,0,0,0,0,0,0,0,0,0,0,0,0,0,0,0,
694,-10.33,21.44,7.132,19.99,-18.77,7.084,16.97,-27.89,-48.02,32.99,-19.55,-21,3.395,16.81,-6.561,-11.02,0,0,0,0,0,0,0,0,0,0,0,0,0,0,0,0,
695,-11.46,18.38,5.459,4.254,-35.9,17.73,27.24,-45.63,-39.12,33.87,-16.53,-18.26,2.159,33.06,2.432,-5.713,0,0,0,0,0,0,0,0,0,0,0,0,0,0,0,0,
696,1.869,24.04,14.97,23.93,-36.9,33.8,32.79,-4.91,-32.77,42.94,3.991,0.9208,4.115,37.72,-0.3816,-2.263,0,0,0,0,0,0,0,0,0,0,0,0,0,0,0,0,
697,11.86,28.38,18.07,47.5,-8.071,32.19,25.43,48.88,-43.76,29.15,-10.09,0.4501,-3.615,19.93,-2.901,-11.7,0,0,0,0,0,0,0,0,0,0,0,0,0,0,0,0,
698,4.041,31.44,14.15,32.42,9.549,26.61,36.83,59.86,-39.59,26.65,-22.36,0.1865,4.723,23.89,-10.14,-5.225,0,0,0,0,0,0,0,0,0,0,0,0,0,0,0,0,
699,10.26,49.63,27.58,19.09,7.164,32.07,54.66,37.38,-36.13,44.75,-13.53,-0.0178,10.26,33.32,-10.19,-6.035,0,0,0,0,0,0,0,0,0,0,0,0,0,0,0,0,
700,8.138,39.3,16.05,14.75,-23.82,14.88,33.79,14.9,-52.64,39.77,-18.56,-13.54,-0.7474,26.41,-6.542,-12.86,0,0,0,0,0,0,0,0,0,0,0,0,0,0,0,0,
701,-4.573,13.97,-3.115,28.21,-47.6,-17.98,7.28,34.23,-39.67,25.97,-21.08,-13.8,1.288,32.95,-9.5,0.0521,0,0,0,0,0,0,0,0,0,0,0,0,0,0,0,0,
702,-10.22,6.742,-1.447,28.51,-45.38,-33.65,1.465,45.3,-18.48,17.23,-20.39,-13.99,-1.054,33.11,-5.274,1.58,0,0,0,0,0,0,0,0,0,0,0,0,0,0,0,0,
703,-13.3,2.699,-7.936,-9.879,-35.52,-26.52,10.07,-2.004,-19.99,25.17,-16.6,-11.87,-1.465,23.55,-6.98,0.2304,0,0,0,0,0,0,0,0,0,0,0,0,0,0,0,0,
704,-1.366,8.413,-10.26,-23.1,-28.3,-16.11,21.88,-36.52,-12.11,37.75,-2.17,0.1863,9.192,25.17,-9.587,1.942,0,0,0,0,0,0,0,0,0,0,0,0,0,0,0,0,
705,2.216,10.25,-0.0398,-3.681,-23.21,-18.43,18.47,-3.476,6.876,18.43,3.59,1.3,7.453,27.61,-2.463,-7.566,0,0,0,0,0,0,0,0,0,0,0,0,0,0,0,0,
706,0.1899,8.588,11.04,13.89,12.62,-7.135,26.04,44.96,29.52,11.23,4.497,5.592,11.19,25.04,-7.702,-2.546,0,0,0,0,0,0,0,0,0,0,0,0,0,0,0,0,
707,15.32,19.94,15.51,21.69,42.76,9.8,43.55,30.01,42.18,30.78,-1.005,4.146,16.88,7.341,-9.582,4.6,0,0,0,0,0,0,0,0,0,0,0,0,0,0,0,0,
708,12.28,23.13,12.13,17.68,19.03,7.505,42.42,-12.09,47.89,33.43,-4.127,0.5905,17.73,2.839,-3.023,6.282,0,0,0,0,0,0,0,0,0,0,0,0,0,0,0,0,
709,11.13,32.76,23.36,31.76,7.468,19.76,43.07,-9.914,68.22,29.31,2.63,19.16,25.13,27.03,-4.425,10.84,0,0,0,0,0,0,0,0,0,0,0,0,0,0,0,0,
710,25.62,41.14,29.53,45.5,11.96,34.61,42.78,3.252,62.95,29.67,-8.204,19.55,15.27,24.38,-1.917,0.1537,0,0,0,0,0,0,0,0,0,0,0,0,0,0,0,0,
711,18.66,21.9,21.33,28.9,-3.244,24.37,32.6,27.98,33.15,41,-9.759,6.085,3.729,6.106,-9.29,-3.306,0,0,0,0,0,0,0,0,0,0,0,0,0,0,0,0,
712,14.2,9.165,22.43,24.56,-3.874,17.18,17.24,52.17,24.41,47.92,-5.803,2.976,1.347,1.914,-23.09,-2.217,0,0,0,0,0,0,0,0,0,0,0,0,0,0,0,0,
713,10.19,1.192,8.821,33.8,4.325,9.64,-3.975,6.152,24.06,22.02,-29.87,-7.713,-8.942,-3.88,-19.89,-11.97,0,0,0,0,0,0,0,0,0,0,0,0,0,0,0,0,
714,-1.772,-1.924,-0.0634,28.07,14.32,0.4456,1.589,-27.86,35.12,10.26,-23.58,-2.877,-1.652,5.207,-17.85,-5.482,0,0,0,0,0,0,0,0,0,0,0,0,0,0,0,0,
715,5.692,14.58,13.72,12.92,19.8,5.13,15.2,4.913,43.55,23.52,0.7469,6.161,6.823,10.45,-15.11,-3.83,0,0,0,0,0,0,0,0,0,0,0,0,0,0,0,0,
716,8.463,15.97,11.83,5.72,-6.389,7.948,9.884,9.873,19.95,23.95,-11.67,-1.171,1.169,-6.517,-9.909,-9.936,0,0,0,0,0,0,0,0,0,0,0,0,0,0,0,0,
717,8.334,13.97,19.8,14.41,-20.05,8.514,25.95,-10.45,4.118,22.34,-23.58,1.901,5.49,-12.1,-16.05,-6.36,0,0,0,0,0,0,0,0,0,0,0,0,0,0,0,0,
718,14.36,18.24,37.16,12.66,4.107,11.72,39.99,2.783,10.38,16.53,-24.9,0.9594,2.384,-8.43,-15.69,-14.68,0,0,0,0,0,0,0,0,0,0,0,0,0,0,0,0,
719,10.12,12.3,36.94,19.37,34.54,20.75,30.58,54.65,21.98,12.88,-14.92,-0.4369,2.426,-1.036,-14.01,-13.44,0,0,0,0,0,0,0,0,0,0,0,0,0,0,0,0,
720,18.56,19.97,47.84,50.47,45.25,34.69,29.77,95.75,29.42,16.97,-2.285,2.848,9.968,2.095,-25.02,-9.187,0,0,0,0,0,0,0,0,0,0,0,0,0,0,0,0,
721,19.29,22.17,45.51,40.65,23.64,30,24.89,53.21,18.52,2.612,-24.06,-11.68,-1.588,-9.298,-36.84,-26.3,0,0,0,0,0,0,0,0,0,0,0,0,0,0,0,0,
722,2.933,14.47,21.6,10.76,12.83,21.45,21.28,-14.02,20.45,-9.354,-35.02,-11.8,-3.765,-10.15,-42.08,-28.67,0,0,0,0,0,0,0,0,0,0,0,0,0,0,0,0,
723,6.094,23.27,17.86,10.89,22.97,20.21,18.69,-4.746,38.18,-4.66,-11.69,-1.808,1.853,-10.58,-33.59,-24.32,0,0,0,0,0,0,0,0,0,0,0,0,0,0,0,0,
724,5.424,22.04,21.73,6.905,25.27,7.133,3.056,37.51,38.55,7.7,3.59,-3.016,-1.433,-13.6,-22.29,-21.96,0,0,0,0,0,0,0,0,0,0,0,0,0,0,0,0,
725,4.212,19.39,20.81,2.67,42.59,5.668,11.58,24.85,41.36,27.23,5.288,9.609,2.806,-5.547,-12.97,-11.82,0,0,0,0,0,0,0,0,0,0,0,0,0,0,0,0,
726,16.66,22.54,13.79,4.168,56.12,19.24,26.15,-17.58,48.72,31.12,-3.641,16.36,0.3385,-16.75,0.4703,-16.19,0,0,0,0,0,0,0,0,0,0,0,0,0,0,0,0,
727,16.04,15.08,11.64,5.283,52.92,23.29,16.16,8.62,41.17,30.04,-7.594,12.54,-1.175,-30.98,-2.132,-13.84,0,0,0,0,0,0,0,0,0,0,0,0,0,0,0,0,
728,15.52,20.58,24.15,16.76,64,24.29,12.13,61.91,34.72,28.75,-4.646,14.02,1.894,-21.62,-6.314,-7.623,0,0,0,0,0,0,0,0,0,0,0,0,0,0,0,0,
729,14.39,22.96,18.32,7.618,67.69,26.35,15.09,50.9,49.43,22.7,-5.692,12.37,-5.376,-10.55,2.059,-18.73,0,0,0,0,0,0,0,0,0,0,0,0,0,0,0,0,
730,15.36,17.29,15.89,-8.625,66.74,38.22,21.33,38.85,68.77,43.3,6.133,22.12,0.11,-9.378,-2.746,-14.91,0,0,0,0,0,0,0,0,0,0,0,0,0,0,0,0,
731,30.93,24.32,29.13,1.336,59.76,49.9,27.93,24.6,52.99,41.03,2.545,23.74,3.628,-30.39,-7.338,-10.93,0,0,0,0,0,0,0,0,0,0,0,0,0,0,0,0,
732,26.44,21.88,20.78,22.07,31.22,38.85,25.68,-29.9,37.4,-0.0478,-11.9,12.66,-1.337,-45.13,-7.134,-16.06,0,0,0,0,0,0,0,0,0,0,0,0,0,0,0,0,
733,22.69,22.92,27.42,48.16,42.82,32.96,27.93,-19.77,55.32,-3.216,2.542,22.29,8.661,-29.14,-10.78,-8.216,0,0,0,0,0,0,0,0,0,0,0,0,0,0,0,0,
734,35.27,24.04,42.82,38.9,80.3,38.71,23.35,44.65,45.91,-4.671,1.796,24.47,8.648,-27.99,-0.7018,-5.931,0,0,0,0,0,0,0,0,0,0,0,0,0,0,0,0,
735,25.76,8.04,27.4,-5.101,78.38,32.07,17.42,56.3,20.04,-27.44,-11.04,16.8,5.285,-35.81,2.512,-4.492,0,0,0,0,0,0,0,0,0,0,0,0,0,0,0,0,
736,15.39,9.613,20.04,-11.25,67.83,21.31,19.18,24.02,22.97,-13.02,-3.576,17.27,9.818,-29.1,-3.277,-2.238,0,0,0,0,0,0,0,0,0,0,0,0,0,0,0,0,
737,12.92,12.2,15.08,4.468,57.61,15.69,3.909,-14.03,29.1,9.747,-0.6607,11.7,9.014,-23.56,7.397,0.1503,0,0,0,0,0,0,0,0,0,0,0,0,0,0,0,0,
738,10.6,9.131,1.717,8.654,29.75,18.41,-5.597,-23.82,30.89,1.635,8.691,17.15,21.38,-16.59,15.89,16.02,0,0,0,0,0,0,0,0,0,0,0,0,0,0,0,0,
739,19.98,18.16,3.516,2.606,13.6,22.47,-0.2841,-9.056,18.67,-14.03,13.44,21.51,24.76,-20.11,18.24,11,0,0,0,0,0,0,0,0,0,0,0,0,0,0,0,0,
740,22.04,10.96,3.834,-18.04,33.52,24.45,6.429,-14.89,4.968,-0.5234,6.685,18.77,16.54,-20.29,19.98,3.481,0,0,0,0,0,0,0,0,0,0,0,0,0,0,0,0,
741,29.61,16.71,-1.623,-24.87,51.97,33.37,25.23,-38.78,5.134,22.56,22.17,32.68,30.15,-2.804,19.71,24.42,0,0,0,0,0,0,0,0,0,0,0,0,0,0,0,0,
742,41.11,40.01,-16.66,-25.57,25.6,32.13,23.14,-60.67,-22.04,4.883,26.05,32.4,35.52,-5.943,26.5,26.63,0,0,0,0,0,0,0,0,0,0,0,0,0,0,0,0,
743,34.78,35.69,-17.48,-20.59,33.41,32.89,12.51,-43.13,-25.21,-0.9975,17.27,26.44,32.77,-9.211,23.57,16.2,0,0,0,0,0,0,0,0,0,0,0,0,0,0,0,0,
744,43.11,32.57,27.68,23.11,109.1,52.59,24.28,10.85,20.77,18.11,30.99,35.41,36.27,6.68,18.52,13.65,0,0,0,0,0,0,0,0,0,0,0,0,0,0,0,0,
745,51.22,33.65,49.37,53.37,132.5,53.56,13.24,27.98,21.68,1.531,43.81,32.41,30.21,11.38,26.44,10.81,0,0,0,0,0,0,0,0,0,0,0,0,0,0,0,0,
746,43.04,28.05,31.51,38.88,104.7,41.82,1.902,13.84,6.162,-2.967,49.03,31.85,32.58,6.397,23.68,18.79,0,0,0,0,0,0,0,0,0,0,0,0,0,0,0,0,
747,43.44,32.1,32.71,17.67,107.5,37.61,13.32,-2.747,19,3.676,43.55,32.61,32.49,-9.348,25.23,20.56,0,0,0,0,0,0,0,0,0,0,0,0,0,0,0,0,
748,37.26,27.19,42.25,14.24,128,29.16,4.394,-23.38,20.87,-21.49,43.34,33.74,28.57,-6.321,42.85,28.68,0,0,0,0,0,0,0,0,0,0,0,0,0,0,0,0,
749,41.96,28.37,49.09,37.89,149.5,31.56,-0.9975,-16.69,29.25,-23.17,67.58,53.94,40.58,24.18,52.7,48.75,0,0,0,0,0,0,0,0,0,0,0,0,0,0,0,0,
750,57.69,39.61,45.71,41.02,148.8,35.87,10.8,-13.32,38.25,-14.44,65.96,55.04,35.95,17.64,53.33,40.1,0,0,0,0,0,0,0,0,0,0,0,0,0,0,0,0,
751,49.98,40.14,34.38,9.587,118.9,31.7,24.19,-58.83,35.13,-14.18,48.06,42.7,25.99,3.709,42.19,33.1,0,0,0,0,0,0,0,0,0,0,0,0,0,0,0,0,
752,46.41,43.79,40.21,-6.057,87.79,36.19,38.44,-104.1,45.63,12.93,47.77,41.75,27.14,20.59,33.89,39.09,0,0,0,0,0,0,0,0,0,0,0,0,0,0,0,0,
753,41.12,29.52,31.52,-5.229,57.62,36.38,22.82,-77.74,52.5,27.74,39.74,33.48,20.32,19.75,40.11,33.64,0,0,0,0,0,0,0,0,0,0,0,0,0,0,0,0,
754,28.58,14.72,12.32,21.21,53.86,37.03,-1.497,4.091,49.94,20.93,42.51,36.31,26.01,9.038,34.95,36.64,0,0,0,0,0,0,0,0,0,0,0,0,0,0,0,0,
755,36.2,29.06,14.86,48.72,70.91,36.85,-0.5421,24.06,38.48,13.78,54.06,41.23,27.63,6.621,28.14,31.34,0,0,0,0,0,0,0,0,0,0,0,0,0,0,0,0,
756,35.77,25.49,20.95,26.64,70.31,19.61,1.7,-16.9,27.22,2.266,49.87,35.75,16.16,8.289,29.69,20.79,0,0,0,0,0,0,0,0,0,0,0,0,0,0,0,0,
757,33.82,18.72,34.33,8.713,62.13,21.41,2.33,-14.49,41.84,9.522,41.41,37.66,14.46,12.15,19.77,17.48,0,0,0,0,0,0,0,0,0,0,0,0,0,0,0,0,
758,33.49,16.8,29.23,-1.358,35.01,33.97,-4.014,-11.25,37.3,5.553,21.29,18.98,-6.589,-5.78,4.886,-5.894,0,0,0,0,0,0,0,0,0,0,0,0,0,0,0,0,
759,7.659,-9.653,-4.298,-29.74,20.17,17.34,-19.66,-29.07,10.67,-35.23,18.6,1.097,-21.5,-15.87,-3.276,-7.16,0,0,0,0,0,0,0,0,0,0,0,0,0,0,0,0,
760,0.4965,-12.18,-8.142,-19.93,53.73,-2.42,-28.7,-25.75,15.2,-48.2,37.04,12.53,-3.602,-2.413,4.689,17.05,0,0,0,0,0,0,0,0,0,0,0,0,0,0,0,0,
761,11.1,-3.421,-3.021,-6.216,57.37,-7.642,-37.77,-48.13,31.14,-8.842,25.96,14.76,-1.396,-2.745,18.64,14.59,0,0,0,0,0,0,0,0,0,0,0,0,0,0,0,0,
762,6.765,-20.8,-12.38,-31.1,35.98,-9.831,-42.14,-54.1,39.12,20.51,12.88,14.15,-7.079,-2.083,16.88,12.43,0,0,0,0,0,0,0,0,0,0,0,0,0,0,0,0,
763,4.179,-25.83,-11.87,-34.32,40.32,-17.59,-53.4,3.814,30.71,-11.38,14.07,13.52,-7.102,-2.599,15.89,13.65,0,0,0,0,0,0,0,0,0,0,0,0,0,0,0,0,
764,-4.915,-23.4,-13.89,-7.812,24.17,-23.63,-70.48,27.76,15.46,-44.49,18.44,8.656,-11.92,-16.78,15.87,6.396,0,0,0,0,0,0,0,0,0,0,0,0,0,0,0,0,
765,-6.256,-24.64,-6.643,2.455,2.185,-13.45,-54.84,3.699,33.93,-17.11,37.83,21.71,-8.817,-14.17,13.36,10.28,0,0,0,0,0,0,0,0,0,0,0,0,0,0,0,0,
766,5.41,-22.47,4.788,-21.79,2.201,-12.18,-36.01,-9.281,50.51,5.772,36.08,25.03,-8.863,-0.5324,20.45,9.656,0,0,0,0,0,0,0,0,0,0,0,0,0,0,0,0,
767,0.5156,-18.94,-3.15,-38.93,-7.159,-18.79,-34.19,-15.27,40.68,-2.646,24.93,16.39,-8.039,9.165,11.73,6.14,0,0,0,0,0,0,0,0,0,0,0,0,0,0,0,0,
768,-0.5442,-4.366,-9.863,-20.22,-18.27,-10.02,-27.05,-21.91,27.98,-7.476,37.93,14.76,-1.943,9.041,0.5668,7.625,0,0,0,0,0,0,0,0,0,0,0,0,0,0,0,0,
769,1.05,-5.064,-16.59,-13.56,-22.53,-10.8,-32.48,-18.48,3.461,-13.8,38.9,9.113,-2.002,-3.765,11.75,11.34,0,0,0,0,0,0,0,0,0,0,0,0,0,0,0,0,
770,-1.125,-16.49,-13.74,-16.27,-28.09,-12.79,-37.07,4.536,-5.77,-11.15,33.99,13.84,4.146,-12.12,11.89,18.54,0,0,0,0,0,0,0,0,0,0,0,0,0,0,0,0,
771,6.178,-12.07,-0.6191,-12.27,-33.77,-5.737,-28.64,31.12,5.494,-1.262,42.31,16.47,3.053,-18.12,9.899,10.27,0,0,0,0,0,0,0,0,0,0,0,0,0,0,0,0,
772,-0.0696,-15.52,-8.069,-33.7,-27.43,-16.13,-23.18,37.57,3.34,8.825,52.85,11.64,1.188,-7.791,18.49,10.86,0,0,0,0,0,0,0,0,0,0,0,0,0,0,0,0,
773,-3.892,-13.15,-12.34,-47.2,-14.06,-22.76,-14.63,15.33,3.362,18.76,50.91,16.15,11.05,14.76,13.71,22.26,0,0,0,0,0,0,0,0,0,0,0,0,0,0,0,0,
774,-0.3232,-6.968,-17.16,-27.58,-34.09,-15.29,-25.25,-23.82,0.7121,-2.824,21.22,3.974,0.199,9.988,10.39,9.151,0,0,0,0,0,0,0,0,0,0,0,0,0,0,0,0,
775,-8.974,-17.52,-29.45,-5.685,-47.86,-8.558,-35.28,-34.16,-4.709,-17.98,14.92,0.7666,-4.232,6.669,18.21,13.83,0,0,0,0,0,0,0,0,0,0,0,0,0,0,0,0,
776,0.6604,-10.91,-9.123,-0.0583,-14.95,0.2856,-9.511,-31.77,4.112,3.615,42.23,20.1,8.102,9.133,27.61,27.89,0,0,0,0,0,0,0,0,0,0,0,0,0,0,0,0,
777,8.238,-5.13,8.109,-10.24,-2.482,-2.083,-0.7065,-37.25,5.466,11.14,44.03,14.13,-1.669,-9.484,27.96,10.26,0,0,0,0,0,0,0,0,0,0,0,0,0,0,0,0,
778,-0.5773,-15.68,-0.4559,-2.803,-8.422,-5.536,-13.5,5.465,8.124,10.83,38.04,3.789,-8.763,-11.75,11.56,2.949,0,0,0,0,0,0,0,0,0,0,0,0,0,0,0,0,
779,4.487,-17.89,-11.39,0.6594,-8.568,0.0732,-15.93,37.73,8.992,8.936,29.9,1.712,-8.88,-2.887,6.397,4.607,0,0,0,0,0,0,0,0,0,0,0,0,0,0,0,0,
780,-1.118,-22.59,-27.51,-28.12,-27.77,-3.558,-15.91,-0.1794,-11.25,-2.229,11.41,-3.783,-10.48,3.991,10.75,3.105,0,0,0,0,0,0,0,0,0,0,0,0,0,0,0,0,
781,-7.168,-13.8,-16.15,-25.6,-31.17,-4.973,-4.879,-17.07,-19.92,1.541,16.39,0.0218,-4.099,21.23,4.572,6.764,0,0,0,0,0,0,0,0,0,0,0,0,0,0,0,0,
782,-0.7874,-6.25,4.152,-6.549,-29.29,-0.9716,-2.894,-11.25,-12.11,-5.689,22.41,-6.929,-15.08,17.96,6.83,-3,0,0,0,0,0,0,0,0,0,0,0,0,0,0,0,0,
783,-10.21,-28.13,-10.57,-10.36,-46.5,0.6297,-19.91,-28.6,-0.1454,-17.17,14.05,-13.55,-23.88,6.038,5.379,-3.76,0,0,0,0,0,0,0,0,0,0,0,0,0,0,0,0,
784,-17.71,-36.71,-16.23,-2.99,-45.34,-2.99,-32.78,-34.02,3.586,-7.438,-0.453,-13.63,-22.52,-2.772,-9.126,-2.367,0,0,0,0,0,0,0,0,0,0,0,0,0,0,0,0,
785,-29.19,-39.86,-7.843,-4.419,-54.14,-20.89,-48.75,-11.72,-15.69,-11.15,-18.28,-27.8,-33.94,-17.91,-12.08,-14.31,0,0,0,0,0,0,0,0,0,0,0,0,0,0,0,0,
786,-41.43,-44.69,-7.665,-10.73,-69.56,-23.73,-44.85,38.47,-14.76,-19.54,-9.898,-23.84,-27.09,-7.697,-8.742,-7.182,0,0,0,0,0,0,0,0,0,0,0,0,0,0,0,0,
787,-29.4,-29.69,-10.06,-8.563,-43.53,-9.946,-19.56,67.5,4.376,-27.85,-6.142,-17.94,-19.79,-1.678,-7.672,-6.739,0,0,0,0,0,0,0,0,0,0,0,0,0,0,0,0,
788,-27.24,-28.79,-20.24,-30.52,-21.19,-9.966,-15.75,26.76,3.531,-47.12,-16.1,-27.11,-27.12,-13.14,-10.51,-11.49,0,0,0,0,0,0,0,0,0,0,0,0,0,0,0,0,
789,-24.73,-29.11,-13.12,-27.55,-25.81,-6.779,-23.54,-30.31,7.444,-44.62,-1.046,-14.43,-15.94,-3.378,-11.73,0.3963,0,0,0,0,0,0,0,0,0,0,0,0,0,0,0,0,
790,-11.87,-22.78,4.572,4.288,-29.51,-5.396,-33.35,-55.92,10.14,-23.59,-7.827,-9.678,-14.7,-9.242,-2.176,-9.184,0,0,0,0,0,0,0,0,0,0,0,0,0,0,0,0,
791,-18.14,-32.71,-0.4072,-2.514,-31.34,-8.521,-37.35,-25.06,-0.6707,5.599,-26.96,-16.27,-19.1,-21.53,-1.234,-12.89,0,0,0,0,0,0,0,0,0,0,0,0,0,0,0,0,
792,-15.62,-24.49,-12.13,-18.4,-27.33,1.709,-28.7,37.89,-9.333,23.97,-12.78,-8.648,-8.855,-0.4958,-2.255,3.131,0,0,0,0,0,0,0,0,0,0,0,0,0,0,0,0,
793,-11.7,-15.93,-17.79,-5.972,-12.71,-3.926,-37.44,46.36,-21.89,6.012,-14.15,-12.77,-13.91,10.5,2.981,0.9501,0,0,0,0,0,0,0,0,0,0,0,0,0,0,0,0,
794,-20.44,-27.4,-10.28,18.45,-1.308,-14.15,-44.73,19.44,-24.09,-1.8,-30.14,-19.23,-21.71,1.003,-13,-6.182,0,0,0,0,0,0,0,0,0,0,0,0,0,0,0,0,
795,-19.69,-30.22,-16.48,15.03,-14.02,-4.857,-33.07,10.79,-22.95,-0.6903,-33.66,-25.39,-31.95,-10.72,-32,-26.36,0,0,0,0,0,0,0,0,0,0,0,0,0,0,0,0,
796,-31.87,-39.57,-47.22,-20.7,-23.18,-3.346,-24.37,5.119,-29.31,-20.63,-30.52,-31.88,-45.2,-15.52,-31.32,-41.12,0,0,0,0,0,0,0,0,0,0,0,0,0,0,0,0,
797,-36.22,-39.37,-34.95,-21.59,-3.345,-2.061,-14.44,-11.31,-19.77,-23.94,-14.48,-18.26,-32.95,-8.285,-22.29,-17.93,0,0,0,0,0,0,0,0,0,0,0,0,0,0,0,0,
798,-20.71,-24.4,-10.84,-8.399,-6.502,1.156,-18.59,-50.28,-19.52,-16.24,-8.865,-16.85,-25.28,-18.74,-9.705,-8.737,0,0,0,0,0,0,0,0,0,0,0,0,0,0,0,0,
799,-26.2,-27.81,-30.6,-26.68,-19.97,-4.583,-33.2,-64.14,-28.34,-17.09,-10.56,-22.71,-30.56,-34.92,-7.413,-16.76,0,0,0,0,0,0,0,0,0,0,0,0,0,0,0,0,
800,-27.63,-26.09,-35.36,-19.71,-6.918,-3.754,-35.6,-20.23,-15.12,-27.35,-6.861,-13.55,-26.06,-32.54,-6.617,-11.43,0,0,0,0,0,0,0,0,0,0,0,0,0,0,0,0,
801,-20.9,-21.4,-22.46,-2.32,-15.3,-6.59,-42.36,0.324,-5.003,-40.87,-18.22,-15.04,-20.39,-29.89,1.853,-7.394,0,0,0,0,0,0,0,0,0,0,0,0,0,0,0,0,
802,-23.33,-21.47,-23.22,-21.36,-26.15,-9.11,-39.11,-11.88,0.2319,-15.99,-26.43,-15.43,-14.54,-27.86,-4.431,-8.749,0,0,0,0,0,0,0,0,0,0,0,0,0,0,0,0,
803,-18.82,-14.37,-28.51,-30.41,-13.73,-7.066,-29.41,-7.748,9.348,3.52,-31.54,-16.97,-22.55,-29.87,-13.48,-20.55,0,0,0,0,0,0,0,0,0,0,0,0,0,0,0,0,
804,-24.81,-23.44,-28.43,-12.39,-11.92,-20.7,-34.84,-15.41,12.55,-24.27,-35.87,-26.82,-30.4,-26.42,-15.71,-20.39,0,0,0,0,0,0,0,0,0,0,0,0,0,0,0,0,
805,-28.91,-24.96,-7.979,-16.46,-2.314,-26.72,-29.41,-51.9,12.97,-34.28,-22.23,-23.87,-18.68,-15.53,-17.78,-4.016,0,0,0,0,0,0,0,0,0,0,0,0,0,0,0,0,
806,-22.4,-15.6,-8.333,-49.07,3.909,-21.46,-30.87,-73.22,9.553,-28.51,-24.56,-26.58,-22.7,-30.1,-9.127,-7.86,0,0,0,0,0,0,0,0,0,0,0,0,0,0,0,0,
807,-28.26,-25.27,-27.92,-42.82,-9.092,-25.33,-41.79,-40.52,24.8,-24.91,-33.56,-25.23,-26.01,-40.29,-6.661,-6.922,0,0,0,0,0,0,0,0,0,0,0,0,0,0,0,0,
808,-25.01,-21.97,-11.11,-2.54,-13.23,-24.21,-28.8,-11.48,39.64,-7.848,-31.55,-15.92,-18.12,-32.42,-14.94,-5.136,0,0,0,0,0,0,0,0,0,0,0,0,0,0,0,0,
809,-25.79,-20.74,-8.126,0.2121,-23.39,-24.24,-22.98,-25.74,22.32,-4.527,-50.02,-26.46,-26.8,-39.89,-18.21,-22.1,0,0,0,0,0,0,0,0,0,0,0,0,0,0,0,0,
810,-34.55,-32.84,-16.73,-4.442,-26.8,-26.89,-24.06,9.126,28.65,-0.3959,-60.89,-24.08,-22.01,-35.62,-21.68,-15,0,0,0,0,0,0,0,0,0,0,0,0,0,0,0,0,
811,-20.61,-21.92,5.407,-5.451,-24.67,-17.15,-12.96,67.72,43.6,8.535,-52.06,-12.88,-14.87,-21.82,-16.39,-6.985,0,0,0,0,0,0,0,0,0,0,0,0,0,0,0,0,
812,-16.26,-19.27,-3.768,-28.69,-50.11,-2.44,-11.64,32.17,29.6,-3.482,-46.21,-17.27,-26.89,-23.29,-10.28,-17.8,0,0,0,0,0,0,0,0,0,0,0,0,0,0,0,0,
813,-20.06,-28.03,-22.75,-18.8,-50.76,7.04,-14.03,-43.05,37.72,-10.57,-41.53,-14.9,-26.26,-21.85,-17.86,-15.45,0,0,0,0,0,0,0,0,0,0,0,0,0,0,0,0,
814,-16.48,-23.08,-8.233,3.848,-28.56,-4.695,-21.99,-60.52,37.91,-15.27,-52.84,-18.61,-23.9,-21.28,-20.15,-15.22,0,0,0,0,0,0,0,0,0,0,0,0,0,0,0,0,
815,-24.13,-20.28,-12.47,-1.222,-38.69,-19.77,-34.57,-10.37,7.958,-18.76,-55.07,-19.29,-21.57,-22.72,-17.14,-12.54,0,0,0,0,0,0,0,0,0,0,0,0,0,0,0,0,
816,-20.28,-18.13,-29.22,-1.206,-51.7,-11.14,-35.72,35.56,3.613,-5.003,-39.61,-11.11,-18.26,-32.15,-13.54,-6.462,0,0,0,0,0,0,0,0,0,0,0,0,0,0,0,0,
817,-18.49,-28.35,-26.39,-18.37,-54.11,-8.229,-35.05,2.891,12.17,0.626,-40.78,-21.83,-29.31,-47.22,-13.71,-14.2,0,0,0,0,0,0,0,0,0,0,0,0,0,0,0,0,
818,-27.61,-38.95,-8.193,-34.93,-50.11,-10.33,-25.56,-26.48,19.8,1.307,-30.04,-19.12,-22.93,-34.82,-21.52,-10.86,0,0,0,0,0,0,0,0,0,0,0,0,0,0,0,0,
819,-14.63,-23.84,5.749,-18.07,-33.84,-1.48,-19.75,12.18,25.78,1.662,-11.02,-6.921,-10.53,-29.09,-11.15,-3.79,0,0,0,0,0,0,0,0,0,0,0,0,0,0,0,0,
820,-6.441,-15.15,0.7554,-11.12,-20.05,-1.071,-23.67,31.02,18.77,-2.746,-0.9119,-12.06,-15.91,-45.31,0.8682,-4.378,0,0,0,0,0,0,0,0,0,0,0,0,0,0,0,0,
821,-5.561,-11.08,4.558,-4.448,-4.697,0.1403,-9.113,-4.59,17.57,2.579,19.82,-8.939,-15.42,-41.49,-7.875,-5.96,0,0,0,0,0,0,0,0,0,0,0,0,0,0,0,0,
822,0.1603,-7.676,4.596,-0.356,-7.698,0.2036,-14.56,-24.59,4.103,-2.811,9.148,-10.5,-16.01,-38.01,-7.158,-14.31,0,0,0,0,0,0,0,0,0,0,0,0,0,0,0,0,
823,-8.499,-21.02,-14.56,-10.91,-32.71,-11.08,-42.52,18.42,-18.38,-14.46,-23.38,-17.01,-13.82,-39.69,-2.473,-8.597,0,0,0,0,0,0,0,0,0,0,0,0,0,0,0,0,
824,-7.7,-22.58,-12.95,4.33,-29.78,-13.2,-38.38,49.38,-14.41,-21.32,-23.69,-14.82,-10.07,-32.27,-6.468,-6.215,0,0,0,0,0,0,0,0,0,0,0,0,0,0,0,0,
825,-3.181,-20.51,-5.194,4.974,-6.354,-9.77,-25.18,8.443,-6.314,-41.65,-11.72,-20.07,-18.45,-30.89,-6.989,-17.73,0,0,0,0,0,0,0,0,0,0,0,0,0,0,0,0,
826,-9.932,-23.56,-6.162,-20.99,2.659,-10.35,-20.99,-12.83,-5.444,-47.45,0.8934,-17.52,-15.46,-22.04,-6.797,-7.923,0,0,0,0,0,0,0,0,0,0,0,0,0,0,0,0,
827,-12.05,-20.4,-10.72,-12.55,-10.95,-23.74,-20.03,-20.46,-20.62,-37.77,-2.599,-19.92,-22.01,-18.18,-5.344,-9.961,0,0,0,0,0,0,0,0,0,0,0,0,0,0,0,0,
828,-24.9,-29.92,-34.49,-6.26,-32.91,-46.43,-14.68,-74.79,-54.1,-30.39,-17.65,-32.59,-38.55,-30.63,-16.09,-23.57,0,0,0,0,0,0,0,0,0,0,0,0,0,0,0,0,
829,-29.1,-26.18,-38.42,-31.94,-33.34,-41.88,12.95,-66.48,-62.33,-14.95,-1.93,-23.1,-25.25,-31.27,-28.7,-9.936,0,0,0,0,0,0,0,0,0,0,0,0,0,0,0,0,
830,-18.34,-12.11,-19.45,-37.91,-28.29,-28.23,9.831,12.63,-54.17,-15.51,8.08,-17.95,-16.38,-23.83,-12.79,-4.313,0,0,0,0,0,0,0,0,0,0,0,0,0,0,0,0,
831,-22.9,-20.85,-20.8,-7.192,-34.19,-32.01,-26.07,37.85,-49.52,-16.63,-4.604,-20.51,-19.11,-9.086,-1.774,-7.779,0,0,0,0,0,0,0,0,0,0,0,0,0,0,0,0,
832,-19.99,-17.47,-26.62,12.91,-50.48,-28.37,-22.82,10.63,-42.44,-5.747,-9.283,-17.51,-15.89,0.7929,-7.708,-7.495,0,0,0,0,0,0,0,0,0,0,0,0,0,0,0,0,
833,-18.87,-11.14,-29.71,-2.374,-78.13,-25.01,-7.706,-16.94,-46.59,-14.84,-12.77,-29.3,-26.61,-12.52,-6.719,-13.83,0,0,0,0,0,0,0,0,0,0,0,0,0,0,0,0,
834,-30.41,-19.25,-26.34,-6.286,-65.8,-29.21,-10.09,-28.26,-43.33,-12.68,-5.505,-31.62,-31.32,-20.08,-6.861,-6.378,0,0,0,0,0,0,0,0,0,0,0,0,0,0,0,0,
835,-27.24,-15.85,-12.68,-0.9783,-22.99,-29.59,-10.56,-34.84,-29.67,-8.074,1.786,-23.79,-25.73,-24.65,2.617,3.114,0,0,0,0,0,0,0,0,0,0,0,0,0,0,0,0,
836,-25.2,-15.14,-9.424,-9.337,-12.16,-29.75,-13.11,-52.84,-20.55,-22.2,-0.1432,-17.52,-19.23,-27.41,15.86,9.209,0,0,0,0,0,0,0,0,0,0,0,0,0,0,0,0,
837,-15.09,-12.55,-10.13,2.215,-11.09,-22.01,-8.956,-51.21,-8.792,-8.411,8.071,-1.27,-6.865,-13.03,10.05,14.76,0,0,0,0,0,0,0,0,0,0,0,0,0,0,0,0,
838,-1.555,-13.5,-24.55,-9.355,-16.16,-19.2,-3.756,-22.35,-15.63,-12.9,-1.745,-9.178,-16.15,-18.54,0.2897,-3.709,0,0,0,0,0,0,0,0,0,0,0,0,0,0,0,0,
839,-17.05,-34.45,-39.08,-47.77,-37.46,-26.73,-7.055,-4.025,-13.85,-57.5,-14.11,-23.83,-27.22,-32.12,-7.515,-13,0,0,0,0,0,0,0,0,0,0,0,0,0,0,0,0,
840,-21.23,-31.07,-20.37,-22.49,-47.52,-24.59,-13.28,-14.99,17.8,-47.8,2.09,-10.04,-14.08,-11.56,-2.741,-2.201,0,0,0,0,0,0,0,0,0,0,0,0,0,0,0,0,
841,-10.5,-10.57,-12.44,16.83,-49.51,-25.21,-25.07,-34.25,14.96,6.92,10.18,-4.928,-5.157,20.61,6.747,-2.271,0,0,0,0,0,0,0,0,0,0,0,0,0,0,0,0,
842,-11.78,-7.524,-12.96,6.027,-30.36,-24.85,-21.03,-41.99,-6.205,18.23,7.123,-11.15,-2.896,28.29,-9.115,-2.863,0,0,0,0,0,0,0,0,0,0,0,0,0,0,0,0,
843,-10.25,-12.09,0.0161,-5.177,-9.777,-12.83,-8.918,-62.03,-2.442,-12.04,-2.814,-15.26,-6.667,3.781,-12.45,-6.397,0,0,0,0,0,0,0,0,0,0,0,0,0,0,0,0,
844,-11.56,-17.65,-9.717,2.065,-25.82,-5.636,-4.041,-64.19,-0.6644,-8.794,-12.06,-11.78,-3.662,-5.236,6.785,-2.791,0,0,0,0,0,0,0,0,0,0,0,0,0,0,0,0,
845,-3.041,-6.106,-10.39,15.55,-19.49,-0.6255,16.21,-20.07,-5.837,22.29,3.229,3.412,13.88,13.51,4.357,10.65,0,0,0,0,0,0,0,0,0,0,0,0,0,0,0,0,
846,10.29,4.01,1.52,15.15,15.34,-1.804,27.01,-1.896,-20.92,8.038,7.575,2.161,12.16,11.39,-3.132,5.077,0,0,0,0,0,0,0,0,0,0,0,0,0,0,0,0,
847,5.225,-2.669,-14.13,3.627,21.63,-3.376,22.05,10.99,-36.76,-13.77,-4.814,1.719,11.45,16.99,1.73,7.652,0,0,0,0,0,0,0,0,0,0,0,0,0,0,0,0,
848,10.09,7.159,-17.09,11.89,13.79,6.465,22.53,43.93,-33.28,-9.114,-12.12,8.523,19.2,36.72,6.731,16.04,0,0,0,0,0,0,0,0,0,0,0,0,0,0,0,0,
849,7.781,9.989,-3.823,23.32,8.353,-1.651,4.388,6.596,-25.92,-20.82,-22.28,-6.745,5.835,25.97,4.18,4.184,0,0,0,0,0,0,0,0,0,0,0,0,0,0,0,0,
850,-9.474,3.842,-4.034,27.48,-0.8979,-16.17,-13.24,-39.48,-12.58,-27.14,-16.45,-13.29,-0.1105,15.92,-8.182,1.803,0,0,0,0,0,0,0,0,0,0,0,0,0,0,0,0,
851,-4.424,9.926,-10.61,21.96,-22.39,-9.924,-10.12,-6.087,-4.745,-23.93,-7.37,-11.14,-1.087,13.13,-6.024,2.566,0,0,0,0,0,0,0,0,0,0,0,0,0,0,0,0,
852,-2.498,-1.402,-16.04,-0.2219,-33.62,-5.976,2.092,17.01,-15.98,-23.16,-9.658,-15.81,-7.752,6.59,2.393,-2.369,0,0,0,0,0,0,0,0,0,0,0,0,0,0,0,0,
853,-7.513,-1.943,-7.016,-7.855,-0.1003,-9.639,25.37,-4.112,-23.72,-6.177,-13.55,-12.89,-3.642,12.46,-10.93,-10.6,0,0,0,0,0,0,0,0,0,0,0,0,0,0,0,0,
