%OpenBCI Raw EXG Data
%Number of channels = 16
%Sample Rate = 125 Hz
%Board = OpenBCI_GUI$BoardCytonSerialDaisy
Sample Index,EXG Channel 0,EXG Channel 1,EXG Channel 2,EXG Channel 3,EXG Channel 4,EXG Channel 5,EXG Channel 6,EXG Channel 7,EXG Channel 8,EXG Channel 9,EXG Channel 10,EXG Channel 11,EXG Channel 12,EXG Channel 13,EXG Channel 14,EXG Channel 15,Accel Channel 0,Accel Channel 1,Accel Channel 2,Other,Other,Other,Other,Other,Other,Other,Analog Channel 0,Analog Channel 1,Analog Channel 2,Timestamp,Other,Timestamp (Formatted),Annotations
1,0,0,-0,0,0,0,0,0,0,0,-0,0,0,0,0,0,0,0,0,0,0,0,0,0,0,0,0,0,0,0,0,0,T0
2,-3.784,23.3,-36.46,20.33,20.8,21.11,28.95,28.49,26.48,24.86,16.38,16.15,15.36,16.03,15.61,6.826,0,0,0,0,0,0,0,0,0,0,0,0,0,0,0,0,
3,-8.796,38.83,-23,18.01,8.786,9.189,25.76,9.291,41.64,14.45,28.08,22.2,11.43,7.026,37.51,14.98,0,0,0,0,0,0,0,0,0,0,0,0,0,0,0,0,
4,14.99,43.31,-3.297,19.14,25.01,25.27,38.76,4.869,74.34,14.23,63.17,54.27,23.5,9.502,43.22,11.62,0,0,0,0,0,0,0,0,0,0,0,0,0,0,0,0,
5,60.87,59.74,24.96,36.75,57.22,56.41,66.78,24.04,94.85,27.85,78.14,74.56,36.36,15.46,17.93,-8.393,0,0,0,0,0,0,0,0,0,0,0,0,0,0,0,0,
6,81.9,73.85,37.65,46.9,58.28,57.61,70.84,21.2,81.35,24.46,56.07,61.47,21.52,1.963,0.06,-28.92,0,0,0,0,0,0,0,0,0,0,0,0,0,0,0,0,
7,86.17,67.89,8.551,53.32,64.68,63.92,73.07,20.8,81.28,24.18,58.49,66.25,17.41,2.378,18.2,-18.42,0,0,0,0,0,0,0,0,0,0,0,0,0,0,0,0,
8,95.94,67.04,9.227,59.4,72.88,69.83,77.4,29.99,90.21,30.54,71.52,70.91,25.46,12.9,28.57,0.279,0,0,0,0,0,0,0,0,0,0,0,0,0,0,0,0,
9,93.2,66.48,24.26,51.03,56.95,54.74,67.32,23.41,74.25,27.05,62.32,54.89,13.98,4.879,11.45,-14.16,0,0,0,0,0,0,0,0,0,0,0,0,0,0,0,0,
10,90.66,63.59,4.394,51.16,54.96,55.67,72.82,26.81,63.95,31.62,62.5,60,13.66,3.931,13.93,-12.98,0,0,0,0,0,0,0,0,0,0,0,0,0,0,0,0,
11,100.8,81.15,6.533,61.16,60.34,61.3,92.77,41.76,82.88,44.67,68.49,76.56,36.97,13.63,35.75,17.74,0,0,0,0,0,0,0,0,0,0,0,0,0,0,0,0,
12,103.6,102.7,31.6,57.25,56.23,56.89,98.97,43.52,99.84,47.6,65.23,79.75,46.98,5.856,41.59,21.41,0,0,0,0,0,0,0,0,0,0,0,0,0,0,0,0,
13,105.4,110.4,44.61,57.17,73.03,72.16,99.27,45.71,90.85,43.8,69.37,81.93,39.21,-4.744,43.53,16.15,0,0,0,0,0,0,0,0,0,0,0,0,0,0,0,0,
14,103.7,103.9,56.83,57.02,83.11,80.16,89.95,42.15,76.4,34.27,67.87,73.97,20.91,-7.642,35.78,7.638,0,0,0,0,0,0,0,0,0,0,0,0,0,0,0,0,
15,80.37,76.28,48.09,41.31,61.2,59.95,67.39,22.22,75.33,17.72,47.8,49.05,-5.33,-21.12,-0.4693,-28.53,0,0,0,0,0,0,0,0,0,0,0,0,0,0,0,0,
16,53.42,48.98,22.26,34.74,51.9,52.54,55.97,7.699,71.48,4.297,34.34,33.12,-13.81,-33.25,-14.05,-32.43,0,0,0,0,0,0,0,0,0,0,0,0,0,0,0,0,
17,48.5,51.81,22.27,37.33,69,68.65,60.66,-2.684,69.46,0.7219,45.68,48.09,4.314,-22.4,17.46,5.208,0,0,0,0,0,0,0,0,0,0,0,0,0,0,0,0,
18,66.75,73.81,42.47,37.77,83.29,82.81,68.28,-13.35,84.71,4.49,60.77,74.17,24.26,-5.319,29.7,14.42,0,0,0,0,0,0,0,0,0,0,0,0,0,0,0,0,
19,78.27,89.39,43.57,45.31,75.36,76.01,71.99,-8.764,83.56,11.29,54.04,72.77,32.15,-0.0884,12.68,1.383,0,0,0,0,0,0,0,0,0,0,0,0,0,0,0,0,
20,65.31,95.98,22.7,52.44,59.96,60.33,76.43,2.741,59.12,23.24,48.43,61.1,37.74,5.891,14.7,-0.2296,0,0,0,0,0,0,0,0,0,0,0,0,0,0,0,0,
21,66.7,104.9,27.51,52.94,64.01,63.3,88.27,3.317,65.44,33.38,64.12,74.14,50.24,18.73,24.59,6.227,0,0,0,0,0,0,0,0,0,0,0,0,0,0,0,0,
22,98.89,117.8,47.83,56.91,75.11,74.19,101.2,2.538,99.44,34.09,77.96,94.59,66.22,29.87,21.63,19.19,0,0,0,0,0,0,0,0,0,0,0,0,0,0,0,0,
23,123,127.2,43.62,71.2,78.14,76.77,113.8,17.62,100.6,40.59,85.91,104.1,76.19,39.67,29.7,29.36,0,0,0,0,0,0,0,0,0,0,0,0,0,0,0,0,
24,122.7,126.8,56.25,81.26,77.97,75.86,122,35.03,85.17,50.13,92.14,105,77.24,46.78,43.16,32.64,0,0,0,0,0,0,0,0,0,0,0,0,0,0,0,0,
25,119.7,125.2,67.68,71.34,73,71.52,113,33.36,111.2,45.19,90.74,105.2,79.97,49.07,40.44,41.09,0,0,0,0,0,0,0,0,0,0,0,0,0,0,0,0,
26,131.1,132.4,38.14,71.73,76.88,76.33,98.94,28.57,132.8,40.64,98.37,116.9,86.35,47.68,44.23,42.52,0,0,0,0,0,0,0,0,0,0,0,0,0,0,0,0,
27,142.8,132.1,42.21,95.48,95.72,95.8,98.41,37.49,100.9,44.43,108.3,124.7,81.96,37.02,60.13,22.7,0,0,0,0,0,0,0,0,0,0,0,0,0,0,0,0,
28,136.2,118.1,72.23,104.7,106.5,106.2,104.8,43.85,81.36,42.31,96.06,112,69.5,23.04,56.51,7.685,0,0,0,0,0,0,0,0,0,0,0,0,0,0,0,0,
29,116.5,108.5,73.28,99.66,100,97.13,102,38.19,87.92,38.11,85.58,102.9,66.48,20.94,50.19,20.76,0,0,0,0,0,0,0,0,0,0,0,0,0,0,0,0,
30,96.33,101.3,85.62,94.53,88.72,84.92,87.12,34.67,75.08,40.06,95.88,113.4,73.88,30.06,71.62,43.26,0,0,0,0,0,0,0,0,0,0,0,0,0,0,0,0,
31,92.6,92.74,87.75,79.59,84.83,82.5,74.31,37.6,77.25,39.27,98.82,119.6,73.74,34.94,83.31,48.34,0,0,0,0,0,0,0,0,0,0,0,0,0,0,0,0,
32,96.61,81.45,52.38,72.96,78.14,75.92,66.59,32.02,85.61,27.46,83.77,105,56.04,23.57,68.03,36.93,0,0,0,0,0,0,0,0,0,0,0,0,0,0,0,0,
33,76.81,59.69,31.74,82.08,56.32,54.03,54.62,18.07,58.88,13.55,67.85,85.68,40.52,9.283,58.31,28.55,0,0,0,0,0,0,0,0,0,0,0,0,0,0,0,0,
34,54.95,47.01,32.93,78.98,39.68,37.17,41.61,10.76,56.39,8.388,50.16,72.18,38.91,6.203,40.69,21.69,0,0,0,0,0,0,0,0,0,0,0,0,0,0,0,0,
35,59.9,56.33,47.14,65.43,39.25,35.94,36.31,10.74,75.42,11.9,40.66,68.56,41.56,6.909,22.22,6.38,0,0,0,0,0,0,0,0,0,0,0,0,0,0,0,0,
36,64.12,69.47,58.76,62.52,38.54,36.18,42.28,14.93,45.09,20.61,56.54,84.78,53.28,12.56,44.92,10.22,0,0,0,0,0,0,0,0,0,0,0,0,0,0,0,0,
37,57.37,79.24,40.39,69.29,32.81,31.77,54.69,22.12,9.79,24.85,61.96,93.78,68.62,21.16,53.74,36.35,0,0,0,0,0,0,0,0,0,0,0,0,0,0,0,0,
38,63.97,91.32,36.1,84.83,42.03,42.43,77.12,32.17,19.85,26.69,44.2,80.85,73.66,24.25,14.51,38.57,0,0,0,0,0,0,0,0,0,0,0,0,0,0,0,0,
39,85.06,105.5,60.53,103.1,76.86,78.74,107.6,43.87,42.31,34.08,44.68,78.43,71.53,25.1,2.459,17.73,0,0,0,0,0,0,0,0,0,0,0,0,0,0,0,0,
40,93.9,100.5,58.9,95.23,95.21,95.29,102.9,37.4,55.65,26.13,54.2,76.69,52.78,10.38,23.84,2.935,0,0,0,0,0,0,0,0,0,0,0,0,0,0,0,0,
41,77.95,65.47,43.86,71.46,73.39,71.33,62.1,17.48,54.7,4.008,57.14,62.25,26.75,-15.6,31.53,-2.862,0,0,0,0,0,0,0,0,0,0,0,0,0,0,0,0,
42,57.58,35.7,59.67,68.91,58.86,57.88,43.43,14.69,48.85,-3.733,63.76,58.68,21.03,-18.4,27.73,2.631,0,0,0,0,0,0,0,0,0,0,0,0,0,0,0,0,
43,49.7,29.85,89.3,72.88,73.62,73.86,52.57,21.99,63.76,-4.237,55.49,55.19,24.16,-6.893,14.77,5.477,0,0,0,0,0,0,0,0,0,0,0,0,0,0,0,0,
44,59.41,36.65,103.8,81.45,95.98,95.24,72.82,32.86,76.85,-1.698,45.99,48.64,29.67,-1.836,2.864,-3.578,0,0,0,0,0,0,0,0,0,0,0,0,0,0,0,0,
45,69.89,48.41,93.56,104.3,94.86,93.11,90.19,46.97,45.06,6.081,45.11,48.23,36.3,0.1926,-4.718,-11.45,0,0,0,0,0,0,0,0,0,0,0,0,0,0,0,0,
46,46.77,47.25,55.22,94.6,56.71,56.94,73.67,41.31,-2.672,2.825,26.4,41.98,30.9,-2.492,-17.1,-17.15,0,0,0,0,0,0,0,0,0,0,0,0,0,0,0,0,
47,27.66,47.37,32.77,70.22,41.53,43.6,57.07,35.73,2.03,5.678,28.85,55.5,38.38,3.329,-2.203,-5.816,0,0,0,0,0,0,0,0,0,0,0,0,0,0,0,0,
48,58.62,68.03,64.77,86.43,68.96,69.91,71.06,48.33,46.36,22.21,60.13,86.54,54.53,15.33,26.09,11.99,0,0,0,0,0,0,0,0,0,0,0,0,0,0,0,0,
49,88.98,76.3,91.5,100.4,76.89,77.85,71.95,45.25,60.96,23.18,66.04,90.19,43.17,9.051,25.67,-0.1902,0,0,0,0,0,0,0,0,0,0,0,0,0,0,0,0,
50,99.33,74.91,89.75,100.5,81.74,82.05,67.37,36.53,60.01,18.6,71.85,90.79,39.61,8.612,31.42,0.5187,0,0,0,0,0,0,0,0,0,0,0,0,0,0,0,0,
51,112.7,84.8,106,118.2,102.6,100.2,79.69,45.18,79.31,22.93,84.52,101.7,62.2,27.37,42.54,28.79,0,0,0,0,0,0,0,0,0,0,0,0,0,0,0,0,
52,100.7,81.09,114.8,117.2,91.57,90.64,73.63,46.08,77.03,21.5,70.51,95.7,69.91,31.2,35.55,27.34,0,0,0,0,0,0,0,0,0,0,0,0,0,0,0,0,
53,84.17,76.82,112,102.5,83.18,83.66,60.9,39.62,72.52,21.46,74.66,105.2,70.96,26.38,54.04,22.97,0,0,0,0,0,0,0,0,0,0,0,0,0,0,0,0,
54,110.8,92.59,128.3,117,113.6,110.4,68.33,41.56,115.2,27.07,93.55,128.7,74.05,26.71,67.2,32.9,0,0,0,0,0,0,0,0,0,0,0,0,0,0,0,0,
55,123.9,90.78,126.5,132.2,116,110.9,63.53,37.93,116.5,22.3,67.79,107,52.53,10.22,24.43,13.62,0,0,0,0,0,0,0,0,0,0,0,0,0,0,0,0,
56,78.67,67.33,117.1,126.5,79.65,76.54,46.77,30.49,45.53,14.1,37.11,68.74,32.25,-12.07,1.036,0.9651,0,0,0,0,0,0,0,0,0,0,0,0,0,0,0,0,
57,34.62,59.79,119,122.2,62,60.22,53.6,35.21,12.75,15.93,33.46,59.03,36.16,-18.21,16.74,9.656,0,0,0,0,0,0,0,0,0,0,0,0,0,0,0,0,
58,15.01,61.39,96.7,115.9,49.81,47.94,59.3,39.57,12.24,13.98,14.68,38.67,26.81,-20.5,1.022,-4.391,0,0,0,0,0,0,0,0,0,0,0,0,0,0,0,0,
59,-18.71,48.9,86.3,91.85,19.09,17.85,39.07,34.48,-10.23,4.182,-7.6,6.95,9.113,-17.15,-25.14,-9.141,0,0,0,0,0,0,0,0,0,0,0,0,0,0,0,0,
60,-38.8,43.73,92.48,68.3,14.11,14.36,35.57,37.93,-7.339,8.119,-1.818,13.34,22.77,-0.9697,-19.65,12.28,0,0,0,0,0,0,0,0,0,0,0,0,0,0,0,0,
61,-1.066,67.42,57.23,66.17,39.42,39.51,59.51,46.59,24.65,22.8,15.09,45.28,54.17,12.56,-0.375,21.08,0,0,0,0,0,0,0,0,0,0,0,0,0,0,0,0,
62,55.24,103.2,24.35,70.42,51.72,51.24,77.4,49.78,51.12,32.98,38.9,78.37,87.61,22.72,25.87,31.18,0,0,0,0,0,0,0,0,0,0,0,0,0,0,0,0,
63,97.93,142.1,40.12,72.45,65.25,66.27,97.68,63.97,72.39,46.62,68.97,118.8,124.3,33.49,48.11,49.47,0,0,0,0,0,0,0,0,0,0,0,0,0,0,0,0,
64,138.7,178.6,63.63,86.71,94.89,96.63,123.3,82.15,85.03,61.26,92.34,154,145.5,41.16,58.26,53.42,0,0,0,0,0,0,0,0,0,0,0,0,0,0,0,0,
65,166,191.3,76.56,106,112.8,112.6,130,85.66,99.16,65.68,114.1,169.8,148.9,52.75,70.79,58.28,0,0,0,0,0,0,0,0,0,0,0,0,0,0,0,0,
66,164,182.7,99.74,112.7,116.7,114.7,121.2,82.9,98.49,60.18,116.1,161,134.4,56.04,68.37,61.48,0,0,0,0,0,0,0,0,0,0,0,0,0,0,0,0,
67,143.8,164.9,127.6,114.4,120.4,119,109.1,77.79,78.38,51.18,93.04,142.6,105.8,45.31,54.27,47.21,0,0,0,0,0,0,0,0,0,0,0,0,0,0,0,0,
68,133.1,146.9,134.4,131.1,129.2,128.3,106,79.71,100.5,54.82,88.89,142.6,100.9,46.28,57.4,41.45,0,0,0,0,0,0,0,0,0,0,0,0,0,0,0,0,
69,132.9,138.1,132.5,152.3,132.7,129.8,108.3,86.82,115.9,58.58,85.08,131.5,99.88,44.54,44.06,48.54,0,0,0,0,0,0,0,0,0,0,0,0,0,0,0,0,
70,108.8,118.8,132.3,148.7,115.3,112.3,90.35,69.67,56.24,37.72,54.39,93.75,66.4,28.1,15.54,61.3,0,0,0,0,0,0,0,0,0,0,0,0,0,0,0,0,
71,73.63,86.8,119.8,135.5,102,101,71.16,44.54,27.47,18.35,50.45,79.19,52.85,35.07,27.58,96.42,0,0,0,0,0,0,0,0,0,0,0,0,0,0,0,0,
72,51.48,70.2,119.3,135.6,101.4,99.47,71.83,39.97,56.91,19.26,69.14,73.63,65.38,54.69,47.01,123.4,0,0,0,0,0,0,0,0,0,0,0,0,0,0,0,0,
73,15.61,57.48,119.2,125.8,82.67,79.27,60.04,36.84,48.49,23.67,59,43.56,50.14,54.1,32.3,118.2,0,0,0,0,0,0,0,0,0,0,0,0,0,0,0,0,
74,-22.29,37.46,89.98,98.75,57.3,53.99,32.73,27.78,27.79,25.44,38.16,24.43,28.37,48.02,18.61,119.7,0,0,0,0,0,0,0,0,0,0,0,0,0,0,0,0,
75,-25.14,32.34,79.61,80.64,44.78,42.42,25.35,24.96,33.93,20.62,34.54,30.03,25.41,39.45,20.75,124.7,0,0,0,0,0,0,0,0,0,0,0,0,0,0,0,0,
76,0.3093,43.1,82.88,85.92,39.09,38.41,41.21,33.27,31.45,17.42,56.07,53.57,30.03,30.75,33.67,117.7,0,0,0,0,0,0,0,0,0,0,0,0,0,0,0,0,
77,38.63,55.55,74.93,101.4,44.77,43.37,55.6,47.26,43.34,23.96,92.03,94.29,48.74,37.95,57.17,127.5,0,0,0,0,0,0,0,0,0,0,0,0,0,0,0,0,
78,75.34,68.88,100.6,103.2,58.74,56.06,61.78,51.79,89.09,22.71,110.1,127.2,71.99,43.94,75.04,143.4,0,0,0,0,0,0,0,0,0,0,0,0,0,0,0,0,
79,105.5,89.7,111.1,97.23,71.91,70.33,73.45,56.74,101.8,21.38,119.9,146.8,90.43,43.52,90.52,152.8,0,0,0,0,0,0,0,0,0,0,0,0,0,0,0,0,
80,129.3,118.7,63.42,97.1,80.09,77.87,87.5,72.8,64.19,37.11,132.6,158.6,118.3,58.44,103.1,174.4,0,0,0,0,0,0,0,0,0,0,0,0,0,0,0,0,
81,132.5,149.7,55.41,101.4,81.68,79.03,101.3,84.56,51.6,56.83,123.4,152.2,150,83.74,94.01,189.3,0,0,0,0,0,0,0,0,0,0,0,0,0,0,0,0,
82,126.4,180.1,93.07,116.5,82,81.64,122.4,92.63,64.09,75.03,103.2,140.1,173.3,103.2,83.56,190.1,0,0,0,0,0,0,0,0,0,0,0,0,0,0,0,0,
83,122.6,199.3,90.12,125.7,75.67,75.29,134.7,100.1,45.27,88.6,93.7,138.9,182.9,110.7,88.67,191.8,0,0,0,0,0,0,0,0,0,0,0,0,0,0,0,0,
84,117.5,198.3,77.4,118.9,69.85,68.38,134.2,103.7,31.3,88.29,87.36,142,170.3,104.5,85.65,182.7,0,0,0,0,0,0,0,0,0,0,0,0,0,0,0,0,
85,122.2,185.6,102.7,128.7,75.29,74.51,133.6,111.2,37.71,81.66,79.82,135.6,144.5,93.71,69.51,168.1,0,0,0,0,0,0,0,0,0,0,0,0,0,0,0,0,
86,114.1,163.2,125.7,151.9,74.78,74.19,130.9,120.3,26.33,79.4,67.06,113.5,122.5,84.35,45.17,148.4,0,0,0,0,0,0,0,0,0,0,0,0,0,0,0,0,
87,79.74,140.9,137.4,171.7,78.2,77.84,141.4,132,28.75,81.72,45.35,84.25,99.87,71.1,13.58,107.3,0,0,0,0,0,0,0,0,0,0,0,0,0,0,0,0,
88,57.17,133,157.7,194.9,96.02,95.8,159.5,145.7,30.27,77.34,19.72,51.75,68.7,50.78,-5.343,72.59,0,0,0,0,0,0,0,0,0,0,0,0,0,0,0,0,
89,42.28,120.8,165.6,202.1,100.7,98.42,150.4,142.8,-4.607,62.93,-2.257,21.62,41.56,30.93,-15.37,61.72,0,0,0,0,0,0,0,0,0,0,0,0,0,0,0,0,
90,19.57,96.41,182.4,194.5,96.46,91.92,127.4,129.9,4.384,55.63,-3.959,15.37,34.13,24.44,-22.73,58.88,0,0,0,0,0,0,0,0,0,0,0,0,0,0,0,0,
91,17.98,81.84,213.6,188.5,88.89,84.41,109,123,44.59,56.24,17.33,29.29,33.27,27.87,-9.255,58.87,0,0,0,0,0,0,0,0,0,0,0,0,0,0,0,0,
92,28.92,74.88,180.7,168,62.82,59.02,83.71,115,20.72,54.08,31.14,34.6,24.66,27.87,-0.4605,57.58,0,0,0,0,0,0,0,0,0,0,0,0,0,0,0,0,
93,26.26,63.95,126.2,158.7,46.18,42.13,67.59,110.4,-4.147,57.6,29.87,35.19,32.56,34.23,2.386,66.84,0,0,0,0,0,0,0,0,0,0,0,0,0,0,0,0,
94,31.18,67.66,146.2,183.4,56.38,51.83,75.25,116.2,19.76,67.63,41.57,51.42,61.62,51.11,34.15,85.24,0,0,0,0,0,0,0,0,0,0,0,0,0,0,0,0,
95,44.49,81.55,173.4,191.1,59.3,54.36,74.16,120.3,24.72,66.56,47.68,56.67,61.05,47.41,30.07,76.75,0,0,0,0,0,0,0,0,0,0,0,0,0,0,0,0,
96,33.53,67.58,171.7,180.8,47.46,43.04,46.6,119.3,17.89,55.4,25.98,36.45,31.75,25.17,-18.16,62.44,0,0,0,0,0,0,0,0,0,0,0,0,0,0,0,0,
97,28.83,55.29,199.1,205.7,56.8,54.05,40.6,130.8,33.23,60.04,35.45,47.53,41.01,29.4,-1.066,80.71,0,0,0,0,0,0,0,0,0,0,0,0,0,0,0,0,
98,71.58,91.5,240.7,249.4,93.64,90.89,80.58,161.6,46.08,81.21,83.17,92.79,78.39,53.75,44.94,101.8,0,0,0,0,0,0,0,0,0,0,0,0,0,0,0,0,
99,107.7,121.3,289.5,295.5,127.2,121.7,113.1,190.9,69.24,89.85,95.67,107.6,79.29,57.55,44.01,105,0,0,0,0,0,0,0,0,0,0,0,0,0,0,0,0,
100,99.16,107.7,367.8,374.3,150.5,141.6,114.3,212.4,101.6,84.36,80.58,96.52,52.82,43.86,41.5,95.61,0,0,0,0,0,0,0,0,0,0,0,0,0,0,0,0,
101,81,90.75,434.2,450.8,161.1,151,108.3,240.2,84.43,80.93,72.71,84.95,36.26,35.29,30.83,75.36,0,0,0,0,0,0,0,0,0,0,0,0,0,0,0,0,
102,58,78.92,483.3,499.8,155.6,146.7,106.6,278.6,46.97,85.43,61.15,67.24,39.61,44.55,7.989,75.19,0,0,0,0,0,0,0,0,0,0,0,0,0,0,0,0,
103,35.81,83.8,578.1,593.5,176.3,167.4,132.6,326.1,65.66,104.5,61.74,64.64,65.49,70.66,23.94,103.6,0,0,0,0,0,0,0,0,0,0,0,0,0,0,0,0,
104,44.92,121.7,689.1,708.3,236.3,225.8,189,374.1,105.4,127.8,80.52,83.57,91.77,91.49,45.31,123.5,0,0,0,0,0,0,0,0,0,0,0,0,0,0,0,0,
105,76.25,152.4,731.1,736.8,294.1,282.2,237.3,416.5,122.8,141.8,99.98,104,96.97,97.27,52.04,127.5,0,0,0,0,0,0,0,0,0,0,0,0,0,0,0,0,
106,105.5,154.1,736.7,713.9,333.1,318.7,261.7,453.4,136.9,152.4,113.8,114.1,95.02,99.77,63.22,127,0,0,0,0,0,0,0,0,0,0,0,0,0,0,0,0,
107,117,145.2,742.2,717.6,344.9,330,266.7,465.1,136.3,157.8,109.7,108.6,98.34,105.4,54.96,119.5,0,0,0,0,0,0,0,0,0,0,0,0,0,0,0,0,
108,123,145.8,716.9,728.7,343.5,332.4,272.6,462.9,136.6,165,113.8,117.6,105.7,116.6,62.07,121.8,0,0,0,0,0,0,0,0,0,0,0,0,0,0,0,0,
109,153.8,164.5,713.9,724.1,369.1,358.5,301.8,488.7,165.3,186.1,144.1,151.6,117.3,131.6,102.6,147.2,0,0,0,0,0,0,0,0,0,0,0,0,0,0,0,0,
110,181,176,729.5,712,393.4,381.2,335.7,518.9,164.9,204.2,149.7,164.7,132.2,142.8,107,168.7,0,0,0,0,0,0,0,0,0,0,0,0,0,0,0,0,
111,184,179.5,689.8,706.2,387.4,377.3,361.1,513.2,149.5,206.8,137,161.6,144,141.8,95.91,164.3,0,0,0,0,0,0,0,0,0,0,0,0,0,0,0,0,
112,198.1,194.6,684.4,698.6,392,383.6,385.9,497.1,187.5,202.7,152.5,175.8,147,131.8,114.9,152.7,0,0,0,0,0,0,0,0,0,0,0,0,0,0,0,0,
113,216.9,195.9,707.7,651.2,408,398.9,394.7,486,197.8,193.8,162.9,181.8,142.3,126.2,112.7,148.3,0,0,0,0,0,0,0,0,0,0,0,0,0,0,0,0,
114,214.8,179.8,608.9,569.5,393.3,384.3,369.9,446.1,143.8,174.9,142.5,158.4,122.7,115.2,84.64,131.5,0,0,0,0,0,0,0,0,0,0,0,0,0,0,0,0,
115,195.7,166.5,481.1,488.2,353.4,344.1,319.9,377.3,128.3,151.6,122,128.3,94.28,92.48,72.67,108.7,0,0,0,0,0,0,0,0,0,0,0,0,0,0,0,0,
116,157.4,149.5,426.5,408.2,310.2,300.9,272.1,323.5,131.1,140,107.4,107,86.05,85.75,66.32,114.3,0,0,0,0,0,0,0,0,0,0,0,0,0,0,0,0,
117,109,136.8,354.7,333.2,265,257.7,240.2,293.5,99.65,135.7,92.68,91.64,87.52,92.3,66.69,130.8,0,0,0,0,0,0,0,0,0,0,0,0,0,0,0,0,
118,71.51,129.8,285.6,271.8,227.8,222.8,209.6,267,87.67,122.3,88.54,81.44,74.92,88.76,79.58,127.4,0,0,0,0,0,0,0,0,0,0,0,0,0,0,0,0,
119,41.69,112.6,253.3,212.4,199.2,194.8,175.1,242.1,74.17,105,77.09,68.65,64.78,84.82,67.41,118.3,0,0,0,0,0,0,0,0,0,0,0,0,0,0,0,0,
120,15.52,97.96,202.9,156.6,170.5,166.5,149.5,218.6,49.13,93.21,50.96,53.42,62.3,82.74,41.04,104.9,0,0,0,0,0,0,0,0,0,0,0,0,0,0,0,0,
121,18.94,100.1,174.4,122.2,168.7,166,146.8,200.9,81.63,91.41,57.06,64.5,63.33,78.38,48.8,88.67,0,0,0,0,0,0,0,0,0,0,0,0,0,0,0,0,
122,56.4,107.3,167.8,96.46,183.9,180.7,153.9,189.3,96.04,90.27,88.1,90.7,68.69,74.19,60.57,85.64,0,0,0,0,0,0,0,0,0,0,0,0,0,0,0,0,
123,79.69,96.09,109.2,46.69,162.3,158.7,136.1,162.6,45.05,71.71,94.46,96.81,59.53,59.34,51.84,76.04,0,0,0,0,0,0,0,0,0,0,0,0,0,0,0,0,
124,87.91,76.04,53.81,-10.71,140,137.7,113.7,133.1,47.24,57.72,104.3,108.2,47.93,47.43,64.92,68.87,0,0,0,0,0,0,0,0,0,0,0,0,0,0,0,0,
125,112.1,84.06,35.78,-42.47,147.9,145.6,117.4,121,79.38,63,124.8,127.3,58.8,57.33,84.37,90.36,0,0,0,0,0,0,0,0,0,0,0,0,0,0,0,0,
126,115.7,98.47,-18.64,-67.48,132,130.3,117.4,108.3,63.76,59.31,111.7,115.9,60.21,61.54,76.43,91.44,0,0,0,0,0,0,0,0,0,0,0,0,0,0,0,0,
127,97.02,82.59,-69.99,-98.36,106.6,106.6,105,94.43,58.45,47.78,92.46,93.77,30.54,38.4,70.01,56.87,0,0,0,0,0,0,0,0,0,0,0,0,0,0,0,0,
128,99.9,58.16,-66.2,-122.5,105.5,104.7,98.49,81.14,67.99,40.82,90.92,83.12,7.231,10.22,62.12,42.59,0,0,0,0,0,0,0,0,0,0,0,0,0,0,0,0,
129,99.96,39.78,-85.85,-148.1,98.88,97.57,87.35,54.95,69.9,31.71,80.64,75.17,16.85,1.817,40.07,48.89,0,0,0,0,0,0,0,0,0,0,0,0,0,0,0,0,
130,87.53,27.33,-121.1,-177.4,92.06,92.02,69.56,32.86,73.26,29.59,69.45,73.44,36.59,4.717,36.15,46.85,0,0,0,0,0,0,0,0,0,0,0,0,0,0,0,0,
131,83.58,32.39,-117,-202.7,92.12,92.06,55.17,23.37,57.47,35.92,65.41,71.64,42.03,4.164,40.38,39.34,0,0,0,0,0,0,0,0,0,0,0,0,0,0,0,0,
132,66.06,44.55,-138.7,-219.9,77.32,76.81,46.45,15.21,58.3,41.45,52.69,57.98,39.91,9.628,20.29,30.36,0,0,0,0,0,0,0,0,0,0,0,0,0,0,0,0,
133,32.28,47.99,-188,-231.7,52.13,51.07,37.59,7.762,57.56,43.12,25.62,27.52,29.12,12.82,-10.36,12.64,0,0,0,0,0,0,0,0,0,0,0,0,0,0,0,0,
134,0.4529,39.41,-204.9,-257.1,24.1,22.92,19.23,-5.761,-5.007,32.84,-1.848,-4.179,5.851,-3.019,-25.52,-10.56,0,0,0,0,0,0,0,0,0,0,0,0,0,0,0,0,
135,-20.02,19.99,-221.2,-283.8,11.4,12,5.246,-20.66,-26.51,19.34,1.603,0.9167,-4.036,-14.22,-11.43,-7.289,0,0,0,0,0,0,0,0,0,0,0,0,0,0,0,0,
136,-11.44,4.264,-249.5,-289.6,22.89,24.43,4.305,-28.37,16.39,15.18,25.91,24.9,4.301,-8.404,14.31,18.94,0,0,0,0,0,0,0,0,0,0,0,0,0,0,0,0,
137,10.93,0.4564,-262.2,-298.5,22.16,23.32,-2.034,-38.78,18.71,13.35,30.06,24.01,3.46,-5.501,12.6,13.95,0,0,0,0,0,0,0,0,0,0,0,0,0,0,0,0,
138,17.03,-6.161,-257.7,-311.8,2.528,4.277,-20.76,-48.39,12.45,9.188,19.61,14.37,-13.31,-12.02,-8.963,-11.62,0,0,0,0,0,0,0,0,0,0,0,0,0,0,0,0,
139,16.21,-22.21,-249.7,-310.8,-5.812,-3.714,-41,-52.72,20.75,2.126,21.83,20.48,-26.5,-19.81,-6.522,-9.715,0,0,0,0,0,0,0,0,0,0,0,0,0,0,0,0,
140,31.75,-25.01,-265.9,-308.6,3.994,5.215,-40.43,-53.93,30.92,1.248,44.17,43.44,-14.97,-15.87,17.82,8.86,0,0,0,0,0,0,0,0,0,0,0,0,0,0,0,0,
141,63.35,-7.262,-276.1,-304.8,16.6,17.15,-19.07,-47.67,83.09,11.27,69.7,73.68,9.139,-4.662,28.72,26.01,0,0,0,0,0,0,0,0,0,0,0,0,0,0,0,0,
142,80.76,2.205,-260.8,-296.9,12.78,13.68,-15.71,-50.59,100.8,11.15,74.53,85.32,13.52,-6.928,31.21,37.32,0,0,0,0,0,0,0,0,0,0,0,0,0,0,0,0,
143,63.28,-4.478,-278.4,-306.6,-8.053,-6.263,-36.75,-72.65,37.85,-1.638,59.3,66.18,2.626,-15.56,30.47,28.2,0,0,0,0,0,0,0,0,0,0,0,0,0,0,0,0,
144,30.92,-13.9,-287.5,-325.2,-27.65,-24.42,-51.94,-85.95,6.746,-9.709,34.98,36.43,2.448,-14.78,6.735,11.44,0,0,0,0,0,0,0,0,0,0,0,0,0,0,0,0,
145,19.54,-19.21,-242.9,-320.6,-27.75,-23.12,-46.76,-76.47,31.3,-12.47,26.47,34.28,17.44,-8.32,-0.817,18.4,0,0,0,0,0,0,0,0,0,0,0,0,0,0,0,0,
146,36.22,-8.711,-244.4,-301.2,-19.44,-15.21,-30.01,-65.53,42.4,-11.76,42.41,54.74,27.05,-3.175,27.49,37.23,0,0,0,0,0,0,0,0,0,0,0,0,0,0,0,0,
147,36.7,5.059,-302.4,-302.8,-42.02,-38.38,-27.15,-65.88,15.89,-8.469,33.37,42.88,17.52,-1.318,22.63,29.48,0,0,0,0,0,0,0,0,0,0,0,0,0,0,0,0,
148,-0.7703,5.074,-319.9,-313.5,-76.82,-71.92,-35.55,-64.32,-18.48,-5.503,-3.329,7.111,7.53,2.942,-8.275,5.193,0,0,0,0,0,0,0,0,0,0,0,0,0,0,0,0,
149,-36.73,5.918,-299,-303.8,-79.24,-72.66,-34.54,-61.28,-18.72,-3.562,-16.54,-7.287,3.128,5.106,-9.707,-2.665,0,0,0,0,0,0,0,0,0,0,0,0,0,0,0,0,
150,-51.96,2.635,-283,-294.8,-73.34,-66.17,-35.88,-67.98,-19.08,-3.844,-13.86,-11.32,-4.657,0.5066,-14.19,-3.492,0,0,0,0,0,0,0,0,0,0,0,0,0,0,0,0,
151,-48.89,-8.542,-266.9,-289.7,-72.81,-68.25,-38.4,-69.95,-44.14,-2.288,-11.32,-11.36,-4.659,3.023,-29.3,-11.27,0,0,0,0,0,0,0,0,0,0,0,0,0,0,0,0,
152,-32,-12.71,-258,-274.9,-66.33,-65.17,-32.18,-68.21,-40.35,-4.827,-6.481,-6.835,-11.13,-0.4766,-23.99,-21.93,0,0,0,0,0,0,0,0,0,0,0,0,0,0,0,0,
153,-29.67,-29.22,-270.4,-274.9,-75.01,-72.77,-36.92,-79.2,-26.63,-17.77,-17.34,-19.79,-38.32,-23.6,-24.48,-30.27,0,0,0,0,0,0,0,0,0,0,0,0,0,0,0,0,
154,-45.5,-57.35,-275.3,-278.8,-93.75,-89.43,-51.84,-88.04,-44.96,-26.8,-33.14,-37.66,-58.01,-39.64,-40.31,-30.69,0,0,0,0,0,0,0,0,0,0,0,0,0,0,0,0,
155,-57.56,-66.55,-272.9,-267.8,-98.36,-93.87,-61.17,-89.92,-42.41,-31.52,-30.28,-37.16,-65.02,-46.61,-41.09,-34.48,0,0,0,0,0,0,0,0,0,0,0,0,0,0,0,0,
156,-53.62,-69.73,-290.9,-269.7,-89.62,-85.04,-66.9,-93.98,-4.035,-38.39,-16.66,-24.09,-64.06,-52.95,-26.13,-39.69,0,0,0,0,0,0,0,0,0,0,0,0,0,0,0,0,
157,-35.03,-75.85,-290.1,-275.9,-81.28,-77.94,-68.61,-94.08,-0.3303,-35.97,-7.111,-12.14,-49.1,-43.74,-19.83,-31.89,0,0,0,0,0,0,0,0,0,0,0,0,0,0,0,0,
158,-33.17,-66.9,-265.3,-266.3,-92.38,-88.53,-64.85,-93.86,-48.39,-27.54,-11.45,-13.52,-41.9,-32.97,-31.37,-31.86,0,0,0,0,0,0,0,0,0,0,0,0,0,0,0,0,
159,-49.15,-50.94,-261.5,-252.6,-104.3,-97.39,-55.32,-89.51,-73.14,-23.16,-18.98,-18.69,-39.56,-30.8,-36.49,-40.67,0,0,0,0,0,0,0,0,0,0,0,0,0,0,0,0,
160,-46.42,-38.83,-256.9,-239.4,-94.64,-88.09,-46.61,-78.46,-49.27,-18.08,-16.11,-15.05,-24.6,-20.14,-27.78,-41.01,0,0,0,0,0,0,0,0,0,0,0,0,0,0,0,0,
161,-43.67,-30.35,-251.1,-236.4,-92.55,-88.4,-57.9,-83.85,-46.67,-16.29,-22.45,-20.22,-23.72,-14.95,-30.4,-43.26,0,0,0,0,0,0,0,0,0,0,0,0,0,0,0,0,
162,-64.99,-34.63,-255.9,-245.7,-107.7,-104.3,-86.06,-98.92,-67.8,-23.39,-44.31,-38.53,-33.79,-25.58,-32.81,-33.25,0,0,0,0,0,0,0,0,0,0,0,0,0,0,0,0,
163,-85.22,-40.75,-242.8,-256.1,-115,-110.5,-96.1,-100.1,-61.04,-25.42,-51.81,-45.79,-22.54,-28.41,-22.31,-12,0,0,0,0,0,0,0,0,0,0,0,0,0,0,0,0,
164,-89.61,-31.16,-226,-256.2,-97.5,-91.03,-71.63,-95.23,-49.84,-17.43,-38.18,-37.6,-11.38,-25.05,-22.75,-14.11,0,0,0,0,0,0,0,0,0,0,0,0,0,0,0,0,
165,-79.83,-30.85,-209.3,-227.9,-67.76,-63.68,-49.95,-97.21,-44,-20.99,-27.43,-25.43,-15.22,-29.07,-14.5,-10.4,0,0,0,0,0,0,0,0,0,0,0,0,0,0,0,0,
166,-58.61,-48.47,-219.6,-220.1,-76.75,-75.58,-58.25,-114.8,-30.9,-34.43,-20.4,-6.189,-1.783,-23.26,19.96,23.54,0,0,0,0,0,0,0,0,0,0,0,0,0,0,0,0,
167,-39.37,-52.11,-279.3,-266.1,-112.2,-107.6,-64.45,-137.6,-44.77,-33.2,-11.35,6.337,14.12,-9.715,20.12,32.78,0,0,0,0,0,0,0,0,0,0,0,0,0,0,0,0,
168,-35.07,-54.1,-261,-262.6,-105.4,-99.18,-52.81,-132.9,-62.59,-30.45,-16.88,-6.979,-9.652,-17.85,-21.07,-0.0528,0,0,0,0,0,0,0,0,0,0,0,0,0,0,0,0,
169,-31.5,-64.28,-166.4,-190.1,-75.11,-72.61,-38.81,-112,-40.92,-38.96,-20.84,-9.348,-34.94,-33.4,-25.43,-16.49,0,0,0,0,0,0,0,0,0,0,0,0,0,0,0,0,
170,-5.619,-50.75,-144.6,-164.6,-59.96,-58.22,-25.24,-115.9,-14.7,-42.09,-2.013,14.3,-22.3,-29.67,-0.8981,2.54,0,0,0,0,0,0,0,0,0,0,0,0,0,0,0,0,
171,15.66,-40.89,-135.9,-176.7,-35.54,-32.45,-26.07,-134.1,2.981,-46.33,9.019,16.89,-13.42,-26.15,-4.665,9.715,0,0,0,0,0,0,0,0,0,0,0,0,0,0,0,0,
172,6.959,-58.26,-95.63,-158.6,-14.56,-12.47,-43.55,-134.8,17.93,-52,5.134,4.59,-22.86,-31.34,-8.888,0.4923,0,0,0,0,0,0,0,0,0,0,0,0,0,0,0,0,
173,-4.312,-59.9,-114.9,-150.4,-30.48,-30.12,-54.98,-129.7,12.86,-41.64,4.104,6.684,-20.05,-26.12,1.698,4.563,0,0,0,0,0,0,0,0,0,0,0,0,0,0,0,0,
174,-5.494,-43.77,-141.9,-166.5,-46.41,-46.45,-51.79,-134.7,19.8,-30.97,4.776,10.95,-6.199,-13.82,-2.339,0.0259,0,0,0,0,0,0,0,0,0,0,0,0,0,0,0,0,
175,4.118,-24.39,-120.1,-160.9,-32.77,-32.6,-35.1,-138,41.42,-31.7,16.61,19.17,5.229,-7.215,0.3646,-11.64,0,0,0,0,0,0,0,0,0,0,0,0,0,0,0,0,
176,12.74,-8.06,-119.4,-154.2,-38.52,-38.46,-34.71,-142.3,14.1,-33.29,17.46,14.99,3.292,-4.61,11.25,2.247,0,0,0,0,0,0,0,0,0,0,0,0,0,0,0,0,
177,-19.02,-24.19,-153.9,-177.4,-75.12,-74,-62.99,-150.3,-35.64,-33.97,-15.35,-21.08,-8.477,-0.2373,-6.589,11.06,0,0,0,0,0,0,0,0,0,0,0,0,0,0,0,0,
178,-63.14,-40.91,-167.8,-190.1,-81.75,-78.66,-64.08,-141.9,-33.91,-30.35,-37.53,-48.7,-9.799,-2.973,-31.7,-5.63,0,0,0,0,0,0,0,0,0,0,0,0,0,0,0,0,
179,-67.73,-25.18,-150.2,-176.1,-62.93,-59.77,-39.6,-125.4,-13.93,-27.16,-39.04,-52.12,-12.82,-24.29,-33.73,-15.13,0,0,0,0,0,0,0,0,0,0,0,0,0,0,0,0,
180,-53.55,-20.48,-140.4,-167,-59.74,-57.75,-37.27,-123,-25.56,-32.27,-38.47,-44.28,-20.13,-39.01,-16.1,-6.341,0,0,0,0,0,0,0,0,0,0,0,0,0,0,0,0,
181,-38.44,-26.24,-139.7,-161.7,-53.31,-51.54,-32.83,-124.9,-25.44,-36.58,-27.33,-26.8,-14.07,-32.51,-0.6428,-0.2238,0,0,0,0,0,0,0,0,0,0,0,0,0,0,0,0,
182,-27.64,-23.22,-130.1,-151.1,-42.82,-41.61,-19.46,-123.8,7.248,-41.1,-33.66,-30.17,-19.93,-38.49,-20.9,-16.93,0,0,0,0,0,0,0,0,0,0,0,0,0,0,0,0,
183,-32.81,-35.79,-121.5,-143.1,-48.33,-48.45,-18.49,-121.9,10.49,-48.37,-46.56,-38.18,-29.56,-50.9,-30.85,-26.05,0,0,0,0,0,0,0,0,0,0,0,0,0,0,0,0,
184,-24.93,-42.05,-97.01,-134.1,-43.3,-41.97,-2.54,-114.8,-14.05,-45.29,-12.24,-1.405,-0.6315,-32.69,19.47,2.795,0,0,0,0,0,0,0,0,0,0,0,0,0,0,0,0,
185,8.237,-19.76,-81.26,-129.1,-19.53,-15.97,19.51,-110.8,-4.59,-36.19,17.96,28.74,24.17,-10.26,37.31,17.18,0,0,0,0,0,0,0,0,0,0,0,0,0,0,0,0,
186,30.99,-10.78,-111.3,-134.1,-7.638,-6.277,14.12,-115.2,13.65,-34.68,6.449,14.28,8.321,-13.78,-5.852,2.475,0,0,0,0,0,0,0,0,0,0,0,0,0,0,0,0,
187,33.83,-23.67,-115,-132.4,-5.889,-6.318,8.29,-115.6,12.26,-34.91,20.45,17.05,-1.076,-18.23,2.1,12.18,0,0,0,0,0,0,0,0,0,0,0,0,0,0,0,0,
188,32.4,-33.05,-89.72,-124.3,-0.7609,-0.7079,4.181,-115.9,29.39,-37.32,48.3,36.12,1.213,-20.51,44.63,29.95,0,0,0,0,0,0,0,0,0,0,0,0,0,0,0,0,
189,20.7,-54.68,-116,-136,-14.39,-16.28,-29.44,-129,46.05,-48.99,28.56,22.72,-9.122,-33.67,41.25,30.77,0,0,0,0,0,0,0,0,0,0,0,0,0,0,0,0,
190,-0.7747,-77.44,-148.9,-158.2,-41.57,-42.82,-52.16,-132,29.04,-44.98,5.16,11.79,4.704,-22.25,40.33,49.88,0,0,0,0,0,0,0,0,0,0,0,0,0,0,0,0,
191,-6.759,-50.38,-137.7,-158.6,-40.55,-39.02,-34.27,-113.4,6.737,-16.25,12.44,24.14,43.31,16.24,62.87,75.16,0,0,0,0,0,0,0,0,0,0,0,0,0,0,0,0,
192,-6.037,-9.294,-123.9,-149.7,-29.84,-30.19,-29.25,-110.1,-10.84,-5.198,7.819,16.22,43.78,23.42,60.17,62.03,0,0,0,0,0,0,0,0,0,0,0,0,0,0,0,0,
193,-19.62,-11.69,-115.8,-144.5,-37.28,-38.14,-43.7,-123.5,-15.89,-15.82,-1.204,-0.7711,18.09,9.102,53.58,40.31,0,0,0,0,0,0,0,0,0,0,0,0,0,0,0,0,
194,-24.6,-17.18,-103.8,-134.5,-38.7,-37.41,-41.11,-124,-1.049,-17.48,9.086,0.4459,17.35,17.38,63.72,47.49,0,0,0,0,0,0,0,0,0,0,0,0,0,0,0,0,
195,-21.23,-5.053,-113.4,-140.1,-42.79,-41.66,-36.54,-121.1,-5.678,-18.42,8.478,-0.4365,25.37,24.96,58.25,49.28,0,0,0,0,0,0,0,0,0,0,0,0,0,0,0,0,
196,-21.35,2.188,-137.7,-148.8,-52.19,-50.39,-26.89,-113.8,-11.63,-16.55,8.244,10.02,33.46,23.5,51.03,39.51,0,0,0,0,0,0,0,0,0,0,0,0,0,0,0,0,
197,3.156,19.89,-130.4,-125.3,-38.85,-37.11,-4.852,-98.94,20.6,-3.282,34.42,39.98,52.47,30.08,66.29,50.47,0,0,0,0,0,0,0,0,0,0,0,0,0,0,0,0,
198,27.96,28.82,-109,-114.3,-38.85,-38.55,-14.58,-105.8,22.25,-4.321,40.63,38.13,49.47,24.39,64.73,53.43,0,0,0,0,0,0,0,0,0,0,0,0,0,0,0,0,
199,6.745,-0.6472,-118.5,-134.6,-64.18,-62.26,-45.99,-120.2,-15.47,-15.1,10.38,5.995,23.19,12.15,35.34,37.6,0,0,0,0,0,0,0,0,0,0,0,0,0,0,0,0,
200,-22.86,-32.98,-133.2,-137,-65.59,-63.74,-54.64,-117,-3.334,-15.6,-5.562,-5.043,14.4,15.36,25.26,36.48,0,0,0,0,0,0,0,0,0,0,0,0,0,0,0,0,
201,-25.4,-48.21,-137.8,-127.5,-60.26,-60.46,-57.32,-118.2,13.13,-18.81,3.451,1.92,19.51,16.36,32.51,34.15,0,0,0,0,0,0,0,0,0,0,0,0,0,0,0,0,
202,-19.14,-52.65,-140.2,-126.6,-71.46,-70.22,-65.07,-124.2,-29.15,-24.88,11.47,6.629,21.39,9.148,30.63,26.69,0,0,0,0,0,0,0,0,0,0,0,0,0,0,0,0,
203,-10.9,-44.64,-122.5,-122.8,-68.35,-66.63,-64.64,-122.5,-45.32,-25.54,13.55,11.02,18.12,-1.529,32.59,23.37,0,0,0,0,0,0,0,0,0,0,0,0,0,0,0,0,
204,-6.243,-39.63,-108.6,-122.5,-60.14,-59.63,-66.25,-126.9,-24.45,-28.15,4.068,-0.6434,0.1161,-17.15,22.52,2.393,0,0,0,0,0,0,0,0,0,0,0,0,0,0,0,0,
205,-26.12,-42.81,-112.1,-131.9,-69.48,-67.59,-76.48,-137.3,-26.24,-31.31,-18.63,-30.98,-24.09,-21.66,-11.73,-13.39,0,0,0,0,0,0,0,0,0,0,0,0,0,0,0,0,
206,-54.8,-44.67,-112.8,-141.3,-74.26,-72.65,-85.98,-139.7,-16.18,-30.1,-28.51,-45.45,-36.25,-19.53,-25.22,-16.86,0,0,0,0,0,0,0,0,0,0,0,0,0,0,0,0,
207,-58.77,-45.78,-127.5,-136.7,-72.79,-72.89,-87.42,-130.4,-13.86,-25.06,-27.66,-46.69,-33.38,-19.89,-21.9,-32.28,0,0,0,0,0,0,0,0,0,0,0,0,0,0,0,0,
208,-54.62,-39.56,-138.9,-119.7,-83.82,-82.12,-79.59,-113.7,-47.06,-15.67,-40.92,-58.16,-16.53,-2.112,-31.84,-22.19,0,0,0,0,0,0,0,0,0,0,0,0,0,0,0,0,
209,-55.3,-29.32,-126.1,-115,-84.24,-82.5,-71.52,-105.4,-27.13,-9.898,-45.08,-58.96,-7.334,14.98,-32.62,0.1035,0,0,0,0,0,0,0,0,0,0,0,0,0,0,0,0,
210,-43.32,-37.08,-118.1,-119.6,-71.02,-72.2,-77.51,-115.7,3.584,-18.91,-33.18,-51.56,-20.73,-1.1,-25.77,-15.19,0,0,0,0,0,0,0,0,0,0,0,0,0,0,0,0,
211,-44.03,-56.02,-117.2,-119.8,-87.47,-87.23,-93.02,-125.5,-50.27,-31.6,-36.8,-57.79,-23.77,-17.48,-22.59,-18.52,0,0,0,0,0,0,0,0,0,0,0,0,0,0,0,0,
212,-63.34,-53.41,-132.4,-127.2,-114.4,-112.3,-90.79,-115,-80.39,-30.06,-37.18,-49.86,-7.969,-11.57,-10.38,1.914,0,0,0,0,0,0,0,0,0,0,0,0,0,0,0,0,
213,-56.23,-30.91,-146.7,-128,-106.9,-106.3,-69.82,-100.6,-45.94,-25.4,-23.76,-30.85,-6.99,-9.059,-8.373,-5.172,0,0,0,0,0,0,0,0,0,0,0,0,0,0,0,0,
214,-39.02,-23.87,-119.2,-113.8,-94.98,-93.51,-65.38,-99.27,-41.4,-27.55,-29.26,-36.49,-18.41,-13.13,-20.36,-15.94,0,0,0,0,0,0,0,0,0,0,0,0,0,0,0,0,
215,-47.95,-43.3,-121.9,-121.3,-109.3,-107.1,-90.05,-100.6,-49.43,-26.87,-42.62,-47.11,-25.59,-14.67,-21.67,-9.719,0,0,0,0,0,0,0,0,0,0,0,0,0,0,0,0,
216,-63.13,-67.85,-172.9,-146.4,-131.8,-130.8,-113,-99.18,-52.75,-28.21,-39.02,-38.09,-28.86,-19.74,-9.013,-10.2,0,0,0,0,0,0,0,0,0,0,0,0,0,0,0,0,
217,-60.95,-75.45,-164.8,-142,-133.3,-130.8,-102,-97.33,-63.67,-34.56,-24.8,-18.56,-22.28,-25.87,11.92,-13.59,0,0,0,0,0,0,0,0,0,0,0,0,0,0,0,0,
218,-41.59,-66.46,-124.2,-117.4,-107.6,-104.8,-77.18,-96.02,-34.98,-38.61,-13.79,-8.197,-12.59,-26.63,13.59,-16.09,0,0,0,0,0,0,0,0,0,0,0,0,0,0,0,0,
219,-28.16,-55.73,-127.9,-111.2,-90.7,-90.01,-76.6,-98.51,-11.92,-40.72,-15.95,-16.94,-3.616,-17.89,-3.336,-17.01,0,0,0,0,0,0,0,0,0,0,0,0,0,0,0,0,
220,-32.13,-38.34,-130.7,-113.8,-96.26,-95.8,-81.83,-97.69,-46.12,-33.21,-16.47,-19.29,15.73,-1.349,7.918,-3.197,0,0,0,0,0,0,0,0,0,0,0,0,0,0,0,0,
221,-34.54,-14.01,-114.4,-110.2,-96.26,-95.75,-74,-90.97,-56.77,-19.93,-5.312,-4.243,30.57,9.221,31.63,16.56,0,0,0,0,0,0,0,0,0,0,0,0,0,0,0,0,
222,-31.75,-1.716,-116.9,-107.5,-89.73,-88.42,-69.42,-83.07,-28.03,-16.8,5.778,9.716,28.84,10.5,40.35,23.48,0,0,0,0,0,0,0,0,0,0,0,0,0,0,0,0,
223,-21.9,3.34,-122.5,-98.19,-82.06,-79.11,-60.53,-75.22,-15.87,-17.56,16.75,20.44,19.32,3.939,42.63,4.977,0,0,0,0,0,0,0,0,0,0,0,0,0,0,0,0,
224,-2.652,6.125,-103,-83.1,-63.79,-61.88,-40.12,-72.43,-5.487,-15,19.36,20.89,8.929,-7.896,19.26,-31.42,0,0,0,0,0,0,0,0,0,0,0,0,0,0,0,0,
225,8.76,6.306,-78.62,-68.68,-39.69,-38.95,-21.94,-64.88,4.31,-7.219,8.868,9.639,11.09,-7.518,-7.517,-44.1,0,0,0,0,0,0,0,0,0,0,0,0,0,0,0,0,
226,11.09,15.29,-68.01,-48,-24.87,-23.98,-12.35,-54.25,-7.874,-0.9955,-1.292,0.065,13.3,-4.339,-5.015,-30.95,0,0,0,0,0,0,0,0,0,0,0,0,0,0,0,0,
227,5.962,11.72,-64,-37.05,-31.6,-30.37,-13.77,-64.36,-2.724,-13.62,-9.632,-7.572,-0.3071,-18.86,-5.876,-31.79,0,0,0,0,0,0,0,0,0,0,0,0,0,0,0,0,
228,-1.576,-3.152,-72.21,-44.49,-43.85,-41.53,-12.56,-74.21,17.84,-26.03,-6.592,-5.397,-2.465,-29.62,-5.721,-33.8,0,0,0,0,0,0,0,0,0,0,0,0,0,0,0,0,
229,0.9846,10.49,-79.43,-48.18,-43.71,-41.91,-0.2712,-60.26,-7.348,-17.49,5.753,-1.056,3.858,-24.31,7.243,-19.16,0,0,0,0,0,0,0,0,0,0,0,0,0,0,0,0,
230,-8.842,24.02,-60.08,-41.59,-45.23,-44.57,6.694,-44.04,-32.33,-7.77,6.275,-10.75,-2.251,-16.89,9.434,-12.03,0,0,0,0,0,0,0,0,0,0,0,0,0,0,0,0,
231,-32.11,3.785,-46.98,-35.46,-46.09,-44.95,-2.002,-39.9,-0.5562,-8.797,4.209,-14.76,-7.044,-16.31,11.39,-14.13,0,0,0,0,0,0,0,0,0,0,0,0,0,0,0,0,
232,-41.7,-23.11,-64.15,-47.23,-42.59,-41.85,-32.62,-58.43,7.46,-21.5,1.925,-14.12,-14.77,-28.1,4.655,-20.15,0,0,0,0,0,0,0,0,0,0,0,0,0,0,0,0,
233,-42.35,-40.3,-85.61,-69.31,-45.57,-45.11,-60.41,-82.79,-10.14,-34.72,2.208,-13.95,-19.66,-29.34,-7.763,-25.52,0,0,0,0,0,0,0,0,0,0,0,0,0,0,0,0,
234,-22.96,-33.02,-96.76,-66.32,-36.08,-34.85,-43.82,-70.4,22.99,-26.06,26.13,6.657,-4.554,-8.576,15.81,-14.54,0,0,0,0,0,0,0,0,0,0,0,0,0,0,0,0,
235,11.67,-4.009,-84.21,-50.67,-16.79,-15.95,-13.08,-46.81,34.04,-9.853,38.49,20.37,4.133,1.857,28.08,-10.69,0,0,0,0,0,0,0,0,0,0,0,0,0,0,0,0,
236,15.52,7.714,-60.55,-48.46,-20.43,-19.79,-9.55,-47.73,0.2157,-4.41,18.05,10.03,8.615,7.796,-1.043,-16.02,0,0,0,0,0,0,0,0,0,0,0,0,0,0,0,0,
237,5.556,7.675,-65.44,-45.54,-32.55,-31.37,-13.18,-47.29,21.78,-2.023,16,14.03,25.55,23.21,4.057,3.848,0,0,0,0,0,0,0,0,0,0,0,0,0,0,0,0,
238,16.12,15.75,-74.06,-37.87,-23.23,-22.04,-9.57,-35.29,51.37,-1.394,35.71,28.25,25.35,22.07,36.64,17.33,0,0,0,0,0,0,0,0,0,0,0,0,0,0,0,0,
239,22.45,15.09,-60.18,-29.65,-8.182,-6.981,-7.514,-24.46,20.1,1.972,36.98,25.94,15.64,17.41,34.23,6.814,0,0,0,0,0,0,0,0,0,0,0,0,0,0,0,0,
240,16.13,12.59,-60.93,-26.31,-12.44,-10.44,-3.584,-15.63,5.298,11.02,27.13,23.55,26.55,28.95,24.17,11.51,0,0,0,0,0,0,0,0,0,0,0,0,0,0,0,0,
241,27.51,31.14,-61.67,-24.1,-9.395,-6.34,20.75,-6.701,35.01,18.36,32.23,36.88,38.36,31.29,34.06,15.96,0,0,0,0,0,0,0,0,0,0,0,0,0,0,0,0,
242,61.95,56.12,-27.13,4.412,21.8,23.68,59.65,2.876,54.87,22.98,42.27,44.59,31.74,22.42,32.96,3.161,0,0,0,0,0,0,0,0,0,0,0,0,0,0,0,0,
243,79.47,55.99,-11.46,29.83,32.71,32.77,71.38,4.294,52.64,20.63,31.37,28.14,9.291,16.02,13.98,-3.318,0,0,0,0,0,0,0,0,0,0,0,0,0,0,0,0,
244,63.67,31.91,-22.91,17.35,19.26,21.08,62.65,3.712,44.92,14.58,15.91,10.74,-19.95,5.891,3.114,-15.02,0,0,0,0,0,0,0,0,0,0,0,0,0,0,0,0,
245,52.04,16.27,9.042,19.25,34.32,37.77,75.54,17.13,41.98,16.17,21.83,9.563,-32.17,-1.605,-1.293,-35.73,0,0,0,0,0,0,0,0,0,0,0,0,0,0,0,0,
246,57.81,23.66,47.56,46.04,61.07,63.21,96.33,29.68,58.52,21.51,34.18,15.16,-10.45,5.763,-2.3,-27.3,0,0,0,0,0,0,0,0,0,0,0,0,0,0,0,0,
247,70.12,43.42,39.45,49.61,69.01,70.61,100,29.91,91.28,25.69,48.55,32.38,26.04,20.57,25.01,12.84,0,0,0,0,0,0,0,0,0,0,0,0,0,0,0,0,
248,86.09,59.93,29.54,39.15,65.56,66.35,87.68,25.62,86.72,25.37,63.59,45.87,39,27.4,51.94,34.03,0,0,0,0,0,0,0,0,0,0,0,0,0,0,0,0,
249,75.45,57.54,11.95,31.9,43.14,42.46,62.62,18.16,35.87,20.09,52.31,28.34,29.22,27.23,29.03,19.13,0,0,0,0,0,0,0,0,0,0,0,0,0,0,0,0,
250,35.97,45.38,-17.48,18.33,17.65,18.83,43.9,14.72,20.12,22.8,30.64,8.524,27.26,34.28,2.083,12.03,0,0,0,0,0,0,0,0,0,0,0,0,0,0,0,0,
251,23.42,51.07,-1.669,14.1,20.43,23.56,48.37,20.88,43.99,35.35,34.32,14.92,28.87,43.75,14.9,19.58,0,0,0,0,0,0,0,0,0,0,0,0,0,0,0,0,
252,46.27,69.75,26.01,28.22,35.64,37.59,64.48,24.84,44.95,42.54,41.74,25.17,20.26,40.6,27.58,14.71,0,0,0,0,0,0,0,0,0,0,0,0,0,0,0,0,
253,57.73,67.45,25.03,27.87,35.53,37.94,65.95,17.6,36.05,34.11,30.08,20.64,7.831,29.49,20.45,8.788,0,0,0,0,0,0,0,0,0,0,0,0,0,0,0,0,
254,49.09,43.88,21.14,9.383,27.06,30.63,51.68,11.27,31.37,21.64,26.01,15.41,-5.043,21.36,14.4,2.089,0,0,0,0,0,0,0,0,0,0,0,0,0,0,0,0,
255,49.19,33.62,9.411,15.74,32.02,33.45,54.22,16.79,33.71,22.11,40.09,23.33,-9.668,17.15,18.16,-9.014,0,0,0,0,0,0,0,0,0,0,0,0,0,0,0,0,
256,57.67,35.6,0.9445,31,40.02,40.3,65.74,16.88,66.99,23.79,43.38,27.91,-3.156,15.33,26.57,-4.978,0,0,0,0,0,0,0,0,0,0,0,0,0,0,0,0,
257,53.02,29.86,8.299,19.76,33.76,34.25,55.88,7.131,77.2,21.44,33.21,17.59,6.602,22.22,28.24,1.674,0,0,0,0,0,0,0,0,0,0,0,0,0,0,0,0,
258,39.99,28,8.652,14.87,31.6,30.27,46.11,2.881,36.64,29.13,31.56,13.45,26.95,42.46,28.62,10.32,0,0,0,0,0,0,0,0,0,0,0,0,0,0,0,0,
259,27.56,25.5,9.642,13.23,33.68,32.62,38.94,-4.853,23.69,31.95,31.46,17.62,45.62,56.19,33.94,26.15,0,0,0,0,0,0,0,0,0,0,0,0,0,0,0,0,
260,17.99,8.166,4.583,-10.59,25.42,25.74,14.82,-16.15,35,22.08,25.67,15.65,42.08,48.57,29.5,17.2,0,0,0,0,0,0,0,0,0,0,0,0,0,0,0,0,
261,29.77,0.5964,-12.25,-17.47,27.07,25.97,8.915,-17.12,28.87,20.99,34.47,24.93,44.88,45.91,29.34,14.2,0,0,0,0,0,0,0,0,0,0,0,0,0,0,0,0,
262,59.66,12.74,-7.061,-2.075,42.22,41.4,28.94,-10.65,43.46,27.25,54.95,46.52,59.41,55.55,42.51,39.15,0,0,0,0,0,0,0,0,0,0,0,0,0,0,0,0,
263,70.35,18.09,10.09,8.63,46.57,47.19,29.03,-0.945,59.18,25.73,55.3,43.27,44.3,42.01,35.88,23.58,0,0,0,0,0,0,0,0,0,0,0,0,0,0,0,0,
264,57.64,9.012,12.88,13.99,40.11,40.7,19.62,-7.372,47.76,18.53,47.53,32.71,25.89,19.14,34.49,-4.566,0,0,0,0,0,0,0,0,0,0,0,0,0,0,0,0,
265,59.33,8.962,3.693,-0.1823,36.94,39.48,30.45,-30.42,58.58,17.35,63.13,52.45,42.43,26.03,65.91,20.94,0,0,0,0,0,0,0,0,0,0,0,0,0,0,0,0,
266,71.73,16.47,-4.289,-17.95,35.59,38.77,25.63,-29.84,59.96,19.14,61.27,48.25,33.94,25.28,55.24,22.81,0,0,0,0,0,0,0,0,0,0,0,0,0,0,0,0,
267,50.89,-10.81,0.5533,-9.283,26.67,27.59,-7.43,-11.58,31.6,10.22,22.89,0.2963,-16.3,-2.83,1.385,-24.45,0,0,0,0,0,0,0,0,0,0,0,0,0,0,0,0,
268,18.71,-54.75,-10.27,2.77,13.88,15.19,-16.33,-0.5175,50.28,4.617,9.307,-15.91,-34.72,-7.277,-10.72,-35.24,0,0,0,0,0,0,0,0,0,0,0,0,0,0,0,0,
269,12.21,-57.79,-32.98,6.7,-1.269,0.5762,-7.493,12.07,52.36,10.16,3.111,-18.44,-32.86,-2.152,-19.03,-31.02,0,0,0,0,0,0,0,0,0,0,0,0,0,0,0,0,
270,-9.328,-55.08,-23.95,9.899,-23.88,-23.11,-24.15,17.26,-25.62,6.102,-31.75,-51.47,-54.16,-22.23,-52.26,-56.59,0,0,0,0,0,0,0,0,0,0,0,0,0,0,0,0,
271,-41.55,-74.01,-13.94,8.366,-35.66,-33.38,-29.99,16.56,-50.94,0.495,-30.21,-52.17,-57.62,-27.56,-36.81,-59.2,0,0,0,0,0,0,0,0,0,0,0,0,0,0,0,0,
272,-27.67,-67.61,-22.28,10.23,-28.57,-25.18,-8.79,22.39,-14.08,2.803,-4.247,-28.01,-42.29,-19.72,-12.63,-43.33,0,0,0,0,0,0,0,0,0,0,0,0,0,0,0,0,
273,-7.77,-56.34,-15.18,8.737,-28.52,-26.51,-17.09,14.84,-23.36,-3.975,-21.14,-42.23,-49.66,-34.71,-45.51,-55.4,0,0,0,0,0,0,0,0,0,0,0,0,0,0,0,0,
274,-28.96,-73.66,-10.72,-7.347,-42.52,-39.65,-47.94,0.7132,-32.58,-13.12,-37.45,-56.13,-59.86,-46.78,-65.65,-65.78,0,0,0,0,0,0,0,0,0,0,0,0,0,0,0,0,
275,-42.86,-80.52,-32.4,-22.21,-50.75,-46.43,-60.66,1.171,-12.35,-15.42,-27.25,-45.46,-64.71,-46.56,-47.22,-59.18,0,0,0,0,0,0,0,0,0,0,0,0,0,0,0,0,
276,-27.41,-81.75,-55.21,-30.02,-45.35,-43.64,-78.31,-1.383,-9.563,-20.46,-21.17,-40.09,-79.49,-51.4,-33.09,-52.11,0,0,0,0,0,0,0,0,0,0,0,0,0,0,0,0,
277,-21.31,-103.5,-52.15,-37.11,-41.86,-41.71,-103.4,-12.29,-1.868,-25.19,-10.41,-34.66,-80.31,-45.17,-20.16,-39,0,0,0,0,0,0,0,0,0,0,0,0,0,0,0,0,
278,-30.15,-108.3,-35.12,-35.78,-45.81,-43.1,-94.29,-12.89,5.121,-22.65,-4.932,-34.31,-66.58,-30.58,-19.76,-36.25,0,0,0,0,0,0,0,0,0,0,0,0,0,0,0,0,
279,-33.22,-87.98,-28.38,-20.21,-43.05,-40.64,-67.53,-1.108,-10.71,-14.86,-23.28,-52.56,-66.62,-25.61,-35.73,-42.75,0,0,0,0,0,0,0,0,0,0,0,0,0,0,0,0,
280,-41.76,-84.48,-28,-12.4,-47.77,-47.44,-69.74,4.421,-11.67,-9.042,-37.54,-65,-68.98,-18.17,-27.87,-26.85,0,0,0,0,0,0,0,0,0,0,0,0,0,0,0,0,
281,-66.56,-94.7,-47.06,-29.98,-70.06,-67.94,-85.19,-9.344,-16.99,-10.88,-37.13,-63.62,-62.15,-9.714,-13.69,-14.2,0,0,0,0,0,0,0,0,0,0,0,0,0,0,0,0,
282,-81.32,-91.51,-73.76,-39.78,-72.73,-69.66,-80.32,-20.67,-48.37,-13.7,-35.03,-63.46,-67.57,-19.33,-27.93,-37.13,0,0,0,0,0,0,0,0,0,0,0,0,0,0,0,0,
283,-64.2,-77.16,-50.22,-15.48,-39.9,-37.07,-54.71,-4.806,-31.27,-8.514,-20.27,-50.35,-82.32,-36.71,-34.54,-66.16,0,0,0,0,0,0,0,0,0,0,0,0,0,0,0,0,
284,-24.47,-56.62,-2.344,13.54,2.579,6.295,-19.89,17.44,29.29,2.505,8.538,-18.68,-78.84,-40.36,-12.7,-65.88,0,0,0,0,0,0,0,0,0,0,0,0,0,0,0,0,
285,7.03,-38.1,15.78,18.03,22.89,23.98,-1.659,15.06,37.86,6.535,21.2,-1.931,-56.08,-30.45,4.346,-38.14,0,0,0,0,0,0,0,0,0,0,0,0,0,0,0,0,
286,14.72,-31.5,5.634,5.436,11.65,11.24,-5.78,2.905,21.64,2.251,16.81,1.595,-24.09,-12.8,10.43,-4.063,0,0,0,0,0,0,0,0,0,0,0,0,0,0,0,0,
287,24.21,-20.61,-15.63,-0.3238,0.9732,3.312,-4.453,5.486,33.48,3.806,19.85,18.16,13.23,10.13,28.47,32.49,0,0,0,0,0,0,0,0,0,0,0,0,0,0,0,0,
288,36.45,-6.879,-6.757,-3.91,0.7247,1.525,-8.011,2.072,13.45,4.319,14.6,24.81,35.82,26.87,40.36,59.69,0,0,0,0,0,0,0,0,0,0,0,0,0,0,0,0,
289,27.04,-13.48,3.285,-24.86,-13.01,-13.88,-30.56,-20.84,-23.13,-7.653,-4.71,10.71,30.03,30.18,17,48.1,0,0,0,0,0,0,0,0,0,0,0,0,0,0,0,0,
290,12.02,-29.1,-38.46,-40.08,-36.36,-33.03,-44.64,-37.33,-8.986,-19.48,-4.646,2.848,11.71,23.61,3.559,25.79,0,0,0,0,0,0,0,0,0,0,0,0,0,0,0,0,
291,-0.7384,-37.79,-57.73,-35.49,-55.64,-51.4,-47.08,-38.73,-3.314,-24.69,9.953,1.213,0.6742,10.26,36.38,30.39,0,0,0,0,0,0,0,0,0,0,0,0,0,0,0,0,
292,-14.6,-39.15,-35.25,-33.01,-54.82,-54.02,-46.84,-34.35,-28.15,-26.77,11.88,-4.234,-5.063,-2.442,43.69,25.69,0,0,0,0,0,0,0,0,0,0,0,0,0,0,0,0,
293,-17.15,-39.76,-31.52,-28.19,-32.75,-32.67,-44.34,-32.53,-18.06,-31.05,1.159,-17.71,-23.77,-13.49,-0.4412,-4.032,0,0,0,0,0,0,0,0,0,0,0,0,0,0,0,0,
294,-27.08,-59.17,-26.15,-21.33,-26.72,-26.34,-52.96,-40.86,-0.9833,-41.91,-11.73,-35.8,-42.83,-27.11,-18.8,-16.06,0,0,0,0,0,0,0,0,0,0,0,0,0,0,0,0,
295,-39.92,-80.44,-22.7,-27.89,-34.72,-34.49,-60.09,-46.41,-17.68,-48.34,-21.94,-41.87,-37.91,-34.9,-21.59,-14.8,0,0,0,0,0,0,0,0,0,0,0,0,0,0,0,0,
296,-28.14,-79.4,-36.06,-29.44,-27.9,-26.5,-51.73,-44.17,-19.39,-48.01,-29.65,-41.78,-37.97,-40.89,-49.98,-41.62,0,0,0,0,0,0,0,0,0,0,0,0,0,0,0,0,
297,-22.68,-79.41,-25.61,-12.01,-19.52,-18.21,-43.69,-41.84,7.699,-46.55,-19.24,-35.43,-54.42,-50.57,-44.25,-71,0,0,0,0,0,0,0,0,0,0,0,0,0,0,0,0,
298,-31.16,-79.94,-4.413,5.064,-20.7,-21.04,-37.9,-31.28,6.862,-39.94,3.866,-17.5,-53.31,-46.56,-13.76,-65.65,0,0,0,0,0,0,0,0,0,0,0,0,0,0,0,0,
299,-25.78,-73.91,-3.802,2.928,-25.47,-25.05,-39.28,-24.12,-14.34,-37.51,-1.696,-18.63,-49.68,-36.62,-26.79,-61.69,0,0,0,0,0,0,0,0,0,0,0,0,0,0,0,0,
300,-19.25,-84.38,-10.57,-10.31,-23.78,-21.9,-49.81,-32.53,8.219,-39.9,-12.59,-26.62,-55.96,-38.53,-34.58,-59.56,0,0,0,0,0,0,0,0,0,0,0,0,0,0,0,0,
301,-8.917,-88.63,-7.129,-12.48,-8.793,-7.45,-44.73,-35.37,28.99,-33.76,9.159,-7.487,-41.14,-35.73,-11.38,-25.03,0,0,0,0,0,0,0,0,0,0,0,0,0,0,0,0,
302,11.02,-68.66,5.193,-9.286,-5.303,-4.806,-32.15,-32.43,-12.36,-29.65,17.02,1.806,-23.09,-25.53,-19.64,-12.14,0,0,0,0,0,0,0,0,0,0,0,0,0,0,0,0,
303,5.376,-58.56,0.6844,-12.13,-29.09,-30.12,-37.6,-35.04,-43.33,-29.1,-2.934,-13.21,-23.46,-21.18,-40.98,-31.56,0,0,0,0,0,0,0,0,0,0,0,0,0,0,0,0,
304,-24.76,-54.76,-18.68,-15.1,-60.28,-61.79,-48.69,-32.89,-41.23,-18.13,-9.469,-16.26,-13.39,-13.74,-30.27,-14.44,0,0,0,0,0,0,0,0,0,0,0,0,0,0,0,0,
305,-40.9,-40.51,-33.95,-28.44,-80.27,-78.83,-56.54,-33.21,-54.16,-11.24,-12.18,-14.89,-0.0499,-3.75,-18.89,4.914,0,0,0,0,0,0,0,0,0,0,0,0,0,0,0,0,
306,-42.19,-36.42,-50.53,-46.27,-84.45,-81.49,-67.83,-46.03,-61.05,-20.42,-23.59,-24.06,-9.338,-4.807,-21.92,-12.89,0,0,0,0,0,0,0,0,0,0,0,0,0,0,0,0,
307,-47.7,-43.81,-49.74,-38.57,-77.99,-75.9,-70.92,-50.41,-56.14,-27.89,-22.85,-25.34,-19.05,-11.59,-19.64,-16.82,0,0,0,0,0,0,0,0,0,0,0,0,0,0,0,0,
308,-50.03,-47.29,-24.06,-18.51,-62.04,-60.29,-60.84,-40.22,-45.77,-25.84,-19.96,-23.09,-14.08,-15.04,-18.76,-11.73,0,0,0,0,0,0,0,0,0,0,0,0,0,0,0,0,
309,-49.17,-48.01,-12.07,-14.53,-51.65,-50.85,-55.64,-35.78,-25.01,-24.91,-30.54,-31.33,-7.485,-19.04,-17.46,-21.05,0,0,0,0,0,0,0,0,0,0,0,0,0,0,0,0,
310,-60.64,-43.08,-25.14,-16.75,-68.64,-67.48,-54.68,-31.84,-36.74,-22.16,-30.32,-27.76,1.908,-24.44,-4.076,-16.97,0,0,0,0,0,0,0,0,0,0,0,0,0,0,0,0,
311,-59,-32.86,-29.77,-13.84,-76.97,-74.5,-43.99,-16.58,-56.55,-12.47,-16.29,-10.18,12.52,-20.32,-8.079,-9.001,0,0,0,0,0,0,0,0,0,0,0,0,0,0,0,0,
312,-27.56,-31.7,-10.29,-8.543,-46.3,-45.32,-31.13,-8.464,-35.62,-7.811,-18.74,-11.89,12.3,-5.478,-38.92,-13.44,0,0,0,0,0,0,0,0,0,0,0,0,0,0,0,0,
313,-7.692,-34.13,-5.17,0.5026,-23.26,-24.1,-22.21,-10.15,-29.61,-9.207,-33.45,-27.46,2.916,-1.377,-59.64,-11.33,0,0,0,0,0,0,0,0,0,0,0,0,0,0,0,0,
314,-16.86,-30.17,-21,1.004,-37.69,-39.18,-20.66,-7.961,-50.59,-9.067,-41.56,-35.8,-8.459,-11.52,-66.6,-7.266,0,0,0,0,0,0,0,0,0,0,0,0,0,0,0,0,
315,-32.79,-36.11,-18.97,-16.72,-59.38,-60.16,-34.18,-12.9,-46.4,-10.26,-34.87,-35.43,-7.936,-7.889,-60.86,-7.653,0,0,0,0,0,0,0,0,0,0,0,0,0,0,0,0,
316,-38.87,-49.49,-24.42,-26.44,-64.14,-62.83,-49.74,-30.17,-26.54,-14.4,-10.08,-23.35,1.103,3.241,-32.36,-3.326,0,0,0,0,0,0,0,0,0,0,0,0,0,0,0,0,
317,-36.47,-55.64,-46.64,-22.65,-64.58,-63.58,-62.7,-49.76,-22.36,-28.21,0.2476,-19.4,-18.27,-8.08,-17.42,-8.791,0,0,0,0,0,0,0,0,0,0,0,0,0,0,0,0,
318,-40.33,-63.24,-41.74,-30.49,-67.17,-67.11,-72.23,-64.89,-35.24,-44.57,-11.28,-29.3,-46.89,-17.96,-24.92,-22.96,0,0,0,0,0,0,0,0,0,0,0,0,0,0,0,0,
319,-38.77,-59.27,-29.08,-39.03,-55.44,-54.24,-61.13,-68.78,-33.75,-40.99,-10.17,-26.77,-31.52,-5.758,-24.51,-21.28,0,0,0,0,0,0,0,0,0,0,0,0,0,0,0,0,
320,-22.96,-35.02,-20.04,-35.32,-39.67,-38.01,-47.38,-65.46,-3.121,-31.29,-10.56,-23.85,-2.378,-1.554,-27.07,-14.44,0,0,0,0,0,0,0,0,0,0,0,0,0,0,0,0,
321,-16.16,-20.67,5.63,-23.49,-28.81,-27.54,-40.54,-58.42,1.69,-29.06,-19.3,-27.92,4.308,-2.293,-33.05,-11.96,0,0,0,0,0,0,0,0,0,0,0,0,0,0,0,0,
322,-19.32,-14.54,18.65,1.106,-16.67,-16.48,-20.23,-52.18,-43.05,-23.29,-19.97,-29.17,4.161,3.956,-33.9,-6.946,0,0,0,0,0,0,0,0,0,0,0,0,0,0,0,0,
323,-32,-4.075,6.657,11.75,-22.79,-22.07,-10.67,-56.86,-67.86,-24.44,-32.2,-41.58,-4.428,-8.031,-46.43,-16.33,0,0,0,0,0,0,0,0,0,0,0,0,0,0,0,0,
324,-44.43,-5.799,0.5043,0.6974,-19.29,-15.18,-12.71,-54.71,-36.64,-29.86,-30.19,-38.54,-10.48,-20.46,-47.06,-25.95,0,0,0,0,0,0,0,0,0,0,0,0,0,0,0,0,
325,-21.7,-14.99,18.47,7.393,18.5,21.67,0.8706,-44.16,-2.155,-26.87,5.268,-8.322,-4.143,-11.24,-24.34,-19.97,0,0,0,0,0,0,0,0,0,0,0,0,0,0,0,0,
326,0.3455,-30.66,31.49,16.08,18.85,18.97,-5.508,-51.97,5.181,-34.17,11.03,-5.271,-20.65,-15.99,-23.14,-41.01,0,0,0,0,0,0,0,0,0,0,0,0,0,0,0,0,
327,-18.44,-67.2,5.321,-2.914,-18.7,-16.55,-34.24,-62.05,1.587,-51.27,-11.18,-24.26,-52.19,-33.98,-41.66,-70.56,0,0,0,0,0,0,0,0,0,0,0,0,0,0,0,0,
328,-32.07,-99.29,-11.47,-25.85,-25.75,-22.64,-42.67,-60.65,-13.59,-59.83,-10.9,-25.54,-59.37,-35.15,-43.16,-57.06,0,0,0,0,0,0,0,0,0,0,0,0,0,0,0,0,
329,-20.53,-98.73,9.737,-34.92,-20.86,-20.31,-40.7,-61.2,-9.13,-60.11,-7.024,-21.67,-54.33,-33.04,-37.86,-44.88,0,0,0,0,0,0,0,0,0,0,0,0,0,0,0,0,
330,-7.654,-81.99,14.65,-28.28,-19.1,-19.69,-32.49,-56.48,30.6,-53.98,-20.24,-29.56,-53.64,-34.41,-52.58,-58.56,0,0,0,0,0,0,0,0,0,0,0,0,0,0,0,0,
331,-10.8,-74.15,0.26,-21.8,-14.05,-14.52,-22.56,-55.76,14.84,-48.09,-38.79,-51.52,-51.64,-26.5,-77.82,-60.82,0,0,0,0,0,0,0,0,0,0,0,0,0,0,0,0,
332,-42.62,-75.98,-10.49,-33.87,-39.37,-39.15,-48.37,-68.85,-57.08,-46.31,-53.51,-74.17,-51.86,-17.8,-86.96,-57.62,0,0,0,0,0,0,0,0,0,0,0,0,0,0,0,0,
333,-73.94,-75.58,-27.69,-44.04,-75,-74.39,-82.1,-72.24,-69.3,-43.59,-60.22,-79.24,-55.14,-14.48,-85.8,-60.64,0,0,0,0,0,0,0,0,0,0,0,0,0,0,0,0,
334,-76.45,-69.43,-42.51,-48.53,-75.52,-74.92,-76.9,-67.68,-45.66,-41.35,-62.32,-78.74,-53.32,-8.363,-89.26,-59.31,0,0,0,0,0,0,0,0,0,0,0,0,0,0,0,0,
335,-72.99,-60.41,-38.94,-57.37,-64.5,-61.87,-63.81,-67.24,-55.2,-34.7,-59.9,-81.06,-47.07,-2.412,-84.17,-56.51,0,0,0,0,0,0,0,0,0,0,0,0,0,0,0,0,
336,-72.76,-50.55,-13.58,-46.65,-62.05,-57.69,-60.14,-59.68,-51.74,-22.61,-53.08,-75.79,-44.67,-4.047,-69.42,-57.92,0,0,0,0,0,0,0,0,0,0,0,0,0,0,0,0,
337,-63.96,-43.86,-1.101,-25.91,-52.69,-49.98,-48.37,-51.35,-31.8,-18.85,-46.89,-66.36,-49.06,-10.16,-63.08,-67.67,0,0,0,0,0,0,0,0,0,0,0,0,0,0,0,0,
338,-58.32,-51.02,-31.84,-32.8,-48.36,-47.45,-52.12,-56.2,-36.96,-25.59,-40.21,-62.67,-58.42,-19.32,-63.58,-73.32,0,0,0,0,0,0,0,0,0,0,0,0,0,0,0,0,
339,-63.83,-71.35,-48.81,-48.22,-57.71,-55.6,-68.54,-57.92,-33.48,-28.54,-36.94,-62.19,-60.79,-24.72,-61.09,-61.2,0,0,0,0,0,0,0,0,0,0,0,0,0,0,0,0,
340,-56.22,-71.8,-26.14,-41.79,-53.06,-49.66,-53.69,-43.54,-18.15,-20.79,-41.76,-56.54,-44.61,-16.43,-59.84,-53.34,0,0,0,0,0,0,0,0,0,0,0,0,0,0,0,0,
341,-29.84,-48.29,-13.81,-32.44,-39.6,-37.44,-31.3,-37.39,-45.54,-20.06,-45.08,-45.82,-31.69,-12.35,-59.08,-53.73,0,0,0,0,0,0,0,0,0,0,0,0,0,0,0,0,
342,-16.04,-45.3,-2.953,-29.84,-39.15,-37.5,-32.24,-44.51,-76.63,-31.41,-36.72,-32.53,-36.54,-20.41,-49.53,-40.85,0,0,0,0,0,0,0,0,0,0,0,0,0,0,0,0,
343,-15.79,-59.35,21.69,-21.4,-35.83,-33.71,-31.23,-39.68,-52.46,-33.55,-28.52,-22.78,-36.96,-19.06,-47.32,-32.29,0,0,0,0,0,0,0,0,0,0,0,0,0,0,0,0,
344,-11.36,-57.68,13.12,-27.75,-36.88,-36.05,-34.41,-38.18,-33.54,-32.39,-36.02,-26.82,-33.53,-12.87,-58.9,-39.69,0,0,0,0,0,0,0,0,0,0,0,0,0,0,0,0,
345,-10.21,-46.37,-23.29,-45.72,-54.38,-53.89,-45.73,-48.99,-51.53,-33.51,-44.35,-33.19,-36.37,-9.569,-50.92,-36.32,0,0,0,0,0,0,0,0,0,0,0,0,0,0,0,0,
346,-12.69,-28.95,-25.91,-35.24,-55.33,-54.05,-34.58,-42.97,-53,-21.93,-44,-34.34,-34.3,-2.476,-36.59,-30.58,0,0,0,0,0,0,0,0,0,0,0,0,0,0,0,0,
347,-16.04,-7.563,-5.828,-14.81,-36.7,-35.87,-16.23,-32.56,-44.36,-13.7,-41.3,-35.64,-29.49,-1.929,-47.75,-40.72,0,0,0,0,0,0,0,0,0,0,0,0,0,0,0,0,
348,-15.31,4.813,0.4496,-2.801,-25.54,-24.49,-13.28,-34.87,-37.89,-15.88,-26.73,-23.78,-25.19,-1.133,-51.65,-36.51,0,0,0,0,0,0,0,0,0,0,0,0,0,0,0,0,
349,-0.934,4.366,25.3,9.118,-27.28,-25.93,-22.33,-40.1,-10.64,-17.21,-22.41,-18.55,-32.34,0.0262,-50.66,-27.19,0,0,0,0,0,0,0,0,0,0,0,0,0,0,0,0,
350,-1.43,-19.01,46.26,-10.58,-34.85,-34.85,-42.72,-54.39,-8.375,-29.58,-54.28,-51.29,-66.06,-18.78,-82.05,-56.5,0,0,0,0,0,0,0,0,0,0,0,0,0,0,0,0,
351,-29.39,-46.59,13.21,-30.52,-30.46,-30.9,-46.83,-58.03,-56.09,-37.95,-82.4,-82.3,-83.81,-25.25,-111,-85.02,0,0,0,0,0,0,0,0,0,0,0,0,0,0,0,0,
352,-42.72,-40.33,5.717,3.704,-11.44,-10.66,-22.76,-34.12,-71.87,-23.5,-80.15,-76.83,-59.13,-5.738,-102.2,-70.93,0,0,0,0,0,0,0,0,0,0,0,0,0,0,0,0,
353,-23.69,-19.53,46.43,24.5,5.624,6.271,-6.801,-19.53,-32.5,-16.47,-61.64,-54.05,-43.44,-7.939,-72.1,-49.52,0,0,0,0,0,0,0,0,0,0,0,0,0,0,0,0,
354,4.584,-15.75,51.53,0.4612,11.19,10.37,-14.35,-27.82,-18.06,-28.06,-36.37,-30.58,-48.83,-22.64,-44.29,-37.51,0,0,0,0,0,0,0,0,0,0,0,0,0,0,0,0,
355,20.84,-21.72,46.08,-6.038,3.687,3.905,-24.96,-36.42,-27.32,-33.95,-20.12,-10.91,-32.49,-13.11,-34.04,-25.32,0,0,0,0,0,0,0,0,0,0,0,0,0,0,0,0,
356,30.51,-19.17,56.8,8.14,7.328,9.089,-8.208,-29.63,-4.792,-23.89,-9.516,10.19,3.574,5.918,-22.13,-11.52,0,0,0,0,0,0,0,0,0,0,0,0,0,0,0,0,
357,48.62,3.441,48.35,23.38,33.53,33.28,31.04,-7.367,11.46,-8.195,9.45,34.53,23.32,14,6.051,5.302,0,0,0,0,0,0,0,0,0,0,0,0,0,0,0,0,
358,68.53,26.65,43.58,39.1,52.9,51.79,44.96,4.026,17.31,-2.44,24.33,52.68,19.7,4.538,20.91,4.734,0,0,0,0,0,0,0,0,0,0,0,0,0,0,0,0,
359,84.79,27.55,46.78,36.48,55.09,55.88,31.8,-1.43,54.74,-4.515,29.34,60.96,12.99,-9.163,13.71,-11.01,0,0,0,0,0,0,0,0,0,0,0,0,0,0,0,0,
360,87.11,23.97,46.99,22.99,42.89,43.46,24.16,1.002,57.83,-3.618,28.5,53.93,10.24,-5.821,2.832,-12.53,0,0,0,0,0,0,0,0,0,0,0,0,0,0,0,0,
361,64.62,27.94,48.71,16.7,24.09,23.43,13.24,3.306,13.11,-2.586,23.21,38.04,4.602,0.0351,-6.353,-12.79,0,0,0,0,0,0,0,0,0,0,0,0,0,0,0,0,
362,41.24,27.32,19.04,1.3,14.69,13.9,-7.841,-8.62,-4.028,-2.774,10.84,22.41,1.826,-0.4719,-19.26,-22.33,0,0,0,0,0,0,0,0,0,0,0,0,0,0,0,0,
363,23.03,24.48,1.197,-17.99,6.437,6.316,-15.38,-13.18,-6.88,-1.151,-12.97,-2.025,2.748,5.249,-40.52,-25.74,0,0,0,0,0,0,0,0,0,0,0,0,0,0,0,0,
364,2.312,25.26,43.14,-6.914,5.753,6.476,-9.444,-4.181,-5.903,-5.197,-24.9,-22.04,-7.854,1.687,-51.49,-26.17,0,0,0,0,0,0,0,0,0,0,0,0,0,0,0,0,
365,-12.01,18.71,45.91,14.77,9.861,9.348,-17.94,-8.016,0.6195,-19.55,-19.22,-25.92,-27.12,-14.74,-40.62,-27.28,0,0,0,0,0,0,0,0,0,0,0,0,0,0,0,0,
366,-36.35,1.319,-5.86,3.841,-9.278,-10.41,-34.34,-23.78,-9.827,-29.96,-23.72,-28.13,-33.75,-17.77,-30.26,-30.12,0,0,0,0,0,0,0,0,0,0,0,0,0,0,0,0,
367,-52.65,-11.32,-7.079,-12.09,-15.63,-15.49,-26.74,-26.37,14.1,-30.69,-20.44,-17.75,-25.2,-12.41,-18.07,-32.01,0,0,0,0,0,0,0,0,0,0,0,0,0,0,0,0,
368,-21.07,-11.88,12.52,-3.156,6.906,5.595,-3.308,-22.79,49.05,-34.78,11.68,12.83,-15.53,-14.1,11.32,-22.45,0,0,0,0,0,0,0,0,0,0,0,0,0,0,0,0,
369,19.61,-7.896,0.1385,6.016,10.72,8.329,13.86,-21.68,21.09,-37.49,37.37,36.74,-11.95,-17.28,29.96,-15.83,0,0,0,0,0,0,0,0,0,0,0,0,0,0,0,0,
370,35.81,-10.43,6.276,10.96,1.312,1.537,14.3,-16.93,1.569,-37.17,35.18,39.64,-16.13,-23.08,21.88,-18.3,0,0,0,0,0,0,0,0,0,0,0,0,0,0,0,0,
371,42.18,-21.54,9.019,12.49,-6.814,-5.936,-9.048,-25.32,14.14,-48.78,29.17,34.29,-22.64,-27.31,16.27,-14.65,0,0,0,0,0,0,0,0,0,0,0,0,0,0,0,0,
372,41.75,-22.47,-11.17,2.804,-7.706,-8.97,-22.67,-37.31,8.385,-52.54,35.54,33.67,-22.01,-20.46,17.96,-12.39,0,0,0,0,0,0,0,0,0,0,0,0,0,0,0,0,
373,41.72,-7.474,26.53,7.427,20.87,19.17,-4.255,-21.83,12.83,-29.94,33.28,28.76,-10.08,-7.156,8.042,-6.223,0,0,0,0,0,0,0,0,0,0,0,0,0,0,0,0,
374,44.06,13.47,73.78,28.15,39.94,39.05,14.61,1.701,15.94,-7.733,12.16,10.8,10.61,9.383,-4.399,13.14,0,0,0,0,0,0,0,0,0,0,0,0,0,0,0,0,
375,37.58,40.41,45.49,43.9,25.27,23.85,26.04,17.57,7.746,-2.198,-7.54,-10.59,19.68,16.28,-13.58,15.76,0,0,0,0,0,0,0,0,0,0,0,0,0,0,0,0,
376,22.88,53.16,27.96,56.79,16.86,15.57,37,32.53,20.59,-1.111,-16.21,-21.39,18.33,11.8,-14.91,10.29,0,0,0,0,0,0,0,0,0,0,0,0,0,0,0,0,
377,16.01,49.99,34.26,51.63,18.18,19.69,41.17,30.53,7.216,6.332,-5.559,-5.254,38.27,24.2,9.104,30.25,0,0,0,0,0,0,0,0,0,0,0,0,0,0,0,0,
378,32.85,60.92,12.08,33.37,27.07,29.88,49.85,22.59,-16.39,14.52,19.55,19.35,53.3,38.75,23.42,39.5,0,0,0,0,0,0,0,0,0,0,0,0,0,0,0,0,
379,46.41,64.94,46.02,51.47,58.61,59.54,66.5,36.97,20.32,15.44,32.13,21.33,33.36,29.18,7.02,20.57,0,0,0,0,0,0,0,0,0,0,0,0,0,0,0,0,
380,37.91,51.64,118.5,95.72,91.2,89.91,78.79,52.49,48.04,15.37,35.32,20.81,15.11,17.82,6.421,9.5,0,0,0,0,0,0,0,0,0,0,0,0,0,0,0,0,
381,27.83,42.03,108.8,106.5,94.5,90.81,72.86,46.63,29.75,7.54,28.67,17.63,-2.095,3.308,5.392,-7.655,0,0,0,0,0,0,0,0,0,0,0,0,0,0,0,0,
382,-0.0482,12.13,69.4,86.62,68.34,64.08,51.81,37.52,34.71,-6.845,8.483,-3.433,-24.65,-14.1,-19.46,-29.33,0,0,0,0,0,0,0,0,0,0,0,0,0,0,0,0,
383,-27.74,-12.4,69.99,79.37,46.39,44.93,53.1,36.87,43.68,-0.378,10.35,-4.203,-19.3,-7.771,-15.04,-13.72,0,0,0,0,0,0,0,0,0,0,0,0,0,0,0,0,
384,0.3515,12.31,67.77,83.18,54.06,54.46,77.19,35.17,23.36,15.1,28.71,15.96,-11.79,-3.936,9.233,3.666,0,0,0,0,0,0,0,0,0,0,0,0,0,0,0,0,
385,38.55,25.85,56.04,82.44,70.09,69.92,82.3,32.05,20.01,16.69,31.93,23.5,-16.43,-14.93,11.39,-2.373,0,0,0,0,0,0,0,0,0,0,0,0,0,0,0,0,
386,44.4,5.966,59.69,85.86,69.93,68.42,65.49,30.83,34.68,15.9,28.47,24.44,-8.401,-15.05,8.295,5.911,0,0,0,0,0,0,0,0,0,0,0,0,0,0,0,0,
387,51.88,-3.302,66.57,79.41,54.2,51.1,40.52,25.68,29.16,10.76,18.75,20.97,-18.33,-24.06,5.255,7.183,0,0,0,0,0,0,0,0,0,0,0,0,0,0,0,0,
388,54.85,-18.07,51.35,53.09,37.56,34.96,16.13,17.38,16.1,3.88,11.7,18.11,-36.14,-36.82,6.37,-7.317,0,0,0,0,0,0,0,0,0,0,0,0,0,0,0,0,
389,43.84,-38.45,18.82,41.26,31.5,31.59,7.4,10.77,19.53,9.466,19.19,21.18,-19.48,-21.86,15.41,-1.113,0,0,0,0,0,0,0,0,0,0,0,0,0,0,0,0,
390,39.79,-26.43,14,49.36,25.69,25.82,7.574,8.063,22.87,13.81,16.83,11.72,-10.55,-9.389,9.224,-3.227,0,0,0,0,0,0,0,0,0,0,0,0,0,0,0,0,
391,30.14,-8.658,37.73,46.09,10.43,7.495,-1.567,10.47,5.896,10.88,6.074,-1.919,-27.36,-13.85,0.2191,-20.07,0,0,0,0,0,0,0,0,0,0,0,0,0,0,0,0,
392,4.601,-19.54,29.1,30.22,-4.648,-7.25,-18.22,11.36,-1.735,10.17,-3.146,-11.5,-32.18,-10.54,-2.094,-14.97,0,0,0,0,0,0,0,0,0,0,0,0,0,0,0,0,
393,-20.2,-28.17,-4.236,20.32,-5.817,-5.025,-24.07,9.956,12.97,7.83,-26.35,-34.02,-32.57,-11.22,-21.29,-15.88,0,0,0,0,0,0,0,0,0,0,0,0,0,0,0,0,
394,-41.05,-18.36,2.33,24.71,5.565,6.319,-11.74,12.92,2.865,4.592,-49.42,-56.99,-40.61,-20.64,-37.71,-28.49,0,0,0,0,0,0,0,0,0,0,0,0,0,0,0,0,
395,-52.54,-7.957,32.18,42.69,19.39,19.24,13.71,21.66,-18.77,11.9,-53.37,-60.37,-36.74,-12.34,-33.16,-20.36,0,0,0,0,0,0,0,0,0,0,0,0,0,0,0,0,
396,-40.34,16.65,41.62,63.46,36.21,36.83,47.71,33.76,-9.919,26.67,-52.71,-55.19,-17.79,3.344,-36.45,-14.05,0,0,0,0,0,0,0,0,0,0,0,0,0,0,0,0,
397,-28.13,46.56,47.16,67.06,41.68,40.7,60.91,39.2,-1.893,29.15,-51.59,-48.57,2.722,3.949,-35.82,-10.97,0,0,0,0,0,0,0,0,0,0,0,0,0,0,0,0,
398,-36.46,46.32,48.34,55.11,28.22,25.59,44.79,42.94,6.54,24.51,-27.05,-21.82,20.93,12.5,4.98,17.83,0,0,0,0,0,0,0,0,0,0,0,0,0,0,0,0,
399,-34.67,46.86,41.72,55.42,24.99,23.17,42.36,55.54,24.75,30.74,11.67,16.49,30.06,31.79,48.02,41.67,0,0,0,0,0,0,0,0,0,0,0,0,0,0,0,0,
400,-24.58,61.46,51.64,64.09,25.52,24.66,54.3,56.96,20,31.96,23.73,30.44,24.62,30.49,57.39,43.82,0,0,0,0,0,0,0,0,0,0,0,0,0,0,0,0,
401,-22.84,53.22,49.34,64.59,18.42,18.94,59.73,49,32.44,26.12,27.22,39.91,29.49,27.61,73.58,60.86,0,0,0,0,0,0,0,0,0,0,0,0,0,0,0,0,
402,-2.465,42.44,25.39,69.22,27.02,27.16,60.79,48.68,54.8,26.87,41.83,59.89,49.48,37.78,91.71,79.53,0,0,0,0,0,0,0,0,0,0,0,0,0,0,0,0,
403,14.52,42,30.98,64.62,28.89,27.29,39.53,37.05,15.23,18.8,27.82,52.7,54.2,31.5,73.04,67.46,0,0,0,0,0,0,0,0,0,0,0,0,0,0,0,0,
404,6.348,36.69,53.22,42.88,23.61,23.27,18.68,23.34,-12.73,11.37,6.111,38.16,55.37,29.89,56.37,58.89,0,0,0,0,0,0,0,0,0,0,0,0,0,0,0,0,
405,21.15,52.37,60.12,41.23,48.9,49.64,32.52,27.38,20.19,20.71,15.51,40.62,63.87,51.09,53.22,66.73,0,0,0,0,0,0,0,0,0,0,0,0,0,0,0,0,
406,47.04,73.77,65.99,57.76,63.53,63.59,44.15,29.04,36.07,25.12,20.87,26.42,51.49,51.01,30.43,49.15,0,0,0,0,0,0,0,0,0,0,0,0,0,0,0,0,
407,45.43,62.73,63.65,65.38,47.38,47.96,45.55,31.1,40.2,25.2,12.55,3.955,28.64,31.52,8.054,14.1,0,0,0,0,0,0,0,0,0,0,0,0,0,0,0,0,
408,37.81,45.7,52.78,66.33,46.67,46.52,49.45,36.56,53.16,25.84,-1.245,-12.93,13.89,23.93,-12.69,-2.182,0,0,0,0,0,0,0,0,0,0,0,0,0,0,0,0,
409,24.42,36.12,58.15,54.42,49.92,48.1,29.72,26.1,39.54,12.55,-23.28,-34.69,-1.931,13.25,-35.9,-2.876,0,0,0,0,0,0,0,0,0,0,0,0,0,0,0,0,
410,3.575,18.83,61.86,32.13,40.91,40.21,10.54,18.17,24.58,2.041,-18.35,-33.69,-9.815,-4.343,-23.9,-4.386,0,0,0,0,0,0,0,0,0,0,0,0,0,0,0,0,
411,5.576,10.63,37.54,29.71,48.96,48.91,27.6,29.57,45.27,9.2,12.21,-6.861,-10.8,-9.561,3.05,-14.07,0,0,0,0,0,0,0,0,0,0,0,0,0,0,0,0,
412,22.89,21.09,24.63,47.84,63.66,61.45,50.01,40.26,69.3,16.22,27.98,14.1,-12.35,-4.831,17.19,-10.49,0,0,0,0,0,0,0,0,0,0,0,0,0,0,0,0,
413,27.15,28.09,38.55,50.39,51.98,50.02,53.92,38.87,42.2,13.98,30.13,26.46,3.607,-0.1437,35.6,18.54,0,0,0,0,0,0,0,0,0,0,0,0,0,0,0,0,
414,24.11,28.63,17.76,30.31,33.96,35.14,50.83,35.44,-4.133,10.26,28.02,32.67,20.66,2.208,37.27,28.6,0,0,0,0,0,0,0,0,0,0,0,0,0,0,0,0,
415,29.16,33.72,-3.64,18.77,36.38,37.38,44.78,37.45,3.19,6.194,25.81,35.67,8.023,0.5327,29.11,16.63,0,0,0,0,0,0,0,0,0,0,0,0,0,0,0,0,
416,36.96,28.95,30.78,17.73,34.47,33.89,30.92,33.78,15.22,0.0293,30.07,45.07,-0.8029,0.9629,46.01,26.25,0,0,0,0,0,0,0,0,0,0,0,0,0,0,0,0,
417,47.33,21,21.41,10.85,24.44,24.5,15.99,25.73,0.0131,5.412,26.84,51,21.16,10.74,41.66,36.1,0,0,0,0,0,0,0,0,0,0,0,0,0,0,0,0,
418,54.79,35.95,-23.5,4.952,25.58,24.64,3.801,26.53,23.98,19.88,7.914,38.29,35.84,17.9,6.562,26.88,0,0,0,0,0,0,0,0,0,0,0,0,0,0,0,0,
419,29.05,50.17,1.939,-3.076,9.61,7.655,-13.19,26.98,34.26,22.29,-12.34,14.18,28.64,17.81,3.112,25.31,0,0,0,0,0,0,0,0,0,0,0,0,0,0,0,0,
420,-9.292,47.03,7.013,-8.589,-19.39,-20.32,-21.99,30.41,-20.79,23.29,-23.92,-4.538,19.67,21.93,0.9611,15.33,0,0,0,0,0,0,0,0,0,0,0,0,0,0,0,0,
421,-19.01,40.93,-29.35,6.984,-19,-20.13,-11.97,43.63,-45.1,26.79,-32.23,-18.15,2.945,17.58,-37.38,-11.96,0,0,0,0,0,0,0,0,0,0,0,0,0,0,0,0,
422,-21.44,29.26,-1.313,29.44,-3.182,-2.958,3.455,48.34,-26.12,18.48,-34.86,-26.45,-10.96,4.854,-45.04,-11.86,0,0,0,0,0,0,0,0,0,0,0,0,0,0,0,0,
423,-20.77,26.88,25.62,48.55,10.26,12.13,19.68,50.59,-18.19,17.54,-25.36,-25.01,-7.568,8.987,-17.01,6.245,0,0,0,0,0,0,0,0,0,0,0,0,0,0,0,0,
424,-12.23,28.82,22,61.56,22.13,21.78,26.35,56.68,-2.587,23.97,-23.05,-31.86,-21.64,10.84,-19.48,-6.621,0,0,0,0,0,0,0,0,0,0,0,0,0,0,0,0,
425,-26.56,3.691,50.08,53.07,23.31,22.39,16.81,44.67,3.321,13.95,-38.9,-49.67,-50.03,-2.417,-36.9,-30.23,0,0,0,0,0,0,0,0,0,0,0,0,0,0,0,0,
426,-43.48,-15.26,55.66,45.76,22.92,22.42,13.56,24.3,-14.66,2.498,-53.53,-54.53,-48.7,-1.03,-37.63,-33.32,0,0,0,0,0,0,0,0,0,0,0,0,0,0,0,0,
427,-33.62,-5.033,41.95,60.33,27.22,24.23,26.86,27.23,2.569,5.006,-49.99,-39.83,-27.99,8.1,-31.18,-29.24,0,0,0,0,0,0,0,0,0,0,0,0,0,0,0,0,
428,-11.44,7.942,67.05,74.2,38.09,34.45,50.51,51.7,36.44,14.38,-25.71,-12.02,-13.42,8.941,-12.89,-18.54,0,0,0,0,0,0,0,0,0,0,0,0,0,0,0,0,
429,15.12,20.36,78.16,76.69,50.04,47.67,65.62,64.23,20.3,17.23,-5.365,11.66,-8.64,7.833,6.755,-8.303,0,0,0,0,0,0,0,0,0,0,0,0,0,0,0,0,
430,26.99,16.81,52.74,64.86,31.53,30.27,48.08,49.91,-13.22,3.249,-7.928,18.78,-9.289,-3.925,17.72,-7.845,0,0,0,0,0,0,0,0,0,0,0,0,0,0,0,0,
431,17.84,-1.591,26,32.41,-8.088,-7.721,16.21,33.76,-28.96,-6.577,-15.37,18.48,2.837,-11.83,28.2,8.093,0,0,0,0,0,0,0,0,0,0,0,0,0,0,0,0,
432,4.587,2.583,-13.75,-3.891,-36.64,-36.92,-9.551,24.95,-39.44,2.391,-21.4,11.19,22.1,4.515,20.98,18.04,0,0,0,0,0,0,0,0,0,0,0,0,0,0,0,0,
433,-12.13,14.14,-63.72,-23.27,-58.32,-59.82,-33.67,14.6,-28.18,11.41,-19.65,6.864,30.67,21.28,14.9,-0.0335,0,0,0,0,0,0,0,0,0,0,0,0,0,0,0,0,
434,-12.05,16.33,-76.16,-27.19,-66.24,-66.15,-40.45,9.588,-13.03,13.04,-3.537,12.37,33.67,26.29,32.99,3.751,0,0,0,0,0,0,0,0,0,0,0,0,0,0,0,0,
435,-0.4256,23.49,-56.96,-29.25,-55.25,-54.36,-30.95,5.406,-17.28,8.088,-7.992,-4.151,20.64,20.09,13.25,2.787,0,0,0,0,0,0,0,0,0,0,0,0,0,0,0,0,
436,-17.9,15.99,-68.28,-28.64,-49.11,-50.09,-31.2,1.023,0.0791,-1.814,-36.86,-39.9,-13.09,-6.829,-48.35,-48.55,0,0,0,0,0,0,0,0,0,0,0,0,0,0,0,0,
437,-38.65,-6.982,-89.99,-20.99,-54.07,-55.98,-35.5,11.66,7.735,-2.886,-54.91,-59.67,-36.36,-26.21,-68.45,-67.34,0,0,0,0,0,0,0,0,0,0,0,0,0,0,0,0,
438,-41.96,-16.51,-60.59,-13.29,-51.39,-52.11,-30.11,29.6,-33.07,4.98,-61.94,-66.93,-42.35,-18.51,-51.42,-40.07,0,0,0,0,0,0,0,0,0,0,0,0,0,0,0,0,
439,-58.64,-22.53,-19.12,-2.108,-34.55,-35.26,-26.16,35.84,-45.47,5.149,-64.41,-70.41,-55,-23.51,-53.74,-55.18,0,0,0,0,0,0,0,0,0,0,0,0,0,0,0,0,
440,-72.71,-38.29,-9.355,7.448,-27.02,-28.47,-29.95,28.03,-26.08,-6.061,-58.43,-65.19,-68.88,-46,-62.93,-80.14,0,0,0,0,0,0,0,0,0,0,0,0,0,0,0,0,
441,-61.69,-46.27,-5.7,5.041,-29.53,-30.14,-26.33,24.08,-26.37,-13.04,-46.67,-51.34,-57.83,-42.21,-49.54,-53.77,0,0,0,0,0,0,0,0,0,0,0,0,0,0,0,0,
442,-46.16,-34.86,12.5,15.09,-13.6,-14.92,-11.94,37.91,-12.85,-8.189,-32.43,-33.11,-33.75,-20.59,-27.66,-24.37,0,0,0,0,0,0,0,0,0,0,0,0,0,0,0,0,
443,-33.42,-11.57,39.27,44.61,3.666,0.8711,-0.3266,52.87,1.802,0.1604,-19.86,-17.75,-21.57,-14.88,-9.791,-17.15,0,0,0,0,0,0,0,0,0,0,0,0,0,0,0,0,
444,-23.53,7.032,49.25,58.76,0.1804,-1.5,8.871,55.28,-9.66,7.769,-8.749,-5.126,-11.33,-17.37,11.3,-4.376,0,0,0,0,0,0,0,0,0,0,0,0,0,0,0,0,
445,-24.79,6.171,41.75,47.99,-10.44,-12.17,10.32,43,-0.3653,5.117,-5.307,5.445,0.8756,-18.65,24.89,5.652,0,0,0,0,0,0,0,0,0,0,0,0,0,0,0,0,
446,-20.71,-1.966,33.72,36.03,-23.72,-26.42,0.9909,16.92,14.16,-7.554,0.4673,23.5,17.34,-15.54,40.73,15.12,0,0,0,0,0,0,0,0,0,0,0,0,0,0,0,0,
447,-0.518,11.17,8.65,30.43,-29.31,-31.22,2.786,1.659,-10.44,-5.355,23.29,50.91,55.1,2.213,71.24,40.99,0,0,0,0,0,0,0,0,0,0,0,0,0,0,0,0,
448,2.321,39.32,-13.45,13.49,-27.87,-29.23,10.37,1.244,-45.54,5.943,18.89,48.61,85.63,17.31,64.47,51.18,0,0,0,0,0,0,0,0,0,0,0,0,0,0,0,0,
449,-19.6,56.19,-6.779,-11.42,-39.03,-38.54,6.287,-9.637,-69.32,4.765,-16.95,24.08,83.02,16.47,29.8,40.32,0,0,0,0,0,0,0,0,0,0,0,0,0,0,0,0,
450,-30.93,55.97,-15.63,-23.16,-49.24,-46.4,-2.206,-23.41,-79.66,5.3,-22.37,27.49,74.54,21.37,36.11,40.86,0,0,0,0,0,0,0,0,0,0,0,0,0,0,0,0,
451,-36.5,40.48,-49.48,-29.19,-51.78,-50.49,-18.73,-25.22,-69.71,13.16,-17.26,30.12,63.02,33.33,39.34,32.13,0,0,0,0,0,0,0,0,0,0,0,0,0,0,0,0,
452,-54.14,17.28,-72.56,-36.29,-58.65,-59.78,-39.36,-25.71,-58.76,12.19,-29.84,1.801,37.82,28.93,8.401,7.332,0,0,0,0,0,0,0,0,0,0,0,0,0,0,0,0,
453,-69.41,-3.75,-80.33,-38.92,-58.89,-59.88,-49.31,-25.82,-44.86,4.629,-22.71,-20.18,12.03,9.713,-1.85,-4.497,0,0,0,0,0,0,0,0,0,0,0,0,0,0,0,0,
454,-72.1,-16.7,-71.52,-36.55,-46.2,-46.12,-45.38,-11.91,-6.396,4.347,-7.069,-22.61,-11.61,-1.129,-10.67,-16.42,0,0,0,0,0,0,0,0,0,0,0,0,0,0,0,0,
455,-56.07,-12.6,-40.73,-15.73,-24.9,-24.45,-18.45,11.49,15.62,9.96,-7.987,-20.54,-27.79,-3.891,-37.64,-35.16,0,0,0,0,0,0,0,0,0,0,0,0,0,0,0,0,
456,-31.35,-5.805,-6.162,10.63,-4.086,-4.711,11.22,24.69,4.256,8.831,-6.686,-15.47,-29.99,-16.38,-39.34,-45.11,0,0,0,0,0,0,0,0,0,0,0,0,0,0,0,0,
457,-13.52,-11.05,4.518,17.77,7.906,5.866,15.3,30.95,24.42,4.095,4.543,1.994,-28.97,-25.07,-18.68,-43.7,0,0,0,0,0,0,0,0,0,0,0,0,0,0,0,0,
458,13.57,-15.26,4.335,24.64,21.2,18.88,15.3,34,52.81,-0.4702,19.14,28.45,-30.32,-19.69,-0.2887,-31.97,0,0,0,0,0,0,0,0,0,0,0,0,0,0,0,0,
459,36.41,-23.26,25.59,32.13,31.19,29.4,18.02,19.22,21.49,-13.32,24.8,36.17,-30.29,-21.59,5.096,-31.75,0,0,0,0,0,0,0,0,0,0,0,0,0,0,0,0,
460,27.87,-30.47,43.46,27.9,26.1,24.04,6.958,2.528,-5.663,-21.35,15.93,27.48,-20.22,-22.93,2.947,-35.53,0,0,0,0,0,0,0,0,0,0,0,0,0,0,0,0,
461,13.58,-15.25,26.54,24.05,10.15,6.889,-9.472,-2.683,-0.5351,-16.22,2.503,22.57,-2.412,-12.77,15.54,-14.4,0,0,0,0,0,0,0,0,0,0,0,0,0,0,0,0,
462,1.942,-0.0261,-6.089,12.33,-17.33,-19.94,-24.45,-14.32,-32.95,-13.01,-16.1,10.59,9.845,-7.789,10.74,-7.323,0,0,0,0,0,0,0,0,0,0,0,0,0,0,0,0,
463,-22.3,0.5678,-23.41,-3.344,-42.8,-43.65,-38.18,-25.71,-62.56,-9.004,-34.09,-1.861,22.8,3.484,-23.16,-18.4,0,0,0,0,0,0,0,0,0,0,0,0,0,0,0,0,
464,-46.47,-0.657,-19.15,-9.145,-55.37,-56.37,-51.58,-30.39,-44.24,-3.524,-38.06,-3.089,30,16.09,-19.32,-3.437,0,0,0,0,0,0,0,0,0,0,0,0,0,0,0,0,
465,-62.55,-7.136,-31.54,-20.61,-69.72,-71.03,-64.15,-36.8,-49.15,-5.913,-37.28,-12.54,11.77,-2.389,6.32,1.22,0,0,0,0,0,0,0,0,0,0,0,0,0,0,0,0,
466,-74.15,-6.501,-62.02,-31.34,-83.7,-84.26,-67.42,-36.52,-76.39,-7.933,-45.92,-30.24,-6.086,-18.66,-9.141,-18.68,0,0,0,0,0,0,0,0,0,0,0,0,0,0,0,0,
467,-87.17,4.192,-55.75,-36.64,-90.42,-90.66,-65.18,-33.42,-67.29,-6.836,-62.11,-44.54,-3.543,-2.5,-29.16,-19.88,0,0,0,0,0,0,0,0,0,0,0,0,0,0,0,0,
468,-97.19,-1.48,-28.75,-41.55,-89.36,-90.16,-55.82,-31.48,-53.15,-10.17,-69.39,-54.37,-9.927,-0.7551,-27.32,-22.14,0,0,0,0,0,0,0,0,0,0,0,0,0,0,0,0,
469,-83.99,-21.33,-23.41,-25.02,-72.54,-74.56,-37.39,-27.4,-67.16,-21.54,-57.3,-46.49,-28.33,-25.16,-30.6,-38.25,0,0,0,0,0,0,0,0,0,0,0,0,0,0,0,0,
470,-61.26,-38.3,-30.89,-12.12,-55.12,-56.89,-34.37,-36.55,-79.04,-37.47,-38.32,-20.32,-27.19,-30.81,-19.41,-33.98,0,0,0,0,0,0,0,0,0,0,0,0,0,0,0,0,
471,-51.05,-40.28,-43.17,-32.5,-58.74,-58.5,-47.69,-50.12,-76.2,-44.54,-25.03,2.552,-7.997,-13.98,12.24,-13.1,0,0,0,0,0,0,0,0,0,0,0,0,0,0,0,0,
472,-40.48,-22.39,-56.79,-45.47,-73.79,-73.31,-55.36,-45.05,-72.9,-40.42,-15.92,14.49,10.31,4.267,20.88,6.263,0,0,0,0,0,0,0,0,0,0,0,0,0,0,0,0,
473,-27.79,-4.157,-78.32,-42.06,-76.86,-77.82,-55.91,-31.72,-61.86,-29.55,-4.775,22.65,29.81,23.43,16.52,23.68,0,0,0,0,0,0,0,0,0,0,0,0,0,0,0,0,
474,-21.08,7.606,-90.84,-47,-67.54,-68.24,-52.95,-26.1,-45.32,-15.27,5.497,26.35,40.72,29.94,31.04,30.5,0,0,0,0,0,0,0,0,0,0,0,0,0,0,0,0,
475,-18.35,17.46,-59.61,-48.01,-69.24,-67.83,-52.39,-29.39,-52.33,-9.748,2.524,19.77,31.62,16.02,32.52,23.35,0,0,0,0,0,0,0,0,0,0,0,0,0,0,0,0,
476,-23.68,18.39,-35.15,-44.3,-74.1,-72.06,-53.87,-30.69,-62.17,-6.568,-9.327,7.91,29.22,12.01,3.407,18.04,0,0,0,0,0,0,0,0,0,0,0,0,0,0,0,0,
477,-35.44,19.77,-52.06,-46.8,-61.69,-61.69,-48.8,-21.43,-43.35,5.791,-15.29,-1.573,37.63,19.58,-15.31,17.36,0,0,0,0,0,0,0,0,0,0,0,0,0,0,0,0,
478,-51.07,23.16,-62.82,-37.91,-52.46,-54.63,-46.4,-7.73,-39.21,15.07,-14.91,-10.25,30.05,11.85,-14.02,4.759,0,0,0,0,0,0,0,0,0,0,0,0,0,0,0,0,
479,-68.66,17.68,-55.64,-13.23,-48.38,-51.33,-44.26,8.951,-45.22,20.06,-16.38,-18.36,20.43,3.058,-19.52,-14.43,0,0,0,0,0,0,0,0,0,0,0,0,0,0,0,0,
480,-64.1,22.14,-25.04,7.819,-22.29,-24.44,-19.86,26.3,-0.0145,26.89,-19.44,-16.78,18.35,4.432,-25.8,-27.05,0,0,0,0,0,0,0,0,0,0,0,0,0,0,0,0,
481,-29.18,33.07,23.36,28.71,12.48,11.11,14.25,36.68,31.07,24.28,-13.84,-7.29,-5.666,-8.07,-22.5,-43.85,0,0,0,0,0,0,0,0,0,0,0,0,0,0,0,0,
482,-5.367,10.99,40.31,52.75,26.84,24.03,24.91,40.48,-12.07,9.983,-8.248,-8.909,-38.93,-28.12,-23.77,-57.51,0,0,0,0,0,0,0,0,0,0,0,0,0,0,0,0,
483,-10.37,-19.57,30.73,59.59,28.04,24.31,24.02,42.05,-32.98,5.823,-14.83,-14.51,-33.96,-22.48,-22.44,-45.04,0,0,0,0,0,0,0,0,0,0,0,0,0,0,0,0,
484,-11.19,-6.658,27.06,53.7,25.91,22.72,31.05,44.74,-14.94,21.53,-20,-12.42,-6.866,-0.221,-13.62,-22.79,0,0,0,0,0,0,0,0,0,0,0,0,0,0,0,0,
485,-18.57,8.117,31.6,41.88,-0.485,-3.353,10.5,33.34,-33.79,25.99,-31.35,-32.17,-14.73,-0.8089,-26.33,-21.62,0,0,0,0,0,0,0,0,0,0,0,0,0,0,0,0,
486,-52.84,-16.46,27.19,16.79,-36.66,-37.95,-35.84,3.583,-47.19,9.336,-50.31,-58.41,-40.28,-13.76,-47.11,-29.06,0,0,0,0,0,0,0,0,0,0,0,0,0,0,0,0,
487,-63.18,-28.74,-7.576,4.697,-37.36,-38.3,-49.48,-11.74,-30.64,4.696,-40.82,-40.54,-32.2,-4.044,-34.52,-16.76,0,0,0,0,0,0,0,0,0,0,0,0,0,0,0,0,
488,-41.58,-14.48,-34.46,2.695,-28.73,-30.93,-46.62,-12.56,-29.95,7.986,-18.89,-10.73,-12.65,5.92,-13.23,-5.267,0,0,0,0,0,0,0,0,0,0,0,0,0,0,0,0,
489,-29.61,-5.699,-24.92,-14.96,-35.89,-36.85,-53.02,-13.3,-15.17,7.613,-18.18,-5.585,-4.614,0.1593,-16.74,-19.04,0,0,0,0,0,0,0,0,0,0,0,0,0,0,0,0,
490,-17.9,13.64,-22.79,-13.06,-31.91,-32.69,-37.21,1.941,-4.963,22.32,-20.53,-6.264,9.168,4.413,-23.11,-27.58,0,0,0,0,0,0,0,0,0,0,0,0,0,0,0,0,
491,-18.85,37.04,-28.57,9.336,-32.43,-34.17,-22.77,15.49,-48.96,34.87,-22.34,-12.63,11.54,7.354,-21.25,-21.91,0,0,0,0,0,0,0,0,0,0,0,0,0,0,0,0,
492,-39.37,34.71,-8.806,13.58,-33.02,-33.22,-27.12,11.09,-61.49,27.89,-30.82,-22.16,-5.32,-1.137,-31.38,-30.61,0,0,0,0,0,0,0,0,0,0,0,0,0,0,0,0,
493,-26.5,23.1,25.54,16.41,-2.213,-3.03,-10.69,13.77,-18.39,23.16,-33.38,-22.03,-11.2,1.298,-42.82,-37.87,0,0,0,0,0,0,0,0,0,0,0,0,0,0,0,0,
494,1.294,14.3,40.5,24.21,20.01,17.73,8.823,23.41,-2.132,23.41,-24.62,-16.08,-6.958,4.968,-22.05,-18.59,0,0,0,0,0,0,0,0,0,0,0,0,0,0,0,0,
495,-0.9504,5.708,27.7,30.51,21.15,19.85,9.84,31.13,1.537,17.89,-9.677,-7.688,-15.09,-2.827,4.902,-2.962,0,0,0,0,0,0,0,0,0,0,0,0,0,0,0,0,
496,-7.964,-6.473,28.28,45.43,30.81,28.31,19.97,37.93,14.76,7.098,-7.324,-13.12,-39.45,-11.74,-9.191,-23.18,0,0,0,0,0,0,0,0,0,0,0,0,0,0,0,0,
497,-11.06,-30.62,49.26,52.81,35.82,32.22,33.51,36.39,12.4,-1.878,-15.48,-28.68,-59.86,-19.65,-28.35,-48.13,0,0,0,0,0,0,0,0,0,0,0,0,0,0,0,0,
498,-17.06,-43.13,51.97,53.19,36.18,34.29,28.58,33.55,4.162,-0.3319,-16.91,-30.71,-56.47,-17.42,-21.02,-40.96,0,0,0,0,0,0,0,0,0,0,0,0,0,0,0,0,
499,-25.53,-29.55,43.91,50.79,32.1,30.63,10.57,33.23,-9.462,7.094,-27.93,-35.89,-38.41,-0.2641,-22.67,-28.97,0,0,0,0,0,0,0,0,0,0,0,0,0,0,0,0,
500,-40.89,-5.78,35.66,31.55,13.23,11.66,-2.094,32.74,-20.06,17.35,-39.8,-41.89,-12.56,15.81,-25.87,-24.29,0,0,0,0,0,0,0,0,0,0,0,0,0,0,0,0,
501,-34.59,26.83,26.34,25.26,10.14,9.352,1.451,35.5,-16.32,26,-28.68,-24.11,16.95,22.12,-10.87,-6.415,0,0,0,0,0,0,0,0,0,0,0,0,0,0,0,0,
502,-6.466,50.26,38.15,41.05,25.76,24.99,9.694,31.21,-13.94,21.24,-15.89,-5.677,27.88,19.8,-4.527,-1.718,0,0,0,0,0,0,0,0,0,0,0,0,0,0,0,0,
503,3.041,47.76,58.28,43.77,32.65,31.43,14.93,26.36,15.02,17.13,-5.727,1.832,20.24,12.28,-1.787,-14.59,0,0,0,0,0,0,0,0,0,0,0,0,0,0,0,0,
504,4.008,44.82,55.32,40.14,41.12,39.57,22.06,35.13,57.38,23.03,11.07,15.23,8.97,3.454,15.78,-13.57,0,0,0,0,0,0,0,0,0,0,0,0,0,0,0,0,
505,17.09,52.98,40.98,44.27,56.85,55.26,30.83,40.35,44.17,23.39,28.25,32.76,-0.3287,-3.397,35.17,-16.77,0,0,0,0,0,0,0,0,0,0,0,0,0,0,0,0,
506,34.03,61.11,51.88,52.29,68.29,66.87,42.76,42.65,19.04,21.97,48.86,46.53,0.1398,-1.867,41.71,-30,0,0,0,0,0,0,0,0,0,0,0,0,0,0,0,0,
507,51.6,62.2,85.28,69.36,82.68,81.51,56.75,56.51,37.66,25.69,52.88,45.03,2.779,3.745,23.48,-33.15,0,0,0,0,0,0,0,0,0,0,0,0,0,0,0,0,
508,60.26,57.33,100.7,84.34,98.4,97.03,68.67,64.3,49.71,30.72,33.78,30.76,7.578,11.47,2.359,-29.85,0,0,0,0,0,0,0,0,0,0,0,0,0,0,0,0,
509,53.42,63.38,102.8,85.18,92.75,90.49,79.16,60.01,36.92,42.4,29.62,25.55,32.34,33.58,15.21,-7.095,0,0,0,0,0,0,0,0,0,0,0,0,0,0,0,0,
510,45.28,70.73,98.99,80.72,76.56,74.85,87.42,60.38,36.94,50.44,39.67,28.17,46.11,49.78,34.47,20.87,0,0,0,0,0,0,0,0,0,0,0,0,0,0,0,0,
511,41.88,39.28,78.45,75.13,79.38,78.86,87.81,58.56,45.11,32.98,36.64,20.58,5.148,24.74,22.21,1.917,0,0,0,0,0,0,0,0,0,0,0,0,0,0,0,0,
512,31.78,-20.67,86.1,74.1,80.98,80.02,78.83,50.45,33.28,5.779,24.5,2.986,-51.13,-12.94,3.841,-34.22,0,0,0,0,0,0,0,0,0,0,0,0,0,0,0,0,
513,16.61,-47.54,104.9,88.01,68.55,66.68,74.44,56.99,24.82,1.703,19.04,-3.294,-61.27,-18.04,6.588,-25.45,0,0,0,0,0,0,0,0,0,0,0,0,0,0,0,0,
514,10.65,-29.55,73.56,89.4,60.81,57.35,66.17,60.47,45.81,6.543,22.95,5.461,-44.08,-12.83,9.424,-5.195,0,0,0,0,0,0,0,0,0,0,0,0,0,0,0,0,
515,3.981,-19.09,47.78,48.42,38.62,34.22,26.02,28.97,39.44,-4.031,15.31,0.9644,-35.54,-20.1,-4.25,-17.36,0,0,0,0,0,0,0,0,0,0,0,0,0,0,0,0,
516,-12.04,-23.44,40.89,11.71,8.41,5.888,-12.7,2.568,-15.99,-5.313,-9.748,-16.07,-19.4,-13.8,-16.43,-20.96,0,0,0,0,0,0,0,0,0,0,0,0,0,0,0,0,
517,-17.32,-4.958,0.8938,17.46,9.775,8.161,-9.314,13.93,-39.49,11.84,-21.66,-19.39,1.759,0.9401,-21.57,-1.743,0,0,0,0,0,0,0,0,0,0,0,0,0,0,0,0,
518,-8.693,25.12,-6.513,25.33,22.77,20.43,5.607,25.05,-12.09,21.54,-12.81,-12.7,6.747,-1.016,-22.33,-5.581,0,0,0,0,0,0,0,0,0,0,0,0,0,0,0,0,
519,-0.303,42.86,36.82,17.63,24.44,22.59,2.524,19.17,3.323,24.38,-5.366,-7.355,11.16,-2.274,-7.635,-13.52,0,0,0,0,0,0,0,0,0,0,0,0,0,0,0,0,
520,4.669,50.22,32.86,4.998,20.62,19.36,-13.32,12.05,-1.895,22.96,-2.508,-2.952,13.83,4.397,3.568,0.289,0,0,0,0,0,0,0,0,0,0,0,0,0,0,0,0,
521,9.52,46.2,3.724,-10.37,14.47,13.68,-21.74,8.972,5.99,15.75,6.291,0.9555,7.567,5.444,-8.319,-3.632,0,0,0,0,0,0,0,0,0,0,0,0,0,0,0,0,
522,17.35,45.59,17.52,-8.267,18.24,18.14,-10.89,12.41,11.84,19.77,9.123,0.8199,15.29,8.18,-15.18,-12.98,0,0,0,0,0,0,0,0,0,0,0,0,0,0,0,0,
523,13.83,58.99,15.86,-0.3815,18.97,19.11,-6.846,16.32,-12.35,28.88,-10.17,-11.03,24.67,13.12,-9.175,0.6503,0,0,0,0,0,0,0,0,0,0,0,0,0,0,0,0,
524,-1.383,65.73,-10.91,-1.026,13.25,13.38,-11.65,20.34,-19.81,29.09,-24.39,-21.75,18.33,15.48,-14.63,5.945,0,0,0,0,0,0,0,0,0,0,0,0,0,0,0,0,
525,-0.7116,50.01,9.393,13.9,28.08,26.94,-3.728,24.68,11.16,26.41,-11.62,-16.12,11.8,16.7,-22.43,1.664,0,0,0,0,0,0,0,0,0,0,0,0,0,0,0,0,
526,2.493,8.474,32.91,24.39,31.98,29.28,-5.787,14.98,2.687,16.45,-7.024,-17.31,-10.06,4.28,-18.11,0.7589,0,0,0,0,0,0,0,0,0,0,0,0,0,0,0,0,
527,-14.78,-44.71,22.88,19.57,8.295,5.873,-14.89,6.293,-42.22,-0,-22.79,-37.22,-52.19,-18.68,-19.8,-9.142,0,0,0,0,0,0,0,0,0,0,0,0,0,0,0,0,
528,-22.82,-80.52,47.97,34.31,16.4,14.94,8.359,19.24,-31.44,-8.736,-21.96,-43.06,-78.01,-35.52,-30.06,-22.46,0,0,0,0,0,0,0,0,0,0,0,0,0,0,0,0,
529,-1.571,-90.65,83.75,56.34,57.48,55.99,45.04,35.88,16.78,-12.08,-2.736,-23.67,-87.51,-52.48,-28.65,-38.82,0,0,0,0,0,0,0,0,0,0,0,0,0,0,0,0,
530,22.12,-83.3,75.95,64.98,74.71,72.31,52.05,41.33,27.89,-17.71,6.891,-8.88,-92.86,-66.53,-20.63,-54.13,0,0,0,0,0,0,0,0,0,0,0,0,0,0,0,0,
531,19.69,-68.16,57.43,57.66,60.47,58.34,32.47,33.96,10.39,-21.7,6.351,-6.898,-76.49,-60.79,-14.98,-49.09,0,0,0,0,0,0,0,0,0,0,0,0,0,0,0,0,
532,1.703,-49.7,35.1,29.88,36.85,35.98,14.57,17.48,-6.44,-18.48,0.1822,-5.553,-43.45,-40.74,-3.496,-31.55,0,0,0,0,0,0,0,0,0,0,0,0,0,0,0,0,
533,-2.815,-20.7,16.03,13.27,13.48,12.8,12.79,10.36,-26.66,-7.205,-10.15,-6.935,-8.118,-13.82,5.537,-7.887,0,0,0,0,0,0,0,0,0,0,0,0,0,0,0,0,
534,5.245,17.47,18.77,17.77,4.809,5.599,24.99,17.38,-34.06,10.64,-5.543,-2.874,30.42,17.22,6.466,17.99,0,0,0,0,0,0,0,0,0,0,0,0,0,0,0,0,
535,14.75,49.55,29.44,16.6,18.37,21.48,39.65,22.05,-16.82,24.61,8.726,11.82,49.69,32.65,12.64,26.09,0,0,0,0,0,0,0,0,0,0,0,0,0,0,0,0,
536,28.12,66.08,50.13,15.94,28.38,30.82,39.62,17.09,-9.916,25.2,13.98,24.9,46.05,28.46,23.51,30.13,0,0,0,0,0,0,0,0,0,0,0,0,0,0,0,0,
537,45.5,75.78,44.5,18.53,27.3,28.5,32.13,12.49,-6.514,25.05,23.35,39.54,51.53,24.74,29.85,40.76,0,0,0,0,0,0,0,0,0,0,0,0,0,0,0,0,
538,57.16,84.86,5.488,14.09,36.04,36.6,33.93,15.43,15.16,28.35,25.92,41.26,51.08,22.02,25.52,28.38,0,0,0,0,0,0,0,0,0,0,0,0,0,0,0,0,
539,45.34,79.11,18.47,11.36,40.1,38.7,32.18,21.19,4.556,24.7,4.397,13.02,27.15,15.06,6.472,0.0764,0,0,0,0,0,0,0,0,0,0,0,0,0,0,0,0,
540,18.75,56.07,50.72,7,27.44,25.13,18.34,21.99,-24.25,20.15,-14.17,-15.47,5.75,6.41,-20,-13.59,0,0,0,0,0,0,0,0,0,0,0,0,0,0,0,0,
541,0.4813,16.86,29.77,-5.561,19.26,18.3,-1.712,8.066,-6.426,7.357,-26.51,-32.74,-20.58,-15.31,-33.62,-21.28,0,0,0,0,0,0,0,0,0,0,0,0,0,0,0,0,
542,-13.11,-37.92,26.84,-5.319,25.17,24.92,-14.77,-6.487,8.423,-17.69,-32.15,-40.52,-49.88,-39.02,-21.41,-24.76,0,0,0,0,0,0,0,0,0,0,0,0,0,0,0,0,
543,-15.19,-69.73,62.54,20.7,43.26,41.13,-0.6146,7.724,-15.19,-25.98,-15.42,-26.88,-49.64,-38.92,-10.03,-10.44,0,0,0,0,0,0,0,0,0,0,0,0,0,0,0,0,
544,-4.35,-70.5,69.06,45.6,53.15,49.37,18.32,29.46,-22.19,-20.21,-7.995,-15.85,-40.36,-32.25,-10.66,8.345,0,0,0,0,0,0,0,0,0,0,0,0,0,0,0,0,
545,1.361,-71.8,59.27,49.62,42.39,40.36,16.37,30.1,-5.401,-19.41,-14.24,-14.84,-33.79,-33.14,6.308,17.51,0,0,0,0,0,0,0,0,0,0,0,0,0,0,0,0,
546,15.6,-59.44,68.76,43.59,37.78,37.49,8.974,25.16,3.512,-16.95,-6.651,-8.994,-17.59,-30.02,14.07,13.34,0,0,0,0,0,0,0,0,0,0,0,0,0,0,0,0,
547,30.79,-38.85,67.21,26.1,40.92,40.49,-6.46,15.54,0.9349,-19.08,1.315,-9.294,-14.6,-30.16,-0.12,2.237,0,0,0,0,0,0,0,0,0,0,0,0,0,0,0,0,
548,26.82,-35.84,46.64,8.919,40.74,40.65,-18.39,2.246,0.4668,-22.68,13.37,-0.7909,-10.28,-32.56,16.28,7.024,0,0,0,0,0,0,0,0,0,0,0,0,0,0,0,0,
549,29.33,-18.92,47.25,13.43,42.11,41.91,-2.836,4.119,-4.157,-13.62,20.62,12.73,12.67,-24.12,24.65,11.3,0,0,0,0,0,0,0,0,0,0,0,0,0,0,0,0,
550,29.43,14.22,42.9,9.168,26.89,27.07,6.655,7.513,-27.74,-3.183,-1.254,2.154,20.98,-7.066,-2.992,0.7475,0,0,0,0,0,0,0,0,0,0,0,0,0,0,0,0,
551,16.66,38.08,12.93,-10.21,6.022,8.451,2.237,4.505,-29.55,9.489,-4.396,3.318,31.11,17.01,8.345,18.98,0,0,0,0,0,0,0,0,0,0,0,0,0,0,0,0,
552,31.42,68.84,23.9,-1.116,14.81,17.65,19.79,12.32,1.266,27.85,22.72,25.47,60.91,33.27,30.85,45.68,0,0,0,0,0,0,0,0,0,0,0,0,0,0,0,0,
553,61.63,96.39,52.59,28.78,40.48,41.84,47.13,26.35,11.86,37,30.1,29.35,71.99,30.74,14.37,34.22,0,0,0,0,0,0,0,0,0,0,0,0,0,0,0,0,
554,74.31,98.82,44.61,43.84,58.85,60.3,58.86,34.47,24.83,39.71,23.11,25.31,63.85,28.74,9.337,30.16,0,0,0,0,0,0,0,0,0,0,0,0,0,0,0,0,
555,72.11,91.61,49.48,40.42,55.81,57.64,54.24,34.47,44.42,39.71,10.47,15.37,49.7,23.33,6.391,37.58,0,0,0,0,0,0,0,0,0,0,0,0,0,0,0,0,
556,46.89,77.63,56.24,36.19,37.68,38.58,44.02,32,2.573,33.93,-8.25,-5.277,27.36,7.351,-10.16,21.3,0,0,0,0,0,0,0,0,0,0,0,0,0,0,0,0,
557,21.17,53.31,47.7,43.33,40.67,42.26,48.07,36.75,-41.2,28.35,-2.224,0.7358,16.09,1.613,0.5327,12.61,0,0,0,0,0,0,0,0,0,0,0,0,0,0,0,0,
558,33.98,26.79,72.55,41.48,59.15,63,56.85,38.17,-9.855,15.59,25.94,30.67,5.785,-7.998,19.2,8.99,0,0,0,0,0,0,0,0,0,0,0,0,0,0,0,0,
559,63.23,-2.71,84.05,25.51,60.31,62.91,46.06,28.25,26.28,-3.685,45.79,46.53,-15.99,-28.65,28.92,-2.233,0,0,0,0,0,0,0,0,0,0,0,0,0,0,0,0,
560,75.23,-25.51,57.51,24.65,52.8,52.5,34.19,29.47,32.87,-5.056,44.06,43.87,-14.72,-25.35,38.48,4.882,0,0,0,0,0,0,0,0,0,0,0,0,0,0,0,0,
561,68.94,-27.47,52.76,34.2,50.11,50.16,38.81,44.81,40.21,6.169,24.74,29.12,1.03,-15.15,22.24,3.459,0,0,0,0,0,0,0,0,0,0,0,0,0,0,0,0,
562,53.32,-22.97,56.91,27.21,44.16,44.3,30.15,38.18,33.83,0.807,4.153,5.006,-8.345,-23.86,-6.928,-11.42,0,0,0,0,0,0,0,0,0,0,0,0,0,0,0,0,
563,39.69,-25.33,56.17,5.763,36.22,35.16,1.794,10.46,15.07,-12.4,-15.78,-17.53,-22.01,-18.16,-21.16,-7.116,0,0,0,0,0,0,0,0,0,0,0,0,0,0,0,0,
564,30.66,-19.63,57.8,-3.54,40.35,39.86,-5.877,8.553,3.754,-9.997,-28.58,-25.72,-16.3,-3.665,-26.43,-11.95,0,0,0,0,0,0,0,0,0,0,0,0,0,0,0,0,
565,24.9,1.554,42.65,9.805,52.79,52.85,7.098,29.28,13.15,-0.2004,-14.21,-14.87,-5.776,-9.521,-10.5,-26.54,0,0,0,0,0,0,0,0,0,0,0,0,0,0,0,0,
566,31.61,30.96,41.87,18.28,53.58,53.4,12.35,33.82,48.57,11.33,5.199,1.914,9.28,-4.004,13.39,-15.19,0,0,0,0,0,0,0,0,0,0,0,0,0,0,0,0,
567,42.56,60.83,60.44,11.4,43.91,43.14,15.41,27.3,48.02,24.68,2.547,6.27,25.69,18.63,8.314,2.018,0,0,0,0,0,0,0,0,0,0,0,0,0,0,0,0,
568,35.79,69.06,52.2,9.047,40.71,39.37,18.5,21.88,-1.992,23.43,5.774,7.729,25.08,18.21,3.94,8.046,0,0,0,0,0,0,0,0,0,0,0,0,0,0,0,0,
569,26.05,56.98,40.85,12.62,49.03,48.78,17.02,13.42,-6.131,14.6,28.42,21.12,17.53,4.362,27.95,9.615,0,0,0,0,0,0,0,0,0,0,0,0,0,0,0,0,
570,27.88,55.1,50.89,12.91,55.03,54.94,16.5,6.399,27.48,10.27,39.04,26.78,19.4,2.851,44.6,8.284,0,0,0,0,0,0,0,0,0,0,0,0,0,0,0,0,
571,20.02,52.09,43.3,2.04,42.46,41.38,9.403,-0.5826,25.87,-2.816,35.82,20.53,21.73,5.978,39.84,14.4,0,0,0,0,0,0,0,0,0,0,0,0,0,0,0,0,
572,12.54,29.14,13.78,-13.55,21.51,21.24,-1.78,-6.188,13.56,-16.95,31.87,20.84,9.408,2.729,29.59,17.41,0,0,0,0,0,0,0,0,0,0,0,0,0,0,0,0,
573,25.54,4.649,6.213,-12.52,11.06,11.19,-3.645,-8.159,12.37,-21.73,17.59,15.78,-17.92,-13.35,16,0.1741,0,0,0,0,0,0,0,0,0,0,0,0,0,0,0,0,
574,41.35,-12.69,22.05,-8.101,17.64,17.87,2.922,-14.02,16.47,-26,14.5,12.89,-32.42,-27.5,10.13,-14.59,0,0,0,0,0,0,0,0,0,0,0,0,0,0,0,0,
575,57.29,-22.21,18.5,-19.84,31.39,32.11,8.947,-14.65,21.46,-28.49,29.44,27.1,-24.08,-23.22,16.55,-8.187,0,0,0,0,0,0,0,0,0,0,0,0,0,0,0,0,
576,67.47,-26.57,6.661,-27.94,26.39,25.87,2.375,-6.2,9.645,-32.84,22.38,25.2,-25.37,-23.6,18.43,0.7411,0,0,0,0,0,0,0,0,0,0,0,0,0,0,0,0,
577,54.04,-36.8,12.51,-20.64,10.54,9.895,-8.451,-3.549,7.974,-37.13,12.43,12.19,-34.34,-31.4,15.98,-2.916,0,0,0,0,0,0,0,0,0,0,0,0,0,0,0,0,
578,37.43,-44.56,-5.357,-17.14,1.547,2.008,-13.68,-6.188,12.73,-33.42,20.11,13.08,-27.75,-26.47,12.96,-6.872,0,0,0,0,0,0,0,0,0,0,0,0,0,0,0,0,
579,30.87,-46.54,-35.31,-29.8,-11.62,-11.55,-22.18,-10.06,3.535,-35.89,13.02,8.756,-24.22,-30.65,4.744,-4.861,0,0,0,0,0,0,0,0,0,0,0,0,0,0,0,0,
580,30.72,-49.97,-17.33,-42.34,-6.525,-6.515,-23.06,-18.11,35.51,-42.64,12.33,7.799,-34.85,-51.69,-3.013,-15.41,0,0,0,0,0,0,0,0,0,0,0,0,0,0,0,0,
581,36.89,-45.52,-5.089,-46.17,15.3,14.98,-18.49,-25.43,54.28,-42.56,23.21,12.51,-43.83,-60.06,-11.82,-38.37,0,0,0,0,0,0,0,0,0,0,0,0,0,0,0,0,
582,27.32,-27.62,-25.37,-49.85,7.365,7.277,-16.44,-22.09,-13.66,-40.08,5.948,-1.752,-38.42,-50.12,-20.25,-41.35,0,0,0,0,0,0,0,0,0,0,0,0,0,0,0,0,
583,1.675,-3.869,5.611,-36.53,-4.542,-1.784,5.706,-7.232,-51.87,-26.32,-13.27,-16.14,-17.67,-30.94,-19.99,-21.01,0,0,0,0,0,0,0,0,0,0,0,0,0,0,0,0,
584,-18.89,9.916,36.7,-11.12,-1.346,1.769,23.52,3.381,-33.18,-7.792,-19.58,-23.27,-4.111,-12.86,-21.66,-11.18,0,0,0,0,0,0,0,0,0,0,0,0,0,0,0,0,
585,-27.68,8.852,-23.57,-12.28,-15.89,-14.85,11.54,3.974,-38.73,-4.294,-27.43,-28.82,-6.574,-7.829,-25.49,-11.29,0,0,0,0,0,0,0,0,0,0,0,0,0,0,0,0,
586,-12.41,5.368,-68.87,-28.04,-26.25,-24.92,0.975,-0.604,-30.23,-9.27,-17.79,-18.55,-8.657,-9.854,-24.49,-0.0629,0,0,0,0,0,0,0,0,0,0,0,0,0,0,0,0,
587,9.202,-5.307,-40.93,-32.72,-20.04,-18.67,-12.25,-13.17,-7.83,-15.74,-6.172,-12.23,-11.28,-12.55,-25.18,3.791,0,0,0,0,0,0,0,0,0,0,0,0,0,0,0,0,
588,11.02,-16.27,-29.82,-32.42,-24.06,-23.03,-29.13,-21.34,-14.28,-16.71,-10.55,-19.81,-16.04,-16.46,-24.29,-9.884,0,0,0,0,0,0,0,0,0,0,0,0,0,0,0,0,
589,5.416,-13.68,-33.6,-31.68,-32.95,-30.24,-29.6,-22.77,-13.47,-11.83,-18.84,-30.12,-23.68,-20.09,-34.25,-25.25,0,0,0,0,0,0,0,0,0,0,0,0,0,0,0,0,
590,-13.91,-28.16,-22.2,-37.47,-41.7,-39.51,-38.46,-34.32,-15.5,-22.12,-36.73,-52.38,-45.89,-29.68,-57.28,-44.22,0,0,0,0,0,0,0,0,0,0,0,0,0,0,0,0,
591,-41.88,-63.54,-26.85,-45.11,-49.39,-49.77,-54.66,-43.44,-35.54,-41.81,-45.03,-63.79,-69.76,-42.78,-51.73,-50.96,0,0,0,0,0,0,0,0,0,0,0,0,0,0,0,0,
592,-44.11,-86.25,-39.13,-48.09,-49.45,-48.61,-60.23,-43.88,-24.96,-48.49,-29.47,-45.27,-74.82,-43.07,-25.94,-31.91,0,0,0,0,0,0,0,0,0,0,0,0,0,0,0,0,
593,-31.05,-94.29,-52.57,-55.15,-49.4,-45.8,-65.45,-46.67,2.075,-44.46,-13.4,-21.96,-61.12,-31.63,-13.79,-13.45,0,0,0,0,0,0,0,0,0,0,0,0,0,0,0,0,
594,-15.65,-86.05,-58.84,-53.79,-45.75,-42.35,-54.81,-43.9,-3.666,-40.12,-0.3481,-3.921,-34.91,-22.62,-0.0696,5.574,0,0,0,0,0,0,0,0,0,0,0,0,0,0,0,0,
595,3.861,-64.34,-29.97,-41.93,-32.86,-30.7,-32.1,-41.61,-28.07,-39.66,-2.976,-1.963,-9.501,-16.76,2.286,25.29,0,0,0,0,0,0,0,0,0,0,0,0,0,0,0,0,
596,0.0417,-43.88,-9.918,-33.8,-19.05,-17.95,-24.41,-41.78,-39.69,-35.72,-28.78,-28.04,0.8406,-13.86,-24.9,14.03,0,0,0,0,0,0,0,0,0,0,0,0,0,0,0,0,
597,-30.86,-22.26,-21.68,-23.03,-11.31,-11.23,-19.23,-32.1,-37.74,-27.98,-43.13,-56.02,-6.625,-20.51,-43.95,-4.214,0,0,0,0,0,0,0,0,0,0,0,0,0,0,0,0,
598,-55.42,-18.3,-16.39,-19.2,-9.701,-9.299,-13.28,-30.57,-30,-28.27,-37.43,-60.67,-17.92,-23.61,-42.1,1.643,0,0,0,0,0,0,0,0,0,0,0,0,0,0,0,0,
599,-52.92,-33.79,-5.361,-25.31,-9.291,-8.284,-16.04,-37.66,-17.39,-26.8,-24.49,-44.62,-14.01,-13.33,-39.26,0.4803,0,0,0,0,0,0,0,0,0,0,0,0,0,0,0,0,
600,-26.55,-25.31,-16.1,-20.04,-15.73,-13.85,-13.8,-29.3,-9.597,-14.59,-5.723,-20.89,3.402,-6.765,-34.92,-11,0,0,0,0,0,0,0,0,0,0,0,0,0,0,0,0,
601,2.486,-2.391,-21.74,-13.35,-25.03,-21.93,-6.312,-20.62,-10.68,-5.494,4.744,-3.66,19.47,-6.166,-28.9,-5.328,0,0,0,0,0,0,0,0,0,0,0,0,0,0,0,0,
602,12.98,-4.409,-17.26,-19.89,-21.57,-19.7,-11.71,-29.12,-4.148,-6.3,1.484,-3.251,18.01,-6.071,-26.38,3.382,0,0,0,0,0,0,0,0,0,0,0,0,0,0,0,0,
603,4.311,-20.73,-28.19,-32.74,-21.49,-21.34,-29.8,-37.93,3.844,-8.207,-1.296,-12.36,4.875,-5.223,-21.33,4.658,0,0,0,0,0,0,0,0,0,0,0,0,0,0,0,0,
604,-4.655,-26.84,-48.11,-44.59,-36.06,-35.73,-38.95,-35.32,-15.57,-0.6117,-1.671,-14.68,10.27,8.967,-16.36,13.89,0,0,0,0,0,0,0,0,0,0,0,0,0,0,0,0,
605,-11.16,-20.37,-48.89,-51.46,-50.57,-50.04,-35.41,-32.33,-45.7,4.691,-13.56,-22.96,13.14,11.54,-31.26,12.59,0,0,0,0,0,0,0,0,0,0,0,0,0,0,0,0,
606,-25.28,-18.9,-40.83,-53.84,-57.18,-55.28,-30.23,-32.99,-45.78,-4.948,-30.67,-40.73,-15.36,-17.54,-55.3,-9.828,0,0,0,0,0,0,0,0,0,0,0,0,0,0,0,0,
607,-23.7,-35.64,-35.6,-39.9,-47.28,-43.72,-19.83,-27.94,-32.45,-11.85,-27.32,-38.13,-35.06,-34.44,-52.9,-14.66,0,0,0,0,0,0,0,0,0,0,0,0,0,0,0,0,
608,-2.382,-58.89,-14.28,-14.33,-28.76,-26.46,-15.55,-27.1,-19.58,-16.11,-12.87,-25.48,-38.89,-34.21,-36.22,-2.095,0,0,0,0,0,0,0,0,0,0,0,0,0,0,0,0,
609,3.081,-75.13,-5.735,-12.59,-21.04,-20.59,-26.39,-36.96,15.03,-29.21,-9.95,-22.89,-49.85,-39.73,-30.49,-0.8984,0,0,0,0,0,0,0,0,0,0,0,0,0,0,0,0,
610,-5.596,-81.05,-26.87,-26.91,-24.42,-24.7,-34.81,-38.46,14.8,-36.07,-10.35,-18,-50.1,-36.9,-23.12,-2.919,0,0,0,0,0,0,0,0,0,0,0,0,0,0,0,0,
611,-22.03,-77.28,-29.23,-27.66,-36.96,-37.3,-41.13,-31.7,-47.63,-35.99,-10.77,-24.08,-51.41,-41.55,-21.38,-16.81,0,0,0,0,0,0,0,0,0,0,0,0,0,0,0,0,
612,-49.69,-61.98,-19.53,-19.99,-45.56,-45.18,-42.2,-25.92,-65.72,-32.4,-17.28,-45.2,-59,-51.73,-45.2,-44.41,0,0,0,0,0,0,0,0,0,0,0,0,0,0,0,0,
613,-61,-37.62,-18.03,-14.57,-42.57,-41.51,-32.34,-16.94,-39.65,-17.5,-27.03,-52.26,-40.15,-30.66,-67.74,-45.8,0,0,0,0,0,0,0,0,0,0,0,0,0,0,0,0,
614,-55.94,-23.99,-7.918,-18.33,-43.12,-41.63,-33.7,-13.52,-52.23,-8.651,-36.42,-47.89,-19.06,-13.84,-56.14,-25.77,0,0,0,0,0,0,0,0,0,0,0,0,0,0,0,0,
615,-52.74,-23.67,-18.92,-22.59,-45.4,-44.82,-38.83,-18.76,-61.41,-10.18,-38.83,-45.94,-15.15,-21.55,-33.24,-14.37,0,0,0,0,0,0,0,0,0,0,0,0,0,0,0,0,
616,-43.35,-15.69,-38.88,-13.1,-50.33,-50.63,-30.8,-14.49,-46.87,2.534,-32.71,-37.46,2.007,-5.609,-35.11,-5.747,0,0,0,0,0,0,0,0,0,0,0,0,0,0,0,0,
617,-29.76,1.776,-13.55,-7.181,-55.78,-53.78,-22.79,4.29,-32.87,26.52,-16.83,-14.87,25.63,25.44,-34.31,10.17,0,0,0,0,0,0,0,0,0,0,0,0,0,0,0,0,
618,-9.655,21.58,4.359,-13.91,-44.38,-41.62,-12.89,14.74,-4.783,37.5,3.293,7.553,37.03,34.45,-8.034,25.29,0,0,0,0,0,0,0,0,0,0,0,0,0,0,0,0,
619,14.87,34.05,-23.94,-21.01,-35.17,-35.61,-5.168,2.459,-5.24,30.92,4.921,9.445,32.57,25.97,-2.857,16.14,0,0,0,0,0,0,0,0,0,0,0,0,0,0,0,0,
620,23.9,23.36,-29.8,-24.09,-30.93,-31.8,-8.235,-7.039,-21.31,20.85,0.9199,11.01,11.94,13.57,-12.8,-0.5529,0,0,0,0,0,0,0,0,0,0,0,0,0,0,0,0,
621,34.23,2.463,-11.23,-18.83,-10.85,-8.894,-3.866,1.741,17.82,15.5,19.1,36.71,9.119,13.15,11.11,17.42,0,0,0,0,0,0,0,0,0,0,0,0,0,0,0,0,
622,56.25,-4.751,-23.16,-12.61,-1.814,1.21,5.773,6.802,35.89,13.15,37.17,59.87,33.58,21.9,31.66,39.64,0,0,0,0,0,0,0,0,0,0,0,0,0,0,0,0,
623,63.8,0.95,-27.23,-12.49,-5.709,-4.335,8.324,4.052,-5.001,16.45,40.22,63.56,48.99,22.38,26.73,42.08,0,0,0,0,0,0,0,0,0,0,0,0,0,0,0,0,
624,59.2,15.15,0.7614,-7.889,1.209,1.235,8.265,3.414,-10.72,24.25,39.3,56.57,52.85,21.25,30.87,49.21,0,0,0,0,0,0,0,0,0,0,0,0,0,0,0,0,
625,40.03,25.05,-4.682,-6.932,-6.314,-5.19,-4.068,-1.536,-0.3418,25.47,15.25,21.63,45.08,13.69,14.59,39.07,0,0,0,0,0,0,0,0,0,0,0,0,0,0,0,0,
626,-18.23,4.286,-30.46,-21.75,-34.73,-33.27,-30.44,-11.62,-28.05,16.51,-34.96,-39.42,14.15,-3.834,-30.13,11.05,0,0,0,0,0,0,0,0,0,0,0,0,0,0,0,0,
627,-79.6,-31.13,-22.15,-35.69,-52.83,-52.7,-49.93,-17.37,-44.69,9.992,-61.7,-73.6,-6.288,-5.096,-45.46,0.4978,0,0,0,0,0,0,0,0,0,0,0,0,0,0,0,0,
628,-86.27,-37.04,-24.05,-35.96,-52.5,-52.62,-55.57,-15.24,-38.53,14.22,-49.64,-64.72,-4.661,-0.8417,-43.33,-5.412,0,0,0,0,0,0,0,0,0,0,0,0,0,0,0,0,
629,-60.72,-24.1,-46.8,-27.56,-46.55,-47.05,-51.13,-11.83,-35.7,17.54,-39.13,-53.26,-7.521,-3.97,-44.59,-5.288,0,0,0,0,0,0,0,0,0,0,0,0,0,0,0,0,
630,-49.43,-19.34,-34.11,-13.89,-43.27,-43.65,-36.83,-10.68,-27.86,16.78,-40.18,-49.1,-5.005,9.336,-28.91,0.2361,0,0,0,0,0,0,0,0,0,0,0,0,0,0,0,0,
631,-46.27,-14.78,-11.42,-8.567,-41.62,-40.67,-31.85,-15.37,-29.82,15.58,-40.8,-43.65,-3.738,10,-35.1,-22.78,0,0,0,0,0,0,0,0,0,0,0,0,0,0,0,0,
632,-45.05,-20.75,-32.91,-25.48,-48.81,-48.53,-50.94,-33.72,-43.94,2.994,-47.68,-49.12,-25.61,-21.83,-64.45,-45.78,0,0,0,0,0,0,0,0,0,0,0,0,0,0,0,0,
633,-47.42,-37.38,-53.96,-34.09,-58.05,-58.19,-56.8,-41.48,-36.83,-8.785,-43.85,-48.39,-35.68,-29.93,-48.57,-38.31,0,0,0,0,0,0,0,0,0,0,0,0,0,0,0,0,
634,-36.61,-39.24,-11.67,-14.02,-46.07,-45.13,-34.12,-23.09,-27.48,-4.373,-24.86,-32.52,-29.52,-17.52,-25.9,-36.74,0,0,0,0,0,0,0,0,0,0,0,0,0,0,0,0,
635,-31.91,-52.92,18.95,-6.405,-39.35,-40.1,-31.63,-15.36,-33.86,-6.865,-28.52,-36.41,-45.73,-28.04,-49.17,-44.12,0,0,0,0,0,0,0,0,0,0,0,0,0,0,0,0,
636,-54.19,-82.81,-34.77,-17.54,-65.13,-66.69,-48.98,-20.87,-31.61,-18.58,-48.02,-50.98,-56.75,-36.56,-58.36,-32.42,0,0,0,0,0,0,0,0,0,0,0,0,0,0,0,0,
637,-65.15,-74.27,-67.79,-15.55,-82.91,-81.12,-49.08,-17.5,-46.58,-19.64,-51.75,-45.31,-34.55,-28.06,-39.89,-13.48,0,0,0,0,0,0,0,0,0,0,0,0,0,0,0,0,
638,-54.08,-47.21,-50.16,-16.19,-74.26,-72.19,-50.95,-23.69,-84.19,-17.66,-46.62,-36.98,-18.17,-23.46,-38.53,-13.2,0,0,0,0,0,0,0,0,0,0,0,0,0,0,0,0,
639,-60.98,-49.89,-70.49,-31.93,-81.36,-82.12,-68.98,-36.8,-91.25,-20.96,-43.62,-43.08,-24.38,-25.75,-41.77,-28.44,0,0,0,0,0,0,0,0,0,0,0,0,0,0,0,0,
640,-88.89,-51.58,-78.28,-43.17,-111.8,-110.5,-77.86,-34.69,-86.19,-23.08,-49.39,-55.43,-24.97,-31.2,-37.89,-33.32,0,0,0,0,0,0,0,0,0,0,0,0,0,0,0,0,
641,-107.2,-29.22,-53.13,-40.4,-118.1,-113.3,-66.57,-24.22,-95.27,-20.59,-65.96,-67.63,-14.63,-31.74,-45.82,-26.26,0,0,0,0,0,0,0,0,0,0,0,0,0,0,0,0,
642,-116,-17.28,-68.59,-27.36,-100.5,-97.11,-52.98,-18.09,-95.38,-22.46,-87.31,-84.94,-17.69,-30.45,-64.42,-31.6,0,0,0,0,0,0,0,0,0,0,0,0,0,0,0,0,
643,-134.5,-30.66,-76.56,-25.79,-103.6,-101.5,-54.76,-23.71,-105.6,-33.49,-108.4,-103.6,-32.91,-38.46,-73.64,-44.64,0,0,0,0,0,0,0,0,0,0,0,0,0,0,0,0,
644,-141.9,-38.59,-57.76,-38.12,-106.7,-104.8,-57.36,-29.28,-117.4,-34.03,-108.4,-100.3,-40.78,-43.31,-63.62,-47.64,0,0,0,0,0,0,0,0,0,0,0,0,0,0,0,0,
645,-120.3,-35.61,-70.84,-41.17,-92.22,-92.18,-52.48,-19.57,-98.16,-21.85,-89.56,-83.92,-50.08,-43.43,-56.2,-50.97,0,0,0,0,0,0,0,0,0,0,0,0,0,0,0,0,
646,-104.4,-47.25,-87.01,-40.88,-99.93,-98.46,-55,-6.859,-91.34,-14.63,-81.39,-80.59,-60.58,-46.21,-64.56,-60.83,0,0,0,0,0,0,0,0,0,0,0,0,0,0,0,0,
647,-100.1,-56.28,-84.81,-39,-106.4,-102.6,-50.91,2.156,-98.05,-10.46,-76.86,-78.35,-62.83,-46.62,-72.04,-69.21,0,0,0,0,0,0,0,0,0,0,0,0,0,0,0,0,
648,-77.62,-52.79,-78.71,-24.92,-78.3,-76.14,-34.31,6.037,-68.16,-13.52,-66.22,-71.61,-77.53,-53.58,-78.07,-76.67,0,0,0,0,0,0,0,0,0,0,0,0,0,0,0,0,
649,-52.86,-74.52,-60.12,-15.66,-59.7,-58.37,-33.31,0.3111,-45.73,-27.38,-59.78,-69,-95.92,-62.47,-81.27,-78.11,0,0,0,0,0,0,0,0,0,0,0,0,0,0,0,0,
650,-53.02,-112.4,-50.67,-18.48,-67.86,-66.3,-51.27,-3.585,-61.71,-39.67,-57.37,-69.97,-96.13,-62.9,-75.9,-76.25,0,0,0,0,0,0,0,0,0,0,0,0,0,0,0,0,
651,-67.71,-123.6,-54.48,-21.97,-79.05,-78.89,-66.13,-2.25,-50.82,-46.14,-63.2,-79.33,-92.26,-63.43,-78.55,-79.68,0,0,0,0,0,0,0,0,0,0,0,0,0,0,0,0,
652,-73.3,-100.2,-39.61,-19.72,-85.98,-85.71,-61.07,3.039,-23.7,-36.82,-70.66,-83.86,-75.64,-50.66,-81.81,-68.67,0,0,0,0,0,0,0,0,0,0,0,0,0,0,0,0,
653,-68.6,-59.14,-31.48,-14.05,-88.54,-86.86,-47.65,9.508,-51.6,-16.51,-70.33,-77.55,-50.95,-28.55,-73.58,-53.16,0,0,0,0,0,0,0,0,0,0,0,0,0,0,0,0,
654,-77.98,-33.08,-61.51,-16.3,-91.3,-89.32,-50.92,1.398,-87.96,-8.382,-82.04,-87.92,-51.51,-24.72,-78.79,-65.52,0,0,0,0,0,0,0,0,0,0,0,0,0,0,0,0,
655,-103.9,-26.45,-70.03,-17.43,-89.07,-87.51,-56.42,-8.158,-77.65,-3.35,-105.1,-109.8,-53.88,-24.58,-96.58,-76.13,0,0,0,0,0,0,0,0,0,0,0,0,0,0,0,0,
656,-122.5,-13.33,-27.34,-7.477,-73.72,-72.69,-45.67,-1.16,-70.83,3.19,-113.3,-115.6,-45.75,-24.53,-101.1,-72.92,0,0,0,0,0,0,0,0,0,0,0,0,0,0,0,0,
657,-122.9,-6.28,-15.23,0.5405,-64.46,-63.23,-36.87,1.744,-80.14,-2.518,-106.8,-110.4,-53.85,-34.67,-95.13,-77.55,0,0,0,0,0,0,0,0,0,0,0,0,0,0,0,0,T1
658,-113.4,-21.59,-43.56,6.483,-79.44,-77.85,-43.52,-4.105,-83.1,-10.12,-100.9,-107.3,-59.87,-32.46,-88.91,-62.99,0,0,0,0,0,0,0,0,0,0,0,0,0,0,0,0,
659,-105.8,-35.14,-45.74,10.43,-94.3,-92.84,-52.58,-0.8768,-82.57,-13.05,-93.75,-98.47,-53.97,-24.63,-79.85,-42.07,0,0,0,0,0,0,0,0,0,0,0,0,0,0,0,0,
660,-89.95,-30.75,-38.56,8.202,-76.67,-75.83,-46.41,2.088,-60.86,-17.99,-74.88,-75.79,-51.45,-26.32,-62.71,-46.04,0,0,0,0,0,0,0,0,0,0,0,0,0,0,0,0,
661,-59.86,-21.42,-31.72,5.25,-55.86,-56.47,-38.1,-10.46,-47.98,-26.4,-56.75,-55.13,-43.8,-22.98,-44.04,-31.85,0,0,0,0,0,0,0,0,0,0,0,0,0,0,0,0,
662,-41.7,-25.68,-12.62,-4.513,-63.72,-64.31,-44.26,-20.57,-64.64,-35.1,-53.86,-49.96,-42.47,-27.14,-38.99,-12.46,0,0,0,0,0,0,0,0,0,0,0,0,0,0,0,0,
663,-38.56,-47.36,-24.13,-15.5,-66.25,-65.77,-47.86,-13.44,-43.96,-35.82,-54.96,-51.6,-55.9,-41.72,-50.14,-35.14,0,0,0,0,0,0,0,0,0,0,0,0,0,0,0,0,
664,-33.64,-73.48,-48.24,-15.95,-56.5,-56.21,-44.42,-6.634,-15.19,-34.86,-54.14,-54.04,-59.46,-42,-63.73,-57.07,0,0,0,0,0,0,0,0,0,0,0,0,0,0,0,0,
665,-23.93,-86.51,-38.47,-8.741,-52.03,-50.26,-32.14,3.22,-38.36,-37.68,-45.42,-46.35,-66.23,-45.74,-59.34,-62.22,0,0,0,0,0,0,0,0,0,0,0,0,0,0,0,0,
666,-4.056,-88.33,-17.35,13.67,-33.2,-29.85,-3.317,24.75,-46.79,-37.28,-29.54,-32.72,-96.99,-70.5,-46.27,-80.42,0,0,0,0,0,0,0,0,0,0,0,0,0,0,0,0,
667,13.96,-94.26,-1.669,34.03,-13,-12.12,9.401,28.23,-28.53,-39.91,-32.84,-37.97,-112.2,-84.38,-56.89,-88.69,0,0,0,0,0,0,0,0,0,0,0,0,0,0,0,0,
668,19.17,-84.22,1.579,25.4,-12.08,-12.36,1.923,21.17,-29.42,-36.8,-40.33,-38.99,-83.26,-67.09,-64.75,-71.15,0,0,0,0,0,0,0,0,0,0,0,0,0,0,0,0,
669,21.64,-40.53,-6.749,12.56,-13.91,-11.39,9.151,34.4,-32.21,-13.97,-28.18,-18.16,-41.65,-32.06,-40.77,-46.22,0,0,0,0,0,0,0,0,0,0,0,0,0,0,0,0,
670,14.52,5.55,2.891,16.44,-16.35,-12.78,25.93,47.4,-43.04,8.884,-33.95,-16.82,-11.57,1.435,-37.73,-26.79,0,0,0,0,0,0,0,0,0,0,0,0,0,0,0,0,
671,1.008,42.42,15.82,25.66,-11.31,-8.519,43.11,51.42,-64.74,20.91,-62.77,-36.47,7.695,13.97,-61.39,-24.61,0,0,0,0,0,0,0,0,0,0,0,0,0,0,0,0,
672,-5.668,72.82,-6.027,25.87,0.3505,3.392,52.06,56.51,-65.65,28.59,-74.66,-44.6,9.872,9.304,-57.3,-29.85,0,0,0,0,0,0,0,0,0,0,0,0,0,0,0,0,
673,-8.588,78.04,-30.68,11.67,-5.282,-3.761,35.2,50.41,-61.44,30.28,-66.44,-41.64,1.111,12.09,-45.65,-24.14,0,0,0,0,0,0,0,0,0,0,0,0,0,0,0,0,
674,-0.5464,65.57,-21.28,3.95,-17.77,-18.59,14.92,41.44,-64.55,25.59,-44.84,-27.41,-5.09,13.91,-36.63,-20.76,0,0,0,0,0,0,0,0,0,0,0,0,0,0,0,0,
675,13.1,53.9,-22.48,8.204,-28.5,-26.57,11.7,43.39,-56.74,19.24,-17.68,-4.636,-12.35,1.141,-1.944,-28.94,0,0,0,0,0,0,0,0,0,0,0,0,0,0,0,0,
676,17.59,46.74,-31.96,7.051,-38.78,-33.38,11.95,42.35,-47.97,17.09,-18.22,-5.77,-24.88,-7.507,-5.876,-40.81,0,0,0,0,0,0,0,0,0,0,0,0,0,0,0,0,
677,6.946,36.46,2.617,2.096,-40.49,-36.66,-1.588,27.63,-58.01,11.62,-51.89,-38.04,-37.61,-9.774,-64.26,-51.31,0,0,0,0,0,0,0,0,0,0,0,0,0,0,0,0,
678,-21.76,16.43,-2.642,-7.809,-46.4,-42.9,-26.21,8.627,-71.12,3.246,-71.03,-50.63,-32.17,-6.39,-67.92,-44.71,0,0,0,0,0,0,0,0,0,0,0,0,0,0,0,0,
679,-26.09,14.24,-66.16,-10.78,-42.17,-38.2,-33.13,3.225,-53.97,5.602,-56.1,-30.88,-21.08,-1.53,-36.85,-34.89,0,0,0,0,0,0,0,0,0,0,0,0,0,0,0,0,
680,-2.158,13.59,-50.61,5.189,-19.58,-19.48,-27.14,6.56,-26.44,-4.058,-43.73,-29.87,-48.79,-30.08,-51.08,-51.94,0,0,0,0,0,0,0,0,0,0,0,0,0,0,0,0,
681,-4.931,-26.25,-4.518,12.96,-13.35,-13.63,-23.02,9.806,-22.07,-26.06,-38.23,-34.85,-81.59,-67.64,-46.57,-60.1,0,0,0,0,0,0,0,0,0,0,0,0,0,0,0,0,
682,1.575,-48.79,0.2722,29.27,-1.08,2.555,7.564,34.8,-11.51,-20.36,-24.17,-15.63,-85.67,-74.1,-20.15,-52.5,0,0,0,0,0,0,0,0,0,0,0,0,0,0,0,0,
683,33.01,-42.64,42.33,74.93,27.73,30.69,48.28,73.41,9.464,-10.19,-17.72,-8.045,-110.8,-89.4,-33.35,-76.34,0,0,0,0,0,0,0,0,0,0,0,0,0,0,0,0,
684,26.13,-60.92,63.32,92.93,30.08,31.15,63.77,87.38,16.89,-20.35,-11.6,-8.182,-136.1,-114.9,-37.14,-102.6,0,0,0,0,0,0,0,0,0,0,0,0,0,0,0,0,
685,5.091,-60.51,42.15,86.99,32.64,33.63,71.43,87.01,26.73,-19.83,-12.13,-12.69,-125.4,-117.6,-41.01,-113.6,0,0,0,0,0,0,0,0,0,0,0,0,0,0,0,0,
686,-14.61,-34.4,66.56,102.6,43.28,43.25,72.99,89.22,15.41,-9.541,-41.05,-42.58,-113.5,-105.6,-65.24,-119,0,0,0,0,0,0,0,0,0,0,0,0,0,0,0,0,
687,-45.37,-23.38,37.63,85.09,14.26,15.89,69.17,72.96,-29.19,-1.83,-46.07,-36.25,-76.59,-67.69,-26.49,-69.77,0,0,0,0,0,0,0,0,0,0,0,0,0,0,0,0,
688,-27.26,4.891,-48.69,23.02,-16.82,-12.09,64.41,45.65,-36.17,4.735,-20.51,0.702,-32.17,-36.77,9.955,-26.46,0,0,0,0,0,0,0,0,0,0,0,0,0,0,0,0,
689,1.264,17.78,-31.47,5.89,-11.87,-8.95,28.38,34.19,-8.2,-6.479,-29.05,-18.8,-54.15,-62.7,-34.17,-63.57,0,0,0,0,0,0,0,0,0,0,0,0,0,0,0,0,
690,-24.41,-19.21,17.75,28.15,-3.064,-3.07,-9.255,18.6,3.971,-26.97,-39.73,-43.12,-73.05,-79.08,-40.88,-74.68,0,0,0,0,0,0,0,0,0,0,0,0,0,0,0,0,
691,-15.61,-18.63,-1.407,24.07,20.43,20.03,8.409,-12.14,37.77,-31.04,-11.63,-15.21,-36.34,-50.27,-10.92,-42.81,0,0,0,0,0,0,0,0,0,0,0,0,0,0,0,0,
692,40.81,21.66,2.974,15.14,68.49,65.82,36.44,-30.21,93.83,-27.43,11.4,5.842,-19.75,-35.99,-28.61,-49.84,0,0,0,0,0,0,0,0,0,0,0,0,0,0,0,0,
693,56.06,23.25,43.61,25.66,93,87.75,26.27,-40.63,111.9,-32.17,20.01,9.857,-27.92,-38.81,-24.53,-45.09,0,0,0,0,0,0,0,0,0,0,0,0,0,0,0,0,
694,56.93,8.928,44.47,34.54,93.55,89.42,15.79,-49.61,110.5,-38.46,31.85,23.08,-19.61,-29.56,4.841,-10.38,0,0,0,0,0,0,0,0,0,0,0,0,0,0,0,0,
695,82.55,15.81,32.4,39.94,103,99.18,25.54,-42.43,112,-37.29,33.62,30.63,-4.123,-12.46,-10.02,4.215,0,0,0,0,0,0,0,0,0,0,0,0,0,0,0,0,
696,95.16,22.5,54.87,36.33,107.3,102.5,29.12,-40.63,96.17,-35.81,33.03,36.62,10.73,1.492,-14.91,16.5,0,0,0,0,0,0,0,0,0,0,0,0,0,0,0,0,
697,95.14,23.39,68.99,25.92,103.7,100.5,32.65,-42.74,94.57,-34.92,50.57,55.51,19.8,6.194,17.25,28.57,0,0,0,0,0,0,0,0,0,0,0,0,0,0,0,0,
698,94.51,30.9,39.81,31.35,104.4,102,47.05,-27.03,109.2,-27.99,65.59,67.36,19.3,12.95,25.06,26.14,0,0,0,0,0,0,0,0,0,0,0,0,0,0,0,0,
699,73.88,45.52,9.141,35.61,99.64,95.79,54.78,-20.6,95.65,-21.72,60.25,62,26.26,22.35,21.45,22.42,0,0,0,0,0,0,0,0,0,0,0,0,0,0,0,0,
700,58.76,67.57,23.79,34.58,104.9,101.8,73.11,-16.53,84.66,-14.56,61.3,67.19,50.9,20.05,49.86,18.34,0,0,0,0,0,0,0,0,0,0,0,0,0,0,0,0,
701,74.94,94.71,63.67,54.31,120.9,119.4,111.5,6.637,87.74,-2.567,71.69,86.57,74.87,20.88,78.04,26.87,0,0,0,0,0,0,0,0,0,0,0,0,0,0,0,0,
702,86.24,117.9,60.49,66.86,114.6,113.2,127.5,13.58,69.96,4.482,65.52,91.64,80.46,32.2,77.11,47.23,0,0,0,0,0,0,0,0,0,0,0,0,0,0,0,0,
703,84.48,133.7,32.42,52.05,105.3,102.5,118.9,4.964,63.13,7.694,52.6,84.46,83.2,35.77,63.78,48.54,0,0,0,0,0,0,0,0,0,0,0,0,0,0,0,0,
704,91.68,137.3,53.94,41.26,108.9,104.6,110.2,-0.8677,68.91,8.682,39.07,76.12,93.53,39.62,44.34,42.7,0,0,0,0,0,0,0,0,0,0,0,0,0,0,0,0,
705,94.78,131.5,65.84,41.69,100.4,97.11,99.02,-17.01,56.88,7.967,21.44,64.64,103.2,57.11,36.84,59.75,0,0,0,0,0,0,0,0,0,0,0,0,0,0,0,0,
706,90.02,131.2,22.82,41.09,89.84,87.81,91.93,-23.92,56.2,12.8,26.92,65,117.1,65.87,58.69,81.29,0,0,0,0,0,0,0,0,0,0,0,0,0,0,0,0,
707,91.12,127.2,10.96,34.79,84.6,81.58,84.39,-19.27,52.83,10.27,53.82,80.37,120.7,49.94,70.07,76.44,0,0,0,0,0,0,0,0,0,0,0,0,0,0,0,0,
708,97.79,109,24.07,21.22,69.78,66.7,62.33,-35.11,42.93,-7.581,67.36,89.86,92.86,27.08,56.39,57.84,0,0,0,0,0,0,0,0,0,0,0,0,0,0,0,0,
709,103.7,88.55,11.06,7.63,60.43,58.71,45.01,-52.44,81.72,-22.27,67.61,92.12,66.49,10.96,61.71,56.11,0,0,0,0,0,0,0,0,0,0,0,0,0,0,0,0,
710,97.93,71.1,5.892,3.216,67.14,65.92,45.57,-45.96,108,-22.91,73.21,101.2,74.54,5.89,86.2,70.08,0,0,0,0,0,0,0,0,0,0,0,0,0,0,0,0,
711,86.49,66.55,6.075,11,71.62,69.47,46.42,-37.75,62.29,-15.88,78.68,106.2,85.31,8.376,89.77,72.94,0,0,0,0,0,0,0,0,0,0,0,0,0,0,0,0,
712,78.31,67.59,2.49,13.29,60.01,56.82,35.61,-43.7,34.74,-14.65,70.47,92.63,67.58,-2.067,70.07,52.23,0,0,0,0,0,0,0,0,0,0,0,0,0,0,0,0,
713,68.04,55.3,21.37,1.39,50.33,48.02,33.24,-46.18,52.82,-17.53,65.68,86.57,57.31,-12.31,59.19,39.11,0,0,0,0,0,0,0,0,0,0,0,0,0,0,0,0,
714,75.79,63.68,40.63,6.466,70.62,69.26,59.26,-31.38,60.01,-9.6,78.48,100.5,79.68,5.682,67.22,53.98,0,0,0,0,0,0,0,0,0,0,0,0,0,0,0,0,
715,103.1,97.2,38.3,26.89,102.2,99.43,83.7,-16.09,66.34,3.314,82.92,102.8,90.82,23,72.11,59.6,0,0,0,0,0,0,0,0,0,0,0,0,0,0,0,0,
716,108.5,99.92,28.94,24.97,106.4,102.1,76.47,-14.6,76,9.799,74.02,94.3,79.54,19.82,71.69,50.27,0,0,0,0,0,0,0,0,0,0,0,0,0,0,0,0,
717,97.41,82.31,28.73,13.29,92.75,89.56,63.81,-15.63,72.87,11.27,76.38,99.24,85.76,19.76,82.07,54.55,0,0,0,0,0,0,0,0,0,0,0,0,0,0,0,0,
718,110.9,83.91,52.7,24.08,102,100.8,75.43,-9.336,88.93,12.68,91.15,116.6,105,23.81,95.93,59.31,0,0,0,0,0,0,0,0,0,0,0,0,0,0,0,0,
719,138.4,88.2,74.8,36.81,124.9,122.1,88.48,-5.95,112.4,15.64,102.4,133.5,111.5,26.95,101.8,62.94,0,0,0,0,0,0,0,0,0,0,0,0,0,0,0,0,
720,137.9,82.58,47.37,18.45,108.3,103.5,70.81,-16.68,93.35,12.88,98.68,133.1,115.9,36.8,106.7,74.27,0,0,0,0,0,0,0,0,0,0,0,0,0,0,0,0,
721,114,82.53,8.857,-0.4742,73.76,71.43,49.84,-24.58,65.8,11.55,90.91,122,131.5,47.28,113.3,76.47,0,0,0,0,0,0,0,0,0,0,0,0,0,0,0,0,
722,96.86,88.03,17.76,9.141,70.94,69.52,47.24,-23.25,64.88,18.4,87.09,110.3,139.7,51.61,101.9,75.97,0,0,0,0,0,0,0,0,0,0,0,0,0,0,0,0,
723,66.6,75.46,14.28,-1.622,62.16,58.38,24.96,-39.1,56.26,13.37,68.84,82.36,122,51.84,75.4,79.61,0,0,0,0,0,0,0,0,0,0,0,0,0,0,0,0,
724,13.01,39.56,-25.82,-36.49,33.7,30.59,-10.26,-57.94,37.66,-0.0114,50.83,57.52,96.28,50.09,72.88,80.09,0,0,0,0,0,0,0,0,0,0,0,0,0,0,0,0,
725,-20.66,7.935,-12.58,-38.04,21.82,20.62,-18.99,-53.03,30.23,-4.848,55.29,58.65,78.64,43.83,87.83,82.85,0,0,0,0,0,0,0,0,0,0,0,0,0,0,0,0,
726,-23.62,0.0741,20.43,-28.12,17.93,16.79,-16.23,-51.82,32.46,-9.205,61.1,62.08,74.67,38,87.49,85.95,0,0,0,0,0,0,0,0,0,0,0,0,0,0,0,0,
727,-12.55,11.91,-10.31,-36.99,17.1,15.52,-13.95,-64.43,43.69,-12.38,63.98,63.02,92.58,43.85,87.72,92.24,0,0,0,0,0,0,0,0,0,0,0,0,0,0,0,0,
728,5.458,20.38,-45.09,-36.72,19.44,17.27,-6.68,-69,49.85,-15.06,74.32,72.08,106.8,47.12,93.87,96.28,0,0,0,0,0,0,0,0,0,0,0,0,0,0,0,0,
729,24.06,16.87,-46.34,-28.05,19.41,17.5,2.116,-64.38,53.85,-20.87,89.22,87.36,99.22,38.75,95.84,85.61,0,0,0,0,0,0,0,0,0,0,0,0,0,0,0,0,
730,49.12,27.37,-32.78,-24.3,32.46,30.09,13.34,-54.55,67.56,-16.99,99.88,99.72,91.92,36.38,99.53,80.9,0,0,0,0,0,0,0,0,0,0,0,0,0,0,0,0,
731,60.73,39.92,-17.56,-28.15,31.47,27.37,7.789,-48.77,65.08,-12.66,86.77,88.55,85.84,35.43,88.99,80.79,0,0,0,0,0,0,0,0,0,0,0,0,0,0,0,0,
732,45.21,29.86,-31.87,-42.7,5.898,2.498,-15.06,-55.13,60.78,-15.85,74.33,77.15,86.04,33.9,81.54,77.6,0,0,0,0,0,0,0,0,0,0,0,0,0,0,0,0,
733,48.87,37.37,-30.03,-48.91,5.843,3.642,-19.28,-57.52,78.06,-6.977,93.33,96.86,108.5,47.07,105.2,91.78,0,0,0,0,0,0,0,0,0,0,0,0,0,0,0,0,
734,67.5,68.94,-10.27,-49.25,16.96,13.85,-16.5,-52.27,77.73,5.379,101,110.5,125.8,56.63,113.7,96.56,0,0,0,0,0,0,0,0,0,0,0,0,0,0,0,0,
735,55.61,72.6,-61.65,-63.9,5.451,2.077,-35.37,-59.87,66.01,-1.532,94.53,109.5,124.8,50.41,111.2,85.65,0,0,0,0,0,0,0,0,0,0,0,0,0,0,0,0,
736,44.54,55.52,-95.6,-69.88,-0.4049,-3.661,-47.91,-76.43,76.06,-14.64,116.5,126,127.1,48.48,139,97.2,0,0,0,0,0,0,0,0,0,0,0,0,0,0,0,0,
737,62.57,58.53,-31.22,-45.86,14.68,11.04,-23.49,-69.61,87.73,-12.15,133.3,137.6,128.2,47.47,142.1,98.46,0,0,0,0,0,0,0,0,0,0,0,0,0,0,0,0,
738,75.18,70.9,-3.48,-19.21,31.34,28.22,6.907,-43.28,92.25,-3.473,119.8,125,112.7,33.81,112,71.79,0,0,0,0,0,0,0,0,0,0,0,0,0,0,0,0,
739,67.57,61.56,-37.42,-19.43,23.43,20.65,-1.051,-35.18,84.78,-7.109,104.9,107.9,87.45,19.66,104.3,57.39,0,0,0,0,0,0,0,0,0,0,0,0,0,0,0,0,
740,55.51,40.57,-30.5,-31.69,-0.7604,-3.863,-22.27,-39.06,60.3,-12.97,85.24,89.84,73.41,14.58,89,47.9,0,0,0,0,0,0,0,0,0,0,0,0,0,0,0,0,
741,44.57,30.15,-7.986,-31.42,0.0805,-2.084,-19.06,-36.54,51.64,-14.85,63.94,75.83,73.18,8.599,65.71,40.92,0,0,0,0,0,0,0,0,0,0,0,0,0,0,0,0,
742,38.66,17.93,-17.79,-24.69,14.02,12.24,-13.29,-44.06,56.22,-25.71,60.29,72.72,64.76,-0.5884,75.02,48.59,0,0,0,0,0,0,0,0,0,0,0,0,0,0,0,0,
743,40.25,1.207,-23.08,-20.16,4.053,0.481,-16.3,-53.14,40.96,-33.01,52.9,64.86,53.79,0.7742,75.54,46.2,0,0,0,0,0,0,0,0,0,0,0,0,0,0,0,0,
744,35.14,-5.952,-27.45,-26.18,-14.98,-18.3,-18.05,-49.79,23.13,-25.33,44.38,58.25,56.55,13.82,69.67,47.06,0,0,0,0,0,0,0,0,0,0,0,0,0,0,0,0,
745,24.3,-15.59,-60.1,-41.36,-22.44,-24.2,-28.22,-54.31,22.01,-21.66,56.1,63.93,49.25,20.8,89.89,64.01,0,0,0,0,0,0,0,0,0,0,0,0,0,0,0,0,
746,19.04,-28.11,-64.74,-39.59,-26.08,-29.06,-34.91,-62.41,17.9,-23.89,50.05,52.73,29.81,14.91,82.11,51.92,0,0,0,0,0,0,0,0,0,0,0,0,0,0,0,0,
747,5.529,-21.28,-25.58,-32.24,-22.62,-25.16,-20.85,-55.23,15.18,-18.31,27,33.06,36.86,13.84,60.65,27.31,0,0,0,0,0,0,0,0,0,0,0,0,0,0,0,0,
748,-6.306,-0.6902,-13.33,-35.86,-1.525,-2.251,-10.07,-47.76,33.21,-13.14,36.66,38.81,53.68,24.18,73.96,35.2,0,0,0,0,0,0,0,0,0,0,0,0,0,0,0,0,
749,-2.769,6.979,-21.34,-28.55,6.036,3.421,-20.98,-55.27,39.46,-17.54,43.75,36.91,40.96,25.79,66.49,39.23,0,0,0,0,0,0,0,0,0,0,0,0,0,0,0,0,
750,-10.88,-0.2693,-33.26,-32.63,-16.59,-19.4,-31.88,-66.74,19.67,-19.7,30.4,26.31,33.81,22.36,56.83,34.11,0,0,0,0,0,0,0,0,0,0,0,0,0,0,0,0,
751,-12.07,-1.875,-58.22,-55.91,-17.54,-18.38,-29.17,-70.76,23.53,-18.71,49.78,48.45,40.44,22.67,92.11,43.31,0,0,0,0,0,0,0,0,0,0,0,0,0,0,0,0,
752,14.67,-7.24,-37.44,-42.31,6.423,3.715,-30.53,-70.31,47.93,-27.18,68.72,59.86,6.281,0.7113,84.9,16.56,0,0,0,0,0,0,0,0,0,0,0,0,0,0,0,0,
753,24.46,-29.66,3.411,-6.57,9.934,5.2,-34.18,-64.78,55.07,-33.72,55.52,42.35,-31.27,-26.88,44.03,-26.97,0,0,0,0,0,0,0,0,0,0,0,0,0,0,0,0,
754,21.53,-39.24,-2.844,2.828,15.07,10.14,-21.3,-51.74,65.14,-29.36,64.59,49.29,-17.88,-20.05,66.17,-10.91,0,0,0,0,0,0,0,0,0,0,0,0,0,0,0,0,
755,30.57,-33.38,-2.128,3.038,33.68,28.37,-6.694,-41.46,78.88,-27.01,79.56,58.3,-8.477,-7.977,84.28,9.774,0,0,0,0,0,0,0,0,0,0,0,0,0,0,0,0,
756,22.31,-35.53,9.321,-3.75,28.43,24.17,-12.56,-44.32,68.26,-26.06,58.05,38.73,-16.44,-8.927,45.55,-6.454,0,0,0,0,0,0,0,0,0,0,0,0,0,0,0,0,
757,6.086,-30.33,-0.8383,-27.56,9.536,6.286,-29.66,-60.35,52.74,-25.91,35.83,28.47,-1.149,0.3757,27.02,-3.318,0,0,0,0,0,0,0,0,0,0,0,0,0,0,0,0,
758,10.79,-12.45,9.326,-31.07,10.93,7.601,-30.23,-69.56,52.61,-28.22,33.52,34.74,9.821,6.274,33.54,3.768,0,0,0,0,0,0,0,0,0,0,0,0,0,0,0,0,
759,13.82,0.4653,18.31,-12.92,22.95,19.4,-17.22,-61.86,50.62,-26.34,34.65,32.7,-3.117,-4.717,26.81,-15.31,0,0,0,0,0,0,0,0,0,0,0,0,0,0,0,0,
760,-4.424,-2.667,0.469,-21.95,14.99,10.04,-29,-67.84,34.19,-31.83,29.75,20.09,-17.32,-18.34,23.62,-29.88,0,0,0,0,0,0,0,0,0,0,0,0,0,0,0,0,
761,-28.72,-25.88,2.141,-43.92,-5.227,-10.26,-49.13,-83.34,16.6,-41.42,15.59,6.604,-28.1,-25.87,20.84,-33.15,0,0,0,0,0,0,0,0,0,0,0,0,0,0,0,0,
762,-43.41,-43.14,2.389,-38.2,-8.654,-11.13,-41.43,-76.57,11.45,-38.25,3.074,-3.539,-33.72,-19.95,8.687,-30.29,0,0,0,0,0,0,0,0,0,0,0,0,0,0,0,0,
763,-51.68,-43.04,-27.55,-32.18,-9.358,-10.31,-40.77,-72.69,10.59,-39.03,7.381,-4.853,-34.24,-10.69,18.67,-22.51,0,0,0,0,0,0,0,0,0,0,0,0,0,0,0,0,
764,-46.21,-50.76,-28.97,-43.41,-16.99,-18.31,-55.28,-83.71,9.009,-48.03,25.39,10.29,-35.12,-16.06,49.79,-14.41,0,0,0,0,0,0,0,0,0,0,0,0,0,0,0,0,
765,-20.14,-61.23,0.5005,-50.35,-12.27,-14.76,-52.67,-87.63,13.22,-54.92,34.06,23.1,-35.17,-23.79,53.85,-3.738,0,0,0,0,0,0,0,0,0,0,0,0,0,0,0,0,
766,-2.779,-61.26,-7.912,-53.76,-6.963,-10.18,-46.82,-92.08,22.71,-66.32,29.88,21.45,-38.48,-25.19,37.88,-9.827,0,0,0,0,0,0,0,0,0,0,0,0,0,0,0,0,
767,-0.1562,-59.68,-27.83,-46.12,-6.838,-9.063,-41.9,-90.68,32.67,-71.29,36.64,26.45,-45.95,-33.41,43.94,-29.02,0,0,0,0,0,0,0,0,0,0,0,0,0,0,0,0,
768,10.42,-58.5,-5.531,-27.94,7.684,6.076,-28.64,-78.97,37.6,-67.51,46.64,32.07,-50.23,-43.21,53.38,-24.93,0,0,0,0,0,0,0,0,0,0,0,0,0,0,0,0,
769,21.79,-60.65,20.94,-24.06,28.33,25.47,-23.65,-80.85,40.85,-71.21,46.56,30.16,-47.45,-41.47,55.97,-9.568,0,0,0,0,0,0,0,0,0,0,0,0,0,0,0,0,
770,25.67,-66.04,35.47,-27.4,28.69,25.38,-32,-85.95,43.24,-73.42,48.41,36.44,-38.77,-36.15,75.35,-4.208,0,0,0,0,0,0,0,0,0,0,0,0,0,0,0,0,
771,19.09,-64.51,33.37,-40.21,2.575,0.6616,-49.81,-82.71,30.61,-67.66,42.42,35.99,-27.52,-27.65,75.44,1.864,0,0,0,0,0,0,0,0,0,0,0,0,0,0,0,0,
772,-3.332,-50.79,-13.25,-63.31,-22.72,-24.6,-61.23,-81.71,7.559,-60.09,23.41,18.91,-15.37,-10.46,34.52,5.354,0,0,0,0,0,0,0,0,0,0,0,0,0,0,0,0,
773,-30.22,-31.21,-44.38,-58.11,-32.14,-34.97,-53.31,-73.84,-9.839,-49.15,7.608,4.701,-2.876,1.756,11.71,7.761,0,0,0,0,0,0,0,0,0,0,0,0,0,0,0,0,
774,-48.13,-16.13,-32.68,-41.45,-39.48,-40.81,-46.33,-60.92,-13.9,-35.89,-1.308,3.275,16.17,13.91,24.66,22.57,0,0,0,0,0,0,0,0,0,0,0,0,0,0,0,0,
775,-43.23,-0.3108,-31.05,-47.76,-35.13,-35.06,-41.64,-57.19,-5.089,-23.88,-2.532,12.32,34.45,32.17,27.72,32.87,0,0,0,0,0,0,0,0,0,0,0,0,0,0,0,0,
776,-29.32,11.22,-19.23,-46.86,-23.07,-23.87,-29.69,-55.52,-6.351,-20.01,-0.9352,16.38,31.44,30.62,16.82,26.86,0,0,0,0,0,0,0,0,0,0,0,0,0,0,0,0,
777,-28.55,7.294,1.864,-25.09,-22.93,-23.76,-18.12,-44.93,-13.54,-21.44,5.514,17.69,27.85,21.48,20.88,27,0,0,0,0,0,0,0,0,0,0,0,0,0,0,0,0,
778,-8.56,9.663,2.923,-4.215,-8.31,-8.112,-2.013,-29.97,1.173,-19.14,22.08,29.23,31.42,24.44,26.07,23.78,0,0,0,0,0,0,0,0,0,0,0,0,0,0,0,0,
779,23.23,10.15,19,2.211,21.1,21.67,9.02,-25.09,16.98,-24.67,28.64,32.81,5.325,9.121,20.34,-5.812,0,0,0,0,0,0,0,0,0,0,0,0,0,0,0,0,
780,22.88,-14.77,33.57,-0.4457,30.47,29.91,5.173,-29.58,20.77,-37.96,30.31,31.07,-28,-16.6,28.78,-28.55,0,0,0,0,0,0,0,0,0,0,0,0,0,0,0,0,
781,20.71,-34.1,27.22,2.387,28.71,27.19,2.636,-35.82,28.1,-43.96,40.94,35.62,-36.83,-26.19,32.43,-34.82,0,0,0,0,0,0,0,0,0,0,0,0,0,0,0,0,
782,23.8,-43.06,36.86,-2.01,27.37,27.54,-3.074,-48.06,32.27,-46.28,36.72,26.61,-44.68,-33.09,14.5,-46.12,0,0,0,0,0,0,0,0,0,0,0,0,0,0,0,0,
783,4.902,-58.73,36.99,-15.87,20.58,20.29,-17.56,-56.2,33.86,-46.21,18.62,9.84,-48.53,-29.89,10.36,-36.98,0,0,0,0,0,0,0,0,0,0,0,0,0,0,0,0,
784,-11.5,-63.96,12.03,-19.44,13.27,9.935,-32.45,-54.64,23.91,-44.37,1.017,-6.684,-48.6,-19.02,0.2702,-23.84,0,0,0,0,0,0,0,0,0,0,0,0,0,0,0,0,
785,-27.53,-68.14,4.539,-23.89,7.515,5.787,-47.28,-55.59,-7.137,-43.11,-15.95,-27.65,-54.77,-21.58,-22.69,-35.22,0,0,0,0,0,0,0,0,0,0,0,0,0,0,0,0,
786,-49.82,-67.51,10.17,-26.61,5.044,5.472,-48.4,-49.65,-19.3,-30.6,-17.11,-27.9,-33.99,-10.13,-6.159,-20.24,0,0,0,0,0,0,0,0,0,0,0,0,0,0,0,0,
787,-43.08,-28.86,11.45,-16.63,9.432,8.517,-30.82,-33.59,-4.655,-11.89,-9.945,-10.04,5.753,22.62,10.42,6.709,0,0,0,0,0,0,0,0,0,0,0,0,0,0,0,0,
788,-21.15,15.43,33.3,-15.61,20.35,19.48,-12.75,-26.86,2.295,-4.462,-12.34,-5.325,22.62,37.83,-9.933,0.9663,0,0,0,0,0,0,0,0,0,0,0,0,0,0,0,0,
789,-15.15,25.22,67.39,-15.07,28.37,27.46,-5.359,-27.1,2.275,-4.471,-13.37,-9.405,22.45,33.12,-12.99,7.678,0,0,0,0,0,0,0,0,0,0,0,0,0,0,0,0,
790,-13.1,18.26,51.15,-4.453,21.88,20.49,-12.47,-23.53,1.763,-0.9313,-7.886,-7.065,14.81,26.91,-4.255,16.8,0,0,0,0,0,0,0,0,0,0,0,0,0,0,0,0,
791,-11.18,3.232,-5.495,-13.14,6.904,6.906,-27.79,-25.37,-1.45,1.763,-1.978,-2.917,-6.187,14.87,-9.643,-10.83,0,0,0,0,0,0,0,0,0,0,0,0,0,0,0,0,
792,-19.69,-23.08,-24.57,-31.13,-11.49,-11.29,-39.06,-35.73,-3.337,-6.939,-4.461,-10.83,-32.31,-4.655,-10.71,-26.25,0,0,0,0,0,0,0,0,0,0,0,0,0,0,0,0,
793,-30.86,-38.61,-9.252,-25.1,-23.38,-23.1,-40.09,-35.41,-4.045,-13.83,-11.53,-20.94,-41.39,-10.32,-13.16,-16.28,0,0,0,0,0,0,0,0,0,0,0,0,0,0,0,0,
794,-27.47,-33.02,3.453,-4.671,-10.72,-10.12,-31.92,-17.17,2.097,-6.842,-3.87,-11.01,-26.72,1.588,-8.509,-18.73,0,0,0,0,0,0,0,0,0,0,0,0,0,0,0,0,
795,-12.2,-26.07,15.1,11.41,7.152,5.561,-24.09,1.243,14.33,-4.683,10.85,5.974,-14.45,2.554,14.66,-24.94,0,0,0,0,0,0,0,0,0,0,0,0,0,0,0,0,
796,4.073,-15.59,30.76,20.73,17.45,14.94,-10.21,11.47,26.97,-7.087,21.96,19.86,-8.675,-2.52,26.66,-14.07,0,0,0,0,0,0,0,0,0,0,0,0,0,0,0,0,
797,26.02,12.41,64.72,31.71,39.31,37.43,16.2,17.05,37.07,2.308,31.79,35.08,6.717,9.116,24.18,4.809,0,0,0,0,0,0,0,0,0,0,0,0,0,0,0,0,
798,43.76,36.65,79.23,52.85,53.65,51.22,30.49,23.22,29.98,17.54,28.68,36.43,20.73,21.67,24.02,16.36,0,0,0,0,0,0,0,0,0,0,0,0,0,0,0,0,
799,40.52,47.81,41.91,57.15,38.06,36.51,21.6,28.06,18.49,29.65,24.47,30.26,26.92,28.25,24.56,23.45,0,0,0,0,0,0,0,0,0,0,0,0,0,0,0,0,
800,27.02,52.12,29.91,27.58,22.48,21.81,5.688,16.74,29.91,28.29,31.6,27.41,19.04,33.22,20.93,20.33,0,0,0,0,0,0,0,0,0,0,0,0,0,0,0,0,
801,11.02,30.6,60.18,20.21,31.84,29.63,-6.354,8.588,42.21,15.65,21.36,4.781,-11.91,21.61,2.673,-6.073,0,0,0,0,0,0,0,0,0,0,0,0,0,0,0,0,
802,-13.82,-6.172,76.81,51.23,42.74,39.79,-15.09,23.84,34.96,9.623,-8.166,-30.7,-37.88,4.735,-21.09,-26.25,0,0,0,0,0,0,0,0,0,0,0,0,0,0,0,0,
803,-37.37,-24.56,81.54,57.49,34.23,32.09,-21.24,26.08,28.53,5.055,-20.98,-40.64,-40.02,5.949,-20.85,-18.91,0,0,0,0,0,0,0,0,0,0,0,0,0,0,0,0,
804,-35.59,-26.1,74.89,45.02,33.32,31.72,-12.55,16.05,32.37,-0.3473,-6.95,-24.91,-34.91,12.72,-3.824,-8.724,0,0,0,0,0,0,0,0,0,0,0,0,0,0,0,0,
805,-9.976,-19.71,76.35,47.46,46.15,44.59,2.242,25.91,34.68,-0.7482,8.43,-15.45,-33.45,9.574,0.3244,-4.266,0,0,0,0,0,0,0,0,0,0,0,0,0,0,0,0,
806,5.139,-16.08,93.75,41.26,41.28,39.07,-2.027,31.29,29.51,-8.439,6.577,-19.23,-35.15,2.703,-4.513,-0.9192,0,0,0,0,0,0,0,0,0,0,0,0,0,0,0,0,
807,-0.3162,-26.22,75.44,41.4,33.22,30.11,-9.499,25.33,26.51,-15.59,6.175,-12.54,-31.76,0.1074,2.742,1.344,0,0,0,0,0,0,0,0,0,0,0,0,0,0,0,0,
808,-1.233,-31.58,57.05,57.89,40.22,37.22,-6.66,29.32,35.14,-8.473,20.44,5.17,-17.59,6.362,18.51,13.18,0,0,0,0,0,0,0,0,0,0,0,0,0,0,0,0,
809,13.31,-20.15,85.07,57.29,46.98,44.61,-2.412,34.06,47.79,1.558,28.01,11.31,-1.563,22.14,27.54,32.18,0,0,0,0,0,0,0,0,0,0,0,0,0,0,0,0,
810,27.39,-12.74,108.1,63.5,56.8,53.8,7.045,37.17,54.79,6.681,15.22,2.135,-3.996,28.05,22.55,33.5,0,0,0,0,0,0,0,0,0,0,0,0,0,0,0,0,
811,19.31,-23.42,105.9,80.34,61.1,56.92,2.52,33.01,51.17,-0.6762,-7.297,-16.49,-34.98,7.997,4.238,6.476,0,0,0,0,0,0,0,0,0,0,0,0,0,0,0,0,
812,-0.5434,-34.04,92.12,65.53,49.91,46.02,-17.68,15.88,36.26,-15.8,-18.2,-32.44,-58.68,-10.84,-6.65,-16.65,0,0,0,0,0,0,0,0,0,0,0,0,0,0,0,0,
813,-2.139,-22.27,91.22,50.18,48.62,46.01,-6.115,19.09,27.38,-11.74,-7.068,-26.49,-43.64,-4.779,5.059,-9.88,0,0,0,0,0,0,0,0,0,0,0,0,0,0,0,0,
814,11.31,5.012,111.5,67.1,57.59,55.61,30.62,47.88,33.75,9.558,5.53,-9.935,-16.85,8.876,16.26,3.997,0,0,0,0,0,0,0,0,0,0,0,0,0,0,0,0,
815,23.21,29.83,99.19,88.26,59.28,57.18,46.12,65.06,37.41,23.32,-0.7675,-12.14,-1.7,19.85,5.066,9.855,0,0,0,0,0,0,0,0,0,0,0,0,0,0,0,0,
816,21.18,38.32,79.82,95.18,58.42,56.56,41.44,61.65,34.57,25.11,-15.08,-26.34,1.39,27.86,-15.64,10.67,0,0,0,0,0,0,0,0,0,0,0,0,0,0,0,0,
817,0.1236,23.12,94.99,84.91,56.08,54.2,33.48,49.7,37.25,20.61,-18.31,-28.29,-7.244,24.99,-18.51,7.43,0,0,0,0,0,0,0,0,0,0,0,0,0,0,0,0,
818,-11.72,3.937,77.75,68.14,46.88,44.04,21.86,35.11,38.63,12.16,-14.09,-27.04,-14.47,17.45,-3.946,7.542,0,0,0,0,0,0,0,0,0,0,0,0,0,0,0,0,
819,-7.103,-3.869,52.77,61.91,33,31.67,5.289,23.35,35.16,3.552,-14.99,-34.5,-21.96,10.98,-4.581,-7.372,0,0,0,0,0,0,0,0,0,0,0,0,0,0,0,0,
820,-9.768,-11.21,81.42,58.54,26.36,28.14,-8.223,15.61,37.05,-1.772,-8.605,-28.77,-33.75,3.482,-11.06,-28.15,0,0,0,0,0,0,0,0,0,0,0,0,0,0,0,0,
821,-3.816,-9.936,85.61,51.43,30.02,30.59,-7.323,10.19,43.08,-1.543,18.19,1.073,-22.41,7.201,16.95,-3.412,0,0,0,0,0,0,0,0,0,0,0,0,0,0,0,0,
822,20.16,10.54,42.85,49.17,27.32,24.95,2.832,9.898,45.78,7.074,41.82,31.65,9.58,22.54,52.65,33.3,0,0,0,0,0,0,0,0,0,0,0,0,0,0,0,0,
823,30.06,25.42,22.3,48.69,17.6,15.48,5.337,10.38,37.75,14.86,38.19,40.28,23.46,26.38,53.87,32.72,0,0,0,0,0,0,0,0,0,0,0,0,0,0,0,0,
824,23.12,20.82,22.99,39.42,13.67,11.86,-2.117,1.57,24.81,8.346,23.68,30.16,15.54,19.07,42.63,31.99,0,0,0,0,0,0,0,0,0,0,0,0,0,0,0,0,
825,19.06,13.13,23.88,30.04,8.932,6.526,-11.49,-6.559,23.48,1.477,18.12,17.24,2.829,21.13,38.83,41.26,0,0,0,0,0,0,0,0,0,0,0,0,0,0,0,0,
826,7.322,6.788,25.55,31.72,-4.037,-5.493,-23.63,-3.06,19.74,6.729,4.912,-3.908,-16.07,23.46,28.25,33.94,0,0,0,0,0,0,0,0,0,0,0,0,0,0,0,0,
827,-21.49,-3.689,21.47,30.33,-13.27,-14.17,-32.63,1.388,3.851,7.761,-21.64,-35.35,-39.07,12.56,8.423,16.68,0,0,0,0,0,0,0,0,0,0,0,0,0,0,0,0,
828,-41.36,-13.27,23.41,23.55,-12.14,-13.19,-28.04,3.131,-6.092,0.0105,-36.38,-52.46,-53.07,6.406,-8.996,1.817,0,0,0,0,0,0,0,0,0,0,0,0,0,0,0,0,
829,-38.01,-16.92,31.42,28.11,-10.5,-9.233,-18.8,4.338,-13.59,-4.667,-35.37,-51.32,-50.43,9.059,-11.25,-1.46,0,0,0,0,0,0,0,0,0,0,0,0,0,0,0,0,
830,-28.63,-6.216,30.21,42.08,-1.799,0.8767,-2.329,5.72,-13.32,-1.174,-24.84,-40.2,-29.47,7.061,4.478,7.409,0,0,0,0,0,0,0,0,0,0,0,0,0,0,0,0,
831,-27.35,12.31,32.95,54.08,9.258,8.792,17.35,8.966,-3.658,3.457,-13.52,-24.49,-4.563,9.158,16.65,16.24,0,0,0,0,0,0,0,0,0,0,0,0,0,0,0,0,
832,-42.31,12.26,29.28,54.35,-8.085,-9.867,8.971,1.479,-16.31,-1.075,-20.1,-20.76,6.948,18.94,14.39,20.6,0,0,0,0,0,0,0,0,0,0,0,0,0,0,0,0,
833,-53.97,13.48,4.537,48.52,-24.83,-24.26,-0.2461,-7.027,-26.39,-0.8218,-19.72,-14.16,12.63,22.95,20.45,17.64,0,0,0,0,0,0,0,0,0,0,0,0,0,0,0,0,
834,-32.45,38.91,8.807,47.44,-8.937,-7.998,19.48,5.114,-5.515,8.988,7.289,9.538,15.06,19.87,38.22,16.07,0,0,0,0,0,0,0,0,0,0,0,0,0,0,0,0,
835,1.16,48.39,41.39,38.64,6.603,7.273,26.91,15.18,14.48,7.549,28.79,28.17,12.7,17.5,47.72,32.55,0,0,0,0,0,0,0,0,0,0,0,0,0,0,0,0,
836,32.56,39.99,45.94,38.23,27.53,27.85,29.05,16.94,37.29,7.292,40.94,41.34,20.73,20.33,52.09,49.42,0,0,0,0,0,0,0,0,0,0,0,0,0,0,0,0,
837,58.4,42.56,39.66,56.07,47.22,45.34,41.33,28.86,48.16,17.49,43.39,40.6,25.76,22.36,52.04,39.89,0,0,0,0,0,0,0,0,0,0,0,0,0,0,0,0,
838,42.8,34.54,39.54,45.37,24.06,22.3,26.5,34.64,17.62,18.35,23.34,16.53,20.18,20.81,37.12,31.83,0,0,0,0,0,0,0,0,0,0,0,0,0,0,0,0,
839,17.42,26.66,35.92,22.58,10.25,9.632,16.53,34.48,4.482,21.85,13.07,10.89,35.69,28.99,24.48,58.15,0,0,0,0,0,0,0,0,0,0,0,0,0,0,0,0,
840,29.59,45.23,37.52,27.75,27.02,26,36.43,42.52,14.46,34.16,17.63,21.91,55.15,42.65,23.9,71.46,0,0,0,0,0,0,0,0,0,0,0,0,0,0,0,0,
841,36.29,58.85,22.37,24.73,20.06,20.2,37.11,43.14,-1.455,34.89,10.64,13.08,46.64,44.22,14.11,39.2,0,0,0,0,0,0,0,0,0,0,0,0,0,0,0,0,
842,30.02,54.11,9.458,16.94,15.4,15.92,26.94,38.59,-7.299,30.22,3.957,3.416,34.31,37.34,-1.149,18.18,0,0,0,0,0,0,0,0,0,0,0,0,0,0,0,0,
843,33.71,42.91,28.28,28.67,22.47,22.68,28.72,41.05,-1.088,29.07,-2.077,-0.7289,23.71,31.04,1.29,19.42,0,0,0,0,0,0,0,0,0,0,0,0,0,0,0,0,
844,15.43,30.56,21.25,27.67,4.16,6.658,21.58,42.15,-17.55,28.61,-15.24,-16.41,7.583,31.89,7.118,7.234,0,0,0,0,0,0,0,0,0,0,0,0,0,0,0,0,
845,-16.45,34.13,-3.844,12.73,-5.787,-3.251,9.992,40.3,-19.62,32.02,-16.2,-22.9,11.89,42.23,2.705,5.464,0,0,0,0,0,0,0,0,0,0,0,0,0,0,0,0,
846,-24.74,42.08,-2.087,-0.4414,0.0352,-0.2998,-2.035,34.48,-4.245,32.62,-2.091,-9.122,26.36,41.91,9.953,16.11,0,0,0,0,0,0,0,0,0,0,0,0,0,0,0,0,
847,-28.1,23.05,-7.024,-21.07,-20.59,-21.88,-24.61,21.04,-12.88,22.14,4.968,-6.403,10.52,21.31,19.68,5.825,0,0,0,0,0,0,0,0,0,0,0,0,0,0,0,0,
848,-42.03,-11.37,-10.57,-34.13,-42.68,-43.22,-39.63,13.24,-24.55,11.02,-2.099,-21.11,-11.39,11.31,13.53,-0.3263,0,0,0,0,0,0,0,0,0,0,0,0,0,0,0,0,
849,-35.59,-21.02,-1.026,-21.17,-23.45,-23.35,-25.86,20.04,-5.324,15.09,3.649,-15.04,4.438,25.26,16.11,13.76,0,0,0,0,0,0,0,0,0,0,0,0,0,0,0,0,
850,-2.754,-3.118,-3.051,1.668,4.225,3.147,-5.401,26.09,15.49,21.59,19.13,-0.6591,13.67,24.42,14.54,10.17,0,0,0,0,0,0,0,0,0,0,0,0,0,0,0,0,
851,4.38,-5.037,5.205,8.246,-3.235,-5.334,-15.03,23.37,6.851,9.818,8.969,-15.98,-19.49,-0.151,-2.393,-7.557,0,0,0,0,0,0,0,0,0,0,0,0,0,0,0,0,
852,-16.21,-26.02,7.468,2.686,-12.61,-13.68,-32.56,24.5,1.513,2.804,3.022,-21.01,-30.86,-4.785,13.22,-3.736,0,0,0,0,0,0,0,0,0,0,0,0,0,0,0,0,
853,-16.5,-18.55,-19.84,1.162,-3.798,-5.714,-29.49,23.8,8.388,14.19,12.31,-10.15,-12.49,8.756,26.76,0.1126,0,0,0,0,0,0,0,0,0,0,0,0,0,0,0,0,
854,-25.6,-6.123,-30.69,-6.395,-19.94,-22.84,-34.45,12.58,-11.57,16.5,-13.03,-34.3,-20.63,8.353,-10,-14.45,0,0,0,0,0,0,0,0,0,0,0,0,0,0,0,0,
855,-58.83,-17.53,-29.17,-17.81,-47.92,-48.88,-46.42,8.275,-34.19,9.99,-38.78,-54.18,-28.63,4.273,-23.03,-9.761,0,0,0,0,0,0,0,0,0,0,0,0,0,0,0,0,
856,-58.22,-23.29,-40.19,-16.24,-47.25,-47.2,-41.65,8.512,-29.07,7.494,-28.34,-40.14,-20.73,3.174,-1.221,6.28,0,0,0,0,0,0,0,0,0,0,0,0,0,0,0,0,
857,-37.88,-23.24,-27.54,-3.709,-31.17,-30.57,-34.59,4.154,-25.98,4.062,-22.22,-34.42,-27.5,-0.1202,-7.223,1.744,0,0,0,0,0,0,0,0,0,0,0,0,0,0,0,0,
858,-34.9,-19.74,8.836,15.38,-12.08,-10.79,-21.93,11.35,-21.62,6.736,-14.12,-26.91,-22.71,3.753,-15.32,0.9466,0,0,0,0,0,0,0,0,0,0,0,0,0,0,0,0,
859,-28.38,3.67,17.31,25.97,-5.66,-5.794,1.96,24.74,-7.575,14.56,-5.864,-18.47,-5.925,8.539,-14.84,3.813,0,0,0,0,0,0,0,0,0,0,0,0,0,0,0,0,
860,-34.92,18.89,-8.204,25.8,-22.85,-22.7,13.93,31.64,-16.5,16.68,-37.81,-48.04,-11.73,13.28,-35.18,-2.719,0,0,0,0,0,0,0,0,0,0,0,0,0,0,0,0,
