%OpenBCI Raw EXG Data
%Number of channels = 16
%Sample Rate = 125 Hz
%Board = OpenBCI_GUI$BoardCytonSerialDaisy
Sample Index,EXG Channel 0,EXG Channel 1,EXG Channel 2,EXG Channel 3,EXG Channel 4,EXG Channel 5,EXG Channel 6,EXG Channel 7,EXG Channel 8,EXG Channel 9,EXG Channel 10,EXG Channel 11,EXG Channel 12,EXG Channel 13,EXG Channel 14,EXG Channel 15,Accel Channel 0,Accel Channel 1,Accel Channel 2,Other,Other.1,Other.2,Other.3,Other.4,Other.5,Other.6,Analog Channel 0,Analog Channel 1,Analog Channel 2,Timestamp,Other.7,Timestamp (Formatted),Annotations
1,-0.0,-0.0,-0.0,0.0,0.0,0.0,-0.0,-0.0,-0.0,-0.0,0.0,0.0,-0.0,-0.0,-0.0,-0.0,0,0,0,0,0,0,0,0,0,0,0,0,0,0,0,0,T0
2,-38.16,-0.2282,35.35,67.68,47.83,54.56,84.56,104.3,-86.09,-64.75,116.1,143.1,111.4,124.0,152.5,150.6,0,0,0,0,0,0,0,0,0,0,0,0,0,0,0,0,
3,-9.125,5.17,12.07,32.0,15.99,19.9,27.83,43.94,-40.03,-29.06,42.32,54.05,31.4,39.0,56.13,51.46,0,0,0,0,0,0,0,0,0,0,0,0,0,0,0,0,
4,-24.6,-8.063,-6.527,19.13,-1.115,3.919,17.22,35.37,-64.44,-54.09,35.72,55.02,24.02,34.26,59.87,56.53,0,0,0,0,0,0,0,0,0,0,0,0,0,0,0,0,
5,-39.62,0.4622,14.94,45.31,25.28,29.19,57.05,78.12,-85.55,-68.61,82.82,112.4,75.29,86.32,117.1,113.9,0,0,0,0,0,0,0,0,0,0,0,0,0,0,0,0,
6,-24.87,3.557,8.52,21.97,13.5,13.5,28.08,43.56,-46.99,-38.9,41.81,61.55,37.69,43.62,62.96,57.71,0,0,0,0,0,0,0,0,0,0,0,0,0,0,0,0,
7,-33.18,-6.241,2.711,19.99,8.82,11.7,28.84,46.29,-65.54,-59.68,50.07,73.39,46.61,54.38,83.75,76.41,0,0,0,0,0,0,0,0,0,0,0,0,0,0,0,0,
8,-23.54,11.35,18.69,42.37,26.22,31.24,49.16,67.93,-64.59,-57.61,71.43,93.39,66.79,71.39,104.5,93.07,0,0,0,0,0,0,0,0,0,0,0,0,0,0,0,0,
9,-20.5,7.352,2.115,27.31,7.843,16.04,22.42,40.53,-57.61,-53.48,37.48,55.12,30.72,35.05,65.34,53.42,0,0,0,0,0,0,0,0,0,0,0,0,0,0,0,0,
10,-27.55,4.678,6.037,37.97,13.09,24.45,32.57,52.08,-79.57,-71.5,53.06,71.05,41.13,50.08,86.14,75.06,0,0,0,0,0,0,0,0,0,0,0,0,0,0,0,0,
11,-8.822,19.66,22.6,47.64,28.0,33.16,44.25,57.89,-65.27,-62.54,60.68,68.47,44.18,47.19,81.92,68.17,0,0,0,0,0,0,0,0,0,0,0,0,0,0,0,0,
12,-8.683,7.489,6.917,26.9,12.21,11.79,28.31,39.61,-67.6,-75.4,40.78,48.12,25.56,24.06,61.48,48.27,0,0,0,0,0,0,0,0,0,0,0,0,0,0,0,0,
13,-5.057,14.78,14.86,39.67,21.35,23.86,43.72,58.37,-75.42,-79.54,58.49,69.28,46.54,44.33,83.64,69.69,0,0,0,0,0,0,0,0,0,0,0,0,0,0,0,0,
14,7.162,23.37,15.25,42.13,19.62,26.95,39.73,52.85,-62.36,-61.72,53.16,59.09,43.59,39.88,74.84,55.82,0,0,0,0,0,0,0,0,0,0,0,0,0,0,0,0,
15,-6.522,10.24,5.168,33.66,10.8,17.19,32.01,47.21,-67.34,-64.29,48.7,59.07,40.61,42.9,72.66,57.63,0,0,0,0,0,0,0,0,0,0,0,0,0,0,0,0,
16,-6.25,18.27,22.61,45.98,28.67,30.76,46.56,67.18,-55.94,-47.53,61.89,79.65,54.85,64.77,79.86,74.82,0,0,0,0,0,0,0,0,0,0,0,0,0,0,0,0,
17,-4.538,11.15,12.38,33.65,16.94,21.12,31.6,55.31,-54.55,-40.71,44.97,68.17,39.78,53.89,66.89,61.83,0,0,0,0,0,0,0,0,0,0,0,0,0,0,0,0,
18,-14.72,4.765,2.178,31.26,8.477,15.27,28.15,55.69,-70.44,-49.62,46.39,72.43,41.63,56.17,79.04,68.56,0,0,0,0,0,0,0,0,0,0,0,0,0,0,0,0,
19,-16.54,13.33,5.406,35.06,11.81,15.61,29.26,58.08,-64.65,-44.38,46.55,73.18,42.04,54.63,76.79,69.14,0,0,0,0,0,0,0,0,0,0,0,0,0,0,0,0,
20,-22.55,-0.7265,-5.85,20.44,0.3501,0.9575,17.5,45.69,-74.73,-60.09,34.69,67.21,30.55,43.19,68.43,66.07,0,0,0,0,0,0,0,0,0,0,0,0,0,0,0,0,
21,-11.28,3.334,11.03,34.79,16.81,12.78,33.42,58.86,-73.84,-59.34,49.52,75.41,41.18,48.41,75.34,70.3,0,0,0,0,0,0,0,0,0,0,0,0,0,0,0,0,
22,-3.007,5.614,15.17,36.01,19.17,11.38,31.33,46.96,-63.39,-52.7,43.95,56.17,31.14,31.94,58.5,49.91,0,0,0,0,0,0,0,0,0,0,0,0,0,0,0,0,
23,-16.81,-4.047,6.117,22.9,11.9,1.689,31.13,35.82,-74.05,-69.13,46.92,57.69,31.83,33.59,67.57,59.36,0,0,0,0,0,0,0,0,0,0,0,0,0,0,0,0,
24,-12.92,13.92,21.69,32.56,27.47,15.32,49.46,52.75,-59.63,-56.97,61.69,71.77,42.79,44.76,74.98,66.71,0,0,0,0,0,0,0,0,0,0,0,0,0,0,0,0,
25,-15.86,9.489,5.604,26.23,10.05,5.148,28.18,42.94,-64.06,-62.72,37.48,50.54,16.29,18.25,44.67,35.3,0,0,0,0,0,0,0,0,0,0,0,0,0,0,0,0,
26,-16.1,7.116,1.469,33.23,8.002,9.636,25.33,47.56,-84.31,-80.89,37.85,49.98,16.96,14.94,46.87,32.98,0,0,0,0,0,0,0,0,0,0,0,0,0,0,0,0,
27,2.618,28.24,21.77,44.01,27.34,27.2,38.97,52.71,-64.19,-63.6,45.96,46.27,28.8,17.31,50.84,32.24,0,0,0,0,0,0,0,0,0,0,0,0,0,0,0,0,
28,-8.155,16.72,8.783,28.45,13.08,16.15,25.98,36.11,-61.51,-67.07,35.38,35.1,26.68,13.42,50.85,33.91,0,0,0,0,0,0,0,0,0,0,0,0,0,0,0,0,
29,-17.44,8.725,9.065,33.7,14.03,20.83,30.8,48.62,-60.73,-65.15,48.93,50.38,45.48,33.12,67.22,54.13,0,0,0,0,0,0,0,0,0,0,0,0,0,0,0,0,
30,-15.84,5.868,5.745,29.66,9.989,17.4,25.88,48.69,-50.43,-51.69,43.3,46.73,39.22,29.56,53.58,46.56,0,0,0,0,0,0,0,0,0,0,0,0,0,0,0,0,
31,-26.26,-1.679,-8.223,22.4,-2.64,9.329,18.79,46.21,-64.82,-58.09,38.71,52.98,32.15,32.79,50.74,51.44,0,0,0,0,0,0,0,0,0,0,0,0,0,0,0,0,
32,-17.77,11.42,4.442,39.07,10.02,24.14,29.57,60.4,-57.07,-40.29,50.89,65.5,41.35,48.58,57.43,57.52,0,0,0,0,0,0,0,0,0,0,0,0,0,0,0,0,
33,-14.66,7.565,-1.967,30.61,2.68,15.9,18.18,47.23,-55.27,-36.16,38.0,51.23,27.16,37.72,51.05,44.81,0,0,0,0,0,0,0,0,0,0,0,0,0,0,0,0,
34,-16.64,12.42,-1.883,27.59,4.824,15.83,24.69,49.75,-66.58,-46.09,45.71,58.98,33.99,46.02,69.56,60.08,0,0,0,0,0,0,0,0,0,0,0,0,0,0,0,0,
35,-11.76,19.46,5.242,25.27,11.09,16.44,30.0,49.45,-54.27,-35.77,47.69,53.69,34.67,44.63,63.25,54.32,0,0,0,0,0,0,0,0,0,0,0,0,0,0,0,0,
36,-31.74,-11.06,-16.56,3.286,-11.64,-8.715,9.905,31.15,-67.97,-53.82,28.01,40.12,14.7,28.45,46.15,40.21,0,0,0,0,0,0,0,0,0,0,0,0,0,0,0,0,
37,-33.4,-6.796,-11.45,15.77,-5.418,0.1115,17.63,50.47,-76.32,-59.23,37.51,58.47,23.36,40.08,55.76,52.99,0,0,0,0,0,0,0,0,0,0,0,0,0,0,0,0,
38,-24.82,3.565,-11.23,17.98,-6.05,3.156,11.37,52.31,-66.86,-47.16,29.8,50.34,17.49,31.36,45.15,43.98,0,0,0,0,0,0,0,0,0,0,0,0,0,0,0,0,
39,-40.28,-15.12,-25.17,5.292,-19.16,-11.9,1.809,40.63,-78.8,-60.91,24.54,45.58,16.36,26.15,53.95,48.61,0,0,0,0,0,0,0,0,0,0,0,0,0,0,0,0,
40,-29.9,-6.05,-7.866,19.16,-1.332,-2.053,20.48,49.04,-64.96,-54.41,43.31,56.68,34.13,36.88,71.37,58.61,0,0,0,0,0,0,0,0,0,0,0,0,0,0,0,0,
41,-22.13,-9.434,-12.22,14.61,-6.365,-7.362,13.83,35.74,-57.52,-54.48,34.81,44.78,21.97,24.21,57.37,46.44,0,0,0,0,0,0,0,0,0,0,0,0,0,0,0,0,
42,-36.13,-16.95,-18.53,15.21,-11.64,-7.745,12.51,37.9,-74.28,-66.35,34.62,52.2,21.47,27.29,61.47,56.33,0,0,0,0,0,0,0,0,0,0,0,0,0,0,0,0,
43,-33.9,-4.038,-12.12,25.36,-6.228,0.1085,16.18,45.9,-69.31,-56.59,34.61,54.55,25.46,29.32,59.77,53.6,0,0,0,0,0,0,0,0,0,0,0,0,0,0,0,0,
44,-33.6,-10.68,-24.48,20.23,-19.2,-7.759,5.943,37.09,-73.82,-61.83,26.52,46.79,23.92,28.3,55.9,48.84,0,0,0,0,0,0,0,0,0,0,0,0,0,0,0,0,
45,-26.77,-2.833,-12.23,32.72,-6.418,4.552,20.87,47.23,-64.44,-52.14,44.09,58.02,46.32,48.53,70.38,63.18,0,0,0,0,0,0,0,0,0,0,0,0,0,0,0,0,
46,-20.31,2.033,-5.117,29.21,-0.2263,5.157,20.87,38.95,-41.67,-36.37,42.05,49.2,46.42,43.85,62.64,53.16,0,0,0,0,0,0,0,0,0,0,0,0,0,0,0,0,
47,-27.79,-7.644,-9.812,24.55,-4.333,4.397,16.05,37.81,-46.22,-42.82,41.17,53.36,44.88,46.55,66.47,59.03,0,0,0,0,0,0,0,0,0,0,0,0,0,0,0,0,
48,-16.66,14.2,6.183,44.58,11.54,26.5,27.75,59.24,-39.05,-24.08,50.93,66.77,52.19,58.09,70.08,66.83,0,0,0,0,0,0,0,0,0,0,0,0,0,0,0,0,
49,-10.48,24.07,-2.203,36.42,3.228,19.79,17.09,50.23,-42.43,-20.84,37.01,57.64,37.38,44.65,58.38,54.2,0,0,0,0,0,0,0,0,0,0,0,0,0,0,0,0,
50,-6.261,28.82,2.421,38.03,8.954,23.45,26.48,56.98,-49.18,-27.98,48.56,70.39,46.19,56.12,74.71,66.42,0,0,0,0,0,0,0,0,0,0,0,0,0,0,0,0,
51,8.881,36.97,19.61,45.12,24.14,33.5,35.98,63.4,-28.62,-11.07,52.42,67.78,44.61,57.6,68.69,61.03,0,0,0,0,0,0,0,0,0,0,0,0,0,0,0,0,
52,0.8406,16.29,3.745,24.74,8.779,14.98,21.74,46.13,-38.82,-24.79,36.48,56.22,26.37,44.48,59.12,56.8,0,0,0,0,0,0,0,0,0,0,0,0,0,0,0,0,
53,2.419,22.5,10.31,30.96,16.6,23.71,35.96,54.97,-43.93,-28.77,53.05,72.88,43.89,59.78,79.77,77.52,0,0,0,0,0,0,0,0,0,0,0,0,0,0,0,0,
54,8.112,31.58,11.37,30.63,15.06,25.16,33.03,45.8,-33.01,-18.33,48.32,60.85,40.13,48.92,69.5,63.29,0,0,0,0,0,0,0,0,0,0,0,0,0,0,0,0,
55,-4.786,18.25,-1.762,19.35,2.376,12.11,21.1,35.52,-51.21,-35.5,39.38,53.31,29.57,37.86,64.6,57.21,0,0,0,0,0,0,0,0,0,0,0,0,0,0,0,0,
56,7.379,30.67,15.57,30.81,20.45,24.07,34.03,49.52,-46.61,-30.87,50.96,58.39,39.87,44.62,70.0,59.43,0,0,0,0,0,0,0,0,0,0,0,0,0,0,0,0,
57,15.01,25.02,12.87,19.58,17.1,15.28,28.81,32.41,-37.4,-31.46,42.18,37.51,33.8,29.22,56.52,40.71,0,0,0,0,0,0,0,0,0,0,0,0,0,0,0,0,
58,8.308,13.79,11.26,15.32,16.49,10.47,37.05,25.54,-39.1,-43.4,50.76,36.22,42.17,28.14,60.8,42.7,0,0,0,0,0,0,0,0,0,0,0,0,0,0,0,0,
59,14.74,24.12,20.06,23.94,23.97,17.34,43.85,29.03,-25.89,-37.69,53.75,30.92,43.06,21.58,54.76,34.52,0,0,0,0,0,0,0,0,0,0,0,0,0,0,0,0,
60,8.104,18.52,8.625,18.14,12.78,9.534,31.64,23.78,-36.63,-50.99,44.04,24.15,36.72,13.33,55.91,32.2,0,0,0,0,0,0,0,0,0,0,0,0,0,0,0,0,
61,10.28,26.21,23.71,32.28,29.18,23.31,47.65,41.43,-32.77,-41.5,63.14,40.29,58.3,32.97,72.67,47.54,0,0,0,0,0,0,0,0,0,0,0,0,0,0,0,0,
62,18.76,23.81,25.94,30.15,29.69,22.07,43.71,33.3,-16.4,-22.46,55.83,26.0,49.95,25.54,53.48,30.53,0,0,0,0,0,0,0,0,0,0,0,0,0,0,0,0,
63,14.08,11.18,12.1,22.14,16.55,12.45,35.98,26.2,-30.28,-35.84,50.34,26.21,43.48,27.71,58.59,39.02,0,0,0,0,0,0,0,0,0,0,0,0,0,0,0,0,
64,23.99,36.63,31.02,38.73,35.0,27.31,55.39,45.36,-18.9,-24.06,66.6,45.55,57.27,48.7,74.25,57.73,0,0,0,0,0,0,0,0,0,0,0,0,0,0,0,0,
65,18.49,33.02,25.18,26.41,27.49,14.01,44.06,31.95,-16.69,-23.4,49.07,35.63,38.87,36.61,56.13,43.24,0,0,0,0,0,0,0,0,0,0,0,0,0,0,0,0,
66,10.92,18.36,19.4,22.83,23.95,10.26,42.01,32.77,-35.39,-37.41,48.28,45.54,40.72,41.48,64.51,52.96,0,0,0,0,0,0,0,0,0,0,0,0,0,0,0,0,
67,29.36,35.73,31.62,37.11,35.68,27.26,50.2,44.0,-22.45,-19.34,55.77,48.57,49.58,47.46,67.28,53.93,0,0,0,0,0,0,0,0,0,0,0,0,0,0,0,0,
68,30.37,33.94,19.06,31.71,22.07,23.92,37.25,33.15,-27.21,-21.63,44.96,37.08,36.5,35.84,56.66,43.14,0,0,0,0,0,0,0,0,0,0,0,0,0,0,0,0,
69,38.68,46.05,24.67,45.04,29.0,37.23,43.63,43.2,-33.43,-23.21,51.14,50.44,40.09,42.06,59.97,50.16,0,0,0,0,0,0,0,0,0,0,0,0,0,0,0,0,
70,52.27,62.95,30.98,53.07,33.97,44.16,39.69,43.37,-23.45,-13.41,41.86,46.67,32.2,35.51,45.13,40.99,0,0,0,0,0,0,0,0,0,0,0,0,0,0,0,0,
71,49.0,62.35,30.05,51.83,32.63,41.83,36.87,41.82,-29.22,-21.13,42.41,48.42,34.45,37.28,51.86,48.98,0,0,0,0,0,0,0,0,0,0,0,0,0,0,0,0,
72,72.84,89.58,44.25,61.42,47.56,51.59,48.1,48.86,-17.23,-11.71,55.32,53.61,47.6,43.17,60.01,53.66,0,0,0,0,0,0,0,0,0,0,0,0,0,0,0,0,
73,86.61,97.18,32.58,52.31,35.74,40.9,31.62,30.21,-19.0,-17.88,38.79,38.78,34.36,29.44,44.74,39.51,0,0,0,0,0,0,0,0,0,0,0,0,0,0,0,0,
74,89.74,98.61,43.49,62.56,46.62,54.83,43.58,40.49,-25.74,-22.19,53.84,57.6,51.99,51.45,66.24,64.88,0,0,0,0,0,0,0,0,0,0,0,0,0,0,0,0,
75,121.6,130.6,68.51,73.59,70.34,76.37,62.11,53.32,4.664,8.092,67.88,62.41,67.02,62.28,71.88,68.72,0,0,0,0,0,0,0,0,0,0,0,0,0,0,0,0,
76,123.2,128.5,52.13,62.93,54.74,62.6,42.24,38.49,2.331,1.4,44.88,41.86,46.04,40.38,51.08,44.06,0,0,0,0,0,0,0,0,0,0,0,0,0,0,0,0,
77,127.7,132.3,61.25,90.14,64.29,75.56,42.68,52.1,-11.28,-9.963,43.49,50.75,42.38,41.4,49.69,44.91,0,0,0,0,0,0,0,0,0,0,0,0,0,0,0,0,
78,169.3,165.9,68.64,103.4,69.39,84.6,35.88,52.24,-7.259,-3.797,35.92,50.41,32.5,35.89,40.85,42.69,0,0,0,0,0,0,0,0,0,0,0,0,0,0,0,0,
79,173.5,168.4,55.24,93.96,57.36,78.31,26.13,45.81,-18.7,-11.69,34.93,56.25,35.32,42.32,55.24,56.32,0,0,0,0,0,0,0,0,0,0,0,0,0,0,0,0,
80,170.6,166.6,73.95,111.5,77.08,98.71,40.54,58.34,-5.975,4.616,49.84,65.08,53.84,58.28,70.01,63.85,0,0,0,0,0,0,0,0,0,0,0,0,0,0,0,0,
81,193.9,176.6,76.7,113.0,78.48,102.1,33.7,47.97,4.063,11.96,38.74,49.08,44.35,46.61,53.73,47.08,0,0,0,0,0,0,0,0,0,0,0,0,0,0,0,0,
82,196.3,178.6,79.78,117.8,81.63,107.7,41.84,55.36,0.6236,10.52,48.71,60.2,54.71,57.22,64.07,60.89,0,0,0,0,0,0,0,0,0,0,0,0,0,0,0,0,
83,190.0,173.3,97.4,130.3,97.84,121.1,55.68,64.35,19.39,30.53,57.88,65.04,61.18,63.37,65.02,65.22,0,0,0,0,0,0,0,0,0,0,0,0,0,0,0,0,
84,198.1,168.8,84.86,122.4,85.33,111.3,41.07,50.05,12.38,19.66,41.53,50.99,41.2,48.67,50.21,56.08,0,0,0,0,0,0,0,0,0,0,0,0,0,0,0,0,
85,199.2,173.0,81.15,126.1,82.68,110.8,41.48,54.59,1.564,11.64,43.89,51.88,41.46,50.57,51.75,56.12,0,0,0,0,0,0,0,0,0,0,0,0,0,0,0,0,
86,185.1,162.2,77.03,115.5,77.51,97.69,34.71,41.0,2.818,14.76,35.05,36.26,33.65,37.9,40.15,37.39,0,0,0,0,0,0,0,0,0,0,0,0,0,0,0,0,
87,183.1,155.7,72.17,106.7,73.26,87.57,33.84,37.62,-9.295,-0.0356,36.96,42.69,38.19,40.62,48.22,45.87,0,0,0,0,0,0,0,0,0,0,0,0,0,0,0,0,
88,185.4,161.2,85.27,122.4,85.48,104.2,48.57,61.04,4.014,11.61,52.53,59.91,55.73,54.88,56.42,57.31,0,0,0,0,0,0,0,0,0,0,0,0,0,0,0,0,
89,167.2,140.8,67.91,112.0,67.17,94.77,32.97,47.69,5.995,11.05,37.71,41.2,42.7,38.47,41.49,40.65,0,0,0,0,0,0,0,0,0,0,0,0,0,0,0,0,
90,167.4,140.1,65.62,112.8,66.52,94.71,36.59,46.63,-4.974,-2.436,45.22,40.85,48.94,41.13,55.39,50.01,0,0,0,0,0,0,0,0,0,0,0,0,0,0,0,0,
91,172.9,148.8,80.59,118.6,79.98,102.1,47.42,52.08,10.72,7.666,53.75,37.25,54.05,38.74,56.11,45.55,0,0,0,0,0,0,0,0,0,0,0,0,0,0,0,0,
92,156.1,128.1,65.16,97.72,64.52,83.74,37.72,34.33,2.184,-5.476,43.73,25.24,42.22,23.56,45.62,31.56,0,0,0,0,0,0,0,0,0,0,0,0,0,0,0,0,
93,162.2,132.2,73.41,101.1,74.15,88.6,52.2,42.26,-0.8911,-7.589,55.1,36.39,51.73,33.96,50.15,38.92,0,0,0,0,0,0,0,0,0,0,0,0,0,0,0,0,
94,158.0,130.4,72.22,95.18,70.94,81.94,44.96,38.1,7.575,0.2595,43.02,28.31,39.27,26.87,31.44,29.12,0,0,0,0,0,0,0,0,0,0,0,0,0,0,0,0,
95,133.4,110.5,51.75,79.12,51.19,63.72,32.4,30.01,-11.75,-15.95,36.49,33.7,33.05,28.17,34.45,36.36,0,0,0,0,0,0,0,0,0,0,0,0,0,0,0,0,
96,133.7,108.6,60.38,82.55,60.4,69.85,46.33,38.22,-7.432,-6.366,50.23,47.09,43.75,38.34,43.2,42.59,0,0,0,0,0,0,0,0,0,0,0,0,0,0,0,0,
97,114.4,84.13,46.82,64.56,45.88,53.35,32.96,22.79,-11.07,-9.465,35.33,32.1,26.07,19.76,28.38,27.58,0,0,0,0,0,0,0,0,0,0,0,0,0,0,0,0,
98,97.33,78.22,40.22,66.08,40.61,51.05,36.1,31.86,-27.92,-22.52,43.49,41.0,34.18,27.37,44.54,41.26,0,0,0,0,0,0,0,0,0,0,0,0,0,0,0,0,
99,107.2,90.17,54.16,75.09,53.59,63.92,48.67,42.73,-8.685,-2.984,50.38,39.18,44.57,32.51,47.53,38.92,0,0,0,0,0,0,0,0,0,0,0,0,0,0,0,0,
100,87.06,60.16,40.78,49.57,40.4,49.57,33.59,25.71,-8.737,-7.684,33.8,26.68,34.43,22.72,43.5,36.99,0,0,0,0,0,0,0,0,0,0,0,0,0,0,0,0,
101,73.78,48.79,45.56,48.95,46.54,56.59,39.97,37.42,-8.361,-5.884,46.01,43.97,49.04,40.35,63.01,59.21,0,0,0,0,0,0,0,0,0,0,0,0,0,0,0,0,
102,64.73,39.08,41.7,44.17,40.65,53.96,32.55,33.96,2.161,7.806,36.79,31.88,38.81,33.56,45.32,40.84,0,0,0,0,0,0,0,0,0,0,0,0,0,0,0,0,
103,28.8,8.723,19.23,23.68,19.55,32.73,17.73,21.89,-20.69,-8.746,23.0,22.77,26.39,26.54,35.19,33.49,0,0,0,0,0,0,0,0,0,0,0,0,0,0,0,0,
104,18.71,8.143,27.15,24.86,29.15,36.43,31.12,33.63,-17.57,-1.491,37.4,35.04,43.94,41.53,46.94,46.04,0,0,0,0,0,0,0,0,0,0,0,0,0,0,0,0,
105,8.925,-8.764,22.11,12.79,22.2,28.95,27.98,22.7,-3.428,5.175,32.08,25.4,39.7,33.63,38.87,34.54,0,0,0,0,0,0,0,0,0,0,0,0,0,0,0,0,
106,-8.777,-25.79,23.61,13.97,23.56,30.48,33.91,24.4,-7.599,-4.025,36.16,33.58,38.42,32.57,43.32,38.81,0,0,0,0,0,0,0,0,0,0,0,0,0,0,0,0,
107,-5.164,-25.36,33.1,18.58,32.55,35.03,37.82,30.14,-1.623,1.192,37.16,37.47,31.87,24.92,36.7,36.51,0,0,0,0,0,0,0,0,0,0,0,0,0,0,0,0,
108,-21.84,-57.93,9.781,-8.079,9.451,11.7,19.59,14.78,-16.16,-15.34,25.25,28.82,17.89,13.31,28.3,33.26,0,0,0,0,0,0,0,0,0,0,0,0,0,0,0,0,
109,-41.33,-70.4,7.189,-14.48,7.914,9.352,25.43,19.9,-20.35,-18.2,34.87,35.63,29.78,27.06,36.1,43.21,0,0,0,0,0,0,0,0,0,0,0,0,0,0,0,0,
110,-56.23,-73.9,1.74,-20.84,1.222,4.076,16.68,13.46,-12.03,-8.136,21.65,22.28,21.59,21.48,21.01,27.56,0,0,0,0,0,0,0,0,0,0,0,0,0,0,0,0,
111,-81.92,-96.62,-12.4,-24.62,-12.19,-1.649,8.181,14.92,-26.47,-17.56,17.25,25.61,20.34,25.48,27.58,31.9,0,0,0,0,0,0,0,0,0,0,0,0,0,0,0,0,
112,-79.35,-89.36,6.992,-6.821,7.689,15.21,25.72,33.27,-13.92,-1.657,33.77,34.5,32.57,32.38,34.85,33.38,0,0,0,0,0,0,0,0,0,0,0,0,0,0,0,0,
113,-81.76,-101.1,2.352,-24.04,2.132,-3.469,14.6,10.96,-11.45,-6.96,16.3,7.52,7.26,-1.075,10.2,2.206,0,0,0,0,0,0,0,0,0,0,0,0,0,0,0,0,
114,-101.8,-125.0,-5.053,-36.89,-4.406,-19.26,13.97,3.695,-31.86,-34.96,17.18,8.285,1.118,-8.156,14.98,5.418,0,0,0,0,0,0,0,0,0,0,0,0,0,0,0,0,
115,-111.0,-122.0,-0.7914,-30.82,-0.4317,-15.5,19.37,11.85,-23.94,-30.44,21.21,12.1,4.893,-3.666,12.08,8.082,0,0,0,0,0,0,0,0,0,0,0,0,0,0,0,0,
116,-136.9,-140.8,-24.56,-40.96,-23.5,-29.82,1.631,2.717,-32.72,-37.28,4.358,3.636,-4.176,-7.916,2.235,5.029,0,0,0,0,0,0,0,0,0,0,0,0,0,0,0,0,
117,-153.3,-149.9,-27.49,-34.57,-25.59,-26.73,7.0,12.03,-39.87,-35.31,14.69,17.41,10.68,12.21,20.66,24.15,0,0,0,0,0,0,0,0,0,0,0,0,0,0,0,0,
118,-160.7,-145.7,-30.3,-40.42,-29.58,-33.43,3.021,3.987,-31.2,-23.54,14.54,12.07,11.85,14.54,20.82,23.08,0,0,0,0,0,0,0,0,0,0,0,0,0,0,0,0,
119,-184.8,-160.7,-40.71,-50.43,-38.26,-46.18,0.7961,-0.6897,-37.45,-32.02,18.54,14.11,21.32,21.08,30.68,32.49,0,0,0,0,0,0,0,0,0,0,0,0,0,0,0,0,
120,-184.2,-160.2,-25.56,-37.54,-22.63,-35.72,17.79,13.96,-18.06,-15.29,33.8,22.12,41.45,35.33,39.17,39.02,0,0,0,0,0,0,0,0,0,0,0,0,0,0,0,0,
121,-185.7,-165.2,-37.83,-51.45,-35.93,-51.19,3.132,-2.963,-13.07,-13.77,16.4,5.795,24.16,19.42,21.96,22.08,0,0,0,0,0,0,0,0,0,0,0,0,0,0,0,0,
122,-201.9,-170.7,-41.46,-55.44,-38.25,-53.66,7.894,2.596,-29.8,-28.49,23.9,19.23,27.9,24.75,33.94,33.95,0,0,0,0,0,0,0,0,0,0,0,0,0,0,0,0,
123,-196.5,-159.2,-24.8,-48.0,-22.77,-38.27,22.69,16.15,-14.93,-12.8,35.47,26.28,35.55,29.11,35.76,32.36,0,0,0,0,0,0,0,0,0,0,0,0,0,0,0,0,
124,-199.5,-167.5,-40.77,-62.98,-38.73,-50.22,7.296,2.092,-19.79,-16.62,20.4,18.5,20.28,18.76,27.52,23.96,0,0,0,0,0,0,0,0,0,0,0,0,0,0,0,0,
125,-202.8,-170.0,-37.8,-51.3,-34.4,-44.12,14.46,14.74,-28.45,-17.59,27.64,36.63,26.8,28.97,37.73,37.21,0,0,0,0,0,0,0,0,0,0,0,0,0,0,0,0,
126,-196.9,-166.9,-35.18,-45.66,-33.6,-43.44,9.179,15.73,-24.53,-11.83,17.43,28.43,12.41,14.88,16.63,19.5,0,0,0,0,0,0,0,0,0,0,0,0,0,0,0,0,
127,-201.6,-172.3,-50.77,-56.22,-48.56,-56.41,-8.64,6.858,-45.37,-32.87,2.317,19.36,-6.075,2.996,7.306,12.06,0,0,0,0,0,0,0,0,0,0,0,0,0,0,0,0,
128,-195.9,-161.3,-42.23,-50.62,-39.57,-49.0,-3.292,13.2,-45.76,-31.76,7.008,21.73,-0.1997,7.464,18.57,17.86,0,0,0,0,0,0,0,0,0,0,0,0,0,0,0,0,
129,-194.6,-163.8,-48.9,-63.28,-47.32,-58.57,-13.03,-5.256,-44.01,-36.76,-3.628,0.3979,-8.385,-10.68,15.28,3.938,0,0,0,0,0,0,0,0,0,0,0,0,0,0,0,0,
130,-194.8,-168.2,-48.27,-61.6,-45.08,-59.36,-7.536,-5.448,-53.5,-54.04,6.462,1.745,-1.386,-10.76,28.39,10.89,0,0,0,0,0,0,0,0,0,0,0,0,0,0,0,0,
131,-183.0,-159.2,-35.28,-52.68,-32.81,-53.05,1.385,-0.6621,-42.52,-47.97,12.3,2.806,0.2306,-11.83,24.04,9.505,0,0,0,0,0,0,0,0,0,0,0,0,0,0,0,0,
132,-191.2,-165.4,-50.92,-72.31,-48.83,-69.29,-12.51,-18.82,-50.19,-56.6,1.454,-3.0,-9.111,-17.82,15.55,7.877,0,0,0,0,0,0,0,0,0,0,0,0,0,0,0,0,
133,-196.2,-162.0,-46.55,-71.74,-42.61,-62.81,-2.435,-10.44,-46.85,-48.75,17.45,16.89,12.08,5.722,30.96,27.86,0,0,0,0,0,0,0,0,0,0,0,0,0,0,0,0,
134,-191.3,-158.8,-45.49,-73.1,-42.99,-64.3,-4.081,-9.909,-30.1,-30.56,10.04,17.72,13.05,11.09,23.15,25.4,0,0,0,0,0,0,0,0,0,0,0,0,0,0,0,0,
135,-193.1,-159.6,-57.69,-76.65,-55.87,-73.45,-11.5,-10.43,-42.57,-38.77,1.335,19.51,9.738,16.38,25.02,30.54,0,0,0,0,0,0,0,0,0,0,0,0,0,0,0,0,
136,-182.6,-148.1,-43.14,-60.79,-40.49,-56.52,0.3495,2.242,-35.86,-27.64,13.42,19.16,17.9,21.36,24.5,25.87,0,0,0,0,0,0,0,0,0,0,0,0,0,0,0,0,
137,-180.3,-154.2,-46.55,-69.32,-43.51,-61.03,-10.61,-14.47,-34.63,-32.63,-1.142,-4.45,-0.836,-4.127,0.8263,-0.5029,0,0,0,0,0,0,0,0,0,0,0,0,0,0,0,0,
138,-176.9,-147.1,-44.2,-65.1,-40.9,-59.53,-6.165,-10.38,-47.47,-48.4,2.154,6.205,1.878,-0.0196,11.68,11.98,0,0,0,0,0,0,0,0,0,0,0,0,0,0,0,0,
139,-163.8,-132.5,-31.84,-52.9,-29.92,-50.56,2.19,-1.775,-34.01,-33.77,7.979,10.92,5.856,4.251,14.3,13.97,0,0,0,0,0,0,0,0,0,0,0,0,0,0,0,0,
140,-168.4,-142.4,-46.49,-64.35,-43.4,-63.81,-10.81,-17.99,-41.62,-44.59,-2.347,-2.475,-7.013,-12.08,7.021,2.026,0,0,0,0,0,0,0,0,0,0,0,0,0,0,0,0,
141,-158.4,-129.7,-39.76,-52.0,-36.09,-51.82,-0.2877,-7.1,-44.91,-50.02,11.88,6.201,4.968,-7.705,19.42,5.696,0,0,0,0,0,0,0,0,0,0,0,0,0,0,0,0,
142,-153.3,-128.6,-42.8,-52.89,-41.75,-49.11,-7.278,-9.627,-34.76,-41.51,3.698,-4.927,-3.935,-20.55,6.295,-12.87,0,0,0,0,0,0,0,0,0,0,0,0,0,0,0,0,
143,-166.3,-134.8,-54.47,-62.12,-51.33,-57.87,-16.3,-17.45,-50.78,-55.73,-5.085,-4.112,-12.5,-24.91,7.771,-8.355,0,0,0,0,0,0,0,0,0,0,0,0,0,0,0,0,
144,-144.8,-101.8,-28.2,-43.33,-23.6,-41.24,0.6022,-4.982,-42.36,-45.79,6.453,8.092,-2.557,-12.74,14.9,3.229,0,0,0,0,0,0,0,0,0,0,0,0,0,0,0,0,
145,-134.9,-105.0,-30.14,-52.31,-27.33,-48.7,-12.52,-16.82,-37.77,-45.86,-9.107,-8.227,-21.67,-25.34,-6.095,-13.99,0,0,0,0,0,0,0,0,0,0,0,0,0,0,0,0,
146,-142.2,-116.8,-37.56,-52.88,-33.45,-48.46,-13.38,-10.72,-54.58,-60.31,-5.373,1.464,-23.09,-17.26,2.978,-2.563,0,0,0,0,0,0,0,0,0,0,0,0,0,0,0,0,
147,-124.9,-95.69,-27.43,-35.33,-23.89,-32.12,-3.026,-0.1738,-46.29,-44.61,4.074,8.523,-15.05,-8.29,10.88,2.841,0,0,0,0,0,0,0,0,0,0,0,0,0,0,0,0,
148,-126.8,-100.3,-42.44,-45.57,-40.17,-41.61,-14.17,-12.95,-49.43,-43.83,-3.31,-0.6424,-18.26,-11.65,7.239,-2.979,0,0,0,0,0,0,0,0,0,0,0,0,0,0,0,0,
149,-132.7,-97.57,-37.79,-42.02,-34.98,-36.34,-3.167,-1.639,-44.27,-34.51,10.44,12.14,-0.5804,4.476,14.57,8.242,0,0,0,0,0,0,0,0,0,0,0,0,0,0,0,0,
150,-130.3,-94.17,-35.55,-42.48,-33.77,-36.46,-6.511,-4.822,-26.85,-16.19,2.744,8.543,-1.28,2.201,0.0345,1.869,0,0,0,0,0,0,0,0,0,0,0,0,0,0,0,0,
151,-137.6,-109.4,-44.53,-49.87,-41.85,-42.46,-14.1,-8.891,-33.28,-22.4,-3.197,16.34,1.619,10.41,5.958,12.16,0,0,0,0,0,0,0,0,0,0,0,0,0,0,0,0,
152,-120.4,-98.73,-23.72,-37.6,-20.77,-26.03,2.925,7.937,-18.72,-7.682,9.839,29.25,14.84,24.52,15.4,17.9,0,0,0,0,0,0,0,0,0,0,0,0,0,0,0,0,
153,-107.2,-92.54,-25.56,-42.92,-23.72,-30.74,-6.576,-4.874,-17.12,-9.435,-4.574,8.906,-4.285,1.164,-1.982,-4.018,0,0,0,0,0,0,0,0,0,0,0,0,0,0,0,0,
154,-107.2,-81.2,-27.18,-34.3,-23.52,-25.47,-5.971,-1.505,-35.2,-27.33,0.7354,13.7,-0.4104,1.617,11.26,6.642,0,0,0,0,0,0,0,0,0,0,0,0,0,0,0,0,
155,-95.71,-66.38,-15.61,-21.89,-11.83,-14.15,0.3742,6.438,-21.93,-15.74,7.152,15.68,7.927,6.451,16.27,8.213,0,0,0,0,0,0,0,0,0,0,0,0,0,0,0,0,
156,-101.6,-86.53,-30.38,-37.28,-27.09,-30.06,-14.1,-10.24,-25.43,-24.88,-3.843,4.63,-0.8764,-2.789,14.16,3.841,0,0,0,0,0,0,0,0,0,0,0,0,0,0,0,0,
157,-95.01,-76.75,-18.78,-24.78,-15.08,-17.08,-0.5273,2.92,-23.72,-24.53,15.76,21.76,19.1,14.87,36.13,24.68,0,0,0,0,0,0,0,0,0,0,0,0,0,0,0,0,
158,-75.57,-56.55,-5.034,-16.06,-2.72,-6.374,3.492,6.27,-2.717,-4.36,17.43,15.89,22.81,15.65,28.99,16.1,0,0,0,0,0,0,0,0,0,0,0,0,0,0,0,0,
159,-78.7,-62.05,-7.406,-18.66,-4.66,-10.93,3.066,0.7286,-6.868,-8.95,14.71,7.028,20.6,12.44,26.39,11.94,0,0,0,0,0,0,0,0,0,0,0,0,0,0,0,0,
160,-68.46,-44.95,11.1,-1.766,13.67,3.729,22.5,12.49,3.429,-2.4,27.24,10.46,25.8,13.48,26.98,13.36,0,0,0,0,0,0,0,0,0,0,0,0,0,0,0,0,
161,-59.56,-43.83,2.809,-11.86,4.544,-5.107,9.789,1.294,3.086,-8.963,8.959,-1.415,-1.792,-8.978,2.015,-5.201,0,0,0,0,0,0,0,0,0,0,0,0,0,0,0,0,
162,-62.66,-49.48,-4.607,-14.9,-1.172,-9.283,7.014,6.285,-18.08,-24.79,7.514,9.616,-11.89,-7.069,5.41,2.924,0,0,0,0,0,0,0,0,0,0,0,0,0,0,0,0,
163,-58.62,-37.54,0.911,-6.657,3.506,-7.003,13.07,12.77,-17.83,-18.99,10.01,8.3,-16.41,-9.573,5.611,0.3051,0,0,0,0,0,0,0,0,0,0,0,0,0,0,0,0,
164,-70.46,-52.01,-23.38,-25.45,-21.26,-31.23,-4.918,-4.796,-37.52,-41.09,-3.922,-5.91,-29.2,-24.26,3.169,-7.321,0,0,0,0,0,0,0,0,0,0,0,0,0,0,0,0,
165,-70.32,-54.16,-21.54,-23.84,-18.09,-26.99,2.304,2.672,-44.59,-47.85,12.87,8.125,-6.792,-6.793,26.11,10.96,0,0,0,0,0,0,0,0,0,0,0,0,0,0,0,0,
166,-59.95,-49.1,-13.74,-24.79,-11.5,-20.62,3.456,-2.544,-24.48,-28.57,15.18,2.743,-0.0336,-5.345,22.73,6.889,0,0,0,0,0,0,0,0,0,0,0,0,0,0,0,0,
167,-67.55,-59.18,-23.14,-35.11,-20.7,-27.64,-2.457,-7.234,-28.3,-31.41,11.17,6.918,0.2783,-0.6049,25.24,13.9,0,0,0,0,0,0,0,0,0,0,0,0,0,0,0,0,
168,-59.69,-49.7,-10.91,-23.1,-8.406,-15.77,8.404,12.51,-18.67,-17.15,21.39,24.99,13.3,17.88,33.99,25.88,0,0,0,0,0,0,0,0,0,0,0,0,0,0,0,0,
169,-54.23,-53.48,-16.64,-25.77,-15.19,-22.69,-4.337,4.414,-16.4,-13.65,6.343,12.68,-2.345,5.569,15.95,9.954,0,0,0,0,0,0,0,0,0,0,0,0,0,0,0,0,
170,-55.07,-51.75,-18.41,-16.4,-15.99,-19.37,-2.331,7.432,-31.79,-25.66,6.839,16.17,-5.173,4.889,14.97,12.3,0,0,0,0,0,0,0,0,0,0,0,0,0,0,0,0,
171,-41.09,-30.73,-4.63,1.992,-2.506,-1.883,7.623,15.73,-21.21,-14.05,9.668,16.35,-3.437,5.219,9.176,8.541,0,0,0,0,0,0,0,0,0,0,0,0,0,0,0,0,
172,-39.11,-35.34,-11.37,-2.022,-8.942,-8.141,-1.176,6.542,-22.35,-18.66,0.9783,7.791,-8.502,-0.1313,7.551,6.474,0,0,0,0,0,0,0,0,0,0,0,0,0,0,0,0,
173,-33.12,-29.05,-1.238,8.712,1.371,-3.605,11.13,19.53,-17.69,-14.88,16.4,18.17,10.78,13.63,26.49,20.5,0,0,0,0,0,0,0,0,0,0,0,0,0,0,0,0,
174,-32.87,-27.74,-3.747,4.479,-2.923,-9.841,5.287,9.972,-5.097,-6.756,9.293,2.434,7.346,0.2871,16.49,2.468,0,0,0,0,0,0,0,0,0,0,0,0,0,0,0,0,
175,-46.28,-39.05,-15.57,-1.022,-13.03,-14.46,-1.82,-0.8139,-16.41,-21.5,4.866,-1.079,5.174,-5.576,17.64,-0.8826,0,0,0,0,0,0,0,0,0,0,0,0,0,0,0,0,
176,-29.05,-15.79,4.787,21.39,7.686,8.718,15.5,15.97,-3.372,-7.494,18.14,13.21,15.54,7.018,20.56,6.451,0,0,0,0,0,0,0,0,0,0,0,0,0,0,0,0,
177,-21.26,-11.82,-3.859,12.26,-2.884,1.268,-1.712,3.818,-1.359,-5.299,-2.401,3.745,-9.321,-4.954,-5.484,-5.622,0,0,0,0,0,0,0,0,0,0,0,0,0,0,0,0,
178,-31.41,-20.83,-14.04,5.849,-11.8,-3.309,-11.75,5.51,-22.02,-18.02,-9.065,17.53,-18.06,2.566,-6.989,7.929,0,0,0,0,0,0,0,0,0,0,0,0,0,0,0,0,
179,-27.11,-17.37,-6.859,11.98,-5.524,3.366,-11.14,15.53,-19.23,-4.277,-13.73,22.71,-21.69,5.582,-13.07,7.691,0,0,0,0,0,0,0,0,0,0,0,0,0,0,0,0,
180,-37.67,-30.88,-22.76,0.7196,-22.2,-10.05,-26.02,3.353,-35.64,-15.51,-28.01,9.089,-33.82,-4.957,-14.59,0.4261,0,0,0,0,0,0,0,0,0,0,0,0,0,0,0,0,
181,-37.51,-15.16,-13.14,17.41,-10.74,4.771,-9.774,14.96,-38.14,-17.33,-6.126,16.43,-11.22,9.147,10.22,14.76,0,0,0,0,0,0,0,0,0,0,0,0,0,0,0,0,
182,-27.43,-2.826,-8.156,19.22,-6.536,6.977,-5.743,10.8,-15.97,-3.248,-4.33,2.709,-4.248,1.314,3.72,3.971,0,0,0,0,0,0,0,0,0,0,0,0,0,0,0,0,
183,-37.21,-26.5,-23.52,-3.607,-22.19,-14.48,-12.9,-0.4965,-22.27,-18.33,-8.12,-1.288,-0.2518,-1.601,6.145,5.86,0,0,0,0,0,0,0,0,0,0,0,0,0,0,0,0,
184,-35.16,-27.88,-12.54,-3.319,-10.46,-11.48,0.9753,7.903,-11.79,-12.55,7.448,7.996,16.39,9.708,15.75,11.05,0,0,0,0,0,0,0,0,0,0,0,0,0,0,0,0,
185,-41.52,-34.86,-19.12,-13.11,-16.02,-20.18,-6.735,-6.077,-3.99,-8.803,-2.117,-6.611,4.101,-5.395,2.158,-5.611,0,0,0,0,0,0,0,0,0,0,0,0,0,0,0,0,
186,-47.47,-34.96,-16.87,-8.779,-12.7,-14.91,2.029,3.05,-10.93,-13.68,10.63,7.484,12.76,5.691,16.47,9.659,0,0,0,0,0,0,0,0,0,0,0,0,0,0,0,0,
187,-28.12,-14.16,2.683,3.811,4.509,0.9412,15.75,18.07,8.243,4.532,23.32,16.06,19.55,14.51,12.87,9.961,0,0,0,0,0,0,0,0,0,0,0,0,0,0,0,0,
188,-28.79,-23.51,-9.539,-9.209,-7.653,-14.18,-0.394,3.755,1.262,-7.556,4.673,4.251,-3.751,-3.259,-9.566,-4.923,0,0,0,0,0,0,0,0,0,0,0,0,0,0,0,0,
189,-24.14,-22.2,-4.547,-1.134,-0.753,-10.62,5.808,14.74,-11.28,-17.93,9.433,17.44,-2.747,2.313,-1.238,8.141,0,0,0,0,0,0,0,0,0,0,0,0,0,0,0,0,
190,-12.68,-19.84,-5.173,-2.773,-3.364,-11.61,0.408,14.54,-5.738,-10.96,3.326,12.19,-7.083,-0.206,-4.023,5.085,0,0,0,0,0,0,0,0,0,0,0,0,0,0,0,0,
191,-31.15,-34.9,-24.95,-15.0,-22.93,-22.44,-15.41,5.218,-19.12,-22.96,-6.304,9.816,-7.414,1.335,2.988,9.678,0,0,0,0,0,0,0,0,0,0,0,0,0,0,0,0,
192,-33.5,-18.21,-14.37,1.419,-11.44,-3.621,-6.903,16.41,-12.94,-13.09,1.712,20.39,6.99,12.24,14.8,17.49,0,0,0,0,0,0,0,0,0,0,0,0,0,0,0,0,
193,-23.25,-10.99,-16.29,1.244,-14.21,-1.016,-15.89,6.612,-9.169,-9.341,-11.22,7.763,-5.821,0.9261,3.359,6.011,0,0,0,0,0,0,0,0,0,0,0,0,0,0,0,0,
194,-17.0,-13.19,-15.04,5.187,-12.16,2.784,-16.65,7.451,-20.05,-16.91,-12.09,8.064,-8.758,6.09,6.597,13.01,0,0,0,0,0,0,0,0,0,0,0,0,0,0,0,0,
195,-6.629,-8.729,-1.466,13.45,0.2897,14.56,-14.53,9.585,-10.69,-5.633,-15.4,-1.364,-15.81,1.436,-5.63,2.793,0,0,0,0,0,0,0,0,0,0,0,0,0,0,0,0,
196,-13.52,-26.73,-10.61,-0.1849,-9.823,7.759,-23.45,0.5729,-19.32,-16.61,-23.86,-9.994,-29.31,-11.14,-13.25,-4.402,0,0,0,0,0,0,0,0,0,0,0,0,0,0,0,0,
197,-13.25,-23.01,-2.218,5.959,-0.6272,15.86,-6.259,19.45,-18.84,-13.53,-3.873,9.541,-12.57,2.093,3.633,9.673,0,0,0,0,0,0,0,0,0,0,0,0,0,0,0,0,
198,-18.52,-25.15,-9.756,-2.206,-8.101,3.515,-13.38,11.35,-10.49,-4.982,-12.89,-4.664,-20.2,-12.86,-14.04,-11.35,0,0,0,0,0,0,0,0,0,0,0,0,0,0,0,0,
199,-34.77,-45.31,-25.48,-11.75,-22.38,-11.18,-18.76,2.075,-28.97,-25.46,-14.08,-6.967,-19.12,-11.89,-11.27,-7.349,0,0,0,0,0,0,0,0,0,0,0,0,0,0,0,0,
200,-10.48,-24.81,2.317,12.17,4.702,13.72,12.1,23.3,-11.24,-7.921,14.61,15.51,11.51,18.82,10.85,16.08,0,0,0,0,0,0,0,0,0,0,0,0,0,0,0,0,
201,-2.813,-24.57,0.9096,2.304,2.34,8.289,7.428,8.761,5.71,6.516,5.208,4.355,7.315,12.79,0.4615,5.736,0,0,0,0,0,0,0,0,0,0,0,0,0,0,0,0,
202,-25.54,-37.57,-8.849,-5.226,-5.442,0.6258,5.526,8.755,-4.997,-1.457,7.616,10.68,12.58,18.14,10.14,16.06,0,0,0,0,0,0,0,0,0,0,0,0,0,0,0,0,
203,-19.41,-19.2,2.131,11.18,3.86,12.79,13.29,24.48,6.338,15.86,15.96,17.7,19.45,24.17,13.98,18.11,0,0,0,0,0,0,0,0,0,0,0,0,0,0,0,0,
204,-18.46,-20.57,-12.99,2.75,-12.17,-0.1776,-4.171,7.951,-4.322,7.069,0.9989,4.868,2.799,6.573,4.454,4.36,0,0,0,0,0,0,0,0,0,0,0,0,0,0,0,0,
205,-20.66,-17.53,-9.782,4.763,-7.639,0.2231,4.228,7.809,-14.79,-4.263,11.89,9.309,8.483,6.897,13.19,8.792,0,0,0,0,0,0,0,0,0,0,0,0,0,0,0,0,
206,-18.02,-12.97,-7.608,3.338,-6.682,-1.71,6.352,4.781,-6.349,0.1377,12.11,-1.475,2.572,-5.658,3.62,-4.687,0,0,0,0,0,0,0,0,0,0,0,0,0,0,0,0,
207,-30.03,-24.79,-19.71,-3.968,-17.16,-10.17,1.135,2.52,-19.67,-15.37,11.44,-1.048,0.3616,-10.65,8.745,-2.676,0,0,0,0,0,0,0,0,0,0,0,0,0,0,0,0,
208,-23.92,-11.35,0.1253,9.494,2.907,5.762,18.81,16.3,-6.977,-7.929,24.91,10.22,15.86,1.559,16.18,6.114,0,0,0,0,0,0,0,0,0,0,0,0,0,0,0,0,
209,-19.05,-10.38,-0.9113,5.126,-1.202,1.809,7.275,1.712,5.166,-4.507,3.492,-5.494,-1.008,-9.569,-7.897,-9.398,0,0,0,0,0,0,0,0,0,0,0,0,0,0,0,0,
210,-19.86,-14.95,-7.694,11.36,-6.78,2.281,-2.009,2.897,-9.926,-14.89,-5.485,2.387,-9.325,-3.773,-7.621,-0.8242,0,0,0,0,0,0,0,0,0,0,0,0,0,0,0,0,
211,-5.939,-2.594,3.565,24.01,4.711,12.24,0.3897,11.75,-5.935,-2.841,-5.31,4.783,-13.22,-0.1987,-9.199,-2.117,0,0,0,0,0,0,0,0,0,0,0,0,0,0,0,0,
212,-13.91,-13.02,-6.776,11.54,-6.891,0.5457,-11.0,-0.0934,-14.88,-10.21,-16.01,-10.77,-24.85,-10.07,-14.58,-12.97,0,0,0,0,0,0,0,0,0,0,0,0,0,0,0,0,
213,-19.84,-13.28,-3.318,18.01,-2.12,9.26,-1.102,10.94,-18.37,-9.527,-0.704,0.2056,-8.476,3.814,-0.4233,-1.45,0,0,0,0,0,0,0,0,0,0,0,0,0,0,0,0,
214,-13.74,-11.45,-3.672,11.27,-2.282,7.901,-3.238,4.258,-4.325,5.338,-2.898,-1.647,-6.689,3.632,-8.188,-3.803,0,0,0,0,0,0,0,0,0,0,0,0,0,0,0,0,
215,-20.45,-22.35,-13.1,-4.128,-12.1,-5.208,-8.662,-5.81,-8.588,1.137,-5.585,0.7316,0.0896,10.71,2.217,8.291,0,0,0,0,0,0,0,0,0,0,0,0,0,0,0,0,
216,-16.22,-15.31,-1.354,8.175,-1.286,4.542,2.515,9.999,3.794,15.18,7.423,7.442,20.78,24.6,17.2,14.98,0,0,0,0,0,0,0,0,0,0,0,0,0,0,0,0,
217,-23.35,-29.48,-15.41,-1.828,-15.18,-9.276,-12.43,-0.4179,3.723,8.989,-7.716,-9.314,9.697,6.755,1.788,-3.598,0,0,0,0,0,0,0,0,0,0,0,0,0,0,0,0,
218,-30.4,-33.18,-14.37,-2.421,-12.22,-11.0,-4.565,2.111,-7.498,-9.616,-0.2257,1.761,19.46,12.11,14.22,10.87,0,0,0,0,0,0,0,0,0,0,0,0,0,0,0,0,
219,-11.44,-9.435,9.419,9.087,10.09,6.353,12.96,11.2,16.48,7.355,12.07,6.908,30.77,18.0,19.75,13.77,0,0,0,0,0,0,0,0,0,0,0,0,0,0,0,0,
220,-13.73,-18.18,-2.901,-5.841,-2.635,-2.991,-0.7893,-0.2694,15.89,4.229,0.6202,-0.079,17.44,8.569,13.86,7.988,0,0,0,0,0,0,0,0,0,0,0,0,0,0,0,0,
221,-12.91,-15.51,0.8204,2.896,2.233,4.416,4.657,14.45,7.517,7.567,8.092,18.63,25.02,22.66,24.99,23.77,0,0,0,0,0,0,0,0,0,0,0,0,0,0,0,0,
222,1.568,-6.564,3.332,7.472,3.547,5.735,-2.95,10.55,12.82,22.68,-6.064,5.382,12.51,10.21,5.228,3.477,0,0,0,0,0,0,0,0,0,0,0,0,0,0,0,0,
223,-1.036,-16.28,-8.629,-1.539,-6.832,-5.85,-11.31,-5.154,-2.894,4.456,-13.51,-8.636,2.227,-5.51,0.0853,-9.275,0,0,0,0,0,0,0,0,0,0,0,0,0,0,0,0,
224,10.25,-1.778,11.58,11.02,13.77,4.162,14.59,1.27,6.843,5.031,12.37,-1.295,17.76,-0.7345,12.82,-2.371,0,0,0,0,0,0,0,0,0,0,0,0,0,0,0,0,
225,14.43,1.105,10.34,-0.6719,10.23,-9.207,13.16,-15.17,13.73,1.127,8.46,-13.61,4.39,-14.9,-1.384,-12.36,0,0,0,0,0,0,0,0,0,0,0,0,0,0,0,0,
226,7.729,2.541,5.464,-11.75,5.788,-16.96,12.67,-14.96,-2.02,-18.76,9.976,-4.773,2.18,-9.619,4.234,0.0419,0,0,0,0,0,0,0,0,0,0,0,0,0,0,0,0,
227,17.22,15.03,18.15,-11.93,17.52,-8.272,20.37,-7.511,6.017,-11.86,13.87,-1.587,6.678,-4.374,5.343,1.613,0,0,0,0,0,0,0,0,0,0,0,0,0,0,0,0,
228,5.383,-5.549,2.63,-27.95,1.959,-19.25,7.033,-25.47,-1.762,-17.79,-0.1693,-15.97,-5.19,-13.78,-3.412,-8.09,0,0,0,0,0,0,0,0,0,0,0,0,0,0,0,0,
229,-7.442,-9.495,-0.3278,-16.86,0.9346,-9.501,11.61,-16.44,-8.378,-15.62,7.956,-4.412,0.8194,-2.291,3.873,0.9119,0,0,0,0,0,0,0,0,0,0,0,0,0,0,0,0,
230,-5.863,-4.81,-3.597,-10.18,-3.45,-6.335,3.007,-11.81,-2.905,-4.94,-0.4641,-4.357,-11.94,-7.787,-9.498,-8.108,0,0,0,0,0,0,0,0,0,0,0,0,0,0,0,0,
231,-12.4,-13.78,-14.89,-14.19,-14.25,-13.62,-8.44,-11.28,-19.94,-17.95,-9.48,2.442,-20.96,-6.742,-5.352,0.4322,0,0,0,0,0,0,0,0,0,0,0,0,0,0,0,0,
232,-6.0,2.583,1.026,2.342,2.397,4.13,3.505,6.25,-11.01,-5.161,0.1755,15.32,-6.394,7.271,6.833,13.98,0,0,0,0,0,0,0,0,0,0,0,0,0,0,0,0,
233,-8.576,-4.179,-5.206,-4.079,-4.888,-2.82,-9.239,-2.68,-2.669,0.0244,-13.86,-1.028,-13.82,-5.535,-9.448,-1.472,0,0,0,0,0,0,0,0,0,0,0,0,0,0,0,0,
234,-13.44,-15.24,-5.841,-1.998,-4.98,-7.442,-6.139,-0.4478,-12.22,-10.88,-8.584,-0.6694,-6.426,-0.1743,-5.397,0.7698,0,0,0,0,0,0,0,0,0,0,0,0,0,0,0,0,
235,2.993,3.234,13.31,15.61,13.02,8.876,9.078,6.42,4.379,4.058,1.789,-7.218,3.319,3.011,-6.774,-7.294,0,0,0,0,0,0,0,0,0,0,0,0,0,0,0,0,
236,0.7386,1.161,4.613,14.26,4.217,10.11,1.554,-2.537,7.018,2.18,-2.093,-19.83,2.978,-4.039,-7.115,-13.76,0,0,0,0,0,0,0,0,0,0,0,0,0,0,0,0,
237,-0.2665,9.202,9.547,26.8,10.65,20.29,11.42,10.54,12.68,7.751,13.56,-6.79,22.94,10.63,11.87,0.4343,0,0,0,0,0,0,0,0,0,0,0,0,0,0,0,0,
238,4.182,15.01,5.537,19.64,5.473,12.0,2.168,-0.3989,22.59,17.07,-0.5154,-22.55,9.473,-7.032,-6.33,-21.97,0,0,0,0,0,0,0,0,0,0,0,0,0,0,0,0,
239,-5.863,-0.0567,-12.09,2.562,-11.33,-1.846,-10.26,-11.6,-1.232,-5.165,-12.48,-28.7,-6.067,-23.9,-13.25,-31.07,0,0,0,0,0,0,0,0,0,0,0,0,0,0,0,0,
240,2.224,11.7,3.256,14.05,4.417,12.15,7.556,6.538,0.0094,-1.452,3.982,-12.51,5.692,-15.13,-1.65,-19.36,0,0,0,0,0,0,0,0,0,0,0,0,0,0,0,0,
241,0.8908,8.583,-2.428,3.951,-3.168,0.4685,-5.034,-5.476,2.867,-2.494,-10.94,-23.08,-9.993,-26.19,-13.96,-27.82,0,0,0,0,0,0,0,0,0,0,0,0,0,0,0,0,
242,-5.904,3.242,-7.861,5.769,-7.966,-2.446,-13.2,-2.478,-12.69,-17.68,-13.61,-12.34,-13.89,-16.84,-10.08,-16.47,0,0,0,0,0,0,0,0,0,0,0,0,0,0,0,0,
243,11.61,19.79,3.928,21.11,3.379,10.56,-8.084,10.59,-3.035,-4.238,-10.88,-1.957,-13.98,-6.839,-19.55,-14.47,0,0,0,0,0,0,0,0,0,0,0,0,0,0,0,0,
244,9.31,4.233,-11.68,5.738,-12.9,-3.185,-20.56,-3.549,-13.5,-10.88,-27.26,-9.82,-29.89,-14.43,-34.38,-19.94,0,0,0,0,0,0,0,0,0,0,0,0,0,0,0,0,
245,1.473,-3.57,-9.58,8.183,-9.795,-0.9008,-13.5,2.442,-23.4,-13.18,-19.34,-3.197,-23.31,-5.771,-22.23,-10.77,0,0,0,0,0,0,0,0,0,0,0,0,0,0,0,0,
246,-4.511,0.0534,-11.16,4.565,-11.09,-10.28,-20.66,-7.768,-16.19,-5.983,-26.12,-19.21,-33.3,-19.75,-31.58,-25.84,0,0,0,0,0,0,0,0,0,0,0,0,0,0,0,0,
247,-17.38,-8.902,-23.17,-10.35,-21.52,-27.99,-26.4,-22.6,-29.82,-26.2,-27.97,-21.85,-34.19,-23.77,-23.8,-18.46,0,0,0,0,0,0,0,0,0,0,0,0,0,0,0,0,
248,1.889,3.487,1.751,0.0479,2.628,-9.939,0.9932,-7.457,-15.31,-18.31,-2.652,-3.281,-6.119,-3.278,0.7096,1.693,0,0,0,0,0,0,0,0,0,0,0,0,0,0,0,0,
249,9.086,1.284,4.764,-10.22,3.467,-14.54,2.845,-13.48,1.356,-8.909,-2.461,-7.174,-3.017,-6.426,2.52,-2.307,0,0,0,0,0,0,0,0,0,0,0,0,0,0,0,0,
250,-7.595,-3.816,-2.326,-14.54,-2.208,-21.11,8.119,-7.909,-4.221,-12.65,8.923,8.401,12.23,7.525,23.09,15.73,0,0,0,0,0,0,0,0,0,0,0,0,0,0,0,0,
251,-9.077,3.359,2.491,-4.885,2.634,-10.83,16.64,2.193,10.35,7.475,17.05,13.59,25.69,17.85,27.96,16.53,0,0,0,0,0,0,0,0,0,0,0,0,0,0,0,0,
252,-21.43,-16.9,-11.11,-16.27,-10.99,-19.43,3.762,-9.551,7.699,5.526,4.76,1.684,18.33,7.325,20.14,5.344,0,0,0,0,0,0,0,0,0,0,0,0,0,0,0,0,
253,-16.8,-17.62,1.957,-10.12,2.994,-11.45,16.29,3.911,7.888,6.721,18.09,14.38,31.25,15.19,30.82,16.23,0,0,0,0,0,0,0,0,0,0,0,0,0,0,0,0,
254,-0.271,-11.8,7.302,-14.69,7.332,-12.98,14.11,0.9005,19.57,16.9,10.92,3.867,21.54,4.398,12.71,0.573,0,0,0,0,0,0,0,0,0,0,0,0,0,0,0,0,
255,-12.94,-21.29,-8.211,-24.82,-6.905,-22.66,2.658,-8.484,4.299,0.4991,0.3648,-1.877,9.625,-2.203,4.827,-5.328,0,0,0,0,0,0,0,0,0,0,0,0,0,0,0,0,
256,-8.749,-2.852,6.683,-1.931,7.99,-1.414,14.3,7.894,10.86,8.093,9.966,8.787,16.15,4.616,6.728,-2.352,0,0,0,0,0,0,0,0,0,0,0,0,0,0,0,0,
257,-0.3563,-1.851,2.813,0.3495,1.867,-0.9073,0.8287,-2.708,14.22,11.32,-7.899,-4.453,-4.98,-10.84,-15.7,-17.6,0,0,0,0,0,0,0,0,0,0,0,0,0,0,0,0,
258,-1.633,-3.489,2.526,3.969,2.239,0.3658,1.694,-1.858,0.8834,0.9731,-7.612,2.719,-7.445,-1.437,-12.85,-4.191,0,0,0,0,0,0,0,0,0,0,0,0,0,0,0,0,
259,11.02,16.84,19.93,16.57,19.38,12.33,12.96,9.974,15.58,14.82,-1.661,2.81,-2.816,3.791,-16.61,-4.445,0,0,0,0,0,0,0,0,0,0,0,0,0,0,0,0,
260,1.979,9.807,6.321,7.321,5.953,2.783,2.396,2.313,11.64,6.945,-9.857,-11.41,-10.08,-8.597,-22.04,-13.97,0,0,0,0,0,0,0,0,0,0,0,0,0,0,0,0,
261,-3.705,17.63,13.21,19.84,13.79,16.02,18.63,14.47,11.61,8.054,12.33,-0.3331,10.48,5.529,0.9098,-0.2247,0,0,0,0,0,0,0,0,0,0,0,0,0,0,0,0,
262,8.875,26.35,19.92,22.08,19.09,20.1,17.5,5.876,25.71,21.72,9.252,-11.9,6.131,-4.538,-5.634,-15.4,0,0,0,0,0,0,0,0,0,0,0,0,0,0,0,0,
263,4.868,8.415,7.074,11.19,7.393,8.06,3.073,-7.903,7.53,5.108,-2.586,-14.17,-3.298,-15.01,-4.269,-18.18,0,0,0,0,0,0,0,0,0,0,0,0,0,0,0,0,
264,9.425,19.89,23.21,26.3,24.19,23.57,19.44,8.488,14.78,12.41,14.39,4.415,15.73,0.3454,11.1,-5.034,0,0,0,0,0,0,0,0,0,0,0,0,0,0,0,0,
265,12.28,23.58,21.23,22.11,20.66,22.63,12.66,3.449,29.97,21.18,7.166,-1.261,13.09,0.9013,1.626,-10.09,0,0,0,0,0,0,0,0,0,0,0,0,0,0,0,0,
266,10.82,20.5,16.41,25.66,16.6,28.36,8.232,10.29,23.95,20.91,7.55,13.68,20.94,21.15,13.55,10.65,0,0,0,0,0,0,0,0,0,0,0,0,0,0,0,0,
267,23.41,37.5,26.08,38.94,25.96,45.86,10.81,19.81,36.35,44.58,9.274,20.07,27.98,32.23,17.18,15.07,0,0,0,0,0,0,0,0,0,0,0,0,0,0,0,0,
268,18.48,32.21,10.36,24.68,10.53,34.26,-4.774,5.814,28.52,40.14,-3.703,8.664,18.27,22.48,13.14,7.721,0,0,0,0,0,0,0,0,0,0,0,0,0,0,0,0,
269,16.42,32.84,15.36,30.51,16.26,36.77,6.907,19.19,22.9,38.3,11.53,25.93,32.68,38.33,32.04,27.89,0,0,0,0,0,0,0,0,0,0,0,0,0,0,0,0,
270,15.01,23.79,15.31,26.02,14.16,27.28,5.185,14.15,33.52,44.91,7.068,18.3,21.93,26.76,18.46,17.81,0,0,0,0,0,0,0,0,0,0,0,0,0,0,0,0,
271,-6.814,-6.559,-6.039,5.243,-6.607,1.304,-9.712,-2.016,13.49,14.37,-4.25,6.88,2.259,7.241,6.053,9.146,0,0,0,0,0,0,0,0,0,0,0,0,0,0,0,0,
272,-6.099,1.826,3.108,12.59,3.087,6.807,0.8967,13.6,8.267,7.693,6.28,15.19,5.517,11.52,7.37,14.58,0,0,0,0,0,0,0,0,0,0,0,0,0,0,0,0,
273,-2.731,6.56,-0.9368,3.874,-1.792,0.8535,-5.629,9.105,5.535,9.111,-4.105,3.53,-9.862,-3.062,-10.94,-1.04,0,0,0,0,0,0,0,0,0,0,0,0,0,0,0,0,
274,-3.477,2.745,-3.358,0.6937,-2.77,-2.708,-0.5937,9.499,-8.276,-3.4,1.085,5.815,-8.662,-5.721,-10.88,-1.333,0,0,0,0,0,0,0,0,0,0,0,0,0,0,0,0,
275,9.381,12.7,9.243,11.74,8.561,4.007,7.692,13.96,5.292,3.904,3.825,1.063,-5.038,-7.873,-18.49,-9.601,0,0,0,0,0,0,0,0,0,0,0,0,0,0,0,0,
276,-1.049,0.1076,-2.029,3.273,-3.416,-6.087,-6.325,1.1,2.856,-3.809,-10.57,-9.751,-12.8,-14.42,-21.29,-11.89,0,0,0,0,0,0,0,0,0,0,0,0,0,0,0,0,
277,-2.457,3.407,9.166,11.81,9.721,5.5,10.61,11.64,5.996,1.407,9.031,10.84,9.647,8.147,6.494,14.01,0,0,0,0,0,0,0,0,0,0,0,0,0,0,0,0,
278,6.851,7.121,12.27,6.213,12.18,3.163,13.93,3.069,21.91,16.96,9.812,6.753,9.444,8.129,3.62,7.357,0,0,0,0,0,0,0,0,0,0,0,0,0,0,0,0,
279,-9.036,-7.098,-6.674,-10.03,-6.155,-11.25,2.49,-9.245,4.179,1.552,3.833,1.165,3.796,5.783,8.25,6.278,0,0,0,0,0,0,0,0,0,0,0,0,0,0,0,0,
280,-3.296,13.74,10.57,7.228,11.23,9.132,20.16,9.313,10.27,10.57,23.29,12.0,25.27,21.73,29.18,19.7,0,0,0,0,0,0,0,0,0,0,0,0,0,0,0,0,
281,6.985,19.49,12.83,7.268,11.35,9.543,16.09,3.957,25.14,19.98,15.78,2.465,23.28,15.92,23.01,11.87,0,0,0,0,0,0,0,0,0,0,0,0,0,0,0,0,
282,-0.0624,8.648,4.803,7.703,3.896,6.572,13.15,8.243,17.05,14.32,16.22,13.26,26.61,25.02,27.88,20.98,0,0,0,0,0,0,0,0,0,0,0,0,0,0,0,0,
283,4.859,20.62,11.15,19.47,10.9,17.59,18.83,20.85,23.2,31.21,20.67,20.93,28.41,33.2,22.57,22.75,0,0,0,0,0,0,0,0,0,0,0,0,0,0,0,0,
284,5.591,20.2,7.306,15.38,7.491,15.4,12.45,15.6,17.11,32.86,11.86,20.98,20.43,33.56,17.57,28.4,0,0,0,0,0,0,0,0,0,0,0,0,0,0,0,0,
285,18.24,30.3,29.45,31.05,29.24,34.65,30.13,31.91,24.85,44.45,27.08,42.44,37.88,52.81,35.32,50.12,0,0,0,0,0,0,0,0,0,0,0,0,0,0,0,0,
286,29.75,35.27,32.72,29.07,30.52,33.43,24.92,24.21,42.08,54.81,16.89,27.55,24.3,33.42,18.18,26.91,0,0,0,0,0,0,0,0,0,0,0,0,0,0,0,0,
287,15.37,18.39,7.177,11.41,6.588,8.803,6.582,8.132,16.46,21.66,1.579,12.87,2.161,9.444,8.016,12.31,0,0,0,0,0,0,0,0,0,0,0,0,0,0,0,0,
288,19.98,23.21,15.25,19.66,15.1,13.47,17.36,19.8,8.381,12.88,13.02,17.88,7.195,11.11,13.4,15.46,0,0,0,0,0,0,0,0,0,0,0,0,0,0,0,0,
289,19.38,12.73,7.335,5.709,5.499,2.288,7.75,3.844,8.241,8.524,3.27,-1.867,-4.957,-5.352,-0.0182,-3.233,0,0,0,0,0,0,0,0,0,0,0,0,0,0,0,0,
290,8.981,3.754,0.6411,2.585,0.1694,-2.76,10.89,2.125,-4.08,-5.465,12.38,4.022,5.42,1.278,15.83,6.862,0,0,0,0,0,0,0,0,0,0,0,0,0,0,0,0,
291,21.9,17.56,14.44,19.96,13.58,9.961,23.55,16.8,12.41,12.05,25.6,11.27,21.05,10.37,23.21,11.84,0,0,0,0,0,0,0,0,0,0,0,0,0,0,0,0,
292,16.62,4.541,-0.7779,10.21,-1.921,-1.829,7.146,9.123,11.44,9.316,14.07,-0.1518,12.03,0.2754,13.45,1.988,0,0,0,0,0,0,0,0,0,0,0,0,0,0,0,0,
293,11.89,6.652,2.878,14.11,2.973,1.367,12.34,19.25,8.755,7.074,22.84,11.36,21.29,11.34,23.05,10.33,0,0,0,0,0,0,0,0,0,0,0,0,0,0,0,0,
294,21.48,17.89,9.736,14.1,9.01,0.9004,10.89,14.74,20.18,18.24,11.81,3.913,10.12,5.486,9.32,-1.85,0,0,0,0,0,0,0,0,0,0,0,0,0,0,0,0,
295,15.66,11.39,-3.372,5.664,-3.208,-7.025,-0.9357,7.065,2.664,4.308,-2.849,2.239,-4.491,4.88,4.101,1.095,0,0,0,0,0,0,0,0,0,0,0,0,0,0,0,0,
296,23.86,24.26,6.317,19.64,6.108,9.736,7.047,24.9,2.607,12.37,7.364,19.01,5.255,23.3,9.259,15.21,0,0,0,0,0,0,0,0,0,0,0,0,0,0,0,0,
297,25.12,15.66,-2.708,10.26,-4.318,-0.2001,-5.887,14.39,5.811,16.93,-5.25,8.5,-5.19,13.52,-8.256,3.678,0,0,0,0,0,0,0,0,0,0,0,0,0,0,0,0,
298,12.96,2.486,-9.412,4.747,-9.313,-9.219,-2.948,11.21,-4.415,4.799,-1.687,13.64,2.931,17.82,-0.6483,14.11,0,0,0,0,0,0,0,0,0,0,0,0,0,0,0,0,
299,21.42,13.82,6.736,12.87,5.464,1.337,11.94,15.71,13.2,18.1,8.049,17.39,18.38,23.9,4.115,18.58,0,0,0,0,0,0,0,0,0,0,0,0,0,0,0,0,
300,19.21,4.938,0.0901,1.683,-1.936,-6.992,1.173,1.784,15.42,13.99,-2.113,5.474,12.67,13.91,0.483,13.8,0,0,0,0,0,0,0,0,0,0,0,0,0,0,0,0,
301,17.44,10.53,5.814,9.79,6.019,-0.7699,6.633,12.44,13.65,10.76,6.252,11.78,19.15,22.31,9.534,23.34,0,0,0,0,0,0,0,0,0,0,0,0,0,0,0,0,
302,22.98,12.37,5.235,9.176,4.256,-3.589,-1.365,8.576,17.34,16.63,-5.711,0.4848,4.154,12.71,-9.718,7.592,0,0,0,0,0,0,0,0,0,0,0,0,0,0,0,0,
303,14.72,-8.809,-8.06,-1.989,-8.816,-15.83,-12.1,1.546,-4.579,2.603,-13.88,1.75,-5.044,9.333,-9.121,9.389,0,0,0,0,0,0,0,0,0,0,0,0,0,0,0,0,
304,19.27,5.1,8.322,5.947,8.408,-1.167,6.043,17.92,2.555,13.43,6.02,17.04,10.62,20.81,7.076,19.53,0,0,0,0,0,0,0,0,0,0,0,0,0,0,0,0,
305,16.73,11.17,5.199,-8.06,3.729,-5.408,1.084,3.599,12.33,13.36,0.0488,-0.5008,-0.6771,1.281,-5.433,-2.807,0,0,0,0,0,0,0,0,0,0,0,0,0,0,0,0,
306,12.4,11.63,4.688,-2.691,4.117,-4.099,6.857,2.059,1.919,-5.054,9.547,-1.887,3.328,-3.731,4.691,-5.076,0,0,0,0,0,0,0,0,0,0,0,0,0,0,0,0,
307,26.41,27.61,19.21,15.6,19.25,5.83,19.96,10.23,16.08,3.243,22.45,-2.576,11.47,-3.857,10.75,-8.265,0,0,0,0,0,0,0,0,0,0,0,0,0,0,0,0,
308,15.1,7.715,3.856,-3.293,3.594,-10.27,4.571,-5.878,11.09,-5.944,8.891,-9.853,-0.6538,-9.99,8.669,-8.919,0,0,0,0,0,0,0,0,0,0,0,0,0,0,0,0,
309,7.676,4.05,8.085,2.929,7.571,-0.486,6.298,3.257,2.853,-6.26,11.91,6.726,5.302,6.173,22.01,9.572,0,0,0,0,0,0,0,0,0,0,0,0,0,0,0,0,
310,13.69,22.03,8.67,14.26,7.182,6.822,-3.938,1.831,6.671,6.932,-2.336,-1.759,-10.03,-1.856,2.384,-3.724,0,0,0,0,0,0,0,0,0,0,0,0,0,0,0,0,
311,2.602,19.57,-5.829,9.518,-5.803,-0.646,-12.21,-2.66,-12.19,-5.29,-11.03,-0.123,-21.18,-0.9749,-3.464,0.8891,0,0,0,0,0,0,0,0,0,0,0,0,0,0,0,0,
312,11.46,28.52,12.29,22.29,12.24,13.87,8.579,17.6,-3.793,7.793,3.327,19.29,-6.193,19.19,6.102,18.4,0,0,0,0,0,0,0,0,0,0,0,0,0,0,0,0,
313,17.1,19.65,3.308,12.39,2.232,3.366,-7.054,5.016,2.788,13.19,-15.92,3.808,-18.34,3.803,-14.03,1.265,0,0,0,0,0,0,0,0,0,0,0,0,0,0,0,0,
314,9.809,9.22,-9.94,8.316,-9.069,-0.1014,-15.54,1.234,-12.52,-0.5063,-16.96,5.381,-11.3,5.58,-9.035,5.373,0,0,0,0,0,0,0,0,0,0,0,0,0,0,0,0,
315,20.26,27.71,4.461,19.53,3.991,18.04,-2.394,11.7,4.592,15.39,-4.197,9.171,5.891,14.74,-3.006,7.687,0,0,0,0,0,0,0,0,0,0,0,0,0,0,0,0,
316,15.72,28.46,-3.238,8.182,-4.769,11.66,-9.49,1.513,10.21,14.02,-10.67,0.6838,2.764,8.483,-7.653,2.331,0,0,0,0,0,0,0,0,0,0,0,0,0,0,0,0,
317,18.31,33.34,4.923,15.73,5.373,19.44,2.753,12.91,12.21,14.52,3.657,16.87,16.21,22.26,2.657,15.38,0,0,0,0,0,0,0,0,0,0,0,0,0,0,0,0,
318,30.37,30.8,7.962,17.2,7.729,17.51,0.8284,11.1,20.71,22.0,-4.026,10.97,3.0,12.18,-13.5,1.332,0,0,0,0,0,0,0,0,0,0,0,0,0,0,0,0,
319,16.16,14.26,-10.53,8.398,-10.89,-0.4143,-13.48,1.926,-5.306,-1.48,-15.8,4.86,-14.57,0.9166,-13.68,-2.192,0,0,0,0,0,0,0,0,0,0,0,0,0,0,0,0,
320,16.58,30.84,1.515,22.38,0.8502,7.005,-0.6205,12.0,-10.37,-0.7871,0.3756,10.43,-3.343,9.186,2.543,5.819,0,0,0,0,0,0,0,0,0,0,0,0,0,0,0,0,
321,18.53,24.75,-2.697,9.328,-4.123,-5.71,-8.742,-7.179,-7.26,-3.009,-8.926,-7.444,-13.3,-7.157,-6.55,-7.285,0,0,0,0,0,0,0,0,0,0,0,0,0,0,0,0,
322,9.65,7.069,-10.37,1.079,-10.21,-11.27,-10.36,-11.0,-19.36,-22.41,-6.718,-0.7637,-8.778,-7.32,7.013,3.017,0,0,0,0,0,0,0,0,0,0,0,0,0,0,0,0,
323,15.92,17.66,-1.52,10.85,-2.224,0.7525,-2.769,-1.549,-6.574,-13.58,1.406,0.0751,-0.7396,-8.172,9.718,-1.424,0,0,0,0,0,0,0,0,0,0,0,0,0,0,0,0,
324,6.008,6.693,-18.96,-4.011,-19.35,-17.88,-16.37,-14.45,-11.7,-24.3,-10.89,-17.14,-14.19,-25.97,-3.127,-15.93,0,0,0,0,0,0,0,0,0,0,0,0,0,0,0,0,
325,1.822,8.303,-15.04,-2.542,-13.65,-20.4,-7.555,-4.255,-17.49,-31.87,-1.297,-4.676,-5.633,-17.41,8.339,-2.805,0,0,0,0,0,0,0,0,0,0,0,0,0,0,0,0,
326,10.93,19.07,-6.829,-4.953,-8.028,-18.54,-11.94,-8.031,-7.733,-20.57,-11.26,-10.4,-17.42,-24.41,-5.648,-15.16,0,0,0,0,0,0,0,0,0,0,0,0,0,0,0,0,
327,3.169,8.54,-17.24,-12.77,-18.75,-23.77,-25.35,-15.66,-25.54,-30.96,-27.46,-13.36,-36.84,-29.6,-17.41,-18.04,0,0,0,0,0,0,0,0,0,0,0,0,0,0,0,0,
328,15.39,22.38,-1.742,10.52,-2.032,-0.5134,-9.239,6.256,-22.58,-17.69,-17.37,2.511,-28.33,-11.33,-12.77,-2.49,0,0,0,0,0,0,0,0,0,0,0,0,0,0,0,0,
329,28.18,27.8,-2.427,11.67,-3.489,5.715,-14.68,-1.437,-11.85,-2.034,-25.88,-6.127,-31.07,-9.34,-21.46,-5.243,0,0,0,0,0,0,0,0,0,0,0,0,0,0,0,0,
330,22.69,22.62,-5.554,9.052,-5.621,7.47,-13.94,-4.225,-15.32,0.7229,-19.41,1.861,-16.45,8.885,-7.15,11.97,0,0,0,0,0,0,0,0,0,0,0,0,0,0,0,0,
331,25.51,30.81,4.604,15.38,4.219,13.77,-3.283,4.538,3.768,21.64,-7.913,4.965,-1.158,18.47,-3.431,14.31,0,0,0,0,0,0,0,0,0,0,0,0,0,0,0,0,
332,16.22,20.59,-10.21,2.34,-10.24,-1.829,-13.16,-6.175,3.472,13.68,-12.1,-7.762,-3.182,5.34,-9.316,2.733,0,0,0,0,0,0,0,0,0,0,0,0,0,0,0,0,
333,17.47,26.69,-1.853,13.79,-0.4107,6.307,0.4715,4.72,3.796,6.382,7.151,3.328,17.53,12.65,4.934,11.15,0,0,0,0,0,0,0,0,0,0,0,0,0,0,0,0,
334,28.11,32.6,6.551,17.15,5.951,9.262,1.401,0.3339,19.74,12.8,1.58,-8.331,11.78,-1.855,-10.11,-6.051,0,0,0,0,0,0,0,0,0,0,0,0,0,0,0,0,
335,16.36,19.18,-7.975,1.726,-8.926,-5.673,-11.89,-12.5,4.638,-7.85,-13.78,-17.94,-6.44,-17.23,-17.92,-13.3,0,0,0,0,0,0,0,0,0,0,0,0,0,0,0,0,
336,18.41,33.17,-0.4631,10.04,-1.232,-0.4768,-3.291,-1.374,0.4443,-9.709,-6.418,-9.179,-5.208,-12.72,-10.94,-7.459,0,0,0,0,0,0,0,0,0,0,0,0,0,0,0,0,
337,16.89,28.79,-9.899,2.47,-11.69,-14.1,-14.71,-14.82,-5.664,-15.81,-19.51,-24.87,-24.49,-29.96,-23.47,-23.56,0,0,0,0,0,0,0,0,0,0,0,0,0,0,0,0,
338,4.354,16.5,-13.8,-1.184,-13.93,-20.43,-12.66,-16.85,-23.73,-34.76,-14.18,-25.03,-24.6,-31.51,-14.59,-21.0,0,0,0,0,0,0,0,0,0,0,0,0,0,0,0,0,
339,9.236,29.43,1.143,3.115,0.6931,-12.13,-0.4693,-11.4,-11.18,-26.27,-5.401,-28.91,-17.96,-33.73,-16.21,-29.53,0,0,0,0,0,0,0,0,0,0,0,0,0,0,0,0,
340,-0.7864,17.13,-14.07,-13.65,-15.03,-25.8,-13.89,-29.33,-16.0,-35.76,-18.74,-41.06,-28.31,-44.98,-22.25,-37.25,0,0,0,0,0,0,0,0,0,0,0,0,0,0,0,0,
341,-4.248,12.14,-11.23,-3.082,-10.78,-16.19,-4.455,-18.67,-21.2,-35.68,-5.473,-20.67,-13.68,-22.89,-0.6321,-12.1,0,0,0,0,0,0,0,0,0,0,0,0,0,0,0,0,
342,8.5,17.5,-5.333,3.301,-6.075,-10.36,-3.771,-12.23,-8.125,-16.13,-7.604,-17.8,-16.39,-16.51,-9.046,-13.15,0,0,0,0,0,0,0,0,0,0,0,0,0,0,0,0,
343,4.208,11.18,-16.05,-6.889,-16.71,-20.83,-16.42,-13.82,-20.78,-23.22,-18.79,-13.97,-25.55,-14.43,-14.13,-10.44,0,0,0,0,0,0,0,0,0,0,0,0,0,0,0,0,
344,8.388,24.27,-2.508,4.467,-2.709,-8.681,-8.355,-0.5879,-19.33,-13.75,-11.43,1.84,-14.99,-0.33,-5.822,0.7218,0,0,0,0,0,0,0,0,0,0,0,0,0,0,0,0,
345,6.805,19.11,-8.735,-1.686,-10.01,-12.51,-16.98,-12.06,-18.31,-7.437,-22.79,-8.204,-23.86,-9.131,-19.6,-10.77,0,0,0,0,0,0,0,0,0,0,0,0,0,0,0,0,
346,-0.6009,12.56,-14.03,1.437,-14.63,-8.319,-13.6,-6.919,-27.95,-13.04,-16.13,-1.193,-18.57,-0.6267,-13.78,-1.21,0,0,0,0,0,0,0,0,0,0,0,0,0,0,0,0,
347,10.37,22.87,-3.624,15.62,-4.765,5.795,-7.521,0.5336,-12.53,1.032,-10.69,-4.13,-17.1,0.6062,-17.1,-4.388,0,0,0,0,0,0,0,0,0,0,0,0,0,0,0,0,
348,5.27,8.285,-17.67,3.233,-18.65,-5.207,-18.99,-17.47,-20.06,-9.679,-19.46,-20.92,-27.14,-13.26,-22.23,-13.44,0,0,0,0,0,0,0,0,0,0,0,0,0,0,0,0,
349,5.769,20.0,-3.636,10.79,-3.401,9.112,3.671,-3.835,-17.91,-7.618,6.878,-7.447,-0.2533,2.302,-0.0213,1.835,0,0,0,0,0,0,0,0,0,0,0,0,0,0,0,0,
350,16.09,35.76,9.603,10.02,9.204,15.03,7.545,-4.46,9.947,10.77,6.716,-18.34,1.976,-7.669,-10.73,-14.36,0,0,0,0,0,0,0,0,0,0,0,0,0,0,0,0,
351,8.837,19.46,-2.673,-2.532,-1.589,-1.237,-5.283,-16.36,2.543,-6.682,-6.124,-25.31,-8.929,-19.97,-14.43,-17.94,0,0,0,0,0,0,0,0,0,0,0,0,0,0,0,0,
352,18.88,29.84,11.5,12.49,12.33,7.579,13.02,-0.5207,6.761,-4.907,10.59,-8.285,5.122,-6.579,0.378,-1.911,0,0,0,0,0,0,0,0,0,0,0,0,0,0,0,0,
353,20.82,23.88,4.197,-0.8809,3.142,-3.186,4.208,-14.36,11.63,-5.387,1.431,-20.57,-5.652,-19.21,-10.5,-14.79,0,0,0,0,0,0,0,0,0,0,0,0,0,0,0,0,
354,5.98,4.463,-5.807,-14.32,-4.772,-10.31,-1.188,-22.35,-5.425,-23.5,2.207,-20.19,-3.075,-18.39,-0.0697,-11.06,0,0,0,0,0,0,0,0,0,0,0,0,0,0,0,0,
355,11.06,17.43,9.546,-3.094,10.78,2.571,11.24,-14.4,5.602,-10.8,12.16,-17.06,9.508,-10.11,6.33,-9.527,0,0,0,0,0,0,0,0,0,0,0,0,0,0,0,0,
356,9.19,14.78,1.109,-9.379,1.887,-4.567,1.165,-22.89,7.403,-10.44,0.2306,-22.06,2.04,-12.33,-0.9652,-9.191,0,0,0,0,0,0,0,0,0,0,0,0,0,0,0,0,
357,14.16,14.07,6.753,-2.158,8.011,7.333,6.006,-7.828,7.717,-4.67,4.99,-0.8789,11.31,9.35,9.617,14.28,0,0,0,0,0,0,0,0,0,0,0,0,0,0,0,0,
358,22.26,14.51,10.46,-2.016,9.321,12.83,1.4,-7.231,19.43,15.91,-5.652,-2.052,3.119,10.49,-2.722,8.108,0,0,0,0,0,0,0,0,0,0,0,0,0,0,0,0,
359,6.954,3.33,-5.295,-11.5,-5.73,1.851,-9.963,-15.78,2.041,8.786,-14.35,-3.421,-8.392,5.478,-5.781,6.993,0,0,0,0,0,0,0,0,0,0,0,0,0,0,0,0,
360,11.11,20.89,4.819,2.658,5.401,13.89,-1.068,3.405,-1.793,15.63,-2.14,11.64,-2.633,14.26,-0.2805,14.15,0,0,0,0,0,0,0,0,0,0,0,0,0,0,0,0,
361,13.28,19.44,-4.243,-5.1,-6.103,2.57,-17.09,1.771,-5.738,14.83,-19.29,3.892,-19.12,3.666,-19.23,-4.197,0,0,0,0,0,0,0,0,0,0,0,0,0,0,0,0,
362,0.625,4.444,-13.71,-8.859,-14.96,-6.108,-17.07,6.501,-17.82,3.118,-16.32,11.84,-10.85,12.77,-10.49,2.852,0,0,0,0,0,0,0,0,0,0,0,0,0,0,0,0,
363,5.109,12.45,0.5917,0.1838,0.3865,5.614,-2.29,11.97,5.445,20.08,-1.843,9.237,5.623,15.34,-6.617,3.35,0,0,0,0,0,0,0,0,0,0,0,0,0,0,0,0,
364,-4.296,5.62,-8.029,-12.12,-8.12,-4.131,-13.86,-6.019,9.16,10.97,-11.43,-9.333,-2.586,-2.178,-14.79,-8.908,0,0,0,0,0,0,0,0,0,0,0,0,0,0,0,0,
365,-10.32,11.1,-3.05,-3.911,-2.635,2.246,-2.411,3.018,4.362,1.115,2.068,2.021,9.294,8.098,0.3497,1.643,0,0,0,0,0,0,0,0,0,0,0,0,0,0,0,0,
366,-2.121,13.64,0.59,-4.589,0.148,2.196,2.064,-2.342,13.87,7.303,3.449,-8.128,6.354,0.0658,-7.42,-9.8,0,0,0,0,0,0,0,0,0,0,0,0,0,0,0,0,
367,-4.596,-1.149,-9.939,-16.24,-10.01,-12.03,-6.286,-17.91,-1.192,-11.53,-2.371,-18.99,1.492,-9.321,-5.804,-13.99,0,0,0,0,0,0,0,0,0,0,0,0,0,0,0,0,
368,7.088,19.15,3.893,1.665,3.128,2.207,4.899,-6.082,1.83,-5.798,7.592,-8.977,16.32,4.125,9.882,-4.689,0,0,0,0,0,0,0,0,0,0,0,0,0,0,0,0,
369,7.344,23.27,-3.878,-1.602,-5.394,1.123,-7.676,-15.24,6.265,2.232,-6.994,-17.65,3.78,-4.757,-0.8155,-13.31,0,0,0,0,0,0,0,0,0,0,0,0,0,0,0,0,
370,2.217,12.44,-5.546,-1.11,-5.131,3.566,-8.959,-10.77,-4.617,-7.312,-3.855,-8.416,2.128,-3.479,2.622,-4.843,0,0,0,0,0,0,0,0,0,0,0,0,0,0,0,0,
371,28.47,26.6,15.49,11.71,14.65,20.17,1.802,3.241,8.72,3.041,1.512,-5.86,-0.4301,-5.156,-6.252,-11.11,0,0,0,0,0,0,0,0,0,0,0,0,0,0,0,0,
372,34.78,24.02,6.323,-4.619,4.862,11.89,-11.6,-9.796,0.6941,-6.004,-18.28,-17.88,-23.24,-18.98,-22.46,-20.87,0,0,0,0,0,0,0,0,0,0,0,0,0,0,0,0,
373,27.17,30.56,12.33,0.1643,12.17,18.51,-3.816,-2.435,-7.501,-7.578,-11.21,-3.251,-15.81,-7.54,-10.66,-4.036,0,0,0,0,0,0,0,0,0,0,0,0,0,0,0,0,
374,21.85,32.99,13.43,3.72,11.54,16.45,-6.279,-4.758,3.584,5.938,-13.36,-7.53,-16.74,-13.33,-18.02,-10.86,0,0,0,0,0,0,0,0,0,0,0,0,0,0,0,0,
375,-0.0423,8.507,-7.317,-11.36,-7.903,-0.6785,-17.02,-11.65,-7.862,-6.359,-16.18,-5.131,-15.09,-10.26,-12.14,-2.753,0,0,0,0,0,0,0,0,0,0,0,0,0,0,0,0,
376,0.2321,12.48,4.444,-4.174,5.246,10.54,-1.387,4.536,5.181,5.617,1.847,12.56,8.681,14.15,3.479,13.13,0,0,0,0,0,0,0,0,0,0,0,0,0,0,0,0,
377,5.082,11.47,1.02,-10.32,-0.1521,4.574,-8.677,-4.39,18.84,16.46,-6.318,0.2167,3.194,6.926,-9.413,-3.256,0,0,0,0,0,0,0,0,0,0,0,0,0,0,0,0,
378,0.1335,3.574,-5.126,-12.09,-4.873,-1.47,-5.324,-0.0542,8.233,9.935,2.979,7.392,10.26,13.04,4.193,6.195,0,0,0,0,0,0,0,0,0,0,0,0,0,0,0,0,
379,10.92,13.84,7.817,-7.991,8.958,3.424,9.432,6.784,21.6,23.24,16.65,8.289,21.8,18.68,13.03,9.503,0,0,0,0,0,0,0,0,0,0,0,0,0,0,0,0,
380,5.361,1.472,-6.479,-29.9,-6.726,-16.12,-4.153,-18.47,16.24,9.13,2.804,-13.22,11.4,4.416,5.651,-2.995,0,0,0,0,0,0,0,0,0,0,0,0,0,0,0,0,
381,1.555,-0.9193,-2.048,-26.29,-2.573,-13.96,3.172,-12.17,7.98,-0.6361,10.69,-5.394,23.89,13.99,15.57,4.569,0,0,0,0,0,0,0,0,0,0,0,0,0,0,0,0,
382,12.77,5.007,7.915,-20.57,7.528,-8.949,5.891,-5.893,20.27,10.97,4.038,-12.27,17.84,4.535,-2.045,-11.3,0,0,0,0,0,0,0,0,0,0,0,0,0,0,0,0,
383,11.88,1.334,-1.686,-26.8,-0.8515,-13.67,-2.077,-11.48,7.091,-4.601,-8.826,-20.83,0.9738,-8.933,-12.17,-18.38,0,0,0,0,0,0,0,0,0,0,0,0,0,0,0,0,
384,20.67,16.7,8.171,-13.68,7.578,1.561,7.03,-1.992,5.13,-5.33,-2.084,-16.58,2.304,-5.994,-8.639,-14.99,0,0,0,0,0,0,0,0,0,0,0,0,0,0,0,0,
385,20.05,6.466,-0.4414,-23.34,-2.133,-7.869,-6.901,-17.87,1.136,-11.25,-18.3,-33.27,-16.47,-25.76,-26.57,-31.8,0,0,0,0,0,0,0,0,0,0,0,0,0,0,0,0,
386,13.34,0.9837,-1.521,-23.05,0.0906,-7.928,-5.957,-18.22,-15.37,-28.79,-16.12,-23.62,-16.89,-23.59,-18.15,-20.34,0,0,0,0,0,0,0,0,0,0,0,0,0,0,0,0,
387,27.31,28.7,19.5,-1.791,20.53,16.24,2.699,-6.553,0.35,-10.81,-11.39,-17.11,-15.44,-18.7,-19.94,-21.4,0,0,0,0,0,0,0,0,0,0,0,0,0,0,0,0,
388,20.45,21.71,7.109,-4.938,6.717,14.21,-18.53,-16.18,-2.377,-8.83,-30.69,-30.47,-36.47,-33.11,-36.77,-36.69,0,0,0,0,0,0,0,0,0,0,0,0,0,0,0,0,
389,13.37,19.04,7.392,4.775,8.235,22.76,-11.74,1.018,-10.8,-8.141,-16.81,-11.18,-25.53,-16.45,-19.77,-18.23,0,0,0,0,0,0,0,0,0,0,0,0,0,0,0,0,
390,17.83,23.69,8.868,3.499,8.031,23.62,-7.92,4.072,0.4773,8.717,-9.576,-4.968,-19.65,-8.646,-17.0,-17.16,0,0,0,0,0,0,0,0,0,0,0,0,0,0,0,0,
391,-1.575,1.083,-11.5,-16.82,-12.28,4.636,-19.18,-9.407,-11.5,0.1018,-12.07,-3.832,-21.07,-9.152,-13.58,-15.82,0,0,0,0,0,0,0,0,0,0,0,0,0,0,0,0,
392,-14.19,-1.886,-9.564,-15.42,-9.312,3.909,-8.886,-0.6292,-11.96,2.112,2.026,11.48,-7.262,2.792,-0.7603,-3.147,0,0,0,0,0,0,0,0,0,0,0,0,0,0,0,0,
393,-21.22,-8.924,-19.54,-26.43,-20.35,-11.41,-13.33,-9.177,-11.86,0.877,-2.208,9.459,-10.02,1.767,-3.728,-3.056,0,0,0,0,0,0,0,0,0,0,0,0,0,0,0,0,
394,-24.05,-14.92,-22.06,-26.02,-22.11,-16.81,-4.847,-2.865,-18.66,-6.18,10.82,22.86,4.253,16.46,11.99,15.87,0,0,0,0,0,0,0,0,0,0,0,0,0,0,0,0,
395,-11.59,-4.707,-8.488,-17.12,-8.818,-10.49,6.991,7.662,2.089,7.718,19.3,24.15,12.33,17.57,11.42,14.92,0,0,0,0,0,0,0,0,0,0,0,0,0,0,0,0,
396,-18.19,-20.87,-23.91,-33.04,-24.06,-27.11,-8.193,-7.795,-1.799,-4.176,3.531,12.37,0.6923,5.93,5.441,7.432,0,0,0,0,0,0,0,0,0,0,0,0,0,0,0,0,
397,-16.22,-14.46,-17.95,-18.45,-17.11,-15.93,1.878,3.286,-6.058,-4.36,15.65,25.99,16.93,24.22,23.26,24.0,0,0,0,0,0,0,0,0,0,0,0,0,0,0,0,0,
398,-5.145,4.047,-12.49,-6.082,-13.5,-5.782,-0.775,0.8324,6.636,9.598,8.363,9.861,9.418,12.82,6.833,7.385,0,0,0,0,0,0,0,0,0,0,0,0,0,0,0,0,
399,-7.869,1.629,-22.38,-12.68,-21.88,-8.607,-13.2,-11.13,-10.11,-8.289,-1.585,-0.6063,1.109,2.901,5.15,6.286,0,0,0,0,0,0,0,0,0,0,0,0,0,0,0,0,
400,18.96,27.73,5.219,6.37,8.217,17.66,5.859,4.727,0.8731,5.018,16.74,14.53,25.09,23.6,24.59,24.77,0,0,0,0,0,0,0,0,0,0,0,0,0,0,0,0,
401,38.95,38.51,13.23,6.988,14.67,21.59,-2.378,-7.8,20.08,19.29,1.053,-3.675,15.1,9.915,7.219,6.333,0,0,0,0,0,0,0,0,0,0,0,0,0,0,0,0,
402,38.13,40.61,12.26,10.92,12.96,23.37,-9.305,-12.69,8.997,6.268,-7.296,-6.691,6.825,2.331,6.25,4.791,0,0,0,0,0,0,0,0,0,0,0,0,0,0,0,0,
403,59.14,69.63,28.75,31.91,28.71,39.59,-3.191,0.4872,14.56,17.4,-4.966,-0.1015,4.957,4.244,3.845,5.416,0,0,0,0,0,0,0,0,0,0,0,0,0,0,0,0,
404,65.67,68.92,16.13,27.48,15.71,29.32,-18.95,-6.262,5.57,12.61,-21.47,-7.464,-15.05,-7.533,-14.21,-4.014,0,0,0,0,0,0,0,0,0,0,0,0,0,0,0,0,
405,76.03,80.84,22.57,36.35,22.59,36.95,-7.041,4.81,-0.9717,9.554,-8.98,4.173,-6.758,2.692,-8.357,5.906,0,0,0,0,0,0,0,0,0,0,0,0,0,0,0,0,
406,103.4,109.7,39.02,43.74,37.97,45.47,6.682,6.735,17.14,24.98,-2.322,0.7224,-1.496,4.766,-12.15,-1.214,0,0,0,0,0,0,0,0,0,0,0,0,0,0,0,0,
407,110.5,107.3,36.76,40.49,36.19,38.58,10.18,5.875,15.62,18.52,0.3538,4.368,3.625,12.15,-4.113,2.816,0,0,0,0,0,0,0,0,0,0,0,0,0,0,0,0,
408,129.8,122.7,49.62,51.3,48.73,47.32,27.98,24.09,25.2,27.17,18.87,18.0,19.52,26.42,6.949,9.976,0,0,0,0,0,0,0,0,0,0,0,0,0,0,0,0,
409,141.2,129.7,39.71,37.82,38.07,33.54,18.7,12.93,25.86,25.26,8.514,1.461,4.364,8.055,-9.554,-8.143,0,0,0,0,0,0,0,0,0,0,0,0,0,0,0,0,
410,139.0,125.0,37.83,38.36,37.61,30.68,22.5,15.53,11.55,8.457,15.25,8.431,11.68,13.89,3.599,4.893,0,0,0,0,0,0,0,0,0,0,0,0,0,0,0,0,
411,172.5,154.0,63.72,56.54,61.55,48.96,41.57,24.95,33.53,23.67,32.05,14.84,29.67,24.19,11.7,11.24,0,0,0,0,0,0,0,0,0,0,0,0,0,0,0,0,
412,190.0,160.9,60.94,48.73,57.73,42.53,33.04,5.692,37.95,18.93,22.9,-0.6374,17.71,6.795,-0.9828,-2.44,0,0,0,0,0,0,0,0,0,0,0,0,0,0,0,0,
413,189.9,158.6,70.04,64.47,68.86,56.48,37.33,13.72,31.77,12.98,28.29,4.876,21.09,8.041,5.845,0.5922,0,0,0,0,0,0,0,0,0,0,0,0,0,0,0,0,
414,214.7,179.7,77.64,76.52,75.7,69.92,29.32,13.61,41.06,23.64,19.02,-7.378,16.33,-0.2969,-1.483,-12.91,0,0,0,0,0,0,0,0,0,0,0,0,0,0,0,0,
415,223.1,185.7,68.06,69.57,66.6,69.14,18.77,4.096,31.53,13.56,13.39,-10.98,16.24,-0.8777,4.939,-5.661,0,0,0,0,0,0,0,0,0,0,0,0,0,0,0,0,
416,219.0,184.8,87.62,82.68,86.44,92.15,37.66,17.56,43.23,27.03,29.96,6.297,32.8,16.52,18.55,12.09,0,0,0,0,0,0,0,0,0,0,0,0,0,0,0,0,
417,228.9,185.4,85.59,72.0,82.32,90.5,26.09,2.156,47.5,34.28,13.31,-5.825,13.34,2.008,3.518,-4.511,0,0,0,0,0,0,0,0,0,0,0,0,0,0,0,0,
418,237.7,187.6,75.04,64.21,71.57,83.76,15.62,-2.243,20.95,16.19,7.168,-3.78,2.022,-2.791,9.681,-1.589,0,0,0,0,0,0,0,0,0,0,0,0,0,0,0,0,
419,227.3,178.4,79.74,72.15,75.64,88.07,18.57,9.157,18.8,18.85,7.819,-1.274,-1.718,-4.535,5.737,-2.173,0,0,0,0,0,0,0,0,0,0,0,0,0,0,0,0,
420,205.6,155.7,58.72,55.42,55.66,67.2,4.389,-2.772,8.836,6.412,-7.332,-9.199,-15.36,-15.76,-6.55,-8.567,0,0,0,0,0,0,0,0,0,0,0,0,0,0,0,0,
421,205.9,156.9,58.97,56.51,57.52,66.17,18.56,6.816,7.645,4.584,10.86,10.59,5.327,2.021,12.71,10.99,0,0,0,0,0,0,0,0,0,0,0,0,0,0,0,0,
422,197.0,139.8,59.56,51.57,55.95,63.44,23.04,6.694,27.45,21.78,13.31,8.557,10.25,3.202,6.684,6.604,0,0,0,0,0,0,0,0,0,0,0,0,0,0,0,0,
423,167.0,111.2,33.63,32.33,30.82,43.62,7.635,-2.203,13.93,10.13,0.5755,2.419,0.6491,0.1703,-0.8609,4.324,0,0,0,0,0,0,0,0,0,0,0,0,0,0,0,0,
424,160.1,122.7,31.68,38.87,29.89,44.53,12.1,11.78,9.023,11.79,6.962,7.814,6.775,10.1,1.99,5.307,0,0,0,0,0,0,0,0,0,0,0,0,0,0,0,0,
425,141.6,105.1,21.4,24.75,17.72,28.13,2.635,2.359,8.803,9.956,-3.877,-7.625,-2.833,-1.609,-9.555,-11.95,0,0,0,0,0,0,0,0,0,0,0,0,0,0,0,0,
426,122.2,76.57,20.28,14.66,18.17,20.73,9.729,4.212,1.353,0.6842,5.855,3.447,11.79,8.03,11.06,4.721,0,0,0,0,0,0,0,0,0,0,0,0,0,0,0,0,
427,133.0,80.02,38.49,24.7,37.17,31.92,24.45,13.84,22.84,19.46,18.16,9.247,26.51,15.52,20.86,9.248,0,0,0,0,0,0,0,0,0,0,0,0,0,0,0,0,
428,124.2,70.21,28.42,17.48,26.4,23.16,11.62,0.3033,21.3,13.29,5.026,-4.807,13.16,5.681,10.43,-2.791,0,0,0,0,0,0,0,0,0,0,0,0,0,0,0,0,
429,118.4,79.28,36.78,29.1,35.39,38.2,19.85,11.58,14.23,12.91,15.21,8.537,23.53,21.5,18.59,9.745,0,0,0,0,0,0,0,0,0,0,0,0,0,0,0,0,
430,121.0,81.1,43.02,27.51,40.37,45.57,14.88,7.584,26.04,30.4,7.68,-1.511,18.74,12.59,1.242,-4.171,0,0,0,0,0,0,0,0,0,0,0,0,0,0,0,0,
431,105.3,54.92,31.34,8.955,28.45,33.52,1.793,-7.699,16.79,16.05,-2.732,-10.63,10.17,-0.4864,-2.937,-8.941,0,0,0,0,0,0,0,0,0,0,0,0,0,0,0,0,
432,112.3,66.83,48.41,21.15,45.83,47.32,15.79,1.688,25.28,18.9,9.916,2.37,17.85,5.491,6.516,-0.5282,0,0,0,0,0,0,0,0,0,0,0,0,0,0,0,0,
433,107.5,63.36,36.05,12.45,33.11,34.44,-1.2,-13.55,20.63,15.02,-11.11,-11.42,-10.15,-14.86,-16.27,-20.52,0,0,0,0,0,0,0,0,0,0,0,0,0,0,0,0,
434,80.64,44.02,16.34,3.896,14.46,19.36,-9.197,-11.66,-12.08,-7.257,-16.66,-5.885,-18.75,-12.17,-13.0,-13.47,0,0,0,0,0,0,0,0,0,0,0,0,0,0,0,0,
435,75.45,50.16,22.71,12.26,20.23,26.17,2.498,3.382,-8.162,4.013,-7.557,1.325,-11.08,-3.144,-12.11,-9.537,0,0,0,0,0,0,0,0,0,0,0,0,0,0,0,0,
436,53.41,20.76,1.849,-8.211,-0.0747,5.844,-10.1,-11.66,-14.72,-2.462,-19.76,-11.69,-27.72,-16.14,-28.35,-22.06,0,0,0,0,0,0,0,0,0,0,0,0,0,0,0,0,
437,30.19,-7.994,-1.27,-15.0,-1.648,-1.395,1.513,-1.905,-24.3,-9.236,-5.372,-0.1429,-19.07,-3.502,-15.51,-9.707,0,0,0,0,0,0,0,0,0,0,0,0,0,0,0,0,
438,22.19,-13.11,3.394,-19.41,1.561,-5.39,6.656,-1.504,-9.405,1.805,-4.301,-6.559,-17.97,-8.724,-19.43,-17.83,0,0,0,0,0,0,0,0,0,0,0,0,0,0,0,0,
439,3.817,-30.35,-10.94,-33.64,-12.39,-21.31,-3.544,-16.22,-19.52,-17.53,-13.38,-17.37,-26.75,-23.66,-21.6,-25.48,0,0,0,0,0,0,0,0,0,0,0,0,0,0,0,0,
440,8.296,-34.19,1.268,-26.14,-0.0189,-14.34,13.36,-3.735,-18.13,-21.14,2.617,-11.99,-16.22,-18.59,-10.71,-23.02,0,0,0,0,0,0,0,0,0,0,0,0,0,0,0,0,
441,3.645,-48.39,-2.783,-35.23,-4.896,-22.71,10.79,-10.55,-10.52,-19.5,-2.279,-23.59,-22.19,-30.09,-20.38,-35.4,0,0,0,0,0,0,0,0,0,0,0,0,0,0,0,0,
442,-26.21,-58.69,-10.83,-34.23,-11.43,-25.39,9.004,-10.48,-14.75,-27.69,1.614,-13.69,-13.85,-23.49,-10.59,-21.26,0,0,0,0,0,0,0,0,0,0,0,0,0,0,0,0,
443,-32.33,-47.82,0.0686,-18.75,-2.026,-14.86,14.94,-0.2939,5.134,-10.83,7.594,-8.421,-3.364,-14.65,-6.047,-16.32,0,0,0,0,0,0,0,0,0,0,0,0,0,0,0,0,
444,-40.12,-65.28,-13.87,-29.54,-16.77,-29.43,0.099,-11.14,3.465,-14.98,-7.221,-19.44,-11.71,-22.87,-10.48,-21.34,0,0,0,0,0,0,0,0,0,0,0,0,0,0,0,0,
445,-46.22,-67.33,-10.93,-19.92,-11.66,-20.31,4.932,-2.203,-4.47,-16.9,0.3602,-5.953,1.094,-8.916,2.749,-4.204,0,0,0,0,0,0,0,0,0,0,0,0,0,0,0,0,
446,-46.0,-57.49,-8.595,-15.5,-9.928,-10.28,-3.637,-7.827,3.666,-1.339,-8.844,-14.82,-3.943,-11.69,-9.277,-12.92,0,0,0,0,0,0,0,0,0,0,0,0,0,0,0,0,
447,-65.91,-70.77,-27.91,-28.4,-28.86,-19.24,-21.17,-19.96,-11.78,-9.694,-19.0,-19.39,-8.913,-13.72,-7.06,-10.77,0,0,0,0,0,0,0,0,0,0,0,0,0,0,0,0,
448,-75.44,-66.38,-22.33,-18.11,-23.17,-11.1,-11.39,-5.802,-8.862,-0.1102,-3.367,-5.472,6.218,-0.6911,4.313,-0.0579,0,0,0,0,0,0,0,0,0,0,0,0,0,0,0,0,
449,-86.6,-81.82,-30.63,-29.93,-32.14,-25.56,-20.43,-16.93,-5.941,1.462,-14.2,-19.57,-10.62,-15.7,-17.52,-19.62,0,0,0,0,0,0,0,0,0,0,0,0,0,0,0,0,
450,-97.64,-99.41,-31.2,-36.76,-30.49,-32.69,-13.49,-13.61,-20.27,-14.95,-9.64,-9.693,-11.43,-10.73,-11.27,-9.988,0,0,0,0,0,0,0,0,0,0,0,0,0,0,0,0,
451,-89.54,-80.42,-15.57,-26.43,-15.79,-22.77,0.0802,0.6747,-9.486,-4.628,-2.349,-0.0093,-6.299,-4.548,-9.966,-6.03,0,0,0,0,0,0,0,0,0,0,0,0,0,0,0,0,
452,-108.5,-93.99,-39.36,-44.97,-40.49,-44.59,-20.5,-15.41,-22.81,-17.28,-23.07,-15.79,-27.32,-21.13,-29.94,-22.33,0,0,0,0,0,0,0,0,0,0,0,0,0,0,0,0,
453,-118.7,-106.7,-38.15,-40.38,-37.25,-41.83,-9.631,-3.797,-33.45,-23.87,-10.88,-2.848,-16.45,-6.849,-18.93,-8.298,0,0,0,0,0,0,0,0,0,0,0,0,0,0,0,0,
454,-101.2,-93.79,-23.26,-30.15,-23.54,-29.95,-0.9478,3.276,-9.945,-3.179,-5.797,-1.354,-9.68,-3.567,-18.0,-6.25,0,0,0,0,0,0,0,0,0,0,0,0,0,0,0,0,
455,-109.6,-101.5,-38.04,-43.28,-37.97,-43.93,-14.31,-8.589,-13.67,-12.3,-14.37,-6.284,-15.31,-13.63,-14.97,-7.378,0,0,0,0,0,0,0,0,0,0,0,0,0,0,0,0,
456,-116.3,-103.5,-31.86,-40.49,-30.54,-43.52,-4.023,-2.614,-13.82,-15.5,-3.039,-0.8765,-6.565,-13.01,-2.483,-6.894,0,0,0,0,0,0,0,0,0,0,0,0,0,0,0,0,
457,-115.5,-104.8,-32.29,-47.39,-32.31,-49.99,-7.646,-14.15,-10.99,-20.09,-8.495,-14.05,-12.8,-24.5,-5.119,-18.44,0,0,0,0,0,0,0,0,0,0,0,0,0,0,0,0,
458,-112.5,-102.0,-31.57,-45.37,-31.02,-46.21,-4.77,-10.55,-17.83,-29.0,0.2721,-2.95,-0.5089,-10.17,11.8,-0.4442,0,0,0,0,0,0,0,0,0,0,0,0,0,0,0,0,
459,-95.07,-88.74,-20.2,-32.42,-19.49,-34.62,0.8599,1.159,-2.56,-9.155,3.8,1.392,4.63,-0.8119,5.833,-0.8134,0,0,0,0,0,0,0,0,0,0,0,0,0,0,0,0,
460,-102.5,-95.32,-39.27,-42.87,-38.21,-49.76,-18.82,-15.18,-13.08,-14.16,-17.67,-15.89,-14.65,-12.83,-10.85,-12.67,0,0,0,0,0,0,0,0,0,0,0,0,0,0,0,0,
461,-104.8,-82.8,-31.68,-31.6,-30.05,-35.58,-5.618,-7.831,-19.67,-13.43,-1.716,-2.188,4.418,6.706,13.32,11.61,0,0,0,0,0,0,0,0,0,0,0,0,0,0,0,0,
462,-87.21,-70.72,-14.5,-23.57,-15.39,-17.73,4.124,-5.345,2.703,9.848,4.826,-2.469,13.05,11.71,14.49,12.21,0,0,0,0,0,0,0,0,0,0,0,0,0,0,0,0,
463,-88.77,-81.76,-20.83,-28.9,-21.32,-21.37,-2.503,-8.336,-3.948,2.755,-1.084,-3.262,7.893,9.533,11.55,11.55,0,0,0,0,0,0,0,0,0,0,0,0,0,0,0,0,
464,-78.7,-66.81,-4.895,-10.82,-3.87,-6.84,14.51,10.74,2.289,10.58,15.01,11.26,21.55,21.41,20.27,20.27,0,0,0,0,0,0,0,0,0,0,0,0,0,0,0,0,
465,-73.92,-68.85,-9.768,-17.86,-9.527,-15.42,8.201,1.168,11.45,14.85,6.394,-0.5938,10.81,8.791,5.917,6.93,0,0,0,0,0,0,0,0,0,0,0,0,0,0,0,0,
466,-86.42,-78.48,-19.35,-23.96,-18.2,-22.98,7.862,1.284,-1.268,0.2303,8.192,5.566,12.83,14.26,12.93,16.63,0,0,0,0,0,0,0,0,0,0,0,0,0,0,0,0,
467,-76.9,-59.66,-4.033,-10.61,-3.603,-8.461,20.05,12.54,11.39,13.94,14.39,8.826,20.71,18.9,14.02,15.05,0,0,0,0,0,0,0,0,0,0,0,0,0,0,0,0,
468,-74.65,-63.77,-11.9,-17.69,-11.95,-15.79,4.868,0.1616,8.885,10.44,-2.624,-5.551,6.754,3.57,3.528,3.106,0,0,0,0,0,0,0,0,0,0,0,0,0,0,0,0,
469,-74.32,-60.63,-6.756,-4.582,-5.72,-8.701,10.23,13.09,1.575,8.422,7.152,9.189,15.17,15.77,15.38,18.34,0,0,0,0,0,0,0,0,0,0,0,0,0,0,0,0,
470,-65.83,-50.63,-4.148,3.477,-4.547,-5.963,8.51,10.78,11.2,21.33,3.667,2.591,5.775,6.194,-0.3231,1.533,0,0,0,0,0,0,0,0,0,0,0,0,0,0,0,0,
471,-72.62,-62.53,-22.76,-9.917,-21.91,-21.35,-6.973,-7.707,-6.001,-0.9731,-7.913,-8.287,-9.66,-11.13,-7.316,-9.359,0,0,0,0,0,0,0,0,0,0,0,0,0,0,0,0,
472,-67.6,-54.25,-10.6,-1.649,-8.559,-11.56,4.774,4.494,-4.979,-7.253,6.75,3.92,4.026,0.004,7.426,6.358,0,0,0,0,0,0,0,0,0,0,0,0,0,0,0,0,
473,-68.03,-56.93,-11.23,-6.837,-11.38,-13.18,0.3219,-1.569,4.401,-2.542,1.463,-5.555,0.0945,-4.48,-0.1661,-0.9049,0,0,0,0,0,0,0,0,0,0,0,0,0,0,0,0,
474,-73.77,-61.72,-13.64,-7.221,-12.9,-11.68,5.945,-2.347,-2.147,-7.237,10.67,-2.081,10.08,3.203,11.33,4.487,0,0,0,0,0,0,0,0,0,0,0,0,0,0,0,0,
475,-55.63,-44.53,3.398,0.187,4.243,-3.946,20.2,5.021,12.48,6.456,20.86,-0.6341,18.42,6.436,11.3,2.132,0,0,0,0,0,0,0,0,0,0,0,0,0,0,0,0,
476,-56.79,-55.72,-10.55,-19.7,-11.21,-26.48,1.156,-8.014,0.0223,-6.679,-0.8555,-12.17,-3.699,-10.57,-4.861,-7.119,0,0,0,0,0,0,0,0,0,0,0,0,0,0,0,0,
477,-60.97,-54.61,-8.829,-12.41,-8.918,-21.75,4.279,5.736,-16.19,-14.34,4.801,4.224,3.876,3.534,8.94,12.38,0,0,0,0,0,0,0,0,0,0,0,0,0,0,0,0,
478,-52.32,-43.68,0.3069,-2.257,-0.1678,-10.6,7.78,7.33,0.266,4.58,5.118,-0.5716,6.403,6.08,2.488,7.387,0,0,0,0,0,0,0,0,0,0,0,0,0,0,0,0,
479,-63.37,-58.16,-14.95,-11.55,-14.91,-21.61,-3.113,-4.729,-8.043,-2.491,-3.431,-7.527,-1.683,-0.3476,0.1623,3.48,0,0,0,0,0,0,0,0,0,0,0,0,0,0,0,0,
480,-63.64,-46.63,-10.36,0.6042,-9.617,-11.14,7.758,10.14,-10.38,3.922,11.21,7.29,12.11,9.881,17.92,14.71,0,0,0,0,0,0,0,0,0,0,0,0,0,0,0,0,
481,-64.44,-42.04,-17.07,-5.282,-16.79,-13.31,0.8839,1.367,-3.109,10.31,5.37,-2.162,7.386,-0.0292,10.55,3.974,0,0,0,0,0,0,0,0,0,0,0,0,0,0,0,0,
482,-73.81,-55.58,-23.3,-11.4,-22.11,-17.23,-1.565,-3.949,-8.294,-2.073,6.548,0.4265,8.353,1.847,11.42,8.131,0,0,0,0,0,0,0,0,0,0,0,0,0,0,0,0,
483,-62.3,-51.94,-12.33,-2.624,-11.93,-9.535,4.316,2.442,2.802,4.812,9.874,4.612,10.28,5.222,5.309,5.891,0,0,0,0,0,0,0,0,0,0,0,0,0,0,0,0,
484,-62.46,-55.31,-23.74,-12.67,-23.79,-21.22,-9.806,-7.171,-2.696,-2.764,-4.247,-3.382,-2.186,-2.917,-3.363,-0.8491,0,0,0,0,0,0,0,0,0,0,0,0,0,0,0,0,
485,-60.8,-40.67,-14.91,-4.308,-13.93,-14.22,0.3858,6.723,-4.736,-2.559,8.535,7.213,9.792,8.949,13.73,12.81,0,0,0,0,0,0,0,0,0,0,0,0,0,0,0,0,
486,-49.44,-31.75,-8.328,-4.325,-8.581,-12.75,2.323,2.544,7.313,8.676,5.882,-5.679,3.935,-3.739,2.619,-2.54,0,0,0,0,0,0,0,0,0,0,0,0,0,0,0,0,
487,-59.99,-53.19,-27.69,-21.06,-28.01,-27.25,-9.517,-13.86,-11.58,-10.61,-6.276,-12.5,-9.382,-15.43,-6.55,-7.985,0,0,0,0,0,0,0,0,0,0,0,0,0,0,0,0,
488,-59.57,-49.0,-21.8,-10.98,-21.77,-17.29,-1.03,2.271,-14.4,-7.015,2.006,2.425,-3.107,-3.215,1.045,4.798,0,0,0,0,0,0,0,0,0,0,0,0,0,0,0,0,
489,-58.11,-50.41,-26.07,-16.29,-25.97,-22.04,-12.94,-1.595,-10.87,-0.7359,-10.35,-6.083,-14.54,-12.32,-6.735,-1.934,0,0,0,0,0,0,0,0,0,0,0,0,0,0,0,0,
490,-66.5,-52.34,-26.27,-19.41,-24.92,-20.25,-12.74,-3.122,-16.92,-9.561,-6.596,3.008,-4.428,-2.854,6.004,11.02,0,0,0,0,0,0,0,0,0,0,0,0,0,0,0,0,
491,-60.57,-34.65,-10.8,-11.22,-10.7,-8.123,-3.14,2.041,2.858,5.079,-1.843,4.529,4.08,4.08,2.688,7.412,0,0,0,0,0,0,0,0,0,0,0,0,0,0,0,0,
492,-65.28,-53.36,-25.5,-25.16,-25.09,-27.01,-17.77,-10.31,-4.33,-3.127,-17.89,-10.83,-14.51,-12.17,-11.11,-6.617,0,0,0,0,0,0,0,0,0,0,0,0,0,0,0,0,
493,-60.07,-63.76,-19.67,-16.5,-18.16,-23.6,-4.925,2.459,-15.24,-8.768,-0.184,6.548,-0.9843,-1.222,7.39,11.63,0,0,0,0,0,0,0,0,0,0,0,0,0,0,0,0,
494,-46.07,-54.98,-12.97,-13.82,-14.03,-17.54,-2.593,-2.441,-2.392,2.057,1.266,1.729,0.9181,-5.536,0.8116,3.197,0,0,0,0,0,0,0,0,0,0,0,0,0,0,0,0,
495,-56.83,-58.93,-26.87,-25.96,-26.99,-25.53,-14.91,-16.17,-14.37,-14.09,-8.951,-6.654,-7.334,-11.9,-3.028,-2.838,0,0,0,0,0,0,0,0,0,0,0,0,0,0,0,0,
496,-53.4,-37.86,-8.116,-7.137,-6.624,-5.17,1.399,2.311,-6.555,-5.684,5.612,5.721,5.46,0.8361,5.6,4.503,0,0,0,0,0,0,0,0,0,0,0,0,0,0,0,0,
497,-47.54,-31.66,-9.306,-8.66,-8.617,-5.745,-6.189,-6.358,2.971,1.388,-6.865,-10.3,-7.096,-15.93,-12.16,-14.3,0,0,0,0,0,0,0,0,0,0,0,0,0,0,0,0,
498,-47.57,-40.7,-18.24,-15.98,-16.3,-13.37,-8.384,-9.208,-12.87,-14.34,-6.926,-8.476,-5.569,-16.52,-4.628,-7.943,0,0,0,0,0,0,0,0,0,0,0,0,0,0,0,0,
499,-31.78,-29.88,-3.224,-9.777,-3.003,-6.255,3.496,0.6475,-2.989,-3.444,2.341,-1.008,2.596,-8.938,-2.114,-3.99,0,0,0,0,0,0,0,0,0,0,0,0,0,0,0,0,
500,-39.03,-33.89,-14.52,-19.73,-15.08,-14.76,-9.844,-13.86,-9.461,-9.317,-11.55,-11.07,-12.05,-18.38,-14.61,-12.31,0,0,0,0,0,0,0,0,0,0,0,0,0,0,0,0,
501,-41.3,-21.77,-9.432,-3.784,-6.98,2.955,1.318,-1.284,-15.35,-8.934,2.642,4.07,2.209,0.473,0.4404,7.339,0,0,0,0,0,0,0,0,0,0,0,0,0,0,0,0,
502,-25.23,-12.77,0.0503,3.174,0.9995,13.02,3.08,2.224,7.38,13.86,0.2008,0.0326,0.7249,2.192,-11.47,1.654,0,0,0,0,0,0,0,0,0,0,0,0,0,0,0,0,
503,-34.07,-35.29,-17.56,-16.36,-17.76,-5.804,-17.33,-12.45,-2.952,1.156,-20.54,-9.631,-18.9,-10.01,-22.07,-7.796,0,0,0,0,0,0,0,0,0,0,0,0,0,0,0,0,
504,-36.28,-29.0,-13.27,-11.76,-12.47,-1.794,-9.937,-0.6584,-10.11,-2.875,-12.74,1.06,-13.17,-4.381,-7.67,-1.296,0,0,0,0,0,0,0,0,0,0,0,0,0,0,0,0,
505,-39.93,-29.86,-21.43,-19.7,-21.35,-12.61,-15.67,-4.918,-8.943,-5.122,-19.2,-6.062,-21.85,-16.54,-13.36,-11.38,0,0,0,0,0,0,0,0,0,0,0,0,0,0,0,0,
506,-50.1,-39.71,-30.96,-21.48,-30.24,-22.36,-18.52,-0.6587,-23.73,-22.62,-18.4,4.936,-22.07,-14.07,-5.585,-2.532,0,0,0,0,0,0,0,0,0,0,0,0,0,0,0,0,
507,-35.18,-26.09,-20.9,-9.03,-20.39,-13.52,-14.17,11.35,-18.95,-11.75,-14.91,13.69,-18.33,-7.69,-4.561,-0.7692,0,0,0,0,0,0,0,0,0,0,0,0,0,0,0,0,
508,-34.48,-37.65,-34.81,-23.58,-33.98,-23.02,-31.28,-3.926,-27.2,-12.15,-29.47,0.6717,-29.65,-16.78,-15.88,-10.12,0,0,0,0,0,0,0,0,0,0,0,0,0,0,0,0,
509,-33.93,-36.1,-26.91,-13.82,-24.48,-8.232,-20.0,2.823,-29.24,-10.49,-15.32,7.409,-13.91,-4.69,-3.85,0.3643,0,0,0,0,0,0,0,0,0,0,0,0,0,0,0,0,
510,-22.25,-20.0,-14.04,-1.394,-13.36,3.333,-11.59,4.153,-6.377,5.668,-11.77,1.242,-10.34,-5.617,-9.342,-6.543,0,0,0,0,0,0,0,0,0,0,0,0,0,0,0,0,
511,-38.68,-33.78,-29.48,-15.02,-29.35,-15.32,-20.52,-4.543,-13.47,-5.088,-17.55,3.194,-14.84,-2.836,-8.325,1.44,0,0,0,0,0,0,0,0,0,0,0,0,0,0,0,0,
512,-42.6,-33.8,-24.89,-13.93,-24.35,-15.75,-11.8,6.441,-17.66,-2.48,-5.835,16.98,-3.286,13.64,0.6666,13.46,0,0,0,0,0,0,0,0,0,0,0,0,0,0,0,0,
513,-32.66,-34.66,-28.8,-23.11,-28.64,-20.83,-20.79,-5.045,-18.52,-1.886,-17.12,0.4827,-13.13,2.185,-12.94,-5.687,0,0,0,0,0,0,0,0,0,0,0,0,0,0,0,0,
514,-34.62,-32.53,-27.16,-17.62,-25.42,-13.01,-17.25,-1.657,-23.29,-7.915,-11.39,8.74,-5.344,10.04,-1.754,3.467,0,0,0,0,0,0,0,0,0,0,0,0,0,0,0,0,
515,-31.89,-15.78,-9.655,4.766,-9.198,4.296,-6.546,10.42,-2.331,12.45,-3.231,14.1,-1.883,11.56,-5.862,1.264,0,0,0,0,0,0,0,0,0,0,0,0,0,0,0,0,
516,-38.9,-30.44,-24.03,-4.677,-24.21,-14.01,-21.95,-7.269,-11.5,-1.959,-20.97,-7.615,-28.68,-16.47,-28.25,-21.65,0,0,0,0,0,0,0,0,0,0,0,0,0,0,0,0,
517,-34.48,-27.35,-19.19,-3.743,-16.68,-15.02,-8.187,0.3844,-23.55,-20.37,-6.93,2.498,-21.18,-10.88,-14.75,-10.33,0,0,0,0,0,0,0,0,0,0,0,0,0,0,0,0,
518,-21.32,-13.64,-12.01,-7.993,-10.47,-15.68,-5.602,-0.6861,-10.62,-12.96,-6.298,2.758,-20.27,-10.49,-17.44,-12.14,0,0,0,0,0,0,0,0,0,0,0,0,0,0,0,0,
519,-30.21,-29.17,-29.89,-23.83,-28.63,-32.33,-24.43,-15.76,-31.27,-29.42,-21.85,-1.434,-31.69,-15.61,-19.25,-11.88,0,0,0,0,0,0,0,0,0,0,0,0,0,0,0,0,
520,-25.54,-17.92,-17.53,-8.51,-15.12,-17.41,-12.82,-3.164,-36.68,-26.22,-11.8,7.303,-19.82,-5.567,-8.593,-3.447,0,0,0,0,0,0,0,0,0,0,0,0,0,0,0,0,
521,-21.96,-13.5,-14.82,-9.78,-13.52,-15.01,-16.72,-9.861,-22.95,-17.24,-18.83,-9.781,-24.24,-19.1,-21.45,-18.52,0,0,0,0,0,0,0,0,0,0,0,0,0,0,0,0,
522,-22.13,-23.29,-13.04,-12.74,-11.53,-13.98,-14.53,-7.613,-20.63,-21.68,-13.04,-6.733,-14.73,-13.05,-11.77,-9.495,0,0,0,0,0,0,0,0,0,0,0,0,0,0,0,0,
523,1.009,-8.507,8.371,-2.867,9.164,0.8302,1.089,4.23,1.561,-2.958,-1.287,-2.894,-3.146,-5.388,-9.265,-10.81,0,0,0,0,0,0,0,0,0,0,0,0,0,0,0,0,
524,-0.7102,-10.73,-3.585,-16.2,-3.179,-11.69,-9.739,-11.17,-0.0842,-11.22,-12.93,-18.27,-17.61,-24.8,-24.34,-27.55,0,0,0,0,0,0,0,0,0,0,0,0,0,0,0,0,
525,-11.15,-7.859,-6.026,-8.733,-4.189,-8.273,-0.6422,-2.77,-10.54,-20.89,0.6127,-1.198,-7.739,-14.57,-10.87,-8.373,0,0,0,0,0,0,0,0,0,0,0,0,0,0,0,0,
526,-7.654,-6.08,-3.332,-2.264,-2.913,-4.098,2.409,0.5186,-1.485,-2.908,1.777,3.002,-8.099,-6.864,-13.67,-5.482,0,0,0,0,0,0,0,0,0,0,0,0,0,0,0,0,
527,-15.3,-23.85,-15.91,-11.31,-15.79,-14.18,-10.01,-7.28,-14.48,-4.954,-7.586,-2.867,-14.84,-6.14,-12.12,-6.893,0,0,0,0,0,0,0,0,0,0,0,0,0,0,0,0,
528,0.2565,-3.976,2.597,3.833,3.278,3.454,3.819,6.367,-7.24,7.676,7.14,7.17,3.591,8.677,6.909,6.445,0,0,0,0,0,0,0,0,0,0,0,0,0,0,0,0,
529,14.16,3.527,5.665,-0.9952,4.756,2.337,2.005,-3.336,8.127,16.43,2.314,4.13,3.232,7.792,4.851,8.148,0,0,0,0,0,0,0,0,0,0,0,0,0,0,0,0,
530,1.055,-16.64,-0.2079,-5.641,-0.7195,-5.708,4.884,0.2999,2.403,5.485,8.236,19.55,11.98,21.43,18.17,27.2,0,0,0,0,0,0,0,0,0,0,0,0,0,0,0,0,
531,-0.2064,-12.76,10.32,5.136,10.32,0.7155,15.24,16.72,15.52,18.17,17.87,24.23,19.72,24.97,22.51,27.02,0,0,0,0,0,0,0,0,0,0,0,0,0,0,0,0,
532,-7.685,-18.4,-5.727,-8.125,-5.572,-14.41,-1.302,3.768,10.03,11.45,4.324,6.682,2.53,4.157,11.82,8.699,0,0,0,0,0,0,0,0,0,0,0,0,0,0,0,0,
533,-10.75,-17.93,-4.806,-3.063,-3.871,-12.91,1.85,11.22,0.5795,2.739,11.64,14.9,6.54,8.904,18.4,12.59,0,0,0,0,0,0,0,0,0,0,0,0,0,0,0,0,
534,-1.964,-12.74,2.901,-1.383,3.377,-11.05,0.0332,9.609,8.984,7.995,2.407,4.455,-2.879,-0.423,1.411,-1.926,0,0,0,0,0,0,0,0,0,0,0,0,0,0,0,0,
535,-10.43,-25.14,-9.476,-16.74,-8.463,-21.4,-10.92,-4.949,-7.706,-11.57,-11.24,-3.574,-13.15,-8.494,-4.125,-2.366,0,0,0,0,0,0,0,0,0,0,0,0,0,0,0,0,
536,-8.774,-15.43,-1.123,-4.099,-0.4967,-6.16,0.9796,6.34,-6.688,-7.281,2.037,10.84,2.151,4.454,5.88,9.686,0,0,0,0,0,0,0,0,0,0,0,0,0,0,0,0,
537,-8.024,-15.42,-7.995,-4.29,-7.665,-7.037,-9.666,-2.822,-2.454,-1.755,-8.3,-2.484,-9.133,-12.56,-10.95,-9.724,0,0,0,0,0,0,0,0,0,0,0,0,0,0,0,0,
538,-10.91,-19.21,-8.93,-3.31,-6.801,-4.176,-7.886,-3.208,-16.44,-15.47,-4.363,-3.204,-8.944,-17.18,-7.006,-10.1,0,0,0,0,0,0,0,0,0,0,0,0,0,0,0,0,
539,5.495,1.948,13.15,10.19,13.38,15.13,8.472,8.065,2.192,0.5659,7.816,-0.164,1.944,-9.133,-5.677,-9.046,0,0,0,0,0,0,0,0,0,0,0,0,0,0,0,0,
540,1.144,1.073,4.204,1.226,3.332,8.95,-4.346,-4.882,10.41,5.356,-3.535,-7.76,-3.72,-8.287,-10.39,-8.493,0,0,0,0,0,0,0,0,0,0,0,0,0,0,0,0,
541,-3.454,3.537,9.997,12.15,10.78,19.96,4.825,3.893,11.75,11.34,10.7,9.228,14.86,15.57,12.51,16.39,0,0,0,0,0,0,0,0,0,0,0,0,0,0,0,0,
542,7.923,6.023,18.65,17.03,18.23,27.66,9.796,5.606,26.5,29.88,11.82,6.208,17.14,16.32,8.397,9.485,0,0,0,0,0,0,0,0,0,0,0,0,0,0,0,0,
543,2.581,-7.723,4.965,2.723,5.012,14.71,-0.8335,0.7849,14.3,19.37,3.381,5.803,12.68,12.1,8.364,5.601,0,0,0,0,0,0,0,0,0,0,0,0,0,0,0,0,
544,7.966,8.005,17.8,12.76,18.26,22.01,11.96,18.57,19.63,25.78,18.43,20.01,30.22,23.77,22.8,14.09,0,0,0,0,0,0,0,0,0,0,0,0,0,0,0,0,
545,9.461,6.063,14.74,5.324,14.14,10.09,6.98,6.454,27.68,26.73,10.88,2.657,18.13,3.738,7.686,-3.514,0,0,0,0,0,0,0,0,0,0,0,0,0,0,0,0,
546,0.6603,-7.961,8.529,1.222,9.85,1.886,10.27,3.312,13.33,4.973,16.3,5.531,12.65,-3.353,11.31,1.578,0,0,0,0,0,0,0,0,0,0,0,0,0,0,0,0,
547,10.29,5.576,22.01,9.853,22.72,10.28,22.56,12.63,22.32,7.904,25.39,7.934,11.39,-4.755,9.854,-0.826,0,0,0,0,0,0,0,0,0,0,0,0,0,0,0,0,
548,2.93,-5.217,7.014,-11.85,6.781,-8.848,7.755,-6.203,13.18,-6.888,8.087,-9.864,-8.963,-17.36,-2.695,-11.59,0,0,0,0,0,0,0,0,0,0,0,0,0,0,0,0,
549,-3.473,-10.95,9.479,-13.38,10.73,-8.592,14.08,-0.4586,1.613,-15.82,16.43,6.796,1.476,3.405,14.2,13.05,0,0,0,0,0,0,0,0,0,0,0,0,0,0,0,0,
550,2.404,-7.891,13.57,-11.31,13.36,-7.822,7.373,-0.3512,13.1,-0.3629,9.105,6.962,0.3693,4.357,5.432,10.29,0,0,0,0,0,0,0,0,0,0,0,0,0,0,0,0,
551,-10.04,-23.19,-7.35,-21.17,-7.217,-22.15,-13.86,-12.75,-1.604,-10.7,-7.564,-4.484,-9.067,-7.328,-3.306,-0.6509,0,0,0,0,0,0,0,0,0,0,0,0,0,0,0,0,
552,-3.042,-9.52,3.7,-0.9371,4.857,-4.454,1.416,-0.4503,1.462,-4.156,8.129,0.7439,7.602,0.224,6.242,1.956,0,0,0,0,0,0,0,0,0,0,0,0,0,0,0,0,
553,7.381,-1.503,5.035,1.116,4.778,-2.693,1.253,-9.072,13.42,1.292,3.707,-12.91,2.17,-13.31,-8.529,-13.18,0,0,0,0,0,0,0,0,0,0,0,0,0,0,0,0,
554,4.04,-3.47,3.831,1.046,4.783,-1.578,4.574,-3.322,5.801,-9.37,7.3,-2.97,7.542,-4.155,-3.471,-1.697,0,0,0,0,0,0,0,0,0,0,0,0,0,0,0,0,
555,20.67,13.14,27.61,18.66,28.71,22.4,20.99,17.55,24.45,14.97,18.12,11.52,20.85,15.76,4.111,9.667,0,0,0,0,0,0,0,0,0,0,0,0,0,0,0,0,
556,25.17,8.38,21.95,9.934,22.22,19.23,9.274,6.068,27.87,22.71,5.321,2.6,11.59,9.1,2.909,6.929,0,0,0,0,0,0,0,0,0,0,0,0,0,0,0,0,
557,20.4,18.23,19.69,11.67,20.48,20.45,12.04,10.36,20.35,18.11,14.96,11.57,24.5,17.75,23.39,22.08,0,0,0,0,0,0,0,0,0,0,0,0,0,0,0,0,
558,20.74,30.94,20.93,10.08,20.19,18.32,11.36,7.73,29.18,26.28,16.14,5.63,27.59,14.64,20.32,15.48,0,0,0,0,0,0,0,0,0,0,0,0,0,0,0,0,
559,13.11,9.545,11.47,-5.301,10.98,3.829,6.179,-4.596,19.15,13.56,12.99,2.38,23.46,9.067,19.66,14.96,0,0,0,0,0,0,0,0,0,0,0,0,0,0,0,0,
560,22.17,11.55,25.79,5.717,25.78,11.25,23.38,7.764,26.18,15.16,27.21,11.87,32.18,15.24,26.42,19.37,0,0,0,0,0,0,0,0,0,0,0,0,0,0,0,0,
561,18.33,12.05,14.55,2.205,13.19,-1.932,8.987,-1.947,27.57,9.52,9.542,-6.849,9.65,-7.024,5.093,-4.682,0,0,0,0,0,0,0,0,0,0,0,0,0,0,0,0,
562,1.977,5.15,1.146,-1.148,0.4286,-10.5,-0.8099,-2.708,2.832,-10.02,3.046,-3.104,-1.593,-12.1,4.587,-3.628,0,0,0,0,0,0,0,0,0,0,0,0,0,0,0,0,
563,8.604,14.05,10.26,3.196,8.824,-2.104,5.493,5.053,3.338,-1.766,5.155,2.303,-7.437,-9.468,-2.762,-6.221,0,0,0,0,0,0,0,0,0,0,0,0,0,0,0,0,
564,0.2077,-4.859,-10.63,-19.93,-11.72,-23.96,-12.11,-16.13,-12.83,-17.38,-12.16,-12.72,-30.36,-20.66,-18.49,-16.35,0,0,0,0,0,0,0,0,0,0,0,0,0,0,0,0,
565,-1.138,-12.14,-9.862,-20.09,-8.737,-25.76,-4.844,-13.27,-26.79,-29.31,0.0083,-3.15,-18.41,-7.387,-3.737,-0.3782,0,0,0,0,0,0,0,0,0,0,0,0,0,0,0,0,
566,5.878,-8.134,-2.263,-17.04,-2.459,-21.47,-5.231,-13.77,-11.24,-17.2,-5.242,-14.9,-18.52,-17.09,-16.24,-14.74,0,0,0,0,0,0,0,0,0,0,0,0,0,0,0,0,
567,-21.36,-21.84,-21.96,-23.43,-21.81,-30.69,-23.45,-19.76,-22.0,-32.36,-21.77,-23.81,-26.91,-31.36,-20.75,-20.85,0,0,0,0,0,0,0,0,0,0,0,0,0,0,0,0,
568,-25.8,-5.246,-11.58,0.3372,-10.5,-9.771,-12.58,2.479,-17.35,-23.49,-7.445,-3.426,-6.845,-16.87,-0.6992,-4.496,0,0,0,0,0,0,0,0,0,0,0,0,0,0,0,0,
569,-13.72,-1.186,-11.55,1.306,-11.78,-6.242,-19.39,-1.509,-5.653,-5.888,-16.22,-8.461,-10.82,-19.1,-8.653,-12.62,0,0,0,0,0,0,0,0,0,0,0,0,0,0,0,0,
570,-19.44,-10.92,-17.65,-1.408,-16.68,-8.386,-19.59,-0.255,-15.53,-6.148,-13.17,1.269,-2.452,-1.225,4.597,6.325,0,0,0,0,0,0,0,0,0,0,0,0,0,0,0,0,
571,-13.38,3.899,-2.364,10.89,-1.421,3.842,-4.467,9.836,3.978,16.71,1.75,13.21,16.91,18.18,16.3,22.07,0,0,0,0,0,0,0,0,0,0,0,0,0,0,0,0,
572,-20.31,-9.211,-15.39,-7.324,-14.92,-11.22,-17.65,-9.071,8.436,13.73,-11.36,1.022,6.165,6.675,4.477,10.94,0,0,0,0,0,0,0,0,0,0,0,0,0,0,0,0,
573,-25.53,-14.65,-11.93,-4.387,-10.36,-3.85,-8.365,0.2936,-0.6661,7.023,0.465,11.68,13.32,16.95,16.75,20.2,0,0,0,0,0,0,0,0,0,0,0,0,0,0,0,0,
574,-7.979,1.682,5.013,11.08,5.377,14.69,3.222,7.86,13.89,27.89,9.173,9.4,14.38,15.96,14.7,13.66,0,0,0,0,0,0,0,0,0,0,0,0,0,0,0,0,
575,-5.136,-3.07,-1.409,7.16,-0.9016,6.663,-3.292,-0.7366,9.414,21.59,3.549,4.431,6.541,6.338,10.83,9.374,0,0,0,0,0,0,0,0,0,0,0,0,0,0,0,0,
576,-6.09,-0.8759,6.762,12.81,6.612,3.607,5.07,11.55,11.0,18.57,12.18,17.37,15.89,16.74,18.84,19.55,0,0,0,0,0,0,0,0,0,0,0,0,0,0,0,0,
577,-16.68,-14.34,-2.546,-1.185,-4.75,-14.46,-7.258,-0.2734,13.85,15.05,-0.0586,8.783,5.749,9.428,7.145,11.11,0,0,0,0,0,0,0,0,0,0,0,0,0,0,0,0,
578,-29.32,-27.13,-13.89,-9.029,-13.8,-20.6,-13.83,-6.436,1.853,1.327,-3.276,11.3,5.128,7.956,6.852,13.26,0,0,0,0,0,0,0,0,0,0,0,0,0,0,0,0,
579,-17.24,-9.444,-3.034,0.6287,-2.318,-7.795,-8.688,0.7393,9.374,9.678,-4.571,5.351,1.832,-1.732,-7.381,-1.895,0,0,0,0,0,0,0,0,0,0,0,0,0,0,0,0,
580,-15.81,-14.89,-12.35,-10.85,-12.67,-17.57,-21.22,-13.15,-1.094,-3.595,-20.68,-15.03,-19.63,-23.93,-24.78,-20.73,0,0,0,0,0,0,0,0,0,0,0,0,0,0,0,0,
581,-12.02,-12.15,-4.42,-2.358,-3.991,-6.949,-9.259,-5.09,-7.001,-9.628,-6.535,-3.726,-10.16,-14.65,-10.24,-8.528,0,0,0,0,0,0,0,0,0,0,0,0,0,0,0,0,
582,-10.06,-1.406,-3.938,-0.2168,-4.548,-3.787,-11.84,-9.505,4.845,1.6,-11.74,-13.48,-20.15,-25.41,-24.41,-24.79,0,0,0,0,0,0,0,0,0,0,0,0,0,0,0,0,
583,-34.69,-14.36,-30.57,-16.19,-30.06,-23.4,-29.42,-23.11,-18.3,-22.16,-24.53,-23.79,-39.05,-36.14,-31.14,-29.18,0,0,0,0,0,0,0,0,0,0,0,0,0,0,0,0,
584,-29.51,-5.539,-20.1,-2.371,-18.22,-11.16,-14.87,-4.92,-21.55,-21.82,-7.697,-8.821,-23.6,-15.93,-14.21,-10.11,0,0,0,0,0,0,0,0,0,0,0,0,0,0,0,0,
585,-19.37,-11.41,-18.01,-6.031,-17.41,-12.72,-20.44,-12.91,-14.38,-12.25,-17.22,-19.06,-26.74,-19.66,-22.14,-19.39,0,0,0,0,0,0,0,0,0,0,0,0,0,0,0,0,
586,-31.33,-24.77,-21.39,-9.645,-19.92,-15.11,-19.17,-15.69,-28.42,-22.91,-13.44,-11.49,-19.07,-9.505,-6.941,-5.587,0,0,0,0,0,0,0,0,0,0,0,0,0,0,0,0,
587,-19.19,-2.32,-2.414,7.91,-1.264,5.237,-1.797,-0.3447,-12.12,-4.037,1.379,-0.5931,-4.16,6.399,4.534,6.218,0,0,0,0,0,0,0,0,0,0,0,0,0,0,0,0,
588,-12.01,-1.44,-10.75,-0.9524,-10.4,-1.524,-11.24,-11.14,-7.629,-0.7675,-9.903,-12.01,-13.06,-3.061,-4.788,-2.953,0,0,0,0,0,0,0,0,0,0,0,0,0,0,0,0,
589,-8.038,-3.049,-5.926,-1.698,-5.204,-1.93,0.1717,-6.014,-11.31,-8.316,4.561,0.3254,-0.059,4.905,9.525,8.168,0,0,0,0,0,0,0,0,0,0,0,0,0,0,0,0,
590,0.9097,-0.942,-0.8441,-7.184,-1.831,-5.874,0.4616,-10.61,1.082,-5.066,2.852,-4.782,-5.722,-6.154,0.8086,-4.119,0,0,0,0,0,0,0,0,0,0,0,0,0,0,0,0,
591,-21.4,-22.74,-25.7,-27.18,-25.66,-27.85,-21.63,-24.8,-19.63,-27.12,-15.0,-13.29,-23.29,-22.06,-6.503,-13.39,0,0,0,0,0,0,0,0,0,0,0,0,0,0,0,0,
592,-35.27,-21.74,-21.08,-19.21,-19.96,-23.56,-12.03,-7.94,-25.12,-25.98,-1.132,-0.0115,-8.708,-10.38,6.241,-3.601,0,0,0,0,0,0,0,0,0,0,0,0,0,0,0,0,
593,-33.53,-24.47,-20.52,-24.32,-20.88,-28.53,-15.08,-12.36,-14.47,-17.81,-5.814,-10.53,-12.58,-18.81,-5.251,-15.52,0,0,0,0,0,0,0,0,0,0,0,0,0,0,0,0,
594,-30.91,-28.86,-24.77,-26.01,-23.66,-29.42,-17.72,-14.53,-24.23,-29.75,-5.711,-7.288,-12.11,-17.23,0.2132,-8.624,0,0,0,0,0,0,0,0,0,0,0,0,0,0,0,0,
595,-14.09,-7.404,-11.04,-11.0,-10.26,-15.63,-10.21,-7.538,-16.88,-20.17,1.849,-2.908,-6.307,-11.86,3.014,-6.84,0,0,0,0,0,0,0,0,0,0,0,0,0,0,0,0,
596,-21.18,-15.41,-24.01,-22.6,-24.5,-31.49,-25.24,-26.28,-24.08,-27.49,-13.76,-19.06,-22.07,-25.79,-12.03,-21.97,0,0,0,0,0,0,0,0,0,0,0,0,0,0,0,0,
597,-34.33,-21.11,-23.74,-19.15,-23.14,-31.27,-17.11,-20.03,-32.07,-33.69,-7.657,-11.95,-17.38,-18.62,-7.169,-15.45,0,0,0,0,0,0,0,0,0,0,0,0,0,0,0,0,
598,-28.73,-12.53,-15.05,-13.84,-15.78,-22.64,-13.18,-13.87,-16.25,-16.96,-10.65,-14.65,-23.35,-22.36,-18.77,-23.11,0,0,0,0,0,0,0,0,0,0,0,0,0,0,0,0,
599,-31.94,-23.58,-24.21,-23.18,-24.73,-27.15,-25.34,-17.67,-25.12,-20.89,-21.76,-12.64,-32.81,-23.03,-21.54,-19.87,0,0,0,0,0,0,0,0,0,0,0,0,0,0,0,0,
600,-27.66,-14.88,-14.08,-12.66,-13.03,-14.72,-15.74,-3.497,-24.19,-10.76,-12.53,1.829,-18.65,-4.683,-10.11,-6.554,0,0,0,0,0,0,0,0,0,0,0,0,0,0,0,0,
601,-29.52,-9.468,-20.24,-18.78,-19.86,-21.7,-24.19,-18.08,-19.31,-6.174,-24.02,-17.47,-25.41,-16.35,-23.29,-21.43,0,0,0,0,0,0,0,0,0,0,0,0,0,0,0,0,
602,-33.16,-11.81,-19.26,-17.52,-18.69,-21.29,-19.28,-23.9,-27.48,-18.36,-14.93,-19.65,-14.75,-15.11,-12.78,-15.26,0,0,0,0,0,0,0,0,0,0,0,0,0,0,0,0,
603,-11.73,-3.311,6.464,-1.766,5.73,-1.251,2.349,-11.66,-5.098,-0.0047,5.209,-13.9,4.099,-6.049,-3.644,-11.41,0,0,0,0,0,0,0,0,0,0,0,0,0,0,0,0,
604,-11.97,-17.54,-4.804,-16.87,-5.825,-12.35,-9.18,-20.39,-0.7902,0.0848,-7.195,-21.38,-7.596,-15.88,-12.82,-16.81,0,0,0,0,0,0,0,0,0,0,0,0,0,0,0,0,
605,-22.14,-15.19,-6.804,-15.96,-5.61,-13.32,-6.466,-9.081,-8.834,-7.361,-2.275,-4.659,-2.255,-6.5,-4.469,-1.41,0,0,0,0,0,0,0,0,0,0,0,0,0,0,0,0,
606,-22.38,-8.979,0.7548,-12.95,1.357,-14.31,-1.064,-8.303,1.522,-1.573,-1.214,-6.599,-3.691,-11.92,-12.86,-11.2,0,0,0,0,0,0,0,0,0,0,0,0,0,0,0,0,
607,-31.63,-22.65,-8.406,-18.65,-7.212,-25.74,0.0234,-14.62,-7.559,-15.81,-0.2672,-6.006,-4.949,-14.56,-7.68,-8.572,0,0,0,0,0,0,0,0,0,0,0,0,0,0,0,0,
608,-18.39,-1.615,6.705,2.49,8.924,-8.89,18.97,5.592,1.458,-4.434,18.12,11.46,14.61,3.98,8.277,8.204,0,0,0,0,0,0,0,0,0,0,0,0,0,0,0,0,
609,-10.73,3.45,3.108,-2.545,4.45,-11.4,7.364,-4.965,12.53,5.886,6.777,-3.363,8.538,-4.665,-3.804,-5.531,0,0,0,0,0,0,0,0,0,0,0,0,0,0,0,0,
610,-20.84,-10.38,-2.335,-9.033,0.0838,-11.67,6.034,-9.207,3.282,-3.651,11.46,-0.3845,15.23,0.411,8.379,2.692,0,0,0,0,0,0,0,0,0,0,0,0,0,0,0,0,
611,-10.01,2.962,16.59,6.687,18.16,8.297,19.97,0.8193,18.33,12.64,18.92,3.594,18.24,3.494,4.844,0.1564,0,0,0,0,0,0,0,0,0,0,0,0,0,0,0,0,
612,-11.3,-1.65,6.462,0.2401,7.017,0.9596,1.406,-16.04,10.18,4.654,-5.596,-11.04,-9.817,-15.25,-19.26,-15.54,0,0,0,0,0,0,0,0,0,0,0,0,0,0,0,0,
613,-9.992,6.081,11.17,13.69,12.81,10.59,7.042,-3.043,-3.058,-3.861,3.711,7.756,-1.383,0.4855,-2.877,5.566,0,0,0,0,0,0,0,0,0,0,0,0,0,0,0,0,
614,1.528,17.74,17.63,24.16,17.84,16.42,10.21,6.22,10.94,10.97,3.654,4.139,0.9534,0.6149,-7.609,-3.449,0,0,0,0,0,0,0,0,0,0,0,0,0,0,0,0,
615,-13.38,-3.302,-3.689,12.37,-3.221,-0.4494,-7.03,-4.899,-3.574,-3.923,-13.67,-10.24,-11.16,-10.54,-15.99,-14.65,0,0,0,0,0,0,0,0,0,0,0,0,0,0,0,0,
616,-9.856,6.857,8.018,28.1,9.093,15.93,3.365,9.126,-2.692,1.573,0.3165,3.057,4.374,6.394,0.0861,2.969,0,0,0,0,0,0,0,0,0,0,0,0,0,0,0,0,
617,-0.0689,13.01,9.913,23.33,9.299,15.39,-3.479,-0.0644,9.984,13.07,-6.835,-9.595,-3.838,-2.649,-12.57,-10.44,0,0,0,0,0,0,0,0,0,0,0,0,0,0,0,0,
618,-12.72,-4.007,-2.87,7.728,-2.464,-0.4674,-9.721,-9.522,-4.97,-4.566,-13.16,-14.61,-10.68,-11.78,-15.71,-16.43,0,0,0,0,0,0,0,0,0,0,0,0,0,0,0,0,
619,-10.9,-0.1441,4.542,13.12,5.16,2.317,0.0844,-0.9872,-0.2953,-1.426,-6.758,-7.891,-4.418,-10.12,-10.94,-12.48,0,0,0,0,0,0,0,0,0,0,0,0,0,0,0,0,
620,-14.71,-12.27,-6.731,3.664,-6.275,-11.47,-10.36,-9.446,-3.056,-6.938,-15.48,-13.19,-11.85,-16.02,-13.1,-15.64,0,0,0,0,0,0,0,0,0,0,0,0,0,0,0,0,
621,-19.56,-16.3,-5.066,8.774,-3.329,-10.91,-1.571,0.6429,-10.62,-12.4,-2.384,-1.557,0.5481,-3.984,-0.1744,-5.646,0,0,0,0,0,0,0,0,0,0,0,0,0,0,0,0,
622,-15.35,-6.429,-0.5348,11.68,-0.3327,-7.251,1.175,2.784,-1.029,-3.542,-0.7817,-5.126,0.2612,-9.57,-9.026,-12.74,0,0,0,0,0,0,0,0,0,0,0,0,0,0,0,0,
623,-21.35,-10.97,-11.21,0.3995,-10.92,-15.94,-8.003,-4.07,-10.93,-17.09,-4.959,-2.939,-3.367,-11.05,-6.51,-5.426,0,0,0,0,0,0,0,0,0,0,0,0,0,0,0,0,
624,-5.276,8.553,7.711,12.02,9.211,-2.578,9.464,10.98,-0.8506,-8.482,13.95,14.81,14.93,8.181,9.935,10.89,0,0,0,0,0,0,0,0,0,0,0,0,0,0,0,0,
625,9.468,12.88,8.156,6.694,8.897,-6.086,4.171,2.03,11.58,0.6672,5.395,2.368,5.08,-2.837,-3.792,-2.514,0,0,0,0,0,0,0,0,0,0,0,0,0,0,0,0,
626,5.609,-0.4093,1.477,5.926,2.647,-5.938,-0.1375,4.775,-3.405,-9.192,4.37,8.986,4.218,1.344,4.189,8.131,0,0,0,0,0,0,0,0,0,0,0,0,0,0,0,0,
627,14.02,10.04,17.49,23.15,17.36,12.16,9.901,19.76,3.517,7.932,11.89,19.37,11.63,13.64,12.15,14.75,0,0,0,0,0,0,0,0,0,0,0,0,0,0,0,0,
628,6.509,4.374,7.738,14.29,6.799,3.7,-0.1782,6.062,0.5795,5.918,-0.4194,7.048,-0.3891,3.692,4.354,3.977,0,0,0,0,0,0,0,0,0,0,0,0,0,0,0,0,
629,3.721,10.76,13.65,20.28,14.06,11.98,12.54,14.32,-1.232,0.8543,13.84,15.39,13.32,12.79,16.6,14.54,0,0,0,0,0,0,0,0,0,0,0,0,0,0,0,0,
630,17.5,26.44,23.54,25.96,22.73,21.21,14.56,14.54,15.51,14.16,13.68,9.069,10.97,6.711,5.434,4.383,0,0,0,0,0,0,0,0,0,0,0,0,0,0,0,0,
631,10.31,11.29,7.299,18.85,6.98,12.11,-2.824,3.697,0.0421,1.637,1.786,6.093,-3.004,0.0926,1.47,2.959,0,0,0,0,0,0,0,0,0,0,0,0,0,0,0,0,
632,11.74,8.81,15.68,33.07,16.47,24.47,7.731,18.65,-1.351,8.184,15.46,17.63,8.61,13.91,14.62,13.81,0,0,0,0,0,0,0,0,0,0,0,0,0,0,0,0,
633,8.31,1.035,10.46,19.82,10.1,12.85,0.77,5.23,5.441,14.51,5.348,-1.216,-3.082,-0.1572,0.0613,-3.655,0,0,0,0,0,0,0,0,0,0,0,0,0,0,0,0,
634,-6.62,-4.944,0.4566,7.309,0.7431,-1.588,-2.201,0.8239,-10.04,-2.094,6.129,5.058,-3.379,1.071,6.819,4.469,0,0,0,0,0,0,0,0,0,0,0,0,0,0,0,0,
635,4.565,15.11,13.55,18.83,13.1,9.291,9.477,15.59,0.0307,7.862,18.8,15.83,11.08,9.632,11.92,9.962,0,0,0,0,0,0,0,0,0,0,0,0,0,0,0,0,
636,4.791,8.578,4.225,8.181,2.927,1.354,-0.3067,2.473,1.885,3.883,9.538,0.1836,6.684,0.3454,1.48,0.4331,0,0,0,0,0,0,0,0,0,0,0,0,0,0,0,0,
637,2.519,7.321,11.45,17.02,10.91,9.094,10.98,13.1,2.315,1.522,21.34,12.45,19.53,17.28,13.61,16.27,0,0,0,0,0,0,0,0,0,0,0,0,0,0,0,0,
638,9.458,12.47,16.64,22.13,14.95,11.09,9.353,18.54,18.02,15.88,15.72,8.789,12.33,13.27,0.1593,4.423,0,0,0,0,0,0,0,0,0,0,0,0,0,0,0,0,
639,-4.431,-4.607,-6.157,0.5154,-6.627,-11.3,-9.761,2.052,0.1336,-3.531,1.827,-3.353,-1.644,-0.4057,-5.718,-3.942,0,0,0,0,0,0,0,0,0,0,0,0,0,0,0,0,
640,1.349,5.744,4.396,5.879,5.255,-4.207,3.491,8.402,-1.551,-4.89,17.52,4.582,13.34,11.2,11.26,8.626,0,0,0,0,0,0,0,0,0,0,0,0,0,0,0,0,
641,10.54,7.452,5.663,5.1,5.313,-4.376,-4.412,-2.635,7.734,1.134,5.116,-12.67,1.787,-3.074,-2.158,-7.539,0,0,0,0,0,0,0,0,0,0,0,0,0,0,0,0,
642,0.1378,1.576,-2.338,7.58,-2.044,-3.435,-11.33,-7.188,-6.962,-13.66,1.279,-12.15,-0.4614,-5.548,3.727,-2.878,0,0,0,0,0,0,0,0,0,0,0,0,0,0,0,0,
643,7.79,22.05,8.973,22.36,8.409,12.63,0.4633,3.192,0.2164,-2.119,11.92,-1.202,9.247,2.175,10.63,3.025,0,0,0,0,0,0,0,0,0,0,0,0,0,0,0,0,
644,4.195,9.231,-7.781,6.133,-8.823,-3.688,-15.48,-6.878,-5.534,-5.202,-6.629,-10.73,-9.635,-13.32,-7.089,-11.87,0,0,0,0,0,0,0,0,0,0,0,0,0,0,0,0,
645,-3.899,-2.635,-10.71,5.07,-10.61,-10.48,-17.48,3.166,-17.59,-16.03,-7.729,0.1966,-10.56,-6.823,-3.736,-2.174,0,0,0,0,0,0,0,0,0,0,0,0,0,0,0,0,
646,-0.9747,1.31,-5.611,5.565,-6.889,-13.95,-18.72,1.786,-9.83,-11.99,-12.35,-1.348,-14.85,-6.213,-9.92,-3.674,0,0,0,0,0,0,0,0,0,0,0,0,0,0,0,0,
647,-15.54,-14.5,-19.77,-10.38,-19.65,-29.2,-25.42,-10.12,-24.17,-27.05,-17.75,-5.464,-19.32,-9.941,-8.836,-3.219,0,0,0,0,0,0,0,0,0,0,0,0,0,0,0,0,
648,-12.56,-0.7444,-4.73,1.895,-3.448,-13.54,-6.073,6.845,-19.69,-17.68,2.519,4.235,0.3475,2.268,5.191,5.658,0,0,0,0,0,0,0,0,0,0,0,0,0,0,0,0,
649,-1.904,7.749,-3.916,-0.5201,-4.663,-11.78,-10.37,-2.378,-7.493,-6.541,-1.277,-10.34,-1.93,-5.16,-4.221,-7.614,0,0,0,0,0,0,0,0,0,0,0,0,0,0,0,0,
650,-2.732,-8.605,-6.657,-6.247,-6.097,-13.19,-6.75,-6.01,-11.5,-12.68,8.604,-2.497,12.09,8.615,9.859,5.891,0,0,0,0,0,0,0,0,0,0,0,0,0,0,0,0,
651,11.56,-2.455,17.9,6.5,18.39,5.832,15.65,8.239,16.75,13.92,27.93,11.1,32.78,26.77,19.67,17.55,0,0,0,0,0,0,0,0,0,0,0,0,0,0,0,0,
652,7.343,-1.851,8.105,-1.673,7.536,0.5695,3.528,-3.533,22.32,19.03,12.46,3.847,15.68,15.21,7.563,9.279,0,0,0,0,0,0,0,0,0,0,0,0,0,0,0,0,
653,-1.113,5.914,2.647,5.399,3.782,5.755,3.008,5.595,6.259,9.754,14.36,18.8,15.19,20.47,16.99,19.63,0,0,0,0,0,0,0,0,0,0,0,0,0,0,0,0,
654,9.361,13.59,11.86,12.87,12.23,15.05,5.175,10.42,15.19,19.83,13.0,13.94,13.53,12.71,9.26,8.787,0,0,0,0,0,0,0,0,0,0,0,0,0,0,0,0,
655,7.385,-1.752,4.957,5.079,5.414,11.85,-1.459,1.489,9.063,9.537,7.107,5.576,8.377,3.383,8.36,4.382,0,0,0,0,0,0,0,0,0,0,0,0,0,0,0,0,
656,15.05,10.72,16.5,20.46,17.79,28.64,11.23,16.3,13.67,14.46,21.35,19.49,21.14,17.14,22.27,17.27,0,0,0,0,0,0,0,0,0,0,0,0,0,0,0,0,
657,21.86,21.73,13.2,21.06,12.91,28.17,-0.159,7.792,20.69,20.53,8.481,8.64,7.659,7.609,7.239,6.379,0,0,0,0,0,0,0,0,0,0,0,0,0,0,0,0,
658,20.28,19.66,10.45,25.07,10.12,32.86,-2.422,8.371,9.317,11.65,8.007,17.76,7.631,15.71,15.37,20.75,0,0,0,0,0,0,0,0,0,0,0,0,0,0,0,0,
659,36.58,29.07,28.17,41.18,27.12,50.22,11.46,27.84,23.39,31.72,16.66,35.19,17.09,33.46,23.92,36.24,0,0,0,0,0,0,0,0,0,0,0,0,0,0,0,0,
660,30.0,14.66,10.5,24.59,9.713,26.6,-6.969,14.32,17.36,27.91,-6.267,19.79,-2.686,19.48,5.323,22.7,0,0,0,0,0,0,0,0,0,0,0,0,0,0,0,0,
661,14.58,13.53,4.177,25.19,5.426,17.86,-6.45,10.64,-0.8706,9.963,-4.745,13.71,0.622,17.01,7.005,16.93,0,0,0,0,0,0,0,0,0,0,0,0,0,0,0,0,
662,16.82,26.09,14.22,31.91,13.5,25.86,-0.6235,8.95,9.368,15.24,0.2545,3.538,6.813,11.89,5.179,3.974,0,0,0,0,0,0,0,0,0,0,0,0,0,0,0,0,
663,10.65,19.21,10.4,22.07,9.032,20.3,-3.253,5.841,7.639,8.268,1.821,3.282,10.27,12.22,11.33,10.6,0,0,0,0,0,0,0,0,0,0,0,0,0,0,0,0,
664,18.88,29.57,27.09,31.63,27.05,30.54,16.28,20.62,18.22,16.58,20.86,14.3,27.96,25.99,22.31,23.47,0,0,0,0,0,0,0,0,0,0,0,0,0,0,0,0,
665,22.7,23.12,21.15,21.73,20.45,20.86,9.945,7.149,25.71,21.06,11.92,0.6609,19.72,14.47,11.76,9.752,0,0,0,0,0,0,0,0,0,0,0,0,0,0,0,0,
666,8.335,6.579,4.583,11.51,4.367,7.086,3.402,5.871,8.404,9.334,12.5,11.83,23.43,19.92,26.23,23.01,0,0,0,0,0,0,0,0,0,0,0,0,0,0,0,0,
667,7.53,13.38,6.883,17.08,5.994,6.569,8.437,17.07,12.01,19.67,18.49,19.82,26.12,22.84,25.49,24.88,0,0,0,0,0,0,0,0,0,0,0,0,0,0,0,0,
668,-3.082,-0.2728,-12.64,0.249,-13.71,-13.11,-8.716,-0.304,-0.4136,5.858,0.4618,6.856,0.9276,1.889,5.713,10.28,0,0,0,0,0,0,0,0,0,0,0,0,0,0,0,0,
669,-2.844,0.1508,-7.382,4.104,-6.831,-8.539,3.537,8.267,-11.17,-6.012,13.99,26.04,8.115,9.808,20.95,24.64,0,0,0,0,0,0,0,0,0,0,0,0,0,0,0,0,
670,12.21,7.943,6.494,6.984,5.539,-4.035,12.72,6.982,4.606,4.183,17.33,18.45,6.113,-0.4549,12.34,6.096,0,0,0,0,0,0,0,0,0,0,0,0,0,0,0,0,
671,5.426,-5.332,-4.233,-3.288,-5.392,-14.43,0.1426,-10.68,-8.912,-13.06,3.654,-0.5449,-9.337,-18.36,-0.1832,-11.72,0,0,0,0,0,0,0,0,0,0,0,0,0,0,0,0,
672,19.82,16.18,13.32,20.73,13.0,9.651,12.94,8.53,-8.012,-5.746,14.6,12.29,4.082,-3.297,10.42,2.307,0,0,0,0,0,0,0,0,0,0,0,0,0,0,0,0,
673,35.09,25.25,13.11,23.08,11.89,13.82,7.58,8.373,3.847,8.179,3.692,1.962,-2.91,-5.729,-0.5136,-5.37,0,0,0,0,0,0,0,0,0,0,0,0,0,0,0,0,T1
674,21.51,14.51,-1.065,13.36,-0.9918,7.064,2.925,3.767,-8.909,-5.033,0.3616,-1.027,-4.709,2.425,5.88,2.501,0,0,0,0,0,0,0,0,0,0,0,0,0,0,0,0,
675,25.09,32.59,12.57,23.63,12.54,22.56,14.53,12.02,1.671,7.625,9.617,4.434,5.564,17.26,13.55,14.08,0,0,0,0,0,0,0,0,0,0,0,0,0,0,0,0,
676,27.7,28.03,9.947,14.11,9.091,18.93,5.768,-0.841,5.549,11.33,-1.743,-4.952,-1.054,7.06,3.603,7.855,0,0,0,0,0,0,0,0,0,0,0,0,0,0,0,0,
677,30.68,25.04,18.58,15.85,18.62,26.58,15.14,5.925,4.904,8.662,6.742,3.869,11.56,8.873,6.276,8.145,0,0,0,0,0,0,0,0,0,0,0,0,0,0,0,0,
678,44.04,37.37,27.9,18.23,26.93,31.47,17.51,7.066,20.59,15.69,4.372,-3.216,9.542,-1.767,-10.14,-11.44,0,0,0,0,0,0,0,0,0,0,0,0,0,0,0,0,
679,38.49,32.11,15.3,12.11,14.63,19.18,7.147,-1.266,11.87,-1.095,-2.221,-5.48,2.877,-6.415,-8.945,-8.811,0,0,0,0,0,0,0,0,0,0,0,0,0,0,0,0,
680,34.63,42.8,23.73,27.14,23.37,28.44,19.81,13.24,17.99,4.486,13.85,12.73,20.26,11.05,8.791,11.07,0,0,0,0,0,0,0,0,0,0,0,0,0,0,0,0,
681,19.81,33.37,10.6,14.3,9.178,16.4,8.255,3.384,23.2,10.12,1.246,3.248,7.552,-0.5114,-7.637,-1.878,0,0,0,0,0,0,0,0,0,0,0,0,0,0,0,0,
682,2.366,12.32,-1.936,5.257,-1.631,8.855,5.849,6.247,4.005,-2.629,2.896,10.17,4.627,2.97,-0.7078,7.921,0,0,0,0,0,0,0,0,0,0,0,0,0,0,0,0,
683,18.03,24.81,16.83,21.49,16.79,26.44,18.91,22.98,16.09,15.76,14.65,15.02,14.64,12.08,6.445,11.14,0,0,0,0,0,0,0,0,0,0,0,0,0,0,0,0,
684,14.17,17.11,4.344,9.611,3.119,11.78,-1.685,4.271,13.23,10.92,-6.465,-6.749,-3.757,-6.605,-8.245,-9.31,0,0,0,0,0,0,0,0,0,0,0,0,0,0,0,0,
685,3.295,14.46,1.885,13.96,1.77,7.998,-1.012,6.989,-4.582,-6.317,-3.643,0.4669,-5.281,-2.882,2.284,0.2406,0,0,0,0,0,0,0,0,0,0,0,0,0,0,0,0,
686,14.03,26.01,5.448,20.45,4.219,10.1,-1.431,8.925,-3.791,-3.522,-7.31,-3.281,-14.68,-8.461,-5.985,-5.25,0,0,0,0,0,0,0,0,0,0,0,0,0,0,0,0,
687,7.153,12.76,-18.37,5.264,-19.45,-6.531,-18.83,-3.907,-26.6,-23.78,-21.64,-9.648,-28.05,-18.9,-13.88,-11.0,0,0,0,0,0,0,0,0,0,0,0,0,0,0,0,0,
688,5.266,13.33,-12.7,12.91,-12.77,-0.2509,-4.206,8.425,-29.14,-24.21,-5.797,8.447,-13.2,-5.041,-1.778,1.587,0,0,0,0,0,0,0,0,0,0,0,0,0,0,0,0,
689,3.232,5.751,-11.23,2.356,-12.0,-7.579,-3.794,-0.5512,-15.18,-14.32,-8.52,2.628,-17.52,-7.279,-10.9,-5.196,0,0,0,0,0,0,0,0,0,0,0,0,0,0,0,0,
690,-4.089,-0.7127,-11.64,-8.058,-11.74,-10.65,-1.038,-3.958,-20.44,-18.54,-3.836,5.483,-11.65,3.327,-2.603,3.907,0,0,0,0,0,0,0,0,0,0,0,0,0,0,0,0,
691,19.09,25.25,15.27,7.754,14.33,12.23,18.02,8.466,-0.4916,1.208,8.732,7.294,1.694,9.216,-0.1207,4.54,0,0,0,0,0,0,0,0,0,0,0,0,0,0,0,0,
692,29.2,21.82,14.08,-0.2758,13.03,7.121,8.336,-5.077,8.22,-2.048,-8.652,-11.12,-11.87,-12.94,-16.7,-10.71,0,0,0,0,0,0,0,0,0,0,0,0,0,0,0,0,
693,20.03,14.73,11.27,0.1267,11.88,7.532,7.107,-0.2893,1.433,-13.2,-10.13,-4.819,-9.79,-8.29,-8.911,-2.154,0,0,0,0,0,0,0,0,0,0,0,0,0,0,0,0,
694,13.51,17.45,4.112,0.8742,3.055,8.426,-3.727,-2.176,1.505,-3.549,-18.48,-9.495,-18.58,-8.656,-15.24,-8.55,0,0,0,0,0,0,0,0,0,0,0,0,0,0,0,0,
695,-2.662,1.102,-22.6,-10.72,-23.6,-6.608,-22.31,-15.23,-23.61,-13.15,-26.91,-10.35,-26.23,-8.751,-13.59,-3.515,0,0,0,0,0,0,0,0,0,0,0,0,0,0,0,0,
696,0.1169,8.395,-16.3,4.535,-15.68,1.882,-4.509,0.0343,-24.79,-3.772,-7.72,6.339,-6.608,9.873,0.264,10.1,0,0,0,0,0,0,0,0,0,0,0,0,0,0,0,0,
697,-0.2798,6.302,-18.82,1.812,-18.17,-5.218,-5.972,-6.789,-13.72,2.326,-15.08,-8.919,-13.91,-1.873,-14.8,-9.573,0,0,0,0,0,0,0,0,0,0,0,0,0,0,0,0,
698,-11.9,-1.869,-23.4,-3.84,-21.84,-10.43,-8.397,-8.782,-21.29,-13.89,-13.03,-8.557,-7.905,-1.931,-5.986,-4.016,0,0,0,0,0,0,0,0,0,0,0,0,0,0,0,0,
699,3.026,21.42,-2.664,7.154,-2.455,6.011,3.644,3.213,-0.2375,0.2328,-0.5575,-2.818,9.232,6.456,0.9534,0.9148,0,0,0,0,0,0,0,0,0,0,0,0,0,0,0,0,
700,9.198,16.54,-8.416,-6.885,-8.412,-1.256,-9.072,-8.322,5.608,1.409,-13.09,-13.56,-1.529,-1.98,-9.353,-8.615,0,0,0,0,0,0,0,0,0,0,0,0,0,0,0,0,
701,15.47,11.97,-2.256,-2.228,-0.7822,7.75,-1.542,5.914,0.8373,3.012,-2.768,4.178,8.008,14.21,5.633,8.503,0,0,0,0,0,0,0,0,0,0,0,0,0,0,0,0,
702,28.1,22.0,4.804,4.665,3.902,15.04,-1.169,11.47,13.59,20.93,-8.217,-0.0303,1.882,9.363,-5.768,-1.203,0,0,0,0,0,0,0,0,0,0,0,0,0,0,0,0,
703,13.52,8.247,-14.06,-6.946,-14.21,-0.0051,-17.63,-3.527,-3.375,3.196,-23.24,-9.043,-11.98,-1.38,-10.88,-2.845,0,0,0,0,0,0,0,0,0,0,0,0,0,0,0,0,
704,18.22,19.33,0.5966,10.18,2.469,14.39,1.016,8.594,-0.8754,6.396,-0.6644,11.58,12.0,20.13,14.86,23.8,0,0,0,0,0,0,0,0,0,0,0,0,0,0,0,0,
705,26.6,28.92,4.87,11.12,5.079,13.69,6.029,1.114,17.64,21.13,1.344,5.054,14.48,14.85,12.8,15.67,0,0,0,0,0,0,0,0,0,0,0,0,0,0,0,0,
706,8.902,14.06,-1.649,1.831,-0.4387,3.076,13.13,-0.9666,11.46,8.505,9.916,8.69,20.01,13.41,24.7,19.08,0,0,0,0,0,0,0,0,0,0,0,0,0,0,0,0,
707,9.608,9.835,19.21,8.736,20.73,11.66,38.24,13.6,29.65,16.46,34.72,22.06,39.42,24.21,39.21,31.62,0,0,0,0,0,0,0,0,0,0,0,0,0,0,0,0,
708,9.341,-2.578,18.55,-0.5317,19.07,4.119,35.45,1.472,39.22,14.66,33.24,14.82,35.66,20.34,32.84,30.1,0,0,0,0,0,0,0,0,0,0,0,0,0,0,0,0,
709,10.19,7.801,24.05,10.46,25.34,17.23,41.86,8.342,36.85,14.46,44.26,25.32,47.0,36.29,42.6,41.88,0,0,0,0,0,0,0,0,0,0,0,0,0,0,0,0,
710,21.64,25.62,29.36,19.12,29.33,29.29,41.05,13.78,49.9,33.81,41.68,23.39,46.8,36.75,32.19,32.22,0,0,0,0,0,0,0,0,0,0,0,0,0,0,0,0,
711,13.87,11.49,14.54,6.588,14.72,15.96,28.52,9.598,38.69,25.85,29.82,22.38,38.77,31.93,25.76,29.35,0,0,0,0,0,0,0,0,0,0,0,0,0,0,0,0,
712,17.53,16.16,29.44,19.53,29.97,28.23,41.82,25.69,41.06,34.54,43.32,34.29,53.16,45.85,37.37,39.49,0,0,0,0,0,0,0,0,0,0,0,0,0,0,0,0,
713,19.86,13.45,26.43,17.22,24.97,27.64,31.67,11.45,48.65,46.24,32.6,14.04,41.53,31.69,24.36,22.14,0,0,0,0,0,0,0,0,0,0,0,0,0,0,0,0,
714,10.19,3.181,13.57,13.23,13.47,20.18,25.2,5.386,32.22,32.8,29.45,14.7,36.42,29.41,29.69,26.88,0,0,0,0,0,0,0,0,0,0,0,0,0,0,0,0,
715,21.21,18.53,26.1,25.92,25.99,25.78,34.12,18.5,36.79,39.24,34.65,24.19,38.49,34.16,31.75,29.38,0,0,0,0,0,0,0,0,0,0,0,0,0,0,0,0,
716,9.372,8.143,8.358,9.049,6.508,4.423,12.09,0.806,24.44,28.01,12.36,9.388,17.45,19.01,16.98,15.72,0,0,0,0,0,0,0,0,0,0,0,0,0,0,0,0,
717,-11.88,2.384,0.9554,4.872,0.5489,3.321,10.18,3.12,9.182,17.56,13.28,17.01,24.18,29.66,28.68,27.52,0,0,0,0,0,0,0,0,0,0,0,0,0,0,0,0,
718,-7.486,4.615,5.759,4.222,5.671,10.65,8.624,5.002,23.05,30.28,8.27,10.74,24.1,25.36,21.29,18.56,0,0,0,0,0,0,0,0,0,0,0,0,0,0,0,0,
719,-11.22,-18.43,-11.24,-11.93,-11.27,-4.495,-9.422,-6.349,8.575,13.08,-4.045,1.759,12.11,10.88,14.45,11.6,0,0,0,0,0,0,0,0,0,0,0,0,0,0,0,0,
720,-5.829,-8.604,-0.9685,-0.3294,-1.015,4.001,0.8226,6.116,2.867,9.219,8.037,10.42,21.38,18.24,23.17,18.9,0,0,0,0,0,0,0,0,0,0,0,0,0,0,0,0,
721,-0.9504,0.6457,0.407,-1.977,-0.5145,4.487,-5.425,-6.382,8.678,12.15,-5.167,-9.395,7.287,5.046,8.205,2.963,0,0,0,0,0,0,0,0,0,0,0,0,0,0,0,0,
722,-10.99,-10.91,-8.496,-9.625,-8.218,0.719,-10.3,-13.19,-6.396,-2.748,-6.736,-7.855,3.531,6.632,12.11,10.42,0,0,0,0,0,0,0,0,0,0,0,0,0,0,0,0,
723,-9.094,-3.976,0.8405,-5.742,0.5278,5.441,2.057,-0.4145,1.714,5.292,3.9,2.273,8.084,8.699,4.621,5.055,0,0,0,0,0,0,0,0,0,0,0,0,0,0,0,0,
724,-18.29,-14.36,-11.68,-20.41,-12.43,-13.9,-4.494,-12.03,-0.0415,-5.84,-9.695,-14.27,-9.656,-15.51,-19.38,-21.73,0,0,0,0,0,0,0,0,0,0,0,0,0,0,0,0,
725,-15.87,-11.42,-3.709,-5.681,-3.128,-5.71,11.52,-0.9889,-4.068,-12.36,5.269,-4.902,4.583,-4.493,-1.353,-6.286,0,0,0,0,0,0,0,0,0,0,0,0,0,0,0,0,
726,0.241,2.127,7.354,7.414,6.229,5.762,14.62,4.223,14.02,10.24,5.544,-5.196,7.203,-0.1972,-2.674,-5.888,0,0,0,0,0,0,0,0,0,0,0,0,0,0,0,0,
727,-17.71,-20.15,-16.08,-12.84,-16.94,-13.45,-8.569,-12.28,-2.523,-2.672,-16.98,-12.83,-12.84,-13.66,-15.12,-15.49,0,0,0,0,0,0,0,0,0,0,0,0,0,0,0,0,
728,-22.35,-21.33,-10.69,-7.709,-10.07,-8.099,-0.5496,-2.647,-11.5,-7.945,-9.68,-0.2643,-6.62,-6.213,-7.151,-6.052,0,0,0,0,0,0,0,0,0,0,0,0,0,0,0,0,
729,-14.05,-16.39,-9.917,-7.575,-10.29,-12.47,-6.447,-6.831,-5.08,-2.077,-17.87,-9.01,-13.96,-14.13,-18.1,-14.87,0,0,0,0,0,0,0,0,0,0,0,0,0,0,0,0,
730,-22.73,-23.06,-19.83,-8.467,-19.24,-21.27,-12.8,-7.227,-17.19,-14.44,-16.82,-6.399,-11.39,-11.47,-10.37,-9.599,0,0,0,0,0,0,0,0,0,0,0,0,0,0,0,0,
731,-15.98,-11.08,-8.333,4.103,-7.887,-9.107,-1.959,-0.0696,-5.348,-5.3,-2.067,-3.489,0.9789,-4.525,-3.015,-8.352,0,0,0,0,0,0,0,0,0,0,0,0,0,0,0,0,
732,-18.52,-18.04,-19.83,-9.966,-20.29,-19.96,-15.09,-18.84,-3.379,-10.4,-15.04,-16.21,-12.14,-16.15,-14.71,-19.19,0,0,0,0,0,0,0,0,0,0,0,0,0,0,0,0,
733,-24.33,-19.32,-18.88,-5.668,-18.68,-18.17,-9.912,-9.294,-12.32,-17.05,-8.933,0.5915,-4.439,-3.534,-3.084,-6.168,0,0,0,0,0,0,0,0,0,0,0,0,0,0,0,0,
734,-12.74,-9.136,-7.986,6.789,-8.572,-9.293,-3.701,-1.222,-2.097,-2.591,-5.464,-0.5586,-1.36,-5.085,-5.935,-13.11,0,0,0,0,0,0,0,0,0,0,0,0,0,0,0,0,
735,-14.21,-15.32,-17.22,2.233,-16.82,-15.42,-11.83,-9.464,-10.27,-11.96,-10.31,-6.022,-6.612,-14.41,-5.339,-13.81,0,0,0,0,0,0,0,0,0,0,0,0,0,0,0,0,
736,-12.22,2.082,-5.7,14.99,-5.038,-1.03,-1.142,6.811,-5.101,-4.787,3.268,12.87,6.662,-0.914,8.024,0.1317,0,0,0,0,0,0,0,0,0,0,0,0,0,0,0,0,
737,-18.64,4.095,-13.52,5.415,-14.27,-6.652,-14.08,-1.584,1.23,5.192,-9.554,5.087,-2.33,-6.077,-3.037,-11.03,0,0,0,0,0,0,0,0,0,0,0,0,0,0,0,0,
738,-29.01,-13.33,-22.08,-3.285,-20.8,-13.94,-15.58,-6.756,-11.06,-4.09,-8.286,10.92,6.997,5.592,12.96,5.114,0,0,0,0,0,0,0,0,0,0,0,0,0,0,0,0,
739,-3.475,-2.779,6.28,12.24,6.898,2.809,8.756,4.645,11.86,14.52,9.845,18.29,27.63,18.22,24.69,13.65,0,0,0,0,0,0,0,0,0,0,0,0,0,0,0,0,
740,5.855,-4.595,4.201,0.6456,3.512,-6.567,2.834,-13.07,19.3,11.68,0.1182,-2.391,12.31,-1.264,7.305,-6.516,0,0,0,0,0,0,0,0,0,0,0,0,0,0,0,0,
741,-2.288,-0.0842,1.7,1.159,3.412,-3.82,8.773,-9.051,6.826,-1.2,7.987,6.169,12.96,4.673,14.26,4.503,0,0,0,0,0,0,0,0,0,0,0,0,0,0,0,0,
742,2.365,8.741,7.387,5.635,7.951,2.913,8.366,-0.6179,13.95,11.39,2.744,7.655,4.299,2.156,1.405,0.6306,0,0,0,0,0,0,0,0,0,0,0,0,0,0,0,0,
743,-8.707,-10.46,-13.89,-12.08,-14.33,-17.85,-17.21,-7.421,-5.73,-2.973,-21.25,-1.239,-21.12,-14.5,-18.37,-11.27,0,0,0,0,0,0,0,0,0,0,0,0,0,0,0,0,
744,-8.802,-6.83,-17.17,-10.94,-15.81,-20.04,-18.01,1.805,-20.27,-13.83,-19.7,7.066,-22.0,-10.39,-16.14,-6.833,0,0,0,0,0,0,0,0,0,0,0,0,0,0,0,0,
745,-2.39,-7.361,-22.3,-21.38,-20.76,-26.02,-25.46,-11.84,-20.91,-19.08,-30.37,-5.891,-33.28,-22.4,-28.51,-20.79,0,0,0,0,0,0,0,0,0,0,0,0,0,0,0,0,
746,-12.26,-22.05,-28.21,-29.26,-27.05,-30.53,-29.3,-15.77,-33.7,-33.41,-32.09,-6.539,-34.18,-22.63,-24.84,-18.71,0,0,0,0,0,0,0,0,0,0,0,0,0,0,0,0,
747,-12.49,-13.55,-20.92,-15.91,-21.34,-20.35,-24.67,-3.162,-26.36,-20.7,-29.06,-3.7,-28.71,-15.38,-24.95,-17.99,0,0,0,0,0,0,0,0,0,0,0,0,0,0,0,0,
748,-17.36,-16.55,-35.61,-18.7,-35.11,-26.31,-37.98,-14.72,-31.45,-22.57,-41.89,-14.62,-36.48,-20.9,-32.31,-23.36,0,0,0,0,0,0,0,0,0,0,0,0,0,0,0,0,
749,-12.76,-7.725,-24.3,-4.621,-21.84,-11.34,-22.17,-2.41,-33.29,-22.34,-20.29,1.254,-14.86,-2.061,-8.867,-3.704,0,0,0,0,0,0,0,0,0,0,0,0,0,0,0,0,
750,1.374,2.204,-9.88,-0.2115,-11.0,-5.015,-14.02,0.7879,-13.47,-5.108,-13.88,-3.715,-12.64,-4.658,-12.09,-12.66,0,0,0,0,0,0,0,0,0,0,0,0,0,0,0,0,
751,-9.809,-18.8,-27.74,-18.39,-29.52,-24.06,-24.04,-13.44,-25.68,-19.59,-23.64,-12.66,-23.66,-15.71,-18.62,-18.07,0,0,0,0,0,0,0,0,0,0,0,0,0,0,0,0,
752,-12.48,-12.0,-17.04,-5.176,-16.25,-10.01,-3.932,5.275,-21.84,-13.37,-3.31,4.405,-4.436,-0.451,-5.689,-2.849,0,0,0,0,0,0,0,0,0,0,0,0,0,0,0,0,
753,-17.3,-6.564,-15.0,-7.231,-14.91,-7.674,-6.231,2.215,-6.175,-0.9569,-8.337,-5.585,-10.58,-10.08,-16.93,-15.78,0,0,0,0,0,0,0,0,0,0,0,0,0,0,0,0,
754,-28.31,-15.62,-17.57,-15.48,-16.98,-13.03,-5.687,-2.043,-15.08,-13.5,-5.641,0.1662,-7.638,-6.074,-3.866,-5.401,0,0,0,0,0,0,0,0,0,0,0,0,0,0,0,0,
755,-8.174,-6.402,3.807,-2.957,4.078,1.162,13.95,12.42,1.015,2.311,11.06,15.25,9.409,9.443,7.335,6.008,0,0,0,0,0,0,0,0,0,0,0,0,0,0,0,0,
756,-5.533,-18.48,-10.36,-9.365,-10.71,-5.881,-1.754,1.989,2.491,3.88,-6.69,2.67,-5.679,-1.752,-11.38,-8.353,0,0,0,0,0,0,0,0,0,0,0,0,0,0,0,0,
757,-17.26,-15.89,-17.12,2.809,-15.63,2.711,-4.012,9.207,-8.205,-2.032,-5.612,10.88,-0.5902,8.498,-2.749,2.373,0,0,0,0,0,0,0,0,0,0,0,0,0,0,0,0,
758,-14.07,2.444,-8.05,13.6,-7.288,13.46,-3.354,15.02,7.145,16.37,-4.418,12.28,4.946,12.18,-0.8042,2.36,0,0,0,0,0,0,0,0,0,0,0,0,0,0,0,0,
759,-19.18,-4.464,-17.46,-0.7546,-17.07,2.66,-17.61,4.96,-0.0818,9.997,-14.31,7.439,-1.606,3.325,-1.562,-0.7512,0,0,0,0,0,0,0,0,0,0,0,0,0,0,0,0,
760,-5.481,7.572,-4.571,6.302,-3.976,11.03,-7.685,12.21,-0.9364,9.57,-3.873,12.74,6.461,6.748,6.408,3.837,0,0,0,0,0,0,0,0,0,0,0,0,0,0,0,0,
761,2.382,2.727,-10.84,-4.073,-11.42,-1.691,-17.88,-2.076,1.293,7.262,-15.48,-6.174,-9.817,-9.719,-10.96,-12.63,0,0,0,0,0,0,0,0,0,0,0,0,0,0,0,0,
762,-15.53,-18.18,-27.26,-14.59,-26.19,-15.16,-24.68,-3.739,-19.06,-13.2,-16.84,-2.976,-14.32,-9.418,-8.872,-4.605,0,0,0,0,0,0,0,0,0,0,0,0,0,0,0,0,
763,-10.34,-3.824,-13.69,-1.04,-12.6,-3.268,-12.13,9.143,-12.35,-6.464,-9.445,0.7255,-10.14,-9.095,-12.18,-6.452,0,0,0,0,0,0,0,0,0,0,0,0,0,0,0,0,
764,-7.798,-5.396,-21.41,-12.69,-21.77,-16.42,-25.44,-10.82,-17.83,-18.23,-30.43,-23.88,-33.33,-34.47,-34.78,-31.14,0,0,0,0,0,0,0,0,0,0,0,0,0,0,0,0,
765,-6.426,-2.221,-16.36,-8.714,-15.84,-10.74,-15.61,-7.249,-29.38,-31.38,-20.8,-18.42,-24.84,-25.91,-22.57,-21.9,0,0,0,0,0,0,0,0,0,0,0,0,0,0,0,0,
766,6.62,10.9,-3.116,0.7923,-3.138,2.099,-2.928,-5.128,-9.846,-15.53,-9.941,-23.73,-13.96,-22.91,-20.96,-26.65,0,0,0,0,0,0,0,0,0,0,0,0,0,0,0,0,
767,-2.51,-4.689,-16.33,-11.43,-15.55,-10.99,-10.42,-20.41,-14.13,-25.39,-12.79,-35.18,-17.37,-30.56,-21.34,-31.75,0,0,0,0,0,0,0,0,0,0,0,0,0,0,0,0,
768,2.617,5.985,-1.507,-0.7613,0.1684,2.886,6.651,-5.301,-11.32,-20.29,5.734,-19.69,-2.116,-15.61,-7.843,-17.15,0,0,0,0,0,0,0,0,0,0,0,0,0,0,0,0,
769,14.72,15.37,6.27,-5.375,6.257,8.371,4.585,-10.28,2.684,-5.065,-2.083,-27.78,-10.08,-23.84,-21.92,-28.15,0,0,0,0,0,0,0,0,0,0,0,0,0,0,0,0,
770,8.261,2.941,2.821,-16.02,3.533,2.739,1.035,-16.35,-4.144,-11.8,-4.438,-23.6,-10.42,-20.65,-16.01,-20.11,0,0,0,0,0,0,0,0,0,0,0,0,0,0,0,0,
771,17.93,11.05,19.52,-5.734,19.93,11.35,17.53,-2.314,10.95,2.765,10.01,-7.631,2.7,-5.246,-5.406,-5.579,0,0,0,0,0,0,0,0,0,0,0,0,0,0,0,0,
772,14.92,1.028,5.136,-18.95,4.407,-4.605,6.349,-12.21,10.27,0.3726,-1.197,-15.31,-8.546,-15.33,-15.08,-11.5,0,0,0,0,0,0,0,0,0,0,0,0,0,0,0,0,
773,0.4313,-7.427,-5.22,-22.62,-4.177,-9.004,3.502,-10.54,-5.947,-10.28,3.521,-9.251,-1.209,-8.55,-3.623,-3.256,0,0,0,0,0,0,0,0,0,0,0,0,0,0,0,0,
774,0.7079,-1.41,0.9632,-18.48,2.247,-3.165,3.901,-10.77,4.211,2.896,3.968,-13.0,2.502,-5.663,-5.197,-8.534,0,0,0,0,0,0,0,0,0,0,0,0,0,0,0,0,
775,-4.408,-10.12,-2.585,-21.38,-1.887,-4.466,-1.242,-13.25,2.914,0.7492,-2.419,-12.91,-0.6976,-3.989,-4.71,-5.79,0,0,0,0,0,0,0,0,0,0,0,0,0,0,0,0,
776,6.157,3.2,13.71,0.7233,13.28,19.54,12.3,11.16,11.7,14.92,10.85,5.453,12.66,12.95,6.639,6.888,0,0,0,0,0,0,0,0,0,0,0,0,0,0,0,0,
777,13.9,8.197,7.075,3.176,6.313,21.56,-2.039,6.572,18.9,25.65,-2.99,-4.155,0.0366,3.223,-8.422,-6.381,0,0,0,0,0,0,0,0,0,0,0,0,0,0,0,0,
778,4.998,-0.462,-2.878,0.8167,-0.4395,16.28,-7.194,5.183,3.968,12.52,-4.989,1.192,3.061,9.376,-1.001,5.447,0,0,0,0,0,0,0,0,0,0,0,0,0,0,0,0,
779,16.74,11.64,20.03,15.44,21.69,31.8,13.48,20.94,18.82,28.57,9.861,7.528,19.17,21.45,5.385,11.55,0,0,0,0,0,0,0,0,0,0,0,0,0,0,0,0,
780,18.27,5.536,14.75,6.068,13.85,22.69,6.458,6.341,21.72,28.52,0.1136,-12.33,4.164,2.919,-8.633,-6.625,0,0,0,0,0,0,0,0,0,0,0,0,0,0,0,0,
781,15.53,11.73,14.99,10.7,15.21,26.57,13.29,8.156,11.77,17.68,10.86,-4.837,8.538,5.137,2.332,0.3922,0,0,0,0,0,0,0,0,0,0,0,0,0,0,0,0,
782,26.97,24.1,23.66,10.07,23.75,31.01,16.83,6.294,22.57,25.94,11.51,-5.5,7.591,1.426,-3.514,-7.038,0,0,0,0,0,0,0,0,0,0,0,0,0,0,0,0,
783,19.48,2.095,9.682,-13.51,10.62,10.31,4.601,-5.452,10.71,10.74,1.483,-6.236,-0.3864,-4.038,-2.826,-3.446,0,0,0,0,0,0,0,0,0,0,0,0,0,0,0,0,
784,17.76,1.892,19.25,-7.125,20.63,13.36,18.57,13.57,12.08,11.98,18.33,15.23,18.49,14.74,19.75,21.09,0,0,0,0,0,0,0,0,0,0,0,0,0,0,0,0,
785,14.27,-2.976,12.56,-13.6,11.88,1.923,9.03,4.931,20.58,15.64,6.343,3.536,9.165,4.262,8.156,7.11,0,0,0,0,0,0,0,0,0,0,0,0,0,0,0,0,
786,-2.942,-20.26,-5.682,-24.41,-5.159,-15.48,-2.196,-7.334,1.282,-7.491,-1.652,-0.7195,-0.7875,-3.703,6.113,2.635,0,0,0,0,0,0,0,0,0,0,0,0,0,0,0,0,
787,1.717,-5.96,6.146,-12.82,6.627,-6.438,8.526,-0.0891,4.957,-4.234,10.55,5.15,4.198,-1.784,9.814,6.428,0,0,0,0,0,0,0,0,0,0,0,0,0,0,0,0,
788,0.5118,-10.55,0.2576,-24.58,-0.4354,-15.92,-2.282,-14.15,4.385,-7.742,1.653,-5.922,-5.916,-13.86,3.123,0.1089,0,0,0,0,0,0,0,0,0,0,0,0,0,0,0,0,
789,-4.026,-16.28,1.72,-22.55,2.774,-15.41,2.636,-5.201,-0.5661,-12.94,9.833,6.184,7.091,-0.2745,17.97,12.24,0,0,0,0,0,0,0,0,0,0,0,0,0,0,0,0,
790,-0.9881,-10.75,5.963,-10.91,6.218,-9.398,4.126,1.965,13.28,2.706,9.716,4.134,12.07,2.623,11.43,2.115,0,0,0,0,0,0,0,0,0,0,0,0,0,0,0,0,
791,-14.1,-22.34,-7.915,-11.98,-8.197,-14.89,-4.979,-7.828,3.717,-3.179,3.486,-1.558,10.1,-1.34,10.53,-1.664,0,0,0,0,0,0,0,0,0,0,0,0,0,0,0,0,
792,-8.03,-5.249,11.38,7.056,12.11,4.74,18.77,7.526,11.71,7.215,25.0,13.7,30.69,14.94,28.75,13.32,0,0,0,0,0,0,0,0,0,0,0,0,0,0,0,0,
793,1.814,5.215,20.08,3.215,19.97,4.617,24.21,0.7649,27.12,17.37,22.62,2.022,22.53,5.798,17.63,1.876,0,0,0,0,0,0,0,0,0,0,0,0,0,0,0,0,
794,-2.68,-5.306,17.79,-6.306,17.75,-2.824,30.62,-3.458,15.5,3.701,28.54,5.091,22.47,6.842,26.4,10.77,0,0,0,0,0,0,0,0,0,0,0,0,0,0,0,0,
795,12.15,5.34,35.05,7.758,34.25,11.56,51.1,14.6,29.64,18.0,45.85,18.61,38.17,17.55,36.46,19.74,0,0,0,0,0,0,0,0,0,0,0,0,0,0,0,0,
796,13.06,-1.933,24.56,3.246,23.96,6.035,38.09,11.43,34.32,20.66,33.01,14.39,31.73,13.41,27.16,15.1,0,0,0,0,0,0,0,0,0,0,0,0,0,0,0,0,
797,10.05,2.085,30.03,13.43,31.17,17.25,42.9,22.76,30.66,21.89,40.51,31.59,45.38,35.91,42.89,37.07,0,0,0,0,0,0,0,0,0,0,0,0,0,0,0,0,
798,22.81,23.79,45.36,23.68,44.43,31.38,48.42,23.57,48.84,43.1,40.71,26.3,43.34,38.6,35.84,30.63,0,0,0,0,0,0,0,0,0,0,0,0,0,0,0,0,
799,16.4,12.69,28.29,12.74,27.23,21.03,32.31,7.719,36.44,29.92,28.02,13.84,26.26,25.02,27.73,21.1,0,0,0,0,0,0,0,0,0,0,0,0,0,0,0,0,
800,17.45,10.59,29.79,22.83,30.33,30.37,37.9,20.17,29.87,26.83,38.96,30.41,37.98,36.42,42.71,36.7,0,0,0,0,0,0,0,0,0,0,0,0,0,0,0,0,
801,17.39,9.255,21.03,16.92,20.1,23.93,22.57,14.61,33.0,32.32,22.57,22.25,26.09,28.83,26.63,25.1,0,0,0,0,0,0,0,0,0,0,0,0,0,0,0,0,
802,3.086,1.269,8.114,8.956,7.911,13.58,8.335,11.36,15.51,17.99,11.3,18.34,16.4,27.12,20.66,21.84,0,0,0,0,0,0,0,0,0,0,0,0,0,0,0,0,
803,9.722,8.294,21.04,17.3,21.37,22.75,15.65,19.31,22.37,25.91,16.45,18.27,20.56,25.88,20.56,18.56,0,0,0,0,0,0,0,0,0,0,0,0,0,0,0,0,
804,6.864,-7.117,6.196,-0.1301,5.571,6.684,-1.611,2.91,15.62,16.64,-0.2949,5.056,5.482,5.91,9.055,6.261,0,0,0,0,0,0,0,0,0,0,0,0,0,0,0,0,
805,1.01,-9.369,1.757,-0.5338,1.794,4.889,-1.377,12.53,-0.4653,3.181,5.361,19.11,12.98,16.48,20.22,18.87,0,0,0,0,0,0,0,0,0,0,0,0,0,0,0,0,
806,6.668,1.045,7.894,0.6179,7.259,6.565,1.206,14.61,9.56,11.86,3.506,12.18,10.33,13.07,11.22,7.387,0,0,0,0,0,0,0,0,0,0,0,0,0,0,0,0,
807,-3.528,-11.21,-7.668,-16.07,-8.133,-11.3,-7.98,-3.216,-4.079,-5.508,-6.922,-2.102,-3.894,-1.975,6.715,0.6077,0,0,0,0,0,0,0,0,0,0,0,0,0,0,0,0,
808,4.769,0.8255,4.405,-1.615,4.381,-0.0233,9.702,10.34,-6.593,-6.025,10.0,9.993,8.868,8.079,19.9,16.11,0,0,0,0,0,0,0,0,0,0,0,0,0,0,0,0,
809,12.95,1.289,3.247,-1.835,1.972,-2.804,2.701,3.272,1.393,-0.0309,-2.464,-4.294,-1.572,-5.388,-1.907,0.2773,0,0,0,0,0,0,0,0,0,0,0,0,0,0,0,0,
810,-0.5371,-13.75,-9.302,-8.08,-10.27,-14.99,-6.035,-4.32,-15.23,-17.17,-9.364,-6.963,-6.954,-7.71,-7.511,-1.405,0,0,0,0,0,0,0,0,0,0,0,0,0,0,0,0,
811,3.664,-2.937,5.065,5.115,3.305,-5.055,8.391,6.404,-7.253,-6.445,3.036,-1.685,-0.2457,1.253,-7.526,-2.406,0,0,0,0,0,0,0,0,0,0,0,0,0,0,0,0,
812,-3.109,-14.41,-3.253,-6.429,-4.912,-13.18,-1.676,-7.533,-6.373,-6.716,-10.16,-18.3,-16.91,-14.31,-24.33,-20.63,0,0,0,0,0,0,0,0,0,0,0,0,0,0,0,0,
813,-8.236,-11.79,0.3349,-0.6071,0.5888,-5.904,3.741,0.1555,-13.57,-12.87,-1.995,-6.902,-7.043,-6.756,-10.46,-7.348,0,0,0,0,0,0,0,0,0,0,0,0,0,0,0,0,
814,8.503,8.587,12.67,9.102,11.59,2.49,9.103,7.384,3.396,1.728,2.188,-2.46,1.654,-1.829,-8.266,-2.788,0,0,0,0,0,0,0,0,0,0,0,0,0,0,0,0,
815,4.325,-7.543,-0.8635,-6.882,-1.635,-11.72,-2.995,-2.568,-1.962,-8.738,-8.461,-4.755,-3.159,0.493,-9.434,1.816,0,0,0,0,0,0,0,0,0,0,0,0,0,0,0,0,
816,2.899,-5.344,9.903,-0.1926,10.04,-0.1143,8.75,11.2,0.651,-3.577,4.139,9.556,9.696,21.95,4.34,17.26,0,0,0,0,0,0,0,0,0,0,0,0,0,0,0,0,
817,-0.4485,-3.597,6.938,-4.851,5.454,-2.969,2.684,3.534,8.394,7.814,-2.251,-3.104,0.5853,12.39,-5.229,4.691,0,0,0,0,0,0,0,0,0,0,0,0,0,0,0,0,
818,-13.77,-17.26,-4.34,-10.49,-4.833,-10.83,0.9901,-0.0587,-4.968,-4.167,1.651,-3.845,4.43,8.299,4.104,7.622,0,0,0,0,0,0,0,0,0,0,0,0,0,0,0,0,
819,3.408,-1.552,16.45,6.497,15.84,6.85,19.25,12.94,11.69,7.771,18.49,-1.219,20.42,12.41,11.98,7.398,0,0,0,0,0,0,0,0,0,0,0,0,0,0,0,0,
820,10.49,-0.5404,11.53,-0.8388,10.06,1.04,8.75,-4.439,18.01,5.333,6.831,-17.88,6.891,-3.566,-0.4604,-4.298,0,0,0,0,0,0,0,0,0,0,0,0,0,0,0,0,
821,4.471,2.7,9.969,3.499,9.882,4.391,11.82,-2.04,8.205,-4.117,12.89,-4.076,11.01,4.89,8.34,11.07,0,0,0,0,0,0,0,0,0,0,0,0,0,0,0,0,
822,10.7,16.05,17.87,9.214,17.13,10.75,12.61,3.342,15.75,5.233,9.319,-6.566,5.373,0.3881,-5.068,-1.579,0,0,0,0,0,0,0,0,0,0,0,0,0,0,0,0,
823,0.903,-0.286,3.505,-6.748,3.471,-4.295,-1.986,-4.264,0.3067,-9.883,-3.866,-16.12,-8.115,-10.78,-10.38,-8.216,0,0,0,0,0,0,0,0,0,0,0,0,0,0,0,0,
824,2.091,1.057,12.33,3.305,12.7,6.223,11.76,13.52,1.09,-3.923,13.05,5.607,10.13,8.703,13.09,16.05,0,0,0,0,0,0,0,0,0,0,0,0,0,0,0,0,
825,9.256,3.764,9.562,3.19,7.828,6.549,6.229,8.301,12.92,9.15,4.649,0.4046,3.923,3.003,0.3174,3.996,0,0,0,0,0,0,0,0,0,0,0,0,0,0,0,0,
826,2.776,-0.0221,-2.242,-0.1492,-2.466,0.5106,1.19,4.67,-2.652,-7.957,-0.1208,-1.34,-0.953,-1.667,-5.349,0.201,0,0,0,0,0,0,0,0,0,0,0,0,0,0,0,0,
827,7.244,22.11,9.387,13.11,9.606,12.36,14.41,19.03,3.459,-2.413,10.06,7.125,6.8,4.01,-1.604,6.824,0,0,0,0,0,0,0,0,0,0,0,0,0,0,0,0,
828,-0.7685,16.62,-2.427,-1.532,-2.946,2.368,0.6326,4.947,1.457,-3.442,-4.506,-3.368,-7.588,-7.688,-10.45,-3.723,0,0,0,0,0,0,0,0,0,0,0,0,0,0,0,0,
829,0.7018,6.924,3.105,-1.975,4.314,8.343,8.913,5.699,-5.362,-6.764,4.773,4.054,1.139,0.457,0.5433,0.6812,0,0,0,0,0,0,0,0,0,0,0,0,0,0,0,0,
830,19.89,13.51,17.26,4.67,17.1,15.02,16.47,3.078,10.93,5.481,6.693,-2.845,-0.6015,-4.741,-9.868,-10.92,0,0,0,0,0,0,0,0,0,0,0,0,0,0,0,0,
831,8.916,3.935,-2.041,-4.684,-2.757,-1.715,-2.201,-9.599,-4.226,-11.91,-8.477,-12.0,-16.5,-15.09,-17.62,-14.18,0,0,0,0,0,0,0,0,0,0,0,0,0,0,0,0,
832,9.256,18.84,7.448,14.72,7.807,15.18,8.025,10.47,-7.434,-7.978,4.574,1.186,0.338,0.361,-2.793,0.8009,0,0,0,0,0,0,0,0,0,0,0,0,0,0,0,0,
833,18.0,26.89,12.93,17.16,11.85,22.84,5.822,6.298,8.773,8.374,-3.281,-11.94,-3.672,-9.732,-15.83,-14.02,0,0,0,0,0,0,0,0,0,0,0,0,0,0,0,0,
834,5.986,11.29,0.5667,4.62,-0.039,13.41,-2.924,-1.529,-3.363,-3.621,-8.927,-8.424,-10.34,-10.82,-10.54,-9.199,0,0,0,0,0,0,0,0,0,0,0,0,0,0,0,0,
835,15.14,13.84,10.53,9.956,10.08,19.33,4.431,10.83,-1.769,2.719,0.0545,6.636,-4.662,-1.468,0.1044,0.379,0,0,0,0,0,0,0,0,0,0,0,0,0,0,0,0,
836,18.98,-0.7692,0.0861,-3.307,-0.9243,4.926,-10.87,-2.258,-8.171,-5.296,-15.96,-5.091,-21.6,-19.1,-15.64,-13.62,0,0,0,0,0,0,0,0,0,0,0,0,0,0,0,0,
837,9.181,-6.738,-6.204,-1.958,-6.194,3.983,-10.37,0.3795,-22.56,-19.58,-11.76,3.515,-19.08,-14.38,-12.44,-6.951,0,0,0,0,0,0,0,0,0,0,0,0,0,0,0,0,
838,11.62,9.021,-1.231,5.805,-2.523,12.53,-6.059,5.329,-12.26,-6.2,-8.67,6.528,-16.21,-8.56,-16.07,-7.627,0,0,0,0,0,0,0,0,0,0,0,0,0,0,0,0,
839,4.374,6.957,-10.53,-4.46,-11.8,2.749,-14.7,-2.74,-17.9,-9.738,-16.55,4.225,-21.43,-9.932,-12.95,-4.006,0,0,0,0,0,0,0,0,0,0,0,0,0,0,0,0,
840,3.939,15.16,-1.809,1.431,-2.094,7.762,-3.433,6.791,-16.2,-6.223,-4.108,11.83,-10.65,-2.141,2.483,4.121,0,0,0,0,0,0,0,0,0,0,0,0,0,0,0,0,
841,3.199,8.259,-12.09,-10.15,-13.46,-3.657,-13.73,-7.119,-15.46,-7.981,-15.18,-11.06,-24.25,-23.22,-14.68,-20.89,0,0,0,0,0,0,0,0,0,0,0,0,0,0,0,0,
842,-3.41,-5.686,-22.65,-18.88,-22.89,-11.84,-17.9,-9.717,-33.41,-26.54,-16.28,-13.14,-24.06,-26.16,-13.4,-20.3,0,0,0,0,0,0,0,0,0,0,0,0,0,0,0,0,
843,12.1,12.72,0.349,-4.35,0.338,6.509,1.886,8.884,-13.42,-8.366,0.0506,-2.471,-6.421,-11.66,-7.217,-12.78,0,0,0,0,0,0,0,0,0,0,0,0,0,0,0,0,
844,11.37,9.304,-4.599,-13.85,-4.794,-0.1063,-5.875,-3.062,0.4177,-1.279,-10.79,-18.47,-15.62,-20.36,-23.41,-25.88,0,0,0,0,0,0,0,0,0,0,0,0,0,0,0,0,
845,2.482,9.338,-3.799,-7.043,-2.812,3.282,-3.216,2.254,-4.15,-3.053,-5.998,-9.067,-9.27,-7.687,-15.95,-12.91,0,0,0,0,0,0,0,0,0,0,0,0,0,0,0,0,
846,10.65,25.07,8.539,4.979,7.356,12.04,-1.742,6.601,5.969,13.99,-6.21,-0.4214,-7.831,0.7896,-14.15,-7.679,0,0,0,0,0,0,0,0,0,0,0,0,0,0,0,0,
847,6.249,15.41,-2.498,-4.564,-3.815,0.4611,-14.27,-4.033,-6.573,2.321,-15.97,2.333,-13.95,-1.263,-9.385,-2.626,0,0,0,0,0,0,0,0,0,0,0,0,0,0,0,0,
848,6.179,20.77,3.225,5.146,3.851,6.414,-5.011,9.443,-8.018,-1.127,-4.891,15.2,-1.259,6.977,1.889,7.763,0,0,0,0,0,0,0,0,0,0,0,0,0,0,0,0,
849,-0.1396,16.63,-4.383,-2.131,-4.537,-3.7,-15.35,-2.779,-3.582,-2.95,-15.73,-0.5008,-14.33,-10.63,-14.92,-9.007,0,0,0,0,0,0,0,0,0,0,0,0,0,0,0,0,
850,-10.42,2.15,-9.852,-7.487,-9.331,-10.25,-15.72,-12.07,-17.97,-22.72,-12.27,-2.061,-15.41,-14.45,-6.537,-3.253,0,0,0,0,0,0,0,0,0,0,0,0,0,0,0,0,
851,10.25,23.05,14.72,13.63,14.84,11.05,5.572,2.905,-1.332,-9.528,4.363,2.585,-1.925,-8.821,2.706,-0.6332,0,0,0,0,0,0,0,0,0,0,0,0,0,0,0,0,
852,16.48,26.99,8.74,8.867,7.64,8.075,-3.721,-5.619,3.561,-7.385,-8.926,-11.62,-12.18,-20.44,-9.218,-15.99,0,0,0,0,0,0,0,0,0,0,0,0,0,0,0,0,
853,18.4,25.67,12.26,14.69,11.89,16.65,4.144,3.397,-1.434,-9.762,1.009,1.188,2.348,-3.999,5.773,-0.9107,0,0,0,0,0,0,0,0,0,0,0,0,0,0,0,0,
854,31.59,29.08,22.86,22.54,21.26,24.72,9.829,7.667,17.64,10.38,5.819,0.6068,9.147,0.0712,3.179,-1.131,0,0,0,0,0,0,0,0,0,0,0,0,0,0,0,0,
855,11.7,9.423,2.54,7.445,1.499,5.431,-5.148,-6.534,7.932,0.3023,-2.835,-3.869,0.4129,-6.088,-1.763,0.0061,0,0,0,0,0,0,0,0,0,0,0,0,0,0,0,0,
856,5.522,16.59,10.04,16.09,10.41,12.29,7.468,5.839,7.29,-1.32,10.98,13.83,10.23,7.825,7.386,13.8,0,0,0,0,0,0,0,0,0,0,0,0,0,0,0,0,
