%OpenBCI Raw EXG Data
%Number of channels = 16
%Sample Rate = 125 Hz
%Board = OpenBCI_GUI$BoardCytonSerialDaisy
Sample Index,EXG Channel 0,EXG Channel 1,EXG Channel 2,EXG Channel 3,EXG Channel 4,EXG Channel 5,EXG Channel 6,EXG Channel 7,EXG Channel 8,EXG Channel 9,EXG Channel 10,EXG Channel 11,EXG Channel 12,EXG Channel 13,EXG Channel 14,EXG Channel 15,Accel Channel 0,Accel Channel 1,Accel Channel 2,Other,Other.1,Other.2,Other.3,Other.4,Other.5,Other.6,Analog Channel 0,Analog Channel 1,Analog Channel 2,Timestamp,Other.7,Timestamp (Formatted),Annotations
1,-0.0,0.0,-0.0,-0.0,-0.0,0.0,0.0,0.0,0.0,-0.0,0.0,-0.0,0.0,-0.0,-0.0,0.0,0,0,0,0,0,0,0,0,0,0,0,0,0,0,0,0,T0
2,3.943,70.71,116.4,130.5,123.4,124.9,151.2,160.2,-34.54,-0.7738,173.2,170.1,161.9,160.4,176.1,163.4,0,0,0,0,0,0,0,0,0,0,0,0,0,0,0,0,
3,15.38,40.36,67.96,66.49,63.34,65.03,72.06,69.98,-8.818,7.956,78.11,64.27,62.5,53.25,68.7,54.24,0,0,0,0,0,0,0,0,0,0,0,0,0,0,0,0,
4,8.451,27.71,55.86,57.92,52.6,57.04,68.65,61.38,-26.85,-16.75,72.44,63.18,53.24,44.18,65.5,56.43,0,0,0,0,0,0,0,0,0,0,0,0,0,0,0,0,
5,14.38,59.25,91.33,100.1,93.89,97.61,108.6,108.8,-35.1,-21.6,121.0,113.6,99.18,91.33,110.2,105.2,0,0,0,0,0,0,0,0,0,0,0,0,0,0,0,0,
6,14.93,45.43,55.64,59.33,55.67,57.57,44.27,52.11,-24.54,-23.14,56.48,47.9,37.75,27.2,41.85,39.13,0,0,0,0,0,0,0,0,0,0,0,0,0,0,0,0,
7,5.413,44.4,58.01,67.33,62.62,64.84,60.39,66.65,-41.85,-38.79,70.14,67.62,52.52,39.59,61.28,58.5,0,0,0,0,0,0,0,0,0,0,0,0,0,0,0,0,
8,20.8,58.87,80.52,86.94,87.58,85.3,93.24,87.22,-29.82,-25.26,90.94,84.19,70.09,54.22,73.21,69.84,0,0,0,0,0,0,0,0,0,0,0,0,0,0,0,0,
9,18.36,30.11,52.86,52.42,58.85,49.05,60.4,49.53,-25.83,-31.95,57.36,46.17,36.91,21.25,39.06,37.4,0,0,0,0,0,0,0,0,0,0,0,0,0,0,0,0,
10,11.7,36.73,67.88,66.83,75.92,58.83,85.22,76.4,-26.18,-34.74,91.17,75.51,74.0,54.18,73.64,69.44,0,0,0,0,0,0,0,0,0,0,0,0,0,0,0,0,
11,18.87,52.11,73.86,70.83,82.1,63.22,89.89,80.73,-5.16,-14.97,94.42,75.03,81.08,57.6,70.07,63.31,0,0,0,0,0,0,0,0,0,0,0,0,0,0,0,0,
12,3.821,23.03,38.4,45.56,51.89,39.31,59.99,58.81,-20.8,-25.24,69.09,62.67,60.15,45.5,54.38,53.92,0,0,0,0,0,0,0,0,0,0,0,0,0,0,0,0,
13,1.955,20.57,42.5,58.21,61.35,50.86,76.06,80.52,-27.41,-18.01,89.28,88.72,82.36,70.82,78.08,81.6,0,0,0,0,0,0,0,0,0,0,0,0,0,0,0,0,
14,5.09,17.31,35.21,47.63,52.88,36.8,71.86,69.59,-20.05,-9.558,87.0,79.73,78.86,63.54,76.79,75.1,0,0,0,0,0,0,0,0,0,0,0,0,0,0,0,0,
15,-8.255,5.691,27.24,37.03,45.64,20.23,71.83,65.18,-28.4,-21.05,95.6,82.07,82.64,68.63,88.35,80.43,0,0,0,0,0,0,0,0,0,0,0,0,0,0,0,0,
16,-7.395,14.57,44.29,46.03,60.66,25.83,84.63,77.62,-18.16,-10.83,104.9,83.49,87.28,73.01,87.3,77.87,0,0,0,0,0,0,0,0,0,0,0,0,0,0,0,0,
17,-11.43,2.144,30.42,30.4,44.67,9.245,66.23,60.36,-28.41,-24.16,82.36,63.6,64.26,51.72,70.2,63.3,0,0,0,0,0,0,0,0,0,0,0,0,0,0,0,0,
18,-6.37,4.469,32.67,40.52,50.36,21.15,73.43,68.44,-36.03,-34.24,92.46,75.23,74.29,63.3,84.46,77.44,0,0,0,0,0,0,0,0,0,0,0,0,0,0,0,0,
19,8.512,17.58,40.74,50.59,57.55,34.81,75.5,67.11,-20.09,-22.28,90.59,68.18,72.14,57.38,73.66,64.4,0,0,0,0,0,0,0,0,0,0,0,0,0,0,0,0,
20,-1.002,13.95,29.26,43.07,47.05,24.79,65.03,55.21,-33.63,-36.65,79.35,59.7,60.92,45.17,69.19,61.07,0,0,0,0,0,0,0,0,0,0,0,0,0,0,0,0,
21,2.669,31.98,43.38,59.48,69.46,40.02,82.17,69.54,-26.73,-28.56,94.8,67.25,74.98,56.64,82.87,73.92,0,0,0,0,0,0,0,0,0,0,0,0,0,0,0,0,
22,8.565,25.34,35.21,50.01,65.94,37.82,72.36,51.38,-15.56,-24.49,82.4,43.51,62.76,39.62,67.62,53.2,0,0,0,0,0,0,0,0,0,0,0,0,0,0,0,0,
23,6.07,13.58,26.2,43.75,56.7,35.64,68.69,43.73,-31.28,-47.3,83.33,43.48,63.47,36.13,73.02,53.55,0,0,0,0,0,0,0,0,0,0,0,0,0,0,0,0,
24,25.18,34.76,46.06,60.97,73.31,50.68,75.11,55.46,-18.74,-39.99,88.64,47.04,68.25,36.35,68.45,48.57,0,0,0,0,0,0,0,0,0,0,0,0,0,0,0,0,
25,26.12,23.08,38.74,49.91,58.95,37.2,47.4,40.98,-23.46,-43.91,62.7,33.63,45.06,21.43,48.26,35.35,0,0,0,0,0,0,0,0,0,0,0,0,0,0,0,0,
26,20.6,21.02,44.27,53.26,56.8,39.05,52.38,54.18,-38.06,-43.38,69.95,57.16,51.77,45.0,62.34,59.25,0,0,0,0,0,0,0,0,0,0,0,0,0,0,0,0,
27,24.02,34.57,47.26,53.81,57.4,38.08,64.28,61.65,-29.38,-23.67,72.72,62.93,52.65,53.29,56.79,58.34,0,0,0,0,0,0,0,0,0,0,0,0,0,0,0,0,
28,5.734,15.26,25.22,35.95,38.66,16.44,55.3,51.24,-43.3,-35.42,65.35,60.07,49.42,46.81,58.56,56.38,0,0,0,0,0,0,0,0,0,0,0,0,0,0,0,0,
29,2.747,14.63,33.84,43.93,45.76,19.9,62.62,63.46,-40.79,-32.34,82.14,75.89,69.96,60.42,78.67,71.53,0,0,0,0,0,0,0,0,0,0,0,0,0,0,0,0,
30,3.5,11.65,26.62,36.18,34.23,9.193,49.12,54.46,-34.09,-28.65,71.58,67.54,60.0,53.66,65.93,62.45,0,0,0,0,0,0,0,0,0,0,0,0,0,0,0,0,
31,-9.692,5.369,15.27,34.28,25.24,7.591,46.15,57.79,-49.55,-38.0,67.67,76.0,56.23,59.76,69.51,69.96,0,0,0,0,0,0,0,0,0,0,0,0,0,0,0,0,
32,-3.135,25.13,27.1,52.04,41.0,30.69,55.97,73.5,-39.09,-17.03,71.01,80.52,59.59,64.48,70.36,68.03,0,0,0,0,0,0,0,0,0,0,0,0,0,0,0,0,
33,-3.579,18.97,14.35,44.48,30.24,26.43,38.48,59.8,-41.68,-20.01,55.77,63.87,44.68,48.07,58.34,56.05,0,0,0,0,0,0,0,0,0,0,0,0,0,0,0,0,
34,-1.191,18.9,26.63,53.24,38.79,33.96,47.79,66.65,-44.55,-27.94,70.37,74.48,57.23,56.87,72.13,70.88,0,0,0,0,0,0,0,0,0,0,0,0,0,0,0,0,
35,12.96,31.94,46.05,56.47,50.04,39.09,53.49,65.01,-26.7,-18.18,68.93,64.42,55.2,49.35,63.01,59.63,0,0,0,0,0,0,0,0,0,0,0,0,0,0,0,0,
36,7.924,29.13,36.23,43.85,41.59,31.7,44.15,55.23,-36.59,-32.68,56.74,53.89,46.97,40.6,60.0,55.64,0,0,0,0,0,0,0,0,0,0,0,0,0,0,0,0,
37,13.54,49.39,48.45,59.71,58.34,52.65,58.94,69.5,-29.2,-22.82,72.14,64.3,62.54,53.2,71.57,65.21,0,0,0,0,0,0,0,0,0,0,0,0,0,0,0,0,
38,15.18,49.0,44.07,54.69,51.92,50.13,47.98,54.41,-19.64,-15.29,62.43,46.31,50.48,39.01,54.66,46.26,0,0,0,0,0,0,0,0,0,0,0,0,0,0,0,0,
39,3.404,30.45,38.98,50.84,46.51,45.19,46.86,53.44,-32.39,-30.91,64.43,49.65,54.2,42.37,62.33,52.59,0,0,0,0,0,0,0,0,0,0,0,0,0,0,0,0,
40,13.75,38.27,60.31,66.52,67.73,59.56,69.56,69.46,-13.27,-15.15,78.5,57.86,69.29,51.32,67.83,54.34,0,0,0,0,0,0,0,0,0,0,0,0,0,0,0,0,
41,16.12,28.38,53.81,53.92,59.14,44.9,65.16,54.53,-7.381,-15.83,71.42,44.29,58.63,39.75,55.99,42.68,0,0,0,0,0,0,0,0,0,0,0,0,0,0,0,0,
42,13.82,22.89,53.9,53.63,59.68,40.72,69.29,61.88,-11.35,-20.58,83.88,56.89,68.08,52.68,66.4,59.1,0,0,0,0,0,0,0,0,0,0,0,0,0,0,0,0,
43,8.874,22.93,47.89,52.17,56.15,35.14,58.82,61.98,-3.03,-8.864,74.15,55.66,61.59,49.5,53.9,52.06,0,0,0,0,0,0,0,0,0,0,0,0,0,0,0,0,
44,-12.98,13.55,28.51,40.67,38.65,21.23,40.82,49.7,-22.9,-22.52,58.46,54.91,49.99,44.67,51.58,51.65,0,0,0,0,0,0,0,0,0,0,0,0,0,0,0,0,
45,-2.318,32.47,48.54,54.0,55.63,37.17,57.65,64.04,-18.48,-14.85,76.73,70.41,68.36,61.68,69.4,67.28,0,0,0,0,0,0,0,0,0,0,0,0,0,0,0,0,
46,10.75,27.79,44.79,44.45,51.34,29.98,55.32,55.33,-2.435,-3.471,72.81,59.75,67.21,56.63,61.86,57.95,0,0,0,0,0,0,0,0,0,0,0,0,0,0,0,0,
47,-2.833,11.63,31.74,39.86,44.66,24.51,58.06,54.62,-7.149,-6.169,78.62,68.24,76.33,70.52,76.32,72.8,0,0,0,0,0,0,0,0,0,0,0,0,0,0,0,0,
48,-4.223,22.64,45.58,52.28,58.52,38.8,67.41,61.74,6.566,11.75,87.08,71.9,82.61,80.19,83.66,79.88,0,0,0,0,0,0,0,0,0,0,0,0,0,0,0,0,
49,-11.42,11.19,33.96,38.94,43.7,25.67,49.69,43.47,-4.976,-0.4094,71.42,56.25,64.22,62.43,73.67,69.14,0,0,0,0,0,0,0,0,0,0,0,0,0,0,0,0,
50,-4.559,18.54,42.42,50.41,51.91,36.23,62.02,57.31,-16.68,-8.064,85.88,71.64,76.99,72.32,88.32,80.19,0,0,0,0,0,0,0,0,0,0,0,0,0,0,0,0,
51,16.75,36.28,55.54,57.4,61.0,48.18,67.84,61.98,-1.281,7.751,84.84,64.11,73.8,65.52,77.7,66.45,0,0,0,0,0,0,0,0,0,0,0,0,0,0,0,0,
52,8.305,26.66,46.72,43.72,48.58,36.74,60.12,47.89,-14.63,-9.139,74.33,53.76,59.98,54.47,70.27,62.29,0,0,0,0,0,0,0,0,0,0,0,0,0,0,0,0,
53,10.75,42.47,71.57,60.29,70.17,50.34,78.95,58.37,-9.796,-7.31,90.06,64.39,70.84,63.24,74.55,69.65,0,0,0,0,0,0,0,0,0,0,0,0,0,0,0,0,
54,17.95,41.06,72.35,53.74,67.08,41.93,63.13,45.45,-2.45,-7.578,74.91,44.94,52.85,39.74,49.3,44.61,0,0,0,0,0,0,0,0,0,0,0,0,0,0,0,0,
55,12.7,27.48,55.28,42.12,52.25,29.37,53.3,43.75,-25.68,-31.47,70.39,45.62,46.07,32.56,49.67,45.87,0,0,0,0,0,0,0,0,0,0,0,0,0,0,0,0,
56,22.61,46.62,63.42,51.52,62.4,42.8,69.47,55.33,-19.17,-21.31,74.64,47.37,50.52,35.58,47.38,42.55,0,0,0,0,0,0,0,0,0,0,0,0,0,0,0,0,
57,15.55,40.29,49.53,39.05,48.99,37.57,55.03,39.14,-18.04,-22.36,51.28,24.93,35.55,20.85,31.51,24.85,0,0,0,0,0,0,0,0,0,0,0,0,0,0,0,0,
58,11.73,37.13,51.37,45.3,53.49,45.65,56.84,49.13,-19.85,-23.23,57.19,38.73,49.11,38.17,48.69,45.29,0,0,0,0,0,0,0,0,0,0,0,0,0,0,0,0,
59,24.81,43.98,59.11,47.85,59.74,47.47,56.27,50.87,-5.299,-6.427,55.91,44.77,49.55,44.11,47.1,50.01,0,0,0,0,0,0,0,0,0,0,0,0,0,0,0,0,
60,13.71,29.68,45.38,29.72,42.11,29.55,41.28,36.24,-20.83,-19.33,47.55,41.32,42.05,39.6,49.75,51.31,0,0,0,0,0,0,0,0,0,0,0,0,0,0,0,0,
61,12.46,38.0,55.07,38.69,49.98,36.2,53.1,46.85,-19.25,-15.66,65.59,50.63,59.98,51.58,67.11,61.19,0,0,0,0,0,0,0,0,0,0,0,0,0,0,0,0,
62,16.88,30.82,46.05,33.36,42.3,26.53,46.38,38.39,-10.63,-10.26,55.3,41.39,50.91,43.62,54.65,50.09,0,0,0,0,0,0,0,0,0,0,0,0,0,0,0,0,
63,12.66,16.56,37.26,29.42,36.84,23.34,42.64,44.39,-22.27,-18.59,53.77,55.47,51.52,53.51,61.08,62.55,0,0,0,0,0,0,0,0,0,0,0,0,0,0,0,0,
64,21.98,35.04,53.61,41.33,52.94,41.14,49.76,60.35,-6.585,1.685,64.08,66.28,62.02,63.08,66.19,66.94,0,0,0,0,0,0,0,0,0,0,0,0,0,0,0,0,
65,10.13,29.19,40.44,30.39,40.57,31.96,36.91,44.66,-6.039,-1.131,54.48,54.79,55.16,53.38,63.35,62.01,0,0,0,0,0,0,0,0,0,0,0,0,0,0,0,0,
66,4.963,29.02,44.16,38.99,46.65,39.59,50.79,54.27,-9.009,-5.477,70.32,69.17,73.44,70.66,84.93,82.67,0,0,0,0,0,0,0,0,0,0,0,0,0,0,0,0,
67,23.79,37.74,50.46,43.12,50.68,42.96,52.88,56.37,6.046,7.611,69.0,64.24,68.52,63.99,72.81,70.53,0,0,0,0,0,0,0,0,0,0,0,0,0,0,0,0,
68,14.62,20.83,31.12,30.87,30.39,24.7,37.67,44.4,-13.81,-10.96,55.57,58.61,48.95,47.85,61.94,61.47,0,0,0,0,0,0,0,0,0,0,0,0,0,0,0,0,
69,8.599,25.07,42.04,44.3,41.27,33.37,50.87,57.39,-19.43,-10.41,68.8,69.81,57.51,55.58,72.19,69.76,0,0,0,0,0,0,0,0,0,0,0,0,0,0,0,0,
70,10.31,18.95,35.27,34.84,34.41,24.81,40.84,43.51,-13.17,-7.234,59.28,51.14,47.14,39.88,58.32,51.36,0,0,0,0,0,0,0,0,0,0,0,0,0,0,0,0,
71,2.076,4.582,17.97,26.41,21.58,15.62,37.58,35.99,-24.7,-23.72,61.3,51.68,49.07,37.7,64.03,53.4,0,0,0,0,0,0,0,0,0,0,0,0,0,0,0,0,
72,10.19,15.25,26.78,37.98,31.15,25.4,50.6,42.67,-14.07,-16.13,70.27,54.58,54.83,38.07,62.83,49.55,0,0,0,0,0,0,0,0,0,0,0,0,0,0,0,0,
73,11.09,9.054,15.32,27.27,16.55,12.03,32.55,29.87,-21.68,-28.32,54.06,40.65,35.5,19.86,45.36,33.76,0,0,0,0,0,0,0,0,0,0,0,0,0,0,0,0,
74,10.4,18.5,16.65,35.17,16.88,14.46,31.68,44.24,-32.93,-37.26,60.0,53.2,39.63,27.8,52.03,42.81,0,0,0,0,0,0,0,0,0,0,0,0,0,0,0,0,
75,15.13,26.42,19.48,36.11,18.31,11.48,30.62,44.08,-25.24,-26.39,52.28,42.96,31.29,20.95,38.8,30.24,0,0,0,0,0,0,0,0,0,0,0,0,0,0,0,0,
76,7.764,5.244,8.888,21.18,9.304,-3.23,25.23,30.45,-40.27,-39.18,42.56,35.01,23.12,16.74,37.67,31.11,0,0,0,0,0,0,0,0,0,0,0,0,0,0,0,0,
77,20.23,19.04,30.07,35.23,32.4,16.28,45.14,44.71,-28.77,-24.98,58.55,48.45,41.14,33.99,49.4,43.12,0,0,0,0,0,0,0,0,0,0,0,0,0,0,0,0,
78,27.09,22.35,30.2,25.34,29.35,13.25,35.82,29.61,-15.01,-14.65,43.39,27.36,27.47,19.86,29.7,22.86,0,0,0,0,0,0,0,0,0,0,0,0,0,0,0,0,
79,18.47,12.74,26.81,19.81,23.24,10.9,30.81,25.2,-31.61,-29.67,41.85,26.48,26.69,23.48,38.91,33.26,0,0,0,0,0,0,0,0,0,0,0,0,0,0,0,0,
80,29.41,34.3,46.35,41.49,42.36,35.07,42.93,40.44,-19.08,-11.8,50.99,36.13,39.23,35.46,46.45,42.72,0,0,0,0,0,0,0,0,0,0,0,0,0,0,0,0,
81,24.81,31.36,36.43,34.52,33.84,30.61,34.25,27.86,-14.64,-10.94,35.26,25.77,30.02,25.25,34.05,33.44,0,0,0,0,0,0,0,0,0,0,0,0,0,0,0,0,
82,20.18,32.6,45.46,37.49,42.66,35.75,43.39,35.42,-13.01,-14.94,47.18,35.29,44.05,36.55,47.8,45.57,0,0,0,0,0,0,0,0,0,0,0,0,0,0,0,0,
83,30.59,41.06,57.8,38.35,51.0,39.01,36.17,33.07,4.003,-2.415,49.18,24.44,43.11,29.13,40.77,32.61,0,0,0,0,0,0,0,0,0,0,0,0,0,0,0,0,
84,25.91,25.85,47.75,26.8,39.53,27.47,28.39,22.16,-8.718,-16.66,48.6,21.84,36.82,21.6,40.64,32.44,0,0,0,0,0,0,0,0,0,0,0,0,0,0,0,0,
85,35.67,40.4,68.25,43.55,58.81,42.7,60.53,43.51,-1.484,-8.658,71.03,47.71,52.97,39.17,56.65,51.81,0,0,0,0,0,0,0,0,0,0,0,0,0,0,0,0,
86,37.07,45.95,62.46,40.09,52.12,34.4,49.95,36.84,5.147,-2.554,52.0,38.86,35.47,26.13,40.44,36.76,0,0,0,0,0,0,0,0,0,0,0,0,0,0,0,0,
87,19.72,36.07,42.25,36.52,35.54,24.27,31.01,31.74,-18.47,-21.58,42.06,38.09,30.6,23.68,43.04,39.79,0,0,0,0,0,0,0,0,0,0,0,0,0,0,0,0,
88,26.41,46.59,48.92,48.5,42.17,36.01,36.0,38.86,-9.69,-12.38,49.23,40.38,38.13,26.58,42.05,39.04,0,0,0,0,0,0,0,0,0,0,0,0,0,0,0,0,
89,22.5,27.05,31.59,31.6,22.62,18.9,17.29,20.74,-13.2,-20.59,26.96,24.12,16.57,9.131,21.93,20.73,0,0,0,0,0,0,0,0,0,0,0,0,0,0,0,0,
90,11.4,14.23,27.8,30.41,19.1,14.84,18.35,26.62,-30.69,-31.61,24.33,31.96,14.44,14.22,25.0,27.42,0,0,0,0,0,0,0,0,0,0,0,0,0,0,0,0,
91,7.376,19.75,26.35,28.74,16.81,16.57,14.28,25.76,-28.78,-22.21,16.42,26.62,4.774,4.807,13.01,18.87,0,0,0,0,0,0,0,0,0,0,0,0,0,0,0,0,
92,-7.451,6.502,2.784,16.0,-3.852,7.774,-5.458,16.72,-44.35,-34.55,5.697,24.45,-5.536,-2.119,12.63,20.69,0,0,0,0,0,0,0,0,0,0,0,0,0,0,0,0,
93,0.8295,9.984,8.613,29.38,6.267,19.73,4.521,33.73,-40.57,-27.35,17.98,35.26,8.042,12.86,23.1,32.13,0,0,0,0,0,0,0,0,0,0,0,0,0,0,0,0,
94,4.903,4.775,3.146,21.45,0.8105,7.774,0.1205,23.27,-34.79,-24.33,6.15,18.75,-3.539,0.9696,4.231,14.86,0,0,0,0,0,0,0,0,0,0,0,0,0,0,0,0,
95,-6.799,5.814,0.1041,22.29,-2.076,2.495,5.302,25.38,-47.61,-37.84,12.26,28.9,2.387,8.901,12.97,24.28,0,0,0,0,0,0,0,0,0,0,0,0,0,0,0,0,
96,2.484,30.91,17.01,41.4,16.21,19.36,23.74,42.15,-28.51,-17.25,28.76,37.68,20.5,22.07,21.0,30.91,0,0,0,0,0,0,0,0,0,0,0,0,0,0,0,0,
97,-5.771,15.53,2.583,25.35,5.349,8.752,12.89,28.08,-22.53,-15.19,21.1,20.53,17.71,14.39,16.92,24.6,0,0,0,0,0,0,0,0,0,0,0,0,0,0,0,0,
98,-9.401,9.97,14.7,28.6,18.04,20.08,24.74,37.7,-18.46,-13.92,38.83,32.07,37.72,34.94,38.87,41.92,0,0,0,0,0,0,0,0,0,0,0,0,0,0,0,0,
99,8.275,22.35,34.93,32.41,32.48,29.25,33.47,38.1,2.889,4.537,39.25,26.86,36.68,33.79,31.96,31.92,0,0,0,0,0,0,0,0,0,0,0,0,0,0,0,0,
100,0.5753,11.69,21.63,16.97,19.31,14.31,21.23,24.92,-11.41,-10.38,29.13,21.92,26.27,18.92,29.7,28.49,0,0,0,0,0,0,0,0,0,0,0,0,0,0,0,0,
101,7.068,30.77,33.63,33.38,35.68,30.12,27.18,39.01,-9.328,-8.711,45.42,35.48,42.42,22.62,43.98,36.64,0,0,0,0,0,0,0,0,0,0,0,0,0,0,0,0,
102,23.06,39.67,34.39,32.51,37.18,29.69,23.11,23.77,1.299,-9.403,35.15,14.85,28.61,0.3578,25.2,12.34,0,0,0,0,0,0,0,0,0,0,0,0,0,0,0,0,
103,18.75,27.42,29.8,26.72,34.41,24.47,39.05,18.23,-11.58,-32.7,38.45,14.89,23.9,-2.502,29.29,16.55,0,0,0,0,0,0,0,0,0,0,0,0,0,0,0,0,
104,26.51,41.34,46.88,40.36,52.35,39.73,59.88,38.29,2.295,-20.67,52.81,28.29,33.33,11.59,36.55,26.38,0,0,0,0,0,0,0,0,0,0,0,0,0,0,0,0,
105,27.76,36.95,38.08,29.03,43.03,29.44,43.8,33.36,3.985,-14.05,40.26,23.44,24.55,12.04,27.54,22.94,0,0,0,0,0,0,0,0,0,0,0,0,0,0,0,0,
106,28.91,29.62,41.59,28.93,47.47,31.53,51.42,42.21,-0.4879,-6.087,49.54,37.45,37.87,31.33,40.72,39.68,0,0,0,0,0,0,0,0,0,0,0,0,0,0,0,0,
107,38.8,27.13,45.98,31.17,52.38,37.06,53.92,41.31,13.18,13.3,48.3,33.78,37.62,31.54,36.84,34.71,0,0,0,0,0,0,0,0,0,0,0,0,0,0,0,0,
108,32.58,18.56,34.82,27.13,41.81,31.67,43.73,32.45,4.066,3.421,45.16,35.1,34.63,31.3,42.65,39.79,0,0,0,0,0,0,0,0,0,0,0,0,0,0,0,0,
109,37.67,37.93,52.3,43.3,57.95,46.97,60.0,46.33,12.5,12.56,66.84,51.34,54.69,47.5,58.03,52.59,0,0,0,0,0,0,0,0,0,0,0,0,0,0,0,0,
110,37.38,33.3,45.87,31.52,51.44,37.04,53.18,33.08,21.43,17.5,57.7,35.45,47.62,34.24,43.31,35.54,0,0,0,0,0,0,0,0,0,0,0,0,0,0,0,0,
111,29.09,23.87,38.6,28.01,45.72,30.4,51.76,35.08,11.43,5.165,57.33,43.59,51.47,38.17,51.05,46.16,0,0,0,0,0,0,0,0,0,0,0,0,0,0,0,0,
112,42.88,45.92,53.69,46.63,56.44,43.84,54.47,50.76,25.02,20.14,60.89,51.25,52.82,38.61,49.47,45.21,0,0,0,0,0,0,0,0,0,0,0,0,0,0,0,0,
113,37.86,34.75,33.72,37.47,34.09,32.81,30.17,34.29,11.38,7.263,43.87,31.49,31.09,15.39,34.41,26.04,0,0,0,0,0,0,0,0,0,0,0,0,0,0,0,0,
114,39.09,42.43,39.86,51.93,40.48,47.15,42.57,42.92,0.2307,-2.407,59.99,40.45,47.43,27.3,49.25,40.27,0,0,0,0,0,0,0,0,0,0,0,0,0,0,0,0,
115,63.68,69.72,60.89,63.49,55.4,57.83,51.17,44.47,22.06,14.05,58.28,31.94,49.7,22.77,37.66,30.57,0,0,0,0,0,0,0,0,0,0,0,0,0,0,0,0,
116,70.14,62.76,59.61,54.2,48.45,44.2,44.49,33.65,13.46,-2.773,47.63,20.7,40.33,10.35,34.22,24.38,0,0,0,0,0,0,0,0,0,0,0,0,0,0,0,0,
117,99.15,96.64,85.07,84.25,70.86,69.32,63.19,53.64,20.01,0.4003,64.09,33.38,56.55,26.13,46.57,36.44,0,0,0,0,0,0,0,0,0,0,0,0,0,0,0,0,
118,131.7,133.2,83.02,98.04,71.36,83.47,49.64,49.18,31.74,12.43,45.39,22.21,43.18,20.7,23.64,22.45,0,0,0,0,0,0,0,0,0,0,0,0,0,0,0,0,
119,137.1,129.8,74.86,94.37,69.42,85.75,44.57,48.93,19.97,8.498,43.0,31.31,46.24,30.38,29.99,34.04,0,0,0,0,0,0,0,0,0,0,0,0,0,0,0,0,
120,158.7,143.9,98.88,105.6,88.93,99.77,56.02,61.99,39.09,33.79,58.72,41.86,63.7,44.02,40.39,42.46,0,0,0,0,0,0,0,0,0,0,0,0,0,0,0,0,
121,165.4,143.7,86.67,100.6,72.66,88.75,36.48,50.28,39.45,36.03,42.24,25.96,48.62,32.14,28.7,31.19,0,0,0,0,0,0,0,0,0,0,0,0,0,0,0,0,
122,173.1,150.5,94.93,112.2,79.66,97.56,56.4,60.16,28.58,30.24,51.41,35.64,53.69,42.48,42.5,45.54,0,0,0,0,0,0,0,0,0,0,0,0,0,0,0,0,
123,213.6,188.1,125.4,123.0,99.62,112.5,75.49,61.32,44.01,46.19,54.03,36.71,51.68,42.74,36.9,42.69,0,0,0,0,0,0,0,0,0,0,0,0,0,0,0,0,
124,222.5,195.0,118.0,117.2,90.94,106.7,55.43,54.12,36.51,40.33,41.65,38.71,42.32,41.14,31.84,42.74,0,0,0,0,0,0,0,0,0,0,0,0,0,0,0,0,
125,222.4,190.8,128.0,125.9,101.0,114.4,57.5,69.46,40.68,46.8,51.62,50.28,53.13,50.66,42.06,49.29,0,0,0,0,0,0,0,0,0,0,0,0,0,0,0,0,
126,245.7,194.0,137.0,114.1,94.81,104.0,49.35,54.55,44.05,43.58,39.59,34.08,38.27,32.0,30.26,33.59,0,0,0,0,0,0,0,0,0,0,0,0,0,0,0,0,
127,250.6,195.8,133.9,115.2,88.78,103.5,45.74,55.07,24.88,25.74,39.03,45.73,39.79,39.48,40.74,48.84,0,0,0,0,0,0,0,0,0,0,0,0,0,0,0,0,
128,246.8,200.3,142.2,136.2,103.4,122.1,56.66,71.23,37.67,42.97,47.24,56.93,53.39,51.84,44.5,53.79,0,0,0,0,0,0,0,0,0,0,0,0,0,0,0,0,
129,253.1,196.3,131.8,125.1,89.97,111.1,47.47,55.46,38.21,38.75,35.56,41.6,44.16,36.91,36.03,40.15,0,0,0,0,0,0,0,0,0,0,0,0,0,0,0,0,
130,257.8,198.1,133.6,126.9,93.76,116.1,58.5,65.38,33.28,34.38,52.18,52.31,57.22,47.41,55.32,54.31,0,0,0,0,0,0,0,0,0,0,0,0,0,0,0,0,
131,244.6,187.0,133.6,122.4,95.51,115.7,55.75,62.97,44.75,45.29,49.77,40.04,50.66,38.98,42.75,39.91,0,0,0,0,0,0,0,0,0,0,0,0,0,0,0,0,
132,228.6,169.1,119.2,100.7,75.38,95.12,36.98,40.56,22.18,16.35,31.39,25.68,32.08,23.25,28.45,28.89,0,0,0,0,0,0,0,0,0,0,0,0,0,0,0,0,
133,230.8,173.9,126.8,108.3,85.83,103.7,45.47,51.1,18.06,11.34,39.11,39.54,40.54,33.12,35.37,39.52,0,0,0,0,0,0,0,0,0,0,0,0,0,0,0,0,
134,215.9,155.8,109.7,97.24,75.78,93.16,29.6,41.62,25.23,20.27,25.7,28.41,28.64,21.11,23.02,27.85,0,0,0,0,0,0,0,0,0,0,0,0,0,0,0,0,
135,200.9,142.1,100.5,84.88,65.83,81.98,25.06,35.16,11.47,8.68,30.29,32.06,33.77,25.2,35.18,37.55,0,0,0,0,0,0,0,0,0,0,0,0,0,0,0,0,
136,202.3,144.6,116.4,89.05,81.94,91.41,40.85,41.75,26.93,20.32,43.89,35.96,46.5,31.58,37.7,36.2,0,0,0,0,0,0,0,0,0,0,0,0,0,0,0,0,
137,173.8,113.2,90.87,69.62,60.39,70.53,24.27,27.13,23.64,12.62,24.76,21.9,28.75,15.58,20.08,19.5,0,0,0,0,0,0,0,0,0,0,0,0,0,0,0,0,
138,154.4,103.6,82.95,67.75,49.8,63.65,27.89,38.68,6.124,4.897,33.45,40.26,36.36,29.0,34.62,37.9,0,0,0,0,0,0,0,0,0,0,0,0,0,0,0,0,
139,149.0,96.32,89.85,62.13,52.87,63.59,33.58,39.87,15.5,19.46,39.56,40.01,39.46,27.59,31.18,34.66,0,0,0,0,0,0,0,0,0,0,0,0,0,0,0,0,
140,120.1,62.5,73.45,44.12,43.37,52.27,28.4,27.2,11.21,7.641,33.51,31.46,35.22,19.24,29.29,29.74,0,0,0,0,0,0,0,0,0,0,0,0,0,0,0,0,
141,115.6,64.59,77.88,54.43,56.42,63.06,42.23,40.43,21.09,14.17,44.41,41.78,47.95,33.5,42.97,39.9,0,0,0,0,0,0,0,0,0,0,0,0,0,0,0,0,
142,106.7,46.64,63.47,38.06,45.25,47.2,26.04,24.6,25.74,18.03,30.76,26.33,32.44,19.8,30.17,24.77,0,0,0,0,0,0,0,0,0,0,0,0,0,0,0,0,
143,71.4,14.87,51.37,18.7,32.73,30.69,24.2,16.79,4.731,-5.449,32.09,26.99,29.96,15.54,35.54,27.49,0,0,0,0,0,0,0,0,0,0,0,0,0,0,0,0,
144,58.14,18.57,65.88,23.91,43.35,37.29,45.59,28.21,11.61,-1.707,41.73,30.07,33.97,18.43,34.73,25.53,0,0,0,0,0,0,0,0,0,0,0,0,0,0,0,0,
145,35.8,-12.44,42.26,9.269,21.89,12.03,27.45,12.11,1.685,-9.375,24.52,15.32,11.86,5.157,17.36,12.77,0,0,0,0,0,0,0,0,0,0,0,0,0,0,0,0,
146,12.68,-42.56,27.9,7.338,14.02,-4.394,22.92,17.31,-15.11,-17.68,31.62,28.62,18.25,18.61,27.61,27.55,0,0,0,0,0,0,0,0,0,0,0,0,0,0,0,0,
147,5.05,-47.95,24.74,-1.247,13.58,-9.734,24.57,21.71,-3.577,-4.984,31.01,29.08,23.29,24.03,25.91,27.37,0,0,0,0,0,0,0,0,0,0,0,0,0,0,0,0,
148,-21.32,-71.72,3.18,-20.39,-1.412,-17.41,16.1,14.62,-9.577,-9.925,24.38,26.97,22.52,24.73,30.19,33.0,0,0,0,0,0,0,0,0,0,0,0,0,0,0,0,0,
149,-35.73,-72.98,6.56,-9.21,7.727,-4.351,26.52,22.02,-5.697,-1.921,34.78,32.11,31.03,28.69,34.85,36.12,0,0,0,0,0,0,0,0,0,0,0,0,0,0,0,0,
150,-45.85,-78.56,-5.236,-18.75,-3.559,-15.37,15.56,5.291,-5.805,-7.126,17.94,10.65,11.84,6.129,12.0,11.65,0,0,0,0,0,0,0,0,0,0,0,0,0,0,0,0,
151,-63.88,-97.17,-16.8,-25.5,-10.82,-18.63,13.01,7.688,-20.21,-23.03,20.93,20.28,18.37,14.12,23.61,23.07,0,0,0,0,0,0,0,0,0,0,0,0,0,0,0,0,
152,-65.75,-92.0,-5.484,-14.62,3.53,-3.924,21.56,20.27,-1.972,-2.407,32.06,30.71,32.94,22.42,31.09,25.97,0,0,0,0,0,0,0,0,0,0,0,0,0,0,0,0,
153,-85.13,-102.4,-21.96,-29.47,-12.48,-21.15,6.602,1.463,-4.176,-8.451,18.65,16.59,18.93,5.212,23.67,13.32,0,0,0,0,0,0,0,0,0,0,0,0,0,0,0,0,
154,-95.42,-103.7,-19.4,-23.64,-8.531,-16.67,16.0,9.654,-10.73,-13.94,33.45,31.64,31.17,22.82,41.87,33.36,0,0,0,0,0,0,0,0,0,0,0,0,0,0,0,0,
155,-82.72,-96.53,-14.9,-21.76,-5.665,-8.984,12.96,9.196,3.737,5.0,26.57,25.38,24.68,22.02,23.81,24.0,0,0,0,0,0,0,0,0,0,0,0,0,0,0,0,0,
156,-95.37,-114.2,-33.28,-34.15,-23.76,-19.31,-0.5945,0.8949,-13.28,-6.635,8.587,16.43,8.562,10.46,10.31,16.99,0,0,0,0,0,0,0,0,0,0,0,0,0,0,0,0,
157,-98.84,-108.3,-17.45,-15.08,-6.657,-3.543,20.58,23.24,-10.14,2.062,24.03,30.08,22.61,21.5,24.21,27.16,0,0,0,0,0,0,0,0,0,0,0,0,0,0,0,0,
158,-102.3,-108.0,-21.91,-24.61,-11.73,-12.92,10.78,9.23,-0.7343,7.064,10.51,11.36,7.741,1.776,6.537,3.754,0,0,0,0,0,0,0,0,0,0,0,0,0,0,0,0,
159,-127.9,-125.6,-38.84,-40.35,-26.63,-28.86,-1.814,-1.645,-22.59,-20.4,4.52,8.915,-0.4186,-5.16,5.178,2.846,0,0,0,0,0,0,0,0,0,0,0,0,0,0,0,0,
160,-129.3,-121.8,-30.22,-31.19,-18.81,-25.3,5.597,9.43,-22.11,-20.47,12.15,16.33,2.289,0.978,7.702,7.597,0,0,0,0,0,0,0,0,0,0,0,0,0,0,0,0,
161,-132.5,-127.2,-47.32,-45.36,-38.05,-44.5,-7.796,-4.639,-32.58,-29.32,-1.662,7.08,-11.77,-8.485,1.045,1.318,0,0,0,0,0,0,0,0,0,0,0,0,0,0,0,0,
162,-144.4,-124.5,-49.57,-43.86,-38.51,-42.24,-1.56,1.722,-39.87,-33.23,9.098,17.21,4.004,3.63,16.07,14.33,0,0,0,0,0,0,0,0,0,0,0,0,0,0,0,0,
163,-142.8,-118.9,-45.14,-42.96,-32.73,-41.27,-3.238,0.0203,-21.87,-19.94,4.23,2.002,3.151,-5.721,3.828,-0.2879,0,0,0,0,0,0,0,0,0,0,0,0,0,0,0,0,
164,-149.1,-135.5,-60.52,-59.36,-45.7,-61.45,-9.874,-11.9,-34.1,-37.75,-6.226,-10.19,-6.382,-16.85,3.97,-2.485,0,0,0,0,0,0,0,0,0,0,0,0,0,0,0,0,
165,-145.9,-129.5,-46.25,-46.77,-29.82,-48.28,14.31,4.587,-29.11,-30.92,14.91,4.597,14.49,0.454,24.37,13.87,0,0,0,0,0,0,0,0,0,0,0,0,0,0,0,0,
166,-142.4,-125.3,-50.57,-47.09,-32.9,-45.71,1.19,-5.757,-16.08,-18.06,3.044,-9.842,4.203,-9.729,5.736,-5.041,0,0,0,0,0,0,0,0,0,0,0,0,0,0,0,0,
167,-148.6,-126.7,-60.68,-48.86,-38.07,-46.05,-10.66,-7.849,-30.67,-30.81,-3.029,-4.807,-0.3613,-7.93,7.14,-0.7758,0,0,0,0,0,0,0,0,0,0,0,0,0,0,0,0,
168,-136.5,-110.0,-39.05,-38.33,-17.49,-30.95,5.404,7.776,-18.56,-18.63,9.139,10.37,11.72,2.916,16.2,8.247,0,0,0,0,0,0,0,0,0,0,0,0,0,0,0,0,
169,-129.3,-117.6,-42.26,-51.06,-24.78,-41.94,-4.976,-4.359,-15.15,-20.01,-2.756,3.652,-1.707,-7.618,5.232,-0.2399,0,0,0,0,0,0,0,0,0,0,0,0,0,0,0,0,
170,-127.8,-124.7,-40.96,-44.07,-22.09,-36.94,-2.106,3.496,-23.06,-24.57,0.402,14.16,-1.975,1.714,10.57,11.08,0,0,0,0,0,0,0,0,0,0,0,0,0,0,0,0,
171,-128.5,-121.2,-38.48,-40.38,-20.62,-32.33,-3.095,5.109,-17.92,-14.5,-5.89,6.732,-7.926,0.006,0.9548,4.05,0,0,0,0,0,0,0,0,0,0,0,0,0,0,0,0,
172,-140.6,-123.4,-49.86,-49.87,-35.74,-44.64,-16.1,-3.84,-33.58,-26.2,-12.47,2.651,-12.82,-1.022,0.2403,2.923,0,0,0,0,0,0,0,0,0,0,0,0,0,0,0,0,
173,-132.3,-106.9,-34.29,-31.58,-23.32,-32.63,-6.874,9.349,-31.6,-17.04,1.906,14.54,-2.556,10.81,6.95,8.818,0,0,0,0,0,0,0,0,0,0,0,0,0,0,0,0,
174,-129.6,-108.7,-43.99,-38.8,-33.56,-41.95,-21.33,-6.365,-31.89,-15.7,-14.09,-5.458,-20.16,-9.346,-12.96,-11.62,0,0,0,0,0,0,0,0,0,0,0,0,0,0,0,0,
175,-138.2,-116.0,-56.07,-48.49,-43.18,-52.57,-26.54,-12.87,-51.95,-36.07,-14.47,-4.642,-17.49,-10.29,-4.566,-4.434,0,0,0,0,0,0,0,0,0,0,0,0,0,0,0,0,
176,-124.2,-103.5,-35.97,-37.68,-26.06,-43.48,-10.61,-3.53,-38.84,-25.03,-1.424,1.891,-3.803,-2.165,1.484,-0.7933,0,0,0,0,0,0,0,0,0,0,0,0,0,0,0,0,
177,-123.6,-109.3,-44.27,-49.07,-35.67,-55.9,-15.16,-16.33,-37.41,-29.42,-9.098,-8.86,-10.85,-11.55,-6.179,-9.126,0,0,0,0,0,0,0,0,0,0,0,0,0,0,0,0,
178,-125.5,-100.9,-46.45,-41.16,-31.58,-48.55,-4.496,-2.49,-37.69,-30.66,4.828,6.624,3.75,2.128,7.282,6.677,0,0,0,0,0,0,0,0,0,0,0,0,0,0,0,0,
179,-120.0,-94.84,-50.21,-36.62,-33.96,-44.83,-10.52,-1.751,-24.4,-15.93,-3.656,0.8258,-5.263,-4.835,-7.509,-4.526,0,0,0,0,0,0,0,0,0,0,0,0,0,0,0,0,
180,-132.2,-110.3,-70.72,-49.92,-55.26,-57.03,-25.58,-16.2,-45.91,-32.27,-17.17,-5.851,-17.89,-12.04,-9.934,-7.098,0,0,0,0,0,0,0,0,0,0,0,0,0,0,0,0,
181,-125.4,-94.05,-53.52,-37.01,-37.96,-38.77,-10.22,-2.428,-42.37,-26.18,-0.5809,4.38,-0.3824,1.219,3.944,2.406,0,0,0,0,0,0,0,0,0,0,0,0,0,0,0,0,
182,-120.0,-89.54,-54.6,-43.81,-42.38,-45.5,-25.38,-15.76,-30.85,-24.32,-18.35,-18.64,-18.95,-19.66,-18.81,-19.63,0,0,0,0,0,0,0,0,0,0,0,0,0,0,0,0,
183,-129.4,-95.74,-67.8,-47.54,-54.79,-55.61,-32.53,-19.34,-51.61,-45.9,-23.15,-16.94,-27.22,-19.41,-14.14,-9.595,0,0,0,0,0,0,0,0,0,0,0,0,0,0,0,0,
184,-112.7,-82.54,-53.2,-30.28,-35.74,-38.05,-17.2,-3.409,-43.54,-29.64,-8.982,-5.102,-15.43,-5.675,-4.068,-0.1399,0,0,0,0,0,0,0,0,0,0,0,0,0,0,0,0,
185,-102.2,-90.26,-57.81,-38.43,-38.12,-43.79,-28.79,-16.08,-41.23,-29.27,-20.11,-19.43,-24.11,-19.94,-13.2,-17.02,0,0,0,0,0,0,0,0,0,0,0,0,0,0,0,0,
186,-100.5,-78.95,-50.49,-32.58,-31.0,-38.76,-18.95,-11.32,-44.84,-37.91,-8.676,-12.98,-11.87,-14.66,-2.12,-11.54,0,0,0,0,0,0,0,0,0,0,0,0,0,0,0,0,
187,-98.87,-64.89,-45.28,-32.81,-27.91,-36.43,-15.22,-13.03,-31.0,-27.36,-8.697,-16.94,-13.36,-14.92,-13.0,-15.68,0,0,0,0,0,0,0,0,0,0,0,0,0,0,0,0,
188,-113.9,-81.49,-59.8,-47.81,-41.67,-48.99,-25.51,-18.88,-41.83,-35.39,-17.03,-12.44,-21.15,-8.373,-13.89,-4.975,0,0,0,0,0,0,0,0,0,0,0,0,0,0,0,0,
189,-108.0,-70.12,-42.18,-35.34,-23.78,-34.38,-7.664,1.461,-34.31,-20.95,0.4003,8.941,-4.128,13.15,3.633,12.2,0,0,0,0,0,0,0,0,0,0,0,0,0,0,0,0,
190,-98.23,-69.07,-40.98,-45.39,-26.46,-41.02,-14.62,-12.4,-22.87,-15.36,-8.41,-6.585,-13.72,-5.143,-8.366,-7.625,0,0,0,0,0,0,0,0,0,0,0,0,0,0,0,0,
191,-101.7,-79.85,-46.77,-49.66,-33.58,-48.29,-17.55,-17.98,-34.12,-36.43,-7.125,-6.123,-11.65,-9.397,0.2446,-3.52,0,0,0,0,0,0,0,0,0,0,0,0,0,0,0,0,
192,-93.03,-65.03,-32.07,-29.33,-18.03,-32.85,-4.283,-2.67,-18.69,-22.9,4.455,-0.8937,1.995,-0.8872,6.219,-0.165,0,0,0,0,0,0,0,0,0,0,0,0,0,0,0,0,
193,-96.21,-69.33,-40.46,-37.42,-25.14,-39.4,-13.03,-12.61,-16.47,-20.99,-2.887,-13.95,-4.149,-10.33,-2.351,-11.14,0,0,0,0,0,0,0,0,0,0,0,0,0,0,0,0,
194,-89.82,-62.03,-29.16,-29.88,-13.08,-28.79,2.045,-1.474,-15.05,-20.95,13.51,-1.271,8.301,0.5839,9.321,-0.028,0,0,0,0,0,0,0,0,0,0,0,0,0,0,0,0,
195,-75.42,-51.68,-22.31,-22.71,-7.333,-23.13,1.083,-1.314,2.737,-5.579,6.556,-8.632,-0.6326,-6.399,-7.16,-13.34,0,0,0,0,0,0,0,0,0,0,0,0,0,0,0,0,
196,-86.25,-64.24,-39.82,-32.21,-23.49,-35.71,-16.98,-12.85,-13.72,-19.15,-8.771,-15.04,-11.49,-12.53,-12.12,-16.17,0,0,0,0,0,0,0,0,0,0,0,0,0,0,0,0,
197,-77.67,-46.57,-22.09,-15.55,-5.487,-15.89,0.1997,5.668,-10.98,-11.99,6.461,0.1878,5.979,1.635,2.298,-4.061,0,0,0,0,0,0,0,0,0,0,0,0,0,0,0,0,
198,-69.65,-44.51,-25.63,-17.25,-8.997,-10.9,-8.854,-0.0473,-1.495,-3.344,-6.858,-10.21,-5.614,-11.33,-12.02,-16.66,0,0,0,0,0,0,0,0,0,0,0,0,0,0,0,0,
199,-72.81,-51.61,-34.04,-16.34,-12.52,-6.297,-11.83,2.714,-13.31,-11.34,-3.233,4.697,1.415,0.6318,2.148,3.094,0,0,0,0,0,0,0,0,0,0,0,0,0,0,0,0,
200,-46.02,-26.24,-11.34,-1.452,10.16,10.74,7.595,16.73,6.056,8.567,11.8,17.96,15.67,15.44,7.629,12.64,0,0,0,0,0,0,0,0,0,0,0,0,0,0,0,0,
201,-42.03,-32.39,-24.8,-18.63,-6.775,-7.604,-11.98,-0.2854,2.037,-0.299,-9.001,-1.579,-7.011,-2.788,-13.97,-4.395,0,0,0,0,0,0,0,0,0,0,0,0,0,0,0,0,
202,-53.24,-32.81,-25.92,-11.28,-8.17,-3.773,-13.26,9.359,-14.01,-11.76,-1.707,6.537,-0.4481,8.84,-1.835,8.553,0,0,0,0,0,0,0,0,0,0,0,0,0,0,0,0,
203,-42.82,-11.7,-9.325,4.964,5.34,10.83,0.0725,13.14,2.238,7.341,2.926,1.401,3.796,11.93,-4.585,1.776,0,0,0,0,0,0,0,0,0,0,0,0,0,0,0,0,
204,-47.95,-18.13,-17.15,-0.2979,-4.924,3.297,-0.4133,-1.697,-3.302,2.193,-5.842,-10.05,-2.104,3.619,-6.03,-5.898,0,0,0,0,0,0,0,0,0,0,0,0,0,0,0,0,
205,-47.64,-14.85,-6.57,8.512,5.114,11.83,9.545,5.141,0.7747,9.658,7.862,-4.689,13.71,9.355,8.274,-1.253,0,0,0,0,0,0,0,0,0,0,0,0,0,0,0,0,
206,-37.33,-15.72,-7.834,-3.819,0.8671,2.32,-3.026,-9.366,7.578,9.869,-0.1155,-21.6,1.215,-8.763,-4.719,-17.68,0,0,0,0,0,0,0,0,0,0,0,0,0,0,0,0,
207,-33.15,-15.84,-12.45,-6.773,-5.467,0.0619,-7.168,-6.027,-9.973,-12.03,0.9213,-13.15,-3.923,-4.682,2.145,-4.938,0,0,0,0,0,0,0,0,0,0,0,0,0,0,0,0,
208,-25.54,2.432,-1.854,11.71,4.727,17.8,-1.821,12.37,-4.281,0.2398,4.546,-2.521,0.7096,6.283,2.468,0.4212,0,0,0,0,0,0,0,0,0,0,0,0,0,0,0,0,
209,-35.87,-6.651,-18.44,1.214,-10.08,3.768,-18.63,-4.062,-11.85,-3.042,-12.93,-14.91,-12.89,-4.099,-12.25,-9.901,0,0,0,0,0,0,0,0,0,0,0,0,0,0,0,0,
210,-32.73,-1.966,-11.0,9.526,-1.292,7.231,-3.33,4.593,-18.36,-7.576,5.925,2.568,3.805,16.64,9.0,14.88,0,0,0,0,0,0,0,0,0,0,0,0,0,0,0,0,
211,-17.69,6.234,0.754,14.27,6.341,11.38,2.598,8.533,-0.8535,10.17,10.53,0.0362,7.417,20.32,9.261,14.32,0,0,0,0,0,0,0,0,0,0,0,0,0,0,0,0,
212,-34.09,-14.52,-16.5,-4.665,-12.4,-8.741,-12.76,-6.877,-14.03,-3.868,-2.615,-11.2,-2.555,8.234,3.911,5.855,0,0,0,0,0,0,0,0,0,0,0,0,0,0,0,0,
213,-31.12,-1.732,-3.175,6.777,2.886,-0.6037,4.067,4.843,-11.09,-5.638,13.54,1.047,11.83,15.99,15.01,11.9,0,0,0,0,0,0,0,0,0,0,0,0,0,0,0,0,
214,-15.97,5.344,-0.5638,6.07,6.442,-1.824,3.218,-2.536,3.165,-3.102,7.427,-10.49,2.744,0.9142,2.123,-4.015,0,0,0,0,0,0,0,0,0,0,0,0,0,0,0,0,
215,-22.06,-7.255,-7.631,0.1927,0.1766,-6.017,1.722,-6.376,-7.494,-18.1,6.539,-9.781,2.26,-3.18,5.472,-0.139,0,0,0,0,0,0,0,0,0,0,0,0,0,0,0,0,
216,-17.45,-2.013,5.939,7.826,8.508,3.056,10.36,3.063,0.5101,-8.365,15.55,-6.245,10.71,-0.1917,6.543,-0.3745,0,0,0,0,0,0,0,0,0,0,0,0,0,0,0,0,
217,-17.44,-12.34,-0.9475,-2.873,-4.397,-9.773,-2.68,-5.857,-3.953,-12.64,4.853,-17.03,-1.686,-10.76,-3.225,-12.14,0,0,0,0,0,0,0,0,0,0,0,0,0,0,0,0,
218,-16.84,-1.987,4.998,5.819,3.257,-4.386,7.509,5.854,-9.163,-14.96,13.87,-3.901,5.044,0.1457,7.76,-2.202,0,0,0,0,0,0,0,0,0,0,0,0,0,0,0,0,
219,-10.7,15.61,6.835,7.07,7.201,-3.009,4.165,1.641,1.876,-6.48,5.645,-10.55,-3.477,-7.649,-4.453,-14.48,0,0,0,0,0,0,0,0,0,0,0,0,0,0,0,0,
220,-14.06,2.015,-7.435,-5.442,-6.326,-14.98,-12.07,-10.74,-14.62,-25.85,-6.757,-13.42,-12.92,-11.95,-6.501,-13.16,0,0,0,0,0,0,0,0,0,0,0,0,0,0,0,0,
221,3.793,8.819,7.391,10.16,10.46,1.756,3.878,6.853,-10.9,-16.29,4.01,3.607,-0.0409,5.97,1.41,0.6754,0,0,0,0,0,0,0,0,0,0,0,0,0,0,0,0,
222,5.9,0.3901,-8.1,0.4301,-0.7759,-6.192,-12.36,-3.525,-5.769,-5.817,-15.77,-8.591,-16.7,-5.93,-20.68,-14.38,0,0,0,0,0,0,0,0,0,0,0,0,0,0,0,0,
223,-16.15,-16.53,-26.25,-6.617,-13.27,-13.07,-26.08,-4.549,-22.29,-17.49,-15.47,-0.9761,-12.79,0.7657,-10.61,0.1065,0,0,0,0,0,0,0,0,0,0,0,0,0,0,0,0,
224,-10.69,-4.158,-10.88,5.158,2.092,-0.016,-11.54,5.825,-6.747,-1.65,-3.74,2.875,-2.361,8.438,-7.217,3.584,0,0,0,0,0,0,0,0,0,0,0,0,0,0,0,0,
225,-12.57,-16.05,-27.13,-12.49,-14.43,-16.98,-19.76,-11.58,-13.51,-10.44,-23.25,-14.88,-25.36,-10.72,-25.77,-15.02,0,0,0,0,0,0,0,0,0,0,0,0,0,0,0,0,
226,-12.92,-10.95,-25.24,0.5134,-6.946,-3.62,-7.702,7.344,-24.48,-13.9,-7.951,8.578,-10.91,7.257,-2.872,4.719,0,0,0,0,0,0,0,0,0,0,0,0,0,0,0,0,
227,2.852,9.64,-9.645,22.3,12.64,21.54,1.079,20.17,3.943,17.45,2.837,15.41,3.318,18.31,6.295,6.994,0,0,0,0,0,0,0,0,0,0,0,0,0,0,0,0,
228,-4.675,-3.627,-20.6,13.67,2.505,15.35,-11.51,4.321,5.012,15.43,-6.397,3.126,-0.7948,14.83,7.016,4.91,0,0,0,0,0,0,0,0,0,0,0,0,0,0,0,0,
229,-1.481,0.7809,-8.487,19.59,12.66,24.77,-3.224,9.963,6.249,17.73,5.166,6.528,12.63,24.39,17.57,15.4,0,0,0,0,0,0,0,0,0,0,0,0,0,0,0,0,
230,8.538,-3.672,-8.774,9.259,9.345,19.32,-8.236,-1.717,13.45,20.2,-0.8204,-7.518,5.31,9.928,5.316,0.7136,0,0,0,0,0,0,0,0,0,0,0,0,0,0,0,0,
231,5.949,-14.78,-11.23,5.909,6.288,13.83,-2.144,-0.7002,4.993,6.195,6.051,-1.164,8.793,11.23,11.63,3.181,0,0,0,0,0,0,0,0,0,0,0,0,0,0,0,0,
232,15.33,6.841,5.716,24.04,21.73,26.22,13.63,14.48,18.82,19.59,15.03,2.871,14.98,12.35,6.782,-4.624,0,0,0,0,0,0,0,0,0,0,0,0,0,0,0,0,
233,7.533,4.554,-11.6,13.42,4.704,13.43,2.146,1.492,13.33,13.9,-2.176,-12.24,-3.467,-9.636,-11.37,-24.96,0,0,0,0,0,0,0,0,0,0,0,0,0,0,0,0,
234,-3.325,1.985,-16.02,14.17,2.371,14.29,11.73,10.05,2.612,6.532,10.29,3.506,5.782,0.2334,3.515,-11.64,0,0,0,0,0,0,0,0,0,0,0,0,0,0,0,0,
235,-2.39,1.698,-14.18,8.156,3.15,8.176,6.421,6.348,10.79,15.19,8.21,0.0534,3.884,-0.6124,-4.308,-15.88,0,0,0,0,0,0,0,0,0,0,0,0,0,0,0,0,
236,-15.5,-25.98,-30.45,-15.2,-12.89,-16.89,-14.08,-12.6,-5.754,-7.161,-7.207,-5.66,-5.488,-6.916,-7.146,-12.14,0,0,0,0,0,0,0,0,0,0,0,0,0,0,0,0,
237,-10.72,-20.83,-16.53,-4.066,1.749,-7.048,0.3081,-0.3249,0.5426,-7.234,4.306,12.25,8.953,9.44,11.24,9.339,0,0,0,0,0,0,0,0,0,0,0,0,0,0,0,0,
238,-5.825,-10.59,-23.45,-6.634,-3.934,-9.325,-8.408,-10.34,9.817,-1.956,-8.355,1.795,-3.791,1.602,1.588,3.264,0,0,0,0,0,0,0,0,0,0,0,0,0,0,0,0,
239,-12.07,-10.42,-33.42,-11.58,-10.22,-12.32,-13.32,-14.12,-6.238,-16.43,-7.322,8.003,-0.7873,9.345,9.959,16.0,0,0,0,0,0,0,0,0,0,0,0,0,0,0,0,0,
240,4.002,5.021,-10.77,2.917,11.37,6.07,3.032,0.5686,12.89,2.897,5.626,20.13,17.02,25.17,14.44,22.11,0,0,0,0,0,0,0,0,0,0,0,0,0,0,0,0,
241,2.322,-7.607,-17.4,-4.06,3.328,0.1068,-4.835,-6.678,20.49,11.9,-8.091,7.883,7.824,15.33,1.505,8.874,0,0,0,0,0,0,0,0,0,0,0,0,0,0,0,0,
242,-7.595,-9.344,-15.14,4.394,6.73,6.957,3.517,3.936,14.87,12.34,1.691,12.0,15.91,17.23,11.8,13.96,0,0,0,0,0,0,0,0,0,0,0,0,0,0,0,0,
243,-0.2894,7.186,-5.732,10.54,13.18,11.18,3.7,2.348,26.18,19.36,0.5551,1.709,10.95,4.887,1.621,-1.161,0,0,0,0,0,0,0,0,0,0,0,0,0,0,0,0,
244,3.144,5.289,-13.62,3.26,3.923,0.348,-3.633,-5.757,12.68,2.339,-6.181,1.926,1.298,2.208,0.7769,-0.4697,0,0,0,0,0,0,0,0,0,0,0,0,0,0,0,0,
245,22.27,18.87,4.582,19.1,22.63,17.76,17.38,14.99,16.15,13.0,13.3,20.57,15.25,18.75,14.05,13.45,0,0,0,0,0,0,0,0,0,0,0,0,0,0,0,0,
246,23.02,13.84,-2.833,8.55,13.41,11.24,4.629,4.535,20.86,20.39,0.6647,-0.5321,-1.535,-4.59,-9.182,-11.47,0,0,0,0,0,0,0,0,0,0,0,0,0,0,0,0,
247,0.0882,0.0474,-17.77,-2.308,-4.092,-2.841,-4.368,0.0123,-2.467,-0.3928,-1.829,-7.684,-8.016,-13.7,-11.81,-17.17,0,0,0,0,0,0,0,0,0,0,0,0,0,0,0,0,
248,9.994,12.45,0.2275,7.659,10.04,6.53,13.13,11.24,4.366,6.761,12.79,-5.215,2.922,-6.619,-7.716,-17.78,0,0,0,0,0,0,0,0,0,0,0,0,0,0,0,0,
249,14.41,3.027,-7.364,-6.64,5.105,-1.617,4.92,-5.573,7.038,2.254,1.528,-17.15,-3.571,-13.85,-15.83,-24.01,0,0,0,0,0,0,0,0,0,0,0,0,0,0,0,0,
250,4.76,5.588,-8.648,-2.837,8.603,0.9,9.247,0.6438,4.348,-1.772,6.009,-2.503,5.648,0.5612,-3.921,-3.975,0,0,0,0,0,0,0,0,0,0,0,0,0,0,0,0,
251,2.37,13.9,-8.26,1.939,2.71,-6.255,4.555,4.566,10.4,7.251,-2.451,-0.3485,-4.475,-1.85,-12.82,-4.322,0,0,0,0,0,0,0,0,0,0,0,0,0,0,0,0,
252,-10.7,-5.532,-28.53,-5.641,-22.05,-24.31,-13.82,1.083,-14.69,-8.94,-15.52,4.419,-16.72,-4.034,-12.65,2.269,0,0,0,0,0,0,0,0,0,0,0,0,0,0,0,0,
253,-11.33,1.412,-20.65,9.914,-10.98,-8.731,-5.544,16.69,-17.17,-0.9134,-4.201,17.43,-2.64,10.76,0.6102,14.02,0,0,0,0,0,0,0,0,0,0,0,0,0,0,0,0,
254,-11.31,1.817,-22.53,0.1609,-11.81,-14.11,-12.89,-1.972,-9.496,-0.7779,-16.28,-2.691,-12.73,-5.651,-9.729,-2.072,0,0,0,0,0,0,0,0,0,0,0,0,0,0,0,0,
255,-13.46,-5.431,-24.21,-4.288,-12.88,-16.05,-8.015,-7.302,-19.72,-21.77,-11.27,3.827,-5.75,-2.876,6.574,9.785,0,0,0,0,0,0,0,0,0,0,0,0,0,0,0,0,
256,-0.4546,10.84,-10.02,13.37,1.864,4.997,3.957,6.067,-1.845,-2.983,-0.3528,8.676,5.126,3.309,10.27,7.677,0,0,0,0,0,0,0,0,0,0,0,0,0,0,0,0,
257,-8.4,4.997,-20.11,3.184,-9.068,-4.281,-10.9,-10.1,-2.716,-1.275,-12.91,-12.28,-9.06,-11.69,-3.044,-9.578,0,0,0,0,0,0,0,0,0,0,0,0,0,0,0,0,
258,-5.375,12.17,1.75,10.97,8.193,3.184,9.863,-1.457,-4.516,-3.717,9.446,0.0596,9.475,5.141,15.43,8.218,0,0,0,0,0,0,0,0,0,0,0,0,0,0,0,0,
259,11.62,20.07,20.94,13.64,19.93,9.54,19.23,-1.078,18.85,10.97,13.2,-7.417,10.07,-0.5504,2.016,-5.198,0,0,0,0,0,0,0,0,0,0,0,0,0,0,0,0,
260,-0.6182,-0.3944,0.9843,-2.434,1.449,-4.299,5.306,-13.49,8.602,-6.077,-2.332,-16.48,-4.37,-17.0,-10.32,-15.45,0,0,0,0,0,0,0,0,0,0,0,0,0,0,0,0,
261,6.787,14.16,14.41,12.24,20.02,11.97,27.69,5.49,13.16,1.968,12.3,5.872,9.32,-3.512,3.35,-0.6621,0,0,0,0,0,0,0,0,0,0,0,0,0,0,0,0,
262,11.49,15.24,12.11,3.379,16.65,5.052,20.99,-2.478,22.26,12.9,2.432,-1.601,-4.354,-16.29,-10.14,-16.84,0,0,0,0,0,0,0,0,0,0,0,0,0,0,0,0,
263,-11.09,-2.966,-4.35,-7.344,-0.1514,-8.087,6.499,-4.673,1.569,-6.826,2.152,0.9584,-4.813,-18.76,-2.434,-12.81,0,0,0,0,0,0,0,0,0,0,0,0,0,0,0,0,
264,-2.379,11.9,11.0,8.813,15.3,9.623,20.0,12.29,13.26,3.973,18.54,11.04,14.26,-5.983,9.058,-2.122,0,0,0,0,0,0,0,0,0,0,0,0,0,0,0,0,
265,6.264,7.204,5.6,0.6436,9.415,8.226,15.32,2.503,19.45,8.087,12.11,3.931,9.605,-4.271,6.026,-1.256,0,0,0,0,0,0,0,0,0,0,0,0,0,0,0,0,
266,2.046,5.198,2.45,5.586,8.784,13.71,19.11,10.65,13.39,11.71,22.02,18.09,20.77,19.16,23.59,21.69,0,0,0,0,0,0,0,0,0,0,0,0,0,0,0,0,
267,4.064,11.21,-3.409,8.713,6.674,11.84,11.39,8.173,21.17,30.39,14.45,12.16,15.18,20.27,14.84,18.7,0,0,0,0,0,0,0,0,0,0,0,0,0,0,0,0,
268,-6.982,-3.809,-21.33,-4.775,-9.301,-6.511,-3.842,-4.197,3.813,15.62,0.3167,7.272,0.1364,14.17,9.658,19.11,0,0,0,0,0,0,0,0,0,0,0,0,0,0,0,0,
269,-3.065,9.439,-4.19,7.854,1.979,3.307,9.338,12.22,1.665,12.21,10.26,20.84,8.055,24.82,17.62,27.83,0,0,0,0,0,0,0,0,0,0,0,0,0,0,0,0,
270,2.771,12.43,-8.22,-0.4389,-8.873,-6.157,-3.35,-1.722,2.437,8.419,-10.15,0.6693,-8.606,3.239,-4.302,3.524,0,0,0,0,0,0,0,0,0,0,0,0,0,0,0,0,
271,-1.342,2.326,-18.63,-8.116,-17.6,-14.23,-8.236,-8.203,-15.39,-9.285,-11.8,0.2359,-8.102,-0.5085,3.437,7.797,0,0,0,0,0,0,0,0,0,0,0,0,0,0,0,0,
272,12.99,19.5,-0.2249,5.498,0.2274,1.581,5.705,6.592,-0.8778,5.556,7.864,7.894,7.469,6.894,16.93,14.41,0,0,0,0,0,0,0,0,0,0,0,0,0,0,0,0,
273,10.72,13.44,-7.796,-7.813,-10.32,-11.16,-7.223,-8.021,-0.627,-0.8714,0.5792,-8.282,-1.914,-10.77,9.714,0.7192,0,0,0,0,0,0,0,0,0,0,0,0,0,0,0,0,
274,3.849,12.53,-4.131,-4.13,-5.296,-11.95,0.0777,-4.872,-8.871,-14.33,7.562,-0.0898,3.742,-7.925,16.49,7.78,0,0,0,0,0,0,0,0,0,0,0,0,0,0,0,0,
275,11.5,20.1,-0.6053,1.494,-1.616,-8.447,-3.028,-5.742,0.0847,-8.107,-1.796,-3.226,-7.397,-14.44,-1.849,-3.093,0,0,0,0,0,0,0,0,0,0,0,0,0,0,0,0,
276,9.725,2.575,-17.12,-12.83,-18.35,-18.3,-20.61,-18.56,-18.2,-22.63,-14.79,-8.199,-20.41,-21.0,-9.63,-5.705,0,0,0,0,0,0,0,0,0,0,0,0,0,0,0,0,
277,21.22,8.944,-0.4629,-6.394,-2.861,-4.995,-1.588,-8.918,-16.99,-15.14,0.9564,0.0788,-6.324,-10.63,0.804,1.732,0,0,0,0,0,0,0,0,0,0,0,0,0,0,0,0,
278,21.06,11.56,2.126,-12.79,-2.266,-7.684,2.467,-16.56,-5.514,-6.99,-6.189,-12.49,-11.73,-18.93,-10.7,-12.38,0,0,0,0,0,0,0,0,0,0,0,0,0,0,0,0,
279,11.76,10.4,9.074,-7.438,6.074,-2.091,16.7,-5.007,-3.805,-8.705,9.438,4.212,9.944,3.429,11.51,8.852,0,0,0,0,0,0,0,0,0,0,0,0,0,0,0,0,
280,31.95,28.17,37.28,11.39,34.41,16.03,41.96,12.45,31.27,22.41,31.92,14.0,32.57,20.99,23.23,17.54,0,0,0,0,0,0,0,0,0,0,0,0,0,0,0,0,
281,25.11,8.095,11.04,-9.438,11.06,-6.502,19.76,-9.597,31.88,18.23,10.35,-7.724,8.035,-0.7326,4.513,-0.6788,0,0,0,0,0,0,0,0,0,0,0,0,0,0,0,0,
282,8.071,-5.423,-5.703,-11.79,0.1879,-7.566,10.01,-1.895,10.77,5.832,13.11,7.74,12.65,11.25,19.3,16.79,0,0,0,0,0,0,0,0,0,0,0,0,0,0,0,0,
283,16.24,2.511,1.931,-5.657,5.299,0.2438,6.202,4.14,17.84,22.98,13.04,11.3,15.71,14.87,16.76,15.3,0,0,0,0,0,0,0,0,0,0,0,0,0,0,0,0,
284,6.539,-4.352,-10.68,-13.87,-11.03,-14.21,-5.521,-9.654,0.9177,8.393,0.1324,1.967,1.996,2.211,8.784,7.653,0,0,0,0,0,0,0,0,0,0,0,0,0,0,0,0,
285,6.665,10.72,0.6303,2.91,1.098,-1.675,9.539,2.002,-0.0541,6.818,10.62,11.08,11.45,10.16,17.06,14.65,0,0,0,0,0,0,0,0,0,0,0,0,0,0,0,0,
286,13.12,8.594,-0.0833,-0.5797,0.8433,-1.451,0.9915,-3.959,13.9,15.57,-0.5784,2.326,3.32,0.7985,2.424,0.658,0,0,0,0,0,0,0,0,0,0,0,0,0,0,0,0,
287,0.5309,-5.314,-10.68,-4.069,-7.396,-3.857,-5.535,-0.1731,4.662,7.568,-0.2386,13.74,4.724,5.597,8.609,8.251,0,0,0,0,0,0,0,0,0,0,0,0,0,0,0,0,
288,2.172,8.666,-2.304,10.4,2.957,10.58,7.448,13.76,12.88,21.41,10.52,23.18,12.91,13.73,15.93,12.9,0,0,0,0,0,0,0,0,0,0,0,0,0,0,0,0,
289,0.8412,-0.2716,-15.33,-4.869,-9.864,-0.7704,-0.7476,-2.287,7.802,13.75,0.6303,7.71,2.074,1.459,10.34,4.976,0,0,0,0,0,0,0,0,0,0,0,0,0,0,0,0,
290,0.5311,-0.1465,-9.656,-5.78,-3.907,1.555,8.687,4.13,2.656,3.187,16.54,16.01,16.89,13.07,24.86,18.66,0,0,0,0,0,0,0,0,0,0,0,0,0,0,0,0,
291,8.602,10.52,-0.8764,-2.2,5.455,4.569,9.633,4.534,19.21,15.17,14.75,9.453,15.54,11.71,13.85,9.257,0,0,0,0,0,0,0,0,0,0,0,0,0,0,0,0,
292,-1.08,-1.032,-16.91,-7.876,-7.004,-4.165,-7.675,-5.709,6.655,6.214,-2.045,4.79,2.268,5.888,6.564,7.927,0,0,0,0,0,0,0,0,0,0,0,0,0,0,0,0,
293,0.7341,12.28,-7.068,8.856,2.773,11.48,-4.539,4.793,4.321,12.43,6.235,16.81,11.2,12.92,13.38,15.67,0,0,0,0,0,0,0,0,0,0,0,0,0,0,0,0,
294,4.543,13.46,-8.77,-0.4794,-3.599,3.151,-11.46,-13.69,6.491,11.88,-4.063,1.087,-1.205,-5.772,-0.8779,-4.174,0,0,0,0,0,0,0,0,0,0,0,0,0,0,0,0,
295,-0.9596,3.688,-10.24,-7.187,-4.888,-2.168,3.389,-13.68,-4.634,-4.295,5.278,9.297,4.426,0.5612,13.69,8.142,0,0,0,0,0,0,0,0,0,0,0,0,0,0,0,0,
296,4.042,15.59,5.547,3.166,12.52,11.22,21.68,5.812,13.38,11.49,20.83,20.54,17.32,13.81,20.82,18.17,0,0,0,0,0,0,0,0,0,0,0,0,0,0,0,0,
297,-5.83,2.405,-8.985,-14.51,-0.8819,-6.085,0.4982,-7.202,9.889,5.299,3.15,10.61,3.477,4.191,9.746,11.21,0,0,0,0,0,0,0,0,0,0,0,0,0,0,0,0,
298,-1.559,10.25,-1.601,-4.804,7.215,2.024,7.795,3.958,1.189,0.4483,9.527,24.6,13.43,16.76,23.82,25.85,0,0,0,0,0,0,0,0,0,0,0,0,0,0,0,0,
299,14.7,31.82,5.516,6.947,11.18,14.32,8.738,5.063,13.54,15.46,5.139,10.57,7.048,4.062,9.376,8.003,0,0,0,0,0,0,0,0,0,0,0,0,0,0,0,0,
300,-1.891,17.91,-16.09,-5.365,-11.74,-1.325,-8.869,-11.88,-5.944,-4.821,-4.839,-3.576,-5.966,-13.33,1.04,-2.003,0,0,0,0,0,0,0,0,0,0,0,0,0,0,0,0,
301,-2.03,27.47,-1.433,10.35,2.424,7.606,7.365,4.884,-6.283,-4.166,12.88,15.12,9.979,1.175,12.68,12.88,0,0,0,0,0,0,0,0,0,0,0,0,0,0,0,0,
302,5.697,31.22,0.0504,10.39,1.78,3.472,3.001,0.6455,3.7,5.442,0.5891,5.45,-1.332,-8.037,-4.79,-0.9633,0,0,0,0,0,0,0,0,0,0,0,0,0,0,0,0,
303,-3.023,19.3,-8.716,7.637,-7.19,-0.9807,0.5155,-2.66,-8.869,-3.799,-0.7957,6.483,-2.663,-7.249,1.616,1.11,0,0,0,0,0,0,0,0,0,0,0,0,0,0,0,0,
304,3.619,26.09,2.451,17.28,1.644,8.212,9.879,5.906,2.26,9.446,6.148,9.051,0.5279,-6.586,2.127,-5.254,0,0,0,0,0,0,0,0,0,0,0,0,0,0,0,0,
305,-5.404,6.525,-15.55,-3.23,-17.89,-14.85,-11.06,-9.08,-9.479,-4.563,-15.38,-9.159,-23.41,-26.22,-15.69,-22.47,0,0,0,0,0,0,0,0,0,0,0,0,0,0,0,0,
306,-12.12,1.377,-10.31,-0.4178,-12.51,-13.42,-4.978,1.593,-25.19,-18.88,-4.474,-0.6963,-14.43,-12.74,1.255,-5.029,0,0,0,0,0,0,0,0,0,0,0,0,0,0,0,0,
307,0.497,14.71,5.191,7.719,-0.5195,-0.1685,-1.137,4.412,-8.674,-4.174,-3.314,-5.519,-15.02,-11.43,-3.569,-9.764,0,0,0,0,0,0,0,0,0,0,0,0,0,0,0,0,
308,-9.122,6.061,-7.952,-4.957,-12.6,-7.597,-17.46,-4.011,-18.02,-12.8,-17.06,-0.9865,-24.66,-10.31,-5.719,-4.373,0,0,0,0,0,0,0,0,0,0,0,0,0,0,0,0,
309,-3.679,23.2,8.782,7.026,7.243,7.825,-1.959,18.02,-9.119,3.204,1.427,29.25,2.243,19.33,16.47,23.15,0,0,0,0,0,0,0,0,0,0,0,0,0,0,0,0,
310,13.08,27.76,10.9,2.552,6.721,6.119,-0.1428,12.12,10.92,22.59,-2.622,18.51,3.906,13.05,5.247,10.88,0,0,0,0,0,0,0,0,0,0,0,0,0,0,0,0,
311,9.764,12.59,-4.777,-2.096,-8.888,0.7493,-0.7256,5.398,-2.664,10.25,-5.825,12.58,-0.2644,5.946,2.674,7.653,0,0,0,0,0,0,0,0,0,0,0,0,0,0,0,0,
312,10.92,21.87,-1.122,10.3,-1.332,13.5,3.134,9.893,0.4237,18.29,-0.8144,14.12,4.489,7.888,2.493,6.561,0,0,0,0,0,0,0,0,0,0,0,0,0,0,0,0,
313,2.243,12.95,-14.78,-3.751,-10.47,2.549,-15.61,-6.687,-0.6074,13.25,-12.84,5.296,-0.9584,2.566,-4.027,0.1395,0,0,0,0,0,0,0,0,0,0,0,0,0,0,0,0,
314,0.9118,11.8,-9.446,0.0825,-1.324,8.786,-4.995,6.245,2.6,11.27,0.7247,25.05,16.08,24.31,11.99,18.8,0,0,0,0,0,0,0,0,0,0,0,0,0,0,0,0,
315,12.99,18.35,-3.887,5.041,4.534,14.44,-0.676,9.384,21.84,26.03,-1.525,19.68,11.43,18.33,-0.3844,7.572,0,0,0,0,0,0,0,0,0,0,0,0,0,0,0,0,
316,6.967,4.585,-17.19,-4.452,-8.377,1.565,-9.021,-3.394,10.16,8.633,-9.24,5.554,0.5189,-0.9661,-6.375,-1.095,0,0,0,0,0,0,0,0,0,0,0,0,0,0,0,0,
317,12.87,15.58,4.241,11.46,12.07,13.31,12.16,11.7,16.71,10.1,11.47,14.06,15.13,5.511,5.502,7.574,0,0,0,0,0,0,0,0,0,0,0,0,0,0,0,0,
318,12.47,11.63,1.874,4.847,8.678,5.456,3.141,2.588,23.98,13.54,-0.6783,0.4497,-1.13,-7.173,-13.88,-9.604,0,0,0,0,0,0,0,0,0,0,0,0,0,0,0,0,
319,-0.7124,1.665,-13.02,-0.4041,-2.144,-0.7914,-4.349,2.231,4.424,-2.384,-5.171,4.926,-3.179,-2.267,-9.361,-1.752,0,0,0,0,0,0,0,0,0,0,0,0,0,0,0,0,
320,10.59,20.87,-1.514,12.33,10.64,9.651,6.139,12.78,16.9,11.72,1.575,8.682,7.305,7.152,-3.201,2.451,0,0,0,0,0,0,0,0,0,0,0,0,0,0,0,0,
321,4.451,6.23,-19.02,-2.665,-9.238,-11.49,-10.45,-6.989,12.39,5.277,-16.34,-6.067,-9.73,-5.162,-13.4,-9.731,0,0,0,0,0,0,0,0,0,0,0,0,0,0,0,0,
322,-5.051,1.133,-17.63,8.555,-11.4,-6.832,-2.028,4.677,-3.984,-4.032,-4.211,11.32,-1.225,7.937,3.13,6.729,0,0,0,0,0,0,0,0,0,0,0,0,0,0,0,0,
323,5.407,17.78,-0.8653,20.87,-1.904,6.47,-0.462,10.8,4.645,8.594,-3.107,6.765,-2.11,1.56,-2.943,0.353,0,0,0,0,0,0,0,0,0,0,0,0,0,0,0,0,
324,-0.1041,8.615,-8.428,2.238,-12.36,-6.207,-17.09,-4.163,-10.34,-6.599,-14.33,-3.702,-10.06,-8.441,-4.442,-1.244,0,0,0,0,0,0,0,0,0,0,0,0,0,0,0,0,
325,9.393,19.73,7.362,6.692,3.578,4.026,5.727,9.531,-6.717,0.6819,5.804,14.58,10.83,12.61,15.07,17.29,0,0,0,0,0,0,0,0,0,0,0,0,0,0,0,0,
326,19.8,19.97,5.789,-0.9834,-1.163,-2.028,9.363,2.878,6.671,13.09,0.071,8.07,5.282,7.128,3.398,5.945,0,0,0,0,0,0,0,0,0,0,0,0,0,0,0,0,
327,6.926,2.484,-7.903,-10.5,-16.38,-14.5,-0.2761,1.074,-6.42,0.0838,-4.581,9.007,5.018,6.949,4.071,7.275,0,0,0,0,0,0,0,0,0,0,0,0,0,0,0,0,
328,7.458,7.963,0.4364,-6.747,-8.649,-10.78,0.8219,8.773,3.143,8.687,-0.3784,6.258,11.56,7.28,1.939,2.444,0,0,0,0,0,0,0,0,0,0,0,0,0,0,0,0,
329,-0.1719,-4.308,-9.159,-25.13,-18.18,-26.0,-11.94,-13.7,-1.626,-4.374,-14.94,-12.18,-6.349,-13.08,-11.16,-12.33,0,0,0,0,0,0,0,0,0,0,0,0,0,0,0,0,
330,-3.814,-1.294,4.481,-13.11,-4.974,-11.49,3.622,-4.711,-11.86,-15.31,0.4995,3.031,0.4036,-3.21,2.473,2.069,0,0,0,0,0,0,0,0,0,0,0,0,0,0,0,0,
331,11.22,15.53,20.56,5.979,7.932,8.287,12.75,7.661,3.217,3.817,6.157,-0.0799,-3.464,-5.011,-7.583,-6.94,0,0,0,0,0,0,0,0,0,0,0,0,0,0,0,0,
332,8.185,6.578,5.038,1.498,-4.566,1.276,4.744,2.293,-5.466,-4.337,-1.583,-7.564,-12.89,-10.82,-10.4,-7.59,0,0,0,0,0,0,0,0,0,0,0,0,0,0,0,0,
333,9.39,17.98,13.1,14.72,9.529,14.51,17.33,14.38,0.5066,2.456,9.767,8.513,5.672,8.718,6.787,12.79,0,0,0,0,0,0,0,0,0,0,0,0,0,0,0,0,
334,4.494,14.62,5.281,5.817,2.942,6.257,-1.737,-0.0162,12.09,13.51,-6.583,-1.637,-2.13,2.118,-7.91,2.86,0,0,0,0,0,0,0,0,0,0,0,0,0,0,0,0,
335,-12.82,-3.953,-7.142,-3.403,-8.756,-9.998,-13.43,-5.101,-1.488,0.6816,-7.984,5.002,-0.8787,6.637,-3.584,10.76,0,0,0,0,0,0,0,0,0,0,0,0,0,0,0,0,
336,-5.674,6.139,6.576,8.089,4.593,-3.72,2.495,6.755,8.569,9.889,4.79,15.17,10.79,17.55,3.46,16.75,0,0,0,0,0,0,0,0,0,0,0,0,0,0,0,0,
337,-6.236,0.7627,-7.859,-3.058,-7.568,-12.88,-7.569,-7.216,6.206,3.69,-7.585,0.5817,-2.263,3.672,-3.955,4.551,0,0,0,0,0,0,0,0,0,0,0,0,0,0,0,0,
338,-7.766,4.454,-10.78,5.8,-3.526,-2.07,-0.9162,2.277,-0.5941,-3.184,4.817,6.974,8.092,9.91,12.77,13.58,0,0,0,0,0,0,0,0,0,0,0,0,0,0,0,0,
339,1.692,10.85,-6.947,14.88,4.169,10.62,2.048,4.897,13.36,11.14,7.026,-1.625,10.33,8.207,8.557,6.267,0,0,0,0,0,0,0,0,0,0,0,0,0,0,0,0,
340,-9.393,-4.728,-20.28,5.744,-7.801,6.046,-13.61,-6.773,1.84,4.947,-3.292,-7.75,4.244,6.917,4.691,7.698,0,0,0,0,0,0,0,0,0,0,0,0,0,0,0,0,
341,-8.641,14.29,-3.017,22.41,7.013,21.3,-4.571,8.081,4.917,15.88,4.635,7.661,15.76,21.43,10.47,19.18,0,0,0,0,0,0,0,0,0,0,0,0,0,0,0,0,
342,-3.089,17.53,-2.945,19.88,3.788,13.2,-6.398,2.609,12.5,21.75,-12.71,0.5804,0.7536,11.4,-8.137,6.335,0,0,0,0,0,0,0,0,0,0,0,0,0,0,0,0,
343,-8.346,-3.333,-13.2,12.78,-2.068,4.095,-3.885,6.169,1.175,9.934,-12.11,14.03,0.7765,19.81,-0.0281,18.6,0,0,0,0,0,0,0,0,0,0,0,0,0,0,0,0,
344,-3.02,2.277,-6.285,14.69,6.554,8.745,-4.012,15.46,13.96,24.29,-2.542,20.06,7.829,23.99,2.51,16.72,0,0,0,0,0,0,0,0,0,0,0,0,0,0,0,0,
345,-13.1,-11.05,-24.13,-10.69,-15.78,-14.65,-28.07,-8.984,4.181,10.98,-17.86,-1.835,-7.821,1.544,-9.064,-2.397,0,0,0,0,0,0,0,0,0,0,0,0,0,0,0,0,
346,-10.85,-12.27,-15.65,-6.224,-7.918,-8.094,-11.1,-4.576,-4.994,-1.899,0.3643,9.555,8.834,12.91,11.56,13.62,0,0,0,0,0,0,0,0,0,0,0,0,0,0,0,0,
347,8.994,2.698,-1.477,4.484,7.075,4.946,-3.052,-1.686,16.03,12.25,2.23,5.864,9.364,11.57,4.083,5.328,0,0,0,0,0,0,0,0,0,0,0,0,0,0,0,0,
348,0.6833,-5.912,-15.27,-6.441,-10.59,-10.15,-24.29,-12.73,-0.7275,-4.078,-17.94,-6.718,-11.99,-3.485,-9.284,-7.277,0,0,0,0,0,0,0,0,0,0,0,0,0,0,0,0,
349,4.857,6.845,1.073,6.392,-4.345,-4.716,-16.73,-1.016,-13.6,-8.728,-9.909,-2.378,-12.36,-4.175,-5.747,-7.032,0,0,0,0,0,0,0,0,0,0,0,0,0,0,0,0,
350,10.89,6.869,-2.881,-3.966,-15.83,-19.09,-26.45,-18.38,-17.34,-18.15,-21.67,-21.94,-32.51,-27.26,-25.35,-27.79,0,0,0,0,0,0,0,0,0,0,0,0,0,0,0,0,
351,-5.316,-8.669,-19.07,-20.14,-30.62,-34.47,-30.62,-23.37,-37.71,-44.69,-24.38,-16.17,-35.85,-23.9,-22.66,-19.62,0,0,0,0,0,0,0,0,0,0,0,0,0,0,0,0,
352,-4.963,-3.374,-5.186,-12.65,-16.79,-22.12,-15.94,-3.197,-25.61,-26.17,-16.65,-4.385,-25.31,-8.895,-22.58,-15.9,0,0,0,0,0,0,0,0,0,0,0,0,0,0,0,0,
353,-12.41,-22.05,-13.94,-19.71,-27.36,-30.56,-25.65,-9.99,-21.99,-16.57,-28.91,-18.09,-34.34,-17.07,-35.84,-27.19,0,0,0,0,0,0,0,0,0,0,0,0,0,0,0,0,
354,-18.44,-21.58,-7.797,-4.735,-21.65,-23.69,-15.81,-0.6051,-25.19,-15.29,-13.28,-6.921,-18.53,-1.815,-21.07,-9.041,0,0,0,0,0,0,0,0,0,0,0,0,0,0,0,0,
355,-8.647,-5.749,4.943,3.507,-10.89,-15.32,-15.5,-0.3975,-10.75,1.567,-11.72,-7.168,-17.81,-2.304,-26.4,-13.71,0,0,0,0,0,0,0,0,0,0,0,0,0,0,0,0,
356,-19.6,-29.21,-12.43,-15.48,-23.8,-27.11,-29.05,-11.13,-23.1,-9.363,-22.28,-6.761,-25.99,-8.344,-23.36,-13.97,0,0,0,0,0,0,0,0,0,0,0,0,0,0,0,0,
357,-21.99,-29.08,-6.719,-8.742,-12.19,-16.01,-8.17,2.671,-20.41,-5.731,-6.752,5.41,-9.607,3.616,-6.186,-1.373,0,0,0,0,0,0,0,0,0,0,0,0,0,0,0,0,
358,-18.58,-18.09,-6.849,-12.28,-13.93,-17.81,-10.81,-12.04,-11.61,-1.931,-16.26,-16.79,-18.59,-13.07,-22.27,-19.76,0,0,0,0,0,0,0,0,0,0,0,0,0,0,0,0,
359,-25.34,-18.98,-11.65,-10.18,-16.55,-15.11,-17.56,-12.7,-18.79,-12.38,-14.21,-13.99,-12.39,-9.559,-14.94,-12.79,0,0,0,0,0,0,0,0,0,0,0,0,0,0,0,0,
360,-16.88,-6.237,-0.9282,8.608,-0.1151,3.411,-6.15,8.504,3.404,7.539,-1.716,-0.907,3.679,2.68,-8.21,-6.187,0,0,0,0,0,0,0,0,0,0,0,0,0,0,0,0,
361,-16.03,-8.972,-6.65,-3.969,-6.987,-8.554,-9.606,-3.888,5.673,4.684,-12.02,-10.94,-5.911,-10.01,-15.4,-14.23,0,0,0,0,0,0,0,0,0,0,0,0,0,0,0,0,
362,-11.31,-2.396,12.86,-3.571,6.835,-5.71,9.629,-1.485,1.74,-2.111,5.601,-0.189,11.04,0.337,6.466,2.291,0,0,0,0,0,0,0,0,0,0,0,0,0,0,0,0,
363,-2.2,-0.1355,22.39,-2.443,14.45,-2.665,14.61,-5.21,20.58,9.967,9.014,-12.79,14.34,-6.093,0.7956,-9.142,0,0,0,0,0,0,0,0,0,0,0,0,0,0,0,0,
364,-14.76,-16.89,2.284,-11.61,-2.173,-9.069,2.188,-16.56,9.801,-5.421,0.3547,-25.07,4.915,-15.49,-4.463,-14.21,0,0,0,0,0,0,0,0,0,0,0,0,0,0,0,0,
365,-8.703,2.239,18.84,6.647,15.22,15.06,15.63,-0.2837,14.78,2.542,15.01,-8.279,16.27,0.1329,7.889,0.9119,0,0,0,0,0,0,0,0,0,0,0,0,0,0,0,0,
366,-6.464,0.9479,12.53,-0.7013,10.43,6.65,-0.7476,-12.03,22.29,9.049,-1.272,-18.25,-1.792,-12.55,-9.83,-13.13,0,0,0,0,0,0,0,0,0,0,0,0,0,0,0,0,
367,-18.31,-15.24,-4.969,-8.807,-0.937,-7.828,-10.22,-13.89,2.345,-10.05,-3.693,-12.09,-2.778,-7.602,-1.836,-2.894,0,0,0,0,0,0,0,0,0,0,0,0,0,0,0,0,
368,-0.7094,3.822,11.08,3.733,13.43,6.368,3.354,-0.4038,13.02,5.964,8.097,-4.075,11.64,6.908,6.385,3.823,0,0,0,0,0,0,0,0,0,0,0,0,0,0,0,0,
369,-0.6744,-8.241,-0.3093,-10.58,-2.913,-8.22,-11.94,-19.55,8.411,6.784,-7.984,-21.89,-3.991,-6.357,-9.39,-12.35,0,0,0,0,0,0,0,0,0,0,0,0,0,0,0,0,
370,-9.997,-15.54,1.496,-1.443,0.0619,-6.016,-2.641,-10.2,-4.142,0.8105,4.131,-10.57,4.539,5.435,2.132,-0.9431,0,0,0,0,0,0,0,0,0,0,0,0,0,0,0,0,
371,6.427,5.093,16.58,12.48,14.02,6.621,7.506,-0.227,13.62,16.06,5.711,-9.94,5.346,6.598,-3.309,-7.146,0,0,0,0,0,0,0,0,0,0,0,0,0,0,0,0,
372,9.147,4.573,7.161,4.016,1.221,-3.085,-8.004,-8.896,3.374,1.336,-9.405,-13.95,-9.191,-4.283,-11.75,-12.39,0,0,0,0,0,0,0,0,0,0,0,0,0,0,0,0,
373,10.97,16.78,17.54,17.75,9.697,7.185,-5.545,5.744,-2.075,-0.6006,0.3557,-1.898,-4.217,1.669,-9.938,-4.181,0,0,0,0,0,0,0,0,0,0,0,0,0,0,0,0,
374,9.689,18.96,12.61,11.65,4.05,3.288,-14.15,-1.268,0.1975,2.314,-14.4,-18.18,-22.82,-14.5,-34.69,-22.38,0,0,0,0,0,0,0,0,0,0,0,0,0,0,0,0,
375,-1.951,9.549,3.43,3.122,-5.82,-3.949,-10.7,-3.491,-18.79,-13.48,-18.64,-17.23,-30.87,-15.6,-32.16,-18.88,0,0,0,0,0,0,0,0,0,0,0,0,0,0,0,0,
376,3.492,17.54,15.75,12.05,1.421,2.506,-1.181,2.609,-18.33,-6.155,-7.225,-13.18,-25.67,-11.2,-23.28,-16.03,0,0,0,0,0,0,0,0,0,0,0,0,0,0,0,0,
377,2.061,1.564,3.253,-4.038,-12.91,-14.52,-18.04,-18.66,-27.78,-16.38,-15.72,-29.56,-34.36,-24.79,-28.84,-26.37,0,0,0,0,0,0,0,0,0,0,0,0,0,0,0,0,
378,6.638,0.8907,10.1,-0.7398,-1.167,-10.19,-1.877,-9.68,-28.68,-23.87,0.0948,-16.6,-15.9,-11.61,-12.93,-13.4,0,0,0,0,0,0,0,0,0,0,0,0,0,0,0,0,
379,17.67,12.68,18.27,0.9585,9.6,-3.953,4.648,-4.625,-5.555,-10.64,-0.6845,-18.34,-14.78,-13.71,-19.92,-22.08,0,0,0,0,0,0,0,0,0,0,0,0,0,0,0,0,
380,0.3899,-2.103,-2.472,-17.4,-9.836,-15.97,-12.99,-17.29,-18.82,-27.3,-16.09,-27.25,-27.74,-23.35,-24.71,-25.01,0,0,0,0,0,0,0,0,0,0,0,0,0,0,0,0,
381,-6.242,4.676,2.726,-7.639,-4.644,-4.83,-1.412,-5.545,-23.81,-28.84,-4.323,-21.16,-19.19,-15.53,-16.67,-16.93,0,0,0,0,0,0,0,0,0,0,0,0,0,0,0,0,
382,-6.67,-0.7482,-5.485,-15.52,-12.98,-14.85,-8.576,-15.82,-20.2,-28.25,-11.7,-35.64,-29.89,-28.17,-29.91,-31.59,0,0,0,0,0,0,0,0,0,0,0,0,0,0,0,0,
383,-8.676,-12.85,-9.198,-22.84,-11.59,-19.02,-3.438,-15.57,-27.69,-36.38,-4.77,-22.09,-18.91,-14.54,-12.97,-13.39,0,0,0,0,0,0,0,0,0,0,0,0,0,0,0,0,
384,11.31,8.679,13.12,-5.47,15.62,3.846,18.79,-1.167,-1.958,-6.436,9.015,-6.299,0.3521,5.557,-1.946,0.096,0,0,0,0,0,0,0,0,0,0,0,0,0,0,0,0,
385,9.232,4.883,-2.417,-9.573,5.236,-1.663,2.139,-13.57,4.918,1.839,-3.666,-14.94,-6.387,2.103,-9.517,-3.793,0,0,0,0,0,0,0,0,0,0,0,0,0,0,0,0,
386,6.098,4.331,-1.34,2.041,12.39,10.55,9.661,3.292,7.037,6.503,12.62,4.135,16.26,26.53,11.36,19.9,0,0,0,0,0,0,0,0,0,0,0,0,0,0,0,0,
387,25.58,14.25,11.05,9.382,25.9,25.65,18.72,11.8,34.53,34.76,15.72,3.988,22.39,31.64,6.201,15.95,0,0,0,0,0,0,0,0,0,0,0,0,0,0,0,0,
388,22.84,-0.8867,-5.442,-5.843,9.504,12.24,0.1649,-2.776,26.39,29.59,6.035,-1.162,11.74,23.53,4.207,13.25,0,0,0,0,0,0,0,0,0,0,0,0,0,0,0,0,
389,16.95,7.448,2.776,0.2076,15.72,13.23,8.483,7.336,23.45,29.85,22.78,12.16,22.85,29.78,20.4,21.87,0,0,0,0,0,0,0,0,0,0,0,0,0,0,0,0,
390,5.995,6.684,-4.766,-11.54,5.127,-4.755,8.421,-4.561,22.84,20.25,10.24,-6.984,4.493,3.684,2.829,-4.451,0,0,0,0,0,0,0,0,0,0,0,0,0,0,0,0,
391,-6.274,-5.257,-18.63,-15.39,-5.741,-14.79,6.179,-6.854,-0.1038,-8.961,5.553,-7.303,0.4788,-1.617,5.095,-3.46,0,0,0,0,0,0,0,0,0,0,0,0,0,0,0,0,
392,6.994,8.583,-3.653,3.08,10.3,3.346,7.32,9.69,10.66,4.163,12.25,2.453,13.18,9.159,8.975,3.163,0,0,0,0,0,0,0,0,0,0,0,0,0,0,0,0,
393,-1.344,-2.416,-12.98,-6.945,-1.138,-4.456,-9.406,-1.678,12.61,5.014,-4.333,-8.054,1.433,-2.414,-0.5036,-5.573,0,0,0,0,0,0,0,0,0,0,0,0,0,0,0,0,
394,-11.22,-2.289,-7.128,3.673,4.172,4.358,6.353,5.969,8.221,-2.049,8.218,4.419,14.29,8.08,19.18,11.53,0,0,0,0,0,0,0,0,0,0,0,0,0,0,0,0,
395,1.994,14.84,6.171,16.87,13.21,14.67,10.48,7.221,24.36,9.723,9.056,-0.5248,15.38,4.477,14.14,7.411,0,0,0,0,0,0,0,0,0,0,0,0,0,0,0,0,
396,-2.481,4.532,-5.567,6.877,-3.225,0.9077,-10.2,-2.04,10.98,-2.863,-2.361,-3.365,5.618,0.8336,10.44,10.06,0,0,0,0,0,0,0,0,0,0,0,0,0,0,0,0,
397,0.7132,12.23,2.517,18.61,4.997,8.651,-4.627,14.14,10.84,7.199,12.21,16.38,22.92,25.81,26.85,29.98,0,0,0,0,0,0,0,0,0,0,0,0,0,0,0,0,
398,3.99,12.09,-8.254,11.36,-1.401,1.66,-16.05,2.501,17.39,21.44,-1.771,6.094,15.97,23.35,14.0,19.15,0,0,0,0,0,0,0,0,0,0,0,0,0,0,0,0,
399,0.7341,2.122,-14.02,5.535,-4.296,1.302,-14.26,0.5945,3.74,12.69,-2.626,13.75,17.47,27.5,20.56,26.64,0,0,0,0,0,0,0,0,0,0,0,0,0,0,0,0,
400,18.79,17.37,10.27,20.7,14.17,21.58,4.37,16.41,17.89,27.2,13.56,23.32,26.48,31.65,26.51,28.41,0,0,0,0,0,0,0,0,0,0,0,0,0,0,0,0,
401,13.9,11.43,0.3714,10.18,-0.2639,9.602,-6.282,3.622,13.07,19.34,2.404,6.143,11.02,14.99,13.22,14.2,0,0,0,0,0,0,0,0,0,0,0,0,0,0,0,0,
402,9.232,15.94,11.49,18.96,11.33,17.39,11.66,15.26,4.292,12.28,15.85,14.99,24.13,28.54,24.63,28.41,0,0,0,0,0,0,0,0,0,0,0,0,0,0,0,0,
403,30.98,32.7,35.29,28.56,33.3,30.56,25.15,20.8,29.37,32.71,23.69,9.784,31.71,28.45,20.12,21.86,0,0,0,0,0,0,0,0,0,0,0,0,0,0,0,0,
404,32.29,24.11,24.17,15.3,24.22,17.43,18.95,9.639,30.59,24.31,22.0,4.608,32.3,24.79,21.5,20.71,0,0,0,0,0,0,0,0,0,0,0,0,0,0,0,0,
405,42.11,37.01,39.95,26.46,39.73,27.37,45.89,22.85,40.68,31.18,40.22,20.01,49.62,43.95,32.26,32.11,0,0,0,0,0,0,0,0,0,0,0,0,0,0,0,0,
406,54.45,43.9,50.12,24.37,41.99,26.47,47.04,10.62,51.87,42.15,29.55,6.398,34.53,32.33,15.87,15.27,0,0,0,0,0,0,0,0,0,0,0,0,0,0,0,0,
407,44.3,36.52,44.98,22.11,38.84,28.45,40.69,9.01,40.56,34.81,33.82,14.97,39.88,37.92,31.76,29.76,0,0,0,0,0,0,0,0,0,0,0,0,0,0,0,0,
408,43.47,36.56,47.12,31.8,50.46,44.19,46.97,24.12,57.9,52.99,43.87,25.52,54.71,48.26,36.05,35.18,0,0,0,0,0,0,0,0,0,0,0,0,0,0,0,0,
409,34.82,14.73,21.79,16.81,25.32,22.06,20.85,6.079,48.41,39.44,14.05,2.043,23.87,19.54,4.472,5.458,0,0,0,0,0,0,0,0,0,0,0,0,0,0,0,0,
410,35.58,26.16,23.8,27.02,19.51,17.53,16.78,10.25,20.05,12.24,13.41,6.707,16.45,15.64,6.071,7.758,0,0,0,0,0,0,0,0,0,0,0,0,0,0,0,0,
411,48.89,45.72,35.28,33.17,26.73,24.58,19.51,12.02,25.02,15.55,13.95,6.261,13.22,12.29,-1.085,4.138,0,0,0,0,0,0,0,0,0,0,0,0,0,0,0,0,
412,30.89,18.25,13.88,13.57,8.551,10.33,5.642,-1.252,11.97,3.869,1.522,0.7624,-0.2795,2.392,-6.054,0.7517,0,0,0,0,0,0,0,0,0,0,0,0,0,0,0,0,
413,21.86,14.55,16.81,22.51,10.46,14.0,12.23,9.079,6.629,8.376,13.31,9.839,10.68,11.72,7.265,9.419,0,0,0,0,0,0,0,0,0,0,0,0,0,0,0,0,
414,18.21,9.997,9.974,14.8,-2.22,0.3329,3.491,-4.198,10.57,11.95,4.974,-5.611,6.196,0.9323,-5.763,-4.24,0,0,0,0,0,0,0,0,0,0,0,0,0,0,0,0,
415,2.604,-0.2267,1.084,7.275,-11.29,-11.04,7.111,-5.02,0.4591,-3.635,6.226,-0.9547,8.963,1.129,-3.54,-0.6205,0,0,0,0,0,0,0,0,0,0,0,0,0,0,0,0,
416,13.07,21.26,17.83,23.72,5.992,1.963,22.6,12.65,13.72,8.935,12.35,6.776,11.47,4.027,-4.974,-3.938,0,0,0,0,0,0,0,0,0,0,0,0,0,0,0,0,
417,15.3,12.24,6.36,15.36,-5.026,-4.763,3.136,0.7564,9.089,5.928,-8.433,-5.469,-6.636,-8.351,-18.31,-14.69,0,0,0,0,0,0,0,0,0,0,0,0,0,0,0,0,
418,8.136,4.085,7.615,19.98,-2.328,4.879,6.962,10.64,1.695,3.459,0.2175,8.962,4.989,5.332,-3.994,1.926,0,0,0,0,0,0,0,0,0,0,0,0,0,0,0,0,
419,8.354,10.17,10.8,18.66,-2.244,4.608,9.608,12.23,13.51,15.11,-1.515,3.765,-1.687,-1.243,-14.38,-8.524,0,0,0,0,0,0,0,0,0,0,0,0,0,0,0,0,
420,-7.669,-8.032,-14.04,-3.226,-27.21,-19.25,-11.56,-2.555,-11.61,-8.54,-18.69,-4.578,-22.14,-13.72,-21.79,-10.91,0,0,0,0,0,0,0,0,0,0,0,0,0,0,0,0,
421,-0.4902,1.726,-7.073,7.053,-16.1,-7.286,-9.571,10.71,-21.99,-10.54,-10.36,7.405,-13.33,-3.783,-9.56,3.051,0,0,0,0,0,0,0,0,0,0,0,0,0,0,0,0,
422,15.62,7.672,-8.553,3.336,-16.15,-10.38,-17.45,-1.315,-17.87,-7.966,-22.8,-10.57,-28.07,-21.7,-21.48,-13.16,0,0,0,0,0,0,0,0,0,0,0,0,0,0,0,0,
423,9.086,-3.522,-17.89,-4.301,-24.48,-19.88,-13.04,-9.202,-35.07,-30.86,-20.73,-12.06,-30.62,-24.85,-7.848,-4.443,0,0,0,0,0,0,0,0,0,0,0,0,0,0,0,0,
424,13.13,7.396,-6.096,4.92,-11.96,-5.885,0.5354,-3.438,-25.97,-25.93,-7.656,-12.4,-18.75,-22.5,0.7623,-3.829,0,0,0,0,0,0,0,0,0,0,0,0,0,0,0,0,
425,7.197,-5.036,-18.84,-8.922,-22.51,-14.41,-16.69,-25.9,-26.34,-35.05,-22.65,-32.28,-31.76,-40.18,-14.92,-23.46,0,0,0,0,0,0,0,0,0,0,0,0,0,0,0,0,
426,0.0364,-8.412,-12.17,-1.489,-12.34,-6.569,-5.932,-18.8,-28.77,-39.84,-10.8,-14.78,-21.0,-22.29,-2.329,-6.96,0,0,0,0,0,0,0,0,0,0,0,0,0,0,0,0,
427,7.877,7.99,0.1748,5.52,1.182,3.027,3.42,-12.31,-7.416,-15.39,-5.954,-12.93,-16.22,-15.18,-6.628,-9.149,0,0,0,0,0,0,0,0,0,0,0,0,0,0,0,0,
428,-2.445,-2.625,-16.01,-10.14,-12.77,-11.07,-4.625,-24.29,-13.68,-22.16,-13.07,-22.19,-19.43,-22.27,-10.68,-13.51,0,0,0,0,0,0,0,0,0,0,0,0,0,0,0,0,
429,-6.56,-2.986,-4.926,0.3046,-1.599,-1.502,14.91,-8.112,-8.155,-20.16,4.16,-9.977,-2.901,-10.64,-1.234,-3.272,0,0,0,0,0,0,0,0,0,0,0,0,0,0,0,0,
430,-4.699,-5.366,-2.143,-2.764,-1.624,-4.471,12.09,-7.91,3.058,-12.16,-1.141,-21.45,-12.34,-18.59,-17.88,-19.18,0,0,0,0,0,0,0,0,0,0,0,0,0,0,0,0,
431,-3.289,-4.724,-0.2585,-4.097,-1.094,-8.914,10.33,-2.877,-7.352,-18.07,2.91,-14.75,-10.2,-8.368,-11.14,-9.902,0,0,0,0,0,0,0,0,0,0,0,0,0,0,0,0,
432,14.8,14.01,19.75,8.943,14.54,1.829,18.6,9.874,5.351,0.2353,8.632,-2.32,-3.954,4.382,-8.787,-1.874,0,0,0,0,0,0,0,0,0,0,0,0,0,0,0,0,
433,8.387,-2.302,-0.7278,-10.91,-7.28,-13.41,-4.176,-6.279,-2.368,-4.56,-15.72,-13.47,-24.73,-10.85,-25.27,-15.53,0,0,0,0,0,0,0,0,0,0,0,0,0,0,0,0,
434,-4.797,-7.781,-9.78,-11.23,-11.33,-8.532,0.0232,1.858,-16.83,-11.47,-8.356,-1.079,-15.36,-1.021,-10.61,-3.4,0,0,0,0,0,0,0,0,0,0,0,0,0,0,0,0,
435,-1.774,4.487,-3.033,-1.698,-3.349,2.341,4.417,5.077,-4.414,4.9,-4.71,-0.7238,-12.26,1.686,-11.4,-3.495,0,0,0,0,0,0,0,0,0,0,0,0,0,0,0,0,
436,-9.502,-3.985,-9.718,-7.755,-11.04,-2.333,-8.725,-5.389,-11.57,-2.693,-8.581,-1.857,-13.92,3.422,-7.505,2.155,0,0,0,0,0,0,0,0,0,0,0,0,0,0,0,0,
437,0.4144,11.3,12.43,5.105,8.521,13.45,9.358,5.195,2.277,7.342,12.39,7.476,9.835,18.9,9.521,12.95,0,0,0,0,0,0,0,0,0,0,0,0,0,0,0,0,
438,7.168,12.56,13.24,-5.663,5.876,2.837,11.66,-13.27,17.77,10.63,1.924,-15.34,0.5421,-2.809,-7.445,-8.638,0,0,0,0,0,0,0,0,0,0,0,0,0,0,0,0,
439,-3.317,0.5725,6.036,-12.82,-0.3837,-4.882,13.58,-17.84,2.703,-11.66,0.1287,-9.737,-0.3042,-6.532,-3.377,-2.655,0,0,0,0,0,0,0,0,0,0,0,0,0,0,0,0,
440,9.404,16.81,26.67,4.699,18.66,14.03,22.07,0.7785,16.43,1.487,13.29,6.66,14.72,7.654,4.342,4.201,0,0,0,0,0,0,0,0,0,0,0,0,0,0,0,0,
441,11.86,8.623,19.6,-4.553,8.381,1.322,3.81,-9.86,16.77,2.919,2.104,-5.719,7.019,0.6676,-1.99,-6.998,0,0,0,0,0,0,0,0,0,0,0,0,0,0,0,0,
442,9.54,6.723,25.25,0.688,14.06,3.558,15.41,-2.091,8.103,-0.7667,14.55,2.825,20.8,10.62,14.87,3.745,0,0,0,0,0,0,0,0,0,0,0,0,0,0,0,0,
443,20.45,18.4,35.28,4.33,24.21,12.82,23.38,-2.964,24.31,12.73,14.87,-3.031,18.69,1.48,3.391,-8.998,0,0,0,0,0,0,0,0,0,0,0,0,0,0,0,0,
444,16.17,8.886,19.06,-10.54,11.88,1.066,10.57,-16.11,14.29,-1.604,2.561,-11.47,2.129,-12.84,-10.26,-17.25,0,0,0,0,0,0,0,0,0,0,0,0,0,0,0,0,
445,23.05,23.06,29.17,2.043,24.16,9.832,22.08,0.4936,14.14,0.1265,10.63,-2.765,5.803,-5.625,-8.625,-13.37,0,0,0,0,0,0,0,0,0,0,0,0,0,0,0,0,
446,23.57,22.68,19.97,-4.393,11.76,-0.5925,6.492,-8.828,14.85,-0.2682,-12.03,-20.78,-17.92,-23.63,-31.92,-34.98,0,0,0,0,0,0,0,0,0,0,0,0,0,0,0,0,
447,7.735,6.356,1.282,-11.05,-5.304,-9.893,-6.256,-10.83,-9.819,-18.12,-20.26,-15.32,-25.29,-21.55,-27.04,-23.21,0,0,0,0,0,0,0,0,0,0,0,0,0,0,0,0,
448,14.54,18.33,10.44,4.262,6.064,5.257,1.774,4.961,-4.135,-1.028,-12.27,-4.405,-16.4,-9.731,-21.38,-12.68,0,0,0,0,0,0,0,0,0,0,0,0,0,0,0,0,
449,8.536,10.44,-4.129,-6.062,-9.542,-5.341,-14.5,-9.156,-9.538,-3.761,-28.88,-18.7,-32.05,-21.69,-33.45,-24.45,0,0,0,0,0,0,0,0,0,0,0,0,0,0,0,0,
450,-0.9746,7.635,-2.455,0.3005,-7.669,-0.9503,-4.758,-1.343,-19.17,-10.57,-14.87,-8.809,-19.98,-10.54,-16.23,-11.95,0,0,0,0,0,0,0,0,0,0,0,0,0,0,0,0,
451,4.431,8.666,2.743,4.075,-1.867,3.37,-0.914,0.3661,-1.155,3.927,-10.21,-16.23,-14.69,-16.73,-19.2,-23.34,0,0,0,0,0,0,0,0,0,0,0,0,0,0,0,0,
452,-8.348,-14.71,-21.2,-15.35,-22.4,-13.92,-20.7,-14.25,-11.39,-16.3,-22.82,-24.24,-22.05,-29.57,-20.93,-29.01,0,0,0,0,0,0,0,0,0,0,0,0,0,0,0,0,
453,-8.851,-4.964,-14.11,-6.97,-13.32,-4.342,-6.878,-1.184,-13.74,-19.32,-10.12,-8.437,-9.335,-16.9,-7.322,-13.58,0,0,0,0,0,0,0,0,0,0,0,0,0,0,0,0,
454,-8.616,-4.829,-16.8,-13.05,-17.51,-11.4,-9.499,-11.68,-9.878,-12.47,-21.42,-22.24,-22.66,-28.39,-24.52,-26.52,0,0,0,0,0,0,0,0,0,0,0,0,0,0,0,0,
455,-21.03,-25.39,-27.09,-19.49,-25.62,-20.66,-18.54,-15.1,-23.56,-27.52,-23.89,-19.52,-21.9,-25.08,-19.32,-17.86,0,0,0,0,0,0,0,0,0,0,0,0,0,0,0,0,
456,-11.77,-16.01,-12.42,-5.192,-10.2,-8.077,-12.31,2.8,-4.84,-15.51,-12.13,-6.821,-6.112,-10.69,-9.78,-7.877,0,0,0,0,0,0,0,0,0,0,0,0,0,0,0,0,
457,-18.5,-20.96,-23.67,-18.13,-23.37,-22.05,-22.61,-3.825,-0.4744,-14.13,-21.2,-10.52,-13.68,-13.71,-15.38,-13.46,0,0,0,0,0,0,0,0,0,0,0,0,0,0,0,0,
458,-29.0,-23.22,-19.19,-19.12,-20.45,-21.99,-9.602,5.237,-8.199,-14.93,-5.473,8.595,0.7275,4.324,2.037,2.688,0,0,0,0,0,0,0,0,0,0,0,0,0,0,0,0,
459,-19.19,-20.51,-4.276,-17.73,-11.4,-19.21,-4.997,3.513,2.946,-1.282,-4.266,4.221,-0.1442,1.359,-5.55,-6.151,0,0,0,0,0,0,0,0,0,0,0,0,0,0,0,0,
460,-24.59,-30.93,-12.26,-24.65,-22.36,-28.86,-16.23,-3.759,-13.54,-12.55,-14.88,-1.63,-11.7,-3.217,-10.45,-7.974,0,0,0,0,0,0,0,0,0,0,0,0,0,0,0,0,
461,-15.01,-1.795,5.474,0.3316,-0.5361,-1.651,4.152,21.77,-9.237,3.669,3.116,15.25,5.449,17.03,2.255,7.446,0,0,0,0,0,0,0,0,0,0,0,0,0,0,0,0,
462,-2.717,14.16,6.092,1.096,3.094,7.957,1.034,12.46,9.873,19.52,-7.504,-3.093,-5.327,-0.1109,-17.03,-11.34,0,0,0,0,0,0,0,0,0,0,0,0,0,0,0,0,
463,-14.47,3.467,-3.622,-7.871,-6.793,2.39,-5.007,2.602,-1.811,-0.0823,-12.73,-6.491,-12.08,-8.201,-16.59,-11.19,0,0,0,0,0,0,0,0,0,0,0,0,0,0,0,0,
464,-7.834,17.99,14.6,4.544,9.099,13.78,11.63,15.73,4.323,5.063,1.723,1.367,0.923,0.0246,-7.709,-7.163,0,0,0,0,0,0,0,0,0,0,0,0,0,0,0,0,
465,0.1473,16.1,13.4,-1.011,7.19,7.709,13.19,4.848,6.93,3.803,1.058,-10.77,2.579,-8.476,-8.108,-14.25,0,0,0,0,0,0,0,0,0,0,0,0,0,0,0,0,
466,2.18,20.51,22.88,10.2,17.94,20.05,28.12,11.3,9.472,4.151,18.44,-0.8563,20.53,2.689,9.709,-0.2986,0,0,0,0,0,0,0,0,0,0,0,0,0,0,0,0,
467,10.52,38.76,34.01,19.49,29.77,33.18,23.3,8.246,27.8,16.33,14.5,-11.12,17.77,-7.665,-2.432,-16.02,0,0,0,0,0,0,0,0,0,0,0,0,0,0,0,0,
468,14.66,40.17,26.45,14.48,25.53,29.53,4.58,-8.186,23.15,-4.51,1.69,-25.27,11.8,-24.01,-8.147,-26.06,0,0,0,0,0,0,0,0,0,0,0,0,0,0,0,0,
469,34.3,55.93,44.4,34.33,44.57,47.66,23.54,5.77,37.34,-2.089,17.59,-12.56,29.77,-8.328,6.692,-11.0,0,0,0,0,0,0,0,0,0,0,0,0,0,0,0,0,
470,38.78,48.98,41.32,26.51,37.05,38.85,22.97,0.0289,45.17,8.742,6.508,-17.42,13.04,-8.802,-6.548,-17.2,0,0,0,0,0,0,0,0,0,0,0,0,0,0,0,0,
471,23.25,32.73,30.94,11.61,22.06,22.76,16.79,1.091,20.1,-0.2154,4.05,-2.702,6.153,2.242,0.3508,-4.619,0,0,0,0,0,0,0,0,0,0,0,0,0,0,0,0,
472,20.67,39.13,31.62,15.65,19.52,23.81,10.66,14.87,18.23,15.33,5.466,10.58,7.221,10.69,0.9751,-2.022,0,0,0,0,0,0,0,0,0,0,0,0,0,0,0,0,
473,-3.166,16.95,-4.287,-0.1021,-13.43,2.313,-21.26,4.013,-6.674,8.803,-20.56,-0.0543,-18.51,-3.846,-14.7,-13.23,0,0,0,0,0,0,0,0,0,0,0,0,0,0,0,0,
474,-16.42,15.63,-7.107,7.023,-10.7,6.689,-11.23,17.67,-31.48,1.508,-10.26,13.86,-9.942,9.495,0.8233,5.09,0,0,0,0,0,0,0,0,0,0,0,0,0,0,0,0,
475,-3.247,28.44,6.988,10.22,3.655,12.98,-1.007,17.52,-11.51,17.61,-7.268,4.73,-5.988,5.654,-7.038,-4.81,0,0,0,0,0,0,0,0,0,0,0,0,0,0,0,0,
476,-13.67,7.046,-11.1,-8.002,-13.17,-3.52,-13.89,0.9906,-12.89,3.758,-18.08,-6.753,-13.25,-3.123,-9.208,-8.9,0,0,0,0,0,0,0,0,0,0,0,0,0,0,0,0,
477,-11.76,15.83,-0.8113,1.486,-1.265,8.042,4.643,13.83,-6.319,6.837,1.635,6.886,5.346,12.25,11.13,8.915,0,0,0,0,0,0,0,0,0,0,0,0,0,0,0,0,
478,-5.87,19.39,-2.231,-9.048,-3.697,-0.1535,-1.61,-3.181,4.607,9.345,-5.842,-12.09,-5.074,-7.465,-4.785,-11.42,0,0,0,0,0,0,0,0,0,0,0,0,0,0,0,0,
479,-13.99,6.95,-8.381,-14.44,-12.03,-9.442,-12.46,-10.27,-13.84,-14.19,-10.2,-14.56,-12.17,-18.57,-5.483,-16.88,0,0,0,0,0,0,0,0,0,0,0,0,0,0,0,0,
480,0.6982,23.28,11.72,8.275,4.045,10.4,-0.4815,10.55,-10.3,-6.383,1.814,-3.672,-3.375,-14.0,2.302,-11.87,0,0,0,0,0,0,0,0,0,0,0,0,0,0,0,0,
481,-4.669,12.78,-4.093,0.6135,-6.951,5.609,-6.822,0.0933,-10.02,-9.101,-2.288,-14.63,-6.465,-24.17,-0.1193,-15.36,0,0,0,0,0,0,0,0,0,0,0,0,0,0,0,0,
482,-18.9,9.909,-3.317,3.947,0.4254,13.64,8.653,0.2958,-4.197,-15.52,14.89,-11.25,11.72,-15.34,13.65,-6.391,0,0,0,0,0,0,0,0,0,0,0,0,0,0,0,0,
483,-3.094,30.26,18.16,5.601,13.14,20.86,13.22,-6.027,17.02,-11.34,8.225,-27.11,3.717,-29.32,-5.426,-29.46,0,0,0,0,0,0,0,0,0,0,0,0,0,0,0,0,
484,1.608,21.92,7.372,-12.89,-3.916,3.807,-8.398,-16.32,-3.06,-38.52,-14.47,-30.71,-16.73,-41.76,-16.43,-35.95,0,0,0,0,0,0,0,0,0,0,0,0,0,0,0,0,
485,2.374,23.05,4.829,-3.854,-1.371,9.99,-4.844,7.625,-11.14,-32.89,-7.858,-3.003,-8.028,-18.56,-3.902,-14.98,0,0,0,0,0,0,0,0,0,0,0,0,0,0,0,0,
486,-5.11,11.84,-13.27,-14.59,-15.73,-2.374,-22.52,3.148,-11.77,-13.81,-24.36,-8.968,-24.74,-22.23,-23.39,-25.27,0,0,0,0,0,0,0,0,0,0,0,0,0,0,0,0,
487,-22.1,-8.947,-26.07,-25.3,-25.03,-13.76,-33.06,2.4,-32.67,-20.31,-24.51,2.007,-22.48,-11.78,-17.3,-11.27,0,0,0,0,0,0,0,0,0,0,0,0,0,0,0,0,
488,-11.96,2.575,-5.706,-9.859,-2.001,4.034,-10.42,19.34,-13.7,3.499,-6.798,22.2,-1.671,13.84,-3.296,5.881,0,0,0,0,0,0,0,0,0,0,0,0,0,0,0,0,
489,-8.634,-4.931,-13.82,-23.43,-8.581,-2.334,-8.578,3.389,-3.368,15.31,-16.56,12.2,-11.45,12.02,-8.835,0.6488,0,0,0,0,0,0,0,0,0,0,0,0,0,0,0,0,
490,-9.59,-7.508,-10.37,-22.01,-3.47,5.179,-1.067,6.885,-5.611,18.16,-2.795,19.73,0.8954,21.4,8.286,14.47,0,0,0,0,0,0,0,0,0,0,0,0,0,0,0,0,
491,3.037,6.834,4.176,-7.562,8.632,17.72,-0.3559,11.03,15.92,35.24,4.088,13.32,7.901,12.54,6.471,5.925,0,0,0,0,0,0,0,0,0,0,0,0,0,0,0,0,
492,2.822,4.351,-0.9027,-7.139,2.123,10.21,-1.168,4.188,12.52,21.37,3.537,6.101,6.418,-2.915,9.764,2.099,0,0,0,0,0,0,0,0,0,0,0,0,0,0,0,0,
493,10.46,16.74,19.44,7.68,20.75,21.67,25.31,18.54,18.96,17.66,28.27,17.72,27.45,2.975,29.65,14.27,0,0,0,0,0,0,0,0,0,0,0,0,0,0,0,0,
494,9.243,11.33,22.86,-3.708,18.02,12.67,19.84,2.481,30.23,10.84,23.3,-0.0231,20.24,-12.5,18.36,-2.834,0,0,0,0,0,0,0,0,0,0,0,0,0,0,0,0,
495,-4.109,-0.0041,19.28,-13.57,11.73,3.653,17.87,-5.147,19.4,-11.68,25.59,0.0825,22.3,-9.457,24.89,1.25,0,0,0,0,0,0,0,0,0,0,0,0,0,0,0,0,
496,5.81,14.34,32.17,-1.215,25.5,14.71,29.26,7.632,33.22,2.994,34.3,7.487,32.88,0.0382,27.73,6.575,0,0,0,0,0,0,0,0,0,0,0,0,0,0,0,0,
497,1.751,-1.243,7.979,-14.89,4.212,-1.669,5.517,-7.139,26.22,1.667,11.75,-4.595,12.22,-13.15,13.26,-0.5631,0,0,0,0,0,0,0,0,0,0,0,0,0,0,0,0,
498,-2.57,-2.268,4.329,-8.812,1.905,0.5002,7.257,0.7967,7.241,-5.634,16.17,8.305,12.67,-2.698,25.99,14.39,0,0,0,0,0,0,0,0,0,0,0,0,0,0,0,0,
499,4.74,9.954,16.92,-1.26,6.174,2.178,8.819,3.571,12.21,4.595,12.13,6.279,4.912,-7.264,15.04,4.489,0,0,0,0,0,0,0,0,0,0,0,0,0,0,0,0,
500,-14.43,-14.06,1.839,-16.64,-17.96,-19.65,-10.15,-6.687,-7.387,-14.71,-4.01,8.306,-11.73,-12.85,4.36,4.607,0,0,0,0,0,0,0,0,0,0,0,0,0,0,0,0,
501,-17.41,-9.94,10.55,-5.541,-12.69,-8.383,-0.6521,11.19,-13.19,-12.91,5.504,27.84,-6.084,3.576,9.37,18.27,0,0,0,0,0,0,0,0,0,0,0,0,0,0,0,0,
502,-11.01,-4.406,8.017,-8.26,-17.86,-9.517,-12.21,1.69,-13.61,-6.728,-11.32,9.269,-23.4,-11.48,-10.96,-2.806,0,0,0,0,0,0,0,0,0,0,0,0,0,0,0,0,
503,-21.72,-18.52,0.0479,-13.09,-25.51,-17.45,-20.07,-0.2634,-33.29,-21.66,-12.78,12.19,-19.94,-6.906,-1.238,6.015,0,0,0,0,0,0,0,0,0,0,0,0,0,0,0,0,
504,-16.94,-12.25,13.21,-3.298,-9.786,-7.136,-4.443,16.19,-17.77,-4.775,3.252,22.23,-1.736,7.726,6.67,14.39,0,0,0,0,0,0,0,0,0,0,0,0,0,0,0,0,
505,-19.54,-20.86,-0.834,-18.97,-21.02,-21.05,-14.84,-1.853,-13.04,-6.048,-7.657,2.462,-9.111,-6.04,-6.696,-0.6085,0,0,0,0,0,0,0,0,0,0,0,0,0,0,0,0,
506,-16.14,-16.18,6.395,-8.391,-11.64,-11.49,-5.502,2.676,-11.82,-9.164,8.603,14.21,13.63,9.567,14.81,17.62,0,0,0,0,0,0,0,0,0,0,0,0,0,0,0,0,
507,3.147,-3.818,23.04,7.279,4.597,6.222,5.935,8.99,15.27,14.82,14.15,15.63,21.35,12.75,14.55,16.06,0,0,0,0,0,0,0,0,0,0,0,0,0,0,0,0,
508,-1.448,-19.06,12.41,-2.988,-4.62,-3.065,1.354,-2.014,6.18,3.123,2.147,7.456,6.283,-0.1668,7.14,8.786,0,0,0,0,0,0,0,0,0,0,0,0,0,0,0,0,
509,2.54,-6.072,25.76,7.742,12.82,6.464,15.78,10.44,5.658,-0.6702,16.65,20.9,17.7,9.379,18.79,18.06,0,0,0,0,0,0,0,0,0,0,0,0,0,0,0,0,
510,5.57,-2.413,19.11,-1.373,9.552,-1.117,3.588,-0.8939,14.7,1.461,3.729,5.562,3.374,-6.855,-0.0764,-2.189,0,0,0,0,0,0,0,0,0,0,0,0,0,0,0,0,
511,-7.511,-18.11,8.805,-14.86,-3.135,-13.51,-3.288,-10.98,-7.193,-21.19,-3.707,-1.875,-9.761,-16.91,-4.243,-6.522,0,0,0,0,0,0,0,0,0,0,0,0,0,0,0,0,
512,3.474,-5.805,32.04,-4.647,11.57,-4.314,11.99,-4.757,-5.276,-18.85,6.884,-0.9039,-6.324,-14.39,-2.253,-7.23,0,0,0,0,0,0,0,0,0,0,0,0,0,0,0,0,
513,3.899,-11.48,19.94,-14.03,-0.1619,-17.63,1.564,-17.39,-8.242,-22.2,-6.597,-14.58,-19.5,-25.74,-14.37,-21.26,0,0,0,0,0,0,0,0,0,0,0,0,0,0,0,0,
514,-7.911,-15.1,6.216,-10.76,-5.015,-19.8,5.19,-5.084,-20.36,-24.86,-1.754,-4.049,-11.64,-13.89,-3.804,-11.14,0,0,0,0,0,0,0,0,0,0,0,0,0,0,0,0,
515,-8.302,-12.92,0.2893,-10.68,-7.673,-21.01,0.2361,-0.565,-14.06,-10.23,-2.842,-5.416,-10.42,-10.82,-7.962,-13.32,0,0,0,0,0,0,0,0,0,0,0,0,0,0,0,0,
516,-15.1,-29.04,-13.41,-21.07,-21.54,-31.26,-14.97,-8.552,-25.34,-14.86,-8.264,-4.952,-13.48,-8.823,-7.178,-7.469,0,0,0,0,0,0,0,0,0,0,0,0,0,0,0,0,
517,-7.001,-13.72,10.67,-0.0837,-1.273,-11.44,1.64,9.273,-16.43,1.944,7.207,9.474,2.579,6.308,2.528,4.429,0,0,0,0,0,0,0,0,0,0,0,0,0,0,0,0,
518,-6.972,-13.26,14.15,-6.023,-2.155,-14.21,-5.851,-1.605,-4.876,11.79,-6.65,-6.001,-6.284,-7.437,-13.84,-11.45,0,0,0,0,0,0,0,0,0,0,0,0,0,0,0,0,
519,-17.22,-29.1,7.996,-16.49,-5.811,-14.81,-7.273,-5.12,-16.87,-0.8767,-4.513,0.6531,2.636,-0.3337,-0.6596,0.5114,0,0,0,0,0,0,0,0,0,0,0,0,0,0,0,0,
520,1.208,-6.51,30.29,3.53,15.58,12.06,9.992,6.723,0.9745,16.81,10.77,6.428,16.2,8.189,7.118,2.509,0,0,0,0,0,0,0,0,0,0,0,0,0,0,0,0,
521,0.9151,-2.062,17.08,0.6556,-1.595,3.386,-6.019,-13.18,-1.385,7.381,-7.632,-15.07,-7.138,-15.32,-11.85,-16.9,0,0,0,0,0,0,0,0,0,0,0,0,0,0,0,0,
522,-8.269,-2.024,10.68,4.713,-7.542,1.262,-5.383,-6.583,-18.74,-10.28,-5.572,-3.207,-7.999,-9.781,-6.242,-4.662,0,0,0,0,0,0,0,0,0,0,0,0,0,0,0,0,
523,-2.721,3.289,15.12,2.988,-3.205,3.334,-10.77,-2.354,-10.89,-2.215,-11.41,-3.98,-16.46,-12.38,-19.06,-14.18,0,0,0,0,0,0,0,0,0,0,0,0,0,0,0,0,
524,-19.26,-13.06,-1.047,-16.81,-19.3,-15.74,-27.89,-15.54,-26.69,-21.37,-24.52,-10.93,-31.27,-21.61,-24.72,-20.41,0,0,0,0,0,0,0,0,0,0,0,0,0,0,0,0,
525,-22.96,-4.507,13.21,-5.992,-6.502,-10.18,-7.163,0.781,-28.47,-20.22,-10.57,3.393,-16.67,-7.715,-10.13,-6.742,0,0,0,0,0,0,0,0,0,0,0,0,0,0,0,0,
526,-19.58,-6.78,10.85,-7.187,-10.91,-13.76,-14.24,-4.431,-21.91,-9.517,-24.16,-10.43,-25.39,-17.7,-23.68,-21.73,0,0,0,0,0,0,0,0,0,0,0,0,0,0,0,0,
527,-28.57,-22.98,-6.551,-9.18,-23.4,-15.48,-27.93,-7.803,-39.2,-20.84,-25.71,-10.34,-23.01,-14.24,-15.23,-16.84,0,0,0,0,0,0,0,0,0,0,0,0,0,0,0,0,
528,-17.99,-13.39,0.2476,2.555,-11.55,-2.369,-17.09,1.621,-29.67,-7.886,-13.22,-7.877,-11.09,-7.014,-9.913,-14.35,0,0,0,0,0,0,0,0,0,0,0,0,0,0,0,0,
529,-23.67,-25.69,-14.93,-13.62,-24.51,-18.41,-30.84,-15.14,-30.95,-12.49,-30.67,-24.92,-27.33,-23.05,-24.87,-26.53,0,0,0,0,0,0,0,0,0,0,0,0,0,0,0,0,
530,-33.79,-26.34,-11.94,-9.401,-20.98,-14.13,-28.99,-7.245,-39.39,-19.47,-23.48,-9.024,-18.22,-9.437,-8.788,-7.373,0,0,0,0,0,0,0,0,0,0,0,0,0,0,0,0,
531,-23.82,-13.27,-0.4897,-3.807,-13.1,-5.993,-25.26,-6.431,-25.04,-4.682,-21.46,-8.322,-15.56,-7.781,-10.31,-9.222,0,0,0,0,0,0,0,0,0,0,0,0,0,0,0,0,
532,-32.1,-28.14,-14.34,-17.29,-26.24,-20.33,-32.18,-20.69,-33.16,-16.82,-27.85,-14.01,-20.64,-15.29,-12.18,-12.46,0,0,0,0,0,0,0,0,0,0,0,0,0,0,0,0,
533,-29.14,-18.81,1.823,-1.475,-7.005,-6.859,-12.49,-3.477,-24.78,-11.34,-5.934,2.01,-1.617,-2.329,2.134,-2.375,0,0,0,0,0,0,0,0,0,0,0,0,0,0,0,0,
534,-18.68,-13.22,7.044,-0.5519,-1.679,-3.971,-12.87,-7.295,-10.83,-3.7,-10.26,-7.662,-10.44,-12.48,-10.42,-16.04,0,0,0,0,0,0,0,0,0,0,0,0,0,0,0,0,
535,-24.49,-16.2,-0.1879,-0.1285,-4.008,-1.33,-12.73,-4.964,-19.84,-15.16,-10.72,1.748,-10.77,-3.354,-4.341,-2.237,0,0,0,0,0,0,0,0,0,0,0,0,0,0,0,0,
536,-17.49,5.409,6.176,13.62,7.434,12.7,-7.961,8.217,-5.719,0.7487,-6.228,11.25,-6.348,6.59,-6.22,2.654,0,0,0,0,0,0,0,0,0,0,0,0,0,0,0,0,
537,-19.44,-5.723,-16.73,-5.284,-15.32,-7.752,-34.44,-13.07,-16.66,-9.641,-30.18,-10.78,-31.8,-18.2,-26.75,-19.05,0,0,0,0,0,0,0,0,0,0,0,0,0,0,0,0,
538,-18.2,-13.24,-13.74,1.092,-12.87,-3.061,-27.16,-5.069,-33.74,-21.55,-23.8,-3.127,-24.49,-11.99,-13.12,-9.834,0,0,0,0,0,0,0,0,0,0,0,0,0,0,0,0,
539,-3.606,-1.121,2.567,15.03,1.292,11.87,-15.52,4.479,-15.78,-1.584,-20.66,-5.261,-21.66,-9.871,-17.1,-15.09,0,0,0,0,0,0,0,0,0,0,0,0,0,0,0,0,
540,-12.14,-12.68,-11.33,0.2476,-14.67,-1.185,-26.91,-10.68,-26.84,-14.07,-27.54,-17.56,-33.74,-18.73,-18.72,-16.98,0,0,0,0,0,0,0,0,0,0,0,0,0,0,0,0,
541,-8.579,-2.37,1.66,7.771,-2.843,8.723,-14.7,-5.423,-28.2,-14.63,-8.633,-12.42,-17.65,-7.38,-0.4064,-3.898,0,0,0,0,0,0,0,0,0,0,0,0,0,0,0,0,
542,-0.2129,5.891,2.721,3.42,-1.973,4.977,-19.2,-17.06,-14.49,-6.886,-15.7,-29.1,-20.38,-20.25,-12.01,-20.76,0,0,0,0,0,0,0,0,0,0,0,0,0,0,0,0,
543,-9.85,-0.9571,-7.62,-4.229,-10.78,-5.295,-18.06,-17.4,-23.47,-21.59,-15.33,-25.49,-16.3,-21.05,-6.263,-16.06,0,0,0,0,0,0,0,0,0,0,0,0,0,0,0,0,
544,-3.517,5.274,5.122,1.844,0.823,3.236,-5.929,-4.053,-11.3,-10.02,-5.127,-18.0,-4.837,-12.96,-2.122,-12.26,0,0,0,0,0,0,0,0,0,0,0,0,0,0,0,0,
545,-3.246,-10.68,-3.638,-18.13,-10.43,-10.15,-22.85,-22.64,-12.96,-14.37,-19.19,-32.97,-18.42,-26.9,-16.46,-25.78,0,0,0,0,0,0,0,0,0,0,0,0,0,0,0,0,
546,-2.321,-9.457,7.061,-16.48,-4.302,-5.2,-8.363,-16.67,-23.02,-25.75,-5.343,-19.09,-8.547,-17.36,-3.529,-11.28,0,0,0,0,0,0,0,0,0,0,0,0,0,0,0,0,
547,8.298,3.289,21.44,-9.684,4.845,2.149,3.976,-9.503,-9.395,-13.04,-4.18,-19.16,-8.343,-17.08,-9.865,-16.7,0,0,0,0,0,0,0,0,0,0,0,0,0,0,0,0,
548,-2.059,-10.68,3.832,-21.3,-9.412,-12.83,-13.26,-15.79,-17.55,-21.72,-18.49,-23.24,-17.73,-19.8,-13.5,-18.04,0,0,0,0,0,0,0,0,0,0,0,0,0,0,0,0,
549,0.7603,0.2693,13.3,-6.421,1.647,-4.735,-6.454,0.8275,-12.79,-16.47,-5.677,-4.474,-3.698,-1.102,2.528,1.212,0,0,0,0,0,0,0,0,0,0,0,0,0,0,0,0,
550,7.742,-3.456,9.748,-9.224,-6.511,-11.7,-15.89,-10.26,-5.927,-8.883,-18.1,-12.81,-15.65,-8.663,-8.612,-8.42,0,0,0,0,0,0,0,0,0,0,0,0,0,0,0,0,
551,2.75,-21.34,-4.465,-15.57,-17.5,-16.91,-22.14,-16.06,-23.53,-18.86,-23.17,-11.5,-18.27,-6.394,-4.554,-6.584,0,0,0,0,0,0,0,0,0,0,0,0,0,0,0,0,
552,13.83,-4.353,6.518,-0.6477,-2.407,-1.19,-11.24,-3.423,-14.05,-4.856,-15.08,-10.46,-10.9,-0.8488,-6.163,-9.079,0,0,0,0,0,0,0,0,0,0,0,0,0,0,0,0,
553,9.784,-7.431,-2.036,-4.749,-11.69,-9.167,-22.6,-15.16,-15.81,-8.851,-25.25,-23.94,-22.93,-11.99,-18.78,-17.31,0,0,0,0,0,0,0,0,0,0,0,0,0,0,0,0,
554,9.561,-1.585,8.482,9.476,1.27,7.849,-8.607,-3.036,-16.1,-7.108,-4.524,-4.547,-3.597,7.234,2.057,5.249,0,0,0,0,0,0,0,0,0,0,0,0,0,0,0,0,
555,26.65,17.32,20.54,15.97,15.73,23.6,0.8675,0.7921,9.513,15.91,1.065,-6.87,0.818,7.493,-3.222,-1.009,0,0,0,0,0,0,0,0,0,0,0,0,0,0,0,0,
556,14.89,-2.028,1.041,-3.629,-4.383,0.6015,-10.08,-12.96,-2.067,-0.0509,-9.758,-16.01,-12.62,-3.609,-8.945,-5.545,0,0,0,0,0,0,0,0,0,0,0,0,0,0,0,0,
557,6.049,-7.286,7.687,3.891,0.7925,-1.411,4.192,0.1804,-5.952,-4.745,8.662,-0.9722,0.8859,7.487,8.685,10.19,0,0,0,0,0,0,0,0,0,0,0,0,0,0,0,0,
558,1.187,-10.81,-1.431,-3.615,-6.227,-9.211,-2.714,-10.64,0.7065,-5.41,1.761,-13.92,-6.713,-6.561,-0.2086,-2.828,0,0,0,0,0,0,0,0,0,0,0,0,0,0,0,0,
559,-10.32,-18.34,-16.54,-9.943,-15.55,-12.58,-4.441,-12.59,-13.34,-22.16,3.195,-8.909,-4.039,-3.787,9.135,2.994,0,0,0,0,0,0,0,0,0,0,0,0,0,0,0,0,
560,0.935,-3.947,-3.31,3.776,-0.5718,4.28,9.101,2.419,0.7963,-6.548,16.01,1.316,6.274,4.017,13.65,4.51,0,0,0,0,0,0,0,0,0,0,0,0,0,0,0,0,
561,-0.9195,-17.16,-17.1,-10.15,-12.62,-7.635,-6.314,-15.23,-1.038,-12.68,-1.409,-12.78,-12.08,-15.54,-2.72,-8.83,0,0,0,0,0,0,0,0,0,0,0,0,0,0,0,0,
562,-1.99,-20.58,-11.85,-4.924,-5.939,-4.076,1.156,-8.567,-13.05,-22.07,4.09,3.045,-4.897,-4.255,7.57,7.223,0,0,0,0,0,0,0,0,0,0,0,0,0,0,0,0,
563,12.03,-6.779,3.647,0.648,4.201,1.785,-0.7742,-2.638,1.516,-3.251,-1.259,1.412,-7.797,-3.812,-6.615,-4.088,0,0,0,0,0,0,0,0,0,0,0,0,0,0,0,0,
564,1.358,-15.65,-11.74,-16.46,-12.29,-13.82,-18.97,-13.56,-9.32,-17.03,-17.07,-9.672,-22.37,-15.39,-18.1,-11.81,0,0,0,0,0,0,0,0,0,0,0,0,0,0,0,0,
565,7.56,-1.787,0.826,-0.8815,2.778,0.7675,6.549,3.96,-5.854,-16.84,1.968,6.478,-6.513,-1.654,-1.172,8.069,0,0,0,0,0,0,0,0,0,0,0,0,0,0,0,0,
566,23.71,-0.3503,4.73,2.186,3.02,1.806,7.63,-0.2792,8.647,-4.239,-3.42,-3.201,-13.16,-10.93,-11.22,-3.429,0,0,0,0,0,0,0,0,0,0,0,0,0,0,0,0,
567,17.19,-15.56,-0.4396,-3.876,-4.62,-5.141,-4.019,-4.121,-3.545,-12.6,-6.431,-5.572,-14.29,-10.13,-6.724,-3.589,0,0,0,0,0,0,0,0,0,0,0,0,0,0,0,0,
568,20.37,-3.146,14.47,5.131,12.27,6.911,8.03,4.303,6.752,0.6692,6.231,-2.439,-1.966,0.2696,1.248,-1.059,0,0,0,0,0,0,0,0,0,0,0,0,0,0,0,0,
569,11.83,-9.464,-2.363,-6.657,-1.143,-3.399,-0.5801,-12.13,7.206,-1.591,-2.313,-14.62,-9.486,-11.29,-7.146,-12.39,0,0,0,0,0,0,0,0,0,0,0,0,0,0,0,0,
570,2.644,-8.828,-5.715,1.541,-4.524,-0.7848,1.355,-2.821,0.0899,-7.016,6.057,-2.494,0.5843,-4.58,1.093,-5.199,0,0,0,0,0,0,0,0,0,0,0,0,0,0,0,0,
571,9.83,-2.95,2.288,6.672,-1.698,-1.157,-2.752,-0.7664,9.618,4.156,-1.363,-9.486,-7.331,-10.81,-13.15,-18.58,0,0,0,0,0,0,0,0,0,0,0,0,0,0,0,0,
572,-0.3126,-25.06,-13.3,-9.969,-16.37,-18.67,-17.41,-16.95,-7.767,-10.87,-15.42,-14.93,-20.49,-16.36,-15.23,-17.45,0,0,0,0,0,0,0,0,0,0,0,0,0,0,0,0,
573,1.078,-16.87,-5.793,2.126,-3.425,-6.924,-5.923,-5.059,-6.716,-4.443,-0.5552,7.444,-3.898,1.346,4.351,4.461,0,0,0,0,0,0,0,0,0,0,0,0,0,0,0,0,
574,2.54,-15.35,-16.77,-4.83,-13.19,-16.94,-17.82,-14.29,-1.194,0.9267,-12.4,2.096,-15.69,-7.707,-6.56,-4.125,0,0,0,0,0,0,0,0,0,0,0,0,0,0,0,0,
575,-12.76,-31.75,-30.18,-16.97,-26.61,-30.65,-20.9,-14.18,-22.5,-17.89,-11.47,8.919,-16.49,-1.085,1.819,5.457,0,0,0,0,0,0,0,0,0,0,0,0,0,0,0,0,
576,-6.746,-20.35,-11.99,-8.178,-9.273,-17.97,-6.769,2.909,-11.77,-4.298,-0.8771,12.33,-6.002,6.592,3.379,4.335,0,0,0,0,0,0,0,0,0,0,0,0,0,0,0,0,
577,-8.202,-26.58,-26.29,-22.6,-22.01,-28.41,-26.03,-12.01,-14.72,-10.09,-22.53,-11.37,-24.94,-16.4,-15.69,-18.27,0,0,0,0,0,0,0,0,0,0,0,0,0,0,0,0,
578,-10.63,-23.44,-29.52,-16.13,-21.62,-19.17,-20.29,-3.673,-28.1,-20.79,-11.8,-2.164,-14.79,-9.464,-0.187,-7.145,0,0,0,0,0,0,0,0,0,0,0,0,0,0,0,0,
579,-0.8415,-11.32,-20.53,-6.58,-13.43,-8.048,-11.76,1.267,-11.09,-3.537,-4.515,-4.423,-9.254,-10.47,-3.303,-13.38,0,0,0,0,0,0,0,0,0,0,0,0,0,0,0,0,
580,-11.96,-29.44,-34.62,-19.57,-26.87,-24.05,-20.02,-13.06,-17.3,-14.88,-14.85,-11.2,-17.95,-16.67,-8.421,-16.72,0,0,0,0,0,0,0,0,0,0,0,0,0,0,0,0,
581,-5.343,-18.05,-17.39,-6.271,-7.153,-10.4,-0.8945,1.219,-11.44,-9.268,0.1143,6.9,-2.325,3.144,4.753,-0.4528,0,0,0,0,0,0,0,0,0,0,0,0,0,0,0,0,
582,7.394,-7.183,-12.61,-8.056,-1.946,-7.59,-7.006,-4.347,4.68,6.766,-7.369,-3.892,-8.468,-3.865,-9.452,-10.67,0,0,0,0,0,0,0,0,0,0,0,0,0,0,0,0,
583,-0.9591,-14.64,-19.79,-11.87,-7.596,-11.29,-7.078,-7.282,-2.587,-0.0894,-3.914,-1.009,-2.24,4.126,0.5347,2.865,0,0,0,0,0,0,0,0,0,0,0,0,0,0,0,0,
584,8.797,-2.409,-2.193,2.75,9.78,4.552,18.71,5.233,15.68,16.76,12.75,11.05,14.06,22.72,11.9,15.71,0,0,0,0,0,0,0,0,0,0,0,0,0,0,0,0,
585,6.625,-16.87,-16.64,-13.15,-3.804,-6.897,5.1,-7.252,16.36,14.87,-3.718,0.7171,-2.613,11.09,-1.977,6.779,0,0,0,0,0,0,0,0,0,0,0,0,0,0,0,0,
586,-5.845,-25.18,-20.69,-12.0,-5.644,-4.32,0.4249,4.639,0.9462,6.822,0.2351,15.55,3.705,25.04,10.27,24.67,0,0,0,0,0,0,0,0,0,0,0,0,0,0,0,0,
587,2.399,-10.65,-5.086,0.7976,5.942,5.341,3.428,12.91,12.75,25.54,1.234,16.55,7.193,30.17,6.924,23.26,0,0,0,0,0,0,0,0,0,0,0,0,0,0,0,0,
588,2.284,-17.3,-13.48,-4.993,-5.185,-9.587,-6.944,1.704,4.153,16.26,-8.743,6.885,-1.718,9.498,0.1147,15.36,0,0,0,0,0,0,0,0,0,0,0,0,0,0,0,0,
589,6.358,-12.42,-7.396,4.16,1.446,-7.304,5.149,12.27,3.266,9.047,5.563,14.18,12.08,-0.2391,11.02,16.97,0,0,0,0,0,0,0,0,0,0,0,0,0,0,0,0,
590,7.924,-16.41,-9.789,-4.244,-3.053,-12.37,2.656,2.631,13.12,5.338,2.15,-0.1359,8.14,-18.01,3.082,-3.359,0,0,0,0,0,0,0,0,0,0,0,0,0,0,0,0,
591,-3.051,-21.43,-12.39,-6.63,-5.575,-10.78,3.916,-0.7155,7.0,-6.323,7.341,-1.825,11.83,-14.92,9.845,0.2213,0,0,0,0,0,0,0,0,0,0,0,0,0,0,0,0,
592,-0.497,0.338,-0.2757,7.626,7.252,1.908,12.12,6.253,16.53,5.348,11.1,-5.81,13.63,-13.41,4.188,-3.079,0,0,0,0,0,0,0,0,0,0,0,0,0,0,0,0,
593,-5.746,-9.355,-17.43,-9.93,-11.78,-17.17,-9.325,-9.914,2.649,-9.428,-11.06,-21.03,-11.03,-31.99,-13.19,-20.54,0,0,0,0,0,0,0,0,0,0,0,0,0,0,0,0,
594,-0.6643,-16.67,-11.38,-8.009,-8.94,-12.18,-5.115,3.65,-11.42,-19.91,2.382,-1.047,-3.294,-17.39,3.289,-4.246,0,0,0,0,0,0,0,0,0,0,0,0,0,0,0,0,
595,15.89,-10.2,2.904,-2.155,2.145,-3.833,1.399,6.585,4.928,-1.833,3.784,-6.223,-3.859,-16.13,-6.476,-9.304,0,0,0,0,0,0,0,0,0,0,0,0,0,0,0,0,
596,1.931,-21.65,-10.5,-13.99,-9.503,-20.64,-6.2,-6.721,-5.368,-14.49,-10.57,-17.12,-16.89,-24.75,-14.34,-13.03,0,0,0,0,0,0,0,0,0,0,0,0,0,0,0,0,
597,-1.439,-3.718,2.239,3.513,4.211,-6.945,6.642,12.25,-3.841,-9.907,6.683,2.037,-4.582,-12.27,1.333,0.0672,0,0,0,0,0,0,0,0,0,0,0,0,0,0,0,0,
598,5.788,1.597,0.0658,-0.7216,-2.643,-6.293,-5.346,1.969,1.685,-0.0027,-0.921,-7.604,-14.89,-22.02,-11.86,-14.12,0,0,0,0,0,0,0,0,0,0,0,0,0,0,0,0,
599,4.405,-15.25,-6.931,-13.08,-12.61,-10.75,-7.893,-6.349,-14.86,-10.34,-3.286,-3.851,-10.77,-13.33,-6.684,-4.676,0,0,0,0,0,0,0,0,0,0,0,0,0,0,0,0,
600,15.32,-7.444,8.204,-3.518,2.671,6.053,1.356,6.045,1.028,9.0,4.696,7.557,4.993,0.3287,-3.846,2.963,0,0,0,0,0,0,0,0,0,0,0,0,0,0,0,0,
601,6.638,-12.01,-6.303,-14.01,-8.383,-1.983,-17.82,-7.251,4.13,6.936,-9.64,-0.7312,-4.997,-9.508,-15.41,-3.848,0,0,0,0,0,0,0,0,0,0,0,0,0,0,0,0,
602,2.415,1.509,4.13,-2.795,4.784,6.066,4.733,4.804,2.319,1.089,8.671,18.91,13.19,12.47,8.868,21.05,0,0,0,0,0,0,0,0,0,0,0,0,0,0,0,0,
603,17.08,18.71,19.03,7.119,17.91,13.65,19.69,9.288,25.34,24.05,11.88,17.04,17.92,18.23,9.297,18.51,0,0,0,0,0,0,0,0,0,0,0,0,0,0,0,0,
604,3.705,-6.939,-6.929,-10.83,-5.707,-5.397,-6.607,-8.646,11.38,14.17,-5.101,4.623,5.128,6.439,3.712,10.02,0,0,0,0,0,0,0,0,0,0,0,0,0,0,0,0,
605,-0.9003,-6.958,1.924,-2.122,5.159,2.028,4.564,4.826,8.653,11.43,12.56,18.02,19.51,15.29,18.43,18.74,0,0,0,0,0,0,0,0,0,0,0,0,0,0,0,0,
606,-0.8404,-3.925,4.931,-5.817,4.993,-3.393,6.377,0.3744,20.25,12.74,5.691,6.211,8.527,0.297,3.467,0.589,0,0,0,0,0,0,0,0,0,0,0,0,0,0,0,0,
607,-17.19,-12.25,-8.457,-8.512,-6.483,-8.811,-1.857,-0.1361,4.835,-4.499,-1.214,7.907,5.53,0.4704,5.841,5.468,0,0,0,0,0,0,0,0,0,0,0,0,0,0,0,0,
608,-9.578,5.494,5.162,13.74,10.97,12.14,6.662,15.81,16.59,11.17,7.713,15.97,17.86,12.59,11.7,11.56,0,0,0,0,0,0,0,0,0,0,0,0,0,0,0,0,
609,-8.827,-3.526,-5.797,7.346,1.224,5.055,-6.006,3.414,19.49,14.03,-5.805,1.439,3.666,3.121,-1.44,-0.8809,0,0,0,0,0,0,0,0,0,0,0,0,0,0,0,0,
610,-13.56,-9.588,-6.721,9.996,0.756,8.686,1.031,11.33,8.528,9.382,4.151,10.55,11.33,15.93,9.676,11.86,0,0,0,0,0,0,0,0,0,0,0,0,0,0,0,0,
611,0.3306,5.955,7.75,17.52,12.44,18.14,9.425,13.37,21.08,24.1,7.784,5.478,12.95,12.87,4.623,4.569,0,0,0,0,0,0,0,0,0,0,0,0,0,0,0,0,
612,-3.268,-0.1245,-1.271,7.834,1.768,3.253,-0.8122,0.6761,11.94,11.95,-1.21,0.8414,3.772,1.652,4.033,2.518,0,0,0,0,0,0,0,0,0,0,0,0,0,0,0,0,
613,-6.272,4.319,6.427,16.08,9.867,5.805,10.14,18.05,11.31,13.39,13.67,19.54,16.49,13.1,18.75,17.93,0,0,0,0,0,0,0,0,0,0,0,0,0,0,0,0,
614,-6.373,-1.252,0.1601,5.207,4.352,-0.7493,2.938,10.09,16.79,15.79,3.783,6.801,4.137,-1.388,1.735,1.366,0,0,0,0,0,0,0,0,0,0,0,0,0,0,0,0,
615,-10.99,-4.35,-10.46,1.638,-2.466,0.364,-2.274,5.242,2.579,0.46,1.371,7.814,6.002,0.9172,6.567,5.89,0,0,0,0,0,0,0,0,0,0,0,0,0,0,0,0,
616,3.062,25.87,2.467,24.24,13.61,20.66,7.837,21.38,17.8,20.82,12.24,15.91,25.61,17.2,14.36,13.14,0,0,0,0,0,0,0,0,0,0,0,0,0,0,0,0,
617,5.943,22.06,-8.008,17.46,5.573,12.88,-0.1403,8.288,24.01,26.48,-1.842,1.556,14.97,8.554,-1.202,1.107,0,0,0,0,0,0,0,0,0,0,0,0,0,0,0,0,
618,9.618,15.2,-0.3259,21.62,13.33,22.54,15.87,11.17,17.55,20.74,3.775,12.76,16.12,17.18,4.727,12.24,0,0,0,0,0,0,0,0,0,0,0,0,0,0,0,0,
619,21.87,26.61,12.43,25.99,21.37,31.35,19.26,11.8,23.63,30.55,1.219,9.589,10.86,14.01,0.295,7.421,0,0,0,0,0,0,0,0,0,0,0,0,0,0,0,0,
620,11.8,19.21,-2.95,9.641,5.942,14.99,0.3384,0.6074,7.843,16.56,-3.614,2.176,8.051,11.15,9.429,9.713,0,0,0,0,0,0,0,0,0,0,0,0,0,0,0,0,
621,17.2,29.11,8.475,17.29,18.3,24.11,9.596,13.69,14.81,23.6,16.25,15.23,28.33,29.89,30.78,22.91,0,0,0,0,0,0,0,0,0,0,0,0,0,0,0,0,
622,23.79,28.01,7.425,10.93,12.16,16.77,-0.2012,3.215,23.31,29.61,1.975,2.985,13.03,17.68,14.22,5.897,0,0,0,0,0,0,0,0,0,0,0,0,0,0,0,0,
623,14.23,18.26,3.464,6.288,4.638,9.809,-0.4869,2.784,3.883,11.34,2.83,10.29,9.905,19.73,20.93,16.81,0,0,0,0,0,0,0,0,0,0,0,0,0,0,0,0,
624,23.9,27.89,25.23,18.53,23.6,28.46,18.62,19.13,19.47,26.11,23.0,18.59,23.7,28.73,26.1,21.52,0,0,0,0,0,0,0,0,0,0,0,0,0,0,0,0,
625,15.2,7.468,11.89,6.208,6.36,18.66,2.144,5.753,20.17,22.97,4.64,0.4876,4.593,11.64,2.501,0.7812,0,0,0,0,0,0,0,0,0,0,0,0,0,0,0,0,
626,1.346,8.71,9.712,17.21,-0.1074,20.01,1.551,16.51,1.222,10.18,1.802,14.71,3.736,21.42,6.416,13.72,0,0,0,0,0,0,0,0,0,0,0,0,0,0,0,0,
627,12.02,31.73,20.52,23.35,5.804,20.01,2.283,18.9,6.325,18.33,-1.453,12.66,-0.1497,14.8,-1.878,6.607,0,0,0,0,0,0,0,0,0,0,0,0,0,0,0,0,
628,9.802,14.39,8.887,1.337,-4.803,-2.111,-5.354,0.3079,-5.544,-1.52,-7.921,-1.407,-7.766,-2.831,-6.273,-5.01,0,0,0,0,0,0,0,0,0,0,0,0,0,0,0,0,
629,15.4,17.13,24.7,14.86,13.81,11.75,17.73,15.26,2.72,0.8134,12.62,11.95,12.1,13.25,9.428,8.719,0,0,0,0,0,0,0,0,0,0,0,0,0,0,0,0,
630,21.21,25.13,24.01,17.51,14.14,16.97,10.38,10.78,20.2,17.52,5.074,4.068,5.999,9.276,-4.589,-0.3257,0,0,0,0,0,0,0,0,0,0,0,0,0,0,0,0,
631,12.04,16.26,9.093,8.4,3.703,11.27,-1.745,3.097,6.601,9.066,1.863,3.793,4.08,7.03,-4.098,0.7407,0,0,0,0,0,0,0,0,0,0,0,0,0,0,0,0,
632,16.56,23.11,14.7,15.28,12.25,20.77,4.804,8.371,12.22,16.78,9.883,5.447,12.44,10.99,1.993,2.541,0,0,0,0,0,0,0,0,0,0,0,0,0,0,0,0,
633,4.694,11.37,-6.103,1.829,-5.173,8.586,-12.53,-8.817,8.972,9.032,-3.769,-6.12,3.409,3.897,0.4744,0.2754,0,0,0,0,0,0,0,0,0,0,0,0,0,0,0,0,
634,-5.364,10.74,-5.346,5.106,0.2186,13.61,-0.4923,-0.3033,4.312,5.043,9.646,11.69,20.37,22.62,20.61,20.13,0,0,0,0,0,0,0,0,0,0,0,0,0,0,0,0,
635,6.957,20.3,9.102,6.84,12.38,18.4,11.0,4.639,20.53,22.81,11.08,8.273,19.53,19.48,11.39,7.719,0,0,0,0,0,0,0,0,0,0,0,0,0,0,0,0,
636,2.864,7.353,-4.987,-5.78,-1.823,5.09,-3.571,-3.35,7.586,11.28,-0.5762,-1.257,6.536,7.266,5.633,-2.339,0,0,0,0,0,0,0,0,0,0,0,0,0,0,0,0,
637,8.812,20.96,5.849,17.05,13.61,25.23,7.804,17.41,12.77,17.59,13.58,12.09,22.01,19.64,18.45,5.905,0,0,0,0,0,0,0,0,0,0,0,0,0,0,0,0,
638,14.16,25.04,5.618,22.7,12.81,29.83,-0.2303,13.26,26.18,25.27,1.257,0.1345,10.34,8.343,2.809,-8.265,0,0,0,0,0,0,0,0,0,0,0,0,0,0,0,0,
639,5.115,16.48,2.232,18.52,5.385,24.88,-3.873,10.1,11.07,12.38,3.268,10.1,10.22,16.38,16.06,9.967,0,0,0,0,0,0,0,0,0,0,0,0,0,0,0,0,
640,18.14,30.57,25.89,26.61,23.58,33.01,17.92,16.36,23.21,32.59,20.97,23.72,23.92,31.49,30.1,23.51,0,0,0,0,0,0,0,0,0,0,0,0,0,0,0,0,
641,13.01,13.33,9.936,5.982,5.485,9.337,5.478,-4.858,18.5,27.97,4.81,7.234,4.644,14.2,15.29,8.912,0,0,0,0,0,0,0,0,0,0,0,0,0,0,0,0,
642,-2.935,6.431,-3.816,7.631,-5.441,5.019,-1.791,7.021,-2.356,9.126,8.402,18.6,6.411,19.66,22.11,19.79,0,0,0,0,0,0,0,0,0,0,0,0,0,0,0,0,
643,4.17,18.95,1.688,14.21,-0.7519,10.13,-4.343,13.44,5.499,15.82,4.702,14.79,4.175,12.31,8.145,6.98,0,0,0,0,0,0,0,0,0,0,0,0,0,0,0,0,
644,2.887,3.152,-3.883,-3.193,-9.73,-4.698,-11.43,-5.378,-2.846,-2.686,-8.146,0.2,-6.161,-5.491,-2.686,-6.293,0,0,0,0,0,0,0,0,0,0,0,0,0,0,0,0,
645,12.05,11.21,13.87,5.922,5.594,9.203,3.854,5.995,3.34,-3.676,9.209,8.684,10.88,3.72,10.62,2.605,0,0,0,0,0,0,0,0,0,0,0,0,0,0,0,0,
646,22.16,16.55,10.08,1.701,2.963,9.098,-4.441,-2.419,14.64,6.157,2.085,-5.947,6.053,-4.905,-0.6931,-12.67,0,0,0,0,0,0,0,0,0,0,0,0,0,0,0,0,
647,14.57,11.75,0.1747,-2.347,-1.908,4.257,-4.495,-8.241,1.177,-3.206,2.607,-4.604,10.68,2.85,9.873,-3.191,0,0,0,0,0,0,0,0,0,0,0,0,0,0,0,0,
648,18.62,31.13,19.3,15.7,16.16,20.24,7.573,5.322,16.37,14.71,15.47,4.203,24.24,19.16,21.07,9.984,0,0,0,0,0,0,0,0,0,0,0,0,0,0,0,0,
649,12.08,15.31,7.814,3.858,0.5321,4.721,-12.57,-8.186,17.01,15.68,-1.019,-6.399,7.248,9.466,9.25,3.455,0,0,0,0,0,0,0,0,0,0,0,0,0,0,0,0,
650,7.981,4.479,4.882,3.623,-3.017,-1.314,-0.9395,-2.397,2.034,7.208,3.354,9.211,9.714,21.47,19.2,19.88,0,0,0,0,0,0,0,0,0,0,0,0,0,0,0,0,
651,17.92,20.39,11.18,6.65,2.438,1.721,11.05,1.229,10.1,16.94,0.6115,9.026,6.739,21.57,11.03,17.71,0,0,0,0,0,0,0,0,0,0,0,0,0,0,0,0,
652,11.56,9.453,-1.051,-7.995,-6.741,-7.623,-3.407,-6.451,1.313,2.948,-6.47,4.753,3.149,14.04,9.02,17.47,0,0,0,0,0,0,0,0,0,0,0,0,0,0,0,0,
653,18.71,12.6,16.7,4.896,15.76,7.308,9.849,13.4,12.16,8.648,14.82,16.98,24.41,24.26,22.23,25.55,0,0,0,0,0,0,0,0,0,0,0,0,0,0,0,0,
654,21.64,13.06,14.19,1.912,14.44,-0.9401,4.322,5.325,25.65,13.75,4.041,-4.238,10.56,6.571,3.348,2.219,0,0,0,0,0,0,0,0,0,0,0,0,0,0,0,0,
655,9.952,4.396,0.6291,-2.945,1.88,-11.93,0.8084,-1.304,7.068,-6.746,3.441,-2.966,6.698,6.047,11.59,8.093,0,0,0,0,0,0,0,0,0,0,0,0,0,0,0,0,
656,23.34,18.8,17.2,12.63,17.35,5.643,17.36,9.784,16.27,4.851,20.92,10.04,20.75,14.4,22.94,15.05,0,0,0,0,0,0,0,0,0,0,0,0,0,0,0,0,
657,24.49,8.181,8.149,-0.1587,9.222,-2.668,6.684,-5.723,17.24,3.034,8.877,-3.961,8.002,-2.185,10.42,-0.52,0,0,0,0,0,0,0,0,0,0,0,0,0,0,0,0,
658,25.37,5.707,13.78,3.547,19.32,1.881,20.26,3.038,11.4,-1.702,21.54,7.749,18.27,9.402,23.68,9.92,0,0,0,0,0,0,0,0,0,0,0,0,0,0,0,0,
659,40.69,19.88,26.0,13.84,32.32,13.84,30.7,8.217,28.9,19.25,24.4,3.778,17.19,6.737,12.3,-3.542,0,0,0,0,0,0,0,0,0,0,0,0,0,0,0,0,
660,26.64,6.844,5.921,4.831,13.77,6.888,12.15,-4.792,15.23,10.42,6.113,-9.074,0.8814,-8.476,-3.792,-16.93,0,0,0,0,0,0,0,0,0,0,0,0,0,0,0,0,
661,24.74,12.82,15.39,20.9,23.84,22.06,23.38,11.21,11.94,13.96,15.54,5.799,14.67,6.421,5.96,-3.55,0,0,0,0,0,0,0,0,0,0,0,0,0,0,0,0,
662,31.76,14.5,16.13,22.15,22.15,19.19,20.55,7.364,22.34,24.9,8.02,0.9209,11.23,5.875,-3.358,-8.672,0,0,0,0,0,0,0,0,0,0,0,0,0,0,0,0,
663,21.42,7.492,3.395,20.62,11.9,14.77,11.53,5.755,12.46,17.28,9.119,9.096,16.41,17.07,7.84,7.311,0,0,0,0,0,0,0,0,0,0,0,0,0,0,0,0,
664,31.7,26.02,12.6,35.21,23.01,31.28,21.46,17.15,25.53,35.55,21.58,20.07,28.06,31.45,17.61,20.37,0,0,0,0,0,0,0,0,0,0,0,0,0,0,0,0,
665,28.52,16.82,-4.294,19.05,5.902,16.02,12.37,1.305,20.39,32.61,8.544,10.11,11.97,20.24,7.298,15.52,0,0,0,0,0,0,0,0,0,0,0,0,0,0,0,0,
666,13.64,9.11,-5.288,15.59,5.142,13.85,15.5,8.937,6.117,20.8,17.22,25.46,21.94,31.61,21.32,34.28,0,0,0,0,0,0,0,0,0,0,0,0,0,0,0,0,
667,20.31,14.88,5.786,14.73,11.61,18.46,10.63,10.75,18.62,30.07,13.3,21.0,21.82,28.88,13.08,27.9,0,0,0,0,0,0,0,0,0,0,0,0,0,0,0,0,
668,17.95,-1.854,-11.66,-3.24,-6.718,2.239,-3.602,-4.185,4.71,13.75,0.2172,9.028,8.493,18.56,7.724,22.9,0,0,0,0,0,0,0,0,0,0,0,0,0,0,0,0,
669,21.88,1.743,-6.481,4.709,2.831,10.3,14.32,7.222,4.102,14.51,20.45,18.43,23.88,28.6,25.2,33.05,0,0,0,0,0,0,0,0,0,0,0,0,0,0,0,0,
670,26.24,-3.229,-9.493,-1.377,0.0708,6.285,13.04,-4.401,15.73,18.82,16.65,2.826,16.97,12.13,14.34,13.2,0,0,0,0,0,0,0,0,0,0,0,0,0,0,0,0,
671,19.12,-12.34,-15.45,-2.034,-4.808,2.437,13.26,-2.57,5.278,5.481,16.8,8.512,16.7,12.48,19.2,16.57,0,0,0,0,0,0,0,0,0,0,0,0,0,0,0,0,
672,25.65,6.653,-1.225,12.87,11.94,13.54,21.8,19.26,18.69,21.84,22.43,18.16,22.65,18.85,20.01,15.6,0,0,0,0,0,0,0,0,0,0,0,0,0,0,0,0,
673,14.81,-8.674,-20.54,-10.75,-6.805,-7.151,-0.5028,2.241,12.41,12.01,0.8569,1.126,0.6867,-1.077,4.235,-3.738,0,0,0,0,0,0,0,0,0,0,0,0,0,0,0,0,T1
674,4.432,-17.25,-21.98,-14.95,-9.26,-6.628,2.064,4.343,-5.037,-4.24,13.76,15.29,9.899,10.43,22.16,13.47,0,0,0,0,0,0,0,0,0,0,0,0,0,0,0,0,
675,10.03,-7.763,-10.55,-11.81,-2.352,-3.84,-1.69,4.439,5.973,8.387,17.85,10.28,12.46,7.061,15.53,6.69,0,0,0,0,0,0,0,0,0,0,0,0,0,0,0,0,
676,-7.945,-30.4,-29.99,-31.59,-23.89,-28.48,-19.52,-17.85,-10.42,-13.63,-1.586,-10.55,-5.508,-13.5,-0.7885,-9.252,0,0,0,0,0,0,0,0,0,0,0,0,0,0,0,0,
677,-11.98,-25.84,-24.64,-17.57,-15.86,-15.61,2.324,-11.78,-16.25,-21.92,5.379,-2.754,0.0952,-4.869,4.786,-1.488,0,0,0,0,0,0,0,0,0,0,0,0,0,0,0,0,
678,-7.134,-18.76,-28.4,-13.97,-17.52,-11.47,-3.912,-18.17,-9.113,-11.35,-7.18,-12.09,-10.9,-13.48,-9.023,-12.65,0,0,0,0,0,0,0,0,0,0,0,0,0,0,0,0,
679,-16.74,-31.62,-35.57,-21.69,-25.83,-24.18,-14.85,-15.03,-24.48,-19.68,-8.801,-7.908,-10.0,-13.88,-3.593,-6.816,0,0,0,0,0,0,0,0,0,0,0,0,0,0,0,0,
680,-6.255,-21.69,-11.91,-11.79,-7.133,-18.0,2.797,2.338,-13.24,-9.579,4.668,-0.019,-1.758,-9.351,-1.821,-5.789,0,0,0,0,0,0,0,0,0,0,0,0,0,0,0,0,
681,-7.119,-27.99,-17.91,-20.42,-13.85,-25.79,-6.042,-13.02,-13.4,-17.49,-9.851,-13.13,-21.47,-24.14,-17.12,-19.05,0,0,0,0,0,0,0,0,0,0,0,0,0,0,0,0,
682,-14.58,-26.08,-18.71,-11.08,-12.07,-15.86,-0.2535,-6.225,-26.58,-26.77,-1.566,0.4443,-14.76,-11.41,-3.445,-4.267,0,0,0,0,0,0,0,0,0,0,0,0,0,0,0,0,
683,-8.021,-14.46,-12.63,-5.424,-10.27,-13.14,0.5306,-2.783,-20.18,-15.93,-2.469,-3.636,-17.51,-14.78,-12.59,-14.61,0,0,0,0,0,0,0,0,0,0,0,0,0,0,0,0,
684,-21.39,-34.23,-30.22,-24.08,-30.79,-39.16,-20.73,-19.51,-38.17,-36.99,-16.77,-14.11,-30.05,-25.9,-20.0,-20.59,0,0,0,0,0,0,0,0,0,0,0,0,0,0,0,0,
685,-19.95,-28.73,-17.01,-11.98,-13.94,-28.86,-5.625,-7.238,-35.62,-35.74,-0.2575,-0.173,-9.803,-7.368,-5.681,-4.097,0,0,0,0,0,0,0,0,0,0,0,0,0,0,0,0,
686,-2.717,-18.5,-11.62,-9.232,-5.27,-20.65,-1.735,-12.3,-17.6,-19.28,-7.446,-15.52,-18.2,-18.58,-24.57,-23.16,0,0,0,0,0,0,0,0,0,0,0,0,0,0,0,0,
687,2.092,-18.34,-16.42,-7.484,-9.564,-18.9,-4.42,-14.94,-28.74,-27.35,-11.9,-18.96,-27.64,-26.11,-24.21,-25.87,0,0,0,0,0,0,0,0,0,0,0,0,0,0,0,0,
688,14.33,1.972,-2.236,12.01,3.017,-2.436,6.75,-3.843,-20.36,-14.35,-4.033,-12.71,-21.02,-18.8,-15.82,-20.45,0,0,0,0,0,0,0,0,0,0,0,0,0,0,0,0,
689,10.15,-5.521,-18.3,3.233,-8.129,-11.53,-8.5,-16.18,-19.92,-15.07,-20.17,-23.45,-32.05,-25.37,-26.24,-27.7,0,0,0,0,0,0,0,0,0,0,0,0,0,0,0,0,
690,7.705,-3.494,-19.23,13.76,-0.019,-1.584,-7.399,-0.5463,-22.09,-16.33,-11.39,-4.516,-16.29,-6.539,-12.3,-7.861,0,0,0,0,0,0,0,0,0,0,0,0,0,0,0,0,
691,27.95,20.59,-4.503,30.2,14.67,16.9,0.3905,10.07,2.163,5.564,-7.57,-0.4486,-5.81,0.8697,-14.37,-5.865,0,0,0,0,0,0,0,0,0,0,0,0,0,0,0,0,
692,30.56,15.03,-8.457,22.05,6.805,13.1,0.6523,0.4517,1.59,0.8181,-11.62,-5.55,-6.705,2.33,-12.5,-1.823,0,0,0,0,0,0,0,0,0,0,0,0,0,0,0,0,
693,35.57,24.44,15.2,35.83,25.11,29.47,18.36,16.84,10.59,13.17,11.42,10.15,16.63,27.24,11.1,20.12,0,0,0,0,0,0,0,0,0,0,0,0,0,0,0,0,
694,44.84,34.79,23.0,35.03,25.98,31.32,9.338,8.881,25.92,29.92,8.957,1.243,19.69,28.19,10.68,18.34,0,0,0,0,0,0,0,0,0,0,0,0,0,0,0,0,
695,47.39,31.38,18.27,31.05,22.19,29.03,10.9,4.574,17.79,21.34,13.52,6.864,28.01,36.55,25.19,33.2,0,0,0,0,0,0,0,0,0,0,0,0,0,0,0,0,
696,55.84,39.0,30.42,42.61,36.35,36.74,24.78,18.22,26.08,30.92,22.44,14.66,30.54,38.98,27.22,33.42,0,0,0,0,0,0,0,0,0,0,0,0,0,0,0,0,
697,41.79,27.62,9.542,26.4,13.54,15.21,-1.41,4.261,8.308,15.78,-1.71,0.7299,0.1328,13.4,6.205,12.82,0,0,0,0,0,0,0,0,0,0,0,0,0,0,0,0,
698,41.6,37.65,9.469,27.85,12.39,18.87,1.393,12.4,-12.17,0.4533,4.887,14.25,4.404,19.73,16.47,24.48,0,0,0,0,0,0,0,0,0,0,0,0,0,0,0,0,
699,63.74,54.09,22.95,28.95,22.52,24.64,8.876,13.2,3.075,12.25,5.368,5.857,4.759,12.93,5.915,11.65,0,0,0,0,0,0,0,0,0,0,0,0,0,0,0,0,
700,47.98,27.62,-2.289,5.405,-0.2331,2.071,-9.877,-4.874,-10.26,-7.066,-11.08,-8.299,-6.751,-2.302,-4.13,1.067,0,0,0,0,0,0,0,0,0,0,0,0,0,0,0,0,
701,35.23,25.66,-3.211,11.76,9.603,13.26,3.038,8.674,-7.779,-4.047,3.154,9.14,12.06,12.55,8.085,15.4,0,0,0,0,0,0,0,0,0,0,0,0,0,0,0,0,
702,39.59,32.42,1.196,9.893,17.47,15.27,-1.131,-0.1435,11.66,9.881,-5.923,-2.847,3.137,-2.241,-10.37,-2.212,0,0,0,0,0,0,0,0,0,0,0,0,0,0,0,0,
703,35.11,26.95,-7.311,7.512,10.82,11.18,-14.62,-6.192,-0.3036,-6.201,-9.762,-4.335,-0.4569,-7.0,-5.747,1.403,0,0,0,0,0,0,0,0,0,0,0,0,0,0,0,0,
704,34.79,32.33,-12.24,22.33,18.09,29.31,-2.295,10.1,9.312,6.997,4.061,6.12,14.33,6.985,6.432,11.5,0,0,0,0,0,0,0,0,0,0,0,0,0,0,0,0,
705,25.72,18.75,-23.79,13.54,9.902,20.15,-0.1574,-0.4633,12.45,8.961,-8.576,-7.839,-1.727,-6.501,-9.902,-5.562,0,0,0,0,0,0,0,0,0,0,0,0,0,0,0,0,
706,45.35,36.83,14.44,28.09,28.08,27.5,13.09,8.137,5.106,-3.056,-1.174,1.522,-0.6431,-0.5498,-3.585,1.517,0,0,0,0,0,0,0,0,0,0,0,0,0,0,0,0,
707,79.65,67.21,46.26,39.74,44.31,45.15,13.91,14.63,21.37,10.24,5.597,4.004,6.01,6.859,-1.453,4.062,0,0,0,0,0,0,0,0,0,0,0,0,0,0,0,0,
708,59.86,46.93,25.14,18.49,28.79,35.49,7.502,2.931,17.32,9.074,6.465,0.1251,9.069,5.566,2.904,6.96,0,0,0,0,0,0,0,0,0,0,0,0,0,0,0,0,
709,51.41,45.5,41.56,22.97,44.85,42.13,31.61,15.6,23.39,19.56,26.74,13.73,28.19,15.63,15.36,17.58,0,0,0,0,0,0,0,0,0,0,0,0,0,0,0,0,
710,65.51,45.22,52.76,14.98,47.82,38.82,26.07,9.529,36.05,30.8,18.54,8.664,24.29,11.33,5.434,9.677,0,0,0,0,0,0,0,0,0,0,0,0,0,0,0,0,
711,52.35,29.29,42.05,4.97,41.66,35.34,23.0,5.773,29.87,25.77,22.29,16.71,33.13,23.71,18.2,22.71,0,0,0,0,0,0,0,0,0,0,0,0,0,0,0,0,
712,44.11,36.53,49.78,16.8,54.68,41.87,39.22,8.445,45.25,37.95,33.62,15.36,42.02,23.96,19.03,18.78,0,0,0,0,0,0,0,0,0,0,0,0,0,0,0,0,
713,35.92,22.11,33.21,2.85,36.46,17.7,26.07,-11.5,36.85,19.57,16.1,-1.423,22.39,1.212,3.88,4.282,0,0,0,0,0,0,0,0,0,0,0,0,0,0,0,0,
714,34.7,21.24,36.07,8.661,37.98,20.93,38.02,8.785,24.08,8.897,33.42,25.2,37.36,23.89,27.35,32.98,0,0,0,0,0,0,0,0,0,0,0,0,0,0,0,0,
715,39.04,34.53,44.63,17.31,44.31,30.69,40.06,20.87,42.14,33.94,36.19,26.24,38.09,29.66,22.2,29.25,0,0,0,0,0,0,0,0,0,0,0,0,0,0,0,0,
716,13.07,7.447,15.24,-4.848,16.76,9.583,11.64,-0.9266,24.08,20.13,11.0,9.635,17.7,14.42,11.33,18.4,0,0,0,0,0,0,0,0,0,0,0,0,0,0,0,0,
717,7.029,4.982,17.88,-1.068,22.35,18.72,20.97,9.036,15.79,16.75,19.24,26.5,29.2,29.46,28.52,37.55,0,0,0,0,0,0,0,0,0,0,0,0,0,0,0,0,
718,13.94,10.21,18.44,-4.601,19.95,18.57,11.97,5.178,25.05,24.9,8.383,18.49,16.9,20.01,14.68,25.89,0,0,0,0,0,0,0,0,0,0,0,0,0,0,0,0,
719,-3.697,-5.97,5.638,-12.91,4.78,6.506,-5.427,-0.1519,5.4,6.468,0.6098,16.06,8.87,14.47,14.61,23.96,0,0,0,0,0,0,0,0,0,0,0,0,0,0,0,0,
720,-9.101,-4.794,16.57,-3.743,14.18,11.34,8.36,10.03,8.389,13.81,11.78,23.91,18.57,22.27,20.56,25.99,0,0,0,0,0,0,0,0,0,0,0,0,0,0,0,0,
721,-22.91,-21.79,0.8603,-18.48,-1.899,-9.634,1.689,-3.572,7.474,11.51,-1.509,13.87,2.605,10.68,5.263,11.11,0,0,0,0,0,0,0,0,0,0,0,0,0,0,0,0,
722,-39.13,-33.41,-7.335,-16.19,-7.589,-13.71,0.9683,5.29,-3.325,2.239,4.424,27.96,8.583,22.89,15.37,22.97,0,0,0,0,0,0,0,0,0,0,0,0,0,0,0,0,
723,-33.91,-27.1,-2.784,-8.561,-1.49,-3.985,3.326,11.26,8.704,17.71,9.211,30.34,17.95,31.36,18.13,27.08,0,0,0,0,0,0,0,0,0,0,0,0,0,0,0,0,
724,-41.64,-37.55,-16.86,-22.74,-11.28,-11.91,-0.3574,-1.197,5.428,15.36,5.942,25.57,21.7,32.92,23.41,34.59,0,0,0,0,0,0,0,0,0,0,0,0,0,0,0,0,
725,-41.63,-30.22,-5.873,-15.41,4.364,-0.2577,16.06,10.51,17.75,23.84,22.34,34.4,42.54,45.97,36.62,46.82,0,0,0,0,0,0,0,0,0,0,0,0,0,0,0,0,
726,-37.08,-31.13,-9.488,-20.07,2.685,-3.362,9.172,3.436,33.8,27.6,14.23,15.59,37.36,31.28,21.54,27.87,0,0,0,0,0,0,0,0,0,0,0,0,0,0,0,0,
727,-40.04,-34.29,-19.38,-23.04,-2.117,-5.169,12.75,2.19,27.0,13.19,20.97,15.08,45.63,32.71,32.93,32.6,0,0,0,0,0,0,0,0,0,0,0,0,0,0,0,0,
728,-22.35,-9.588,1.337,-7.145,20.41,14.19,34.94,13.29,46.69,30.07,38.98,21.59,60.63,41.53,42.14,36.15,0,0,0,0,0,0,0,0,0,0,0,0,0,0,0,0,
729,-19.09,-14.88,-0.2539,-12.55,14.14,5.645,23.5,0.3935,46.94,28.19,23.57,9.399,40.65,28.8,24.91,23.03,0,0,0,0,0,0,0,0,0,0,0,0,0,0,0,0,
730,-17.05,-11.61,10.5,4.956,20.66,14.7,29.67,17.72,34.73,25.15,31.49,25.55,45.73,43.97,34.85,36.87,0,0,0,0,0,0,0,0,0,0,0,0,0,0,0,0,
731,6.115,9.337,25.6,19.84,33.11,30.01,32.98,27.25,48.16,48.42,32.39,24.19,46.33,43.68,30.29,28.69,0,0,0,0,0,0,0,0,0,0,0,0,0,0,0,0,
732,3.915,-2.378,8.655,4.357,16.74,19.09,17.03,12.36,32.17,35.97,17.92,17.43,31.19,31.53,26.2,25.58,0,0,0,0,0,0,0,0,0,0,0,0,0,0,0,0,
733,-0.6349,1.633,12.2,11.31,21.36,26.49,25.69,22.98,24.39,30.65,27.57,31.17,37.57,40.02,36.21,40.29,0,0,0,0,0,0,0,0,0,0,0,0,0,0,0,0,
734,-2.758,0.557,3.421,1.982,11.59,14.95,11.11,10.62,27.68,29.47,13.19,10.6,22.66,19.25,16.41,19.24,0,0,0,0,0,0,0,0,0,0,0,0,0,0,0,0,
735,-15.9,-11.41,-6.766,-8.783,-0.0709,-0.6956,6.223,4.492,8.766,4.904,8.711,3.793,18.92,10.46,18.6,15.89,0,0,0,0,0,0,0,0,0,0,0,0,0,0,0,0,
736,-10.12,0.2529,9.382,1.468,10.79,6.199,27.76,15.98,13.92,6.545,17.48,9.22,24.98,13.42,21.95,16.97,0,0,0,0,0,0,0,0,0,0,0,0,0,0,0,0,
737,-16.59,-14.69,-9.305,-15.35,-12.47,-11.64,12.32,-3.53,4.71,-3.328,-1.087,-4.934,4.061,-4.718,4.013,2.7,0,0,0,0,0,0,0,0,0,0,0,0,0,0,0,0,
738,-28.56,-19.81,-12.78,-13.0,-18.55,-11.95,9.344,0.1018,-13.55,-13.75,5.0,3.177,8.404,0.8683,10.67,10.33,0,0,0,0,0,0,0,0,0,0,0,0,0,0,0,0,
739,-18.56,-5.118,3.91,-4.082,-6.625,-6.047,14.13,0.0692,-4.486,-4.443,4.041,-6.628,5.947,-9.017,-1.223,-5.118,0,0,0,0,0,0,0,0,0,0,0,0,0,0,0,0,
740,-17.78,-17.34,-6.362,-15.01,-14.91,-21.51,9.579,-16.93,-13.93,-22.98,-5.732,-14.73,-5.336,-22.87,-8.187,-11.43,0,0,0,0,0,0,0,0,0,0,0,0,0,0,0,0,
741,-12.87,-10.97,1.011,-0.9617,-4.13,-13.81,26.79,-0.8673,-7.547,-20.19,11.47,3.947,7.574,-6.729,3.256,2.705,0,0,0,0,0,0,0,0,0,0,0,0,0,0,0,0,
742,-9.79,-15.79,-7.137,-9.613,-16.24,-26.09,10.09,-7.713,-1.733,-15.95,-3.638,-10.66,-8.362,-19.23,-14.97,-15.83,0,0,0,0,0,0,0,0,0,0,0,0,0,0,0,0,
743,-15.13,-34.46,-25.26,-23.85,-32.59,-40.08,-6.642,-13.5,-27.44,-38.26,-11.91,-8.804,-13.15,-21.1,-8.605,-10.61,0,0,0,0,0,0,0,0,0,0,0,0,0,0,0,0,
744,-6.154,-16.05,-17.21,-9.422,-18.86,-25.34,4.674,1.098,-21.22,-25.33,-3.855,2.503,-5.948,-11.9,-4.209,-5.241,0,0,0,0,0,0,0,0,0,0,0,0,0,0,0,0,
745,-12.51,-14.75,-24.04,-19.17,-28.87,-37.32,-7.161,-13.53,-24.81,-28.27,-21.71,-16.19,-27.87,-29.36,-23.66,-23.03,0,0,0,0,0,0,0,0,0,0,0,0,0,0,0,0,
746,-12.29,-16.86,-7.296,-19.16,-19.26,-34.22,5.681,-8.412,-35.89,-41.37,-6.918,-8.762,-16.85,-19.7,-7.453,-9.995,0,0,0,0,0,0,0,0,0,0,0,0,0,0,0,0,
747,1.245,-12.55,5.292,-17.13,-6.74,-22.67,14.14,-5.04,-15.76,-25.39,0.6022,-10.64,-11.41,-18.14,-11.38,-15.22,0,0,0,0,0,0,0,0,0,0,0,0,0,0,0,0,
748,-11.76,-27.42,-23.64,-30.0,-27.8,-34.72,-12.02,-19.35,-26.37,-34.76,-17.52,-19.44,-28.67,-30.35,-26.18,-22.8,0,0,0,0,0,0,0,0,0,0,0,0,0,0,0,0,
749,-4.484,-8.757,-15.25,-10.02,-16.11,-22.61,-5.514,-4.902,-30.02,-33.03,-8.291,-6.397,-18.8,-20.4,-17.76,-12.1,0,0,0,0,0,0,0,0,0,0,0,0,0,0,0,0,
750,7.32,0.6081,-9.207,-9.795,-13.03,-26.0,-0.6997,-11.62,-18.14,-26.31,-16.39,-21.78,-28.2,-33.62,-31.39,-31.71,0,0,0,0,0,0,0,0,0,0,0,0,0,0,0,0,
751,-11.11,-16.94,-20.66,-24.83,-24.35,-38.48,-1.859,-19.83,-32.92,-44.45,-18.2,-24.92,-34.3,-37.87,-28.78,-31.72,0,0,0,0,0,0,0,0,0,0,0,0,0,0,0,0,
752,-13.52,-13.33,-12.78,-19.98,-14.67,-30.01,4.488,-13.24,-28.02,-36.58,-6.79,-18.58,-26.89,-30.59,-22.56,-24.62,0,0,0,0,0,0,0,0,0,0,0,0,0,0,0,0,
753,-21.83,-28.02,-33.01,-30.64,-28.8,-42.56,-11.51,-27.9,-31.68,-39.43,-21.16,-29.74,-38.05,-38.48,-30.25,-31.16,0,0,0,0,0,0,0,0,0,0,0,0,0,0,0,0,
754,-32.66,-28.52,-39.27,-19.65,-27.57,-34.96,-7.219,-13.52,-40.37,-41.69,-11.24,-12.0,-23.66,-19.97,-12.83,-12.87,0,0,0,0,0,0,0,0,0,0,0,0,0,0,0,0,
755,-26.27,-14.1,-29.82,-13.51,-21.19,-25.21,-7.972,-8.183,-23.9,-21.45,-8.859,-14.1,-22.92,-22.16,-19.37,-21.93,0,0,0,0,0,0,0,0,0,0,0,0,0,0,0,0,
756,-40.86,-35.49,-44.34,-40.23,-41.12,-47.95,-24.13,-29.43,-37.84,-38.35,-21.76,-28.29,-38.18,-39.35,-24.24,-32.54,0,0,0,0,0,0,0,0,0,0,0,0,0,0,0,0,
757,-43.56,-31.06,-30.61,-34.35,-28.53,-39.48,-7.452,-15.99,-40.9,-39.86,-4.64,-12.54,-17.64,-21.97,-2.974,-13.55,0,0,0,0,0,0,0,0,0,0,0,0,0,0,0,0,
758,-31.14,-20.07,-24.28,-29.61,-23.34,-27.21,-7.558,-15.74,-22.14,-19.83,-8.097,-17.19,-13.28,-19.82,-11.04,-16.55,0,0,0,0,0,0,0,0,0,0,0,0,0,0,0,0,
759,-33.75,-26.06,-31.01,-32.2,-29.56,-24.38,-10.15,-18.33,-25.21,-22.76,-10.01,-13.05,-11.96,-15.68,-6.205,-7.994,0,0,0,0,0,0,0,0,0,0,0,0,0,0,0,0,
760,-29.34,-11.35,-17.97,-21.91,-16.75,-18.99,-0.6186,-8.367,-15.72,-14.73,-2.057,-4.287,-7.017,-9.341,0.6359,-1.903,0,0,0,0,0,0,0,0,0,0,0,0,0,0,0,0,
761,-37.75,-21.54,-30.0,-35.92,-29.88,-42.9,-16.79,-24.68,-21.17,-23.57,-19.16,-16.82,-27.29,-23.51,-14.34,-13.87,0,0,0,0,0,0,0,0,0,0,0,0,0,0,0,0,
762,-46.65,-34.1,-28.97,-36.02,-31.6,-46.72,-12.38,-18.99,-34.89,-32.7,-14.87,-6.466,-27.0,-16.44,-10.18,-5.909,0,0,0,0,0,0,0,0,0,0,0,0,0,0,0,0,
763,-39.84,-27.66,-19.42,-30.79,-27.98,-39.15,-15.01,-11.47,-27.81,-20.55,-16.81,-9.273,-31.03,-20.22,-21.27,-15.42,0,0,0,0,0,0,0,0,0,0,0,0,0,0,0,0,
764,-48.27,-34.22,-33.29,-37.77,-40.84,-46.61,-29.58,-17.18,-39.3,-31.72,-26.64,-14.25,-38.86,-25.48,-26.61,-16.37,0,0,0,0,0,0,0,0,0,0,0,0,0,0,0,0,
765,-41.38,-22.82,-18.87,-23.04,-21.66,-31.65,-4.236,-2.196,-32.56,-23.63,-13.83,0.3827,-25.97,-12.56,-18.18,-4.899,0,0,0,0,0,0,0,0,0,0,0,0,0,0,0,0,
766,-27.89,-23.15,-14.82,-31.83,-19.3,-35.01,-6.479,-12.78,-23.51,-15.94,-27.77,-14.21,-39.81,-30.61,-36.89,-26.18,0,0,0,0,0,0,0,0,0,0,0,0,0,0,0,0,
767,-30.88,-32.35,-19.73,-37.9,-26.9,-37.04,-21.05,-14.86,-38.72,-32.42,-27.13,-13.75,-36.94,-30.28,-27.88,-23.3,0,0,0,0,0,0,0,0,0,0,0,0,0,0,0,0,
768,-24.41,-18.71,-7.371,-17.08,-14.38,-18.16,-13.65,0.8528,-21.81,-15.88,-13.65,-8.805,-21.0,-17.93,-18.51,-19.71,0,0,0,0,0,0,0,0,0,0,0,0,0,0,0,0,
769,-31.44,-34.48,-23.74,-24.16,-27.19,-31.74,-23.79,-14.95,-19.37,-15.48,-28.86,-26.36,-33.37,-33.05,-30.37,-34.25,0,0,0,0,0,0,0,0,0,0,0,0,0,0,0,0,
770,-31.23,-39.27,-14.9,-20.22,-18.66,-29.42,-11.48,-12.27,-26.57,-26.57,-13.59,-17.42,-20.21,-26.17,-14.25,-22.99,0,0,0,0,0,0,0,0,0,0,0,0,0,0,0,0,
771,-14.48,-26.46,2.793,-18.84,-9.812,-24.03,-6.934,-14.6,-9.444,-18.22,-9.927,-24.69,-19.96,-31.85,-20.55,-33.77,0,0,0,0,0,0,0,0,0,0,0,0,0,0,0,0,
772,-25.97,-43.21,-18.36,-34.04,-33.14,-43.2,-26.56,-25.93,-26.47,-34.41,-25.25,-28.8,-32.19,-38.88,-23.29,-32.15,0,0,0,0,0,0,0,0,0,0,0,0,0,0,0,0,
773,-25.77,-33.62,-10.34,-10.76,-21.33,-27.72,-14.35,-1.855,-29.67,-27.17,-6.652,-2.314,-12.22,-14.06,-2.349,-5.114,0,0,0,0,0,0,0,0,0,0,0,0,0,0,0,0,
774,-19.55,-24.12,-10.4,-5.0,-20.74,-22.17,-19.47,-6.832,-15.89,-12.18,-15.11,-12.51,-22.78,-20.22,-18.94,-19.41,0,0,0,0,0,0,0,0,0,0,0,0,0,0,0,0,
775,-30.76,-30.72,-23.4,-13.36,-29.36,-25.88,-25.52,-13.29,-31.32,-25.6,-23.12,-12.63,-30.94,-21.64,-19.55,-17.88,0,0,0,0,0,0,0,0,0,0,0,0,0,0,0,0,
776,-17.54,-14.41,-6.851,-2.068,-9.809,-7.851,-9.682,0.5678,-22.7,-14.34,-10.11,-0.8793,-19.56,-12.44,-11.86,-8.4,0,0,0,0,0,0,0,0,0,0,0,0,0,0,0,0,
777,-14.07,-21.54,-16.97,-13.02,-21.29,-15.97,-20.74,-14.35,-22.09,-18.76,-22.2,-16.97,-33.53,-28.13,-26.43,-22.17,0,0,0,0,0,0,0,0,0,0,0,0,0,0,0,0,
778,-21.03,-21.62,-18.03,-5.528,-21.9,-10.06,-17.94,-4.988,-32.64,-27.48,-17.2,-10.77,-26.69,-19.94,-17.9,-15.0,0,0,0,0,0,0,0,0,0,0,0,0,0,0,0,0,
779,-9.356,-6.898,-2.348,5.373,-7.987,3.836,-16.29,3.693,-15.71,-6.999,-17.67,-14.05,-22.86,-18.69,-23.53,-22.58,0,0,0,0,0,0,0,0,0,0,0,0,0,0,0,0,
780,-13.59,-19.2,-12.61,-7.681,-18.2,-6.122,-25.63,-11.22,-19.45,-10.91,-27.11,-21.13,-28.96,-24.66,-26.67,-24.98,0,0,0,0,0,0,0,0,0,0,0,0,0,0,0,0,
781,-11.85,-4.147,-4.975,4.489,-6.78,6.788,-5.357,0.6943,-14.5,-3.949,-9.813,-3.82,-13.0,-9.068,-11.61,-9.136,0,0,0,0,0,0,0,0,0,0,0,0,0,0,0,0,
782,-5.628,6.396,-6.581,-1.463,-9.824,4.551,-13.59,-4.402,-4.766,4.443,-17.43,-12.03,-23.79,-19.16,-24.67,-22.51,0,0,0,0,0,0,0,0,0,0,0,0,0,0,0,0,
783,-14.08,-8.385,-12.08,-16.02,-20.47,-8.371,-24.64,-8.86,-23.34,-11.87,-19.07,-10.08,-26.94,-18.71,-19.41,-18.72,0,0,0,0,0,0,0,0,0,0,0,0,0,0,0,0,
784,-7.64,-0.418,4.312,-7.949,-7.112,-1.181,-10.95,-0.5966,-17.85,-2.934,-8.764,-6.197,-17.92,-12.95,-14.75,-16.32,0,0,0,0,0,0,0,0,0,0,0,0,0,0,0,0,
785,-11.52,-6.356,-10.03,-20.33,-18.59,-12.89,-22.88,-18.1,-19.17,-9.827,-23.29,-23.53,-34.23,-32.79,-28.45,-30.43,0,0,0,0,0,0,0,0,0,0,0,0,0,0,0,0,
786,-15.63,-6.212,-10.07,-16.26,-15.77,-9.384,-16.21,-9.564,-25.01,-20.51,-10.42,-11.46,-24.79,-26.1,-14.6,-18.58,0,0,0,0,0,0,0,0,0,0,0,0,0,0,0,0,
787,-3.437,0.3113,2.589,-12.44,-9.439,-9.193,-10.75,-7.102,-9.937,-11.4,-7.726,-17.7,-25.27,-32.22,-23.57,-30.95,0,0,0,0,0,0,0,0,0,0,0,0,0,0,0,0,
788,-13.96,-19.69,-10.96,-31.13,-27.5,-34.61,-24.48,-27.78,-26.98,-34.54,-20.46,-30.94,-38.67,-46.35,-29.66,-37.67,0,0,0,0,0,0,0,0,0,0,0,0,0,0,0,0,
789,-16.54,-10.66,0.7058,-20.03,-12.54,-27.9,-5.218,-17.63,-28.14,-35.05,-1.165,-11.69,-19.0,-27.06,-9.339,-17.41,0,0,0,0,0,0,0,0,0,0,0,0,0,0,0,0,
790,-11.75,-10.67,0.4746,-24.41,-12.23,-30.78,-4.778,-22.64,-12.73,-20.98,-6.827,-16.88,-22.44,-29.06,-21.69,-28.14,0,0,0,0,0,0,0,0,0,0,0,0,0,0,0,0,
791,-20.97,-33.61,-7.664,-33.67,-24.22,-39.06,-12.03,-22.08,-26.24,-32.53,-9.051,-13.72,-22.47,-23.92,-17.66,-22.3,0,0,0,0,0,0,0,0,0,0,0,0,0,0,0,0,
792,-10.66,-21.07,12.36,-13.75,-5.97,-17.08,1.24,-2.814,-14.12,-14.83,6.904,-2.827,-3.884,-6.404,-4.734,-10.52,0,0,0,0,0,0,0,0,0,0,0,0,0,0,0,0,
793,-5.136,-15.36,7.519,-12.53,-5.221,-8.537,-6.644,-11.16,-1.312,-2.661,-2.377,-12.53,-5.233,-8.476,-10.83,-14.43,0,0,0,0,0,0,0,0,0,0,0,0,0,0,0,0,
794,-4.404,-6.736,13.7,2.394,7.536,10.25,1.095,0.4753,4.671,4.097,7.965,0.975,11.16,8.603,5.093,5.352,0,0,0,0,0,0,0,0,0,0,0,0,0,0,0,0,
795,4.58,4.39,22.62,16.68,17.16,20.74,7.142,7.258,23.87,24.6,11.16,-1.228,13.33,9.209,2.216,2.347,0,0,0,0,0,0,0,0,0,0,0,0,0,0,0,0,
796,-5.382,-15.22,1.996,5.948,-1.629,7.152,0.122,-4.889,10.05,11.19,4.245,-7.693,5.304,2.974,2.045,-0.5143,0,0,0,0,0,0,0,0,0,0,0,0,0,0,0,0,
797,-1.522,-5.904,16.61,21.26,14.35,25.2,19.83,7.28,11.75,14.34,24.92,8.592,26.67,21.88,22.82,14.94,0,0,0,0,0,0,0,0,0,0,0,0,0,0,0,0,
798,7.051,8.399,24.0,22.07,20.79,29.51,14.4,-4.291,27.91,26.0,16.44,-3.92,18.55,11.55,9.636,0.9775,0,0,0,0,0,0,0,0,0,0,0,0,0,0,0,0,
799,-1.641,7.169,13.66,14.63,12.71,23.21,6.785,-5.229,15.26,11.95,10.39,1.07,10.95,9.9,9.656,7.862,0,0,0,0,0,0,0,0,0,0,0,0,0,0,0,0,
800,5.468,22.37,24.62,29.08,22.93,35.98,18.31,17.64,22.51,23.5,22.29,16.9,20.8,22.41,17.72,17.22,0,0,0,0,0,0,0,0,0,0,0,0,0,0,0,0,
801,5.273,13.33,10.32,24.05,6.965,27.69,3.537,5.597,20.06,23.42,11.1,4.774,11.89,13.73,9.954,3.545,0,0,0,0,0,0,0,0,0,0,0,0,0,0,0,0,
802,4.386,13.51,5.412,31.48,5.679,36.42,6.421,9.507,9.966,18.56,17.35,13.09,21.9,22.84,19.75,11.93,0,0,0,0,0,0,0,0,0,0,0,0,0,0,0,0,
803,14.76,31.08,11.05,38.63,14.54,45.87,9.151,13.69,22.84,33.33,13.88,11.99,19.94,19.32,9.915,7.048,0,0,0,0,0,0,0,0,0,0,0,0,0,0,0,0,
804,10.47,26.51,2.498,29.53,9.217,34.45,3.681,2.673,15.37,22.16,6.463,11.71,13.48,15.46,10.55,9.399,0,0,0,0,0,0,0,0,0,0,0,0,0,0,0,0,
805,21.28,40.3,24.57,44.54,32.31,50.61,29.19,18.06,26.6,30.22,28.66,30.02,36.58,33.35,30.72,22.87,0,0,0,0,0,0,0,0,0,0,0,0,0,0,0,0,
806,17.93,33.53,20.43,34.12,26.16,40.58,20.12,8.482,38.35,37.74,18.34,13.39,27.48,16.8,16.08,3.655,0,0,0,0,0,0,0,0,0,0,0,0,0,0,0,0,
807,-11.88,6.509,0.2822,17.36,7.213,17.84,3.674,0.0678,13.15,13.56,12.45,13.23,20.72,13.14,17.81,9.899,0,0,0,0,0,0,0,0,0,0,0,0,0,0,0,0,
808,-4.915,15.84,15.49,24.8,20.61,25.9,13.06,10.75,17.07,19.38,19.85,22.53,23.97,19.2,14.15,12.63,0,0,0,0,0,0,0,0,0,0,0,0,0,0,0,0,
809,1.357,11.7,6.637,10.29,7.249,15.43,-3.767,-2.175,13.31,14.36,-1.298,6.037,-0.1669,-2.448,-11.0,-8.774,0,0,0,0,0,0,0,0,0,0,0,0,0,0,0,0,
810,-1.576,13.24,7.698,15.69,7.899,19.57,-1.61,11.94,-0.0772,5.027,6.413,18.44,7.477,8.863,1.165,5.791,0,0,0,0,0,0,0,0,0,0,0,0,0,0,0,0,
811,15.31,26.61,19.52,24.11,19.66,27.97,7.235,21.03,17.35,22.25,7.541,18.11,11.46,15.85,-2.711,5.494,0,0,0,0,0,0,0,0,0,0,0,0,0,0,0,0,
812,16.43,15.19,3.838,11.92,5.924,13.16,1.107,5.998,9.632,13.01,-7.875,5.902,-1.964,8.025,-9.388,0.472,0,0,0,0,0,0,0,0,0,0,0,0,0,0,0,0,
813,21.64,29.54,16.41,28.75,21.39,24.95,18.12,19.44,9.665,16.94,10.53,16.13,14.73,21.38,9.197,13.85,0,0,0,0,0,0,0,0,0,0,0,0,0,0,0,0,
814,26.9,33.7,20.7,23.41,25.14,23.09,10.7,13.33,22.72,24.15,8.213,5.85,13.15,11.14,3.177,3.286,0,0,0,0,0,0,0,0,0,0,0,0,0,0,0,0,
815,16.8,17.22,15.43,10.21,17.39,16.74,5.132,8.765,11.51,7.164,7.145,10.43,12.63,8.563,11.63,10.9,0,0,0,0,0,0,0,0,0,0,0,0,0,0,0,0,
816,29.64,27.66,35.12,23.34,30.95,31.47,21.24,17.77,21.32,18.26,16.14,9.028,17.18,8.371,12.13,8.204,0,0,0,0,0,0,0,0,0,0,0,0,0,0,0,0,
817,30.8,14.11,20.91,6.278,13.95,14.0,6.237,-5.216,16.87,8.473,-2.312,-22.1,-4.059,-18.05,-12.56,-17.89,0,0,0,0,0,0,0,0,0,0,0,0,0,0,0,0,
818,16.23,7.345,14.53,1.994,10.65,12.39,8.675,1.166,2.852,-8.669,7.56,-8.331,4.651,-8.695,-0.0937,-2.206,0,0,0,0,0,0,0,0,0,0,0,0,0,0,0,0,
819,15.94,21.21,26.29,10.97,19.84,23.45,12.3,13.52,18.18,10.94,13.48,3.975,10.38,0.5871,2.745,3.616,0,0,0,0,0,0,0,0,0,0,0,0,0,0,0,0,
820,2.826,2.812,11.53,-2.047,0.6362,4.265,-6.373,-0.0322,8.308,4.897,-0.2751,-4.648,0.7278,-7.177,-0.4356,-1.378,0,0,0,0,0,0,0,0,0,0,0,0,0,0,0,0,
821,-4.187,0.6889,13.33,2.795,3.276,1.76,2.409,6.992,4.101,-1.012,11.38,0.3886,14.73,-0.1132,13.84,6.262,0,0,0,0,0,0,0,0,0,0,0,0,0,0,0,0,
822,-3.378,1.954,5.69,-6.25,0.0247,-5.795,-0.5688,-2.74,11.03,-0.5601,4.359,-12.72,6.866,-10.29,3.655,-4.312,0,0,0,0,0,0,0,0,0,0,0,0,0,0,0,0,
823,-8.756,-8.091,-7.866,-17.4,-7.167,-11.36,-2.682,-8.315,-3.877,-11.65,1.568,-6.428,3.825,-4.628,8.349,7.878,0,0,0,0,0,0,0,0,0,0,0,0,0,0,0,0,
824,-5.851,-0.2535,-3.752,-8.854,0.3253,-0.0792,5.419,0.7214,1.045,2.784,7.08,3.297,8.293,3.936,11.35,12.66,0,0,0,0,0,0,0,0,0,0,0,0,0,0,0,0,
825,-19.9,-15.29,-25.86,-22.22,-19.55,-14.76,-17.21,-15.72,-5.199,-2.283,-8.852,-13.36,-7.914,-10.55,-0.8492,-4.365,0,0,0,0,0,0,0,0,0,0,0,0,0,0,0,0,
826,-22.89,-14.99,-19.87,-14.92,-11.96,-7.055,-10.08,-5.887,-9.133,-6.282,5.732,-4.288,8.56,4.594,13.05,5.981,0,0,0,0,0,0,0,0,0,0,0,0,0,0,0,0,
827,-2.083,6.218,3.707,-2.626,9.936,10.84,12.05,4.113,17.29,18.12,11.12,-5.489,15.94,7.709,2.504,-2.928,0,0,0,0,0,0,0,0,0,0,0,0,0,0,0,0,
828,-3.13,-0.5248,-3.866,-8.726,4.579,8.61,14.49,1.963,15.39,15.68,2.51,-4.741,7.906,4.123,-4.968,-4.542,0,0,0,0,0,0,0,0,0,0,0,0,0,0,0,0,
829,2.187,11.89,9.591,13.51,19.81,29.96,24.56,28.14,23.84,30.15,20.46,18.17,25.36,23.46,10.7,14.41,0,0,0,0,0,0,0,0,0,0,0,0,0,0,0,0,
830,3.897,15.91,5.458,13.03,14.38,26.11,7.924,21.09,35.9,41.9,8.945,4.045,13.98,9.274,-3.927,-0.2256,0,0,0,0,0,0,0,0,0,0,0,0,0,0,0,0,
831,-7.351,3.455,-7.078,1.152,6.702,13.59,7.481,11.38,18.46,20.07,9.126,5.93,12.95,9.186,5.606,8.22,0,0,0,0,0,0,0,0,0,0,0,0,0,0,0,0,
832,9.857,19.44,13.07,12.59,30.01,31.72,29.75,22.59,33.54,31.92,28.19,19.34,30.73,23.51,18.43,17.68,0,0,0,0,0,0,0,0,0,0,0,0,0,0,0,0,
833,11.99,15.56,1.204,0.1165,18.28,23.95,11.04,2.674,36.04,31.35,11.35,0.909,16.23,5.803,2.527,-2.3,0,0,0,0,0,0,0,0,0,0,0,0,0,0,0,0,
834,6.026,18.08,-2.066,3.715,19.85,26.79,11.84,5.078,22.22,18.77,16.29,6.191,23.9,10.44,12.74,3.162,0,0,0,0,0,0,0,0,0,0,0,0,0,0,0,0,
835,21.02,34.05,14.93,14.66,37.16,39.1,18.72,12.16,39.9,34.03,17.57,5.665,28.85,10.19,6.343,-3.988,0,0,0,0,0,0,0,0,0,0,0,0,0,0,0,0,
836,15.02,19.22,5.41,3.839,24.2,28.28,2.356,1.445,32.96,25.0,0.8547,4.051,14.77,3.574,-3.517,-5.103,0,0,0,0,0,0,0,0,0,0,0,0,0,0,0,0,
837,16.82,27.3,10.67,14.92,30.82,36.87,12.27,15.19,28.78,25.4,13.75,26.85,21.95,21.66,8.606,16.24,0,0,0,0,0,0,0,0,0,0,0,0,0,0,0,0,
838,23.94,34.26,5.905,9.71,26.37,29.25,6.143,5.778,34.17,30.01,7.564,17.98,9.609,11.45,-4.914,5.538,0,0,0,0,0,0,0,0,0,0,0,0,0,0,0,0,
839,10.43,22.76,3.429,3.041,16.69,16.67,-0.2435,-0.4932,15.02,10.55,4.473,16.05,6.132,8.218,-1.293,6.719,0,0,0,0,0,0,0,0,0,0,0,0,0,0,0,0,
840,16.31,32.58,28.49,19.22,30.68,28.13,14.06,13.91,20.21,18.22,14.42,19.55,14.12,14.62,2.764,5.196,0,0,0,0,0,0,0,0,0,0,0,0,0,0,0,0,
841,20.5,24.59,19.62,7.867,16.43,17.59,2.451,0.8332,17.68,14.81,-1.098,2.248,-5.128,-3.478,-15.92,-14.84,0,0,0,0,0,0,0,0,0,0,0,0,0,0,0,0,
842,18.13,27.51,20.97,11.17,15.98,23.51,3.433,9.023,6.475,7.656,5.133,13.19,0.455,4.627,-6.485,-4.291,0,0,0,0,0,0,0,0,0,0,0,0,0,0,0,0,
843,22.18,42.22,32.62,18.18,24.54,31.68,1.063,13.31,19.8,22.2,5.924,5.728,4.627,4.398,-8.123,-10.25,0,0,0,0,0,0,0,0,0,0,0,0,0,0,0,0,
844,9.725,25.76,17.16,0.8181,10.52,11.74,-9.748,-4.191,8.443,5.995,-4.481,-11.35,-2.846,-8.096,-9.085,-15.13,0,0,0,0,0,0,0,0,0,0,0,0,0,0,0,0,
845,12.66,30.1,27.08,8.508,21.13,15.88,9.255,7.171,5.033,2.605,5.505,2.777,6.809,0.5007,2.549,0.5413,0,0,0,0,0,0,0,0,0,0,0,0,0,0,0,0,
846,13.72,26.85,19.4,3.475,11.14,8.397,-4.149,0.5111,7.362,5.712,-13.23,-4.122,-10.07,-12.06,-14.69,-8.63,0,0,0,0,0,0,0,0,0,0,0,0,0,0,0,0,
847,-2.013,11.41,5.998,-4.419,-1.046,-0.2037,-15.18,-4.184,-11.09,-10.43,-13.31,0.3163,-8.851,-5.682,-4.374,4.803,0,0,0,0,0,0,0,0,0,0,0,0,0,0,0,0,
848,8.786,27.6,29.78,6.539,20.86,13.25,6.2,6.527,4.333,6.667,9.306,8.526,11.23,12.96,10.15,16.39,0,0,0,0,0,0,0,0,0,0,0,0,0,0,0,0,
849,4.549,14.62,19.39,-8.553,7.485,-5.13,-2.332,-10.69,7.868,6.179,-0.7513,-6.65,3.008,2.231,0.8446,4.024,0,0,0,0,0,0,0,0,0,0,0,0,0,0,0,0,
850,-8.033,3.297,17.18,0.7586,4.785,-4.714,4.328,-1.684,-2.627,-5.82,11.84,7.943,19.42,13.51,18.64,19.54,0,0,0,0,0,0,0,0,0,0,0,0,0,0,0,0,
851,7.566,18.69,36.63,17.53,20.64,10.61,16.14,4.257,14.96,8.656,17.65,5.567,24.01,12.13,14.37,14.47,0,0,0,0,0,0,0,0,0,0,0,0,0,0,0,0,
852,7.617,8.07,23.8,-0.4891,9.212,-3.995,10.73,-14.12,7.749,-4.447,5.594,-9.542,7.577,-4.228,5.872,4.584,0,0,0,0,0,0,0,0,0,0,0,0,0,0,0,0,
853,5.66,6.839,24.76,-0.2267,14.58,-1.211,24.3,-0.2271,7.403,-5.858,21.72,4.156,18.86,4.601,21.26,14.12,0,0,0,0,0,0,0,0,0,0,0,0,0,0,0,0,
854,2.536,2.305,16.02,-5.528,3.742,-6.608,4.891,-0.4234,13.62,2.398,10.08,-3.996,7.062,-5.636,6.609,-0.0127,0,0,0,0,0,0,0,0,0,0,0,0,0,0,0,0,
855,-8.702,-6.235,4.709,-6.693,-10.3,-12.43,-8.458,-1.023,-7.478,-12.46,1.67,0.4705,1.775,-2.851,7.005,10.54,0,0,0,0,0,0,0,0,0,0,0,0,0,0,0,0,
856,6.865,6.383,27.94,8.119,9.986,3.105,14.43,11.76,1.761,-1.352,14.46,14.21,15.46,11.79,12.79,23.59,0,0,0,0,0,0,0,0,0,0,0,0,0,0,0,0,
857,1.825,-14.88,17.09,-11.15,0.8402,-10.4,-2.912,-5.9,5.157,-0.7782,-3.245,1.352,0.4908,1.123,-5.469,10.09,0,0,0,0,0,0,0,0,0,0,0,0,0,0,0,0,
858,-20.97,-20.63,-1.171,-8.847,-7.139,-10.77,-15.39,-1.087,-7.608,-5.839,-6.69,6.892,0.2074,6.514,-4.327,13.85,0,0,0,0,0,0,0,0,0,0,0,0,0,0,0,0,
859,-14.17,5.97,-1.791,8.502,-4.213,-0.3847,-10.27,4.347,-0.1641,7.734,-11.73,-2.794,-6.114,-5.456,-18.45,-6.527,0,0,0,0,0,0,0,0,0,0,0,0,0,0,0,0,
