%OpenBCI Raw EXG Data
%Number of channels = 16
%Sample Rate = 125 Hz
%Board = OpenBCI_GUI$BoardCytonSerialDaisy
Sample Index,EXG Channel 0,EXG Channel 1,EXG Channel 2,EXG Channel 3,EXG Channel 4,EXG Channel 5,EXG Channel 6,EXG Channel 7,EXG Channel 8,EXG Channel 9,EXG Channel 10,EXG Channel 11,EXG Channel 12,EXG Channel 13,EXG Channel 14,EXG Channel 15,Accel Channel 0,Accel Channel 1,Accel Channel 2,Other,Other,Other,Other,Other,Other,Other,Analog Channel 0,Analog Channel 1,Analog Channel 2,Timestamp,Other,Timestamp (Formatted),Annotations
1,0,0,-0,0,0,-0,0,0,0,0,-0,-0,0,-0,0,0,0,0,0,0,0,0,0,0,0,0,0,0,0,0,0,0,T0
2,10.54,-14.8,37.12,-1.315,-20.63,-20.15,-5.65,-21.26,-14.42,20.3,8.333,24.02,18.7,5.11,17.59,15.26,0,0,0,0,0,0,0,0,0,0,0,0,0,0,0,0,
3,21.04,2.797,13.6,-1.75,-12.66,-2.686,-4.455,-45.88,-14.54,3.271,9.887,14.72,-4.652,-25.37,28.43,21.23,0,0,0,0,0,0,0,0,0,0,0,0,0,0,0,0,
4,-4.987,-11.89,-8.891,-17.67,-16.92,-10.39,-6.638,-71.76,-15.57,-22.71,26.72,5.596,-22.91,-31.05,23.83,12.97,0,0,0,0,0,0,0,0,0,0,0,0,0,0,0,0,
5,-10.71,-23.64,12.34,-7.127,-9.523,-11.08,18.06,-56.03,-17.21,-12.61,44.46,7.979,-18.56,-14.25,18.01,5.205,0,0,0,0,0,0,0,0,0,0,0,0,0,0,0,0,
6,6.528,-15.87,45.92,22.13,-23.97,-10.07,4.873,-29.08,-28.03,-1.698,22.13,-15.56,-34.11,-30.18,16.19,2.444,0,0,0,0,0,0,0,0,0,0,0,0,0,0,0,0,
7,-25.11,-44.21,91.51,16.81,-78.7,-65.83,-72.29,-45.07,-33.16,-8.685,5.487,-33.91,-44.88,-28.07,15.38,1.507,0,0,0,0,0,0,0,0,0,0,0,0,0,0,0,0,
8,-48.17,-50.69,113.2,8.174,-62.04,-86.93,-81.33,-44.64,-10.75,3.132,33.33,-14.36,-30.74,-4.299,28.56,12.52,0,0,0,0,0,0,0,0,0,0,0,0,0,0,0,0,
9,-31.01,-27.63,51.04,4.592,-23.73,-53.8,-46.12,-16.68,-14.71,1.818,29.35,-21.08,-49.23,-51.71,40.13,21.43,0,0,0,0,0,0,0,0,0,0,0,0,0,0,0,0,
10,-43.17,-50.49,-21.39,-26.7,-49.67,-54.48,-50.43,-50.97,-44.77,-29.98,-9.317,-57.08,-83.41,-102.7,23.78,4.336,0,0,0,0,0,0,0,0,0,0,0,0,0,0,0,0,
11,-56.8,-64.09,-25.19,-38.9,-33.33,-45.91,-21.55,-113.3,-31.7,-30.19,5.75,-56.79,-76.91,-63.44,1.514,-19.03,0,0,0,0,0,0,0,0,0,0,0,0,0,0,0,0,
12,-42.83,-40.89,-0.8017,-7.99,4.131,-24.88,0.1573,-84.97,-11.86,-5.468,33.14,-49.59,-65.86,-36.89,-2.131,-21.5,0,0,0,0,0,0,0,0,0,0,0,0,0,0,0,0,
13,-61.26,-56.18,8.648,-1.405,-42.52,-61.58,-53.65,-18.3,-39.75,-9.238,-2.775,-71.41,-65.64,-59.45,-0.4335,-9.814,0,0,0,0,0,0,0,0,0,0,0,0,0,0,0,0,
14,-89.48,-79.05,11.78,-24.2,-86.5,-82.56,-66.02,-33.84,-71.82,-22.83,-33.79,-73.89,-37.28,-39.09,-1.843,7.652,0,0,0,0,0,0,0,0,0,0,0,0,0,0,0,0,
15,-73.11,-52.06,52.2,-9.31,-69.67,-54.99,-30.55,-71.01,-70.27,-16.13,-15.44,-50.59,-5.284,-10.01,4.378,32.29,0,0,0,0,0,0,0,0,0,0,0,0,0,0,0,0,
16,-64.54,-24.05,95.91,11.59,-53.38,-64.43,-44.52,-51.94,-52.22,-11.18,-18.53,-45.5,-9.219,-30.76,14.93,46.91,0,0,0,0,0,0,0,0,0,0,0,0,0,0,0,0,
17,-77.18,-26.26,42.25,-20.68,-39.09,-61.94,-51.23,-42.46,-39.05,-18.67,-36.66,-41.28,-20.21,-38.75,18.08,36.06,0,0,0,0,0,0,0,0,0,0,0,0,0,0,0,0,
18,-48.03,-28.15,-22.96,-33.37,-19.47,-10.16,-22.76,-66.12,-36.74,-13.65,-7.601,-14.2,-13.57,-17.82,22.07,20.92,0,0,0,0,0,0,0,0,0,0,0,0,0,0,0,0,
19,-18.31,-19.88,30.63,5.473,-28.59,-24.33,-13.94,-68.99,-43.68,0.9973,22.11,2.306,-9.409,-18.23,37.46,26.48,0,0,0,0,0,0,0,0,0,0,0,0,0,0,0,0,
20,-34.36,-12.86,91.75,16.49,-41.66,-61.67,7.236,-39,-48.93,2.29,16.19,2.65,-13.78,-30.85,55.88,44.6,0,0,0,0,0,0,0,0,0,0,0,0,0,0,0,0,
21,-26.82,-13.01,50.31,7.317,-25.32,-19.57,18.89,-8.335,-50.3,-5.401,14.36,-1.213,-21.63,-39.36,60.21,48.96,0,0,0,0,0,0,0,0,0,0,0,0,0,0,0,0,
22,-11.88,-23.1,9.091,13.73,-31.7,-19.58,-36.14,-13.79,-56.56,-10.23,13.69,-17.8,-28.54,-43.43,43.03,29.88,0,0,0,0,0,0,0,0,0,0,0,0,0,0,0,0,
23,-44.75,-25.08,54.11,7.96,-62.7,-76.84,-56.02,-34.11,-43.96,-7.011,11.42,-17.85,-16.87,-25.24,25.43,13.27,0,0,0,0,0,0,0,0,0,0,0,0,0,0,0,0,
24,-50.64,-9.848,62.66,-1.245,-36.5,-44.42,-9.821,-46.5,-12.46,-4.32,20.89,-0.5983,-7.296,-15.69,28.7,19.54,0,0,0,0,0,0,0,0,0,0,0,0,0,0,0,0,
25,-22.97,-10.98,-30.71,-1.653,4.186,5.09,-14.41,-81.6,-15.32,-14.97,24.57,-8.057,-22.95,-42.58,36.92,30.08,0,0,0,0,0,0,0,0,0,0,0,0,0,0,0,0,
26,-32.97,-28.86,-29.49,-3.995,-19.9,-25.35,-39.49,-95.95,-42.45,-18.58,32.36,-14.09,-22.89,-48.38,36.15,32.82,0,0,0,0,0,0,0,0,0,0,0,0,0,0,0,0,
27,-45.84,-27.17,76.77,-0.1785,-30.02,-44.37,-15.24,-42.43,-50.68,-2.752,38.34,-2.192,-0.5707,-12.42,35.55,36.38,0,0,0,0,0,0,0,0,0,0,0,0,0,0,0,0,
28,-41.16,-18.22,75.87,3.274,1.271,-34.68,-11.4,3.424,-40.91,9.216,22.55,-3.802,2.264,5.813,35.33,37.37,0,0,0,0,0,0,0,0,0,0,0,0,0,0,0,0,
29,-51.89,-22.79,50.34,7.101,-17.43,-49.53,-45.23,-0.7029,-15.99,10.75,29.39,-2.167,-7.064,-9.21,33.33,33.17,0,0,0,0,0,0,0,0,0,0,0,0,0,0,0,0,
30,-58.26,-25.83,84.72,22.69,-56.5,-63.4,-59.54,-13.25,-6.212,12.26,51.07,14.7,-8.288,-19.86,36.46,32.48,0,0,0,0,0,0,0,0,0,0,0,0,0,0,0,0,
31,-43.93,-21.9,58.47,34.21,-47.53,-52.4,-39.93,-16.62,-25.49,8.066,34.35,17.9,-19.1,-31.63,39.99,31.07,0,0,0,0,0,0,0,0,0,0,0,0,0,0,0,0,
32,-28.85,-28.57,38.5,19.83,-30.91,-25.97,2.472,-37.1,-28.66,-12.69,13.35,-6.313,-49.81,-60.99,26.87,13.67,0,0,0,0,0,0,0,0,0,0,0,0,0,0,0,0,
33,-33.16,-50.59,26.21,-21.71,-9.474,-1.874,20.8,-86.86,-31.54,-23.06,16.44,-36.62,-62.8,-54.95,1.762,-10.39,0,0,0,0,0,0,0,0,0,0,0,0,0,0,0,0,
34,-45.65,-54.83,-56.19,-27.24,24.67,-1.437,-9.719,-106,-56.57,-0.6573,19.19,-35.13,-38.26,-16.28,-4.07,-11.3,0,0,0,0,0,0,0,0,0,0,0,0,0,0,0,0,
35,-40.6,-37.77,-15.41,34.67,-8.306,-26.52,-38.75,-73.72,-58,-0.696,15.73,-23.73,-28.41,-30.09,11.72,6.725,0,0,0,0,0,0,0,0,0,0,0,0,0,0,0,0,
36,-49.62,-44.3,114.4,59.19,-76.71,-60.05,-54.32,-50.37,-41.21,-28.24,8.735,-34.27,-37.73,-56.15,21.2,16.4,0,0,0,0,0,0,0,0,0,0,0,0,0,0,0,0,
37,-76.04,-54.53,86.04,16.96,-59.7,-69.38,-69.53,-30.56,-33.51,-15.38,10.76,-21.88,-22.41,-35.83,23.51,17.75,0,0,0,0,0,0,0,0,0,0,0,0,0,0,0,0,
38,-55.73,-35.93,21.03,-0.7071,-12.25,-44.82,-51.45,-15.13,-24.54,-2.663,27.94,9.863,-18.67,-38.72,26.15,15.38,0,0,0,0,0,0,0,0,0,0,0,0,0,0,0,0,
39,-18.2,-35.62,37.11,1.148,-18.37,-26.54,-32.69,-47.62,-24.69,-26.22,36.25,11.85,-39.35,-48.29,22.4,8.083,0,0,0,0,0,0,0,0,0,0,0,0,0,0,0,0,
40,-19.33,-58.39,39.02,-13.13,-22.63,-31.69,-61.49,-77.66,-31.35,-18.72,34.72,14.59,-32.06,-10.41,21.51,7.979,0,0,0,0,0,0,0,0,0,0,0,0,0,0,0,0,
41,-7.792,-51.51,32.77,-19.61,-16.56,-26.81,-51.33,-88.91,-23.83,1.333,43.19,35.15,-14.26,0.6346,32.53,16.1,0,0,0,0,0,0,0,0,0,0,0,0,0,0,0,0,
42,25.54,-25.34,17,-12.39,-20.1,4.622,19.44,-119.4,-14.04,-9.866,52.28,35,-15.65,-21.9,46.1,25.27,0,0,0,0,0,0,0,0,0,0,0,0,0,0,0,0,
43,12.69,-24.97,-17.12,-1.61,-1.214,22.13,15.17,-102.6,-17.75,-7.969,39.65,8.835,-15.29,-7.728,51.09,34.62,0,0,0,0,0,0,0,0,0,0,0,0,0,0,0,0,
44,-40.53,-47.62,-21.06,-10.97,-11.61,-16.68,-53.49,-45.2,-38.76,0.8678,9.257,-23.96,-13.37,8.511,37.35,32.61,0,0,0,0,0,0,0,0,0,0,0,0,0,0,0,0,
45,-74.81,-56.6,-11.5,-34.15,-65.72,-63.15,-55.85,-55.38,-61.79,-13.84,-7.062,-36.62,-14.81,-11.08,14.1,21.26,0,0,0,0,0,0,0,0,0,0,0,0,0,0,0,0,
46,-62.48,-43.4,27.93,-12.93,-52.71,-42.91,-22.78,-72.84,-45.43,-10.67,21.99,-4.934,2.75,-10.66,17.72,30.73,0,0,0,0,0,0,0,0,0,0,0,0,0,0,0,0,
47,-8.971,-23.95,98.96,29.74,1.139,0.4558,-26.18,-19.2,14.52,18.61,92.85,52.82,44.2,34.09,66.69,72.24,0,0,0,0,0,0,0,0,0,0,0,0,0,0,0,0,
48,47.33,5.407,131.8,36.94,6.015,2.5,-15.93,-8.183,68.11,26.35,153.6,99.57,76.04,62.26,130.9,117.4,0,0,0,0,0,0,0,0,0,0,0,0,0,0,0,0,
49,77.05,39.19,135,43.5,27.95,20.39,32.67,-70.3,80.54,17.83,157.5,116.4,73.76,45.59,157.9,128.1,0,0,0,0,0,0,0,0,0,0,0,0,0,0,0,0,
50,85.94,45.54,80.85,49.94,65.47,77.32,43.4,-75.8,52.78,22.27,115.5,94.4,52.67,22.48,124.6,93.89,0,0,0,0,0,0,0,0,0,0,0,0,0,0,0,0,
51,61.5,20.68,-12,11.11,28.81,73.62,4.402,-40.88,8.66,23.29,64.77,49.88,35.43,12.49,62.03,45.31,0,0,0,0,0,0,0,0,0,0,0,0,0,0,0,0,
52,16.3,6.134,33.53,-5.928,-13.61,9.35,7.205,-51.46,-16.61,22.15,37.36,25.87,32.5,11.77,21.76,21,0,0,0,0,0,0,0,0,0,0,0,0,0,0,0,0,
53,6.002,13.5,133.7,45.55,-11.61,-12.86,23.59,-47.32,-28.85,25.03,32.76,25.11,29.47,3.678,20.51,24.76,0,0,0,0,0,0,0,0,0,0,0,0,0,0,0,0,
54,16.55,1.624,95.08,58.05,-30.58,0.9145,-16.17,-22.64,-36.01,6.539,28.76,25,14.47,-7.473,36.08,36.59,0,0,0,0,0,0,0,0,0,0,0,0,0,0,0,0,
55,20.15,-7.909,59.7,11.35,-26.83,16.57,-3.049,-57.09,-2.507,3.757,43.3,36.49,17.56,25.29,52.49,50.81,0,0,0,0,0,0,0,0,0,0,0,0,0,0,0,0,
56,36.21,18.88,93.79,12.92,20.78,36.63,51.03,-92.36,27.39,32.63,70.07,44.33,27.2,57.9,66.95,65.34,0,0,0,0,0,0,0,0,0,0,0,0,0,0,0,0,
57,33.27,6.896,72.08,35.52,14.44,16.14,-3.821,-62.93,-1.511,19.69,64.13,27.55,5.991,26.65,71.05,67.27,0,0,0,0,0,0,0,0,0,0,0,0,0,0,0,0,
58,5.786,-40.06,56.17,16.25,-15.68,-7.215,-46.9,-31.98,-10.64,-5.959,53.36,22.7,-7.145,6.106,65.62,58.1,0,0,0,0,0,0,0,0,0,0,0,0,0,0,0,0,
59,11.44,-29.71,72.75,14.22,-5.324,40.38,12.97,-37.84,4.122,10.84,52.57,20.58,-3.477,7.871,53.17,42.64,0,0,0,0,0,0,0,0,0,0,0,0,0,0,0,0,
60,24.59,-18.88,32.34,20.82,-5.398,54.53,9.095,-72.79,-23.32,3.64,23.22,-9.569,-21.31,-32.7,26.46,14.78,0,0,0,0,0,0,0,0,0,0,0,0,0,0,0,0,
61,6.433,-51.85,3.083,-12.89,-5.051,-13.12,-33.8,-123.3,-17.51,-20.33,8.67,-15.1,-25.01,-49.36,4.146,-8.091,0,0,0,0,0,0,0,0,0,0,0,0,0,0,0,0,
62,-3.12,-41.15,44.72,-10.16,18.26,-28.43,2.22,-112.5,29.54,2.238,41.93,17.73,4.275,-7.203,13.46,-2.624,0,0,0,0,0,0,0,0,0,0,0,0,0,0,0,0,
63,5.789,-5.349,88.58,48.38,4.525,2.905,18.37,-19.78,15.17,16.57,55.7,21.89,11.31,0.7661,34.12,11.86,0,0,0,0,0,0,0,0,0,0,0,0,0,0,0,0,
64,1.104,-22.28,88.82,53.87,-20.67,-11.2,-18.36,20.5,-15.07,-6.785,33.18,-6.255,-9.047,-33.55,35.11,9.882,0,0,0,0,0,0,0,0,0,0,0,0,0,0,0,0,
65,-7.694,-45.41,52.62,8.695,3.103,-11.9,-17.83,-31.77,2.949,-2.767,34.49,-4.116,-1.083,-28.23,34.34,10.14,0,0,0,0,0,0,0,0,0,0,0,0,0,0,0,0,
66,9.495,-29.39,31.61,-2.897,17.81,13.45,-4.506,-53.46,15.58,23.23,67.15,27.77,30.79,2.839,55.16,30.78,0,0,0,0,0,0,0,0,0,0,0,0,0,0,0,0,
67,23.6,-26.71,31.38,-4.879,-16.13,-7.513,-13.78,-40.37,5.011,18.21,76.61,25.41,28.21,-7.056,73.49,43.91,0,0,0,0,0,0,0,0,0,0,0,0,0,0,0,0,
68,1.634,-40.81,12.91,-14.15,-35.27,-22.2,5.608,-49.12,-2.769,15.31,52.26,-4.41,12.87,-13.91,65.79,31.89,0,0,0,0,0,0,0,0,0,0,0,0,0,0,0,0,
69,-9.038,-9.139,14.91,4.781,-17.46,-1.084,40.68,-34.77,-15.46,35.82,31.57,-14.21,23.2,8.907,45.68,15.55,0,0,0,0,0,0,0,0,0,0,0,0,0,0,0,0,
70,1.861,21.11,29.63,1.406,-9.575,-11.86,37.04,-23.84,-33.17,25.18,24.28,-18.22,17.02,-11.16,28.34,1.112,0,0,0,0,0,0,0,0,0,0,0,0,0,0,0,0,
71,0.2952,-10.32,26.23,-20.65,-11.64,-9.802,23.26,-54.86,-24.95,8.83,32.3,-13.57,7.222,-37.81,24.99,-9.441,0,0,0,0,0,0,0,0,0,0,0,0,0,0,0,0,
72,15.43,-28.19,55.24,22.18,4.931,35,9.283,-44.5,2.016,29.5,47.3,6.821,31.92,-14.82,39.55,2.38,0,0,0,0,0,0,0,0,0,0,0,0,0,0,0,0,
73,28.34,-12.45,52.05,57.11,17.93,27.52,-17.49,2.608,5.192,31.95,44.02,5.084,49.21,0.4756,48.72,27.23,0,0,0,0,0,0,0,0,0,0,0,0,0,0,0,0,
74,3.517,-6.462,2.945,14.28,5.424,-13.83,8.791,-5.663,-3.936,27.03,47.52,5.669,58.22,15.43,43.47,43.15,0,0,0,0,0,0,0,0,0,0,0,0,0,0,0,0,
75,5.129,16.99,51.9,-17.68,-11.31,-15.2,58.06,-59.19,-5.258,48.78,64.54,30.01,71.7,34.5,43.11,52.04,0,0,0,0,0,0,0,0,0,0,0,0,0,0,0,0,
76,28.69,26.43,79.85,-11.68,-22.14,-12.02,22.56,-79.66,-9.36,37.54,57.09,31.2,55.21,8.087,49.95,54.33,0,0,0,0,0,0,0,0,0,0,0,0,0,0,0,0,
77,23.05,-16.04,-28.43,0.1491,-35.4,-7.719,-29.12,-32.47,-1.675,10.83,51.58,20.7,30.55,-7.362,54.45,45.69,0,0,0,0,0,0,0,0,0,0,0,0,0,0,0,0,
78,24.55,-42.35,-34.56,16.58,-30.57,10.35,-22.04,7.361,7.269,16.39,63.99,19.13,20.23,7.378,52.89,31.84,0,0,0,0,0,0,0,0,0,0,0,0,0,0,0,0,
79,17.24,-43.23,76.66,14.35,4.928,-9.891,-17.79,-20.08,-1.489,5.388,60.15,1.804,7.044,-8.401,43.87,20.37,0,0,0,0,0,0,0,0,0,0,0,0,0,0,0,0,
80,-27.68,-53.52,85.19,8.434,27.21,-42.95,-24.11,-35.57,-2.531,-14.82,54.85,-13.47,3.176,-23.12,36.07,17.41,0,0,0,0,0,0,0,0,0,0,0,0,0,0,0,0,
81,-43.8,-55.88,43.94,23.4,10.46,-35.52,-31.88,-11.34,-8.229,-4.476,53.38,-12.41,7.881,-10.35,35.52,22.43,0,0,0,0,0,0,0,0,0,0,0,0,0,0,0,0,
82,-31.5,-55.45,32.2,18.33,-22.08,-39.63,-54.35,-16.65,-21.49,1.253,35.61,-11.33,11.81,0.5387,37.43,27.53,0,0,0,0,0,0,0,0,0,0,0,0,0,0,0,0,
83,-38.91,-52.8,4.664,-7.291,-41.01,-54.93,-33.95,-46.18,-10.96,-3.031,24.58,-7.472,21.29,3.844,39.13,28.31,0,0,0,0,0,0,0,0,0,0,0,0,0,0,0,0,
84,-33.7,-35.1,-3.057,-9.028,-12.83,-12.64,16.39,-68.58,-15.56,0.6376,25.94,-8.761,23.75,-4.569,35.24,25.29,0,0,0,0,0,0,0,0,0,0,0,0,0,0,0,0,
85,-18.98,-27.04,-2.978,-1.393,20.7,14.6,20.63,-72.85,-41.74,-4.709,24.02,-18.35,26.63,-7.371,24.54,21.79,0,0,0,0,0,0,0,0,0,0,0,0,0,0,0,0,
86,-41.33,-22.06,-20.39,-9.331,-20.38,-45.62,9.223,-25.39,-32.95,-8.062,24.56,-17.93,37.39,0.5245,18.4,19.19,0,0,0,0,0,0,0,0,0,0,0,0,0,0,0,0,
87,-63.56,-5.472,16.58,2.087,-65.31,-84.03,-7.669,35.51,-17.52,1.058,20.28,-17.13,26.15,-18.55,14.52,10.65,0,0,0,0,0,0,0,0,0,0,0,0,0,0,0,0,
88,-46.82,-9.748,58.83,34.63,-35.01,-50.29,-35.54,17.28,-26.01,2.472,17.97,-21.5,12.14,-32.67,2.695,-4.615,0,0,0,0,0,0,0,0,0,0,0,0,0,0,0,0,
89,-26.04,-16.4,24.97,27.79,1.801,-15.93,12.52,-42.31,-20.95,6.664,35.33,-11.38,32.72,-4.601,-2.79,-8.704,0,0,0,0,0,0,0,0,0,0,0,0,0,0,0,0,
90,-19.61,10.37,4.275,6.467,11.42,5.015,71.03,-31.73,-9.317,18.92,39.91,0.0541,45.72,3.337,9.442,6.963,0,0,0,0,0,0,0,0,0,0,0,0,0,0,0,0,
91,-13.86,21.85,34.51,31.17,11.18,5.313,11.08,19.03,-12.13,18.98,23.85,-1.183,30.93,-12.13,20.87,22.64,0,0,0,0,0,0,0,0,0,0,0,0,0,0,0,0,
92,-3.473,5.771,37.52,54.26,-8.484,-8.628,-31.06,18.04,-13.41,20.94,28.31,0.6324,35.81,10.99,19.95,23.74,0,0,0,0,0,0,0,0,0,0,0,0,0,0,0,0,
93,-1.625,9.691,13.47,46.56,-23.69,0.275,17.87,-9.668,-19.32,23.13,40.8,-7.177,46.81,21.62,14.96,16.37,0,0,0,0,0,0,0,0,0,0,0,0,0,0,0,0,
94,-25.87,8.472,23.17,44.71,-21.61,-11.55,12.17,-9.003,-21.92,3.773,47.53,-19.88,34.64,-15.64,14.5,10.82,0,0,0,0,0,0,0,0,0,0,0,0,0,0,0,0,
95,-33.41,-6.919,59.76,32.23,-13.61,-28.33,-15.59,2.542,5.368,-1.785,70.07,-1.568,37.16,-16.31,25.12,16.33,0,0,0,0,0,0,0,0,0,0,0,0,0,0,0,0,
96,0.8109,7.129,48.01,-1.018,0.2984,15.47,21.89,-2.337,19.11,13.22,71.87,10.07,44.48,6.914,35.62,24.13,0,0,0,0,0,0,0,0,0,0,0,0,0,0,0,0,
97,0.9297,12.09,8.426,-3.855,-0.864,25.08,29.78,-0.403,-6.34,3.669,44.74,-6.899,25.82,-16.59,29.54,16.54,0,0,0,0,0,0,0,0,0,0,0,0,0,0,0,0,
98,-28.97,-14.62,25.18,32.59,-15.59,-30.99,-10.81,19.68,-15.96,-11.87,45.47,3.664,23,-26.77,21.56,4.994,0,0,0,0,0,0,0,0,0,0,0,0,0,0,0,0,
99,-14.85,-16.98,24.71,48.99,-27.65,-34.78,-15.31,-8.06,-11.02,-5.219,52.62,23.89,38.92,3.664,22.99,5.51,0,0,0,0,0,0,0,0,0,0,0,0,0,0,0,0,
100,3.68,-5.096,-13.4,30.15,-37.66,-1.395,9.336,-72.94,-16.76,-0.6955,40.49,14.74,36.98,3.779,19.51,11.41,0,0,0,0,0,0,0,0,0,0,0,0,0,0,0,0,
101,-2.593,-9.82,25.43,16.14,-21.66,-1.604,8.88,-62.21,-4.844,-5.143,39.48,8.445,30.76,-10.93,10.84,15.87,0,0,0,0,0,0,0,0,0,0,0,0,0,0,0,0,
102,-2.938,-7.83,49.52,-5.125,8.724,-11.37,-14.28,-13.22,2.663,-1.595,35.34,5.804,29.82,11.57,6.283,14.51,0,0,0,0,0,0,0,0,0,0,0,0,0,0,0,0,
103,-16.39,1.287,-6.153,-30.65,17.78,-12.43,-23.03,-14.74,-16.73,6.48,31.28,-3.665,25.13,22.11,3.199,5.629,0,0,0,0,0,0,0,0,0,0,0,0,0,0,0,0,
104,-31.69,-3.132,-7.795,-5.143,11.26,-11.21,-23.83,-5.02,-17.14,-6.235,44.23,-4.782,17.82,-17.12,-2.626,-4.195,0,0,0,0,0,0,0,0,0,0,0,0,0,0,0,0,
105,-16.02,-10.3,4.913,30.55,-17.09,-13.65,-21.79,31.47,-4.912,-23.44,40.74,-2.51,13.92,-32.15,-8.977,-9.911,0,0,0,0,0,0,0,0,0,0,0,0,0,0,0,0,
106,1.689,2.453,-8.517,28.95,-42.26,-24.62,-7.891,24.49,-16.96,-3.596,30.56,2.126,15.82,-6.009,-9.406,-7.453,0,0,0,0,0,0,0,0,0,0,0,0,0,0,0,0,
107,-1.625,11.96,37.69,26.22,-26.64,-35.93,-25.13,-18.06,-30.59,13.07,24.97,0.6614,9.057,-16.56,-8.433,-0.9976,0,0,0,0,0,0,0,0,0,0,0,0,0,0,0,0,
108,-17.29,-2.907,54.93,1.549,-14.52,-32.84,-28.75,-49.47,-16.71,0.0894,11.12,-4.383,6.115,-24.13,-10.99,0.0297,0,0,0,0,0,0,0,0,0,0,0,0,0,0,0,0,
109,-19.97,8.894,-6.919,-36.63,-8.827,-2.246,36.84,-42.1,7.227,4.295,23.75,10.53,19.17,14.9,-5.821,-0.606,0,0,0,0,0,0,0,0,0,0,0,0,0,0,0,0,
110,-2.865,40.53,-37.61,-12.82,8.769,14.47,37.58,-3.825,-0.6572,5.818,30.25,8.519,9.647,10.96,-0.8251,-2.786,0,0,0,0,0,0,0,0,0,0,0,0,0,0,0,0,
111,-3.229,31.81,-15.79,23.53,-18.65,-20.4,-21.34,24.91,-25.97,-1.657,-0.9485,-13.63,-2.086,-6.117,-8.298,-6.237,0,0,0,0,0,0,0,0,0,0,0,0,0,0,0,0,
112,-8.264,30.82,20.4,13.2,-41.25,-29.07,10.12,31.76,-14.25,23.57,19.48,6.398,22.5,30.62,-2.366,4.274,0,0,0,0,0,0,0,0,0,0,0,0,0,0,0,0,
113,10.02,53.89,28.81,14.33,17.74,13.98,26.3,24.47,13,22.54,62.38,25.21,27.78,22.8,20.11,19.61,0,0,0,0,0,0,0,0,0,0,0,0,0,0,0,0,
114,4.746,33.92,21.32,29.21,39.31,11.97,-26.89,12.82,6.911,-13.44,32.68,-2.656,7.56,-20.97,22.71,15.82,0,0,0,0,0,0,0,0,0,0,0,0,0,0,0,0,
115,-19.82,14.85,47.36,16.57,-15.56,-9.667,4.071,12.99,-10.36,5.206,16.87,-4.861,16.4,0.7956,10.38,6.557,0,0,0,0,0,0,0,0,0,0,0,0,0,0,0,0,
116,-4.307,43.94,42.77,12.96,2.276,33.01,56.95,26.05,0.9016,36,50.05,24.2,26.95,25.62,9.484,10.26,0,0,0,0,0,0,0,0,0,0,0,0,0,0,0,0,
117,18.4,55.28,11.09,30.61,58.16,52.42,32.77,36.03,23.3,15.62,36.85,22.94,11.81,9.516,6.941,12.01,0,0,0,0,0,0,0,0,0,0,0,0,0,0,0,0,
118,4.362,38.13,32.89,31.99,20.12,-3.549,20.04,18.63,13.2,6.2,17.34,15.91,7.224,11.4,-3.1,4.029,0,0,0,0,0,0,0,0,0,0,0,0,0,0,0,0,
119,-4.802,38.6,48.64,39.43,-16.2,-19.22,1.941,-5.669,-8.573,21.4,50.84,35.14,20.23,18.6,4.909,3.992,0,0,0,0,0,0,0,0,0,0,0,0,0,0,0,0,
120,6.13,38.04,33.46,50.91,15.56,13.35,-40.46,-9.083,-3.644,12.1,56.4,43.73,25.97,13.02,27.33,17.02,0,0,0,0,0,0,0,0,0,0,0,0,0,0,0,0,
121,2.528,21.36,11.54,3.276,10.96,11.86,-7.87,-36.18,-2.167,-2.058,20.97,25.32,25.99,29.94,33.5,29.35,0,0,0,0,0,0,0,0,0,0,0,0,0,0,0,0,
122,-10.39,22.55,-29.95,-47.25,-16.59,2.487,22.85,-58.95,-13.59,3.584,14.35,0.876,21.25,42.38,19.49,30.64,0,0,0,0,0,0,0,0,0,0,0,0,0,0,0,0,
123,-22.57,26.53,-29.56,-24.97,-9.427,-10.61,-33.83,-22.34,-15.33,-0.2307,16.3,-20.35,1.076,19.63,-1.403,15.75,0,0,0,0,0,0,0,0,0,0,0,0,0,0,0,0,
124,-34.43,6.014,-7.907,-10.36,-8.499,-36.08,-36.31,-22.71,-23.15,-8.854,0.4725,-23.18,-5.285,16.16,-18.61,-5.775,0,0,0,0,0,0,0,0,0,0,0,0,0,0,0,0,
125,-20.43,3.186,-19.11,-27.97,-15.78,-18.77,17.99,-64.36,-33.06,2.334,-1.283,-5.298,12.9,35.36,-20.57,-13.55,0,0,0,0,0,0,0,0,0,0,0,0,0,0,0,0,
126,-6.919,11.28,-5.141,-14.33,-32.97,-15.15,-13.42,-42.21,-30.63,5.663,5.391,3.71,8.309,22.22,-11.69,-10.16,0,0,0,0,0,0,0,0,0,0,0,0,0,0,0,0,
127,-30.93,-15.14,-33.75,-10.56,-59.78,-62.14,-60.74,-16.34,-32.36,-3.842,5.648,0.6459,-10.83,5.288,-6.406,-8.037,0,0,0,0,0,0,0,0,0,0,0,0,0,0,0,0,
128,-46.51,-31.17,-108.7,-42.54,-45.79,-61.65,-44.63,-29.28,-37.79,0.3726,6.386,-7.171,-12.57,6.795,-6.785,-6.801,0,0,0,0,0,0,0,0,0,0,0,0,0,0,0,0,
129,-44.33,-19.66,-57.38,-58.03,-35.71,-40.29,-36.59,-32.92,-35.65,-1.812,1.651,-19.63,-19.33,-4.664,-11.7,-11.53,0,0,0,0,0,0,0,0,0,0,0,0,0,0,0,0,
130,-42.62,-20,10.08,-44.48,-50.53,-42.84,-33.17,-52.1,-22.58,-12.31,3.876,-11.37,-18.52,2.721,-17.63,-20.15,0,0,0,0,0,0,0,0,0,0,0,0,0,0,0,0,
131,-13.8,-6.25,-49.69,-7.327,-12.05,-8.045,-8.05,-48.16,-11.63,1.762,12.57,2.196,5.957,39.75,-16.99,-15.66,0,0,0,0,0,0,0,0,0,0,0,0,0,0,0,0,
132,-6.095,16.45,-57.44,19.53,12.88,5.937,-3.837,8.752,-24.7,18.2,-5.213,-20.39,5.006,35.27,-15.26,-3.848,0,0,0,0,0,0,0,0,0,0,0,0,0,0,0,0,
133,-56.06,-7.095,21.73,4.961,-37.76,-42.35,-24.85,12.15,-37.31,1.22,-26.31,-45.12,-26.79,-10.82,-20.88,-4.009,0,0,0,0,0,0,0,0,0,0,0,0,0,0,0,0,
134,-74.57,-40.16,36.52,-3.124,-45.58,-57.32,-41.8,-22.9,-28.23,-17.14,-12.43,-35.48,-33.35,-11.68,-24.75,-9.45,0,0,0,0,0,0,0,0,0,0,0,0,0,0,0,0,
135,-47.24,-28.13,-15.25,-13.55,-1.375,-32.69,-31.72,-27.59,-23.33,0.7274,0.099,-21.59,-13.99,31.62,-19.63,-8.521,0,0,0,0,0,0,0,0,0,0,0,0,0,0,0,0,
136,-39.23,-15.71,-75.86,-61.04,-1.773,-9.274,-11.49,-65.02,-22.47,8.976,-18.02,-26.51,-22.19,18.76,-18.94,-13.27,0,0,0,0,0,0,0,0,0,0,0,0,0,0,0,0,
137,-35.81,-38.32,-62.75,-57.38,-15.25,10.89,-10.43,-90.58,-17.13,-25.99,-25.61,-30.68,-48.49,-26.85,-25.84,-25.85,0,0,0,0,0,0,0,0,0,0,0,0,0,0,0,0,
138,-26.07,-44.24,23.11,2.882,-6.741,-5.788,-7.347,-23.43,-23.23,-35.84,-1.88,-16.89,-35.41,-1.489,-19.22,-21.99,0,0,0,0,0,0,0,0,0,0,0,0,0,0,0,0,
139,-37.43,-22.55,7.285,6.919,-14.94,-40.41,-19.82,19.18,-28.35,-2.041,9.043,-6.15,-2.819,35.99,2.308,2.387,0,0,0,0,0,0,0,0,0,0,0,0,0,0,0,0,
140,-45.21,-21.13,-48.77,-15.38,-23.15,-32.06,-47.48,-12.27,-11.43,10.49,-3.879,-10.62,5.062,23.39,17.02,23.2,0,0,0,0,0,0,0,0,0,0,0,0,0,0,0,0,
141,-27.68,-22.51,23.96,-0.3735,-7.323,-2.914,-25.67,-27.27,4.026,-1.506,0.7806,-6.471,3.924,21.33,18.41,26.17,0,0,0,0,0,0,0,0,0,0,0,0,0,0,0,0,
142,-12.79,-11.1,27.72,4.794,12.48,7.647,-14.18,-28.74,-3.424,-7.068,19.13,6.798,11.07,31.42,12.87,16.65,0,0,0,0,0,0,0,0,0,0,0,0,0,0,0,0,
143,-5.125,-11.5,-76.02,2.793,38.27,11.91,-42.99,-29.95,-2.69,3.906,19.37,10.71,25.95,34.49,9.67,10.91,0,0,0,0,0,0,0,0,0,0,0,0,0,0,0,0,
144,-1.909,-4.644,-13.33,15.76,38.45,6.876,-17.57,-14.54,7.451,17.19,4.456,-0.2854,21.01,30.93,9.595,7.885,0,0,0,0,0,0,0,0,0,0,0,0,0,0,0,0,
145,-30.03,-5.745,70.26,-2.108,-6.383,-18.68,1.296,-16.75,-16.59,1.618,-14.64,-19.68,-18.74,6.869,-2.401,-10.78,0,0,0,0,0,0,0,0,0,0,0,0,0,0,0,0,
146,-61.33,-33.57,-31.1,-36.94,-5.883,-29.45,-35.88,-22.12,-33.39,-5.191,-24.16,-19.04,-30.22,13.89,-17.65,-27.19,0,0,0,0,0,0,0,0,0,0,0,0,0,0,0,0,
147,-48.76,-32.25,-72.68,-35.18,24.79,-22.74,-31.4,-17.83,-2.107,16.69,-11.51,-0.3556,-8.998,39.68,-11.6,-15.41,0,0,0,0,0,0,0,0,0,0,0,0,0,0,0,0,
148,-35.36,-23.9,-17.61,-18.69,-9.171,-34.73,-17.29,-42.93,9.171,1.258,6.742,0.959,-19.51,15.52,2.773,1.367,0,0,0,0,0,0,0,0,0,0,0,0,0,0,0,0,
149,-46.36,-47.72,-40.14,-20.64,-22.97,-31.61,-35.81,-59.26,-8.995,-21.8,13.35,-6.132,-29.44,4.946,4.674,3.62,0,0,0,0,0,0,0,0,0,0,0,0,0,0,0,0,
150,-39.39,-43.26,-25.81,-20.56,3.119,-11.27,-32.36,-44.36,-14.58,-4.156,8.966,-10.18,-13.7,18.66,0.5301,1.684,0,0,0,0,0,0,0,0,0,0,0,0,0,0,0,0,
151,-27.52,-23.03,16.81,-5.099,-27.95,-28.7,-28.39,-41.8,-23.97,-9.456,-2.666,-20.97,-13.53,-1.488,-4.04,-3.778,0,0,0,0,0,0,0,0,0,0,0,0,0,0,0,0,
152,-35.73,-27.51,-66.33,-8.851,-14.11,-25.08,-17.88,-23.08,-13.96,-19.25,-9.762,-16.62,-5.142,10.16,-7.838,-9.05,0,0,0,0,0,0,0,0,0,0,0,0,0,0,0,0,
153,-31.12,-12.06,-91.29,-32.73,63.52,20.76,16.31,12.59,17.99,13.86,-4.68,1.229,18.38,47.57,-7.187,-4.501,0,0,0,0,0,0,0,0,0,0,0,0,0,0,0,0,
154,-11.79,3.918,39.21,-21.24,35.69,7.655,-2.293,-3.204,3.953,10.36,4.362,-1.006,2.058,20.78,-6.443,-2.947,0,0,0,0,0,0,0,0,0,0,0,0,0,0,0,0,
155,-14.96,-21.14,62.18,14.83,-16.89,-32.33,-55.74,-27.27,-26.82,-30.15,14.61,-9.527,-32.15,-24.01,-5.853,-14.83,0,0,0,0,0,0,0,0,0,0,0,0,0,0,0,0,
156,-39.72,-42.97,-40.65,12.45,10.21,-30.91,-66.42,-6.237,-28.57,-23.56,21.28,-7.847,-33.52,-31.24,-0.7409,-25.69,0,0,0,0,0,0,0,0,0,0,0,0,0,0,0,0,
157,-54.47,-47.78,-55.48,-26.8,-13.53,-39.8,-54.84,-20.25,-37.19,-15.36,9.453,-17.23,-25.06,-23.48,-1.837,-27.84,0,0,0,0,0,0,0,0,0,0,0,0,0,0,0,0,
158,-48.55,-51.7,-23.24,-52.6,-54.14,-44.36,-42.74,-64.01,-31.86,-38.04,-3.663,-28.7,-22.61,-8.427,-13.91,-27.14,0,0,0,0,0,0,0,0,0,0,0,0,0,0,0,0,
159,-42.09,-37.64,-38.16,-34.87,-7.602,-27.72,-24.61,-44.87,-4.125,-17.43,1.337,-22.82,-7.051,3.708,-17.44,-18.39,0,0,0,0,0,0,0,0,0,0,0,0,0,0,0,0,
160,-47.83,-19.29,-46.42,-12.16,4.635,-52.75,-5.889,-35.03,-10.44,13.13,-3.088,-18.77,5.259,7.959,-8.736,-2.449,0,0,0,0,0,0,0,0,0,0,0,0,0,0,0,0,
161,-43.22,-17.84,-25.12,-20.92,-36.8,-67.62,5.04,-60.54,-19.19,-15.62,-12.46,-16.55,0.8768,12.28,-4.965,1.974,0,0,0,0,0,0,0,0,0,0,0,0,0,0,0,0,
162,-18.73,-20.39,26.26,-14.93,-20.37,-25.66,-12.04,-9.713,-9.285,-31.68,-2.904,-6.04,1.283,1.386,-4.769,-5.339,0,0,0,0,0,0,0,0,0,0,0,0,0,0,0,0,
163,-14.49,-32.7,39.98,1.798,0.9958,-14.38,-34.09,19.22,-32.06,-9.723,-9.951,-10.37,-0.5105,-14.63,-1.11,-7.631,0,0,0,0,0,0,0,0,0,0,0,0,0,0,0,0,
164,-41.61,-52.85,-57.2,-16.68,-9.589,-28.05,-29.52,-45.56,-43.85,-18.41,-30.17,-21.08,-14.85,-12.71,1.87,-3.96,0,0,0,0,0,0,0,0,0,0,0,0,0,0,0,0,
165,-58.99,-53.3,-89.71,-24.87,-1.453,-17.68,-31.96,-34.21,-19.06,-34.38,-23.98,-12.71,-17.45,-11.61,6.108,0.1006,0,0,0,0,0,0,0,0,0,0,0,0,0,0,0,0,
166,-56.8,-43.36,22.73,-7.76,-16.32,-32.53,-39.15,23.1,-21.29,-20.58,-14.92,-1.055,-4.514,-9.457,12.49,6.602,0,0,0,0,0,0,0,0,0,0,0,0,0,0,0,0,
167,-42.95,-37.49,54.57,-9.072,-42.73,-51.72,-23.77,1.506,-21.12,-9.578,-11.49,2.546,4.197,7.66,13.79,14.17,0,0,0,0,0,0,0,0,0,0,0,0,0,0,0,0,
168,-24.88,-28.77,-10.04,-28.58,-16.28,-30.66,-15.03,-33.74,-5.551,-8.052,-7.047,-4.88,-1.004,5.191,5.286,14.27,0,0,0,0,0,0,0,0,0,0,0,0,0,0,0,0,
169,-20.25,-24.21,0.8141,-48.04,3.579,-9.192,-2.71,-52.78,-29.5,-11.55,-17.16,-12.58,-8.528,-15.7,-9.474,6.213,0,0,0,0,0,0,0,0,0,0,0,0,0,0,0,0,
170,7.516,-12.25,46.52,-19.12,11.83,30.93,33.71,-30.26,-25.04,-15.85,-6.121,14.86,8.581,-4.876,-12.06,5.283,0,0,0,0,0,0,0,0,0,0,0,0,0,0,0,0,
171,62.48,19.98,29.38,51.45,70.85,88.04,53.73,35.44,42.04,9.39,41.46,60.1,46.62,30.8,16,25.15,0,0,0,0,0,0,0,0,0,0,0,0,0,0,0,0,
172,61.98,44.16,-8.246,72.04,103,72.44,57.67,43.58,69.4,40.61,80.06,84.77,71.43,49.96,67.31,61.96,0,0,0,0,0,0,0,0,0,0,0,0,0,0,0,0,
173,28.72,43.31,18.77,64.37,54.42,11.61,50.86,46.21,46.83,26.24,92,91.34,64.23,47.94,108.4,92.64,0,0,0,0,0,0,0,0,0,0,0,0,0,0,0,0,
174,32.4,23.62,67.95,60.82,8.308,-8.692,13.22,57.98,27.61,-0.9507,66.41,71.48,32.71,37.84,103.5,87.87,0,0,0,0,0,0,0,0,0,0,0,0,0,0,0,0,
175,26.11,-1.778,22.23,1.093,2.176,-3.925,-3.275,-29.92,4.264,-3.59,9.462,27.71,-1.032,15.04,51.89,46.5,0,0,0,0,0,0,0,0,0,0,0,0,0,0,0,0,
176,-2.686,-16.33,-41.01,-49.82,9.766,1.021,18.42,-76.07,-23.62,-15.57,-33.49,-9.045,-25.02,-11.2,-10.34,-1.497,0,0,0,0,0,0,0,0,0,0,0,0,0,0,0,0,
177,-7.228,-24.31,-14.46,-19.28,12.98,4.767,18.38,-3.647,-37.03,-33.18,-45.25,-25.42,-31.18,-0.7878,-48.11,-29.7,0,0,0,0,0,0,0,0,0,0,0,0,0,0,0,0,
178,-6.724,-25.87,-2.713,1.561,-5.842,-5.611,-1.785,-3.892,-37.67,-28.28,-33.78,-22.3,-21.55,14.2,-50.85,-32.14,0,0,0,0,0,0,0,0,0,0,0,0,0,0,0,0,
179,-25.23,-24.99,-32.48,-17.79,-32.7,-30.33,-22,-55.29,-45.36,-36.89,-21.69,-19.58,-22.47,-16.83,-35.05,-20.65,0,0,0,0,0,0,0,0,0,0,0,0,0,0,0,0,
180,-41.23,-30.12,-9.861,-4.883,-20.93,-48.95,-27.98,-27.16,-43.95,-53.55,-21.94,-19.71,-19.4,-17,-16.25,-4.035,0,0,0,0,0,0,0,0,0,0,0,0,0,0,0,0,
181,-25.09,-10.74,17.56,29.46,20.24,-33.54,5.82,8.417,-5.589,-40.01,-9.498,-3.151,-0.0061,23.2,6.062,15.64,0,0,0,0,0,0,0,0,0,0,0,0,0,0,0,0,
182,11.33,9.545,-0.6238,22.08,26.95,-2.399,24.72,-7.049,10.38,-39.02,0.4606,1.648,-11.92,8.357,16.84,20.72,0,0,0,0,0,0,0,0,0,0,0,0,0,0,0,0,
183,16.34,-19.06,10,4.384,3.75,-0.1893,-3.64,-25.99,-14.42,-53.73,-12.21,-8.643,-34.79,-6.151,7.426,8.029,0,0,0,0,0,0,0,0,0,0,0,0,0,0,0,0,
184,-5.574,-38.58,51.43,24,-3.715,-15.26,-18.22,-24.27,-7.436,-46.19,-13.44,-0.4353,-27.47,15.37,2.51,1.785,0,0,0,0,0,0,0,0,0,0,0,0,0,0,0,0,
185,-14.57,-29.33,44.17,20.63,-5.927,-20.01,-4.106,-11.4,4.593,-50.01,-3.856,2.812,-24.74,-5.652,6.835,3.868,0,0,0,0,0,0,0,0,0,0,0,0,0,0,0,0,
186,-8.501,-26.52,16.04,-3.487,6.683,-7.927,25.68,-0.4245,-7.383,-51.6,7.735,8.126,-7.371,-8.059,9.541,9.261,0,0,0,0,0,0,0,0,0,0,0,0,0,0,0,0,
187,12.92,2.594,23,18.84,36.28,13.42,38.55,-1.744,4.479,-28.92,24.75,38.62,30.33,37.41,20.35,25.98,0,0,0,0,0,0,0,0,0,0,0,0,0,0,0,0,
188,34.66,12.63,20.25,23.33,23.05,16.03,-10.23,-4.247,6.711,-41.94,14.7,43.19,16.22,27.64,32.84,37.14,0,0,0,0,0,0,0,0,0,0,0,0,0,0,0,0,
189,34.36,-37.88,5.154,1.807,-2.529,7.281,-36.81,2.562,-4.435,-58.25,0.6556,31.77,-9.525,0.8481,33.79,30.52,0,0,0,0,0,0,0,0,0,0,0,0,0,0,0,0,
190,34.67,-41.01,11.17,34.93,19.09,11.49,2.084,-2.708,30.23,-29.21,20.73,52.04,10.77,12.21,36.94,28.18,0,0,0,0,0,0,0,0,0,0,0,0,0,0,0,0,
191,46.71,-2.555,15.93,61.07,43.91,22.13,11.85,-0.5773,54.95,-26.53,31.29,61.2,18.49,6.161,44.2,35.42,0,0,0,0,0,0,0,0,0,0,0,0,0,0,0,0,
192,56.75,-4.893,56.71,49.15,53.32,45.77,28.16,30.91,30.54,-37.99,24.14,48.23,13.99,5.929,41.04,36.36,0,0,0,0,0,0,0,0,0,0,0,0,0,0,0,0,
193,64.13,6.552,108.5,51.01,55.63,59.79,81.71,27.53,14.26,-10.37,20.86,45.65,27.28,30.84,29.89,28.05,0,0,0,0,0,0,0,0,0,0,0,0,0,0,0,0,
194,51.55,21.77,62.19,47.73,37.33,22.28,48.65,14.32,4.097,-13.53,1.573,29.29,13.02,21.72,17.72,14.58,0,0,0,0,0,0,0,0,0,0,0,0,0,0,0,0,
195,14.31,-19.05,14.84,58.51,21.81,-13.46,-17.06,57.82,-5.984,-43,-9.615,10.04,-10.9,0.5096,10.32,6.227,0,0,0,0,0,0,0,0,0,0,0,0,0,0,0,0,
196,1.191,-35.12,21.57,64.99,22.26,13.6,18.67,47,28.07,-22.55,12.02,27.74,8.692,10.32,16.58,13.8,0,0,0,0,0,0,0,0,0,0,0,0,0,0,0,0,
197,27.7,1.974,-31.74,12.64,37.61,51.74,52.74,-28.51,63.94,-14.67,24.4,40.82,26.85,20.02,25.91,23.02,0,0,0,0,0,0,0,0,0,0,0,0,0,0,0,0,
198,31.22,10.55,-17.52,14.32,52.29,35.14,14.13,-5.081,28.69,-53.16,20.59,24.68,9.494,14.38,22.62,17.82,0,0,0,0,0,0,0,0,0,0,0,0,0,0,0,0,
199,-6.71,-13.48,110,70.33,20.72,-13.99,-4.418,60.23,-15.28,-56.73,22.9,21.26,-6.46,-6.132,16.11,10.53,0,0,0,0,0,0,0,0,0,0,0,0,0,0,0,0,
200,-24.31,-33.33,89.59,38.31,-17.72,-38.41,-3.986,31.9,-1.15,-44.63,14.73,21.3,-9.897,-32.63,12.9,9.391,0,0,0,0,0,0,0,0,0,0,0,0,0,0,0,0,
201,-13.31,-37.72,-14.63,11.08,-13.3,-32.25,-21.4,4.302,7.825,-57.99,-3.551,2.965,-10.63,-18.14,6.218,8.342,0,0,0,0,0,0,0,0,0,0,0,0,0,0,0,0,
202,-12.79,-31.29,13.67,44.53,-11.63,-21.46,-20.55,28.96,-7.582,-53.59,-11.56,-6.18,-17.76,6.612,2.422,8.633,0,0,0,0,0,0,0,0,0,0,0,0,0,0,0,0,
203,-14.93,-47.55,57.32,16.57,-8.642,-8.245,-14.33,-4.413,6.504,-49.9,-13.3,-8.057,-38.52,-17.89,4.257,6.111,0,0,0,0,0,0,0,0,0,0,0,0,0,0,0,0,
204,-11.13,-64.91,32.37,-5.675,23.26,6.75,-14.75,-51.79,20.82,-54.97,-8.244,-14.27,-42.52,-23.24,4.537,-1.131,0,0,0,0,0,0,0,0,0,0,0,0,0,0,0,0,
205,-12.13,-43.43,-11.38,27.61,33.72,-8.099,-2.192,8.422,-1.149,-28.72,-2.734,-16.23,-37.99,-1.71,5.544,-2.973,0,0,0,0,0,0,0,0,0,0,0,0,0,0,0,0,
206,-19.09,-48.41,-46,4.444,-0.6336,-55.59,-25.43,55.77,-19.49,-24.25,-15.65,-28.92,-65.58,-38.87,5.188,-3.926,0,0,0,0,0,0,0,0,0,0,0,0,0,0,0,0,
207,-31.73,-88.59,-18.06,-17.24,-35.88,-57.02,-71.08,-3.433,-7.118,-48.41,-24.5,-37.44,-73.35,-70.71,4.305,-3.744,0,0,0,0,0,0,0,0,0,0,0,0,0,0,0,0,
208,-28.25,-72.51,7.152,13.53,-23.39,3.815,-43.7,-12.3,12.89,-32.98,-11.31,-14.78,-37.41,-39.49,17.08,10.27,0,0,0,0,0,0,0,0,0,0,0,0,0,0,0,0,
209,-5.306,-33.38,-7.983,-12.52,17.71,8.842,8.909,27.05,10.91,-16.89,0.2479,7.385,-22.28,-14.22,37.35,23.97,0,0,0,0,0,0,0,0,0,0,0,0,0,0,0,0,
210,-5.493,-39.84,21.81,-52.47,3.474,-58.9,-17.18,-23.5,-4.337,-25.43,7.213,16.11,-16.92,-3.015,47.08,26.87,0,0,0,0,0,0,0,0,0,0,0,0,0,0,0,0,
211,-23.68,-42.78,22.34,-10.37,-50.22,-83.58,-76.43,-43.05,-14.77,-12.44,12.4,27.9,3.017,-5.362,47.74,34.4,0,0,0,0,0,0,0,0,0,0,0,0,0,0,0,0,
212,-19.07,-22.37,-10.37,42.95,-39.94,-50.56,-73.46,42.25,-18.28,6.206,6.442,28.92,4.351,-27.22,42.24,40.89,0,0,0,0,0,0,0,0,0,0,0,0,0,0,0,0,
213,-6.993,-16.7,12.76,32.65,6.053,-17.59,-13.96,53.31,0.5928,11.16,3.705,16.01,1.764,-12.89,27.09,32.2,0,0,0,0,0,0,0,0,0,0,0,0,0,0,0,0,
214,-7.123,-20.51,-32.33,-20.69,-1.157,0.0349,22.05,0.3357,19.42,17.2,10.32,9.58,13.34,12.36,11.59,21.29,0,0,0,0,0,0,0,0,0,0,0,0,0,0,0,0,
215,8.185,-13.45,-76.69,-40.59,-15.47,-5.853,8.286,20.28,9.888,19.64,13.48,18.01,15.3,2.455,10.49,21.51,0,0,0,0,0,0,0,0,0,0,0,0,0,0,0,0,
216,32.05,-5.276,26.01,-10.41,10.56,-23.55,-7.963,12.67,18.97,12.33,12.2,25.12,4.621,-6.126,19.4,26.62,0,0,0,0,0,0,0,0,0,0,0,0,0,0,0,0,
217,17.72,-15.54,27.51,-14.62,17.4,-25.48,-20.42,-49.9,42.9,4.475,11.12,14.93,-3.925,-10.24,22.36,26.29,0,0,0,0,0,0,0,0,0,0,0,0,0,0,0,0,
218,-9.89,-27.54,-64.24,-32.26,-6.891,-27.27,-55.86,4.759,24.79,9.972,12.95,3.147,-3.081,-14.69,16.6,16.91,0,0,0,0,0,0,0,0,0,0,0,0,0,0,0,0,
219,-9.727,-20.8,23.07,1.557,-26.82,-48.57,-74.61,83.12,-4.536,11.6,5.886,-4.767,-4.959,-11.2,4.772,1.211,0,0,0,0,0,0,0,0,0,0,0,0,0,0,0,0,
220,-14.83,-15.75,66.09,3.018,-33.4,-49.99,-28.19,6.212,-6.436,4.466,-12.62,-13.35,-7.006,-9.477,-8.309,-7.454,0,0,0,0,0,0,0,0,0,0,0,0,0,0,0,0,
221,-19.18,-7.135,-80.03,-35.63,-2.222,-13.74,19.65,-55.85,-1.257,29.16,-16.26,-5.518,12.73,16.58,-9.753,2.492,0,0,0,0,0,0,0,0,0,0,0,0,0,0,0,0,
222,6.135,14.05,-109.1,-18.68,35.52,-0.4095,7.214,-2.311,0.9782,50.86,-3.986,4.732,26,42.09,-3.31,17.01,0,0,0,0,0,0,0,0,0,0,0,0,0,0,0,0,
223,16.42,15.82,-22.4,3.249,24.48,-5.75,14.35,8.922,8.708,20.23,11.38,2.617,12.22,3.625,-1.605,19.21,0,0,0,0,0,0,0,0,0,0,0,0,0,0,0,0,
224,13.67,7.132,0.1988,-14.76,8.92,21.91,48.64,-5.949,23.03,-7.406,24.22,6.494,-2.397,-45.19,-1.831,12.62,0,0,0,0,0,0,0,0,0,0,0,0,0,0,0,0,
225,28.89,0.0225,41.67,4.664,9.028,26.05,2.386,29.91,25.97,-11.65,10.11,-0.6408,-24.79,-43.54,-8.568,-0.0885,0,0,0,0,0,0,0,0,0,0,0,0,0,0,0,0,
226,18.28,-26.17,83.68,45.76,4.05,-7.473,-56.5,30.6,14.51,-11.65,-10.21,-19.15,-46.27,-27.64,-24.22,-13.8,0,0,0,0,0,0,0,0,0,0,0,0,0,0,0,0,
227,-3.765,-36.27,46.86,34.79,25.55,3.175,-23.62,-11.96,16.4,11.18,4.173,-8.739,-33.47,-22.98,-29.4,-16.59,0,0,0,0,0,0,0,0,0,0,0,0,0,0,0,0,
228,18.61,-8.572,23.02,8.635,56.26,36.01,27.96,-25.02,27.95,23.23,12.33,6.221,-17.56,-22.29,-23.68,-14.74,0,0,0,0,0,0,0,0,0,0,0,0,0,0,0,0,
229,33.43,7.932,-10.62,9.1,48.16,34.91,42.47,4.34,25.88,4.626,-6.966,-7.202,-19.83,-26.56,-24.55,-18.47,0,0,0,0,0,0,0,0,0,0,0,0,0,0,0,0,
230,8.582,5.188,-66.82,13.59,15.98,19.94,19.99,48.62,14.12,9.871,-4.13,-11.65,-8.899,-25.67,-26,-20.35,0,0,0,0,0,0,0,0,0,0,0,0,0,0,0,0,
231,8.382,11.29,7.69,25.88,-2.896,15.05,-9.921,38.81,-3.217,27.91,6.599,-0.2454,2.559,-11.2,-21.06,-17.51,0,0,0,0,0,0,0,0,0,0,0,0,0,0,0,0,
232,29.09,11.46,111.3,32.1,16.3,29.44,19.62,-8.676,-17.98,14.87,-11.14,-6.036,-12.59,-8.986,-20.48,-16.68,0,0,0,0,0,0,0,0,0,0,0,0,0,0,0,0,
233,22.72,-3.696,56.23,2.918,43.06,39.73,49.32,1.951,-4.213,4.33,-2.169,0.0083,-15.49,-20.09,-15.77,-10.5,0,0,0,0,0,0,0,0,0,0,0,0,0,0,0,0,
234,26.95,0.4226,-9.189,6.917,39.37,24.66,14.23,24.35,29.18,18.18,45.67,37.05,12.27,-7.349,6.888,9.386,0,0,0,0,0,0,0,0,0,0,0,0,0,0,0,0,
235,49.93,18.59,18.17,57.6,30.35,16.83,-6.851,7.86,40.75,16.88,40.56,42.39,17.37,3.288,22.65,23.7,0,0,0,0,0,0,0,0,0,0,0,0,0,0,0,0,
236,40.64,9.835,34.2,46.21,26.47,25.1,6.791,14.6,41.06,-2.923,-4.822,15.06,0.9927,-16.97,14.49,18.15,0,0,0,0,0,0,0,0,0,0,0,0,0,0,0,0,
237,30.76,-0.8746,20.45,-1.254,22.2,28.35,10.91,15.05,51.14,-6.084,-0.4053,12.31,3.222,-18.53,6.523,10.03,0,0,0,0,0,0,0,0,0,0,0,0,0,0,0,0,
238,36.01,4.231,-2.772,1.898,17.49,21.72,6.453,-14.09,30.36,-1.511,12.32,7.222,-7.995,-3.981,3.976,5.215,0,0,0,0,0,0,0,0,0,0,0,0,0,0,0,0,
239,10.79,-11.54,7.152,4.146,-0.2079,4.796,-3.645,2.831,-7.477,-7.076,-9.389,-13.95,-34.45,-20.81,-7.502,-7.244,0,0,0,0,0,0,0,0,0,0,0,0,0,0,0,0,
240,-4.768,-26.51,58.85,-6.221,-0.9341,-5.83,-11.26,33.17,-4.861,-4.589,-9.522,-9.12,-28.93,-38.46,-19.26,-22.42,0,0,0,0,0,0,0,0,0,0,0,0,0,0,0,0,
241,10.56,-16.23,7.305,15.45,14.09,2.708,-7.517,22.25,1.992,11.91,-1.279,1.281,-12.14,-18.78,-24.73,-32.15,0,0,0,0,0,0,0,0,0,0,0,0,0,0,0,0,
242,13.1,-6.225,-83.18,20.2,2.799,23.91,26.21,3.411,-3.844,28.42,-19.34,2.213,-0.2349,7.684,-25.39,-32.09,0,0,0,0,0,0,0,0,0,0,0,0,0,0,0,0,
243,34.98,13.75,-3.959,1.388,16.17,50.45,85.81,-18.41,21.45,31.98,-16.99,23.92,23.98,-1.435,-12.51,-17.58,0,0,0,0,0,0,0,0,0,0,0,0,0,0,0,0,
244,73.13,31.37,90.59,30.46,60.29,57.45,76.36,1.185,49.69,17.55,13.36,46.43,34.78,-25.89,8.797,0.1728,0,0,0,0,0,0,0,0,0,0,0,0,0,0,0,0,
245,60.47,11.85,46.92,72.82,45.53,37.67,-0.1444,75.31,42.86,2.804,21.15,35.67,23.9,-18.94,16.55,5.071,0,0,0,0,0,0,0,0,0,0,0,0,0,0,0,0,
246,30.64,-3.914,15.33,48.89,8.636,26.1,-13.47,70.23,16.54,4.498,3.534,11.51,21.84,1.219,5.935,0.1276,0,0,0,0,0,0,0,0,0,0,0,0,0,0,0,0,
247,32.67,4.896,19.36,3.351,18.21,28.17,13.55,-3.897,-1.463,18.95,2.762,10.23,29.64,7.757,-1.128,-0.4609,0,0,0,0,0,0,0,0,0,0,0,0,0,0,0,0,
248,33.97,2.768,-13.29,-0.0505,22.83,18.72,1.461,-5.793,10.92,32.08,18.37,19.98,26.73,9.342,7.941,5.007,0,0,0,0,0,0,0,0,0,0,0,0,0,0,0,0,
249,23.68,-1.568,-20.75,5.372,16.39,21.6,4.188,33.74,24.62,28.94,9.948,10.02,10.85,-3.13,12.12,2.631,0,0,0,0,0,0,0,0,0,0,0,0,0,0,0,0,
250,31.92,0.4911,5.362,5.672,38.93,58.07,18.91,50.41,16.96,17.42,-7.765,3.687,-0.2609,-15.38,-0.6372,-11.18,0,0,0,0,0,0,0,0,0,0,0,0,0,0,0,0,
251,48.08,-12.34,11.17,21.74,49.95,60.3,0.4308,46.04,24.8,13.37,-5.23,11.86,1,-8.832,-11.33,-21.68,0,0,0,0,0,0,0,0,0,0,0,0,0,0,0,0,
252,40.75,-17.6,38.8,21.17,28.98,14.79,10.03,7.222,37.08,9.223,-4.395,7.188,6.183,-17.89,-11.36,-21.84,0,0,0,0,0,0,0,0,0,0,0,0,0,0,0,0,
253,37.52,-2.261,109.6,6.856,19.79,17.95,34.2,-6.171,19.61,-0.3398,-2.563,9.314,6.893,-40.72,-9.308,-21.73,0,0,0,0,0,0,0,0,0,0,0,0,0,0,0,0,
254,59.04,-4.168,89.89,24.75,37.89,61.58,16.58,28.6,8.234,2.841,12.33,27.99,3.35,-34.14,-5.44,-23.47,0,0,0,0,0,0,0,0,0,0,0,0,0,0,0,0,
255,59.18,-4.475,-33.48,34.25,59,70.04,39.64,27.23,27.56,26.92,14.54,30.52,14.7,0.3474,2.838,-13.46,0,0,0,0,0,0,0,0,0,0,0,0,0,0,0,0,
256,36.97,24.38,-24.28,-4.722,42.25,56.95,74.28,22.55,40.41,36.03,7.602,20.49,33.07,21.7,8.283,3.932,0,0,0,0,0,0,0,0,0,0,0,0,0,0,0,0,
257,33.3,22.26,106.6,-18.2,2.015,33.16,12.58,48.05,28.67,12.99,5.876,13.53,23.95,0.5303,4.735,8.806,0,0,0,0,0,0,0,0,0,0,0,0,0,0,0,0,
258,40.37,-7.775,102.8,27.99,6.688,13.78,-14.76,12.5,26.66,5.972,-0.0304,14.32,11.27,-24.5,0.2034,6.526,0,0,0,0,0,0,0,0,0,0,0,0,0,0,0,0,
259,47.95,-2.17,28.45,41.71,33.65,34.68,34.79,-18.16,45.5,19.26,3.672,29.25,22.17,-4.688,2.687,9.332,0,0,0,0,0,0,0,0,0,0,0,0,0,0,0,0,
260,59.89,1.023,47.16,2.495,37.44,54.22,7.19,36.25,42.88,5.752,20.29,40.16,24.41,14.07,8.921,11.86,0,0,0,0,0,0,0,0,0,0,0,0,0,0,0,0,
261,64.32,-14.86,55.59,-0.2634,47.17,52.81,-16.23,10.21,14.12,-13.03,19.8,35.14,15.26,-2.914,16.39,15.13,0,0,0,0,0,0,0,0,0,0,0,0,0,0,0,0,
262,57.6,4.002,8.397,21.49,43.34,60.41,50.51,-72.81,12.12,3.2,9.809,33.14,25.4,2.785,25.18,25.22,0,0,0,0,0,0,0,0,0,0,0,0,0,0,0,0,
263,50.58,32.74,-1.49,11.64,16.69,54.04,62.18,3.095,39.41,30.83,16.5,40.82,45.2,34.89,33.7,38.52,0,0,0,0,0,0,0,0,0,0,0,0,0,0,0,0,
264,52.7,29.72,11.04,14.33,25.38,38.88,15.49,87.3,43.8,31.45,21.44,42.86,43.3,29,36.38,44.62,0,0,0,0,0,0,0,0,0,0,0,0,0,0,0,0,
265,54.19,7.707,8.943,36.62,42.07,49.18,-4.675,23.24,29.82,10.68,18.04,38.62,27.32,6.632,28.45,35.87,0,0,0,0,0,0,0,0,0,0,0,0,0,0,0,0,
266,49.17,-10.13,41.86,33.29,19.49,52.43,-10.85,8.629,26.49,8.259,32.6,46.27,33.8,19.3,21.73,23.62,0,0,0,0,0,0,0,0,0,0,0,0,0,0,0,0,
267,60.71,5.489,75.57,20.47,-1.763,30.39,30.21,41.94,13.18,25.32,51.67,60.01,53.62,43.33,26.38,20.26,0,0,0,0,0,0,0,0,0,0,0,0,0,0,0,0,
268,80.8,34.65,30.41,14.15,16.97,29.13,81.45,-2.838,10.8,32.07,51.87,54.69,47.77,54.89,28.99,18.01,0,0,0,0,0,0,0,0,0,0,0,0,0,0,0,0,
269,67.55,23.18,17.27,11.39,58.27,56.38,39.21,-3.67,42.67,29.01,42.12,29.03,20.25,39.41,18.05,9.003,0,0,0,0,0,0,0,0,0,0,0,0,0,0,0,0,
270,35.55,-5.168,89.09,19.33,67.52,66.63,-0.8517,27.6,41.57,22.17,26.13,5.329,2.522,-4.096,0.2199,-5.271,0,0,0,0,0,0,0,0,0,0,0,0,0,0,0,0,
271,41.23,3.006,81.92,28.2,42.68,58.66,58.42,-1.597,21.32,24.85,20.33,6.684,9.918,-8.676,-9.359,-13.61,0,0,0,0,0,0,0,0,0,0,0,0,0,0,0,0,
272,68.85,21.16,37.32,35.93,35.54,55.83,83.85,22.38,46.03,38.87,37.39,20.24,18.96,24.08,-4.967,-7.701,0,0,0,0,0,0,0,0,0,0,0,0,0,0,0,0,
273,58.78,6.194,69.73,42.82,47.42,60.08,19.62,79.62,56.31,28.78,46.24,17.79,10.26,20.13,-1.877,-2.097,0,0,0,0,0,0,0,0,0,0,0,0,0,0,0,0,
274,43.04,0.0189,46.91,41.61,75.69,94.35,9.751,58.56,44.39,20.74,42.51,16.82,15.35,11.52,-5.797,-1.238,0,0,0,0,0,0,0,0,0,0,0,0,0,0,0,0,
275,59.88,32,7.31,47.96,99.44,118.9,66.65,32.62,56.41,48.34,49.75,26.29,35.37,34.23,-2.849,9.003,0,0,0,0,0,0,0,0,0,0,0,0,0,0,0,0,
276,55.86,41.52,91.44,56.97,59.83,60.93,80.16,46.82,41.79,52.9,59.91,25.23,37.17,49.99,7.785,21.23,0,0,0,0,0,0,0,0,0,0,0,0,0,0,0,0,
277,40.19,21.64,123.5,40.12,19.82,22.7,77.24,62.71,20.53,34.48,67.39,29.18,35.6,49.07,18.88,23.16,0,0,0,0,0,0,0,0,0,0,0,0,0,0,0,0,
278,59.69,20.52,33.51,14.37,52.6,83.81,78.63,64.68,42.7,43.61,72.32,43.33,39.12,24.5,27.44,17.86,0,0,0,0,0,0,0,0,0,0,0,0,0,0,0,0,
279,64.96,21.99,10.23,16.16,72.93,104.7,28.6,32.12,42.97,40.08,61.89,39.57,31.45,2.542,26.98,8.264,0,0,0,0,0,0,0,0,0,0,0,0,0,0,0,0,
280,37.87,17.86,33.22,36.53,34.66,44.07,-5.909,1.633,26.54,13.83,49.79,28.51,22,31.21,20.72,2.473,0,0,0,0,0,0,0,0,0,0,0,0,0,0,0,0,
281,27.49,25.41,13.29,42.5,14.14,28,23.69,10.85,43.98,20.13,65.26,37.17,15.7,45.72,22.04,6.323,0,0,0,0,0,0,0,0,0,0,0,0,0,0,0,0,
282,44.11,24.27,32.66,22.3,39.2,59.73,33.47,7.882,44.08,35.78,89.36,50.47,7.144,9.765,30.59,10.35,0,0,0,0,0,0,0,0,0,0,0,0,0,0,0,0,
283,61.83,11.25,56.74,-10.28,45.05,56.99,16.81,-4.988,22.09,24.09,77.44,38.46,-3.012,2.724,30.8,7.462,0,0,0,0,0,0,0,0,0,0,0,0,0,0,0,0,
284,47.9,3.762,-0.6791,-14.86,14.49,36.14,12.37,33.54,29.41,22.1,51.35,15.19,-9.624,17.8,16.66,0.2836,0,0,0,0,0,0,0,0,0,0,0,0,0,0,0,0,
285,24.52,2.884,-25.21,18.64,11.74,41.32,-0.4375,69.98,33.94,39.13,55.24,13.09,1.97,6.89,2.512,-5.644,0,0,0,0,0,0,0,0,0,0,0,0,0,0,0,0,
286,33.91,12.6,27.04,22.5,27.36,42.23,-2.616,22.21,11.58,45.19,57.24,16.48,24.99,16.85,0.3384,-3.965,0,0,0,0,0,0,0,0,0,0,0,0,0,0,0,0,
287,34.33,31.35,46.86,-7.818,18.61,19.46,20.95,-32.77,14.89,43.82,36.46,8.258,33.41,48.06,6.679,5.671,0,0,0,0,0,0,0,0,0,0,0,0,0,0,0,0,
288,9.813,39.19,23.6,3.944,25.62,18.52,25.06,-2.817,37.05,32.74,31.99,9.539,23.92,32.83,15.72,15.35,0,0,0,0,0,0,0,0,0,0,0,0,0,0,0,0,
289,11.95,18.77,-16.31,29.86,46.64,47.43,6.577,43.66,18.81,8.077,47.9,22.38,12.06,0.4941,24.63,19.83,0,0,0,0,0,0,0,0,0,0,0,0,0,0,0,0,
290,27.67,-5.323,-31.78,21.57,34.72,54.75,-5.7,31.55,-3.956,4.72,62.12,26.53,8.26,7.247,30.46,22.27,0,0,0,0,0,0,0,0,0,0,0,0,0,0,0,0,
291,18.16,0.7181,29.98,19.25,-0.4917,17.11,-18.82,3.728,12.84,21.08,65.93,13.89,2.323,11.54,28.82,23.8,0,0,0,0,0,0,0,0,0,0,0,0,0,0,0,0,
292,-2.755,2.854,44.58,9.758,-25.09,-24.5,-32.51,3.256,18.6,20.74,55.39,-1.787,-15.43,-5.34,18.73,19.02,0,0,0,0,0,0,0,0,0,0,0,0,0,0,0,0,
293,-9.838,-20.71,-33.61,-28.73,-4.283,-8.243,-17.88,-15.55,7.917,7.051,43.48,-4.643,-31.91,-5.924,7.137,5.128,0,0,0,0,0,0,0,0,0,0,0,0,0,0,0,0,
294,-0.6229,-24.75,-29.81,-39.57,26.74,46.59,24.38,-65.95,12.89,-5.51,32.83,-12.1,-42.19,-6.594,-3.275,-13.29,0,0,0,0,0,0,0,0,0,0,0,0,0,0,0,0,
295,2.821,-16.52,15.53,-23.2,6.401,50.31,32.77,-46.29,-2.528,-7.299,13.93,-36.47,-52.7,-19.29,-17.97,-27.09,0,0,0,0,0,0,0,0,0,0,0,0,0,0,0,0,
296,-16.39,-33.94,-32.65,-19.93,-8.893,-5.589,-21.84,30.5,-28.64,7.748,-1.59,-53.91,-52.7,-12.91,-35.24,-29.93,0,0,0,0,0,0,0,0,0,0,0,0,0,0,0,0,
297,-35.88,-38.1,-41.71,-6.792,10.67,-34.3,-52.79,39.26,-6.553,24.47,1.817,-44.93,-29.83,1.905,-39.78,-19.61,0,0,0,0,0,0,0,0,0,0,0,0,0,0,0,0,
298,-15.46,-0.1483,48.74,20.92,14.7,0.2323,-12.49,36.55,34.58,35.04,37.25,-9.094,-3.281,6.361,-16.77,3.13,0,0,0,0,0,0,0,0,0,0,0,0,0,0,0,0,
299,34.82,29.27,87.93,28.8,28.33,37.2,18.35,75.59,55.9,42.37,93.53,33.02,8.185,26.19,28.16,30.43,0,0,0,0,0,0,0,0,0,0,0,0,0,0,0,0,
300,64.37,28.77,76.45,25.98,58.38,40.12,29.59,66.85,74.43,49.74,120.3,55.04,25.47,62.29,71.89,54.84,0,0,0,0,0,0,0,0,0,0,0,0,0,0,0,0,
301,67.68,31.46,87.91,21.27,48.41,38.68,60.08,28.87,66.91,49.45,97.64,47.69,33.32,59.43,85.38,64.42,0,0,0,0,0,0,0,0,0,0,0,0,0,0,0,0,
302,46.1,24.9,25.68,-14.48,4.698,22.73,38.12,-7.481,14.66,22.85,57.05,12.7,-8.112,10.79,50.09,39.72,0,0,0,0,0,0,0,0,0,0,0,0,0,0,0,0,
303,-6.836,-8.505,-96.53,-51.05,-31.59,-24.78,-33.87,-47.33,-26.12,1.455,26.69,-20.6,-43.82,-9.391,-6.442,-4.468,0,0,0,0,0,0,0,0,0,0,0,0,0,0,0,0,
304,-31.68,-27.95,-91.48,-36.11,-40.48,-49.07,-44.45,-29.61,-32.35,8.381,8.602,-31.45,-38.82,5.202,-39.51,-31.54,0,0,0,0,0,0,0,0,0,0,0,0,0,0,0,0,
305,-17.6,-29.4,-29.34,-23.31,-28.18,-28.29,-20.12,-10.91,-29.36,1.115,-5.987,-47.22,-52.65,1.821,-52.45,-44.4,0,0,0,0,0,0,0,0,0,0,0,0,0,0,0,0,
306,-28.72,-45.44,-56.75,-53.64,-11.47,-12.26,-43.68,-35.12,-13.96,-10.12,-15.18,-70.04,-74.61,-1.436,-63.38,-57.47,0,0,0,0,0,0,0,0,0,0,0,0,0,0,0,0,
307,-41.62,-61.37,-35.23,-53.7,5.701,-21.41,-79.01,-12.79,2.686,-0.1804,-13.82,-76.14,-69.15,-5.668,-66.51,-61.7,0,0,0,0,0,0,0,0,0,0,0,0,0,0,0,0,
308,-25.59,-58.55,41.71,-10.49,-7.19,-26.79,-61.34,5.664,0.9122,-2.582,-5.879,-71.28,-69.35,-36.85,-62.5,-56.32,0,0,0,0,0,0,0,0,0,0,0,0,0,0,0,0,
309,-20.73,-43.97,6.922,-7.288,-47.19,-18.82,-10.15,-24.12,-8.9,-7.769,0.6435,-62.21,-73.74,-43.55,-58.05,-52.57,0,0,0,0,0,0,0,0,0,0,0,0,0,0,0,0,
310,-25.25,-32.3,-33.22,-37.03,-41.36,-28.34,-9.256,-17.52,-27.84,-5.987,-0.1608,-50.21,-67.51,-28.81,-52.53,-53.82,0,0,0,0,0,0,0,0,0,0,0,0,0,0,0,0,
311,-18.84,-36.75,16.82,-28.51,-9.74,-46.38,-46.07,-10.63,-37.05,-16.45,1.48,-34.59,-60.19,-34.26,-43.24,-49.41,0,0,0,0,0,0,0,0,0,0,0,0,0,0,0,0,
312,-10.33,-35.6,17.57,-16.13,-28.84,-40.5,-20.51,-39.9,-21.04,-6.374,4.376,-19.77,-42.19,-6.546,-28.29,-28.76,0,0,0,0,0,0,0,0,0,0,0,0,0,0,0,0,
313,-12.67,-18.95,-46.03,-46.97,-52.71,-37.39,10.98,-36.53,-30.14,10.76,-12.53,-33.21,-41.26,25.7,-22.76,-13.2,0,0,0,0,0,0,0,0,0,0,0,0,0,0,0,0,
314,-37.34,-25.32,-79.37,-52.52,-27.08,-34.98,-43.96,-7.613,-55.51,-7.375,-29.14,-60.3,-76.12,-15.63,-38.87,-26.06,0,0,0,0,0,0,0,0,0,0,0,0,0,0,0,0,
315,-52.53,-48.83,-73.61,-22.6,-7.697,-15.91,-77.27,-0.6412,-40.37,-6.05,-15.08,-56.62,-86.42,-36.75,-51.45,-42.73,0,0,0,0,0,0,0,0,0,0,0,0,0,0,0,0,
316,-39.54,-48.01,-38.28,-33.66,-37.14,-44.99,-40.34,-6.89,-26.59,19.84,2.002,-45.78,-71.49,-8.491,-41.72,-37.77,0,0,0,0,0,0,0,0,0,0,0,0,0,0,0,0,
317,-46.08,-41.72,5.425,-42.39,-71.73,-101.4,-49.85,-1.478,-40.89,2.635,-7.969,-56.72,-84.98,-35.92,-31.35,-30.15,0,0,0,0,0,0,0,0,0,0,0,0,0,0,0,0,
318,-60.54,-50.84,9.198,-8.844,-53.95,-83.15,-78.26,-5.799,-27.66,-19.41,-22.99,-58.96,-93.38,-54.21,-33.31,-34.36,0,0,0,0,0,0,0,0,0,0,0,0,0,0,0,0,
319,-44.57,-45.23,-33.5,-15.1,-12.04,-49.67,-37.58,-35.3,7.385,-7.569,-11.5,-46.12,-77.42,-11.43,-31.66,-34.6,0,0,0,0,0,0,0,0,0,0,0,0,0,0,0,0,
320,-47.77,-36.21,-59.83,-41.96,-24.61,-82.54,-21.62,-27.41,9.67,-15.75,6.681,-46.21,-84.8,-18.06,-21.82,-26.78,0,0,0,0,0,0,0,0,0,0,0,0,0,0,0,0,
321,-65.79,-54.08,-19.91,-22.45,-53.91,-93.17,-59.98,1.746,-17.64,-29.84,-2.502,-49.47,-86.46,-26.38,-16.39,-22.46,0,0,0,0,0,0,0,0,0,0,0,0,0,0,0,0,
322,-31.02,-52.81,16.78,-17.04,-20.97,-30.06,-31.9,-14.44,-30.44,-4.515,-9.414,-33.04,-45.4,33.55,-16.2,-17.48,0,0,0,0,0,0,0,0,0,0,0,0,0,0,0,0,
323,14.59,-15,-16.17,-24.34,14.36,20.7,29.8,-4.982,-9.307,13.71,12.59,-12.51,-19.88,34.27,-13.35,-6.431,0,0,0,0,0,0,0,0,0,0,0,0,0,0,0,0,
324,20.06,-3.557,-38.56,21.13,0.1355,9.765,16.64,30.99,15.01,0.462,22.82,-11.15,-32.07,-28.28,-9.425,-1.347,0,0,0,0,0,0,0,0,0,0,0,0,0,0,0,0,
325,7.719,-26.11,-0.475,42.49,-24.24,-31.33,-34.27,6.791,6.91,-8.133,2.982,-26.2,-46.53,-35.58,-11.79,-10.04,0,0,0,0,0,0,0,0,0,0,0,0,0,0,0,0,
326,-22.56,-39.04,16.28,-2.15,-44.32,-52.25,-55.04,-5.512,-11.44,-3.956,-9.776,-31.76,-49.85,-2.524,-19.89,-22.62,0,0,0,0,0,0,0,0,0,0,0,0,0,0,0,0,
327,-26.76,-28.1,-18.04,-12.86,-27.52,-22.53,-19.27,7.939,-2.574,5.996,0.9599,-13.95,-37.38,20.18,-22.05,-26.11,0,0,0,0,0,0,0,0,0,0,0,0,0,0,0,0,
328,22.8,-7.02,-32.5,2.534,15.89,1.733,35.16,-48.13,7.8,8.277,10.26,-4.585,-30.92,8.865,-14.33,-23.16,0,0,0,0,0,0,0,0,0,0,0,0,0,0,0,0,
329,24.11,-3.924,5.253,-12.48,-2.718,-17.9,25.29,-69.43,0.9765,-0.2478,15.59,-9.255,-41.15,-27.09,-3.926,-20.8,0,0,0,0,0,0,0,0,0,0,0,0,0,0,0,0,
330,-7.093,-8.31,34.86,5.264,-17.73,8.82,1.575,33.02,15.81,3.374,36.69,6.679,-33.75,-23.16,8.928,-11.82,0,0,0,0,0,0,0,0,0,0,0,0,0,0,0,0,
331,29.59,1.846,10.49,42.25,42.61,66.84,29.1,97.35,35.8,2.753,36.98,12.84,-19.28,6.609,16.05,-0.8169,0,0,0,0,0,0,0,0,0,0,0,0,0,0,0,0,
332,42.86,1.424,-8.118,20.5,39.78,28.49,32.85,45.36,20.9,-5.765,-1.65,-11.47,-14.2,10.46,4.349,-3.232,0,0,0,0,0,0,0,0,0,0,0,0,0,0,0,0,
333,-3.692,0.533,7.517,2.479,-37.9,-25.96,6.316,-3.803,7.719,17.24,-7.81,-11.45,0.918,10.53,-8.022,-6.941,0,0,0,0,0,0,0,0,0,0,0,0,0,0,0,0,
334,5.225,18.07,-5.353,34.53,-39.41,12.92,1.68,-2.554,6.607,36.69,22.58,4.632,3.767,12.97,-0.6235,0.9621,0,0,0,0,0,0,0,0,0,0,0,0,0,0,0,0,
335,31.08,18.61,-16.68,45.6,6.418,31.77,1.024,5.343,-4.194,17.71,26.32,2.262,-4.614,9.731,16.47,10.54,0,0,0,0,0,0,0,0,0,0,0,0,0,0,0,0,
336,11.64,12.79,24.04,17.13,6.705,-10.52,3.383,19.32,0.2284,11.54,28.06,15.27,15.09,22.88,34.55,22.34,0,0,0,0,0,0,0,0,0,0,0,0,0,0,0,0,
337,16.7,23.61,40.05,4.185,-8.598,-18.25,4.077,44.54,9.037,26.03,53.03,38.23,38.16,52.13,50.82,38.86,0,0,0,0,0,0,0,0,0,0,0,0,0,0,0,0,
338,31.9,23.55,13.58,18.63,-11.6,-11.51,10.25,36.11,-3.372,25.49,54.7,34.71,41.5,71.01,55.47,47.4,0,0,0,0,0,0,0,0,0,0,0,0,0,0,0,0,
339,13.06,22.66,10.19,6.924,-16.18,-24.32,48.27,-16.19,0.1345,16.84,34.38,29.41,49.38,60.49,51.27,47.28,0,0,0,0,0,0,0,0,0,0,0,0,0,0,0,0,
340,20.5,31.32,26.55,-18,-19.68,-5.872,41.48,-25.01,24.91,15.25,34.26,38.12,57.84,41.7,47.59,46.65,0,0,0,0,0,0,0,0,0,0,0,0,0,0,0,0,
341,42.67,22.76,36.36,18.61,-11.72,18.74,-8.167,45.25,27.93,20.16,39.59,30.71,47.02,39.1,38.66,40.66,0,0,0,0,0,0,0,0,0,0,0,0,0,0,0,0,
342,15.94,17.65,9.806,51.39,8.922,10.11,22.12,79.27,16.35,29.69,27.03,10.9,32.4,41.54,21.77,27.89,0,0,0,0,0,0,0,0,0,0,0,0,0,0,0,0,
343,3.089,35.17,-40.02,16.27,31.16,20.61,63.17,37.53,23.76,42.8,25.87,12.43,35.43,55.72,10.6,17.66,0,0,0,0,0,0,0,0,0,0,0,0,0,0,0,0,
344,31.28,32.58,-3.976,20.8,27.58,32.1,13.31,39.49,30.71,43.96,36.17,17.76,29.69,66.8,7.338,7.531,0,0,0,0,0,0,0,0,0,0,0,0,0,0,0,0,
345,14.71,1.304,103.5,70.17,-10.05,-11.04,-23.36,85.48,13.41,23.85,20.24,1.196,2.033,44.24,0.5502,-7.38,0,0,0,0,0,0,0,0,0,0,0,0,0,0,0,0,
346,-17.62,-6.008,118.5,67.09,-26.66,-33.92,2.059,64.74,5.434,19.63,8.188,-4.109,3.657,34.99,-3.56,-11.01,0,0,0,0,0,0,0,0,0,0,0,0,0,0,0,0,
347,-5.232,16.57,35.59,46.57,2.629,-4.807,14.08,18.58,10.44,37,26.81,5.168,28.67,48.45,4.086,4.867,0,0,0,0,0,0,0,0,0,0,0,0,0,0,0,0,
348,-7.927,19.68,-7.17,34.19,6.908,-0.0667,2.116,20.32,-0.2951,30.79,26.55,-1.825,27.25,41.75,11.53,18.37,0,0,0,0,0,0,0,0,0,0,0,0,0,0,0,0,
349,-13.72,9.696,5.695,1.96,-16.27,1.815,11.43,7.018,10.84,20.74,14.68,1.374,31.7,52.98,13.78,15.65,0,0,0,0,0,0,0,0,0,0,0,0,0,0,0,0,
350,24.18,24.67,6.182,-8.859,11.95,37.05,51.88,-25.41,45.23,33.23,38.13,21.73,48.64,69.64,19.44,9.061,0,0,0,0,0,0,0,0,0,0,0,0,0,0,0,0,
351,37.13,29.41,-0.011,3.868,53.57,41.9,58.08,-8.2,32.25,18.14,52.94,13.63,22.33,15.71,20.65,4.91,0,0,0,0,0,0,0,0,0,0,0,0,0,0,0,0,
352,7.72,-12.58,8.609,2.106,24.92,3.462,-14.59,15.49,-3.841,-22.89,19.46,-14.07,-13.62,-38.53,4.945,-4.439,0,0,0,0,0,0,0,0,0,0,0,0,0,0,0,0,
353,-11.52,-44.45,43.88,10.73,-35.07,-30.63,-72.59,15.98,-3.874,-20.04,-11.91,-22.82,-2.497,-4.671,-13.71,-12.75,0,0,0,0,0,0,0,0,0,0,0,0,0,0,0,0,
354,-20.98,-23.06,87.26,20.04,-56.38,-46.23,-48.96,25.66,-0.4357,15.88,-6.624,-19.92,15.4,42.32,-17.04,-8.787,0,0,0,0,0,0,0,0,0,0,0,0,0,0,0,0,
355,-28.14,-5.999,27.07,-2.685,-41.71,-43.51,-28.98,-5.212,-11.87,18.64,5.38,-22.75,6.364,37.01,-13.47,-3.881,0,0,0,0,0,0,0,0,0,0,0,0,0,0,0,0,
356,-30.62,-25.02,-64.32,-5.825,-24.63,-28.48,-48.49,-48.4,-11.1,-2.461,-1.167,-25.11,-1.9,21.24,-14.52,-6.283,0,0,0,0,0,0,0,0,0,0,0,0,0,0,0,0,
357,-21.34,-30.14,18.73,13.38,-20.18,-15.36,-35.34,-10.61,-5.942,-8.823,-12.75,-20.4,-4.36,13.75,-18.05,-8.768,0,0,0,0,0,0,0,0,0,0,0,0,0,0,0,0,
358,1.375,-18.05,89.1,-4.634,-17.4,-4.248,4.399,17.36,-2.392,-10.39,-8.232,-10.94,-7.719,3.624,-22.04,-13.74,0,0,0,0,0,0,0,0,0,0,0,0,0,0,0,0,
359,7.362,-17.3,-29.91,-5.043,-1.128,10.01,1.007,-14.53,11.56,-7.079,4.407,1.01,8.355,10.1,-16.05,-12.77,0,0,0,0,0,0,0,0,0,0,0,0,0,0,0,0,
360,-4.693,-8.774,-50.93,35.5,11.3,5.027,-25.42,-17.2,9.301,7.061,1.157,6.914,32.62,28.81,7.318,10.12,0,0,0,0,0,0,0,0,0,0,0,0,0,0,0,0,
361,-17.63,3.485,61.41,24.68,-19.49,-32.97,-14.33,-14.56,-24.04,11,-7.065,7.465,35.69,31.69,30.11,34.52,0,0,0,0,0,0,0,0,0,0,0,0,0,0,0,0,
362,-30.65,-3.254,37.83,-7.316,-70.2,-52.26,-3.022,-23.36,-45.94,10.67,-0.9743,10.18,21.47,16.35,38.35,34.57,0,0,0,0,0,0,0,0,0,0,0,0,0,0,0,0,
363,-28.67,-21.59,-36.49,-0.8476,-63.17,-32.99,-40.71,-18.2,-35.07,5.421,-0.643,2.814,-4.662,-1.499,33.56,15.45,0,0,0,0,0,0,0,0,0,0,0,0,0,0,0,0,
364,-21.04,-39.27,-22.68,-10.77,-16.09,-27.19,-53,-40.53,-8.937,-14.26,-1.774,1.09,-19,9.67,23.32,-3.808,0,0,0,0,0,0,0,0,0,0,0,0,0,0,0,0,
365,-19.65,-30.79,-10.17,-21.75,-11.4,-32.03,-10.05,-30.89,12.15,-3.787,16.89,25.59,2.189,37.92,25.42,-0.889,0,0,0,0,0,0,0,0,0,0,0,0,0,0,0,0,
366,-12.36,-6.557,-5.612,0.7192,-29.94,-31.42,-11.64,23.47,10.42,28.83,24.68,34.06,17.92,24.59,37.15,23.83,0,0,0,0,0,0,0,0,0,0,0,0,0,0,0,0,
367,-16.03,-8.644,9.298,11.6,-28.14,-47.41,-49.09,1.427,8.043,20.85,13.71,21.44,9.886,-5.776,36.32,41.64,0,0,0,0,0,0,0,0,0,0,0,0,0,0,0,0,
368,-20.58,-11.86,-6.108,6.233,-32.36,-42.82,-46.43,-17.75,18.6,0.79,-0.9726,18.76,4.098,-4.827,22.95,38.94,0,0,0,0,0,0,0,0,0,0,0,0,0,0,0,0,
369,-7.02,-5.181,-3.264,-7.899,-25.43,4.654,-32.05,37.3,5.86,2.851,-33.75,1.673,-8.703,-0.793,3.156,21.93,0,0,0,0,0,0,0,0,0,0,0,0,0,0,0,0,
370,-8.574,-15.12,43.92,-11.14,16.09,29.09,-6.803,17.74,-6.615,0.7226,-42.51,-10.47,-15.4,2.291,-15.82,2.415,0,0,0,0,0,0,0,0,0,0,0,0,0,0,0,0,
371,-14.12,-8.551,52.23,33.01,11.27,-6.779,22.14,-40.46,12.61,6.102,-4.04,16.16,6.527,14.03,-13.71,-2.573,0,0,0,0,0,0,0,0,0,0,0,0,0,0,0,0,
372,-7.466,12.56,11.73,51.48,-53.96,-55.97,-8.471,-7.442,11.08,23.13,2.519,27.69,18.65,13.52,1.722,5.756,0,0,0,0,0,0,0,0,0,0,0,0,0,0,0,0,
373,-18.97,6.538,1.354,4.597,-56.5,-41.06,-26.94,13.44,-6.267,22.8,-19.92,20.72,14.34,23.77,5.092,10.89,0,0,0,0,0,0,0,0,0,0,0,0,0,0,0,0,
374,-18.76,2.043,7.059,-12.67,1.8,20.28,14.35,-27.23,2.416,21.87,-6.716,39.24,28.15,47.42,2.761,12.68,0,0,0,0,0,0,0,0,0,0,0,0,0,0,0,0,
375,4.995,9.979,-22.97,9.486,-4.461,19.34,2.761,-24.43,-4.857,20.55,1.017,46.07,40.02,30.7,4.395,16.71,0,0,0,0,0,0,0,0,0,0,0,0,0,0,0,0,
376,-2.068,1.807,-33.84,6.631,-43.37,-24.6,-43.17,14.79,-28.61,-6.067,-22.76,22.72,26.08,-4.377,0.6344,16.32,0,0,0,0,0,0,0,0,0,0,0,0,0,0,0,0,
377,-14.73,-5.125,9.603,-12.46,-19.06,-13.7,-33.72,15.7,-18.06,-11.94,-22.44,12.75,15.42,4.268,-4.961,11.1,0,0,0,0,0,0,0,0,0,0,0,0,0,0,0,0,
378,2.861,-0.6271,29.38,-19.02,10.66,8.973,-35.53,-18.9,-4.223,17.1,-2.062,15.31,18.64,24.63,-2.106,11.4,0,0,0,0,0,0,0,0,0,0,0,0,0,0,0,0,
379,-1.04,-4.608,-6.778,-4.86,-8.359,-14.18,-66.52,-33.08,-12.12,15.57,-10.78,5.257,9.273,11.7,-0.0824,14.2,0,0,0,0,0,0,0,0,0,0,0,0,0,0,0,0,
380,-25.45,-10.23,-21.43,7.21,-26.39,-31.14,-44.09,-3.483,-5.426,-1.984,-34.21,-7.441,-10.44,2.251,-11.02,3.871,0,0,0,0,0,0,0,0,0,0,0,0,0,0,0,0,
381,-17.22,-9.903,-0.9886,-20.05,-24.06,-18.52,-0.1854,-0.4378,1.802,9.202,-36.84,-12.05,-20.81,11.81,-30.1,-21.35,0,0,0,0,0,0,0,0,0,0,0,0,0,0,0,0,
382,-9.643,-16.58,-27.66,-42.39,-19.49,-9.793,9.713,-45.51,-14.28,15.24,-28.71,-13.86,-22.63,4.068,-43.22,-43.3,0,0,0,0,0,0,0,0,0,0,0,0,0,0,0,0,
383,-33.76,-20.83,-66.33,-7.272,-27.43,-12.84,23.81,-41.39,-19.69,6.173,-23.61,-12.86,-20.27,-16.52,-42.71,-47.79,0,0,0,0,0,0,0,0,0,0,0,0,0,0,0,0,
384,-35.95,-18.26,-33.25,15.25,-40.93,-14.67,26.64,7.701,-12.43,0.098,-22.12,-14.32,-25.48,-31.77,-40.25,-46.94,0,0,0,0,0,0,0,0,0,0,0,0,0,0,0,0,
385,-13.3,-31.85,5.315,-14.31,-11.46,-8.336,-15.5,27.14,-10.51,-2.515,-32.07,-20.75,-39.45,-41.24,-49.93,-56,0,0,0,0,0,0,0,0,0,0,0,0,0,0,0,0,
386,-15.57,-44.71,18.83,-4.553,26.41,-8.485,-46.03,42.45,-1.772,9.434,-47.16,-21.82,-44.56,-41.99,-63.57,-66.75,0,0,0,0,0,0,0,0,0,0,0,0,0,0,0,0,
387,-33.24,-40.28,45.27,49.85,-8.659,-32.5,-53.77,40.06,-9.379,12.27,-65.19,-31.01,-50.12,-49.71,-74.28,-74.9,0,0,0,0,0,0,0,0,0,0,0,0,0,0,0,0,
388,-45.56,-45.12,29.84,44.93,-43.71,-51.21,-54.48,-9.013,-33.7,-5.302,-91.39,-53.1,-56.16,-57.21,-87.74,-84.48,0,0,0,0,0,0,0,0,0,0,0,0,0,0,0,0,
389,-51.69,-46.84,-7.955,1.143,-21.81,-35.8,-23.89,-17.54,-26.78,-8.159,-103.1,-61.72,-53.92,-52.43,-98.64,-87.38,0,0,0,0,0,0,0,0,0,0,0,0,0,0,0,0,
390,-45.83,-43.75,1.239,10.84,-19.54,-13.38,-14.89,29.1,-23.11,-13.71,-97.59,-66.88,-69.73,-68.82,-102.5,-86.11,0,0,0,0,0,0,0,0,0,0,0,0,0,0,0,0,
391,-42.25,-59.4,9.357,49.64,-11.37,-4.411,-36.28,43.72,-50.42,-20.93,-96.43,-78.15,-82.15,-82.35,-102.5,-86.44,0,0,0,0,0,0,0,0,0,0,0,0,0,0,0,0,
392,-42.38,-50.34,16.54,50.54,32.45,-0.216,-17.12,17.43,-43.35,-2.159,-85.31,-65.96,-61.04,-57.57,-91.67,-76.02,0,0,0,0,0,0,0,0,0,0,0,0,0,0,0,0,
393,-28.61,-22.36,46.85,17.53,16.27,-0.1021,-3.891,-11.89,-6.807,-8.416,-57.89,-39.11,-51.48,-42.82,-68.86,-57.75,0,0,0,0,0,0,0,0,0,0,0,0,0,0,0,0,
394,-12.66,-29.09,51.11,-6.097,-16.5,7.487,-19.25,-17.92,7.055,-27.77,-39.73,-20.33,-49.65,-35.62,-45.32,-42.04,0,0,0,0,0,0,0,0,0,0,0,0,0,0,0,0,
395,2.859,-27.47,47.28,9.663,31.92,35.6,-16.48,10.13,18.89,0.716,-29.43,4.765,-20.88,-12.59,-23.43,-19.56,0,0,0,0,0,0,0,0,0,0,0,0,0,0,0,0,
396,29.53,-4.635,46.83,47.31,64.54,60.95,-15.93,34.14,33.84,17.96,-11.79,30.02,-2.526,-18.86,-2.067,4.649,0,0,0,0,0,0,0,0,0,0,0,0,0,0,0,0,
397,44.97,1.611,18.83,48.04,21.64,48.69,22.97,14.54,20.69,-1.703,-6.801,26.5,-5.918,-37.04,10.02,10.04,0,0,0,0,0,0,0,0,0,0,0,0,0,0,0,0,
398,32.55,17.47,9.528,1.594,-1.023,10.16,81.16,-18.8,2.368,0.6689,-25,3.53,-4.801,-25.02,6.005,-0.7067,0,0,0,0,0,0,0,0,0,0,0,0,0,0,0,0,
399,10.51,24.93,9.52,-18.33,22.74,-5.735,14.83,-15.03,15.77,8.004,-28.76,-3.837,-6.414,-17.23,-3.563,-9.419,0,0,0,0,0,0,0,0,0,0,0,0,0,0,0,0,
400,-7.569,-10.02,-22.64,16.6,24.47,-5.097,-84.36,-0.957,26.17,-5.618,-14.69,3.382,-10.79,-18.69,-5.299,-9.189,0,0,0,0,0,0,0,0,0,0,0,0,0,0,0,0,
401,-12.96,-26.09,-2.144,36.06,-5.9,-20.01,-53.65,-15.09,2.37,-9.828,-17.23,4.893,-6.69,-3.889,-3.11,-6.268,0,0,0,0,0,0,0,0,0,0,0,0,0,0,0,0,
402,1.118,-0.1272,63.52,11.69,-9.624,-14.84,4.494,-25.57,-2.52,-1.547,-17.49,11.24,0.0757,5.741,-3.031,-6.024,0,0,0,0,0,0,0,0,0,0,0,0,0,0,0,0,
403,11.93,19.82,43.78,-1.806,14.07,14.34,1.226,-25.71,22.5,4.026,-6.548,25.04,3.354,-1.779,-2.175,-4.886,0,0,0,0,0,0,0,0,0,0,0,0,0,0,0,0,
404,17.2,26.9,-0.0156,21.14,19.18,25.9,0.8783,-17.93,21.09,12.83,-13.79,29.95,3.048,-5.444,0.1849,-0.2694,0,0,0,0,0,0,0,0,0,0,0,0,0,0,0,0,
405,45.15,35.16,44.97,41.42,24.6,45.11,31.73,13.54,16.7,23.67,-14.07,33.94,2.242,1.411,2.382,1.132,0,0,0,0,0,0,0,0,0,0,0,0,0,0,0,0,
406,65.95,44.14,74.76,29.51,41.22,75.75,67.3,18.47,38.4,26.61,7.995,44.54,8.079,12.96,3.935,-2.918,0,0,0,0,0,0,0,0,0,0,0,0,0,0,0,0,
407,60.4,55.7,22.36,20.83,46.1,84.28,69.02,2.983,42.44,28.6,14.03,49.94,19.3,18.23,6.491,-1.332,0,0,0,0,0,0,0,0,0,0,0,0,0,0,0,0,
408,66.6,57.66,-10.48,41.67,52.22,82.27,28.86,22.06,36.79,29.14,4.799,39.43,18,7.912,8.467,5.462,0,0,0,0,0,0,0,0,0,0,0,0,0,0,0,0,
409,56.58,42.94,13.99,50.24,33.82,54.73,7.856,16.5,49.65,17.13,2.908,21.84,5.247,0.8151,2.473,1.358,0,0,0,0,0,0,0,0,0,0,0,0,0,0,0,0,
410,21.62,37.36,61.7,30.56,-2.559,7.514,32.53,-26.35,44.72,6.75,4.787,22.56,0.8034,-1.421,-6.894,-11.16,0,0,0,0,0,0,0,0,0,0,0,0,0,0,0,0,
411,28.63,39.2,95.99,11.87,26.33,5.529,39.87,-35.48,15.74,5.658,3.069,34.35,-3.652,-18.2,-8.015,-17.99,0,0,0,0,0,0,0,0,0,0,0,0,0,0,0,0,
412,46.39,28.42,67.42,-4.211,51.92,25.2,12.74,-21.53,10.72,6.259,-1.958,38.14,-6.615,-16.29,-2.708,-18.32,0,0,0,0,0,0,0,0,0,0,0,0,0,0,0,0,
413,29.64,29.17,13.15,-16.21,-9.363,14.32,0.552,-14.9,27.9,11.46,-3.881,44.29,0.0233,-0.3191,1.675,-16.22,0,0,0,0,0,0,0,0,0,0,0,0,0,0,0,0,
414,25.66,35.42,-2.503,-2.661,-22.59,13.07,-0.9868,-19.36,25.63,6.034,-7.934,42.48,-11.58,-21.09,-3.6,-19.79,0,0,0,0,0,0,0,0,0,0,0,0,0,0,0,0,
415,32.9,22.61,0.6757,24.29,48.05,40.95,5.752,-17.98,19.92,-3.271,-21.07,22.28,-21.13,-17.99,-20.58,-30.62,0,0,0,0,0,0,0,0,0,0,0,0,0,0,0,0,
416,21.25,25.52,2.033,14.58,43.85,38.13,35.24,-4.363,21.29,14.72,-34.14,4.139,-1.073,25.07,-32.18,-31.98,0,0,0,0,0,0,0,0,0,0,0,0,0,0,0,0,
417,2.011,30.36,-8.136,-29.43,-24.18,-4.382,25.05,-28.8,-16.03,20.49,-45.16,-9.24,-6.636,2.578,-30.44,-23.44,0,0,0,0,0,0,0,0,0,0,0,0,0,0,0,0,
418,-10.83,5.787,-30.3,-35.84,-25.26,-5.789,-11.14,-53.47,-45.61,-14.58,-47.67,-12.7,-36.67,-42.31,-27.35,-23.75,0,0,0,0,0,0,0,0,0,0,0,0,0,0,0,0,
419,-6.107,7.041,-42.39,-9.768,-0.3697,27.01,6.365,-20.47,-4.322,-29.4,-34.95,-0.1712,-35.99,-23.71,-24.79,-30.36,0,0,0,0,0,0,0,0,0,0,0,0,0,0,0,0,
420,-11.23,26.19,-47.84,-7.332,-25.74,4.886,3.524,-14.56,14.89,-8.308,-29.82,2.646,-32.41,-15.39,-19.19,-30.09,0,0,0,0,0,0,0,0,0,0,0,0,0,0,0,0,
421,-37.19,10.22,-21.88,-1.306,-28.48,-23.98,-38.31,-53.1,-22.47,-2.283,-39.8,-5.2,-44.05,-33.23,-18.25,-26.06,0,0,0,0,0,0,0,0,0,0,0,0,0,0,0,0,
422,-26.36,3.847,18.44,6.995,20.95,11.32,-8.498,-62.32,-21.21,-6.012,-44.11,-1.46,-30.83,-7.726,-21.54,-19.38,0,0,0,0,0,0,0,0,0,0,0,0,0,0,0,0,
423,8.406,23.08,-9.487,-10.62,26.19,40.88,31.56,-36.98,2.858,9.591,-42.21,3.947,-3.906,25.09,-17.58,-3.33,0,0,0,0,0,0,0,0,0,0,0,0,0,0,0,0,
424,3.058,20.03,-32.32,-11.25,-18.75,29.24,22.87,-7.003,-5.253,11.37,-40.92,-2.303,-4.15,7.809,-11.47,9.52,0,0,0,0,0,0,0,0,0,0,0,0,0,0,0,0,
425,-16.42,9.612,-0.556,-14.04,-25.05,18.81,67.76,-28.38,-11.7,-7.028,-33.8,-3.893,-10.86,-13.95,-14,5.61,0,0,0,0,0,0,0,0,0,0,0,0,0,0,0,0,
426,-6.87,21.83,-37.98,-29.63,6.389,17.24,99.92,-61.58,-12.26,5.683,-27.78,9.027,9.74,4.005,-15.94,4.544,0,0,0,0,0,0,0,0,0,0,0,0,0,0,0,0,
427,6.367,26.65,-76.55,15.84,11.6,10.43,5.601,-8.913,-11.37,21.67,-30.56,14.98,25.32,15.5,-12.62,16.52,0,0,0,0,0,0,0,0,0,0,0,0,0,0,0,0,
428,-1.589,10.71,7.341,49.37,-3.88,2.049,-49.64,21.98,19.16,3.506,-18.17,15.72,18.11,1.355,-10.69,19.44,0,0,0,0,0,0,0,0,0,0,0,0,0,0,0,0,
429,8.588,24.13,72.51,6.008,13.37,26.98,33.65,-14.09,47.84,8.869,18.05,39.58,27.43,3.737,1.073,14.24,0,0,0,0,0,0,0,0,0,0,0,0,0,0,0,0,
430,59.3,66.99,45.26,19.78,52.31,76.86,80,25.45,54.86,33.31,47.76,70.24,44.89,5.74,33.14,23.61,0,0,0,0,0,0,0,0,0,0,0,0,0,0,0,0,
431,84.83,74.97,12.36,71.33,67.13,84.25,58.39,52.12,76.15,27.32,55.56,76.2,39.43,-2.953,65.22,40.09,0,0,0,0,0,0,0,0,0,0,0,0,0,0,0,0,
432,58.26,61.14,-14.16,18.88,67.08,57.62,90.03,-35.32,72.86,23.7,33.32,52.64,22.42,11.65,64.41,36.14,0,0,0,0,0,0,0,0,0,0,0,0,0,0,0,0,
433,25.24,54.3,-5.354,-35.26,50.35,27.06,84.72,-55.57,12.28,26.45,-15.43,4.791,-3.731,7.55,23.86,7.578,0,0,0,0,0,0,0,0,0,0,0,0,0,0,0,0,
434,-14.39,20.53,46.58,9.502,-4.524,-26.29,-22.13,-1.707,-26.92,7.182,-51.74,-37.78,-31.85,-32.68,-26.6,-23.79,0,0,0,0,0,0,0,0,0,0,0,0,0,0,0,0,
435,-52.23,-13.29,29.27,21.16,-46.7,-57.99,-52.54,-38.25,-27.52,-13.3,-74.01,-56.22,-44.86,-41.65,-63.05,-45.55,0,0,0,0,0,0,0,0,0,0,0,0,0,0,0,0,
436,-48.66,-12.67,-50.18,-41.07,-42.25,-40.98,4.806,-80.94,-38.47,-29.47,-88.17,-57.29,-55.15,-33.57,-81.85,-58.9,0,0,0,0,0,0,0,0,0,0,0,0,0,0,0,0,
437,-33.5,-17.71,-82.86,-58.69,-33.66,-26.6,-4.974,-39,-30.13,-36.02,-56.24,-29.49,-54.05,-47.07,-67.93,-52.37,0,0,0,0,0,0,0,0,0,0,0,0,0,0,0,0,
438,-26.66,-14.7,-95.68,-29.36,-24.43,-6.333,-22.46,-17.18,-3.457,-12.13,-15.86,3.572,-25.58,-32.86,-24.36,-21.66,0,0,0,0,0,0,0,0,0,0,0,0,0,0,0,0,
439,-10.68,14.26,-105.2,-32.64,-10.57,2.637,0.6883,-41.07,-10.72,8.429,-27.49,-2.17,-9.774,5.425,7.52,6.484,0,0,0,0,0,0,0,0,0,0,0,0,0,0,0,0,
440,-25.78,5.32,-47.73,-54.63,-37.78,-58.38,-36.86,-48.36,-18.3,-4.901,-35.83,-9.622,-26.61,1.653,12.31,9.866,0,0,0,0,0,0,0,0,0,0,0,0,0,0,0,0,
441,-53.99,-25.1,12.95,-48.87,-72.02,-90.31,-59.71,-30.95,-3.763,-16.07,-9.04,12.46,-37,-20.51,10.12,-2.219,0,0,0,0,0,0,0,0,0,0,0,0,0,0,0,0,
442,-27.37,-11.6,-3.763,-42.61,-37.69,-36.51,1.92,-31.04,-10.33,-11.58,-7.866,10.14,-43.51,-26.45,2.825,-15.95,0,0,0,0,0,0,0,0,0,0,0,0,0,0,0,0,
443,-18.15,-8.966,-33.84,-76.28,7.417,-32.1,-1.029,-95.53,-17.21,-27.57,-33.86,-21.81,-64.66,-41.36,-15.26,-30.25,0,0,0,0,0,0,0,0,0,0,0,0,0,0,0,0,
444,-56.96,-37.68,-30.29,-96.92,-13.3,-63.74,-51.87,-128,-2.227,-40.58,-38.16,-21.78,-49.16,-29.51,-25.17,-32.64,0,0,0,0,0,0,0,0,0,0,0,0,0,0,0,0,
445,-43.5,-19.78,-29.85,-58.55,-46.55,-32.51,-11.79,-39.12,-14.96,-10.78,-38.25,-9.941,-3.598,12.46,-17.49,-13.4,0,0,0,0,0,0,0,0,0,0,0,0,0,0,0,0,
446,-24.37,12.02,-55.55,-32.16,-34.2,-25.09,30.82,11.59,-38.88,8.806,-52.01,-25.24,-3.154,-2.043,-9.743,2.448,0,0,0,0,0,0,0,0,0,0,0,0,0,0,0,0,
447,-57.81,3.633,-61.95,-36.7,-13.15,-58.32,0.1951,-21.83,-23.05,0.1146,-41.25,-19.91,-13.69,-31.65,-3.579,2.842,0,0,0,0,0,0,0,0,0,0,0,0,0,0,0,0,
448,-46.56,8.924,-11.97,-29.33,-33.79,-49.81,-13.95,-5.328,-15.96,1.466,-26.25,-1.683,-6.77,-17.15,3.268,3.211,0,0,0,0,0,0,0,0,0,0,0,0,0,0,0,0,
449,-15.04,16.55,1.361,-57.57,-54.06,-37.34,8.811,-15.16,-30.32,-13.04,-42.93,-17.37,-30.45,-24.75,-5.549,-2.892,0,0,0,0,0,0,0,0,0,0,0,0,0,0,0,0,
450,-34.27,1.769,-53.06,-89.92,-16.02,-27.69,21.39,-63.62,-8.473,-20.32,-40.2,-15.57,-36.55,-23.27,-17.08,-13.38,0,0,0,0,0,0,0,0,0,0,0,0,0,0,0,0,
451,-33.84,19.69,-49.85,-26.77,9.521,-10.07,4.815,4.314,6.232,17.06,-21.56,6.788,-12.87,15.54,-10.2,-9.426,0,0,0,0,0,0,0,0,0,0,0,0,0,0,0,0,
452,-14.65,30.06,-9.533,29.4,-24.88,-39.23,-22.95,51.66,-20.08,16.45,-34.81,-7.9,-40.43,-4.174,-5.588,-8.813,0,0,0,0,0,0,0,0,0,0,0,0,0,0,0,0,
453,-31.13,-6.84,-20.54,-21.61,-43.89,-63.85,-10.57,-44.98,-23.25,-17.83,-38.09,-20.06,-64.81,-36.07,-10.63,-22.31,0,0,0,0,0,0,0,0,0,0,0,0,0,0,0,0,
454,-44.24,-7.337,-25.7,-65.5,-35.77,-39.65,17.03,-60.33,-12.31,-3.019,-21.87,-3.695,-33.69,-5.29,-5.877,-22.55,0,0,0,0,0,0,0,0,0,0,0,0,0,0,0,0,
455,-23.51,16.69,-17.12,-42.4,-18,-24.34,-5.728,23.51,-15.74,5.281,-18.47,5.205,-27.32,0.1514,5.981,-7.026,0,0,0,0,0,0,0,0,0,0,0,0,0,0,0,0,
456,7.48,-4.775,-31.22,-38.66,8.982,-15.55,-23.03,-23.93,-3.404,-22.54,-9.77,5.173,-44.29,-24.72,13.85,2.058,0,0,0,0,0,0,0,0,0,0,0,0,0,0,0,0,
457,4.952,-18.44,-34.41,-76.27,-12.56,-5.789,24.15,-112.9,1.741,-18.11,-10.75,-3.756,-34.27,-9.001,12.69,1.22,0,0,0,0,0,0,0,0,0,0,0,0,0,0,0,0,
458,-25.01,1.671,-25.2,-86.75,-45.12,-17.58,50.8,-57.14,-17.21,0.2525,-29.13,-13.78,-29.62,4.102,0.6954,-2.736,0,0,0,0,0,0,0,0,0,0,0,0,0,0,0,0,
459,-26.91,-5.165,-20.61,-55,-34.2,-40.6,-5.179,16.76,-29.43,-11.52,-27.84,-10.62,-44.74,-19.97,-10.18,-9.273,0,0,0,0,0,0,0,0,0,0,0,0,0,0,0,0,
460,-25.48,-28.81,-26.14,-29.15,-46.98,-58.05,-52.94,10.17,-33.27,-20.87,-26.49,-14.82,-49.23,-27.77,-11.92,-16.52,0,0,0,0,0,0,0,0,0,0,0,0,0,0,0,0,
461,-40.51,-25.34,-47.4,-31.97,-44.79,-38.92,-27.89,-6.438,-23.1,-10.83,-37.83,-21.02,-39.5,-3.152,-9.846,-14.97,0,0,0,0,0,0,0,0,0,0,0,0,0,0,0,0,
462,-28.09,-18.55,-70.9,-53.84,2.817,-12.85,-1.385,-33.87,-4.128,-10.65,-27.93,-8.633,-32.2,2.06,-4.733,-3.382,0,0,0,0,0,0,0,0,0,0,0,0,0,0,0,0,
463,-16.72,-23.15,-86.72,-57.04,-7.181,-28.62,-12.75,-44.16,-3.125,-25.67,-4.089,11.48,-32.61,-20.13,5.41,4.286,0,0,0,0,0,0,0,0,0,0,0,0,0,0,0,0,
464,-22.88,-22.03,-56.36,-35.88,-19.43,-21.84,-22.86,-22.01,0.5195,-27.13,9.588,29.23,-31.89,-15.77,16.9,3.375,0,0,0,0,0,0,0,0,0,0,0,0,0,0,0,0,
465,-12.62,-25.2,1.363,-62.29,20.46,2.791,-19.3,-59.37,17.82,-5.941,13.62,34.26,-21.54,10.81,25.47,5.856,0,0,0,0,0,0,0,0,0,0,0,0,0,0,0,0,
466,-14.97,-22.59,-15.6,-102.5,0.7404,-21.81,-2.787,-83.2,14.29,8.594,12.32,27.39,-9.874,8.05,30.06,16.32,0,0,0,0,0,0,0,0,0,0,0,0,0,0,0,0,
467,-28.7,-0.649,-45.96,-61.12,-40.64,-31.11,7.664,-13.61,-9.869,-1.519,5.554,24.06,-12.11,-5.678,28.94,23.54,0,0,0,0,0,0,0,0,0,0,0,0,0,0,0,0,
468,-18.54,3.939,1.148,-32.11,-19.03,-13.54,-10.47,18.91,-16.42,-10.18,-2.696,21.01,-16.98,6.275,23.35,21.91,0,0,0,0,0,0,0,0,0,0,0,0,0,0,0,0,
469,-18.23,-6.824,11.53,-78.56,-1.886,-27.28,-17.09,7.516,3.97,-4.423,-2.433,20.2,-6.105,12.12,23.09,20.96,0,0,0,0,0,0,0,0,0,0,0,0,0,0,0,0,
470,-29.16,-1.487,-35.8,-75.22,-3.455,-23.47,-10.09,22.57,19.27,-5.726,4.581,30.96,12.69,3.428,32.88,27.6,0,0,0,0,0,0,0,0,0,0,0,0,0,0,0,0,
471,-7.839,9.545,-31.41,-18.44,4.364,1.153,-22.35,6.362,18.41,-2.885,16.63,42.43,32.16,25.2,45.38,39.16,0,0,0,0,0,0,0,0,0,0,0,0,0,0,0,0,
472,17.42,23.79,-15.97,-19.69,3.343,-3.471,0.306,-30.21,18.48,12.01,31.2,42.36,40.88,51.16,52.34,46.36,0,0,0,0,0,0,0,0,0,0,0,0,0,0,0,0,
473,14.87,33.41,-31.24,-53.35,17.12,9.941,57.7,-36.52,20.13,9.854,31.75,37.44,31.85,39.84,51.87,41.88,0,0,0,0,0,0,0,0,0,0,0,0,0,0,0,0,
474,20.17,23,-18.01,-44.43,39.58,41.26,47.28,-21.39,25.43,5.151,26.97,35.38,28.28,28.7,49.39,34.46,0,0,0,0,0,0,0,0,0,0,0,0,0,0,0,0,
475,26.88,12.4,1.219,-15.79,15.28,15.81,-18.75,16.15,28.7,8.726,27.06,20.39,23.59,21.38,44.87,28.64,0,0,0,0,0,0,0,0,0,0,0,0,0,0,0,0,
476,2.158,4.707,-4.317,-11.57,-16.66,-23.81,-41.38,44.33,19.43,-3.511,20.67,-1.298,7.63,8.569,33.5,17.8,0,0,0,0,0,0,0,0,0,0,0,0,0,0,0,0,
477,-1.413,-1.04,1.857,-23.2,9.125,-4.764,-16.68,35.05,21.58,-5.781,19.36,2.447,8.259,18.76,23.7,12.16,0,0,0,0,0,0,0,0,0,0,0,0,0,0,0,0,
478,24.32,3.341,10.9,-26.5,43.27,14.05,1.947,11.82,31,4.108,18.77,8.856,5.421,16.21,20.26,15.88,0,0,0,0,0,0,0,0,0,0,0,0,0,0,0,0,
479,8.476,-8.939,36.74,0.9714,29.6,-7.848,-1.043,5.097,17.95,-8.954,4.506,-1.343,-16.6,-8.382,14.89,11.94,0,0,0,0,0,0,0,0,0,0,0,0,0,0,0,0,
480,-9.947,-28.4,92.3,49.7,15.55,-2.64,-2.097,34.34,2.933,-16.24,-2.55,-0.9997,-17.64,-5.34,7.655,0.4321,0,0,0,0,0,0,0,0,0,0,0,0,0,0,0,0,
481,14.62,-18.98,94.44,69.72,47.72,37.69,23.53,50.8,11.65,-3.659,-6.604,-1.883,-4.316,5.284,2.885,-6.953,0,0,0,0,0,0,0,0,0,0,0,0,0,0,0,0,
482,19.68,-1.859,91.78,87.95,90.32,54.85,44.53,32.92,36.54,4.877,-13.75,-7.215,4.656,18.13,3.804,-6.877,0,0,0,0,0,0,0,0,0,0,0,0,0,0,0,0,
483,9.421,5.554,165.6,143.3,95.47,63.37,38.44,44.17,41.76,15.87,-2.781,6.254,15.73,35.23,11.7,0.2745,0,0,0,0,0,0,0,0,0,0,0,0,0,0,0,0,
484,27.09,18.56,177,165.4,88.75,107.8,97.72,57.9,10.87,21.71,8.182,14.03,15.94,16.72,16.6,3.74,0,0,0,0,0,0,0,0,0,0,0,0,0,0,0,0,
485,42.57,48.55,169.3,184.3,121,156.9,221.8,67.01,4.492,18.67,3.894,10.53,22.12,12.29,17.18,1.576,0,0,0,0,0,0,0,0,0,0,0,0,0,0,0,0,
486,42.92,83.4,332.5,301.2,143.6,147.7,218,149.7,39.46,32.08,3.168,16.35,44.87,41.3,22.93,8.319,0,0,0,0,0,0,0,0,0,0,0,0,0,0,0,0,
487,46.58,81.96,470.2,394.3,118.4,113.5,105.7,207.6,54.31,49.48,10.06,17.92,46.73,33.31,26,16.14,0,0,0,0,0,0,0,0,0,0,0,0,0,0,0,0,
488,56.41,58.88,398.4,341.6,136.7,139.4,112.2,153.4,47.72,43.17,20.55,17.2,34.58,22.39,18.24,9.573,0,0,0,0,0,0,0,0,0,0,0,0,0,0,0,0,
489,64.65,67.54,296.2,273.3,176.2,177.3,181.9,134.6,34.27,26.52,17.21,14.3,27.42,31.92,10.35,1.496,0,0,0,0,0,0,0,0,0,0,0,0,0,0,0,0,
490,48.27,69.93,254.7,280.5,119.1,132.3,139.2,176,16.22,24.99,-4.949,-6.454,6.257,12.55,6.099,-0.4265,0,0,0,0,0,0,0,0,0,0,0,0,0,0,0,0,
491,17.05,34.39,240.5,273.1,62.48,66.61,74.64,146.7,33.75,29.95,-3.124,-10.39,-9.161,4.527,0.4176,-5.929,0,0,0,0,0,0,0,0,0,0,0,0,0,0,0,0,
492,19.05,25.4,255.2,216.7,90.75,64.29,76.98,89.77,58.18,17.6,21.56,14.57,1.238,15.5,1.343,-7.844,0,0,0,0,0,0,0,0,0,0,0,0,0,0,0,0,
493,41.79,41.29,229.7,180.5,86.64,74.52,61.89,77.83,34.87,3.166,13.94,17.1,4.018,-7.713,13.13,-0.0693,0,0,0,0,0,0,0,0,0,0,0,0,0,0,0,0,
494,38.87,28.68,167,173.8,60.59,65.54,27.39,62.19,10.58,9.125,-10.56,5.056,1.753,-13.46,21.88,3.801,0,0,0,0,0,0,0,0,0,0,0,0,0,0,0,0,
495,35.86,25.44,133.6,144.2,84.66,81.42,34.87,47.26,7.85,12.09,-2.74,14.39,15.25,19.68,22.38,2.342,0,0,0,0,0,0,0,0,0,0,0,0,0,0,0,0,
496,48.8,36.02,73.92,80.86,70.61,87.95,46.84,48.43,-1.513,-4.199,10.15,13.12,13.54,22.71,21.02,3.036,0,0,0,0,0,0,0,0,0,0,0,0,0,0,0,0,
497,29.48,8.691,12.62,31.57,19.23,34.45,35.72,29.69,5.026,-11.78,-0.409,-4.78,-0.8851,7.85,17.22,5.019,0,0,0,0,0,0,0,0,0,0,0,0,0,0,0,0,
498,-3.366,-4.922,44.75,36.93,11.78,-15.3,20.01,17.86,15.75,-2.85,-5.915,-6.362,1.172,2.132,13.27,11.26,0,0,0,0,0,0,0,0,0,0,0,0,0,0,0,0,
499,-3.684,18.12,53.79,44.99,3.67,-16.82,-13,19.01,1.696,-5.888,0.655,-4.701,-2.952,-15.82,15.2,19.62,0,0,0,0,0,0,0,0,0,0,0,0,0,0,0,0,
500,-0.0962,7.825,-25.96,11.3,-7.897,-7.447,-34.62,-5.626,13.77,-17.66,7.177,-4.337,-13.73,-15.56,19.99,20.62,0,0,0,0,0,0,0,0,0,0,0,0,0,0,0,0,
501,-4.73,-14.17,-40.47,-5.08,3.804,-16.08,-21.2,-19.94,37.27,-16.57,7.801,-3.976,-16.4,3.253,17.99,10.78,0,0,0,0,0,0,0,0,0,0,0,0,0,0,0,0,
502,-10.36,-8.873,-16.61,-17.46,-12.28,-32.29,-21.21,-15.35,7.203,-9.227,-5.529,-16.63,-21.56,-3.348,5.804,-6.957,0,0,0,0,0,0,0,0,0,0,0,0,0,0,0,0,
503,-11.96,6.553,-79.9,-66.07,-3.919,6.125,-11.8,-31.31,-10.74,-1.993,-8.02,-6.915,-7.683,-3.139,-1.581,-13.36,0,0,0,0,0,0,0,0,0,0,0,0,0,0,0,0,
504,9.999,33.17,-116.8,-70.82,39.72,60.4,16.64,-38.01,13.99,-3.587,0.629,13.05,10.68,11.1,2.907,1.339,0,0,0,0,0,0,0,0,0,0,0,0,0,0,0,0,
505,7.631,33.75,-58.11,-40.21,-13.9,-1.122,-14.24,-13.22,7.849,-7.661,-8.137,0.9392,9.234,12.31,5.425,16.18,0,0,0,0,0,0,0,0,0,0,0,0,0,0,0,0,
506,-19.79,16.64,-14.95,-43.59,-77.67,-67.34,-43.38,8.484,1.518,14.11,1.255,17.32,34.58,31.46,12.12,27.81,0,0,0,0,0,0,0,0,0,0,0,0,0,0,0,0,
507,10.44,46.87,-28.33,-49.72,-24.8,-3.951,1.58,-1.533,24.97,19.96,21.63,54.34,48.83,35.46,28.95,40.03,0,0,0,0,0,0,0,0,0,0,0,0,0,0,0,0,
508,37.46,56.84,-84.54,-73.57,-3.162,26.19,12.08,-28.41,21.97,-14.14,-0.7606,37.36,8.31,-1.262,30.9,32.75,0,0,0,0,0,0,0,0,0,0,0,0,0,0,0,0,
509,7.628,13.16,-141.8,-109.1,-43.81,-23.81,-41.66,-32.31,13.23,-9.014,-10.63,28.14,5.755,6.709,18.73,15.38,0,0,0,0,0,0,0,0,0,0,0,0,0,0,0,0,
510,8.415,6.507,-131.1,-96.41,-32.84,-28.32,-67.23,-31.95,15.46,18.27,21.97,49.87,29.71,29.37,17.97,13.41,0,0,0,0,0,0,0,0,0,0,0,0,0,0,0,0,
511,18.77,13.13,-91.35,-101.2,-28.23,-24.54,-50.95,-49.73,-8.505,-14.02,27.49,30.46,-1.415,-11.44,22.75,13.09,0,0,0,0,0,0,0,0,0,0,0,0,0,0,0,0,
512,-10.44,-9.969,-81.25,-133.5,-52.4,-37.06,-39.04,-54.12,-23.49,-48.91,6.31,6.539,-16.6,-23.96,20.25,7.998,0,0,0,0,0,0,0,0,0,0,0,0,0,0,0,0,
513,-14.44,-8.466,-90.41,-112.6,-41.75,-27.61,-60.47,-55.17,-5.972,-30.7,6.13,25.32,21.95,28.03,21.06,21.5,0,0,0,0,0,0,0,0,0,0,0,0,0,0,0,0,
514,7.841,11.98,-120.3,-90.56,-42.98,-37.93,-87.73,-63.02,7.536,-17.02,22.09,39.02,36.43,33.66,30.89,48.86,0,0,0,0,0,0,0,0,0,0,0,0,0,0,0,0,
515,8.598,11.85,-143.5,-108.5,-72.06,-50.18,-81.96,-74.41,6.942,-32.58,23.43,24.22,19.84,-4.072,35.97,57.78,0,0,0,0,0,0,0,0,0,0,0,0,0,0,0,0,
516,-1.946,4.731,-134.4,-124.3,-68.24,-34.78,-65.49,-106.7,-6.397,-34.63,6.575,10.64,21.37,5.459,31.98,49.18,0,0,0,0,0,0,0,0,0,0,0,0,0,0,0,0,
517,-10.58,6.438,-133,-135.6,-50.8,-47.25,-61.45,-97.22,-27.43,-17.02,-0.0342,9.859,30.42,30.73,31.72,47.81,0,0,0,0,0,0,0,0,0,0,0,0,0,0,0,0,
518,-22.42,10.93,-128.6,-130.3,-76.25,-77,-66.59,-41.37,-39.69,-14.46,-1.349,-1.204,13.12,12.5,29.19,43.32,0,0,0,0,0,0,0,0,0,0,0,0,0,0,0,0,
519,-34.28,3.62,-100.4,-117.8,-105.3,-72.45,-72.67,-43.01,-33.65,-25.69,-14.26,-19.5,-11.36,-10.28,12.19,17.54,0,0,0,0,0,0,0,0,0,0,0,0,0,0,0,0,
520,-33.11,-14.7,-113.2,-132.3,-62.62,-54.98,-68.83,-60.22,-11.95,-30.13,-11.28,-17.15,-14.37,-10.82,-1.817,-8.774,0,0,0,0,0,0,0,0,0,0,0,0,0,0,0,0,
521,-24.31,-20.75,-153.4,-132.5,-5.799,-41.1,-60.35,-38.03,-1.496,-24.92,6.712,-4.904,-2.597,1.721,0.5484,-16.82,0,0,0,0,0,0,0,0,0,0,0,0,0,0,0,0,
522,-14.32,-3.592,-125.9,-107.4,-18.18,-3.44,-36.67,-42.02,-6.985,-11.13,7.22,2.98,10.38,21.55,5.41,-16.97,0,0,0,0,0,0,0,0,0,0,0,0,0,0,0,0,
523,9.533,8.046,-63.38,-101.6,-33.43,29.03,-13.73,-62.2,-2.086,-13.76,-5.754,8.101,0.1072,6.342,-0.5366,-24.3,0,0,0,0,0,0,0,0,0,0,0,0,0,0,0,0,
524,11.01,-10.66,-51.76,-94.85,-20.82,-8.986,-48.57,-74.04,4.095,-32.64,-19,3.777,-25.27,-31.22,-15.91,-39.84,0,0,0,0,0,0,0,0,0,0,0,0,0,0,0,0,
525,-28.46,-21.27,-72.11,-75.17,-45.84,-69.41,-91.55,-76.65,-3.704,-26.19,-32.48,2.285,-18.41,-24.81,-26.75,-45.8,0,0,0,0,0,0,0,0,0,0,0,0,0,0,0,0,
526,-35.28,-1.601,-84.47,-82.41,-74.34,-70.42,-70.44,-39.44,-14.24,-18.05,-36.49,12.32,-0.7176,-3.217,-23.65,-34.11,0,0,0,0,0,0,0,0,0,0,0,0,0,0,0,0,
527,-7.573,7.46,-88.07,-106.1,-52.97,-47.79,-46.34,-29.32,-15.57,-27.75,-17.19,23.86,-2.725,-2.336,-12.16,-20.09,0,0,0,0,0,0,0,0,0,0,0,0,0,0,0,0,
528,-11.67,7.288,-96.14,-108.4,-24.72,-31.64,-58.95,-70.21,-2.202,-11.68,8.527,39.49,9.991,4.739,2.822,-8.437,0,0,0,0,0,0,0,0,0,0,0,0,0,0,0,0,
529,-16.99,17.43,-115.2,-96.9,-24.92,-11.54,-69.11,-64.89,6.082,3.886,7.298,47.37,24.83,10.95,15.75,4.645,0,0,0,0,0,0,0,0,0,0,0,0,0,0,0,0,
530,-3.366,4.154,-110.8,-97.87,-54.22,-36.2,-78.97,-45.97,-10.06,-23.68,-15.1,25.57,4.131,2.581,14.73,8.646,0,0,0,0,0,0,0,0,0,0,0,0,0,0,0,0,
531,-27.82,-34.37,-82.77,-109.3,-90.84,-88.16,-95.89,-66.51,-30.04,-46.19,-31.3,-5.856,-18.4,-7.547,0.5856,-0.2519,0,0,0,0,0,0,0,0,0,0,0,0,0,0,0,0,
532,-53.17,-46.1,-70.6,-99.25,-83.42,-73.89,-92.47,-61.95,-29.19,-34,-27.56,-9.205,-15.32,-16.02,-7.849,-7.093,0,0,0,0,0,0,0,0,0,0,0,0,0,0,0,0,
533,-16.48,-24.67,-56.38,-74.91,-43.94,-33.1,-76.51,-47.65,-14.84,-27.42,-12.42,2.924,-19.41,-28.35,-1.9,-5.868,0,0,0,0,0,0,0,0,0,0,0,0,0,0,0,0,
534,2.521,-17.42,-53.22,-75.57,-34.68,-40.74,-70.94,-51.1,-1.444,-32.36,-2.083,6.393,-26.35,-27.34,8.6,-0.7224,0,0,0,0,0,0,0,0,0,0,0,0,0,0,0,0,
535,-15.19,-7.354,-68.1,-50.69,-16.09,-19.83,-42.87,-11.81,35.01,-2.032,28.35,35.91,15.74,17.81,30.01,21.11,0,0,0,0,0,0,0,0,0,0,0,0,0,0,0,0,
536,25.27,48.97,-25.68,25.48,47.78,47.2,2.006,31.37,74.91,28.68,58.07,69.46,53.33,45.09,62.66,53.22,0,0,0,0,0,0,0,0,0,0,0,0,0,0,0,0,
537,44.97,63.61,6.812,23.28,38.85,25.34,-17.12,0.8663,32.45,-8.65,14.33,27.31,5.589,-3.439,61.24,48.03,0,0,0,0,0,0,0,0,0,0,0,0,0,0,0,0,
538,-30.08,0.8294,-43.22,-52.24,-42.95,-49.09,-59.4,-29.45,-22.25,-28.82,-17.24,-8.762,-24.55,-14.69,27.09,15.13,0,0,0,0,0,0,0,0,0,0,0,0,0,0,0,0,
539,-34.48,6.143,-24.75,-28.65,-24.78,-20.49,-25.32,15.33,30.87,24.83,50.68,51.67,33.63,46.61,34.69,23.73,0,0,0,0,0,0,0,0,0,0,0,0,0,0,0,0,
540,41.61,69.38,49.51,34.08,33.45,22.09,7.718,51.65,67.42,36.03,71.32,77.57,45.84,47.17,74.37,56.73,0,0,0,0,0,0,0,0,0,0,0,0,0,0,0,0,
541,18.13,46.14,3.254,-16.22,-19.36,-32.49,-26.07,-0.3757,-0.6789,-6.443,-13.54,9.001,-15.15,-5.719,60.01,41.04,0,0,0,0,0,0,0,0,0,0,0,0,0,0,0,0,
542,-45.98,-0.1402,-72.01,-77.08,-56.31,-56.62,-39.32,-56.82,-36.84,-8.331,-43.35,-14.25,-19.3,-5.856,6.601,-0.6447,0,0,0,0,0,0,0,0,0,0,0,0,0,0,0,0,
543,-21.64,20.69,-52.49,-53.81,-4.056,-17.55,-21.31,-34.35,-10.67,8.128,7.733,29.86,23.6,30.29,-5.919,-3.459,0,0,0,0,0,0,0,0,0,0,0,0,0,0,0,0,
544,7.674,33.79,-39.66,-40.52,-6.368,-34.01,-31.64,-9.183,-3.831,1.923,18.16,27.75,12.26,31.17,14.13,14.57,0,0,0,0,0,0,0,0,0,0,0,0,0,0,0,0,
545,-24.36,8.384,-76.24,-68.93,-56.41,-76.02,-54.24,-26.35,-8.078,-10.77,-18.57,-19.31,-28.25,-6.24,12.07,9.232,0,0,0,0,0,0,0,0,0,0,0,0,0,0,0,0,
546,-50.63,-8.228,-83.45,-78.85,-55.13,-71.24,-67.48,-32.06,-4.073,-19.62,-28.37,-27.43,-24.4,-15.11,-4.08,-3.271,0,0,0,0,0,0,0,0,0,0,0,0,0,0,0,0,
547,-34.07,-1.302,-59.63,-72.96,-39.69,-48.95,-53.34,-54.74,4.462,-14.2,-15.15,-3.921,-1.068,14.64,-1.81,1.919,0,0,0,0,0,0,0,0,0,0,0,0,0,0,0,0,
548,-10.95,23.15,-63.3,-82.08,-39.74,-26.32,-4.103,-85.51,16.82,-9.304,-20.7,-7.314,-8.449,7.743,5.851,6.494,0,0,0,0,0,0,0,0,0,0,0,0,0,0,0,0,
549,-20.36,28.7,-98.45,-95.52,-42.7,-26.72,-8.49,-40.06,0.5653,-28.49,-39.82,-33.89,-30.38,-28.59,-5.668,-6.519,0,0,0,0,0,0,0,0,0,0,0,0,0,0,0,0,
550,-54.42,-8.297,-126,-89.01,-60.5,-57,-83.61,-10.18,-29.2,-40.19,-42.14,-36.56,-28.32,-16.93,-19.01,-17.14,0,0,0,0,0,0,0,0,0,0,0,0,0,0,0,0,
551,-52.51,-20.3,-110.1,-61.59,-50.05,-39.54,-86.21,-63.48,-0.944,-21.56,-4.419,5.484,3.74,25.2,1.388,0.9814,0,0,0,0,0,0,0,0,0,0,0,0,0,0,0,0,
552,-2.133,18.77,-40.31,-40.91,2.405,-1.756,-29.64,-72.21,48.21,-12.96,35.2,39.18,15.85,18.39,41.36,29.96,0,0,0,0,0,0,0,0,0,0,0,0,0,0,0,0,
553,-0.7105,18.93,9.442,-53.33,1.335,-50.94,-63.79,-42.32,8.663,-35.8,0.0293,8.957,-22.8,-28.41,43.41,22.8,0,0,0,0,0,0,0,0,0,0,0,0,0,0,0,0,
554,-63.15,-28.63,-33.83,-84.24,-57.75,-107.4,-115.8,-59.5,-80.87,-52.68,-62.09,-23.4,-43.26,-33.33,3.476,-12.68,0,0,0,0,0,0,0,0,0,0,0,0,0,0,0,0,
555,-64.89,-38.68,-80.35,-92.97,-67.71,-80.56,-84.16,-72.56,-91.4,-47.68,-50.44,-3.067,-18.76,-2.852,-20.02,-23.14,0,0,0,0,0,0,0,0,0,0,0,0,0,0,0,0,
556,-26.17,-22.74,-67.14,-90.28,-38.21,-69.03,-79.77,-77.83,-43.44,-47.91,-17.51,0.6289,-19.9,-8.146,-10.02,-8.957,0,0,0,0,0,0,0,0,0,0,0,0,0,0,0,0,
557,-64,-35.11,-110.5,-132.6,-45.23,-92.24,-109.6,-118,-41.35,-60.15,-42.89,-37.78,-45.41,-38.9,-6.07,-11.56,0,0,0,0,0,0,0,0,0,0,0,0,0,0,0,0,
558,-106.2,-52.12,-188.6,-179.7,-63.07,-73.85,-65.48,-150.8,-61.57,-69.87,-77.57,-56.65,-43.22,-49.88,-22.79,-30.73,0,0,0,0,0,0,0,0,0,0,0,0,0,0,0,0,
559,-81.19,-40.98,-129.3,-135.8,-67.95,-72.45,-33.66,-122.4,-39.72,-66.99,-67.8,-45.71,-19.93,-29.59,-31.02,-34.43,0,0,0,0,0,0,0,0,0,0,0,0,0,0,0,0,
560,-60.54,-14.24,-27.57,-57.95,-65.53,-86.27,-91.71,-36.78,-6.988,-49.49,-30.32,-22.68,11.16,11.24,-7.499,-11.02,0,0,0,0,0,0,0,0,0,0,0,0,0,0,0,0,
561,-29.72,10.87,-59,-45.75,-10.52,-7.519,-99.92,-4.864,23.81,-26.04,19.07,14.91,45.63,33.66,39.77,26.96,0,0,0,0,0,0,0,0,0,0,0,0,0,0,0,0,
562,23.13,30.92,-80.01,-56.59,47.31,56.68,-1.237,-82.49,66.08,-1.771,64.02,43.82,64.12,31.86,85.53,62.29,0,0,0,0,0,0,0,0,0,0,0,0,0,0,0,0,
563,17.88,38.77,8.637,-46.65,28.82,4.225,60.39,-105.6,61.85,6.008,61.48,39.33,59.48,31.92,100.3,76.67,0,0,0,0,0,0,0,0,0,0,0,0,0,0,0,0,
564,4.287,31.74,16.75,-47.85,24.88,-8.044,11.14,-38.45,11.63,-18.76,10.96,11.02,33.81,16.36,66.68,54.51,0,0,0,0,0,0,0,0,0,0,0,0,0,0,0,0,
565,15.46,13.87,-87.83,-75.9,44.35,23.71,-57.11,-53.26,-21.44,-41.27,-42.49,-30.65,-6.224,-17.98,0.8831,1.655,0,0,0,0,0,0,0,0,0,0,0,0,0,0,0,0,
566,-47.58,-14.89,-116.3,-98.55,-8.952,-47.2,-67.29,-88.08,-61.65,-50.3,-83.13,-68.17,-36.24,-41.56,-59.33,-52.11,0,0,0,0,0,0,0,0,0,0,0,0,0,0,0,0,
567,-115.3,-28.24,-54.72,-73.74,-49.6,-110.2,-61.81,-31.01,-95.26,-78.03,-94.19,-69.22,-38.32,-56.18,-84.29,-76.94,0,0,0,0,0,0,0,0,0,0,0,0,0,0,0,0,
568,-78.47,-12.09,-35.94,-52.11,-34.74,-53.88,-74.01,-36.98,-63.57,-89.03,-63.09,-42.8,-20.41,-56.58,-69.51,-66.28,0,0,0,0,0,0,0,0,0,0,0,0,0,0,0,0,
569,-24.69,3.906,-51.95,-64.66,-39.93,1.484,-53.38,-100.2,-29.58,-51.1,-41.56,-29.2,-3.694,-39.01,-42.52,-42.43,0,0,0,0,0,0,0,0,0,0,0,0,0,0,0,0,
570,-15.07,8.329,-20.73,-34.67,-29.18,-20.74,-34.05,-66.17,-39.52,-29.18,-63.02,-47.35,-17.55,-50.19,-41.64,-39.15,0,0,0,0,0,0,0,0,0,0,0,0,0,0,0,0,
571,-53.17,-18.99,-14.45,-32.91,-27.06,-83.55,-71.51,-48.63,-56.76,-46.57,-83.4,-77.26,-45.2,-77.08,-68.55,-61.17,0,0,0,0,0,0,0,0,0,0,0,0,0,0,0,0,
572,-98.13,-43.51,-66.59,-92.38,-54.05,-94.67,-42.77,-65.57,-67.19,-40.61,-55.38,-57.23,-14.41,-43.63,-75.72,-65.85,0,0,0,0,0,0,0,0,0,0,0,0,0,0,0,0,
573,-28.14,26.74,-36.4,-28.39,2.982,-10.29,43.28,20.1,-50.05,-13.57,-6.479,-2.006,37,-0.7415,-40.75,-32.54,0,0,0,0,0,0,0,0,0,0,0,0,0,0,0,0,
574,47.04,75.7,5.212,44.38,49.18,23.88,-7.478,25.1,-29.66,-24.65,-14.39,-16.63,11.02,-26.08,-16.72,-11.5,0,0,0,0,0,0,0,0,0,0,0,0,0,0,0,0,
575,-27.62,11.13,-74,-57.86,-14.36,-35.18,-76.17,-103.6,-44.82,-47.64,-56.57,-64.37,-18.17,-32.04,-35.66,-29.65,0,0,0,0,0,0,0,0,0,0,0,0,0,0,0,0,
576,-62.26,12.85,-70.24,-90.96,-24.85,-31.37,-11.75,-73.96,-49.33,-31.54,-54.13,-52.57,5.476,6.119,-59.4,-52.2,0,0,0,0,0,0,0,0,0,0,0,0,0,0,0,0,
577,-3.854,46.58,35.97,-5.433,9.178,7.044,-8.985,26.25,-52.18,-20.72,-41.17,-43.94,-9.504,-16.36,-69.55,-67.12,0,0,0,0,0,0,0,0,0,0,0,0,0,0,0,0,
578,-19.3,-16.59,17.83,-1.657,6.845,5.677,-54.37,-31.45,-59.73,-39.16,-27.42,-40.61,-17.84,-47.45,-59.54,-63.51,0,0,0,0,0,0,0,0,0,0,0,0,0,0,0,0,
579,-5.949,11.35,0.0946,11.93,61.57,44.68,21.2,-58.43,-5.881,-34.79,22.34,14.51,38.07,-15.46,-11.11,-17.03,0,0,0,0,0,0,0,0,0,0,0,0,0,0,0,0,
580,66.06,106.4,56.23,38.13,78.59,62.87,43.78,10.89,12.85,-26.51,13.51,12.86,26.54,-21.95,19.14,16.24,0,0,0,0,0,0,0,0,0,0,0,0,0,0,0,0,
581,18.5,46.32,-3.797,-33.51,-21.55,-1.395,-49.6,-8.694,-62.29,-46.8,-54.78,-58.36,-38.87,-60.83,-20.53,-15.55,0,0,0,0,0,0,0,0,0,0,0,0,0,0,0,0,
582,-43.25,-25.49,-51.5,-42.19,-32.79,-10.55,-54.72,-40.72,-51.22,-33.39,-29.2,-44.98,-13.32,-28.12,-50.89,-39.03,0,0,0,0,0,0,0,0,0,0,0,0,0,0,0,0,
583,0.5969,13.62,40.75,18.27,31.53,21.76,6.901,9.517,26.6,-4.839,33.49,6.512,34.55,4.246,-17.78,-8.93,0,0,0,0,0,0,0,0,0,0,0,0,0,0,0,0,
584,18.01,36.51,50.77,-25.31,1.839,-3.845,28.54,1.781,-3.099,-37.78,8.078,-13.93,16.15,-23.41,9.64,9.714,0,0,0,0,0,0,0,0,0,0,0,0,0,0,0,0,
585,12.11,36.04,-33.99,-67.61,-6.851,3.444,34.13,-50.36,-35.78,-45.63,-2.806,-18.4,12.68,-18.13,4.242,3.345,0,0,0,0,0,0,0,0,0,0,0,0,0,0,0,0,
586,37.92,38.83,-26.63,-17.92,48.2,44.23,12.47,-31.67,3.933,10.5,35.83,7.815,29.77,9.655,5.499,14.08,0,0,0,0,0,0,0,0,0,0,0,0,0,0,0,0,
587,4.751,10.31,12.64,-6.545,2.382,-0.5356,-32.99,-29.47,-32.32,-2.195,2.741,-33.24,-2.387,-16.74,0.9212,19.7,0,0,0,0,0,0,0,0,0,0,0,0,0,0,0,0,
588,-50.59,-9.557,-16.96,-40.22,-68.73,-50.66,-57.44,-54.85,-94.61,-46,-44.28,-67.11,-22.64,-31.42,-20,1.891,0,0,0,0,0,0,0,0,0,0,0,0,0,0,0,0,
589,-23.79,1.897,-18.76,-27.29,-21.9,-12.7,-65.01,-8.734,-44.86,-16.56,4.166,-19.17,13.08,-3.989,-15.47,-0.6419,0,0,0,0,0,0,0,0,0,0,0,0,0,0,0,0,
590,7.449,6.442,31.68,-16.23,18.82,7.868,-59.47,-1.483,0.8488,-21.04,43.73,-3.169,14.07,-12.32,8.084,7.551,0,0,0,0,0,0,0,0,0,0,0,0,0,0,0,0,
591,-25.18,-9.03,-3.594,-60.61,-2.698,-20.23,-44.61,-78.06,-27.23,-71.01,8.657,-43.3,-22.91,-30.5,2.717,-10.77,0,0,0,0,0,0,0,0,0,0,0,0,0,0,0,0,
592,-50.8,-24.26,-86.56,-86.6,10.69,-13.83,-41.21,-83.07,-36.65,-59.58,-15.63,-53.55,-23.04,-18.98,-26.31,-42.73,0,0,0,0,0,0,0,0,0,0,0,0,0,0,0,0,
593,-47.89,-31.4,-61.51,-68.02,-5.224,-16.27,-58.62,-36.18,-51.43,-53,-24.62,-59.25,-19.93,-40.48,-48.84,-61.63,0,0,0,0,0,0,0,0,0,0,0,0,0,0,0,0,
594,-56.21,-53.65,-6.375,-65.1,-83.62,-65.42,-92.98,-28.85,-86.01,-77.04,-37.96,-68.08,-34.45,-79.15,-55.7,-62.68,0,0,0,0,0,0,0,0,0,0,0,0,0,0,0,0,
595,-50.36,-58.28,-15.92,-68.78,-75.75,-66.26,-87.36,-42.33,-64.59,-54.29,-16.92,-35.31,-20.44,-66.39,-45.92,-48.05,0,0,0,0,0,0,0,0,0,0,0,0,0,0,0,0,
596,-22.31,-3.147,-21.74,-53.61,-3.197,-20.44,-22.97,-74.03,-32.64,-31.06,3.899,-15.58,-1.148,-33.09,-29.19,-29.99,0,0,0,0,0,0,0,0,0,0,0,0,0,0,0,0,
597,-23.67,20.62,-18.08,-50.16,-10.15,-16.25,-13.66,-81.43,-32.45,-42.97,1.499,-24.13,-3.445,-24.52,-12.05,-14.76,0,0,0,0,0,0,0,0,0,0,0,0,0,0,0,0,
598,-29.12,-28.51,-6.638,-60.17,-50.06,-31.61,-79.56,-55.3,-17.9,-54.88,22.06,-3.599,-4.59,-34.13,11.19,0.3629,0,0,0,0,0,0,0,0,0,0,0,0,0,0,0,0,
599,7.218,-36.85,15.22,-59.46,-35.08,-15.18,-92.42,-59.94,-14.09,-67.08,38.86,14.2,-8.571,-48.25,29.01,4.832,0,0,0,0,0,0,0,0,0,0,0,0,0,0,0,0,
600,37.16,-0.0909,-23.85,-39.02,12.68,26.63,-47.84,-46.53,-14.78,-60.38,29.27,9.651,-11.24,-54.94,25.61,-4.346,0,0,0,0,0,0,0,0,0,0,0,0,0,0,0,0,
601,38.86,2.395,-48.56,-11.31,61.16,63.94,-15.58,-23.51,24.57,-39.54,38.44,18.91,7.645,-43.73,11.91,-11.02,0,0,0,0,0,0,0,0,0,0,0,0,0,0,0,0,
602,39.85,15.85,15.46,-8.834,70.8,59.71,13.92,-65.75,29.85,-36.85,46.34,15.34,28.15,-20.65,3.156,-7.098,0,0,0,0,0,0,0,0,0,0,0,0,0,0,0,0,
603,22.88,48.47,24.74,-27.53,11.94,18.39,-0.323,-64.23,-17.76,-28.63,19.44,-12.68,26.11,-15.03,-3.625,1.613,0,0,0,0,0,0,0,0,0,0,0,0,0,0,0,0,
604,-6.985,17.54,-29.76,-36.18,-52.28,-22.75,-78.47,4.674,-25.81,-23.57,-4.146,-26.75,9.056,-30.47,-16.08,3.64,0,0,0,0,0,0,0,0,0,0,0,0,0,0,0,0,
605,-6.859,-31.09,-14.2,-22.76,-39.44,-26.5,-92,10.34,-8.906,-37.96,-6.044,-28.2,0.2376,-26.04,-31.51,-7.058,0,0,0,0,0,0,0,0,0,0,0,0,0,0,0,0,
606,11.11,-11.98,25.96,7.015,12.11,16.92,-21.39,-7.324,-22.82,-32.21,-8.85,-31.36,6.013,-8.246,-43.24,-21.4,0,0,0,0,0,0,0,0,0,0,0,0,0,0,0,0,
607,3.562,18.85,6.247,7.87,4.593,27.16,-2.143,6.343,-38.99,-25.15,-18.92,-35.49,2.993,-20.63,-49.35,-29.21,0,0,0,0,0,0,0,0,0,0,0,0,0,0,0,0,
608,-22.97,7.135,-40.9,-35.63,-34.98,-23.42,-28.87,-7.522,-43.46,-40.18,-20.8,-35.62,-10.5,-39.79,-45.42,-28.27,0,0,0,0,0,0,0,0,0,0,0,0,0,0,0,0,
609,-22.62,-12.68,-46.43,-53,-22.02,-28.91,-15.84,-36.73,-50.67,-34.62,-11.35,-28.45,-15.39,-30.36,-32.35,-22.28,0,0,0,0,0,0,0,0,0,0,0,0,0,0,0,0,
610,-1.812,-24.37,5.054,-22.12,15.26,11.26,-5.632,-52.38,-38.39,-22.29,-8.297,-28.99,-18.99,-18.87,-25.4,-20.83,0,0,0,0,0,0,0,0,0,0,0,0,0,0,0,0,
611,-5.18,-30.29,6.302,-2.612,29.15,17.83,-38.61,-55.58,-1.089,-38.26,-1.126,-27.75,-18.58,-25.22,-24.28,-21.35,0,0,0,0,0,0,0,0,0,0,0,0,0,0,0,0,
612,-12.34,-21.68,-71.14,-15.29,25.22,12.77,-52.04,-26.05,8.933,-48.03,20.82,-10.51,-3.569,-34.02,-14.07,-12.68,0,0,0,0,0,0,0,0,0,0,0,0,0,0,0,0,
613,1.853,-11.38,-64.97,-18.15,9.203,12.82,-22.36,14.02,-13.82,-32.1,22.89,-8.183,4.567,-40.81,-5.633,-5.335,0,0,0,0,0,0,0,0,0,0,0,0,0,0,0,0,
614,14.33,-1.834,24.19,13.3,11.23,21.76,-2.274,28.23,-0.2724,-15.92,10.32,-15.17,4.288,-41.9,-13.35,-10.43,0,0,0,0,0,0,0,0,0,0,0,0,0,0,0,0,
615,22.03,16.16,20.54,29.26,25.24,52.28,-8.039,17.3,27.66,-13.29,13.6,-13.31,6.984,-28.18,-25.06,-17.95,0,0,0,0,0,0,0,0,0,0,0,0,0,0,0,0,
616,6.601,12.33,-46.21,-0.98,-1.317,36.02,-16.41,-8.999,-7.404,-18.79,6.456,-33.77,-4.434,-19.92,-37.9,-28.27,0,0,0,0,0,0,0,0,0,0,0,0,0,0,0,0,
617,-28.65,-14.85,-37.08,-19.32,-26.34,-16.49,-26.67,-15.42,-42.19,-22.82,-5.56,-49.76,-18.68,-37.51,-55.76,-43.03,0,0,0,0,0,0,0,0,0,0,0,0,0,0,0,0,
618,-17.88,-16.89,20.64,-12.12,-3.345,-10.61,-34.7,5.252,-14.21,-27.82,13.93,-27.29,-18.82,-56.71,-58.95,-43.5,0,0,0,0,0,0,0,0,0,0,0,0,0,0,0,0,
619,1.018,-6.945,26.14,-25.04,18.2,6.064,-25.43,-5.162,1.691,-35.91,31.62,-18.73,-23.97,-44.77,-41.02,-27.97,0,0,0,0,0,0,0,0,0,0,0,0,0,0,0,0,
620,-17.63,-13.86,-13.34,-28.06,32.5,1.799,-13.33,-29.15,-14.23,-30.13,22.95,-27.94,-26.36,-16.88,-24.36,-14.4,0,0,0,0,0,0,0,0,0,0,0,0,0,0,0,0,
621,8.297,-9.376,-13.46,12.04,48.59,33.34,-18.45,3.017,-18.99,-14.19,9.354,-25.64,-19.95,-17.11,-21.57,-10.13,0,0,0,0,0,0,0,0,0,0,0,0,0,0,0,0,
622,34.18,-0.3396,5.147,21.88,18.6,31.03,-24.69,20.87,-28.53,-10.01,-8.376,-39.16,-21.85,-30.74,-29.94,-17.98,0,0,0,0,0,0,0,0,0,0,0,0,0,0,0,0,
623,-23.35,-0.7215,-24.23,-38.3,-24.81,-26.15,-0.7068,-36.88,-29.55,-5.759,-12.81,-51.34,-14.97,-12.09,-37.67,-30.38,0,0,0,0,0,0,0,0,0,0,0,0,0,0,0,0,
624,-42.27,13.73,-37.3,-67.93,-6.039,-9.331,30.76,-41.87,1.028,6.914,16.94,-34.1,-6.621,3.287,-29.71,-30.92,0,0,0,0,0,0,0,0,0,0,0,0,0,0,0,0,
625,2.284,15.62,-20.78,-10.82,29.63,48.66,6.03,42.64,3.858,4.435,36.29,-30.46,-21.35,-18.26,-16.94,-24.73,0,0,0,0,0,0,0,0,0,0,0,0,0,0,0,0,
626,-4.906,-5.936,-45.32,32.33,8.64,26.02,-46.98,71.39,-38.77,-12.01,11.67,-48.32,-27.36,-32.12,-24.38,-25.93,0,0,0,0,0,0,0,0,0,0,0,0,0,0,0,0,
627,-19.96,-6.317,-57.02,4.7,-25.91,-12.96,-35.91,22.71,-49.4,-16.24,-6.264,-44.72,-15.56,-24.69,-44.01,-31.55,0,0,0,0,0,0,0,0,0,0,0,0,0,0,0,0,
628,7.172,2.96,-46.04,-21.94,-3.745,14.41,18.6,-10.69,-6.575,-0.5054,21.75,-14.54,0.0845,-5.79,-42.73,-26.04,0,0,0,0,0,0,0,0,0,0,0,0,0,0,0,0,
629,17.19,12.51,-62.83,-9.91,29.69,41.33,31.86,2.067,16.25,16.06,43.75,9.297,30.09,24.99,-15.05,1.828,0,0,0,0,0,0,0,0,0,0,0,0,0,0,0,0,
630,15.33,34.79,-19.99,13.87,8.185,21.76,20.74,32.93,-7.186,13.21,28.67,7.676,42.54,24.8,8.928,29.98,0,0,0,0,0,0,0,0,0,0,0,0,0,0,0,0,
631,25.55,34.91,58.27,25.55,-7.502,16.88,40.64,6.268,-20.59,6.803,25.42,0.0341,21.54,-8.002,9.417,22.44,0,0,0,0,0,0,0,0,0,0,0,0,0,0,0,0,
632,24.29,23,34.5,10.88,28.71,40.34,53.92,-54.6,-7.144,13.28,34.93,-0.0169,18.11,-11.68,-1.222,-3.447,0,0,0,0,0,0,0,0,0,0,0,0,0,0,0,0,
633,19.08,31.03,-9.063,1.765,41.04,32.65,15.46,-10.02,3.318,15.09,28.65,-2.664,29.02,6.433,-1.282,-1.526,0,0,0,0,0,0,0,0,0,0,0,0,0,0,0,0,
634,20.39,20.66,10.89,29.03,6.374,5.655,-18.63,77.28,-4.006,7.798,30.56,-8.798,8.37,-5.216,9.973,15.17,0,0,0,0,0,0,0,0,0,0,0,0,0,0,0,0,
635,8.811,-10.5,-2.615,37.37,-10.72,12.75,-0.5328,49.15,-30.17,2.204,35.45,-14.87,-18.7,-27.68,11.82,6.312,0,0,0,0,0,0,0,0,0,0,0,0,0,0,0,0,
636,1.295,-15.64,-47.05,13.26,4.871,37.05,27.46,-1.054,-38.95,3.133,34.09,-10.52,-7.33,-12.92,3.266,-9.299,0,0,0,0,0,0,0,0,0,0,0,0,0,0,0,0,
637,22.7,-3.45,-20.48,32.55,16.51,33.41,21.67,31.83,-15.52,11.59,47.23,-2.54,12.05,8.39,0.6277,-3.088,0,0,0,0,0,0,0,0,0,0,0,0,0,0,0,0,
638,28.97,-6.332,55.42,77.13,10.91,9.814,-0.699,58.52,-6.981,10.88,44.3,-20.51,4.452,-6.172,-5.374,2.048,0,0,0,0,0,0,0,0,0,0,0,0,0,0,0,0,
639,6.238,-12.23,62.75,74.81,21.12,27.13,19.34,41.58,-5.678,4.973,26.87,-35.09,7.585,-5.558,-17.88,-3.017,0,0,0,0,0,0,0,0,0,0,0,0,0,0,0,0,
640,13.73,4.311,-11,54.98,43.79,76.93,75.84,32.34,2.119,18.26,37.97,-18.95,31.63,30.74,-17.13,0.8851,0,0,0,0,0,0,0,0,0,0,0,0,0,0,0,0,
641,29.43,24.51,-23.57,54.63,21.94,57.93,70.12,34.28,-23.68,32.24,36.21,-21.59,37.44,44.12,-10.86,7.722,0,0,0,0,0,0,0,0,0,0,0,0,0,0,0,0,
642,0.1849,24.51,49.64,59.67,-7.816,-9.966,7.153,29.98,-46.09,30.99,6.283,-42.48,36.11,32.4,-12.59,11.19,0,0,0,0,0,0,0,0,0,0,0,0,0,0,0,0,
643,-22.84,22.27,48.42,64.62,20.21,-9.454,-0.1992,23.87,-26.44,33.67,10.08,-33.83,37.07,21.97,-10.53,16.12,0,0,0,0,0,0,0,0,0,0,0,0,0,0,0,0,
644,-7.768,22.8,-15.44,65.98,40.69,30.94,36.41,47.06,-15.44,36.41,34.44,-16.42,13.19,7.249,-6.905,9.713,0,0,0,0,0,0,0,0,0,0,0,0,0,0,0,0,
645,5.543,8.794,4.496,71.09,10,29.22,32.74,82.98,-21.86,26.56,29.34,-19.5,-16.67,-5.325,-14.21,-11.28,0,0,0,0,0,0,0,0,0,0,0,0,0,0,0,0,
646,14.49,-4.539,49.74,81.04,-1.288,27.26,22.4,56.73,-14.44,19.59,24.62,-15.85,-14.69,-3.417,-21.64,-26.35,0,0,0,0,0,0,0,0,0,0,0,0,0,0,0,0,
647,41.18,8.609,34.33,78.43,33.91,67.09,56.54,19.25,7.634,21.89,50.66,9.185,3.112,7.945,-13.78,-22.3,0,0,0,0,0,0,0,0,0,0,0,0,0,0,0,0,
648,64.65,24,28.53,82.05,66.34,87.74,73.07,60.87,25.12,19.83,63.05,18.46,3.797,11.32,2.292,-6.375,0,0,0,0,0,0,0,0,0,0,0,0,0,0,0,0,
649,55.72,17.13,40.7,92.19,65.75,63.51,62.52,83.81,24.9,32.27,57.8,12.92,13.67,25.22,14.38,8.159,0,0,0,0,0,0,0,0,0,0,0,0,0,0,0,0,
650,51.2,37.36,32.94,76.22,53.11,66.7,104.8,32.08,32.07,71.5,84.18,35.96,55.35,70.7,26.4,19.6,0,0,0,0,0,0,0,0,0,0,0,0,0,0,0,0,
651,75.35,79.23,34.74,62.79,58.99,95.1,126.1,36.63,35.28,77.66,92.61,50.41,62.94,71.43,34.61,25.84,0,0,0,0,0,0,0,0,0,0,0,0,0,0,0,0,
652,69.69,56.85,37.8,78.47,76.84,77.35,59.5,104.7,9.867,40.97,52.82,30.35,31.31,11.8,29.47,22.97,0,0,0,0,0,0,0,0,0,0,0,0,0,0,0,0,
653,47.49,23.19,34.38,88.06,80.63,54.87,49.78,93.31,20.41,29.24,55.1,37.78,37.69,3.234,25.68,23.43,0,0,0,0,0,0,0,0,0,0,0,0,0,0,0,0,
654,66.03,51.57,50.34,79.39,69.79,72.63,84.43,23.27,55.14,34.34,78.03,49.08,51.07,34.53,27.08,28.32,0,0,0,0,0,0,0,0,0,0,0,0,0,0,0,0,
655,64.58,50.74,46.79,78.69,60.4,69.5,34.65,33.67,26.12,28.71,43.44,14.12,33.03,30.26,15.12,23.05,0,0,0,0,0,0,0,0,0,0,0,0,0,0,0,0,
656,22.96,10.49,12.8,88.63,45.49,44.3,21.74,89.44,-10.21,33.3,14.39,-8.268,34.85,26.95,-2.026,15.55,0,0,0,0,0,0,0,0,0,0,0,0,0,0,0,0,
657,21.15,17.19,12.61,83.17,36.47,56.96,84.62,86.1,11.61,38.28,28.74,4.983,48.86,37.3,-4.893,16.12,0,0,0,0,0,0,0,0,0,0,0,0,0,0,0,0,
658,46.45,36.31,39.83,69.4,68.72,82.2,77.72,66.59,34.56,44.8,40.37,12.06,46.3,35.46,1.711,16.29,0,0,0,0,0,0,0,0,0,0,0,0,0,0,0,0,
659,39,30.41,37.32,67.99,87.16,63.47,56.75,50.86,22.98,56.08,37.91,-0.3497,41.86,39.1,2.996,10.18,0,0,0,0,0,0,0,0,0,0,0,0,0,0,0,0,
660,14.71,25.25,21.73,52.35,41.82,22.71,80.35,11.82,2.438,38.9,29.43,-22.84,26.06,35.89,-6.697,-2.457,0,0,0,0,0,0,0,0,0,0,0,0,0,0,0,0,
661,7.196,9.56,29.82,35.43,26.9,14.57,52.36,19.95,7.646,20.5,32.11,-24.56,8.191,14.26,-13.95,-15.46,0,0,0,0,0,0,0,0,0,0,0,0,0,0,0,0,
662,24.39,-7.425,29.94,63.86,74.97,44.81,18.11,54.92,30.8,34.12,47.69,-0.8695,15.72,16.57,-5.817,-16.87,0,0,0,0,0,0,0,0,0,0,0,0,0,0,0,0,
663,51.91,7.434,6.511,84.67,93.9,78.52,50.28,32.19,30.32,41.3,53.01,9.588,26.67,35.22,7.196,-6.681,0,0,0,0,0,0,0,0,0,0,0,0,0,0,0,0,
664,55.76,25.09,10.23,59.9,68.54,73.53,59.74,23.06,18.36,29.91,55.34,4.036,24.38,19.89,14.13,3.768,0,0,0,0,0,0,0,0,0,0,0,0,0,0,0,0,
665,32.07,16.02,47.15,63.85,33.84,36.15,24.66,54.23,14.22,21.79,50.91,1.228,31.13,-5.981,17.2,7.028,0,0,0,0,0,0,0,0,0,0,0,0,0,0,0,0,
666,19.18,12.13,75.36,94.9,12.19,24.53,31.28,45.79,1.971,19.91,29.02,-0.7522,48.01,-3.072,17.04,4.206,0,0,0,0,0,0,0,0,0,0,0,0,0,0,0,0,
667,25.16,24.79,81.78,73.48,46.18,40.63,74.24,25.17,9.051,25.24,30.05,2.719,56.23,14.67,15.77,2.01,0,0,0,0,0,0,0,0,0,0,0,0,0,0,0,0,
668,37.33,31.26,68.04,47.77,110.5,67.83,87.95,50.56,50.4,39.73,62.67,19.34,61.67,33.8,21.99,6.76,0,0,0,0,0,0,0,0,0,0,0,0,0,0,0,0,
669,63.5,38.07,45.69,82.27,122.3,115.9,68.02,79.14,64.35,47.41,71.4,27.11,56.77,25.93,29.49,10.82,0,0,0,0,0,0,0,0,0,0,0,0,0,0,0,0,
670,72.12,33.97,26.77,91.54,92.07,117.8,50.39,56.35,37.81,32.46,40.25,4.137,27.54,-3.857,15.98,-3.028,0,0,0,0,0,0,0,0,0,0,0,0,0,0,0,0,
671,44.2,8.005,36.38,64.74,88.39,58.65,55.26,35.58,34.55,23.79,15.1,-17.2,17.06,11.94,-11.45,-24.33,0,0,0,0,0,0,0,0,0,0,0,0,0,0,0,0,
672,31.29,4.091,85.34,88.65,95.53,37.93,56.6,71.83,48.56,30.75,13.08,-14.16,30.68,27.08,-21.72,-26.2,0,0,0,0,0,0,0,0,0,0,0,0,0,0,0,0,
673,30.67,9.581,64.35,84.41,78.63,53.03,32.64,60.54,34.71,12.06,8.328,-9.833,26.11,-8.48,-15.04,-13.82,0,0,0,0,0,0,0,0,0,0,0,0,0,0,0,0,T2
674,24.13,-4.772,-33.09,15.74,78.96,60.11,29.23,-17.04,28.51,0.7613,10.37,10.49,39.37,3.385,-4.12,-1.054,0,0,0,0,0,0,0,0,0,0,0,0,0,0,0,0,
675,48.14,12.55,-2.661,24.46,85.67,70.31,53.84,4.252,38.03,33.15,25.9,44.77,74.2,41.32,12.84,14.09,0,0,0,0,0,0,0,0,0,0,0,0,0,0,0,0,
676,65.91,41.97,94.34,73.6,48.46,61.15,54.92,74.15,17.92,39.62,14.87,36.95,66.34,16.66,23.22,23.88,0,0,0,0,0,0,0,0,0,0,0,0,0,0,0,0,
677,42.29,24.77,49.1,53.26,29.86,52.77,48.48,28.78,1.524,13.9,-10.64,9.275,48.37,0.8344,15.7,22.97,0,0,0,0,0,0,0,0,0,0,0,0,0,0,0,0,
678,38.75,9.259,19.83,46.47,62.8,71.51,41.84,-12.99,10.05,17.46,-8.059,12.22,55.23,11.88,3.38,17.68,0,0,0,0,0,0,0,0,0,0,0,0,0,0,0,0,
679,57.9,14.27,83.21,62.99,69.92,62.46,4.531,39.23,3.61,25.93,2.299,14.09,41.12,2.056,-4.699,5.44,0,0,0,0,0,0,0,0,0,0,0,0,0,0,0,0,
680,46.44,-0.4843,34.26,18.82,34.92,24.78,-10.61,22.73,4.166,8.943,5.876,-4.195,14.59,4.373,-9.327,-12.16,0,0,0,0,0,0,0,0,0,0,0,0,0,0,0,0,
681,13.02,-14.5,-31.18,-25.06,7.176,0.5191,18.12,-58.64,25.8,-3.327,19.75,-13.62,9.044,10.82,-9.624,-23.79,0,0,0,0,0,0,0,0,0,0,0,0,0,0,0,0,
682,-0.4044,-17.82,9.72,-13.79,23.17,-0.7618,14.78,-34.98,26.39,3.019,27.94,-8.778,5.967,2.99,-8.513,-27.3,0,0,0,0,0,0,0,0,0,0,0,0,0,0,0,0,
683,15.49,-42.21,-41.8,-6.519,64.14,23.39,-24.45,31.81,19.22,8.237,24.23,0.5163,0.4136,6.718,-6.274,-23.87,0,0,0,0,0,0,0,0,0,0,0,0,0,0,0,0,
684,27.06,-58.58,-109.8,-5.973,63.49,38.72,-32.6,19.19,36.53,3.051,43.19,18.07,12.77,6.584,6.376,-10.41,0,0,0,0,0,0,0,0,0,0,0,0,0,0,0,0,
685,25.94,-25.25,37.71,28.76,38.62,24.38,-3.073,-0.704,53.9,3.672,77.11,37.46,38.3,0.2993,32.78,10.93,0,0,0,0,0,0,0,0,0,0,0,0,0,0,0,0,
686,35.4,11.49,158.6,50.61,38.05,12.25,14.99,19.22,62.49,15.4,92.08,46.37,58.23,8.157,62.88,33.78,0,0,0,0,0,0,0,0,0,0,0,0,0,0,0,0,
687,45.75,13,44.85,27.26,35.12,28.08,16.93,23.35,87.92,23.53,101.4,52.52,71.89,25.01,85.55,52.87,0,0,0,0,0,0,0,0,0,0,0,0,0,0,0,0,
688,53.68,17.74,-35.13,22.65,47.31,71.78,44.49,-8.097,92.42,22.85,93.42,47.47,79.74,47.46,88.28,59.62,0,0,0,0,0,0,0,0,0,0,0,0,0,0,0,0,
689,64.07,34.1,39.11,29.65,77.41,79.36,67.4,-47.1,31,17.02,44.19,20.55,76.78,51.8,63.89,51.15,0,0,0,0,0,0,0,0,0,0,0,0,0,0,0,0,
690,50.83,30.67,56.66,-9.922,45.92,14.41,31.28,-42.42,-17.19,8.733,11.12,4.905,60.29,20.89,30.69,36,0,0,0,0,0,0,0,0,0,0,0,0,0,0,0,0,
691,19.54,2.499,-8.606,-34.88,-4.331,-26.96,-10.45,-4.461,3.53,-7.522,13.57,3.785,22.06,-11.99,7.315,11.78,0,0,0,0,0,0,0,0,0,0,0,0,0,0,0,0,
692,6.608,-30.75,-11.02,-1.613,12.11,-3.102,-3.928,0.7653,13.24,-25.46,4.331,-6.288,-10.21,-21.95,-8.769,-21.95,0,0,0,0,0,0,0,0,0,0,0,0,0,0,0,0,
693,11.44,-31.88,18.45,23.28,29.26,13.11,-0.0244,-10.13,-10.3,-18.72,-2.28,-7.483,-4.243,-13.42,-15.17,-39.29,0,0,0,0,0,0,0,0,0,0,0,0,0,0,0,0,
694,8.12,-15.31,-7.018,25.15,21.85,9.972,-24.21,-0.8043,2.117,0.2759,4.667,-3.052,-0.9897,-2.703,-9.227,-31.67,0,0,0,0,0,0,0,0,0,0,0,0,0,0,0,0,
695,0.5989,-27.14,-8.427,29.47,49.56,17.32,-12.98,9.242,46.39,1.018,4.565,-7.136,-14.05,-2.865,-0.0817,-21.78,0,0,0,0,0,0,0,0,0,0,0,0,0,0,0,0,
696,15.22,-27.22,56.71,15.73,61.4,25.53,35.87,-0.2914,55.34,-4.384,6.678,-4.969,-2.211,-3.659,8.528,-17.95,0,0,0,0,0,0,0,0,0,0,0,0,0,0,0,0,
697,28.61,0.5542,70.99,-4.489,28.18,26.07,46.09,-32.4,23.26,-5.348,1.609,-7.844,11.97,0.0977,13.8,-17.46,0,0,0,0,0,0,0,0,0,0,0,0,0,0,0,0,
698,13.87,-9.28,24.49,3.183,35.97,25.34,16.74,-44.81,7.929,-11.64,-8.977,-15.29,-0.1567,-5.439,12.91,-22.75,0,0,0,0,0,0,0,0,0,0,0,0,0,0,0,0,
699,4.879,-47.36,13.62,0.9351,54.86,19.31,-19.68,-30.36,18.28,-21.1,1.572,-8.046,-9.315,-19.97,12.41,-28.78,0,0,0,0,0,0,0,0,0,0,0,0,0,0,0,0,
700,1.054,-60.63,10.38,-30.26,11.95,-0.1793,-47.82,-41.42,24.39,-20.54,10.16,-8.042,-6.795,-25.48,13.17,-31.46,0,0,0,0,0,0,0,0,0,0,0,0,0,0,0,0,
701,-22.9,-53.77,-10.91,-18.88,-20.41,-25.21,-22.79,-30.85,22.44,-5.582,-3.074,-26.85,-14.22,-21.62,4.553,-37.87,0,0,0,0,0,0,0,0,0,0,0,0,0,0,0,0,
702,-45.49,-55.06,4.529,27.6,-28.42,-53.42,8.823,36.38,-9.418,3.517,-21.94,-49.43,-34.11,-30.95,-18.1,-53.7,0,0,0,0,0,0,0,0,0,0,0,0,0,0,0,0,
703,-64.23,-63.76,34.88,24.26,-64,-75.74,-8.591,75.77,-52.08,0.5488,-36,-65.33,-42.36,-48.65,-38.94,-68.9,0,0,0,0,0,0,0,0,0,0,0,0,0,0,0,0,
704,-74.9,-43.25,26.99,9.732,-61.72,-51.9,18.2,75.75,-48.51,5.241,-41.08,-65.55,-32.41,-47.23,-40.81,-66.88,0,0,0,0,0,0,0,0,0,0,0,0,0,0,0,0,
705,-56.11,-11.63,-11.29,43.63,-23.9,-7.639,72.68,77.55,-45.25,10.02,-50.85,-63.12,-28.08,-34.81,-33.97,-51.12,0,0,0,0,0,0,0,0,0,0,0,0,0,0,0,0,
706,-44.36,-21.84,-23.52,68.59,-33.68,-16.07,41.07,69.33,-63.11,4.936,-66.9,-66.95,-30.03,-30.73,-32.08,-39.51,0,0,0,0,0,0,0,0,0,0,0,0,0,0,0,0,
707,-58.01,-37.67,17.23,55.49,-51.7,-51.45,-8.91,55.69,-49.11,6.641,-71.73,-67.39,-29.83,-20.04,-33.51,-38.82,0,0,0,0,0,0,0,0,0,0,0,0,0,0,0,0,
708,-69.77,-30.04,7.057,30.8,-58.16,-66.65,-5.339,54.25,-53.17,16.89,-76.53,-68.13,-32.83,3.772,-38.34,-41.6,0,0,0,0,0,0,0,0,0,0,0,0,0,0,0,0,
709,-85.17,-32.53,-85.84,-8.208,-74.55,-68.13,14.18,64.09,-90.38,24.62,-78.82,-61.37,-30.69,8.124,-38,-35.47,0,0,0,0,0,0,0,0,0,0,0,0,0,0,0,0,
710,-82.75,-31.6,-99.21,-40.07,-52.18,-49.38,35.47,65.58,-80.73,34.26,-61.88,-44.27,-25.42,-4.29,-24.21,-19.76,0,0,0,0,0,0,0,0,0,0,0,0,0,0,0,0,
711,-43.37,-13.26,-11.21,-18.42,-37.6,-45.44,36.37,53.44,-46.34,51.75,-42.01,-34.33,-19.69,12.32,-11.27,-6.845,0,0,0,0,0,0,0,0,0,0,0,0,0,0,0,0,
712,-29.25,-1.168,32.08,25.43,-76.57,-74.9,16.69,67.05,-21.86,55.25,-22.49,-16.76,2.766,35.54,-3.181,1.692,0,0,0,0,0,0,0,0,0,0,0,0,0,0,0,0,
713,-37.64,7.133,16.96,26.56,-50.76,-43.91,9.16,93.64,15.65,30.36,-3.138,11.51,21.53,16.71,8.123,10.26,0,0,0,0,0,0,0,0,0,0,0,0,0,0,0,0,
714,-4.667,8.977,15.64,28.14,23.64,26.08,3.803,97.46,34.31,11.61,-2.428,16.87,10.92,-13.88,11.52,11.09,0,0,0,0,0,0,0,0,0,0,0,0,0,0,0,0,
715,20.83,-4.008,38.44,70.11,4.463,6.75,16.6,100.9,22.91,15.2,-1.213,11.41,2.524,-15.34,5.684,4.015,0,0,0,0,0,0,0,0,0,0,0,0,0,0,0,0,
716,-1.263,-2.472,44.08,58.31,-43.8,-34.87,55.29,70.48,11.05,21.67,13.65,20.44,16.4,16.92,8.54,4.687,0,0,0,0,0,0,0,0,0,0,0,0,0,0,0,0,
717,-8.851,20.3,3.258,-6.067,-26.37,-8.182,73.6,2.62,-10.8,29.89,6.261,18.73,20.3,56.21,15.23,12.85,0,0,0,0,0,0,0,0,0,0,0,0,0,0,0,0,
718,-5.499,24.52,-28.01,-3.008,-17.68,-1.796,81.69,18.65,-29.92,32.2,-17.97,-0.8129,6.541,51.42,11.55,13.61,0,0,0,0,0,0,0,0,0,0,0,0,0,0,0,0,
719,-28.64,2.03,-10.73,26.96,-49.9,-37.84,70.02,94.96,-31.87,22.21,-21.63,-11.55,5.288,21.44,5.859,11.35,0,0,0,0,0,0,0,0,0,0,0,0,0,0,0,0,
720,-43.61,-14.6,-1.501,10.77,-71.27,-50.55,-1.217,89.27,-47.86,17.69,-22.21,-15.19,17.3,23.69,5.154,18.89,0,0,0,0,0,0,0,0,0,0,0,0,0,0,0,0,
721,-37.69,-5.746,-0.9156,14.45,-65.63,-42.11,-34.2,47.21,-58.38,23.05,-33.21,-17.71,27.19,38.59,4.415,29.7,0,0,0,0,0,0,0,0,0,0,0,0,0,0,0,0,
722,-27.96,16.65,20.4,41.03,-39.71,-19.27,16.46,68.33,-31.97,32.03,-30.18,-13.05,30.37,33.68,2.237,29.66,0,0,0,0,0,0,0,0,0,0,0,0,0,0,0,0,
723,-11.9,15.86,14.97,26.76,-20.19,-0.8929,21.77,98.95,-10.75,29.08,-20.44,-9.761,19.56,24.23,-2.903,19.48,0,0,0,0,0,0,0,0,0,0,0,0,0,0,0,0,
724,2.841,-0.0539,1.128,-1.433,-18.92,-16.47,-5.982,78.03,-4.252,12.77,-10.66,-0.5179,15.67,28.26,-4.68,17.92,0,0,0,0,0,0,0,0,0,0,0,0,0,0,0,0,
725,7.133,19.15,30.17,-5.024,-13.97,-29.05,26.58,41.69,12.06,18.68,9.463,19.02,30.92,40.54,8.084,32.17,0,0,0,0,0,0,0,0,0,0,0,0,0,0,0,0,
726,-0.3253,34.95,37.54,0.2759,-27.14,-21.12,37.95,42,8.831,38.25,16.05,25.29,30.99,44.35,21.76,37.3,0,0,0,0,0,0,0,0,0,0,0,0,0,0,0,0,
727,-2.478,11.08,10.5,7.885,-55.23,-15.89,12.43,68.13,-8.166,37.13,6.208,25.31,19.97,42.19,18.22,18.5,0,0,0,0,0,0,0,0,0,0,0,0,0,0,0,0,
728,14.14,20.73,9.45,16.08,-38.12,-8.808,40.19,73.7,-0.2857,36.33,2.33,28.89,24.22,43.61,5.801,-3.336,0,0,0,0,0,0,0,0,0,0,0,0,0,0,0,0,
729,17.17,56.86,5.979,10.26,-7.501,4.334,65.14,66.09,0.0445,49.03,-3.912,24.44,36.13,45.17,-1.709,-6.978,0,0,0,0,0,0,0,0,0,0,0,0,0,0,0,0,
730,11.13,56.25,-3.382,5.694,-19.01,17.62,49.83,72.67,-21.93,52.51,-12.57,22.8,50.73,43.79,-2.285,3.069,0,0,0,0,0,0,0,0,0,0,0,0,0,0,0,0,
731,18.87,57.44,8.403,20.08,-31.26,12.9,61.89,80.54,-22.98,47.37,-19.38,17.59,60.28,46.99,-1.478,8.768,0,0,0,0,0,0,0,0,0,0,0,0,0,0,0,0,
732,11.79,74.82,7.618,22.91,-21.58,-2.715,88.71,83.83,-4.693,57.21,-22.1,12.03,70.05,69.43,0.8281,11.09,0,0,0,0,0,0,0,0,0,0,0,0,0,0,0,0,
733,15.61,79.94,12.22,3.057,-18.85,14.9,100.2,68.31,6.263,71.2,-2.97,37.07,83.27,74.28,11.29,19.45,0,0,0,0,0,0,0,0,0,0,0,0,0,0,0,0,
734,45.21,75.49,13.02,0.2036,-23.11,37.85,91.17,36.9,12.58,50.61,16.46,54.03,66.46,30.45,22.42,20.8,0,0,0,0,0,0,0,0,0,0,0,0,0,0,0,0,
735,45.24,51.24,-36.1,27.98,-13.37,39.79,47.96,58.95,18.77,24.1,16.06,40.07,44.7,16.21,26.33,17.58,0,0,0,0,0,0,0,0,0,0,0,0,0,0,0,0,
736,43.37,28.03,-37.3,46.6,9.632,56.62,20.21,104.9,19.52,29.22,12.59,40.52,46.91,36.72,25.7,23.71,0,0,0,0,0,0,0,0,0,0,0,0,0,0,0,0,
737,52.36,26.83,25.4,26.13,11.84,48.79,34,80.57,17.4,26,-5.364,35.99,27.95,12.34,14.11,17.18,0,0,0,0,0,0,0,0,0,0,0,0,0,0,0,0,
738,22.92,17.59,20.69,9.295,-23.58,1.018,40.52,49.28,9.539,20.03,-28.95,4.643,9.805,1.161,-4.713,-4.497,0,0,0,0,0,0,0,0,0,0,0,0,0,0,0,0,
739,-3.459,10.99,0.3881,31.29,-62.83,-19.67,30.84,66.64,-20.27,36.39,-30.29,-13.53,23.98,29.51,-15.01,-12.24,0,0,0,0,0,0,0,0,0,0,0,0,0,0,0,0,
740,-6.625,14.19,34.88,38.51,-64.34,-20.58,27.17,65.9,-41.83,31.91,-30.91,-12.71,24.97,20.01,-18.41,-12.04,0,0,0,0,0,0,0,0,0,0,0,0,0,0,0,0,
741,-15.35,3.9,2.974,9.941,-37.54,-21.14,37.73,45.58,-17.45,16.56,-33.17,-3.699,21.56,8.964,-17.21,-14.48,0,0,0,0,0,0,0,0,0,0,0,0,0,0,0,0,
742,-12.76,-0.5733,-99.08,-18.82,-42.44,-20.12,45.98,30.33,-2.906,15.61,-24.98,7.469,26.13,20.26,-11.83,-12.97,0,0,0,0,0,0,0,0,0,0,0,0,0,0,0,0,
743,-17.9,-4.825,-125.3,-43.31,-70.59,-31.8,29.54,7.298,-28.35,4.013,-23.7,5.887,16.48,9.466,-10.64,-13.87,0,0,0,0,0,0,0,0,0,0,0,0,0,0,0,0,
744,-25.5,-18.33,-69.7,-29.08,-58.54,-23.52,25.52,4.713,-33.34,5.141,-18.83,8.814,27.26,12.35,-7.447,-11.91,0,0,0,0,0,0,0,0,0,0,0,0,0,0,0,0,
745,0.4306,-0.0058,-22.71,23.64,-35.45,-8.328,48.04,25.83,-12.28,22.5,-4.441,26.96,55.3,27.57,3.671,1.41,0,0,0,0,0,0,0,0,0,0,0,0,0,0,0,0,
746,11.18,22.47,-15.65,6.398,-22.9,-15.67,36.95,28.01,-0.4528,17.88,-4.416,33.88,51.98,14.05,12.24,10.27,0,0,0,0,0,0,0,0,0,0,0,0,0,0,0,0,
747,-8.092,-4.877,-41.11,-64.45,-8.223,-11.01,-5.923,16.84,-3.624,11.21,-10.14,21,33.94,3.655,15.77,9.572,0,0,0,0,0,0,0,0,0,0,0,0,0,0,0,0,
748,-27.22,-36.13,-50.2,-49.69,-51.99,-40.9,-32.85,31.27,-21.78,5.378,-11.51,4.083,20.63,-0.9467,16.27,7.002,0,0,0,0,0,0,0,0,0,0,0,0,0,0,0,0,
749,-50.43,-35.68,-18.54,19.15,-102.4,-97.97,-48.35,56.42,-30.14,-16.01,-25.35,-7.322,6.396,-13.36,10.01,-0.4345,0,0,0,0,0,0,0,0,0,0,0,0,0,0,0,0,
750,-48.21,-39.77,-12.52,27.82,-59.75,-67.26,-49.02,37.22,-17.07,-15.57,-33.17,-8.706,7.979,-2.109,3.527,-7.098,0,0,0,0,0,0,0,0,0,0,0,0,0,0,0,0,
751,-29.88,-44.47,-27.09,4.168,-29.35,-27.17,-25.22,0.2333,-6.874,5.35,-7.717,3.952,21.23,14.39,7.592,-2.616,0,0,0,0,0,0,0,0,0,0,0,0,0,0,0,0,
752,-43.22,-31.57,-27.57,-6.726,-52.34,-59.31,-15.01,0.1895,-4.74,0.9149,5.14,13.23,16.31,-2.725,12.9,1.526,0,0,0,0,0,0,0,0,0,0,0,0,0,0,0,0,
753,-48.42,-35.64,-65.87,-26.73,-31.58,-50.89,-10.71,-1.761,-13.71,-17.55,-23.76,4.917,1.622,-24.66,4.861,-5.318,0,0,0,0,0,0,0,0,0,0,0,0,0,0,0,0,
754,-29.36,-46.68,-68.81,-39.17,-17.07,-20.08,21.98,-5.557,-22.62,-16.47,-30.64,4.455,3.305,-16.37,-3.828,-8.986,0,0,0,0,0,0,0,0,0,0,0,0,0,0,0,0,
755,-34.39,-33.93,4.509,-33.94,-46.82,-51.37,8.903,25.32,-8.248,-4.78,-7.446,10.47,8.302,5.786,1.801,-0.6078,0,0,0,0,0,0,0,0,0,0,0,0,0,0,0,0,
756,-53.49,-40.11,-10.75,-34.86,-44.92,-62.01,-58.42,25.42,-2.115,0.0151,-12.52,-4.144,3.205,13.32,7.173,6.764,0,0,0,0,0,0,0,0,0,0,0,0,0,0,0,0,
757,-55.51,-62.48,-51.8,-22.88,-32.57,-29.38,-43.93,-5.499,-22.44,-1.467,-30.61,-17.21,-2.261,4.049,-0.0047,2.045,0,0,0,0,0,0,0,0,0,0,0,0,0,0,0,0,
758,-45.41,-58.81,10.21,-10.46,-35.05,-33.22,10.6,18.91,-28.72,-11.08,-36.95,-15.2,-9.83,-6.45,-9.022,-9.247,0,0,0,0,0,0,0,0,0,0,0,0,0,0,0,0,
759,-36.68,-64.21,-16.19,-31.07,-13.45,-52.84,-23.42,46.77,-14.92,-21.38,-39.85,-15.62,-14.67,-9.937,-7.961,-10.87,0,0,0,0,0,0,0,0,0,0,0,0,0,0,0,0,
760,-39.97,-81.37,-125.4,-37.42,-15.55,-47.91,-56.96,10.03,-11.07,-20.56,-26.74,-12.3,-20.93,-19.59,1.076,-3.489,0,0,0,0,0,0,0,0,0,0,0,0,0,0,0,0,
761,-51.64,-76.32,-70.18,-18.58,-63.81,-49.75,-37.02,-15.96,-19.07,-24.59,-13.03,-6.882,-46.52,-39.71,5.468,-8.23,0,0,0,0,0,0,0,0,0,0,0,0,0,0,0,0,
762,-58.45,-75.34,51.99,-17.76,-77.46,-62.76,-41.23,7.115,-20.22,-31.11,-17.28,-8.357,-57.38,-42.65,2.52,-19.77,0,0,0,0,0,0,0,0,0,0,0,0,0,0,0,0,
763,-53.05,-73.97,36.16,-14.96,-51.76,-51.5,-40.85,16.02,-11.92,-15.94,-15.03,-5.363,-35.36,-26.67,2.359,-14.51,0,0,0,0,0,0,0,0,0,0,0,0,0,0,0,0,
764,-34.06,-53.13,-32.21,-4.55,-32.39,-22.38,-24.1,3.585,-7.97,-5.056,-4.371,2.137,-24.61,-24.87,7.983,0.2999,0,0,0,0,0,0,0,0,0,0,0,0,0,0,0,0,
765,-22.54,-51.16,-39.06,-17.53,-22.03,-27.07,-42.95,12.95,-14.74,-21.01,-5.425,-0.7767,-27.24,-33.46,12.8,6.457,0,0,0,0,0,0,0,0,0,0,0,0,0,0,0,0,
766,-43.85,-66.29,-32.14,-34.72,-40.09,-67.36,-48.98,21.12,-24.11,-29.75,-20.37,-17.63,-25.33,-29.62,5.728,1.421,0,0,0,0,0,0,0,0,0,0,0,0,0,0,0,0,
767,-72,-62,-45.65,-34.32,-70.73,-78.93,-20.55,-2.729,-24.65,-21.87,-34.69,-30.01,-30.77,-21.31,-13.47,-10.3,0,0,0,0,0,0,0,0,0,0,0,0,0,0,0,0,
768,-73.88,-53.02,-41.08,-35.95,-64.03,-61.9,-17.45,-18.66,-24.88,-18.2,-36.78,-29.6,-34.39,-20.51,-24.22,-17.31,0,0,0,0,0,0,0,0,0,0,0,0,0,0,0,0,
769,-68.69,-59.88,-44.6,-52.68,-35.82,-53.05,-32.98,1.806,-31.21,-13.1,-36.23,-34.66,-31.43,-21.84,-19.77,-14.78,0,0,0,0,0,0,0,0,0,0,0,0,0,0,0,0,
770,-59.84,-67.73,-86.77,-65.1,-10.24,-22.24,-31.65,25.1,-24.56,-10.31,-32.37,-40.47,-33.9,-14.6,-16.58,-13.42,0,0,0,0,0,0,0,0,0,0,0,0,0,0,0,0,
771,-42.61,-64.23,-85.19,-60.19,-16.91,-9.877,-26.79,12.05,-17.23,-20.71,-21.86,-32.42,-26.13,1.668,-16.78,-14.62,0,0,0,0,0,0,0,0,0,0,0,0,0,0,0,0,
772,-51.85,-54.31,-13.89,-49.88,-67.9,-70.19,-40.3,-19.48,-22.46,-16.42,-18.59,-18.03,-1.106,7.76,-8.696,-5.357,0,0,0,0,0,0,0,0,0,0,0,0,0,0,0,0,
773,-63.11,-44.15,21.89,-34.05,-69.03,-87.97,-56.64,-15.39,-15.13,-0.0228,-15.13,-1.62,11.17,-11.62,6.114,14.16,0,0,0,0,0,0,0,0,0,0,0,0,0,0,0,0,
774,-43.06,-45.75,-21.12,-24.76,-24.99,-49.11,-40.23,1.857,-18.96,-13.74,-13.02,1.087,-1.158,-33.08,15.12,25.76,0,0,0,0,0,0,0,0,0,0,0,0,0,0,0,0,
775,-47.28,-57.12,-57.35,-42.5,-50.71,-73.66,-14.62,-15.36,-40.96,-29.91,-23.22,-12.96,-9.364,-25.78,14.38,22.65,0,0,0,0,0,0,0,0,0,0,0,0,0,0,0,0,
776,-64.2,-54.18,-33.34,-58.17,-89.17,-83.26,-33.26,-16.52,-26.73,-17.69,-22.05,-12.58,-5.635,-13.42,11.16,14.67,0,0,0,0,0,0,0,0,0,0,0,0,0,0,0,0,
777,-44.76,-52.69,-25.01,-58.18,-75.44,-30.81,-61.47,6.371,-9.535,-18.06,-17.15,-6.474,-10.2,-22.88,8.66,6.928,0,0,0,0,0,0,0,0,0,0,0,0,0,0,0,0,
778,-40.16,-65.56,-59.54,-55.08,-70.77,-37.85,-36.56,-12.44,-26.05,-19.6,-27.56,-13.06,-3.546,-16.15,7.088,4.706,0,0,0,0,0,0,0,0,0,0,0,0,0,0,0,0,
779,-45.81,-43.33,-44.33,-25.03,-46.88,-49.19,5.358,-26.62,-19.06,8.854,-20.02,-7.488,28.29,18.47,11.39,16.22,0,0,0,0,0,0,0,0,0,0,0,0,0,0,0,0,
780,-19.22,-2.216,8.609,9.362,1.298,-0.4128,4.357,11.74,0.4737,16.27,-0.1275,4.526,37.82,25.47,20.63,32.53,0,0,0,0,0,0,0,0,0,0,0,0,0,0,0,0,
781,-19.36,-14,28.78,6.309,-11.37,-6.188,-20.32,32.74,-9.439,-2.359,-4.813,0.3,15,1.362,25.13,36.27,0,0,0,0,0,0,0,0,0,0,0,0,0,0,0,0,
782,-42.28,-42.4,50.06,13.06,-31.02,-40.1,-32.72,15.8,-13.8,0.8004,-11.38,-2.674,4.125,-8.219,20.5,27.8,0,0,0,0,0,0,0,0,0,0,0,0,0,0,0,0,
783,-27.66,-36.1,59.79,31.1,-1.533,-15.63,-25.4,-14.54,-7.958,1.963,-1.389,2.18,6.115,-1.314,14.81,22.36,0,0,0,0,0,0,0,0,0,0,0,0,0,0,0,0,
784,-21.66,-34.1,22.15,-1.482,-2.04,-7.274,-6.602,-52.45,-7.392,-8.721,2.753,2.32,5.423,12.74,17.44,27.35,0,0,0,0,0,0,0,0,0,0,0,0,0,0,0,0,
785,-43.2,-45.83,-1.985,-25.76,-27.98,-30.95,-12.86,-36.67,4.455,-1.444,-5.028,-1.187,7.963,22.08,22.04,31.66,0,0,0,0,0,0,0,0,0,0,0,0,0,0,0,0,
786,-45.78,-42.03,-30.83,15.01,-35.96,-24.54,-25.77,26.07,-6.584,-3.59,-21.18,-14.75,-0.6812,0.2177,13.19,20.61,0,0,0,0,0,0,0,0,0,0,0,0,0,0,0,0,
787,-48.71,-30.39,-102.7,28,-64.81,-14.7,17.85,19.58,-51.21,-15.98,-40.05,-34.91,-17.16,-11.4,-7.413,-1.119,0,0,0,0,0,0,0,0,0,0,0,0,0,0,0,0,
788,-55.85,-16.77,-96.41,-6.889,-71.32,-24.47,46.11,-36.13,-46.81,5.319,-38.03,-28.68,-6.58,23.92,-16.98,-10.83,0,0,0,0,0,0,0,0,0,0,0,0,0,0,0,0,
789,-31.12,-4.381,2.144,1.723,-18.33,-27.37,-11.13,-31.32,-3.866,24.91,-20.65,1.52,11.11,34.39,-2.607,0.2919,0,0,0,0,0,0,0,0,0,0,0,0,0,0,0,0,
790,-6.8,-10.25,31.99,32.08,-11.86,-26.02,-43.86,5.23,-14.22,9.156,-21.84,16.13,-2.905,1.846,17.8,14.14,0,0,0,0,0,0,0,0,0,0,0,0,0,0,0,0,
791,-15.8,-22.72,-3.277,21.87,-50.65,-35.33,-20.28,5.926,-40.52,-3.037,-31.55,12.63,-23.22,-12.6,23.4,18.1,0,0,0,0,0,0,0,0,0,0,0,0,0,0,0,0,
792,-30.44,-24.56,4.132,4.061,-39.28,-39.7,-20.53,-7.494,-28.07,-5.08,-27.6,9.944,-18.09,-11.63,18.8,19.12,0,0,0,0,0,0,0,0,0,0,0,0,0,0,0,0,
793,-24.26,-13.2,30.86,7.992,-16.13,-8.346,-1.76,-0.8466,-19.8,-6.256,-26.34,10.26,-0.5018,-2.616,16.14,20.72,0,0,0,0,0,0,0,0,0,0,0,0,0,0,0,0,
794,2.19,6.726,33.66,19.13,-10.89,33.53,38.57,17.69,-16.14,-2.967,-34.79,9.273,1.779,5.472,14.56,18.35,0,0,0,0,0,0,0,0,0,0,0,0,0,0,0,0,
795,12.42,4.948,16.23,20.46,-3.6,21.25,12.72,19.8,-6.525,-9.737,-38.84,1.802,-9.283,-15.71,11.56,12.83,0,0,0,0,0,0,0,0,0,0,0,0,0,0,0,0,
796,-10.84,-11.58,-8.779,19.06,-28.96,-18.36,-14.79,11.61,-16.33,-10.69,-30.97,-3.553,-8.908,-19.46,11.69,9.254,0,0,0,0,0,0,0,0,0,0,0,0,0,0,0,0,
797,-23.15,-11.09,4.008,43.19,-44.83,-17.98,8.502,25.96,-13.52,-5.314,-19.36,-2.262,-15.16,-7.674,11.77,4.559,0,0,0,0,0,0,0,0,0,0,0,0,0,0,0,0,
798,-19.15,-23.79,53.66,65.15,-8.072,-6.662,-1.926,38.29,4.088,-19.62,-22.53,-7.252,-36.7,-32.25,4.932,-6.13,0,0,0,0,0,0,0,0,0,0,0,0,0,0,0,0,
799,-26.39,-39.05,65.51,38.4,-5.856,-16.22,-13.13,0.3905,-12.84,-16.19,-28.02,-6.578,-28.33,-26.07,1.567,-12.99,0,0,0,0,0,0,0,0,0,0,0,0,0,0,0,0,
800,-25.34,-15.03,5.609,-5.34,-32.35,-2.374,39.88,-61.13,-33.08,1.697,-17.68,5.609,-7.942,14.67,9.578,-8.502,0,0,0,0,0,0,0,0,0,0,0,0,0,0,0,0,
801,-11.2,-4.332,-55.84,-14.46,-4.367,36.25,66.57,-69.14,-19.03,-8.352,-10.17,11,-11.24,5.694,19.16,1.762,0,0,0,0,0,0,0,0,0,0,0,0,0,0,0,0,
802,0.2399,-21.35,-18.34,23.49,11.07,30.37,19.29,-0.1632,7.457,-0.1401,6.83,28.05,0.1172,-5.234,32.28,18.2,0,0,0,0,0,0,0,0,0,0,0,0,0,0,0,0,
803,15.9,-15.15,77.64,79.39,-25.67,-11.27,-22.64,74.76,41.73,28.27,60.83,68.14,29.95,21.88,61.63,42.51,0,0,0,0,0,0,0,0,0,0,0,0,0,0,0,0,
804,35.99,9.383,114.8,98.85,-4.024,2.204,4.038,89.45,66.31,30.45,102.1,90.01,50.56,41.11,98.48,68.71,0,0,0,0,0,0,0,0,0,0,0,0,0,0,0,0,
805,51.34,43.48,94.32,72.37,54.15,38.67,59.9,56.4,38.66,33.06,70.88,67.13,55.57,45.31,109.2,82.71,0,0,0,0,0,0,0,0,0,0,0,0,0,0,0,0,
806,35.97,56.41,44.04,46.08,12.38,-0.1181,44.53,18.75,-15.9,29.12,0.24,20.31,27.31,29.36,70.31,64.19,0,0,0,0,0,0,0,0,0,0,0,0,0,0,0,0,
807,-17.94,13.78,-11.52,47.49,-66.97,-47.15,-13.99,7.665,-38.52,4.184,-44.33,-19.74,-12.5,1.142,5.106,18.68,0,0,0,0,0,0,0,0,0,0,0,0,0,0,0,0,
808,-59.64,-25.25,-14.42,35.69,-71.55,-43.1,-15.32,-7.504,-50.33,-8.056,-65.26,-53.52,-35.28,-16.09,-46.6,-24.33,0,0,0,0,0,0,0,0,0,0,0,0,0,0,0,0,
809,-73.68,-39.93,-13.96,-10.71,-62.34,-66.55,-17.9,-52.19,-79.7,-22.84,-79.91,-74.15,-49.46,-28.9,-69.11,-45.47,0,0,0,0,0,0,0,0,0,0,0,0,0,0,0,0,
810,-77.6,-53.34,-32.08,-23.69,-63.08,-91.76,-50.56,-44.16,-71.42,-24.59,-61.14,-48.73,-32.69,-13.28,-52.26,-31.38,0,0,0,0,0,0,0,0,0,0,0,0,0,0,0,0,
811,-58.18,-29.79,-5.242,-4.992,-43.28,-56.08,-18.62,6.943,-29.64,12.54,-27.59,-17.42,-4.469,19.38,-11.04,2.467,0,0,0,0,0,0,0,0,0,0,0,0,0,0,0,0,
812,-37.92,-0.8558,-15.85,-10.58,-49.45,-26.64,19.58,-11.7,-37.61,15.51,-20.92,-31.41,-16.53,11.72,6.949,10.7,0,0,0,0,0,0,0,0,0,0,0,0,0,0,0,0,
813,-35.89,-13.74,-69.23,17.63,-55.91,-23.01,-15.8,-34.31,-61.5,-13.44,-10.05,-31.81,-25.36,-0.6516,0.0911,-3.749,0,0,0,0,0,0,0,0,0,0,0,0,0,0,0,0,
814,-21.18,-17.66,-10.92,74.32,-20.2,-12.86,-28.11,12.75,-25.33,-6.092,11.63,5.071,-10.66,7.049,4.226,-4.885,0,0,0,0,0,0,0,0,0,0,0,0,0,0,0,0,
815,-2.631,-10.06,77.57,62.54,-6.769,-12.52,-0.4472,32.09,14.92,-1.546,5.856,14.5,-18.41,-7.28,13.67,1.33,0,0,0,0,0,0,0,0,0,0,0,0,0,0,0,0,
816,-2.761,-21.01,51.52,27.48,-18.41,-11.93,-10.41,0.9993,1.194,-12.86,-8.072,-3.833,-19.73,-6.994,7.202,0.0494,0,0,0,0,0,0,0,0,0,0,0,0,0,0,0,0,
817,-12.15,-11.51,-2.445,29.72,-17.79,-7.047,-18.02,-23.01,-24.18,9.32,-8.186,-7.111,15.78,33.31,-6.034,2.518,0,0,0,0,0,0,0,0,0,0,0,0,0,0,0,0,
818,-16.41,23.57,-10.89,40.64,-15.8,-6.963,17.34,-24.34,-31.98,31.5,-10.99,0.5522,35.26,41.13,-12.26,11,0,0,0,0,0,0,0,0,0,0,0,0,0,0,0,0,
819,1.986,31.66,11.71,54.73,-1.736,8.817,35.23,9.524,-37.14,16.93,-15.96,-0.2088,16.02,12.28,-13.57,11.14,0,0,0,0,0,0,0,0,0,0,0,0,0,0,0,0,
820,15.15,3.722,39.03,51.17,-2.522,11.93,13.86,34.65,-30.28,4.464,-15.61,-7.181,2.897,11.62,-13.46,0.4337,0,0,0,0,0,0,0,0,0,0,0,0,0,0,0,0,
821,-11.97,-10.98,23.8,32.61,-29.22,-14.69,7.461,1.726,-10.45,13.38,-15.52,-7.161,12.55,23.55,-8.702,-5.343,0,0,0,0,0,0,0,0,0,0,0,0,0,0,0,0,
822,-31.42,9.839,8.081,47.28,-17.46,-17.93,22.71,-23.23,-15.57,20.22,-20.17,-3.04,11.92,10.59,-1.932,1.246,0,0,0,0,0,0,0,0,0,0,0,0,0,0,0,0,
823,-14.34,19.93,34.15,60.1,-6.384,2.039,5.663,10.73,-36.06,14.18,-20.28,-1.83,-3.035,-0.139,-0.6542,6.907,0,0,0,0,0,0,0,0,0,0,0,0,0,0,0,0,
824,0.3961,2.677,28.58,37.07,-38.46,11.06,-19.13,25.87,-25.34,6.669,-4.434,8.699,-4.116,6.456,-1.159,4.337,0,0,0,0,0,0,0,0,0,0,0,0,0,0,0,0,
825,7.904,3.438,-5.563,21.96,-30.24,16.78,6.867,-32.04,-2.176,6.411,10.03,25.37,2.678,13.64,3.284,3.469,0,0,0,0,0,0,0,0,0,0,0,0,0,0,0,0,
826,19.96,17.71,-5.967,26.69,0.8398,13.12,20.41,-61.22,-0.3923,6.472,5.819,23.94,-2.365,19.96,7.813,7.964,0,0,0,0,0,0,0,0,0,0,0,0,0,0,0,0,
827,19.07,7.045,10.41,35.75,-12.41,-8.605,-8.275,6.719,-2.56,8.435,4.591,11.82,-2.93,29.54,8.18,11.64,0,0,0,0,0,0,0,0,0,0,0,0,0,0,0,0,
828,9.803,-2.089,43.91,44.18,-5.834,-9.339,13.44,57.53,0.9532,20.94,16.67,12,12.03,41.06,10.02,15.35,0,0,0,0,0,0,0,0,0,0,0,0,0,0,0,0,
829,14.99,7.366,66.81,39.99,33.95,27.03,50.96,21.23,-2.091,15.88,10.41,4.082,1.449,30.59,9.683,13.64,0,0,0,0,0,0,0,0,0,0,0,0,0,0,0,0,
830,19.64,-12.95,13.49,23.53,33.44,38.13,7.191,-29.95,-0.9841,-17.12,-11.63,-20.03,-42.18,-5.865,-2.125,-5.496,0,0,0,0,0,0,0,0,0,0,0,0,0,0,0,0,
831,9.777,-48.95,-32.37,12.35,2.789,-4.116,-40.9,-40.75,16.44,-20.8,-0.9947,-11.44,-45.42,-6.091,-7.273,-20.21,0,0,0,0,0,0,0,0,0,0,0,0,0,0,0,0,
832,10.44,-38.58,8.567,21.75,-12.83,-32.81,-27.26,-16,20.97,8.092,25.35,20.7,-5.399,26.08,9.439,-4.024,0,0,0,0,0,0,0,0,0,0,0,0,0,0,0,0,
833,16.62,-11.57,45.93,42.72,-10.53,-18.58,-9.924,-1.947,-1.563,11.39,14.67,15.47,2.11,18.29,20.22,15.64,0,0,0,0,0,0,0,0,0,0,0,0,0,0,0,0,
834,-1.173,-11.05,28.23,45.48,-9.571,-5.511,-9.315,-19.88,-13.52,0.243,-6.284,-4.969,-12.07,-0.7344,9.744,11.78,0,0,0,0,0,0,0,0,0,0,0,0,0,0,0,0,
835,-21.83,-13.15,-1.075,22.18,-23.26,-11.97,-3.088,-37.15,-10.69,-0.2238,-3.702,-1.053,-8.486,12.65,2.401,5.765,0,0,0,0,0,0,0,0,0,0,0,0,0,0,0,0,
836,-15.58,-8.843,-4.301,0.7671,-21.52,-19.98,13.17,-42,-7.916,-1.298,4.851,7.505,-6.822,19.37,7.024,11.55,0,0,0,0,0,0,0,0,0,0,0,0,0,0,0,0,
837,0.3988,-12.77,16.5,7.096,-3.947,-23.03,5.872,-5.287,10.15,6.267,8.921,9.277,-11.97,13.69,8.348,13.27,0,0,0,0,0,0,0,0,0,0,0,0,0,0,0,0,
838,-5.299,-30.26,6.62,17.78,-21.01,-39.21,-42.48,46.13,16.13,10.83,3.496,5.33,-15.9,21.56,0.6531,3.675,0,0,0,0,0,0,0,0,0,0,0,0,0,0,0,0,
839,-19.99,-42.43,-22.56,7.846,-37.09,-53.52,-53.2,2.784,-2.635,-2.468,-0.4599,0.3704,-21.64,29.08,-5.513,-4.945,0,0,0,0,0,0,0,0,0,0,0,0,0,0,0,0,
840,-7.323,-21.5,-11.63,12.93,-14.17,-29.54,-18.52,-50.01,-1.227,-5.931,9.99,3.662,-27.74,13.59,-1.823,-4.907,0,0,0,0,0,0,0,0,0,0,0,0,0,0,0,0,
841,3.734,0.4392,10.6,35.64,-13.76,-12.28,-14.47,-1.454,2.199,-1.883,4.596,2.97,-38.89,-15.24,2.133,-6.801,0,0,0,0,0,0,0,0,0,0,0,0,0,0,0,0,
842,-9.902,-6.604,25.48,31.82,-25.5,-29.71,1.684,15.94,-8.383,-7.47,-10.56,1.331,-46.13,-28.26,-0.9222,-17.32,0,0,0,0,0,0,0,0,0,0,0,0,0,0,0,0,
843,2.607,-12.52,31.14,28.85,-8.637,-23.59,30.74,-14.69,2.97,-13.22,4.941,11.59,-35,-23.98,-1.403,-23.86,0,0,0,0,0,0,0,0,0,0,0,0,0,0,0,0,
844,22.11,-12.08,7.382,54.04,-10.03,-3.752,7.312,8.058,8.087,-12.26,25.34,21.5,-10.35,-4.656,5.471,-13.63,0,0,0,0,0,0,0,0,0,0,0,0,0,0,0,0,
845,5.333,-7.014,6.988,59.12,-14.36,-2.127,1.058,10.41,-5.484,4.816,20.64,29.73,13.36,28.81,13.02,8.148,0,0,0,0,0,0,0,0,0,0,0,0,0,0,0,0,
846,6.297,5.021,30.29,34.67,5.917,4.21,22.02,-23.19,9.755,17.8,14.15,33.79,9.884,27.64,12.6,22.05,0,0,0,0,0,0,0,0,0,0,0,0,0,0,0,0,
847,26.17,-4.191,24.74,19.76,6.868,6.972,14.76,-27.6,33.84,2.655,17.39,22.95,-14.63,-1.675,2.109,18.6,0,0,0,0,0,0,0,0,0,0,0,0,0,0,0,0,
848,22.54,-12.87,26.42,26.72,20.98,21.21,24.66,-33.67,26.49,-3.058,13.26,13.1,-22,4.004,-8.463,8.214,0,0,0,0,0,0,0,0,0,0,0,0,0,0,0,0,
849,30.46,4.126,41.59,53.86,45.66,49.98,17.33,-14.57,6.056,4.742,-0.8419,11.68,-19.25,7.887,-11.13,0.4723,0,0,0,0,0,0,0,0,0,0,0,0,0,0,0,0,
850,40.7,8.853,61.21,72.27,2.592,26.14,-18.08,32.98,-2.659,-4.95,-3.365,6.71,-20.7,-11.82,-8.483,-1.788,0,0,0,0,0,0,0,0,0,0,0,0,0,0,0,0,
851,10.63,1.096,75.1,38.07,-24.65,-2.361,8.956,16.68,-3.803,-7.914,1.696,-1.531,-17.82,2.427,-7.479,0.4244,0,0,0,0,0,0,0,0,0,0,0,0,0,0,0,0,
852,-14.36,-8.026,17.32,-8.189,24,30.3,13.99,-24.91,-15.61,-1.923,-10.21,-7.021,-19.99,17.06,-13.59,0.5528,0,0,0,0,0,0,0,0,0,0,0,0,0,0,0,0,
853,-5.761,-25.08,-22.59,5.384,11.88,25.47,-38.07,-31.42,-28.06,-7.111,-24.11,-7.042,-20.36,-3.842,-20.95,0.2858,0,0,0,0,0,0,0,0,0,0,0,0,0,0,0,0,
854,-5.17,-19.54,20.71,29.38,-64.69,-37.45,-22.94,-36.32,-25.34,-8.228,-27.74,-12.56,-17.89,-13.33,-21.83,2.214,0,0,0,0,0,0,0,0,0,0,0,0,0,0,0,0,
855,-28.63,-15.68,3.147,-5.108,-74.16,-69.12,-22.61,-28.24,-29.86,-18.44,-37.72,-29.59,-43.17,-18.62,-22.81,-4.524,0,0,0,0,0,0,0,0,0,0,0,0,0,0,0,0,
