%OpenBCI Raw EXG Data
%Number of channels = 16
%Sample Rate = 125 Hz
%Board = OpenBCI_GUI$BoardCytonSerialDaisy
Sample Index,EXG Channel 0,EXG Channel 1,EXG Channel 2,EXG Channel 3,EXG Channel 4,EXG Channel 5,EXG Channel 6,EXG Channel 7,EXG Channel 8,EXG Channel 9,EXG Channel 10,EXG Channel 11,EXG Channel 12,EXG Channel 13,EXG Channel 14,EXG Channel 15,Accel Channel 0,Accel Channel 1,Accel Channel 2,Other,Other,Other,Other,Other,Other,Other,Analog Channel 0,Analog Channel 1,Analog Channel 2,Timestamp,Other,Timestamp (Formatted),Annotations
1,0,-0,0,0,-0,-0,0,0,-0,-0,0,0,-0,0,-0,0,0,0,0,0,0,0,0,0,0,0,0,0,0,0,0,0,T0
2,24.06,-22.87,16.84,11.34,19.55,26.66,-8.295,-31.16,15.54,-14.11,1.228,18.98,-22.69,-22.51,4.913,-4.751,0,0,0,0,0,0,0,0,0,0,0,0,0,0,0,0,
3,25.23,-32.07,17.19,22.11,37.68,34.14,9.321,-33.11,25.27,-26.88,-6.606,11.42,-20.14,-21.89,3.535,-14.45,0,0,0,0,0,0,0,0,0,0,0,0,0,0,0,0,
4,0.9646,-15.24,3.557,7.265,32.82,5.753,-1.31,-38.81,7.886,-30.39,-11.64,-14.09,-26.23,-22.27,-6.811,-25,0,0,0,0,0,0,0,0,0,0,0,0,0,0,0,0,
5,-16.38,-36.96,-7.021,-14.75,7.235,-6.246,-25.64,-49.03,-4.909,-24.5,-13.2,-24.41,-42.96,-33.39,-18.43,-31.15,0,0,0,0,0,0,0,0,0,0,0,0,0,0,0,0,
6,-7.863,-68.2,-8.042,-7.783,0.1541,14.85,-6.882,-49.47,4.902,-29.62,-22.91,-28.3,-49.54,-43.69,-29.23,-37.27,0,0,0,0,0,0,0,0,0,0,0,0,0,0,0,0,
7,-9.49,-48.04,-12.94,-1.123,10.11,6.645,0.13,-58.07,7.131,-41.99,-29.88,-45.67,-62.03,-56.09,-44.09,-48.39,0,0,0,0,0,0,0,0,0,0,0,0,0,0,0,0,
8,-26.65,-56.11,-13.27,-1.264,12.29,-7.461,-26.06,-44.16,11.02,-31.06,-13.98,-42.98,-67.89,-59.56,-47.31,-55.18,0,0,0,0,0,0,0,0,0,0,0,0,0,0,0,0,
9,-15.2,-87.76,6.169,27.21,18.93,23.56,-11.98,-3.427,16.71,-15.31,7.757,-17.3,-47.97,-47.3,-26.25,-48.18,0,0,0,0,0,0,0,0,0,0,0,0,0,0,0,0,
10,5.462,-70.35,20.1,44.72,29.47,43.54,19.17,-11.79,0.5934,-25.46,4.939,-15.46,-35.68,-40.79,-7.293,-36.93,0,0,0,0,0,0,0,0,0,0,0,0,0,0,0,0,
11,-8.041,-48.83,20.12,29.04,33.38,27.24,20.56,-37.98,-3.104,-28.97,-9.42,-28.65,-30.47,-35.76,-9.589,-32.04,0,0,0,0,0,0,0,0,0,0,0,0,0,0,0,0,
12,-35.24,-38.1,19.57,29.17,27.62,14.22,22.77,-13.17,9.49,-11.09,-18.25,-33,-14.26,-24.27,-18.88,-32.49,0,0,0,0,0,0,0,0,0,0,0,0,0,0,0,0,
13,-48.44,-30.41,11.02,37.05,-0.1052,4.616,19.02,0.0142,-3.645,-8.07,-28.97,-40.9,-19.17,-26.37,-30.43,-38.45,0,0,0,0,0,0,0,0,0,0,0,0,0,0,0,0,
14,-42.22,-52.93,12.3,39.04,-11.39,8.198,7.959,-17.86,-11.29,-17.81,-29.08,-40.84,-34.32,-32.43,-44.38,-45.55,0,0,0,0,0,0,0,0,0,0,0,0,0,0,0,0,
15,-29.22,-57.68,29.76,51.16,22.62,33.76,18.11,-16.79,5.555,-18.71,-16.92,-27.19,-19.01,-26.23,-47.21,-42.43,0,0,0,0,0,0,0,0,0,0,0,0,0,0,0,0,
16,-20.98,-27.73,32.93,51.08,42.91,48.45,32.76,-9.558,5.099,-12.47,-12.75,-18.33,3.386,-18.03,-37.52,-28.96,0,0,0,0,0,0,0,0,0,0,0,0,0,0,0,0,
17,1.149,-6.885,35.85,49.69,32.59,49.53,50.12,9.517,-1.299,4.074,-6.148,-9.303,5.94,-9.026,-23.19,-15.21,0,0,0,0,0,0,0,0,0,0,0,0,0,0,0,0,
18,9.985,5.202,45.13,63.99,29.44,48.93,61.61,38.03,9.078,10.5,0.6055,-4.913,-6.866,-14.08,-10.71,-12.31,0,0,0,0,0,0,0,0,0,0,0,0,0,0,0,0,
19,-18.65,-8.752,42.3,66.02,39.91,55.18,47.27,30.13,19.68,-11.72,-8.309,-9.15,-23.68,-39.13,-12.53,-25.44,0,0,0,0,0,0,0,0,0,0,0,0,0,0,0,0,
20,-13.7,-32.38,55.88,75.85,60.41,73.99,54.11,19.74,26.19,-21.29,-11.04,-7.127,-30.74,-48.71,-28.02,-43.02,0,0,0,0,0,0,0,0,0,0,0,0,0,0,0,0,
21,9.776,-16.77,76.08,97.63,55.89,61.69,72.56,36.49,19.33,-10.07,-13.7,-19.08,-37.03,-44.79,-44.24,-51.66,0,0,0,0,0,0,0,0,0,0,0,0,0,0,0,0,
22,-14.91,-11.53,66.39,93.65,28.15,39.53,57.03,38.05,0.1707,-14.82,-34.6,-42.33,-39.88,-46.6,-57.24,-52.72,0,0,0,0,0,0,0,0,0,0,0,0,0,0,0,0,
23,-11.24,-28.13,57.87,84.98,48.52,71.71,54.63,24.1,-5.883,-16.93,-41.93,-41.25,-26.74,-40.71,-65.01,-54.64,0,0,0,0,0,0,0,0,0,0,0,0,0,0,0,0,
24,19.48,-21.74,52.98,71.84,67.31,71.99,50.67,12.36,-4.979,-4.173,-34.65,-38.84,-23.75,-36.94,-66.86,-62.76,0,0,0,0,0,0,0,0,0,0,0,0,0,0,0,0,
25,-10.18,-26.34,36.28,45.33,20.9,10.09,9.225,8.062,0.0857,-6.811,-31.64,-40.82,-23.33,-37.14,-60.5,-63.85,0,0,0,0,0,0,0,0,0,0,0,0,0,0,0,0,
26,-25.55,-34.18,33.32,44.01,-0.0636,1.087,-4.155,13.67,13.6,-19.78,-21.88,-26.64,-8.558,-29.39,-42.92,-45.68,0,0,0,0,0,0,0,0,0,0,0,0,0,0,0,0,
27,-10.3,-27.56,17.72,32.98,6.373,5.462,-8.325,1.029,2.685,-26.55,-21.14,-32.52,-15.99,-37.77,-32.57,-31.52,0,0,0,0,0,0,0,0,0,0,0,0,0,0,0,0,
28,-30.35,-47.61,-6.019,5.445,-13.26,-16.58,-22.69,-15.25,-14.73,-18.65,-17.88,-35.04,-13.99,-42.78,-32.87,-29.28,0,0,0,0,0,0,0,0,0,0,0,0,0,0,0,0,
29,4.68,-40.69,26.38,35.57,12.37,32.67,29.4,0.9642,4.646,10.14,18.3,6.397,26.44,-17.47,-14.03,-11.79,0,0,0,0,0,0,0,0,0,0,0,0,0,0,0,0,
30,69.41,0.7968,55.45,63.98,51.06,74.38,68.14,20.53,16.84,23.07,29.36,10.93,21.41,-14.48,12.1,6.941,0,0,0,0,0,0,0,0,0,0,0,0,0,0,0,0,
31,24.96,-18.94,25.12,34.72,22.5,20.61,20.84,28.08,4.748,6.746,3.674,-27.52,-17.88,-34.42,10.28,-2.063,0,0,0,0,0,0,0,0,0,0,0,0,0,0,0,0,
32,-25.39,-47.94,11.49,28.72,2.225,-5.724,8.457,28.18,9.393,2.094,7.845,-26.18,-10.46,-27.76,-5.44,-17.4,0,0,0,0,0,0,0,0,0,0,0,0,0,0,0,0,
33,-0.7835,-36.27,20.41,35.85,2.874,11.71,27.69,12.98,6.06,4.652,9.86,-24.23,-0.6272,-17.22,-19.5,-25.79,0,0,0,0,0,0,0,0,0,0,0,0,0,0,0,0,
34,3.51,-40.86,17.46,22.91,-4.73,16.67,10.11,10.93,-11.19,-1.837,-14.6,-45.68,-13.41,-17.45,-38.26,-40.36,0,0,0,0,0,0,0,0,0,0,0,0,0,0,0,0,
35,6.102,-25.46,35.65,42.89,30.95,49.84,24.65,21.9,0.7006,2.816,-12.7,-42.25,-13.84,-15.59,-51.73,-52.38,0,0,0,0,0,0,0,0,0,0,0,0,0,0,0,0,
36,29.56,-4.976,47.51,59.7,49.63,70.17,47.22,17.46,9.017,1.61,-11.16,-48.18,-23.48,-27.11,-57.95,-54.49,0,0,0,0,0,0,0,0,0,0,0,0,0,0,0,0,
37,14.06,-48.65,26.02,38.31,8.281,40.49,15.89,18.19,-9.057,-19.06,-31.91,-70.26,-31.22,-33.73,-62.91,-51.88,0,0,0,0,0,0,0,0,0,0,0,0,0,0,0,0,
38,-7.073,-62.48,22.13,39.64,6.717,22.95,4.146,24.99,-4.064,-21.14,-27.87,-58.95,-12.06,-20.42,-55.33,-40.53,0,0,0,0,0,0,0,0,0,0,0,0,0,0,0,0,
39,-0.3506,-22.64,34.8,57.43,34.16,29.39,24.67,27.76,22.92,-1.656,-10.62,-36.22,-0.7244,-21.07,-36.34,-26.08,0,0,0,0,0,0,0,0,0,0,0,0,0,0,0,0,
40,27.13,-24.8,47.35,64.9,40.8,65.41,35.44,43.96,39.44,13.07,4.821,-13.06,10.38,-25.63,-17.78,-19.11,0,0,0,0,0,0,0,0,0,0,0,0,0,0,0,0,
41,75.98,-24.19,71.11,80.44,60.38,106.1,57.64,50.96,47.39,24.54,25.9,11.7,31.09,-12.79,-3.587,-17.47,0,0,0,0,0,0,0,0,0,0,0,0,0,0,0,0,
42,78.61,2.622,70.54,82.31,62.88,79.74,66.67,42.68,45.01,24.93,16.82,-1.543,18.58,-15.76,-5.116,-24.12,0,0,0,0,0,0,0,0,0,0,0,0,0,0,0,0,
43,34.86,-19.97,49.33,65.85,47.27,53.05,41.57,43.49,36.98,6.031,-3.55,-18.49,-3.093,-32.39,-19.74,-36.28,0,0,0,0,0,0,0,0,0,0,0,0,0,0,0,0,
44,35.79,-52.09,55.47,56.81,61.79,75.98,33.48,33.16,40.33,-6.276,13.21,5.393,9.821,-26.26,-22.03,-35.46,0,0,0,0,0,0,0,0,0,0,0,0,0,0,0,0,
45,48.62,-43.12,56.66,44.61,52.02,60.94,38.22,23.21,46.74,0.7574,31.01,20.23,21.45,-13.16,-9.706,-23.38,0,0,0,0,0,0,0,0,0,0,0,0,0,0,0,0,
46,32.02,-42.72,29.7,35.32,14.83,30.1,28.26,29.62,41.45,8.115,23.6,7.452,14.33,-14.65,-3.357,-18.59,0,0,0,0,0,0,0,0,0,0,0,0,0,0,0,0,
47,33,-51.2,25.95,42.48,27.66,40.02,31.43,8.104,32.06,4.845,13.54,-1.404,18.61,-15.1,-9.383,-20,0,0,0,0,0,0,0,0,0,0,0,0,0,0,0,0,
48,32.67,-35.01,41.11,42.57,45.62,40.38,37.25,-15.02,27.82,-1.221,5.481,-3.067,31.42,-11.84,-19.31,-17.2,0,0,0,0,0,0,0,0,0,0,0,0,0,0,0,0,
49,19.33,-26.99,28.07,31.74,17.65,33.53,14.33,0.7475,19.53,-1.95,3.385,1.173,28.81,-16.04,-26.47,-13.83,0,0,0,0,0,0,0,0,0,0,0,0,0,0,0,0,
50,32.96,-43.77,15.83,27.27,12.66,44.32,0.2561,1.429,9.59,-2.189,2.847,2.8,13.83,-24.09,-32.96,-20.17,0,0,0,0,0,0,0,0,0,0,0,0,0,0,0,0,
51,46.6,-43.7,38.99,26.38,48.7,50.97,15.69,-10.69,20.85,-3.068,-4.042,-1.392,11.97,-28.31,-37.28,-33.34,0,0,0,0,0,0,0,0,0,0,0,0,0,0,0,0,
52,50.3,-24.45,52.22,24.81,61.78,65.97,26.58,7.257,47.33,8.15,12.99,16.88,33.63,-21.11,-23.34,-31.26,0,0,0,0,0,0,0,0,0,0,0,0,0,0,0,0,
53,74.75,-15.79,44.89,32.15,56.89,88.61,41.11,19.58,69.52,26.91,60,50.62,58.52,2.289,15.44,-0.4004,0,0,0,0,0,0,0,0,0,0,0,0,0,0,0,0,
54,85.91,-4.222,62.55,50.69,74.34,91.14,67.47,16.37,85.32,37.52,87.85,59.36,67.12,25.95,55.23,37.29,0,0,0,0,0,0,0,0,0,0,0,0,0,0,0,0,
55,66.15,4.097,72.71,56.87,79.41,79.8,56.69,22.11,74.27,36.77,67.06,37.35,52.31,20.36,61.12,45.5,0,0,0,0,0,0,0,0,0,0,0,0,0,0,0,0,
56,43.81,-27.8,36.19,32.51,45.53,58.29,14.05,10.84,33.44,15.09,11.52,-3.304,15.87,-18.49,18.03,9.204,0,0,0,0,0,0,0,0,0,0,0,0,0,0,0,0,
57,10.73,-67.74,6.393,1.952,14.68,27.63,-2.127,-14.93,3.675,-16.02,-39.65,-42.37,-19.21,-56.31,-51.99,-52.96,0,0,0,0,0,0,0,0,0,0,0,0,0,0,0,0,
58,-16.2,-78.71,10.3,1.036,6.75,19.41,2.702,-10.73,-11.26,-20.46,-52.76,-55.65,-40.51,-71.62,-105.3,-102,0,0,0,0,0,0,0,0,0,0,0,0,0,0,0,0,
59,-4.527,-92.92,26.4,25.23,17.74,44.88,-1.933,5.664,-24.21,-16.27,-44.06,-60.01,-62.24,-80.64,-118.4,-116.7,0,0,0,0,0,0,0,0,0,0,0,0,0,0,0,0,
60,-6.154,-115.3,42,31.39,35.41,53.12,-10.01,-10.57,-15.27,-31.06,-40.53,-70.15,-81.01,-90.71,-102,-111.3,0,0,0,0,0,0,0,0,0,0,0,0,0,0,0,0,
61,-43.06,-117.5,31.57,9.181,18.42,14.68,-11.93,-27.73,2.072,-31.64,-27.61,-55.2,-79.64,-88.83,-76.57,-102.2,0,0,0,0,0,0,0,0,0,0,0,0,0,0,0,0,
62,-43.82,-100.8,10.88,1.646,-6.068,-6.598,-7.464,0.4247,2.181,-12.78,-3.157,-20.41,-57.77,-70.79,-53.63,-86.2,0,0,0,0,0,0,0,0,0,0,0,0,0,0,0,0,
63,-19.5,-75.55,12.29,8.481,9.623,10.5,-7.183,25.97,2.024,-5.323,0.3363,-12.79,-29.4,-47.41,-41.18,-64.25,0,0,0,0,0,0,0,0,0,0,0,0,0,0,0,0,
64,-35.09,-61.78,1.372,-3.778,2.66,1.277,-17.63,1.589,0.9076,-2.857,-16.35,-26.48,-17.51,-40.36,-45.26,-53.47,0,0,0,0,0,0,0,0,0,0,0,0,0,0,0,0,
65,-49.54,-67.58,-15.01,-9.543,-27.6,-10.61,-22.58,-21.72,-10.8,-4.535,-24.68,-30.69,-26.93,-54.28,-58.74,-60.06,0,0,0,0,0,0,0,0,0,0,0,0,0,0,0,0,
66,-34.05,-65.84,5.232,7.201,4.056,20.33,-13.19,-10.39,-8.391,-11.57,-19.62,-26.58,-28.37,-58.24,-64.11,-67.46,0,0,0,0,0,0,0,0,0,0,0,0,0,0,0,0,
67,-27.82,-49.63,23.95,21.77,39.73,33.94,10.17,10.32,13.59,2.959,-1.54,-10.24,-4.869,-35.62,-52.22,-60.67,0,0,0,0,0,0,0,0,0,0,0,0,0,0,0,0,
68,-14.08,-22.8,24.52,37.69,22.39,21.44,35.25,29.85,29.35,16.83,11.8,4.052,13.28,-19.2,-36.82,-47.87,0,0,0,0,0,0,0,0,0,0,0,0,0,0,0,0,
69,5.717,6.686,33.53,41.44,29.86,35.75,33.2,21.68,19.68,-0.1186,-18.13,-20.91,0.6699,-28.94,-44.85,-50.63,0,0,0,0,0,0,0,0,0,0,0,0,0,0,0,0,
70,-8.124,-0.6699,34.49,23.52,49.64,50.93,24.03,-9.649,2.067,3.735,-50.99,-43.6,-1.893,-23.03,-68.47,-62.92,0,0,0,0,0,0,0,0,0,0,0,0,0,0,0,0,
71,-13.99,-23.32,37.45,34.7,31.29,45.88,40.73,7.813,22.26,41.84,-20.91,-10.75,33.1,13.53,-62.62,-50.53,0,0,0,0,0,0,0,0,0,0,0,0,0,0,0,0,
72,16.83,4.55,63.9,67.05,40.57,65.82,62.6,42.85,56.79,52.8,13.89,23.3,53.05,29,-25.71,-15.21,0,0,0,0,0,0,0,0,0,0,0,0,0,0,0,0,
73,50,51.61,78.79,68.52,77.34,110.6,79.2,23.06,48.22,43.77,-2.898,19.91,40.32,18.28,-4.365,4.825,0,0,0,0,0,0,0,0,0,0,0,0,0,0,0,0,
74,64.18,51.3,66.99,57.49,71.75,114.7,71.55,10.95,33.27,42.59,-13.71,10.26,28.43,10.06,-13.26,-4.009,0,0,0,0,0,0,0,0,0,0,0,0,0,0,0,0,
75,34.15,19.15,49.26,48.5,50.77,69.62,31.3,24.84,41.54,20.56,4.089,0.2032,15.89,-6.473,-30.93,-27.03,0,0,0,0,0,0,0,0,0,0,0,0,0,0,0,0,
76,5.201,20.56,47.61,44.3,48.39,58.61,42.74,8.68,37.98,3.349,19.64,3.014,15.38,-13.98,-34.87,-38.07,0,0,0,0,0,0,0,0,0,0,0,0,0,0,0,0,
77,49.64,63.58,71.99,63.38,55.83,100.7,92.9,9.968,36.1,26.8,30.73,27.2,31.81,-0.3989,-17.95,-22.64,0,0,0,0,0,0,0,0,0,0,0,0,0,0,0,0,
78,77.95,67.08,83.15,65.38,79.31,112.2,67.46,40.67,55.74,39.92,34.08,32.8,27.05,-1.241,-2.001,-6.428,0,0,0,0,0,0,0,0,0,0,0,0,0,0,0,0,
79,39.07,27.3,70.35,47.49,94.86,90.22,34.75,40.97,81.47,33.05,45.33,35.88,29.13,4.409,4.329,-2.586,0,0,0,0,0,0,0,0,0,0,0,0,0,0,0,0,
80,47.18,40.44,81.67,70.16,87.62,98.14,75.07,40.26,104.4,43.64,76.63,69.4,62.44,33.13,22.63,12.3,0,0,0,0,0,0,0,0,0,0,0,0,0,0,0,0,
81,87.08,82.54,96.61,92.53,91.61,110.4,91.75,55.6,101.6,49.93,82.11,85.96,65.66,38.07,44.77,30.91,0,0,0,0,0,0,0,0,0,0,0,0,0,0,0,0,
82,70.2,76.38,82.93,75.02,99.78,100.8,71.76,58.7,87.52,44.97,66.66,77.06,42.12,31.47,48.24,32.64,0,0,0,0,0,0,0,0,0,0,0,0,0,0,0,0,
83,56.68,66.69,81.5,71.6,87.02,98.77,80.38,64.15,93.53,45.99,78.51,84,43.42,40.04,42.93,29.85,0,0,0,0,0,0,0,0,0,0,0,0,0,0,0,0,
84,74.53,87.09,80.78,69.49,67.05,86.12,82.16,55.77,83.01,39.19,90.93,91.05,50.81,36.26,37.32,27.13,0,0,0,0,0,0,0,0,0,0,0,0,0,0,0,0,
85,74.94,89.99,55.25,43.79,55.88,66.1,59.6,30.19,69.54,38.27,88.6,85.33,46.55,27.79,31.5,19.79,0,0,0,0,0,0,0,0,0,0,0,0,0,0,0,0,
86,76.66,68.25,60.13,42.9,67.38,85.94,50.05,35.89,97.23,53.1,99.16,84.18,47.72,36.71,35.1,19.93,0,0,0,0,0,0,0,0,0,0,0,0,0,0,0,0,
87,76.28,63.91,81.98,52.76,84.81,94.59,50.49,46.22,103.4,52.59,97.09,76.76,57.05,47.97,40.69,26.51,0,0,0,0,0,0,0,0,0,0,0,0,0,0,0,0,
88,46.16,81.08,59.96,38.29,70.73,55.82,49.19,29.23,69.98,40.48,70.68,59.93,64.02,47.67,32.14,23.96,0,0,0,0,0,0,0,0,0,0,0,0,0,0,0,0,
89,38.06,92.06,46.95,40.94,53.82,56.34,57.59,29.09,60.36,35.33,59.87,54.4,61.05,35.89,17.23,12.55,0,0,0,0,0,0,0,0,0,0,0,0,0,0,0,0,
90,62.11,103,70.23,62.83,62.75,90.35,70.57,45.12,63.2,33.21,60.11,56.43,57.8,29.25,9.027,3.822,0,0,0,0,0,0,0,0,0,0,0,0,0,0,0,0,
91,57.13,112.5,64.93,54.99,68.47,74.32,61.09,38.16,63.91,33.79,51.42,51.99,59.21,33.45,5.982,2.783,0,0,0,0,0,0,0,0,0,0,0,0,0,0,0,0,
92,40.79,93.7,50.48,33.51,73.47,54.61,40.91,22.02,75.34,29.08,50.83,44.38,49.23,26.13,2.907,0.8829,0,0,0,0,0,0,0,0,0,0,0,0,0,0,0,0,
93,47.23,72.83,69.63,39.11,79.59,66.98,40.75,25.05,63.49,22.97,49.26,31,31.65,12.4,-4.504,-12.55,0,0,0,0,0,0,0,0,0,0,0,0,0,0,0,0,
94,36.39,70.8,74.01,53.73,55.4,50.88,37.35,33.21,37.03,27.28,28.23,9.486,23.06,8.523,-18.64,-31.26,0,0,0,0,0,0,0,0,0,0,0,0,0,0,0,0,
95,15.92,68.21,57.02,55.69,32.33,32.11,28.96,27.54,37.2,23.06,19.5,1.546,19.5,2.488,-30.16,-40.01,0,0,0,0,0,0,0,0,0,0,0,0,0,0,0,0,
96,29.87,76.72,63.43,62.75,49.02,52.22,43.35,30.94,44.38,14.83,39.43,16.32,18.98,0.6486,-24.22,-32.6,0,0,0,0,0,0,0,0,0,0,0,0,0,0,0,0,
97,48.2,89.49,78.91,76.25,70.74,64.38,52.79,45.67,59.86,24.49,63.72,41.86,33.24,17.33,0.7632,-11.92,0,0,0,0,0,0,0,0,0,0,0,0,0,0,0,0,
98,60.69,102.5,88.22,85.57,87.41,82.57,62.96,44.34,100.2,30.43,85.5,71.79,55,30.12,32.72,12.89,0,0,0,0,0,0,0,0,0,0,0,0,0,0,0,0,
99,85.75,136.5,96.56,94.55,103.1,114.8,87.36,50.93,106.1,24.38,87,74.99,55.08,23.98,51.31,26.43,0,0,0,0,0,0,0,0,0,0,0,0,0,0,0,0,
100,72.42,133.9,77.66,82.88,70.25,75.82,65.02,63.16,55.53,18.91,50.43,35.78,38.65,19.63,38.5,18.22,0,0,0,0,0,0,0,0,0,0,0,0,0,0,0,0,
101,33.43,96.44,48.64,54.75,25.95,21.37,32.3,33.76,24.94,7.338,27.04,13.08,39.91,28.92,8.539,0.0792,0,0,0,0,0,0,0,0,0,0,0,0,0,0,0,0,
102,47.52,121.5,61.32,59.25,62.27,61.46,58.93,12.46,37.56,8.31,46.84,25.33,48.42,38.1,-2.697,-2.639,0,0,0,0,0,0,0,0,0,0,0,0,0,0,0,0,
103,56,152.2,77.63,71.96,97.79,80.39,62.32,42.88,42.44,31.79,62.02,19.93,41.04,36.23,7.811,10.74,0,0,0,0,0,0,0,0,0,0,0,0,0,0,0,0,
104,8.163,113.8,48.51,46.93,39.65,8.393,18.27,54.59,29.48,39.42,58.82,4.155,33.56,23.87,14.3,13.74,0,0,0,0,0,0,0,0,0,0,0,0,0,0,0,0,
105,-0.5157,89.98,17.57,27.5,-2.993,-10.81,11.68,33.91,17.39,32.53,56.97,7.965,33.41,10.25,8.456,-1.332,0,0,0,0,0,0,0,0,0,0,0,0,0,0,0,0,
106,33.07,108.5,13.15,38.03,24.16,29.95,30.6,32.48,18.27,42.72,51.45,10.65,36.52,12.99,0.5609,-13.84,0,0,0,0,0,0,0,0,0,0,0,0,0,0,0,0,
107,29.04,122.4,20.22,52.22,38.99,24.81,39.16,44.38,41.45,53.87,55.28,13.7,43.49,27.61,-0.2387,-12.17,0,0,0,0,0,0,0,0,0,0,0,0,0,0,0,0,
108,26.85,120.7,43.19,68.63,48.43,23.99,44.39,52.09,53.64,46.55,74.33,28.16,38.47,27.09,5.561,-5.513,0,0,0,0,0,0,0,0,0,0,0,0,0,0,0,0,
109,46.07,96,51.1,67.88,62.63,47.77,31,43.62,32.22,32.13,68.61,22.47,26.26,14.11,4.938,-4,0,0,0,0,0,0,0,0,0,0,0,0,0,0,0,0,
110,11.97,76.45,12.88,37.58,24.16,10.29,13.77,13.5,17.25,19.24,34.41,-4.453,34.47,12.1,-6.26,-4.708,0,0,0,0,0,0,0,0,0,0,0,0,0,0,0,0,
111,-31.83,87.3,-11.33,25.34,-13.68,-20.02,20.16,5.9,8.553,10.34,23.34,-6.981,54.29,19.85,-7.911,2.322,0,0,0,0,0,0,0,0,0,0,0,0,0,0,0,0,
112,14.6,94.79,12.79,39.26,18.33,42.41,26.08,22.23,-6.192,9.532,48.68,15.49,62.03,26.62,10.87,16,0,0,0,0,0,0,0,0,0,0,0,0,0,0,0,0,
113,63.99,88.34,27.02,36.56,50.94,72.32,13.61,3.15,18.04,17.29,64.11,17.82,51.97,26.53,27.17,21.53,0,0,0,0,0,0,0,0,0,0,0,0,0,0,0,0,
114,12.44,65.91,9.161,19.05,36.08,12.91,-3.571,-30.92,47.06,19.92,45.92,-2.436,26.72,13.45,19.01,9.18,0,0,0,0,0,0,0,0,0,0,0,0,0,0,0,0,
115,-33.7,32.88,-2.348,11.14,23.12,-7.68,-5.889,-23.22,22.75,9.214,33.08,-3.163,11.97,3.257,0.4748,-7.93,0,0,0,0,0,0,0,0,0,0,0,0,0,0,0,0,
116,3.299,40.83,9.943,16.32,33.96,32.32,15.99,1.391,12.85,10.1,48.32,17.56,26.46,11.48,-2.248,-5.258,0,0,0,0,0,0,0,0,0,0,0,0,0,0,0,0,
117,33.83,69.51,27.66,27.11,42.48,49.75,37.68,8.564,31.14,24.53,51.52,19.74,38.94,11.8,6.198,11.02,0,0,0,0,0,0,0,0,0,0,0,0,0,0,0,0,
118,27.81,60.6,29.29,30.33,42.1,43.58,38.4,14.41,13.13,19.64,29.77,4.037,36.3,-3.282,3.394,10.1,0,0,0,0,0,0,0,0,0,0,0,0,0,0,0,0,
119,30.11,57.59,23.71,31.93,44.54,44.31,39.45,23.73,4.86,11.99,22.02,3.73,49.88,3.814,-9.523,-3.918,0,0,0,0,0,0,0,0,0,0,0,0,0,0,0,0,
120,33.27,80.71,27.81,41.86,43.5,48.62,47.93,15.06,32.43,22.73,28.41,11.47,67.9,23.51,-17.08,-6.387,0,0,0,0,0,0,0,0,0,0,0,0,0,0,0,0,
121,28,75.98,33,41.93,40.12,53.81,40.31,-0.6172,35.05,20.82,29.17,9.783,61.47,18.59,-15.84,-4.213,0,0,0,0,0,0,0,0,0,0,0,0,0,0,0,0,
122,26.66,61.25,38.89,37.41,47.93,57.71,22.46,10.96,25.36,13.64,37.58,16.31,55.02,8.976,-7.799,-8.49,0,0,0,0,0,0,0,0,0,0,0,0,0,0,0,0,
123,30.14,70.29,46.7,45.13,42.65,46.25,15.13,18.38,21.54,23.49,44.42,25.2,53.82,8.139,-1.407,-13.76,0,0,0,0,0,0,0,0,0,0,0,0,0,0,0,0,
124,30.38,71.66,38.43,37.64,19.74,27.68,14.64,-22.39,6.638,17.74,33.92,13.36,38.97,-1.971,-9.449,-22.02,0,0,0,0,0,0,0,0,0,0,0,0,0,0,0,0,
125,21.56,69.71,25.33,19.08,20.73,34.76,16.57,-45.45,14.12,3.139,31.55,9.001,34.73,-2.284,-21.58,-28.25,0,0,0,0,0,0,0,0,0,0,0,0,0,0,0,0,
126,23.38,78.47,25.21,24.26,27.76,49.05,10.53,-7.466,34.82,13.47,36.26,27.19,36.9,11.95,-19.44,-20.41,0,0,0,0,0,0,0,0,0,0,0,0,0,0,0,0,
127,36.8,54.31,27.01,29.15,22.41,36.32,-8.027,11.09,27.08,14.61,25.32,27.47,12.77,3.318,-14.17,-13.15,0,0,0,0,0,0,0,0,0,0,0,0,0,0,0,0,
128,32.03,19.68,40.82,28.53,46.92,38.22,0.995,-1.899,18.15,-3.248,14.85,9.546,1.797,-14.56,-21.95,-21.91,0,0,0,0,0,0,0,0,0,0,0,0,0,0,0,0,
129,28.74,45.35,65.19,50.78,69.54,67.76,36.96,11.74,12.01,2.477,7.309,5.144,28.57,-6.241,-35.61,-31.5,0,0,0,0,0,0,0,0,0,0,0,0,0,0,0,0,
130,40.64,84.23,61.81,55.62,44.89,66.47,38.74,15.46,-6.789,13.4,-10.15,3.482,43.65,8.193,-45.5,-29.92,0,0,0,0,0,0,0,0,0,0,0,0,0,0,0,0,
131,30.05,81.7,39.61,29.24,27.04,36.85,20.59,-6.043,-6.567,4.911,-12.59,-0.2391,47.15,16.56,-45.94,-23.1,0,0,0,0,0,0,0,0,0,0,0,0,0,0,0,0,
132,10.69,83.25,26.13,25.11,22.66,14.03,21.26,1.633,3.174,14.27,5.928,8.4,63.18,30.59,-31.05,-14.78,0,0,0,0,0,0,0,0,0,0,0,0,0,0,0,0,
133,16.16,76.24,14.87,27.21,0.8122,2.805,10.88,4.594,0.7618,34.93,15.84,15.21,58.13,31.42,-12.28,-9.556,0,0,0,0,0,0,0,0,0,0,0,0,0,0,0,0,
134,28.94,38.39,21.2,14.45,10.06,22.75,5.495,-25.83,11.82,26.16,18.31,16.41,36.75,20.75,-5.869,-10.28,0,0,0,0,0,0,0,0,0,0,0,0,0,0,0,0,
135,39.89,50,46.21,30.39,42.71,54.73,35.89,-13.57,17.41,17.94,23.83,24.41,38.95,26.33,-6.745,-9.614,0,0,0,0,0,0,0,0,0,0,0,0,0,0,0,0,
136,47.22,87.11,50.89,52.58,33.04,47.88,42.49,33.3,0.0684,34.65,22.58,27.94,40.92,27.47,-6.113,-8.748,0,0,0,0,0,0,0,0,0,0,0,0,0,0,0,0,
137,40.14,56.65,46.91,34.43,23.65,36.68,15.47,25.94,14.28,38.83,22.42,32.09,28.89,11.67,-1.496,-11.64,0,0,0,0,0,0,0,0,0,0,0,0,0,0,0,0,
138,34.33,34.22,56.41,17.94,50.27,54.73,12.78,-3.962,47.89,26.69,27.88,46.11,31.37,8.325,9.257,-8.529,0,0,0,0,0,0,0,0,0,0,0,0,0,0,0,0,
139,42.21,62.7,53.2,30.21,51.95,55.02,20.78,4.611,31.24,18.11,16.87,42.92,34.09,8.985,12.69,-2.085,0,0,0,0,0,0,0,0,0,0,0,0,0,0,0,0,
140,55,50.73,46.66,42.45,40.16,48.63,24.3,10.08,3.555,8.409,2.125,29.93,26.42,3.765,0.3092,-3.224,0,0,0,0,0,0,0,0,0,0,0,0,0,0,0,0,
141,65,24.36,59.54,49.32,60.85,71.43,40.61,5.361,21.07,13.5,13.3,37.15,31.79,14.42,-6.457,-2.193,0,0,0,0,0,0,0,0,0,0,0,0,0,0,0,0,
142,59.34,39.15,61.56,51.47,63.49,66.59,45.37,23.94,37.69,31.16,26.24,39.74,35.28,22.25,-0.2641,2.425,0,0,0,0,0,0,0,0,0,0,0,0,0,0,0,0,
143,42.33,42.95,44.94,42.31,40.87,36.21,39.65,18.41,32.88,23.12,23.41,30.17,25.41,10.18,2.465,-2.889,0,0,0,0,0,0,0,0,0,0,0,0,0,0,0,0,
144,40.43,34.7,31.39,29.11,43.68,43.95,35.05,-18.34,31.65,11.39,24.34,35.56,24.32,4.457,1.863,-10.5,0,0,0,0,0,0,0,0,0,0,0,0,0,0,0,0,
145,40.4,28.43,9.548,7.596,31.94,31.76,-2.384,-18.5,15.21,22.95,13.74,31.9,21.95,0.9167,-1.706,-13.74,0,0,0,0,0,0,0,0,0,0,0,0,0,0,0,0,
146,13.62,0.0856,-22.84,-19,-14.99,-24.77,-39.15,-12.51,-14.74,14.56,-17.54,7.28,13.63,-12.91,-16.4,-23.31,0,0,0,0,0,0,0,0,0,0,0,0,0,0,0,0,
147,-1.464,-7.575,-38.18,-25.16,-31.56,-30.2,-24.54,-39.32,-26.72,-8.264,-30.5,4.613,22.74,-13.16,-28.38,-30.88,0,0,0,0,0,0,0,0,0,0,0,0,0,0,0,0,
148,28.82,9.727,-18.68,-6.977,-7.223,5.964,-4.902,-25.17,-18.69,5.892,-16.34,23.54,32.02,2.165,-22.06,-20.95,0,0,0,0,0,0,0,0,0,0,0,0,0,0,0,0,
149,56.81,2.976,27.48,23.81,28.44,29.22,6.934,29.09,7.96,28.15,2.838,32.21,23.57,12.72,-5.788,-3.771,0,0,0,0,0,0,0,0,0,0,0,0,0,0,0,0,
150,57.62,11.91,53.14,47.67,52.18,56.19,31.49,28.95,31.42,22.78,17.63,34.66,24.03,19.82,8.027,6.561,0,0,0,0,0,0,0,0,0,0,0,0,0,0,0,0,
151,57.21,40.8,31.9,40.87,35.02,54.52,24.62,-8.573,27.5,17.93,18.35,38.04,40.25,27.79,14.96,12.36,0,0,0,0,0,0,0,0,0,0,0,0,0,0,0,0,
152,51.15,38,11.64,21.41,11.38,21.81,-0.7428,-17.98,18.34,14.96,11.96,37.83,52.54,31.14,16.93,17.34,0,0,0,0,0,0,0,0,0,0,0,0,0,0,0,0,
153,47.51,42.4,14.22,10.22,21.14,27.22,6.391,-22.01,11.59,0.7257,17.34,38.76,53.21,29.49,18.14,16.82,0,0,0,0,0,0,0,0,0,0,0,0,0,0,0,0,
154,70.57,56.18,13.02,0.4962,32.66,48.96,10.81,-33.36,15.84,1.661,30.28,45.2,44.91,27.27,19.54,9.351,0,0,0,0,0,0,0,0,0,0,0,0,0,0,0,0,
155,86.99,30.03,21.59,9.842,43.56,55.99,6.371,-27.4,45.7,14.94,33.92,47.53,36.19,24.17,19.29,2.856,0,0,0,0,0,0,0,0,0,0,0,0,0,0,0,0,
156,71.59,16.54,41.95,27.98,60.96,66.32,25.32,-21.84,50.99,14.22,18.2,32.72,28.66,15.24,10.62,-2.316,0,0,0,0,0,0,0,0,0,0,0,0,0,0,0,0,
157,52.36,39.42,41.89,18.05,53.14,53.02,31.36,-16.9,30.32,15.01,4.662,19.31,22.46,5.598,-4.816,-11.6,0,0,0,0,0,0,0,0,0,0,0,0,0,0,0,0,
158,48.76,40.41,37.34,15.72,46.58,38.09,17.87,4.239,35.55,21.32,11.11,26.62,22.11,1.889,-11.98,-18.52,0,0,0,0,0,0,0,0,0,0,0,0,0,0,0,0,
159,56.63,17.3,40.37,31.25,62.04,53.72,16.27,-2.692,25.04,9.862,-0.6328,23.16,12.21,-4.835,-15.12,-22.11,0,0,0,0,0,0,0,0,0,0,0,0,0,0,0,0,
160,54.74,-10.23,28.18,12.48,53.24,40.45,7.322,-37.9,-4.046,-1.705,-23.94,5.623,-5.373,-8.476,-24.73,-29.14,0,0,0,0,0,0,0,0,0,0,0,0,0,0,0,0,
161,37.91,-21.76,21.99,-6.064,39.05,18.02,1.711,-31.68,12.81,9.729,-6.163,9.846,-3.894,2.897,-24.46,-29.93,0,0,0,0,0,0,0,0,0,0,0,0,0,0,0,0,
162,30.57,1.067,34.24,15.58,51.1,27.8,19.75,0.809,24.2,17.57,6.469,9.011,0.1521,4.005,-13.96,-23.21,0,0,0,0,0,0,0,0,0,0,0,0,0,0,0,0,
163,27.77,10.45,26.26,21.56,46.67,5.099,20.85,2.498,-6.399,6.922,-21.7,-9.325,-2.362,-6.215,-14.32,-23.24,0,0,0,0,0,0,0,0,0,0,0,0,0,0,0,0,
164,24.36,-0.7594,4.801,3.498,31.79,-18.35,12.2,-12.02,-8.587,6.747,-21.61,2.489,15.95,8.051,-15.9,-20.02,0,0,0,0,0,0,0,0,0,0,0,0,0,0,0,0,
165,36.34,9.724,3.9,2.117,30.96,7.043,18.31,-18.61,9.463,19.6,-2.095,14.25,26.92,20.15,-11.74,-7.891,0,0,0,0,0,0,0,0,0,0,0,0,0,0,0,0,
166,26.81,-5.198,4.409,-0.0014,14.44,-7.297,-1.164,-23.08,-4.045,13.86,-24.92,-20.6,4.381,-0.7737,-24.7,-11.37,0,0,0,0,0,0,0,0,0,0,0,0,0,0,0,0,
167,-18.9,-51.7,-6.278,-9.867,5.319,-42.26,-24.89,-27.2,-21.83,-3.702,-46.65,-48.32,-12.05,-11.25,-49.95,-29.75,0,0,0,0,0,0,0,0,0,0,0,0,0,0,0,0,
168,-31.76,-45.72,-1.269,-0.6715,21.83,-19.2,-8.236,-24.68,-21.12,-8.771,-34.89,-43.11,-17.3,-6.708,-61.91,-40.95,0,0,0,0,0,0,0,0,0,0,0,0,0,0,0,0,
169,-8.08,-24.55,9.905,6.084,7.877,-13.61,-7.461,-23.69,-19.61,-13.67,-35.83,-44.26,-27.31,-22.33,-63.58,-47.94,0,0,0,0,0,0,0,0,0,0,0,0,0,0,0,0,
170,-11.92,-58.33,-0.1372,-8.073,-16.27,-44.56,-25.24,-42.11,-19.16,-18.8,-44.01,-47.08,-22.81,-33.14,-62.88,-52.25,0,0,0,0,0,0,0,0,0,0,0,0,0,0,0,0,
171,-23.06,-73.32,-2.928,-0.1555,4.731,-30.73,4.018,-55.36,-15.71,-11.31,-24.24,-35.08,-16.78,-29.17,-54.82,-46.83,0,0,0,0,0,0,0,0,0,0,0,0,0,0,0,0,
172,3.342,-33.92,21.65,31.68,30.23,8.409,31.05,-31.84,-8.788,-14.1,0.5348,-20.15,-23.88,-36.1,-40.67,-41.6,0,0,0,0,0,0,0,0,0,0,0,0,0,0,0,0,
173,37.23,-12.9,47.05,43.37,44.54,34.38,18.59,4.007,26.54,-14.61,28.99,14.81,3.04,-19.92,-13.52,-29.46,0,0,0,0,0,0,0,0,0,0,0,0,0,0,0,0,
174,67.95,-1.536,73.91,55.77,80.48,63.81,37.94,28.02,85.09,26.46,81.8,71.96,63.06,28.29,36.54,10.27,0,0,0,0,0,0,0,0,0,0,0,0,0,0,0,0,
175,100.6,25.87,83.47,71.5,92.09,68.72,56.39,18.27,78.46,47.55,87.73,75.79,68.53,28.25,71.06,44.37,0,0,0,0,0,0,0,0,0,0,0,0,0,0,0,0,
176,75.71,-2.501,31.75,32.69,47.46,26.37,2.036,-37.77,-11.18,1.606,8.124,6.485,11.39,-22.24,39.53,24.6,0,0,0,0,0,0,0,0,0,0,0,0,0,0,0,0,
177,6.584,-65.38,-13.86,-14.1,20.21,-2.433,-36.82,-63.12,-53.17,-17.12,-44.14,-36.18,-12.85,-33.35,-24.61,-21.41,0,0,0,0,0,0,0,0,0,0,0,0,0,0,0,0,
178,-16.66,-59.7,13.26,4.126,39.37,7.408,-10.42,-25.31,-10.51,17.57,-22.46,-24.76,7.526,-12.71,-51.08,-39.74,0,0,0,0,0,0,0,0,0,0,0,0,0,0,0,0,
179,-17.34,-29.2,36.11,23.15,45.52,-0.1111,-1.131,-11.54,5.686,15.66,-8.979,-25.94,8.53,-21.37,-41.49,-33.25,0,0,0,0,0,0,0,0,0,0,0,0,0,0,0,0,
180,-19.59,-37.02,19.32,4.881,29.76,-10.87,-8.965,-27.14,-6.976,-7.795,-8.807,-26.83,4.389,-33.19,-29.17,-24.42,0,0,0,0,0,0,0,0,0,0,0,0,0,0,0,0,
181,20.46,-38.37,19.29,5.456,28.62,21.84,6.435,-20.71,19.85,0.9761,12.12,-0.3613,20.94,-25.36,-15.35,-16.28,0,0,0,0,0,0,0,0,0,0,0,0,0,0,0,0,
182,42.18,-33.64,27.21,19.99,34.82,32.94,7.331,-17.35,30.3,2.174,17.54,5.704,21.69,-27.57,-4.733,-14.65,0,0,0,0,0,0,0,0,0,0,0,0,0,0,0,0,
183,2.867,-44.06,6.095,12.88,24.29,-14.65,-12.97,-17.85,-15,-9.077,-6.383,-15.33,4.37,-35.86,-10.47,-22.93,0,0,0,0,0,0,0,0,0,0,0,0,0,0,0,0,
184,-21.9,-48.21,-25.14,2.178,4.109,-43.41,-23.18,-6.727,-42.2,0.2172,-30.95,-27.02,-2.736,-39.01,-25.29,-32.83,0,0,0,0,0,0,0,0,0,0,0,0,0,0,0,0,
185,-19.33,-60.73,-29,5.518,-2.658,-30.96,-25.57,-14.06,-34.53,3.141,-43.94,-29.71,-3.648,-46.82,-36.01,-40.38,0,0,0,0,0,0,0,0,0,0,0,0,0,0,0,0,
186,-17.77,-83.09,-11.93,7.904,-4.234,-27.44,-29.1,-28.9,-33.99,-17.15,-38.95,-27.91,-4.863,-51.34,-31.45,-38.42,0,0,0,0,0,0,0,0,0,0,0,0,0,0,0,0,
187,-12.76,-90.58,-16.67,-5.598,-15.63,-38.2,-42.48,-34.5,-29.5,-36.85,-17.95,-17,-4.847,-51.94,-8.064,-19.34,0,0,0,0,0,0,0,0,0,0,0,0,0,0,0,0,
188,-6.81,-88.21,-28.68,-13.06,-2.865,-30.58,-51.08,-46.71,-13.56,-40.12,0.3435,-5.278,-3.717,-55.05,12.18,1.13,0,0,0,0,0,0,0,0,0,0,0,0,0,0,0,0,
189,7.215,-66.31,-20.36,2.552,18.29,-14.37,-32.22,-42.46,-16.88,-24.03,-1.301,-6.025,-3.362,-49.92,8.157,2.977,0,0,0,0,0,0,0,0,0,0,0,0,0,0,0,0,
190,4.253,-43.16,-27.74,6.533,-8.421,-24.69,-22.89,-21.24,-37.92,-7.372,-17.45,-18.29,-10.23,-39.81,-9.253,-8.248,0,0,0,0,0,0,0,0,0,0,0,0,0,0,0,0,
191,-23.29,-57.79,-33.54,0.8061,-14.31,-25.69,-37.19,-21.56,-37.25,-8.435,-18.45,-19.61,-14.43,-35.53,-18.84,-16.45,0,0,0,0,0,0,0,0,0,0,0,0,0,0,0,0,
192,-14.49,-66.98,-12.32,16,28.8,-1.816,-37.96,-27.59,-12.15,-14.35,-5.111,-8.828,-7.898,-31.72,-16.43,-16.14,0,0,0,0,0,0,0,0,0,0,0,0,0,0,0,0,
193,-0.0764,-49.18,-30.18,11.86,13.21,-21.37,-36.38,-23.8,-6.097,-9.09,-5.717,-3.75,-2.587,-21.53,-11.09,-8.436,0,0,0,0,0,0,0,0,0,0,0,0,0,0,0,0,
194,-10.19,-40.45,-62.21,-12.91,-17.18,-36.4,-34.92,-26,-14.82,6.226,-5.881,9.427,2.121,-7.853,-9.216,1.987,0,0,0,0,0,0,0,0,0,0,0,0,0,0,0,0,
195,29.3,-30.9,-31.68,4.306,24.25,21.08,-13.74,-20.03,-4.67,12.08,5.053,25.4,-1.096,-10.35,-12.08,1.921,0,0,0,0,0,0,0,0,0,0,0,0,0,0,0,0,
196,57.09,-33.09,-4.785,31.31,39.47,34.36,-7.622,-11.02,-4.433,-5.825,-4.081,11.75,-25.92,-34.78,-21.23,-15.1,0,0,0,0,0,0,0,0,0,0,0,0,0,0,0,0,
197,0.0377,-61.79,-17.62,24.82,10.96,-17.93,-16.43,-23.51,-22.94,-20.9,-23.86,-5.501,-39.82,-46.76,-31.13,-31.77,0,0,0,0,0,0,0,0,0,0,0,0,0,0,0,0,
198,-18.13,-61.91,-13.09,22.65,14.6,-14.35,-8.533,-27.72,-17.98,-11.25,-21.87,5.094,-23.21,-30.42,-29.9,-30.65,0,0,0,0,0,0,0,0,0,0,0,0,0,0,0,0,
199,22.53,-40.1,-11.83,20.08,12.99,6.369,-12.48,-9.598,-2.443,-1.388,-10.28,19.51,-9.191,-12.65,-16.96,-17.53,0,0,0,0,0,0,0,0,0,0,0,0,0,0,0,0,
200,26.27,-31.64,-26.36,6.056,10.4,-5.28,-18.02,-3.817,2.796,-0.3505,3.522,34.39,-0.2939,-3.563,-1.16,-2.559,0,0,0,0,0,0,0,0,0,0,0,0,0,0,0,0,
201,40.89,3.025,-11.22,23.48,38.58,15.51,12.05,1.121,14.18,13.46,24.69,55.71,17.07,6.474,12.37,10.79,0,0,0,0,0,0,0,0,0,0,0,0,0,0,0,0,
202,79.79,35.54,8.166,48.47,32.99,33.03,27.42,17.55,19.72,22.28,27.57,49.97,14.07,6.474,17.93,12.55,0,0,0,0,0,0,0,0,0,0,0,0,0,0,0,0,
203,65.43,3.55,3.779,34.53,18.43,13.92,9.197,4.726,15.55,3.801,7.763,25.97,-5.896,-7.243,10.99,-1.944,0,0,0,0,0,0,0,0,0,0,0,0,0,0,0,0,
204,43.14,-28.3,6.243,19.94,49.06,23.71,9.839,-17.28,18.87,-3.446,-2.321,27.18,-3.012,-14.4,-1.338,-17.43,0,0,0,0,0,0,0,0,0,0,0,0,0,0,0,0,
205,47.89,-20.19,3.481,20.33,42.29,24.07,9.049,-7.577,12.47,8.302,-2.214,29.88,3.848,-17.19,-10.53,-24.43,0,0,0,0,0,0,0,0,0,0,0,0,0,0,0,0,
206,25.72,-30.56,-21.95,3.917,-3.621,-19.84,-19.9,-12.21,-7.811,1.582,-3.186,12.59,-2.11,-17.74,-13.37,-26.9,0,0,0,0,0,0,0,0,0,0,0,0,0,0,0,0,
207,14.39,-45.16,-30.83,-9.076,-4.035,-26.23,-27.54,-31.04,-15.62,1.564,-0.9648,3.341,6.769,-1.79,-8.764,-21.52,0,0,0,0,0,0,0,0,0,0,0,0,0,0,0,0,
208,21.49,-35.91,-23.54,-7.18,-3.89,-21.55,-19.94,-16.84,-18.64,15.01,-17.33,-13.26,3.016,-1.683,-10.89,-15.7,0,0,0,0,0,0,0,0,0,0,0,0,0,0,0,0,
209,-21.45,-51,-38.05,-20.7,-34.7,-57.76,-41.7,-16.01,-34.75,-7.814,-44.78,-38.81,-31.97,-31.69,-29.96,-27.56,0,0,0,0,0,0,0,0,0,0,0,0,0,0,0,0,
210,-38.33,-71.83,-54.57,-26.62,-36.27,-57.64,-56.18,-37.21,-37.15,-30.05,-27.08,-23.41,-37.52,-33.98,-37,-40.84,0,0,0,0,0,0,0,0,0,0,0,0,0,0,0,0,
211,10.98,-49.28,-46.59,-5.431,-17.34,-27.96,-38.42,-23.07,-6.116,-10.98,14.04,6.167,-15.2,-10.17,-10.54,-29.29,0,0,0,0,0,0,0,0,0,0,0,0,0,0,0,0,
212,13.67,-29.45,-33.69,-4.028,-4.652,-30.72,-31.43,-12.85,16.03,-5.574,15.03,7.766,-17.97,-10.67,18.71,-8.352,0,0,0,0,0,0,0,0,0,0,0,0,0,0,0,0,
213,-0.5194,-38.85,-25.3,-18.32,10.88,-21.27,-41.27,-29.13,0.3167,-17.03,-0.6613,16.17,-28.9,-20.01,23.44,-2.218,0,0,0,0,0,0,0,0,0,0,0,0,0,0,0,0,
214,35.89,-44.73,-13.41,-1.707,17.24,6.088,-31.26,-23.88,-8.283,-9.126,7.592,32.97,-27.31,-18.89,16.89,-7.117,0,0,0,0,0,0,0,0,0,0,0,0,0,0,0,0,
215,46.2,-38.73,0.5448,20.95,24.43,7.879,-1.12,-21.79,16.83,-9.536,24.21,32.95,-28.32,-21.73,14.84,-11.02,0,0,0,0,0,0,0,0,0,0,0,0,0,0,0,0,
216,31.89,-21.58,10.33,19.38,33.69,-0.2249,11.46,-25.7,31.37,-23.09,21.45,27.65,-31.12,-23.22,13.88,-10.93,0,0,0,0,0,0,0,0,0,0,0,0,0,0,0,0,
217,40.12,-8.268,11.29,17.96,21.73,-0.4881,3.386,8.628,15.49,-16.68,-3.911,15.17,-29.05,-13.77,7.217,-9.288,0,0,0,0,0,0,0,0,0,0,0,0,0,0,0,0,
218,33.16,-18.1,8.504,15.9,11.53,1.266,2.446,19.89,1.831,-2.874,-22.24,-6.078,-27.83,-5.592,-4.244,-8.888,0,0,0,0,0,0,0,0,0,0,0,0,0,0,0,0,
219,11.32,-33.65,-2.326,-8.705,-1.427,-18.14,-12.22,-23.13,-7.067,-9.024,-21.74,-22.33,-37.76,-11.24,-16.2,-12.5,0,0,0,0,0,0,0,0,0,0,0,0,0,0,0,0,
220,-2.956,-45.97,-26.05,-29.44,-28.81,-55.48,-44.31,-31.3,-23.42,-22.75,-24.25,-29.43,-44.39,-12.57,-23.17,-17.43,0,0,0,0,0,0,0,0,0,0,0,0,0,0,0,0,
221,-9.72,-49.12,-36,-23.81,-28.07,-62.85,-41.7,-5.887,-24.82,-21.61,-25.46,-21.89,-27.41,2.128,-20.09,-15.87,0,0,0,0,0,0,0,0,0,0,0,0,0,0,0,0,
222,-2.075,-33.92,-32.44,-24.71,-30.33,-61.59,-28.49,-15.57,-19.03,-14.33,-21.1,-14.74,-18.95,-0.6593,-13.47,-12.37,0,0,0,0,0,0,0,0,0,0,0,0,0,0,0,0,
223,-5.18,-35.45,-38.04,-37.2,-53.67,-80.35,-44.73,-25.92,-28.74,-13.75,-17.37,-15.92,-33.66,-17.08,-10.48,-15.45,0,0,0,0,0,0,0,0,0,0,0,0,0,0,0,0,
224,-14.01,-59.25,-29.12,-26.09,-25.2,-71.7,-42.42,-6.507,-22.38,-12.47,3.804,1.689,-35.04,-13.05,-4.94,-18.94,0,0,0,0,0,0,0,0,0,0,0,0,0,0,0,0,
225,9.215,-63.94,-10.2,-6.055,10.38,-46.05,-18.59,-1.973,-3.91,-15.42,15.87,18.35,-32.13,-17.93,-1.667,-21.74,0,0,0,0,0,0,0,0,0,0,0,0,0,0,0,0,
226,26.45,-54.7,-18.75,-3.615,-9.873,-40.17,-19.74,-10.31,-14.34,-25.39,-13.19,4.405,-39.71,-36.14,-12.31,-28.78,0,0,0,0,0,0,0,0,0,0,0,0,0,0,0,0,
227,5.009,-51.67,-31.91,-6.572,-19.59,-47.07,-38.35,-6.604,-23.01,-24.2,-23.42,-3.527,-33.05,-21.94,-22.44,-30.68,0,0,0,0,0,0,0,0,0,0,0,0,0,0,0,0,
228,-16.88,-56.05,-35.61,-19.07,-17.45,-79.08,-54.45,-16.48,-8.54,-19.52,3.625,2.522,-28.64,-5.21,-18.67,-25.15,0,0,0,0,0,0,0,0,0,0,0,0,0,0,0,0,
229,-22.93,-68.9,-47.41,-40.17,-34.39,-107.3,-58.75,-33.13,-2.737,-26.56,7.401,-5.151,-42.21,-18.24,-12.49,-23.25,0,0,0,0,0,0,0,0,0,0,0,0,0,0,0,0,
230,-23.53,-70.25,-42.37,-39.66,-27.3,-87.77,-56.31,-21.55,-3.118,-26.77,-0.2185,-10.56,-47.03,-18.86,-7.022,-20.65,0,0,0,0,0,0,0,0,0,0,0,0,0,0,0,0,
231,-17.83,-60.97,-23.21,-28.09,-17.27,-66.01,-65.03,-19.79,-10.19,-20.81,4.926,-12.81,-55.12,-12.99,-0.6937,-13.35,0,0,0,0,0,0,0,0,0,0,0,0,0,0,0,0,
232,-24.96,-70.38,-38.1,-40.26,-49.42,-86.73,-71.4,-52.95,-34.7,-35.03,-10.03,-30.5,-77.34,-33.58,-7.236,-16.36,0,0,0,0,0,0,0,0,0,0,0,0,0,0,0,0,
233,-57.13,-80.02,-67.53,-61.82,-77.41,-117.8,-71.4,-52,-44.83,-50.99,-26.09,-33.8,-75.96,-43.32,-23.28,-29.4,0,0,0,0,0,0,0,0,0,0,0,0,0,0,0,0,
234,-64.38,-67.45,-58.6,-60.24,-58.98,-107.2,-75.71,-14.74,-36.33,-38.32,-18.89,-17.65,-59.07,-31.01,-31.25,-35.89,0,0,0,0,0,0,0,0,0,0,0,0,0,0,0,0,
235,-33.91,-64.43,-38.57,-49.5,-35.16,-77.21,-69.79,-24.27,-34.37,-24.86,-24.91,-22.16,-62.63,-35.32,-37.18,-39.21,0,0,0,0,0,0,0,0,0,0,0,0,0,0,0,0,
236,-33.58,-82.03,-49.84,-55.16,-44.49,-80.58,-66.42,-50.05,-26.9,-32.79,-31.81,-24.52,-63.81,-42.1,-43.08,-42.97,0,0,0,0,0,0,0,0,0,0,0,0,0,0,0,0,
237,-39.09,-84.2,-47.34,-52.01,-34.26,-62.35,-68.19,-26.98,-10.58,-32.94,-8.235,7.097,-45.41,-33.29,-31.84,-34.33,0,0,0,0,0,0,0,0,0,0,0,0,0,0,0,0,
238,3.147,-62.44,-11.57,-26.46,10.8,-16.5,-45.12,-5.959,2,-22.21,7.407,24.65,-32.22,-28.65,-11.88,-19.86,0,0,0,0,0,0,0,0,0,0,0,0,0,0,0,0,
239,8.394,-44.43,-3.255,-12.73,7.695,-33.4,-26.97,-4.317,15.69,-20.47,2.11,11.67,-25.19,-19.13,-2.603,-15.13,0,0,0,0,0,0,0,0,0,0,0,0,0,0,0,0,
240,-24.5,-29.65,1.034,-1.171,-13.86,-34.69,-19.29,11.76,15.35,-15.01,7.682,14.79,-14.36,-5.197,3.36,-13.09,0,0,0,0,0,0,0,0,0,0,0,0,0,0,0,0,
241,9.743,-2.176,41.74,23.67,18.76,29.66,14.9,14.32,-13.09,-9.463,11.23,22.3,-13.83,-16.66,7.315,-11.46,0,0,0,0,0,0,0,0,0,0,0,0,0,0,0,0,
242,38.41,11.56,39.7,16.75,24.04,10.49,16.31,13.52,-38.18,-21.08,-4.574,-1.375,-27.56,-36.95,-5.741,-21.03,0,0,0,0,0,0,0,0,0,0,0,0,0,0,0,0,
243,-9.517,-6.803,-0.1925,-8.042,-17.04,-53.84,-26.6,36.35,-35.94,-23.74,-17.89,-27.99,-38.24,-40.02,-29.09,-37.44,0,0,0,0,0,0,0,0,0,0,0,0,0,0,0,0,
244,-37.3,-23.52,8.776,3.239,-15.74,-31.79,-23.57,30.95,-26.52,-8.373,-25.78,-38.09,-41.33,-40.19,-45.41,-51.18,0,0,0,0,0,0,0,0,0,0,0,0,0,0,0,0,
245,-37.86,-30.14,17.99,18.37,-3.62,-14.84,-8.564,7.619,-30.02,-5.554,-37.51,-46.06,-50.05,-42.52,-54.67,-62.47,0,0,0,0,0,0,0,0,0,0,0,0,0,0,0,0,
246,-48.8,-42.71,0.1929,18.26,-14.23,-31.7,-29.26,25.75,-29.88,-12.36,-33.33,-37.01,-60.99,-41.51,-57.19,-68.95,0,0,0,0,0,0,0,0,0,0,0,0,0,0,0,0,
247,-21.04,-35.93,16.38,32.03,-1.714,-7.003,-20,42.99,-9.024,-14.47,-14.57,-14.61,-62.9,-47.03,-47.73,-67.7,0,0,0,0,0,0,0,0,0,0,0,0,0,0,0,0,
248,10.03,-12.44,30.73,34.19,9.274,5.832,-0.8788,27.34,8.659,-17.96,-7.922,-13.47,-65.65,-55.9,-35.03,-64.26,0,0,0,0,0,0,0,0,0,0,0,0,0,0,0,0,
249,4.085,-17.38,21.11,20.14,6.049,2.73,-15.77,25.07,1.603,-19.08,-8.585,-21.59,-68.45,-53.71,-34.49,-64.55,0,0,0,0,0,0,0,0,0,0,0,0,0,0,0,0,
250,22.52,-27.53,34.2,26.5,25.59,32.66,-9.63,34.33,-19.16,-25.22,-19.25,-28.83,-64.35,-49.38,-48.9,-69.2,0,0,0,0,0,0,0,0,0,0,0,0,0,0,0,0,
251,36.78,-1.196,39.03,33.32,35.67,31.53,12.15,32.5,-30.24,-35.71,-38.49,-42,-62.16,-44.11,-61.05,-68.74,0,0,0,0,0,0,0,0,0,0,0,0,0,0,0,0,
252,5.006,27.11,28.55,37.58,24.25,5.189,14.01,45.14,-9.106,-17.36,-19.16,-25.32,-47.56,-18.73,-45.24,-46.57,0,0,0,0,0,0,0,0,0,0,0,0,0,0,0,0,
253,3.191,22.26,46.35,59.77,27.27,17.77,18.62,61.91,9.688,8.716,10.87,1.267,-24.06,1.893,-12.27,-13.22,0,0,0,0,0,0,0,0,0,0,0,0,0,0,0,0,
254,25.37,-1.028,55.78,60.39,26.28,20.58,18.38,52.53,-20.78,6.798,-8.284,-14.71,-25.92,-3.567,-0.8489,-1.398,0,0,0,0,0,0,0,0,0,0,0,0,0,0,0,0,
255,11.99,-11.2,44.57,43.14,15.84,7.257,18.41,47.59,-38.49,11.99,-16.48,-20.89,-28.3,2.578,-7.121,-7.56,0,0,0,0,0,0,0,0,0,0,0,0,0,0,0,0,
256,2.262,3.881,45.17,45.53,10.79,13.88,34.76,49.37,-11.06,17.91,3.668,-3.159,-12.94,10.65,-8.054,-8.489,0,0,0,0,0,0,0,0,0,0,0,0,0,0,0,0,
257,0.0544,15.75,29.42,35.89,-1.774,-0.1405,22.86,27.96,-12.78,-2.104,-7.131,-14.23,-12,-2.646,-10.87,-8.581,0,0,0,0,0,0,0,0,0,0,0,0,0,0,0,0,
258,-9.809,19.32,13.07,27.09,9.142,-0.2193,0.7732,28.89,-18.22,7.718,-1.406,-4.121,-6.979,9.06,-9.587,-6.862,0,0,0,0,0,0,0,0,0,0,0,0,0,0,0,0,
259,25.96,36.97,38.33,53.43,45.63,53.53,21.98,63.07,22.4,39.71,35.82,37.62,8.188,26.83,7.119,5.113,0,0,0,0,0,0,0,0,0,0,0,0,0,0,0,0,
260,69.14,39.04,49.63,57.74,40.75,60.59,37.78,61.9,31.15,26.91,32.09,29.67,-3.277,4.299,16.05,9.946,0,0,0,0,0,0,0,0,0,0,0,0,0,0,0,0,
261,49.87,17.28,29.73,37.7,20,16.88,22.62,41.01,1.497,8.832,16.97,7.177,-15.88,-1.952,8.321,1.718,0,0,0,0,0,0,0,0,0,0,0,0,0,0,0,0,
262,32.42,16.71,35.58,44.56,38.5,24.03,21.9,46.85,4.147,19.91,20.9,20.81,-14.63,17.14,-0.6979,-3.945,0,0,0,0,0,0,0,0,0,0,0,0,0,0,0,0,
263,49.77,30.45,46.81,48.6,49.23,48,32.86,54.19,16.83,18.8,7.396,23.36,-24.67,8.217,-7.722,-6.588,0,0,0,0,0,0,0,0,0,0,0,0,0,0,0,0,
264,46.02,31.9,29.74,40.87,24.62,31.32,32.2,53.57,11.15,9.062,-2.802,12.1,-26.61,-4.602,-8.642,-8.024,0,0,0,0,0,0,0,0,0,0,0,0,0,0,0,0,
265,25.07,15.21,16.14,39.55,5.596,15.27,20.37,47.42,-8.133,9.197,-9.45,4.936,-23.15,-5.435,-6.833,-8.13,0,0,0,0,0,0,0,0,0,0,0,0,0,0,0,0,
266,13.22,-13.32,11.39,18.33,6.211,13.66,4.444,30.08,-40.33,6.092,-33.58,-11.13,-32.65,-12.65,-15.14,-13.75,0,0,0,0,0,0,0,0,0,0,0,0,0,0,0,0,
267,5.547,-3.806,-0.5418,1.446,1.483,-0.14,1.237,28.88,-45.6,6.56,-27.68,-13.3,-24.01,-4.12,-21.18,-15.52,0,0,0,0,0,0,0,0,0,0,0,0,0,0,0,0,
268,7.339,32.54,-1.706,17.33,-5.501,-8.11,15.45,35.94,-21.39,14.25,-2.583,1.656,-7.168,11.64,-14.4,-5.56,0,0,0,0,0,0,0,0,0,0,0,0,0,0,0,0,
269,16.42,24.57,10.12,25.1,18,12.56,35.82,25.38,-17.38,12.84,-6.929,7.203,-13.47,3.483,-8.053,0.4346,0,0,0,0,0,0,0,0,0,0,0,0,0,0,0,0,
270,21.26,9.026,9.787,22.81,36.99,21.25,44.37,34.3,-23.64,7.876,-2.12,14.4,-18.93,-4.1,-3.263,-0.4957,0,0,0,0,0,0,0,0,0,0,0,0,0,0,0,0,
271,20.96,19.17,8.161,33.99,11.24,3.912,31.99,66.26,-17.73,14.4,16.52,21.98,-18.21,4.952,2.304,1.341,0,0,0,0,0,0,0,0,0,0,0,0,0,0,0,0,
272,17.24,8.951,31.33,47.8,4.915,13.14,32.32,71.57,-17.35,23.4,7.606,16.41,-22.65,8.411,-0.419,0.0494,0,0,0,0,0,0,0,0,0,0,0,0,0,0,0,0,
273,14.58,7.836,44.56,57.89,23.01,21.83,54.8,60.71,-24.47,22.18,3.731,16.41,-19.32,6.03,-5.532,-4.428,0,0,0,0,0,0,0,0,0,0,0,0,0,0,0,0,
274,10.37,31.97,14.95,50.41,1.012,-7.162,57.45,59.61,-21.47,20.68,23.55,22.57,-13.64,13.56,-2.275,-0.3582,0,0,0,0,0,0,0,0,0,0,0,0,0,0,0,0,
275,10.87,28.62,-0.2466,31.07,-4.385,6.065,50.21,54.28,1.878,27.15,30.63,23.76,-10.25,24.8,5.911,10.69,0,0,0,0,0,0,0,0,0,0,0,0,0,0,0,0,
276,29.9,20.75,26.83,32.48,36.26,45.68,50.1,48.21,14.96,24.89,22.09,21.18,-12.5,15.6,12.27,16.26,0,0,0,0,0,0,0,0,0,0,0,0,0,0,0,0,
277,30.55,19.19,25.87,29.7,25.34,5.353,27.48,43.51,-21.85,5.435,1.453,-2.225,-40.59,-13.86,4.715,4.163,0,0,0,0,0,0,0,0,0,0,0,0,0,0,0,0,
278,-10.08,-10.58,-10.31,8.138,-31.03,-50.76,12.56,29.5,-63.12,-3.762,-27.09,-33.66,-65.89,-22.81,-19.27,-21.05,0,0,0,0,0,0,0,0,0,0,0,0,0,0,0,0,
279,-31.03,-21.23,-18.5,10.15,-38.07,-36.66,32.33,28.61,-56.53,13.5,-29.4,-37.07,-57.96,-4.112,-34.2,-33.05,0,0,0,0,0,0,0,0,0,0,0,0,0,0,0,0,
280,-20.56,-4.602,-17.58,11.7,-13.92,-24.09,23.5,40.11,-44.94,23.18,-19.68,-37.75,-60.17,-5.016,-30.76,-29.41,0,0,0,0,0,0,0,0,0,0,0,0,0,0,0,0,
281,-29.13,-29.79,-38.62,-20,-22.96,-47.74,-13.73,29.14,-51.81,8.362,-33.59,-48.89,-82.65,-24.82,-30.84,-33.4,0,0,0,0,0,0,0,0,0,0,0,0,0,0,0,0,
282,-27.47,-63.82,-35.52,-27.83,-34.05,-44.76,-10.62,12.7,-36.98,1.737,-36.3,-33.71,-81.44,-22.11,-34.82,-37.32,0,0,0,0,0,0,0,0,0,0,0,0,0,0,0,0,
283,6.41,-44.9,-7.533,-0.5046,-4.131,-14.24,16.85,16.48,-13.12,9.431,-15.27,-12.8,-63.52,-9.631,-29.01,-24.34,0,0,0,0,0,0,0,0,0,0,0,0,0,0,0,0,
284,10.95,-15.05,-3.812,4.946,13.67,-6.709,26.8,24.16,-20.96,14.28,-11.29,-14.26,-55.55,-10.25,-21.46,-9.688,0,0,0,0,0,0,0,0,0,0,0,0,0,0,0,0,
285,-8.429,-12.69,-5.767,-3.831,-11.96,-13.41,32.3,31.27,-35.41,16.17,-10.23,-7.345,-54.19,-14.28,-16.32,-5.233,0,0,0,0,0,0,0,0,0,0,0,0,0,0,0,0,
286,-3.865,-13.13,6.531,1.686,-22.51,-8.221,37.21,35.47,-31.08,2.951,4.097,1.663,-54.85,-24.26,-9.579,-8.22,0,0,0,0,0,0,0,0,0,0,0,0,0,0,0,0,
287,-2.895,-4.219,0.0567,-2.609,-6.444,-8.555,27.06,23.79,-32.24,-15.52,-0.4165,-8.358,-48.73,-33.11,-9.596,-18.24,0,0,0,0,0,0,0,0,0,0,0,0,0,0,0,0,
288,-13.09,-5.033,-20.59,-22.03,-7.155,-19.37,12.48,8.606,-39.55,-7.489,-11.1,-8.657,-35.14,-23.49,-14.63,-23.88,0,0,0,0,0,0,0,0,0,0,0,0,0,0,0,0,
289,-2.675,-16.16,-30.25,-26.8,-27.2,-26.03,15.15,10.35,-42.56,0.3811,-5.433,-0.311,-34.79,-14.95,-12.33,-16.56,0,0,0,0,0,0,0,0,0,0,0,0,0,0,0,0,
290,5.619,-16.98,-38.82,-22.29,-45.63,-32.85,23.1,26.21,-61.71,-12.47,-12.18,-14.15,-49.93,-20.56,-9.737,-9.335,0,0,0,0,0,0,0,0,0,0,0,0,0,0,0,0,
291,-18.02,-19.63,-52.29,-36.05,-54.47,-49.32,7.319,20.99,-79.71,-10.65,-31.14,-37.57,-60.31,-23.79,-17.25,-10.62,0,0,0,0,0,0,0,0,0,0,0,0,0,0,0,0,
292,-48.09,-35.2,-57.49,-47.6,-59.75,-66.55,-3.513,-8.445,-58.96,3.742,-25.58,-33.44,-49.06,-18.16,-21.64,-11.49,0,0,0,0,0,0,0,0,0,0,0,0,0,0,0,0,
293,-29.56,-21.3,-27.79,-17.44,-42.47,-35.59,26.96,8.294,-18.43,10.6,16.87,13.65,-19.37,-0.7334,-1.6,0.7281,0,0,0,0,0,0,0,0,0,0,0,0,0,0,0,0,
294,38.57,16.97,29.47,23.66,22.48,43.47,49.02,60.24,21.09,24.84,78.24,67.49,0.3079,24.58,43.3,30.86,0,0,0,0,0,0,0,0,0,0,0,0,0,0,0,0,
295,69.36,17.11,39.69,17.69,60.17,58.88,30.23,54.51,52.32,38.88,113.4,83.08,4.335,36.97,87.53,65.39,0,0,0,0,0,0,0,0,0,0,0,0,0,0,0,0,
296,40.34,1.635,-10.2,-17.45,4.07,-7.607,13.8,22.32,39.35,33.96,98.34,74.53,11.34,31.18,102.4,80.91,0,0,0,0,0,0,0,0,0,0,0,0,0,0,0,0,
297,20.61,8.873,-46.47,-37.19,-58.83,-47.95,1.312,17.37,-11.81,22.7,60.83,52.68,3.013,15.38,77.99,65.67,0,0,0,0,0,0,0,0,0,0,0,0,0,0,0,0,
298,-2.072,-10.47,-61.09,-47.72,-71.91,-59.78,-26.05,-0.5555,-44.26,12.83,19.24,6.968,-22.67,-1.853,28.67,29.72,0,0,0,0,0,0,0,0,0,0,0,0,0,0,0,0,
299,-46.15,-42.45,-75.43,-56.18,-83.35,-78.5,-28.03,-6.147,-42.87,5.034,-9.59,-12.34,-13.45,0.2936,-8.417,4.718,0,0,0,0,0,0,0,0,0,0,0,0,0,0,0,0,
300,-40.18,-12.05,-59.97,-48.94,-78.14,-61.94,2.728,24.47,-26.88,9.075,7.11,20.64,17.59,18.34,-4.556,12.88,0,0,0,0,0,0,0,0,0,0,0,0,0,0,0,0,
301,0.8306,21.26,-33.47,-40.17,-45.26,-31.44,6.786,21.48,-14.21,18.29,38.13,36.93,6.508,17.43,19.24,31.48,0,0,0,0,0,0,0,0,0,0,0,0,0,0,0,0,
302,2.154,-13.35,-41.22,-42.21,-45.71,-29.18,-15.78,1.357,-18.12,19.96,35.27,22.68,-15.59,6.644,25.44,31.4,0,0,0,0,0,0,0,0,0,0,0,0,0,0,0,0,
303,0.8412,-22.75,-48.08,-33,-58.04,-20.76,-4.562,11.42,-21.32,15.89,26.35,26.46,-4.517,15.1,17.34,22.51,0,0,0,0,0,0,0,0,0,0,0,0,0,0,0,0,
304,18.9,23.2,-30.43,-18.93,-40.38,-15.67,21.31,7.237,-11.57,10.27,24.08,26.13,-7.648,18.97,10.53,16.79,0,0,0,0,0,0,0,0,0,0,0,0,0,0,0,0,
305,1.454,12.85,-33.54,-25.49,-38.35,-33.84,10.72,0.0088,-13.55,10.85,5.019,3.647,-29.55,7.016,-0.5687,7.958,0,0,0,0,0,0,0,0,0,0,0,0,0,0,0,0,
306,-21.56,-28.09,-56.32,-29.64,-47.05,-29.25,3.308,16.11,-27.74,13.07,-4.667,-0.409,-25.04,3.514,-13.54,0.0475,0,0,0,0,0,0,0,0,0,0,0,0,0,0,0,0,
307,-4.008,-8.406,-60.08,-20.52,-39.71,-17.07,16.17,3.962,-27.02,0.6873,10.76,9.285,-18.32,3.273,-16.06,-1.106,0,0,0,0,0,0,0,0,0,0,0,0,0,0,0,0,
308,8.756,6.192,-46.53,-16.6,-40.28,-15.06,11.34,-4.739,-5.017,-0.9399,28.78,19.27,-11.51,12.83,-5.043,6.06,0,0,0,0,0,0,0,0,0,0,0,0,0,0,0,0,
309,18.86,-6.504,-17.94,3.806,-8.422,31.33,21.93,36.58,24.86,26.34,48,45.8,24.46,39.54,17.88,26.9,0,0,0,0,0,0,0,0,0,0,0,0,0,0,0,0,
310,47.2,15.97,3.497,25.52,46.1,60.64,47.04,40.03,38.42,31.43,55.1,54.89,35.1,37.68,36.16,44.84,0,0,0,0,0,0,0,0,0,0,0,0,0,0,0,0,
311,32.86,21.91,-18.48,3.098,24.25,12.52,28.28,-3.051,34.05,8.991,44.75,35.13,11.74,17.63,33.98,42.65,0,0,0,0,0,0,0,0,0,0,0,0,0,0,0,0,
312,-3.921,0.791,-33.68,-11.58,-17.73,3.518,14.57,6.216,28.62,15.23,43.84,33.66,21.99,31.11,27.83,41.33,0,0,0,0,0,0,0,0,0,0,0,0,0,0,0,0,
313,1.065,22.47,-16.23,6.057,-8.646,30.65,32.76,31.89,5.814,27.39,34.45,31.06,32.01,40.01,27.78,49.11,0,0,0,0,0,0,0,0,0,0,0,0,0,0,0,0,
314,-15.53,32.7,-28.16,-3.018,-21.11,-10.72,21.59,10.23,-23.6,6.11,11.19,6.752,4.707,20.78,21.02,43.37,0,0,0,0,0,0,0,0,0,0,0,0,0,0,0,0,
315,-57.98,8.015,-43.39,-10.92,-40.88,-38.55,10.09,1.483,-16.69,-5.465,18.5,10.34,-3.155,14.42,16.33,28.98,0,0,0,0,0,0,0,0,0,0,0,0,0,0,0,0,
316,-39.93,17.81,-23.88,8.26,-26.59,-11.47,20.55,16.96,-2.435,4.442,33.38,29.21,2.226,8.369,23.79,24.32,0,0,0,0,0,0,0,0,0,0,0,0,0,0,0,0,
317,-14.91,15.11,-31.04,-3.082,-32.58,-17.51,2.961,0.9542,-6.419,-0.3891,21.03,18.13,-13.67,-5.219,27.02,23.31,0,0,0,0,0,0,0,0,0,0,0,0,0,0,0,0,
318,-44.16,-25.4,-54.6,-25.23,-46.87,-36.6,-11.5,-17.59,1.492,-1.225,14.31,9.87,-8.799,11.46,25.53,26.14,0,0,0,0,0,0,0,0,0,0,0,0,0,0,0,0,
319,-53.98,-14.86,-43.99,-17.41,-43.15,-32.04,5.164,1.104,8.241,18.28,18.65,28.6,19.12,35.89,35.41,41.53,0,0,0,0,0,0,0,0,0,0,0,0,0,0,0,0,
320,-24.23,21.29,-34.49,-14.67,-39.04,-20.07,6.704,16.05,3.437,22.54,15.41,42.35,17.99,29.39,47.57,52.08,0,0,0,0,0,0,0,0,0,0,0,0,0,0,0,0,
321,-14.74,4.746,-42.14,-24.18,-16.51,-2.762,-7.073,1.655,8.772,11.09,13.4,37.46,0.0025,17.25,46.6,42.38,0,0,0,0,0,0,0,0,0,0,0,0,0,0,0,0,
322,-30.37,-21.76,-45.53,-31.6,-4.931,-13.44,-14.37,-11.97,7.348,6.576,17.76,30.64,3.137,19.9,42.46,32.61,0,0,0,0,0,0,0,0,0,0,0,0,0,0,0,0,
323,-39.5,-15.48,-46.96,-43.01,-31.79,-38.93,-19.13,-13.89,-0.279,-4.184,26.32,30.91,13.54,24.9,45.23,37.93,0,0,0,0,0,0,0,0,0,0,0,0,0,0,0,0,
324,-36.51,-1.175,-43.79,-47.22,-31.42,-30.73,-14.97,-13.75,13.01,-8.284,32.89,36.04,18.99,33.29,48.54,48.12,0,0,0,0,0,0,0,0,0,0,0,0,0,0,0,0,
325,-33.93,6.293,-30.62,-34.85,3.697,-17.15,-1.637,-4.147,27.51,15.91,35.39,42.49,30.22,44.57,52.37,59.11,0,0,0,0,0,0,0,0,0,0,0,0,0,0,0,0,
326,-37.37,-0.7377,-19.86,-20.5,8.765,-12.77,2.158,5.009,14.72,21.3,34.78,33.67,26.29,37.56,54.96,62.75,0,0,0,0,0,0,0,0,0,0,0,0,0,0,0,0,
327,-43.21,-21.56,-27.71,-26.44,-17.91,-13.96,-11.89,-3.703,-5.254,-5.394,22.55,9.327,3.189,19.36,43.8,44.65,0,0,0,0,0,0,0,0,0,0,0,0,0,0,0,0,
328,-35.63,-16.85,-28.58,-32.3,-20.21,-18.46,-4.681,-4.423,10.57,-6.486,23.35,14.36,12.96,25.77,32.91,27.67,0,0,0,0,0,0,0,0,0,0,0,0,0,0,0,0,
329,-4.843,25.3,6.096,2.608,10.08,12.47,42.98,15.83,36.69,14.04,49.44,47.98,49.22,49.23,46.32,39.78,0,0,0,0,0,0,0,0,0,0,0,0,0,0,0,0,
330,9.069,42.39,13.16,24.68,8.465,29.12,49.66,26.61,15.98,22.02,52.39,51.47,52.79,56.26,65.75,59.82,0,0,0,0,0,0,0,0,0,0,0,0,0,0,0,0,
331,-15.42,11.62,-22.64,-6.148,-14.97,-10.18,3.236,19.3,3.789,22.1,37.61,32.75,39.89,52.87,66.35,63.29,0,0,0,0,0,0,0,0,0,0,0,0,0,0,0,0,
332,-27.43,-0.3817,-13.36,-11.64,-1.174,-18.66,-1.535,8.448,34.03,4.879,40.24,26.18,35.41,48.52,54.22,55.02,0,0,0,0,0,0,0,0,0,0,0,0,0,0,0,0,
333,-23.95,7.968,4.934,5.129,-5.117,-7.668,2.325,0.4733,21.42,-16.12,33.67,12.43,6.494,32.21,37.44,40.22,0,0,0,0,0,0,0,0,0,0,0,0,0,0,0,0,
334,-39.56,-25.01,-22.32,-11.61,-29.05,-20.02,-27.46,-5.069,-6.266,-9.571,29.05,3.277,-24.8,21.26,26.82,28.86,0,0,0,0,0,0,0,0,0,0,0,0,0,0,0,0,
335,-38.74,-51.36,-3.698,0.3213,8.96,7.25,0.0698,-6.136,29.97,-2.413,53.48,26.52,-11.47,34.09,38.38,34.6,0,0,0,0,0,0,0,0,0,0,0,0,0,0,0,0,
336,-13.93,-18.41,42.53,40.97,35.69,32.97,46.48,8.742,51.51,-3.893,59.27,42.54,4.523,42.65,57.06,44.28,0,0,0,0,0,0,0,0,0,0,0,0,0,0,0,0,
337,-13.78,-1.87,14.69,27.15,-4.229,10.81,11.21,21.33,17.78,2.455,32.8,24.2,-11.6,30.13,53.38,37.18,0,0,0,0,0,0,0,0,0,0,0,0,0,0,0,0,
338,-29.98,-25.12,-21.9,0.1212,-13.78,12.12,-22.07,4.592,3.76,-8.182,17.99,5.517,-21.47,19.69,31.3,20.03,0,0,0,0,0,0,0,0,0,0,0,0,0,0,0,0,
339,-37.21,-24.82,-6.828,12.89,3.382,15.24,-0.4779,-3.414,13.86,-19.31,23.67,8.382,-13.12,20.6,14.92,10.43,0,0,0,0,0,0,0,0,0,0,0,0,0,0,0,0,
340,-36.59,-3.792,9.164,29.08,-5.7,-3.067,16.66,20.04,18.38,2.119,36.12,22.9,-3.885,27.75,15.75,15.64,0,0,0,0,0,0,0,0,0,0,0,0,0,0,0,0,
341,-24.7,12.39,17.49,36.56,-0.8433,17.34,27.64,27.25,26.57,13.19,41.9,32.14,8.241,40.03,29.76,33.3,0,0,0,0,0,0,0,0,0,0,0,0,0,0,0,0,
342,-21.29,12.89,14.64,26.9,4.997,28.83,17.92,7.742,28.44,1.882,32.45,23.64,13.99,45.5,40.77,48.71,0,0,0,0,0,0,0,0,0,0,0,0,0,0,0,0,
343,-40.44,-14.2,-18.42,-7.481,-26.94,-13.06,-24.29,-5.171,17.87,8.728,17.09,4.007,5.853,43.57,33.47,45.93,0,0,0,0,0,0,0,0,0,0,0,0,0,0,0,0,
344,-57.13,-29.4,-34.61,-18.15,-48.86,-37.61,-28.11,-3.138,9.819,16.81,0.816,-13.46,-4.661,43.91,13.39,28.46,0,0,0,0,0,0,0,0,0,0,0,0,0,0,0,0,
345,-62.42,-22.83,-18.51,-0.7968,-35.72,-26.8,-4.436,5.376,-0.7227,1.345,-14.97,-28.61,-18.82,33.95,-2.974,10.52,0,0,0,0,0,0,0,0,0,0,0,0,0,0,0,0,
346,-63.65,-36.47,-22.21,-1.318,-28.86,-20.6,-18.86,6.318,-9.245,-9.406,-19.68,-39.5,-33.04,16.85,-8.567,1.29,0,0,0,0,0,0,0,0,0,0,0,0,0,0,0,0,
347,-66.21,-44.39,-37.71,-8.636,-41.27,-29.11,-31.92,-3.867,-5.198,-3.293,-16.64,-40.77,-39.63,14.75,-5.695,3.362,0,0,0,0,0,0,0,0,0,0,0,0,0,0,0,0,
348,-73,-30.84,-31.57,-2.283,-45.57,-32.81,-17.72,-2.679,-8.592,-2.159,-15.46,-34.34,-43.45,18.87,-1.361,9.855,0,0,0,0,0,0,0,0,0,0,0,0,0,0,0,0,
349,-59.14,-25.14,-20.47,9.881,-33.79,-12.06,-10.01,15.81,-7.063,-4.866,-6.351,-19.9,-30.52,23.71,2.011,15.68,0,0,0,0,0,0,0,0,0,0,0,0,0,0,0,0,
350,-34.68,-10.85,-13.76,21.25,-30.69,-5.854,-10,16.68,13.89,0.4484,3.918,-14.92,-14.96,30.45,6.79,22.8,0,0,0,0,0,0,0,0,0,0,0,0,0,0,0,0,
351,-53.25,-14.08,-17.03,5.192,-46.22,-35.21,-29.49,-9.99,-4.21,-5.653,-13.7,-44.18,-43.23,11.15,2.879,20.34,0,0,0,0,0,0,0,0,0,0,0,0,0,0,0,0,
352,-82,-62.66,-32.11,-24.15,-53.85,-34.01,-54.24,-15.42,-46.36,-25.11,-33.31,-68.3,-74.29,-19.32,-11.08,4.596,0,0,0,0,0,0,0,0,0,0,0,0,0,0,0,0,
353,-61.45,-68.29,-15.29,-2.725,-30.86,4.823,-15.8,7.16,-19.51,-24.2,-10.63,-38.71,-50.74,-13.12,-7.046,3.695,0,0,0,0,0,0,0,0,0,0,0,0,0,0,0,0,
354,-32.82,-18.63,25.35,38.04,5.477,19.75,42.26,10.99,34.29,-7.05,17.45,3.299,-21.33,4.333,21.47,26.75,0,0,0,0,0,0,0,0,0,0,0,0,0,0,0,0,
355,-29.01,-11.61,24.78,31.7,15.31,12.4,26.27,16.98,33.95,3.425,17.93,15.79,-16.57,2.053,44.63,45.25,0,0,0,0,0,0,0,0,0,0,0,0,0,0,0,0,
356,-21.01,-34.19,6.784,21.02,-4.02,9.796,-3.906,45.83,19.91,7.606,22.72,24.45,-4.347,6.577,51.56,48.63,0,0,0,0,0,0,0,0,0,0,0,0,0,0,0,0,
357,-7.31,-19.5,16.32,35.41,-8.358,16.95,18.74,40.36,23.96,-4.362,31.58,36.03,6.12,14.45,50.3,46.37,0,0,0,0,0,0,0,0,0,0,0,0,0,0,0,0,
358,-1.875,5.136,19.38,32.3,6.977,26.86,31.26,12.5,23.28,-15.84,25.93,27.81,2.176,9.354,41.11,39.95,0,0,0,0,0,0,0,0,0,0,0,0,0,0,0,0,
359,-9.807,-5.413,4.677,22.06,-4.917,15.31,14.23,19.71,19.94,4.246,20.83,5.436,0.9872,12.94,30.9,35.77,0,0,0,0,0,0,0,0,0,0,0,0,0,0,0,0,
360,-30,-25.76,-1.609,29.4,-33.11,-5.047,15.18,24.94,20.75,14.12,15.4,-9.099,0.168,22.06,27.12,37.55,0,0,0,0,0,0,0,0,0,0,0,0,0,0,0,0,
361,-30.87,-19.6,-2.3,27.71,-28.45,-2.707,14.87,7.367,19.48,-4.542,6.247,-6.343,1.837,22.82,24.08,35.33,0,0,0,0,0,0,0,0,0,0,0,0,0,0,0,0,
362,-7.42,-13.01,-0.9226,19.77,-11.49,7.958,-1.265,9.462,13.97,2.964,8.171,4.075,13.48,32.24,22.28,32.04,0,0,0,0,0,0,0,0,0,0,0,0,0,0,0,0,
363,-5.827,-24.81,-3.457,22.08,-19.87,9.705,0.8127,18.89,4.362,19.38,11.51,4.742,17.88,40.83,26,36.55,0,0,0,0,0,0,0,0,0,0,0,0,0,0,0,0,
364,-25.04,-22.1,-18.92,16.32,-31,1.425,8.331,18.46,-3.127,5.536,9.701,-1.393,19.93,32.71,28.23,41.36,0,0,0,0,0,0,0,0,0,0,0,0,0,0,0,0,
365,-20.07,-4.412,-21,12.94,-22.13,-8.158,7.6,24.69,2.752,4.8,19.24,0.7276,36.39,31.81,25.99,41.19,0,0,0,0,0,0,0,0,0,0,0,0,0,0,0,0,
366,-8.585,2.102,-13.78,17.43,-25.04,-10.11,13.76,10.72,10.95,15.77,25.37,2.187,36.76,32.06,23.05,35.07,0,0,0,0,0,0,0,0,0,0,0,0,0,0,0,0,
367,-34.36,-5.054,-30.8,-0.8969,-56.72,-27.15,5.453,-13.74,-1.231,-2.568,12.54,-3.461,15.29,16.03,20.64,22.44,0,0,0,0,0,0,0,0,0,0,0,0,0,0,0,0,
368,-45,-8.628,-19.76,0.1718,-44.62,-26.75,0.9048,17.23,0.3086,-4.636,21.31,15.05,26.62,22.07,29.51,24.2,0,0,0,0,0,0,0,0,0,0,0,0,0,0,0,0,
369,15.74,15.97,40.38,49.53,28.55,33.25,35.09,55.04,44.05,26.72,56.3,49.27,55.93,44.43,51.59,50.17,0,0,0,0,0,0,0,0,0,0,0,0,0,0,0,0,
370,52.77,36.63,42.4,55.56,32.9,49.95,46.45,26.38,57.14,24.22,54.25,43.29,44.87,32.01,58.03,66.24,0,0,0,0,0,0,0,0,0,0,0,0,0,0,0,0,
371,8.777,21.46,-10.47,15.63,-35.93,-2.792,25.37,4.953,19.69,1.118,28.54,24.82,34.12,23.02,41.8,58.41,0,0,0,0,0,0,0,0,0,0,0,0,0,0,0,0,
372,-4.784,23.46,-9.31,19.43,-38.13,2.14,35.39,27.67,12.51,10.26,33.26,36.45,51.61,47.86,31.85,53.12,0,0,0,0,0,0,0,0,0,0,0,0,0,0,0,0,
373,21.52,37.04,7.893,27.57,-8.011,33.27,38.78,23.74,24.89,12.9,30.94,27.32,42.8,51.15,29.35,53.18,0,0,0,0,0,0,0,0,0,0,0,0,0,0,0,0,
374,9.553,22.87,-7.128,6.664,-15.91,21.42,19.93,7.067,18.34,1.337,18.93,11.7,30.32,44.48,26.98,51.97,0,0,0,0,0,0,0,0,0,0,0,0,0,0,0,0,
375,18.69,33.24,3.886,17.99,0.0066,33.03,32.89,15.64,28.18,20.39,43.9,43.9,49.18,58.56,40.44,61.07,0,0,0,0,0,0,0,0,0,0,0,0,0,0,0,0,
376,45.05,56.27,14.44,30.85,6.173,39.02,36.28,12.93,30.2,24.61,45.58,53.53,46.76,45.57,51.03,66.17,0,0,0,0,0,0,0,0,0,0,0,0,0,0,0,0,
377,5.764,51.28,-12.13,9.456,-29.06,6.452,15.26,6.383,1.178,-5.796,5.611,23.67,38.6,26.48,34.91,52.08,0,0,0,0,0,0,0,0,0,0,0,0,0,0,0,0,
378,-19.78,72,-15.08,11.25,-21.33,7.569,30.24,15.17,-0.2442,6.048,12.7,32.44,62.34,47.7,24.28,43.18,0,0,0,0,0,0,0,0,0,0,0,0,0,0,0,0,
379,-0.1896,86.89,-10.14,21.6,-17.72,-0.3555,40.43,5.029,7.082,38.41,33.53,41.34,54.85,48.5,31.55,42.38,0,0,0,0,0,0,0,0,0,0,0,0,0,0,0,0,
380,-17.76,40.37,-37.96,1.81,-62.19,-40,10.09,-5.611,-17.92,24.22,5.833,13.09,13.25,17.5,27.94,26.22,0,0,0,0,0,0,0,0,0,0,0,0,0,0,0,0,
381,-23.34,11.71,-39.53,-4.632,-46.02,-20.38,-0.7514,11.83,-12.08,5.842,-0.7273,12.17,9.41,17.89,20.06,7.419,0,0,0,0,0,0,0,0,0,0,0,0,0,0,0,0,
382,7.046,33.06,-14.38,3.636,-4.308,9.358,7.588,12.43,26.68,8.475,25.08,32.6,31.6,32.19,24.54,6.556,0,0,0,0,0,0,0,0,0,0,0,0,0,0,0,0,
383,-3.444,50.48,-20.86,-6.612,-37.4,-21.63,-2.461,-7.517,23.23,7.553,19.05,29.53,36.02,24.08,25.94,11.49,0,0,0,0,0,0,0,0,0,0,0,0,0,0,0,0,
384,-27.08,49.91,-27.39,-5.869,-62.42,-37.72,0.3246,0.2151,2.078,18.6,5.418,20.29,31.96,15.7,16.35,9.405,0,0,0,0,0,0,0,0,0,0,0,0,0,0,0,0,
385,-17.26,58.35,-1.137,25.13,-21.43,0.6096,40.31,29.59,13.33,36.69,13.42,17.07,37.05,19.48,4.204,3.427,0,0,0,0,0,0,0,0,0,0,0,0,0,0,0,0,
386,1.614,91.88,16.24,50.44,12.89,36.95,60.87,48.59,22.38,30.52,2.403,5.574,26.87,10.76,-11,-8.338,0,0,0,0,0,0,0,0,0,0,0,0,0,0,0,0,
387,-2.295,78.04,1.811,41.05,-5.014,8.709,15.52,38.09,6.206,6.353,-36.95,-25.12,-20.79,-23.92,-34.46,-32.78,0,0,0,0,0,0,0,0,0,0,0,0,0,0,0,0,
388,-44.36,-7.654,-17.13,17.5,-38.08,-44.75,-29.31,9.655,-8.897,-11.21,-59.56,-51.2,-50.95,-45.83,-56.39,-55.62,0,0,0,0,0,0,0,0,0,0,0,0,0,0,0,0,
389,-58.6,-31.35,-10.14,19.93,-24.83,-19.83,-16.81,14.76,-14.1,-5.485,-49.43,-39.94,-31.44,-30.89,-56.95,-53.78,0,0,0,0,0,0,0,0,0,0,0,0,0,0,0,0,
390,-21.97,11.53,7.553,30.43,2.509,17.47,-3.75,32.15,-20.83,2.79,-49.16,-37.79,-27.32,-21.92,-44.51,-40.56,0,0,0,0,0,0,0,0,0,0,0,0,0,0,0,0,
391,-40.13,10.87,2.014,18.3,-17.51,-21.24,-5.869,6.416,-30.03,-14.44,-73.31,-72.78,-46.12,-27.65,-44.64,-39.89,0,0,0,0,0,0,0,0,0,0,0,0,0,0,0,0,
392,-87.2,9.021,-1.699,23,-30.18,-32.33,11.31,-1.607,-31.09,-21.99,-69.23,-69.5,-38,-16.82,-43.4,-37.23,0,0,0,0,0,0,0,0,0,0,0,0,0,0,0,0,
393,-64.04,23,14.2,47.29,-14.8,-0.6547,12.51,24.78,-17.19,-3.803,-33.19,-26.53,-23.68,-6.92,-18.7,-18.83,0,0,0,0,0,0,0,0,0,0,0,0,0,0,0,0,
394,-36.29,8.699,13.26,37.12,-17.47,-3.939,0.1558,3.318,-3.715,-5.532,-24.62,-21.1,-16.14,-9.128,5.52,-2.261,0,0,0,0,0,0,0,0,0,0,0,0,0,0,0,0,
395,-38.11,27.02,7.322,18.4,-3.755,6.788,16.05,-15.19,-10.75,-11.1,-36.46,-30.28,8.593,3.763,9.742,7.263,0,0,0,0,0,0,0,0,0,0,0,0,0,0,0,0,
396,-20.19,60.8,16.6,28.17,18.19,23.89,21.52,34.75,-16.39,24.87,-25.26,-8.863,30.77,31.78,12.92,23.48,0,0,0,0,0,0,0,0,0,0,0,0,0,0,0,0,
397,-18.17,42.58,12.12,33.02,-4.388,-2.952,8.7,60.09,0.3744,54.04,-9.318,6.023,32.68,48.68,21.79,39.65,0,0,0,0,0,0,0,0,0,0,0,0,0,0,0,0,
398,-31.14,35.45,11.85,31.06,-15.04,-4.808,18.3,31.18,2.974,30.74,-6.776,-1.176,31.61,41.64,24.51,39.83,0,0,0,0,0,0,0,0,0,0,0,0,0,0,0,0,
399,-1.778,51.03,33.91,42.98,11.53,29.16,27.39,25.6,-4.974,10.17,4.705,2.762,38.94,30.92,28.11,35.34,0,0,0,0,0,0,0,0,0,0,0,0,0,0,0,0,
400,28.93,42.34,38.29,54.17,21.42,36.96,27.76,39.16,28.12,25.73,18.14,13.11,45.58,33.64,38.36,39.47,0,0,0,0,0,0,0,0,0,0,0,0,0,0,0,0,
401,9.184,39.12,24.74,53.08,10.82,16.46,34.16,27.49,55,26.86,5.397,-1.462,29.16,24.36,34.55,33.38,0,0,0,0,0,0,0,0,0,0,0,0,0,0,0,0,
402,-25.68,34.99,13.92,39.55,-7.108,-5.567,18.62,8.409,17.4,1.996,-20.91,-32.04,-0.2809,-0.8133,6.447,3.733,0,0,0,0,0,0,0,0,0,0,0,0,0,0,0,0,
403,-36.55,14.58,3.834,29.51,-18.56,7.512,-2.893,7.595,-21.1,-3.212,-36.44,-50.29,-9.416,-9.489,-24.08,-27.57,0,0,0,0,0,0,0,0,0,0,0,0,0,0,0,0,
404,-32.13,18.17,14.12,41.91,-4.613,42.15,12.92,11.73,-13.95,11.86,-43.65,-52.44,-3.794,-3.3,-35.35,-36.7,0,0,0,0,0,0,0,0,0,0,0,0,0,0,0,0,
405,-34.12,27.06,42.46,58.04,13.1,40.15,36.27,15.71,4.633,16.63,-51.45,-49.96,-3.424,-2.159,-29.58,-25.86,0,0,0,0,0,0,0,0,0,0,0,0,0,0,0,0,
406,-49.25,9.016,45.19,54.83,8.418,15.04,25.23,24.69,0.3944,7.358,-68.45,-60.31,-14.81,-12,-28.78,-21.2,0,0,0,0,0,0,0,0,0,0,0,0,0,0,0,0,
407,-65.97,-3.542,19.58,36.6,-13.3,6.628,3.21,17.92,-29.92,-2.488,-85.28,-76.01,-27.05,-23.25,-44.97,-38.85,0,0,0,0,0,0,0,0,0,0,0,0,0,0,0,0,
408,-54.85,11.14,13.1,30.65,-16.75,20.02,13.49,8.616,-37.84,1.179,-72.41,-63.59,-12.85,-16.7,-55.07,-53.08,0,0,0,0,0,0,0,0,0,0,0,0,0,0,0,0,
409,-27.18,36.76,31.12,49.56,4.243,31.58,33.6,18.66,-10.48,8.84,-50.23,-47.33,6.738,-11.67,-44.35,-45.11,0,0,0,0,0,0,0,0,0,0,0,0,0,0,0,0,
410,-34.95,42.2,20.74,46.21,-1.404,17.41,16.79,2.615,-15.16,1.856,-58.39,-62.84,-0.7228,-28.1,-37.13,-39.27,0,0,0,0,0,0,0,0,0,0,0,0,0,0,0,0,
411,-47.34,24.58,-5.901,15.88,-15.2,20,0.2852,-24.78,-40.27,-1.308,-66.69,-67.24,3.179,-28.53,-40.95,-43.08,0,0,0,0,0,0,0,0,0,0,0,0,0,0,0,0,
412,-24.2,23.15,8.739,23.94,6.074,40.15,20.6,-2.888,-22.07,11.09,-53.04,-49.94,26.67,-10.96,-37.29,-38.68,0,0,0,0,0,0,0,0,0,0,0,0,0,0,0,0,
413,-24.25,31.38,24.48,44.53,8.684,18.07,25.38,10.91,4.216,12.52,-51.16,-54.41,20.69,-18.35,-33.09,-36.56,0,0,0,0,0,0,0,0,0,0,0,0,0,0,0,0,
414,-48.58,7.995,0.5805,23.25,-14.79,-3.631,0.1907,-15.38,-5.757,-1.408,-61.97,-62.12,2.982,-31.94,-40.11,-48.1,0,0,0,0,0,0,0,0,0,0,0,0,0,0,0,0,
415,-49.5,-11.53,-9.168,12.93,-15.24,5.688,0.5087,-10.17,-21.24,-5.295,-62.34,-48.22,21.3,-17.87,-42.69,-50.98,0,0,0,0,0,0,0,0,0,0,0,0,0,0,0,0,
416,-47.7,25.1,7.5,39.08,-8.943,10.69,27.14,18.02,-16.16,8.143,-57.71,-39.88,48.48,-3.65,-36.69,-39.35,0,0,0,0,0,0,0,0,0,0,0,0,0,0,0,0,
417,-39.03,64.77,9.271,46.34,-4.779,31.49,31.27,13.55,-17.21,13.72,-64.75,-53.8,32.86,-16.91,-44.02,-41.95,0,0,0,0,0,0,0,0,0,0,0,0,0,0,0,0,
418,-26.06,45.65,-2.005,27.13,-2.342,43.29,15.52,-11.66,-41.87,-5.616,-83.97,-74.39,-2.396,-34.78,-67.49,-64.6,0,0,0,0,0,0,0,0,0,0,0,0,0,0,0,0,
419,-41.24,22.69,-2.999,20.26,-14.76,24.99,20.44,-25.55,-38.41,-15.99,-82.11,-67.23,3.39,-26.64,-77.44,-74.44,0,0,0,0,0,0,0,0,0,0,0,0,0,0,0,0,
420,-36.64,41.26,17.59,31.58,-1.474,48.9,35.69,-7.615,15.25,5.291,-42.41,-30.55,33.4,-2.126,-54.71,-52.24,0,0,0,0,0,0,0,0,0,0,0,0,0,0,0,0,
421,2.092,52.39,50.32,42.69,45.98,92.05,33.41,25.65,57.87,19.75,0.5917,-2.874,41.37,15.05,-13.22,-15.6,0,0,0,0,0,0,0,0,0,0,0,0,0,0,0,0,
422,25.42,50.9,64.42,50.71,66.49,93.02,38.48,31.77,68.34,13.98,27.57,14.67,45.52,26,23.76,10.73,0,0,0,0,0,0,0,0,0,0,0,0,0,0,0,0,
423,41.44,66.91,52.88,57.37,54.81,88.91,59.08,20.8,63.53,20.05,32.35,25.51,52.39,31.38,38.3,17.17,0,0,0,0,0,0,0,0,0,0,0,0,0,0,0,0,
424,40.57,69.85,43.51,52.59,53.93,93.49,58.12,19.74,37.23,30.01,-0.2664,6.373,36.42,19.31,21.24,6.168,0,0,0,0,0,0,0,0,0,0,0,0,0,0,0,0,
425,14.56,47.15,41.36,33.94,56.57,87.86,30.68,8.887,9.059,12.51,-44.58,-23.93,9.235,-7.108,-16.12,-18.29,0,0,0,0,0,0,0,0,0,0,0,0,0,0,0,0,
426,1.716,16.82,22.3,7.666,27.47,60.44,1.11,-19.02,-2.394,-15.93,-66.3,-43.12,-13.2,-28.25,-49.4,-47.53,0,0,0,0,0,0,0,0,0,0,0,0,0,0,0,0,
427,-19.47,-15.47,1.298,-15.79,-5.221,16.31,-15.75,-30.24,-6.883,-23.59,-64.75,-57.34,-24.87,-28.37,-59.02,-59.19,0,0,0,0,0,0,0,0,0,0,0,0,0,0,0,0,
428,-45.13,-19.45,6.141,-22.62,2.943,7.92,-22.39,-20.17,-6.121,-21.15,-53.54,-59.9,-23.78,-21.84,-45.39,-47.31,0,0,0,0,0,0,0,0,0,0,0,0,0,0,0,0,
429,-32.24,-7.927,2.865,-25.11,6.822,14.2,-40.92,-31.09,-11.87,-25.11,-60,-64.75,-37.19,-33.32,-37.4,-43.02,0,0,0,0,0,0,0,0,0,0,0,0,0,0,0,0,
430,-35.01,-34.7,-22.54,-40.34,-21.96,-18.04,-68.09,-62.07,-24.01,-23.08,-75.82,-77.07,-54.41,-42.13,-52.54,-58.91,0,0,0,0,0,0,0,0,0,0,0,0,0,0,0,0,
431,-60.7,-54.77,-20.79,-45.01,-28.14,-23.56,-62.51,-54.92,-18.54,-14.53,-60.86,-61.82,-35.86,-26.89,-64.34,-67.4,0,0,0,0,0,0,0,0,0,0,0,0,0,0,0,0,
432,-50.39,-21.41,-1.108,-27.37,-20.04,-0.5302,-23.55,-23.28,-6.407,-13.85,-42.17,-41.65,-18.6,-20.85,-55.71,-61.98,0,0,0,0,0,0,0,0,0,0,0,0,0,0,0,0,
433,-60.13,-6.54,-12.63,-23.7,-35.33,-26.22,-14.24,-32.45,-13.96,-20.68,-59.09,-58.6,-33.82,-37.86,-51.71,-63.61,0,0,0,0,0,0,0,0,0,0,0,0,0,0,0,0,
434,-99.12,-41.87,-30.33,-43.85,-37.98,-42.84,-56.17,-51.12,-40.86,-32.31,-79.44,-76.68,-39.08,-49.28,-66.45,-75.01,0,0,0,0,0,0,0,0,0,0,0,0,0,0,0,0,
435,-74.59,-62.92,-20.01,-50.32,-30.19,-17.58,-75.1,-38.14,-52.45,-39.71,-77.08,-67.97,-28.31,-51.65,-78.96,-83.64,0,0,0,0,0,0,0,0,0,0,0,0,0,0,0,0,
436,-34.07,-50.3,-4.034,-38.95,-29.6,-16.81,-37.74,-42.99,-11.26,-34.35,-65.29,-54.71,-24.33,-53.63,-71.95,-79.64,0,0,0,0,0,0,0,0,0,0,0,0,0,0,0,0,
437,-49.04,-45.2,1.789,-40.76,3.902,-6.475,-24.23,-66.6,26.88,-33.49,-59.9,-52.58,-18.6,-50.04,-57.47,-64.09,0,0,0,0,0,0,0,0,0,0,0,0,0,0,0,0,
438,-54.21,-62.6,2.261,-47.5,27.84,24.46,-55.16,-56.42,-0.0675,-38.54,-66.74,-65.7,-11.82,-41.17,-56.61,-54.34,0,0,0,0,0,0,0,0,0,0,0,0,0,0,0,0,
439,-43.29,-66.39,0.9203,-36.05,-10.47,1.242,-53.33,-35.74,-19.92,-32.46,-65.42,-76.16,-3.997,-28.64,-64.7,-57.39,0,0,0,0,0,0,0,0,0,0,0,0,0,0,0,0,
440,-58.14,-34.28,8.877,-25.07,-25.89,-21.13,-23.03,-40.96,-0.6883,-28.24,-48.35,-65.24,8.336,-21.33,-62.96,-59.56,0,0,0,0,0,0,0,0,0,0,0,0,0,0,0,0,
441,-47.75,-11.2,21.69,-28.52,3.024,17.01,-19.35,-49.48,-10.49,-27.54,-45.16,-54.27,5.778,-27.42,-53.91,-55.87,0,0,0,0,0,0,0,0,0,0,0,0,0,0,0,0,
442,-14.96,-23.79,24.42,-26.35,2.322,33.72,-23.2,-38.53,-22.83,-13.1,-53.38,-50.37,-0.4163,-27.62,-47.44,-49.77,0,0,0,0,0,0,0,0,0,0,0,0,0,0,0,0,
443,-26.24,-28.17,27,-13.97,-8.1,13.71,-14.8,-20.6,-2.543,-4.663,-43.75,-35.67,14.52,-14.43,-40.78,-41.85,0,0,0,0,0,0,0,0,0,0,0,0,0,0,0,0,
444,-41.24,-8.986,34.77,-6.407,-3.904,19.44,-5.263,-21.34,-2.329,-12.83,-28.76,-23.56,25.47,-10.83,-35.58,-40.07,0,0,0,0,0,0,0,0,0,0,0,0,0,0,0,0,
445,-16.4,4.877,35.78,-8.794,-7.32,31.61,5.204,-34.66,-9.357,-13.14,-33.39,-23.16,17.49,-18.21,-35.63,-46.34,0,0,0,0,0,0,0,0,0,0,0,0,0,0,0,0,
446,-7.38,4.508,26.62,-23.13,-6.037,8.723,-5.364,-34.2,6.115,-6.906,-40.9,-15.37,14.59,-17.09,-33.58,-46.56,0,0,0,0,0,0,0,0,0,0,0,0,0,0,0,0,
447,-31.23,-7.024,10.03,-39.69,-9.935,-22.87,-32.68,-25.77,8.022,-7.26,-30.19,-6.865,22.62,-10.06,-27.82,-37.08,0,0,0,0,0,0,0,0,0,0,0,0,0,0,0,0,
448,-47.54,-18.83,3.215,-37.56,-17.18,-16.44,-28.05,-22.81,0.6386,-7.827,-23.86,-17.11,29.72,-9.486,-25.92,-28.23,0,0,0,0,0,0,0,0,0,0,0,0,0,0,0,0,
449,-50.31,-19.42,14.42,-30.38,0.6412,4.153,-13.28,-22.28,-2.724,-5.407,-35.04,-30.45,30,-8.174,-24.97,-23.19,0,0,0,0,0,0,0,0,0,0,0,0,0,0,0,0,
450,-46.08,-19.6,12.5,-46.27,-3.932,-15.41,-30.02,-26.34,-13.28,-1.947,-37.58,-29.73,19.36,-6.007,-20.57,-22.72,0,0,0,0,0,0,0,0,0,0,0,0,0,0,0,0,
451,-38.21,-24.79,-5.371,-68.17,-35.31,-31.06,-41.53,-34.66,-7.465,-5.973,-33.42,-27.19,2.899,-17.76,-20.55,-29.1,0,0,0,0,0,0,0,0,0,0,0,0,0,0,0,0,
452,-32.82,-24.33,-0.347,-67.91,-12.49,6.666,-29.57,-41.17,6.772,-19.88,-31.81,-24.64,-1.167,-25.5,-23.37,-34.16,0,0,0,0,0,0,0,0,0,0,0,0,0,0,0,0,
453,-15.48,-9.921,20.72,-54.48,28.74,24.96,-20.16,-41.64,4.366,-17.59,-13.77,-10.97,11.9,-10.81,-15.69,-31.44,0,0,0,0,0,0,0,0,0,0,0,0,0,0,0,0,
454,4.851,14.11,22.48,-46,10.46,-8.381,-9.696,-33.2,20.46,3.743,0.8044,2.91,24.92,0.0819,0.2472,-25.67,0,0,0,0,0,0,0,0,0,0,0,0,0,0,0,0,
455,1.502,26.34,17.89,-39.52,-7.612,-7.067,3.142,-19.76,49.86,9.993,-9.488,6.745,31.63,-1.776,10.87,-16.49,0,0,0,0,0,0,0,0,0,0,0,0,0,0,0,0,
456,0.7999,22.17,30.48,-28.46,20.12,36.95,3.636,-13.8,36.35,0.3952,-14.6,4.131,34.92,-4.533,8.042,-8.45,0,0,0,0,0,0,0,0,0,0,0,0,0,0,0,0,
457,10.57,21.29,36.9,-24.53,23.3,39.67,6.133,-28.52,1.344,-4.453,-10.97,-3.189,31.01,-11.82,-7.09,-15.03,0,0,0,0,0,0,0,0,0,0,0,0,0,0,0,0,
458,-2.981,38.03,28.17,-28.29,-4.843,16.97,25.9,-38.06,2.271,-4.228,-12.2,-2.487,31.69,-9.376,-16.74,-24.37,0,0,0,0,0,0,0,0,0,0,0,0,0,0,0,0,
459,-12.51,68.29,36.67,-18.4,8.286,31.75,37.99,-9.713,28,2.122,-2.42,8.588,37.1,1.902,-6.821,-17.09,0,0,0,0,0,0,0,0,0,0,0,0,0,0,0,0,
460,6.742,64.91,49.28,-7.03,35.91,47.02,19.56,8.14,42.35,6.273,15.94,10.93,19.46,-8.628,7.79,-8.251,0,0,0,0,0,0,0,0,0,0,0,0,0,0,0,0,
461,19.48,10.39,31.85,-16.36,17.22,38.36,-1.026,-16.53,43.46,-4.127,24.68,12.92,-1.526,-21.62,11.51,-12.39,0,0,0,0,0,0,0,0,0,0,0,0,0,0,0,0,
462,27.83,-8.372,19.14,-12.97,5.959,51.44,12.96,-20.85,36.74,-2.858,23.46,27.98,15.99,-7.089,11.48,-13.22,0,0,0,0,0,0,0,0,0,0,0,0,0,0,0,0,
463,42.08,35.34,43,20.82,42.32,71.58,43.3,6.723,26.72,20.52,17.88,32.13,41.24,9.423,14.11,-1.801,0,0,0,0,0,0,0,0,0,0,0,0,0,0,0,0,
464,30.19,56.39,58.38,30.34,50.56,54.83,48.21,13.83,26.71,21.97,9.79,18.1,37.41,10.18,12.42,7.383,0,0,0,0,0,0,0,0,0,0,0,0,0,0,0,0,
465,3.28,51.51,34.19,-3.699,5.803,27.61,26.87,-2.614,27.63,-1.376,0.7845,14.63,28.57,4.62,4.994,5.298,0,0,0,0,0,0,0,0,0,0,0,0,0,0,0,0,
466,4.39,55.51,22.76,-17.87,-0.9834,30.08,8.666,-22.83,17.99,-6.468,0.7374,25.34,22.64,-7.278,3.072,-1.984,0,0,0,0,0,0,0,0,0,0,0,0,0,0,0,0,
467,23.37,26.47,48.66,4.879,34.59,44.91,3.053,-30.96,17.74,-6.352,9.755,29.55,9.803,-13.16,11.42,-4.575,0,0,0,0,0,0,0,0,0,0,0,0,0,0,0,0,
468,36.08,-14.48,47.9,5.944,22.89,41.63,5.157,-17.87,34.26,-18.98,19.75,37.53,18.49,7.19,25.89,7.159,0,0,0,0,0,0,0,0,0,0,0,0,0,0,0,0,
469,61.3,5.585,30.88,-8.94,9.965,48.26,21.55,-9.567,58.3,-7.205,40.83,60.94,45.98,31.1,45.09,30.97,0,0,0,0,0,0,0,0,0,0,0,0,0,0,0,0,
470,90.03,45.38,65.08,1.409,54.15,68.87,34.97,-20.13,76.63,13.83,48.71,57.23,42.14,22.63,54.16,43.2,0,0,0,0,0,0,0,0,0,0,0,0,0,0,0,0,
471,59.76,40.96,77.14,-7.388,42.77,32.93,7.564,-28.37,50.39,-2.767,5.577,4.838,14.69,-0.2139,31.5,26.65,0,0,0,0,0,0,0,0,0,0,0,0,0,0,0,0,
472,-10.26,16.82,15.7,-47.55,-31.54,-34.77,-33.81,-29.91,-3.029,-14.88,-34.43,-34.61,9.598,-2.833,-6.269,-2.28,0,0,0,0,0,0,0,0,0,0,0,0,0,0,0,0,
473,-29.51,5.768,-1.49,-42.8,-31.79,-32.92,-26.23,-28.03,1.518,7.991,-18.7,-21.33,25.42,8.499,-18.65,-13.05,0,0,0,0,0,0,0,0,0,0,0,0,0,0,0,0,
474,-0.8435,15.99,47.81,-0.2225,14.48,20.02,10.3,-9.792,41.14,15.88,1.72,3.597,36.46,14.63,-0.7874,1.979,0,0,0,0,0,0,0,0,0,0,0,0,0,0,0,0,
475,25.93,32.16,61.27,9.973,28.44,54.87,20.48,5.948,28.86,4.473,-8.814,9.834,35.06,12.33,17.63,19.58,0,0,0,0,0,0,0,0,0,0,0,0,0,0,0,0,
476,43.92,27,41.92,-5.128,40.11,56.74,19.41,-15.95,6.115,2.943,-20.05,11.11,33.32,10.25,19.8,21.47,0,0,0,0,0,0,0,0,0,0,0,0,0,0,0,0,
477,29.42,27.06,30.69,-21.06,26.2,22.54,24.23,-43.07,14.13,-3.183,-24.77,5.023,33.71,12.12,11.88,15.64,0,0,0,0,0,0,0,0,0,0,0,0,0,0,0,0,
478,-19.03,46.94,8.813,-41.79,-31.57,-18.26,12.37,-32.91,-6.054,-10.44,-39.23,-11.83,23.07,7.595,0.4177,8.832,0,0,0,0,0,0,0,0,0,0,0,0,0,0,0,0,
479,-36.74,40.87,-6.625,-47.29,-42.49,-15.71,-1.856,-20.3,-28.6,-1.883,-49.28,-6.993,17.67,0.7794,-7.313,1.4,0,0,0,0,0,0,0,0,0,0,0,0,0,0,0,0,
480,-1.909,19.55,9.446,-36.95,-1.657,16.3,-1.969,-35.92,-3.044,-3.787,-39.65,20.22,25.77,-2.584,-2.653,-0.5187,0,0,0,0,0,0,0,0,0,0,0,0,0,0,0,0,
481,37.57,17.96,18.11,-41.1,2.537,28,-4.16,-57.48,8.461,-26.69,-27.42,31.84,18.85,-16.63,7.68,-0.099,0,0,0,0,0,0,0,0,0,0,0,0,0,0,0,0,
482,49.6,14.44,12.82,-40,-8.435,24.8,4.483,-63.46,5.976,-36.63,-17.17,36.38,8.843,-26.53,15.05,-1.07,0,0,0,0,0,0,0,0,0,0,0,0,0,0,0,0,
483,40.53,2.551,29.76,-17.51,10.84,32.08,14.51,-48.18,31.96,-23.63,-3.961,44.69,11.64,-14.56,22.21,3.862,0,0,0,0,0,0,0,0,0,0,0,0,0,0,0,0,
484,25.08,-8.249,38.13,-16.46,8.253,24.45,-4.697,-31.91,33.12,-14.57,-3.607,34.02,3.571,-8.36,27.52,11.31,0,0,0,0,0,0,0,0,0,0,0,0,0,0,0,0,
485,14.19,-7.283,19.55,-24.77,-8.434,10.85,-5.036,-32.4,19.2,-17.57,-0.0541,24.84,-1.475,-11.42,32.31,15.53,0,0,0,0,0,0,0,0,0,0,0,0,0,0,0,0,
486,16.48,16.96,24.6,-4.418,16.92,33.55,23.19,-34.04,31.17,-20.66,20.83,28.96,2.769,-4.801,42.05,22.15,0,0,0,0,0,0,0,0,0,0,0,0,0,0,0,0,
487,19.26,17.89,29.25,-6.61,22.52,33.57,6.502,-44.98,13.33,-29.38,15.75,11.78,-12.68,-3.776,45.69,28.26,0,0,0,0,0,0,0,0,0,0,0,0,0,0,0,0,
488,-1.674,-12.61,-6.672,-43.57,-21.36,-18.48,-28.69,-68.09,-9.197,-40.79,-6.638,-4.252,-21.14,-9.021,36.77,25.95,0,0,0,0,0,0,0,0,0,0,0,0,0,0,0,0,
489,-22.2,-10.15,-18.36,-47.48,-20.95,-20.65,-19.51,-63.83,15.45,-35.25,-1.102,7.962,-6.774,-7.955,27.17,17.02,0,0,0,0,0,0,0,0,0,0,0,0,0,0,0,0,
490,-3.667,6.97,7.71,-29.86,21.44,25.79,-4.61,-45.57,13.96,-27.2,-2.791,6.984,-6.483,-12.96,18.57,7.559,0,0,0,0,0,0,0,0,0,0,0,0,0,0,0,0,
491,15.28,5.373,7.358,-34.14,19.42,15.51,-15.1,-45.91,-12.53,-30.7,-28.03,-12.21,-13.23,-17.74,6.588,4.709,0,0,0,0,0,0,0,0,0,0,0,0,0,0,0,0,
492,-12.74,8.238,-8.942,-44.31,-12.12,-30.78,-30.91,-46.61,0.8495,-26.85,-36.55,-20.74,-18.3,-14.29,-2.79,6.424,0,0,0,0,0,0,0,0,0,0,0,0,0,0,0,0,
493,-44.46,-9.565,-8.236,-51.15,-20.53,-38.03,-34.9,-56,11.37,-25.18,-40.49,-24.32,-38.14,-20.51,-7.54,0.651,0,0,0,0,0,0,0,0,0,0,0,0,0,0,0,0,
494,-36.56,-38.13,-5.235,-54.49,-16.95,-22.49,-24.64,-70.68,-1.661,-37.46,-52.84,-22.86,-45.47,-28.24,-12.62,-11.74,0,0,0,0,0,0,0,0,0,0,0,0,0,0,0,0,
495,-26.69,-24.98,-12.96,-56.65,-24.02,-27.31,-33.17,-52.7,-8.189,-40.29,-53.94,-23.06,-35.57,-29.43,-21.95,-22.52,0,0,0,0,0,0,0,0,0,0,0,0,0,0,0,0,
496,-42.99,-17.76,-30.72,-69.77,-33.24,-48.78,-56.2,-44.09,-17.44,-41.15,-55.56,-36.47,-37.66,-37.31,-33.47,-30.65,0,0,0,0,0,0,0,0,0,0,0,0,0,0,0,0,
497,-46.08,-33.38,-33.68,-64.92,-31.5,-47.11,-31.68,-65.85,-13.75,-47.57,-56.26,-29.92,-26.81,-28.74,-33.07,-26.92,0,0,0,0,0,0,0,0,0,0,0,0,0,0,0,0,
498,-10.84,-12.14,-1.45,-33.47,-19.1,-10.6,7.81,-45.26,9.69,-28.08,-43.29,-7.6,2.137,3.197,-16.62,-7.547,0,0,0,0,0,0,0,0,0,0,0,0,0,0,0,0,
499,12.08,7.732,24.86,-24.4,2.342,8.659,-10.25,-3.545,11.01,-1.978,-41.32,-17.19,5.561,16.5,-4.923,5.028,0,0,0,0,0,0,0,0,0,0,0,0,0,0,0,0,
500,-14.37,-11.74,14.93,-31,20.18,-8.027,-33.57,-13.63,-1.909,-9.398,-46.08,-30.85,-2.162,12.01,-7.274,1.561,0,0,0,0,0,0,0,0,0,0,0,0,0,0,0,0,
501,-30.94,-14.99,2.229,-17.53,13.71,-3.961,-12.77,-34.12,1.481,-21.5,-33.22,-14.09,3.451,9.436,-9.218,0.1932,0,0,0,0,0,0,0,0,0,0,0,0,0,0,0,0,
502,-2.42,-2.947,7.053,-4.282,3.157,22.96,3.672,-24.52,10.77,-14.38,-15.29,1.713,1.73,-1.202,-1.955,6.205,0,0,0,0,0,0,0,0,0,0,0,0,0,0,0,0,
503,15.75,-11.11,16.67,-5.696,13.86,14.52,-1.533,-19.9,17.91,-11.42,6.173,14.47,1.796,-7.313,15.71,13.53,0,0,0,0,0,0,0,0,0,0,0,0,0,0,0,0,
504,10.79,-21.56,22.28,-12.64,11.7,-14.4,-11.15,-26.76,19.14,-19.66,22.85,30.33,12.24,-2.127,35.77,20.82,0,0,0,0,0,0,0,0,0,0,0,0,0,0,0,0,
505,5.225,-25.96,18.29,-21.98,-11.75,-14.13,-25.19,-20.96,3.735,-24.83,1.718,14.73,7.125,-2.342,35.34,21.8,0,0,0,0,0,0,0,0,0,0,0,0,0,0,0,0,
506,-18.9,-27,6.004,-24.59,-14.12,-6.769,-23.12,-16.87,-17.12,-20.09,-27.36,-17.12,0.9117,7.87,14.58,19.08,0,0,0,0,0,0,0,0,0,0,0,0,0,0,0,0,
507,-43.97,-15.03,-6.743,-24.2,-11.35,-24.04,-6.92,-33.95,-16.91,-10.21,-18.21,-16.08,15.89,32.31,5.619,26.58,0,0,0,0,0,0,0,0,0,0,0,0,0,0,0,0,
508,-39.68,2.426,-12.06,-26.94,-21.8,-31.48,-13.3,-38.95,0.7673,-9.219,-6.479,0.3067,19.24,33.97,16.02,36.5,0,0,0,0,0,0,0,0,0,0,0,0,0,0,0,0,
509,-34.65,4.575,-9.948,-33.04,-18.19,-17.12,-38.04,-28.39,-3.033,-29.13,-26.78,-8.454,-11.35,5.939,16.46,25.72,0,0,0,0,0,0,0,0,0,0,0,0,0,0,0,0,
510,-42.98,-26.24,-19.75,-56.78,-28.06,-29.41,-56.03,-51.24,-27.03,-53.58,-44.26,-23.47,-40.54,-15.95,-3.151,-1.217,0,0,0,0,0,0,0,0,0,0,0,0,0,0,0,0,
511,-44.72,-62.63,-31.45,-69.26,-43.71,-42.35,-51.91,-67.54,-25.66,-44,-30.57,-10.03,-32.84,-12.02,-14.03,-13.43,0,0,0,0,0,0,0,0,0,0,0,0,0,0,0,0,
512,-40.59,-56.63,-11.24,-38.92,-2.023,-10.41,-27.96,-32.39,-5.791,-15.57,-12.43,6.669,-13.67,-9.859,-2.492,-4.586,0,0,0,0,0,0,0,0,0,0,0,0,0,0,0,0,
513,-43.46,-32.22,9.057,-20.02,28.16,-3.252,-19.45,-16.64,-1.54,-18.26,-12.21,-2.953,-13.53,-19.77,7.953,2.138,0,0,0,0,0,0,0,0,0,0,0,0,0,0,0,0,
514,-47.52,-17.66,0.5669,-27.16,-10.96,-35.71,-22.89,-24.74,-5.546,-27.93,-13.99,-13.5,-7.582,-9.529,8.376,4.745,0,0,0,0,0,0,0,0,0,0,0,0,0,0,0,0,
515,-49.82,-1.845,0.0539,-19.41,-32.16,-43.85,-14.1,-13.56,-12.05,-15.82,-21.52,-21.9,1.464,-0.4265,9.264,11.06,0,0,0,0,0,0,0,0,0,0,0,0,0,0,0,0,
516,-67.61,-13.78,0.2145,-27.38,-21.11,-46.17,-25.59,-28.23,-23.13,-17.39,-44.51,-41.67,-15.14,-21.97,3.235,6.499,0,0,0,0,0,0,0,0,0,0,0,0,0,0,0,0,
517,-75.3,-46.37,-16.85,-52,-23.9,-40.26,-51.06,-50.37,-27.6,-29.01,-50.48,-44.85,-26.46,-28.18,-9.055,-6.033,0,0,0,0,0,0,0,0,0,0,0,0,0,0,0,0,
518,-55.4,-46.47,-17.53,-47.33,-31.22,-24.42,-50.83,-39.25,-32.11,-30.85,-40.35,-41.66,-23.91,-17.82,-10.64,-6.629,0,0,0,0,0,0,0,0,0,0,0,0,0,0,0,0,
519,-70.62,-41.28,-14.74,-43.68,-39.67,-52.91,-51.19,-46.05,-40.49,-40.08,-41,-54.42,-36.6,-27.88,-4.828,-2.023,0,0,0,0,0,0,0,0,0,0,0,0,0,0,0,0,
520,-93.87,-52.61,-24.61,-49.63,-27.23,-58.94,-58.74,-50.87,-35.92,-41.17,-30.24,-47.26,-41.3,-28.65,0.7609,-0.7863,0,0,0,0,0,0,0,0,0,0,0,0,0,0,0,0,
521,-57.51,-52.68,-14.26,-40.01,-5.488,-19.07,-56.33,-26.58,-21.51,-28.76,-14.21,-31.58,-32.21,-15.95,5.535,0.764,0,0,0,0,0,0,0,0,0,0,0,0,0,0,0,0,
522,-43.2,-59.37,2.18,-45.2,-21.4,-30.98,-55.56,-29.87,-8.221,-29,-13.4,-32.04,-26.08,-12.55,5.733,2.248,0,0,0,0,0,0,0,0,0,0,0,0,0,0,0,0,
523,-59.32,-56.62,8.791,-46.55,-7.826,-31.6,-28.83,-26.69,6.829,-22.5,7.426,-9.379,-2.315,4.773,15.11,13.75,0,0,0,0,0,0,0,0,0,0,0,0,0,0,0,0,
524,-34.5,-9.775,23.98,-16.6,37.01,10.53,10.68,7.241,10.66,-4.699,21.56,8.308,8.225,15.72,35.06,31.66,0,0,0,0,0,0,0,0,0,0,0,0,0,0,0,0,
525,-41.24,10.38,25.83,-11.47,8.573,-7.731,-3.993,-4.785,-4.254,-9.832,-13.72,-15.46,-19.46,-8.685,32.79,27.1,0,0,0,0,0,0,0,0,0,0,0,0,0,0,0,0,
526,-65.51,-18.26,14.97,-25.24,-12.95,-18.31,-23.97,-29.52,-2.536,-24.78,-23.41,-11.09,-15.33,-17.95,14.6,8.945,0,0,0,0,0,0,0,0,0,0,0,0,0,0,0,0,
527,-17.7,-13.11,28.15,-12.2,38.52,28.39,2.545,-5.994,23.97,-19.02,10.47,19.26,14.8,-1.269,16.07,8.786,0,0,0,0,0,0,0,0,0,0,0,0,0,0,0,0,
528,6.039,7.217,45.32,-1.937,40.82,33.42,14.4,11.4,22.05,-1.671,7.82,8.654,4.073,-0.7162,24.3,16.5,0,0,0,0,0,0,0,0,0,0,0,0,0,0,0,0,
529,-26.9,-6.141,36.73,-0.9022,-1.536,10.08,6.631,13.93,-9.731,2.896,-13.48,-2.726,-4.711,-1.934,21.74,16.68,0,0,0,0,0,0,0,0,0,0,0,0,0,0,0,0,
530,-27.05,-2.591,14.56,5.855,-6.586,-3.971,9.515,25.77,-16.49,-6.225,-14.31,12.33,5.816,6.616,20.52,14.78,0,0,0,0,0,0,0,0,0,0,0,0,0,0,0,0,
531,-22.2,3.629,2.864,-3.149,-4.627,-13.03,-4.936,11.17,-10.66,-11.1,-30.05,7.767,-24.27,0.1446,12.96,6.437,0,0,0,0,0,0,0,0,0,0,0,0,0,0,0,0,
532,-22.22,-34.06,14.03,-16.57,-3.531,10.39,-20.27,-15.91,-23.02,-20.39,-48.91,-1.327,-55.67,-7.335,-4.548,-2.384,0,0,0,0,0,0,0,0,0,0,0,0,0,0,0,0,
533,3.737,-47.01,18.51,-21.8,-2.075,14.27,-15.61,-12.22,-23.98,-35.44,-41.73,7.348,-38.93,-3.287,-7.964,3.262,0,0,0,0,0,0,0,0,0,0,0,0,0,0,0,0,
534,-2.572,-29.2,-6.284,-38.26,-18.35,-27.67,-34.13,-2.956,-15.61,-23.99,-39.52,-2.418,-30.17,-12.21,-0.5452,6.268,0,0,0,0,0,0,0,0,0,0,0,0,0,0,0,0,
535,-39.04,-52.55,-24.46,-51.29,-23.64,-44.39,-62.48,-8.575,-36.67,-7.57,-52.02,-28.45,-42.96,-28.29,-3.336,-5.539,0,0,0,0,0,0,0,0,0,0,0,0,0,0,0,0,
536,-42.47,-64.28,-19.46,-46.03,-31.12,-40.16,-53.21,-7.021,-64.3,-22.25,-57.61,-36.43,-41.48,-34.41,-11.5,-13,0,0,0,0,0,0,0,0,0,0,0,0,0,0,0,0,
537,-33.15,-32.07,-14.11,-44.02,-51.09,-37.19,-38.48,-0.6646,-59.94,-34.81,-56.71,-34.2,-46.11,-43.39,-17.67,-13.59,0,0,0,0,0,0,0,0,0,0,0,0,0,0,0,0,
538,-39.42,-36.8,-13.23,-53.82,-36.04,-29.35,-50.51,-13.32,-45.15,-38.71,-57.34,-39.23,-66.41,-50.66,-23.69,-17.07,0,0,0,0,0,0,0,0,0,0,0,0,0,0,0,0,
539,-40.18,-64.08,-13.68,-59.37,-15.39,-40.2,-57.32,-29.88,-39.43,-52.8,-58.34,-42.15,-73.82,-42.3,-25.38,-18.03,0,0,0,0,0,0,0,0,0,0,0,0,0,0,0,0,
540,-27.27,-58.18,-14.16,-47.68,-25.2,-43.69,-43.15,-23.69,-25.19,-43.34,-48.4,-34.42,-69.23,-35.38,-21.21,-17.21,0,0,0,0,0,0,0,0,0,0,0,0,0,0,0,0,
541,-20.53,-57.78,-14.21,-39.61,-27.6,-27.41,-38.44,-19.71,-20.43,-22.76,-34.73,-30.93,-70.8,-42.27,-16.52,-20.86,0,0,0,0,0,0,0,0,0,0,0,0,0,0,0,0,
542,-26.5,-71.44,-19.28,-51.78,-21.74,-33.65,-52.95,-26.89,-42.84,-35.01,-43.48,-42.36,-81.2,-48.32,-17.38,-26.33,0,0,0,0,0,0,0,0,0,0,0,0,0,0,0,0,
543,-25.87,-69.29,-20.19,-49.54,-16.95,-40.74,-58.45,-13.17,-38.66,-39.82,-55.29,-48.05,-90.65,-43.41,-24.53,-31.55,0,0,0,0,0,0,0,0,0,0,0,0,0,0,0,0,
544,-22.32,-72.95,-16.9,-38.06,-12.33,-34.92,-52.49,-12.26,-8.421,-25.05,-47.73,-35.9,-88.88,-37.44,-27.45,-31.74,0,0,0,0,0,0,0,0,0,0,0,0,0,0,0,0,
545,-26.9,-80.92,-25.09,-57.84,-22.83,-35.27,-49.14,-45.13,-19.51,-30.61,-45.02,-18.41,-72.09,-31.07,-15.45,-17.01,0,0,0,0,0,0,0,0,0,0,0,0,0,0,0,0,
546,-11.34,-61.45,-23.39,-63.13,-10.99,-12.73,-30.26,-31.58,-26.43,-18.9,-27.33,10.84,-38.1,-4.921,15.71,16.19,0,0,0,0,0,0,0,0,0,0,0,0,0,0,0,0,
547,25.48,-33.05,1.669,-27.77,26.32,11.35,-5.246,22.22,31.46,14.25,31.43,49.71,0.8792,31.31,64.06,58.15,0,0,0,0,0,0,0,0,0,0,0,0,0,0,0,0,
548,46.09,-13.34,14.04,-17.79,31.88,4.242,-10.38,16.66,71.29,1.752,66.4,57.29,18.59,41.66,104.7,84.22,0,0,0,0,0,0,0,0,0,0,0,0,0,0,0,0,
549,48.19,-5.78,4.034,-36.66,29.64,11.02,-32.38,-24.63,34.4,-23.56,35.78,19.55,-0.983,20.8,99.44,72.11,0,0,0,0,0,0,0,0,0,0,0,0,0,0,0,0,
550,25.35,-49.04,-18.52,-53.08,17.27,-2.559,-57.87,-30.78,-22.73,-21.71,-18.1,-30.25,-49.01,-13.52,43.27,25.63,0,0,0,0,0,0,0,0,0,0,0,0,0,0,0,0,
551,-33.79,-111.9,-51.88,-77.8,-44.19,-70,-78.07,-27.57,-51.82,-35.86,-58.3,-56.91,-78.9,-38.53,-23.41,-27.32,0,0,0,0,0,0,0,0,0,0,0,0,0,0,0,0,
552,-62.69,-104.7,-55.78,-73.35,-62.26,-69.52,-52.53,-28.76,-53.21,-43.49,-72.87,-50.87,-66.47,-40.42,-57.81,-58.8,0,0,0,0,0,0,0,0,0,0,0,0,0,0,0,0,
553,-20.97,-71.04,-31.77,-34.2,-17.42,2.563,-15.33,-11.65,-51,-22.47,-69.32,-37.9,-59.16,-40.91,-57.25,-66.01,0,0,0,0,0,0,0,0,0,0,0,0,0,0,0,0,
554,11.47,-75.63,-40.39,-37.67,-14.94,4.169,-26.15,-9.501,-49.42,-27.31,-59.29,-30.62,-63.89,-43.73,-42.04,-59.52,0,0,0,0,0,0,0,0,0,0,0,0,0,0,0,0,
555,4.092,-50.85,-42.95,-54.41,-6.169,-20.93,-24.58,-27.96,-18,-33.41,-29.28,-4.091,-32.29,-21.78,-17.36,-36.42,0,0,0,0,0,0,0,0,0,0,0,0,0,0,0,0,
556,23.49,1.15,7.739,-17.59,47.34,18.37,24.84,-8.491,24.68,-1.68,9.105,29.85,7.037,0.4299,12.08,-4.566,0,0,0,0,0,0,0,0,0,0,0,0,0,0,0,0,
557,61.82,1.007,25.52,-0.391,37.25,37.77,44.56,23.92,26.91,9.198,20.51,33.75,8.512,-5.302,25.65,7.803,0,0,0,0,0,0,0,0,0,0,0,0,0,0,0,0,
558,62.46,-10.86,-13.3,-34.76,-7.667,5.771,20.47,16.14,3.91,-3.597,10.04,21.76,1.442,-3.938,17.24,0.1023,0,0,0,0,0,0,0,0,0,0,0,0,0,0,0,0,
559,41.05,1.44,-21.98,-37.63,2.796,-2.149,9.174,15.87,-9.172,4.587,-9.435,14.04,-4.061,7.684,0.5013,-6.125,0,0,0,0,0,0,0,0,0,0,0,0,0,0,0,0,
560,23.84,-14.98,-12.73,-23.08,5.367,2.305,2.836,24.57,-26.07,-0.6746,-37.87,-2.325,-23.78,-1.495,-16.91,-11.21,0,0,0,0,0,0,0,0,0,0,0,0,0,0,0,0,
561,10,-45.5,-40.23,-56.39,-32.82,-24.67,-26.48,-12.61,-52.65,-25.75,-50.35,-16.36,-31.55,-3.627,-27.23,-15.22,0,0,0,0,0,0,0,0,0,0,0,0,0,0,0,0,
562,12.07,-43.7,-57.75,-86.19,-41.35,-46.67,-42.23,-42.37,-48.47,-24.55,-30.56,-5.261,-22.11,15.74,-19.58,-4.636,0,0,0,0,0,0,0,0,0,0,0,0,0,0,0,0,
563,18.76,-39.13,-36.75,-70.57,-18.11,-30.24,-24.73,-29.05,-12.52,-17.94,-11.2,6.95,-31.36,13.37,-4.653,9.11,0,0,0,0,0,0,0,0,0,0,0,0,0,0,0,0,
564,0.6682,-66.1,-36.95,-68.94,-26.73,-19.61,-24.81,-31.74,-16.73,-27.36,-21.3,-3.748,-55.77,-3.39,-3.009,5.59,0,0,0,0,0,0,0,0,0,0,0,0,0,0,0,0,
565,-17.3,-90.95,-54.85,-81.37,-39.62,-34.55,-36.23,-36.42,-50.26,-19.56,-27.48,-3.77,-58.94,3.296,-7.498,-3.212,0,0,0,0,0,0,0,0,0,0,0,0,0,0,0,0,
566,-0.5191,-60.12,-19.15,-43.94,14.42,-16.41,-1.854,0.8861,-25.1,-0.6868,-2.361,19.63,-40.98,13.16,-2.413,-3.489,0,0,0,0,0,0,0,0,0,0,0,0,0,0,0,0,
567,19.83,-14.33,27.44,-1.216,47.77,15.83,24.81,28.47,4.104,-1.944,-2.835,14.05,-35.94,4.746,-3.233,-7.808,0,0,0,0,0,0,0,0,0,0,0,0,0,0,0,0,
568,5.581,-34.37,-0.5691,-27.09,-26.59,-13.51,-9.206,-7.814,-42.19,-14.12,-50.17,-19.97,-42.14,-1.877,-26,-19.84,0,0,0,0,0,0,0,0,0,0,0,0,0,0,0,0,
569,-16.46,-61.67,-40.87,-60.36,-69.03,-44.7,-23.11,-52.61,-63.28,-11.94,-58.08,-11.85,-16.06,9.143,-43.06,-17.48,0,0,0,0,0,0,0,0,0,0,0,0,0,0,0,0,
570,-1.192,-25.22,-22.09,-40.04,-7.591,-15.5,1.468,-26.77,-10.87,5.302,-10.47,32.97,24.73,22.97,-24.21,8.39,0,0,0,0,0,0,0,0,0,0,0,0,0,0,0,0,
571,32.24,-11.79,0.4968,-25.47,22.21,-5.052,-11.35,12.33,8.598,3.319,7.504,40.73,9.825,8.594,5.717,27.04,0,0,0,0,0,0,0,0,0,0,0,0,0,0,0,0,
572,26.31,-58.86,-6.252,-44.95,-7.642,-34.85,-33.83,-7.724,-15.08,-22,-5.097,14.44,-33.51,-21.62,7.154,11.4,0,0,0,0,0,0,0,0,0,0,0,0,0,0,0,0,
573,-2.147,-74.36,-7.939,-45.75,-9.225,-25.4,-13.6,-15.01,-8.819,-27.33,10.8,14.7,-28.22,-20.27,-6.561,-10.73,0,0,0,0,0,0,0,0,0,0,0,0,0,0,0,0,
574,3.151,-44.77,-3.286,-32.21,15.24,8.871,-1.387,-1.214,5.115,-21.4,34.27,31.1,-10.41,-0.697,-3.124,-5.435,0,0,0,0,0,0,0,0,0,0,0,0,0,0,0,0,
575,10.66,-29.6,-13.31,-46.18,13.97,-5.965,-20.9,-30.08,-20.24,-26.34,27.3,16.37,-27.88,1.446,7.652,6.625,0,0,0,0,0,0,0,0,0,0,0,0,0,0,0,0,
576,-9.352,-30.92,-30.54,-61.03,-15.8,-44.33,-28.72,-28.22,-46.18,-11.09,15.62,-4.709,-26.46,8.485,7.981,4.468,0,0,0,0,0,0,0,0,0,0,0,0,0,0,0,0,
577,-9.736,-19.1,-37.42,-51.9,-32.06,-53.55,-24.11,10.14,-26.93,11.42,21.09,3.541,8.482,30.21,11.08,8.04,0,0,0,0,0,0,0,0,0,0,0,0,0,0,0,0,
578,-1.296,2.876,-38.08,-47.35,-28.59,-54.81,-25.98,-10.64,-2.188,11.35,25.98,14.72,21.53,38.88,23,23.35,0,0,0,0,0,0,0,0,0,0,0,0,0,0,0,0,
579,-13.42,3.333,-38.57,-42.68,-39.03,-50.26,-20.72,-19.46,-15,17.34,23.65,15.76,20.96,37.68,29.34,32.08,0,0,0,0,0,0,0,0,0,0,0,0,0,0,0,0,
580,1.727,-8.766,-26.12,-19.85,-30.96,-16.49,-2.986,18.37,-22.53,26.23,31.79,23.83,38.64,39.82,29.7,33.3,0,0,0,0,0,0,0,0,0,0,0,0,0,0,0,0,
581,31.32,6.314,-7.453,-7.851,13.49,0.9559,11.16,3.316,6.321,13.01,53.4,30.14,49.48,32.75,32.14,34.24,0,0,0,0,0,0,0,0,0,0,0,0,0,0,0,0,
582,20.4,15.05,-8.127,-14.35,12.59,-19.48,2.908,-19.55,22.6,0.5558,65.65,27.06,43.57,19.94,33.86,33.88,0,0,0,0,0,0,0,0,0,0,0,0,0,0,0,0,
583,13.71,-14.68,-21.2,-15.97,-21.51,-18.06,-17.77,-0.4718,7.253,2.235,65.49,28.91,49.5,25.7,35.71,36.47,0,0,0,0,0,0,0,0,0,0,0,0,0,0,0,0,
584,36.99,-18.91,-19.03,-13.08,8.225,15.51,-9.067,-5.412,9.81,11.15,76.8,40.74,68.15,44.87,43.66,45.46,0,0,0,0,0,0,0,0,0,0,0,0,0,0,0,0,
585,39.62,15.75,-2.041,-9.535,46.58,31.91,15.85,-2.208,31.27,23.44,86.59,49.89,74.1,49.74,48.62,49.66,0,0,0,0,0,0,0,0,0,0,0,0,0,0,0,0,
586,24.42,21.57,-4.342,-10.12,9.852,10.08,8.442,27.67,21.16,21.18,66.53,39.5,60.51,36.2,34.75,36.97,0,0,0,0,0,0,0,0,0,0,0,0,0,0,0,0,
587,12.65,2.52,-34.76,-21.61,-28.31,-28.02,-8.264,10.28,-2.093,3.624,46.07,18.32,47.74,21.62,8.536,15.87,0,0,0,0,0,0,0,0,0,0,0,0,0,0,0,0,
588,-3.155,0.8729,-44.78,-26.41,-10.97,-31.84,-7.256,-18.6,0.1834,-4.228,53.81,17.23,50.05,19.03,-5.477,6.314,0,0,0,0,0,0,0,0,0,0,0,0,0,0,0,0,
589,7.553,8.533,-23.4,-22.88,8.842,-4.733,-11.28,-7.289,-0.092,6.175,65.01,33.7,48.32,23.68,-0.4894,6.848,0,0,0,0,0,0,0,0,0,0,0,0,0,0,0,0,
590,37.61,11.87,-22.81,-27.39,-4.992,-12.39,-16.27,5.238,-3.758,22.76,68.43,39.26,36.36,26.65,10.19,3.042,0,0,0,0,0,0,0,0,0,0,0,0,0,0,0,0,
591,27.14,14.18,-33.78,-23.55,-26.49,-32.54,-11.96,11.94,12.18,27.26,74.47,34.35,42.02,38.03,21.68,3.511,0,0,0,0,0,0,0,0,0,0,0,0,0,0,0,0,
592,7.928,15.01,-23.58,-14.21,-24.41,-18.41,-17.36,5.118,12.18,15.54,75.61,32.2,54.31,54.06,32.07,16.53,0,0,0,0,0,0,0,0,0,0,0,0,0,0,0,0,
593,20.96,10.77,-34.12,-29.9,-17.87,-26.4,-32.88,-21.34,-3.776,9.569,72.09,32.46,45.35,52.04,32.59,24.6,0,0,0,0,0,0,0,0,0,0,0,0,0,0,0,0,
594,23.88,7.176,-57.18,-40.27,-23.95,-51.69,-39.18,-13.51,0.6345,15,74.35,38.15,39.83,42.68,30.47,24.14,0,0,0,0,0,0,0,0,0,0,0,0,0,0,0,0,
595,23.22,9.015,-39.72,-19.33,-19.09,-40.29,-38.76,5.304,-3.103,6.824,74.31,44.87,40.35,35.73,38.04,29.17,0,0,0,0,0,0,0,0,0,0,0,0,0,0,0,0,
596,33.33,-3.961,-29.67,-14.22,-20.02,-42.39,-49.49,-19.78,-13.99,-9.152,70.96,45.42,24.36,22.54,46.09,37.89,0,0,0,0,0,0,0,0,0,0,0,0,0,0,0,0,
597,29.76,-18.4,-35.55,-17.71,-20.29,-39.62,-45.99,-24.35,15.46,-2.035,83.19,57.98,30.63,29.8,49.9,49.81,0,0,0,0,0,0,0,0,0,0,0,0,0,0,0,0,
598,58.94,14.52,5.045,16.35,23.57,20.06,-3.327,13.69,47.61,17.14,101.3,73.32,64.27,59.91,56.6,66.61,0,0,0,0,0,0,0,0,0,0,0,0,0,0,0,0,
599,104.6,53.14,26.83,37.31,42.22,26.93,17.16,22.73,35.27,26.67,89.63,51.11,61.87,63.09,53.5,66.48,0,0,0,0,0,0,0,0,0,0,0,0,0,0,0,0,
600,75.68,36.37,-9.749,12.99,6.245,-28.93,-6.752,6.96,15.9,30.26,58.58,16.96,34.29,37.56,28.6,38.69,0,0,0,0,0,0,0,0,0,0,0,0,0,0,0,0,
601,43.75,10.41,-17.52,1.42,2.224,-26.96,-10.6,-2.534,14.13,21.37,48.75,13.3,27.43,16.84,1.462,8.044,0,0,0,0,0,0,0,0,0,0,0,0,0,0,0,0,
602,69.98,4.738,-12.52,7.063,3.31,-12.18,-2.792,-10.91,10.91,8.367,49,13.14,29.15,8.41,-9.264,-7.17,0,0,0,0,0,0,0,0,0,0,0,0,0,0,0,0,
603,70.97,0.1447,-26.32,8.622,-12.21,-19.39,-9.893,4.446,0.3684,16.37,34.38,9.374,37.93,14.96,-8.232,-10.67,0,0,0,0,0,0,0,0,0,0,0,0,0,0,0,0,
604,75.24,17.27,-0.8262,29.85,24.36,19.92,6.425,34.79,-3.812,26.94,35.05,32.19,59.77,29.69,0.2262,-3.957,0,0,0,0,0,0,0,0,0,0,0,0,0,0,0,0,
605,126.8,54.79,23.77,55.46,53.13,50.97,37.89,36.47,8.342,27.91,58.79,55.15,70.29,36.34,12.99,10.52,0,0,0,0,0,0,0,0,0,0,0,0,0,0,0,0,
606,127.7,79.4,1.874,55.96,21.53,25.97,44.81,28.56,13.72,36.75,58.36,42.06,64.46,31.71,15.25,16.96,0,0,0,0,0,0,0,0,0,0,0,0,0,0,0,0,
607,81.09,78.93,-8.039,45.67,2.502,7.247,27.07,32.83,0.5515,33.1,45.57,23.08,55.04,19.48,6.179,9.549,0,0,0,0,0,0,0,0,0,0,0,0,0,0,0,0,
608,81.44,60.88,-0.5484,38.85,7.268,11.12,11.45,29.81,7.641,13.23,62.12,28.1,48.12,14.53,5.654,5.154,0,0,0,0,0,0,0,0,0,0,0,0,0,0,0,0,
609,107.8,61.28,7.256,43.52,21.74,28.54,25.45,27.38,30.19,16.8,71.12,32.44,45.74,20.88,13.36,8.827,0,0,0,0,0,0,0,0,0,0,0,0,0,0,0,0,
610,112.3,71.68,21.48,49.13,43.65,42.57,34.29,26.56,27.88,27.34,60.55,26.49,42.16,18.07,15.86,9.06,0,0,0,0,0,0,0,0,0,0,0,0,0,0,0,0,
611,106,48.45,14.33,39.3,35.43,24.11,11.83,7.284,28.5,14.39,78.76,36.98,45.57,14.66,23.15,11.42,0,0,0,0,0,0,0,0,0,0,0,0,0,0,0,0,
612,102.8,35.78,5.171,41.88,22.4,9.166,12.69,-1.845,45.5,12.19,91.31,44.22,61.62,26.76,37.99,22.45,0,0,0,0,0,0,0,0,0,0,0,0,0,0,0,0,
613,96.46,56.67,21.79,61.15,29.92,17.76,34.47,16.82,35.37,31.04,60.09,20.44,72,31.57,37.99,28.52,0,0,0,0,0,0,0,0,0,0,0,0,0,0,0,0,
614,84.55,60.42,24.5,68.81,29.85,25.86,37.23,31.03,16.28,33.18,49.7,8.226,79.99,25.57,23.03,25.89,0,0,0,0,0,0,0,0,0,0,0,0,0,0,0,0,
615,91.35,63.44,17.63,78.91,43.88,41.99,40.4,41.34,24.24,22.22,68.1,18.77,87.92,24.33,13.68,22.89,0,0,0,0,0,0,0,0,0,0,0,0,0,0,0,0,
616,107.8,67.36,20.75,82.22,54.97,42.5,36.36,43.71,24.73,20.02,56.38,8.856,71.86,13.11,9.902,16.31,0,0,0,0,0,0,0,0,0,0,0,0,0,0,0,0,
617,89.77,40.67,9.913,59.88,22.23,10.18,28.38,15.95,10.81,17.91,40.08,0.3327,51.19,-3.033,5.182,5.984,0,0,0,0,0,0,0,0,0,0,0,0,0,0,0,0,
618,72.97,41.06,11.43,60.32,17.44,8.603,48.43,9.386,23.7,21.17,53.57,20.47,50.71,1.006,4.354,1.814,0,0,0,0,0,0,0,0,0,0,0,0,0,0,0,0,
619,95.83,61.48,37.57,77.24,52.61,42.78,42.36,46.25,42.81,35.79,58.15,25.84,42.31,11.33,4.333,3.625,0,0,0,0,0,0,0,0,0,0,0,0,0,0,0,0,
620,93.83,31.48,34.23,60,39.02,44.82,3.224,58.8,27.07,39.73,41.19,11.46,34.13,18.8,0.4404,6.629,0,0,0,0,0,0,0,0,0,0,0,0,0,0,0,0,
621,50.95,18.03,7.584,47.01,-5.072,9.67,12.46,42.48,2.634,37.09,30.6,15.37,51.47,32.43,1.4,12.22,0,0,0,0,0,0,0,0,0,0,0,0,0,0,0,0,
622,32.86,50.38,-6.723,49.85,-16.57,-13.33,32.11,28.5,-3.378,36.82,25.43,22.55,54.55,32.26,6.783,14.48,0,0,0,0,0,0,0,0,0,0,0,0,0,0,0,0,
623,40.21,48.23,-10.69,32.21,-3.602,0.2868,12.68,11.44,3.481,21.87,20.38,16.68,37.87,19.72,6.17,9.163,0,0,0,0,0,0,0,0,0,0,0,0,0,0,0,0,
624,46.76,41.15,15.96,40.5,16.34,24.35,24.37,18.96,26.47,18.18,33.18,24.23,47.44,28.33,7.156,11.22,0,0,0,0,0,0,0,0,0,0,0,0,0,0,0,0,
625,63.69,60.69,63.88,86.05,39.8,37.04,60.86,49.67,44.91,45.4,53.32,37.65,59.02,42.81,15.31,22.92,0,0,0,0,0,0,0,0,0,0,0,0,0,0,0,0,
626,72.36,48.61,75.94,99.27,65.59,51.97,54.24,55.81,30.35,51.64,46.91,25.01,40.63,33.31,12.19,20.1,0,0,0,0,0,0,0,0,0,0,0,0,0,0,0,0,
627,52.67,34,57.87,82.3,71.67,49.27,37.23,50.79,8.383,28.78,27.56,5.298,33.27,19.78,-6.197,1.41,0,0,0,0,0,0,0,0,0,0,0,0,0,0,0,0,
628,39.55,53.82,41.82,65.1,32.93,11.92,40.15,49.15,1.926,23.69,26.15,6.893,47.27,18.85,-18.11,-8.447,0,0,0,0,0,0,0,0,0,0,0,0,0,0,0,0,
629,50.62,54.28,33.69,47.88,2.026,-4.474,35.76,38.58,2.637,33.12,29.33,16.5,47.07,16.9,-14.35,-5.849,0,0,0,0,0,0,0,0,0,0,0,0,0,0,0,0,
630,61.17,34.51,50.81,56.1,31.04,20.95,31.72,40.77,15.15,35.76,27.09,22.81,42.29,11.93,-0.8634,-0.2061,0,0,0,0,0,0,0,0,0,0,0,0,0,0,0,0,
631,61.65,28.67,68.81,78.54,64.89,36.22,39.76,42.26,33.72,27.81,28.07,25.07,49.25,8.209,13.72,5.834,0,0,0,0,0,0,0,0,0,0,0,0,0,0,0,0,
632,53.06,20.29,47.72,69.54,56.11,30.62,36.1,21.87,39.73,8.757,20.47,17.04,47.29,0.9034,15.57,3.418,0,0,0,0,0,0,0,0,0,0,0,0,0,0,0,0,
633,41.67,8.954,30.91,48.16,41.16,31.88,17.46,21.88,36.18,5.358,9.413,15.21,41.45,1.524,7.245,-3.996,0,0,0,0,0,0,0,0,0,0,0,0,0,0,0,0,
634,40.47,10.28,42.15,42.38,38.24,25.18,8.823,28.38,28.55,25.82,13.27,25.18,46.46,16.33,6.701,2.34,0,0,0,0,0,0,0,0,0,0,0,0,0,0,0,0,
635,32.05,9.394,33.49,32.56,21.65,-4.732,15.13,-2.383,15.51,25.94,7.935,13.73,37.65,16.56,8.4,11.44,0,0,0,0,0,0,0,0,0,0,0,0,0,0,0,0,
636,10.85,1.07,6.299,11.87,-0.2759,-21.97,11.11,-16.06,-2.788,-2.903,-16.91,-14.52,14.12,-3.604,-1.191,1.619,0,0,0,0,0,0,0,0,0,0,0,0,0,0,0,0,
637,7.641,-3.118,-10.26,-6.293,-3.348,-21.21,-17.27,-0.2933,-22.8,-21.94,-27.55,-27.1,0.6463,-17.03,-12.43,-14.8,0,0,0,0,0,0,0,0,0,0,0,0,0,0,0,0,
638,9.437,-21.03,-21.79,-14.54,-7.247,-37.22,-46.6,-17.65,-28.12,-22.06,-19.68,-31.66,-12.4,-24.43,-17.49,-23.33,0,0,0,0,0,0,0,0,0,0,0,0,0,0,0,0,
639,-4.034,-55.8,-22.7,-5.729,-22.42,-47.89,-45.48,-33.47,-16.69,-17.64,-10.57,-31.09,-23.05,-30.83,-17.45,-24.82,0,0,0,0,0,0,0,0,0,0,0,0,0,0,0,0,
640,-11.54,-56.35,-13.03,8.639,-20.26,-34.8,-23.15,-15.53,-13.75,-16.99,-2.941,-22.77,-17.58,-26.98,-9.726,-15.52,0,0,0,0,0,0,0,0,0,0,0,0,0,0,0,0,
641,-20.18,-30.29,-14.16,3.538,-6.742,-37.97,-21.77,-17.65,-26.52,-21.09,-6.383,-29.71,-17.05,-21.23,-3.539,-3.469,0,0,0,0,0,0,0,0,0,0,0,0,0,0,0,0,
642,-26.22,-35.83,-21.2,-6.596,-14.1,-49.33,-34.06,-23.6,-39.94,-16.76,-18.49,-40.51,-18.83,-19.11,-9.393,-4.825,0,0,0,0,0,0,0,0,0,0,0,0,0,0,0,0,
643,-1.735,-38.48,-23.92,3.396,-27.79,-39,-18.75,-9.267,-44.84,-8.678,-21.71,-35.81,-6.816,-22.97,-20.33,-16.86,0,0,0,0,0,0,0,0,0,0,0,0,0,0,0,0,
644,12.58,-11.73,-24.4,10.35,-17.15,-31.24,-3.78,-14.62,-30.24,-14.82,-15.47,-30.19,1.263,-31.03,-26.69,-28.94,0,0,0,0,0,0,0,0,0,0,0,0,0,0,0,0,
645,1.842,-2.822,-10.88,5.85,4.485,-28.17,-10.34,-9.638,7.004,-11.61,2.857,-9.855,13.54,-16.09,-17.22,-27.92,0,0,0,0,0,0,0,0,0,0,0,0,0,0,0,0,
646,22.43,9.561,12.87,17.95,15.73,-5.564,4.273,23.26,33.77,5.893,25.65,22.43,31.74,5.8,9.732,-6.998,0,0,0,0,0,0,0,0,0,0,0,0,0,0,0,0,
647,56.61,31.37,23.56,30.15,31.23,24.09,18.51,24.43,24.76,-2.865,24.66,21.33,15.7,-6.594,26.72,9.552,0,0,0,0,0,0,0,0,0,0,0,0,0,0,0,0,
648,59.93,7.63,26.7,23.58,50.39,33.07,4.603,14.28,16.52,-14,13.86,4.041,-12.22,-17.62,19.13,3.519,0,0,0,0,0,0,0,0,0,0,0,0,0,0,0,0,
649,53.79,-16.89,34.18,25.26,43.08,12.93,9.818,32.29,34.92,9.719,21.16,2.679,-7.946,-4.208,7.586,-5.345,0,0,0,0,0,0,0,0,0,0,0,0,0,0,0,0,
650,50.21,-9.602,34.02,27.98,25.46,-5.848,15.8,36.17,37.86,20.18,25.68,-5.1,-2.843,-7.855,2.569,-5.976,0,0,0,0,0,0,0,0,0,0,0,0,0,0,0,0,
651,43.36,-16.13,28.03,13.75,28.59,1.703,-2.489,13.52,14.55,0.454,17.68,-11.48,-9.552,-19.7,-0.7475,-7.67,0,0,0,0,0,0,0,0,0,0,0,0,0,0,0,0,
652,39.74,-1.383,30.49,12.34,31.3,7.663,12.25,-1.403,10.01,-5.684,17.76,6.971,1.326,-13.26,0.649,-9.038,0,0,0,0,0,0,0,0,0,0,0,0,0,0,0,0,
653,54.82,36.69,37.94,27.67,31.83,12.06,34.31,3.248,20.68,1.391,24.26,28.24,13.99,-11.81,3.726,-9.015,0,0,0,0,0,0,0,0,0,0,0,0,0,0,0,0,
654,94.32,22.72,43.54,28.92,49.9,36.21,13.96,11.68,13.94,6.286,24.39,30.28,10.26,-19.57,-0.6763,-12.51,0,0,0,0,0,0,0,0,0,0,0,0,0,0,0,0,
655,103.7,2.226,41.12,17.72,50.94,40.5,8.241,6.766,1.584,9.281,17.38,17.86,14.35,-19.13,-7.952,-14.21,0,0,0,0,0,0,0,0,0,0,0,0,0,0,0,0,
656,68.4,27.26,30.41,12.47,27.41,18.37,19.98,1.611,4.778,5.354,13.23,15.4,30.42,-12.69,-6.611,-9.447,0,0,0,0,0,0,0,0,0,0,0,0,0,0,0,0,
657,66.57,27.58,26.87,10.98,30.87,17.01,-0.0622,3.029,19.98,6.177,18.55,31.37,32.23,-7,3.536,-4.342,0,0,0,0,0,0,0,0,0,0,0,0,0,0,0,0,
658,82.28,-3.051,27.62,1.849,49.76,25.71,-14.54,-4.143,32.68,12.04,23.93,38.55,22.04,-5.981,13.28,-2.595,0,0,0,0,0,0,0,0,0,0,0,0,0,0,0,0,
659,62.83,-0.113,20.54,-8.492,41.38,24.95,-3.027,-11.71,29.43,5.551,28.02,37.69,24.85,-6.208,19.08,-0.6069,0,0,0,0,0,0,0,0,0,0,0,0,0,0,0,0,
660,65.7,14.08,15.14,-10.67,27.95,25.49,-8.674,-16.88,17.51,-2.833,33.06,42.58,32.43,-7.55,20.69,-0.4758,0,0,0,0,0,0,0,0,0,0,0,0,0,0,0,0,
661,82.71,-0.1526,12.11,-13.98,29.34,15.6,-21.86,-25.05,22.79,-4.739,35.82,37.93,29.6,-14.94,14.97,-7.496,0,0,0,0,0,0,0,0,0,0,0,0,0,0,0,0,
662,63.27,0.0095,16.06,-10.79,38.83,11.15,-4.578,-19.47,45.36,-1.385,48.88,38.89,37.15,-10.15,10.36,-8.81,0,0,0,0,0,0,0,0,0,0,0,0,0,0,0,0,
663,65.74,31.36,33.24,4.024,54.73,32.48,14.21,-11.51,47.76,12.36,52.41,48.48,48.92,4.424,12.93,4.625,0,0,0,0,0,0,0,0,0,0,0,0,0,0,0,0,
664,79.23,27.47,24.33,-4.622,42.89,29.97,-5.358,-26.89,21.36,14.41,14.34,26.98,34.81,-2.337,5.665,9.727,0,0,0,0,0,0,0,0,0,0,0,0,0,0,0,0,
665,51,-7.374,-4.752,-26.6,6.847,2.771,-25.7,-41.7,8.325,-0.147,-12.21,5.234,25.56,-8.116,-9.34,-0.2234,0,0,0,0,0,0,0,0,0,0,0,0,0,0,0,0,
666,52.61,7.313,12.16,-14.36,15.54,12.74,-11.42,-24.08,18.64,3.112,6.538,20.11,41.51,9.027,-6.41,-0.9504,0,0,0,0,0,0,0,0,0,0,0,0,0,0,0,0,
667,80.17,45.47,44.79,5.846,45.32,32.12,5.364,5.212,20.73,17.11,11.99,24.64,39.53,13.2,5.192,3.37,0,0,0,0,0,0,0,0,0,0,0,0,0,0,0,0,
668,63.83,41.1,38.08,3.347,42.38,26.63,13.75,7.914,17.07,20.36,-1.109,15.19,21.11,5.18,3.351,-3.351,0,0,0,0,0,0,0,0,0,0,0,0,0,0,0,0,
669,59.8,23.34,38.15,7.873,52.82,33.44,23.13,4.577,26.73,26.15,8.249,25.03,16.95,8.929,-0.6144,-7.686,0,0,0,0,0,0,0,0,0,0,0,0,0,0,0,0,
670,79.65,18.58,64.95,26.95,77.13,42.17,26.35,31.33,49.86,31.36,35.88,42.64,23.44,16.27,10.87,2.199,0,0,0,0,0,0,0,0,0,0,0,0,0,0,0,0,
671,87.34,35.98,86.61,48.1,80.5,54.67,50.2,48.46,85.67,31.66,73.37,70.76,46.88,32.8,42.78,25.34,0,0,0,0,0,0,0,0,0,0,0,0,0,0,0,0,
672,122.8,81.46,96.75,57.06,95.92,95.61,75.61,22.95,102.8,37.61,86.56,84.97,62.38,41.33,77,49.35,0,0,0,0,0,0,0,0,0,0,0,0,0,0,0,0,
673,124.5,79.22,75.35,31.22,93.91,81.15,40.57,3.701,67.21,35.69,40.81,41.28,33.44,15.33,74.04,46.4,0,0,0,0,0,0,0,0,0,0,0,0,0,0,0,0,T2
674,55.02,23.2,37.23,6.881,47.4,13.83,8.518,14.29,29.08,26.31,0.501,5.726,18.03,2.321,37.3,21.41,0,0,0,0,0,0,0,0,0,0,0,0,0,0,0,0,
675,51.53,22.61,41.84,18.25,40.77,23.91,32.07,14.57,34.09,22.43,7.779,24.12,39.79,15.25,10.04,6.329,0,0,0,0,0,0,0,0,0,0,0,0,0,0,0,0,
676,89.04,50.99,62.45,20.82,64.39,59.85,32.14,-0.5543,36.14,9.565,9.824,27.99,33.56,6.751,1.213,0.099,0,0,0,0,0,0,0,0,0,0,0,0,0,0,0,0,
677,58.55,37.8,49.95,11.74,40.06,33.11,16.45,4.801,18.84,2.451,7.113,19.67,17.51,0.7505,2.625,-3.347,0,0,0,0,0,0,0,0,0,0,0,0,0,0,0,0,
678,52.3,39.71,35.12,21.89,18.21,26.01,34.31,19.76,21.03,19.7,27.85,39,25.63,14.94,15.85,4.825,0,0,0,0,0,0,0,0,0,0,0,0,0,0,0,0,
679,81.5,46.77,42.74,25.14,52.18,56.66,28.93,8.193,35,24.29,37.8,40.76,15.77,11.22,24.61,11.26,0,0,0,0,0,0,0,0,0,0,0,0,0,0,0,0,
680,65.59,21.69,68.58,28.54,100.5,77.73,19.55,-5.194,45.93,16.34,35.07,25.76,9.593,10.86,22.6,10.47,0,0,0,0,0,0,0,0,0,0,0,0,0,0,0,0,
681,77.95,41.29,98.92,56.44,115.6,94.49,60.16,11.92,61.61,28.41,45.35,32.9,33.49,28.52,26.06,17.66,0,0,0,0,0,0,0,0,0,0,0,0,0,0,0,0,
682,103.7,72.84,92.99,61.49,79.99,67.16,61.14,26.29,55.19,30.03,37.6,20.27,18.57,17.06,23.2,16.74,0,0,0,0,0,0,0,0,0,0,0,0,0,0,0,0,
683,45.55,14.96,53.61,28.43,34.59,5.797,-0.6793,11.96,21.23,10.55,11.01,-12.78,-22.46,-6.711,0.247,-6.22,0,0,0,0,0,0,0,0,0,0,0,0,0,0,0,0,
684,9.723,-37.4,34.11,11.32,31.39,0.9301,-15.44,-2.701,12.54,11.98,19.55,-2.422,-5.047,2.887,-11.05,-16.71,0,0,0,0,0,0,0,0,0,0,0,0,0,0,0,0,
685,57.68,-1.592,40.48,26.55,42.25,25.1,12,0.4731,38.48,21.26,45.32,22.34,31.99,18.39,7.582,2.115,0,0,0,0,0,0,0,0,0,0,0,0,0,0,0,0,
686,67.55,27.92,46.69,39.92,37.54,17.17,12.88,4.62,54.68,16.69,40.95,17.7,31.67,21.2,28.32,22.18,0,0,0,0,0,0,0,0,0,0,0,0,0,0,0,0,
687,40.83,20.82,52.22,32.86,42.75,17.53,13.12,5.298,49,27.95,33.88,18.59,31.73,29.31,36.95,29.8,0,0,0,0,0,0,0,0,0,0,0,0,0,0,0,0,
688,50.21,25.77,56.4,24.8,51.58,35.29,23.48,12.02,36.44,42.01,33.38,18.76,39.65,31.55,38.6,30.05,0,0,0,0,0,0,0,0,0,0,0,0,0,0,0,0,
689,50.85,33.93,49.97,25.23,37.7,31.66,13.16,9.775,26.72,28.16,13.56,0.8645,40.37,27.78,29.17,25.52,0,0,0,0,0,0,0,0,0,0,0,0,0,0,0,0,
690,36.95,48.5,41.17,21.05,27.01,28.24,11.42,-4.892,27.47,22.58,9.493,10.88,50.37,33.2,19.75,24.94,0,0,0,0,0,0,0,0,0,0,0,0,0,0,0,0,
691,53.21,66.41,40.26,21.6,44.68,47.94,34.71,-5.226,28.59,34.4,30.93,36.73,46.36,25.97,25.26,26.32,0,0,0,0,0,0,0,0,0,0,0,0,0,0,0,0,
692,61.4,45.61,42.04,32.52,63.1,55.98,40.85,6.831,25.95,26.3,35.27,36.79,24.83,8.928,32.95,19.65,0,0,0,0,0,0,0,0,0,0,0,0,0,0,0,0,
693,50.04,22.05,44.81,37.61,57.35,41.39,29.51,19.13,40.03,19.73,44.18,42.04,29.54,12.71,36.5,16.7,0,0,0,0,0,0,0,0,0,0,0,0,0,0,0,0,
694,63.78,41.48,49.9,40.22,46.6,33.11,28.73,32.84,55.84,32.11,68.58,54.92,41.02,22.58,44.7,25.18,0,0,0,0,0,0,0,0,0,0,0,0,0,0,0,0,
695,84.57,59.34,55.02,45.81,54.31,35.64,36.84,31.35,50.76,29.8,68.26,49.07,38.75,28.48,52.39,31.61,0,0,0,0,0,0,0,0,0,0,0,0,0,0,0,0,
696,83.02,58.06,60.7,48.29,63.23,38.13,46.05,24.34,49.49,27.39,64.69,43.78,43.13,36.57,54.25,31.04,0,0,0,0,0,0,0,0,0,0,0,0,0,0,0,0,
697,67.55,58.53,57.06,47.39,55.39,37.46,43.47,27.17,51.89,43.77,75.86,40.35,37.32,31.09,52.76,26.41,0,0,0,0,0,0,0,0,0,0,0,0,0,0,0,0,
698,53.26,53.1,45.34,45.95,56.77,36.53,36.66,18.02,45.46,47.5,74.64,43.06,35.69,30,52.84,24.51,0,0,0,0,0,0,0,0,0,0,0,0,0,0,0,0,
699,68.32,50.48,57.16,59.08,73.33,49.48,57.57,26.8,58.39,46.8,79.01,72.78,66.96,46.06,66.11,37.71,0,0,0,0,0,0,0,0,0,0,0,0,0,0,0,0,
700,91.54,59.75,88.24,80.82,74.37,59.8,82.9,63.68,77.35,51.2,91.93,85.19,79.34,39.01,85.54,56.09,0,0,0,0,0,0,0,0,0,0,0,0,0,0,0,0,
701,69.95,65.77,93.33,75.88,63.22,37.4,71.27,51.3,63.47,31.42,78.72,53.15,55.65,14.34,85.25,56.56,0,0,0,0,0,0,0,0,0,0,0,0,0,0,0,0,
702,39.69,58.14,71.09,56.59,54.35,19,40.47,20.35,37.99,13.48,53.72,20.65,33.29,2.816,63.05,39.16,0,0,0,0,0,0,0,0,0,0,0,0,0,0,0,0,
703,36.43,26,55.14,51.31,47.49,28.18,20.43,33.55,30.31,15.49,42.64,3.447,10.32,-10.66,38.59,17.6,0,0,0,0,0,0,0,0,0,0,0,0,0,0,0,0,
704,21.82,-1.329,49.27,44.03,49.41,15.81,23.29,22.02,33.75,-0.622,46.9,-1.19,2.35,-18.94,27.32,5.274,0,0,0,0,0,0,0,0,0,0,0,0,0,0,0,0,
705,7.286,17.9,39.65,36.28,43.52,-13.77,34.84,6.24,21.88,-9.864,52.42,0.8994,17.65,-8.226,26.39,7.496,0,0,0,0,0,0,0,0,0,0,0,0,0,0,0,0,
706,15.98,30.73,25.88,35.78,18.34,-19.7,20.13,40.05,-7.46,6.848,31.88,-14.27,14.71,-8.085,14.45,7.081,0,0,0,0,0,0,0,0,0,0,0,0,0,0,0,0,
707,11.32,0.0942,14.4,22.55,9.926,-19.08,-3.763,23.89,0.6129,-0.9833,18.99,-14.32,17.06,-10.9,-2.734,-0.0949,0,0,0,0,0,0,0,0,0,0,0,0,0,0,0,0,
708,7.976,1.076,14.39,15.56,31.47,-12.15,2.455,-16.43,48.36,-9.339,53.13,22.84,57.29,10.91,10.05,13.93,0,0,0,0,0,0,0,0,0,0,0,0,0,0,0,0,
709,29.04,42.31,22.77,32.89,40.27,5.454,21.62,23.58,51.97,13.7,62.78,23.76,68.55,15.88,36.14,39.74,0,0,0,0,0,0,0,0,0,0,0,0,0,0,0,0,
710,22.21,46.63,18.69,41.9,8.118,-4.002,34.27,53.91,9.989,14.35,22.67,-14.52,36.91,-13.25,27.95,32.65,0,0,0,0,0,0,0,0,0,0,0,0,0,0,0,0,
711,-1.555,36.39,14.73,55.69,-21.21,-20.28,49.26,61.08,-1.219,11.63,25.54,-6.844,40.96,-12.59,6.324,7.933,0,0,0,0,0,0,0,0,0,0,0,0,0,0,0,0,
712,12.59,66.56,31.59,96.15,-5.541,-8.059,63.9,124.3,15.28,49.69,65.2,24.29,78.16,24.36,12.9,11.37,0,0,0,0,0,0,0,0,0,0,0,0,0,0,0,0,
713,24.96,92.5,29.99,104.8,4.974,2.242,72.22,150.7,16.87,66.09,60.1,16.22,88.17,39.75,24.51,28.31,0,0,0,0,0,0,0,0,0,0,0,0,0,0,0,0,
714,12.81,78.73,2.284,72.43,-15.56,3.185,70.79,116.7,18.57,45.48,41.83,4.124,70.89,33.08,14.19,27.97,0,0,0,0,0,0,0,0,0,0,0,0,0,0,0,0,
715,16.93,55.3,0.6557,62.04,-14.44,2.271,58.58,112.5,31.97,42.17,53.94,13.4,52.53,28.38,2.332,20.34,0,0,0,0,0,0,0,0,0,0,0,0,0,0,0,0,
716,27.87,42.48,11.84,63.2,0.1027,-3.205,55.84,100.4,29.82,48.25,57.55,15.81,49.25,27.54,4.201,20.22,0,0,0,0,0,0,0,0,0,0,0,0,0,0,0,0,
717,32.07,50.13,4.074,51.33,1.22,18.43,73.98,82.53,16.75,52.33,46.49,12.22,59.89,37.29,10.54,25.74,0,0,0,0,0,0,0,0,0,0,0,0,0,0,0,0,
718,40.68,68.39,-0.3994,56.55,8.606,46.5,86.86,113.6,8.414,60.84,37.17,6.15,55.65,40.01,11.4,27.97,0,0,0,0,0,0,0,0,0,0,0,0,0,0,0,0,
719,27.11,60.69,-10.46,60.32,-6.064,14.87,73.7,118.6,-12.95,49.14,10.83,-15.32,36.02,20.4,1.513,18.91,0,0,0,0,0,0,0,0,0,0,0,0,0,0,0,0,
720,-9.629,34.68,-37.21,36.88,-45.24,-40.9,53.8,80.76,-25.68,29.78,-4.503,-26.34,34.85,14.07,-8.277,8.926,0,0,0,0,0,0,0,0,0,0,0,0,0,0,0,0,
721,-19.19,25.11,-38.05,29.85,-38.84,-39.48,51.88,78.13,-3.025,35.94,20.91,-9.282,43.91,23.1,-0.903,13.84,0,0,0,0,0,0,0,0,0,0,0,0,0,0,0,0,
722,-4.012,24.43,-12.86,44.54,-6.374,-1.465,54.32,86.36,1.797,40.05,25.75,-8.829,28.51,6.441,8.004,20.43,0,0,0,0,0,0,0,0,0,0,0,0,0,0,0,0,
723,-13.42,15.13,-12.07,40.92,-18.86,-5.035,39.36,71.62,-22.05,20.84,-4.445,-33.34,5.516,-13.27,-4.277,8.702,0,0,0,0,0,0,0,0,0,0,0,0,0,0,0,0,
724,-34.07,5.497,-37.07,30.55,-48.91,-38.68,27.98,63.77,-16.11,12.08,-3.754,-30.2,12.69,2.299,-18.82,-6.876,0,0,0,0,0,0,0,0,0,0,0,0,0,0,0,0,
725,-21.49,3.791,-44.82,30.7,-43.82,-31,34.87,59.16,2.645,24.04,13.81,-8.981,27.54,17.08,-15.13,-5.439,0,0,0,0,0,0,0,0,0,0,0,0,0,0,0,0,
726,-4.19,5.162,-27.61,29.54,-21.74,-4.115,33.14,53.92,0.2181,31.08,8.742,-10.16,21.54,10.71,-7.674,4.214,0,0,0,0,0,0,0,0,0,0,0,0,0,0,0,0,
727,-13.27,10.8,-23.29,30.77,-22.3,-13.66,30.95,62.38,2.264,32.72,5.888,-10.67,27.08,16.05,-7.268,10.78,0,0,0,0,0,0,0,0,0,0,0,0,0,0,0,0,
728,-14.28,22.6,-37.81,34.46,-34.65,-25.78,50.83,70.53,6.288,33.03,7.92,3.366,49.06,21.66,-9.931,15.63,0,0,0,0,0,0,0,0,0,0,0,0,0,0,0,0,
729,6.533,27.78,-34.12,35.15,-21.84,-2.488,56.71,74.25,1.423,21.76,14.11,17.55,54.1,8.895,-11.32,16.53,0,0,0,0,0,0,0,0,0,0,0,0,0,0,0,0,
730,28.48,34.88,-20.13,42.69,-1.897,27.48,50.31,72.65,7.698,20.97,37.52,36.39,59.31,12.45,-2.433,16,0,0,0,0,0,0,0,0,0,0,0,0,0,0,0,0,
731,36.74,63,-25.36,50.94,-4.491,27.53,77.06,59.82,18.32,43.31,39.23,47.13,73.99,32.02,10.92,18.64,0,0,0,0,0,0,0,0,0,0,0,0,0,0,0,0,
732,33.28,83.66,-21.84,52.36,7.672,16.95,91.98,71.66,23.2,47.6,19.59,44.84,66.58,32.6,11.29,16.59,0,0,0,0,0,0,0,0,0,0,0,0,0,0,0,0,
733,44.63,73.75,-5.713,52.88,34.55,26.79,58.32,98.9,27.65,28.03,23.44,44.32,47.5,21.06,3.529,6.016,0,0,0,0,0,0,0,0,0,0,0,0,0,0,0,0,
734,49.35,60.7,-23.22,44.93,11.67,18.76,44.51,85.27,20.31,30.11,19.07,33.26,48.89,16.81,-4.154,-4.913,0,0,0,0,0,0,0,0,0,0,0,0,0,0,0,0,
735,23.88,58.66,-45.15,38.92,-27,-6.099,61.77,69.36,7.491,54.23,-6.253,24.72,63.48,20.78,-14.23,-9.936,0,0,0,0,0,0,0,0,0,0,0,0,0,0,0,0,
736,26.82,54.45,-32.55,43.5,-18.72,6.788,52.08,73.99,6.119,58.39,-5.374,34.27,62.23,22.32,-17.82,-10.8,0,0,0,0,0,0,0,0,0,0,0,0,0,0,0,0,
737,32.63,44.84,-42.27,27.16,-24.08,-2.515,29.87,49.41,6.032,39.55,3.877,25.64,43.21,17.27,-10.98,-12.71,0,0,0,0,0,0,0,0,0,0,0,0,0,0,0,0,
738,-15.88,46.56,-72.76,11.64,-57.35,-47.46,35.6,48.73,4.873,37.21,1.592,15.21,42.91,23.63,-4.255,-12.48,0,0,0,0,0,0,0,0,0,0,0,0,0,0,0,0,
739,-19.56,73.67,-52.92,43.01,-37.47,-17.93,56.44,93.45,9.418,52.51,14.9,36.14,61.88,34.93,0.976,-5.923,0,0,0,0,0,0,0,0,0,0,0,0,0,0,0,0,
740,31.13,88.8,-24.11,62.29,2.715,26.42,53.77,78.18,8.618,45.42,18.43,36.62,55.18,27.44,4.224,-3.075,0,0,0,0,0,0,0,0,0,0,0,0,0,0,0,0,
741,15.93,51.77,-47.66,23.44,-11.53,-14.27,18.54,28.44,-0.9984,24.89,-6.748,8.613,31.6,19.68,-0.8028,-7.002,0,0,0,0,0,0,0,0,0,0,0,0,0,0,0,0,
742,-27.65,15.66,-75.56,-5.107,-43.37,-50.45,1.351,29.96,-5.123,21.37,-9.449,9.882,30.5,27.11,-4.131,-2.467,0,0,0,0,0,0,0,0,0,0,0,0,0,0,0,0,
743,-32.39,29.59,-74.58,5.732,-53.24,-45.37,14.59,33.13,-2.717,18.69,13.04,25.27,33.49,29.09,6.576,13.06,0,0,0,0,0,0,0,0,0,0,0,0,0,0,0,0,
744,-34.57,31.81,-75.3,0.6604,-57.2,-53.34,-6.337,8.871,-12.98,5.563,8.688,13.73,15.68,16.46,16.81,21.41,0,0,0,0,0,0,0,0,0,0,0,0,0,0,0,0,
745,-37.52,-1.666,-88.64,-26.87,-66.99,-64.3,-45.96,-2.675,-29.1,-3.355,-6.951,-2.151,6.539,6.87,14.06,17.31,0,0,0,0,0,0,0,0,0,0,0,0,0,0,0,0,
746,-38.58,1.287,-90.16,-24.76,-69.37,-64.53,-34.16,13.45,-18.7,3.925,10.19,6.902,22.71,17.55,15.81,17.2,0,0,0,0,0,0,0,0,0,0,0,0,0,0,0,0,
747,-38.3,30.78,-66.91,7.868,-48.58,-47.17,-0.5884,39.2,1.074,25.28,30.97,23.62,30.48,29.87,28.72,25.97,0,0,0,0,0,0,0,0,0,0,0,0,0,0,0,0,
748,-16.49,31.93,-50.42,21.93,-32.9,-19.25,14.74,31.66,-3.386,30.78,22.72,22.95,24.48,21.01,32.35,30.43,0,0,0,0,0,0,0,0,0,0,0,0,0,0,0,0,
749,-6.095,36.13,-54.88,21.82,-39.11,-18.1,24.34,18.2,-7.088,17.51,15.28,16.93,31.35,13.21,24.54,26.61,0,0,0,0,0,0,0,0,0,0,0,0,0,0,0,0,
750,-19.74,42.53,-52.93,34.28,-35.24,-27.89,16.76,48.93,0.3524,17.68,19.04,18.57,36.42,16.38,20.32,19.6,0,0,0,0,0,0,0,0,0,0,0,0,0,0,0,0,
751,-19.08,23.54,-58.64,30.24,-33.55,-25.98,3.631,55.61,-10.42,19.9,11.19,12.65,23.54,11.18,18.03,12.32,0,0,0,0,0,0,0,0,0,0,0,0,0,0,0,0,
752,-12.54,28,-78.44,11.84,-45.37,-22.01,14.33,29.91,-23.22,14.24,2.441,1.42,14,4.646,11.71,7.493,0,0,0,0,0,0,0,0,0,0,0,0,0,0,0,0,
753,-15.35,51.4,-67.45,22.32,-34.22,-10.13,20.35,51.1,-10.01,20.61,7.162,2.334,16.07,5.328,5.324,4.208,0,0,0,0,0,0,0,0,0,0,0,0,0,0,0,0,
754,-15.93,50.11,-43.28,35.66,-14.11,-2.494,14.96,63.49,3.909,24.82,9.32,7.238,22.72,6.271,2.154,3.261,0,0,0,0,0,0,0,0,0,0,0,0,0,0,0,0,
755,-9.891,56.71,-44.18,25.51,-3.626,5.354,24.45,30.43,-3.485,22.16,0.8455,1.541,26.65,6.171,1.017,6.916,0,0,0,0,0,0,0,0,0,0,0,0,0,0,0,0,
756,-4.055,62.74,-46.62,26.75,2.983,22.47,28.62,41.18,-9.927,30.15,-5.105,-10.71,23.15,1.133,-1.876,7.657,0,0,0,0,0,0,0,0,0,0,0,0,0,0,0,0,
757,-17.52,38,-43.94,39.34,-19.12,4.362,20.47,80.66,-1.974,36.8,-3.391,-15.42,25.03,-1.537,-7.596,3.02,0,0,0,0,0,0,0,0,0,0,0,0,0,0,0,0,
758,-34.47,30.56,-42.49,37.04,-36.81,-24.17,20.01,69.41,-2.163,33.84,-11.78,-10.76,32,6.336,-12.38,0.1099,0,0,0,0,0,0,0,0,0,0,0,0,0,0,0,0,
759,-39.56,42.77,-41.38,24.65,-18.58,-21.05,11.09,32.77,-14.94,21.61,-30.94,-12.54,29.39,9.198,-14.09,-1.743,0,0,0,0,0,0,0,0,0,0,0,0,0,0,0,0,
760,-68.5,29.48,-55.75,15.53,-28.3,-36.67,-9.13,26.34,-17.85,7.468,-30.35,-18.62,26.37,7.735,-10.48,-1.704,0,0,0,0,0,0,0,0,0,0,0,0,0,0,0,0,
761,-88.62,16.2,-60.02,19.73,-51.59,-48.93,-11.53,43.09,-15.26,15.4,-18.57,-15.27,27.25,12.5,-1.554,3.66,0,0,0,0,0,0,0,0,0,0,0,0,0,0,0,0,
762,-62.96,30.54,-42.15,23.09,-37.44,-28.77,-1.089,38.3,-21.51,23.78,-30.72,-19.33,17.07,4.076,0.7999,3.479,0,0,0,0,0,0,0,0,0,0,0,0,0,0,0,0,
763,-66.55,30.97,-43.75,8.269,-37.77,-43.65,-2.688,19.47,-28.35,6.839,-45.08,-33.83,-1.308,-18.59,-9.661,-9.831,0,0,0,0,0,0,0,0,0,0,0,0,0,0,0,0,
764,-87.7,-3.982,-45.93,-0.5372,-44.49,-52.99,-11.05,24.89,-28.34,-4.422,-35.4,-27.84,-14.19,-28.62,-17.1,-24.53,0,0,0,0,0,0,0,0,0,0,0,0,0,0,0,0,
765,-61.45,-28.43,-32.92,0.4557,-19.95,-20.34,-14.9,23.18,-22.35,-9.874,-26.29,-12.06,-23.79,-34.14,-11.64,-30.41,0,0,0,0,0,0,0,0,0,0,0,0,0,0,0,0,
766,-60.64,-28.93,-44.62,-3.021,-25.3,-32.58,-16.59,5.243,-12.4,-23.37,-18.29,-7.853,-29.07,-43.06,-0.88,-26.36,0,0,0,0,0,0,0,0,0,0,0,0,0,0,0,0,
767,-82.38,-25.08,-47.95,11.84,-44.58,-38.49,-1.635,16.1,2.413,-14.61,7.463,8.437,-16.19,-28.72,13.85,-11.43,0,0,0,0,0,0,0,0,0,0,0,0,0,0,0,0,
768,-39.48,5.328,-19.68,29.76,-14.13,18.42,25.32,28.7,13.91,5.594,19.91,24.95,-1.106,-5.251,27.42,4.96,0,0,0,0,0,0,0,0,0,0,0,0,0,0,0,0,
769,-11.44,33.84,-18.27,19.84,7.687,21.59,19.63,25.21,-3.31,6.079,4.935,14.09,-5.719,-1.742,27.67,9.441,0,0,0,0,0,0,0,0,0,0,0,0,0,0,0,0,
770,-43.54,12.77,-37.9,12.73,-13.43,-18.15,-4.995,33.38,-29.89,7.579,0.2793,7.288,-5.71,6.284,23.62,9.536,0,0,0,0,0,0,0,0,0,0,0,0,0,0,0,0,
771,-46.59,-0.2181,-47.14,8.634,-34.27,-16.93,-4.731,23.01,-19.35,14.69,0.0936,4.353,0.0038,18.2,21.1,12.9,0,0,0,0,0,0,0,0,0,0,0,0,0,0,0,0,
772,-51.17,10.33,-58.9,-3.889,-47.57,-28.59,-2.925,7.251,-7.815,12.11,-19.5,-19.68,-12.87,10.01,7.652,9.73,0,0,0,0,0,0,0,0,0,0,0,0,0,0,0,0,
773,-91.97,0.7049,-57.1,14.61,-53,-47.6,-8.107,27.77,-37.96,11.19,-29.32,-27.61,-15.84,8.387,-6.18,4.754,0,0,0,0,0,0,0,0,0,0,0,0,0,0,0,0,
774,-92.18,7.209,-43.87,36.74,-53.7,-35.37,0.6536,34.53,-51.76,11.16,-20.71,-10.93,-0.8221,20.61,-3.152,12.41,0,0,0,0,0,0,0,0,0,0,0,0,0,0,0,0,
775,-73.92,34.32,-39.6,23.85,-52.53,-35.05,5.875,29.64,-23.34,9.665,-20.13,-8.218,-3.801,23.72,7.3,24.94,0,0,0,0,0,0,0,0,0,0,0,0,0,0,0,0,
776,-85.54,37.77,-21.5,25.48,-27.08,-30.38,7.32,44.45,-23.34,16.9,-27.37,-21.54,-19.2,20.58,11.11,24.14,0,0,0,0,0,0,0,0,0,0,0,0,0,0,0,0,
777,-88.78,27.34,-11.2,35.78,-18.4,-21.25,10.06,27.43,-53.29,14.71,-31.7,-41.92,-32.58,6.23,-0.3818,3.664,0,0,0,0,0,0,0,0,0,0,0,0,0,0,0,0,
778,-91.26,15.92,-34.78,22.25,-55.25,-43.64,-3.031,12.68,-41.65,-0.0702,-23.15,-51.52,-41.02,-9.094,-18.49,-18.84,0,0,0,0,0,0,0,0,0,0,0,0,0,0,0,0,
779,-94.53,17.13,-39.49,24.72,-58.76,-37.51,-13.45,47.4,-19.3,1.444,-9.986,-40.9,-35.57,-3.831,-20.39,-21.75,0,0,0,0,0,0,0,0,0,0,0,0,0,0,0,0,
780,-79.13,23.05,-25.82,26.73,-30.74,-11.87,-16.75,45.71,-48.54,5.807,-22,-46.91,-35.89,-8.978,-17.09,-20.05,0,0,0,0,0,0,0,0,0,0,0,0,0,0,0,0,
781,-92.38,-4.975,-36.28,1.155,-45.09,-28.14,-29.16,10.98,-72.93,-5.501,-37.64,-57.53,-45.96,-27.92,-27.42,-29.31,0,0,0,0,0,0,0,0,0,0,0,0,0,0,0,0,
782,-101.1,-21.75,-39.03,5.131,-56.96,-22.68,-24.85,20.48,-51.16,-7.309,-26.67,-35.73,-42.12,-23.92,-30.97,-27.19,0,0,0,0,0,0,0,0,0,0,0,0,0,0,0,0,
783,-53.89,-1.538,-24.68,27.45,-30.14,-0.4914,-12.64,30.59,-32.77,-2.067,-19.72,-27.48,-42.17,-19,-20.29,-11.84,0,0,0,0,0,0,0,0,0,0,0,0,0,0,0,0,
784,-55.27,-17.43,-33.28,12.5,-31.77,-32.92,-26.68,11.89,-35.35,-8.781,-21.72,-44,-53.48,-27.39,-13.94,-8.808,0,0,0,0,0,0,0,0,0,0,0,0,0,0,0,0,
785,-96.84,-43.93,-44,-0.2338,-52.73,-41.47,-28.85,8.526,-40.14,-8.063,-8.184,-25.5,-40.51,-18.52,-6.862,-9.504,0,0,0,0,0,0,0,0,0,0,0,0,0,0,0,0,
786,-47.93,-8.014,-23.39,16.1,-26.51,8.27,-2.054,16.45,-30.22,-3.716,0.2541,1.393,-16.35,-8.052,5.107,0.6041,0,0,0,0,0,0,0,0,0,0,0,0,0,0,0,0,
787,-6.963,28.5,-11.34,16.31,-4.337,9.697,-4.35,7.264,-12.33,-22.84,-15.02,-24.14,-26.87,-19.79,0.3271,1.762,0,0,0,0,0,0,0,0,0,0,0,0,0,0,0,0,
788,-70.29,2.989,-36.37,-4.632,-37.29,-27.91,-32.03,-13.84,-29.11,-39.11,-32.95,-54.02,-53.76,-28.17,-20.12,-10.3,0,0,0,0,0,0,0,0,0,0,0,0,0,0,0,0,
789,-86.53,-31.06,-46.07,-6.689,-42.03,-14.2,-22.2,-15.97,-45.24,-22.86,-23.12,-24.21,-50.3,-18.4,-20.68,-7.271,0,0,0,0,0,0,0,0,0,0,0,0,0,0,0,0,
790,-21.53,-20,-16.56,11.95,0.5224,18.43,4.242,13.39,2.778,4.488,26.81,32.72,-23.15,1.007,18.07,23.03,0,0,0,0,0,0,0,0,0,0,0,0,0,0,0,0,
791,4.616,15.14,4.55,25.25,9.622,23.28,-0.2563,39,51.46,24.1,82.44,63.92,-3.256,22.58,74.83,63.96,0,0,0,0,0,0,0,0,0,0,0,0,0,0,0,0,
792,0.944,28.18,1.6,24.8,-3.592,23.79,-6.202,29.66,44.41,26.38,85.96,59.28,-0.1877,27.88,106.6,89.05,0,0,0,0,0,0,0,0,0,0,0,0,0,0,0,0,
793,-11.14,5.599,-17.8,4.02,-18.92,2.463,-7.852,-5.94,13.09,6.591,37.41,27.7,-7.174,19.88,89.21,82.87,0,0,0,0,0,0,0,0,0,0,0,0,0,0,0,0,
794,-51.65,-18.99,-47.21,-24.77,-51.17,-34.4,-30.15,-27.25,-20.7,-5.056,-0.9207,-2.75,-11.66,23.36,46.22,60.36,0,0,0,0,0,0,0,0,0,0,0,0,0,0,0,0,
795,-67.61,-14.93,-49.35,-24.63,-50.8,-20.5,-37.38,-5.336,-36.35,-2.069,-13.41,-17.83,-20.94,20.34,11.75,40.35,0,0,0,0,0,0,0,0,0,0,0,0,0,0,0,0,
796,-56.63,-8.28,-35.73,-10.42,-33.17,4.933,-21.06,13.31,-40.56,-12.1,-37.7,-32.15,-39.36,1.066,-12.33,19.93,0,0,0,0,0,0,0,0,0,0,0,0,0,0,0,0,
797,-64.17,-18.74,-41.94,-9.311,-46.92,-16.52,-15.32,-7.169,-51.34,-14.27,-52.09,-31.5,-38.95,4.305,-25.75,4.293,0,0,0,0,0,0,0,0,0,0,0,0,0,0,0,0,
798,-67.61,-19.89,-35.16,-0.9968,-38.5,-27.7,-12.69,-15.51,-35.25,2.092,-35.54,-15.88,-32.31,12.63,-22.71,1.22,0,0,0,0,0,0,0,0,0,0,0,0,0,0,0,0,
799,-61.95,-16.5,-19.03,0.1238,-18.55,-11.07,-15.91,-4.372,-21.36,-6.22,-40.88,-24.56,-52.87,-13.99,-22.3,-7.205,0,0,0,0,0,0,0,0,0,0,0,0,0,0,0,0,
800,-56.21,-20.85,-30.68,-21.17,-36.54,-6.558,-28.29,-13.55,-50.12,-25.13,-60.57,-37.79,-65.62,-31.91,-33.47,-25.23,0,0,0,0,0,0,0,0,0,0,0,0,0,0,0,0,
801,-37.44,-12.37,-37.49,-23.24,-42.06,-6.107,-22.51,-12.32,-45.59,-12.98,-43.31,-22.13,-51.57,-15.13,-35.11,-29.45,0,0,0,0,0,0,0,0,0,0,0,0,0,0,0,0,
802,-38.01,-7.823,-28.29,-14.06,-31.41,-2.684,-14.16,3.669,-4.203,-0.2576,-25.64,-12.97,-49.87,-8.661,-25.88,-19.81,0,0,0,0,0,0,0,0,0,0,0,0,0,0,0,0,
803,-64.93,-21.92,-30.79,-26.29,-37.03,-2.851,-21.11,-16.76,-12.08,-11.56,-39.22,-28.23,-63.34,-21.83,-27.98,-19.46,0,0,0,0,0,0,0,0,0,0,0,0,0,0,0,0,
804,-80.54,-27.88,-33.92,-34.69,-36.45,-10.32,-29.89,-38.64,-41.59,-22.66,-54.01,-42.66,-74.64,-32.17,-46.78,-34.42,0,0,0,0,0,0,0,0,0,0,0,0,0,0,0,0,
805,-91.83,-35.66,-37.96,-36.18,-43.83,-32.46,-48.15,-24.26,-43.61,-29.35,-60.5,-44.03,-83.43,-38.77,-64.3,-49.62,0,0,0,0,0,0,0,0,0,0,0,0,0,0,0,0,
806,-96.84,-53.33,-53.33,-47.62,-66.07,-47.49,-60.31,-25.22,-45.46,-36.83,-59.05,-34.19,-77.52,-35.62,-61.73,-47.24,0,0,0,0,0,0,0,0,0,0,0,0,0,0,0,0,
807,-83.39,-50.82,-54.31,-47.41,-66.56,-40.58,-45.98,-42.35,-52.21,-35.23,-53.3,-32.38,-61.41,-22.25,-45.95,-27.85,0,0,0,0,0,0,0,0,0,0,0,0,0,0,0,0,
808,-83.39,-36.3,-38.68,-37.02,-60.14,-31.18,-38.59,-38.85,-55.29,-30.07,-65.43,-51.12,-61.61,-21.27,-40.28,-13.88,0,0,0,0,0,0,0,0,0,0,0,0,0,0,0,0,
809,-96.66,-38.39,-38.24,-40.12,-66.82,-30.94,-48.43,-35.37,-63.91,-28.75,-83.06,-67.81,-74.32,-29.31,-46.9,-17.64,0,0,0,0,0,0,0,0,0,0,0,0,0,0,0,0,
810,-97.73,-56.34,-40.7,-43,-56.6,-34.71,-50.76,-37.91,-64.17,-24.53,-76.61,-66.07,-76.61,-22.32,-50.32,-26.13,0,0,0,0,0,0,0,0,0,0,0,0,0,0,0,0,
811,-90.52,-61.39,-15.27,-31.59,-21.91,-24.15,-38.12,-40.05,-44.34,-20.21,-54.96,-48,-64.19,-9.255,-43.03,-25.4,0,0,0,0,0,0,0,0,0,0,0,0,0,0,0,0,
812,-69.5,-28.89,2.709,-16.97,-11.29,-5.879,-15.41,-41.76,-24.76,-15.95,-33.49,-19.61,-46.15,-4.879,-24.3,-13.42,0,0,0,0,0,0,0,0,0,0,0,0,0,0,0,0,
813,-42.49,-4.025,-12.67,-3.677,-37.16,-0.8664,-6.013,-11.79,-20.45,-4.848,-12.71,0.4314,-33.24,-2.243,-0.989,2.275,0,0,0,0,0,0,0,0,0,0,0,0,0,0,0,0,
814,-35.8,-22.86,-9.882,4.693,-31.4,12.26,-11.3,19.33,-19.62,-2.49,-2.087,0.0739,-34.79,-6.584,7.468,4.402,0,0,0,0,0,0,0,0,0,0,0,0,0,0,0,0,
815,-41.56,-28.48,14.98,3.205,-0.2831,18.32,-0.943,-3.533,-11.09,-12.2,-3.143,-9.991,-44.54,-16.46,-6.145,-11.63,0,0,0,0,0,0,0,0,0,0,0,0,0,0,0,0,
816,-44.69,-10.36,18.13,4.79,-10.49,-0.6338,9.165,-22.8,-2.15,-5.718,7.682,-6.516,-41.55,-8.202,-16.53,-20.44,0,0,0,0,0,0,0,0,0,0,0,0,0,0,0,0,
817,-34.05,-14.3,15.07,9.194,-13.79,15.39,-3.637,-3.972,-1.405,6.857,26.52,14.41,-28.21,5.994,-3.231,-6.436,0,0,0,0,0,0,0,0,0,0,0,0,0,0,0,0,
818,-12.81,-16.16,14.28,2.641,10.56,36.96,-7.659,2.351,-1.97,-2.309,23.36,23.46,-23.06,1.202,14.51,8.988,0,0,0,0,0,0,0,0,0,0,0,0,0,0,0,0,
819,-10.56,2.442,11.68,5.999,2.784,11.3,12.1,2.881,5.68,-5.778,17.77,20.75,-15.03,-1.604,19.22,11.77,0,0,0,0,0,0,0,0,0,0,0,0,0,0,0,0,
820,-16.06,4.065,20.77,15.34,-3.111,6.618,14.74,6.873,0.9459,6.738,20.51,19.33,-6.451,2.118,17.72,10.8,0,0,0,0,0,0,0,0,0,0,0,0,0,0,0,0,
821,-23.68,-19.62,4.061,-12.55,-3.166,0.6798,-20.26,-15.59,-27.54,0.66,-5.9,-4.387,-21.03,-8.148,4.428,3.216,0,0,0,0,0,0,0,0,0,0,0,0,0,0,0,0,
822,-56.25,-33.33,-27.89,-36.2,-37.81,-36.05,-32.97,-28.36,-30.33,-7.19,-25.03,-19.02,-24.36,-6.731,-16.39,-7.674,0,0,0,0,0,0,0,0,0,0,0,0,0,0,0,0,
823,-54.96,-9.006,-11.05,-13.02,-39.2,-5.793,-1.186,-10.37,-4.949,2.921,2.344,8.521,-2.227,10.45,-14.14,-2.508,0,0,0,0,0,0,0,0,0,0,0,0,0,0,0,0,
824,-9.642,10.78,6.191,-16.2,-5.301,35.33,-3.425,-18.78,-9.826,-4.373,15.49,14.35,-9.465,2.642,6.586,9.311,0,0,0,0,0,0,0,0,0,0,0,0,0,0,0,0,
825,-8.273,-8.909,3.096,-42.99,1.857,9.204,-26.57,-42.31,-7.674,-14.66,19.48,5.975,-22.91,-6.293,21.78,13.26,0,0,0,0,0,0,0,0,0,0,0,0,0,0,0,0,
826,-23.35,-8.827,32.9,-20.17,8.355,8.604,-7.628,-28.03,28.58,1.121,44.31,25.33,-8.219,4.429,32.04,18.61,0,0,0,0,0,0,0,0,0,0,0,0,0,0,0,0,
827,-26.44,-4.289,29.52,-15.73,-3.911,4.491,-17.31,-17.24,13.8,-1.705,20.07,1.445,-23.64,-7.704,24.13,14.65,0,0,0,0,0,0,0,0,0,0,0,0,0,0,0,0,
828,-63.98,-49.32,-23.93,-63.16,-42.14,-44.34,-56.77,-40.61,-27.46,-24.86,-21.7,-39.49,-45.9,-21.8,-2.317,-4.039,0,0,0,0,0,0,0,0,0,0,0,0,0,0,0,0,
829,-65.52,-52.42,-18.47,-62.59,-36.41,-32.87,-35.84,-47.78,-6.886,-23.89,0.7905,-13.41,-24.47,-11.17,-8.113,-9.614,0,0,0,0,0,0,0,0,0,0,0,0,0,0,0,0,
830,-25.7,-14.47,13.75,-39.94,-22.27,-6.822,-24.11,-35.17,8.88,-21.69,3.269,-7.476,-30.57,-23.88,0.1272,-6.761,0,0,0,0,0,0,0,0,0,0,0,0,0,0,0,0,
831,-51.93,-52.58,-2.086,-66.3,-29.95,-35.74,-63.03,-36.74,-26.98,-31.72,-43.02,-48.38,-61.22,-43.9,-12.63,-15.18,0,0,0,0,0,0,0,0,0,0,0,0,0,0,0,0,
832,-73.78,-87.55,-12.16,-73.35,-7.649,-28.07,-56.4,-38.39,-36.61,-27.51,-42.79,-44.79,-46.43,-32.76,-28.6,-17.78,0,0,0,0,0,0,0,0,0,0,0,0,0,0,0,0,
833,-37.94,-50.97,-1.77,-48.74,0.7009,-4.298,-29.14,-32.08,-10.42,-24.7,-20.57,-32.18,-33.53,-30.27,-29.7,-12.16,0,0,0,0,0,0,0,0,0,0,0,0,0,0,0,0,
834,-42.92,-44.03,-2.186,-52.49,-25.07,-24.47,-33.63,-28.3,-3.734,-33.63,-26.64,-41.62,-41.53,-36.33,-27.02,-12.63,0,0,0,0,0,0,0,0,0,0,0,0,0,0,0,0,
835,-55.14,-46.96,8.77,-48.22,-9.453,-6.701,-14.84,-18.65,-14.68,-35.13,-24.46,-28.1,-30.31,-31.61,-21.96,-13.27,0,0,0,0,0,0,0,0,0,0,0,0,0,0,0,0,
836,-28.09,-16.72,23.68,-24.71,18.93,37.67,4.495,-16.01,-24.29,-36.9,-32.15,-32.32,-37.36,-51.35,-26.73,-21.5,0,0,0,0,0,0,0,0,0,0,0,0,0,0,0,0,
837,-37.55,-31.03,9.12,-37.32,-2.241,13.09,-18.5,-34.01,-32.64,-45.04,-61.54,-54.62,-52.73,-69.86,-46.18,-39.95,0,0,0,0,0,0,0,0,0,0,0,0,0,0,0,0,
838,-51.14,-48.59,-5.567,-51.49,-19.7,-22.01,-19.67,-37.84,-19.6,-39.59,-41.53,-19.85,-15.65,-40.25,-38.07,-32.17,0,0,0,0,0,0,0,0,0,0,0,0,0,0,0,0,
839,-18.78,-9.332,11.4,-28.36,0.9141,1.762,6.822,-23.96,10.03,-21.65,8.4,19.68,14.08,-16.7,7.52,4.711,0,0,0,0,0,0,0,0,0,0,0,0,0,0,0,0,
840,-14.5,-13.01,19.79,-26.31,0.7937,13.72,-3.428,-40.5,0.6179,-20.08,1.089,-1.434,-12.94,-31.67,32.34,21.88,0,0,0,0,0,0,0,0,0,0,0,0,0,0,0,0,
841,-38.08,-59.07,-3.049,-50.32,-21.87,-4.041,-23.8,-64.75,-31.49,-33.63,-26.91,-16.53,-25.15,-32.34,15.6,8.526,0,0,0,0,0,0,0,0,0,0,0,0,0,0,0,0,
842,-28.58,-42.69,-8.089,-39.37,-8.067,9.305,-5.516,-39.68,-29.63,-31.18,-19.63,-6.441,-10.68,-19.57,-6.313,-6.334,0,0,0,0,0,0,0,0,0,0,0,0,0,0,0,0,
843,-19.68,-18.63,3.277,-20.04,-0.5324,12.6,5.424,-12.69,-31.11,-23.37,-21.98,-23.26,-27.39,-35.63,-21.93,-19.45,0,0,0,0,0,0,0,0,0,0,0,0,0,0,0,0,
844,-36.6,-58.14,-14.35,-41.61,-38.98,-26.71,-28.79,-33.98,-42.78,-34.04,-37.6,-39.01,-51.61,-51.88,-35.28,-33.86,0,0,0,0,0,0,0,0,0,0,0,0,0,0,0,0,
845,-34.9,-80.76,-22.7,-58.23,-33.07,-29.45,-46.57,-53.39,-15.73,-40.52,-24.92,-21.51,-39.92,-38.26,-30.92,-28.57,0,0,0,0,0,0,0,0,0,0,0,0,0,0,0,0,
846,-10.78,-47.04,4.878,-40.71,15.81,-0.2567,-15.41,-52.25,-1.676,-32.63,-12.55,-13.36,-19.72,-27.98,-12.26,-2.542,0,0,0,0,0,0,0,0,0,0,0,0,0,0,0,0,
847,-5.295,-28.51,13.16,-38.72,4.123,-9.867,-8.18,-55.75,-26.27,-27.71,-18.97,-29.26,-15.49,-31.86,-3.328,12.59,0,0,0,0,0,0,0,0,0,0,0,0,0,0,0,0,
848,-20.84,-43.87,1.662,-58.25,-28.52,-25.89,-39.41,-40.81,-26.12,-21.97,-20.6,-41.08,-11.28,-27.66,-7.484,4.955,0,0,0,0,0,0,0,0,0,0,0,0,0,0,0,0,
849,-32.96,-43.98,1.079,-62.09,-18.27,-22.06,-35.18,-17.8,-25.52,-14.27,-32.48,-44.7,-2.693,-21.78,-15.91,-7.374,0,0,0,0,0,0,0,0,0,0,0,0,0,0,0,0,
850,-40.73,-29.58,-11.32,-63.11,-21.89,-36.19,-16.97,-32.76,-54.98,-19.6,-57.09,-48.06,-10.36,-28.41,-28.28,-16.89,0,0,0,0,0,0,0,0,0,0,0,0,0,0,0,0,
851,-48.2,-37.86,-24.61,-69.78,-42.92,-49.26,-39.74,-53.36,-54.71,-36.74,-57.51,-45.18,-31.95,-38.7,-41.18,-29.04,0,0,0,0,0,0,0,0,0,0,0,0,0,0,0,0,
852,-44.39,-46.01,-6.332,-56.09,-21.81,-24.17,-39.6,-41.29,-22.36,-40.83,-33.69,-23.58,-28.92,-34.47,-41.07,-33.87,0,0,0,0,0,0,0,0,0,0,0,0,0,0,0,0,
853,-17.57,-16.31,18.65,-36.08,14.43,19.73,10.91,-24.26,-6.807,-21.11,-13.13,8.078,-0.6307,-15.81,-21.97,-19.43,0,0,0,0,0,0,0,0,0,0,0,0,0,0,0,0,
854,24.32,12.71,31.07,-31.85,19.33,47.55,28.47,-13.02,-3.357,-10.55,-9,14.39,5.178,-8.249,-0.8269,-0.898,0,0,0,0,0,0,0,0,0,0,0,0,0,0,0,0,
855,32.95,0.5713,32.36,-31.97,17.11,34.23,3.134,-3.883,1.894,-19.94,-14.35,-4.743,-13.92,-16.09,3.519,3.324,0,0,0,0,0,0,0,0,0,0,0,0,0,0,0,0,
856,-5.496,-18.64,17.62,-34.79,23.08,6.809,-2.419,-10.31,4.457,-11.86,-1.506,-4.641,-19.01,-14.41,-1.008,1.964,0,0,0,0,0,0,0,0,0,0,0,0,0,0,0,0,
857,-13.75,-10.57,17.1,-31.86,22.1,24.02,11.12,-13.99,10.86,7.312,22.62,13.79,-10.58,-6.79,0.6363,4.708,0,0,0,0,0,0,0,0,0,0,0,0,0,0,0,0,
858,20.1,0.7198,37.39,-17.06,25.37,49.14,13.4,-8.964,16.25,3.674,12.55,9.001,-12.42,-13.89,0.8367,2.065,0,0,0,0,0,0,0,0,0,0,0,0,0,0,0,0,
859,16.18,-13.39,29.24,-20.61,29.73,27.67,6.588,-21.85,1.158,-9.874,-15.98,-8.184,-19.88,-26.86,-10.82,-8.268,0,0,0,0,0,0,0,0,0,0,0,0,0,0,0,0,
860,-8.004,-30.35,2.97,-38.89,15.22,16.65,-2.973,-26.06,-22.39,-21.97,-23.63,-12.75,-24.38,-35.27,-27.82,-18.81,0,0,0,0,0,0,0,0,0,0,0,0,0,0,0,0,
