%OpenBCI Raw EXG Data
%Number of channels = 16
%Sample Rate = 125 Hz
%Board = OpenBCI_GUI$BoardCytonSerialDaisy
Sample Index,EXG Channel 0,EXG Channel 1,EXG Channel 2,EXG Channel 3,EXG Channel 4,EXG Channel 5,EXG Channel 6,EXG Channel 7,EXG Channel 8,EXG Channel 9,EXG Channel 10,EXG Channel 11,EXG Channel 12,EXG Channel 13,EXG Channel 14,EXG Channel 15,Accel Channel 0,Accel Channel 1,Accel Channel 2,Other,Other,Other,Other,Other,Other,Other,Analog Channel 0,Analog Channel 1,Analog Channel 2,Timestamp,Other,Timestamp (Formatted),Annotations
1,0,0,0,0,0,-0,-0,0,-0,-0,0,0,0,-0,-0,-0,0,0,0,0,0,0,0,0,0,0,0,0,0,0,0,0,T0
2,5.229,9.547,6.067,5.643,10.12,8.682,10.51,11.67,8.502,21.19,10.19,0.4353,-3.919,0.951,-5.234,-8.511,0,0,0,0,0,0,0,0,0,0,0,0,0,0,0,0,
3,4.15,-0.7784,-1.025,-1.189,4.945,1.016,-0.0451,6.645,7.85,10.98,17.07,-8.687,-16.75,-7.207,-12.53,-20.28,0,0,0,0,0,0,0,0,0,0,0,0,0,0,0,0,
4,1.179,-12.76,-0.1436,-1.994,4.786,-4.784,-9.255,0.804,6.519,-3.036,21.58,-10.93,-30.37,-15.55,-12.46,-28.03,0,0,0,0,0,0,0,0,0,0,0,0,0,0,0,0,
5,4.004,-15.44,8.025,3.846,12.14,1.002,-8.046,-1.238,13.21,-2.838,27.09,-2.996,-37.25,-22.26,-8.934,-31.91,0,0,0,0,0,0,0,0,0,0,0,0,0,0,0,0,
6,14.04,-15.96,11.05,4.945,16.13,8.895,-6.61,-5.767,22.54,-0.5047,30.69,2.325,-37.9,-28.05,-8.722,-33.99,0,0,0,0,0,0,0,0,0,0,0,0,0,0,0,0,
7,21.24,-17.6,12.13,3.896,18.57,10.22,-6.308,-7.581,21.19,-2.892,25.91,3.453,-35.84,-28.21,-4.135,-28.78,0,0,0,0,0,0,0,0,0,0,0,0,0,0,0,0,
8,16.17,-21.58,5.448,-1.602,13.69,1.674,-10.14,-6.153,9.838,-8.42,20.31,7.604,-31.62,-22.87,8.718,-15.33,0,0,0,0,0,0,0,0,0,0,0,0,0,0,0,0,
9,8.126,-22.8,-4.436,-7.96,4.762,-5.523,-14.53,-4.104,5.155,-7.96,23.25,17.31,-22.7,-15.83,21.35,-1.34,0,0,0,0,0,0,0,0,0,0,0,0,0,0,0,0,
10,6.378,-17.52,-2.609,-5.205,4.514,-4.053,-11.78,-0.797,6.275,-0.1896,21.54,22.45,-13.72,-13.43,24.43,5.661,0,0,0,0,0,0,0,0,0,0,0,0,0,0,0,0,
11,0.608,-13.19,-2.074,-4.311,1.869,-7.167,-9.169,0.4044,-1.37,3.21,7.954,16.73,-8.484,-12.9,19.58,7.501,0,0,0,0,0,0,0,0,0,0,0,0,0,0,0,0,
12,-13.4,-14.87,-13.87,-15.69,-9.923,-17.97,-15.04,-6.561,-11.27,-2.085,1.531,9.911,-5.415,-9.786,13.04,7.722,0,0,0,0,0,0,0,0,0,0,0,0,0,0,0,0,
13,-19.37,-20.6,-17.94,-22.51,-10.77,-18.66,-22.76,-17.72,-7.896,-7.335,8.684,8.255,-5.511,-11.9,6.976,6.448,0,0,0,0,0,0,0,0,0,0,0,0,0,0,0,0,
14,-11.06,-22.53,-5.06,-12.52,0.9642,-7.316,-22.58,-16.58,0.4372,-1.98,11.55,7.656,-6.571,-13.16,5.366,6.902,0,0,0,0,0,0,0,0,0,0,0,0,0,0,0,0,
15,-7.943,-20.44,-0.1721,-7.66,-0.312,-8.544,-23.46,-9.399,-5.135,2.168,4.68,2.275,-9.954,-6.649,5.527,5.667,0,0,0,0,0,0,0,0,0,0,0,0,0,0,0,0,
16,-17.33,-25.22,-14.23,-20.57,-13.95,-23.94,-34.22,-16.96,-12.96,-6.175,2.734,-7.312,-19.85,-6.57,-2.51,-3.284,0,0,0,0,0,0,0,0,0,0,0,0,0,0,0,0,
17,-19.01,-29.55,-21.89,-26.04,-16.96,-27.7,-38.02,-22.71,-5.561,-3.674,7.633,-15.91,-30.59,-12.44,-17.41,-16.46,0,0,0,0,0,0,0,0,0,0,0,0,0,0,0,0,
18,-15.76,-27.56,-20.98,-22.08,-17.81,-27.9,-33.32,-15.38,-6.559,6.856,5.03,-26.28,-41.16,-17.36,-30.02,-30.54,0,0,0,0,0,0,0,0,0,0,0,0,0,0,0,0,
19,-24.58,-33.97,-30.49,-29.57,-28.12,-37.66,-35.9,-18.03,-20.21,-4.141,0.4345,-32.44,-49.57,-25.12,-30.05,-35.32,0,0,0,0,0,0,0,0,0,0,0,0,0,0,0,0,
20,-22.77,-37.43,-30.92,-29.85,-25.84,-31.5,-32.31,-23.82,-10.15,-15.43,8.024,-19.75,-45,-26.14,-13.64,-23.09,0,0,0,0,0,0,0,0,0,0,0,0,0,0,0,0,
21,-0.5238,-25.21,-11.73,-12.27,-9.512,-14.04,-17.91,-15.9,7.758,-8.375,16.27,-2.047,-36.01,-21.66,3.186,-12.68,0,0,0,0,0,0,0,0,0,0,0,0,0,0,0,0,
22,7.066,-22.95,-2.728,-5.913,-4.269,-15.93,-16.04,-11.21,0.2645,-8.777,16.6,0.2173,-36.92,-25.7,5.382,-15.54,0,0,0,0,0,0,0,0,0,0,0,0,0,0,0,0,
23,-4.477,-35.03,-9.006,-13.94,-11.89,-26.67,-26.2,-15.83,-6.347,-16.64,16.53,-6.291,-40.76,-24.83,-1.2,-18.84,0,0,0,0,0,0,0,0,0,0,0,0,0,0,0,0,
24,-13.64,-41,-17.02,-20.35,-22.56,-33.56,-35.02,-20.96,-4.658,-15.73,10.03,-11.22,-39.27,-14.01,-4.604,-17.06,0,0,0,0,0,0,0,0,0,0,0,0,0,0,0,0,
25,-22.61,-42.85,-24.13,-24.16,-30.21,-40.65,-39.72,-26.72,-20.33,-14.48,-4.961,-12.74,-34.68,-16.6,-4.186,-13.73,0,0,0,0,0,0,0,0,0,0,0,0,0,0,0,0,
26,-30.84,-42.85,-22.25,-21.7,-30.86,-39.37,-35.78,-26.57,-36.25,-17.34,-12.13,-13.21,-31.06,-26.64,-9.86,-12.34,0,0,0,0,0,0,0,0,0,0,0,0,0,0,0,0,
27,-29.77,-35.53,-13.82,-13.94,-29.15,-30.98,-26.91,-16.65,-30.89,-15.18,-8.9,-14.56,-26.97,-20.88,-18.36,-11.59,0,0,0,0,0,0,0,0,0,0,0,0,0,0,0,0,
28,-24.19,-27.63,-8.052,-7.627,-23.4,-24.21,-22.46,-9.798,-20.71,-9.168,-10.26,-13.79,-21.93,-15.77,-17.91,-7.836,0,0,0,0,0,0,0,0,0,0,0,0,0,0,0,0,
29,-21.93,-27.14,-2.474,-2.088,-15.37,-19.22,-22.62,-13.25,-21.3,-10.29,-20.08,-15.59,-24.57,-27.56,-16.5,-8.418,0,0,0,0,0,0,0,0,0,0,0,0,0,0,0,0,
30,-23.75,-29.75,-0.1042,1.197,-16.09,-19.83,-22.44,-15.02,-26.56,-11.59,-22.98,-20.75,-29.85,-31.86,-18.98,-12.89,0,0,0,0,0,0,0,0,0,0,0,0,0,0,0,0,
31,-22.8,-25.17,0.8868,3.681,-15.92,-22.26,-18.43,-9.068,-19.96,-3.652,-13.88,-20.01,-27.64,-24.26,-18.34,-12.18,0,0,0,0,0,0,0,0,0,0,0,0,0,0,0,0,
32,-20.52,-20.94,3.007,3.518,-12.63,-23.46,-19.62,-11.51,-8.86,-4.444,-10.77,-20.55,-30.84,-28.09,-20.51,-13.82,0,0,0,0,0,0,0,0,0,0,0,0,0,0,0,0,
33,-26.17,-29.35,-7.745,-8.654,-24.19,-32.3,-31.36,-24.48,-17.33,-13.35,-13.46,-25.62,-39.6,-31.47,-23.42,-18.33,0,0,0,0,0,0,0,0,0,0,0,0,0,0,0,0,
34,-28.62,-35.02,-22.65,-20.51,-37.23,-40.51,-36.99,-30.35,-27,-11.88,-5.173,-21.36,-37.55,-21.55,-15.84,-14.89,0,0,0,0,0,0,0,0,0,0,0,0,0,0,0,0,
35,-18.82,-30.7,-19.61,-17.16,-32.16,-35.82,-30.75,-28.44,-13.82,-13.33,4.382,-11.73,-32.24,-19.87,-3.639,-7.392,0,0,0,0,0,0,0,0,0,0,0,0,0,0,0,0,
36,-11.18,-29.85,-8.2,-8.191,-21.84,-27.09,-22.51,-21.5,-4.507,-16.37,4.909,-6.8,-31.23,-24.34,5.314,-1.006,0,0,0,0,0,0,0,0,0,0,0,0,0,0,0,0,
37,-10.4,-27.57,-0.4367,0.1436,-16.22,-21.09,-13.59,-10.64,-11.8,-5.707,4.957,-5.221,-28.59,-18.81,6.168,1.604,0,0,0,0,0,0,0,0,0,0,0,0,0,0,0,0,
38,-11.61,-21.99,5.602,6.622,-13.9,-15.46,-8.587,-9.809,-13.65,-3.101,2.983,-4.438,-23.97,-14,3.317,3.099,0,0,0,0,0,0,0,0,0,0,0,0,0,0,0,0,
39,-10.25,-18.87,10.5,10.08,-10.24,-7.548,-7.792,-12.03,-6.743,-6.643,5.103,6.803,-11.18,-8.363,15.27,16.91,0,0,0,0,0,0,0,0,0,0,0,0,0,0,0,0,
40,1.816,-8.906,15.92,15.1,-2.7,-0.8025,-5.082,-6.568,1.579,5.833,20.02,23.54,2.751,4.758,28.81,28.59,0,0,0,0,0,0,0,0,0,0,0,0,0,0,0,0,
41,8.121,-5.47,10.54,9.077,-8.894,-8.861,-12.75,-13.65,1.591,8.162,22.05,19.09,-5.326,3.576,18.58,17.27,0,0,0,0,0,0,0,0,0,0,0,0,0,0,0,0,
42,-5.74,-20.96,-6.015,-7.868,-24.41,-22.22,-24.63,-24.83,-10.22,-6.796,6.344,5.17,-19.21,-10.19,7.204,8.695,0,0,0,0,0,0,0,0,0,0,0,0,0,0,0,0,
43,-10.22,-21.79,-1.521,-2.66,-15.66,-13.76,-12.36,-10.33,-8.031,-5.858,5.246,7.3,-13.44,-9.534,10.08,15.34,0,0,0,0,0,0,0,0,0,0,0,0,0,0,0,0,
44,2.192,-3.957,17.33,14.18,1.466,1.602,4.107,5.866,5.631,3.705,9.45,8.945,-8.209,-4.732,6.364,11.7,0,0,0,0,0,0,0,0,0,0,0,0,0,0,0,0,
45,4.859,1.403,16.25,10.22,0.0221,2.902,-0.5903,1.329,1.663,5.849,4.319,8.376,-9.938,-8.398,4.615,7.051,0,0,0,0,0,0,0,0,0,0,0,0,0,0,0,0,
46,10.53,8.984,15.49,9.778,4.734,10.14,1.909,1.781,2.295,12.8,16.32,25.7,2.981,-0.3525,17.68,19,0,0,0,0,0,0,0,0,0,0,0,0,0,0,0,0,
47,27.38,28.26,26.78,22.08,12.59,18.5,14.9,8.414,15.64,18.77,33.32,38.45,17.79,16.49,23.53,26.76,0,0,0,0,0,0,0,0,0,0,0,0,0,0,0,0,
48,25.37,30.92,21.84,18.79,0.023,6.487,13.38,5.897,7.468,18.94,27.77,31.95,19.94,21.56,24.8,29.62,0,0,0,0,0,0,0,0,0,0,0,0,0,0,0,0,
49,15.52,23.91,13.79,12.97,-6.494,-1.604,11.08,7.729,-3.01,20.46,22.45,30.07,19.17,17.12,34.67,37.81,0,0,0,0,0,0,0,0,0,0,0,0,0,0,0,0,
50,19.19,18.2,16.32,14.91,-2.599,1.839,11.55,8.905,3.8,8.293,21.76,27.16,6.569,5.177,30.99,29.13,0,0,0,0,0,0,0,0,0,0,0,0,0,0,0,0,
51,15.2,0.8048,10.88,9.739,-9.642,-2.734,4,0.8976,-0.5744,-3.503,14.64,16.42,-11.38,-5.598,19.36,12.12,0,0,0,0,0,0,0,0,0,0,0,0,0,0,0,0,
52,8.75,-6.162,10.79,11.96,-7.775,-0.9626,6.418,5.701,-7.605,14.26,17.4,17.84,-9.61,0.3883,23.94,14.44,0,0,0,0,0,0,0,0,0,0,0,0,0,0,0,0,
53,12.25,2.101,15.59,15.54,-2.92,2.046,7.937,10.73,-2.914,21.35,19.97,18.15,-7.381,5.883,22.81,15.44,0,0,0,0,0,0,0,0,0,0,0,0,0,0,0,0,
54,4.22,-7.624,1.841,1.149,-18.34,-14.22,-7.999,-2.958,-6.24,2.352,13.39,6.723,-15.7,2.705,9.106,7.016,0,0,0,0,0,0,0,0,0,0,0,0,0,0,0,0,
55,-4.494,-16.3,-4.644,-2.492,-25.42,-21.47,-9.516,-4.237,-13.02,5.901,13.94,2.333,-15.94,5.32,2.418,4.998,0,0,0,0,0,0,0,0,0,0,0,0,0,0,0,0,
56,-0.6705,-7.707,3.521,5.196,-20.84,-13.37,1.073,6.898,-16.72,14.82,4.825,-3.086,-22.44,-0.875,-5.556,-2.868,0,0,0,0,0,0,0,0,0,0,0,0,0,0,0,0,
57,-4.929,-11.09,-1.104,-0.9309,-25.64,-13.42,-1.015,4.873,-23.42,6.139,-10.37,-8.474,-32.45,-10.48,-8.29,-8.423,0,0,0,0,0,0,0,0,0,0,0,0,0,0,0,0,
58,-2.703,-11.07,0.2539,2.178,-18.7,-6.597,4.809,5.636,-19.64,16.82,1.979,4.991,-21.45,2.023,4.677,3.24,0,0,0,0,0,0,0,0,0,0,0,0,0,0,0,0,
59,16.83,7.213,13.36,14.66,-4.787,6.393,17.23,11.77,-8.908,25.76,16.62,16.04,-14.3,6.695,8.093,6.452,0,0,0,0,0,0,0,0,0,0,0,0,0,0,0,0,
60,22.91,13.57,10.02,9.676,-9.51,3.151,16.13,9.726,-8.05,9.97,10.26,13.54,-20.3,-7.417,1.899,-0.6836,0,0,0,0,0,0,0,0,0,0,0,0,0,0,0,0,
61,17.43,14.77,1.752,4.936,-14.83,-2.314,17.67,11.72,-7.606,15.01,10.55,16.68,-12.09,-0.484,2.835,0.034,0,0,0,0,0,0,0,0,0,0,0,0,0,0,0,0,
62,18.52,25.86,3.953,10.64,-11.24,-0.085,24.77,17.02,-1.765,27.13,16.76,20.21,-1.389,12.3,2.423,1.271,0,0,0,0,0,0,0,0,0,0,0,0,0,0,0,0,
63,19.99,28.72,7.237,12.03,-10.21,0.9886,24.67,15.93,-1.565,11.01,8.708,18.12,-2.334,-1.713,2.965,4.636,0,0,0,0,0,0,0,0,0,0,0,0,0,0,0,0,
64,23.02,27.13,11.62,14.1,-7.843,5.771,25.79,17.42,-4.854,8.283,2.948,24.17,4.17,-9.709,14.58,17.37,0,0,0,0,0,0,0,0,0,0,0,0,0,0,0,0,
65,35.1,37.05,19.39,21.84,0.2874,18.69,33.42,26.52,6.369,31.67,25.33,44.08,24.2,15.41,36.77,36.09,0,0,0,0,0,0,0,0,0,0,0,0,0,0,0,0,
66,56.2,53.53,28.59,29.53,14.6,34.18,41.55,35.77,29.19,41.56,59.55,66.33,41.57,40.61,59.76,54.13,0,0,0,0,0,0,0,0,0,0,0,0,0,0,0,0,
67,72.19,60.93,30.82,30.54,22.81,38.43,42.92,33.73,30.54,38.87,65.52,71.54,42.71,36.6,62.95,54.33,0,0,0,0,0,0,0,0,0,0,0,0,0,0,0,0,
68,64.37,53.29,20.25,23.32,10.24,26.28,38.82,26.82,11.16,44.04,51.01,63.08,35.64,27.11,50.73,40.04,0,0,0,0,0,0,0,0,0,0,0,0,0,0,0,0,
69,47.88,49.49,14.9,21.38,-2.511,18.72,41.67,32.49,6.98,50.85,48.57,59.25,33.83,34.58,44.3,33.64,0,0,0,0,0,0,0,0,0,0,0,0,0,0,0,0,
70,43.77,55.39,21.62,27.95,0.3397,22.23,47.1,37.51,11.86,48.52,49.11,58.89,34.68,38.82,45.17,35.72,0,0,0,0,0,0,0,0,0,0,0,0,0,0,0,0,
71,41.7,53.92,23.8,31.25,1.882,19.64,43.41,30.62,4.406,40.12,44.26,60.69,38.38,33.98,53.24,42.35,0,0,0,0,0,0,0,0,0,0,0,0,0,0,0,0,
72,36.13,49.45,20.52,29.82,0.4531,13.11,36.71,27.59,-0.7609,34.11,48.12,65.28,41.27,35.66,58.28,47.28,0,0,0,0,0,0,0,0,0,0,0,0,0,0,0,0,
73,33.84,47.48,17.7,24.19,3.005,12.42,31.2,26.4,1.501,37.82,52.33,63.94,35.23,35.79,49.66,42,0,0,0,0,0,0,0,0,0,0,0,0,0,0,0,0,
74,36.92,43.06,16.14,18.58,3.356,15.4,28.34,22.45,1.221,47.37,48.47,63.93,35.22,31.66,49.67,42.84,0,0,0,0,0,0,0,0,0,0,0,0,0,0,0,0,
75,45.1,43.78,17.91,20.19,3.457,19.38,30.18,24.26,5.869,42.18,49.37,69.58,43.08,32.93,60.7,52.95,0,0,0,0,0,0,0,0,0,0,0,0,0,0,0,0,
76,45.7,42.63,13.13,15.87,0.4044,14.6,26.48,22.37,11.12,25.69,51.31,65.49,38.57,31.49,58.81,51.68,0,0,0,0,0,0,0,0,0,0,0,0,0,0,0,0,
77,29.42,31.57,-2.101,-0.9722,-14.09,-3.741,16.17,12.7,-1.557,27.25,40.01,53.13,29.75,27.12,50.69,44.93,0,0,0,0,0,0,0,0,0,0,0,0,0,0,0,0,
78,11.1,26.64,-11.77,-10.97,-23.97,-16.39,11.09,6.995,-20.69,33.9,28.05,45.71,30.42,28.99,49.17,47.78,0,0,0,0,0,0,0,0,0,0,0,0,0,0,0,0,
79,5.386,27.38,-9.945,-6.649,-17.76,-11.52,11.28,5.515,-22.35,21.41,31.84,43.68,33.48,31.27,50.64,53.94,0,0,0,0,0,0,0,0,0,0,0,0,0,0,0,0,
80,10.03,24.77,-4.079,0.3949,-12.03,-5.016,10.93,5.707,-12.79,14.12,34.97,41.13,32.55,30.83,48.03,50.15,0,0,0,0,0,0,0,0,0,0,0,0,0,0,0,0,
81,12.83,23.56,-2.854,-0.9418,-16.76,-9.744,5.502,2.899,-9.517,21.57,25.37,32.57,24.15,29.21,34.44,34.99,0,0,0,0,0,0,0,0,0,0,0,0,0,0,0,0,
82,8.797,18.16,-11.4,-11.66,-23.12,-16.55,-4.28,-6.914,-10.79,20.3,22.92,24.98,16.32,24.16,24.02,25.84,0,0,0,0,0,0,0,0,0,0,0,0,0,0,0,0,
83,9.563,10.63,-14.75,-15.17,-17.88,-12.61,-5.232,-9.416,-7.862,13.7,29.01,26.98,18.64,20.97,26.29,26.63,0,0,0,0,0,0,0,0,0,0,0,0,0,0,0,0,
84,15.33,15.36,-2.994,-4.255,-4.321,-3.484,4.758,1.143,-5.512,18.29,22.39,25.92,17.72,22.07,20.67,20.52,0,0,0,0,0,0,0,0,0,0,0,0,0,0,0,0,
85,12.03,21.75,2.999,2.711,-3.46,-2.729,9.491,8.291,-11.3,26.53,11.18,17.15,9.38,17.59,9.407,12.58,0,0,0,0,0,0,0,0,0,0,0,0,0,0,0,0,
86,6.235,16.07,0.3905,2.799,-8.107,-4.754,7.906,6.802,-13.84,20.96,14.78,17.35,8.566,9.288,13.13,16.72,0,0,0,0,0,0,0,0,0,0,0,0,0,0,0,0,
87,11.25,12.86,9.733,11.78,1.878,1.999,15.48,8.93,-3.464,11.27,25.45,26.88,14.3,11.3,23.39,25.44,0,0,0,0,0,0,0,0,0,0,0,0,0,0,0,0,
88,19.59,22.04,23.2,25.33,9.565,9.786,28.98,16.81,3.463,17.95,28.16,29.42,13.19,14.52,25.09,25.88,0,0,0,0,0,0,0,0,0,0,0,0,0,0,0,0,
89,19.53,24.02,25.98,29.88,6.115,9.386,28.67,15.62,-2.686,19.52,21.37,21.94,1.913,4.376,17.66,15,0,0,0,0,0,0,0,0,0,0,0,0,0,0,0,0,
90,12.79,11.34,22.18,26.32,2.331,5.523,20.35,6.857,-9.393,3.794,17.37,20.38,-1.297,3.868,14.85,11.83,0,0,0,0,0,0,0,0,0,0,0,0,0,0,0,0,
91,13.03,11.32,13.52,21.46,-7.603,4.913,25.28,9.288,-10.27,5.892,27.47,33.52,13.9,19.94,28.48,28.15,0,0,0,0,0,0,0,0,0,0,0,0,0,0,0,0,
92,24.26,24.31,10.85,21.27,-8.017,9.448,32.19,14.15,-3.895,20.44,36.91,39.39,16.56,16.88,34.14,31.62,0,0,0,0,0,0,0,0,0,0,0,0,0,0,0,0,
93,29.23,19.98,23.84,26.81,14.21,14.01,26.87,7.488,7.038,15.42,28.88,25.71,-2.823,0.8594,18.28,12.58,0,0,0,0,0,0,0,0,0,0,0,0,0,0,0,0,
94,22.97,9.262,30.12,28.58,22.49,12.46,23.88,2.86,8.962,3.089,19.86,17.28,-8.865,2.926,13.86,7.973,0,0,0,0,0,0,0,0,0,0,0,0,0,0,0,0,
95,19.17,11.3,19.63,20,12.04,8.133,22.04,0.1178,6.984,-4.133,24.72,19.36,-3.189,7.521,22.53,16.72,0,0,0,0,0,0,0,0,0,0,0,0,0,0,0,0,
96,17.08,8.577,15.36,11.96,15.56,4.827,10.49,-8.884,14.14,-5.327,27.6,12.82,-9.344,2.854,16.4,12.56,0,0,0,0,0,0,0,0,0,0,0,0,0,0,0,0,
97,9.425,-2.458,18.06,10.82,18.35,-1.743,-0.4917,-14.01,13.41,-0.8942,17.61,3.152,-18.67,-2.989,6.687,2.04,0,0,0,0,0,0,0,0,0,0,0,0,0,0,0,0,
98,2.762,-10.44,10.77,4.628,5.418,-9.94,-7.766,-16.74,1.651,-7.993,13.6,2.932,-23.94,-12.83,7.316,-5.387,0,0,0,0,0,0,0,0,0,0,0,0,0,0,0,0,
99,6.442,-12.85,1.32,-5.043,3.118,-9.765,-11.94,-19.53,5.984,-12.57,27.33,8.964,-23.66,-12.12,7.424,-8.594,0,0,0,0,0,0,0,0,0,0,0,0,0,0,0,0,
100,16.69,-4.362,-0.8317,-6.349,11.16,-4.707,-9.065,-15.93,18.15,4.609,35.57,14.21,-16.02,1.734,6.355,-4.155,0,0,0,0,0,0,0,0,0,0,0,0,0,0,0,0,
101,19.85,3.321,-3.421,-8.349,8.434,-7.677,-11.89,-18.13,16.54,6.158,28.67,13.42,-15.99,-2.382,7.275,0.1149,0,0,0,0,0,0,0,0,0,0,0,0,0,0,0,0,
102,13.89,-5.08,-8.986,-17.1,1.145,-16.75,-22.52,-28.25,13.29,-16.74,22.96,7.859,-23.23,-18,4.733,-0.4973,0,0,0,0,0,0,0,0,0,0,0,0,0,0,0,0,
103,4.891,-14.91,-15.85,-23.03,-5.958,-25.04,-25.02,-28.72,7.059,-19.49,13.5,1.08,-21.44,-15.4,-0.3378,0.0592,0,0,0,0,0,0,0,0,0,0,0,0,0,0,0,0,
104,-5.263,-13.99,-20.91,-22.96,-14.88,-29.25,-19.87,-21.91,-6.534,-2.805,8.014,-1.26,-14.2,-5.446,-0.0918,2.636,0,0,0,0,0,0,0,0,0,0,0,0,0,0,0,0,
105,-8.059,-10.55,-18.07,-18.81,-13.5,-24.81,-15.56,-19.59,-3.242,-0.7707,23.54,5.032,-10.48,-7.521,5.218,5.083,0,0,0,0,0,0,0,0,0,0,0,0,0,0,0,0,
106,-3.606,-11.17,-13.43,-16.5,-3.881,-17.61,-14.37,-21.06,9.342,-9.083,26.48,8.537,-11.01,-13.07,7.409,5.974,0,0,0,0,0,0,0,0,0,0,0,0,0,0,0,0,
107,-2.247,-10.69,-9.826,-16.42,1.764,-11.52,-12.51,-18.88,6.375,-7.117,8.707,2.684,-15.52,-10.99,3.114,1.83,0,0,0,0,0,0,0,0,0,0,0,0,0,0,0,0,
108,-0.1484,-4.588,-1.541,-9.887,6.041,-2.366,-5.465,-11.5,0.8427,-4.297,3.105,-7.982,-24.06,-11.58,-11.17,-10.73,0,0,0,0,0,0,0,0,0,0,0,0,0,0,0,0,
109,0.1937,-5.4,2.464,-4.162,7.708,-0.0291,-2.273,-10.05,1.377,-13.07,0.2757,-21.51,-34.29,-21.21,-28.53,-23.49,0,0,0,0,0,0,0,0,0,0,0,0,0,0,0,0,
110,-7.11,-16.08,-1.6,-8.097,3.118,-9.081,-8.836,-15.8,-0.5363,-17.56,0.5656,-24.23,-36.96,-24.35,-25.02,-20.88,0,0,0,0,0,0,0,0,0,0,0,0,0,0,0,0,
111,-12.84,-21.83,-8.819,-15.71,-6.554,-20.61,-18.65,-20.05,-8.008,-13.09,10.54,-16.15,-33.54,-22.56,-8.92,-10.82,0,0,0,0,0,0,0,0,0,0,0,0,0,0,0,0,
112,-18.23,-25.31,-18.44,-21.37,-17.51,-30.06,-25.98,-23.97,-18.61,-14.4,-1.946,-16.55,-32.89,-28.41,-7.011,-8.195,0,0,0,0,0,0,0,0,0,0,0,0,0,0,0,0,
113,-21.25,-28.56,-17.13,-18.95,-16.62,-29.69,-26.64,-26.6,-18.95,-17.88,-19.2,-16.28,-27.47,-27.82,-6.953,-4.211,0,0,0,0,0,0,0,0,0,0,0,0,0,0,0,0,
114,-16.82,-26.33,-12.91,-19.14,-13.76,-28.65,-30.48,-31.29,-16.44,-17.25,-12.41,-9.295,-18.32,-18.52,-0.7308,2.709,0,0,0,0,0,0,0,0,0,0,0,0,0,0,0,0,
115,-21.26,-28.95,-26.66,-33.49,-25.66,-39.62,-42.02,-41.79,-25.68,-16.22,-9.653,-8.981,-15.74,-17.45,-1.269,4.513,0,0,0,0,0,0,0,0,0,0,0,0,0,0,0,0,
116,-25.01,-30.66,-30.67,-36,-26.64,-38.55,-40.29,-39.97,-23.26,-15.99,-8.214,-6.17,-13.72,-17.71,-1.53,4.839,0,0,0,0,0,0,0,0,0,0,0,0,0,0,0,0,
117,-11.8,-22.77,-16.2,-23.02,-12.99,-25.03,-31.69,-29.99,-10.61,-20.93,-0.1067,-2.666,-16.52,-16.19,-3.902,-2.369,0,0,0,0,0,0,0,0,0,0,0,0,0,0,0,0,
118,-10.52,-24.61,-19.33,-24.96,-16.29,-30.24,-38.15,-38.65,-15.15,-26.22,-7.759,-12.6,-28.65,-23.75,-16.32,-17.11,0,0,0,0,0,0,0,0,0,0,0,0,0,0,0,0,
119,-23.99,-32.74,-29.15,-32.52,-24.98,-40.35,-42.28,-47.98,-19.68,-22.96,-12,-17.45,-29.28,-26.25,-17.24,-16.93,0,0,0,0,0,0,0,0,0,0,0,0,0,0,0,0,
120,-22.01,-26.97,-22.39,-27.43,-21.12,-34.28,-33.49,-34.28,-14.39,-19,-1.812,-9.025,-16.82,-15.77,-4.932,-4.13,0,0,0,0,0,0,0,0,0,0,0,0,0,0,0,0,
121,-12.48,-17.91,-15.84,-21.54,-18.44,-25.15,-28.06,-23.25,-18.11,-17.09,-4.932,-7.889,-11.49,-13.58,-6.494,-2.785,0,0,0,0,0,0,0,0,0,0,0,0,0,0,0,0,
122,-11.2,-15.46,-15.15,-20.64,-18.44,-19.51,-27.2,-30.87,-25.06,-14.28,-14.9,-17.46,-12.84,-20.53,-17.35,-9.398,0,0,0,0,0,0,0,0,0,0,0,0,0,0,0,0,
123,-13.74,-16.11,-13.61,-20.95,-16.43,-17.66,-27.15,-35.45,-26.42,-17.97,-17.67,-26.68,-15.75,-23.52,-17.11,-9.405,0,0,0,0,0,0,0,0,0,0,0,0,0,0,0,0,
124,-20.19,-25.34,-13.99,-21.05,-16.2,-22.56,-31.15,-32.57,-27.75,-27.82,-24.78,-33.1,-24.7,-30.78,-16.62,-10.93,0,0,0,0,0,0,0,0,0,0,0,0,0,0,0,0,
125,-28.7,-39.11,-16.7,-22.41,-17.83,-28.82,-36.35,-36.25,-29.78,-34.68,-32.79,-37.65,-32.8,-39.94,-25.7,-18.96,0,0,0,0,0,0,0,0,0,0,0,0,0,0,0,0,
126,-28.48,-40.07,-17.43,-23.65,-17.25,-29.19,-35.44,-34.88,-26.68,-33.26,-28.19,-34.31,-29.97,-37.63,-25.74,-18.4,0,0,0,0,0,0,0,0,0,0,0,0,0,0,0,0,
127,-16.28,-28.63,-11.85,-17.2,-9.986,-20.38,-26.76,-20.56,-16.77,-25.53,-18.93,-23.19,-23.61,-33.15,-16.11,-10.77,0,0,0,0,0,0,0,0,0,0,0,0,0,0,0,0,
128,-6.167,-21,-8.416,-12.56,-5.742,-12.15,-20.33,-17.58,-14.85,-21.19,-18.2,-18.49,-23.2,-31.83,-16.53,-12.8,0,0,0,0,0,0,0,0,0,0,0,0,0,0,0,0,
129,-7.845,-19.28,-13.75,-18.7,-13.32,-15.8,-20.83,-26.46,-22.12,-21.76,-18.65,-20.45,-23.74,-28.9,-19.97,-17.72,0,0,0,0,0,0,0,0,0,0,0,0,0,0,0,0,
130,-10.46,-16.43,-14.29,-18.91,-17,-21.32,-20.06,-24.31,-19.46,-16.93,-13.58,-16.49,-18.76,-26.65,-13.9,-12.98,0,0,0,0,0,0,0,0,0,0,0,0,0,0,0,0,
131,-9.233,-13.06,-8.35,-11.17,-10.18,-17.5,-16.67,-17.75,-13.71,-3.272,-9.582,-7.933,-8.237,-14.04,-6.287,-5.192,0,0,0,0,0,0,0,0,0,0,0,0,0,0,0,0,
132,-5.845,-6.885,-4.196,-6.549,-3.72,-8.914,-12.38,-15.6,-13.03,5.8,-3.814,-1.933,0.0703,2.101,-4.38,-3.799,0,0,0,0,0,0,0,0,0,0,0,0,0,0,0,0,
133,3.486,-0.9599,1.808,-0.4937,1.26,-2.988,-7.367,-11,-7.099,-4.362,0.3959,-3.914,-5.653,-11.54,-10.5,-10.89,0,0,0,0,0,0,0,0,0,0,0,0,0,0,0,0,
134,8.084,-6.148,5.117,4.161,3.679,-1.536,-6.502,-8.383,-5.193,-19.07,-6.818,-12.13,-16.73,-35.12,-18.43,-18.15,0,0,0,0,0,0,0,0,0,0,0,0,0,0,0,0,
135,4.432,-9.502,5.21,4.811,3.677,2.876,-3.907,-7.402,-8.317,-15.72,-8.928,-12.11,-12.13,-27.99,-16.8,-14.24,0,0,0,0,0,0,0,0,0,0,0,0,0,0,0,0,
136,11.17,3.271,16.2,13.98,11.4,14.79,8.267,-0.0121,0.8288,-5.682,1.618,-2.913,2.631,-10.46,-9.082,-3.155,0,0,0,0,0,0,0,0,0,0,0,0,0,0,0,0,
137,23.8,13.67,29.94,26.98,21.65,23.32,18.54,7.519,9.416,-3.604,3.53,0.1091,6.528,-8.738,-4.25,1.183,0,0,0,0,0,0,0,0,0,0,0,0,0,0,0,0,
138,22.88,10.4,29.51,28.88,20.75,22.15,19.33,9.389,3.853,-2.349,-2.096,-5.04,-1.348,-13.43,-5.692,-5.424,0,0,0,0,0,0,0,0,0,0,0,0,0,0,0,0,
139,17.15,7.125,26.85,27.02,18.83,22.35,19.3,8.939,3.602,0.533,1.281,-8.868,-5.649,-14.79,-10.66,-10.1,0,0,0,0,0,0,0,0,0,0,0,0,0,0,0,0,
140,19.61,8.249,32.45,30.01,24.08,27.03,18.71,6.978,10.59,2.008,4.116,-9.326,-2.763,-10.66,-10.38,-3.939,0,0,0,0,0,0,0,0,0,0,0,0,0,0,0,0,
141,17.72,5.144,29.43,26.17,19.03,21.1,9.226,2.874,1.444,-0.4027,-6.56,-11.58,-5.37,-8.075,-8.76,-0.8444,0,0,0,0,0,0,0,0,0,0,0,0,0,0,0,0,
142,3.934,-4.601,14.13,12.09,3.847,5.469,-4.325,-3.079,-13.12,-10.75,-18.49,-14.99,-15.95,-16.29,-14.34,-8.974,0,0,0,0,0,0,0,0,0,0,0,0,0,0,0,0,
143,-2.472,-11.17,9.51,5.183,1.509,1.12,-8.322,-7.279,-7.316,-18.1,-17.29,-12.08,-19.54,-24.68,-17.82,-14.64,0,0,0,0,0,0,0,0,0,0,0,0,0,0,0,0,
144,6.661,-5.102,17.01,9.519,8.018,7.193,-2.315,-4.032,0.6414,-8.941,-7.231,-1.969,-7.655,-19.21,-11.17,-9.162,0,0,0,0,0,0,0,0,0,0,0,0,0,0,0,0,
145,13.83,6.788,16.34,9.813,7.324,7.845,1.011,1.738,-2.657,3.573,2.338,7.944,9.632,-5.526,-1.13,2.427,0,0,0,0,0,0,0,0,0,0,0,0,0,0,0,0,
146,13.39,12.58,8.866,2.615,3.862,4.89,-3.666,-0.081,1.714,6.192,6.078,11.61,18.76,5.039,5.883,11.69,0,0,0,0,0,0,0,0,0,0,0,0,0,0,0,0,
147,10.53,12.91,5.615,-2.698,-0.6414,1.551,-9.253,-6.415,-0.0126,9.807,4.171,11.17,22.67,12.35,11.15,16.06,0,0,0,0,0,0,0,0,0,0,0,0,0,0,0,0,
148,4.03,12.75,3.264,-3.508,-8.664,-5.293,-11.87,-10.33,-16.85,12.1,5.061,13.87,27.54,15.97,18.4,21.34,0,0,0,0,0,0,0,0,0,0,0,0,0,0,0,0,
149,3.06,11.81,1.013,-2.364,-10.31,-7.596,-12.36,-12.93,-11.73,0.5051,13.25,21.72,28.13,11.7,28.35,29.73,0,0,0,0,0,0,0,0,0,0,0,0,0,0,0,0,
150,14.8,11.94,4.677,0.9869,-2.461,0.108,-7.82,-11.99,9.003,-4.06,24.88,31.25,29.91,11.53,38.25,37.8,0,0,0,0,0,0,0,0,0,0,0,0,0,0,0,0,
151,24.2,15.75,9.511,3.49,2.617,5.783,-3.175,-7.306,9.271,8.142,30.13,33.31,36.43,20.31,38.18,39.26,0,0,0,0,0,0,0,0,0,0,0,0,0,0,0,0,
152,20.39,14.88,5.382,-1.432,-2.231,0.1697,-9.477,-9.401,3.762,4.951,17.74,18.29,27.44,14.91,21.24,27.02,0,0,0,0,0,0,0,0,0,0,0,0,0,0,0,0,
153,9.509,3.66,-2.244,-7.587,-9.478,-7.677,-18.67,-17.2,1.395,-8.607,1.037,-0.6801,7.392,1.572,6.666,13.29,0,0,0,0,0,0,0,0,0,0,0,0,0,0,0,0,
154,0.2348,-1.604,1.008,-1.636,-9.736,-6.353,-14.32,-16.35,-12.13,1.296,2.355,-2.313,5.679,8.714,12.22,15.85,0,0,0,0,0,0,0,0,0,0,0,0,0,0,0,0,
155,0.0212,6.896,11.72,10.77,-3.842,0.5101,-1.504,-7.838,-15.6,12.3,9.633,4.091,8.661,11.03,17.54,18.46,0,0,0,0,0,0,0,0,0,0,0,0,0,0,0,0,
156,7.013,7.762,15.85,14.4,2.329,3.34,4.571,-3.239,1.611,-0.9296,7.614,1.632,-7.425,-12.67,7.474,4.356,0,0,0,0,0,0,0,0,0,0,0,0,0,0,0,0,
157,10.5,-1.855,14.28,11.61,4.999,1.539,3.327,-2.313,9.673,-9.406,6.594,-1.011,-17.88,-21.15,1.519,-4.246,0,0,0,0,0,0,0,0,0,0,0,0,0,0,0,0,
158,8.12,-0.6745,13.52,10.79,2.462,-2.279,1.703,-0.9697,3.362,-4.559,6.685,1.987,-9.718,-9.663,3.827,1.591,0,0,0,0,0,0,0,0,0,0,0,0,0,0,0,0,
159,2.62,4.979,10.64,8.62,-3.632,-8.012,1.662,-0.8361,-1.877,-5.904,0.3073,2.627,-4.736,-11.78,1.207,2.749,0,0,0,0,0,0,0,0,0,0,0,0,0,0,0,0,
160,-1.218,7,9.271,8.282,-4.856,-7.212,6.695,1.165,-6.242,-0.5923,-1.939,7.423,3.845,-3.74,4.362,5.748,0,0,0,0,0,0,0,0,0,0,0,0,0,0,0,0,
161,6.134,20.64,16.92,17.45,4.146,5.117,15.33,6.084,-6.322,14.88,4.756,19,23.68,21.93,14.85,17.6,0,0,0,0,0,0,0,0,0,0,0,0,0,0,0,0,
162,15.84,32.24,20.05,20.62,7.97,10.47,15.29,4.197,-3.775,14.51,6.373,18.88,28.29,17.63,12.26,18.77,0,0,0,0,0,0,0,0,0,0,0,0,0,0,0,0,
163,10.95,23.14,9.527,8.86,-4.09,0.0789,8.911,-2.593,-10.57,4.804,-1.23,7.267,19.52,0.2293,3.589,12.31,0,0,0,0,0,0,0,0,0,0,0,0,0,0,0,0,
164,2.891,14.52,2.634,2.962,-12.91,-7.869,7.053,-3.542,-16.91,3.232,-7.577,-0.1132,18.21,9.133,1.682,11.69,0,0,0,0,0,0,0,0,0,0,0,0,0,0,0,0,
165,3.852,13.04,-1.786,2.57,-16.41,-10.89,3.118,-4.962,-16.74,0.5683,-9.663,-4.609,16.85,14.83,-1.537,10.37,0,0,0,0,0,0,0,0,0,0,0,0,0,0,0,0,
166,5.322,9.671,-16.33,-7.591,-29.65,-15.89,-2.096,-11.19,-21.09,0.7018,-7.133,-5.606,15.45,10.55,-2.041,9.605,0,0,0,0,0,0,0,0,0,0,0,0,0,0,0,0,
167,7.759,15.13,-18.45,-10.64,-29.03,-11.72,2.097,-11.16,-16.32,11.01,5.094,0.6022,17.29,16.98,2.541,8.435,0,0,0,0,0,0,0,0,0,0,0,0,0,0,0,0,
168,13.82,22.41,1.427,1.82,-2.467,-0.4073,7.928,-4.078,3.314,13.98,17.97,5.844,10.46,11.01,4.941,2.431,0,0,0,0,0,0,0,0,0,0,0,0,0,0,0,0,
169,16.29,18.45,11.24,7.626,10.83,2.465,7.889,-0.4327,9.251,4.527,19.82,10.8,5.793,-5.052,14.27,7.078,0,0,0,0,0,0,0,0,0,0,0,0,0,0,0,0,
170,16.02,15.75,3.648,1.946,2.861,-1.394,3.361,-4.512,1.794,-2.077,20.87,18.87,10.94,-2.344,27.71,17.97,0,0,0,0,0,0,0,0,0,0,0,0,0,0,0,0,
171,14.35,12.82,-0.6049,-4.161,3.236,-6.748,-7.984,-12.29,2.313,-2.63,22.68,19.89,4.556,0.195,26.77,11.67,0,0,0,0,0,0,0,0,0,0,0,0,0,0,0,0,
172,7.16,0.5202,-0.4432,-8.321,9.019,-12.11,-18.12,-17.09,1.612,-4.662,12.79,13.72,-7.435,-7.16,18.55,1.325,0,0,0,0,0,0,0,0,0,0,0,0,0,0,0,0,
173,0.825,-5.029,0.8165,-7.057,8.05,-10.76,-15.69,-16.18,-2.729,-6.128,10.29,15.6,2.181,0.1132,20.85,9.87,0,0,0,0,0,0,0,0,0,0,0,0,0,0,0,0,
174,4.985,5.461,9.341,1.572,11.14,-3.189,-5.631,-10.4,5.097,-0.575,26.98,25.21,22.57,14.64,26.48,22.12,0,0,0,0,0,0,0,0,0,0,0,0,0,0,0,0,
175,11.89,15.33,17.62,8.155,16.84,1.026,-0.0509,-4.849,11.49,3.215,23.43,21.67,24.68,17.43,16.03,15.42,0,0,0,0,0,0,0,0,0,0,0,0,0,0,0,0,
176,7.842,11.89,15.51,6.62,13.99,0.1053,-2.998,-5.862,3.823,-1.212,-1.256,7.544,15.42,15.4,1.697,5.939,0,0,0,0,0,0,0,0,0,0,0,0,0,0,0,0,
177,3.973,5.81,13.24,5.331,13.74,3.683,-3.879,-7.898,6.969,-4.757,4.883,9.022,18,11.58,9.271,15.91,0,0,0,0,0,0,0,0,0,0,0,0,0,0,0,0,
178,14.32,8.238,19.21,10.51,24.01,12.85,3.319,-3.907,22.58,-9.797,28.21,14.2,20.59,2.904,15.34,20.37,0,0,0,0,0,0,0,0,0,0,0,0,0,0,0,0,
179,18.06,7.486,21.12,11.9,26.06,10.83,3.248,-3.862,20.02,-18,21.51,-1.14,4.942,-4.763,-2.006,0.2998,0,0,0,0,0,0,0,0,0,0,0,0,0,0,0,0,
180,2.63,-6.009,9.667,-0.5402,12.67,-6.947,-12.85,-18.3,6.797,-19.61,5.923,-14.1,-10.73,-11.9,-8.949,-12.07,0,0,0,0,0,0,0,0,0,0,0,0,0,0,0,0,
181,-7.482,-19.7,-2.865,-15.98,4.544,-19.09,-29.07,-33.83,5.811,-21.35,11.18,-7.191,-10.66,-16.82,3.278,-4.131,0,0,0,0,0,0,0,0,0,0,0,0,0,0,0,0,
182,-3.145,-21.17,-1.749,-17.83,11.04,-13.32,-30.53,-29.99,6.202,-24.45,21.17,0.7472,-6.044,-10.12,6.332,-0.1576,0,0,0,0,0,0,0,0,0,0,0,0,0,0,0,0,
183,1.936,-14.02,6.68,-10.79,19.59,-2.034,-23.53,-16.84,6.621,-18.26,22.24,3.628,-4.455,-3.828,4.528,-2.793,0,0,0,0,0,0,0,0,0,0,0,0,0,0,0,0,
184,9.274,-7.39,12.46,-4.279,26.38,6.02,-18.04,-13.6,19.8,-13.46,23.18,10.18,-4.869,-12.46,10.78,-3.018,0,0,0,0,0,0,0,0,0,0,0,0,0,0,0,0,
185,21.57,-3.594,19.11,4.25,33.88,13.3,-12.8,-12.71,29.91,-17.97,31.5,16.84,-10.77,-24.25,15.53,-7.655,0,0,0,0,0,0,0,0,0,0,0,0,0,0,0,0,
186,23.99,-4.574,19.86,5.406,32.28,13.89,-13.04,-13.7,24.87,-24.43,35.9,15.78,-19.15,-30.21,15.55,-13.21,0,0,0,0,0,0,0,0,0,0,0,0,0,0,0,0,
187,15.57,-8.453,10.57,-3.631,23.86,6.438,-19.16,-23.31,20.91,-28.03,29.95,14.4,-12.1,-25.59,19.95,-1.446,0,0,0,0,0,0,0,0,0,0,0,0,0,0,0,0,
188,14.88,-2.124,9.288,-2.973,22.25,2.691,-16.05,-24.25,19.34,-22.43,29.31,21.68,11.87,-6.541,28.25,20.51,0,0,0,0,0,0,0,0,0,0,0,0,0,0,0,0,
189,17.4,7.156,10.14,-2.099,16.66,-0.6039,-12.73,-18.27,8.658,-13.35,30.53,25.04,27.12,7.821,28.6,28.55,0,0,0,0,0,0,0,0,0,0,0,0,0,0,0,0,
190,11.38,3.896,-0.5899,-14.24,5.533,-6.001,-18.55,-21.38,0.75,-9.157,19.42,19.42,28.72,11.22,21.05,27.23,0,0,0,0,0,0,0,0,0,0,0,0,0,0,0,0,
191,11.99,4.355,0.3833,-12.3,11.49,0.0385,-12.91,-18.9,5.28,-5.805,10.46,16.37,29.44,18.36,14.12,25.85,0,0,0,0,0,0,0,0,0,0,0,0,0,0,0,0,
192,16.56,8.056,13.05,-0.2218,21.69,6.385,-6.666,-11.91,9.569,-14.01,13.07,11.06,21.03,17.13,7.898,15.72,0,0,0,0,0,0,0,0,0,0,0,0,0,0,0,0,
193,7.994,-6.483,9.298,-6.167,14.7,-2.727,-20.68,-19.1,12.55,-34.08,18.97,3.079,3.942,-1.362,6.918,5.944,0,0,0,0,0,0,0,0,0,0,0,0,0,0,0,0,
194,2.688,-20.42,-1.397,-13.5,7.52,-11.05,-30,-27.07,17.23,-38.53,22.94,1.391,-5.788,-14.68,10.66,4.479,0,0,0,0,0,0,0,0,0,0,0,0,0,0,0,0,
195,3.668,-18.42,-5.25,-12.34,4.796,-14.22,-27.91,-26.5,9.76,-26.8,18.14,-4.949,-12.22,-15.57,7.244,-3.112,0,0,0,0,0,0,0,0,0,0,0,0,0,0,0,0,
196,-7.423,-17.53,-8.474,-15.94,-1.828,-20.58,-30.66,-25.98,-1.053,-17.45,12.96,-13.59,-19.99,-18.2,4.955,-11.03,0,0,0,0,0,0,0,0,0,0,0,0,0,0,0,0,
197,-13.51,-16.57,-4.777,-13.46,0.2474,-18.01,-26.09,-21.28,6.457,-14.45,20.74,-8.488,-20.6,-24.42,11.59,-7.019,0,0,0,0,0,0,0,0,0,0,0,0,0,0,0,0,
198,-3.907,-12.68,4.284,-3.932,7.685,-7.321,-16.28,-16.56,11.59,-22.58,25.34,-2.872,-15.27,-23.5,11.85,-3.106,0,0,0,0,0,0,0,0,0,0,0,0,0,0,0,0,
199,-1.089,-14.67,5.193,-3.543,5.344,-4.86,-19.01,-21.58,-1.55,-34.59,16.19,-5.319,-9.67,-16.04,6.617,-3.051,0,0,0,0,0,0,0,0,0,0,0,0,0,0,0,0,
200,-4.138,-13.97,3.685,-4.862,3.649,-5.623,-22.26,-24.55,-1.118,-30.24,9.215,-2.323,-4.774,-12.27,6.15,-1.842,0,0,0,0,0,0,0,0,0,0,0,0,0,0,0,0,
201,-0.9044,-7.164,5.841,-2.325,7.694,-3.681,-17.95,-19.34,12.71,-18.93,7.748,1.922,-2.69,-11.17,2.546,-5.096,0,0,0,0,0,0,0,0,0,0,0,0,0,0,0,0,
202,-1.574,-5.181,3.013,-6.45,4.291,-7.391,-17.46,-18.86,1.231,-24,1.134,-0.5406,-4.062,-13.18,-3.892,-9.786,0,0,0,0,0,0,0,0,0,0,0,0,0,0,0,0,
203,-6.96,-6.534,-2.551,-11.88,-1.615,-12.25,-18.12,-23.69,-18.13,-32.01,-6.845,0.3268,-4.071,-20.5,-2.755,-7.268,0,0,0,0,0,0,0,0,0,0,0,0,0,0,0,0,
204,-3.718,-4.402,0.4407,-7.604,2.485,-7.827,-11.74,-21.37,-9.355,-19.85,-1.748,9.184,3.54,-18.43,4.819,1.214,0,0,0,0,0,0,0,0,0,0,0,0,0,0,0,0,
205,7.032,3.598,8.373,0.91,8.573,0.1553,-2.223,-12.02,6.029,-4.916,15.55,21.08,16.98,-6.513,15.81,13.66,0,0,0,0,0,0,0,0,0,0,0,0,0,0,0,0,
206,15.96,14.95,9.956,4.529,7.369,2.326,0.1443,-8.24,8.267,-10.12,22.16,26.11,21.98,-1.55,20.87,18.88,0,0,0,0,0,0,0,0,0,0,0,0,0,0,0,0,
207,14.74,14.97,3.364,-1.024,0.7731,-5.175,-11.47,-16.81,3.658,-21.35,6.763,11.58,9.19,0.1559,5.489,3.121,0,0,0,0,0,0,0,0,0,0,0,0,0,0,0,0,
208,-0.0054,-0.0208,-2.806,-9.63,-5.443,-17.08,-24.64,-26.51,-6.905,-18.93,-5.064,-7.404,-3.075,4.865,-11.72,-10.68,0,0,0,0,0,0,0,0,0,0,0,0,0,0,0,0,
209,-10.52,-7.156,0.1989,-8.428,-2.788,-18.65,-24.19,-24.48,-7.961,-9.421,6.232,-6.421,3.339,7.237,-5.946,0.5082,0,0,0,0,0,0,0,0,0,0,0,0,0,0,0,0,
210,-7.521,-2.863,1.395,-7.553,0.8297,-16.47,-24.51,-22.9,2.061,-8.82,15.9,-3.715,9.069,7.639,2.156,9.832,0,0,0,0,0,0,0,0,0,0,0,0,0,0,0,0,
211,-10.94,-7.679,-9.156,-17.83,-5.335,-24.15,-32.49,-28.69,3.232,-10.67,11.07,-9.795,4.323,10,4.151,7.902,0,0,0,0,0,0,0,0,0,0,0,0,0,0,0,0,
212,-13.57,-9.843,-8.61,-15.33,-2.165,-20.41,-24.56,-21.71,12.26,-1.803,17.81,2.723,11.16,16.04,22.92,20.05,0,0,0,0,0,0,0,0,0,0,0,0,0,0,0,0,
213,4.726,4.068,7.057,0.9299,12.34,-1.139,-7.797,-8.461,29.63,1.59,32.97,21.91,19.78,18.39,36.99,28.82,0,0,0,0,0,0,0,0,0,0,0,0,0,0,0,0,
214,17.79,7.656,9.023,1.356,12.82,2.004,-9.283,-13.07,18.41,-8.332,29.21,18.57,10.08,9.666,21.49,13.57,0,0,0,0,0,0,0,0,0,0,0,0,0,0,0,0,
215,12.23,-0.2898,5.363,-2.265,9.458,-4.047,-13.47,-19.82,-0.6715,-11.96,14.23,12.15,2.094,-1.809,8.493,1.87,0,0,0,0,0,0,0,0,0,0,0,0,0,0,0,0,
216,11.86,3.474,13.1,6.274,16.11,1.298,-5.662,-12.63,6.865,-9.453,6.076,14.53,4.192,-7.62,12.33,2.641,0,0,0,0,0,0,0,0,0,0,0,0,0,0,0,0,
217,12.68,6.86,13.92,6.448,15.9,1.901,-2.093,-5.83,13.36,-7.654,6.431,12.63,5.273,-4.055,12.64,2.493,0,0,0,0,0,0,0,0,0,0,0,0,0,0,0,0,
218,5.952,3.818,10.01,0.4168,12.32,-2.688,-2.52,-5.554,3.626,-4.708,11.07,11.57,10.68,6.363,9.89,6.367,0,0,0,0,0,0,0,0,0,0,0,0,0,0,0,0,
219,4.76,7.815,15.29,3.704,16.72,2.129,-1.794,-9.741,1.177,-9.075,10.39,11.86,16.2,8.806,8.058,10.52,0,0,0,0,0,0,0,0,0,0,0,0,0,0,0,0,
220,4.646,7.903,15.22,5.272,18.43,4.379,-9.338,-18.12,9.766,-14.62,5.382,5.765,13.91,4.949,3.176,7.606,0,0,0,0,0,0,0,0,0,0,0,0,0,0,0,0,
221,0.0413,1.589,10.76,3.26,17.37,0.0157,-17.12,-22.11,13.46,-10.89,1.948,0.283,12.98,5.61,0.3204,5.721,0,0,0,0,0,0,0,0,0,0,0,0,0,0,0,0,
222,-0.241,2.96,14.44,5.039,17.96,0.2656,-13.93,-19.16,5.867,-10.14,-5.705,-3.302,10.27,1.839,-2.372,1.669,0,0,0,0,0,0,0,0,0,0,0,0,0,0,0,0,
223,1.079,2.478,15.97,5.233,15.04,2.377,-8.629,-15.49,-1.737,-14.45,-8.663,-8.784,-1.405,-6.062,-10.89,-11.33,0,0,0,0,0,0,0,0,0,0,0,0,0,0,0,0,
224,3.908,-3.255,16.89,8.357,15.69,6.319,-4.353,-11.24,4.094,-12.46,1.397,-11.09,-9.886,-7.882,-17.36,-21.62,0,0,0,0,0,0,0,0,0,0,0,0,0,0,0,0,
225,10.69,-1.455,24.54,15.85,21.79,12.99,0.0014,-8.256,15.36,-4.54,4.483,-10.17,-8.675,-8.682,-12.95,-18.57,0,0,0,0,0,0,0,0,0,0,0,0,0,0,0,0,
226,10.38,0.7334,26.86,16.28,22.66,14.47,-0.0828,-9.736,18.91,0.2657,3.307,-5.351,-3.05,-7.047,0.0817,-6.158,0,0,0,0,0,0,0,0,0,0,0,0,0,0,0,0,
227,8.905,0.7162,28.9,19.02,24.2,17.19,2.706,-7.901,17.14,-3.243,15.27,5.485,4.191,-0.9679,10.48,3.676,0,0,0,0,0,0,0,0,0,0,0,0,0,0,0,0,
228,14.23,5.579,34.53,26.12,26.34,20.08,7.142,-3.575,9.469,-10.96,13.74,7.43,4.981,-5.03,8.284,2.62,0,0,0,0,0,0,0,0,0,0,0,0,0,0,0,0,
229,8.1,0.7292,25.45,18.24,17.69,9.597,-0.8223,-7.887,0.0317,-19.84,-7.259,-2.506,-2.39,-12.46,0.6783,-1.658,0,0,0,0,0,0,0,0,0,0,0,0,0,0,0,0,
230,-1.535,-11.13,18.31,12.14,14.9,4.441,-6.359,-8.808,4.675,-21.99,-6.797,-1.965,-0.8037,-1.786,0.3601,1.859,0,0,0,0,0,0,0,0,0,0,0,0,0,0,0,0,
231,6.601,-4.306,32.15,25.62,25.36,15.26,4.769,3.394,12.16,-7.706,6.698,8.709,13.49,14.29,4.784,9.662,0,0,0,0,0,0,0,0,0,0,0,0,0,0,0,0,
232,13.92,11.9,39.83,33.6,28.62,19.61,14.11,9.018,10.31,6.995,6.789,16.06,24.91,19.1,10.21,16.81,0,0,0,0,0,0,0,0,0,0,0,0,0,0,0,0,
233,15.15,18.75,37.34,32.15,29.6,20.62,15.21,5.544,16,8.11,11.55,23.74,27.68,19.94,16.01,21.89,0,0,0,0,0,0,0,0,0,0,0,0,0,0,0,0,
234,20.01,20.09,38.1,32.07,30.6,20.97,12.13,5.336,15.53,2.12,12.97,21.64,21.83,14.55,11.86,17.46,0,0,0,0,0,0,0,0,0,0,0,0,0,0,0,0,
235,10.64,15.3,29.97,24.47,18.12,7.746,4.74,2.523,-3.817,-5.027,-3.442,3.905,11.15,6.496,-2.24,4.515,0,0,0,0,0,0,0,0,0,0,0,0,0,0,0,0,
236,-2.761,10.4,23.21,21.75,12.85,2.808,7.501,1.658,-4.865,1.202,-7.54,-6.316,6.344,10.69,-10.01,-4.173,0,0,0,0,0,0,0,0,0,0,0,0,0,0,0,0,
237,3.256,15.78,30.13,31.36,24.14,13.81,17.8,10.32,11.32,13.26,1.652,-3.559,7.354,11.8,-4.726,-1.734,0,0,0,0,0,0,0,0,0,0,0,0,0,0,0,0,
238,11.57,22.41,33.86,33.86,31.69,17.63,19.47,14.69,15.07,4.286,4.309,1.149,9.74,0.4959,4.042,5.731,0,0,0,0,0,0,0,0,0,0,0,0,0,0,0,0,
239,13.63,21.9,34.35,32.25,35.18,16.86,18.43,10.64,15.61,-6.213,3.692,-1.79,4.945,-9.207,-3.627,-1.472,0,0,0,0,0,0,0,0,0,0,0,0,0,0,0,0,
240,7.952,8.752,31.61,30.06,28.24,10.94,11.26,3.756,10.59,-5.39,-7.69,-20.16,-13.61,-18.72,-23.38,-19.95,0,0,0,0,0,0,0,0,0,0,0,0,0,0,0,0,
241,-6.718,-9.004,21.6,20.7,13.22,2.062,0.5979,-2.604,3.917,-11.59,-13.59,-22.51,-15.13,-14.44,-15.29,-10.71,0,0,0,0,0,0,0,0,0,0,0,0,0,0,0,0,
242,1.455,-2.061,24.54,20.43,20.01,13.66,10.53,2.161,18.26,-7.57,6.682,4.947,8.865,8.52,11.45,14.92,0,0,0,0,0,0,0,0,0,0,0,0,0,0,0,0,
243,21.15,13.37,32.75,28.74,29.24,22.57,20.66,10.74,20.78,5.25,6.787,6.304,6.882,8.097,2.771,4.435,0,0,0,0,0,0,0,0,0,0,0,0,0,0,0,0,
244,5.253,1.379,22.63,25.56,11.95,3.446,6.484,6.106,-2.902,0.2423,-21.33,-19.01,-13.74,-7.641,-20.59,-18.25,0,0,0,0,0,0,0,0,0,0,0,0,0,0,0,0,
245,-13.61,-5.358,13.56,19.45,1.563,-6.249,0.4483,1.923,-3.975,1.6,-18.05,-11.47,-0.1342,4.494,-8.93,-6.269,0,0,0,0,0,0,0,0,0,0,0,0,0,0,0,0,
246,0.6582,16.74,16.16,20.32,9.818,3.193,9.785,8.264,10.39,15.32,3.641,11.16,20.07,17.91,9.165,9.77,0,0,0,0,0,0,0,0,0,0,0,0,0,0,0,0,
247,10.7,28.15,15.1,20,10.64,2.349,7.04,8.26,6.188,11.83,3.687,11.4,15.54,12.82,6.156,6.704,0,0,0,0,0,0,0,0,0,0,0,0,0,0,0,0,
248,7.109,23.01,17.73,22.09,9.675,0.7875,4.953,4.936,5.19,7.559,6.957,13.51,20.06,15.77,9.638,12.78,0,0,0,0,0,0,0,0,0,0,0,0,0,0,0,0,
249,11.28,26.43,27.25,31.24,12.98,9.349,15.54,11.71,12.74,15.21,12.5,19.54,31.27,16.36,16.26,21.08,0,0,0,0,0,0,0,0,0,0,0,0,0,0,0,0,
250,7.144,26.44,24.93,34.14,7.114,7.246,14.86,14.53,7.518,14.44,-6.931,6.485,19.85,4.137,1.061,5.691,0,0,0,0,0,0,0,0,0,0,0,0,0,0,0,0,
251,-8.511,15.54,15.32,26.94,0.6946,-4.231,3.111,8.965,0.8782,10.83,-19.69,-6.093,4.543,1.588,-13.47,-12.46,0,0,0,0,0,0,0,0,0,0,0,0,0,0,0,0,
252,-11.54,10.71,16.16,23.9,4.549,-5.784,0.8371,9.515,1.865,10.36,-10.53,-7.401,-4.06,-2.206,-13.79,-17.51,0,0,0,0,0,0,0,0,0,0,0,0,0,0,0,0,
253,-10.53,5.405,16.71,23.7,5.627,-3.275,0.3792,9.048,1.354,0.6018,-15.34,-22.34,-24.12,-21.65,-26.58,-28.63,0,0,0,0,0,0,0,0,0,0,0,0,0,0,0,0,
254,-19.72,-12.09,6.597,16.49,-0.0919,-7.41,-7.164,2.269,1.027,-11.06,-22.69,-44.07,-43.31,-30.2,-44.46,-42.21,0,0,0,0,0,0,0,0,0,0,0,0,0,0,0,0,
255,-25.72,-27.34,0.5699,10.7,-4.936,-12.95,-11.52,-0.1422,-6.739,-16.16,-12.28,-48.93,-44.81,-23.73,-41.36,-40.83,0,0,0,0,0,0,0,0,0,0,0,0,0,0,0,0,
256,-27.55,-31.81,3.271,11.7,-9.208,-13.67,-10.09,-0.5732,-20.02,-17.88,-12.45,-41.67,-37.74,-20.44,-28.65,-31.24,0,0,0,0,0,0,0,0,0,0,0,0,0,0,0,0,
257,-25.05,-27.48,10.06,17.35,-4.06,-3.027,-1.426,4.694,-6.877,-7.906,-12.56,-23.65,-23.01,-10.7,-16.29,-19.03,0,0,0,0,0,0,0,0,0,0,0,0,0,0,0,0,
258,-5.695,-12.04,21.74,27.28,12.37,12.82,12.42,17.41,18.51,11.02,7.338,-0.0522,-4.402,4.76,-2.996,-5.852,0,0,0,0,0,0,0,0,0,0,0,0,0,0,0,0,
259,8.808,0.9111,24.78,27.5,15.07,11.88,10.28,14.82,13.62,15.27,6.82,5.767,3.13,8.099,0.0318,0.4444,0,0,0,0,0,0,0,0,0,0,0,0,0,0,0,0,
260,-1.389,-2.651,13.3,14.37,2.569,-1.84,-8.423,1.145,0.6502,2.525,-11.66,2.139,7.456,9.305,-0.5561,6.167,0,0,0,0,0,0,0,0,0,0,0,0,0,0,0,0,
261,-10.37,-8.093,3.654,5.954,-2.567,-8.867,-18.37,-1.473,4.285,-1.895,-4.211,9.177,18.15,16.02,10.83,18.22,0,0,0,0,0,0,0,0,0,0,0,0,0,0,0,0,
262,-7.322,-1.175,0.2262,5.071,-2.606,-11.4,-15.57,-2.355,4.142,12.5,8.874,14.11,25.32,15.56,20.72,26.32,0,0,0,0,0,0,0,0,0,0,0,0,0,0,0,0,
263,-6.821,9.225,-0.0033,5.92,-4.374,-13.12,-11.64,-5.28,1.442,20.41,4.188,11.27,26.62,10.82,16.84,25.07,0,0,0,0,0,0,0,0,0,0,0,0,0,0,0,0,
264,-9.133,9.81,0.3866,6.086,-6.438,-14.85,-11.62,-3.165,3.843,5.69,3.977,12.45,26.54,12.16,16.63,25.01,0,0,0,0,0,0,0,0,0,0,0,0,0,0,0,0,
265,-11.53,4.159,-4.231,0.7329,-11.91,-18.72,-13.71,-4.302,2.58,-2.688,11.98,15.56,23.89,16.46,28.07,30.3,0,0,0,0,0,0,0,0,0,0,0,0,0,0,0,0,
266,-13.22,3.42,-3.233,-1.368,-11.76,-14.48,-11.94,-6.623,4.472,6.719,13.33,10.6,12.58,11.45,25.46,21.69,0,0,0,0,0,0,0,0,0,0,0,0,0,0,0,0,
267,-14.32,-1.914,7.051,5.172,-1.184,-3.534,-9.503,-4.152,10.52,3.03,4.992,-5.548,-10.56,-7.385,1.359,-6.736,0,0,0,0,0,0,0,0,0,0,0,0,0,0,0,0,
268,-16.89,-18.08,12.46,11.63,7.128,2.976,-8.738,-1.132,13.34,-10.21,-6.87,-22.19,-29.9,-21.77,-14.48,-25.98,0,0,0,0,0,0,0,0,0,0,0,0,0,0,0,0,
269,-13.29,-23.14,18.83,21.11,12.08,11.43,-2.201,3.785,16.04,-7.559,-12.04,-29.27,-34.21,-22.59,-18.1,-28.79,0,0,0,0,0,0,0,0,0,0,0,0,0,0,0,0,
270,-7.029,-15.27,30.57,31.52,16.58,19.72,4.84,7.712,12.8,-1.237,-11.37,-36.01,-35.59,-23.4,-29.02,-34.27,0,0,0,0,0,0,0,0,0,0,0,0,0,0,0,0,
271,-10.44,-13.15,35.69,34.25,18.79,20.51,8.775,10.4,6.368,-0.9265,-14,-44.41,-35.14,-21.91,-37.96,-36.03,0,0,0,0,0,0,0,0,0,0,0,0,0,0,0,0,
272,-12.07,-11.32,39,38.18,23.52,24.68,16.12,16.85,9.116,-0.6626,-18.19,-41.82,-26.98,-14.43,-33.34,-25.63,0,0,0,0,0,0,0,0,0,0,0,0,0,0,0,0,
273,-6.412,-9.492,39.74,38.29,22.89,26.39,14.33,13.35,6.364,-8.639,-16.58,-31.74,-21.58,-13.07,-25.18,-16.5,0,0,0,0,0,0,0,0,0,0,0,0,0,0,0,0,
274,-8.011,-17.59,27.44,24.27,9.421,12.97,0.4204,1.167,-6.342,-16.39,-8.916,-21.58,-16.79,-9.61,-15.67,-10.05,0,0,0,0,0,0,0,0,0,0,0,0,0,0,0,0,
275,-10.34,-16.76,20.26,19.01,3.618,6.105,-0.4874,3.858,-1.989,-3.875,-0.5387,-4.463,2.08,6.697,2.727,6.419,0,0,0,0,0,0,0,0,0,0,0,0,0,0,0,0,
276,1.083,2.953,30.84,31.48,14.3,18.99,12.6,12.96,19.19,12.15,9.09,18.89,26.95,17.38,27.3,30.36,0,0,0,0,0,0,0,0,0,0,0,0,0,0,0,0,
277,17.87,19.18,42.34,40.92,24.25,31.33,21.48,14.22,29.77,10.1,21.86,35.39,39.02,13.7,41.67,40.89,0,0,0,0,0,0,0,0,0,0,0,0,0,0,0,0,
278,25.99,24.53,46.49,44.32,27.54,32.35,25.81,18.48,25.41,6.279,23.94,35.95,36.16,12.41,35.19,30.47,0,0,0,0,0,0,0,0,0,0,0,0,0,0,0,0,
279,21.98,27.02,44.45,44.68,26.14,27.23,25.63,21.51,21.29,13.84,11.17,24.31,28.09,17.13,21.61,19.01,0,0,0,0,0,0,0,0,0,0,0,0,0,0,0,0,
280,14.47,25.55,38.34,39.18,20.63,20.87,19.72,15.92,22.03,15.86,5.044,13.65,18.78,12.92,14.09,14.51,0,0,0,0,0,0,0,0,0,0,0,0,0,0,0,0,
281,10.22,17.79,35.17,35.52,16.98,16.82,14.79,13.01,19.05,6.855,5.652,3.523,2.78,0.2505,2.263,1.732,0,0,0,0,0,0,0,0,0,0,0,0,0,0,0,0,
282,0.9481,3.92,31.83,34.18,15.08,14.24,10.76,12.98,11.35,3.207,-5.037,-15.31,-15.83,-5.81,-18.22,-17.03,0,0,0,0,0,0,0,0,0,0,0,0,0,0,0,0,
283,-9.768,-7.838,29.02,32.76,14.07,15.57,10.04,12.94,7.512,8.05,-16.77,-28.73,-21.6,-8.061,-30.78,-24.95,0,0,0,0,0,0,0,0,0,0,0,0,0,0,0,0,
284,-6.875,-6.662,37.48,39.5,17.81,22.67,18.73,20.36,5.173,10.39,-17.98,-25.97,-16.81,-13.24,-30.72,-24.94,0,0,0,0,0,0,0,0,0,0,0,0,0,0,0,0,
285,0.5563,0.52,48.14,49.69,21.16,27.01,28.16,31.45,2.904,8.193,-17.33,-25.39,-15.97,-10.43,-32.44,-28.78,0,0,0,0,0,0,0,0,0,0,0,0,0,0,0,0,
286,0.907,5.096,48.79,53.22,20.42,26.27,30.29,36,6.674,8.094,-18.36,-32.04,-17.78,-5.176,-37.79,-33.28,0,0,0,0,0,0,0,0,0,0,0,0,0,0,0,0,
287,0.2909,6.907,44.84,51.67,17.94,23.56,26.52,31.05,6.796,8.443,-21.79,-31.02,-17.06,-12.82,-33.11,-28.88,0,0,0,0,0,0,0,0,0,0,0,0,0,0,0,0,
288,0.4261,1.806,39.49,46.33,14.84,19.21,18.47,21.1,3.003,3.14,-20.19,-18.89,-12.3,-13,-14.81,-14.3,0,0,0,0,0,0,0,0,0,0,0,0,0,0,0,0,
289,3.966,-1.487,34.04,39.67,13.86,16.63,12.04,15.46,7.318,0.5641,-3.988,-2.875,1.662,8.057,2.352,1.55,0,0,0,0,0,0,0,0,0,0,0,0,0,0,0,0,
290,9.023,6.251,27.29,31.75,6.164,8.44,6.642,11.71,1.131,4.827,5.641,5.6,16.43,21.16,6.902,10.42,0,0,0,0,0,0,0,0,0,0,0,0,0,0,0,0,
291,3.451,10.17,17.09,22.25,-9.894,-5.978,-0.4897,4.868,-13.56,6.753,-0.7091,7.939,22.78,18.17,12.52,19.77,0,0,0,0,0,0,0,0,0,0,0,0,0,0,0,0,
292,0.2214,11.39,17.98,24.73,-7.539,-2.258,3.97,8.021,1.269,13.41,3.42,18.22,30.88,21.45,27.15,33.61,0,0,0,0,0,0,0,0,0,0,0,0,0,0,0,0,
293,12.11,23.78,30.44,35.98,10.62,14.67,18.17,21.99,24.43,23.23,12.33,24.62,36.01,23.66,26.63,33.36,0,0,0,0,0,0,0,0,0,0,0,0,0,0,0,0,
294,15.37,28.43,30.52,33,11.9,14.39,18.27,22.92,14.52,14.06,2.695,11.15,23.49,10.08,6.808,16.32,0,0,0,0,0,0,0,0,0,0,0,0,0,0,0,0,
295,2.323,14.91,20.9,22.31,3.789,4.298,7.227,10.24,-3.542,1.348,-9.753,-4.77,7.568,-1.861,-5.336,3.815,0,0,0,0,0,0,0,0,0,0,0,0,0,0,0,0,
296,-6.006,7.266,20.87,23.48,6.205,3.744,6.6,9.611,-2.917,8.788,-12.48,-9.579,1.798,-1.557,-9.042,-3.675,0,0,0,0,0,0,0,0,0,0,0,0,0,0,0,0,
297,-4.244,10.43,27.6,32.74,10.95,9.591,14.83,19.99,4.937,12.32,-16.26,-8.629,-0.6512,-2.582,-15.31,-13.73,0,0,0,0,0,0,0,0,0,0,0,0,0,0,0,0,
298,2.342,10.93,35.86,43.46,15.98,20.04,21.72,21.31,9.804,2.321,-15.99,-3.721,0.2339,-8.996,-15.72,-16.93,0,0,0,0,0,0,0,0,0,0,0,0,0,0,0,0,
299,11.63,12.25,48.65,54.73,27.23,34.8,30.93,21.5,11.57,3.047,-3.835,-0.0895,4.45,-10.68,-12.67,-13.53,0,0,0,0,0,0,0,0,0,0,0,0,0,0,0,0,
300,19.31,17.18,60.17,61.71,36.26,44.77,41.34,30.59,15.1,11.96,5.347,-2.256,5.584,-3.897,-16.29,-11.73,0,0,0,0,0,0,0,0,0,0,0,0,0,0,0,0,
301,22.3,17.69,60.93,61.76,33.87,43.24,41.15,33.04,20.39,16.06,1.663,-2.148,7.882,4.742,-17.48,-7.103,0,0,0,0,0,0,0,0,0,0,0,0,0,0,0,0,
302,21.66,15.18,53.29,57.18,25,33.48,32.78,28.69,21.1,17.44,-2.834,3.603,12.62,7.369,-7.863,1.152,0,0,0,0,0,0,0,0,0,0,0,0,0,0,0,0,
303,18.92,12.06,43.7,48.92,16.1,20.9,24.68,26.91,14.97,8.878,-0.8625,7.233,9.672,1.542,4.648,6.149,0,0,0,0,0,0,0,0,0,0,0,0,0,0,0,0,
304,11.32,4.138,31.38,36.52,4.223,6.082,14.56,18.92,1.538,-3.86,3.402,8.406,4.191,-4.392,14.7,11.69,0,0,0,0,0,0,0,0,0,0,0,0,0,0,0,0,
305,2.356,0.8114,21.89,27.18,-5.338,-5.288,8.181,10.32,-8.246,0.1722,8.938,12.99,9.746,0.3019,22.63,21.61,0,0,0,0,0,0,0,0,0,0,0,0,0,0,0,0,
306,0.4137,6.435,19.64,25.02,-6.271,-10.12,6.767,8.832,-5.889,6.026,8.24,13.95,17.02,7.822,22.32,25.78,0,0,0,0,0,0,0,0,0,0,0,0,0,0,0,0,
307,-3.294,3.364,12.86,20.02,-11.52,-17.41,-2.622,1.769,-5.981,-0.2871,-2.867,6.321,17.06,9.476,15.55,23.77,0,0,0,0,0,0,0,0,0,0,0,0,0,0,0,0,
308,-10.89,-2.203,7.516,17.07,-18.6,-20.83,-7.292,-0.8189,-9.98,3.833,-5.923,4.966,22.27,15.86,16.23,26.95,0,0,0,0,0,0,0,0,0,0,0,0,0,0,0,0,
309,-6.296,8.995,19.05,29.31,-12.24,-11.83,5.691,11.54,-8.267,14.41,0.6218,11.77,28.39,20.45,18.47,25.6,0,0,0,0,0,0,0,0,0,0,0,0,0,0,0,0,
310,-0.4053,17.61,26.94,37.82,-8.708,-9.124,11.89,14.69,-10.89,12.01,-6.85,9.276,19.03,5.896,7.362,8.477,0,0,0,0,0,0,0,0,0,0,0,0,0,0,0,0,
311,-8.288,10.46,18.42,29.94,-15.9,-14.37,7.155,8.822,-16.47,8.844,-17.19,2.167,7.333,-8.179,-3.739,-5.045,0,0,0,0,0,0,0,0,0,0,0,0,0,0,0,0,
312,-9.577,8.748,18.39,29.61,-12,-5.236,14.75,15.63,-13.68,8.123,-8.288,3.175,7.516,-2.934,-4.355,-4.923,0,0,0,0,0,0,0,0,0,0,0,0,0,0,0,0,
313,-0.0367,14.78,31.09,41.66,-0.6618,10.8,27.64,22.58,-10.1,4.388,-7.669,-2.121,6.029,1.689,-13.85,-10.11,0,0,0,0,0,0,0,0,0,0,0,0,0,0,0,0,
314,-1.379,14.22,39.18,47.73,2.671,16.15,30.78,18.7,-11.05,5.073,-28.86,-20.02,-3.417,-6.619,-32.42,-21.98,0,0,0,0,0,0,0,0,0,0,0,0,0,0,0,0,
315,-8.322,8.952,44.08,51.26,5.358,17.67,32.21,20.92,-14.16,3.473,-33.74,-27.9,-9.039,-14.07,-33.42,-22.02,0,0,0,0,0,0,0,0,0,0,0,0,0,0,0,0,
316,-5.297,5.868,48.22,57.4,9.077,19.68,34.42,29.21,-15.34,-3.59,-19.23,-20.36,-7.515,-12.19,-20.03,-12.71,0,0,0,0,0,0,0,0,0,0,0,0,0,0,0,0,
317,2.118,6.691,45.96,54.7,9.745,18.62,30.79,26.24,-5.785,-4.266,-11.25,-9.763,-2.293,-5.383,-8.9,-4.41,0,0,0,0,0,0,0,0,0,0,0,0,0,0,0,0,
318,10.28,11.53,41.23,44.32,12.85,18.56,25.65,16.46,6.511,3.924,0.3501,6.842,7.944,1.549,8.79,7.922,0,0,0,0,0,0,0,0,0,0,0,0,0,0,0,0,
319,18.91,19.36,36.84,37.26,13.93,18.62,23.97,13.9,7.703,16.85,11.02,20.4,14.77,5.093,23.34,17.33,0,0,0,0,0,0,0,0,0,0,0,0,0,0,0,0,
320,17.06,23.78,30.96,34.06,6.923,13.46,21.48,13.73,3.85,18.08,-0.3573,13.58,7.027,1.435,14.71,10.54,0,0,0,0,0,0,0,0,0,0,0,0,0,0,0,0,
321,7.949,19.57,28.24,34,0.6673,7.294,17.87,10.73,-1.978,1.564,-8.477,6.444,0.1145,-3.644,8.83,3.916,0,0,0,0,0,0,0,0,0,0,0,0,0,0,0,0,
322,7.088,17.99,26.45,35.34,-3.438,2.919,16.49,11.7,-11.32,-3.643,2.012,14.99,10.01,0.5394,20.3,11.17,0,0,0,0,0,0,0,0,0,0,0,0,0,0,0,0,
323,8.791,25.64,20,32.29,-9.258,-1.767,15.68,14.06,-12.29,8.153,4.876,19.45,24.14,12.08,22.5,19.19,0,0,0,0,0,0,0,0,0,0,0,0,0,0,0,0,
324,5.145,28.86,20.01,30.06,-6.793,-1.512,15.95,11.44,-6.102,12.34,-1.992,15.96,32.71,21.92,17.07,23.57,0,0,0,0,0,0,0,0,0,0,0,0,0,0,0,0,
325,3.161,23.34,28.07,33.87,2.079,3.38,16.57,9.231,-10.17,7.405,-5.933,13.14,33.25,21.59,15.16,23.69,0,0,0,0,0,0,0,0,0,0,0,0,0,0,0,0,
326,-1.472,14.73,27.05,33.78,0.003,2.214,12.11,10.04,-20.58,0.4108,-13.43,3.421,18.69,9.556,3.052,10.27,0,0,0,0,0,0,0,0,0,0,0,0,0,0,0,0,
327,-12.43,3.552,21.84,29.59,-7.285,-1.087,9.106,10,-22.57,-3.465,-25.76,-11.51,1.218,-0.306,-14.8,-8.034,0,0,0,0,0,0,0,0,0,0,0,0,0,0,0,0,
328,-16.4,-2.537,29.49,36.09,-4.423,5.539,17.56,10.84,-19.2,2.517,-31.78,-18.9,-2.725,-1.363,-24.16,-15.24,0,0,0,0,0,0,0,0,0,0,0,0,0,0,0,0,
329,-8.93,1.766,44.14,52.99,4.794,18.95,30.22,15.51,-13.96,4.124,-26.16,-15.61,0.4667,-1.944,-24.31,-12.03,0,0,0,0,0,0,0,0,0,0,0,0,0,0,0,0,
330,2.542,7.373,51.97,62.36,14.64,30.56,35.35,18.96,-5.098,-6.781,-17.45,-7.516,3.238,-1.501,-13.47,-4.941,0,0,0,0,0,0,0,0,0,0,0,0,0,0,0,0,
331,10.85,7.941,48.55,55.16,20.03,34.67,30.68,14.26,-0.6825,-11.95,-12.34,-1.739,3.926,-0.7495,0.2835,0.9732,0,0,0,0,0,0,0,0,0,0,0,0,0,0,0,0,
332,12.56,6.32,40.68,43.61,15.03,29.53,22.29,6.203,0.0568,-7.074,-2.595,4.346,1.552,-5.293,8.039,4.248,0,0,0,0,0,0,0,0,0,0,0,0,0,0,0,0,
333,15.53,7.539,37.86,40.57,10.04,23.73,18.63,5.847,8.506,-2.685,13.48,14.88,2.697,-4.977,17.32,7.571,0,0,0,0,0,0,0,0,0,0,0,0,0,0,0,0,
334,22.45,12.48,34.13,39.55,10.25,20.29,18.1,10.49,15.75,3.248,24.54,21.58,7.169,2.082,24.74,9.478,0,0,0,0,0,0,0,0,0,0,0,0,0,0,0,0,
335,23.15,16.2,26.5,35.24,6.575,13.9,15.14,10.1,12.44,10.83,24.8,20.9,7.669,0.8266,23.39,10.11,0,0,0,0,0,0,0,0,0,0,0,0,0,0,0,0,
336,20.53,18.33,31.06,39.64,9.21,13.96,15.69,9.659,13.39,10.37,19.23,21.05,10.45,-1.715,25.18,15.75,0,0,0,0,0,0,0,0,0,0,0,0,0,0,0,0,
337,23.19,22.67,51.36,57.91,25.29,26.03,24.41,19.29,20,2.787,17.25,23.65,19.72,5.147,29.21,22.18,0,0,0,0,0,0,0,0,0,0,0,0,0,0,0,0,
338,26.28,26.78,76.19,83.31,39.16,37.98,36.21,36.58,19.63,1.475,17.18,23.71,24.31,6.918,22.12,18.26,0,0,0,0,0,0,0,0,0,0,0,0,0,0,0,0,
339,30.88,31.6,114.4,125.4,59.76,56.36,55.03,61.4,24.31,14.65,14.42,24.15,23.9,4.758,14.6,11.4,0,0,0,0,0,0,0,0,0,0,0,0,0,0,0,0,
340,44.83,44.16,184,198.2,101.9,92.57,87.94,97.97,40.06,33.56,18.33,30.46,28.97,13.01,18.16,14.44,0,0,0,0,0,0,0,0,0,0,0,0,0,0,0,0,
341,60.76,58.93,269.7,277.5,145.7,130,123.1,134.4,49.94,45.54,25.88,37.32,36.31,20.92,20.56,20.1,0,0,0,0,0,0,0,0,0,0,0,0,0,0,0,0,
342,69.61,65.46,326,319.5,182.3,158.6,145.2,157.3,58.75,54.59,24.02,36.74,38.51,23.85,16.38,20.25,0,0,0,0,0,0,0,0,0,0,0,0,0,0,0,0,
343,72.97,65.74,333.3,320.6,212.9,179.6,152.1,167.1,71.51,60.47,20.54,30.06,37.42,29.71,14.03,20.12,0,0,0,0,0,0,0,0,0,0,0,0,0,0,0,0,
344,72.37,62.93,323.7,313.8,221.8,184.9,148.5,165.9,72.21,52.16,24.66,28.7,38.58,30.25,18.79,23.78,0,0,0,0,0,0,0,0,0,0,0,0,0,0,0,0,
345,77.4,62.31,328.2,315.9,221.8,186.6,147.9,161.3,72.21,47.56,35.26,44.29,47.54,29.58,32.73,32.25,0,0,0,0,0,0,0,0,0,0,0,0,0,0,0,0,
346,94.67,72.49,328.3,311.4,227.8,193.9,155.5,164.1,83.29,62.76,48.17,63.77,56.95,37.11,46.43,41.2,0,0,0,0,0,0,0,0,0,0,0,0,0,0,0,0,
347,103.2,80.73,299.1,285.8,213.7,183.1,151.3,163.7,82.97,70.23,51.37,63.36,52.52,37.71,47.94,42.12,0,0,0,0,0,0,0,0,0,0,0,0,0,0,0,0,
348,92.35,71.99,258.3,249.3,183,156.9,129.8,145.5,73.5,59.92,47.96,54.65,44.18,33.77,48.04,41.19,0,0,0,0,0,0,0,0,0,0,0,0,0,0,0,0,
349,82.44,60.98,226.5,215.6,165.8,139.5,111.7,123.2,73.42,52.17,51.59,57.81,45.55,37.01,56.1,46.49,0,0,0,0,0,0,0,0,0,0,0,0,0,0,0,0,
350,76.61,57.29,194.4,183.5,149.7,121.3,100.9,113.1,69.05,44.61,49.53,57.95,42.15,29.54,56.3,45.09,0,0,0,0,0,0,0,0,0,0,0,0,0,0,0,0,
351,63.65,51.82,160.6,154.4,121.7,99.15,89.73,103.2,57.21,35.01,36.28,46.58,30.05,15.88,44,32.68,0,0,0,0,0,0,0,0,0,0,0,0,0,0,0,0,
352,56.4,51.44,141.7,138.9,107.8,95.01,86.74,87.94,57.81,35.71,36.92,42.63,28.57,19.6,37.4,27.25,0,0,0,0,0,0,0,0,0,0,0,0,0,0,0,0,
353,64.15,60.94,134.3,133.6,114.5,102.4,91.71,84.69,63.74,41.33,47.05,45.09,32.89,21.97,36.83,27.87,0,0,0,0,0,0,0,0,0,0,0,0,0,0,0,0,
354,67.96,63.35,121.9,123.4,114,98.71,91.17,90.11,55.19,44.34,35.7,38.67,28.64,11.4,27.4,20.07,0,0,0,0,0,0,0,0,0,0,0,0,0,0,0,0,
355,58.11,57.59,104.4,107.4,96.05,87.44,86.83,85.47,38.81,44.07,12.27,28.66,23.6,8.657,11.92,10.01,0,0,0,0,0,0,0,0,0,0,0,0,0,0,0,0,
356,45.7,52.3,86.41,90.95,76.84,77.18,80.18,74.34,26.15,31.58,1.734,18.8,16.75,6.412,-1.32,2.568,0,0,0,0,0,0,0,0,0,0,0,0,0,0,0,0,
357,36.93,41.81,70.68,74.84,68.72,69.59,68.79,67.46,19.92,16.32,1.65,11.73,9.199,0.2912,-7.2,-2.487,0,0,0,0,0,0,0,0,0,0,0,0,0,0,0,0,
358,38.82,36.38,66.64,69.05,71.4,73.17,65.24,66.78,28.08,20.01,7.432,19.89,17.07,9.884,-2.871,1.054,0,0,0,0,0,0,0,0,0,0,0,0,0,0,0,0,
359,49.56,42.03,64.97,66.54,70.21,76.13,63.02,63.42,38.58,29.16,9.342,26.54,22.28,16.67,-3.574,0.5354,0,0,0,0,0,0,0,0,0,0,0,0,0,0,0,0,
360,44.23,33.98,47.73,47.08,58.98,59.62,45.29,46.63,28.38,23.61,-1.542,17.65,12.04,6.667,-7.782,-4.834,0,0,0,0,0,0,0,0,0,0,0,0,0,0,0,0,
361,27.67,19.06,31.18,28.87,54,45.76,32.45,30.57,15.02,14.95,-2.484,21.06,16.45,8.764,9.645,10.38,0,0,0,0,0,0,0,0,0,0,0,0,0,0,0,0,
362,26.84,20.27,24.38,23.66,48.94,45.87,32.8,28.41,19.24,11.42,12.69,32.45,26.65,16.82,33.13,31.35,0,0,0,0,0,0,0,0,0,0,0,0,0,0,0,0,
363,26.58,17.13,11.35,9.708,33.43,35.47,26.02,27.56,28.09,9.742,22.39,26.57,19.13,11.09,40.45,36.24,0,0,0,0,0,0,0,0,0,0,0,0,0,0,0,0,
364,15.66,5.38,2.24,-2.309,31.11,21.59,18,22.57,31.57,11.04,28.17,23.04,17.78,8.946,46.88,42.95,0,0,0,0,0,0,0,0,0,0,0,0,0,0,0,0,
365,10.96,3.238,0.8,-2.866,34.43,19.52,12.31,13.89,23.51,8.196,24.45,22.62,18.29,7.278,43.26,42.34,0,0,0,0,0,0,0,0,0,0,0,0,0,0,0,0,
366,6.015,-3.101,-11.55,-13.59,21.19,16.8,-0.4432,1.731,7.361,-0.6248,-0.9233,2.901,-1.603,-4.477,13.24,16.62,0,0,0,0,0,0,0,0,0,0,0,0,0,0,0,0,
367,-1.424,-11.37,-22.58,-23.83,16.37,15.83,-5.123,-1.735,3.384,-6.891,-21.3,-15.31,-16.13,-10.38,-14.97,-6.045,0,0,0,0,0,0,0,0,0,0,0,0,0,0,0,0,
368,1.889,-1.796,-22.49,-21.77,22.89,20.88,2.306,3.761,6.349,-6.932,-18.48,-15.25,-14.44,-13.05,-22.19,-11.84,0,0,0,0,0,0,0,0,0,0,0,0,0,0,0,0,
369,6.447,8.049,-26.64,-25.32,17.63,19.28,5.16,7.777,4.488,2.987,-9.511,-13.83,-17.5,-16.62,-23.05,-19.73,0,0,0,0,0,0,0,0,0,0,0,0,0,0,0,0,
370,3.07,1.928,-35.02,-33.66,8.936,9.953,0.1349,5.836,4.007,8.658,-8.218,-19.2,-24.92,-12.65,-27.71,-29.86,0,0,0,0,0,0,0,0,0,0,0,0,0,0,0,0,
371,-4.755,-9.857,-44.77,-42.18,1.337,-0.7203,-10.21,-4.605,2.065,-4.865,-12.82,-23.75,-27.61,-14.89,-26.51,-26.13,0,0,0,0,0,0,0,0,0,0,0,0,0,0,0,0,
372,-12.18,-19.23,-54.49,-52.92,-3.82,-6.384,-19.52,-13.75,4.058,-16.27,-12.73,-19.72,-28.21,-25.17,-14.75,-14.39,0,0,0,0,0,0,0,0,0,0,0,0,0,0,0,0,
373,-13.54,-27.12,-57.88,-58.22,0.3359,-6.924,-26.02,-18.4,10.64,-21.52,-13.41,-20.09,-37.68,-31.3,-17.89,-21.67,0,0,0,0,0,0,0,0,0,0,0,0,0,0,0,0,
374,-19.47,-40.8,-63.92,-63.75,-2.255,-13.21,-37.88,-28.39,0.557,-34.24,-27.4,-38.22,-56.66,-42.77,-40.48,-43.33,0,0,0,0,0,0,0,0,0,0,0,0,0,0,0,0,
375,-34.1,-55.49,-73.77,-73.9,-10.92,-21.23,-46.49,-32.41,-12.31,-35.35,-37.52,-51.04,-63.39,-50.81,-44.61,-45.05,0,0,0,0,0,0,0,0,0,0,0,0,0,0,0,0,
376,-40.16,-57.14,-78.79,-80.87,-10.9,-23.36,-45.78,-28.31,-7.42,-25.43,-35.85,-47.43,-52.58,-38.19,-30.88,-30.11,0,0,0,0,0,0,0,0,0,0,0,0,0,0,0,0,
377,-39.52,-51.11,-84.45,-86.43,-14.36,-25.97,-45.26,-32.19,-5.51,-23.3,-38.24,-47.1,-41.31,-24.48,-28.72,-21.67,0,0,0,0,0,0,0,0,0,0,0,0,0,0,0,0,
378,-39.58,-43.29,-85.94,-85.41,-19.65,-25.21,-40.38,-31.76,-9.347,-17.13,-35.28,-47.45,-33.15,-21.37,-30.54,-17.93,0,0,0,0,0,0,0,0,0,0,0,0,0,0,0,0,
379,-34.3,-33.44,-79.62,-77.32,-15.93,-20.89,-34.71,-25.06,-6.46,-11.36,-22.44,-42.39,-31.31,-22.11,-29.28,-20.11,0,0,0,0,0,0,0,0,0,0,0,0,0,0,0,0,
380,-33.73,-34.86,-82.91,-81.62,-18.9,-27.25,-43.6,-35.27,-7.704,-17.41,-23.95,-43.09,-38.22,-29.67,-32.04,-28.45,0,0,0,0,0,0,0,0,0,0,0,0,0,0,0,0,
381,-41.6,-43.7,-93.88,-92.85,-29.74,-38.7,-53.33,-47.03,-13.01,-17.23,-35.75,-43.33,-36.56,-30.61,-31.58,-28.11,0,0,0,0,0,0,0,0,0,0,0,0,0,0,0,0,
382,-41.32,-40.63,-97.43,-92.77,-34.39,-41.05,-50.29,-39.55,-15.7,-14.46,-36.02,-38.71,-27.22,-19.29,-32.13,-25.7,0,0,0,0,0,0,0,0,0,0,0,0,0,0,0,0,
383,-36.72,-33.19,-96.56,-88.97,-37.12,-37.94,-44.41,-30.38,-20.1,-19.18,-30.83,-37.21,-26.02,-18.33,-35.58,-27.98,0,0,0,0,0,0,0,0,0,0,0,0,0,0,0,0,
384,-34.48,-28,-91.55,-84.03,-36.42,-32.86,-35.01,-24.39,-18.94,-12.69,-25.71,-27.77,-19.3,-17.95,-22.61,-16.18,0,0,0,0,0,0,0,0,0,0,0,0,0,0,0,0,
385,-23.72,-14.72,-82.6,-75.48,-27.16,-27.3,-23.9,-16.27,-12.35,-1.71,-18.25,-13.39,-6.155,-5.81,-6.541,-1.345,0,0,0,0,0,0,0,0,0,0,0,0,0,0,0,0,
386,-15.14,-5.49,-82.74,-77.12,-24.37,-29.93,-25.4,-19.17,-13.07,-5.045,-17.73,-14.35,-8.566,-6.738,-9.018,-4.846,0,0,0,0,0,0,0,0,0,0,0,0,0,0,0,0,
387,-20.38,-8.986,-90.35,-85.75,-32.55,-37.81,-30.98,-25.68,-13.78,-4.028,-18.05,-14.13,-8.938,-8.56,-7.661,-4.493,0,0,0,0,0,0,0,0,0,0,0,0,0,0,0,0,
388,-21.64,-8.391,-93.64,-86.98,-36.5,-39.96,-30.8,-22.36,-10.03,4.773,-9.685,-4.449,3.342,6.482,-1.471,2.175,0,0,0,0,0,0,0,0,0,0,0,0,0,0,0,0,
389,-19.12,-9.543,-96.12,-89.28,-35.45,-38.98,-36.4,-26.41,-11.98,-2.266,-9.019,-9.434,-1.642,3.676,-10.89,-6.175,0,0,0,0,0,0,0,0,0,0,0,0,0,0,0,0,
390,-23.82,-20.96,-100.3,-95.79,-38.29,-38.93,-42.04,-35.86,-14.68,-11.59,-16,-16.17,-13.02,-11.6,-13.4,-9.928,0,0,0,0,0,0,0,0,0,0,0,0,0,0,0,0,
391,-22.29,-21.76,-100.1,-94.98,-41.7,-37.66,-37.16,-32.13,-14.14,-4.479,-15.05,-9.475,-6.939,-3.304,-2.962,-2.354,0,0,0,0,0,0,0,0,0,0,0,0,0,0,0,0,
392,-16.31,-14.18,-96.48,-90.98,-38.96,-35.77,-35.13,-30.81,-13.7,-2.036,-14.19,-11.35,-5.228,7.911,-5.175,-5.179,0,0,0,0,0,0,0,0,0,0,0,0,0,0,0,0,
393,-17.33,-14.46,-92.93,-91.38,-32.73,-32.18,-37,-36.16,-8.987,-8.396,-14.18,-16.71,-9.58,5.635,-8.25,-6.754,0,0,0,0,0,0,0,0,0,0,0,0,0,0,0,0,
394,-14.02,-11.03,-89.37,-90.66,-29.96,-28.35,-31.98,-28.28,-7.699,-6.062,-3.961,-10.35,-2.185,6.887,-0.2473,1.19,0,0,0,0,0,0,0,0,0,0,0,0,0,0,0,0,
395,-7.836,-3.91,-84.39,-85.3,-29.59,-29.27,-28.75,-20.16,-12.68,-4.518,5.944,-4.928,5.359,10.7,6.347,7.3,0,0,0,0,0,0,0,0,0,0,0,0,0,0,0,0,
396,-10.31,-5.592,-81.63,-82.19,-29.75,-32.54,-33.47,-28.11,-7.041,-9.116,6.617,-1.151,8.702,13.85,14.97,18.04,0,0,0,0,0,0,0,0,0,0,0,0,0,0,0,0,
397,-14.9,-8.966,-89.23,-88.5,-37.12,-39.06,-39.73,-38.65,0.5447,-6.032,6.223,4.959,16.31,19.49,24.45,30.09,0,0,0,0,0,0,0,0,0,0,0,0,0,0,0,0,
398,-18.28,-12.64,-101.3,-97.33,-49.15,-51.72,-46.2,-43.99,-6.673,-1.632,7.798,7.366,23.02,21.85,27.02,33.6,0,0,0,0,0,0,0,0,0,0,0,0,0,0,0,0,
399,-19.53,-18.12,-105.3,-98.37,-53.71,-58.17,-48.56,-44.74,-10.42,-4.103,10.56,13.33,28.23,21.56,32.84,39.74,0,0,0,0,0,0,0,0,0,0,0,0,0,0,0,0,
400,-11.59,-12.08,-103.8,-95.34,-51.11,-51.4,-40.48,-41.23,-0.6283,-1.369,17.66,24.72,35.21,23.34,41.91,47.75,0,0,0,0,0,0,0,0,0,0,0,0,0,0,0,0,
401,-3.73,-0.5792,-101.8,-94,-50.1,-46.99,-32.33,-39.34,2.32,5.336,23.27,26.86,35.05,23.57,40.52,43.58,0,0,0,0,0,0,0,0,0,0,0,0,0,0,0,0,
402,-8.062,-2.995,-96.82,-92.81,-51.6,-49.88,-33.86,-37.35,-4.962,2.496,19.35,19.76,25.23,19.41,32.12,33,0,0,0,0,0,0,0,0,0,0,0,0,0,0,0,0,
403,-11.57,-8.252,-88.74,-87.35,-48.4,-43.38,-33.34,-32.66,-4.516,-4.254,14.94,18.13,20.75,18.02,29.55,29.75,0,0,0,0,0,0,0,0,0,0,0,0,0,0,0,0,
404,-5.017,-1.911,-80.69,-77.34,-41.45,-31.99,-26.52,-29.66,0.7086,-4.093,16.22,23.6,27.74,23.05,32.79,33.41,0,0,0,0,0,0,0,0,0,0,0,0,0,0,0,0,
405,-0.5166,4.004,-75.59,-70.05,-38.03,-31.96,-22.96,-24.65,2.05,0.9001,22.16,32.79,38.99,26.37,40.32,42.1,0,0,0,0,0,0,0,0,0,0,0,0,0,0,0,0,
406,6.024,9.301,-70.99,-67.37,-32.28,-29.13,-18.71,-20.49,12.33,6.998,37.48,47.82,52.83,30.53,52.53,55.17,0,0,0,0,0,0,0,0,0,0,0,0,0,0,0,0,
407,17.83,18.43,-73.36,-72.64,-29.97,-24.66,-19.71,-30.15,18.67,8.022,39.49,47.14,54.35,35.58,47.03,51.91,0,0,0,0,0,0,0,0,0,0,0,0,0,0,0,0,
408,4.169,8.431,-92.83,-90.36,-49.82,-45.41,-38.49,-41.79,-6.867,-0.8581,8.668,14.39,28.97,23.11,16.1,25.66,0,0,0,0,0,0,0,0,0,0,0,0,0,0,0,0,
409,-32.09,-17.3,-107.3,-99.45,-71.92,-69.85,-51.34,-37.56,-35.4,-9.036,-14.8,-12.47,5.31,3.976,-0.8037,10.4,0,0,0,0,0,0,0,0,0,0,0,0,0,0,0,0,
410,-46.2,-25.57,-101.7,-91.95,-72.36,-68.95,-48.4,-32.75,-34.19,-10.9,-8.454,-11.05,1.926,1.595,4.994,13.23,0,0,0,0,0,0,0,0,0,0,0,0,0,0,0,0,
411,-39.55,-25.89,-99.11,-93.16,-66.92,-64.45,-55.96,-40.48,-22.87,-15.98,-0.5338,-8.373,-2.172,2.779,5.24,11.32,0,0,0,0,0,0,0,0,0,0,0,0,0,0,0,0,
412,-36.17,-34.4,-99.23,-95.96,-61.76,-63.21,-64.13,-44.99,-15.08,-19.97,3.425,-7.745,-4.367,3.777,7.324,12.35,0,0,0,0,0,0,0,0,0,0,0,0,0,0,0,0,
413,-31.24,-31.49,-87.8,-83.45,-52.72,-53.36,-53.53,-38.96,-8.626,-12.42,9.357,-0.323,2.762,10.84,14.79,18.39,0,0,0,0,0,0,0,0,0,0,0,0,0,0,0,0,
414,-27.26,-22.1,-82.72,-78.84,-50.36,-48.5,-47.53,-34.87,-8.136,-6.729,9.661,-0.0864,-0.7423,4.391,10.02,12.24,0,0,0,0,0,0,0,0,0,0,0,0,0,0,0,0,
415,-30.21,-27.74,-87.64,-86.2,-51.34,-51.37,-54.76,-37.58,-7.314,-13.24,8.508,-4.399,-8.909,-8.781,7.974,6.518,0,0,0,0,0,0,0,0,0,0,0,0,0,0,0,0,
416,-29.94,-34.21,-86.72,-84.93,-50.96,-50.57,-56.52,-39.49,-6.269,-16.86,9.177,-3.695,-5.761,-7.52,14.5,9.754,0,0,0,0,0,0,0,0,0,0,0,0,0,0,0,0,
417,-28.76,-32.09,-86.19,-83.8,-56.51,-51.53,-55.84,-38.74,-15.53,-17.52,4.924,-9.009,-9.859,-10.76,6.293,2.072,0,0,0,0,0,0,0,0,0,0,0,0,0,0,0,0,
418,-34.32,-37.6,-90.65,-90.97,-59.62,-55.02,-61.31,-41.62,-23.43,-27.28,-2.424,-18.64,-23.9,-19.73,-6.204,-11.97,0,0,0,0,0,0,0,0,0,0,0,0,0,0,0,0,
419,-36.65,-44.12,-89.03,-90.61,-53.48,-51.81,-61.93,-43.39,-16.88,-26.53,-1.94,-17.18,-23.25,-11.07,-2.849,-10.76,0,0,0,0,0,0,0,0,0,0,0,0,0,0,0,0,
420,-30.17,-35.3,-80.14,-80.55,-47.42,-44.44,-53.69,-37.06,-7.989,-9.283,5.069,-11.77,-14.61,-4.469,0.3599,-3.003,0,0,0,0,0,0,0,0,0,0,0,0,0,0,0,0,
421,-27.25,-28.17,-72.35,-75.05,-43.13,-41.51,-50.13,-35.4,-7.801,-10.47,1.161,-16.42,-18.39,-16.6,-7.495,-6.077,0,0,0,0,0,0,0,0,0,0,0,0,0,0,0,0,
422,-33.54,-35.42,-72.5,-78.8,-41.55,-45.32,-55.94,-43.1,-11.91,-26.19,-10.19,-23.48,-23.4,-19.48,-13.08,-11.84,0,0,0,0,0,0,0,0,0,0,0,0,0,0,0,0,
423,-38.5,-39.21,-80.56,-85.5,-46.95,-50.9,-61.29,-44.88,-13.37,-22.42,-9.091,-22.9,-17.93,-8,-8.167,-6.602,0,0,0,0,0,0,0,0,0,0,0,0,0,0,0,0,
424,-35.93,-35.53,-85.03,-86.34,-49.49,-50.99,-61.04,-40.84,-7.901,-12.62,-1.151,-17.66,-12,-6.226,2.538,4.571,0,0,0,0,0,0,0,0,0,0,0,0,0,0,0,0,
425,-30.34,-35.08,-81.46,-81.33,-46.6,-48.79,-58.64,-40.61,-1.985,-17.49,0.8158,-12.51,-9.363,-12.19,8.842,10.15,0,0,0,0,0,0,0,0,0,0,0,0,0,0,0,0,
426,-27.88,-33.96,-84.13,-82.81,-52.73,-53.42,-58.53,-42.36,-7.682,-23.1,-2.317,-10.37,-5.116,-11.1,8.142,10.66,0,0,0,0,0,0,0,0,0,0,0,0,0,0,0,0,
427,-28.97,-29.17,-92.11,-88.63,-60.21,-57.28,-57.66,-43.16,-15.96,-23.06,-6.697,-9.931,-1.911,-6.994,7.803,10.18,0,0,0,0,0,0,0,0,0,0,0,0,0,0,0,0,
428,-27.18,-24.55,-86.89,-82.99,-52.47,-49.47,-48.73,-39.79,-13.96,-20.26,-6.453,-9.644,-4.099,-9.649,6.211,5.469,0,0,0,0,0,0,0,0,0,0,0,0,0,0,0,0,
429,-23.81,-21.31,-75.75,-74.18,-44.34,-41.55,-38.58,-31.95,-12.29,-11.23,-5.598,-13.59,-8.136,-15.75,0.5749,0.4802,0,0,0,0,0,0,0,0,0,0,0,0,0,0,0,0,
430,-25.48,-21.95,-74.13,-75.1,-46.27,-42,-37.51,-27.97,-15.35,-5.346,-10.14,-17.63,-7.664,-13.22,-1.849,2.188,0,0,0,0,0,0,0,0,0,0,0,0,0,0,0,0,
431,-25.79,-22.97,-73.29,-74.26,-43.61,-40.53,-38.14,-29.02,-12.98,-7.998,-8.208,-13.79,-3.623,-1.97,-1.136,3.192,0,0,0,0,0,0,0,0,0,0,0,0,0,0,0,0,
432,-18.36,-18.23,-68.12,-67.53,-36.79,-34.99,-34.08,-28.66,-7.746,-4.865,0.0774,-7.833,-1.281,1.31,-1.084,0.3881,0,0,0,0,0,0,0,0,0,0,0,0,0,0,0,0,
433,-11.25,-12.97,-64.08,-63.57,-36.88,-32.18,-30.92,-24.98,-6.707,1.196,-4.341,-7.868,-2.219,-7.981,-3.227,-1.827,0,0,0,0,0,0,0,0,0,0,0,0,0,0,0,0,
434,-11.41,-11.29,-60.66,-61.05,-38.37,-29.98,-27.12,-18.92,-6.904,-3.835,-14.91,-10.49,-2.838,-11.18,-9.475,-5.883,0,0,0,0,0,0,0,0,0,0,0,0,0,0,0,0,
435,-11.15,-7.951,-55.73,-55.96,-32.48,-22.02,-17.25,-13.48,-3.245,-9.431,-9.018,-8.379,-0.3672,-5.366,-11.85,-7.879,0,0,0,0,0,0,0,0,0,0,0,0,0,0,0,0,
436,-2.566,-4.525,-48.38,-48.32,-23.99,-11.81,-9.258,-12.69,-0.8053,-8.22,3.247,-6.676,-3.053,-9.504,-11.4,-7.691,0,0,0,0,0,0,0,0,0,0,0,0,0,0,0,0,
437,1.731,-8.409,-46.86,-44.79,-25.91,-12.6,-12.25,-16.33,-7.596,-8.457,0.1982,-13.94,-12.34,-15.33,-17.11,-12.13,0,0,0,0,0,0,0,0,0,0,0,0,0,0,0,0,
438,-7.342,-14.75,-58.96,-52.98,-38.45,-24.76,-19.8,-19.96,-12.91,-7.729,-7.475,-19.61,-11.91,-5.566,-16.17,-10.9,0,0,0,0,0,0,0,0,0,0,0,0,0,0,0,0,
439,-15.32,-15.84,-70.66,-63.88,-47.15,-34.22,-24.74,-20.61,-9.296,-7.221,-5.694,-17.39,-5.117,-0.0654,-7.253,-2.921,0,0,0,0,0,0,0,0,0,0,0,0,0,0,0,0,
440,-17.16,-15.92,-70.27,-65.19,-46.87,-36.4,-26.45,-19.48,-9.141,-9.282,-3.93,-17.22,-6.75,-7.954,-6.143,-1.366,0,0,0,0,0,0,0,0,0,0,0,0,0,0,0,0,
441,-17.98,-14.51,-63.34,-58.44,-42.66,-32.97,-20.71,-15.33,-10.44,-2.273,-7.519,-14.75,-5.802,-8.252,-4.578,1.001,0,0,0,0,0,0,0,0,0,0,0,0,0,0,0,0,
442,-12.64,-6.12,-53.08,-48.56,-37.81,-24.35,-10.23,-5.835,-6.653,8.76,-9.809,-6.101,2.785,-2.112,0.559,7.074,0,0,0,0,0,0,0,0,0,0,0,0,0,0,0,0,
443,-4.544,3.406,-41.62,-38.22,-33.03,-15.1,-3.25,2.879,-5.739,11.75,-7.24,-2.533,6.213,-0.7364,-1.944,5.55,0,0,0,0,0,0,0,0,0,0,0,0,0,0,0,0,
444,-1.184,8.781,-33.4,-30.13,-27.24,-8.834,1.769,5.835,-4.101,14,-2.789,-4.435,2.539,-3.648,-5.92,-2.169,0,0,0,0,0,0,0,0,0,0,0,0,0,0,0,0,
445,-0.9551,8.55,-32.63,-28.63,-25.85,-10.37,2.922,8.092,-0.805,16.66,0.3038,-8.663,-7.355,-11.37,-9.782,-11.88,0,0,0,0,0,0,0,0,0,0,0,0,0,0,0,0,
446,-4.754,2.062,-39.74,-33.78,-31.17,-17.91,-2.262,9.932,-3.582,16.56,3.925,-15.45,-17.23,-12.41,-15.83,-17.6,0,0,0,0,0,0,0,0,0,0,0,0,0,0,0,0,
447,-7.497,-0.9701,-44.04,-37.87,-30.74,-17.29,-5.557,3.888,-1.369,14.8,3.388,-17.6,-15.17,-3.23,-14.34,-13.73,0,0,0,0,0,0,0,0,0,0,0,0,0,0,0,0,
448,-4.952,1.245,-43.76,-41.36,-27.61,-13.95,-8.151,-4.448,2.951,7.535,-3.775,-15.69,-7.678,-1.179,-8.886,-9.049,0,0,0,0,0,0,0,0,0,0,0,0,0,0,0,0,
449,-7.67,0.4004,-48.04,-47.02,-35.7,-22.6,-13.36,-2.345,-8.71,6.639,-4.662,-14.95,-1.515,0.0771,-7.056,-4.776,0,0,0,0,0,0,0,0,0,0,0,0,0,0,0,0,
450,-14.82,-0.0365,-51.47,-48.21,-43.29,-30.83,-15.8,-0.2569,-18.96,13.27,-4.773,-14.63,4.264,6.318,-7.416,1.537,0,0,0,0,0,0,0,0,0,0,0,0,0,0,0,0,
451,-19.04,-4.134,-53.2,-51.16,-43.59,-32.48,-21.42,-11.41,-16.53,0.692,-17.08,-17.96,2.079,-1.077,-11.7,1.865,0,0,0,0,0,0,0,0,0,0,0,0,0,0,0,0,
452,-26.44,-15.96,-59.91,-60.66,-49.13,-38.4,-29.11,-17.63,-23.02,-12.13,-22.8,-20.06,1.505,-6.377,-9.951,5.219,0,0,0,0,0,0,0,0,0,0,0,0,0,0,0,0,
453,-31.76,-13.91,-59.2,-59.24,-51.11,-39.5,-24.12,-9.319,-29.46,7.624,-14.48,-11.08,15.49,7.992,3.732,18.42,0,0,0,0,0,0,0,0,0,0,0,0,0,0,0,0,
454,-25.29,1.26,-49.06,-49.08,-41.04,-30.65,-15.95,-7.817,-19.08,21.88,-10.85,-1.319,23.28,11.82,10.07,23.03,0,0,0,0,0,0,0,0,0,0,0,0,0,0,0,0,
455,-17.8,2.672,-45.26,-47.76,-34.99,-25.11,-16.37,-13.78,-13.44,7.783,-9.152,1.419,18.89,7.358,8.535,20.63,0,0,0,0,0,0,0,0,0,0,0,0,0,0,0,0,
456,-13.46,0.1732,-42.23,-44.13,-33.26,-19.66,-11.46,-7.923,-15.9,6.039,-0.7534,6.403,23.69,22.03,14.14,25.04,0,0,0,0,0,0,0,0,0,0,0,0,0,0,0,0,
457,-5.907,10.35,-33.09,-31.87,-27.57,-11.02,-0.5619,3.488,-8.994,20.35,4.544,9.924,28.2,26.06,15,23.46,0,0,0,0,0,0,0,0,0,0,0,0,0,0,0,0,
458,-0.9885,15.79,-27.55,-26.84,-26.1,-9.505,2.83,6.264,-1.397,20.04,6.193,7.524,19.85,6.408,9.621,14.93,0,0,0,0,0,0,0,0,0,0,0,0,0,0,0,0,
459,2.525,12.27,-23.15,-25.22,-24.47,-8.304,2.335,3.258,0.3836,12.8,11.36,10.61,14.77,2.565,15.24,13.95,0,0,0,0,0,0,0,0,0,0,0,0,0,0,0,0,
460,8.828,9.968,-18.28,-20.85,-16.67,-3.151,-0.1139,-2.814,-0.2399,14.14,12.36,11.42,7.048,6.264,15.99,6.388,0,0,0,0,0,0,0,0,0,0,0,0,0,0,0,0,
461,4.785,1.054,-21.28,-24.31,-15.78,-5.993,-7.704,-8.283,-4.143,14.7,6.659,-0.5167,-12.74,-7.425,1.414,-11.52,0,0,0,0,0,0,0,0,0,0,0,0,0,0,0,0,
462,-3.107,-9.555,-21.71,-26.66,-18.41,-8.235,-8.244,-4.862,-0.6359,10.61,7.206,-4.606,-20.3,-13.74,-4.051,-16.87,0,0,0,0,0,0,0,0,0,0,0,0,0,0,0,0,
463,3.848,-6.802,-14.32,-19.53,-15.74,-2.45,-1.22,-1.482,6.362,7.655,9.496,0.9617,-14.3,-7.955,-4.177,-15.86,0,0,0,0,0,0,0,0,0,0,0,0,0,0,0,0,
464,9.356,-1.995,-16.4,-20.76,-18.27,-4.686,-3.472,-8.29,1.141,4.864,1.61,-2.371,-11.68,-5.625,-10.17,-15.99,0,0,0,0,0,0,0,0,0,0,0,0,0,0,0,0,
465,3.966,-1.985,-22.71,-27.34,-20.72,-9.186,-8.406,-10.26,-2.931,5.359,-2.938,-2.018,-1.664,4.885,-3.014,-3.076,0,0,0,0,0,0,0,0,0,0,0,0,0,0,0,0,
466,5.063,4.178,-16.8,-21.85,-12.32,-0.8119,-3.562,-2.04,0.2799,12.96,0.5596,4.099,10.44,15.61,3.261,4.091,0,0,0,0,0,0,0,0,0,0,0,0,0,0,0,0,
467,5.241,9.413,-11.8,-17.02,-8.619,3.635,-2.066,-0.7042,-4.274,15.83,-5.487,-6.59,5.981,9.325,-13.17,-8.112,0,0,0,0,0,0,0,0,0,0,0,0,0,0,0,0,
468,-7.372,4.025,-19.1,-24.35,-17.48,-7.633,-9.555,-7.193,-13.73,10.38,-16.59,-20.18,1.389,4.12,-19.19,-8.966,0,0,0,0,0,0,0,0,0,0,0,0,0,0,0,0,
469,-16.79,-1.806,-26.45,-31.84,-24.36,-17.66,-13.32,-11.17,-16.9,9.937,-13.21,-14.64,7.206,7.387,-1.88,3.714,0,0,0,0,0,0,0,0,0,0,0,0,0,0,0,0,
470,-14.9,-2.2,-26.64,-33.58,-22.34,-17.01,-12.42,-12.02,-8.3,11.71,2.372,-4.762,8.81,6.004,7.747,6.982,0,0,0,0,0,0,0,0,0,0,0,0,0,0,0,0,
471,-11.15,-2.663,-25.49,-33.41,-18.53,-15.33,-13.63,-10.76,3.843,6.682,11.47,-3.376,5.371,2.752,7.223,5.664,0,0,0,0,0,0,0,0,0,0,0,0,0,0,0,0,
472,-11.51,-5.753,-26.16,-32.7,-18.57,-16.07,-15.19,-10.59,0.1999,2.808,4.286,-6.654,1.187,1.066,6.071,2.822,0,0,0,0,0,0,0,0,0,0,0,0,0,0,0,0,
473,-14.75,-9.002,-25.12,-31.2,-20.33,-12.11,-13.66,-11.32,-12.04,4.268,-9.033,-13.34,-5.722,-2.796,-2.478,-5.921,0,0,0,0,0,0,0,0,0,0,0,0,0,0,0,0,
474,-15.94,-9.366,-21.12,-28.09,-21.7,-6.615,-9.488,-6.66,-14.28,7.166,-13.66,-18.76,-11.38,-7.016,-11.19,-13.2,0,0,0,0,0,0,0,0,0,0,0,0,0,0,0,0,
475,-12.42,-8.114,-16.39,-23.72,-20.49,-5.807,-4.548,-3.208,-8.118,8.101,-7.281,-16.81,-15.69,-12.32,-11.9,-20.58,0,0,0,0,0,0,0,0,0,0,0,0,0,0,0,0,
476,-7.672,-9.779,-14.04,-21.85,-15.88,-6.362,-2.716,-8.677,-1.599,2.108,-1.231,-14.56,-21.37,-18.23,-14.49,-29.12,0,0,0,0,0,0,0,0,0,0,0,0,0,0,0,0,
477,-8.93,-12.99,-18.92,-24.99,-17.38,-10.36,-5.144,-12.83,-5.877,-1.294,-5.909,-17.31,-18.23,-13.02,-18.17,-25.77,0,0,0,0,0,0,0,0,0,0,0,0,0,0,0,0,
478,-13.19,-7.881,-22.9,-25.25,-22.89,-14.55,-2.827,-6.656,-13.94,9.665,-8.809,-13.32,-0.8173,3.656,-12.55,-12.99,0,0,0,0,0,0,0,0,0,0,0,0,0,0,0,0,
479,-7.533,6.055,-14.21,-16.4,-18.2,-7.244,7.702,4.822,-6.1,18.19,1.83,-2.43,11.77,9.013,-5.131,-6.403,0,0,0,0,0,0,0,0,0,0,0,0,0,0,0,0,
480,1.123,11.94,-6.705,-10.04,-12.55,0.7578,12.8,9.835,-0.2251,11.22,6.322,-1.523,8.447,-0.2288,-5.247,-4.081,0,0,0,0,0,0,0,0,0,0,0,0,0,0,0,0,
481,-1.177,7.308,-10.02,-11.63,-15.46,-1.405,9.108,4.983,-8.372,8.332,-4.488,-5.912,9.675,2.942,-5.858,3.319,0,0,0,0,0,0,0,0,0,0,0,0,0,0,0,0,
482,-4.306,9.922,-11.07,-11.02,-15.59,-2.736,9.182,2.471,-7.623,17.82,-10.86,-2.75,25.14,18.68,-3.304,12.73,0,0,0,0,0,0,0,0,0,0,0,0,0,0,0,0,
483,-2.159,17.75,-11.36,-9.802,-15.09,-3.517,11.98,4.667,-5.568,18.48,-9.385,0.2136,35.04,23.74,-0.7151,19.02,0,0,0,0,0,0,0,0,0,0,0,0,0,0,0,0,
484,-1.684,17.35,-15.06,-12.15,-19.82,-6.431,11.62,3.134,-15.28,11.71,-9.101,2.019,32.76,23.23,4.834,22.77,0,0,0,0,0,0,0,0,0,0,0,0,0,0,0,0,
485,3.525,18.39,-9.184,-8.302,-17.81,0.738,16.66,7.539,-13.24,22.72,-4.03,11.24,31.99,28.08,12.47,24.13,0,0,0,0,0,0,0,0,0,0,0,0,0,0,0,0,
486,16.2,28.07,4.136,2.528,-5.503,14.39,26.5,20,1.072,35.87,4.843,19.08,31.3,25.61,14.86,21.31,0,0,0,0,0,0,0,0,0,0,0,0,0,0,0,0,
487,23.31,28.93,9.601,7.424,4.976,18.56,25.53,19.85,5.02,20.72,6.427,16.96,18.94,10.76,12.19,13.56,0,0,0,0,0,0,0,0,0,0,0,0,0,0,0,0,
488,21.57,16.7,6.438,2.726,6.055,14.88,15.53,8.693,5.701,2.142,8.545,15.02,4.492,-0.2254,10.1,5.253,0,0,0,0,0,0,0,0,0,0,0,0,0,0,0,0,
489,19.76,10.34,1.293,-4.349,2.261,12.19,9.67,1.206,12.71,4.348,15.84,16.96,1.67,1.648,7.541,1.111,0,0,0,0,0,0,0,0,0,0,0,0,0,0,0,0,
490,18.6,10.68,-2.724,-9.51,0.6882,9.609,4.688,-6.208,12.95,5.662,11.61,14.01,2.447,6.865,3.735,1.137,0,0,0,0,0,0,0,0,0,0,0,0,0,0,0,0,
491,15.41,7.612,-3.942,-12.44,1.344,7.538,-0.2412,-9.839,7.918,4.217,3.3,12.04,4.53,9.934,5.574,6.351,0,0,0,0,0,0,0,0,0,0,0,0,0,0,0,0,
492,16.31,8.732,-3.746,-13.54,2.107,9.508,2.31,-6.151,9.858,12.19,7.491,15.68,10.7,10.88,7.772,10.42,0,0,0,0,0,0,0,0,0,0,0,0,0,0,0,0,
493,18.97,11.5,-4.648,-13.46,1.94,9.587,4.221,-6.755,10.92,13.64,8.023,13.04,10.96,8.233,3.226,8.585,0,0,0,0,0,0,0,0,0,0,0,0,0,0,0,0,
494,16.61,8.448,-3.089,-9.656,2.131,7.133,3.78,-6.623,11.41,7.282,6.594,14.26,16.52,14.75,8.589,16.95,0,0,0,0,0,0,0,0,0,0,0,0,0,0,0,0,
495,18.55,12.56,-1.404,-7.14,2.061,6.94,6.86,-5.149,17.1,6.024,14.68,25.28,31.02,25.45,18.18,29.07,0,0,0,0,0,0,0,0,0,0,0,0,0,0,0,0,
496,17.59,14.47,-11.8,-17.01,-9.038,-4.127,-1.428,-16.69,4.798,2.498,3.973,13.99,19.97,10.59,3.651,15.84,0,0,0,0,0,0,0,0,0,0,0,0,0,0,0,0,
497,-4.456,-3.409,-27.1,-29.04,-28.52,-25.78,-18.6,-22.26,-21.73,-2.633,-22.48,-13.76,-5.546,-8.529,-15.86,-5.036,0,0,0,0,0,0,0,0,0,0,0,0,0,0,0,0,
498,-23.76,-16.31,-31.54,-30.35,-36.33,-32.15,-22.84,-11.37,-23.9,-1.252,-24.54,-18.94,-7.13,-0.0582,-16.24,-7.44,0,0,0,0,0,0,0,0,0,0,0,0,0,0,0,0,
499,-20.09,-13.99,-33.04,-31.05,-34.08,-25.69,-24.33,-13.05,-14.32,-0.372,-13.03,-13.59,-6.381,2.84,-15.79,-8.057,0,0,0,0,0,0,0,0,0,0,0,0,0,0,0,0,
500,-18.32,-18.7,-36.44,-33.67,-34.17,-26.91,-31.84,-21.45,-20.98,-3.233,-14.35,-19.46,-19.09,-11.59,-18.83,-13.58,0,0,0,0,0,0,0,0,0,0,0,0,0,0,0,0,
501,-27.27,-25.96,-33.76,-31.6,-34.07,-32.41,-30.53,-16.09,-27.49,-6.812,-21.16,-25.61,-23.71,-12.31,-19.75,-17.41,0,0,0,0,0,0,0,0,0,0,0,0,0,0,0,0,
502,-31.44,-24.96,-28.89,-27.67,-35.05,-34.41,-23.34,-13.36,-29.23,-9.113,-24.59,-26.36,-22.56,-8.244,-23.08,-22.25,0,0,0,0,0,0,0,0,0,0,0,0,0,0,0,0,
503,-29.66,-23.59,-24.72,-20.47,-37.16,-31.82,-19.04,-14.15,-30.82,-8.086,-21.38,-21.41,-22.31,-14.49,-19.54,-21.4,0,0,0,0,0,0,0,0,0,0,0,0,0,0,0,0,
504,-23.82,-24.18,-19.87,-13.26,-31.58,-24.43,-15.8,-9.004,-18.41,-8.899,-15.52,-13.02,-20.55,-17.27,-14.49,-19.16,0,0,0,0,0,0,0,0,0,0,0,0,0,0,0,0,
505,-14.46,-23.91,-17.85,-13.03,-23.42,-17.98,-13.81,-8.897,-7.759,-9.732,-17.11,-10.25,-20.84,-15.24,-20.97,-24.43,0,0,0,0,0,0,0,0,0,0,0,0,0,0,0,0,
506,-6.397,-16.47,-14.67,-10.31,-22.13,-13.84,-7.9,-5.762,-15.66,-1.185,-18.18,-8.77,-14.68,-12.07,-23.32,-22.8,0,0,0,0,0,0,0,0,0,0,0,0,0,0,0,0,
507,0.6133,-2.694,-10.68,-5.122,-23.02,-10.72,-0.0711,5.071,-15.97,8.331,-9.861,-5.88,-5.087,-5.671,-19.27,-15.72,0,0,0,0,0,0,0,0,0,0,0,0,0,0,0,0,
508,2.707,-1.956,-13.83,-9.107,-23.04,-13.91,-3.127,0.9135,-6.926,5.681,-5.448,-10.49,-7.852,-3.124,-21.33,-16.04,0,0,0,0,0,0,0,0,0,0,0,0,0,0,0,0,
509,-6.304,-14.08,-17.13,-13.75,-25.37,-20.6,-9.925,-9.6,-13.79,-3.327,-14.65,-16.92,-10.1,-5.29,-19.63,-12.25,0,0,0,0,0,0,0,0,0,0,0,0,0,0,0,0,
510,-17.17,-16.93,-15.22,-11.82,-27.56,-22.05,-8.2,-3.142,-24.83,-3.875,-26.09,-15.17,-3.69,-5.693,-12.86,-5.199,0,0,0,0,0,0,0,0,0,0,0,0,0,0,0,0,
511,-20.14,-12.13,-16.77,-12.82,-28.3,-22.11,-7.291,1.986,-25.95,0.6528,-29.97,-12.64,-6.774,-8.773,-14.22,-10.49,0,0,0,0,0,0,0,0,0,0,0,0,0,0,0,0,
512,-21.49,-15.45,-21.44,-17.62,-33.12,-27.56,-14.75,-10.97,-29.81,-10.82,-29.8,-17.15,-18.64,-17.38,-21.37,-19.38,0,0,0,0,0,0,0,0,0,0,0,0,0,0,0,0,
513,-26.14,-25.68,-24.31,-21.2,-39.34,-32.78,-22.51,-23.64,-32.5,-25.15,-23.58,-21.07,-23.18,-20.86,-24.07,-19.34,0,0,0,0,0,0,0,0,0,0,0,0,0,0,0,0,
514,-24.9,-29.3,-25.66,-22.61,-34.83,-29.24,-22.45,-21.39,-20.61,-10.18,-7.317,-14.58,-18.03,-12.63,-14.72,-12.19,0,0,0,0,0,0,0,0,0,0,0,0,0,0,0,0,
515,-11.11,-18.35,-20.28,-17.75,-21.62,-18.08,-14.22,-10.4,-4.137,7.707,9.146,-3.392,-10.49,-1.281,1.357,-2.401,0,0,0,0,0,0,0,0,0,0,0,0,0,0,0,0,
516,1.557,-5.708,-11.64,-11.06,-16.45,-9.267,-6.943,-5.7,2.357,-3.184,16.55,-1.218,-9.58,0.9826,4.842,-0.1316,0,0,0,0,0,0,0,0,0,0,0,0,0,0,0,0,
517,-1.79,-6.791,-14.18,-13.97,-22.77,-11.22,-8.859,-12.55,-0.6174,-10.83,13.92,-5.965,-12.18,-5.456,-2.57,-7.041,0,0,0,0,0,0,0,0,0,0,0,0,0,0,0,0,
518,-10.29,-10.45,-21.62,-19.06,-30.07,-20.4,-12.91,-15.01,-11.32,0.0241,4.115,-3.583,-4.505,-6.114,-2.676,-6.997,0,0,0,0,0,0,0,0,0,0,0,0,0,0,0,0,
519,-12.79,-7.134,-22.35,-17.92,-37.01,-28.81,-14.35,-10.59,-29.82,2.223,-3.588,3.729,8.57,4.367,-0.0137,0.7665,0,0,0,0,0,0,0,0,0,0,0,0,0,0,0,0,
520,-18.21,-9.82,-24.43,-20.18,-43.03,-33.71,-19.62,-15.92,-40.14,-5.431,-5.929,2.178,9.705,8.89,-6.061,-0.7192,0,0,0,0,0,0,0,0,0,0,0,0,0,0,0,0,
521,-24.53,-18.09,-27.61,-24.07,-40.55,-33.51,-23.79,-20.99,-32.83,-9.121,-10.64,-6.666,-0.2274,-2.7,-14.12,-10.33,0,0,0,0,0,0,0,0,0,0,0,0,0,0,0,0,
522,-23.61,-19.19,-25.81,-21.45,-37.25,-31.29,-20.18,-14.59,-29.51,-5.665,-16.53,-11.38,-7.117,-11.62,-15.25,-13.75,0,0,0,0,0,0,0,0,0,0,0,0,0,0,0,0,
523,-22.34,-16.71,-25.28,-18.16,-39.56,-30.35,-15.21,-11.91,-32.93,2.273,-13.11,-8.931,-7.184,-5.255,-11.08,-12.71,0,0,0,0,0,0,0,0,0,0,0,0,0,0,0,0,
524,-19.42,-16.88,-22.77,-14.95,-33.95,-24.2,-11.33,-11.06,-23.6,-2.213,-5.2,-6.822,-12.29,-6.626,-11.3,-18.62,0,0,0,0,0,0,0,0,0,0,0,0,0,0,0,0,
525,-12.37,-19.02,-13.96,-10.13,-22.33,-12.68,-8.145,-5.23,-15.59,-13.6,-6.751,-11.71,-23.71,-24.3,-18.03,-25.54,0,0,0,0,0,0,0,0,0,0,0,0,0,0,0,0,
526,-10.89,-18.85,-4.64,-4.011,-15.18,-3.106,-5.254,-4.082,-19.23,-3.754,-12.89,-16.5,-22.92,-25.89,-20.88,-20.89,0,0,0,0,0,0,0,0,0,0,0,0,0,0,0,0,
527,-13.28,-11.11,4.544,5.965,-8.009,1.693,-0.2104,-4.109,-17.81,7.13,-18,-16.89,-12.94,-10.69,-22.17,-15.88,0,0,0,0,0,0,0,0,0,0,0,0,0,0,0,0,
528,-16.54,-5.779,5.392,7.248,-7.753,-3.088,-0.1398,-3.229,-17.79,-4.432,-26.26,-18.54,-12.06,-9.689,-26.72,-19.52,0,0,0,0,0,0,0,0,0,0,0,0,0,0,0,0,
529,-20.03,-9.088,-4.641,-2.729,-16.62,-12.05,-4.354,-6.013,-22.7,-9.065,-24.47,-15.52,-13.2,-14.59,-23.07,-18.57,0,0,0,0,0,0,0,0,0,0,0,0,0,0,0,0,
530,-13.04,-10.03,-7.636,-4.814,-17.48,-11.86,-3.045,-6.005,-16.47,-5.623,-8.701,-7.105,-13.24,-14.73,-14.85,-16.37,0,0,0,0,0,0,0,0,0,0,0,0,0,0,0,0,
531,-0.2524,-10.76,-2.824,-2.352,-11.47,-4.992,-0.7211,-6.058,-5.344,-11.46,5.526,-1.799,-17.51,-19.58,-10.14,-19.44,0,0,0,0,0,0,0,0,0,0,0,0,0,0,0,0,
532,11.38,-10.43,3.541,0.9351,-2.911,7.391,4.757,-5.503,5.697,-2.55,24.4,9.101,-12.92,-15.79,2.14,-13.49,0,0,0,0,0,0,0,0,0,0,0,0,0,0,0,0,
533,27.8,-0.222,15.85,13.83,12.77,24.81,15.61,2.93,21.13,11.11,42.79,22.15,-4.99,-4.651,13.22,-5.875,0,0,0,0,0,0,0,0,0,0,0,0,0,0,0,0,
534,35.8,2.867,22.3,19,21.78,32.12,15.81,4.5,26.53,-1.201,37.32,21.77,-7.184,-5.776,8.857,-9.433,0,0,0,0,0,0,0,0,0,0,0,0,0,0,0,0,
535,29.97,-4.605,19.46,12.16,17.34,29.46,10.88,-2.462,18.84,-10.44,22.55,18.25,-6.182,-7.918,2.255,-10.89,0,0,0,0,0,0,0,0,0,0,0,0,0,0,0,0,
536,25.45,-4.396,21.28,13.26,11.65,26.2,14.3,-0.1269,10.84,-2.187,12.81,12.67,-7.334,-6.51,-6.521,-14.13,0,0,0,0,0,0,0,0,0,0,0,0,0,0,0,0,
537,15.11,-6.715,21.66,16.13,7.105,17.12,15.16,6.927,0.6475,-1.548,-3.959,-7.105,-23.67,-13.36,-24.91,-28.87,0,0,0,0,0,0,0,0,0,0,0,0,0,0,0,0,
538,-3.435,-16.61,15.01,14.89,0.2021,6.269,13,10.14,-12.67,-3.546,-18.75,-25.62,-37.1,-20.64,-36.19,-37.94,0,0,0,0,0,0,0,0,0,0,0,0,0,0,0,0,
539,-12.95,-20.11,11.14,17.05,-7.121,2.272,13.54,10.99,-16.95,0.1165,-19.93,-30.27,-41.46,-23.6,-33.86,-35.99,0,0,0,0,0,0,0,0,0,0,0,0,0,0,0,0,
540,-14.45,-20.86,10.77,15.88,-8.416,0.4193,12.14,10.53,-7.684,2.278,-14.78,-26.38,-41.32,-22.36,-27.93,-31.53,0,0,0,0,0,0,0,0,0,0,0,0,0,0,0,0,
541,-11.32,-14.94,10.99,12.59,-4.468,-1.158,13,12.42,0.4981,5.348,-5.224,-13.96,-26.44,-11.05,-17.99,-20.25,0,0,0,0,0,0,0,0,0,0,0,0,0,0,0,0,
542,-3.242,1.953,8.167,10.97,-9.519,-4.707,10.14,6.669,-3.364,3.957,5.22,-1.848,-6.427,-2.54,-5.337,-5.104,0,0,0,0,0,0,0,0,0,0,0,0,0,0,0,0,
543,-5.232,5.848,-4.258,-1.807,-23.04,-16.35,-7.972,-14.91,-9.82,-7.402,4.648,-3.108,-2.01,-8.816,-1.719,-0.735,0,0,0,0,0,0,0,0,0,0,0,0,0,0,0,0,
544,-19.8,-7.101,-17.77,-18.67,-29.81,-27.56,-22.7,-28.59,-16.24,-14.48,-8.992,-11.57,-6.886,-11.86,-8.47,-6.666,0,0,0,0,0,0,0,0,0,0,0,0,0,0,0,0,
545,-27.72,-11.64,-16.39,-17.11,-27.17,-24.39,-17.33,-20.03,-25.17,-4.617,-19.44,-14.04,-6.693,0.938,-11.55,-8.299,0,0,0,0,0,0,0,0,0,0,0,0,0,0,0,0,
546,-20.8,-3.643,-5.472,-5.475,-19.74,-12.16,-5.838,-8.393,-23.96,10.6,-14.28,-9.504,-4.373,10.49,-7.165,-4.622,0,0,0,0,0,0,0,0,0,0,0,0,0,0,0,0,
547,-9.562,1.585,-1.584,-3.174,-13.14,-4.153,-0.3212,-4.589,-15.36,8.089,-8.116,-6.169,-8.591,2.148,-6.108,-6.809,0,0,0,0,0,0,0,0,0,0,0,0,0,0,0,0,
548,-0.8801,-0.8228,1.091,-0.8222,-7.277,3.444,4.869,-2.528,-11.97,-3.562,-10.5,-3.192,-13.15,-6.931,-6.041,-9.539,0,0,0,0,0,0,0,0,0,0,0,0,0,0,0,0,
549,10.3,-0.2886,12.44,11.39,3.828,15.61,14.66,-0.7031,-3.964,0.4539,-5.668,6.823,-6.53,1.123,1.496,-2.318,0,0,0,0,0,0,0,0,0,0,0,0,0,0,0,0,
550,21.39,8.209,15.57,16.22,9.324,19.52,20.89,-0.6613,7.498,5.755,6.166,14.48,1.773,13.33,6.468,4.074,0,0,0,0,0,0,0,0,0,0,0,0,0,0,0,0,
551,21.9,8.958,5.993,8.593,3.031,12.23,14.86,-4.032,8.32,-3.873,7.266,8.032,-3.653,8.319,0.4233,-0.6861,0,0,0,0,0,0,0,0,0,0,0,0,0,0,0,0,
552,14.18,-6.767,5.559,7.072,1.46,7.216,4.25,-9.68,7.125,-11.63,-1.421,-4.339,-17.07,-7.141,-7.781,-8.944,0,0,0,0,0,0,0,0,0,0,0,0,0,0,0,0,
553,3.268,-23.96,9.246,9.334,2.089,2.439,-1.72,-10.88,4.683,-15.28,-8.415,-16.84,-30.66,-16.79,-14.96,-16.39,0,0,0,0,0,0,0,0,0,0,0,0,0,0,0,0,
554,-11.65,-33.64,0.0585,2.046,-7.438,-8.394,-6.545,-8.938,-9.017,-22.65,-10.17,-30.5,-43.74,-24.56,-24.33,-23.46,0,0,0,0,0,0,0,0,0,0,0,0,0,0,0,0,
555,-20.39,-37.24,-5.34,-2.098,-12.53,-11.26,-8.558,-7.027,-13.22,-19.95,-6.829,-32.07,-42.4,-23.78,-25.97,-21.26,0,0,0,0,0,0,0,0,0,0,0,0,0,0,0,0,
556,-13.73,-29.51,3.572,5.84,-5.228,-1.253,-2.959,-1.397,-0.7649,-4.949,0.9208,-16.63,-23.52,-4.867,-14.01,-9.654,0,0,0,0,0,0,0,0,0,0,0,0,0,0,0,0,
557,-2.844,-15.76,8.242,10.93,0.9059,4.247,1.152,-1.017,0.0797,2.03,11.03,-1.955,-12.53,2.348,-0.6938,-2.391,0,0,0,0,0,0,0,0,0,0,0,0,0,0,0,0,
558,3.087,-11.08,6.227,9.915,2.729,3.192,0.2728,-9.792,-1.572,-4.885,18.36,6.445,-13.82,-9.236,7.483,1.231,0,0,0,0,0,0,0,0,0,0,0,0,0,0,0,0,
559,9.153,-9.502,7.752,10.44,1.611,6.301,3.738,-9.789,14.63,-11.96,19.17,16.55,-6.018,-3.214,13.92,9.48,0,0,0,0,0,0,0,0,0,0,0,0,0,0,0,0,
560,15.1,3.21,7.497,9.651,-4.18,7.606,10.63,-2.575,18.35,-9.497,19.89,26.27,10.2,14.24,19.9,17.68,0,0,0,0,0,0,0,0,0,0,0,0,0,0,0,0,
561,15.8,20.19,4.457,9.02,-7.341,2.035,13.91,-2.996,1.351,0.5704,24.27,32.54,22.26,19.58,26.96,23.1,0,0,0,0,0,0,0,0,0,0,0,0,0,0,0,0,
562,12.1,26.29,2.367,10.73,-9.169,-4.6,11.74,-3.458,-4.136,9.823,24.03,33.39,26.2,21.9,29.86,26.03,0,0,0,0,0,0,0,0,0,0,0,0,0,0,0,0,
563,6.461,19.42,-2.767,7.987,-17.05,-10.67,5.66,1.083,-3.032,11.58,18.05,25.02,18.48,19.81,21.84,20.6,0,0,0,0,0,0,0,0,0,0,0,0,0,0,0,0,
564,2.759,10.09,-3.437,6.549,-18.19,-10.42,4.862,5.196,-9.173,9.816,12.16,13.3,7.487,14.99,11.16,10.41,0,0,0,0,0,0,0,0,0,0,0,0,0,0,0,0,
565,4.458,7.793,6.235,14.69,-6.313,0.0647,12.93,10.97,-8.305,9.26,5.275,5.084,5.503,20.1,5.093,6.764,0,0,0,0,0,0,0,0,0,0,0,0,0,0,0,0,
566,7.407,8.876,11.76,20.13,0.2227,7.004,17.03,13.26,-4.942,5.456,-2.929,-1.658,4.405,15.31,-0.5663,7.726,0,0,0,0,0,0,0,0,0,0,0,0,0,0,0,0,
567,4.684,4.118,7.963,13.7,-4.571,1.997,11.17,5.295,-11.33,0.7848,-10.51,-7.521,-2.405,-4.389,-5.495,4.885,0,0,0,0,0,0,0,0,0,0,0,0,0,0,0,0,
568,-2.58,-4.757,3.683,4.615,-8.16,-4.452,2.703,-4.109,-13.13,-0.895,-14.08,-10.24,-6.879,-9.918,-5.418,1.151,0,0,0,0,0,0,0,0,0,0,0,0,0,0,0,0,
569,-6.604,-12.54,-1.317,-2.094,-6.772,-6.044,-7.288,-12.51,-5.998,-10.38,-10.65,-11.37,-11.22,-7.993,-2.896,1.139,0,0,0,0,0,0,0,0,0,0,0,0,0,0,0,0,
570,-7.115,-22.33,-8.546,-10.41,-5.784,-6.916,-17.88,-22.27,-5.083,-21.56,-4.714,-9.941,-15.84,-12.9,0.9312,3.629,0,0,0,0,0,0,0,0,0,0,0,0,0,0,0,0,
571,-6.051,-28.1,-9.973,-13.58,-4.846,-5.449,-18.62,-18.47,-5.065,-13.78,5.184,0.5153,-5.87,-6.413,11.02,11.94,0,0,0,0,0,0,0,0,0,0,0,0,0,0,0,0,
572,1.451,-20.62,-4.504,-6.271,-2.361,-0.6781,-12,-4.11,2.622,-3.764,15.3,12.59,9.134,2.937,20.36,21.1,0,0,0,0,0,0,0,0,0,0,0,0,0,0,0,0,
573,8.264,-13.79,-2.554,-2.397,-2.364,1.185,-9.712,-5.625,1.127,-10.23,10.55,14.76,8.991,-2.675,20.37,20.01,0,0,0,0,0,0,0,0,0,0,0,0,0,0,0,0,
574,10.04,-11.79,0.3378,-1.859,-0.1409,6.179,-3.782,-11.29,-8.669,-8.835,6.57,19.84,10.93,-0.4078,24.18,20.25,0,0,0,0,0,0,0,0,0,0,0,0,0,0,0,0,
575,17.87,-0.4499,10.91,6.145,7.058,15.89,5.841,-0.6038,-6.851,5.33,13.23,27.95,22.38,13.22,31.61,27.89,0,0,0,0,0,0,0,0,0,0,0,0,0,0,0,0,
576,17.8,4.877,8.836,4.406,4.194,12.42,-0.5786,1.511,-3.36,7.433,4.949,20.12,22.22,16.18,26.88,27.92,0,0,0,0,0,0,0,0,0,0,0,0,0,0,0,0,
577,2.613,-4.633,-6.111,-9.705,-4.006,3.59,-12.01,-10.52,-7.484,3.403,-2.582,14.3,21.02,17.95,25.34,28.01,0,0,0,0,0,0,0,0,0,0,0,0,0,0,0,0,
578,3.637,-1.768,-4.737,-9.427,-0.3034,8.555,-6.642,-10.33,-7.221,5.035,11.98,24.05,32.15,25.72,34.92,37.11,0,0,0,0,0,0,0,0,0,0,0,0,0,0,0,0,
579,15.84,11.41,6.479,1.37,3.219,13.37,3.297,-3.487,-3.782,4.572,18.26,23.17,35.6,27.47,31.49,36.87,0,0,0,0,0,0,0,0,0,0,0,0,0,0,0,0,
580,14.86,14.68,9.777,6.73,3.286,13.78,8.818,0.9008,1.456,8.42,17.36,12.51,27.96,26.08,18.67,25.48,0,0,0,0,0,0,0,0,0,0,0,0,0,0,0,0,
581,16.67,15.34,12.56,10.08,10.08,18.24,12.93,8.677,7.768,18.43,23.36,7.84,20.78,22.72,13.16,17.22,0,0,0,0,0,0,0,0,0,0,0,0,0,0,0,0,
582,18.36,12.05,9.767,6.985,7.91,12.24,6.337,5.641,2.492,13.27,10.56,-0.9105,11.61,14.22,6.68,11.11,0,0,0,0,0,0,0,0,0,0,0,0,0,0,0,0,
583,4.88,-1.803,0.0855,-0.8132,-1.582,-0.1881,-5.645,-6.574,-5.673,-2.931,-7.244,-9.072,4.122,8.074,0.612,6.056,0,0,0,0,0,0,0,0,0,0,0,0,0,0,0,0,
584,-0.3424,-9.268,2.172,1.83,2.776,1.237,-4.707,-2.357,-3.049,-1.168,0.5274,-4.595,4.817,3.891,3.852,6.317,0,0,0,0,0,0,0,0,0,0,0,0,0,0,0,0,
585,7.339,-4.167,10.66,9.87,7.573,6.108,3.847,8.475,-0.0558,11.01,10.62,2.653,8.077,-0.511,8.477,9.261,0,0,0,0,0,0,0,0,0,0,0,0,0,0,0,0,
586,11.12,2.596,13.45,14.21,5.065,8.21,10.22,6.813,0.8068,6.382,9.344,9.428,11.86,3.676,11.15,11.15,0,0,0,0,0,0,0,0,0,0,0,0,0,0,0,0,
587,20.21,11.98,21.96,22.36,13.23,19.22,19.94,7.529,3.949,-1.818,10.09,19,18.58,14.97,14.93,12.65,0,0,0,0,0,0,0,0,0,0,0,0,0,0,0,0,
588,31.05,21.03,30.48,27.78,19.73,25.21,23.36,11.85,2.898,3.161,9.601,22.31,20.33,17.14,15.74,13.3,0,0,0,0,0,0,0,0,0,0,0,0,0,0,0,0,
589,24.41,16.82,20.45,16.12,8.522,13.5,9.183,5.345,-0.4277,4.82,8.196,19.7,16.47,11.67,16.92,13.77,0,0,0,0,0,0,0,0,0,0,0,0,0,0,0,0,
590,15.42,12.18,11.77,7.4,3.876,9.663,4.309,5.704,2.723,5.61,14.6,25.09,23.97,20.06,25.94,19.88,0,0,0,0,0,0,0,0,0,0,0,0,0,0,0,0,
591,23.4,26.05,25.04,21.13,15.89,24.76,22.03,20.87,11.34,18.1,23.77,34.87,36.67,32.44,34.24,27.45,0,0,0,0,0,0,0,0,0,0,0,0,0,0,0,0,
592,31.11,35.71,33.39,31,20.23,30.67,28.8,22.91,16.62,19.03,27.53,33.4,31.31,21.52,32.51,24.32,0,0,0,0,0,0,0,0,0,0,0,0,0,0,0,0,
593,24.41,22.7,23.34,22.58,14.49,20.68,17.87,11.14,14.99,2.843,26.71,26.26,20.44,7.607,28.25,17.58,0,0,0,0,0,0,0,0,0,0,0,0,0,0,0,0,
594,19.96,13.69,21.06,19.94,16.47,18.62,16.68,9.934,15.69,2.067,27.3,26.83,22.62,14.89,28.72,20.95,0,0,0,0,0,0,0,0,0,0,0,0,0,0,0,0,
595,27.96,21.64,29.22,26.5,23.06,27.7,24.89,18.52,19.89,14.19,28.32,29.04,25.89,22.68,29.74,27.63,0,0,0,0,0,0,0,0,0,0,0,0,0,0,0,0,
596,33.67,26.7,29.62,27.1,21.83,31.44,25.9,23.19,16.4,10.31,20.46,22.38,21.87,19.37,22.96,24.08,0,0,0,0,0,0,0,0,0,0,0,0,0,0,0,0,
597,26.52,21.58,23.16,21.58,14.06,24.29,17.16,19.24,11.86,4.725,8.758,8.274,13.32,15.75,6.907,10.87,0,0,0,0,0,0,0,0,0,0,0,0,0,0,0,0,
598,13.4,13.95,16.45,14.71,9.356,15.12,7.881,12.11,14.58,16.16,8.296,-4.056,4.148,13.15,-5.305,1.023,0,0,0,0,0,0,0,0,0,0,0,0,0,0,0,0,
599,3.358,8.907,13.4,12.34,11.4,12.34,6.516,9.766,9.865,14.97,12.47,-8.415,1.187,9.972,-6.175,-0.7744,0,0,0,0,0,0,0,0,0,0,0,0,0,0,0,0,
600,-2.076,6.804,14.01,13.54,10.24,9.87,4.676,8.434,-1.241,-4.083,6.453,-8.322,1.086,6.166,-4.2,-1.742,0,0,0,0,0,0,0,0,0,0,0,0,0,0,0,0,
601,-3.576,5.425,10.71,8.472,1.865,3.422,-2.239,4.263,0.1557,-2.819,1.158,-1.97,4.45,3.935,3.425,4.338,0,0,0,0,0,0,0,0,0,0,0,0,0,0,0,0,
602,2.82,8.597,7.644,4.397,0.539,4.736,-0.4207,4.019,6.728,11.84,8.33,14.6,19.67,10.64,19.5,21.06,0,0,0,0,0,0,0,0,0,0,0,0,0,0,0,0,
603,14.96,19.38,12.3,10.92,7.185,13.13,9.221,9.512,4.482,14.38,9.778,25.87,32.78,22.66,25.04,28.08,0,0,0,0,0,0,0,0,0,0,0,0,0,0,0,0,
604,18.76,28.51,13.73,14.42,4.553,11.79,12.7,14.23,-1.962,15.93,1.072,24.97,31.26,25.32,20.29,23.86,0,0,0,0,0,0,0,0,0,0,0,0,0,0,0,0,
605,13.29,28.43,6.465,7.554,-5.057,2.849,10.34,12.22,-9.049,14.71,7.407,28,28.89,18.42,24.67,25.98,0,0,0,0,0,0,0,0,0,0,0,0,0,0,0,0,
606,10.93,23.04,1.019,1.972,-7.14,-0.6407,6.385,5.514,-12.66,6.786,18.3,29.82,28.87,15.91,27.07,25.5,0,0,0,0,0,0,0,0,0,0,0,0,0,0,0,0,
607,7.114,17.14,-0.0161,1.846,-5.773,-1.928,1.482,2.46,-8.334,7.659,8.938,19.61,23.57,16.94,19.44,18.61,0,0,0,0,0,0,0,0,0,0,0,0,0,0,0,0,
608,-0.1823,14.43,1.792,5.377,-5.298,-2.572,2.023,5.225,-2.717,5.145,6.82,19.81,23.58,13.51,25.21,26.27,0,0,0,0,0,0,0,0,0,0,0,0,0,0,0,0,
609,6.974,19.59,9.272,13.93,0.9597,5.803,10.91,10.38,1.21,-6.095,22.33,36.41,33.33,14.73,40.63,40.9,0,0,0,0,0,0,0,0,0,0,0,0,0,0,0,0,
610,23.41,27.7,16.09,19.42,7.53,16.39,17.82,12.72,5.722,-2.272,22.69,43.28,36.78,20.6,42.62,41.04,0,0,0,0,0,0,0,0,0,0,0,0,0,0,0,0,
611,27.08,27.71,16.42,16.23,7.699,18.67,16.89,9.617,9.819,5.825,18.59,39.48,29.76,17.24,38.6,35.83,0,0,0,0,0,0,0,0,0,0,0,0,0,0,0,0,
612,22.93,21.56,16.37,15.3,7.073,17.9,16.94,10.17,10.78,0.7912,23.6,36.6,23.72,13.9,34.26,31.95,0,0,0,0,0,0,0,0,0,0,0,0,0,0,0,0,
613,20.78,19.53,17.2,18.92,5.428,16.67,21.56,16.32,3.862,1.244,12.78,30.24,22.28,19.21,24.7,24.58,0,0,0,0,0,0,0,0,0,0,0,0,0,0,0,0,
614,19.31,23.07,17.94,19.6,4.54,15.36,24.64,15.44,-2.677,8.466,1.763,24.03,20.35,15.99,18.75,20.53,0,0,0,0,0,0,0,0,0,0,0,0,0,0,0,0,
615,20.39,25.68,22.33,21.47,11.24,19.55,26.09,11.25,1.718,3.934,10.23,21.79,16.3,6.778,16.23,19.91,0,0,0,0,0,0,0,0,0,0,0,0,0,0,0,0,
616,21.71,26.06,27.19,26.62,17.98,26.02,29.71,16.09,5.812,-3.88,10.88,21.58,18.39,13.1,16.66,21.74,0,0,0,0,0,0,0,0,0,0,0,0,0,0,0,0,
617,24.3,30.52,29.89,29.14,18.16,29.45,32.86,21.54,5.699,0.6001,6.156,28.65,29.48,24.54,26.81,30.82,0,0,0,0,0,0,0,0,0,0,0,0,0,0,0,0,
618,29.62,34.48,29.85,27.19,14.17,28.35,27.63,17.06,5.809,6.154,12.79,33.47,34.64,23.05,30.03,33.77,0,0,0,0,0,0,0,0,0,0,0,0,0,0,0,0,
619,27,29.1,24.98,23.53,8.762,23.2,17.5,10.24,-1.456,-2.043,13.18,26.54,28.92,20.32,21.1,26.67,0,0,0,0,0,0,0,0,0,0,0,0,0,0,0,0,
620,22.24,24.67,24.34,25.33,11.16,22.38,17.75,10.52,-4.63,-10.56,7.621,23.61,24.57,19.48,19.95,24.49,0,0,0,0,0,0,0,0,0,0,0,0,0,0,0,0,
621,26.2,26.13,30.51,31.27,18.8,25.28,25.01,16.17,7.462,-2.785,8.644,27.58,22.78,10.32,21.97,22.13,0,0,0,0,0,0,0,0,0,0,0,0,0,0,0,0,
622,27.51,23.68,33.4,32.62,18.61,24.1,25.77,20.38,11.78,5.229,6.913,27.39,20.07,5.672,18.54,15.38,0,0,0,0,0,0,0,0,0,0,0,0,0,0,0,0,
623,25.73,21.17,34.43,32.66,15.9,24.35,24.31,18.92,2.76,-1.314,2.367,26.68,18.53,10.58,18.03,14.39,0,0,0,0,0,0,0,0,0,0,0,0,0,0,0,0,
624,28.03,21.15,33.25,32.09,16.05,26.56,23.92,15.46,1.519,-2.255,4.857,29.23,18.64,11.55,20.65,17.83,0,0,0,0,0,0,0,0,0,0,0,0,0,0,0,0,
625,29.25,20.46,28.53,28.52,15.97,26.94,23.84,17.92,8.093,10.18,10.28,33.66,24.08,15.85,25.35,23.91,0,0,0,0,0,0,0,0,0,0,0,0,0,0,0,0,
626,30.89,26.13,29.59,30.26,17.29,29.24,27.89,22.34,9.527,12.51,8.326,34.24,28.89,22.78,25.01,26.67,0,0,0,0,0,0,0,0,0,0,0,0,0,0,0,0,
627,27.86,29.65,29.2,31.59,14.75,26.42,25.55,18.42,3.376,4.828,-0.4216,23.25,19.86,14.11,11.27,14.99,0,0,0,0,0,0,0,0,0,0,0,0,0,0,0,0,
628,13.93,19.26,20.45,22.97,8.83,16.71,11.26,10.01,-2.81,3.198,-3.57,11.45,7.104,3.103,1.121,2.669,0,0,0,0,0,0,0,0,0,0,0,0,0,0,0,0,
629,6.029,9.372,17.33,17.48,8.428,12.83,2.465,6.288,-0.1331,1.113,1.111,9.6,4.537,6.5,2.908,2.037,0,0,0,0,0,0,0,0,0,0,0,0,0,0,0,0,
630,8.339,9.334,20.9,21.97,9.339,14.1,6.987,11.27,6.952,1.308,4.475,9.722,5.999,11.84,2.54,1.983,0,0,0,0,0,0,0,0,0,0,0,0,0,0,0,0,
631,10.12,15.98,26.35,29.27,12.01,17.8,17.54,22.58,9.157,11.35,4.612,8.723,5.884,12.3,-0.9421,-0.8806,0,0,0,0,0,0,0,0,0,0,0,0,0,0,0,0,
632,15.63,25.04,35.98,36.75,20.75,26.85,25.68,25.75,9.288,12.85,2.439,7.65,1.583,8.117,-5.578,-5.933,0,0,0,0,0,0,0,0,0,0,0,0,0,0,0,0,
633,21.68,23.31,41.66,40.39,26.26,33.57,24.81,18.76,12.15,5.322,0.9097,4.574,-7.076,-0.9984,-12.2,-14.17,0,0,0,0,0,0,0,0,0,0,0,0,0,0,0,0,
634,22.39,14.96,42.19,39.23,27.97,35.42,22.15,18.78,17.26,6.942,2.916,4.537,-9.733,-3.348,-11.38,-15.94,0,0,0,0,0,0,0,0,0,0,0,0,0,0,0,0,
635,26.46,16.34,43.04,39.02,30.81,35.78,24.59,23.47,23.11,8.917,2.613,7.58,-7.033,0.1581,-4.954,-12.8,0,0,0,0,0,0,0,0,0,0,0,0,0,0,0,0,
636,28.33,16.46,37.84,38.38,29.74,30.4,23.73,22.36,24.4,3.397,2.876,7.496,-10.38,-6.468,-4.406,-16.36,0,0,0,0,0,0,0,0,0,0,0,0,0,0,0,0,
637,22.28,9.826,31.07,35.31,28.38,25.7,21.36,23.67,20.47,0.9657,9.989,8.089,-13.64,-15.75,-5.854,-20.61,0,0,0,0,0,0,0,0,0,0,0,0,0,0,0,0,
638,24.59,14.3,33.78,35.71,31.53,31.26,25.42,25.93,19.69,3.648,10.86,10.96,-8.572,-12.19,-4.57,-18.67,0,0,0,0,0,0,0,0,0,0,0,0,0,0,0,0,
639,30.23,21.98,35.19,37.94,28.89,32.83,24.46,19.19,18.25,6.929,0.9344,7.999,-3.88,-3.657,-7.487,-17.83,0,0,0,0,0,0,0,0,0,0,0,0,0,0,0,0,
640,20.84,15.67,27.39,33.18,20.3,21.79,13.52,12.72,9.567,6.488,-0.7348,2.288,-3.179,1.528,-11.15,-18.08,0,0,0,0,0,0,0,0,0,0,0,0,0,0,0,0,
641,11.51,8.178,22.92,24.86,19.93,15,6.032,11.68,8.404,0.9876,7.015,1.024,-4.554,3.152,-6.886,-14.7,0,0,0,0,0,0,0,0,0,0,0,0,0,0,0,0,
642,10.28,4.096,21.66,19.1,21.64,12.19,1.73,6.07,14.86,-2.781,1.844,-4.739,-10.85,-1.458,-5.24,-13.25,0,0,0,0,0,0,0,0,0,0,0,0,0,0,0,0,
643,0.9919,-4.01,14.41,14.67,13.52,3.251,-1.39,3.3,8.865,-1.438,-12.62,-15.29,-14.36,-4.347,-13.18,-16.37,0,0,0,0,0,0,0,0,0,0,0,0,0,0,0,0,
644,-5.269,-3.914,13.34,16.3,11.1,3.894,4.832,11.7,4.452,-1.336,-11.51,-18.02,-14.54,-5.54,-21.12,-23.22,0,0,0,0,0,0,0,0,0,0,0,0,0,0,0,0,
645,2.069,0.6781,23.6,23.41,21.11,15.45,9.406,11.67,18.02,-5.981,-1.619,-18.68,-26.29,-18.04,-27.44,-33.95,0,0,0,0,0,0,0,0,0,0,0,0,0,0,0,0,
646,5.707,-6.34,29.62,27.35,27.91,20.11,5.204,0.8906,25.81,-8.019,-0.7191,-21.59,-37.87,-25.69,-30.69,-38.7,0,0,0,0,0,0,0,0,0,0,0,0,0,0,0,0,
647,8.558,-9.604,31.63,29.8,32.04,23.79,6.75,0.3982,22.36,-7.655,-1.845,-20.12,-35.73,-19,-30.41,-37.88,0,0,0,0,0,0,0,0,0,0,0,0,0,0,0,0,
648,14.12,-5.444,33.59,28.29,34.47,26.02,8.49,1.49,22.28,-13.59,-6.074,-23.59,-37.73,-22.18,-37.04,-43.91,0,0,0,0,0,0,0,0,0,0,0,0,0,0,0,0,
649,5.51,-10.75,28.2,19.52,27.44,16.04,1.309,-5.57,14.37,-15.36,-19.54,-31.15,-41.44,-27.56,-41.22,-46.54,0,0,0,0,0,0,0,0,0,0,0,0,0,0,0,0,
650,-5.534,-15.45,20.98,14.2,19.39,7.927,-4.034,-7.058,0.7113,-10.81,-27.22,-28.73,-35.81,-21.84,-32.87,-40.67,0,0,0,0,0,0,0,0,0,0,0,0,0,0,0,0,
651,-5.609,-17.27,15.12,10.21,11.99,3.925,-10.71,-9.651,-1.475,-19.89,-26.43,-27.86,-40.33,-28.89,-31.43,-44.37,0,0,0,0,0,0,0,0,0,0,0,0,0,0,0,0,
652,-13.32,-30.73,3.085,-0.9128,-1.176,-9.04,-22.68,-20.58,-5.213,-30.66,-30.17,-35.29,-52.51,-41.69,-36.28,-50.66,0,0,0,0,0,0,0,0,0,0,0,0,0,0,0,0,
653,-24.89,-40.58,-5.346,-7.919,-6.017,-16.6,-26.37,-23.05,-12.1,-23.42,-29.13,-31.17,-46.24,-32.81,-25.69,-40.36,0,0,0,0,0,0,0,0,0,0,0,0,0,0,0,0,
654,-17.21,-30.49,2.595,-2.144,5.368,-6.24,-19.42,-15.45,-1.048,-15.62,-12.56,-14.1,-27.76,-15.33,-9.709,-24.15,0,0,0,0,0,0,0,0,0,0,0,0,0,0,0,0,
655,-1.809,-15.54,13.75,6.558,14.77,3.117,-13.24,-11.36,9.959,-17.45,-3.749,-7.789,-19.63,-11.01,-10.66,-20.45,0,0,0,0,0,0,0,0,0,0,0,0,0,0,0,0,
656,-3.493,-14.6,8.576,4.219,7.536,-4.762,-16.55,-14.64,-3.092,-20.5,-18.19,-17.83,-23.89,-17.9,-22.5,-26.11,0,0,0,0,0,0,0,0,0,0,0,0,0,0,0,0,
657,-15.98,-24.3,-5.693,-7.326,-6.442,-18.57,-23.98,-19.24,-17.69,-22.29,-30.11,-25.66,-25.68,-18.34,-28.02,-26.51,0,0,0,0,0,0,0,0,0,0,0,0,0,0,0,0,T2
658,-23.36,-28.73,-11.31,-12.7,-12.75,-24.33,-24.7,-18.86,-19.31,-22.01,-34.07,-30.9,-24.46,-11.68,-32.12,-26.29,0,0,0,0,0,0,0,0,0,0,0,0,0,0,0,0,
659,-31.16,-31.24,-9.791,-8.803,-13.23,-25.42,-23.46,-17.41,-21.54,-20.72,-48.62,-43.54,-33.97,-20.59,-41.87,-36.99,0,0,0,0,0,0,0,0,0,0,0,0,0,0,0,0,
660,-37,-37.38,-2.757,-0.4534,-7.323,-20.83,-21.02,-15.6,-21.54,-18.66,-49.19,-44.81,-42.49,-34.01,-41.32,-42.69,0,0,0,0,0,0,0,0,0,0,0,0,0,0,0,0,
661,-26.9,-32.7,10.18,8.715,5.163,-8.435,-12.09,-9.825,-12.77,-17.99,-24.14,-29.21,-36.44,-28.08,-27.79,-34.08,0,0,0,0,0,0,0,0,0,0,0,0,0,0,0,0,
662,-12.39,-20.69,17.12,12.49,11.29,1.582,-5.063,-6.546,0.3623,-19.2,-8.97,-17.38,-29.58,-18.78,-13.84,-24.77,0,0,0,0,0,0,0,0,0,0,0,0,0,0,0,0,
663,-1.406,-14.02,21.74,16.83,15.81,10.85,0.9364,-4.118,19.45,-12.31,2.319,-4.338,-25.01,-15.52,2.882,-16.11,0,0,0,0,0,0,0,0,0,0,0,0,0,0,0,0,
664,13.03,-9.015,27.38,22.03,23.39,16.9,5.78,-0.2952,31.31,-7.543,21.49,6.087,-23.28,-15.31,10.9,-13.37,0,0,0,0,0,0,0,0,0,0,0,0,0,0,0,0,
665,10.47,-13.68,15.35,12,12.61,1.871,-6.374,-7.817,14.67,-19.26,10.57,-9.498,-33.43,-23.92,-3.202,-24.67,0,0,0,0,0,0,0,0,0,0,0,0,0,0,0,0,
666,-17.13,-29.32,-6.857,-6.045,-11.49,-23.02,-26.3,-22.98,-13.98,-27.72,-23.51,-31.08,-40.47,-29.59,-17.81,-33.2,0,0,0,0,0,0,0,0,0,0,0,0,0,0,0,0,
667,-37.73,-37.76,-17.89,-16.04,-23.13,-35.58,-36.46,-30.41,-24.66,-25.3,-33.82,-33.04,-35.21,-28.75,-19.39,-30.27,0,0,0,0,0,0,0,0,0,0,0,0,0,0,0,0,
668,-39.35,-38.44,-21.41,-19.42,-23.52,-36.2,-39.89,-29.12,-19.53,-24.1,-25.56,-25.2,-27.27,-26.09,-14.39,-21.88,0,0,0,0,0,0,0,0,0,0,0,0,0,0,0,0,
669,-31.93,-33.42,-15.74,-12.71,-16.59,-25.52,-33.66,-22.8,-12.93,-19,-19.16,-12.03,-12.67,-9.312,-3.002,-7.951,0,0,0,0,0,0,0,0,0,0,0,0,0,0,0,0,
670,-18.39,-21.4,-1.017,0.1509,-3.72,-11.72,-21.77,-18.28,-4.896,-11.39,-9.507,1.155,0.557,2.501,5.739,1.776,0,0,0,0,0,0,0,0,0,0,0,0,0,0,0,0,
671,-7.86,-17.47,6.133,4.847,2.593,-7.996,-18.46,-17.89,4.777,-11.3,0.0842,4.46,-1.074,-10.36,7.945,4.553,0,0,0,0,0,0,0,0,0,0,0,0,0,0,0,0,
672,-4.265,-20.49,8.74,7.963,4.64,-4.088,-15.47,-12.64,9.439,-14.71,4.56,10.22,1.066,-13.43,16.57,12.6,0,0,0,0,0,0,0,0,0,0,0,0,0,0,0,0,
673,2.134,-14.09,16.58,17.12,11.06,6.087,-5.959,-5.201,13.35,-11.2,12.16,21.15,11.82,0.672,25.91,18.28,0,0,0,0,0,0,0,0,0,0,0,0,0,0,0,0,
674,10.42,-4.139,21.36,22.43,15.63,10.57,-1.002,-4.645,19.6,-0.0307,17.42,19.19,7.269,-0.5006,20.77,10.55,0,0,0,0,0,0,0,0,0,0,0,0,0,0,0,0,
675,9.959,-4.456,18.54,18.79,13.23,6.037,-4.476,-8.672,10.16,-2.4,8.104,5.458,-10.99,-12.1,6.42,-2.37,0,0,0,0,0,0,0,0,0,0,0,0,0,0,0,0,
676,-2.695,-16.33,10.39,9.034,2.806,-6.052,-14.63,-14.37,-13.5,-19.9,-5.215,-6.128,-22.12,-15.06,-4.468,-12.14,0,0,0,0,0,0,0,0,0,0,0,0,0,0,0,0,
677,-17.72,-27.34,2.354,0.256,-10.46,-18.57,-24.03,-18.64,-17.52,-19.86,-9.576,-9.638,-19.94,-9.694,-4.907,-12.25,0,0,0,0,0,0,0,0,0,0,0,0,0,0,0,0,
678,-17.9,-22.98,6.112,2.961,-9.041,-14.57,-20.09,-18.03,0.2734,-8.678,-5.375,-1.682,-8.824,0.2219,5.408,-1.529,0,0,0,0,0,0,0,0,0,0,0,0,0,0,0,0,
679,-3.063,-11.49,17.1,13.06,5.466,1.036,-8.912,-15.93,8.537,-11.08,6.572,11.33,2.492,5.55,18.15,8.706,0,0,0,0,0,0,0,0,0,0,0,0,0,0,0,0,
680,7.845,-6.155,20,17.92,10.58,7.555,-1.745,-10.18,4.988,-10.47,13.42,16.2,8.526,7.033,22.54,12.69,0,0,0,0,0,0,0,0,0,0,0,0,0,0,0,0,
681,9.843,0.9976,21.32,22.23,8.627,9.303,9.276,3.484,7.333,-0.2132,4.25,13.74,13.62,15.9,16.42,13.03,0,0,0,0,0,0,0,0,0,0,0,0,0,0,0,0,
682,13.11,13.32,31.46,34.45,13.25,17.74,26.38,14.98,9.476,7.756,-2.82,11.15,19.44,20.55,9.938,12.65,0,0,0,0,0,0,0,0,0,0,0,0,0,0,0,0,
683,16.6,19.96,41.61,46.8,15.53,24.33,35.06,17.36,0.308,13.14,-3.225,5.963,18.96,11.08,7.033,12.95,0,0,0,0,0,0,0,0,0,0,0,0,0,0,0,0,
684,11.65,14.42,42.06,47.49,9.507,20.06,26.23,12.41,-9.745,5.633,-15.76,-5.567,7.031,2.194,-2.531,7.128,0,0,0,0,0,0,0,0,0,0,0,0,0,0,0,0,
685,-1.355,-3.568,31.39,33.52,3.167,6.725,5.119,-3.718,-12.31,-10.99,-25.07,-15.78,-7.51,-3.179,-13.44,-2.159,0,0,0,0,0,0,0,0,0,0,0,0,0,0,0,0,
686,-10.2,-18.88,21.58,21.13,2.131,-3.119,-8.525,-18.43,-12.69,-12.84,-11.63,-13.37,-7.632,-5.966,-9.735,0.8244,0,0,0,0,0,0,0,0,0,0,0,0,0,0,0,0,
687,-3.361,-12.14,30.22,30.03,10.51,4.476,-0.9315,-9.795,-10.06,-5.105,-5.802,-5.17,2.775,3.067,-2.974,7.44,0,0,0,0,0,0,0,0,0,0,0,0,0,0,0,0,
688,8.979,3.557,44.66,44.23,22.25,17.18,11.47,6.19,-3.299,-0.9905,-20.74,-6.156,2.511,7.29,-8.824,-0.0836,0,0,0,0,0,0,0,0,0,0,0,0,0,0,0,0,
689,10.2,6.767,44.37,43.61,24.55,17.73,13.38,7.077,-1.589,1.639,-23.46,-11.69,-7.372,-7.727,-17.9,-11.96,0,0,0,0,0,0,0,0,0,0,0,0,0,0,0,0,
690,5.264,4.573,38.78,40.53,18.73,15.08,11.79,4.798,-6.867,-2.532,-17.22,-14.18,-11.95,-16.57,-21.8,-16.19,0,0,0,0,0,0,0,0,0,0,0,0,0,0,0,0,
691,0.5935,3.046,32.39,36.42,11.29,11.96,6.406,4.455,-10.32,-11.54,-25.09,-17.33,-13.06,-9.373,-18.17,-13.14,0,0,0,0,0,0,0,0,0,0,0,0,0,0,0,0,
692,-7.5,-3.329,21.85,24.56,5.281,1.953,-2.679,-1.214,-9.855,-10.64,-26.27,-16.93,-13.17,-3.106,-5.114,-4.188,0,0,0,0,0,0,0,0,0,0,0,0,0,0,0,0,
693,-13.64,-7.33,19.59,20.44,2.683,-4.924,-3.698,-3.297,-11.34,-0.0091,-14.77,-10.47,-7.3,2.459,5.558,2.517,0,0,0,0,0,0,0,0,0,0,0,0,0,0,0,0,
694,-14.16,-4.913,20.66,22.95,-1.93,-6.988,-2.861,-0.6535,-14.76,4.739,-12.14,-5.496,-1.358,8.613,7.805,3.322,0,0,0,0,0,0,0,0,0,0,0,0,0,0,0,0,
695,-12.95,-4.058,13.19,18.95,-7.659,-10.1,-6.715,-1.396,-12.45,-0.0334,-3.677,3.169,2.602,13.52,14.36,8.409,0,0,0,0,0,0,0,0,0,0,0,0,0,0,0,0,
696,-4.36,-0.257,13.06,20.58,-2.773,-5.55,-0.6823,1.681,-2.362,4.926,16.85,20.51,14.28,24.8,27.79,20.93,0,0,0,0,0,0,0,0,0,0,0,0,0,0,0,0,
697,9.457,9.089,22.27,29.48,7.236,2.371,9.406,9.069,7.706,15.44,17.59,30.57,24.78,28.45,35.17,29.96,0,0,0,0,0,0,0,0,0,0,0,0,0,0,0,0,
698,11.9,7.244,23.32,29.99,9.413,3.072,7.135,8.814,11.41,-0.1211,4.045,28.23,22.07,13.98,34,29.81,0,0,0,0,0,0,0,0,0,0,0,0,0,0,0,0,
699,9.745,-1.785,26.51,32.46,14.81,10.77,8.874,7.232,13.68,-17.56,11.23,32.63,23.83,11.01,36.94,31.3,0,0,0,0,0,0,0,0,0,0,0,0,0,0,0,0,
700,20.8,6.788,40.04,45.98,29.82,25.82,20.89,12.36,21.99,1.135,32.68,45.74,36.08,25.62,45.4,39.53,0,0,0,0,0,0,0,0,0,0,0,0,0,0,0,0,
701,31.99,21.36,41.48,48.59,34.76,25.57,19.74,11.14,30.73,14.82,42.91,50.14,38.99,31.09,46.7,43.39,0,0,0,0,0,0,0,0,0,0,0,0,0,0,0,0,
702,31.6,19.56,30.64,37.31,28.79,16.76,10.92,5.186,33.8,0.4537,45.15,48.08,36.29,31.95,43.03,42.11,0,0,0,0,0,0,0,0,0,0,0,0,0,0,0,0,
703,32.3,18.1,29.61,35.01,30.08,17.03,15.07,11.04,38.69,-1.048,48.14,48.94,38.35,33.75,43.12,41.54,0,0,0,0,0,0,0,0,0,0,0,0,0,0,0,0,
704,33.14,25.96,33.06,38.96,33.24,17.32,20.91,17.16,44.32,9.004,44.73,47.2,35.15,24.56,42.3,37.61,0,0,0,0,0,0,0,0,0,0,0,0,0,0,0,0,
705,26.67,27.51,31.45,37.31,30.2,12.32,17.94,11.64,37.88,8.674,35.82,40.12,27.66,20.83,35.25,28.55,0,0,0,0,0,0,0,0,0,0,0,0,0,0,0,0,
706,18.37,23.69,30.08,34.78,25.46,7.304,12.21,8.136,23.38,6.668,29.31,28.7,19.81,25.31,20.94,15.04,0,0,0,0,0,0,0,0,0,0,0,0,0,0,0,0,
707,8.382,17.35,24.73,30.24,16.15,1.461,6.417,7.608,13.23,2.657,23.92,19.49,10.92,14.76,12.19,6.812,0,0,0,0,0,0,0,0,0,0,0,0,0,0,0,0,
708,5.964,12.81,22.28,30.8,12.41,4.451,12.47,7.979,12.2,6.231,25.63,30.29,19.29,14.17,27.09,19.83,0,0,0,0,0,0,0,0,0,0,0,0,0,0,0,0,
709,25.32,29.81,37.98,49.41,27.58,22.15,34.49,19.98,28.05,25.52,40.13,53.36,43.04,40.28,44.6,36.28,0,0,0,0,0,0,0,0,0,0,0,0,0,0,0,0,
710,44.73,52.27,51.52,63.97,39.08,31.62,45.51,30.3,47.45,25.77,47.43,56.88,47.36,43.39,36.7,30.62,0,0,0,0,0,0,0,0,0,0,0,0,0,0,0,0,
711,38.54,44.66,44,55.3,30.04,19.45,34.27,21.59,35.83,4.091,34.84,42.34,34.04,18.64,26.01,23.16,0,0,0,0,0,0,0,0,0,0,0,0,0,0,0,0,
712,23.92,27.33,36.93,46.4,23.21,9.525,24.94,11.82,13.92,0.0714,27.26,38.46,36.69,19.09,34.51,34.88,0,0,0,0,0,0,0,0,0,0,0,0,0,0,0,0,
713,24.85,30.56,42.73,51.34,30.57,18.04,27.93,16.77,25.34,12.04,36.58,46.55,51.55,40.12,41.99,46.76,0,0,0,0,0,0,0,0,0,0,0,0,0,0,0,0,
714,32.08,37.04,46.52,55.23,34.94,26.43,29.71,22.3,38.27,20.33,38.08,46.24,53.99,45.74,36.72,45.09,0,0,0,0,0,0,0,0,0,0,0,0,0,0,0,0,
715,30.41,33.95,45.17,52.8,31.69,24.57,26.51,16.96,27.17,21.33,31.64,39.75,48.03,41.51,34.29,42.14,0,0,0,0,0,0,0,0,0,0,0,0,0,0,0,0,
716,28.56,31.1,47.37,52.62,34.02,26.06,24.65,12.05,31.2,12.23,38.79,41.2,44.47,37.08,39.29,42.45,0,0,0,0,0,0,0,0,0,0,0,0,0,0,0,0,
717,32.67,28.38,49.36,53.21,39.38,28.65,22.59,14.16,44.59,9.383,44.3,43.87,39.79,30.24,39.75,38.72,0,0,0,0,0,0,0,0,0,0,0,0,0,0,0,0,
718,29.33,25.15,42.59,46.47,31.37,18.81,17.14,11.34,33.12,20.94,31.09,37.39,35.73,28.82,32,31.96,0,0,0,0,0,0,0,0,0,0,0,0,0,0,0,0,
719,15.79,23.24,33.67,39.89,14.22,5.161,12.4,4.065,19.01,21.54,18.11,28.6,35.07,32.36,26.67,28.8,0,0,0,0,0,0,0,0,0,0,0,0,0,0,0,0,
720,8.856,21.79,36.63,45.54,11.45,5.814,13.76,4.199,22.9,13.09,23.31,31.75,37.93,35.11,36.29,36,0,0,0,0,0,0,0,0,0,0,0,0,0,0,0,0,
721,17.66,26.72,45.39,51.62,23.74,17.88,17.63,5.374,30.75,15.21,41.06,45,44.11,37.1,49.99,47.15,0,0,0,0,0,0,0,0,0,0,0,0,0,0,0,0,
722,23.87,27.51,39.89,42.62,23.79,16.88,10.54,0.6765,27.81,12.78,42.01,39.09,36.26,27.66,38.41,37.31,0,0,0,0,0,0,0,0,0,0,0,0,0,0,0,0,
723,5.497,6.465,22.58,28.62,4.405,-5.84,-9.336,-3.368,7.834,-0.4924,11.46,6.688,9.579,8.322,8.397,10.03,0,0,0,0,0,0,0,0,0,0,0,0,0,0,0,0,
724,-22.14,-17.75,11.85,22.65,-12.11,-25.94,-24.95,-5.719,-12.79,-6.376,-13.94,-17.16,-9.806,-0.0475,-7.554,-4.188,0,0,0,0,0,0,0,0,0,0,0,0,0,0,0,0,
725,-34.91,-28.02,11.19,23.92,-16.55,-29.54,-29.07,-6.022,-18.4,-6.163,-16.02,-23.53,-17.78,-2.435,-14.93,-10.55,0,0,0,0,0,0,0,0,0,0,0,0,0,0,0,0,
726,-40.64,-36.48,14.29,29.29,-21.18,-31.61,-29.72,-1.391,-24.29,-8.924,-24.47,-31.14,-26.08,-11.92,-27.76,-22.72,0,0,0,0,0,0,0,0,0,0,0,0,0,0,0,0,
727,-47.97,-41.22,11.32,30.29,-35.19,-41.83,-30.37,2.201,-38.63,-11,-37.6,-34.95,-26.13,-13.68,-31.42,-24.47,0,0,0,0,0,0,0,0,0,0,0,0,0,0,0,0,
728,-51.46,-34.98,-2.787,22.14,-51.87,-52.73,-30.73,1.584,-47.02,-7.228,-31.63,-29.46,-17.97,-2.566,-24.4,-14.96,0,0,0,0,0,0,0,0,0,0,0,0,0,0,0,0,
729,-48.84,-25.56,-10.91,16.9,-56.19,-55.4,-30.34,1.403,-42.12,-1.182,-18.51,-22.24,-9.8,4.756,-18.14,-6.129,0,0,0,0,0,0,0,0,0,0,0,0,0,0,0,0,
730,-38.69,-14.81,-6.074,18.24,-51.07,-51.62,-27.54,1.984,-33.59,-4.564,-13.47,-12.76,0.1632,4.65,-10.85,3.896,0,0,0,0,0,0,0,0,0,0,0,0,0,0,0,0,
731,-27.98,-5.286,-7.886,15,-51.48,-49.42,-25.52,1.003,-35.24,-11.46,-12.53,-6.557,2.953,2.37,-9.944,4.506,0,0,0,0,0,0,0,0,0,0,0,0,0,0,0,0,
732,-27.31,-3.3,-16.9,7.035,-53.59,-49.84,-28.15,-3.078,-43.35,-5.917,-17.95,-12.8,-6.117,-3.023,-21.39,-8.474,0,0,0,0,0,0,0,0,0,0,0,0,0,0,0,0,
733,-30.3,-3.782,-18.51,2.723,-51.12,-49.09,-29.42,-7.411,-45.22,-0.4844,-26.09,-19.6,-9.531,-6.416,-23.53,-9.759,0,0,0,0,0,0,0,0,0,0,0,0,0,0,0,0,
734,-28.46,-1.22,-15.95,4.752,-51.91,-46.55,-23.26,-5.196,-43.35,-5.762,-24.14,-14.22,-3.67,-3.547,-11.02,0.1166,0,0,0,0,0,0,0,0,0,0,0,0,0,0,0,0,
735,-26.45,2.148,-16.71,6.798,-57.14,-47.69,-19.96,-2.975,-43.6,-7.364,-25.19,-9.144,-4.277,-5.533,-8.999,-4.625,0,0,0,0,0,0,0,0,0,0,0,0,0,0,0,0,
736,-29.05,2.152,-21.88,1.793,-60.89,-54.38,-25.65,-7.993,-45.21,-4.11,-37.49,-12.05,-8.5,-11.81,-15.31,-12.18,0,0,0,0,0,0,0,0,0,0,0,0,0,0,0,0,
737,-29.24,1.538,-22.63,1.338,-57.53,-50.95,-22.71,-5.256,-46.08,-1.391,-31.22,-8.426,-3.556,-6.54,-11.76,-5.196,0,0,0,0,0,0,0,0,0,0,0,0,0,0,0,0,
738,-19.31,7.924,-7.245,16.18,-43.25,-32.12,-7.857,7.806,-41.96,4.253,-10.41,-1.872,-0.4891,0.5714,-9.59,-3.417,0,0,0,0,0,0,0,0,0,0,0,0,0,0,0,0,
739,-12.12,11.76,8.17,27.58,-31.94,-22.54,-3.441,9.591,-37.96,4.453,-13.95,-8.092,-9.147,-4.465,-13.63,-9.878,0,0,0,0,0,0,0,0,0,0,0,0,0,0,0,0,
740,-21.25,1.035,3.411,23.23,-39.42,-31.51,-10.25,1.028,-43.11,-5.124,-27.26,-12.79,-12.99,-7.524,-8.237,-3.105,0,0,0,0,0,0,0,0,0,0,0,0,0,0,0,0,
741,-30.34,-8.386,-2.626,22.66,-48.21,-36.13,-8.61,2.06,-44.9,-9.193,-19.79,-0.7294,-3.817,-3.076,6.991,13.38,0,0,0,0,0,0,0,0,0,0,0,0,0,0,0,0,
742,-21.99,-1.509,9.034,36.62,-37.37,-25.58,3.282,14.33,-31.27,-2.455,-6.478,13.69,8.138,3.649,21.52,25.81,0,0,0,0,0,0,0,0,0,0,0,0,0,0,0,0,
743,-9.724,10.04,20.87,47.52,-24.43,-17.56,9.295,23.44,-21.55,3.176,-5.939,12.48,15.16,13.18,20.32,27.9,0,0,0,0,0,0,0,0,0,0,0,0,0,0,0,0,
744,-12.93,11.94,17.95,42.91,-26.95,-23.62,1.431,19.67,-30.79,5.054,-17.03,-4.231,10.15,10.44,-0.3443,15.49,0,0,0,0,0,0,0,0,0,0,0,0,0,0,0,0,
745,-24.8,5.896,12.6,35.46,-30.16,-28.23,-4.74,14.59,-39.57,8.439,-25.28,-16.05,-1.156,-5.521,-10.86,4.595,0,0,0,0,0,0,0,0,0,0,0,0,0,0,0,0,
746,-25.44,3.283,20.65,43.36,-23.27,-19.23,3.362,24.17,-31.25,7.344,-16.82,-10.54,-0.7684,-5.636,-1.002,9.694,0,0,0,0,0,0,0,0,0,0,0,0,0,0,0,0,
747,-16.76,6.577,44.59,67.76,-10.4,-7.031,12.47,39.4,-18.97,1.575,-7.034,-5.477,5.009,6.353,0.8775,13.15,0,0,0,0,0,0,0,0,0,0,0,0,0,0,0,0,
748,-13.99,7.201,78.25,99.13,9.019,4.266,18.42,51.29,-16.35,4.453,-10.01,-8.151,1.673,4.243,-6.777,4.237,0,0,0,0,0,0,0,0,0,0,0,0,0,0,0,0,
749,-8.422,9.253,128.4,145.2,40.76,28.82,38.21,72.84,-9.377,14.17,-9.412,-2.219,0.314,0.0699,-5.765,-1.582,0,0,0,0,0,0,0,0,0,0,0,0,0,0,0,0,
750,13.64,23.34,211.5,221.1,90.08,71.65,72.47,109.7,14.67,24.85,0.2943,7.98,6.542,9.245,-3.537,-1.148,0,0,0,0,0,0,0,0,0,0,0,0,0,0,0,0,
751,34.06,38.88,298.1,295.5,139.2,110.7,102.9,146.9,34.07,41.97,7.696,8.064,7.324,13.67,-6.815,-4.729,0,0,0,0,0,0,0,0,0,0,0,0,0,0,0,0,
752,39.23,44.12,332.6,320.4,162.4,128.4,121.1,170,38.63,55.38,15.29,8.712,4.128,8.261,-4.751,-7.841,0,0,0,0,0,0,0,0,0,0,0,0,0,0,0,0,
753,45.19,46.43,326.1,313,174.1,138.1,130.8,181.6,47.2,52.64,22.08,15.02,2.769,7.869,-0.0841,-6.508,0,0,0,0,0,0,0,0,0,0,0,0,0,0,0,0,
754,50.38,46.31,323.7,312.7,187.1,145.8,134.1,190.2,49.68,46.2,17.14,13.73,-1.798,8.225,-2.501,-6.698,0,0,0,0,0,0,0,0,0,0,0,0,0,0,0,0,
755,45.54,43.46,326,315,189.7,146.6,136.9,195.6,41.02,49.49,12.66,13.63,0.1705,9.066,0.2498,-0.5363,0,0,0,0,0,0,0,0,0,0,0,0,0,0,0,0,
756,51.63,53.98,326.8,315.2,194.1,155.6,148.4,200.7,50.59,60.44,22.31,26.19,16.75,22.64,12.66,14.51,0,0,0,0,0,0,0,0,0,0,0,0,0,0,0,0,
757,67.24,72.54,325.9,314.1,200.4,167,157.8,203.9,61.67,68.24,28.66,33.51,30.81,35.34,17.16,21.95,0,0,0,0,0,0,0,0,0,0,0,0,0,0,0,0,
758,65.68,77.25,308.3,298.1,189.2,159.1,152.3,193,51.78,68.22,26.99,32,36.63,37.34,18.93,24.62,0,0,0,0,0,0,0,0,0,0,0,0,0,0,0,0,
759,59.55,74.7,281.4,273.3,178.6,148,144.4,178,53.38,69.02,31.53,35.03,40.65,41.52,28.55,31.1,0,0,0,0,0,0,0,0,0,0,0,0,0,0,0,0,
760,62.26,73.76,256.9,249.7,171,141.2,137.6,171.9,58.66,68.02,32.89,35.36,37.18,41.64,30.23,30.98,0,0,0,0,0,0,0,0,0,0,0,0,0,0,0,0,
761,57.41,65.39,222.8,217.2,143.8,123.9,121.1,156.5,39.99,57.01,29.27,29.93,29.67,33.24,23.8,25.62,0,0,0,0,0,0,0,0,0,0,0,0,0,0,0,0,
762,48.88,51.35,187.8,181.1,122.7,108.9,102.5,130.6,32.51,47.54,35.02,25.18,24.45,28.78,20.65,20.78,0,0,0,0,0,0,0,0,0,0,0,0,0,0,0,0,
763,46.25,39.21,167.4,155.3,122.4,102.8,91.24,116.9,43.77,44.25,33.91,16.77,16.88,23.12,13.29,11.48,0,0,0,0,0,0,0,0,0,0,0,0,0,0,0,0,
764,39.93,32.37,145.5,132.9,109.3,89.74,82.72,110.1,33.94,40.59,14.19,8.629,12.28,16.81,3.971,4.332,0,0,0,0,0,0,0,0,0,0,0,0,0,0,0,0,
765,29.54,31.83,113.1,106.8,81.37,70.93,73.3,95.16,12.03,40.72,0.8743,6.996,12.78,20.24,2.532,4.586,0,0,0,0,0,0,0,0,0,0,0,0,0,0,0,0,
766,21.83,29.58,85.42,82.2,63.78,56.47,62.63,79.19,7.385,39.76,4.535,6.966,11.58,21.38,5.363,7.219,0,0,0,0,0,0,0,0,0,0,0,0,0,0,0,0,
767,18.69,25.09,71.75,67.3,59,49.4,53.59,71.3,12.64,32.58,9.803,7.048,13.47,19.74,7.856,10.64,0,0,0,0,0,0,0,0,0,0,0,0,0,0,0,0,
768,17.38,23.37,63.61,60.42,57.15,44.72,46.03,66.08,13.49,29.31,8.377,4.225,14.62,24.8,5.209,8.338,0,0,0,0,0,0,0,0,0,0,0,0,0,0,0,0,
769,9.563,14.87,47.13,45.99,47.95,31.4,33.8,54.72,8.118,23.16,3.68,-1.947,5.026,17.67,-1.029,-0.5184,0,0,0,0,0,0,0,0,0,0,0,0,0,0,0,0,
770,0.1537,2.836,26.08,24.67,33.5,17.92,24.77,44.26,1.367,10.74,1.621,-1.806,-1.415,0.1791,-0.024,-2.38,0,0,0,0,0,0,0,0,0,0,0,0,0,0,0,0,
771,1.675,6.31,16.94,16.06,28.41,19.39,29.22,45.62,1.238,13.16,1.066,2.394,5.089,1.891,3.301,3.204,0,0,0,0,0,0,0,0,0,0,0,0,0,0,0,0,
772,6.098,17.34,16.16,16.83,29.53,23.96,33.55,46.8,4.244,23.45,-2.643,1.526,10.12,12.22,-1.09,4.672,0,0,0,0,0,0,0,0,0,0,0,0,0,0,0,0,
773,2.727,17.99,9.567,9.5,25.98,20.03,27.54,38.54,0.7896,21.4,-2.581,-0.0897,8.156,11,-4.034,2.875,0,0,0,0,0,0,0,0,0,0,0,0,0,0,0,0,
774,0.9583,16.4,0.1624,-1.719,23.85,17.21,22.24,33.63,-1.17,18.24,3.818,1.485,6.299,10.58,-0.7941,3.413,0,0,0,0,0,0,0,0,0,0,0,0,0,0,0,0,
775,5.157,18.32,-7.808,-10.14,20.84,16.32,18.9,30.41,2.59,15.8,0.2236,-1.2,2.578,11.01,-4.959,0.3529,0,0,0,0,0,0,0,0,0,0,0,0,0,0,0,0,
776,1.269,11.51,-19.39,-22.09,7.023,8.779,9.995,19.52,-5.105,8.617,-13.72,-11.24,-5.126,3.652,-18.63,-10.21,0,0,0,0,0,0,0,0,0,0,0,0,0,0,0,0,
777,-13.7,-1.547,-31.11,-35.11,-5.144,-1.471,2.482,13.95,-23.59,11.96,-21.45,-22.42,-12.98,-1.641,-28.88,-19.47,0,0,0,0,0,0,0,0,0,0,0,0,0,0,0,0,
778,-27.95,-8.845,-39.52,-43.67,-10.77,-11.54,-0.1363,15.76,-35.3,16.78,-29.45,-32.18,-20.38,-3.635,-34.08,-22.97,0,0,0,0,0,0,0,0,0,0,0,0,0,0,0,0,
779,-36.25,-10.95,-47.85,-50.22,-20.06,-20.46,-3.095,11.1,-38.74,8.176,-39.52,-35.07,-22.22,-6.623,-35.39,-22.93,0,0,0,0,0,0,0,0,0,0,0,0,0,0,0,0,
780,-34.47,-7.845,-50.42,-51.76,-20.43,-17.64,-2.529,7.027,-34.04,6.314,-34.17,-26.62,-18.01,-8.798,-30.88,-22.49,0,0,0,0,0,0,0,0,0,0,0,0,0,0,0,0,
781,-26.94,-5.323,-48.8,-51.37,-11.43,-10.98,-2.476,7.287,-24.35,7.588,-24.96,-24.52,-21.93,-15.1,-31.4,-27.62,0,0,0,0,0,0,0,0,0,0,0,0,0,0,0,0,
782,-29.44,-16.03,-56.82,-61.28,-16.84,-18.08,-12.48,-1.437,-22.39,-6.371,-23.83,-33.56,-29.48,-21.14,-36.95,-30.93,0,0,0,0,0,0,0,0,0,0,0,0,0,0,0,0,
783,-34.84,-28.18,-68.77,-74.25,-27.2,-25.64,-20.57,-12.6,-22.88,-13.63,-15.58,-31.42,-24.97,-17.75,-32.48,-23.06,0,0,0,0,0,0,0,0,0,0,0,0,0,0,0,0,
784,-29.31,-26.54,-70.96,-76.62,-25.76,-21.57,-17.75,-13.2,-17.83,-6.652,-10.67,-23.49,-18.63,-12.49,-24.38,-16.61,0,0,0,0,0,0,0,0,0,0,0,0,0,0,0,0,
785,-23.83,-20.88,-70.18,-75.72,-25.77,-20.6,-14.86,-10.7,-19.36,-5.805,-22.96,-26.57,-18.96,-11.57,-23.5,-17.45,0,0,0,0,0,0,0,0,0,0,0,0,0,0,0,0,
786,-26.11,-19.33,-77.53,-81.58,-33.35,-29.15,-16.44,-11.88,-31.79,-9.401,-31.99,-30,-19.2,-14.2,-24.83,-17.82,0,0,0,0,0,0,0,0,0,0,0,0,0,0,0,0,
787,-33.21,-21.71,-90.27,-90.98,-44.12,-40.09,-21.06,-16.05,-43.1,-12.24,-32.27,-31.72,-20.34,-18.14,-27.44,-19.05,0,0,0,0,0,0,0,0,0,0,0,0,0,0,0,0,
788,-43.49,-26.27,-98.78,-98.25,-53.49,-47.11,-27.76,-22.05,-46.02,-10.64,-33.1,-36.45,-18.81,-15.11,-28.68,-17.52,0,0,0,0,0,0,0,0,0,0,0,0,0,0,0,0,
789,-46.04,-23.3,-97.86,-99.66,-49.92,-44.84,-28.5,-22.13,-40.08,0.9279,-24.65,-31.59,-9.58,-6.954,-21.97,-9.345,0,0,0,0,0,0,0,0,0,0,0,0,0,0,0,0,
790,-35.95,-13.9,-91.04,-94.58,-37.74,-37.02,-23.78,-16.76,-27.82,2.223,-10.86,-20.32,-5.421,-7.563,-16.81,-8.7,0,0,0,0,0,0,0,0,0,0,0,0,0,0,0,0,
791,-28.64,-13.86,-89.08,-92.9,-34.77,-34.23,-25.71,-20.19,-19.9,-10.37,-13.57,-20.68,-14.32,-18.16,-23.45,-20.68,0,0,0,0,0,0,0,0,0,0,0,0,0,0,0,0,
792,-31.13,-21.8,-94.4,-99.13,-37.83,-35.58,-29.27,-26.86,-19.65,-8.635,-21.27,-24.84,-21.5,-21.3,-29.48,-27.03,0,0,0,0,0,0,0,0,0,0,0,0,0,0,0,0,
793,-29.21,-19.83,-92.43,-98.11,-34.41,-32.36,-22.07,-19.69,-14.15,-1.935,-11.26,-19.36,-15.85,-9.682,-25.27,-21.22,0,0,0,0,0,0,0,0,0,0,0,0,0,0,0,0,
794,-21.03,-10.98,-84.92,-90.4,-32.04,-29.21,-16.93,-13.84,-7.284,-11.14,-4.822,-17.92,-12.44,-5.585,-25.4,-20.86,0,0,0,0,0,0,0,0,0,0,0,0,0,0,0,0,
795,-20.74,-13.85,-87.36,-91.85,-35.11,-30.33,-23.41,-24.32,-9.441,-15.34,-15.02,-24.58,-20.2,-15.58,-29.96,-26.83,0,0,0,0,0,0,0,0,0,0,0,0,0,0,0,0,
796,-21.44,-22.2,-86.61,-91.82,-28.48,-25.04,-25.33,-29.98,-5.991,-10.49,-13.93,-21.93,-22.3,-16.83,-21.76,-22.09,0,0,0,0,0,0,0,0,0,0,0,0,0,0,0,0,
797,-16.1,-23.37,-78.44,-85.71,-19.48,-20.05,-23.07,-26.07,0.1723,-20.58,-7.07,-18.5,-20.5,-15.95,-16.01,-17.81,0,0,0,0,0,0,0,0,0,0,0,0,0,0,0,0,
798,-19.25,-25.43,-82.68,-88.33,-26.78,-26.78,-26.24,-28.45,-8.176,-29.77,-14.14,-24.83,-27.49,-25.31,-25.82,-26.37,0,0,0,0,0,0,0,0,0,0,0,0,0,0,0,0,
799,-23.21,-25.83,-87.91,-89.75,-35.44,-29.68,-23.15,-26.71,-16.84,-14.64,-13.76,-23.01,-29.12,-24.32,-28.03,-29.29,0,0,0,0,0,0,0,0,0,0,0,0,0,0,0,0,
800,-18.5,-18.86,-87.55,-88.75,-40.43,-30.76,-20.09,-18.91,-22.22,-4.38,-9.612,-20.31,-26.28,-19.07,-25.17,-27.33,0,0,0,0,0,0,0,0,0,0,0,0,0,0,0,0,
801,-26.84,-20.62,-100.5,-101.2,-55.96,-44.96,-31.93,-24.53,-36.15,-15.6,-22.97,-32.26,-34.51,-27.77,-33.74,-33.7,0,0,0,0,0,0,0,0,0,0,0,0,0,0,0,0,
802,-42.25,-29.61,-109,-107.4,-62.9,-51.55,-37.76,-32.29,-42.22,-15.18,-28.2,-35.81,-37.29,-27.57,-34.44,-33.07,0,0,0,0,0,0,0,0,0,0,0,0,0,0,0,0,
803,-39.12,-27.61,-98.06,-96.42,-49.7,-40.65,-28.75,-25.9,-33.56,-3.177,-17.26,-27.72,-30.27,-17.57,-26.46,-26.12,0,0,0,0,0,0,0,0,0,0,0,0,0,0,0,0,
804,-29.41,-22.36,-90.48,-91,-40.36,-33.25,-24.81,-20.08,-24,-8.226,-17.01,-29.72,-32.58,-23.08,-31.88,-31.11,0,0,0,0,0,0,0,0,0,0,0,0,0,0,0,0,
805,-25.78,-22.55,-88.3,-90.42,-39.32,-31.51,-24.23,-19.16,-15.14,-14.42,-21.37,-32.27,-32.81,-26.7,-37.43,-34.03,0,0,0,0,0,0,0,0,0,0,0,0,0,0,0,0,
806,-23.26,-19.63,-86.73,-88.32,-38.46,-30.64,-22.1,-16.65,-14.66,-10.78,-20.5,-29.07,-25.96,-19.38,-33.12,-28.57,0,0,0,0,0,0,0,0,0,0,0,0,0,0,0,0,
807,-27.51,-20.87,-93.31,-94.39,-40.2,-34.09,-28.32,-21.73,-25.18,-17.44,-24.17,-32.72,-33.4,-27.12,-35.64,-33.95,0,0,0,0,0,0,0,0,0,0,0,0,0,0,0,0,
808,-32.92,-32.49,-91.94,-96.94,-35.73,-33.12,-33.24,-28.43,-23.64,-20.32,-23.73,-34.4,-42,-35.78,-39.46,-40.84,0,0,0,0,0,0,0,0,0,0,0,0,0,0,0,0,
809,-27.79,-36.06,-82.54,-89.61,-27.11,-28.57,-29.78,-24.72,-12.51,-11.07,-17.42,-30.3,-36.13,-26.3,-35.6,-36.92,0,0,0,0,0,0,0,0,0,0,0,0,0,0,0,0,
810,-27.97,-32.46,-92.18,-93.75,-35.24,-36.11,-35.21,-28.64,-17.8,-19.53,-19.71,-32.54,-36.27,-24.47,-33.88,-35.69,0,0,0,0,0,0,0,0,0,0,0,0,0,0,0,0,
811,-36.02,-36.47,-102.7,-102.6,-48.88,-45.42,-44.02,-41.77,-25.88,-31.37,-19.46,-29.52,-36.23,-27.67,-28.91,-31.4,0,0,0,0,0,0,0,0,0,0,0,0,0,0,0,0,
812,-28.86,-31.54,-90.25,-94.92,-44.16,-39.31,-36.35,-39.07,-18.06,-17.46,-8.646,-14.79,-17.67,-13,-17.49,-15.5,0,0,0,0,0,0,0,0,0,0,0,0,0,0,0,0,
813,-15.29,-12.77,-82.03,-87.51,-33.57,-30.31,-22.89,-27.21,-11.11,-2.745,0.3518,-5.347,0.7356,3.911,-7.847,-0.1064,0,0,0,0,0,0,0,0,0,0,0,0,0,0,0,0,
814,-10.9,-2.96,-81.89,-88.31,-27.27,-25.34,-15.27,-21.36,-3.096,2.124,13.66,2.005,10.81,15.24,7.71,15.35,0,0,0,0,0,0,0,0,0,0,0,0,0,0,0,0,
815,-4.871,-1.153,-75.21,-85.23,-22.67,-21.46,-14.13,-20.16,8.594,9.059,24.03,8.079,14.43,23.15,16.69,21.82,0,0,0,0,0,0,0,0,0,0,0,0,0,0,0,0,
816,-8.031,-3.927,-86.28,-93.91,-35.31,-32.85,-27.14,-31.66,-7.373,2.163,6.785,-4.895,-1.399,10.35,-2.015,3.046,0,0,0,0,0,0,0,0,0,0,0,0,0,0,0,0,
817,-27.5,-16.4,-106,-109.6,-55.09,-49.82,-39.92,-45.1,-32.97,-12.13,-13.58,-21.76,-19.89,-9.288,-19.06,-15.27,0,0,0,0,0,0,0,0,0,0,0,0,0,0,0,0,
818,-34.48,-21.38,-98.43,-102.1,-52.61,-47.65,-36.06,-40.91,-26.72,-10.08,-12.06,-22.84,-20.6,-9.669,-16.12,-16.74,0,0,0,0,0,0,0,0,0,0,0,0,0,0,0,0,
819,-31.84,-18.65,-87.91,-91.84,-45.27,-43.67,-35.41,-38.14,-19.95,-9.879,-13.54,-24.42,-22.74,-9.007,-19.41,-23.32,0,0,0,0,0,0,0,0,0,0,0,0,0,0,0,0,
820,-38.8,-27.03,-92.22,-99.15,-49.01,-49.31,-43.34,-46.17,-29.57,-21.23,-20.13,-30.23,-32.07,-19.34,-28.17,-32.47,0,0,0,0,0,0,0,0,0,0,0,0,0,0,0,0,
821,-37.71,-34.17,-85.72,-96.8,-41.95,-43.66,-41.24,-46.72,-19.18,-23.21,-12.54,-27.07,-31.64,-20.86,-24.42,-27.45,0,0,0,0,0,0,0,0,0,0,0,0,0,0,0,0,
822,-25.74,-28.32,-75.09,-84.52,-28.66,-32.95,-34.57,-43.1,-2.308,-17.52,-3.196,-19.37,-24.02,-11.14,-15.43,-17.25,0,0,0,0,0,0,0,0,0,0,0,0,0,0,0,0,
823,-25.54,-25.15,-78.9,-85.78,-32.81,-37.05,-36.73,-43.47,-11.32,-14.16,-4.087,-17.45,-21.4,-6.056,-13.5,-14.78,0,0,0,0,0,0,0,0,0,0,0,0,0,0,0,0,
824,-36.5,-31.4,-87.51,-93.66,-44.8,-46.64,-43.29,-41.92,-25.5,-12.64,-10.07,-22.3,-25.61,-9.343,-19.42,-18.07,0,0,0,0,0,0,0,0,0,0,0,0,0,0,0,0,
825,-41.94,-36.82,-89.33,-93.34,-44.77,-46.38,-43.64,-38.97,-25,-16.87,-18.07,-25.96,-31.13,-16.32,-23.24,-19.4,0,0,0,0,0,0,0,0,0,0,0,0,0,0,0,0,
826,-36.93,-34.7,-82.42,-87.41,-38.14,-40.4,-36.14,-37.17,-20.79,-17.56,-20.83,-23.74,-32.17,-22.24,-18.8,-17.59,0,0,0,0,0,0,0,0,0,0,0,0,0,0,0,0,
827,-31.49,-28.23,-77.12,-85.18,-38.12,-39.43,-30.87,-34.88,-19.21,-6.628,-12.72,-18.22,-23.71,-16.25,-10.21,-11.29,0,0,0,0,0,0,0,0,0,0,0,0,0,0,0,0,
828,-29.9,-19.18,-79.83,-86.24,-40.24,-40.42,-29.21,-30.58,-17.29,-1.884,-2.515,-7.911,-8.501,0.1552,-0.3069,-0.0774,0,0,0,0,0,0,0,0,0,0,0,0,0,0,0,0,
829,-24.78,-8.299,-81.06,-84.92,-38.6,-38.3,-25.87,-27.12,-15.68,-7.602,-1.037,-1.177,-7.188,1.595,0.4491,-0.3877,0,0,0,0,0,0,0,0,0,0,0,0,0,0,0,0,
830,-20.21,-6.425,-81.78,-86.26,-38.37,-38.62,-27.1,-31.68,-14.18,-10.76,-7.707,-9.647,-25.4,-14.74,-13.78,-16.45,0,0,0,0,0,0,0,0,0,0,0,0,0,0,0,0,
831,-22.54,-14.31,-84.83,-89.87,-38.43,-39.29,-31.55,-38.4,-14.52,-12.08,-15.66,-20.71,-36.47,-21.32,-24.37,-25.75,0,0,0,0,0,0,0,0,0,0,0,0,0,0,0,0,
832,-25.85,-17.59,-81.42,-85.44,-35.56,-35.62,-29.87,-34.44,-19,-9.032,-17.82,-22.01,-32.3,-16.49,-21.26,-23.22,0,0,0,0,0,0,0,0,0,0,0,0,0,0,0,0,
833,-26.7,-17.98,-75.56,-78.3,-32.77,-34.21,-27.89,-26.35,-16.65,-3.463,-12.02,-21.08,-32.08,-18.01,-18.68,-23.28,0,0,0,0,0,0,0,0,0,0,0,0,0,0,0,0,
834,-26.91,-24.74,-75.38,-77.41,-32.5,-37.7,-30.52,-25.01,-10.59,-9.67,-10.99,-27.98,-41.87,-25.08,-28.25,-31.51,0,0,0,0,0,0,0,0,0,0,0,0,0,0,0,0,
835,-31.36,-32.42,-77.04,-77.45,-36.84,-41.33,-30.61,-25.25,-21.24,-13.84,-20.08,-40.69,-51.37,-29.3,-40.49,-40.07,0,0,0,0,0,0,0,0,0,0,0,0,0,0,0,0,
836,-38.08,-35.44,-77.57,-75.79,-39.89,-40.19,-27.47,-24.82,-30.16,-5.369,-22.85,-41.97,-49.06,-27.42,-36.29,-35.36,0,0,0,0,0,0,0,0,0,0,0,0,0,0,0,0,
837,-35.05,-35.13,-75.99,-75.56,-35.57,-34.24,-27.49,-29.18,-18.52,-9.743,-21.02,-31.02,-39.69,-24.02,-24.15,-25.08,0,0,0,0,0,0,0,0,0,0,0,0,0,0,0,0,
838,-27.72,-32.38,-72.77,-74.96,-32.72,-32.1,-30.22,-32.42,-16.22,-22.16,-27.48,-29.24,-39.99,-26.21,-27.19,-28.52,0,0,0,0,0,0,0,0,0,0,0,0,0,0,0,0,
839,-28.73,-29.59,-72.33,-73.89,-34.99,-36.05,-30.31,-28.94,-26.58,-18.1,-32.12,-34.17,-44.25,-28.15,-35.34,-35.15,0,0,0,0,0,0,0,0,0,0,0,0,0,0,0,0,
840,-31.04,-28.48,-73.54,-74.41,-35.57,-37.29,-27.69,-26.39,-23.92,-12.57,-30.17,-29.84,-36.82,-22.87,-29.85,-29.11,0,0,0,0,0,0,0,0,0,0,0,0,0,0,0,0,
841,-26.95,-24.01,-69.56,-71,-31.53,-29.97,-24.53,-26.01,-15.21,-13.46,-23.79,-19.2,-24.78,-14.93,-17.67,-18.81,0,0,0,0,0,0,0,0,0,0,0,0,0,0,0,0,
842,-16.77,-13.02,-61.24,-63.66,-23.32,-17.93,-20.98,-23.94,-6.933,-7.56,-8.386,-9.173,-20.14,-11.27,-10.07,-13.64,0,0,0,0,0,0,0,0,0,0,0,0,0,0,0,0,
843,-6.584,-5.478,-56.8,-63.34,-19.46,-13.78,-20.54,-24.17,1.249,-2.146,0.3799,-6.263,-23.32,-15.79,-9.409,-14.55,0,0,0,0,0,0,0,0,0,0,0,0,0,0,0,0,
844,-8.998,-9.355,-56.47,-66.95,-23.7,-20.35,-25.16,-27.24,-1.916,-2.917,-7.881,-12.87,-28.82,-20.15,-12.63,-17.2,0,0,0,0,0,0,0,0,0,0,0,0,0,0,0,0,
845,-18.56,-15.88,-56.67,-66.06,-25.56,-24.86,-30.27,-30.86,-6.607,-6.183,-13.29,-18.56,-30.77,-14.37,-13.86,-16.46,0,0,0,0,0,0,0,0,0,0,0,0,0,0,0,0,
846,-20.52,-17.95,-59.75,-66.75,-25.91,-24.49,-31.9,-31.75,-3.643,-11.8,-10.21,-20.09,-32.09,-9.168,-14.45,-18.83,0,0,0,0,0,0,0,0,0,0,0,0,0,0,0,0,
847,-21.28,-19.62,-61.66,-67.53,-30.77,-25.94,-30.87,-26.33,-6.951,-10.11,-12.47,-25.41,-36.35,-12.14,-20.46,-26.57,0,0,0,0,0,0,0,0,0,0,0,0,0,0,0,0,
848,-29.57,-23.32,-60.97,-64.97,-35.92,-31.69,-33.7,-27.29,-16.35,-5.517,-22.39,-34.45,-37.79,-14.36,-27.75,-28.08,0,0,0,0,0,0,0,0,0,0,0,0,0,0,0,0,
849,-38.12,-28.29,-67.49,-70.13,-41.74,-40.63,-41.59,-39.07,-19.96,-12.23,-28.16,-36.88,-34.52,-14.73,-26.85,-23.07,0,0,0,0,0,0,0,0,0,0,0,0,0,0,0,0,
850,-37.03,-29.18,-72.65,-75.18,-44.29,-42.15,-41.25,-39.79,-15.02,-14.71,-17.37,-26.5,-28.75,-12.38,-19.27,-19.12,0,0,0,0,0,0,0,0,0,0,0,0,0,0,0,0,
851,-26.21,-19.95,-62.49,-63.33,-36.67,-31.57,-29.76,-28.97,-7.636,-7.201,-1.221,-13.82,-20.52,-2.744,-11.93,-13.44,0,0,0,0,0,0,0,0,0,0,0,0,0,0,0,0,
852,-15.62,-9.785,-50.44,-49.95,-28.48,-22.22,-22.03,-25.42,-5.953,-8.663,0.1027,-9.254,-13.67,2.975,-6.332,-6.424,0,0,0,0,0,0,0,0,0,0,0,0,0,0,0,0,
853,-9.88,-9.9,-48.89,-50.61,-25.63,-19.53,-22.4,-26.45,-4.091,-13.15,-3.297,-6.728,-10.62,-3.396,-4.58,-3.927,0,0,0,0,0,0,0,0,0,0,0,0,0,0,0,0,
854,-8.024,-15.86,-53.67,-56.78,-25.11,-21.89,-27.8,-28.9,0.8214,-11.68,-0.4706,-5.165,-11.16,-10.42,-7.092,-4.938,0,0,0,0,0,0,0,0,0,0,0,0,0,0,0,0,
855,-12.72,-21.08,-60,-63.08,-28.1,-28.83,-36.82,-35.43,-0.3252,-10.65,-2.166,-7.881,-13.75,-7.981,-5.55,-3.947,0,0,0,0,0,0,0,0,0,0,0,0,0,0,0,0,
