%OpenBCI Raw EXG Data
%Number of channels = 16
%Sample Rate = 125 Hz
%Board = OpenBCI_GUI$BoardCytonSerialDaisy
Sample Index,EXG Channel 0,EXG Channel 1,EXG Channel 2,EXG Channel 3,EXG Channel 4,EXG Channel 5,EXG Channel 6,EXG Channel 7,EXG Channel 8,EXG Channel 9,EXG Channel 10,EXG Channel 11,EXG Channel 12,EXG Channel 13,EXG Channel 14,EXG Channel 15,Accel Channel 0,Accel Channel 1,Accel Channel 2,Other,Other.1,Other.2,Other.3,Other.4,Other.5,Other.6,Analog Channel 0,Analog Channel 1,Analog Channel 2,Timestamp,Other.7,Timestamp (Formatted),Annotations
1,0.0,-0.0,-0.0,0.0,-0.0,0.0,-0.0,0.0,-0.0,-0.0,0.0,0.0,0.0,-0.0,-0.0,0.0,0,0,0,0,0,0,0,0,0,0,0,0,0,0,0,0,T0
2,29.47,17.64,19.94,5.452,4.44,9.494,5.65,4.991,2.389,6.12,7.393,1.64,8.014,9.691,-0.6879,0.2504,0,0,0,0,0,0,0,0,0,0,0,0,0,0,0,0,
3,35.11,30.74,40.95,15.62,5.934,13.68,18.61,8.568,7.636,16.3,9.018,-1.494,10.13,12.98,-4.049,-2.337,0,0,0,0,0,0,0,0,0,0,0,0,0,0,0,0,
4,27.92,26.08,47.53,20.5,-2.527,7.125,15.16,7.656,2.91,14.92,7.088,-8.681,2.728,5.674,-11.4,-9.849,0,0,0,0,0,0,0,0,0,0,0,0,0,0,0,0,
5,26.03,7.664,27.26,6.973,-9.717,-3.485,4.305,3.335,-8.904,2.12,9.313,-15.58,-4.398,-4.995,-13.78,-13.63,0,0,0,0,0,0,0,0,0,0,0,0,0,0,0,0,
6,24.53,4.416,3.144,-6.881,-4.311,-6.527,8.277,-3.368,-10.46,-2.059,4.9,-17.9,-7.655,-10.52,-17.54,-12.8,0,0,0,0,0,0,0,0,0,0,0,0,0,0,0,0,
7,12.45,11.56,5.365,-6.824,-8.385,-10.74,5.901,-10.79,-10.26,-2.127,-12.72,-21.17,-16.31,-14.49,-25.59,-15.66,0,0,0,0,0,0,0,0,0,0,0,0,0,0,0,0,
8,6.009,3.373,27.45,-7.573,-28.63,-23.03,-6.29,-9.938,-19.82,-11.8,-17.47,-24.58,-21.93,-17.11,-21.72,-16.07,0,0,0,0,0,0,0,0,0,0,0,0,0,0,0,0,
9,18.19,-1.261,39.31,-8.71,-35.78,-28.85,-2.266,-1.129,-21.86,-18.11,-9.907,-19.83,-19.54,-18.62,-23.07,-16.63,0,0,0,0,0,0,0,0,0,0,0,0,0,0,0,0,
10,15.11,4.297,18.14,-8.998,-33.89,-30.49,0.2622,-1.679,-17.57,-18.56,-20.64,-21.78,-24.65,-26.68,-39.13,-25.08,0,0,0,0,0,0,0,0,0,0,0,0,0,0,0,0,
11,-8.46,-6.698,-14.22,-18.69,-42.57,-38.77,-16.12,-13.75,-26.39,-27.95,-29.26,-33.58,-26.88,-30.42,-32.51,-21.37,0,0,0,0,0,0,0,0,0,0,0,0,0,0,0,0,
12,-9.407,-19.43,-9.815,-25.92,-46.47,-42.43,-17.09,-18.17,-32.67,-36.73,-9.789,-33.43,-16.01,-23.34,-14.18,-9.317,0,0,0,0,0,0,0,0,0,0,0,0,0,0,0,0,
13,-3.099,-16.97,10.28,-24.59,-43.39,-38.03,0.392,-14.51,-26.21,-35.96,3.225,-29.86,-15.55,-23.09,-18.95,-17.24,0,0,0,0,0,0,0,0,0,0,0,0,0,0,0,0,
14,-9.798,-12.72,0.4056,-23.0,-45.66,-32.98,-3.578,-19.16,-26.11,-32.97,-10.12,-32.21,-24.4,-26.32,-26.03,-27.63,0,0,0,0,0,0,0,0,0,0,0,0,0,0,0,0,
15,2.597,-3.907,-8.596,-18.56,-44.05,-29.2,-17.95,-26.47,-29.25,-27.17,-31.05,-27.7,-29.96,-27.72,-34.56,-27.36,0,0,0,0,0,0,0,0,0,0,0,0,0,0,0,0,
16,8.627,0.5287,-1.405,-16.61,-37.68,-30.92,-11.26,-21.38,-28.91,-28.47,-47.99,-26.36,-40.32,-38.13,-54.43,-33.72,0,0,0,0,0,0,0,0,0,0,0,0,0,0,0,0,
17,-8.075,-7.475,-4.891,-15.41,-29.33,-27.01,-9.054,-9.088,-29.63,-36.04,-46.64,-28.51,-40.39,-37.13,-50.53,-32.84,0,0,0,0,0,0,0,0,0,0,0,0,0,0,0,0,
18,6.99,-4.257,3.91,-5.119,-15.41,-10.85,-24.35,-3.103,-21.59,-21.6,-28.73,-20.81,-26.0,-19.38,-30.08,-21.37,0,0,0,0,0,0,0,0,0,0,0,0,0,0,0,0,
19,22.49,-0.0316,24.85,-6.392,-14.78,-9.137,-19.07,-8.504,-15.22,-4.072,-19.49,-24.42,-26.2,-21.63,-27.46,-23.25,0,0,0,0,0,0,0,0,0,0,0,0,0,0,0,0,
20,-2.069,-8.862,19.67,-21.37,-32.27,-25.01,5.111,-15.21,-27.57,-19.02,-13.94,-38.11,-31.56,-33.09,-23.59,-23.67,0,0,0,0,0,0,0,0,0,0,0,0,0,0,0,0,
21,1.325,-1.431,13.94,-16.91,-38.0,-28.09,18.33,-9.48,-35.54,-31.61,-1.914,-30.07,-21.16,-19.01,-12.03,-9.275,0,0,0,0,0,0,0,0,0,0,0,0,0,0,0,0,
22,28.97,14.85,19.22,-0.2736,-25.77,-16.74,21.85,-3.753,-28.84,-16.23,-5.294,-17.54,-17.29,-4.513,-15.43,-5.984,0,0,0,0,0,0,0,0,0,0,0,0,0,0,0,0,
23,19.93,13.81,-1.412,2.892,-16.63,-10.02,9.418,-12.67,-29.51,-7.833,-24.4,-23.2,-30.9,-16.11,-27.01,-17.34,0,0,0,0,0,0,0,0,0,0,0,0,0,0,0,0,
24,11.9,12.14,-18.92,2.861,-14.8,-8.918,-7.493,-15.5,-35.55,-12.6,-27.58,-24.62,-37.11,-26.41,-30.98,-20.44,0,0,0,0,0,0,0,0,0,0,0,0,0,0,0,0,
25,23.16,9.814,8.282,3.438,-15.0,-9.019,1.153,-4.288,-29.72,-8.797,-13.07,-17.63,-27.08,-18.36,-26.83,-14.93,0,0,0,0,0,0,0,0,0,0,0,0,0,0,0,0,
26,9.389,-7.727,38.02,-8.033,-23.79,-18.64,3.205,-4.143,-21.37,-9.694,-8.608,-18.13,-20.25,-13.7,-20.85,-12.13,0,0,0,0,0,0,0,0,0,0,0,0,0,0,0,0,
27,-7.163,-14.59,24.27,-16.62,-37.1,-32.29,-8.62,-9.231,-25.69,-20.92,-8.203,-13.7,-18.55,-13.75,-12.77,-5.178,0,0,0,0,0,0,0,0,0,0,0,0,0,0,0,0,
28,5.169,1.29,-8.774,-6.269,-35.3,-27.36,10.64,3.211,-29.25,-16.64,11.58,3.006,-5.849,-0.702,8.258,12.52,0,0,0,0,0,0,0,0,0,0,0,0,0,0,0,0,
29,8.85,8.292,-11.67,0.1377,-24.44,-18.92,30.76,14.69,-19.39,-3.229,30.78,13.35,8.411,13.3,32.7,29.97,0,0,0,0,0,0,0,0,0,0,0,0,0,0,0,0,
30,-2.193,-0.3862,18.3,-11.5,-24.81,-32.64,26.7,5.849,-9.55,-5.183,31.82,11.26,9.91,14.31,34.96,35.41,0,0,0,0,0,0,0,0,0,0,0,0,0,0,0,0,
31,8.825,-5.419,37.96,-18.28,-32.29,-42.85,24.96,-4.827,-9.232,-12.0,29.83,3.762,4.114,8.809,16.97,25.45,0,0,0,0,0,0,0,0,0,0,0,0,0,0,0,0,
32,18.78,-11.27,27.01,-14.19,-39.28,-36.01,8.212,-2.843,-19.67,-16.92,15.91,-5.605,-7.821,-2.204,-0.7049,7.82,0,0,0,0,0,0,0,0,0,0,0,0,0,0,0,0,
33,-0.7788,-19.52,2.082,-16.24,-45.38,-37.91,-12.0,-3.508,-37.35,-27.03,-17.05,-14.06,-22.92,-14.91,-14.85,-9.508,0,0,0,0,0,0,0,0,0,0,0,0,0,0,0,0,
34,-12.86,-18.19,-23.33,-24.38,-50.67,-47.3,-12.57,-19.77,-45.65,-32.35,-41.71,-26.21,-35.56,-24.96,-33.74,-30.34,0,0,0,0,0,0,0,0,0,0,0,0,0,0,0,0,
35,-10.79,-16.69,-32.39,-31.79,-60.65,-50.62,-27.21,-33.12,-46.7,-35.31,-49.29,-37.16,-45.73,-32.67,-46.56,-41.42,0,0,0,0,0,0,0,0,0,0,0,0,0,0,0,0,
36,-20.51,-19.1,-12.97,-34.48,-62.45,-48.03,-31.37,-28.11,-50.68,-40.87,-48.83,-29.26,-43.0,-25.66,-40.38,-29.42,0,0,0,0,0,0,0,0,0,0,0,0,0,0,0,0,
37,-19.04,-12.91,3.795,-27.2,-42.55,-34.82,-9.959,-24.06,-43.49,-31.03,-42.01,-17.52,-31.53,-10.96,-34.62,-22.05,0,0,0,0,0,0,0,0,0,0,0,0,0,0,0,0,
38,-3.066,-8.607,-7.557,-21.36,-28.05,-22.32,-24.33,-28.63,-31.67,-16.09,-40.14,-25.26,-33.6,-14.78,-44.75,-32.35,0,0,0,0,0,0,0,0,0,0,0,0,0,0,0,0,
39,-6.906,-19.09,-21.35,-27.62,-36.97,-29.03,-45.98,-25.32,-38.84,-21.79,-45.9,-29.84,-40.74,-26.31,-51.28,-34.23,0,0,0,0,0,0,0,0,0,0,0,0,0,0,0,0,
40,-12.84,-27.91,-21.87,-30.18,-46.32,-41.25,-22.42,-20.19,-48.83,-33.69,-40.7,-15.5,-33.73,-25.25,-38.04,-20.82,0,0,0,0,0,0,0,0,0,0,0,0,0,0,0,0,
41,0.2429,-20.4,-20.76,-22.7,-46.45,-42.37,-1.965,-24.24,-44.89,-37.64,-28.86,-10.22,-27.12,-25.64,-22.34,-11.05,0,0,0,0,0,0,0,0,0,0,0,0,0,0,0,0,
42,2.171,-11.21,-18.28,-22.15,-49.67,-40.86,-13.93,-26.44,-48.19,-43.33,-34.83,-22.81,-39.79,-36.81,-31.02,-20.92,0,0,0,0,0,0,0,0,0,0,0,0,0,0,0,0,
43,-12.91,-15.37,-17.6,-28.68,-52.1,-40.62,-30.55,-25.79,-62.18,-46.61,-45.11,-30.26,-54.4,-43.35,-49.37,-40.66,0,0,0,0,0,0,0,0,0,0,0,0,0,0,0,0,
44,-21.21,-20.42,-23.17,-30.58,-46.98,-35.23,-25.26,-31.96,-61.91,-41.1,-34.08,-28.16,-46.44,-38.99,-43.4,-43.34,0,0,0,0,0,0,0,0,0,0,0,0,0,0,0,0,
45,-19.87,-16.0,-21.78,-27.66,-43.61,-28.75,-0.177,-35.36,-50.09,-34.79,-18.06,-24.32,-27.11,-31.15,-25.19,-30.11,0,0,0,0,0,0,0,0,0,0,0,0,0,0,0,0,
46,-7.083,-8.94,-13.6,-18.31,-38.61,-25.03,9.204,-25.03,-39.83,-26.62,-8.197,-16.26,-12.81,-19.82,-13.14,-16.83,0,0,0,0,0,0,0,0,0,0,0,0,0,0,0,0,
47,9.749,-2.361,-12.8,-9.928,-25.87,-22.59,-1.578,-15.19,-21.85,-16.44,3.396,-8.787,-3.471,-9.227,-1.174,-6.414,0,0,0,0,0,0,0,0,0,0,0,0,0,0,0,0,
48,1.83,-1.774,-16.09,-15.71,-26.68,-26.64,-10.35,-15.79,-11.67,-18.18,0.33,-6.458,-6.668,-9.161,0.8398,-2.035,0,0,0,0,0,0,0,0,0,0,0,0,0,0,0,0,
49,-17.47,-8.64,-16.47,-19.6,-43.7,-34.16,-15.02,-14.11,-31.52,-27.6,-16.29,-1.91,-15.33,-9.127,-4.502,3.18,0,0,0,0,0,0,0,0,0,0,0,0,0,0,0,0,
50,-12.86,-9.48,-16.63,-11.54,-51.48,-34.77,-5.505,-11.19,-47.64,-27.88,-16.51,-0.2332,-10.31,-2.077,-0.2406,12.54,0,0,0,0,0,0,0,0,0,0,0,0,0,0,0,0,
51,-5.594,-4.442,-14.83,-11.59,-50.82,-32.71,10.22,-15.12,-36.61,-24.92,-2.638,-5.602,-3.998,-2.752,1.098,10.84,0,0,0,0,0,0,0,0,0,0,0,0,0,0,0,0,
52,-13.36,-2.672,-3.978,-15.15,-49.13,-31.08,6.205,-12.79,-28.97,-27.08,4.027,-5.58,-7.535,-8.998,-0.7951,2.826,0,0,0,0,0,0,0,0,0,0,0,0,0,0,0,0,
53,-5.077,-0.598,14.45,-6.54,-42.66,-27.33,-0.7507,-7.313,-34.4,-27.27,-1.478,-6.093,-9.646,-9.28,2.663,-2.389,0,0,0,0,0,0,0,0,0,0,0,0,0,0,0,0,
54,12.96,0.5501,17.35,-4.5,-42.2,-31.78,-0.4149,-18.09,-37.32,-25.56,-13.91,-19.04,-14.02,-12.69,-12.67,-15.68,0,0,0,0,0,0,0,0,0,0,0,0,0,0,0,0,
55,4.715,-5.386,-7.976,-16.73,-44.57,-41.99,-5.167,-30.49,-38.34,-27.73,-22.14,-27.99,-23.35,-21.33,-39.55,-27.85,0,0,0,0,0,0,0,0,0,0,0,0,0,0,0,0,
56,-12.08,-11.87,-21.61,-18.01,-35.61,-37.11,-1.262,-24.63,-34.7,-29.66,-20.74,-23.11,-23.84,-22.71,-38.87,-23.26,0,0,0,0,0,0,0,0,0,0,0,0,0,0,0,0,
57,-9.173,-10.01,-1.227,-6.334,-31.29,-24.81,4.22,-14.35,-27.5,-28.25,-19.54,-18.95,-21.09,-20.52,-27.0,-16.32,0,0,0,0,0,0,0,0,0,0,0,0,0,0,0,0,
58,1.516,-3.051,7.97,-4.386,-36.69,-23.77,-8.638,-10.74,-33.5,-28.22,-28.32,-19.24,-28.95,-24.15,-34.97,-19.69,0,0,0,0,0,0,0,0,0,0,0,0,0,0,0,0,
59,12.21,1.118,-2.241,-9.492,-30.2,-20.57,-15.92,-8.811,-42.17,-26.5,-36.76,-18.28,-33.65,-25.41,-41.93,-24.74,0,0,0,0,0,0,0,0,0,0,0,0,0,0,0,0,
60,19.56,-1.332,-0.9379,-10.49,-21.23,-14.15,-9.492,-13.87,-34.32,-19.5,-31.81,-21.86,-24.48,-19.02,-33.44,-23.76,0,0,0,0,0,0,0,0,0,0,0,0,0,0,0,0,
61,7.062,-10.73,-12.4,-15.64,-26.79,-23.25,-8.493,-24.36,-27.08,-19.55,-26.27,-27.62,-16.82,-12.46,-28.63,-18.78,0,0,0,0,0,0,0,0,0,0,0,0,0,0,0,0,
62,-11.19,-16.28,-33.1,-20.02,-24.9,-27.16,-5.642,-19.84,-25.05,-22.27,-26.95,-21.11,-12.54,-4.715,-25.82,-12.58,0,0,0,0,0,0,0,0,0,0,0,0,0,0,0,0,
63,-4.536,-6.772,-10.07,-13.73,-7.744,-9.498,1.546,-4.614,-11.61,-7.585,-18.51,-10.17,0.1092,6.588,-11.08,-5.417,0,0,0,0,0,0,0,0,0,0,0,0,0,0,0,0,
64,16.32,6.766,23.23,-7.492,1.324,1.929,9.574,-5.051,2.095,9.221,-4.245,-9.175,13.5,14.99,2.348,-0.3597,0,0,0,0,0,0,0,0,0,0,0,0,0,0,0,0,
65,23.47,13.47,15.37,-1.446,3.021,3.089,22.79,-16.92,9.496,8.787,-0.4946,-8.321,15.83,17.51,0.2441,0.3938,0,0,0,0,0,0,0,0,0,0,0,0,0,0,0,0,
66,16.57,16.85,2.311,6.079,5.309,5.924,18.29,-19.18,14.19,4.309,-5.738,-6.317,9.378,13.29,-6.184,0.2568,0,0,0,0,0,0,0,0,0,0,0,0,0,0,0,0,
67,16.35,16.86,4.017,2.624,-0.1234,0.997,3.731,-13.34,4.675,1.425,-5.237,-13.03,6.36,8.809,-3.181,0.098,0,0,0,0,0,0,0,0,0,0,0,0,0,0,0,0,
68,31.63,21.51,6.764,-0.7676,-2.647,-1.58,18.53,-9.943,-1.083,0.5898,4.952,-17.35,14.13,13.53,3.583,-1.442,0,0,0,0,0,0,0,0,0,0,0,0,0,0,0,0,
69,42.81,35.84,21.55,7.467,3.801,6.204,21.99,-10.66,10.3,5.942,2.905,-16.36,14.37,11.27,-1.169,-6.037,0,0,0,0,0,0,0,0,0,0,0,0,0,0,0,0,
70,33.45,31.84,26.73,4.163,-7.307,-2.339,-18.45,-16.64,1.376,-3.466,-21.31,-22.94,-8.713,-13.42,-20.12,-17.77,0,0,0,0,0,0,0,0,0,0,0,0,0,0,0,0,
71,12.26,-0.4441,-0.8372,-18.18,-36.36,-29.31,-35.23,-27.88,-28.84,-34.65,-38.56,-25.67,-32.4,-35.56,-36.83,-26.33,0,0,0,0,0,0,0,0,0,0,0,0,0,0,0,0,
72,-1.608,-18.01,-10.97,-27.55,-45.36,-41.42,-11.15,-31.02,-40.19,-52.18,-26.89,-14.84,-31.62,-30.92,-33.1,-17.31,0,0,0,0,0,0,0,0,0,0,0,0,0,0,0,0,
73,3.308,-4.986,7.354,-12.77,-30.13,-31.76,0.917,-23.02,-33.98,-44.81,-4.613,-11.27,-18.78,-18.01,-17.9,-7.703,0,0,0,0,0,0,0,0,0,0,0,0,0,0,0,0,
74,11.63,-0.0082,-3.168,-7.992,-24.75,-26.4,6.262,-24.65,-30.58,-41.05,-0.7125,-18.37,-14.75,-17.83,-13.77,-11.15,0,0,0,0,0,0,0,0,0,0,0,0,0,0,0,0,
75,10.12,-8.141,-19.97,-19.2,-30.69,-29.5,21.0,-29.73,-29.63,-42.55,-5.813,-16.82,-10.16,-15.21,-13.19,-8.187,0,0,0,0,0,0,0,0,0,0,0,0,0,0,0,0,
76,12.56,-4.444,1.338,-14.33,-27.26,-23.19,14.65,-18.78,-24.26,-30.22,3.521,-13.24,1.853,-3.961,-5.064,0.1669,0,0,0,0,0,0,0,0,0,0,0,0,0,0,0,0,
77,10.97,-3.41,8.765,-7.846,-29.9,-21.63,-7.953,-13.38,-19.68,-21.99,4.181,-19.82,-0.9697,-8.873,-3.963,-4.625,0,0,0,0,0,0,0,0,0,0,0,0,0,0,0,0,
78,-4.548,-11.38,-15.67,-21.86,-45.03,-36.31,-9.761,-22.29,-29.72,-36.16,-16.52,-24.71,-13.88,-23.86,-10.2,-13.31,0,0,0,0,0,0,0,0,0,0,0,0,0,0,0,0,
79,-6.545,-7.993,-21.91,-26.87,-40.98,-37.21,-9.101,-23.92,-42.61,-45.3,-23.96,-24.02,-9.923,-21.42,-16.48,-17.8,0,0,0,0,0,0,0,0,0,0,0,0,0,0,0,0,
80,7.117,-1.915,-16.24,-14.85,-21.42,-21.48,-25.89,-19.48,-34.63,-33.38,-16.35,-19.68,0.2996,-10.37,-20.61,-16.31,0,0,0,0,0,0,0,0,0,0,0,0,0,0,0,0,
81,19.6,7.231,-11.7,-1.217,-10.72,-9.867,-13.44,-9.175,-16.5,-16.63,-6.125,-2.204,10.72,2.232,-1.212,5.096,0,0,0,0,0,0,0,0,0,0,0,0,0,0,0,0,
82,39.16,30.02,15.77,12.96,2.785,5.644,31.23,4.265,-4.034,1.906,19.09,17.44,33.75,23.02,29.96,29.23,0,0,0,0,0,0,0,0,0,0,0,0,0,0,0,0,
83,55.76,40.53,45.8,14.02,13.84,16.9,42.9,-2.015,6.836,16.1,36.93,17.17,44.67,28.94,31.09,23.26,0,0,0,0,0,0,0,0,0,0,0,0,0,0,0,0,
84,49.46,36.41,39.47,5.883,2.916,7.462,21.64,-11.95,10.87,9.618,30.74,7.44,34.59,17.24,24.94,9.241,0,0,0,0,0,0,0,0,0,0,0,0,0,0,0,0,
85,28.7,34.4,11.21,8.372,-3.424,0.234,10.86,-0.1521,6.815,0.342,34.84,7.896,37.19,20.76,39.02,19.1,0,0,0,0,0,0,0,0,0,0,0,0,0,0,0,0,
86,16.33,22.75,5.072,12.89,3.809,3.482,15.08,10.84,5.512,5.38,44.59,10.93,39.97,25.16,33.56,26.24,0,0,0,0,0,0,0,0,0,0,0,0,0,0,0,0,
87,32.87,15.84,26.79,13.09,-5.096,-1.046,34.33,9.446,0.6104,1.589,31.96,9.659,20.73,9.938,7.707,13.85,0,0,0,0,0,0,0,0,0,0,0,0,0,0,0,0,
88,50.97,21.62,31.1,-0.4065,-15.7,-9.206,54.02,6.514,-5.409,-9.614,23.42,14.28,15.42,8.764,3.943,12.06,0,0,0,0,0,0,0,0,0,0,0,0,0,0,0,0,
89,26.15,5.054,8.791,-28.59,-16.38,-17.76,37.09,-2.885,-0.1427,-7.437,24.34,10.61,20.14,12.35,-0.5342,8.447,0,0,0,0,0,0,0,0,0,0,0,0,0,0,0,0,
90,-2.679,-14.41,0.6158,-23.91,-35.59,-30.46,-1.129,-13.08,-10.12,-18.41,2.936,-16.53,-4.562,-15.22,-24.98,-22.34,0,0,0,0,0,0,0,0,0,0,0,0,0,0,0,0,
91,5.446,2.341,-1.903,7.736,-49.03,-31.45,-11.98,-11.43,-38.72,-44.15,-15.06,-29.08,-20.91,-28.91,-24.91,-31.96,0,0,0,0,0,0,0,0,0,0,0,0,0,0,0,0,
92,8.085,17.04,-29.18,1.841,-32.95,-22.7,-4.548,-11.23,-38.94,-38.14,-7.804,-15.48,-5.727,-9.361,-7.97,-8.847,0,0,0,0,0,0,0,0,0,0,0,0,0,0,0,0,
93,-3.208,2.976,-47.46,-17.24,-30.43,-23.78,-18.57,-21.55,-25.72,-19.89,-13.91,-21.44,-7.907,-10.97,-15.93,-11.17,0,0,0,0,0,0,0,0,0,0,0,0,0,0,0,0,
94,7.98,-1.703,-31.46,-4.965,-35.51,-24.42,-33.99,-26.97,-35.48,-27.13,-26.2,-38.96,-19.35,-23.34,-21.76,-27.43,0,0,0,0,0,0,0,0,0,0,0,0,0,0,0,0,
95,21.06,10.75,-23.87,-0.0762,-19.32,-19.27,-12.32,-25.21,-34.39,-31.08,-12.23,-36.99,-10.11,-15.5,-11.27,-20.94,0,0,0,0,0,0,0,0,0,0,0,0,0,0,0,0,
96,9.982,5.82,-40.83,-16.68,-21.74,-26.38,11.35,-30.86,-22.51,-28.14,0.6356,-37.53,-8.56,-16.31,-12.99,-15.02,0,0,0,0,0,0,0,0,0,0,0,0,0,0,0,0,
97,-3.877,-13.07,-44.38,-23.97,-45.57,-37.76,-0.729,-38.85,-36.26,-41.7,1.462,-40.28,-13.49,-24.36,-16.18,-16.81,0,0,0,0,0,0,0,0,0,0,0,0,0,0,0,0,
98,-3.629,-14.05,-26.94,-22.39,-49.12,-38.85,-10.89,-33.07,-46.38,-49.73,10.08,-22.73,-2.688,-16.21,-7.806,-8.854,0,0,0,0,0,0,0,0,0,0,0,0,0,0,0,0,
99,6.043,-2.506,-9.617,-15.46,-45.33,-38.81,0.7348,-17.02,-35.96,-40.58,11.01,-4.415,5.253,-4.975,1.651,6.785,0,0,0,0,0,0,0,0,0,0,0,0,0,0,0,0,
100,11.25,-0.5618,-9.727,-3.363,-47.44,-37.72,-1.329,-4.941,-36.48,-31.56,-3.848,-3.733,1.98,0.4587,7.277,15.39,0,0,0,0,0,0,0,0,0,0,0,0,0,0,0,0,
101,7.995,0.9,-35.7,-0.1326,-40.64,-30.21,-11.27,-0.4481,-41.74,-25.73,-13.98,-9.688,-1.708,1.699,0.988,6.343,0,0,0,0,0,0,0,0,0,0,0,0,0,0,0,0,
102,10.68,13.26,-41.3,2.921,-33.45,-24.82,5.477,2.118,-33.28,-23.39,-9.421,-7.986,0.943,2.912,-0.1313,2.935,0,0,0,0,0,0,0,0,0,0,0,0,0,0,0,0,
103,15.32,21.8,2.28,12.97,-34.56,-25.61,20.7,2.152,-23.16,-24.22,2.796,0.2739,9.673,9.877,14.97,16.26,0,0,0,0,0,0,0,0,0,0,0,0,0,0,0,0,
104,12.64,16.02,18.62,12.61,-37.84,-28.89,5.201,-5.504,-24.25,-26.12,1.031,-1.898,4.417,8.432,11.47,13.13,0,0,0,0,0,0,0,0,0,0,0,0,0,0,0,0,
105,17.94,9.344,-18.38,5.421,-43.55,-30.86,-0.0058,-13.63,-36.39,-33.0,-13.02,-10.97,-10.87,-1.379,0.3171,3.516,0,0,0,0,0,0,0,0,0,0,0,0,0,0,0,0,
106,25.93,14.58,-32.77,0.8673,-49.13,-28.92,12.36,-12.49,-42.86,-36.73,-6.47,-12.53,-7.167,-0.7876,10.06,9.425,0,0,0,0,0,0,0,0,0,0,0,0,0,0,0,0,
107,15.56,18.17,-23.17,-9.588,-50.76,-30.64,0.6547,-11.6,-37.15,-32.46,5.38,-19.93,-3.105,-2.296,1.57,-2.147,0,0,0,0,0,0,0,0,0,0,0,0,0,0,0,0,
108,-2.449,4.597,-40.0,-20.28,-54.28,-42.67,-19.4,-22.85,-43.77,-36.4,-18.11,-33.49,-19.75,-15.03,-25.52,-23.51,0,0,0,0,0,0,0,0,0,0,0,0,0,0,0,0,
109,-10.42,-8.453,-61.27,-19.09,-58.05,-48.99,-32.12,-31.81,-58.66,-47.17,-45.89,-30.9,-22.96,-14.43,-18.6,-12.56,0,0,0,0,0,0,0,0,0,0,0,0,0,0,0,0,
110,-10.16,-7.838,-55.86,-10.56,-55.08,-40.78,-56.97,-24.79,-50.49,-44.38,-37.0,-21.8,-5.21,-0.5323,4.847,5.907,0,0,0,0,0,0,0,0,0,0,0,0,0,0,0,0,
111,-15.45,-14.56,-43.35,-9.637,-58.5,-43.39,-59.7,-21.63,-38.68,-37.99,-24.09,-26.55,-4.263,-1.362,2.068,-0.3771,0,0,0,0,0,0,0,0,0,0,0,0,0,0,0,0,
112,-28.74,-27.17,-38.17,-20.72,-69.95,-59.45,-22.61,-30.82,-47.48,-48.6,-28.13,-31.81,-12.43,-10.63,-6.813,-6.669,0,0,0,0,0,0,0,0,0,0,0,0,0,0,0,0,
113,-27.07,-20.84,-30.43,-23.74,-62.01,-57.98,-1.528,-33.21,-44.58,-57.63,-15.13,-23.13,2.004,-2.972,3.012,4.44,0,0,0,0,0,0,0,0,0,0,0,0,0,0,0,0,
114,-10.76,-10.59,-25.19,-14.86,-42.7,-45.04,-5.349,-30.96,-23.06,-46.85,12.1,-12.44,20.65,12.02,12.76,12.19,0,0,0,0,0,0,0,0,0,0,0,0,0,0,0,0,
115,-4.897,-14.08,-24.57,-13.73,-39.87,-39.02,2.899,-26.89,-12.72,-31.93,21.44,-7.894,23.97,17.71,11.88,9.927,0,0,0,0,0,0,0,0,0,0,0,0,0,0,0,0,
116,-5.117,-13.37,-12.72,-17.69,-41.84,-35.22,11.81,-12.76,-6.309,-22.79,21.73,-4.211,24.68,18.74,14.96,13.4,0,0,0,0,0,0,0,0,0,0,0,0,0,0,0,0,
117,-4.955,-11.97,-7.782,-20.83,-42.79,-44.1,0.3872,-9.254,-1.499,-21.79,23.21,-3.273,23.32,16.92,22.72,20.08,0,0,0,0,0,0,0,0,0,0,0,0,0,0,0,0,
118,-6.93,-22.06,-20.73,-20.54,-45.62,-54.18,-7.536,-16.34,-11.2,-27.4,18.32,-3.707,23.09,19.54,31.04,23.56,0,0,0,0,0,0,0,0,0,0,0,0,0,0,0,0,
119,-2.372,-23.12,-13.82,-6.819,-36.93,-39.93,4.024,-5.255,-10.64,-20.01,13.86,1.102,29.23,29.93,34.64,27.75,0,0,0,0,0,0,0,0,0,0,0,0,0,0,0,0,
120,-5.775,-13.14,3.1,-2.582,-33.46,-35.06,4.662,3.854,-0.2105,-7.41,8.854,4.227,21.16,26.79,18.6,24.26,0,0,0,0,0,0,0,0,0,0,0,0,0,0,0,0,
121,-21.7,-14.05,-7.447,-20.43,-46.03,-51.51,-16.7,-9.93,-9.273,-13.99,-1.103,0.7649,3.854,13.08,-1.032,13.02,0,0,0,0,0,0,0,0,0,0,0,0,0,0,0,0,
122,-19.58,-20.83,-26.3,-25.05,-47.81,-48.78,-25.64,-21.74,-17.08,-21.02,-4.368,-5.613,0.7726,9.868,-1.636,5.704,0,0,0,0,0,0,0,0,0,0,0,0,0,0,0,0,
123,-5.808,-16.94,-38.53,-12.3,-41.96,-34.97,-13.66,-25.09,-10.21,-15.25,-1.899,-13.85,-0.5953,6.878,-0.1409,-0.8716,0,0,0,0,0,0,0,0,0,0,0,0,0,0,0,0,
124,-3.625,-5.116,-45.42,-6.093,-40.87,-30.47,-3.94,-26.18,-12.41,-13.99,-1.483,-18.29,-6.253,-0.7983,-3.985,-5.705,0,0,0,0,0,0,0,0,0,0,0,0,0,0,0,0,
125,-4.076,-0.019,-35.23,-6.746,-36.19,-25.89,-4.581,-19.68,-19.49,-16.85,-0.4923,-19.76,-6.559,-3.81,-3.28,-5.247,0,0,0,0,0,0,0,0,0,0,0,0,0,0,0,0,
126,-5.158,-6.253,-21.84,-11.94,-37.41,-28.88,-11.14,-16.15,-22.48,-20.02,-1.941,-22.01,-8.756,-7.168,-4.429,-7.446,0,0,0,0,0,0,0,0,0,0,0,0,0,0,0,0,
127,-10.98,-11.22,-21.25,-15.11,-41.63,-34.43,-17.88,-17.35,-24.96,-22.8,-10.59,-14.08,-11.07,-6.646,-10.79,-10.4,0,0,0,0,0,0,0,0,0,0,0,0,0,0,0,0,
128,-15.17,-7.967,-23.64,-9.865,-31.42,-25.7,-19.85,-7.882,-18.07,-14.2,-18.93,-1.514,-8.51,1.554,-17.85,-11.32,0,0,0,0,0,0,0,0,0,0,0,0,0,0,0,0,
129,-11.93,0.4063,-18.55,-8.213,-21.63,-18.36,-10.55,1.889,-7.479,-3.066,-16.41,-1.773,-9.374,2.987,-24.71,-15.65,0,0,0,0,0,0,0,0,0,0,0,0,0,0,0,0,
130,4.266,10.7,-9.64,-8.147,-20.18,-18.22,2.576,-2.842,-5.965,-3.088,-14.73,-4.402,-11.94,-0.6076,-30.8,-17.21,0,0,0,0,0,0,0,0,0,0,0,0,0,0,0,0,
131,21.32,15.62,-16.13,1.395,-9.98,-9.498,-7.551,-5.072,-2.999,-3.515,-26.19,-0.3165,-8.004,5.019,-26.97,-8.008,0,0,0,0,0,0,0,0,0,0,0,0,0,0,0,0,
132,26.85,19.36,-22.83,10.78,4.497,3.638,-20.68,6.636,10.64,2.462,-20.18,2.669,5.769,17.35,-3.209,4.956,0,0,0,0,0,0,0,0,0,0,0,0,0,0,0,0,
133,33.57,31.19,4.745,14.96,8.938,10.2,7.212,15.76,25.55,10.28,11.8,6.542,21.54,25.43,16.76,11.73,0,0,0,0,0,0,0,0,0,0,0,0,0,0,0,0,
134,38.5,34.93,29.18,19.76,9.909,12.1,36.21,17.5,29.01,18.16,23.66,12.73,23.32,26.67,12.3,15.38,0,0,0,0,0,0,0,0,0,0,0,0,0,0,0,0,
135,32.88,24.92,18.48,20.62,14.93,14.35,22.42,24.17,23.96,23.84,15.28,19.56,17.23,27.42,9.556,20.64,0,0,0,0,0,0,0,0,0,0,0,0,0,0,0,0,
136,33.85,25.4,12.78,16.42,15.5,16.38,9.34,28.53,22.89,26.35,16.53,27.28,16.57,27.21,14.3,17.39,0,0,0,0,0,0,0,0,0,0,0,0,0,0,0,0,
137,39.6,34.05,13.29,18.75,9.501,15.22,18.35,20.26,24.99,24.92,15.4,28.03,17.5,22.23,12.76,8.068,0,0,0,0,0,0,0,0,0,0,0,0,0,0,0,0,
138,33.71,32.4,-2.735,28.45,9.638,15.34,17.66,18.42,28.44,21.61,14.76,27.25,23.04,23.35,21.82,13.36,0,0,0,0,0,0,0,0,0,0,0,0,0,0,0,0,
139,26.46,33.44,-6.3,32.17,12.82,18.52,6.411,32.31,34.04,23.11,21.96,34.04,27.86,29.62,31.7,25.38,0,0,0,0,0,0,0,0,0,0,0,0,0,0,0,0,
140,25.87,41.73,8.204,29.22,5.316,17.32,-2.424,35.42,28.27,24.74,10.72,33.06,15.87,24.17,20.61,22.25,0,0,0,0,0,0,0,0,0,0,0,0,0,0,0,0,
141,22.78,36.64,12.34,27.64,-1.609,14.48,-10.87,22.79,14.38,22.78,-4.267,25.94,6.686,18.76,14.22,15.1,0,0,0,0,0,0,0,0,0,0,0,0,0,0,0,0,
142,18.87,25.44,9.38,22.04,3.359,16.2,-10.64,19.12,12.82,26.3,2.281,25.71,13.64,24.79,13.45,14.47,0,0,0,0,0,0,0,0,0,0,0,0,0,0,0,0,
143,26.99,33.82,5.656,14.86,7.658,18.11,0.9285,18.56,14.15,28.26,-0.5738,16.19,10.96,22.5,-5.132,7.09,0,0,0,0,0,0,0,0,0,0,0,0,0,0,0,0,
144,43.12,52.63,-5.206,20.13,9.965,20.83,6.988,9.432,10.52,20.74,-13.29,3.448,4.948,16.5,-13.15,-0.0537,0,0,0,0,0,0,0,0,0,0,0,0,0,0,0,0,
145,40.34,49.05,-11.63,24.36,10.08,20.57,-1.855,9.646,17.16,16.54,-4.431,9.011,13.34,19.54,3.769,7.577,0,0,0,0,0,0,0,0,0,0,0,0,0,0,0,0,
146,16.87,24.42,-4.452,14.84,-8.938,7.159,-12.63,16.68,20.22,10.72,10.49,13.67,13.43,12.37,15.4,13.86,0,0,0,0,0,0,0,0,0,0,0,0,0,0,0,0,
147,7.354,19.43,6.965,14.63,-26.05,-1.813,-3.706,16.88,8.851,-1.204,20.52,13.68,8.166,4.234,23.58,11.99,0,0,0,0,0,0,0,0,0,0,0,0,0,0,0,0,
148,16.01,36.29,13.55,19.9,-13.3,4.226,16.12,19.82,9.367,1.974,28.8,22.67,14.97,12.95,31.36,12.05,0,0,0,0,0,0,0,0,0,0,0,0,0,0,0,0,
149,18.68,29.84,8.549,1.043,-9.492,-3.351,16.57,17.8,11.61,6.527,14.34,17.95,7.388,8.179,14.23,3.31,0,0,0,0,0,0,0,0,0,0,0,0,0,0,0,0,
150,17.57,6.793,-6.294,-16.55,-30.42,-21.3,8.835,2.752,-8.034,-11.3,-4.457,1.824,-11.55,-9.467,-7.481,-9.1,0,0,0,0,0,0,0,0,0,0,0,0,0,0,0,0,
151,16.06,7.543,-12.16,-3.321,-31.74,-19.18,11.53,-3.439,-17.0,-22.05,5.404,2.413,-6.4,-6.472,2.302,-1.65,0,0,0,0,0,0,0,0,0,0,0,0,0,0,0,0,
152,2.925,13.72,-7.058,6.323,-24.26,-13.95,4.315,-2.477,-3.658,-15.51,17.77,4.008,4.87,-1.993,20.6,6.852,0,0,0,0,0,0,0,0,0,0,0,0,0,0,0,0,
153,-11.78,5.08,-15.71,-4.191,-36.7,-20.1,-5.254,-8.466,-0.5141,-19.36,18.24,-4.528,-0.0408,-11.32,16.28,-2.76,0,0,0,0,0,0,0,0,0,0,0,0,0,0,0,0,
154,-9.477,6.601,-30.83,-4.172,-37.28,-13.48,2.459,-8.935,-4.204,-21.71,21.1,-7.07,-2.382,-8.209,1.875,-7.304,0,0,0,0,0,0,0,0,0,0,0,0,0,0,0,0,
155,7.502,17.39,-18.6,3.015,-24.3,-2.21,0.9565,-7.831,-1.915,-8.822,12.17,-11.71,-2.333,0.1308,-5.999,-7.203,0,0,0,0,0,0,0,0,0,0,0,0,0,0,0,0,
156,22.95,19.7,3.295,-5.57,-26.49,-9.458,-8.471,-17.03,-5.761,-6.25,-5.346,-21.47,-11.79,-6.094,-14.06,-18.83,0,0,0,0,0,0,0,0,0,0,0,0,0,0,0,0,
157,25.61,25.44,3.551,-11.59,-22.79,-14.95,2.288,-19.33,-9.001,-11.86,-2.904,-15.96,-15.69,-6.718,-21.16,-17.89,0,0,0,0,0,0,0,0,0,0,0,0,0,0,0,0,
158,21.75,35.14,2.587,-2.297,-8.051,-7.411,10.85,-14.11,-1.578,-4.066,10.31,-5.788,-9.152,2.929,-13.73,-1.505,0,0,0,0,0,0,0,0,0,0,0,0,0,0,0,0,
159,23.16,32.44,3.21,-1.4,-12.39,-7.588,4.788,-18.31,0.5235,-1.454,11.87,-14.56,-9.424,-0.8722,-1.814,-4.255,0,0,0,0,0,0,0,0,0,0,0,0,0,0,0,0,
160,29.4,24.16,-10.23,-8.996,-20.61,-11.56,10.41,-19.86,-3.944,-13.47,9.866,-21.66,-12.83,-8.09,3.282,-8.682,0,0,0,0,0,0,0,0,0,0,0,0,0,0,0,0,
161,26.93,20.26,-5.953,-7.008,-15.49,-10.14,15.51,-12.47,1.826,-13.74,13.29,-6.175,-8.663,-2.744,7.782,9.571,0,0,0,0,0,0,0,0,0,0,0,0,0,0,0,0,
162,11.61,15.79,16.15,-2.502,-21.23,-18.4,-1.895,-8.455,5.694,-8.89,11.95,9.272,-9.28,-4.268,1.611,14.31,0,0,0,0,0,0,0,0,0,0,0,0,0,0,0,0,
163,9.19,11.53,12.12,2.31,-32.45,-27.47,-11.91,-1.973,-4.903,-20.74,8.371,11.44,-14.42,-13.14,-9.582,0.9246,0,0,0,0,0,0,0,0,0,0,0,0,0,0,0,0,
164,25.16,10.55,-0.9461,9.788,-25.77,-19.8,4.072,1.49,-5.811,-30.08,14.32,11.05,-13.17,-12.46,-1.138,2.768,0,0,0,0,0,0,0,0,0,0,0,0,0,0,0,0,
165,28.86,13.48,4.33,7.729,-17.61,-13.1,14.49,-8.884,1.79,-26.73,16.8,8.309,-17.86,-15.28,6.058,6.902,0,0,0,0,0,0,0,0,0,0,0,0,0,0,0,0,
166,25.89,22.64,7.56,1.097,-21.25,-17.3,7.037,-9.338,-9.057,-28.28,7.377,3.458,-27.26,-26.21,-6.043,-2.953,0,0,0,0,0,0,0,0,0,0,0,0,0,0,0,0,
167,28.34,27.75,5.393,-2.352,-23.37,-20.92,2.804,-0.6473,-18.13,-33.42,0.4295,-1.901,-24.1,-27.82,-11.62,-11.38,0,0,0,0,0,0,0,0,0,0,0,0,0,0,0,0,
168,17.81,23.06,8.215,-6.627,-19.35,-19.44,4.032,-6.828,-7.724,-32.58,1.164,-6.942,-16.33,-18.59,-2.038,-6.947,0,0,0,0,0,0,0,0,0,0,0,0,0,0,0,0,
169,12.57,22.4,10.13,-5.914,-15.84,-12.51,-0.6447,-11.44,-4.28,-27.51,6.518,-5.968,-15.36,-10.63,6.206,5.046,0,0,0,0,0,0,0,0,0,0,0,0,0,0,0,0,
170,23.96,22.23,4.566,-6.026,-21.18,-10.65,-12.67,-10.43,-11.24,-25.94,1.314,-11.67,-24.23,-18.13,-6.761,-1.972,0,0,0,0,0,0,0,0,0,0,0,0,0,0,0,0,
171,18.88,14.57,-11.19,-9.368,-34.54,-18.76,-22.93,-17.29,-16.27,-34.02,-23.82,-26.58,-40.33,-35.26,-34.38,-27.04,0,0,0,0,0,0,0,0,0,0,0,0,0,0,0,0,
172,7.891,13.69,-22.79,-3.03,-41.81,-21.82,-21.72,-16.41,-22.89,-41.18,-35.08,-27.91,-43.75,-38.67,-37.14,-31.63,0,0,0,0,0,0,0,0,0,0,0,0,0,0,0,0,
173,12.04,15.47,-17.15,-3.055,-40.9,-22.2,-22.89,-18.39,-24.43,-41.85,-24.28,-25.09,-34.53,-35.59,-24.81,-25.53,0,0,0,0,0,0,0,0,0,0,0,0,0,0,0,0,
174,7.549,8.931,-10.04,-12.92,-40.86,-26.95,-32.02,-35.44,-22.78,-46.28,-26.6,-31.62,-34.69,-41.13,-32.27,-32.65,0,0,0,0,0,0,0,0,0,0,0,0,0,0,0,0,
175,-12.44,4.617,-9.783,-12.56,-43.86,-30.35,-25.36,-33.86,-32.33,-50.31,-33.55,-32.0,-40.97,-43.96,-36.31,-33.23,0,0,0,0,0,0,0,0,0,0,0,0,0,0,0,0,
176,-28.07,-0.997,-12.52,-20.12,-49.96,-40.36,-18.73,-21.13,-41.98,-49.54,-30.47,-29.11,-41.97,-40.24,-26.61,-27.32,0,0,0,0,0,0,0,0,0,0,0,0,0,0,0,0,
177,-20.21,-7.703,-22.14,-32.5,-52.25,-49.81,-40.57,-27.29,-36.68,-48.65,-33.25,-26.06,-36.92,-32.53,-22.23,-22.6,0,0,0,0,0,0,0,0,0,0,0,0,0,0,0,0,
178,4.415,-0.3549,-25.86,-18.96,-43.11,-40.96,-48.56,-30.91,-24.86,-42.81,-31.31,-17.63,-26.94,-23.7,-15.75,-12.09,0,0,0,0,0,0,0,0,0,0,0,0,0,0,0,0,
179,11.01,5.805,-11.85,-6.505,-34.95,-32.79,-14.85,-26.16,-18.89,-38.05,-22.53,-19.82,-23.31,-28.65,-18.87,-19.96,0,0,0,0,0,0,0,0,0,0,0,0,0,0,0,0,
180,3.009,1.303,-1.764,-13.44,-40.71,-36.35,4.257,-31.45,-19.12,-44.49,-29.71,-29.83,-28.18,-40.64,-39.88,-43.75,0,0,0,0,0,0,0,0,0,0,0,0,0,0,0,0,
181,-1.05,2.798,-13.61,-13.93,-50.86,-37.66,-19.85,-37.08,-19.27,-51.72,-40.85,-30.97,-28.89,-40.08,-40.5,-40.59,0,0,0,0,0,0,0,0,0,0,0,0,0,0,0,0,
182,-12.44,4.044,-27.14,-14.88,-51.07,-40.4,-33.97,-38.01,-21.49,-53.27,-38.87,-30.1,-27.42,-35.54,-20.51,-24.71,0,0,0,0,0,0,0,0,0,0,0,0,0,0,0,0,
183,-10.52,3.57,-14.82,-21.43,-40.94,-41.24,-11.79,-37.4,-27.67,-49.92,-29.95,-26.1,-25.84,-33.42,-11.97,-24.96,0,0,0,0,0,0,0,0,0,0,0,0,0,0,0,0,
184,15.77,14.6,6.374,-14.16,-28.77,-28.83,0.5505,-28.21,-24.6,-37.8,-16.09,-12.68,-16.18,-23.46,-4.803,-17.27,0,0,0,0,0,0,0,0,0,0,0,0,0,0,0,0,
185,19.52,18.13,0.1593,-5.497,-23.86,-20.95,-15.57,-17.61,-12.51,-25.31,-7.264,0.7352,-8.391,-13.89,4.777,-0.7626,0,0,0,0,0,0,0,0,0,0,0,0,0,0,0,0,
186,1.121,5.177,-15.56,-5.428,-27.7,-25.01,-21.03,-12.99,-11.33,-24.11,-11.9,8.818,-13.64,-17.68,-3.135,-4.125,0,0,0,0,0,0,0,0,0,0,0,0,0,0,0,0,
187,3.568,7.03,-5.532,3.927,-24.43,-19.39,-8.865,-8.472,-16.71,-26.56,-16.04,8.345,-17.68,-22.6,-13.79,-12.68,0,0,0,0,0,0,0,0,0,0,0,0,0,0,0,0,
188,18.62,27.95,8.825,15.86,-8.003,-5.709,-9.629,-5.53,-10.77,-23.42,-17.05,-1.195,-13.24,-17.85,-9.853,-8.974,0,0,0,0,0,0,0,0,0,0,0,0,0,0,0,0,
189,24.46,36.76,3.946,14.73,1.091,-1.042,-19.44,-4.588,-3.065,-21.13,-21.96,-8.248,-12.87,-13.42,-10.83,-12.64,0,0,0,0,0,0,0,0,0,0,0,0,0,0,0,0,
190,30.41,31.9,1.091,10.98,-1.768,-0.2931,-14.56,-5.421,-2.836,-21.98,-20.45,-7.521,-16.15,-14.66,-18.84,-20.76,0,0,0,0,0,0,0,0,0,0,0,0,0,0,0,0,
191,38.7,34.9,7.591,8.275,-4.362,-1.083,-2.215,-13.67,-0.7929,-20.63,-8.824,-5.448,-14.3,-16.34,-13.34,-13.38,0,0,0,0,0,0,0,0,0,0,0,0,0,0,0,0,
192,35.08,38.08,9.448,3.036,-5.139,-5.076,-2.325,-19.13,2.165,-21.75,-1.474,-8.216,-10.64,-16.81,-7.812,-8.76,0,0,0,0,0,0,0,0,0,0,0,0,0,0,0,0,
193,26.6,31.59,13.7,5.707,3.416,2.117,-12.68,-14.28,4.966,-23.29,-8.392,-13.61,-9.335,-16.86,-18.63,-20.44,0,0,0,0,0,0,0,0,0,0,0,0,0,0,0,0,
194,27.63,31.71,18.22,10.13,14.2,10.75,-17.21,-14.69,10.53,-17.77,-21.22,-11.42,-10.23,-16.81,-21.62,-21.79,0,0,0,0,0,0,0,0,0,0,0,0,0,0,0,0,
195,22.53,31.97,-1.179,1.427,4.822,-0.1406,-11.35,-21.56,6.576,-15.78,-22.0,-5.444,-11.81,-15.79,-11.67,-10.02,0,0,0,0,0,0,0,0,0,0,0,0,0,0,0,0,
196,12.31,20.16,-29.88,-5.014,-4.995,-7.845,-8.197,-20.62,-3.139,-17.78,-16.47,-11.31,-12.02,-16.3,-14.83,-15.14,0,0,0,0,0,0,0,0,0,0,0,0,0,0,0,0,
197,23.82,21.65,-23.69,2.874,3.356,0.9534,-10.66,-11.46,0.6844,-13.45,-17.52,-18.32,-10.57,-20.0,-17.22,-25.98,0,0,0,0,0,0,0,0,0,0,0,0,0,0,0,0,
198,35.25,33.91,12.01,11.34,5.714,3.763,-4.286,-2.76,9.803,-10.84,-9.111,-6.914,-3.619,-16.0,2.717,-12.41,0,0,0,0,0,0,0,0,0,0,0,0,0,0,0,0,
199,19.87,27.32,27.25,13.18,0.5076,1.329,0.1362,-5.274,12.39,-8.707,1.624,6.196,2.676,-7.818,11.25,-0.2734,0,0,0,0,0,0,0,0,0,0,0,0,0,0,0,0,
200,14.19,22.55,8.102,11.59,0.9588,0.9073,-9.574,-10.84,9.852,-3.074,-10.52,6.828,-5.36,-13.26,-6.649,-13.43,0,0,0,0,0,0,0,0,0,0,0,0,0,0,0,0,
201,36.4,39.68,-3.109,15.31,-0.5285,-2.116,-3.119,3.895,0.7988,-7.233,-15.79,15.66,-11.21,-16.11,-9.122,-14.03,0,0,0,0,0,0,0,0,0,0,0,0,0,0,0,0,
202,52.98,56.48,20.76,31.6,5.435,5.981,15.35,24.72,2.561,-8.64,3.558,34.15,5.956,3.508,13.12,13.07,0,0,0,0,0,0,0,0,0,0,0,0,0,0,0,0,
203,55.17,63.04,47.09,41.28,25.6,23.52,7.621,27.22,27.58,8.792,9.072,39.4,25.38,22.77,23.72,27.84,0,0,0,0,0,0,0,0,0,0,0,0,0,0,0,0,
204,56.24,57.63,42.35,30.06,33.07,25.75,3.297,24.73,43.33,19.88,-3.858,32.29,23.08,20.75,10.69,16.54,0,0,0,0,0,0,0,0,0,0,0,0,0,0,0,0,
205,53.88,46.07,24.73,25.12,21.85,19.59,23.02,22.35,31.8,13.63,-9.141,26.39,11.8,10.32,-3.519,6.264,0,0,0,0,0,0,0,0,0,0,0,0,0,0,0,0,
206,51.34,50.21,20.01,35.37,16.45,20.7,17.05,10.7,22.0,10.88,-2.656,22.7,12.6,8.018,1.789,8.634,0,0,0,0,0,0,0,0,0,0,0,0,0,0,0,0,
207,49.74,51.36,18.77,26.1,15.4,13.99,-6.748,-2.242,23.03,8.599,8.396,15.04,16.21,5.53,16.02,7.69,0,0,0,0,0,0,0,0,0,0,0,0,0,0,0,0,
208,40.65,33.57,14.59,1.778,4.074,-1.502,3.088,-9.093,13.79,-6.271,12.06,5.58,8.678,-6.141,19.34,0.8272,0,0,0,0,0,0,0,0,0,0,0,0,0,0,0,0,
209,38.31,34.74,22.53,1.201,-2.166,-1.316,21.32,-4.933,2.137,-13.75,10.42,3.166,7.423,-8.783,19.3,1.329,0,0,0,0,0,0,0,0,0,0,0,0,0,0,0,0,
210,40.95,45.58,26.61,8.086,3.916,7.529,10.57,2.397,6.221,-3.356,6.921,-2.466,10.23,-6.375,13.79,-3.979,0,0,0,0,0,0,0,0,0,0,0,0,0,0,0,0,
211,21.75,30.07,-0.0953,-3.701,-2.076,0.4617,-3.15,-9.019,4.468,-7.192,-17.14,-16.53,-9.599,-24.52,-10.57,-24.42,0,0,0,0,0,0,0,0,0,0,0,0,0,0,0,0,
212,4.727,20.5,-25.01,-10.57,-20.15,-13.61,-5.917,-24.83,-14.87,-31.47,-43.17,-20.04,-30.31,-42.75,-28.46,-35.05,0,0,0,0,0,0,0,0,0,0,0,0,0,0,0,0,
213,11.03,24.61,-21.41,-11.41,-29.31,-22.23,-27.38,-25.21,-25.29,-43.69,-39.78,-20.32,-29.59,-43.7,-27.7,-35.95,0,0,0,0,0,0,0,0,0,0,0,0,0,0,0,0,
214,7.702,10.15,-19.54,-22.32,-33.99,-29.42,-60.22,-25.36,-28.18,-46.17,-36.98,-26.29,-31.38,-46.96,-33.17,-40.64,0,0,0,0,0,0,0,0,0,0,0,0,0,0,0,0,
215,2.666,4.094,-17.54,-16.96,-36.31,-26.03,-60.06,-20.88,-39.06,-50.93,-43.8,-15.75,-32.34,-42.45,-35.6,-32.46,0,0,0,0,0,0,0,0,0,0,0,0,0,0,0,0,
216,23.26,25.81,5.495,9.477,-23.33,-7.134,-33.99,-4.241,-37.36,-39.22,-28.97,-1.259,-18.25,-22.97,-21.47,-16.05,0,0,0,0,0,0,0,0,0,0,0,0,0,0,0,0,
217,46.4,44.94,22.54,23.81,-3.37,10.18,-14.54,4.329,-19.38,-18.8,-14.89,-2.286,-9.04,-13.29,-11.07,-8.175,0,0,0,0,0,0,0,0,0,0,0,0,0,0,0,0,
218,56.65,57.01,25.01,26.09,8.287,15.72,4.322,10.63,-7.979,-13.33,-17.74,6.816,-2.44,-5.429,0.341,7.447,0,0,0,0,0,0,0,0,0,0,0,0,0,0,0,0,
219,58.66,66.41,33.8,32.33,16.19,17.68,19.38,23.58,1.349,-7.669,-4.58,22.84,13.76,12.31,20.36,24.82,0,0,0,0,0,0,0,0,0,0,0,0,0,0,0,0,
220,59.65,66.59,43.61,39.65,23.65,24.92,16.57,25.26,13.2,8.245,12.78,19.87,20.11,17.75,23.26,18.52,0,0,0,0,0,0,0,0,0,0,0,0,0,0,0,0,
221,73.98,68.04,50.8,42.95,24.09,30.66,18.33,23.96,14.92,17.09,11.85,17.0,16.47,12.79,14.47,8.191,0,0,0,0,0,0,0,0,0,0,0,0,0,0,0,0,
222,84.0,69.85,53.66,40.4,22.11,28.57,33.14,30.41,15.52,20.02,18.83,26.71,22.96,15.3,22.75,14.91,0,0,0,0,0,0,0,0,0,0,0,0,0,0,0,0,
223,67.92,63.29,40.45,35.85,25.09,27.59,42.79,24.82,25.09,23.72,31.07,25.53,30.33,15.37,36.35,19.39,0,0,0,0,0,0,0,0,0,0,0,0,0,0,0,0,
224,49.52,58.93,26.92,31.7,22.4,24.24,51.51,9.514,28.22,14.53,26.43,10.22,24.3,5.896,33.52,10.19,0,0,0,0,0,0,0,0,0,0,0,0,0,0,0,0,
225,49.15,56.0,22.45,22.26,7.896,13.0,49.92,4.316,17.01,-4.2,17.23,0.9693,9.574,-4.284,18.73,-1.088,0,0,0,0,0,0,0,0,0,0,0,0,0,0,0,0,
226,54.79,47.34,10.69,13.67,-5.807,8.848,16.79,5.334,0.9215,-11.43,1.507,1.8,-8.003,-14.58,3.322,-7.989,0,0,0,0,0,0,0,0,0,0,0,0,0,0,0,0,
227,47.87,40.57,4.515,11.76,-15.62,5.495,-18.59,-1.998,-13.83,-13.84,-23.78,-1.825,-22.17,-27.63,-8.53,-14.09,0,0,0,0,0,0,0,0,0,0,0,0,0,0,0,0,
228,28.65,30.6,14.59,4.861,-25.44,-11.14,-27.95,-19.43,-24.5,-27.07,-32.54,-14.15,-27.57,-36.72,-18.41,-19.59,0,0,0,0,0,0,0,0,0,0,0,0,0,0,0,0,
229,20.59,19.94,16.6,-2.098,-23.58,-16.76,-23.22,-25.05,-26.1,-37.52,-24.83,-19.12,-23.54,-31.74,-21.81,-16.32,0,0,0,0,0,0,0,0,0,0,0,0,0,0,0,0,
230,30.77,32.92,8.14,6.185,-9.705,-3.349,-7.381,-9.083,-18.47,-30.94,-20.24,-11.02,-12.96,-19.09,-16.73,-9.888,0,0,0,0,0,0,0,0,0,0,0,0,0,0,0,0,
231,41.05,49.8,3.528,12.68,-7.029,0.7941,2.283,-2.845,-12.92,-20.22,-21.67,-5.393,-7.979,-19.41,-14.4,-14.95,0,0,0,0,0,0,0,0,0,0,0,0,0,0,0,0,
232,44.25,39.16,0.4292,4.85,-14.32,-2.698,-19.21,-12.29,-15.86,-18.16,-22.68,-6.003,-7.617,-25.65,-9.726,-17.47,0,0,0,0,0,0,0,0,0,0,0,0,0,0,0,0,
233,47.28,36.73,2.593,8.29,-6.012,7.849,-33.64,-10.03,-13.68,-14.91,-11.82,-2.24,3.357,-15.05,4.361,-6.268,0,0,0,0,0,0,0,0,0,0,0,0,0,0,0,0,
234,56.06,59.53,18.33,26.36,13.71,25.5,-6.702,-6.53,1.246,-1.016,0.3775,6.071,13.96,-0.174,9.102,0.1107,0,0,0,0,0,0,0,0,0,0,0,0,0,0,0,0,
235,63.85,66.21,37.91,28.93,23.33,32.73,23.11,-11.6,14.27,12.29,-2.546,12.6,12.6,3.261,6.021,2.508,0,0,0,0,0,0,0,0,0,0,0,0,0,0,0,0,
236,59.61,61.85,34.62,19.84,22.26,30.32,20.23,-3.554,16.4,14.01,-5.825,12.8,11.85,4.189,7.293,7.747,0,0,0,0,0,0,0,0,0,0,0,0,0,0,0,0,
237,54.12,69.93,8.341,24.08,16.63,30.62,-0.4672,10.5,14.49,9.956,-8.568,8.776,8.945,2.786,-1.491,4.011,0,0,0,0,0,0,0,0,0,0,0,0,0,0,0,0,
238,59.96,69.47,8.266,34.95,13.46,36.03,-2.842,16.94,14.29,9.849,-11.52,13.64,4.811,3.195,-8.751,3.578,0,0,0,0,0,0,0,0,0,0,0,0,0,0,0,0,
239,69.33,65.63,36.36,40.88,19.8,37.01,17.73,25.84,17.52,15.44,6.943,25.99,14.65,12.49,3.306,11.52,0,0,0,0,0,0,0,0,0,0,0,0,0,0,0,0,
240,71.57,72.21,34.62,44.26,20.51,29.23,21.07,27.1,20.33,17.14,17.67,25.97,17.48,9.503,3.329,3.643,0,0,0,0,0,0,0,0,0,0,0,0,0,0,0,0,
241,56.52,62.63,14.75,35.14,4.224,15.31,4.567,14.78,12.28,6.569,-3.106,16.55,0.9457,-6.056,-10.21,-4.683,0,0,0,0,0,0,0,0,0,0,0,0,0,0,0,0,
242,36.9,49.01,17.01,16.17,-5.084,6.116,6.633,11.78,-0.0931,-3.008,-3.47,18.56,0.0381,-3.32,-0.99,7.889,0,0,0,0,0,0,0,0,0,0,0,0,0,0,0,0,
243,46.83,61.17,19.77,13.86,2.924,12.36,13.0,14.86,4.183,1.75,16.0,23.96,12.32,6.545,10.64,11.21,0,0,0,0,0,0,0,0,0,0,0,0,0,0,0,0,
244,62.09,64.48,10.61,20.53,1.718,17.19,-4.781,7.957,12.8,5.042,3.168,10.89,4.074,-0.2859,-0.9571,-2.301,0,0,0,0,0,0,0,0,0,0,0,0,0,0,0,0,
245,42.08,45.94,3.788,16.0,-6.255,11.1,-16.77,7.252,4.782,0.9089,-16.22,-4.025,-3.991,-0.0335,-4.178,0.0188,0,0,0,0,0,0,0,0,0,0,0,0,0,0,0,0,
246,33.1,46.27,10.77,21.08,7.643,19.51,2.474,17.09,5.747,13.87,-6.662,5.38,12.78,19.11,10.68,16.19,0,0,0,0,0,0,0,0,0,0,0,0,0,0,0,0,
247,61.73,61.37,34.71,35.01,26.37,36.78,20.67,17.89,25.73,37.55,9.883,18.87,28.44,28.58,19.64,21.83,0,0,0,0,0,0,0,0,0,0,0,0,0,0,0,0,
248,71.42,68.25,37.84,30.21,26.58,36.26,7.258,17.62,32.83,40.96,20.28,16.84,30.23,23.63,24.49,19.66,0,0,0,0,0,0,0,0,0,0,0,0,0,0,0,0,
249,58.8,75.11,13.1,26.32,26.95,34.42,-12.75,29.68,30.22,35.62,21.19,18.03,29.75,21.56,28.31,20.52,0,0,0,0,0,0,0,0,0,0,0,0,0,0,0,0,
250,62.77,76.34,16.58,37.7,28.74,39.57,-11.29,37.67,31.94,37.4,12.58,26.09,26.3,21.02,24.67,22.98,0,0,0,0,0,0,0,0,0,0,0,0,0,0,0,0,
251,69.72,68.58,45.25,38.45,19.16,32.34,1.256,35.39,27.34,31.23,15.91,28.47,24.41,19.78,25.53,25.16,0,0,0,0,0,0,0,0,0,0,0,0,0,0,0,0,
252,66.74,66.36,54.3,32.39,11.62,22.18,21.29,36.95,26.63,22.31,28.1,29.79,25.88,21.02,31.42,26.57,0,0,0,0,0,0,0,0,0,0,0,0,0,0,0,0,
253,64.11,65.58,44.01,36.06,14.71,25.42,42.39,42.3,33.7,24.7,30.21,33.78,21.89,22.71,27.59,28.78,0,0,0,0,0,0,0,0,0,0,0,0,0,0,0,0,
254,66.75,68.61,31.24,42.75,29.85,37.87,40.03,42.61,36.14,31.91,31.9,40.64,22.34,28.77,20.31,34.65,0,0,0,0,0,0,0,0,0,0,0,0,0,0,0,0,
255,79.76,80.43,30.91,48.17,47.11,49.64,28.12,40.48,43.47,41.67,34.44,47.0,28.15,34.79,18.73,36.54,0,0,0,0,0,0,0,0,0,0,0,0,0,0,0,0,
256,83.62,79.86,34.54,45.69,38.15,46.37,24.35,40.68,46.71,47.09,28.53,39.11,22.85,28.29,18.13,29.1,0,0,0,0,0,0,0,0,0,0,0,0,0,0,0,0,
257,63.41,69.44,25.3,34.02,16.15,31.0,11.9,35.43,31.2,38.21,25.18,23.52,15.88,18.09,15.48,20.65,0,0,0,0,0,0,0,0,0,0,0,0,0,0,0,0,
258,51.05,67.56,26.49,25.22,11.28,22.71,4.761,22.44,20.44,27.23,26.35,19.27,16.38,14.81,10.73,13.75,0,0,0,0,0,0,0,0,0,0,0,0,0,0,0,0,
259,51.12,62.92,27.89,17.8,9.637,21.27,18.13,17.35,20.41,23.49,23.9,21.25,13.43,13.08,6.733,7.705,0,0,0,0,0,0,0,0,0,0,0,0,0,0,0,0,
260,36.97,52.77,0.0029,12.59,5.571,20.15,22.82,19.65,17.34,22.46,20.47,22.48,10.97,13.89,7.191,11.66,0,0,0,0,0,0,0,0,0,0,0,0,0,0,0,0,
261,30.4,48.7,-3.677,16.87,10.09,20.47,14.49,15.69,17.08,22.52,15.51,26.63,14.96,19.33,10.47,22.6,0,0,0,0,0,0,0,0,0,0,0,0,0,0,0,0,
262,46.96,48.06,32.01,18.83,11.58,17.12,7.759,12.6,19.09,18.95,10.19,24.19,16.28,19.06,9.788,19.49,0,0,0,0,0,0,0,0,0,0,0,0,0,0,0,0,
263,53.14,47.54,33.3,14.32,5.791,11.31,-5.138,14.97,18.41,10.54,8.533,11.5,11.44,7.766,-0.7886,1.338,0,0,0,0,0,0,0,0,0,0,0,0,0,0,0,0,
264,48.62,47.9,8.335,15.56,1.598,12.34,-14.53,15.6,18.29,3.752,5.599,5.844,6.244,-4.744,-9.19,-7.597,0,0,0,0,0,0,0,0,0,0,0,0,0,0,0,0,
265,49.89,52.55,8.009,20.75,-0.5297,14.35,-7.705,14.98,14.34,-4.119,3.913,8.393,5.679,-9.167,-0.3689,-2.178,0,0,0,0,0,0,0,0,0,0,0,0,0,0,0,0,
266,39.13,58.98,5.465,21.67,-1.149,9.456,2.949,12.46,8.174,-14.0,10.26,4.99,9.938,-5.899,11.29,1.9,0,0,0,0,0,0,0,0,0,0,0,0,0,0,0,0,
267,30.15,55.23,-4.473,20.06,-1.836,7.357,14.45,12.08,10.43,-13.9,14.22,0.0231,14.67,0.8817,7.51,1.136,0,0,0,0,0,0,0,0,0,0,0,0,0,0,0,0,
268,48.37,51.11,11.45,20.91,-1.045,13.67,23.12,18.34,17.47,-3.552,8.091,3.639,16.63,6.903,-0.6754,2.02,0,0,0,0,0,0,0,0,0,0,0,0,0,0,0,0,
269,64.18,58.75,26.61,22.94,8.77,21.91,18.88,22.9,20.77,6.977,7.352,16.92,20.72,15.02,4.969,11.42,0,0,0,0,0,0,0,0,0,0,0,0,0,0,0,0,
270,62.63,62.52,20.94,20.86,22.09,27.97,15.1,25.75,25.1,19.28,18.35,32.67,29.74,26.56,14.85,24.13,0,0,0,0,0,0,0,0,0,0,0,0,0,0,0,0,
271,59.82,61.93,20.47,18.68,25.54,27.3,15.08,27.57,32.26,29.2,22.33,36.0,33.18,30.1,12.36,23.85,0,0,0,0,0,0,0,0,0,0,0,0,0,0,0,0,
272,57.76,69.37,16.21,24.2,25.24,27.46,5.867,27.63,35.31,30.51,21.08,35.06,33.63,30.95,16.48,21.91,0,0,0,0,0,0,0,0,0,0,0,0,0,0,0,0,
273,65.33,73.38,5.736,31.75,30.45,38.44,2.545,37.52,38.3,35.35,29.43,46.77,41.15,38.91,34.11,31.98,0,0,0,0,0,0,0,0,0,0,0,0,0,0,0,0,
274,72.75,68.94,18.01,32.2,26.06,38.84,14.73,45.1,39.18,36.83,30.68,53.22,40.09,36.33,34.81,35.58,0,0,0,0,0,0,0,0,0,0,0,0,0,0,0,0,
275,61.99,69.45,28.29,31.77,13.15,27.88,26.94,38.82,28.57,24.36,25.5,47.69,33.07,29.91,30.88,35.58,0,0,0,0,0,0,0,0,0,0,0,0,0,0,0,0,
276,61.08,75.01,18.11,37.26,18.57,35.65,36.88,42.42,25.48,25.95,36.0,47.96,40.55,38.34,41.27,41.26,0,0,0,0,0,0,0,0,0,0,0,0,0,0,0,0,
277,70.05,75.11,25.47,35.91,28.59,41.24,37.72,48.96,34.14,37.18,35.86,44.15,38.14,34.2,30.23,30.49,0,0,0,0,0,0,0,0,0,0,0,0,0,0,0,0,
278,58.02,68.49,34.28,25.67,19.61,26.81,20.13,41.03,26.51,25.02,13.74,35.86,18.57,18.98,8.293,18.0,0,0,0,0,0,0,0,0,0,0,0,0,0,0,0,0,
279,53.19,67.0,10.75,30.64,20.17,30.96,7.865,44.3,18.85,19.52,13.8,45.98,21.76,31.45,20.84,33.94,0,0,0,0,0,0,0,0,0,0,0,0,0,0,0,0,
280,74.46,79.26,-2.922,45.28,39.84,48.1,12.82,53.11,35.76,42.76,28.78,54.28,38.08,47.63,36.33,45.12,0,0,0,0,0,0,0,0,0,0,0,0,0,0,0,0,
281,82.62,89.55,12.76,38.16,42.32,43.01,14.59,38.9,45.07,51.27,19.06,37.1,32.92,35.14,19.79,26.31,0,0,0,0,0,0,0,0,0,0,0,0,0,0,0,0,
282,70.87,81.18,21.74,24.38,26.11,34.09,9.078,25.86,32.75,35.82,6.502,26.15,24.19,24.67,5.245,13.57,0,0,0,0,0,0,0,0,0,0,0,0,0,0,0,0,
283,69.16,70.02,20.89,30.55,19.73,36.31,3.3,29.03,28.0,28.92,16.4,36.3,32.53,34.08,20.0,27.43,0,0,0,0,0,0,0,0,0,0,0,0,0,0,0,0,
284,70.78,70.91,21.33,33.34,20.18,32.8,-0.6939,24.49,34.29,30.84,30.88,37.27,41.71,40.25,43.01,41.3,0,0,0,0,0,0,0,0,0,0,0,0,0,0,0,0,
285,55.31,71.16,16.58,23.16,12.02,23.23,4.955,18.12,31.49,26.78,37.68,29.39,34.77,33.21,42.82,34.97,0,0,0,0,0,0,0,0,0,0,0,0,0,0,0,0,
286,41.71,64.49,4.567,22.49,3.682,15.03,13.9,21.62,18.0,17.83,31.74,30.55,16.56,18.87,19.36,17.85,0,0,0,0,0,0,0,0,0,0,0,0,0,0,0,0,
287,36.53,52.6,-14.62,17.37,-2.406,4.451,7.318,15.36,5.397,5.056,7.45,23.96,1.202,1.222,-2.446,2.017,0,0,0,0,0,0,0,0,0,0,0,0,0,0,0,0,
288,23.37,37.46,-18.39,2.264,-14.01,-2.961,-6.151,7.766,-2.659,-6.554,-11.72,11.83,-5.401,-7.884,-11.46,-6.878,0,0,0,0,0,0,0,0,0,0,0,0,0,0,0,0,
289,30.25,37.19,8.91,9.866,-14.57,3.614,-5.423,23.75,-7.242,-3.567,-7.063,20.76,-6.802,-2.519,-13.99,-4.032,0,0,0,0,0,0,0,0,0,0,0,0,0,0,0,0,
290,59.03,51.98,17.36,24.22,-0.5236,13.55,-1.262,36.95,-8.622,5.584,-4.078,33.19,-6.611,2.494,-13.56,4.852,0,0,0,0,0,0,0,0,0,0,0,0,0,0,0,0,
291,62.49,66.58,-6.112,23.02,8.106,19.76,-10.52,26.87,-6.216,5.101,-11.39,27.97,-0.7271,3.518,-7.408,8.43,0,0,0,0,0,0,0,0,0,0,0,0,0,0,0,0,
292,59.84,85.69,-3.457,33.54,18.6,32.63,-18.79,21.61,3.191,6.413,-4.229,20.79,11.35,8.575,0.0389,3.963,0,0,0,0,0,0,0,0,0,0,0,0,0,0,0,0,
293,69.92,90.73,12.99,39.39,30.41,38.14,-15.82,23.46,11.91,10.85,8.667,17.67,17.61,11.26,-0.8823,0.5673,0,0,0,0,0,0,0,0,0,0,0,0,0,0,0,0,
294,64.65,74.51,9.709,23.32,28.46,31.69,-15.13,15.37,12.23,8.907,6.356,16.38,16.7,10.18,-5.499,3.911,0,0,0,0,0,0,0,0,0,0,0,0,0,0,0,0,
295,70.72,82.86,20.95,29.99,31.84,41.87,-15.86,12.78,16.31,15.62,0.476,16.93,15.06,8.261,-9.205,-0.6103,0,0,0,0,0,0,0,0,0,0,0,0,0,0,0,0,
296,91.71,100.1,36.8,46.37,39.7,52.67,-4.419,21.55,22.08,26.31,3.723,13.61,11.43,4.559,-10.91,-9.737,0,0,0,0,0,0,0,0,0,0,0,0,0,0,0,0,
297,87.95,87.94,28.98,37.93,32.21,41.33,14.21,27.92,18.8,23.27,18.78,16.69,16.05,12.39,3.925,3.186,0,0,0,0,0,0,0,0,0,0,0,0,0,0,0,0,
298,89.78,92.02,35.68,41.49,33.51,42.38,32.98,33.12,22.73,24.28,40.79,31.23,33.8,29.6,28.95,25.66,0,0,0,0,0,0,0,0,0,0,0,0,0,0,0,0,
299,105.5,115.4,58.2,59.15,49.54,59.75,53.5,37.3,36.73,33.65,55.22,41.11,47.71,36.83,44.18,38.33,0,0,0,0,0,0,0,0,0,0,0,0,0,0,0,0,
300,105.5,120.2,61.79,64.4,53.32,63.86,59.0,36.58,41.81,34.19,62.27,45.46,52.78,40.75,58.31,54.41,0,0,0,0,0,0,0,0,0,0,0,0,0,0,0,0,
301,119.9,134.0,61.4,68.62,51.39,63.12,43.74,34.23,38.72,31.85,67.06,47.57,52.23,45.17,67.62,61.07,0,0,0,0,0,0,0,0,0,0,0,0,0,0,0,0,
302,139.8,148.7,67.42,63.1,52.69,63.92,39.52,28.81,34.66,29.54,63.51,37.29,42.56,35.61,51.92,40.15,0,0,0,0,0,0,0,0,0,0,0,0,0,0,0,0,
303,139.6,151.7,65.78,63.7,49.45,63.16,39.4,25.37,28.96,20.31,51.25,19.81,27.04,17.08,24.85,16.41,0,0,0,0,0,0,0,0,0,0,0,0,0,0,0,0,
304,181.2,208.6,65.84,107.8,53.39,78.31,16.37,36.36,21.41,15.51,34.03,18.67,15.27,11.66,11.02,14.5,0,0,0,0,0,0,0,0,0,0,0,0,0,0,0,0,
305,267.8,295.1,87.95,144.6,76.62,107.0,10.68,53.83,20.8,30.81,21.78,39.02,19.86,30.47,15.84,33.39,0,0,0,0,0,0,0,0,0,0,0,0,0,0,0,0,
306,314.3,319.7,129.1,149.4,110.7,133.0,32.5,65.12,40.42,58.12,26.39,53.82,37.42,51.97,26.53,47.84,0,0,0,0,0,0,0,0,0,0,0,0,0,0,0,0,
307,314.6,309.5,162.6,185.2,142.9,166.2,37.02,77.53,65.04,73.67,39.26,54.54,48.89,55.33,27.76,41.41,0,0,0,0,0,0,0,0,0,0,0,0,0,0,0,0,
308,313.3,312.7,183.6,235.1,166.3,205.9,46.48,91.69,74.77,80.93,50.2,63.65,56.47,60.64,29.66,40.59,0,0,0,0,0,0,0,0,0,0,0,0,0,0,0,0,
309,314.8,313.4,205.8,244.5,177.9,224.9,64.35,92.52,79.2,94.18,54.92,68.89,60.46,68.33,36.43,46.92,0,0,0,0,0,0,0,0,0,0,0,0,0,0,0,0,
310,314.9,312.7,206.5,240.6,181.9,224.2,46.07,84.56,77.95,97.53,48.06,53.99,53.52,59.22,36.71,37.16,0,0,0,0,0,0,0,0,0,0,0,0,0,0,0,0,
311,317.9,316.2,181.0,243.8,187.9,230.3,36.68,86.73,74.79,95.51,47.76,51.08,56.53,58.12,43.4,36.81,0,0,0,0,0,0,0,0,0,0,0,0,0,0,0,0,
312,319.0,315.7,174.2,239.4,189.6,235.4,57.61,93.08,85.75,108.3,60.76,63.37,64.8,67.33,49.49,49.11,0,0,0,0,0,0,0,0,0,0,0,0,0,0,0,0,
313,307.1,312.9,188.3,234.1,178.0,224.4,48.43,90.9,86.74,112.8,57.36,61.71,51.42,57.4,31.81,39.29,0,0,0,0,0,0,0,0,0,0,0,0,0,0,0,0,
314,284.2,300.2,186.6,228.4,173.1,216.7,30.36,88.99,72.56,103.2,37.56,53.57,39.49,46.68,18.65,25.23,0,0,0,0,0,0,0,0,0,0,0,0,0,0,0,0,
315,261.3,275.3,166.4,213.5,175.7,210.4,30.64,86.01,74.7,100.6,20.43,43.45,37.53,43.63,18.25,19.7,0,0,0,0,0,0,0,0,0,0,0,0,0,0,0,0,
316,231.4,244.6,140.2,195.0,158.9,187.1,16.07,75.54,71.78,90.6,7.154,28.57,25.17,32.71,6.951,6.753,0,0,0,0,0,0,0,0,0,0,0,0,0,0,0,0,
317,193.9,205.1,117.4,182.6,142.3,172.9,12.3,78.32,56.77,78.86,16.84,32.23,29.49,36.67,13.59,11.71,0,0,0,0,0,0,0,0,0,0,0,0,0,0,0,0,
318,169.1,169.0,104.5,172.7,141.6,172.7,26.15,86.13,68.64,88.39,36.11,42.58,45.59,46.04,28.71,28.3,0,0,0,0,0,0,0,0,0,0,0,0,0,0,0,0,
319,144.7,139.5,93.16,144.2,116.0,144.1,6.905,63.04,71.88,83.31,12.68,27.89,22.78,24.48,-0.5289,11.78,0,0,0,0,0,0,0,0,0,0,0,0,0,0,0,0,
320,104.4,101.1,81.58,106.9,77.99,102.1,-21.81,38.45,34.97,50.69,-18.15,10.97,-6.405,3.196,-24.54,-10.95,0,0,0,0,0,0,0,0,0,0,0,0,0,0,0,0,
321,71.95,65.7,76.43,96.6,74.94,90.1,-19.26,44.9,21.27,36.12,-0.6951,12.54,2.976,4.734,-2.267,-7.589,0,0,0,0,0,0,0,0,0,0,0,0,0,0,0,0,
322,50.25,40.45,70.56,94.31,74.73,84.75,-3.062,42.32,38.5,37.69,18.82,15.06,12.7,0.8882,2.841,-4.185,0,0,0,0,0,0,0,0,0,0,0,0,0,0,0,0,
323,25.73,14.05,55.01,69.79,55.17,63.79,11.61,23.48,33.27,28.68,10.73,14.53,7.74,-2.836,-14.67,-6.813,0,0,0,0,0,0,0,0,0,0,0,0,0,0,0,0,
324,10.29,-6.163,30.46,49.24,52.56,50.94,13.04,24.48,23.66,21.1,7.762,15.11,13.2,6.495,-10.31,-4.986,0,0,0,0,0,0,0,0,0,0,0,0,0,0,0,0,
325,0.4505,-24.19,19.59,47.03,58.45,52.87,4.414,32.52,34.44,22.83,13.25,18.27,22.61,16.19,4.027,1.799,0,0,0,0,0,0,0,0,0,0,0,0,0,0,0,0,
326,-10.34,-41.43,49.25,44.22,52.18,54.66,15.05,26.87,40.84,31.02,21.65,26.43,27.15,24.5,16.0,16.93,0,0,0,0,0,0,0,0,0,0,0,0,0,0,0,0,
327,-15.58,-43.83,79.63,35.1,49.47,48.7,27.01,19.36,37.73,39.15,28.66,24.67,24.64,22.16,19.55,20.33,0,0,0,0,0,0,0,0,0,0,0,0,0,0,0,0,
328,-32.52,-53.6,59.73,26.41,47.49,37.44,6.019,18.91,31.07,29.38,17.25,14.97,11.67,6.945,8.156,5.84,0,0,0,0,0,0,0,0,0,0,0,0,0,0,0,0,
329,-60.46,-77.27,28.74,26.93,39.35,30.96,-13.97,24.05,19.0,14.24,5.605,16.34,7.263,3.466,6.903,4.363,0,0,0,0,0,0,0,0,0,0,0,0,0,0,0,0,
330,-75.13,-89.27,18.03,29.53,31.92,28.32,2.656,26.85,15.51,14.47,13.54,15.73,16.5,8.846,13.54,12.33,0,0,0,0,0,0,0,0,0,0,0,0,0,0,0,0,
331,-86.91,-107.0,1.27,19.98,26.43,24.07,18.96,25.91,23.22,17.55,19.32,13.49,20.4,11.29,8.236,14.3,0,0,0,0,0,0,0,0,0,0,0,0,0,0,0,0,
332,-105.8,-134.2,-5.58,11.14,28.91,22.99,-7.867,26.95,25.84,22.26,10.1,28.82,18.75,19.54,7.067,22.57,0,0,0,0,0,0,0,0,0,0,0,0,0,0,0,0,
333,-117.8,-139.7,8.572,12.8,33.03,23.34,-44.54,27.02,21.74,32.41,0.4761,38.02,18.59,23.97,11.41,29.49,0,0,0,0,0,0,0,0,0,0,0,0,0,0,0,0,
334,-118.8,-135.6,9.623,16.1,29.11,25.06,-34.58,31.15,22.23,36.3,7.038,29.63,21.46,22.27,12.59,25.39,0,0,0,0,0,0,0,0,0,0,0,0,0,0,0,0,
335,-120.0,-137.3,7.256,18.24,26.54,28.84,-1.676,37.69,27.93,40.36,21.43,27.22,25.01,26.06,13.45,19.42,0,0,0,0,0,0,0,0,0,0,0,0,0,0,0,0,
336,-134.4,-136.5,11.43,12.6,20.57,21.59,1.883,30.45,24.18,41.83,16.82,23.96,18.01,22.0,0.622,9.847,0,0,0,0,0,0,0,0,0,0,0,0,0,0,0,0,
337,-145.3,-143.1,1.307,3.783,13.23,12.63,-3.365,24.03,12.04,30.72,2.215,16.08,8.873,14.98,-12.28,7.43,0,0,0,0,0,0,0,0,0,0,0,0,0,0,0,0,
338,-134.2,-151.5,-3.384,10.15,22.49,21.52,10.67,29.77,12.84,32.43,7.142,24.1,16.84,26.39,4.948,27.68,0,0,0,0,0,0,0,0,0,0,0,0,0,0,0,0,
339,-127.8,-144.4,-2.052,18.76,32.65,30.77,17.64,27.46,23.85,49.25,25.78,35.03,30.79,37.03,29.85,48.14,0,0,0,0,0,0,0,0,0,0,0,0,0,0,0,0,
340,-134.6,-136.9,-13.0,14.43,33.12,28.89,11.73,24.89,30.43,51.02,38.51,29.25,34.85,31.21,34.62,44.7,0,0,0,0,0,0,0,0,0,0,0,0,0,0,0,0,
341,-131.4,-137.7,1.481,13.97,36.07,29.62,20.35,31.0,36.82,44.65,39.89,21.72,32.77,25.5,22.78,25.03,0,0,0,0,0,0,0,0,0,0,0,0,0,0,0,0,
342,-131.3,-133.2,20.04,17.93,29.78,25.56,30.83,20.75,40.8,40.96,27.29,15.97,23.9,20.29,-3.81,3.378,0,0,0,0,0,0,0,0,0,0,0,0,0,0,0,0,
343,-146.5,-132.7,-15.0,8.779,13.59,7.729,9.595,1.514,32.71,26.75,1.38,1.579,6.575,8.351,-27.52,-9.324,0,0,0,0,0,0,0,0,0,0,0,0,0,0,0,0,
344,-154.3,-148.4,-36.13,-6.845,7.963,-5.514,-23.11,0.3534,18.03,13.51,-17.18,-2.467,-3.15,3.74,-22.67,-4.009,0,0,0,0,0,0,0,0,0,0,0,0,0,0,0,0,
345,-150.2,-162.3,-8.764,-20.9,2.949,-11.23,-26.84,1.284,8.524,15.58,-11.74,6.514,-1.861,6.153,-11.65,5.192,0,0,0,0,0,0,0,0,0,0,0,0,0,0,0,0,
346,-157.4,-169.9,-17.47,-41.62,-20.04,-29.28,-20.17,-13.22,1.237,10.16,-12.18,-5.998,-13.65,-6.643,-27.88,-5.614,0,0,0,0,0,0,0,0,0,0,0,0,0,0,0,0,
347,-179.5,-185.0,-58.8,-58.49,-47.12,-50.89,-33.95,-28.39,-16.34,-12.19,-36.8,-30.99,-34.99,-28.66,-49.69,-25.17,0,0,0,0,0,0,0,0,0,0,0,0,0,0,0,0,
348,-192.1,-195.2,-79.94,-60.3,-55.29,-56.66,-50.94,-38.82,-31.16,-28.92,-49.59,-41.45,-38.08,-40.11,-49.43,-35.12,0,0,0,0,0,0,0,0,0,0,0,0,0,0,0,0,
349,-188.9,-190.9,-87.64,-65.93,-51.46,-62.56,-62.09,-52.46,-27.68,-40.42,-43.67,-51.88,-31.14,-45.37,-39.83,-42.57,0,0,0,0,0,0,0,0,0,0,0,0,0,0,0,0,
350,-177.8,-185.4,-69.47,-73.82,-53.05,-71.19,-74.41,-59.88,-26.51,-52.16,-36.02,-51.77,-24.86,-39.42,-27.76,-36.98,0,0,0,0,0,0,0,0,0,0,0,0,0,0,0,0,
351,-156.8,-176.2,-49.12,-65.17,-50.8,-59.72,-69.27,-50.9,-27.53,-41.79,-15.26,-26.89,-8.454,-16.53,-7.777,-7.845,0,0,0,0,0,0,0,0,0,0,0,0,0,0,0,0,
352,-145.4,-160.1,-68.35,-57.25,-38.05,-44.26,-42.9,-33.72,-11.11,-16.93,5.874,-11.57,4.824,-1.038,10.48,17.75,0,0,0,0,0,0,0,0,0,0,0,0,0,0,0,0,
353,-147.9,-146.2,-62.83,-55.37,-28.01,-44.03,-14.66,-18.31,-1.228,-7.057,10.49,-6.066,3.649,1.521,18.14,26.67,0,0,0,0,0,0,0,0,0,0,0,0,0,0,0,0,
354,-137.1,-137.0,-18.97,-39.58,-23.43,-41.02,2.242,-10.4,-9.642,-4.487,15.67,7.925,2.765,6.384,15.17,29.25,0,0,0,0,0,0,0,0,0,0,0,0,0,0,0,0,
355,-124.6,-136.9,-13.24,-22.18,-20.3,-32.98,-3.419,-4.516,-6.922,-0.3844,21.37,15.86,9.877,15.44,17.74,35.47,0,0,0,0,0,0,0,0,0,0,0,0,0,0,0,0,
356,-121.1,-135.4,-24.07,-14.27,-15.45,-27.43,-5.737,12.64,9.649,4.058,27.68,26.9,23.84,31.19,39.74,56.37,0,0,0,0,0,0,0,0,0,0,0,0,0,0,0,0,
357,-107.1,-115.2,-16.31,-4.538,-5.869,-17.94,28.27,28.53,20.66,17.3,42.08,38.6,32.58,40.8,52.82,71.37,0,0,0,0,0,0,0,0,0,0,0,0,0,0,0,0,
358,-97.88,-96.31,-18.32,1.28,0.7231,-10.8,50.96,26.23,22.09,24.78,47.31,28.31,28.97,33.15,46.17,62.59,0,0,0,0,0,0,0,0,0,0,0,0,0,0,0,0,
359,-101.3,-101.4,-14.5,-4.283,-0.4404,-13.21,20.54,18.98,21.1,15.76,43.28,24.09,27.77,31.22,46.22,56.42,0,0,0,0,0,0,0,0,0,0,0,0,0,0,0,0,
360,-104.0,-119.4,0.7893,-18.11,-8.392,-23.39,-11.13,10.9,17.02,6.629,32.56,28.41,20.74,30.35,35.21,46.92,0,0,0,0,0,0,0,0,0,0,0,0,0,0,0,0,
361,-115.7,-130.9,-6.71,-31.01,-19.65,-35.63,-6.057,-1.866,0.9162,-3.235,8.987,10.66,3.598,15.05,8.695,20.35,0,0,0,0,0,0,0,0,0,0,0,0,0,0,0,0,
362,-120.2,-120.6,-27.31,-23.69,-15.87,-30.86,5.152,-1.824,-6.274,-6.898,6.829,3.055,8.902,15.29,12.3,16.93,0,0,0,0,0,0,0,0,0,0,0,0,0,0,0,0,
363,-101.6,-100.2,-40.98,-6.36,0.164,-13.86,-1.738,3.598,12.2,9.809,20.34,12.29,19.6,23.29,20.26,25.99,0,0,0,0,0,0,0,0,0,0,0,0,0,0,0,0,
364,-94.43,-100.7,-43.72,-11.31,-4.425,-14.87,-16.09,-10.8,14.91,14.29,2.533,-4.986,1.929,3.153,-5.356,2.571,0,0,0,0,0,0,0,0,0,0,0,0,0,0,0,0,
365,-104.1,-112.2,-27.42,-27.07,-23.01,-24.84,-20.47,-24.21,-7.602,-4.649,-7.492,-21.01,-5.805,-12.71,-9.86,-12.23,0,0,0,0,0,0,0,0,0,0,0,0,0,0,0,0,
366,-105.2,-107.5,-13.17,-26.46,-22.84,-20.64,-15.52,-15.97,-10.57,-5.67,15.6,-5.598,7.039,-3.385,12.92,8.31,0,0,0,0,0,0,0,0,0,0,0,0,0,0,0,0,
367,-106.3,-101.0,-33.17,-20.3,-15.02,-17.53,-16.02,-10.96,-2.487,4.742,12.91,1.032,1.403,-4.67,4.465,16.17,0,0,0,0,0,0,0,0,0,0,0,0,0,0,0,0,
368,-114.2,-108.8,-70.11,-20.51,-16.5,-24.35,-25.95,-16.68,-7.032,-4.038,-8.302,-6.822,-6.162,-13.15,-9.21,10.77,0,0,0,0,0,0,0,0,0,0,0,0,0,0,0,0,
369,-112.9,-113.9,-75.69,-20.25,-14.62,-25.98,-39.58,-14.38,-5.548,-10.0,-9.245,-1.744,0.7452,-7.373,4.99,18.36,0,0,0,0,0,0,0,0,0,0,0,0,0,0,0,0,
370,-105.3,-108.8,-44.86,-23.22,-13.97,-25.19,-42.51,-9.177,-5.373,-1.182,-11.82,5.418,-2.118,-0.44,9.685,21.58,0,0,0,0,0,0,0,0,0,0,0,0,0,0,0,0,
371,-103.4,-103.2,-26.39,-26.82,-17.24,-25.91,-16.53,-8.142,-13.22,4.955,-11.45,6.071,1.148,9.095,4.985,20.76,0,0,0,0,0,0,0,0,0,0,0,0,0,0,0,0,
372,-96.47,-93.99,-44.16,-17.54,-0.7749,-14.79,11.75,-4.969,5.265,15.87,4.074,8.257,22.39,25.65,9.914,26.98,0,0,0,0,0,0,0,0,0,0,0,0,0,0,0,0,
373,-83.71,-82.78,-57.86,-13.32,19.69,-3.07,-1.35,-8.601,34.26,28.81,4.341,9.123,27.7,27.64,4.509,20.99,0,0,0,0,0,0,0,0,0,0,0,0,0,0,0,0,
374,-84.71,-86.44,-40.05,-26.62,12.84,-10.99,-24.44,-17.95,27.19,22.71,-2.639,12.59,22.74,19.79,-0.6003,9.995,0,0,0,0,0,0,0,0,0,0,0,0,0,0,0,0,
375,-90.02,-98.46,-36.67,-26.37,1.282,-18.11,-7.201,-13.39,15.96,14.84,8.974,19.5,32.85,23.72,13.41,18.34,0,0,0,0,0,0,0,0,0,0,0,0,0,0,0,0,
376,-84.22,-97.36,-60.24,-15.65,1.595,-10.68,17.51,-3.716,35.01,21.06,20.09,15.3,37.33,25.12,19.71,25.55,0,0,0,0,0,0,0,0,0,0,0,0,0,0,0,0,
377,-84.78,-95.24,-44.85,-30.05,-5.413,-14.63,3.012,-4.431,35.97,17.26,14.46,4.771,23.43,11.23,7.956,13.29,0,0,0,0,0,0,0,0,0,0,0,0,0,0,0,0,
378,-96.04,-106.3,-27.21,-46.93,-20.02,-31.34,-24.23,-5.594,5.92,-0.3483,1.149,5.312,12.21,2.639,-1.471,7.461,0,0,0,0,0,0,0,0,0,0,0,0,0,0,0,0,
379,-106.0,-108.8,-87.08,-35.86,-30.71,-36.69,-27.64,-9.796,3.402,-8.417,-6.364,11.67,10.6,5.861,-2.508,17.68,0,0,0,0,0,0,0,0,0,0,0,0,0,0,0,0,
380,-109.1,-103.1,-116.1,-26.11,-36.74,-36.95,-28.39,-22.63,15.41,-8.985,-5.647,8.336,5.907,0.7631,-3.617,15.64,0,0,0,0,0,0,0,0,0,0,0,0,0,0,0,0,
381,-95.64,-111.1,-46.81,-35.46,-37.61,-39.46,-40.8,-23.66,-8.276,-15.08,-7.211,-5.098,-0.2544,-11.16,-8.227,-1.623,0,0,0,0,0,0,0,0,0,0,0,0,0,0,0,0,
382,-90.9,-111.5,-29.93,-42.48,-32.82,-32.54,-29.45,-12.54,-20.22,-17.74,-3.909,-16.08,8.786,-10.37,-3.375,-5.92,0,0,0,0,0,0,0,0,0,0,0,0,0,0,0,0,
383,-115.2,-94.6,-80.17,-39.8,-29.22,-29.31,-1.88,-12.52,10.25,-11.5,11.91,-17.4,23.55,-3.676,13.35,2.85,0,0,0,0,0,0,0,0,0,0,0,0,0,0,0,0,
384,-108.8,-91.55,-43.4,-31.22,-34.49,-39.79,-7.127,-17.0,12.61,-9.74,20.58,-10.71,22.43,-0.373,21.83,10.19,0,0,0,0,0,0,0,0,0,0,0,0,0,0,0,0,
385,-62.48,-93.76,34.35,-19.14,-33.87,-37.93,-18.94,-9.07,-17.91,-10.02,20.41,2.89,22.07,12.45,24.4,22.96,0,0,0,0,0,0,0,0,0,0,0,0,0,0,0,0,
386,-55.26,-80.28,24.01,-13.79,-15.82,-22.08,1.314,4.616,-14.82,1.487,27.53,14.62,34.4,25.88,32.97,33.87,0,0,0,0,0,0,0,0,0,0,0,0,0,0,0,0,
387,-69.41,-62.23,-4.235,-8.879,-5.297,-13.96,12.5,17.62,4.48,12.2,35.86,15.72,37.51,22.88,34.89,27.65,0,0,0,0,0,0,0,0,0,0,0,0,0,0,0,0,
388,-48.27,-40.57,11.33,7.682,-0.4871,-3.713,12.8,30.38,6.103,13.14,41.07,18.6,36.28,25.03,31.79,24.9,0,0,0,0,0,0,0,0,0,0,0,0,0,0,0,0,
389,-28.91,-21.17,10.73,18.99,26.22,13.13,53.09,35.12,23.48,23.66,49.36,25.72,46.13,38.84,36.4,36.26,0,0,0,0,0,0,0,0,0,0,0,0,0,0,0,0,
390,-23.82,-20.33,15.15,14.02,40.06,14.21,83.26,25.9,50.16,37.21,51.12,19.7,47.64,35.3,35.75,36.5,0,0,0,0,0,0,0,0,0,0,0,0,0,0,0,0,
391,-27.78,-42.2,28.04,-0.3908,13.09,-0.6289,40.82,13.51,43.51,28.8,41.09,14.3,40.21,25.64,28.16,26.83,0,0,0,0,0,0,0,0,0,0,0,0,0,0,0,0,
392,-71.3,-79.67,-16.65,-21.89,0.7468,-9.43,11.91,14.75,32.21,22.3,39.91,28.72,49.76,39.3,35.16,31.15,0,0,0,0,0,0,0,0,0,0,0,0,0,0,0,0,
393,-88.5,-85.16,-24.92,-29.97,22.52,-5.866,54.45,21.8,50.25,40.94,51.16,33.9,61.72,49.77,46.4,40.78,0,0,0,0,0,0,0,0,0,0,0,0,0,0,0,0,
394,-35.46,-47.58,48.1,-18.69,26.14,-5.466,72.23,14.55,60.98,45.73,44.83,17.16,50.43,34.97,35.93,36.58,0,0,0,0,0,0,0,0,0,0,0,0,0,0,0,0,
395,-24.14,-44.91,48.87,-27.38,12.02,-15.15,38.76,2.171,50.58,24.41,26.38,11.51,40.72,27.99,22.81,25.99,0,0,0,0,0,0,0,0,0,0,0,0,0,0,0,0,
396,-61.86,-76.51,4.458,-56.1,17.72,-18.84,39.33,-5.35,55.64,20.36,29.71,13.57,49.82,35.69,26.9,19.16,0,0,0,0,0,0,0,0,0,0,0,0,0,0,0,0,
397,-49.95,-73.78,29.77,-64.53,21.88,-17.33,61.6,-18.62,68.13,26.71,33.48,-1.479,46.44,26.65,20.23,10.02,0,0,0,0,0,0,0,0,0,0,0,0,0,0,0,0,
398,-37.76,-63.3,35.11,-59.23,2.98,-27.65,46.84,-25.4,52.85,9.874,13.03,-13.28,27.94,11.09,0.2839,1.096,0,0,0,0,0,0,0,0,0,0,0,0,0,0,0,0,
399,-69.19,-75.12,-5.549,-60.34,-7.732,-37.88,26.74,-15.87,28.47,-4.045,0.1208,-6.147,25.41,14.28,0.4032,4.348,0,0,0,0,0,0,0,0,0,0,0,0,0,0,0,0,
400,-72.84,-81.88,-4.942,-59.43,-3.426,-34.45,25.21,-13.45,24.58,4.873,-0.5687,-0.6518,27.75,18.19,5.008,7.401,0,0,0,0,0,0,0,0,0,0,0,0,0,0,0,0,
401,-63.3,-89.51,5.138,-60.5,-8.768,-32.37,17.95,-20.05,24.44,8.642,-10.18,-4.414,16.09,9.562,-6.131,-1.375,0,0,0,0,0,0,0,0,0,0,0,0,0,0,0,0,
402,-82.79,-95.88,-12.75,-68.46,-15.45,-36.73,17.62,-21.84,16.96,2.178,-7.4,-8.633,11.51,8.015,-2.173,0.5627,0,0,0,0,0,0,0,0,0,0,0,0,0,0,0,0,
403,-81.74,-80.11,-11.41,-68.59,-10.59,-38.31,32.31,-27.63,18.27,2.6,6.913,-13.65,14.88,12.89,11.22,9.566,0,0,0,0,0,0,0,0,0,0,0,0,0,0,0,0,
404,-62.09,-70.95,15.04,-66.71,-9.793,-41.27,31.48,-34.05,17.63,0.5316,0.7764,-18.82,5.883,6.088,3.806,0.7574,0,0,0,0,0,0,0,0,0,0,0,0,0,0,0,0,
405,-64.73,-79.56,17.79,-72.35,-12.46,-43.13,32.1,-27.24,4.402,-9.666,1.189,-11.21,6.006,5.162,7.999,5.701,0,0,0,0,0,0,0,0,0,0,0,0,0,0,0,0,
406,-60.19,-70.41,-5.252,-66.25,-3.783,-31.69,56.86,-19.99,7.794,-4.93,27.41,5.199,27.6,23.71,31.16,31.88,0,0,0,0,0,0,0,0,0,0,0,0,0,0,0,0,
407,-46.95,-57.5,0.0599,-51.82,2.774,-20.38,60.75,-23.32,22.3,12.43,31.45,4.576,33.25,29.96,25.26,25.25,0,0,0,0,0,0,0,0,0,0,0,0,0,0,0,0,
408,-54.43,-69.37,32.07,-48.78,-1.105,-20.32,46.63,-20.56,16.06,15.0,16.26,-1.742,21.28,20.48,8.275,5.231,0,0,0,0,0,0,0,0,0,0,0,0,0,0,0,0,
409,-54.1,-67.78,38.05,-39.42,2.989,-13.14,52.44,-4.593,14.11,13.78,19.9,10.64,20.18,22.51,11.55,13.0,0,0,0,0,0,0,0,0,0,0,0,0,0,0,0,0,
410,-39.49,-40.29,21.85,-19.49,11.99,-0.4864,37.22,5.326,27.81,23.88,14.41,16.06,17.2,24.88,5.438,11.48,0,0,0,0,0,0,0,0,0,0,0,0,0,0,0,0,
411,-32.62,-31.69,15.09,-13.96,16.4,4.406,12.35,4.642,25.05,29.57,-2.849,9.288,11.84,25.97,-1.649,2.481,0,0,0,0,0,0,0,0,0,0,0,0,0,0,0,0,
412,-19.85,-35.42,20.91,-18.67,27.62,11.16,42.89,8.471,19.68,35.69,5.178,20.7,22.92,43.89,12.57,21.3,0,0,0,0,0,0,0,0,0,0,0,0,0,0,0,0,
413,-15.98,-29.41,31.12,-21.44,37.47,15.38,72.52,14.94,27.78,47.5,14.89,35.59,32.14,57.27,21.91,42.58,0,0,0,0,0,0,0,0,0,0,0,0,0,0,0,0,
414,-32.8,-32.76,39.24,-21.27,37.61,12.9,55.43,18.04,32.37,49.26,14.97,37.26,35.94,57.51,30.65,53.83,0,0,0,0,0,0,0,0,0,0,0,0,0,0,0,0,
415,-28.4,-34.19,47.94,-15.89,41.27,18.04,46.25,20.74,41.92,50.44,28.45,39.22,45.07,61.09,44.36,61.82,0,0,0,0,0,0,0,0,0,0,0,0,0,0,0,0,
416,-10.97,-23.76,52.68,-15.99,40.15,19.39,45.37,16.56,50.02,55.41,28.81,37.96,38.42,55.88,32.14,49.08,0,0,0,0,0,0,0,0,0,0,0,0,0,0,0,0,
417,-15.37,-32.55,42.37,-22.8,29.17,7.312,30.56,6.266,37.63,48.76,10.74,33.54,21.31,41.03,10.56,26.65,0,0,0,0,0,0,0,0,0,0,0,0,0,0,0,0,
418,-24.23,-52.25,24.09,-31.66,19.68,-6.284,20.03,-1.466,26.2,37.93,8.529,29.47,13.99,29.79,5.295,14.85,0,0,0,0,0,0,0,0,0,0,0,0,0,0,0,0,
419,-34.6,-56.1,4.306,-49.94,5.798,-21.25,14.42,-9.149,18.36,25.79,8.437,15.27,3.234,14.04,-1.183,7.278,0,0,0,0,0,0,0,0,0,0,0,0,0,0,0,0,
420,-53.47,-55.43,-13.67,-56.39,-1.619,-26.61,15.61,-9.88,5.642,9.509,-5.368,1.535,-8.602,-0.6365,-12.18,-1.951,0,0,0,0,0,0,0,0,0,0,0,0,0,0,0,0,
421,-58.46,-59.73,-15.21,-42.74,6.895,-18.6,21.74,-3.627,7.443,4.952,-15.77,-2.597,-10.81,-4.258,-19.69,-14.83,0,0,0,0,0,0,0,0,0,0,0,0,0,0,0,0,
422,-52.31,-68.9,4.505,-45.65,2.578,-23.88,12.79,-15.47,10.07,6.005,-18.36,-13.13,-12.59,-9.52,-20.8,-22.39,0,0,0,0,0,0,0,0,0,0,0,0,0,0,0,0,
423,-57.85,-78.04,24.13,-56.91,-11.74,-35.45,-3.725,-35.62,-2.535,-3.381,-15.24,-28.19,-12.46,-18.15,-16.31,-21.11,0,0,0,0,0,0,0,0,0,0,0,0,0,0,0,0,
424,-70.48,-73.99,16.67,-51.74,-11.4,-30.53,-10.08,-31.12,-7.429,-9.486,-10.3,-29.25,-9.362,-17.18,-17.62,-22.59,0,0,0,0,0,0,0,0,0,0,0,0,0,0,0,0,
425,-67.39,-68.04,-0.2854,-54.81,-10.81,-24.55,-2.542,-20.49,-6.829,-2.896,-9.992,-19.71,-8.543,-7.817,-15.93,-17.75,0,0,0,0,0,0,0,0,0,0,0,0,0,0,0,0,
426,-49.77,-73.9,2.101,-65.16,-15.55,-27.03,11.72,-27.95,-12.43,1.865,-10.85,-19.47,-7.703,-5.157,-6.885,-8.923,0,0,0,0,0,0,0,0,0,0,0,0,0,0,0,0,
427,-53.6,-76.73,-8.936,-63.16,-12.98,-30.5,16.48,-35.72,-11.11,-4.361,-12.35,-27.19,-9.618,-9.694,-10.74,-13.17,0,0,0,0,0,0,0,0,0,0,0,0,0,0,0,0,
428,-76.78,-74.03,-35.48,-64.73,-10.91,-34.84,5.699,-39.39,-5.226,-9.777,-13.67,-26.56,-12.89,-8.011,-18.33,-15.62,0,0,0,0,0,0,0,0,0,0,0,0,0,0,0,0,
429,-73.75,-76.19,-18.26,-63.15,-13.24,-33.51,-20.92,-42.71,-7.402,-5.341,-11.52,-25.05,-13.64,-8.229,-17.19,-14.32,0,0,0,0,0,0,0,0,0,0,0,0,0,0,0,0,
430,-54.02,-73.71,11.14,-46.52,-13.52,-26.9,-36.75,-30.7,-14.67,-3.454,-12.38,-28.21,-16.82,-17.35,-19.55,-18.89,0,0,0,0,0,0,0,0,0,0,0,0,0,0,0,0,
431,-53.13,-61.7,-10.63,-45.41,-16.13,-29.71,-13.12,-17.94,-19.75,-9.482,-19.06,-22.52,-21.86,-20.83,-26.16,-18.3,0,0,0,0,0,0,0,0,0,0,0,0,0,0,0,0,
432,-57.88,-56.32,-29.8,-56.55,-24.81,-37.85,0.1813,-23.27,-24.81,-14.15,-25.9,-15.65,-29.18,-23.87,-35.74,-23.39,0,0,0,0,0,0,0,0,0,0,0,0,0,0,0,0,
433,-57.39,-63.3,-5.544,-48.39,-33.37,-39.06,-22.74,-24.67,-34.53,-19.2,-24.02,-19.73,-36.87,-33.24,-38.78,-32.78,0,0,0,0,0,0,0,0,0,0,0,0,0,0,0,0,
434,-61.37,-66.66,7.376,-40.19,-34.09,-39.83,-28.3,-20.79,-38.48,-26.55,-9.697,-24.33,-33.48,-32.56,-22.34,-20.86,0,0,0,0,0,0,0,0,0,0,0,0,0,0,0,0,
435,-58.93,-60.02,-5.374,-48.63,-24.8,-40.67,-15.43,-28.0,-30.48,-26.83,1.027,-21.17,-22.98,-22.63,-6.248,-6.397,0,0,0,0,0,0,0,0,0,0,0,0,0,0,0,0,
436,-42.83,-55.29,-9.769,-47.87,-11.13,-30.54,1.694,-28.78,-20.66,-17.89,-0.9178,-12.69,-14.16,-14.96,-1.466,-5.323,0,0,0,0,0,0,0,0,0,0,0,0,0,0,0,0,
437,-30.48,-48.57,-6.127,-32.17,-1.116,-15.98,25.0,-18.67,-8.845,-8.839,-4.098,-7.949,-6.609,-8.509,-0.0357,-0.5515,0,0,0,0,0,0,0,0,0,0,0,0,0,0,0,0,
438,-27.32,-30.98,4.783,-21.17,3.771,-6.528,14.33,-12.28,3.645,-3.995,-5.786,-9.268,-4.996,-2.779,-5.494,3.221,0,0,0,0,0,0,0,0,0,0,0,0,0,0,0,0,
439,-21.28,-22.16,28.37,-20.36,7.228,-0.4331,-4.254,-2.071,5.638,2.389,-4.602,-6.027,-4.984,4.995,-5.832,3.209,0,0,0,0,0,0,0,0,0,0,0,0,0,0,0,0,
440,-17.45,-28.39,36.46,-21.09,12.22,-0.6587,8.349,8.633,3.862,10.2,4.999,-0.8952,3.01,14.91,5.171,10.91,0,0,0,0,0,0,0,0,0,0,0,0,0,0,0,0,
441,-25.41,-29.3,16.42,-20.03,19.12,-3.268,-4.601,6.15,9.656,13.08,13.66,-0.0909,12.89,19.73,13.7,21.42,0,0,0,0,0,0,0,0,0,0,0,0,0,0,0,0,
442,-30.66,-31.9,3.273,-24.68,17.06,-3.661,-20.6,-0.1389,16.28,11.3,13.98,1.138,17.05,19.25,21.79,25.13,0,0,0,0,0,0,0,0,0,0,0,0,0,0,0,0,
443,-25.51,-45.03,18.73,-33.3,-1.611,-15.27,15.64,-6.257,11.02,3.103,10.83,-2.401,11.09,13.28,17.46,14.29,0,0,0,0,0,0,0,0,0,0,0,0,0,0,0,0,
444,-24.66,-47.42,35.68,-35.84,-14.23,-30.68,36.88,-13.16,-4.168,-8.745,6.049,-8.112,-2.286,2.851,-8.149,-5.64,0,0,0,0,0,0,0,0,0,0,0,0,0,0,0,0,
445,-32.62,-37.58,22.5,-33.62,-6.494,-25.63,23.47,-5.101,-9.932,-10.34,0.2772,-3.714,-8.073,-2.884,-21.6,-14.38,0,0,0,0,0,0,0,0,0,0,0,0,0,0,0,0,
446,-40.96,-35.0,-4.879,-32.01,-2.242,-16.6,20.33,8.57,-3.743,-6.859,-1.621,-4.048,-8.273,-7.304,-18.94,-13.93,0,0,0,0,0,0,0,0,0,0,0,0,0,0,0,0,
447,-46.1,-44.22,-15.26,-37.46,-11.38,-28.7,15.46,-4.284,-5.373,-14.6,1.68,-22.18,-16.7,-18.68,-23.24,-16.68,0,0,0,0,0,0,0,0,0,0,0,0,0,0,0,0,
448,-51.04,-58.29,-17.46,-48.33,-20.59,-44.06,6.37,-29.42,-15.8,-27.49,-2.527,-37.1,-26.31,-28.39,-25.69,-20.65,0,0,0,0,0,0,0,0,0,0,0,0,0,0,0,0,
449,-56.18,-65.93,-22.5,-50.38,-30.07,-44.93,-10.41,-30.95,-22.46,-34.85,-22.03,-34.73,-28.41,-30.69,-25.12,-25.21,0,0,0,0,0,0,0,0,0,0,0,0,0,0,0,0,
450,-55.33,-66.41,-13.68,-49.88,-40.55,-45.12,-38.53,-24.73,-27.22,-37.53,-35.5,-31.75,-29.33,-33.55,-28.1,-28.91,0,0,0,0,0,0,0,0,0,0,0,0,0,0,0,0,
451,-54.86,-67.42,2.426,-57.11,-45.85,-51.26,-32.21,-35.9,-36.59,-37.62,-31.86,-38.92,-34.46,-39.89,-27.96,-30.58,0,0,0,0,0,0,0,0,0,0,0,0,0,0,0,0,
452,-64.28,-63.26,-6.618,-58.97,-44.16,-50.41,-6.151,-42.64,-46.18,-37.0,-29.34,-37.08,-40.09,-41.01,-30.18,-29.52,0,0,0,0,0,0,0,0,0,0,0,0,0,0,0,0,
453,-62.87,-50.92,-30.49,-52.9,-29.49,-38.65,-0.6702,-29.28,-41.21,-31.1,-22.51,-15.9,-30.91,-27.17,-22.05,-10.86,0,0,0,0,0,0,0,0,0,0,0,0,0,0,0,0,
454,-40.34,-40.31,-20.48,-43.87,-8.917,-27.68,17.09,-17.27,-20.82,-16.3,4.938,1.144,-4.208,-6.103,11.4,21.8,0,0,0,0,0,0,0,0,0,0,0,0,0,0,0,0,
455,-31.82,-42.3,14.41,-33.11,-7.872,-29.36,33.83,-15.52,-8.08,-7.964,30.84,0.8401,11.9,0.0448,34.11,35.36,0,0,0,0,0,0,0,0,0,0,0,0,0,0,0,0,
456,-46.14,-56.98,14.74,-32.19,-23.92,-39.11,9.34,-12.99,-11.96,-16.24,28.68,-8.133,3.604,-12.47,24.56,21.18,0,0,0,0,0,0,0,0,0,0,0,0,0,0,0,0,
457,-51.32,-63.81,-15.9,-40.03,-32.62,-42.59,-16.31,-16.07,-21.26,-28.02,4.352,-22.54,-11.73,-27.72,2.599,-1.881,0,0,0,0,0,0,0,0,0,0,0,0,0,0,0,0,
458,-53.13,-57.48,-34.01,-47.65,-32.9,-42.19,-14.16,-31.44,-32.67,-33.19,-16.3,-32.62,-23.59,-36.02,-21.42,-21.63,0,0,0,0,0,0,0,0,0,0,0,0,0,0,0,0,
459,-64.68,-56.28,-30.78,-53.58,-30.22,-44.96,-4.82,-38.09,-40.01,-31.81,-17.56,-32.4,-29.46,-35.59,-33.7,-33.42,0,0,0,0,0,0,0,0,0,0,0,0,0,0,0,0,
460,-57.12,-55.55,-4.42,-50.87,-25.61,-44.15,-2.958,-29.4,-36.71,-26.62,-18.33,-36.6,-29.26,-31.5,-30.19,-38.4,0,0,0,0,0,0,0,0,0,0,0,0,0,0,0,0,
461,-39.74,-49.78,18.65,-47.01,-28.78,-39.35,-6.525,-28.55,-35.04,-25.39,-29.7,-41.43,-30.93,-33.01,-31.43,-39.52,0,0,0,0,0,0,0,0,0,0,0,0,0,0,0,0,
462,-46.17,-48.15,-5.667,-51.47,-32.36,-36.73,-6.092,-35.68,-38.61,-29.27,-30.16,-36.35,-32.23,-39.6,-34.3,-39.3,0,0,0,0,0,0,0,0,0,0,0,0,0,0,0,0,
463,-49.8,-45.16,-37.59,-52.48,-26.99,-38.89,-17.29,-36.97,-37.16,-34.82,-26.38,-39.72,-29.5,-46.07,-32.82,-44.34,0,0,0,0,0,0,0,0,0,0,0,0,0,0,0,0,
464,-46.18,-47.81,-25.63,-52.05,-29.68,-47.75,-40.6,-40.9,-36.45,-42.38,-37.96,-51.69,-32.39,-49.04,-39.34,-50.24,0,0,0,0,0,0,0,0,0,0,0,0,0,0,0,0,
465,-68.27,-61.42,-7.809,-53.22,-39.96,-55.14,-36.44,-47.22,-43.68,-45.45,-46.43,-49.36,-40.61,-47.19,-43.7,-47.88,0,0,0,0,0,0,0,0,0,0,0,0,0,0,0,0,
466,-78.25,-60.2,-16.17,-47.53,-42.49,-54.41,-19.14,-43.96,-50.06,-42.79,-41.96,-39.38,-44.03,-46.1,-37.67,-42.9,0,0,0,0,0,0,0,0,0,0,0,0,0,0,0,0,
467,-52.62,-51.75,-33.91,-47.79,-45.26,-51.42,-21.23,-36.46,-48.23,-43.18,-34.43,-34.55,-42.01,-47.16,-33.97,-37.6,0,0,0,0,0,0,0,0,0,0,0,0,0,0,0,0,
468,-45.33,-57.53,-41.71,-51.6,-48.35,-45.9,-20.86,-30.43,-43.89,-43.24,-23.99,-26.22,-38.89,-45.45,-31.78,-29.25,0,0,0,0,0,0,0,0,0,0,0,0,0,0,0,0,
469,-50.74,-46.69,-20.01,-36.68,-36.93,-35.38,-13.28,-24.13,-43.58,-36.37,-18.3,-15.17,-33.95,-40.43,-27.02,-23.45,0,0,0,0,0,0,0,0,0,0,0,0,0,0,0,0,
470,-33.71,-18.71,7.939,-21.96,-17.53,-26.1,-9.003,-21.25,-37.56,-25.93,-18.18,-13.44,-25.06,-31.64,-22.82,-21.68,0,0,0,0,0,0,0,0,0,0,0,0,0,0,0,0,
471,-34.41,-21.47,-2.824,-27.51,-10.17,-23.95,-7.465,-21.59,-25.48,-19.52,-13.07,-18.72,-19.37,-23.63,-17.41,-22.73,0,0,0,0,0,0,0,0,0,0,0,0,0,0,0,0,
472,-52.04,-33.96,-13.3,-27.89,-13.28,-23.75,-14.39,-17.59,-25.53,-19.32,-8.935,-19.29,-20.71,-23.8,-13.4,-25.45,0,0,0,0,0,0,0,0,0,0,0,0,0,0,0,0,
473,-29.11,-14.36,10.43,-15.3,-10.74,-16.49,-8.278,-9.764,-28.22,-15.16,-10.4,-16.76,-22.29,-28.36,-16.06,-25.62,0,0,0,0,0,0,0,0,0,0,0,0,0,0,0,0,
474,-2.218,-3.583,2.842,-16.63,-9.963,-13.04,6.948,-11.95,-21.43,-10.8,-17.56,-20.34,-26.41,-32.29,-24.68,-28.35,0,0,0,0,0,0,0,0,0,0,0,0,0,0,0,0,
475,-22.09,-19.51,-34.82,-26.9,-16.41,-19.71,-9.088,-26.13,-21.79,-17.38,-28.24,-25.07,-31.9,-34.15,-33.82,-36.25,0,0,0,0,0,0,0,0,0,0,0,0,0,0,0,0,
476,-33.84,-12.96,-18.04,-20.88,-11.87,-19.54,-27.59,-30.99,-24.25,-19.68,-23.43,-24.67,-28.62,-34.95,-34.47,-40.44,0,0,0,0,0,0,0,0,0,0,0,0,0,0,0,0,
477,-15.58,3.354,25.43,-15.45,-8.71,-21.03,-15.43,-21.89,-20.65,-18.01,-5.154,-23.66,-20.96,-37.71,-24.5,-39.67,0,0,0,0,0,0,0,0,0,0,0,0,0,0,0,0,
478,-16.02,-10.46,25.8,-27.51,-21.84,-35.34,2.625,-18.26,-23.14,-27.64,4.747,-22.53,-12.26,-34.77,-13.59,-35.26,0,0,0,0,0,0,0,0,0,0,0,0,0,0,0,0,
479,-26.25,-25.51,5.311,-33.98,-25.7,-39.18,16.08,-21.92,-21.27,-31.11,7.254,-20.91,-5.737,-27.02,-10.86,-27.25,0,0,0,0,0,0,0,0,0,0,0,0,0,0,0,0,
480,-29.97,-29.18,-16.21,-34.48,-22.46,-35.9,10.73,-24.18,-15.35,-26.24,6.769,-20.37,-13.51,-31.1,-12.38,-23.56,0,0,0,0,0,0,0,0,0,0,0,0,0,0,0,0,
481,-46.77,-41.25,-32.54,-42.55,-30.08,-43.06,-13.79,-27.76,-22.66,-31.03,7.757,-18.51,-22.74,-40.52,-9.22,-25.62,0,0,0,0,0,0,0,0,0,0,0,0,0,0,0,0,
482,-46.39,-40.54,-17.09,-40.55,-33.08,-44.46,-13.43,-29.3,-26.52,-34.6,16.33,-17.66,-18.33,-39.07,-6.766,-25.6,0,0,0,0,0,0,0,0,0,0,0,0,0,0,0,0,
483,-19.92,-25.62,-1.629,-35.8,-30.25,-38.59,2.807,-24.71,-19.64,-31.98,14.56,-21.01,-16.23,-34.86,-14.44,-25.82,0,0,0,0,0,0,0,0,0,0,0,0,0,0,0,0,
484,-23.18,-28.55,-19.99,-44.95,-32.14,-40.03,-5.291,-26.1,-21.71,-32.6,-3.201,-27.99,-26.22,-40.5,-26.89,-34.38,0,0,0,0,0,0,0,0,0,0,0,0,0,0,0,0,
485,-40.7,-31.82,-27.52,-41.88,-34.95,-42.77,-22.38,-38.32,-34.77,-35.89,-14.51,-33.74,-38.02,-49.34,-31.6,-39.5,0,0,0,0,0,0,0,0,0,0,0,0,0,0,0,0,
486,-31.13,-22.01,-9.074,-33.22,-37.97,-42.39,-21.95,-45.43,-45.4,-39.55,-7.564,-25.54,-33.35,-40.86,-18.25,-24.57,0,0,0,0,0,0,0,0,0,0,0,0,0,0,0,0,
487,-31.39,-29.31,-14.14,-43.18,-31.29,-36.95,-1.985,-37.13,-35.97,-30.55,15.13,-10.93,-8.464,-17.49,3.939,-9.102,0,0,0,0,0,0,0,0,0,0,0,0,0,0,0,0,
488,-39.7,-30.6,-38.36,-32.25,-13.29,-19.08,10.98,-21.47,-13.9,-9.111,30.18,-9.718,6.163,-7.363,9.968,-10.39,0,0,0,0,0,0,0,0,0,0,0,0,0,0,0,0,
489,-10.2,9.388,-21.58,6.009,-4.181,2.178,-7.846,-8.138,-10.34,1.875,19.24,-8.75,2.578,-7.314,8.545,-3.812,0,0,0,0,0,0,0,0,0,0,0,0,0,0,0,0,
490,22.17,38.91,22.99,18.51,0.7576,12.38,-21.58,0.2936,-14.86,8.211,14.26,3.115,9.299,3.114,24.57,13.58,0,0,0,0,0,0,0,0,0,0,0,0,0,0,0,0,
491,19.96,28.19,26.73,12.91,11.38,15.17,0.4452,1.981,-4.977,19.5,29.3,7.126,17.98,9.821,33.88,13.08,0,0,0,0,0,0,0,0,0,0,0,0,0,0,0,0,
492,14.42,21.45,1.334,15.78,11.36,16.28,21.59,-2.977,-1.538,17.62,29.36,0.4338,5.882,0.471,12.16,0.4934,0,0,0,0,0,0,0,0,0,0,0,0,0,0,0,0,
493,16.74,21.99,-7.445,7.933,6.184,9.863,21.05,-6.514,-11.38,5.733,20.39,0.0035,-3.525,-4.037,-0.7329,1.775,0,0,0,0,0,0,0,0,0,0,0,0,0,0,0,0,
494,15.17,15.45,-12.91,-4.131,14.96,1.856,16.84,-1.716,-7.174,5.927,33.13,12.85,11.88,10.64,20.87,17.58,0,0,0,0,0,0,0,0,0,0,0,0,0,0,0,0,
495,18.15,23.49,-15.44,1.181,22.95,8.667,17.67,5.207,12.41,19.83,48.98,26.07,28.52,25.3,36.56,27.04,0,0,0,0,0,0,0,0,0,0,0,0,0,0,0,0,
496,24.51,34.58,8.93,9.996,17.83,19.75,24.25,6.335,19.03,31.39,45.62,21.43,24.4,19.14,28.05,20.4,0,0,0,0,0,0,0,0,0,0,0,0,0,0,0,0,
497,19.27,26.04,33.23,11.11,13.82,14.25,27.07,4.859,7.761,26.27,34.03,8.652,16.35,7.796,24.04,17.36,0,0,0,0,0,0,0,0,0,0,0,0,0,0,0,0,
498,-1.593,12.27,15.04,7.165,12.19,2.636,14.33,1.965,2.344,13.41,23.74,3.955,18.15,9.179,27.29,22.89,0,0,0,0,0,0,0,0,0,0,0,0,0,0,0,0,
499,-18.98,-2.0,-32.48,-3.255,5.692,0.5757,-0.5414,-7.904,4.647,8.626,17.7,-3.098,13.53,5.79,21.2,13.26,0,0,0,0,0,0,0,0,0,0,0,0,0,0,0,0,
500,-12.35,-13.37,-55.4,-16.48,-0.5371,-2.078,-10.06,-20.54,-3.81,2.668,15.5,-17.14,-2.849,-11.85,7.22,-10.05,0,0,0,0,0,0,0,0,0,0,0,0,0,0,0,0,
501,-5.859,-11.5,-39.27,-28.16,-9.284,-12.81,-27.68,-26.25,-16.39,-10.83,6.765,-28.43,-15.33,-25.77,-10.09,-29.3,0,0,0,0,0,0,0,0,0,0,0,0,0,0,0,0,
502,-23.82,-12.63,-30.1,-36.1,-21.49,-19.41,-39.32,-24.59,-19.23,-17.03,-9.041,-30.49,-19.29,-29.17,-19.33,-37.02,0,0,0,0,0,0,0,0,0,0,0,0,0,0,0,0,
503,-31.61,-13.41,-41.15,-30.96,-20.07,-14.3,-25.46,-18.85,-20.14,-12.61,-15.74,-19.76,-18.89,-27.29,-11.59,-24.9,0,0,0,0,0,0,0,0,0,0,0,0,0,0,0,0,
504,-11.25,6.168,-36.9,-14.14,-4.245,-2.564,-13.98,-15.47,-22.57,-6.38,-7.704,-12.38,-15.13,-22.18,-7.633,-9.776,0,0,0,0,0,0,0,0,0,0,0,0,0,0,0,0,
505,0.9122,16.07,-21.59,-7.916,6.08,7.251,-21.93,-19.9,-20.28,-1.076,-1.629,-20.45,-11.28,-17.35,-14.29,-10.9,0,0,0,0,0,0,0,0,0,0,0,0,0,0,0,0,
506,-1.723,3.29,-20.21,-14.08,6.328,7.276,-18.98,-20.56,-18.24,1.273,-5.834,-20.85,-8.465,-10.94,-5.725,-1.927,0,0,0,0,0,0,0,0,0,0,0,0,0,0,0,0,
507,3.341,7.788,-16.35,-8.754,4.451,3.541,-4.562,-14.81,-17.86,2.594,-2.958,-9.043,-3.019,-1.248,13.26,18.16,0,0,0,0,0,0,0,0,0,0,0,0,0,0,0,0,
508,4.905,23.49,-5.359,1.651,3.011,7.141,-4.505,-19.81,-9.725,5.097,12.58,-5.634,6.15,4.547,21.57,18.0,0,0,0,0,0,0,0,0,0,0,0,0,0,0,0,0,
509,1.904,24.42,-11.17,1.398,8.984,12.26,2.156,-20.63,3.625,4.545,27.11,-0.2425,18.84,11.68,35.15,22.28,0,0,0,0,0,0,0,0,0,0,0,0,0,0,0,0,
510,24.19,31.94,-10.38,8.039,25.44,15.26,26.46,3.791,12.6,7.12,38.38,17.03,29.79,25.0,51.54,44.32,0,0,0,0,0,0,0,0,0,0,0,0,0,0,0,0,
511,48.08,41.93,18.3,20.02,29.38,18.41,24.05,20.36,12.14,13.44,39.31,24.89,26.66,24.69,39.49,40.68,0,0,0,0,0,0,0,0,0,0,0,0,0,0,0,0,
512,26.57,27.04,20.51,14.8,9.313,11.09,-7.116,9.011,0.4734,5.5,22.11,17.71,14.54,9.98,20.37,22.1,0,0,0,0,0,0,0,0,0,0,0,0,0,0,0,0,
513,-7.607,6.412,-12.44,4.487,-7.996,-5.515,-23.18,-1.635,-10.98,-10.79,7.949,10.6,12.16,5.83,24.24,23.69,0,0,0,0,0,0,0,0,0,0,0,0,0,0,0,0,
514,-12.04,-0.2644,-21.17,2.77,-14.03,-14.92,-27.65,-4.004,-13.72,-13.95,5.855,9.863,14.22,9.399,26.04,24.67,0,0,0,0,0,0,0,0,0,0,0,0,0,0,0,0,
515,-12.86,-2.026,-26.18,-0.5275,-22.8,-15.89,-35.52,-4.321,-16.75,-8.292,-0.1904,12.64,6.847,6.208,16.93,18.91,0,0,0,0,0,0,0,0,0,0,0,0,0,0,0,0,
516,-22.98,-4.771,-57.86,-6.437,-22.99,-14.15,-29.02,2.012,-20.54,-4.346,-2.866,10.72,-0.3435,2.095,15.24,20.32,0,0,0,0,0,0,0,0,0,0,0,0,0,0,0,0,
517,-17.31,-9.252,-56.26,-11.83,-11.31,-13.42,-12.06,-1.718,-18.85,-4.07,9.71,3.339,1.754,1.578,14.38,17.62,0,0,0,0,0,0,0,0,0,0,0,0,0,0,0,0,
518,-4.574,-9.968,-15.32,-18.03,-9.948,-19.26,-4.567,-21.3,-15.68,-6.703,20.44,0.8543,3.646,1.352,10.0,13.11,0,0,0,0,0,0,0,0,0,0,0,0,0,0,0,0,
519,-11.49,-8.226,-7.484,-19.95,-15.17,-24.93,-2.432,-27.63,-14.63,-7.576,18.27,3.201,1.234,-0.0255,13.22,16.51,0,0,0,0,0,0,0,0,0,0,0,0,0,0,0,0,
520,-26.98,-13.99,-38.97,-19.08,-11.36,-21.94,-1.95,-17.51,-14.44,-7.965,14.96,1.783,2.499,-1.135,22.79,17.25,0,0,0,0,0,0,0,0,0,0,0,0,0,0,0,0,
521,-32.82,-21.29,-56.51,-23.71,-13.32,-21.22,-8.291,-14.87,-13.5,-10.03,10.32,-6.634,3.126,-1.6,20.83,8.317,0,0,0,0,0,0,0,0,0,0,0,0,0,0,0,0,
522,-33.57,-27.65,-38.77,-27.73,-30.16,-29.96,-17.74,-20.97,-18.38,-13.72,-3.693,-17.62,-5.024,-4.984,-0.0776,-5.539,0,0,0,0,0,0,0,0,0,0,0,0,0,0,0,0,
523,-23.92,-31.67,-15.97,-23.13,-36.72,-34.69,-32.05,-28.29,-32.23,-20.71,-10.18,-22.61,-9.574,-9.088,-11.79,-13.36,0,0,0,0,0,0,0,0,0,0,0,0,0,0,0,0,
524,-8.138,-21.56,-21.13,-19.99,-27.45,-32.24,-49.34,-37.94,-39.04,-24.38,-1.382,-26.52,-9.201,-14.56,-3.895,-14.89,0,0,0,0,0,0,0,0,0,0,0,0,0,0,0,0,
525,-20.7,-15.7,-39.39,-26.54,-32.38,-37.89,-42.15,-44.72,-39.44,-28.45,-1.085,-36.34,-21.08,-28.8,-7.798,-22.7,0,0,0,0,0,0,0,0,0,0,0,0,0,0,0,0,
526,-49.6,-27.4,-49.38,-36.32,-48.13,-48.97,-13.7,-47.26,-48.84,-43.28,-11.05,-36.99,-33.78,-38.84,-19.1,-28.55,0,0,0,0,0,0,0,0,0,0,0,0,0,0,0,0,
527,-45.48,-26.59,-57.48,-39.19,-42.61,-46.74,-10.69,-46.27,-52.91,-49.33,-11.85,-21.16,-28.38,-29.05,-12.33,-17.58,0,0,0,0,0,0,0,0,0,0,0,0,0,0,0,0,
528,-17.7,-9.915,-55.16,-27.94,-25.77,-32.68,-25.46,-32.58,-41.1,-35.25,-3.734,-6.927,-17.47,-13.85,-2.885,-2.222,0,0,0,0,0,0,0,0,0,0,0,0,0,0,0,0,
529,-2.459,-4.171,-33.66,-15.91,-24.16,-24.74,-22.59,-20.13,-31.48,-25.46,3.243,-7.394,-16.07,-10.45,-5.2,0.1648,0,0,0,0,0,0,0,0,0,0,0,0,0,0,0,0,
530,-0.856,-8.323,-12.67,-17.24,-27.63,-25.73,-24.43,-28.43,-31.06,-26.64,-1.221,-12.75,-20.85,-12.39,-7.909,-2.072,0,0,0,0,0,0,0,0,0,0,0,0,0,0,0,0,
531,-1.631,-7.131,-6.117,-12.99,-19.34,-20.98,-29.34,-30.87,-31.0,-21.39,-11.73,-6.205,-19.06,-7.098,-1.255,5.938,0,0,0,0,0,0,0,0,0,0,0,0,0,0,0,0,
532,0.9128,3.87,-12.68,-4.743,-7.037,-10.02,-7.04,-16.68,-25.4,-9.347,-7.751,3.946,-8.926,-1.254,8.971,8.056,0,0,0,0,0,0,0,0,0,0,0,0,0,0,0,0,
533,5.381,15.44,-19.92,-13.63,-3.053,-7.692,1.14,-18.81,-19.99,-5.054,-3.211,0.5008,-7.131,-7.135,6.849,-5.865,0,0,0,0,0,0,0,0,0,0,0,0,0,0,0,0,
534,4.94,14.26,-20.21,-14.97,-7.62,-11.68,-28.05,-29.65,-24.5,-12.58,-18.47,-7.937,-15.4,-15.25,-5.035,-10.99,0,0,0,0,0,0,0,0,0,0,0,0,0,0,0,0,
535,-3.254,4.635,-30.91,-5.336,-15.19,-15.71,-41.21,-24.41,-29.92,-22.46,-26.6,-16.85,-19.96,-17.43,-14.65,-12.59,0,0,0,0,0,0,0,0,0,0,0,0,0,0,0,0,
536,-9.345,-0.1627,-40.75,-14.93,-18.91,-22.47,-28.14,-18.3,-26.66,-27.01,-15.06,-27.44,-20.91,-20.63,-23.2,-24.5,0,0,0,0,0,0,0,0,0,0,0,0,0,0,0,0,
537,1.243,0.2976,-24.56,-16.92,-15.56,-21.1,-16.63,-15.37,-26.0,-24.98,-12.02,-21.67,-21.48,-22.59,-24.72,-19.86,0,0,0,0,0,0,0,0,0,0,0,0,0,0,0,0,
538,10.9,-0.0072,-17.41,-0.2045,-10.6,-11.35,-3.948,-7.936,-30.28,-17.72,-15.28,-5.382,-19.32,-19.0,-15.78,-7.315,0,0,0,0,0,0,0,0,0,0,0,0,0,0,0,0,
539,0.2746,2.363,-29.26,-3.024,-8.212,-11.73,0.2029,-7.849,-26.87,-9.67,-7.069,-3.889,-16.02,-14.43,-8.768,-13.77,0,0,0,0,0,0,0,0,0,0,0,0,0,0,0,0,
540,-1.314,11.46,-12.55,-8.702,-8.626,-15.12,-16.87,-12.19,-20.56,-6.399,-7.662,-9.677,-17.61,-14.62,-7.569,-15.77,0,0,0,0,0,0,0,0,0,0,0,0,0,0,0,0,
541,15.7,18.83,18.76,3.864,-8.985,-8.454,-21.15,-9.825,-23.33,-11.1,-15.5,-8.878,-21.8,-18.96,-7.101,-7.834,0,0,0,0,0,0,0,0,0,0,0,0,0,0,0,0,
542,24.14,20.89,21.55,9.85,-1.344,-2.314,4.84,-6.672,-21.65,-14.64,4.214,-6.525,-12.92,-14.15,-2.721,-8.201,0,0,0,0,0,0,0,0,0,0,0,0,0,0,0,0,
543,25.65,20.36,6.765,11.97,6.316,0.1082,19.95,-4.048,-6.397,-5.929,23.49,-6.28,0.2048,-3.377,-1.457,-8.181,0,0,0,0,0,0,0,0,0,0,0,0,0,0,0,0,
544,19.34,13.92,-5.06,14.15,0.9166,1.402,6.069,-0.5199,-2.223,-0.3434,-0.0342,-8.066,-11.34,-9.847,-19.29,-11.72,0,0,0,0,0,0,0,0,0,0,0,0,0,0,0,0,
545,0.0531,8.416,-10.02,2.962,-7.696,-6.782,-9.199,-1.449,-18.4,-11.37,-28.36,-9.868,-33.38,-25.64,-42.13,-25.5,0,0,0,0,0,0,0,0,0,0,0,0,0,0,0,0,
546,-0.2509,11.08,-11.65,-4.283,-15.64,-18.53,-15.13,-4.967,-31.53,-20.46,-27.14,-8.645,-35.29,-28.7,-44.15,-28.76,0,0,0,0,0,0,0,0,0,0,0,0,0,0,0,0,
547,20.49,11.73,-8.536,-4.627,-23.92,-19.44,-10.94,-8.508,-30.14,-18.82,-13.47,-8.18,-26.24,-26.51,-35.26,-23.1,0,0,0,0,0,0,0,0,0,0,0,0,0,0,0,0,
548,19.86,2.407,0.5092,-15.98,-21.02,-20.07,0.0326,-17.19,-22.3,-21.33,-3.784,-14.36,-25.31,-30.03,-33.14,-27.38,0,0,0,0,0,0,0,0,0,0,0,0,0,0,0,0,
549,-3.34,-12.56,-9.495,-25.03,-23.03,-33.0,-12.95,-30.95,-23.85,-32.31,-16.11,-23.27,-36.62,-37.8,-38.78,-33.59,0,0,0,0,0,0,0,0,0,0,0,0,0,0,0,0,
550,-18.69,-20.76,-30.54,-28.36,-46.78,-45.83,-45.3,-41.11,-42.42,-44.86,-45.25,-28.0,-53.94,-48.3,-51.82,-36.21,0,0,0,0,0,0,0,0,0,0,0,0,0,0,0,0,
551,-26.17,-19.0,-25.21,-35.12,-59.73,-48.05,-46.1,-38.16,-56.75,-52.89,-54.2,-33.06,-61.19,-54.44,-62.43,-43.36,0,0,0,0,0,0,0,0,0,0,0,0,0,0,0,0,
552,-33.54,-17.35,-24.25,-26.03,-45.19,-40.34,-20.04,-21.66,-48.68,-50.23,-46.04,-37.42,-54.71,-50.07,-57.16,-44.42,0,0,0,0,0,0,0,0,0,0,0,0,0,0,0,0,
553,-24.41,-12.36,-45.0,-10.25,-35.55,-29.79,-19.03,-9.187,-36.1,-40.61,-43.49,-32.5,-50.68,-44.98,-47.33,-36.47,0,0,0,0,0,0,0,0,0,0,0,0,0,0,0,0,
554,-1.171,-5.228,-39.2,-18.31,-40.0,-30.05,-38.52,-12.83,-38.5,-37.97,-34.62,-29.4,-51.31,-46.1,-46.25,-36.48,0,0,0,0,0,0,0,0,0,0,0,0,0,0,0,0,
555,5.375,-5.951,-19.58,-24.92,-31.45,-29.46,-33.32,-16.28,-40.25,-39.57,-18.15,-33.0,-41.06,-40.51,-40.72,-33.86,0,0,0,0,0,0,0,0,0,0,0,0,0,0,0,0,
556,-5.169,-0.774,-21.73,-12.6,-13.8,-13.24,-9.999,-11.53,-25.9,-29.78,-14.56,-28.17,-25.9,-26.93,-28.01,-19.67,0,0,0,0,0,0,0,0,0,0,0,0,0,0,0,0,
557,-8.529,12.77,-17.19,-8.741,-11.9,-4.005,-5.466,-10.84,-17.56,-15.99,-16.79,-20.51,-23.31,-23.14,-24.02,-19.11,0,0,0,0,0,0,0,0,0,0,0,0,0,0,0,0,
558,1.344,20.01,3.105,-5.508,-11.66,-4.869,-11.2,-8.089,-23.49,-12.42,-7.816,-19.17,-23.67,-25.71,-22.09,-25.98,0,0,0,0,0,0,0,0,0,0,0,0,0,0,0,0,
559,14.96,20.8,10.84,6.235,-3.19,0.2092,-5.406,2.451,-22.0,-13.63,-0.3197,-13.43,-17.22,-22.05,-12.71,-16.37,0,0,0,0,0,0,0,0,0,0,0,0,0,0,0,0,
560,16.82,13.42,-0.4921,3.184,-3.017,-0.085,4.29,7.467,-16.14,-14.11,-1.556,-5.68,-10.39,-16.89,-7.067,-9.621,0,0,0,0,0,0,0,0,0,0,0,0,0,0,0,0,
561,8.576,13.32,-11.11,-0.5674,3.182,2.616,8.282,9.975,-9.585,-8.275,0.127,-4.481,-2.408,-11.55,-7.688,-15.03,0,0,0,0,0,0,0,0,0,0,0,0,0,0,0,0,
562,11.12,32.3,2.173,8.521,17.41,17.65,7.778,18.39,2.945,4.47,-4.817,-1.27,-0.3413,-8.398,-8.375,-11.95,0,0,0,0,0,0,0,0,0,0,0,0,0,0,0,0,
563,21.77,37.94,16.64,11.2,12.29,17.72,9.826,23.38,0.5747,5.493,-14.57,6.436,-8.62,-14.38,-6.652,-5.578,0,0,0,0,0,0,0,0,0,0,0,0,0,0,0,0,
564,27.36,31.41,-0.9382,14.14,6.746,9.533,7.205,18.0,-9.524,-3.879,-5.287,6.951,-10.26,-18.21,-2.939,-8.449,0,0,0,0,0,0,0,0,0,0,0,0,0,0,0,0,
565,33.7,38.69,-7.121,17.25,18.07,15.38,-8.944,10.1,-2.143,-3.351,5.871,3.171,-6.344,-11.4,-3.92,-9.051,0,0,0,0,0,0,0,0,0,0,0,0,0,0,0,0,
566,40.41,43.14,23.68,14.21,25.72,23.6,-2.336,15.57,3.182,3.873,0.3156,8.081,-9.016,-7.088,-9.615,-4.364,0,0,0,0,0,0,0,0,0,0,0,0,0,0,0,0,
567,38.92,43.59,30.67,26.2,29.92,31.46,31.71,25.59,-0.3995,8.5,-3.996,8.065,-14.45,-14.3,-15.91,-8.876,0,0,0,0,0,0,0,0,0,0,0,0,0,0,0,0,
568,30.58,46.3,9.072,30.7,27.27,32.58,34.87,15.98,-0.2654,7.314,-2.825,-5.577,-17.77,-21.36,-17.61,-16.43,0,0,0,0,0,0,0,0,0,0,0,0,0,0,0,0,
569,26.91,39.85,10.44,10.94,14.91,19.06,14.5,8.724,-0.9132,2.632,4.764,-2.623,-8.505,-12.08,-4.369,-6.994,0,0,0,0,0,0,0,0,0,0,0,0,0,0,0,0,
570,40.28,41.41,17.4,16.85,16.86,17.13,11.38,24.26,8.513,7.87,13.34,13.72,5.946,-0.4978,3.632,2.468,0,0,0,0,0,0,0,0,0,0,0,0,0,0,0,0,
571,53.29,45.97,6.155,34.8,21.63,23.93,7.748,26.61,16.62,10.73,-1.007,3.084,-4.828,-12.62,-15.98,-14.25,0,0,0,0,0,0,0,0,0,0,0,0,0,0,0,0,
572,33.55,32.99,-6.736,16.73,9.851,11.14,-3.371,8.184,-4.728,-7.979,-21.75,-19.49,-26.02,-32.04,-31.32,-32.58,0,0,0,0,0,0,0,0,0,0,0,0,0,0,0,0,
573,0.0432,27.82,-18.53,1.44,1.464,-2.679,-9.574,2.802,-22.81,-22.6,-25.09,-19.73,-27.33,-33.66,-27.32,-28.44,0,0,0,0,0,0,0,0,0,0,0,0,0,0,0,0,
574,-0.1585,27.67,-13.29,10.63,-0.5699,-1.671,-8.881,9.069,-17.75,-16.94,-26.54,-14.43,-24.7,-30.3,-29.37,-24.29,0,0,0,0,0,0,0,0,0,0,0,0,0,0,0,0,
575,23.63,17.11,6.55,10.42,-2.682,-4.548,-3.13,6.195,-19.24,-13.42,-28.45,-20.95,-27.39,-32.41,-31.54,-29.68,0,0,0,0,0,0,0,0,0,0,0,0,0,0,0,0,
576,25.81,20.89,-4.296,2.623,-5.253,-13.43,-20.24,-8.426,-23.1,-18.93,-28.26,-26.43,-26.62,-31.96,-26.81,-28.29,0,0,0,0,0,0,0,0,0,0,0,0,0,0,0,0,
577,6.266,20.77,-22.18,-3.303,-18.68,-17.46,-39.46,-22.47,-20.08,-24.4,-27.52,-23.48,-26.01,-27.97,-30.08,-23.95,0,0,0,0,0,0,0,0,0,0,0,0,0,0,0,0,
578,-4.782,-1.343,-9.27,-12.42,-24.43,-17.2,-5.231,-23.77,-21.51,-26.52,-16.1,-20.37,-22.6,-24.15,-34.74,-26.83,0,0,0,0,0,0,0,0,0,0,0,0,0,0,0,0,
579,-9.121,-5.317,-8.81,-17.53,-13.22,-19.25,21.5,-20.07,-22.6,-24.16,-16.27,-22.4,-21.93,-25.84,-37.92,-31.66,0,0,0,0,0,0,0,0,0,0,0,0,0,0,0,0,
580,-10.84,4.12,-21.52,-19.24,-14.0,-22.49,-9.185,-18.66,-26.71,-19.47,-36.93,-23.24,-32.93,-31.73,-44.15,-34.48,0,0,0,0,0,0,0,0,0,0,0,0,0,0,0,0,
581,9.18,3.085,-11.0,-17.23,-15.61,-16.81,-21.74,-14.48,-33.12,-12.12,-36.27,-21.63,-35.04,-31.19,-38.06,-35.36,0,0,0,0,0,0,0,0,0,0,0,0,0,0,0,0,
582,28.43,10.33,-7.072,-9.233,-3.475,-10.27,-13.68,-13.73,-27.23,-9.243,-20.74,-24.86,-25.74,-29.04,-25.18,-34.9,0,0,0,0,0,0,0,0,0,0,0,0,0,0,0,0,
583,13.63,20.11,-14.68,-9.066,0.0482,-12.29,-27.54,-17.63,-20.21,-18.69,-19.18,-28.65,-22.87,-29.29,-21.91,-32.5,0,0,0,0,0,0,0,0,0,0,0,0,0,0,0,0,
584,7.736,23.89,5.902,-10.11,5.474,-3.971,-14.78,-18.72,-14.5,-19.01,-12.25,-26.53,-15.35,-20.22,-14.78,-21.77,0,0,0,0,0,0,0,0,0,0,0,0,0,0,0,0,
585,32.04,31.67,28.38,-0.8131,15.09,10.18,9.567,-22.56,-2.752,-5.22,-5.687,-22.89,-5.104,-12.51,-5.959,-10.45,0,0,0,0,0,0,0,0,0,0,0,0,0,0,0,0,
586,30.33,27.47,3.674,-1.263,6.609,6.524,-8.546,-23.5,-2.787,-6.491,-12.31,-18.06,-6.379,-14.93,-7.816,-12.05,0,0,0,0,0,0,0,0,0,0,0,0,0,0,0,0,
587,12.11,19.46,-33.02,-9.173,8.312,3.331,-10.63,-11.08,-3.076,-11.13,-2.215,-11.97,1.058,-4.926,2.373,-9.205,0,0,0,0,0,0,0,0,0,0,0,0,0,0,0,0,
588,25.92,28.29,-17.75,-1.961,29.24,12.75,15.22,-1.684,15.62,4.087,15.69,-10.07,16.87,10.97,22.19,4.988,0,0,0,0,0,0,0,0,0,0,0,0,0,0,0,0,
589,39.42,32.04,23.85,9.404,32.68,17.61,11.18,-4.051,25.7,16.38,14.58,-7.474,17.6,9.608,16.2,3.688,0,0,0,0,0,0,0,0,0,0,0,0,0,0,0,0,
590,37.48,33.16,26.54,12.33,31.49,24.12,5.131,-5.151,23.52,20.33,10.76,-0.6811,15.59,7.903,0.2154,-4.623,0,0,0,0,0,0,0,0,0,0,0,0,0,0,0,0,
591,44.38,44.39,0.7487,11.63,41.2,32.67,1.869,-1.032,26.65,28.11,-0.2141,0.6,15.13,11.83,1.169,2.015,0,0,0,0,0,0,0,0,0,0,0,0,0,0,0,0,
592,39.68,40.96,-4.981,8.326,37.44,27.59,-24.89,5.565,19.51,24.33,-20.75,-0.7605,4.476,5.604,-2.389,1.264,0,0,0,0,0,0,0,0,0,0,0,0,0,0,0,0,
593,32.0,32.62,14.17,7.559,27.58,20.88,-13.69,8.565,6.508,12.12,-14.97,3.714,1.451,1.843,-12.37,-8.152,0,0,0,0,0,0,0,0,0,0,0,0,0,0,0,0,
594,43.52,38.53,20.7,10.85,29.55,21.41,22.27,5.247,8.619,9.055,4.079,6.182,9.588,7.622,-6.013,0.297,0,0,0,0,0,0,0,0,0,0,0,0,0,0,0,0,
595,37.36,35.09,2.956,10.4,29.43,20.63,3.182,8.363,12.64,7.75,5.674,5.335,10.28,8.46,4.336,11.22,0,0,0,0,0,0,0,0,0,0,0,0,0,0,0,0,
596,26.45,28.53,5.065,5.755,22.51,21.35,-12.71,15.37,8.497,7.758,8.615,6.249,8.961,6.616,7.064,9.737,0,0,0,0,0,0,0,0,0,0,0,0,0,0,0,0,
597,45.31,37.69,20.3,1.867,22.55,23.7,9.101,10.83,6.912,11.84,8.99,3.072,9.151,5.458,12.28,11.59,0,0,0,0,0,0,0,0,0,0,0,0,0,0,0,0,
598,48.07,39.2,1.778,2.395,29.75,23.85,2.074,0.6444,10.7,6.777,-4.352,-2.747,5.591,-0.4175,15.26,13.0,0,0,0,0,0,0,0,0,0,0,0,0,0,0,0,0,
599,30.8,28.86,-7.443,1.929,28.42,21.68,0.3164,-8.984,13.44,-4.834,-2.52,-5.923,7.042,-4.251,14.02,7.822,0,0,0,0,0,0,0,0,0,0,0,0,0,0,0,0,
600,34.71,25.77,11.04,-6.422,14.82,12.76,20.21,-15.2,8.868,-11.58,1.375,-8.215,4.575,-4.369,10.84,4.525,0,0,0,0,0,0,0,0,0,0,0,0,0,0,0,0,
601,34.92,23.09,-3.867,-12.03,2.914,2.237,-23.5,-11.92,-3.513,-17.36,-23.67,-8.415,-15.83,-9.641,-7.345,-4.545,0,0,0,0,0,0,0,0,0,0,0,0,0,0,0,0,
602,23.85,18.95,-23.35,-10.25,-3.072,-1.579,-76.24,-15.5,-18.33,-21.96,-41.38,-12.82,-29.35,-14.92,-26.77,-18.95,0,0,0,0,0,0,0,0,0,0,0,0,0,0,0,0,
603,21.2,19.49,-14.25,-13.23,-7.131,-3.831,-43.53,-27.06,-27.38,-18.73,-32.43,-23.09,-22.28,-14.53,-22.33,-21.62,0,0,0,0,0,0,0,0,0,0,0,0,0,0,0,0,
604,3.104,10.67,-27.24,-19.78,-5.164,-5.034,-12.75,-19.83,-26.32,-13.13,-32.95,-22.73,-18.7,-15.57,-14.87,-18.85,0,0,0,0,0,0,0,0,0,0,0,0,0,0,0,0,
605,-12.09,1.68,-38.01,-17.97,1.592,2.006,-36.59,-7.898,-21.18,-10.7,-42.09,-17.13,-19.51,-16.3,-22.41,-23.01,0,0,0,0,0,0,0,0,0,0,0,0,0,0,0,0,
606,11.39,13.13,-16.1,-9.059,3.791,11.6,-36.86,-14.48,-16.24,-6.942,-36.87,-23.24,-14.48,-15.26,-28.73,-26.09,0,0,0,0,0,0,0,0,0,0,0,0,0,0,0,0,
607,23.0,17.17,-18.52,-7.987,-0.7123,8.968,-17.84,-15.78,-14.01,-6.14,-26.71,-25.97,-16.69,-19.57,-25.08,-20.9,0,0,0,0,0,0,0,0,0,0,0,0,0,0,0,0,
608,0.9485,5.385,-32.43,-14.84,-6.454,-2.237,-29.33,-1.93,-16.6,-12.47,-18.18,-14.49,-19.34,-20.03,-13.5,-14.78,0,0,0,0,0,0,0,0,0,0,0,0,0,0,0,0,
609,-3.561,10.9,-13.97,-13.36,-10.93,-6.397,-34.4,2.602,-13.36,-12.99,-11.2,-9.209,-11.21,-14.06,-6.559,-20.02,0,0,0,0,0,0,0,0,0,0,0,0,0,0,0,0,
610,3.57,13.92,-1.858,-13.86,-15.35,-8.785,-11.47,-4.824,-7.064,-8.788,-11.24,-19.11,-8.292,-16.87,-11.74,-29.05,0,0,0,0,0,0,0,0,0,0,0,0,0,0,0,0,
611,-3.246,-3.249,-10.89,-24.02,-15.71,-13.19,-1.852,-6.677,-11.73,-11.18,-8.516,-25.97,-7.349,-18.37,-8.713,-23.7,0,0,0,0,0,0,0,0,0,0,0,0,0,0,0,0,
612,0.4922,-0.1731,-18.25,-16.95,-10.16,-6.577,-10.83,-3.546,-13.98,-9.737,-0.8203,-18.58,-0.3776,-8.329,2.402,-12.74,0,0,0,0,0,0,0,0,0,0,0,0,0,0,0,0,
613,13.05,18.9,-20.42,1.609,-5.193,1.691,-4.862,-4.845,-7.056,-3.333,4.665,-9.86,0.1574,-2.147,4.539,-5.678,0,0,0,0,0,0,0,0,0,0,0,0,0,0,0,0,
614,18.63,25.19,0.43,6.437,0.6641,2.958,14.43,-2.218,-1.666,-2.533,12.86,-9.688,2.431,1.026,6.8,3.83,0,0,0,0,0,0,0,0,0,0,0,0,0,0,0,0,
615,33.86,35.57,35.44,10.95,11.1,14.09,17.8,7.613,8.482,2.159,9.436,-10.3,9.2,4.934,5.963,4.04,0,0,0,0,0,0,0,0,0,0,0,0,0,0,0,0,
616,48.36,49.14,37.94,18.77,18.75,27.16,8.466,8.083,16.46,9.076,-10.5,-11.99,3.208,0.1287,-3.707,-7.755,0,0,0,0,0,0,0,0,0,0,0,0,0,0,0,0,
617,44.5,50.63,13.43,19.25,22.46,25.97,9.11,0.4474,12.1,7.211,-12.68,-21.27,-4.283,-5.418,-5.114,-13.8,0,0,0,0,0,0,0,0,0,0,0,0,0,0,0,0,
618,44.94,50.52,5.163,18.3,25.61,24.16,11.18,-0.6091,14.75,7.923,-1.206,-26.61,-3.051,-6.448,-5.983,-17.57,0,0,0,0,0,0,0,0,0,0,0,0,0,0,0,0,
619,48.4,47.85,20.12,9.922,20.19,20.99,5.637,-0.3977,18.28,8.295,-4.79,-22.02,-5.901,-11.95,-14.75,-23.02,0,0,0,0,0,0,0,0,0,0,0,0,0,0,0,0,
620,35.45,39.13,27.39,-3.0,7.389,8.056,12.79,-7.513,2.265,-5.712,-6.639,-21.29,-7.941,-14.8,-8.981,-17.89,0,0,0,0,0,0,0,0,0,0,0,0,0,0,0,0,
621,28.8,34.98,11.21,-2.906,5.325,4.416,29.81,-16.44,-6.779,-14.64,2.693,-22.95,-0.2191,-5.119,12.5,-1.278,0,0,0,0,0,0,0,0,0,0,0,0,0,0,0,0,
622,34.04,31.74,-5.634,-2.497,10.51,7.454,24.41,-17.89,5.526,-6.989,2.672,-18.42,6.429,4.757,24.39,12.28,0,0,0,0,0,0,0,0,0,0,0,0,0,0,0,0,
623,19.12,20.63,-13.89,-10.81,0.9735,-5.503,-4.152,-12.58,6.92,-8.331,-4.738,-17.89,4.552,0.8486,17.79,7.685,0,0,0,0,0,0,0,0,0,0,0,0,0,0,0,0,
624,-2.768,9.89,-15.37,-15.4,-13.58,-17.58,-20.52,-11.73,-5.376,-22.33,-1.284,-21.59,3.078,-5.354,10.83,-2.603,0,0,0,0,0,0,0,0,0,0,0,0,0,0,0,0,
625,0.6199,10.5,0.0816,-21.8,-14.73,-16.19,-4.724,-16.45,-7.617,-25.77,9.93,-22.48,5.096,-3.264,11.38,-0.8444,0,0,0,0,0,0,0,0,0,0,0,0,0,0,0,0,
626,10.28,8.221,4.186,-31.56,-18.15,-24.43,14.39,-18.87,-10.97,-23.05,6.37,-26.22,1.845,-6.248,4.551,-3.498,0,0,0,0,0,0,0,0,0,0,0,0,0,0,0,0,
627,6.462,-11.49,-14.01,-30.41,-28.48,-35.1,0.2794,-16.22,-20.01,-26.32,-8.285,-23.99,1.353,-10.58,1.258,-11.55,0,0,0,0,0,0,0,0,0,0,0,0,0,0,0,0,
628,2.583,-17.48,-9.011,-19.39,-26.67,-27.6,-15.62,-6.874,-11.32,-23.72,-6.861,-11.78,9.305,-2.454,11.93,-7.917,0,0,0,0,0,0,0,0,0,0,0,0,0,0,0,0,
629,3.659,7.394,5.962,-10.1,-14.32,-18.13,14.28,-0.0306,2.435,-12.61,6.827,-7.451,11.77,4.973,15.15,-2.148,0,0,0,0,0,0,0,0,0,0,0,0,0,0,0,0,
630,4.819,18.8,-0.274,-14.79,-3.564,-14.65,43.89,-6.504,3.804,-2.085,18.37,-6.157,15.81,7.271,15.48,2.19,0,0,0,0,0,0,0,0,0,0,0,0,0,0,0,0,
631,2.107,0.0309,-2.222,-27.28,-4.549,-10.56,19.16,-10.2,8.615,3.933,20.1,-1.79,19.64,8.216,14.93,2.312,0,0,0,0,0,0,0,0,0,0,0,0,0,0,0,0,
632,-5.862,-7.292,-8.983,-15.64,-16.27,-10.46,-7.631,3.06,5.471,-0.6093,-2.82,-5.42,1.962,1.012,-1.568,-7.328,0,0,0,0,0,0,0,0,0,0,0,0,0,0,0,0,
633,0.3304,15.13,-24.43,13.46,-12.02,-5.444,4.602,17.29,-11.14,-4.07,-22.54,-5.239,-8.592,0.3152,-4.384,-4.259,0,0,0,0,0,0,0,0,0,0,0,0,0,0,0,0,
634,27.89,39.74,-7.061,19.88,6.023,8.425,11.4,20.44,-7.254,8.099,-8.315,1.226,6.88,11.19,7.432,3.237,0,0,0,0,0,0,0,0,0,0,0,0,0,0,0,0,
635,41.15,43.36,14.71,12.56,7.758,14.28,2.549,19.87,6.977,17.92,-2.377,-2.043,10.05,13.0,-4.601,-5.146,0,0,0,0,0,0,0,0,0,0,0,0,0,0,0,0,
636,24.82,35.45,3.621,11.52,5.37,12.67,8.219,18.27,6.665,16.97,-22.09,-2.811,4.187,14.06,-11.02,4.254,0,0,0,0,0,0,0,0,0,0,0,0,0,0,0,0,
637,14.04,32.3,-1.95,3.122,12.99,10.86,13.07,13.91,14.8,16.84,-23.7,2.563,15.62,23.59,8.84,26.5,0,0,0,0,0,0,0,0,0,0,0,0,0,0,0,0,
638,23.14,29.69,5.151,-4.155,11.99,4.074,0.251,11.05,29.75,12.3,-10.88,-2.647,20.81,21.45,11.57,16.1,0,0,0,0,0,0,0,0,0,0,0,0,0,0,0,0,
639,22.88,19.61,-3.161,-0.4507,2.745,-4.222,-12.97,5.36,20.2,4.668,-19.69,-11.31,6.749,8.862,-2.681,-5.828,0,0,0,0,0,0,0,0,0,0,0,0,0,0,0,0,
640,8.189,9.187,-25.66,-4.766,-1.53,-5.779,-21.28,-6.496,-1.181,6.621,-38.4,-17.16,-3.027,6.601,-5.968,-7.846,0,0,0,0,0,0,0,0,0,0,0,0,0,0,0,0,
641,3.213,6.619,-46.94,-12.62,-0.9004,-2.413,-28.37,-8.204,-3.674,12.14,-35.18,-22.61,1.222,15.12,-4.965,-1.914,0,0,0,0,0,0,0,0,0,0,0,0,0,0,0,0,
642,2.808,4.679,-32.66,-12.96,-0.9701,-3.248,-24.1,0.055,3.533,11.41,-14.7,-15.21,9.376,23.44,2.352,11.04,0,0,0,0,0,0,0,0,0,0,0,0,0,0,0,0,
643,-1.982,-1.069,6.624,-13.89,-6.448,-8.554,-7.144,-1.802,1.39,8.231,-4.092,-0.0213,13.74,27.24,21.76,29.79,0,0,0,0,0,0,0,0,0,0,0,0,0,0,0,0,
644,1.298,-2.837,-2.067,-14.2,-11.96,-13.58,0.6118,-5.789,1.495,6.152,-5.706,2.301,13.7,23.3,28.59,31.22,0,0,0,0,0,0,0,0,0,0,0,0,0,0,0,0,
645,-2.617,-7.658,-33.04,-19.64,-16.07,-24.99,-6.844,-1.702,3.483,-1.936,-6.525,-0.4068,9.33,12.64,15.78,17.4,0,0,0,0,0,0,0,0,0,0,0,0,0,0,0,0,
646,-21.1,-16.09,-17.76,-29.22,-21.5,-34.07,-4.531,-1.766,-7.951,-12.34,-6.734,5.362,5.68,11.1,12.11,17.22,0,0,0,0,0,0,0,0,0,0,0,0,0,0,0,0,
647,-16.95,-7.307,-4.071,-19.26,-20.6,-27.08,4.783,3.487,-12.44,-6.75,-2.812,10.56,9.278,21.99,21.95,31.07,0,0,0,0,0,0,0,0,0,0,0,0,0,0,0,0,
648,6.014,4.906,-6.234,0.1641,-18.86,-23.04,1.873,23.15,-4.159,4.342,9.749,12.75,13.67,24.71,25.72,35.21,0,0,0,0,0,0,0,0,0,0,0,0,0,0,0,0,
649,10.96,-0.0298,17.62,3.854,-16.98,-23.16,7.497,29.33,-4.827,1.445,19.7,16.4,15.15,18.59,27.61,28.51,0,0,0,0,0,0,0,0,0,0,0,0,0,0,0,0,
650,10.0,0.6427,16.34,-0.976,1.297,-10.29,23.52,16.79,3.807,0.9297,24.91,14.6,21.27,20.61,35.19,25.16,0,0,0,0,0,0,0,0,0,0,0,0,0,0,0,0,
651,14.67,9.267,-8.043,-2.849,16.49,-4.134,22.65,16.58,26.05,9.349,30.56,11.5,28.61,27.33,38.07,28.12,0,0,0,0,0,0,0,0,0,0,0,0,0,0,0,0,
652,9.114,7.946,18.36,3.125,10.37,-8.927,21.78,28.25,29.57,11.85,24.1,14.68,28.04,29.04,33.31,31.33,0,0,0,0,0,0,0,0,0,0,0,0,0,0,0,0,
653,10.97,12.01,48.68,9.64,9.543,-2.733,27.58,27.85,24.86,13.77,7.157,13.92,24.06,28.24,25.69,26.49,0,0,0,0,0,0,0,0,0,0,0,0,0,0,0,0,
654,30.21,21.29,35.91,5.28,15.43,2.874,7.61,19.6,28.09,18.16,4.202,9.173,24.34,28.58,17.51,14.05,0,0,0,0,0,0,0,0,0,0,0,0,0,0,0,0,
655,31.27,11.48,19.21,1.834,7.016,-2.64,-18.5,14.78,23.27,15.63,7.752,5.801,25.43,27.05,14.02,5.463,0,0,0,0,0,0,0,0,0,0,0,0,0,0,0,0,
656,15.47,-4.145,4.017,-3.392,-2.828,-7.293,-9.958,7.944,15.65,11.35,-2.637,-2.401,24.05,22.17,16.83,7.319,0,0,0,0,0,0,0,0,0,0,0,0,0,0,0,0,
657,11.53,-1.915,-2.518,-18.11,-4.705,-11.7,7.177,0.8616,15.73,10.46,-11.96,-8.556,24.05,19.54,17.05,11.85,0,0,0,0,0,0,0,0,0,0,0,0,0,0,0,0,T2
658,4.742,2.524,6.223,-18.02,-10.91,-19.68,-1.589,-1.042,12.59,3.362,-14.18,-10.18,21.62,16.3,7.923,6.593,0,0,0,0,0,0,0,0,0,0,0,0,0,0,0,0,
659,-5.879,-7.621,0.5405,-13.48,-18.69,-29.42,-14.78,-7.779,3.965,-12.65,-22.78,-21.85,12.42,4.98,-4.591,-6.36,0,0,0,0,0,0,0,0,0,0,0,0,0,0,0,0,
660,-2.33,-18.12,-7.875,-30.6,-20.34,-38.4,-15.6,-22.23,-3.713,-25.3,-27.7,-34.6,2.948,-6.872,-14.75,-15.8,0,0,0,0,0,0,0,0,0,0,0,0,0,0,0,0,
661,-5.373,-17.86,-6.269,-38.84,-20.05,-38.16,-22.56,-25.51,-8.147,-29.6,-21.07,-29.48,-2.94,-11.53,-21.15,-19.31,0,0,0,0,0,0,0,0,0,0,0,0,0,0,0,0,
662,-7.671,-14.95,-5.248,-29.25,-19.59,-29.96,-30.21,-14.51,-8.603,-31.21,-15.11,-19.76,-4.699,-13.43,-21.58,-20.16,0,0,0,0,0,0,0,0,0,0,0,0,0,0,0,0,
663,6.455,-16.58,2.804,-33.12,-22.49,-29.87,-17.03,-14.01,-10.04,-29.78,-16.92,-27.97,-5.22,-17.77,-25.36,-24.53,0,0,0,0,0,0,0,0,0,0,0,0,0,0,0,0,
664,-5.897,-20.2,1.931,-39.08,-28.46,-37.13,6.708,-20.6,-12.47,-27.1,-18.88,-38.73,-6.63,-19.66,-30.95,-27.51,0,0,0,0,0,0,0,0,0,0,0,0,0,0,0,0,
665,-23.01,-15.79,0.8799,-30.63,-20.09,-31.18,22.02,-7.639,-5.221,-25.31,-6.336,-24.41,0.9525,-9.516,-18.11,-15.14,0,0,0,0,0,0,0,0,0,0,0,0,0,0,0,0,
666,9.936,-1.184,20.2,-22.97,-1.595,-15.25,24.82,6.78,6.109,-18.19,6.459,-6.971,12.05,2.813,0.0393,-1.336,0,0,0,0,0,0,0,0,0,0,0,0,0,0,0,0,
667,33.92,13.54,16.08,-13.28,3.949,-9.308,27.32,0.8386,8.847,-9.315,0.1103,-10.45,14.04,5.044,4.27,0.0355,0,0,0,0,0,0,0,0,0,0,0,0,0,0,0,0,
668,18.99,22.16,8.502,0.5488,8.358,-6.258,33.72,-1.684,15.34,-3.526,-0.2492,-10.88,19.82,7.264,7.846,0.0252,0,0,0,0,0,0,0,0,0,0,0,0,0,0,0,0,
669,21.88,20.95,42.96,0.029,20.29,0.5931,23.62,5.331,28.98,1.45,7.45,-6.866,26.67,8.458,5.995,-8.665,0,0,0,0,0,0,0,0,0,0,0,0,0,0,0,0,
670,33.9,16.59,61.07,-5.102,21.29,1.191,19.95,8.748,32.47,0.416,1.562,-15.21,21.71,3.389,-3.834,-23.05,0,0,0,0,0,0,0,0,0,0,0,0,0,0,0,0,
671,33.76,24.5,58.73,0.6693,20.42,2.415,51.12,14.6,33.07,-0.142,8.77,-16.7,23.82,6.461,2.219,-15.75,0,0,0,0,0,0,0,0,0,0,0,0,0,0,0,0,
672,41.1,32.09,65.53,0.9169,24.25,6.391,57.71,15.12,39.15,8.042,26.97,-9.309,33.74,13.2,13.25,-1.934,0,0,0,0,0,0,0,0,0,0,0,0,0,0,0,0,
673,36.78,18.78,29.41,-6.133,12.69,0.9973,24.8,6.362,37.71,7.782,16.6,-9.991,28.48,9.095,6.689,-6.414,0,0,0,0,0,0,0,0,0,0,0,0,0,0,0,0,
674,10.84,-3.321,-14.56,-8.741,-2.148,-7.247,20.73,9.404,31.37,-2.896,1.796,-7.938,15.55,3.341,-4.356,-14.09,0,0,0,0,0,0,0,0,0,0,0,0,0,0,0,0,
675,-3.38,-13.87,12.93,-13.95,-1.478,-11.13,32.99,14.86,25.64,-4.642,8.835,0.7451,11.63,2.269,-2.829,-12.94,0,0,0,0,0,0,0,0,0,0,0,0,0,0,0,0,
676,-0.3052,-10.78,54.34,-18.95,-0.033,-14.4,21.67,3.248,17.53,-1.444,12.81,7.137,14.72,2.687,9.89,-5.9,0,0,0,0,0,0,0,0,0,0,0,0,0,0,0,0,
677,7.276,-0.6829,51.37,-14.39,-0.6281,-13.84,16.42,-1.405,16.22,-3.841,8.472,9.657,16.33,3.483,13.17,-2.615,0,0,0,0,0,0,0,0,0,0,0,0,0,0,0,0,
678,24.03,13.74,40.36,-4.192,5.012,-8.475,30.62,13.43,21.56,-4.595,6.644,0.7094,13.15,0.618,0.4972,-12.28,0,0,0,0,0,0,0,0,0,0,0,0,0,0,0,0,
679,39.9,20.62,41.42,5.965,8.49,-3.263,44.95,15.39,21.79,-1.749,4.003,-11.58,11.3,-2.159,-3.866,-18.76,0,0,0,0,0,0,0,0,0,0,0,0,0,0,0,0,
680,33.61,11.08,30.07,8.672,11.04,1.952,46.58,2.562,18.45,-0.8572,5.885,-4.218,14.78,5.299,4.211,-6.88,0,0,0,0,0,0,0,0,0,0,0,0,0,0,0,0,
681,28.6,19.15,14.61,11.95,24.04,13.86,32.14,15.91,21.75,6.156,20.14,15.61,25.23,22.51,16.9,12.82,0,0,0,0,0,0,0,0,0,0,0,0,0,0,0,0,
682,50.84,52.54,41.05,25.66,38.82,32.38,21.27,43.8,36.12,23.7,30.49,26.23,37.98,35.52,31.32,24.54,0,0,0,0,0,0,0,0,0,0,0,0,0,0,0,0,
683,65.52,58.0,85.01,30.09,39.46,41.56,24.3,38.44,42.65,31.73,18.35,26.51,34.45,30.95,24.79,19.51,0,0,0,0,0,0,0,0,0,0,0,0,0,0,0,0,
684,58.58,42.96,78.53,23.45,31.53,36.09,27.83,21.9,27.32,21.82,7.617,26.37,23.8,20.81,11.27,12.83,0,0,0,0,0,0,0,0,0,0,0,0,0,0,0,0,
685,58.07,48.1,49.41,20.38,31.56,30.4,37.0,27.56,20.99,14.69,23.66,29.82,30.72,22.01,25.15,18.78,0,0,0,0,0,0,0,0,0,0,0,0,0,0,0,0,
686,55.44,46.63,44.41,14.39,37.4,29.1,50.6,22.7,34.33,16.68,33.53,27.23,31.2,19.65,29.92,14.28,0,0,0,0,0,0,0,0,0,0,0,0,0,0,0,0,
687,46.34,33.72,40.17,14.27,36.99,28.0,38.64,3.657,33.1,16.14,16.87,14.99,11.57,10.38,9.559,1.796,0,0,0,0,0,0,0,0,0,0,0,0,0,0,0,0,
688,48.1,38.95,40.78,20.67,36.6,27.54,10.29,9.257,24.5,18.33,3.902,8.726,6.485,14.68,8.378,8.218,0,0,0,0,0,0,0,0,0,0,0,0,0,0,0,0,
689,51.79,44.7,60.81,13.61,38.28,25.52,8.803,21.48,28.9,26.35,-5.344,5.323,6.397,13.33,7.341,3.874,0,0,0,0,0,0,0,0,0,0,0,0,0,0,0,0,
690,54.58,38.35,58.8,7.624,33.06,22.81,27.11,8.713,22.45,24.02,-17.03,-6.769,-7.208,-3.284,-10.27,-17.95,0,0,0,0,0,0,0,0,0,0,0,0,0,0,0,0,
691,48.67,29.1,28.46,0.4803,42.84,28.17,39.24,-7.2,21.08,22.21,-0.6784,-6.633,8.094,11.42,7.438,-3.703,0,0,0,0,0,0,0,0,0,0,0,0,0,0,0,0,
692,21.74,13.47,17.26,-24.54,67.84,36.87,41.5,-9.732,53.96,44.3,17.3,3.162,36.21,39.58,31.3,20.35,0,0,0,0,0,0,0,0,0,0,0,0,0,0,0,0,
693,16.8,10.38,30.86,-25.02,54.26,29.83,9.172,-9.463,61.12,55.22,-14.17,-11.66,12.73,18.68,0.0518,-2.371,0,0,0,0,0,0,0,0,0,0,0,0,0,0,0,0,
694,47.93,31.77,37.03,6.069,16.21,12.64,-40.38,-8.217,18.52,27.41,-47.05,-31.57,-20.08,-11.01,-27.94,-29.14,0,0,0,0,0,0,0,0,0,0,0,0,0,0,0,0,
695,58.22,44.69,25.14,16.26,15.47,12.63,-33.51,-8.065,0.0727,11.28,-32.74,-22.33,-8.245,-0.202,-13.65,-25.43,0,0,0,0,0,0,0,0,0,0,0,0,0,0,0,0,
696,47.19,42.9,7.213,17.56,34.26,31.38,5.894,-7.288,15.22,30.41,-9.827,-2.275,10.8,18.12,-3.69,-16.38,0,0,0,0,0,0,0,0,0,0,0,0,0,0,0,0,
697,55.92,54.11,-2.668,40.39,47.27,49.62,7.266,9.215,24.86,48.48,1.094,10.58,20.96,31.78,6.124,-3.284,0,0,0,0,0,0,0,0,0,0,0,0,0,0,0,0,
698,68.97,67.43,2.629,55.68,60.6,55.65,-0.4051,27.92,36.16,54.52,9.021,16.68,28.92,42.0,26.34,8.824,0,0,0,0,0,0,0,0,0,0,0,0,0,0,0,0,
699,62.93,61.85,8.351,47.9,54.79,49.18,13.56,24.11,37.72,53.62,7.37,15.6,19.43,33.07,21.54,5.791,0,0,0,0,0,0,0,0,0,0,0,0,0,0,0,0,
700,50.45,55.54,-10.67,40.61,45.62,45.42,19.31,20.78,24.19,48.0,8.951,17.28,13.21,27.81,6.345,6.442,0,0,0,0,0,0,0,0,0,0,0,0,0,0,0,0,
701,46.7,56.51,-30.05,44.45,56.99,50.52,6.801,34.79,28.72,45.86,16.3,22.39,23.84,34.35,12.02,15.73,0,0,0,0,0,0,0,0,0,0,0,0,0,0,0,0,
702,55.74,52.43,-4.94,49.98,52.8,49.62,-9.854,37.26,35.09,38.01,11.53,23.37,27.74,29.99,24.01,21.4,0,0,0,0,0,0,0,0,0,0,0,0,0,0,0,0,
703,64.54,52.79,21.02,52.87,39.74,47.01,-9.116,29.73,27.42,29.36,14.11,27.83,32.61,29.69,35.0,26.63,0,0,0,0,0,0,0,0,0,0,0,0,0,0,0,0,
704,58.34,57.84,-1.942,57.04,55.72,57.01,16.3,37.79,38.09,42.87,31.22,34.9,44.86,41.96,44.2,26.16,0,0,0,0,0,0,0,0,0,0,0,0,0,0,0,0,
705,50.86,50.19,-10.06,56.91,68.99,67.08,24.61,42.04,51.4,60.81,29.48,33.5,42.99,46.08,40.24,18.24,0,0,0,0,0,0,0,0,0,0,0,0,0,0,0,0,
706,51.04,42.3,19.36,49.35,59.22,63.32,-0.7064,28.45,37.66,59.87,17.16,27.89,35.02,44.43,33.38,18.88,0,0,0,0,0,0,0,0,0,0,0,0,0,0,0,0,
707,43.92,45.35,11.4,46.77,55.23,53.79,-9.213,25.47,25.53,53.05,24.1,28.48,38.15,45.48,37.08,29.46,0,0,0,0,0,0,0,0,0,0,0,0,0,0,0,0,
708,34.4,40.69,-18.11,47.58,55.32,48.81,3.726,36.65,29.53,51.03,30.33,36.97,41.31,46.02,42.42,36.11,0,0,0,0,0,0,0,0,0,0,0,0,0,0,0,0,
709,36.62,29.09,-10.73,40.65,45.38,46.3,-11.58,39.93,29.59,53.66,19.11,46.54,36.9,47.59,43.88,35.49,0,0,0,0,0,0,0,0,0,0,0,0,0,0,0,0,
710,38.82,26.13,-2.56,34.22,36.15,41.09,-31.73,40.27,23.24,58.7,16.7,50.43,33.31,49.92,44.44,37.51,0,0,0,0,0,0,0,0,0,0,0,0,0,0,0,0,
711,27.49,25.59,-12.34,34.11,35.57,37.51,-6.072,46.7,20.08,58.87,28.39,51.33,33.32,50.98,39.23,41.9,0,0,0,0,0,0,0,0,0,0,0,0,0,0,0,0,
712,14.25,22.43,-14.01,34.78,39.29,39.77,26.52,49.15,23.16,57.32,33.1,53.5,31.7,50.68,30.25,35.32,0,0,0,0,0,0,0,0,0,0,0,0,0,0,0,0,
713,20.34,19.79,-20.68,37.3,37.78,40.34,22.7,45.0,26.57,57.65,32.1,51.13,27.31,45.15,25.78,20.06,0,0,0,0,0,0,0,0,0,0,0,0,0,0,0,0,
714,31.69,14.53,-30.34,37.71,28.04,32.58,8.226,41.89,21.11,50.4,28.03,39.48,22.94,35.41,18.29,7.287,0,0,0,0,0,0,0,0,0,0,0,0,0,0,0,0,
715,17.3,12.53,-26.15,31.42,22.76,24.04,5.039,44.03,14.64,40.87,21.89,30.68,23.53,33.31,11.14,2.619,0,0,0,0,0,0,0,0,0,0,0,0,0,0,0,0,
716,1.375,17.17,-28.42,27.14,23.46,22.96,7.663,49.53,19.92,43.73,30.17,32.41,31.95,40.15,19.9,11.17,0,0,0,0,0,0,0,0,0,0,0,0,0,0,0,0,
717,10.15,16.72,-34.28,23.83,18.09,19.56,-1.741,47.0,24.79,44.96,37.76,29.02,36.76,39.38,29.61,21.45,0,0,0,0,0,0,0,0,0,0,0,0,0,0,0,0,
718,14.77,13.94,-25.37,16.86,14.91,10.19,-29.86,31.54,17.47,29.74,24.23,18.64,32.2,32.03,31.5,23.51,0,0,0,0,0,0,0,0,0,0,0,0,0,0,0,0,
719,13.4,13.85,-16.98,19.78,18.95,11.45,-31.46,18.46,12.66,18.13,19.95,18.57,30.42,33.11,38.55,27.89,0,0,0,0,0,0,0,0,0,0,0,0,0,0,0,0,
720,22.95,6.973,-14.22,29.51,13.98,16.59,11.08,17.74,15.36,19.18,31.16,17.87,26.11,29.23,29.94,22.47,0,0,0,0,0,0,0,0,0,0,0,0,0,0,0,0,
721,19.76,2.635,-18.77,26.32,8.234,9.274,32.62,20.82,10.82,14.43,25.81,5.71,9.639,12.74,-0.2664,1.199,0,0,0,0,0,0,0,0,0,0,0,0,0,0,0,0,
722,4.414,9.124,-34.73,20.72,14.68,6.766,10.55,21.3,2.241,5.721,13.39,7.701,-1.448,8.821,-7.012,3.858,0,0,0,0,0,0,0,0,0,0,0,0,0,0,0,0,
723,-0.0242,7.146,-33.97,20.14,8.7,8.599,-8.833,19.05,-2.529,0.5462,10.46,20.86,-2.564,13.58,12.58,27.69,0,0,0,0,0,0,0,0,0,0,0,0,0,0,0,0,
724,-5.671,-7.178,-25.33,6.983,-12.07,-5.877,-13.78,14.19,-13.95,-11.51,6.307,15.89,-6.836,5.542,20.48,26.43,0,0,0,0,0,0,0,0,0,0,0,0,0,0,0,0,
725,-13.88,-19.04,-44.06,-0.0773,-14.44,-12.6,-12.98,15.56,-23.6,-18.1,7.198,14.5,-5.241,4.626,18.76,14.88,0,0,0,0,0,0,0,0,0,0,0,0,0,0,0,0,
726,-13.48,-25.41,-56.93,16.56,-6.454,0.0739,-9.564,25.13,-13.77,-4.36,12.42,31.54,2.367,15.94,19.39,18.11,0,0,0,0,0,0,0,0,0,0,0,0,0,0,0,0,
727,-20.87,-29.25,-49.4,15.82,-15.91,-4.039,-26.86,23.22,-10.1,3.055,0.2173,27.08,-5.145,8.385,10.23,10.38,0,0,0,0,0,0,0,0,0,0,0,0,0,0,0,0,
728,-32.69,-32.61,-59.96,-3.363,-27.09,-19.54,-47.67,11.68,-28.92,-5.835,-11.56,8.463,-15.56,-5.048,2.137,-0.6352,0,0,0,0,0,0,0,0,0,0,0,0,0,0,0,0,
729,-27.23,-30.73,-68.41,5.185,-22.53,-15.94,-23.08,16.23,-30.43,-3.059,4.809,17.73,-6.988,2.352,15.42,13.37,0,0,0,0,0,0,0,0,0,0,0,0,0,0,0,0,
730,-21.48,-22.73,-48.48,18.32,-16.54,-9.576,10.16,24.16,-10.56,6.719,18.36,29.5,-0.7633,5.834,24.28,22.13,0,0,0,0,0,0,0,0,0,0,0,0,0,0,0,0,
731,-26.87,-24.64,-32.85,4.998,-17.19,-14.0,-2.773,16.02,-12.81,0.3831,5.932,19.16,-8.973,-2.45,11.96,9.365,0,0,0,0,0,0,0,0,0,0,0,0,0,0,0,0,
732,-20.8,-32.97,-29.23,-1.069,-17.88,-13.3,-18.82,14.45,-24.73,-4.775,3.506,18.36,-6.295,4.893,11.3,9.208,0,0,0,0,0,0,0,0,0,0,0,0,0,0,0,0,
733,-6.552,-23.68,-17.12,8.828,-10.01,-3.918,-4.024,21.06,-12.78,9.12,19.73,28.02,8.153,19.24,20.91,16.93,0,0,0,0,0,0,0,0,0,0,0,0,0,0,0,0,
734,0.3357,-0.2249,-8.217,13.87,10.75,8.281,7.564,15.72,5.266,23.03,22.6,21.73,15.67,23.53,16.33,9.686,0,0,0,0,0,0,0,0,0,0,0,0,0,0,0,0,
735,9.779,16.07,-12.84,18.53,27.3,19.59,8.318,15.01,15.55,26.35,20.53,16.23,23.39,32.89,23.24,10.33,0,0,0,0,0,0,0,0,0,0,0,0,0,0,0,0,
736,23.17,20.66,-3.217,24.66,29.23,27.65,10.32,26.28,23.22,34.93,31.64,31.07,34.21,47.74,43.91,25.65,0,0,0,0,0,0,0,0,0,0,0,0,0,0,0,0,
737,28.66,20.43,13.14,26.62,32.86,32.54,6.899,29.25,20.37,46.88,35.72,42.31,33.45,49.35,42.93,29.94,0,0,0,0,0,0,0,0,0,0,0,0,0,0,0,0,
738,18.93,14.8,-15.61,23.2,34.95,29.0,4.465,24.66,14.54,41.65,34.5,35.75,30.3,44.38,39.93,33.25,0,0,0,0,0,0,0,0,0,0,0,0,0,0,0,0,
739,1.968,5.564,-48.09,17.08,29.46,24.04,10.09,18.93,21.62,31.15,50.51,33.32,40.7,48.92,53.67,47.77,0,0,0,0,0,0,0,0,0,0,0,0,0,0,0,0,
740,5.107,9.648,-15.4,19.76,34.08,29.23,14.56,13.09,30.12,38.62,60.84,36.49,44.62,48.52,49.7,42.3,0,0,0,0,0,0,0,0,0,0,0,0,0,0,0,0,
741,16.42,19.22,13.7,20.36,33.6,25.34,12.83,12.6,24.29,41.5,41.71,25.61,25.45,27.98,27.16,14.24,0,0,0,0,0,0,0,0,0,0,0,0,0,0,0,0,
742,2.35,4.728,-9.328,4.438,9.79,4.351,2.87,8.657,8.75,20.22,20.19,11.46,8.002,9.705,15.67,2.172,0,0,0,0,0,0,0,0,0,0,0,0,0,0,0,0,
743,-11.99,-16.73,-23.88,-4.553,-6.473,-9.908,-10.19,-2.466,-2.592,-0.053,12.25,7.316,6.509,7.327,10.56,4.148,0,0,0,0,0,0,0,0,0,0,0,0,0,0,0,0,
744,-16.14,-19.17,-29.28,-2.416,-9.86,-16.0,-12.16,-11.1,-6.745,-10.71,2.64,2.466,2.614,2.532,1.565,-3.96,0,0,0,0,0,0,0,0,0,0,0,0,0,0,0,0,
745,-33.01,-22.82,-44.56,-9.747,-21.16,-19.74,-7.914,-20.79,-11.72,-21.72,-5.26,-2.361,-4.244,-4.137,-1.881,-10.04,0,0,0,0,0,0,0,0,0,0,0,0,0,0,0,0,
746,-33.02,-30.14,-38.16,-13.48,-23.35,-12.9,-15.67,-26.46,-16.16,-21.4,-6.096,-7.441,-3.917,-4.987,0.1764,-8.044,0,0,0,0,0,0,0,0,0,0,0,0,0,0,0,0,
747,-15.51,-19.77,-24.55,-5.176,-14.49,-8.457,-29.41,-19.75,-18.11,-14.25,-10.81,-22.33,-7.625,-13.23,-7.452,-16.97,0,0,0,0,0,0,0,0,0,0,0,0,0,0,0,0,
748,-20.33,-5.018,-26.36,-2.094,-19.49,-14.27,-28.15,-17.02,-22.69,-20.28,-12.32,-28.65,-14.67,-22.07,-21.01,-27.89,0,0,0,0,0,0,0,0,0,0,0,0,0,0,0,0,
749,-22.9,-5.305,-33.04,-3.21,-25.07,-13.43,-14.33,-18.22,-20.02,-25.99,-2.855,-13.67,-9.519,-14.3,-17.9,-20.95,0,0,0,0,0,0,0,0,0,0,0,0,0,0,0,0,
750,-19.78,-12.56,-49.59,1.191,-16.01,-8.832,-11.11,-8.591,-6.703,-14.95,-0.0739,-0.9494,-1.287,-3.19,-5.244,-11.96,0,0,0,0,0,0,0,0,0,0,0,0,0,0,0,0,
751,-37.54,-14.82,-58.79,10.53,-12.79,-9.053,-25.45,-0.585,-4.914,-0.0028,-6.351,3.18,-2.573,-0.9974,-4.692,-14.0,0,0,0,0,0,0,0,0,0,0,0,0,0,0,0,0,
752,-34.68,-12.81,-38.69,17.29,-18.17,-4.147,-28.87,-0.3786,-15.54,8.237,-0.9149,9.81,-3.32,-0.0387,-4.082,-13.74,0,0,0,0,0,0,0,0,0,0,0,0,0,0,0,0,
753,-8.489,-12.3,-15.98,12.14,-14.61,0.4637,-3.51,3.656,-15.02,11.64,13.04,9.363,1.392,1.958,4.151,-12.08,0,0,0,0,0,0,0,0,0,0,0,0,0,0,0,0,
754,-4.334,-9.298,-12.17,6.719,-6.731,-3.175,9.771,8.923,-4.016,12.59,12.79,2.511,4.488,2.941,2.864,-13.99,0,0,0,0,0,0,0,0,0,0,0,0,0,0,0,0,
755,-7.083,-1.185,-24.75,14.15,-2.511,1.19,-8.854,11.98,0.957,15.79,2.438,8.195,7.354,5.958,-3.262,-5.089,0,0,0,0,0,0,0,0,0,0,0,0,0,0,0,0,
756,-14.81,2.133,-39.3,17.01,2.006,11.07,-11.63,13.69,0.6069,20.99,0.0061,21.14,11.23,9.168,-3.528,6.637,0,0,0,0,0,0,0,0,0,0,0,0,0,0,0,0,
757,-29.75,1.911,-32.96,9.744,-1.383,4.046,-0.5704,11.01,0.816,18.95,-1.252,22.93,7.179,4.343,-6.844,-1.135,0,0,0,0,0,0,0,0,0,0,0,0,0,0,0,0,
758,-12.83,1.1,-22.1,8.415,-17.48,-9.381,-12.88,10.75,-5.854,7.845,-3.914,16.91,-2.865,-5.481,-9.25,-10.2,0,0,0,0,0,0,0,0,0,0,0,0,0,0,0,0,
759,2.201,-10.73,-27.81,4.574,-29.05,-12.51,-15.77,15.84,-20.81,-2.076,4.624,17.87,-5.098,-6.411,-3.894,0.1131,0,0,0,0,0,0,0,0,0,0,0,0,0,0,0,0,
760,-19.95,-21.67,-28.86,-6.609,-32.17,-19.05,-5.683,14.3,-28.65,-4.367,4.396,24.66,-4.603,-3.183,-4.627,8.295,0,0,0,0,0,0,0,0,0,0,0,0,0,0,0,0,
761,-24.56,-16.48,-31.26,-3.585,-40.75,-29.39,-29.15,4.971,-29.61,-4.566,-20.13,22.14,-15.54,-12.7,-13.62,-1.162,0,0,0,0,0,0,0,0,0,0,0,0,0,0,0,0,
762,-18.4,-15.27,-48.84,8.636,-48.22,-27.39,-51.39,0.9797,-39.32,-11.12,-32.54,13.31,-30.34,-28.9,-19.26,-14.03,0,0,0,0,0,0,0,0,0,0,0,0,0,0,0,0,
763,-36.99,-21.96,-48.53,8.166,-41.45,-22.15,-33.62,5.029,-50.69,-22.0,-21.15,13.33,-37.01,-37.18,-22.02,-18.63,0,0,0,0,0,0,0,0,0,0,0,0,0,0,0,0,
764,-33.93,-18.35,-37.32,2.083,-34.68,-24.7,-19.65,3.333,-49.66,-27.85,-21.74,11.69,-38.04,-39.75,-23.24,-17.76,0,0,0,0,0,0,0,0,0,0,0,0,0,0,0,0,
765,-12.63,-15.5,-49.73,-0.9718,-42.47,-27.0,-28.36,-7.718,-45.26,-28.58,-36.8,1.299,-37.72,-38.86,-23.08,-18.43,0,0,0,0,0,0,0,0,0,0,0,0,0,0,0,0,
766,-16.43,-17.21,-52.87,-2.321,-49.12,-25.56,-35.12,-8.518,-46.67,-27.99,-38.56,2.53,-35.04,-29.9,-23.79,-16.74,0,0,0,0,0,0,0,0,0,0,0,0,0,0,0,0,
767,-11.05,-7.088,-25.06,6.358,-40.97,-19.41,-36.99,4.799,-45.28,-22.81,-29.26,9.694,-28.89,-21.56,-22.75,-13.66,0,0,0,0,0,0,0,0,0,0,0,0,0,0,0,0,
768,2.93,-0.5251,-11.62,13.75,-35.11,-14.23,-40.87,7.166,-38.85,-20.94,-32.53,0.1951,-29.94,-31.0,-26.56,-28.36,0,0,0,0,0,0,0,0,0,0,0,0,0,0,0,0,
769,-23.24,-11.69,-34.45,-2.381,-45.19,-26.55,-43.74,-6.662,-43.44,-33.7,-45.36,-10.99,-44.66,-47.99,-34.92,-45.77,0,0,0,0,0,0,0,0,0,0,0,0,0,0,0,0,
770,-46.53,-19.75,-58.08,-16.65,-52.32,-39.37,-38.23,-13.92,-57.05,-42.97,-43.19,-9.162,-49.26,-44.06,-28.87,-33.2,0,0,0,0,0,0,0,0,0,0,0,0,0,0,0,0,
771,-20.38,-15.36,-44.07,-0.0308,-40.09,-23.06,-28.59,-8.68,-54.12,-31.54,-33.1,-8.94,-35.23,-28.17,-18.76,-19.75,0,0,0,0,0,0,0,0,0,0,0,0,0,0,0,0,
772,4.218,-8.34,-11.79,13.28,-25.81,-5.72,-28.49,-8.388,-40.96,-19.82,-38.24,-13.17,-32.27,-28.7,-27.07,-32.55,0,0,0,0,0,0,0,0,0,0,0,0,0,0,0,0,
773,-6.55,-6.923,-12.34,-1.575,-27.55,-17.42,-35.82,-18.07,-43.27,-25.3,-45.57,-13.61,-42.57,-37.5,-37.69,-41.22,0,0,0,0,0,0,0,0,0,0,0,0,0,0,0,0,
774,-27.45,-15.01,-37.22,-7.931,-35.3,-27.95,-46.21,-18.72,-51.05,-34.88,-39.37,-12.58,-42.65,-37.84,-35.06,-38.38,0,0,0,0,0,0,0,0,0,0,0,0,0,0,0,0,
775,-33.43,-15.92,-47.02,8.778,-34.82,-18.91,-54.63,-3.912,-48.06,-34.11,-28.86,-8.272,-32.4,-30.8,-23.5,-32.65,0,0,0,0,0,0,0,0,0,0,0,0,0,0,0,0,
776,-13.54,3.002,-36.3,17.14,-26.35,-10.2,-39.78,3.118,-38.92,-24.66,-14.12,4.499,-17.57,-15.01,-4.788,-9.914,0,0,0,0,0,0,0,0,0,0,0,0,0,0,0,0,
777,6.126,12.31,-11.39,12.28,-20.91,-7.92,-11.0,-4.693,-30.48,-17.66,4.924,16.8,-6.224,-1.379,6.289,10.6,0,0,0,0,0,0,0,0,0,0,0,0,0,0,0,0,
778,-1.435,-3.298,2.404,12.0,-28.69,-11.55,-3.578,-6.968,-32.26,-20.51,10.79,13.61,-11.8,-6.877,-1.812,2.521,0,0,0,0,0,0,0,0,0,0,0,0,0,0,0,0,
779,-10.77,-9.706,-16.97,10.14,-38.09,-22.35,-11.12,-3.971,-40.55,-28.31,-2.628,-2.594,-22.67,-19.43,-11.35,-10.24,0,0,0,0,0,0,0,0,0,0,0,0,0,0,0,0,
780,-15.25,-1.935,-38.21,2.025,-34.89,-26.86,-15.6,-7.181,-39.91,-33.53,-19.77,-12.91,-25.32,-24.81,-11.08,-9.457,0,0,0,0,0,0,0,0,0,0,0,0,0,0,0,0,
781,-27.9,-9.244,-39.21,3.969,-31.24,-21.88,-23.44,-9.092,-39.0,-34.62,-24.36,-13.32,-27.37,-28.05,-10.3,-7.88,0,0,0,0,0,0,0,0,0,0,0,0,0,0,0,0,
782,-22.99,-19.26,-32.35,10.58,-34.84,-21.62,-31.14,-12.95,-43.83,-35.11,-19.5,-17.5,-28.8,-29.96,-13.78,-12.67,0,0,0,0,0,0,0,0,0,0,0,0,0,0,0,0,
783,-13.85,-18.34,-21.43,-0.9418,-42.23,-29.98,-35.49,-28.08,-43.68,-40.04,-24.1,-28.18,-33.02,-33.29,-23.16,-25.37,0,0,0,0,0,0,0,0,0,0,0,0,0,0,0,0,
784,-37.26,-29.57,-23.62,-21.43,-59.21,-43.27,-46.0,-42.33,-52.4,-49.16,-43.68,-37.56,-51.37,-44.43,-38.25,-38.35,0,0,0,0,0,0,0,0,0,0,0,0,0,0,0,0,
785,-54.2,-44.24,-49.23,-32.91,-73.77,-58.14,-57.7,-50.95,-75.42,-59.74,-61.68,-36.59,-66.09,-51.73,-45.01,-34.06,0,0,0,0,0,0,0,0,0,0,0,0,0,0,0,0,
786,-38.69,-38.17,-63.57,-35.79,-68.89,-61.64,-62.18,-53.92,-80.2,-65.62,-60.16,-24.45,-57.66,-45.04,-37.66,-22.78,0,0,0,0,0,0,0,0,0,0,0,0,0,0,0,0,
787,-31.46,-28.37,-49.86,-26.49,-60.09,-48.65,-60.76,-41.27,-62.16,-57.37,-42.63,-19.12,-43.89,-37.38,-31.79,-25.94,0,0,0,0,0,0,0,0,0,0,0,0,0,0,0,0,
788,-43.19,-29.46,-40.83,-15.94,-58.44,-39.81,-49.5,-27.79,-50.81,-45.45,-28.09,-17.46,-36.76,-34.57,-23.96,-23.36,0,0,0,0,0,0,0,0,0,0,0,0,0,0,0,0,
789,-47.11,-31.67,-52.3,-21.54,-52.72,-43.35,-25.78,-26.93,-47.38,-45.74,-17.8,0.5672,-24.07,-24.88,-4.223,-2.137,0,0,0,0,0,0,0,0,0,0,0,0,0,0,0,0,
790,-33.86,-26.64,-48.47,-22.19,-41.96,-38.1,-5.461,-20.7,-38.69,-44.72,-5.825,12.57,-12.12,-12.43,2.879,3.804,0,0,0,0,0,0,0,0,0,0,0,0,0,0,0,0,
791,-16.8,-11.15,-11.54,-4.585,-29.75,-19.95,-3.864,-7.054,-28.67,-30.82,2.436,11.19,-8.587,-5.664,-0.3638,-1.818,0,0,0,0,0,0,0,0,0,0,0,0,0,0,0,0,
792,-6.729,5.55,14.04,9.866,-14.97,-5.84,-1.777,4.566,-14.0,-14.29,18.98,26.91,5.323,5.794,20.52,14.4,0,0,0,0,0,0,0,0,0,0,0,0,0,0,0,0,
793,2.882,11.07,5.848,17.44,-6.867,-1.957,18.47,14.59,5.717,-2.951,43.3,34.8,24.54,16.96,41.81,28.19,0,0,0,0,0,0,0,0,0,0,0,0,0,0,0,0,
794,12.54,13.78,-1.396,27.72,-7.675,-1.837,31.08,13.93,10.49,-0.4816,41.47,19.79,26.64,17.35,38.23,26.22,0,0,0,0,0,0,0,0,0,0,0,0,0,0,0,0,
795,18.94,25.31,8.868,37.78,1.505,8.528,29.35,8.68,6.824,2.604,26.09,27.65,25.8,22.33,39.68,35.52,0,0,0,0,0,0,0,0,0,0,0,0,0,0,0,0,
796,25.72,32.08,21.97,38.23,18.67,21.99,33.15,12.02,15.49,13.83,30.4,36.91,26.33,24.47,37.61,31.86,0,0,0,0,0,0,0,0,0,0,0,0,0,0,0,0,
797,24.76,21.54,26.35,27.3,18.34,14.81,21.49,7.908,17.84,9.79,28.55,12.91,12.75,6.855,13.65,4.54,0,0,0,0,0,0,0,0,0,0,0,0,0,0,0,0,
798,16.64,14.56,19.89,24.25,5.191,3.43,-3.614,-6.382,4.952,-9.136,10.05,3.266,3.301,-3.519,5.742,3.895,0,0,0,0,0,0,0,0,0,0,0,0,0,0,0,0,
799,9.074,20.47,7.207,30.04,-7.646,2.826,4.672,-13.93,-5.158,-14.73,0.8383,9.693,-1.74,-3.832,9.56,16.42,0,0,0,0,0,0,0,0,0,0,0,0,0,0,0,0,
800,-6.202,14.24,-6.099,16.46,-27.23,-10.8,17.52,-18.46,-22.05,-20.05,-9.905,-7.212,-25.77,-22.69,-11.04,-2.634,0,0,0,0,0,0,0,0,0,0,0,0,0,0,0,0,
801,-18.4,-5.033,-8.815,-7.562,-38.91,-27.16,-8.944,-25.28,-43.59,-36.42,-23.59,-23.09,-40.57,-39.26,-25.94,-22.09,0,0,0,0,0,0,0,0,0,0,0,0,0,0,0,0,
802,-17.25,-17.75,-7.201,-13.04,-34.95,-27.2,-22.08,-32.36,-42.02,-43.17,-18.48,-25.65,-31.11,-35.86,-19.84,-21.34,0,0,0,0,0,0,0,0,0,0,0,0,0,0,0,0,
803,-20.97,-23.08,-28.65,-8.712,-43.04,-34.21,-5.391,-40.43,-31.88,-46.31,-16.69,-34.91,-34.12,-38.6,-29.25,-30.14,0,0,0,0,0,0,0,0,0,0,0,0,0,0,0,0,
804,-27.72,-23.73,-46.52,-9.923,-54.32,-44.85,-11.87,-42.5,-33.66,-52.66,-24.65,-35.23,-40.9,-43.14,-40.02,-40.51,0,0,0,0,0,0,0,0,0,0,0,0,0,0,0,0,
805,-29.64,-23.69,-22.09,-10.66,-43.92,-38.9,-20.26,-36.31,-29.16,-43.92,-8.453,-19.38,-23.97,-31.16,-21.49,-26.46,0,0,0,0,0,0,0,0,0,0,0,0,0,0,0,0,
806,-34.24,-23.3,-4.151,-5.193,-37.96,-34.58,-6.583,-29.95,-19.07,-29.15,6.683,-13.99,-14.43,-25.22,-9.085,-11.97,0,0,0,0,0,0,0,0,0,0,0,0,0,0,0,0,
807,-34.58,-18.39,-22.13,-3.949,-48.36,-39.79,-16.65,-25.38,-23.25,-31.51,-12.14,-22.86,-30.93,-38.53,-27.41,-24.66,0,0,0,0,0,0,0,0,0,0,0,0,0,0,0,0,
808,-30.37,-22.3,-24.7,-12.54,-46.58,-39.09,-27.6,-22.34,-30.81,-41.19,-19.0,-22.87,-39.28,-45.18,-37.75,-39.23,0,0,0,0,0,0,0,0,0,0,0,0,0,0,0,0,
809,-27.01,-30.34,-13.86,-11.95,-34.45,-33.29,2.563,-21.77,-23.53,-37.63,0.2623,-12.11,-27.21,-34.25,-23.25,-29.82,0,0,0,0,0,0,0,0,0,0,0,0,0,0,0,0,
810,-19.3,-23.68,-29.67,-2.589,-31.63,-30.83,16.55,-20.43,-13.33,-26.01,1.627,-9.583,-18.29,-25.08,-15.16,-16.98,0,0,0,0,0,0,0,0,0,0,0,0,0,0,0,0,
811,-16.71,-19.26,-38.95,-9.243,-30.45,-32.45,-0.3165,-17.49,-15.43,-23.79,-2.925,-14.5,-18.01,-25.06,-20.13,-16.8,0,0,0,0,0,0,0,0,0,0,0,0,0,0,0,0,
812,-18.61,-17.43,-10.57,-15.14,-21.41,-29.0,3.965,-13.54,-17.4,-26.55,8.892,-14.26,-14.13,-23.02,-17.44,-15.25,0,0,0,0,0,0,0,0,0,0,0,0,0,0,0,0,
813,-8.138,1.755,11.95,4.663,-7.805,-11.54,13.3,-3.284,-7.396,-18.4,9.539,-7.592,-5.45,-14.49,-8.693,-6.409,0,0,0,0,0,0,0,0,0,0,0,0,0,0,0,0,
814,5.681,11.13,1.985,20.66,5.703,5.075,7.796,6.996,3.716,-3.064,0.8244,0.1478,-1.084,-8.559,-9.429,-4.038,0,0,0,0,0,0,0,0,0,0,0,0,0,0,0,0,
815,8.37,-3.477,-7.243,11.09,6.603,1.148,4.254,-0.5269,5.286,4.07,-0.0747,-4.117,-11.03,-17.26,-22.71,-19.6,0,0,0,0,0,0,0,0,0,0,0,0,0,0,0,0,
816,3.627,-8.181,-0.9777,2.91,-7.464,-9.987,-9.26,-12.67,-3.872,-0.1542,-8.941,-17.13,-27.79,-30.59,-34.93,-35.43,0,0,0,0,0,0,0,0,0,0,0,0,0,0,0,0,
817,-1.293,0.948,-0.6732,7.465,-16.06,-8.103,-22.92,-4.849,-16.2,-4.716,-18.32,-19.11,-30.85,-28.52,-33.58,-29.76,0,0,0,0,0,0,0,0,0,0,0,0,0,0,0,0,
818,-4.86,3.683,-10.01,5.865,-13.08,-3.134,-10.15,2.441,-19.59,-6.612,-11.64,-19.64,-27.14,-24.53,-31.13,-23.53,0,0,0,0,0,0,0,0,0,0,0,0,0,0,0,0,
819,-9.445,2.186,-15.76,0.384,-9.276,-3.792,8.405,-10.62,-19.43,-13.28,-8.283,-24.51,-33.0,-33.02,-36.02,-29.19,0,0,0,0,0,0,0,0,0,0,0,0,0,0,0,0,
820,-6.423,-0.8273,-9.979,1.007,-3.795,0.8368,12.74,-18.65,-25.5,-16.46,-12.74,-16.85,-34.64,-34.01,-31.7,-22.52,0,0,0,0,0,0,0,0,0,0,0,0,0,0,0,0,
821,3.853,-5.037,7.107,-0.063,4.827,9.465,3.105,-7.587,-25.5,-8.765,-6.891,-11.27,-21.99,-22.85,-16.46,-10.98,0,0,0,0,0,0,0,0,0,0,0,0,0,0,0,0,
822,6.586,5.321,17.16,6.316,11.59,15.13,-10.64,3.467,-10.44,-1.707,5.446,-17.05,-8.488,-15.62,-4.516,-12.02,0,0,0,0,0,0,0,0,0,0,0,0,0,0,0,0,
823,12.47,27.66,10.33,24.63,11.28,17.82,-7.846,5.874,2.261,2.959,8.771,-10.96,-4.562,-11.46,-3.5,-9.452,0,0,0,0,0,0,0,0,0,0,0,0,0,0,0,0,
824,18.81,31.35,2.695,26.56,2.747,12.39,-1.211,11.1,0.7373,6.621,3.968,3.557,-7.848,-7.263,-14.79,-3.574,0,0,0,0,0,0,0,0,0,0,0,0,0,0,0,0,
825,2.37,17.28,-3.044,17.61,-1.392,7.039,-1.913,22.64,1.944,4.703,7.865,12.68,-5.032,-3.573,-18.9,-2.757,0,0,0,0,0,0,0,0,0,0,0,0,0,0,0,0,
826,-3.651,14.78,-5.614,27.4,5.216,14.15,11.81,31.12,12.66,8.278,22.25,20.29,7.664,5.912,-1.896,8.633,0,0,0,0,0,0,0,0,0,0,0,0,0,0,0,0,
827,22.41,21.03,13.91,38.74,15.42,22.6,26.33,34.72,17.26,20.02,27.87,25.27,16.24,19.11,13.57,25.55,0,0,0,0,0,0,0,0,0,0,0,0,0,0,0,0,
828,31.61,23.45,40.05,34.13,28.34,26.64,30.02,34.01,22.01,26.82,27.19,28.35,17.86,24.39,13.98,23.46,0,0,0,0,0,0,0,0,0,0,0,0,0,0,0,0,
829,20.27,28.92,37.11,30.47,32.18,29.01,40.49,26.79,34.42,29.69,31.71,25.79,15.97,16.93,8.897,6.684,0,0,0,0,0,0,0,0,0,0,0,0,0,0,0,0,
830,26.43,31.67,17.59,28.68,18.15,22.55,34.94,19.25,35.02,26.77,31.29,13.25,9.272,5.599,6.161,-1.476,0,0,0,0,0,0,0,0,0,0,0,0,0,0,0,0,
831,30.8,23.39,15.59,14.73,8.979,12.05,17.02,10.53,26.76,13.95,28.63,7.265,6.803,1.775,10.8,2.182,0,0,0,0,0,0,0,0,0,0,0,0,0,0,0,0,
832,11.79,12.67,21.22,-5.295,9.089,3.538,24.83,-1.244,23.56,5.743,29.26,7.123,6.459,1.09,8.526,0.155,0,0,0,0,0,0,0,0,0,0,0,0,0,0,0,0,
833,-3.917,1.567,2.462,-14.3,-0.9115,-9.192,19.21,-5.579,13.75,2.521,19.6,-2.544,-6.081,-6.516,-11.22,-11.67,0,0,0,0,0,0,0,0,0,0,0,0,0,0,0,0,
834,-3.596,-9.877,-20.16,-13.02,-13.61,-19.82,-11.74,-8.278,1.984,-10.53,11.77,-10.91,-19.89,-18.87,-22.31,-20.62,0,0,0,0,0,0,0,0,0,0,0,0,0,0,0,0,
835,-3.519,-12.77,-8.896,-14.63,-17.49,-20.59,-4.894,-14.35,1.271,-24.53,18.67,-14.81,-21.59,-27.61,-16.63,-24.05,0,0,0,0,0,0,0,0,0,0,0,0,0,0,0,0,
836,-3.745,-7.611,6.094,-16.53,-17.23,-15.32,11.92,-12.53,-0.4842,-24.99,12.84,-19.88,-21.05,-26.82,-16.82,-25.02,0,0,0,0,0,0,0,0,0,0,0,0,0,0,0,0,
837,6.908,-2.01,3.302,-11.97,-11.6,-5.157,-8.211,-11.76,-4.111,-16.64,-5.627,-12.97,-19.96,-17.9,-19.39,-20.8,0,0,0,0,0,0,0,0,0,0,0,0,0,0,0,0,
838,12.84,3.497,11.79,-7.702,-2.003,2.796,-10.5,-15.9,0.2217,-6.809,-2.08,-1.053,-10.85,-9.441,-9.167,-10.53,0,0,0,0,0,0,0,0,0,0,0,0,0,0,0,0,
839,-1.89,7.731,9.907,-8.568,4.116,-0.6545,14.66,-11.29,4.861,-1.241,16.68,-0.8939,-2.248,-7.653,2.109,-0.5552,0,0,0,0,0,0,0,0,0,0,0,0,0,0,0,0,
840,-10.86,6.362,-16.05,-12.69,8.32,-5.463,13.13,-7.476,5.61,-4.819,21.89,-0.8169,-2.481,-10.97,-0.4808,0.4241,0,0,0,0,0,0,0,0,0,0,0,0,0,0,0,0,
841,5.174,6.018,-12.22,-11.97,14.52,1.317,-2.387,-8.8,8.975,-6.697,16.48,3.823,-2.96,-10.22,-5.688,-0.4449,0,0,0,0,0,0,0,0,0,0,0,0,0,0,0,0,
842,21.42,14.76,15.21,-1.263,19.48,13.47,3.037,-3.478,15.54,2.112,14.72,7.375,0.5124,-1.303,-1.144,8.789,0,0,0,0,0,0,0,0,0,0,0,0,0,0,0,0,
843,26.42,21.55,23.19,5.1,20.66,18.87,16.53,1.896,19.17,7.531,12.75,16.48,-0.4042,5.789,1.011,16.09,0,0,0,0,0,0,0,0,0,0,0,0,0,0,0,0,
844,27.57,17.21,19.27,1.884,21.84,16.57,10.33,6.474,16.83,5.9,2.857,23.92,-3.473,7.468,-1.46,12.37,0,0,0,0,0,0,0,0,0,0,0,0,0,0,0,0,
845,15.2,13.79,6.73,5.09,21.05,12.52,-10.63,17.61,14.92,10.99,-1.365,19.19,1.418,10.22,4.203,8.192,0,0,0,0,0,0,0,0,0,0,0,0,0,0,0,0,
846,4.07,21.37,0.7347,12.4,14.88,11.96,-9.704,22.95,17.53,16.87,12.36,16.03,10.35,12.46,11.5,8.383,0,0,0,0,0,0,0,0,0,0,0,0,0,0,0,0,
847,20.85,30.56,17.54,9.232,16.23,16.29,4.69,16.26,22.4,17.62,26.66,23.84,16.83,16.22,18.0,17.72,0,0,0,0,0,0,0,0,0,0,0,0,0,0,0,0,
848,28.63,22.78,14.89,-0.2459,27.03,18.48,1.049,11.94,29.52,24.56,32.55,33.02,21.81,26.94,27.39,32.63,0,0,0,0,0,0,0,0,0,0,0,0,0,0,0,0,
849,3.511,3.382,-3.449,-4.975,25.57,13.03,9.972,16.89,32.42,28.62,41.04,35.13,23.31,34.5,27.48,34.4,0,0,0,0,0,0,0,0,0,0,0,0,0,0,0,0,
850,1.535,5.341,10.54,-1.11,15.5,8.433,34.97,20.23,27.21,19.63,45.39,32.31,26.32,36.2,28.22,31.69,0,0,0,0,0,0,0,0,0,0,0,0,0,0,0,0,
851,26.78,22.84,26.2,7.739,18.77,11.54,33.34,15.69,27.36,17.92,39.08,31.12,35.87,40.05,38.75,35.05,0,0,0,0,0,0,0,0,0,0,0,0,0,0,0,0,
852,20.9,18.38,16.82,11.18,25.81,15.6,24.26,13.57,33.22,26.73,28.95,30.56,36.02,37.89,32.51,24.79,0,0,0,0,0,0,0,0,0,0,0,0,0,0,0,0,
