%OpenBCI Raw EXG Data
%Number of channels = 16
%Sample Rate = 125 Hz
%Board = OpenBCI_GUI$BoardCytonSerialDaisy
Sample Index,EXG Channel 0,EXG Channel 1,EXG Channel 2,EXG Channel 3,EXG Channel 4,EXG Channel 5,EXG Channel 6,EXG Channel 7,EXG Channel 8,EXG Channel 9,EXG Channel 10,EXG Channel 11,EXG Channel 12,EXG Channel 13,EXG Channel 14,EXG Channel 15,Accel Channel 0,Accel Channel 1,Accel Channel 2,Other,Other.1,Other.2,Other.3,Other.4,Other.5,Other.6,Analog Channel 0,Analog Channel 1,Analog Channel 2,Timestamp,Other.7,Timestamp (Formatted),Annotations
1,-0.0,-0.0,-0.0,-0.0,0.0,-0.0,-0.0,-0.0,-0.0,-0.0,0.0,0.0,0.0,0.0,0.0,0.0,0,0,0,0,0,0,0,0,0,0,0,0,0,0,0,0,T0
2,42.44,45.59,36.7,45.34,42.52,48.97,50.18,38.03,34.55,24.04,45.73,25.18,44.29,36.49,-0.6607,-3.093,0,0,0,0,0,0,0,0,0,0,0,0,0,0,0,0,
3,27.41,33.86,39.45,24.01,29.32,30.76,47.76,9.479,41.3,28.08,33.15,-2.439,21.45,8.302,7.562,-5.495,0,0,0,0,0,0,0,0,0,0,0,0,0,0,0,0,
4,-2.885,12.65,17.57,-5.319,1.592,0.6382,57.68,-34.66,20.91,14.26,8.37,-27.54,-13.06,-29.63,2.492,-21.66,0,0,0,0,0,0,0,0,0,0,0,0,0,0,0,0,
5,-11.85,-3.38,-4.463,-21.8,-28.72,-27.44,26.2,-32.32,-21.0,-19.23,-25.56,-48.21,-49.69,-65.1,-36.23,-60.95,0,0,0,0,0,0,0,0,0,0,0,0,0,0,0,0,
6,-21.21,-30.63,-16.08,-31.41,-51.85,-48.43,-20.8,6.076,-61.67,-45.97,-53.54,-57.54,-71.4,-83.71,-73.85,-90.56,0,0,0,0,0,0,0,0,0,0,0,0,0,0,0,0,
7,-26.14,-28.34,-10.29,-9.602,-28.58,-22.19,19.15,14.27,-53.73,-28.89,-25.03,-20.07,-34.66,-51.94,-63.64,-76.29,0,0,0,0,0,0,0,0,0,0,0,0,0,0,0,0,
8,-15.5,-1.722,8.674,4.154,3.455,0.7966,33.36,-29.63,-17.11,-7.051,2.346,-4.6,-9.906,-36.21,-28.79,-45.82,0,0,0,0,0,0,0,0,0,0,0,0,0,0,0,0,
9,-16.04,-2.789,16.51,-11.45,1.269,-14.73,-2.585,-44.35,-13.61,-20.69,-11.64,-26.32,-26.56,-52.94,-18.29,-36.55,0,0,0,0,0,0,0,0,0,0,0,0,0,0,0,0,
10,-23.33,-14.07,6.565,-8.062,-9.91,-16.67,26.2,-12.16,-19.78,-29.22,-7.465,-8.368,-16.63,-37.4,-22.89,-34.44,0,0,0,0,0,0,0,0,0,0,0,0,0,0,0,0,
11,-15.62,-10.12,3.294,2.978,-14.96,-11.7,44.4,-11.1,-5.329,-15.48,12.03,11.54,1.449,-17.39,-14.71,-23.88,0,0,0,0,0,0,0,0,0,0,0,0,0,0,0,0,
12,-23.77,-16.98,5.198,-14.02,-23.58,-32.65,-2.456,-29.57,-7.208,-15.24,1.278,-15.85,-16.22,-34.17,-8.645,-22.84,0,0,0,0,0,0,0,0,0,0,0,0,0,0,0,0,
13,-61.28,-46.17,-17.94,-38.34,-48.56,-55.8,-22.54,-19.43,-29.46,-36.44,-19.98,-28.92,-38.41,-52.5,-23.63,-38.98,0,0,0,0,0,0,0,0,0,0,0,0,0,0,0,0,
14,-75.83,-67.15,-40.43,-43.9,-68.68,-59.8,-2.275,-10.19,-37.28,-53.46,-12.58,-3.46,-30.76,-41.94,-35.83,-46.18,0,0,0,0,0,0,0,0,0,0,0,0,0,0,0,0,
15,-56.37,-53.55,-19.17,-30.4,-43.83,-48.68,9.754,-20.29,-21.23,-42.88,14.58,18.37,-1.703,-12.64,-16.62,-22.77,0,0,0,0,0,0,0,0,0,0,0,0,0,0,0,0,
16,-50.83,-31.81,3.521,-17.57,-16.06,-36.57,7.306,-25.95,1.993,-20.68,32.03,22.39,18.92,6.638,18.47,13.62,0,0,0,0,0,0,0,0,0,0,0,0,0,0,0,0,
17,-44.46,-23.87,0.5204,-10.58,-21.54,-25.75,36.22,-13.29,17.03,-13.21,54.1,22.64,37.24,17.15,44.02,37.42,0,0,0,0,0,0,0,0,0,0,0,0,0,0,0,0,
18,-8.189,-6.901,16.08,0.5035,-15.15,-11.41,80.62,6.211,29.22,-1.984,82.25,30.63,62.44,35.22,62.18,49.33,0,0,0,0,0,0,0,0,0,0,0,0,0,0,0,0,
19,-1.093,-0.5314,26.14,-2.478,-10.99,-11.8,42.69,10.02,27.98,14.63,71.7,43.67,57.29,40.73,71.06,52.01,0,0,0,0,0,0,0,0,0,0,0,0,0,0,0,0,
20,-34.03,-21.64,-8.662,-14.68,-32.12,-20.93,-8.783,-0.2798,5.122,14.23,47.78,45.76,36.9,32.57,64.0,44.59,0,0,0,0,0,0,0,0,0,0,0,0,0,0,0,0,
21,-42.18,-27.37,-34.63,-14.18,-37.63,-22.04,23.12,-16.29,-3.04,11.64,50.29,29.59,37.93,28.05,52.77,35.24,0,0,0,0,0,0,0,0,0,0,0,0,0,0,0,0,
22,-41.29,-26.73,-25.08,-19.42,-38.53,-30.88,19.53,-29.63,2.418,9.192,44.2,21.19,34.06,23.39,45.68,28.61,0,0,0,0,0,0,0,0,0,0,0,0,0,0,0,0,
23,-45.05,-29.61,-0.3678,-13.39,-29.94,-21.81,-6.636,-15.87,4.607,7.891,48.82,41.56,42.19,37.18,49.8,34.36,0,0,0,0,0,0,0,0,0,0,0,0,0,0,0,0,
24,-17.76,-5.084,28.17,9.102,12.21,6.324,59.05,0.8181,32.54,28.21,75.56,46.43,63.7,49.18,63.26,49.86,0,0,0,0,0,0,0,0,0,0,0,0,0,0,0,0,
25,-19.75,-11.68,10.99,-20.3,4.05,-23.54,65.55,-14.37,41.59,22.89,40.6,10.98,22.78,7.186,48.11,36.61,0,0,0,0,0,0,0,0,0,0,0,0,0,0,0,0,
26,-71.21,-60.44,-41.75,-58.88,-52.12,-66.6,-26.64,-17.03,-14.4,-25.05,-13.51,1.541,-24.17,-21.44,5.928,-0.436,0,0,0,0,0,0,0,0,0,0,0,0,0,0,0,0,
27,-56.36,-39.15,-30.05,-16.74,-37.46,-27.16,-12.45,2.922,-35.18,-24.12,16.39,33.09,13.9,18.31,0.8831,-0.4838,0,0,0,0,0,0,0,0,0,0,0,0,0,0,0,0,
28,-2.438,11.44,12.22,16.94,-1.036,6.096,49.73,-9.84,5.118,16.45,46.01,33.42,39.01,29.98,32.4,29.84,0,0,0,0,0,0,0,0,0,0,0,0,0,0,0,0,
29,-41.12,-26.05,-25.95,-27.25,-34.97,-38.96,8.097,-44.07,-3.769,-1.217,11.84,2.677,-1.017,-12.96,40.09,31.06,0,0,0,0,0,0,0,0,0,0,0,0,0,0,0,0,
30,-108.4,-80.08,-80.92,-58.92,-71.55,-71.03,-34.68,-61.85,-42.42,-41.18,0.7937,-5.778,-11.71,-23.83,24.63,7.495,0,0,0,0,0,0,0,0,0,0,0,0,0,0,0,0,
31,-104.8,-81.65,-57.56,-56.61,-70.2,-63.05,-30.32,-67.42,-33.36,-36.42,15.66,-5.358,5.801,-9.687,16.77,-5.125,0,0,0,0,0,0,0,0,0,0,0,0,0,0,0,0,
32,-91.57,-87.9,-26.08,-72.08,-71.57,-70.77,-48.46,-60.21,-25.36,-30.68,-2.669,-21.49,-7.718,-21.83,9.06,-11.49,0,0,0,0,0,0,0,0,0,0,0,0,0,0,0,0,
33,-95.43,-90.94,-43.02,-75.22,-68.69,-74.74,-46.62,-40.2,-42.69,-43.05,-14.4,-21.37,-15.31,-24.57,0.6463,-17.02,0,0,0,0,0,0,0,0,0,0,0,0,0,0,0,0,
34,-64.55,-52.11,-35.76,-39.15,-37.24,-39.93,5.853,-18.54,-27.1,-25.39,18.63,13.44,18.34,13.04,14.97,-2.087,0,0,0,0,0,0,0,0,0,0,0,0,0,0,0,0,
35,-19.22,-14.19,18.82,-8.417,3.79,-3.621,45.81,-5.12,17.25,14.92,49.12,32.88,47.24,39.22,45.37,26.59,0,0,0,0,0,0,0,0,0,0,0,0,0,0,0,0,
36,-13.69,-10.98,33.37,-13.46,7.95,-12.25,33.2,-15.45,31.55,22.75,36.93,7.814,31.42,16.8,53.59,31.77,0,0,0,0,0,0,0,0,0,0,0,0,0,0,0,0,
37,-44.24,-30.69,-10.25,-36.71,-29.32,-49.1,-17.28,-40.09,2.866,-5.914,7.555,-16.81,-0.4937,-12.71,30.26,8.874,0,0,0,0,0,0,0,0,0,0,0,0,0,0,0,0,
38,-58.47,-43.99,-23.52,-41.55,-43.02,-61.86,-40.43,-48.82,-26.72,-29.96,3.059,-13.82,-5.892,-10.62,8.414,-8.507,0,0,0,0,0,0,0,0,0,0,0,0,0,0,0,0,
39,-30.61,-22.87,6.3,-20.15,-14.83,-37.96,-6.669,-34.01,-24.74,-26.25,25.85,0.7823,13.11,13.47,15.28,0.191,0,0,0,0,0,0,0,0,0,0,0,0,0,0,0,0,
40,-10.27,-2.988,13.54,-12.15,-0.5768,-13.67,18.9,-11.89,-5.544,-0.0737,43.41,13.67,25.72,32.63,37.89,22.23,0,0,0,0,0,0,0,0,0,0,0,0,0,0,0,0,
41,-30.22,-24.34,0.9233,-30.66,-16.66,-25.37,-0.2844,-16.72,-1.998,9.398,21.49,-3.393,1.871,10.56,34.0,20.86,0,0,0,0,0,0,0,0,0,0,0,0,0,0,0,0,
42,-51.96,-38.06,-5.684,-35.17,-35.23,-58.39,-27.52,-48.39,-31.99,-32.82,-24.2,-40.07,-40.6,-34.71,-10.1,-18.26,0,0,0,0,0,0,0,0,0,0,0,0,0,0,0,0,
43,-49.82,-17.61,-13.07,-13.88,-30.28,-52.74,-18.09,-50.17,-58.09,-61.72,-23.37,-25.87,-33.07,-23.66,-40.12,-44.52,0,0,0,0,0,0,0,0,0,0,0,0,0,0,0,0,
44,-40.9,-16.86,-13.5,-2.706,-8.307,-15.57,17.81,-26.5,-29.36,-17.8,22.08,15.59,12.6,19.43,-14.46,-19.95,0,0,0,0,0,0,0,0,0,0,0,0,0,0,0,0,
45,-47.1,-40.24,-14.82,-14.41,-17.85,-21.88,-1.218,-33.26,-0.6378,5.503,23.18,0.8894,7.386,1.002,17.48,5.77,0,0,0,0,0,0,0,0,0,0,0,0,0,0,0,0,
46,-57.46,-39.04,-23.89,-19.23,-47.93,-54.91,-56.36,-40.3,-27.78,-40.22,-14.09,-28.0,-28.29,-36.71,5.834,-10.15,0,0,0,0,0,0,0,0,0,0,0,0,0,0,0,0,
47,-49.2,-25.51,-21.64,-8.243,-44.27,-52.13,-36.6,-17.34,-40.23,-56.13,-11.48,-12.31,-17.54,-21.17,-15.81,-31.29,0,0,0,0,0,0,0,0,0,0,0,0,0,0,0,0,
48,-51.92,-35.06,-26.62,-11.85,-34.57,-42.56,-2.788,-20.97,-14.5,-32.09,8.293,-1.87,2.305,-4.26,-13.32,-28.54,0,0,0,0,0,0,0,0,0,0,0,0,0,0,0,0,
49,-79.43,-47.76,-42.04,-35.47,-46.62,-57.51,-46.56,-49.8,-18.24,-38.36,-8.855,-18.76,-19.58,-24.46,-11.25,-25.97,0,0,0,0,0,0,0,0,0,0,0,0,0,0,0,0,
50,-93.6,-53.87,-45.59,-61.1,-58.3,-77.65,-74.71,-45.48,-48.88,-61.04,-36.21,-26.76,-45.35,-43.32,-26.55,-38.02,0,0,0,0,0,0,0,0,0,0,0,0,0,0,0,0,
51,-99.79,-71.97,-60.12,-82.59,-71.09,-90.17,-45.68,-30.71,-67.73,-72.55,-32.39,-18.48,-38.37,-38.2,-33.57,-44.02,0,0,0,0,0,0,0,0,0,0,0,0,0,0,0,0,
52,-88.81,-67.65,-54.85,-75.15,-54.95,-70.77,-27.1,-39.24,-58.59,-61.9,3.984,1.101,-4.056,-12.65,-10.36,-25.57,0,0,0,0,0,0,0,0,0,0,0,0,0,0,0,0,
53,-34.44,-24.41,5.374,-41.13,-1.702,-29.8,-19.6,-46.2,-19.87,-22.69,31.63,10.75,21.4,4.369,22.25,-0.0622,0,0,0,0,0,0,0,0,0,0,0,0,0,0,0,0,
54,-17.94,-13.16,31.36,-38.5,-0.7447,-27.68,-17.87,-46.29,-9.016,-9.622,9.075,-8.59,1.256,-13.29,21.99,-3.215,0,0,0,0,0,0,0,0,0,0,0,0,0,0,0,0,
55,-63.11,-42.64,4.153,-59.81,-45.26,-48.85,-39.14,-48.17,-48.12,-35.98,-28.03,-17.32,-31.06,-30.22,-12.84,-31.57,0,0,0,0,0,0,0,0,0,0,0,0,0,0,0,0,
56,-64.81,-40.1,2.199,-51.38,-41.38,-42.36,-55.75,-39.89,-64.39,-40.12,-28.36,1.817,-28.04,-18.54,-38.27,-45.73,0,0,0,0,0,0,0,0,0,0,0,0,0,0,0,0,
57,-29.49,-9.088,13.14,-26.53,-12.72,-25.67,-40.16,-18.45,-38.99,-22.76,-6.856,15.93,-5.492,1.488,-28.43,-31.86,0,0,0,0,0,0,0,0,0,0,0,0,0,0,0,0,
58,-23.2,2.188,15.03,-14.15,-8.476,-19.94,-12.33,4.758,-14.91,-9.413,6.852,15.99,8.162,11.16,-0.2625,-11.41,0,0,0,0,0,0,0,0,0,0,0,0,0,0,0,0,
59,-33.52,-14.68,0.4698,-25.61,-25.98,-35.84,-29.45,1.227,-14.4,-9.421,-8.994,-2.534,-8.649,-10.1,10.03,-11.48,0,0,0,0,0,0,0,0,0,0,0,0,0,0,0,0,
60,-59.43,-45.4,-51.17,-49.99,-60.57,-68.02,-75.3,-32.15,-44.55,-44.05,-41.06,-17.14,-38.26,-35.64,-12.16,-32.96,0,0,0,0,0,0,0,0,0,0,0,0,0,0,0,0,
61,-73.29,-47.05,-57.42,-38.43,-59.24,-63.09,-59.79,-47.55,-58.94,-58.22,-33.3,3.229,-23.96,-15.05,-32.31,-41.63,0,0,0,0,0,0,0,0,0,0,0,0,0,0,0,0,
62,-41.9,-18.22,-2.232,-14.84,-21.67,-37.91,-32.14,-46.72,-33.11,-23.14,-10.24,3.796,-2.179,-3.535,-26.24,-29.0,0,0,0,0,0,0,0,0,0,0,0,0,0,0,0,0,
63,-27.69,-19.0,-6.669,-31.59,-27.8,-48.38,-59.13,-54.12,-35.28,-29.85,-19.31,-19.34,-18.65,-27.85,-16.64,-22.8,0,0,0,0,0,0,0,0,0,0,0,0,0,0,0,0,
64,-41.77,-30.6,-38.08,-34.97,-42.42,-49.62,-45.7,-31.38,-51.29,-55.26,-11.71,2.185,-12.13,-15.71,-8.194,-18.56,0,0,0,0,0,0,0,0,0,0,0,0,0,0,0,0,
65,-51.79,-24.6,-27.2,-21.38,-29.18,-42.2,-13.8,0.7547,-30.93,-28.41,1.091,13.59,-0.7745,-5.577,1.876,-11.38,0,0,0,0,0,0,0,0,0,0,0,0,0,0,0,0,
66,-89.28,-52.94,-37.4,-48.23,-49.62,-77.86,-45.15,-22.79,-42.83,-32.62,-26.93,-18.16,-32.34,-38.82,-10.48,-26.55,0,0,0,0,0,0,0,0,0,0,0,0,0,0,0,0,
67,-98.72,-75.03,-36.53,-53.38,-55.92,-81.18,-33.33,-52.65,-71.41,-60.78,-25.9,-17.89,-29.42,-32.22,-31.87,-47.83,0,0,0,0,0,0,0,0,0,0,0,0,0,0,0,0,
68,-42.89,-38.08,-3.835,-21.26,-17.0,-35.6,0.7437,-33.48,-40.82,-27.07,-2.614,-18.18,-8.036,-12.48,-35.55,-50.81,0,0,0,0,0,0,0,0,0,0,0,0,0,0,0,0,
69,-41.05,-33.63,-27.37,-35.45,-25.43,-39.66,-50.9,-14.88,-33.01,-13.3,-29.39,-46.04,-35.3,-34.98,-41.59,-57.05,0,0,0,0,0,0,0,0,0,0,0,0,0,0,0,0,
70,-64.28,-49.13,-22.75,-37.83,-23.12,-39.95,-41.14,-24.59,-55.74,-29.81,-18.23,-19.04,-12.13,-7.186,-39.71,-52.88,0,0,0,0,0,0,0,0,0,0,0,0,0,0,0,0,
71,5.339,18.03,68.23,28.55,58.81,24.77,60.84,-12.14,-1.161,26.99,59.6,30.77,66.86,56.71,2.886,-10.7,0,0,0,0,0,0,0,0,0,0,0,0,0,0,0,0,
72,47.45,64.51,68.94,47.71,75.72,37.26,45.39,26.72,48.0,69.31,54.31,16.62,49.76,32.56,32.82,12.36,0,0,0,0,0,0,0,0,0,0,0,0,0,0,0,0,
73,-25.06,-3.918,-24.16,-10.95,-3.704,-28.5,-56.32,11.33,-12.63,3.087,-38.26,-28.35,-37.8,-37.21,-12.71,-33.71,0,0,0,0,0,0,0,0,0,0,0,0,0,0,0,0,
74,-65.77,-47.79,-38.3,-30.03,-30.88,-48.07,-62.98,-38.26,-78.56,-58.13,-66.36,-44.15,-53.6,-43.05,-77.35,-86.32,0,0,0,0,0,0,0,0,0,0,0,0,0,0,0,0,
75,-14.69,12.44,9.259,19.41,11.72,3.498,-5.511,-9.531,-60.26,-36.65,-14.15,-19.06,-1.381,0.3714,-73.82,-72.74,0,0,0,0,0,0,0,0,0,0,0,0,0,0,0,0,
76,24.39,59.57,23.53,49.12,34.01,34.09,-11.88,29.95,-16.72,-0.7394,2.348,-1.882,15.35,11.09,-27.62,-27.75,0,0,0,0,0,0,0,0,0,0,0,0,0,0,0,0,
77,-2.068,20.52,1.895,11.67,8.21,2.164,-64.55,-24.21,-24.65,-16.92,-40.22,-32.83,-22.72,-24.11,-19.02,-24.24,0,0,0,0,0,0,0,0,0,0,0,0,0,0,0,0,
78,-37.71,-23.48,-17.81,-27.31,-14.25,-23.27,-46.85,-55.53,-54.53,-47.58,-41.84,-37.0,-23.55,-22.11,-37.66,-45.16,0,0,0,0,0,0,0,0,0,0,0,0,0,0,0,0,
79,-22.39,-8.53,2.018,-13.38,10.03,0.2405,5.306,-12.48,-32.53,-22.31,5.475,10.3,20.79,24.27,-26.89,-33.65,0,0,0,0,0,0,0,0,0,0,0,0,0,0,0,0,
80,3.228,3.069,23.04,-2.641,20.92,5.186,-29.28,-7.921,-9.767,7.369,-3.37,6.872,7.982,17.81,-9.745,-14.02,0,0,0,0,0,0,0,0,0,0,0,0,0,0,0,0,
81,-13.73,-19.2,-5.384,-24.24,-20.9,-25.82,-79.98,-30.81,-49.88,-25.46,-47.46,-32.82,-34.81,-19.8,-22.8,-25.88,0,0,0,0,0,0,0,0,0,0,0,0,0,0,0,0,
82,-31.72,-21.83,-21.38,-34.92,-35.66,-32.42,-52.99,-28.22,-68.59,-48.58,-33.87,-21.64,-18.18,-6.26,-30.98,-36.5,0,0,0,0,0,0,0,0,0,0,0,0,0,0,0,0,
83,-28.23,-19.04,7.6,-37.0,-7.975,-24.3,-23.46,-25.91,-32.79,-25.25,-7.559,-0.9996,6.365,18.34,-14.78,-23.01,0,0,0,0,0,0,0,0,0,0,0,0,0,0,0,0,
84,-26.69,-31.0,19.18,-31.31,-0.9115,-19.85,-30.42,5.6,-16.87,-9.058,-11.88,3.109,4.263,28.14,-0.3772,-5.969,0,0,0,0,0,0,0,0,0,0,0,0,0,0,0,0,
85,-12.95,-10.7,8.548,0.4674,-2.613,4.184,-21.24,59.12,-9.703,11.35,2.805,31.87,20.99,53.58,9.71,10.31,0,0,0,0,0,0,0,0,0,0,0,0,0,0,0,0,
86,-7.309,8.195,0.6556,7.674,-3.813,10.56,5.747,48.72,9.967,33.72,9.992,44.04,22.57,53.49,12.5,16.25,0,0,0,0,0,0,0,0,0,0,0,0,0,0,0,0,
87,-40.07,-21.91,-21.1,-19.89,-27.94,-19.38,8.56,3.463,-2.416,10.14,-24.61,16.16,-11.56,19.59,-9.43,-5.314,0,0,0,0,0,0,0,0,0,0,0,0,0,0,0,0,
88,-57.39,-36.17,-35.99,-18.97,-40.33,-27.29,-30.93,-10.08,-22.88,-14.51,-37.89,7.007,-23.07,11.4,-35.04,-29.87,0,0,0,0,0,0,0,0,0,0,0,0,0,0,0,0,
89,-54.88,-27.33,-23.61,-12.15,-39.16,-23.07,-84.87,-14.39,-24.01,-10.96,-35.36,11.87,-26.65,10.2,-43.05,-35.58,0,0,0,0,0,0,0,0,0,0,0,0,0,0,0,0,
90,-72.8,-44.52,-15.73,-25.8,-52.57,-38.33,-88.13,3.131,-41.18,-31.21,-53.03,9.938,-42.19,-1.081,-45.98,-32.88,0,0,0,0,0,0,0,0,0,0,0,0,0,0,0,0,
91,-52.84,-38.51,-7.901,-4.289,-33.18,-27.54,-40.06,48.69,-40.73,-41.09,-40.94,18.41,-26.79,12.54,-42.29,-23.01,0,0,0,0,0,0,0,0,0,0,0,0,0,0,0,0,
92,-3.557,-8.296,2.101,21.22,1.68,-9.331,-40.23,37.75,-10.02,-16.56,-27.94,-0.3784,-21.32,7.182,-36.75,-18.84,0,0,0,0,0,0,0,0,0,0,0,0,0,0,0,0,
93,-25.76,-29.05,-20.08,-8.809,-21.9,-38.32,-71.26,-17.73,-27.18,-40.96,-57.7,-37.57,-51.1,-30.09,-47.19,-35.99,0,0,0,0,0,0,0,0,0,0,0,0,0,0,0,0,
94,-59.11,-49.98,-26.92,-23.23,-39.5,-54.62,-18.25,-13.9,-54.91,-79.18,-36.2,-12.28,-28.72,-11.89,-41.43,-36.13,0,0,0,0,0,0,0,0,0,0,0,0,0,0,0,0,
95,-21.21,-11.45,21.12,13.69,-3.418,-25.06,19.98,18.42,-25.52,-39.3,29.39,31.96,23.43,35.48,4.71,2.41,0,0,0,0,0,0,0,0,0,0,0,0,0,0,0,0,
96,-5.343,8.2,34.06,24.77,1.671,-18.54,-51.2,8.336,-15.23,-3.125,18.29,13.89,8.156,21.92,35.57,25.17,0,0,0,0,0,0,0,0,0,0,0,0,0,0,0,0,
97,-50.6,-27.69,-15.68,-7.477,-34.24,-43.57,-77.16,1.872,-48.15,-35.16,-33.6,-19.33,-32.06,-10.26,12.65,0.0931,0,0,0,0,0,0,0,0,0,0,0,0,0,0,0,0,
98,-59.74,-43.64,-24.17,-18.64,-37.24,-40.3,-25.17,19.46,-55.87,-48.16,-25.91,-18.07,-22.29,1.905,-16.8,-27.67,0,0,0,0,0,0,0,0,0,0,0,0,0,0,0,0,
99,-5.628,-0.0326,27.97,15.37,5.382,2.409,6.24,11.25,-26.41,-7.11,27.09,-4.966,20.65,28.43,-4.089,-15.74,0,0,0,0,0,0,0,0,0,0,0,0,0,0,0,0,
100,20.69,28.34,34.53,25.43,29.22,15.34,22.1,-13.52,12.94,15.16,38.97,-12.06,29.82,16.23,20.08,6.4,0,0,0,0,0,0,0,0,0,0,0,0,0,0,0,0,
101,-35.11,-25.71,-26.33,-25.5,-10.94,-34.96,-11.99,-12.12,5.222,-20.22,-15.19,-31.31,-13.23,-18.49,2.445,-8.096,0,0,0,0,0,0,0,0,0,0,0,0,0,0,0,0,
102,-77.12,-63.56,-34.58,-36.56,-29.19,-45.72,-55.9,9.297,-37.0,-44.37,-25.69,-11.97,-16.08,1.269,-25.74,-28.27,0,0,0,0,0,0,0,0,0,0,0,0,0,0,0,0,
103,-34.88,-11.55,27.37,16.52,24.06,11.71,-1.943,17.42,-8.37,-2.145,30.01,22.69,32.85,49.09,-11.05,-9.477,0,0,0,0,0,0,0,0,0,0,0,0,0,0,0,0,
104,-4.527,10.91,34.38,23.87,36.09,17.45,31.96,12.35,37.34,25.79,30.61,13.63,26.93,40.18,13.56,13.04,0,0,0,0,0,0,0,0,0,0,0,0,0,0,0,0,
105,-7.524,-13.06,10.3,14.28,12.29,-4.341,0.3674,29.95,15.41,6.492,22.79,18.21,14.69,37.52,22.45,20.33,0,0,0,0,0,0,0,0,0,0,0,0,0,0,0,0,
106,26.18,12.54,48.1,39.93,41.38,19.63,22.81,43.15,26.86,22.59,76.29,47.23,56.85,70.19,43.17,41.7,0,0,0,0,0,0,0,0,0,0,0,0,0,0,0,0,
107,26.62,16.36,53.73,13.41,38.52,0.5785,26.68,1.614,57.19,34.54,67.39,25.58,46.19,44.04,53.26,52.09,0,0,0,0,0,0,0,0,0,0,0,0,0,0,0,0,
108,-26.36,-24.37,-0.8959,-18.85,-6.224,-37.91,-4.785,-9.929,13.52,-8.513,28.81,20.11,17.52,22.4,39.57,37.69,0,0,0,0,0,0,0,0,0,0,0,0,0,0,0,0,
109,-7.723,3.417,29.2,37.82,28.08,11.12,54.65,64.37,10.53,5.364,87.61,77.04,73.37,82.08,56.32,51.74,0,0,0,0,0,0,0,0,0,0,0,0,0,0,0,0,
110,51.23,39.45,109.7,62.86,72.25,43.09,111.2,87.88,73.15,67.84,114.9,80.52,91.91,91.53,85.33,78.94,0,0,0,0,0,0,0,0,0,0,0,0,0,0,0,0,
111,37.81,-2.627,95.27,1.018,29.11,-15.44,64.48,14.26,52.83,43.12,38.66,24.85,20.1,20.57,55.65,53.12,0,0,0,0,0,0,0,0,0,0,0,0,0,0,0,0,
112,2.768,-30.36,38.7,-28.65,-11.69,-51.73,14.42,-24.3,-15.17,-21.07,1.118,5.447,-10.59,-3.194,-2.871,0.7314,0,0,0,0,0,0,0,0,0,0,0,0,0,0,0,0,
113,13.42,-0.7817,34.08,-1.171,1.501,-29.77,7.972,-3.2,-18.19,-20.64,20.52,19.91,11.1,23.79,-21.33,-14.67,0,0,0,0,0,0,0,0,0,0,0,0,0,0,0,0,
114,33.89,29.11,35.7,27.67,9.591,-8.665,8.328,4.31,3.962,4.717,20.41,29.76,14.03,32.91,-4.472,2.409,0,0,0,0,0,0,0,0,0,0,0,0,0,0,0,0,
115,20.88,22.46,1.381,23.88,-17.4,-18.48,-9.219,-4.208,-6.128,-2.175,2.773,17.96,-3.474,15.51,7.623,13.12,0,0,0,0,0,0,0,0,0,0,0,0,0,0,0,0,
116,-13.09,-19.67,-23.25,-11.96,-46.61,-48.08,-37.15,-9.076,-33.71,-31.61,-8.345,5.252,-14.79,1.348,5.33,8.373,0,0,0,0,0,0,0,0,0,0,0,0,0,0,0,0,
117,-17.23,-32.59,0.1859,-14.18,-30.85,-43.87,-16.84,4.426,-35.84,-35.92,17.63,35.13,16.06,29.68,17.88,17.0,0,0,0,0,0,0,0,0,0,0,0,0,0,0,0,0,
118,8.139,7.756,38.45,28.93,8.941,-1.42,57.79,48.49,6.684,8.145,76.47,69.93,74.88,77.27,60.47,54.63,0,0,0,0,0,0,0,0,0,0,0,0,0,0,0,0,
119,10.94,21.94,44.84,37.51,14.47,13.76,104.9,65.63,51.07,47.38,103.2,58.91,91.71,80.98,96.34,87.63,0,0,0,0,0,0,0,0,0,0,0,0,0,0,0,0,
120,-15.47,-13.6,13.07,-4.229,-12.65,-14.54,65.52,7.446,51.42,35.48,74.04,28.58,57.35,45.2,88.33,78.1,0,0,0,0,0,0,0,0,0,0,0,0,0,0,0,0,
121,-50.42,-56.34,-35.59,-46.72,-42.7,-50.63,-20.59,-41.61,12.52,-5.071,27.77,8.206,22.64,21.95,48.84,36.87,0,0,0,0,0,0,0,0,0,0,0,0,0,0,0,0,
122,-60.95,-71.87,-41.9,-46.98,-38.91,-50.44,-41.53,-0.8145,-14.35,-21.1,23.35,20.72,34.35,46.43,27.05,14.94,0,0,0,0,0,0,0,0,0,0,0,0,0,0,0,0,
123,-13.07,-24.43,19.8,-0.7592,17.85,-2.713,17.09,49.64,21.97,22.15,73.99,58.15,84.11,91.2,54.5,40.59,0,0,0,0,0,0,0,0,0,0,0,0,0,0,0,0,
124,31.46,35.03,64.7,27.14,62.55,27.54,59.45,38.87,73.48,69.52,104.2,63.85,101.9,95.15,96.06,77.52,0,0,0,0,0,0,0,0,0,0,0,0,0,0,0,0,
125,25.18,31.88,61.24,19.02,63.8,22.42,83.08,39.18,74.31,62.53,99.63,59.57,92.71,85.26,110.6,91.22,0,0,0,0,0,0,0,0,0,0,0,0,0,0,0,0,
126,48.18,36.54,85.83,40.77,87.45,51.48,127.5,76.49,82.64,70.86,139.1,97.79,130.2,120.3,128.0,108.6,0,0,0,0,0,0,0,0,0,0,0,0,0,0,0,0,
127,107.7,94.79,128.7,81.5,132.0,103.1,155.1,90.78,133.5,126.4,194.8,128.9,179.7,155.6,171.8,147.3,0,0,0,0,0,0,0,0,0,0,0,0,0,0,0,0,
128,116.0,114.2,121.1,81.27,133.0,104.9,140.8,85.52,150.3,139.4,172.6,106.4,160.5,132.9,190.2,162.6,0,0,0,0,0,0,0,0,0,0,0,0,0,0,0,0,
129,82.53,74.48,74.76,49.07,93.01,62.57,83.36,58.58,106.4,92.35,93.59,57.78,96.95,77.28,142.6,119.2,0,0,0,0,0,0,0,0,0,0,0,0,0,0,0,0,
130,56.94,42.76,35.54,16.6,54.96,27.05,20.1,-3.851,51.92,45.18,45.62,24.21,61.55,40.98,73.19,54.01,0,0,0,0,0,0,0,0,0,0,0,0,0,0,0,0,
131,42.89,34.44,32.54,9.9,44.79,24.88,31.06,-18.79,29.33,22.94,55.66,29.5,69.44,41.86,45.44,24.86,0,0,0,0,0,0,0,0,0,0,0,0,0,0,0,0,
132,41.83,40.97,56.87,35.41,49.22,37.82,79.25,25.05,36.45,30.55,71.57,45.14,73.3,50.76,56.04,33.02,0,0,0,0,0,0,0,0,0,0,0,0,0,0,0,0,
133,42.72,57.49,63.67,51.87,41.61,34.59,78.55,30.7,29.46,48.27,57.13,34.7,51.55,42.8,60.9,41.32,0,0,0,0,0,0,0,0,0,0,0,0,0,0,0,0,
134,29.72,56.58,41.78,37.92,29.32,20.96,56.4,18.79,6.714,45.74,44.15,21.9,36.15,28.39,49.47,33.9,0,0,0,0,0,0,0,0,0,0,0,0,0,0,0,0,
135,8.143,26.85,15.83,19.62,16.15,10.67,30.55,33.9,-2.817,29.79,44.25,27.56,32.01,20.18,37.64,20.54,0,0,0,0,0,0,0,0,0,0,0,0,0,0,0,0,
136,3.056,12.47,16.16,23.23,7.57,14.04,3.153,33.03,-9.405,27.06,41.52,39.94,30.23,31.2,32.58,18.68,0,0,0,0,0,0,0,0,0,0,0,0,0,0,0,0,
137,31.01,40.43,44.58,43.79,20.45,33.6,27.42,33.72,-5.42,48.24,36.55,38.7,29.23,44.07,30.97,28.76,0,0,0,0,0,0,0,0,0,0,0,0,0,0,0,0,
138,34.86,41.71,33.45,31.75,9.521,21.42,53.8,35.49,-0.1387,47.31,5.234,-0.8741,-3.979,9.125,13.4,17.21,0,0,0,0,0,0,0,0,0,0,0,0,0,0,0,0,
139,-12.32,-7.573,-21.73,-5.569,-33.0,-17.93,18.38,-8.021,-35.11,-7.925,-30.13,-31.69,-38.3,-26.64,-20.55,-19.0,0,0,0,0,0,0,0,0,0,0,0,0,0,0,0,0,
140,-10.55,-1.322,-8.453,20.4,-15.82,4.398,18.26,-7.256,-43.84,-22.46,9.504,14.75,4.517,19.26,-20.44,-20.18,0,0,0,0,0,0,0,0,0,0,0,0,0,0,0,0,
141,36.92,46.13,49.6,60.35,27.97,42.73,65.14,47.69,13.06,39.3,56.76,51.69,47.04,57.13,20.07,18.98,0,0,0,0,0,0,0,0,0,0,0,0,0,0,0,0,
142,-3.41,-6.673,5.358,-6.496,-17.04,-18.84,25.39,3.573,4.227,32.33,-3.22,-9.172,-11.05,-6.271,24.24,19.79,0,0,0,0,0,0,0,0,0,0,0,0,0,0,0,0,
143,-82.43,-91.99,-75.89,-68.86,-77.15,-83.77,-55.41,-53.11,-81.44,-51.16,-63.08,-50.75,-59.12,-49.39,-18.49,-24.01,0,0,0,0,0,0,0,0,0,0,0,0,0,0,0,0,
144,-63.94,-55.75,-43.47,-7.896,-49.17,-37.54,-42.94,16.85,-85.93,-45.51,-16.84,-9.961,-17.64,-6.36,-30.19,-36.01,0,0,0,0,0,0,0,0,0,0,0,0,0,0,0,0,
145,-17.89,4.206,0.3681,27.92,-20.61,-4.465,-5.427,40.89,-31.02,10.33,11.66,-8.166,-5.288,-3.97,-9.084,-17.83,0,0,0,0,0,0,0,0,0,0,0,0,0,0,0,0,
146,-28.11,-25.64,-38.58,-20.93,-41.37,-51.77,-15.74,-26.62,-43.56,-18.73,-29.42,-49.06,-44.08,-47.26,-10.93,-23.76,0,0,0,0,0,0,0,0,0,0,0,0,0,0,0,0,
147,-19.82,-39.58,-25.65,-13.1,-25.38,-53.75,3.821,-16.75,-66.42,-46.3,-26.88,-40.02,-32.36,-36.26,-20.33,-38.56,0,0,0,0,0,0,0,0,0,0,0,0,0,0,0,0,
148,10.28,-1.017,43.74,27.71,15.62,-9.367,42.59,7.764,-31.55,-3.946,10.1,-21.34,-1.691,-15.33,-9.622,-32.96,0,0,0,0,0,0,0,0,0,0,0,0,0,0,0,0,
149,-0.5381,0.9663,45.05,16.7,17.03,-5.978,29.36,-17.7,-9.371,14.01,14.28,-22.23,-4.222,-20.16,3.752,-18.92,0,0,0,0,0,0,0,0,0,0,0,0,0,0,0,0,
150,0.8032,-7.184,31.55,21.0,21.96,-2.577,15.54,8.067,-11.47,9.765,15.55,-7.692,0.6386,-5.222,13.79,-3.615,0,0,0,0,0,0,0,0,0,0,0,0,0,0,0,0,
151,22.41,4.239,37.94,30.38,33.36,6.074,18.48,20.13,-5.454,21.5,-1.266,-17.79,-10.49,-10.9,10.23,-0.6069,0,0,0,0,0,0,0,0,0,0,0,0,0,0,0,0,
152,-5.27,-14.95,9.71,-12.72,3.713,-27.31,-1.921,-32.99,-24.72,-0.9068,-46.56,-49.3,-48.09,-45.63,-22.26,-24.19,0,0,0,0,0,0,0,0,0,0,0,0,0,0,0,0,
153,-29.12,-27.44,6.2,-26.51,-12.61,-38.11,2.436,-19.66,-42.27,-21.76,-35.28,-33.51,-33.69,-31.43,-43.3,-39.34,0,0,0,0,0,0,0,0,0,0,0,0,0,0,0,0,
154,-1.549,-2.373,32.72,10.51,12.56,-4.57,33.37,42.68,-10.94,10.66,15.09,-3.807,11.79,6.806,-18.03,-16.04,0,0,0,0,0,0,0,0,0,0,0,0,0,0,0,0,
155,16.18,1.247,24.06,15.46,20.3,-0.5495,32.39,31.05,17.24,30.26,16.76,-7.411,15.49,10.71,15.74,16.26,0,0,0,0,0,0,0,0,0,0,0,0,0,0,0,0,
156,17.44,-7.321,27.28,4.304,17.1,-7.501,33.49,-17.81,21.76,18.68,9.392,-6.092,12.18,12.53,25.2,29.8,0,0,0,0,0,0,0,0,0,0,0,0,0,0,0,0,
157,30.07,14.77,47.09,29.66,35.87,22.55,58.76,-9.725,43.84,28.31,39.43,14.46,33.51,29.43,27.39,35.01,0,0,0,0,0,0,0,0,0,0,0,0,0,0,0,0,
158,36.08,36.34,39.51,55.21,44.03,39.6,62.2,28.15,67.1,46.72,50.13,13.96,34.59,23.1,30.72,36.96,0,0,0,0,0,0,0,0,0,0,0,0,0,0,0,0,
159,17.77,21.76,32.07,36.15,14.24,3.57,40.69,7.366,47.15,23.15,16.26,-18.05,1.682,-14.24,17.99,21.78,0,0,0,0,0,0,0,0,0,0,0,0,0,0,0,0,
160,-11.42,-2.221,21.41,13.1,-13.04,-25.96,31.3,-30.64,5.038,-28.28,-4.588,-31.53,-14.76,-31.19,-5.505,-1.434,0,0,0,0,0,0,0,0,0,0,0,0,0,0,0,0,
161,-10.45,8.384,11.87,31.16,0.2978,-5.718,35.78,-10.84,-1.366,-38.34,9.189,-9.57,-3.369,-12.54,-12.6,-5.915,0,0,0,0,0,0,0,0,0,0,0,0,0,0,0,0,
162,8.909,25.59,24.29,43.99,8.253,7.294,9.546,0.9582,7.864,-19.55,14.43,-7.453,-8.076,-13.37,-4.466,2.195,0,0,0,0,0,0,0,0,0,0,0,0,0,0,0,0,
163,2.621,10.81,9.627,27.87,-11.93,-8.671,-18.65,0.4072,-13.71,-31.83,11.59,-25.52,-15.99,-30.05,2.054,4.57,0,0,0,0,0,0,0,0,0,0,0,0,0,0,0,0,
164,1.213,0.6876,-19.03,20.76,-11.89,-12.5,23.19,33.5,-21.53,-38.85,22.25,-20.69,-2.605,-22.57,7.88,6.003,0,0,0,0,0,0,0,0,0,0,0,0,0,0,0,0,
165,5.567,-2.414,-14.1,8.348,-13.71,-24.9,55.53,7.997,-3.695,-29.67,22.97,-15.6,-1.562,-18.74,12.68,8.36,0,0,0,0,0,0,0,0,0,0,0,0,0,0,0,0,
166,-15.48,-18.41,-5.66,-5.841,-34.67,-44.21,29.53,-52.3,-8.057,-50.63,31.92,-19.71,4.317,-19.11,21.71,15.28,0,0,0,0,0,0,0,0,0,0,0,0,0,0,0,0,
167,-8.567,-3.631,13.45,14.54,-16.81,-21.38,51.02,-29.26,-3.525,-54.65,61.55,-15.68,28.47,-6.801,44.43,32.61,0,0,0,0,0,0,0,0,0,0,0,0,0,0,0,0,
168,11.39,17.08,34.26,19.08,-3.203,-7.642,76.06,-17.84,10.42,-32.87,40.7,-33.26,3.725,-29.0,49.63,29.66,0,0,0,0,0,0,0,0,0,0,0,0,0,0,0,0,
169,-25.94,-16.71,-0.7724,-13.39,-43.82,-41.16,18.7,-62.08,-25.0,-57.17,-11.17,-58.94,-42.04,-67.06,15.83,-7.931,0,0,0,0,0,0,0,0,0,0,0,0,0,0,0,0,
170,-52.27,-43.05,-31.03,-19.2,-53.42,-50.67,-3.678,-41.02,-55.06,-81.7,-2.69,-42.03,-27.38,-53.66,-10.7,-30.99,0,0,0,0,0,0,0,0,0,0,0,0,0,0,0,0,
171,-25.93,-17.38,-3.899,-0.3793,-21.17,-24.86,45.18,2.458,-24.26,-49.33,28.56,-12.26,3.691,-22.74,0.4349,-14.72,0,0,0,0,0,0,0,0,0,0,0,0,0,0,0,0,
172,-15.56,6.127,9.62,14.41,-16.36,-3.463,55.41,-6.629,3.072,-15.05,29.06,-1.597,10.49,-11.31,22.31,10.57,0,0,0,0,0,0,0,0,0,0,0,0,0,0,0,0,
173,-15.13,10.84,0.179,31.79,-10.42,19.76,21.09,7.91,1.459,1.115,27.19,6.046,18.41,-0.5625,33.75,24.89,0,0,0,0,0,0,0,0,0,0,0,0,0,0,0,0,
174,-6.279,5.641,5.041,26.65,10.59,25.48,0.4071,29.46,3.179,8.656,15.16,-4.27,8.864,-7.625,27.28,19.75,0,0,0,0,0,0,0,0,0,0,0,0,0,0,0,0,
175,-18.24,-10.07,0.7238,-2.452,-2.164,-0.405,6.787,-12.98,-1.56,-12.31,-9.399,-29.89,-17.45,-30.95,4.212,-6.059,0,0,0,0,0,0,0,0,0,0,0,0,0,0,0,0,
176,-18.58,-2.069,-15.9,-6.444,-21.4,-5.664,8.176,-32.08,-13.95,-29.57,-6.09,-27.76,-17.17,-27.64,-8.935,-24.81,0,0,0,0,0,0,0,0,0,0,0,0,0,0,0,0,
177,3.841,25.48,-15.36,11.64,-5.03,19.66,-10.28,28.87,-11.06,-10.3,7.558,-6.852,-1.338,-6.983,0.6901,-17.96,0,0,0,0,0,0,0,0,0,0,0,0,0,0,0,0,
178,12.24,32.79,13.59,17.04,19.63,33.26,14.03,63.45,1.823,13.18,6.758,0.0326,5.887,3.366,14.4,-0.3692,0,0,0,0,0,0,0,0,0,0,0,0,0,0,0,0,
179,21.09,31.07,39.54,-0.2558,23.03,23.03,62.62,10.41,9.882,16.62,-3.767,-18.72,-8.018,-10.63,9.936,1.696,0,0,0,0,0,0,0,0,0,0,0,0,0,0,0,0,
180,4.358,7.373,3.528,-42.57,-16.51,-15.93,18.0,-57.81,-15.32,-17.65,-50.94,-63.66,-64.01,-60.62,-29.55,-32.87,0,0,0,0,0,0,0,0,0,0,0,0,0,0,0,0,
181,-48.97,-33.98,-43.85,-56.44,-66.09,-45.17,-59.96,-53.27,-74.04,-72.9,-88.86,-72.41,-92.97,-76.4,-73.74,-71.53,0,0,0,0,0,0,0,0,0,0,0,0,0,0,0,0,
182,-19.63,6.458,-1.658,13.64,-23.12,7.885,-27.13,21.09,-66.23,-50.87,-30.1,-8.706,-21.7,-4.082,-52.25,-46.55,0,0,0,0,0,0,0,0,0,0,0,0,0,0,0,0,
183,70.37,87.64,51.49,72.65,64.14,73.77,45.29,64.57,23.36,34.41,31.78,20.41,36.56,37.84,14.97,15.82,0,0,0,0,0,0,0,0,0,0,0,0,0,0,0,0,
184,55.35,62.52,17.71,30.27,39.8,41.63,39.74,27.87,44.78,34.19,-7.38,-29.82,-7.541,-16.76,30.86,24.14,0,0,0,0,0,0,0,0,0,0,0,0,0,0,0,0,
185,-13.95,0.288,-15.04,-20.42,-35.33,-12.95,11.68,-14.61,-12.76,-34.4,-40.89,-49.58,-41.61,-48.46,-5.914,-15.29,0,0,0,0,0,0,0,0,0,0,0,0,0,0,0,0,
186,-15.39,3.085,9.746,-18.0,-31.69,-11.6,14.56,-19.51,-25.46,-47.76,-13.92,-27.62,-20.16,-27.17,-25.44,-35.27,0,0,0,0,0,0,0,0,0,0,0,0,0,0,0,0,
187,-4.502,-0.7866,22.94,-23.38,-13.0,-13.36,9.836,-18.21,-12.81,-33.65,-19.98,-43.23,-28.44,-36.6,-27.41,-36.36,0,0,0,0,0,0,0,0,0,0,0,0,0,0,0,0,
188,-27.57,-27.6,-0.6182,-38.0,-32.78,-31.56,-4.617,-19.42,-27.42,-43.6,-54.74,-67.22,-60.23,-60.62,-43.6,-48.81,0,0,0,0,0,0,0,0,0,0,0,0,0,0,0,0,
189,-54.4,-38.48,-33.83,-43.1,-48.26,-41.4,-14.68,-23.91,-38.31,-49.81,-61.0,-59.85,-68.45,-59.49,-63.68,-66.43,0,0,0,0,0,0,0,0,0,0,0,0,0,0,0,0,
190,-68.86,-54.24,-46.93,-54.87,-54.77,-54.7,-16.94,-26.59,-45.33,-52.41,-48.4,-43.39,-56.71,-46.11,-62.53,-66.62,0,0,0,0,0,0,0,0,0,0,0,0,0,0,0,0,
191,-41.06,-41.69,-8.097,-28.65,-32.1,-34.59,28.76,5.074,-31.46,-37.19,-7.529,-10.22,-15.55,-8.26,-25.7,-33.61,0,0,0,0,0,0,0,0,0,0,0,0,0,0,0,0,
192,13.67,7.161,40.09,27.09,17.85,13.41,69.44,37.13,23.0,11.45,32.54,10.1,15.44,19.68,22.18,10.25,0,0,0,0,0,0,0,0,0,0,0,0,0,0,0,0,
193,8.358,-1.482,16.67,9.188,8.073,-1.758,4.276,-1.392,29.57,14.52,-3.955,-31.3,-24.68,-21.03,20.81,8.956,0,0,0,0,0,0,0,0,0,0,0,0,0,0,0,0,
194,-42.42,-41.04,-28.38,-41.94,-34.3,-38.37,-51.26,-54.53,-27.31,-38.29,-50.16,-58.69,-58.02,-53.37,-24.09,-32.03,0,0,0,0,0,0,0,0,0,0,0,0,0,0,0,0,
195,-30.38,-7.002,-4.634,-18.0,-7.501,0.6442,11.36,-35.41,-22.83,-33.76,-19.72,-28.36,-20.52,-16.07,-41.05,-45.94,0,0,0,0,0,0,0,0,0,0,0,0,0,0,0,0,
196,19.1,32.17,19.95,11.11,22.13,35.48,41.27,-4.691,30.67,13.43,-3.93,-29.06,-9.076,-2.448,-26.48,-29.21,0,0,0,0,0,0,0,0,0,0,0,0,0,0,0,0,
197,11.69,-3.357,-11.94,-18.1,-11.24,5.064,-9.929,-17.13,17.19,3.191,-43.54,-52.58,-45.4,-31.27,-26.44,-27.58,0,0,0,0,0,0,0,0,0,0,0,0,0,0,0,0,
198,-7.309,-22.75,-18.25,-22.45,-19.7,-0.6416,-14.84,-10.19,-17.32,-17.55,-40.93,-26.38,-36.65,-18.68,-30.43,-32.97,0,0,0,0,0,0,0,0,0,0,0,0,0,0,0,0,
199,15.65,18.24,10.59,11.28,14.35,31.59,1.007,14.2,5.466,13.06,-1.24,1.405,0.1836,14.43,-14.83,-17.88,0,0,0,0,0,0,0,0,0,0,0,0,0,0,0,0,
200,34.71,47.09,26.56,19.82,27.51,42.16,-1.93,3.29,32.92,40.56,9.823,-3.904,7.723,16.42,4.948,6.113,0,0,0,0,0,0,0,0,0,0,0,0,0,0,0,0,
201,31.53,38.0,40.14,5.991,23.18,36.95,34.38,-7.284,31.28,32.08,6.853,-5.757,1.826,3.805,13.38,16.88,0,0,0,0,0,0,0,0,0,0,0,0,0,0,0,0,
202,13.82,10.94,19.54,-9.237,5.038,23.38,53.94,1.038,20.86,5.357,2.619,-5.829,-8.722,-12.71,7.789,7.462,0,0,0,0,0,0,0,0,0,0,0,0,0,0,0,0,
203,-0.4314,1.22,-21.81,-9.578,-15.19,15.54,19.39,1.034,11.56,-13.34,3.347,-3.418,-11.19,-17.69,-1.849,-6.018,0,0,0,0,0,0,0,0,0,0,0,0,0,0,0,0,
204,8.178,21.73,-7.408,3.737,-2.383,29.56,11.33,1.579,18.08,-0.4213,8.36,-0.9388,-5.904,-11.57,-5.945,-10.12,0,0,0,0,0,0,0,0,0,0,0,0,0,0,0,0,
205,-8.213,14.48,7.423,-7.761,6.368,20.53,22.28,-7.407,10.74,2.619,-18.78,-18.75,-29.6,-26.47,-21.9,-23.57,0,0,0,0,0,0,0,0,0,0,0,0,0,0,0,0,
206,-21.62,0.6706,-3.801,-11.37,4.824,9.751,29.62,-19.83,-16.75,-18.37,-30.79,-13.55,-34.14,-23.37,-39.61,-39.12,0,0,0,0,0,0,0,0,0,0,0,0,0,0,0,0,
207,38.17,43.04,25.61,23.71,32.53,45.59,59.0,3.943,9.163,2.654,13.94,14.7,8.988,11.39,-18.72,-22.84,0,0,0,0,0,0,0,0,0,0,0,0,0,0,0,0,
208,50.08,43.58,22.83,6.9,22.3,37.57,50.68,11.61,41.48,23.84,10.13,-9.885,-3.14,-7.697,7.94,-6.498,0,0,0,0,0,0,0,0,0,0,0,0,0,0,0,0,
209,-32.73,-32.63,-39.41,-59.1,-35.87,-29.96,0.911,-31.93,-7.16,-25.9,-50.25,-46.55,-58.74,-53.48,-12.06,-29.77,0,0,0,0,0,0,0,0,0,0,0,0,0,0,0,0,
210,-48.06,-49.01,-38.11,-59.15,-31.91,-35.7,-0.5197,-47.37,-40.83,-59.93,-52.35,-28.3,-51.1,-39.16,-41.01,-51.93,0,0,0,0,0,0,0,0,0,0,0,0,0,0,0,0,
211,-2.967,-9.161,5.741,-16.01,10.81,-1.085,31.5,-22.23,-7.895,-33.21,-19.09,-9.845,-19.91,-15.26,-36.42,-40.88,0,0,0,0,0,0,0,0,0,0,0,0,0,0,0,0,
212,-0.3678,-0.6877,16.68,-1.668,15.9,-0.9328,57.4,-9.211,11.51,-16.26,-7.393,-20.69,-16.4,-22.38,-17.4,-21.23,0,0,0,0,0,0,0,0,0,0,0,0,0,0,0,0,
213,-14.22,-11.38,14.11,-15.55,-2.787,-15.32,51.2,-15.68,11.31,-25.27,-17.87,-44.15,-33.93,-41.73,-16.22,-21.94,0,0,0,0,0,0,0,0,0,0,0,0,0,0,0,0,
214,-54.26,-51.74,-31.39,-60.84,-56.14,-55.84,-34.16,-40.91,-17.65,-58.11,-73.48,-73.66,-90.65,-80.29,-54.85,-58.49,0,0,0,0,0,0,0,0,0,0,0,0,0,0,0,0,
215,-98.46,-87.4,-85.96,-80.63,-98.11,-86.26,-73.77,-53.04,-77.43,-89.77,-98.06,-61.18,-111.5,-82.13,-98.35,-96.07,0,0,0,0,0,0,0,0,0,0,0,0,0,0,0,0,
216,-53.94,-28.62,-45.63,-25.26,-47.18,-33.75,25.26,-29.54,-62.82,-54.59,-32.61,-21.08,-50.05,-31.64,-80.58,-79.28,0,0,0,0,0,0,0,0,0,0,0,0,0,0,0,0,
217,-1.199,28.99,2.727,5.813,-3.391,6.562,58.65,-21.72,-6.027,-17.56,-7.16,-28.95,-30.99,-31.61,-31.38,-40.15,0,0,0,0,0,0,0,0,0,0,0,0,0,0,0,0,
218,-24.77,-12.67,-34.83,-22.19,-36.32,-26.71,-16.9,-34.04,-28.03,-52.59,-42.31,-52.55,-64.28,-65.4,-20.37,-37.78,0,0,0,0,0,0,0,0,0,0,0,0,0,0,0,0,
219,-35.21,-46.22,-62.56,-27.63,-48.96,-39.4,-7.331,-48.04,-54.64,-69.43,-41.84,-57.85,-63.5,-62.83,-40.37,-59.34,0,0,0,0,0,0,0,0,0,0,0,0,0,0,0,0,
220,-29.27,-38.33,-46.64,-31.59,-49.35,-39.04,10.4,-79.65,-42.77,-52.91,-60.95,-77.52,-77.42,-73.41,-69.97,-82.49,0,0,0,0,0,0,0,0,0,0,0,0,0,0,0,0,
221,-58.09,-51.53,-41.85,-53.15,-73.62,-59.51,-64.74,-67.86,-72.83,-71.48,-97.13,-75.14,-96.16,-81.84,-92.62,-96.13,0,0,0,0,0,0,0,0,0,0,0,0,0,0,0,0,
222,-51.19,-37.5,-36.03,-27.51,-45.78,-32.47,-53.74,-6.111,-83.24,-66.26,-51.05,-30.12,-46.51,-33.32,-69.96,-72.89,0,0,0,0,0,0,0,0,0,0,0,0,0,0,0,0,
223,2.438,20.99,-13.39,19.78,10.72,20.16,41.27,-1.595,-18.49,-12.48,6.084,-0.1412,-0.8512,6.643,-17.81,-22.44,0,0,0,0,0,0,0,0,0,0,0,0,0,0,0,0,
224,17.94,40.66,9.297,20.97,13.48,21.6,31.09,-23.06,20.27,6.039,-9.662,-2.85,-15.39,-4.088,3.067,4.97,0,0,0,0,0,0,0,0,0,0,0,0,0,0,0,0,
225,-21.03,-4.778,-8.404,-17.19,-22.59,-16.37,-34.43,-3.147,-6.064,-23.65,-55.19,-32.05,-53.01,-38.88,-24.16,-17.96,0,0,0,0,0,0,0,0,0,0,0,0,0,0,0,0,
226,-69.81,-59.28,-72.96,-54.0,-65.72,-56.17,-41.78,-12.2,-51.98,-66.69,-91.89,-64.52,-90.9,-73.7,-69.36,-65.79,0,0,0,0,0,0,0,0,0,0,0,0,0,0,0,0,
227,-79.66,-59.13,-87.35,-49.22,-80.0,-62.08,-26.14,-53.05,-79.66,-96.69,-85.27,-51.29,-89.54,-68.35,-86.18,-81.56,0,0,0,0,0,0,0,0,0,0,0,0,0,0,0,0,
228,-53.6,-22.87,-42.74,-20.21,-54.01,-34.38,-18.67,-61.97,-62.88,-86.16,-49.98,-19.91,-57.23,-36.47,-61.94,-52.78,0,0,0,0,0,0,0,0,0,0,0,0,0,0,0,0,
229,-37.84,-16.26,-37.72,-13.49,-41.04,-20.86,-27.48,-50.1,-34.94,-58.7,-48.98,-14.91,-54.47,-27.77,-38.5,-26.26,0,0,0,0,0,0,0,0,0,0,0,0,0,0,0,0,
230,-25.37,-23.05,-40.17,-15.49,-43.79,-21.18,-48.48,-28.49,-24.69,-47.01,-53.39,-12.92,-59.42,-29.18,-38.1,-25.83,0,0,0,0,0,0,0,0,0,0,0,0,0,0,0,0,
231,-12.53,-18.05,-15.71,-18.71,-40.0,-22.39,-40.75,-8.052,-11.87,-48.72,-39.35,-15.42,-52.44,-34.6,-44.06,-38.24,0,0,0,0,0,0,0,0,0,0,0,0,0,0,0,0,
232,-26.31,-23.04,-27.8,-28.23,-47.42,-38.38,-19.2,-9.044,-12.27,-61.15,-45.97,-34.44,-59.74,-50.69,-49.5,-51.73,0,0,0,0,0,0,0,0,0,0,0,0,0,0,0,0,
233,-37.06,-22.29,-53.15,-17.69,-51.28,-47.12,-12.29,-12.81,-26.43,-66.31,-48.99,-41.91,-58.02,-49.55,-50.41,-55.26,0,0,0,0,0,0,0,0,0,0,0,0,0,0,0,0,
234,-35.18,-15.42,-54.78,-9.728,-44.61,-41.66,3.358,-24.26,-18.48,-57.62,-31.67,-38.58,-42.04,-39.62,-41.46,-47.67,0,0,0,0,0,0,0,0,0,0,0,0,0,0,0,0,
235,-51.04,-33.62,-57.72,-33.78,-51.3,-50.86,-1.832,-47.59,-7.896,-59.3,-31.2,-42.54,-42.67,-42.52,-32.62,-40.37,0,0,0,0,0,0,0,0,0,0,0,0,0,0,0,0,
236,-64.89,-61.26,-56.92,-55.16,-63.23,-68.88,-57.11,-47.34,-16.9,-65.09,-45.01,-45.79,-51.76,-44.09,-34.08,-39.26,0,0,0,0,0,0,0,0,0,0,0,0,0,0,0,0,
237,-59.72,-69.36,-52.27,-54.45,-65.6,-71.44,-74.89,-33.94,-21.6,-59.42,-50.51,-40.96,-50.82,-40.12,-41.75,-44.27,0,0,0,0,0,0,0,0,0,0,0,0,0,0,0,0,
238,-35.9,-42.81,-37.28,-33.54,-41.84,-47.16,-5.709,-31.9,-5.525,-45.75,-29.18,-25.27,-25.56,-23.51,-33.97,-40.09,0,0,0,0,0,0,0,0,0,0,0,0,0,0,0,0,
239,-1.321,0.5394,-6.614,-5.048,-1.341,-13.32,46.76,-35.5,26.72,-22.02,11.7,-8.032,12.77,4.352,1.364,-10.83,0,0,0,0,0,0,0,0,0,0,0,0,0,0,0,0,
240,-3.983,4.504,-10.26,-9.808,-2.547,-12.34,5.521,-53.6,44.93,-9.411,14.19,-15.99,10.63,1.213,28.97,15.93,0,0,0,0,0,0,0,0,0,0,0,0,0,0,0,0,
241,-39.0,-30.78,-44.07,-42.11,-40.84,-43.6,-50.59,-68.91,21.93,-32.13,-28.39,-45.39,-29.45,-31.61,11.23,4.827,0,0,0,0,0,0,0,0,0,0,0,0,0,0,0,0,
242,-54.11,-55.1,-64.19,-53.16,-59.66,-61.97,-38.78,-53.85,-13.27,-60.18,-54.2,-53.33,-44.27,-36.82,-28.23,-23.29,0,0,0,0,0,0,0,0,0,0,0,0,0,0,0,0,
243,-44.48,-41.39,-60.44,-26.25,-41.43,-39.23,0.8191,-34.1,-9.53,-50.43,-34.73,-25.18,-16.79,-4.155,-37.85,-25.02,0,0,0,0,0,0,0,0,0,0,0,0,0,0,0,0,
244,-6.856,5.984,-11.8,14.51,7.749,8.407,16.74,-23.65,36.61,-8.16,2.856,-6.145,13.53,20.65,-7.788,0.8657,0,0,0,0,0,0,0,0,0,0,0,0,0,0,0,0,
245,28.65,30.29,25.6,17.86,30.78,23.59,14.4,-24.09,64.73,9.962,-1.959,-29.59,2.631,3.337,15.77,14.67,0,0,0,0,0,0,0,0,0,0,0,0,0,0,0,0,
246,3.372,2.554,-12.3,-14.59,-9.234,-6.392,-8.591,-50.3,33.07,-25.31,-53.42,-54.07,-34.44,-30.61,-5.805,-7.85,0,0,0,0,0,0,0,0,0,0,0,0,0,0,0,0,
247,-20.24,-6.047,-28.37,-6.325,-22.19,-8.709,-32.18,-47.07,1.649,-44.87,-61.34,-31.9,-30.54,-22.52,-38.64,-34.35,0,0,0,0,0,0,0,0,0,0,0,0,0,0,0,0,
248,26.06,30.14,14.54,42.75,24.27,33.74,-14.4,11.7,26.23,-1.063,-18.5,0.5945,2.292,10.15,-35.15,-27.59,0,0,0,0,0,0,0,0,0,0,0,0,0,0,0,0,
249,55.03,40.98,14.85,50.28,28.71,41.09,9.242,16.06,44.37,26.31,-19.98,-14.04,-11.7,-3.828,-19.42,-12.49,0,0,0,0,0,0,0,0,0,0,0,0,0,0,0,0,
250,9.681,13.99,-21.36,21.79,-15.22,5.611,-3.507,-42.29,6.305,-9.194,-52.99,-42.34,-47.74,-38.45,-27.31,-21.8,0,0,0,0,0,0,0,0,0,0,0,0,0,0,0,0,
251,-30.55,5.508,-29.28,19.71,-27.89,-4.308,-24.68,-38.77,-25.58,-36.31,-49.25,-31.53,-43.27,-32.42,-37.65,-34.29,0,0,0,0,0,0,0,0,0,0,0,0,0,0,0,0,
252,-22.65,13.5,-22.64,24.61,-24.23,-2.934,-47.53,-4.856,-22.0,-35.2,-39.08,-16.77,-30.38,-21.48,-30.39,-29.42,0,0,0,0,0,0,0,0,0,0,0,0,0,0,0,0,
253,-5.574,2.953,-18.08,10.89,-33.56,-19.83,-56.81,-22.7,-25.39,-46.97,-35.85,-20.35,-25.5,-24.32,-15.5,-15.82,0,0,0,0,0,0,0,0,0,0,0,0,0,0,0,0,
254,5.595,-0.1571,-17.85,13.47,-23.56,-10.9,-23.08,-35.24,-17.79,-48.64,-9.683,-9.076,-0.8667,-7.077,4.378,5.36,0,0,0,0,0,0,0,0,0,0,0,0,0,0,0,0,
255,-3.507,5.384,-37.44,8.788,-22.79,-3.924,-23.59,-37.75,4.733,-41.18,-11.56,-8.863,-2.705,-8.574,14.99,21.23,0,0,0,0,0,0,0,0,0,0,0,0,0,0,0,0,
256,-51.63,-26.56,-62.91,-33.02,-66.81,-48.45,-70.82,-62.09,-27.07,-75.64,-54.85,-35.65,-43.35,-43.95,-5.84,6.619,0,0,0,0,0,0,0,0,0,0,0,0,0,0,0,0,
257,-66.25,-44.61,-54.28,-33.45,-73.26,-59.24,-36.87,-42.95,-66.28,-101.2,-49.28,-24.89,-37.61,-36.74,-30.04,-16.19,0,0,0,0,0,0,0,0,0,0,0,0,0,0,0,0,
258,-8.447,-3.224,-12.41,9.923,-15.7,-10.79,28.67,-1.009,-21.13,-55.8,-1.714,10.43,5.21,2.968,-19.28,-8.813,0,0,0,0,0,0,0,0,0,0,0,0,0,0,0,0,
259,18.01,9.152,17.94,-0.8463,8.769,-1.986,6.417,-14.37,33.01,-13.44,9.787,-1.924,10.73,2.372,6.46,11.56,0,0,0,0,0,0,0,0,0,0,0,0,0,0,0,0,
260,-2.623,-15.96,19.67,-23.1,-3.421,-18.56,-5.926,-25.01,32.28,-26.6,8.587,-27.68,5.455,-12.08,18.31,15.55,0,0,0,0,0,0,0,0,0,0,0,0,0,0,0,0,
261,17.97,5.249,11.8,12.21,9.667,1.885,38.7,3.665,38.86,-34.83,28.36,-15.35,23.73,2.378,25.01,15.08,0,0,0,0,0,0,0,0,0,0,0,0,0,0,0,0,
262,30.05,23.59,1.467,21.59,16.06,12.35,44.63,2.574,56.93,-11.71,31.89,-4.562,31.16,14.09,32.46,21.05,0,0,0,0,0,0,0,0,0,0,0,0,0,0,0,0,
263,-26.23,-18.99,-15.87,-25.85,-16.17,-14.66,16.86,-33.77,41.34,-3.811,2.671,-22.67,9.762,-1.858,24.21,15.87,0,0,0,0,0,0,0,0,0,0,0,0,0,0,0,0,
264,-61.65,-48.05,-39.53,-46.02,-46.99,-36.14,-12.7,-52.79,8.954,-26.66,-29.45,-38.58,-17.66,-22.32,-4.126,-5.455,0,0,0,0,0,0,0,0,0,0,0,0,0,0,0,0,
265,-38.4,-29.4,-50.53,-23.1,-44.5,-30.54,-36.66,-39.03,-5.251,-41.35,-29.18,-33.14,-17.66,-17.92,-24.35,-17.34,0,0,0,0,0,0,0,0,0,0,0,0,0,0,0,0,
266,-12.61,-1.551,-17.09,10.74,-11.08,-2.254,-5.328,-2.914,11.43,-23.33,9.049,-13.42,16.39,11.9,-5.251,1.676,0,0,0,0,0,0,0,0,0,0,0,0,0,0,0,0,
267,9.789,25.29,38.08,45.47,28.06,27.48,48.04,27.14,45.36,7.097,43.24,3.086,44.56,33.98,40.46,39.09,0,0,0,0,0,0,0,0,0,0,0,0,0,0,0,0,
268,16.47,23.04,31.92,40.56,25.7,18.28,33.99,8.779,52.89,12.49,28.29,-11.32,25.71,13.39,59.51,53.25,0,0,0,0,0,0,0,0,0,0,0,0,0,0,0,0,
269,-27.99,-25.96,-45.04,-14.22,-32.22,-29.06,-33.87,-45.23,6.407,-24.48,-25.85,-47.65,-31.36,-33.48,21.14,18.4,0,0,0,0,0,0,0,0,0,0,0,0,0,0,0,0,
270,-67.95,-51.03,-93.69,-36.21,-74.1,-49.03,-73.75,-57.27,-52.66,-63.24,-58.49,-51.93,-64.2,-46.73,-36.7,-28.36,0,0,0,0,0,0,0,0,0,0,0,0,0,0,0,0,
271,-41.35,-15.81,-68.39,2.771,-44.46,-15.94,-42.15,-21.91,-56.19,-54.12,-39.62,-25.73,-38.89,-19.76,-52.45,-30.8,0,0,0,0,0,0,0,0,0,0,0,0,0,0,0,0,
272,-1.45,16.7,-25.75,22.37,-7.08,7.451,6.1,-10.73,-19.68,-28.92,-19.42,-24.56,-13.16,-8.238,-25.56,0.9118,0,0,0,0,0,0,0,0,0,0,0,0,0,0,0,0,
273,-8.309,10.96,-10.52,-2.38,-15.98,-5.696,-6.574,-13.32,-13.22,-30.6,-38.19,-43.28,-28.9,-23.2,-9.575,13.28,0,0,0,0,0,0,0,0,0,0,0,0,0,0,0,0,
274,-31.16,-5.842,-29.2,-14.64,-25.87,-8.656,-45.46,-0.058,-32.4,-33.69,-60.58,-44.38,-44.92,-32.56,-28.57,-8.593,0,0,0,0,0,0,0,0,0,0,0,0,0,0,0,0,
275,-19.46,0.3749,-50.86,5.832,-11.71,13.23,-39.0,-9.651,-31.52,-19.93,-52.14,-35.09,-34.79,-28.32,-52.9,-36.47,0,0,0,0,0,0,0,0,0,0,0,0,0,0,0,0,
276,11.03,30.23,-29.48,27.08,2.793,32.5,-6.132,-23.13,-15.38,-2.117,-31.71,-32.38,-18.27,-17.85,-51.71,-45.26,0,0,0,0,0,0,0,0,0,0,0,0,0,0,0,0,
277,11.48,34.5,-1.049,21.47,11.71,32.92,4.7,-8.815,-2.735,11.5,-15.82,-32.96,-2.927,-7.826,-25.71,-32.98,0,0,0,0,0,0,0,0,0,0,0,0,0,0,0,0,
278,-0.6134,13.03,-0.2579,15.95,23.54,29.71,18.39,-5.677,16.2,18.4,23.51,-11.34,31.16,15.89,17.77,-0.6216,0,0,0,0,0,0,0,0,0,0,0,0,0,0,0,0,
279,25.04,38.05,32.49,57.51,52.95,60.26,86.1,8.449,56.27,47.26,98.31,47.01,92.61,73.19,82.38,60.49,0,0,0,0,0,0,0,0,0,0,0,0,0,0,0,0,
280,76.52,97.97,94.11,112.0,101.1,115.1,158.1,63.62,110.3,109.5,156.3,93.33,142.7,124.8,153.8,135.4,0,0,0,0,0,0,0,0,0,0,0,0,0,0,0,0,
281,104.2,108.5,102.0,107.4,121.6,126.7,142.2,83.05,140.8,138.6,148.9,88.3,138.7,121.4,187.8,175.8,0,0,0,0,0,0,0,0,0,0,0,0,0,0,0,0,
282,63.98,52.87,46.26,44.65,72.09,70.1,64.27,41.5,112.3,95.06,86.57,60.72,90.11,79.62,154.3,152.5,0,0,0,0,0,0,0,0,0,0,0,0,0,0,0,0,
283,-17.73,-14.84,-14.51,-13.66,4.155,4.64,13.64,6.885,51.45,31.89,23.82,31.6,41.5,38.72,81.38,90.42,0,0,0,0,0,0,0,0,0,0,0,0,0,0,0,0,
284,-40.34,-32.09,-31.43,-20.46,-6.355,-13.23,2.693,-6.505,19.46,1.538,5.019,1.297,21.05,16.97,28.98,39.27,0,0,0,0,0,0,0,0,0,0,0,0,0,0,0,0,
285,-10.16,-4.942,-13.98,2.426,7.122,-3.357,0.6316,-8.93,11.52,0.9674,10.68,-9.893,20.39,16.41,20.8,26.03,0,0,0,0,0,0,0,0,0,0,0,0,0,0,0,0,
286,1.146,13.11,11.25,22.57,11.61,11.39,24.8,25.44,8.905,19.87,25.72,9.785,40.18,38.02,42.22,46.47,0,0,0,0,0,0,0,0,0,0,0,0,0,0,0,0,
287,13.1,17.44,35.65,38.99,36.92,31.95,63.53,58.27,41.09,51.66,50.8,24.91,64.45,52.03,68.62,72.3,0,0,0,0,0,0,0,0,0,0,0,0,0,0,0,0,
288,-1.516,-4.235,3.944,15.45,22.75,9.74,28.48,11.17,55.06,43.74,24.13,-5.922,27.93,6.592,54.79,55.24,0,0,0,0,0,0,0,0,0,0,0,0,0,0,0,0,
289,-62.17,-53.7,-61.03,-33.86,-38.5,-42.37,-32.53,-54.63,-3.934,-14.59,-30.11,-39.54,-25.45,-40.27,-3.13,-2.177,0,0,0,0,0,0,0,0,0,0,0,0,0,0,0,0,
290,-50.88,-43.81,-28.92,-16.18,-13.05,-24.06,13.98,-35.41,-22.53,-24.21,2.857,-22.47,9.46,-5.509,-25.19,-23.95,0,0,0,0,0,0,0,0,0,0,0,0,0,0,0,0,
291,15.12,18.09,46.36,33.24,56.72,28.31,74.64,6.227,34.44,20.63,58.25,-8.087,57.16,27.64,13.85,7.174,0,0,0,0,0,0,0,0,0,0,0,0,0,0,0,0,
292,9.281,18.2,39.05,26.69,42.29,21.15,39.7,3.625,47.71,20.18,32.42,-25.67,33.19,0.6785,39.2,23.69,0,0,0,0,0,0,0,0,0,0,0,0,0,0,0,0,
293,-24.68,-29.69,7.463,1.001,2.27,-9.175,0.6931,1.642,20.91,-6.636,-4.58,-30.73,4.918,-15.04,20.22,3.647,0,0,0,0,0,0,0,0,0,0,0,0,0,0,0,0,
294,-28.42,-49.16,-12.56,-6.812,-11.44,-23.13,-16.84,-3.478,7.583,-12.19,-8.732,-26.93,-0.6794,-12.92,-4.99,-17.76,0,0,0,0,0,0,0,0,0,0,0,0,0,0,0,0,
295,-16.0,-24.54,-28.26,7.831,-4.536,-13.06,-18.36,-5.55,-1.031,-12.98,3.921,-18.19,8.776,-6.058,-5.971,-14.44,0,0,0,0,0,0,0,0,0,0,0,0,0,0,0,0,
296,13.42,21.76,3.122,35.8,29.76,19.35,40.08,32.84,18.73,7.703,25.99,-7.017,28.89,9.921,13.7,6.99,0,0,0,0,0,0,0,0,0,0,0,0,0,0,0,0,
297,-0.5652,13.63,2.791,10.8,12.52,4.493,41.0,24.01,21.51,15.58,-2.345,-33.93,-0.3178,-14.51,12.94,5.173,0,0,0,0,0,0,0,0,0,0,0,0,0,0,0,0,
298,-54.05,-42.05,-58.82,-29.32,-45.39,-36.74,-52.71,-35.39,-35.81,-23.27,-46.5,-44.51,-32.48,-32.65,-15.48,-18.98,0,0,0,0,0,0,0,0,0,0,0,0,0,0,0,0,
299,-28.73,-20.93,-26.85,19.13,-16.72,1.669,-44.81,4.805,-35.03,-8.115,0.5277,16.4,22.21,28.15,-7.832,-0.6664,0,0,0,0,0,0,0,0,0,0,0,0,0,0,0,0,
300,36.88,47.74,67.19,81.43,45.12,59.39,52.11,78.11,38.47,65.32,65.39,50.36,73.47,71.83,45.54,57.66,0,0,0,0,0,0,0,0,0,0,0,0,0,0,0,0,
301,33.06,42.95,53.38,63.23,37.7,39.91,53.98,32.72,56.87,72.15,47.29,16.07,48.75,43.48,71.2,80.86,0,0,0,0,0,0,0,0,0,0,0,0,0,0,0,0,
302,7.115,10.14,-10.06,24.06,11.7,4.066,0.1995,-25.47,30.7,28.23,9.768,-1.933,20.78,22.57,47.53,56.14,0,0,0,0,0,0,0,0,0,0,0,0,0,0,0,0,
303,10.02,15.78,-6.575,16.41,9.194,7.934,0.0633,5.108,20.38,16.12,19.0,19.12,29.83,36.86,28.82,35.76,0,0,0,0,0,0,0,0,0,0,0,0,0,0,0,0,
304,16.91,22.9,23.1,27.44,23.15,25.24,17.56,39.1,21.76,32.24,53.86,37.66,58.76,59.19,48.58,47.11,0,0,0,0,0,0,0,0,0,0,0,0,0,0,0,0,
305,12.12,10.98,22.54,27.1,32.41,22.93,-0.0316,25.42,35.52,45.43,55.06,18.36,66.06,51.35,72.35,60.29,0,0,0,0,0,0,0,0,0,0,0,0,0,0,0,0,
306,-27.46,-23.58,-11.18,-7.009,-4.885,-12.46,-37.51,-6.001,21.37,21.69,3.275,-26.16,22.63,2.972,50.54,35.04,0,0,0,0,0,0,0,0,0,0,0,0,0,0,0,0,
307,-75.04,-62.4,-44.64,-28.32,-38.49,-35.01,-47.59,-19.46,-24.91,-19.14,-22.48,-23.55,-3.592,-10.01,5.541,-3.474,0,0,0,0,0,0,0,0,0,0,0,0,0,0,0,0,
308,-49.53,-41.8,-22.33,1.157,1.659,-2.215,-14.29,2.574,-15.61,-5.305,13.77,21.68,28.36,29.5,-0.9963,-1.584,0,0,0,0,0,0,0,0,0,0,0,0,0,0,0,0,
309,14.86,10.9,24.33,20.38,40.6,25.49,9.014,22.02,27.88,32.61,30.89,22.36,41.32,33.45,22.61,23.47,0,0,0,0,0,0,0,0,0,0,0,0,0,0,0,0,
310,25.21,11.4,20.09,-1.43,20.4,3.5,-3.243,6.186,17.89,19.24,9.453,-11.18,15.29,2.986,30.03,27.68,0,0,0,0,0,0,0,0,0,0,0,0,0,0,0,0,
311,8.036,-11.94,4.344,-16.74,6.614,-18.84,-1.506,-14.78,-8.152,-13.61,5.163,-18.32,6.564,-3.485,23.94,19.37,0,0,0,0,0,0,0,0,0,0,0,0,0,0,0,0,
312,8.888,-15.28,16.23,-19.96,10.05,-25.58,7.169,-16.25,-11.92,-25.75,3.125,-19.1,2.166,-10.26,16.44,10.47,0,0,0,0,0,0,0,0,0,0,0,0,0,0,0,0,
313,1.04,-22.64,-0.1999,-27.16,-5.319,-36.12,-23.02,-12.01,-27.72,-33.57,-20.34,-27.95,-19.33,-28.01,-2.021,-6.916,0,0,0,0,0,0,0,0,0,0,0,0,0,0,0,0,
314,-12.23,-25.04,-26.22,-21.53,-8.693,-33.25,-41.73,-16.34,-40.76,-33.23,-26.19,-21.94,-20.8,-20.85,-15.92,-15.85,0,0,0,0,0,0,0,0,0,0,0,0,0,0,0,0,
315,-7.422,-17.23,-3.715,-14.69,-1.063,-26.49,-17.91,-15.39,-33.25,-26.52,-11.38,-15.47,-5.181,-7.548,-5.318,-3.06,0,0,0,0,0,0,0,0,0,0,0,0,0,0,0,0,
316,-0.5809,-22.34,23.63,-14.64,-8.869,-31.73,-8.208,3.524,-32.21,-25.62,-4.628,-13.33,-3.804,-8.981,11.85,11.46,0,0,0,0,0,0,0,0,0,0,0,0,0,0,0,0,
317,2.502,-17.56,23.37,1.764,0.6237,-24.69,-15.22,6.779,-29.71,-14.54,-3.867,-3.929,-12.54,-9.989,12.11,11.93,0,0,0,0,0,0,0,0,0,0,0,0,0,0,0,0,
318,4.521,-7.701,13.64,6.545,5.613,-22.01,-28.81,-16.95,-29.28,-14.6,-19.35,-14.62,-33.77,-23.84,-8.032,-4.977,0,0,0,0,0,0,0,0,0,0,0,0,0,0,0,0,
319,-0.6084,-19.0,2.704,-8.71,-19.95,-29.67,-49.37,-19.75,-51.68,-39.14,-38.8,-35.78,-47.87,-37.49,-31.22,-28.19,0,0,0,0,0,0,0,0,0,0,0,0,0,0,0,0,
320,4.561,-8.659,17.04,8.316,-0.5672,-2.663,-10.97,-2.469,-43.54,-24.51,-15.55,-20.84,-18.0,-12.89,-27.87,-25.69,0,0,0,0,0,0,0,0,0,0,0,0,0,0,0,0,
321,21.35,18.36,39.61,31.74,40.2,22.31,51.0,0.8022,4.134,16.78,18.48,7.969,12.29,12.59,0.6365,5.224,0,0,0,0,0,0,0,0,0,0,0,0,0,0,0,0,
322,21.74,9.203,18.94,22.41,15.72,4.162,25.01,6.395,14.71,11.73,13.9,8.924,3.2,3.481,21.16,26.76,0,0,0,0,0,0,0,0,0,0,0,0,0,0,0,0,
323,0.0905,-12.55,-16.87,13.73,-18.51,-9.669,-32.5,7.947,-7.356,-6.518,-6.735,-12.63,-14.23,-15.52,14.5,16.84,0,0,0,0,0,0,0,0,0,0,0,0,0,0,0,0,
324,-33.02,-30.78,-33.31,0.5443,-29.38,-18.72,-41.38,-13.23,-29.25,-8.96,-22.92,-26.29,-25.52,-26.58,-9.69,-9.252,0,0,0,0,0,0,0,0,0,0,0,0,0,0,0,0,
325,-42.28,-37.3,-29.18,-6.289,-35.97,-23.14,-17.61,-5.871,-42.54,-14.44,-7.145,-2.555,-8.337,-5.807,-12.42,-9.721,0,0,0,0,0,0,0,0,0,0,0,0,0,0,0,0,
326,-6.003,-3.346,1.584,27.23,-3.216,8.763,21.52,32.26,-5.697,6.94,36.28,21.2,32.15,29.84,24.7,29.73,0,0,0,0,0,0,0,0,0,0,0,0,0,0,0,0,
327,-2.728,-2.114,-1.446,23.06,2.663,3.764,1.478,18.43,18.8,19.85,16.15,-6.176,14.05,10.5,46.17,52.9,0,0,0,0,0,0,0,0,0,0,0,0,0,0,0,0,
328,-58.51,-57.3,-63.95,-29.99,-59.56,-49.01,-74.01,-28.8,-36.99,-23.64,-41.77,-27.52,-28.16,-22.21,17.85,29.17,0,0,0,0,0,0,0,0,0,0,0,0,0,0,0,0,
329,-58.9,-50.3,-76.0,-21.09,-56.22,-34.78,-65.32,-24.76,-47.22,-30.01,-23.16,-3.466,2.463,3.995,-5.668,11.4,0,0,0,0,0,0,0,0,0,0,0,0,0,0,0,0,
330,-4.553,-6.483,-13.72,9.961,1.86,5.387,-20.34,-5.539,6.823,15.58,14.65,5.148,34.55,24.13,6.443,24.44,0,0,0,0,0,0,0,0,0,0,0,0,0,0,0,0,
331,7.044,-15.2,21.86,-7.265,2.472,-9.722,-28.7,-18.92,-0.056,14.16,9.206,-1.44,22.52,11.02,24.55,36.14,0,0,0,0,0,0,0,0,0,0,0,0,0,0,0,0,
332,15.44,-6.566,15.57,-1.51,7.722,-8.785,11.35,-13.37,-2.549,5.016,21.94,11.78,37.43,17.52,34.04,35.99,0,0,0,0,0,0,0,0,0,0,0,0,0,0,0,0,
333,35.36,15.65,0.4364,8.253,26.45,-1.051,40.64,-1.448,37.17,25.16,18.66,-0.9885,35.67,6.046,24.99,23.12,0,0,0,0,0,0,0,0,0,0,0,0,0,0,0,0,
334,-4.498,-20.44,-20.46,-35.37,-11.05,-40.44,-49.14,-28.4,2.363,-2.246,-30.83,-35.57,-12.6,-28.5,-8.684,-3.633,0,0,0,0,0,0,0,0,0,0,0,0,0,0,0,0,
335,-32.91,-28.38,-9.118,-38.6,-17.68,-36.8,-66.82,-21.68,-34.68,-30.73,-17.68,-9.182,5.007,4.37,-21.26,-6.303,0,0,0,0,0,0,0,0,0,0,0,0,0,0,0,0,
336,18.89,24.06,34.61,16.13,36.64,21.3,42.36,34.18,31.68,21.59,48.82,55.72,73.42,70.53,19.5,37.02,0,0,0,0,0,0,0,0,0,0,0,0,0,0,0,0,
337,51.01,35.04,37.4,26.16,39.68,28.63,67.04,42.99,79.38,65.46,54.13,64.72,76.2,70.86,64.26,78.1,0,0,0,0,0,0,0,0,0,0,0,0,0,0,0,0,
338,23.24,7.454,2.654,-2.063,0.7398,-3.254,15.68,8.738,49.25,39.82,23.27,23.65,41.11,35.94,62.5,71.67,0,0,0,0,0,0,0,0,0,0,0,0,0,0,0,0,
339,-10.64,-19.74,-14.03,-31.45,-21.73,-31.33,-7.409,-18.05,21.44,5.632,1.21,-9.197,17.18,10.75,23.38,28.3,0,0,0,0,0,0,0,0,0,0,0,0,0,0,0,0,
340,-41.24,-53.99,-30.53,-66.29,-45.31,-64.18,-50.97,-44.47,-0.6385,-18.05,-32.37,-22.15,-10.39,-11.32,-20.09,-16.24,0,0,0,0,0,0,0,0,0,0,0,0,0,0,0,0,
341,-39.91,-41.89,-46.37,-55.31,-36.74,-55.42,-67.17,-45.84,-14.82,-24.88,-20.04,-6.764,7.79,8.504,-24.01,-18.32,0,0,0,0,0,0,0,0,0,0,0,0,0,0,0,0,
342,15.37,19.62,-9.065,2.101,24.71,4.419,13.14,-8.193,32.19,20.42,59.32,38.47,82.84,71.78,35.18,38.65,0,0,0,0,0,0,0,0,0,0,0,0,0,0,0,0,
343,49.93,38.94,39.02,20.4,53.62,28.46,57.46,10.01,93.07,71.74,82.38,53.09,105.3,87.55,97.23,94.58,0,0,0,0,0,0,0,0,0,0,0,0,0,0,0,0,
344,13.88,9.618,19.09,-7.663,17.67,-2.705,6.289,-16.15,77.44,59.41,21.56,6.129,53.11,38.62,85.82,81.64,0,0,0,0,0,0,0,0,0,0,0,0,0,0,0,0,
345,-32.23,-16.34,-19.23,-31.23,-12.33,-22.52,-13.29,-27.37,27.03,21.02,-1.37,-22.03,28.14,14.62,30.27,30.91,0,0,0,0,0,0,0,0,0,0,0,0,0,0,0,0,
346,-26.3,-23.52,-7.45,-34.57,1.838,-6.761,18.08,16.06,32.45,22.49,34.27,14.2,51.83,43.49,9.309,15.11,0,0,0,0,0,0,0,0,0,0,0,0,0,0,0,0,
347,4.193,-5.279,9.775,-22.06,23.6,11.65,9.764,44.22,64.93,48.91,47.06,39.58,60.94,63.96,28.95,35.39,0,0,0,0,0,0,0,0,0,0,0,0,0,0,0,0,
348,7.366,12.53,-2.425,-14.24,18.67,12.56,-27.47,2.163,57.36,53.69,30.32,23.06,45.22,53.55,45.71,49.55,0,0,0,0,0,0,0,0,0,0,0,0,0,0,0,0,
349,-6.196,-0.3375,-11.9,-23.12,6.974,7.316,-36.51,-32.95,34.58,36.61,13.57,13.94,28.63,38.92,38.74,43.42,0,0,0,0,0,0,0,0,0,0,0,0,0,0,0,0,
350,-9.673,-12.05,-13.5,-25.41,14.51,9.043,-19.61,-9.316,31.28,26.85,5.552,19.76,23.27,36.2,20.67,30.94,0,0,0,0,0,0,0,0,0,0,0,0,0,0,0,0,
351,9.775,12.93,0.4061,-3.768,40.1,32.1,11.01,21.5,45.61,44.45,38.05,34.92,51.15,58.94,25.93,37.11,0,0,0,0,0,0,0,0,0,0,0,0,0,0,0,0,
352,45.2,45.2,32.19,11.72,62.16,57.9,31.47,18.0,79.0,76.3,72.2,43.56,74.19,74.94,54.58,58.62,0,0,0,0,0,0,0,0,0,0,0,0,0,0,0,0,
353,24.32,23.77,12.44,-16.23,34.16,31.02,0.8641,-13.99,74.98,64.53,19.16,8.494,25.11,35.42,47.8,48.65,0,0,0,0,0,0,0,0,0,0,0,0,0,0,0,0,
354,-37.24,-19.89,-37.45,-39.43,-13.89,-5.194,-44.29,-17.21,10.55,16.42,-35.96,-11.14,-19.45,10.43,2.314,9.077,0,0,0,0,0,0,0,0,0,0,0,0,0,0,0,0,
355,-5.57,6.616,-13.35,-4.359,11.54,27.4,-37.25,31.38,1.819,28.98,8.927,26.08,18.25,50.35,-7.684,2.289,0,0,0,0,0,0,0,0,0,0,0,0,0,0,0,0,
356,60.29,48.67,19.07,16.49,54.58,53.33,-11.26,44.73,54.86,75.13,37.47,26.89,39.21,58.49,19.9,26.2,0,0,0,0,0,0,0,0,0,0,0,0,0,0,0,0,
357,20.71,19.92,-16.67,-16.93,25.02,17.43,-17.87,3.92,44.93,51.17,-5.816,-6.735,3.417,21.43,22.28,28.17,0,0,0,0,0,0,0,0,0,0,0,0,0,0,0,0,
358,-25.68,-1.49,-30.9,-32.74,-2.449,-0.4465,-31.34,-12.47,7.194,12.77,-19.51,4.495,-7.258,19.36,-1.161,11.81,0,0,0,0,0,0,0,0,0,0,0,0,0,0,0,0,
359,1.093,16.12,-12.7,-30.07,3.713,2.315,-33.35,-10.58,7.297,19.47,-14.42,13.5,-2.752,26.65,-17.74,4.427,0,0,0,0,0,0,0,0,0,0,0,0,0,0,0,0,
360,12.34,7.167,-25.55,-39.62,-11.28,-13.61,-39.94,-21.19,-9.552,12.53,-25.53,-0.8125,-7.078,22.2,-17.13,8.716,0,0,0,0,0,0,0,0,0,0,0,0,0,0,0,0,
361,10.34,9.802,-25.78,-20.9,-4.91,-0.4743,-33.17,-19.93,-15.68,5.688,0.7776,18.78,22.07,48.04,8.546,29.49,0,0,0,0,0,0,0,0,0,0,0,0,0,0,0,0,
362,41.53,51.2,4.78,12.05,36.56,36.54,-0.9315,-7.059,34.17,35.59,30.47,37.48,52.37,68.63,42.84,57.93,0,0,0,0,0,0,0,0,0,0,0,0,0,0,0,0,
363,49.5,55.65,1.817,3.355,30.49,30.26,0.3704,2.66,54.62,40.27,5.061,16.5,31.77,44.55,47.07,60.97,0,0,0,0,0,0,0,0,0,0,0,0,0,0,0,0,
364,14.62,25.83,-36.86,-14.17,-10.49,2.409,-43.13,6.841,19.3,12.38,-18.09,10.63,9.242,29.95,26.89,39.7,0,0,0,0,0,0,0,0,0,0,0,0,0,0,0,0,
365,4.821,27.01,-51.0,0.9923,-7.287,7.259,-46.03,4.768,6.188,17.67,-6.745,28.79,20.49,46.11,18.78,29.99,0,0,0,0,0,0,0,0,0,0,0,0,0,0,0,0,
366,23.81,33.23,-38.13,6.437,16.68,15.21,-14.76,4.661,18.8,37.96,-9.161,18.61,20.36,41.87,20.88,32.54,0,0,0,0,0,0,0,0,0,0,0,0,0,0,0,0,
367,6.712,6.893,-50.3,-21.39,2.017,-6.428,-46.9,-4.488,10.41,25.5,-25.69,0.5093,0.53,20.47,12.53,25.43,0,0,0,0,0,0,0,0,0,0,0,0,0,0,0,0,
368,-20.04,-1.534,-66.91,-30.65,-15.79,-12.67,-84.68,-23.89,-3.075,14.56,-18.03,20.0,3.361,28.03,4.749,21.03,0,0,0,0,0,0,0,0,0,0,0,0,0,0,0,0,
369,9.124,27.32,-31.5,-6.147,9.916,16.2,-21.42,-16.31,9.872,31.4,8.97,45.19,29.37,53.64,17.91,38.21,0,0,0,0,0,0,0,0,0,0,0,0,0,0,0,0,
370,49.33,40.72,21.52,7.007,40.55,34.73,54.24,6.632,41.02,46.93,36.57,49.95,55.56,70.28,49.62,66.06,0,0,0,0,0,0,0,0,0,0,0,0,0,0,0,0,
371,46.4,28.8,28.15,-7.669,33.1,23.95,30.65,2.616,64.25,54.5,40.41,42.44,57.7,63.83,72.1,77.71,0,0,0,0,0,0,0,0,0,0,0,0,0,0,0,0,
372,20.6,10.07,-12.38,-30.46,3.427,0.6641,-21.73,-4.778,48.52,46.16,7.319,18.95,25.32,30.59,56.33,55.13,0,0,0,0,0,0,0,0,0,0,0,0,0,0,0,0,
373,12.29,3.186,-31.19,-29.27,-2.286,-4.517,-12.38,0.4909,20.23,20.99,0.8928,13.86,17.13,22.83,26.5,25.65,0,0,0,0,0,0,0,0,0,0,0,0,0,0,0,0,
374,33.79,23.62,2.115,-9.906,18.69,11.32,-1.977,-14.49,38.75,23.84,28.81,33.04,38.42,44.0,23.17,25.91,0,0,0,0,0,0,0,0,0,0,0,0,0,0,0,0,
375,24.5,15.56,0.1932,-21.99,12.0,2.957,-28.3,-27.02,50.45,34.03,6.742,25.9,17.8,33.68,24.14,32.66,0,0,0,0,0,0,0,0,0,0,0,0,0,0,0,0,
376,-2.491,-11.72,-18.79,-26.3,10.34,1.503,19.1,1.966,27.04,26.19,-8.21,30.88,11.81,38.18,16.11,29.83,0,0,0,0,0,0,0,0,0,0,0,0,0,0,0,0,
377,41.52,28.96,38.49,16.29,63.16,44.0,105.0,24.26,61.09,59.17,39.85,61.57,53.92,72.07,27.26,40.88,0,0,0,0,0,0,0,0,0,0,0,0,0,0,0,0,
378,54.4,47.19,52.25,6.569,65.09,33.58,54.77,1.317,92.4,77.66,23.51,31.37,24.65,36.48,29.64,39.52,0,0,0,0,0,0,0,0,0,0,0,0,0,0,0,0,
379,-12.46,-5.742,-19.68,-37.81,5.485,-18.57,-32.72,-16.31,29.74,15.28,-40.31,-9.753,-35.32,-12.97,-4.216,1.159,0,0,0,0,0,0,0,0,0,0,0,0,0,0,0,0,
380,16.06,26.57,-7.249,5.542,18.48,12.2,1.576,3.095,6.432,0.1211,-15.09,25.76,-3.869,21.05,-20.23,-19.73,0,0,0,0,0,0,0,0,0,0,0,0,0,0,0,0,
381,92.5,95.99,58.95,48.37,65.93,57.6,44.53,23.4,55.32,53.84,30.39,56.1,33.67,47.38,3.367,1.044,0,0,0,0,0,0,0,0,0,0,0,0,0,0,0,0,
382,75.59,67.96,63.0,12.67,65.08,34.41,30.36,18.48,53.99,48.86,11.01,31.86,6.297,15.47,15.8,11.79,0,0,0,0,0,0,0,0,0,0,0,0,0,0,0,0,
383,41.38,34.78,20.3,-2.487,34.6,11.3,-15.08,-8.127,16.21,9.444,-40.9,0.3159,-38.59,-17.81,-13.07,-18.08,0,0,0,0,0,0,0,0,0,0,0,0,0,0,0,0,
384,-10.14,13.15,-64.42,-7.125,-34.51,-9.012,-118.3,-38.47,-32.55,-13.33,-97.83,-25.76,-78.69,-43.22,-63.56,-64.18,0,0,0,0,0,0,0,0,0,0,0,0,0,0,0,0,
385,-50.5,-19.63,-81.83,-32.35,-56.56,-26.94,-128.6,-25.37,-79.39,-39.94,-85.36,-19.61,-62.87,-35.76,-79.08,-76.52,0,0,0,0,0,0,0,0,0,0,0,0,0,0,0,0,
386,58.78,44.04,48.59,-2.052,42.61,14.92,26.57,27.66,-29.78,-25.64,2.276,23.19,8.162,13.83,-28.62,-33.62,0,0,0,0,0,0,0,0,0,0,0,0,0,0,0,0,
387,144.7,107.4,111.2,20.16,87.68,38.85,64.32,18.65,50.2,16.56,20.07,24.72,13.3,18.65,22.02,9.941,0,0,0,0,0,0,0,0,0,0,0,0,0,0,0,0,
388,49.92,33.02,22.9,-43.39,14.28,-17.69,-64.91,-53.72,16.01,-5.689,-38.28,-15.3,-45.97,-28.99,4.921,-1.072,0,0,0,0,0,0,0,0,0,0,0,0,0,0,0,0,
389,13.02,-6.16,1.076,-62.17,5.158,-34.12,-74.6,-40.82,-43.94,-47.93,-40.76,-5.205,-48.21,-25.54,-35.94,-29.05,0,0,0,0,0,0,0,0,0,0,0,0,0,0,0,0,
390,109.5,78.64,84.69,10.14,79.57,34.66,28.71,50.62,-11.09,-13.15,6.199,45.02,0.8983,29.17,-31.62,-17.17,0,0,0,0,0,0,0,0,0,0,0,0,0,0,0,0,
391,129.7,115.4,113.9,24.31,101.1,64.24,44.7,46.98,41.64,41.77,12.41,40.91,9.356,34.27,-1.706,9.091,0,0,0,0,0,0,0,0,0,0,0,0,0,0,0,0,
392,59.42,46.74,62.9,-52.23,57.23,6.728,-2.506,-36.84,30.9,19.43,-24.03,-10.93,-26.5,-13.73,-3.257,-1.355,0,0,0,0,0,0,0,0,0,0,0,0,0,0,0,0,
393,40.24,-6.483,36.03,-86.1,32.39,-33.7,-17.09,-37.65,0.4013,-31.29,-36.12,-22.62,-34.55,-23.72,-30.16,-30.87,0,0,0,0,0,0,0,0,0,0,0,0,0,0,0,0,
394,89.95,23.36,72.42,-38.46,60.95,1.572,0.3434,17.79,18.37,-19.7,-2.021,6.025,0.2066,12.92,-32.11,-30.91,0,0,0,0,0,0,0,0,0,0,0,0,0,0,0,0,
395,118.1,64.23,103.1,-11.86,86.47,35.59,20.44,9.616,53.1,15.56,18.02,16.64,18.08,29.26,-4.895,-3.699,0,0,0,0,0,0,0,0,0,0,0,0,0,0,0,0,
396,101.5,60.59,96.94,-26.16,80.58,32.98,26.55,-5.865,52.7,19.9,7.875,21.08,18.19,35.08,18.31,22.35,0,0,0,0,0,0,0,0,0,0,0,0,0,0,0,0,
397,117.7,74.97,99.48,0.0209,100.5,55.12,32.14,39.16,64.77,41.1,23.1,43.07,47.13,70.69,36.16,46.63,0,0,0,0,0,0,0,0,0,0,0,0,0,0,0,0,
398,156.2,109.3,111.4,43.47,138.3,90.8,42.2,61.67,109.7,85.82,45.7,56.27,69.87,93.63,54.92,68.56,0,0,0,0,0,0,0,0,0,0,0,0,0,0,0,0,
399,129.7,89.37,99.02,31.4,119.5,79.5,20.7,29.53,108.5,84.01,14.86,43.69,37.1,66.02,47.32,63.01,0,0,0,0,0,0,0,0,0,0,0,0,0,0,0,0,
400,67.18,41.87,59.07,-3.343,56.28,38.87,-40.08,5.128,49.91,36.91,-42.48,12.34,-13.55,25.28,4.113,23.76,0,0,0,0,0,0,0,0,0,0,0,0,0,0,0,0,
401,40.41,20.87,18.27,-11.27,20.94,13.34,-77.95,4.4,11.11,3.583,-56.71,-4.308,-23.97,14.66,-28.14,-8.786,0,0,0,0,0,0,0,0,0,0,0,0,0,0,0,0,
402,52.48,33.48,29.02,6.053,39.05,23.74,-43.62,16.94,23.79,8.035,-12.84,21.58,12.06,40.15,-5.878,7.146,0,0,0,0,0,0,0,0,0,0,0,0,0,0,0,0,
403,82.0,77.07,76.56,26.67,70.93,57.08,-1.586,17.52,56.79,35.85,31.48,42.34,45.37,66.57,47.15,52.3,0,0,0,0,0,0,0,0,0,0,0,0,0,0,0,0,
404,93.13,94.52,80.94,22.39,73.86,67.31,-15.4,-4.503,68.89,48.91,26.79,29.6,41.91,62.33,72.97,69.76,0,0,0,0,0,0,0,0,0,0,0,0,0,0,0,0,
405,89.36,72.82,67.16,16.07,75.14,62.73,-14.78,13.38,65.94,42.24,13.73,31.55,39.01,56.53,60.28,49.03,0,0,0,0,0,0,0,0,0,0,0,0,0,0,0,0,
406,114.8,87.89,87.96,37.73,95.79,76.17,15.87,57.72,83.08,54.65,22.9,45.73,49.21,66.92,38.58,23.78,0,0,0,0,0,0,0,0,0,0,0,0,0,0,0,0,
407,129.3,106.5,76.07,38.64,83.6,65.79,-5.525,27.51,89.67,66.49,-0.0478,32.21,25.52,50.14,12.79,2.85,0,0,0,0,0,0,0,0,0,0,0,0,0,0,0,0,
408,83.89,62.02,19.93,1.782,36.47,16.75,-37.14,-39.5,46.47,29.35,-56.45,3.282,-20.38,0.7246,-28.02,-26.78,0,0,0,0,0,0,0,0,0,0,0,0,0,0,0,0,
409,48.58,36.38,16.43,-6.084,23.68,-1.45,-26.53,-35.36,3.777,-15.13,-66.07,-7.914,-29.03,-22.09,-60.99,-51.3,0,0,0,0,0,0,0,0,0,0,0,0,0,0,0,0,
410,74.83,77.58,61.74,27.23,53.76,27.39,-29.29,6.228,11.02,-5.557,-23.23,10.97,-3.933,-1.817,-54.8,-43.34,0,0,0,0,0,0,0,0,0,0,0,0,0,0,0,0,
411,100.6,101.0,69.5,35.44,67.96,38.38,-40.73,1.199,40.94,22.7,-10.01,16.48,-2.59,1.337,-32.18,-19.48,0,0,0,0,0,0,0,0,0,0,0,0,0,0,0,0,
412,76.17,65.44,24.78,-4.04,30.95,2.37,-47.35,-26.94,38.74,2.126,-50.12,-19.62,-40.91,-34.6,-42.1,-24.86,0,0,0,0,0,0,0,0,0,0,0,0,0,0,0,0,
413,45.53,28.32,-7.81,-22.98,-8.319,-25.36,-64.18,-15.21,1.292,-39.48,-66.8,-15.32,-52.89,-33.65,-68.91,-46.1,0,0,0,0,0,0,0,0,0,0,0,0,0,0,0,0,
414,65.74,51.79,34.39,27.46,24.42,9.469,-28.05,23.54,5.373,-15.61,-16.66,51.74,-0.7094,32.96,-51.35,-24.96,0,0,0,0,0,0,0,0,0,0,0,0,0,0,0,0,
415,100.4,100.1,91.1,73.46,76.11,54.4,28.84,39.91,66.77,50.55,23.94,69.74,35.65,67.42,1.458,27.72,0,0,0,0,0,0,0,0,0,0,0,0,0,0,0,0,
416,76.61,79.63,54.36,40.54,47.27,28.79,-2.862,20.52,81.47,50.17,-5.732,26.83,2.228,24.09,17.88,40.86,0,0,0,0,0,0,0,0,0,0,0,0,0,0,0,0,
417,25.31,22.14,-0.5438,-4.809,-0.6336,-19.52,-33.81,-8.308,37.17,-4.033,-30.64,19.68,-20.68,-2.933,-6.892,10.02,0,0,0,0,0,0,0,0,0,0,0,0,0,0,0,0,
418,31.09,28.69,41.59,12.3,25.14,-5.184,30.14,-3.346,35.54,-9.753,15.62,50.57,22.61,35.66,-4.766,3.135,0,0,0,0,0,0,0,0,0,0,0,0,0,0,0,0,
419,76.36,68.68,87.59,40.38,62.73,24.98,70.53,24.21,75.65,23.88,54.78,51.78,55.87,57.8,33.81,34.23,0,0,0,0,0,0,0,0,0,0,0,0,0,0,0,0,
420,72.61,58.79,51.83,14.85,37.56,-5.934,9.851,7.259,70.75,14.0,12.97,10.97,13.96,13.14,38.56,38.79,0,0,0,0,0,0,0,0,0,0,0,0,0,0,0,0,
421,22.71,13.87,25.61,-30.0,-4.509,-48.25,-48.4,-39.5,16.94,-32.25,-33.57,-16.26,-33.26,-24.96,-7.958,-2.008,0,0,0,0,0,0,0,0,0,0,0,0,0,0,0,0,
422,26.6,11.47,56.54,-20.48,13.33,-21.15,1.216,-30.36,8.402,-34.14,5.614,16.23,4.709,8.18,-27.32,-18.34,0,0,0,0,0,0,0,0,0,0,0,0,0,0,0,0,
423,83.63,61.36,69.46,26.29,64.81,28.48,75.95,10.52,75.61,13.58,65.33,49.85,63.47,45.28,16.96,18.8,0,0,0,0,0,0,0,0,0,0,0,0,0,0,0,0,
424,69.99,59.68,24.89,12.7,46.48,5.296,24.62,-7.758,89.38,15.81,39.89,12.49,34.41,7.96,50.04,39.34,0,0,0,0,0,0,0,0,0,0,0,0,0,0,0,0,
425,-0.6301,-5.024,-15.49,-39.08,-12.22,-43.26,-52.73,-38.05,9.102,-38.44,-10.36,-18.69,-8.442,-27.85,25.98,11.47,0,0,0,0,0,0,0,0,0,0,0,0,0,0,0,0,
426,2.777,-3.267,8.901,-22.98,8.902,-20.94,-15.11,0.4462,-5.01,-40.05,9.164,22.75,26.24,8.094,1.549,-3.898,0,0,0,0,0,0,0,0,0,0,0,0,0,0,0,0,
427,33.98,31.28,28.49,-0.4192,39.95,4.085,-10.06,24.92,49.55,3.024,20.71,40.26,39.62,22.21,3.541,9.883,0,0,0,0,0,0,0,0,0,0,0,0,0,0,0,0,
428,-8.784,-14.28,-29.42,-46.5,-18.97,-39.28,-84.92,-11.69,26.04,-11.95,-27.04,5.832,-7.05,-13.92,-6.682,6.728,0,0,0,0,0,0,0,0,0,0,0,0,0,0,0,0,
429,-37.3,-42.43,-61.21,-56.9,-49.25,-55.69,-68.72,-8.147,-9.869,-41.24,-34.79,9.496,-4.567,-4.591,-22.81,-6.178,0,0,0,0,0,0,0,0,0,0,0,0,0,0,0,0,
430,11.07,8.598,-8.091,-12.87,9.814,-10.34,-11.92,22.31,34.0,-11.65,9.254,32.74,35.78,30.49,-12.83,3.203,0,0,0,0,0,0,0,0,0,0,0,0,0,0,0,0,
431,43.34,27.83,9.972,-16.83,41.54,5.611,-33.73,-7.092,63.31,14.02,25.54,17.92,35.77,23.85,6.217,17.15,0,0,0,0,0,0,0,0,0,0,0,0,0,0,0,0,
432,21.39,0.3273,-32.35,-51.49,10.47,-22.17,-66.96,-40.79,43.19,-6.914,9.989,-1.391,15.9,3.238,5.722,12.68,0,0,0,0,0,0,0,0,0,0,0,0,0,0,0,0,
433,-8.268,-12.51,-42.26,-60.17,-19.17,-38.99,-72.1,-25.81,25.8,-33.1,1.296,5.719,14.3,1.725,-7.061,2.698,0,0,0,0,0,0,0,0,0,0,0,0,0,0,0,0,
434,3.252,10.11,0.3802,-34.01,6.745,-9.514,-32.23,2.607,36.46,-23.67,37.77,31.72,53.32,32.93,4.266,16.53,0,0,0,0,0,0,0,0,0,0,0,0,0,0,0,0,
435,65.71,62.42,56.22,6.423,67.1,36.96,45.12,15.64,91.21,22.59,79.47,37.53,91.05,58.74,42.45,46.94,0,0,0,0,0,0,0,0,0,0,0,0,0,0,0,0,
436,73.83,56.23,57.76,-17.28,55.44,10.53,40.4,-4.987,111.2,29.1,39.18,3.632,53.12,22.41,49.18,43.51,0,0,0,0,0,0,0,0,0,0,0,0,0,0,0,0,
437,12.46,0.7898,25.24,-55.86,16.09,-30.53,4.488,-10.41,60.23,-14.98,21.64,17.47,44.46,24.85,31.97,26.57,0,0,0,0,0,0,0,0,0,0,0,0,0,0,0,0,
438,65.89,63.14,88.5,24.05,98.19,52.34,84.63,54.73,94.6,25.25,131.4,104.6,151.2,127.6,80.13,78.35,0,0,0,0,0,0,0,0,0,0,0,0,0,0,0,0,
439,179.2,164.6,162.1,96.34,177.7,130.6,134.1,91.68,199.2,121.2,184.0,129.0,192.0,156.4,163.0,157.5,0,0,0,0,0,0,0,0,0,0,0,0,0,0,0,0,
440,109.0,106.1,70.77,24.46,94.54,54.09,23.35,32.42,169.8,97.23,90.98,59.77,98.39,67.05,157.9,147.5,0,0,0,0,0,0,0,0,0,0,0,0,0,0,0,0,
441,-13.0,17.88,-34.14,-31.15,9.098,-18.9,-54.21,-16.8,71.27,17.92,38.59,21.47,52.6,31.13,82.05,70.99,0,0,0,0,0,0,0,0,0,0,0,0,0,0,0,0,
442,35.36,49.82,1.837,13.74,36.59,15.86,5.775,0.1302,71.88,25.77,75.23,45.96,89.68,64.35,46.95,33.01,0,0,0,0,0,0,0,0,0,0,0,0,0,0,0,0,
443,103.6,93.35,44.83,40.26,57.73,35.44,56.83,23.36,104.6,48.26,88.49,55.06,94.5,60.49,63.81,43.5,0,0,0,0,0,0,0,0,0,0,0,0,0,0,0,0,
444,54.9,68.55,17.83,12.83,19.79,-5.67,26.15,12.53,80.98,11.88,55.13,15.6,46.62,12.24,60.81,38.87,0,0,0,0,0,0,0,0,0,0,0,0,0,0,0,0,
445,-2.137,12.51,-12.73,-23.15,-23.51,-42.92,-18.1,-15.35,28.4,-37.35,14.21,-18.74,1.236,-26.22,15.03,0.8724,0,0,0,0,0,0,0,0,0,0,0,0,0,0,0,0,
446,13.36,0.9615,-2.957,-21.23,-23.84,-34.91,-16.17,-6.305,0.6046,-51.57,17.94,3.807,12.67,-8.73,-14.71,-18.98,0,0,0,0,0,0,0,0,0,0,0,0,0,0,0,0,
447,62.41,53.77,39.46,23.87,17.02,-0.0789,26.14,32.71,33.56,-17.84,56.63,33.16,48.71,27.08,5.646,2.913,0,0,0,0,0,0,0,0,0,0,0,0,0,0,0,0,
448,58.67,51.38,27.09,21.49,9.411,-13.85,27.29,18.7,53.83,-0.7744,24.32,3.808,12.9,-5.423,13.29,7.457,0,0,0,0,0,0,0,0,0,0,0,0,0,0,0,0,
449,-5.976,-15.65,-49.15,-32.32,-54.04,-67.01,-42.14,-26.46,-8.789,-48.12,-45.99,-24.2,-40.56,-45.52,-24.5,-27.74,0,0,0,0,0,0,0,0,0,0,0,0,0,0,0,0,
450,-18.64,-8.122,-43.03,-11.14,-38.2,-48.49,-52.62,-2.445,-35.99,-55.69,-5.986,20.5,13.23,12.46,-27.74,-26.78,0,0,0,0,0,0,0,0,0,0,0,0,0,0,0,0,
451,49.31,51.3,51.11,69.77,53.78,32.92,36.23,55.38,44.62,26.54,78.2,68.4,93.69,80.01,35.15,34.68,0,0,0,0,0,0,0,0,0,0,0,0,0,0,0,0,
452,81.62,61.56,76.1,71.5,66.09,50.4,54.26,46.0,91.0,63.55,47.48,35.55,63.93,43.98,67.47,65.96,0,0,0,0,0,0,0,0,0,0,0,0,0,0,0,0,
453,30.12,27.99,16.35,11.18,-8.248,-5.495,-34.52,-2.063,29.08,0.2344,-39.23,-20.68,-12.05,-21.23,12.34,16.3,0,0,0,0,0,0,0,0,0,0,0,0,0,0,0,0,
454,5.578,21.62,-1.726,33.94,-26.45,-8.843,-69.65,-4.154,-27.43,-39.15,-49.24,-8.595,-14.31,-11.88,-52.81,-41.15,0,0,0,0,0,0,0,0,0,0,0,0,0,0,0,0,
455,97.03,127.2,61.08,142.0,47.97,76.56,-16.87,35.82,0.8714,10.81,12.87,48.44,44.88,46.21,-38.06,-25.85,0,0,0,0,0,0,0,0,0,0,0,0,0,0,0,0,
456,215.3,270.4,121.3,199.3,112.6,140.2,37.58,70.89,65.88,70.28,66.19,71.92,84.05,72.8,34.09,36.29,0,0,0,0,0,0,0,0,0,0,0,0,0,0,0,0,
457,264.7,313.9,137.5,193.4,115.3,133.0,44.66,71.79,89.73,69.77,53.44,42.56,58.14,38.46,65.47,58.99,0,0,0,0,0,0,0,0,0,0,0,0,0,0,0,0,
458,307.6,367.2,152.0,226.0,111.6,134.9,12.01,46.4,52.32,34.75,13.76,15.67,13.58,-0.3216,27.79,23.09,0,0,0,0,0,0,0,0,0,0,0,0,0,0,0,0,
459,415.2,529.5,190.3,313.1,152.2,199.1,31.07,65.69,28.96,34.39,39.89,44.96,36.63,27.02,0.9533,-1.971,0,0,0,0,0,0,0,0,0,0,0,0,0,0,0,0,
460,550.7,651.6,252.9,393.6,217.6,277.0,102.9,119.2,80.0,82.63,95.56,78.26,90.82,73.3,29.24,22.98,0,0,0,0,0,0,0,0,0,0,0,0,0,0,0,0,
461,612.2,655.2,298.3,415.2,252.0,298.4,85.86,99.44,117.8,105.4,81.31,56.26,81.2,61.2,55.39,50.29,0,0,0,0,0,0,0,0,0,0,0,0,0,0,0,0,
462,562.9,629.4,281.2,394.2,246.1,284.2,35.08,71.16,83.94,86.79,49.75,50.47,57.08,47.93,46.29,45.83,0,0,0,0,0,0,0,0,0,0,0,0,0,0,0,0,
463,513.6,616.5,267.7,397.5,241.9,295.9,87.64,117.7,74.12,100.4,69.09,75.61,76.69,70.31,38.54,36.71,0,0,0,0,0,0,0,0,0,0,0,0,0,0,0,0,
464,499.4,574.3,280.5,397.1,228.1,299.0,128.7,104.6,97.7,118.8,70.48,41.45,70.47,52.22,40.48,31.86,0,0,0,0,0,0,0,0,0,0,0,0,0,0,0,0,
465,422.8,481.2,234.4,344.4,179.1,260.1,74.78,55.84,76.6,86.06,31.86,-1.44,32.17,13.66,26.45,14.54,0,0,0,0,0,0,0,0,0,0,0,0,0,0,0,0,
466,329.0,405.5,174.0,310.7,146.9,237.0,23.38,126.4,55.58,76.79,16.51,22.96,26.3,26.87,3.82,0.3619,0,0,0,0,0,0,0,0,0,0,0,0,0,0,0,0,
467,295.5,375.6,163.6,302.3,143.6,228.4,8.137,150.2,66.54,109.1,21.08,38.46,32.47,42.87,-2.488,7.544,0,0,0,0,0,0,0,0,0,0,0,0,0,0,0,0,
468,247.7,306.2,125.3,238.8,108.3,178.8,11.56,10.82,53.01,99.6,17.0,20.09,25.45,23.61,9.591,18.92,0,0,0,0,0,0,0,0,0,0,0,0,0,0,0,0,
469,175.0,203.4,65.09,166.6,60.52,120.0,13.94,-48.17,26.01,63.56,12.14,19.28,24.22,9.514,21.77,17.14,0,0,0,0,0,0,0,0,0,0,0,0,0,0,0,0,
470,139.9,158.2,56.21,154.4,59.44,109.3,6.293,46.25,19.24,58.57,18.27,30.11,32.46,17.75,22.24,11.35,0,0,0,0,0,0,0,0,0,0,0,0,0,0,0,0,
471,128.6,151.9,69.7,161.3,87.38,135.9,38.66,106.4,36.46,78.31,49.15,48.99,56.94,40.85,27.24,19.59,0,0,0,0,0,0,0,0,0,0,0,0,0,0,0,0,
472,118.0,128.7,69.62,148.9,101.2,143.6,54.54,79.91,74.94,95.37,65.72,54.28,65.37,39.76,39.4,29.71,0,0,0,0,0,0,0,0,0,0,0,0,0,0,0,0,
473,80.8,78.38,34.42,103.2,74.27,95.9,-27.1,26.95,66.43,68.05,9.504,7.211,11.27,-13.77,18.89,4.069,0,0,0,0,0,0,0,0,0,0,0,0,0,0,0,0,
474,19.07,21.4,-17.52,50.49,27.97,52.74,-59.95,8.097,1.015,14.04,-39.03,-23.99,-25.45,-41.77,-27.44,-40.16,0,0,0,0,0,0,0,0,0,0,0,0,0,0,0,0,
475,25.91,27.95,20.95,71.25,43.01,88.34,43.45,59.17,2.362,25.16,13.81,13.37,27.71,4.475,-25.94,-35.51,0,0,0,0,0,0,0,0,0,0,0,0,0,0,0,0,
476,83.66,69.81,106.5,117.6,94.43,126.3,104.2,89.78,67.31,79.34,60.98,33.26,62.79,30.4,20.05,9.024,0,0,0,0,0,0,0,0,0,0,0,0,0,0,0,0,
477,54.88,14.88,68.37,60.8,59.93,68.95,35.86,30.73,59.35,68.58,6.471,-2.558,7.933,-13.53,21.15,14.64,0,0,0,0,0,0,0,0,0,0,0,0,0,0,0,0,
478,-29.59,-87.59,-21.18,-31.42,-17.81,-4.626,-17.0,-11.14,-4.574,14.13,-37.94,-15.23,-32.04,-44.37,-26.67,-21.51,0,0,0,0,0,0,0,0,0,0,0,0,0,0,0,0,
479,-47.23,-101.5,-6.277,-34.94,-17.22,-6.543,24.87,14.58,-18.49,-1.208,-1.427,15.45,-5.864,-22.81,-42.72,-32.71,0,0,0,0,0,0,0,0,0,0,0,0,0,0,0,0,
480,-29.31,-80.31,26.43,-10.78,14.42,6.425,60.15,17.64,2.589,12.25,29.69,27.92,12.77,-4.987,-16.0,-8.428,0,0,0,0,0,0,0,0,0,0,0,0,0,0,0,0,
481,-44.59,-98.07,-1.083,-23.86,7.362,-2.699,39.99,4.012,9.575,16.16,32.72,16.01,10.2,-11.12,6.105,11.96,0,0,0,0,0,0,0,0,0,0,0,0,0,0,0,0,
482,-66.21,-117.1,-13.89,-39.47,-9.845,-5.587,36.71,33.52,13.23,8.954,44.23,11.51,17.91,-17.11,14.59,14.97,0,0,0,0,0,0,0,0,0,0,0,0,0,0,0,0,
483,-78.87,-136.7,-22.17,-60.66,-36.2,-22.12,35.26,44.8,9.188,-5.634,26.85,-2.439,6.209,-31.17,13.2,3.455,0,0,0,0,0,0,0,0,0,0,0,0,0,0,0,0,
484,-109.5,-174.6,-60.68,-94.61,-72.71,-59.9,-11.56,11.32,-18.01,-19.83,-19.26,-24.54,-26.88,-52.72,-7.65,-20.65,0,0,0,0,0,0,0,0,0,0,0,0,0,0,0,0,
485,-144.4,-199.6,-71.75,-105.5,-83.59,-75.07,-40.16,-0.554,-40.85,-23.32,-34.7,-23.06,-38.11,-59.79,-34.92,-41.4,0,0,0,0,0,0,0,0,0,0,0,0,0,0,0,0,
486,-155.0,-205.9,-66.97,-98.3,-83.48,-69.49,-39.26,-14.42,-43.41,-23.71,-34.91,-26.28,-42.38,-69.28,-51.28,-50.51,0,0,0,0,0,0,0,0,0,0,0,0,0,0,0,0,
487,-161.5,-220.4,-90.63,-106.8,-100.2,-79.37,-60.97,-54.22,-51.31,-32.3,-52.2,-52.78,-62.56,-90.07,-63.43,-60.74,0,0,0,0,0,0,0,0,0,0,0,0,0,0,0,0,
488,-188.3,-252.9,-113.6,-136.4,-120.6,-106.4,-78.98,-47.21,-74.19,-46.4,-65.61,-57.16,-76.52,-95.34,-75.94,-75.36,0,0,0,0,0,0,0,0,0,0,0,0,0,0,0,0,
489,-205.5,-271.1,-125.9,-155.2,-126.8,-120.6,-62.08,-7.356,-88.9,-56.81,-58.16,-32.98,-70.12,-81.84,-75.28,-77.45,0,0,0,0,0,0,0,0,0,0,0,0,0,0,0,0,
490,-175.5,-232.3,-101.0,-124.5,-95.45,-93.3,-13.05,-2.596,-69.32,-51.24,-20.06,-8.596,-35.29,-52.54,-45.52,-50.85,0,0,0,0,0,0,0,0,0,0,0,0,0,0,0,0,
491,-121.2,-173.0,-15.48,-82.03,-37.41,-48.87,43.08,-8.785,-21.73,-25.67,26.02,5.24,7.761,-17.97,1.06,-7.534,0,0,0,0,0,0,0,0,0,0,0,0,0,0,0,0,
492,-98.06,-165.9,24.39,-96.54,-18.56,-43.99,46.5,-6.553,4.142,-12.09,21.0,-8.162,1.958,-22.71,19.04,11.31,0,0,0,0,0,0,0,0,0,0,0,0,0,0,0,0,
493,-119.8,-198.1,-26.43,-139.7,-51.9,-78.5,1.687,-22.01,-17.82,-39.55,-27.67,-43.58,-46.13,-65.53,-15.64,-16.79,0,0,0,0,0,0,0,0,0,0,0,0,0,0,0,0,
494,-162.4,-239.7,-78.31,-167.9,-97.29,-120.6,-50.18,-66.01,-60.94,-77.26,-73.66,-72.24,-87.53,-100.0,-77.93,-71.48,0,0,0,0,0,0,0,0,0,0,0,0,0,0,0,0,
495,-207.1,-291.0,-124.3,-187.0,-134.7,-149.3,-94.26,-100.5,-100.3,-94.9,-97.71,-77.76,-103.8,-107.6,-122.5,-113.5,0,0,0,0,0,0,0,0,0,0,0,0,0,0,0,0,
496,-212.8,-283.3,-142.1,-159.8,-121.2,-120.8,-68.0,-56.15,-100.8,-89.3,-68.53,-48.39,-73.05,-78.87,-109.4,-106.4,0,0,0,0,0,0,0,0,0,0,0,0,0,0,0,0,
497,-159.8,-201.9,-74.9,-97.22,-64.72,-57.03,-0.8041,2.919,-51.82,-51.21,-23.97,-22.03,-32.22,-49.61,-56.02,-62.71,0,0,0,0,0,0,0,0,0,0,0,0,0,0,0,0,
498,-145.4,-192.6,-53.43,-110.0,-77.0,-65.57,-34.56,-32.68,-43.92,-32.77,-55.98,-45.61,-60.14,-77.24,-37.88,-47.88,0,0,0,0,0,0,0,0,0,0,0,0,0,0,0,0,
499,-209.9,-266.0,-129.7,-167.7,-137.7,-117.2,-104.0,-52.7,-104.5,-73.73,-101.8,-60.09,-97.17,-101.8,-67.91,-71.81,0,0,0,0,0,0,0,0,0,0,0,0,0,0,0,0,
500,-219.5,-258.4,-131.4,-144.6,-120.6,-92.56,-70.62,9.286,-115.5,-76.32,-64.93,-26.6,-63.26,-65.99,-78.42,-75.17,0,0,0,0,0,0,0,0,0,0,0,0,0,0,0,0,
501,-161.7,-203.1,-77.96,-103.9,-79.24,-49.69,-29.74,10.35,-64.99,-21.82,-23.83,-11.97,-32.54,-46.48,-51.41,-48.46,0,0,0,0,0,0,0,0,0,0,0,0,0,0,0,0,
502,-171.3,-225.4,-96.97,-132.5,-96.11,-73.94,-40.23,-33.54,-52.47,-25.94,-33.86,-19.39,-44.71,-61.25,-27.93,-29.73,0,0,0,0,0,0,0,0,0,0,0,0,0,0,0,0,
503,-203.2,-242.2,-102.9,-145.4,-99.51,-89.36,-12.1,-15.83,-62.77,-58.52,-32.35,-7.598,-40.75,-49.07,-22.21,-24.14,0,0,0,0,0,0,0,0,0,0,0,0,0,0,0,0,
504,-166.2,-203.5,-62.91,-120.1,-78.42,-73.74,3.152,-7.735,-49.7,-39.56,-23.6,-15.91,-34.93,-42.46,-28.43,-27.3,0,0,0,0,0,0,0,0,0,0,0,0,0,0,0,0,
505,-158.2,-220.7,-75.96,-138.7,-97.26,-98.9,-59.51,-38.63,-54.32,-39.96,-51.91,-53.67,-65.12,-77.24,-50.5,-50.57,0,0,0,0,0,0,0,0,0,0,0,0,0,0,0,0,
506,-202.9,-268.0,-98.29,-161.1,-114.3,-122.8,-71.68,-37.68,-83.7,-76.1,-74.27,-53.82,-79.39,-90.24,-76.65,-79.35,0,0,0,0,0,0,0,0,0,0,0,0,0,0,0,0,
507,-170.9,-226.5,-54.74,-116.5,-73.66,-74.84,2.615,-9.901,-76.28,-53.76,-46.79,-13.82,-43.39,-53.3,-77.26,-78.4,0,0,0,0,0,0,0,0,0,0,0,0,0,0,0,0,
508,-94.62,-166.0,-19.21,-82.15,-36.03,-31.25,10.74,1.915,-31.63,5.373,-26.94,-10.72,-26.81,-39.13,-58.71,-56.56,0,0,0,0,0,0,0,0,0,0,0,0,0,0,0,0,
509,-110.4,-189.0,-49.9,-120.7,-63.22,-67.59,-48.66,-32.83,-26.25,-3.863,-58.41,-53.7,-63.84,-77.37,-61.81,-57.71,0,0,0,0,0,0,0,0,0,0,0,0,0,0,0,0,
510,-158.2,-207.2,-77.88,-144.1,-92.47,-101.5,-34.57,-69.96,-53.08,-57.04,-66.82,-52.75,-71.06,-83.97,-77.62,-72.65,0,0,0,0,0,0,0,0,0,0,0,0,0,0,0,0,
511,-136.4,-168.9,-66.16,-114.8,-72.46,-75.95,7.06,-20.36,-33.58,-52.81,-31.17,-3.533,-35.17,-42.14,-66.25,-60.26,0,0,0,0,0,0,0,0,0,0,0,0,0,0,0,0,
512,-129.3,-182.0,-77.09,-124.4,-76.6,-75.53,-32.51,27.08,-11.71,-19.91,-41.15,-6.834,-43.29,-43.39,-50.62,-42.35,0,0,0,0,0,0,0,0,0,0,0,0,0,0,0,0,
513,-169.2,-230.3,-98.72,-158.0,-107.2,-103.7,-57.45,-31.71,-45.27,-32.98,-67.67,-33.98,-62.69,-62.73,-57.35,-46.67,0,0,0,0,0,0,0,0,0,0,0,0,0,0,0,0,
514,-147.6,-195.5,-68.8,-121.8,-73.22,-72.34,-5.956,-58.56,-45.71,-35.22,-25.83,-0.3109,-24.96,-26.6,-50.53,-39.28,0,0,0,0,0,0,0,0,0,0,0,0,0,0,0,0,
515,-98.31,-145.1,-47.19,-83.88,-28.8,-36.4,3.305,-1.067,4.646,-0.0347,8.483,12.51,-5.408,-14.57,-25.84,-17.81,0,0,0,0,0,0,0,0,0,0,0,0,0,0,0,0,
516,-128.0,-178.4,-75.3,-122.7,-62.33,-72.25,-39.01,-13.5,2.145,-17.34,-23.63,-38.21,-40.47,-62.16,-25.39,-24.65,0,0,0,0,0,0,0,0,0,0,0,0,0,0,0,0,
517,-160.6,-207.7,-71.64,-142.9,-88.06,-94.83,-19.76,-65.41,-32.44,-61.71,-33.65,-37.34,-44.46,-61.43,-38.7,-42.28,0,0,0,0,0,0,0,0,0,0,0,0,0,0,0,0,
518,-117.2,-163.6,-23.22,-95.67,-42.5,-55.37,44.36,-26.96,-14.05,-32.89,2.859,7.534,-10.52,-17.12,-29.48,-30.75,0,0,0,0,0,0,0,0,0,0,0,0,0,0,0,0,
519,-90.8,-130.9,-18.93,-78.63,-21.14,-39.53,53.76,16.44,8.42,2.346,1.494,-11.26,-17.47,-31.45,-17.52,-18.46,0,0,0,0,0,0,0,0,0,0,0,0,0,0,0,0,
520,-124.4,-157.2,-73.29,-110.5,-56.41,-63.89,19.04,-3.349,-25.73,-37.15,-37.31,-46.13,-52.88,-70.58,-31.97,-36.89,0,0,0,0,0,0,0,0,0,0,0,0,0,0,0,0,
521,-123.6,-162.1,-90.28,-105.9,-54.14,-54.38,21.63,-5.656,-43.28,-57.21,-34.44,-25.64,-43.75,-55.86,-48.4,-53.51,0,0,0,0,0,0,0,0,0,0,0,0,0,0,0,0,
522,-91.26,-127.5,-47.06,-80.05,-27.59,-33.17,32.51,-10.34,-4.639,-18.22,-17.05,-17.66,-25.42,-41.0,-46.76,-48.8,0,0,0,0,0,0,0,0,0,0,0,0,0,0,0,0,
523,-113.9,-134.6,-38.09,-96.51,-57.9,-58.43,-8.52,-53.34,-0.5888,-24.15,-42.61,-45.31,-51.47,-66.08,-48.95,-50.89,0,0,0,0,0,0,0,0,0,0,0,0,0,0,0,0,
524,-128.5,-148.1,-47.04,-98.77,-65.39,-61.97,-7.534,-41.33,-26.93,-54.75,-29.1,-28.55,-38.93,-49.96,-46.08,-51.14,0,0,0,0,0,0,0,0,0,0,0,0,0,0,0,0,
525,-66.07,-94.73,0.0718,-57.32,1.607,-11.67,71.62,21.28,16.54,-11.34,43.29,15.23,28.42,3.334,-10.42,-20.63,0,0,0,0,0,0,0,0,0,0,0,0,0,0,0,0,
526,-36.58,-70.38,15.14,-64.0,6.563,-10.91,78.68,26.42,63.27,27.39,35.38,-3.817,19.59,-13.48,14.74,-0.8854,0,0,0,0,0,0,0,0,0,0,0,0,0,0,0,0,
527,-93.77,-135.5,-59.81,-127.4,-75.32,-70.5,-7.988,-17.95,6.672,-27.1,-45.52,-54.15,-51.95,-70.58,-16.73,-33.32,0,0,0,0,0,0,0,0,0,0,0,0,0,0,0,0,
528,-136.4,-177.6,-122.1,-157.5,-110.4,-94.14,-50.75,-41.53,-61.92,-77.53,-55.17,-48.83,-55.13,-63.97,-54.13,-66.71,0,0,0,0,0,0,0,0,0,0,0,0,0,0,0,0,
529,-116.2,-142.8,-106.4,-133.1,-77.42,-68.15,-11.74,-20.0,-42.7,-48.38,4.784,-4.387,-0.3472,-14.65,-33.32,-43.67,0,0,0,0,0,0,0,0,0,0,0,0,0,0,0,0,
530,-79.43,-104.4,-47.71,-102.3,-46.95,-42.12,40.36,15.37,7.082,-6.437,42.17,14.39,31.3,8.165,23.07,10.07,0,0,0,0,0,0,0,0,0,0,0,0,0,0,0,0,
531,-76.43,-112.9,-28.72,-110.1,-54.31,-50.09,28.25,3.615,12.58,-10.94,25.65,-1.233,18.8,-6.062,46.19,33.15,0,0,0,0,0,0,0,0,0,0,0,0,0,0,0,0,
532,-104.4,-138.6,-70.74,-135.7,-83.87,-80.21,-25.53,-32.94,-16.8,-37.02,-11.13,-13.89,-9.436,-24.21,17.82,11.72,0,0,0,0,0,0,0,0,0,0,0,0,0,0,0,0,
533,-112.9,-139.8,-79.19,-126.5,-80.01,-84.27,-8.847,-31.55,-30.2,-36.67,-12.23,-7.985,-10.99,-20.92,-11.72,-12.98,0,0,0,0,0,0,0,0,0,0,0,0,0,0,0,0,
534,-102.4,-135.8,-49.71,-115.5,-54.87,-76.35,41.98,-23.03,-19.22,-23.45,2.914,-11.13,-6.301,-25.09,-13.33,-18.09,0,0,0,0,0,0,0,0,0,0,0,0,0,0,0,0,
535,-111.5,-147.3,-63.89,-132.4,-70.41,-92.52,14.95,-30.5,-23.78,-43.21,-14.32,-25.41,-28.19,-44.11,-12.4,-20.98,0,0,0,0,0,0,0,0,0,0,0,0,0,0,0,0,
536,-126.2,-146.8,-84.18,-126.8,-93.65,-101.3,-28.38,-28.79,-42.21,-63.44,-31.64,-31.0,-41.82,-43.16,-20.37,-26.99,0,0,0,0,0,0,0,0,0,0,0,0,0,0,0,0,
537,-146.5,-159.0,-92.92,-126.4,-103.0,-116.1,-36.79,-48.17,-57.7,-60.5,-49.78,-56.43,-61.09,-62.5,-39.85,-43.43,0,0,0,0,0,0,0,0,0,0,0,0,0,0,0,0,
538,-186.8,-213.4,-129.1,-175.0,-136.3,-166.4,-68.73,-74.08,-94.82,-97.18,-95.04,-90.81,-109.2,-115.1,-81.51,-84.3,0,0,0,0,0,0,0,0,0,0,0,0,0,0,0,0,
539,-175.7,-212.7,-99.28,-170.4,-123.2,-157.0,-72.85,-23.15,-111.4,-132.1,-78.08,-59.01,-91.05,-94.65,-98.4,-101.9,0,0,0,0,0,0,0,0,0,0,0,0,0,0,0,0,
540,-82.1,-109.1,17.85,-76.34,-23.54,-57.31,10.25,45.34,-42.31,-65.88,19.65,2.579,2.216,-11.54,-41.89,-49.53,0,0,0,0,0,0,0,0,0,0,0,0,0,0,0,0,
541,-15.37,-35.83,52.45,-24.87,32.66,-1.922,74.84,19.72,29.4,9.282,54.03,0.9402,31.88,4.245,23.21,9.404,0,0,0,0,0,0,0,0,0,0,0,0,0,0,0,0,
542,-34.13,-61.69,-12.0,-53.98,2.376,-26.86,47.11,-24.68,22.73,-7.592,6.389,-25.76,-7.784,-30.55,19.75,3.343,0,0,0,0,0,0,0,0,0,0,0,0,0,0,0,0,
543,-72.87,-99.91,-37.58,-81.81,-24.38,-46.2,-7.707,-8.098,1.776,-33.31,-17.17,-24.68,-24.2,-35.45,-21.69,-37.5,0,0,0,0,0,0,0,0,0,0,0,0,0,0,0,0,
544,-88.6,-106.2,-29.51,-86.63,-33.5,-49.78,-31.19,-4.026,-5.652,-27.4,-19.64,-27.11,-29.79,-31.95,-48.6,-62.33,0,0,0,0,0,0,0,0,0,0,0,0,0,0,0,0,
545,-79.94,-95.17,-37.01,-73.72,-34.65,-44.01,-23.69,-17.68,-26.04,-34.73,-19.6,-20.6,-29.29,-23.31,-48.74,-57.11,0,0,0,0,0,0,0,0,0,0,0,0,0,0,0,0,
546,-45.81,-60.48,-20.7,-35.57,-3.952,-2.857,3.678,12.77,-13.73,-24.47,18.83,14.71,13.52,11.81,-16.11,-22.29,0,0,0,0,0,0,0,0,0,0,0,0,0,0,0,0,
547,-25.1,-31.31,-1.557,-16.67,16.12,24.24,23.44,30.5,30.1,11.38,37.18,16.01,34.03,18.28,18.87,6.715,0,0,0,0,0,0,0,0,0,0,0,0,0,0,0,0,
548,-54.07,-50.98,-32.28,-46.22,-17.64,-5.279,-1.699,1.128,19.13,7.326,-12.08,-20.65,-7.023,-14.64,6.331,-8.927,0,0,0,0,0,0,0,0,0,0,0,0,0,0,0,0,
549,-82.78,-79.77,-52.23,-68.66,-44.84,-26.68,-33.04,0.0587,-27.37,-19.03,-29.27,-18.23,-17.16,-12.53,-24.45,-35.58,0,0,0,0,0,0,0,0,0,0,0,0,0,0,0,0,
550,-50.47,-59.11,-8.512,-46.75,-14.0,-7.055,7.297,30.01,-15.62,-5.879,16.93,10.87,20.88,16.54,-15.48,-25.82,0,0,0,0,0,0,0,0,0,0,0,0,0,0,0,0,
551,-1.792,-17.71,31.7,-18.55,18.48,5.509,64.42,29.47,29.05,14.66,33.19,9.896,25.15,13.46,11.81,-1.309,0,0,0,0,0,0,0,0,0,0,0,0,0,0,0,0,
552,-9.644,-13.65,17.7,-18.39,5.217,-3.013,44.72,6.728,26.59,-1.728,17.57,-0.2444,1.199,-3.396,15.72,3.567,0,0,0,0,0,0,0,0,0,0,0,0,0,0,0,0,
553,-50.77,-44.79,-11.14,-39.95,-14.99,-19.77,13.77,-4.043,-5.524,-27.21,17.96,1.378,-6.759,-9.365,4.897,-4.667,0,0,0,0,0,0,0,0,0,0,0,0,0,0,0,0,
554,-75.36,-76.06,-23.09,-62.26,-21.7,-44.63,30.05,-12.09,-18.36,-38.47,15.61,-7.886,-9.366,-17.72,-0.844,-10.63,0,0,0,0,0,0,0,0,0,0,0,0,0,0,0,0,
555,-84.8,-86.24,-27.4,-69.48,-32.35,-59.13,28.4,-30.03,-19.34,-44.82,11.44,-25.04,-9.381,-23.71,3.872,-9.658,0,0,0,0,0,0,0,0,0,0,0,0,0,0,0,0,
556,-73.01,-74.42,-17.74,-62.1,-31.59,-52.64,20.91,-30.02,-23.06,-43.05,32.76,-21.52,7.17,-15.58,19.95,0.4295,0,0,0,0,0,0,0,0,0,0,0,0,0,0,0,0,
557,-36.8,-54.8,18.87,-44.9,-14.86,-40.37,58.12,-2.041,-16.26,-22.8,66.44,-2.473,32.04,-1.206,43.31,16.92,0,0,0,0,0,0,0,0,0,0,0,0,0,0,0,0,
558,-27.67,-44.94,38.21,-30.26,-18.66,-40.76,56.97,-4.605,-2.034,-5.007,63.88,-16.24,26.16,-14.6,51.54,18.03,0,0,0,0,0,0,0,0,0,0,0,0,0,0,0,0,
559,-72.07,-63.79,-7.082,-43.41,-55.35,-72.12,-12.92,-50.48,-22.99,-34.22,-5.181,-68.41,-32.07,-68.12,12.58,-21.56,0,0,0,0,0,0,0,0,0,0,0,0,0,0,0,0,
560,-114.1,-98.69,-54.29,-62.82,-88.72,-104.6,-30.18,-55.47,-77.07,-89.1,-64.15,-87.24,-69.83,-91.58,-49.17,-73.05,0,0,0,0,0,0,0,0,0,0,0,0,0,0,0,0,
561,-103.3,-95.39,-28.2,-39.99,-79.47,-82.73,22.83,-4.849,-85.18,-86.45,-33.21,-50.49,-33.22,-49.38,-61.18,-74.47,0,0,0,0,0,0,0,0,0,0,0,0,0,0,0,0,
562,-66.97,-61.48,15.43,-9.796,-45.55,-44.12,38.78,6.086,-40.97,-39.2,-0.8992,-28.28,-9.134,-24.35,-27.89,-35.97,0,0,0,0,0,0,0,0,0,0,0,0,0,0,0,0,
563,-68.85,-68.95,2.636,-37.68,-49.43,-62.86,-5.599,-51.94,-32.08,-40.21,-44.46,-51.68,-51.25,-56.08,-23.39,-25.83,0,0,0,0,0,0,0,0,0,0,0,0,0,0,0,0,
564,-114.0,-107.7,-33.3,-86.11,-90.15,-107.1,-53.35,-86.92,-67.02,-86.17,-72.06,-64.22,-76.51,-74.69,-50.24,-49.88,0,0,0,0,0,0,0,0,0,0,0,0,0,0,0,0,
565,-118.7,-100.3,-22.45,-72.69,-83.0,-93.78,-44.38,-41.14,-71.0,-93.78,-29.53,-28.81,-38.25,-44.57,-47.47,-52.24,0,0,0,0,0,0,0,0,0,0,0,0,0,0,0,0,
566,-58.79,-58.94,24.43,-26.82,-21.34,-42.33,12.27,-3.577,-25.63,-49.32,0.063,-3.909,-7.822,-24.04,-13.68,-26.58,0,0,0,0,0,0,0,0,0,0,0,0,0,0,0,0,
567,-48.22,-69.34,19.08,-41.47,-13.71,-45.29,16.47,-45.1,0.5017,-30.37,-32.31,-34.56,-39.54,-53.74,-6.013,-24.05,0,0,0,0,0,0,0,0,0,0,0,0,0,0,0,0,
568,-97.52,-109.2,-29.38,-74.33,-53.9,-72.85,-21.06,-54.6,-29.82,-55.88,-58.69,-50.99,-69.38,-73.11,-34.72,-50.08,0,0,0,0,0,0,0,0,0,0,0,0,0,0,0,0,
569,-75.7,-80.55,-14.86,-34.34,-28.08,-29.47,-0.6607,21.71,-41.82,-36.82,-28.34,-18.18,-40.34,-40.23,-52.05,-58.5,0,0,0,0,0,0,0,0,0,0,0,0,0,0,0,0,
570,-15.84,-26.0,30.95,10.11,25.56,27.29,23.8,45.27,-2.075,27.15,0.4009,-6.01,-12.69,-14.75,-42.42,-42.91,0,0,0,0,0,0,0,0,0,0,0,0,0,0,0,0,
571,-15.31,-19.24,34.39,8.707,35.63,37.7,12.83,10.58,17.29,48.56,-2.17,-15.24,-11.92,-10.14,-31.44,-28.51,0,0,0,0,0,0,0,0,0,0,0,0,0,0,0,0,
572,-1.119,0.4029,55.33,33.27,64.68,66.12,42.26,43.48,22.11,52.02,10.41,0.1312,8.529,14.48,-27.16,-18.07,0,0,0,0,0,0,0,0,0,0,0,0,0,0,0,0,
573,36.31,26.41,87.89,50.48,97.38,85.63,55.48,80.73,49.82,69.08,18.37,1.791,16.18,23.29,-31.34,-18.42,0,0,0,0,0,0,0,0,0,0,0,0,0,0,0,0,
574,11.33,-2.458,62.14,17.46,71.76,54.2,14.56,54.52,48.16,55.86,-0.902,-14.71,-4.083,10.01,-42.21,-31.82,0,0,0,0,0,0,0,0,0,0,0,0,0,0,0,0,
575,-12.14,-5.257,38.9,26.76,63.39,62.39,51.06,67.42,31.94,52.43,13.84,6.576,21.09,38.89,-26.45,-21.98,0,0,0,0,0,0,0,0,0,0,0,0,0,0,0,0,
576,27.1,39.62,57.76,60.09,90.89,97.02,117.0,93.27,57.94,90.79,46.01,31.9,61.1,72.13,19.4,16.15,0,0,0,0,0,0,0,0,0,0,0,0,0,0,0,0,
577,53.36,35.86,54.38,29.03,72.67,70.24,63.96,39.18,62.58,92.7,29.36,22.56,40.62,50.48,44.18,34.47,0,0,0,0,0,0,0,0,0,0,0,0,0,0,0,0,
578,35.25,11.03,29.0,2.747,35.41,39.82,12.96,14.61,17.54,54.47,11.97,23.78,14.79,28.54,36.81,25.6,0,0,0,0,0,0,0,0,0,0,0,0,0,0,0,0,
579,3.121,9.415,10.92,8.969,18.21,29.14,45.34,50.31,-6.373,30.98,19.63,20.9,8.052,16.38,24.2,14.41,0,0,0,0,0,0,0,0,0,0,0,0,0,0,0,0,
580,-37.97,-25.12,-31.33,-32.07,-26.09,-26.27,14.8,8.197,-26.13,-7.163,-6.103,-18.52,-34.77,-29.32,0.5469,-7.605,0,0,0,0,0,0,0,0,0,0,0,0,0,0,0,0,
581,-70.52,-65.88,-79.44,-70.11,-73.65,-66.02,-36.56,-30.94,-74.82,-59.67,-26.62,-22.01,-61.2,-48.65,-24.01,-29.85,0,0,0,0,0,0,0,0,0,0,0,0,0,0,0,0,
582,-58.44,-43.17,-53.76,-31.99,-55.84,-29.02,11.5,54.85,-78.42,-52.91,11.24,17.85,-23.08,-10.62,-11.37,-15.71,0,0,0,0,0,0,0,0,0,0,0,0,0,0,0,0,
583,-24.97,-12.27,7.543,-2.497,-26.93,-10.77,24.84,85.37,-40.35,-9.389,21.27,5.15,-17.79,-10.37,11.83,5.289,0,0,0,0,0,0,0,0,0,0,0,0,0,0,0,0,
584,-45.49,-40.11,-11.51,-38.69,-65.97,-61.86,-31.21,-20.23,-58.93,-25.62,-38.95,-44.82,-77.08,-67.24,-14.5,-23.09,0,0,0,0,0,0,0,0,0,0,0,0,0,0,0,0,
585,-101.6,-82.07,-74.58,-72.87,-118.5,-105.7,-17.87,-78.69,-101.6,-83.44,-87.97,-63.63,-114.5,-102.7,-80.3,-82.88,0,0,0,0,0,0,0,0,0,0,0,0,0,0,0,0,
586,-107.0,-91.55,-87.99,-75.13,-123.0,-113.9,-8.229,-64.13,-97.31,-102.5,-106.2,-79.6,-123.5,-110.8,-136.2,-127.5,0,0,0,0,0,0,0,0,0,0,0,0,0,0,0,0,
587,-89.24,-89.51,-82.62,-70.04,-116.8,-114.8,-65.87,-47.44,-99.02,-94.94,-124.6,-97.78,-136.8,-116.2,-161.1,-145.2,0,0,0,0,0,0,0,0,0,0,0,0,0,0,0,0,
588,-91.52,-78.75,-76.98,-46.25,-106.4,-91.71,-55.19,-3.186,-112.0,-83.11,-112.5,-69.01,-118.9,-91.55,-151.1,-131.1,0,0,0,0,0,0,0,0,0,0,0,0,0,0,0,0,
589,-64.01,-45.48,-46.69,-11.33,-64.63,-46.53,-9.868,14.01,-71.43,-43.32,-65.31,-25.22,-69.29,-42.9,-110.3,-86.33,0,0,0,0,0,0,0,0,0,0,0,0,0,0,0,0,
590,-32.32,-28.97,-37.39,-14.46,-43.22,-35.32,-49.37,-15.8,-26.78,-8.975,-43.5,-22.58,-46.29,-22.74,-67.77,-45.41,0,0,0,0,0,0,0,0,0,0,0,0,0,0,0,0,
591,-57.66,-49.61,-58.86,-40.76,-68.8,-54.1,-72.84,2.982,-39.23,-14.36,-45.71,-22.51,-43.42,-19.7,-44.02,-30.23,0,0,0,0,0,0,0,0,0,0,0,0,0,0,0,0,
592,-68.41,-46.33,-50.02,-23.92,-64.44,-39.71,-3.526,29.54,-42.41,-6.488,-9.274,15.66,-3.924,16.91,-10.6,-8.91,0,0,0,0,0,0,0,0,0,0,0,0,0,0,0,0,
593,-29.96,-4.338,-27.95,15.23,-19.89,-5.309,48.88,3.354,-1.24,28.08,34.78,30.73,35.48,41.09,43.25,29.32,0,0,0,0,0,0,0,0,0,0,0,0,0,0,0,0,
594,-48.01,-13.48,-64.71,-7.749,-34.11,-23.2,10.31,-19.37,-2.588,15.02,-1.415,-18.62,-6.825,-11.85,54.33,28.25,0,0,0,0,0,0,0,0,0,0,0,0,0,0,0,0,
595,-111.9,-69.45,-116.9,-56.17,-86.46,-58.72,-52.1,-33.56,-65.13,-41.54,-54.51,-42.01,-57.93,-50.56,6.615,-15.76,0,0,0,0,0,0,0,0,0,0,0,0,0,0,0,0,
596,-77.61,-43.28,-64.55,-18.34,-48.08,-15.75,-33.05,-15.84,-68.32,-37.44,-11.6,11.77,-9.667,6.394,-10.52,-18.25,0,0,0,0,0,0,0,0,0,0,0,0,0,0,0,0,
597,23.17,42.58,45.15,55.0,35.2,56.94,42.95,57.51,6.957,30.93,44.61,42.11,46.77,50.34,28.82,28.18,0,0,0,0,0,0,0,0,0,0,0,0,0,0,0,0,
598,47.63,59.55,59.41,49.06,41.13,61.43,45.65,63.5,37.87,61.58,6.968,2.105,15.72,16.89,39.39,36.71,0,0,0,0,0,0,0,0,0,0,0,0,0,0,0,0,
599,19.47,38.94,12.53,15.92,25.65,40.44,-10.92,-16.12,14.46,44.07,-48.34,-27.87,-25.46,-7.344,-8.328,-7.15,0,0,0,0,0,0,0,0,0,0,0,0,0,0,0,0,
600,20.61,52.47,21.07,37.04,51.16,54.37,11.67,-28.52,11.77,38.87,-25.37,-2.011,-8.432,16.32,-41.56,-32.01,0,0,0,0,0,0,0,0,0,0,0,0,0,0,0,0,
601,59.0,86.68,74.48,84.32,81.23,89.39,119.5,44.8,38.05,65.71,65.57,61.02,56.71,68.96,2.594,9.448,0,0,0,0,0,0,0,0,0,0,0,0,0,0,0,0,
602,106.6,120.4,116.8,104.9,106.3,112.7,186.8,92.7,88.02,111.6,130.8,92.88,109.4,104.9,86.73,83.34,0,0,0,0,0,0,0,0,0,0,0,0,0,0,0,0,
603,71.9,89.13,89.32,57.3,79.63,68.17,133.1,53.47,101.6,103.5,83.97,28.38,67.46,53.0,105.2,98.41,0,0,0,0,0,0,0,0,0,0,0,0,0,0,0,0,
604,-42.52,-11.32,-4.583,-22.81,-15.82,-20.92,21.99,-31.23,18.02,9.632,13.67,-39.79,2.134,-15.4,45.88,39.81,0,0,0,0,0,0,0,0,0,0,0,0,0,0,0,0,
605,-75.43,-47.66,-41.2,-33.33,-49.69,-42.52,-7.875,-58.66,-42.05,-39.34,47.44,-7.554,35.47,11.11,19.46,9.281,0,0,0,0,0,0,0,0,0,0,0,0,0,0,0,0,
606,-26.12,-16.49,-3.413,0.1832,-4.439,-16.23,52.32,-15.79,-2.672,5.973,106.3,31.56,85.46,49.48,64.57,46.23,0,0,0,0,0,0,0,0,0,0,0,0,0,0,0,0,
607,-24.71,-30.47,-6.221,-10.71,-8.589,-30.43,79.83,17.74,11.23,20.33,93.68,10.9,62.6,28.87,102.0,77.58,0,0,0,0,0,0,0,0,0,0,0,0,0,0,0,0,
608,-49.44,-62.28,-41.85,-34.3,-49.55,-54.81,34.98,10.05,-32.03,-15.49,55.17,-4.383,27.75,10.93,86.25,63.6,0,0,0,0,0,0,0,0,0,0,0,0,0,0,0,0,
609,-50.58,-58.84,-41.61,-35.42,-50.73,-55.69,-1.099,-10.39,-55.01,-28.71,29.47,-7.952,11.19,3.601,40.32,26.09,0,0,0,0,0,0,0,0,0,0,0,0,0,0,0,0,
610,-40.59,-40.03,-13.89,-30.07,-18.03,-42.46,33.98,-2.74,-50.63,-18.29,30.35,-7.465,14.43,3.246,4.893,-4.374,0,0,0,0,0,0,0,0,0,0,0,0,0,0,0,0,
611,-1.669,0.8873,30.15,-6.047,32.55,-6.77,84.93,21.27,-14.88,12.84,56.08,14.11,45.51,25.87,6.057,-6.066,0,0,0,0,0,0,0,0,0,0,0,0,0,0,0,0,
612,25.23,26.35,52.99,4.969,47.57,5.387,56.11,12.51,20.0,35.32,38.6,3.021,37.03,10.56,12.75,-3.024,0,0,0,0,0,0,0,0,0,0,0,0,0,0,0,0,
613,-15.27,-13.1,13.85,-24.4,-0.1096,-27.56,1.676,2.204,-19.65,-1.393,-21.04,-35.03,-19.44,-36.86,-15.94,-29.53,0,0,0,0,0,0,0,0,0,0,0,0,0,0,0,0,
614,-32.6,-24.85,0.4701,-14.32,-3.822,-16.37,37.31,23.59,-59.51,-21.29,-25.11,-15.96,-22.37,-21.05,-46.98,-54.16,0,0,0,0,0,0,0,0,0,0,0,0,0,0,0,0,
615,28.68,35.31,56.62,37.57,59.1,37.85,96.36,35.21,-9.972,30.79,16.7,19.54,20.87,22.38,-40.47,-42.1,0,0,0,0,0,0,0,0,0,0,0,0,0,0,0,0,
616,51.36,47.9,57.33,27.89,67.65,34.92,74.84,42.43,31.85,49.52,15.59,-0.3112,20.76,10.75,-22.65,-21.59,0,0,0,0,0,0,0,0,0,0,0,0,0,0,0,0,
617,1.709,5.942,1.185,-17.18,26.11,-1.686,42.3,47.69,4.341,13.23,-7.443,-21.18,3.186,-7.237,-15.84,-13.93,0,0,0,0,0,0,0,0,0,0,0,0,0,0,0,0,
618,-13.61,-0.381,9.911,-24.12,14.62,-7.854,54.11,6.004,-16.02,11.1,7.024,-0.2806,24.49,16.1,-0.3458,2.195,0,0,0,0,0,0,0,0,0,0,0,0,0,0,0,0,
619,11.7,3.199,39.0,-21.81,17.37,-1.445,56.21,-25.98,-7.421,27.39,43.94,37.57,64.54,52.74,37.95,41.43,0,0,0,0,0,0,0,0,0,0,0,0,0,0,0,0,
620,31.68,14.12,40.54,-7.625,38.25,25.66,60.56,8.956,14.78,36.19,89.05,76.85,107.5,89.2,94.53,95.28,0,0,0,0,0,0,0,0,0,0,0,0,0,0,0,0,
621,57.57,53.82,70.65,21.39,81.1,59.98,82.73,30.25,53.69,64.4,115.2,82.05,124.9,98.7,137.9,130.3,0,0,0,0,0,0,0,0,0,0,0,0,0,0,0,0,
622,50.5,33.6,68.81,-0.2454,71.5,36.72,63.63,10.43,53.35,61.72,75.4,42.61,82.4,64.96,122.1,110.6,0,0,0,0,0,0,0,0,0,0,0,0,0,0,0,0,
623,14.48,-15.63,24.16,-27.76,38.44,12.94,53.32,9.575,14.33,29.47,47.08,31.7,59.21,60.44,75.38,69.95,0,0,0,0,0,0,0,0,0,0,0,0,0,0,0,0,
624,36.79,23.11,53.7,5.562,65.43,47.55,101.6,7.565,31.4,57.45,93.98,55.37,97.47,93.04,69.4,66.96,0,0,0,0,0,0,0,0,0,0,0,0,0,0,0,0,
625,60.45,50.06,77.09,12.19,78.14,45.62,88.33,-8.219,67.21,87.7,95.58,37.11,86.25,71.26,79.91,71.23,0,0,0,0,0,0,0,0,0,0,0,0,0,0,0,0,
626,18.87,-0.9452,10.12,-20.23,32.82,5.133,27.62,13.5,33.75,45.42,38.57,4.524,33.95,28.1,53.82,40.74,0,0,0,0,0,0,0,0,0,0,0,0,0,0,0,0,
627,16.56,3.338,4.84,-1.721,29.17,21.86,63.22,26.55,5.6,25.93,51.98,13.46,46.01,35.89,29.35,15.38,0,0,0,0,0,0,0,0,0,0,0,0,0,0,0,0,
628,46.99,41.28,59.06,10.97,56.64,32.62,101.8,-18.18,21.38,40.95,72.02,7.557,47.44,21.25,26.83,8.566,0,0,0,0,0,0,0,0,0,0,0,0,0,0,0,0,
629,-2.956,-5.726,21.38,-39.52,21.82,-24.42,34.66,-36.6,-7.619,-3.556,7.386,-33.38,-23.51,-42.07,-3.621,-23.02,0,0,0,0,0,0,0,0,0,0,0,0,0,0,0,0,
630,-54.52,-54.19,-27.95,-54.97,-22.06,-49.08,-3.731,-11.43,-61.12,-52.0,-28.19,-36.3,-50.21,-55.76,-52.2,-62.31,0,0,0,0,0,0,0,0,0,0,0,0,0,0,0,0,
631,-2.287,-11.43,20.56,1.437,10.83,1.71,49.1,2.494,-46.87,-19.77,15.89,6.267,-0.1926,-8.305,-54.67,-53.36,0,0,0,0,0,0,0,0,0,0,0,0,0,0,0,0,
632,57.65,38.25,64.11,36.55,53.95,39.32,74.71,21.3,4.409,31.05,35.38,19.46,24.11,13.12,-16.69,-10.14,0,0,0,0,0,0,0,0,0,0,0,0,0,0,0,0,
633,22.19,11.61,23.21,1.75,18.48,10.12,29.81,9.064,7.383,24.53,-0.8893,-14.61,-4.919,-13.71,1.701,9.793,0,0,0,0,0,0,0,0,0,0,0,0,0,0,0,0,
634,-27.71,-30.73,-9.964,-27.03,-17.8,-16.9,8.527,-24.52,-27.97,-7.146,-6.105,-11.55,-5.452,-8.126,0.6039,9.687,0,0,0,0,0,0,0,0,0,0,0,0,0,0,0,0,
635,18.7,6.619,39.74,21.81,39.19,29.39,52.84,43.51,-14.65,20.47,53.85,49.46,54.57,55.81,31.94,40.48,0,0,0,0,0,0,0,0,0,0,0,0,0,0,0,0,
636,72.63,59.17,68.94,59.03,77.82,64.24,63.3,102.4,35.41,80.35,68.39,57.66,70.34,65.63,74.72,82.03,0,0,0,0,0,0,0,0,0,0,0,0,0,0,0,0,
637,17.67,19.92,5.842,7.26,11.5,16.51,16.9,12.32,10.49,56.11,-5.789,8.765,2.718,2.108,60.19,68.86,0,0,0,0,0,0,0,0,0,0,0,0,0,0,0,0,
638,-33.09,-19.47,-16.38,-19.33,-25.15,-5.021,16.58,-35.78,-53.01,-8.973,-32.35,8.806,-24.41,-9.688,13.06,25.9,0,0,0,0,0,0,0,0,0,0,0,0,0,0,0,0,
639,10.8,21.57,42.76,30.02,19.81,38.98,43.88,22.95,-33.84,6.422,14.01,26.43,13.6,23.09,-1.043,16.01,0,0,0,0,0,0,0,0,0,0,0,0,0,0,0,0,
640,38.44,36.12,53.16,48.9,38.58,48.45,37.48,21.27,17.95,46.99,18.19,6.461,18.99,13.57,4.797,24.37,0,0,0,0,0,0,0,0,0,0,0,0,0,0,0,0,
641,13.23,-5.745,23.03,21.26,20.4,15.21,35.55,-8.633,14.19,30.43,-3.08,-0.4812,-5.772,-8.848,-1.358,18.63,0,0,0,0,0,0,0,0,0,0,0,0,0,0,0,0,
642,7.583,-18.69,30.19,6.146,15.77,-3.297,40.19,9.255,-7.805,0.0413,18.93,7.154,-6.74,-10.51,-4.78,10.98,0,0,0,0,0,0,0,0,0,0,0,0,0,0,0,0,
643,24.75,3.618,38.59,9.769,24.77,3.644,46.43,25.2,-1.626,-5.769,43.53,-6.214,1.783,-18.32,5.357,8.99,0,0,0,0,0,0,0,0,0,0,0,0,0,0,0,0,
644,22.95,9.227,11.58,7.131,15.44,2.503,46.44,15.94,4.519,-14.21,11.49,-46.37,-32.81,-61.28,-6.839,-15.71,0,0,0,0,0,0,0,0,0,0,0,0,0,0,0,0,
645,-21.76,-28.44,-28.29,-23.46,-35.28,-39.85,-3.912,-32.08,-40.29,-58.56,-53.08,-99.09,-99.18,-121.9,-69.46,-77.15,0,0,0,0,0,0,0,0,0,0,0,0,0,0,0,0,
646,-51.55,-46.51,-18.34,-27.2,-44.54,-49.6,-6.425,-53.99,-79.67,-89.39,-56.21,-93.52,-89.76,-111.4,-120.4,-120.0,0,0,0,0,0,0,0,0,0,0,0,0,0,0,0,0,
647,6.689,24.73,55.8,42.95,38.92,27.76,78.48,23.8,-14.8,-30.28,7.695,-36.23,-4.093,-35.96,-86.52,-92.31,0,0,0,0,0,0,0,0,0,0,0,0,0,0,0,0,
648,67.77,88.51,82.03,85.87,87.49,75.78,68.43,63.99,64.76,43.9,31.12,-31.78,27.52,-13.72,-14.43,-38.18,0,0,0,0,0,0,0,0,0,0,0,0,0,0,0,0,
649,45.44,55.21,31.79,48.06,52.74,44.05,-6.141,-4.838,49.55,38.08,9.881,-53.89,9.838,-32.17,19.49,-13.78,0,0,0,0,0,0,0,0,0,0,0,0,0,0,0,0,
650,9.054,5.151,14.21,17.3,22.03,15.12,16.21,-40.39,19.42,8.489,11.03,-31.42,13.82,-21.61,23.35,-6.106,0,0,0,0,0,0,0,0,0,0,0,0,0,0,0,0,
651,9.219,-0.7766,35.94,21.33,8.496,6.671,44.99,-12.94,16.88,0.8673,14.41,-3.383,6.614,-9.26,23.57,5.889,0,0,0,0,0,0,0,0,0,0,0,0,0,0,0,0,
652,23.21,11.83,35.33,22.63,2.466,5.693,22.67,3.67,0.4102,1.684,-2.067,2.871,-21.68,-7.67,16.42,15.59,0,0,0,0,0,0,0,0,0,0,0,0,0,0,0,0,
653,22.04,12.25,16.48,10.06,3.4,6.225,4.645,4.117,-12.07,7.669,-25.07,-8.755,-43.45,-11.8,-5.152,9.999,0,0,0,0,0,0,0,0,0,0,0,0,0,0,0,0,
654,1.045,1.304,2.055,-3.648,-6.839,-2.859,-29.13,-10.96,-16.33,-4.943,-45.37,-29.97,-58.84,-28.13,-39.28,-12.7,0,0,0,0,0,0,0,0,0,0,0,0,0,0,0,0,
655,11.29,19.0,11.49,9.641,5.518,14.73,-21.54,-32.38,-18.34,-19.22,-40.4,-28.08,-52.16,-26.39,-68.07,-31.6,0,0,0,0,0,0,0,0,0,0,0,0,0,0,0,0,
656,53.09,55.4,42.23,37.94,43.97,55.49,45.88,-13.61,6.375,3.216,-15.97,-9.656,-22.89,-2.93,-72.14,-29.09,0,0,0,0,0,0,0,0,0,0,0,0,0,0,0,0,
657,69.89,67.89,69.41,47.29,57.59,68.88,50.12,45.35,40.46,28.09,-1.906,0.0096,-1.567,10.41,-54.91,-14.73,0,0,0,0,0,0,0,0,0,0,0,0,0,0,0,0,
658,69.16,63.41,80.19,38.76,44.5,54.84,16.51,64.19,46.62,26.43,-6.046,-7.232,-11.16,-3.321,-39.61,-11.58,0,0,0,0,0,0,0,0,0,0,0,0,0,0,0,0,
659,52.81,40.34,60.93,15.73,25.91,25.64,26.4,10.74,16.06,5.278,-15.71,-27.19,-35.8,-30.11,-39.52,-28.01,0,0,0,0,0,0,0,0,0,0,0,0,0,0,0,0,
660,16.78,10.9,27.42,-6.716,24.88,3.207,30.64,-28.15,-11.87,-17.84,-6.477,-26.38,-24.95,-28.96,-34.75,-38.13,0,0,0,0,0,0,0,0,0,0,0,0,0,0,0,0,
661,1.983,0.4735,8.193,-19.24,27.65,-1.783,12.82,-26.55,-2.774,-22.85,0.456,-25.31,-3.22,-24.32,-17.19,-30.18,0,0,0,0,0,0,0,0,0,0,0,0,0,0,0,0,
662,5.636,-8.639,9.986,-28.02,1.482,-8.637,14.71,-34.68,-5.266,-30.98,-2.289,-42.24,-0.3892,-34.17,-2.162,-23.79,0,0,0,0,0,0,0,0,0,0,0,0,0,0,0,0,
663,33.7,12.84,69.32,1.421,27.01,23.86,64.5,-13.01,-3.192,-16.48,54.34,-3.723,58.59,18.51,35.69,1.696,0,0,0,0,0,0,0,0,0,0,0,0,0,0,0,0,
664,84.53,56.41,141.7,36.2,107.8,74.81,110.0,33.2,66.03,55.55,111.2,42.89,120.7,75.81,98.62,55.36,0,0,0,0,0,0,0,0,0,0,0,0,0,0,0,0,
665,65.04,24.82,100.9,-2.567,82.0,38.47,49.44,17.14,85.76,70.86,52.63,2.338,62.68,27.25,107.8,69.21,0,0,0,0,0,0,0,0,0,0,0,0,0,0,0,0,
666,-4.342,-29.49,11.81,-42.15,-3.16,-16.86,-29.47,-9.304,1.051,0.1203,-14.28,-20.36,-0.6607,-10.3,51.42,31.5,0,0,0,0,0,0,0,0,0,0,0,0,0,0,0,0,
667,-16.47,-18.22,4.801,-22.02,10.08,4.163,-8.391,24.07,-27.28,-12.01,-5.015,21.28,19.28,29.87,8.254,11.56,0,0,0,0,0,0,0,0,0,0,0,0,0,0,0,0,
668,-3.097,-7.262,17.16,-13.41,41.68,22.82,7.077,43.32,12.08,26.55,-21.83,25.64,7.957,33.47,-9.595,15.09,0,0,0,0,0,0,0,0,0,0,0,0,0,0,0,0,
669,-4.032,-13.94,-5.902,-20.89,10.81,4.626,-26.6,9.485,2.692,15.48,-71.33,5.702,-44.97,-2.397,-41.38,0.3082,0,0,0,0,0,0,0,0,0,0,0,0,0,0,0,0,
670,-16.96,-16.46,-16.45,-20.69,-18.48,-14.65,-39.44,-10.1,-31.27,-15.46,-85.93,3.643,-64.03,-15.01,-78.32,-28.89,0,0,0,0,0,0,0,0,0,0,0,0,0,0,0,0,
671,-45.15,-31.84,0.6864,-20.12,-10.57,-18.72,-39.74,22.32,-34.3,-14.57,-61.97,3.879,-45.22,-1.588,-81.75,-36.42,0,0,0,0,0,0,0,0,0,0,0,0,0,0,0,0,
672,-21.43,-13.7,26.25,9.78,28.49,16.65,-11.68,48.96,-3.515,17.23,-11.39,12.87,-9.041,21.09,-45.04,-10.89,0,0,0,0,0,0,0,0,0,0,0,0,0,0,0,0,
673,18.78,9.232,12.64,24.82,36.56,29.1,18.72,9.182,24.8,31.08,-2.405,-3.357,-14.15,-3.203,-21.41,1.28,0,0,0,0,0,0,0,0,0,0,0,0,0,0,0,0,T2
674,-29.8,-32.88,-29.1,-13.01,-15.02,-18.5,-10.17,-40.19,-4.053,-10.71,-41.6,-42.52,-51.01,-52.47,-40.47,-27.17,0,0,0,0,0,0,0,0,0,0,0,0,0,0,0,0,
675,-52.99,-40.79,-4.774,-8.8,-19.89,-15.47,-9.771,-25.41,-27.56,-34.61,-11.6,-32.18,-20.29,-35.78,-38.79,-38.4,0,0,0,0,0,0,0,0,0,0,0,0,0,0,0,0,
676,13.03,9.043,39.97,31.68,17.85,24.49,20.03,3.066,12.02,-11.93,39.22,-16.13,19.04,-14.8,7.346,-10.39,0,0,0,0,0,0,0,0,0,0,0,0,0,0,0,0,
677,8.313,-10.56,-0.7079,9.517,-14.05,-13.08,-31.82,-12.67,10.61,-29.72,-12.88,-50.0,-30.47,-59.0,21.77,-5.792,0,0,0,0,0,0,0,0,0,0,0,0,0,0,0,0,
678,-62.05,-64.33,-55.53,-27.13,-62.88,-63.66,-77.17,-35.28,-53.74,-75.16,-69.55,-64.55,-71.11,-80.75,-13.12,-37.16,0,0,0,0,0,0,0,0,0,0,0,0,0,0,0,0,
679,-60.81,-50.37,-44.01,-8.871,-54.95,-44.84,-42.04,-26.8,-71.44,-68.79,-43.84,-44.76,-41.27,-48.22,-31.7,-52.81,0,0,0,0,0,0,0,0,0,0,0,0,0,0,0,0,
680,-17.37,-7.333,-7.109,22.09,-37.54,-12.47,-29.56,1.654,-43.41,-31.4,-20.18,-39.86,-25.76,-31.39,-19.02,-39.06,0,0,0,0,0,0,0,0,0,0,0,0,0,0,0,0,
681,-5.818,11.62,10.41,25.44,-33.1,-6.282,-51.16,24.42,-38.74,-15.57,-35.88,-38.97,-50.38,-43.21,-16.7,-24.81,0,0,0,0,0,0,0,0,0,0,0,0,0,0,0,0,
682,-14.26,2.239,-0.475,6.037,-36.39,-13.07,-43.65,8.911,-58.07,-24.45,-55.47,-26.73,-68.57,-46.73,-39.39,-26.08,0,0,0,0,0,0,0,0,0,0,0,0,0,0,0,0,
683,-19.62,-24.3,-17.4,-18.01,-51.08,-28.92,-41.29,-44.06,-71.67,-31.3,-70.57,-14.32,-70.77,-33.68,-64.27,-31.32,0,0,0,0,0,0,0,0,0,0,0,0,0,0,0,0,
684,-23.32,-39.03,-18.03,-35.19,-61.22,-48.24,-78.65,-73.19,-70.99,-26.56,-83.91,-10.06,-73.6,-27.3,-74.17,-31.25,0,0,0,0,0,0,0,0,0,0,0,0,0,0,0,0,
685,-24.94,-31.6,-9.865,-40.16,-56.94,-49.7,-77.82,-50.99,-65.11,-27.0,-80.93,-16.0,-65.09,-25.39,-68.54,-29.44,0,0,0,0,0,0,0,0,0,0,0,0,0,0,0,0,
686,-8.567,-15.59,-4.026,-28.47,-41.63,-28.72,-2.417,-24.48,-49.8,-23.89,-49.46,-17.13,-35.36,-10.55,-47.54,-22.62,0,0,0,0,0,0,0,0,0,0,0,0,0,0,0,0,
687,3.126,-13.47,-24.56,-24.61,-39.77,-23.69,16.43,-21.21,-32.64,-12.02,-27.84,-12.7,-27.31,-9.537,-28.0,-17.88,0,0,0,0,0,0,0,0,0,0,0,0,0,0,0,0,
688,-20.43,-30.26,-54.25,-34.16,-55.84,-36.4,-52.59,-18.44,-40.99,-12.25,-39.0,-12.18,-44.36,-23.13,-31.42,-29.7,0,0,0,0,0,0,0,0,0,0,0,0,0,0,0,0,
689,-21.13,-22.83,-24.67,-14.84,-38.55,-15.68,-51.04,4.486,-44.95,-4.144,-22.99,0.7846,-22.66,-6.723,-33.04,-34.33,0,0,0,0,0,0,0,0,0,0,0,0,0,0,0,0,
690,22.34,10.16,31.11,12.69,-1.067,13.3,16.79,20.48,-16.89,21.72,21.76,17.98,19.58,16.72,-5.758,-8.637,0,0,0,0,0,0,0,0,0,0,0,0,0,0,0,0,
691,23.78,9.115,29.97,-7.003,-6.745,-2.725,16.14,-12.63,-7.117,21.57,26.35,15.0,19.87,7.854,20.41,17.44,0,0,0,0,0,0,0,0,0,0,0,0,0,0,0,0,
692,-10.99,-11.56,-1.399,-37.62,-24.66,-20.31,-11.99,-38.31,-23.48,2.334,18.45,9.122,11.46,0.1734,24.63,18.97,0,0,0,0,0,0,0,0,0,0,0,0,0,0,0,0,
693,2.965,-2.624,-9.944,-30.58,-11.85,-6.007,19.79,6.021,-17.26,6.051,40.87,1.948,23.31,7.239,26.59,8.988,0,0,0,0,0,0,0,0,0,0,0,0,0,0,0,0,
694,37.01,11.15,1.984,-11.99,-0.252,0.9234,49.81,16.41,-3.248,18.66,34.59,-26.18,7.233,-5.945,17.95,-8.982,0,0,0,0,0,0,0,0,0,0,0,0,0,0,0,0,
695,29.85,2.486,13.43,-13.46,-10.86,-11.34,1.607,-58.15,-20.81,11.77,-21.64,-48.66,-40.98,-35.75,-24.63,-40.68,0,0,0,0,0,0,0,0,0,0,0,0,0,0,0,0,
696,11.39,-10.49,6.726,-25.86,-23.79,-19.4,-60.38,-67.32,-48.41,-4.371,-59.37,-39.07,-65.46,-44.51,-75.81,-67.76,0,0,0,0,0,0,0,0,0,0,0,0,0,0,0,0,
697,21.62,0.1586,3.792,-14.8,-8.985,-3.585,-39.78,22.62,-42.79,-0.8935,-45.77,-9.929,-46.57,-17.37,-91.07,-62.93,0,0,0,0,0,0,0,0,0,0,0,0,0,0,0,0,
698,50.02,35.33,28.8,17.81,28.01,27.6,5.694,57.64,-6.394,28.47,-22.78,13.84,-22.3,12.42,-70.12,-30.57,0,0,0,0,0,0,0,0,0,0,0,0,0,0,0,0,
699,44.8,31.78,24.03,6.726,15.41,11.69,-24.44,-4.869,3.012,33.31,-50.36,-2.862,-49.75,-14.66,-62.61,-19.09,0,0,0,0,0,0,0,0,0,0,0,0,0,0,0,0,
700,-17.6,-25.73,-38.84,-42.08,-53.51,-48.15,-75.55,-48.59,-48.71,-23.1,-105.5,-33.44,-103.8,-65.17,-94.43,-51.19,0,0,0,0,0,0,0,0,0,0,0,0,0,0,0,0,
701,-34.95,-31.8,-44.11,-35.39,-50.52,-38.91,-46.09,-1.511,-75.46,-52.89,-79.68,1.15,-72.19,-27.0,-102.7,-60.98,0,0,0,0,0,0,0,0,0,0,0,0,0,0,0,0,
702,45.57,23.3,44.74,1.912,39.89,24.52,23.01,42.55,-1.361,12.22,0.2267,47.9,10.01,44.58,-45.3,-9.131,0,0,0,0,0,0,0,0,0,0,0,0,0,0,0,0,
703,78.39,34.45,69.05,-8.298,56.72,13.89,25.79,-6.736,51.58,43.46,-12.0,15.27,-7.553,8.609,-3.124,25.65,0,0,0,0,0,0,0,0,0,0,0,0,0,0,0,0,
704,32.8,29.36,9.671,-0.7018,-3.3,-23.57,-11.3,-40.75,-5.502,-28.02,-65.65,-14.05,-63.66,-49.05,-26.27,1.01,0,0,0,0,0,0,0,0,0,0,0,0,0,0,0,0,
705,37.2,57.07,4.784,45.26,-14.8,-3.005,-15.08,-5.881,-42.23,-60.92,-46.0,1.126,-46.96,-34.12,-50.24,-24.51,0,0,0,0,0,0,0,0,0,0,0,0,0,0,0,0,
706,31.33,31.34,1.099,25.65,-25.3,-7.21,-38.59,-22.89,-26.89,-44.1,-39.44,-30.21,-46.28,-51.23,-49.63,-35.29,0,0,0,0,0,0,0,0,0,0,0,0,0,0,0,0,
707,-31.84,-21.52,-54.03,-11.2,-60.54,-33.2,-75.64,-49.55,-46.07,-73.51,-62.52,-53.27,-63.66,-78.12,-45.64,-44.89,0,0,0,0,0,0,0,0,0,0,0,0,0,0,0,0,
708,3.729,29.77,-25.27,44.2,-12.52,20.25,-22.39,10.58,-26.67,-58.74,-12.34,2.771,-6.929,-15.79,-17.45,-23.04,0,0,0,0,0,0,0,0,0,0,0,0,0,0,0,0,
709,91.37,115.2,39.88,101.3,52.78,79.21,30.54,41.42,50.26,29.7,30.66,18.91,30.54,24.7,20.93,13.53,0,0,0,0,0,0,0,0,0,0,0,0,0,0,0,0,
710,60.3,100.4,-3.329,76.96,23.4,55.78,-25.9,3.743,55.31,46.69,-9.013,-22.2,-4.664,-6.175,20.29,13.96,0,0,0,0,0,0,0,0,0,0,0,0,0,0,0,0,
711,8.723,48.94,-33.53,54.34,-0.3828,31.23,-33.65,6.945,23.21,10.16,-10.25,-1.629,5.979,9.374,8.966,5.183,0,0,0,0,0,0,0,0,0,0,0,0,0,0,0,0,
712,46.32,60.19,44.36,78.24,45.04,54.89,74.12,49.97,56.56,32.16,57.84,50.69,70.31,62.07,39.06,32.08,0,0,0,0,0,0,0,0,0,0,0,0,0,0,0,0,
713,83.56,92.6,93.65,91.19,76.85,74.38,98.95,70.07,103.8,78.16,84.92,55.29,96.77,77.35,85.48,71.47,0,0,0,0,0,0,0,0,0,0,0,0,0,0,0,0,
714,57.52,70.68,45.74,58.2,57.84,57.52,-0.2931,41.38,103.8,85.57,43.8,37.01,71.77,65.92,92.67,78.74,0,0,0,0,0,0,0,0,0,0,0,0,0,0,0,0,
715,3.035,15.48,-23.26,17.65,22.19,28.9,-49.86,-6.729,73.24,63.25,-0.5603,29.69,37.73,48.68,54.54,48.71,0,0,0,0,0,0,0,0,0,0,0,0,0,0,0,0,
716,-6.551,14.09,-26.79,32.73,23.95,44.98,-3.758,6.979,57.81,58.16,12.47,47.6,47.15,56.44,22.5,24.12,0,0,0,0,0,0,0,0,0,0,0,0,0,0,0,0,
717,57.67,79.43,53.89,90.32,82.48,105.8,55.75,62.66,94.42,103.6,71.24,73.85,92.22,90.22,39.59,40.34,0,0,0,0,0,0,0,0,0,0,0,0,0,0,0,0,
718,100.1,115.4,103.1,105.5,119.4,124.8,60.24,60.8,135.1,140.8,80.6,53.62,83.07,72.33,68.9,59.06,0,0,0,0,0,0,0,0,0,0,0,0,0,0,0,0,
719,53.16,68.52,35.29,61.09,67.27,72.23,-16.92,15.99,93.09,98.27,10.95,6.845,7.279,0.2929,47.3,27.33,0,0,0,0,0,0,0,0,0,0,0,0,0,0,0,0,
720,1.527,18.63,-25.47,33.52,0.8763,29.85,-71.96,15.23,6.079,26.81,-25.33,4.746,-29.04,-30.08,1.677,-18.96,0,0,0,0,0,0,0,0,0,0,0,0,0,0,0,0,
721,18.26,40.16,10.15,56.21,12.31,43.79,-12.27,53.76,-11.38,10.31,20.29,26.69,3.641,-9.296,3.951,-14.4,0,0,0,0,0,0,0,0,0,0,0,0,0,0,0,0,
722,41.49,67.89,26.26,65.38,35.32,54.17,26.68,35.68,21.6,23.25,33.57,7.729,7.699,-12.25,33.04,15.74,0,0,0,0,0,0,0,0,0,0,0,0,0,0,0,0,
723,2.909,25.61,-28.09,24.14,-13.93,16.3,-49.48,-43.56,-0.611,-2.022,-27.75,-33.76,-43.76,-43.41,18.05,8.687,0,0,0,0,0,0,0,0,0,0,0,0,0,0,0,0,
724,-28.69,-11.41,-46.16,5.546,-43.22,-7.091,-95.5,-53.28,-47.11,-35.32,-40.73,-19.34,-42.89,-25.18,-12.76,-9.507,0,0,0,0,0,0,0,0,0,0,0,0,0,0,0,0,
725,30.11,41.38,3.013,60.86,23.26,38.83,-32.04,18.13,-13.97,-1.511,36.04,46.37,37.9,49.02,17.69,23.94,0,0,0,0,0,0,0,0,0,0,0,0,0,0,0,0,
726,76.79,90.04,19.78,97.07,56.29,68.83,9.219,24.57,50.26,49.93,56.49,45.79,53.66,56.66,65.49,66.36,0,0,0,0,0,0,0,0,0,0,0,0,0,0,0,0,
727,0.4206,31.21,-46.07,42.94,-18.84,8.584,-54.89,-41.04,18.36,11.69,-35.8,-24.19,-35.91,-22.69,31.26,35.44,0,0,0,0,0,0,0,0,0,0,0,0,0,0,0,0,
728,-61.56,-29.79,-89.4,8.069,-55.86,-33.51,-94.26,-39.5,-56.78,-49.87,-69.17,-16.94,-57.39,-30.36,-38.94,-20.57,0,0,0,0,0,0,0,0,0,0,0,0,0,0,0,0,
729,0.2779,15.14,-34.94,62.24,2.886,15.41,-19.77,28.78,-32.22,-11.58,5.329,44.78,14.47,36.55,-39.26,-12.74,0,0,0,0,0,0,0,0,0,0,0,0,0,0,0,0,
730,36.56,64.75,5.372,96.45,24.54,44.8,20.69,46.01,23.96,43.37,12.59,29.92,14.19,29.48,-4.129,17.58,0,0,0,0,0,0,0,0,0,0,0,0,0,0,0,0,
731,-1.527,47.3,-22.88,74.15,-5.175,19.24,-42.74,15.48,-5.097,20.52,-44.67,-1.866,-36.01,-12.76,-6.062,6.6,0,0,0,0,0,0,0,0,0,0,0,0,0,0,0,0,
732,3.197,32.58,-32.01,66.43,-7.69,10.28,-81.61,4.924,-37.78,-4.85,-35.98,11.28,-29.7,-8.588,-21.2,-15.82,0,0,0,0,0,0,0,0,0,0,0,0,0,0,0,0,
733,17.46,33.02,-18.86,72.97,-7.806,14.05,-53.24,19.72,-26.56,-4.748,-4.811,12.32,-13.2,-5.675,-18.1,-18.15,0,0,0,0,0,0,0,0,0,0,0,0,0,0,0,0,
734,4.84,36.93,-5.554,84.61,-2.197,25.64,-8.575,50.42,-20.09,-1.577,-0.4545,13.01,-11.18,-5.029,-6.107,-11.5,0,0,0,0,0,0,0,0,0,0,0,0,0,0,0,0,
735,12.41,43.08,0.7689,85.35,10.11,29.91,-9.821,35.22,-15.76,13.63,-17.48,10.02,-24.73,-15.32,-8.245,-17.91,0,0,0,0,0,0,0,0,0,0,0,0,0,0,0,0,
736,-15.33,7.408,-48.33,40.93,-34.42,-14.49,-77.28,-45.57,-47.87,-14.58,-58.04,-18.3,-65.29,-53.27,-35.14,-41.78,0,0,0,0,0,0,0,0,0,0,0,0,0,0,0,0,
737,-43.31,-4.126,-66.95,35.02,-50.37,-18.69,-84.66,-53.02,-90.27,-51.69,-29.83,3.022,-43.25,-27.63,-35.7,-36.79,0,0,0,0,0,0,0,0,0,0,0,0,0,0,0,0,
738,14.5,54.68,0.3933,83.43,13.68,38.65,-17.23,0.9701,-42.24,-2.372,44.91,36.99,17.97,22.57,16.09,9.386,0,0,0,0,0,0,0,0,0,0,0,0,0,0,0,0,
739,31.54,48.08,1.961,61.07,12.32,22.9,-22.14,-26.78,2.778,23.21,23.32,2.24,0.9949,-7.449,47.53,31.01,0,0,0,0,0,0,0,0,0,0,0,0,0,0,0,0,
740,-10.0,3.752,-39.63,30.34,-20.71,-7.23,-37.22,-40.87,-24.66,-16.32,-5.194,4.128,-3.687,-5.493,39.82,26.47,0,0,0,0,0,0,0,0,0,0,0,0,0,0,0,0,
741,23.79,50.85,6.098,81.9,29.8,46.37,26.57,19.24,-2.411,16.09,47.01,59.06,55.24,59.05,51.08,48.04,0,0,0,0,0,0,0,0,0,0,0,0,0,0,0,0,
742,56.07,80.81,38.21,98.89,57.41,68.59,56.1,25.04,46.07,64.98,67.15,59.68,67.25,67.12,77.56,75.96,0,0,0,0,0,0,0,0,0,0,0,0,0,0,0,0,
743,35.96,56.73,18.06,85.04,41.38,56.43,37.98,23.47,43.77,55.79,66.7,59.21,65.08,71.44,97.47,88.58,0,0,0,0,0,0,0,0,0,0,0,0,0,0,0,0,
744,49.33,78.84,26.04,116.2,53.1,81.23,23.05,61.46,48.97,73.83,82.21,76.92,79.23,91.72,110.7,96.92,0,0,0,0,0,0,0,0,0,0,0,0,0,0,0,0,
745,21.65,55.56,-10.15,88.01,6.465,44.12,-39.85,25.67,28.91,60.28,30.35,31.21,27.4,32.77,83.69,74.26,0,0,0,0,0,0,0,0,0,0,0,0,0,0,0,0,
746,-63.46,-29.65,-85.93,22.9,-63.48,-25.1,-95.63,-13.27,-39.07,-22.11,-13.42,7.715,-10.05,-3.882,33.92,33.62,0,0,0,0,0,0,0,0,0,0,0,0,0,0,0,0,
747,-36.39,-2.485,-55.33,69.47,-12.51,21.94,-38.74,35.53,-27.78,-5.311,50.03,64.98,50.35,63.25,42.84,45.84,0,0,0,0,0,0,0,0,0,0,0,0,0,0,0,0,
748,54.6,76.31,22.52,126.9,45.66,84.78,38.44,36.88,40.08,77.13,85.76,73.18,75.81,81.22,89.11,88.81,0,0,0,0,0,0,0,0,0,0,0,0,0,0,0,0,
749,33.6,49.41,5.355,84.21,0.9108,50.07,13.52,-18.12,26.79,49.75,30.48,34.87,27.93,32.31,86.09,85.67,0,0,0,0,0,0,0,0,0,0,0,0,0,0,0,0,
750,-10.05,19.03,-28.6,72.27,-8.032,37.54,-39.23,2.535,-9.396,8.439,17.72,58.85,31.93,53.3,58.43,60.98,0,0,0,0,0,0,0,0,0,0,0,0,0,0,0,0,
751,28.08,55.32,2.7,115.9,35.73,73.03,-37.24,42.99,14.37,54.66,48.92,78.77,61.57,88.91,64.43,65.16,0,0,0,0,0,0,0,0,0,0,0,0,0,0,0,0,
752,28.7,42.57,6.335,91.27,9.158,47.78,-41.13,19.79,12.79,57.11,24.72,40.1,29.79,52.99,69.52,69.74,0,0,0,0,0,0,0,0,0,0,0,0,0,0,0,0,
753,-17.41,-1.628,-26.52,46.54,-23.67,6.398,-62.12,1.45,-23.07,6.066,-0.9008,31.36,9.662,35.54,47.76,57.28,0,0,0,0,0,0,0,0,0,0,0,0,0,0,0,0,
754,-12.65,3.467,-20.84,51.83,-6.562,7.587,-68.36,6.974,-14.8,12.1,4.529,32.5,16.43,39.89,25.1,44.15,0,0,0,0,0,0,0,0,0,0,0,0,0,0,0,0,
755,-27.48,-13.01,-42.89,34.01,-37.16,-13.51,-98.36,-2.945,-25.47,12.39,-29.36,-4.554,-23.75,-2.793,-0.5089,19.35,0,0,0,0,0,0,0,0,0,0,0,0,0,0,0,0,
756,-51.77,-29.05,-88.09,30.81,-60.95,-17.79,-91.33,10.92,-65.66,-14.61,-28.55,24.62,-20.24,6.801,-9.908,6.866,0,0,0,0,0,0,0,0,0,0,0,0,0,0,0,0,
757,20.04,46.13,-31.13,97.6,5.534,42.31,-14.58,37.17,-19.37,34.31,43.8,86.86,51.26,70.04,28.73,41.75,0,0,0,0,0,0,0,0,0,0,0,0,0,0,0,0,
758,38.82,70.02,17.01,87.24,10.45,31.68,-32.84,-0.7137,20.31,60.29,18.77,27.96,15.86,20.1,44.43,54.24,0,0,0,0,0,0,0,0,0,0,0,0,0,0,0,0,
759,-61.32,-22.47,-58.99,-3.65,-69.99,-50.89,-111.0,-43.83,-57.69,-35.32,-62.09,-38.26,-63.99,-51.57,-6.497,4.673,0,0,0,0,0,0,0,0,0,0,0,0,0,0,0,0,
760,-45.93,-23.55,-66.08,12.88,-45.9,-29.98,-57.01,-8.991,-74.92,-64.51,-1.416,26.43,-1.114,20.08,-19.42,-6.905,0,0,0,0,0,0,0,0,0,0,0,0,0,0,0,0,
761,64.04,62.35,28.26,74.86,33.3,40.4,18.05,29.98,19.7,26.46,91.27,76.67,76.65,85.61,47.25,52.88,0,0,0,0,0,0,0,0,0,0,0,0,0,0,0,0,
762,49.71,48.14,20.76,43.92,13.32,20.36,-3.978,16.78,40.36,42.93,85.19,48.2,56.87,52.94,103.1,99.29,0,0,0,0,0,0,0,0,0,0,0,0,0,0,0,0,
763,1.286,6.982,-20.21,24.83,-8.217,0.1843,18.18,8.783,17.53,-2.89,107.7,62.08,72.98,61.02,124.5,118.3,0,0,0,0,0,0,0,0,0,0,0,0,0,0,0,0,
764,44.41,46.22,36.07,69.21,40.11,41.09,97.83,35.39,67.76,20.91,167.8,102.1,124.1,103.5,150.0,143.7,0,0,0,0,0,0,0,0,0,0,0,0,0,0,0,0,
765,69.91,75.4,55.66,81.6,49.1,51.12,96.5,63.08,95.28,54.52,139.8,77.96,96.71,79.05,153.9,143.9,0,0,0,0,0,0,0,0,0,0,0,0,0,0,0,0,
766,30.77,51.97,-12.1,49.35,-0.0509,12.95,14.25,35.66,40.71,27.34,51.21,9.47,21.24,15.75,96.8,86.13,0,0,0,0,0,0,0,0,0,0,0,0,0,0,0,0,
767,-17.23,2.128,-55.1,-0.2985,-47.66,-36.33,-60.38,-51.27,-26.05,-28.98,-18.91,-41.96,-35.78,-32.41,7.846,3.623,0,0,0,0,0,0,0,0,0,0,0,0,0,0,0,0,
768,-48.36,-46.87,-47.83,-28.4,-71.87,-67.63,-76.69,-83.75,-68.54,-72.95,-29.84,-24.37,-37.02,-25.38,-36.06,-30.82,0,0,0,0,0,0,0,0,0,0,0,0,0,0,0,0,
769,-25.86,-24.3,-12.82,18.78,-42.38,-38.26,-43.61,-15.8,-52.66,-49.44,27.28,41.35,19.74,34.39,1.673,14.87,0,0,0,0,0,0,0,0,0,0,0,0,0,0,0,0,
770,2.8,21.44,-0.251,58.35,-7.25,-10.98,-16.43,10.83,-0.3602,4.999,48.8,41.02,34.34,39.5,52.29,66.17,0,0,0,0,0,0,0,0,0,0,0,0,0,0,0,0,
771,-51.12,-20.49,-46.06,6.869,-47.29,-59.65,-24.61,-48.97,-18.24,-21.84,-13.87,-25.17,-20.59,-23.82,36.01,43.4,0,0,0,0,0,0,0,0,0,0,0,0,0,0,0,0,
772,-90.42,-64.12,-55.21,-32.21,-80.08,-86.94,-39.15,-59.44,-70.77,-74.04,-42.96,-29.31,-30.06,-32.62,-12.2,-6.182,0,0,0,0,0,0,0,0,0,0,0,0,0,0,0,0,
773,-38.03,-28.54,-10.86,-2.906,-39.6,-43.32,-29.09,-15.6,-48.48,-50.86,-9.838,15.78,11.06,8.889,-18.27,-4.994,0,0,0,0,0,0,0,0,0,0,0,0,0,0,0,0,
774,-15.02,-9.296,-28.33,6.559,-26.29,-29.06,-26.1,-17.84,-13.5,-24.59,2.934,10.04,12.3,10.69,8.587,25.63,0,0,0,0,0,0,0,0,0,0,0,0,0,0,0,0,
775,-34.92,-22.83,-61.65,-5.943,-53.67,-44.9,-45.83,-26.85,-30.45,-36.98,4.2,-11.75,-6.58,-3.63,21.8,33.3,0,0,0,0,0,0,0,0,0,0,0,0,0,0,0,0,
776,-2.441,4.485,-11.19,27.04,-31.33,-20.15,-17.05,-4.749,-30.46,-24.43,22.66,-3.139,-0.0059,2.387,16.89,18.79,0,0,0,0,0,0,0,0,0,0,0,0,0,0,0,0,
777,30.51,42.69,39.04,71.39,9.25,7.981,28.23,-12.84,-5.001,-1.642,20.43,-7.936,-1.438,-4.295,4.997,1.615,0,0,0,0,0,0,0,0,0,0,0,0,0,0,0,0,
778,9.512,35.16,11.38,58.29,-6.17,-11.57,-30.26,-43.7,-20.64,-13.5,-17.39,-29.41,-35.43,-32.86,-21.58,-17.47,0,0,0,0,0,0,0,0,0,0,0,0,0,0,0,0,
779,-15.09,1.053,-38.35,9.803,-48.73,-49.43,-106.8,-59.24,-72.9,-41.63,-56.37,-36.06,-74.55,-55.68,-57.91,-36.58,0,0,0,0,0,0,0,0,0,0,0,0,0,0,0,0,
780,-19.77,-9.425,-51.92,-3.693,-56.49,-51.2,-69.37,-48.24,-102.4,-56.98,-52.7,-22.5,-76.45,-46.39,-68.07,-36.73,0,0,0,0,0,0,0,0,0,0,0,0,0,0,0,0,
781,7.064,28.95,-23.82,32.73,-19.24,-2.56,-6.025,11.42,-78.53,-32.17,-9.074,7.184,-37.13,-7.923,-34.29,-9.954,0,0,0,0,0,0,0,0,0,0,0,0,0,0,0,0,
782,51.75,72.93,16.12,64.11,17.21,37.83,-3.082,47.14,-35.87,19.88,6.579,15.58,-15.39,8.835,3.351,14.66,0,0,0,0,0,0,0,0,0,0,0,0,0,0,0,0,
783,43.76,61.35,25.02,47.6,13.33,17.71,-23.28,-6.425,-30.65,28.62,-32.29,-13.21,-44.47,-19.33,-5.914,4.561,0,0,0,0,0,0,0,0,0,0,0,0,0,0,0,0,
784,2.181,20.37,-4.108,10.87,-12.77,-23.71,-49.77,-49.67,-58.04,-14.99,-67.45,-31.22,-76.22,-48.0,-52.35,-30.01,0,0,0,0,0,0,0,0,0,0,0,0,0,0,0,0,
785,3.002,11.42,-26.86,0.2907,-30.45,-35.68,-70.7,-38.72,-75.12,-43.53,-55.66,-24.56,-66.83,-44.89,-77.66,-49.17,0,0,0,0,0,0,0,0,0,0,0,0,0,0,0,0,
786,18.48,22.0,-6.428,12.55,-29.29,-24.34,-50.87,-29.76,-64.51,-27.94,-11.91,-10.3,-30.82,-21.75,-50.78,-31.57,0,0,0,0,0,0,0,0,0,0,0,0,0,0,0,0,
787,5.854,14.74,20.63,15.98,-18.38,-14.26,-14.94,-12.35,-41.23,-0.7096,13.27,4.49,-13.2,-10.16,-6.705,-0.7698,0,0,0,0,0,0,0,0,0,0,0,0,0,0,0,0,
788,-12.39,0.1852,3.003,6.964,-27.04,-18.27,-26.84,-5.709,-42.47,-3.06,-8.981,0.9247,-29.93,-20.66,5.399,9.21,0,0,0,0,0,0,0,0,0,0,0,0,0,0,0,0,
789,-9.832,7.244,-21.14,18.85,-34.71,-10.73,-51.27,-31.94,-61.73,-16.96,-15.06,4.691,-21.1,-4.825,2.209,15.38,0,0,0,0,0,0,0,0,0,0,0,0,0,0,0,0,
790,26.03,45.15,9.441,60.05,5.845,31.77,0.6682,-22.62,-37.05,15.09,36.42,36.61,35.55,43.28,28.81,49.03,0,0,0,0,0,0,0,0,0,0,0,0,0,0,0,0,
791,50.1,68.66,49.91,68.63,35.35,46.66,55.57,-3.241,5.16,52.76,51.16,28.49,42.26,36.86,52.34,70.75,0,0,0,0,0,0,0,0,0,0,0,0,0,0,0,0,
792,6.855,20.18,17.77,18.17,-5.738,-5.964,13.24,-32.87,-21.37,15.53,-1.482,-16.71,-17.55,-20.35,18.76,35.98,0,0,0,0,0,0,0,0,0,0,0,0,0,0,0,0,
793,-34.31,-35.49,-45.2,-6.474,-31.08,-35.9,-20.31,-22.91,-62.02,-31.25,-8.588,-7.152,-26.05,-23.75,-24.31,-4.401,0,0,0,0,0,0,0,0,0,0,0,0,0,0,0,0,
794,-12.28,-6.77,-37.61,27.42,2.538,-0.7873,11.22,32.45,-30.33,-4.147,35.04,27.14,14.59,10.53,-13.35,4.673,0,0,0,0,0,0,0,0,0,0,0,0,0,0,0,0,
795,-1.953,26.11,5.324,28.46,1.056,7.622,4.155,7.815,-5.734,20.69,27.34,7.938,2.929,-7.297,11.48,23.39,0,0,0,0,0,0,0,0,0,0,0,0,0,0,0,0,
796,-30.94,-13.04,-1.922,-14.17,-41.03,-30.62,-23.07,-48.77,-50.46,-16.97,-9.244,-14.93,-30.44,-41.2,1.079,9.996,0,0,0,0,0,0,0,0,0,0,0,0,0,0,0,0,
797,-33.63,-28.47,-8.898,-0.5695,-31.48,-27.02,-6.221,-14.33,-73.22,-33.87,-0.3599,10.42,-13.58,-20.9,-13.91,-5.118,0,0,0,0,0,0,0,0,0,0,0,0,0,0,0,0,
798,-0.2053,18.19,26.26,62.56,12.64,23.58,0.4709,42.75,-36.06,11.76,23.19,32.39,14.6,12.1,-4.58,3.314,0,0,0,0,0,0,0,0,0,0,0,0,0,0,0,0,
799,28.59,40.94,30.74,78.98,25.0,46.65,-9.82,35.48,-8.623,46.02,20.29,24.1,13.72,10.7,8.534,15.69,0,0,0,0,0,0,0,0,0,0,0,0,0,0,0,0,
800,20.26,23.09,1.408,44.0,15.9,24.18,-1.631,10.76,-16.44,33.14,5.919,18.88,-2.408,-3.833,6.774,15.82,0,0,0,0,0,0,0,0,0,0,0,0,0,0,0,0,
801,-19.95,-3.314,-4.759,11.32,-7.072,-10.76,-3.178,1.311,-46.63,4.815,-6.019,21.43,-24.19,-16.59,-4.845,6.441,0,0,0,0,0,0,0,0,0,0,0,0,0,0,0,0,
802,-33.57,-24.72,-10.92,4.169,-36.12,-22.11,-15.11,3.54,-76.65,-14.3,1.412,27.21,-24.62,-14.19,-7.308,2.227,0,0,0,0,0,0,0,0,0,0,0,0,0,0,0,0,
803,-14.94,-18.41,-29.78,19.84,-26.93,-4.159,-15.73,25.38,-61.44,-6.818,28.67,38.53,3.893,11.28,10.67,17.23,0,0,0,0,0,0,0,0,0,0,0,0,0,0,0,0,
804,-17.69,-0.8532,-25.09,31.74,0.606,5.105,-8.616,34.03,-24.68,14.12,41.73,38.37,15.33,24.57,30.24,39.12,0,0,0,0,0,0,0,0,0,0,0,0,0,0,0,0,
805,-6.579,12.02,2.203,39.15,12.0,9.141,26.91,15.81,-18.14,21.28,55.06,40.31,22.18,29.24,40.98,55.32,0,0,0,0,0,0,0,0,0,0,0,0,0,0,0,0,
806,45.75,42.07,38.29,61.14,38.68,37.5,74.83,11.12,-6.196,36.21,91.34,59.08,57.47,53.42,59.77,74.29,0,0,0,0,0,0,0,0,0,0,0,0,0,0,0,0,
807,52.51,54.51,64.9,63.13,63.71,48.62,73.79,16.03,21.29,57.31,103.6,60.1,71.42,60.68,80.3,86.65,0,0,0,0,0,0,0,0,0,0,0,0,0,0,0,0,
808,18.25,29.31,39.23,33.03,41.18,20.53,32.0,2.866,16.17,45.92,78.38,35.32,47.28,31.89,80.18,73.28,0,0,0,0,0,0,0,0,0,0,0,0,0,0,0,0,
809,7.337,1.553,-39.58,1.459,-12.87,-15.69,-22.1,-21.06,-12.39,8.142,38.04,-1.459,14.76,-10.26,53.5,36.25,0,0,0,0,0,0,0,0,0,0,0,0,0,0,0,0,
810,-30.04,-40.91,-101.1,-29.03,-62.35,-53.06,-67.93,-36.68,-45.95,-37.66,-12.44,-27.59,-21.42,-39.56,7.562,-4.709,0,0,0,0,0,0,0,0,0,0,0,0,0,0,0,0,
811,-53.94,-53.67,-73.96,-16.12,-50.2,-47.63,-39.25,-18.02,-60.75,-48.6,-15.18,8.027,-13.42,-7.058,-15.05,-6.561,0,0,0,0,0,0,0,0,0,0,0,0,0,0,0,0,
812,10.38,5.861,-4.483,35.15,4.273,-1.533,16.44,14.63,-23.33,2.179,17.6,45.89,23.55,36.07,10.63,34.39,0,0,0,0,0,0,0,0,0,0,0,0,0,0,0,0,
813,11.71,2.372,-14.42,5.889,-26.62,-29.69,-27.09,-8.779,-17.31,7.015,-31.24,-8.309,-17.88,-13.4,17.23,36.95,0,0,0,0,0,0,0,0,0,0,0,0,0,0,0,0,
814,-78.25,-76.46,-67.97,-55.52,-95.49,-91.75,-77.56,-64.39,-82.33,-62.0,-99.13,-55.05,-71.84,-64.73,-27.98,-19.4,0,0,0,0,0,0,0,0,0,0,0,0,0,0,0,0,
815,-68.24,-65.78,-52.24,-18.38,-64.46,-63.25,-23.17,-64.75,-87.86,-65.91,-62.46,-19.36,-31.13,-26.81,-46.11,-44.02,0,0,0,0,0,0,0,0,0,0,0,0,0,0,0,0,
816,-14.33,-16.87,-25.38,16.46,-24.57,-30.43,8.549,-22.67,-35.78,-22.54,-20.41,-0.0913,1.484,-2.613,-10.04,-11.65,0,0,0,0,0,0,0,0,0,0,0,0,0,0,0,0,
817,-39.47,-33.49,-38.09,-14.4,-47.34,-53.05,-23.32,7.787,-37.92,-29.54,-39.9,-5.548,-19.73,-15.72,18.91,17.34,0,0,0,0,0,0,0,0,0,0,0,0,0,0,0,0,
818,-48.29,-39.9,-33.38,-10.52,-47.75,-49.14,-28.01,13.92,-51.32,-33.23,-44.76,11.76,-19.14,-6.082,17.52,21.75,0,0,0,0,0,0,0,0,0,0,0,0,0,0,0,0,
819,-48.41,-40.7,-50.51,-8.069,-56.93,-52.25,-52.86,-16.27,-49.88,-32.26,-49.58,1.445,-31.05,-20.62,-2.063,7.524,0,0,0,0,0,0,0,0,0,0,0,0,0,0,0,0,
820,-93.84,-77.86,-97.02,-48.64,-98.2,-87.59,-81.61,-45.5,-81.99,-72.88,-68.83,-20.83,-61.66,-51.46,-27.37,-16.11,0,0,0,0,0,0,0,0,0,0,0,0,0,0,0,0,
821,-78.8,-69.67,-67.93,-35.16,-73.65,-68.37,-14.22,-18.78,-90.4,-78.73,-50.38,3.798,-41.94,-28.48,-31.47,-15.9,0,0,0,0,0,0,0,0,0,0,0,0,0,0,0,0,
822,-20.4,-21.84,-7.378,10.09,-21.77,-27.95,36.59,6.449,-55.71,-38.31,-41.43,22.09,-26.34,-5.894,-19.66,5.784,0,0,0,0,0,0,0,0,0,0,0,0,0,0,0,0,
823,-35.51,-28.67,-20.76,-8.787,-42.43,-47.78,-23.79,-24.54,-61.49,-42.4,-85.11,-10.94,-69.39,-40.91,-32.55,-0.0294,0,0,0,0,0,0,0,0,0,0,0,0,0,0,0,0,
824,-82.78,-71.8,-68.64,-56.44,-95.32,-88.59,-84.89,-56.65,-108.8,-87.89,-119.2,-57.3,-109.1,-86.18,-71.43,-43.81,0,0,0,0,0,0,0,0,0,0,0,0,0,0,0,0,
825,-92.58,-77.75,-92.87,-60.71,-112.9,-94.86,-81.84,-52.99,-140.2,-113.5,-108.4,-70.15,-103.1,-88.7,-93.99,-80.5,0,0,0,0,0,0,0,0,0,0,0,0,0,0,0,0,
826,-61.05,-35.03,-73.91,-13.76,-77.26,-56.85,-31.38,-29.67,-123.2,-88.17,-64.57,-38.51,-59.12,-43.73,-70.83,-68.9,0,0,0,0,0,0,0,0,0,0,0,0,0,0,0,0,
827,-17.85,-4.032,-40.54,13.0,-33.93,-24.22,-5.074,-17.23,-73.11,-40.2,-41.03,-28.07,-33.46,-21.33,-32.34,-32.03,0,0,0,0,0,0,0,0,0,0,0,0,0,0,0,0,
828,-36.22,-38.4,-69.53,-35.58,-51.47,-53.02,-70.77,-35.55,-73.59,-47.43,-90.99,-63.05,-72.08,-58.12,-39.33,-33.1,0,0,0,0,0,0,0,0,0,0,0,0,0,0,0,0,
829,-76.36,-63.6,-91.98,-49.07,-60.2,-60.26,-87.01,-23.06,-107.7,-72.71,-118.5,-42.1,-77.33,-47.28,-70.04,-56.77,0,0,0,0,0,0,0,0,0,0,0,0,0,0,0,0,
830,-23.39,3.332,-6.796,35.65,7.679,12.45,19.92,37.29,-59.07,-14.89,-49.67,18.14,-2.418,22.73,-48.36,-34.38,0,0,0,0,0,0,0,0,0,0,0,0,0,0,0,0,
831,29.02,48.61,39.04,52.1,20.35,26.61,33.29,22.54,-0.9987,32.27,-24.18,-13.65,9.193,6.008,-1.26,2.74,0,0,0,0,0,0,0,0,0,0,0,0,0,0,0,0,
832,-36.59,-25.94,-50.13,-41.01,-62.85,-53.48,-67.5,-61.9,-56.01,-35.88,-81.31,-69.42,-53.63,-62.81,-3.067,-9.803,0,0,0,0,0,0,0,0,0,0,0,0,0,0,0,0,
833,-81.73,-74.3,-86.99,-57.42,-76.1,-67.86,-68.65,-53.77,-101.5,-84.75,-70.95,-28.96,-43.91,-39.7,-21.41,-26.65,0,0,0,0,0,0,0,0,0,0,0,0,0,0,0,0,
834,-25.08,-13.07,-9.759,8.941,-11.51,-9.173,-7.816,22.15,-48.24,-36.52,-8.89,18.9,9.135,13.17,-0.6005,0.6629,0,0,0,0,0,0,0,0,0,0,0,0,0,0,0,0,
835,0.7301,17.01,19.08,9.857,-1.353,2.139,-10.21,18.75,-15.45,-9.922,-10.64,4.955,3.087,4.473,25.77,28.01,0,0,0,0,0,0,0,0,0,0,0,0,0,0,0,0,
836,-25.16,-14.13,-17.62,-23.73,-21.43,-15.3,-13.07,-23.9,-32.57,-28.39,-34.52,-3.103,-20.38,-8.508,15.7,22.04,0,0,0,0,0,0,0,0,0,0,0,0,0,0,0,0,
837,-20.46,-7.933,-26.08,-10.91,-11.72,-9.513,5.629,-9.884,-30.39,-27.28,-32.18,4.607,-21.13,0.2266,-15.37,3.011,0,0,0,0,0,0,0,0,0,0,0,0,0,0,0,0,
838,0.7051,19.31,-13.29,5.111,-0.4746,0.9558,10.57,10.44,-20.13,-16.34,-25.42,-0.7408,-12.26,7.17,-32.82,-8.105,0,0,0,0,0,0,0,0,0,0,0,0,0,0,0,0,
839,19.25,30.61,0.0354,8.203,18.64,20.93,30.41,-9.123,-6.266,4.262,-4.003,0.5513,13.57,22.74,-17.28,-1.439,0,0,0,0,0,0,0,0,0,0,0,0,0,0,0,0,
840,24.81,33.94,10.12,20.3,36.11,36.81,29.04,-16.13,11.49,30.24,10.23,8.29,27.27,29.08,16.74,14.73,0,0,0,0,0,0,0,0,0,0,0,0,0,0,0,0,
841,-1.256,16.74,2.147,20.97,13.21,21.43,-16.04,16.17,-7.373,19.4,-5.855,11.31,12.38,18.47,38.5,23.29,0,0,0,0,0,0,0,0,0,0,0,0,0,0,0,0,
842,0.6643,12.63,3.569,16.49,0.009,12.5,-14.79,40.3,-26.2,3.106,-9.828,14.12,7.703,18.68,39.54,25.19,0,0,0,0,0,0,0,0,0,0,0,0,0,0,0,0,
843,33.58,36.67,7.935,19.21,15.12,13.76,18.02,19.15,-9.124,5.605,-18.18,1.641,-5.674,4.048,18.71,15.51,0,0,0,0,0,0,0,0,0,0,0,0,0,0,0,0,
844,14.43,27.98,-18.71,8.298,-3.165,-7.705,1.401,-13.93,-15.47,-19.16,-57.33,-18.34,-41.92,-29.38,-19.91,-11.81,0,0,0,0,0,0,0,0,0,0,0,0,0,0,0,0,
845,-21.59,-1.867,-23.57,-6.341,-30.89,-21.37,-17.3,-21.26,-40.37,-46.33,-67.75,-17.92,-44.48,-28.26,-43.78,-29.34,0,0,0,0,0,0,0,0,0,0,0,0,0,0,0,0,
846,-16.55,-7.927,2.056,-16.56,-30.35,-20.84,-7.463,-24.01,-32.2,-39.47,-61.15,-21.51,-35.28,-20.81,-44.03,-27.63,0,0,0,0,0,0,0,0,0,0,0,0,0,0,0,0,
847,-21.97,-19.01,-21.96,-37.79,-46.93,-43.21,-23.98,-39.93,-31.2,-48.21,-90.36,-43.82,-63.73,-47.02,-54.28,-36.69,0,0,0,0,0,0,0,0,0,0,0,0,0,0,0,0,
848,-37.53,-29.67,-53.99,-41.89,-62.49,-56.88,-55.75,-45.57,-53.75,-69.05,-80.73,-36.63,-57.32,-40.64,-61.17,-45.12,0,0,0,0,0,0,0,0,0,0,0,0,0,0,0,0,
849,-7.951,3.476,-3.39,-7.985,-19.38,-22.92,-35.18,-20.81,-30.76,-38.89,4.955,-1.227,14.72,13.61,-16.7,-14.42,0,0,0,0,0,0,0,0,0,0,0,0,0,0,0,0,
850,21.51,38.54,48.09,14.12,17.39,7.44,31.97,9.732,23.7,8.656,48.41,-3.328,42.85,25.11,44.12,25.76,0,0,0,0,0,0,0,0,0,0,0,0,0,0,0,0,
851,3.507,27.64,15.3,0.2517,-8.016,-5.178,61.1,5.915,23.22,1.575,15.49,-27.11,6.223,-5.961,49.61,24.18,0,0,0,0,0,0,0,0,0,0,0,0,0,0,0,0,
852,10.0,24.69,-10.88,-6.52,-12.99,-11.01,38.95,-11.18,-0.6486,-21.57,7.745,-14.48,4.498,-1.963,18.97,1.14,0,0,0,0,0,0,0,0,0,0,0,0,0,0,0,0,
