%OpenBCI Raw EXG Data
%Number of channels = 16
%Sample Rate = 125 Hz
%Board = OpenBCI_GUI$BoardCytonSerialDaisy
Sample Index,EXG Channel 0,EXG Channel 1,EXG Channel 2,EXG Channel 3,EXG Channel 4,EXG Channel 5,EXG Channel 6,EXG Channel 7,EXG Channel 8,EXG Channel 9,EXG Channel 10,EXG Channel 11,EXG Channel 12,EXG Channel 13,EXG Channel 14,EXG Channel 15,Accel Channel 0,Accel Channel 1,Accel Channel 2,Other,Other.1,Other.2,Other.3,Other.4,Other.5,Other.6,Analog Channel 0,Analog Channel 1,Analog Channel 2,Timestamp,Other.7,Timestamp (Formatted),Annotations
1,0.0,0.0,0.0,0.0,-0.0,0.0,0.0,0.0,0.0,0.0,0.0,0.0,0.0,-0.0,-0.0,0.0,0,0,0,0,0,0,0,0,0,0,0,0,0,0,0,0,T0
2,-58.78,-66.46,-19.04,-21.69,-34.42,-18.76,-8.946,23.21,-11.59,12.2,-9.408,-8.901,-6.346,-6.621,1.922,10.38,0,0,0,0,0,0,0,0,0,0,0,0,0,0,0,0,
3,-141.2,-151.9,-56.74,-75.51,-76.36,-58.63,-35.71,1.794,-36.22,-17.54,-21.02,-32.34,-18.75,-29.37,1.992,7.831,0,0,0,0,0,0,0,0,0,0,0,0,0,0,0,0,
4,-228.7,-218.5,-109.2,-128.0,-114.0,-107.5,-45.34,-30.13,-57.96,-55.8,-17.71,-35.96,-17.87,-30.26,8.45,3.082,0,0,0,0,0,0,0,0,0,0,0,0,0,0,0,0,
5,-281.9,-272.9,-153.4,-167.4,-146.2,-143.6,-43.7,-41.06,-63.75,-67.92,-21.32,-33.62,-20.84,-27.93,9.227,-0.0059,0,0,0,0,0,0,0,0,0,0,0,0,0,0,0,0,
6,-325.8,-349.5,-180.7,-211.7,-178.5,-175.9,-55.21,-57.07,-71.52,-86.39,-45.05,-57.39,-42.86,-54.82,-10.95,-13.75,0,0,0,0,0,0,0,0,0,0,0,0,0,0,0,0,
7,-403.3,-424.1,-203.4,-246.2,-203.6,-212.4,-70.82,-81.84,-88.69,-114.9,-54.76,-75.75,-54.89,-73.37,-32.8,-32.36,0,0,0,0,0,0,0,0,0,0,0,0,0,0,0,0,
8,-487.1,-488.9,-230.0,-275.2,-229.5,-246.2,-93.57,-96.67,-108.0,-130.6,-56.32,-81.4,-62.78,-82.33,-39.6,-41.02,0,0,0,0,0,0,0,0,0,0,0,0,0,0,0,0,
9,-546.7,-558.7,-263.6,-315.5,-269.1,-278.2,-109.2,-117.4,-135.4,-158.9,-72.69,-98.3,-84.7,-106.7,-43.54,-44.28,0,0,0,0,0,0,0,0,0,0,0,0,0,0,0,0,
10,-590.2,-597.7,-296.6,-337.7,-299.2,-295.4,-100.4,-135.9,-157.1,-174.1,-77.13,-103.8,-90.77,-112.3,-48.09,-47.71,0,0,0,0,0,0,0,0,0,0,0,0,0,0,0,0,
11,-625.8,-613.8,-316.8,-344.3,-307.7,-299.9,-112.4,-126.2,-158.5,-146.6,-70.63,-99.9,-85.8,-103.3,-49.73,-52.53,0,0,0,0,0,0,0,0,0,0,0,0,0,0,0,0,
12,-656.0,-656.3,-339.4,-365.3,-316.5,-318.7,-148.1,-123.0,-163.4,-151.1,-83.32,-115.7,-99.51,-118.6,-58.65,-66.91,0,0,0,0,0,0,0,0,0,0,0,0,0,0,0,0,
13,-673.5,-687.3,-361.7,-376.6,-318.4,-327.8,-136.0,-142.0,-167.8,-180.1,-85.32,-121.4,-96.83,-122.3,-67.94,-81.42,0,0,0,0,0,0,0,0,0,0,0,0,0,0,0,0,
14,-673.9,-678.9,-339.3,-373.9,-297.3,-305.2,-78.68,-126.8,-140.2,-151.8,-49.68,-100.3,-60.78,-93.65,-53.51,-72.56,0,0,0,0,0,0,0,0,0,0,0,0,0,0,0,0,
15,-674.7,-684.0,-302.1,-380.3,-284.3,-298.7,-47.88,-82.96,-104.9,-121.0,-19.84,-84.56,-40.7,-78.04,-17.9,-43.08,0,0,0,0,0,0,0,0,0,0,0,0,0,0,0,0,
16,-688.9,-704.6,-323.7,-381.5,-298.6,-318.6,-62.15,-78.73,-104.7,-134.2,-15.07,-72.55,-39.81,-72.99,17.84,-10.87,0,0,0,0,0,0,0,0,0,0,0,0,0,0,0,0,
17,-710.7,-709.3,-351.1,-377.5,-302.3,-318.2,-72.83,-88.61,-118.4,-124.8,2.707,-51.33,-18.62,-46.15,45.94,19.96,0,0,0,0,0,0,0,0,0,0,0,0,0,0,0,0,
18,-726.1,-713.4,-318.7,-376.8,-278.4,-301.5,-50.6,-56.64,-102.3,-94.38,25.09,-37.65,3.0,-23.91,59.54,42.17,0,0,0,0,0,0,0,0,0,0,0,0,0,0,0,0,
19,-726.6,-720.8,-299.4,-369.0,-269.5,-299.9,-45.11,-42.84,-75.39,-93.77,4.597,-44.02,-15.2,-37.98,43.48,36.67,0,0,0,0,0,0,0,0,0,0,0,0,0,0,0,0,
20,-732.1,-723.0,-339.5,-376.8,-295.4,-312.7,-82.15,-91.98,-85.12,-108.4,-40.06,-64.88,-53.52,-67.42,0.2769,1.246,0,0,0,0,0,0,0,0,0,0,0,0,0,0,0,0,
21,-762.2,-739.4,-380.4,-403.2,-326.6,-340.5,-104.3,-126.4,-121.0,-125.6,-65.83,-88.36,-81.16,-91.43,-43.96,-41.53,0,0,0,0,0,0,0,0,0,0,0,0,0,0,0,0,
22,-788.2,-766.0,-391.5,-411.5,-351.1,-376.5,-105.0,-115.1,-149.2,-162.1,-79.95,-105.8,-99.41,-111.8,-67.07,-68.98,0,0,0,0,0,0,0,0,0,0,0,0,0,0,0,0,
23,-780.9,-770.3,-389.6,-422.3,-370.9,-387.8,-123.2,-122.7,-164.2,-191.7,-88.91,-113.0,-105.7,-118.6,-67.14,-74.04,0,0,0,0,0,0,0,0,0,0,0,0,0,0,0,0,
24,-773.4,-768.2,-396.4,-459.2,-375.9,-385.9,-140.0,-157.2,-169.2,-183.3,-92.62,-112.1,-107.6,-117.7,-60.75,-67.91,0,0,0,0,0,0,0,0,0,0,0,0,0,0,0,0,
25,-788.8,-785.0,-414.2,-474.7,-376.2,-408.3,-137.0,-164.1,-180.3,-181.3,-102.0,-110.1,-120.0,-127.6,-64.55,-66.66,0,0,0,0,0,0,0,0,0,0,0,0,0,0,0,0,
26,-781.9,-778.6,-412.5,-454.7,-376.6,-421.4,-125.9,-133.1,-195.6,-201.9,-97.44,-102.4,-116.5,-125.1,-69.02,-65.22,0,0,0,0,0,0,0,0,0,0,0,0,0,0,0,0,
27,-745.0,-742.1,-399.5,-438.1,-367.8,-399.4,-117.6,-110.3,-185.3,-186.1,-79.78,-94.15,-95.74,-107.3,-59.93,-53.84,0,0,0,0,0,0,0,0,0,0,0,0,0,0,0,0,
28,-740.2,-740.0,-419.8,-428.4,-376.3,-394.3,-129.1,-124.4,-178.8,-160.5,-92.56,-106.7,-106.3,-117.9,-55.07,-50.58,0,0,0,0,0,0,0,0,0,0,0,0,0,0,0,0,
29,-763.5,-755.2,-455.7,-421.2,-406.1,-411.7,-153.3,-141.2,-209.2,-186.9,-123.4,-124.1,-136.0,-142.3,-72.53,-68.74,0,0,0,0,0,0,0,0,0,0,0,0,0,0,0,0,
30,-751.4,-734.9,-465.7,-430.9,-413.4,-410.8,-171.7,-133.9,-227.2,-208.5,-134.2,-121.1,-142.2,-142.2,-95.86,-86.58,0,0,0,0,0,0,0,0,0,0,0,0,0,0,0,0,
31,-719.5,-714.3,-456.1,-441.1,-404.3,-407.8,-174.1,-132.8,-216.3,-191.8,-129.9,-115.3,-134.9,-136.4,-103.6,-86.83,0,0,0,0,0,0,0,0,0,0,0,0,0,0,0,0,
32,-718.5,-709.5,-440.8,-435.9,-401.5,-417.8,-155.3,-145.2,-213.0,-188.3,-113.0,-115.5,-124.2,-134.0,-94.7,-78.12,0,0,0,0,0,0,0,0,0,0,0,0,0,0,0,0,
33,-726.0,-698.8,-428.9,-439.6,-391.8,-421.5,-158.1,-145.8,-209.6,-198.9,-94.88,-109.6,-111.6,-122.6,-80.71,-70.55,0,0,0,0,0,0,0,0,0,0,0,0,0,0,0,0,
34,-711.4,-701.5,-437.3,-454.3,-383.3,-417.7,-182.7,-136.7,-199.6,-192.8,-95.85,-102.8,-108.9,-112.2,-71.42,-65.73,0,0,0,0,0,0,0,0,0,0,0,0,0,0,0,0,
35,-691.9,-704.4,-447.7,-445.6,-378.0,-404.7,-159.8,-116.1,-194.9,-171.6,-89.71,-97.02,-99.22,-102.4,-61.65,-59.02,0,0,0,0,0,0,0,0,0,0,0,0,0,0,0,0,
36,-677.2,-682.8,-423.3,-424.5,-363.8,-388.7,-128.9,-97.66,-183.4,-152.1,-67.53,-93.53,-78.3,-91.33,-45.13,-46.35,0,0,0,0,0,0,0,0,0,0,0,0,0,0,0,0,
37,-666.0,-670.6,-389.4,-432.1,-364.4,-395.4,-142.0,-123.7,-175.0,-156.4,-65.03,-101.1,-76.13,-96.8,-34.0,-36.94,0,0,0,0,0,0,0,0,0,0,0,0,0,0,0,0,
38,-658.3,-664.7,-388.4,-443.2,-369.6,-405.7,-132.2,-156.7,-178.4,-175.0,-70.41,-104.1,-78.74,-104.7,-34.93,-37.99,0,0,0,0,0,0,0,0,0,0,0,0,0,0,0,0,
39,-644.5,-640.9,-393.4,-423.9,-349.9,-390.2,-111.7,-139.7,-164.4,-172.8,-55.68,-90.68,-61.04,-89.49,-33.62,-37.26,0,0,0,0,0,0,0,0,0,0,0,0,0,0,0,0,
40,-632.8,-636.8,-379.5,-420.3,-344.1,-379.8,-132.2,-119.0,-145.7,-150.9,-42.68,-80.02,-47.9,-72.29,-22.09,-25.81,0,0,0,0,0,0,0,0,0,0,0,0,0,0,0,0,
41,-629.8,-650.3,-373.8,-437.8,-357.4,-385.8,-131.5,-120.5,-150.2,-136.2,-41.64,-77.32,-45.03,-69.36,-7.24,-11.62,0,0,0,0,0,0,0,0,0,0,0,0,0,0,0,0,
42,-619.6,-628.5,-376.8,-417.7,-342.8,-375.5,-111.9,-111.5,-146.6,-137.3,-37.49,-76.75,-32.02,-62.3,3.534,-2.012,0,0,0,0,0,0,0,0,0,0,0,0,0,0,0,0,
43,-608.6,-592.8,-367.7,-393.3,-321.0,-357.6,-128.8,-107.2,-125.4,-141.3,-35.42,-81.0,-23.94,-54.51,5.867,2.052,0,0,0,0,0,0,0,0,0,0,0,0,0,0,0,0,
44,-596.6,-586.2,-357.3,-410.5,-323.1,-355.4,-131.9,-115.5,-120.4,-139.9,-38.36,-79.42,-29.54,-57.6,4.695,3.001,0,0,0,0,0,0,0,0,0,0,0,0,0,0,0,0,
45,-570.2,-583.0,-360.5,-417.7,-327.9,-353.9,-112.3,-112.7,-129.7,-142.6,-37.49,-70.01,-27.96,-55.91,10.0,5.778,0,0,0,0,0,0,0,0,0,0,0,0,0,0,0,0,
46,-562.9,-567.7,-369.6,-400.5,-325.6,-343.7,-113.3,-109.9,-131.9,-141.6,-33.64,-69.34,-19.59,-47.01,17.04,9.632,0,0,0,0,0,0,0,0,0,0,0,0,0,0,0,0,
47,-581.1,-563.7,-368.1,-391.1,-317.8,-333.1,-106.2,-105.8,-120.4,-120.6,-28.43,-73.42,-17.1,-46.57,15.43,10.05,0,0,0,0,0,0,0,0,0,0,0,0,0,0,0,0,
48,-576.4,-559.6,-357.2,-382.8,-308.1,-328.5,-106.4,-95.52,-105.3,-110.8,-25.89,-75.35,-20.62,-52.66,7.743,6.331,0,0,0,0,0,0,0,0,0,0,0,0,0,0,0,0,
49,-551.2,-537.6,-350.6,-381.6,-302.9,-325.7,-133.8,-106.7,-102.9,-124.0,-27.69,-74.82,-23.06,-51.04,1.35,1.542,0,0,0,0,0,0,0,0,0,0,0,0,0,0,0,0,
50,-536.3,-522.3,-340.4,-387.6,-290.2,-306.6,-114.8,-109.5,-97.89,-108.4,-22.11,-58.34,-14.51,-37.23,1.716,2.888,0,0,0,0,0,0,0,0,0,0,0,0,0,0,0,0,
51,-534.7,-524.9,-329.8,-370.1,-275.6,-286.4,-75.3,-77.33,-81.72,-78.94,-15.99,-43.72,-6.788,-29.64,7.166,8.938,0,0,0,0,0,0,0,0,0,0,0,0,0,0,0,0,
52,-536.9,-523.1,-336.6,-348.4,-274.1,-291.3,-82.33,-84.27,-82.68,-86.31,-19.78,-55.44,-9.619,-34.59,6.851,7.429,0,0,0,0,0,0,0,0,0,0,0,0,0,0,0,0,
53,-515.8,-503.5,-329.4,-350.9,-262.2,-283.8,-64.34,-121.6,-84.97,-79.94,-12.4,-56.49,2.341,-24.55,4.543,4.67,0,0,0,0,0,0,0,0,0,0,0,0,0,0,0,0,
54,-486.7,-472.2,-291.8,-352.8,-236.5,-254.9,-26.24,-86.21,-60.12,-47.33,4.7,-31.9,22.0,-7.428,14.55,16.62,0,0,0,0,0,0,0,0,0,0,0,0,0,0,0,0,
55,-499.4,-459.9,-279.2,-346.8,-228.4,-258.8,-51.55,-33.91,-46.3,-64.9,6.135,-22.47,14.6,-13.68,28.01,32.44,0,0,0,0,0,0,0,0,0,0,0,0,0,0,0,0,
56,-512.3,-486.3,-294.5,-348.3,-234.6,-274.6,-76.29,-58.75,-59.29,-91.42,1.548,-27.91,-3.23,-22.92,28.07,33.14,0,0,0,0,0,0,0,0,0,0,0,0,0,0,0,0,
57,-478.9,-504.2,-281.4,-345.7,-237.9,-263.5,-52.43,-79.14,-66.77,-62.96,-1.385,-31.85,-13.56,-27.61,16.42,18.9,0,0,0,0,0,0,0,0,0,0,0,0,0,0,0,0,
58,-467.8,-484.1,-264.2,-333.9,-246.1,-269.0,-44.56,-53.2,-75.74,-62.23,-12.62,-45.61,-29.92,-49.7,0.0668,-1.465,0,0,0,0,0,0,0,0,0,0,0,0,0,0,0,0,
59,-502.5,-477.0,-287.9,-334.4,-265.0,-299.0,-66.33,-66.03,-101.0,-111.2,-24.34,-58.91,-47.62,-70.14,-18.17,-19.96,0,0,0,0,0,0,0,0,0,0,0,0,0,0,0,0,
60,-513.1,-497.9,-313.5,-357.3,-289.9,-314.0,-95.2,-111.1,-125.0,-126.3,-39.88,-64.99,-64.97,-79.94,-38.11,-34.61,0,0,0,0,0,0,0,0,0,0,0,0,0,0,0,0,
61,-499.5,-499.9,-314.4,-380.7,-311.9,-323.0,-108.1,-125.1,-141.4,-130.1,-60.51,-76.43,-82.21,-96.1,-55.38,-46.16,0,0,0,0,0,0,0,0,0,0,0,0,0,0,0,0,
62,-502.5,-484.8,-312.1,-380.9,-319.4,-339.1,-94.71,-124.1,-153.9,-164.2,-62.81,-80.93,-83.31,-105.3,-56.41,-48.45,0,0,0,0,0,0,0,0,0,0,0,0,0,0,0,0,
63,-504.8,-486.4,-308.5,-373.6,-316.2,-348.9,-105.0,-126.4,-162.7,-179.7,-57.97,-76.17,-81.96,-106.6,-44.51,-43.57,0,0,0,0,0,0,0,0,0,0,0,0,0,0,0,0,
64,-495.1,-492.4,-307.8,-380.8,-318.2,-349.1,-131.8,-120.5,-171.9,-175.7,-69.4,-81.5,-92.31,-111.6,-43.71,-45.47,0,0,0,0,0,0,0,0,0,0,0,0,0,0,0,0,
65,-486.4,-484.9,-315.3,-383.3,-327.7,-342.6,-118.2,-112.9,-175.4,-175.2,-81.89,-89.85,-94.97,-103.9,-57.4,-55.44,0,0,0,0,0,0,0,0,0,0,0,0,0,0,0,0,
66,-476.8,-477.4,-316.8,-363.3,-328.5,-333.3,-102.7,-106.4,-170.0,-152.1,-85.43,-88.08,-88.92,-87.58,-64.88,-60.15,0,0,0,0,0,0,0,0,0,0,0,0,0,0,0,0,
67,-471.9,-470.2,-320.2,-342.8,-308.2,-319.0,-110.2,-104.8,-162.4,-125.9,-79.32,-79.16,-78.78,-78.15,-54.39,-50.23,0,0,0,0,0,0,0,0,0,0,0,0,0,0,0,0,
68,-470.0,-451.1,-319.2,-340.7,-280.9,-298.1,-105.2,-111.3,-148.4,-114.5,-65.58,-65.14,-60.85,-63.97,-36.88,-32.9,0,0,0,0,0,0,0,0,0,0,0,0,0,0,0,0,
69,-448.7,-429.8,-290.4,-336.9,-267.3,-284.7,-103.6,-95.71,-132.3,-85.98,-65.75,-51.38,-54.1,-49.64,-31.98,-24.67,0,0,0,0,0,0,0,0,0,0,0,0,0,0,0,0,
70,-419.4,-413.7,-269.6,-310.2,-263.3,-279.8,-112.0,-70.47,-127.1,-73.19,-78.26,-49.98,-63.48,-51.39,-41.21,-27.68,0,0,0,0,0,0,0,0,0,0,0,0,0,0,0,0,
71,-413.4,-404.4,-282.0,-291.2,-262.8,-277.8,-114.1,-85.17,-127.5,-104.3,-84.24,-60.05,-69.23,-57.53,-51.51,-32.33,0,0,0,0,0,0,0,0,0,0,0,0,0,0,0,0,
72,-421.1,-411.9,-283.1,-302.6,-265.8,-280.9,-114.3,-91.33,-128.2,-114.2,-83.38,-57.19,-61.81,-47.8,-54.57,-31.56,0,0,0,0,0,0,0,0,0,0,0,0,0,0,0,0,
73,-415.4,-416.7,-259.8,-305.3,-255.4,-270.6,-93.53,-55.56,-120.0,-86.51,-74.1,-38.26,-43.7,-26.45,-45.62,-21.03,0,0,0,0,0,0,0,0,0,0,0,0,0,0,0,0,
74,-395.7,-400.1,-242.9,-289.2,-227.1,-246.3,-74.03,-62.84,-96.93,-66.16,-66.73,-35.96,-32.28,-15.93,-33.3,-10.48,0,0,0,0,0,0,0,0,0,0,0,0,0,0,0,0,
75,-374.3,-383.5,-231.7,-282.1,-201.4,-232.0,-85.66,-92.15,-80.64,-53.58,-64.92,-41.64,-27.05,-13.06,-29.28,-8.987,0,0,0,0,0,0,0,0,0,0,0,0,0,0,0,0,
76,-356.9,-363.6,-210.1,-262.2,-187.2,-218.9,-73.99,-51.12,-68.91,-44.46,-45.64,-26.19,-9.607,-2.85,-19.63,-0.6667,0,0,0,0,0,0,0,0,0,0,0,0,0,0,0,0,
77,-352.2,-335.5,-197.0,-231.7,-188.3,-205.8,-59.65,-19.58,-51.63,-47.29,-31.65,-16.29,-6.051,-1.481,-1.894,15.32,0,0,0,0,0,0,0,0,0,0,0,0,0,0,0,0,
78,-358.1,-335.2,-212.5,-239.3,-199.0,-210.3,-91.5,-63.2,-61.79,-40.3,-50.8,-28.08,-28.93,-12.67,-2.861,13.0,0,0,0,0,0,0,0,0,0,0,0,0,0,0,0,0,
79,-356.3,-354.8,-226.1,-263.3,-198.1,-216.7,-86.89,-83.5,-87.83,-25.63,-66.1,-40.29,-40.62,-23.12,-22.65,-7.695,0,0,0,0,0,0,0,0,0,0,0,0,0,0,0,0,
80,-357.4,-365.9,-222.2,-267.4,-201.3,-224.8,-50.62,-48.12,-89.7,-51.05,-66.98,-51.07,-45.44,-40.56,-36.88,-24.72,0,0,0,0,0,0,0,0,0,0,0,0,0,0,0,0,
81,-373.8,-378.5,-232.4,-266.9,-223.4,-245.5,-75.7,-26.96,-93.45,-102.1,-69.21,-49.22,-53.93,-45.28,-36.34,-26.59,0,0,0,0,0,0,0,0,0,0,0,0,0,0,0,0,
82,-370.4,-371.0,-242.2,-258.3,-224.4,-243.1,-98.57,-44.37,-100.1,-99.98,-53.02,-22.31,-35.62,-14.39,-20.46,-9.892,0,0,0,0,0,0,0,0,0,0,0,0,0,0,0,0,
83,-346.3,-340.1,-225.3,-247.7,-205.9,-218.1,-64.08,-71.08,-77.1,-53.49,-31.72,-0.5788,-8.691,7.832,0.968,12.81,0,0,0,0,0,0,0,0,0,0,0,0,0,0,0,0,
84,-347.8,-340.0,-216.9,-259.6,-212.5,-222.8,-49.94,-66.74,-60.24,-45.06,-37.49,-3.393,-11.31,-6.09,7.813,19.2,0,0,0,0,0,0,0,0,0,0,0,0,0,0,0,0,
85,-354.7,-349.9,-222.9,-265.1,-223.3,-243.6,-74.17,-46.7,-73.42,-73.39,-46.51,-14.59,-20.9,-18.56,-0.9746,9.95,0,0,0,0,0,0,0,0,0,0,0,0,0,0,0,0,
86,-334.7,-332.0,-223.4,-252.4,-213.9,-241.3,-81.55,-59.31,-80.0,-82.67,-38.33,-20.49,-16.8,-14.26,-10.0,1.319,0,0,0,0,0,0,0,0,0,0,0,0,0,0,0,0,
87,-328.8,-337.0,-232.6,-256.6,-215.9,-244.0,-61.45,-73.37,-74.89,-73.46,-31.77,-19.1,-17.1,-15.0,-13.06,-1.781,0,0,0,0,0,0,0,0,0,0,0,0,0,0,0,0,
88,-338.8,-357.7,-226.0,-269.1,-229.8,-267.7,-47.98,-63.2,-81.23,-75.46,-33.59,-19.86,-29.77,-28.09,-13.25,-3.872,0,0,0,0,0,0,0,0,0,0,0,0,0,0,0,0,
89,-320.7,-336.7,-189.3,-264.0,-230.5,-275.7,-59.78,-67.82,-100.4,-92.18,-38.93,-31.18,-45.2,-46.35,-15.49,-10.33,0,0,0,0,0,0,0,0,0,0,0,0,0,0,0,0,
90,-303.7,-314.9,-189.3,-246.2,-232.3,-268.0,-79.6,-63.95,-121.8,-114.3,-54.58,-44.45,-59.9,-62.61,-23.84,-23.32,0,0,0,0,0,0,0,0,0,0,0,0,0,0,0,0,
91,-311.5,-317.1,-220.7,-225.3,-241.5,-264.9,-94.45,-38.76,-134.8,-132.9,-73.72,-49.03,-68.19,-63.25,-33.67,-34.78,0,0,0,0,0,0,0,0,0,0,0,0,0,0,0,0,
92,-299.9,-296.3,-210.7,-216.2,-235.5,-249.0,-98.38,-54.86,-130.1,-125.0,-73.65,-47.6,-60.64,-45.49,-35.38,-33.14,0,0,0,0,0,0,0,0,0,0,0,0,0,0,0,0,
93,-279.3,-273.1,-191.1,-213.2,-218.5,-222.0,-92.35,-79.93,-116.0,-92.82,-63.51,-46.54,-53.57,-35.95,-31.08,-21.64,0,0,0,0,0,0,0,0,0,0,0,0,0,0,0,0,
94,-282.0,-275.5,-201.8,-192.9,-208.8,-208.6,-90.17,-51.05,-118.7,-85.06,-64.97,-43.62,-61.39,-44.56,-29.26,-14.76,0,0,0,0,0,0,0,0,0,0,0,0,0,0,0,0,
95,-269.9,-259.5,-194.6,-174.4,-196.9,-202.3,-77.43,-31.48,-131.5,-101.6,-65.55,-44.19,-62.33,-49.63,-29.2,-18.7,0,0,0,0,0,0,0,0,0,0,0,0,0,0,0,0,
96,-240.8,-231.4,-172.9,-185.9,-184.2,-199.6,-61.6,-57.31,-125.4,-101.0,-59.43,-57.98,-53.14,-51.57,-27.77,-27.88,0,0,0,0,0,0,0,0,0,0,0,0,0,0,0,0,
97,-237.0,-233.1,-175.9,-204.0,-184.2,-203.5,-74.27,-68.65,-113.8,-97.01,-52.1,-62.96,-45.75,-54.53,-21.19,-29.28,0,0,0,0,0,0,0,0,0,0,0,0,0,0,0,0,
98,-237.9,-243.6,-172.8,-204.6,-174.1,-196.4,-75.44,-61.56,-107.3,-98.44,-30.44,-45.0,-26.45,-43.34,-4.651,-13.85,0,0,0,0,0,0,0,0,0,0,0,0,0,0,0,0,
99,-225.4,-245.7,-154.2,-204.1,-150.7,-188.4,-55.87,-77.56,-92.06,-87.06,-11.97,-36.7,-12.31,-34.38,10.03,3.451,0,0,0,0,0,0,0,0,0,0,0,0,0,0,0,0,
100,-229.6,-250.8,-157.0,-211.6,-159.6,-197.7,-68.19,-91.97,-87.52,-88.22,-24.07,-46.99,-29.76,-47.22,6.183,0.2881,0,0,0,0,0,0,0,0,0,0,0,0,0,0,0,0,
101,-251.9,-248.6,-174.4,-211.2,-191.1,-201.5,-82.69,-72.65,-101.2,-102.7,-40.51,-48.83,-45.03,-55.28,-10.02,-15.77,0,0,0,0,0,0,0,0,0,0,0,0,0,0,0,0,
102,-264.1,-240.7,-181.0,-207.5,-186.3,-191.5,-65.02,-53.24,-103.5,-90.99,-38.32,-41.45,-37.2,-43.2,-21.04,-20.16,0,0,0,0,0,0,0,0,0,0,0,0,0,0,0,0,
103,-254.2,-241.8,-173.6,-207.6,-160.9,-190.6,-43.24,-49.87,-92.72,-71.78,-27.53,-34.29,-28.79,-29.66,-15.29,-7.123,0,0,0,0,0,0,0,0,0,0,0,0,0,0,0,0,
104,-242.3,-246.6,-166.7,-198.6,-170.9,-201.5,-37.26,-46.45,-84.09,-74.36,-16.45,-25.75,-23.8,-23.37,6.039,11.05,0,0,0,0,0,0,0,0,0,0,0,0,0,0,0,0,
105,-250.3,-255.2,-177.0,-191.8,-197.3,-208.9,-71.07,-51.28,-82.58,-72.1,-14.76,-20.19,-20.91,-22.35,24.9,22.81,0,0,0,0,0,0,0,0,0,0,0,0,0,0,0,0,
106,-257.9,-263.7,-183.7,-196.9,-198.7,-207.4,-108.8,-44.29,-90.46,-62.65,-20.96,-20.11,-26.01,-30.03,28.76,24.48,0,0,0,0,0,0,0,0,0,0,0,0,0,0,0,0,
107,-254.3,-257.5,-178.1,-194.0,-201.7,-207.4,-86.92,-28.54,-101.6,-81.41,-27.4,-25.23,-33.71,-44.14,22.68,18.21,0,0,0,0,0,0,0,0,0,0,0,0,0,0,0,0,
108,-264.6,-252.6,-199.7,-190.5,-224.5,-211.2,-69.39,-65.37,-114.6,-103.9,-41.64,-28.89,-41.27,-49.32,11.24,10.1,0,0,0,0,0,0,0,0,0,0,0,0,0,0,0,0,
109,-280.3,-259.5,-228.0,-191.9,-230.1,-204.7,-94.89,-99.56,-125.3,-85.22,-50.23,-17.27,-43.11,-39.92,1.429,8.121,0,0,0,0,0,0,0,0,0,0,0,0,0,0,0,0,
110,-278.1,-255.7,-209.7,-182.1,-217.1,-193.5,-93.22,-55.14,-121.0,-65.98,-35.04,-4.239,-31.83,-32.93,5.688,13.84,0,0,0,0,0,0,0,0,0,0,0,0,0,0,0,0,
111,-263.1,-247.3,-185.7,-178.5,-215.8,-192.3,-80.76,-21.07,-111.1,-77.77,-21.61,-9.57,-22.8,-34.9,18.42,19.4,0,0,0,0,0,0,0,0,0,0,0,0,0,0,0,0,
112,-252.7,-250.2,-205.0,-181.6,-222.6,-195.5,-102.5,-41.69,-112.8,-79.23,-31.31,-16.44,-32.41,-37.89,19.87,16.17,0,0,0,0,0,0,0,0,0,0,0,0,0,0,0,0,
113,-263.7,-246.2,-226.7,-174.0,-225.4,-199.2,-109.7,-50.99,-122.3,-75.87,-40.46,-12.26,-42.55,-39.27,10.22,5.568,0,0,0,0,0,0,0,0,0,0,0,0,0,0,0,0,
114,-265.3,-235.4,-210.9,-180.2,-214.0,-196.9,-77.78,-43.12,-119.0,-82.65,-22.7,-4.242,-24.53,-25.8,11.81,3.276,0,0,0,0,0,0,0,0,0,0,0,0,0,0,0,0,
115,-228.3,-230.2,-179.3,-183.2,-182.9,-180.6,-50.71,-31.06,-91.43,-62.76,4.979,5.576,4.844,-1.254,30.28,17.98,0,0,0,0,0,0,0,0,0,0,0,0,0,0,0,0,
116,-210.6,-216.5,-164.3,-151.4,-159.5,-165.5,-54.77,-23.11,-68.38,-42.5,9.023,7.95,9.321,2.266,43.01,31.59,0,0,0,0,0,0,0,0,0,0,0,0,0,0,0,0,
117,-221.9,-194.5,-162.0,-136.8,-148.8,-155.0,-56.92,-35.74,-66.07,-48.89,2.809,2.102,7.562,-1.731,42.55,30.68,0,0,0,0,0,0,0,0,0,0,0,0,0,0,0,0,
118,-191.2,-172.8,-146.3,-149.4,-125.8,-136.3,-35.56,-33.28,-52.67,-30.01,10.15,0.3853,20.89,11.74,44.89,27.52,0,0,0,0,0,0,0,0,0,0,0,0,0,0,0,0,
119,-148.6,-151.4,-118.0,-141.7,-111.3,-126.3,-31.99,-21.11,-33.83,-5.803,12.06,-6.445,18.61,12.0,47.96,27.39,0,0,0,0,0,0,0,0,0,0,0,0,0,0,0,0,
120,-155.9,-151.8,-104.9,-140.6,-122.3,-138.3,-43.18,-42.62,-40.1,-24.74,8.944,-16.17,5.625,0.4595,44.87,26.82,0,0,0,0,0,0,0,0,0,0,0,0,0,0,0,0,
121,-167.1,-172.1,-109.5,-158.8,-123.6,-150.2,-24.09,-50.15,-45.32,-37.27,22.18,-5.688,18.35,13.74,50.5,33.97,0,0,0,0,0,0,0,0,0,0,0,0,0,0,0,0,
122,-152.6,-173.7,-110.0,-154.6,-109.1,-148.3,-4.981,-21.02,-29.31,-32.09,31.37,11.35,34.48,28.17,64.36,46.73,0,0,0,0,0,0,0,0,0,0,0,0,0,0,0,0,
123,-148.0,-161.7,-107.8,-148.5,-105.0,-138.9,-14.09,-9.863,-18.51,-45.82,23.46,14.32,31.02,25.36,66.46,51.08,0,0,0,0,0,0,0,0,0,0,0,0,0,0,0,0,
124,-154.7,-157.4,-113.3,-159.1,-105.1,-122.9,-28.95,-11.24,-19.59,-38.54,20.92,15.01,32.0,35.23,58.98,49.61,0,0,0,0,0,0,0,0,0,0,0,0,0,0,0,0,
125,-148.6,-145.4,-112.2,-146.2,-97.71,-102.1,-42.57,-8.381,-18.42,-1.979,27.54,17.13,40.33,50.23,56.86,51.67,0,0,0,0,0,0,0,0,0,0,0,0,0,0,0,0,
126,-126.7,-128.5,-96.22,-122.3,-92.11,-92.18,-27.34,-21.11,-12.79,1.378,33.98,14.81,41.69,48.49,62.15,57.14,0,0,0,0,0,0,0,0,0,0,0,0,0,0,0,0,
127,-107.6,-129.2,-79.53,-131.9,-86.37,-99.13,19.75,-32.21,-3.791,-14.73,38.62,11.09,40.79,44.67,67.54,61.3,0,0,0,0,0,0,0,0,0,0,0,0,0,0,0,0,
128,-106.6,-131.1,-68.93,-144.3,-76.11,-102.2,28.4,-37.44,1.115,-7.548,36.94,4.593,35.12,39.63,62.99,55.5,0,0,0,0,0,0,0,0,0,0,0,0,0,0,0,0,
129,-111.2,-116.9,-71.61,-127.7,-79.76,-97.49,-2.95,-46.95,-9.666,-8.832,25.99,-2.269,19.97,22.92,47.32,38.17,0,0,0,0,0,0,0,0,0,0,0,0,0,0,0,0,
130,-117.6,-116.8,-95.63,-124.5,-101.1,-109.2,-19.7,-29.05,-29.13,-38.75,7.575,-3.002,7.266,8.988,30.04,21.74,0,0,0,0,0,0,0,0,0,0,0,0,0,0,0,0,
131,-138.8,-135.6,-112.7,-142.9,-109.3,-123.7,-30.9,-8.653,-39.0,-57.27,-6.654,-2.828,0.8878,6.087,16.6,13.9,0,0,0,0,0,0,0,0,0,0,0,0,0,0,0,0,
132,-151.3,-138.8,-106.4,-138.4,-102.8,-115.7,-39.14,-32.78,-39.36,-40.95,-8.822,-8.181,-7.149,1.81,6.879,9.674,0,0,0,0,0,0,0,0,0,0,0,0,0,0,0,0,
133,-144.3,-144.5,-114.7,-133.0,-114.3,-121.4,-31.27,-43.57,-48.36,-28.18,-15.61,-17.77,-16.06,-8.787,-1.329,2.997,0,0,0,0,0,0,0,0,0,0,0,0,0,0,0,0,
134,-152.1,-165.7,-140.8,-151.5,-132.6,-148.1,-34.23,-19.97,-65.96,-51.78,-26.86,-24.5,-19.43,-14.44,-7.13,-3.584,0,0,0,0,0,0,0,0,0,0,0,0,0,0,0,0,
135,-167.1,-154.0,-146.4,-145.8,-131.1,-139.5,-48.84,-27.42,-71.67,-65.05,-22.3,-21.47,-18.22,-8.641,-2.8,-1.931,0,0,0,0,0,0,0,0,0,0,0,0,0,0,0,0,
136,-159.3,-127.2,-141.2,-121.2,-129.0,-111.8,-59.21,-43.33,-70.47,-38.6,-15.78,-14.26,-17.27,-2.623,8.908,6.186,0,0,0,0,0,0,0,0,0,0,0,0,0,0,0,0,
137,-146.5,-133.6,-140.9,-121.7,-129.1,-114.6,-73.66,-26.06,-78.06,-24.28,-22.84,-14.79,-17.67,-4.051,13.95,10.02,0,0,0,0,0,0,0,0,0,0,0,0,0,0,0,0,
138,-143.4,-133.2,-127.5,-123.9,-114.7,-112.3,-78.96,-21.62,-79.63,-29.38,-29.94,-22.73,-18.94,-5.462,9.222,6.314,0,0,0,0,0,0,0,0,0,0,0,0,0,0,0,0,
139,-139.0,-111.2,-111.4,-114.5,-103.0,-87.41,-66.65,-33.15,-66.77,-20.03,-29.36,-23.58,-15.94,-1.265,2.591,0.4972,0,0,0,0,0,0,0,0,0,0,0,0,0,0,0,0,
140,-131.8,-103.9,-112.0,-111.5,-101.6,-84.59,-54.2,-26.87,-54.33,-13.71,-21.54,-16.01,-9.125,1.645,0.7797,-2.376,0,0,0,0,0,0,0,0,0,0,0,0,0,0,0,0,
141,-123.7,-108.8,-120.4,-117.9,-104.6,-103.5,-46.61,-29.46,-51.58,-26.26,-18.66,-19.79,-15.61,-7.302,1.227,-5.53,0,0,0,0,0,0,0,0,0,0,0,0,0,0,0,0,
142,-114.9,-116.4,-120.0,-135.0,-108.8,-106.5,-42.63,-41.91,-56.24,-39.76,-22.61,-23.24,-22.44,-10.52,0.7308,-10.01,0,0,0,0,0,0,0,0,0,0,0,0,0,0,0,0,
143,-100.8,-109.7,-91.43,-129.0,-85.01,-82.62,-28.41,-25.47,-43.29,-26.28,-0.4219,1.891,2.649,16.82,12.69,0.933,0,0,0,0,0,0,0,0,0,0,0,0,0,0,0,0,
144,-82.39,-81.97,-57.05,-89.07,-46.57,-56.22,-0.5371,-0.3955,-6.245,12.2,37.07,28.86,31.31,44.77,40.4,31.96,0,0,0,0,0,0,0,0,0,0,0,0,0,0,0,0,
145,-73.17,-68.73,-52.55,-75.6,-34.45,-48.13,16.67,8.184,14.52,22.93,57.12,38.9,42.49,51.11,66.31,61.85,0,0,0,0,0,0,0,0,0,0,0,0,0,0,0,0,
146,-64.54,-53.66,-37.18,-75.37,-15.7,-35.77,40.89,29.38,23.64,15.33,88.47,57.61,70.31,64.67,91.33,83.98,0,0,0,0,0,0,0,0,0,0,0,0,0,0,0,0,
147,-47.82,-21.06,-7.504,-49.82,5.647,-19.4,76.65,50.69,45.11,32.92,112.8,60.02,82.41,63.24,109.7,94.5,0,0,0,0,0,0,0,0,0,0,0,0,0,0,0,0,
148,-45.67,-32.2,-32.39,-54.99,-30.36,-35.7,64.91,23.5,34.16,22.68,71.12,21.02,35.36,15.7,86.59,69.69,0,0,0,0,0,0,0,0,0,0,0,0,0,0,0,0,
149,-59.78,-67.92,-71.01,-82.49,-70.76,-58.66,21.0,-13.29,-10.77,-22.46,16.76,-9.634,-6.483,-21.51,29.93,18.66,0,0,0,0,0,0,0,0,0,0,0,0,0,0,0,0,
150,-64.18,-61.66,-58.37,-71.25,-58.5,-55.62,2.326,-9.943,-28.48,-28.14,6.804,-14.45,-9.972,-20.49,-10.3,-15.92,0,0,0,0,0,0,0,0,0,0,0,0,0,0,0,0,
151,-56.98,-51.46,-54.7,-68.7,-55.69,-60.24,-15.86,-12.21,-30.77,-16.72,1.702,-16.91,-20.01,-18.98,-21.54,-21.4,0,0,0,0,0,0,0,0,0,0,0,0,0,0,0,0,
152,-66.0,-67.3,-83.32,-94.66,-81.42,-81.95,-42.91,-27.47,-50.09,-35.2,-13.18,-10.51,-35.22,-22.03,-20.43,-13.32,0,0,0,0,0,0,0,0,0,0,0,0,0,0,0,0,
153,-100.8,-80.29,-90.19,-88.94,-91.25,-92.97,-39.49,-14.28,-64.94,-60.57,-19.08,-5.415,-38.05,-24.56,-16.38,-6.522,0,0,0,0,0,0,0,0,0,0,0,0,0,0,0,0,
154,-110.6,-81.57,-75.81,-68.43,-83.86,-83.59,-15.03,-10.68,-65.77,-66.38,-15.24,-9.42,-34.69,-25.62,-13.38,-7.358,0,0,0,0,0,0,0,0,0,0,0,0,0,0,0,0,
155,-62.41,-60.47,-60.82,-68.72,-67.74,-62.6,-7.327,-25.95,-56.51,-43.5,0.4705,1.786,-20.72,-12.52,-7.214,-6.156,0,0,0,0,0,0,0,0,0,0,0,0,0,0,0,0,
156,-18.6,-29.54,-52.6,-63.34,-52.07,-55.74,-20.54,-16.71,-36.46,-26.69,7.562,8.441,-11.21,-5.657,0.9054,1.496,0,0,0,0,0,0,0,0,0,0,0,0,0,0,0,0,
157,-26.92,-30.77,-62.0,-54.57,-56.38,-63.62,-27.23,-19.45,-27.31,-41.95,-12.59,-11.58,-22.11,-17.17,-3.422,1.364,0,0,0,0,0,0,0,0,0,0,0,0,0,0,0,0,
158,-46.36,-43.26,-66.07,-59.04,-66.9,-58.97,-15.56,-32.57,-38.2,-42.19,-29.96,-19.59,-31.27,-19.37,-19.27,-9.079,0,0,0,0,0,0,0,0,0,0,0,0,0,0,0,0,
159,-46.0,-35.27,-52.94,-55.08,-66.0,-54.13,-10.1,0.2583,-44.96,-26.89,-25.7,-5.362,-28.02,-13.25,-30.2,-16.41,0,0,0,0,0,0,0,0,0,0,0,0,0,0,0,0,
160,-41.15,-35.7,-46.83,-40.81,-61.06,-61.58,-17.63,17.34,-39.8,-34.35,-19.42,-2.461,-25.76,-14.25,-31.56,-17.23,0,0,0,0,0,0,0,0,0,0,0,0,0,0,0,0,
161,-31.13,-44.17,-38.96,-32.76,-54.33,-59.65,-18.27,-17.42,-35.16,-38.94,-22.11,-14.23,-29.37,-18.43,-31.45,-19.21,0,0,0,0,0,0,0,0,0,0,0,0,0,0,0,0,
162,-17.86,-31.18,-30.67,-27.13,-51.75,-57.91,-13.81,-24.28,-32.12,-38.97,-28.31,-25.83,-38.61,-30.93,-37.17,-26.93,0,0,0,0,0,0,0,0,0,0,0,0,0,0,0,0,
163,-34.27,-22.81,-58.87,-28.11,-68.1,-74.77,-25.44,-13.28,-38.91,-60.63,-41.49,-36.75,-58.11,-52.8,-51.26,-39.56,0,0,0,0,0,0,0,0,0,0,0,0,0,0,0,0,
164,-65.02,-38.92,-91.69,-42.9,-95.99,-92.31,-53.61,-32.69,-70.63,-83.12,-64.96,-49.31,-83.51,-71.71,-70.09,-55.82,0,0,0,0,0,0,0,0,0,0,0,0,0,0,0,0,
165,-62.63,-49.43,-81.67,-54.67,-108.3,-97.36,-60.98,-39.7,-100.4,-96.28,-69.15,-55.8,-86.6,-79.54,-77.86,-67.92,0,0,0,0,0,0,0,0,0,0,0,0,0,0,0,0,
166,-48.47,-44.82,-68.69,-44.02,-93.11,-89.7,-33.49,-27.58,-91.54,-96.13,-37.69,-48.78,-60.79,-71.8,-61.31,-62.7,0,0,0,0,0,0,0,0,0,0,0,0,0,0,0,0,
167,-29.68,-22.7,-64.89,-11.8,-68.13,-66.42,-15.9,-25.01,-65.88,-67.79,-16.68,-39.31,-48.17,-58.18,-38.44,-46.51,0,0,0,0,0,0,0,0,0,0,0,0,0,0,0,0,
168,17.47,20.59,-38.72,19.07,-58.7,-41.66,-30.2,-13.3,-60.28,-46.72,-34.67,-42.17,-64.84,-57.45,-38.15,-41.99,0,0,0,0,0,0,0,0,0,0,0,0,0,0,0,0,
169,42.7,49.57,-29.87,38.96,-65.62,-29.56,-51.7,-1.605,-75.21,-59.29,-61.32,-47.22,-82.05,-66.54,-57.19,-52.48,0,0,0,0,0,0,0,0,0,0,0,0,0,0,0,0,
170,61.74,80.65,-34.72,67.69,-57.13,-10.12,-54.05,-2.355,-89.83,-63.18,-66.52,-36.04,-81.41,-62.23,-69.29,-59.64,0,0,0,0,0,0,0,0,0,0,0,0,0,0,0,0,
171,158.5,171.8,25.07,105.3,-12.78,29.22,-23.11,16.24,-78.12,-40.19,-43.56,-24.32,-63.19,-43.71,-60.13,-52.28,0,0,0,0,0,0,0,0,0,0,0,0,0,0,0,0,
172,285.1,285.4,114.4,150.2,40.5,67.35,15.81,39.77,-46.92,-28.2,-13.96,-33.3,-41.81,-36.71,-38.6,-37.93,0,0,0,0,0,0,0,0,0,0,0,0,0,0,0,0,
173,428.0,406.7,183.1,226.4,96.82,117.4,38.95,46.16,-22.41,-25.56,1.713,-32.53,-23.38,-31.32,-18.04,-24.59,0,0,0,0,0,0,0,0,0,0,0,0,0,0,0,0,
174,631.0,581.4,286.2,310.4,184.6,204.2,64.24,61.39,11.15,11.16,12.13,-7.84,-2.931,-6.739,-0.6248,-10.07,0,0,0,0,0,0,0,0,0,0,0,0,0,0,0,0,
175,746.3,710.6,391.4,368.9,268.3,283.8,80.17,77.71,51.35,58.57,11.24,-2.757,-0.0491,5.22,7.313,0.0774,0,0,0,0,0,0,0,0,0,0,0,0,0,0,0,0,
176,707.2,707.1,424.6,431.9,309.3,334.5,77.1,92.84,63.07,69.83,4.706,-5.977,-2.891,5.588,3.679,2.525,0,0,0,0,0,0,0,0,0,0,0,0,0,0,0,0,
177,689.9,686.5,448.8,491.1,346.2,389.3,92.83,131.1,75.99,83.47,26.12,26.45,30.04,37.85,11.12,16.85,0,0,0,0,0,0,0,0,0,0,0,0,0,0,0,0,
178,718.4,704.0,492.4,498.4,380.7,426.4,121.6,152.3,111.6,127.2,50.9,58.0,63.81,71.38,35.43,45.48,0,0,0,0,0,0,0,0,0,0,0,0,0,0,0,0,
179,709.5,704.0,494.6,487.1,384.0,428.5,133.5,140.7,123.1,157.6,46.67,55.31,59.7,67.68,48.16,57.34,0,0,0,0,0,0,0,0,0,0,0,0,0,0,0,0,
180,712.0,706.9,479.1,495.3,385.9,433.9,133.3,144.5,114.2,160.6,42.38,48.74,53.26,57.21,39.75,43.64,0,0,0,0,0,0,0,0,0,0,0,0,0,0,0,0,
181,711.4,703.2,481.9,485.8,395.1,432.4,120.3,145.9,116.5,149.0,46.25,51.04,56.53,54.56,26.62,27.22,0,0,0,0,0,0,0,0,0,0,0,0,0,0,0,0,
182,654.4,645.3,468.6,451.2,394.0,409.5,109.3,120.7,121.7,133.6,46.43,52.12,57.81,52.89,19.84,21.1,0,0,0,0,0,0,0,0,0,0,0,0,0,0,0,0,
183,611.9,584.9,439.7,427.1,398.1,400.4,120.0,116.9,138.6,137.3,52.07,51.57,69.22,59.39,25.18,24.46,0,0,0,0,0,0,0,0,0,0,0,0,0,0,0,0,
184,588.8,550.1,412.3,408.5,394.2,393.9,123.7,146.2,160.1,148.3,56.21,52.2,79.63,67.03,40.26,34.34,0,0,0,0,0,0,0,0,0,0,0,0,0,0,0,0,
185,513.9,497.1,369.6,376.2,356.1,360.5,110.5,162.7,149.4,142.8,54.19,58.86,73.81,70.51,51.26,44.32,0,0,0,0,0,0,0,0,0,0,0,0,0,0,0,0,
186,432.5,435.3,333.0,335.9,315.5,325.6,107.2,145.3,129.2,137.8,60.08,66.42,70.72,77.93,53.13,51.4,0,0,0,0,0,0,0,0,0,0,0,0,0,0,0,0,
187,389.5,380.4,324.1,294.9,297.4,301.6,110.4,122.2,132.7,141.4,69.1,61.6,75.91,79.97,52.16,55.69,0,0,0,0,0,0,0,0,0,0,0,0,0,0,0,0,
188,329.0,305.8,299.6,258.8,277.1,264.3,110.2,113.1,131.7,128.9,67.22,45.66,70.84,63.42,48.85,49.92,0,0,0,0,0,0,0,0,0,0,0,0,0,0,0,0,
189,245.1,220.1,251.0,227.5,242.4,220.7,109.6,82.63,108.6,99.74,58.06,33.68,56.97,43.8,42.25,34.19,0,0,0,0,0,0,0,0,0,0,0,0,0,0,0,0,
190,180.8,154.6,220.4,184.7,208.3,192.5,93.13,33.45,85.23,90.57,49.37,28.94,45.24,36.51,35.55,22.76,0,0,0,0,0,0,0,0,0,0,0,0,0,0,0,0,
191,110.7,98.23,188.0,134.7,172.0,161.2,61.47,36.43,65.51,90.68,32.89,17.07,27.54,24.12,24.1,15.28,0,0,0,0,0,0,0,0,0,0,0,0,0,0,0,0,
192,21.6,30.52,130.7,107.9,130.6,119.0,52.28,80.0,43.1,47.92,12.84,5.398,12.46,8.335,7.726,5.03,0,0,0,0,0,0,0,0,0,0,0,0,0,0,0,0,
193,-33.47,-28.64,94.5,95.19,106.9,96.04,61.75,75.91,33.78,7.142,15.61,9.768,20.34,15.1,1.812,3.249,0,0,0,0,0,0,0,0,0,0,0,0,0,0,0,0,
194,-68.03,-71.45,80.5,64.14,92.45,83.15,50.17,33.02,37.35,27.05,27.58,12.0,26.93,23.43,4.827,8.283,0,0,0,0,0,0,0,0,0,0,0,0,0,0,0,0,
195,-137.6,-121.3,47.69,33.85,63.51,54.89,38.5,32.0,30.17,39.68,21.18,12.05,16.19,15.74,3.03,7.445,0,0,0,0,0,0,0,0,0,0,0,0,0,0,0,0,
196,-200.6,-164.8,23.54,21.64,42.78,33.16,47.23,56.1,20.63,19.59,22.3,25.92,20.04,19.61,9.77,13.69,0,0,0,0,0,0,0,0,0,0,0,0,0,0,0,0,
197,-218.8,-191.9,23.38,-5.978,34.65,23.08,38.9,30.83,23.71,22.05,39.66,24.01,35.95,21.96,34.21,30.74,0,0,0,0,0,0,0,0,0,0,0,0,0,0,0,0,
198,-244.8,-236.8,7.101,-44.23,13.07,2.203,24.54,-12.56,20.34,20.81,37.99,-0.3675,29.75,-0.7799,48.14,32.98,0,0,0,0,0,0,0,0,0,0,0,0,0,0,0,0,
199,-288.4,-285.0,-17.12,-57.82,-5.107,-20.97,30.73,-13.01,5.054,-3.45,20.33,-8.397,8.914,-13.82,32.06,14.41,0,0,0,0,0,0,0,0,0,0,0,0,0,0,0,0,
200,-304.5,-295.7,-29.04,-64.73,-7.399,-28.77,24.94,1.617,-0.6452,-1.138,16.48,-0.9843,2.578,-0.5949,5.332,-5.355,0,0,0,0,0,0,0,0,0,0,0,0,0,0,0,0,
201,-305.5,-293.1,-46.23,-78.01,-13.99,-23.88,14.03,20.29,8.823,18.79,22.41,1.297,9.986,8.329,-7.052,-13.16,0,0,0,0,0,0,0,0,0,0,0,0,0,0,0,0,
202,-321.1,-301.6,-55.01,-74.79,-24.46,-23.4,18.08,42.36,10.39,14.15,13.87,1.702,5.705,3.07,-6.317,-9.711,0,0,0,0,0,0,0,0,0,0,0,0,0,0,0,0,
203,-328.2,-304.8,-45.08,-62.38,-32.22,-31.89,8.378,17.39,-7.307,2.755,-5.74,7.676,-7.296,5.165,-6.824,-3.313,0,0,0,0,0,0,0,0,0,0,0,0,0,0,0,0,
204,-310.0,-303.7,-50.05,-64.3,-35.58,-33.84,1.776,-10.76,-14.02,18.59,-8.979,17.3,-4.042,15.51,-8.282,1.095,0,0,0,0,0,0,0,0,0,0,0,0,0,0,0,0,
205,-304.4,-309.8,-67.08,-81.56,-32.37,-41.88,12.83,17.07,-4.916,31.09,-0.613,12.19,0.7622,7.108,-4.944,2.366,0,0,0,0,0,0,0,0,0,0,0,0,0,0,0,0,
206,-320.7,-311.6,-69.18,-98.56,-35.67,-65.66,0.206,11.47,-9.972,5.883,-2.031,-4.631,-3.552,-6.043,-0.5092,1.074,0,0,0,0,0,0,0,0,0,0,0,0,0,0,0,0,
207,-317.2,-305.9,-70.92,-105.9,-44.86,-71.54,-15.64,-36.82,-8.876,-0.2078,-5.315,-5.959,5.514,5.309,2.947,2.559,0,0,0,0,0,0,0,0,0,0,0,0,0,0,0,0,
208,-310.7,-311.2,-83.22,-115.1,-50.72,-64.51,-0.2661,-22.73,7.456,21.68,-8.36,-8.073,11.7,7.06,2.248,2.016,0,0,0,0,0,0,0,0,0,0,0,0,0,0,0,0,
209,-331.1,-318.1,-92.72,-119.3,-63.35,-70.83,9.972,3.392,-1.905,-1.234,-14.01,-24.07,0.4515,-9.287,-4.981,-7.46,0,0,0,0,0,0,0,0,0,0,0,0,0,0,0,0,
210,-326.6,-304.1,-103.3,-107.7,-73.57,-66.47,3.127,-31.27,-17.24,-15.26,-7.99,-21.29,1.739,0.6164,-5.996,-10.66,0,0,0,0,0,0,0,0,0,0,0,0,0,0,0,0,
211,-290.2,-291.8,-114.6,-111.6,-69.47,-55.75,-4.01,-42.43,-8.028,29.43,-6.221,-6.947,4.286,10.98,0.6257,-1.902,0,0,0,0,0,0,0,0,0,0,0,0,0,0,0,0,
212,-285.3,-296.1,-113.9,-126.2,-74.79,-73.31,-14.64,2.58,-10.24,23.99,-24.92,-6.646,-14.71,-10.49,-2.459,-0.2405,0,0,0,0,0,0,0,0,0,0,0,0,0,0,0,0,
213,-303.4,-294.7,-114.7,-119.2,-90.8,-92.57,-17.41,22.98,-25.45,-29.36,-27.33,-5.627,-19.93,-19.31,-6.252,-5.92,0,0,0,0,0,0,0,0,0,0,0,0,0,0,0,0,
214,-303.0,-294.1,-122.8,-124.4,-94.31,-88.63,-11.19,-4.468,-23.02,-23.8,-5.467,-8.486,-4.934,-13.31,7.616,-6.775,0,0,0,0,0,0,0,0,0,0,0,0,0,0,0,0,
215,-295.3,-303.5,-124.8,-152.6,-99.23,-96.41,-17.3,-32.07,-20.94,-8.428,-2.862,-25.94,-11.39,-32.94,17.08,-11.9,0,0,0,0,0,0,0,0,0,0,0,0,0,0,0,0,
216,-296.4,-304.1,-137.7,-160.7,-117.5,-123.6,-29.1,-42.05,-36.5,-45.02,-18.86,-33.73,-33.76,-55.2,-0.3564,-26.49,0,0,0,0,0,0,0,0,0,0,0,0,0,0,0,0,
217,-299.1,-294.8,-157.3,-156.7,-124.7,-131.9,-36.02,-56.94,-49.76,-67.04,-21.96,-31.87,-38.59,-51.22,-23.49,-34.88,0,0,0,0,0,0,0,0,0,0,0,0,0,0,0,0,
218,-292.4,-278.3,-144.3,-154.0,-117.4,-120.0,-43.78,-62.11,-50.18,-50.02,-17.02,-33.8,-30.07,-42.15,-27.21,-28.6,0,0,0,0,0,0,0,0,0,0,0,0,0,0,0,0,
219,-272.7,-256.5,-123.7,-138.4,-113.0,-114.2,-37.93,-27.8,-47.68,-42.87,-11.92,-22.4,-20.73,-37.15,-13.31,-14.84,0,0,0,0,0,0,0,0,0,0,0,0,0,0,0,0,
220,-249.8,-253.6,-135.0,-133.7,-109.2,-112.2,-14.09,-3.278,-42.19,-43.45,-0.6494,-4.908,-10.14,-26.05,5.13,-2.35,0,0,0,0,0,0,0,0,0,0,0,0,0,0,0,0,
221,-238.6,-264.3,-147.2,-154.4,-106.4,-109.1,-4.577,-24.69,-30.56,-25.49,6.178,-8.02,-5.046,-15.28,15.73,3.961,0,0,0,0,0,0,0,0,0,0,0,0,0,0,0,0,
222,-242.3,-257.5,-135.5,-162.7,-107.5,-108.6,-15.77,-31.19,-23.77,-9.757,4.394,-15.64,-6.136,-10.01,14.04,3.208,0,0,0,0,0,0,0,0,0,0,0,0,0,0,0,0,
223,-241.8,-242.0,-124.4,-140.9,-106.3,-103.2,-25.17,-8.645,-23.28,-11.17,-0.4031,-16.34,-10.48,-12.12,2.54,-6.939,0,0,0,0,0,0,0,0,0,0,0,0,0,0,0,0,
224,-233.3,-238.6,-136.1,-123.0,-117.3,-106.4,-38.97,-13.31,-28.75,-20.28,-14.9,-30.18,-24.4,-29.28,-16.3,-27.65,0,0,0,0,0,0,0,0,0,0,0,0,0,0,0,0,
225,-241.3,-240.3,-155.9,-134.1,-139.0,-126.6,-60.69,-35.49,-47.81,-41.01,-26.5,-43.91,-34.39,-42.51,-31.05,-43.97,0,0,0,0,0,0,0,0,0,0,0,0,0,0,0,0,
226,-254.2,-240.7,-157.9,-145.1,-142.6,-133.4,-64.19,-41.01,-59.71,-52.71,-19.7,-35.51,-27.27,-33.18,-28.47,-40.14,0,0,0,0,0,0,0,0,0,0,0,0,0,0,0,0,
227,-242.8,-239.6,-156.9,-138.8,-141.9,-131.8,-51.21,-51.37,-53.94,-39.68,-15.33,-28.32,-25.69,-30.67,-15.89,-26.81,0,0,0,0,0,0,0,0,0,0,0,0,0,0,0,0,
228,-222.2,-231.8,-166.7,-146.5,-153.0,-144.8,-50.18,-65.83,-59.53,-45.56,-18.53,-35.68,-35.34,-47.13,-8.416,-21.19,0,0,0,0,0,0,0,0,0,0,0,0,0,0,0,0,
229,-205.0,-214.8,-158.7,-153.8,-147.4,-139.9,-57.99,-50.29,-69.86,-67.26,-9.629,-34.86,-31.59,-46.49,-6.764,-20.03,0,0,0,0,0,0,0,0,0,0,0,0,0,0,0,0,
230,-185.7,-197.8,-137.6,-133.1,-129.6,-115.5,-53.33,-31.68,-58.8,-51.08,4.812,-21.6,-16.48,-24.24,-1.952,-12.12,0,0,0,0,0,0,0,0,0,0,0,0,0,0,0,0,
231,-185.7,-199.2,-141.7,-136.1,-131.4,-127.3,-45.17,-51.18,-47.42,-30.71,9.725,-17.14,-13.11,-16.04,9.39,0.5707,0,0,0,0,0,0,0,0,0,0,0,0,0,0,0,0,
232,-207.5,-218.8,-166.1,-170.9,-142.3,-161.9,-53.32,-68.49,-52.31,-57.78,7.118,-23.36,-21.14,-24.94,17.76,4.749,0,0,0,0,0,0,0,0,0,0,0,0,0,0,0,0,
233,-211.0,-227.1,-174.9,-167.4,-135.3,-159.5,-63.63,-51.48,-48.34,-76.62,9.851,-17.35,-16.16,-19.23,19.32,1.33,0,0,0,0,0,0,0,0,0,0,0,0,0,0,0,0,
234,-199.1,-213.9,-156.4,-138.6,-116.2,-136.1,-51.26,-40.6,-25.32,-44.86,23.93,-1.615,3.849,-1.077,25.64,7.335,0,0,0,0,0,0,0,0,0,0,0,0,0,0,0,0,
235,-202.5,-199.6,-140.7,-139.0,-109.7,-130.6,-23.23,-43.17,-9.175,-22.47,31.24,-1.292,13.21,0.534,36.19,20.77,0,0,0,0,0,0,0,0,0,0,0,0,0,0,0,0,
236,-196.0,-186.9,-141.7,-137.9,-108.1,-125.2,-10.58,-33.59,-6.613,-27.2,27.06,-3.119,14.27,-0.8745,40.39,26.61,0,0,0,0,0,0,0,0,0,0,0,0,0,0,0,0,
237,-173.6,-174.3,-136.9,-114.5,-96.92,-116.3,-26.17,-34.35,0.2735,-15.86,28.03,11.4,18.11,12.5,41.52,28.15,0,0,0,0,0,0,0,0,0,0,0,0,0,0,0,0,
238,-182.4,-177.9,-135.7,-112.7,-101.6,-122.8,-40.84,-48.44,0.196,-8.787,28.06,18.88,13.54,17.95,42.55,30.66,0,0,0,0,0,0,0,0,0,0,0,0,0,0,0,0,
239,-198.8,-188.4,-144.1,-125.6,-114.1,-122.3,-41.5,-33.4,-11.2,-17.54,25.05,14.56,13.41,15.16,43.07,31.31,0,0,0,0,0,0,0,0,0,0,0,0,0,0,0,0,
240,-180.1,-178.4,-134.0,-106.6,-95.91,-104.7,-51.19,-9.57,-4.911,-4.453,27.96,17.12,22.97,19.24,47.3,32.13,0,0,0,0,0,0,0,0,0,0,0,0,0,0,0,0,
241,-167.6,-154.1,-124.3,-76.91,-71.74,-89.26,-49.84,-26.35,9.814,16.92,21.81,18.1,15.68,20.47,45.33,28.92,0,0,0,0,0,0,0,0,0,0,0,0,0,0,0,0,
242,-166.7,-139.9,-129.9,-70.49,-66.84,-69.8,-19.12,-41.02,13.21,31.56,12.12,13.71,8.774,23.08,30.47,18.5,0,0,0,0,0,0,0,0,0,0,0,0,0,0,0,0,
243,-135.8,-133.0,-115.9,-66.85,-61.94,-54.85,-6.811,-4.474,21.82,42.76,21.57,15.79,21.47,30.0,23.13,14.61,0,0,0,0,0,0,0,0,0,0,0,0,0,0,0,0,
244,-106.3,-117.8,-99.79,-62.36,-59.99,-55.95,-23.18,20.88,25.01,32.74,32.8,17.81,22.93,27.77,30.87,20.25,0,0,0,0,0,0,0,0,0,0,0,0,0,0,0,0,
245,-107.4,-101.2,-105.6,-71.95,-59.04,-47.28,-29.01,-8.33,12.39,33.44,37.94,16.84,20.88,31.82,39.34,23.87,0,0,0,0,0,0,0,0,0,0,0,0,0,0,0,0,
246,-103.8,-90.88,-98.9,-73.04,-41.23,-34.07,-14.53,-20.55,20.25,56.31,57.29,26.33,42.87,53.02,50.06,30.57,0,0,0,0,0,0,0,0,0,0,0,0,0,0,0,0,
247,-87.05,-78.66,-77.16,-66.2,-25.19,-38.93,13.17,12.23,46.78,49.13,76.36,44.99,58.81,66.64,65.76,48.39,0,0,0,0,0,0,0,0,0,0,0,0,0,0,0,0,
248,-81.6,-77.48,-60.69,-80.95,-25.94,-46.47,30.4,23.24,50.3,33.85,74.04,53.82,50.93,63.36,72.84,64.58,0,0,0,0,0,0,0,0,0,0,0,0,0,0,0,0,
249,-88.21,-91.12,-49.59,-89.3,-29.74,-48.78,27.25,1.556,37.91,40.19,64.06,42.28,43.53,53.28,67.62,65.17,0,0,0,0,0,0,0,0,0,0,0,0,0,0,0,0,
250,-88.27,-84.08,-55.98,-68.5,-32.26,-48.43,34.96,-10.85,36.39,31.7,56.43,23.79,38.97,39.42,57.93,51.9,0,0,0,0,0,0,0,0,0,0,0,0,0,0,0,0,
251,-75.24,-63.04,-67.54,-67.22,-35.3,-45.91,38.66,-16.18,34.89,16.8,51.19,15.13,29.3,23.71,47.48,34.29,0,0,0,0,0,0,0,0,0,0,0,0,0,0,0,0,
252,-66.52,-68.02,-64.53,-90.64,-40.62,-53.27,6.437,-22.13,23.85,10.09,52.33,8.833,21.9,7.914,38.17,19.02,0,0,0,0,0,0,0,0,0,0,0,0,0,0,0,0,
253,-72.83,-83.18,-69.02,-85.33,-47.84,-61.41,-19.05,-20.4,16.81,-9.089,53.67,-0.3423,18.08,-2.354,30.87,8.071,0,0,0,0,0,0,0,0,0,0,0,0,0,0,0,0,
254,-78.75,-81.5,-70.21,-62.7,-46.64,-55.05,-3.767,-20.48,16.39,-18.84,53.72,3.277,18.02,1.361,27.62,4.641,0,0,0,0,0,0,0,0,0,0,0,0,0,0,0,0,
255,-76.14,-74.41,-48.57,-63.43,-42.29,-47.4,22.37,-24.1,19.91,-1.842,57.53,10.74,20.7,7.248,28.78,7.689,0,0,0,0,0,0,0,0,0,0,0,0,0,0,0,0,
256,-73.55,-72.73,-42.32,-69.73,-43.36,-46.37,28.22,-26.3,29.14,13.1,52.86,0.5205,14.2,1.635,25.9,7.639,0,0,0,0,0,0,0,0,0,0,0,0,0,0,0,0,
257,-67.31,-74.5,-50.77,-59.45,-36.04,-47.68,15.58,-25.65,32.17,11.84,38.3,-6.119,1.802,-2.695,16.72,4.272,0,0,0,0,0,0,0,0,0,0,0,0,0,0,0,0,
258,-57.0,-77.83,-46.57,-52.85,-34.0,-56.81,5.765,-13.54,21.64,-6.582,30.08,3.14,-5.96,-4.025,8.256,4.206,0,0,0,0,0,0,0,0,0,0,0,0,0,0,0,0,
259,-56.94,-81.15,-49.51,-66.69,-58.09,-69.8,-1.205,-7.658,8.158,-35.85,27.22,3.577,-14.08,-13.43,1.657,2.574,0,0,0,0,0,0,0,0,0,0,0,0,0,0,0,0,
260,-55.58,-75.51,-48.72,-74.48,-65.99,-62.47,-13.57,-14.22,3.669,-41.11,29.35,2.099,-16.96,-15.2,-0.1795,-1.479,0,0,0,0,0,0,0,0,0,0,0,0,0,0,0,0,
261,-47.69,-62.95,-36.23,-55.09,-44.87,-43.11,-15.12,-2.599,9.468,-23.91,34.75,8.131,-14.7,-10.45,2.359,-2.511,0,0,0,0,0,0,0,0,0,0,0,0,0,0,0,0,
262,-60.49,-68.18,-52.9,-49.29,-51.89,-55.55,-14.04,4.279,4.935,-35.11,27.03,1.281,-25.92,-20.96,-2.692,-6.547,0,0,0,0,0,0,0,0,0,0,0,0,0,0,0,0,
263,-66.88,-79.98,-71.82,-78.55,-76.29,-82.95,-25.67,-12.78,-15.17,-59.81,21.37,-4.435,-36.25,-28.11,-10.98,-11.32,0,0,0,0,0,0,0,0,0,0,0,0,0,0,0,0,
264,-41.69,-72.47,-56.48,-98.12,-73.3,-82.29,-19.95,-17.86,-24.51,-56.29,32.97,1.127,-31.09,-24.17,-9.212,-5.517,0,0,0,0,0,0,0,0,0,0,0,0,0,0,0,0,
265,-51.15,-74.39,-52.77,-100.0,-69.85,-79.7,2.744,-32.87,-26.8,-57.71,34.96,-7.388,-28.75,-29.05,-3.488,4.359,0,0,0,0,0,0,0,0,0,0,0,0,0,0,0,0,
266,-88.82,-83.0,-64.8,-102.4,-68.26,-79.72,3.897,-55.01,-27.73,-63.68,31.82,-12.88,-17.5,-24.91,4.694,12.81,0,0,0,0,0,0,0,0,0,0,0,0,0,0,0,0,
267,-67.3,-57.61,-56.55,-89.31,-42.28,-55.2,-8.121,-29.34,-4.142,-38.88,44.78,0.1522,8.474,-10.87,20.91,21.9,0,0,0,0,0,0,0,0,0,0,0,0,0,0,0,0,
268,-25.43,-37.32,-43.58,-82.64,-30.37,-48.21,-11.76,-26.65,17.07,-25.83,52.67,1.078,14.89,-12.28,35.09,22.47,0,0,0,0,0,0,0,0,0,0,0,0,0,0,0,0,
269,-36.81,-58.47,-38.18,-103.1,-44.91,-73.62,-7.841,-79.87,5.999,-32.95,56.03,-2.438,13.94,-6.987,45.0,19.52,0,0,0,0,0,0,0,0,0,0,0,0,0,0,0,0,
270,-55.33,-69.68,-34.81,-92.85,-41.3,-75.66,6.799,-64.77,3.187,-19.37,72.68,9.79,30.55,10.07,58.36,30.0,0,0,0,0,0,0,0,0,0,0,0,0,0,0,0,0,
271,-40.3,-48.3,-35.17,-51.06,-28.61,-53.4,17.24,2.755,18.17,-16.56,81.35,17.94,38.04,12.34,67.27,45.5,0,0,0,0,0,0,0,0,0,0,0,0,0,0,0,0,
272,-30.95,-33.38,-27.66,-56.8,-33.83,-42.64,11.97,0.4557,18.14,-29.08,74.19,18.34,31.63,16.26,64.15,52.21,0,0,0,0,0,0,0,0,0,0,0,0,0,0,0,0,
273,-49.78,-42.39,-16.7,-92.53,-36.29,-42.63,17.16,-33.4,14.4,-16.32,66.2,17.97,27.37,23.88,51.51,49.72,0,0,0,0,0,0,0,0,0,0,0,0,0,0,0,0,
274,-63.36,-60.63,-23.42,-89.83,-30.03,-43.1,26.13,-34.17,17.55,-3.503,54.51,11.87,16.0,11.97,33.57,37.66,0,0,0,0,0,0,0,0,0,0,0,0,0,0,0,0,
275,-57.12,-77.27,-41.25,-79.85,-39.34,-49.94,2.174,-38.53,6.5,-9.91,40.03,8.599,0.968,-1.74,21.49,24.8,0,0,0,0,0,0,0,0,0,0,0,0,0,0,0,0,
276,-64.58,-88.7,-56.05,-92.87,-62.75,-68.2,-29.66,-45.47,-16.31,-26.24,28.16,11.81,-9.36,-7.919,18.14,20.5,0,0,0,0,0,0,0,0,0,0,0,0,0,0,0,0,
277,-80.26,-84.23,-63.47,-80.39,-72.89,-70.47,-29.88,-21.19,-32.07,-55.49,17.19,16.54,-19.09,-15.99,13.06,18.13,0,0,0,0,0,0,0,0,0,0,0,0,0,0,0,0,
278,-64.65,-60.68,-54.31,-44.76,-56.28,-38.66,-15.65,-8.996,-36.55,-54.42,17.95,27.89,-11.94,-2.343,11.65,20.45,0,0,0,0,0,0,0,0,0,0,0,0,0,0,0,0,
279,-25.99,-29.6,-20.21,-28.37,-17.47,-4.024,12.06,-28.62,-18.11,2.523,49.03,52.9,32.69,47.17,35.24,46.24,0,0,0,0,0,0,0,0,0,0,0,0,0,0,0,0,
280,21.38,4.409,34.81,-6.646,34.27,28.1,76.62,-2.381,42.97,61.98,111.5,93.06,101.9,104.4,92.4,100.2,0,0,0,0,0,0,0,0,0,0,0,0,0,0,0,0,
281,63.47,29.82,73.43,22.45,73.11,63.74,129.5,56.7,117.1,94.32,161.6,118.6,145.4,129.7,155.3,154.7,0,0,0,0,0,0,0,0,0,0,0,0,0,0,0,0,
282,52.0,23.52,52.42,7.992,71.4,61.23,105.4,42.43,135.2,98.72,146.3,94.92,124.0,105.6,167.9,163.3,0,0,0,0,0,0,0,0,0,0,0,0,0,0,0,0,
283,2.699,-6.33,5.57,-28.61,40.33,24.16,41.22,-6.688,95.96,65.18,90.37,50.44,71.03,57.38,113.6,112.6,0,0,0,0,0,0,0,0,0,0,0,0,0,0,0,0,
284,-9.147,-22.36,-3.878,-35.51,11.5,1.974,11.89,-2.989,61.04,17.3,55.43,24.49,39.44,21.5,45.39,46.52,0,0,0,0,0,0,0,0,0,0,0,0,0,0,0,0,
285,10.94,-11.33,5.79,-23.92,1.398,-5.349,24.29,2.318,47.27,-10.23,46.51,12.65,31.64,12.75,14.6,12.91,0,0,0,0,0,0,0,0,0,0,0,0,0,0,0,0,
286,14.55,-0.7676,2.146,-18.16,8.367,-5.447,37.67,-25.37,43.85,-5.299,45.68,11.44,33.62,24.82,20.71,18.05,0,0,0,0,0,0,0,0,0,0,0,0,0,0,0,0,
287,10.86,-9.344,4.198,-30.07,10.84,-1.121,25.51,-38.1,50.08,17.4,42.2,14.09,30.34,26.74,33.95,35.02,0,0,0,0,0,0,0,0,0,0,0,0,0,0,0,0,
288,8.86,-20.18,2.711,-53.11,-2.812,-15.94,2.671,-33.16,38.49,12.53,22.92,6.229,10.32,5.464,28.07,33.97,0,0,0,0,0,0,0,0,0,0,0,0,0,0,0,0,
289,-13.65,-23.09,-19.08,-51.65,-12.26,-28.24,-1.658,-27.99,7.353,-16.37,4.333,1.915,-3.4,-6.968,6.594,14.3,0,0,0,0,0,0,0,0,0,0,0,0,0,0,0,0,
290,-35.31,-22.11,-25.97,-32.53,-14.71,-12.08,7.399,-22.89,2.954,-14.2,9.072,10.55,3.392,1.452,-3.438,0.8253,0,0,0,0,0,0,0,0,0,0,0,0,0,0,0,0,
291,-23.32,-21.62,-18.64,-40.79,-29.61,-13.14,1.668,-30.19,15.07,3.784,19.6,18.39,8.428,8.894,7.019,5.706,0,0,0,0,0,0,0,0,0,0,0,0,0,0,0,0,
292,-9.224,-34.18,-34.63,-62.28,-44.45,-39.99,-20.71,-34.37,5.831,-2.51,18.92,26.07,7.551,13.07,22.34,20.64,0,0,0,0,0,0,0,0,0,0,0,0,0,0,0,0,
293,-10.04,-43.13,-45.95,-56.0,-38.72,-34.23,-28.49,-18.25,-0.2085,0.6228,18.17,38.81,15.84,25.89,31.68,36.64,0,0,0,0,0,0,0,0,0,0,0,0,0,0,0,0,
294,-1.936,-25.31,-25.55,-35.9,-27.58,-8.638,-5.925,-13.91,11.7,31.45,22.65,44.02,26.3,37.61,35.06,46.16,0,0,0,0,0,0,0,0,0,0,0,0,0,0,0,0,
295,-4.885,-15.79,-22.72,-33.16,-30.95,-18.79,15.2,-19.16,11.14,39.68,18.44,30.91,19.45,25.43,29.95,39.32,0,0,0,0,0,0,0,0,0,0,0,0,0,0,0,0,
296,-20.83,-29.11,-50.68,-40.28,-41.37,-36.8,8.072,-3.061,-3.365,6.285,-0.1756,12.12,-0.5212,0.7309,14.18,18.13,0,0,0,0,0,0,0,0,0,0,0,0,0,0,0,0,
297,-7.501,-26.92,-48.13,-34.96,-36.22,-20.08,-4.229,-0.1329,-7.407,-12.43,-9.668,8.23,-4.475,-0.6362,-0.4416,3.103,0,0,0,0,0,0,0,0,0,0,0,0,0,0,0,0,
298,10.27,-11.74,-6.673,-20.76,-13.27,-0.1356,3.685,-22.08,2.523,14.7,5.996,16.14,13.22,12.64,2.354,7.528,0,0,0,0,0,0,0,0,0,0,0,0,0,0,0,0,
299,6.611,-2.017,18.14,-14.79,1.779,-3.696,18.79,-17.9,12.24,36.16,20.97,21.14,23.46,14.01,16.78,19.15,0,0,0,0,0,0,0,0,0,0,0,0,0,0,0,0,
300,19.53,7.593,13.24,-17.97,0.5685,-10.83,15.79,-1.898,12.89,29.18,16.6,20.38,17.46,13.7,20.94,22.47,0,0,0,0,0,0,0,0,0,0,0,0,0,0,0,0,
301,34.67,4.49,5.166,-21.81,-2.731,-12.12,-0.8914,-7.014,9.881,28.32,9.873,13.69,11.26,12.48,9.716,17.03,0,0,0,0,0,0,0,0,0,0,0,0,0,0,0,0,
302,21.96,-6.67,3.848,-19.51,-7.061,-6.596,-2.176,-9.121,9.81,25.95,8.086,7.651,7.611,3.419,-2.342,8.292,0,0,0,0,0,0,0,0,0,0,0,0,0,0,0,0,
303,16.88,1.807,2.467,-8.338,-9.45,10.46,8.712,-11.83,14.87,19.6,10.28,13.3,9.087,8.698,-1.773,4.555,0,0,0,0,0,0,0,0,0,0,0,0,0,0,0,0,
304,23.16,14.11,-9.054,-0.511,-1.634,17.69,9.772,-18.01,25.93,34.71,23.81,20.23,21.06,22.69,14.34,12.21,0,0,0,0,0,0,0,0,0,0,0,0,0,0,0,0,
305,11.57,5.397,-22.57,-6.991,2.139,2.743,13.87,-2.487,32.99,38.28,29.27,16.48,25.66,15.58,32.25,20.53,0,0,0,0,0,0,0,0,0,0,0,0,0,0,0,0,
306,-4.911,-9.847,-22.73,-13.09,-7.66,-6.157,20.11,6.027,25.26,18.07,14.31,14.41,17.81,6.492,35.0,18.92,0,0,0,0,0,0,0,0,0,0,0,0,0,0,0,0,
307,-17.76,-16.72,-23.6,-3.759,-15.92,-0.4791,7.704,-7.775,14.52,18.38,15.91,19.25,25.83,20.53,33.41,21.09,0,0,0,0,0,0,0,0,0,0,0,0,0,0,0,0,
308,-30.21,-20.41,-32.33,7.772,-17.06,-1.226,-0.1205,-6.691,20.21,32.14,37.87,18.67,46.35,34.43,45.2,36.64,0,0,0,0,0,0,0,0,0,0,0,0,0,0,0,0,
309,-24.95,-26.07,-29.96,-2.428,-19.8,-11.08,11.51,1.988,31.49,32.55,40.89,13.43,46.1,27.16,56.64,48.87,0,0,0,0,0,0,0,0,0,0,0,0,0,0,0,0,
310,-10.21,-30.93,-18.25,-33.34,-26.59,-25.32,21.08,-1.656,22.43,14.3,34.62,9.855,30.75,9.758,51.1,45.47,0,0,0,0,0,0,0,0,0,0,0,0,0,0,0,0,
311,-10.26,-30.63,-8.266,-47.68,-31.19,-33.46,24.91,-5.4,8.378,-11.27,39.09,4.429,23.62,-0.7005,36.37,32.43,0,0,0,0,0,0,0,0,0,0,0,0,0,0,0,0,
312,-7.932,-21.75,0.4105,-24.27,-22.39,-19.64,18.55,-5.304,18.32,2.178,35.6,2.233,21.63,-0.1632,22.27,18.13,0,0,0,0,0,0,0,0,0,0,0,0,0,0,0,0,
313,13.25,-5.723,4.519,-1.585,-1.378,-3.832,16.62,0.1947,31.65,34.47,28.41,8.525,19.26,2.431,14.06,9.896,0,0,0,0,0,0,0,0,0,0,0,0,0,0,0,0,
314,29.78,5.985,9.764,-4.913,12.43,-0.2686,51.1,5.481,29.44,27.18,36.01,10.61,23.74,5.587,17.0,10.91,0,0,0,0,0,0,0,0,0,0,0,0,0,0,0,0,
315,31.07,12.55,20.02,-3.048,16.01,13.56,67.74,4.572,33.37,25.12,46.84,4.907,36.62,15.73,27.9,17.11,0,0,0,0,0,0,0,0,0,0,0,0,0,0,0,0,
316,32.47,23.71,24.38,9.883,23.48,26.98,26.35,9.104,44.75,45.95,49.27,6.516,46.47,26.88,39.63,25.4,0,0,0,0,0,0,0,0,0,0,0,0,0,0,0,0,
317,33.9,27.32,26.21,9.496,27.72,22.92,7.319,9.876,46.37,41.42,43.05,15.99,46.09,32.19,46.68,32.89,0,0,0,0,0,0,0,0,0,0,0,0,0,0,0,0,
318,35.18,18.52,27.27,4.306,21.0,21.5,29.57,7.739,42.21,37.89,32.44,19.72,42.61,31.47,44.92,35.11,0,0,0,0,0,0,0,0,0,0,0,0,0,0,0,0,
319,48.49,23.97,20.27,8.112,21.17,19.65,35.24,13.58,37.23,42.82,30.43,20.26,39.82,26.34,37.9,33.78,0,0,0,0,0,0,0,0,0,0,0,0,0,0,0,0,
320,60.41,43.22,19.58,13.94,27.83,10.41,35.93,-8.039,32.0,28.17,34.52,24.0,34.25,25.4,30.63,31.96,0,0,0,0,0,0,0,0,0,0,0,0,0,0,0,0,
321,55.02,47.04,23.52,9.162,18.61,10.2,35.47,-28.84,25.94,26.24,29.99,21.78,27.11,25.55,22.19,27.52,0,0,0,0,0,0,0,0,0,0,0,0,0,0,0,0,
322,52.55,39.79,17.75,-9.308,3.098,11.37,19.61,15.61,12.37,29.02,24.29,17.81,21.46,20.12,16.35,24.01,0,0,0,0,0,0,0,0,0,0,0,0,0,0,0,0,
323,55.44,39.62,22.68,-14.51,0.2734,3.809,25.44,40.65,-0.111,13.91,24.45,19.27,14.12,18.14,14.55,24.59,0,0,0,0,0,0,0,0,0,0,0,0,0,0,0,0,
324,35.72,31.83,26.2,-2.255,-6.942,-9.253,37.6,-10.56,-6.409,13.73,12.44,6.306,-4.345,8.702,1.336,14.82,0,0,0,0,0,0,0,0,0,0,0,0,0,0,0,0,
325,10.28,10.51,0.3763,-8.71,-23.61,-24.96,15.69,-32.94,-20.58,11.51,-10.18,-15.96,-26.13,-14.73,-26.99,-11.22,0,0,0,0,0,0,0,0,0,0,0,0,0,0,0,0,
326,23.2,10.28,-3.164,-18.55,-20.75,-23.13,-0.1752,-8.994,-27.94,-0.3257,-13.69,-20.35,-27.87,-23.0,-43.57,-30.38,0,0,0,0,0,0,0,0,0,0,0,0,0,0,0,0,
327,57.5,38.16,31.33,-5.489,-4.475,-8.626,11.53,-7.821,-10.6,13.37,-1.247,-23.21,-19.95,-22.03,-35.55,-31.3,0,0,0,0,0,0,0,0,0,0,0,0,0,0,0,0,
328,61.89,53.81,34.97,-1.484,-8.145,-10.66,24.03,-12.73,0.5969,10.57,-2.441,-34.25,-25.56,-35.28,-24.18,-29.66,0,0,0,0,0,0,0,0,0,0,0,0,0,0,0,0,
329,41.06,47.34,7.636,-7.777,-19.37,-13.86,32.18,-7.969,-8.93,-21.74,-12.72,-31.78,-29.58,-38.97,-22.8,-32.32,0,0,0,0,0,0,0,0,0,0,0,0,0,0,0,0,
330,39.81,44.29,-3.405,-0.5943,-10.11,0.5393,30.46,-6.789,-7.672,-16.27,-7.685,-23.69,-18.07,-23.37,-22.07,-33.82,0,0,0,0,0,0,0,0,0,0,0,0,0,0,0,0,
331,61.87,54.6,7.528,3.26,9.063,15.6,26.34,0.7784,12.01,17.31,8.364,-21.51,-3.07,-11.66,-14.93,-31.16,0,0,0,0,0,0,0,0,0,0,0,0,0,0,0,0,
332,73.22,68.61,29.57,0.2404,17.9,20.28,40.14,-5.061,25.27,31.42,12.95,-20.95,6.966,-8.284,-5.465,-23.11,0,0,0,0,0,0,0,0,0,0,0,0,0,0,0,0,
333,69.48,71.99,36.95,0.3215,18.75,19.57,45.85,-32.2,23.25,31.12,6.979,-25.27,10.8,-7.918,-0.3624,-14.8,0,0,0,0,0,0,0,0,0,0,0,0,0,0,0,0,
334,73.08,70.68,29.8,-2.859,25.43,26.08,23.05,-36.66,20.49,29.98,7.559,-23.81,10.73,-7.466,-1.757,-12.06,0,0,0,0,0,0,0,0,0,0,0,0,0,0,0,0,
335,76.61,69.9,36.94,-8.81,31.33,29.54,2.216,-15.94,22.59,31.45,6.711,-14.79,6.39,-8.217,-8.607,-13.14,0,0,0,0,0,0,0,0,0,0,0,0,0,0,0,0,
336,59.35,47.24,33.68,-24.29,17.72,7.016,-2.59,-11.63,14.57,23.66,-8.7,-16.31,-5.716,-15.81,-19.54,-17.83,0,0,0,0,0,0,0,0,0,0,0,0,0,0,0,0,
337,37.93,17.66,4.833,-42.57,-1.691,-10.39,-10.01,-28.33,-4.039,10.43,-24.67,-20.23,-18.43,-22.11,-31.04,-27.38,0,0,0,0,0,0,0,0,0,0,0,0,0,0,0,0,
338,34.46,16.13,-8.658,-35.04,-8.355,-1.902,-22.2,-33.99,-16.09,20.54,-32.7,-17.69,-26.69,-21.08,-39.59,-37.02,0,0,0,0,0,0,0,0,0,0,0,0,0,0,0,0,
339,38.05,27.18,1.859,-14.54,-9.726,-4.203,-18.19,-19.26,-17.74,28.9,-36.97,-18.23,-30.85,-20.75,-43.44,-40.58,0,0,0,0,0,0,0,0,0,0,0,0,0,0,0,0,
340,33.8,37.01,11.16,-4.267,-7.927,-10.67,-3.057,-11.0,-13.71,9.768,-36.63,-19.3,-30.68,-25.58,-44.54,-39.02,0,0,0,0,0,0,0,0,0,0,0,0,0,0,0,0,
341,21.72,32.91,-1.502,-1.939,-13.3,-6.704,-13.54,-15.47,-17.8,0.5893,-40.12,-19.35,-37.62,-34.15,-48.88,-39.91,0,0,0,0,0,0,0,0,0,0,0,0,0,0,0,0,
342,16.31,5.073,-23.94,-17.08,-32.49,-23.0,-35.12,-21.12,-40.41,0.5427,-45.99,-20.68,-48.56,-38.38,-53.38,-43.81,0,0,0,0,0,0,0,0,0,0,0,0,0,0,0,0,
343,32.26,7.885,-14.15,-36.26,-32.1,-35.49,-19.78,-39.33,-52.51,-13.6,-33.51,-19.73,-40.97,-35.66,-46.93,-42.97,0,0,0,0,0,0,0,0,0,0,0,0,0,0,0,0,
344,51.38,38.95,7.436,-29.36,-11.87,-18.56,2.634,-54.76,-35.83,-21.68,-12.31,-20.31,-24.39,-37.62,-31.77,-38.04,0,0,0,0,0,0,0,0,0,0,0,0,0,0,0,0,
345,57.29,34.29,3.747,-14.11,-7.764,-15.0,-9.766,-38.91,-23.42,-26.09,-10.95,-23.75,-20.88,-41.49,-20.99,-35.92,0,0,0,0,0,0,0,0,0,0,0,0,0,0,0,0,
346,71.99,41.15,8.119,-7.938,-2.568,-12.04,-14.28,-21.34,-25.48,-24.92,-18.53,-21.72,-17.44,-32.09,-17.96,-33.37,0,0,0,0,0,0,0,0,0,0,0,0,0,0,0,0,
347,91.58,82.6,18.2,1.206,18.08,18.2,12.88,-20.39,-14.13,3.867,-9.137,-12.67,-3.305,-14.49,-14.8,-22.35,0,0,0,0,0,0,0,0,0,0,0,0,0,0,0,0,
348,84.17,82.96,2.388,8.054,19.9,22.59,29.06,-17.12,6.024,16.18,4.021,-9.928,1.396,-9.63,-10.45,-10.15,0,0,0,0,0,0,0,0,0,0,0,0,0,0,0,0,
349,66.14,70.39,-3.387,3.334,6.879,1.553,21.24,-26.71,5.463,-6.697,3.236,-15.67,-6.213,-18.0,-11.5,-9.964,0,0,0,0,0,0,0,0,0,0,0,0,0,0,0,0,
350,67.1,82.59,13.5,-10.63,14.22,7.499,16.25,-47.86,-5.965,0.5427,10.76,-3.219,3.312,-12.29,-8.267,-10.67,0,0,0,0,0,0,0,0,0,0,0,0,0,0,0,0,
351,72.01,60.61,16.51,-28.48,28.99,13.66,28.03,-41.1,4.056,28.93,31.25,17.76,24.2,2.704,8.624,0.7187,0,0,0,0,0,0,0,0,0,0,0,0,0,0,0,0,
352,66.04,34.48,8.135,-29.92,17.75,-3.114,34.71,-12.65,15.22,13.46,26.44,0.3508,13.87,-12.76,15.21,2.325,0,0,0,0,0,0,0,0,0,0,0,0,0,0,0,0,
353,56.54,56.44,0.5768,-12.23,-10.13,-12.77,5.473,-0.3574,-10.14,-24.1,-1.332,-28.17,-15.36,-40.87,-3.228,-19.3,0,0,0,0,0,0,0,0,0,0,0,0,0,0,0,0,
354,46.08,65.0,-11.89,-6.998,-24.23,-16.67,-23.65,-18.15,-38.92,-32.04,-12.57,-16.59,-18.33,-36.14,-20.28,-36.25,0,0,0,0,0,0,0,0,0,0,0,0,0,0,0,0,
355,39.97,49.49,-24.4,-11.46,-26.09,-22.7,-6.483,-43.56,-34.97,-15.3,-12.46,-3.308,-9.056,-22.34,-21.07,-32.76,0,0,0,0,0,0,0,0,0,0,0,0,0,0,0,0,
356,38.0,57.81,-40.77,5.363,-35.64,-22.37,5.876,-42.97,-33.81,-12.43,-22.6,-22.12,-17.63,-31.86,-21.08,-27.33,0,0,0,0,0,0,0,0,0,0,0,0,0,0,0,0,
357,23.08,58.7,-64.42,21.78,-50.79,-26.59,-20.29,-33.53,-56.37,-44.04,-33.36,-35.25,-31.43,-43.33,-27.68,-31.25,0,0,0,0,0,0,0,0,0,0,0,0,0,0,0,0,
358,11.47,37.98,-65.91,11.71,-50.6,-29.12,-34.04,-35.75,-67.38,-70.35,-33.18,-24.31,-33.33,-39.11,-32.18,-35.16,0,0,0,0,0,0,0,0,0,0,0,0,0,0,0,0,
359,32.05,48.48,-39.82,12.09,-28.56,-10.58,-28.64,-24.85,-49.46,-48.46,-25.25,-14.69,-26.38,-32.03,-27.63,-31.6,0,0,0,0,0,0,0,0,0,0,0,0,0,0,0,0,
360,52.23,81.92,-33.13,36.55,-12.01,11.09,-24.22,-14.94,-29.98,-19.22,-23.25,-22.33,-25.12,-38.32,-20.84,-28.3,0,0,0,0,0,0,0,0,0,0,0,0,0,0,0,0,
361,47.66,89.92,-47.34,44.57,-18.23,19.54,-13.35,-21.16,-30.17,-28.25,-36.22,-33.16,-34.85,-51.67,-23.3,-33.59,0,0,0,0,0,0,0,0,0,0,0,0,0,0,0,0,
362,51.73,83.16,-37.28,29.8,-21.97,20.47,-23.69,-8.827,-34.28,-40.25,-47.6,-29.6,-41.3,-49.48,-28.73,-39.01,0,0,0,0,0,0,0,0,0,0,0,0,0,0,0,0,
363,63.54,83.67,-22.68,17.72,-17.84,9.593,-52.93,2.374,-34.24,-33.81,-48.05,-23.33,-46.13,-41.23,-27.55,-37.71,0,0,0,0,0,0,0,0,0,0,0,0,0,0,0,0,
364,58.98,82.77,-34.11,25.29,-25.42,-0.7416,-47.64,-11.76,-47.26,-43.99,-52.53,-25.08,-59.27,-49.73,-31.02,-39.5,0,0,0,0,0,0,0,0,0,0,0,0,0,0,0,0,
365,52.57,83.15,-38.56,51.06,-30.12,8.834,-31.51,-13.99,-61.68,-61.18,-57.59,-23.2,-63.9,-56.2,-46.8,-47.66,0,0,0,0,0,0,0,0,0,0,0,0,0,0,0,0,
366,51.31,90.48,-35.88,55.44,-24.03,13.82,-38.37,-15.05,-55.58,-49.27,-51.55,-19.89,-55.62,-44.93,-59.6,-51.37,0,0,0,0,0,0,0,0,0,0,0,0,0,0,0,0,
367,50.05,91.54,-53.31,29.26,-27.18,-1.095,-34.67,-30.63,-46.31,-36.32,-47.38,-19.21,-53.06,-34.87,-58.09,-45.58,0,0,0,0,0,0,0,0,0,0,0,0,0,0,0,0,
368,56.05,82.95,-60.56,19.97,-32.29,-9.283,-32.63,-21.04,-47.83,-45.26,-50.14,-12.8,-53.1,-30.18,-49.38,-35.6,0,0,0,0,0,0,0,0,0,0,0,0,0,0,0,0,
369,60.51,74.38,-39.94,20.41,-26.2,-4.331,-48.64,5.282,-44.73,-36.51,-43.67,-8.948,-41.72,-19.59,-39.51,-27.36,0,0,0,0,0,0,0,0,0,0,0,0,0,0,0,0,
370,58.04,72.57,-21.66,6.495,-15.2,4.219,-29.67,18.4,-28.29,-4.513,-25.07,-8.178,-19.41,-6.062,-23.94,-18.66,0,0,0,0,0,0,0,0,0,0,0,0,0,0,0,0,
371,63.78,81.72,-16.44,9.315,-4.399,13.22,12.75,19.25,-9.121,7.093,-10.63,-0.4119,-0.2271,0.1965,-2.757,-4.341,0,0,0,0,0,0,0,0,0,0,0,0,0,0,0,0,
372,66.26,90.34,-22.06,12.27,-11.6,7.969,9.934,-3.587,-2.97,-0.6168,-13.86,-6.348,0.0545,-5.721,12.34,7.032,0,0,0,0,0,0,0,0,0,0,0,0,0,0,0,0,
373,40.55,77.92,-39.23,-15.5,-41.63,-8.406,-18.12,-26.18,-12.59,-3.161,-25.6,-27.89,-6.69,-13.6,15.58,6.153,0,0,0,0,0,0,0,0,0,0,0,0,0,0,0,0,
374,8.935,50.82,-53.51,-25.82,-57.84,-19.8,-18.71,-10.66,-24.18,-13.98,-22.74,-27.76,1.158,-11.28,17.03,4.798,0,0,0,0,0,0,0,0,0,0,0,0,0,0,0,0,
375,8.134,33.92,-57.64,-8.166,-48.34,-31.49,-9.542,2.021,-25.52,-31.43,-9.308,-10.8,11.46,-6.074,23.76,12.64,0,0,0,0,0,0,0,0,0,0,0,0,0,0,0,0,
376,24.69,36.58,-60.07,-5.554,-39.07,-34.51,-22.33,-15.85,-20.11,-25.69,-10.2,-6.575,10.01,-2.277,28.03,19.86,0,0,0,0,0,0,0,0,0,0,0,0,0,0,0,0,
377,30.95,50.55,-60.61,-3.985,-31.46,-17.95,-36.13,-17.98,-17.46,-10.06,-20.05,-4.057,10.33,7.235,24.99,21.48,0,0,0,0,0,0,0,0,0,0,0,0,0,0,0,0,
378,30.53,55.03,-55.68,5.339,-22.12,-9.562,-25.46,2.863,-13.87,-11.21,-20.88,6.012,14.04,12.96,20.25,21.33,0,0,0,0,0,0,0,0,0,0,0,0,0,0,0,0,
379,30.25,41.02,-52.16,-7.389,-30.36,-21.59,-15.19,5.119,-10.11,-14.65,-21.56,4.929,5.176,2.549,14.02,15.0,0,0,0,0,0,0,0,0,0,0,0,0,0,0,0,0,
380,27.65,39.4,-56.1,-18.76,-47.69,-30.39,-23.38,-10.58,-21.41,-17.81,-27.57,-9.236,-9.458,-12.71,3.094,-0.7408,0,0,0,0,0,0,0,0,0,0,0,0,0,0,0,0,
381,22.82,60.66,-65.19,-1.405,-44.4,-24.05,-28.97,-15.92,-37.53,-33.28,-29.65,-15.81,-14.19,-17.58,-7.688,-17.11,0,0,0,0,0,0,0,0,0,0,0,0,0,0,0,0,
382,21.59,62.89,-74.07,2.495,-31.7,-11.37,-36.99,-13.29,-40.16,-34.86,-33.09,-8.297,-17.97,-15.33,-15.44,-26.87,0,0,0,0,0,0,0,0,0,0,0,0,0,0,0,0,
383,30.83,45.67,-73.16,-20.48,-31.75,-9.098,-56.88,-18.23,-43.94,-12.39,-42.84,-7.026,-27.79,-18.99,-24.08,-33.46,0,0,0,0,0,0,0,0,0,0,0,0,0,0,0,0,
384,40.09,47.98,-59.07,-23.74,-32.01,-15.14,-59.58,-22.77,-50.64,-6.959,-51.88,-22.55,-33.3,-29.75,-34.71,-42.56,0,0,0,0,0,0,0,0,0,0,0,0,0,0,0,0,
385,42.46,61.01,-49.6,-4.389,-27.88,-5.641,-49.54,-13.29,-43.35,-19.02,-59.56,-31.88,-36.42,-34.67,-45.6,-53.46,0,0,0,0,0,0,0,0,0,0,0,0,0,0,0,0,
386,45.54,65.93,-53.81,4.423,-31.28,8.322,-54.22,1.03,-37.76,-11.84,-64.68,-25.24,-43.76,-33.27,-54.64,-61.67,0,0,0,0,0,0,0,0,0,0,0,0,0,0,0,0,
387,38.78,65.59,-49.43,2.998,-31.69,0.086,-50.48,7.131,-46.54,-6.362,-64.23,-22.35,-46.11,-35.5,-59.64,-64.71,0,0,0,0,0,0,0,0,0,0,0,0,0,0,0,0,
388,29.74,58.07,-29.73,1.941,-20.42,-5.547,-26.62,6.358,-47.8,-20.83,-60.54,-21.41,-37.23,-31.06,-59.6,-61.05,0,0,0,0,0,0,0,0,0,0,0,0,0,0,0,0,
389,50.4,61.74,-16.85,3.765,-6.614,13.17,-10.75,3.942,-33.59,-13.24,-50.49,-11.02,-24.45,-14.5,-52.92,-51.45,0,0,0,0,0,0,0,0,0,0,0,0,0,0,0,0,
390,84.87,86.2,-15.98,15.05,6.056,26.65,-5.479,10.83,-19.01,5.678,-44.07,-9.117,-21.75,-10.46,-45.63,-46.0,0,0,0,0,0,0,0,0,0,0,0,0,0,0,0,0,
391,87.77,93.95,-30.89,29.32,4.592,22.64,-15.57,19.01,-18.02,-10.36,-63.55,-20.67,-34.9,-20.73,-52.73,-53.81,0,0,0,0,0,0,0,0,0,0,0,0,0,0,0,0,
392,53.28,76.34,-62.01,31.7,-12.15,24.77,-43.39,4.322,-34.33,-22.41,-83.85,-19.37,-41.21,-16.49,-70.88,-63.0,0,0,0,0,0,0,0,0,0,0,0,0,0,0,0,0,
393,39.9,72.89,-56.76,22.73,-4.679,32.43,-32.0,0.2103,-38.87,-2.137,-64.23,-3.147,-23.08,-1.42,-75.97,-55.42,0,0,0,0,0,0,0,0,0,0,0,0,0,0,0,0,
394,86.74,89.94,-5.322,12.8,23.71,20.36,14.86,27.11,-13.19,-0.334,-40.92,0.755,-11.67,-2.439,-65.29,-40.51,0,0,0,0,0,0,0,0,0,0,0,0,0,0,0,0,
395,113.9,97.46,11.87,8.845,20.01,-6.322,2.355,14.11,-6.509,-23.91,-60.1,-16.78,-30.75,-21.01,-63.63,-43.64,0,0,0,0,0,0,0,0,0,0,0,0,0,0,0,0,
396,81.92,90.0,-5.594,11.7,-0.6432,-12.1,-43.74,-37.87,-36.26,-37.0,-80.64,-33.97,-45.48,-35.59,-76.49,-62.61,0,0,0,0,0,0,0,0,0,0,0,0,0,0,0,0,
397,81.23,87.67,4.843,20.18,6.366,4.912,-25.71,-45.61,-41.89,-33.87,-66.33,-27.98,-32.52,-27.75,-80.66,-68.77,0,0,0,0,0,0,0,0,0,0,0,0,0,0,0,0,
398,107.5,93.75,18.69,31.05,18.12,8.566,14.43,-21.41,-20.39,-17.13,-53.41,-10.68,-20.68,-12.91,-67.93,-53.33,0,0,0,0,0,0,0,0,0,0,0,0,0,0,0,0,
399,89.27,87.88,12.58,28.68,10.87,-12.4,19.84,-12.82,-19.95,-12.81,-55.64,-12.06,-23.02,-22.11,-54.99,-39.09,0,0,0,0,0,0,0,0,0,0,0,0,0,0,0,0,
400,66.08,65.0,9.323,5.005,0.9336,-35.08,22.34,-12.63,-26.72,-43.78,-46.1,-25.04,-18.94,-37.89,-47.8,-37.78,0,0,0,0,0,0,0,0,0,0,0,0,0,0,0,0,
401,63.91,58.23,3.013,-3.796,-2.921,-33.24,10.24,-8.053,-17.55,-58.89,-30.52,-20.09,-6.859,-25.85,-35.96,-33.23,0,0,0,0,0,0,0,0,0,0,0,0,0,0,0,0,
402,53.65,79.26,2.229,27.93,-0.7838,-7.723,-17.64,8.418,-10.83,-26.82,-28.12,-1.817,-1.589,-4.935,-19.23,-18.81,0,0,0,0,0,0,0,0,0,0,0,0,0,0,0,0,
403,62.51,86.07,15.57,52.95,2.337,5.818,-0.5316,16.95,-10.62,3.738,-28.75,8.319,1.307,1.379,-7.078,-8.06,0,0,0,0,0,0,0,0,0,0,0,0,0,0,0,0,
404,99.96,76.62,15.97,39.92,-0.31,-3.009,23.74,-4.64,-4.956,10.96,-21.08,5.136,9.446,3.769,0.1379,-5.492,0,0,0,0,0,0,0,0,0,0,0,0,0,0,0,0,
405,106.1,81.61,10.75,18.73,-1.76,-14.1,-5.999,-23.95,-0.5326,6.218,-14.37,-8.264,11.38,0.733,6.16,-6.713,0,0,0,0,0,0,0,0,0,0,0,0,0,0,0,0,
406,71.44,73.22,13.87,-0.278,2.26,-28.44,-22.06,-20.09,-4.072,-9.915,-15.06,-10.66,5.59,-7.407,7.34,-9.454,0,0,0,0,0,0,0,0,0,0,0,0,0,0,0,0,
407,57.83,53.56,7.098,-5.912,5.94,-35.1,-1.377,-7.105,-2.093,-17.91,-15.38,9.269,4.062,-6.681,1.318,-8.403,0,0,0,0,0,0,0,0,0,0,0,0,0,0,0,0,
408,68.39,65.6,-6.888,18.27,-1.437,-25.75,-10.46,10.01,-0.4824,-21.83,-13.4,11.75,-2.332,-14.15,-7.263,-6.981,0,0,0,0,0,0,0,0,0,0,0,0,0,0,0,0,
409,65.37,73.9,-9.597,31.29,-11.62,-26.38,-22.87,20.04,-16.67,-43.42,-10.62,-9.411,-11.79,-28.12,-12.51,-12.59,0,0,0,0,0,0,0,0,0,0,0,0,0,0,0,0,
410,79.14,66.02,5.373,23.84,8.694,-21.33,-0.6979,11.13,-16.68,-40.61,-3.233,-7.485,-1.531,-13.98,-10.19,-14.49,0,0,0,0,0,0,0,0,0,0,0,0,0,0,0,0,
411,108.9,87.48,18.3,30.78,32.84,-0.874,4.939,-8.066,7.909,-8.401,-4.043,-1.529,6.42,-4.459,-5.867,-10.98,0,0,0,0,0,0,0,0,0,0,0,0,0,0,0,0,
412,97.06,97.1,5.923,25.21,9.011,-10.76,-13.97,-16.79,-1.481,-20.16,-20.26,-17.46,-10.24,-30.66,-13.31,-20.07,0,0,0,0,0,0,0,0,0,0,0,0,0,0,0,0,
413,73.19,60.31,-2.713,3.796,-12.55,-26.82,-29.19,-11.04,-28.62,-49.78,-27.6,-6.799,-17.16,-34.45,-30.54,-34.9,0,0,0,0,0,0,0,0,0,0,0,0,0,0,0,0,
414,72.85,40.48,9.832,12.11,6.898,-12.87,-43.1,-14.11,-21.44,-27.38,-23.44,18.38,-8.542,-10.0,-40.53,-34.88,0,0,0,0,0,0,0,0,0,0,0,0,0,0,0,0,
415,70.18,61.21,10.75,26.55,12.78,-14.51,-34.89,-17.41,-14.65,-8.045,-28.15,1.947,-10.55,-13.65,-39.15,-27.46,0,0,0,0,0,0,0,0,0,0,0,0,0,0,0,0,
416,81.18,84.55,3.852,18.23,2.969,-22.99,-11.17,4.548,-24.04,-29.92,-32.62,-18.38,-14.24,-26.89,-36.37,-26.16,0,0,0,0,0,0,0,0,0,0,0,0,0,0,0,0,
417,100.8,87.22,2.442,8.976,8.68,-9.742,-14.84,20.11,-21.36,-37.69,-29.45,-9.483,-16.15,-23.83,-39.52,-29.67,0,0,0,0,0,0,0,0,0,0,0,0,0,0,0,0,
418,85.91,66.9,-4.879,-1.111,6.561,-19.9,-22.63,2.301,-20.93,-33.48,-31.94,-7.22,-23.71,-27.39,-47.32,-35.42,0,0,0,0,0,0,0,0,0,0,0,0,0,0,0,0,
419,63.92,44.3,-0.743,-9.798,-6.434,-39.29,-18.29,-18.22,-27.18,-43.45,-35.0,-15.61,-24.64,-31.37,-50.76,-39.15,0,0,0,0,0,0,0,0,0,0,0,0,0,0,0,0,
420,63.82,41.6,6.573,-2.728,-11.94,-27.19,-32.89,-16.75,-25.68,-45.51,-29.9,-17.78,-21.43,-25.8,-43.92,-36.15,0,0,0,0,0,0,0,0,0,0,0,0,0,0,0,0,
421,65.92,51.86,-12.84,-4.562,-11.93,-25.88,-36.35,-5.752,-24.67,-47.4,-22.12,-16.61,-19.39,-24.19,-31.79,-28.88,0,0,0,0,0,0,0,0,0,0,0,0,0,0,0,0,
422,63.44,53.3,-20.35,-22.93,-2.702,-43.65,-7.138,-6.045,-18.06,-55.64,-13.34,-13.83,-12.25,-24.64,-21.37,-21.78,0,0,0,0,0,0,0,0,0,0,0,0,0,0,0,0,
423,59.18,42.97,-1.437,-19.69,2.562,-43.57,-2.693,-16.82,-6.328,-46.76,-7.923,-17.07,-10.2,-25.43,-16.14,-18.19,0,0,0,0,0,0,0,0,0,0,0,0,0,0,0,0,
424,65.45,48.18,-2.503,-5.211,-10.14,-32.19,-23.36,-23.1,-9.764,-35.95,-6.734,-20.24,-8.587,-21.86,-13.44,-15.84,0,0,0,0,0,0,0,0,0,0,0,0,0,0,0,0,
425,81.02,71.48,-5.84,-17.04,-12.88,-15.02,-10.04,-20.04,-12.91,-25.07,2.027,-7.673,6.984,-4.551,-5.076,-7.086,0,0,0,0,0,0,0,0,0,0,0,0,0,0,0,0,
426,75.7,78.09,15.08,-15.68,3.837,4.547,22.95,-14.95,0.2851,3.936,16.1,0.1379,18.28,7.052,7.337,3.863,0,0,0,0,0,0,0,0,0,0,0,0,0,0,0,0,
427,71.14,74.07,21.55,19.72,14.0,8.734,27.9,-19.82,11.3,14.84,23.45,-9.651,18.99,4.439,14.09,6.056,0,0,0,0,0,0,0,0,0,0,0,0,0,0,0,0,
428,92.68,82.91,15.82,26.19,15.38,8.815,13.98,-19.63,16.41,0.4668,24.69,-13.39,22.71,7.527,15.39,2.183,0,0,0,0,0,0,0,0,0,0,0,0,0,0,0,0,
429,101.2,92.0,31.62,19.16,23.98,17.4,12.05,7.658,24.66,5.911,24.42,-4.622,25.38,17.65,16.06,1.557,0,0,0,0,0,0,0,0,0,0,0,0,0,0,0,0,
430,126.3,118.7,52.55,55.77,41.79,31.76,24.13,26.54,34.03,23.77,26.02,4.027,29.1,27.12,17.62,7.944,0,0,0,0,0,0,0,0,0,0,0,0,0,0,0,0,
431,214.1,189.8,71.37,91.21,60.06,59.24,27.28,18.64,41.65,25.74,28.51,9.205,37.16,34.55,22.97,19.14,0,0,0,0,0,0,0,0,0,0,0,0,0,0,0,0,
432,293.1,275.0,108.0,120.5,85.74,102.0,20.56,32.52,45.91,26.42,32.82,19.77,45.83,44.66,35.09,31.4,0,0,0,0,0,0,0,0,0,0,0,0,0,0,0,0,
433,384.8,378.5,155.7,195.3,140.7,160.7,35.73,64.02,59.3,51.76,52.95,45.54,69.92,71.17,57.65,49.14,0,0,0,0,0,0,0,0,0,0,0,0,0,0,0,0,
434,591.3,539.2,223.0,279.5,222.8,238.2,73.73,80.25,96.4,98.82,94.71,82.08,114.7,110.1,96.18,82.08,0,0,0,0,0,0,0,0,0,0,0,0,0,0,0,0,
435,781.4,698.6,348.5,358.9,320.4,324.4,123.9,117.6,151.9,143.7,149.3,124.7,167.6,151.8,150.5,132.3,0,0,0,0,0,0,0,0,0,0,0,0,0,0,0,0,
436,799.6,766.8,486.6,453.3,416.7,401.3,179.9,169.8,216.9,182.2,189.5,155.3,204.6,182.7,199.1,180.1,0,0,0,0,0,0,0,0,0,0,0,0,0,0,0,0,
437,757.8,762.5,525.6,502.5,457.9,444.7,177.7,168.3,254.1,203.8,172.8,140.3,188.8,171.3,201.2,186.5,0,0,0,0,0,0,0,0,0,0,0,0,0,0,0,0,
438,773.2,759.5,488.7,501.1,440.7,458.3,123.4,138.1,230.1,193.1,121.8,108.8,145.6,138.7,152.1,144.5,0,0,0,0,0,0,0,0,0,0,0,0,0,0,0,0,
439,794.0,773.9,482.1,510.1,438.5,465.6,124.8,141.6,202.1,188.9,103.4,106.4,133.1,129.6,101.3,99.51,0,0,0,0,0,0,0,0,0,0,0,0,0,0,0,0,
440,750.9,758.7,482.8,507.3,448.2,453.0,155.1,158.0,211.1,197.5,110.5,105.0,131.3,120.5,80.2,80.28,0,0,0,0,0,0,0,0,0,0,0,0,0,0,0,0,
441,661.3,692.2,454.0,469.0,423.4,419.1,145.9,158.0,213.9,179.7,114.4,94.0,122.1,104.9,79.74,77.56,0,0,0,0,0,0,0,0,0,0,0,0,0,0,0,0,
442,599.1,605.6,447.1,414.7,390.0,388.3,154.2,144.9,205.6,161.8,121.1,94.3,125.2,106.1,89.57,83.12,0,0,0,0,0,0,0,0,0,0,0,0,0,0,0,0,
443,552.2,518.7,432.2,351.8,358.8,348.6,165.3,122.8,195.9,154.7,113.7,81.53,119.8,99.77,94.58,87.52,0,0,0,0,0,0,0,0,0,0,0,0,0,0,0,0,
444,458.3,443.2,366.1,314.8,313.0,307.5,131.1,104.0,169.6,132.6,94.2,58.43,104.1,84.62,85.47,81.35,0,0,0,0,0,0,0,0,0,0,0,0,0,0,0,0,
445,368.8,390.2,314.1,307.1,280.7,287.0,107.7,94.66,152.7,122.2,86.09,55.65,100.3,83.16,74.96,70.39,0,0,0,0,0,0,0,0,0,0,0,0,0,0,0,0,
446,319.0,337.8,286.2,284.3,272.8,268.0,101.2,104.6,150.7,126.8,76.95,60.66,95.3,87.84,67.18,62.31,0,0,0,0,0,0,0,0,0,0,0,0,0,0,0,0,
447,251.2,282.3,243.5,259.7,263.8,252.7,98.1,130.2,146.6,132.7,72.79,68.2,94.01,100.1,60.18,61.84,0,0,0,0,0,0,0,0,0,0,0,0,0,0,0,0,
448,174.5,226.3,211.7,227.0,231.3,231.0,115.9,111.2,150.2,143.1,77.65,73.06,91.36,95.34,57.7,63.17,0,0,0,0,0,0,0,0,0,0,0,0,0,0,0,0,
449,118.5,141.6,190.9,154.8,174.7,167.4,95.64,54.11,129.8,111.2,59.43,54.42,62.54,53.17,49.36,48.64,0,0,0,0,0,0,0,0,0,0,0,0,0,0,0,0,
450,56.79,63.06,155.3,106.2,137.8,116.1,46.33,48.58,85.44,55.99,42.15,40.81,48.4,35.29,35.35,28.6,0,0,0,0,0,0,0,0,0,0,0,0,0,0,0,0,
451,-5.622,28.83,117.1,96.3,131.5,113.7,47.94,72.82,81.92,56.11,54.34,50.69,66.39,55.13,36.46,31.39,0,0,0,0,0,0,0,0,0,0,0,0,0,0,0,0,
452,-51.28,-12.46,78.22,66.51,104.9,98.35,48.18,59.0,90.83,67.39,54.58,51.21,65.98,57.91,48.38,49.34,0,0,0,0,0,0,0,0,0,0,0,0,0,0,0,0,
453,-94.94,-57.99,42.66,55.46,70.18,75.38,15.88,44.98,67.52,57.15,39.45,44.98,55.56,57.32,51.47,58.69,0,0,0,0,0,0,0,0,0,0,0,0,0,0,0,0,
454,-142.4,-76.68,21.56,65.29,62.94,79.69,16.68,53.22,57.58,75.67,36.9,46.91,57.56,63.71,44.36,55.67,0,0,0,0,0,0,0,0,0,0,0,0,0,0,0,0,
455,-178.2,-117.5,4.697,29.31,47.68,67.89,28.75,53.29,60.34,83.38,28.68,41.41,43.42,44.96,30.36,42.6,0,0,0,0,0,0,0,0,0,0,0,0,0,0,0,0,
456,-185.2,-159.2,0.8671,6.922,21.48,39.93,27.89,53.92,46.24,43.82,16.97,37.9,27.01,29.19,17.43,28.38,0,0,0,0,0,0,0,0,0,0,0,0,0,0,0,0,
457,-174.8,-146.2,4.092,28.41,20.55,37.11,41.89,60.97,43.68,25.14,20.27,47.1,32.32,39.44,17.02,26.68,0,0,0,0,0,0,0,0,0,0,0,0,0,0,0,0,
458,-186.7,-147.1,-19.85,10.9,21.78,37.93,29.48,58.71,46.77,38.93,12.86,42.79,24.42,34.8,17.4,27.0,0,0,0,0,0,0,0,0,0,0,0,0,0,0,0,0,
459,-225.0,-193.2,-38.41,-16.92,6.885,24.67,-6.19,47.24,26.59,29.36,-7.348,22.55,0.8774,12.51,5.17,12.98,0,0,0,0,0,0,0,0,0,0,0,0,0,0,0,0,
460,-247.2,-214.4,-22.69,-5.593,-3.162,13.27,3.632,28.77,12.99,2.223,-8.745,13.19,-2.231,5.955,-3.922,-0.2218,0,0,0,0,0,0,0,0,0,0,0,0,0,0,0,0,
461,-239.0,-207.8,-26.87,-14.84,-14.84,0.5646,17.09,19.59,17.07,-1.001,-4.077,13.34,-1.265,7.231,0.0801,3.462,0,0,0,0,0,0,0,0,0,0,0,0,0,0,0,0,
462,-230.1,-207.1,-47.49,-43.91,-29.98,-11.35,-3.001,29.17,5.363,10.01,-11.21,8.143,-14.52,-0.2362,3.497,10.87,0,0,0,0,0,0,0,0,0,0,0,0,0,0,0,0,
463,-228.6,-206.5,-34.68,-45.57,-29.22,-11.48,6.31,23.84,-9.429,-0.4309,-11.13,3.594,-15.18,-5.599,1.181,11.8,0,0,0,0,0,0,0,0,0,0,0,0,0,0,0,0,
464,-227.5,-208.9,-28.94,-42.58,-26.06,-8.738,24.8,1.068,-0.2244,-14.51,-7.173,5.531,-5.478,-2.076,-3.424,11.39,0,0,0,0,0,0,0,0,0,0,0,0,0,0,0,0,
465,-241.5,-219.9,-54.56,-52.7,-33.39,-12.54,-2.547,-2.204,7.396,-1.785,-16.83,4.668,-7.748,0.9649,-12.39,7.271,0,0,0,0,0,0,0,0,0,0,0,0,0,0,0,0,
466,-259.0,-230.4,-60.7,-60.34,-33.94,-23.43,-19.8,5.92,3.086,3.162,-23.73,1.618,-7.275,-1.722,-19.91,-1.654,0,0,0,0,0,0,0,0,0,0,0,0,0,0,0,0,
467,-254.7,-236.3,-57.78,-62.4,-32.8,-35.14,-8.367,2.231,9.736,-13.45,-21.44,6.67,-2.627,-5.535,-19.44,-6.054,0,0,0,0,0,0,0,0,0,0,0,0,0,0,0,0,
468,-251.7,-235.0,-79.77,-66.2,-49.83,-37.4,-28.29,-9.32,8.759,-7.788,-32.91,7.105,-18.14,-11.93,-22.8,-9.042,0,0,0,0,0,0,0,0,0,0,0,0,0,0,0,0,
469,-257.1,-234.6,-89.8,-79.27,-68.18,-40.83,-52.81,-16.14,-16.3,-0.4618,-49.52,-11.34,-38.28,-26.93,-38.79,-21.43,0,0,0,0,0,0,0,0,0,0,0,0,0,0,0,0,
470,-243.2,-240.4,-72.42,-89.75,-64.22,-60.15,-27.27,-1.234,-24.21,-35.86,-45.0,-28.41,-39.63,-42.15,-54.36,-37.18,0,0,0,0,0,0,0,0,0,0,0,0,0,0,0,0,
471,-232.9,-238.1,-66.17,-79.82,-58.74,-77.02,-1.743,11.61,-9.294,-68.06,-40.12,-29.44,-42.0,-46.45,-59.44,-46.63,0,0,0,0,0,0,0,0,0,0,0,0,0,0,0,0,
472,-249.0,-230.3,-71.35,-65.52,-69.75,-69.33,-17.94,-11.51,-16.31,-53.95,-51.06,-24.11,-48.64,-39.77,-58.76,-48.27,0,0,0,0,0,0,0,0,0,0,0,0,0,0,0,0,
473,-249.4,-225.6,-61.48,-66.76,-67.21,-51.43,-26.31,-24.31,-29.84,-24.51,-45.45,-14.43,-37.05,-26.8,-52.57,-38.77,0,0,0,0,0,0,0,0,0,0,0,0,0,0,0,0,
474,-226.2,-214.7,-56.64,-69.82,-47.61,-44.81,-7.85,2.644,-14.88,-11.52,-26.11,-6.302,-22.24,-19.74,-40.63,-24.4,0,0,0,0,0,0,0,0,0,0,0,0,0,0,0,0,
475,-220.0,-209.6,-74.36,-63.02,-48.96,-40.27,-0.8559,20.96,-4.393,-11.14,-22.83,-7.869,-20.14,-22.29,-32.51,-19.43,0,0,0,0,0,0,0,0,0,0,0,0,0,0,0,0,
476,-217.4,-214.7,-72.76,-59.13,-59.24,-34.29,-3.658,16.54,-13.56,-6.048,-18.14,-10.64,-15.45,-25.24,-30.51,-21.51,0,0,0,0,0,0,0,0,0,0,0,0,0,0,0,0,
477,-199.2,-202.1,-42.83,-56.8,-49.17,-45.43,7.987,6.88,-10.72,-4.477,-9.96,-15.93,-13.83,-32.57,-30.24,-24.99,0,0,0,0,0,0,0,0,0,0,0,0,0,0,0,0,
478,-195.4,-184.9,-35.53,-41.44,-41.53,-57.82,25.56,2.68,-2.565,-19.93,-21.39,-25.61,-22.39,-40.78,-35.54,-33.75,0,0,0,0,0,0,0,0,0,0,0,0,0,0,0,0,
479,-202.4,-190.2,-54.09,-29.64,-52.51,-49.07,25.53,19.46,-6.969,-21.01,-32.37,-28.2,-27.42,-37.28,-46.77,-43.31,0,0,0,0,0,0,0,0,0,0,0,0,0,0,0,0,
480,-199.7,-195.1,-65.89,-39.93,-67.2,-46.21,1.671,28.63,-16.6,-5.438,-32.72,-32.77,-34.93,-39.64,-54.83,-49.23,0,0,0,0,0,0,0,0,0,0,0,0,0,0,0,0,
481,-195.0,-188.0,-66.53,-55.12,-77.31,-61.33,-14.69,-0.258,-31.34,-19.57,-40.03,-51.63,-48.77,-60.52,-58.04,-58.62,0,0,0,0,0,0,0,0,0,0,0,0,0,0,0,0,
482,-178.4,-178.5,-62.63,-60.62,-81.16,-73.11,-9.723,-32.93,-45.21,-49.37,-49.05,-69.54,-60.14,-81.28,-66.06,-73.19,0,0,0,0,0,0,0,0,0,0,0,0,0,0,0,0,
483,-163.0,-164.8,-70.65,-61.18,-85.94,-82.1,-22.74,-39.5,-52.25,-58.96,-56.71,-69.64,-72.34,-89.57,-79.59,-84.59,0,0,0,0,0,0,0,0,0,0,0,0,0,0,0,0,
484,-183.8,-167.2,-91.17,-70.9,-101.6,-93.77,-51.24,-30.47,-61.73,-65.3,-63.11,-61.49,-78.21,-90.04,-84.22,-86.06,0,0,0,0,0,0,0,0,0,0,0,0,0,0,0,0,
485,-213.5,-195.5,-101.1,-96.85,-121.5,-108.2,-62.78,-32.67,-74.59,-82.42,-69.26,-72.53,-83.97,-99.08,-83.49,-84.54,0,0,0,0,0,0,0,0,0,0,0,0,0,0,0,0,
486,-217.0,-208.1,-112.4,-111.2,-135.3,-125.6,-79.97,-53.84,-95.59,-105.6,-90.61,-92.1,-106.9,-113.7,-97.71,-91.95,0,0,0,0,0,0,0,0,0,0,0,0,0,0,0,0,
487,-198.7,-189.4,-126.4,-104.9,-136.4,-127.5,-94.27,-59.47,-118.7,-118.9,-101.9,-80.25,-111.4,-102.8,-112.6,-97.01,0,0,0,0,0,0,0,0,0,0,0,0,0,0,0,0,
488,-165.2,-171.6,-108.0,-104.0,-121.8,-110.8,-66.43,-44.42,-114.8,-102.1,-80.89,-60.46,-85.22,-81.58,-102.4,-85.42,0,0,0,0,0,0,0,0,0,0,0,0,0,0,0,0,
489,-145.7,-164.5,-83.23,-92.09,-108.8,-103.2,-48.26,-44.05,-97.09,-85.45,-77.9,-73.36,-84.51,-91.6,-89.11,-77.04,0,0,0,0,0,0,0,0,0,0,0,0,0,0,0,0,
490,-161.8,-165.2,-100.6,-77.34,-122.4,-116.9,-83.39,-56.43,-100.7,-102.0,-104.4,-86.65,-110.2,-113.4,-99.68,-89.78,0,0,0,0,0,0,0,0,0,0,0,0,0,0,0,0,
491,-186.3,-186.0,-129.4,-115.6,-152.2,-144.3,-114.4,-59.78,-117.2,-125.6,-112.5,-78.5,-120.5,-121.7,-117.4,-105.7,0,0,0,0,0,0,0,0,0,0,0,0,0,0,0,0,
492,-193.7,-206.3,-128.4,-150.6,-159.7,-159.8,-109.6,-54.78,-129.9,-135.8,-106.6,-75.89,-121.5,-126.6,-120.5,-106.2,0,0,0,0,0,0,0,0,0,0,0,0,0,0,0,0,
493,-183.5,-186.1,-117.3,-114.5,-142.3,-138.7,-95.52,-56.85,-133.8,-130.0,-107.0,-77.01,-120.7,-123.0,-109.7,-95.4,0,0,0,0,0,0,0,0,0,0,0,0,0,0,0,0,
494,-178.7,-159.5,-119.6,-88.66,-139.1,-115.4,-88.05,-60.6,-128.0,-108.4,-104.6,-71.37,-111.6,-111.2,-94.83,-84.38,0,0,0,0,0,0,0,0,0,0,0,0,0,0,0,0,
495,-197.8,-180.3,-123.9,-109.6,-160.4,-134.9,-93.54,-48.74,-130.2,-111.1,-101.7,-73.96,-105.6,-110.5,-87.59,-80.18,0,0,0,0,0,0,0,0,0,0,0,0,0,0,0,0,
496,-204.9,-205.7,-126.0,-114.2,-169.8,-158.1,-97.74,-53.62,-138.6,-137.3,-98.12,-81.5,-100.4,-111.5,-89.83,-83.57,0,0,0,0,0,0,0,0,0,0,0,0,0,0,0,0,
497,-175.2,-186.5,-129.0,-105.9,-151.9,-134.9,-84.92,-68.68,-127.7,-118.1,-92.72,-79.38,-91.54,-102.1,-96.0,-89.61,0,0,0,0,0,0,0,0,0,0,0,0,0,0,0,0,
498,-145.6,-158.1,-113.2,-100.3,-135.4,-102.6,-82.8,-37.96,-111.5,-80.57,-98.99,-74.66,-95.48,-100.1,-105.2,-94.75,0,0,0,0,0,0,0,0,0,0,0,0,0,0,0,0,
499,-142.7,-148.9,-90.31,-88.99,-134.0,-105.4,-100.4,-33.94,-118.1,-101.9,-110.8,-77.3,-109.9,-112.9,-115.3,-101.2,0,0,0,0,0,0,0,0,0,0,0,0,0,0,0,0,
500,-149.2,-147.8,-93.99,-94.3,-127.5,-113.7,-98.81,-91.35,-128.7,-126.9,-114.0,-81.32,-116.8,-119.6,-121.4,-108.8,0,0,0,0,0,0,0,0,0,0,0,0,0,0,0,0,
501,-138.5,-145.6,-93.42,-101.5,-106.3,-95.72,-73.83,-80.03,-116.9,-95.09,-109.5,-73.76,-110.8,-104.5,-120.8,-106.7,0,0,0,0,0,0,0,0,0,0,0,0,0,0,0,0,
502,-111.7,-129.8,-67.64,-84.61,-81.06,-72.33,-64.39,-21.05,-93.53,-67.45,-93.06,-54.26,-90.79,-76.54,-108.2,-86.85,0,0,0,0,0,0,0,0,0,0,0,0,0,0,0,0,
503,-95.99,-104.5,-57.24,-68.29,-60.23,-61.8,-73.44,-24.3,-73.92,-69.56,-65.82,-38.25,-60.92,-53.64,-80.53,-58.28,0,0,0,0,0,0,0,0,0,0,0,0,0,0,0,0,
504,-85.83,-88.41,-50.85,-64.05,-45.8,-49.9,-65.01,-33.4,-51.97,-56.68,-44.13,-34.12,-35.7,-39.18,-48.83,-33.57,0,0,0,0,0,0,0,0,0,0,0,0,0,0,0,0,
505,-67.23,-79.11,-28.15,-73.29,-39.22,-39.05,-47.77,-26.58,-30.29,-34.3,-42.58,-37.48,-30.86,-34.04,-33.41,-22.2,0,0,0,0,0,0,0,0,0,0,0,0,0,0,0,0,
506,-72.41,-82.32,-39.56,-94.49,-48.23,-55.81,-59.62,-43.57,-30.23,-34.48,-57.36,-42.2,-42.49,-39.54,-40.29,-28.06,0,0,0,0,0,0,0,0,0,0,0,0,0,0,0,0,
507,-95.19,-102.8,-74.9,-95.54,-61.41,-80.22,-73.68,-42.77,-44.95,-44.78,-57.42,-39.08,-38.76,-37.5,-45.85,-34.66,0,0,0,0,0,0,0,0,0,0,0,0,0,0,0,0,
508,-83.02,-107.1,-67.51,-72.52,-50.16,-63.83,-55.57,-31.29,-40.26,-30.41,-33.07,-27.51,-15.23,-21.9,-31.14,-24.83,0,0,0,0,0,0,0,0,0,0,0,0,0,0,0,0,
509,-62.8,-90.65,-42.29,-54.33,-34.28,-34.14,-38.62,-40.22,-22.83,-0.2025,-20.55,-23.32,-9.507,-16.77,-15.96,-12.04,0,0,0,0,0,0,0,0,0,0,0,0,0,0,0,0,
510,-81.55,-90.94,-41.09,-56.87,-41.11,-43.37,-42.2,-39.61,-23.56,-3.278,-30.6,-30.78,-22.74,-25.25,-21.31,-14.7,0,0,0,0,0,0,0,0,0,0,0,0,0,0,0,0,
511,-98.64,-101.4,-37.83,-75.42,-39.87,-61.38,-44.43,-40.5,-28.92,-31.14,-38.57,-35.28,-23.65,-29.84,-34.46,-26.75,0,0,0,0,0,0,0,0,0,0,0,0,0,0,0,0,
512,-87.28,-93.79,-29.65,-80.78,-28.35,-55.13,-37.15,-52.56,-19.12,-35.05,-37.29,-37.0,-13.91,-29.49,-37.57,-34.15,0,0,0,0,0,0,0,0,0,0,0,0,0,0,0,0,
513,-77.75,-86.37,-35.02,-71.6,-34.35,-50.03,-30.91,-46.58,-9.239,-23.78,-30.93,-46.89,-9.169,-27.92,-30.32,-33.18,0,0,0,0,0,0,0,0,0,0,0,0,0,0,0,0,
514,-74.42,-98.2,-34.69,-68.71,-34.69,-55.08,-39.71,-30.38,-8.555,-19.41,-27.02,-52.6,-11.74,-28.79,-22.65,-30.73,0,0,0,0,0,0,0,0,0,0,0,0,0,0,0,0,
515,-75.01,-108.5,-26.7,-61.1,-31.84,-64.72,-46.79,-19.4,-16.61,-24.7,-34.51,-48.76,-21.88,-38.93,-25.04,-33.73,0,0,0,0,0,0,0,0,0,0,0,0,0,0,0,0,
516,-87.01,-105.6,-36.71,-67.25,-56.33,-83.77,-28.07,-25.02,-31.74,-47.75,-44.47,-58.07,-35.04,-51.77,-36.85,-40.74,0,0,0,0,0,0,0,0,0,0,0,0,0,0,0,0,
517,-93.06,-107.0,-56.84,-95.78,-72.34,-92.49,-18.29,-43.16,-38.52,-61.27,-46.51,-67.83,-43.16,-54.72,-46.77,-47.07,0,0,0,0,0,0,0,0,0,0,0,0,0,0,0,0,
518,-87.91,-114.7,-65.54,-86.89,-65.38,-83.79,-37.37,-35.05,-38.25,-48.3,-44.39,-51.7,-44.52,-49.15,-48.11,-47.45,0,0,0,0,0,0,0,0,0,0,0,0,0,0,0,0,
519,-84.72,-117.5,-66.05,-61.44,-77.9,-85.31,-49.39,-24.15,-47.64,-50.36,-43.97,-43.25,-45.81,-48.88,-44.0,-41.68,0,0,0,0,0,0,0,0,0,0,0,0,0,0,0,0,
520,-85.13,-123.9,-69.94,-85.84,-97.72,-97.02,-61.25,-52.05,-63.19,-70.6,-49.51,-58.25,-53.58,-58.09,-40.66,-41.04,0,0,0,0,0,0,0,0,0,0,0,0,0,0,0,0,
521,-90.94,-125.8,-79.44,-107.6,-95.52,-100.0,-88.01,-64.97,-78.2,-74.44,-58.82,-60.99,-61.28,-61.75,-42.1,-49.54,0,0,0,0,0,0,0,0,0,0,0,0,0,0,0,0,
522,-89.33,-102.1,-80.24,-85.78,-84.78,-95.17,-91.07,-37.77,-85.75,-70.05,-63.29,-57.3,-60.51,-55.76,-49.06,-55.83,0,0,0,0,0,0,0,0,0,0,0,0,0,0,0,0,
523,-71.36,-85.19,-67.66,-72.31,-71.0,-82.44,-73.31,-30.17,-75.96,-69.2,-63.7,-62.61,-58.43,-53.03,-58.01,-55.12,0,0,0,0,0,0,0,0,0,0,0,0,0,0,0,0,
524,-60.9,-93.45,-64.44,-68.04,-58.05,-60.69,-70.41,-46.32,-66.04,-59.63,-69.56,-58.13,-62.31,-51.68,-62.81,-51.95,0,0,0,0,0,0,0,0,0,0,0,0,0,0,0,0,
525,-54.17,-79.59,-62.97,-38.2,-51.44,-37.55,-65.41,-36.7,-67.63,-43.52,-75.36,-48.51,-61.16,-42.34,-60.45,-46.32,0,0,0,0,0,0,0,0,0,0,0,0,0,0,0,0,
526,-39.85,-47.48,-44.6,-15.67,-40.83,-19.1,-58.07,-16.03,-62.33,-30.8,-69.61,-43.83,-50.26,-31.29,-53.48,-38.85,0,0,0,0,0,0,0,0,0,0,0,0,0,0,0,0,
527,-49.5,-45.17,-48.87,-37.83,-41.57,-15.38,-79.89,-28.08,-57.71,-20.12,-68.39,-40.66,-50.34,-30.13,-50.0,-37.91,0,0,0,0,0,0,0,0,0,0,0,0,0,0,0,0,
528,-70.77,-59.41,-81.81,-68.01,-62.75,-30.43,-106.4,-41.94,-70.51,-18.16,-81.14,-47.17,-63.39,-37.11,-55.09,-46.29,0,0,0,0,0,0,0,0,0,0,0,0,0,0,0,0,
529,-62.38,-69.99,-86.12,-62.66,-69.69,-48.58,-106.1,-25.89,-77.72,-38.54,-81.81,-51.69,-63.01,-39.32,-59.69,-51.92,0,0,0,0,0,0,0,0,0,0,0,0,0,0,0,0,
530,-50.75,-81.85,-70.72,-49.05,-60.05,-56.86,-91.01,-25.25,-68.33,-62.67,-68.0,-43.59,-53.54,-35.88,-54.95,-47.02,0,0,0,0,0,0,0,0,0,0,0,0,0,0,0,0,
531,-55.67,-79.23,-75.23,-58.05,-59.82,-54.14,-74.75,-46.14,-63.59,-59.29,-64.33,-45.4,-58.8,-38.94,-49.28,-41.43,0,0,0,0,0,0,0,0,0,0,0,0,0,0,0,0,
532,-52.92,-65.7,-79.81,-60.07,-61.99,-45.77,-77.98,-43.41,-69.55,-44.13,-71.24,-54.46,-73.03,-48.74,-52.9,-44.45,0,0,0,0,0,0,0,0,0,0,0,0,0,0,0,0,
533,-51.14,-66.04,-70.28,-42.08,-59.09,-43.25,-91.87,-26.05,-76.92,-45.11,-77.1,-50.16,-77.01,-52.23,-59.87,-50.45,0,0,0,0,0,0,0,0,0,0,0,0,0,0,0,0,
534,-58.81,-67.88,-60.11,-31.7,-53.89,-42.85,-74.28,-13.34,-73.49,-45.44,-71.7,-44.82,-64.07,-44.23,-57.23,-49.37,0,0,0,0,0,0,0,0,0,0,0,0,0,0,0,0,
535,-55.91,-54.65,-57.36,-32.95,-48.58,-36.44,-54.04,-11.99,-58.74,-31.71,-56.86,-50.68,-51.81,-40.31,-46.26,-43.56,0,0,0,0,0,0,0,0,0,0,0,0,0,0,0,0,
536,-48.32,-46.84,-62.15,-40.72,-54.78,-39.88,-60.09,-36.21,-54.07,-32.18,-50.71,-55.81,-55.17,-49.11,-39.64,-42.79,0,0,0,0,0,0,0,0,0,0,0,0,0,0,0,0,
537,-43.04,-54.08,-55.77,-43.64,-54.95,-48.46,-45.11,-51.39,-51.37,-51.43,-41.97,-50.99,-48.72,-46.82,-34.42,-42.03,0,0,0,0,0,0,0,0,0,0,0,0,0,0,0,0,
538,-28.01,-43.76,-37.08,-19.15,-30.35,-36.5,-22.83,-31.07,-28.07,-48.59,-19.13,-43.78,-27.63,-30.26,-21.53,-32.29,0,0,0,0,0,0,0,0,0,0,0,0,0,0,0,0,
539,-14.72,-12.22,-29.85,-5.513,-19.52,-26.86,-30.65,-16.61,-17.53,-24.5,-15.04,-47.18,-28.25,-32.08,-14.22,-26.34,0,0,0,0,0,0,0,0,0,0,0,0,0,0,0,0,
540,-13.51,-11.84,-25.61,-33.34,-34.89,-40.77,-24.23,-23.85,-36.4,-25.5,-31.43,-60.28,-41.48,-48.52,-23.46,-35.83,0,0,0,0,0,0,0,0,0,0,0,0,0,0,0,0,
541,-16.29,-40.51,-17.69,-41.2,-35.86,-46.68,-12.94,-28.52,-40.33,-48.94,-34.61,-66.99,-39.61,-52.52,-35.1,-48.59,0,0,0,0,0,0,0,0,0,0,0,0,0,0,0,0,
542,-23.76,-40.03,-19.82,-21.71,-21.47,-39.97,-43.38,-23.48,-27.91,-56.43,-30.1,-55.45,-36.5,-47.03,-37.58,-51.75,0,0,0,0,0,0,0,0,0,0,0,0,0,0,0,0,
543,-22.14,-22.67,-12.42,-25.22,-13.42,-41.02,-56.17,-20.71,-30.31,-42.69,-29.79,-41.28,-35.93,-40.23,-34.22,-45.85,0,0,0,0,0,0,0,0,0,0,0,0,0,0,0,0,
544,-3.429,-27.46,7.302,-29.64,-13.63,-41.96,-18.82,-32.97,-36.1,-28.44,-28.09,-51.5,-32.88,-39.33,-31.64,-38.91,0,0,0,0,0,0,0,0,0,0,0,0,0,0,0,0,
545,0.5726,-32.65,1.952,-31.64,-25.57,-43.9,-6.967,-40.74,-36.88,-35.85,-32.75,-68.27,-39.77,-50.21,-36.21,-39.7,0,0,0,0,0,0,0,0,0,0,0,0,0,0,0,0,
546,-13.24,-28.41,-19.27,-52.31,-37.51,-48.61,-37.88,-28.96,-42.42,-57.62,-40.82,-58.4,-46.85,-54.75,-45.66,-45.21,0,0,0,0,0,0,0,0,0,0,0,0,0,0,0,0,
547,-19.49,-34.69,-24.95,-49.67,-36.84,-44.57,-57.07,-29.94,-46.6,-60.73,-41.2,-47.73,-44.91,-48.46,-50.86,-47.21,0,0,0,0,0,0,0,0,0,0,0,0,0,0,0,0,
548,-26.55,-43.5,-29.35,-30.68,-40.98,-48.17,-57.59,-44.8,-51.0,-53.39,-44.23,-60.51,-49.52,-50.43,-51.34,-48.01,0,0,0,0,0,0,0,0,0,0,0,0,0,0,0,0,
549,-39.75,-46.62,-43.98,-35.06,-50.85,-60.51,-52.81,-43.7,-60.33,-63.95,-50.22,-64.52,-54.92,-54.3,-50.69,-48.16,0,0,0,0,0,0,0,0,0,0,0,0,0,0,0,0,
550,-45.51,-45.38,-51.49,-28.18,-46.28,-48.92,-38.57,-36.77,-58.75,-73.99,-44.62,-52.03,-47.88,-46.42,-47.08,-42.63,0,0,0,0,0,0,0,0,0,0,0,0,0,0,0,0,
551,-35.11,-28.71,-47.16,-1.384,-32.58,-24.62,-34.29,-26.81,-41.0,-61.19,-32.29,-49.41,-36.79,-36.3,-39.38,-35.98,0,0,0,0,0,0,0,0,0,0,0,0,0,0,0,0,
552,-9.954,-11.6,-42.54,12.95,-27.29,-20.51,-44.88,-10.52,-26.7,-46.39,-26.51,-54.68,-28.57,-33.67,-31.4,-35.08,0,0,0,0,0,0,0,0,0,0,0,0,0,0,0,0,
553,-1.498,-16.68,-42.82,18.8,-30.2,-22.76,-35.49,-21.76,-27.75,-50.46,-29.1,-59.97,-27.33,-36.45,-28.96,-38.27,0,0,0,0,0,0,0,0,0,0,0,0,0,0,0,0,
554,-12.48,-18.52,-45.7,20.69,-29.35,-11.2,-21.18,-50.3,-30.6,-54.54,-33.89,-64.35,-31.64,-36.5,-31.84,-41.0,0,0,0,0,0,0,0,0,0,0,0,0,0,0,0,0,
555,-3.719,-6.212,-53.59,18.81,-30.7,-7.995,-44.17,-42.2,-27.92,-43.77,-36.52,-54.59,-32.94,-33.1,-33.1,-39.05,0,0,0,0,0,0,0,0,0,0,0,0,0,0,0,0,
556,2.09,-10.97,-62.78,14.04,-49.15,-27.99,-61.91,-9.539,-36.87,-45.67,-36.86,-34.0,-33.45,-30.6,-30.58,-31.04,0,0,0,0,0,0,0,0,0,0,0,0,0,0,0,0,
557,-12.43,-18.15,-52.58,3.896,-55.58,-32.07,-29.23,1.367,-46.99,-56.34,-27.15,-22.52,-27.87,-21.01,-24.66,-19.65,0,0,0,0,0,0,0,0,0,0,0,0,0,0,0,0,
558,-0.8703,0.8409,-26.62,8.875,-23.14,-4.659,0.1324,-8.581,-26.82,-35.08,-8.112,-23.68,-11.99,-9.916,-13.93,-10.31,0,0,0,0,0,0,0,0,0,0,0,0,0,0,0,0,
559,17.29,11.77,-14.85,17.57,3.813,3.073,-11.05,-14.77,-1.905,-12.94,-0.9519,-28.14,-7.224,-14.43,-5.601,-10.84,0,0,0,0,0,0,0,0,0,0,0,0,0,0,0,0,
560,12.5,6.186,-13.92,-0.068,-0.6506,-15.0,-20.16,-6.432,-4.749,-27.52,-6.354,-28.6,-12.89,-18.73,-7.182,-20.44,0,0,0,0,0,0,0,0,0,0,0,0,0,0,0,0,
561,31.05,25.96,-6.178,-7.039,3.61,-8.244,-11.88,6.364,-5.654,-30.55,-9.458,-30.36,-9.398,-12.3,-14.11,-28.45,0,0,0,0,0,0,0,0,0,0,0,0,0,0,0,0,
562,59.74,51.08,-0.9159,13.41,19.24,14.05,-16.57,6.409,4.897,-13.42,-14.45,-35.37,-6.842,-12.67,-19.59,-28.92,0,0,0,0,0,0,0,0,0,0,0,0,0,0,0,0,
563,48.7,38.01,-6.414,14.57,11.54,14.18,-29.76,-6.576,0.8485,-19.77,-18.65,-25.37,-7.684,-11.57,-17.8,-20.09,0,0,0,0,0,0,0,0,0,0,0,0,0,0,0,0,
564,26.85,8.816,-23.97,-5.118,-8.299,4.042,-23.19,-23.04,-2.031,-21.7,-17.85,-9.403,-3.87,-4.786,-10.78,-8.274,0,0,0,0,0,0,0,0,0,0,0,0,0,0,0,0,
565,13.89,-10.68,-50.27,-19.57,-19.81,-6.941,-14.12,-34.21,4.813,-6.439,-25.64,-21.99,-12.57,-18.08,-13.88,-11.22,0,0,0,0,0,0,0,0,0,0,0,0,0,0,0,0,
566,-11.36,-20.79,-66.6,-31.83,-30.36,-26.02,-30.66,-35.03,-9.597,-26.17,-29.26,-43.55,-25.75,-35.22,-23.07,-24.45,0,0,0,0,0,0,0,0,0,0,0,0,0,0,0,0,
567,-31.41,-19.17,-65.32,-39.98,-30.42,-33.12,-35.23,-35.75,-28.66,-48.36,-8.01,-34.34,-12.22,-23.11,-11.81,-20.45,0,0,0,0,0,0,0,0,0,0,0,0,0,0,0,0,
568,-21.75,-17.14,-50.16,-40.27,-12.28,-21.03,-4.208,-40.56,-14.38,-20.83,13.32,-18.48,9.69,-7.888,15.55,-2.525,0,0,0,0,0,0,0,0,0,0,0,0,0,0,0,0,
569,1.294,-16.11,-27.93,-38.97,-0.8625,-12.4,4.038,-34.71,8.736,-6.881,15.1,-23.81,11.24,-11.17,26.44,1.499,0,0,0,0,0,0,0,0,0,0,0,0,0,0,0,0,
570,13.87,-7.362,-24.67,-35.38,-4.019,-8.085,-21.75,-20.37,13.32,-21.14,10.13,-26.61,5.87,-8.615,13.37,-8.539,0,0,0,0,0,0,0,0,0,0,0,0,0,0,0,0,
571,11.57,-10.73,-37.55,-27.97,-6.313,-8.583,-23.97,-18.7,11.84,-2.971,0.4948,-23.67,1.161,-4.21,-6.984,-17.18,0,0,0,0,0,0,0,0,0,0,0,0,0,0,0,0,
572,4.237,-16.41,-28.62,-19.46,-3.564,-20.34,-2.431,-31.06,6.169,3.859,-8.21,-32.97,-7.418,-16.59,-21.39,-24.14,0,0,0,0,0,0,0,0,0,0,0,0,0,0,0,0,
573,4.779,5.16,-13.24,-13.53,1.25,-14.99,8.663,-31.52,-2.008,-26.09,-4.611,-33.42,-10.01,-23.88,-24.34,-29.82,0,0,0,0,0,0,0,0,0,0,0,0,0,0,0,0,
574,14.7,17.89,-26.88,-8.846,-5.428,2.424,0.0868,-13.15,-1.272,-23.04,-7.069,-23.46,-14.79,-22.74,-23.1,-32.79,0,0,0,0,0,0,0,0,0,0,0,0,0,0,0,0,
575,15.29,-0.9892,-42.33,-5.901,-26.63,-12.66,-21.05,-8.806,-6.944,-13.29,-20.66,-32.86,-31.22,-34.39,-28.59,-38.9,0,0,0,0,0,0,0,0,0,0,0,0,0,0,0,0,
576,-1.929,-12.74,-35.31,-16.42,-33.87,-34.42,-23.68,-16.3,-24.41,-41.88,-18.26,-39.09,-32.05,-38.58,-30.53,-40.87,0,0,0,0,0,0,0,0,0,0,0,0,0,0,0,0,
577,-0.7104,-3.926,-22.71,-25.27,-15.82,-21.03,2.589,-1.235,-23.66,-51.9,4.039,-14.42,-3.885,-14.96,-10.38,-19.98,0,0,0,0,0,0,0,0,0,0,0,0,0,0,0,0,
578,42.33,20.9,-1.655,-7.349,16.74,9.28,33.04,13.89,4.969,-20.89,40.18,20.69,36.68,22.16,32.04,23.03,0,0,0,0,0,0,0,0,0,0,0,0,0,0,0,0,
579,83.06,55.78,34.41,10.66,54.89,41.04,63.83,24.15,43.45,26.25,88.98,53.44,77.2,60.0,84.44,71.0,0,0,0,0,0,0,0,0,0,0,0,0,0,0,0,0,
580,93.44,73.56,62.31,15.84,75.12,62.05,91.44,64.72,76.7,62.21,122.8,75.44,99.73,81.58,128.7,107.0,0,0,0,0,0,0,0,0,0,0,0,0,0,0,0,0,
581,97.99,71.16,64.84,25.93,68.9,52.6,90.16,71.97,90.22,59.7,116.3,70.69,91.24,74.33,140.3,114.2,0,0,0,0,0,0,0,0,0,0,0,0,0,0,0,0,
582,90.33,57.35,38.5,9.2,49.04,23.81,44.09,8.186,72.82,42.05,69.57,44.31,57.9,48.3,105.6,84.41,0,0,0,0,0,0,0,0,0,0,0,0,0,0,0,0,
583,62.29,36.07,-6.114,-25.66,20.07,0.1894,-23.15,-17.67,33.18,14.83,8.169,12.51,14.74,16.19,44.11,31.57,0,0,0,0,0,0,0,0,0,0,0,0,0,0,0,0,
584,46.42,32.58,-39.13,-17.01,0.0823,-3.373,-54.97,4.161,1.036,-27.69,-17.9,-3.949,-8.469,-4.614,-0.596,-11.8,0,0,0,0,0,0,0,0,0,0,0,0,0,0,0,0,
585,35.88,31.3,-57.07,-8.034,-7.878,-2.325,-46.87,-18.95,-8.316,-32.02,-8.308,-1.872,-6.468,-8.158,-8.001,-23.44,0,0,0,0,0,0,0,0,0,0,0,0,0,0,0,0,
586,18.07,3.621,-71.94,-35.52,-25.26,-21.57,-41.68,-43.94,-11.51,-18.45,-9.156,-6.509,-10.94,-12.2,-0.7355,-14.15,0,0,0,0,0,0,0,0,0,0,0,0,0,0,0,0,
587,23.16,-6.593,-71.13,-27.49,-37.26,-36.35,-41.84,-31.23,-15.97,-42.32,-17.38,-19.87,-24.84,-20.92,-0.8108,-7.196,0,0,0,0,0,0,0,0,0,0,0,0,0,0,0,0,
588,28.88,8.543,-67.2,0.7086,-40.85,-32.84,-51.02,-50.72,-22.44,-61.08,-18.77,-26.59,-35.48,-29.68,-6.594,-10.14,0,0,0,0,0,0,0,0,0,0,0,0,0,0,0,0,
589,6.251,3.785,-79.4,-19.45,-56.68,-34.58,-68.03,-73.39,-40.99,-59.12,-23.52,-25.26,-43.21,-34.46,-11.69,-15.14,0,0,0,0,0,0,0,0,0,0,0,0,0,0,0,0,
590,-3.544,-1.155,-80.5,-40.12,-60.4,-32.79,-61.54,-30.93,-53.04,-57.64,-20.89,-16.32,-37.96,-27.18,-9.827,-11.37,0,0,0,0,0,0,0,0,0,0,0,0,0,0,0,0,
591,0.9666,3.769,-78.69,-27.39,-55.23,-31.95,-67.03,-0.7109,-48.87,-50.78,-17.87,-11.98,-32.17,-24.24,-2.785,-2.461,0,0,0,0,0,0,0,0,0,0,0,0,0,0,0,0,
592,-10.56,-12.17,-105.1,-27.36,-77.19,-49.61,-101.0,-36.36,-60.79,-58.31,-35.72,-17.71,-48.64,-37.9,-5.141,-4.591,0,0,0,0,0,0,0,0,0,0,0,0,0,0,0,0,
593,-21.78,-21.51,-119.9,-36.51,-92.15,-57.56,-92.86,-53.29,-84.07,-74.44,-53.15,-20.26,-65.33,-51.08,-19.79,-18.47,0,0,0,0,0,0,0,0,0,0,0,0,0,0,0,0,
594,-31.49,-5.475,-100.7,-19.83,-72.78,-51.99,-66.65,-27.04,-87.74,-79.29,-54.3,-24.52,-64.63,-56.01,-33.5,-28.38,0,0,0,0,0,0,0,0,0,0,0,0,0,0,0,0,
595,-36.74,4.06,-82.01,1.56,-55.1,-44.04,-80.5,-27.24,-80.08,-78.95,-51.12,-32.34,-61.36,-50.81,-38.91,-29.97,0,0,0,0,0,0,0,0,0,0,0,0,0,0,0,0,
596,-11.88,8.991,-67.32,-6.082,-50.29,-21.11,-76.04,-40.98,-70.44,-50.93,-47.85,-36.6,-61.88,-45.82,-41.31,-34.96,0,0,0,0,0,0,0,0,0,0,0,0,0,0,0,0,
597,7.119,14.75,-58.78,-20.59,-49.08,-19.64,-36.9,-21.2,-57.01,-31.79,-44.13,-44.46,-62.33,-58.35,-45.58,-46.33,0,0,0,0,0,0,0,0,0,0,0,0,0,0,0,0,
598,-9.517,3.837,-65.96,-14.27,-53.2,-51.01,-28.72,-11.63,-49.71,-69.18,-35.09,-42.75,-57.97,-61.07,-43.51,-47.95,0,0,0,0,0,0,0,0,0,0,0,0,0,0,0,0,
599,-17.43,-9.132,-64.29,-13.67,-56.41,-52.48,-51.7,-33.46,-55.58,-79.57,-23.78,-24.5,-51.79,-42.11,-29.57,-33.16,0,0,0,0,0,0,0,0,0,0,0,0,0,0,0,0,
600,-10.34,-7.936,-56.49,-23.99,-55.7,-30.39,-58.02,-35.51,-70.76,-42.38,-19.46,-17.02,-47.56,-36.85,-13.15,-15.74,0,0,0,0,0,0,0,0,0,0,0,0,0,0,0,0,
601,-11.68,-2.598,-56.29,-8.491,-47.33,-24.51,-34.11,-14.96,-69.17,-37.09,-10.28,-18.04,-32.68,-36.26,3.165,-2.068,0,0,0,0,0,0,0,0,0,0,0,0,0,0,0,0,
602,5.161,14.45,-42.86,19.83,-29.47,-7.291,-15.35,-2.95,-41.39,-40.0,-0.0172,-13.53,-14.17,-20.8,18.82,7.182,0,0,0,0,0,0,0,0,0,0,0,0,0,0,0,0,
603,33.77,44.85,-34.37,25.54,-18.68,17.98,-31.39,-4.519,-31.29,-20.97,-10.4,-19.84,-15.92,-16.16,19.98,3.106,0,0,0,0,0,0,0,0,0,0,0,0,0,0,0,0,
604,26.24,48.43,-53.3,14.86,-19.88,12.29,-52.13,-15.82,-45.65,-18.54,-28.44,-34.16,-27.46,-22.9,5.88,-11.23,0,0,0,0,0,0,0,0,0,0,0,0,0,0,0,0,
605,4.618,19.73,-57.45,7.818,-22.61,-0.9248,-52.31,-15.38,-43.06,-26.42,-32.23,-34.23,-27.15,-17.13,-6.458,-18.27,0,0,0,0,0,0,0,0,0,0,0,0,0,0,0,0,
606,14.08,13.23,-34.78,13.38,-23.18,9.238,-45.72,-4.765,-28.8,-20.67,-20.75,-21.83,-15.59,-2.452,-7.582,-10.53,0,0,0,0,0,0,0,0,0,0,0,0,0,0,0,0,
607,32.72,29.69,-22.17,14.14,-19.78,16.61,-37.26,-16.66,-24.61,-8.552,-8.458,-14.81,-9.106,3.451,-1.056,1.777,0,0,0,0,0,0,0,0,0,0,0,0,0,0,0,0,
608,26.91,23.01,-19.56,2.642,-15.6,4.793,-31.54,-19.62,-27.61,-10.05,-12.94,-16.54,-15.22,0.1332,3.488,5.424,0,0,0,0,0,0,0,0,0,0,0,0,0,0,0,0,
609,11.77,13.89,-10.69,14.76,-8.067,1.515,-26.16,14.81,-28.56,-25.14,-15.65,-10.17,-10.87,7.526,6.042,4.37,0,0,0,0,0,0,0,0,0,0,0,0,0,0,0,0,
610,28.58,36.18,1.625,43.16,11.34,14.96,-9.609,26.83,-12.2,-18.35,-1.129,5.495,5.241,21.14,13.53,8.652,0,0,0,0,0,0,0,0,0,0,0,0,0,0,0,0,
611,73.35,64.27,21.46,52.04,28.74,27.25,0.6786,9.941,6.749,3.998,5.74,15.24,6.897,20.56,20.25,12.97,0,0,0,0,0,0,0,0,0,0,0,0,0,0,0,0,
612,96.1,84.9,45.06,71.34,33.0,43.88,-0.6045,20.57,6.337,7.927,8.275,20.07,8.168,20.89,24.22,14.61,0,0,0,0,0,0,0,0,0,0,0,0,0,0,0,0,
613,123.4,124.3,58.15,110.4,39.98,66.91,1.975,31.39,6.088,13.21,16.68,15.16,14.59,22.7,30.5,18.11,0,0,0,0,0,0,0,0,0,0,0,0,0,0,0,0,
614,213.3,197.9,91.85,131.4,67.09,86.1,11.38,16.0,10.23,24.16,16.2,-1.273,9.159,11.17,32.24,18.84,0,0,0,0,0,0,0,0,0,0,0,0,0,0,0,0,
615,328.5,293.8,177.2,162.9,121.9,124.8,44.35,31.24,17.27,26.18,29.1,4.436,22.36,21.92,35.25,23.03,0,0,0,0,0,0,0,0,0,0,0,0,0,0,0,0,
616,473.1,409.5,268.3,244.8,194.3,197.3,80.54,79.51,48.61,51.33,60.41,39.22,59.77,64.24,55.41,45.73,0,0,0,0,0,0,0,0,0,0,0,0,0,0,0,0,
617,676.8,566.2,348.3,334.3,269.4,271.1,80.02,102.9,88.15,98.32,69.91,60.34,78.73,88.25,78.16,71.94,0,0,0,0,0,0,0,0,0,0,0,0,0,0,0,0,
618,800.4,719.4,453.9,385.2,344.9,327.2,95.27,96.65,118.7,123.3,68.37,54.43,84.04,90.0,82.69,75.67,0,0,0,0,0,0,0,0,0,0,0,0,0,0,0,0,
619,772.7,771.5,535.1,422.4,404.7,381.1,139.2,93.2,151.7,139.6,76.61,51.91,91.72,99.88,75.61,64.09,0,0,0,0,0,0,0,0,0,0,0,0,0,0,0,0,
620,749.1,747.7,545.9,481.7,437.3,434.9,139.4,122.0,172.1,173.1,77.81,68.64,95.43,115.2,70.73,60.76,0,0,0,0,0,0,0,0,0,0,0,0,0,0,0,0,
621,775.9,749.9,547.0,526.6,461.3,465.8,136.3,162.4,181.3,196.7,87.62,88.17,112.0,131.9,77.88,73.55,0,0,0,0,0,0,0,0,0,0,0,0,0,0,0,0,
622,762.5,756.1,544.0,503.5,470.2,465.0,165.1,147.2,206.3,207.9,116.8,92.51,137.4,151.2,99.69,94.39,0,0,0,0,0,0,0,0,0,0,0,0,0,0,0,0,
623,706.8,694.7,494.3,446.1,438.8,441.1,139.9,107.5,222.1,224.1,121.0,82.45,132.1,147.0,114.6,103.0,0,0,0,0,0,0,0,0,0,0,0,0,0,0,0,0,
624,627.6,598.7,439.6,409.8,389.4,400.0,97.53,119.4,198.5,200.9,91.68,73.29,102.9,119.2,101.1,87.19,0,0,0,0,0,0,0,0,0,0,0,0,0,0,0,0,
625,537.3,531.8,411.7,382.0,358.8,365.4,126.5,133.5,171.7,152.9,81.05,76.65,96.19,115.1,81.48,71.63,0,0,0,0,0,0,0,0,0,0,0,0,0,0,0,0,
626,472.2,480.4,374.4,346.5,335.0,340.0,143.6,109.6,170.5,164.8,91.67,73.73,101.6,121.6,82.36,76.96,0,0,0,0,0,0,0,0,0,0,0,0,0,0,0,0,
627,402.9,408.1,321.5,314.3,292.9,284.9,108.1,101.5,159.1,168.2,76.35,51.12,79.79,90.72,80.98,77.89,0,0,0,0,0,0,0,0,0,0,0,0,0,0,0,0,
628,317.9,334.7,288.7,278.1,251.7,226.7,102.0,105.5,129.7,99.32,54.05,44.5,62.33,68.34,61.51,61.68,0,0,0,0,0,0,0,0,0,0,0,0,0,0,0,0,
629,266.1,281.1,275.1,235.9,230.5,212.2,114.0,85.62,128.2,85.95,62.55,57.58,72.53,82.9,48.75,50.07,0,0,0,0,0,0,0,0,0,0,0,0,0,0,0,0,
630,215.4,219.6,237.1,206.3,203.5,193.9,92.68,57.23,132.8,125.2,61.62,44.09,55.95,66.15,40.47,39.55,0,0,0,0,0,0,0,0,0,0,0,0,0,0,0,0,
631,128.3,149.5,177.3,182.1,156.6,147.2,62.0,36.82,93.97,88.58,33.11,16.66,11.41,21.09,14.46,16.34,0,0,0,0,0,0,0,0,0,0,0,0,0,0,0,0,
632,49.8,94.43,135.1,140.1,106.6,109.9,45.87,36.64,47.87,36.31,16.11,10.46,-9.322,3.703,-13.68,-5.551,0,0,0,0,0,0,0,0,0,0,0,0,0,0,0,0,
633,-9.877,35.33,103.5,89.93,69.2,75.82,43.66,53.15,27.72,29.5,12.43,10.2,-12.56,0.0616,-22.93,-15.57,0,0,0,0,0,0,0,0,0,0,0,0,0,0,0,0,
634,-60.56,-25.98,78.11,65.08,59.11,44.68,38.08,46.93,21.31,11.65,18.57,12.3,-5.801,2.734,-12.99,-12.88,0,0,0,0,0,0,0,0,0,0,0,0,0,0,0,0,
635,-82.36,-53.92,74.3,69.43,62.44,40.08,23.07,17.97,30.07,3.89,38.44,17.88,13.56,15.84,8.338,1.09,0,0,0,0,0,0,0,0,0,0,0,0,0,0,0,0,
636,-98.75,-68.26,58.12,60.19,50.84,41.77,34.51,7.891,35.55,23.49,35.98,2.358,8.289,5.23,14.03,3.819,0,0,0,0,0,0,0,0,0,0,0,0,0,0,0,0,
637,-129.5,-91.13,21.66,29.51,38.87,34.17,50.38,9.912,19.97,20.26,9.13,-20.11,-17.45,-19.32,-9.959,-16.89,0,0,0,0,0,0,0,0,0,0,0,0,0,0,0,0,
638,-143.2,-97.61,12.52,27.08,37.41,27.98,20.97,-5.609,9.083,5.025,-2.762,-18.43,-21.33,-18.62,-31.36,-34.23,0,0,0,0,0,0,0,0,0,0,0,0,0,0,0,0,
639,-154.2,-104.1,14.42,38.95,24.19,15.43,-1.821,-22.4,6.27,5.926,-5.957,-8.61,-15.52,-8.102,-28.46,-29.74,0,0,0,0,0,0,0,0,0,0,0,0,0,0,0,0,
640,-201.8,-144.3,-15.22,14.02,0.6228,-7.652,6.298,-22.54,-5.063,5.951,-16.0,-11.65,-22.27,-11.23,-19.3,-18.0,0,0,0,0,0,0,0,0,0,0,0,0,0,0,0,0,
641,-246.1,-183.1,-44.87,-10.94,-16.71,-23.56,-9.524,-15.61,-13.26,-5.66,-21.15,-16.12,-27.07,-16.17,-15.65,-12.14,0,0,0,0,0,0,0,0,0,0,0,0,0,0,0,0,
642,-243.6,-186.7,-46.9,-7.309,-25.26,-21.69,-28.2,-7.239,-10.83,-14.56,-21.03,-6.082,-20.91,-8.789,-10.41,-7.298,0,0,0,0,0,0,0,0,0,0,0,0,0,0,0,0,
643,-239.0,-182.3,-56.3,-14.5,-30.01,-20.07,-19.94,-11.05,-7.425,-7.9,-20.92,5.674,-15.17,0.7864,-0.1126,1.817,0,0,0,0,0,0,0,0,0,0,0,0,0,0,0,0,
644,-268.9,-198.1,-95.31,-31.4,-47.68,-40.06,-29.22,-27.22,-13.51,-10.34,-25.48,-4.376,-23.62,-8.089,7.807,5.134,0,0,0,0,0,0,0,0,0,0,0,0,0,0,0,0,
645,-294.1,-226.8,-132.4,-41.37,-72.43,-58.34,-55.04,-31.41,-32.35,-31.75,-39.03,-19.39,-37.42,-22.23,3.994,-6.483,0,0,0,0,0,0,0,0,0,0,0,0,0,0,0,0,
646,-283.0,-236.8,-131.5,-48.04,-66.3,-44.84,-58.71,-35.79,-40.81,-22.32,-46.88,-15.52,-34.64,-16.08,-6.952,-18.95,0,0,0,0,0,0,0,0,0,0,0,0,0,0,0,0,
647,-256.5,-215.1,-111.0,-33.42,-42.71,-26.89,-52.01,-39.81,-25.63,11.09,-43.18,-10.83,-26.58,-8.175,-12.81,-18.59,0,0,0,0,0,0,0,0,0,0,0,0,0,0,0,0,
648,-249.2,-201.1,-110.9,-14.48,-47.47,-31.97,-52.1,-12.72,-19.39,6.6,-39.66,-9.137,-26.88,-8.706,-9.77,-11.21,0,0,0,0,0,0,0,0,0,0,0,0,0,0,0,0,
649,-260.2,-210.9,-114.7,-22.62,-53.08,-31.29,-47.26,3.101,-26.41,-5.388,-33.64,6.226,-16.28,8.891,2.183,1.599,0,0,0,0,0,0,0,0,0,0,0,0,0,0,0,0,
650,-256.6,-203.1,-102.4,-27.17,-31.91,-13.5,-33.79,-18.38,-13.69,19.16,-27.7,15.59,-4.341,27.91,14.2,17.25,0,0,0,0,0,0,0,0,0,0,0,0,0,0,0,0,
651,-246.7,-193.0,-106.6,-21.78,-34.9,-20.42,-21.38,-16.37,-2.642,26.2,-30.49,4.346,-16.93,13.38,10.37,17.53,0,0,0,0,0,0,0,0,0,0,0,0,0,0,0,0,
652,-254.4,-219.0,-122.8,-37.86,-63.84,-53.72,-20.25,1.468,-20.17,-4.354,-28.56,-5.43,-28.42,-7.009,-2.288,1.49,0,0,0,0,0,0,0,0,0,0,0,0,0,0,0,0,
653,-255.0,-231.1,-122.9,-57.75,-63.77,-63.48,-39.78,-12.83,-31.84,-13.06,-20.46,-5.231,-20.99,-5.384,-4.553,-9.963,0,0,0,0,0,0,0,0,0,0,0,0,0,0,0,0,
654,-250.5,-216.4,-131.3,-67.6,-56.89,-57.72,-58.83,-20.79,-28.97,2.513,-21.0,-5.055,-18.23,-3.989,-0.1528,-10.94,0,0,0,0,0,0,0,0,0,0,0,0,0,0,0,0,
655,-257.6,-230.4,-137.4,-78.86,-67.81,-71.58,-37.86,2.065,-31.96,-2.478,-17.41,-5.575,-14.54,-8.316,2.324,-7.813,0,0,0,0,0,0,0,0,0,0,0,0,0,0,0,0,
656,-245.8,-234.8,-105.2,-72.44,-56.67,-73.95,-2.619,8.726,-22.38,-13.9,2.414,-2.699,4.525,-2.093,9.012,-1.876,0,0,0,0,0,0,0,0,0,0,0,0,0,0,0,0,
657,-230.6,-198.7,-79.78,-52.13,-38.69,-57.62,-3.421,-11.21,0.4203,-6.785,13.65,-2.356,11.75,-0.3447,16.67,1.185,0,0,0,0,0,0,0,0,0,0,0,0,0,0,0,0,
658,-237.7,-193.3,-92.48,-49.88,-52.48,-65.24,-9.028,-21.41,3.018,-6.695,2.066,-10.2,-1.163,-12.51,13.17,-4.381,0,0,0,0,0,0,0,0,0,0,0,0,0,0,0,0,
659,-224.6,-213.5,-99.82,-56.55,-62.03,-73.2,11.59,-26.35,-8.399,-14.78,-3.402,-11.77,-1.02,-10.06,8.696,-7.162,0,0,0,0,0,0,0,0,0,0,0,0,0,0,0,0,
660,-203.2,-210.1,-95.92,-65.27,-50.11,-59.91,14.2,-39.69,-7.016,-6.619,9.134,-2.045,12.21,6.642,19.56,3.987,0,0,0,0,0,0,0,0,0,0,0,0,0,0,0,0,
661,-209.5,-203.6,-102.4,-79.08,-48.62,-63.06,-11.12,-24.99,-1.814,-7.475,9.729,-0.0692,10.23,6.032,31.2,15.48,0,0,0,0,0,0,0,0,0,0,0,0,0,0,0,0,
662,-207.2,-187.8,-103.0,-71.0,-51.88,-63.51,-22.43,11.23,-6.339,-23.24,-1.387,-4.538,2.489,-3.089,25.01,12.05,0,0,0,0,0,0,0,0,0,0,0,0,0,0,0,0,
663,-200.8,-164.7,-103.0,-58.87,-49.63,-45.54,-27.4,13.79,-6.927,-15.77,-3.029,-6.81,2.146,-5.169,11.21,-0.3645,0,0,0,0,0,0,0,0,0,0,0,0,0,0,0,0,
664,-214.5,-181.2,-125.8,-79.62,-60.92,-59.2,-44.82,-2.569,-5.766,-8.256,-12.35,-15.08,-8.034,-15.32,0.9822,-14.08,0,0,0,0,0,0,0,0,0,0,0,0,0,0,0,0,
665,-211.3,-202.5,-137.7,-90.84,-73.75,-82.58,-42.05,-13.22,-18.81,-21.57,-26.82,-21.38,-20.07,-25.23,-7.904,-25.69,0,0,0,0,0,0,0,0,0,0,0,0,0,0,0,0,
666,-201.2,-196.0,-118.6,-76.18,-67.8,-73.49,-16.35,-33.12,-25.56,-14.57,-18.47,-20.18,-15.3,-21.75,-13.64,-28.61,0,0,0,0,0,0,0,0,0,0,0,0,0,0,0,0,
667,-216.8,-201.9,-115.5,-86.55,-66.23,-74.21,-10.79,-42.59,-19.61,-8.099,-8.573,-25.1,-13.94,-25.11,-15.94,-26.9,0,0,0,0,0,0,0,0,0,0,0,0,0,0,0,0,
668,-223.5,-205.7,-133.7,-108.2,-77.14,-86.79,-26.01,-38.37,-28.05,-27.04,-13.53,-27.55,-22.71,-32.23,-18.91,-28.99,0,0,0,0,0,0,0,0,0,0,0,0,0,0,0,0,
669,-210.3,-191.2,-136.1,-102.9,-74.99,-77.44,-35.86,-38.65,-34.07,-13.56,-13.89,-18.27,-23.61,-24.95,-22.22,-31.14,0,0,0,0,0,0,0,0,0,0,0,0,0,0,0,0,
670,-211.4,-198.1,-134.6,-95.64,-72.06,-78.9,-33.71,-27.59,-24.55,7.382,-20.47,-13.11,-25.41,-21.85,-26.9,-31.1,0,0,0,0,0,0,0,0,0,0,0,0,0,0,0,0,
671,-222.7,-207.6,-138.5,-93.21,-88.37,-92.12,-23.55,-20.93,-31.58,-21.96,-33.45,-8.364,-30.78,-25.05,-31.29,-29.35,0,0,0,0,0,0,0,0,0,0,0,0,0,0,0,0,
672,-213.6,-179.8,-133.6,-71.53,-94.0,-69.84,-22.74,-16.14,-41.49,-23.35,-24.24,6.774,-25.27,-15.17,-27.92,-21.04,0,0,0,0,0,0,0,0,0,0,0,0,0,0,0,0,
673,-190.7,-147.8,-134.5,-58.18,-83.72,-49.24,-28.7,20.89,-33.58,12.11,-14.99,8.316,-26.15,-17.49,-22.96,-14.28,0,0,0,0,0,0,0,0,0,0,0,0,0,0,0,0,T1
674,-194.7,-153.1,-135.8,-83.51,-88.91,-79.86,-23.96,19.09,-41.58,-18.39,-31.29,-9.01,-43.46,-41.99,-29.73,-22.8,0,0,0,0,0,0,0,0,0,0,0,0,0,0,0,0,
675,-212.9,-175.0,-120.5,-106.0,-95.59,-106.2,-36.34,-42.44,-59.42,-61.62,-43.91,-11.09,-53.75,-47.92,-43.26,-37.67,0,0,0,0,0,0,0,0,0,0,0,0,0,0,0,0,
676,-193.8,-167.3,-121.5,-90.52,-92.54,-91.92,-66.39,-40.64,-57.8,-41.69,-46.97,-2.763,-59.1,-42.1,-53.66,-46.94,0,0,0,0,0,0,0,0,0,0,0,0,0,0,0,0,
677,-160.5,-142.3,-142.9,-68.75,-99.93,-78.65,-58.07,14.9,-60.93,-35.87,-57.15,-9.197,-66.56,-49.43,-60.21,-54.38,0,0,0,0,0,0,0,0,0,0,0,0,0,0,0,0,
678,-152.2,-133.3,-141.3,-65.71,-97.75,-69.32,-29.6,17.71,-70.04,-50.52,-56.01,-10.2,-57.8,-42.27,-56.48,-55.27,0,0,0,0,0,0,0,0,0,0,0,0,0,0,0,0,
679,-149.3,-121.5,-118.2,-65.32,-79.52,-52.3,-35.63,-7.232,-58.87,-29.72,-43.53,-3.162,-46.2,-27.71,-41.9,-44.67,0,0,0,0,0,0,0,0,0,0,0,0,0,0,0,0,
680,-148.1,-106.3,-101.1,-54.37,-81.76,-54.17,-50.05,-14.23,-50.73,-20.35,-48.1,-17.99,-53.6,-40.48,-37.9,-41.04,0,0,0,0,0,0,0,0,0,0,0,0,0,0,0,0,
681,-151.4,-116.7,-105.5,-51.21,-94.38,-69.21,-52.77,-23.45,-59.9,-38.77,-60.16,-39.61,-58.2,-53.02,-52.07,-52.99,0,0,0,0,0,0,0,0,0,0,0,0,0,0,0,0,
682,-145.9,-133.5,-129.8,-76.31,-90.97,-76.22,-67.04,-38.61,-60.91,-42.07,-56.41,-37.8,-47.83,-40.63,-58.25,-57.98,0,0,0,0,0,0,0,0,0,0,0,0,0,0,0,0,
683,-140.3,-128.2,-125.0,-91.8,-75.96,-75.13,-62.79,-35.41,-50.7,-39.2,-39.89,-19.19,-32.93,-22.6,-38.66,-41.4,0,0,0,0,0,0,0,0,0,0,0,0,0,0,0,0,
684,-130.3,-108.3,-80.73,-67.33,-56.49,-61.76,-19.75,-14.74,-34.53,-37.75,-21.88,-6.95,-16.65,-12.39,-10.24,-18.27,0,0,0,0,0,0,0,0,0,0,0,0,0,0,0,0,
685,-118.0,-101.0,-75.96,-55.84,-58.02,-54.87,-6.369,-24.01,-17.82,-28.8,-18.8,-17.1,-15.4,-19.3,1.538,-10.73,0,0,0,0,0,0,0,0,0,0,0,0,0,0,0,0,
686,-130.7,-121.7,-115.5,-71.06,-82.6,-71.19,-38.92,-52.83,-24.35,-28.34,-35.27,-30.59,-35.24,-37.62,-8.618,-23.65,0,0,0,0,0,0,0,0,0,0,0,0,0,0,0,0,
687,-145.9,-145.1,-117.7,-72.58,-86.68,-86.54,-46.86,-39.73,-44.84,-43.92,-44.44,-23.48,-47.23,-43.16,-24.22,-40.28,0,0,0,0,0,0,0,0,0,0,0,0,0,0,0,0,
688,-138.7,-151.3,-88.06,-75.18,-71.92,-85.61,-33.04,-24.84,-47.37,-56.93,-31.26,-19.37,-39.44,-36.63,-25.73,-42.31,0,0,0,0,0,0,0,0,0,0,0,0,0,0,0,0,
689,-127.6,-143.1,-78.54,-70.55,-63.87,-67.88,-39.39,-37.48,-38.87,-43.05,-17.41,-28.73,-28.53,-29.58,-12.91,-30.54,0,0,0,0,0,0,0,0,0,0,0,0,0,0,0,0,
690,-113.7,-119.4,-77.53,-36.11,-57.36,-49.69,-37.63,-21.29,-34.88,-19.34,-18.95,-20.72,-23.91,-20.99,-2.062,-16.18,0,0,0,0,0,0,0,0,0,0,0,0,0,0,0,0,
691,-110.2,-108.2,-72.46,-28.56,-58.37,-58.64,-16.36,-10.03,-32.05,-25.03,-23.05,-1.953,-22.92,-14.31,-0.0691,-5.415,0,0,0,0,0,0,0,0,0,0,0,0,0,0,0,0,
692,-131.5,-122.5,-73.99,-48.48,-64.61,-65.75,-9.269,-39.64,-25.63,-33.83,-17.68,-1.596,-21.06,-11.74,-1.043,-2.442,0,0,0,0,0,0,0,0,0,0,0,0,0,0,0,0,
693,-141.7,-128.5,-82.41,-42.09,-64.92,-51.24,-22.79,-39.76,-17.76,-15.71,-12.73,-0.799,-21.03,-9.3,-2.553,-7.985,0,0,0,0,0,0,0,0,0,0,0,0,0,0,0,0,
694,-131.5,-128.3,-99.01,-39.11,-74.33,-54.15,-40.78,-2.469,-21.96,-6.959,-13.33,19.54,-23.64,-4.403,-1.996,-11.18,0,0,0,0,0,0,0,0,0,0,0,0,0,0,0,0,
695,-121.7,-123.5,-103.8,-43.15,-76.79,-57.81,-33.86,21.62,-30.74,-14.19,-6.138,32.72,-17.07,6.808,5.861,-2.041,0,0,0,0,0,0,0,0,0,0,0,0,0,0,0,0,
696,-110.0,-100.1,-77.64,-22.65,-53.39,-36.48,1.184,25.85,-18.78,-2.953,7.908,32.84,-2.181,23.37,17.11,14.16,0,0,0,0,0,0,0,0,0,0,0,0,0,0,0,0,
697,-107.5,-98.5,-62.12,-24.17,-49.24,-35.62,14.95,16.51,-3.777,22.29,10.8,38.76,0.6486,30.49,21.05,23.03,0,0,0,0,0,0,0,0,0,0,0,0,0,0,0,0,
698,-119.7,-119.7,-83.95,-47.31,-78.09,-55.96,-4.791,9.295,-10.15,28.08,-2.728,29.68,-15.47,13.03,8.902,11.54,0,0,0,0,0,0,0,0,0,0,0,0,0,0,0,0,
699,-133.3,-119.4,-105.7,-34.9,-97.79,-63.76,-28.39,7.534,-21.78,2.551,-22.9,1.346,-33.34,-11.46,-17.3,-16.83,0,0,0,0,0,0,0,0,0,0,0,0,0,0,0,0,
700,-152.3,-121.8,-105.6,-21.85,-101.1,-74.4,-42.47,-6.316,-29.03,-19.22,-35.05,-5.287,-38.33,-13.78,-39.61,-39.55,0,0,0,0,0,0,0,0,0,0,0,0,0,0,0,0,
701,-154.4,-130.4,-92.28,-41.1,-99.8,-87.55,-32.0,-16.96,-34.99,-19.71,-36.47,0.4117,-39.86,-12.56,-46.44,-46.86,0,0,0,0,0,0,0,0,0,0,0,0,0,0,0,0,
702,-128.4,-113.9,-87.8,-51.15,-99.23,-88.42,-22.87,-14.58,-38.72,-33.81,-41.1,-7.596,-46.36,-25.15,-44.39,-48.13,0,0,0,0,0,0,0,0,0,0,0,0,0,0,0,0,
703,-133.1,-112.1,-116.7,-46.88,-110.1,-89.94,-57.83,-14.43,-47.39,-42.38,-50.11,-7.498,-50.19,-27.09,-39.98,-45.06,0,0,0,0,0,0,0,0,0,0,0,0,0,0,0,0,
704,-159.5,-133.9,-136.1,-49.61,-118.6,-95.62,-79.69,-12.11,-61.19,-26.14,-56.02,-7.761,-60.82,-35.15,-41.68,-41.82,0,0,0,0,0,0,0,0,0,0,0,0,0,0,0,0,
705,-127.0,-120.9,-93.02,-55.51,-107.3,-108.7,-42.42,-21.84,-74.21,-55.31,-62.74,-26.71,-83.13,-70.99,-58.27,-50.94,0,0,0,0,0,0,0,0,0,0,0,0,0,0,0,0,
706,-71.93,-87.98,-33.95,-68.29,-87.43,-124.9,-15.85,-60.05,-82.48,-104.4,-61.26,-30.39,-86.72,-84.51,-74.0,-62.13,0,0,0,0,0,0,0,0,0,0,0,0,0,0,0,0,
707,-67.24,-79.92,1.253,-78.33,-60.32,-108.0,-16.68,-78.24,-71.51,-81.59,-37.44,-13.49,-63.33,-61.86,-65.13,-54.58,0,0,0,0,0,0,0,0,0,0,0,0,0,0,0,0,
708,-66.62,-70.07,41.84,-56.87,-18.94,-62.43,16.36,-54.5,-37.5,-42.06,-5.373,-3.998,-36.57,-45.19,-36.3,-33.0,0,0,0,0,0,0,0,0,0,0,0,0,0,0,0,0,
709,-37.41,-38.34,69.76,-23.79,11.56,-41.99,51.09,-36.96,-1.612,-35.72,14.49,2.976,-14.66,-31.85,-8.409,-12.5,0,0,0,0,0,0,0,0,0,0,0,0,0,0,0,0,
710,-20.64,-19.02,53.97,-22.2,11.76,-51.01,32.49,-22.43,16.78,-22.74,22.62,13.87,2.884,-10.44,11.62,5.767,0,0,0,0,0,0,0,0,0,0,0,0,0,0,0,0,
711,-13.73,-22.85,46.47,-36.74,14.37,-44.99,29.89,12.03,26.22,-14.17,34.04,24.19,23.77,11.06,30.96,26.52,0,0,0,0,0,0,0,0,0,0,0,0,0,0,0,0,
712,-1.079,-18.19,74.69,-31.98,43.6,-13.81,86.69,25.08,50.05,0.7073,55.03,37.03,55.35,38.62,51.62,48.19,0,0,0,0,0,0,0,0,0,0,0,0,0,0,0,0,
713,0.7262,0.7556,90.57,-16.81,64.41,13.82,117.5,18.53,79.44,46.18,71.79,52.28,79.92,66.48,69.87,68.99,0,0,0,0,0,0,0,0,0,0,0,0,0,0,0,0,
714,-0.0261,7.424,88.6,-6.89,63.13,29.12,104.8,29.84,93.04,70.08,77.7,67.6,89.17,83.86,87.63,91.12,0,0,0,0,0,0,0,0,0,0,0,0,0,0,0,0,
715,11.05,4.696,94.03,0.8888,76.53,43.82,113.9,26.52,103.5,73.78,78.71,71.44,91.61,91.09,99.41,104.8,0,0,0,0,0,0,0,0,0,0,0,0,0,0,0,0,
716,31.57,16.15,91.24,0.9094,101.2,53.49,114.6,9.294,114.8,91.68,74.37,63.08,85.7,87.83,92.55,97.38,0,0,0,0,0,0,0,0,0,0,0,0,0,0,0,0,
717,51.17,28.75,85.46,-3.424,110.7,57.99,90.23,29.51,113.6,98.33,71.27,65.91,81.81,87.49,76.4,82.16,0,0,0,0,0,0,0,0,0,0,0,0,0,0,0,0,
718,42.99,26.8,101.1,9.723,117.5,68.9,110.4,58.62,110.3,102.4,73.02,72.65,86.09,90.1,69.47,76.27,0,0,0,0,0,0,0,0,0,0,0,0,0,0,0,0,
719,22.54,32.89,116.1,30.73,120.6,74.52,137.7,61.13,106.1,112.6,67.72,70.58,81.57,81.86,70.03,75.24,0,0,0,0,0,0,0,0,0,0,0,0,0,0,0,0,
720,30.48,43.29,111.7,22.88,106.0,63.85,108.4,57.53,91.62,101.5,59.74,76.05,71.52,77.66,69.74,75.14,0,0,0,0,0,0,0,0,0,0,0,0,0,0,0,0,
721,35.33,23.91,101.6,-13.18,94.83,50.63,94.29,40.16,85.14,92.2,56.3,69.52,65.15,73.72,64.07,72.74,0,0,0,0,0,0,0,0,0,0,0,0,0,0,0,0,
722,11.31,-5.326,91.06,-38.46,92.28,34.8,107.6,11.01,87.03,88.67,44.98,42.97,51.2,50.83,50.66,61.05,0,0,0,0,0,0,0,0,0,0,0,0,0,0,0,0,
723,-0.4157,-5.476,81.16,-33.62,74.04,12.44,74.18,2.26,70.55,52.53,26.54,39.02,34.69,34.14,38.01,48.91,0,0,0,0,0,0,0,0,0,0,0,0,0,0,0,0,
724,7.953,5.662,69.45,-21.13,48.33,2.614,34.09,-1.027,43.01,14.27,16.02,43.03,31.1,32.72,35.25,45.07,0,0,0,0,0,0,0,0,0,0,0,0,0,0,0,0,
725,7.234,-0.6708,53.25,-28.94,34.3,-2.314,34.49,-4.737,31.35,7.908,15.96,27.24,34.19,24.43,39.46,42.73,0,0,0,0,0,0,0,0,0,0,0,0,0,0,0,0,
726,-7.608,-16.43,43.63,-48.08,20.77,-25.03,30.67,17.02,29.67,0.6992,15.45,25.88,31.96,19.27,41.61,39.13,0,0,0,0,0,0,0,0,0,0,0,0,0,0,0,0,
727,-23.68,-25.3,39.74,-49.58,7.665,-36.25,27.63,27.53,23.47,-10.56,8.155,32.64,29.27,26.24,34.61,34.88,0,0,0,0,0,0,0,0,0,0,0,0,0,0,0,0,
728,-24.46,-28.85,36.84,-41.61,12.17,-24.16,45.78,-3.675,24.91,0.7236,8.166,18.81,35.11,29.22,24.22,28.72,0,0,0,0,0,0,0,0,0,0,0,0,0,0,0,0,
729,-17.64,-33.76,40.74,-55.3,16.74,-30.24,43.99,-23.59,34.81,10.77,17.18,12.94,37.3,24.02,20.24,23.37,0,0,0,0,0,0,0,0,0,0,0,0,0,0,0,0,
730,-25.3,-35.17,34.87,-74.13,-0.45,-41.3,18.79,-9.53,26.93,1.379,10.02,21.98,24.83,19.43,15.88,18.39,0,0,0,0,0,0,0,0,0,0,0,0,0,0,0,0,
731,-35.97,-29.83,8.316,-57.54,-15.24,-23.89,-2.537,0.4533,5.5,1.089,-9.272,19.98,15.82,23.72,5.623,13.54,0,0,0,0,0,0,0,0,0,0,0,0,0,0,0,0,
732,-29.05,-17.88,-6.566,-21.53,-5.29,-4.16,-10.55,-6.295,4.331,16.46,-12.18,17.03,22.4,36.5,1.154,14.69,0,0,0,0,0,0,0,0,0,0,0,0,0,0,0,0,
733,-9.405,0.0689,7.965,-10.68,18.83,8.881,14.68,-3.907,27.34,34.93,4.057,28.67,38.21,51.27,10.95,24.76,0,0,0,0,0,0,0,0,0,0,0,0,0,0,0,0,
734,6.743,7.096,33.33,-15.18,49.3,30.24,52.04,31.2,55.78,54.66,36.03,52.19,69.41,73.88,36.46,47.8,0,0,0,0,0,0,0,0,0,0,0,0,0,0,0,0,
735,20.24,12.13,69.0,5.475,89.98,60.79,73.8,69.23,90.55,76.36,87.33,91.43,122.2,115.8,82.83,91.82,0,0,0,0,0,0,0,0,0,0,0,0,0,0,0,0,
736,57.22,55.29,117.6,41.6,134.9,106.4,123.4,72.61,142.5,120.8,140.8,137.9,176.7,166.8,146.7,151.7,0,0,0,0,0,0,0,0,0,0,0,0,0,0,0,0,
737,101.4,102.1,143.4,54.07,162.4,135.9,174.8,84.16,190.3,173.0,165.6,158.1,201.5,192.1,199.8,198.9,0,0,0,0,0,0,0,0,0,0,0,0,0,0,0,0,
738,91.87,87.93,125.5,46.5,163.0,121.1,139.4,118.4,195.5,172.3,151.0,140.8,188.6,178.2,206.8,200.9,0,0,0,0,0,0,0,0,0,0,0,0,0,0,0,0,
739,45.47,54.51,89.7,37.7,146.1,105.5,72.31,104.9,166.0,142.5,116.6,116.7,160.5,155.1,167.5,161.1,0,0,0,0,0,0,0,0,0,0,0,0,0,0,0,0,
740,29.43,52.45,59.05,20.43,113.8,99.68,60.46,58.45,139.9,139.7,87.6,103.5,135.9,139.8,117.7,117.0,0,0,0,0,0,0,0,0,0,0,0,0,0,0,0,0,
741,37.98,43.69,47.0,5.91,86.28,78.09,67.2,52.48,125.7,135.1,72.02,92.06,118.3,124.5,84.76,92.15,0,0,0,0,0,0,0,0,0,0,0,0,0,0,0,0,
742,39.13,20.96,54.08,12.93,91.34,67.87,66.74,57.04,120.0,120.2,67.92,86.78,109.2,116.8,73.09,84.28,0,0,0,0,0,0,0,0,0,0,0,0,0,0,0,0,
743,34.55,25.46,53.03,16.94,102.7,71.9,68.51,35.27,119.4,121.0,66.11,84.88,101.0,111.2,75.34,84.92,0,0,0,0,0,0,0,0,0,0,0,0,0,0,0,0,
744,26.72,43.46,42.85,3.882,96.63,60.02,55.68,32.0,108.3,105.1,60.39,71.66,89.81,91.51,76.5,82.39,0,0,0,0,0,0,0,0,0,0,0,0,0,0,0,0,
745,19.78,40.42,41.35,-5.107,89.77,51.36,49.83,48.94,91.71,69.62,61.58,65.07,87.22,79.08,71.79,74.35,0,0,0,0,0,0,0,0,0,0,0,0,0,0,0,0,
746,15.83,25.26,33.28,-7.403,71.74,56.27,54.94,36.67,81.7,64.68,64.9,70.39,83.34,79.12,68.61,69.68,0,0,0,0,0,0,0,0,0,0,0,0,0,0,0,0,
747,3.543,17.53,15.75,-4.384,37.5,47.49,26.19,10.73,58.23,68.23,48.53,58.54,58.86,61.23,60.86,63.93,0,0,0,0,0,0,0,0,0,0,0,0,0,0,0,0,
748,-6.196,14.85,5.492,2.318,23.93,30.4,9.25,16.36,26.55,37.87,32.23,49.94,38.9,43.98,43.62,51.98,0,0,0,0,0,0,0,0,0,0,0,0,0,0,0,0,
749,8.9,11.46,7.649,-8.086,40.79,28.81,54.24,46.32,28.03,17.17,46.18,69.94,52.03,58.5,36.03,48.82,0,0,0,0,0,0,0,0,0,0,0,0,0,0,0,0,
750,29.8,15.91,27.26,-24.06,57.22,33.13,79.37,64.17,49.63,32.26,60.95,72.62,67.99,69.75,44.16,57.47,0,0,0,0,0,0,0,0,0,0,0,0,0,0,0,0,
751,23.65,16.89,37.5,-25.13,47.24,27.67,55.37,50.53,46.7,37.18,50.3,53.21,59.48,60.44,47.28,60.02,0,0,0,0,0,0,0,0,0,0,0,0,0,0,0,0,
752,4.813,-7.82,14.69,-32.29,24.88,22.0,50.76,36.56,34.55,36.87,42.95,61.44,55.31,66.96,43.85,56.17,0,0,0,0,0,0,0,0,0,0,0,0,0,0,0,0,
753,-4.088,-29.63,-0.4249,-43.78,20.94,12.64,41.71,51.49,40.72,60.51,46.21,72.16,65.26,78.88,47.56,57.15,0,0,0,0,0,0,0,0,0,0,0,0,0,0,0,0,
754,-21.16,-24.84,5.833,-40.05,15.28,-14.24,1.304,50.19,42.64,60.96,39.65,54.09,60.33,63.16,51.11,57.33,0,0,0,0,0,0,0,0,0,0,0,0,0,0,0,0,
755,-42.88,-22.96,-1.483,-37.46,-14.44,-29.5,2.074,22.61,30.15,26.74,34.54,43.02,47.45,45.84,47.46,51.32,0,0,0,0,0,0,0,0,0,0,0,0,0,0,0,0,
756,-41.67,-34.03,-25.21,-44.77,-34.38,-20.02,34.27,18.94,28.36,21.5,37.45,39.22,47.2,47.63,43.54,45.16,0,0,0,0,0,0,0,0,0,0,0,0,0,0,0,0,
757,-35.07,-52.3,-46.22,-56.6,-30.07,-26.48,32.94,17.87,36.11,37.66,33.26,28.82,47.28,47.18,38.52,40.7,0,0,0,0,0,0,0,0,0,0,0,0,0,0,0,0,
758,-33.81,-70.06,-40.02,-70.99,-21.55,-42.86,31.56,8.869,34.47,28.93,25.11,36.83,42.21,40.82,31.76,37.42,0,0,0,0,0,0,0,0,0,0,0,0,0,0,0,0,
759,-29.53,-56.05,-14.01,-71.7,-18.51,-36.2,35.88,27.04,27.17,16.84,14.4,46.92,35.63,36.09,26.9,35.33,0,0,0,0,0,0,0,0,0,0,0,0,0,0,0,0,
760,-43.69,-30.36,-14.03,-61.03,-26.51,-31.09,5.172,28.44,19.15,17.24,1.676,34.94,22.99,28.0,21.29,30.79,0,0,0,0,0,0,0,0,0,0,0,0,0,0,0,0,
761,-55.26,-35.66,-24.32,-58.9,-35.44,-40.47,-15.18,11.53,8.333,8.77,3.633,24.64,13.11,17.71,17.86,23.62,0,0,0,0,0,0,0,0,0,0,0,0,0,0,0,0,
762,-36.46,-42.74,-24.02,-59.14,-36.18,-44.76,-0.0079,33.27,0.7083,-5.056,9.204,13.81,10.68,7.005,17.74,15.02,0,0,0,0,0,0,0,0,0,0,0,0,0,0,0,0,
763,-32.39,-33.83,-48.75,-49.46,-39.42,-44.94,2.713,29.65,-4.187,-13.54,2.667,-3.973,9.755,0.6803,13.77,6.397,0,0,0,0,0,0,0,0,0,0,0,0,0,0,0,0,
764,-35.44,-24.19,-59.34,-32.07,-33.03,-31.73,-5.332,-18.65,-7.954,-9.373,6.814,2.36,18.85,12.19,16.07,9.086,0,0,0,0,0,0,0,0,0,0,0,0,0,0,0,0,
765,-7.12,-3.165,-13.75,-21.39,-11.46,-9.061,2.24,-6.929,-0.491,12.25,22.93,23.26,31.68,27.89,33.28,25.65,0,0,0,0,0,0,0,0,0,0,0,0,0,0,0,0,
766,5.982,9.005,15.33,-30.57,-4.106,-17.9,16.87,34.99,10.86,8.627,24.26,20.94,24.81,18.96,42.11,34.05,0,0,0,0,0,0,0,0,0,0,0,0,0,0,0,0,
767,-3.491,-8.278,6.934,-41.16,-9.754,-38.53,14.13,13.17,5.297,-33.11,14.39,4.795,8.178,-1.155,27.91,22.54,0,0,0,0,0,0,0,0,0,0,0,0,0,0,0,0,
768,9.952,-13.45,11.19,-32.01,-7.011,-21.09,-14.98,-20.9,-9.842,-36.43,9.094,-1.51,5.491,-3.616,11.65,9.34,0,0,0,0,0,0,0,0,0,0,0,0,0,0,0,0,
769,28.6,7.151,17.31,-15.44,-3.802,0.382,-22.03,-4.844,-15.05,-0.8072,9.775,-1.857,9.68,0.0645,12.87,10.03,0,0,0,0,0,0,0,0,0,0,0,0,0,0,0,0,
770,31.54,21.47,15.82,-11.47,-8.774,-12.09,10.77,15.17,-15.92,-10.91,11.29,-5.631,3.665,-7.2,23.79,17.21,0,0,0,0,0,0,0,0,0,0,0,0,0,0,0,0,
771,23.16,20.65,23.14,-24.7,-16.25,-29.37,18.65,-6.231,-25.09,-41.02,7.274,-9.653,-9.93,-15.06,23.92,16.64,0,0,0,0,0,0,0,0,0,0,0,0,0,0,0,0,
772,7.084,9.276,20.23,-35.68,-23.96,-38.39,1.775,-26.86,-34.59,-33.93,0.8197,-12.12,-19.81,-22.04,6.449,5.328,0,0,0,0,0,0,0,0,0,0,0,0,0,0,0,0,
773,8.417,-4.591,1.088,-28.92,-35.69,-49.65,-1.492,-10.14,-36.72,-35.28,-5.459,-17.04,-25.68,-32.18,-14.95,-6.393,0,0,0,0,0,0,0,0,0,0,0,0,0,0,0,0,
774,26.52,-4.011,-4.725,-23.28,-45.08,-49.76,-10.87,-4.999,-39.12,-50.13,-6.89,-13.16,-23.87,-26.73,-21.69,-5.28,0,0,0,0,0,0,0,0,0,0,0,0,0,0,0,0,
775,35.89,12.83,14.93,-24.77,-34.29,-37.67,-2.697,-19.91,-34.52,-27.85,13.86,5.142,-3.711,-4.665,-4.647,11.96,0,0,0,0,0,0,0,0,0,0,0,0,0,0,0,0,
776,35.82,25.38,34.97,-20.57,-17.19,-33.5,34.76,-11.57,-15.5,-2.851,41.05,12.64,17.48,5.182,26.3,34.27,0,0,0,0,0,0,0,0,0,0,0,0,0,0,0,0,
777,23.47,16.18,24.37,-22.94,-23.85,-38.68,33.22,-13.51,-9.106,-13.42,39.25,5.136,15.7,-0.1223,47.67,47.11,0,0,0,0,0,0,0,0,0,0,0,0,0,0,0,0,
778,2.789,-1.724,2.338,-35.26,-36.37,-44.56,5.091,-30.18,-24.33,-27.4,20.3,7.686,2.841,-4.213,45.18,45.79,0,0,0,0,0,0,0,0,0,0,0,0,0,0,0,0,
779,-9.416,-5.733,10.79,-36.57,-27.96,-45.23,1.107,-8.527,-34.09,-32.8,4.013,14.82,-7.88,-7.888,20.37,31.14,0,0,0,0,0,0,0,0,0,0,0,0,0,0,0,0,
780,-9.712,3.536,30.39,-27.02,-15.51,-35.43,4.159,10.9,-32.17,-32.38,-10.18,8.318,-15.29,-12.07,-12.65,7.662,0,0,0,0,0,0,0,0,0,0,0,0,0,0,0,0,
781,12.34,17.97,25.86,-23.49,-15.9,-24.49,20.89,-5.164,-23.66,-22.34,-9.778,-4.477,-11.07,-15.53,-30.58,-8.962,0,0,0,0,0,0,0,0,0,0,0,0,0,0,0,0,
782,39.75,23.93,20.08,-24.59,-16.89,-22.44,31.35,-17.34,-11.72,-24.34,-1.143,-14.73,-4.053,-21.7,-25.7,-10.3,0,0,0,0,0,0,0,0,0,0,0,0,0,0,0,0,
783,29.7,10.6,24.16,-15.67,-11.8,-21.79,-12.93,-31.2,-11.1,-31.36,-3.536,-22.5,-5.215,-22.64,-14.59,-9.929,0,0,0,0,0,0,0,0,0,0,0,0,0,0,0,0,
784,6.257,3.554,9.803,-7.389,-13.85,-16.99,-39.41,-43.27,-11.36,-19.03,-2.982,-30.16,-2.929,-17.6,-10.37,-16.56,0,0,0,0,0,0,0,0,0,0,0,0,0,0,0,0,
785,8.385,14.01,-3.463,-22.48,-18.52,-14.74,-2.723,-30.71,3.764,-11.6,2.509,-39.19,-1.494,-20.37,-13.63,-23.13,0,0,0,0,0,0,0,0,0,0,0,0,0,0,0,0,
786,11.16,9.246,7.629,-38.49,-14.99,-24.67,7.652,-26.72,7.47,-21.97,-2.289,-38.41,-10.39,-26.0,-19.6,-24.73,0,0,0,0,0,0,0,0,0,0,0,0,0,0,0,0,
787,-4.657,-10.67,-4.459,-33.8,-28.79,-43.73,-19.45,-37.33,-14.73,-32.79,-5.287,-25.66,-16.44,-25.15,-18.41,-19.55,0,0,0,0,0,0,0,0,0,0,0,0,0,0,0,0,
788,-26.9,-24.74,-43.58,-41.47,-60.43,-55.34,-25.12,-33.54,-37.46,-40.18,-3.167,-19.08,-18.58,-23.43,-9.425,-9.342,0,0,0,0,0,0,0,0,0,0,0,0,0,0,0,0,
789,-40.63,-33.79,-49.01,-59.78,-63.15,-55.14,-20.96,-21.41,-46.0,-33.63,-6.231,-17.12,-20.18,-18.04,-4.452,-1.594,0,0,0,0,0,0,0,0,0,0,0,0,0,0,0,0,
790,-30.33,-22.22,-33.56,-44.17,-42.01,-48.26,-22.34,-15.96,-41.0,-20.49,-10.55,-10.01,-16.45,-13.31,-8.237,0.93,0,0,0,0,0,0,0,0,0,0,0,0,0,0,0,0,
791,-14.3,-6.18,-40.93,-25.81,-41.47,-43.69,-31.23,-26.41,-32.33,-32.52,-23.49,-9.419,-22.05,-22.09,-19.52,-2.619,0,0,0,0,0,0,0,0,0,0,0,0,0,0,0,0,
792,-22.22,-32.48,-49.12,-50.0,-56.97,-54.18,-46.24,-37.44,-35.32,-49.93,-37.25,-8.995,-30.28,-20.35,-32.47,-9.165,0,0,0,0,0,0,0,0,0,0,0,0,0,0,0,0,
793,-28.17,-49.76,-35.06,-59.49,-57.08,-56.98,-28.69,-26.91,-35.81,-34.99,-23.17,5.261,-13.32,6.131,-29.87,-4.584,0,0,0,0,0,0,0,0,0,0,0,0,0,0,0,0,
794,-10.06,-14.91,-14.27,-26.58,-40.72,-36.56,2.09,-21.07,-22.83,-15.71,-4.127,10.75,2.941,15.38,-9.789,10.67,0,0,0,0,0,0,0,0,0,0,0,0,0,0,0,0,
795,-2.529,-10.47,-10.55,-29.03,-31.91,-34.63,-7.398,-26.63,-22.41,-25.22,-2.976,2.315,0.2485,1.44,9.549,20.44,0,0,0,0,0,0,0,0,0,0,0,0,0,0,0,0,
796,-13.64,-37.55,-26.04,-63.59,-31.02,-45.91,-7.17,-19.04,-25.58,-28.94,14.47,6.102,17.45,5.993,27.37,28.64,0,0,0,0,0,0,0,0,0,0,0,0,0,0,0,0,
797,-9.823,-13.38,-19.62,-46.88,-17.72,-27.04,34.38,-19.46,-3.095,-4.502,44.48,14.96,46.46,20.4,49.49,45.03,0,0,0,0,0,0,0,0,0,0,0,0,0,0,0,0,
798,7.733,13.27,21.28,-11.15,-2.856,-9.774,50.82,-30.89,15.97,6.984,53.89,18.48,51.38,24.83,63.72,60.32,0,0,0,0,0,0,0,0,0,0,0,0,0,0,0,0,
799,15.6,-9.288,41.45,-17.7,0.9388,-15.15,42.1,-17.98,15.81,2.732,60.77,32.96,55.69,39.6,67.81,70.23,0,0,0,0,0,0,0,0,0,0,0,0,0,0,0,0,
800,15.32,-15.46,30.62,-19.62,11.98,-7.528,59.81,2.917,26.94,22.73,76.16,48.38,73.31,57.88,73.82,80.88,0,0,0,0,0,0,0,0,0,0,0,0,0,0,0,0,
801,25.16,9.78,33.44,3.579,31.84,6.608,83.03,1.916,44.97,45.02,82.82,44.43,81.09,55.66,81.48,87.6,0,0,0,0,0,0,0,0,0,0,0,0,0,0,0,0,
802,47.53,23.51,44.15,5.772,41.5,10.08,81.55,-6.174,51.52,34.12,79.37,31.4,74.24,41.76,82.25,80.71,0,0,0,0,0,0,0,0,0,0,0,0,0,0,0,0,
803,54.26,25.27,41.77,-8.113,33.23,12.35,67.7,-5.559,46.53,13.41,61.1,21.18,53.51,25.37,69.03,61.1,0,0,0,0,0,0,0,0,0,0,0,0,0,0,0,0,
804,37.94,24.18,39.3,-7.992,15.98,6.546,59.82,-1.858,30.09,3.114,40.22,16.29,31.65,10.91,45.61,40.6,0,0,0,0,0,0,0,0,0,0,0,0,0,0,0,0,
805,28.9,22.18,33.6,-3.447,9.621,-3.271,68.48,-8.169,24.21,-5.987,45.63,16.67,32.16,7.141,32.63,30.78,0,0,0,0,0,0,0,0,0,0,0,0,0,0,0,0,
806,23.15,16.19,17.88,-16.62,8.317,-7.686,64.11,-20.35,33.9,-13.01,50.52,13.61,34.55,6.628,35.24,30.75,0,0,0,0,0,0,0,0,0,0,0,0,0,0,0,0,
807,6.017,-1.348,3.76,-39.63,-9.667,-18.05,24.22,-13.52,26.87,-9.228,33.41,12.71,23.5,8.259,35.86,33.78,0,0,0,0,0,0,0,0,0,0,0,0,0,0,0,0,
808,14.7,-5.337,-0.5889,-31.23,-14.77,-13.74,19.02,-3.901,19.71,4.836,40.2,27.39,32.66,21.69,36.24,40.51,0,0,0,0,0,0,0,0,0,0,0,0,0,0,0,0,
809,54.12,19.97,16.54,4.401,19.91,17.07,69.07,-24.08,40.86,21.93,67.7,35.91,52.68,29.13,45.83,47.92,0,0,0,0,0,0,0,0,0,0,0,0,0,0,0,0,
810,62.9,35.16,33.7,8.137,38.38,21.5,77.96,-28.84,49.39,22.6,63.21,18.31,41.62,14.56,48.0,43.11,0,0,0,0,0,0,0,0,0,0,0,0,0,0,0,0,
811,36.08,24.14,12.94,-11.99,9.261,-4.431,48.77,5.653,28.84,-1.365,46.81,3.321,22.83,1.261,35.13,28.19,0,0,0,0,0,0,0,0,0,0,0,0,0,0,0,0,
812,29.58,19.04,-6.104,-8.824,-9.42,-4.313,42.12,10.46,20.58,-13.46,46.82,10.47,23.91,3.776,25.7,21.73,0,0,0,0,0,0,0,0,0,0,0,0,0,0,0,0,
813,37.68,22.18,4.287,-3.311,-1.933,6.26,12.44,-14.3,22.11,-2.231,36.47,21.03,20.19,5.503,24.93,26.04,0,0,0,0,0,0,0,0,0,0,0,0,0,0,0,0,
814,25.74,18.0,-5.672,-14.84,-9.927,-10.24,-24.69,-15.72,10.84,-9.935,22.49,22.33,8.146,-1.835,22.31,27.13,0,0,0,0,0,0,0,0,0,0,0,0,0,0,0,0,
815,13.73,16.56,-25.92,-20.48,-26.67,-29.84,-8.406,-14.52,-0.6816,-34.07,22.33,11.51,1.16,-16.46,12.7,18.72,0,0,0,0,0,0,0,0,0,0,0,0,0,0,0,0,
816,13.5,13.51,-18.97,-15.21,-34.34,-37.49,0.2929,-10.11,-13.89,-46.69,11.96,-4.044,-8.431,-30.66,-2.303,4.655,0,0,0,0,0,0,0,0,0,0,0,0,0,0,0,0,
817,15.58,3.316,-19.79,-3.866,-46.3,-37.51,-13.33,7.444,-29.72,-49.93,-5.728,-8.928,-16.08,-30.4,-13.28,-6.605,0,0,0,0,0,0,0,0,0,0,0,0,0,0,0,0,
818,25.55,10.44,-33.59,6.371,-56.97,-29.09,-4.87,-9.652,-30.72,-40.11,-13.49,-10.43,-19.59,-29.17,-15.72,-9.748,0,0,0,0,0,0,0,0,0,0,0,0,0,0,0,0,
819,22.24,27.72,-28.13,3.932,-54.61,-27.2,-13.7,-34.02,-32.9,-35.74,-21.12,-8.877,-28.43,-37.87,-17.67,-8.844,0,0,0,0,0,0,0,0,0,0,0,0,0,0,0,0,
820,2.03,21.67,-26.4,-6.023,-52.14,-34.5,-36.23,-16.62,-45.67,-46.18,-25.37,2.781,-34.77,-37.62,-22.65,-11.14,0,0,0,0,0,0,0,0,0,0,0,0,0,0,0,0,
821,-0.6587,-1.255,-45.67,-17.46,-62.88,-45.41,-39.04,-5.691,-53.18,-40.43,-28.12,-5.399,-42.31,-42.67,-33.28,-23.25,0,0,0,0,0,0,0,0,0,0,0,0,0,0,0,0,
822,-1.931,-13.11,-50.36,-20.54,-75.35,-55.06,-46.99,-16.46,-64.8,-44.27,-43.01,-31.35,-56.66,-62.68,-53.65,-42.09,0,0,0,0,0,0,0,0,0,0,0,0,0,0,0,0,
823,-12.03,-9.276,-32.71,-13.41,-71.75,-43.62,-48.05,-22.03,-72.94,-62.72,-59.16,-31.09,-63.8,-61.31,-72.99,-51.51,0,0,0,0,0,0,0,0,0,0,0,0,0,0,0,0,
824,-5.585,-15.26,-30.28,-24.41,-68.79,-37.91,-47.57,-30.01,-70.73,-46.99,-70.47,-17.66,-71.68,-52.15,-79.42,-47.33,0,0,0,0,0,0,0,0,0,0,0,0,0,0,0,0,
825,-1.325,-31.31,-43.18,-45.22,-76.54,-64.05,-63.27,-30.4,-86.4,-41.04,-69.21,-15.93,-76.22,-59.44,-70.95,-38.94,0,0,0,0,0,0,0,0,0,0,0,0,0,0,0,0,
826,-5.79,-22.38,-40.95,-44.53,-68.2,-71.56,-44.81,-25.56,-93.91,-61.22,-45.18,-14.5,-57.24,-52.74,-49.55,-29.59,0,0,0,0,0,0,0,0,0,0,0,0,0,0,0,0,
827,-6.629,-10.79,-38.96,-39.94,-58.33,-61.6,-27.1,-39.64,-74.55,-52.82,-35.22,-23.76,-50.79,-49.9,-33.93,-27.43,0,0,0,0,0,0,0,0,0,0,0,0,0,0,0,0,
828,-13.5,-25.56,-46.87,-39.57,-70.56,-71.49,-59.71,-54.91,-79.29,-58.1,-47.92,-39.77,-65.63,-69.98,-38.5,-37.31,0,0,0,0,0,0,0,0,0,0,0,0,0,0,0,0,
829,-0.3205,-21.96,-26.84,-37.29,-64.05,-59.77,-56.39,-52.14,-82.49,-77.24,-35.41,-31.84,-47.82,-60.66,-41.76,-38.68,0,0,0,0,0,0,0,0,0,0,0,0,0,0,0,0,
830,26.03,0.5707,6.204,-47.1,-34.87,-31.42,-19.06,-34.72,-41.47,-50.32,-15.03,-16.88,-19.48,-34.59,-29.34,-21.54,0,0,0,0,0,0,0,0,0,0,0,0,0,0,0,0,
831,14.89,0.195,-0.5003,-49.18,-29.07,-37.15,-28.87,-16.98,-18.22,-39.74,-24.01,-15.07,-25.06,-35.91,-21.56,-6.644,0,0,0,0,0,0,0,0,0,0,0,0,0,0,0,0,
832,0.9142,-5.706,-23.33,-38.21,-33.6,-43.71,-42.81,-19.97,-22.61,-56.15,-28.53,-8.968,-26.07,-28.17,-25.97,-2.905,0,0,0,0,0,0,0,0,0,0,0,0,0,0,0,0,
833,14.66,-8.668,-18.41,-47.46,-30.0,-37.59,-34.61,-29.08,-7.204,-33.08,-19.17,-3.207,-13.88,-10.89,-27.02,-0.5873,0,0,0,0,0,0,0,0,0,0,0,0,0,0,0,0,
834,14.66,-22.22,-10.16,-57.42,-41.61,-50.76,-38.49,-30.75,-2.735,-27.91,-20.2,-7.696,-18.02,-21.33,-20.42,0.8527,0,0,0,0,0,0,0,0,0,0,0,0,0,0,0,0,
835,0.817,-26.06,-23.23,-54.76,-55.63,-58.39,-34.05,-44.72,-18.53,-59.81,-13.68,-10.25,-14.75,-29.61,-11.21,-0.8604,0,0,0,0,0,0,0,0,0,0,0,0,0,0,0,0,
836,-2.542,-16.16,-31.99,-65.26,-46.26,-47.85,-22.5,-58.65,-10.78,-52.94,1.82,-13.88,2.653,-18.45,-2.817,-1.683,0,0,0,0,0,0,0,0,0,0,0,0,0,0,0,0,
837,7.664,-8.508,-23.16,-59.24,-25.48,-36.74,-19.39,-40.58,6.847,-27.32,3.564,-15.22,10.35,-6.278,1.716,2.075,0,0,0,0,0,0,0,0,0,0,0,0,0,0,0,0,
838,27.47,2.915,-16.09,-22.03,-4.316,-10.86,-0.0309,-5.681,17.22,-13.64,10.43,-0.3486,22.85,12.34,8.951,14.14,0,0,0,0,0,0,0,0,0,0,0,0,0,0,0,0,
839,31.04,15.95,-18.92,-8.315,5.21,11.83,13.52,-6.029,34.64,8.062,26.88,10.85,36.88,23.47,25.33,31.35,0,0,0,0,0,0,0,0,0,0,0,0,0,0,0,0,
