%OpenBCI Raw EXG Data
%Number of channels = 16
%Sample Rate = 125 Hz
%Board = OpenBCI_GUI$BoardCytonSerialDaisy
Sample Index,EXG Channel 0,EXG Channel 1,EXG Channel 2,EXG Channel 3,EXG Channel 4,EXG Channel 5,EXG Channel 6,EXG Channel 7,EXG Channel 8,EXG Channel 9,EXG Channel 10,EXG Channel 11,EXG Channel 12,EXG Channel 13,EXG Channel 14,EXG Channel 15,Accel Channel 0,Accel Channel 1,Accel Channel 2,Other,Other,Other,Other,Other,Other,Other,Analog Channel 0,Analog Channel 1,Analog Channel 2,Timestamp,Other,Timestamp (Formatted),Annotations
1,0,0,0,-0,-0,0,-0,-0,0,0,0,0,-0,0,0,-0,0,0,0,0,0,0,0,0,0,0,0,0,0,0,0,0,T0
2,-3.678,-2.182,0.8697,2.375,-0.0963,-7.428,-10.34,-12.28,15.94,8.421,11.02,5.669,2.954,10.56,8.823,6.73,0,0,0,0,0,0,0,0,0,0,0,0,0,0,0,0,
3,5.019,7.856,15.37,8.673,-0.9544,5.195,9.328,1.371,7.215,46.92,37.25,24.85,18.79,22.38,18.35,15.74,0,0,0,0,0,0,0,0,0,0,0,0,0,0,0,0,
4,24.37,26.24,37.72,22.72,6.541,27.78,25.3,14.12,-0.0956,8.201,40.27,26.76,17.74,20.85,24.01,20.59,0,0,0,0,0,0,0,0,0,0,0,0,0,0,0,0,
5,18.07,13.14,42.36,25.84,11.53,25.53,9.103,-2.456,6.259,-59.18,8.55,-3.242,-13.2,-2.78,14.57,8.946,0,0,0,0,0,0,0,0,0,0,0,0,0,0,0,0,
6,-17.97,-26.9,23.61,10.92,4.266,-1.069,-13.85,-21.41,-1.229,-32.33,-8.935,-33.16,-42.03,-21.41,-9.344,-18.31,0,0,0,0,0,0,0,0,0,0,0,0,0,0,0,0,
7,-42.72,-41.36,10.36,6.612,-7.529,-17.69,-17.05,-12.17,-24.82,17.09,-5.625,-46.32,-51.72,-17.25,-32.58,-43.78,0,0,0,0,0,0,0,0,0,0,0,0,0,0,0,0,
8,-49.93,-36.75,16.79,17.89,-22.46,-20.11,-10.85,0.8783,-37.42,3.844,-20.44,-58.09,-60.48,-15.39,-45.14,-56.2,0,0,0,0,0,0,0,0,0,0,0,0,0,0,0,0,
9,-57.29,-47.42,20.07,17.61,-38.45,-25.21,-16.05,-8.015,-42.28,-28.74,-44.91,-75.05,-81.25,-33.23,-48.19,-62.82,0,0,0,0,0,0,0,0,0,0,0,0,0,0,0,0,
10,-63.75,-60.97,8.999,8.151,-47.86,-33.5,-25.83,-12.37,-53.31,-31.32,-52.02,-85.8,-96.9,-54.91,-49.81,-73.19,0,0,0,0,0,0,0,0,0,0,0,0,0,0,0,0,
11,-65.64,-59.96,0.5779,5.813,-49.33,-38.63,-24.85,3.088,-48.71,-7.157,-42.62,-76.57,-82.63,-54.26,-52.37,-78.84,0,0,0,0,0,0,0,0,0,0,0,0,0,0,0,0,
12,-59.55,-50.66,-1.159,0.8705,-45.85,-37.64,-28.46,1.975,-29.63,6.381,-24.01,-55.58,-53.93,-30.47,-46.28,-68.02,0,0,0,0,0,0,0,0,0,0,0,0,0,0,0,0,
13,-46.95,-42.15,1.306,-4.037,-38.9,-29.6,-37.91,-15.8,-32.34,-5.962,-13.39,-43.6,-41.79,-13.74,-29.86,-48.92,0,0,0,0,0,0,0,0,0,0,0,0,0,0,0,0,
14,-37.59,-33.89,15.36,9.627,-29.41,-13.35,-23.06,-2.395,-39.65,-8.726,-13.48,-29.97,-29.3,-3.219,-12.28,-29.79,0,0,0,0,0,0,0,0,0,0,0,0,0,0,0,0,
15,-27.95,-19.84,25.25,25.56,-31.19,3.252,-1.644,25.76,-26.92,5.868,-8.796,-9.794,-6.3,20.36,-0.1119,-9.37,0,0,0,0,0,0,0,0,0,0,0,0,0,0,0,0,
16,-18.3,-10.9,19.96,24.56,-44.82,3.535,-4.283,22.24,-26.19,5.786,-14.45,-11.26,-3.338,31.61,-1.351,1.177,0,0,0,0,0,0,0,0,0,0,0,0,0,0,0,0,
17,-19.21,-16.6,21.86,20.28,-41.7,-2.456,-6.201,7.104,-40.09,-6.226,-28.87,-20.53,-9.1,23.89,-13.56,-3.27,0,0,0,0,0,0,0,0,0,0,0,0,0,0,0,0,
18,-19.01,-20.62,21.87,10.61,-37.3,-0.374,-10.15,-5.667,-52.22,-16.92,-23.7,-8.797,0.9489,28.73,-18.81,-6.532,0,0,0,0,0,0,0,0,0,0,0,0,0,0,0,0,
19,-14.23,-21.89,2.786,-6.563,-57.5,-8.308,-33.1,-25.6,-69.34,-25.25,-17.52,0.991,6.199,37.62,-11.79,-2.839,0,0,0,0,0,0,0,0,0,0,0,0,0,0,0,0,
20,-19.5,-25.01,5.236,3.165,-50.37,-15.03,-26.33,-18.14,-56.1,-6.568,-16.73,5.424,9.055,34.26,4.03,4.686,0,0,0,0,0,0,0,0,0,0,0,0,0,0,0,0,
21,-17.89,-12,36.71,33.62,-11.67,2.535,10.14,14.21,-13.43,23.57,2.775,19.32,19.23,33,26.57,18.36,0,0,0,0,0,0,0,0,0,0,0,0,0,0,0,0,
22,-3.685,1.3,51.11,44.87,-6.744,12.95,15.49,23.37,-1.879,21.82,22.28,25.17,17.51,42.98,42.58,31.68,0,0,0,0,0,0,0,0,0,0,0,0,0,0,0,0,
23,5.938,-1.308,67.04,60.76,1.942,21.64,19.27,31.48,21.8,27.37,50.33,41.45,25.67,65.97,57.12,44.9,0,0,0,0,0,0,0,0,0,0,0,0,0,0,0,0,
24,35.95,18.76,113.1,103.3,52.37,66.87,60.99,61.58,88.47,57.92,108,83.05,56.51,87.67,91.89,67.78,0,0,0,0,0,0,0,0,0,0,0,0,0,0,0,0,
25,77.63,52.31,141,130.1,70.89,100.9,85.06,69.28,91.29,55.71,121.8,86.86,58.29,84.44,118.7,80.3,0,0,0,0,0,0,0,0,0,0,0,0,0,0,0,0,
26,67.46,45,126.7,119.4,47.12,82.67,60.84,38.12,29.45,22.85,60.72,39.87,23.47,55.46,91.51,54.07,0,0,0,0,0,0,0,0,0,0,0,0,0,0,0,0,
27,23.16,10.05,95.87,84.88,24.66,51.71,22.95,-4.859,10.33,-7.641,13.45,10.56,-3.269,11.73,32.99,5.431,0,0,0,0,0,0,0,0,0,0,0,0,0,0,0,0,
28,2.624,-11.39,67.64,55.61,-6.29,30.5,5.434,-19.76,12.48,-2.21,11.27,12.6,-6.036,-14.03,-2.304,-24.93,0,0,0,0,0,0,0,0,0,0,0,0,0,0,0,0,
29,-1.214,-4.013,70.61,74.03,-30.52,19.9,22.42,18.73,-10.13,57.46,8.991,16.7,9.651,6.328,-2.091,-21.18,0,0,0,0,0,0,0,0,0,0,0,0,0,0,0,0,
30,-5.632,21.36,93.09,113.6,-35.06,20.13,44.15,58.72,-16.27,68.03,4.537,21.81,24.85,34.06,12.97,0.2778,0,0,0,0,0,0,0,0,0,0,0,0,0,0,0,0,
31,-7.292,28.09,95.06,120.3,-34.28,19.47,44.41,58.55,-4.034,-0.3705,16.79,27.98,23.14,34.47,22.32,15.27,0,0,0,0,0,0,0,0,0,0,0,0,0,0,0,0,
32,-1.635,17.25,109.6,126.6,-4.757,30.17,51.08,64.29,-0.101,-8.57,33.16,28.95,17.3,28.4,20.06,14.38,0,0,0,0,0,0,0,0,0,0,0,0,0,0,0,0,
33,12.04,14.31,142.7,149.3,21.75,48.63,60.87,79.73,8.692,30.92,34.54,29.61,15.62,26.03,16.09,5.501,0,0,0,0,0,0,0,0,0,0,0,0,0,0,0,0,
34,16.38,6.757,127,138.3,-8.075,38.49,39.56,63.08,12.33,17.24,24.31,28.46,14.5,28.42,18.91,2.927,0,0,0,0,0,0,0,0,0,0,0,0,0,0,0,0,
35,3.742,-5.213,84.21,104.9,-31.93,10.83,13.37,40.54,-9.599,7.388,19.31,18.12,15.36,40.18,24.43,10.9,0,0,0,0,0,0,0,0,0,0,0,0,0,0,0,0,
36,-8.809,-7.572,74.98,92.61,-17.9,-5.783,11.85,38.63,-28.05,35.85,18.1,6.326,10.47,43.82,24.57,16.4,0,0,0,0,0,0,0,0,0,0,0,0,0,0,0,0,
37,-14.65,-13.63,74.97,87.99,-22.13,-16.21,10.75,34.46,-24.49,43.92,9.143,1.837,-2.225,32.67,17.19,8.698,0,0,0,0,0,0,0,0,0,0,0,0,0,0,0,0,
38,-18.21,-24.82,71.23,81.76,-34.85,-17.51,1.074,27.72,-22.06,19.91,3.329,-4.191,-13.55,20.58,7.622,-5.719,0,0,0,0,0,0,0,0,0,0,0,0,0,0,0,0,
39,-19.96,-34.15,80.03,86.57,-31.66,-8.983,-2.33,28.96,-27.33,-7.768,5.366,-17.59,-24.68,15.6,-1.089,-18.36,0,0,0,0,0,0,0,0,0,0,0,0,0,0,0,0,
40,-19.36,-43.22,79.35,87.71,-39.55,-7.133,-6.181,28.39,-26.67,-8.497,1.624,-26.47,-31,19.05,-11.95,-27.95,0,0,0,0,0,0,0,0,0,0,0,0,0,0,0,0,
41,-15.18,-40.17,72.8,83.07,-44.13,-6.419,-10.31,30.94,-13.08,10.6,5.957,-20.17,-25.42,17.43,-17.44,-30.88,0,0,0,0,0,0,0,0,0,0,0,0,0,0,0,0,
42,-8.828,-27.07,87.9,94.6,-26.42,1.741,-1.123,41.25,-0.136,15.94,19.14,-12.21,-24.96,2.245,-7.387,-26.55,0,0,0,0,0,0,0,0,0,0,0,0,0,0,0,0,
43,-11.05,-27.44,97.95,103.6,-29.55,0.6108,4.154,37.5,-17.1,17.44,4.032,-23.76,-36,-7.024,2.266,-25.39,0,0,0,0,0,0,0,0,0,0,0,0,0,0,0,0,
44,-26.19,-38.52,85.45,89.4,-56.66,-9.582,-5.669,19.33,-43.1,16.85,-16.85,-38.3,-36.84,-3.324,-5.617,-30.22,0,0,0,0,0,0,0,0,0,0,0,0,0,0,0,0,
45,-32.12,-37.7,79.25,80.31,-57.2,-9.828,-6.001,14.95,-32.19,2.546,-3.37,-31.74,-29.07,-0.8412,-16.6,-30.42,0,0,0,0,0,0,0,0,0,0,0,0,0,0,0,0,
46,-22.73,-29.61,76.38,82.31,-42.52,-9.462,1.548,23.6,-14.68,5.976,4.14,-23.34,-30.38,0.2817,-16.81,-25.4,0,0,0,0,0,0,0,0,0,0,0,0,0,0,0,0,
47,-24.22,-31.37,68.41,77.56,-45.63,-15.32,1.453,26.03,-21.39,23.92,-7.889,-21.85,-29.88,3.291,-12.1,-22.83,0,0,0,0,0,0,0,0,0,0,0,0,0,0,0,0,
48,-27.73,-32.95,76.95,81.11,-44.3,-5.766,6.162,25.05,-19.75,20.75,-0.2574,-11.48,-21.06,2.247,-4.788,-20.2,0,0,0,0,0,0,0,0,0,0,0,0,0,0,0,0,
49,-14.23,-26.58,93.23,95.57,-24.47,15.26,12.15,27.59,-6.725,12.41,17.41,-1.346,-15.78,-0.0048,6.72,-12.99,0,0,0,0,0,0,0,0,0,0,0,0,0,0,0,0,
50,-4.343,-21.45,104.5,104.1,2.19,27.61,12.53,31.88,4.7,14.58,31.11,6.739,-6.5,4.936,18.98,-2.491,0,0,0,0,0,0,0,0,0,0,0,0,0,0,0,0,
51,1.974,-10.92,118.5,110.9,21.8,34.46,24.47,38.74,18.45,18.88,43.12,18.36,7.983,14.96,26.5,7.245,0,0,0,0,0,0,0,0,0,0,0,0,0,0,0,0,
52,16.49,4.062,121.1,116.2,18.98,38.68,39.15,47.35,15.1,30.27,37.9,18.05,11,21.07,24.58,8.942,0,0,0,0,0,0,0,0,0,0,0,0,0,0,0,0,
53,25.25,8.583,120.1,118.7,16.31,46.06,41.08,54.39,6.348,41.9,30.15,16.69,10.77,20.67,18.55,3.079,0,0,0,0,0,0,0,0,0,0,0,0,0,0,0,0,
54,32.94,10.87,143.8,131,33.32,65.22,46.05,61.6,22.14,42.24,35.07,29.25,18.58,20.28,18.61,0.7573,0,0,0,0,0,0,0,0,0,0,0,0,0,0,0,0,
55,47.3,17.62,170.3,150.5,47.36,80.86,57.37,71.17,35.47,37.89,39.7,38.11,24.67,22.53,23.91,4.926,0,0,0,0,0,0,0,0,0,0,0,0,0,0,0,0,
56,57.23,21.81,174.8,164.1,58.37,83.05,63.2,78.43,36.29,36.17,51.75,42.76,27.15,23.42,27.33,8.373,0,0,0,0,0,0,0,0,0,0,0,0,0,0,0,0,
57,60.48,27.2,166.4,168.1,61.59,78.25,63.33,82.83,44.09,39.17,58.5,42.94,27.06,23.12,22.56,6.593,0,0,0,0,0,0,0,0,0,0,0,0,0,0,0,0,
58,52.55,33.45,156.1,167.5,41.38,67.16,58.13,90.92,41.88,37.3,43.16,30.83,25.74,29.05,12.49,3.511,0,0,0,0,0,0,0,0,0,0,0,0,0,0,0,0,
59,39.89,37.65,156,169.4,35.52,58.38,55.56,99.92,28.89,44.22,44.89,34.52,38.53,49.47,15.61,10.07,0,0,0,0,0,0,0,0,0,0,0,0,0,0,0,0,
60,44.9,47.64,169.8,178.3,48.2,60.65,67.63,107,27.16,88.57,60.61,52.89,56.71,64.4,34.08,24.75,0,0,0,0,0,0,0,0,0,0,0,0,0,0,0,0,
61,57.46,57.08,184.7,195.6,35.87,64.8,79.73,112.2,29.36,106.6,48.58,47.72,49.38,43.42,41.52,28.01,0,0,0,0,0,0,0,0,0,0,0,0,0,0,0,0,
62,58.33,51.73,194.3,210.2,25.51,67.22,78.25,107.4,34.63,52.33,43.72,43.75,36.8,30.03,34.67,20.02,0,0,0,0,0,0,0,0,0,0,0,0,0,0,0,0,
63,61.41,50.12,204.2,214.2,49.06,77.82,85.8,104.7,53.44,33.51,71.79,69.1,55.71,67.34,39.71,24.54,0,0,0,0,0,0,0,0,0,0,0,0,0,0,0,0,
64,71.72,67.35,213.8,218.6,61.98,88.95,102.1,112.2,66.36,77.2,80.44,78.27,69.8,77.46,54.46,40.1,0,0,0,0,0,0,0,0,0,0,0,0,0,0,0,0,
65,67.56,66.2,204.9,214,38.27,77.67,88.65,100.1,53.21,72.13,58.74,58.75,49.02,29.91,55.78,45.08,0,0,0,0,0,0,0,0,0,0,0,0,0,0,0,0,
66,53.6,40.43,190.7,197.8,17.17,60.59,65.71,80.3,36.74,32.2,53.23,55.73,41.49,24.81,48.85,41.85,0,0,0,0,0,0,0,0,0,0,0,0,0,0,0,0,
67,57.07,43.22,207,203.6,24.68,72,80.58,92.56,43.32,34.49,65.53,64.42,57.6,61.95,48.01,40.56,0,0,0,0,0,0,0,0,0,0,0,0,0,0,0,0,
68,62.44,63.61,220.4,218.2,33.68,83.71,95.49,104.6,45.61,50.44,60.95,54.78,52.74,55.53,47.55,35.15,0,0,0,0,0,0,0,0,0,0,0,0,0,0,0,0,
69,46.05,56.58,198.6,206.8,29.04,64.81,75.05,91.51,25.88,48.85,42.92,44.04,40.84,35.38,44.02,27.82,0,0,0,0,0,0,0,0,0,0,0,0,0,0,0,0,
70,38.88,51.99,190.2,199.6,32.84,56.84,67.8,92.04,24.69,47.86,42.24,48.57,51.1,49.68,43.98,29.83,0,0,0,0,0,0,0,0,0,0,0,0,0,0,0,0,
71,57.53,66.69,208.4,210.5,44.23,80.19,87.94,101.3,36.36,50.68,60.7,56.36,59.01,60.48,48.52,37.15,0,0,0,0,0,0,0,0,0,0,0,0,0,0,0,0,
72,70.24,66.17,211.3,206,51.87,92.82,91.03,89.54,22.85,40.85,77,63.97,55.54,53.42,56.3,41.8,0,0,0,0,0,0,0,0,0,0,0,0,0,0,0,0,
73,70.11,59.37,200.1,192.6,63.51,85.68,79.78,83.7,26.27,27.13,82.51,73.07,61.01,52.95,66.37,46.13,0,0,0,0,0,0,0,0,0,0,0,0,0,0,0,0,
74,73.34,67.52,194.1,192.8,65.19,87.29,82.49,97.64,63,35.59,78.67,79.18,70.62,54.33,73.38,49.76,0,0,0,0,0,0,0,0,0,0,0,0,0,0,0,0,
75,79.89,72.28,194.8,195.4,50.59,96.5,89.02,100.3,70.8,47.71,76.55,85.51,76.51,57.39,75.38,50.58,0,0,0,0,0,0,0,0,0,0,0,0,0,0,0,0,
76,91.31,72.16,201.6,196.2,55.4,102.7,87.98,92,59.51,56.37,91.08,97.4,86.66,73.69,79.04,55.1,0,0,0,0,0,0,0,0,0,0,0,0,0,0,0,0,
77,106.3,78.51,210.5,200.9,79.05,111.6,85.2,91.38,70.3,83.42,102.1,105.4,88.87,75.28,86.09,63.1,0,0,0,0,0,0,0,0,0,0,0,0,0,0,0,0,
78,107.5,75.17,212.8,199.3,82.63,117,79.99,89.09,72.06,79.68,86.81,100.2,75.31,54.33,88.33,63.29,0,0,0,0,0,0,0,0,0,0,0,0,0,0,0,0,
79,96.8,63.81,207.9,194,72.2,114.9,77.07,86.54,59.46,37.52,75.15,93.53,71.68,54.65,84.07,57.08,0,0,0,0,0,0,0,0,0,0,0,0,0,0,0,0,
80,93.39,65.05,206.3,196,66.2,112.2,79.21,91.55,60.61,40.42,82.46,89.49,75.02,63.08,77.52,52.02,0,0,0,0,0,0,0,0,0,0,0,0,0,0,0,0,
81,88.39,64.32,210.4,194.6,55.83,99.75,78,88.1,58.58,62.23,79.54,75.74,62.17,47.95,66.2,43.52,0,0,0,0,0,0,0,0,0,0,0,0,0,0,0,0,
82,73.27,56.07,215.4,195.2,56.44,90.54,81.94,80.2,51.14,37.84,70.55,64.99,55.77,48.65,53.07,34.89,0,0,0,0,0,0,0,0,0,0,0,0,0,0,0,0,
83,72.63,61.51,222.7,208,78.28,106.7,91.41,81.06,62.47,20.61,72.67,68.85,66.28,65.59,47.36,37.02,0,0,0,0,0,0,0,0,0,0,0,0,0,0,0,0,
84,83.32,67.09,221.8,209,83.27,109.2,88.36,82.71,71.1,48.9,71.1,65.69,67.3,63.98,45.41,41.51,0,0,0,0,0,0,0,0,0,0,0,0,0,0,0,0,
85,73.22,62.79,214.2,209.5,62.1,78.8,87.64,97.03,50.41,77.12,62.62,51.53,61.21,68.2,40.58,37.62,0,0,0,0,0,0,0,0,0,0,0,0,0,0,0,0,
86,49.28,60.44,215.7,230.5,44.52,60.57,92.34,113.8,26.07,60.33,50.56,41.91,53.41,68.44,36.25,31.59,0,0,0,0,0,0,0,0,0,0,0,0,0,0,0,0,
87,34.66,42.01,202.4,221.7,33.97,55.83,69.21,90.75,22.08,14.24,32.16,34.95,39.69,38.46,34.96,28.52,0,0,0,0,0,0,0,0,0,0,0,0,0,0,0,0,
88,30.17,17.5,179.3,191.4,32.72,45.63,44.03,66.86,19.82,3.651,27.04,32.36,39.44,29.15,37.24,28.69,0,0,0,0,0,0,0,0,0,0,0,0,0,0,0,0,
89,29.94,23.29,192.3,207.3,41.85,46.93,54.12,89.33,9.067,26.54,38.05,36.76,46.75,47.89,43.03,33.12,0,0,0,0,0,0,0,0,0,0,0,0,0,0,0,0,
90,22.51,28.13,199.2,221,26.85,38.82,54.27,100.2,3.525,22.27,35.66,31.57,37.41,48.19,43.93,34.68,0,0,0,0,0,0,0,0,0,0,0,0,0,0,0,0,
91,2.211,5.79,164.9,189.6,-8.97,4.2,28.68,80.82,-4.827,9.545,18.79,13.91,25.47,42.76,32.63,25.83,0,0,0,0,0,0,0,0,0,0,0,0,0,0,0,0,
92,-15,-5.16,159.5,185.8,-15.13,-9.487,27.17,89.23,-17.61,29.89,11.22,4.125,20.29,38.8,16.69,12.14,0,0,0,0,0,0,0,0,0,0,0,0,0,0,0,0,
93,-17.29,0.6943,179.2,207.4,-4.638,0.3308,35.83,105.5,-9.078,46,15.96,4.68,10.46,20.94,7.786,2.931,0,0,0,0,0,0,0,0,0,0,0,0,0,0,0,0,
94,-13.82,-7.381,163.3,193.2,-13.74,-9.002,15.7,86.25,7.694,26.92,20.76,0.4613,3.334,15.16,7.043,-0.0855,0,0,0,0,0,0,0,0,0,0,0,0,0,0,0,0,
95,-13.05,-20.45,154.1,180.7,-4.533,-15.06,5.292,77.14,9.427,10.38,23.57,-2.003,8.04,27.96,10.36,0.0489,0,0,0,0,0,0,0,0,0,0,0,0,0,0,0,0,
96,-7.705,-17.27,175.5,193.5,33.68,6.559,27.12,101.3,16.73,19.97,27.76,5.147,13.82,31.37,12.39,-0.8651,0,0,0,0,0,0,0,0,0,0,0,0,0,0,0,0,
97,0.9565,-13.29,175,188.6,38.63,17.24,34.31,107.3,23.79,16.28,23.55,0.6385,6.244,23.1,3.898,-7.752,0,0,0,0,0,0,0,0,0,0,0,0,0,0,0,0,
98,-1.149,-20.9,169.3,192.2,22.09,12.13,27.24,101.5,11.25,-8.648,13.95,-11.39,-4.081,15.73,-11.47,-18.42,0,0,0,0,0,0,0,0,0,0,0,0,0,0,0,0,
99,-2.225,-13.41,213.8,248.2,48.83,31.04,51.45,140,11.21,0.0752,23.62,-1.276,3.515,14.41,-15.04,-21.81,0,0,0,0,0,0,0,0,0,0,0,0,0,0,0,0,
100,9.616,11.29,281.9,321,92.17,63.11,91.26,201.8,28.94,29.55,37.05,8.694,10.4,12.99,-9.052,-17.12,0,0,0,0,0,0,0,0,0,0,0,0,0,0,0,0,
101,10.48,16.21,340.8,413.7,108,80.02,121,246.8,28.79,27.98,22.85,-3.053,4.795,10.33,-12.21,-15.05,0,0,0,0,0,0,0,0,0,0,0,0,0,0,0,0,
102,7.81,19,445,569,138,113.1,170.6,303.8,31.41,48.33,18.2,9.115,23.94,26.31,-13.69,-10.64,0,0,0,0,0,0,0,0,0,0,0,0,0,0,0,0,
103,44.93,62.29,604.8,706,222.6,192.5,247.8,381,73.81,115.2,55.28,57.44,65.73,56.21,9.971,10.2,0,0,0,0,0,0,0,0,0,0,0,0,0,0,0,0,
104,101.9,112.6,702.5,730.3,322.7,279.9,320.5,450.1,119.8,132.8,83.22,83.75,83.22,69.39,43.96,36.23,0,0,0,0,0,0,0,0,0,0,0,0,0,0,0,0,
105,120.6,128.1,694.6,710.6,370.5,325.3,373.1,508.6,118.8,99.41,72.97,71.61,74.59,65.52,54.83,41.29,0,0,0,0,0,0,0,0,0,0,0,0,0,0,0,0,
106,110.5,128.4,679.2,716.1,368.3,332.2,399,533.3,100.4,97.16,66.04,64.49,67.19,62.61,42.21,26.49,0,0,0,0,0,0,0,0,0,0,0,0,0,0,0,0,
107,117.6,131.5,692,720.1,382.5,334.5,400.5,508.2,119.8,119.3,80.64,79.55,73.39,68.29,33.9,20.16,0,0,0,0,0,0,0,0,0,0,0,0,0,0,0,0,
108,135.4,136.4,692.2,723.5,407,339.1,397.4,488.3,144.1,156.8,91.37,92.36,86.52,76.16,43.48,33.09,0,0,0,0,0,0,0,0,0,0,0,0,0,0,0,0,
109,131.5,144.3,660.9,705.5,371.3,322.3,381.2,478.4,120.3,182.3,85,87.79,85.97,73.65,56.99,45.41,0,0,0,0,0,0,0,0,0,0,0,0,0,0,0,0,
110,112.3,136.5,584.2,613.8,305.2,283.3,336,426,93.15,112.9,75.78,73.55,72.07,67.45,55.57,42.07,0,0,0,0,0,0,0,0,0,0,0,0,0,0,0,0,
111,97.59,104.5,492.9,509.3,291.2,254.1,288.5,364.6,103.3,32.02,73.88,53.05,55.19,59.47,33.22,23.99,0,0,0,0,0,0,0,0,0,0,0,0,0,0,0,0,
112,80.72,77.33,439,452.7,297.3,236.7,257.6,331.6,102.3,54.33,63.77,29.45,32.67,41.45,2.014,-2.819,0,0,0,0,0,0,0,0,0,0,0,0,0,0,0,0,
113,61.05,70.63,396,393.7,261.3,212.1,232.2,294.6,76.75,74.4,46.5,22.69,23.43,36.08,-11.3,-18.64,0,0,0,0,0,0,0,0,0,0,0,0,0,0,0,0,
114,56.49,73.72,338.9,326.8,220.8,192.8,211.6,257.6,68.62,45.19,44.67,33.94,33.32,43.64,2.221,-10.52,0,0,0,0,0,0,0,0,0,0,0,0,0,0,0,0,
115,58.9,71.65,289.4,274.3,203.9,178.9,188.2,231.3,65.19,48.61,45.87,34.79,28.59,30.39,15.64,0.2689,0,0,0,0,0,0,0,0,0,0,0,0,0,0,0,0,
116,44.7,51.39,234,201.8,172.8,151.3,152.4,189.8,52.29,53.13,39.53,24.54,13.95,14.62,11.17,-2.765,0,0,0,0,0,0,0,0,0,0,0,0,0,0,0,0,
117,30.13,28.58,172.4,126.8,140.3,129.9,124.5,147.3,61.81,38.47,44.39,24.28,16.15,19.52,4.554,-6.93,0,0,0,0,0,0,0,0,0,0,0,0,0,0,0,0,
118,34.3,26.92,137,85.53,136.1,121.7,110.3,123,71.57,46.19,45.01,23.79,17.97,17.4,4.266,-6.589,0,0,0,0,0,0,0,0,0,0,0,0,0,0,0,0,
119,31.81,28.17,110,47.35,116.8,98.55,91.99,99.59,51.3,41.28,27.41,11.71,5.667,-0.8129,-0.2705,-10.98,0,0,0,0,0,0,0,0,0,0,0,0,0,0,0,0,
120,17.26,14.93,69.22,5.797,76.67,78.06,74.81,75.38,50.24,12.57,22.39,5.521,-5.466,-16.22,-9.202,-21.33,0,0,0,0,0,0,0,0,0,0,0,0,0,0,0,0,
121,17.98,3.314,37.28,-23.7,70.4,82.5,64.67,52.72,66.24,-6.12,29.63,7.877,-6.059,-16.19,-14.87,-30.19,0,0,0,0,0,0,0,0,0,0,0,0,0,0,0,0,
122,21.31,-1.111,14.58,-59.47,77.42,78.2,49.28,29.55,36.91,-4.244,17.82,3.832,0.107,-2.737,-20.07,-33.6,0,0,0,0,0,0,0,0,0,0,0,0,0,0,0,0,
123,6.699,-2.911,-13.7,-96.35,57.32,55.77,32.93,13.9,2.189,29.15,-1.706,-0.8374,2.708,2.814,-27.4,-35.14,0,0,0,0,0,0,0,0,0,0,0,0,0,0,0,0,
124,-4.109,1.626,-32.07,-116.1,39.52,45.2,28.58,-1.605,21.33,41.7,3.687,3.809,2.836,0.3904,-27.65,-35.42,0,0,0,0,0,0,0,0,0,0,0,0,0,0,0,0,
125,0.0352,7.324,-39.48,-133.3,34.36,44.67,31.36,-15.76,47.03,-5.712,22.01,7.064,8.404,5.652,-18.25,-30.88,0,0,0,0,0,0,0,0,0,0,0,0,0,0,0,0,
126,5.001,6.762,-57.79,-157.7,24.77,39.62,28.83,-15.33,39.46,-31.39,15.61,0.6773,7.547,3.517,-14.34,-28.24,0,0,0,0,0,0,0,0,0,0,0,0,0,0,0,0,
127,8.723,2.186,-74.6,-177,25.6,39.2,20.61,-19.83,22.46,-12.41,-0.8123,-5.324,-1.586,-7.335,-21.72,-32.48,0,0,0,0,0,0,0,0,0,0,0,0,0,0,0,0,
128,12.02,-0.9969,-74.52,-185.4,32.49,43.34,16,-38.61,14.95,-3.871,9.887,-1.517,0.9512,-7.44,-24.99,-32.33,0,0,0,0,0,0,0,0,0,0,0,0,0,0,0,0,
129,6.805,1.641,-88.97,-201.9,17.09,32.2,9.231,-51.04,18.89,0.4272,23.3,5.555,7.695,-5.422,-17.11,-24.31,0,0,0,0,0,0,0,0,0,0,0,0,0,0,0,0,
130,-8.958,3.645,-133.5,-238.9,-11.77,5.33,-10.73,-63.25,24.1,0.831,14.42,4.716,0.4457,-5.217,-8.538,-20.54,0,0,0,0,0,0,0,0,0,0,0,0,0,0,0,0,
131,-27.2,-3.152,-175.4,-269,-30.11,-14.96,-29.22,-84.15,22.62,-12.36,10.98,-0.0015,-7.434,-1.91,-4.715,-23.28,0,0,0,0,0,0,0,0,0,0,0,0,0,0,0,0,
132,-36.83,-10.33,-193.7,-274.8,-40.38,-21.85,-32.12,-94.43,20.17,-10.64,17.06,1.192,-5.312,-4.827,-3.5,-25.4,0,0,0,0,0,0,0,0,0,0,0,0,0,0,0,0,
133,-32.44,-9.701,-194.7,-274.7,-56.62,-26.73,-29.97,-90.71,8.97,0.9317,11.61,2.91,-2.119,-0.7911,-6.846,-27.1,0,0,0,0,0,0,0,0,0,0,0,0,0,0,0,0,
134,-24.71,-6.458,-195.5,-276.7,-76.22,-35.38,-32.63,-89.84,-8.968,1.61,3.418,-1.309,1.768,16.82,-16.4,-28.43,0,0,0,0,0,0,0,0,0,0,0,0,0,0,0,0,
135,-28.39,-4.757,-213.3,-279.9,-83.58,-43.36,-37.45,-92.65,-9.126,1.454,0.3649,-5.624,9.323,23.07,-26.99,-25.33,0,0,0,0,0,0,0,0,0,0,0,0,0,0,0,0,
136,-32.81,1.567,-231.7,-283.3,-76.77,-41.77,-34.33,-87.78,-1.139,8.768,-4.088,-6.12,17.8,23.73,-31.22,-20.19,0,0,0,0,0,0,0,0,0,0,0,0,0,0,0,0,
137,-22.78,13.64,-229.1,-280.2,-73.26,-36.54,-25.14,-80.94,-9.232,15.08,-1.641,-3.269,21.78,24.89,-25.63,-17.47,0,0,0,0,0,0,0,0,0,0,0,0,0,0,0,0,
138,-15.72,12.94,-230.6,-280.9,-90.74,-43.96,-30.27,-85.9,-22.87,6.04,8.333,-0.6524,12.42,3.102,-16.78,-18.89,0,0,0,0,0,0,0,0,0,0,0,0,0,0,0,0,
139,-20.95,-0.4692,-244.7,-283.9,-113.8,-48.94,-39.59,-89.83,-28.09,-3.7,5.78,-2.969,1.995,-14.99,-16.89,-27.22,0,0,0,0,0,0,0,0,0,0,0,0,0,0,0,0,
140,-15.01,5.598,-237.4,-267.7,-102.5,-31.32,-25,-80.09,-25.21,2.583,-5.255,-0.7354,12.88,4.664,-22.58,-35.76,0,0,0,0,0,0,0,0,0,0,0,0,0,0,0,0,
141,4.337,23.99,-216.2,-252.6,-74.18,-15.05,-10.35,-75.55,-18.08,2.196,0.9443,14.29,30.88,27.05,-16.44,-30.21,0,0,0,0,0,0,0,0,0,0,0,0,0,0,0,0,
142,17.26,23.07,-210,-257.8,-77.09,-15.06,-18.2,-79.17,-11.52,0.1356,20.12,30.95,40.32,36.33,4.03,-11.43,0,0,0,0,0,0,0,0,0,0,0,0,0,0,0,0,
143,22.96,23.47,-204.3,-254.8,-81.88,-10.33,-19.13,-74.95,-8.224,9.592,29.17,39.68,49.48,48.2,24.02,5.791,0,0,0,0,0,0,0,0,0,0,0,0,0,0,0,0,
144,20.82,35.32,-197.5,-244.4,-64.29,-4.002,-13.55,-74.47,-16.84,6.543,26.79,36.53,46.08,40.16,29.96,8.578,0,0,0,0,0,0,0,0,0,0,0,0,0,0,0,0,
145,7.219,28.12,-209.6,-249.8,-75.8,-9.883,-25.5,-86.33,-29.98,7.322,23.61,23.09,29.26,18.71,18.3,-4.997,0,0,0,0,0,0,0,0,0,0,0,0,0,0,0,0,
146,3.986,19.92,-221.9,-253.8,-103.4,-13.06,-30.33,-92.51,-21.84,19.62,22.41,17.95,28.89,25.18,2.759,-18.99,0,0,0,0,0,0,0,0,0,0,0,0,0,0,0,0,
147,22,33.53,-219.6,-246.2,-86.76,-6.486,-16.77,-88.6,5.062,6.505,27,28.79,35.98,39.57,2.255,-18.29,0,0,0,0,0,0,0,0,0,0,0,0,0,0,0,0,
148,36.09,34.26,-216.9,-242.3,-59.27,2.039,-18.21,-85.34,35.2,-1.41,44.72,37.89,27.53,35.03,13.79,-10.68,0,0,0,0,0,0,0,0,0,0,0,0,0,0,0,0,
149,33.08,16.25,-206.6,-238.4,-57.26,5.385,-35.51,-85.97,45.28,14.67,57.88,31.11,15.13,28.11,19.32,-10.81,0,0,0,0,0,0,0,0,0,0,0,0,0,0,0,0,
150,17.38,4.783,-189.2,-228.3,-49.15,-12.21,-44.97,-87.44,14.44,-1.034,37.45,11.19,-0.2799,12.56,9.368,-23.34,0,0,0,0,0,0,0,0,0,0,0,0,0,0,0,0,
151,-7.282,-5.779,-186.2,-219.6,-42.13,-37.85,-47.93,-84.79,-1.947,-27.31,6.923,-6.477,-21.79,-12.49,-11.52,-44.19,0,0,0,0,0,0,0,0,0,0,0,0,0,0,0,0,
152,-19.8,-16.56,-191,-216.1,-56.77,-31.98,-51,-80.52,21.44,-10.78,4.153,-10.8,-29.37,-15.2,-28.11,-60.76,0,0,0,0,0,0,0,0,0,0,0,0,0,0,0,0,
153,-11.21,-19.79,-197.3,-217.5,-57.77,-7.212,-51.63,-78.91,5.623,10.18,4.306,-11.42,-23.18,-6.718,-30.55,-64.14,0,0,0,0,0,0,0,0,0,0,0,0,0,0,0,0,
154,-10.52,-25.49,-210.6,-218.4,-44.24,-14.08,-54.03,-78.56,-36.61,1.218,-18.77,-23.86,-27.09,-17.9,-29.23,-61.74,0,0,0,0,0,0,0,0,0,0,0,0,0,0,0,0,
155,-34.29,-37.87,-211.2,-216.6,-55.38,-54.51,-67.65,-88.24,-34.9,-11.36,-38.88,-44.01,-39.87,-26.38,-34.56,-62.82,0,0,0,0,0,0,0,0,0,0,0,0,0,0,0,0,
156,-61.33,-48.1,-198,-213.6,-65.4,-76.28,-82.72,-101.8,-27.86,-4.741,-36.18,-45.54,-36.32,-12.27,-36.25,-62,0,0,0,0,0,0,0,0,0,0,0,0,0,0,0,0,
157,-64.02,-44.28,-190.9,-200,-44.51,-57.84,-78.15,-87.07,-31.48,9.646,-23.84,-25.31,-19.06,-2.201,-25.48,-52.23,0,0,0,0,0,0,0,0,0,0,0,0,0,0,0,0,
158,-48.95,-28.89,-177.5,-181.2,-36.42,-49.07,-63.91,-57.11,-17.41,10.16,-17.73,-18.6,-12.16,1.055,-13.63,-41.37,0,0,0,0,0,0,0,0,0,0,0,0,0,0,0,0,
159,-46.38,-17.54,-157.3,-176,-54.74,-65.77,-55.29,-52.16,-23.01,13.2,-15.68,-26.68,-5.321,20.06,-9.441,-36.22,0,0,0,0,0,0,0,0,0,0,0,0,0,0,0,0,
160,-50.09,-7.216,-158.1,-176.7,-61.4,-57.41,-42.98,-57.58,-50.41,33.92,-11.84,-23.22,8.157,29.47,-7.224,-30.59,0,0,0,0,0,0,0,0,0,0,0,0,0,0,0,0,
161,-42.5,-3.207,-168,-175,-59.8,-37.61,-37.93,-54.44,-54.12,32.77,-15.65,-22.17,2.108,12.83,-5.337,-25.21,0,0,0,0,0,0,0,0,0,0,0,0,0,0,0,0,
162,-37.68,-16.98,-156.8,-172.1,-59.84,-48.91,-45.97,-53.85,-42.91,5.021,-22.85,-28.9,-10.08,9.446,-5.681,-26.92,0,0,0,0,0,0,0,0,0,0,0,0,0,0,0,0,
163,-33.75,-19.41,-138.3,-159.1,-47.78,-56.58,-39.38,-49.94,-34.12,-3.649,-14.27,-21.49,-3.767,15.13,-4.947,-31.62,0,0,0,0,0,0,0,0,0,0,0,0,0,0,0,0,
164,-22.33,-7.638,-136.1,-150.4,-38.71,-46.05,-31.39,-49.42,-26.33,-0.4762,1.503,-10.68,0.5919,4.466,-2.875,-33.99,0,0,0,0,0,0,0,0,0,0,0,0,0,0,0,0,
165,-17.28,-12.31,-138.3,-155.6,-40.01,-44.41,-40.64,-56.9,-25.61,-1.285,9.277,-5.517,3.665,10.31,1.394,-31.42,0,0,0,0,0,0,0,0,0,0,0,0,0,0,0,0,
166,-12.48,-10.95,-124.7,-144.6,-29.33,-33.54,-31.09,-37.97,-19.53,14.42,15.56,6.192,15.72,31.09,11.57,-21.03,0,0,0,0,0,0,0,0,0,0,0,0,0,0,0,0,
167,-2.057,2.636,-103.7,-124.6,-12.41,-15.39,-14.75,-16.54,-3.688,21.3,21.91,9.581,9.965,25.11,19.65,-11.4,0,0,0,0,0,0,0,0,0,0,0,0,0,0,0,0,
168,-3.927,-12.46,-101,-133.1,-11.8,-26.98,-36.58,-43.82,-14.9,-3.179,17.79,-7.055,-11.45,9.128,14.5,-12.95,0,0,0,0,0,0,0,0,0,0,0,0,0,0,0,0,
169,-16.43,-37.79,-120,-151.5,-28.88,-47.36,-59.23,-69.55,-51.54,-10.53,1.353,-24.44,-21.8,3.5,-1.973,-24.63,0,0,0,0,0,0,0,0,0,0,0,0,0,0,0,0,
170,-25.38,-36.03,-127.2,-145.8,-42.86,-44.25,-50.31,-55.46,-54.32,7.634,-12.51,-32.62,-27.35,-5.946,-22.79,-43.63,0,0,0,0,0,0,0,0,0,0,0,0,0,0,0,0,
171,-30.96,-28.62,-107.9,-127.4,-30.61,-36.97,-47.25,-54.31,-28.36,-0.7582,-15.53,-37.97,-35.53,-15.92,-39.14,-61.38,0,0,0,0,0,0,0,0,0,0,0,0,0,0,0,0,
172,-39.45,-37.08,-104.6,-124.5,-12.73,-41.69,-58.37,-74.1,-31.7,-35.01,-22.43,-44.65,-41.91,-21.52,-43.34,-66.13,0,0,0,0,0,0,0,0,0,0,0,0,0,0,0,0,
173,-49.04,-50.24,-133.7,-139,-28.41,-50.65,-62.96,-79.12,-44.15,-45.66,-31.37,-46.44,-43.64,-21.39,-38.39,-60.76,0,0,0,0,0,0,0,0,0,0,0,0,0,0,0,0,
174,-47.1,-51.26,-146.8,-145.1,-56.46,-58.33,-62.22,-73.4,-29.45,-17.52,-20.44,-33.59,-31.3,-7.117,-26.93,-49.4,0,0,0,0,0,0,0,0,0,0,0,0,0,0,0,0,
175,-39.07,-38.95,-128.5,-133.5,-54.06,-59.4,-55.92,-64.78,-24.43,3.501,-4.297,-20.68,-17.67,1.158,-10.76,-34.06,0,0,0,0,0,0,0,0,0,0,0,0,0,0,0,0,
176,-43.41,-34.96,-120.1,-130.6,-40.31,-58.01,-52.49,-60.08,-41.25,-15.1,-10.46,-29.07,-28.8,-16.57,-6.052,-31.75,0,0,0,0,0,0,0,0,0,0,0,0,0,0,0,0,
177,-54.03,-47.21,-139.3,-144.4,-47.83,-69.37,-63.56,-71.85,-46.83,-27.34,-22.61,-43.15,-45.27,-32.17,-18.79,-46.6,0,0,0,0,0,0,0,0,0,0,0,0,0,0,0,0,
178,-59.92,-51.66,-157,-148.1,-54.17,-82.44,-67.2,-76.04,-45.54,-11.05,-22.01,-42.94,-39.12,-21.9,-29.52,-55.33,0,0,0,0,0,0,0,0,0,0,0,0,0,0,0,0,
179,-62.5,-42.92,-151,-135,-46.75,-77.57,-58.51,-60.25,-52.01,-9.25,-26.28,-44.98,-33.85,-12.18,-32.8,-53.83,0,0,0,0,0,0,0,0,0,0,0,0,0,0,0,0,
180,-64.66,-46.35,-140.6,-128,-52.88,-73.04,-64.5,-60.26,-59.7,-15.47,-42.1,-61.11,-48.32,-23.77,-42.9,-61.97,0,0,0,0,0,0,0,0,0,0,0,0,0,0,0,0,
181,-67.31,-59.43,-138,-127.3,-58.98,-73.27,-70.11,-73.18,-63.63,-9.744,-43.01,-66.6,-51.75,-26.04,-56.26,-77.02,0,0,0,0,0,0,0,0,0,0,0,0,0,0,0,0,
182,-53.57,-51.41,-121.4,-111.3,-42.52,-48.98,-47.76,-61.52,-42.95,-15.79,-16.8,-43.66,-27.58,-1.424,-54.56,-75.11,0,0,0,0,0,0,0,0,0,0,0,0,0,0,0,0,
183,-18.09,-24.93,-89.98,-83.65,-25.74,-14.27,-19.26,-40.39,12.35,-15.68,17.64,-10.78,-1.45,17.2,-30.65,-49.23,0,0,0,0,0,0,0,0,0,0,0,0,0,0,0,0,
184,9.977,-0.5405,-62.05,-54.4,1.865,8.682,3.394,-26.16,56.84,15.44,53.03,19.4,21.2,28.71,10.96,-11.13,0,0,0,0,0,0,0,0,0,0,0,0,0,0,0,0,
185,30.98,27.88,-37.27,-21.94,46.56,40.09,32.81,2.591,62.7,44.56,91.48,53.11,51.42,55.62,57.92,27.03,0,0,0,0,0,0,0,0,0,0,0,0,0,0,0,0,
186,55.57,51.28,-26.98,-9.534,48.6,56.32,43.08,19.18,58.25,49.81,99.15,66.1,60.75,61.44,83.75,46.47,0,0,0,0,0,0,0,0,0,0,0,0,0,0,0,0,
187,48.84,41.02,-51.19,-34.7,12.02,22.63,17.6,-6.99,52.49,38.17,56.6,36.51,34.22,32.73,63.88,27.76,0,0,0,0,0,0,0,0,0,0,0,0,0,0,0,0,
188,13.46,9.37,-88.78,-62.34,-3.821,-12.24,-9.216,-30.3,25.98,14.05,12.35,-1.153,5.7,14.52,12,-16.74,0,0,0,0,0,0,0,0,0,0,0,0,0,0,0,0,
189,-8.447,-22.39,-99.93,-70.59,-22.73,-22.9,-30.49,-35.77,-17.85,-12.14,-8.067,-26.4,-20.08,-4.905,-32.08,-56.47,0,0,0,0,0,0,0,0,0,0,0,0,0,0,0,0,
190,-28.62,-53.43,-91.24,-80.38,-61.7,-44.63,-53.12,-49.14,-43.21,-19.24,-24.69,-45.73,-46.38,-35.05,-49.57,-77.48,0,0,0,0,0,0,0,0,0,0,0,0,0,0,0,0,
191,-49.27,-60.38,-94.15,-89.07,-62.97,-60.36,-49.88,-45.98,-26.85,-4.663,-22.54,-39.36,-41.6,-26.61,-43.12,-74.87,0,0,0,0,0,0,0,0,0,0,0,0,0,0,0,0,
192,-44.56,-44.26,-96.42,-84.65,-31.95,-51.42,-38,-34.87,-12.97,-12.08,-8.826,-26.88,-26.44,-6.71,-27.3,-58.71,0,0,0,0,0,0,0,0,0,0,0,0,0,0,0,0,
193,-46.75,-48.74,-89.13,-88.03,-34.68,-55.07,-54.01,-53.53,-39.2,-48.96,-27.17,-47.41,-40.47,-21.73,-29.61,-57.35,0,0,0,0,0,0,0,0,0,0,0,0,0,0,0,0,
194,-67.07,-61.53,-111.1,-103.3,-66.76,-74.52,-67.16,-63.79,-62.69,-49.39,-47.46,-61.59,-50.31,-24.76,-51.22,-70.99,0,0,0,0,0,0,0,0,0,0,0,0,0,0,0,0,
195,-65.34,-54.61,-147,-109.6,-79.09,-84.7,-63.57,-52.98,-61.57,-18.93,-35.54,-48.73,-41.57,-9.414,-62.27,-74.9,0,0,0,0,0,0,0,0,0,0,0,0,0,0,0,0,
196,-58.14,-54.47,-132.9,-105.9,-61.99,-83.59,-67.4,-57.47,-56.62,-21.23,-27.12,-46.16,-42.4,-17.48,-54.09,-67.36,0,0,0,0,0,0,0,0,0,0,0,0,0,0,0,0,
197,-61.48,-58.17,-93.41,-100.6,-38.52,-69.94,-65.39,-54.66,-46.24,-32.37,-26.88,-43.37,-42.62,-26.04,-40.45,-59.74,0,0,0,0,0,0,0,0,0,0,0,0,0,0,0,0,
198,-52.32,-48.52,-88.61,-98.02,-29.68,-54.58,-55.04,-39.96,-41.51,-23.13,-19.49,-29.58,-35.77,-21.47,-31.65,-55.88,0,0,0,0,0,0,0,0,0,0,0,0,0,0,0,0,
199,-47.66,-49.2,-92.72,-92.56,-28.63,-50.07,-52.58,-43.41,-40.7,-28.77,-17.21,-26.34,-33.29,-23.32,-31.83,-56.11,0,0,0,0,0,0,0,0,0,0,0,0,0,0,0,0,
200,-48.24,-49.67,-73.69,-73.62,-21.87,-44.84,-45.28,-41.38,-20.19,-39.27,-11.94,-20.45,-24.02,-16.61,-33.77,-55.33,0,0,0,0,0,0,0,0,0,0,0,0,0,0,0,0,
201,-32.41,-34.46,-65.44,-62.04,-22.92,-40.16,-37.83,-34.23,-8.517,-21.53,-3.871,-9.625,-11.4,-0.4387,-31.76,-51.64,0,0,0,0,0,0,0,0,0,0,0,0,0,0,0,0,
202,-24.07,-29.09,-72.12,-63.78,-25.08,-36.15,-38.48,-46.15,-14.92,-4.99,-4.563,-6.046,-2.848,3.326,-26.62,-45.03,0,0,0,0,0,0,0,0,0,0,0,0,0,0,0,0,
203,-17.57,-16.97,-56.06,-44.2,-9.618,-16.37,-22.27,-39.99,-4.014,-6.791,4.898,9.949,15.6,7.133,-10.3,-28.16,0,0,0,0,0,0,0,0,0,0,0,0,0,0,0,0,
204,8.024,15.8,-37.02,-20.23,-3.5,4.104,7.002,-10.46,12.66,-7.027,19.69,27.91,32.18,19.91,11.65,-7.585,0,0,0,0,0,0,0,0,0,0,0,0,0,0,0,0,
205,19.66,25.16,-39.34,-21.82,-4.107,9.698,22.56,-1.679,25.59,-13.99,21.75,26.77,30.22,20.45,18.45,-0.7293,0,0,0,0,0,0,0,0,0,0,0,0,0,0,0,0,
206,18.05,16.34,-28.45,-15.5,20.5,14.9,28.5,-0.354,40.08,-6.983,24.53,27.6,24.93,10.29,13.01,-6.331,0,0,0,0,0,0,0,0,0,0,0,0,0,0,0,0,
207,28.82,26.56,-8.522,-0.1289,28.42,18.22,32.64,11.35,31.37,36.99,23.49,25.45,19.05,11.6,5.615,-16.75,0,0,0,0,0,0,0,0,0,0,0,0,0,0,0,0,
208,30.54,30.99,-17.27,-10.12,-1.949,15.15,25.39,3.41,11.8,29.71,11.56,5.491,2.863,15.9,-6.953,-31.49,0,0,0,0,0,0,0,0,0,0,0,0,0,0,0,0,
209,18.1,10.3,-32.29,-23.01,-11.37,13.93,8.221,-21.07,7.43,-42.73,4.106,-5.69,-11.46,4.013,-17.8,-43.56,0,0,0,0,0,0,0,0,0,0,0,0,0,0,0,0,
210,10.29,-6.432,-22.98,-14.71,6.029,9.694,0.9511,-29.4,6.05,-48.42,-2.088,-4.275,-15.46,-10.97,-19.09,-46.15,0,0,0,0,0,0,0,0,0,0,0,0,0,0,0,0,
211,4.65,-12.4,-11.07,-9.886,7.079,0.241,1.415,-26.73,5.259,-8.548,-2.931,-7.318,-16.72,-9.901,-16.98,-41.92,0,0,0,0,0,0,0,0,0,0,0,0,0,0,0,0,
212,1.586,-21.61,-21.61,-20.37,-6.474,-9.28,-11.34,-25.79,-4.293,-23.96,13.12,-2.24,-11.41,3.765,-10.75,-32.12,0,0,0,0,0,0,0,0,0,0,0,0,0,0,0,0,
213,5.743,-21.83,-36.9,-24.44,-12.9,-14.4,-18.69,-18.77,-21.92,-30.91,24.41,14.39,2.659,11.92,3.775,-17.76,0,0,0,0,0,0,0,0,0,0,0,0,0,0,0,0,
214,14.28,-9.492,-28.91,-14.8,-8.798,-4.708,-2.06,-14.98,-10.25,-5.111,19.19,22.61,6.677,1.655,15.07,-9.598,0,0,0,0,0,0,0,0,0,0,0,0,0,0,0,0,
215,23.12,-8.167,-11.75,-8.229,-1.66,10.34,7.838,-22.78,13.65,-16.23,12.53,19.76,-2.472,-9.422,10.57,-16.09,0,0,0,0,0,0,0,0,0,0,0,0,0,0,0,0,
216,20.92,-16.84,-10.05,-6.471,5.707,6.502,0.3795,-22.37,13.33,-31.63,14.43,16.29,-7.323,-6.582,-5.376,-29.69,0,0,0,0,0,0,0,0,0,0,0,0,0,0,0,0,
217,4.553,-21.3,-17.46,-2.965,6.748,-10.15,-4.63,-12.97,10.85,-17.49,20.59,7.911,-12.4,-11.5,-23.02,-42.09,0,0,0,0,0,0,0,0,0,0,0,0,0,0,0,0,
218,-11.53,-26.26,-18.54,1.136,-10.41,-15.62,-3.46,-7.428,7.742,-14.59,8.028,-10.75,-23.57,-22.67,-38.56,-53.82,0,0,0,0,0,0,0,0,0,0,0,0,0,0,0,0,
219,-23.02,-27.94,-6.573,12.17,-27.13,-12.86,2.769,4.686,-12.64,-20.92,-18.58,-23.67,-26.92,-19.31,-46.01,-60.01,0,0,0,0,0,0,0,0,0,0,0,0,0,0,0,0,
220,-34.68,-23.59,5.013,22.25,-23.16,-19.55,5.618,20.36,-24.54,-13.35,-16.69,-19.27,-23.5,-15.71,-39.48,-54.99,0,0,0,0,0,0,0,0,0,0,0,0,0,0,0,0,
221,-32.39,-17.47,8.768,23.78,-14.87,-18.69,4.65,24.52,-11.89,-3.971,7.775,-9.386,-18.95,-11.22,-25.43,-44.43,0,0,0,0,0,0,0,0,0,0,0,0,0,0,0,0,
222,-10.13,-3.5,24.04,35.68,-11.31,6.359,15.55,22.09,2.338,-2.465,15.41,-4.367,-11.48,5.195,-14.9,-34.22,0,0,0,0,0,0,0,0,0,0,0,0,0,0,0,0,
223,1.57,2.371,37.65,46.29,-9.46,18.92,21.1,14.61,-1.046,6.142,10.98,-4.588,-12.22,4.426,-11.12,-26.67,0,0,0,0,0,0,0,0,0,0,0,0,0,0,0,0,
224,-7.879,-9.652,28.01,32.76,-7.962,5.727,6.726,4.795,-6.871,18.2,12.31,-4.091,-16.47,-8.585,-10.02,-23.76,0,0,0,0,0,0,0,0,0,0,0,0,0,0,0,0,
225,-10.99,-10.32,21.11,18.87,1.851,1.759,-2.295,5.068,1.827,-3.195,16.95,5.972,-6.994,1.821,-5.871,-21.08,0,0,0,0,0,0,0,0,0,0,0,0,0,0,0,0,
226,-1.38,-1.438,27.25,22.66,10.25,7.33,-0.6761,11.48,6.618,-39.27,19.09,16.51,1.196,9.999,-0.2711,-16.66,0,0,0,0,0,0,0,0,0,0,0,0,0,0,0,0,
227,7.209,-3.767,32.43,34.97,8.661,7.592,1.1,16.07,5.873,-34.76,15.46,15.12,-2.983,-5.475,0.0178,-16.35,0,0,0,0,0,0,0,0,0,0,0,0,0,0,0,0,
228,8.858,-3.703,35.67,44.87,10.56,5.648,5.032,19.2,23.88,-13.36,15.66,15.43,-0.5016,-7.422,-1.886,-17.65,0,0,0,0,0,0,0,0,0,0,0,0,0,0,0,0,
229,7.2,2.075,34.72,48.29,11.62,-0.1551,7.062,25.91,41.93,-9.885,23.03,23.59,8.278,8.356,0.7236,-15.09,0,0,0,0,0,0,0,0,0,0,0,0,0,0,0,0,
230,9.727,0.5166,35.26,56.01,9.806,-0.4733,4.745,37.39,29.94,-8.532,12.16,15.19,-0.6727,1.395,-2.826,-19.41,0,0,0,0,0,0,0,0,0,0,0,0,0,0,0,0,
231,3.866,-8.906,39.84,61.1,20.42,6.516,-1.477,37.81,8.514,-2.804,-16.7,-12.62,-25.34,-27.05,-26.97,-41.23,0,0,0,0,0,0,0,0,0,0,0,0,0,0,0,0,
232,-11.21,-17.21,48.24,62.64,35.26,8.956,-2.781,39.03,8.609,11.92,-26.17,-26.93,-38.04,-39.84,-58.5,-68.48,0,0,0,0,0,0,0,0,0,0,0,0,0,0,0,0,
233,-6.779,-13.11,75.62,92.81,46.99,19.02,12.95,62.22,19.55,13.22,-16.6,-23.09,-39.46,-40.41,-74.22,-85.58,0,0,0,0,0,0,0,0,0,0,0,0,0,0,0,0,
234,3.736,-11.47,108.9,132.9,65.66,35.32,27.13,78.12,16.69,-28.77,-16.88,-26.78,-50.52,-51.8,-78.37,-95.21,0,0,0,0,0,0,0,0,0,0,0,0,0,0,0,0,
235,-3.448,-23.04,132.8,158.2,79.3,41.95,36.94,96.77,9.079,-43.37,-25.04,-34.92,-56.39,-55.03,-84.05,-101.7,0,0,0,0,0,0,0,0,0,0,0,0,0,0,0,0,
236,-4.497,-17.54,170.7,211.5,81.26,51.49,65.03,146.8,9.845,2.494,-29.66,-34.38,-44.97,-42.79,-85.93,-99.86,0,0,0,0,0,0,0,0,0,0,0,0,0,0,0,0,
237,-1.079,1.08,223.8,287.6,96.8,61.08,90.24,173.6,4.774,12.88,-33.91,-36.71,-40.12,-42.94,-80.71,-92.27,0,0,0,0,0,0,0,0,0,0,0,0,0,0,0,0,
238,-11.92,3.57,274.3,352.7,126.6,62.63,107.3,186.4,-5.715,-6.01,-36.67,-40.24,-36.94,-43.19,-74.66,-85.85,0,0,0,0,0,0,0,0,0,0,0,0,0,0,0,0,
239,-11.05,14.19,330.7,449,149.3,87.93,152.7,252.3,-4.904,29.43,-31.46,-29.44,-18.75,-26.01,-67.03,-77.66,0,0,0,0,0,0,0,0,0,0,0,0,0,0,0,0,
240,13.2,43.99,423.6,583.3,180,141.9,212,322.6,10.52,66.85,-20.08,-14.35,-8.237,-18.85,-58.31,-67.42,0,0,0,0,0,0,0,0,0,0,0,0,0,0,0,0,
241,39.23,63.71,565.7,683.6,234.6,191,264,370.3,36.73,58.26,-9.638,-3.977,-5.117,-20.08,-51.85,-59.86,0,0,0,0,0,0,0,0,0,0,0,0,0,0,0,0,
242,61.36,80.18,684.3,722.9,285.9,230.6,320.1,435.3,52.11,64.39,-0.6777,11.03,14.93,-5.021,-40.94,-49.88,0,0,0,0,0,0,0,0,0,0,0,0,0,0,0,0,
243,78.06,105.5,701.5,728.8,311.8,264.5,361.8,476.3,44.87,93.81,5.055,25.43,37.58,12.26,-25.4,-34.67,0,0,0,0,0,0,0,0,0,0,0,0,0,0,0,0,
244,90.02,128,675,723.2,329.6,289.1,388.6,484.5,49.81,116.4,5.669,36.29,53.97,25.3,-15.27,-20.33,0,0,0,0,0,0,0,0,0,0,0,0,0,0,0,0,
245,112.9,152.2,685.1,722,352.5,315.1,420,507.4,68.1,139.1,12.3,50.4,71.91,42.85,-9.275,-7.579,0,0,0,0,0,0,0,0,0,0,0,0,0,0,0,0,
246,132.2,164.5,694.3,724.7,347.4,324.4,416.3,501.3,56.97,142.5,19.29,48.26,66.38,40.76,-8.274,-2.517,0,0,0,0,0,0,0,0,0,0,0,0,0,0,0,0,
247,117.1,141.5,651.6,693.5,305.3,291.9,366.2,440.6,41.01,120.1,10,24.63,32.08,12.11,-21.77,-16.22,0,0,0,0,0,0,0,0,0,0,0,0,0,0,0,0,
248,86.83,111.2,583.8,616.8,286.8,252.6,325.3,389.9,50.05,106,-1.723,7.551,6.524,-2.371,-41.58,-38.72,0,0,0,0,0,0,0,0,0,0,0,0,0,0,0,0,
249,66.62,96.11,518,542.3,287.9,228.6,299.7,366.3,37.68,94.96,-11.32,-3.324,2.836,11.63,-53.26,-52.12,0,0,0,0,0,0,0,0,0,0,0,0,0,0,0,0,
250,49.42,86.56,445.9,480.8,250.5,201.1,265.8,335.4,12.5,89.97,-28.23,-16.25,6.85,19.63,-58.16,-55.19,0,0,0,0,0,0,0,0,0,0,0,0,0,0,0,0,
251,41.38,84.44,383.3,406.4,215.9,179,232.9,294.1,16.23,99.59,-34.65,-23.19,-0.9852,-4.117,-61.4,-55.37,0,0,0,0,0,0,0,0,0,0,0,0,0,0,0,0,
252,36.78,71.23,341.5,342.1,207.3,156.8,202,260.4,-5.104,76.36,-32.74,-34.7,-26.39,-38.01,-66.59,-60.12,0,0,0,0,0,0,0,0,0,0,0,0,0,0,0,0,
253,19.77,40.73,287,293.6,166.1,120,174.7,230.6,-50.91,33.13,-40.52,-45.13,-35.99,-41.25,-73.2,-68.62,0,0,0,0,0,0,0,0,0,0,0,0,0,0,0,0,
254,15.98,36.79,217,222.3,119.4,104.5,157.2,186.1,-32.95,26.41,-41.75,-35.22,-19.15,-23.25,-72.8,-69.06,0,0,0,0,0,0,0,0,0,0,0,0,0,0,0,0,
255,26.82,51.19,162.6,140.6,107.7,104.5,131.3,138.3,10.49,20.74,-36.37,-26.92,-12.75,-25.81,-67.09,-59.38,0,0,0,0,0,0,0,0,0,0,0,0,0,0,0,0,
256,19.38,40.71,117.9,80.38,85.37,75.45,95.75,105.8,-4.062,-3.905,-45.34,-35.2,-19.95,-37.9,-67.77,-51.91,0,0,0,0,0,0,0,0,0,0,0,0,0,0,0,0,
257,9.86,27.27,71.22,35.26,49.79,52.13,74.1,80.26,-30.28,-1.41,-52.59,-34.17,-12.54,-25.98,-70.44,-49.63,0,0,0,0,0,0,0,0,0,0,0,0,0,0,0,0,
258,23.07,40.02,35.49,-2.463,38.67,62.1,72.02,65.59,-12.87,22.64,-37.31,-12.71,8.267,-5.742,-60.2,-42.58,0,0,0,0,0,0,0,0,0,0,0,0,0,0,0,0,
259,39.67,57.82,13.39,-40.59,42.09,57.04,69.56,59.28,6.768,30.57,-22.69,0.4825,12.29,-6.987,-44.4,-34.27,0,0,0,0,0,0,0,0,0,0,0,0,0,0,0,0,
260,32.41,44.78,-10.62,-85.74,33.58,31.36,40.04,28.88,-20.12,17.78,-38.48,-19.89,-15.66,-26.29,-47.11,-41.59,0,0,0,0,0,0,0,0,0,0,0,0,0,0,0,0,
261,4.779,6.704,-42.7,-126,13.9,18.74,0.5513,-12.75,-55.22,7.581,-60.76,-43.63,-38.16,-39.99,-66.48,-58.97,0,0,0,0,0,0,0,0,0,0,0,0,0,0,0,0,
262,-4.168,-1.879,-67.96,-154.5,8.65,11.16,-4.739,-25.39,-42.78,11.07,-51.12,-33.82,-24.15,-36.82,-75.75,-62.1,0,0,0,0,0,0,0,0,0,0,0,0,0,0,0,0,
263,15.44,21.11,-80.46,-172.2,14.82,8.212,4.555,-27.76,-22.44,2.99,-31.01,-13.24,-5.125,-28.3,-62.85,-45.99,0,0,0,0,0,0,0,0,0,0,0,0,0,0,0,0,
264,25.87,22.9,-93.28,-188.4,3.495,19.17,-14.42,-51.39,-28.37,-16.14,-23.25,-1.837,-1.287,-21.06,-34.98,-23.52,0,0,0,0,0,0,0,0,0,0,0,0,0,0,0,0,
265,22.4,12.32,-120.1,-224.5,-13.01,10.6,-45.8,-82.53,-14.09,-19.46,-3.17,13.86,3.86,-9.809,-4.522,-4.12,0,0,0,0,0,0,0,0,0,0,0,0,0,0,0,0,
266,27.08,18.79,-167.2,-267.8,-18.84,-19.82,-61.98,-97.59,15.78,-9.085,22.45,25.64,8.112,-1.365,15.65,10.44,0,0,0,0,0,0,0,0,0,0,0,0,0,0,0,0,
267,29.81,21.45,-211.1,-292.9,-32.06,-32.35,-68.52,-102.4,11.63,10.15,17.07,14.37,-2.292,-8.122,15.76,16.8,0,0,0,0,0,0,0,0,0,0,0,0,0,0,0,0,
268,11.97,8.28,-229.3,-316.5,-55.28,-44.42,-84.72,-124.9,-14.05,12.38,-7.183,-12.92,-24.93,-26.09,-11.15,2.317,0,0,0,0,0,0,0,0,0,0,0,0,0,0,0,0,
269,-9.009,-4.209,-241.6,-337.3,-68.43,-70.72,-105.7,-155.1,-23,-35.18,-12.12,-21.25,-32.86,-35.96,-46.73,-25.44,0,0,0,0,0,0,0,0,0,0,0,0,0,0,0,0,
270,7.428,0.8945,-246.3,-323.1,-55.7,-61.99,-95.11,-146.3,-0.2808,-74.06,6.681,9.171,-7.676,-26.17,-46.91,-29.04,0,0,0,0,0,0,0,0,0,0,0,0,0,0,0,0,
271,51.22,26.78,-230.9,-296.7,-33.14,-20.2,-59.47,-114.6,28.14,-40.29,18.71,30.37,12.26,-11.2,-14.51,-6.084,0,0,0,0,0,0,0,0,0,0,0,0,0,0,0,0,
272,59.6,44.27,-233.9,-302,-35.9,-9.772,-56.17,-117.4,10.91,4.816,-1.889,0.4787,-6.396,-15.08,-4.758,0.9572,0,0,0,0,0,0,0,0,0,0,0,0,0,0,0,0,
273,23.63,25.2,-261,-323.1,-59.33,-42.64,-88.04,-141.9,-36.1,-12.92,-40.42,-38.24,-32.06,-36.48,-31.82,-19.67,0,0,0,0,0,0,0,0,0,0,0,0,0,0,0,0,
274,-6.028,-4.456,-271,-325,-79.55,-69.02,-102.6,-143.6,-47.09,-38.18,-60.64,-46.05,-33.81,-40.74,-60.24,-40.53,0,0,0,0,0,0,0,0,0,0,0,0,0,0,0,0,
275,-7.199,-2.604,-270,-309.6,-86.45,-59.8,-89.28,-132.8,-28.32,-1.904,-53.49,-41.1,-25.72,-21.64,-69.24,-46.42,0,0,0,0,0,0,0,0,0,0,0,0,0,0,0,0,
276,1.732,11.62,-276.4,-300.5,-69.06,-51.25,-85.06,-135.9,-26.96,22.11,-42.14,-43.12,-36.1,-29.76,-63.13,-45.43,0,0,0,0,0,0,0,0,0,0,0,0,0,0,0,0,
277,-2.294,-3.451,-274.8,-301.5,-51.14,-70.68,-99.69,-141.8,-31.34,-14.38,-42,-51.88,-58.46,-58.79,-55.18,-48.63,0,0,0,0,0,0,0,0,0,0,0,0,0,0,0,0,
278,-15.79,-22.81,-266,-295.9,-67.87,-81.33,-103.5,-132.5,-21.62,-20.25,-44.43,-57.54,-55.39,-44.08,-54.95,-52.32,0,0,0,0,0,0,0,0,0,0,0,0,0,0,0,0,
279,-20.07,-17.76,-266.5,-284.2,-93.06,-75.71,-97.57,-121.4,-25.15,2.279,-54.18,-59.61,-42.08,-23.03,-63.4,-51.94,0,0,0,0,0,0,0,0,0,0,0,0,0,0,0,0,
280,-24,-17.08,-266.3,-271.1,-91.62,-81.01,-99.76,-118,-41.59,-0.435,-75.24,-65.52,-52.94,-50.67,-79.67,-57.4,0,0,0,0,0,0,0,0,0,0,0,0,0,0,0,0,
281,-25.78,-13.68,-245.5,-246.3,-68.21,-69.79,-83.87,-104.1,-28.8,35.72,-60.5,-51.21,-47.24,-58.16,-83.07,-57.64,0,0,0,0,0,0,0,0,0,0,0,0,0,0,0,0,
282,1.289,11.96,-219.5,-225.9,-42.01,-36.47,-55.89,-91.94,5.503,60.84,-6.284,-15.14,-17.67,-24.15,-50.61,-31.51,0,0,0,0,0,0,0,0,0,0,0,0,0,0,0,0,
283,23.57,7.178,-221.7,-234.7,-43.39,-37.76,-71.48,-114.2,3.938,-26.36,-0.7224,-15.38,-25.71,-21.68,-15.09,-7.026,0,0,0,0,0,0,0,0,0,0,0,0,0,0,0,0,
284,-1.081,-29.89,-244,-252.3,-75.18,-64.04,-107,-145.3,-40.42,-86.69,-39.88,-41.21,-45.89,-38.76,-13.95,-11.65,0,0,0,0,0,0,0,0,0,0,0,0,0,0,0,0,
285,-22.06,-27.74,-255.1,-253.9,-94.58,-62.71,-108.6,-147.4,-61.43,-39.67,-33.77,-28.86,-28.13,-32.34,-20.53,-16.86,0,0,0,0,0,0,0,0,0,0,0,0,0,0,0,0,
286,-6.52,-3.692,-253.3,-250.4,-87.53,-53.58,-104,-141.8,-36.44,-23.03,-7.904,-6.581,-13.4,-25.37,-12.83,-7.743,0,0,0,0,0,0,0,0,0,0,0,0,0,0,0,0,
287,0.783,-7.343,-248,-248.6,-77.67,-63.03,-111.2,-144.8,-24.28,-47.97,-12.96,-8.783,-17.66,-26.81,-8.962,-3.159,0,0,0,0,0,0,0,0,0,0,0,0,0,0,0,0,
288,-3.311,-9.011,-238.1,-239.9,-72.17,-63.57,-104,-138.4,-27.41,-36.22,-11.25,-0.3011,-10.03,-25.66,-8.161,-1.657,0,0,0,0,0,0,0,0,0,0,0,0,0,0,0,0,
289,12.62,7.134,-224.6,-225.7,-65.19,-45.01,-89.51,-124.8,-3.355,-13.55,-0.2182,16.22,4.141,-21.45,2.895,5.814,0,0,0,0,0,0,0,0,0,0,0,0,0,0,0,0,
290,33.45,18.71,-209.9,-210.3,-54.49,-34.15,-80.16,-118.1,9.597,0.2397,-4.298,14.33,14.37,-10.6,15.27,14.57,0,0,0,0,0,0,0,0,0,0,0,0,0,0,0,0,
291,34.93,25.04,-203.8,-200.4,-49.96,-46.16,-74.88,-118,-7.496,7.961,-6.708,5.338,16.47,-2.57,14.81,19.38,0,0,0,0,0,0,0,0,0,0,0,0,0,0,0,0,
292,19.6,24.22,-215.8,-206.4,-70.46,-65.88,-82.08,-120.8,-12.58,0.2389,-11.09,-6.672,3.944,-3.958,-0.3441,13.98,0,0,0,0,0,0,0,0,0,0,0,0,0,0,0,0,
293,0.6166,13.21,-226.1,-213.7,-102.4,-73.97,-92.65,-120.8,-28.91,-10.95,-27.77,-23.94,-9.096,-11.13,-19.64,-0.3761,0,0,0,0,0,0,0,0,0,0,0,0,0,0,0,0,
294,-9.802,3.133,-220.9,-208.3,-102,-73.02,-91.31,-119.6,-57.26,-22.62,-33.64,-28.6,-8.878,-19.84,-28.27,-8.196,0,0,0,0,0,0,0,0,0,0,0,0,0,0,0,0,
295,-4.9,6.166,-215.3,-204.7,-64.22,-61.79,-79.79,-123.1,-27.3,-11.14,-14.23,-8.764,8.168,-12.2,-18.45,0.8187,0,0,0,0,0,0,0,0,0,0,0,0,0,0,0,0,
296,16.04,30.1,-206.2,-198.4,-40.02,-38.34,-63.08,-124.2,26.82,28.41,8.946,13.83,26.17,-3.28,2.373,18.06,0,0,0,0,0,0,0,0,0,0,0,0,0,0,0,0,
297,30.81,45.88,-191.2,-182.5,-58.74,-35.17,-59.44,-125.7,21.83,15.38,4.09,8.204,18.19,-13.1,12.83,25.06,0,0,0,0,0,0,0,0,0,0,0,0,0,0,0,0,
298,15.89,24.97,-196.3,-186.4,-81.33,-63.64,-78.99,-139.5,-10.87,-41.47,-12.66,-7.812,6.167,-1.775,7.251,19.75,0,0,0,0,0,0,0,0,0,0,0,0,0,0,0,0,
299,-6.329,3.196,-216.8,-209.4,-81.97,-87.82,-98.79,-151,-17.53,-43.7,-7.275,-6.206,10.42,16.45,3.835,17.79,0,0,0,0,0,0,0,0,0,0,0,0,0,0,0,0,
300,-14.17,0.625,-223.6,-215.7,-87.16,-94.77,-103.6,-143.1,-15.51,-10.45,1.244,-5.691,3.486,-10.71,7.601,22.01,0,0,0,0,0,0,0,0,0,0,0,0,0,0,0,0,
301,-20.97,-2.033,-219.4,-203.6,-99.31,-97.3,-99.69,-127.9,-30.68,9.444,-0.4864,-8.525,-2.431,-27.67,10.77,25.55,0,0,0,0,0,0,0,0,0,0,0,0,0,0,0,0,
302,-26.56,2.709,-220.7,-194,-106.7,-104.1,-100.3,-126.2,-47.64,20.66,0.1782,-1.754,10.97,-2.171,14.83,28.93,0,0,0,0,0,0,0,0,0,0,0,0,0,0,0,0,
303,-28.02,3.12,-227.7,-194.5,-118.9,-116.8,-115.2,-136.9,-49.36,3.365,-9.345,-7.931,9.515,2.023,17.86,29.69,0,0,0,0,0,0,0,0,0,0,0,0,0,0,0,0,
304,-36.56,-16.11,-226.3,-194.7,-125.3,-118.6,-126.7,-143.5,-59.72,-19.52,-24.89,-25.63,-3.477,-11.01,14.54,25.27,0,0,0,0,0,0,0,0,0,0,0,0,0,0,0,0,
305,-47.51,-21.5,-215.8,-186.9,-126.6,-113.6,-123.6,-145.4,-79.05,-8.403,-29.95,-33.92,-6.455,-8.517,5.832,18.42,0,0,0,0,0,0,0,0,0,0,0,0,0,0,0,0,
306,-58.25,-22.75,-215.2,-183.6,-140.4,-123.8,-126.7,-144.3,-73.09,-1.366,-35.27,-43.01,-16.92,-12.53,-8.742,8.123,0,0,0,0,0,0,0,0,0,0,0,0,0,0,0,0,
307,-66.9,-45.37,-213.6,-178.5,-138.3,-122.2,-130.3,-130.6,-61.72,-9.582,-34.57,-44.57,-23.35,-15.48,-22.78,0.0326,0,0,0,0,0,0,0,0,0,0,0,0,0,0,0,0,
308,-55.27,-47.73,-193.5,-158.8,-111.1,-93.23,-119.2,-123.3,-58.58,-13.35,-21.73,-26.53,-13.59,-8.09,-21.97,5.244,0,0,0,0,0,0,0,0,0,0,0,0,0,0,0,0,
309,-38.2,-32.83,-179,-150.8,-94.02,-83.41,-115.8,-140.4,-34.88,-27.99,-18.9,-18.07,-16.83,-12.25,-9.46,15.89,0,0,0,0,0,0,0,0,0,0,0,0,0,0,0,0,
310,-41.31,-38.98,-174.1,-157.7,-83.85,-92.89,-119.3,-146.9,-21.93,-25.41,-20.9,-19.95,-20.45,-8.84,0.527,18.43,0,0,0,0,0,0,0,0,0,0,0,0,0,0,0,0,
311,-35.85,-31.99,-155.4,-144.9,-73.63,-78.56,-104.1,-131,-33.85,8.241,-9.219,-5.114,-2.535,3.195,8.808,17.41,0,0,0,0,0,0,0,0,0,0,0,0,0,0,0,0,
312,-14.59,-11.99,-143.5,-127.2,-81.59,-60.12,-91.46,-131.5,-22.51,2.896,-1.811,4.796,2.253,-15.47,17.68,18.01,0,0,0,0,0,0,0,0,0,0,0,0,0,0,0,0,
313,-19.75,-24.35,-157.2,-132.3,-93.15,-67.07,-99.37,-143.3,-13.11,-34.09,-9.244,-5.131,-3.937,-29.15,19.27,18.78,0,0,0,0,0,0,0,0,0,0,0,0,0,0,0,0,
314,-30.02,-29.23,-167.1,-136.6,-85.25,-70,-98.04,-134.8,-24.13,-19.79,-1.425,4.802,15.44,-0.2943,20.94,27.42,0,0,0,0,0,0,0,0,0,0,0,0,0,0,0,0,
315,-2.091,0.3782,-156.1,-123.8,-71.31,-51.84,-82.64,-121.3,-3.016,19.45,30.86,36.05,32.56,13.24,37.81,45.58,0,0,0,0,0,0,0,0,0,0,0,0,0,0,0,0,
316,21.31,9.595,-141.8,-112.3,-75.95,-38.92,-75.68,-118.8,19.29,12.16,48.04,41.82,22.68,-3.039,56.66,55.35,0,0,0,0,0,0,0,0,0,0,0,0,0,0,0,0,
317,8.891,-4.025,-139.3,-113.2,-90.61,-46.78,-73.79,-117.4,3.755,-7.534,37.58,24.32,16.05,-1.89,55.73,47.35,0,0,0,0,0,0,0,0,0,0,0,0,0,0,0,0,
318,0.6095,-3.673,-140.4,-120.3,-80.33,-58.6,-69.59,-117.3,6.105,10.31,36.03,20.59,19.18,2.05,43.22,36.27,0,0,0,0,0,0,0,0,0,0,0,0,0,0,0,0,
319,11.03,4.65,-125.4,-115.1,-56.19,-49.42,-64.45,-112.8,20.99,20.55,50.55,31.56,22.29,-3.943,40.76,38.69,0,0,0,0,0,0,0,0,0,0,0,0,0,0,0,0,
320,20.45,12.86,-105.9,-98.55,-59.87,-30.8,-59.45,-104.5,5.622,-13.66,49.75,36.2,30.86,7.255,50.52,52.16,0,0,0,0,0,0,0,0,0,0,0,0,0,0,0,0,
321,21.38,18.35,-109.5,-98.03,-70.46,-31.76,-58.29,-110.9,1.874,-31.26,37.77,36.86,39.21,22.44,60.86,64.32,0,0,0,0,0,0,0,0,0,0,0,0,0,0,0,0,
322,21.39,22.85,-115.3,-100.4,-50.83,-31.58,-49.28,-109.6,26.73,1.1,50.4,51.49,48.6,34.29,70.32,75.4,0,0,0,0,0,0,0,0,0,0,0,0,0,0,0,0,
323,29.81,36.51,-103.6,-84.84,-33.28,-19.89,-36.91,-87.6,36.75,20.62,68.03,59.53,54.05,50.43,78.59,85.22,0,0,0,0,0,0,0,0,0,0,0,0,0,0,0,0,
324,23.18,33.77,-106.6,-88.94,-49.87,-37.13,-51.33,-93.01,30.19,10.27,45.8,33.62,36.11,40,72.04,78.19,0,0,0,0,0,0,0,0,0,0,0,0,0,0,0,0,
325,-5.771,11.96,-119.1,-110.4,-60.68,-59.48,-66.36,-114.7,33.1,14.64,25.91,17.52,23.19,19.34,54.31,58.96,0,0,0,0,0,0,0,0,0,0,0,0,0,0,0,0,
326,-5.034,18.38,-105.2,-98.51,-32.31,-38.18,-46.63,-100.3,45.69,15.85,51.21,38.84,35.51,26.76,50,53.38,0,0,0,0,0,0,0,0,0,0,0,0,0,0,0,0,
327,23.31,37.8,-89.91,-75.18,-4.8,-14.84,-30.3,-80.21,51.07,-2.979,66.08,51.31,36.89,21.03,59.85,60,0,0,0,0,0,0,0,0,0,0,0,0,0,0,0,0,
328,33.61,37.48,-91.49,-72.02,-9.565,-13.1,-31.4,-81.07,47.24,0.1151,55.62,54.27,33.14,-2.09,68.71,63.41,0,0,0,0,0,0,0,0,0,0,0,0,0,0,0,0,
329,41.73,41.13,-85.52,-67.68,-21.63,-7.537,-25.83,-79.87,40.36,12.68,59.29,65.4,40.12,5.112,72.98,63.16,0,0,0,0,0,0,0,0,0,0,0,0,0,0,0,0,
330,40.26,38.81,-83.94,-66.54,-33.6,-20.95,-32.13,-82.62,16.87,12.14,49.43,46.53,27.5,15.61,65.43,54.07,0,0,0,0,0,0,0,0,0,0,0,0,0,0,0,0,
331,5.327,20.95,-92.79,-71.85,-54.99,-46.81,-48.58,-85.2,1.133,38.14,23.12,14.47,10.95,9.42,44.88,34.5,0,0,0,0,0,0,0,0,0,0,0,0,0,0,0,0,
332,-8.905,20.78,-89.19,-65.56,-68.4,-44.32,-50.08,-74.47,29.94,56.76,21.34,11.31,9.989,7.637,27.15,19,0,0,0,0,0,0,0,0,0,0,0,0,0,0,0,0,
333,0.3934,14.69,-91.48,-65.37,-66.39,-48.55,-56.06,-75.5,37.01,15.6,14.14,3.548,-4.733,-5.147,16.62,11.67,0,0,0,0,0,0,0,0,0,0,0,0,0,0,0,0,
334,-15.92,-9.76,-99.6,-68.71,-48.49,-65.43,-61.08,-79.72,0.9964,-9.238,-1.345,-6.961,-10.77,-12.08,11.85,10.61,0,0,0,0,0,0,0,0,0,0,0,0,0,0,0,0,
335,-11.25,-1.668,-74.88,-48.07,-17.05,-39.33,-39.79,-62.1,18.43,12.96,19.84,10.84,8.024,6.779,18.38,18.39,0,0,0,0,0,0,0,0,0,0,0,0,0,0,0,0,
336,23.54,16.67,-48.06,-32.8,-14.73,-13.2,-27.24,-51.67,48.76,18.87,34.88,15.49,5.089,7.007,27.7,24.94,0,0,0,0,0,0,0,0,0,0,0,0,0,0,0,0,
337,13.4,5.954,-56.79,-43.23,-41.18,-38.86,-40.63,-61.83,5.47,19.05,15.24,0.1695,-6.327,-3.394,31.61,24.8,0,0,0,0,0,0,0,0,0,0,0,0,0,0,0,0,
338,-14.97,-1.675,-63.22,-49.34,-39.9,-57.31,-52.56,-77.32,-20.35,16.52,8.693,-0.0493,-5.532,-1.366,33.98,23.83,0,0,0,0,0,0,0,0,0,0,0,0,0,0,0,0,
339,-19.28,-14.55,-63.52,-55.87,-36.89,-55.08,-67.59,-98.83,-1.818,-11.82,6.247,-9.651,-24.38,-16.43,27.31,15.18,0,0,0,0,0,0,0,0,0,0,0,0,0,0,0,0,
340,-34.81,-36.85,-77.72,-67.99,-56.76,-65.59,-75.38,-100,-8.124,-6.093,-1.81,-19.84,-26.82,-11.84,15.78,5.822,0,0,0,0,0,0,0,0,0,0,0,0,0,0,0,0,
341,-30.88,-14.38,-65.94,-50.54,-38.99,-49.23,-48.63,-66.51,13.3,29.3,23.5,10.38,13.4,27.2,25.64,21.82,0,0,0,0,0,0,0,0,0,0,0,0,0,0,0,0,
342,19.98,21,-30.95,-19.85,-9.848,-2.48,-18.77,-47.28,67.18,35.19,65.75,50.7,39.95,33.49,59.04,58.22,0,0,0,0,0,0,0,0,0,0,0,0,0,0,0,0,
343,62.93,28.05,-14.35,-7.886,-13.6,26.67,0.2896,-43.44,89.99,63.03,109.7,89.75,67.53,47.16,103.5,98.46,0,0,0,0,0,0,0,0,0,0,0,0,0,0,0,0,
344,102.1,64.59,8.761,12.61,19.51,49.4,29.95,-13.92,127.6,102.7,164.6,136.2,115,102.5,151,140.6,0,0,0,0,0,0,0,0,0,0,0,0,0,0,0,0,
345,139.4,101.5,30.25,26.24,65.52,60.03,33.57,-2.777,156.3,59.65,172.4,135.3,107.7,97.48,170.1,159.4,0,0,0,0,0,0,0,0,0,0,0,0,0,0,0,0,
346,115.2,63.56,6.553,-2.82,36.99,32.35,2.05,-38.78,100.9,-3.456,117.6,90.07,58.98,40.62,141.5,133.5,0,0,0,0,0,0,0,0,0,0,0,0,0,0,0,0,
347,65.2,22.87,-15.98,-24.2,-7.165,5.602,-8.244,-54.73,46.67,7.295,74.17,64.49,46.35,31.55,97.4,93.69,0,0,0,0,0,0,0,0,0,0,0,0,0,0,0,0,
348,49.29,30.8,-13.25,-21.44,-17.35,-3.4,-6.721,-41.51,44.12,35.63,55.35,49.34,44.8,43.12,66.44,70.32,0,0,0,0,0,0,0,0,0,0,0,0,0,0,0,0,
349,38.82,26.86,-26.11,-33.23,-23.68,-13.58,-20.68,-43.06,39.15,29.96,38.66,32.1,29.97,35.66,48.55,59.37,0,0,0,0,0,0,0,0,0,0,0,0,0,0,0,0,
350,29.71,12.25,-30.83,-31.71,-15.34,-10.51,-22.38,-45.51,36.19,21.93,37.93,35.17,26.05,30.55,44.17,55.12,0,0,0,0,0,0,0,0,0,0,0,0,0,0,0,0,
351,32.67,16.7,-15.71,-15.54,-5.627,-4.606,-18.44,-44.95,31.4,29.45,43,40.27,19.04,19.41,48.51,53.93,0,0,0,0,0,0,0,0,0,0,0,0,0,0,0,0,
352,23.93,16.19,-23.56,-29.61,-15.73,-12.81,-25.86,-53.24,23.23,25.17,39.18,38.58,6.084,1.859,52.25,50.16,0,0,0,0,0,0,0,0,0,0,0,0,0,0,0,0,
353,17.88,7.652,-34.39,-40.18,-8.095,-8.86,-23.41,-50.03,52.33,-9.673,41.26,47.01,8.743,2.684,56.73,47.85,0,0,0,0,0,0,0,0,0,0,0,0,0,0,0,0,
354,31.86,7.167,-20.17,-23.2,10.26,6.991,-15.71,-43.16,77.37,-21.74,46.94,52.37,18.5,24.76,60.21,50.14,0,0,0,0,0,0,0,0,0,0,0,0,0,0,0,0,
355,44.1,17.81,-8.573,-14.76,4.934,13.1,-12.02,-42.31,62.76,37.68,48.52,51.87,29.9,49.92,58.58,54.22,0,0,0,0,0,0,0,0,0,0,0,0,0,0,0,0,
356,47.76,36.67,-13.58,-13.93,-10.26,10.89,-2.416,-35.21,54.73,78.49,54.94,59.95,41.65,49.48,59.75,61.7,0,0,0,0,0,0,0,0,0,0,0,0,0,0,0,0,
357,48.42,38.97,-26.1,-16.25,-22.28,4.473,0.0275,-43.7,53.95,20.81,61.81,63.11,39,31.01,65.47,70.89,0,0,0,0,0,0,0,0,0,0,0,0,0,0,0,0,
358,48.75,21.64,-24.05,-23.62,-20.08,7.79,-6.116,-59.23,57.45,-22.76,58.99,55.32,31.68,31.06,64.57,74.02,0,0,0,0,0,0,0,0,0,0,0,0,0,0,0,0,
359,55.34,21.26,5.903,-8.073,1.817,27.83,-4.159,-46.51,80.6,25.4,56.72,55.95,34.81,36.89,60.01,71.71,0,0,0,0,0,0,0,0,0,0,0,0,0,0,0,0,
360,63.94,36.04,28.95,15.67,17.02,37.81,-3.797,-36.69,75.81,50.99,61.59,63.66,37.81,31.51,63.57,69.4,0,0,0,0,0,0,0,0,0,0,0,0,0,0,0,0,
361,62.99,34.83,24.86,14.12,17.41,22.63,-9.394,-45.95,37.58,9.95,54.44,56.14,32.12,32.57,65.47,64.19,0,0,0,0,0,0,0,0,0,0,0,0,0,0,0,0,
362,46.26,22.71,16.64,9.052,10.78,1.786,-7.79,-46.84,25.59,-2.94,31.86,34.82,20.72,29.31,51.41,52.19,0,0,0,0,0,0,0,0,0,0,0,0,0,0,0,0,
363,26.86,18.34,15.07,15.59,-1.467,0.4209,1.082,-47.57,42.48,28.62,27.31,28.82,16.14,20.96,36.42,41.71,0,0,0,0,0,0,0,0,0,0,0,0,0,0,0,0,
364,31.06,24.73,26.97,23.2,4.173,19.13,13.79,-43.8,62.85,49.1,49.01,45.5,28.6,37.75,43.98,45.6,0,0,0,0,0,0,0,0,0,0,0,0,0,0,0,0,
365,49.16,38.19,48.15,32.42,25.16,30.63,24.08,-20.8,75.08,51.04,63.4,58.17,40.69,55.91,68.47,61.96,0,0,0,0,0,0,0,0,0,0,0,0,0,0,0,0,
366,52.14,48.68,49.72,33.94,26.16,24.92,22.7,-8.301,69.29,57.85,59.89,58.63,41.45,46.44,86.78,77.48,0,0,0,0,0,0,0,0,0,0,0,0,0,0,0,0,
367,50.22,50.33,38.16,24.59,22.07,19.34,15.02,-14.56,58.91,68.33,54.77,60.4,44.45,40.37,89.73,85.83,0,0,0,0,0,0,0,0,0,0,0,0,0,0,0,0,
368,53.28,45.25,36.82,20.54,25.57,16.9,6.005,-21.91,51.51,55.51,49.98,56.71,42.62,44.86,81.31,84.36,0,0,0,0,0,0,0,0,0,0,0,0,0,0,0,0,
369,43.62,31.59,33.21,18.36,6.208,14.26,-2.031,-31.42,43.17,27.75,44.03,43.53,28.87,39.31,66.69,70.38,0,0,0,0,0,0,0,0,0,0,0,0,0,0,0,0,
370,33.17,20.53,25.72,12.15,-7.511,16.87,1.942,-31.63,47.39,26.6,39.41,36.96,24.24,36.66,52.42,53.13,0,0,0,0,0,0,0,0,0,0,0,0,0,0,0,0,
371,39.27,26.88,25,10.56,21.04,11.69,8.892,-21.86,55.21,51.81,26.71,30.18,24.71,36.57,39.84,42.22,0,0,0,0,0,0,0,0,0,0,0,0,0,0,0,0,
372,32.98,29.6,19.07,9.521,38.47,-11.28,-0.9602,-26.7,45.44,67.02,8.937,9.678,10.36,17.81,24.24,32.76,0,0,0,0,0,0,0,0,0,0,0,0,0,0,0,0,
373,10.99,13.82,13.98,10.96,21.56,-18.71,-11.16,-34.23,38.21,47.63,9.743,-1.017,2.938,2.648,12.96,25.61,0,0,0,0,0,0,0,0,0,0,0,0,0,0,0,0,
374,18.25,10.78,26.87,23.6,18.64,8.866,2.15,-23.91,56.07,16.76,26.07,14.6,23.14,18.41,19.81,33.09,0,0,0,0,0,0,0,0,0,0,0,0,0,0,0,0,
375,52.71,33.27,46.04,34.27,38.64,33.16,25.41,-15.69,77.37,22.02,33.09,33.65,44.54,37.76,39.43,52.4,0,0,0,0,0,0,0,0,0,0,0,0,0,0,0,0,
376,69.44,51.77,60.72,39.39,58.84,35.5,35.29,-18.63,73.69,46.83,34.76,41.73,47.64,39.59,57.5,66.92,0,0,0,0,0,0,0,0,0,0,0,0,0,0,0,0,
377,63.62,52.25,66.97,47.67,64.46,39.96,32.48,-13.39,62.5,63.67,46.67,49.91,48.76,45.29,73.68,73.03,0,0,0,0,0,0,0,0,0,0,0,0,0,0,0,0,
378,65.23,51.51,62.87,50.76,54.69,49.74,35.37,1.736,71.08,92.61,62.19,62.72,54.49,53.57,88.97,77.99,0,0,0,0,0,0,0,0,0,0,0,0,0,0,0,0,
379,85.51,61.54,67.74,52.28,56.86,61.74,49.16,9.07,81.58,96.37,68.85,71.64,55.95,47.22,92.88,80.89,0,0,0,0,0,0,0,0,0,0,0,0,0,0,0,0,
380,100.1,68.04,78.13,58.74,69.86,78,53.64,2.9,82.33,41.74,60.28,68.1,55.16,42.22,79.1,75.33,0,0,0,0,0,0,0,0,0,0,0,0,0,0,0,0,
381,86.8,58.72,68.02,54.89,62.51,77.13,46.54,-0.6727,85.34,7.776,37.65,51.08,49.83,44.14,51.65,60.04,0,0,0,0,0,0,0,0,0,0,0,0,0,0,0,0,
382,65.08,51.64,59.07,49.12,50.36,65.33,51.39,11.73,75.32,33.73,18.98,35.75,39.81,42.6,20.15,41.27,0,0,0,0,0,0,0,0,0,0,0,0,0,0,0,0,
383,62.43,57.93,74.96,60.41,61.23,75.08,63.01,24.88,57.45,60.74,23.84,41.32,43.52,48.77,5.023,33.53,0,0,0,0,0,0,0,0,0,0,0,0,0,0,0,0,
384,71.88,61.44,89.13,72.91,77.23,86.54,60.44,24.87,67.95,61.72,46.5,60.1,55.47,56.52,18.64,45.96,0,0,0,0,0,0,0,0,0,0,0,0,0,0,0,0,
385,74.72,55.98,87.05,71.82,67.32,73.37,50.35,21.28,89.33,55.42,61.59,68.42,51.5,48.54,40.34,65.26,0,0,0,0,0,0,0,0,0,0,0,0,0,0,0,0,
386,70.62,49.03,78.57,60.36,42.16,59.13,41.49,11.42,89.24,52.56,54.81,63.4,40.36,38.22,44.29,71.23,0,0,0,0,0,0,0,0,0,0,0,0,0,0,0,0,
387,68.6,42.2,69.77,46.83,48.66,58.34,33.81,-4.27,87.49,48.2,41.5,56.08,35.73,34.61,31.05,60.46,0,0,0,0,0,0,0,0,0,0,0,0,0,0,0,0,
388,66.65,36.93,73.12,47.48,81.54,59.37,33.47,-0.4324,93.67,40.9,44.8,50.35,30.74,30.94,13.01,41.44,0,0,0,0,0,0,0,0,0,0,0,0,0,0,0,0,
389,58.57,33.72,83.47,56.28,85.88,52.86,34.42,13.6,79.09,37.58,51.29,40.91,20.98,18.83,-2.322,22.35,0,0,0,0,0,0,0,0,0,0,0,0,0,0,0,0,
390,47.56,27.86,80.69,54.9,58.58,36.44,27.7,13.11,46.94,32.93,30.89,22.78,7.946,-3.486,-13.16,9.246,0,0,0,0,0,0,0,0,0,0,0,0,0,0,0,0,
391,39.28,24.28,76.61,56.61,30.99,29.53,26.92,18.32,35.95,33.19,5.079,13.39,6.925,-5.521,-17.08,7.782,0,0,0,0,0,0,0,0,0,0,0,0,0,0,0,0,
392,37.91,33.36,85.44,68.23,20.8,40.74,38.59,33.98,41.85,47.26,4.696,23.64,22.78,17.54,-10.76,16.85,0,0,0,0,0,0,0,0,0,0,0,0,0,0,0,0,
393,33.77,40.27,90.82,72.97,34.92,36.26,44.74,35.3,32.31,44.78,-3.474,19.51,22.5,19.4,-9.409,19.72,0,0,0,0,0,0,0,0,0,0,0,0,0,0,0,0,
394,12.27,26.37,82.45,68.1,44.53,14.27,36.19,22.91,15.03,30.5,-34.11,-4.025,8.687,9.611,-28.45,7.922,0,0,0,0,0,0,0,0,0,0,0,0,0,0,0,0,
395,-2.223,13.67,69.62,53.78,27.34,9.477,23.23,4.371,0.6745,40.61,-40.88,-3.735,19.45,24.85,-44.91,2.787,0,0,0,0,0,0,0,0,0,0,0,0,0,0,0,0,
396,6.216,15.79,65.03,42.03,8.05,4.539,13.75,-3.078,-18.22,40.05,-28.16,3.801,24.17,27.43,-41,10.49,0,0,0,0,0,0,0,0,0,0,0,0,0,0,0,0,
397,-4.183,2.628,65.72,55.22,-10.04,-22.14,4.358,16.16,-30.32,11.7,-39.57,-20.19,-12.72,-8.333,-41.14,2.299,0,0,0,0,0,0,0,0,0,0,0,0,0,0,0,0,
398,-36,-26.64,44.94,56.45,-40.26,-39.5,-12.79,18.84,-34.05,0.3107,-58.38,-39.38,-43.15,-36.2,-52.7,-22.46,0,0,0,0,0,0,0,0,0,0,0,0,0,0,0,0,
399,-44.36,-42.64,5.863,11.14,-55.18,-41.61,-35.61,-16.44,-35.24,-3.584,-55.22,-31.32,-43.68,-31.15,-52.75,-33.33,0,0,0,0,0,0,0,0,0,0,0,0,0,0,0,0,
400,-38.97,-50.83,-0.6637,-14.33,-33.56,-45.24,-44.91,-30.24,-17.42,-7.075,-36.1,-26.51,-48.74,-18.34,-39.35,-30.15,0,0,0,0,0,0,0,0,0,0,0,0,0,0,0,0,
401,-38.52,-59.5,29.73,15.5,-5.63,-39.72,-36.7,-10.02,7.275,11.47,-11.91,-25.04,-57.28,-19,-24.61,-29.62,0,0,0,0,0,0,0,0,0,0,0,0,0,0,0,0,
402,-31.96,-59.69,37.38,26.9,-4.466,-34.14,-35.99,-6.519,7.075,11.45,-9.062,-24,-56.73,-26.98,-16.65,-32.27,0,0,0,0,0,0,0,0,0,0,0,0,0,0,0,0,
403,-35.71,-55.05,11.2,2.513,-16.06,-40.92,-39.6,-12.03,-5.48,-0.4993,-33.99,-33.7,-51.92,-23.06,-22.7,-36.95,0,0,0,0,0,0,0,0,0,0,0,0,0,0,0,0,
404,-45.55,-37.39,3.839,4.658,-14.62,-30.61,-19.4,6.021,-6.359,27.7,-33.66,-24.91,-29.84,-7.176,-26.46,-34.38,0,0,0,0,0,0,0,0,0,0,0,0,0,0,0,0,
405,-24.75,-2.591,26.72,27.6,-7.59,-0.2558,4.989,23.68,0.3111,39.71,0.6798,8.884,-2.021,-0.9432,-5.377,-11.53,0,0,0,0,0,0,0,0,0,0,0,0,0,0,0,0,
406,5.489,15.42,37.99,31.31,-1.917,18.07,8.508,26.24,6.01,24.28,11.92,24.88,3.079,-2.131,24.07,15.84,0,0,0,0,0,0,0,0,0,0,0,0,0,0,0,0,
407,12.52,16.18,33.07,37.01,11.36,26.84,19.11,38.1,15.06,56.17,1.077,22.63,9.427,11.79,35.95,28.55,0,0,0,0,0,0,0,0,0,0,0,0,0,0,0,0,
408,14.52,32.04,47.57,57.87,21.63,36.12,40.92,49.31,26.68,71.94,3.905,26.03,27.03,26.29,31.94,32.71,0,0,0,0,0,0,0,0,0,0,0,0,0,0,0,0,
409,16.15,40.04,74.54,63.81,15.4,34.23,42.74,41.62,22.6,24.27,8.118,25.81,22.47,19.89,20.87,31.24,0,0,0,0,0,0,0,0,0,0,0,0,0,0,0,0,
410,10.14,21.91,81.84,60.17,7.199,30.98,37.27,41.01,6.088,19.79,5.34,20.45,11.38,19.2,11.51,24.96,0,0,0,0,0,0,0,0,0,0,0,0,0,0,0,0,
411,8.868,12.45,81.52,72.61,8.664,39.91,41.02,49.83,4.075,40.66,3.413,16.15,14.37,32.34,13.74,26.17,0,0,0,0,0,0,0,0,0,0,0,0,0,0,0,0,
412,1.942,4.178,87.07,82.37,7.145,38.27,32.06,43.45,8.384,5.097,-7.658,1.022,-3.843,25.2,19.27,28.47,0,0,0,0,0,0,0,0,0,0,0,0,0,0,0,0,
413,-21.29,-25.06,78.86,72.54,0.5784,16.08,13.24,35.98,1.926,-3.273,-20.97,-21.09,-43.59,3.005,11.17,12.24,0,0,0,0,0,0,0,0,0,0,0,0,0,0,0,0,
414,-40.02,-46.17,60.62,61.43,-2.31,-5.445,1.726,35.85,-4.127,29.25,-26.86,-37.4,-70.28,-12.2,-11.67,-19.2,0,0,0,0,0,0,0,0,0,0,0,0,0,0,0,0,
415,-54.2,-60.21,53.09,54.82,-13.02,-23.14,-14.01,28.86,-11.09,4.951,-40.34,-52.21,-85.77,-28.76,-39.72,-51.02,0,0,0,0,0,0,0,0,0,0,0,0,0,0,0,0,
416,-71.08,-82.65,48.45,45.24,-28.53,-36.96,-31.06,24.55,-21.94,-28.75,-55.2,-61.82,-90.41,-40.16,-62.1,-73.98,0,0,0,0,0,0,0,0,0,0,0,0,0,0,0,0,
417,-72.93,-81.21,39.17,35.24,-25.15,-34.59,-33.01,22.8,-27.35,-13.08,-58.82,-61.75,-76.39,-36.71,-70.43,-80.18,0,0,0,0,0,0,0,0,0,0,0,0,0,0,0,0,
418,-62.72,-55.34,43.58,31.55,-12.09,-25.43,-25.75,17.95,-29.99,2.414,-61.1,-60.48,-58.12,-29.33,-66.5,-69.35,0,0,0,0,0,0,0,0,0,0,0,0,0,0,0,0,
419,-54.86,-36.34,60.12,36.23,-8.04,-23.42,-19.03,23.61,-28.43,3.593,-57.9,-54.09,-39.92,-16.62,-56.58,-48.03,0,0,0,0,0,0,0,0,0,0,0,0,0,0,0,0,
420,-48.41,-27.05,49.85,27.88,-12.95,-32.35,-23.82,20.37,-30.03,0.0152,-50.35,-42.3,-19.3,1.548,-44.44,-23.32,0,0,0,0,0,0,0,0,0,0,0,0,0,0,0,0,
421,-48.28,-23.91,17.39,1.396,-26,-49.92,-36.39,1.825,-39.92,26.25,-55.25,-39,-4.686,18.51,-35.95,-5.289,0,0,0,0,0,0,0,0,0,0,0,0,0,0,0,0,
422,-48.99,-13.56,13.52,-1.35,-39.06,-53.86,-30.43,7.349,-33.59,89.33,-61.07,-41.59,1.284,35.75,-34.63,1.153,0,0,0,0,0,0,0,0,0,0,0,0,0,0,0,0,
423,-48.2,-1.773,19.01,10.45,-55.93,-49.95,-23.81,13.41,-38.21,55.51,-62.78,-46.51,-6.91,40.57,-37.41,-0.4102,0,0,0,0,0,0,0,0,0,0,0,0,0,0,0,0,
424,-63.46,-23.14,-2.61,-6.917,-80.65,-67.63,-42.31,-12.73,-80.45,-62.02,-74.18,-55.86,-23.67,29.02,-41.64,-6.044,0,0,0,0,0,0,0,0,0,0,0,0,0,0,0,0,
425,-74.74,-49.59,-7.253,-14.65,-83.97,-78.22,-47.42,-24.14,-82.68,-71.04,-77.55,-55.3,-27.29,19.82,-44.78,-10.5,0,0,0,0,0,0,0,0,0,0,0,0,0,0,0,0,
426,-59.22,-45.41,13.02,11.15,-67.54,-60.73,-31.57,-16.61,-37.03,-19.27,-63.78,-44.55,-24.88,13.9,-41.84,-9.83,0,0,0,0,0,0,0,0,0,0,0,0,0,0,0,0,
427,-47.24,-42.88,17.68,21.72,-58.41,-54.16,-31.92,-21.59,-31.53,-21.36,-53.76,-40.51,-29.17,11.82,-31.49,-5.129,0,0,0,0,0,0,0,0,0,0,0,0,0,0,0,0,
428,-50.15,-46.01,27.52,22.03,-48.04,-58.13,-35.12,-13.11,-46.09,-12.81,-51.22,-44.04,-31.62,14.88,-22.03,-1.037,0,0,0,0,0,0,0,0,0,0,0,0,0,0,0,0,
429,-51.93,-43.69,46.72,33.41,-45.23,-48.05,-33.76,-0.628,-37.98,-16.99,-57.04,-52.37,-37.35,-0.0156,-25.22,-6.147,0,0,0,0,0,0,0,0,0,0,0,0,0,0,0,0,
430,-53.52,-55.74,43.56,29.99,-54.51,-38.85,-48.58,-17.05,-37.11,-63.61,-60.6,-52.99,-41.95,-19.33,-34.16,-16.3,0,0,0,0,0,0,0,0,0,0,0,0,0,0,0,0,
431,-42.38,-57.48,42.65,23.95,-36.67,-28.76,-52.12,-24.78,-27.53,-56.49,-30.01,-25.05,-24.17,-3.935,-24.73,-11.5,0,0,0,0,0,0,0,0,0,0,0,0,0,0,0,0,
432,-10.31,-26.58,57.56,36.49,-5.214,1.348,-23.19,-6.58,6.376,-19.79,17.42,17.21,4.266,20.41,8.973,11.27,0,0,0,0,0,0,0,0,0,0,0,0,0,0,0,0,
433,24.75,3.231,65.42,45.98,3.02,38.72,7.052,5.594,32.84,-21.15,46.66,51.21,26.2,23.4,50.38,38.9,0,0,0,0,0,0,0,0,0,0,0,0,0,0,0,0,
434,56.88,23.33,76.18,52.2,11.23,61.4,22.61,11.58,54.39,-17.73,70.18,77.05,43.92,30.19,85.01,65.05,0,0,0,0,0,0,0,0,0,0,0,0,0,0,0,0,
435,76.08,42.36,90.49,63.75,29.56,67.64,34.8,20.85,65.8,5.362,85.48,86.55,50.66,42.34,102.8,81.12,0,0,0,0,0,0,0,0,0,0,0,0,0,0,0,0,
436,72.27,50.42,98.63,72.49,43.46,75.88,48.43,30.61,57.15,25.75,80.61,79.57,49.06,45.7,101,81.1,0,0,0,0,0,0,0,0,0,0,0,0,0,0,0,0,
437,71.9,53.16,119.8,87.23,55.69,91.73,57.71,41.27,67.51,22.49,81.95,74.76,52.66,58.91,90.03,74.95,0,0,0,0,0,0,0,0,0,0,0,0,0,0,0,0,
438,83.45,54.04,142.8,102.7,60.96,91.34,58.63,46.36,87.98,-12.32,88.77,70.52,53.7,67.63,79.58,70.76,0,0,0,0,0,0,0,0,0,0,0,0,0,0,0,0,
439,78.77,42.51,140.9,100.2,62.09,72.27,54.55,44.42,70.7,-26.96,72.37,53.33,39.18,38.16,67.68,64.35,0,0,0,0,0,0,0,0,0,0,0,0,0,0,0,0,
440,53.63,19.34,130.9,93.82,59.66,53.73,43.89,39.04,35.55,-22.7,45.21,27.48,15.36,4.819,48.74,48.87,0,0,0,0,0,0,0,0,0,0,0,0,0,0,0,0,
441,28.72,-1.783,126.1,96.03,38.18,37.89,35.91,35.34,17.59,-44.06,34.83,17.64,9.151,11.02,33.07,31.54,0,0,0,0,0,0,0,0,0,0,0,0,0,0,0,0,
442,22.86,1.127,124.3,99.65,26.53,30.38,46,42.97,20.19,-41.29,40.41,34.1,29.46,29.99,39.69,33.89,0,0,0,0,0,0,0,0,0,0,0,0,0,0,0,0,
443,27.55,16.03,125.2,98.81,35.95,26.72,46.2,43.77,32.84,-9.828,43,40.37,38.46,28.05,55.45,52.54,0,0,0,0,0,0,0,0,0,0,0,0,0,0,0,0,
444,12.29,5.372,114.1,87.33,18.28,7.834,20.22,26.12,29.07,-22.11,35.38,23.8,29.04,26.14,55.81,61.2,0,0,0,0,0,0,0,0,0,0,0,0,0,0,0,0,
445,-7.215,-7.764,92.43,76.53,-8.033,-5.957,10.05,21.41,10.14,-46.66,29.75,23.8,36.08,39.76,53.48,60.17,0,0,0,0,0,0,0,0,0,0,0,0,0,0,0,0,
446,-2.125,1.475,72.99,74.74,-6.305,-0.3834,16.24,29.15,-1.6,-40.03,22.41,31.59,41.5,38.97,56.67,58.97,0,0,0,0,0,0,0,0,0,0,0,0,0,0,0,0,
447,0.5681,-3.34,51.42,65.02,-16.42,-4.074,7.978,29.82,-16.05,-27.14,2.541,15,27.92,29.73,46.78,49.66,0,0,0,0,0,0,0,0,0,0,0,0,0,0,0,0,
448,-10.44,-14,40.73,54.98,-39.32,-17.79,6.877,39.31,-37.47,-3.56,-11.07,0.6916,30.93,47.97,29.48,39.17,0,0,0,0,0,0,0,0,0,0,0,0,0,0,0,0,
449,-14.94,-0.3502,45.7,58.11,-40.93,-25.89,15.25,47.56,-46.18,11.22,-6.356,4.77,40.9,60,22.08,40.2,0,0,0,0,0,0,0,0,0,0,0,0,0,0,0,0,
450,-17.68,3.896,43.58,59.58,-36.38,-30.5,5.823,40.99,-37.21,-9.918,-0.4644,5.95,27.93,35.75,18.92,41.48,0,0,0,0,0,0,0,0,0,0,0,0,0,0,0,0,
451,-19.36,-11.87,41.63,59.35,-32.55,-27.9,-4.4,45.12,-20.89,-19.57,-0.8189,0.473,12.84,15.88,13.93,31.49,0,0,0,0,0,0,0,0,0,0,0,0,0,0,0,0,
452,-16.7,-19.44,48.26,60.66,-26.75,-24.47,-3.503,51.93,-7.694,-15.35,3.345,-5.594,6.685,11.76,7.526,14.68,0,0,0,0,0,0,0,0,0,0,0,0,0,0,0,0,
453,-15.92,-18.19,51.6,61.38,-24.72,-24.15,-2.404,49.95,-6.195,-27.46,9.479,-8.352,4.472,10.16,0.5601,2.511,0,0,0,0,0,0,0,0,0,0,0,0,0,0,0,0,
454,-16.82,-14.25,56.18,70.87,-17.01,-21.98,1.826,60.72,-26.74,-20.73,-2.683,-13.53,5.862,16.15,-3.744,2.312,0,0,0,0,0,0,0,0,0,0,0,0,0,0,0,0,
455,-33.76,-20.54,51.8,68.19,-18.6,-37.86,-5.861,61.31,-54.87,-9.89,-26,-32.49,-6.76,9.173,-10.93,2.319,0,0,0,0,0,0,0,0,0,0,0,0,0,0,0,0,
456,-58.69,-43.76,31.34,41.59,-40.9,-64.28,-32.46,33.82,-57.38,-34.75,-32.16,-48.47,-26.24,-10.91,-24.48,-10.18,0,0,0,0,0,0,0,0,0,0,0,0,0,0,0,0,
457,-58.71,-53.5,23.03,32.78,-51.87,-65.89,-43.28,22.22,-53.01,-47.45,-30.59,-47.11,-23.93,-11.88,-32.95,-22.38,0,0,0,0,0,0,0,0,0,0,0,0,0,0,0,0,
458,-52.91,-41.08,28.13,46.38,-43.9,-56.32,-29.86,32.73,-65.97,-35.38,-35.41,-39.7,-8.565,-3.844,-28.66,-17.49,0,0,0,0,0,0,0,0,0,0,0,0,0,0,0,0,
459,-56.41,-31.6,26.3,47.67,-39.54,-55.05,-21.56,29.58,-69.79,-37.13,-35.8,-30.99,0.2628,0.7316,-16.45,-1.22,0,0,0,0,0,0,0,0,0,0,0,0,0,0,0,0,
460,-46.41,-31.98,24.66,44.23,-41.4,-50.27,-23.22,19.58,-67.03,-37.39,-37.46,-28.27,1.177,11.32,-8.795,7.494,0,0,0,0,0,0,0,0,0,0,0,0,0,0,0,0,
461,-34.62,-33.32,39.52,59.04,-34.47,-35.68,-11.21,26.26,-65.19,-37.7,-35.75,-29.59,1.375,14.24,-12.48,3.734,0,0,0,0,0,0,0,0,0,0,0,0,0,0,0,0,
462,-27.37,-23.57,66.4,82.76,-14.47,-11.41,20.29,45.63,-43.74,-51.67,-17.34,-13.42,12.12,8.023,-12.94,4.814,0,0,0,0,0,0,0,0,0,0,0,0,0,0,0,0,
463,-7.259,-2.518,78.41,95.21,0.1333,8.221,45.87,65.03,-31.16,-37.79,-8.076,6.871,24.35,9.294,-0.6786,16.99,0,0,0,0,0,0,0,0,0,0,0,0,0,0,0,0,
464,8.825,9.785,75.44,99.67,5.082,8.503,50.52,74.47,-37.03,-10.22,-13.44,7.825,20.02,10.41,7.795,21.14,0,0,0,0,0,0,0,0,0,0,0,0,0,0,0,0,
465,5.448,4.05,79.92,103.5,10.07,3.079,44.66,68.07,-17.64,-26.32,-7.264,4.975,7.967,4.803,5.271,10.67,0,0,0,0,0,0,0,0,0,0,0,0,0,0,0,0,
466,-6.419,-10.13,77.27,96.25,4.463,-3.323,33.77,55.25,1.59,-50.91,-0.3024,2.009,-2.474,-2.943,2.075,-1.984,0,0,0,0,0,0,0,0,0,0,0,0,0,0,0,0,
467,-17.35,-22.68,66.34,88.77,-5.179,-14.91,19.13,48.81,-15.2,-45.3,-3.747,-10.53,-14.05,-10.87,-3.592,-13.09,0,0,0,0,0,0,0,0,0,0,0,0,0,0,0,0,
468,-18.03,-28.94,71.85,95.09,3.86,-12.68,13.97,50.88,-18.36,-38.19,1.492,-10.4,-11.11,-4.671,-10.86,-17.54,0,0,0,0,0,0,0,0,0,0,0,0,0,0,0,0,
469,-8.774,-25.11,85.58,103,20.93,8.057,28.19,60.04,10.4,-29.35,13.4,7.417,12.16,14.45,-4.351,-5.773,0,0,0,0,0,0,0,0,0,0,0,0,0,0,0,0,
470,-2.959,-10.67,102.2,114.6,25.83,22.39,44,63.41,16.17,-11.77,8.985,8.786,25.12,18.84,8.681,9.199,0,0,0,0,0,0,0,0,0,0,0,0,0,0,0,0,
471,-6.06,-0.6105,108,117.2,20.16,21.25,39.2,54.4,-5.165,-5.543,-7.49,-4.931,20.28,13.15,7.356,10.68,0,0,0,0,0,0,0,0,0,0,0,0,0,0,0,0,
472,-10.88,-2.459,84.87,95.57,14.43,17.09,32.71,57.75,-9.835,0.3564,-9.526,-1.872,25.29,21.52,2.841,10.9,0,0,0,0,0,0,0,0,0,0,0,0,0,0,0,0,
473,-9.63,0.0967,79.86,93.91,8.046,13.46,44.76,74.37,-6.722,14.79,-0.0867,10.73,39.39,36.24,13.94,24.76,0,0,0,0,0,0,0,0,0,0,0,0,0,0,0,0,
474,-4.092,9.21,111.7,127.6,10.88,17.01,61.46,87.09,-8.427,24.68,2.339,15.68,42.07,42.83,30.11,42,0,0,0,0,0,0,0,0,0,0,0,0,0,0,0,0,
475,1.672,12.23,152,177.2,49.49,42.01,84.46,124.2,8.673,36.3,8.053,19.98,36,39.53,35.13,44.98,0,0,0,0,0,0,0,0,0,0,0,0,0,0,0,0,
476,11.29,18.25,219.6,252.7,102.9,78.72,119.4,183.2,31.52,52.68,24.54,28.76,41.06,38.63,32.27,36.31,0,0,0,0,0,0,0,0,0,0,0,0,0,0,0,0,
477,37.56,47.14,304.5,331.8,150,123.8,158.5,222.2,50.46,69.92,39.88,47.69,66.41,53.64,38.06,38.4,0,0,0,0,0,0,0,0,0,0,0,0,0,0,0,0,
478,75.16,84.79,400.2,436.3,215.6,183.6,213.7,274.7,76.72,86.27,41.2,62.47,82.48,58.02,53.15,54.13,0,0,0,0,0,0,0,0,0,0,0,0,0,0,0,0,
479,86.24,95.75,553.5,617.7,266.7,228,275.4,363.9,79.15,95.64,22.67,49.48,73.24,47.28,53.3,58.28,0,0,0,0,0,0,0,0,0,0,0,0,0,0,0,0,
480,81.89,99.78,690.1,749.5,296.2,264.9,325.5,431.8,71.02,110,11.31,43.33,77.15,64.17,37.97,47.82,0,0,0,0,0,0,0,0,0,0,0,0,0,0,0,0,
481,110.8,130.7,708.7,733.7,370.6,332.1,384.7,475.2,94.87,127.6,23.78,63.89,91.29,79.9,34.54,42.84,0,0,0,0,0,0,0,0,0,0,0,0,0,0,0,0,
482,140,150.9,686.1,703.8,431.9,379.3,434.8,520.4,112.8,133.4,36.46,74.36,88.52,67.62,43.38,45.95,0,0,0,0,0,0,0,0,0,0,0,0,0,0,0,0,
483,140.5,149.6,698.4,726.4,420.3,379.3,440,527.7,118.3,146.1,53.5,87.35,103.9,87.96,52.12,54.91,0,0,0,0,0,0,0,0,0,0,0,0,0,0,0,0,
484,153.5,168.6,709.5,730.6,417.9,383.4,430.4,497,136.8,157.6,67.96,109.9,126.7,108.4,60.3,66.69,0,0,0,0,0,0,0,0,0,0,0,0,0,0,0,0,
485,158.9,183.5,684,702.7,407.6,370.5,416,477.4,121.2,146.4,46.23,95.6,105.7,61.14,55.06,62.19,0,0,0,0,0,0,0,0,0,0,0,0,0,0,0,0,
486,134.2,171.8,613.2,642,339.8,323.4,378.5,453.8,84.88,145,34.41,75.92,90.44,35.53,39.44,45.41,0,0,0,0,0,0,0,0,0,0,0,0,0,0,0,0,
487,138.2,171.9,533.1,554.8,312.4,308.7,348.9,404.7,99.76,149.4,72.41,99.8,115.3,76.91,47.06,48.11,0,0,0,0,0,0,0,0,0,0,0,0,0,0,0,0,
488,168.3,177,491.4,495.7,333.6,320.1,337.8,365,134.4,124.3,96.73,114.9,119,94.09,73.84,67.02,0,0,0,0,0,0,0,0,0,0,0,0,0,0,0,0,
489,164.4,160.7,454.5,457.4,304.5,296.7,315.5,341.6,133,100.7,75.61,89.88,96.59,80.14,78.71,71.41,0,0,0,0,0,0,0,0,0,0,0,0,0,0,0,0,
490,131.5,145.1,387.2,395.4,246.4,246.7,283.2,305.4,106.7,111.3,52.8,69.06,93.59,83.63,57.91,61.1,0,0,0,0,0,0,0,0,0,0,0,0,0,0,0,0,
491,104.2,141.5,323.7,331.2,213.3,199.5,251.9,265.6,76.52,132.6,49.02,67.32,96.98,86.68,40.13,52.9,0,0,0,0,0,0,0,0,0,0,0,0,0,0,0,0,
492,89.26,133.1,278.1,285.3,190.7,165.2,220.7,240.8,55.7,125.6,35.45,57.27,81.17,78.61,32.62,44.59,0,0,0,0,0,0,0,0,0,0,0,0,0,0,0,0,
493,72.26,111.8,225,233.5,160.6,142.7,190.5,210.9,39.19,84.48,-6.362,31.76,56.87,65.54,20.63,28.21,0,0,0,0,0,0,0,0,0,0,0,0,0,0,0,0,
494,48.08,84.5,162.6,173.1,114.7,118.9,159.7,170.6,10.73,56.95,-27.26,18.63,41.19,39.32,1.783,9.159,0,0,0,0,0,0,0,0,0,0,0,0,0,0,0,0,
495,41.37,68.21,116.6,131,76.8,101.5,139.2,151.7,-2.923,60.06,4.373,32.9,41.32,22.58,-5.401,1.532,0,0,0,0,0,0,0,0,0,0,0,0,0,0,0,0,
496,54.41,69.72,98.77,107.4,88.75,103.1,136.8,152.9,29.32,60.89,29.32,47.78,50.87,40.28,9.567,12.18,0,0,0,0,0,0,0,0,0,0,0,0,0,0,0,0,
497,55.73,74.34,88.72,83.97,115.9,104.8,133.9,145.7,75.8,76.01,30.23,50.82,60.4,68.26,34.56,31.66,0,0,0,0,0,0,0,0,0,0,0,0,0,0,0,0,
498,51.52,75.03,72.73,64.88,111.8,101.6,130.9,141,104.2,109.5,68.26,72.97,75.99,76.89,63.87,54.68,0,0,0,0,0,0,0,0,0,0,0,0,0,0,0,0,
499,73.87,81.67,63.38,52.27,119,113,138.2,146.4,132.9,104.4,136.2,117.3,95.33,72.84,103.6,87.52,0,0,0,0,0,0,0,0,0,0,0,0,0,0,0,0,
500,106.7,84.03,54.48,26.87,146.6,125.6,126.9,130,157.5,67.13,155.9,130.7,90.1,68.86,132.9,112.1,0,0,0,0,0,0,0,0,0,0,0,0,0,0,0,0,
501,101.9,56.92,22.94,-18.54,120.4,103.7,81.65,84.79,133.8,40.01,103.7,86.41,51.07,51.47,113.8,92.83,0,0,0,0,0,0,0,0,0,0,0,0,0,0,0,0,
502,49.86,10.32,-33.95,-78.98,42.04,49.04,27.88,33.67,65.53,15.98,34.85,25.16,6.111,12.43,50.73,36.14,0,0,0,0,0,0,0,0,0,0,0,0,0,0,0,0,
503,-12.01,-25.83,-102.6,-142.3,-8.399,-5.043,-17.15,-6.564,8.353,0.6818,0.7163,-12.56,-22.7,-20.78,-7.234,-12.85,0,0,0,0,0,0,0,0,0,0,0,0,0,0,0,0,
504,-47.16,-43.75,-153.3,-180.4,-11.46,-34.29,-42.74,-21.04,-7.8,0.7123,-2.964,-23.61,-33.04,-26.42,-26.81,-28.03,0,0,0,0,0,0,0,0,0,0,0,0,0,0,0,0,
505,-51.53,-47.51,-164.5,-191.8,-3.554,-40.97,-44.26,-17.81,-2.205,-8.279,-4.2,-22.24,-35.02,-22.31,-19.88,-21.78,0,0,0,0,0,0,0,0,0,0,0,0,0,0,0,0,
506,-49.87,-47.33,-163.2,-206.6,-14.08,-47.87,-46.25,-25.78,-9.657,-21.24,-17.68,-31.71,-50.16,-34.36,-16.01,-21.2,0,0,0,0,0,0,0,0,0,0,0,0,0,0,0,0,
507,-63.34,-58.4,-181.6,-231.5,-42.22,-70.14,-67.07,-49.54,-33.53,-31.7,-29.8,-53.84,-76.92,-55.39,-26.72,-37.71,0,0,0,0,0,0,0,0,0,0,0,0,0,0,0,0,
508,-80.26,-77.73,-211.5,-255.2,-55.09,-92.6,-92.25,-73.96,-38.88,-52.27,-20.23,-62,-89.34,-61.57,-42.39,-58.53,0,0,0,0,0,0,0,0,0,0,0,0,0,0,0,0,
509,-82.43,-92.86,-229.8,-269.2,-50.32,-99,-104.3,-85.19,-25.23,-62.12,-20.65,-64.97,-92.72,-63.46,-55.46,-69.57,0,0,0,0,0,0,0,0,0,0,0,0,0,0,0,0,
510,-88.63,-103.6,-233.8,-269.9,-68.53,-106.5,-106.1,-83.03,-41.2,-56.35,-62.21,-89.57,-103.7,-74.33,-68.62,-71.94,0,0,0,0,0,0,0,0,0,0,0,0,0,0,0,0,
511,-115.3,-108.9,-241.2,-271.2,-100.4,-125.8,-109.1,-82.29,-75.48,-59.99,-93.25,-110.2,-105.3,-71.09,-78.85,-70.77,0,0,0,0,0,0,0,0,0,0,0,0,0,0,0,0,
512,-131.2,-107.2,-255.3,-279.1,-104.2,-134.5,-114.5,-84.42,-77.28,-63,-85.66,-109.3,-98.45,-63.62,-80.7,-68.4,0,0,0,0,0,0,0,0,0,0,0,0,0,0,0,0,
513,-124.2,-110.4,-261.6,-281.6,-98.86,-131.4,-121.8,-89.67,-73.92,-62,-86.95,-113.5,-101.4,-71.01,-81.54,-67.28,0,0,0,0,0,0,0,0,0,0,0,0,0,0,0,0,
514,-118.5,-113.4,-258.6,-276.5,-104.6,-130.1,-127.9,-105.4,-81.61,-71.63,-92.35,-110.8,-92.55,-56.17,-82.4,-64.14,0,0,0,0,0,0,0,0,0,0,0,0,0,0,0,0,
515,-104,-97.98,-252.5,-271.1,-95.94,-120,-124.2,-119.3,-64.05,-77.33,-73.19,-84.45,-75.28,-39.37,-72.32,-56.31,0,0,0,0,0,0,0,0,0,0,0,0,0,0,0,0,
516,-85.93,-90.25,-256.6,-276.8,-87.36,-110.6,-123,-127.5,-56.31,-77.11,-65.04,-70.33,-86.71,-72.97,-59.52,-54.08,0,0,0,0,0,0,0,0,0,0,0,0,0,0,0,0,
517,-91.76,-101.7,-267.9,-283.3,-93.6,-111.5,-126.8,-131.7,-71.86,-78.9,-69.63,-67.95,-95.68,-89.93,-56.45,-60.55,0,0,0,0,0,0,0,0,0,0,0,0,0,0,0,0,
518,-86.88,-92.93,-256.1,-265.6,-79.75,-101.5,-117,-121,-58.4,-69.41,-54.11,-56.38,-79.67,-57.33,-53.16,-63.77,0,0,0,0,0,0,0,0,0,0,0,0,0,0,0,0,
519,-68.9,-81.33,-241.2,-252.9,-68.19,-99.98,-115.8,-117.2,-55.25,-57.41,-46.62,-64.66,-86.88,-60.26,-49.43,-65.54,0,0,0,0,0,0,0,0,0,0,0,0,0,0,0,0,
520,-85.68,-97.23,-256.1,-269,-87.16,-118.3,-132.9,-129.1,-75.51,-57.35,-56.33,-85.84,-106.8,-89.59,-57.57,-75.18,0,0,0,0,0,0,0,0,0,0,0,0,0,0,0,0,
521,-98.12,-100.2,-259,-270.8,-82.27,-113.5,-133.2,-123.9,-46.26,-62.88,-50.4,-84.74,-104.5,-85.52,-68.36,-85.7,0,0,0,0,0,0,0,0,0,0,0,0,0,0,0,0,
522,-80.22,-93.54,-240,-256.4,-57.65,-98.72,-128.9,-119.1,-13.2,-72.85,-41.24,-79.28,-107.4,-83.87,-66.18,-86.62,0,0,0,0,0,0,0,0,0,0,0,0,0,0,0,0,
523,-78.99,-106.5,-237.6,-257.6,-63.29,-102.6,-137.3,-133.4,-25.25,-77.64,-37.01,-73.76,-109.5,-94.69,-50.51,-73.98,0,0,0,0,0,0,0,0,0,0,0,0,0,0,0,0,
524,-76.92,-106.7,-236.7,-258.8,-71.48,-98.14,-134.5,-136,-24.54,-79.37,-28.16,-60.46,-93.95,-84.67,-32.14,-54.66,0,0,0,0,0,0,0,0,0,0,0,0,0,0,0,0,
525,-64.75,-103.4,-235.1,-261.3,-78.76,-102,-140.1,-143.2,-31.82,-103.2,-37.35,-66.42,-94.38,-73.25,-29.01,-48.32,0,0,0,0,0,0,0,0,0,0,0,0,0,0,0,0,
526,-85.27,-125.2,-254,-275.9,-107.8,-129.3,-164.3,-169.9,-65.6,-125.3,-51.15,-76.55,-98.34,-69.25,-42.13,-54.91,0,0,0,0,0,0,0,0,0,0,0,0,0,0,0,0,
527,-99.84,-123.8,-256.6,-269.1,-106.8,-127,-159,-167.5,-55.44,-103.7,-37.4,-59.16,-75.45,-54.78,-49.7,-52,0,0,0,0,0,0,0,0,0,0,0,0,0,0,0,0,
528,-73.63,-86.63,-226.1,-237.6,-67.62,-97.55,-129.6,-134.9,-24.66,-67.91,-24.92,-40.8,-54.96,-39.83,-43.38,-39.09,0,0,0,0,0,0,0,0,0,0,0,0,0,0,0,0,
529,-57.75,-66.1,-207.3,-217.8,-56.94,-86.98,-118.3,-117.7,-26.73,-63.83,-25.07,-35.57,-49.38,-31.69,-33.01,-31.58,0,0,0,0,0,0,0,0,0,0,0,0,0,0,0,0,
530,-61.13,-68.5,-210.5,-215.4,-71.41,-84.43,-115.9,-119.9,-25.89,-75.3,-13.81,-29.36,-44.82,-28.49,-24.47,-30.1,0,0,0,0,0,0,0,0,0,0,0,0,0,0,0,0,
531,-59.77,-69.8,-209.3,-216.8,-72.58,-81.21,-112.3,-124.4,-17.93,-65.8,-8.949,-29.63,-47.15,-32.69,-20.92,-31.3,0,0,0,0,0,0,0,0,0,0,0,0,0,0,0,0,
532,-67.8,-67.77,-202.1,-219.1,-71.92,-91.05,-120.9,-125.6,-22.04,-49.28,-21.23,-33.18,-51,-34.95,-23.5,-33.74,0,0,0,0,0,0,0,0,0,0,0,0,0,0,0,0,
533,-77.13,-66.92,-202.5,-222.7,-75.71,-97.52,-129.8,-125.9,-19.03,-55.77,-20.38,-23.63,-46.45,-34.07,-25.17,-31.75,0,0,0,0,0,0,0,0,0,0,0,0,0,0,0,0,
534,-63.35,-62.48,-201.6,-219.1,-68.75,-86.64,-117.6,-119.5,-15.04,-57,-0.2168,-5.953,-37.67,-34.26,-17.46,-22.42,0,0,0,0,0,0,0,0,0,0,0,0,0,0,0,0,
535,-42.52,-44.43,-185.7,-199.7,-54.82,-72.66,-92.02,-95.82,-12.25,-27.74,20.88,13.05,-21.36,-23.08,2.627,-3.771,0,0,0,0,0,0,0,0,0,0,0,0,0,0,0,0,
536,-32.34,-21.47,-169.5,-180.1,-46.92,-63.64,-77.07,-77.32,4.695,-17.95,28.99,28.03,-3.865,-8.133,28.1,22.52,0,0,0,0,0,0,0,0,0,0,0,0,0,0,0,0,
537,-28.6,-13.95,-165.6,-177.9,-46.88,-58,-79.33,-85.69,-0.9627,-46.41,13.47,22.6,-2.338,-11.48,40.46,38.2,0,0,0,0,0,0,0,0,0,0,0,0,0,0,0,0,
538,-32.62,-16.54,-160.4,-175.8,-42.81,-53.83,-79.69,-90,-31.5,-54.25,-4.53,6.972,-5.831,-15.84,30.76,29.95,0,0,0,0,0,0,0,0,0,0,0,0,0,0,0,0,
539,-35.02,-11.87,-148.2,-160,-29.56,-44.64,-65.28,-73.26,-17.18,-34.14,7.249,14.01,2.008,-4.404,17.31,13.59,0,0,0,0,0,0,0,0,0,0,0,0,0,0,0,0,
540,-19.92,-0.9572,-142.5,-151.8,-25.99,-37.83,-54.41,-69.49,19.18,-26.65,23.46,33.36,6.205,-5.95,17.91,6.928,0,0,0,0,0,0,0,0,0,0,0,0,0,0,0,0,
541,-5.106,4.111,-148.4,-163.6,-34.22,-42.87,-61.16,-88.74,2.43,-24.6,17.17,35.57,-1.187,-23.79,25.08,6.912,0,0,0,0,0,0,0,0,0,0,0,0,0,0,0,0,
542,-7.366,-4.348,-153.9,-172.4,-37.44,-41.94,-68.21,-100.1,-23.05,-24.77,16.06,30.18,-2.689,-18.89,28.04,9.371,0,0,0,0,0,0,0,0,0,0,0,0,0,0,0,0,
543,-11.51,-18.13,-148.2,-160.5,-46.02,-33.46,-65.21,-91.67,-3.629,-35.38,19.9,25.05,3.691,1.78,25.82,15.1,0,0,0,0,0,0,0,0,0,0,0,0,0,0,0,0,
544,-13.16,-17.8,-135.9,-140.3,-52.22,-35.31,-58.11,-78.56,20.37,-23.36,13.08,19.87,13.57,8.208,19.71,20.87,0,0,0,0,0,0,0,0,0,0,0,0,0,0,0,0,
545,-11.52,0.0998,-120,-126.6,-24.27,-29.71,-45.76,-67.87,28.96,-0.2874,24.81,34.49,32.81,17.07,19.89,26.88,0,0,0,0,0,0,0,0,0,0,0,0,0,0,0,0,
546,4.554,15.18,-105.2,-119,0.6928,-13.86,-40.38,-61.58,29.54,-13.8,40.1,51.72,42.16,28.64,29.82,31.41,0,0,0,0,0,0,0,0,0,0,0,0,0,0,0,0,
547,13.01,9.777,-111.8,-120.1,-22.48,-21.37,-54.1,-68.29,13.65,-35.56,17.31,36.62,25.01,11.96,27.78,24.24,0,0,0,0,0,0,0,0,0,0,0,0,0,0,0,0,
548,-6.156,-7.69,-132,-129.6,-47.65,-38.21,-64.88,-81.36,-4.13,-34.93,-6.431,15.8,7.271,-12.92,6.38,8.39,0,0,0,0,0,0,0,0,0,0,0,0,0,0,0,0,
549,-21.47,-20.11,-132.5,-133.1,-42.07,-37.9,-65.7,-87.15,-19.32,-35.44,-5.221,11.77,1.212,-14.06,-9.756,-1.514,0,0,0,0,0,0,0,0,0,0,0,0,0,0,0,0,
550,-18.41,-32.82,-126.7,-129.6,-43.02,-44.43,-78.65,-93.09,-33.9,-42.71,-8.613,2.213,-9.346,-11.85,-11.56,-5.709,0,0,0,0,0,0,0,0,0,0,0,0,0,0,0,0,
551,-23.45,-51.11,-139.3,-134.1,-55.87,-63.94,-94.23,-96.23,-20.06,-40.89,-13.84,-11.03,-20.65,-17.77,-13.87,-11.19,0,0,0,0,0,0,0,0,0,0,0,0,0,0,0,0,
552,-40.12,-56.02,-151.6,-143.9,-56.49,-74.79,-96.07,-82.48,1.191,-14.04,-18.99,-18.84,-26.05,-15.65,-19.99,-16.75,0,0,0,0,0,0,0,0,0,0,0,0,0,0,0,0,
553,-54.8,-52.16,-159.7,-152.5,-57.97,-83.17,-104.9,-77.26,-13.07,10.42,-38.92,-35.27,-37.67,-19.09,-25.26,-24.12,0,0,0,0,0,0,0,0,0,0,0,0,0,0,0,0,
554,-66.94,-68.87,-172.9,-162.8,-71.44,-95.2,-125,-97.45,-36.24,-29.03,-52.71,-55.07,-54.83,-41.45,-34.58,-37.52,0,0,0,0,0,0,0,0,0,0,0,0,0,0,0,0,
555,-74.4,-92.96,-174.4,-169.3,-84.47,-101.5,-134.9,-111.2,-46.09,-89.01,-53.31,-61.3,-62.16,-55.14,-49.01,-51.05,0,0,0,0,0,0,0,0,0,0,0,0,0,0,0,0,
556,-75.89,-96.2,-168.7,-168.6,-91.72,-104.4,-135.1,-109.7,-48.86,-84.8,-55.85,-53.86,-56.02,-47.94,-55.81,-53.44,0,0,0,0,0,0,0,0,0,0,0,0,0,0,0,0,
557,-74.64,-83.36,-168.7,-159.5,-83.9,-99.9,-123.3,-99.65,-40.97,-49.88,-54.76,-42.01,-41.31,-33.41,-48.58,-42.9,0,0,0,0,0,0,0,0,0,0,0,0,0,0,0,0,
558,-72.36,-57.52,-161,-141.9,-68.68,-85.28,-93.8,-71.97,-45.58,-30.46,-57.35,-38.21,-23.79,-14.36,-40.67,-31.33,0,0,0,0,0,0,0,0,0,0,0,0,0,0,0,0,
559,-71.58,-31.04,-153.1,-136.9,-74.41,-80.48,-78.83,-53.96,-57.92,-20.19,-60.62,-35.84,-13.19,-9.335,-39.83,-27.95,0,0,0,0,0,0,0,0,0,0,0,0,0,0,0,0,
560,-63.6,-32.31,-155.8,-146.4,-80.8,-85.93,-90.25,-65.41,-41.38,-25.76,-42.48,-20.03,-9.026,-22.54,-32.16,-25.07,0,0,0,0,0,0,0,0,0,0,0,0,0,0,0,0,
561,-51.23,-46.25,-154.7,-148.1,-69.44,-85.11,-94.89,-75.24,-39.27,-34.57,-36.09,-11.47,-3.879,-17.44,-13.97,-15.03,0,0,0,0,0,0,0,0,0,0,0,0,0,0,0,0,
562,-60.07,-46.23,-152.4,-147.3,-73.06,-83.93,-87.77,-74.96,-69.85,-30.12,-55.55,-21.77,-4.676,-8.375,-3.299,-5.938,0,0,0,0,0,0,0,0,0,0,0,0,0,0,0,0,
563,-73.05,-43.15,-147.7,-145.1,-76.11,-79.19,-80.27,-69.35,-59.83,-25.04,-46.62,-22.79,-11.26,-22.67,-5.245,-4.931,0,0,0,0,0,0,0,0,0,0,0,0,0,0,0,0,
564,-59.14,-40.38,-132.9,-130.7,-53.65,-62.53,-69.03,-53.17,-22.54,-19.71,-24,-15.1,-9.653,-17.95,-9.05,-7.987,0,0,0,0,0,0,0,0,0,0,0,0,0,0,0,0,
565,-42.65,-30.1,-119.5,-117.3,-37.95,-43.53,-58.13,-40.75,-10.14,-17.08,-26.91,-12.4,-3.321,1.553,-10.28,-9.561,0,0,0,0,0,0,0,0,0,0,0,0,0,0,0,0,
566,-30.5,-18.22,-97.92,-104.1,-23.56,-19.58,-47.43,-31.2,7.851,-18.38,-13.78,0.924,-2.226,-14.06,-5.55,-6.292,0,0,0,0,0,0,0,0,0,0,0,0,0,0,0,0,
567,-10.46,-14.62,-80.24,-95.11,-10.42,-8.309,-45.95,-29.14,16.82,-15.2,5.369,7.38,-9.061,-31.98,2.885,-3.055,0,0,0,0,0,0,0,0,0,0,0,0,0,0,0,0,
568,-15.59,-27.79,-104.2,-114.3,-35.35,-33.9,-64.69,-53.14,-8.886,-25.59,-17.33,-14.57,-20.56,-17.97,0.1302,-9.374,0,0,0,0,0,0,0,0,0,0,0,0,0,0,0,0,
569,-35.32,-37.79,-124.8,-127.2,-52.19,-43.54,-67.55,-61.14,-7.823,-35.76,-26.47,-20.61,-17.53,-6.484,-9.114,-16.18,0,0,0,0,0,0,0,0,0,0,0,0,0,0,0,0,
570,-21.51,-19.13,-101.8,-104.2,-30.2,-10.76,-44.75,-38.14,10.69,-16.61,2.921,-2.567,-5.727,-16,-6.533,-10.71,0,0,0,0,0,0,0,0,0,0,0,0,0,0,0,0,
571,-8.387,-5.135,-87.56,-91.51,-28.79,-2.718,-42.98,-40.65,-11.86,-11.39,0.2745,-12.47,-14.49,-30.61,-6.766,-8.682,0,0,0,0,0,0,0,0,0,0,0,0,0,0,0,0,
572,-22.04,-19.05,-88.83,-97.53,-39.72,-20.91,-54.98,-55.69,-23.26,-28.11,-26.99,-31.17,-22.12,-32.35,-26.46,-22.34,0,0,0,0,0,0,0,0,0,0,0,0,0,0,0,0,
573,-13.96,-20.1,-74.63,-89.54,-28.16,-10.46,-48.23,-50.41,6.654,-17.33,-23.91,-13.39,-4.33,-21.71,-39.77,-30.28,0,0,0,0,0,0,0,0,0,0,0,0,0,0,0,0,
574,7.31,-0.9015,-70.57,-82.93,-23.99,3.523,-42.87,-54.63,11.43,-5.468,-14.33,6.484,6.239,-14.61,-27.48,-17.87,0,0,0,0,0,0,0,0,0,0,0,0,0,0,0,0,
575,-1.826,1.851,-77.85,-86.89,-24.25,-6.553,-48.35,-61.44,-13.97,-18.77,-21.03,2.291,-0.4081,-10.59,-8.888,-0.6461,0,0,0,0,0,0,0,0,0,0,0,0,0,0,0,0,
576,-12.53,-12.52,-68.39,-78.35,-14.9,-8.901,-50.34,-54.89,-17.4,-25.02,-17.37,0.2055,-6.779,-13.19,-0.4731,5.164,0,0,0,0,0,0,0,0,0,0,0,0,0,0,0,0,
577,-7.229,-28.39,-57.9,-64.22,-21.1,-4.327,-57.45,-62.15,-3.23,-35.34,-4.169,-1.501,-20.5,-25.86,-1.395,-1.158,0,0,0,0,0,0,0,0,0,0,0,0,0,0,0,0,
578,-16.69,-43.4,-56.02,-64.15,-29.59,-15.7,-70.36,-72.26,-0.3457,-52.18,-3.724,-12.06,-31.03,-21.59,-7.453,-11.68,0,0,0,0,0,0,0,0,0,0,0,0,0,0,0,0,
579,-28.29,-46.69,-48.2,-67.25,-19,-23.07,-69.32,-67.1,-1.034,-38.81,-12,-13.51,-20.28,-8.261,-12.11,-17.04,0,0,0,0,0,0,0,0,0,0,0,0,0,0,0,0,
580,-23.04,-37.21,-43.66,-61.53,-18.41,-17.56,-58.87,-69.33,2.504,-26.98,-22.37,-13.42,-12.86,-20.65,-13.67,-14.88,0,0,0,0,0,0,0,0,0,0,0,0,0,0,0,0,
581,-27.89,-35.02,-52.45,-61.4,-35.53,-27.43,-61.1,-75.09,-8.17,-50.51,-34.18,-25.12,-19.59,-33.83,-14.43,-9.071,0,0,0,0,0,0,0,0,0,0,0,0,0,0,0,0,
582,-43.65,-41.51,-63.15,-71.15,-40.83,-46.88,-70.08,-66.18,-25.51,-63.05,-33.58,-28.36,-18.12,-21.94,-11.24,-2.064,0,0,0,0,0,0,0,0,0,0,0,0,0,0,0,0,
583,-46.47,-40.09,-66.7,-69.16,-37.11,-46.82,-67.09,-58.22,-21.72,-47.28,-24.66,-25.06,-14.86,-13.88,-7.349,0.488,0,0,0,0,0,0,0,0,0,0,0,0,0,0,0,0,
584,-45.57,-35.96,-60.46,-57.45,-48.32,-44.81,-60.96,-61.45,-18.81,-38.6,-31.44,-39.72,-26.47,-25.88,-14.34,-11.29,0,0,0,0,0,0,0,0,0,0,0,0,0,0,0,0,
585,-58.59,-45.34,-53.69,-59.76,-67.32,-65.61,-65.88,-64.83,-43.68,-42.89,-46.53,-60.87,-38.51,-37.78,-30.7,-33.23,0,0,0,0,0,0,0,0,0,0,0,0,0,0,0,0,
586,-80.49,-62.36,-60.94,-66.55,-73.79,-83.42,-73.95,-67.7,-59.22,-44.58,-49.15,-66.42,-41.1,-32.67,-43.72,-47.03,0,0,0,0,0,0,0,0,0,0,0,0,0,0,0,0,
587,-86.56,-70.05,-68.39,-61.8,-74.21,-77.21,-76.03,-76.2,-46.12,-42.1,-49.88,-64,-46.47,-29.1,-51.19,-49.24,0,0,0,0,0,0,0,0,0,0,0,0,0,0,0,0,
588,-71.61,-66.51,-66.18,-63.48,-87.36,-71.15,-73.99,-80.73,-46.62,-43.34,-63.92,-68.86,-55.26,-46.72,-61.73,-53.95,0,0,0,0,0,0,0,0,0,0,0,0,0,0,0,0,
589,-68.1,-56.69,-71.78,-69.97,-98.04,-74.57,-66.08,-68.61,-56.96,-39.53,-75.51,-72.89,-49.07,-45.34,-73.81,-61.59,0,0,0,0,0,0,0,0,0,0,0,0,0,0,0,0,
590,-72.42,-37.86,-75.04,-56.32,-76.22,-66.17,-49.18,-49.82,-35.54,-16.8,-63.21,-59.74,-27.35,-8.708,-71.09,-56.81,0,0,0,0,0,0,0,0,0,0,0,0,0,0,0,0,
591,-57.73,-22.31,-67.46,-45.09,-51.4,-55.08,-40.05,-44.73,-18.74,-7.997,-46.39,-45.98,-19.76,-2.429,-51.03,-40.38,0,0,0,0,0,0,0,0,0,0,0,0,0,0,0,0,
592,-51.8,-29.77,-73.19,-60.05,-64.92,-62.42,-51.74,-53.17,-40.05,-28.33,-48.84,-49.28,-30.55,-28.84,-33.53,-29.5,0,0,0,0,0,0,0,0,0,0,0,0,0,0,0,0,
593,-65.28,-41.36,-79.94,-67.92,-86.82,-71.41,-61,-58.49,-51.48,-27.35,-47.56,-49.52,-31.75,-27.17,-28.07,-28.22,0,0,0,0,0,0,0,0,0,0,0,0,0,0,0,0,
594,-67.97,-36.94,-73.35,-60.16,-94,-70.67,-55.81,-56.73,-49.25,-12.06,-34.24,-41.81,-25.78,-15.74,-26.51,-26.66,0,0,0,0,0,0,0,0,0,0,0,0,0,0,0,0,
595,-66.31,-31.94,-70.46,-59.86,-93.12,-65.49,-51.94,-56.81,-55.58,-22.6,-29.32,-36.06,-20.99,-18.72,-22.26,-18.24,0,0,0,0,0,0,0,0,0,0,0,0,0,0,0,0,
596,-63.55,-25.69,-59.12,-55.07,-68.04,-51.52,-46.84,-59.37,-40.54,-27.79,-23.77,-24.28,-8.202,-12.73,-12.52,-3.72,0,0,0,0,0,0,0,0,0,0,0,0,0,0,0,0,
597,-53.39,-19.19,-52.97,-50.23,-53.02,-49.45,-47.43,-64.14,-30,-26.15,-21.42,-22.71,-9.573,-14.28,-4.988,4.826,0,0,0,0,0,0,0,0,0,0,0,0,0,0,0,0,
598,-55.86,-33.84,-73.98,-61.68,-74.86,-62.59,-64.82,-71.04,-47.87,-36.01,-33.38,-34.92,-24.67,-22.78,-11.56,-2.386,0,0,0,0,0,0,0,0,0,0,0,0,0,0,0,0,
599,-49.78,-38.82,-59.43,-53.15,-56,-38.92,-60.15,-64.63,-30.45,-17.06,-27.09,-23.4,-9.541,-2.911,-21.23,-9.881,0,0,0,0,0,0,0,0,0,0,0,0,0,0,0,0,
600,-15.5,-6.034,-10.96,-24.02,-6.075,5.636,-27.5,-49.52,-0.8246,1.328,-9.355,-4.213,14.44,14.22,-19.59,-2.114,0,0,0,0,0,0,0,0,0,0,0,0,0,0,0,0,
601,-0.7633,11.88,-18.67,-28.5,-19.97,4.061,-24.17,-57.56,-18.53,-37.68,-14.47,-10.38,5.618,1.704,-15.88,8.32,0,0,0,0,0,0,0,0,0,0,0,0,0,0,0,0,
602,-5.788,-5.012,-49.79,-51.06,-43.47,-10.82,-45.18,-76.66,-23.27,-65.32,-12.13,-10.19,-4.075,-4.961,-14.8,8.701,0,0,0,0,0,0,0,0,0,0,0,0,0,0,0,0,
603,10.28,-9.294,-38.69,-49.37,-19.24,6.172,-44.58,-71.02,-5.055,-35.31,3.598,5.506,4.489,-6.266,-7.725,4.459,0,0,0,0,0,0,0,0,0,0,0,0,0,0,0,0,
604,21.9,2.219,-34.34,-46.06,-20.78,12.02,-35.56,-60.36,-18.84,-14.76,-4.116,6.545,5.223,-22.67,1.014,-0.3247,0,0,0,0,0,0,0,0,0,0,0,0,0,0,0,0,
605,12.36,3.452,-54.2,-53.12,-42.4,-5.13,-35.39,-66.67,-23.99,-22.23,-10.88,0.2097,0.1701,-28.48,2.348,-5.602,0,0,0,0,0,0,0,0,0,0,0,0,0,0,0,0,
606,12.3,4.261,-57.37,-48.19,-34.38,-6.184,-27.69,-62.44,0.569,-11.96,2.048,0.6084,3.483,-14.24,-0.2039,-6.494,0,0,0,0,0,0,0,0,0,0,0,0,0,0,0,0,
607,19.67,13.24,-53.88,-42.15,-40.06,4.692,-15.72,-45.17,9.139,5.691,4.604,2.154,7.04,-10.31,-1.152,-1.98,0,0,0,0,0,0,0,0,0,0,0,0,0,0,0,0,
608,23.27,19.42,-55.05,-47.17,-46.51,9.554,-13.39,-45.55,12.41,0.232,9.852,8.876,8.547,-13.28,0.7687,1.192,0,0,0,0,0,0,0,0,0,0,0,0,0,0,0,0,
609,36.86,23.25,-45.13,-43.27,-3.098,16.85,-13.6,-57.06,23.98,-3.412,32.64,21.18,13.06,-2.947,7.807,1.316,0,0,0,0,0,0,0,0,0,0,0,0,0,0,0,0,
610,52.2,27,-39.42,-34.62,27.71,22.5,-12.17,-62.35,22.47,-0.6387,35.71,24.09,8.914,-6.835,16.16,1.398,0,0,0,0,0,0,0,0,0,0,0,0,0,0,0,0,
611,44.57,23.02,-48.59,-40.61,8.389,13.43,-15.25,-67.39,19.81,-15.75,17.4,11.77,-5.492,-28.25,12.78,-2.703,0,0,0,0,0,0,0,0,0,0,0,0,0,0,0,0,
612,25.85,19.27,-41.28,-37.99,-2.834,5.522,-12.25,-60.24,20.43,-12.87,11.18,0.4336,-4.748,-19.47,-1.702,-10.28,0,0,0,0,0,0,0,0,0,0,0,0,0,0,0,0,
613,28.89,29.63,-14.26,-11.44,1.122,14.11,7.034,-31.39,7.517,18.01,11.58,3.629,8.698,1.822,-6.848,-7.69,0,0,0,0,0,0,0,0,0,0,0,0,0,0,0,0,
614,41.98,38.85,-9.938,0.4489,-8.355,13.41,18.13,-12.59,2.657,21.57,4.126,5.437,3.784,-8.252,0.1972,2.965,0,0,0,0,0,0,0,0,0,0,0,0,0,0,0,0,
615,32.49,28.14,-26.32,-11.09,-17.57,-7.129,5.087,-19.32,15.23,3.319,-4.939,-7.368,-12.23,-18.18,-2.579,1.22,0,0,0,0,0,0,0,0,0,0,0,0,0,0,0,0,
616,19.55,11.87,-22.24,-4.602,-16.21,-11.45,-3.382,-26.83,11.97,-8.044,-10.84,-16.72,-13.03,-6.86,-18.54,-12.56,0,0,0,0,0,0,0,0,0,0,0,0,0,0,0,0,
617,24,8.693,-7.491,16.6,-11.6,1.182,4.271,-26.31,-1.369,-9.139,-12.98,-18.72,-10.67,-6.997,-30.81,-23.03,0,0,0,0,0,0,0,0,0,0,0,0,0,0,0,0,
618,17.7,6.689,-10.52,16.11,-12.17,-5.653,1.394,-30.4,0.5717,13.04,-17.45,-33.2,-27.16,-29.03,-39.78,-35.01,0,0,0,0,0,0,0,0,0,0,0,0,0,0,0,0,
619,-3.427,-10.69,-21.8,1.274,-25.87,-25.02,-13.99,-39.33,-1.133,13.37,-24.1,-47.94,-45.09,-45.25,-50.15,-51.88,0,0,0,0,0,0,0,0,0,0,0,0,0,0,0,0,
620,-8.018,-25.45,-32.85,-4.285,-37.76,-33.05,-21.05,-43.24,-6.311,-31.89,-19.44,-40.4,-39.75,-36.83,-48.44,-54.28,0,0,0,0,0,0,0,0,0,0,0,0,0,0,0,0,
621,3.439,-19.24,-44.46,-4.876,-40.38,-35.78,-22.87,-41.68,4.013,-43.88,-15.41,-33.53,-33.24,-30.56,-34.87,-41,0,0,0,0,0,0,0,0,0,0,0,0,0,0,0,0,
622,6.68,-16.51,-52.21,-13.32,-55.44,-39.94,-28.16,-42.2,-1.564,-17.62,-25.06,-40.57,-40.13,-35.71,-28.77,-33.98,0,0,0,0,0,0,0,0,0,0,0,0,0,0,0,0,
623,3.728,-22.09,-51.88,-19.28,-62.96,-38.3,-24.94,-39.19,-23.31,-3.822,-19.14,-26.97,-24.51,-14.27,-26.17,-29.24,0,0,0,0,0,0,0,0,0,0,0,0,0,0,0,0,
624,19.2,-2.063,-34.53,-4.654,-31.47,-24.79,-10.45,-26.61,-8.295,10.51,6.996,6.743,7.692,6.879,-10.96,-10.96,0,0,0,0,0,0,0,0,0,0,0,0,0,0,0,0,
625,45.72,24,-14.07,10.8,-6.281,-5.486,-2.368,-21.01,28.56,17.55,20.98,21.96,16.53,-8.426,9.157,8.727,0,0,0,0,0,0,0,0,0,0,0,0,0,0,0,0,
626,57.71,25.45,-8.429,9.434,-7.27,11.05,0.8354,-22.8,45.83,22.93,30.28,27.41,23.79,-2.134,23.2,18.43,0,0,0,0,0,0,0,0,0,0,0,0,0,0,0,0,
627,67.42,34.28,-0.0245,12.97,7.65,20.96,6.017,-16.82,47.74,46.78,42.21,36.24,35.87,21.49,30.06,23.55,0,0,0,0,0,0,0,0,0,0,0,0,0,0,0,0,
628,69.37,41.48,1.971,13.79,8.227,11.26,-6.082,-17.82,28,33.22,28.83,23.54,18.63,2.746,22.61,20.77,0,0,0,0,0,0,0,0,0,0,0,0,0,0,0,0,
629,45.13,18.25,-18.04,-2.372,-25.18,-7.656,-23.94,-26.22,5.622,0.0012,11.16,9.05,8.038,-7.952,6.593,12.22,0,0,0,0,0,0,0,0,0,0,0,0,0,0,0,0,
630,45.56,18.81,-21.88,-4.893,-22.89,2.507,-12.38,-18.54,18.37,16.24,26.84,27.32,32.42,14.53,5.478,14.5,0,0,0,0,0,0,0,0,0,0,0,0,0,0,0,0,
631,79.98,49.69,-6.266,5.088,3.422,29.19,6.483,-8.8,22.62,27.86,39.49,42.13,41.28,13.03,20.2,25.89,0,0,0,0,0,0,0,0,0,0,0,0,0,0,0,0,
632,80.16,49.79,2.072,6.706,2.653,36.84,8.388,-9.515,0.7875,14.07,21.44,29.7,29.14,8.64,28.76,29.72,0,0,0,0,0,0,0,0,0,0,0,0,0,0,0,0,
633,59.48,39.42,15.09,12.48,8.198,38.77,13.3,-10.08,11.15,17.07,6.751,16.89,21.47,20.02,21.7,20.48,0,0,0,0,0,0,0,0,0,0,0,0,0,0,0,0,
634,56.16,41,24.09,17.81,14.45,43.36,18.22,-17.18,23.94,8.638,5.276,4.56,0.5327,-1.284,7.138,3.021,0,0,0,0,0,0,0,0,0,0,0,0,0,0,0,0,
635,42.79,22.48,20.99,19.9,-1.702,38.59,14.23,-24.04,-4.116,-6.836,2.616,-9.423,-23.72,-34.05,-3.402,-11.56,0,0,0,0,0,0,0,0,0,0,0,0,0,0,0,0,
636,27.48,-0.2875,28.13,28.08,0.6595,30.05,11.22,-26.54,-11,-12.91,2.03,-12.9,-31.03,-38.15,-8.011,-18.12,0,0,0,0,0,0,0,0,0,0,0,0,0,0,0,0,
637,24.69,-8.988,25.44,18.87,5.437,15.82,0.9635,-44.43,4.458,-33.83,-1.897,-20.63,-39.42,-38.58,-14.41,-25.59,0,0,0,0,0,0,0,0,0,0,0,0,0,0,0,0,
638,9.006,-14.13,6.181,4.238,-16.74,1.421,-6.06,-47.76,-12.05,-22.12,-6.477,-28.98,-39.05,-37.85,-19.42,-30.52,0,0,0,0,0,0,0,0,0,0,0,0,0,0,0,0,
639,3.947,-1.817,12.28,24.27,-15.74,9.928,11.23,-13.78,-16.47,13.51,2.299,-17.96,-20.85,-26.25,-13.77,-19.92,0,0,0,0,0,0,0,0,0,0,0,0,0,0,0,0,
640,23.8,9.944,27.04,41.65,3.511,19.27,18.43,-4.308,7.843,-19.21,2.332,-16.23,-22.3,-28.39,-9.113,-8.234,0,0,0,0,0,0,0,0,0,0,0,0,0,0,0,0,
641,16.5,-9.898,8.346,16.71,-14.82,-3.231,-7.047,-37.95,-3.285,-57.79,-13.07,-34.25,-39.24,-39.98,-18.43,-13.74,0,0,0,0,0,0,0,0,0,0,0,0,0,0,0,0,
642,-8.779,-24.94,-13.58,-5.781,-39.35,-24.65,-23.73,-53.31,-25.06,-28.81,-6.051,-28.86,-31.16,-32.44,-24.4,-19.24,0,0,0,0,0,0,0,0,0,0,0,0,0,0,0,0,
643,1.889,-13.22,-2.41,5.946,-21.73,-11.39,-13.53,-38.75,-1.684,-17.56,20.35,1.575,-4.43,-7.138,-6.787,-3.44,0,0,0,0,0,0,0,0,0,0,0,0,0,0,0,0,
644,30,-1.117,17.59,21.62,8.922,16.29,1.409,-26.78,31.88,-22.99,46.4,32.3,28.31,26.6,30.4,30.8,0,0,0,0,0,0,0,0,0,0,0,0,0,0,0,0,
645,56.88,21.03,25.81,28.87,25.21,44.66,21.58,-16.2,59.66,27.28,91.86,73.87,71.95,64.9,78.12,75.43,0,0,0,0,0,0,0,0,0,0,0,0,0,0,0,0,
646,97.95,58.13,37.96,41.47,44.46,70.55,42.25,-7.286,101.7,52.92,136.5,110.3,95.25,86.5,123,116.3,0,0,0,0,0,0,0,0,0,0,0,0,0,0,0,0,
647,113.5,60.32,42.16,39.79,51.51,66.24,31.1,-22.4,113,5.914,124.1,95.81,70.14,71.16,131.6,122.9,0,0,0,0,0,0,0,0,0,0,0,0,0,0,0,0,
648,72.84,20.04,14.27,9.04,14.78,30.05,-3.983,-47.51,58.46,-12.36,60.74,39.45,24.98,30.49,82.54,78.09,0,0,0,0,0,0,0,0,0,0,0,0,0,0,0,0,
649,25.06,-11.31,-11.02,-11.63,-22.62,1.09,-23.16,-51.18,1.228,-1.347,4.788,-7.74,-6.138,-3.59,7.339,9.101,0,0,0,0,0,0,0,0,0,0,0,0,0,0,0,0,
650,5.609,-18.28,-0.8217,2.601,-13.14,-2.652,-22.11,-44.64,2.697,-25.51,3,-13.85,-11.72,-5.297,-34.21,-31.04,0,0,0,0,0,0,0,0,0,0,0,0,0,0,0,0,
651,9.393,-10.57,15.44,22.2,6.951,10.14,-11.45,-42.24,24.6,-26.41,32.37,7.745,4.065,15.29,-22.45,-21.06,0,0,0,0,0,0,0,0,0,0,0,0,0,0,0,0,
652,22.63,7.474,18.6,22.29,7.171,22.52,-0.3379,-39.68,13.75,1.256,26.46,14.57,10.12,14.58,3.495,5.559,0,0,0,0,0,0,0,0,0,0,0,0,0,0,0,0,
653,20.71,8.339,21.89,11.96,5.832,14.42,-7.428,-46.52,0.5279,-22.56,-2.789,2.255,-6.882,-10.84,7.094,12.06,0,0,0,0,0,0,0,0,0,0,0,0,0,0,0,0,
654,6.74,-14.53,15.86,1.778,3.134,-6.321,-25.63,-58.76,11.57,-51.99,-6.226,-2.207,-21.21,-21.23,-6.004,-0.7894,0,0,0,0,0,0,0,0,0,0,0,0,0,0,0,0,
655,-0.4785,-27.25,-5.032,-9.55,-4.953,-13.96,-32.9,-58.84,12.22,-33.18,0.4276,-3.145,-23.75,-15.82,-16.92,-15.24,0,0,0,0,0,0,0,0,0,0,0,0,0,0,0,0,
656,-4.044,-21.53,-8.449,-11.93,-4.691,-7.468,-28.68,-51.62,1.117,-14.8,9.689,-3.01,-17.7,-10.68,-12.42,-15.49,0,0,0,0,0,0,0,0,0,0,0,0,0,0,0,0,
657,3.464,-10.94,7.648,-2.762,-2.986,-4.33,-20.92,-46.4,-1.794,-7.078,22.62,2.333,-9.698,-7.101,5.622,-1.877,0,0,0,0,0,0,0,0,0,0,0,0,0,0,0,0,
658,16.09,-6.465,1.634,-9.314,-11.1,-15.36,-23.07,-51.12,-7.518,-8.177,2.079,-11.91,-21.7,-18.86,8.869,-0.772,0,0,0,0,0,0,0,0,0,0,0,0,0,0,0,0,
659,10.07,-16.24,-17.01,-22.78,-14.8,-26.66,-31.56,-58.62,-4.284,-28.8,-27.03,-30.99,-31.34,-28.01,-11.62,-18.45,0,0,0,0,0,0,0,0,0,0,0,0,0,0,0,0,
660,9.764,-17.55,-4.751,-2.997,-6.896,-14.94,-21.1,-43.3,11.83,-31.22,-13.94,-17.73,-10.65,-12.82,-23.93,-24.66,0,0,0,0,0,0,0,0,0,0,0,0,0,0,0,0,
661,29.09,-0.3147,15.62,21.49,-4.054,1.631,-9.242,-26.65,11,-18.28,1.821,-8.1,-4.507,-10.76,-18.83,-16.19,0,0,0,0,0,0,0,0,0,0,0,0,0,0,0,0,
662,29.16,-1.157,5.367,8.455,-11.01,-10.02,-21.48,-35.77,5.964,-14.87,-10.97,-27.65,-20.53,-18.38,-17.23,-14.56,0,0,0,0,0,0,0,0,0,0,0,0,0,0,0,0,
663,10.82,-18.78,-8.348,-6.936,-10.34,-31.04,-28.3,-37.61,6.701,-1.089,-22.96,-39.84,-15.81,-4.217,-21.01,-15.09,0,0,0,0,0,0,0,0,0,0,0,0,0,0,0,0,
664,3.479,-22.16,-1.693,-0.3309,-8.156,-33.57,-22.22,-31.11,-19.2,2.613,-31.55,-46.67,-19.17,-9.034,-26.91,-16.01,0,0,0,0,0,0,0,0,0,0,0,0,0,0,0,0,
665,-1.497,-26.53,0.6621,2.297,-23.9,-31.93,-27.63,-41.74,-45.84,-17.94,-43.24,-64.42,-46.99,-32.2,-41,-31.77,0,0,0,0,0,0,0,0,0,0,0,0,0,0,0,0,
666,-8.229,-39.32,-6.83,1.957,-34.86,-35.11,-29.92,-41.42,-26.91,-24.88,-43.43,-66.56,-52.58,-25.24,-54.53,-50.91,0,0,0,0,0,0,0,0,0,0,0,0,0,0,0,0,
667,-3.016,-38.6,-5.785,7.151,-29.78,-32.21,-20.91,-28.3,-4.546,-16.97,-33.65,-50.04,-44.42,-19.35,-53.63,-53.73,0,0,0,0,0,0,0,0,0,0,0,0,0,0,0,0,
668,6.672,-30.8,-1.413,5.629,-35.58,-26.08,-16.17,-29.43,-13.51,1.068,-19.38,-33.6,-41.29,-26.6,-35.98,-40.53,0,0,0,0,0,0,0,0,0,0,0,0,0,0,0,0,
669,16.6,-21.49,2.082,10.47,-34.01,-17.07,-3.833,-24.12,-10.13,16.83,-0.7083,-13.99,-22.01,-8.178,-7.342,-16.05,0,0,0,0,0,0,0,0,0,0,0,0,0,0,0,0,
670,35.09,-6.014,11.78,25.79,-12.5,-3.288,10.51,-18.23,5,-9.16,6.235,-2.571,-13.05,0.4749,11.82,3.082,0,0,0,0,0,0,0,0,0,0,0,0,0,0,0,0,
671,43.9,-8.541,12.36,18.92,-17.18,-4.402,-4.873,-42.99,-15.89,-39.58,-4.815,-14.34,-36.28,-29.46,2.418,-4.609,0,0,0,0,0,0,0,0,0,0,0,0,0,0,0,0,
672,28.18,-29.56,-4.245,-3.181,-39.86,-21.24,-30.08,-63.47,-43.97,-33.13,-14.72,-27.17,-48.83,-45.19,-20.82,-27.86,0,0,0,0,0,0,0,0,0,0,0,0,0,0,0,0,
673,15.97,-32.41,-12.71,-4.484,-43.44,-24.5,-29.27,-51.22,-34.41,-28.79,-14.73,-22.05,-36.27,-26.62,-27.5,-38.14,0,0,0,0,0,0,0,0,0,0,0,0,0,0,0,0,T2
674,25.62,-17.91,-0.805,8.933,-41.49,-10.63,-17.11,-36.45,-11.71,-27.73,-9.028,-6.7,-19.53,-6.391,-12.15,-27.09,0,0,0,0,0,0,0,0,0,0,0,0,0,0,0,0,
675,40.45,-7.38,13.81,18.84,-19.43,4.307,-9.923,-31.3,1.074,-14.21,2.241,9.98,-2.191,2.758,6.521,-5.615,0,0,0,0,0,0,0,0,0,0,0,0,0,0,0,0,
676,48.38,3.184,18.06,24.62,24.02,13.34,-1.689,-26.45,1.643,-7.361,7.309,17.42,7.014,9.271,12.25,8.448,0,0,0,0,0,0,0,0,0,0,0,0,0,0,0,0,
677,43.24,10.56,15.55,24.23,20.7,5.202,-1.971,-27.73,-8.777,0.2181,-0.738,10.2,1.121,10.09,5.242,5.754,0,0,0,0,0,0,0,0,0,0,0,0,0,0,0,0,
678,26.86,4.965,11.53,20.55,-17.23,-10.12,-13.44,-34.41,-8.164,4.522,-0.4727,2.898,-4.921,-1.095,-3.663,-4.639,0,0,0,0,0,0,0,0,0,0,0,0,0,0,0,0,
679,21.39,1.668,9.62,23.34,-13.94,-1.494,-12.61,-31.67,3.547,-2.322,10.28,4.339,-3.043,-3.389,-7.509,-11.39,0,0,0,0,0,0,0,0,0,0,0,0,0,0,0,0,
680,31.09,8.691,17.94,36.31,11.42,16.7,1.505,-18.3,11.6,4.665,14.53,12.08,3.221,14.22,-5.116,-10.47,0,0,0,0,0,0,0,0,0,0,0,0,0,0,0,0,
681,45.77,12.66,40.16,53.83,21.21,22.1,11.45,-10.21,34.32,8.958,33.44,35.95,18.43,26.95,10.72,5.342,0,0,0,0,0,0,0,0,0,0,0,0,0,0,0,0,
682,75.92,21.67,67.51,66.36,39.32,39.88,21.05,-9.642,64.42,-1.35,69.11,67,39.58,33.18,42.21,35.97,0,0,0,0,0,0,0,0,0,0,0,0,0,0,0,0,
683,101.4,39.96,81.15,72.87,58.27,58.21,26.53,-5.484,60.14,8.706,68.56,66.15,41.58,37.39,64.55,56.44,0,0,0,0,0,0,0,0,0,0,0,0,0,0,0,0,
684,82.03,37.88,72.63,79.58,51.98,41.11,21.69,2.13,36.74,20.95,39.95,39.87,21.51,23.78,55.72,46.92,0,0,0,0,0,0,0,0,0,0,0,0,0,0,0,0,
685,54.55,23.25,63.26,84.77,41.99,24.5,26.21,9.337,40.8,12.97,40.48,31.18,13.39,18.08,32.25,24.77,0,0,0,0,0,0,0,0,0,0,0,0,0,0,0,0,
686,58.74,30.72,60.37,77.92,34.27,27.93,30.73,9.779,48.89,22.28,47.4,30.88,19.43,33.91,15.82,13.42,0,0,0,0,0,0,0,0,0,0,0,0,0,0,0,0,
687,56.11,41.88,45.94,62.3,17.13,18.7,15.6,-3.96,22.39,38.4,29.14,21.25,14.44,27.94,7.316,13.18,0,0,0,0,0,0,0,0,0,0,0,0,0,0,0,0,
688,45.03,38.91,33.59,53.13,15.76,13.05,9.184,-20.99,6.948,17.13,23.55,26.67,10.59,11.49,8.75,18.34,0,0,0,0,0,0,0,0,0,0,0,0,0,0,0,0,
689,60,39.07,35.13,44.56,30.12,25.37,16.41,-27.69,37.57,-4.29,37.95,42.81,20.47,20.31,20.53,24.99,0,0,0,0,0,0,0,0,0,0,0,0,0,0,0,0,
690,73.73,43.64,35.1,37.32,36.48,31.57,16.52,-21.61,63.33,16.83,47.78,46.12,26.01,23.53,31.87,28.13,0,0,0,0,0,0,0,0,0,0,0,0,0,0,0,0,
691,67.25,49.26,40.61,51.32,48.44,36.22,21.68,-11.18,57.93,24.38,53.42,41.85,21.55,12.08,33.37,26.16,0,0,0,0,0,0,0,0,0,0,0,0,0,0,0,0,
692,58.15,47.86,46.58,60.83,53.67,36.56,22.06,-15.05,44.54,-13.82,41.52,27.3,13.18,13.25,17.79,16.4,0,0,0,0,0,0,0,0,0,0,0,0,0,0,0,0,
693,47.36,30.03,35.55,40.72,32.77,26.35,6.737,-25.25,33.18,-28.03,22.33,11.04,6.472,14.74,-9.125,1.624,0,0,0,0,0,0,0,0,0,0,0,0,0,0,0,0,
694,47.56,22.03,29.42,28.94,30,30.81,5.998,-21.77,29.44,-7.542,34.51,20.04,9.404,8.418,-22.38,-4.045,0,0,0,0,0,0,0,0,0,0,0,0,0,0,0,0,
695,62.14,32.56,39.45,42.1,58.98,42.23,14.89,-14.24,29.07,-9.662,46.86,35.17,16.8,10.23,-14.01,2.907,0,0,0,0,0,0,0,0,0,0,0,0,0,0,0,0,
696,67.86,38.15,57.95,57.84,78.64,43.36,15.11,-7.666,27.51,-15.42,29.81,32.3,18.78,11.41,-2.532,9.827,0,0,0,0,0,0,0,0,0,0,0,0,0,0,0,0,
697,68.97,36.57,74.24,61.26,71.97,44.42,16.63,-5.502,34.6,-10.39,20.02,22.5,8.626,-2.284,-2.983,5.703,0,0,0,0,0,0,0,0,0,0,0,0,0,0,0,0,
698,66.42,23.41,60.56,45.6,47.91,38.13,10.24,-18.04,30.64,-22.15,14.56,5.995,-11.23,-14.98,-17.51,-10.99,0,0,0,0,0,0,0,0,0,0,0,0,0,0,0,0,
699,45.99,4.542,38.04,35.38,39.57,27.33,-2.027,-23.49,2.285,-17.53,0.7364,-9.9,-17.28,-5.546,-33.8,-28,0,0,0,0,0,0,0,0,0,0,0,0,0,0,0,0,
700,24.28,3.48,39.15,42.72,52.49,23.32,-4.412,-15.67,-16.35,0.2174,2.469,-12.47,-13.34,3.161,-38.02,-32.95,0,0,0,0,0,0,0,0,0,0,0,0,0,0,0,0,
701,16.15,4.936,35.36,40.44,42.56,18.42,-4.05,-13.59,-10.25,-11.71,-1.028,-16.29,-24.36,-18.15,-36.83,-32.58,0,0,0,0,0,0,0,0,0,0,0,0,0,0,0,0,
702,20.26,4.488,30.8,39.58,24.61,22,6.774,-3.564,-2.473,-2.478,-17.05,-16.83,-25.02,-28.95,-35.07,-32.23,0,0,0,0,0,0,0,0,0,0,0,0,0,0,0,0,
703,30.88,20.22,43.07,51.94,30.77,24.36,21.36,12.99,-9.663,31.67,-9.735,-4.558,-4.464,-3.492,-24.81,-24.7,0,0,0,0,0,0,0,0,0,0,0,0,0,0,0,0,
704,29.36,27.28,41.4,53.74,28.13,8.653,15.73,13.68,-13.23,17.03,-0.9714,2.842,0.2146,7.546,-10.72,-12.59,0,0,0,0,0,0,0,0,0,0,0,0,0,0,0,0,
705,27.16,27.56,31,49.33,14.42,13.2,16.66,6.534,11.4,-6.934,0.2578,18.83,7.863,6.528,5.78,0.7679,0,0,0,0,0,0,0,0,0,0,0,0,0,0,0,0,
706,49.38,51.13,25.53,42.02,7.313,32.64,29.4,-2.2,27.88,9.041,23.53,45.79,37.66,25.34,29.81,18.73,0,0,0,0,0,0,0,0,0,0,0,0,0,0,0,0,
707,65.52,61.7,16.63,37.76,-8.468,18.24,22.39,2.031,1.897,19.39,23.1,34.59,36.92,16.23,37.92,26.35,0,0,0,0,0,0,0,0,0,0,0,0,0,0,0,0,
708,49.71,42.53,32.66,68.3,-13.77,6.399,26.02,40.64,-24.7,15.97,-14.07,6.437,19.1,-14.41,16.1,14.66,0,0,0,0,0,0,0,0,0,0,0,0,0,0,0,0,
709,37.99,45.17,59.34,101.2,-3.991,26.17,55.74,74.57,-29.89,13.94,-12.3,24.2,45.71,8.659,-0.7626,11.6,0,0,0,0,0,0,0,0,0,0,0,0,0,0,0,0,
710,49.41,69.35,41.36,90.7,-24.1,25.7,63.88,71.93,-34.7,12.83,15.12,52.93,78.11,52.33,10.84,32.73,0,0,0,0,0,0,0,0,0,0,0,0,0,0,0,0,
711,55.61,76.09,7.298,79.5,-55.89,4.921,55.64,72.81,-32.85,36.32,14.41,53.18,79.15,59.91,36.04,56.94,0,0,0,0,0,0,0,0,0,0,0,0,0,0,0,0,
712,49.37,73.96,0.1132,92.33,-54.93,2.611,60.17,85.77,-23.5,57.97,16.4,55.22,81.75,59.33,58.93,68.97,0,0,0,0,0,0,0,0,0,0,0,0,0,0,0,0,
713,44.96,73.16,1.025,92.31,-48.85,-2.679,54.9,75.42,-20.12,45.37,25.85,53.11,75.27,57.3,63.75,64.85,0,0,0,0,0,0,0,0,0,0,0,0,0,0,0,0,
714,36.45,64.42,1.393,79.04,-56.3,-18.94,38.59,62.13,-21.67,49.03,9.305,28.03,48.92,45.87,42.87,43.56,0,0,0,0,0,0,0,0,0,0,0,0,0,0,0,0,
715,22.35,55.85,1.55,73.03,-52.6,-16.97,34.51,73.26,-31.99,54.54,-9.84,8.162,34.57,36.71,15.5,18.82,0,0,0,0,0,0,0,0,0,0,0,0,0,0,0,0,
716,9.88,42.92,-10.95,63.4,-45.09,-12.65,28.05,75.66,-37.76,12.27,-10.48,-5.256,14.31,12.46,-6.082,-3.389,0,0,0,0,0,0,0,0,0,0,0,0,0,0,0,0,
717,-9.815,16.82,-20.34,50.58,-48.34,-25.25,11.15,61.34,-27.21,0.0456,-16.1,-31.29,-25.94,-16.27,-30.1,-32.9,0,0,0,0,0,0,0,0,0,0,0,0,0,0,0,0,
718,-34.43,-0.9736,-14.61,49.74,-54.44,-37,-0.2207,59.44,-34.08,32.02,-38.54,-57.24,-52.5,-23.93,-55.71,-65.12,0,0,0,0,0,0,0,0,0,0,0,0,0,0,0,0,
719,-51.65,-13.23,-14.02,50.74,-65.47,-47.33,-8.435,59.43,-59.09,20.48,-64.31,-75.33,-71.9,-40.43,-75.51,-89.98,0,0,0,0,0,0,0,0,0,0,0,0,0,0,0,0,
720,-64.9,-35.01,-16.25,47.28,-69.55,-58.64,-14.55,52.54,-71.6,24.36,-75.39,-84.43,-90.73,-57.98,-87.25,-107,0,0,0,0,0,0,0,0,0,0,0,0,0,0,0,0,
721,-70.22,-40.81,-7.422,50.01,-57.16,-59.78,-12.48,54.04,-84.61,74.43,-67.19,-77.01,-85.33,-47.28,-87.22,-109.8,0,0,0,0,0,0,0,0,0,0,0,0,0,0,0,0,
722,-60.85,-31.64,2.357,56.76,-52.58,-51.8,-10.16,54.09,-84.48,37.53,-51.88,-63.3,-75.07,-51.88,-74.51,-96.55,0,0,0,0,0,0,0,0,0,0,0,0,0,0,0,0,
723,-46.4,-33.4,10.67,65.26,-50.79,-31.36,-7.119,51.35,-44.52,-47.29,-34.48,-46.6,-67.77,-67.3,-52.1,-76.83,0,0,0,0,0,0,0,0,0,0,0,0,0,0,0,0,
724,-25.9,-23.92,18.38,74.2,-38.81,-5.901,4.935,62.42,-11.76,-29.2,-10.3,-12.93,-30.1,-35.6,-19.74,-46.85,0,0,0,0,0,0,0,0,0,0,0,0,0,0,0,0,
725,2.958,6.953,21.96,77.43,-37.93,0.0305,20.26,75.37,-13.92,23.4,7.165,22.85,16.96,0.545,17.96,-2.043,0,0,0,0,0,0,0,0,0,0,0,0,0,0,0,0,
726,17.78,26.62,29.69,81.9,-39.44,-3.885,29.15,76.34,-26.29,17.11,4.346,36.69,37,-0.8051,44.79,38.07,0,0,0,0,0,0,0,0,0,0,0,0,0,0,0,0,
727,21.28,39.9,38.77,91.68,-29.16,9.213,35.81,79.15,-31.98,23.59,11.48,49.62,56.68,17.01,54.36,59.27,0,0,0,0,0,0,0,0,0,0,0,0,0,0,0,0,
728,46.7,73.16,49.29,105.2,-20.39,36.01,54.81,96.28,-9.9,66.04,38.85,73.93,85.33,52.79,60.09,69.52,0,0,0,0,0,0,0,0,0,0,0,0,0,0,0,0,
729,69.33,100.7,64.92,117.7,-10.84,48.92,74.17,112.2,9.657,69.58,28.63,67.38,83.04,46.6,61.71,67.89,0,0,0,0,0,0,0,0,0,0,0,0,0,0,0,0,
730,47.96,88.96,61.55,111.5,-12.89,34.79,66.77,105.2,-20.98,31.88,-16.34,28.98,53.28,24.17,42.19,46.73,0,0,0,0,0,0,0,0,0,0,0,0,0,0,0,0,
731,23.41,61.32,46.85,98.75,-34.34,18.33,47.63,88.41,-45.69,13.78,-29.6,6.444,30.3,23.04,8.027,16.07,0,0,0,0,0,0,0,0,0,0,0,0,0,0,0,0,
732,17.17,39.03,50.96,102.7,-42.83,7.176,35.79,81.46,-38.53,19.67,-35.73,-13.64,7.139,13.58,-22.7,-12.29,0,0,0,0,0,0,0,0,0,0,0,0,0,0,0,0,
733,-11.1,9.764,52.19,105.7,-41.04,-16.31,21.31,79.42,-57.16,19.53,-64.51,-45.54,-17.62,-2.527,-46.52,-33.24,0,0,0,0,0,0,0,0,0,0,0,0,0,0,0,0,
734,-40.47,-10.9,41.39,103.6,-49.58,-34.28,12.43,80.85,-77.72,16.46,-65.08,-52.42,-26.6,-0.455,-58.3,-41.02,0,0,0,0,0,0,0,0,0,0,0,0,0,0,0,0,
735,-43.72,-15.78,35.23,103.3,-63.28,-40.25,11.53,82.89,-69.45,13.44,-50.26,-50.36,-36.98,-3.872,-59.86,-43.96,0,0,0,0,0,0,0,0,0,0,0,0,0,0,0,0,
736,-52.87,-32.68,23.48,87.97,-87.04,-50.91,1.231,73.46,-71.26,-0.3929,-58.95,-59.77,-47.47,-16.72,-61.51,-49.58,0,0,0,0,0,0,0,0,0,0,0,0,0,0,0,0,
737,-54.07,-39.05,21.31,79.09,-94.89,-39.41,-2.127,61.95,-66.59,-11.89,-53.57,-43.41,-29.92,-12.16,-53.75,-43.49,0,0,0,0,0,0,0,0,0,0,0,0,0,0,0,0,
738,-25.45,-7.985,45.99,100.7,-55.13,-1.604,16.67,61.53,-34.78,-6.591,-31.84,-15.25,-9.095,-2.104,-33.1,-26.01,0,0,0,0,0,0,0,0,0,0,0,0,0,0,0,0,
739,-2.674,17.64,65.06,117.3,-14.25,20.31,37.34,65.3,-18.42,4.146,-20.28,-6.024,-4.535,4.17,-16.64,-15.07,0,0,0,0,0,0,0,0,0,0,0,0,0,0,0,0,
740,10.22,20.43,73.49,117.8,-3.592,31.57,50.94,68.65,-17.87,12.49,1.403,11.17,12.39,19.68,-2.381,-4.831,0,0,0,0,0,0,0,0,0,0,0,0,0,0,0,0,
741,27.91,30.67,90.23,124.1,3.09,47.16,60.43,72.83,-4.224,30.8,21.34,30.87,33.28,32.66,15.95,12.82,0,0,0,0,0,0,0,0,0,0,0,0,0,0,0,0,
742,34.47,46.81,96.6,125.1,3.514,45.1,62.79,74.19,13.67,54.58,18.62,30,34,36.71,25.77,24.38,0,0,0,0,0,0,0,0,0,0,0,0,0,0,0,0,
743,33.62,50.34,83.02,113.2,-3.21,30.3,57.53,68.47,20.92,40.46,18.46,26.12,26.53,36.08,25.62,24.07,0,0,0,0,0,0,0,0,0,0,0,0,0,0,0,0,
744,30.03,39.77,63.79,99.17,-4.548,19.52,40.94,55.31,10.5,-13.97,15.89,16.59,13.68,18.23,21.61,16.55,0,0,0,0,0,0,0,0,0,0,0,0,0,0,0,0,
745,11.78,23.95,41.29,80.78,-17.74,4.189,20.89,44.4,-3.405,-28.82,4.929,0.6292,-0.1761,0.3409,14.61,6.013,0,0,0,0,0,0,0,0,0,0,0,0,0,0,0,0,
746,-0.3938,17.97,26.49,66.82,-27.01,-7.902,15.99,45.03,6.558,14.89,16.45,6.954,5.21,7.536,16.7,5.356,0,0,0,0,0,0,0,0,0,0,0,0,0,0,0,0,
747,8.357,22.51,30.47,68.39,-9.731,-8.18,14.98,44.89,18.54,27.4,28.33,18.46,15.62,13.99,31.01,18.73,0,0,0,0,0,0,0,0,0,0,0,0,0,0,0,0,
748,10.07,19.38,33.84,68.82,-14.66,-16.92,2.462,35.18,0.2869,-5.426,9.744,6.314,8.793,4.752,39.2,29.71,0,0,0,0,0,0,0,0,0,0,0,0,0,0,0,0,
749,-5.183,3.948,29.87,66.85,-51.57,-34.2,-3.592,33.84,-27.15,-9.684,-1.554,-5.369,-1.065,0.8129,36.72,29.22,0,0,0,0,0,0,0,0,0,0,0,0,0,0,0,0,
750,-18.3,-6.675,34.32,77.89,-68.23,-40.18,2.387,45.65,-41.49,3.534,8.625,0.354,3.015,9.875,36.58,26.49,0,0,0,0,0,0,0,0,0,0,0,0,0,0,0,0,
751,-18.39,-1.384,39.4,85.23,-70.26,-34.87,4.92,55.57,-39.04,-2.818,12.52,9.539,16.55,25.44,43.71,30.74,0,0,0,0,0,0,0,0,0,0,0,0,0,0,0,0,
752,-6.062,6.933,39.98,79.71,-73.54,-27.17,5.355,61.22,-21.55,3.325,10.21,10.24,18.23,24.55,48.34,35.45,0,0,0,0,0,0,0,0,0,0,0,0,0,0,0,0,
753,-0.2552,0.4116,43.9,81.13,-62.33,-30.76,4.371,58.44,-14.02,11.79,5.809,-0.2337,1.653,3.101,37.19,26.28,0,0,0,0,0,0,0,0,0,0,0,0,0,0,0,0,
754,-7.722,-9.315,41.04,89.57,-44.59,-37.93,2.788,51.21,-12.57,4.758,1.548,-1.267,2.136,7.324,18.92,12.68,0,0,0,0,0,0,0,0,0,0,0,0,0,0,0,0,
755,6.245,3.805,48.7,106.1,-20.88,-14.37,14.82,62.87,8.588,37.11,12.2,18.63,27.77,31.07,18.51,17.9,0,0,0,0,0,0,0,0,0,0,0,0,0,0,0,0,
756,35.69,23.75,82.42,129.9,-3.429,11.4,23.19,74.15,9.419,71.62,19.72,23.61,30.18,17.74,31.93,30.47,0,0,0,0,0,0,0,0,0,0,0,0,0,0,0,0,
757,27.95,11.42,92.86,125.7,-26.03,-6.782,5.559,55.68,-27.75,17.38,2.769,1.268,2.491,-8.204,32.32,22.62,0,0,0,0,0,0,0,0,0,0,0,0,0,0,0,0,
758,2.703,-17.02,79.33,108.3,-47.61,-19.13,-2.393,49.13,-32.64,-38.04,-6.681,-6.64,-8.46,-1.367,20.7,4.508,0,0,0,0,0,0,0,0,0,0,0,0,0,0,0,0,
759,9.699,-14.97,89.77,121.1,-26.72,1.734,17.66,75.82,2.824,-2.967,7.332,6.402,4.41,11.09,16.96,1.948,0,0,0,0,0,0,0,0,0,0,0,0,0,0,0,0,
760,22.06,4.613,92.23,125.1,-7.895,-1.327,21.74,84.17,15.35,22.99,8.245,0.8832,4.519,5.721,16,7.894,0,0,0,0,0,0,0,0,0,0,0,0,0,0,0,0,
761,10.02,-1.237,74.72,113.8,-8.288,-25.97,5.409,73.19,4.585,4.96,-7.189,-20.51,-12.11,2.052,4.645,3.716,0,0,0,0,0,0,0,0,0,0,0,0,0,0,0,0,
762,-0.51,-15.79,86.08,141.9,-5.807,-27.35,9.85,91.35,0.5367,33.68,-5.163,-20.63,-13.57,13.01,-3.246,-2.716,0,0,0,0,0,0,0,0,0,0,0,0,0,0,0,0,
763,-0.7685,-8.601,112.1,183.5,-3.432,-20.32,26.18,128.1,-5.776,64.03,-1.848,-16.67,-11.63,13.87,0.5691,-3.156,0,0,0,0,0,0,0,0,0,0,0,0,0,0,0,0,
764,-16.94,-13.75,137.6,225.7,-8.583,-28.41,27.19,159.7,-25.42,21.39,-28,-45.06,-37.58,-12.54,-6.327,-12.81,0,0,0,0,0,0,0,0,0,0,0,0,0,0,0,0,
765,-42.15,-41.2,179.1,302.2,-21.56,-33.16,36.68,200.7,-39.65,-2.832,-46.63,-65.17,-49.37,-18.5,-25.83,-28.83,0,0,0,0,0,0,0,0,0,0,0,0,0,0,0,0,
766,-35.75,-30.99,226.8,376.9,-5.54,-5.588,76.35,244.8,-24.44,35.83,-28.69,-39.84,-21.68,9.546,-29.72,-26.97,0,0,0,0,0,0,0,0,0,0,0,0,0,0,0,0,
767,-6.345,8.233,307.4,470.9,66.14,44.81,126.2,287,4.088,61.78,-15.76,-20.22,-14.08,4.199,-19.9,-15.91,0,0,0,0,0,0,0,0,0,0,0,0,0,0,0,0,
768,3.314,15.15,422.9,632,127.6,77.32,171.6,351.5,15.05,73.46,-21.71,-25.38,-24.96,-19.69,-18.49,-16.19,0,0,0,0,0,0,0,0,0,0,0,0,0,0,0,0,
769,6.547,16.09,512.3,739.3,151.5,94.78,211.4,411.5,19.59,87.89,-11.7,-11.47,-4.098,2.64,-16.05,-13.36,0,0,0,0,0,0,0,0,0,0,0,0,0,0,0,0,
770,22.92,37.8,597.7,725.4,191.6,125.8,240.4,434.4,29.86,76.86,10.89,10.86,15.25,25.54,1.935,2.542,0,0,0,0,0,0,0,0,0,0,0,0,0,0,0,0,
771,29.76,42.96,693.7,708.3,240.1,162.6,273.5,471,44.46,81.7,28.99,18.63,15.08,19.04,23.85,16.69,0,0,0,0,0,0,0,0,0,0,0,0,0,0,0,0,
772,41.01,46.96,723.1,726,277,200.1,320.1,527.2,81,118.8,50.04,32.24,32.07,36.63,38.56,27.48,0,0,0,0,0,0,0,0,0,0,0,0,0,0,0,0,
773,71.44,69.77,700.7,724.2,311.7,233.9,342.7,522.7,113.4,111,60.25,37.85,37.62,53.56,41.42,34.47,0,0,0,0,0,0,0,0,0,0,0,0,0,0,0,0,
774,77.56,66.96,696,706.9,313.6,236.9,326.6,470.5,100.1,73.65,49.89,21.94,11.88,26.98,29.28,24.89,0,0,0,0,0,0,0,0,0,0,0,0,0,0,0,0,
775,62.18,49.62,688.1,687.2,295,223.5,315.8,451.4,88.16,81.99,49.9,22.09,9.267,17.52,19.37,11.14,0,0,0,0,0,0,0,0,0,0,0,0,0,0,0,0,
776,66.56,61.15,645.6,650.3,293,218.2,317.7,451.1,103.4,112.6,62.28,35.17,27.85,43.68,27.61,14.94,0,0,0,0,0,0,0,0,0,0,0,0,0,0,0,0,
777,68.18,72.34,579.3,594.2,273.2,203.5,303,427.4,94.94,136.8,56.53,31.02,29.03,47.92,40.62,25.99,0,0,0,0,0,0,0,0,0,0,0,0,0,0,0,0,
778,58.61,73.11,528,542.3,248.9,196,290,398.8,80.39,150.5,47.21,33.4,37.53,43.78,49.14,33.82,0,0,0,0,0,0,0,0,0,0,0,0,0,0,0,0,
779,72.7,92.48,513.8,511.5,266.5,217.1,293.2,373.5,88.83,110.2,53.47,52.08,60.01,58.62,57.91,46.48,0,0,0,0,0,0,0,0,0,0,0,0,0,0,0,0,
780,86.92,103.4,485.1,475.8,262.3,220.7,281.4,341.1,73.04,58.25,50.94,60.19,66.99,58.8,60.84,58.61,0,0,0,0,0,0,0,0,0,0,0,0,0,0,0,0,
781,78.64,95.21,420.4,415.4,205.8,195.9,258.6,314.4,48.82,86.56,41.75,65.94,74.24,50.55,58.98,61.13,0,0,0,0,0,0,0,0,0,0,0,0,0,0,0,0,
782,83.58,112,373.1,355.9,176.6,189.8,253.4,298.4,62.51,127.2,47.31,75.98,86.77,54.66,61.2,57.23,0,0,0,0,0,0,0,0,0,0,0,0,0,0,0,0,
783,96.17,137.9,349.5,317.3,188.1,199.5,255.5,284,72.91,101.7,50.54,72.3,77.25,42.61,58.03,44.15,0,0,0,0,0,0,0,0,0,0,0,0,0,0,0,0,
784,93.7,138.4,326.4,294.9,193.3,201.5,250.6,270.5,72.58,88.47,50.62,72.45,70.58,31.53,50.51,29.34,0,0,0,0,0,0,0,0,0,0,0,0,0,0,0,0,
785,100.3,144.1,301.9,261.8,185,199.3,236.5,246.7,91.98,114.7,65.35,90.13,91.93,58.4,61.49,39.82,0,0,0,0,0,0,0,0,0,0,0,0,0,0,0,0,
786,104.8,153.6,251.9,189.4,156.2,181.2,201.8,200.1,85.76,105.5,71.5,91.95,101.9,80.55,84.05,71.74,0,0,0,0,0,0,0,0,0,0,0,0,0,0,0,0,
787,78.56,127.1,181.3,104.3,112,141.9,160,149.9,43.67,66.97,54.57,68.47,82.83,66.62,83.46,85.63,0,0,0,0,0,0,0,0,0,0,0,0,0,0,0,0,
788,51.5,91.9,133.7,53.72,91.84,108.6,136.5,120.7,28.51,57.69,33.51,47.43,67.99,56.28,53.83,69.61,0,0,0,0,0,0,0,0,0,0,0,0,0,0,0,0,
789,43.07,90.28,108.4,31.08,94.99,98.11,126.2,112.5,40.96,82.3,20.52,42.15,74.82,73.4,25.95,52.91,0,0,0,0,0,0,0,0,0,0,0,0,0,0,0,0,
790,41.25,104.2,87.18,8.482,92.45,103.5,121.1,109.6,53.02,98.42,35.63,57.59,92.94,97.23,32.23,62.02,0,0,0,0,0,0,0,0,0,0,0,0,0,0,0,0,
791,58.66,109.7,76.45,-10.13,96.1,113.7,122.9,99.29,81,74.02,88.89,95.75,108.8,107.6,81,96.86,0,0,0,0,0,0,0,0,0,0,0,0,0,0,0,0,
792,96.09,113.1,76.16,-9.979,119.2,122.5,128.9,94.14,120.1,58.46,145.5,135.1,116.5,109.2,149.3,137.3,0,0,0,0,0,0,0,0,0,0,0,0,0,0,0,0,
793,121,120.7,75.82,-10.25,130.7,123.6,134.3,99.15,130.2,94.56,164.4,144.7,112.5,106.6,192.4,157,0,0,0,0,0,0,0,0,0,0,0,0,0,0,0,0,
794,115,118.3,59.59,-46.41,102.8,106.7,119.3,75.82,103.9,105.1,130.7,117,87.94,86.82,172.2,137.5,0,0,0,0,0,0,0,0,0,0,0,0,0,0,0,0,
795,90.74,92.18,23.25,-100.4,63.71,82,82.13,26.09,75.03,50.03,68.93,76.55,52.84,57.14,93.97,81.48,0,0,0,0,0,0,0,0,0,0,0,0,0,0,0,0,
796,71.42,63.96,-4.504,-125.2,56.66,75.59,63.63,12.54,60.8,11.91,25.32,51.35,37.23,39.76,12.82,20.59,0,0,0,0,0,0,0,0,0,0,0,0,0,0,0,0,
797,64.21,61.5,-11.97,-133,64.23,80.59,65.25,25.15,48.01,28.03,11.91,45.28,45.33,34.29,-18.19,-8.107,0,0,0,0,0,0,0,0,0,0,0,0,0,0,0,0,
798,64.41,73.36,-25.67,-156.2,50.69,76.84,56.04,9.985,44.75,60.36,19.73,51.05,60.85,42.25,1.821,3.917,0,0,0,0,0,0,0,0,0,0,0,0,0,0,0,0,
799,75.08,83.2,-47.34,-179.5,40.73,75.6,52.47,-7.8,58.83,77.26,43.79,64.45,77.17,59.61,40.28,37.71,0,0,0,0,0,0,0,0,0,0,0,0,0,0,0,0,
800,85.98,90.22,-60.11,-191.9,54.22,77.74,55.09,-12.05,57.78,51.55,57.8,73.49,80.67,57.18,69.34,66.51,0,0,0,0,0,0,0,0,0,0,0,0,0,0,0,0,
801,78.89,80.49,-77.99,-215.1,57.23,61.89,31.79,-40.79,39.91,3.033,51.82,70.64,64.47,38.46,74.76,70.63,0,0,0,0,0,0,0,0,0,0,0,0,0,0,0,0,
802,67.72,58.45,-101.2,-242.5,48.47,47.57,13.55,-70.28,49.45,3.465,56.58,72.49,56.7,36.07,64.72,57.58,0,0,0,0,0,0,0,0,0,0,0,0,0,0,0,0,
803,74.92,63.16,-99.28,-245.4,57.54,66.21,33.52,-60.9,79.92,49.49,74.57,86.39,69.6,48.97,62.29,51.5,0,0,0,0,0,0,0,0,0,0,0,0,0,0,0,0,
804,86.73,88.32,-88.63,-236.8,65.88,85.96,47.59,-49.91,77.99,56.86,70.97,83.39,69.8,50.03,64.99,51.12,0,0,0,0,0,0,0,0,0,0,0,0,0,0,0,0,
805,75.62,81.89,-108.1,-247.2,50.49,70.88,30.05,-65.8,36.19,13.66,35.8,50.88,42.41,22.13,47.95,37.15,0,0,0,0,0,0,0,0,0,0,0,0,0,0,0,0,
806,46.94,47.39,-135.7,-265.6,28.16,46.22,9.326,-85.99,0.7211,-9.405,-2.069,24.24,20.5,-2.886,14.67,14.46,0,0,0,0,0,0,0,0,0,0,0,0,0,0,0,0,
807,32.13,32.75,-142,-269.4,16.32,38.51,-0.6858,-95.16,6.477,4.634,-7.482,30.32,29.35,19.55,-2.631,4.861,0,0,0,0,0,0,0,0,0,0,0,0,0,0,0,0,
808,44.2,44.66,-139.5,-264.2,23.33,43.39,2.029,-88.95,40.93,19.6,21.73,53.59,49.25,44.46,10.06,13.54,0,0,0,0,0,0,0,0,0,0,0,0,0,0,0,0,
809,62.49,55.84,-140.1,-261.8,35.23,46.94,13.25,-74.99,59.23,30.36,46.98,63.69,49.91,24.24,33.79,26.38,0,0,0,0,0,0,0,0,0,0,0,0,0,0,0,0,
810,55.2,46.75,-155.6,-268.4,20.56,26.65,4.028,-80.75,36.98,33.32,39.27,46.3,31.4,9.531,42.51,28.04,0,0,0,0,0,0,0,0,0,0,0,0,0,0,0,0,
811,18.52,20.68,-183.1,-282.2,-10.27,-8.502,-25.57,-102.9,8.61,14.73,18.95,22.02,15.92,17.27,32.37,19.79,0,0,0,0,0,0,0,0,0,0,0,0,0,0,0,0,
812,-10.77,5.668,-191.3,-285,-31.22,-21.83,-37.97,-106.9,7.753,-4.03,13.41,17.07,16.86,16.1,21.02,16.62,0,0,0,0,0,0,0,0,0,0,0,0,0,0,0,0,
813,-12.37,8.842,-185.6,-276.6,-42.58,-24.78,-38.15,-97.26,8.228,-3.276,14.04,21.05,23.86,23.1,19.57,22.84,0,0,0,0,0,0,0,0,0,0,0,0,0,0,0,0,
814,-9.501,5.43,-195.3,-283.1,-34.39,-37.05,-52.2,-104.4,0.2975,11.78,17.72,22.46,25.22,34.27,26.79,31.31,0,0,0,0,0,0,0,0,0,0,0,0,0,0,0,0,
815,-10.41,3.035,-207.9,-301,-13.2,-36.15,-63.88,-118.2,17.87,31.33,37.17,28.31,27.89,27.38,41.81,40.06,0,0,0,0,0,0,0,0,0,0,0,0,0,0,0,0,
816,-9.293,12.79,-210,-298.9,-17.93,-33.19,-65.75,-112.3,34.69,21.09,45.01,20.99,22.46,19.36,51.56,41.08,0,0,0,0,0,0,0,0,0,0,0,0,0,0,0,0,
817,-24.96,-2.098,-213.2,-279.2,-47.99,-55.59,-73.41,-93.99,-0.8773,-25.38,18.58,-7.11,-4.936,6.785,36.23,23.41,0,0,0,0,0,0,0,0,0,0,0,0,0,0,0,0,
818,-50.21,-34.32,-224.5,-275.4,-74.19,-72.43,-73.54,-85.76,-43.79,-40.96,-2.184,-17.23,-17.95,-5.459,8.252,2.879,0,0,0,0,0,0,0,0,0,0,0,0,0,0,0,0,
819,-50.09,-30.2,-242.4,-292.3,-91.3,-65.55,-62.89,-94.25,-38.08,-8.302,-5.615,-6.963,-1.736,5.245,-6.4,-2.395,0,0,0,0,0,0,0,0,0,0,0,0,0,0,0,0,
820,-39,-11.85,-250,-296.7,-99.26,-60.42,-63.95,-104.2,-25.3,3.189,-28.04,-14.92,-3.107,2.008,-15.89,-8.304,0,0,0,0,0,0,0,0,0,0,0,0,0,0,0,0,
821,-42.39,-17.21,-229,-274.9,-88.21,-51.95,-65.42,-98.27,-36.98,-20.76,-53.12,-27.12,-18.32,-26.11,-34.64,-26.56,0,0,0,0,0,0,0,0,0,0,0,0,0,0,0,0,
822,-39.37,-16.4,-202.6,-253.2,-59.68,-29.84,-55.33,-89.17,-33.99,-27.06,-45.66,-13.2,-7.905,-27.28,-46.54,-38.22,0,0,0,0,0,0,0,0,0,0,0,0,0,0,0,0,
823,-18.97,-0.8252,-198.3,-246.8,-41.59,-15.65,-53.03,-94.88,-7.916,-4.784,-19.31,8.523,8.438,-7.341,-32.75,-29.47,0,0,0,0,0,0,0,0,0,0,0,0,0,0,0,0,
824,0.7242,4.267,-199.8,-243.3,-52.53,-15.76,-57.56,-104.5,7.553,6.548,4.946,18.42,11.03,-1.692,-0.9954,-7.848,0,0,0,0,0,0,0,0,0,0,0,0,0,0,0,0,
825,5.197,0.5271,-197.4,-242.2,-63.8,-20.3,-60.21,-112.9,2.091,-8.633,12.78,18.31,14.48,0.0254,21.5,10.75,0,0,0,0,0,0,0,0,0,0,0,0,0,0,0,0,
826,-6.327,-0.9003,-201.6,-243.6,-52.09,-23.88,-63.74,-124.4,-12.1,-14.8,5.782,15.87,17.62,9.273,19.85,16.01,0,0,0,0,0,0,0,0,0,0,0,0,0,0,0,0,
827,-12.67,6.096,-199.6,-236.5,-42.08,-22.76,-60.93,-128.2,-15.96,-5.823,11.7,20.56,16.72,17.48,12.14,15.38,0,0,0,0,0,0,0,0,0,0,0,0,0,0,0,0,
828,-8.171,7.132,-189.6,-230,-50.54,-25.7,-60.53,-127.7,-6.09,-18.95,24.65,23.89,14.45,15.73,16.21,19.12,0,0,0,0,0,0,0,0,0,0,0,0,0,0,0,0,
829,-12.98,-14.9,-184.7,-229.3,-52.45,-30.1,-69.75,-133,1.332,-21.91,24.81,20.23,7.884,6.673,24.66,24.25,0,0,0,0,0,0,0,0,0,0,0,0,0,0,0,0,
830,-17.02,-29.05,-173.1,-221.7,-36.64,-22.59,-70.82,-136.2,8.684,14.12,28.96,21.09,2.927,4.007,30.46,27.94,0,0,0,0,0,0,0,0,0,0,0,0,0,0,0,0,
831,-12.97,-23.44,-161.1,-216.6,-31.46,-19.73,-72.52,-136.4,18.76,8.447,33.11,17.42,-1.22,3.966,32.53,27.19,0,0,0,0,0,0,0,0,0,0,0,0,0,0,0,0,
832,-21.35,-34.05,-164.2,-217,-39.64,-28.62,-84.07,-135,18,-48.15,22.29,4.093,-15.02,-6.793,25.39,13.13,0,0,0,0,0,0,0,0,0,0,0,0,0,0,0,0,
833,-31.55,-52.84,-167.2,-214.7,-37.6,-34.78,-86.18,-134.9,8.795,-62.67,13.83,-2.293,-28.38,-14.84,10.79,-11.15,0,0,0,0,0,0,0,0,0,0,0,0,0,0,0,0,
834,-36.03,-54.56,-174.5,-223.7,-40.92,-50.04,-86.81,-147.6,-9.321,-45.33,4.432,-11.22,-32.33,-9.916,-5.268,-31.93,0,0,0,0,0,0,0,0,0,0,0,0,0,0,0,0,
835,-54.66,-54.43,-190.7,-231.1,-58.05,-73.1,-93.84,-155.7,-35.13,-48.78,-12.95,-31.35,-40.11,-14.77,-21.62,-43.89,0,0,0,0,0,0,0,0,0,0,0,0,0,0,0,0,
836,-72.36,-60.76,-189.2,-217.8,-59.84,-78.42,-92.36,-144,-37.6,-47.1,-14.52,-40.52,-50.45,-32.16,-34.39,-48.3,0,0,0,0,0,0,0,0,0,0,0,0,0,0,0,0,
837,-68.36,-64.54,-179.3,-209.7,-49.42,-70.51,-91.66,-135.9,-11.1,-32.71,-6.287,-35.27,-46.37,-31.83,-39.27,-46.07,0,0,0,0,0,0,0,0,0,0,0,0,0,0,0,0,
838,-56.16,-61.9,-178.6,-209.3,-41.3,-63.53,-95.19,-137.7,12.18,-29.96,-10.92,-30.12,-35.58,-18.56,-37.38,-38.88,0,0,0,0,0,0,0,0,0,0,0,0,0,0,0,0,
839,-49.02,-57.14,-173.2,-200.8,-32.23,-66.27,-94.62,-141.4,11.79,-30.91,-19.34,-29.85,-38.07,-22.2,-33.97,-31.66,0,0,0,0,0,0,0,0,0,0,0,0,0,0,0,0,
840,-55.29,-62.92,-175.4,-203.6,-43.42,-89.14,-106.1,-153.5,-14.85,-32.63,-24.55,-38.06,-49.85,-35.58,-35.93,-32.19,0,0,0,0,0,0,0,0,0,0,0,0,0,0,0,0,
841,-70.8,-75.54,-195.1,-215.7,-74.03,-110.3,-122.6,-158.4,-39.67,-35.79,-25.4,-45.18,-51.7,-36.81,-40.53,-37.82,0,0,0,0,0,0,0,0,0,0,0,0,0,0,0,0,
842,-72.54,-73.92,-196.8,-208.9,-79.39,-102.4,-114,-142.7,-30.52,-24.48,-14.95,-39.24,-38.01,-27.08,-38.53,-35.3,0,0,0,0,0,0,0,0,0,0,0,0,0,0,0,0,
843,-64.82,-58.46,-175.3,-189.6,-68.68,-87.41,-97.61,-129.3,-16.69,-24.71,-10.92,-40.88,-30.53,-24.35,-37.04,-29.6,0,0,0,0,0,0,0,0,0,0,0,0,0,0,0,0,
844,-76.85,-54.79,-178.8,-188.3,-88.99,-96.97,-106.1,-136.2,-32.82,-50.08,-28.36,-61.92,-45.21,-36.6,-49.81,-39.67,0,0,0,0,0,0,0,0,0,0,0,0,0,0,0,0,
845,-98.45,-67.15,-207,-204.5,-112.5,-112.7,-120.4,-150.5,-47.66,-33.05,-39.65,-68.94,-53.37,-39.14,-65.38,-56.88,0,0,0,0,0,0,0,0,0,0,0,0,0,0,0,0,
846,-92.18,-65.5,-198.7,-201,-86.92,-101.6,-109.8,-154.6,-35.87,8.719,-32.68,-51.8,-39.91,-23.98,-63.97,-57.85,0,0,0,0,0,0,0,0,0,0,0,0,0,0,0,0,
847,-71.76,-50.76,-162,-177.8,-52.44,-82.54,-96.12,-151.6,-29.77,-26.92,-39.4,-47.74,-39.36,-24.42,-56.23,-49.99,0,0,0,0,0,0,0,0,0,0,0,0,0,0,0,0,
848,-75.24,-54.38,-159.4,-173.3,-63.27,-84.53,-104.4,-151.8,-45.24,-83.28,-58.04,-57.15,-50.24,-36.13,-59.79,-50.48,0,0,0,0,0,0,0,0,0,0,0,0,0,0,0,0,
849,-81.62,-61.79,-174.3,-178.8,-84.1,-85.44,-108.5,-152.2,-50.88,-66.73,-52.61,-47.43,-40.7,-31.34,-60.97,-49.71,0,0,0,0,0,0,0,0,0,0,0,0,0,0,0,0,
850,-66.02,-52.81,-165.3,-170.1,-80.47,-70.95,-97.69,-151.6,-41.51,-48.28,-32.12,-30.35,-27.17,-26.22,-44.16,-36.3,0,0,0,0,0,0,0,0,0,0,0,0,0,0,0,0,
851,-55,-47.78,-151.1,-159.1,-71.32,-61.79,-93.44,-149.7,-40.93,-60.96,-17.95,-21.76,-19.39,-21.48,-18.29,-15.45,0,0,0,0,0,0,0,0,0,0,0,0,0,0,0,0,
852,-51.77,-41.34,-144.3,-149.2,-58.31,-55.5,-87.35,-137.4,-37.4,-37.11,-2.004,-6.536,1.787,1.803,5.391,7.772,0,0,0,0,0,0,0,0,0,0,0,0,0,0,0,0,
853,-41.92,-23.29,-141,-141.2,-45.99,-48.17,-77.54,-125.4,-21.1,3.602,-0.2772,0.0835,13.46,13.48,15.16,22.96,0,0,0,0,0,0,0,0,0,0,0,0,0,0,0,0,
854,-49.57,-25.94,-154.5,-153.3,-63.02,-63.64,-93.38,-136,-21.85,-0.8467,-24.21,-16.46,-1.498,-1.673,1.933,17.65,0,0,0,0,0,0,0,0,0,0,0,0,0,0,0,0,
855,-72.46,-47.78,-174.5,-174.6,-90.4,-91.57,-120.7,-155.3,-39.52,-32.83,-33.19,-23.57,-12.24,-8.636,-15.53,3.628,0,0,0,0,0,0,0,0,0,0,0,0,0,0,0,0,
856,-74.16,-54.15,-175,-175.7,-91.45,-94.89,-121.8,-152.3,-43.5,-52.33,-19.61,-20.34,-16.74,-5.782,-19.48,-3.466,0,0,0,0,0,0,0,0,0,0,0,0,0,0,0,0,
857,-65.39,-56.05,-164.8,-161.8,-85.03,-82.58,-107.3,-132.1,-37.25,-65.35,-16.91,-31.75,-29.53,-8.764,-23.08,-10.82,0,0,0,0,0,0,0,0,0,0,0,0,0,0,0,0,
858,-62.52,-61.01,-158.3,-150,-83.86,-75.8,-93.36,-118.2,-32.61,-75.37,-11.72,-33.57,-30.28,-1.788,-29.79,-19.27,0,0,0,0,0,0,0,0,0,0,0,0,0,0,0,0,
859,-48.68,-46.82,-147,-136.8,-71.26,-68.52,-79.33,-111.7,-28.87,-56.13,5.222,-19.44,-21.03,8.965,-25.51,-17.71,0,0,0,0,0,0,0,0,0,0,0,0,0,0,0,0,
860,-42.85,-36.1,-141.2,-131.7,-70.32,-72.27,-82.77,-108.2,-37.91,-32.7,-0.6739,-24.44,-25.33,2.812,-16.69,-13.53,0,0,0,0,0,0,0,0,0,0,0,0,0,0,0,0,
