%OpenBCI Raw EXG Data
%Number of channels = 16
%Sample Rate = 125 Hz
%Board = OpenBCI_GUI$BoardCytonSerialDaisy
Sample Index,EXG Channel 0,EXG Channel 1,EXG Channel 2,EXG Channel 3,EXG Channel 4,EXG Channel 5,EXG Channel 6,EXG Channel 7,EXG Channel 8,EXG Channel 9,EXG Channel 10,EXG Channel 11,EXG Channel 12,EXG Channel 13,EXG Channel 14,EXG Channel 15,Accel Channel 0,Accel Channel 1,Accel Channel 2,Other,Other,Other,Other,Other,Other,Other,Analog Channel 0,Analog Channel 1,Analog Channel 2,Timestamp,Other,Timestamp (Formatted),Annotations
1,-0,-0,-0,0,0,0,0,-0,0,-0,0,0,0,0,0,0,0,0,0,0,0,0,0,0,0,0,0,0,0,0,0,0,T0
2,-22.25,-3.137,-24.58,3.382,-14.09,-7.037,-5.728,0.994,-5.33,31.98,18.56,10.35,11.91,23,21.5,18.55,0,0,0,0,0,0,0,0,0,0,0,0,0,0,0,0,
3,-11.35,1.139,-17.65,20.45,-0.9089,-1.059,5.132,8.593,12.35,49.57,32.09,22.28,23.75,31.85,29.93,30.34,0,0,0,0,0,0,0,0,0,0,0,0,0,0,0,0,
4,-2.692,2.372,-5.167,25.97,5.242,0.1463,15.79,12.48,24.83,44.24,36.51,27.82,22.07,28.18,26.09,26.72,0,0,0,0,0,0,0,0,0,0,0,0,0,0,0,0,
5,3.421,3.067,9.592,35.07,10.99,11.44,24.52,10.06,28.6,48.48,51.1,34.76,13.77,22.57,22.42,15.89,0,0,0,0,0,0,0,0,0,0,0,0,0,0,0,0,
6,20.01,1.671,22.84,52.69,27.29,30.2,23.63,7.479,32.82,48.21,53.37,30.26,-1.296,5.279,9.21,-1.632,0,0,0,0,0,0,0,0,0,0,0,0,0,0,0,0,
7,13.36,-8.581,13.07,45.61,21.08,19.79,4.655,11.67,23.42,19.25,33.43,11.33,-13.31,-7.501,-1.898,-14.65,0,0,0,0,0,0,0,0,0,0,0,0,0,0,0,0,
8,-3.87,-7.772,0.2785,28.75,0.383,0.4181,0.1316,14.23,12.46,25.35,36.61,11.94,2.692,13.06,9.608,-5.551,0,0,0,0,0,0,0,0,0,0,0,0,0,0,0,0,
9,0.8415,3.05,-7.366,19.12,-15.9,-4.371,12.65,-2.403,15.3,54.2,40.46,17.7,12.34,23.05,6.742,-2.16,0,0,0,0,0,0,0,0,0,0,0,0,0,0,0,0,
10,2.373,2.362,-17.17,10.18,-29.52,-8.241,15.12,-6.045,21.54,32.51,28.74,13.08,3.033,8.158,-4.846,-4.693,0,0,0,0,0,0,0,0,0,0,0,0,0,0,0,0,
11,4.928,14.86,-6.758,26.44,-18,5.224,22.92,27.54,30.89,29.39,51.03,31.14,24.23,26.79,17.25,20.24,0,0,0,0,0,0,0,0,0,0,0,0,0,0,0,0,
12,29.52,47.77,9.298,52.78,8.408,31.85,38.79,37,39.95,74.92,74.72,52.23,48.39,53.87,32.05,39.7,0,0,0,0,0,0,0,0,0,0,0,0,0,0,0,0,
13,43.72,58.11,12.84,43.17,16.57,38.69,45.12,10.42,46.84,78.99,70.35,53.11,43.06,49.03,29.51,37.83,0,0,0,0,0,0,0,0,0,0,0,0,0,0,0,0,
14,44.09,52.96,32.69,31.19,24.24,44.33,56.63,17.01,60.77,73.3,80.36,59.94,51.39,56.33,47.48,47.38,0,0,0,0,0,0,0,0,0,0,0,0,0,0,0,0,
15,44.28,58.04,47.95,47.34,30.69,52.31,67.9,33.77,53.17,96.07,70.42,47.98,49.42,61.58,40.79,40.22,0,0,0,0,0,0,0,0,0,0,0,0,0,0,0,0,
16,20.34,48.64,26.01,49.39,12.27,35.01,57.32,5.988,17.4,75.55,28.72,12.82,12.18,32.38,6.661,10.26,0,0,0,0,0,0,0,0,0,0,0,0,0,0,0,0,
17,-0.3216,29.72,6.923,31.9,-2.479,22.1,44.7,-12.9,14.59,46.81,34.16,22.71,11.24,27.08,19.95,16.17,0,0,0,0,0,0,0,0,0,0,0,0,0,0,0,0,
18,23.2,34.94,13.26,32.09,5.188,36.65,48.12,11.95,44.94,69.8,73.24,65.07,46.39,54.53,58.4,43.97,0,0,0,0,0,0,0,0,0,0,0,0,0,0,0,0,
19,50.61,47.15,24.45,50.03,13.55,49.05,54.35,32.55,54.79,83.99,88.66,78.28,52.51,61.16,63.8,44.07,0,0,0,0,0,0,0,0,0,0,0,0,0,0,0,0,
20,51.51,42.59,26.49,59.12,13.97,47.2,43.99,30.41,51.17,71.88,88.64,72.09,39.79,49.33,50.13,28.97,0,0,0,0,0,0,0,0,0,0,0,0,0,0,0,0,
21,42.88,31.66,9.167,43.21,1.935,35.26,20.79,21,45.77,58.03,75.18,66.32,32.33,35.69,39.01,24.52,0,0,0,0,0,0,0,0,0,0,0,0,0,0,0,0,
22,34.19,27.97,-4.048,25.82,-12.83,25.59,22.96,11.1,33.55,38.67,59.92,62.74,27.73,25.17,36.17,34.21,0,0,0,0,0,0,0,0,0,0,0,0,0,0,0,0,
23,34.69,37.7,13.75,33.86,-6.319,35.02,50.9,4.865,33.69,48.88,63.62,65.17,29.37,28.58,39.27,41.85,0,0,0,0,0,0,0,0,0,0,0,0,0,0,0,0,
24,38.31,47.95,24.98,41.79,2.33,43.27,54.07,2.365,35.23,84.73,63.84,64.85,31.07,34.42,42.12,34.53,0,0,0,0,0,0,0,0,0,0,0,0,0,0,0,0,
25,36.33,44.1,13.39,43.86,-5.625,41.2,41.8,10.36,29.8,83.18,62.41,67.71,32.07,32.58,52.62,30.71,0,0,0,0,0,0,0,0,0,0,0,0,0,0,0,0,
26,44.23,40.49,16.23,52.44,-8.906,45.45,51.31,20.09,39.01,53.28,70.68,70.94,31.86,25.84,58.53,31.42,0,0,0,0,0,0,0,0,0,0,0,0,0,0,0,0,
27,38.59,37.88,12.42,27.46,-15.22,32.26,47.05,6.98,35.84,38.73,59.2,47.8,22.26,17.87,45.04,19.86,0,0,0,0,0,0,0,0,0,0,0,0,0,0,0,0,
28,3.872,27.81,-18.3,-5.067,-29.32,6.124,17.75,-3.34,18.52,48.49,46.85,26.92,25.22,30.81,44.13,20.41,0,0,0,0,0,0,0,0,0,0,0,0,0,0,0,0,
29,-0.8959,34.99,-15.8,25.46,-16.73,16.13,20.16,6.853,33.5,70.26,65.94,42.28,43.22,54.85,62.87,38.59,0,0,0,0,0,0,0,0,0,0,0,0,0,0,0,0,
30,24.01,49.19,13.35,52.86,2.206,34.24,42.24,-6.702,46.17,67.66,70.82,53.09,39,46.95,60.73,35.93,0,0,0,0,0,0,0,0,0,0,0,0,0,0,0,0,
31,22.04,35.14,7.752,24.84,-3.908,25.76,36.79,-27.83,33.46,47.31,49.54,46.15,30.15,32.31,44.84,27.03,0,0,0,0,0,0,0,0,0,0,0,0,0,0,0,0,
32,19.84,32.08,4.732,21.74,1.285,30.39,32.75,-0.3512,45.05,53.42,52.8,55.94,47.73,49.8,47.66,42.07,0,0,0,0,0,0,0,0,0,0,0,0,0,0,0,0,
33,37.28,57.71,20.68,45.76,9.712,37.65,36.03,29.05,56.44,57.07,69.78,66.03,50.4,55.21,52.73,44.82,0,0,0,0,0,0,0,0,0,0,0,0,0,0,0,0,
34,32.11,46.57,-2.189,25.05,-14.61,11.49,10.92,-0.7096,37.85,28.23,62.2,53.75,19.83,25.96,42.03,19.31,0,0,0,0,0,0,0,0,0,0,0,0,0,0,0,0,
35,13.94,6.919,-32.08,-13.26,-26.32,-4.531,-5.66,-39.78,34.84,14.15,46.12,44.63,2.891,11.78,28.44,4.314,0,0,0,0,0,0,0,0,0,0,0,0,0,0,0,0,
36,13.53,5.825,-17.43,-8.134,-4.202,14.98,14.19,-27.31,44.98,32.99,46.89,52.33,14.31,26.45,27.05,10.25,0,0,0,0,0,0,0,0,0,0,0,0,0,0,0,0,
37,22.68,26.82,4.528,20.52,9.442,34.99,24.11,-2.311,47,53.37,62.42,64.99,30.1,40.81,45.77,21.69,0,0,0,0,0,0,0,0,0,0,0,0,0,0,0,0,
38,35.36,36.15,10.37,15.81,9.839,39.74,18.97,-17.69,54.03,66.08,72.18,74.17,40.75,48.2,63.71,31.17,0,0,0,0,0,0,0,0,0,0,0,0,0,0,0,0,
39,41.37,47.82,8.877,-7.7,5.014,32.43,23.85,-33.47,49.8,72.68,61.37,71.73,43.63,49.65,52.91,31.91,0,0,0,0,0,0,0,0,0,0,0,0,0,0,0,0,
40,32.35,55.61,1.5,9.005,-4.862,21.2,23.24,-15.02,37.48,65.92,46.51,58.13,35,40.69,34.02,27.45,0,0,0,0,0,0,0,0,0,0,0,0,0,0,0,0,
41,23.26,42.84,-1.394,37.17,-5.018,17.25,13.1,-10.57,42.26,47.99,43.08,45.58,22.03,29.71,30.1,25.38,0,0,0,0,0,0,0,0,0,0,0,0,0,0,0,0,
42,12.44,23.5,-6.509,21.57,-5.295,13.69,3.489,-29.47,42.81,34.03,41.16,35.71,12.6,23.35,27.27,23.55,0,0,0,0,0,0,0,0,0,0,0,0,0,0,0,0,
43,-7.055,9.599,-22.49,-3.953,-13.41,5.713,-9.019,-31.85,35.74,31.5,36.54,23.85,2.519,15.26,24.19,19.8,0,0,0,0,0,0,0,0,0,0,0,0,0,0,0,0,
44,-15.4,1.238,-26.34,-10.01,-11.82,2.412,-3.399,-30.76,37.55,32.59,32.82,18.55,-4.537,8.012,28.27,14.61,0,0,0,0,0,0,0,0,0,0,0,0,0,0,0,0,
45,-5.376,6.286,-14.26,-14.15,-11.84,6.25,26,-39.76,28.42,31,27.8,26.28,6.827,12.06,29.73,15.42,0,0,0,0,0,0,0,0,0,0,0,0,0,0,0,0,
46,6.83,21.64,-12.03,-10.04,-24.97,8.981,24.94,-39.72,12.44,22.6,25.13,36.31,25.16,19.92,29.38,26.95,0,0,0,0,0,0,0,0,0,0,0,0,0,0,0,0,
47,15.96,28.1,-18.69,4.475,-28.53,4.141,-13.45,-35.54,13.46,16.66,32.36,42.1,29.39,20.85,35.96,34.62,0,0,0,0,0,0,0,0,0,0,0,0,0,0,0,0,
48,22.96,25.73,-16.57,4.316,-20.14,0.0611,-26.56,-31.56,20.13,34.03,39.17,41.3,26.24,21.49,35.3,26.95,0,0,0,0,0,0,0,0,0,0,0,0,0,0,0,0,
49,13.54,19.76,-20.62,-15.89,-21.21,-3.11,-20.77,-29.99,18.15,46.55,24.09,22.18,13.67,18.93,14.19,13.22,0,0,0,0,0,0,0,0,0,0,0,0,0,0,0,0,
50,-12.58,-1.502,-37.57,-33.27,-27,-12.22,-29.44,-45.99,8.218,24.52,4.728,2.422,-7.367,6.923,-1.05,10.18,0,0,0,0,0,0,0,0,0,0,0,0,0,0,0,0,
51,-13.65,-14.43,-28.34,-30.33,-17.13,-1.684,-6.359,-53.27,6.017,17.98,16.2,17.05,-3.932,3.472,11.49,21.26,0,0,0,0,0,0,0,0,0,0,0,0,0,0,0,0,
52,23.52,13.76,4.115,-17.71,-3.689,29.38,39.9,-33.11,22.06,39.84,30.85,41.2,17.26,13.99,25,30.77,0,0,0,0,0,0,0,0,0,0,0,0,0,0,0,0,
53,46.57,40.39,8.409,-5.213,-11.31,34.24,28.31,-26.78,26.52,36.09,18.33,37.51,19.32,19.38,21.07,30.18,0,0,0,0,0,0,0,0,0,0,0,0,0,0,0,0,
54,36.91,28.53,-6.047,12.7,-24.83,17.82,-10.91,-31.78,12.83,22.77,9.073,26.84,9.709,13.33,11.24,21.59,0,0,0,0,0,0,0,0,0,0,0,0,0,0,0,0,
55,22.69,15.44,-4.995,20.98,-24.41,9.609,-10.63,-14.4,11.51,24.09,3.395,18.64,-2.553,-0.9812,-2.002,5.022,0,0,0,0,0,0,0,0,0,0,0,0,0,0,0,0,
56,1.416,13.22,-1.981,6.439,-22.69,-2.333,0.718,-12.81,9.245,8.438,-18.72,-3.3,-23.54,-17.06,-11.61,-9.473,0,0,0,0,0,0,0,0,0,0,0,0,0,0,0,0,
57,-21.56,0.3369,-3.171,-9.886,-20.7,-8.446,3.753,-44.81,-2.137,1.058,-25.11,-19.54,-35.36,-21.78,-10.69,-15.16,0,0,0,0,0,0,0,0,0,0,0,0,0,0,0,0,
58,-17.51,-7.405,4.021,-9.053,-5.483,7.091,9.868,-50.33,5.729,30.04,-8.496,-12.01,-26.74,-12.77,-6.117,-10.93,0,0,0,0,0,0,0,0,0,0,0,0,0,0,0,0,
59,1.493,2.137,9.595,5.388,8.838,17.95,0.3298,-21.57,14.13,42.36,1.977,7.438,-7.336,1.736,9.095,10.86,0,0,0,0,0,0,0,0,0,0,0,0,0,0,0,0,
60,16.59,10.39,5.461,13.79,2.804,15.49,-17.95,-8.955,6.243,27.13,15.21,29.28,10.53,12.36,30.43,31.71,0,0,0,0,0,0,0,0,0,0,0,0,0,0,0,0,
61,31.76,12.06,2.653,4.553,-11.38,13.62,-14.98,-15.86,15.02,22.77,30.82,38.8,12.17,10.5,35.08,28.23,0,0,0,0,0,0,0,0,0,0,0,0,0,0,0,0,
62,34.7,13.78,5.412,-4.808,-10.07,12.66,3.659,-20.8,31.02,17.72,26.52,28.21,0.8998,0.8415,35.02,20.71,0,0,0,0,0,0,0,0,0,0,0,0,0,0,0,0,
63,26.35,16.56,15.11,-5.988,8.739,19.43,22.54,-19.49,29.15,14.78,24.59,23.97,0.2705,4.48,49.55,27.6,0,0,0,0,0,0,0,0,0,0,0,0,0,0,0,0,
64,29.62,23.51,33.2,-2.47,27.07,33.77,29.5,-9.551,29.87,42.13,37.2,36.77,14.85,25.14,58.13,32.86,0,0,0,0,0,0,0,0,0,0,0,0,0,0,0,0,
65,36.17,31.14,37.85,19.47,27.88,38.53,17.86,-1.663,30.81,57.36,30.16,41.74,24.22,31.67,45.26,27.66,0,0,0,0,0,0,0,0,0,0,0,0,0,0,0,0,
66,35.59,31.66,23.69,45.52,18.75,38.84,17.55,-1.103,26.19,33.4,17.31,42.13,25.11,21.47,37.13,28.69,0,0,0,0,0,0,0,0,0,0,0,0,0,0,0,0,
67,43.13,35.19,22.74,39.7,19,44.18,37.29,3.381,39.07,28.28,32.4,53.61,32.22,29.89,45.79,38.86,0,0,0,0,0,0,0,0,0,0,0,0,0,0,0,0,
68,48.01,43.48,28.91,19.12,16.7,37.88,32.97,-6.411,42.44,49.38,39.05,51.09,36.31,45.16,43.45,36.77,0,0,0,0,0,0,0,0,0,0,0,0,0,0,0,0,
69,32.71,37.56,24.08,20.5,5.853,25.52,18.8,-28.85,21.64,57.29,26.34,36.28,32.57,44.24,38.64,32.74,0,0,0,0,0,0,0,0,0,0,0,0,0,0,0,0,
70,26.98,30.75,35.95,36.77,20.99,38.28,37.32,-10.99,36.39,61.43,40.69,51.43,42.35,49.07,59.7,46.77,0,0,0,0,0,0,0,0,0,0,0,0,0,0,0,0,
71,48.44,44.79,53.19,48.37,52.47,60.47,43.68,24.6,74.04,54.92,60.55,74.49,55.7,56.97,72.11,51.78,0,0,0,0,0,0,0,0,0,0,0,0,0,0,0,0,
72,61.84,55.57,38.07,40.2,51.34,55.42,26.18,5.721,65.86,38.21,50.51,65.6,55.6,58.67,59.51,43.57,0,0,0,0,0,0,0,0,0,0,0,0,0,0,0,0,
73,54.21,52.97,17.98,2.706,31.74,40.16,40.56,-29.13,42.74,59.32,49.5,58.04,60.99,72.87,65.27,52.18,0,0,0,0,0,0,0,0,0,0,0,0,0,0,0,0,
74,50.55,56.67,19.35,-18.38,29.72,42.12,52.34,-13.57,50.03,85.34,61.79,67.86,69.03,80.99,80.44,60.2,0,0,0,0,0,0,0,0,0,0,0,0,0,0,0,0,
75,52.8,60.05,24.88,18.92,38.19,49.07,28.8,14.08,56.52,65.01,50.81,63.94,60.7,67.16,65.99,45.22,0,0,0,0,0,0,0,0,0,0,0,0,0,0,0,0,
76,48.43,53.79,22.44,51.96,42.89,45.61,21.52,5.015,45.29,46.74,35.81,51.09,46.12,55.66,41.91,26.15,0,0,0,0,0,0,0,0,0,0,0,0,0,0,0,0,
77,39.58,41.42,7.788,32.63,35.94,32.84,18.55,-18.64,36.38,41.61,36.79,45.1,34.63,44.82,37.85,17.12,0,0,0,0,0,0,0,0,0,0,0,0,0,0,0,0,
78,30.24,24.69,-10.27,11.37,22.16,21.01,1.098,-24.82,40.08,23.74,36.1,39.6,29.34,33.19,43.94,19.15,0,0,0,0,0,0,0,0,0,0,0,0,0,0,0,0,
79,25.79,22.04,-14.37,8.305,23.6,22.82,16.19,-17.66,48.77,35.84,36.42,39.75,38.41,42.78,43.43,29.6,0,0,0,0,0,0,0,0,0,0,0,0,0,0,0,0,
80,28.84,38.1,-8.752,7.55,33.36,30.13,38.34,-12.96,44.02,74.54,42.45,44.32,51.59,59.21,37.92,35.35,0,0,0,0,0,0,0,0,0,0,0,0,0,0,0,0,
81,29.85,45.22,-5.312,15.06,26.42,26.89,24.82,-10.24,29.34,74.2,36.53,37.53,49.31,53.28,32.22,26.25,0,0,0,0,0,0,0,0,0,0,0,0,0,0,0,0,
82,27.61,36.61,-5.921,17.24,16.94,25.8,19.51,-2.714,27.66,50.51,26.82,31.7,39.5,39.88,30.09,16.19,0,0,0,0,0,0,0,0,0,0,0,0,0,0,0,0,
83,32.92,31.5,-4.232,20.62,24.46,38.8,33.7,10.89,36.42,56.26,33.85,41.65,44.91,45.75,40.2,23.64,0,0,0,0,0,0,0,0,0,0,0,0,0,0,0,0,
84,38.31,32.83,0.3989,35.11,25.6,39.78,23.43,21.16,38.17,65.99,36.44,40,50.34,49.97,45.76,27.28,0,0,0,0,0,0,0,0,0,0,0,0,0,0,0,0,
85,24.35,22.99,-5.788,15.74,6.65,15.61,-5.803,6.27,27.78,44.2,17.06,15.3,33.17,31.19,27.63,11.51,0,0,0,0,0,0,0,0,0,0,0,0,0,0,0,0,
86,5.117,5.224,-15.51,-12.39,-1.89,1.339,-8.793,-24.3,13.48,31.78,3.746,5.641,23.79,26.49,16.85,10.85,0,0,0,0,0,0,0,0,0,0,0,0,0,0,0,0,
87,11.64,7.168,-6.774,16.22,11.55,14.43,15.97,-24.09,14.8,48.12,10.94,21.18,34.74,42.92,30.5,28.63,0,0,0,0,0,0,0,0,0,0,0,0,0,0,0,0,
88,30.43,17.51,5.279,46.26,21.52,26,20.01,5.05,30.18,41.51,19.72,30.19,29.58,35.83,37.1,29.72,0,0,0,0,0,0,0,0,0,0,0,0,0,0,0,0,
89,27.42,6.802,-2.741,26.3,18.98,17.81,-0.7076,12.68,28.18,19.69,19.37,24.59,15.77,20.42,30.26,20.03,0,0,0,0,0,0,0,0,0,0,0,0,0,0,0,0,
90,8.129,-2.622,-17.39,1.705,15.9,3.397,-0.7755,-5.729,12.17,37.45,18.79,23.07,24.05,31.64,31.48,22.55,0,0,0,0,0,0,0,0,0,0,0,0,0,0,0,0,
91,1.488,7.569,-20.31,-6.665,20.04,-0.4649,7.845,-18.14,20.76,66.4,33.56,36.63,35.81,41.53,42.51,34.3,0,0,0,0,0,0,0,0,0,0,0,0,0,0,0,0,
92,15.38,11.49,-14.21,-6.094,27.46,4.297,-7.525,-17.78,41.47,57.11,50.76,49.95,33.55,32.01,46.13,40.21,0,0,0,0,0,0,0,0,0,0,0,0,0,0,0,0,
93,29.29,8.313,-0.0482,11.61,30.02,9.514,-12.3,-3.471,38.16,42.7,44.5,48.23,41.15,34.94,39.35,39.66,0,0,0,0,0,0,0,0,0,0,0,0,0,0,0,0,
94,35.43,24.89,21.12,37.88,36.81,25.17,15.69,20.43,36.44,65.22,39.13,53.16,67.22,60.42,44.99,49.14,0,0,0,0,0,0,0,0,0,0,0,0,0,0,0,0,
95,47.47,48.78,25.4,46.39,47.66,44.08,33.4,20.55,50.62,78.12,52.41,63.56,73.56,64.91,57.68,54.85,0,0,0,0,0,0,0,0,0,0,0,0,0,0,0,0,
96,45.19,43.28,8.177,27.34,35.88,33.75,24.56,0.3389,39.67,39.74,49.44,46.03,47.33,35.04,47.42,36.85,0,0,0,0,0,0,0,0,0,0,0,0,0,0,0,0,
97,14.25,19.39,3.975,11.54,15.95,10.18,22.71,0.2553,17.36,21.48,33.83,24.07,30.56,24.02,30.72,24.41,0,0,0,0,0,0,0,0,0,0,0,0,0,0,0,0,
98,-0.8741,12.63,11.49,17.15,23.35,10.81,32.24,3.061,25.28,50.92,35.85,27.3,30.69,36.2,29.36,27.39,0,0,0,0,0,0,0,0,0,0,0,0,0,0,0,0,
99,11.24,16.69,7.379,16.04,35.76,22.22,34.3,-11.97,37.15,45.05,42.79,30.88,23.85,27.42,29.78,24.08,0,0,0,0,0,0,0,0,0,0,0,0,0,0,0,0,
100,18.56,16.27,10.55,10.77,36.1,28.79,32.78,-12.61,36.61,16.28,49.62,32.17,22.5,17.89,33.38,24.85,0,0,0,0,0,0,0,0,0,0,0,0,0,0,0,0,
101,21.13,10.43,23.08,22.06,43.87,31.63,21.19,-3.106,42.48,31,56.15,34.61,25.66,28.22,36.94,26.14,0,0,0,0,0,0,0,0,0,0,0,0,0,0,0,0,
102,14.81,-7.029,19.99,33.03,43.62,19.03,-4.828,-2.937,36.59,46.28,37.4,15.61,13.04,25.77,22.78,8.795,0,0,0,0,0,0,0,0,0,0,0,0,0,0,0,0,
103,-7.206,-20.74,9.589,30.83,21.89,-1.083,-15.03,-1.717,7.487,30.35,8.64,-6.022,-2.275,6.798,8.428,-7.508,0,0,0,0,0,0,0,0,0,0,0,0,0,0,0,0,
104,-20.15,-20.16,-1.924,10.92,6.779,-13.78,-10.6,-18.63,-14.15,15.96,0.8156,-5.378,-11.1,-6.652,5.896,-12.91,0,0,0,0,0,0,0,0,0,0,0,0,0,0,0,0,
105,-19.7,-21.73,-18.51,-17.1,2.195,-25.5,-13.68,-45.03,-13.88,10.04,-3.069,0.024,-12.69,-4.213,-1.037,-15.29,0,0,0,0,0,0,0,0,0,0,0,0,0,0,0,0,
106,-16.31,-15.55,-28.69,-24.52,-5.988,-29.38,-10.32,-35.67,-7.62,12.18,-6.906,5.438,0.0627,11.37,-1.727,-4.516,0,0,0,0,0,0,0,0,0,0,0,0,0,0,0,0,
107,-6.511,-0.6272,-33.46,-21.07,-2.217,-17.53,-4.35,-22.36,-5.277,22.35,6.859,14.96,5.986,18.75,11.52,9.255,0,0,0,0,0,0,0,0,0,0,0,0,0,0,0,0,
108,-1.17,-2.733,-32.28,-21.02,12.24,-8.465,-9.88,-33.05,-4.395,33.06,13.47,15.75,-5.232,13.72,10.06,4.766,0,0,0,0,0,0,0,0,0,0,0,0,0,0,0,0,
109,-11.39,-12.18,-27.65,-22.32,2.077,-17.73,-16.41,-30.17,-13.64,37.43,-9.594,4.313,-15.04,2.748,-10.34,-12.69,0,0,0,0,0,0,0,0,0,0,0,0,0,0,0,0,
110,-27.3,-19.44,-32.35,-35.28,-17.88,-31.99,-28.55,-21.84,-28.18,14.96,-30.65,-6.482,-20.38,-16.31,-17.47,-27.39,0,0,0,0,0,0,0,0,0,0,0,0,0,0,0,0,
111,-25.47,-20.25,-23.14,-29.37,-7.146,-23.36,-27.09,-25.48,-18.28,-6.417,-18.68,6.727,-4.664,-10.78,5.327,-15.28,0,0,0,0,0,0,0,0,0,0,0,0,0,0,0,0,
112,6.596,11.38,-8.78,2.45,-2.801,-0.3529,12.87,-18.44,0.8173,23.33,13.56,42.84,34.38,25.65,40.47,19.92,0,0,0,0,0,0,0,0,0,0,0,0,0,0,0,0,
113,37.76,43.34,-24.62,10.99,-13.56,9.01,37.39,-9.729,6.384,56.32,35.85,58.39,40.32,32.66,52.47,26.74,0,0,0,0,0,0,0,0,0,0,0,0,0,0,0,0,
114,43.61,31.22,-9.919,23.55,35.43,23.89,18.97,-7.789,31.9,46.24,35.06,44.88,14.11,14.24,34.98,6.108,0,0,0,0,0,0,0,0,0,0,0,0,0,0,0,0,
115,44.3,17.17,43.59,48.58,97.7,49.49,7.998,-2.997,61.17,36.34,29.41,44.88,20.09,23.14,30.49,11.66,0,0,0,0,0,0,0,0,0,0,0,0,0,0,0,0,
116,47.55,29.63,33.63,17.12,77.75,48.84,14.86,-15.83,50.42,36.68,45.83,66.23,47.33,38.77,59.43,33.45,0,0,0,0,0,0,0,0,0,0,0,0,0,0,0,0,
117,53.7,41.75,3.418,-18.93,62.49,44.15,23.71,-38.09,53.64,24.34,78.91,84.14,58.31,40.36,88.34,43.6,0,0,0,0,0,0,0,0,0,0,0,0,0,0,0,0,
118,73.07,50.15,43.43,10.41,112.6,66.23,37.57,-40.33,93.46,19.06,101.3,91.06,65.53,51.28,96.67,61.61,0,0,0,0,0,0,0,0,0,0,0,0,0,0,0,0,
119,83.04,51.19,66.87,22.75,118.9,69.9,41.41,-48.74,87.24,28.86,94.94,80.3,61.29,56.91,88,74.71,0,0,0,0,0,0,0,0,0,0,0,0,0,0,0,0,
120,63.58,32.61,23.61,-13.93,61.13,41.34,29.14,-68.63,29.47,32.48,55.94,51.36,35.75,41.13,60.69,54.38,0,0,0,0,0,0,0,0,0,0,0,0,0,0,0,0,
121,37.08,17.16,-4.619,-27.09,29.33,23.37,15.5,-62.02,-0.3444,18.24,13.34,29.08,20.52,27.28,32.95,28.7,0,0,0,0,0,0,0,0,0,0,0,0,0,0,0,0,
122,16.06,14.35,-6.452,-25.61,29.89,14.46,1.968,-48.54,2.915,-6.359,2.524,18.11,14.58,14.89,23.74,11.56,0,0,0,0,0,0,0,0,0,0,0,0,0,0,0,0,
123,-6.337,0.4733,-19.54,-44.23,26.16,-2.888,-9.803,-52.45,1.625,-9.726,4.735,2.081,-1.532,-1.05,15.08,-14.53,0,0,0,0,0,0,0,0,0,0,0,0,0,0,0,0,
124,-18.19,-14.24,-22.26,-36.06,25.6,-7.686,-14.61,-49.3,3.042,14.97,-6.645,-8.943,-6.25,-1.895,-3.796,-32.36,0,0,0,0,0,0,0,0,0,0,0,0,0,0,0,0,
125,-12.56,-9.217,-10.4,-1.79,31.98,2.94,-13.02,-52.43,6.258,25.07,-18.16,-11.03,-0.2615,-0.5979,-18.01,-33.36,0,0,0,0,0,0,0,0,0,0,0,0,0,0,0,0,
126,-8.229,-6.795,-18.98,-8.27,29.69,3.431,-3.51,-72.06,-1.709,12.78,-17.38,-11.8,-2.861,-8.15,-13.6,-30.34,0,0,0,0,0,0,0,0,0,0,0,0,0,0,0,0,
127,-4.317,-11.32,-32.16,-29.58,24.84,-0.7706,3.576,-63.3,1.515,15.09,-2.279,5.208,4.284,0.2266,9.229,-15.3,0,0,0,0,0,0,0,0,0,0,0,0,0,0,0,0,
128,10.41,-2.549,-16.9,-16.25,29.58,5.013,-3,-37.02,11.44,29.91,15.37,25.04,13.09,9.986,19.72,-6.143,0,0,0,0,0,0,0,0,0,0,0,0,0,0,0,0,
129,14.71,1.387,2.59,-7.722,37.89,11.35,-0.9422,-33.24,7.483,27.17,19.7,21.49,2.573,-1.823,8.726,-17.49,0,0,0,0,0,0,0,0,0,0,0,0,0,0,0,0,
130,12.53,-2.83,10.9,-11.27,52.85,21.62,19.15,-24.44,21.67,10.49,29.71,26.64,6.229,-2.175,16.16,-9.137,0,0,0,0,0,0,0,0,0,0,0,0,0,0,0,0,
131,28.33,9.732,19.45,1.054,62.86,30.96,18.13,-9.527,41.87,3.765,41.98,39.74,24.71,14.85,34.88,13.24,0,0,0,0,0,0,0,0,0,0,0,0,0,0,0,0,
132,30.15,18.41,11.58,2.647,39.61,14.16,-1.177,-26.88,17.85,7.844,29.48,28.39,20.59,16.16,33.41,12.3,0,0,0,0,0,0,0,0,0,0,0,0,0,0,0,0,
133,9.7,8.391,-7.417,-14.46,15.72,-5.756,2.785,-52.56,-6.72,3.306,21.87,21.11,7.631,6.582,30.83,12.22,0,0,0,0,0,0,0,0,0,0,0,0,0,0,0,0,
134,3.427,-2.629,-14.62,-32.46,21.44,-4.028,-1.774,-58.7,0.782,-8.217,24.82,16.62,-5.441,-0.8828,20.69,17.99,0,0,0,0,0,0,0,0,0,0,0,0,0,0,0,0,
135,-9.771,-19.05,-17.86,-41.63,18.94,-3.508,-27.81,-53.81,-5.201,0.5791,6.877,-9.095,-21.6,-4.621,-4.685,11.04,0,0,0,0,0,0,0,0,0,0,0,0,0,0,0,0,
136,-27.06,-23.13,-1.38,-9.538,19.24,8.168,-10.29,-28.47,-9.588,28.79,6.565,-6.09,-10.78,6.319,1.807,17.72,0,0,0,0,0,0,0,0,0,0,0,0,0,0,0,0,
137,-1.628,1.429,30.42,34.57,48.25,36.52,19.84,-4.751,14.13,39.09,34.46,25.08,12.15,19.51,25.39,33.12,0,0,0,0,0,0,0,0,0,0,0,0,0,0,0,0,
138,25.35,14.73,22.05,14.77,48.52,32.75,6.627,-20.26,24.17,24.35,37.92,27.2,14.36,18.37,16.49,30.36,0,0,0,0,0,0,0,0,0,0,0,0,0,0,0,0,
139,24.22,19.48,-4.552,-27.54,18.53,15.02,15.53,-32.2,24.43,15.87,35.41,25.98,17.07,16.15,3.034,28.45,0,0,0,0,0,0,0,0,0,0,0,0,0,0,0,0,
140,38.26,35.53,-0.1244,-20.01,23.45,26.59,40.1,-12.21,42.72,21.59,52.74,39.74,19.81,18.34,7.905,30.03,0,0,0,0,0,0,0,0,0,0,0,0,0,0,0,0,
141,44.67,18.84,3.025,3.826,39.14,30.78,8.576,-10.34,46.09,26.75,57.9,34.2,7.722,19.85,15.63,24.72,0,0,0,0,0,0,0,0,0,0,0,0,0,0,0,0,
142,23.29,-15.42,-8.258,9.009,28.75,20.1,-11.26,-28.2,29.5,30.26,53.3,27.02,4.9,21.72,26.35,30.15,0,0,0,0,0,0,0,0,0,0,0,0,0,0,0,0,
143,24.01,-2.745,-7.105,7.464,28.97,30.8,23.93,-22.87,28.01,41.26,58.34,39.33,18.87,26.82,34.5,44.62,0,0,0,0,0,0,0,0,0,0,0,0,0,0,0,0,
144,39.69,28.22,4.347,9.888,48.99,42.12,32.19,-3.082,32.99,57.7,59.59,44.73,30.98,36.31,30.34,46.38,0,0,0,0,0,0,0,0,0,0,0,0,0,0,0,0,
145,32.78,24.97,15.36,22.1,53.94,28.28,0.7898,0.8279,20.34,43.27,42.28,26.73,17.99,21.77,10.48,23.85,0,0,0,0,0,0,0,0,0,0,0,0,0,0,0,0,
146,7.983,-8.655,9.374,8.476,32.19,2.448,-21.95,-19.22,-5.927,-9.743,17.18,0.292,-23.02,-22.95,-14.8,-6.352,0,0,0,0,0,0,0,0,0,0,0,0,0,0,0,0,
147,-17.41,-39.42,-8.278,-36.61,10.7,-11.59,-19.65,-36.3,-15.49,-15.53,24.12,5.584,-33.87,-25.81,-7.907,0.2181,0,0,0,0,0,0,0,0,0,0,0,0,0,0,0,0,
148,-6.732,-22.75,4.15,-21.8,23.78,9.465,15.06,-21.16,12.72,41.9,56.83,40.35,4.024,18.19,18.22,30.51,0,0,0,0,0,0,0,0,0,0,0,0,0,0,0,0,
149,28.08,20.11,28.71,35.37,49.76,40.28,48.33,-10.42,34.04,45.98,48.41,36.52,16.51,17.5,8.687,25.79,0,0,0,0,0,0,0,0,0,0,0,0,0,0,0,0,
150,17.75,21.2,25.08,27.01,50.36,42.6,41.39,-26.98,19.13,0.1532,14.72,2.04,-3.849,-12.18,-8.895,9.281,0,0,0,0,0,0,0,0,0,0,0,0,0,0,0,0,
151,-7.54,4.325,29.5,15.57,52.26,44.65,25.89,-23.73,17.51,3.73,23.43,7.888,1.169,-1.045,3.653,20.52,0,0,0,0,0,0,0,0,0,0,0,0,0,0,0,0,
152,11.16,12.75,49.16,48.76,62.96,53.59,26.81,-13.79,26.73,13.42,41.5,27.34,10.13,4.196,4.51,17,0,0,0,0,0,0,0,0,0,0,0,0,0,0,0,0,
153,26.26,10.1,34.05,26.81,45.16,36.48,27.91,-33.87,8.643,-12.87,31.3,19.69,-5.318,-22.89,-7.949,-5.015,0,0,0,0,0,0,0,0,0,0,0,0,0,0,0,0,
154,22.34,-3.668,7.818,-8.007,27.4,23.98,22.56,-28.8,5.202,-9.715,35.11,24.32,-8.193,-24.78,6.045,4.567,0,0,0,0,0,0,0,0,0,0,0,0,0,0,0,0,
155,32.29,5.675,12.62,23.1,37.94,32.47,6.37,5.68,23.32,2.979,49.35,37.51,0.0869,-14.32,17.27,18.45,0,0,0,0,0,0,0,0,0,0,0,0,0,0,0,0,
156,25.91,9.68,18.34,25.64,35.05,18.49,-8.934,-2.068,16.71,-18.96,41.8,27.4,-4.69,-22.19,12.25,7.183,0,0,0,0,0,0,0,0,0,0,0,0,0,0,0,0,
157,6.598,-1.652,12.81,-3.644,24.51,4.146,-2.762,-19.7,19.59,-12.34,43.7,23.8,0.9023,-10.01,30.49,13.44,0,0,0,0,0,0,0,0,0,0,0,0,0,0,0,0,
158,16.39,0.0976,14.16,16.9,37.18,22.35,-0.0204,0.3436,46.32,27.55,51.77,23.54,10.21,11.37,39.32,26.15,0,0,0,0,0,0,0,0,0,0,0,0,0,0,0,0,
159,21.26,-1.347,11.17,25.68,41.11,31.96,-7.417,2.925,38.17,26.3,25.54,-0.5553,-3.481,1.622,6.667,8.831,0,0,0,0,0,0,0,0,0,0,0,0,0,0,0,0,
160,9.317,-7.279,13.23,3.534,35.48,33.85,16.55,-15.72,14.96,4.271,10.19,-0.6995,-5.524,-6.779,-0.1231,2.042,0,0,0,0,0,0,0,0,0,0,0,0,0,0,0,0,
161,26.43,11.38,37.41,26,50.34,52.37,45.08,-7.262,21.75,16.35,36.23,31.94,16.55,0.1131,27.7,17.23,0,0,0,0,0,0,0,0,0,0,0,0,0,0,0,0,
162,39.74,29.04,46.33,47.25,50.66,42.54,22.59,-0.1907,21.87,32.49,40.84,34.38,27.23,-3.55,27.21,18.57,0,0,0,0,0,0,0,0,0,0,0,0,0,0,0,0,
163,7.605,23.94,20.52,13.81,18.53,2.263,-9.015,-14.2,4.092,21.97,19.89,18.39,28.19,-3.568,15.08,18.01,0,0,0,0,0,0,0,0,0,0,0,0,0,0,0,0,
164,-17.44,20.35,-3.714,-7.923,1.214,-10.65,-5.712,-23.23,2.231,5.53,15.13,13.41,18.7,-4.603,10.69,16.79,0,0,0,0,0,0,0,0,0,0,0,0,0,0,0,0,
165,-15.78,11.18,-8.355,-5.381,4.886,-6.386,-0.1565,-32.22,7.28,-5.684,3.019,-9.569,-10.63,-27.15,-10.3,-3.549,0,0,0,0,0,0,0,0,0,0,0,0,0,0,0,0,
166,-23.62,-11.37,-2.52,-21.62,1.792,-13.09,-7.228,-31.93,6.164,-3.904,-14.16,-29.92,-21.86,-30.19,-15.9,-13.59,0,0,0,0,0,0,0,0,0,0,0,0,0,0,0,0,
167,-26,-19.22,7.546,-21.41,1.467,-13.89,-18.32,-11.93,6.225,18.38,-7.194,-21.48,-10.61,-4.751,2.917,-4.982,0,0,0,0,0,0,0,0,0,0,0,0,0,0,0,0,
168,-18.77,-18.77,8.345,3.667,4.19,-17.52,-33.32,-16.73,-7.567,23.07,-13.35,-30.83,-16.13,-6.024,-6.156,-10.65,0,0,0,0,0,0,0,0,0,0,0,0,0,0,0,0,
169,-34.43,-25.22,-1.861,-8.762,-8.391,-32.3,-20.8,-44.15,-26.84,-2.864,-30.36,-47.75,-16.58,-20.02,-19.9,-16.5,0,0,0,0,0,0,0,0,0,0,0,0,0,0,0,0,
170,-36.77,-11.77,6.854,-29.14,-11.4,-21.15,21.8,-39.5,-7.876,-2.271,-1.968,-17.47,12.89,0.8855,3.789,5.658,0,0,0,0,0,0,0,0,0,0,0,0,0,0,0,0,
171,2.826,13.96,33.97,1.726,8.451,7.886,26.94,-19.94,29.09,24.89,33.2,17.61,23.48,17.43,16.42,19.85,0,0,0,0,0,0,0,0,0,0,0,0,0,0,0,0,
172,18.3,2.879,31.8,18.5,8.381,2.221,-13.11,-25.05,25.22,18.33,24.79,8.77,-6.218,-8.173,-1.568,-5.863,0,0,0,0,0,0,0,0,0,0,0,0,0,0,0,0,
173,-5.825,-32.58,7.674,-12.2,-7.969,-18.59,-27.5,-27.77,5.215,-10.58,22.3,-0.1899,-23.23,-25.31,1.514,-25.35,0,0,0,0,0,0,0,0,0,0,0,0,0,0,0,0,
174,-5.862,-37.47,15.44,-10.11,5.029,-6.333,-9.732,-10.87,17.77,-17.2,39.61,13.43,-7.351,-8.6,17.4,-11.51,0,0,0,0,0,0,0,0,0,0,0,0,0,0,0,0,
175,10.8,-18.08,34.6,14.35,18.66,6.46,-11.37,-9.845,22.31,-10.47,20.62,6.728,-0.1669,-4.246,-2.918,-12.59,0,0,0,0,0,0,0,0,0,0,0,0,0,0,0,0,
176,-5.999,-13.27,19.07,-10.25,-7.487,-14.12,-26.13,-27.46,-13.5,-11.27,-23.89,-25.54,-8.296,-15.96,-32.96,-31.2,0,0,0,0,0,0,0,0,0,0,0,0,0,0,0,0,
177,-33.93,-13.33,-2.296,-31.57,-27.84,-24.62,-18.76,-27.04,-30.09,-11.56,-34.66,-37.87,1.115,-5.746,-26.71,-21.25,0,0,0,0,0,0,0,0,0,0,0,0,0,0,0,0,
178,-33.48,-5.991,0.2737,-8.955,-9.713,-10.07,-10.31,-18.62,-9.399,1.699,-17.95,-26.72,12.51,8.109,-12.45,-6.71,0,0,0,0,0,0,0,0,0,0,0,0,0,0,0,0,
179,-25.04,-15.27,1.542,-12.92,3.882,-13.96,-24.98,-28.04,-6.893,12.43,-14.81,-24.54,-5.157,-6.265,-19.59,-22.57,0,0,0,0,0,0,0,0,0,0,0,0,0,0,0,0,
180,-26.6,-29.07,-5.106,-35.85,-0.6631,-24.69,-26.6,-29.01,-11.14,4.631,-17.56,-21.34,-18.85,-19.05,-21.45,-34.38,0,0,0,0,0,0,0,0,0,0,0,0,0,0,0,0,
181,-15.37,-13.69,2.52,-13.86,8.375,-7.522,-2.229,-11.77,7.133,-1.397,-11.47,-6.6,-3.731,-7.708,-17.89,-27.93,0,0,0,0,0,0,0,0,0,0,0,0,0,0,0,0,
182,0.6879,2.533,11.58,9.902,15.66,4.079,4.717,-7.285,2.413,-6.214,-15.75,-8.761,1.733,-4.981,-32.32,-31.99,0,0,0,0,0,0,0,0,0,0,0,0,0,0,0,0,
183,-5.197,-7.934,7.04,0.7292,3.413,-6.444,-1.955,-7.884,-17.17,-19.91,-17,-13.31,-3.674,-13.89,-31.93,-34.88,0,0,0,0,0,0,0,0,0,0,0,0,0,0,0,0,
184,-7.779,-12.17,11.58,-0.2292,10.33,-3.829,5.789,0.3102,5.756,-12.54,6.359,8.246,11.32,-5.063,-3.14,-20.54,0,0,0,0,0,0,0,0,0,0,0,0,0,0,0,0,
185,7.655,-5.143,15.22,0.2695,32.84,2.071,-1.913,-10.5,30.58,-6.461,10.98,11.89,8.012,-7.446,-2.393,-25.79,0,0,0,0,0,0,0,0,0,0,0,0,0,0,0,0,
186,5.018,-20.16,-5.747,-14.72,23.17,-10.74,-27.55,-34.15,11.02,-42.42,-18.44,-21.87,-31.92,-40.81,-32.09,-55.11,0,0,0,0,0,0,0,0,0,0,0,0,0,0,0,0,
187,-15.73,-39.62,-11.05,-12.92,3.337,-13.82,-23.72,-31.91,-9.678,-54.58,-26.12,-35.86,-38.1,-44.91,-34.09,-58.36,0,0,0,0,0,0,0,0,0,0,0,0,0,0,0,0,
188,-16.17,-23.68,16.23,9.524,14.25,4.41,5.768,-12.88,-5.05,-10.96,-5.418,-18.28,-1.121,-9.534,-12.5,-38.47,0,0,0,0,0,0,0,0,0,0,0,0,0,0,0,0,
189,-1.492,8.392,26.91,24.3,26.82,14.75,24.96,-2.261,-0.712,11.71,-3.114,-15.36,12.24,2.674,-12.81,-38.56,0,0,0,0,0,0,0,0,0,0,0,0,0,0,0,0,
190,-8.509,11.67,9.237,13.55,10.88,1.1,16.91,1.508,-14.29,-0.078,-19.11,-29.53,-2.543,-8.741,-28.28,-47.97,0,0,0,0,0,0,0,0,0,0,0,0,0,0,0,0,
191,-29.87,-7.415,-6.585,-9.454,-5.214,-15.53,-10.53,0.089,-27.26,-1.304,-20.3,-29.81,-11.01,-10.2,-25.51,-41.24,0,0,0,0,0,0,0,0,0,0,0,0,0,0,0,0,
192,-29.92,-15.11,-6.217,-1.358,2.191,-9.441,-20.72,-2.372,-15.47,-0.4335,-14.57,-24.87,-18.94,-13.29,-20.1,-36.92,0,0,0,0,0,0,0,0,0,0,0,0,0,0,0,0,
193,-20.73,-20.75,3.277,25.03,9.145,1.654,-15.61,-2.032,2.179,-17.02,-24.66,-34.19,-35.83,-24.51,-36.16,-44.7,0,0,0,0,0,0,0,0,0,0,0,0,0,0,0,0,
194,-22.6,-38.39,8.463,17.29,10.19,-0.4463,-20.7,-3.735,7.082,-37.2,-28.78,-35.29,-39.35,-28.4,-43.15,-42.76,0,0,0,0,0,0,0,0,0,0,0,0,0,0,0,0,
195,-11.86,-35.19,15.4,4.797,28.18,7.223,-4.544,3.31,10.71,-34.74,-11.81,-13.9,-13.64,-20.06,-27.84,-29.58,0,0,0,0,0,0,0,0,0,0,0,0,0,0,0,0,
196,10.22,-3.13,25.53,22.16,39.43,21.67,26.1,13.06,10.45,-3.421,4.109,6.299,17.91,0.3334,-14.35,-17.5,0,0,0,0,0,0,0,0,0,0,0,0,0,0,0,0,
197,17.63,15.62,17.96,24.18,20.24,16.38,14.41,-1.989,8.32,14.05,14.78,11.04,22.75,14.17,-0.8579,-10.02,0,0,0,0,0,0,0,0,0,0,0,0,0,0,0,0,
198,15.49,4.917,3.177,4.855,2.517,1.141,-11.52,-16.6,7.906,-17.43,14.68,-0.2906,-0.6927,-3.26,-1.466,-20.27,0,0,0,0,0,0,0,0,0,0,0,0,0,0,0,0,
199,4.086,-21.86,-3.984,1.076,-6.854,-11.35,-19.03,-5.439,-7.265,-56.42,-7.217,-20.61,-28.63,-27.45,-30.44,-38.72,0,0,0,0,0,0,0,0,0,0,0,0,0,0,0,0,
200,-17.18,-51.86,-23.84,-8.175,-20.63,-20.99,-36.68,-3.385,-19.14,-53.82,-22.73,-30.14,-39.4,-24.99,-43.66,-34.64,0,0,0,0,0,0,0,0,0,0,0,0,0,0,0,0,
201,-21.85,-57.04,-31.47,-23.56,-8.31,-15.24,-36.38,-4.958,-3.169,-23.43,-15.53,-21.86,-27.44,-7.671,-28.32,-20.39,0,0,0,0,0,0,0,0,0,0,0,0,0,0,0,0,
202,-2.864,-22.36,12.66,4.722,31.3,3.923,7.106,19.3,19.22,4.744,2.224,1.361,-3.411,12.61,-14.49,-14.88,0,0,0,0,0,0,0,0,0,0,0,0,0,0,0,0,
203,16.97,15.81,47.92,43.89,44.33,10.49,32.9,30.22,29.18,11.86,21.96,21.85,8.267,25.37,-7.533,-11.51,0,0,0,0,0,0,0,0,0,0,0,0,0,0,0,0,
204,14.08,20,23.22,29.1,20.17,-3.853,22.44,16.09,18.78,-6.313,18.45,5.952,-5.026,9.594,-18.58,-19.91,0,0,0,0,0,0,0,0,0,0,0,0,0,0,0,0,
205,-17.42,-0.0036,-1.824,-6.298,-5.815,-21.17,11.46,15.61,-12.66,-22,-8.247,-33.14,-25.4,-17.47,-46.17,-40.13,0,0,0,0,0,0,0,0,0,0,0,0,0,0,0,0,
206,-53.04,-22.93,-1.078,-21.11,-22.15,-31.84,-1.834,15.03,-35.11,-20.89,-22.97,-52.86,-35.59,-26.78,-58.92,-50.82,0,0,0,0,0,0,0,0,0,0,0,0,0,0,0,0,
207,-63.29,-33.13,-6.144,-17.17,-23.61,-32.11,-9.268,9.768,-30.7,-9.398,-23.7,-46.95,-28.53,-14.81,-50.07,-42.98,0,0,0,0,0,0,0,0,0,0,0,0,0,0,0,0,
208,-42.99,-14.48,-1.303,12.27,-3.408,-15.65,1.087,22.87,-18.24,6.951,-17.78,-27.17,-10.66,6.166,-34.63,-23.47,0,0,0,0,0,0,0,0,0,0,0,0,0,0,0,0,
209,-19.25,3.451,8.854,25.42,5.802,-6.639,-6.674,16.24,-13.25,-5.578,-9.573,-15.3,-12.48,3.68,-31.73,-16.67,0,0,0,0,0,0,0,0,0,0,0,0,0,0,0,0,
210,-21.47,-14.21,-6.474,-13.29,-11.67,-19.7,-24.06,-13.84,-9.461,-30.58,-14.83,-20.82,-23.35,-11.29,-36.78,-22.05,0,0,0,0,0,0,0,0,0,0,0,0,0,0,0,0,
211,-27.58,-24.62,-11.59,-31.1,-16.2,-17.17,-5.869,-8.272,1.154,-9.761,-17.21,-14.62,-9.68,0.7077,-20.96,-12.13,0,0,0,0,0,0,0,0,0,0,0,0,0,0,0,0,
212,-10.23,-4.281,12.96,6.003,2.913,9.101,18.04,10.82,12.5,4.537,-3.589,4.519,-2.546,5.352,-1.876,1.956,0,0,0,0,0,0,0,0,0,0,0,0,0,0,0,0,
213,9.283,0.9877,28.61,33.37,23.39,27.27,15.9,2.804,22.92,-19.3,7.648,13.35,-13.25,-8.379,-0.998,13.1,0,0,0,0,0,0,0,0,0,0,0,0,0,0,0,0,
214,19.68,-10.22,28.19,26.69,41.17,35.46,8.885,1.191,36.68,-5.6,19.12,19.87,-7.11,3.261,5.776,29.66,0,0,0,0,0,0,0,0,0,0,0,0,0,0,0,0,
215,27.68,-12.76,29.81,14.81,49.42,39.51,0.225,19.81,46.46,21.56,29.8,20.8,-2.65,10.62,13.25,26.02,0,0,0,0,0,0,0,0,0,0,0,0,0,0,0,0,
216,26.61,-10.67,39.05,26.51,45.15,38.11,-0.4469,36.1,47.33,10.76,23.55,5.816,-10.45,-2.77,4.715,12.36,0,0,0,0,0,0,0,0,0,0,0,0,0,0,0,0,
217,21.28,4.278,42.35,48.7,36.82,36.96,21.08,31.9,36.41,6.606,14.62,-3.841,-3.86,3.864,-2.739,21.29,0,0,0,0,0,0,0,0,0,0,0,0,0,0,0,0,
218,16.28,25.41,26.02,32.42,23.48,33.37,35.26,5.513,16.77,0.9595,17.21,1.858,3.878,9.47,1.182,29.95,0,0,0,0,0,0,0,0,0,0,0,0,0,0,0,0,
219,7.606,26.86,15.41,3.649,15.68,29.56,31.46,-2.768,11.41,-20.11,21.35,10.14,2.992,0.4241,15.01,28.92,0,0,0,0,0,0,0,0,0,0,0,0,0,0,0,0,
220,3.696,17.03,21.53,10.59,22.53,31.62,26.49,19.95,22.19,-3.464,23.04,15.44,7.801,11.41,28.3,35.01,0,0,0,0,0,0,0,0,0,0,0,0,0,0,0,0,
221,7.689,12.99,18.14,15.14,27.14,35.04,20.43,32.14,27.88,28.12,25.38,21.17,13.75,25.62,30.81,39.43,0,0,0,0,0,0,0,0,0,0,0,0,0,0,0,0,
222,16.3,20.89,13.92,10.76,24.12,37.59,20.52,33.82,26.83,20.13,22.91,25.03,17.13,19.9,28.73,39.71,0,0,0,0,0,0,0,0,0,0,0,0,0,0,0,0,
223,21.47,32.21,19.88,22.64,21.47,30.39,19.14,40.21,17.44,7.516,6.984,12.12,17.47,17.24,14.64,39.97,0,0,0,0,0,0,0,0,0,0,0,0,0,0,0,0,
224,3.868,20.33,12.38,4.277,12.35,6.934,-2.746,30.1,-2.622,17.33,-17.17,-16.74,7.351,17.92,-15.43,30.46,0,0,0,0,0,0,0,0,0,0,0,0,0,0,0,0,
225,-31.17,-7.735,-8.81,-39.54,-9.3,-20.43,-22.16,5.911,-18.23,9.352,-40.1,-42.2,-15.92,-2.208,-40.99,9.084,0,0,0,0,0,0,0,0,0,0,0,0,0,0,0,0,
226,-55.91,-25.31,-25.43,-36.69,-27.79,-39.94,-24.55,-8.447,-26.01,-14.07,-58.3,-53.86,-41.67,-26.3,-53.59,-8.897,0,0,0,0,0,0,0,0,0,0,0,0,0,0,0,0,
227,-54.27,-32.84,-29.29,-6.308,-25.6,-39.39,-25.22,-6.572,-30.25,-11.71,-59.16,-46.54,-51.62,-27.34,-56.23,-11.38,0,0,0,0,0,0,0,0,0,0,0,0,0,0,0,0,
228,-33.35,-32.77,-19.61,-1.765,-18.73,-25.37,-21.81,3.608,-30.55,-18.65,-48.49,-37.54,-56.35,-30.63,-59.18,-15.13,0,0,0,0,0,0,0,0,0,0,0,0,0,0,0,0,
229,-28.99,-32.62,-12.65,-5.343,-27.13,-26.98,-17.01,7.66,-34.55,-48.05,-48.66,-45.26,-61.87,-40.32,-64.46,-22.02,0,0,0,0,0,0,0,0,0,0,0,0,0,0,0,0,
230,-45.44,-36.08,-14.38,1.577,-32.44,-33.09,-19.32,12.17,-35.9,-25.31,-38.91,-36.63,-37.16,-16.43,-44.61,-0.4393,0,0,0,0,0,0,0,0,0,0,0,0,0,0,0,0,
231,-42.32,-23.24,-8.934,4.672,-25.09,-25.53,-22.25,25.69,-24,17.82,-5.893,-7.325,-2.352,11.28,-10.44,28.79,0,0,0,0,0,0,0,0,0,0,0,0,0,0,0,0,
232,-32.27,-8.064,-3.108,3.877,-23.84,-28.67,-31.22,20.95,-12.85,-0.5946,6.81,-8.634,-6.313,-3.812,-10.81,20.07,0,0,0,0,0,0,0,0,0,0,0,0,0,0,0,0,
233,-47.04,-20.85,-15.09,0.24,-32.14,-41.87,-45.27,-4.78,-9.812,-25.76,-16.49,-37.98,-30.83,-27.74,-39.74,-7.428,0,0,0,0,0,0,0,0,0,0,0,0,0,0,0,0,
234,-64.08,-42.45,-32.99,-18.72,-44.78,-47.53,-49.05,-14.4,-13.58,-18.57,-48.92,-64.32,-51.21,-37.16,-64.51,-28.5,0,0,0,0,0,0,0,0,0,0,0,0,0,0,0,0,
235,-73.34,-54.02,-39,-34.78,-54.85,-56.43,-51.81,-12.68,-27.51,-21.34,-72.31,-84.03,-68.84,-45.66,-78.51,-46.37,0,0,0,0,0,0,0,0,0,0,0,0,0,0,0,0,
236,-77.69,-62.65,-34.82,-19.82,-47.91,-57.89,-54.93,-19.59,-33.03,-30.26,-72.89,-81.32,-71.07,-47.9,-77.7,-50.07,0,0,0,0,0,0,0,0,0,0,0,0,0,0,0,0,
237,-59.02,-60.33,-20.19,4.563,-32.1,-33.6,-32.54,-5.096,-20.69,-33.14,-59.5,-57.29,-56.73,-41.32,-64.08,-37.01,0,0,0,0,0,0,0,0,0,0,0,0,0,0,0,0,
238,-25.97,-40.17,4.369,12.63,-20.44,-2.004,7.703,29.78,-7.186,-31.52,-45.69,-32.05,-34.25,-26.86,-39.48,-16.28,0,0,0,0,0,0,0,0,0,0,0,0,0,0,0,0,
239,7.308,-14.53,24.15,19.5,-0.1718,21.65,34.15,32.62,17.86,-10.92,-3.775,7.496,1.713,1.393,12.41,23.04,0,0,0,0,0,0,0,0,0,0,0,0,0,0,0,0,
240,41.73,9.217,33.73,38.01,22.25,31.42,40.46,22.63,52.07,11.76,58.22,52.84,44.71,35.56,73.6,72.91,0,0,0,0,0,0,0,0,0,0,0,0,0,0,0,0,
241,52.11,25.19,26.68,45.23,14.31,14.11,18.31,31.5,50.99,17.69,75.87,60.85,67.99,58.37,88.19,91.53,0,0,0,0,0,0,0,0,0,0,0,0,0,0,0,0,
242,28.09,17.88,-8.857,5.461,-16.91,-17.87,-23.96,5.412,23.66,21.15,47.93,36.11,54.58,54.91,54.91,69.96,0,0,0,0,0,0,0,0,0,0,0,0,0,0,0,0,
243,1.426,-5.393,-38.95,-49.92,-33.47,-33.85,-30.51,-35.99,8.182,16.31,19.35,8.077,17.51,22.98,17.2,31.1,0,0,0,0,0,0,0,0,0,0,0,0,0,0,0,0,
244,-17.29,-22.42,-34.27,-46.52,-34.23,-34.78,-10.87,-12.75,-14.43,-10.32,-12.26,-23.71,-21.62,-18.6,-15.49,-14.96,0,0,0,0,0,0,0,0,0,0,0,0,0,0,0,0,
245,-40.2,-39.93,-29.67,-11.87,-35.55,-38.08,-26.33,25.36,-40.32,-22.34,-45.53,-47.42,-41.26,-35.04,-34.59,-39.89,0,0,0,0,0,0,0,0,0,0,0,0,0,0,0,0,
246,-49.97,-47.6,-26.22,-1.571,-25.31,-30.43,-27.77,33.54,-29.94,8.105,-53.02,-38.33,-22.39,-14.5,-23.55,-21.96,0,0,0,0,0,0,0,0,0,0,0,0,0,0,0,0,
247,-29.43,-18.86,5.1,17.93,-4.186,-5.14,21.93,49.11,-12.26,21.56,-49.16,-19.32,4.463,-1.486,-10.68,-4.816,0,0,0,0,0,0,0,0,0,0,0,0,0,0,0,0,
248,-9.942,5.426,25.78,39.52,2.949,5.522,33.03,44.71,-21.13,-12.84,-51.5,-15.13,6.894,-10.5,-12.14,-8.323,0,0,0,0,0,0,0,0,0,0,0,0,0,0,0,0,
249,-3.177,1.069,19.48,32.55,6.605,8.63,11.3,26.2,-17.21,-16.72,-32.34,6.647,22.58,9.93,-1.117,4.665,0,0,0,0,0,0,0,0,0,0,0,0,0,0,0,0,
250,30.13,18.49,30.83,38.92,29.05,40.28,43.01,47.43,15.26,18.56,7.556,49.2,54.8,44.99,19.88,23.05,0,0,0,0,0,0,0,0,0,0,0,0,0,0,0,0,
251,67.66,42.11,46.27,44.9,45.92,59.76,72.32,55.42,34.55,14.96,24.19,57.46,50.28,37.44,24.8,13.57,0,0,0,0,0,0,0,0,0,0,0,0,0,0,0,0,
252,51.68,23.71,30.9,20.31,33.81,29.4,38.07,33.13,21.48,-0.392,7.378,29.15,25.97,16.69,7.641,-7.292,0,0,0,0,0,0,0,0,0,0,0,0,0,0,0,0,
253,17.72,4.091,6.257,18.33,16.34,3.905,7.591,38.98,-1.14,22.29,-15.11,10.52,21.62,16.09,-15.99,-19.97,0,0,0,0,0,0,0,0,0,0,0,0,0,0,0,0,
254,9.39,13.71,-11.34,28.93,11.25,4.128,18.03,36.71,-5.236,31.97,-22.76,7.236,19.85,14.2,-18.96,-21.53,0,0,0,0,0,0,0,0,0,0,0,0,0,0,0,0,
255,2.603,26.28,-16.52,12.42,7.415,-4.41,31.95,13.62,7.665,16.69,-16.89,4.998,13.93,15.26,-3.461,-10.83,0,0,0,0,0,0,0,0,0,0,0,0,0,0,0,0,
256,-3.11,29.38,4.188,15.71,11.78,-4.439,26.48,34.45,11.87,13.53,-14.19,1.812,7.311,18.41,1.54,-4.49,0,0,0,0,0,0,0,0,0,0,0,0,0,0,0,0,
257,-0.3218,9.538,24.03,39.24,27.47,9.572,10.03,65.12,-0.4427,-1.325,-21.49,-7.858,-10.99,-1.721,-4.263,-13.94,0,0,0,0,0,0,0,0,0,0,0,0,0,0,0,0,
258,-11.07,-22.79,13.05,31.84,19.44,-3.648,4.225,44.44,-18.56,-23.47,-29.9,-18.68,-15.06,-13.44,-6.952,-21.55,0,0,0,0,0,0,0,0,0,0,0,0,0,0,0,0,
259,-21.79,-18.43,-6.76,4.51,-9.001,-25.97,6.91,12.68,-30.91,-2.544,-38.93,-19.36,10.95,13.39,-11.35,-18.07,0,0,0,0,0,0,0,0,0,0,0,0,0,0,0,0,
260,-17.65,8.671,-13.24,-20.17,-7.79,-19.58,1.258,5.521,-27.84,32.16,-48.04,-19.69,24.55,33.83,-16.16,-13.64,0,0,0,0,0,0,0,0,0,0,0,0,0,0,0,0,
261,-22.6,12.59,-6.806,-24.28,15.06,-7.999,6.676,2.197,-21.27,39.59,-46.02,-23.92,15.72,31.47,-10.25,-6.523,0,0,0,0,0,0,0,0,0,0,0,0,0,0,0,0,
262,-30.72,13.13,5.943,10.42,17.45,-7.275,28.36,1.986,-23.88,38.05,-33.49,-16.99,12.14,33.23,0.2535,5.57,0,0,0,0,0,0,0,0,0,0,0,0,0,0,0,0,
263,-19.11,20.33,5.306,36.14,8.552,-3.801,27.89,19.07,-15.77,26.95,-16.3,3.344,10.63,28.26,8.933,17.69,0,0,0,0,0,0,0,0,0,0,0,0,0,0,0,0,
264,1.74,10.86,-5.229,18.54,10.01,-0.4676,4.932,34.87,6.59,15.48,0.949,19.89,8.757,15.47,19.42,31.2,0,0,0,0,0,0,0,0,0,0,0,0,0,0,0,0,
265,10.84,-0.6747,-4.042,12.23,12.79,-4.843,-15.53,30.78,10.33,12.15,-4.286,10.7,1.044,5.383,13.12,26.77,0,0,0,0,0,0,0,0,0,0,0,0,0,0,0,0,
266,-5.558,-10.9,-7.234,23.21,8.935,-15.68,-35.63,16.07,-6.886,-27.65,-27.93,-15.35,-23.89,-15.46,-6.844,1.226,0,0,0,0,0,0,0,0,0,0,0,0,0,0,0,0,
267,-25.15,-30.48,-18.61,-3.095,7.985,-21.99,-40.36,0.6966,-10.63,-63.94,-22.29,-11.38,-24.86,-16.67,8.453,7.259,0,0,0,0,0,0,0,0,0,0,0,0,0,0,0,0,
268,-10.28,-28.41,-14.22,-31.38,9.914,-14.73,-19.79,-6.81,2.851,-26.67,5.468,16.87,7.125,15.55,39.69,39.68,0,0,0,0,0,0,0,0,0,0,0,0,0,0,0,0,
269,8.526,-8.426,-11.64,-9.101,1.384,-9.288,-7.433,-0.209,5.324,8.294,6.288,15.44,13.6,22.88,27.82,37.6,0,0,0,0,0,0,0,0,0,0,0,0,0,0,0,0,
270,-1.899,-3.688,-16.4,15.59,-7.092,-11.62,-6.591,7.872,-3.394,0.5722,-1.496,0.2939,4.222,11.88,7.655,24.66,0,0,0,0,0,0,0,0,0,0,0,0,0,0,0,0,
271,-8.879,1.828,-1.934,5.365,-2.18,-9.711,2.057,7.003,-3.517,5.818,5.723,5.072,8.465,18.47,16.8,36.33,0,0,0,0,0,0,0,0,0,0,0,0,0,0,0,0,
272,-8.415,5.678,7.338,-7.978,1.452,-8.593,1.074,1.688,4.42,1.206,3.253,7.646,0.5467,11.41,27.33,39.04,0,0,0,0,0,0,0,0,0,0,0,0,0,0,0,0,
273,-10.46,-5.434,-0.703,-0.6472,11.32,-3.935,-8.814,-3.737,18.35,-19.52,5.129,10.79,-2.929,-2.345,36.54,28.82,0,0,0,0,0,0,0,0,0,0,0,0,0,0,0,0,
274,4.492,-2.295,4.309,11.37,27.57,3.577,-10.98,-11.73,23.88,-27.53,20.3,18.32,8.229,-3.255,36.83,20.41,0,0,0,0,0,0,0,0,0,0,0,0,0,0,0,0,
275,2.378,-2.149,-3.253,-10.9,5.937,-15.45,-22.36,-22.48,-2.55,-60.27,7.608,0.2799,-4.597,-19.67,12.45,5.902,0,0,0,0,0,0,0,0,0,0,0,0,0,0,0,0,
276,-27.71,-23.99,-30.75,-44.32,-25.2,-33.86,-31.21,-18.4,-19.66,-71.21,-8.397,-9.054,-8.296,-19.5,11.79,10.5,0,0,0,0,0,0,0,0,0,0,0,0,0,0,0,0,
277,-13.79,-14.77,-25.89,-16.71,-10.14,-11.04,-16.25,-1.024,1.219,-4.474,12.39,26.47,27.11,21.29,43.64,39.64,0,0,0,0,0,0,0,0,0,0,0,0,0,0,0,0,
278,27.88,13.05,-14.26,22.61,-5.353,0.9178,-15.28,-8.287,0.4097,22.75,26.59,54.14,44.5,37.5,53.68,50.69,0,0,0,0,0,0,0,0,0,0,0,0,0,0,0,0,
279,33.26,9.414,-24.74,3.804,-22.3,-10.62,-21.88,-21.93,-8.396,-9.611,31.08,57.11,42.9,31.89,58.91,52.55,0,0,0,0,0,0,0,0,0,0,0,0,0,0,0,0,
280,40.13,14.52,-4.67,3.982,8.943,14.36,8.442,5.306,31.92,11.73,52.63,61.93,53.21,45.59,72.62,60.87,0,0,0,0,0,0,0,0,0,0,0,0,0,0,0,0,
281,53.94,29.91,16.78,27.36,29.99,35.62,25.1,15.21,44.74,20.21,41.27,42.85,34,31.22,45.39,40.34,0,0,0,0,0,0,0,0,0,0,0,0,0,0,0,0,
282,26.31,3.982,-11.58,-12.15,-10.11,5.709,2.948,-40.19,-2.256,-41.8,4.656,13.54,-2.942,-6.723,11.78,14.99,0,0,0,0,0,0,0,0,0,0,0,0,0,0,0,0,
283,10.03,-13.52,-15.63,-33.96,-11.59,-2.542,7.083,-65.68,-6.283,-45.33,15.81,30.44,9.476,2.841,31.22,33.4,0,0,0,0,0,0,0,0,0,0,0,0,0,0,0,0,
284,43.41,16.38,18.81,17.21,29.35,23.3,15.42,-20.75,25,-1.272,40.16,54.4,38.17,25.27,52.9,52.99,0,0,0,0,0,0,0,0,0,0,0,0,0,0,0,0,
285,47.79,24.28,10.75,16.61,19.94,11.73,-14.32,-5.439,10.91,-19.35,25.86,32.75,32.47,12.72,41,42.39,0,0,0,0,0,0,0,0,0,0,0,0,0,0,0,0,
286,5.793,0.292,-17.18,-31.98,-8.82,-16.01,-20.81,-35.96,-14.67,-27.76,9.203,5.737,22.61,8.091,28.2,32.41,0,0,0,0,0,0,0,0,0,0,0,0,0,0,0,0,
287,-12.6,1.649,-10.86,-13.48,-2.846,-9.867,6.982,-33.44,-9.801,14.3,6.772,-0.0555,17.43,13.04,19.35,19.86,0,0,0,0,0,0,0,0,0,0,0,0,0,0,0,0,
288,-2.237,14.09,2.447,31.09,14.18,5.639,12.22,-9.588,3.739,11.67,6.914,-1.039,2.803,-4.284,14.42,-1.129,0,0,0,0,0,0,0,0,0,0,0,0,0,0,0,0,
289,4.32,9.124,1.568,27.25,27.73,9.47,-5.745,-13.06,15.01,-22.98,14.23,6.039,-1.058,-15.56,19.44,-6.08,0,0,0,0,0,0,0,0,0,0,0,0,0,0,0,0,
290,9.816,4.671,-8.773,2.484,28.22,6.157,-25.01,-28.65,15.71,-24.02,18.37,13.57,2.3,-8.021,16.93,-0.6487,0,0,0,0,0,0,0,0,0,0,0,0,0,0,0,0,
291,14.74,1.158,-23.93,-15.21,10.19,-2.21,-27.48,-35,7.185,-9.659,19.98,14.29,-1.396,-2.76,16.59,3.24,0,0,0,0,0,0,0,0,0,0,0,0,0,0,0,0,
292,20.79,-3.387,-27.43,-23.15,0.0078,-1.571,-11.24,-16.96,9.997,2.957,30.72,24.88,-0.032,-0.1205,26.84,7.177,0,0,0,0,0,0,0,0,0,0,0,0,0,0,0,0,
293,29.64,0.2546,-26.76,-19.22,-8.289,-3.836,-19.37,13.41,1.403,-7.705,26.77,23.26,-9.403,-11.79,11.19,-5.017,0,0,0,0,0,0,0,0,0,0,0,0,0,0,0,0,
294,11.75,-9.647,-40.8,-11.72,-34.1,-33.23,-41.83,3.194,-31.68,-43.92,2.462,-5.442,-30.18,-29.57,-14.54,-18.22,0,0,0,0,0,0,0,0,0,0,0,0,0,0,0,0,
295,-19.04,-22.76,-38.74,2.582,-37.61,-45.08,-15.82,-14.82,-31.11,-25.44,-1.426,-7.959,-14.79,-6.274,4.4,7.231,0,0,0,0,0,0,0,0,0,0,0,0,0,0,0,0,
296,-9.115,1.59,-4.294,25.01,-8.014,-11.61,24.56,9.373,2.822,32.2,15.77,15.53,12.1,27.47,31,35.01,0,0,0,0,0,0,0,0,0,0,0,0,0,0,0,0,
297,10.06,22.72,3.351,24.72,-9.145,0.0362,10.69,3.457,-2.386,24.42,14.55,8.124,-5.38,11.2,13.82,15.77,0,0,0,0,0,0,0,0,0,0,0,0,0,0,0,0,
298,-1.764,5.757,-24.53,4.341,-38.23,-21.4,-18.4,-25.37,-27.8,0.9251,3.488,-5.517,-20.59,-9.804,-5.967,-9.081,0,0,0,0,0,0,0,0,0,0,0,0,0,0,0,0,
299,-5.524,-0.3442,-22.37,7.874,-33.93,-18.81,-18.77,0.6027,-21.42,22.28,0.7316,-1.257,-6.712,-5.074,-10.74,-13.54,0,0,0,0,0,0,0,0,0,0,0,0,0,0,0,0,
300,-12.97,-0.7459,-14.2,2.843,-25.55,-19.75,-21.79,-1.776,-24.02,15.65,-18.67,-25.55,-14.43,-16.57,-30.52,-25.21,0,0,0,0,0,0,0,0,0,0,0,0,0,0,0,0,
301,-53.8,-20.12,-38.77,-41.29,-41.91,-43.92,-21.87,-46.84,-48.97,-4.256,-37.76,-53.38,-21.72,-22.56,-37.9,-23.67,0,0,0,0,0,0,0,0,0,0,0,0,0,0,0,0,
302,-61.37,-9.364,-26.45,-33.42,-27.46,-31.61,4.705,-9.131,-43.04,10.93,-18.56,-33.2,1.435,-4.841,-22.46,-4.872,0,0,0,0,0,0,0,0,0,0,0,0,0,0,0,0,
303,-21.99,18.31,14.46,29.64,-2.65,-6.233,8.624,47.46,-20.98,0.8069,-0.9755,-14.03,3.166,-9.352,-25.11,-11.31,0,0,0,0,0,0,0,0,0,0,0,0,0,0,0,0,
304,-8.593,8.407,-1.311,30.47,-23.38,-22.75,-20.41,23.07,-24.97,-16.9,-11.62,-23.15,-15.12,-19.5,-28.92,-20.36,0,0,0,0,0,0,0,0,0,0,0,0,0,0,0,0,
305,-16.11,-6.311,-28.85,-7.528,-34.38,-31.6,-22.78,-2.532,-32.25,6.819,-15.04,-23.74,-17.01,-13.57,-13.41,-9.117,0,0,0,0,0,0,0,0,0,0,0,0,0,0,0,0,
306,-10.05,-9.882,-13.16,-7.61,-9.891,-10.03,-9.162,-0.5996,-23.86,7.605,-9.749,-19.95,-21.74,-24.12,-7.377,-7.908,0,0,0,0,0,0,0,0,0,0,0,0,0,0,0,0,
307,-3.993,-22.46,0.3888,4.562,1.087,2.855,-11.19,-7.175,-10.18,-9.609,-5.476,-17.79,-22.88,-28.26,-7.937,-8.144,0,0,0,0,0,0,0,0,0,0,0,0,0,0,0,0,
308,6.165,-17,0.7101,12.92,6.514,16.26,2.391,-2.067,6.377,12.39,4.489,-6.272,-6.745,-12.07,-7.829,-3.372,0,0,0,0,0,0,0,0,0,0,0,0,0,0,0,0,
309,20.26,2.043,6.755,9.744,15.45,32.61,26.85,13.5,10.2,25.77,2.745,-5.057,-4.38,-17.78,-18.93,-12.95,0,0,0,0,0,0,0,0,0,0,0,0,0,0,0,0,
310,18.82,3.97,13.99,-2.958,9.763,27.08,26.07,30.87,-2.589,10.9,-7.741,-11.97,-11.72,-27.67,-23.09,-15.11,0,0,0,0,0,0,0,0,0,0,0,0,0,0,0,0,
311,15.91,6.569,22.42,22.09,9.178,15.97,13.69,46.91,-4.242,3.827,-7.526,-7.499,-8.526,-19.67,-16.09,-6.41,0,0,0,0,0,0,0,0,0,0,0,0,0,0,0,0,
312,17.21,10.18,14.73,44.86,6.979,8.674,3.767,23.22,-2.467,-14.81,-11.01,-6.959,-8.61,-24.88,-15.9,-11.64,0,0,0,0,0,0,0,0,0,0,0,0,0,0,0,0,
313,3.127,1.569,-9.92,9.969,-20.25,-7.921,-3.964,-23.68,-20.69,-36.26,-18.55,-14.61,-5.244,-28.92,-13.08,-9.133,0,0,0,0,0,0,0,0,0,0,0,0,0,0,0,0,
314,-20.54,4.566,-15.71,-14.24,-40.99,-21.85,-0.2375,-24.65,-39.88,-8.434,-16.24,-19.56,14.37,-4.386,-6.36,12.68,0,0,0,0,0,0,0,0,0,0,0,0,0,0,0,0,
315,-38.71,16.99,-9.557,-1.63,-34.64,-24.03,-1.603,19.19,-40.89,44.19,-16.01,-26.6,26.02,18.52,-12.81,18.35,0,0,0,0,0,0,0,0,0,0,0,0,0,0,0,0,
316,-40.92,13.54,-8.707,0.9109,-15.22,-17.76,-15.51,47.68,-26.36,55.09,-20.66,-31.76,12.68,14,-29.37,-3.296,0,0,0,0,0,0,0,0,0,0,0,0,0,0,0,0,
317,-26.87,1.824,-2.102,-4.317,-1.89,-10.97,-11.93,33.86,-18.18,21.57,-25.57,-34.42,-8.863,-5.767,-46.51,-28.04,0,0,0,0,0,0,0,0,0,0,0,0,0,0,0,0,
318,-22.62,-6.062,-6.037,-16.57,-15.39,-18.88,4.799,12.52,-37.08,-0.3528,-31.11,-37.92,-15.83,-15.11,-55.56,-36.35,0,0,0,0,0,0,0,0,0,0,0,0,0,0,0,0,
319,-24.95,-8.461,-16.98,-25.82,-27.75,-23.13,1.92,15.91,-42.62,17.5,-23.47,-27.72,-8.908,-6.256,-47.88,-28.71,0,0,0,0,0,0,0,0,0,0,0,0,0,0,0,0,
320,-8.66,-6.03,-5.71,-1.824,-11.72,-9.318,-14.93,17.9,-13.76,24.04,-12.98,-15.5,-10.1,-10.97,-38.79,-23.23,0,0,0,0,0,0,0,0,0,0,0,0,0,0,0,0,
321,1.602,-7.379,-0.7079,13.44,-10.07,-10.17,-13.98,2.02,-6.832,-13.07,-18.54,-18.67,-19.69,-36.48,-39.36,-25.68,0,0,0,0,0,0,0,0,0,0,0,0,0,0,0,0,
322,-4.035,-8.103,-12.07,-3.61,-24.23,-18.24,8.611,-0.4202,-16.3,-24.56,-12.88,-9.18,-13.41,-35.96,-29.8,-18.18,0,0,0,0,0,0,0,0,0,0,0,0,0,0,0,0,
323,8.072,0.0304,3.657,0.0018,-9.858,-1.045,15.71,15.87,0.1317,15.53,8.223,12.65,3.45,-10.44,-12.34,-5.088,0,0,0,0,0,0,0,0,0,0,0,0,0,0,0,0,
324,27.16,4.681,32.23,23.3,10.7,15.99,1.315,27.17,11.14,24.12,12.71,14.48,8.302,-6.416,-6.811,-7.921,0,0,0,0,0,0,0,0,0,0,0,0,0,0,0,0,
325,31.27,5.016,35.68,31.82,12.24,18.55,8.875,27.66,9.389,-2.164,12.4,12.37,10.08,-10.87,-0.19,-12.75,0,0,0,0,0,0,0,0,0,0,0,0,0,0,0,0,
326,33.22,16.55,26.91,29.36,12.76,24.08,31.41,19.72,14.92,8.085,16.34,15.38,14.97,-2.155,5.744,-8.745,0,0,0,0,0,0,0,0,0,0,0,0,0,0,0,0,
327,23.62,29.26,21.93,21.15,11.66,20.13,30.56,14,3.317,14.04,4.865,-2.101,3.288,-8.947,-9.469,-17.68,0,0,0,0,0,0,0,0,0,0,0,0,0,0,0,0,
328,-6.222,17.84,18.95,21.88,6.473,3.513,15.85,20.02,-11.93,-31.43,-2.468,-21.8,-16.68,-24.43,-15.78,-28.48,0,0,0,0,0,0,0,0,0,0,0,0,0,0,0,0,
329,-19.86,-6.337,20.2,42.17,8.702,0.9918,1.385,26.14,1.801,-40.44,11.36,-13.72,-11.37,-9.417,6.967,-13.08,0,0,0,0,0,0,0,0,0,0,0,0,0,0,0,0,
330,2.46,-5.646,31.84,54.06,15.71,15.14,-2.553,30.71,13.64,13.3,18.65,0.5174,10.17,13.93,15.06,4.763,0,0,0,0,0,0,0,0,0,0,0,0,0,0,0,0,
331,26.77,10.48,40.69,41,13.58,20.56,8.654,32.63,2.081,15.19,7.841,-2.883,8.057,3.649,-3.509,-2.239,0,0,0,0,0,0,0,0,0,0,0,0,0,0,0,0,
332,29.04,6.766,27.27,20.77,0.4759,12.2,6.893,13.97,-5.625,-36.61,0.7114,-6.25,-6.594,-12.09,-3.51,-8.453,0,0,0,0,0,0,0,0,0,0,0,0,0,0,0,0,
333,31.55,3.083,16.02,10.82,-0.7543,10.77,8.325,-8.138,5.418,-28.26,10.76,4.236,1.784,2.211,18.97,3.538,0,0,0,0,0,0,0,0,0,0,0,0,0,0,0,0,
334,31.08,11.64,16.07,2.656,6.054,3.723,30.82,-9.16,10.69,6.534,14.74,-0.4863,4.878,7.521,16.14,2.443,0,0,0,0,0,0,0,0,0,0,0,0,0,0,0,0,
335,-2.397,-2.978,-3.337,-14.76,-7.534,-24.71,12.42,-3.244,-9.626,-15.89,-3.347,-25.5,-18.49,-14.49,-10.28,-15.38,0,0,0,0,0,0,0,0,0,0,0,0,0,0,0,0,
336,-25.22,-20.94,-11.1,-16.64,-10.41,-25.66,-29.86,9.552,-18.49,-27.63,-5.384,-20.58,-18.88,-12.04,-7.576,-9.428,0,0,0,0,0,0,0,0,0,0,0,0,0,0,0,0,
337,10.33,-2.173,17.56,7.42,17.76,12.88,-12.32,27.98,14.37,11.74,22.66,16.53,10.56,15.17,23.26,15.42,0,0,0,0,0,0,0,0,0,0,0,0,0,0,0,0,
338,50.43,23.28,31.64,29.58,24.96,30.74,24.29,27.7,43.29,29.84,37.42,32.72,22.74,19.49,36.75,19.9,0,0,0,0,0,0,0,0,0,0,0,0,0,0,0,0,
339,50.6,29.24,28.79,38.89,9.299,23.76,29.28,24.51,32.9,7.464,25.94,18.25,11.65,0.1048,21.36,0.7497,0,0,0,0,0,0,0,0,0,0,0,0,0,0,0,0,
340,32.74,22.88,31.61,33.01,8.878,17.86,33.99,30.1,12.74,-22.79,8.812,-2.543,-5.652,-21.46,-1.641,-20.14,0,0,0,0,0,0,0,0,0,0,0,0,0,0,0,0,
341,9.149,6.333,18.64,16.03,8.34,3.771,24.81,14.54,4.509,-32.65,-2.675,-15.65,-12.46,-24.02,-8.219,-19.61,0,0,0,0,0,0,0,0,0,0,0,0,0,0,0,0,
342,-9.908,-2.97,3.248,4.372,-1.192,-4.991,-4.451,-2.517,0.1074,-0.6631,-0.3469,-16.92,4.805,-0.1479,0.9748,2.682,0,0,0,0,0,0,0,0,0,0,0,0,0,0,0,0,
343,-7.708,9.491,5.656,-4.106,-5.055,4.061,-0.1991,10.21,-0.7303,31.43,9.921,-12.32,25.5,16.84,7.075,18.16,0,0,0,0,0,0,0,0,0,0,0,0,0,0,0,0,
344,5.362,29.82,9.323,5.305,-8.405,8.356,25.2,17.24,2.675,18.26,13.37,-2.955,27.14,11.43,9.943,18.23,0,0,0,0,0,0,0,0,0,0,0,0,0,0,0,0,
345,15.86,40.12,18.35,39.6,-3.284,9.455,28.44,7.517,5.392,4.458,14.57,12.34,20.02,6.958,13.32,16.04,0,0,0,0,0,0,0,0,0,0,0,0,0,0,0,0,
346,26.95,34.13,30.45,49.06,16.7,19.58,29.15,11.22,11.51,22.04,19.68,20.22,17.13,5.906,11.31,9.917,0,0,0,0,0,0,0,0,0,0,0,0,0,0,0,0,
347,33.19,21.99,21.11,28.59,20.18,19.63,31.27,16.35,14.11,17.04,12.85,10.53,10.18,-9.754,0.6751,-6.423,0,0,0,0,0,0,0,0,0,0,0,0,0,0,0,0,
348,20.38,8.633,6.586,16.13,5.559,7.442,16.35,9.555,5.553,-25.75,-5.087,-4.286,-5.071,-29.95,-11.3,-17.76,0,0,0,0,0,0,0,0,0,0,0,0,0,0,0,0,
349,7.607,-2.037,17.84,9.416,14.07,15.36,9.91,7.187,13.73,-32.89,5.532,2.128,0.5868,-16.17,3.073,-0.0453,0,0,0,0,0,0,0,0,0,0,0,0,0,0,0,0,
350,26.1,13.41,36.36,17.96,34.7,38.45,18.08,10.22,38.92,11,37.96,23.95,30.7,21.74,33.52,25.22,0,0,0,0,0,0,0,0,0,0,0,0,0,0,0,0,
351,43.88,36.89,34.79,38.64,27.93,35.94,15.04,17.08,31.9,31.83,29.43,19.86,36.35,25.88,26.64,14.19,0,0,0,0,0,0,0,0,0,0,0,0,0,0,0,0,
352,25.93,26.93,30.17,29.31,13.22,17.82,17.42,25.82,1.33,18.69,-7.019,-4.917,15.75,3.918,-0.0072,-15.64,0,0,0,0,0,0,0,0,0,0,0,0,0,0,0,0,
353,11.22,11.05,31.83,14.69,8.006,14.85,38.29,28,-7.745,20.85,-12.4,-12.27,8.621,-3.676,-1.086,-30.34,0,0,0,0,0,0,0,0,0,0,0,0,0,0,0,0,
354,12.5,14.9,14.26,29.44,-11.88,6.528,46.15,35,-15.82,20.9,-8.242,-16.26,7.052,-15.99,-0.2845,-39.37,0,0,0,0,0,0,0,0,0,0,0,0,0,0,0,0,
355,-6.679,10.53,-14.47,32.36,-36.18,-15.53,31.29,44.65,-39.18,-4.657,-18.28,-30.88,1.348,-30,-2.39,-39.34,0,0,0,0,0,0,0,0,0,0,0,0,0,0,0,0,
356,-25.66,4.94,-18.16,19.18,-35.47,-21.2,17.96,44.05,-37.1,-0.0697,-10.95,-28.84,13.13,-7.888,14.51,-19.04,0,0,0,0,0,0,0,0,0,0,0,0,0,0,0,0,
357,-17.71,15.93,-4.268,21.2,-23.52,-18.56,13.96,41.4,-15.31,29.44,-5.345,-23.1,22.68,8.655,10.99,-15.22,0,0,0,0,0,0,0,0,0,0,0,0,0,0,0,0,
358,-20.5,9.195,-6.103,12.53,-25.77,-32.74,0.6661,18.36,-19.88,-5.481,-34.19,-42.08,-6.095,-29.11,-27.45,-48.43,0,0,0,0,0,0,0,0,0,0,0,0,0,0,0,0,
359,-35.64,-18.01,-12.87,-10.74,-30.27,-39.72,-16.08,-12.52,-24.18,-50.09,-41.13,-45.1,-29.41,-53.26,-34.7,-62.19,0,0,0,0,0,0,0,0,0,0,0,0,0,0,0,0,
360,-18.45,-15.59,4.099,-10.38,-17.06,-21.99,-6.971,16.63,-1.34,-4.501,-5.191,-14.15,-5.451,-19.08,-9.567,-33.42,0,0,0,0,0,0,0,0,0,0,0,0,0,0,0,0,
361,4.815,4.033,14.35,2.431,-9.156,-13.87,3.768,65.68,-2.239,34.66,1.969,-4.662,7.965,-0.7526,-13.12,-20.02,0,0,0,0,0,0,0,0,0,0,0,0,0,0,0,0,
362,-4.786,-1.571,1.229,16.57,-13.55,-18.32,-3.717,61,-13.88,18.84,-5.887,-9.258,-3.588,-9.033,-11.85,-18.64,0,0,0,0,0,0,0,0,0,0,0,0,0,0,0,0,
363,-9.942,-2.94,3.801,33.76,-8.33,-12.35,5.101,43.27,8.264,26.97,18.03,5.316,6.026,4.404,19.44,3.345,0,0,0,0,0,0,0,0,0,0,0,0,0,0,0,0,
364,-10.79,2.176,-6.662,9.45,-29.07,-25.99,7.884,26.06,-1.154,12.1,12.87,-3.825,3.156,3.994,17.42,7.197,0,0,0,0,0,0,0,0,0,0,0,0,0,0,0,0,
365,-30.49,-16.9,-37.61,-25.38,-58.9,-42,-8.615,5.488,-28.15,-18.67,-1.353,-10.69,-4.821,4.685,20.7,14.59,0,0,0,0,0,0,0,0,0,0,0,0,0,0,0,0,
366,-12.29,-9.818,-6.42,8.25,-17.73,-3.642,4.748,21.34,20.32,17.85,48.84,34,29.5,44.47,68.66,53.29,0,0,0,0,0,0,0,0,0,0,0,0,0,0,0,0,
367,23.71,15.44,30.17,33.36,11.14,13.35,3.998,16.66,45.06,13.51,61.61,35.15,24.87,31.18,54.02,38.21,0,0,0,0,0,0,0,0,0,0,0,0,0,0,0,0,
368,-11.15,-15.19,-13.02,-12.69,-48.17,-39.46,-36.72,-25.19,-25.87,-41.1,-1.541,-23.5,-28.99,-23.92,-7.139,-10.67,0,0,0,0,0,0,0,0,0,0,0,0,0,0,0,0,
369,-56.05,-42.55,-38.18,-32.37,-76.08,-61.11,-40.52,-9.907,-56,-12.2,-16.03,-34.63,-33.63,-12.26,-10.96,-8.052,0,0,0,0,0,0,0,0,0,0,0,0,0,0,0,0,
370,-50.33,-28.73,-25.53,-17.06,-55.54,-51.25,-34.69,1.778,-31.81,12.25,-2.696,-30.95,-30.33,-1.426,-15.32,-14.67,0,0,0,0,0,0,0,0,0,0,0,0,0,0,0,0,
371,-55.56,-43.8,-50.45,-33.96,-71.36,-74.17,-56.35,-48.57,-46.1,-20.26,-25.22,-55.82,-53.78,-35.1,-40.73,-43.88,0,0,0,0,0,0,0,0,0,0,0,0,0,0,0,0,
372,-66.56,-60.46,-62.43,-44.02,-83.07,-79.68,-45.14,-43.12,-61.51,-17.66,-24.09,-47.78,-46.64,-35.82,-24.14,-32.8,0,0,0,0,0,0,0,0,0,0,0,0,0,0,0,0,
373,-49.7,-41.12,-42.69,-28.33,-73.35,-56.53,-23.2,-1.968,-50.97,-22.67,-12.1,-28.78,-36.03,-24.97,-11.59,-24.09,0,0,0,0,0,0,0,0,0,0,0,0,0,0,0,0,
374,-39.37,-29.44,-42.5,-25.59,-76.51,-51.5,-26.56,-19.93,-44.87,-27.11,-33.99,-37.87,-35.69,-25.98,-32.25,-37.34,0,0,0,0,0,0,0,0,0,0,0,0,0,0,0,0,
375,-39.72,-22.83,-37.58,-23.64,-63.43,-48.67,-22.8,-24.3,-34.34,15.1,-43.86,-37.49,-15.21,-10.32,-35.81,-31.18,0,0,0,0,0,0,0,0,0,0,0,0,0,0,0,0,
376,-37.38,-19.09,-21.71,-8.216,-41.32,-41.2,-25.36,4.129,-25.82,2.632,-27.62,-25.51,-7.023,-6.678,-17.95,-20.19,0,0,0,0,0,0,0,0,0,0,0,0,0,0,0,0,
377,-33.35,-30,-20,6.495,-38.14,-38.73,-37.26,2.502,-24.44,-33.61,-10.85,-14.64,-8.112,-8.058,-1.74,-13.5,0,0,0,0,0,0,0,0,0,0,0,0,0,0,0,0,
378,-17.19,-22.11,-15.1,6.67,-31.96,-28.45,-28.46,0.6665,-13.24,-0.8501,4.237,1.379,4.327,10.19,-0.7066,-5.035,0,0,0,0,0,0,0,0,0,0,0,0,0,0,0,0,
379,-2.09,-2.405,-9.095,-12.7,-23.58,-18.69,-5.186,11.05,-8.233,18.54,9.859,9.135,2.71,14.17,-12.18,-10.23,0,0,0,0,0,0,0,0,0,0,0,0,0,0,0,0,
380,-0.9428,0.7369,-13.44,-18.96,-25.96,-16.57,16.84,7.396,-14.9,5.577,2.403,1.678,-7.728,2.295,-20.99,-24.57,0,0,0,0,0,0,0,0,0,0,0,0,0,0,0,0,
381,-10.05,-7.153,-22.96,0.5753,-39.6,-23.13,6.283,3.899,-19.3,3.25,-9.072,-17.23,-17.57,-10.07,-31.82,-37.73,0,0,0,0,0,0,0,0,0,0,0,0,0,0,0,0,
382,-32.11,-24.29,-40.44,-2.445,-61.84,-42.36,-28.43,-4.591,-25.58,-11.39,-15.23,-30.77,-31.32,-20.58,-36.01,-39.24,0,0,0,0,0,0,0,0,0,0,0,0,0,0,0,0,
383,-40.9,-24.38,-45.42,-26.29,-60.92,-47.46,-25.93,-18.73,-28.4,-14.67,-12.14,-20.86,-23.68,-12.43,-25.59,-23.18,0,0,0,0,0,0,0,0,0,0,0,0,0,0,0,0,
384,-24.13,0.0244,-28.52,-21.37,-36.71,-32.92,-11.16,-14.8,-23.67,-12.27,-9.862,-11.39,-10.39,-4.279,-25.13,-15.8,0,0,0,0,0,0,0,0,0,0,0,0,0,0,0,0,
385,-12.7,1.505,-18.05,-8.886,-25.29,-24.21,-15.46,-5.314,-14.37,-29.04,-8.644,-13.46,-16.25,-9.012,-27.7,-20.39,0,0,0,0,0,0,0,0,0,0,0,0,0,0,0,0,
386,-3.951,-12.14,-10.61,-18.87,-12.92,-13.25,-1.269,0.5905,0.7928,-7.575,-2.885,-6.493,-14.48,-3.517,-21.07,-17.95,0,0,0,0,0,0,0,0,0,0,0,0,0,0,0,0,
387,8.179,-11.61,-0.4922,-13.56,6.558,-0.7034,-2.998,5.988,0.5533,20.17,-1.508,-0.8481,-11.94,-5.985,-26.96,-21.65,0,0,0,0,0,0,0,0,0,0,0,0,0,0,0,0,
388,3.883,-16.11,-7.486,10.86,4.024,-3.989,-33.53,0.8059,-14.51,-7.541,-3.662,-3.512,-20.14,-19.33,-32.27,-25.93,0,0,0,0,0,0,0,0,0,0,0,0,0,0,0,0,
389,-2.955,-15.24,-10.8,16.44,-6.314,-8.101,-18.62,2.229,-9.538,-18.5,-4.312,-0.8793,-10.57,-9.42,-18.94,-12.86,0,0,0,0,0,0,0,0,0,0,0,0,0,0,0,0,
390,-2.411,0.6883,1.745,13.9,-11.4,-12.44,7.607,12.66,3.406,2.45,-4.988,2.249,0.5991,1.315,-10.19,-6.26,0,0,0,0,0,0,0,0,0,0,0,0,0,0,0,0,
391,-7.252,2.653,-0.6354,13.44,-21.88,-24.21,-5.705,5.999,0.6467,6.618,0.3811,9.026,0.0683,1.921,-8.375,-4.889,0,0,0,0,0,0,0,0,0,0,0,0,0,0,0,0,
392,-3.757,4.773,-3.045,2.012,-14.6,-17.9,5.984,4.207,-0.6007,23.26,7.258,21.54,17.45,22.25,-3.675,13.15,0,0,0,0,0,0,0,0,0,0,0,0,0,0,0,0,
393,4.296,17.98,8.541,-3.172,2.498,-5.261,25.5,16.96,-1.121,27.93,1.074,13.68,22.6,26.92,-12.02,12.84,0,0,0,0,0,0,0,0,0,0,0,0,0,0,0,0,
394,-12.32,1.914,-10.92,-8.139,-19.92,-23.15,-13.85,2.803,-18.72,-23.65,-17.51,-14.85,-12.33,-4.905,-32.48,-19.04,0,0,0,0,0,0,0,0,0,0,0,0,0,0,0,0,
395,-36.93,-30.38,-49.99,-33.1,-57.12,-45.59,-40.76,-23.81,-40.83,-42.94,-28.84,-28.64,-29.95,-11.6,-38.5,-30.43,0,0,0,0,0,0,0,0,0,0,0,0,0,0,0,0,
396,-34.62,-26.25,-44.35,-33.08,-53,-38.26,-5.189,-16.91,-37.92,5.569,-9.946,-13.99,-11.74,10.57,-18.64,-11.31,0,0,0,0,0,0,0,0,0,0,0,0,0,0,0,0,
397,-12.8,-0.6855,-7.144,5.537,-28.08,-22.96,14.83,7.463,-5.583,16.5,24.53,11.44,0.6463,13.4,8.957,3.704,0,0,0,0,0,0,0,0,0,0,0,0,0,0,0,0,
398,1.998,4.714,3.961,15.87,-23.97,-22.8,-13.18,15.05,17.08,-28.15,34.79,23.9,1.408,7.106,14.98,5.314,0,0,0,0,0,0,0,0,0,0,0,0,0,0,0,0,
399,2.135,-5.231,-12.21,-6.981,-29.07,-22.95,-34.96,2.878,9.037,-37.11,22.77,16.32,0.9428,9.651,0.5049,-0.8898,0,0,0,0,0,0,0,0,0,0,0,0,0,0,0,0,
400,-1.73,-9.147,-22.15,-16.18,-20.01,-10.73,-22.53,-14.61,-0.0559,-0.6082,11.39,2.454,-3.367,10.07,-9.19,-8.97,0,0,0,0,0,0,0,0,0,0,0,0,0,0,0,0,
401,-5.231,-9.441,-23.69,-27.96,-14.06,-7.41,-8.636,-21.18,-5.12,5.235,-3.233,-10.66,-13.5,3.056,-16.11,-14.58,0,0,0,0,0,0,0,0,0,0,0,0,0,0,0,0,
402,-16.38,-17.26,-32.3,-47.69,-29.64,-23.56,-25.51,-16.79,-20.47,-28.2,-18.06,-22.17,-25.83,-7.838,-22.49,-14.39,0,0,0,0,0,0,0,0,0,0,0,0,0,0,0,0,
403,-29.86,-27.07,-39.5,-31.94,-43.18,-33.2,-48.41,-14.04,-26.09,-25.3,-14.46,-18.82,-24.9,-4.971,-7.639,-2.58,0,0,0,0,0,0,0,0,0,0,0,0,0,0,0,0,
404,-31.05,-31.53,-36.64,-2.656,-43.53,-31.27,-48.33,-16.89,-20.11,9.646,-2.933,-7.14,-16.38,7.017,8.378,5.31,0,0,0,0,0,0,0,0,0,0,0,0,0,0,0,0,
405,-27.37,-35.8,-32.69,-10.76,-49.49,-34.83,-44.54,-24.02,-22.94,-4.586,-4.811,-9.225,-18.14,0.1664,-0.3673,0.0884,0,0,0,0,0,0,0,0,0,0,0,0,0,0,0,0,
406,-28.63,-33.39,-28.77,-31.06,-45.84,-32.01,-44.71,-31.55,-15.2,-29.32,-2.924,-9.148,-8.368,-0.502,2.002,8.077,0,0,0,0,0,0,0,0,0,0,0,0,0,0,0,0,
407,-21.07,-14.2,-23.43,-28.94,-18.58,-16.05,-34.01,-29.37,10.48,4.299,13.97,4.079,11.19,18.57,20.86,20.37,0,0,0,0,0,0,0,0,0,0,0,0,0,0,0,0,
408,-12.4,-2.189,-27.51,-31.02,-14.67,-16.97,-25.25,-26.07,8.229,20.01,9.638,-1.05,-0.0736,10.24,12.44,4.816,0,0,0,0,0,0,0,0,0,0,0,0,0,0,0,0,
409,-27.65,-15.4,-40.88,-60.17,-46.87,-36.54,-23.34,-31.86,-20.7,-7.096,-15.93,-15.71,-13.32,-4.615,-2.572,-5.749,0,0,0,0,0,0,0,0,0,0,0,0,0,0,0,0,
410,-35.77,-18.2,-35.8,-63.76,-51.42,-29.58,-9.998,-11.12,-19.62,5.813,-15.25,-2.146,11.67,18.39,12.72,16.15,0,0,0,0,0,0,0,0,0,0,0,0,0,0,0,0,
411,-6.892,6.167,-6.13,-0.7223,-24.3,4.128,0.7336,36.25,-3.369,21.69,0.1442,15.46,27.52,28.24,26.01,25.26,0,0,0,0,0,0,0,0,0,0,0,0,0,0,0,0,
412,14.65,19.77,6.168,42.44,-24.37,15.59,-3.261,33.43,-14.19,-8.947,-3.426,12.61,15.63,10.29,18.26,10.64,0,0,0,0,0,0,0,0,0,0,0,0,0,0,0,0,
413,11.62,18.4,-6.99,6.899,-35.94,9.217,5.425,-9.844,-13.81,-11.38,-2.622,15.52,19.39,18.33,15.14,14.83,0,0,0,0,0,0,0,0,0,0,0,0,0,0,0,0,
414,13.24,18.4,-12.06,-19.53,-25.23,10.58,16.62,-13.49,11.17,13.66,9.279,21.09,23.28,30.7,18.65,26.02,0,0,0,0,0,0,0,0,0,0,0,0,0,0,0,0,
415,4.775,-1.099,-15.44,-11.26,-25.45,-0.2614,-0.0872,-6.972,10.52,7.239,5.192,9.074,2.321,13.16,15.69,11.29,0,0,0,0,0,0,0,0,0,0,0,0,0,0,0,0,
416,-16.18,-21.81,-26.57,-24.51,-38.97,-17.05,-14.22,-22.97,-5.574,-3.679,-7.041,-1.253,-10.16,-3.59,7.603,-7.859,0,0,0,0,0,0,0,0,0,0,0,0,0,0,0,0,
417,-16.94,-7.303,-28.75,-30.25,-35.43,-13.32,-12.47,-10.04,-4.516,-13.17,-11.36,-1.078,-9.075,-8.432,-0.0436,-10.68,0,0,0,0,0,0,0,0,0,0,0,0,0,0,0,0,
418,-13.71,5.755,-28.43,-20.11,-30.44,-7.238,-24.54,11.56,-5.502,-24.61,-15.03,-4.24,-8.432,-2.601,-0.3263,-5.244,0,0,0,0,0,0,0,0,0,0,0,0,0,0,0,0,
419,-22.35,0.3748,-27.95,-33.09,-32.55,-6.965,-29.11,-2.162,-12.55,0.2815,-21.41,-9.764,0.615,13.35,-0.7878,-3.715,0,0,0,0,0,0,0,0,0,0,0,0,0,0,0,0,
420,-21.41,3.782,-22.08,-34.3,-30.43,-6.118,-13.83,-13.97,-14.73,12.95,-30.01,-18.1,-2.714,1.615,-15.16,-19.6,0,0,0,0,0,0,0,0,0,0,0,0,0,0,0,0,
421,-21.92,-7.616,-31.61,-28.78,-36.27,-20.79,-22.22,-19.57,-24.89,-25.86,-40.48,-25.3,-23.56,-27.37,-24.87,-36.16,0,0,0,0,0,0,0,0,0,0,0,0,0,0,0,0,
422,-30.49,-32.56,-48.88,-56.62,-42.02,-33.06,-36.86,-34.69,-32.77,-37.5,-39.8,-12.16,-19.87,-19.36,-11.43,-26.12,0,0,0,0,0,0,0,0,0,0,0,0,0,0,0,0,
423,-17.01,-16.52,-38.51,-53.53,-25.84,-12.34,-10.17,-29.42,-13.56,-10.97,-19.1,13.46,4.507,4.727,7.188,-7.136,0,0,0,0,0,0,0,0,0,0,0,0,0,0,0,0,
424,8.534,22.69,-14.04,-7.913,-10.03,13.86,19.3,-15.05,12.13,0.4358,1.375,25.79,16.32,10.82,16.88,1.239,0,0,0,0,0,0,0,0,0,0,0,0,0,0,0,0,
425,15.18,32.84,-9.544,-1.095,-15.28,18.99,9.761,-11.32,14.49,3.187,2.096,25.24,14.98,11.32,20.43,2.445,0,0,0,0,0,0,0,0,0,0,0,0,0,0,0,0,
426,11.23,18.31,-17.22,-22.51,-22.35,13.72,-8.224,-4.237,2.909,-6.744,-2.552,16.34,1.008,1.242,14.1,-6.712,0,0,0,0,0,0,0,0,0,0,0,0,0,0,0,0,
427,-1.149,-7.207,-21.88,-39.94,-25.39,-3.297,-10.54,-19.41,-11.58,-26.82,-7.998,-5.646,-19.25,-17.66,-3.537,-19.76,0,0,0,0,0,0,0,0,0,0,0,0,0,0,0,0,
428,-27.02,-28.58,-27.99,-58.07,-32.87,-22.13,-0.2152,-42.88,-25.47,-27.11,-26.4,-20.88,-22.86,-23.73,-18.55,-24.41,0,0,0,0,0,0,0,0,0,0,0,0,0,0,0,0,
429,-32.15,-17.07,-28.38,-46.28,-33.05,-12,15.75,-14.72,-23.82,-33.35,-31.75,-6.194,-7.9,-21.85,-15.22,-21.68,0,0,0,0,0,0,0,0,0,0,0,0,0,0,0,0,
430,-2.637,13.07,-15.43,-19.39,-24.17,12.87,12.48,18.48,-11.72,-39.86,-6.604,19.68,12.96,-12.32,0.3438,-11.78,0,0,0,0,0,0,0,0,0,0,0,0,0,0,0,0,
431,23.22,28.24,1.683,-8.654,-12.64,26,-1.35,8.83,-1.486,-3.063,10.86,28.29,27.83,6.801,6.645,-1.804,0,0,0,0,0,0,0,0,0,0,0,0,0,0,0,0,
432,27.9,29.76,14.55,11.05,5.593,35.51,3.647,3.626,8.977,13.09,0.6827,17.62,19.36,5.942,-4.245,-6.637,0,0,0,0,0,0,0,0,0,0,0,0,0,0,0,0,
433,14.89,12.28,7.462,13.59,7.351,26.13,-11.62,-3.571,2.865,-30.5,-15.64,-3.903,-5.972,-14.48,-21.18,-19,0,0,0,0,0,0,0,0,0,0,0,0,0,0,0,0,
434,-17.84,-25.39,-17.51,-25.34,-16.15,-10.85,-49.83,-35.22,-16.49,-40.2,-20.8,-17.69,-12.25,-12.44,-23.27,-13.77,0,0,0,0,0,0,0,0,0,0,0,0,0,0,0,0,
435,-38.33,-33.42,-20.85,-48.96,-16.99,-22.3,-28,-42.87,-10.91,-3.349,-11.77,-8.338,2.159,8.361,-8.394,6.681,0,0,0,0,0,0,0,0,0,0,0,0,0,0,0,0,
436,-19.06,1.444,1.319,-33.77,10.5,7.666,26.06,-25.95,10.06,-8.806,-3.461,3.322,-0.7046,3.263,-7.365,7.416,0,0,0,0,0,0,0,0,0,0,0,0,0,0,0,0,
437,5.653,20.33,17.17,3.34,22.67,30.78,20.46,-14.21,16.85,-41.09,-3.688,3.411,-14.19,-20.32,-19.87,-10.72,0,0,0,0,0,0,0,0,0,0,0,0,0,0,0,0,
438,15.37,14.39,27.98,32.83,25.15,36.83,-1.232,6.788,17.69,-32.16,6.181,13.84,-3.03,-18.48,-11.9,-13.4,0,0,0,0,0,0,0,0,0,0,0,0,0,0,0,0,
439,28.95,15.43,34.11,15.63,31.34,38.58,4.61,13.28,12.68,-20.36,16.41,25.28,5.205,-9.825,-4.497,-15.2,0,0,0,0,0,0,0,0,0,0,0,0,0,0,0,0,
440,28.92,2.052,15.44,-15.62,19.12,21.83,-9.137,-15.66,1.148,-48.92,1.352,11.9,-17.59,-29.13,-24.19,-35.17,0,0,0,0,0,0,0,0,0,0,0,0,0,0,0,0,
441,5.366,-20.84,-6.995,-15.99,3.265,0.8875,-15.68,-20.17,3.268,-51.73,-10.75,2.454,-25.2,-34.32,-28.09,-35.47,0,0,0,0,0,0,0,0,0,0,0,0,0,0,0,0,
442,1.592,-2.641,2.566,-0.9496,12.07,7.236,19.33,15.71,9.865,-9.502,0.4695,13.78,-1.478,-6.7,-8.091,-12.99,0,0,0,0,0,0,0,0,0,0,0,0,0,0,0,0,
443,17.29,29.31,21.91,22.99,20.09,21.38,27.43,35.68,4.223,-3.376,3.55,15.59,11.62,1.587,-10.71,-9.279,0,0,0,0,0,0,0,0,0,0,0,0,0,0,0,0,
444,22.78,33.87,26.25,38.24,19.85,28.08,15.09,28.19,8.768,-22.56,1.916,14.34,15.27,-3.934,-25.84,-15.61,0,0,0,0,0,0,0,0,0,0,0,0,0,0,0,0,
445,34.27,39.67,35.46,19.14,36.98,40.31,40.28,9.4,26.2,-9.134,13.64,23.24,24.08,9.619,-26.26,-9.211,0,0,0,0,0,0,0,0,0,0,0,0,0,0,0,0,
446,41.52,41.26,40.43,7.148,46.19,38.78,40.46,-3.611,25.02,1.25,15.21,24.58,27.43,20.26,-17.85,3.477,0,0,0,0,0,0,0,0,0,0,0,0,0,0,0,0,
447,28.3,26.45,26.47,30.13,31.46,27.89,3.28,14.35,10.9,0.6992,11.54,32.18,37.84,24.32,3.223,20.78,0,0,0,0,0,0,0,0,0,0,0,0,0,0,0,0,
448,33.43,31.95,25.22,41.11,27.1,39.68,16.49,18.89,7.15,3.654,15.59,42.45,45.04,22.15,13.58,25.73,0,0,0,0,0,0,0,0,0,0,0,0,0,0,0,0,
449,46.67,37.05,31.9,18.68,28.31,46.45,49.63,-24.8,11.24,-22.34,8.537,27.23,27.97,3.252,-2.972,15.66,0,0,0,0,0,0,0,0,0,0,0,0,0,0,0,0,
450,40.15,22.9,30.47,4.369,26.36,41.48,42.38,-32.04,22.69,-22.14,11.65,23.79,32.71,14.34,4.767,31.08,0,0,0,0,0,0,0,0,0,0,0,0,0,0,0,0,
451,45.14,32.93,44.65,19.58,38.38,53.35,24.53,11.75,29.98,32.43,27.4,38.02,57.68,49.15,25.52,51.11,0,0,0,0,0,0,0,0,0,0,0,0,0,0,0,0,
452,42.99,33.88,49.86,31.61,41.25,46.52,3.868,13.12,18.28,29.05,13.42,22.84,41.02,36.23,10.59,34.98,0,0,0,0,0,0,0,0,0,0,0,0,0,0,0,0,
453,16.77,-3.167,28.03,20.07,32.3,20.86,-10.8,-6.229,17.42,-10.16,6.605,17.33,18.83,15.29,11.36,31.05,0,0,0,0,0,0,0,0,0,0,0,0,0,0,0,0,
454,24.82,-6.408,23.33,6.762,38.13,27.58,2.393,8.52,33.83,9.654,31.03,42.43,23.83,27.38,35.08,44.98,0,0,0,0,0,0,0,0,0,0,0,0,0,0,0,0,
455,50.28,15.45,26.29,7.052,37.86,39.66,17.02,7.016,26.69,4.528,23.22,35.92,6.256,11.14,17.09,22.3,0,0,0,0,0,0,0,0,0,0,0,0,0,0,0,0,
456,42.08,8.118,15.39,11.96,30.81,33.53,34.8,-14.19,8.594,-41.71,-1.219,15.87,-6.269,-12.08,-4.347,2.55,0,0,0,0,0,0,0,0,0,0,0,0,0,0,0,0,
457,36.75,15.27,21.85,13.86,40.26,38.33,56.67,-6.886,16.49,-16.39,11.95,28.03,27.84,18.13,13.86,27.02,0,0,0,0,0,0,0,0,0,0,0,0,0,0,0,0,
458,43.8,38.56,33.88,18.53,41.38,38.44,34.19,1.351,29.61,29.13,24.28,33.67,43.31,42.25,20.62,42.85,0,0,0,0,0,0,0,0,0,0,0,0,0,0,0,0,
459,30.75,22.75,21.76,23.53,27.87,18.37,-4.578,-14.64,28.42,13.24,15.2,22.84,23.57,25.04,6.042,34.83,0,0,0,0,0,0,0,0,0,0,0,0,0,0,0,0,
460,25.37,7.048,11.37,14.91,32.68,16.52,3.652,-19.42,38.84,8.132,26.68,38.93,34.69,27.55,14.08,45.27,0,0,0,0,0,0,0,0,0,0,0,0,0,0,0,0,
461,53.55,35.26,27.25,9.373,54.97,45.68,30.21,1.775,59.99,28.92,50.73,64.8,59.97,45.89,33.91,59.22,0,0,0,0,0,0,0,0,0,0,0,0,0,0,0,0,
462,69.88,55.26,49.06,27.88,61.2,61.49,37.43,20.28,45.45,16.26,39.03,51.44,43.06,29.79,24.02,39.45,0,0,0,0,0,0,0,0,0,0,0,0,0,0,0,0,
463,47.82,39.67,47.98,40.25,42.35,47.24,39.22,8.578,9.653,2.866,13.95,31.35,24.9,15.28,11.36,26.54,0,0,0,0,0,0,0,0,0,0,0,0,0,0,0,0,
464,41.14,30.05,35.68,26.78,35.54,46.56,38.49,-15.22,14.56,8.135,27.66,48.73,38.19,25.29,28.01,44.55,0,0,0,0,0,0,0,0,0,0,0,0,0,0,0,0,
465,60.38,28.93,36.88,19.48,48.23,56.06,21.97,-6.486,27.6,-9.288,34.02,47.63,24.19,6.07,16.26,32.39,0,0,0,0,0,0,0,0,0,0,0,0,0,0,0,0,
466,40.91,12.24,40.23,29.6,39.05,34.44,11.75,24.01,0.6871,-4.299,-5.066,8.582,-4.431,-11.09,-23.02,7.643,0,0,0,0,0,0,0,0,0,0,0,0,0,0,0,0,
467,7.285,13.79,40.51,30.73,21.74,19.24,38.22,36.5,-11.5,51.52,-15.86,5.118,19.23,27.92,-11.23,34.51,0,0,0,0,0,0,0,0,0,0,0,0,0,0,0,0,
468,17.74,44.56,46.99,23.91,29.25,34.87,63.06,48.1,7.139,62.55,6.306,21.56,40.82,45.56,7.074,49.47,0,0,0,0,0,0,0,0,0,0,0,0,0,0,0,0,
469,21.07,44.88,41.28,33.77,27.45,29.17,42.99,68.68,2.334,20.08,-10.19,0.7135,10.96,12.05,-26.03,11.83,0,0,0,0,0,0,0,0,0,0,0,0,0,0,0,0,
470,-4.409,8.814,22.32,44.98,3.06,8.395,19.67,57.58,-14.7,10.27,-31.53,-17.34,-11.05,-1.28,-46.34,-10.99,0,0,0,0,0,0,0,0,0,0,0,0,0,0,0,0,
471,-8.272,-15.71,23.64,35.2,-0.8737,13.71,25.42,31.8,-9.639,25.31,-10.64,-7.816,-8.529,3.566,-33.38,-7.578,0,0,0,0,0,0,0,0,0,0,0,0,0,0,0,0,
472,-0.6908,-21.62,41.41,29.11,21.39,21.26,24.36,39.47,-0.3638,34.68,7.456,-2.731,-9.485,2.301,-27.22,-6.267,0,0,0,0,0,0,0,0,0,0,0,0,0,0,0,0,
473,-8.848,-19.52,35.4,26.25,25.98,5.476,1.97,40.13,-10.4,25.91,-6.141,-11.89,-16.73,-6.408,-33.31,-12.68,0,0,0,0,0,0,0,0,0,0,0,0,0,0,0,0,
474,-23.54,-17.11,11.33,5.362,4.444,-12.21,-3.014,13.57,-26.87,-13.85,-21.1,-23.73,-26.87,-28.68,-38.02,-21.86,0,0,0,0,0,0,0,0,0,0,0,0,0,0,0,0,
475,-28.44,-10.84,19.6,12.78,10.31,0.0058,31.44,31.73,-13.78,-4.208,-5.438,-12.19,-12.35,-15.84,-18.93,-3.274,0,0,0,0,0,0,0,0,0,0,0,0,0,0,0,0,
476,-7.005,15.3,53.64,52.09,51.19,32.04,56.93,71.16,16.75,60.86,19.01,12.75,16.94,22.59,1.171,21.42,0,0,0,0,0,0,0,0,0,0,0,0,0,0,0,0,
477,8.592,24.36,51.72,37.04,59.41,35.28,37.68,40.47,14.65,49.92,7.531,3.73,5.726,5.763,-14.36,6.215,0,0,0,0,0,0,0,0,0,0,0,0,0,0,0,0,
478,-11.67,-6.808,19.74,-4.663,33.15,13.89,25.67,0.815,-5.571,3.257,-11.59,-11,-15.37,-20.34,-20.03,-5.505,0,0,0,0,0,0,0,0,0,0,0,0,0,0,0,0,
479,-20.44,-20,10.22,15.27,23.62,6.16,28.95,27.63,-10.27,11.22,-3.125,3.353,-11.19,-12.34,-3.33,2.673,0,0,0,0,0,0,0,0,0,0,0,0,0,0,0,0,
480,-13.11,-13.65,10.01,33.3,15.24,-3.484,-3.556,46.3,-13.55,-5.509,-5.532,-0.3725,-21.82,-26.93,-9.04,-7.25,0,0,0,0,0,0,0,0,0,0,0,0,0,0,0,0,
481,-29.44,-24.39,-3.627,0.5266,-2.637,-20.1,-27.6,26.71,-15.48,-24.58,-24.35,-19.54,-25.31,-27.08,-10.55,-5.031,0,0,0,0,0,0,0,0,0,0,0,0,0,0,0,0,
482,-39.06,-17.63,-6.563,-3.386,-3.709,-19.68,-6.091,19.63,-16.12,20.81,-27.32,-16.28,-0.5754,8.032,4.327,14.11,0,0,0,0,0,0,0,0,0,0,0,0,0,0,0,0,
483,-33.22,-1.527,-7.887,13.37,-9.711,-22.3,-1.188,15.03,-32.18,26.72,-28.26,-18.53,-9.101,-5.753,1.673,3.155,0,0,0,0,0,0,0,0,0,0,0,0,0,0,0,0,
484,-41.06,-14.4,-23.29,-6.833,-23.47,-30.53,-7.698,11.1,-36.73,-12.29,-27.67,-20.82,-30.55,-32.64,7.924,-7.652,0,0,0,0,0,0,0,0,0,0,0,0,0,0,0,0,
485,-32.31,-15.89,-18.74,-17.83,-6.952,-16.81,13.68,19.13,-20.08,-7.548,-11.84,4.731,-12.05,-13.59,26.19,5.288,0,0,0,0,0,0,0,0,0,0,0,0,0,0,0,0,
486,-6.506,2.153,0.6633,-0.7904,12.47,-3.621,21.55,7.872,-16.75,-1.273,-2,20.45,-1.246,-10.47,21.03,3.269,0,0,0,0,0,0,0,0,0,0,0,0,0,0,0,0,
487,-3.656,6.645,2.131,9.972,6.65,-4.657,6.125,5.1,-9.987,-4.607,5.571,17.24,-9.336,-17.42,22.39,0.7842,0,0,0,0,0,0,0,0,0,0,0,0,0,0,0,0,
488,-8.8,6.65,-2.874,6.815,-1.425,-7.118,-3.443,28.67,8.145,4.793,10.18,8.787,-10.51,-3.844,28.66,10.36,0,0,0,0,0,0,0,0,0,0,0,0,0,0,0,0,
489,-20.26,-10.43,-16.32,-25.91,-20.39,-26.77,-11.12,12.09,-7.615,-11.9,-16.45,-23.63,-32.55,-15.48,-1.002,-2.325,0,0,0,0,0,0,0,0,0,0,0,0,0,0,0,0,
490,-43.45,-37.95,-32.58,-47.6,-37.03,-40.9,-9.411,-12.06,-28.33,-8.33,-31.74,-41.3,-46.73,-22.84,-17.99,-9.049,0,0,0,0,0,0,0,0,0,0,0,0,0,0,0,0,
491,-34.69,-24.5,-16.95,-9.622,-14.47,-18.43,0.3278,24.14,-8.765,30.46,-7.456,-15.89,-21.43,-2.749,-2.824,5.857,0,0,0,0,0,0,0,0,0,0,0,0,0,0,0,0,
492,-6.832,0.0293,1.219,4.981,2.869,-4.353,8.887,44.58,4.034,9.549,-1.942,-4.261,-18.21,-21.03,-11.41,-7.482,0,0,0,0,0,0,0,0,0,0,0,0,0,0,0,0,
493,0.3466,-1.164,-2.621,-22.73,-2.459,-8.318,31.07,12.07,2.586,-29.62,-1.482,-3.94,-28.99,-40.05,-12.45,-15.62,0,0,0,0,0,0,0,0,0,0,0,0,0,0,0,0,
494,13.53,12.44,8.394,4.849,18.52,5.974,33.76,7.166,24.09,-5.079,28.46,15.84,-1.198,-0.5104,21.75,23.12,0,0,0,0,0,0,0,0,0,0,0,0,0,0,0,0,
495,25.6,31,17.47,41.04,36.05,10.92,-2.201,32.34,30.59,22.2,25.24,13.59,17.37,31.07,29.01,46.91,0,0,0,0,0,0,0,0,0,0,0,0,0,0,0,0,
496,7.432,20.06,2.451,11.24,20.97,-4.41,-11.58,26.1,14.42,21.45,0.7169,-0.9503,9.486,33.94,29.12,50.07,0,0,0,0,0,0,0,0,0,0,0,0,0,0,0,0,
497,2.729,14.77,6.167,3.113,23.42,5.114,13.9,7.452,31.16,29.54,33.24,21.57,23.7,49.67,72.21,76.58,0,0,0,0,0,0,0,0,0,0,0,0,0,0,0,0,
498,24.73,29.63,23.09,35.3,32.1,25.32,29.11,21.02,51.78,40.78,67.08,41.55,39.28,57.81,91.32,86.64,0,0,0,0,0,0,0,0,0,0,0,0,0,0,0,0,
499,20.16,29.73,6.239,7.367,0.1968,7.578,34.37,31.68,20.67,34,32.54,19.06,22.8,40.73,50.61,57.19,0,0,0,0,0,0,0,0,0,0,0,0,0,0,0,0,
500,-11.51,8.706,-28.87,-45.81,-36.53,-31.49,15.4,6.18,-24.95,6.32,-6.885,-10.06,0.8481,16.94,16.11,29.72,0,0,0,0,0,0,0,0,0,0,0,0,0,0,0,0,
501,-28.32,-11.54,-46.03,-32.29,-40.45,-48.18,-28.75,-15.99,-36.5,-15.23,-3.808,-17.94,-4.657,1.161,15.8,16.62,0,0,0,0,0,0,0,0,0,0,0,0,0,0,0,0,
502,-25.09,-13.32,-46.5,-10.11,-28.94,-39.78,-39.67,-19.45,-16.39,3.842,8.322,-8.336,5.581,10.76,32.39,19.35,0,0,0,0,0,0,0,0,0,0,0,0,0,0,0,0,
503,-11.68,5.648,-27.77,-16.82,-6.917,-19.51,-12.94,-9.732,16.58,42.22,24.41,14.6,23.39,34.64,58.32,41.96,0,0,0,0,0,0,0,0,0,0,0,0,0,0,0,0,
504,8.057,22.87,8.996,7.204,20.75,4.99,2.277,20.15,34.8,41.03,43.59,27.9,24.5,32.29,66.27,46.03,0,0,0,0,0,0,0,0,0,0,0,0,0,0,0,0,
505,14.31,16.46,15.99,16.45,17.81,12.77,5.332,14.14,22.41,-3.598,24.25,10.55,3.503,8.769,40.4,15.77,0,0,0,0,0,0,0,0,0,0,0,0,0,0,0,0,
506,1.613,2.079,-12.04,-27.25,-11.12,2.261,15.73,-36.3,-0.843,-17.49,-16.48,-8.891,-10,2.628,15.51,-1.312,0,0,0,0,0,0,0,0,0,0,0,0,0,0,0,0,
507,-6.313,0.7996,-16.62,-31.31,-20.41,-2.289,20.01,-35.63,-12.66,12.72,-21.36,-7.474,-8.89,5.259,10.15,5.028,0,0,0,0,0,0,0,0,0,0,0,0,0,0,0,0,
508,-9.559,0.9291,-10.3,-0.8088,-11.7,-5.144,4.513,7.537,-8.658,10.16,-7.273,-8.761,-12.08,-4.891,10.53,2.72,0,0,0,0,0,0,0,0,0,0,0,0,0,0,0,0,
509,-18.61,-3.949,-23.35,-3.114,-7.617,-15.8,-16.44,16.41,3.173,-8.719,-4.578,-19.45,-17.95,-6.776,12.89,-2.164,0,0,0,0,0,0,0,0,0,0,0,0,0,0,0,0,
510,-19.25,-5.874,-15.14,1.304,-1.474,-18.3,-20.55,6.557,6.18,11.45,-4.538,-25.78,-21.67,-1.478,7.313,-8.417,0,0,0,0,0,0,0,0,0,0,0,0,0,0,0,0,
511,-12.59,-11.97,5.418,19.86,5.379,-9.471,-3.243,2.499,2.2,17.43,-13.38,-29.81,-27.56,-13.05,-9.258,-30.35,0,0,0,0,0,0,0,0,0,0,0,0,0,0,0,0,
512,-13.29,-21.71,-5.907,7.369,-1.345,-4.401,5.878,-1.441,2.171,-5.836,-29.31,-32.92,-33.74,-23.04,-19.36,-42.8,0,0,0,0,0,0,0,0,0,0,0,0,0,0,0,0,
513,-20.1,-23.56,-22.49,-17.98,-18.3,-12.66,-16.22,-0.7585,-3.485,-0.2028,-30.56,-35.5,-38.35,-17.91,-23.86,-34.25,0,0,0,0,0,0,0,0,0,0,0,0,0,0,0,0,
514,-29.16,-15.97,-17.68,-18.28,-24.45,-21.19,-23.39,-0.4489,-10.65,15.78,-19.68,-36.02,-34.49,-12.82,-23.48,-24.43,0,0,0,0,0,0,0,0,0,0,0,0,0,0,0,0,
515,-32.65,-7.524,-9.584,4.138,-14.38,-15.41,6.044,-5.028,-8.006,-2.181,-12.21,-31.95,-31.61,-15.29,-15.87,-17.56,0,0,0,0,0,0,0,0,0,0,0,0,0,0,0,0,
516,-28.49,-21.56,-12.4,10.17,-12.97,-14.96,-2.101,-9.668,-11.21,-23.68,-9.471,-32.66,-47,-25.83,-17.19,-16.57,0,0,0,0,0,0,0,0,0,0,0,0,0,0,0,0,
517,-27.02,-51.28,-18.49,-6.769,-24.13,-27.37,-50.41,-5.295,-20.52,-7.643,-2.122,-32.78,-51.1,-24.87,-21.22,-16.21,0,0,0,0,0,0,0,0,0,0,0,0,0,0,0,0,
518,-27.89,-54.14,-16.58,-12.02,-30.62,-32.41,-53.75,4.545,-21.26,17.66,1.78,-27.65,-32.65,-8.173,-20.59,-8.972,0,0,0,0,0,0,0,0,0,0,0,0,0,0,0,0,
519,-32.66,-40.65,-19.45,-21.66,-38.07,-35.17,-29.55,-2.31,-19.82,16.43,-13.61,-33.18,-27.39,-7.763,-27.25,-10.28,0,0,0,0,0,0,0,0,0,0,0,0,0,0,0,0,
520,-41.51,-40.47,-31.41,-42.61,-41.81,-39.81,-31.11,-11.56,-21,12.25,-25.45,-37,-24.2,-13.21,-25.06,-14.6,0,0,0,0,0,0,0,0,0,0,0,0,0,0,0,0,
521,-36.81,-33.85,-30.11,-38.77,-29.6,-34.32,-25.18,-5.907,-21.14,15.3,-17.87,-25.22,-7.442,-2.072,-10.03,-5.009,0,0,0,0,0,0,0,0,0,0,0,0,0,0,0,0,
522,-20.44,-19.3,-18.8,-33.6,-13.8,-22.99,-7.786,-12.92,-11.89,12.37,-14.09,-18.82,-4.092,1.34,-3.657,4.458,0,0,0,0,0,0,0,0,0,0,0,0,0,0,0,0,
523,-11.89,-17.53,-11.96,-34.55,-0.3298,-10.18,-17.33,-25.11,4.446,8.367,-13.32,-22.09,-12.73,-8.279,-0.2012,0.7757,0,0,0,0,0,0,0,0,0,0,0,0,0,0,0,0,
524,-14.5,-22.33,-5.39,-2.064,1.837,-5.721,-29.42,-21.61,-1.243,-8.842,-9.429,-28.68,-21.96,-17.77,-0.4659,-15.21,0,0,0,0,0,0,0,0,0,0,0,0,0,0,0,0,
525,-24.84,-28.67,-3.132,16.52,-15.28,-18.15,-14.16,-21.96,-20.06,-20.74,-15.99,-36.57,-29.02,-23.32,-7.577,-28.46,0,0,0,0,0,0,0,0,0,0,0,0,0,0,0,0,
526,-28.01,-26.43,-5.942,-18.98,-18.3,-17.9,6.818,-9.527,-7.311,10.32,-16.19,-24.25,-12.66,-7.611,3.073,-15.1,0,0,0,0,0,0,0,0,0,0,0,0,0,0,0,0,
527,-7.604,-2.38,-0.2298,-29.14,4.415,4.125,13.07,26.98,19.01,31.54,1.477,3.429,12.68,15.69,22.78,6.491,0,0,0,0,0,0,0,0,0,0,0,0,0,0,0,0,
528,13.79,14.59,8.234,12.42,10.08,8.753,2.701,31.83,13.15,8.334,7.21,8.646,9.711,9.976,18.59,0.2207,0,0,0,0,0,0,0,0,0,0,0,0,0,0,0,0,
529,8.954,3.074,0.0065,22.82,-11.7,-5.705,-10.45,4.042,-8.207,3.752,-7.171,-7.465,-5.622,-5.803,-0.4936,-17.83,0,0,0,0,0,0,0,0,0,0,0,0,0,0,0,0,
530,-3.319,-10.26,-15.48,-2.975,-23.2,-5.213,-11.49,-2.733,-6.02,24.22,-17.59,-15.01,-6.853,-4.536,-6.778,-18.17,0,0,0,0,0,0,0,0,0,0,0,0,0,0,0,0,
531,-1.736,-12.22,-15.63,-8.89,-12.61,4.161,-9.606,-7.645,7.336,11.84,-14.94,-10.14,-5.76,-7.05,1.279,-13.73,0,0,0,0,0,0,0,0,0,0,0,0,0,0,0,0,
532,-0.5198,-13.59,-12.45,-28.08,-5.428,1.654,-1.208,-39.4,-1.143,-22.86,-11.3,-7.711,-10.72,-17.72,3.133,-18.83,0,0,0,0,0,0,0,0,0,0,0,0,0,0,0,0,
533,-6.679,-13.49,-15.92,-64.92,-6.326,1.04,16.74,-48.88,-12.39,-27.2,-15.06,-8.945,-9.823,-12.55,-2.857,-15.87,0,0,0,0,0,0,0,0,0,0,0,0,0,0,0,0,
534,-1.673,-8.743,-1.264,-31.41,4.812,14.6,6.485,-3.283,5.459,1.427,-13.28,1.231,3.019,4.261,9.798,1.625,0,0,0,0,0,0,0,0,0,0,0,0,0,0,0,0,
535,15.89,0.2997,26.63,44.21,23.54,26.71,-22.19,42.79,28.74,32.51,0.339,18.13,17.7,14.24,33.88,11.18,0,0,0,0,0,0,0,0,0,0,0,0,0,0,0,0,
536,20.36,8.375,29.86,51.01,29.19,23.52,-13.4,28.3,29.26,42.87,3.958,15.46,16.36,11.76,31.11,3.612,0,0,0,0,0,0,0,0,0,0,0,0,0,0,0,0,
537,7.471,6.837,13.09,11.8,25.42,15.38,11.72,-8.429,23.92,23.31,-0.5778,3.895,3.906,1.796,15.99,-1.213,0,0,0,0,0,0,0,0,0,0,0,0,0,0,0,0,
538,4.186,4.858,6.546,2.423,25.74,18.52,8.276,2.426,28.37,1.281,7.947,7.42,1.309,-1.857,22.31,4.651,0,0,0,0,0,0,0,0,0,0,0,0,0,0,0,0,
539,7.656,2.022,0.6187,-0.7452,20.1,17.61,-6.315,14.03,23.02,-1.337,7.315,2.132,-6.592,-5.879,23.96,-1.485,0,0,0,0,0,0,0,0,0,0,0,0,0,0,0,0,
540,-3.543,-17.23,-15.63,-36.16,4.66,2.156,-10.78,-21.58,4.562,-13.31,-8.358,-14.02,-26.85,-17.39,7.417,-16.39,0,0,0,0,0,0,0,0,0,0,0,0,0,0,0,0,
541,-5.595,-27.21,-8.21,-56.73,8.582,6.055,-6.6,-29.11,8.915,-26.8,1.105,-5.655,-19.47,-8.368,7.917,-8.041,0,0,0,0,0,0,0,0,0,0,0,0,0,0,0,0,
542,7.566,-12.5,18,-25.96,26.22,22.45,-6.922,-1.589,29.59,-3.366,20.35,5.579,5.51,13.5,18.37,6.897,0,0,0,0,0,0,0,0,0,0,0,0,0,0,0,0,
543,0.3003,-10.82,8.91,2.715,17.14,11.14,-28.78,-10.19,27.93,25.87,14.22,-3.894,5.499,11.71,15,0.263,0,0,0,0,0,0,0,0,0,0,0,0,0,0,0,0,
544,-9.021,-16.72,-19.88,-5.32,-4.604,-0.7187,-45.97,-29,16,24.49,3.152,-8.205,-1.477,1.422,10.2,-12.5,0,0,0,0,0,0,0,0,0,0,0,0,0,0,0,0,
545,-3.318,-6.331,-25.49,-27.64,-12.01,1.743,-23.61,-41.8,2.692,6.461,-6.988,-16.3,-4.604,-6.598,-0.3852,-28.97,0,0,0,0,0,0,0,0,0,0,0,0,0,0,0,0,
546,-18.2,-11.13,-25.47,-49.18,-14.4,-12.6,-1.868,-64.94,-15,-12.54,-18.36,-33.69,-14.86,-20.58,-12.49,-42.22,0,0,0,0,0,0,0,0,0,0,0,0,0,0,0,0,
547,-33.66,-27.25,-27.88,-46.5,-9.39,-20.84,-21.42,-45.7,-5.967,-11.46,-8.998,-24.72,-8.306,-15.22,1.524,-23.88,0,0,0,0,0,0,0,0,0,0,0,0,0,0,0,0,
548,-18.42,-15.92,-19.88,-15.75,-0.4807,-7.573,-35.98,-1.627,11.24,9.269,5.93,-5.73,11.02,6.311,19.64,-1.274,0,0,0,0,0,0,0,0,0,0,0,0,0,0,0,0,
549,-10.85,1.032,-13.32,0.544,-0.7536,-5.344,-23.07,-4.937,-1.39,8.329,6.019,-8.803,12.56,10.77,15.77,-11.16,0,0,0,0,0,0,0,0,0,0,0,0,0,0,0,0,
550,-17.9,-1.207,-14.22,-7.495,2.178,-4.686,-24.79,-19.89,-5.346,-6.488,4.544,-10.69,11.15,8.259,12.03,-26.01,0,0,0,0,0,0,0,0,0,0,0,0,0,0,0,0,
551,-7.625,-0.4197,-11.99,-14.39,12.96,11.91,-18.02,-5.468,15.03,7.555,4.383,2.681,24.54,15,16.73,-19.73,0,0,0,0,0,0,0,0,0,0,0,0,0,0,0,0,
552,11.83,11.18,-1.849,-10.93,24.1,22.62,25.17,10.52,23.58,22.48,4.487,11.07,30.74,15.7,14.25,-12.8,0,0,0,0,0,0,0,0,0,0,0,0,0,0,0,0,
553,16.49,10.91,-1.277,-13.96,24.81,10.97,30.79,1.291,14.47,1.745,-2.171,-3.067,7.799,-1.937,-2.35,-30.9,0,0,0,0,0,0,0,0,0,0,0,0,0,0,0,0,
554,-2.798,-12.03,-23.35,-36.98,3.438,-16.58,-17.73,-26.75,-5.995,-16.29,-25.16,-31.88,-24.8,-24.57,-22.7,-57.01,0,0,0,0,0,0,0,0,0,0,0,0,0,0,0,0,
555,-27.87,-32.92,-34.9,-32.63,-8.196,-27.68,-36.01,-22.16,-19.6,-10.4,-36.9,-46.06,-32.6,-30.52,-26.76,-58.77,0,0,0,0,0,0,0,0,0,0,0,0,0,0,0,0,
556,-30.55,-31.05,-21.06,16.47,11.08,-8.679,-13.14,14.44,-7.287,-6.534,-24.46,-41.18,-23.57,-22.84,-17.03,-47.61,0,0,0,0,0,0,0,0,0,0,0,0,0,0,0,0,
557,-21.82,-25.02,-15.92,20.32,19.9,1.55,2.488,5.977,0.1217,0.9012,-11.65,-30.92,-18.54,-15.48,-10.44,-39.11,0,0,0,0,0,0,0,0,0,0,0,0,0,0,0,0,
558,-13.43,-23.91,-17.1,-29.76,9.195,-4.437,7.551,-32.51,-9.252,6.74,-1.904,-15.28,-13.97,-13.18,-13.84,-29.78,0,0,0,0,0,0,0,0,0,0,0,0,0,0,0,0,
559,2.005,-16.9,-2.393,-31.14,8.026,1.368,11.92,-28.02,-7.949,-13.98,-4.247,-13.54,-15.66,-23.15,-30.61,-34.42,0,0,0,0,0,0,0,0,0,0,0,0,0,0,0,0,
560,-3.264,-17.04,7.014,6.126,9.727,0.167,2.52,-1.8,-11.15,-22.96,-31.38,-40,-28.19,-36.74,-48.89,-47.36,0,0,0,0,0,0,0,0,0,0,0,0,0,0,0,0,
561,-40.59,-31.08,-7.898,-0.3915,2.736,-21.86,-22.13,-1.765,-30.01,-5.836,-51.37,-62.9,-37.59,-36.66,-54.11,-42.87,0,0,0,0,0,0,0,0,0,0,0,0,0,0,0,0,
562,-63.68,-41.94,-28.62,-23.79,-6.603,-32.09,-33.03,-16.63,-32.86,-13.03,-48.07,-65.76,-38.47,-30.79,-55.47,-32.77,0,0,0,0,0,0,0,0,0,0,0,0,0,0,0,0,
563,-55.11,-44.94,-30.66,-5.737,-8.327,-20.81,-24.76,-6.874,-17.83,-18.66,-40.51,-57.5,-28.11,-24.29,-55.93,-29.05,0,0,0,0,0,0,0,0,0,0,0,0,0,0,0,0,
564,-32.52,-35.62,-10.95,18.9,8.989,-1.651,-19.57,24.38,-4.262,12.81,-24.58,-33.6,-9.234,-12.36,-45.48,-20.12,0,0,0,0,0,0,0,0,0,0,0,0,0,0,0,0,
565,-4.917,-12.58,7.789,5.197,22.17,11.89,-5.144,14.48,-1.708,16.75,-9.475,-14.54,-2.776,-7.469,-30.76,-9.91,0,0,0,0,0,0,0,0,0,0,0,0,0,0,0,0,
566,1.961,-2.879,4.018,-12.95,4.741,0.7864,14.18,-27.05,-14.49,-11.72,-20.83,-23.93,-11.26,-13.42,-22.25,-7.348,0,0,0,0,0,0,0,0,0,0,0,0,0,0,0,0,
567,-15.01,-14.46,-5.176,-7.778,-4.933,-15.25,1.127,-18.4,-18.37,-6.073,-32.64,-30.29,-16.39,-17.08,-15.51,-8.288,0,0,0,0,0,0,0,0,0,0,0,0,0,0,0,0,
568,-16.42,-21.69,-1.154,-13.69,9.896,-10.33,-19.24,5.866,-10.27,1.622,-24.7,-20.46,-18.38,-20.31,-11.01,-12.17,0,0,0,0,0,0,0,0,0,0,0,0,0,0,0,0,
569,-7.107,-17.82,-7.954,-30.91,1.725,-11.1,-7.703,-14.02,-19,-24.54,-20.94,-19.9,-17.29,-23.97,-13.8,-16.12,0,0,0,0,0,0,0,0,0,0,0,0,0,0,0,0,
570,-4.883,-4.296,-18.75,-14.67,-14.15,-12.25,18.37,-11.93,-15.09,-26.22,-9.555,-9.362,1.033,-11.78,-6.599,-5.975,0,0,0,0,0,0,0,0,0,0,0,0,0,0,0,0,
571,12.57,15.26,2.164,18.52,5.612,11.73,28.22,15.12,13.92,1.84,15.18,18.37,15.82,5.069,9.798,4.632,0,0,0,0,0,0,0,0,0,0,0,0,0,0,0,0,
572,25.52,12.71,19.38,21.46,18.89,18.14,6.845,-8.215,7.93,8.424,8.523,18.36,2.559,-1.598,1.753,-12.78,0,0,0,0,0,0,0,0,0,0,0,0,0,0,0,0,
573,11.27,-0.7015,2.967,1.247,-0.3805,-0.1163,-6.565,-32.96,-18.31,6.389,-11.88,6.206,3.166,-6.333,-7.678,-25.05,0,0,0,0,0,0,0,0,0,0,0,0,0,0,0,0,
574,13.43,18.09,-13.63,-22.99,-16.17,2.425,17.46,-10.92,-9.146,13.81,-0.1303,18.1,31.25,12.4,12.15,-4.121,0,0,0,0,0,0,0,0,0,0,0,0,0,0,0,0,
575,24.61,33.52,-24.26,-32.26,-21.7,4.108,12.77,-0.4895,3.558,4.641,1.17,12.07,24.12,8.023,8.117,-1.402,0,0,0,0,0,0,0,0,0,0,0,0,0,0,0,0,
576,-2.975,5.726,-27.47,-8.118,-26.1,-14.51,-23.81,-10.06,-8.828,-12.24,-27,-17.67,-6.826,-15.47,-20.05,-18.97,0,0,0,0,0,0,0,0,0,0,0,0,0,0,0,0,
577,-30.46,-11.58,-22.86,-1.274,-35.93,-24.72,-19.68,-18.09,-22.73,-1.684,-28.45,-16.21,1.097,-1.566,-9.499,-6.37,0,0,0,0,0,0,0,0,0,0,0,0,0,0,0,0,
578,-19.63,0.1331,-38.81,-34.12,-48.59,-27.37,-13.35,-33.93,-23.42,13.71,-10.73,-0.3919,12.77,12.05,3.742,4.182,0,0,0,0,0,0,0,0,0,0,0,0,0,0,0,0,
579,-3.74,-5.796,-35.95,-29.79,-24.05,-18.05,-33.68,-31.57,-4.971,-4.047,-10.68,-2.378,-5.355,-12.79,-11.58,-7.966,0,0,0,0,0,0,0,0,0,0,0,0,0,0,0,0,
580,9.483,-16.62,15.75,6.011,24.6,13.04,-17.28,-9.554,17.03,-22.88,-2.561,5.997,-6.582,-16.13,-4.029,5.802,0,0,0,0,0,0,0,0,0,0,0,0,0,0,0,0,
581,28.91,-6.867,38.75,7.407,35.25,30.3,12.2,-5.896,19.53,-15.6,10.79,17.41,8.779,5.967,7.066,24.76,0,0,0,0,0,0,0,0,0,0,0,0,0,0,0,0,
582,28.66,-3.3,27.53,11.15,34.46,25.05,5.724,-6.016,20.16,-13.43,0.0668,4.074,4.215,3.179,-11.13,8.962,0,0,0,0,0,0,0,0,0,0,0,0,0,0,0,0,
583,10.06,-8.225,42.9,34.88,54.94,25.43,1.177,-0.2662,28.14,-9.718,-5.482,-7.455,-3.353,-3.869,-9.562,-2.946,0,0,0,0,0,0,0,0,0,0,0,0,0,0,0,0,
584,3.247,-2.895,42.96,29.06,47.8,24.81,9.998,-17.18,22.64,7.738,0.0404,-9.512,-4.269,-3.988,7.391,-0.8819,0,0,0,0,0,0,0,0,0,0,0,0,0,0,0,0,
585,2.518,-1.627,5.215,8.146,17.15,12.12,8.194,-33.89,9.869,-3.551,-14.62,-22.76,-15.18,-19.34,0.8446,-11.98,0,0,0,0,0,0,0,0,0,0,0,0,0,0,0,0,
586,-6.12,-12.07,-1.919,3.084,13.06,4.264,-2.927,-10.9,5.269,-20.95,-22.32,-27.64,-20.87,-21.92,3.334,-14.95,0,0,0,0,0,0,0,0,0,0,0,0,0,0,0,0,
587,-8.463,-12.12,18.36,1.064,19.04,13.46,-11.17,13.21,3.923,1.006,-6.478,-14.06,-8.43,-4.301,24.38,-0.383,0,0,0,0,0,0,0,0,0,0,0,0,0,0,0,0,
588,-0.1865,5.575,16.05,-1.158,19.48,26.61,0.0327,-4.748,5.533,11.5,0.8733,-4.243,3.55,-3.791,31.45,6.901,0,0,0,0,0,0,0,0,0,0,0,0,0,0,0,0,
589,0.9559,13.15,9.748,2.167,29.97,18.66,6.899,-20.08,6.738,-8.188,3.354,-0.6478,3.963,-13.01,26.61,7.817,0,0,0,0,0,0,0,0,0,0,0,0,0,0,0,0,
590,-6.865,-5.759,18.39,12.14,34.03,0.0222,-18.09,-11.19,2.24,-15.42,4.509,-3.16,-4.188,-12.89,14.13,3.209,0,0,0,0,0,0,0,0,0,0,0,0,0,0,0,0,
591,-6.168,-21.06,25.94,26.91,31.93,5.64,-21.39,-29.85,7.208,-13.45,-9.274,-13.9,-10,-12.49,2.195,-8.559,0,0,0,0,0,0,0,0,0,0,0,0,0,0,0,0,
592,2.866,-14.69,27.6,29.19,42.24,21.7,11.09,-51.78,20.11,-12.97,-12.42,-13.61,-1.894,-12.93,14.4,-3.484,0,0,0,0,0,0,0,0,0,0,0,0,0,0,0,0,
593,11.98,-4.388,22.15,13.47,40.15,28.37,19.8,-21.65,24.92,-12.08,9.031,9.857,15.88,-6.52,40.32,22.53,0,0,0,0,0,0,0,0,0,0,0,0,0,0,0,0,
594,40.34,16.7,28.37,11.95,31.25,53.46,19.09,12.48,38.4,0.2167,33.63,45.76,37.57,14.77,59.37,42.67,0,0,0,0,0,0,0,0,0,0,0,0,0,0,0,0,
595,82.06,49.94,55.7,38.35,44.07,79.57,37.18,17.43,55.08,29.7,42.09,64.21,49.49,29.42,58.9,35.09,0,0,0,0,0,0,0,0,0,0,0,0,0,0,0,0,
596,84.67,56.33,56.72,51.89,41.86,58.88,43.04,18.36,37.79,22.53,26.91,48.82,37.74,11.41,39.21,12.33,0,0,0,0,0,0,0,0,0,0,0,0,0,0,0,0,
597,55.81,40.67,31.58,40.53,21.14,31.78,32.72,3.666,15.37,-5.309,18.37,35.99,32.08,9.405,41.03,17.84,0,0,0,0,0,0,0,0,0,0,0,0,0,0,0,0,
598,47.97,39.98,24.35,36.1,22.58,40.29,17.33,-20.81,27.48,20.09,30.04,41.17,44.27,38.69,59.19,41.03,0,0,0,0,0,0,0,0,0,0,0,0,0,0,0,0,
599,48.12,41.07,16.89,29.86,18.84,43.7,9.907,-19.15,33.69,27.35,24.08,33.29,38.87,29.87,47.3,34.26,0,0,0,0,0,0,0,0,0,0,0,0,0,0,0,0,
600,37.13,31.2,5.965,10.13,-0.3763,27.81,24.47,-9.896,11.59,-16.76,14.59,24.29,25.68,1.093,37.27,19.54,0,0,0,0,0,0,0,0,0,0,0,0,0,0,0,0,
601,34.59,27.31,4.361,-4.505,-4.116,24.06,25.75,-32.55,2.695,-21.42,30.06,29.73,25.14,5.039,48.71,21.21,0,0,0,0,0,0,0,0,0,0,0,0,0,0,0,0,
602,32.55,25.78,-14.83,-14.75,-12.18,34.82,19.36,-76.09,15.05,-22.04,30.86,21.78,17.57,6.5,37.51,13.99,0,0,0,0,0,0,0,0,0,0,0,0,0,0,0,0,
603,21.32,20.85,-20.54,-3.918,-22.78,39.35,42.05,-83.42,14.18,-45.07,9.668,4.332,11.02,0.6398,15.8,-0.0684,0,0,0,0,0,0,0,0,0,0,0,0,0,0,0,0,
604,12.36,16.77,14.51,40.38,-8.402,23.55,33.08,-30.69,0.5563,-12.84,2.879,0.5331,17.52,10.03,14.47,-7.467,0,0,0,0,0,0,0,0,0,0,0,0,0,0,0,0,
605,8.063,11.4,33.61,63.44,6.189,6.79,-11.86,19.07,10.05,28.61,12.96,13.08,26,16.94,26.16,-4.53,0,0,0,0,0,0,0,0,0,0,0,0,0,0,0,0,
606,21.63,17.33,29.75,41.89,11.35,15.95,5.316,17.68,40.42,23.87,30.24,37.71,39.88,26.57,41.52,12.88,0,0,0,0,0,0,0,0,0,0,0,0,0,0,0,0,
607,47.41,32.95,30.94,19.88,14.1,24.18,44.95,-2.957,45.15,9.825,36.88,42.54,41.27,30.39,37.18,17.05,0,0,0,0,0,0,0,0,0,0,0,0,0,0,0,0,
608,43.87,26.71,23.86,16.3,-0.9703,8.305,19.63,-18.54,21.32,-15.52,21.95,17.23,21.28,10.56,17.79,2.051,0,0,0,0,0,0,0,0,0,0,0,0,0,0,0,0,
609,18.39,11.95,18.02,20.94,-9.104,0.0264,-8.203,-19.73,14.65,-16.16,16.88,10.11,23.85,13.48,23.98,6.762,0,0,0,0,0,0,0,0,0,0,0,0,0,0,0,0,
610,12.69,22.45,20.51,25.36,2.915,7.679,3.531,12.24,23.29,26.39,32.5,27.12,47.18,41.35,43.48,26.74,0,0,0,0,0,0,0,0,0,0,0,0,0,0,0,0,
611,21.54,30.29,6.153,18.63,-11.49,4.384,-1.439,34.36,14.83,23.18,42.77,33.65,50.34,42.18,48.41,35.69,0,0,0,0,0,0,0,0,0,0,0,0,0,0,0,0,
612,30.06,16.4,-14.68,3.382,-34.52,-0.0628,-15.09,1.599,15.23,0.0744,47.19,39.95,48.3,38.52,49.31,41.88,0,0,0,0,0,0,0,0,0,0,0,0,0,0,0,0,
613,45.23,17.93,-7.265,4.282,-4.383,18.57,6.417,-24.75,46.81,25.12,47.99,48.3,55.25,48.29,42.47,42.1,0,0,0,0,0,0,0,0,0,0,0,0,0,0,0,0,
614,51.5,35.65,27.51,23.63,42.26,37.85,36.75,-4.642,57.48,16.33,28.71,30.54,46.44,31.99,18.42,21.27,0,0,0,0,0,0,0,0,0,0,0,0,0,0,0,0,
615,30.75,33.29,52.23,23.36,44.95,31.24,39.11,2.696,28.3,-29.2,2.987,2.553,24.74,7.419,-2.628,-0.4018,0,0,0,0,0,0,0,0,0,0,0,0,0,0,0,0,
616,8.711,16.56,45.29,5.878,30.82,23.44,17.57,-11.04,17.33,-15.12,6.232,1.665,20.08,16.68,0.8941,3.817,0,0,0,0,0,0,0,0,0,0,0,0,0,0,0,0,
617,15.42,13.48,32.28,15.17,31.74,34.18,7.096,-3.622,37.15,19.46,36.5,23.71,36.55,37.56,22.97,21.03,0,0,0,0,0,0,0,0,0,0,0,0,0,0,0,0,
618,39.77,25.28,35.98,31.2,32.24,39.93,29.1,4.395,42.07,15.46,53.93,37.38,42.63,39.31,30.58,22.63,0,0,0,0,0,0,0,0,0,0,0,0,0,0,0,0,
619,52.3,31.23,40.93,20.98,27.96,32.85,39.06,-3.362,30.86,11.71,39.11,25.62,23.32,27.1,10.68,8.508,0,0,0,0,0,0,0,0,0,0,0,0,0,0,0,0,
620,44.35,25.36,34.23,18.14,28.81,30.21,23.52,-6.955,33.33,17.41,18.94,9.162,13.77,16.43,-0.8285,-1.583,0,0,0,0,0,0,0,0,0,0,0,0,0,0,0,0,
621,32.72,23.8,29.14,31.94,31.01,29.32,28.44,-11.72,35.43,7.364,13.05,10.5,25.24,10.47,8.65,-4.233,0,0,0,0,0,0,0,0,0,0,0,0,0,0,0,0,
622,28.66,23.34,33.27,31.4,28.42,23.07,30.3,-9.193,20,-7.605,7.313,15.67,25.55,2.795,7.682,-5.961,0,0,0,0,0,0,0,0,0,0,0,0,0,0,0,0,
623,28.48,18.78,35.2,22.49,24.87,21.46,19.29,7.519,18.61,-14.45,4.778,17.72,24.19,1.068,2.631,0.6889,0,0,0,0,0,0,0,0,0,0,0,0,0,0,0,0,
624,32.53,25.6,31.75,20.84,25.06,21.39,37.7,2.999,33.56,-15.26,14.25,21.52,34.56,8.697,10.03,8.442,0,0,0,0,0,0,0,0,0,0,0,0,0,0,0,0,
625,31.61,24.97,24.84,24.09,19.98,9.46,34.38,-14.13,21.66,-9.192,11.63,9.371,24.35,4.518,1.943,-5.662,0,0,0,0,0,0,0,0,0,0,0,0,0,0,0,0,
626,12.23,1.935,12.1,27.86,9.6,-0.8771,1.221,-17.68,1.395,-2.256,-1.524,-13.03,1.847,-8.784,-13.55,-21.51,0,0,0,0,0,0,0,0,0,0,0,0,0,0,0,0,
627,-5.969,-7.832,6.08,16.4,17.02,5.878,17.25,-30.25,15.19,-3.2,1.25,-19.38,-3.186,-9.172,-5.741,-16.22,0,0,0,0,0,0,0,0,0,0,0,0,0,0,0,0,
628,-2.385,-9.646,14.11,-0.2264,37.58,15.17,23.2,-30.37,33.66,-7.755,4.876,-18.01,-8.363,-6.809,-4.172,-17.54,0,0,0,0,0,0,0,0,0,0,0,0,0,0,0,0,
629,7.339,-30.59,25.77,21.26,43.43,17.2,-31.78,1.802,29.88,-17.89,2.034,-14.38,-13.81,-13.42,-18.56,-28.38,0,0,0,0,0,0,0,0,0,0,0,0,0,0,0,0,
630,8.219,-36.93,36.88,55.32,43.11,17.73,-39.27,1.427,29.06,-37.92,12.9,-3.476,-4.4,-19.14,-16.68,-23.27,0,0,0,0,0,0,0,0,0,0,0,0,0,0,0,0,
631,5.247,-17.76,37.35,41.34,51.26,14.31,11.69,-26.96,41.56,-48.34,21.85,-4.209,-1.9,-21.36,-11.39,-14.62,0,0,0,0,0,0,0,0,0,0,0,0,0,0,0,0,
632,1.034,-16.07,21.48,18.96,53.16,4.79,10.43,-13.63,46.78,-34.79,16.91,-13.91,-6.441,-14.45,-12.34,-8.825,0,0,0,0,0,0,0,0,0,0,0,0,0,0,0,0,
633,-3.742,-31.76,12.73,26.73,46.27,-3.81,-31.34,8.347,37.33,-5.24,25.29,-6.284,10.01,11.99,9.801,12.53,0,0,0,0,0,0,0,0,0,0,0,0,0,0,0,0,
634,1.705,-26.92,17.8,6.062,40.64,-4.229,-15.5,-10.6,36.03,15.97,50.2,10.46,35.6,36.83,46.23,38.88,0,0,0,0,0,0,0,0,0,0,0,0,0,0,0,0,
635,13.16,-6.601,14.1,-34.05,29.54,-1.131,31.21,-32.49,46.84,1.949,57.96,11.61,40.57,35.3,55.28,45.53,0,0,0,0,0,0,0,0,0,0,0,0,0,0,0,0,
636,2.367,-6.138,1.627,-18.52,11.34,-10.82,7.199,-25.22,30.32,-11.58,29.09,-5.849,28.69,27.76,28.44,33.73,0,0,0,0,0,0,0,0,0,0,0,0,0,0,0,0,
637,-27.5,-23.77,-8.539,9.595,-7.4,-35.41,-53.78,-16.79,-17.75,3.074,-10.77,-26.83,11.06,20.39,-5.286,14.36,0,0,0,0,0,0,0,0,0,0,0,0,0,0,0,0,
638,-40.06,-37.44,-22.75,-13.92,-26.89,-52.49,-55.62,-27.86,-42.5,-20.17,-19.98,-29.3,-11.57,-13.54,-19.16,-9.325,0,0,0,0,0,0,0,0,0,0,0,0,0,0,0,0,
639,-23.9,-40.54,-24.7,-22.3,-29.37,-36.93,-14.38,-15.74,-23.83,-58.31,-2.883,-9.047,-16.86,-36.62,-16.01,-23.34,0,0,0,0,0,0,0,0,0,0,0,0,0,0,0,0,
640,1.711,-25.16,1.686,20.41,-9.575,-4.04,13.43,21.56,-12.58,-24.84,-1.964,0.1339,-3.108,-15.32,-19.93,-24.78,0,0,0,0,0,0,0,0,0,0,0,0,0,0,0,0,
641,0.2227,-11.18,16.35,28.88,-2.451,-0.6301,12.31,12.31,-35.6,7.632,-25.17,-24.2,-10.58,-10.59,-40.08,-37.69,0,0,0,0,0,0,0,0,0,0,0,0,0,0,0,0,
642,-31.82,-25.4,12.19,-3.027,0.3419,-13.33,-0.7083,-8.573,-39.34,-11.02,-37.69,-47.23,-25.59,-29.19,-53.95,-51.48,0,0,0,0,0,0,0,0,0,0,0,0,0,0,0,0,
643,-38.01,-31.25,23.93,-2.241,23.77,-2.728,2.534,7.86,-5.874,-11.54,-30.79,-44.01,-13.75,-20.11,-51.84,-43.12,0,0,0,0,0,0,0,0,0,0,0,0,0,0,0,0,
644,-10.25,-9.883,20.05,5.148,28.91,4.342,7.236,-15.69,6.88,0.901,-23.27,-31.65,1.89,-4.747,-45.84,-30.12,0,0,0,0,0,0,0,0,0,0,0,0,0,0,0,0,
645,8.09,3.635,2.162,3.417,17.62,1.584,-2.507,-34.1,-1.862,10.75,-14.76,-16.37,10.16,-2.301,-37.47,-21.57,0,0,0,0,0,0,0,0,0,0,0,0,0,0,0,0,
646,14.55,4.251,22,33.8,25.04,9.385,-8.046,30.36,-4.558,7.828,-21.39,-17.11,4.063,-14.94,-45.28,-28.23,0,0,0,0,0,0,0,0,0,0,0,0,0,0,0,0,
647,-0.5072,-5.593,27,40.69,15.76,-3.165,-11.66,34.42,-21.34,-47.02,-51.39,-41.19,-19.82,-46.65,-62.73,-48.47,0,0,0,0,0,0,0,0,0,0,0,0,0,0,0,0,
648,-27.32,-14.53,1.033,10.37,2.323,-14.48,-2.769,-30.09,-26.91,-55.05,-43.12,-26.56,-2.014,-34.46,-31.44,-28.6,0,0,0,0,0,0,0,0,0,0,0,0,0,0,0,0,
649,-1.771,13.85,22.02,23.42,35.03,21.82,34.96,4.408,6.366,34.28,9.371,27.78,49.91,18.76,17.36,9.451,0,0,0,0,0,0,0,0,0,0,0,0,0,0,0,0,
650,45.58,51.17,44.68,41.19,57.75,47.81,57.98,58.65,24.23,64.21,25.65,41.85,53.52,21.6,11.22,-2.223,0,0,0,0,0,0,0,0,0,0,0,0,0,0,0,0,
651,39.94,49.45,17.04,24.47,35.97,29.8,40.52,26.13,6.994,14.19,5.296,20.57,25.7,-5.235,-8.654,-23.13,0,0,0,0,0,0,0,0,0,0,0,0,0,0,0,0,
652,17.02,29.39,8.8,31.19,18.74,12.9,23.13,10.94,-5.855,5.476,-0.8055,12.87,15.11,-5.388,-6.3,-18.7,0,0,0,0,0,0,0,0,0,0,0,0,0,0,0,0,
653,15.53,15.02,16.6,35.49,11.87,4.771,29.71,24.93,-1.482,22.95,4.723,14.34,11.44,-0.4392,-9.085,-17.75,0,0,0,0,0,0,0,0,0,0,0,0,0,0,0,0,
654,15.06,4.801,-1.454,9.921,8.407,-1.954,25.38,4.082,8.655,5.162,2.528,9.838,1.684,-4.773,-17.44,-18.48,0,0,0,0,0,0,0,0,0,0,0,0,0,0,0,0,
655,6.2,-9.476,-4.713,10.01,18.37,-1.162,-11.44,-10.92,7.152,-30.48,-17.12,-7.844,-18.19,-16.81,-31.05,-20.96,0,0,0,0,0,0,0,0,0,0,0,0,0,0,0,0,
656,-12.49,-24.02,7.374,23.71,22.79,0.6035,-26.18,-9.5,-6.623,-32.22,-35.68,-23.86,-25.91,-20.37,-44.21,-24.2,0,0,0,0,0,0,0,0,0,0,0,0,0,0,0,0,
657,-26.75,-9.425,-4.086,3.207,12.93,1.376,5.165,-18.79,-15.66,7.731,-29.4,-16.73,-8.71,-3.123,-36.48,-13.08,0,0,0,0,0,0,0,0,0,0,0,0,0,0,0,0,T2
658,-17.4,17.54,-12.06,-23.22,6.592,1.617,22.29,-11.57,-12.92,28.76,-16.28,1.485,1.832,1.972,-17.81,0.9656,0,0,0,0,0,0,0,0,0,0,0,0,0,0,0,0,
659,6.797,16.41,10.08,-4.274,15.81,9.073,16.85,8.085,8.596,17.46,0.1052,24.22,7.07,-5.116,-0.0332,14.66,0,0,0,0,0,0,0,0,0,0,0,0,0,0,0,0,
660,33.06,8.848,28.68,33.74,28.2,24.74,21.59,2.41,26.8,9.721,19.15,37.28,9.174,-7.721,0.6562,15.77,0,0,0,0,0,0,0,0,0,0,0,0,0,0,0,0,
661,37.69,3.534,22.77,22.74,19.62,19.32,13.41,-6.765,7.224,-6.763,10.12,14.51,-12.39,-25.34,-23.69,-11.45,0,0,0,0,0,0,0,0,0,0,0,0,0,0,0,0,
662,8.391,-13.59,16.04,-6.289,4.806,-4.195,-14.13,6.031,-12.89,-25.02,-7.715,-10.65,-26.63,-36.35,-35.99,-25.94,0,0,0,0,0,0,0,0,0,0,0,0,0,0,0,0,
663,-15.73,-15.47,15.73,-1.784,8.207,-10.75,-24.18,12.07,-0.4414,-9.644,-4.912,-9.104,-23.06,-22.36,-35.97,-19.11,0,0,0,0,0,0,0,0,0,0,0,0,0,0,0,0,
664,-11.63,-3.796,9.319,-5.32,11.96,-3.438,-12.08,8.374,11.48,15.73,2.122,-0.5601,-25.61,-15.02,-43.69,-22.83,0,0,0,0,0,0,0,0,0,0,0,0,0,0,0,0,
665,6.278,-3.301,3.258,-13.4,2.11,1.256,-2.455,16.72,15.54,12.86,16.87,15.58,-16.98,-12.47,-33.36,-18.53,0,0,0,0,0,0,0,0,0,0,0,0,0,0,0,0,
666,24.56,-4.475,-2.523,0.5527,-11.19,1.561,-3.86,18.75,19.62,-3.632,29.96,22.39,-9.583,-6.895,-22.08,-8.111,0,0,0,0,0,0,0,0,0,0,0,0,0,0,0,0,
667,18.53,-12.04,-12.3,-5.136,-18.15,-2.909,-11.33,9.842,8.251,0.7094,9.78,-9.376,-28.06,-14.04,-44.53,-20.54,0,0,0,0,0,0,0,0,0,0,0,0,0,0,0,0,
668,-15.49,-25.34,-13,-14.8,-18.23,-9.829,-25.28,1.107,-10.69,8.242,-18.2,-41.8,-36.38,-23.04,-61.32,-31.03,0,0,0,0,0,0,0,0,0,0,0,0,0,0,0,0,
669,-41.58,-17.08,-7.534,-9.354,-21.17,-18.98,-23.1,-17.42,-22.75,-12.38,-18.21,-36.84,-20.08,-17.48,-40.69,-15.37,0,0,0,0,0,0,0,0,0,0,0,0,0,0,0,0,
670,-41.19,0.5604,-2.442,-26.02,-18.9,-21.95,12.31,-18.06,-24.9,-19.26,-1.035,-16.05,-3.62,-0.1288,-10.84,6.789,0,0,0,0,0,0,0,0,0,0,0,0,0,0,0,0,
671,-24.53,0.4989,8.072,-23.27,-5.471,-12.04,23.09,5.013,-14.86,1.441,8.413,-7.679,-0.8968,9.543,-2.723,10.09,0,0,0,0,0,0,0,0,0,0,0,0,0,0,0,0,
672,-7.334,-6.971,8.438,6.886,-4.053,-5.028,-9.558,3.345,-6.394,-3.388,5.054,-9.426,-11.5,1.034,-8.457,-1.535,0,0,0,0,0,0,0,0,0,0,0,0,0,0,0,0,
673,2.677,-4.008,-6.979,-11.7,-7.48,-4.698,-15.26,4.007,-0.8066,-5.972,8.479,-4.405,-13.64,2.77,-3.985,-1.075,0,0,0,0,0,0,0,0,0,0,0,0,0,0,0,0,
674,2.88,0.4186,-17.6,-39.72,-0.4205,-9.023,-9.653,28.63,8.008,22.95,12.65,-3.868,-10.53,13.54,-1.92,3.859,0,0,0,0,0,0,0,0,0,0,0,0,0,0,0,0,
675,-11.98,-17.49,-22.77,-24.38,-6.865,-25.51,-41.62,20.23,2.784,19.96,-2.04,-18.58,-24.56,0.5093,-14.11,-6.851,0,0,0,0,0,0,0,0,0,0,0,0,0,0,0,0,
676,-22.29,-40.09,-21.18,-14.83,-17.68,-29.75,-47.09,3.1,-5.382,-0.9295,-10.33,-20.24,-34.57,-11.35,-17.34,-11.36,0,0,0,0,0,0,0,0,0,0,0,0,0,0,0,0,
677,-12.36,-28.95,-5.337,-9.682,-11.39,-11.19,-5.178,16.91,0.6513,12.09,-3.051,-9.509,-39.53,-0.9217,-12.02,-2.175,0,0,0,0,0,0,0,0,0,0,0,0,0,0,0,0,
678,-10.09,-4.751,1.168,6.569,-15.06,-8.815,11.99,14.43,-4.66,13.78,-2.489,-12.79,-60.03,6.426,-11.45,6.063,0,0,0,0,0,0,0,0,0,0,0,0,0,0,0,0,
679,-18.51,4.445,-9.781,-2.118,-30.34,-25.04,0.5965,-1.38,-15.24,1.598,-6.962,-22.84,-67.47,11.27,-17.36,15.46,0,0,0,0,0,0,0,0,0,0,0,0,0,0,0,0,
680,-21.4,4.792,-18.08,-21.42,-38.72,-33.92,-11.41,-10.68,-15.49,0.9092,-24.26,-37.61,-66.05,5.324,-40.93,8.142,0,0,0,0,0,0,0,0,0,0,0,0,0,0,0,0,
681,-34.06,-14.11,-26.41,-28.59,-49.29,-35,-29.94,-30.33,-31.45,-27.61,-45.74,-48.67,-81.93,-20.26,-54.93,-13.45,0,0,0,0,0,0,0,0,0,0,0,0,0,0,0,0,
682,-35.53,-29.32,-22.61,-36.08,-36.48,-11.67,-18.83,-14.08,-34.34,-35.69,-29.33,-27.43,-71.9,-12.57,-26.44,0.3568,0,0,0,0,0,0,0,0,0,0,0,0,0,0,0,0,
683,-3.1,2.168,13.6,-22.02,14.08,32.61,38.24,38.98,8.406,19.19,-5.724,-6.559,-42.23,19.2,-9.936,24.14,0,0,0,0,0,0,0,0,0,0,0,0,0,0,0,0,
684,5.787,25.88,34.04,13.6,33.21,35.17,54.54,39.46,25.27,26.7,-25.52,-27.91,-54.37,1.777,-40.89,-0.4141,0,0,0,0,0,0,0,0,0,0,0,0,0,0,0,0,
685,-28.93,-5.298,7.799,17.59,-1.824,-8.472,3.788,7.621,-11.43,-13.84,-45.42,-49.79,-68.46,-26.1,-57.1,-23.99,0,0,0,0,0,0,0,0,0,0,0,0,0,0,0,0,
686,-45.85,-28.42,-3.476,2.176,-18.03,-26.64,-18.66,18.78,-29.2,-5.476,-32.06,-41.36,-53.25,-18.59,-41.47,-14.3,0,0,0,0,0,0,0,0,0,0,0,0,0,0,0,0,
687,-35.53,-27.65,21.24,21.45,2.252,-10.57,-7.86,32.47,-19.51,-3.643,-29.55,-41.78,-75.99,-38.37,-51.41,-34.45,0,0,0,0,0,0,0,0,0,0,0,0,0,0,0,0,
688,-44.01,-54.87,22.26,33.04,-1.979,-13.75,-39.85,4.034,-33.07,-34.24,-54.05,-66.89,-125.9,-80.71,-84.67,-76.51,0,0,0,0,0,0,0,0,0,0,0,0,0,0,0,0,
689,-71.02,-87.69,-6.115,-10.39,-37.21,-37.48,-79.36,-18.71,-59.58,-32.09,-62.48,-78.45,-132.6,-83.08,-90.18,-78.12,0,0,0,0,0,0,0,0,0,0,0,0,0,0,0,0,
690,-75.97,-90.12,-13.56,-33.64,-47.18,-42.74,-77.34,-9.218,-57.5,-35.98,-42.84,-59.64,-117.2,-74.7,-70.11,-61.18,0,0,0,0,0,0,0,0,0,0,0,0,0,0,0,0,
691,-52.44,-86.17,-0.1233,-4.482,-26.77,-27.32,-67.73,-8.816,-32.32,-60.37,-32.75,-35.84,-105.6,-75.97,-53.2,-54.54,0,0,0,0,0,0,0,0,0,0,0,0,0,0,0,0,
692,-28.11,-75.13,3.179,4.527,-16.45,-7.336,-48.98,-27.18,-19.43,-49.26,-36.32,-18.85,-74.76,-56.63,-35.45,-37.32,0,0,0,0,0,0,0,0,0,0,0,0,0,0,0,0,
693,-7.205,-41.09,2.139,-3.014,-15.34,16.64,-13.8,-28.36,-25.91,-33.66,-22.21,2.292,-38.02,-35.97,-9.003,-15.12,0,0,0,0,0,0,0,0,0,0,0,0,0,0,0,0,
694,20.95,-4.78,8.95,2.095,-7.863,34.51,1.923,-16.72,-21.96,-31.95,9.552,30.53,-4.997,-22.42,19.93,3.756,0,0,0,0,0,0,0,0,0,0,0,0,0,0,0,0,
695,47.84,26.82,12.99,-7.882,0.4783,41.49,9.437,-11.81,9.918,-4.405,40.39,58.65,43.45,15.5,46.76,34.97,0,0,0,0,0,0,0,0,0,0,0,0,0,0,0,0,
696,66.83,57.67,17.55,-6.918,14.99,57.34,32.85,1.104,36.96,29.37,56.43,72.42,80.75,51.94,56.41,55.19,0,0,0,0,0,0,0,0,0,0,0,0,0,0,0,0,
697,75.04,72.75,27.17,6.633,26.67,68.88,57.82,9.707,24.98,30.82,47.45,66.58,78.03,44.38,39.37,38.86,0,0,0,0,0,0,0,0,0,0,0,0,0,0,0,0,
698,64,73.27,14.05,-20.23,10.19,48.67,74.8,-3.264,3.948,7.851,32.32,60.88,68,26.42,25.59,25.37,0,0,0,0,0,0,0,0,0,0,0,0,0,0,0,0,
699,54.41,77.87,-14.7,-26.07,-11.01,39.31,75.44,7.178,15.18,11.6,35.78,68.69,80.2,46.49,37.82,42.33,0,0,0,0,0,0,0,0,0,0,0,0,0,0,0,0,
700,70.52,93.65,-9.098,25.7,-5.769,68.62,60.78,47.62,32.65,55.66,41.12,71.11,89.79,71.11,43.4,49.28,0,0,0,0,0,0,0,0,0,0,0,0,0,0,0,0,
701,75.14,95.35,5.425,34.01,-0.8524,67.8,38.23,52.55,15.92,60.38,24.33,47.99,66.2,49.2,20.1,27.08,0,0,0,0,0,0,0,0,0,0,0,0,0,0,0,0,
702,40.93,56.69,-17.82,0.9949,-14.45,22.22,7.288,23.54,-8.679,27.9,7.363,22.15,36.66,23.23,6.912,16.79,0,0,0,0,0,0,0,0,0,0,0,0,0,0,0,0,
703,19.95,23.77,-29.96,-3.719,-22.3,9.187,2.261,7.792,-1.843,28.77,16.07,25.77,37.69,31.44,20.38,27.83,0,0,0,0,0,0,0,0,0,0,0,0,0,0,0,0,
704,33.07,35.72,-17.6,-22.52,-23.71,26.63,34.64,-7.534,8.449,8.604,25.84,39.6,42.85,25.57,24.01,27.12,0,0,0,0,0,0,0,0,0,0,0,0,0,0,0,0,
705,41.77,45.89,-29.89,-47.6,-31.27,30.84,54.47,-21.79,0.7708,-28.91,27.18,47.24,41.76,13.03,22.43,24.97,0,0,0,0,0,0,0,0,0,0,0,0,0,0,0,0,
706,53.12,46.28,-26.91,-5.302,-31.7,45.48,49.99,-3.436,11.41,6.05,41,61.05,62.06,38.98,39.65,41.3,0,0,0,0,0,0,0,0,0,0,0,0,0,0,0,0,
707,68.44,62.19,11.87,42.66,-25.77,60.25,36.84,13.89,29.17,36.64,41.31,59.52,75.46,55.52,49.19,50.33,0,0,0,0,0,0,0,0,0,0,0,0,0,0,0,0,
708,50.17,59.23,15.02,21.05,-20.8,38.04,22.36,-1.019,16.94,19.88,25.54,44.04,64.97,42.96,49.44,50.49,0,0,0,0,0,0,0,0,0,0,0,0,0,0,0,0,
709,27.08,42.92,-6.222,-2.675,-10.79,16.06,24.22,-5.013,7.277,42.15,36.03,52.15,66.79,46.6,60.81,56.92,0,0,0,0,0,0,0,0,0,0,0,0,0,0,0,0,
710,34.82,49.85,-1.442,10.64,-12.78,21.14,19.29,16.56,14.14,52,39.75,58.13,69.23,47.69,54.99,47.13,0,0,0,0,0,0,0,0,0,0,0,0,0,0,0,0,
711,42.47,52.24,5.379,6.033,-22.52,30.78,-4.504,23.28,9.844,14.4,18.52,45.94,62.63,36.3,37.02,32.63,0,0,0,0,0,0,0,0,0,0,0,0,0,0,0,0,
712,43.94,46.74,-0.4816,-14.08,-13.68,33.16,-3.298,5.381,5.719,17.12,27.37,51,73.97,44.35,44.49,44.02,0,0,0,0,0,0,0,0,0,0,0,0,0,0,0,0,
713,47.23,56.25,-10.11,-8.139,-15.2,16.22,13.75,-9.274,10.47,30.65,42.07,56.83,81.75,49.42,53.21,54.13,0,0,0,0,0,0,0,0,0,0,0,0,0,0,0,0,
714,39.36,57.44,-14.5,5.216,-30.54,-3.642,19.34,-4.777,17.93,16.97,26.51,49.8,74.63,43.41,47.28,55.22,0,0,0,0,0,0,0,0,0,0,0,0,0,0,0,0,
715,37.85,51.4,-2.087,2.988,-17.05,12.66,32.54,7.169,32.91,28.98,28.26,57.09,75.62,54.62,50.3,70.67,0,0,0,0,0,0,0,0,0,0,0,0,0,0,0,0,
716,47.29,55.66,4.005,-2.828,-2.532,38.87,38.96,10.45,38.66,47.25,46.15,62.1,71.1,65.35,56.33,79.6,0,0,0,0,0,0,0,0,0,0,0,0,0,0,0,0,
717,39.27,46.94,-7.791,-10.09,-18.21,26.79,11.88,-4.757,24.47,42.82,37.87,44.45,57.53,57.31,50.8,65.2,0,0,0,0,0,0,0,0,0,0,0,0,0,0,0,0,
718,14.45,20.99,-18.89,-22.26,-35.23,-13.24,-25.04,-32.81,3.949,21.67,13.75,19.58,43.95,35.98,29.49,43.05,0,0,0,0,0,0,0,0,0,0,0,0,0,0,0,0,
719,-8.495,-0.1957,-28.14,-25.57,-39.86,-39.57,-39.85,-31.41,-10.29,-10.64,-2.141,5.171,25.83,14.68,4.154,28.98,0,0,0,0,0,0,0,0,0,0,0,0,0,0,0,0,
720,-14.71,-9.49,-27.48,-15.08,-33.64,-33.36,-39.78,-2.072,-8.774,1.33,-4.064,11.87,22.75,18.01,1.062,30.16,0,0,0,0,0,0,0,0,0,0,0,0,0,0,0,0,
721,-8.901,-11.29,-22.64,-19.66,-30.99,-22.23,-46.69,-18.92,-8.971,25.72,-5.491,15.77,23.47,19.27,3.664,27.18,0,0,0,0,0,0,0,0,0,0,0,0,0,0,0,0,
722,-15.23,-18.4,-31.49,-47.6,-39.63,-21.2,-38.79,-56,-18.27,-15.61,-7.044,4.959,7.037,-1.761,0.1329,20.05,0,0,0,0,0,0,0,0,0,0,0,0,0,0,0,0,
723,-16.56,-22.89,-23.09,-44.53,-23.22,-7.561,-11.22,-28.42,-8.14,-28.69,13.11,13.88,14.2,6.343,17.03,34.61,0,0,0,0,0,0,0,0,0,0,0,0,0,0,0,0,
724,2.932,-7.791,1.946,-1.325,6.895,4.366,-13.28,-2.183,6.378,22.42,28.49,27.07,35.13,30.09,30.22,45.37,0,0,0,0,0,0,0,0,0,0,0,0,0,0,0,0,
725,4.128,0.1065,-8.43,8.279,1.151,-5.461,-34.11,-37.91,3.466,29.74,14.86,14.26,23.12,21.66,20.69,36.39,0,0,0,0,0,0,0,0,0,0,0,0,0,0,0,0,
726,-12.75,-16.66,-43.46,-30.7,-21.33,-16.94,-43.95,-57.37,4.257,5.49,11.38,5.75,5.126,9.538,19.87,31.61,0,0,0,0,0,0,0,0,0,0,0,0,0,0,0,0,
727,-16.02,-31.37,-65.42,-70.03,-31.77,-28.82,-58.8,-51.52,-1.536,-21.67,18.48,7.308,-5.407,-0.6102,13.83,20.56,0,0,0,0,0,0,0,0,0,0,0,0,0,0,0,0,
728,-17.09,-31.59,-71.48,-85.83,-27.56,-37.61,-50.14,-62.28,-17.18,-53.64,13.1,6.06,-12.76,-7.288,-0.8138,16.03,0,0,0,0,0,0,0,0,0,0,0,0,0,0,0,0,
729,-17.58,-21.26,-53.23,-60.56,-6.274,-30.32,-23.13,-50.46,-13.06,-19.16,18.7,14.81,7.744,18.7,10.41,39.43,0,0,0,0,0,0,0,0,0,0,0,0,0,0,0,0,
730,-10.07,-7.971,-21.81,-13.98,6.295,-27.49,-38.11,-17.34,-3.435,25.2,33.14,24.32,31.98,34.62,24.16,49.33,0,0,0,0,0,0,0,0,0,0,0,0,0,0,0,0,
731,-2.521,-0.003,-22,-1.548,3.304,-22.27,-54.5,-4.633,6.807,-1.589,40.38,33.84,38.33,26.12,26.63,46.63,0,0,0,0,0,0,0,0,0,0,0,0,0,0,0,0,
732,11.71,8.792,-47.19,-18.12,1.653,-7.54,-36.64,-15.02,24.88,-9.286,45.58,46.17,41.74,32.58,34.96,55.2,0,0,0,0,0,0,0,0,0,0,0,0,0,0,0,0,
733,13.37,5.979,-46.64,-37.4,-12.34,-21.93,-32.44,-52.32,9.969,8.141,35.48,35.35,28.81,26.35,29.41,48.94,0,0,0,0,0,0,0,0,0,0,0,0,0,0,0,0,
734,-7.095,-10.98,-23.7,-51.9,-18.39,-35.66,-31.54,-63.06,-15.46,2.454,26.47,24.68,21.05,16.01,22.04,48.63,0,0,0,0,0,0,0,0,0,0,0,0,0,0,0,0,
735,-4.898,-3.857,-6.687,-34.42,9.132,-12.79,-19.92,-13.26,3.814,9.836,40.25,35.7,40.29,30.52,27.01,64.97,0,0,0,0,0,0,0,0,0,0,0,0,0,0,0,0,
736,3.828,14.13,3.048,-5.392,18.4,-13.11,-23.29,-10.45,14.96,-4.392,37.18,24.78,39.14,17.69,9.592,48.99,0,0,0,0,0,0,0,0,0,0,0,0,0,0,0,0,
737,-14.06,9.838,-11.07,-15.08,1.86,-29.39,-14.75,-54.97,-4.579,-23.69,19.05,2.944,24.29,-4.718,-6.734,28.9,0,0,0,0,0,0,0,0,0,0,0,0,0,0,0,0,
738,-13.43,8.257,-34.47,-29.45,15.05,-7.975,3.428,-25.53,4.1,16.34,18.46,3.128,25.6,8.291,1.884,35.6,0,0,0,0,0,0,0,0,0,0,0,0,0,0,0,0,
739,-0.3921,4.987,-13.64,-4.939,34.69,2.94,-10.07,19.22,21.89,17.31,8.262,-2.992,12.39,6.279,-5.927,27.03,0,0,0,0,0,0,0,0,0,0,0,0,0,0,0,0,
740,-10.5,-10.78,20.33,20.69,25.79,-10.68,-14.48,-3.931,15.58,-28.63,-1.451,-4.722,4.212,-3.902,-10.06,20.84,0,0,0,0,0,0,0,0,0,0,0,0,0,0,0,0,
741,-5.826,2.283,17.91,9.598,24.73,-0.8372,16.47,-19.3,13.94,-1.993,22.44,19.18,27.72,15.47,15.92,39.61,0,0,0,0,0,0,0,0,0,0,0,0,0,0,0,0,
742,10.77,27.9,1.193,-8.182,34.48,9.704,19.96,0.1822,14.64,39.5,37.09,27.34,33.66,22.32,23.39,39.31,0,0,0,0,0,0,0,0,0,0,0,0,0,0,0,0,
743,2.801,18.38,-26.5,-5.709,22.12,3.756,-14.13,0.6445,9.027,15.83,26.87,13.6,12.32,6.607,12.31,24.41,0,0,0,0,0,0,0,0,0,0,0,0,0,0,0,0,
744,-7.015,-5.98,-47.16,-21,3.335,2.267,-24.13,-30.12,11.53,-21.52,25.31,6.897,-2.229,-7.909,12.22,18.94,0,0,0,0,0,0,0,0,0,0,0,0,0,0,0,0,
745,-7.847,-17.89,-21.34,-47.25,2.617,-4.626,2.858,-55.4,13.1,-27.48,25.61,6.263,-2.328,-15.71,9.058,9.09,0,0,0,0,0,0,0,0,0,0,0,0,0,0,0,0,
746,-7.657,-12.25,2.445,-21.74,8.514,-15.57,17.17,-33.49,17.12,-1.401,26.34,14.15,15.17,-1.093,11.87,11.06,0,0,0,0,0,0,0,0,0,0,0,0,0,0,0,0,
747,-0.5291,5.157,-3.874,11.13,7.18,-20.16,-5.916,1.742,31.39,10.89,35.4,26.8,31.91,16.83,25.47,31.23,0,0,0,0,0,0,0,0,0,0,0,0,0,0,0,0,
748,3.405,12.59,-10.32,4.224,5.776,-15.26,-11.47,0.9002,35.81,-2.095,34.06,30.29,30.53,18.26,27.19,40.22,0,0,0,0,0,0,0,0,0,0,0,0,0,0,0,0,
749,10.11,14.35,-43.09,17.63,14.09,8.657,26.8,-9.482,34.68,17.93,35.26,39.3,39,31.87,37.03,50,0,0,0,0,0,0,0,0,0,0,0,0,0,0,0,0,
750,28.61,19.14,-58.14,25.77,21.84,17.07,22.97,-22.13,40.7,40.51,53.35,53.58,56.04,44.45,61.67,69.22,0,0,0,0,0,0,0,0,0,0,0,0,0,0,0,0,
751,30.1,13.16,12.96,-12.57,19.68,-8.724,-31.1,-41.08,35.61,9.303,51.76,43.73,43.81,23.58,55.91,61.04,0,0,0,0,0,0,0,0,0,0,0,0,0,0,0,0,
752,8.317,4.771,35.83,-10.71,13.25,-18.74,-24.48,-30.18,14.16,-23.85,25.65,17.14,14.26,-0.2325,20.62,30.65,0,0,0,0,0,0,0,0,0,0,0,0,0,0,0,0,
753,-8.078,4.893,-42.92,21.37,-2.756,-9.607,21.66,0.1256,-3.916,-18.91,11.28,4.311,3.156,0.8789,0.9499,19.67,0,0,0,0,0,0,0,0,0,0,0,0,0,0,0,0,
754,-9.863,6.558,-44.1,3.91,-29.68,-11.03,16.11,29.47,-7.737,7.688,4.823,2.021,9.163,12.5,4.051,23.89,0,0,0,0,0,0,0,0,0,0,0,0,0,0,0,0,
755,-8.88,12.32,20.39,1.354,-46.08,-11.71,1.444,65.14,-5.162,36.02,-8.925,-1.551,17.16,21.81,8.285,20.41,0,0,0,0,0,0,0,0,0,0,0,0,0,0,0,0,
756,-9.846,22.15,14.63,44.41,-38.86,-10.54,17.5,73.21,-4.444,40.79,-12.52,4.366,23.26,25.5,5.6,14.75,0,0,0,0,0,0,0,0,0,0,0,0,0,0,0,0,
757,-1.359,33.41,5.636,43.49,-18.5,-6.31,32.54,45.01,-3.847,22.37,-4.278,14.49,22.39,19.83,-1.407,9.929,0,0,0,0,0,0,0,0,0,0,0,0,0,0,0,0,
758,9.99,39.62,12.36,-1.694,-11.79,5.77,45.12,26.27,-7.702,5.74,-6.516,6.347,10.18,8.906,-9.085,-1.636,0,0,0,0,0,0,0,0,0,0,0,0,0,0,0,0,
759,-2.459,20.6,-26.51,-13.15,-30.97,-7.404,37.21,22.82,-22.16,-1.484,-23.99,-11.61,-7.866,-2.763,-13,-12.71,0,0,0,0,0,0,0,0,0,0,0,0,0,0,0,0,
760,-28.86,-10.84,-38.38,5.396,-45.36,-39.22,-4.921,20.86,-40.44,-6.275,-40.99,-15.97,-19.19,-14.31,-11.38,-13.2,0,0,0,0,0,0,0,0,0,0,0,0,0,0,0,0,
761,-31.3,-12.1,-16.37,6.634,-28.47,-32.63,-18.27,28.72,-41.61,-1.341,-29.19,-0.4674,-9.281,-7.605,0.1438,-0.6111,0,0,0,0,0,0,0,0,0,0,0,0,0,0,0,0,
762,-6.115,13.05,-3.907,8.662,-0.9963,-0.8724,10.18,35.8,-13.97,21.03,6.668,19.53,5.818,12.46,11.77,12.85,0,0,0,0,0,0,0,0,0,0,0,0,0,0,0,0,
763,7.117,18.98,25.22,25.17,2.706,-1.671,20.66,21.2,1.694,21.8,7.556,13.32,-9.429,-0.6521,-3.874,2.62,0,0,0,0,0,0,0,0,0,0,0,0,0,0,0,0,
764,-11.11,-2.913,-0.1054,7.481,-19.36,-22.8,16.93,2.772,-20.53,-12.67,-23.63,-9.961,-29.65,-28.87,-26.98,-14,0,0,0,0,0,0,0,0,0,0,0,0,0,0,0,0,
765,-26.16,-17.42,-57.4,-21.95,-32.43,-26.52,16.05,12.76,-30.01,-14.63,-25.85,-14.27,-16.16,-18.47,-20.58,-5.656,0,0,0,0,0,0,0,0,0,0,0,0,0,0,0,0,
766,-22.52,-11.46,-13.94,7.398,-21.93,-19.88,-1.973,40.07,-19.13,24.75,-20.11,-10.32,-0.8419,-1.126,-12.22,2.009,0,0,0,0,0,0,0,0,0,0,0,0,0,0,0,0,
767,-20.32,3.252,10.05,44.54,-19.28,-8.552,-0.8451,46.81,-31.3,28.55,-34.45,-9.988,-4.514,-10.7,-18.22,-5.021,0,0,0,0,0,0,0,0,0,0,0,0,0,0,0,0,
768,-20.47,12.85,-57.93,11.04,-42.43,-6.874,33.4,19.38,-50.14,-15.79,-35.64,-6.915,-12.97,-27.96,-19.54,-7.414,0,0,0,0,0,0,0,0,0,0,0,0,0,0,0,0,
769,-28.28,-0.9574,-59.5,-39.66,-66.71,-35.66,28.83,-3.937,-47.06,-32.96,-27.28,-8.392,-17.75,-33.66,-18.33,-4.507,0,0,0,0,0,0,0,0,0,0,0,0,0,0,0,0,
770,-30.14,-5.58,-13.37,-18.79,-52.37,-36.86,3.748,23.78,-15.48,11.89,-10.24,11.63,10.73,-0.9985,6.711,18.33,0,0,0,0,0,0,0,0,0,0,0,0,0,0,0,0,
771,4.058,33.86,2.35,31.93,-7.292,4.392,24.91,49.59,25.81,36.15,21.9,46.9,46.69,37.79,44.03,45.93,0,0,0,0,0,0,0,0,0,0,0,0,0,0,0,0,
772,20.87,46.15,4.307,12.73,1.329,-4.438,34.9,11.72,17.31,-0.0121,21.33,34.77,26.92,22,34.08,33.59,0,0,0,0,0,0,0,0,0,0,0,0,0,0,0,0,
773,-4.648,5.345,-51.21,-28.36,-24.24,-32.02,8.155,-5.163,-11.82,-4.697,14.06,18.75,9.085,8.811,26.21,27.3,0,0,0,0,0,0,0,0,0,0,0,0,0,0,0,0,
774,6.181,-0.8244,-85.68,0.2149,-20.71,0.8963,11.19,37.87,9.792,13.52,52.59,51.51,36.93,33.23,64.21,55.78,0,0,0,0,0,0,0,0,0,0,0,0,0,0,0,0,
775,36.94,22.14,-9.55,32.42,-15.41,15.37,21.03,41.65,18.6,-16.94,63.54,56.24,37.49,29.58,65.97,55.38,0,0,0,0,0,0,0,0,0,0,0,0,0,0,0,0,
776,20.61,16.49,22.31,3.726,-39.17,-17.16,1.695,11.51,-17.16,-16.42,25.58,25.55,17.94,16.69,30.55,34.86,0,0,0,0,0,0,0,0,0,0,0,0,0,0,0,0,
777,0.6293,12.06,-33.78,-33.86,-45.11,-23.47,-3.157,14.66,-21.68,24.43,12.7,22.68,23.16,26.33,19.93,29.38,0,0,0,0,0,0,0,0,0,0,0,0,0,0,0,0,
778,-0.337,12.62,-44.55,-35.99,-38.71,-21.78,-2.697,17.04,-13.76,-2.449,6.994,13.02,8.489,7.971,7.233,7.556,0,0,0,0,0,0,0,0,0,0,0,0,0,0,0,0,
779,-13.65,-7.819,-21.95,-7.572,-43.67,-35.01,-25.48,5.649,-30.24,-40.06,-17.38,-14.49,-20.81,-17.52,-9.544,-14.73,0,0,0,0,0,0,0,0,0,0,0,0,0,0,0,0,
780,-21.36,-18.45,-12.87,1.809,-27.74,-32.15,-34.21,6.279,-26.93,-17.46,-20.22,-11.72,-17.17,-4.89,2.84,-3.235,0,0,0,0,0,0,0,0,0,0,0,0,0,0,0,0,
781,-16.4,-13.19,4.539,-24.82,-6.842,-22.93,-19.52,5.562,-16.94,-3.372,-11.6,-0.5474,-8.414,5.899,15.53,11.29,0,0,0,0,0,0,0,0,0,0,0,0,0,0,0,0,
782,-16.88,-14.18,10.73,-18.58,-20.63,-17.33,-5.028,11.58,-26.6,1.37,-16.33,-5.744,-13.15,0.8581,7.384,7.95,0,0,0,0,0,0,0,0,0,0,0,0,0,0,0,0,
783,-12.79,-8.654,-3.683,7.363,-37.27,-10.59,7.615,25.95,-22.15,14.24,-16.23,-5.988,-11.28,1.027,-2.739,-0.0548,0,0,0,0,0,0,0,0,0,0,0,0,0,0,0,0,
784,-6.79,-0.4601,-15.61,-11.22,-28.48,-14.13,4.277,12.45,-17.19,-16.69,-10.57,-5.13,-12.68,-6.967,-8.732,-4.736,0,0,0,0,0,0,0,0,0,0,0,0,0,0,0,0,
785,-14.8,-6.71,-21.08,-23.58,-17.65,-20.56,-13.55,-9.672,-37.74,-48.14,-13.05,-13.47,-21.27,-16.17,-16.19,-5.596,0,0,0,0,0,0,0,0,0,0,0,0,0,0,0,0,
786,-27.64,-13.67,-15.28,-9.323,-16.22,-22.53,-12.97,5.57,-46.78,-21.37,-18.98,-20.83,-16.81,-5.692,-21.11,-5.179,0,0,0,0,0,0,0,0,0,0,0,0,0,0,0,0,
787,-28.88,-11.92,-0.5218,-10.13,-10.75,-24.27,-1.673,33.74,-30.99,8.639,-17.82,-17.06,-1.891,6.08,-12.1,-2.926,0,0,0,0,0,0,0,0,0,0,0,0,0,0,0,0,
788,-16.61,-4.486,7.288,4.118,-0.7654,-16.7,0.9958,26.81,-18.57,18,-8.549,-4.449,5.018,5.822,-0.5267,-2.299,0,0,0,0,0,0,0,0,0,0,0,0,0,0,0,0,
789,-11.25,1.225,4.371,21.11,1.508,-11.06,6.6,-1.126,-20.77,17.62,-6.438,-6.968,-4.474,-0.8168,-10.61,-13.25,0,0,0,0,0,0,0,0,0,0,0,0,0,0,0,0,
790,-24.48,-7.642,-2.97,-4.351,2.441,-20.19,11.13,-0.5957,-30.56,-10.84,-12.86,-22.9,-20.01,-12.61,-25.52,-28.03,0,0,0,0,0,0,0,0,0,0,0,0,0,0,0,0,
791,-22.62,-12.34,-0.6837,-9.626,18.85,-13.63,14.5,31.36,-25.89,-20.57,-2.001,-13.25,-19.47,-14.21,-17.44,-27.4,0,0,0,0,0,0,0,0,0,0,0,0,0,0,0,0,
792,4.322,-1.038,13.59,23.63,36.17,10.12,23.6,53.99,-6.434,7.004,15.78,5.08,-13.42,-9.377,-7.973,-20.13,0,0,0,0,0,0,0,0,0,0,0,0,0,0,0,0,
793,6.932,-8.769,18.08,24.71,29.01,8.241,12.56,51.2,-8.652,-17.32,1.281,-10.04,-27.46,-27.56,-23.02,-30.49,0,0,0,0,0,0,0,0,0,0,0,0,0,0,0,0,
794,-15.32,-23.02,14.35,14.68,14.73,-2.869,-1.82,49.32,-24.59,-61.86,-19.83,-18.55,-30.32,-37.7,-32.62,-37.68,0,0,0,0,0,0,0,0,0,0,0,0,0,0,0,0,
795,-3.506,2.911,26.79,32.1,23.87,19.61,29.91,64.49,-14.47,-13.81,-0.0921,13.87,2.351,-2.421,-9.634,-11.46,0,0,0,0,0,0,0,0,0,0,0,0,0,0,0,0,
796,34.75,34.51,45.67,38.13,45.44,44.63,67.08,68.69,4.41,44.88,24.54,31.13,18.01,21.6,3.863,8.987,0,0,0,0,0,0,0,0,0,0,0,0,0,0,0,0,
797,38.86,27.62,48.72,40.91,50.62,39.78,57.65,57.27,1.914,15.39,9.082,6.557,-2.268,2.949,-21.36,-7.379,0,0,0,0,0,0,0,0,0,0,0,0,0,0,0,0,
798,15.31,15.61,48.17,63.01,40.51,35.69,39.09,65.2,-6.235,-1.237,-8.204,-8.08,-7.331,-0.4271,-36.37,-16.18,0,0,0,0,0,0,0,0,0,0,0,0,0,0,0,0,
799,11.71,23.67,52.24,50.39,32.99,40.44,37.24,64.48,-6.392,32.08,1.278,1.359,1.67,13.45,-22.18,-5.757,0,0,0,0,0,0,0,0,0,0,0,0,0,0,0,0,
800,13.71,21.88,30.47,-1.138,21.05,26.5,32.5,21.36,-10.09,9.088,-1.877,-4.656,-18.11,-7.062,-25.94,-14.41,0,0,0,0,0,0,0,0,0,0,0,0,0,0,0,0,
801,-5.461,-2.108,-13.4,-14.15,4.706,11.36,32.57,0.9262,-11.8,-40.07,-18.11,-17.69,-40.9,-33.4,-41.07,-23.77,0,0,0,0,0,0,0,0,0,0,0,0,0,0,0,0,
802,-7.707,-12.28,-15.83,21.32,15.39,21.51,40.24,25.58,3.485,-18.35,-6.148,-3.93,-22.94,-17.54,-27.63,-3.647,0,0,0,0,0,0,0,0,0,0,0,0,0,0,0,0,
803,12.06,1.314,21.3,42.11,32.04,21.68,22.64,32.78,7.204,19.37,3.367,6.22,-3.417,2.506,-16.64,7.627,0,0,0,0,0,0,0,0,0,0,0,0,0,0,0,0,
804,3.703,3.305,38.27,30.71,15.24,-0.9307,-6.047,28.63,-13.77,16.82,-16.57,-7.859,-19.99,-7.591,-26.91,-6.183,0,0,0,0,0,0,0,0,0,0,0,0,0,0,0,0,
805,-7.999,-3.166,45.59,23.68,9.146,3.316,4.58,37.72,-6.641,8.074,-11.49,-3.04,-28.51,-14.66,-15.51,-3.254,0,0,0,0,0,0,0,0,0,0,0,0,0,0,0,0,
806,12.27,4.544,52.18,27.9,25.79,24.3,24.62,29.96,19.35,3.667,14.12,15.89,-13.09,-4.392,3.897,13.24,0,0,0,0,0,0,0,0,0,0,0,0,0,0,0,0,
807,17.87,6.599,33.6,20.57,18.2,16.64,1.941,15.84,4.019,6.935,9.834,8.995,-12.91,-1.59,-10.05,12.19,0,0,0,0,0,0,0,0,0,0,0,0,0,0,0,0,
808,-1.421,-5.16,19.74,0.8578,7.098,1.368,-18.95,3.729,-21.77,0.2843,-2.837,-12.47,-31.3,-19.07,-35.87,1.73,0,0,0,0,0,0,0,0,0,0,0,0,0,0,0,0,
809,-20.61,-18.73,5.265,-28.59,-0.2159,-15.1,1.582,-35.99,-30.3,-43.36,-18.2,-37.83,-55.28,-44.35,-54.81,-9.492,0,0,0,0,0,0,0,0,0,0,0,0,0,0,0,0,
810,-47.17,-34.08,-26.63,-47.46,-23.9,-40.53,6.738,-47.48,-42.54,-46.36,-40.32,-55.1,-65.62,-43.29,-60.9,-12.16,0,0,0,0,0,0,0,0,0,0,0,0,0,0,0,0,
811,-55.83,-37.69,-12.75,-19.95,-20.82,-34.49,-34.28,5.931,-30.36,10.99,-28.91,-42.51,-46.13,-17.21,-46.85,-1.33,0,0,0,0,0,0,0,0,0,0,0,0,0,0,0,0,
812,-38.33,-32.37,15.38,4.108,-3.069,-11.91,-56.24,18.88,-8.209,16.75,-15.94,-35.7,-53.46,-15.42,-48.01,-10.53,0,0,0,0,0,0,0,0,0,0,0,0,0,0,0,0,
813,-39.76,-43.12,-13.66,-25.14,-14.58,-18.22,-29.24,-24.3,-23.43,-11.1,-31.5,-46.46,-110.5,-31.54,-61.7,-28.42,0,0,0,0,0,0,0,0,0,0,0,0,0,0,0,0,
814,-46.12,-52.15,-24.93,-32.89,-11.45,-26.87,-16.87,-12.59,-23.91,1.659,-15.08,-29.93,-134.5,-21.41,-41.04,-8.767,0,0,0,0,0,0,0,0,0,0,0,0,0,0,0,0,
815,-29.72,-34.39,7.701,-0.2373,8.814,-25.54,-28.79,28.28,6.479,6.116,13.95,-8.153,-108.2,-5.311,-18.89,9.642,0,0,0,0,0,0,0,0,0,0,0,0,0,0,0,0,
816,-21.37,-15.64,10.66,-11.34,3.132,-32.17,-16.2,10.05,-0.3796,-19.14,-3.697,-17.34,-89.4,-18.54,-30.52,-9.834,0,0,0,0,0,0,0,0,0,0,0,0,0,0,0,0,
817,-28.97,-26.06,-15.41,-45.85,-9.107,-36.91,-14.41,-27.66,-23.82,-52.48,-20.62,-25.65,-76.11,-40.07,-31.3,-16.48,0,0,0,0,0,0,0,0,0,0,0,0,0,0,0,0,
818,-33.83,-48.75,-41.69,-40.4,-16.65,-38.83,-43.43,-44.41,-11.54,-78.75,-6.896,-19.86,-53.38,-34.88,-10.78,4.372,0,0,0,0,0,0,0,0,0,0,0,0,0,0,0,0,
819,-32.68,-48.36,-51.87,-32.32,-22.13,-35.02,-37.76,-60.04,5.95,-45.01,0.5664,-15.52,-37.5,-9.491,-3.95,11.11,0,0,0,0,0,0,0,0,0,0,0,0,0,0,0,0,
820,-22.18,-28.34,-35.77,-38.45,-7.439,-14.96,-12.24,-48.6,7.504,14.5,-1.042,-9.209,-23.47,6.004,-7.743,6.423,0,0,0,0,0,0,0,0,0,0,0,0,0,0,0,0,
821,-9.307,-13.99,-10.11,-15.08,16.28,0.1822,-21.28,4.639,12.06,9.287,1.812,-4.059,-7.047,7.232,-7.788,9.111,0,0,0,0,0,0,0,0,0,0,0,0,0,0,0,0,
822,-5.223,-6.094,29.64,15.64,30.37,0.3033,-23.8,36.38,17.37,-12.11,2.902,-5.584,-6.379,5.372,-10.91,5.141,0,0,0,0,0,0,0,0,0,0,0,0,0,0,0,0,
823,-4.866,-0.1123,60.8,8.072,31.66,1.896,8.912,18.26,16.24,6.686,-0.7064,-6.426,-19.53,-0.8048,-19.62,-7.159,0,0,0,0,0,0,0,0,0,0,0,0,0,0,0,0,
824,-8.25,-7.946,41.63,-8.238,14.6,-0.5048,13.78,-2.457,4.584,-8.748,-10.99,-15.94,-37.64,-20.24,-36.32,-22.77,0,0,0,0,0,0,0,0,0,0,0,0,0,0,0,0,
825,-20.94,-34.91,11.13,-14.41,-8.452,-15.77,-36.64,-6.269,-23.68,-67.58,-28.75,-39.15,-57.78,-45.14,-56.32,-45.67,0,0,0,0,0,0,0,0,0,0,0,0,0,0,0,0,
826,-31.64,-49.27,-12.88,-35.74,-16.57,-24.49,-49.03,-12.6,-36.9,-58.62,-35.74,-43.03,-48.08,-35.63,-49.41,-45.66,0,0,0,0,0,0,0,0,0,0,0,0,0,0,0,0,
827,-28.49,-20.83,-39.79,-44.75,-11.9,-18.33,11.28,-11.08,-17.43,8.981,-21.57,-23.33,-13.65,-0.0181,-25.02,-18.91,0,0,0,0,0,0,0,0,0,0,0,0,0,0,0,0,
828,-25.06,3.351,-20.07,-22.16,-14.73,-18.07,21.54,8.069,-10.77,15.73,-12.09,-24.28,-20.58,-7.579,-31.56,-20.43,0,0,0,0,0,0,0,0,0,0,0,0,0,0,0,0,
829,-34.55,-20.37,19.47,-21.21,-30.21,-26.76,-31.23,13.88,-22.15,-26.15,-20.53,-42.61,-57.73,-43.28,-50.67,-43.05,0,0,0,0,0,0,0,0,0,0,0,0,0,0,0,0,
830,-42.48,-43.66,14.12,-32.63,-34.61,-30.74,-41.89,3.846,-18.99,-44.24,-26.12,-42.94,-62.8,-47.95,-46.28,-45.1,0,0,0,0,0,0,0,0,0,0,0,0,0,0,0,0,
831,-37.63,-38.95,1.293,-6.838,-22.38,-29.6,-43.21,12.65,-21.27,-44.48,-26.48,-36.88,-49.77,-41.15,-41.84,-46.78,0,0,0,0,0,0,0,0,0,0,0,0,0,0,0,0,
832,-31.5,-31.68,-7.78,0.838,-19.89,-22.78,-57.32,23.16,-33.26,-26.63,-36.69,-43.4,-44.98,-37.9,-47.34,-56.31,0,0,0,0,0,0,0,0,0,0,0,0,0,0,0,0,
833,-38.08,-22.19,-30.59,-42.9,-32.62,-21.46,-23.42,6.001,-32.89,-11.93,-52.17,-57.95,-45.44,-30.1,-51.86,-54.7,0,0,0,0,0,0,0,0,0,0,0,0,0,0,0,0,
834,-53.05,-17.5,-24.36,-51.7,-38.86,-34.31,2.824,-7.026,-36.07,-35.28,-55.66,-67.72,-54.68,-32.07,-52.38,-48.25,0,0,0,0,0,0,0,0,0,0,0,0,0,0,0,0,
835,-53.14,-25.15,4.75,-12.09,-28.44,-33.51,-13.79,-5.743,-38.73,-39.68,-44.65,-60.12,-61.17,-31.46,-40.67,-45.35,0,0,0,0,0,0,0,0,0,0,0,0,0,0,0,0,
836,-41.83,-27.49,11.45,-12.06,-16.19,-21.96,-18.71,-16.24,-29.29,-11.07,-38.43,-53.54,-59.93,-23,-36.5,-48.59,0,0,0,0,0,0,0,0,0,0,0,0,0,0,0,0,
837,-48.29,-32.35,-0.1944,-42.28,-17.8,-31.87,-32.85,-22.75,-32.78,-11.58,-42.54,-62.05,-58.08,-26.15,-50.15,-47.52,0,0,0,0,0,0,0,0,0,0,0,0,0,0,0,0,
838,-58.36,-38.57,-20.61,-28.92,-26.71,-39.64,-52.81,-16.86,-39.3,-27.1,-43.34,-59.88,-49.98,-30.72,-51.86,-33.66,0,0,0,0,0,0,0,0,0,0,0,0,0,0,0,0,
839,-43.98,-22.87,-39.7,-0.8655,-25.22,-21.06,-34.88,-14.54,-27.47,-33.55,-41.79,-45.57,-48.09,-33.49,-47.3,-31.6,0,0,0,0,0,0,0,0,0,0,0,0,0,0,0,0,
840,-20.77,-7.088,-35.74,-11.78,-0.3222,-3.426,-19.87,0.5354,-14.56,-42.4,-37.65,-37.7,-55.36,-38.99,-49.44,-40.76,0,0,0,0,0,0,0,0,0,0,0,0,0,0,0,0,
841,-8.3,-13.74,-2.048,-20.37,29.49,-3.382,-19.96,23.08,-6.912,-37.04,-32.12,-32.53,-50.96,-31.71,-42.39,-37.59,0,0,0,0,0,0,0,0,0,0,0,0,0,0,0,0,
842,-11.09,-24.82,27.57,0.9189,17.92,-6.074,-7.702,16.61,-10.12,-16.51,-40.9,-31.44,-43.63,-19.25,-35.85,-34.27,0,0,0,0,0,0,0,0,0,0,0,0,0,0,0,0,
843,-25.53,-25.51,-9.138,1.512,-21.35,-1.31,-2.973,-8.323,-26.8,5.155,-46.59,-31.64,-39.01,-14.55,-34.76,-36.45,0,0,0,0,0,0,0,0,0,0,0,0,0,0,0,0,
844,-35.12,-11.32,-65.99,-26.19,-27,-11.47,-2.945,-17.34,-30.34,14.04,-34.89,-28.89,-30.46,-13.8,-28.38,-37.54,0,0,0,0,0,0,0,0,0,0,0,0,0,0,0,0,
845,-39.82,0.5711,-33.83,-34.47,-9.38,-43.45,-9.973,-5.135,-25.4,-7.29,-39.64,-36.9,-36.01,-20.16,-28.22,-43.85,0,0,0,0,0,0,0,0,0,0,0,0,0,0,0,0,
846,-39.56,-10.26,28.83,-15.82,-4.416,-43.07,-37.7,10.47,-21.51,-20.97,-45.75,-33.46,-44.31,-20.72,-21.27,-40.77,0,0,0,0,0,0,0,0,0,0,0,0,0,0,0,0,
847,-12.02,-17.07,38.74,9.562,12.13,-0.1627,-32.42,13.76,9.118,-5.257,-12.27,1.084,-30.03,-4.324,7.944,-23.3,0,0,0,0,0,0,0,0,0,0,0,0,0,0,0,0,
848,18.16,-9.739,39.21,19.71,36.87,15.72,-0.4854,6.714,33.88,-11.98,7.272,10.37,-26.12,1.441,17.3,-20.58,0,0,0,0,0,0,0,0,0,0,0,0,0,0,0,0,
849,-2.333,-23.76,4.876,-3.578,19.99,-9.142,-20.31,-9.024,5.308,-37.51,-24.44,-24.44,-49.28,-13.19,-6.564,-35.02,0,0,0,0,0,0,0,0,0,0,0,0,0,0,0,0,
850,-45.44,-47.9,-66.53,-37.28,-20.58,-28.85,-60.13,-26.3,-23.47,-35.49,-44.07,-42.2,-58.46,-18.46,-18.15,-42.06,0,0,0,0,0,0,0,0,0,0,0,0,0,0,0,0,
851,-51.58,-45.17,-48.1,-56.36,-21.9,-31.58,-54.29,-23.31,-14.37,-13.66,-33.83,-31.34,-44.83,-5.021,-11.41,-36.34,0,0,0,0,0,0,0,0,0,0,0,0,0,0,0,0,
852,-31.73,-26.29,20.3,-59.14,10.9,-23.44,-23.02,-7.834,-3.453,6.694,-30.06,-19.97,-34.67,3.713,-9.749,-28.21,0,0,0,0,0,0,0,0,0,0,0,0,0,0,0,0,
853,-18.89,-15.54,6.839,-31.42,27.34,-12.34,-3.77,-2.662,0.5409,4.128,-28.08,-12.36,-36.87,-9.06,-12.4,-29.07,0,0,0,0,0,0,0,0,0,0,0,0,0,0,0,0,
854,-21.05,-25.03,-28.93,3.675,16.4,-17.51,-18.94,-4.188,-2.41,-22.33,-33.26,-24.07,-52.76,-32.52,-22.81,-40.71,0,0,0,0,0,0,0,0,0,0,0,0,0,0,0,0,
855,-37.77,-48.61,-23.25,6.112,-1.491,-32.34,-50.71,-9.62,-21,-31.27,-50.78,-47.71,-68.63,-44.74,-35.28,-46.87,0,0,0,0,0,0,0,0,0,0,0,0,0,0,0,0,
856,-46.81,-57.87,-6.609,0.6458,-13.69,-32.47,-52.61,-14.37,-24.8,-29.22,-45.76,-45.27,-64.3,-43.32,-27.15,-41.25,0,0,0,0,0,0,0,0,0,0,0,0,0,0,0,0,
857,-31.66,-48.49,20.77,-0.8031,-11.12,-19.66,-33.3,-9.533,-6.3,-37.07,-30.28,-31.78,-52.59,-38.16,-12.79,-39.95,0,0,0,0,0,0,0,0,0,0,0,0,0,0,0,0,
858,-14.49,-31.46,30.53,-16.14,5.846,-6.919,-11.7,-13.98,1.481,-19.97,-32.91,-29.05,-42.82,-26.31,-11.31,-40.78,0,0,0,0,0,0,0,0,0,0,0,0,0,0,0,0,
