%OpenBCI Raw EXG Data
%Number of channels = 16
%Sample Rate = 125 Hz
%Board = OpenBCI_GUI$BoardCytonSerialDaisy
Sample Index,EXG Channel 0,EXG Channel 1,EXG Channel 2,EXG Channel 3,EXG Channel 4,EXG Channel 5,EXG Channel 6,EXG Channel 7,EXG Channel 8,EXG Channel 9,EXG Channel 10,EXG Channel 11,EXG Channel 12,EXG Channel 13,EXG Channel 14,EXG Channel 15,Accel Channel 0,Accel Channel 1,Accel Channel 2,Other,Other,Other,Other,Other,Other,Other,Analog Channel 0,Analog Channel 1,Analog Channel 2,Timestamp,Other,Timestamp (Formatted),Annotations
1,0,-0,0,0,-0,0,0,0,0,0,-0,-0,0,0,0,-0,0,0,0,0,0,0,0,0,0,0,0,0,0,0,0,0,T0
2,-8.98,-15.74,14.24,20.7,-7.178,-0.051,-41.95,9.357,-12.75,-24.49,-33.24,-21.63,-23.68,-24.38,-16.66,-23.27,0,0,0,0,0,0,0,0,0,0,0,0,0,0,0,0,
3,-19.63,-21.02,36.44,26.06,-1.272,-15.73,-40.42,13.8,-17.26,-9.861,-13.95,-11.88,-11.91,-11.17,6.331,-1.413,0,0,0,0,0,0,0,0,0,0,0,0,0,0,0,0,
4,-6.034,-3.033,67.49,-22.29,17.32,-3.316,36.02,-17.39,4.774,-20.87,12,3.522,-5.475,-11.02,22.41,3.766,0,0,0,0,0,0,0,0,0,0,0,0,0,0,0,0,
5,6.336,-1.315,43.65,-52.96,17.99,19.83,49.06,-57.67,22.11,-44.16,13.25,5.452,-7.485,-17.96,18.45,-4.374,0,0,0,0,0,0,0,0,0,0,0,0,0,0,0,0,
6,-3.43,-20.71,-10.32,-4.409,7.229,0.9919,-43.24,-36.14,14.84,-11.05,21.45,10.63,10.64,6.248,29.03,18.13,0,0,0,0,0,0,0,0,0,0,0,0,0,0,0,0,
7,-4.202,-22.6,-1.182,56.5,5.564,-25.65,-86.3,8.031,12.77,-6.97,35.15,12.54,7.023,0.1495,30.49,15.66,0,0,0,0,0,0,0,0,0,0,0,0,0,0,0,0,
8,-1.502,-28.98,18.2,49.63,-22.17,-18.72,-68.23,-5.556,6.012,-71.06,22.09,-9.162,-27.57,-43.01,-3.759,-22.15,0,0,0,0,0,0,0,0,0,0,0,0,0,0,0,0,
9,-19.1,-44.5,-0.1233,-9.526,-58.89,-13.12,-57.34,-18.92,-22.37,-63.17,-10.95,-37.57,-30.95,-35.17,-36.6,-26.24,0,0,0,0,0,0,0,0,0,0,0,0,0,0,0,0,
10,-39.63,-31.36,25.85,-12.26,-29.84,-30.72,-33.35,16.53,-32.35,-0.4693,-31.07,-46.5,-15.64,-6.489,-41.62,-16.97,0,0,0,0,0,0,0,0,0,0,0,0,0,0,0,0,
11,-46.73,-17.65,73.81,34.75,24.89,-37.3,-16.78,18.61,-19,-12.09,-31.52,-40.49,-23.89,-20.39,-38.9,-32.63,0,0,0,0,0,0,0,0,0,0,0,0,0,0,0,0,
12,-41.01,-28.77,51.02,15.11,23.69,-15.53,-24.39,-17.99,-17.81,-36.82,-26.62,-29.5,-27.81,-27.99,-40.14,-35.95,0,0,0,0,0,0,0,0,0,0,0,0,0,0,0,0,
13,-19.92,-29.37,24.96,-6.217,6.51,11.37,-21.37,-18,-9.398,-27.47,-6.091,-6.191,-15.31,-13.19,-24.99,-16.71,0,0,0,0,0,0,0,0,0,0,0,0,0,0,0,0,
14,5.362,-20.48,47.38,34.12,15.35,16.95,-31.46,-23.93,8.961,-44.18,25.52,14.27,-9.094,-9.886,-2.415,-2.432,0,0,0,0,0,0,0,0,0,0,0,0,0,0,0,0,
15,6.738,-25.4,18.79,23.7,7.298,-0.5544,-57.55,-63.64,-10.23,-42.7,22.01,4.247,-5.381,-4.226,-9.59,3.293,0,0,0,0,0,0,0,0,0,0,0,0,0,0,0,0,
16,-11.07,-27.93,-35.6,-19.76,-17.84,-11.09,-39.24,-39.72,-33.4,-9.274,0.2758,-6.463,0.2608,5.121,-18.64,8.571,0,0,0,0,0,0,0,0,0,0,0,0,0,0,0,0,
17,-10.77,-21.81,8.305,-11.83,-15.81,-6.646,-0.3069,34.59,-13.33,-27.04,5.59,5.863,-5.109,-2.761,-2.56,12.54,0,0,0,0,0,0,0,0,0,0,0,0,0,0,0,0,
18,-0.1984,-23.3,78.01,15.43,-0.0265,-17.63,-9.233,47.67,-3.736,-48.57,2.956,4.303,-16.52,-11.12,-1.728,10.88,0,0,0,0,0,0,0,0,0,0,0,0,0,0,0,0,
19,-5.725,-25.97,74.95,53.71,5.122,-28.36,-37.18,22.86,-19.64,-11.81,-11.92,-4.567,-15.03,-4.49,-4.495,9.257,0,0,0,0,0,0,0,0,0,0,0,0,0,0,0,0,
20,-7.925,-19.75,53.73,58.02,11.61,-12.04,-32.07,15.09,-22.61,-7.66,-2.827,1.085,-15.29,-6.811,7.947,4.679,0,0,0,0,0,0,0,0,0,0,0,0,0,0,0,0,
21,-10.25,-19.16,19.34,-9.327,9.298,-7.532,-14.95,-4.029,-31.96,-58.63,-7.188,-11.19,-37.92,-30.31,-8.472,-12.28,0,0,0,0,0,0,0,0,0,0,0,0,0,0,0,0,
22,-31.11,-28.26,-42.49,-27.57,-13.76,-19.41,-12.84,-27.55,-41.21,-71.3,-26.27,-23.56,-47.25,-41.67,-22.41,-16.68,0,0,0,0,0,0,0,0,0,0,0,0,0,0,0,0,
23,-33.57,-28.91,-28.82,25.3,-11.61,-9.946,-24.16,-17.01,-16.1,-44.02,-7.174,-4.14,-20.46,-21.62,8.43,6.98,0,0,0,0,0,0,0,0,0,0,0,0,0,0,0,0,
24,-13.64,-22.34,71.39,41.6,36.8,0.6165,-42.71,16.29,13.86,-29.09,18.18,2.43,1.004,-1.002,22.34,26.51,0,0,0,0,0,0,0,0,0,0,0,0,0,0,0,0,
25,-10.9,-22.67,98.67,27.45,62.93,7.149,-36.85,22.34,28.39,-29.41,16.47,-8.103,-1.226,-3.801,5.267,25.17,0,0,0,0,0,0,0,0,0,0,0,0,0,0,0,0,
26,-4.792,-21.74,18.59,6.537,34.88,33.27,0.222,-21.54,34.57,-41.67,17.88,1.933,-6.167,-14.13,3.699,21.12,0,0,0,0,0,0,0,0,0,0,0,0,0,0,0,0,
27,24.14,-14.05,-11.21,-20.65,18.21,38.34,6.167,-54.02,25.81,-46.71,21.36,11.72,-9.112,-11.87,5.55,23.86,0,0,0,0,0,0,0,0,0,0,0,0,0,0,0,0,
28,39.47,-15.84,39.53,-9.362,40.44,9.929,-35.87,-29.73,23.59,-29.46,18.8,6.926,-14.61,-6.266,-3.586,21.97,0,0,0,0,0,0,0,0,0,0,0,0,0,0,0,0,
29,29.01,-28.15,53.78,15.51,54.5,2.377,-60.72,0.2699,33.6,-27.88,27.44,6.217,-20.4,-12.25,-1.11,13.94,0,0,0,0,0,0,0,0,0,0,0,0,0,0,0,0,
30,10.22,-31.03,42.43,9.573,40.43,9.832,-40.1,1.557,22.44,-50.88,35.95,7.109,-22.78,-19.21,12.3,13.57,0,0,0,0,0,0,0,0,0,0,0,0,0,0,0,0,
31,-7.151,-24.31,49.04,3.452,25.04,4.353,-9.259,-8.12,7.341,-59.67,29.21,7.673,-22.26,-19.03,11.54,11.99,0,0,0,0,0,0,0,0,0,0,0,0,0,0,0,0,
32,-8.977,-22.64,37.82,13.78,34.4,7.358,-9.055,-5.242,18.16,-38.67,23.69,12.77,-20.69,-14.3,-3.199,2.3,0,0,0,0,0,0,0,0,0,0,0,0,0,0,0,0,
33,3.664,-25.1,38.5,32.62,39.96,8.779,-47.23,14.97,21.55,-12.95,24.29,8.332,-22.15,-11.2,-10.31,-1.395,0,0,0,0,0,0,0,0,0,0,0,0,0,0,0,0,
34,-0.3073,-31.74,34.82,31.07,-8.795,-14.57,-70.46,2.313,-1.431,-31.71,13.93,-15.24,-36.12,-27.25,-14.29,-9.987,0,0,0,0,0,0,0,0,0,0,0,0,0,0,0,0,
35,-27.62,-38.67,-29.03,-14.55,-55.58,-28.6,-37.02,-44.47,-17.59,-67.66,-5.854,-39.37,-50.29,-42.67,-27.19,-25.8,0,0,0,0,0,0,0,0,0,0,0,0,0,0,0,0,
36,-44.11,-26.75,-30.97,-28.75,-22.06,-22.47,-6.986,-46.68,-20.82,-49.26,-18.94,-44.08,-47.43,-30.51,-35.95,-25.47,0,0,0,0,0,0,0,0,0,0,0,0,0,0,0,0,
37,-39.18,-14.51,55.7,9.133,24.07,-25.07,-27.88,-20.43,-30.62,-37.35,-21.98,-36.46,-44.63,-28.07,-31.14,-16.12,0,0,0,0,0,0,0,0,0,0,0,0,0,0,0,0,
38,-34.89,-29.42,43.07,-6.086,14.8,-19.13,-40.37,-18.49,-34.65,-77.11,-17.92,-30.58,-45.55,-42.65,-18.59,-9.424,0,0,0,0,0,0,0,0,0,0,0,0,0,0,0,0,
39,-35.35,-41.3,-35.31,-35.82,-1.207,-4.244,-31.99,-6.582,-29.07,-77.79,-15.42,-30.17,-37.16,-37.56,-14.56,-7.228,0,0,0,0,0,0,0,0,0,0,0,0,0,0,0,0,
40,-35.14,-37.79,-0.1798,23.01,2.149,-25.63,-60.67,14.74,-33.11,-39.36,-20.56,-33.35,-30.16,-26.23,-25.68,-13.42,0,0,0,0,0,0,0,0,0,0,0,0,0,0,0,0,
41,-29.85,-35.7,71.28,58.36,6.22,-44.63,-74.79,8.325,-27.52,-23.49,-17.57,-27.87,-22.71,-18.13,-26.38,-9.75,0,0,0,0,0,0,0,0,0,0,0,0,0,0,0,0,
42,-8.328,-17.73,54.51,-9.154,9.035,-13.77,-16.99,-9.777,-2.189,-17.88,-5.266,-13.38,-18.92,-13.58,-13.15,-4.586,0,0,0,0,0,0,0,0,0,0,0,0,0,0,0,0,
43,9.896,-5.309,21.83,-36.39,-1.955,-2.267,6.382,-24.54,2.125,-38.2,-3.599,-9.031,-39.99,-35.25,-12.11,-20.76,0,0,0,0,0,0,0,0,0,0,0,0,0,0,0,0,
44,-2.23,-33.45,1.98,3.291,-25.7,-24.29,-48.96,-43.25,-14.57,-75.24,-5.553,-14.68,-56.11,-49.69,-14.76,-23.69,0,0,0,0,0,0,0,0,0,0,0,0,0,0,0,0,
45,-22.42,-52.19,-56.77,-20.64,-25.94,-10.5,-68.62,-64.97,-15.07,-66.9,-0.0996,-17.91,-41.96,-28.13,-8.464,-3.256,0,0,0,0,0,0,0,0,0,0,0,0,0,0,0,0,
46,-27.44,-39.07,-62.68,-52.17,6.979,2.564,-46.86,-59.22,-4.553,-41.47,3.263,-16.35,-26.72,-14.57,-6.686,2.579,0,0,0,0,0,0,0,0,0,0,0,0,0,0,0,0,
47,-22.6,-33.48,37.61,11.75,36.21,-28.41,-57.66,0.1093,-0.1946,-36.41,5.632,-7.194,-16.36,-16.01,-8.207,-0.7279,0,0,0,0,0,0,0,0,0,0,0,0,0,0,0,0,
48,-5.278,-23.74,83.01,49.76,30.12,-37.69,-52.55,41.6,-0.3226,-25.62,10.5,5.249,-2.42,-6.514,-4.479,3.757,0,0,0,0,0,0,0,0,0,0,0,0,0,0,0,0,
49,19.39,2.283,27.19,-0.9771,8.591,-7.208,-7.179,5.489,-2.689,-15.43,14.32,13.37,6.597,5.03,1.849,10.52,0,0,0,0,0,0,0,0,0,0,0,0,0,0,0,0,
50,26.09,14.1,7.213,-21.94,6.163,4.846,-5.986,-24.39,-6.619,-12.45,16.04,9.548,6.936,8.997,2.296,13.58,0,0,0,0,0,0,0,0,0,0,0,0,0,0,0,0,
51,-2.133,-0.4213,16.35,-0.3931,3.409,-20.82,-52.48,-4.002,-19.29,-11.89,-1.316,-27.37,-27.1,-10.98,-20.59,-9.66,0,0,0,0,0,0,0,0,0,0,0,0,0,0,0,0,
52,-55.45,-42.85,-26,-3.205,-21.09,-52.42,-68.01,-12.63,-40.47,-48.32,-45.66,-87.08,-97.71,-62.09,-61.51,-52.69,0,0,0,0,0,0,0,0,0,0,0,0,0,0,0,0,
53,-91.5,-91.63,-62.71,-37.45,-30.37,-52.63,-46.16,-64.55,-49.76,-98.84,-76.12,-110.4,-128.3,-90.35,-75.93,-60.1,0,0,0,0,0,0,0,0,0,0,0,0,0,0,0,0,
54,-78.21,-98.83,-33.25,-74.91,-8.36,-32.74,-44.39,-76.39,-43.93,-86.36,-59.51,-75.29,-85.63,-63.04,-43.33,-24.63,0,0,0,0,0,0,0,0,0,0,0,0,0,0,0,0,
55,-34.94,-64.8,31.8,-32.64,12.19,-21.6,-63.63,-15.46,-35.01,-38.45,-22.25,-22.33,-30.79,-25.07,1.663,10.26,0,0,0,0,0,0,0,0,0,0,0,0,0,0,0,0,
56,8.876,-17.81,80.23,68.61,19.47,-1.984,-31.45,37.73,-17.23,-24.44,0.1738,13.33,1.162,-5.58,23.54,28.05,0,0,0,0,0,0,0,0,0,0,0,0,0,0,0,0,
57,36.98,22.67,66.77,66.55,16,16.92,30.97,16.61,3.699,-20.89,4.112,24.66,13.92,4.232,20.17,28.41,0,0,0,0,0,0,0,0,0,0,0,0,0,0,0,0,
58,34.78,19.23,-0.876,-13.88,8.5,6.002,9.837,-16.6,5.561,-4.077,1.843,19.56,2.734,4.436,9.72,16.01,0,0,0,0,0,0,0,0,0,0,0,0,0,0,0,0,
59,17.99,-18.29,-35.94,-21.2,21.46,3.329,-49.12,-15.98,3.507,2.796,5.145,12.46,-14.22,3.188,3.895,7.104,0,0,0,0,0,0,0,0,0,0,0,0,0,0,0,0,
60,7.524,-33.39,20.53,17.18,44.76,9.162,-40.81,-31.98,13.78,-8.032,1.149,-4.551,-29.61,-4.998,-13.12,-6.825,0,0,0,0,0,0,0,0,0,0,0,0,0,0,0,0,
61,-14.15,-39.62,84.69,11.09,48.73,-19.21,-31.44,-50.61,7.956,-37.24,-23.7,-36.62,-59.72,-37.4,-40.84,-28.03,0,0,0,0,0,0,0,0,0,0,0,0,0,0,0,0,
62,-36.79,-52.8,37.03,-27.96,35.64,-24.12,-39.54,-25.79,-5.729,-52.19,-33.82,-44.1,-70.55,-52.92,-41.75,-24.22,0,0,0,0,0,0,0,0,0,0,0,0,0,0,0,0,
63,-22.95,-31.28,-48.83,-32.73,4.534,15.13,-3.276,-3.828,4.99,-24.85,-15.29,-17.84,-47.19,-30.76,-19.28,-3.532,0,0,0,0,0,0,0,0,0,0,0,0,0,0,0,0,
64,0.4586,-8.191,-18.67,25.37,-25.32,6.762,-7.369,-9.435,10.02,-13.3,-6.291,-0.6774,-39.14,-21.1,-4.758,8.397,0,0,0,0,0,0,0,0,0,0,0,0,0,0,0,0,
65,3.525,-31.16,57.23,64.12,-20.46,-27.13,-62.75,-9.823,5.992,-32.24,3.446,10.81,-34.6,-19.72,12.81,30.15,0,0,0,0,0,0,0,0,0,0,0,0,0,0,0,0,
66,13.14,-38.58,42.97,15.45,-17.21,-12.61,-40.16,-21.42,27.51,-29.38,31.77,30.26,-0.9926,1.109,32.82,53.8,0,0,0,0,0,0,0,0,0,0,0,0,0,0,0,0,
67,21.62,-10.25,11.84,-39.85,-20.06,-6.774,-1.891,-45.29,38.42,-13.35,39.75,28.33,26.28,19.29,33.12,57.46,0,0,0,0,0,0,0,0,0,0,0,0,0,0,0,0,
68,6.483,-3.446,29.5,-25.07,18.93,-28.98,-48.58,-27.45,22.05,4.853,26.64,12.38,35.84,32.2,24.41,61.48,0,0,0,0,0,0,0,0,0,0,0,0,0,0,0,0,
69,-3.148,-10.63,12.72,-3.135,37.81,-19.15,-73.48,0.6631,20.18,11.72,20.07,6.799,38.45,30.77,16.79,61.02,0,0,0,0,0,0,0,0,0,0,0,0,0,0,0,0,
70,3.471,-4.446,-21.26,-15.24,15.35,5.433,-17.05,-20.6,30.52,-6.283,18.94,7.706,34.31,14.21,18.9,52.82,0,0,0,0,0,0,0,0,0,0,0,0,0,0,0,0,
71,16.4,11.88,26.26,4.678,43.77,24.72,33.86,-20.34,44.38,28.17,33.39,27.24,54.57,35.56,43.15,72.05,0,0,0,0,0,0,0,0,0,0,0,0,0,0,0,0,
72,42.21,44.32,81.67,32.75,53.18,50.27,34,28.44,50.83,85.11,50.18,56.07,85.7,65.04,60.85,98.63,0,0,0,0,0,0,0,0,0,0,0,0,0,0,0,0,
73,61.49,72.39,36,0.7292,-20.25,49.95,21.06,18.95,26.19,41.81,45.56,65.27,84.19,46.3,64.26,103.4,0,0,0,0,0,0,0,0,0,0,0,0,0,0,0,0,
74,62.94,69.89,-6.784,-6.103,-15.32,29.72,35.2,-30.2,13.96,-9.662,47.99,67.25,70.29,32.4,77.64,103.8,0,0,0,0,0,0,0,0,0,0,0,0,0,0,0,0,
75,58.13,44.23,55.2,36.03,73.81,22.7,40.19,-17.83,30.42,11.01,52.65,57.66,43.48,25.97,69.94,81.05,0,0,0,0,0,0,0,0,0,0,0,0,0,0,0,0,
76,33.93,1.742,101.6,32.64,87.54,15.8,-9.569,11.65,31.44,-1.88,38.06,30.79,-0.262,-7.896,39.71,44.3,0,0,0,0,0,0,0,0,0,0,0,0,0,0,0,0,
77,13.29,-28.58,58.12,20.9,69.26,23.43,-45.27,3.351,41.5,-39.04,49.02,29.64,-5.404,-12.65,46.75,50.77,0,0,0,0,0,0,0,0,0,0,0,0,0,0,0,0,
78,30.01,-21.51,33.03,20.03,88.27,47.58,-8.588,-19.75,65.73,-43.14,78.51,42.61,8.522,4.73,62.16,61.12,0,0,0,0,0,0,0,0,0,0,0,0,0,0,0,0,
79,36.73,-18.06,57.6,-14.02,87.55,40.68,26.85,-44.27,60.24,-53.97,67.03,25.11,-8.572,-8.963,34.61,33.92,0,0,0,0,0,0,0,0,0,0,0,0,0,0,0,0,
80,15.53,-36.06,60.18,9.135,70.15,26.94,-0.5397,-31.72,54.88,-43.89,45.39,8.218,-8.861,-4.73,17.31,32.84,0,0,0,0,0,0,0,0,0,0,0,0,0,0,0,0,
81,11.76,-41.02,35.08,68.61,50.3,33.7,-47.56,9.018,60.03,0.8653,55.51,13.68,17.9,28.28,33.16,57.75,0,0,0,0,0,0,0,0,0,0,0,0,0,0,0,0,
82,11.15,-34.48,18.64,18.14,18.77,9.06,-56.06,-9.337,39.57,9.117,58.45,9.432,19.05,29.75,27.43,46.66,0,0,0,0,0,0,0,0,0,0,0,0,0,0,0,0,
83,-6.492,-29.77,24.86,-50.7,21.45,-29.68,-28.73,-48.22,19.74,-0.9351,33.92,-3.89,8.318,14.6,3.008,25.39,0,0,0,0,0,0,0,0,0,0,0,0,0,0,0,0,
84,-10.12,-16.81,30.09,-20.95,45.24,-21.31,-10.04,-21.48,13.74,22.54,13.23,-7.382,11.72,16.98,-4.098,24.09,0,0,0,0,0,0,0,0,0,0,0,0,0,0,0,0,
85,-3.4,-0.2026,12.74,8.129,29.1,-1.327,-12.79,3.019,-1.931,40.11,5.539,-6.765,14.01,16.81,-4.962,13.95,0,0,0,0,0,0,0,0,0,0,0,0,0,0,0,0,
86,-5.727,9.03,1.483,-3.163,3.779,-4.838,-5.205,-16.4,-7.494,13.61,2.051,-1.724,11.54,3.869,-3.952,1.31,0,0,0,0,0,0,0,0,0,0,0,0,0,0,0,0,
87,-2.603,12.54,-0.8979,8.254,8.808,-3.087,9.29,-13.42,6.005,-16.91,10.99,10.1,10.07,-2.323,8.298,9.661,0,0,0,0,0,0,0,0,0,0,0,0,0,0,0,0,
88,4.179,14.18,-5.196,23.58,17.76,0.8421,-8.199,-0.9469,14.78,1.778,25.36,14.45,12.52,11.58,13.44,21.64,0,0,0,0,0,0,0,0,0,0,0,0,0,0,0,0,
89,3.807,15.1,23.65,8.409,22.51,-7.148,-33.96,-8.872,23.96,36.83,29.62,15.42,17.96,30.15,11.37,26.25,0,0,0,0,0,0,0,0,0,0,0,0,0,0,0,0,
90,13.04,10.28,50.47,0.0173,37.44,-0.6496,-18.35,8.88,44.89,21.97,40.33,30.3,14.27,27.85,22.31,31.79,0,0,0,0,0,0,0,0,0,0,0,0,0,0,0,0,
91,32.98,0.8315,31.29,31.34,45.11,19.05,6.664,31.29,60.75,-11.69,58.07,42.5,4.799,10.43,28.35,28.42,0,0,0,0,0,0,0,0,0,0,0,0,0,0,0,0,
92,39.96,-0.1281,39.36,61.09,36.58,21.78,1.438,11.66,58.29,-8.622,53.62,33.42,2.211,-0.9229,14.82,9.947,0,0,0,0,0,0,0,0,0,0,0,0,0,0,0,0,
93,31.9,5.292,68.57,33.79,36.64,16.01,-6.519,-6.79,43.56,0.2807,34.65,20.21,1.956,-2.754,9.325,1.416,0,0,0,0,0,0,0,0,0,0,0,0,0,0,0,0,
94,22.21,6.27,47.32,-11.15,45.28,16.2,1.081,-13.19,26.18,-5.501,27.29,17.45,5.78,3.816,23.57,16.91,0,0,0,0,0,0,0,0,0,0,0,0,0,0,0,0,
95,16.38,9.175,37.48,-3.394,42.28,12.62,10.66,-30.49,14.63,5.995,28.02,19.29,13.96,10.34,35.87,28.73,0,0,0,0,0,0,0,0,0,0,0,0,0,0,0,0,
96,10.21,6.438,34.43,15.66,24.68,4.075,-0.7361,-24.03,2.474,9.146,23.8,14.39,7.022,-0.4649,34.76,21.33,0,0,0,0,0,0,0,0,0,0,0,0,0,0,0,0,
97,-6.388,-17.29,-44.82,-15.03,-12.44,-9.496,-38.57,-9.134,-18.5,-22.47,16.4,3.223,-5.275,-11.53,33.45,22.73,0,0,0,0,0,0,0,0,0,0,0,0,0,0,0,0,
98,-20.17,-29.03,-85.89,-41.51,-50.22,-28.76,-50.17,-31.06,-21.57,-23.82,15.28,1.494,-1.645,-2.27,36.83,34.84,0,0,0,0,0,0,0,0,0,0,0,0,0,0,0,0,
99,-17.87,-15.38,-12.89,-24.38,-39.98,-46.82,-29.76,-40.82,-4.533,-1.299,11.86,-0.7992,-10.78,-9.332,22.01,18.82,0,0,0,0,0,0,0,0,0,0,0,0,0,0,0,0,
100,-24.25,-25.79,35.24,-17.91,11.06,-58.59,-41.72,-16.88,-5.144,-30.55,5.277,-13.74,-35.3,-38.3,-0.3246,-9.393,0,0,0,0,0,0,0,0,0,0,0,0,0,0,0,0,
101,-27.61,-47.28,31.11,-20.68,49.51,-38.17,-55.19,-16.79,0.7725,-58.59,28.71,-2.654,-26.05,-32.71,14.53,2.666,0,0,0,0,0,0,0,0,0,0,0,0,0,0,0,0,
102,2.362,-37.58,44.6,18.44,62.13,7.633,-31.41,-30.3,37.17,-52.9,63.93,21.23,-6.992,-11.31,34.21,27.19,0,0,0,0,0,0,0,0,0,0,0,0,0,0,0,0,
103,12.71,-40.24,42.88,50.13,61.31,7.36,-32.85,-22.19,48.02,-68.78,51.62,5.838,-25.61,-22.14,5.817,12.99,0,0,0,0,0,0,0,0,0,0,0,0,0,0,0,0,
104,-20.27,-57.95,2.201,2.878,37.41,-25.68,-45.19,-34.71,21.09,-53.22,16.8,-20.64,-38.91,-27.64,-24.04,-12.09,0,0,0,0,0,0,0,0,0,0,0,0,0,0,0,0,
105,-36.08,-42.92,-55.38,-61.95,-9.481,-24,-22.39,-71.63,-8.207,-15.7,1.548,-25.54,-29.18,-20.89,-23.69,-18.11,0,0,0,0,0,0,0,0,0,0,0,0,0,0,0,0,
106,-41.68,-38.54,-71.67,-50.3,-36.88,-34.61,-32.03,-62.66,-40.23,-53.27,-20.64,-39.95,-33.21,-33.87,-29.54,-16.64,0,0,0,0,0,0,0,0,0,0,0,0,0,0,0,0,
107,-64.21,-60.32,-1.14,-0.3021,-22.37,-72.81,-79.31,-13.06,-54.55,-61.52,-44.81,-54.14,-29.7,-30.89,-32.51,-9.99,0,0,0,0,0,0,0,0,0,0,0,0,0,0,0,0,
108,-62.08,-49.18,36.72,0.3989,-4.437,-55.87,-72.37,13.45,-33.19,12.15,-38.37,-42.7,-9.421,-8.635,-18.74,-5.971,0,0,0,0,0,0,0,0,0,0,0,0,0,0,0,0,
109,-41.5,-27.11,-11.42,-26.62,-5.671,-21.03,-16.48,14.35,-15.29,20.13,-20.6,-29.33,-7.665,-7.498,-10.21,-3.173,0,0,0,0,0,0,0,0,0,0,0,0,0,0,0,0,
110,-37.85,-26.76,-1.254,-9.008,1.434,-35.87,9.943,12.8,-15.98,-13.17,-10.33,-20.37,-10.03,-6.557,-0.1191,15.46,0,0,0,0,0,0,0,0,0,0,0,0,0,0,0,0,
111,-27.17,-20.45,40.65,32.03,21.7,-30.04,-13.2,12.5,-11.87,1.651,-2.465,-7.799,-3.145,1.815,12.12,27.91,0,0,0,0,0,0,0,0,0,0,0,0,0,0,0,0,
112,-4.502,-12.08,10.24,24.33,19.62,10.04,-27.64,9.003,5.455,5.595,16.53,10.44,6.526,10.21,30.74,40.57,0,0,0,0,0,0,0,0,0,0,0,0,0,0,0,0,
113,14.09,-0.1137,-2.671,-7.825,-1.411,12.28,12.66,-11.85,28.42,2.546,65.63,48.4,35.8,42.93,76.22,84.38,0,0,0,0,0,0,0,0,0,0,0,0,0,0,0,0,
114,36.51,20.88,12.35,-3.719,3.374,5.316,42.19,-39.04,34.22,6.423,97.02,69.37,46.21,54.48,85.76,94.03,0,0,0,0,0,0,0,0,0,0,0,0,0,0,0,0,
115,40.7,3.72,-13.6,-13.53,23.03,22.05,1.409,-51.47,20.35,-35.12,61.6,38.36,10.2,15.19,32.82,47.04,0,0,0,0,0,0,0,0,0,0,0,0,0,0,0,0,
116,18.7,-31.05,-10.17,-49.84,29.37,15.04,-42.92,-56.71,21.08,-55.19,28.67,14.85,3.975,7.002,17.58,34.97,0,0,0,0,0,0,0,0,0,0,0,0,0,0,0,0,
117,10.99,-15.93,38.92,-8.013,45.94,-7.191,-49.81,-44.3,32.42,-8.453,33.37,17.26,26.85,26.95,36.76,43.44,0,0,0,0,0,0,0,0,0,0,0,0,0,0,0,0,
118,9.289,4.435,62.62,55.89,46.26,-4.06,-43.72,-12.11,20.62,-1.093,22.55,1.233,2.513,3.197,14.49,12.51,0,0,0,0,0,0,0,0,0,0,0,0,0,0,0,0,
119,-7.4,-13,46.68,12.28,1.007,2.096,-7.109,0.0802,1.368,-40.54,13.27,-6.975,-24.56,-19.62,-5.215,-4.658,0,0,0,0,0,0,0,0,0,0,0,0,0,0,0,0,
120,-9.658,-16.47,-9.576,-20.79,-14.5,-8.527,21.1,2.133,-2.487,-28.5,23.01,4.338,-6.11,-2.039,0.9994,7.471,0,0,0,0,0,0,0,0,0,0,0,0,0,0,0,0,
121,-4.958,-5.228,-43.86,29.7,3.248,-23.09,-22.99,21.15,-9.021,14.72,15.9,-4.797,1.881,7.562,-6.294,5.976,0,0,0,0,0,0,0,0,0,0,0,0,0,0,0,0,
122,-19.76,-19.82,3.498,11.42,-11.99,-35.55,-57.3,14.28,-23.6,13.06,9.402,-18.34,-15.4,-4.356,-13.41,1.048,0,0,0,0,0,0,0,0,0,0,0,0,0,0,0,0,
123,-29.04,-38.83,30.83,-45.55,-12.87,-38.53,-35.86,-24.82,-26.89,-15.44,9.216,-19.23,-25.66,-16.85,-16.55,-0.4549,0,0,0,0,0,0,0,0,0,0,0,0,0,0,0,0,
124,-21.45,-40.34,-14.78,-20.5,8.601,-24.96,-34.7,-45.1,-16.87,-25.02,-5.028,-20.21,-28.07,-21.68,-24.37,-4.568,0,0,0,0,0,0,0,0,0,0,0,0,0,0,0,0,
125,-18.14,-34.18,-43.6,-24.98,-22.95,-9.422,-32.76,-61.73,-9.969,-21.88,-5.005,-16.05,-27.14,-18.44,-22.73,-5.54,0,0,0,0,0,0,0,0,0,0,0,0,0,0,0,0,
126,-24.68,-27.04,-40.7,-77.26,-56.69,-12.1,-8.688,-84.87,-9.75,-12.28,6.86,-15.76,-23.49,-14.38,-19.55,-8.485,0,0,0,0,0,0,0,0,0,0,0,0,0,0,0,0,
127,-28.2,-28.65,-20.52,-33.51,-25.29,-26.61,-32.48,-49.07,-1.091,6.534,11.99,-13.8,-12.37,-2.604,-6.402,1.523,0,0,0,0,0,0,0,0,0,0,0,0,0,0,0,0,
128,-12.35,-32.13,43.19,37.35,11.76,-30.02,-59.46,27.59,9.353,5.6,25.62,5.281,5.431,12.72,12.77,20.49,0,0,0,0,0,0,0,0,0,0,0,0,0,0,0,0,
129,6.457,-22.59,71.12,19.79,14.7,-21.24,-27.8,35.3,3.073,-20.8,26.8,7.096,5.569,7.145,-0.9437,12.44,0,0,0,0,0,0,0,0,0,0,0,0,0,0,0,0,
130,-1.533,-15.18,7.918,-18.11,9.607,-14.73,-10.01,-32.78,2.086,-28.58,14.37,-8.476,-6.053,-2.384,-11.02,1.087,0,0,0,0,0,0,0,0,0,0,0,0,0,0,0,0,
131,-14.91,-17.79,-1.01,-31.65,8.565,-14.69,-29.72,-74.06,16.1,-4.272,25.47,-2.708,-3.14,3.721,11.92,8.442,0,0,0,0,0,0,0,0,0,0,0,0,0,0,0,0,
132,-5.381,-20.08,74.22,-27.77,12.81,-12.65,-39.2,-34.94,14.34,14.56,39.49,7.854,-0.2013,3.187,10.72,2.107,0,0,0,0,0,0,0,0,0,0,0,0,0,0,0,0,
133,10.37,-24.55,41.87,2.21,19.32,1.701,-36.38,14.09,2.125,2.599,32.01,3.912,-6.94,-5.438,-11.3,-9.757,0,0,0,0,0,0,0,0,0,0,0,0,0,0,0,0,
134,9.713,-26.09,-46.5,12.12,11.72,9.862,-25,-4.041,-2.813,-16.23,18.4,-4.975,-7.467,-7.484,-14,-7.55,0,0,0,0,0,0,0,0,0,0,0,0,0,0,0,0,
135,-5.519,-17.07,-1.316,-12.65,-7.407,-8.057,-9.551,-30.36,-8.681,-12.28,15.6,-10.59,-3.192,-6.345,-9.127,-3.635,0,0,0,0,0,0,0,0,0,0,0,0,0,0,0,0,
136,-14.06,-10.7,37.14,-19,-15.7,-21.16,-4.239,-19.14,-7.261,1.591,31.97,-1.102,-0.6787,-0.0959,1.649,5.441,0,0,0,0,0,0,0,0,0,0,0,0,0,0,0,0,
137,-11.36,-14.41,-32.04,-20.8,-21.27,-15.96,-3.23,-43.7,-3.462,7.202,34.47,5.613,-3.715,4.806,6.217,7.631,0,0,0,0,0,0,0,0,0,0,0,0,0,0,0,0,
138,-16.37,-23.05,-42.72,-53.18,-39.14,-19.34,-18.55,-73.79,-14.14,-8.254,12.64,-5.36,-16.7,-7.461,-9.662,-8.528,0,0,0,0,0,0,0,0,0,0,0,0,0,0,0,0,
139,-19.59,-30.17,-4.595,-59.44,-48.11,-15.43,-48.28,-32.24,-12.9,-53.98,19.44,-1.357,-24.45,-22.82,-8.259,-9.472,0,0,0,0,0,0,0,0,0,0,0,0,0,0,0,0,
140,-2.761,-20.01,5.068,1.251,-31.57,9.465,-34.92,-10.19,8.843,-73.2,41.24,14.9,-12.85,-18.71,7.584,4.952,0,0,0,0,0,0,0,0,0,0,0,0,0,0,0,0,
141,14.06,7.296,35.49,43.23,12.26,18.5,10.87,-38.92,14.28,-24.67,33.03,11.12,3.563,-4.561,-1.518,5.602,0,0,0,0,0,0,0,0,0,0,0,0,0,0,0,0,
142,11.25,18.07,29.1,2.353,49.9,7.668,12.06,-21.5,-0.2222,12.63,24.16,-0.006,3.278,-2.39,-15.64,2.827,0,0,0,0,0,0,0,0,0,0,0,0,0,0,0,0,
143,-0.4075,0.8198,-15.71,-34.64,16.07,4.484,-5.853,6.408,-1.656,-3.019,25.6,-4.748,-10.59,-6.623,-15.98,5.755,0,0,0,0,0,0,0,0,0,0,0,0,0,0,0,0,
144,-7.237,-13.66,14,-10.46,-37.39,1.306,8.784,-8.261,13.52,-4.388,14.64,-13.34,-16.44,0.7392,-20.86,6.495,0,0,0,0,0,0,0,0,0,0,0,0,0,0,0,0,
145,-17.37,-16.59,55,-1.563,-24.07,-18.77,3.744,-7.629,10.11,13.78,2.984,-24.48,-11.6,5.895,-27.28,4.043,0,0,0,0,0,0,0,0,0,0,0,0,0,0,0,0,
146,-33.07,-20.24,25.54,-22.55,-15.87,-36.44,-30.42,-5.426,-12.15,-4.396,0.9322,-26,-10.8,-9.297,-21.18,-7.125,0,0,0,0,0,0,0,0,0,0,0,0,0,0,0,0,
147,-27.61,-13.6,-28.34,-5.65,-42.37,-24.36,-27.56,-32.57,-12.46,-37.58,3.856,-16.16,-15.76,-26.16,-12.79,-24.51,0,0,0,0,0,0,0,0,0,0,0,0,0,0,0,0,
148,-7.184,-0.9387,-64.45,18.04,-26.62,-4.495,0.1739,-33.63,-1.615,-37.21,7.272,-12.06,-21.09,-27.58,-16.45,-33.39,0,0,0,0,0,0,0,0,0,0,0,0,0,0,0,0,
149,-7.758,-2.343,-29.45,-6.025,5.381,-8.458,9.642,-10.88,-4.627,-17.46,11.42,-12.43,-18.46,-17.93,-14.97,-25.03,0,0,0,0,0,0,0,0,0,0,0,0,0,0,0,0,
150,-10.23,-3.755,47.41,-20.54,17.69,-8.897,4.254,-7.096,4.668,-0.5851,29.04,5.906,-4.425,-3.783,4.716,-8.128,0,0,0,0,0,0,0,0,0,0,0,0,0,0,0,0,
151,6.055,-4.724,39.5,-3.053,9.801,9.922,-17.49,-10.93,20,1.521,44.93,20.97,-4.446,-3.861,9.101,-7.753,0,0,0,0,0,0,0,0,0,0,0,0,0,0,0,0,
152,6.853,-24.74,-19.69,-16.79,-43.85,12.22,-37.24,-14.4,14.47,-16.76,32.65,5.886,-21.52,-15.12,-4.54,-13.05,0,0,0,0,0,0,0,0,0,0,0,0,0,0,0,0,
153,-4.598,-28.3,-6.22,-24.34,-48.45,1.287,-16.13,-5.053,11.99,-2.103,21.47,1.931,-10.02,2.137,9.664,10.68,0,0,0,0,0,0,0,0,0,0,0,0,0,0,0,0,
154,10.26,6.873,47.65,30.37,37.8,3.624,21.36,13.14,15.32,33.26,35.36,25.15,18.79,24.72,35.95,31.83,0,0,0,0,0,0,0,0,0,0,0,0,0,0,0,0,
155,28.93,20.65,47.03,44.16,49.78,-1.07,21.69,-9.441,5.471,-14.96,40.88,27.06,9.668,2.53,29.87,17.33,0,0,0,0,0,0,0,0,0,0,0,0,0,0,0,0,
156,19.5,-3.94,8.41,-16.83,-3.863,-13.25,-8.672,-28.49,6.459,-69.59,28.33,11.4,-3.274,-9.159,14.79,13.41,0,0,0,0,0,0,0,0,0,0,0,0,0,0,0,0,
157,14.45,-4.593,6.73,-24.3,17.85,7.881,-15.65,9.324,22.3,-13.4,26.51,18.73,25.84,28.15,17.95,35.37,0,0,0,0,0,0,0,0,0,0,0,0,0,0,0,0,
158,32.35,23.77,25.75,7.247,32.24,45.9,24.69,5.072,21.93,23.75,32.26,28.21,43.54,38.43,22.27,36.55,0,0,0,0,0,0,0,0,0,0,0,0,0,0,0,0,
159,34.1,27.83,-1.125,-21.3,-9.359,41.52,51.3,-43.01,6.891,-18.02,24.59,13.9,20.03,6.424,17.43,14.61,0,0,0,0,0,0,0,0,0,0,0,0,0,0,0,0,
160,8.592,4.667,-23.33,-34.66,7.408,1.453,11.11,-15.66,-4.305,-19.33,13.04,0.3934,3.615,-3.931,9.114,2.457,0,0,0,0,0,0,0,0,0,0,0,0,0,0,0,0,
161,-6.412,-6.302,25.21,23.07,41.96,-20.54,-23.42,23.2,-7.687,1.229,12.29,0.6454,4.527,0.6136,-0.2916,-1.148,0,0,0,0,0,0,0,0,0,0,0,0,0,0,0,0,
162,-1.164,-0.7554,55.1,53.45,9.937,-19,-8.236,-3.641,-9.54,-16.57,8.858,-4.009,-3.292,-11.28,-11.94,-12.19,0,0,0,0,0,0,0,0,0,0,0,0,0,0,0,0,
163,-5.334,-6.901,19.77,18.38,-6.807,-20.22,-20.16,-15.2,-17.52,-27.67,-8.705,-17.82,-6.537,-14.95,-20.78,-16.22,0,0,0,0,0,0,0,0,0,0,0,0,0,0,0,0,
164,-22.03,-15.81,14.67,-33.63,10.78,-13.39,-36.2,-20.85,-24.55,-33.05,-19.72,-26.91,2.741,-5.831,-18.88,-3.789,0,0,0,0,0,0,0,0,0,0,0,0,0,0,0,0,
165,-29.09,-12.05,13.87,-67.86,-15.61,6.967,0.2079,-59.8,-29.43,-58.09,-13.94,-35.18,-10.4,-20.72,-21.94,-7.743,0,0,0,0,0,0,0,0,0,0,0,0,0,0,0,0,
166,-37.01,-29.66,-30.35,-41.46,-33.38,-0.117,-9.52,-43.73,-33.7,-60.06,-10.39,-46.79,-35.8,-38.76,-34.73,-22.68,0,0,0,0,0,0,0,0,0,0,0,0,0,0,0,0,
167,-48.19,-51.23,9.846,26.54,23.93,-29.56,-56.39,13.99,-14.17,-21.88,-0.9278,-32.71,-19.24,-15.1,-19.91,-3.283,0,0,0,0,0,0,0,0,0,0,0,0,0,0,0,0,
168,-26.38,-22.93,73.53,35.61,66.01,-21.12,-19.3,3.288,15.42,-7.319,23.99,3.695,12.42,4.367,11.3,17.06,0,0,0,0,0,0,0,0,0,0,0,0,0,0,0,0,
169,9.539,4.36,-20.55,-7.116,39.69,16.5,23.55,-28.96,9.998,-27.85,25.16,9.696,5.34,-14.55,0.2476,-3.062,0,0,0,0,0,0,0,0,0,0,0,0,0,0,0,0,
170,9.378,-10.42,-79.77,-5.542,16.37,25.93,-2.107,-0.3252,-11.25,-19.09,-2.274,-11.04,-11.84,-23.87,-35.98,-19.72,0,0,0,0,0,0,0,0,0,0,0,0,0,0,0,0,
171,-6.908,-18.45,37.86,12.55,11.67,1.304,-11.12,24.53,-22.55,-20.4,-16.15,-18.35,-19.82,-30.64,-48.49,-20.1,0,0,0,0,0,0,0,0,0,0,0,0,0,0,0,0,
172,-13.59,-19.51,84.59,-16.25,-10.15,-28.9,2.603,-4.344,-40.44,-70.62,-17.76,-18.64,-28.95,-50.3,-42.5,-27.58,0,0,0,0,0,0,0,0,0,0,0,0,0,0,0,0,
173,-16.1,-21.99,17.81,-24.48,-22.56,-31.5,6.306,-17.32,-43.33,-49.48,-15.61,-13.59,-8.392,-24.71,-23.53,-17.77,0,0,0,0,0,0,0,0,0,0,0,0,0,0,0,0,
174,-3.449,5.521,0.3415,28.66,-2.835,4.45,18.2,20.81,-15.2,41.72,0.4047,2.611,30.69,25.79,-0.396,5.662,0,0,0,0,0,0,0,0,0,0,0,0,0,0,0,0,
175,8.712,30.28,-14.45,56.62,13.14,25.37,20.48,45.93,-6.454,44.46,0.1755,-6.489,26.17,22.44,-10.77,1.378,0,0,0,0,0,0,0,0,0,0,0,0,0,0,0,0,
176,-12.52,15.89,-34.44,24.52,1.39,-9.395,10.14,24.16,-33.31,-16.59,-26.74,-40.73,-8.05,-9.054,-41.46,-17.91,0,0,0,0,0,0,0,0,0,0,0,0,0,0,0,0,
177,-38.04,-1.132,13.69,-1.238,-14.48,-40.25,4.221,3.498,-41.41,-16.99,-28.71,-40.8,-13.2,-10.42,-38.27,-18.61,0,0,0,0,0,0,0,0,0,0,0,0,0,0,0,0,
178,-25.35,3.238,42.86,-2.303,-10.34,-11.12,-2.935,4.213,-11.64,11.32,-1.866,-11.16,2.335,-0.8349,-13.51,-8.989,0,0,0,0,0,0,0,0,0,0,0,0,0,0,0,0,
179,0.7876,9.875,19.95,-17.11,-1.686,24.95,4.75,-3.725,3,-12.65,4.545,-8.326,-3.089,-15.8,-11.41,-9.714,0,0,0,0,0,0,0,0,0,0,0,0,0,0,0,0,
180,-0.3744,2.692,24.7,-15.76,-2.223,16.48,15.5,-5.67,-16.66,-49.54,0.1251,-15.57,-15.1,-29.04,-13.75,-12.87,0,0,0,0,0,0,0,0,0,0,0,0,0,0,0,0,
181,-11.07,-6.745,22.85,43.57,7.227,5.14,-3.001,10.63,-20.75,-29.12,13.38,2.047,-2.426,-10.07,-0.1851,-5.463,0,0,0,0,0,0,0,0,0,0,0,0,0,0,0,0,
182,-3.126,-0.0817,-19.04,80.74,22.31,16.88,-10.46,-0.3517,-2.583,4.715,17.83,14.61,15.72,8.304,2.624,2.253,0,0,0,0,0,0,0,0,0,0,0,0,0,0,0,0,
183,10.1,16.15,-20.64,41.99,18.65,20.04,17.76,-25.4,5.164,0.7643,13.25,16.08,23.49,8.558,1.779,8.597,0,0,0,0,0,0,0,0,0,0,0,0,0,0,0,0,
184,16.37,24.82,37.32,9.297,8.74,11.74,27.92,-12.39,12.51,-5.035,26.4,24.24,27.77,11.51,14.86,17.07,0,0,0,0,0,0,0,0,0,0,0,0,0,0,0,0,
185,13.61,18.19,79.15,11.02,8.016,11.91,9.122,13.96,19.66,-0.7313,28.1,16.21,22.45,11.16,10.01,13.18,0,0,0,0,0,0,0,0,0,0,0,0,0,0,0,0,
186,2.881,11.3,62.25,16.58,13.79,21.42,5.766,18.44,10.74,4.417,8.408,0.6518,17.41,6.336,-11.92,1.516,0,0,0,0,0,0,0,0,0,0,0,0,0,0,0,0,
187,-0.8845,19.14,8.372,31.64,25.34,26.18,13.89,-2.033,4.916,3.362,1.604,-0.6222,14.83,-1.309,-21.83,-7.873,0,0,0,0,0,0,0,0,0,0,0,0,0,0,0,0,
188,-6.739,15.09,-15.44,20.16,23.88,5.615,10.05,-32.22,3.551,-28.76,0.1547,-9.921,-2.366,-19.95,-25.77,-18.71,0,0,0,0,0,0,0,0,0,0,0,0,0,0,0,0,
189,-19.62,-2.248,21.33,-6.502,10.18,-25.49,12.31,-23.85,-5.702,-43.62,3.334,-10.68,-6.469,-18.12,-12.1,-9.582,0,0,0,0,0,0,0,0,0,0,0,0,0,0,0,0,
190,-5.522,8.621,31.97,20.62,11.77,-16.76,24.77,16.55,-0.4259,-1.134,27.76,16.4,18.73,11.34,18.63,22.12,0,0,0,0,0,0,0,0,0,0,0,0,0,0,0,0,
191,24.46,31.68,-14.44,46.27,-2.583,29.39,19.95,33.39,21.44,27.92,37.1,24.02,35.7,26.95,20.2,36.87,0,0,0,0,0,0,0,0,0,0,0,0,0,0,0,0,
192,23.31,30.18,-9.259,28.39,-42.34,39.89,-3.124,30.22,23.46,13.16,13.98,1.197,33.23,25.58,0.3162,28.04,0,0,0,0,0,0,0,0,0,0,0,0,0,0,0,0,
193,-1.508,19.91,45.47,18.36,-26.5,-7.596,-11.76,19.46,-4.226,2.114,-8.053,-15.35,26.34,23.84,-9.146,16.95,0,0,0,0,0,0,0,0,0,0,0,0,0,0,0,0,
194,-15.68,18.23,49.99,9.024,26.82,-32.6,6.064,3.267,-28.32,20.91,-17.95,-18.2,24.83,28.31,-17.55,16.15,0,0,0,0,0,0,0,0,0,0,0,0,0,0,0,0,
195,-12.2,17.7,17.51,10.06,16.27,-8.487,9.133,6.879,-29.4,32.52,-16.19,-12.62,27.46,33.86,-14.99,27.14,0,0,0,0,0,0,0,0,0,0,0,0,0,0,0,0,
196,-7.437,5.582,-17.9,27.82,-16.76,-6.348,-12.68,11.05,-29.86,-12.82,-4.743,-6.529,13.11,16.04,-3.539,25.77,0,0,0,0,0,0,0,0,0,0,0,0,0,0,0,0,
197,-10.56,-12.59,-47.45,-2.777,-9.024,-24.96,-11.05,-18.83,-34.67,-53.95,-5.053,-13.98,-8.869,-8.536,-19.74,4.479,0,0,0,0,0,0,0,0,0,0,0,0,0,0,0,0,
198,-16.16,-17.71,-33.83,-40.49,-17.87,-21.92,-4.775,-56.04,-25.57,-29.51,-19.99,-29.98,-10.08,-7.486,-41.14,-5.346,0,0,0,0,0,0,0,0,0,0,0,0,0,0,0,0,
199,-24.45,-12.04,-0.6074,-18.62,-36.56,-19.06,-20.45,-49.72,-13.62,1.679,-21.18,-29.94,1.903,5.632,-23.11,8.349,0,0,0,0,0,0,0,0,0,0,0,0,0,0,0,0,
200,-21.04,5.661,17.6,11.13,-7.491,-13.18,-4.056,4.602,-1.79,21.49,1.466,-5.831,17.24,18.08,6.244,24.26,0,0,0,0,0,0,0,0,0,0,0,0,0,0,0,0,
201,0.4357,27.25,37.1,26.78,16.34,-0.0351,16.87,40.03,17.21,33.37,8.869,5.164,21.36,15.68,0.884,15.8,0,0,0,0,0,0,0,0,0,0,0,0,0,0,0,0,
202,2.667,12.56,30.86,43.88,2.319,-15.79,-14.72,32.8,13.78,6.349,-14.76,-12.55,3.038,-5.662,-18.07,-8.489,0,0,0,0,0,0,0,0,0,0,0,0,0,0,0,0,
203,-12.54,-16.23,-15.24,48.4,-12.06,-29.57,-25.68,31.01,-13.27,-17.14,-16.2,-15.32,-5.131,-13.25,-6.415,-9.24,0,0,0,0,0,0,0,0,0,0,0,0,0,0,0,0,
204,-11.01,-10.42,-40.11,21.99,-32.02,-14.03,5.927,10.92,-23.31,-24.56,4.568,-1.12,2.95,-13.27,12.14,4.193,0,0,0,0,0,0,0,0,0,0,0,0,0,0,0,0,
205,-9.983,3.816,-15.18,-32.49,-25.46,-11.36,12.36,-25.17,-12.75,-35.54,-6.753,-0.6582,8.209,-14.7,2.158,5.323,0,0,0,0,0,0,0,0,0,0,0,0,0,0,0,0,
206,-12.19,13.83,14.91,-37.38,31.03,-11.25,6.08,0.4979,1.948,0.7559,-18.41,4.159,24.74,10.16,-5.297,14,0,0,0,0,0,0,0,0,0,0,0,0,0,0,0,0,
207,1.049,29.6,11.99,18.99,40.2,6.052,3.897,25.82,8.797,47.54,0.6691,11.63,32.34,28.93,1.794,22.66,0,0,0,0,0,0,0,0,0,0,0,0,0,0,0,0,
208,1.092,22.99,4.189,32.72,1.456,0.9176,-10.19,-11.04,-3.413,30.89,0.9808,-5.78,4.678,10.35,-8.655,3.364,0,0,0,0,0,0,0,0,0,0,0,0,0,0,0,0,
209,-21.46,-0.372,12.71,24.32,4.123,-24.34,-8.372,-15.81,-13.88,2.9,-18.27,-26.25,-19.95,-6.676,-30.45,-20.97,0,0,0,0,0,0,0,0,0,0,0,0,0,0,0,0,
210,-37.58,-14.89,2.02,34.97,-5.221,-34.02,2.894,14.83,-8.359,4.876,-22.34,-30.28,-20.75,-5.117,-41.63,-27.58,0,0,0,0,0,0,0,0,0,0,0,0,0,0,0,0,
211,-38.93,-19.4,-23.28,6.723,-47.33,-28.74,-12.49,15.83,-10.38,13.83,-21.92,-27.82,-16.6,1.445,-43.68,-27.63,0,0,0,0,0,0,0,0,0,0,0,0,0,0,0,0,
212,-26.37,-6.335,-28.67,-12.47,-38.82,-21.38,-30.03,6.739,-20.78,-1.385,-21.16,-21.72,-19.81,-4.535,-41.77,-30.43,0,0,0,0,0,0,0,0,0,0,0,0,0,0,0,0,
213,-15.69,0.8579,-16.27,4.287,-8.96,-25.7,-25.69,-12.17,-24.49,-44.93,-14.5,-20.17,-27.71,-19.61,-37.88,-25.84,0,0,0,0,0,0,0,0,0,0,0,0,0,0,0,0,
214,-25.16,-13.05,4.999,-10.37,-7.169,-38.44,-18.07,-24.16,-27.72,-43.42,-9.555,-21.26,-16.34,-2.092,-31.52,-9.576,0,0,0,0,0,0,0,0,0,0,0,0,0,0,0,0,
215,-31.64,-8.599,13.55,-9.85,-19.65,-35.45,-18.43,2.902,-29.25,13.69,-7.265,-14.16,3.911,26.22,-32.39,-9.592,0,0,0,0,0,0,0,0,0,0,0,0,0,0,0,0,
216,-25.66,0.2188,-1.225,1.454,-53.59,-30.37,-15.21,3.975,-25.55,28.73,-12.07,-14.55,-4.363,13.43,-43.74,-25.75,0,0,0,0,0,0,0,0,0,0,0,0,0,0,0,0,
217,-31.3,-17.12,-28.25,-42.47,-64.83,-43.65,-2.503,-26.93,-24.17,-1.397,-17.66,-21.71,-11.96,0.7513,-38.05,-17.86,0,0,0,0,0,0,0,0,0,0,0,0,0,0,0,0,
218,-36.24,-17.24,-62.8,-37.2,-25.92,-44.92,-3.84,-17.26,-18.46,-5.508,-4.323,-9.688,14.26,20.82,-8.877,9.995,0,0,0,0,0,0,0,0,0,0,0,0,0,0,0,0,
219,-17.84,10.7,-48.74,32.8,-9.67,-26.31,-18.4,-0.9445,-3.471,12.45,17.64,11.23,39.27,37.56,14.04,31.88,0,0,0,0,0,0,0,0,0,0,0,0,0,0,0,0,
220,2.605,29.29,21.79,36.92,-16.02,-19.26,-7.269,-8.947,5.237,9.9,23.88,15.16,35.77,33.88,15.31,37.46,0,0,0,0,0,0,0,0,0,0,0,0,0,0,0,0,
221,2.62,29.41,36.86,12.35,-6.044,-14.16,9.179,-4.543,0.4978,-11.96,12.93,4.999,13.98,17.26,3.286,17.2,0,0,0,0,0,0,0,0,0,0,0,0,0,0,0,0,
222,-6.648,9.8,2.005,6.126,-11.82,4.003,-2.784,-8.634,-3.747,-21.19,2.791,-4.386,-7.423,4.677,-2.03,-2.686,0,0,0,0,0,0,0,0,0,0,0,0,0,0,0,0,
223,-9.459,-13.58,11.59,-25.77,-14.77,6.024,-10.47,-21.77,1.426,-21.03,5.993,-7.242,-16.38,5.156,2.29,-1.291,0,0,0,0,0,0,0,0,0,0,0,0,0,0,0,0,
224,-14.12,-18.13,20.84,-29.56,10.84,-18.77,-17.36,-7.32,-0.3554,-23.19,0.7848,-13.26,-18.74,2.47,-6.853,-4.96,0,0,0,0,0,0,0,0,0,0,0,0,0,0,0,0,
225,-32.47,-19.51,-14.91,-1.777,13.18,-44.34,-40.16,-8.449,-21.83,-12.72,-29.81,-29.08,-20.57,-5.647,-30.89,-15.58,0,0,0,0,0,0,0,0,0,0,0,0,0,0,0,0,
226,-45.39,-21.79,-32.86,-13.03,-11.08,-44.96,-31.28,-30.78,-37.94,-0.5191,-47.81,-33.09,-14.71,-5.922,-43.08,-14.1,0,0,0,0,0,0,0,0,0,0,0,0,0,0,0,0,
227,-30.59,-11.7,-23.77,-15.37,-25.44,-12.37,-5.846,-8.997,-23.09,8.427,-25.29,-10.66,5.534,9.491,-26.75,0.1549,0,0,0,0,0,0,0,0,0,0,0,0,0,0,0,0,
228,-7.029,-5.883,-22.3,13.65,-33.27,13.97,-16.31,22.18,0.5066,15.52,0.5708,6.162,23.67,27.65,-0.8125,16.47,0,0,0,0,0,0,0,0,0,0,0,0,0,0,0,0,
229,-8.265,-14.58,8.594,16.99,-29.77,-11.31,-20.45,10.7,-5.226,-9.67,-3.459,-9.204,11.13,16.32,-5.654,8.241,0,0,0,0,0,0,0,0,0,0,0,0,0,0,0,0,
230,-31.49,-23.07,50.47,-6.851,-16.77,-45.86,4.654,-6.317,-31.3,-32.97,-20.89,-30.68,-15.44,-8.328,-37.01,-20.75,0,0,0,0,0,0,0,0,0,0,0,0,0,0,0,0,
231,-43.73,-22.91,0.7545,-40.07,-15.61,-32.26,12.46,-15.37,-35.4,-17.31,-28.69,-32.28,-20.77,-10.59,-48.06,-31.12,0,0,0,0,0,0,0,0,0,0,0,0,0,0,0,0,
232,-30.15,-20.36,-55.24,-30.82,-15.81,-7.658,-7.133,-13.94,-14.25,-17.04,-18.03,-19.23,-15.02,-8.36,-27.54,-19.35,0,0,0,0,0,0,0,0,0,0,0,0,0,0,0,0,
233,-7.279,-24.98,6.008,40.66,-12.99,-4.62,-31.85,6.818,-3.263,-27.13,0.5143,-2.175,-12.8,-9.454,-9.01,-7.361,0,0,0,0,0,0,0,0,0,0,0,0,0,0,0,0,
234,6.407,-26.89,41.71,56.27,-17.94,12.62,-24.71,2.269,-9.461,-8.482,-3.745,2.751,-8.854,-2.276,-15.27,-6.872,0,0,0,0,0,0,0,0,0,0,0,0,0,0,0,0,
235,7.274,-9.575,13.33,2.12,-6.5,35.24,26.6,-16.21,-8.722,5.989,-20.75,-4.002,-2.765,1.249,-24.41,-16.54,0,0,0,0,0,0,0,0,0,0,0,0,0,0,0,0,
236,5.234,13.06,48.95,-1.102,17.79,24.6,50.86,-1.555,1.181,1.803,-18.83,-6.339,-2.942,-7.415,-24.07,-31.14,0,0,0,0,0,0,0,0,0,0,0,0,0,0,0,0,
237,2.514,10.4,36.17,25.19,4.426,6.32,18.64,6.051,-1.395,-31.25,-27.46,-22.4,-27.69,-36.66,-43.98,-56.22,0,0,0,0,0,0,0,0,0,0,0,0,0,0,0,0,
238,-13.34,-21.7,-44.69,16.47,-20.69,4.009,-2.724,8.069,-10.4,-80.51,-50.27,-47.08,-55.95,-62.19,-59.14,-63.83,0,0,0,0,0,0,0,0,0,0,0,0,0,0,0,0,
239,-24,-43.73,0.1907,9.488,13.48,5.295,1.127,37.34,-1.597,-65.46,-30.61,-32.36,-40.4,-36.57,-24.23,-25.38,0,0,0,0,0,0,0,0,0,0,0,0,0,0,0,0,
240,-4.723,-27.11,60.64,13.81,55.37,14.12,3.584,32.19,7.409,-22.6,3.646,-1.064,-11.05,-3.639,4.269,1.975,0,0,0,0,0,0,0,0,0,0,0,0,0,0,0,0,
241,13.37,-3.87,14.81,6.845,23.23,24.66,19.39,-2.53,6.098,-32.98,2.3,6.736,-3.982,-6.104,-3.437,-6.177,0,0,0,0,0,0,0,0,0,0,0,0,0,0,0,0,
242,14.4,6.459,25,9.841,-11.14,25.77,35.81,4.481,26.11,-16.62,7.991,20.26,16.41,11.08,10.24,8.319,0,0,0,0,0,0,0,0,0,0,0,0,0,0,0,0,
243,23.11,23.64,47.56,35.1,13.97,30.77,34.02,13.63,39.94,37.16,18.51,28.42,34.68,34.34,23.67,25.8,0,0,0,0,0,0,0,0,0,0,0,0,0,0,0,0,
244,21.95,28.37,-35.2,31.15,26.9,31.28,45.97,6.633,11.67,18.69,-5.356,5.537,12.31,10.67,2.759,9.641,0,0,0,0,0,0,0,0,0,0,0,0,0,0,0,0,
245,9.062,9.993,-55.45,-7.404,27.29,19.36,59.93,34.97,9.263,-16.2,1.53,13.42,8.097,7.099,19.32,23.23,0,0,0,0,0,0,0,0,0,0,0,0,0,0,0,0,
246,38.11,17.9,36.46,23.39,55.94,33.92,38.56,58.18,60.28,23.12,69.78,69.39,50.41,54.49,82.56,74.01,0,0,0,0,0,0,0,0,0,0,0,0,0,0,0,0,
247,94.8,52.58,76.72,99.3,41.21,78.73,24.84,37.67,90.74,55.25,108.5,99.6,70.48,70.12,107.8,88.31,0,0,0,0,0,0,0,0,0,0,0,0,0,0,0,0,
248,107.4,59.47,44.13,62.81,-14.92,84.42,44.49,15.31,70.96,29.26,84.7,86.13,53.61,47.81,89.73,73.42,0,0,0,0,0,0,0,0,0,0,0,0,0,0,0,0,
249,72.16,41.64,4.213,-28.96,-15.17,30.97,50.66,-6.44,26.75,12.82,48.8,64.26,43.1,43.02,70.74,68.68,0,0,0,0,0,0,0,0,0,0,0,0,0,0,0,0,
250,39.63,36.51,-8.149,-20.09,17.27,-2.797,44.06,-24.14,1.541,31.32,22,44.34,37.89,42.26,47.53,55.25,0,0,0,0,0,0,0,0,0,0,0,0,0,0,0,0,
251,29.62,36.26,17.28,26.34,18.3,10.34,42.64,-6.906,17.05,37.37,3.213,25.69,20.77,22.04,17.26,23.21,0,0,0,0,0,0,0,0,0,0,0,0,0,0,0,0,
252,20.18,17.4,8.57,15.79,2.789,6.681,14.83,13.93,15.07,16.63,-7.523,10.3,3.523,4.992,-5.982,-4.494,0,0,0,0,0,0,0,0,0,0,0,0,0,0,0,0,
253,11.13,1.281,-32.43,1.552,-1.169,-2.901,-19.38,16.58,-9.127,18.7,-6.297,8.203,4.919,11.39,-10.3,-8.196,0,0,0,0,0,0,0,0,0,0,0,0,0,0,0,0,
254,24.63,14.59,-10.41,26.75,9.357,24.04,-12.19,17.55,10.02,31.98,9.742,18.3,12.48,18.34,2.555,2.926,0,0,0,0,0,0,0,0,0,0,0,0,0,0,0,0,
255,29.41,20.34,15.85,39.29,4.997,21.95,5.057,0.5168,20.87,-9.142,12.85,9.991,-3.164,-3.99,4.068,-1.69,0,0,0,0,0,0,0,0,0,0,0,0,0,0,0,0,
256,0.6287,-2.715,-15.66,-3.922,-14.81,-20.64,12.54,-18.84,-14.28,-35.36,-1.918,-8.529,-17.36,-17.96,-5.202,-8.989,0,0,0,0,0,0,0,0,0,0,0,0,0,0,0,0,
257,-8.579,-1.22,-31.75,-45.08,-12.4,-11.86,30.89,-13.43,-7.738,16.73,2.754,-0.9176,-1.355,6.808,6.981,4.228,0,0,0,0,0,0,0,0,0,0,0,0,0,0,0,0,
258,12.13,20.06,-43.11,-33.29,-11.74,21.68,26.2,-12.7,24.2,34.51,10.85,7.642,0.1026,14.91,22.02,3.912,0,0,0,0,0,0,0,0,0,0,0,0,0,0,0,0,
259,10.44,4.925,-49.42,-14.56,-18.62,2.023,-11.38,-5.251,9.615,-4.081,-9.696,-6.784,-22.05,-5.299,11.19,-14.05,0,0,0,0,0,0,0,0,0,0,0,0,0,0,0,0,
260,-5.528,-11.55,15.52,9.086,8.73,-21.22,-23.77,28.21,-4.496,-10.91,-25.52,-13.35,-18.51,-7.157,0.1183,-10.15,0,0,0,0,0,0,0,0,0,0,0,0,0,0,0,0,
261,-1.444,9.529,64.11,54.96,22.81,-0.4017,-6.329,37.1,4.109,-0.7811,-13.44,-0.7095,3.081,3.55,12.06,7.204,0,0,0,0,0,0,0,0,0,0,0,0,0,0,0,0,
262,17.47,29.77,29.08,49.86,-1.165,24.37,9.105,15.7,3.49,15.68,2.893,15.87,12.23,9.468,28.16,11.84,0,0,0,0,0,0,0,0,0,0,0,0,0,0,0,0,
263,31.01,30.71,-22.1,3.403,-4.356,27.09,22.46,-5.219,3.738,19.16,-0.0741,17.93,3.677,1.243,22.1,2.335,0,0,0,0,0,0,0,0,0,0,0,0,0,0,0,0,
264,17.55,18.88,-72.19,-8.637,-9.63,20.02,30.86,-29.83,2.275,-30.67,-22.21,-2.731,-12.96,-17.18,8.269,-5.954,0,0,0,0,0,0,0,0,0,0,0,0,0,0,0,0,
265,-4.668,8.073,-76.91,-24.2,-34.64,15.12,26.82,-32.12,-3.23,-24.65,-33.34,-16.87,-8.288,-4.594,10.82,-1.993,0,0,0,0,0,0,0,0,0,0,0,0,0,0,0,0,
266,-1.76,17.84,-0.6569,-37.83,-24.37,7.769,1.369,4.876,-0.9356,55.06,-27.53,-17.3,1.159,13.93,3.652,-11.62,0,0,0,0,0,0,0,0,0,0,0,0,0,0,0,0,
267,-0.9716,20.44,50.53,14.75,-9.169,-5.424,-33.81,36.91,-11.01,61.18,-31.01,-25.41,-11.82,-3.672,-17.31,-30.67,0,0,0,0,0,0,0,0,0,0,0,0,0,0,0,0,
268,-11.14,9.71,25.59,62.18,-26.73,-4.69,-24.98,28.27,-19.98,26.94,-30.08,-21.34,-7.904,-8.523,-11.43,-15.3,0,0,0,0,0,0,0,0,0,0,0,0,0,0,0,0,
269,0.1207,19.79,-25.61,37.1,-25.03,7.99,17.63,-15,-5.661,18.65,-19.28,-9.062,2.143,-2.184,-0.5465,3.732,0,0,0,0,0,0,0,0,0,0,0,0,0,0,0,0,
270,3.047,19.73,-50.3,-5.819,-4.365,6.029,27.29,-28.92,-7.402,-9.601,-32.01,-25.94,-24.38,-23.62,-16.74,-12.34,0,0,0,0,0,0,0,0,0,0,0,0,0,0,0,0,
271,-18.03,-3.509,0.9154,-13.23,-0.8615,-1.218,9.429,17.01,-22.39,-11.73,-45.86,-41.03,-39.14,-30.63,-21.97,-21.24,0,0,0,0,0,0,0,0,0,0,0,0,0,0,0,0,
272,-13.32,-2.597,58.63,15.69,10.54,1.453,-10.24,24.01,-8.42,11.98,-29.07,-25.13,-22.81,-19.63,-10.57,-9.575,0,0,0,0,0,0,0,0,0,0,0,0,0,0,0,0,
273,2.948,4.426,42.11,22.05,25.45,-1.849,-24.58,-23.45,8.528,-7.584,-22.52,-17.63,-22.21,-25.49,-18.54,-7.546,0,0,0,0,0,0,0,0,0,0,0,0,0,0,0,0,
274,-12.86,-7.075,26.54,-22,4.647,-15.06,-13.54,-8.953,-1.599,-14.4,-39.44,-26.87,-29.89,-26.83,-26.8,-8.739,0,0,0,0,0,0,0,0,0,0,0,0,0,0,0,0,
275,-28.59,-7.999,17.63,-37.98,-19.95,-19.92,-6.289,32.21,-13.65,3.792,-37.67,-22.85,-27.8,-23.25,-12.38,-4.963,0,0,0,0,0,0,0,0,0,0,0,0,0,0,0,0,
276,-17.17,-4.106,-45.86,-4.662,-10.44,-8.729,-22.96,12.37,-9.126,-2.049,-25,-12.84,-27.45,-29.14,-9.242,-8.607,0,0,0,0,0,0,0,0,0,0,0,0,0,0,0,0,
277,-4.472,-5.846,-69.97,16.87,-5.507,1.777,-13.1,1.671,-2.565,4.78,-31.48,-14.81,-23.31,-25.63,-25.61,-14.52,0,0,0,0,0,0,0,0,0,0,0,0,0,0,0,0,
278,1.056,5.136,-12.89,15.57,-21.65,-0.58,17.72,15.81,-2.96,16.38,-30.3,-14.48,-12.38,-15.05,-20.1,-10.98,0,0,0,0,0,0,0,0,0,0,0,0,0,0,0,0,
279,10.79,18.02,3.738,-6.201,-22.18,-2.428,16.93,-10.52,3.391,1.764,-7.834,-6.165,-3.071,-9.396,2.998,-6.174,0,0,0,0,0,0,0,0,0,0,0,0,0,0,0,0,
280,9.743,11.67,-24.37,-31.8,-16.17,-8.565,-10.53,-25.6,10.68,-0.9877,-4.26,-10.45,2.161,-4.545,8.016,-6.22,0,0,0,0,0,0,0,0,0,0,0,0,0,0,0,0,
281,-8.226,-5.811,-6.86,-14.17,-17.3,-28.13,-37.32,12.49,2.277,6.14,-14.62,-15,5.16,-0.2492,12.08,0.4183,0,0,0,0,0,0,0,0,0,0,0,0,0,0,0,0,
282,-8.799,-10.69,-0.4226,4.51,-3.652,-26.79,-42.7,30.88,-3.69,-5.441,-5.632,0.6111,6.075,-2.51,23.32,5.208,0,0,0,0,0,0,0,0,0,0,0,0,0,0,0,0,
283,7.609,1.645,-70.16,-46.01,-15.42,1.226,-13.18,-3.415,-3.231,-33.39,-6.585,3.221,-4.6,-18.94,10.16,-9.479,0,0,0,0,0,0,0,0,0,0,0,0,0,0,0,0,
284,5.715,12.57,-103.2,-90.04,-60.13,14.59,27.51,-30.25,-9.283,-45.5,-25.47,-12.6,-15.13,-27.31,-6.425,-19.5,0,0,0,0,0,0,0,0,0,0,0,0,0,0,0,0,
285,0.3249,18.77,-25.92,-37.18,-41.11,6.211,28.55,-5.969,-5.883,-2.591,-23.4,-13.58,-9.687,-10.83,-3.373,-15.6,0,0,0,0,0,0,0,0,0,0,0,0,0,0,0,0,
286,0.5286,12.31,42.56,21.81,12.48,-12.16,-20.71,15.89,0.746,34.18,-17.84,-17.17,-16.25,-9.557,-10.67,-23.19,0,0,0,0,0,0,0,0,0,0,0,0,0,0,0,0,
287,-11.1,-13.12,23.09,6.225,3.046,-23.74,-52.41,-3.751,3.556,13.39,-15.76,-17.86,-23.14,-15.65,-5.875,-14.62,0,0,0,0,0,0,0,0,0,0,0,0,0,0,0,0,
288,2.614,-10.14,-4.863,3.515,-6.785,-2.341,-32.69,-0.9721,23.72,8.685,9.648,15.53,8.027,10.58,25.44,19.2,0,0,0,0,0,0,0,0,0,0,0,0,0,0,0,0,
289,40.07,25.42,-7.34,13.02,13.06,21.11,-10.7,8.76,24.31,6.953,8.466,25.79,19.82,11.83,11.26,8.311,0,0,0,0,0,0,0,0,0,0,0,0,0,0,0,0,
290,32.51,28.47,-46.23,-45.88,-2.681,14.11,15.62,-40.21,-13.71,-35.34,-33.5,-8.131,-14.17,-26,-25.64,-27.92,0,0,0,0,0,0,0,0,0,0,0,0,0,0,0,0,
291,3.824,8.715,-78.1,-67.93,-22.11,13.16,46.1,-55.3,-21,-31.75,-40.81,-13.76,-20.78,-23.24,-3.7,-13.04,0,0,0,0,0,0,0,0,0,0,0,0,0,0,0,0,
292,4.028,3.38,-13.03,-3.947,-19.78,15.79,12.71,1.863,0.0754,0.5982,-31.79,-2.779,-10.5,-6.828,16.04,4.242,0,0,0,0,0,0,0,0,0,0,0,0,0,0,0,0,
293,-2.199,-8.791,47.86,8.336,-23.39,-8.748,-40.18,15.62,-6.248,-17.55,-50.68,-16.46,-28.44,-26.32,-5.686,-14.38,0,0,0,0,0,0,0,0,0,0,0,0,0,0,0,0,
294,-15.87,-19.32,2.894,-6.179,-13.99,-22.52,-30.34,-6.586,-10.92,-16.64,-45.89,-15.73,-34.87,-27.06,3.623,-11.14,0,0,0,0,0,0,0,0,0,0,0,0,0,0,0,0,
295,-4.163,-6.975,-24.25,26.83,-9.977,-10.84,-12.19,-1.634,4.174,13.6,-20.94,-2.454,-24.25,-9.74,25.17,2.33,0,0,0,0,0,0,0,0,0,0,0,0,0,0,0,0,
296,6.47,5.718,16.73,12.16,-23.6,-8.667,-9.106,4.677,1.638,7.497,-24.33,-8.735,-21.44,-13.72,12.12,-9.416,0,0,0,0,0,0,0,0,0,0,0,0,0,0,0,0,
297,0.7499,7.136,4.748,-31.99,-0.8724,-12.18,11.57,14.34,-12.82,2.119,-26.94,-7.001,-5.822,-8.846,8.663,-9.101,0,0,0,0,0,0,0,0,0,0,0,0,0,0,0,0,
298,0.2179,0.2028,-32.52,-12.01,29.4,-13.05,11.26,16.99,-15.75,2.626,-18.47,6.132,13.13,2.51,17.56,6.507,0,0,0,0,0,0,0,0,0,0,0,0,0,0,0,0,
299,1.023,-6.974,-12.37,-0.53,9.907,-9.338,-8.149,-7.118,-12.88,-25.83,-26.69,0.1583,9.208,-5.268,7.529,7.899,0,0,0,0,0,0,0,0,0,0,0,0,0,0,0,0,
300,-5.808,-1.994,-8.034,-23.85,-17.43,9.4,-3.067,-5.092,-8.493,-39.64,-33.79,-13.79,-4.62,-8.705,-0.9415,2.577,0,0,0,0,0,0,0,0,0,0,0,0,0,0,0,0,
301,-12.8,-7.036,-29.53,-7.032,-14.11,7.466,-7.768,13.25,-5.977,-20.96,-35.36,-20.86,-19.28,-9.796,-4.768,-8.072,0,0,0,0,0,0,0,0,0,0,0,0,0,0,0,0,
302,-20.97,-30.08,-8.239,14.28,-2.416,-27.61,-38.62,0.2519,-11.55,0.0395,-48.21,-27.53,-29.44,-24.26,-18.82,-27.89,0,0,0,0,0,0,0,0,0,0,0,0,0,0,0,0,
303,-30.27,-30.86,4.397,-15.07,-2.871,-38.84,-38.92,-10.77,-16.71,8.306,-47.7,-27.08,-25.05,-30.88,-26.18,-38.56,0,0,0,0,0,0,0,0,0,0,0,0,0,0,0,0,
304,-27.61,-7.01,-33.86,-49.82,-4.877,-21.57,-2.768,-9.162,-14.38,0.7671,-25.57,-14.19,-14.23,-23.05,-16.93,-32.62,0,0,0,0,0,0,0,0,0,0,0,0,0,0,0,0,
305,-15.75,0.3778,-69.03,-42.77,-5.836,-9.57,3.993,-0.3925,-11.73,4.218,-15.01,-6.732,-11.35,-15.93,-7.301,-24.51,0,0,0,0,0,0,0,0,0,0,0,0,0,0,0,0,
306,-16.73,-15.73,-53.3,-14.86,-26.19,-1.73,-21.13,22.95,-13.37,10.62,-28.23,-23.31,-26.86,-22.62,-19.37,-29.97,0,0,0,0,0,0,0,0,0,0,0,0,0,0,0,0,
307,-33.42,-29.95,14.51,-22.87,-38.46,-16.27,-14.36,8.803,-22.21,-22.99,-52.84,-50.97,-48.71,-41.96,-47.92,-42.58,0,0,0,0,0,0,0,0,0,0,0,0,0,0,0,0,
308,-47.52,-33.25,39.41,-49.29,-20.48,-51.82,-4.938,-33.87,-36.46,-51.43,-64.37,-55.99,-48.54,-45.1,-49.71,-38.66,0,0,0,0,0,0,0,0,0,0,0,0,0,0,0,0,
309,-48.54,-37.54,-18.38,-17.3,-23.68,-53.32,-39.96,-17.29,-36.87,-24.81,-50.86,-39.84,-34.92,-26.42,-22.07,-24.95,0,0,0,0,0,0,0,0,0,0,0,0,0,0,0,0,
310,-40.45,-39.97,-29.79,27.21,-26.01,-27.15,-45.58,33.88,-25.46,7.415,-46.03,-33.67,-30.05,-18.65,-16.03,-30.1,0,0,0,0,0,0,0,0,0,0,0,0,0,0,0,0,
311,-31.14,-28.82,-7.28,-5.577,27.68,-15.18,-10.34,32.41,-28.26,-3.622,-58.01,-33.24,-28.69,-30.46,-30.28,-45.92,0,0,0,0,0,0,0,0,0,0,0,0,0,0,0,0,
312,-19.74,-17.57,-53.47,-46.09,51.36,-0.3901,-14.64,-15.03,-29.73,-38.66,-47.49,-22.31,-26.48,-40.78,-26.03,-45.8,0,0,0,0,0,0,0,0,0,0,0,0,0,0,0,0,
313,-8.544,-16.56,-43.86,-13.59,8.959,12.34,-27.41,-31.15,-10.22,-36.18,-28.47,-20.46,-18.4,-30.91,-12.86,-32.11,0,0,0,0,0,0,0,0,0,0,0,0,0,0,0,0,
314,-11.21,-12.47,58.82,29.36,14.98,-6.896,-1.373,15.79,-1.432,5.357,-34.5,-30.94,-1.029,-9.534,-6.958,-19.36,0,0,0,0,0,0,0,0,0,0,0,0,0,0,0,0,
315,-21.18,-8.23,75.86,25.72,59.51,-21.98,14.68,42.33,-14.49,0.0705,-42.77,-32.31,-0.9016,-9.822,-5.17,-17.78,0,0,0,0,0,0,0,0,0,0,0,0,0,0,0,0,
316,-25.75,-18.84,15.84,7.37,33.98,-12.79,-0.8344,-2.995,-25.59,-42.71,-44.16,-36.78,-27.47,-29.18,-16.86,-31.75,0,0,0,0,0,0,0,0,0,0,0,0,0,0,0,0,
317,-34.37,-34.18,-13.96,-2.71,-7.521,-12.19,-11.36,-15.11,-27.83,-29.93,-47.12,-46.1,-42.75,-30.79,-23.31,-39.22,0,0,0,0,0,0,0,0,0,0,0,0,0,0,0,0,
318,-33.68,-34.04,-37.49,-11.86,14.4,-8.219,1.344,38.5,-14.63,8.18,-34.71,-30.85,-33.31,-17.52,-3.929,-28.73,0,0,0,0,0,0,0,0,0,0,0,0,0,0,0,0,
319,-11.33,-25.21,-47.38,-14.27,21.82,2.261,-4.125,29.35,2.397,-4.351,-26.4,-18.56,-35.1,-24.03,-6.285,-35.85,0,0,0,0,0,0,0,0,0,0,0,0,0,0,0,0,
320,-11.3,-28.8,-22.53,-20.58,-21.3,-16.79,-43.71,-31.6,-6.303,-30.61,-45.7,-44.02,-55.27,-46.18,-41.29,-60.42,0,0,0,0,0,0,0,0,0,0,0,0,0,0,0,0,
321,-41.62,-36.47,-3.969,-30.11,-31.52,-41.78,-44.23,-10.61,-21.35,-15.64,-53.32,-62.61,-59.32,-49.64,-48.28,-58.77,0,0,0,0,0,0,0,0,0,0,0,0,0,0,0,0,
322,-54.21,-34.09,20.99,4.32,-8.838,-53.91,-12.97,38.54,-27.79,-3.962,-47.9,-60.35,-52.74,-46.53,-40.89,-53.42,0,0,0,0,0,0,0,0,0,0,0,0,0,0,0,0,
323,-56.42,-38.38,32.86,39.04,-20.76,-72.48,-16.68,21.87,-47.74,-38.01,-64.24,-71.44,-60.17,-63.5,-55.64,-75.41,0,0,0,0,0,0,0,0,0,0,0,0,0,0,0,0,
324,-65,-45.37,-37.49,-7.248,-42.09,-64.15,-2.965,21.31,-55.04,-47.53,-61.35,-64.7,-55.04,-64.62,-45,-77.4,0,0,0,0,0,0,0,0,0,0,0,0,0,0,0,0,
325,-50.21,-29.88,-93.41,-41.72,-18.17,-29.78,28.45,48.22,-30.86,7.393,-17.85,-23.02,-22.49,-29.62,-4.909,-44.21,0,0,0,0,0,0,0,0,0,0,0,0,0,0,0,0,
326,-23.12,-6.678,-41,9.609,13.99,-17,3.37,24.85,-18.31,50.55,5.356,-0.3016,2.507,-1.361,8.426,-22.46,0,0,0,0,0,0,0,0,0,0,0,0,0,0,0,0,
327,-16.04,1.952,3.979,37.7,-7.883,-8.058,-14.38,18.87,-25.74,37.23,-2.813,-6.275,2.055,-0.5286,1.071,-20.86,0,0,0,0,0,0,0,0,0,0,0,0,0,0,0,0,
328,-23.67,-3.872,2.671,3.571,-44.93,-7.837,7.249,58.54,-37.78,4.418,-12.14,-18.13,-9.842,-9.47,-8.437,-21.95,0,0,0,0,0,0,0,0,0,0,0,0,0,0,0,0,
329,-40,-18.59,22.19,-8.606,-28.75,-37.52,-8.582,44.02,-54.8,10.25,-29.85,-36.66,-16.13,-6.777,-27.15,-23.35,0,0,0,0,0,0,0,0,0,0,0,0,0,0,0,0,
330,-53.27,-29.95,4.036,13.1,-7.495,-48.15,-37.74,-7.019,-56.93,25.28,-51.5,-51.76,-26.3,-7.189,-40.34,-30.78,0,0,0,0,0,0,0,0,0,0,0,0,0,0,0,0,
331,-55.5,-47.6,-51.88,1.602,-29.5,-42.28,-35.02,-28.43,-48.6,-50.49,-58.03,-55.65,-55.48,-43.37,-43.4,-47.45,0,0,0,0,0,0,0,0,0,0,0,0,0,0,0,0,
332,-54.23,-69.76,-41.48,-44.88,-28.78,-37.5,-18.19,-25.88,-40.6,-116.2,-45.03,-40.77,-61.23,-62.36,-35.07,-48.4,0,0,0,0,0,0,0,0,0,0,0,0,0,0,0,0,
333,-24.47,-47.97,15.09,-32.47,14.51,9.625,12.35,6.824,-3.91,-22.99,-13.22,3.199,-18.83,-18.16,-1.216,-18.07,0,0,0,0,0,0,0,0,0,0,0,0,0,0,0,0,
334,28.73,0.4866,57.66,49.5,44.97,49.93,19.75,43.99,30.34,69.01,12.45,39.7,14.96,13.76,29.92,7.485,0,0,0,0,0,0,0,0,0,0,0,0,0,0,0,0,
335,44.83,11.95,65.72,96.93,51.24,25.55,-10.57,50.58,11.61,35.68,16.14,39.39,16.54,2.276,30.17,5.921,0,0,0,0,0,0,0,0,0,0,0,0,0,0,0,0,
336,25.75,6.719,17.59,63,29.69,3.481,0.6474,39.7,-12.34,7.065,15.22,23.48,9.954,-5.925,20.14,-7.037,0,0,0,0,0,0,0,0,0,0,0,0,0,0,0,0,
337,3.855,11.76,-34.77,-24.46,-9.466,0.5579,40.75,7.864,-12.32,16.12,3.905,0.8853,0.0518,-9.611,9.585,-14.23,0,0,0,0,0,0,0,0,0,0,0,0,0,0,0,0,
338,-22.06,11.07,-26.76,-66.23,-16.07,-15.93,28.18,-3.759,-20.04,8.546,-16.28,-17.33,-1.55,-10.05,-3.279,-5.278,0,0,0,0,0,0,0,0,0,0,0,0,0,0,0,0,
339,-28.36,11.16,12.78,3.536,2.839,-12.05,13.79,28.58,-22.63,-4.925,-14.4,-13.18,0.3996,-9.302,-9.969,-1.09,0,0,0,0,0,0,0,0,0,0,0,0,0,0,0,0,
340,-11.73,5.058,16.08,42.66,11.39,7.272,38.57,13.54,-10.57,-20.5,0.3282,-5.88,-9.489,-20.57,-9.152,-14.58,0,0,0,0,0,0,0,0,0,0,0,0,0,0,0,0,
341,-5.304,-9.755,-17.12,-0.567,13.19,5.927,23.8,-16.79,-1.261,-5.043,15.6,5.237,4.598,-4.594,12.66,0.2247,0,0,0,0,0,0,0,0,0,0,0,0,0,0,0,0,
342,9.555,4.121,2.394,28.93,10.05,11.82,-18.4,29.93,19.04,46.18,43.01,35.95,45.04,36.48,47.17,41.23,0,0,0,0,0,0,0,0,0,0,0,0,0,0,0,0,
343,35,27.39,62.4,76.72,12.94,23.4,-11.54,49.53,30.67,51.05,45.48,41.31,49.43,36.89,40.08,41.24,0,0,0,0,0,0,0,0,0,0,0,0,0,0,0,0,
344,17.87,13.31,37.82,8.14,14.48,-1.629,10.32,0.7436,-2.437,15.22,5.111,4.945,18.79,13.06,2.902,16.01,0,0,0,0,0,0,0,0,0,0,0,0,0,0,0,0,
345,-18.67,-4.823,-35.15,-71.27,-24.9,-25.36,24.81,-13.88,-23.76,9.598,-9.595,-6.078,6.038,15.41,7.246,23.51,0,0,0,0,0,0,0,0,0,0,0,0,0,0,0,0,
346,-11.75,2.381,-40.02,-57.4,-57.15,-7.275,40.52,-3.805,5.255,15.05,17.5,19.51,10.75,22.92,35.06,40.7,0,0,0,0,0,0,0,0,0,0,0,0,0,0,0,0,
347,8.463,-0.5134,3.759,16.62,-23.98,-5.335,-0.9775,3.896,13.28,-4.537,20.71,22.54,6.824,12.18,26.52,36.92,0,0,0,0,0,0,0,0,0,0,0,0,0,0,0,0,
348,3.896,-11.97,29.39,55.2,4.847,-25.65,-53.48,9.252,-14.47,-24.23,1.319,7.574,2.917,1.816,9.455,34.28,0,0,0,0,0,0,0,0,0,0,0,0,0,0,0,0,
349,7.99,7.044,0.2354,2.562,-6.054,-1.265,-14.68,-26.11,-12.42,-13.87,6.22,13.05,12.32,6.724,17.54,39.41,0,0,0,0,0,0,0,0,0,0,0,0,0,0,0,0,
350,23.34,30.25,-37.84,-22.34,0.6687,20.99,23.24,-33.73,1.997,15.6,16.19,18.38,14.75,13.44,16.08,33.61,0,0,0,0,0,0,0,0,0,0,0,0,0,0,0,0,
351,14.5,11.46,-0.4625,17.66,9.906,-14.41,-15.86,17.23,-11.35,26.17,6.866,5.08,-3.992,5.218,-0.9569,19.79,0,0,0,0,0,0,0,0,0,0,0,0,0,0,0,0,
352,1.056,-18.33,39.81,-15.12,-14.19,-25.1,-25.07,8.622,-9.093,14.59,4.322,-1.905,-17.13,-5.804,0.264,13.86,0,0,0,0,0,0,0,0,0,0,0,0,0,0,0,0,
353,9.767,-15.19,8.938,-46.14,-22.19,7.733,14.81,-18.85,17.69,12.76,10.36,-0.5783,-11.77,-8.919,2.271,11.14,0,0,0,0,0,0,0,0,0,0,0,0,0,0,0,0,
354,10.75,-4.217,0.6088,31.33,2.413,3.726,7.376,19.6,15.27,2.053,-1.002,-9.767,-13.24,-19.99,-17.23,2.654,0,0,0,0,0,0,0,0,0,0,0,0,0,0,0,0,
355,-8.215,-16.73,9.451,52.89,3.486,-15.9,-28.55,14.92,-3.444,-35.73,-8.975,-12.24,-16.88,-27.51,-18.7,3.525,0,0,0,0,0,0,0,0,0,0,0,0,0,0,0,0,
356,-6.23,-20.85,-40.67,-13.52,-17.23,0.701,-12.2,-22.18,10.79,-31.55,16.86,10.3,4.145,-5.269,7.2,16.69,0,0,0,0,0,0,0,0,0,0,0,0,0,0,0,0,
357,22.59,8.14,-47.05,-19.8,-9.149,14.76,20.06,7.17,35.83,24.55,41.92,28.96,28.59,21.42,14.73,20.65,0,0,0,0,0,0,0,0,0,0,0,0,0,0,0,0,
358,36.28,29.67,31.33,-9.893,16.49,10.87,11.01,2.018,37.45,49.43,36.3,29.29,36.41,32.92,11.28,24.2,0,0,0,0,0,0,0,0,0,0,0,0,0,0,0,0,
359,37.71,29.82,58.48,-33.53,22.6,23.47,17.28,-47.08,37.39,48.1,32.34,35.22,47.74,45.97,27.23,39.17,0,0,0,0,0,0,0,0,0,0,0,0,0,0,0,0,
360,45.76,36.12,35.79,0.7878,20.7,32.07,43.88,-6.833,40.01,50.78,39.94,38.63,56.05,48.69,39.62,45.02,0,0,0,0,0,0,0,0,0,0,0,0,0,0,0,0,
361,35.63,35.35,52.44,65.08,36.3,13.7,17.58,49.66,26.6,38.55,45.35,33.47,57.48,47.52,47.17,53.82,0,0,0,0,0,0,0,0,0,0,0,0,0,0,0,0,
362,22.99,30.38,53.38,69.24,54.97,10.63,-4.927,29.26,20.33,40.28,58.29,44.35,71.68,66.44,64.93,72.09,0,0,0,0,0,0,0,0,0,0,0,0,0,0,0,0,
363,34.21,41.7,7.325,42.51,40.17,19.78,21.81,11,21.93,39.23,53.75,41.69,61.2,54.23,55.26,49.43,0,0,0,0,0,0,0,0,0,0,0,0,0,0,0,0,
364,21.18,32.58,-4.685,15.88,6.485,-2.418,25.84,14.2,3.34,-5.914,23.43,11.01,19.72,6.956,28.83,10.06,0,0,0,0,0,0,0,0,0,0,0,0,0,0,0,0,
365,-7.817,14.34,15.39,-14.39,-1.69,-13.78,29.29,5.527,-6.588,-7.373,23.61,14.3,23.73,12.42,40.31,24.4,0,0,0,0,0,0,0,0,0,0,0,0,0,0,0,0,
366,7.666,32.29,8.631,-9.238,-0.1115,13.58,41.3,0.6401,1.157,47.41,38.18,38.92,52.13,41.55,49.08,42.08,0,0,0,0,0,0,0,0,0,0,0,0,0,0,0,0,
367,28.05,35.75,-3.309,25.08,-4.567,25.16,3.615,0.4872,-2.33,46.7,25.97,33.77,38.72,21.79,26.71,20.61,0,0,0,0,0,0,0,0,0,0,0,0,0,0,0,0,
368,23.22,11.96,2.26,25.49,4.548,25.93,-2.006,14.94,7.288,20.55,32.32,31.02,25.73,6.805,28.52,16.05,0,0,0,0,0,0,0,0,0,0,0,0,0,0,0,0,
369,23.32,12.24,3.028,15.25,-3.419,32.67,30.2,28.78,16.43,28.92,45.17,22.94,19.32,11.74,30.17,11.04,0,0,0,0,0,0,0,0,0,0,0,0,0,0,0,0,
370,-0.7264,3.026,0.9932,25.21,-39.18,-1.414,-7.043,-6.11,-19.18,7.823,9.347,-23.67,-21.6,-15.3,-12.01,-30.35,0,0,0,0,0,0,0,0,0,0,0,0,0,0,0,0,
371,-42.26,-24.26,2.992,-4.825,-47.71,-45.94,-18.71,-31.86,-44.31,-40.32,-27.71,-49.91,-49.66,-40.5,-40.2,-49.97,0,0,0,0,0,0,0,0,0,0,0,0,0,0,0,0,
372,-37.84,-22.08,-0.246,-49.92,-30.37,-37.93,28.06,5.065,-27.82,-41.87,-27.12,-33,-40.31,-32,-32.42,-40.42,0,0,0,0,0,0,0,0,0,0,0,0,0,0,0,0,
373,-16.26,-21.52,-1.891,-29.55,-17.18,-15.67,-6.985,23.22,-14.65,-3.19,-13.06,-14.58,-24.78,-15.57,-19.36,-38.96,0,0,0,0,0,0,0,0,0,0,0,0,0,0,0,0,
374,-10.37,-30.41,-2.788,3.273,1.419,-8.71,-49.01,3.066,-2.095,27.71,11.04,8.094,0.5732,2.901,0.8277,-30.48,0,0,0,0,0,0,0,0,0,0,0,0,0,0,0,0,
375,10.13,-7.855,-15.04,12.02,18.95,5.033,-8.02,19.58,7.161,29.61,31.39,27.88,20.66,11.93,15.66,-19.78,0,0,0,0,0,0,0,0,0,0,0,0,0,0,0,0,
376,29.02,15.63,-12.76,34.81,19.83,15.54,13.81,54.75,0.0218,21,33.09,24.66,26.93,11.74,18.66,-12.7,0,0,0,0,0,0,0,0,0,0,0,0,0,0,0,0,
377,25.69,25.56,25.16,29.11,-0.1185,14.04,24.52,48.42,10.69,23.22,26.81,13.77,41.5,21.96,18.05,0.963,0,0,0,0,0,0,0,0,0,0,0,0,0,0,0,0,
378,15.9,39.79,48.49,-2.188,-25.63,10.96,54.15,23.71,21.38,9.403,8.029,-5.284,35.8,16.31,-1.273,-10.46,0,0,0,0,0,0,0,0,0,0,0,0,0,0,0,0,
379,-0.9634,27.78,40.94,24.38,-2.815,1.054,30.85,23.52,4.735,-16.39,-5.426,-20.92,11.96,-3.73,-9.03,-32.51,0,0,0,0,0,0,0,0,0,0,0,0,0,0,0,0,
380,-8.928,2.801,56.22,50.73,53.58,-9.36,3.52,33.35,3.995,-6.606,10.07,-5.114,16.99,1.841,19.66,-20.99,0,0,0,0,0,0,0,0,0,0,0,0,0,0,0,0,
381,5.44,8.671,37.64,-6.553,49.78,3.095,35.89,20.27,11.87,14.6,28.2,20.41,27.2,14.88,37.68,-3.63,0,0,0,0,0,0,0,0,0,0,0,0,0,0,0,0,
382,24,26.01,-51.68,-46.81,6.251,33.37,66.44,3.455,2.709,23.15,44.77,43.43,30.53,26.82,46.81,11.48,0,0,0,0,0,0,0,0,0,0,0,0,0,0,0,0,
383,45.68,39.65,-38.88,3.771,11.51,38.57,60.93,21.76,14.28,49.26,67.8,66.17,49.04,49.79,73.02,37.16,0,0,0,0,0,0,0,0,0,0,0,0,0,0,0,0,
384,49.78,46.02,59.12,39.62,20.52,6.5,25.02,43.01,29.96,59.44,66.94,56.68,48.95,51.16,82.71,41.27,0,0,0,0,0,0,0,0,0,0,0,0,0,0,0,0,
385,15.96,28.12,19.21,8.748,-18.93,-12.45,-23.19,18.81,9.83,31.58,43.22,23.21,21.33,34.58,64.47,26.07,0,0,0,0,0,0,0,0,0,0,0,0,0,0,0,0,
386,-10.41,2.596,-47.93,-19.52,-24.39,-6.874,-36.45,-15.81,-8.588,12.92,17.96,-1.621,-4.561,23.5,38,8.679,0,0,0,0,0,0,0,0,0,0,0,0,0,0,0,0,
387,-14.66,-18.26,-5.923,-43.41,16.56,-12.86,-21.77,-22.29,-10.4,-13.39,0.0808,-17.39,-27.15,1.019,22.08,-16.91,0,0,0,0,0,0,0,0,0,0,0,0,0,0,0,0,
388,-18.64,-32.41,-35.2,-68.06,6.99,-16.9,-17.86,-23.44,-19.58,-45.84,4.963,-14.44,-31.02,-10.05,21.74,-29.42,0,0,0,0,0,0,0,0,0,0,0,0,0,0,0,0,
389,-12.58,-21.43,-99.58,-40.9,-27.55,-21,-19.97,-30.96,-26.34,-23.56,-1.349,-10.59,-18.76,5.359,-1.429,-30.95,0,0,0,0,0,0,0,0,0,0,0,0,0,0,0,0,
390,-19.91,-7.425,-22.02,-3.668,-12.43,-50.23,-15.86,-33.41,-24.49,10.67,-36.03,-27.25,-15.86,8.543,-29.64,-36.84,0,0,0,0,0,0,0,0,0,0,0,0,0,0,0,0,
391,-42.07,-3.789,54.48,0.9095,10.35,-44.53,-4.426,-21.78,-16.05,13.17,-28.19,-19.33,-1.863,9.189,-5.698,-25.47,0,0,0,0,0,0,0,0,0,0,0,0,0,0,0,0,
392,-23.34,11.86,15.9,7.795,6.052,2.947,-3.906,2.037,-3.617,16.78,9.714,1.949,11.02,14.7,13.83,-18.49,0,0,0,0,0,0,0,0,0,0,0,0,0,0,0,0,
393,-0.947,5.681,-19.89,-15.43,-7.232,-5.903,-35.37,7.662,-7.553,8.316,3.22,-17.7,-9.486,-0.0546,-8.136,-36.61,0,0,0,0,0,0,0,0,0,0,0,0,0,0,0,0,
394,-21.35,-21.69,-8.107,-48.2,-20.82,-35.49,-49.95,1.115,-13.56,4.316,-8.062,-35.21,-15.9,-1.152,-10.52,-39.34,0,0,0,0,0,0,0,0,0,0,0,0,0,0,0,0,
395,-25.67,-7.147,-10.25,-10.26,-14.97,-2.131,-10.47,11.65,-3.912,20.28,-1.975,-32.62,-6.17,6.729,-14.82,-41.62,0,0,0,0,0,0,0,0,0,0,0,0,0,0,0,0,
396,-16.93,2.498,-35.8,10.96,1.069,8.428,5.445,-4.1,-10.76,-18,-21.86,-50.51,-32.26,-27.77,-45.31,-65.36,0,0,0,0,0,0,0,0,0,0,0,0,0,0,0,0,
397,-36.32,-37.55,-18.95,-36.25,-0.2991,-43.92,-27.51,-46.92,-23.49,-65.42,-23.43,-46.55,-42.98,-45.81,-31.54,-54.82,0,0,0,0,0,0,0,0,0,0,0,0,0,0,0,0,
398,-33.15,-38.23,23.62,-47.05,-5.816,-51.47,-17.83,-43.8,-6.503,-24.42,13.55,-5.002,-7.11,-6.63,2.419,-19.27,0,0,0,0,0,0,0,0,0,0,0,0,0,0,0,0,
399,-2.352,6.929,-5.192,-26.73,-13.57,-8.726,19.15,-21.78,4.975,24.43,14.7,1.843,-1.309,10.25,-18.01,-19.77,0,0,0,0,0,0,0,0,0,0,0,0,0,0,0,0,
400,-2.344,5.071,-45.54,-25.39,-23.39,4.143,-6.136,-27.57,-10.05,14.63,-13.58,-22.37,-31.77,-11.5,-45.51,-34.38,0,0,0,0,0,0,0,0,0,0,0,0,0,0,0,0,
401,-16.55,-26.41,-15.37,-3.815,-11.68,-4.484,-45.93,-14.17,-18.58,5.175,-18.14,-27.81,-38.97,-16.48,-37.87,-33.98,0,0,0,0,0,0,0,0,0,0,0,0,0,0,0,0,
402,-12.55,-23.6,6.848,24.12,9.655,-5.66,-33.8,20.39,-17.3,25.48,-11.08,-19.7,-21.49,0.1821,-23.22,-25.53,0,0,0,0,0,0,0,0,0,0,0,0,0,0,0,0,
403,-1.592,-1.798,3.56,6.59,12.77,-4.851,-5.702,12.6,-16.79,32.88,4.655,-3.852,-2.919,13,0.6172,-3.213,0,0,0,0,0,0,0,0,0,0,0,0,0,0,0,0,
404,9.428,6.766,11.24,-37.2,-3.369,-3.311,13.37,-36.2,-6.798,-13.97,30.82,15.28,3.239,6.031,26.19,14.21,0,0,0,0,0,0,0,0,0,0,0,0,0,0,0,0,
405,10.46,1.481,-0.1222,-48.06,-20.09,-16.02,10.95,-49.16,4.952,-53.74,29.91,13.92,-6.001,-6.02,18.34,5.668,0,0,0,0,0,0,0,0,0,0,0,0,0,0,0,0,
406,-1.805,-11.25,-4.739,-14.26,-22.81,-33.77,-27.58,-8.565,-2.525,-19.27,7.297,1.014,-14.6,0.7029,-4.432,-3.01,0,0,0,0,0,0,0,0,0,0,0,0,0,0,0,0,
407,0.6371,-20.61,9.573,9.412,-16.44,-11.5,-47.25,-2.627,-11.15,21.44,9.258,6.811,-8.731,14.86,-2.537,6.551,0,0,0,0,0,0,0,0,0,0,0,0,0,0,0,0,
408,28.21,-5.65,-17.61,0.1093,2.932,30.24,-12.58,-42.86,8.715,21.06,30.49,26.72,8.469,22.37,17.71,18.51,0,0,0,0,0,0,0,0,0,0,0,0,0,0,0,0,
409,48.77,22.25,-49.73,-24.25,16.66,37.55,25.23,-43.45,26.28,3.591,35.27,30.42,14.71,18.66,25.59,13.82,0,0,0,0,0,0,0,0,0,0,0,0,0,0,0,0,
410,37.96,22.34,-11.86,-51.64,-3.829,20.56,37.68,-18.97,11.31,-16.83,23.66,13.08,5.304,10.29,13,0.2824,0,0,0,0,0,0,0,0,0,0,0,0,0,0,0,0,
411,13.75,6.871,42.07,-40.32,-9.613,0.3852,28.01,-21.11,-0.6339,-3.877,11.92,-1.274,6.467,17.71,-0.1834,-0.6228,0,0,0,0,0,0,0,0,0,0,0,0,0,0,0,0,
412,-1.446,4.136,27.14,5.084,10.02,-22.03,-16.6,-12.47,0.8624,11.37,-1.901,-9.343,9.277,20.05,-7.245,-1.156,0,0,0,0,0,0,0,0,0,0,0,0,0,0,0,0,
413,-12.4,-4.994,-12.64,23.57,-4.908,-33.39,-62.73,18.53,-9.947,-13.36,-14,-19.55,0.346,8.553,-13.37,-7.714,0,0,0,0,0,0,0,0,0,0,0,0,0,0,0,0,
414,-18.35,-10.26,-3.967,19.34,-25.24,-30.68,-51.47,20.03,-19.73,0.8871,-8.942,-19.18,3.906,20.92,-10.56,0.4284,0,0,0,0,0,0,0,0,0,0,0,0,0,0,0,0,
415,-12.43,5.296,-7.741,-5.23,-31.2,-15.31,-4.37,-17.73,-17.33,37.41,4.551,-9.335,7.698,31.71,-5.013,7.095,0,0,0,0,0,0,0,0,0,0,0,0,0,0,0,0,
416,-8.693,4.855,-59.51,-56.52,-56.74,3.071,18.68,-52.83,-12.62,5.989,4.57,-8.211,-5.766,8.648,-12.2,-3.024,0,0,0,0,0,0,0,0,0,0,0,0,0,0,0,0,
417,-14.88,-9.263,-56.21,-73.72,-49.78,-13.53,9.315,-65.17,-7.482,-30.47,-9.742,-14.79,-14.55,-10.65,-28.11,-12.08,0,0,0,0,0,0,0,0,0,0,0,0,0,0,0,0,
418,-20.71,-13.46,0.7665,-44.72,-5.89,-44.76,-17.74,-57.26,-13.74,-26.99,-19.62,-17.32,-20.54,-15.84,-37.39,-16.94,0,0,0,0,0,0,0,0,0,0,0,0,0,0,0,0,
419,-15.86,-27.25,9.339,-2.157,3.191,-28.28,-45.9,-26.92,-21.9,-29.23,-4.82,-5.758,-21.68,-15.12,-21.56,-8.289,0,0,0,0,0,0,0,0,0,0,0,0,0,0,0,0,
420,4.288,-33.11,3.517,39.11,9.307,2.954,-47.38,-5.2,-4.343,-33.23,22.15,13.82,-6.27,-4.835,5.202,10.62,0,0,0,0,0,0,0,0,0,0,0,0,0,0,0,0,
421,21.01,-11.05,25.14,29.81,26.19,4.436,-24.56,-8.642,17.81,-24.43,28.55,21.57,3.025,-0.5856,7.605,10.37,0,0,0,0,0,0,0,0,0,0,0,0,0,0,0,0,
422,19.61,2.572,6.056,-9.546,-4.093,15.81,-3.766,-0.8303,23.2,-3.439,26.61,26.56,12.75,8.622,4.276,12.81,0,0,0,0,0,0,0,0,0,0,0,0,0,0,0,0,
423,22.64,8.109,-33.1,-4.308,-37.18,34.84,8.257,1.125,29.74,11.39,35.82,37.02,31.66,24.31,14.55,30.32,0,0,0,0,0,0,0,0,0,0,0,0,0,0,0,0,
424,28.52,21.92,-4.711,5.939,-22.31,22.89,9.737,-19.9,30.82,-3.425,29.43,27.37,22.55,16.33,9.728,22.99,0,0,0,0,0,0,0,0,0,0,0,0,0,0,0,0,
425,13.35,20.52,46.42,-15.13,-5.035,11.89,12.09,-18.35,13.83,-5.288,10.66,6.299,2.649,10.38,-1.79,10.51,0,0,0,0,0,0,0,0,0,0,0,0,0,0,0,0,
426,2.172,9.011,38.7,-26.06,7.659,23.15,29.2,-13.05,0.6215,12.55,10.52,3.439,6.593,18.66,-0.9209,16.71,0,0,0,0,0,0,0,0,0,0,0,0,0,0,0,0,
427,8.221,1.548,1.845,-22.1,26.16,23.98,21.26,-21.23,-0.9298,-3.15,7.411,2.857,3.012,4.211,-12.15,3.406,0,0,0,0,0,0,0,0,0,0,0,0,0,0,0,0,
428,-0.0245,-10.09,-5.411,1.833,11.19,12.52,-21.18,-5.532,-1.56,-20.11,-8.279,-3.976,-7.385,-7.35,-23.52,-14.22,0,0,0,0,0,0,0,0,0,0,0,0,0,0,0,0,
429,-13.52,-7.971,16.06,42.05,-25.66,3.887,-24.98,-2.484,-2.167,-6.012,-6.493,-1.806,3.48,5.495,-9.221,-3.663,0,0,0,0,0,0,0,0,0,0,0,0,0,0,0,0,
430,-10.22,10.3,26.3,34.88,-43.29,-3.568,11.03,-19.07,-3.63,-0.2995,3.155,4.31,14.29,9.321,4.846,4.961,0,0,0,0,0,0,0,0,0,0,0,0,0,0,0,0,
431,0.0033,21.46,20.3,-6.523,-38.62,4.286,25.14,-0.9059,4.074,-0.4446,8.629,16.94,20.19,16.24,12.39,8.777,0,0,0,0,0,0,0,0,0,0,0,0,0,0,0,0,
432,18,33.29,29.1,-5.775,-3.995,26.25,31.8,5.368,19.4,4.386,18.87,31.42,31.74,31.11,25.11,19.66,0,0,0,0,0,0,0,0,0,0,0,0,0,0,0,0,
433,24.68,33.79,11.82,11.11,14.23,25.93,30.64,-26.05,6.193,-1.431,18.28,19.58,23.25,16.07,22.13,11.58,0,0,0,0,0,0,0,0,0,0,0,0,0,0,0,0,
434,-2.575,-1.595,-49.42,6.585,-42.66,5.053,-20.44,-25.09,-23.18,-10.63,9.635,-3.833,-9.267,-15.95,2.122,-11.71,0,0,0,0,0,0,0,0,0,0,0,0,0,0,0,0,
435,-24.79,-37.2,-46.98,7.998,-83.26,-8.573,-65.62,-8.437,-23.86,-46.99,0.6713,-16.02,-39.05,-44.14,-20.36,-32.62,0,0,0,0,0,0,0,0,0,0,0,0,0,0,0,0,
436,-27.22,-42.06,3.655,-17.76,-39.58,-25.16,-35.31,-33.41,-20.01,-107.1,-22.49,-30.48,-44.29,-63.19,-38.21,-45.63,0,0,0,0,0,0,0,0,0,0,0,0,0,0,0,0,
437,-31.9,-22.08,-6.376,-68.77,-9.799,-35.87,20.71,-44.38,-22,-88.86,-27.71,-31.15,-12.11,-38.4,-25.35,-26.03,0,0,0,0,0,0,0,0,0,0,0,0,0,0,0,0,
438,-17.41,12.53,-0.5254,-30.14,-22.07,-8.099,25.57,8.374,6.58,2.961,-0.0723,-4.51,23.89,4.931,7.016,6.657,0,0,0,0,0,0,0,0,0,0,0,0,0,0,0,0,
439,8.848,19.59,48.17,57.65,-7.279,20.73,-22.45,31.09,31.09,31.74,14.82,15.43,24.22,7.216,16.82,11.7,0,0,0,0,0,0,0,0,0,0,0,0,0,0,0,0,
440,7.832,-11.61,23.39,39.41,18.3,6.104,-55.81,-26,16.13,-0.9059,20.3,17.31,15.04,0.3335,17.83,15.74,0,0,0,0,0,0,0,0,0,0,0,0,0,0,0,0,
441,-0.6643,-21.56,-15.71,-22.84,14.58,-10.71,-29.55,-30.46,2.997,-0.5423,25.53,9.761,13.12,8.749,17.25,22.44,0,0,0,0,0,0,0,0,0,0,0,0,0,0,0,0,
442,-0.9869,-2.559,-4.521,-7.423,-3.62,5.26,8.728,33.68,-4.121,10.18,1.774,-6.81,0.8544,-2.612,-6.548,1.201,0,0,0,0,0,0,0,0,0,0,0,0,0,0,0,0,
443,-6.92,10.94,-37.91,16.71,-28.63,23.35,22.55,12.98,-23.28,-9.113,-18.87,-12.1,-5.338,-18.49,-19.81,-12.62,0,0,0,0,0,0,0,0,0,0,0,0,0,0,0,0,
444,-5.531,24.36,-69.62,-9.975,-58.52,18.05,35.98,-40.72,-23.13,-19.16,-4.392,1.206,1.858,-16.8,-2.638,-2.259,0,0,0,0,0,0,0,0,0,0,0,0,0,0,0,0,
445,1.347,25.1,-4.139,-19.36,-60.27,-1.123,29.32,0.4109,-5.214,-6.887,2.72,9.473,-3.791,-21.46,0.4411,-8.596,0,0,0,0,0,0,0,0,0,0,0,0,0,0,0,0,
446,-1.954,0.8755,64.35,25.6,-12.84,-14.24,-16.76,44.12,0.0743,3.059,-11.99,6.141,-15.85,-26.52,-14.38,-21.36,0,0,0,0,0,0,0,0,0,0,0,0,0,0,0,0,
447,0.0241,-6.967,55.11,71.35,35.46,-8.558,-38.31,30.37,2.841,10.2,-16.84,3.208,-14.94,-18.08,-13.38,-16.84,0,0,0,0,0,0,0,0,0,0,0,0,0,0,0,0,
448,6.81,4.912,13.6,48.71,28.58,5.295,-1.608,15.14,2.663,8.91,-10.52,4.795,-12.34,-19.02,-5.724,-17.34,0,0,0,0,0,0,0,0,0,0,0,0,0,0,0,0,
449,-3.166,0.132,-6.706,-16.22,-5.004,3.196,28.98,-6.351,-10.73,-4.718,-11.33,6.269,-11.12,-24.16,-7.836,-18.42,0,0,0,0,0,0,0,0,0,0,0,0,0,0,0,0,
450,-17.29,-6.725,-13.54,-15.31,-19.52,-6.899,4.717,-16.35,-15.98,-4.417,-12,6.962,3.413,-7.151,-4.743,1.812,0,0,0,0,0,0,0,0,0,0,0,0,0,0,0,0,
451,-11.29,2.502,-40.2,24,-23.05,5.764,-23.12,1.44,-13.29,-3.947,-0.8543,11.67,17.98,6.229,2.529,13.34,0,0,0,0,0,0,0,0,0,0,0,0,0,0,0,0,
452,5.068,5.622,-30.48,-12.27,-21.31,19.15,-7.83,-4.442,-15.46,-33.86,0.0393,10.9,6.909,-10.24,-7.301,-7.407,0,0,0,0,0,0,0,0,0,0,0,0,0,0,0,0,
453,6.31,-5.317,47.98,-39.66,-16.62,-3.23,-0.8538,-7.205,-7.345,-41.59,-18.34,-3.589,-13.85,-21.73,-22.79,-23.44,0,0,0,0,0,0,0,0,0,0,0,0,0,0,0,0,
454,-6.368,-14.1,73.22,27.61,-20.15,-17.09,-11.86,31.23,3.635,0.3772,-22.43,-13.37,-17.08,-10.76,-22.33,-14.94,0,0,0,0,0,0,0,0,0,0,0,0,0,0,0,0,
455,-11.05,-10.02,18.46,52.27,-7.485,6.331,13.88,48.94,-0.0356,24.29,-10.49,-10.54,-12.55,-5.777,-14.36,-6.234,0,0,0,0,0,0,0,0,0,0,0,0,0,0,0,0,
456,-9.856,-3.676,-10.88,8.525,15.27,6.832,28.23,12,-5.451,15.04,-14.18,-10.79,-15.29,-11.64,-8.929,-4.012,0,0,0,0,0,0,0,0,0,0,0,0,0,0,0,0,
457,-16.75,-11.16,-9.495,11.18,-4.33,-20.55,-6.565,-41.02,-10.04,6.737,-26.67,-11.37,-20.15,-18.33,-10.61,-4.991,0,0,0,0,0,0,0,0,0,0,0,0,0,0,0,0,
458,-15.39,-13.77,10.9,26.7,-24.48,-12.39,-17.23,-40.43,-12.09,0.2018,-23.93,-0.9623,-16.47,-20.02,-17.13,-8.284,0,0,0,0,0,0,0,0,0,0,0,0,0,0,0,0,
459,4.465,6.627,60.16,30.35,20.91,17.28,0.5391,32.84,1.608,8.269,-7.941,9.142,-2.14,-7.203,-10.19,-1.859,0,0,0,0,0,0,0,0,0,0,0,0,0,0,0,0,
460,14.12,19.09,72.95,56.45,57.2,12.52,3.332,71.1,9.386,16.4,3.534,7.399,3.453,-3.8,-0.8052,1.144,0,0,0,0,0,0,0,0,0,0,0,0,0,0,0,0,
461,-0.9049,3.619,29.8,40.23,16.44,-11.83,-1.678,27.93,-7.396,-7.595,-6.537,-2.165,-10.28,-23.85,-12.37,-11.57,0,0,0,0,0,0,0,0,0,0,0,0,0,0,0,0,
462,-20.08,-17.65,-34.51,-5.948,-31.01,-13.87,-11.56,-2.891,-22.43,-13.68,-31.4,-14.34,-18.45,-26.64,-23.71,-14.08,0,0,0,0,0,0,0,0,0,0,0,0,0,0,0,0,
463,-29.52,-28.01,-83.98,-5.443,-34.34,-7.12,-3.228,-5.984,-22.15,19.52,-42.53,-20.15,-6.726,-6.245,-16.73,-4.598,0,0,0,0,0,0,0,0,0,0,0,0,0,0,0,0,
464,-26.18,-21.66,-39.34,-12.96,-30.92,-16.85,18.67,-13.17,-22.59,27.64,-34.08,-9.945,7.391,3.198,-5.939,-1.528,0,0,0,0,0,0,0,0,0,0,0,0,0,0,0,0,
465,-11.87,-5.044,46.92,-47.22,-38.71,-19.71,-5.857,9.802,-27.6,3.93,-32.17,0.7689,6.557,-0.5836,-6.832,-3.243,0,0,0,0,0,0,0,0,0,0,0,0,0,0,0,0,
466,-8.227,-0.9943,35.15,-32.87,-35.21,-9.26,-39.56,36.01,-26.53,-2.516,-45.05,-5.235,-1.989,-3.943,-18.68,-10.49,0,0,0,0,0,0,0,0,0,0,0,0,0,0,0,0,
467,-16.49,-1.292,-2.667,23.58,-12.22,-4.387,-21.66,22.58,-17.09,20.34,-42.38,-2.168,6.785,5.767,-13.42,-11.21,0,0,0,0,0,0,0,0,0,0,0,0,0,0,0,0,
468,0.4689,17.52,7.691,58.46,1.786,17.56,10.17,16.81,-9.233,31.35,-17.24,24.03,22.27,18.24,9.575,-0.2355,0,0,0,0,0,0,0,0,0,0,0,0,0,0,0,0,
469,28.22,28.48,-21.35,39.32,-15,37.9,27.24,15.89,-9.015,0.2286,-7.845,31.33,12.2,6.26,12.04,-2.822,0,0,0,0,0,0,0,0,0,0,0,0,0,0,0,0,
470,14.11,7.165,-43.81,-3.88,-22.17,4.67,13.43,-18.17,-9.308,-13.68,-14.11,14.76,1.896,-0.6296,12.61,-0.1896,0,0,0,0,0,0,0,0,0,0,0,0,0,0,0,0,
471,-9.291,-8.342,15.74,-5.268,1.788,-21.96,-24.58,-30.9,-1.987,23.66,-1.673,20.21,17.99,22.63,35.57,29.74,0,0,0,0,0,0,0,0,0,0,0,0,0,0,0,0,
472,7.023,3.949,45.55,17.3,-0.9923,7.636,-16.53,-6.076,7.643,38.74,9.463,34.79,24.42,29.19,36.33,39.82,0,0,0,0,0,0,0,0,0,0,0,0,0,0,0,0,
473,22.46,12.73,6.61,-0.7059,-22.7,27.5,18.75,-2.086,8.349,19.38,-2.231,24.47,10.28,15.25,14.62,23.91,0,0,0,0,0,0,0,0,0,0,0,0,0,0,0,0,
474,14.78,10.05,-16.41,-26.67,7.238,22.7,14.31,0.2829,2.073,21.38,-4.194,14.35,4.681,20.68,12.15,26.05,0,0,0,0,0,0,0,0,0,0,0,0,0,0,0,0,
475,15.27,12.03,-21.98,-5.097,42.58,24.21,5.987,26.7,-1.954,25.98,3.177,15.9,2.065,22.77,11.25,26.51,0,0,0,0,0,0,0,0,0,0,0,0,0,0,0,0,
476,14.82,7.819,-27.66,20.72,21.05,15.64,7.453,25.65,-0.5918,6.578,-4.366,10.11,-9.172,2.782,4.446,5.545,0,0,0,0,0,0,0,0,0,0,0,0,0,0,0,0,
477,1.372,-4.085,-7.378,4.705,-5.294,5.4,1.443,-2.587,6.656,-0.7544,-5.306,8.585,-10.31,-0.0554,16.2,1.509,0,0,0,0,0,0,0,0,0,0,0,0,0,0,0,0,
478,-1.019,-1.016,29.63,0.1639,-12.68,11.88,15.12,-0.1047,11.34,22.79,2.235,15.91,2.435,19.5,21.03,14.23,0,0,0,0,0,0,0,0,0,0,0,0,0,0,0,0,
479,9.029,9.781,49.57,46.2,-12.37,17.01,15.05,28.85,6.723,46.88,-5.01,13.85,9.576,24.88,0.6979,10.8,0,0,0,0,0,0,0,0,0,0,0,0,0,0,0,0,
480,14.77,10.61,39.38,67.49,20.63,18.16,-7.298,30.01,8.12,48.41,-5.097,9.637,8.22,17.35,-7.83,3.769,0,0,0,0,0,0,0,0,0,0,0,0,0,0,0,0,
481,13.77,12.87,10.19,14.7,39.13,25,21,0.9828,16.8,35.68,9.492,11.04,5.093,14.45,-0.1358,3.957,0,0,0,0,0,0,0,0,0,0,0,0,0,0,0,0,
482,10.64,16.4,-16.44,-20.87,-5.286,35.03,51.17,2.753,11.29,17.36,11.49,8.092,-2.945,5.201,-4.922,-4.81,0,0,0,0,0,0,0,0,0,0,0,0,0,0,0,0,
483,13.19,8.322,-14.18,28.84,-27.17,36.2,16.64,30.35,4.265,3.431,13.83,9.745,-5.509,-3.794,-11.27,-7.99,0,0,0,0,0,0,0,0,0,0,0,0,0,0,0,0,
484,22.72,2.244,24.56,66.85,7.274,22.31,-1.849,14.22,19.38,6.261,25.8,21.56,9.594,7.466,-2.179,10.76,0,0,0,0,0,0,0,0,0,0,0,0,0,0,0,0,
485,26.86,3.998,41.64,17.22,11.76,13.34,16.06,-12.1,33.47,8.661,23.85,24.9,22.99,18.63,9.179,28.76,0,0,0,0,0,0,0,0,0,0,0,0,0,0,0,0,
486,17.99,-1.303,8.106,-15.74,-5.659,12.96,11.11,14.45,24.83,0.2143,20.49,21.02,20.17,13.47,13.26,29.51,0,0,0,0,0,0,0,0,0,0,0,0,0,0,0,0,
487,9.912,-6.823,-7.783,33.74,16.45,14.88,0.0787,47.18,12.95,5.043,23.38,19.76,13.34,10.34,4.934,16.71,0,0,0,0,0,0,0,0,0,0,0,0,0,0,0,0,
488,13.03,-3.243,-6.388,51.7,24.67,30.59,-1.627,37.91,8.53,26.08,7.09,8.148,8.116,13.19,-11.06,3.047,0,0,0,0,0,0,0,0,0,0,0,0,0,0,0,0,
489,6.853,-0.3617,-24.32,-10.19,-16.18,23.93,3.405,-9.862,-2.356,38.21,-6.754,-7.025,3.572,12.29,-10.71,6.375,0,0,0,0,0,0,0,0,0,0,0,0,0,0,0,0,
490,-13.6,-1.461,-0.5578,-35.61,-42.04,-15.07,23.13,-51.84,-16.92,28.75,0.5352,-8.055,0.4362,8.65,-7.307,15.02,0,0,0,0,0,0,0,0,0,0,0,0,0,0,0,0,
491,-19.11,-7.4,32.93,19.96,-39.6,-10.63,10.16,-17.44,-13.75,10.19,-5.454,-8.977,-2.027,8.44,-23.3,10.11,0,0,0,0,0,0,0,0,0,0,0,0,0,0,0,0,
492,-10.26,-14.42,-1.534,54.46,-28.8,16.16,-36.29,39.51,3.045,2.626,-9.745,-7.693,3.813,15.87,-17.8,10.29,0,0,0,0,0,0,0,0,0,0,0,0,0,0,0,0,
493,-4.32,-6.797,-10.55,27.65,2.681,-3.543,-36.28,22.65,7.519,2.228,15.62,12,16.2,21.29,15.35,20.48,0,0,0,0,0,0,0,0,0,0,0,0,0,0,0,0,
494,8.711,10.49,13.59,24.12,25.25,-5.743,2.489,-5.104,8.117,1.192,28.29,28.06,22.26,20.09,20.02,20.98,0,0,0,0,0,0,0,0,0,0,0,0,0,0,0,0,
495,26.27,25.67,-8.459,45.21,29.12,33.1,30.64,8.896,24.39,15.4,21.05,29.85,29.98,30.47,11.97,24.49,0,0,0,0,0,0,0,0,0,0,0,0,0,0,0,0,
496,30.38,41.76,26.43,9.272,45.64,34.21,54.46,17.78,27.86,37.83,21.03,28.15,37.7,44.47,21.96,35,0,0,0,0,0,0,0,0,0,0,0,0,0,0,0,0,
497,24.71,43.5,94.18,-16.41,31.04,21.4,57.92,22.33,5.594,33.54,6.528,17.05,25.79,33.62,12.61,26.69,0,0,0,0,0,0,0,0,0,0,0,0,0,0,0,0,
498,25.4,31.96,39.45,44.74,-6.085,50,43.99,23.12,-0.5959,13.36,-7.536,15.91,19.73,19.27,-4.649,19.26,0,0,0,0,0,0,0,0,0,0,0,0,0,0,0,0,
499,38.68,42.55,-2.46,69.16,24.88,68.29,60.81,7.788,14.81,16.3,13.53,35.26,39.94,27.13,5.534,35.49,0,0,0,0,0,0,0,0,0,0,0,0,0,0,0,0,
500,44.89,55.18,57.33,24.63,59.81,47.95,66.17,19.29,19.03,24.26,26.45,33.29,39.69,26.52,9.349,36.99,0,0,0,0,0,0,0,0,0,0,0,0,0,0,0,0,
501,28.07,27.71,55.72,54.87,23.73,31.29,4.441,49.41,13.08,7.892,9.764,10.66,9.359,4.682,1.039,16.39,0,0,0,0,0,0,0,0,0,0,0,0,0,0,0,0,
502,11.96,-1.52,27.63,103.7,13.91,25.35,-35.98,43.31,7.191,-0.4228,3.537,6.193,-0.5118,-6.456,10.39,13.54,0,0,0,0,0,0,0,0,0,0,0,0,0,0,0,0,
503,17.08,10.74,64.57,38.56,42.21,26.7,19.31,22.21,4.966,19.11,18.77,18.39,14.5,2.756,25.93,26.87,0,0,0,0,0,0,0,0,0,0,0,0,0,0,0,0,
504,33.94,34.98,53.94,-9.817,31.92,50.74,78.44,23.68,15.09,30.27,38.23,32.5,22.8,12.88,34.72,29.82,0,0,0,0,0,0,0,0,0,0,0,0,0,0,0,0,
505,38.86,31.47,-2.8,35.09,18.19,58.21,52.41,25.22,19.16,15.44,34.13,27.51,12.56,5.05,25.76,13.26,0,0,0,0,0,0,0,0,0,0,0,0,0,0,0,0,
506,13.53,5.994,2.745,37.66,9.508,22.98,0.0261,6.836,3.845,3.036,2.556,-2.817,-4.085,-9.707,-6.678,-9.194,0,0,0,0,0,0,0,0,0,0,0,0,0,0,0,0,
507,-12.66,-5.673,29.88,10.89,-24.91,8.391,-4.59,-4.977,-3.879,10.75,-12.93,-19.31,-6.943,-4.827,-26.49,-14.09,0,0,0,0,0,0,0,0,0,0,0,0,0,0,0,0,
508,-9.861,1.761,12.22,18.81,-22.5,22.84,9.455,5.468,2.499,2.814,-9.582,-17.97,-9.41,-3.78,-22.07,-13.99,0,0,0,0,0,0,0,0,0,0,0,0,0,0,0,0,
509,-7.165,0.3757,-5.467,0.4602,17.24,10.02,2.429,16.63,3.919,-29.21,-18.4,-23.59,-22.2,-23.77,-21.87,-24.65,0,0,0,0,0,0,0,0,0,0,0,0,0,0,0,0,
510,-13.5,-3.408,23.57,-5.831,7.986,-0.6523,-3.299,24.22,-4.262,-14.78,-27.06,-20.31,-13.97,-18.85,-27.8,-22.97,0,0,0,0,0,0,0,0,0,0,0,0,0,0,0,0,
511,-7.759,9.847,35.25,15.44,-20.42,23.71,18.7,25.98,-17.38,41.43,-23.68,-5.469,12.6,12.19,-21.01,-4.618,0,0,0,0,0,0,0,0,0,0,0,0,0,0,0,0,
512,0.8921,27.34,-10.81,-18.96,5.194,33,46.07,-1.087,-17.68,50.96,-14.07,5.111,26.64,25.92,3.766,11.83,0,0,0,0,0,0,0,0,0,0,0,0,0,0,0,0,
513,8.714,32.98,-13.82,-28.89,36.35,11.22,29.52,-29.88,-7.698,26.79,-1.013,15.19,28.97,26.88,20.63,19.28,0,0,0,0,0,0,0,0,0,0,0,0,0,0,0,0,
514,17.89,17.71,32.14,26.96,16.07,-2.593,-18.01,-11.03,-16.1,19.91,8.105,21.26,22.64,27.45,13.75,15.35,0,0,0,0,0,0,0,0,0,0,0,0,0,0,0,0,
515,18.56,-2.818,18.28,41.65,-7.549,5.338,-26.95,30.19,-20.53,12.42,16.85,21.29,13.54,23.87,8.926,6.755,0,0,0,0,0,0,0,0,0,0,0,0,0,0,0,0,
516,15.65,4.772,-7.66,37.33,0.7306,20.57,1.724,36.01,1.631,2.165,20.97,18.15,10.14,18.48,9.005,-2.063,0,0,0,0,0,0,0,0,0,0,0,0,0,0,0,0,
517,12.25,23.93,13.85,30.77,14.63,37.82,23.15,12.68,14.96,-3.366,20.52,16.31,5.517,12.33,13.1,-0.3236,0,0,0,0,0,0,0,0,0,0,0,0,0,0,0,0,
518,15.79,23.59,18.08,-9.637,35.65,51.82,32.04,12.86,19.47,-9.528,38.67,31.05,8.661,16.43,37.94,25.59,0,0,0,0,0,0,0,0,0,0,0,0,0,0,0,0,
519,32.55,13.34,16.89,-3.163,56.02,37.4,21.65,24.59,29.88,5.511,53.17,44.91,19.09,28.45,49.09,43.57,0,0,0,0,0,0,0,0,0,0,0,0,0,0,0,0,
520,37.47,3.377,26.91,19.13,53.07,16.6,6.192,-4.612,28.27,31.38,51.76,44.52,22.62,34.98,47.04,45.65,0,0,0,0,0,0,0,0,0,0,0,0,0,0,0,0,
521,38.93,7.189,4.852,-12.76,59.45,41.95,17.33,-26.03,37.9,38.05,80.49,61.47,40.83,54.28,83.85,75.35,0,0,0,0,0,0,0,0,0,0,0,0,0,0,0,0,
522,59.9,35.65,2.662,13.27,59.83,67.49,28.35,12.12,58.07,44.78,103.1,75.6,66.41,76.96,105.6,99.39,0,0,0,0,0,0,0,0,0,0,0,0,0,0,0,0,
523,55.15,53.88,28.88,67.22,6.924,36.76,20.96,31.12,26.82,42.53,55.69,44.69,48.94,55.02,54.1,62.09,0,0,0,0,0,0,0,0,0,0,0,0,0,0,0,0,
524,12.85,34.28,3.856,2.475,-33.52,2.904,10.63,-3.326,-28.38,-1.201,0.9421,9.163,2.994,4.975,3.337,13.65,0,0,0,0,0,0,0,0,0,0,0,0,0,0,0,0,
525,-0.0073,6.016,-27.04,-62.57,-15.76,12.58,-0.6401,-19.58,-26.13,-35.5,2.821,10.79,-14.58,-11.87,6.45,9.621,0,0,0,0,0,0,0,0,0,0,0,0,0,0,0,0,
526,30.22,4.771,-4.845,-8.868,20.17,45.35,18.6,-4.213,16.12,-10.69,21.37,24.78,-1.442,7.641,17.68,22.1,0,0,0,0,0,0,0,0,0,0,0,0,0,0,0,0,
527,50.87,21.54,26.59,29.61,66.68,62.23,62.87,13.06,31.57,22.97,15.04,20.55,5.564,16.52,0.7084,13.48,0,0,0,0,0,0,0,0,0,0,0,0,0,0,0,0,
528,39.47,22.07,37.32,4.079,83.36,43.43,50.52,22.52,10.56,16.45,0.8981,3.445,-6.352,-0.9989,-17.99,-3.626,0,0,0,0,0,0,0,0,0,0,0,0,0,0,0,0,
529,18.3,6.963,10.46,13.2,37.5,23.47,-6.106,12.02,-0.9893,-4.758,4.697,-3.202,-15.61,-12.48,-9.101,-0.7312,0,0,0,0,0,0,0,0,0,0,0,0,0,0,0,0,
530,4.809,1.98,-19.89,32.41,13.72,20.57,-19.36,-1.954,15.24,-5.206,13.8,-0.911,-9.227,-3.163,4.139,14.19,0,0,0,0,0,0,0,0,0,0,0,0,0,0,0,0,
531,-4.714,1.087,9.811,8.997,31.46,7.987,-9.879,-3.888,17.71,-1.671,11.95,-7.033,-6.374,-0.2539,2.628,18.25,0,0,0,0,0,0,0,0,0,0,0,0,0,0,0,0,
532,-11.24,-14.79,26.07,-2.091,25.16,-0.5203,-31.89,-14.29,-1.015,-27.08,10.69,-13.97,-21.25,-14.55,4.692,13.75,0,0,0,0,0,0,0,0,0,0,0,0,0,0,0,0,
533,-11.07,-35.9,-20.83,3.939,12.98,7.521,-37.9,-23.92,-6.022,-50.22,9.94,-12.08,-35.71,-19.04,5.601,10.2,0,0,0,0,0,0,0,0,0,0,0,0,0,0,0,0,
534,-7.971,-40.76,-39.04,-19.09,-0.7344,3.179,-4.084,-15.98,-7.697,-25.91,-0.3275,-14.6,-35.9,-5.112,-8.338,5.868,0,0,0,0,0,0,0,0,0,0,0,0,0,0,0,0,
535,-12.77,-30.74,-34.12,-52.15,-40.13,-14.09,-1.844,-7.685,-20.14,6.744,-11.35,-27.42,-34.53,0.6762,-15.32,1.8,0,0,0,0,0,0,0,0,0,0,0,0,0,0,0,0,
536,-32.63,-24.9,-52.38,-62.48,-48.35,-32.32,-37.74,-3.764,-24.95,-2.527,-16.58,-34.08,-33.69,-7.625,-3.58,4.801,0,0,0,0,0,0,0,0,0,0,0,0,0,0,0,0,
537,-48.11,-24.65,-30.35,-36.75,-20.35,-47.74,-47.76,-7.674,-23.8,-24.18,-14.63,-23.3,-20.65,-7.042,9.108,12.41,0,0,0,0,0,0,0,0,0,0,0,0,0,0,0,0,
538,-33.14,-13.8,15.42,3.995,-7.67,-34.15,-22.91,-24.86,-13.73,-10.16,5.141,-0.8222,2.449,9.13,24.45,21.2,0,0,0,0,0,0,0,0,0,0,0,0,0,0,0,0,
539,2.026,5.504,4.431,7.154,13.68,9.641,7.878,-27.98,9.119,15.92,30.9,20.29,15.97,19.14,41.78,27.84,0,0,0,0,0,0,0,0,0,0,0,0,0,0,0,0,
540,22.33,3.887,-20.05,-5.423,30.81,31.32,5.276,-14.27,5.252,-7.356,22.93,18.56,-0.9103,0.4112,25.92,14.39,0,0,0,0,0,0,0,0,0,0,0,0,0,0,0,0,
541,11.57,-21.02,-3.469,5.085,10.19,11.03,-21.44,-12.06,-17.21,-42.2,-6.904,1.067,-21.77,-19.16,-2.097,-3.475,0,0,0,0,0,0,0,0,0,0,0,0,0,0,0,0,
542,2.163,-15.47,16.97,-3.366,19.8,1.077,-0.6123,-3.613,-0.5434,-5.787,-3.397,9.2,-0.3363,3.453,14.77,10.04,0,0,0,0,0,0,0,0,0,0,0,0,0,0,0,0,
543,22.15,26.13,18.48,-24.69,52.35,20.83,33.22,15.42,20.48,41.04,14.39,28.15,25.82,29.37,33.49,21.57,0,0,0,0,0,0,0,0,0,0,0,0,0,0,0,0,
544,33.44,35.85,25.14,-11.91,16.23,22.16,14.12,-6.567,-3.96,22.19,4.535,18.08,15.62,18.05,15.27,9.444,0,0,0,0,0,0,0,0,0,0,0,0,0,0,0,0,
545,14.51,14.67,34.73,-0.0585,-37.96,2.03,-2.903,-43.43,-21.3,-1.986,-0.7132,5.59,13.88,10.95,12.92,16.75,0,0,0,0,0,0,0,0,0,0,0,0,0,0,0,0,
546,0.4268,7.604,17.61,-4.154,-28.3,-3.699,-10.69,-21.3,-4.905,-2.122,8.787,7.247,29.45,20.06,24.89,30.5,0,0,0,0,0,0,0,0,0,0,0,0,0,0,0,0,
547,2.343,5.142,-13.07,8.638,1.551,3.648,-27.79,9.725,10.33,-2.826,8.88,7.845,31.8,19.96,21.47,23.09,0,0,0,0,0,0,0,0,0,0,0,0,0,0,0,0,
548,15,11.14,-23.34,7.008,11.5,18.86,0.2926,-13.22,19.86,5.644,15.72,17.11,31.68,17.76,25.01,21.8,0,0,0,0,0,0,0,0,0,0,0,0,0,0,0,0,
549,27.5,22.6,-16.75,-28.98,14.98,24.47,20.22,-30.15,14.03,-7.472,21.46,19.58,20.82,6.457,23.29,17.98,0,0,0,0,0,0,0,0,0,0,0,0,0,0,0,0,
550,13.52,-1.259,10.84,-38.45,10.76,3.136,-22.87,-11.49,-6.425,-42.04,7.924,3.409,-2.912,-12.32,7.013,-0.5182,0,0,0,0,0,0,0,0,0,0,0,0,0,0,0,0,
551,-0.2399,-24.66,53.14,-0.25,-0.7954,2.414,-24.15,-2.675,-0.4986,-27.03,6.359,4.724,-3.146,-9.839,8.599,-4.815,0,0,0,0,0,0,0,0,0,0,0,0,0,0,0,0,
552,14.81,-7.084,54.96,13.58,-6.04,21.73,14.87,-7.808,10.06,2.51,14.4,13.41,1.562,-6.432,13.41,-5.202,0,0,0,0,0,0,0,0,0,0,0,0,0,0,0,0,
553,12.68,-6.283,21.1,-26.97,-7.753,-5.612,-17.12,-11.04,-12.55,-11.6,0.2537,-3.608,-14.27,-19.13,-1.619,-16.52,0,0,0,0,0,0,0,0,0,0,0,0,0,0,0,0,
554,-13.04,-29.28,-10.75,-28.24,-15.22,-28.06,-50.88,-3.568,-21.72,-14.27,-17.56,-18.11,-15.03,-15.81,-13.19,-13.3,0,0,0,0,0,0,0,0,0,0,0,0,0,0,0,0,
555,-8.159,-17.78,-51.98,33.6,-20.13,18.28,11.57,15.38,4.44,4.356,-9.507,-3.665,3.221,-0.3231,-0.5027,5.528,0,0,0,0,0,0,0,0,0,0,0,0,0,0,0,0,
556,22.03,8.04,-45.33,28.28,-6.68,46.69,57.78,6.123,25.91,4.212,15.89,22.16,8.324,0.5546,26.39,15.67,0,0,0,0,0,0,0,0,0,0,0,0,0,0,0,0,
557,34.88,7.204,36.13,-27.74,21.02,20.26,5.207,-24.22,24.27,-1.853,23.72,31.39,-0.1426,-10.16,30.18,7.409,0,0,0,0,0,0,0,0,0,0,0,0,0,0,0,0,
558,25.91,-0.91,66.59,5.29,26.04,10.69,-27.04,-12.08,2.822,-23.26,7.888,17.47,-8.31,-23.58,11.69,-5.502,0,0,0,0,0,0,0,0,0,0,0,0,0,0,0,0,
559,11.71,1.278,37.4,35.79,-7.403,13.22,16.53,18.29,-10.01,-47.56,9.781,7.946,-1.014,-18.91,20.75,3.019,0,0,0,0,0,0,0,0,0,0,0,0,0,0,0,0,
560,4.705,10.87,25.8,-27.14,-22.07,5.786,42.5,17.18,15.11,-15.57,29.82,15.45,23.82,12.87,46.9,26.1,0,0,0,0,0,0,0,0,0,0,0,0,0,0,0,0,
561,7.575,21.69,-13.02,-24.28,11.99,19.62,24.19,12.11,41.52,22.07,32.79,21.72,35.98,30.4,51.02,34.33,0,0,0,0,0,0,0,0,0,0,0,0,0,0,0,0,
562,9.453,13.91,-26.44,50.6,34.58,26.74,-1.286,5.21,28.45,1.438,30.39,22.36,25.58,18.42,46.81,30.61,0,0,0,0,0,0,0,0,0,0,0,0,0,0,0,0,
563,2.601,-10.76,45.74,39.03,21.34,0.7213,-28.21,-16.96,3.523,-16.25,24.84,16.9,14.31,7.872,32.11,20.47,0,0,0,0,0,0,0,0,0,0,0,0,0,0,0,0,
564,-5.175,-20.95,61.77,-3.051,4.728,-11.26,-37.57,-19.1,2.256,-10.31,1.254,4.158,3.725,-3.473,2.598,-3.793,0,0,0,0,0,0,0,0,0,0,0,0,0,0,0,0,
565,-8.919,-15.49,23.98,-0.7655,-10.29,-6.557,-19.27,-7.841,12.07,-25.06,-6.776,-2.622,-7.948,-21.33,-3.865,-20.81,0,0,0,0,0,0,0,0,0,0,0,0,0,0,0,0,
566,-14.12,-16.56,31.52,-18.94,-14.89,-11.01,-4.839,-11.75,9.67,-43.39,3.273,-7.108,-13.47,-26.09,3.564,-21.92,0,0,0,0,0,0,0,0,0,0,0,0,0,0,0,0,
567,-18.81,-24.81,-6.249,-41.88,2.064,-9.771,-7.447,-12.6,9.514,-43.61,-8.984,-18.07,-23.83,-28.95,-7.707,-33.89,0,0,0,0,0,0,0,0,0,0,0,0,0,0,0,0,
568,-20.16,-37.38,-67.12,-32.53,13.38,-11.67,-26.26,-8.474,22.54,-34.92,-23.46,-21.26,-36.27,-38.2,-13.28,-46.49,0,0,0,0,0,0,0,0,0,0,0,0,0,0,0,0,
569,-20.36,-51.22,-32.16,-12.93,7.759,-17.13,-57.06,-3.84,20.78,-19.79,-12.35,-13.86,-30.04,-33.23,-3.508,-39.62,0,0,0,0,0,0,0,0,0,0,0,0,0,0,0,0,
570,-12.2,-42.44,20.7,10.35,7.716,4.262,-45.6,2.963,5.861,-9.889,-2.613,-8.385,-16.89,-23.5,-2.729,-35.42,0,0,0,0,0,0,0,0,0,0,0,0,0,0,0,0,
571,-0.6051,-8.975,35.09,9.475,25.78,20.62,15.25,-8.128,7.08,-9.823,-10.64,-9.392,-18.24,-23.75,-10.53,-35.56,0,0,0,0,0,0,0,0,0,0,0,0,0,0,0,0,
572,-5.378,4.461,40.76,2.131,47.29,3.644,20.59,-12.15,10.23,-14.1,-20.12,-16.08,-25.48,-21.57,-16.37,-21.97,0,0,0,0,0,0,0,0,0,0,0,0,0,0,0,0,
573,-14.86,-15.89,17.86,26.74,42.37,-1.547,-21.72,1.22,1.226,-26.1,-12.38,-17.04,-23.3,-17.97,-11.9,-9.349,0,0,0,0,0,0,0,0,0,0,0,0,0,0,0,0,
574,-7.535,-24.69,-12.21,7.781,10.54,11.17,3.085,-22.95,2.974,-34.5,5.001,-7.257,-12.24,-16.46,0.5786,-7.027,0,0,0,0,0,0,0,0,0,0,0,0,0,0,0,0,
575,0.0522,-11.89,-33.04,-44.94,-16.49,0.8776,22.34,-45.8,13.78,-25.86,0.962,-6.474,-4.099,-9.705,-3.398,-6.465,0,0,0,0,0,0,0,0,0,0,0,0,0,0,0,0,
576,-12.46,-13.71,-46.8,-24.39,-28.01,-29.44,-46.09,-14.62,2.76,-12.01,-24.1,-23.41,-6.69,-8.731,-25.42,-13.85,0,0,0,0,0,0,0,0,0,0,0,0,0,0,0,0,
577,-31.29,-22.21,-17.49,12.06,-30.29,-38.26,-65.58,0.6562,-23.17,-10.48,-36.83,-36,-14.4,-17.09,-38,-24.23,0,0,0,0,0,0,0,0,0,0,0,0,0,0,0,0,
578,-31.65,-13.8,5.899,-2.263,-20.22,-12.54,-11.98,-6.301,-24.84,-14.56,-24.76,-28.78,-17.62,-12.93,-29.55,-15.3,0,0,0,0,0,0,0,0,0,0,0,0,0,0,0,0,
579,-21.3,-13.41,-16.26,-27.39,-11.42,-8.026,-16.08,4.887,-13.85,-8.882,-7.862,-19.97,-16.21,-1.615,-13.81,1.091,0,0,0,0,0,0,0,0,0,0,0,0,0,0,0,0,
580,-29.55,-30.8,-29.56,-57.51,-34.31,-44.39,-41.44,-11.5,-24.76,-16.61,-8.18,-25.04,-17.55,-10.47,-8.561,-2.837,0,0,0,0,0,0,0,0,0,0,0,0,0,0,0,0,
581,-42.34,-33.89,-43.56,-50.94,-74.33,-45.85,-16.67,-36.09,-25.87,-39.57,-16.85,-24.95,-15.63,-22.42,-8.905,-9.844,0,0,0,0,0,0,0,0,0,0,0,0,0,0,0,0,
582,-30.03,-17.66,-40.45,-1.601,-74.78,-15.36,4.49,-22.56,-4.268,-24.49,-18.9,-15.56,-1.902,-11.05,-7.696,-2.751,0,0,0,0,0,0,0,0,0,0,0,0,0,0,0,0,
583,-17.23,-6.377,21.24,-4.577,-32.95,-22.12,1.856,-17.33,-9.57,0.1531,-22.03,-19.97,2.799,-4.629,-18.49,-6.452,0,0,0,0,0,0,0,0,0,0,0,0,0,0,0,0,
584,-23.33,-12.28,29.01,-13.51,-9.154,-29.14,-18.24,-14.74,-26.72,-25.17,-20.77,-27.56,-10.31,-17.96,-28.76,-16.96,0,0,0,0,0,0,0,0,0,0,0,0,0,0,0,0,
585,-22.22,-23.11,-35.7,17.61,-19.05,-10.88,-41.42,1.117,-16.92,-31.53,-6.057,-13.17,-6.558,-12.77,-10.09,-5.582,0,0,0,0,0,0,0,0,0,0,0,0,0,0,0,0,
586,-7.677,-7.041,-25.96,-21.3,-11.48,-14.83,4.619,-14.46,-9.393,17.95,5.231,9.131,18.57,12.8,15.77,9.353,0,0,0,0,0,0,0,0,0,0,0,0,0,0,0,0,
587,1.475,28.94,23.52,-69.67,19.6,-18.38,75.56,-16.39,-12.25,31.46,1.173,9.237,21.11,13.97,10.23,5.324,0,0,0,0,0,0,0,0,0,0,0,0,0,0,0,0,
588,-3.797,28.09,-1.416,-9.706,9.138,-0.9011,47.21,24.77,-10.64,-10.22,-15.7,-14.45,-1.802,-8.888,-12.33,2.817,0,0,0,0,0,0,0,0,0,0,0,0,0,0,0,0,
589,-19.87,-5.583,-37.52,40.88,-35.49,-6.189,-13.86,23.18,-21.31,-33.44,-30.91,-31.88,-8.03,-12.46,-15.11,14.28,0,0,0,0,0,0,0,0,0,0,0,0,0,0,0,0,
590,-32.43,-15.53,-31.96,17.15,-34.87,-24.22,-13.41,-13.99,-34.94,-17.63,-29.36,-31.35,2.267,4.041,-9.174,17.46,0,0,0,0,0,0,0,0,0,0,0,0,0,0,0,0,
591,-34.3,-9.966,-30.57,7.299,-5.806,-27.32,-23.72,-9.051,-30.75,6.664,-20.61,-29.43,2.348,9.955,-13.8,7.113,0,0,0,0,0,0,0,0,0,0,0,0,0,0,0,0,
592,-29.49,-11.55,-17.92,19.72,-2.979,-36.1,-46.95,14.37,-23.79,10.04,-13.58,-26.39,-0.0938,8.647,-10.49,4.426,0,0,0,0,0,0,0,0,0,0,0,0,0,0,0,0,
593,-26.61,-3.551,6.256,1.574,-14.91,-46.1,-5.514,-1.599,-22.79,-11.58,-14.66,-27.7,-3.389,4.115,-9.843,-2.611,0,0,0,0,0,0,0,0,0,0,0,0,0,0,0,0,
594,-34.75,-1.432,-39.53,-62.8,-38.54,-35.12,37.19,-48.28,-20.98,-17.62,-27.21,-38.9,-16.1,-9.761,-25.11,-25.85,0,0,0,0,0,0,0,0,0,0,0,0,0,0,0,0,
595,-37.52,-18.95,-88.87,-97.09,-38.27,-23.14,8.381,-55.85,-17.45,8.636,-23.25,-31.38,-16.84,-9.101,-21.85,-31.43,0,0,0,0,0,0,0,0,0,0,0,0,0,0,0,0,
596,-22.12,-26.68,-14.85,-22.91,17.67,-26.45,-32.89,0.1709,-11.47,12.02,-4.734,-11.11,-4.497,3.807,-8.582,-15.72,0,0,0,0,0,0,0,0,0,0,0,0,0,0,0,0,
597,-9.71,-17.16,46.82,45.54,25.68,-17.37,-30.08,30.89,-2.138,-16.74,-1.189,-4.651,2.869,2.902,-6.838,-3.071,0,0,0,0,0,0,0,0,0,0,0,0,0,0,0,0,
598,-1.199,1.611,-3.755,4.605,-26.97,6.423,4.333,-2.723,5.486,-19.89,4.114,5.888,8.386,0.635,3.651,3.332,0,0,0,0,0,0,0,0,0,0,0,0,0,0,0,0,
599,8.522,17.01,0.3348,-29.15,-6.71,0.6037,23.9,-16.45,1.393,-11.44,11.44,12.53,1.863,-2.58,4.643,-3.104,0,0,0,0,0,0,0,0,0,0,0,0,0,0,0,0,
600,1.052,3.584,39.87,2.417,39.97,-23.42,-2.156,13.37,-8.22,-18.22,2.632,0.0449,-9.191,-7.5,-6.634,-3.182,0,0,0,0,0,0,0,0,0,0,0,0,0,0,0,0,
601,-9.471,-14.73,-28.47,8.239,9.411,-15.34,-28.85,16.05,-8.294,-1.45,-1.417,-4.333,-1.147,5.348,-0.8243,13.54,0,0,0,0,0,0,0,0,0,0,0,0,0,0,0,0,
602,-9.559,-9.395,-72.08,-19.94,-10.43,-0.5603,-15.21,-14.3,-6.784,13.49,-7.112,-15.02,-6.97,2.86,-9.304,0.5841,0,0,0,0,0,0,0,0,0,0,0,0,0,0,0,0,
603,-22.08,-11.72,-6.261,-18.56,24.63,-11.35,-0.7617,-12.69,-6.356,-8.666,-19.9,-42.38,-31.5,-23.39,-28.88,-25.08,0,0,0,0,0,0,0,0,0,0,0,0,0,0,0,0,
604,-35.9,-22.57,39.55,14.98,30.96,-17.81,-2.822,17.97,-3.469,-8.074,-5.96,-39.89,-27.4,-20.83,-17.52,-13.92,0,0,0,0,0,0,0,0,0,0,0,0,0,0,0,0,
605,-30.96,-15.87,16.71,25.11,3.112,-19.44,3.63,12.81,-13.79,6.598,7.838,-20.9,-16.12,-12.27,-11.79,-5.967,0,0,0,0,0,0,0,0,0,0,0,0,0,0,0,0,
606,-27.11,-13.73,-36.18,-12.71,-15.66,-31.23,2.27,-15.17,-22.85,-25.54,-14.69,-27.95,-29.1,-34.74,-28.74,-20.83,0,0,0,0,0,0,0,0,0,0,0,0,0,0,0,0,
607,-30.69,-24.6,-32.88,-27.15,-27.21,-27.12,-17.89,-1.818,-12.81,-47.48,-33.05,-38.43,-35.62,-44.39,-33.25,-21.8,0,0,0,0,0,0,0,0,0,0,0,0,0,0,0,0,
608,-30.15,-23.18,40.86,18.77,-18.54,-8.651,-25.18,29.62,-11.32,-14.16,-23.79,-33.21,-25.41,-26.3,-28.52,-10.37,0,0,0,0,0,0,0,0,0,0,0,0,0,0,0,0,
609,-22.25,-10.91,40.89,30.17,19.42,-0.2507,-11.45,13.59,-8.958,12.81,-6.696,-21.46,-16.02,-14.27,-17.35,-0.3401,0,0,0,0,0,0,0,0,0,0,0,0,0,0,0,0,
610,-7.066,-3.223,6.166,-19.65,36.46,3.472,8.576,-29.38,13.73,9.806,4.386,-7.174,-10.27,-14.33,-2.31,2.306,0,0,0,0,0,0,0,0,0,0,0,0,0,0,0,0,
611,3.389,0.2889,32.03,-28.79,15.31,4.511,26.88,-30.65,14.36,6.003,1.833,4.142,-2.429,-11.07,-2.736,-3.606,0,0,0,0,0,0,0,0,0,0,0,0,0,0,0,0,
612,9.945,7.181,-20.26,6.357,2.57,4.895,24.61,8.317,-0.2807,6.941,2.014,15.47,10.16,1.049,0.879,-1.299,0,0,0,0,0,0,0,0,0,0,0,0,0,0,0,0,
613,23.2,11.2,-71.58,14.62,-2.661,8.208,-2.61,28.29,12.24,7.895,11.92,18.57,9.618,1.749,11.72,-2.523,0,0,0,0,0,0,0,0,0,0,0,0,0,0,0,0,
614,15.88,-1.069,37.33,15.53,-24.1,-7.625,-18.58,8.461,10.59,-8.325,-3.881,-5.101,-14.27,-22.94,-3.892,-23.51,0,0,0,0,0,0,0,0,0,0,0,0,0,0,0,0,
615,-13.62,-13.72,70.23,24.23,-21.42,-26.25,-9.941,-17.22,-19.71,-42.46,-30.3,-23.82,-29.33,-38.67,-16.99,-28.7,0,0,0,0,0,0,0,0,0,0,0,0,0,0,0,0,
616,-14.58,-7.995,-26.84,5.54,17.93,-9.758,-4.036,-14.5,-19.35,-34.88,-15.46,-10.07,-14.24,-17.48,6.486,-4.694,0,0,0,0,0,0,0,0,0,0,0,0,0,0,0,0,
617,-0.8755,1.08,-22.69,-22.68,26.14,0.7429,7.47,-0.2355,-2.064,15.52,6.305,-3.43,5.511,7.881,20.76,8.972,0,0,0,0,0,0,0,0,0,0,0,0,0,0,0,0,
618,-14.3,6.826,-9.108,-22.85,-11.92,-19.65,31.51,-6.074,-11.7,25.33,-3.364,-13.48,8.605,6.491,7.575,3.367,0,0,0,0,0,0,0,0,0,0,0,0,0,0,0,0,
619,-17.42,13.53,-71,2.957,-29.24,-16.3,12.97,-1.106,-15.91,5.977,-2.696,-5.372,7.128,0.4337,3.964,1.56,0,0,0,0,0,0,0,0,0,0,0,0,0,0,0,0,
620,4.695,8.491,-39.47,17.62,-7.986,5.197,-27.36,21.32,4.256,8.928,12.47,6.23,8.421,3.391,8.238,4.841,0,0,0,0,0,0,0,0,0,0,0,0,0,0,0,0,
621,10.99,-3.101,39.33,-8.214,17.06,3.232,-0.0211,4.21,18.34,-0.3757,9.828,2.649,3.542,-1.099,5.549,6.031,0,0,0,0,0,0,0,0,0,0,0,0,0,0,0,0,
622,9.839,-6.627,17.74,-17.2,34.85,-1.26,28.92,-17.66,16.69,-13.86,3.143,3.396,-2.021,-5.517,1.084,2.981,0,0,0,0,0,0,0,0,0,0,0,0,0,0,0,0,
623,9.999,-13.74,-30.61,20.04,27.7,-9.23,-22.35,-1.51,2.036,-10.95,-1.034,4.928,-3.208,-4.657,-4.27,-3.24,0,0,0,0,0,0,0,0,0,0,0,0,0,0,0,0,
624,-3.256,-16.92,-20.91,7.136,-11.54,-23.11,-26.01,-17.48,-14.4,-41.54,-1.96,6.109,-3.629,-11.78,3.038,-0.0984,0,0,0,0,0,0,0,0,0,0,0,0,0,0,0,0,
625,6.004,9.648,5.901,-42.68,-35.63,8.601,61.81,-39.4,-4.339,-54.52,19.55,25.12,11.46,-4.489,20.79,8.807,0,0,0,0,0,0,0,0,0,0,0,0,0,0,0,0,
626,41.02,40.1,25.89,-4.54,-19.35,48.93,70.58,10.16,22.19,15.88,43.24,40.46,35.13,23.64,20.19,6.566,0,0,0,0,0,0,0,0,0,0,0,0,0,0,0,0,
627,45.32,35.3,59.55,58.24,14.07,21.68,-3.304,41.44,29.68,61.01,42.09,29.91,27.18,25.97,5.25,-2.938,0,0,0,0,0,0,0,0,0,0,0,0,0,0,0,0,
628,22.79,10.87,57.69,30.28,32.74,-11.89,-11.49,2.664,17.92,24.1,24.07,9.157,-5.664,0.3149,-9.824,-17.19,0,0,0,0,0,0,0,0,0,0,0,0,0,0,0,0,
629,3.963,-8.387,-9.244,-6.658,22.48,1.496,6.893,-16.88,6.388,-0.0855,2.115,-9.001,-20.03,-8.887,-19.21,-28.14,0,0,0,0,0,0,0,0,0,0,0,0,0,0,0,0,
630,-10.12,-19.62,-29.85,18.91,15.45,7.717,-25.49,-3.486,8.468,13.52,-4.071,-13.06,-14.56,-0.0338,-8.639,-16.12,0,0,0,0,0,0,0,0,0,0,0,0,0,0,0,0,
631,-5.949,-16.93,13.66,31.87,18.15,1.375,-29.93,-3.452,16.63,5.946,8.536,0.0704,-10.9,1.4,8.691,1.464,0,0,0,0,0,0,0,0,0,0,0,0,0,0,0,0,
632,12.53,-2.236,14.08,-3.647,4.3,11.36,17.09,-11.97,12.04,-25.44,20.95,11.78,-6.556,-0.4313,17.53,6.409,0,0,0,0,0,0,0,0,0,0,0,0,0,0,0,0,
633,20.29,11.83,8.133,-22.16,12.59,14.9,34.03,-9.694,9.238,-22.32,28.58,14.15,0.3708,6.246,18.8,7.695,0,0,0,0,0,0,0,0,0,0,0,0,0,0,0,0,
634,12.24,12.76,25.59,5.602,45.22,1.947,4.193,1.341,17.33,16.95,18.47,2.991,-8.602,3.938,-2.781,-3.902,0,0,0,0,0,0,0,0,0,0,0,0,0,0,0,0,
635,-12.37,-7.271,-9.593,21.49,37.76,-10.77,-23.67,1.853,14.65,20.6,-2.83,-13.14,-27.28,-10.1,-23.26,-18.79,0,0,0,0,0,0,0,0,0,0,0,0,0,0,0,0,
636,-23.93,-18.55,-19.25,8.379,18.75,-7.736,-10.01,5.125,17.53,0.9692,8.137,0.4537,-22.78,-3.884,-7.074,-11.41,0,0,0,0,0,0,0,0,0,0,0,0,0,0,0,0,
637,10.33,5.487,47.7,18.97,23.62,20.19,22.66,31.6,37.1,16.46,29.05,26.27,-5.349,12.88,1.403,-4.333,0,0,0,0,0,0,0,0,0,0,0,0,0,0,0,0,
638,41.11,24.12,40.5,31.91,12.8,45.42,19.01,34.75,31.38,21.33,11.17,19.11,-6.757,5.952,-22.92,-13.83,0,0,0,0,0,0,0,0,0,0,0,0,0,0,0,0,
639,33.42,16.02,-14.57,7.312,11.63,43.07,8.678,0.4786,6.126,-1.641,-5.258,7.385,-12.94,-6.32,-29.46,-22.11,0,0,0,0,0,0,0,0,0,0,0,0,0,0,0,0,
640,29.42,12.47,25.06,-0.5249,46.23,33.49,30.9,-17.47,3.663,-3.993,10.36,11.56,-14.23,-12.13,-15.19,-28.88,0,0,0,0,0,0,0,0,0,0,0,0,0,0,0,0,
641,24.86,5.364,41.44,16.36,48.34,24.4,34.46,-16.72,11.15,-16.96,11.97,-5.325,-27.6,-29.13,-19.78,-33.63,0,0,0,0,0,0,0,0,0,0,0,0,0,0,0,0,
642,-5.531,-10.23,-28.92,8.748,13.64,4.774,15.25,-12.02,13.33,-44.25,-1.976,-23.15,-32.53,-32.86,-20.22,-23.95,0,0,0,0,0,0,0,0,0,0,0,0,0,0,0,0,
643,-15.55,0.8123,-18.72,3.048,5.56,-2.894,20.38,5.886,21.61,-18.58,10.95,-0.1868,-9.334,-5.592,9.063,-5.257,0,0,0,0,0,0,0,0,0,0,0,0,0,0,0,0,
644,14.24,21.94,31.98,8.678,0.8197,17.14,28.45,13.77,23.97,29.9,23.43,20.95,7.362,13.08,18.85,5.408,0,0,0,0,0,0,0,0,0,0,0,0,0,0,0,0,
645,30.37,14.41,-13.92,-13.74,-27.62,20.82,14.12,5.939,7.907,31.3,-1.739,2.472,-4.124,3.283,-8.426,-1.604,0,0,0,0,0,0,0,0,0,0,0,0,0,0,0,0,
646,8.659,-11.81,-40.91,-26.88,-20.32,-13.25,-15.58,7.913,-10.07,5.748,-20.97,-19.54,-19.26,-9.529,-18.72,-14.19,0,0,0,0,0,0,0,0,0,0,0,0,0,0,0,0,
647,-21.84,-35.72,16.68,8.528,28.49,-30.33,-47.02,9.626,-12.09,4.415,-10.72,-25.22,-20.25,-8.582,-10.91,-11.63,0,0,0,0,0,0,0,0,0,0,0,0,0,0,0,0,
648,-41.59,-41.45,45.59,37.75,42.94,-18.37,-47.13,5.11,-3.817,21.53,-13.79,-35.99,-20.54,-7.621,-18.99,-1.798,0,0,0,0,0,0,0,0,0,0,0,0,0,0,0,0,
649,-53.41,-28.54,21.69,22.93,13.26,-15.29,-20.94,8.897,0.1626,4.911,-25.25,-44.75,-27.32,-18.12,-18.68,1.544,0,0,0,0,0,0,0,0,0,0,0,0,0,0,0,0,
650,-41.96,-13.45,-8.732,-4.465,3.461,7.429,11.37,3.985,14.79,-28.47,-2.834,-21.7,-14.7,-14.28,8,16.01,0,0,0,0,0,0,0,0,0,0,0,0,0,0,0,0,
651,9.145,8.65,-1.027,-8.524,39.51,57.97,57.65,-11.16,59.13,-6.902,40.87,26.53,21.75,18.45,40.01,49.88,0,0,0,0,0,0,0,0,0,0,0,0,0,0,0,0,
652,65.17,29.62,65.24,24.28,80.49,73.37,65.98,0.9769,96.91,37.24,75.93,63.37,43.56,43.12,69.18,75.49,0,0,0,0,0,0,0,0,0,0,0,0,0,0,0,0,
653,81.66,19.86,97.8,59.99,77.31,56.85,6.312,27.44,83.93,33.52,89.07,67.42,41.71,41.57,80.87,77.88,0,0,0,0,0,0,0,0,0,0,0,0,0,0,0,0,
654,57.72,-4.402,43.49,51.01,30.75,42.35,-27.97,19.96,47.24,9.374,69.35,47.95,37.31,38.81,62.39,73.29,0,0,0,0,0,0,0,0,0,0,0,0,0,0,0,0,
655,19.02,-9.901,8.429,21.64,-6.538,17,1.994,-5.298,35.26,8.289,37.28,28.61,30.63,40.48,38,67.84,0,0,0,0,0,0,0,0,0,0,0,0,0,0,0,0,
656,-2.626,-0.8881,41.24,8.385,5.414,-5.288,22.21,-3.519,31.84,12.55,17.16,13.07,15.09,26.28,17.55,47.33,0,0,0,0,0,0,0,0,0,0,0,0,0,0,0,0,
657,-1.293,3.469,38.67,13.18,33.96,-0.8038,9.945,17.42,10.94,-11.15,2.402,-3.494,-3.484,-1.828,-1.863,20.07,0,0,0,0,0,0,0,0,0,0,0,0,0,0,0,0,T1
658,7.394,-0.0137,-25.65,38.6,32.64,16.32,16.04,24.14,6.074,-38.27,2.045,0.1889,-7.333,-9.791,3.482,15.16,0,0,0,0,0,0,0,0,0,0,0,0,0,0,0,0,
659,24.25,4.383,-17.53,36.61,23.95,26.28,46.84,16.27,22.24,-15.35,13.29,19.19,4.389,7.747,18.96,20.54,0,0,0,0,0,0,0,0,0,0,0,0,0,0,0,0,
660,30.8,12.63,69.32,-2.088,34.73,17.72,45.71,15.49,14.98,21.87,1.476,12.09,1.825,11.88,6.389,6.195,0,0,0,0,0,0,0,0,0,0,0,0,0,0,0,0,
661,7.41,4.372,69.57,11.23,38.05,6.16,13.76,14.27,1.878,13.19,-16.39,-7.42,-10.61,-0.1823,-6.96,-8.327,0,0,0,0,0,0,0,0,0,0,0,0,0,0,0,0,
662,-7.749,-3.678,9.844,36.17,20.96,8.241,7.506,4.646,13.98,-7.695,-10.18,-3.027,-4.53,-0.5435,1.51,-4.742,0,0,0,0,0,0,0,0,0,0,0,0,0,0,0,0,
663,-0.2549,5.54,12.25,-8.18,3.513,8.845,18.1,16.21,18.94,-3.704,-4.364,6.279,4.319,4.65,4.542,0.0287,0,0,0,0,0,0,0,0,0,0,0,0,0,0,0,0,
664,-1.527,15.57,-15.1,-18.18,-8.459,8.551,23.48,37.15,10.28,11.55,-7.713,1.271,2.703,4.735,-2.365,1.189,0,0,0,0,0,0,0,0,0,0,0,0,0,0,0,0,
665,-6.093,18.05,-71.04,39.43,-16,7.354,31.17,22.46,10.74,16.67,-14.66,-13.67,-1.521,-2.708,-20.31,-9.998,0,0,0,0,0,0,0,0,0,0,0,0,0,0,0,0,
666,-8.239,9.348,5.644,45.61,-10.03,-7.713,21.88,-0.978,4.573,-4.874,-35.71,-34.73,-16.34,-21.02,-52.4,-36.39,0,0,0,0,0,0,0,0,0,0,0,0,0,0,0,0,
667,-17.09,-7.393,80.17,-0.5594,-2.909,-5.624,6.032,13.25,-12.75,-14.39,-45.5,-38.59,-27.71,-23.58,-63.72,-42.49,0,0,0,0,0,0,0,0,0,0,0,0,0,0,0,0,
668,-8.191,-7.485,-13.83,-16.82,-17.39,18.55,7.357,45.54,-13.67,27.19,-27.2,-16.19,-16.72,-1.835,-49.56,-26.73,0,0,0,0,0,0,0,0,0,0,0,0,0,0,0,0,
669,16.04,6.113,-54.07,-4.495,-22.67,10.25,8.347,43.59,2.134,54.81,-12.94,2.467,-7.372,5.746,-40.18,-18.86,0,0,0,0,0,0,0,0,0,0,0,0,0,0,0,0,
670,18.69,7.764,42.92,-10.72,5.859,-20.49,17.17,7.924,8.679,34.63,-9.187,7.595,-7.234,0.0014,-29.49,-9.17,0,0,0,0,0,0,0,0,0,0,0,0,0,0,0,0,
671,6.603,2.268,39.43,-18.95,8.618,-21.28,23.1,12.16,1.13,30.48,-4.468,6.978,0.3196,9.521,-16.62,1.751,0,0,0,0,0,0,0,0,0,0,0,0,0,0,0,0,
672,-7.69,-2.267,-28.38,15.68,-26.41,-8.378,-6.015,47.39,-10.97,31.24,-9.5,-9.991,-4.053,12.25,-20.31,-6.096,0,0,0,0,0,0,0,0,0,0,0,0,0,0,0,0,
673,-33.56,-14.14,3.267,30.7,-27.3,-14.09,-27.64,28.06,-28.68,-3.194,-18.66,-32.59,-26.82,-6.415,-26.73,-13.03,0,0,0,0,0,0,0,0,0,0,0,0,0,0,0,0,
674,-48.13,-23.35,3.869,-15.17,-19.57,-24.35,-29.79,6.397,-38.28,-13.47,-20.84,-33.24,-29.77,-12.66,-25.64,-6.844,0,0,0,0,0,0,0,0,0,0,0,0,0,0,0,0,
675,-36.11,-18.45,-63.36,-22.54,-61.22,-23.66,-42.07,33.7,-23.97,8.951,-24.5,-26.32,-16.36,-5.511,-31.15,-8.379,0,0,0,0,0,0,0,0,0,0,0,0,0,0,0,0,
676,-26.88,-14.63,-30.13,10.48,-66.07,-18.6,-23.88,23.43,-7.929,3.825,-23.37,-31.4,-19.62,-9.85,-33.65,-14.25,0,0,0,0,0,0,0,0,0,0,0,0,0,0,0,0,
677,-28.64,-16.8,45.45,-8.439,13.52,-14.87,16.53,-7.761,-6.755,2.434,-11.21,-30.91,-22.15,-10.05,-22.3,-10.27,0,0,0,0,0,0,0,0,0,0,0,0,0,0,0,0,
678,-24.55,-11.75,24.41,-28.18,53.4,-7.227,16.21,12.56,-5.958,30.18,-9.814,-23.12,-14.34,-2.217,-21.85,-9.827,0,0,0,0,0,0,0,0,0,0,0,0,0,0,0,0,
679,-16.66,-5.817,-6.263,13.09,16.77,4.737,-0.1212,29.34,1.038,30.89,-21.98,-24.29,-20.77,-11.58,-40.36,-22.72,0,0,0,0,0,0,0,0,0,0,0,0,0,0,0,0,
680,-13.23,-6.83,28.4,43.38,14.08,3.113,-1.584,24.48,1.796,3.251,-21.3,-23.59,-26.84,-26.5,-49.51,-34.87,0,0,0,0,0,0,0,0,0,0,0,0,0,0,0,0,
681,-13.73,-2.075,41.34,25,42.25,-6.37,3.145,42.07,-10.12,-8.809,-8.935,-12.48,-16.45,-27.94,-42.93,-35.98,0,0,0,0,0,0,0,0,0,0,0,0,0,0,0,0,
682,-7.438,11.59,2.529,9.859,22.27,13.49,26.67,58.19,-9.786,-0.9074,-10.9,-5.266,-9.281,-20.48,-40,-30.46,0,0,0,0,0,0,0,0,0,0,0,0,0,0,0,0,
683,8.935,22.25,-0.9487,9.735,-7.265,41.52,48.19,50.73,9.128,12.85,-26.58,-7.404,-6.917,-6.099,-45.45,-23.75,0,0,0,0,0,0,0,0,0,0,0,0,0,0,0,0,
684,15.06,20.8,33.69,8.026,-6.024,31.5,31.12,41.6,7.195,23.61,-31.03,-9.481,-5.596,-0.1356,-49.98,-18.73,0,0,0,0,0,0,0,0,0,0,0,0,0,0,0,0,
685,8.128,7.293,10.21,18.7,-17.17,16.07,4.898,31.15,-8.588,28.86,-23.2,-6.969,-11.3,-7.968,-46.92,-20.96,0,0,0,0,0,0,0,0,0,0,0,0,0,0,0,0,
686,0.8392,-8.49,-31.23,5.89,-29.83,9.12,4.679,-2.052,-10.02,12.77,-27.16,-11.83,-20.76,-12.63,-42.99,-35.04,0,0,0,0,0,0,0,0,0,0,0,0,0,0,0,0,
687,-18.78,-26.03,12.64,-45.75,-2.638,-25.98,-1.62,-30.09,-18.4,-21.11,-37.44,-28.17,-37.05,-24.99,-43.74,-46.67,0,0,0,0,0,0,0,0,0,0,0,0,0,0,0,0,
688,-43.72,-47.4,45.74,-27.92,21.21,-46.94,-48.16,-4.358,-20.24,-20.94,-29.53,-35.65,-48.91,-42.4,-37.44,-36.42,0,0,0,0,0,0,0,0,0,0,0,0,0,0,0,0,
689,-44.93,-53.54,-2.637,42.5,14.91,-22.58,-78.48,23.88,7.155,0.2213,-14.83,-31.23,-36.79,-36.97,-25.55,-20.16,0,0,0,0,0,0,0,0,0,0,0,0,0,0,0,0,
690,-33.32,-38.41,-4.15,18.04,20.77,-14.03,-40.63,4.292,20.93,-12.22,-8.987,-30.67,-19.81,-25.16,-19.81,-18.04,0,0,0,0,0,0,0,0,0,0,0,0,0,0,0,0,
691,-28.56,-23.46,15.42,-32.74,8.126,-17.57,-8.722,-4.18,10.66,-18.74,-3.891,-27.51,-11.02,-21.09,-14.36,-16.02,0,0,0,0,0,0,0,0,0,0,0,0,0,0,0,0,
692,-20.83,-13.29,-50.67,-0.5871,-49.05,4.415,-17.13,9.113,8.507,4.12,0.3253,-12.31,5.367,-7.342,-7.687,-7.8,0,0,0,0,0,0,0,0,0,0,0,0,0,0,0,0,
693,-5.498,3.061,-55.38,12.25,-35.9,8.202,13.55,10.89,14.68,6.096,8.117,8.311,23.4,7.77,3.848,-0.8182,0,0,0,0,0,0,0,0,0,0,0,0,0,0,0,0,
694,9.416,21.43,42.11,-13.49,53.15,-4.798,52.62,22.13,23.37,-3.111,26.77,28.16,31.46,14.34,27.41,8.061,0,0,0,0,0,0,0,0,0,0,0,0,0,0,0,0,
695,21.39,29.27,43.86,19.54,52.54,16.5,16.17,29.07,27.39,2.555,33.16,39.1,35.26,16.16,36.06,9.678,0,0,0,0,0,0,0,0,0,0,0,0,0,0,0,0,
696,28.24,23.84,-16.62,49.45,-19,30.97,-25.39,18.34,17.66,-1.703,14.89,34.75,34.72,9.388,16.41,-3.019,0,0,0,0,0,0,0,0,0,0,0,0,0,0,0,0,
697,25.58,19.8,-9.55,6.003,-14.54,7.145,-4.472,18.01,13.74,2.103,0.7823,25.6,36.06,13.87,5.683,-6.858,0,0,0,0,0,0,0,0,0,0,0,0,0,0,0,0,
698,24.77,33.41,-5.843,-6.552,27.22,4.175,30.86,18.44,27.33,48.99,12.77,30.15,54.72,44.93,20.38,12.98,0,0,0,0,0,0,0,0,0,0,0,0,0,0,0,0,
699,40.23,52.78,-14.59,41.37,22.34,25.48,51.39,27.97,35.93,79.46,35.48,47.63,73.1,61.1,34.19,32.77,0,0,0,0,0,0,0,0,0,0,0,0,0,0,0,0,
700,53.22,53.24,2.291,21.82,12.6,31.39,56.57,51.29,24.81,35.29,42.25,56.52,63.06,35.84,30.14,26.43,0,0,0,0,0,0,0,0,0,0,0,0,0,0,0,0,
701,50.84,43.54,-1.275,-25.52,21.7,41.59,39.9,46.27,12.43,-5.572,34.06,52.57,48.14,14.02,21.13,10.75,0,0,0,0,0,0,0,0,0,0,0,0,0,0,0,0,
702,55.12,46.24,24.89,44.67,26.28,47.21,20.08,45.4,20.78,22.74,30.28,49.7,55.76,25.49,22.54,15.45,0,0,0,0,0,0,0,0,0,0,0,0,0,0,0,0,
703,60.84,50.53,71.73,99.06,38.79,25.43,21.03,67.53,39.99,45.48,34.82,47.95,63.71,38.36,27.77,32.13,0,0,0,0,0,0,0,0,0,0,0,0,0,0,0,0,
704,51.4,46.01,12.38,7.088,43.1,28.08,48.58,43.62,47.16,25.59,40.83,44.73,62.84,36.73,31.36,41.42,0,0,0,0,0,0,0,0,0,0,0,0,0,0,0,0,
705,48.2,46.95,-46.22,-34.11,12.2,51.65,70.76,10.63,38.3,17.48,41.86,45.34,67.48,37.38,38.53,41.61,0,0,0,0,0,0,0,0,0,0,0,0,0,0,0,0,
706,54.69,46.93,25.06,38.88,6.019,39.03,45.13,31.19,24.65,17.75,35.43,46.32,65.64,38.31,37.7,33.87,0,0,0,0,0,0,0,0,0,0,0,0,0,0,0,0,
707,48.3,31.98,69.9,39.28,34.47,25.29,4.286,31.38,15.94,5.28,25.83,38.22,49.35,31.36,19.33,21.96,0,0,0,0,0,0,0,0,0,0,0,0,0,0,0,0,
708,30.96,16.9,13.53,-24.06,15.81,28.76,2.382,-8.579,7.866,7.898,20.14,26.05,37.5,25.68,7.567,16.53,0,0,0,0,0,0,0,0,0,0,0,0,0,0,0,0,
709,17.64,13.09,-35.84,-38.4,-14.89,11.3,16.48,-16.72,-4.62,26.1,25.33,26.41,40.24,30.52,16.14,23.56,0,0,0,0,0,0,0,0,0,0,0,0,0,0,0,0,
710,13.29,13.9,-52.89,-31.8,3.945,-7.534,4.327,-10.95,-14.78,26.57,19.53,25.62,41,32.27,9.534,24.08,0,0,0,0,0,0,0,0,0,0,0,0,0,0,0,0,
711,3.766,9.974,-35.16,-33.68,4.488,-27.08,-23.85,-27.69,-20.53,3.029,-17.15,2.061,28.96,15.88,-19.3,5.972,0,0,0,0,0,0,0,0,0,0,0,0,0,0,0,0,
712,-14.73,1.671,-4.25,-29.8,-29,-50.22,-29.14,-17.69,-20.77,-6.782,-30.25,-8.04,32.49,10.86,-16.27,4.694,0,0,0,0,0,0,0,0,0,0,0,0,0,0,0,0,
713,-8.988,6.192,-45.77,-14.27,-44.11,-16.99,-8.008,24.44,-10.98,14.54,4.405,13.36,52.78,28.87,9.716,21.06,0,0,0,0,0,0,0,0,0,0,0,0,0,0,0,0,
714,14.55,17.04,-84.52,7.251,-45.22,26.13,1.107,26.01,0.3199,23.38,16.22,18.66,43.14,24.85,0.3132,9.832,0,0,0,0,0,0,0,0,0,0,0,0,0,0,0,0,
715,12.03,10.71,-19.23,-0.4511,-18.93,-3.875,-7.72,-1.501,3.732,17.93,-1.293,8.098,21.52,8.784,-18.45,-5.982,0,0,0,0,0,0,0,0,0,0,0,0,0,0,0,0,
716,3.889,6.775,15.67,-27.86,30.73,-27.61,-9.143,9.786,2.545,32.5,-0.0114,12.39,30.65,19.38,-12.52,5.153,0,0,0,0,0,0,0,0,0,0,0,0,0,0,0,0,
717,19.42,20.15,-44.78,-30.86,29.42,3.62,5.883,18.15,5.937,35.1,4.541,16.79,40.45,28.51,-3.099,14.19,0,0,0,0,0,0,0,0,0,0,0,0,0,0,0,0,
718,36.91,30.11,-56.15,-26.76,-10.82,22.34,39.64,-7.285,21,25.69,10.02,26.83,39.87,28.35,17.3,21.36,0,0,0,0,0,0,0,0,0,0,0,0,0,0,0,0,
719,49.22,39.13,4.581,-8.93,-8.015,21.53,52.45,11.47,33.94,41.08,31.52,48.25,48.07,36.93,42.39,32.35,0,0,0,0,0,0,0,0,0,0,0,0,0,0,0,0,
720,49.33,45.01,24.01,38.85,7.633,17.38,8.603,47.15,26.32,34.42,36.7,46.59,46.03,32.45,37.19,24.2,0,0,0,0,0,0,0,0,0,0,0,0,0,0,0,0,
721,31.51,37.06,-16.37,43.8,-25.69,11.23,-12.78,19.43,16.97,12.68,29.93,40.66,46.39,30.74,28.11,20.26,0,0,0,0,0,0,0,0,0,0,0,0,0,0,0,0,
722,40.47,50.51,-31.76,9.076,-41.18,29.86,30.93,4.717,26.48,47.76,41.67,64.79,74.01,59.23,42.21,41.19,0,0,0,0,0,0,0,0,0,0,0,0,0,0,0,0,
723,76.11,86.24,0.0004,15.71,3.791,44.65,50.4,35.74,34.92,75.62,46.68,80.54,90.04,76.24,52.51,53.98,0,0,0,0,0,0,0,0,0,0,0,0,0,0,0,0,
724,81.11,90.13,-0.4876,26.03,24.45,31.35,30.82,32.42,31.14,48.56,35.75,67.36,78.68,66.33,47.81,48.3,0,0,0,0,0,0,0,0,0,0,0,0,0,0,0,0,
725,63.69,68.33,-7.412,10.32,9.304,36.09,26.32,21,26.04,47.97,30.1,47.85,63.8,55.15,31.95,35.38,0,0,0,0,0,0,0,0,0,0,0,0,0,0,0,0,
726,44.8,55.09,27.05,8.701,-0.5362,44.47,32.95,24.02,15.15,50.47,15.46,21.24,39.55,31.99,8.093,13.16,0,0,0,0,0,0,0,0,0,0,0,0,0,0,0,0,
727,14.84,44.5,-12.47,-9.929,-38.2,28.36,64.11,-11.44,6.522,-0.6918,-5.441,-0.312,18.03,7.714,-0.1078,0.7137,0,0,0,0,0,0,0,0,0,0,0,0,0,0,0,0,
728,6.003,34.85,-61.25,-25.86,-57.02,25.93,92.56,-28.26,9.94,-16.94,-5.304,0.7165,21.63,15.79,9.162,8.71,0,0,0,0,0,0,0,0,0,0,0,0,0,0,0,0,
729,16.12,21.26,32.81,29.67,1.208,21.91,31.06,16.36,0.378,22.53,-3.769,-4.331,17.27,25.43,5.295,2.479,0,0,0,0,0,0,0,0,0,0,0,0,0,0,0,0,
730,-4.846,-8.482,62,69.83,27.59,-6.557,-58.42,29.58,-16.59,19.36,-17.17,-25.72,-11.98,5.974,-11.15,-21.32,0,0,0,0,0,0,0,0,0,0,0,0,0,0,0,0,
731,-29.43,-35.09,-49.8,20.68,-28.73,-13.97,-68.14,-6.029,-16.31,-17.18,-20.04,-34.21,-31.39,-9.107,-17.46,-26.07,0,0,0,0,0,0,0,0,0,0,0,0,0,0,0,0,
732,-25.75,-45.71,-39.96,-19.38,-58.97,-14.38,-45.87,-22.63,-19.72,-16.84,-12.3,-30.12,-32.66,-5.164,-17.3,-21.72,0,0,0,0,0,0,0,0,0,0,0,0,0,0,0,0,
733,-29.88,-52,47.37,-3.802,-21.93,-47.71,-48.59,-21.55,-26.51,-5.644,-15.29,-33.37,-37.13,-12.08,-23.02,-32.62,0,0,0,0,0,0,0,0,0,0,0,0,0,0,0,0,
734,-45.07,-58.46,2.206,-19.9,-3.372,-65.43,-59.99,-32.55,-22.79,-30.89,-29.69,-43.02,-48.73,-33.73,-36.07,-42.3,0,0,0,0,0,0,0,0,0,0,0,0,0,0,0,0,
735,-48.11,-60.72,-88.91,-78.01,-47.25,-47.1,-54.15,-56.02,-30.46,-62.69,-40.87,-43.11,-49.06,-38.16,-45,-38.42,0,0,0,0,0,0,0,0,0,0,0,0,0,0,0,0,
736,-42.06,-46.1,-86.28,-64.77,-64,-49.88,-28.21,-65.36,-32.87,-56.39,-30.11,-24.89,-27.16,-16.51,-28.77,-23.2,0,0,0,0,0,0,0,0,0,0,0,0,0,0,0,0,
737,-27.42,-21.17,-29.02,13.24,-24.77,-62.24,-34.22,-28.56,-12.82,-21.63,-8.203,-5.746,-5.099,3.721,-3.086,-5.232,0,0,0,0,0,0,0,0,0,0,0,0,0,0,0,0,
738,-8.64,-13.24,-18.34,10.93,-33.66,-31.82,-71.4,14.62,-8.879,5.498,-6.311,-1.769,-1.219,9.322,-4.048,-5.092,0,0,0,0,0,0,0,0,0,0,0,0,0,0,0,0,
739,0.1591,-14.31,-40.66,-45.29,-61.36,-14.49,-75.63,7.312,-17,2.448,-14.22,-3.847,-4.243,8.719,-14.65,-15.79,0,0,0,0,0,0,0,0,0,0,0,0,0,0,0,0,
740,-5.691,-7.729,-24.07,-34.66,-19.69,-58.82,-66.12,-10.1,-10.89,-11.41,-13.11,-8.477,-7.182,4.413,-11.21,-17.64,0,0,0,0,0,0,0,0,0,0,0,0,0,0,0,0,
741,-21.08,-1.54,-18.46,-36.3,3.547,-80.61,-46.57,-12.7,-10.14,-7.351,-20.43,-19.61,-13.4,-3.845,-16.94,-26.74,0,0,0,0,0,0,0,0,0,0,0,0,0,0,0,0,
742,-33.07,2.552,-67.65,-101.3,-34.86,-47.06,2.942,-40.92,-18.58,-19.28,-37.84,-33.22,-28.15,-21.47,-38.72,-50.78,0,0,0,0,0,0,0,0,0,0,0,0,0,0,0,0,
743,-38.16,-5.216,-104.9,-87.27,-47.42,-27.66,-5.433,-46.35,-19.2,-50.05,-39.48,-42.02,-43.82,-37.16,-47.01,-56.64,0,0,0,0,0,0,0,0,0,0,0,0,0,0,0,0,
744,-34.58,-23.01,-63.97,9.731,-25.49,-24.81,-59.01,15.79,-10.46,-28.79,-21.98,-31.12,-32.92,-19.62,-28.95,-32.17,0,0,0,0,0,0,0,0,0,0,0,0,0,0,0,0,
745,-12.6,-14.59,34.23,40.36,-7.627,-17.12,-37.66,51.46,-3.553,20.57,-6.641,-5.802,-6.095,9.819,-8.569,-14.73,0,0,0,0,0,0,0,0,0,0,0,0,0,0,0,0,
746,4,10.04,36.21,7.879,-9.037,-24.82,2.371,32.24,-16.38,26.15,-7.867,-2.958,-3.729,8.902,-13.04,-21.2,0,0,0,0,0,0,0,0,0,0,0,0,0,0,0,0,
747,-17.24,3.426,-68.34,-8.658,-40.69,-38.73,-20.46,27.98,-34.81,8.923,-24.62,-29.71,-21.42,-7.103,-30.85,-25.63,0,0,0,0,0,0,0,0,0,0,0,0,0,0,0,0,
748,-56.61,-26.44,-55.38,-18.4,-57.28,-55.85,-46.27,21.97,-32.75,-3.884,-45.23,-52.69,-34.36,-18.58,-37.41,-25.38,0,0,0,0,0,0,0,0,0,0,0,0,0,0,0,0,
749,-74.11,-37.61,37.57,-26.5,-22.62,-75.89,-44.77,1.231,-27.67,-6.233,-51.05,-52.57,-34.43,-23.35,-37.29,-29.44,0,0,0,0,0,0,0,0,0,0,0,0,0,0,0,0,
750,-56.71,-22.69,12.07,-37.02,-0.1899,-53.54,-28.49,0.2866,-30.39,-5.064,-41.91,-39.78,-29.59,-21,-38.51,-25.6,0,0,0,0,0,0,0,0,0,0,0,0,0,0,0,0,
751,-29.1,-14.55,-44.98,-70.39,-25.61,-7.435,-2.815,-11.25,-24.9,-34.96,-39.78,-29.8,-36.45,-28.4,-33.18,-20.37,0,0,0,0,0,0,0,0,0,0,0,0,0,0,0,0,
752,-21.2,-23.36,-47.37,-59.92,-32.51,-6.581,1.936,-21.32,-18.27,-51.78,-40.77,-17.8,-32.99,-28.74,-18.37,-15.11,0,0,0,0,0,0,0,0,0,0,0,0,0,0,0,0,
753,-15.49,-12.03,-45.87,23.21,-1.065,-20.46,-9.466,25.85,-14.96,-4.698,-21.72,7.669,5.154,5.733,2.84,11.28,0,0,0,0,0,0,0,0,0,0,0,0,0,0,0,0,
754,6.506,18.98,-5.691,69.8,4.968,-4.747,-9.179,65.84,-2.367,37.97,2.863,31.01,37.83,36.48,24.89,37.03,0,0,0,0,0,0,0,0,0,0,0,0,0,0,0,0,
755,14.25,30.96,55.38,43.64,-14.37,-7.524,-2.228,36.88,4.71,32.94,0.634,30.07,34.15,30.56,29.09,27.87,0,0,0,0,0,0,0,0,0,0,0,0,0,0,0,0,
756,0.1045,27.73,44.89,3.724,-7.202,-30.18,12.98,-1.446,-5.787,15.23,-15.31,18,15.63,11.52,14.62,7.475,0,0,0,0,0,0,0,0,0,0,0,0,0,0,0,0,
757,-1.326,22.38,-0.7851,-19.95,9.232,-8.646,28.66,2.333,-5.612,12.32,-7.673,19.57,2.832,5.194,14.65,9.848,0,0,0,0,0,0,0,0,0,0,0,0,0,0,0,0,
758,9.219,7.551,6.47,5.683,3.137,18.82,15.23,32.4,7.066,18.69,5.576,19.18,-5.93,5.423,20.87,16.25,0,0,0,0,0,0,0,0,0,0,0,0,0,0,0,0,
759,-0.5399,-12.85,24.16,35.97,-0.9247,-10.92,-13.21,39.38,-4.116,-13.78,-12.15,-4.543,-25.76,-14.84,-2.923,-3.123,0,0,0,0,0,0,0,0,0,0,0,0,0,0,0,0,
760,-22.53,-30.46,-30.5,-14.32,6.152,-31.22,-16.17,6.546,-22.77,-59.59,-25.42,-19.68,-43.81,-35.55,-21.07,-22.18,0,0,0,0,0,0,0,0,0,0,0,0,0,0,0,0,
761,-18.82,-30.38,-57.72,-39.29,-2.436,2.356,2.151,-7.591,-7.379,-26.81,-4.601,-2.526,-29.9,-16.64,-2.022,-10.91,0,0,0,0,0,0,0,0,0,0,0,0,0,0,0,0,
762,6.979,-10.22,46.33,42.61,-10.1,22.38,12.17,14.99,21.4,22.67,12.19,14.09,-9.458,2.044,11.67,2.747,0,0,0,0,0,0,0,0,0,0,0,0,0,0,0,0,
763,19.61,-1.556,108.4,69.39,16.92,13.04,24.54,17.62,29.51,-6.096,11.84,10.69,-15.04,-13.26,5.107,-2.412,0,0,0,0,0,0,0,0,0,0,0,0,0,0,0,0,
764,11.57,-6.934,13.22,-4.391,36.64,12.28,49.69,-8.343,16.62,-32.88,5.791,0.0408,-24.04,-19.2,-1.839,-9.88,0,0,0,0,0,0,0,0,0,0,0,0,0,0,0,0,
765,-3.309,-5.236,-37.62,-17.21,20.68,1.621,27.26,-15.06,-3.602,4.622,-6.961,-6.146,-18.49,-0.1805,-1.269,-6.205,0,0,0,0,0,0,0,0,0,0,0,0,0,0,0,0,
766,-12.74,-9.781,46.16,38.5,22.06,-29.6,-45.92,20.59,-11.66,35.12,-6.49,-0.9393,-11.47,10.98,12.53,7.081,0,0,0,0,0,0,0,0,0,0,0,0,0,0,0,0,
767,-12.48,-19.92,47.51,23.85,19.29,-34.07,-52.14,36.43,-19.92,4.962,2.671,0.8516,-18.71,-5.505,12.95,7.201,0,0,0,0,0,0,0,0,0,0,0,0,0,0,0,0,
768,-13.76,-15.13,-90.99,-57.22,-33.31,-1.208,11.59,-20.52,-40.81,-39.42,-2.944,-9.093,-30.89,-26.02,-8.934,-5.269,0,0,0,0,0,0,0,0,0,0,0,0,0,0,0,0,
769,-12.54,-5.358,-100.3,-49.84,-49.73,15.48,24.13,-38.97,-27.86,-16.53,2.635,-2.574,-15.57,-6.935,-4.25,10.43,0,0,0,0,0,0,0,0,0,0,0,0,0,0,0,0,
770,6.198,4.747,53.02,47.93,-9.975,-2.099,3.087,30.8,12.32,38.7,24.02,20.14,10.02,23.67,20.91,38.02,0,0,0,0,0,0,0,0,0,0,0,0,0,0,0,0,
771,19.61,14.68,75.2,43.24,-6.461,-16.43,16.13,35.97,9.491,23.88,25.02,25.77,-1.542,10.99,19.84,29.51,0,0,0,0,0,0,0,0,0,0,0,0,0,0,0,0,
772,10.52,1.895,-15.11,-33.54,-24.41,-14.28,10.73,-8.799,-12.28,-9.092,16.45,17.39,-21.52,-5.792,9.101,13.79,0,0,0,0,0,0,0,0,0,0,0,0,0,0,0,0,
773,6.849,-16.55,-12.66,-1.312,-28.38,-2.039,-17.85,26.28,-3.111,11.37,21.84,13.52,-11.48,6.152,10.41,21.59,0,0,0,0,0,0,0,0,0,0,0,0,0,0,0,0,
774,13.97,-9.647,-9.29,27.34,-31.62,18.89,-8.162,38.29,0.337,-0.4377,20.01,3.864,-11.35,-1.274,-0.189,16.7,0,0,0,0,0,0,0,0,0,0,0,0,0,0,0,0,
775,5.845,-7.357,-34.72,-35.29,-14.9,17.46,7.822,-20.02,-20.32,-38.14,-5.828,-15.49,-28.02,-20.81,-26.22,-5.467,0,0,0,0,0,0,0,0,0,0,0,0,0,0,0,0,
776,-9.241,-16.54,25.53,-23.86,-25.47,-17.6,-0.9998,-10.04,-33.82,7.293,-26.47,-14.41,-10.23,-2.506,-28.21,-2.971,0,0,0,0,0,0,0,0,0,0,0,0,0,0,0,0,
777,-2.46,2.456,59.86,31.25,-71.87,-33.21,2.726,39.38,-25.73,62.3,-12.44,13.25,16.29,15.55,-2.214,12.83,0,0,0,0,0,0,0,0,0,0,0,0,0,0,0,0,
778,17.21,21.26,4.737,14.39,-27.93,-6.686,9.629,34.12,-1.5,35.41,9.741,23.01,-0.3749,-5.369,3.257,7.588,0,0,0,0,0,0,0,0,0,0,0,0,0,0,0,0,
779,18.22,-0.1979,-0.8262,0.7886,63.12,15.14,-4.129,14.83,16.57,6.038,11.93,7.418,-16.59,-15.48,-7.667,6.299,0,0,0,0,0,0,0,0,0,0,0,0,0,0,0,0,
780,7.749,-14.33,32.83,-3.637,62.62,15.83,-7.5,0.285,23.36,10.12,21.18,10.38,5.659,8.301,9.846,31.57,0,0,0,0,0,0,0,0,0,0,0,0,0,0,0,0,
781,22.46,12.13,-1.268,-13.99,38.8,40.65,16.01,-15.37,42.65,18.55,49.66,34.27,31.51,32.84,38.31,57.59,0,0,0,0,0,0,0,0,0,0,0,0,0,0,0,0,
782,55.41,41.69,-55.14,9.287,47.63,82.1,38.22,-22.49,60.12,35.48,59.37,43.71,38.36,42.14,43.75,63.47,0,0,0,0,0,0,0,0,0,0,0,0,0,0,0,0,
783,57.92,39.16,-29.85,-19.5,40.36,62.06,25.12,-46.89,46.77,16.74,31.84,26.78,22.85,24.42,30.29,46.05,0,0,0,0,0,0,0,0,0,0,0,0,0,0,0,0,
784,22.26,3.664,25.56,-83.07,45.63,-0.014,-13.19,-75.98,23.03,-39.25,1.445,3.344,-2.844,-5.302,11.84,23.71,0,0,0,0,0,0,0,0,0,0,0,0,0,0,0,0,
785,-5.029,-22.35,4.207,-57.26,56.04,-7.037,-24.97,-87.33,13.31,-34.51,3.021,0.6305,-2.13,0.5397,8.282,26.44,0,0,0,0,0,0,0,0,0,0,0,0,0,0,0,0,
786,-2.205,-4.122,-37.58,-26.42,31.71,12.76,-16.14,-97.3,13.63,17.49,16,9.354,12.13,20.91,16.86,38.17,0,0,0,0,0,0,0,0,0,0,0,0,0,0,0,0,
787,5.087,15.5,-23.37,-54.22,35.69,1.414,-21.52,-81.7,16.83,12.88,8.15,4.361,1.524,4.469,7.824,25.73,0,0,0,0,0,0,0,0,0,0,0,0,0,0,0,0,
788,7.474,1.124,-32.08,-55,62.88,15.82,-12.87,-52.7,17.32,-37.95,-3.928,-1.01,-16.79,-25.51,-15.26,-1.959,0,0,0,0,0,0,0,0,0,0,0,0,0,0,0,0,
789,15.71,-14.94,-55.19,-45.77,40.13,45.99,-3.675,-68.4,18.93,-54.5,-0.5522,7.088,-18.29,-29.49,-20.45,-14.67,0,0,0,0,0,0,0,0,0,0,0,0,0,0,0,0,
790,21.06,-12.4,8.579,-46.69,30.19,19.99,-34.08,-77.28,34.4,-20.82,11.76,20.85,-2.357,-8.567,5.495,7.877,0,0,0,0,0,0,0,0,0,0,0,0,0,0,0,0,
791,21.57,3.994,59.38,2.693,74.05,2.696,-43.16,-36.18,51.38,9.115,25.62,34.88,20.46,11.09,34.07,38.66,0,0,0,0,0,0,0,0,0,0,0,0,0,0,0,0,
792,23.05,19.38,-9.846,43.37,71.82,30.74,-18.97,-24.38,42.95,-2.347,23.63,29.73,18.79,1.797,22.23,27.56,0,0,0,0,0,0,0,0,0,0,0,0,0,0,0,0,
793,15.2,8.893,-62.62,-16.48,26.54,26.88,-23.05,-55.84,22.92,-14.7,2.687,5.466,-0.7605,-11,-8.324,1.219,0,0,0,0,0,0,0,0,0,0,0,0,0,0,0,0,
794,10.02,-2.569,-19.3,-80.88,35.54,16.34,-13.58,-66.32,18.02,0.3554,-8.926,-1.763,3.671,6.522,-6.811,9.925,0,0,0,0,0,0,0,0,0,0,0,0,0,0,0,0,
795,17.11,9.793,9.326,-47.88,59,26.09,14.76,-62.86,10.46,-8.126,-4.911,4.009,13.59,14.66,10.14,23.76,0,0,0,0,0,0,0,0,0,0,0,0,0,0,0,0,
796,9.552,2.317,-13.41,-15.56,46.29,-6.309,-18.98,-59.29,-1.763,-35.59,5.86,3.163,4.655,1.15,20.45,23.93,0,0,0,0,0,0,0,0,0,0,0,0,0,0,0,0,
797,-4.542,-23.52,-41.52,-41.04,50.47,-34.24,-63.83,-40.54,8.7,-16.85,17.83,9.483,6.143,12.82,36.39,40.96,0,0,0,0,0,0,0,0,0,0,0,0,0,0,0,0,
798,-7.823,-19.92,-53.26,-35.15,42.3,-22.75,-48.29,-46.6,12.57,3.014,5.807,10.02,13.06,23.74,39.23,51.06,0,0,0,0,0,0,0,0,0,0,0,0,0,0,0,0,
799,-24.41,-9.292,-31.63,-16.19,-20.59,-43.64,-26.48,-84.44,-13.44,-26.59,-20.73,-7.666,5.42,2.114,23.46,27.12,0,0,0,0,0,0,0,0,0,0,0,0,0,0,0,0,
800,-37.06,-14.77,-31.12,-50.75,-46.78,-55.48,-27.36,-86.11,-23.59,-29.79,-20.69,-13.44,5.235,-1.791,20.14,9.219,0,0,0,0,0,0,0,0,0,0,0,0,0,0,0,0,
801,-23.34,-17.58,-69.71,-85.63,-7.661,-25.14,-36.53,-69.39,-10.21,-2.529,-11.08,-12.09,4.624,8.978,20.25,6.425,0,0,0,0,0,0,0,0,0,0,0,0,0,0,0,0,
802,-21.07,-24.01,-39.18,-83.18,29.69,-33.32,-46.31,-86.21,-1.228,-14.25,-13,-22.36,-13.69,-6.354,9.595,-7.964,0,0,0,0,0,0,0,0,0,0,0,0,0,0,0,0,
803,-25.14,-28.52,-3.66,-64.12,48.44,-42.39,-29.36,-85,9.262,-28.33,-4.15,-20.57,-22.76,-18.02,5.296,-22.21,0,0,0,0,0,0,0,0,0,0,0,0,0,0,0,0,
804,-6.023,-17.79,-78.65,-44.01,29.63,0.3465,-7.135,-52.28,15.67,-19.46,7.347,-5.792,-17.09,-12.04,6.617,-23.18,0,0,0,0,0,0,0,0,0,0,0,0,0,0,0,0,
805,7.334,-14.01,-78.05,-30.3,-5.455,14.56,-21.11,-46.42,11.92,-16.52,3.549,-1.637,-9.537,-5.554,7.009,-15.85,0,0,0,0,0,0,0,0,0,0,0,0,0,0,0,0,
806,2.474,-16.44,48.17,-11.12,17.87,-13.3,-38.94,-53.63,11.87,-11.93,-6.346,-10.12,-6.916,-2.509,0.161,-13.98,0,0,0,0,0,0,0,0,0,0,0,0,0,0,0,0,
807,-11.11,-21.74,50.09,-9.443,45.64,-30.79,-40.43,-59.36,2.241,-37.62,-16.62,-27.63,-29.15,-26.32,-15.92,-32.99,0,0,0,0,0,0,0,0,0,0,0,0,0,0,0,0,
808,-35.95,-48.96,-31.94,-37.39,15.11,-37.01,-49.72,-77.95,-13.27,-84.19,-11.02,-34.54,-49.06,-49.29,-8.387,-41.48,0,0,0,0,0,0,0,0,0,0,0,0,0,0,0,0,
809,-38.38,-60.27,-24.41,-31.75,0.9006,-21.53,-54.47,-61.46,1.476,-51.31,11.15,-16.24,-26.85,-20.15,18.02,-18.52,0,0,0,0,0,0,0,0,0,0,0,0,0,0,0,0,
810,-8.654,-30.47,-32.15,-17.86,9.739,13.4,-33.73,-17.95,28.57,16.59,15.65,-3.343,-3.913,6.018,15.66,-5.778,0,0,0,0,0,0,0,0,0,0,0,0,0,0,0,0,
811,2.609,-21.33,-58.24,-57.87,-7.988,23.39,-4.597,-24.35,25.39,2.453,5.456,-9.466,-9.787,-9.108,0.431,-5.574,0,0,0,0,0,0,0,0,0,0,0,0,0,0,0,0,
812,-5.963,-44.19,12.51,-56.78,2.682,8.962,5.581,-48.11,10.34,-38.89,6.989,-7.567,-10.24,-12.35,5.923,8.292,0,0,0,0,0,0,0,0,0,0,0,0,0,0,0,0,
813,-1.398,-41.27,61.16,16.5,57.17,3.337,-3.813,-38.78,15.28,-22.15,15.29,4.282,2.455,0.7605,16.58,14.73,0,0,0,0,0,0,0,0,0,0,0,0,0,0,0,0,
814,0.1815,-19.56,26.99,29.73,71.3,1.281,-8.496,-34.38,15.97,9.744,17.39,3.846,5.063,-1.605,16.93,5.556,0,0,0,0,0,0,0,0,0,0,0,0,0,0,0,0,
815,-10.3,-20.75,26.89,-10.12,28.17,-7.638,-12.37,-33.82,-7.51,-11.69,5.915,-7.843,-9.454,-16.42,7.568,-4.924,0,0,0,0,0,0,0,0,0,0,0,0,0,0,0,0,
816,-5.406,-32.17,28.88,-15.6,-5.13,1.875,-26.54,-25.45,-12.98,-60.23,-4.867,-4.554,-17.36,-27.79,6.451,-12.37,0,0,0,0,0,0,0,0,0,0,0,0,0,0,0,0,
817,18.01,-23.77,-21.56,-34.24,10.11,33.54,-14.41,-37.81,18.13,-49.65,12.64,22.11,6.317,-12.63,31.43,-1.656,0,0,0,0,0,0,0,0,0,0,0,0,0,0,0,0,
818,34.98,-2.737,-25.51,-47.74,40.1,40.63,15.7,-39.74,39.41,3.919,41.46,40.97,33.05,17.31,56.53,20.8,0,0,0,0,0,0,0,0,0,0,0,0,0,0,0,0,
819,29.92,5.544,32.81,9.805,42.49,16.89,10.57,-23.87,35.21,11.72,52.01,37.9,36.43,25.1,61.4,31.71,0,0,0,0,0,0,0,0,0,0,0,0,0,0,0,0,
820,20.77,9.093,47.37,26.81,45.52,18.72,11.2,-40.44,40.03,3.789,56.36,42.6,49.89,31.61,67.92,43.66,0,0,0,0,0,0,0,0,0,0,0,0,0,0,0,0,
821,38.13,30.65,20.18,-16.93,72.89,46.94,43.53,-49.66,61.59,21.63,62.33,56.57,72.19,47.07,75.31,55.24,0,0,0,0,0,0,0,0,0,0,0,0,0,0,0,0,
822,56.58,39.73,34.01,7.59,65.14,43.35,32.83,-24.54,63.52,-7.533,53.47,45.58,54.04,25.03,56.4,35.68,0,0,0,0,0,0,0,0,0,0,0,0,0,0,0,0,
823,37.11,7.226,51.83,22.12,13.03,19.21,-3.167,-20.83,32.35,-58.73,37.43,22.72,16.49,-11.04,28.88,7.35,0,0,0,0,0,0,0,0,0,0,0,0,0,0,0,0,
824,20.82,-16.9,18.72,-39,4.522,25.73,-0.2963,-18.4,20.5,-22.49,43.15,29.09,19.14,3.443,35.9,15.4,0,0,0,0,0,0,0,0,0,0,0,0,0,0,0,0,
825,38.96,0.0081,13.72,-23.54,45.11,40.47,0.7168,2.574,46.35,32.76,61.03,45.18,39.22,31.55,56.33,33.99,0,0,0,0,0,0,0,0,0,0,0,0,0,0,0,0,
826,41.48,12.56,40.58,39.73,52.16,28.44,0.5581,-12.9,39.83,1.803,51.37,28.78,24.11,15.52,40.35,20.52,0,0,0,0,0,0,0,0,0,0,0,0,0,0,0,0,
827,14.4,2.67,-3.799,7.31,13.42,17.24,29.8,-45.4,-3.517,-33.66,23.45,1.198,1.421,-6.425,10.98,0.6752,0,0,0,0,0,0,0,0,0,0,0,0,0,0,0,0,
828,5.694,1.537,-55.4,-18.84,-18.8,27.56,21.94,-32.08,-2.783,2.36,18.79,2.405,13.41,5.892,8.285,5.515,0,0,0,0,0,0,0,0,0,0,0,0,0,0,0,0,
829,21.11,5.282,-6.141,27.78,-8.552,27.69,-22.03,5.924,27.81,29.84,27.96,11.49,21.03,13.72,8.913,8.931,0,0,0,0,0,0,0,0,0,0,0,0,0,0,0,0,
830,16.16,-14.13,47.44,1.076,13.77,-7.67,-22.49,-0.3774,12.77,-17.08,15.44,-10.24,-12.75,-15.43,-12.38,-13.86,0,0,0,0,0,0,0,0,0,0,0,0,0,0,0,0,
831,-22.79,-44.21,1.531,-78.76,-12.08,-43.48,-13.3,-40.73,-27.6,-69.47,-10.79,-44.24,-42.84,-45.07,-35.26,-42.03,0,0,0,0,0,0,0,0,0,0,0,0,0,0,0,0,
832,-51.12,-46.77,-56.1,-43.66,-32.37,-36.2,-28.33,-25.37,-34.25,-42.07,-13.49,-45.45,-25.73,-31.18,-29.85,-40.22,0,0,0,0,0,0,0,0,0,0,0,0,0,0,0,0,
833,-34.74,-11.31,-12.19,30.59,9.359,3.159,10.42,7.356,-11.31,26.69,15.77,-12.23,15.78,10.44,2.067,-7.771,0,0,0,0,0,0,0,0,0,0,0,0,0,0,0,0,
834,5.515,28.31,63.79,0.4986,6.714,48.04,83.85,-40.35,10.88,38.89,42.07,17.63,32.47,23.5,24.42,9.976,0,0,0,0,0,0,0,0,0,0,0,0,0,0,0,0,
835,32.4,21.28,45.4,-18.37,-36.35,59.99,52.05,-61.37,20.23,-3.786,38.89,17.26,7.041,-2.387,17.8,-5.949,0,0,0,0,0,0,0,0,0,0,0,0,0,0,0,0,
836,20.18,-28.06,2.854,41.77,16.71,3.435,-51.82,7.729,13.61,-20.38,17.33,-6.855,-21.38,-17.36,-5.338,-18.38,0,0,0,0,0,0,0,0,0,0,0,0,0,0,0,0,
837,-23.92,-52.86,25.14,22.61,57.71,-53.05,-60.57,13.19,-8.938,-16.26,-9.601,-34.62,-27.04,-18.86,-36.4,-22.1,0,0,0,0,0,0,0,0,0,0,0,0,0,0,0,0,
838,-54.53,-41.18,10.15,-53.69,-19.74,-36.48,-13.21,-34.63,-29.52,-48.19,-28.28,-47.77,-33.8,-38.94,-56.25,-37.97,0,0,0,0,0,0,0,0,0,0,0,0,0,0,0,0,
839,-45.14,-33.26,-38.82,-6.723,-29.7,-0.6914,-17.84,-2.206,-20.53,-54.2,-14.91,-32.54,-30.61,-39.49,-42.03,-39.07,0,0,0,0,0,0,0,0,0,0,0,0,0,0,0,0,
840,-12.65,-15.76,-0.4114,62.22,34.47,18.76,10.41,26.27,3.385,0.7366,13.89,-8.721,-7.793,-11.39,-21.19,-18.8,0,0,0,0,0,0,0,0,0,0,0,0,0,0,0,0,
841,7.781,5.653,22.09,2.968,-12.16,36.54,68.34,-10.48,-1.095,11.5,18.58,-11,-11.03,-12.67,-25.53,-14.56,0,0,0,0,0,0,0,0,0,0,0,0,0,0,0,0,
842,-3.289,-12.01,-45.24,-25.44,-54.57,18.53,25.29,0.817,-24.22,-4.601,5.305,-27.64,-27.86,-21.47,-42.72,-25.23,0,0,0,0,0,0,0,0,0,0,0,0,0,0,0,0,
843,-26.46,-30.41,-36.91,31.54,11.64,-27.07,-37.81,32.29,-33.53,16.73,-16.09,-44.43,-27.24,-18.36,-70.49,-43.87,0,0,0,0,0,0,0,0,0,0,0,0,0,0,0,0,
844,-45.84,-22.39,39.85,-2.569,6.142,-42.77,-26.04,-4.576,-35.97,-13.1,-44.44,-64.85,-39.07,-42.54,-93.19,-63.99,0,0,0,0,0,0,0,0,0,0,0,0,0,0,0,0,
845,-55.99,-28.34,31.89,-51.02,-56.94,-32.93,-24.09,-18.64,-31.67,-51.42,-41.22,-53.78,-38.51,-44.26,-68.3,-45.61,0,0,0,0,0,0,0,0,0,0,0,0,0,0,0,0,
846,-36.53,-28.3,-14.14,10.1,-28.08,-22.11,-21.33,16,-19.5,-9.186,-13.44,-18.28,-10.29,-11.93,-35.64,-18.82,0,0,0,0,0,0,0,0,0,0,0,0,0,0,0,0,
847,-13.24,-12.94,-27.75,12.29,-10.58,-16.46,19.66,2.331,-26.03,-17.15,-14.93,-21.61,-19.9,-27.33,-47.07,-36.96,0,0,0,0,0,0,0,0,0,0,0,0,0,0,0,0,
848,-24.92,-25.25,-39.51,-42.47,-54.27,-20.21,15.98,-20.44,-40.54,-54.76,-23.56,-39.7,-36.33,-37.1,-50.92,-44.28,0,0,0,0,0,0,0,0,0,0,0,0,0,0,0,0,
849,-33.5,-28.22,-24.89,11.12,-35.63,-15.81,-11.15,-2.682,-36.43,13.87,-15.55,-30.21,-6.438,6.751,-35.62,-20.99,0,0,0,0,0,0,0,0,0,0,0,0,0,0,0,0,
850,-20.18,0.1002,24.39,40.93,5.521,-5.533,0.6002,-6.509,-34.87,42.71,-21.53,-31.76,-0.3346,2.733,-47.78,-28.98,0,0,0,0,0,0,0,0,0,0,0,0,0,0,0,0,
851,-26.29,-5.767,22.24,-31.65,-22.09,-16.79,-10.94,-9.522,-43.77,-33.18,-23.18,-46.56,-28.35,-35.71,-55.94,-46.38,0,0,0,0,0,0,0,0,0,0,0,0,0,0,0,0,
852,-42.19,-32.52,-41.51,-31.09,-59.33,-26.79,-37.85,33.03,-40.71,-36.76,-9.223,-43.91,-26.76,-19.34,-41.16,-34.08,0,0,0,0,0,0,0,0,0,0,0,0,0,0,0,0,
853,-39.11,-26.18,-39.67,25.4,-53.7,-21.81,-13.83,43.54,-32.36,8.025,-20.08,-46.31,-22.99,-4.973,-45.26,-32.03,0,0,0,0,0,0,0,0,0,0,0,0,0,0,0,0,
854,-41.59,-21.52,35.89,13.89,-27.27,-40.5,2.582,-6.098,-37.21,-19.68,-38.76,-59.25,-44.05,-33.11,-56.12,-49.29,0,0,0,0,0,0,0,0,0,0,0,0,0,0,0,0,
