%OpenBCI Raw EXG Data
%Number of channels = 16
%Sample Rate = 125 Hz
%Board = OpenBCI_GUI$BoardCytonSerialDaisy
Sample Index,EXG Channel 0,EXG Channel 1,EXG Channel 2,EXG Channel 3,EXG Channel 4,EXG Channel 5,EXG Channel 6,EXG Channel 7,EXG Channel 8,EXG Channel 9,EXG Channel 10,EXG Channel 11,EXG Channel 12,EXG Channel 13,EXG Channel 14,EXG Channel 15,Accel Channel 0,Accel Channel 1,Accel Channel 2,Other,Other.1,Other.2,Other.3,Other.4,Other.5,Other.6,Analog Channel 0,Analog Channel 1,Analog Channel 2,Timestamp,Other.7,Timestamp (Formatted),Annotations
1,-0.0,0.0,0.0,-0.0,0.0,0.0,0.0,-0.0,-0.0,-0.0,0.0,0.0,0.0,0.0,0.0,0.0,0,0,0,0,0,0,0,0,0,0,0,0,0,0,0,0,T0
2,-24.58,3.382,-14.09,0.994,-7.037,-5.728,-5.33,31.98,-22.25,-3.137,18.56,23.0,10.35,11.91,21.5,18.55,0,0,0,0,0,0,0,0,0,0,0,0,0,0,0,0,
3,-17.65,20.45,-0.9089,8.593,-1.059,5.132,12.35,49.57,-11.35,1.139,32.09,31.85,22.28,23.75,29.93,30.34,0,0,0,0,0,0,0,0,0,0,0,0,0,0,0,0,
4,-5.167,25.97,5.242,12.48,0.1463,15.79,24.83,44.24,-2.692,2.372,36.51,28.18,27.82,22.07,26.09,26.72,0,0,0,0,0,0,0,0,0,0,0,0,0,0,0,0,
5,9.592,35.07,10.99,10.06,11.44,24.52,28.6,48.48,3.421,3.067,51.1,22.57,34.76,13.77,22.42,15.89,0,0,0,0,0,0,0,0,0,0,0,0,0,0,0,0,
6,22.84,52.69,27.29,7.479,30.2,23.63,32.82,48.21,20.01,1.671,53.37,5.279,30.26,-1.296,9.21,-1.632,0,0,0,0,0,0,0,0,0,0,0,0,0,0,0,0,
7,13.07,45.61,21.08,11.67,19.79,4.655,23.42,19.25,13.36,-8.581,33.43,-7.501,11.33,-13.31,-1.898,-14.65,0,0,0,0,0,0,0,0,0,0,0,0,0,0,0,0,
8,0.2785,28.75,0.383,14.23,0.4181,0.1316,12.46,25.35,-3.87,-7.772,36.61,13.06,11.94,2.692,9.608,-5.551,0,0,0,0,0,0,0,0,0,0,0,0,0,0,0,0,
9,-7.366,19.12,-15.9,-2.403,-4.371,12.65,15.3,54.2,0.8415,3.05,40.46,23.05,17.7,12.34,6.742,-2.16,0,0,0,0,0,0,0,0,0,0,0,0,0,0,0,0,
10,-17.17,10.18,-29.52,-6.045,-8.241,15.12,21.54,32.51,2.373,2.362,28.74,8.158,13.08,3.033,-4.846,-4.693,0,0,0,0,0,0,0,0,0,0,0,0,0,0,0,0,
11,-6.758,26.44,-18.0,27.54,5.224,22.92,30.89,29.39,4.928,14.86,51.03,26.79,31.14,24.23,17.25,20.24,0,0,0,0,0,0,0,0,0,0,0,0,0,0,0,0,
12,9.298,52.78,8.408,37.0,31.85,38.79,39.95,74.92,29.52,47.77,74.72,53.87,52.23,48.39,32.05,39.7,0,0,0,0,0,0,0,0,0,0,0,0,0,0,0,0,
13,12.84,43.17,16.57,10.42,38.69,45.12,46.84,78.99,43.72,58.11,70.35,49.03,53.11,43.06,29.51,37.83,0,0,0,0,0,0,0,0,0,0,0,0,0,0,0,0,
14,32.69,31.19,24.24,17.01,44.33,56.63,60.77,73.3,44.09,52.96,80.36,56.33,59.94,51.39,47.48,47.38,0,0,0,0,0,0,0,0,0,0,0,0,0,0,0,0,
15,47.95,47.34,30.69,33.77,52.31,67.9,53.17,96.07,44.28,58.04,70.42,61.58,47.98,49.42,40.79,40.22,0,0,0,0,0,0,0,0,0,0,0,0,0,0,0,0,
16,26.01,49.39,12.27,5.988,35.01,57.32,17.4,75.55,20.34,48.64,28.72,32.38,12.82,12.18,6.661,10.26,0,0,0,0,0,0,0,0,0,0,0,0,0,0,0,0,
17,6.923,31.9,-2.479,-12.9,22.1,44.7,14.59,46.81,-0.3216,29.72,34.16,27.08,22.71,11.24,19.95,16.17,0,0,0,0,0,0,0,0,0,0,0,0,0,0,0,0,
18,13.26,32.09,5.188,11.95,36.65,48.12,44.94,69.8,23.2,34.94,73.24,54.53,65.07,46.39,58.4,43.97,0,0,0,0,0,0,0,0,0,0,0,0,0,0,0,0,
19,24.45,50.03,13.55,32.55,49.05,54.35,54.79,83.99,50.61,47.15,88.66,61.16,78.28,52.51,63.8,44.07,0,0,0,0,0,0,0,0,0,0,0,0,0,0,0,0,
20,26.49,59.12,13.97,30.41,47.2,43.99,51.17,71.88,51.51,42.59,88.64,49.33,72.09,39.79,50.13,28.97,0,0,0,0,0,0,0,0,0,0,0,0,0,0,0,0,
21,9.167,43.21,1.935,21.0,35.26,20.79,45.77,58.03,42.88,31.66,75.18,35.69,66.32,32.33,39.01,24.52,0,0,0,0,0,0,0,0,0,0,0,0,0,0,0,0,
22,-4.048,25.82,-12.83,11.1,25.59,22.96,33.55,38.67,34.19,27.97,59.92,25.17,62.74,27.73,36.17,34.21,0,0,0,0,0,0,0,0,0,0,0,0,0,0,0,0,
23,13.75,33.86,-6.319,4.865,35.02,50.9,33.69,48.88,34.69,37.7,63.62,28.58,65.17,29.37,39.27,41.85,0,0,0,0,0,0,0,0,0,0,0,0,0,0,0,0,
24,24.98,41.79,2.33,2.365,43.27,54.07,35.23,84.73,38.31,47.95,63.84,34.42,64.85,31.07,42.12,34.53,0,0,0,0,0,0,0,0,0,0,0,0,0,0,0,0,
25,13.39,43.86,-5.625,10.36,41.2,41.8,29.8,83.18,36.33,44.1,62.41,32.58,67.71,32.07,52.62,30.71,0,0,0,0,0,0,0,0,0,0,0,0,0,0,0,0,
26,16.23,52.44,-8.906,20.09,45.45,51.31,39.01,53.28,44.23,40.49,70.68,25.84,70.94,31.86,58.53,31.42,0,0,0,0,0,0,0,0,0,0,0,0,0,0,0,0,
27,12.42,27.46,-15.22,6.98,32.26,47.05,35.84,38.73,38.59,37.88,59.2,17.87,47.8,22.26,45.04,19.86,0,0,0,0,0,0,0,0,0,0,0,0,0,0,0,0,
28,-18.3,-5.067,-29.32,-3.34,6.124,17.75,18.52,48.49,3.872,27.81,46.85,30.81,26.92,25.22,44.13,20.41,0,0,0,0,0,0,0,0,0,0,0,0,0,0,0,0,
29,-15.8,25.46,-16.73,6.853,16.13,20.16,33.5,70.26,-0.8959,34.99,65.94,54.85,42.28,43.22,62.87,38.59,0,0,0,0,0,0,0,0,0,0,0,0,0,0,0,0,
30,13.35,52.86,2.206,-6.702,34.24,42.24,46.17,67.66,24.01,49.19,70.82,46.95,53.09,39.0,60.73,35.93,0,0,0,0,0,0,0,0,0,0,0,0,0,0,0,0,
31,7.752,24.84,-3.908,-27.83,25.76,36.79,33.46,47.31,22.04,35.14,49.54,32.31,46.15,30.15,44.84,27.03,0,0,0,0,0,0,0,0,0,0,0,0,0,0,0,0,
32,4.732,21.74,1.285,-0.3512,30.39,32.75,45.05,53.42,19.84,32.08,52.8,49.8,55.94,47.73,47.66,42.07,0,0,0,0,0,0,0,0,0,0,0,0,0,0,0,0,
33,20.68,45.76,9.712,29.05,37.65,36.03,56.44,57.07,37.28,57.71,69.78,55.21,66.03,50.4,52.73,44.82,0,0,0,0,0,0,0,0,0,0,0,0,0,0,0,0,
34,-2.189,25.05,-14.61,-0.7096,11.49,10.92,37.85,28.23,32.11,46.57,62.2,25.96,53.75,19.83,42.03,19.31,0,0,0,0,0,0,0,0,0,0,0,0,0,0,0,0,
35,-32.08,-13.26,-26.32,-39.78,-4.531,-5.66,34.84,14.15,13.94,6.919,46.12,11.78,44.63,2.891,28.44,4.314,0,0,0,0,0,0,0,0,0,0,0,0,0,0,0,0,
36,-17.43,-8.134,-4.202,-27.31,14.98,14.19,44.98,32.99,13.53,5.825,46.89,26.45,52.33,14.31,27.05,10.25,0,0,0,0,0,0,0,0,0,0,0,0,0,0,0,0,
37,4.528,20.52,9.442,-2.311,34.99,24.11,47.0,53.37,22.68,26.82,62.42,40.81,64.99,30.1,45.77,21.69,0,0,0,0,0,0,0,0,0,0,0,0,0,0,0,0,
38,10.37,15.81,9.839,-17.69,39.74,18.97,54.03,66.08,35.36,36.15,72.18,48.2,74.17,40.75,63.71,31.17,0,0,0,0,0,0,0,0,0,0,0,0,0,0,0,0,
39,8.877,-7.7,5.014,-33.47,32.43,23.85,49.8,72.68,41.37,47.82,61.37,49.65,71.73,43.63,52.91,31.91,0,0,0,0,0,0,0,0,0,0,0,0,0,0,0,0,
40,1.5,9.005,-4.862,-15.02,21.2,23.24,37.48,65.92,32.35,55.61,46.51,40.69,58.13,35.0,34.02,27.45,0,0,0,0,0,0,0,0,0,0,0,0,0,0,0,0,
41,-1.394,37.17,-5.018,-10.57,17.25,13.1,42.26,47.99,23.26,42.84,43.08,29.71,45.58,22.03,30.1,25.38,0,0,0,0,0,0,0,0,0,0,0,0,0,0,0,0,
42,-6.509,21.57,-5.295,-29.47,13.69,3.489,42.81,34.03,12.44,23.5,41.16,23.35,35.71,12.6,27.27,23.55,0,0,0,0,0,0,0,0,0,0,0,0,0,0,0,0,
43,-22.49,-3.953,-13.41,-31.85,5.713,-9.019,35.74,31.5,-7.055,9.599,36.54,15.26,23.85,2.519,24.19,19.8,0,0,0,0,0,0,0,0,0,0,0,0,0,0,0,0,
44,-26.34,-10.01,-11.82,-30.76,2.412,-3.399,37.55,32.59,-15.4,1.238,32.82,8.012,18.55,-4.537,28.27,14.61,0,0,0,0,0,0,0,0,0,0,0,0,0,0,0,0,
45,-14.26,-14.15,-11.84,-39.76,6.25,26.0,28.42,31.0,-5.376,6.286,27.8,12.06,26.28,6.827,29.73,15.42,0,0,0,0,0,0,0,0,0,0,0,0,0,0,0,0,
46,-12.03,-10.04,-24.97,-39.72,8.981,24.94,12.44,22.6,6.83,21.64,25.13,19.92,36.31,25.16,29.38,26.95,0,0,0,0,0,0,0,0,0,0,0,0,0,0,0,0,
47,-18.69,4.475,-28.53,-35.54,4.141,-13.45,13.46,16.66,15.96,28.1,32.36,20.85,42.1,29.39,35.96,34.62,0,0,0,0,0,0,0,0,0,0,0,0,0,0,0,0,
48,-16.57,4.316,-20.14,-31.56,0.0611,-26.56,20.13,34.03,22.96,25.73,39.17,21.49,41.3,26.24,35.3,26.95,0,0,0,0,0,0,0,0,0,0,0,0,0,0,0,0,
49,-20.62,-15.89,-21.21,-29.99,-3.11,-20.77,18.15,46.55,13.54,19.76,24.09,18.93,22.18,13.67,14.19,13.22,0,0,0,0,0,0,0,0,0,0,0,0,0,0,0,0,
50,-37.57,-33.27,-27.0,-45.99,-12.22,-29.44,8.218,24.52,-12.58,-1.502,4.728,6.923,2.422,-7.367,-1.05,10.18,0,0,0,0,0,0,0,0,0,0,0,0,0,0,0,0,
51,-28.34,-30.33,-17.13,-53.27,-1.684,-6.359,6.017,17.98,-13.65,-14.43,16.2,3.472,17.05,-3.932,11.49,21.26,0,0,0,0,0,0,0,0,0,0,0,0,0,0,0,0,
52,4.115,-17.71,-3.689,-33.11,29.38,39.9,22.06,39.84,23.52,13.76,30.85,13.99,41.2,17.26,25.0,30.77,0,0,0,0,0,0,0,0,0,0,0,0,0,0,0,0,
53,8.409,-5.213,-11.31,-26.78,34.24,28.31,26.52,36.09,46.57,40.39,18.33,19.38,37.51,19.32,21.07,30.18,0,0,0,0,0,0,0,0,0,0,0,0,0,0,0,0,
54,-6.047,12.7,-24.83,-31.78,17.82,-10.91,12.83,22.77,36.91,28.53,9.073,13.33,26.84,9.709,11.24,21.59,0,0,0,0,0,0,0,0,0,0,0,0,0,0,0,0,
55,-4.995,20.98,-24.41,-14.4,9.609,-10.63,11.51,24.09,22.69,15.44,3.395,-0.9812,18.64,-2.553,-2.002,5.022,0,0,0,0,0,0,0,0,0,0,0,0,0,0,0,0,
56,-1.981,6.439,-22.69,-12.81,-2.333,0.718,9.245,8.438,1.416,13.22,-18.72,-17.06,-3.3,-23.54,-11.61,-9.473,0,0,0,0,0,0,0,0,0,0,0,0,0,0,0,0,
57,-3.171,-9.886,-20.7,-44.81,-8.446,3.753,-2.137,1.058,-21.56,0.3369,-25.11,-21.78,-19.54,-35.36,-10.69,-15.16,0,0,0,0,0,0,0,0,0,0,0,0,0,0,0,0,
58,4.021,-9.053,-5.483,-50.33,7.091,9.868,5.729,30.04,-17.51,-7.405,-8.496,-12.77,-12.01,-26.74,-6.117,-10.93,0,0,0,0,0,0,0,0,0,0,0,0,0,0,0,0,
59,9.595,5.388,8.838,-21.57,17.95,0.3298,14.13,42.36,1.493,2.137,1.977,1.736,7.438,-7.336,9.095,10.86,0,0,0,0,0,0,0,0,0,0,0,0,0,0,0,0,
60,5.461,13.79,2.804,-8.955,15.49,-17.95,6.243,27.13,16.59,10.39,15.21,12.36,29.28,10.53,30.43,31.71,0,0,0,0,0,0,0,0,0,0,0,0,0,0,0,0,
61,2.653,4.553,-11.38,-15.86,13.62,-14.98,15.02,22.77,31.76,12.06,30.82,10.5,38.8,12.17,35.08,28.23,0,0,0,0,0,0,0,0,0,0,0,0,0,0,0,0,
62,5.412,-4.808,-10.07,-20.8,12.66,3.659,31.02,17.72,34.7,13.78,26.52,0.8415,28.21,0.8998,35.02,20.71,0,0,0,0,0,0,0,0,0,0,0,0,0,0,0,0,
63,15.11,-5.988,8.739,-19.49,19.43,22.54,29.15,14.78,26.35,16.56,24.59,4.48,23.97,0.2705,49.55,27.6,0,0,0,0,0,0,0,0,0,0,0,0,0,0,0,0,
64,33.2,-2.47,27.07,-9.551,33.77,29.5,29.87,42.13,29.62,23.51,37.2,25.14,36.77,14.85,58.13,32.86,0,0,0,0,0,0,0,0,0,0,0,0,0,0,0,0,
65,37.85,19.47,27.88,-1.663,38.53,17.86,30.81,57.36,36.17,31.14,30.16,31.67,41.74,24.22,45.26,27.66,0,0,0,0,0,0,0,0,0,0,0,0,0,0,0,0,
66,23.69,45.52,18.75,-1.103,38.84,17.55,26.19,33.4,35.59,31.66,17.31,21.47,42.13,25.11,37.13,28.69,0,0,0,0,0,0,0,0,0,0,0,0,0,0,0,0,
67,22.74,39.7,19.0,3.381,44.18,37.29,39.07,28.28,43.13,35.19,32.4,29.89,53.61,32.22,45.79,38.86,0,0,0,0,0,0,0,0,0,0,0,0,0,0,0,0,
68,28.91,19.12,16.7,-6.411,37.88,32.97,42.44,49.38,48.01,43.48,39.05,45.16,51.09,36.31,43.45,36.77,0,0,0,0,0,0,0,0,0,0,0,0,0,0,0,0,
69,24.08,20.5,5.853,-28.85,25.52,18.8,21.64,57.29,32.71,37.56,26.34,44.24,36.28,32.57,38.64,32.74,0,0,0,0,0,0,0,0,0,0,0,0,0,0,0,0,
70,35.95,36.77,20.99,-10.99,38.28,37.32,36.39,61.43,26.98,30.75,40.69,49.07,51.43,42.35,59.7,46.77,0,0,0,0,0,0,0,0,0,0,0,0,0,0,0,0,
71,53.19,48.37,52.47,24.6,60.47,43.68,74.04,54.92,48.44,44.79,60.55,56.97,74.49,55.7,72.11,51.78,0,0,0,0,0,0,0,0,0,0,0,0,0,0,0,0,
72,38.07,40.2,51.34,5.721,55.42,26.18,65.86,38.21,61.84,55.57,50.51,58.67,65.6,55.6,59.51,43.57,0,0,0,0,0,0,0,0,0,0,0,0,0,0,0,0,
73,17.98,2.706,31.74,-29.13,40.16,40.56,42.74,59.32,54.21,52.97,49.5,72.87,58.04,60.99,65.27,52.18,0,0,0,0,0,0,0,0,0,0,0,0,0,0,0,0,
74,19.35,-18.38,29.72,-13.57,42.12,52.34,50.03,85.34,50.55,56.67,61.79,80.99,67.86,69.03,80.44,60.2,0,0,0,0,0,0,0,0,0,0,0,0,0,0,0,0,
75,24.88,18.92,38.19,14.08,49.07,28.8,56.52,65.01,52.8,60.05,50.81,67.16,63.94,60.7,65.99,45.22,0,0,0,0,0,0,0,0,0,0,0,0,0,0,0,0,
76,22.44,51.96,42.89,5.015,45.61,21.52,45.29,46.74,48.43,53.79,35.81,55.66,51.09,46.12,41.91,26.15,0,0,0,0,0,0,0,0,0,0,0,0,0,0,0,0,
77,7.788,32.63,35.94,-18.64,32.84,18.55,36.38,41.61,39.58,41.42,36.79,44.82,45.1,34.63,37.85,17.12,0,0,0,0,0,0,0,0,0,0,0,0,0,0,0,0,
78,-10.27,11.37,22.16,-24.82,21.01,1.098,40.08,23.74,30.24,24.69,36.1,33.19,39.6,29.34,43.94,19.15,0,0,0,0,0,0,0,0,0,0,0,0,0,0,0,0,
79,-14.37,8.305,23.6,-17.66,22.82,16.19,48.77,35.84,25.79,22.04,36.42,42.78,39.75,38.41,43.43,29.6,0,0,0,0,0,0,0,0,0,0,0,0,0,0,0,0,
80,-8.752,7.55,33.36,-12.96,30.13,38.34,44.02,74.54,28.84,38.1,42.45,59.21,44.32,51.59,37.92,35.35,0,0,0,0,0,0,0,0,0,0,0,0,0,0,0,0,
81,-5.312,15.06,26.42,-10.24,26.89,24.82,29.34,74.2,29.85,45.22,36.53,53.28,37.53,49.31,32.22,26.25,0,0,0,0,0,0,0,0,0,0,0,0,0,0,0,0,
82,-5.921,17.24,16.94,-2.714,25.8,19.51,27.66,50.51,27.61,36.61,26.82,39.88,31.7,39.5,30.09,16.19,0,0,0,0,0,0,0,0,0,0,0,0,0,0,0,0,
83,-4.232,20.62,24.46,10.89,38.8,33.7,36.42,56.26,32.92,31.5,33.85,45.75,41.65,44.91,40.2,23.64,0,0,0,0,0,0,0,0,0,0,0,0,0,0,0,0,
84,0.3989,35.11,25.6,21.16,39.78,23.43,38.17,65.99,38.31,32.83,36.44,49.97,40.0,50.34,45.76,27.28,0,0,0,0,0,0,0,0,0,0,0,0,0,0,0,0,
85,-5.788,15.74,6.65,6.27,15.61,-5.803,27.78,44.2,24.35,22.99,17.06,31.19,15.3,33.17,27.63,11.51,0,0,0,0,0,0,0,0,0,0,0,0,0,0,0,0,
86,-15.51,-12.39,-1.89,-24.3,1.339,-8.793,13.48,31.78,5.117,5.224,3.746,26.49,5.641,23.79,16.85,10.85,0,0,0,0,0,0,0,0,0,0,0,0,0,0,0,0,
87,-6.774,16.22,11.55,-24.09,14.43,15.97,14.8,48.12,11.64,7.168,10.94,42.92,21.18,34.74,30.5,28.63,0,0,0,0,0,0,0,0,0,0,0,0,0,0,0,0,
88,5.279,46.26,21.52,5.05,26.0,20.01,30.18,41.51,30.43,17.51,19.72,35.83,30.19,29.58,37.1,29.72,0,0,0,0,0,0,0,0,0,0,0,0,0,0,0,0,
89,-2.741,26.3,18.98,12.68,17.81,-0.7076,28.18,19.69,27.42,6.802,19.37,20.42,24.59,15.77,30.26,20.03,0,0,0,0,0,0,0,0,0,0,0,0,0,0,0,0,
90,-17.39,1.705,15.9,-5.729,3.397,-0.7755,12.17,37.45,8.129,-2.622,18.79,31.64,23.07,24.05,31.48,22.55,0,0,0,0,0,0,0,0,0,0,0,0,0,0,0,0,
91,-20.31,-6.665,20.04,-18.14,-0.4649,7.845,20.76,66.4,1.488,7.569,33.56,41.53,36.63,35.81,42.51,34.3,0,0,0,0,0,0,0,0,0,0,0,0,0,0,0,0,
92,-14.21,-6.094,27.46,-17.78,4.297,-7.525,41.47,57.11,15.38,11.49,50.76,32.01,49.95,33.55,46.13,40.21,0,0,0,0,0,0,0,0,0,0,0,0,0,0,0,0,
93,-0.0482,11.61,30.02,-3.471,9.514,-12.3,38.16,42.7,29.29,8.313,44.5,34.94,48.23,41.15,39.35,39.66,0,0,0,0,0,0,0,0,0,0,0,0,0,0,0,0,
94,21.12,37.88,36.81,20.43,25.17,15.69,36.44,65.22,35.43,24.89,39.13,60.42,53.16,67.22,44.99,49.14,0,0,0,0,0,0,0,0,0,0,0,0,0,0,0,0,
95,25.4,46.39,47.66,20.55,44.08,33.4,50.62,78.12,47.47,48.78,52.41,64.91,63.56,73.56,57.68,54.85,0,0,0,0,0,0,0,0,0,0,0,0,0,0,0,0,
96,8.177,27.34,35.88,0.3389,33.75,24.56,39.67,39.74,45.19,43.28,49.44,35.04,46.03,47.33,47.42,36.85,0,0,0,0,0,0,0,0,0,0,0,0,0,0,0,0,
97,3.975,11.54,15.95,0.2553,10.18,22.71,17.36,21.48,14.25,19.39,33.83,24.02,24.07,30.56,30.72,24.41,0,0,0,0,0,0,0,0,0,0,0,0,0,0,0,0,
98,11.49,17.15,23.35,3.061,10.81,32.24,25.28,50.92,-0.8741,12.63,35.85,36.2,27.3,30.69,29.36,27.39,0,0,0,0,0,0,0,0,0,0,0,0,0,0,0,0,
99,7.379,16.04,35.76,-11.97,22.22,34.3,37.15,45.05,11.24,16.69,42.79,27.42,30.88,23.85,29.78,24.08,0,0,0,0,0,0,0,0,0,0,0,0,0,0,0,0,
100,10.55,10.77,36.1,-12.61,28.79,32.78,36.61,16.28,18.56,16.27,49.62,17.89,32.17,22.5,33.38,24.85,0,0,0,0,0,0,0,0,0,0,0,0,0,0,0,0,
101,23.08,22.06,43.87,-3.106,31.63,21.19,42.48,31.0,21.13,10.43,56.15,28.22,34.61,25.66,36.94,26.14,0,0,0,0,0,0,0,0,0,0,0,0,0,0,0,0,
102,19.99,33.03,43.62,-2.937,19.03,-4.828,36.59,46.28,14.81,-7.029,37.4,25.77,15.61,13.04,22.78,8.795,0,0,0,0,0,0,0,0,0,0,0,0,0,0,0,0,
103,9.589,30.83,21.89,-1.717,-1.083,-15.03,7.487,30.35,-7.206,-20.74,8.64,6.798,-6.022,-2.275,8.428,-7.508,0,0,0,0,0,0,0,0,0,0,0,0,0,0,0,0,
104,-1.924,10.92,6.779,-18.63,-13.78,-10.6,-14.15,15.96,-20.15,-20.16,0.8156,-6.652,-5.378,-11.1,5.896,-12.91,0,0,0,0,0,0,0,0,0,0,0,0,0,0,0,0,
105,-18.51,-17.1,2.195,-45.03,-25.5,-13.68,-13.88,10.04,-19.7,-21.73,-3.069,-4.213,0.024,-12.69,-1.037,-15.29,0,0,0,0,0,0,0,0,0,0,0,0,0,0,0,0,
106,-28.69,-24.52,-5.988,-35.67,-29.38,-10.32,-7.62,12.18,-16.31,-15.55,-6.906,11.37,5.438,0.0627,-1.727,-4.516,0,0,0,0,0,0,0,0,0,0,0,0,0,0,0,0,
107,-33.46,-21.07,-2.217,-22.36,-17.53,-4.35,-5.277,22.35,-6.511,-0.6272,6.859,18.75,14.96,5.986,11.52,9.255,0,0,0,0,0,0,0,0,0,0,0,0,0,0,0,0,
108,-32.28,-21.02,12.24,-33.05,-8.465,-9.88,-4.395,33.06,-1.17,-2.733,13.47,13.72,15.75,-5.232,10.06,4.766,0,0,0,0,0,0,0,0,0,0,0,0,0,0,0,0,
109,-27.65,-22.32,2.077,-30.17,-17.73,-16.41,-13.64,37.43,-11.39,-12.18,-9.594,2.748,4.313,-15.04,-10.34,-12.69,0,0,0,0,0,0,0,0,0,0,0,0,0,0,0,0,
110,-32.35,-35.28,-17.88,-21.84,-31.99,-28.55,-28.18,14.96,-27.3,-19.44,-30.65,-16.31,-6.482,-20.38,-17.47,-27.39,0,0,0,0,0,0,0,0,0,0,0,0,0,0,0,0,
111,-23.14,-29.37,-7.146,-25.48,-23.36,-27.09,-18.28,-6.417,-25.47,-20.25,-18.68,-10.78,6.727,-4.664,5.327,-15.28,0,0,0,0,0,0,0,0,0,0,0,0,0,0,0,0,
112,-8.78,2.45,-2.801,-18.44,-0.3529,12.87,0.8173,23.33,6.596,11.38,13.56,25.65,42.84,34.38,40.47,19.92,0,0,0,0,0,0,0,0,0,0,0,0,0,0,0,0,
113,-24.62,10.99,-13.56,-9.729,9.01,37.39,6.384,56.32,37.76,43.34,35.85,32.66,58.39,40.32,52.47,26.74,0,0,0,0,0,0,0,0,0,0,0,0,0,0,0,0,
114,-9.919,23.55,35.43,-7.789,23.89,18.97,31.9,46.24,43.61,31.22,35.06,14.24,44.88,14.11,34.98,6.108,0,0,0,0,0,0,0,0,0,0,0,0,0,0,0,0,
115,43.59,48.58,97.7,-2.997,49.49,7.998,61.17,36.34,44.3,17.17,29.41,23.14,44.88,20.09,30.49,11.66,0,0,0,0,0,0,0,0,0,0,0,0,0,0,0,0,
116,33.63,17.12,77.75,-15.83,48.84,14.86,50.42,36.68,47.55,29.63,45.83,38.77,66.23,47.33,59.43,33.45,0,0,0,0,0,0,0,0,0,0,0,0,0,0,0,0,
117,3.418,-18.93,62.49,-38.09,44.15,23.71,53.64,24.34,53.7,41.75,78.91,40.36,84.14,58.31,88.34,43.6,0,0,0,0,0,0,0,0,0,0,0,0,0,0,0,0,
118,43.43,10.41,112.6,-40.33,66.23,37.57,93.46,19.06,73.07,50.15,101.3,51.28,91.06,65.53,96.67,61.61,0,0,0,0,0,0,0,0,0,0,0,0,0,0,0,0,
119,66.87,22.75,118.9,-48.74,69.9,41.41,87.24,28.86,83.04,51.19,94.94,56.91,80.3,61.29,88.0,74.71,0,0,0,0,0,0,0,0,0,0,0,0,0,0,0,0,
120,23.61,-13.93,61.13,-68.63,41.34,29.14,29.47,32.48,63.58,32.61,55.94,41.13,51.36,35.75,60.69,54.38,0,0,0,0,0,0,0,0,0,0,0,0,0,0,0,0,
121,-4.619,-27.09,29.33,-62.02,23.37,15.5,-0.3444,18.24,37.08,17.16,13.34,27.28,29.08,20.52,32.95,28.7,0,0,0,0,0,0,0,0,0,0,0,0,0,0,0,0,
122,-6.452,-25.61,29.89,-48.54,14.46,1.968,2.915,-6.359,16.06,14.35,2.524,14.89,18.11,14.58,23.74,11.56,0,0,0,0,0,0,0,0,0,0,0,0,0,0,0,0,
123,-19.54,-44.23,26.16,-52.45,-2.888,-9.803,1.625,-9.726,-6.337,0.4733,4.735,-1.05,2.081,-1.532,15.08,-14.53,0,0,0,0,0,0,0,0,0,0,0,0,0,0,0,0,
124,-22.26,-36.06,25.6,-49.3,-7.686,-14.61,3.042,14.97,-18.19,-14.24,-6.645,-1.895,-8.943,-6.25,-3.796,-32.36,0,0,0,0,0,0,0,0,0,0,0,0,0,0,0,0,
125,-10.4,-1.79,31.98,-52.43,2.94,-13.02,6.258,25.07,-12.56,-9.217,-18.16,-0.5979,-11.03,-0.2615,-18.01,-33.36,0,0,0,0,0,0,0,0,0,0,0,0,0,0,0,0,
126,-18.98,-8.27,29.69,-72.06,3.431,-3.51,-1.709,12.78,-8.229,-6.795,-17.38,-8.15,-11.8,-2.861,-13.6,-30.34,0,0,0,0,0,0,0,0,0,0,0,0,0,0,0,0,
127,-32.16,-29.58,24.84,-63.3,-0.7706,3.576,1.515,15.09,-4.317,-11.32,-2.279,0.2266,5.208,4.284,9.229,-15.3,0,0,0,0,0,0,0,0,0,0,0,0,0,0,0,0,
128,-16.9,-16.25,29.58,-37.02,5.013,-3.0,11.44,29.91,10.41,-2.549,15.37,9.986,25.04,13.09,19.72,-6.143,0,0,0,0,0,0,0,0,0,0,0,0,0,0,0,0,
129,2.59,-7.722,37.89,-33.24,11.35,-0.9422,7.483,27.17,14.71,1.387,19.7,-1.823,21.49,2.573,8.726,-17.49,0,0,0,0,0,0,0,0,0,0,0,0,0,0,0,0,
130,10.9,-11.27,52.85,-24.44,21.62,19.15,21.67,10.49,12.53,-2.83,29.71,-2.175,26.64,6.229,16.16,-9.137,0,0,0,0,0,0,0,0,0,0,0,0,0,0,0,0,
131,19.45,1.054,62.86,-9.527,30.96,18.13,41.87,3.765,28.33,9.732,41.98,14.85,39.74,24.71,34.88,13.24,0,0,0,0,0,0,0,0,0,0,0,0,0,0,0,0,
132,11.58,2.647,39.61,-26.88,14.16,-1.177,17.85,7.844,30.15,18.41,29.48,16.16,28.39,20.59,33.41,12.3,0,0,0,0,0,0,0,0,0,0,0,0,0,0,0,0,
133,-7.417,-14.46,15.72,-52.56,-5.756,2.785,-6.72,3.306,9.7,8.391,21.87,6.582,21.11,7.631,30.83,12.22,0,0,0,0,0,0,0,0,0,0,0,0,0,0,0,0,
134,-14.62,-32.46,21.44,-58.7,-4.028,-1.774,0.782,-8.217,3.427,-2.629,24.82,-0.8828,16.62,-5.441,20.69,17.99,0,0,0,0,0,0,0,0,0,0,0,0,0,0,0,0,
135,-17.86,-41.63,18.94,-53.81,-3.508,-27.81,-5.201,0.5791,-9.771,-19.05,6.877,-4.621,-9.095,-21.6,-4.685,11.04,0,0,0,0,0,0,0,0,0,0,0,0,0,0,0,0,
136,-1.38,-9.538,19.24,-28.47,8.168,-10.29,-9.588,28.79,-27.06,-23.13,6.565,6.319,-6.09,-10.78,1.807,17.72,0,0,0,0,0,0,0,0,0,0,0,0,0,0,0,0,
137,30.42,34.57,48.25,-4.751,36.52,19.84,14.13,39.09,-1.628,1.429,34.46,19.51,25.08,12.15,25.39,33.12,0,0,0,0,0,0,0,0,0,0,0,0,0,0,0,0,
138,22.05,14.77,48.52,-20.26,32.75,6.627,24.17,24.35,25.35,14.73,37.92,18.37,27.2,14.36,16.49,30.36,0,0,0,0,0,0,0,0,0,0,0,0,0,0,0,0,
139,-4.552,-27.54,18.53,-32.2,15.02,15.53,24.43,15.87,24.22,19.48,35.41,16.15,25.98,17.07,3.034,28.45,0,0,0,0,0,0,0,0,0,0,0,0,0,0,0,0,
140,-0.1244,-20.01,23.45,-12.21,26.59,40.1,42.72,21.59,38.26,35.53,52.74,18.34,39.74,19.81,7.905,30.03,0,0,0,0,0,0,0,0,0,0,0,0,0,0,0,0,
141,3.025,3.826,39.14,-10.34,30.78,8.576,46.09,26.75,44.67,18.84,57.9,19.85,34.2,7.722,15.63,24.72,0,0,0,0,0,0,0,0,0,0,0,0,0,0,0,0,
142,-8.258,9.009,28.75,-28.2,20.1,-11.26,29.5,30.26,23.29,-15.42,53.3,21.72,27.02,4.9,26.35,30.15,0,0,0,0,0,0,0,0,0,0,0,0,0,0,0,0,
143,-7.105,7.464,28.97,-22.87,30.8,23.93,28.01,41.26,24.01,-2.745,58.34,26.82,39.33,18.87,34.5,44.62,0,0,0,0,0,0,0,0,0,0,0,0,0,0,0,0,
144,4.347,9.888,48.99,-3.082,42.12,32.19,32.99,57.7,39.69,28.22,59.59,36.31,44.73,30.98,30.34,46.38,0,0,0,0,0,0,0,0,0,0,0,0,0,0,0,0,
145,15.36,22.1,53.94,0.8279,28.28,0.7898,20.34,43.27,32.78,24.97,42.28,21.77,26.73,17.99,10.48,23.85,0,0,0,0,0,0,0,0,0,0,0,0,0,0,0,0,
146,9.374,8.476,32.19,-19.22,2.448,-21.95,-5.927,-9.743,7.983,-8.655,17.18,-22.95,0.292,-23.02,-14.8,-6.352,0,0,0,0,0,0,0,0,0,0,0,0,0,0,0,0,
147,-8.278,-36.61,10.7,-36.3,-11.59,-19.65,-15.49,-15.53,-17.41,-39.42,24.12,-25.81,5.584,-33.87,-7.907,0.2181,0,0,0,0,0,0,0,0,0,0,0,0,0,0,0,0,
148,4.15,-21.8,23.78,-21.16,9.465,15.06,12.72,41.9,-6.732,-22.75,56.83,18.19,40.35,4.024,18.22,30.51,0,0,0,0,0,0,0,0,0,0,0,0,0,0,0,0,
149,28.71,35.37,49.76,-10.42,40.28,48.33,34.04,45.98,28.08,20.11,48.41,17.5,36.52,16.51,8.687,25.79,0,0,0,0,0,0,0,0,0,0,0,0,0,0,0,0,
150,25.08,27.01,50.36,-26.98,42.6,41.39,19.13,0.1532,17.75,21.2,14.72,-12.18,2.04,-3.849,-8.895,9.281,0,0,0,0,0,0,0,0,0,0,0,0,0,0,0,0,
151,29.5,15.57,52.26,-23.73,44.65,25.89,17.51,3.73,-7.54,4.325,23.43,-1.045,7.888,1.169,3.653,20.52,0,0,0,0,0,0,0,0,0,0,0,0,0,0,0,0,
152,49.16,48.76,62.96,-13.79,53.59,26.81,26.73,13.42,11.16,12.75,41.5,4.196,27.34,10.13,4.51,17.0,0,0,0,0,0,0,0,0,0,0,0,0,0,0,0,0,
153,34.05,26.81,45.16,-33.87,36.48,27.91,8.643,-12.87,26.26,10.1,31.3,-22.89,19.69,-5.318,-7.949,-5.015,0,0,0,0,0,0,0,0,0,0,0,0,0,0,0,0,
154,7.818,-8.007,27.4,-28.8,23.98,22.56,5.202,-9.715,22.34,-3.668,35.11,-24.78,24.32,-8.193,6.045,4.567,0,0,0,0,0,0,0,0,0,0,0,0,0,0,0,0,
155,12.62,23.1,37.94,5.68,32.47,6.37,23.32,2.979,32.29,5.675,49.35,-14.32,37.51,0.0869,17.27,18.45,0,0,0,0,0,0,0,0,0,0,0,0,0,0,0,0,
156,18.34,25.64,35.05,-2.068,18.49,-8.934,16.71,-18.96,25.91,9.68,41.8,-22.19,27.4,-4.69,12.25,7.183,0,0,0,0,0,0,0,0,0,0,0,0,0,0,0,0,
157,12.81,-3.644,24.51,-19.7,4.146,-2.762,19.59,-12.34,6.598,-1.652,43.7,-10.01,23.8,0.9023,30.49,13.44,0,0,0,0,0,0,0,0,0,0,0,0,0,0,0,0,
158,14.16,16.9,37.18,0.3436,22.35,-0.0204,46.32,27.55,16.39,0.0976,51.77,11.37,23.54,10.21,39.32,26.15,0,0,0,0,0,0,0,0,0,0,0,0,0,0,0,0,
159,11.17,25.68,41.11,2.925,31.96,-7.417,38.17,26.3,21.26,-1.347,25.54,1.622,-0.5553,-3.481,6.667,8.831,0,0,0,0,0,0,0,0,0,0,0,0,0,0,0,0,
160,13.23,3.534,35.48,-15.72,33.85,16.55,14.96,4.271,9.317,-7.279,10.19,-6.779,-0.6995,-5.524,-0.1231,2.042,0,0,0,0,0,0,0,0,0,0,0,0,0,0,0,0,
161,37.41,26.0,50.34,-7.262,52.37,45.08,21.75,16.35,26.43,11.38,36.23,0.1131,31.94,16.55,27.7,17.23,0,0,0,0,0,0,0,0,0,0,0,0,0,0,0,0,
162,46.33,47.25,50.66,-0.1907,42.54,22.59,21.87,32.49,39.74,29.04,40.84,-3.55,34.38,27.23,27.21,18.57,0,0,0,0,0,0,0,0,0,0,0,0,0,0,0,0,
163,20.52,13.81,18.53,-14.2,2.263,-9.015,4.092,21.97,7.605,23.94,19.89,-3.568,18.39,28.19,15.08,18.01,0,0,0,0,0,0,0,0,0,0,0,0,0,0,0,0,
164,-3.714,-7.923,1.214,-23.23,-10.65,-5.712,2.231,5.53,-17.44,20.35,15.13,-4.603,13.41,18.7,10.69,16.79,0,0,0,0,0,0,0,0,0,0,0,0,0,0,0,0,
165,-8.355,-5.381,4.886,-32.22,-6.386,-0.1565,7.28,-5.684,-15.78,11.18,3.019,-27.15,-9.569,-10.63,-10.3,-3.549,0,0,0,0,0,0,0,0,0,0,0,0,0,0,0,0,
166,-2.52,-21.62,1.792,-31.93,-13.09,-7.228,6.164,-3.904,-23.62,-11.37,-14.16,-30.19,-29.92,-21.86,-15.9,-13.59,0,0,0,0,0,0,0,0,0,0,0,0,0,0,0,0,
167,7.546,-21.41,1.467,-11.93,-13.89,-18.32,6.225,18.38,-26.0,-19.22,-7.194,-4.751,-21.48,-10.61,2.917,-4.982,0,0,0,0,0,0,0,0,0,0,0,0,0,0,0,0,
168,8.345,3.667,4.19,-16.73,-17.52,-33.32,-7.567,23.07,-18.77,-18.77,-13.35,-6.024,-30.83,-16.13,-6.156,-10.65,0,0,0,0,0,0,0,0,0,0,0,0,0,0,0,0,
169,-1.861,-8.762,-8.391,-44.15,-32.3,-20.8,-26.84,-2.864,-34.43,-25.22,-30.36,-20.02,-47.75,-16.58,-19.9,-16.5,0,0,0,0,0,0,0,0,0,0,0,0,0,0,0,0,
170,6.854,-29.14,-11.4,-39.5,-21.15,21.8,-7.876,-2.271,-36.77,-11.77,-1.968,0.8855,-17.47,12.89,3.789,5.658,0,0,0,0,0,0,0,0,0,0,0,0,0,0,0,0,
171,33.97,1.726,8.451,-19.94,7.886,26.94,29.09,24.89,2.826,13.96,33.2,17.43,17.61,23.48,16.42,19.85,0,0,0,0,0,0,0,0,0,0,0,0,0,0,0,0,
172,31.8,18.5,8.381,-25.05,2.221,-13.11,25.22,18.33,18.3,2.879,24.79,-8.173,8.77,-6.218,-1.568,-5.863,0,0,0,0,0,0,0,0,0,0,0,0,0,0,0,0,
173,7.674,-12.2,-7.969,-27.77,-18.59,-27.5,5.215,-10.58,-5.825,-32.58,22.3,-25.31,-0.1899,-23.23,1.514,-25.35,0,0,0,0,0,0,0,0,0,0,0,0,0,0,0,0,
174,15.44,-10.11,5.029,-10.87,-6.333,-9.732,17.77,-17.2,-5.862,-37.47,39.61,-8.6,13.43,-7.351,17.4,-11.51,0,0,0,0,0,0,0,0,0,0,0,0,0,0,0,0,
175,34.6,14.35,18.66,-9.845,6.46,-11.37,22.31,-10.47,10.8,-18.08,20.62,-4.246,6.728,-0.1669,-2.918,-12.59,0,0,0,0,0,0,0,0,0,0,0,0,0,0,0,0,
176,19.07,-10.25,-7.487,-27.46,-14.12,-26.13,-13.5,-11.27,-5.999,-13.27,-23.89,-15.96,-25.54,-8.296,-32.96,-31.2,0,0,0,0,0,0,0,0,0,0,0,0,0,0,0,0,
177,-2.296,-31.57,-27.84,-27.04,-24.62,-18.76,-30.09,-11.56,-33.93,-13.33,-34.66,-5.746,-37.87,1.115,-26.71,-21.25,0,0,0,0,0,0,0,0,0,0,0,0,0,0,0,0,
178,0.2737,-8.955,-9.713,-18.62,-10.07,-10.31,-9.399,1.699,-33.48,-5.991,-17.95,8.109,-26.72,12.51,-12.45,-6.71,0,0,0,0,0,0,0,0,0,0,0,0,0,0,0,0,
179,1.542,-12.92,3.882,-28.04,-13.96,-24.98,-6.893,12.43,-25.04,-15.27,-14.81,-6.265,-24.54,-5.157,-19.59,-22.57,0,0,0,0,0,0,0,0,0,0,0,0,0,0,0,0,
180,-5.106,-35.85,-0.6631,-29.01,-24.69,-26.6,-11.14,4.631,-26.6,-29.07,-17.56,-19.05,-21.34,-18.85,-21.45,-34.38,0,0,0,0,0,0,0,0,0,0,0,0,0,0,0,0,
181,2.52,-13.86,8.375,-11.77,-7.522,-2.229,7.133,-1.397,-15.37,-13.69,-11.47,-7.708,-6.6,-3.731,-17.89,-27.93,0,0,0,0,0,0,0,0,0,0,0,0,0,0,0,0,
182,11.58,9.902,15.66,-7.285,4.079,4.717,2.413,-6.214,0.6879,2.533,-15.75,-4.981,-8.761,1.733,-32.32,-31.99,0,0,0,0,0,0,0,0,0,0,0,0,0,0,0,0,
183,7.04,0.7292,3.413,-7.884,-6.444,-1.955,-17.17,-19.91,-5.197,-7.934,-17.0,-13.89,-13.31,-3.674,-31.93,-34.88,0,0,0,0,0,0,0,0,0,0,0,0,0,0,0,0,
184,11.58,-0.2292,10.33,0.3102,-3.829,5.789,5.756,-12.54,-7.779,-12.17,6.359,-5.063,8.246,11.32,-3.14,-20.54,0,0,0,0,0,0,0,0,0,0,0,0,0,0,0,0,
185,15.22,0.2695,32.84,-10.5,2.071,-1.913,30.58,-6.461,7.655,-5.143,10.98,-7.446,11.89,8.012,-2.393,-25.79,0,0,0,0,0,0,0,0,0,0,0,0,0,0,0,0,
186,-5.747,-14.72,23.17,-34.15,-10.74,-27.55,11.02,-42.42,5.018,-20.16,-18.44,-40.81,-21.87,-31.92,-32.09,-55.11,0,0,0,0,0,0,0,0,0,0,0,0,0,0,0,0,
187,-11.05,-12.92,3.337,-31.91,-13.82,-23.72,-9.678,-54.58,-15.73,-39.62,-26.12,-44.91,-35.86,-38.1,-34.09,-58.36,0,0,0,0,0,0,0,0,0,0,0,0,0,0,0,0,
188,16.23,9.524,14.25,-12.88,4.41,5.768,-5.05,-10.96,-16.17,-23.68,-5.418,-9.534,-18.28,-1.121,-12.5,-38.47,0,0,0,0,0,0,0,0,0,0,0,0,0,0,0,0,
189,26.91,24.3,26.82,-2.261,14.75,24.96,-0.712,11.71,-1.492,8.392,-3.114,2.674,-15.36,12.24,-12.81,-38.56,0,0,0,0,0,0,0,0,0,0,0,0,0,0,0,0,
190,9.237,13.55,10.88,1.508,1.1,16.91,-14.29,-0.078,-8.509,11.67,-19.11,-8.741,-29.53,-2.543,-28.28,-47.97,0,0,0,0,0,0,0,0,0,0,0,0,0,0,0,0,
191,-6.585,-9.454,-5.214,0.089,-15.53,-10.53,-27.26,-1.304,-29.87,-7.415,-20.3,-10.2,-29.81,-11.01,-25.51,-41.24,0,0,0,0,0,0,0,0,0,0,0,0,0,0,0,0,
192,-6.217,-1.358,2.191,-2.372,-9.441,-20.72,-15.47,-0.4335,-29.92,-15.11,-14.57,-13.29,-24.87,-18.94,-20.1,-36.92,0,0,0,0,0,0,0,0,0,0,0,0,0,0,0,0,
193,3.277,25.03,9.145,-2.032,1.654,-15.61,2.179,-17.02,-20.73,-20.75,-24.66,-24.51,-34.19,-35.83,-36.16,-44.7,0,0,0,0,0,0,0,0,0,0,0,0,0,0,0,0,
194,8.463,17.29,10.19,-3.735,-0.4463,-20.7,7.082,-37.2,-22.6,-38.39,-28.78,-28.4,-35.29,-39.35,-43.15,-42.76,0,0,0,0,0,0,0,0,0,0,0,0,0,0,0,0,
195,15.4,4.797,28.18,3.31,7.223,-4.544,10.71,-34.74,-11.86,-35.19,-11.81,-20.06,-13.9,-13.64,-27.84,-29.58,0,0,0,0,0,0,0,0,0,0,0,0,0,0,0,0,
196,25.53,22.16,39.43,13.06,21.67,26.1,10.45,-3.421,10.22,-3.13,4.109,0.3334,6.299,17.91,-14.35,-17.5,0,0,0,0,0,0,0,0,0,0,0,0,0,0,0,0,
197,17.96,24.18,20.24,-1.989,16.38,14.41,8.32,14.05,17.63,15.62,14.78,14.17,11.04,22.75,-0.8579,-10.02,0,0,0,0,0,0,0,0,0,0,0,0,0,0,0,0,
198,3.177,4.855,2.517,-16.6,1.141,-11.52,7.906,-17.43,15.49,4.917,14.68,-3.26,-0.2906,-0.6927,-1.466,-20.27,0,0,0,0,0,0,0,0,0,0,0,0,0,0,0,0,
199,-3.984,1.076,-6.854,-5.439,-11.35,-19.03,-7.265,-56.42,4.086,-21.86,-7.217,-27.45,-20.61,-28.63,-30.44,-38.72,0,0,0,0,0,0,0,0,0,0,0,0,0,0,0,0,
200,-23.84,-8.175,-20.63,-3.385,-20.99,-36.68,-19.14,-53.82,-17.18,-51.86,-22.73,-24.99,-30.14,-39.4,-43.66,-34.64,0,0,0,0,0,0,0,0,0,0,0,0,0,0,0,0,
201,-31.47,-23.56,-8.31,-4.958,-15.24,-36.38,-3.169,-23.43,-21.85,-57.04,-15.53,-7.671,-21.86,-27.44,-28.32,-20.39,0,0,0,0,0,0,0,0,0,0,0,0,0,0,0,0,
202,12.66,4.722,31.3,19.3,3.923,7.106,19.22,4.744,-2.864,-22.36,2.224,12.61,1.361,-3.411,-14.49,-14.88,0,0,0,0,0,0,0,0,0,0,0,0,0,0,0,0,
203,47.92,43.89,44.33,30.22,10.49,32.9,29.18,11.86,16.97,15.81,21.96,25.37,21.85,8.267,-7.533,-11.51,0,0,0,0,0,0,0,0,0,0,0,0,0,0,0,0,
204,23.22,29.1,20.17,16.09,-3.853,22.44,18.78,-6.313,14.08,20.0,18.45,9.594,5.952,-5.026,-18.58,-19.91,0,0,0,0,0,0,0,0,0,0,0,0,0,0,0,0,
205,-1.824,-6.298,-5.815,15.61,-21.17,11.46,-12.66,-22.0,-17.42,-0.0036,-8.247,-17.47,-33.14,-25.4,-46.17,-40.13,0,0,0,0,0,0,0,0,0,0,0,0,0,0,0,0,
206,-1.078,-21.11,-22.15,15.03,-31.84,-1.834,-35.11,-20.89,-53.04,-22.93,-22.97,-26.78,-52.86,-35.59,-58.92,-50.82,0,0,0,0,0,0,0,0,0,0,0,0,0,0,0,0,
207,-6.144,-17.17,-23.61,9.768,-32.11,-9.268,-30.7,-9.398,-63.29,-33.13,-23.7,-14.81,-46.95,-28.53,-50.07,-42.98,0,0,0,0,0,0,0,0,0,0,0,0,0,0,0,0,
208,-1.303,12.27,-3.408,22.87,-15.65,1.087,-18.24,6.951,-42.99,-14.48,-17.78,6.166,-27.17,-10.66,-34.63,-23.47,0,0,0,0,0,0,0,0,0,0,0,0,0,0,0,0,
209,8.854,25.42,5.802,16.24,-6.639,-6.674,-13.25,-5.578,-19.25,3.451,-9.573,3.68,-15.3,-12.48,-31.73,-16.67,0,0,0,0,0,0,0,0,0,0,0,0,0,0,0,0,
210,-6.474,-13.29,-11.67,-13.84,-19.7,-24.06,-9.461,-30.58,-21.47,-14.21,-14.83,-11.29,-20.82,-23.35,-36.78,-22.05,0,0,0,0,0,0,0,0,0,0,0,0,0,0,0,0,
211,-11.59,-31.1,-16.2,-8.272,-17.17,-5.869,1.154,-9.761,-27.58,-24.62,-17.21,0.7077,-14.62,-9.68,-20.96,-12.13,0,0,0,0,0,0,0,0,0,0,0,0,0,0,0,0,
212,12.96,6.003,2.913,10.82,9.101,18.04,12.5,4.537,-10.23,-4.281,-3.589,5.352,4.519,-2.546,-1.876,1.956,0,0,0,0,0,0,0,0,0,0,0,0,0,0,0,0,
213,28.61,33.37,23.39,2.804,27.27,15.9,22.92,-19.3,9.283,0.9877,7.648,-8.379,13.35,-13.25,-0.998,13.1,0,0,0,0,0,0,0,0,0,0,0,0,0,0,0,0,
214,28.19,26.69,41.17,1.191,35.46,8.885,36.68,-5.6,19.68,-10.22,19.12,3.261,19.87,-7.11,5.776,29.66,0,0,0,0,0,0,0,0,0,0,0,0,0,0,0,0,
215,29.81,14.81,49.42,19.81,39.51,0.225,46.46,21.56,27.68,-12.76,29.8,10.62,20.8,-2.65,13.25,26.02,0,0,0,0,0,0,0,0,0,0,0,0,0,0,0,0,
216,39.05,26.51,45.15,36.1,38.11,-0.4469,47.33,10.76,26.61,-10.67,23.55,-2.77,5.816,-10.45,4.715,12.36,0,0,0,0,0,0,0,0,0,0,0,0,0,0,0,0,
217,42.35,48.7,36.82,31.9,36.96,21.08,36.41,6.606,21.28,4.278,14.62,3.864,-3.841,-3.86,-2.739,21.29,0,0,0,0,0,0,0,0,0,0,0,0,0,0,0,0,
218,26.02,32.42,23.48,5.513,33.37,35.26,16.77,0.9595,16.28,25.41,17.21,9.47,1.858,3.878,1.182,29.95,0,0,0,0,0,0,0,0,0,0,0,0,0,0,0,0,
219,15.41,3.649,15.68,-2.768,29.56,31.46,11.41,-20.11,7.606,26.86,21.35,0.4241,10.14,2.992,15.01,28.92,0,0,0,0,0,0,0,0,0,0,0,0,0,0,0,0,
220,21.53,10.59,22.53,19.95,31.62,26.49,22.19,-3.464,3.696,17.03,23.04,11.41,15.44,7.801,28.3,35.01,0,0,0,0,0,0,0,0,0,0,0,0,0,0,0,0,
221,18.14,15.14,27.14,32.14,35.04,20.43,27.88,28.12,7.689,12.99,25.38,25.62,21.17,13.75,30.81,39.43,0,0,0,0,0,0,0,0,0,0,0,0,0,0,0,0,
222,13.92,10.76,24.12,33.82,37.59,20.52,26.83,20.13,16.3,20.89,22.91,19.9,25.03,17.13,28.73,39.71,0,0,0,0,0,0,0,0,0,0,0,0,0,0,0,0,
223,19.88,22.64,21.47,40.21,30.39,19.14,17.44,7.516,21.47,32.21,6.984,17.24,12.12,17.47,14.64,39.97,0,0,0,0,0,0,0,0,0,0,0,0,0,0,0,0,
224,12.38,4.277,12.35,30.1,6.934,-2.746,-2.622,17.33,3.868,20.33,-17.17,17.92,-16.74,7.351,-15.43,30.46,0,0,0,0,0,0,0,0,0,0,0,0,0,0,0,0,
225,-8.81,-39.54,-9.3,5.911,-20.43,-22.16,-18.23,9.352,-31.17,-7.735,-40.1,-2.208,-42.2,-15.92,-40.99,9.084,0,0,0,0,0,0,0,0,0,0,0,0,0,0,0,0,
226,-25.43,-36.69,-27.79,-8.447,-39.94,-24.55,-26.01,-14.07,-55.91,-25.31,-58.3,-26.3,-53.86,-41.67,-53.59,-8.897,0,0,0,0,0,0,0,0,0,0,0,0,0,0,0,0,
227,-29.29,-6.308,-25.6,-6.572,-39.39,-25.22,-30.25,-11.71,-54.27,-32.84,-59.16,-27.34,-46.54,-51.62,-56.23,-11.38,0,0,0,0,0,0,0,0,0,0,0,0,0,0,0,0,
228,-19.61,-1.765,-18.73,3.608,-25.37,-21.81,-30.55,-18.65,-33.35,-32.77,-48.49,-30.63,-37.54,-56.35,-59.18,-15.13,0,0,0,0,0,0,0,0,0,0,0,0,0,0,0,0,
229,-12.65,-5.343,-27.13,7.66,-26.98,-17.01,-34.55,-48.05,-28.99,-32.62,-48.66,-40.32,-45.26,-61.87,-64.46,-22.02,0,0,0,0,0,0,0,0,0,0,0,0,0,0,0,0,
230,-14.38,1.577,-32.44,12.17,-33.09,-19.32,-35.9,-25.31,-45.44,-36.08,-38.91,-16.43,-36.63,-37.16,-44.61,-0.4393,0,0,0,0,0,0,0,0,0,0,0,0,0,0,0,0,
231,-8.934,4.672,-25.09,25.69,-25.53,-22.25,-24.0,17.82,-42.32,-23.24,-5.893,11.28,-7.325,-2.352,-10.44,28.79,0,0,0,0,0,0,0,0,0,0,0,0,0,0,0,0,
232,-3.108,3.877,-23.84,20.95,-28.67,-31.22,-12.85,-0.5946,-32.27,-8.064,6.81,-3.812,-8.634,-6.313,-10.81,20.07,0,0,0,0,0,0,0,0,0,0,0,0,0,0,0,0,
233,-15.09,0.24,-32.14,-4.78,-41.87,-45.27,-9.812,-25.76,-47.04,-20.85,-16.49,-27.74,-37.98,-30.83,-39.74,-7.428,0,0,0,0,0,0,0,0,0,0,0,0,0,0,0,0,
234,-32.99,-18.72,-44.78,-14.4,-47.53,-49.05,-13.58,-18.57,-64.08,-42.45,-48.92,-37.16,-64.32,-51.21,-64.51,-28.5,0,0,0,0,0,0,0,0,0,0,0,0,0,0,0,0,
235,-39.0,-34.78,-54.85,-12.68,-56.43,-51.81,-27.51,-21.34,-73.34,-54.02,-72.31,-45.66,-84.03,-68.84,-78.51,-46.37,0,0,0,0,0,0,0,0,0,0,0,0,0,0,0,0,
236,-34.82,-19.82,-47.91,-19.59,-57.89,-54.93,-33.03,-30.26,-77.69,-62.65,-72.89,-47.9,-81.32,-71.07,-77.7,-50.07,0,0,0,0,0,0,0,0,0,0,0,0,0,0,0,0,
237,-20.19,4.563,-32.1,-5.096,-33.6,-32.54,-20.69,-33.14,-59.02,-60.33,-59.5,-41.32,-57.29,-56.73,-64.08,-37.01,0,0,0,0,0,0,0,0,0,0,0,0,0,0,0,0,
238,4.369,12.63,-20.44,29.78,-2.004,7.703,-7.186,-31.52,-25.97,-40.17,-45.69,-26.86,-32.05,-34.25,-39.48,-16.28,0,0,0,0,0,0,0,0,0,0,0,0,0,0,0,0,
239,24.15,19.5,-0.1718,32.62,21.65,34.15,17.86,-10.92,7.308,-14.53,-3.775,1.393,7.496,1.713,12.41,23.04,0,0,0,0,0,0,0,0,0,0,0,0,0,0,0,0,
240,33.73,38.01,22.25,22.63,31.42,40.46,52.07,11.76,41.73,9.217,58.22,35.56,52.84,44.71,73.6,72.91,0,0,0,0,0,0,0,0,0,0,0,0,0,0,0,0,
241,26.68,45.23,14.31,31.5,14.11,18.31,50.99,17.69,52.11,25.19,75.87,58.37,60.85,67.99,88.19,91.53,0,0,0,0,0,0,0,0,0,0,0,0,0,0,0,0,
242,-8.857,5.461,-16.91,5.412,-17.87,-23.96,23.66,21.15,28.09,17.88,47.93,54.91,36.11,54.58,54.91,69.96,0,0,0,0,0,0,0,0,0,0,0,0,0,0,0,0,
243,-38.95,-49.92,-33.47,-35.99,-33.85,-30.51,8.182,16.31,1.426,-5.393,19.35,22.98,8.077,17.51,17.2,31.1,0,0,0,0,0,0,0,0,0,0,0,0,0,0,0,0,
244,-34.27,-46.52,-34.23,-12.75,-34.78,-10.87,-14.43,-10.32,-17.29,-22.42,-12.26,-18.6,-23.71,-21.62,-15.49,-14.96,0,0,0,0,0,0,0,0,0,0,0,0,0,0,0,0,
245,-29.67,-11.87,-35.55,25.36,-38.08,-26.33,-40.32,-22.34,-40.2,-39.93,-45.53,-35.04,-47.42,-41.26,-34.59,-39.89,0,0,0,0,0,0,0,0,0,0,0,0,0,0,0,0,
246,-26.22,-1.571,-25.31,33.54,-30.43,-27.77,-29.94,8.105,-49.97,-47.6,-53.02,-14.5,-38.33,-22.39,-23.55,-21.96,0,0,0,0,0,0,0,0,0,0,0,0,0,0,0,0,
247,5.1,17.93,-4.186,49.11,-5.14,21.93,-12.26,21.56,-29.43,-18.86,-49.16,-1.486,-19.32,4.463,-10.68,-4.816,0,0,0,0,0,0,0,0,0,0,0,0,0,0,0,0,
248,25.78,39.52,2.949,44.71,5.522,33.03,-21.13,-12.84,-9.942,5.426,-51.5,-10.5,-15.13,6.894,-12.14,-8.323,0,0,0,0,0,0,0,0,0,0,0,0,0,0,0,0,
249,19.48,32.55,6.605,26.2,8.63,11.3,-17.21,-16.72,-3.177,1.069,-32.34,9.93,6.647,22.58,-1.117,4.665,0,0,0,0,0,0,0,0,0,0,0,0,0,0,0,0,
250,30.83,38.92,29.05,47.43,40.28,43.01,15.26,18.56,30.13,18.49,7.556,44.99,49.2,54.8,19.88,23.05,0,0,0,0,0,0,0,0,0,0,0,0,0,0,0,0,
251,46.27,44.9,45.92,55.42,59.76,72.32,34.55,14.96,67.66,42.11,24.19,37.44,57.46,50.28,24.8,13.57,0,0,0,0,0,0,0,0,0,0,0,0,0,0,0,0,
252,30.9,20.31,33.81,33.13,29.4,38.07,21.48,-0.392,51.68,23.71,7.378,16.69,29.15,25.97,7.641,-7.292,0,0,0,0,0,0,0,0,0,0,0,0,0,0,0,0,
253,6.257,18.33,16.34,38.98,3.905,7.591,-1.14,22.29,17.72,4.091,-15.11,16.09,10.52,21.62,-15.99,-19.97,0,0,0,0,0,0,0,0,0,0,0,0,0,0,0,0,
254,-11.34,28.93,11.25,36.71,4.128,18.03,-5.236,31.97,9.39,13.71,-22.76,14.2,7.236,19.85,-18.96,-21.53,0,0,0,0,0,0,0,0,0,0,0,0,0,0,0,0,
255,-16.52,12.42,7.415,13.62,-4.41,31.95,7.665,16.69,2.603,26.28,-16.89,15.26,4.998,13.93,-3.461,-10.83,0,0,0,0,0,0,0,0,0,0,0,0,0,0,0,0,
256,4.188,15.71,11.78,34.45,-4.439,26.48,11.87,13.53,-3.11,29.38,-14.19,18.41,1.812,7.311,1.54,-4.49,0,0,0,0,0,0,0,0,0,0,0,0,0,0,0,0,
257,24.03,39.24,27.47,65.12,9.572,10.03,-0.4427,-1.325,-0.3218,9.538,-21.49,-1.721,-7.858,-10.99,-4.263,-13.94,0,0,0,0,0,0,0,0,0,0,0,0,0,0,0,0,
258,13.05,31.84,19.44,44.44,-3.648,4.225,-18.56,-23.47,-11.07,-22.79,-29.9,-13.44,-18.68,-15.06,-6.952,-21.55,0,0,0,0,0,0,0,0,0,0,0,0,0,0,0,0,
259,-6.76,4.51,-9.001,12.68,-25.97,6.91,-30.91,-2.544,-21.79,-18.43,-38.93,13.39,-19.36,10.95,-11.35,-18.07,0,0,0,0,0,0,0,0,0,0,0,0,0,0,0,0,
260,-13.24,-20.17,-7.79,5.521,-19.58,1.258,-27.84,32.16,-17.65,8.671,-48.04,33.83,-19.69,24.55,-16.16,-13.64,0,0,0,0,0,0,0,0,0,0,0,0,0,0,0,0,
261,-6.806,-24.28,15.06,2.197,-7.999,6.676,-21.27,39.59,-22.6,12.59,-46.02,31.47,-23.92,15.72,-10.25,-6.523,0,0,0,0,0,0,0,0,0,0,0,0,0,0,0,0,
262,5.943,10.42,17.45,1.986,-7.275,28.36,-23.88,38.05,-30.72,13.13,-33.49,33.23,-16.99,12.14,0.2535,5.57,0,0,0,0,0,0,0,0,0,0,0,0,0,0,0,0,
263,5.306,36.14,8.552,19.07,-3.801,27.89,-15.77,26.95,-19.11,20.33,-16.3,28.26,3.344,10.63,8.933,17.69,0,0,0,0,0,0,0,0,0,0,0,0,0,0,0,0,
264,-5.229,18.54,10.01,34.87,-0.4676,4.932,6.59,15.48,1.74,10.86,0.949,15.47,19.89,8.757,19.42,31.2,0,0,0,0,0,0,0,0,0,0,0,0,0,0,0,0,
265,-4.042,12.23,12.79,30.78,-4.843,-15.53,10.33,12.15,10.84,-0.6747,-4.286,5.383,10.7,1.044,13.12,26.77,0,0,0,0,0,0,0,0,0,0,0,0,0,0,0,0,
266,-7.234,23.21,8.935,16.07,-15.68,-35.63,-6.886,-27.65,-5.558,-10.9,-27.93,-15.46,-15.35,-23.89,-6.844,1.226,0,0,0,0,0,0,0,0,0,0,0,0,0,0,0,0,
267,-18.61,-3.095,7.985,0.6966,-21.99,-40.36,-10.63,-63.94,-25.15,-30.48,-22.29,-16.67,-11.38,-24.86,8.453,7.259,0,0,0,0,0,0,0,0,0,0,0,0,0,0,0,0,
268,-14.22,-31.38,9.914,-6.81,-14.73,-19.79,2.851,-26.67,-10.28,-28.41,5.468,15.55,16.87,7.125,39.69,39.68,0,0,0,0,0,0,0,0,0,0,0,0,0,0,0,0,
269,-11.64,-9.101,1.384,-0.209,-9.288,-7.433,5.324,8.294,8.526,-8.426,6.288,22.88,15.44,13.6,27.82,37.6,0,0,0,0,0,0,0,0,0,0,0,0,0,0,0,0,
270,-16.4,15.59,-7.092,7.872,-11.62,-6.591,-3.394,0.5722,-1.899,-3.688,-1.496,11.88,0.2939,4.222,7.655,24.66,0,0,0,0,0,0,0,0,0,0,0,0,0,0,0,0,
271,-1.934,5.365,-2.18,7.003,-9.711,2.057,-3.517,5.818,-8.879,1.828,5.723,18.47,5.072,8.465,16.8,36.33,0,0,0,0,0,0,0,0,0,0,0,0,0,0,0,0,
272,7.338,-7.978,1.452,1.688,-8.593,1.074,4.42,1.206,-8.415,5.678,3.253,11.41,7.646,0.5467,27.33,39.04,0,0,0,0,0,0,0,0,0,0,0,0,0,0,0,0,
273,-0.703,-0.6472,11.32,-3.737,-3.935,-8.814,18.35,-19.52,-10.46,-5.434,5.129,-2.345,10.79,-2.929,36.54,28.82,0,0,0,0,0,0,0,0,0,0,0,0,0,0,0,0,
274,4.309,11.37,27.57,-11.73,3.577,-10.98,23.88,-27.53,4.492,-2.295,20.3,-3.255,18.32,8.229,36.83,20.41,0,0,0,0,0,0,0,0,0,0,0,0,0,0,0,0,
275,-3.253,-10.9,5.937,-22.48,-15.45,-22.36,-2.55,-60.27,2.378,-2.149,7.608,-19.67,0.2799,-4.597,12.45,5.902,0,0,0,0,0,0,0,0,0,0,0,0,0,0,0,0,
276,-30.75,-44.32,-25.2,-18.4,-33.86,-31.21,-19.66,-71.21,-27.71,-23.99,-8.397,-19.5,-9.054,-8.296,11.79,10.5,0,0,0,0,0,0,0,0,0,0,0,0,0,0,0,0,
277,-25.89,-16.71,-10.14,-1.024,-11.04,-16.25,1.219,-4.474,-13.79,-14.77,12.39,21.29,26.47,27.11,43.64,39.64,0,0,0,0,0,0,0,0,0,0,0,0,0,0,0,0,
278,-14.26,22.61,-5.353,-8.287,0.9178,-15.28,0.4097,22.75,27.88,13.05,26.59,37.5,54.14,44.5,53.68,50.69,0,0,0,0,0,0,0,0,0,0,0,0,0,0,0,0,
279,-24.74,3.804,-22.3,-21.93,-10.62,-21.88,-8.396,-9.611,33.26,9.414,31.08,31.89,57.11,42.9,58.91,52.55,0,0,0,0,0,0,0,0,0,0,0,0,0,0,0,0,
280,-4.67,3.982,8.943,5.306,14.36,8.442,31.92,11.73,40.13,14.52,52.63,45.59,61.93,53.21,72.62,60.87,0,0,0,0,0,0,0,0,0,0,0,0,0,0,0,0,
281,16.78,27.36,29.99,15.21,35.62,25.1,44.74,20.21,53.94,29.91,41.27,31.22,42.85,34.0,45.39,40.34,0,0,0,0,0,0,0,0,0,0,0,0,0,0,0,0,
282,-11.58,-12.15,-10.11,-40.19,5.709,2.948,-2.256,-41.8,26.31,3.982,4.656,-6.723,13.54,-2.942,11.78,14.99,0,0,0,0,0,0,0,0,0,0,0,0,0,0,0,0,
283,-15.63,-33.96,-11.59,-65.68,-2.542,7.083,-6.283,-45.33,10.03,-13.52,15.81,2.841,30.44,9.476,31.22,33.4,0,0,0,0,0,0,0,0,0,0,0,0,0,0,0,0,
284,18.81,17.21,29.35,-20.75,23.3,15.42,25.0,-1.272,43.41,16.38,40.16,25.27,54.4,38.17,52.9,52.99,0,0,0,0,0,0,0,0,0,0,0,0,0,0,0,0,
285,10.75,16.61,19.94,-5.439,11.73,-14.32,10.91,-19.35,47.79,24.28,25.86,12.72,32.75,32.47,41.0,42.39,0,0,0,0,0,0,0,0,0,0,0,0,0,0,0,0,
286,-17.18,-31.98,-8.82,-35.96,-16.01,-20.81,-14.67,-27.76,5.793,0.292,9.203,8.091,5.737,22.61,28.2,32.41,0,0,0,0,0,0,0,0,0,0,0,0,0,0,0,0,
287,-10.86,-13.48,-2.846,-33.44,-9.867,6.982,-9.801,14.3,-12.6,1.649,6.772,13.04,-0.0555,17.43,19.35,19.86,0,0,0,0,0,0,0,0,0,0,0,0,0,0,0,0,
288,2.447,31.09,14.18,-9.588,5.639,12.22,3.739,11.67,-2.237,14.09,6.914,-4.284,-1.039,2.803,14.42,-1.129,0,0,0,0,0,0,0,0,0,0,0,0,0,0,0,0,
289,1.568,27.25,27.73,-13.06,9.47,-5.745,15.01,-22.98,4.32,9.124,14.23,-15.56,6.039,-1.058,19.44,-6.08,0,0,0,0,0,0,0,0,0,0,0,0,0,0,0,0,
290,-8.773,2.484,28.22,-28.65,6.157,-25.01,15.71,-24.02,9.816,4.671,18.37,-8.021,13.57,2.3,16.93,-0.6487,0,0,0,0,0,0,0,0,0,0,0,0,0,0,0,0,
291,-23.93,-15.21,10.19,-35.0,-2.21,-27.48,7.185,-9.659,14.74,1.158,19.98,-2.76,14.29,-1.396,16.59,3.24,0,0,0,0,0,0,0,0,0,0,0,0,0,0,0,0,
292,-27.43,-23.15,0.0078,-16.96,-1.571,-11.24,9.997,2.957,20.79,-3.387,30.72,-0.1205,24.88,-0.032,26.84,7.177,0,0,0,0,0,0,0,0,0,0,0,0,0,0,0,0,
293,-26.76,-19.22,-8.289,13.41,-3.836,-19.37,1.403,-7.705,29.64,0.2546,26.77,-11.79,23.26,-9.403,11.19,-5.017,0,0,0,0,0,0,0,0,0,0,0,0,0,0,0,0,
294,-40.8,-11.72,-34.1,3.194,-33.23,-41.83,-31.68,-43.92,11.75,-9.647,2.462,-29.57,-5.442,-30.18,-14.54,-18.22,0,0,0,0,0,0,0,0,0,0,0,0,0,0,0,0,
295,-38.74,2.582,-37.61,-14.82,-45.08,-15.82,-31.11,-25.44,-19.04,-22.76,-1.426,-6.274,-7.959,-14.79,4.4,7.231,0,0,0,0,0,0,0,0,0,0,0,0,0,0,0,0,
296,-4.294,25.01,-8.014,9.373,-11.61,24.56,2.822,32.2,-9.115,1.59,15.77,27.47,15.53,12.1,31.0,35.01,0,0,0,0,0,0,0,0,0,0,0,0,0,0,0,0,
297,3.351,24.72,-9.145,3.457,0.0362,10.69,-2.386,24.42,10.06,22.72,14.55,11.2,8.124,-5.38,13.82,15.77,0,0,0,0,0,0,0,0,0,0,0,0,0,0,0,0,
298,-24.53,4.341,-38.23,-25.37,-21.4,-18.4,-27.8,0.9251,-1.764,5.757,3.488,-9.804,-5.517,-20.59,-5.967,-9.081,0,0,0,0,0,0,0,0,0,0,0,0,0,0,0,0,
299,-22.37,7.874,-33.93,0.6027,-18.81,-18.77,-21.42,22.28,-5.524,-0.3442,0.7316,-5.074,-1.257,-6.712,-10.74,-13.54,0,0,0,0,0,0,0,0,0,0,0,0,0,0,0,0,
300,-14.2,2.843,-25.55,-1.776,-19.75,-21.79,-24.02,15.65,-12.97,-0.7459,-18.67,-16.57,-25.55,-14.43,-30.52,-25.21,0,0,0,0,0,0,0,0,0,0,0,0,0,0,0,0,
301,-38.77,-41.29,-41.91,-46.84,-43.92,-21.87,-48.97,-4.256,-53.8,-20.12,-37.76,-22.56,-53.38,-21.72,-37.9,-23.67,0,0,0,0,0,0,0,0,0,0,0,0,0,0,0,0,
302,-26.45,-33.42,-27.46,-9.131,-31.61,4.705,-43.04,10.93,-61.37,-9.364,-18.56,-4.841,-33.2,1.435,-22.46,-4.872,0,0,0,0,0,0,0,0,0,0,0,0,0,0,0,0,
303,14.46,29.64,-2.65,47.46,-6.233,8.624,-20.98,0.8069,-21.99,18.31,-0.9755,-9.352,-14.03,3.166,-25.11,-11.31,0,0,0,0,0,0,0,0,0,0,0,0,0,0,0,0,
304,-1.311,30.47,-23.38,23.07,-22.75,-20.41,-24.97,-16.9,-8.593,8.407,-11.62,-19.5,-23.15,-15.12,-28.92,-20.36,0,0,0,0,0,0,0,0,0,0,0,0,0,0,0,0,
305,-28.85,-7.528,-34.38,-2.532,-31.6,-22.78,-32.25,6.819,-16.11,-6.311,-15.04,-13.57,-23.74,-17.01,-13.41,-9.117,0,0,0,0,0,0,0,0,0,0,0,0,0,0,0,0,
306,-13.16,-7.61,-9.891,-0.5996,-10.03,-9.162,-23.86,7.605,-10.05,-9.882,-9.749,-24.12,-19.95,-21.74,-7.377,-7.908,0,0,0,0,0,0,0,0,0,0,0,0,0,0,0,0,
307,0.3888,4.562,1.087,-7.175,2.855,-11.19,-10.18,-9.609,-3.993,-22.46,-5.476,-28.26,-17.79,-22.88,-7.937,-8.144,0,0,0,0,0,0,0,0,0,0,0,0,0,0,0,0,
308,0.7101,12.92,6.514,-2.067,16.26,2.391,6.377,12.39,6.165,-17.0,4.489,-12.07,-6.272,-6.745,-7.829,-3.372,0,0,0,0,0,0,0,0,0,0,0,0,0,0,0,0,
309,6.755,9.744,15.45,13.5,32.61,26.85,10.2,25.77,20.26,2.043,2.745,-17.78,-5.057,-4.38,-18.93,-12.95,0,0,0,0,0,0,0,0,0,0,0,0,0,0,0,0,
310,13.99,-2.958,9.763,30.87,27.08,26.07,-2.589,10.9,18.82,3.97,-7.741,-27.67,-11.97,-11.72,-23.09,-15.11,0,0,0,0,0,0,0,0,0,0,0,0,0,0,0,0,
311,22.42,22.09,9.178,46.91,15.97,13.69,-4.242,3.827,15.91,6.569,-7.526,-19.67,-7.499,-8.526,-16.09,-6.41,0,0,0,0,0,0,0,0,0,0,0,0,0,0,0,0,
312,14.73,44.86,6.979,23.22,8.674,3.767,-2.467,-14.81,17.21,10.18,-11.01,-24.88,-6.959,-8.61,-15.9,-11.64,0,0,0,0,0,0,0,0,0,0,0,0,0,0,0,0,
313,-9.92,9.969,-20.25,-23.68,-7.921,-3.964,-20.69,-36.26,3.127,1.569,-18.55,-28.92,-14.61,-5.244,-13.08,-9.133,0,0,0,0,0,0,0,0,0,0,0,0,0,0,0,0,
314,-15.71,-14.24,-40.99,-24.65,-21.85,-0.2375,-39.88,-8.434,-20.54,4.566,-16.24,-4.386,-19.56,14.37,-6.36,12.68,0,0,0,0,0,0,0,0,0,0,0,0,0,0,0,0,
315,-9.557,-1.63,-34.64,19.19,-24.03,-1.603,-40.89,44.19,-38.71,16.99,-16.01,18.52,-26.6,26.02,-12.81,18.35,0,0,0,0,0,0,0,0,0,0,0,0,0,0,0,0,
316,-8.707,0.9109,-15.22,47.68,-17.76,-15.51,-26.36,55.09,-40.92,13.54,-20.66,14.0,-31.76,12.68,-29.37,-3.296,0,0,0,0,0,0,0,0,0,0,0,0,0,0,0,0,
317,-2.102,-4.317,-1.89,33.86,-10.97,-11.93,-18.18,21.57,-26.87,1.824,-25.57,-5.767,-34.42,-8.863,-46.51,-28.04,0,0,0,0,0,0,0,0,0,0,0,0,0,0,0,0,
318,-6.037,-16.57,-15.39,12.52,-18.88,4.799,-37.08,-0.3528,-22.62,-6.062,-31.11,-15.11,-37.92,-15.83,-55.56,-36.35,0,0,0,0,0,0,0,0,0,0,0,0,0,0,0,0,
319,-16.98,-25.82,-27.75,15.91,-23.13,1.92,-42.62,17.5,-24.95,-8.461,-23.47,-6.256,-27.72,-8.908,-47.88,-28.71,0,0,0,0,0,0,0,0,0,0,0,0,0,0,0,0,
320,-5.71,-1.824,-11.72,17.9,-9.318,-14.93,-13.76,24.04,-8.66,-6.03,-12.98,-10.97,-15.5,-10.1,-38.79,-23.23,0,0,0,0,0,0,0,0,0,0,0,0,0,0,0,0,
321,-0.7079,13.44,-10.07,2.02,-10.17,-13.98,-6.832,-13.07,1.602,-7.379,-18.54,-36.48,-18.67,-19.69,-39.36,-25.68,0,0,0,0,0,0,0,0,0,0,0,0,0,0,0,0,
322,-12.07,-3.61,-24.23,-0.4202,-18.24,8.611,-16.3,-24.56,-4.035,-8.103,-12.88,-35.96,-9.18,-13.41,-29.8,-18.18,0,0,0,0,0,0,0,0,0,0,0,0,0,0,0,0,
323,3.657,0.0018,-9.858,15.87,-1.045,15.71,0.1317,15.53,8.072,0.0304,8.223,-10.44,12.65,3.45,-12.34,-5.088,0,0,0,0,0,0,0,0,0,0,0,0,0,0,0,0,
324,32.23,23.3,10.7,27.17,15.99,1.315,11.14,24.12,27.16,4.681,12.71,-6.416,14.48,8.302,-6.811,-7.921,0,0,0,0,0,0,0,0,0,0,0,0,0,0,0,0,
325,35.68,31.82,12.24,27.66,18.55,8.875,9.389,-2.164,31.27,5.016,12.4,-10.87,12.37,10.08,-0.19,-12.75,0,0,0,0,0,0,0,0,0,0,0,0,0,0,0,0,
326,26.91,29.36,12.76,19.72,24.08,31.41,14.92,8.085,33.22,16.55,16.34,-2.155,15.38,14.97,5.744,-8.745,0,0,0,0,0,0,0,0,0,0,0,0,0,0,0,0,
327,21.93,21.15,11.66,14.0,20.13,30.56,3.317,14.04,23.62,29.26,4.865,-8.947,-2.101,3.288,-9.469,-17.68,0,0,0,0,0,0,0,0,0,0,0,0,0,0,0,0,
328,18.95,21.88,6.473,20.02,3.513,15.85,-11.93,-31.43,-6.222,17.84,-2.468,-24.43,-21.8,-16.68,-15.78,-28.48,0,0,0,0,0,0,0,0,0,0,0,0,0,0,0,0,
329,20.2,42.17,8.702,26.14,0.9918,1.385,1.801,-40.44,-19.86,-6.337,11.36,-9.417,-13.72,-11.37,6.967,-13.08,0,0,0,0,0,0,0,0,0,0,0,0,0,0,0,0,
330,31.84,54.06,15.71,30.71,15.14,-2.553,13.64,13.3,2.46,-5.646,18.65,13.93,0.5174,10.17,15.06,4.763,0,0,0,0,0,0,0,0,0,0,0,0,0,0,0,0,
331,40.69,41.0,13.58,32.63,20.56,8.654,2.081,15.19,26.77,10.48,7.841,3.649,-2.883,8.057,-3.509,-2.239,0,0,0,0,0,0,0,0,0,0,0,0,0,0,0,0,
332,27.27,20.77,0.4759,13.97,12.2,6.893,-5.625,-36.61,29.04,6.766,0.7114,-12.09,-6.25,-6.594,-3.51,-8.453,0,0,0,0,0,0,0,0,0,0,0,0,0,0,0,0,
333,16.02,10.82,-0.7543,-8.138,10.77,8.325,5.418,-28.26,31.55,3.083,10.76,2.211,4.236,1.784,18.97,3.538,0,0,0,0,0,0,0,0,0,0,0,0,0,0,0,0,
334,16.07,2.656,6.054,-9.16,3.723,30.82,10.69,6.534,31.08,11.64,14.74,7.521,-0.4863,4.878,16.14,2.443,0,0,0,0,0,0,0,0,0,0,0,0,0,0,0,0,
335,-3.337,-14.76,-7.534,-3.244,-24.71,12.42,-9.626,-15.89,-2.397,-2.978,-3.347,-14.49,-25.5,-18.49,-10.28,-15.38,0,0,0,0,0,0,0,0,0,0,0,0,0,0,0,0,
336,-11.1,-16.64,-10.41,9.552,-25.66,-29.86,-18.49,-27.63,-25.22,-20.94,-5.384,-12.04,-20.58,-18.88,-7.576,-9.428,0,0,0,0,0,0,0,0,0,0,0,0,0,0,0,0,
337,17.56,7.42,17.76,27.98,12.88,-12.32,14.37,11.74,10.33,-2.173,22.66,15.17,16.53,10.56,23.26,15.42,0,0,0,0,0,0,0,0,0,0,0,0,0,0,0,0,
338,31.64,29.58,24.96,27.7,30.74,24.29,43.29,29.84,50.43,23.28,37.42,19.49,32.72,22.74,36.75,19.9,0,0,0,0,0,0,0,0,0,0,0,0,0,0,0,0,
339,28.79,38.89,9.299,24.51,23.76,29.28,32.9,7.464,50.6,29.24,25.94,0.1048,18.25,11.65,21.36,0.7497,0,0,0,0,0,0,0,0,0,0,0,0,0,0,0,0,
340,31.61,33.01,8.878,30.1,17.86,33.99,12.74,-22.79,32.74,22.88,8.812,-21.46,-2.543,-5.652,-1.641,-20.14,0,0,0,0,0,0,0,0,0,0,0,0,0,0,0,0,
341,18.64,16.03,8.34,14.54,3.771,24.81,4.509,-32.65,9.149,6.333,-2.675,-24.02,-15.65,-12.46,-8.219,-19.61,0,0,0,0,0,0,0,0,0,0,0,0,0,0,0,0,
342,3.248,4.372,-1.192,-2.517,-4.991,-4.451,0.1074,-0.6631,-9.908,-2.97,-0.3469,-0.1479,-16.92,4.805,0.9748,2.682,0,0,0,0,0,0,0,0,0,0,0,0,0,0,0,0,
343,5.656,-4.106,-5.055,10.21,4.061,-0.1991,-0.7303,31.43,-7.708,9.491,9.921,16.84,-12.32,25.5,7.075,18.16,0,0,0,0,0,0,0,0,0,0,0,0,0,0,0,0,
344,9.323,5.305,-8.405,17.24,8.356,25.2,2.675,18.26,5.362,29.82,13.37,11.43,-2.955,27.14,9.943,18.23,0,0,0,0,0,0,0,0,0,0,0,0,0,0,0,0,
345,18.35,39.6,-3.284,7.517,9.455,28.44,5.392,4.458,15.86,40.12,14.57,6.958,12.34,20.02,13.32,16.04,0,0,0,0,0,0,0,0,0,0,0,0,0,0,0,0,
346,30.45,49.06,16.7,11.22,19.58,29.15,11.51,22.04,26.95,34.13,19.68,5.906,20.22,17.13,11.31,9.917,0,0,0,0,0,0,0,0,0,0,0,0,0,0,0,0,
347,21.11,28.59,20.18,16.35,19.63,31.27,14.11,17.04,33.19,21.99,12.85,-9.754,10.53,10.18,0.6751,-6.423,0,0,0,0,0,0,0,0,0,0,0,0,0,0,0,0,
348,6.586,16.13,5.559,9.555,7.442,16.35,5.553,-25.75,20.38,8.633,-5.087,-29.95,-4.286,-5.071,-11.3,-17.76,0,0,0,0,0,0,0,0,0,0,0,0,0,0,0,0,
349,17.84,9.416,14.07,7.187,15.36,9.91,13.73,-32.89,7.607,-2.037,5.532,-16.17,2.128,0.5868,3.073,-0.0453,0,0,0,0,0,0,0,0,0,0,0,0,0,0,0,0,
350,36.36,17.96,34.7,10.22,38.45,18.08,38.92,11.0,26.1,13.41,37.96,21.74,23.95,30.7,33.52,25.22,0,0,0,0,0,0,0,0,0,0,0,0,0,0,0,0,
351,34.79,38.64,27.93,17.08,35.94,15.04,31.9,31.83,43.88,36.89,29.43,25.88,19.86,36.35,26.64,14.19,0,0,0,0,0,0,0,0,0,0,0,0,0,0,0,0,
352,30.17,29.31,13.22,25.82,17.82,17.42,1.33,18.69,25.93,26.93,-7.019,3.918,-4.917,15.75,-0.0072,-15.64,0,0,0,0,0,0,0,0,0,0,0,0,0,0,0,0,
353,31.83,14.69,8.006,28.0,14.85,38.29,-7.745,20.85,11.22,11.05,-12.4,-3.676,-12.27,8.621,-1.086,-30.34,0,0,0,0,0,0,0,0,0,0,0,0,0,0,0,0,
354,14.26,29.44,-11.88,35.0,6.528,46.15,-15.82,20.9,12.5,14.9,-8.242,-15.99,-16.26,7.052,-0.2845,-39.37,0,0,0,0,0,0,0,0,0,0,0,0,0,0,0,0,
355,-14.47,32.36,-36.18,44.65,-15.53,31.29,-39.18,-4.657,-6.679,10.53,-18.28,-30.0,-30.88,1.348,-2.39,-39.34,0,0,0,0,0,0,0,0,0,0,0,0,0,0,0,0,
356,-18.16,19.18,-35.47,44.05,-21.2,17.96,-37.1,-0.0697,-25.66,4.94,-10.95,-7.888,-28.84,13.13,14.51,-19.04,0,0,0,0,0,0,0,0,0,0,0,0,0,0,0,0,
357,-4.268,21.2,-23.52,41.4,-18.56,13.96,-15.31,29.44,-17.71,15.93,-5.345,8.655,-23.1,22.68,10.99,-15.22,0,0,0,0,0,0,0,0,0,0,0,0,0,0,0,0,
358,-6.103,12.53,-25.77,18.36,-32.74,0.6661,-19.88,-5.481,-20.5,9.195,-34.19,-29.11,-42.08,-6.095,-27.45,-48.43,0,0,0,0,0,0,0,0,0,0,0,0,0,0,0,0,
359,-12.87,-10.74,-30.27,-12.52,-39.72,-16.08,-24.18,-50.09,-35.64,-18.01,-41.13,-53.26,-45.1,-29.41,-34.7,-62.19,0,0,0,0,0,0,0,0,0,0,0,0,0,0,0,0,
360,4.099,-10.38,-17.06,16.63,-21.99,-6.971,-1.34,-4.501,-18.45,-15.59,-5.191,-19.08,-14.15,-5.451,-9.567,-33.42,0,0,0,0,0,0,0,0,0,0,0,0,0,0,0,0,
361,14.35,2.431,-9.156,65.68,-13.87,3.768,-2.239,34.66,4.815,4.033,1.969,-0.7526,-4.662,7.965,-13.12,-20.02,0,0,0,0,0,0,0,0,0,0,0,0,0,0,0,0,
362,1.229,16.57,-13.55,61.0,-18.32,-3.717,-13.88,18.84,-4.786,-1.571,-5.887,-9.033,-9.258,-3.588,-11.85,-18.64,0,0,0,0,0,0,0,0,0,0,0,0,0,0,0,0,
363,3.801,33.76,-8.33,43.27,-12.35,5.101,8.264,26.97,-9.942,-2.94,18.03,4.404,5.316,6.026,19.44,3.345,0,0,0,0,0,0,0,0,0,0,0,0,0,0,0,0,
364,-6.662,9.45,-29.07,26.06,-25.99,7.884,-1.154,12.1,-10.79,2.176,12.87,3.994,-3.825,3.156,17.42,7.197,0,0,0,0,0,0,0,0,0,0,0,0,0,0,0,0,
365,-37.61,-25.38,-58.9,5.488,-42.0,-8.615,-28.15,-18.67,-30.49,-16.9,-1.353,4.685,-10.69,-4.821,20.7,14.59,0,0,0,0,0,0,0,0,0,0,0,0,0,0,0,0,
366,-6.42,8.25,-17.73,21.34,-3.642,4.748,20.32,17.85,-12.29,-9.818,48.84,44.47,34.0,29.5,68.66,53.29,0,0,0,0,0,0,0,0,0,0,0,0,0,0,0,0,
367,30.17,33.36,11.14,16.66,13.35,3.998,45.06,13.51,23.71,15.44,61.61,31.18,35.15,24.87,54.02,38.21,0,0,0,0,0,0,0,0,0,0,0,0,0,0,0,0,
368,-13.02,-12.69,-48.17,-25.19,-39.46,-36.72,-25.87,-41.1,-11.15,-15.19,-1.541,-23.92,-23.5,-28.99,-7.139,-10.67,0,0,0,0,0,0,0,0,0,0,0,0,0,0,0,0,
369,-38.18,-32.37,-76.08,-9.907,-61.11,-40.52,-56.0,-12.2,-56.05,-42.55,-16.03,-12.26,-34.63,-33.63,-10.96,-8.052,0,0,0,0,0,0,0,0,0,0,0,0,0,0,0,0,
370,-25.53,-17.06,-55.54,1.778,-51.25,-34.69,-31.81,12.25,-50.33,-28.73,-2.696,-1.426,-30.95,-30.33,-15.32,-14.67,0,0,0,0,0,0,0,0,0,0,0,0,0,0,0,0,
371,-50.45,-33.96,-71.36,-48.57,-74.17,-56.35,-46.1,-20.26,-55.56,-43.8,-25.22,-35.1,-55.82,-53.78,-40.73,-43.88,0,0,0,0,0,0,0,0,0,0,0,0,0,0,0,0,
372,-62.43,-44.02,-83.07,-43.12,-79.68,-45.14,-61.51,-17.66,-66.56,-60.46,-24.09,-35.82,-47.78,-46.64,-24.14,-32.8,0,0,0,0,0,0,0,0,0,0,0,0,0,0,0,0,
373,-42.69,-28.33,-73.35,-1.968,-56.53,-23.2,-50.97,-22.67,-49.7,-41.12,-12.1,-24.97,-28.78,-36.03,-11.59,-24.09,0,0,0,0,0,0,0,0,0,0,0,0,0,0,0,0,
374,-42.5,-25.59,-76.51,-19.93,-51.5,-26.56,-44.87,-27.11,-39.37,-29.44,-33.99,-25.98,-37.87,-35.69,-32.25,-37.34,0,0,0,0,0,0,0,0,0,0,0,0,0,0,0,0,
375,-37.58,-23.64,-63.43,-24.3,-48.67,-22.8,-34.34,15.1,-39.72,-22.83,-43.86,-10.32,-37.49,-15.21,-35.81,-31.18,0,0,0,0,0,0,0,0,0,0,0,0,0,0,0,0,
376,-21.71,-8.216,-41.32,4.129,-41.2,-25.36,-25.82,2.632,-37.38,-19.09,-27.62,-6.678,-25.51,-7.023,-17.95,-20.19,0,0,0,0,0,0,0,0,0,0,0,0,0,0,0,0,
377,-20.0,6.495,-38.14,2.502,-38.73,-37.26,-24.44,-33.61,-33.35,-30.0,-10.85,-8.058,-14.64,-8.112,-1.74,-13.5,0,0,0,0,0,0,0,0,0,0,0,0,0,0,0,0,
378,-15.1,6.67,-31.96,0.6665,-28.45,-28.46,-13.24,-0.8501,-17.19,-22.11,4.237,10.19,1.379,4.327,-0.7066,-5.035,0,0,0,0,0,0,0,0,0,0,0,0,0,0,0,0,
379,-9.095,-12.7,-23.58,11.05,-18.69,-5.186,-8.233,18.54,-2.09,-2.405,9.859,14.17,9.135,2.71,-12.18,-10.23,0,0,0,0,0,0,0,0,0,0,0,0,0,0,0,0,
380,-13.44,-18.96,-25.96,7.396,-16.57,16.84,-14.9,5.577,-0.9428,0.7369,2.403,2.295,1.678,-7.728,-20.99,-24.57,0,0,0,0,0,0,0,0,0,0,0,0,0,0,0,0,
381,-22.96,0.5753,-39.6,3.899,-23.13,6.283,-19.3,3.25,-10.05,-7.153,-9.072,-10.07,-17.23,-17.57,-31.82,-37.73,0,0,0,0,0,0,0,0,0,0,0,0,0,0,0,0,
382,-40.44,-2.445,-61.84,-4.591,-42.36,-28.43,-25.58,-11.39,-32.11,-24.29,-15.23,-20.58,-30.77,-31.32,-36.01,-39.24,0,0,0,0,0,0,0,0,0,0,0,0,0,0,0,0,
383,-45.42,-26.29,-60.92,-18.73,-47.46,-25.93,-28.4,-14.67,-40.9,-24.38,-12.14,-12.43,-20.86,-23.68,-25.59,-23.18,0,0,0,0,0,0,0,0,0,0,0,0,0,0,0,0,
384,-28.52,-21.37,-36.71,-14.8,-32.92,-11.16,-23.67,-12.27,-24.13,0.0244,-9.862,-4.279,-11.39,-10.39,-25.13,-15.8,0,0,0,0,0,0,0,0,0,0,0,0,0,0,0,0,
385,-18.05,-8.886,-25.29,-5.314,-24.21,-15.46,-14.37,-29.04,-12.7,1.505,-8.644,-9.012,-13.46,-16.25,-27.7,-20.39,0,0,0,0,0,0,0,0,0,0,0,0,0,0,0,0,
386,-10.61,-18.87,-12.92,0.5905,-13.25,-1.269,0.7928,-7.575,-3.951,-12.14,-2.885,-3.517,-6.493,-14.48,-21.07,-17.95,0,0,0,0,0,0,0,0,0,0,0,0,0,0,0,0,
387,-0.4922,-13.56,6.558,5.988,-0.7034,-2.998,0.5533,20.17,8.179,-11.61,-1.508,-5.985,-0.8481,-11.94,-26.96,-21.65,0,0,0,0,0,0,0,0,0,0,0,0,0,0,0,0,
388,-7.486,10.86,4.024,0.8059,-3.989,-33.53,-14.51,-7.541,3.883,-16.11,-3.662,-19.33,-3.512,-20.14,-32.27,-25.93,0,0,0,0,0,0,0,0,0,0,0,0,0,0,0,0,
389,-10.8,16.44,-6.314,2.229,-8.101,-18.62,-9.538,-18.5,-2.955,-15.24,-4.312,-9.42,-0.8793,-10.57,-18.94,-12.86,0,0,0,0,0,0,0,0,0,0,0,0,0,0,0,0,
390,1.745,13.9,-11.4,12.66,-12.44,7.607,3.406,2.45,-2.411,0.6883,-4.988,1.315,2.249,0.5991,-10.19,-6.26,0,0,0,0,0,0,0,0,0,0,0,0,0,0,0,0,
391,-0.6354,13.44,-21.88,5.999,-24.21,-5.705,0.6467,6.618,-7.252,2.653,0.3811,1.921,9.026,0.0683,-8.375,-4.889,0,0,0,0,0,0,0,0,0,0,0,0,0,0,0,0,
392,-3.045,2.012,-14.6,4.207,-17.9,5.984,-0.6007,23.26,-3.757,4.773,7.258,22.25,21.54,17.45,-3.675,13.15,0,0,0,0,0,0,0,0,0,0,0,0,0,0,0,0,
393,8.541,-3.172,2.498,16.96,-5.261,25.5,-1.121,27.93,4.296,17.98,1.074,26.92,13.68,22.6,-12.02,12.84,0,0,0,0,0,0,0,0,0,0,0,0,0,0,0,0,
394,-10.92,-8.139,-19.92,2.803,-23.15,-13.85,-18.72,-23.65,-12.32,1.914,-17.51,-4.905,-14.85,-12.33,-32.48,-19.04,0,0,0,0,0,0,0,0,0,0,0,0,0,0,0,0,
395,-49.99,-33.1,-57.12,-23.81,-45.59,-40.76,-40.83,-42.94,-36.93,-30.38,-28.84,-11.6,-28.64,-29.95,-38.5,-30.43,0,0,0,0,0,0,0,0,0,0,0,0,0,0,0,0,
396,-44.35,-33.08,-53.0,-16.91,-38.26,-5.189,-37.92,5.569,-34.62,-26.25,-9.946,10.57,-13.99,-11.74,-18.64,-11.31,0,0,0,0,0,0,0,0,0,0,0,0,0,0,0,0,
397,-7.144,5.537,-28.08,7.463,-22.96,14.83,-5.583,16.5,-12.8,-0.6855,24.53,13.4,11.44,0.6463,8.957,3.704,0,0,0,0,0,0,0,0,0,0,0,0,0,0,0,0,
398,3.961,15.87,-23.97,15.05,-22.8,-13.18,17.08,-28.15,1.998,4.714,34.79,7.106,23.9,1.408,14.98,5.314,0,0,0,0,0,0,0,0,0,0,0,0,0,0,0,0,
399,-12.21,-6.981,-29.07,2.878,-22.95,-34.96,9.037,-37.11,2.135,-5.231,22.77,9.651,16.32,0.9428,0.5049,-0.8898,0,0,0,0,0,0,0,0,0,0,0,0,0,0,0,0,
400,-22.15,-16.18,-20.01,-14.61,-10.73,-22.53,-0.0559,-0.6082,-1.73,-9.147,11.39,10.07,2.454,-3.367,-9.19,-8.97,0,0,0,0,0,0,0,0,0,0,0,0,0,0,0,0,
401,-23.69,-27.96,-14.06,-21.18,-7.41,-8.636,-5.12,5.235,-5.231,-9.441,-3.233,3.056,-10.66,-13.5,-16.11,-14.58,0,0,0,0,0,0,0,0,0,0,0,0,0,0,0,0,
402,-32.3,-47.69,-29.64,-16.79,-23.56,-25.51,-20.47,-28.2,-16.38,-17.26,-18.06,-7.838,-22.17,-25.83,-22.49,-14.39,0,0,0,0,0,0,0,0,0,0,0,0,0,0,0,0,
403,-39.5,-31.94,-43.18,-14.04,-33.2,-48.41,-26.09,-25.3,-29.86,-27.07,-14.46,-4.971,-18.82,-24.9,-7.639,-2.58,0,0,0,0,0,0,0,0,0,0,0,0,0,0,0,0,
404,-36.64,-2.656,-43.53,-16.89,-31.27,-48.33,-20.11,9.646,-31.05,-31.53,-2.933,7.017,-7.14,-16.38,8.378,5.31,0,0,0,0,0,0,0,0,0,0,0,0,0,0,0,0,
405,-32.69,-10.76,-49.49,-24.02,-34.83,-44.54,-22.94,-4.586,-27.37,-35.8,-4.811,0.1664,-9.225,-18.14,-0.3673,0.0884,0,0,0,0,0,0,0,0,0,0,0,0,0,0,0,0,
406,-28.77,-31.06,-45.84,-31.55,-32.01,-44.71,-15.2,-29.32,-28.63,-33.39,-2.924,-0.502,-9.148,-8.368,2.002,8.077,0,0,0,0,0,0,0,0,0,0,0,0,0,0,0,0,
407,-23.43,-28.94,-18.58,-29.37,-16.05,-34.01,10.48,4.299,-21.07,-14.2,13.97,18.57,4.079,11.19,20.86,20.37,0,0,0,0,0,0,0,0,0,0,0,0,0,0,0,0,
408,-27.51,-31.02,-14.67,-26.07,-16.97,-25.25,8.229,20.01,-12.4,-2.189,9.638,10.24,-1.05,-0.0736,12.44,4.816,0,0,0,0,0,0,0,0,0,0,0,0,0,0,0,0,
409,-40.88,-60.17,-46.87,-31.86,-36.54,-23.34,-20.7,-7.096,-27.65,-15.4,-15.93,-4.615,-15.71,-13.32,-2.572,-5.749,0,0,0,0,0,0,0,0,0,0,0,0,0,0,0,0,
410,-35.8,-63.76,-51.42,-11.12,-29.58,-9.998,-19.62,5.813,-35.77,-18.2,-15.25,18.39,-2.146,11.67,12.72,16.15,0,0,0,0,0,0,0,0,0,0,0,0,0,0,0,0,
411,-6.13,-0.7223,-24.3,36.25,4.128,0.7336,-3.369,21.69,-6.892,6.167,0.1442,28.24,15.46,27.52,26.01,25.26,0,0,0,0,0,0,0,0,0,0,0,0,0,0,0,0,
412,6.168,42.44,-24.37,33.43,15.59,-3.261,-14.19,-8.947,14.65,19.77,-3.426,10.29,12.61,15.63,18.26,10.64,0,0,0,0,0,0,0,0,0,0,0,0,0,0,0,0,
413,-6.99,6.899,-35.94,-9.844,9.217,5.425,-13.81,-11.38,11.62,18.4,-2.622,18.33,15.52,19.39,15.14,14.83,0,0,0,0,0,0,0,0,0,0,0,0,0,0,0,0,
414,-12.06,-19.53,-25.23,-13.49,10.58,16.62,11.17,13.66,13.24,18.4,9.279,30.7,21.09,23.28,18.65,26.02,0,0,0,0,0,0,0,0,0,0,0,0,0,0,0,0,
415,-15.44,-11.26,-25.45,-6.972,-0.2614,-0.0872,10.52,7.239,4.775,-1.099,5.192,13.16,9.074,2.321,15.69,11.29,0,0,0,0,0,0,0,0,0,0,0,0,0,0,0,0,
416,-26.57,-24.51,-38.97,-22.97,-17.05,-14.22,-5.574,-3.679,-16.18,-21.81,-7.041,-3.59,-1.253,-10.16,7.603,-7.859,0,0,0,0,0,0,0,0,0,0,0,0,0,0,0,0,
417,-28.75,-30.25,-35.43,-10.04,-13.32,-12.47,-4.516,-13.17,-16.94,-7.303,-11.36,-8.432,-1.078,-9.075,-0.0436,-10.68,0,0,0,0,0,0,0,0,0,0,0,0,0,0,0,0,
418,-28.43,-20.11,-30.44,11.56,-7.238,-24.54,-5.502,-24.61,-13.71,5.755,-15.03,-2.601,-4.24,-8.432,-0.3263,-5.244,0,0,0,0,0,0,0,0,0,0,0,0,0,0,0,0,
419,-27.95,-33.09,-32.55,-2.162,-6.965,-29.11,-12.55,0.2815,-22.35,0.3748,-21.41,13.35,-9.764,0.615,-0.7878,-3.715,0,0,0,0,0,0,0,0,0,0,0,0,0,0,0,0,
420,-22.08,-34.3,-30.43,-13.97,-6.118,-13.83,-14.73,12.95,-21.41,3.782,-30.01,1.615,-18.1,-2.714,-15.16,-19.6,0,0,0,0,0,0,0,0,0,0,0,0,0,0,0,0,
421,-31.61,-28.78,-36.27,-19.57,-20.79,-22.22,-24.89,-25.86,-21.92,-7.616,-40.48,-27.37,-25.3,-23.56,-24.87,-36.16,0,0,0,0,0,0,0,0,0,0,0,0,0,0,0,0,
422,-48.88,-56.62,-42.02,-34.69,-33.06,-36.86,-32.77,-37.5,-30.49,-32.56,-39.8,-19.36,-12.16,-19.87,-11.43,-26.12,0,0,0,0,0,0,0,0,0,0,0,0,0,0,0,0,
423,-38.51,-53.53,-25.84,-29.42,-12.34,-10.17,-13.56,-10.97,-17.01,-16.52,-19.1,4.727,13.46,4.507,7.188,-7.136,0,0,0,0,0,0,0,0,0,0,0,0,0,0,0,0,
424,-14.04,-7.913,-10.03,-15.05,13.86,19.3,12.13,0.4358,8.534,22.69,1.375,10.82,25.79,16.32,16.88,1.239,0,0,0,0,0,0,0,0,0,0,0,0,0,0,0,0,
425,-9.544,-1.095,-15.28,-11.32,18.99,9.761,14.49,3.187,15.18,32.84,2.096,11.32,25.24,14.98,20.43,2.445,0,0,0,0,0,0,0,0,0,0,0,0,0,0,0,0,
426,-17.22,-22.51,-22.35,-4.237,13.72,-8.224,2.909,-6.744,11.23,18.31,-2.552,1.242,16.34,1.008,14.1,-6.712,0,0,0,0,0,0,0,0,0,0,0,0,0,0,0,0,
427,-21.88,-39.94,-25.39,-19.41,-3.297,-10.54,-11.58,-26.82,-1.149,-7.207,-7.998,-17.66,-5.646,-19.25,-3.537,-19.76,0,0,0,0,0,0,0,0,0,0,0,0,0,0,0,0,
428,-27.99,-58.07,-32.87,-42.88,-22.13,-0.2152,-25.47,-27.11,-27.02,-28.58,-26.4,-23.73,-20.88,-22.86,-18.55,-24.41,0,0,0,0,0,0,0,0,0,0,0,0,0,0,0,0,
429,-28.38,-46.28,-33.05,-14.72,-12.0,15.75,-23.82,-33.35,-32.15,-17.07,-31.75,-21.85,-6.194,-7.9,-15.22,-21.68,0,0,0,0,0,0,0,0,0,0,0,0,0,0,0,0,
430,-15.43,-19.39,-24.17,18.48,12.87,12.48,-11.72,-39.86,-2.637,13.07,-6.604,-12.32,19.68,12.96,0.3438,-11.78,0,0,0,0,0,0,0,0,0,0,0,0,0,0,0,0,
431,1.683,-8.654,-12.64,8.83,26.0,-1.35,-1.486,-3.063,23.22,28.24,10.86,6.801,28.29,27.83,6.645,-1.804,0,0,0,0,0,0,0,0,0,0,0,0,0,0,0,0,
432,14.55,11.05,5.593,3.626,35.51,3.647,8.977,13.09,27.9,29.76,0.6827,5.942,17.62,19.36,-4.245,-6.637,0,0,0,0,0,0,0,0,0,0,0,0,0,0,0,0,
433,7.462,13.59,7.351,-3.571,26.13,-11.62,2.865,-30.5,14.89,12.28,-15.64,-14.48,-3.903,-5.972,-21.18,-19.0,0,0,0,0,0,0,0,0,0,0,0,0,0,0,0,0,
434,-17.51,-25.34,-16.15,-35.22,-10.85,-49.83,-16.49,-40.2,-17.84,-25.39,-20.8,-12.44,-17.69,-12.25,-23.27,-13.77,0,0,0,0,0,0,0,0,0,0,0,0,0,0,0,0,
435,-20.85,-48.96,-16.99,-42.87,-22.3,-28.0,-10.91,-3.349,-38.33,-33.42,-11.77,8.361,-8.338,2.159,-8.394,6.681,0,0,0,0,0,0,0,0,0,0,0,0,0,0,0,0,
436,1.319,-33.77,10.5,-25.95,7.666,26.06,10.06,-8.806,-19.06,1.444,-3.461,3.263,3.322,-0.7046,-7.365,7.416,0,0,0,0,0,0,0,0,0,0,0,0,0,0,0,0,
437,17.17,3.34,22.67,-14.21,30.78,20.46,16.85,-41.09,5.653,20.33,-3.688,-20.32,3.411,-14.19,-19.87,-10.72,0,0,0,0,0,0,0,0,0,0,0,0,0,0,0,0,
438,27.98,32.83,25.15,6.788,36.83,-1.232,17.69,-32.16,15.37,14.39,6.181,-18.48,13.84,-3.03,-11.9,-13.4,0,0,0,0,0,0,0,0,0,0,0,0,0,0,0,0,
439,34.11,15.63,31.34,13.28,38.58,4.61,12.68,-20.36,28.95,15.43,16.41,-9.825,25.28,5.205,-4.497,-15.2,0,0,0,0,0,0,0,0,0,0,0,0,0,0,0,0,
440,15.44,-15.62,19.12,-15.66,21.83,-9.137,1.148,-48.92,28.92,2.052,1.352,-29.13,11.9,-17.59,-24.19,-35.17,0,0,0,0,0,0,0,0,0,0,0,0,0,0,0,0,
441,-6.995,-15.99,3.265,-20.17,0.8875,-15.68,3.268,-51.73,5.366,-20.84,-10.75,-34.32,2.454,-25.2,-28.09,-35.47,0,0,0,0,0,0,0,0,0,0,0,0,0,0,0,0,
442,2.566,-0.9496,12.07,15.71,7.236,19.33,9.865,-9.502,1.592,-2.641,0.4695,-6.7,13.78,-1.478,-8.091,-12.99,0,0,0,0,0,0,0,0,0,0,0,0,0,0,0,0,
443,21.91,22.99,20.09,35.68,21.38,27.43,4.223,-3.376,17.29,29.31,3.55,1.587,15.59,11.62,-10.71,-9.279,0,0,0,0,0,0,0,0,0,0,0,0,0,0,0,0,
444,26.25,38.24,19.85,28.19,28.08,15.09,8.768,-22.56,22.78,33.87,1.916,-3.934,14.34,15.27,-25.84,-15.61,0,0,0,0,0,0,0,0,0,0,0,0,0,0,0,0,
445,35.46,19.14,36.98,9.4,40.31,40.28,26.2,-9.134,34.27,39.67,13.64,9.619,23.24,24.08,-26.26,-9.211,0,0,0,0,0,0,0,0,0,0,0,0,0,0,0,0,
446,40.43,7.148,46.19,-3.611,38.78,40.46,25.02,1.25,41.52,41.26,15.21,20.26,24.58,27.43,-17.85,3.477,0,0,0,0,0,0,0,0,0,0,0,0,0,0,0,0,
447,26.47,30.13,31.46,14.35,27.89,3.28,10.9,0.6992,28.3,26.45,11.54,24.32,32.18,37.84,3.223,20.78,0,0,0,0,0,0,0,0,0,0,0,0,0,0,0,0,
448,25.22,41.11,27.1,18.89,39.68,16.49,7.15,3.654,33.43,31.95,15.59,22.15,42.45,45.04,13.58,25.73,0,0,0,0,0,0,0,0,0,0,0,0,0,0,0,0,
449,31.9,18.68,28.31,-24.8,46.45,49.63,11.24,-22.34,46.67,37.05,8.537,3.252,27.23,27.97,-2.972,15.66,0,0,0,0,0,0,0,0,0,0,0,0,0,0,0,0,
450,30.47,4.369,26.36,-32.04,41.48,42.38,22.69,-22.14,40.15,22.9,11.65,14.34,23.79,32.71,4.767,31.08,0,0,0,0,0,0,0,0,0,0,0,0,0,0,0,0,
451,44.65,19.58,38.38,11.75,53.35,24.53,29.98,32.43,45.14,32.93,27.4,49.15,38.02,57.68,25.52,51.11,0,0,0,0,0,0,0,0,0,0,0,0,0,0,0,0,
452,49.86,31.61,41.25,13.12,46.52,3.868,18.28,29.05,42.99,33.88,13.42,36.23,22.84,41.02,10.59,34.98,0,0,0,0,0,0,0,0,0,0,0,0,0,0,0,0,
453,28.03,20.07,32.3,-6.229,20.86,-10.8,17.42,-10.16,16.77,-3.167,6.605,15.29,17.33,18.83,11.36,31.05,0,0,0,0,0,0,0,0,0,0,0,0,0,0,0,0,
454,23.33,6.762,38.13,8.52,27.58,2.393,33.83,9.654,24.82,-6.408,31.03,27.38,42.43,23.83,35.08,44.98,0,0,0,0,0,0,0,0,0,0,0,0,0,0,0,0,
455,26.29,7.052,37.86,7.016,39.66,17.02,26.69,4.528,50.28,15.45,23.22,11.14,35.92,6.256,17.09,22.3,0,0,0,0,0,0,0,0,0,0,0,0,0,0,0,0,
456,15.39,11.96,30.81,-14.19,33.53,34.8,8.594,-41.71,42.08,8.118,-1.219,-12.08,15.87,-6.269,-4.347,2.55,0,0,0,0,0,0,0,0,0,0,0,0,0,0,0,0,
457,21.85,13.86,40.26,-6.886,38.33,56.67,16.49,-16.39,36.75,15.27,11.95,18.13,28.03,27.84,13.86,27.02,0,0,0,0,0,0,0,0,0,0,0,0,0,0,0,0,
458,33.88,18.53,41.38,1.351,38.44,34.19,29.61,29.13,43.8,38.56,24.28,42.25,33.67,43.31,20.62,42.85,0,0,0,0,0,0,0,0,0,0,0,0,0,0,0,0,
459,21.76,23.53,27.87,-14.64,18.37,-4.578,28.42,13.24,30.75,22.75,15.2,25.04,22.84,23.57,6.042,34.83,0,0,0,0,0,0,0,0,0,0,0,0,0,0,0,0,
460,11.37,14.91,32.68,-19.42,16.52,3.652,38.84,8.132,25.37,7.048,26.68,27.55,38.93,34.69,14.08,45.27,0,0,0,0,0,0,0,0,0,0,0,0,0,0,0,0,
461,27.25,9.373,54.97,1.775,45.68,30.21,59.99,28.92,53.55,35.26,50.73,45.89,64.8,59.97,33.91,59.22,0,0,0,0,0,0,0,0,0,0,0,0,0,0,0,0,
462,49.06,27.88,61.2,20.28,61.49,37.43,45.45,16.26,69.88,55.26,39.03,29.79,51.44,43.06,24.02,39.45,0,0,0,0,0,0,0,0,0,0,0,0,0,0,0,0,
463,47.98,40.25,42.35,8.578,47.24,39.22,9.653,2.866,47.82,39.67,13.95,15.28,31.35,24.9,11.36,26.54,0,0,0,0,0,0,0,0,0,0,0,0,0,0,0,0,
464,35.68,26.78,35.54,-15.22,46.56,38.49,14.56,8.135,41.14,30.05,27.66,25.29,48.73,38.19,28.01,44.55,0,0,0,0,0,0,0,0,0,0,0,0,0,0,0,0,
465,36.88,19.48,48.23,-6.486,56.06,21.97,27.6,-9.288,60.38,28.93,34.02,6.07,47.63,24.19,16.26,32.39,0,0,0,0,0,0,0,0,0,0,0,0,0,0,0,0,
466,40.23,29.6,39.05,24.01,34.44,11.75,0.6871,-4.299,40.91,12.24,-5.066,-11.09,8.582,-4.431,-23.02,7.643,0,0,0,0,0,0,0,0,0,0,0,0,0,0,0,0,
467,40.51,30.73,21.74,36.5,19.24,38.22,-11.5,51.52,7.285,13.79,-15.86,27.92,5.118,19.23,-11.23,34.51,0,0,0,0,0,0,0,0,0,0,0,0,0,0,0,0,
468,46.99,23.91,29.25,48.1,34.87,63.06,7.139,62.55,17.74,44.56,6.306,45.56,21.56,40.82,7.074,49.47,0,0,0,0,0,0,0,0,0,0,0,0,0,0,0,0,
469,41.28,33.77,27.45,68.68,29.17,42.99,2.334,20.08,21.07,44.88,-10.19,12.05,0.7135,10.96,-26.03,11.83,0,0,0,0,0,0,0,0,0,0,0,0,0,0,0,0,
470,22.32,44.98,3.06,57.58,8.395,19.67,-14.7,10.27,-4.409,8.814,-31.53,-1.28,-17.34,-11.05,-46.34,-10.99,0,0,0,0,0,0,0,0,0,0,0,0,0,0,0,0,
471,23.64,35.2,-0.8737,31.8,13.71,25.42,-9.639,25.31,-8.272,-15.71,-10.64,3.566,-7.816,-8.529,-33.38,-7.578,0,0,0,0,0,0,0,0,0,0,0,0,0,0,0,0,
472,41.41,29.11,21.39,39.47,21.26,24.36,-0.3638,34.68,-0.6908,-21.62,7.456,2.301,-2.731,-9.485,-27.22,-6.267,0,0,0,0,0,0,0,0,0,0,0,0,0,0,0,0,
473,35.4,26.25,25.98,40.13,5.476,1.97,-10.4,25.91,-8.848,-19.52,-6.141,-6.408,-11.89,-16.73,-33.31,-12.68,0,0,0,0,0,0,0,0,0,0,0,0,0,0,0,0,
474,11.33,5.362,4.444,13.57,-12.21,-3.014,-26.87,-13.85,-23.54,-17.11,-21.1,-28.68,-23.73,-26.87,-38.02,-21.86,0,0,0,0,0,0,0,0,0,0,0,0,0,0,0,0,
475,19.6,12.78,10.31,31.73,0.0058,31.44,-13.78,-4.208,-28.44,-10.84,-5.438,-15.84,-12.19,-12.35,-18.93,-3.274,0,0,0,0,0,0,0,0,0,0,0,0,0,0,0,0,
476,53.64,52.09,51.19,71.16,32.04,56.93,16.75,60.86,-7.005,15.3,19.01,22.59,12.75,16.94,1.171,21.42,0,0,0,0,0,0,0,0,0,0,0,0,0,0,0,0,
477,51.72,37.04,59.41,40.47,35.28,37.68,14.65,49.92,8.592,24.36,7.531,5.763,3.73,5.726,-14.36,6.215,0,0,0,0,0,0,0,0,0,0,0,0,0,0,0,0,
478,19.74,-4.663,33.15,0.815,13.89,25.67,-5.571,3.257,-11.67,-6.808,-11.59,-20.34,-11.0,-15.37,-20.03,-5.505,0,0,0,0,0,0,0,0,0,0,0,0,0,0,0,0,
479,10.22,15.27,23.62,27.63,6.16,28.95,-10.27,11.22,-20.44,-20.0,-3.125,-12.34,3.353,-11.19,-3.33,2.673,0,0,0,0,0,0,0,0,0,0,0,0,0,0,0,0,
480,10.01,33.3,15.24,46.3,-3.484,-3.556,-13.55,-5.509,-13.11,-13.65,-5.532,-26.93,-0.3725,-21.82,-9.04,-7.25,0,0,0,0,0,0,0,0,0,0,0,0,0,0,0,0,
481,-3.627,0.5266,-2.637,26.71,-20.1,-27.6,-15.48,-24.58,-29.44,-24.39,-24.35,-27.08,-19.54,-25.31,-10.55,-5.031,0,0,0,0,0,0,0,0,0,0,0,0,0,0,0,0,
482,-6.563,-3.386,-3.709,19.63,-19.68,-6.091,-16.12,20.81,-39.06,-17.63,-27.32,8.032,-16.28,-0.5754,4.327,14.11,0,0,0,0,0,0,0,0,0,0,0,0,0,0,0,0,
483,-7.887,13.37,-9.711,15.03,-22.3,-1.188,-32.18,26.72,-33.22,-1.527,-28.26,-5.753,-18.53,-9.101,1.673,3.155,0,0,0,0,0,0,0,0,0,0,0,0,0,0,0,0,
484,-23.29,-6.833,-23.47,11.1,-30.53,-7.698,-36.73,-12.29,-41.06,-14.4,-27.67,-32.64,-20.82,-30.55,7.924,-7.652,0,0,0,0,0,0,0,0,0,0,0,0,0,0,0,0,
485,-18.74,-17.83,-6.952,19.13,-16.81,13.68,-20.08,-7.548,-32.31,-15.89,-11.84,-13.59,4.731,-12.05,26.19,5.288,0,0,0,0,0,0,0,0,0,0,0,0,0,0,0,0,
486,0.6633,-0.7904,12.47,7.872,-3.621,21.55,-16.75,-1.273,-6.506,2.153,-2.0,-10.47,20.45,-1.246,21.03,3.269,0,0,0,0,0,0,0,0,0,0,0,0,0,0,0,0,
487,2.131,9.972,6.65,5.1,-4.657,6.125,-9.987,-4.607,-3.656,6.645,5.571,-17.42,17.24,-9.336,22.39,0.7842,0,0,0,0,0,0,0,0,0,0,0,0,0,0,0,0,
488,-2.874,6.815,-1.425,28.67,-7.118,-3.443,8.145,4.793,-8.8,6.65,10.18,-3.844,8.787,-10.51,28.66,10.36,0,0,0,0,0,0,0,0,0,0,0,0,0,0,0,0,
489,-16.32,-25.91,-20.39,12.09,-26.77,-11.12,-7.615,-11.9,-20.26,-10.43,-16.45,-15.48,-23.63,-32.55,-1.002,-2.325,0,0,0,0,0,0,0,0,0,0,0,0,0,0,0,0,
490,-32.58,-47.6,-37.03,-12.06,-40.9,-9.411,-28.33,-8.33,-43.45,-37.95,-31.74,-22.84,-41.3,-46.73,-17.99,-9.049,0,0,0,0,0,0,0,0,0,0,0,0,0,0,0,0,
491,-16.95,-9.622,-14.47,24.14,-18.43,0.3278,-8.765,30.46,-34.69,-24.5,-7.456,-2.749,-15.89,-21.43,-2.824,5.857,0,0,0,0,0,0,0,0,0,0,0,0,0,0,0,0,
492,1.219,4.981,2.869,44.58,-4.353,8.887,4.034,9.549,-6.832,0.0293,-1.942,-21.03,-4.261,-18.21,-11.41,-7.482,0,0,0,0,0,0,0,0,0,0,0,0,0,0,0,0,
493,-2.621,-22.73,-2.459,12.07,-8.318,31.07,2.586,-29.62,0.3466,-1.164,-1.482,-40.05,-3.94,-28.99,-12.45,-15.62,0,0,0,0,0,0,0,0,0,0,0,0,0,0,0,0,
494,8.394,4.849,18.52,7.166,5.974,33.76,24.09,-5.079,13.53,12.44,28.46,-0.5104,15.84,-1.198,21.75,23.12,0,0,0,0,0,0,0,0,0,0,0,0,0,0,0,0,
495,17.47,41.04,36.05,32.34,10.92,-2.201,30.59,22.2,25.6,31.0,25.24,31.07,13.59,17.37,29.01,46.91,0,0,0,0,0,0,0,0,0,0,0,0,0,0,0,0,
496,2.451,11.24,20.97,26.1,-4.41,-11.58,14.42,21.45,7.432,20.06,0.7169,33.94,-0.9503,9.486,29.12,50.07,0,0,0,0,0,0,0,0,0,0,0,0,0,0,0,0,
497,6.167,3.113,23.42,7.452,5.114,13.9,31.16,29.54,2.729,14.77,33.24,49.67,21.57,23.7,72.21,76.58,0,0,0,0,0,0,0,0,0,0,0,0,0,0,0,0,
498,23.09,35.3,32.1,21.02,25.32,29.11,51.78,40.78,24.73,29.63,67.08,57.81,41.55,39.28,91.32,86.64,0,0,0,0,0,0,0,0,0,0,0,0,0,0,0,0,
499,6.239,7.367,0.1968,31.68,7.578,34.37,20.67,34.0,20.16,29.73,32.54,40.73,19.06,22.8,50.61,57.19,0,0,0,0,0,0,0,0,0,0,0,0,0,0,0,0,
500,-28.87,-45.81,-36.53,6.18,-31.49,15.4,-24.95,6.32,-11.51,8.706,-6.885,16.94,-10.06,0.8481,16.11,29.72,0,0,0,0,0,0,0,0,0,0,0,0,0,0,0,0,
501,-46.03,-32.29,-40.45,-15.99,-48.18,-28.75,-36.5,-15.23,-28.32,-11.54,-3.808,1.161,-17.94,-4.657,15.8,16.62,0,0,0,0,0,0,0,0,0,0,0,0,0,0,0,0,
502,-46.5,-10.11,-28.94,-19.45,-39.78,-39.67,-16.39,3.842,-25.09,-13.32,8.322,10.76,-8.336,5.581,32.39,19.35,0,0,0,0,0,0,0,0,0,0,0,0,0,0,0,0,
503,-27.77,-16.82,-6.917,-9.732,-19.51,-12.94,16.58,42.22,-11.68,5.648,24.41,34.64,14.6,23.39,58.32,41.96,0,0,0,0,0,0,0,0,0,0,0,0,0,0,0,0,
504,8.996,7.204,20.75,20.15,4.99,2.277,34.8,41.03,8.057,22.87,43.59,32.29,27.9,24.5,66.27,46.03,0,0,0,0,0,0,0,0,0,0,0,0,0,0,0,0,
505,15.99,16.45,17.81,14.14,12.77,5.332,22.41,-3.598,14.31,16.46,24.25,8.769,10.55,3.503,40.4,15.77,0,0,0,0,0,0,0,0,0,0,0,0,0,0,0,0,
506,-12.04,-27.25,-11.12,-36.3,2.261,15.73,-0.843,-17.49,1.613,2.079,-16.48,2.628,-8.891,-10.0,15.51,-1.312,0,0,0,0,0,0,0,0,0,0,0,0,0,0,0,0,
507,-16.62,-31.31,-20.41,-35.63,-2.289,20.01,-12.66,12.72,-6.313,0.7996,-21.36,5.259,-7.474,-8.89,10.15,5.028,0,0,0,0,0,0,0,0,0,0,0,0,0,0,0,0,
508,-10.3,-0.8088,-11.7,7.537,-5.144,4.513,-8.658,10.16,-9.559,0.9291,-7.273,-4.891,-8.761,-12.08,10.53,2.72,0,0,0,0,0,0,0,0,0,0,0,0,0,0,0,0,
509,-23.35,-3.114,-7.617,16.41,-15.8,-16.44,3.173,-8.719,-18.61,-3.949,-4.578,-6.776,-19.45,-17.95,12.89,-2.164,0,0,0,0,0,0,0,0,0,0,0,0,0,0,0,0,
510,-15.14,1.304,-1.474,6.557,-18.3,-20.55,6.18,11.45,-19.25,-5.874,-4.538,-1.478,-25.78,-21.67,7.313,-8.417,0,0,0,0,0,0,0,0,0,0,0,0,0,0,0,0,
511,5.418,19.86,5.379,2.499,-9.471,-3.243,2.2,17.43,-12.59,-11.97,-13.38,-13.05,-29.81,-27.56,-9.258,-30.35,0,0,0,0,0,0,0,0,0,0,0,0,0,0,0,0,
512,-5.907,7.369,-1.345,-1.441,-4.401,5.878,2.171,-5.836,-13.29,-21.71,-29.31,-23.04,-32.92,-33.74,-19.36,-42.8,0,0,0,0,0,0,0,0,0,0,0,0,0,0,0,0,
513,-22.49,-17.98,-18.3,-0.7585,-12.66,-16.22,-3.485,-0.2028,-20.1,-23.56,-30.56,-17.91,-35.5,-38.35,-23.86,-34.25,0,0,0,0,0,0,0,0,0,0,0,0,0,0,0,0,
514,-17.68,-18.28,-24.45,-0.4489,-21.19,-23.39,-10.65,15.78,-29.16,-15.97,-19.68,-12.82,-36.02,-34.49,-23.48,-24.43,0,0,0,0,0,0,0,0,0,0,0,0,0,0,0,0,
515,-9.584,4.138,-14.38,-5.028,-15.41,6.044,-8.006,-2.181,-32.65,-7.524,-12.21,-15.29,-31.95,-31.61,-15.87,-17.56,0,0,0,0,0,0,0,0,0,0,0,0,0,0,0,0,
516,-12.4,10.17,-12.97,-9.668,-14.96,-2.101,-11.21,-23.68,-28.49,-21.56,-9.471,-25.83,-32.66,-47.0,-17.19,-16.57,0,0,0,0,0,0,0,0,0,0,0,0,0,0,0,0,
517,-18.49,-6.769,-24.13,-5.295,-27.37,-50.41,-20.52,-7.643,-27.02,-51.28,-2.122,-24.87,-32.78,-51.1,-21.22,-16.21,0,0,0,0,0,0,0,0,0,0,0,0,0,0,0,0,
518,-16.58,-12.02,-30.62,4.545,-32.41,-53.75,-21.26,17.66,-27.89,-54.14,1.78,-8.173,-27.65,-32.65,-20.59,-8.972,0,0,0,0,0,0,0,0,0,0,0,0,0,0,0,0,
519,-19.45,-21.66,-38.07,-2.31,-35.17,-29.55,-19.82,16.43,-32.66,-40.65,-13.61,-7.763,-33.18,-27.39,-27.25,-10.28,0,0,0,0,0,0,0,0,0,0,0,0,0,0,0,0,
520,-31.41,-42.61,-41.81,-11.56,-39.81,-31.11,-21.0,12.25,-41.51,-40.47,-25.45,-13.21,-37.0,-24.2,-25.06,-14.6,0,0,0,0,0,0,0,0,0,0,0,0,0,0,0,0,
521,-30.11,-38.77,-29.6,-5.907,-34.32,-25.18,-21.14,15.3,-36.81,-33.85,-17.87,-2.072,-25.22,-7.442,-10.03,-5.009,0,0,0,0,0,0,0,0,0,0,0,0,0,0,0,0,
522,-18.8,-33.6,-13.8,-12.92,-22.99,-7.786,-11.89,12.37,-20.44,-19.3,-14.09,1.34,-18.82,-4.092,-3.657,4.458,0,0,0,0,0,0,0,0,0,0,0,0,0,0,0,0,
523,-11.96,-34.55,-0.3298,-25.11,-10.18,-17.33,4.446,8.367,-11.89,-17.53,-13.32,-8.279,-22.09,-12.73,-0.2012,0.7757,0,0,0,0,0,0,0,0,0,0,0,0,0,0,0,0,
524,-5.39,-2.064,1.837,-21.61,-5.721,-29.42,-1.243,-8.842,-14.5,-22.33,-9.429,-17.77,-28.68,-21.96,-0.4659,-15.21,0,0,0,0,0,0,0,0,0,0,0,0,0,0,0,0,
525,-3.132,16.52,-15.28,-21.96,-18.15,-14.16,-20.06,-20.74,-24.84,-28.67,-15.99,-23.32,-36.57,-29.02,-7.577,-28.46,0,0,0,0,0,0,0,0,0,0,0,0,0,0,0,0,
526,-5.942,-18.98,-18.3,-9.527,-17.9,6.818,-7.311,10.32,-28.01,-26.43,-16.19,-7.611,-24.25,-12.66,3.073,-15.1,0,0,0,0,0,0,0,0,0,0,0,0,0,0,0,0,
527,-0.2298,-29.14,4.415,26.98,4.125,13.07,19.01,31.54,-7.604,-2.38,1.477,15.69,3.429,12.68,22.78,6.491,0,0,0,0,0,0,0,0,0,0,0,0,0,0,0,0,
528,8.234,12.42,10.08,31.83,8.753,2.701,13.15,8.334,13.79,14.59,7.21,9.976,8.646,9.711,18.59,0.2207,0,0,0,0,0,0,0,0,0,0,0,0,0,0,0,0,
529,0.0065,22.82,-11.7,4.042,-5.705,-10.45,-8.207,3.752,8.954,3.074,-7.171,-5.803,-7.465,-5.622,-0.4936,-17.83,0,0,0,0,0,0,0,0,0,0,0,0,0,0,0,0,
530,-15.48,-2.975,-23.2,-2.733,-5.213,-11.49,-6.02,24.22,-3.319,-10.26,-17.59,-4.536,-15.01,-6.853,-6.778,-18.17,0,0,0,0,0,0,0,0,0,0,0,0,0,0,0,0,
531,-15.63,-8.89,-12.61,-7.645,4.161,-9.606,7.336,11.84,-1.736,-12.22,-14.94,-7.05,-10.14,-5.76,1.279,-13.73,0,0,0,0,0,0,0,0,0,0,0,0,0,0,0,0,
532,-12.45,-28.08,-5.428,-39.4,1.654,-1.208,-1.143,-22.86,-0.5198,-13.59,-11.3,-17.72,-7.711,-10.72,3.133,-18.83,0,0,0,0,0,0,0,0,0,0,0,0,0,0,0,0,
533,-15.92,-64.92,-6.326,-48.88,1.04,16.74,-12.39,-27.2,-6.679,-13.49,-15.06,-12.55,-8.945,-9.823,-2.857,-15.87,0,0,0,0,0,0,0,0,0,0,0,0,0,0,0,0,
534,-1.264,-31.41,4.812,-3.283,14.6,6.485,5.459,1.427,-1.673,-8.743,-13.28,4.261,1.231,3.019,9.798,1.625,0,0,0,0,0,0,0,0,0,0,0,0,0,0,0,0,
535,26.63,44.21,23.54,42.79,26.71,-22.19,28.74,32.51,15.89,0.2997,0.339,14.24,18.13,17.7,33.88,11.18,0,0,0,0,0,0,0,0,0,0,0,0,0,0,0,0,
536,29.86,51.01,29.19,28.3,23.52,-13.4,29.26,42.87,20.36,8.375,3.958,11.76,15.46,16.36,31.11,3.612,0,0,0,0,0,0,0,0,0,0,0,0,0,0,0,0,
537,13.09,11.8,25.42,-8.429,15.38,11.72,23.92,23.31,7.471,6.837,-0.5778,1.796,3.895,3.906,15.99,-1.213,0,0,0,0,0,0,0,0,0,0,0,0,0,0,0,0,
538,6.546,2.423,25.74,2.426,18.52,8.276,28.37,1.281,4.186,4.858,7.947,-1.857,7.42,1.309,22.31,4.651,0,0,0,0,0,0,0,0,0,0,0,0,0,0,0,0,
539,0.6187,-0.7452,20.1,14.03,17.61,-6.315,23.02,-1.337,7.656,2.022,7.315,-5.879,2.132,-6.592,23.96,-1.485,0,0,0,0,0,0,0,0,0,0,0,0,0,0,0,0,
540,-15.63,-36.16,4.66,-21.58,2.156,-10.78,4.562,-13.31,-3.543,-17.23,-8.358,-17.39,-14.02,-26.85,7.417,-16.39,0,0,0,0,0,0,0,0,0,0,0,0,0,0,0,0,
541,-8.21,-56.73,8.582,-29.11,6.055,-6.6,8.915,-26.8,-5.595,-27.21,1.105,-8.368,-5.655,-19.47,7.917,-8.041,0,0,0,0,0,0,0,0,0,0,0,0,0,0,0,0,
542,18.0,-25.96,26.22,-1.589,22.45,-6.922,29.59,-3.366,7.566,-12.5,20.35,13.5,5.579,5.51,18.37,6.897,0,0,0,0,0,0,0,0,0,0,0,0,0,0,0,0,
543,8.91,2.715,17.14,-10.19,11.14,-28.78,27.93,25.87,0.3003,-10.82,14.22,11.71,-3.894,5.499,15.0,0.263,0,0,0,0,0,0,0,0,0,0,0,0,0,0,0,0,
544,-19.88,-5.32,-4.604,-29.0,-0.7187,-45.97,16.0,24.49,-9.021,-16.72,3.152,1.422,-8.205,-1.477,10.2,-12.5,0,0,0,0,0,0,0,0,0,0,0,0,0,0,0,0,
545,-25.49,-27.64,-12.01,-41.8,1.743,-23.61,2.692,6.461,-3.318,-6.331,-6.988,-6.598,-16.3,-4.604,-0.3852,-28.97,0,0,0,0,0,0,0,0,0,0,0,0,0,0,0,0,
546,-25.47,-49.18,-14.4,-64.94,-12.6,-1.868,-15.0,-12.54,-18.2,-11.13,-18.36,-20.58,-33.69,-14.86,-12.49,-42.22,0,0,0,0,0,0,0,0,0,0,0,0,0,0,0,0,
547,-27.88,-46.5,-9.39,-45.7,-20.84,-21.42,-5.967,-11.46,-33.66,-27.25,-8.998,-15.22,-24.72,-8.306,1.524,-23.88,0,0,0,0,0,0,0,0,0,0,0,0,0,0,0,0,
548,-19.88,-15.75,-0.4807,-1.627,-7.573,-35.98,11.24,9.269,-18.42,-15.92,5.93,6.311,-5.73,11.02,19.64,-1.274,0,0,0,0,0,0,0,0,0,0,0,0,0,0,0,0,
549,-13.32,0.544,-0.7536,-4.937,-5.344,-23.07,-1.39,8.329,-10.85,1.032,6.019,10.77,-8.803,12.56,15.77,-11.16,0,0,0,0,0,0,0,0,0,0,0,0,0,0,0,0,
550,-14.22,-7.495,2.178,-19.89,-4.686,-24.79,-5.346,-6.488,-17.9,-1.207,4.544,8.259,-10.69,11.15,12.03,-26.01,0,0,0,0,0,0,0,0,0,0,0,0,0,0,0,0,
551,-11.99,-14.39,12.96,-5.468,11.91,-18.02,15.03,7.555,-7.625,-0.4197,4.383,15.0,2.681,24.54,16.73,-19.73,0,0,0,0,0,0,0,0,0,0,0,0,0,0,0,0,
552,-1.849,-10.93,24.1,10.52,22.62,25.17,23.58,22.48,11.83,11.18,4.487,15.7,11.07,30.74,14.25,-12.8,0,0,0,0,0,0,0,0,0,0,0,0,0,0,0,0,
553,-1.277,-13.96,24.81,1.291,10.97,30.79,14.47,1.745,16.49,10.91,-2.171,-1.937,-3.067,7.799,-2.35,-30.9,0,0,0,0,0,0,0,0,0,0,0,0,0,0,0,0,
554,-23.35,-36.98,3.438,-26.75,-16.58,-17.73,-5.995,-16.29,-2.798,-12.03,-25.16,-24.57,-31.88,-24.8,-22.7,-57.01,0,0,0,0,0,0,0,0,0,0,0,0,0,0,0,0,
555,-34.9,-32.63,-8.196,-22.16,-27.68,-36.01,-19.6,-10.4,-27.87,-32.92,-36.9,-30.52,-46.06,-32.6,-26.76,-58.77,0,0,0,0,0,0,0,0,0,0,0,0,0,0,0,0,
556,-21.06,16.47,11.08,14.44,-8.679,-13.14,-7.287,-6.534,-30.55,-31.05,-24.46,-22.84,-41.18,-23.57,-17.03,-47.61,0,0,0,0,0,0,0,0,0,0,0,0,0,0,0,0,
557,-15.92,20.32,19.9,5.977,1.55,2.488,0.1217,0.9012,-21.82,-25.02,-11.65,-15.48,-30.92,-18.54,-10.44,-39.11,0,0,0,0,0,0,0,0,0,0,0,0,0,0,0,0,
558,-17.1,-29.76,9.195,-32.51,-4.437,7.551,-9.252,6.74,-13.43,-23.91,-1.904,-13.18,-15.28,-13.97,-13.84,-29.78,0,0,0,0,0,0,0,0,0,0,0,0,0,0,0,0,
559,-2.393,-31.14,8.026,-28.02,1.368,11.92,-7.949,-13.98,2.005,-16.9,-4.247,-23.15,-13.54,-15.66,-30.61,-34.42,0,0,0,0,0,0,0,0,0,0,0,0,0,0,0,0,
560,7.014,6.126,9.727,-1.8,0.167,2.52,-11.15,-22.96,-3.264,-17.04,-31.38,-36.74,-40.0,-28.19,-48.89,-47.36,0,0,0,0,0,0,0,0,0,0,0,0,0,0,0,0,
561,-7.898,-0.3915,2.736,-1.765,-21.86,-22.13,-30.01,-5.836,-40.59,-31.08,-51.37,-36.66,-62.9,-37.59,-54.11,-42.87,0,0,0,0,0,0,0,0,0,0,0,0,0,0,0,0,
562,-28.62,-23.79,-6.603,-16.63,-32.09,-33.03,-32.86,-13.03,-63.68,-41.94,-48.07,-30.79,-65.76,-38.47,-55.47,-32.77,0,0,0,0,0,0,0,0,0,0,0,0,0,0,0,0,
563,-30.66,-5.737,-8.327,-6.874,-20.81,-24.76,-17.83,-18.66,-55.11,-44.94,-40.51,-24.29,-57.5,-28.11,-55.93,-29.05,0,0,0,0,0,0,0,0,0,0,0,0,0,0,0,0,
564,-10.95,18.9,8.989,24.38,-1.651,-19.57,-4.262,12.81,-32.52,-35.62,-24.58,-12.36,-33.6,-9.234,-45.48,-20.12,0,0,0,0,0,0,0,0,0,0,0,0,0,0,0,0,
565,7.789,5.197,22.17,14.48,11.89,-5.144,-1.708,16.75,-4.917,-12.58,-9.475,-7.469,-14.54,-2.776,-30.76,-9.91,0,0,0,0,0,0,0,0,0,0,0,0,0,0,0,0,
566,4.018,-12.95,4.741,-27.05,0.7864,14.18,-14.49,-11.72,1.961,-2.879,-20.83,-13.42,-23.93,-11.26,-22.25,-7.348,0,0,0,0,0,0,0,0,0,0,0,0,0,0,0,0,
567,-5.176,-7.778,-4.933,-18.4,-15.25,1.127,-18.37,-6.073,-15.01,-14.46,-32.64,-17.08,-30.29,-16.39,-15.51,-8.288,0,0,0,0,0,0,0,0,0,0,0,0,0,0,0,0,
568,-1.154,-13.69,9.896,5.866,-10.33,-19.24,-10.27,1.622,-16.42,-21.69,-24.7,-20.31,-20.46,-18.38,-11.01,-12.17,0,0,0,0,0,0,0,0,0,0,0,0,0,0,0,0,
569,-7.954,-30.91,1.725,-14.02,-11.1,-7.703,-19.0,-24.54,-7.107,-17.82,-20.94,-23.97,-19.9,-17.29,-13.8,-16.12,0,0,0,0,0,0,0,0,0,0,0,0,0,0,0,0,
570,-18.75,-14.67,-14.15,-11.93,-12.25,18.37,-15.09,-26.22,-4.883,-4.296,-9.555,-11.78,-9.362,1.033,-6.599,-5.975,0,0,0,0,0,0,0,0,0,0,0,0,0,0,0,0,
571,2.164,18.52,5.612,15.12,11.73,28.22,13.92,1.84,12.57,15.26,15.18,5.069,18.37,15.82,9.798,4.632,0,0,0,0,0,0,0,0,0,0,0,0,0,0,0,0,
572,19.38,21.46,18.89,-8.215,18.14,6.845,7.93,8.424,25.52,12.71,8.523,-1.598,18.36,2.559,1.753,-12.78,0,0,0,0,0,0,0,0,0,0,0,0,0,0,0,0,
573,2.967,1.247,-0.3805,-32.96,-0.1163,-6.565,-18.31,6.389,11.27,-0.7015,-11.88,-6.333,6.206,3.166,-7.678,-25.05,0,0,0,0,0,0,0,0,0,0,0,0,0,0,0,0,
574,-13.63,-22.99,-16.17,-10.92,2.425,17.46,-9.146,13.81,13.43,18.09,-0.1303,12.4,18.1,31.25,12.15,-4.121,0,0,0,0,0,0,0,0,0,0,0,0,0,0,0,0,
575,-24.26,-32.26,-21.7,-0.4895,4.108,12.77,3.558,4.641,24.61,33.52,1.17,8.023,12.07,24.12,8.117,-1.402,0,0,0,0,0,0,0,0,0,0,0,0,0,0,0,0,
576,-27.47,-8.118,-26.1,-10.06,-14.51,-23.81,-8.828,-12.24,-2.975,5.726,-27.0,-15.47,-17.67,-6.826,-20.05,-18.97,0,0,0,0,0,0,0,0,0,0,0,0,0,0,0,0,
577,-22.86,-1.274,-35.93,-18.09,-24.72,-19.68,-22.73,-1.684,-30.46,-11.58,-28.45,-1.566,-16.21,1.097,-9.499,-6.37,0,0,0,0,0,0,0,0,0,0,0,0,0,0,0,0,
578,-38.81,-34.12,-48.59,-33.93,-27.37,-13.35,-23.42,13.71,-19.63,0.1331,-10.73,12.05,-0.3919,12.77,3.742,4.182,0,0,0,0,0,0,0,0,0,0,0,0,0,0,0,0,
579,-35.95,-29.79,-24.05,-31.57,-18.05,-33.68,-4.971,-4.047,-3.74,-5.796,-10.68,-12.79,-2.378,-5.355,-11.58,-7.966,0,0,0,0,0,0,0,0,0,0,0,0,0,0,0,0,
580,15.75,6.011,24.6,-9.554,13.04,-17.28,17.03,-22.88,9.483,-16.62,-2.561,-16.13,5.997,-6.582,-4.029,5.802,0,0,0,0,0,0,0,0,0,0,0,0,0,0,0,0,
581,38.75,7.407,35.25,-5.896,30.3,12.2,19.53,-15.6,28.91,-6.867,10.79,5.967,17.41,8.779,7.066,24.76,0,0,0,0,0,0,0,0,0,0,0,0,0,0,0,0,
582,27.53,11.15,34.46,-6.016,25.05,5.724,20.16,-13.43,28.66,-3.3,0.0668,3.179,4.074,4.215,-11.13,8.962,0,0,0,0,0,0,0,0,0,0,0,0,0,0,0,0,
583,42.9,34.88,54.94,-0.2662,25.43,1.177,28.14,-9.718,10.06,-8.225,-5.482,-3.869,-7.455,-3.353,-9.562,-2.946,0,0,0,0,0,0,0,0,0,0,0,0,0,0,0,0,
584,42.96,29.06,47.8,-17.18,24.81,9.998,22.64,7.738,3.247,-2.895,0.0404,-3.988,-9.512,-4.269,7.391,-0.8819,0,0,0,0,0,0,0,0,0,0,0,0,0,0,0,0,
585,5.215,8.146,17.15,-33.89,12.12,8.194,9.869,-3.551,2.518,-1.627,-14.62,-19.34,-22.76,-15.18,0.8446,-11.98,0,0,0,0,0,0,0,0,0,0,0,0,0,0,0,0,
586,-1.919,3.084,13.06,-10.9,4.264,-2.927,5.269,-20.95,-6.12,-12.07,-22.32,-21.92,-27.64,-20.87,3.334,-14.95,0,0,0,0,0,0,0,0,0,0,0,0,0,0,0,0,
587,18.36,1.064,19.04,13.21,13.46,-11.17,3.923,1.006,-8.463,-12.12,-6.478,-4.301,-14.06,-8.43,24.38,-0.383,0,0,0,0,0,0,0,0,0,0,0,0,0,0,0,0,
588,16.05,-1.158,19.48,-4.748,26.61,0.0327,5.533,11.5,-0.1865,5.575,0.8733,-3.791,-4.243,3.55,31.45,6.901,0,0,0,0,0,0,0,0,0,0,0,0,0,0,0,0,
589,9.748,2.167,29.97,-20.08,18.66,6.899,6.738,-8.188,0.9559,13.15,3.354,-13.01,-0.6478,3.963,26.61,7.817,0,0,0,0,0,0,0,0,0,0,0,0,0,0,0,0,
590,18.39,12.14,34.03,-11.19,0.0222,-18.09,2.24,-15.42,-6.865,-5.759,4.509,-12.89,-3.16,-4.188,14.13,3.209,0,0,0,0,0,0,0,0,0,0,0,0,0,0,0,0,
591,25.94,26.91,31.93,-29.85,5.64,-21.39,7.208,-13.45,-6.168,-21.06,-9.274,-12.49,-13.9,-10.0,2.195,-8.559,0,0,0,0,0,0,0,0,0,0,0,0,0,0,0,0,
592,27.6,29.19,42.24,-51.78,21.7,11.09,20.11,-12.97,2.866,-14.69,-12.42,-12.93,-13.61,-1.894,14.4,-3.484,0,0,0,0,0,0,0,0,0,0,0,0,0,0,0,0,
593,22.15,13.47,40.15,-21.65,28.37,19.8,24.92,-12.08,11.98,-4.388,9.031,-6.52,9.857,15.88,40.32,22.53,0,0,0,0,0,0,0,0,0,0,0,0,0,0,0,0,
594,28.37,11.95,31.25,12.48,53.46,19.09,38.4,0.2167,40.34,16.7,33.63,14.77,45.76,37.57,59.37,42.67,0,0,0,0,0,0,0,0,0,0,0,0,0,0,0,0,
595,55.7,38.35,44.07,17.43,79.57,37.18,55.08,29.7,82.06,49.94,42.09,29.42,64.21,49.49,58.9,35.09,0,0,0,0,0,0,0,0,0,0,0,0,0,0,0,0,
596,56.72,51.89,41.86,18.36,58.88,43.04,37.79,22.53,84.67,56.33,26.91,11.41,48.82,37.74,39.21,12.33,0,0,0,0,0,0,0,0,0,0,0,0,0,0,0,0,
597,31.58,40.53,21.14,3.666,31.78,32.72,15.37,-5.309,55.81,40.67,18.37,9.405,35.99,32.08,41.03,17.84,0,0,0,0,0,0,0,0,0,0,0,0,0,0,0,0,
598,24.35,36.1,22.58,-20.81,40.29,17.33,27.48,20.09,47.97,39.98,30.04,38.69,41.17,44.27,59.19,41.03,0,0,0,0,0,0,0,0,0,0,0,0,0,0,0,0,
599,16.89,29.86,18.84,-19.15,43.7,9.907,33.69,27.35,48.12,41.07,24.08,29.87,33.29,38.87,47.3,34.26,0,0,0,0,0,0,0,0,0,0,0,0,0,0,0,0,
600,5.965,10.13,-0.3763,-9.896,27.81,24.47,11.59,-16.76,37.13,31.2,14.59,1.093,24.29,25.68,37.27,19.54,0,0,0,0,0,0,0,0,0,0,0,0,0,0,0,0,
601,4.361,-4.505,-4.116,-32.55,24.06,25.75,2.695,-21.42,34.59,27.31,30.06,5.039,29.73,25.14,48.71,21.21,0,0,0,0,0,0,0,0,0,0,0,0,0,0,0,0,
602,-14.83,-14.75,-12.18,-76.09,34.82,19.36,15.05,-22.04,32.55,25.78,30.86,6.5,21.78,17.57,37.51,13.99,0,0,0,0,0,0,0,0,0,0,0,0,0,0,0,0,
603,-20.54,-3.918,-22.78,-83.42,39.35,42.05,14.18,-45.07,21.32,20.85,9.668,0.6398,4.332,11.02,15.8,-0.0684,0,0,0,0,0,0,0,0,0,0,0,0,0,0,0,0,
604,14.51,40.38,-8.402,-30.69,23.55,33.08,0.5563,-12.84,12.36,16.77,2.879,10.03,0.5331,17.52,14.47,-7.467,0,0,0,0,0,0,0,0,0,0,0,0,0,0,0,0,
605,33.61,63.44,6.189,19.07,6.79,-11.86,10.05,28.61,8.063,11.4,12.96,16.94,13.08,26.0,26.16,-4.53,0,0,0,0,0,0,0,0,0,0,0,0,0,0,0,0,
606,29.75,41.89,11.35,17.68,15.95,5.316,40.42,23.87,21.63,17.33,30.24,26.57,37.71,39.88,41.52,12.88,0,0,0,0,0,0,0,0,0,0,0,0,0,0,0,0,
607,30.94,19.88,14.1,-2.957,24.18,44.95,45.15,9.825,47.41,32.95,36.88,30.39,42.54,41.27,37.18,17.05,0,0,0,0,0,0,0,0,0,0,0,0,0,0,0,0,
608,23.86,16.3,-0.9703,-18.54,8.305,19.63,21.32,-15.52,43.87,26.71,21.95,10.56,17.23,21.28,17.79,2.051,0,0,0,0,0,0,0,0,0,0,0,0,0,0,0,0,
609,18.02,20.94,-9.104,-19.73,0.0264,-8.203,14.65,-16.16,18.39,11.95,16.88,13.48,10.11,23.85,23.98,6.762,0,0,0,0,0,0,0,0,0,0,0,0,0,0,0,0,
610,20.51,25.36,2.915,12.24,7.679,3.531,23.29,26.39,12.69,22.45,32.5,41.35,27.12,47.18,43.48,26.74,0,0,0,0,0,0,0,0,0,0,0,0,0,0,0,0,
611,6.153,18.63,-11.49,34.36,4.384,-1.439,14.83,23.18,21.54,30.29,42.77,42.18,33.65,50.34,48.41,35.69,0,0,0,0,0,0,0,0,0,0,0,0,0,0,0,0,
612,-14.68,3.382,-34.52,1.599,-0.0628,-15.09,15.23,0.0744,30.06,16.4,47.19,38.52,39.95,48.3,49.31,41.88,0,0,0,0,0,0,0,0,0,0,0,0,0,0,0,0,
613,-7.265,4.282,-4.383,-24.75,18.57,6.417,46.81,25.12,45.23,17.93,47.99,48.29,48.3,55.25,42.47,42.1,0,0,0,0,0,0,0,0,0,0,0,0,0,0,0,0,
614,27.51,23.63,42.26,-4.642,37.85,36.75,57.48,16.33,51.5,35.65,28.71,31.99,30.54,46.44,18.42,21.27,0,0,0,0,0,0,0,0,0,0,0,0,0,0,0,0,
615,52.23,23.36,44.95,2.696,31.24,39.11,28.3,-29.2,30.75,33.29,2.987,7.419,2.553,24.74,-2.628,-0.4018,0,0,0,0,0,0,0,0,0,0,0,0,0,0,0,0,
616,45.29,5.878,30.82,-11.04,23.44,17.57,17.33,-15.12,8.711,16.56,6.232,16.68,1.665,20.08,0.8941,3.817,0,0,0,0,0,0,0,0,0,0,0,0,0,0,0,0,
617,32.28,15.17,31.74,-3.622,34.18,7.096,37.15,19.46,15.42,13.48,36.5,37.56,23.71,36.55,22.97,21.03,0,0,0,0,0,0,0,0,0,0,0,0,0,0,0,0,
618,35.98,31.2,32.24,4.395,39.93,29.1,42.07,15.46,39.77,25.28,53.93,39.31,37.38,42.63,30.58,22.63,0,0,0,0,0,0,0,0,0,0,0,0,0,0,0,0,
619,40.93,20.98,27.96,-3.362,32.85,39.06,30.86,11.71,52.3,31.23,39.11,27.1,25.62,23.32,10.68,8.508,0,0,0,0,0,0,0,0,0,0,0,0,0,0,0,0,
620,34.23,18.14,28.81,-6.955,30.21,23.52,33.33,17.41,44.35,25.36,18.94,16.43,9.162,13.77,-0.8285,-1.583,0,0,0,0,0,0,0,0,0,0,0,0,0,0,0,0,
621,29.14,31.94,31.01,-11.72,29.32,28.44,35.43,7.364,32.72,23.8,13.05,10.47,10.5,25.24,8.65,-4.233,0,0,0,0,0,0,0,0,0,0,0,0,0,0,0,0,
622,33.27,31.4,28.42,-9.193,23.07,30.3,20.0,-7.605,28.66,23.34,7.313,2.795,15.67,25.55,7.682,-5.961,0,0,0,0,0,0,0,0,0,0,0,0,0,0,0,0,
623,35.2,22.49,24.87,7.519,21.46,19.29,18.61,-14.45,28.48,18.78,4.778,1.068,17.72,24.19,2.631,0.6889,0,0,0,0,0,0,0,0,0,0,0,0,0,0,0,0,
624,31.75,20.84,25.06,2.999,21.39,37.7,33.56,-15.26,32.53,25.6,14.25,8.697,21.52,34.56,10.03,8.442,0,0,0,0,0,0,0,0,0,0,0,0,0,0,0,0,
625,24.84,24.09,19.98,-14.13,9.46,34.38,21.66,-9.192,31.61,24.97,11.63,4.518,9.371,24.35,1.943,-5.662,0,0,0,0,0,0,0,0,0,0,0,0,0,0,0,0,
626,12.1,27.86,9.6,-17.68,-0.8771,1.221,1.395,-2.256,12.23,1.935,-1.524,-8.784,-13.03,1.847,-13.55,-21.51,0,0,0,0,0,0,0,0,0,0,0,0,0,0,0,0,
627,6.08,16.4,17.02,-30.25,5.878,17.25,15.19,-3.2,-5.969,-7.832,1.25,-9.172,-19.38,-3.186,-5.741,-16.22,0,0,0,0,0,0,0,0,0,0,0,0,0,0,0,0,
628,14.11,-0.2264,37.58,-30.37,15.17,23.2,33.66,-7.755,-2.385,-9.646,4.876,-6.809,-18.01,-8.363,-4.172,-17.54,0,0,0,0,0,0,0,0,0,0,0,0,0,0,0,0,
629,25.77,21.26,43.43,1.802,17.2,-31.78,29.88,-17.89,7.339,-30.59,2.034,-13.42,-14.38,-13.81,-18.56,-28.38,0,0,0,0,0,0,0,0,0,0,0,0,0,0,0,0,
630,36.88,55.32,43.11,1.427,17.73,-39.27,29.06,-37.92,8.219,-36.93,12.9,-19.14,-3.476,-4.4,-16.68,-23.27,0,0,0,0,0,0,0,0,0,0,0,0,0,0,0,0,
631,37.35,41.34,51.26,-26.96,14.31,11.69,41.56,-48.34,5.247,-17.76,21.85,-21.36,-4.209,-1.9,-11.39,-14.62,0,0,0,0,0,0,0,0,0,0,0,0,0,0,0,0,
632,21.48,18.96,53.16,-13.63,4.79,10.43,46.78,-34.79,1.034,-16.07,16.91,-14.45,-13.91,-6.441,-12.34,-8.825,0,0,0,0,0,0,0,0,0,0,0,0,0,0,0,0,
633,12.73,26.73,46.27,8.347,-3.81,-31.34,37.33,-5.24,-3.742,-31.76,25.29,11.99,-6.284,10.01,9.801,12.53,0,0,0,0,0,0,0,0,0,0,0,0,0,0,0,0,
634,17.8,6.062,40.64,-10.6,-4.229,-15.5,36.03,15.97,1.705,-26.92,50.2,36.83,10.46,35.6,46.23,38.88,0,0,0,0,0,0,0,0,0,0,0,0,0,0,0,0,
635,14.1,-34.05,29.54,-32.49,-1.131,31.21,46.84,1.949,13.16,-6.601,57.96,35.3,11.61,40.57,55.28,45.53,0,0,0,0,0,0,0,0,0,0,0,0,0,0,0,0,
636,1.627,-18.52,11.34,-25.22,-10.82,7.199,30.32,-11.58,2.367,-6.138,29.09,27.76,-5.849,28.69,28.44,33.73,0,0,0,0,0,0,0,0,0,0,0,0,0,0,0,0,
637,-8.539,9.595,-7.4,-16.79,-35.41,-53.78,-17.75,3.074,-27.5,-23.77,-10.77,20.39,-26.83,11.06,-5.286,14.36,0,0,0,0,0,0,0,0,0,0,0,0,0,0,0,0,
638,-22.75,-13.92,-26.89,-27.86,-52.49,-55.62,-42.5,-20.17,-40.06,-37.44,-19.98,-13.54,-29.3,-11.57,-19.16,-9.325,0,0,0,0,0,0,0,0,0,0,0,0,0,0,0,0,
639,-24.7,-22.3,-29.37,-15.74,-36.93,-14.38,-23.83,-58.31,-23.9,-40.54,-2.883,-36.62,-9.047,-16.86,-16.01,-23.34,0,0,0,0,0,0,0,0,0,0,0,0,0,0,0,0,
640,1.686,20.41,-9.575,21.56,-4.04,13.43,-12.58,-24.84,1.711,-25.16,-1.964,-15.32,0.1339,-3.108,-19.93,-24.78,0,0,0,0,0,0,0,0,0,0,0,0,0,0,0,0,
641,16.35,28.88,-2.451,12.31,-0.6301,12.31,-35.6,7.632,0.2227,-11.18,-25.17,-10.59,-24.2,-10.58,-40.08,-37.69,0,0,0,0,0,0,0,0,0,0,0,0,0,0,0,0,
642,12.19,-3.027,0.3419,-8.573,-13.33,-0.7083,-39.34,-11.02,-31.82,-25.4,-37.69,-29.19,-47.23,-25.59,-53.95,-51.48,0,0,0,0,0,0,0,0,0,0,0,0,0,0,0,0,
643,23.93,-2.241,23.77,7.86,-2.728,2.534,-5.874,-11.54,-38.01,-31.25,-30.79,-20.11,-44.01,-13.75,-51.84,-43.12,0,0,0,0,0,0,0,0,0,0,0,0,0,0,0,0,
644,20.05,5.148,28.91,-15.69,4.342,7.236,6.88,0.901,-10.25,-9.883,-23.27,-4.747,-31.65,1.89,-45.84,-30.12,0,0,0,0,0,0,0,0,0,0,0,0,0,0,0,0,
645,2.162,3.417,17.62,-34.1,1.584,-2.507,-1.862,10.75,8.09,3.635,-14.76,-2.301,-16.37,10.16,-37.47,-21.57,0,0,0,0,0,0,0,0,0,0,0,0,0,0,0,0,
646,22.0,33.8,25.04,30.36,9.385,-8.046,-4.558,7.828,14.55,4.251,-21.39,-14.94,-17.11,4.063,-45.28,-28.23,0,0,0,0,0,0,0,0,0,0,0,0,0,0,0,0,
647,27.0,40.69,15.76,34.42,-3.165,-11.66,-21.34,-47.02,-0.5072,-5.593,-51.39,-46.65,-41.19,-19.82,-62.73,-48.47,0,0,0,0,0,0,0,0,0,0,0,0,0,0,0,0,
648,1.033,10.37,2.323,-30.09,-14.48,-2.769,-26.91,-55.05,-27.32,-14.53,-43.12,-34.46,-26.56,-2.014,-31.44,-28.6,0,0,0,0,0,0,0,0,0,0,0,0,0,0,0,0,
649,22.02,23.42,35.03,4.408,21.82,34.96,6.366,34.28,-1.771,13.85,9.371,18.76,27.78,49.91,17.36,9.451,0,0,0,0,0,0,0,0,0,0,0,0,0,0,0,0,
650,44.68,41.19,57.75,58.65,47.81,57.98,24.23,64.21,45.58,51.17,25.65,21.6,41.85,53.52,11.22,-2.223,0,0,0,0,0,0,0,0,0,0,0,0,0,0,0,0,
651,17.04,24.47,35.97,26.13,29.8,40.52,6.994,14.19,39.94,49.45,5.296,-5.235,20.57,25.7,-8.654,-23.13,0,0,0,0,0,0,0,0,0,0,0,0,0,0,0,0,
652,8.8,31.19,18.74,10.94,12.9,23.13,-5.855,5.476,17.02,29.39,-0.8055,-5.388,12.87,15.11,-6.3,-18.7,0,0,0,0,0,0,0,0,0,0,0,0,0,0,0,0,
653,16.6,35.49,11.87,24.93,4.771,29.71,-1.482,22.95,15.53,15.02,4.723,-0.4392,14.34,11.44,-9.085,-17.75,0,0,0,0,0,0,0,0,0,0,0,0,0,0,0,0,
654,-1.454,9.921,8.407,4.082,-1.954,25.38,8.655,5.162,15.06,4.801,2.528,-4.773,9.838,1.684,-17.44,-18.48,0,0,0,0,0,0,0,0,0,0,0,0,0,0,0,0,
655,-4.713,10.01,18.37,-10.92,-1.162,-11.44,7.152,-30.48,6.2,-9.476,-17.12,-16.81,-7.844,-18.19,-31.05,-20.96,0,0,0,0,0,0,0,0,0,0,0,0,0,0,0,0,
656,7.374,23.71,22.79,-9.5,0.6035,-26.18,-6.623,-32.22,-12.49,-24.02,-35.68,-20.37,-23.86,-25.91,-44.21,-24.2,0,0,0,0,0,0,0,0,0,0,0,0,0,0,0,0,
657,-4.086,3.207,12.93,-18.79,1.376,5.165,-15.66,7.731,-26.75,-9.425,-29.4,-3.123,-16.73,-8.71,-36.48,-13.08,0,0,0,0,0,0,0,0,0,0,0,0,0,0,0,0,T2
658,-12.06,-23.22,6.592,-11.57,1.617,22.29,-12.92,28.76,-17.4,17.54,-16.28,1.972,1.485,1.832,-17.81,0.9656,0,0,0,0,0,0,0,0,0,0,0,0,0,0,0,0,
659,10.08,-4.274,15.81,8.085,9.073,16.85,8.596,17.46,6.797,16.41,0.1052,-5.116,24.22,7.07,-0.0332,14.66,0,0,0,0,0,0,0,0,0,0,0,0,0,0,0,0,
660,28.68,33.74,28.2,2.41,24.74,21.59,26.8,9.721,33.06,8.848,19.15,-7.721,37.28,9.174,0.6562,15.77,0,0,0,0,0,0,0,0,0,0,0,0,0,0,0,0,
661,22.77,22.74,19.62,-6.765,19.32,13.41,7.224,-6.763,37.69,3.534,10.12,-25.34,14.51,-12.39,-23.69,-11.45,0,0,0,0,0,0,0,0,0,0,0,0,0,0,0,0,
662,16.04,-6.289,4.806,6.031,-4.195,-14.13,-12.89,-25.02,8.391,-13.59,-7.715,-36.35,-10.65,-26.63,-35.99,-25.94,0,0,0,0,0,0,0,0,0,0,0,0,0,0,0,0,
663,15.73,-1.784,8.207,12.07,-10.75,-24.18,-0.4414,-9.644,-15.73,-15.47,-4.912,-22.36,-9.104,-23.06,-35.97,-19.11,0,0,0,0,0,0,0,0,0,0,0,0,0,0,0,0,
664,9.319,-5.32,11.96,8.374,-3.438,-12.08,11.48,15.73,-11.63,-3.796,2.122,-15.02,-0.5601,-25.61,-43.69,-22.83,0,0,0,0,0,0,0,0,0,0,0,0,0,0,0,0,
665,3.258,-13.4,2.11,16.72,1.256,-2.455,15.54,12.86,6.278,-3.301,16.87,-12.47,15.58,-16.98,-33.36,-18.53,0,0,0,0,0,0,0,0,0,0,0,0,0,0,0,0,
666,-2.523,0.5527,-11.19,18.75,1.561,-3.86,19.62,-3.632,24.56,-4.475,29.96,-6.895,22.39,-9.583,-22.08,-8.111,0,0,0,0,0,0,0,0,0,0,0,0,0,0,0,0,
667,-12.3,-5.136,-18.15,9.842,-2.909,-11.33,8.251,0.7094,18.53,-12.04,9.78,-14.04,-9.376,-28.06,-44.53,-20.54,0,0,0,0,0,0,0,0,0,0,0,0,0,0,0,0,
668,-13.0,-14.8,-18.23,1.107,-9.829,-25.28,-10.69,8.242,-15.49,-25.34,-18.2,-23.04,-41.8,-36.38,-61.32,-31.03,0,0,0,0,0,0,0,0,0,0,0,0,0,0,0,0,
669,-7.534,-9.354,-21.17,-17.42,-18.98,-23.1,-22.75,-12.38,-41.58,-17.08,-18.21,-17.48,-36.84,-20.08,-40.69,-15.37,0,0,0,0,0,0,0,0,0,0,0,0,0,0,0,0,
670,-2.442,-26.02,-18.9,-18.06,-21.95,12.31,-24.9,-19.26,-41.19,0.5604,-1.035,-0.1288,-16.05,-3.62,-10.84,6.789,0,0,0,0,0,0,0,0,0,0,0,0,0,0,0,0,
671,8.072,-23.27,-5.471,5.013,-12.04,23.09,-14.86,1.441,-24.53,0.4989,8.413,9.543,-7.679,-0.8968,-2.723,10.09,0,0,0,0,0,0,0,0,0,0,0,0,0,0,0,0,
672,8.438,6.886,-4.053,3.345,-5.028,-9.558,-6.394,-3.388,-7.334,-6.971,5.054,1.034,-9.426,-11.5,-8.457,-1.535,0,0,0,0,0,0,0,0,0,0,0,0,0,0,0,0,
673,-6.979,-11.7,-7.48,4.007,-4.698,-15.26,-0.8066,-5.972,2.677,-4.008,8.479,2.77,-4.405,-13.64,-3.985,-1.075,0,0,0,0,0,0,0,0,0,0,0,0,0,0,0,0,
674,-17.6,-39.72,-0.4205,28.63,-9.023,-9.653,8.008,22.95,2.88,0.4186,12.65,13.54,-3.868,-10.53,-1.92,3.859,0,0,0,0,0,0,0,0,0,0,0,0,0,0,0,0,
675,-22.77,-24.38,-6.865,20.23,-25.51,-41.62,2.784,19.96,-11.98,-17.49,-2.04,0.5093,-18.58,-24.56,-14.11,-6.851,0,0,0,0,0,0,0,0,0,0,0,0,0,0,0,0,
676,-21.18,-14.83,-17.68,3.1,-29.75,-47.09,-5.382,-0.9295,-22.29,-40.09,-10.33,-11.35,-20.24,-34.57,-17.34,-11.36,0,0,0,0,0,0,0,0,0,0,0,0,0,0,0,0,
677,-5.337,-9.682,-11.39,16.91,-11.19,-5.178,0.6513,12.09,-12.36,-28.95,-3.051,-0.9217,-9.509,-39.53,-12.02,-2.175,0,0,0,0,0,0,0,0,0,0,0,0,0,0,0,0,
678,1.168,6.569,-15.06,14.43,-8.815,11.99,-4.66,13.78,-10.09,-4.751,-2.489,6.426,-12.79,-60.03,-11.45,6.063,0,0,0,0,0,0,0,0,0,0,0,0,0,0,0,0,
679,-9.781,-2.118,-30.34,-1.38,-25.04,0.5965,-15.24,1.598,-18.51,4.445,-6.962,11.27,-22.84,-67.47,-17.36,15.46,0,0,0,0,0,0,0,0,0,0,0,0,0,0,0,0,
680,-18.08,-21.42,-38.72,-10.68,-33.92,-11.41,-15.49,0.9092,-21.4,4.792,-24.26,5.324,-37.61,-66.05,-40.93,8.142,0,0,0,0,0,0,0,0,0,0,0,0,0,0,0,0,
681,-26.41,-28.59,-49.29,-30.33,-35.0,-29.94,-31.45,-27.61,-34.06,-14.11,-45.74,-20.26,-48.67,-81.93,-54.93,-13.45,0,0,0,0,0,0,0,0,0,0,0,0,0,0,0,0,
682,-22.61,-36.08,-36.48,-14.08,-11.67,-18.83,-34.34,-35.69,-35.53,-29.32,-29.33,-12.57,-27.43,-71.9,-26.44,0.3568,0,0,0,0,0,0,0,0,0,0,0,0,0,0,0,0,
683,13.6,-22.02,14.08,38.98,32.61,38.24,8.406,19.19,-3.1,2.168,-5.724,19.2,-6.559,-42.23,-9.936,24.14,0,0,0,0,0,0,0,0,0,0,0,0,0,0,0,0,
684,34.04,13.6,33.21,39.46,35.17,54.54,25.27,26.7,5.787,25.88,-25.52,1.777,-27.91,-54.37,-40.89,-0.4141,0,0,0,0,0,0,0,0,0,0,0,0,0,0,0,0,
685,7.799,17.59,-1.824,7.621,-8.472,3.788,-11.43,-13.84,-28.93,-5.298,-45.42,-26.1,-49.79,-68.46,-57.1,-23.99,0,0,0,0,0,0,0,0,0,0,0,0,0,0,0,0,
686,-3.476,2.176,-18.03,18.78,-26.64,-18.66,-29.2,-5.476,-45.85,-28.42,-32.06,-18.59,-41.36,-53.25,-41.47,-14.3,0,0,0,0,0,0,0,0,0,0,0,0,0,0,0,0,
687,21.24,21.45,2.252,32.47,-10.57,-7.86,-19.51,-3.643,-35.53,-27.65,-29.55,-38.37,-41.78,-75.99,-51.41,-34.45,0,0,0,0,0,0,0,0,0,0,0,0,0,0,0,0,
688,22.26,33.04,-1.979,4.034,-13.75,-39.85,-33.07,-34.24,-44.01,-54.87,-54.05,-80.71,-66.89,-125.9,-84.67,-76.51,0,0,0,0,0,0,0,0,0,0,0,0,0,0,0,0,
689,-6.115,-10.39,-37.21,-18.71,-37.48,-79.36,-59.58,-32.09,-71.02,-87.69,-62.48,-83.08,-78.45,-132.6,-90.18,-78.12,0,0,0,0,0,0,0,0,0,0,0,0,0,0,0,0,
690,-13.56,-33.64,-47.18,-9.218,-42.74,-77.34,-57.5,-35.98,-75.97,-90.12,-42.84,-74.7,-59.64,-117.2,-70.11,-61.18,0,0,0,0,0,0,0,0,0,0,0,0,0,0,0,0,
691,-0.1233,-4.482,-26.77,-8.816,-27.32,-67.73,-32.32,-60.37,-52.44,-86.17,-32.75,-75.97,-35.84,-105.6,-53.2,-54.54,0,0,0,0,0,0,0,0,0,0,0,0,0,0,0,0,
692,3.179,4.527,-16.45,-27.18,-7.336,-48.98,-19.43,-49.26,-28.11,-75.13,-36.32,-56.63,-18.85,-74.76,-35.45,-37.32,0,0,0,0,0,0,0,0,0,0,0,0,0,0,0,0,
693,2.139,-3.014,-15.34,-28.36,16.64,-13.8,-25.91,-33.66,-7.205,-41.09,-22.21,-35.97,2.292,-38.02,-9.003,-15.12,0,0,0,0,0,0,0,0,0,0,0,0,0,0,0,0,
694,8.95,2.095,-7.863,-16.72,34.51,1.923,-21.96,-31.95,20.95,-4.78,9.552,-22.42,30.53,-4.997,19.93,3.756,0,0,0,0,0,0,0,0,0,0,0,0,0,0,0,0,
695,12.99,-7.882,0.4783,-11.81,41.49,9.437,9.918,-4.405,47.84,26.82,40.39,15.5,58.65,43.45,46.76,34.97,0,0,0,0,0,0,0,0,0,0,0,0,0,0,0,0,
696,17.55,-6.918,14.99,1.104,57.34,32.85,36.96,29.37,66.83,57.67,56.43,51.94,72.42,80.75,56.41,55.19,0,0,0,0,0,0,0,0,0,0,0,0,0,0,0,0,
697,27.17,6.633,26.67,9.707,68.88,57.82,24.98,30.82,75.04,72.75,47.45,44.38,66.58,78.03,39.37,38.86,0,0,0,0,0,0,0,0,0,0,0,0,0,0,0,0,
698,14.05,-20.23,10.19,-3.264,48.67,74.8,3.948,7.851,64.0,73.27,32.32,26.42,60.88,68.0,25.59,25.37,0,0,0,0,0,0,0,0,0,0,0,0,0,0,0,0,
699,-14.7,-26.07,-11.01,7.178,39.31,75.44,15.18,11.6,54.41,77.87,35.78,46.49,68.69,80.2,37.82,42.33,0,0,0,0,0,0,0,0,0,0,0,0,0,0,0,0,
700,-9.098,25.7,-5.769,47.62,68.62,60.78,32.65,55.66,70.52,93.65,41.12,71.11,71.11,89.79,43.4,49.28,0,0,0,0,0,0,0,0,0,0,0,0,0,0,0,0,
701,5.425,34.01,-0.8524,52.55,67.8,38.23,15.92,60.38,75.14,95.35,24.33,49.2,47.99,66.2,20.1,27.08,0,0,0,0,0,0,0,0,0,0,0,0,0,0,0,0,
702,-17.82,0.9949,-14.45,23.54,22.22,7.288,-8.679,27.9,40.93,56.69,7.363,23.23,22.15,36.66,6.912,16.79,0,0,0,0,0,0,0,0,0,0,0,0,0,0,0,0,
703,-29.96,-3.719,-22.3,7.792,9.187,2.261,-1.843,28.77,19.95,23.77,16.07,31.44,25.77,37.69,20.38,27.83,0,0,0,0,0,0,0,0,0,0,0,0,0,0,0,0,
704,-17.6,-22.52,-23.71,-7.534,26.63,34.64,8.449,8.604,33.07,35.72,25.84,25.57,39.6,42.85,24.01,27.12,0,0,0,0,0,0,0,0,0,0,0,0,0,0,0,0,
705,-29.89,-47.6,-31.27,-21.79,30.84,54.47,0.7708,-28.91,41.77,45.89,27.18,13.03,47.24,41.76,22.43,24.97,0,0,0,0,0,0,0,0,0,0,0,0,0,0,0,0,
706,-26.91,-5.302,-31.7,-3.436,45.48,49.99,11.41,6.05,53.12,46.28,41.0,38.98,61.05,62.06,39.65,41.3,0,0,0,0,0,0,0,0,0,0,0,0,0,0,0,0,
707,11.87,42.66,-25.77,13.89,60.25,36.84,29.17,36.64,68.44,62.19,41.31,55.52,59.52,75.46,49.19,50.33,0,0,0,0,0,0,0,0,0,0,0,0,0,0,0,0,
708,15.02,21.05,-20.8,-1.019,38.04,22.36,16.94,19.88,50.17,59.23,25.54,42.96,44.04,64.97,49.44,50.49,0,0,0,0,0,0,0,0,0,0,0,0,0,0,0,0,
709,-6.222,-2.675,-10.79,-5.013,16.06,24.22,7.277,42.15,27.08,42.92,36.03,46.6,52.15,66.79,60.81,56.92,0,0,0,0,0,0,0,0,0,0,0,0,0,0,0,0,
710,-1.442,10.64,-12.78,16.56,21.14,19.29,14.14,52.0,34.82,49.85,39.75,47.69,58.13,69.23,54.99,47.13,0,0,0,0,0,0,0,0,0,0,0,0,0,0,0,0,
711,5.379,6.033,-22.52,23.28,30.78,-4.504,9.844,14.4,42.47,52.24,18.52,36.3,45.94,62.63,37.02,32.63,0,0,0,0,0,0,0,0,0,0,0,0,0,0,0,0,
712,-0.4816,-14.08,-13.68,5.381,33.16,-3.298,5.719,17.12,43.94,46.74,27.37,44.35,51.0,73.97,44.49,44.02,0,0,0,0,0,0,0,0,0,0,0,0,0,0,0,0,
713,-10.11,-8.139,-15.2,-9.274,16.22,13.75,10.47,30.65,47.23,56.25,42.07,49.42,56.83,81.75,53.21,54.13,0,0,0,0,0,0,0,0,0,0,0,0,0,0,0,0,
714,-14.5,5.216,-30.54,-4.777,-3.642,19.34,17.93,16.97,39.36,57.44,26.51,43.41,49.8,74.63,47.28,55.22,0,0,0,0,0,0,0,0,0,0,0,0,0,0,0,0,
715,-2.087,2.988,-17.05,7.169,12.66,32.54,32.91,28.98,37.85,51.4,28.26,54.62,57.09,75.62,50.3,70.67,0,0,0,0,0,0,0,0,0,0,0,0,0,0,0,0,
716,4.005,-2.828,-2.532,10.45,38.87,38.96,38.66,47.25,47.29,55.66,46.15,65.35,62.1,71.1,56.33,79.6,0,0,0,0,0,0,0,0,0,0,0,0,0,0,0,0,
717,-7.791,-10.09,-18.21,-4.757,26.79,11.88,24.47,42.82,39.27,46.94,37.87,57.31,44.45,57.53,50.8,65.2,0,0,0,0,0,0,0,0,0,0,0,0,0,0,0,0,
718,-18.89,-22.26,-35.23,-32.81,-13.24,-25.04,3.949,21.67,14.45,20.99,13.75,35.98,19.58,43.95,29.49,43.05,0,0,0,0,0,0,0,0,0,0,0,0,0,0,0,0,
719,-28.14,-25.57,-39.86,-31.41,-39.57,-39.85,-10.29,-10.64,-8.495,-0.1957,-2.141,14.68,5.171,25.83,4.154,28.98,0,0,0,0,0,0,0,0,0,0,0,0,0,0,0,0,
720,-27.48,-15.08,-33.64,-2.072,-33.36,-39.78,-8.774,1.33,-14.71,-9.49,-4.064,18.01,11.87,22.75,1.062,30.16,0,0,0,0,0,0,0,0,0,0,0,0,0,0,0,0,
721,-22.64,-19.66,-30.99,-18.92,-22.23,-46.69,-8.971,25.72,-8.901,-11.29,-5.491,19.27,15.77,23.47,3.664,27.18,0,0,0,0,0,0,0,0,0,0,0,0,0,0,0,0,
722,-31.49,-47.6,-39.63,-56.0,-21.2,-38.79,-18.27,-15.61,-15.23,-18.4,-7.044,-1.761,4.959,7.037,0.1329,20.05,0,0,0,0,0,0,0,0,0,0,0,0,0,0,0,0,
723,-23.09,-44.53,-23.22,-28.42,-7.561,-11.22,-8.14,-28.69,-16.56,-22.89,13.11,6.343,13.88,14.2,17.03,34.61,0,0,0,0,0,0,0,0,0,0,0,0,0,0,0,0,
724,1.946,-1.325,6.895,-2.183,4.366,-13.28,6.378,22.42,2.932,-7.791,28.49,30.09,27.07,35.13,30.22,45.37,0,0,0,0,0,0,0,0,0,0,0,0,0,0,0,0,
725,-8.43,8.279,1.151,-37.91,-5.461,-34.11,3.466,29.74,4.128,0.1065,14.86,21.66,14.26,23.12,20.69,36.39,0,0,0,0,0,0,0,0,0,0,0,0,0,0,0,0,
726,-43.46,-30.7,-21.33,-57.37,-16.94,-43.95,4.257,5.49,-12.75,-16.66,11.38,9.538,5.75,5.126,19.87,31.61,0,0,0,0,0,0,0,0,0,0,0,0,0,0,0,0,
727,-65.42,-70.03,-31.77,-51.52,-28.82,-58.8,-1.536,-21.67,-16.02,-31.37,18.48,-0.6102,7.308,-5.407,13.83,20.56,0,0,0,0,0,0,0,0,0,0,0,0,0,0,0,0,
728,-71.48,-85.83,-27.56,-62.28,-37.61,-50.14,-17.18,-53.64,-17.09,-31.59,13.1,-7.288,6.06,-12.76,-0.8138,16.03,0,0,0,0,0,0,0,0,0,0,0,0,0,0,0,0,
729,-53.23,-60.56,-6.274,-50.46,-30.32,-23.13,-13.06,-19.16,-17.58,-21.26,18.7,18.7,14.81,7.744,10.41,39.43,0,0,0,0,0,0,0,0,0,0,0,0,0,0,0,0,
730,-21.81,-13.98,6.295,-17.34,-27.49,-38.11,-3.435,25.2,-10.07,-7.971,33.14,34.62,24.32,31.98,24.16,49.33,0,0,0,0,0,0,0,0,0,0,0,0,0,0,0,0,
731,-22.0,-1.548,3.304,-4.633,-22.27,-54.5,6.807,-1.589,-2.521,-0.003,40.38,26.12,33.84,38.33,26.63,46.63,0,0,0,0,0,0,0,0,0,0,0,0,0,0,0,0,
732,-47.19,-18.12,1.653,-15.02,-7.54,-36.64,24.88,-9.286,11.71,8.792,45.58,32.58,46.17,41.74,34.96,55.2,0,0,0,0,0,0,0,0,0,0,0,0,0,0,0,0,
733,-46.64,-37.4,-12.34,-52.32,-21.93,-32.44,9.969,8.141,13.37,5.979,35.48,26.35,35.35,28.81,29.41,48.94,0,0,0,0,0,0,0,0,0,0,0,0,0,0,0,0,
734,-23.7,-51.9,-18.39,-63.06,-35.66,-31.54,-15.46,2.454,-7.095,-10.98,26.47,16.01,24.68,21.05,22.04,48.63,0,0,0,0,0,0,0,0,0,0,0,0,0,0,0,0,
735,-6.687,-34.42,9.132,-13.26,-12.79,-19.92,3.814,9.836,-4.898,-3.857,40.25,30.52,35.7,40.29,27.01,64.97,0,0,0,0,0,0,0,0,0,0,0,0,0,0,0,0,
736,3.048,-5.392,18.4,-10.45,-13.11,-23.29,14.96,-4.392,3.828,14.13,37.18,17.69,24.78,39.14,9.592,48.99,0,0,0,0,0,0,0,0,0,0,0,0,0,0,0,0,
737,-11.07,-15.08,1.86,-54.97,-29.39,-14.75,-4.579,-23.69,-14.06,9.838,19.05,-4.718,2.944,24.29,-6.734,28.9,0,0,0,0,0,0,0,0,0,0,0,0,0,0,0,0,
738,-34.47,-29.45,15.05,-25.53,-7.975,3.428,4.1,16.34,-13.43,8.257,18.46,8.291,3.128,25.6,1.884,35.6,0,0,0,0,0,0,0,0,0,0,0,0,0,0,0,0,
739,-13.64,-4.939,34.69,19.22,2.94,-10.07,21.89,17.31,-0.3921,4.987,8.262,6.279,-2.992,12.39,-5.927,27.03,0,0,0,0,0,0,0,0,0,0,0,0,0,0,0,0,
740,20.33,20.69,25.79,-3.931,-10.68,-14.48,15.58,-28.63,-10.5,-10.78,-1.451,-3.902,-4.722,4.212,-10.06,20.84,0,0,0,0,0,0,0,0,0,0,0,0,0,0,0,0,
741,17.91,9.598,24.73,-19.3,-0.8372,16.47,13.94,-1.993,-5.826,2.283,22.44,15.47,19.18,27.72,15.92,39.61,0,0,0,0,0,0,0,0,0,0,0,0,0,0,0,0,
742,1.193,-8.182,34.48,0.1822,9.704,19.96,14.64,39.5,10.77,27.9,37.09,22.32,27.34,33.66,23.39,39.31,0,0,0,0,0,0,0,0,0,0,0,0,0,0,0,0,
743,-26.5,-5.709,22.12,0.6445,3.756,-14.13,9.027,15.83,2.801,18.38,26.87,6.607,13.6,12.32,12.31,24.41,0,0,0,0,0,0,0,0,0,0,0,0,0,0,0,0,
744,-47.16,-21.0,3.335,-30.12,2.267,-24.13,11.53,-21.52,-7.015,-5.98,25.31,-7.909,6.897,-2.229,12.22,18.94,0,0,0,0,0,0,0,0,0,0,0,0,0,0,0,0,
745,-21.34,-47.25,2.617,-55.4,-4.626,2.858,13.1,-27.48,-7.847,-17.89,25.61,-15.71,6.263,-2.328,9.058,9.09,0,0,0,0,0,0,0,0,0,0,0,0,0,0,0,0,
746,2.445,-21.74,8.514,-33.49,-15.57,17.17,17.12,-1.401,-7.657,-12.25,26.34,-1.093,14.15,15.17,11.87,11.06,0,0,0,0,0,0,0,0,0,0,0,0,0,0,0,0,
747,-3.874,11.13,7.18,1.742,-20.16,-5.916,31.39,10.89,-0.5291,5.157,35.4,16.83,26.8,31.91,25.47,31.23,0,0,0,0,0,0,0,0,0,0,0,0,0,0,0,0,
748,-10.32,4.224,5.776,0.9002,-15.26,-11.47,35.81,-2.095,3.405,12.59,34.06,18.26,30.29,30.53,27.19,40.22,0,0,0,0,0,0,0,0,0,0,0,0,0,0,0,0,
749,-43.09,17.63,14.09,-9.482,8.657,26.8,34.68,17.93,10.11,14.35,35.26,31.87,39.3,39.0,37.03,50.0,0,0,0,0,0,0,0,0,0,0,0,0,0,0,0,0,
750,-58.14,25.77,21.84,-22.13,17.07,22.97,40.7,40.51,28.61,19.14,53.35,44.45,53.58,56.04,61.67,69.22,0,0,0,0,0,0,0,0,0,0,0,0,0,0,0,0,
751,12.96,-12.57,19.68,-41.08,-8.724,-31.1,35.61,9.303,30.1,13.16,51.76,23.58,43.73,43.81,55.91,61.04,0,0,0,0,0,0,0,0,0,0,0,0,0,0,0,0,
752,35.83,-10.71,13.25,-30.18,-18.74,-24.48,14.16,-23.85,8.317,4.771,25.65,-0.2325,17.14,14.26,20.62,30.65,0,0,0,0,0,0,0,0,0,0,0,0,0,0,0,0,
753,-42.92,21.37,-2.756,0.1256,-9.607,21.66,-3.916,-18.91,-8.078,4.893,11.28,0.8789,4.311,3.156,0.9499,19.67,0,0,0,0,0,0,0,0,0,0,0,0,0,0,0,0,
754,-44.1,3.91,-29.68,29.47,-11.03,16.11,-7.737,7.688,-9.863,6.558,4.823,12.5,2.021,9.163,4.051,23.89,0,0,0,0,0,0,0,0,0,0,0,0,0,0,0,0,
755,20.39,1.354,-46.08,65.14,-11.71,1.444,-5.162,36.02,-8.88,12.32,-8.925,21.81,-1.551,17.16,8.285,20.41,0,0,0,0,0,0,0,0,0,0,0,0,0,0,0,0,
756,14.63,44.41,-38.86,73.21,-10.54,17.5,-4.444,40.79,-9.846,22.15,-12.52,25.5,4.366,23.26,5.6,14.75,0,0,0,0,0,0,0,0,0,0,0,0,0,0,0,0,
757,5.636,43.49,-18.5,45.01,-6.31,32.54,-3.847,22.37,-1.359,33.41,-4.278,19.83,14.49,22.39,-1.407,9.929,0,0,0,0,0,0,0,0,0,0,0,0,0,0,0,0,
758,12.36,-1.694,-11.79,26.27,5.77,45.12,-7.702,5.74,9.99,39.62,-6.516,8.906,6.347,10.18,-9.085,-1.636,0,0,0,0,0,0,0,0,0,0,0,0,0,0,0,0,
759,-26.51,-13.15,-30.97,22.82,-7.404,37.21,-22.16,-1.484,-2.459,20.6,-23.99,-2.763,-11.61,-7.866,-13.0,-12.71,0,0,0,0,0,0,0,0,0,0,0,0,0,0,0,0,
760,-38.38,5.396,-45.36,20.86,-39.22,-4.921,-40.44,-6.275,-28.86,-10.84,-40.99,-14.31,-15.97,-19.19,-11.38,-13.2,0,0,0,0,0,0,0,0,0,0,0,0,0,0,0,0,
761,-16.37,6.634,-28.47,28.72,-32.63,-18.27,-41.61,-1.341,-31.3,-12.1,-29.19,-7.605,-0.4674,-9.281,0.1438,-0.6111,0,0,0,0,0,0,0,0,0,0,0,0,0,0,0,0,
762,-3.907,8.662,-0.9963,35.8,-0.8724,10.18,-13.97,21.03,-6.115,13.05,6.668,12.46,19.53,5.818,11.77,12.85,0,0,0,0,0,0,0,0,0,0,0,0,0,0,0,0,
763,25.22,25.17,2.706,21.2,-1.671,20.66,1.694,21.8,7.117,18.98,7.556,-0.6521,13.32,-9.429,-3.874,2.62,0,0,0,0,0,0,0,0,0,0,0,0,0,0,0,0,
764,-0.1054,7.481,-19.36,2.772,-22.8,16.93,-20.53,-12.67,-11.11,-2.913,-23.63,-28.87,-9.961,-29.65,-26.98,-14.0,0,0,0,0,0,0,0,0,0,0,0,0,0,0,0,0,
765,-57.4,-21.95,-32.43,12.76,-26.52,16.05,-30.01,-14.63,-26.16,-17.42,-25.85,-18.47,-14.27,-16.16,-20.58,-5.656,0,0,0,0,0,0,0,0,0,0,0,0,0,0,0,0,
766,-13.94,7.398,-21.93,40.07,-19.88,-1.973,-19.13,24.75,-22.52,-11.46,-20.11,-1.126,-10.32,-0.8419,-12.22,2.009,0,0,0,0,0,0,0,0,0,0,0,0,0,0,0,0,
767,10.05,44.54,-19.28,46.81,-8.552,-0.8451,-31.3,28.55,-20.32,3.252,-34.45,-10.7,-9.988,-4.514,-18.22,-5.021,0,0,0,0,0,0,0,0,0,0,0,0,0,0,0,0,
768,-57.93,11.04,-42.43,19.38,-6.874,33.4,-50.14,-15.79,-20.47,12.85,-35.64,-27.96,-6.915,-12.97,-19.54,-7.414,0,0,0,0,0,0,0,0,0,0,0,0,0,0,0,0,
769,-59.5,-39.66,-66.71,-3.937,-35.66,28.83,-47.06,-32.96,-28.28,-0.9574,-27.28,-33.66,-8.392,-17.75,-18.33,-4.507,0,0,0,0,0,0,0,0,0,0,0,0,0,0,0,0,
770,-13.37,-18.79,-52.37,23.78,-36.86,3.748,-15.48,11.89,-30.14,-5.58,-10.24,-0.9985,11.63,10.73,6.711,18.33,0,0,0,0,0,0,0,0,0,0,0,0,0,0,0,0,
771,2.35,31.93,-7.292,49.59,4.392,24.91,25.81,36.15,4.058,33.86,21.9,37.79,46.9,46.69,44.03,45.93,0,0,0,0,0,0,0,0,0,0,0,0,0,0,0,0,
772,4.307,12.73,1.329,11.72,-4.438,34.9,17.31,-0.0121,20.87,46.15,21.33,22.0,34.77,26.92,34.08,33.59,0,0,0,0,0,0,0,0,0,0,0,0,0,0,0,0,
773,-51.21,-28.36,-24.24,-5.163,-32.02,8.155,-11.82,-4.697,-4.648,5.345,14.06,8.811,18.75,9.085,26.21,27.3,0,0,0,0,0,0,0,0,0,0,0,0,0,0,0,0,
774,-85.68,0.2149,-20.71,37.87,0.8963,11.19,9.792,13.52,6.181,-0.8244,52.59,33.23,51.51,36.93,64.21,55.78,0,0,0,0,0,0,0,0,0,0,0,0,0,0,0,0,
775,-9.55,32.42,-15.41,41.65,15.37,21.03,18.6,-16.94,36.94,22.14,63.54,29.58,56.24,37.49,65.97,55.38,0,0,0,0,0,0,0,0,0,0,0,0,0,0,0,0,
776,22.31,3.726,-39.17,11.51,-17.16,1.695,-17.16,-16.42,20.61,16.49,25.58,16.69,25.55,17.94,30.55,34.86,0,0,0,0,0,0,0,0,0,0,0,0,0,0,0,0,
777,-33.78,-33.86,-45.11,14.66,-23.47,-3.157,-21.68,24.43,0.6293,12.06,12.7,26.33,22.68,23.16,19.93,29.38,0,0,0,0,0,0,0,0,0,0,0,0,0,0,0,0,
778,-44.55,-35.99,-38.71,17.04,-21.78,-2.697,-13.76,-2.449,-0.337,12.62,6.994,7.971,13.02,8.489,7.233,7.556,0,0,0,0,0,0,0,0,0,0,0,0,0,0,0,0,
779,-21.95,-7.572,-43.67,5.649,-35.01,-25.48,-30.24,-40.06,-13.65,-7.819,-17.38,-17.52,-14.49,-20.81,-9.544,-14.73,0,0,0,0,0,0,0,0,0,0,0,0,0,0,0,0,
780,-12.87,1.809,-27.74,6.279,-32.15,-34.21,-26.93,-17.46,-21.36,-18.45,-20.22,-4.89,-11.72,-17.17,2.84,-3.235,0,0,0,0,0,0,0,0,0,0,0,0,0,0,0,0,
781,4.539,-24.82,-6.842,5.562,-22.93,-19.52,-16.94,-3.372,-16.4,-13.19,-11.6,5.899,-0.5474,-8.414,15.53,11.29,0,0,0,0,0,0,0,0,0,0,0,0,0,0,0,0,
782,10.73,-18.58,-20.63,11.58,-17.33,-5.028,-26.6,1.37,-16.88,-14.18,-16.33,0.8581,-5.744,-13.15,7.384,7.95,0,0,0,0,0,0,0,0,0,0,0,0,0,0,0,0,
783,-3.683,7.363,-37.27,25.95,-10.59,7.615,-22.15,14.24,-12.79,-8.654,-16.23,1.027,-5.988,-11.28,-2.739,-0.0548,0,0,0,0,0,0,0,0,0,0,0,0,0,0,0,0,
784,-15.61,-11.22,-28.48,12.45,-14.13,4.277,-17.19,-16.69,-6.79,-0.4601,-10.57,-6.967,-5.13,-12.68,-8.732,-4.736,0,0,0,0,0,0,0,0,0,0,0,0,0,0,0,0,
785,-21.08,-23.58,-17.65,-9.672,-20.56,-13.55,-37.74,-48.14,-14.8,-6.71,-13.05,-16.17,-13.47,-21.27,-16.19,-5.596,0,0,0,0,0,0,0,0,0,0,0,0,0,0,0,0,
786,-15.28,-9.323,-16.22,5.57,-22.53,-12.97,-46.78,-21.37,-27.64,-13.67,-18.98,-5.692,-20.83,-16.81,-21.11,-5.179,0,0,0,0,0,0,0,0,0,0,0,0,0,0,0,0,
787,-0.5218,-10.13,-10.75,33.74,-24.27,-1.673,-30.99,8.639,-28.88,-11.92,-17.82,6.08,-17.06,-1.891,-12.1,-2.926,0,0,0,0,0,0,0,0,0,0,0,0,0,0,0,0,
788,7.288,4.118,-0.7654,26.81,-16.7,0.9958,-18.57,18.0,-16.61,-4.486,-8.549,5.822,-4.449,5.018,-0.5267,-2.299,0,0,0,0,0,0,0,0,0,0,0,0,0,0,0,0,
789,4.371,21.11,1.508,-1.126,-11.06,6.6,-20.77,17.62,-11.25,1.225,-6.438,-0.8168,-6.968,-4.474,-10.61,-13.25,0,0,0,0,0,0,0,0,0,0,0,0,0,0,0,0,
790,-2.97,-4.351,2.441,-0.5957,-20.19,11.13,-30.56,-10.84,-24.48,-7.642,-12.86,-12.61,-22.9,-20.01,-25.52,-28.03,0,0,0,0,0,0,0,0,0,0,0,0,0,0,0,0,
791,-0.6837,-9.626,18.85,31.36,-13.63,14.5,-25.89,-20.57,-22.62,-12.34,-2.001,-14.21,-13.25,-19.47,-17.44,-27.4,0,0,0,0,0,0,0,0,0,0,0,0,0,0,0,0,
792,13.59,23.63,36.17,53.99,10.12,23.6,-6.434,7.004,4.322,-1.038,15.78,-9.377,5.08,-13.42,-7.973,-20.13,0,0,0,0,0,0,0,0,0,0,0,0,0,0,0,0,
793,18.08,24.71,29.01,51.2,8.241,12.56,-8.652,-17.32,6.932,-8.769,1.281,-27.56,-10.04,-27.46,-23.02,-30.49,0,0,0,0,0,0,0,0,0,0,0,0,0,0,0,0,
794,14.35,14.68,14.73,49.32,-2.869,-1.82,-24.59,-61.86,-15.32,-23.02,-19.83,-37.7,-18.55,-30.32,-32.62,-37.68,0,0,0,0,0,0,0,0,0,0,0,0,0,0,0,0,
795,26.79,32.1,23.87,64.49,19.61,29.91,-14.47,-13.81,-3.506,2.911,-0.0921,-2.421,13.87,2.351,-9.634,-11.46,0,0,0,0,0,0,0,0,0,0,0,0,0,0,0,0,
796,45.67,38.13,45.44,68.69,44.63,67.08,4.41,44.88,34.75,34.51,24.54,21.6,31.13,18.01,3.863,8.987,0,0,0,0,0,0,0,0,0,0,0,0,0,0,0,0,
797,48.72,40.91,50.62,57.27,39.78,57.65,1.914,15.39,38.86,27.62,9.082,2.949,6.557,-2.268,-21.36,-7.379,0,0,0,0,0,0,0,0,0,0,0,0,0,0,0,0,
798,48.17,63.01,40.51,65.2,35.69,39.09,-6.235,-1.237,15.31,15.61,-8.204,-0.4271,-8.08,-7.331,-36.37,-16.18,0,0,0,0,0,0,0,0,0,0,0,0,0,0,0,0,
799,52.24,50.39,32.99,64.48,40.44,37.24,-6.392,32.08,11.71,23.67,1.278,13.45,1.359,1.67,-22.18,-5.757,0,0,0,0,0,0,0,0,0,0,0,0,0,0,0,0,
800,30.47,-1.138,21.05,21.36,26.5,32.5,-10.09,9.088,13.71,21.88,-1.877,-7.062,-4.656,-18.11,-25.94,-14.41,0,0,0,0,0,0,0,0,0,0,0,0,0,0,0,0,
801,-13.4,-14.15,4.706,0.9262,11.36,32.57,-11.8,-40.07,-5.461,-2.108,-18.11,-33.4,-17.69,-40.9,-41.07,-23.77,0,0,0,0,0,0,0,0,0,0,0,0,0,0,0,0,
802,-15.83,21.32,15.39,25.58,21.51,40.24,3.485,-18.35,-7.707,-12.28,-6.148,-17.54,-3.93,-22.94,-27.63,-3.647,0,0,0,0,0,0,0,0,0,0,0,0,0,0,0,0,
803,21.3,42.11,32.04,32.78,21.68,22.64,7.204,19.37,12.06,1.314,3.367,2.506,6.22,-3.417,-16.64,7.627,0,0,0,0,0,0,0,0,0,0,0,0,0,0,0,0,
804,38.27,30.71,15.24,28.63,-0.9307,-6.047,-13.77,16.82,3.703,3.305,-16.57,-7.591,-7.859,-19.99,-26.91,-6.183,0,0,0,0,0,0,0,0,0,0,0,0,0,0,0,0,
805,45.59,23.68,9.146,37.72,3.316,4.58,-6.641,8.074,-7.999,-3.166,-11.49,-14.66,-3.04,-28.51,-15.51,-3.254,0,0,0,0,0,0,0,0,0,0,0,0,0,0,0,0,
806,52.18,27.9,25.79,29.96,24.3,24.62,19.35,3.667,12.27,4.544,14.12,-4.392,15.89,-13.09,3.897,13.24,0,0,0,0,0,0,0,0,0,0,0,0,0,0,0,0,
807,33.6,20.57,18.2,15.84,16.64,1.941,4.019,6.935,17.87,6.599,9.834,-1.59,8.995,-12.91,-10.05,12.19,0,0,0,0,0,0,0,0,0,0,0,0,0,0,0,0,
808,19.74,0.8578,7.098,3.729,1.368,-18.95,-21.77,0.2843,-1.421,-5.16,-2.837,-19.07,-12.47,-31.3,-35.87,1.73,0,0,0,0,0,0,0,0,0,0,0,0,0,0,0,0,
809,5.265,-28.59,-0.2159,-35.99,-15.1,1.582,-30.3,-43.36,-20.61,-18.73,-18.2,-44.35,-37.83,-55.28,-54.81,-9.492,0,0,0,0,0,0,0,0,0,0,0,0,0,0,0,0,
810,-26.63,-47.46,-23.9,-47.48,-40.53,6.738,-42.54,-46.36,-47.17,-34.08,-40.32,-43.29,-55.1,-65.62,-60.9,-12.16,0,0,0,0,0,0,0,0,0,0,0,0,0,0,0,0,
811,-12.75,-19.95,-20.82,5.931,-34.49,-34.28,-30.36,10.99,-55.83,-37.69,-28.91,-17.21,-42.51,-46.13,-46.85,-1.33,0,0,0,0,0,0,0,0,0,0,0,0,0,0,0,0,
812,15.38,4.108,-3.069,18.88,-11.91,-56.24,-8.209,16.75,-38.33,-32.37,-15.94,-15.42,-35.7,-53.46,-48.01,-10.53,0,0,0,0,0,0,0,0,0,0,0,0,0,0,0,0,
813,-13.66,-25.14,-14.58,-24.3,-18.22,-29.24,-23.43,-11.1,-39.76,-43.12,-31.5,-31.54,-46.46,-110.5,-61.7,-28.42,0,0,0,0,0,0,0,0,0,0,0,0,0,0,0,0,
814,-24.93,-32.89,-11.45,-12.59,-26.87,-16.87,-23.91,1.659,-46.12,-52.15,-15.08,-21.41,-29.93,-134.5,-41.04,-8.767,0,0,0,0,0,0,0,0,0,0,0,0,0,0,0,0,
815,7.701,-0.2373,8.814,28.28,-25.54,-28.79,6.479,6.116,-29.72,-34.39,13.95,-5.311,-8.153,-108.2,-18.89,9.642,0,0,0,0,0,0,0,0,0,0,0,0,0,0,0,0,
816,10.66,-11.34,3.132,10.05,-32.17,-16.2,-0.3796,-19.14,-21.37,-15.64,-3.697,-18.54,-17.34,-89.4,-30.52,-9.834,0,0,0,0,0,0,0,0,0,0,0,0,0,0,0,0,
817,-15.41,-45.85,-9.107,-27.66,-36.91,-14.41,-23.82,-52.48,-28.97,-26.06,-20.62,-40.07,-25.65,-76.11,-31.3,-16.48,0,0,0,0,0,0,0,0,0,0,0,0,0,0,0,0,
818,-41.69,-40.4,-16.65,-44.41,-38.83,-43.43,-11.54,-78.75,-33.83,-48.75,-6.896,-34.88,-19.86,-53.38,-10.78,4.372,0,0,0,0,0,0,0,0,0,0,0,0,0,0,0,0,
819,-51.87,-32.32,-22.13,-60.04,-35.02,-37.76,5.95,-45.01,-32.68,-48.36,0.5664,-9.491,-15.52,-37.5,-3.95,11.11,0,0,0,0,0,0,0,0,0,0,0,0,0,0,0,0,
820,-35.77,-38.45,-7.439,-48.6,-14.96,-12.24,7.504,14.5,-22.18,-28.34,-1.042,6.004,-9.209,-23.47,-7.743,6.423,0,0,0,0,0,0,0,0,0,0,0,0,0,0,0,0,
821,-10.11,-15.08,16.28,4.639,0.1822,-21.28,12.06,9.287,-9.307,-13.99,1.812,7.232,-4.059,-7.047,-7.788,9.111,0,0,0,0,0,0,0,0,0,0,0,0,0,0,0,0,
822,29.64,15.64,30.37,36.38,0.3033,-23.8,17.37,-12.11,-5.223,-6.094,2.902,5.372,-5.584,-6.379,-10.91,5.141,0,0,0,0,0,0,0,0,0,0,0,0,0,0,0,0,
823,60.8,8.072,31.66,18.26,1.896,8.912,16.24,6.686,-4.866,-0.1123,-0.7064,-0.8048,-6.426,-19.53,-19.62,-7.159,0,0,0,0,0,0,0,0,0,0,0,0,0,0,0,0,
824,41.63,-8.238,14.6,-2.457,-0.5048,13.78,4.584,-8.748,-8.25,-7.946,-10.99,-20.24,-15.94,-37.64,-36.32,-22.77,0,0,0,0,0,0,0,0,0,0,0,0,0,0,0,0,
825,11.13,-14.41,-8.452,-6.269,-15.77,-36.64,-23.68,-67.58,-20.94,-34.91,-28.75,-45.14,-39.15,-57.78,-56.32,-45.67,0,0,0,0,0,0,0,0,0,0,0,0,0,0,0,0,
826,-12.88,-35.74,-16.57,-12.6,-24.49,-49.03,-36.9,-58.62,-31.64,-49.27,-35.74,-35.63,-43.03,-48.08,-49.41,-45.66,0,0,0,0,0,0,0,0,0,0,0,0,0,0,0,0,
827,-39.79,-44.75,-11.9,-11.08,-18.33,11.28,-17.43,8.981,-28.49,-20.83,-21.57,-0.0181,-23.33,-13.65,-25.02,-18.91,0,0,0,0,0,0,0,0,0,0,0,0,0,0,0,0,
828,-20.07,-22.16,-14.73,8.069,-18.07,21.54,-10.77,15.73,-25.06,3.351,-12.09,-7.579,-24.28,-20.58,-31.56,-20.43,0,0,0,0,0,0,0,0,0,0,0,0,0,0,0,0,
829,19.47,-21.21,-30.21,13.88,-26.76,-31.23,-22.15,-26.15,-34.55,-20.37,-20.53,-43.28,-42.61,-57.73,-50.67,-43.05,0,0,0,0,0,0,0,0,0,0,0,0,0,0,0,0,
830,14.12,-32.63,-34.61,3.846,-30.74,-41.89,-18.99,-44.24,-42.48,-43.66,-26.12,-47.95,-42.94,-62.8,-46.28,-45.1,0,0,0,0,0,0,0,0,0,0,0,0,0,0,0,0,
831,1.293,-6.838,-22.38,12.65,-29.6,-43.21,-21.27,-44.48,-37.63,-38.95,-26.48,-41.15,-36.88,-49.77,-41.84,-46.78,0,0,0,0,0,0,0,0,0,0,0,0,0,0,0,0,
832,-7.78,0.838,-19.89,23.16,-22.78,-57.32,-33.26,-26.63,-31.5,-31.68,-36.69,-37.9,-43.4,-44.98,-47.34,-56.31,0,0,0,0,0,0,0,0,0,0,0,0,0,0,0,0,
833,-30.59,-42.9,-32.62,6.001,-21.46,-23.42,-32.89,-11.93,-38.08,-22.19,-52.17,-30.1,-57.95,-45.44,-51.86,-54.7,0,0,0,0,0,0,0,0,0,0,0,0,0,0,0,0,
834,-24.36,-51.7,-38.86,-7.026,-34.31,2.824,-36.07,-35.28,-53.05,-17.5,-55.66,-32.07,-67.72,-54.68,-52.38,-48.25,0,0,0,0,0,0,0,0,0,0,0,0,0,0,0,0,
835,4.75,-12.09,-28.44,-5.743,-33.51,-13.79,-38.73,-39.68,-53.14,-25.15,-44.65,-31.46,-60.12,-61.17,-40.67,-45.35,0,0,0,0,0,0,0,0,0,0,0,0,0,0,0,0,
836,11.45,-12.06,-16.19,-16.24,-21.96,-18.71,-29.29,-11.07,-41.83,-27.49,-38.43,-23.0,-53.54,-59.93,-36.5,-48.59,0,0,0,0,0,0,0,0,0,0,0,0,0,0,0,0,
837,-0.1944,-42.28,-17.8,-22.75,-31.87,-32.85,-32.78,-11.58,-48.29,-32.35,-42.54,-26.15,-62.05,-58.08,-50.15,-47.52,0,0,0,0,0,0,0,0,0,0,0,0,0,0,0,0,
838,-20.61,-28.92,-26.71,-16.86,-39.64,-52.81,-39.3,-27.1,-58.36,-38.57,-43.34,-30.72,-59.88,-49.98,-51.86,-33.66,0,0,0,0,0,0,0,0,0,0,0,0,0,0,0,0,
839,-39.7,-0.8655,-25.22,-14.54,-21.06,-34.88,-27.47,-33.55,-43.98,-22.87,-41.79,-33.49,-45.57,-48.09,-47.3,-31.6,0,0,0,0,0,0,0,0,0,0,0,0,0,0,0,0,
840,-35.74,-11.78,-0.3222,0.5354,-3.426,-19.87,-14.56,-42.4,-20.77,-7.088,-37.65,-38.99,-37.7,-55.36,-49.44,-40.76,0,0,0,0,0,0,0,0,0,0,0,0,0,0,0,0,
841,-2.048,-20.37,29.49,23.08,-3.382,-19.96,-6.912,-37.04,-8.3,-13.74,-32.12,-31.71,-32.53,-50.96,-42.39,-37.59,0,0,0,0,0,0,0,0,0,0,0,0,0,0,0,0,
842,27.57,0.9189,17.92,16.61,-6.074,-7.702,-10.12,-16.51,-11.09,-24.82,-40.9,-19.25,-31.44,-43.63,-35.85,-34.27,0,0,0,0,0,0,0,0,0,0,0,0,0,0,0,0,
843,-9.138,1.512,-21.35,-8.323,-1.31,-2.973,-26.8,5.155,-25.53,-25.51,-46.59,-14.55,-31.64,-39.01,-34.76,-36.45,0,0,0,0,0,0,0,0,0,0,0,0,0,0,0,0,
844,-65.99,-26.19,-27.0,-17.34,-11.47,-2.945,-30.34,14.04,-35.12,-11.32,-34.89,-13.8,-28.89,-30.46,-28.38,-37.54,0,0,0,0,0,0,0,0,0,0,0,0,0,0,0,0,
845,-33.83,-34.47,-9.38,-5.135,-43.45,-9.973,-25.4,-7.29,-39.82,0.5711,-39.64,-20.16,-36.9,-36.01,-28.22,-43.85,0,0,0,0,0,0,0,0,0,0,0,0,0,0,0,0,
846,28.83,-15.82,-4.416,10.47,-43.07,-37.7,-21.51,-20.97,-39.56,-10.26,-45.75,-20.72,-33.46,-44.31,-21.27,-40.77,0,0,0,0,0,0,0,0,0,0,0,0,0,0,0,0,
847,38.74,9.562,12.13,13.76,-0.1627,-32.42,9.118,-5.257,-12.02,-17.07,-12.27,-4.324,1.084,-30.03,7.944,-23.3,0,0,0,0,0,0,0,0,0,0,0,0,0,0,0,0,
848,39.21,19.71,36.87,6.714,15.72,-0.4854,33.88,-11.98,18.16,-9.739,7.272,1.441,10.37,-26.12,17.3,-20.58,0,0,0,0,0,0,0,0,0,0,0,0,0,0,0,0,
849,4.876,-3.578,19.99,-9.024,-9.142,-20.31,5.308,-37.51,-2.333,-23.76,-24.44,-13.19,-24.44,-49.28,-6.564,-35.02,0,0,0,0,0,0,0,0,0,0,0,0,0,0,0,0,
850,-66.53,-37.28,-20.58,-26.3,-28.85,-60.13,-23.47,-35.49,-45.44,-47.9,-44.07,-18.46,-42.2,-58.46,-18.15,-42.06,0,0,0,0,0,0,0,0,0,0,0,0,0,0,0,0,
851,-48.1,-56.36,-21.9,-23.31,-31.58,-54.29,-14.37,-13.66,-51.58,-45.17,-33.83,-5.021,-31.34,-44.83,-11.41,-36.34,0,0,0,0,0,0,0,0,0,0,0,0,0,0,0,0,
852,20.3,-59.14,10.9,-7.834,-23.44,-23.02,-3.453,6.694,-31.73,-26.29,-30.06,3.713,-19.97,-34.67,-9.749,-28.21,0,0,0,0,0,0,0,0,0,0,0,0,0,0,0,0,
853,6.839,-31.42,27.34,-2.662,-12.34,-3.77,0.5409,4.128,-18.89,-15.54,-28.08,-9.06,-12.36,-36.87,-12.4,-29.07,0,0,0,0,0,0,0,0,0,0,0,0,0,0,0,0,
854,-28.93,3.675,16.4,-4.188,-17.51,-18.94,-2.41,-22.33,-21.05,-25.03,-33.26,-32.52,-24.07,-52.76,-22.81,-40.71,0,0,0,0,0,0,0,0,0,0,0,0,0,0,0,0,
855,-23.25,6.112,-1.491,-9.62,-32.34,-50.71,-21.0,-31.27,-37.77,-48.61,-50.78,-44.74,-47.71,-68.63,-35.28,-46.87,0,0,0,0,0,0,0,0,0,0,0,0,0,0,0,0,
856,-6.609,0.6458,-13.69,-14.37,-32.47,-52.61,-24.8,-29.22,-46.81,-57.87,-45.76,-43.32,-45.27,-64.3,-27.15,-41.25,0,0,0,0,0,0,0,0,0,0,0,0,0,0,0,0,
857,20.77,-0.8031,-11.12,-9.533,-19.66,-33.3,-6.3,-37.07,-31.66,-48.49,-30.28,-38.16,-31.78,-52.59,-12.79,-39.95,0,0,0,0,0,0,0,0,0,0,0,0,0,0,0,0,
