%OpenBCI Raw EXG Data
%Number of channels = 16
%Sample Rate = 125 Hz
%Board = OpenBCI_GUI$BoardCytonSerialDaisy
Sample Index,EXG Channel 0,EXG Channel 1,EXG Channel 2,EXG Channel 3,EXG Channel 4,EXG Channel 5,EXG Channel 6,EXG Channel 7,EXG Channel 8,EXG Channel 9,EXG Channel 10,EXG Channel 11,EXG Channel 12,EXG Channel 13,EXG Channel 14,EXG Channel 15,Accel Channel 0,Accel Channel 1,Accel Channel 2,Other,Other,Other,Other,Other,Other,Other,Analog Channel 0,Analog Channel 1,Analog Channel 2,Timestamp,Other,Timestamp (Formatted),Annotations
1,0,0,0,-0,0,0,0,-0,0,0,0,0,0,0,-0,0,0,0,0,0,0,0,0,0,0,0,0,0,0,0,0,0,T0
2,-0.4004,6.98,-9.702,2.059,-2.781,-4.851,0.9722,-6.732,5.88,2.703,-0.9456,-5.881,2.731,5.322,-5.342,-0.8099,0,0,0,0,0,0,0,0,0,0,0,0,0,0,0,0,
3,-10.51,4.369,-7.138,-7.263,-14.08,-8.341,-7.775,-25.92,4.202,3.468,-7.878,-11.69,0.0493,5.405,-5.868,-2.276,0,0,0,0,0,0,0,0,0,0,0,0,0,0,0,0,
4,-15.1,0.9935,-4.251,-11.47,-19.2,-10.1,-1.946,-27.31,0.4291,2.02,-8.66,-11.86,-1.851,2.445,-5.031,-4.817,0,0,0,0,0,0,0,0,0,0,0,0,0,0,0,0,
5,-13.34,1.782,-4.433,-4.847,-10.16,-11.93,6.34,-18.44,-0.4344,-3.14,-6.653,-11.78,-2.118,-3.219,-6.598,-8.576,0,0,0,0,0,0,0,0,0,0,0,0,0,0,0,0,
6,-16.39,4.558,2.921,0.8153,-6.36,-10.5,-3.719,-15.15,0.0197,-6.389,-11.11,-16.53,-0.9929,-6.621,-8.572,-11.76,0,0,0,0,0,0,0,0,0,0,0,0,0,0,0,0,
7,-18.55,13.73,14.54,5.169,-12.52,-2.186,-3.035,-8.059,-0.0666,-0.9783,-14.55,-19.46,6.662,-0.0077,-11.89,-12.77,0,0,0,0,0,0,0,0,0,0,0,0,0,0,0,0,
8,-13.7,27.82,16.9,9.502,-10.21,6.345,17.2,-9.576,1.209,8.011,-13.6,-14.76,15.92,8.392,-13.95,-10.93,0,0,0,0,0,0,0,0,0,0,0,0,0,0,0,0,
9,-3.299,35.54,9.829,9.301,-4.58,11.29,24.87,-16.89,5.919,12.75,-7.863,-0.8078,20.9,8.978,-5.963,-4.876,0,0,0,0,0,0,0,0,0,0,0,0,0,0,0,0,
10,10.49,33.6,6.294,8.721,-8.272,16.39,15.53,-10.91,10.35,10.05,4.248,15.93,25.32,8.356,5.107,3.978,0,0,0,0,0,0,0,0,0,0,0,0,0,0,0,0,
11,20.94,30.94,8.464,11.71,-4.888,16.54,11.61,-5.711,13.61,5.022,12.05,24.56,29.27,10.25,8.463,10.07,0,0,0,0,0,0,0,0,0,0,0,0,0,0,0,0,
12,24.01,34.23,7.179,11.05,9.877,9.26,18.18,-10.39,15.69,7.258,10.62,24.07,28.33,8.831,10.04,7.025,0,0,0,0,0,0,0,0,0,0,0,0,0,0,0,0,
13,19.18,34.11,2.839,2.966,9.604,5.591,14.99,-14.08,9.847,10.45,7.023,16.76,18.19,3.605,9.749,-2.638,0,0,0,0,0,0,0,0,0,0,0,0,0,0,0,0,
14,6.769,19.99,2.198,-5.021,-6.843,1.743,-3.962,-14.49,3.158,4.841,2.981,5.766,4.948,-0.8461,2.839,-4.793,0,0,0,0,0,0,0,0,0,0,0,0,0,0,0,0,
15,-3.071,5.666,2.664,-9.564,-13.65,-12.68,-10.33,-18.74,6.49,1.083,1.638,0.5227,4.804,-0.8801,1.262,3.25,0,0,0,0,0,0,0,0,0,0,0,0,0,0,0,0,
16,-3.394,7.388,-3.048,-15.21,-11.12,-19.78,-2.498,-31.89,6.666,5.081,4.943,1.404,12.05,4.44,8.472,6.653,0,0,0,0,0,0,0,0,0,0,0,0,0,0,0,0,
17,-3.16,12.83,-8.866,-16.18,-10.65,-8.704,-8.364,-33.06,-0.1471,5.282,4.364,-1.567,9.721,7.977,7.51,1.545,0,0,0,0,0,0,0,0,0,0,0,0,0,0,0,0,
18,-8.034,8.239,-3.376,-4.849,-3,0.7072,-11.6,-11.15,2.087,0.4078,-1.901,-8.873,2.418,1.766,-3.465,-3.465,0,0,0,0,0,0,0,0,0,0,0,0,0,0,0,0,
19,-11.94,3.151,6.053,6.011,12.07,2.694,5.914,-0.9055,7.911,-1.165,-5.625,-13.07,-3.027,-6.548,-8.486,-5.614,0,0,0,0,0,0,0,0,0,0,0,0,0,0,0,0,
20,-12.91,3.815,8.332,4.711,17.8,1.559,10.4,-9.833,4.037,-1.52,-5.512,-14.21,-4.767,-5.353,-5.679,-3.906,0,0,0,0,0,0,0,0,0,0,0,0,0,0,0,0,
21,-16.8,4.747,5.809,-1.221,11.68,-7.761,-4.168,-13.33,-2.225,-4.582,-6.223,-15.53,1.859,-0.0991,-2.975,1.121,0,0,0,0,0,0,0,0,0,0,0,0,0,0,0,0,
22,-19.12,11.59,2.863,-4.29,5.923,-10.83,-1.385,-16.41,-3.086,-3.156,-6.437,-11.1,13.82,2.959,-0.0218,4.964,0,0,0,0,0,0,0,0,0,0,0,0,0,0,0,0,
23,-6.538,30.74,5.719,-0.5057,7.452,4.041,16.92,-17.68,0.4541,7.369,-2.419,2.034,28.58,10.68,3.342,10.26,0,0,0,0,0,0,0,0,0,0,0,0,0,0,0,0,
24,13.38,49,15.26,11.45,13.91,17.56,26.99,-8.028,8.168,17.45,3.464,14.18,40.11,20.39,6.326,16.79,0,0,0,0,0,0,0,0,0,0,0,0,0,0,0,0,
25,21.63,50.78,20.86,18.29,20.72,20.42,28.2,-5.436,15.41,17.54,7.665,19.61,33.36,17.97,10.45,11.53,0,0,0,0,0,0,0,0,0,0,0,0,0,0,0,0,
26,18.86,34.39,16.08,9.404,20.7,17.04,16.6,-9.701,13,9.373,7.513,17.77,14.37,5.864,10.42,-1.92,0,0,0,0,0,0,0,0,0,0,0,0,0,0,0,0,
27,10.5,11.02,3.715,-3.887,12.81,4.739,-5.62,-6.959,5.684,1.834,4.183,8.751,5.659,1.443,5.636,-2.135,0,0,0,0,0,0,0,0,0,0,0,0,0,0,0,0,
28,-1.216,0.5402,-1.337,-7.485,13.75,-5.865,-10.23,-5.949,8.87,2.591,5.849,2.254,10.01,7.845,5.644,6.635,0,0,0,0,0,0,0,0,0,0,0,0,0,0,0,0,
29,-4.102,9.144,8.082,-1.173,24.18,-0.3035,6.005,-6.931,17.28,8.234,9.549,2.87,13.17,10.54,9.636,4.714,0,0,0,0,0,0,0,0,0,0,0,0,0,0,0,0,
30,2.796,19.46,11.36,7.532,23.37,10.51,14.91,-4.636,14.82,10.33,6.698,1.751,10.93,5.941,9.722,-1.988,0,0,0,0,0,0,0,0,0,0,0,0,0,0,0,0,
31,3.259,18.44,4.214,9.111,17.78,4.689,7.487,-7.158,7.565,8.548,3.804,-3.261,10.94,6.173,5.253,0.0626,0,0,0,0,0,0,0,0,0,0,0,0,0,0,0,0,
32,-6.081,11.62,-1.228,-0.6007,16.83,-16.1,-8.092,-14.46,5.02,5.006,2.373,-8.354,11.61,10.84,-0.3309,6.381,0,0,0,0,0,0,0,0,0,0,0,0,0,0,0,0,
33,-15.27,6.514,-12.4,-13,7.019,-25.3,-22.64,-23,3.307,0.2818,-1.17,-11.94,7.237,8.935,-1.723,5.596,0,0,0,0,0,0,0,0,0,0,0,0,0,0,0,0,
34,-20.82,2.381,-19.93,-17.74,-2.032,-19.13,-25.37,-28.94,2.219,-2.337,0.7362,-12.03,3.456,3.676,2.427,-4.542,0,0,0,0,0,0,0,0,0,0,0,0,0,0,0,0,
35,-25.1,0.2248,-10.82,-13.72,2.649,-18.23,-13.24,-22.82,2.158,-0.1714,4.094,-11.66,4.745,3.319,4.935,-9.998,0,0,0,0,0,0,0,0,0,0,0,0,0,0,0,0,
36,-26.32,6.649,-5.095,-4.242,8.141,-14.35,6.404,-12.47,1.602,5.267,-0.0313,-12.9,9.756,4.429,2.138,-3.209,0,0,0,0,0,0,0,0,0,0,0,0,0,0,0,0,
37,-19.25,17.51,-4.225,4.248,14.9,1.998,14.19,-10.31,5.021,8.287,-2.292,-8.033,17,4.842,3.415,3.933,0,0,0,0,0,0,0,0,0,0,0,0,0,0,0,0,
38,-5.039,23.2,1.016,5.468,20.19,8.38,2.33,-11.29,8.446,6.577,4.084,5.059,24.2,10.01,14.91,9.638,0,0,0,0,0,0,0,0,0,0,0,0,0,0,0,0,
39,7.308,26.95,-3.75,0.6008,3.794,1.373,-3.018,-13.73,2.619,5.062,11.74,15.18,28.7,15.88,21.9,15.9,0,0,0,0,0,0,0,0,0,0,0,0,0,0,0,0,
40,11.11,28.6,-10.6,-6.619,-16.48,-4.969,4.849,-17.65,-2.284,4.03,12.69,16.5,26.02,12.74,16.59,14.42,0,0,0,0,0,0,0,0,0,0,0,0,0,0,0,0,
41,9.149,22.64,-4.736,-12.41,-9.161,-11.22,1.188,-20.17,4.998,0.7471,8.719,15.01,19.16,5.367,14.37,10.38,0,0,0,0,0,0,0,0,0,0,0,0,0,0,0,0,
42,5.826,15.44,-3.776,-13.77,4.102,-12.77,-8.389,-27.2,9.716,-2.202,6.155,10.01,13.6,1.428,12.26,5.996,0,0,0,0,0,0,0,0,0,0,0,0,0,0,0,0,
43,-2.49,6.867,-11.88,-12.78,-5.476,-9.816,-10.14,-32.13,1.188,-4.646,1.501,-3.479,3.577,-1.458,-2.268,-6.475,0,0,0,0,0,0,0,0,0,0,0,0,0,0,0,0,
44,-15.13,-8.047,-13.36,-10.78,-16.64,-12.95,-14.51,-25.26,-5.992,-6.849,-5.562,-15.3,-5.248,-2.613,-11.08,-12.37,0,0,0,0,0,0,0,0,0,0,0,0,0,0,0,0,
45,-19.91,-14.2,-10.84,-9.409,-6.882,-14.49,-16.06,-19.74,-4.223,-5.909,-5.236,-14.2,-0.0393,1.387,-3.046,-1.101,0,0,0,0,0,0,0,0,0,0,0,0,0,0,0,0,
46,-12.83,-2.219,-9.677,-10.37,7.261,-8.18,-6.595,-17.23,-0.4305,-3.407,3.199,-3.88,11.34,7.957,8.971,11.87,0,0,0,0,0,0,0,0,0,0,0,0,0,0,0,0,
47,-2.719,11.14,-5.932,-7.164,9.225,-2.919,-2.276,-11.12,3.204,-1.824,14.2,8.434,17.71,10.95,21.91,14.64,0,0,0,0,0,0,0,0,0,0,0,0,0,0,0,0,
48,2.822,12.46,-2.816,-1.524,6.728,-3.647,-7.274,-12.38,4.603,-1.944,19.43,13.36,15.55,6.085,26.4,6.284,0,0,0,0,0,0,0,0,0,0,0,0,0,0,0,0,
49,-1.163,7.023,-6.13,-5.35,8.045,-14.93,-10.49,-17.07,2.12,-4.027,10.85,4.292,8.987,0.7496,11.22,-1.908,0,0,0,0,0,0,0,0,0,0,0,0,0,0,0,0,
50,-13.75,4.962,-17,-14.55,7.359,-28.09,-11.81,-20.38,-2.567,-3.949,-0.4226,-7.105,10.83,3.745,0.1217,2.01,0,0,0,0,0,0,0,0,0,0,0,0,0,0,0,0,
51,-21.85,8.442,-25.81,-17.68,3.456,-21.93,-12.27,-31.65,-9.21,-0.905,-1.327,-6.357,18.51,7.883,9.299,9.068,0,0,0,0,0,0,0,0,0,0,0,0,0,0,0,0,
52,-14.36,14.03,-17.62,-13.57,8.889,-5.096,-7.372,-31.95,-8.636,1.452,4.265,3.942,22.66,8.473,18.08,13.78,0,0,0,0,0,0,0,0,0,0,0,0,0,0,0,0,
53,0.9049,21.29,-5.78,-5.673,19.09,2.58,1.879,-13.01,4.883,4.63,13.06,14.13,26.31,11.19,20.86,20.16,0,0,0,0,0,0,0,0,0,0,0,0,0,0,0,0,
54,8.355,27.62,-7.143,1.053,15.62,5.354,8.085,-4.251,14.47,7.617,19.86,17.31,27.81,13.64,25.21,20.3,0,0,0,0,0,0,0,0,0,0,0,0,0,0,0,0,
55,5.579,26.44,-4.515,3.278,4.636,3.982,6.873,-8.576,9.949,5.405,14.42,11.92,24.58,11.79,19.84,13.83,0,0,0,0,0,0,0,0,0,0,0,0,0,0,0,0,
56,0.8571,18.44,-0.5023,-1.281,0.2995,-2.501,3.684,-10.37,3.217,1.615,3.78,6.811,21.22,9.2,7.504,10.67,0,0,0,0,0,0,0,0,0,0,0,0,0,0,0,0,
57,0.6148,10.59,-11.22,-9.396,5.705,-2.655,5.21,-8.942,2.624,1.886,3.881,10.52,19.37,7.987,6.376,9.312,0,0,0,0,0,0,0,0,0,0,0,0,0,0,0,0,
58,5.749,8.724,-12.39,-7.664,19.07,-0.4969,9.366,-8.629,5.814,3.618,11.44,15.91,17.37,7.269,11.16,6.315,0,0,0,0,0,0,0,0,0,0,0,0,0,0,0,0,
59,9.74,14,0.7341,1.62,24.34,-1.193,10.88,-17.25,8.226,4.225,12.76,12.48,12.44,6.164,11.03,3.769,0,0,0,0,0,0,0,0,0,0,0,0,0,0,0,0,
60,6.7,21.35,2.937,3.534,16.79,6.102,11.22,-20.29,7.001,6.901,8.148,5.846,11.01,6.691,10.64,6.07,0,0,0,0,0,0,0,0,0,0,0,0,0,0,0,0,
61,4.139,30.05,1.977,5.066,15.12,16.12,17.74,-3.663,5.812,12.63,8.147,9.403,22.74,12.81,15.25,16.34,0,0,0,0,0,0,0,0,0,0,0,0,0,0,0,0,
62,11.11,42.32,6.801,13.27,21.42,18.49,26.06,5.306,10.82,15.2,14.07,21.29,35.2,19.57,21.49,22.21,0,0,0,0,0,0,0,0,0,0,0,0,0,0,0,0,
63,18.9,46.44,8.943,15.52,26.83,18.35,24,3.371,17.22,11.62,14.4,24.01,31.71,16.64,18.18,11.39,0,0,0,0,0,0,0,0,0,0,0,0,0,0,0,0,
64,15.06,36.57,11.09,12.31,30.01,18.09,20.65,9.45,12.91,8.448,5.987,13.93,20.9,7.821,7.492,-0.4139,0,0,0,0,0,0,0,0,0,0,0,0,0,0,0,0,
65,6.592,30.98,13.02,14,27.92,18.61,24.72,4.911,3.105,8.158,3.397,7.296,19.24,6.307,6.14,-0.0969,0,0,0,0,0,0,0,0,0,0,0,0,0,0,0,0,
66,4.465,34.1,8.789,13.31,21.93,15.46,21.35,-10.32,4.79,6.666,7.903,8.773,23.54,10.45,10.22,0.4788,0,0,0,0,0,0,0,0,0,0,0,0,0,0,0,0,
67,5.879,31.49,1.562,5.762,15.21,4.054,15.24,-13.69,13.46,6.415,7.498,12.97,24.27,10.55,10.9,3.26,0,0,0,0,0,0,0,0,0,0,0,0,0,0,0,0,
68,10.33,28.52,2.04,3.858,11.72,4.136,21.31,-10.31,14.67,8.919,9.928,20.97,27.38,11.28,15.65,16.81,0,0,0,0,0,0,0,0,0,0,0,0,0,0,0,0,
69,17.25,30.52,5.475,6.75,14.25,18.11,20.83,-2.556,11.54,8.57,15.81,23.24,30.85,16.53,19.36,21.98,0,0,0,0,0,0,0,0,0,0,0,0,0,0,0,0,
70,12.96,21.87,-7.285,1.188,12.07,14.78,6.049,-0.4192,9.844,4.958,7.775,10.23,20.5,13.69,13.39,10.55,0,0,0,0,0,0,0,0,0,0,0,0,0,0,0,0,
71,-3.252,2.963,-18.56,-7.325,5.698,-5.163,-3.085,-21.09,7.378,-1.122,-3.449,-3.159,4.948,0.4756,6.959,1.471,0,0,0,0,0,0,0,0,0,0,0,0,0,0,0,0,
72,-12.7,-7.378,-9.306,-8.913,5.982,-13.63,-7.148,-32.95,3.965,-7.821,-0.19,-3.217,0.6733,-4.91,8.626,1.458,0,0,0,0,0,0,0,0,0,0,0,0,0,0,0,0,
73,-8.854,-1.835,-8.143,-7.202,3.882,-2.124,-9.369,-12.93,2.417,-4.663,8.392,4.769,7.761,3.486,17.23,5.134,0,0,0,0,0,0,0,0,0,0,0,0,0,0,0,0,
74,-0.2938,14.11,-14.76,-2.147,-2.563,14.54,0.5369,5.388,5.357,5.332,13.45,10.51,17.75,10.44,21.02,6.714,0,0,0,0,0,0,0,0,0,0,0,0,0,0,0,0,
75,1.637,24.65,-8.025,4.657,-3.806,7.279,7.699,0.8649,7.052,6.692,10.88,6.386,17.72,9.374,13.06,5.884,0,0,0,0,0,0,0,0,0,0,0,0,0,0,0,0,
76,-10.51,16.21,-9.058,0.8747,-6.33,-21.51,-6.602,-18.59,-1.802,1.754,1.823,-3.252,9.158,7.58,8.522,9.129,0,0,0,0,0,0,0,0,0,0,0,0,0,0,0,0,
77,-24.14,0.4681,-21.46,-13.19,-8.41,-28.46,-20.31,-34.22,-8.789,-0.7283,0.8533,-4.288,6.47,6.12,12.15,5.571,0,0,0,0,0,0,0,0,0,0,0,0,0,0,0,0,
78,-16.47,-0.4849,-22.83,-17.26,4.851,-5.454,-6.274,-20.37,4.684,1.444,9.294,8.036,12.28,5.827,12.85,-5.367,0,0,0,0,0,0,0,0,0,0,0,0,0,0,0,0,
79,9.903,16.01,-11.48,-1.067,24.51,16.14,19.28,9.17,23.51,9.448,17.78,24.87,25.36,13.19,18.51,5.133,0,0,0,0,0,0,0,0,0,0,0,0,0,0,0,0,
80,27.73,32.78,4.055,14.95,24.04,20.86,22.31,17.16,22.84,12.93,24.47,31.1,36.39,20.5,30.11,23.18,0,0,0,0,0,0,0,0,0,0,0,0,0,0,0,0,
81,19.88,32.05,4.465,11.19,3.016,6.556,1.842,7.386,9.559,6.022,18.84,18.55,27.82,13.82,23.21,10.86,0,0,0,0,0,0,0,0,0,0,0,0,0,0,0,0,
82,-3.625,14.13,-16.24,-2.382,-14.27,-19.95,-19.16,-8.212,-0.1563,1.388,-1.253,-0.4923,7.914,1.244,0.2918,-8.934,0,0,0,0,0,0,0,0,0,0,0,0,0,0,0,0,
83,-20.07,-2.23,-34.64,-15.38,-21.94,-37.11,-28.69,-30.66,-5.793,1.216,-10.16,-6.952,1.302,0.1686,-6.906,-5.87,0,0,0,0,0,0,0,0,0,0,0,0,0,0,0,0,
84,-17.75,-0.2186,-40.9,-24.23,-21.81,-27.25,-20.62,-34.14,-4.927,0.7139,0.8532,0.9727,12.72,8.759,4.79,4.54,0,0,0,0,0,0,0,0,0,0,0,0,0,0,0,0,
85,-3.329,16.09,-31.25,-15.2,-4.131,4.918,3.57,-10.42,5.606,4.811,9.198,10.53,23.97,13.11,14.19,11.93,0,0,0,0,0,0,0,0,0,0,0,0,0,0,0,0,
86,8.543,27.25,-5.088,5.65,14.07,25.74,21.38,0.9737,12.46,9.034,6.21,10.8,19.07,9.572,15.46,15.22,0,0,0,0,0,0,0,0,0,0,0,0,0,0,0,0,
87,5.987,23.3,6.564,12.88,5.781,11.92,19.1,-7.022,6.94,6.497,1.24,0.9059,6.619,4.749,11.27,5.115,0,0,0,0,0,0,0,0,0,0,0,0,0,0,0,0,
88,-9.944,11.45,-11.49,4.449,-17.56,-14.49,3.687,-5.772,-0.0603,3.276,-4.67,-8.578,0.0008,2.321,3.018,-7.436,0,0,0,0,0,0,0,0,0,0,0,0,0,0,0,0,
89,-22.23,1.264,-31.17,-7.766,-32.22,-28.62,-18.46,-2.796,-5.197,1.08,-10.55,-7.324,-0.3847,1.122,-2.473,-8.167,0,0,0,0,0,0,0,0,0,0,0,0,0,0,0,0,
90,-17.61,0.2941,-31.65,-16.25,-26.86,-22.22,-24.81,-13.09,-11.06,-0.6993,-8.854,2.414,7.33,2.315,-0.0726,-3.031,0,0,0,0,0,0,0,0,0,0,0,0,0,0,0,0,
91,-0.4975,13.78,-19.26,-11.36,-4.732,8.544,4.795,-15.43,-5.109,2.994,-0.6754,12.26,18.94,7.342,7.595,6.413,0,0,0,0,0,0,0,0,0,0,0,0,0,0,0,0,
92,14.54,29.88,-8.049,4.74,11.41,35.11,33.9,0.7534,10.26,6.415,2.92,13.06,18.39,8.561,8.629,9.765,0,0,0,0,0,0,0,0,0,0,0,0,0,0,0,0,
93,13.11,27,-0.2968,17.06,12.41,27.88,26.88,12.36,12.22,2.379,-3.062,3.413,5.167,1.247,0.2388,-3.552,0,0,0,0,0,0,0,0,0,0,0,0,0,0,0,0,
94,0.7,10.76,7.134,19.3,7.277,6.628,10.1,7.163,3.627,-0.2817,-7.643,-0.207,1.51,-2.583,2.295,-3.443,0,0,0,0,0,0,0,0,0,0,0,0,0,0,0,0,
95,-2.644,5.338,1.005,12.33,-11.29,-10,1.652,-1.429,-1.67,0.4478,-3.137,6.65,13.45,0.9373,12.51,13.2,0,0,0,0,0,0,0,0,0,0,0,0,0,0,0,0,
96,0.0597,8.758,-19.39,-0.9981,-37.06,-20.45,-12.23,-6.863,-6.141,-5.023,-0.8018,6.23,17.23,0.5697,6.86,5.325,0,0,0,0,0,0,0,0,0,0,0,0,0,0,0,0,
97,-0.3339,8.865,-23.98,-10.78,-34.87,-9.63,-19.92,-14.88,-3.754,-10.31,-5.123,1.135,10.4,-0.4742,-2.672,-10.9,0,0,0,0,0,0,0,0,0,0,0,0,0,0,0,0,
98,6.663,13.13,-11.5,-10.52,-8.778,10.61,-7.866,-17.93,7.35,-5.186,-6.944,4.488,11.19,4.469,0.7333,-3.761,0,0,0,0,0,0,0,0,0,0,0,0,0,0,0,0,
99,15.08,19.28,-10.53,-4.962,3.015,11.05,4.765,-10,12.63,2.22,-4.902,6.65,7.884,6.494,2.728,0.855,0,0,0,0,0,0,0,0,0,0,0,0,0,0,0,0,
100,8.988,13.03,-15.1,0.2743,-0.9099,2.701,4.012,-6.164,12.38,4.53,-1.55,0.3773,-7.47,1.791,-1.102,-8.322,0,0,0,0,0,0,0,0,0,0,0,0,0,0,0,0,
101,-1.895,2.052,-13.63,1.192,-7.975,-1.903,-1.186,-4.447,10.26,4.378,0.7116,-6.69,-12.47,-2.622,-1.393,-11.05,0,0,0,0,0,0,0,0,0,0,0,0,0,0,0,0,
102,-8.445,0.3456,-20.14,-2.964,-17.51,-8.581,-0.3679,6.343,4.97,2.35,0.5296,-8.067,-1.61,0.3242,3.977,-2.578,0,0,0,0,0,0,0,0,0,0,0,0,0,0,0,0,
103,-11.37,5.653,-25.39,-6.187,-15.76,-8.8,2.143,1.13,5.119,-1.389,1.623,-2.196,10.66,9.481,11.35,7.973,0,0,0,0,0,0,0,0,0,0,0,0,0,0,0,0,
104,-4.544,13.32,-16.26,-7.246,-5.756,-4.701,-2.847,-24.96,5.074,-2.83,1.121,5.569,18.08,14.46,15.1,11.5,0,0,0,0,0,0,0,0,0,0,0,0,0,0,0,0,
105,9.514,23.1,-8.791,-5.703,-2.49,-2.763,-2.559,-30.94,-1.109,2.123,0.2374,13.36,24.43,16.37,18.79,15.65,0,0,0,0,0,0,0,0,0,0,0,0,0,0,0,0,
106,21.23,31.42,-5.454,3.595,7.753,9.032,12.58,-12.51,2.956,8.903,6.169,21.78,27.2,18.26,19.77,18.77,0,0,0,0,0,0,0,0,0,0,0,0,0,0,0,0,
107,24.98,28.16,-4.676,8.744,20.89,15.36,16.53,2.786,12.48,6.739,7.245,20.62,14.13,7.118,7.945,1.794,0,0,0,0,0,0,0,0,0,0,0,0,0,0,0,0,
108,17.16,11.85,-14.59,-1.687,17.31,-1.946,-0.0061,3.174,12.28,-0.6416,2.88,13.06,-0.8899,-8.378,3.197,-8.137,0,0,0,0,0,0,0,0,0,0,0,0,0,0,0,0,
109,7.847,0.9978,-19.49,-10.44,10.54,-15.93,-9.301,-15.28,11.95,-1.706,10.5,14.08,4.92,-5.07,16.97,11.62,0,0,0,0,0,0,0,0,0,0,0,0,0,0,0,0,
110,6.389,5.408,-14.99,-7.327,5.109,-13.42,-6.387,-25.3,10.86,-0.1521,14.2,14.34,14.58,5.087,19.04,16.53,0,0,0,0,0,0,0,0,0,0,0,0,0,0,0,0,
111,4.694,13.52,-16.28,-0.6059,-4.79,-5.122,-2.853,-3.8,4.244,1.74,0.1112,5.976,14.67,8.519,6.97,-0.9187,0,0,0,0,0,0,0,0,0,0,0,0,0,0,0,0,
112,4.218,20.77,-8.428,7.325,-4.899,8.868,5.264,7.202,4.68,11.32,-6.84,2.913,15.68,16.25,5.522,-0.349,0,0,0,0,0,0,0,0,0,0,0,0,0,0,0,0,
113,8.484,24.31,8.375,6.875,2.214,9.662,6.883,-9.249,5.102,19.99,-4.132,2.589,12.49,22.77,5.484,8.922,0,0,0,0,0,0,0,0,0,0,0,0,0,0,0,0,
114,2.455,13.71,0.6113,-7.096,6.091,-11.84,-9.44,-13.82,-3.519,14.92,-9.004,-4.343,3.777,15.52,-2.261,4.596,0,0,0,0,0,0,0,0,0,0,0,0,0,0,0,0,
115,-10.84,0.602,-21.24,-16.73,8,-22.71,-16.82,-9.922,-2.066,5.797,-8.544,-4.633,2.76,6.264,0.3195,0.8121,0,0,0,0,0,0,0,0,0,0,0,0,0,0,0,0,
116,-10.05,5.365,-23.81,-16.63,3.805,-16.72,-1.881,-14.51,9.925,2.838,5.383,6.612,9.131,4.979,14.28,6.976,0,0,0,0,0,0,0,0,0,0,0,0,0,0,0,0,
117,0.3728,17.15,-13.2,-12.05,1.857,-14.17,5.328,-9.488,14.12,-1.195,14.26,14.76,13.35,2.644,21.07,10.78,0,0,0,0,0,0,0,0,0,0,0,0,0,0,0,0,
118,6.563,16.08,-1.438,2.769,7.677,-5.092,-4.016,-3.872,13.22,-8.205,11.26,15.66,10.37,-3.905,15.56,4.23,0,0,0,0,0,0,0,0,0,0,0,0,0,0,0,0,
119,12.03,7.678,9.274,16.69,10.7,14.8,-3.001,-13.65,8.929,-7.512,5.125,14.84,6.515,-1.247,8.994,2.207,0,0,0,0,0,0,0,0,0,0,0,0,0,0,0,0,
120,18.27,8.164,10.73,14.79,22.19,23.48,11.83,-13.9,0.1028,3.676,2.015,15.06,10.55,13.37,10.95,12.11,0,0,0,0,0,0,0,0,0,0,0,0,0,0,0,0,
121,20.58,16.7,8.758,8.392,38.74,18.31,16.36,-0.7945,2.307,14.08,4.598,17.09,13.92,20.56,15.14,12.18,0,0,0,0,0,0,0,0,0,0,0,0,0,0,0,0,
122,18.54,17.71,4.98,1.388,28.64,8.338,4.884,-2.142,11.8,14.18,8.599,16.65,9.072,14.89,11.94,2.179,0,0,0,0,0,0,0,0,0,0,0,0,0,0,0,0,
123,12.13,9.9,-14.56,-12.05,7.243,-10.86,-7.765,-12.37,9.615,9.392,7.546,12.1,6.166,11.47,6.827,2.469,0,0,0,0,0,0,0,0,0,0,0,0,0,0,0,0,
124,4.928,7.83,-28.78,-17.93,2.648,-28.07,-12.89,-10.54,5.562,8.401,3.515,9.415,8.543,10.01,6.383,2.984,0,0,0,0,0,0,0,0,0,0,0,0,0,0,0,0,
125,2.728,11.04,-14.14,-7.925,0.4908,-22.36,-11.03,-2.779,8.268,6.208,1.414,8.992,7.938,3.964,6.876,-2.542,0,0,0,0,0,0,0,0,0,0,0,0,0,0,0,0,
126,3.211,8.866,1.49,4.629,4.223,-3.948,-6.228,0.2929,6.026,-2.501,3.497,6.275,4.545,-1.281,5.028,-1.98,0,0,0,0,0,0,0,0,0,0,0,0,0,0,0,0,
127,4.177,4.21,2.829,8.842,21.87,11.09,-0.7914,-2.598,4.46,-10.35,6.681,2.19,2.136,-6.282,1.153,-3.83,0,0,0,0,0,0,0,0,0,0,0,0,0,0,0,0,
128,8.236,3.961,3.309,3.835,24.73,21.73,6.684,-9.239,11.4,-11.88,4.23,1.216,1.444,-9.062,0.436,-5.506,0,0,0,0,0,0,0,0,0,0,0,0,0,0,0,0,
129,10.51,6.305,-4.846,-5.168,16.89,16.34,6.863,-10.78,12.88,-10.17,-0.0452,2.687,4.717,-3.675,5.432,4.816,0,0,0,0,0,0,0,0,0,0,0,0,0,0,0,0,
130,2.169,5.192,-19.73,-10.87,21.21,-3.123,-7.811,-6.244,5.616,-8.278,-1.6,-2.717,3.49,-2.749,3.81,3.148,0,0,0,0,0,0,0,0,0,0,0,0,0,0,0,0,
131,-13.43,0.0068,-21.18,-8.47,13.97,-13.54,-17.05,-6.411,0.5311,-6.121,-8.27,-14.34,-7.626,-9.029,-7.986,-13.19,0,0,0,0,0,0,0,0,0,0,0,0,0,0,0,0,
132,-22.35,-3.06,-14.53,0.2365,-8.196,-16.64,-10.09,-13.84,-5.061,-4.38,-15.92,-15.73,-11.18,-7.054,-13.17,-13.42,0,0,0,0,0,0,0,0,0,0,0,0,0,0,0,0,
133,-18.54,-6.378,-11.49,2.712,-14.01,-16.79,-6.62,-19.81,-14.18,-6.001,-12.04,-7.459,-6.439,-3.509,-9.387,-6.543,0,0,0,0,0,0,0,0,0,0,0,0,0,0,0,0,
134,-10.56,-12.99,-5.668,-2.713,-4.707,-4.984,-10.22,-16.48,-14.08,-6.456,-5.399,-6.101,-7.72,-4.855,-8.629,-8.688,0,0,0,0,0,0,0,0,0,0,0,0,0,0,0,0,
135,-5.544,-10.57,4.524,-0.2836,8.597,3.151,-10.54,-10.41,-1.781,0.8058,-6.866,-9.29,-4.007,2.217,-6.536,-6.033,0,0,0,0,0,0,0,0,0,0,0,0,0,0,0,0,
136,-0.4021,0.2207,5.831,4.315,17.58,-0.473,-10.8,-11.3,6.037,6.296,-9.512,-5.692,6.286,11.56,2.04,2.503,0,0,0,0,0,0,0,0,0,0,0,0,0,0,0,0,
137,5.867,2.795,-4.543,-3.452,11.17,-0.0685,-11.98,-10.35,3.419,1.872,-8.114,1.136,7.286,9.653,3.986,7.207,0,0,0,0,0,0,0,0,0,0,0,0,0,0,0,0,
138,8.011,0.9551,-8.916,-8.366,5.879,-1.369,-9.938,-5.636,0.4551,-3.315,-4.62,4.574,3.429,2.898,-1.982,3.226,0,0,0,0,0,0,0,0,0,0,0,0,0,0,0,0,
139,5.721,4.854,-7.437,-1.325,4.601,-6.19,2.305,-6.57,-0.2031,-2.834,2.023,6.351,2.489,-2.487,2.286,-2.106,0,0,0,0,0,0,0,0,0,0,0,0,0,0,0,0,
140,3.43,9.635,-15.12,4.169,-9.417,-1.841,23.13,-3.253,-0.3104,0.7426,9.28,6.398,5.442,-3.933,11.36,8.195,0,0,0,0,0,0,0,0,0,0,0,0,0,0,0,0,
141,-0.2057,10.49,-15.78,7.775,-11.02,-1.635,23.36,4.353,2.845,0.7624,7.339,-0.6818,6.739,-2.84,4.212,11.74,0,0,0,0,0,0,0,0,0,0,0,0,0,0,0,0,
142,-6.815,2.442,0.9314,10.61,9.489,-9.399,-2.369,-1.923,5.505,-8.008,-3.409,-11.46,-5.634,-8.67,-8.655,-11.63,0,0,0,0,0,0,0,0,0,0,0,0,0,0,0,0,
143,-11.48,-13.24,5.682,4.112,10.09,-7.984,-17.26,-13.68,1.889,-14.03,-11.41,-16.02,-17.07,-14.48,-10.99,-20.12,0,0,0,0,0,0,0,0,0,0,0,0,0,0,0,0,
144,-14.64,-19.31,-9.183,-4.163,-10.4,-7.122,-14.58,-12.57,-3.581,-7.062,-14.86,-16.86,-11.74,-6.684,-11.51,-6.452,0,0,0,0,0,0,0,0,0,0,0,0,0,0,0,0,
145,-21.74,-12.37,-18.06,-3.695,-15.45,-15.93,-13.29,-2.256,-8.009,0.479,-16.34,-20.67,-6.657,3.374,-12.3,-9.189,0,0,0,0,0,0,0,0,0,0,0,0,0,0,0,0,
146,-29.15,-7.867,-13.67,-1.317,-8.837,-18.97,-13.3,-2.092,-13.52,0.8794,-13.25,-22.65,-6.707,3.486,-9.402,-14.4,0,0,0,0,0,0,0,0,0,0,0,0,0,0,0,0,
147,-28.68,-8.519,-7.068,-1.248,-7.304,-12.55,-12.78,-23.03,-12.85,0.2097,-8.542,-16.87,-1.752,1.747,-9.736,-6.096,0,0,0,0,0,0,0,0,0,0,0,0,0,0,0,0,
148,-17.71,-7.899,-5.74,1.761,0.2113,-4.988,-11.76,-35.52,-3.81,-1.299,-5.102,-5.403,3.239,2.565,-9.098,-3.987,0,0,0,0,0,0,0,0,0,0,0,0,0,0,0,0,
149,-1.927,-4.556,-9.775,6.958,10.11,0.7978,-7.676,-14.18,0.0358,-2.35,-1.66,4.938,4.196,1.786,-0.3093,-2.947,0,0,0,0,0,0,0,0,0,0,0,0,0,0,0,0,
150,8.858,3.885,-9.504,8.47,2.149,6.881,1.09,9.879,-0.5703,1.291,-1.564,9.211,4.175,1.313,5.261,0.8194,0,0,0,0,0,0,0,0,0,0,0,0,0,0,0,0,
151,12.62,15.75,0.7907,7.045,-8.034,11.22,19.75,11.69,3.234,4.839,-5.734,8.612,4.957,1.636,0.3512,-4.919,0,0,0,0,0,0,0,0,0,0,0,0,0,0,0,0,
152,10.68,21.61,10.56,9.42,-0.9988,3.028,31.35,5.324,2.148,4.103,-8.18,6.268,5.998,-0.225,-3.855,-5.017,0,0,0,0,0,0,0,0,0,0,0,0,0,0,0,0,
153,3.219,18.28,13.15,16.13,6.536,-8.334,13.42,1.891,-3.009,1.827,-2.599,5.928,6.732,1.035,2.923,8.584,0,0,0,0,0,0,0,0,0,0,0,0,0,0,0,0,
154,-0.553,12.79,13.16,18.05,7.432,-1.697,-6.455,2.567,-0.0673,-0.1416,7.588,8.118,8.446,6.672,12.26,13.32,0,0,0,0,0,0,0,0,0,0,0,0,0,0,0,0,
155,1.923,9.686,9.384,10.71,9.564,8.444,1.365,0.082,3.617,-0.4565,7.763,4.265,4.762,6.324,7.789,2.95,0,0,0,0,0,0,0,0,0,0,0,0,0,0,0,0,
156,-0.4575,4.971,3.947,3.343,9.118,4.588,9.417,-7.269,3.285,0.7748,-2.761,-6.901,-8.245,-0.8805,-5.818,-8.07,0,0,0,0,0,0,0,0,0,0,0,0,0,0,0,0,
157,-6.474,-3.846,2.081,3.208,5.072,-1.388,-5.713,-1.954,1.654,0.6121,-8.77,-13.26,-18.56,-5.931,-11.01,-12.44,0,0,0,0,0,0,0,0,0,0,0,0,0,0,0,0,
158,-11.25,-9.818,-4.992,4.28,-0.9895,-8.14,-17.56,10.01,-6.366,0.5492,-8.719,-12.78,-17.89,-4.984,-9.468,-9.465,0,0,0,0,0,0,0,0,0,0,0,0,0,0,0,0,
159,-20.11,-8.256,-13.42,1.739,-6.213,-18.26,-11.8,5.655,-11.42,2.603,-11.43,-14.92,-12.68,-1.065,-12.38,-5.773,0,0,0,0,0,0,0,0,0,0,0,0,0,0,0,0,
160,-29.37,-7.966,-8.085,-1.944,-6.457,-19.46,-12.55,-3.559,-8.972,1.995,-17.65,-21.09,-12.26,-2.561,-17.8,-12.75,0,0,0,0,0,0,0,0,0,0,0,0,0,0,0,0,
161,-30.93,-13.11,-1.49,-5.982,-6.667,-15.62,-15.73,-5.205,-12.59,-1.311,-18.88,-20.59,-10.19,-5.636,-16.53,-18.02,0,0,0,0,0,0,0,0,0,0,0,0,0,0,0,0,
162,-21.11,-8.832,-1.307,-6.759,-1.469,-14.25,0.696,-10.06,-8.486,1.113,-8.359,-4.419,7.862,5.128,-4.431,-0.5304,0,0,0,0,0,0,0,0,0,0,0,0,0,0,0,0,
163,0.6544,9.464,4.63,0.4891,11.21,-4.088,11.33,-11.76,12.41,9.227,2.941,13.82,25.54,19.16,7.356,15.97,0,0,0,0,0,0,0,0,0,0,0,0,0,0,0,0,
164,15.67,21.37,5.32,7.16,6.88,9.268,0.6161,-3.866,16.95,13.2,1.067,12.06,19.32,15.8,2.813,2.148,0,0,0,0,0,0,0,0,0,0,0,0,0,0,0,0,
165,8.57,18.24,-5.147,2.647,-12.47,5.493,-3.371,-1.197,0.329,9.898,-5.973,0.3604,5.879,6.431,-4.75,-11.33,0,0,0,0,0,0,0,0,0,0,0,0,0,0,0,0,
166,-1.444,11.92,-8.184,-5.509,-14.04,-5.253,-3.534,-1.135,-6.29,3.616,-3.003,1.764,5.284,4.792,6.222,1.274,0,0,0,0,0,0,0,0,0,0,0,0,0,0,0,0,
167,0.5016,5.966,-9.666,-5.615,-0.9088,-2.523,-11.34,-0.0625,-1.71,-2.994,8.113,8.524,7.817,2.506,16.49,8.035,0,0,0,0,0,0,0,0,0,0,0,0,0,0,0,0,
168,3.517,0.8032,-16.49,-0.3839,2.21,6.104,-5.344,-10.17,0.7148,-5.708,12.09,6.727,5.228,-1.545,6.94,-3.395,0,0,0,0,0,0,0,0,0,0,0,0,0,0,0,0,
169,2.711,3.247,-6.034,3.756,0.2235,9.955,11.73,-11.51,3.695,-0.4186,5.028,3.495,3.651,-1.264,-0.3544,-6.036,0,0,0,0,0,0,0,0,0,0,0,0,0,0,0,0,
170,1.237,8.541,14.3,5.803,5.465,8.999,17.44,7.318,8.245,6.089,0.5946,2.113,2.477,-0.9212,2.993,-2.647,0,0,0,0,0,0,0,0,0,0,0,0,0,0,0,0,
171,-2.085,6.501,11.01,5.709,7.156,-0.0548,10.54,10.51,10.4,5.308,2.906,-2.127,-1.816,-1.034,-0.2583,-6.954,0,0,0,0,0,0,0,0,0,0,0,0,0,0,0,0,
172,-7.228,2.092,-3.074,6.425,-0.1589,-7.922,-0.0664,-0.8697,9.123,1.042,2.127,-5.807,1.206,2.187,-4.784,-4.464,0,0,0,0,0,0,0,0,0,0,0,0,0,0,0,0,
173,-12.71,3.257,2.815,8.917,-2.8,-2.535,0.5301,0.6725,3.793,-0.7143,-3.362,-7.165,10.51,1.974,-1.025,0.6556,0,0,0,0,0,0,0,0,0,0,0,0,0,0,0,0,
174,-15.2,3.437,13.69,7.423,0.7159,6.255,8.223,5.835,-5.351,-1.062,-8.41,-9.063,7.841,-2.806,-1.326,-9.234,0,0,0,0,0,0,0,0,0,0,0,0,0,0,0,0,
175,-11.67,-6.501,5.816,2.489,-2.662,9.739,-2.745,7.908,-14.03,-1.826,-12.65,-10.2,-0.9573,-2.711,-10.29,-16.12,0,0,0,0,0,0,0,0,0,0,0,0,0,0,0,0,
176,-8.176,-20.36,-7.751,-2.252,-17.21,3.704,-20.38,0.4285,-16.08,-2.536,-16.13,-10.57,-2.979,-1.612,-16.05,-9.333,0,0,0,0,0,0,0,0,0,0,0,0,0,0,0,0,
177,-11.09,-24.57,-12.06,-8.164,-30.25,-13.38,-18.59,-19.69,-12.51,-2.877,-14.59,-10.37,-3.946,-3.882,-11.95,-5.109,0,0,0,0,0,0,0,0,0,0,0,0,0,0,0,0,
178,-13.32,-15.94,-13.23,-8.668,-27.11,-17.45,-10.31,-17.52,-9.213,-3.276,-8.126,-4.224,1.508,0.3037,-3.095,-0.7669,0,0,0,0,0,0,0,0,0,0,0,0,0,0,0,0,
179,-4.253,0.6636,-8.091,1.61,-19.13,0.0357,-1.964,4.29,-4.332,-2.46,-1.108,8.908,16.83,8.107,4.382,4.188,0,0,0,0,0,0,0,0,0,0,0,0,0,0,0,0,
180,12.06,19.67,8.019,12.43,-19.3,10.05,16.41,8.289,4.348,1.916,8.52,20.77,25.7,10.62,12.31,-0.3776,0,0,0,0,0,0,0,0,0,0,0,0,0,0,0,0,
181,20.58,31.32,12.69,14.99,-13.38,6.463,23.2,3.404,10.39,7.208,16.67,22.91,23.48,13.71,18.71,-0.8486,0,0,0,0,0,0,0,0,0,0,0,0,0,0,0,0,
182,14.33,25.81,-3.024,6.652,-4.871,0.367,0.173,-6.999,10.2,8.269,11.74,13.57,15.58,14.37,13.92,2.773,0,0,0,0,0,0,0,0,0,0,0,0,0,0,0,0,
183,-0.8857,8.048,-13.78,-10.15,-13.56,-11.59,-21.18,-22.79,7.289,5.201,2.542,0.5376,5.391,6.027,4.674,-4.827,0,0,0,0,0,0,0,0,0,0,0,0,0,0,0,0,
184,-13.4,-3.557,-12.12,-16.5,-24.73,-17.33,-11.82,-9.139,6.367,1.179,5.218,-3.072,3.561,1.484,7.418,-4.915,0,0,0,0,0,0,0,0,0,0,0,0,0,0,0,0,
185,-11.99,-0.4006,-3.575,-0.5812,-18.63,-3.906,9.803,15.2,8.627,-1.469,12.83,5.216,12.77,4.448,14.96,7.57,0,0,0,0,0,0,0,0,0,0,0,0,0,0,0,0,
186,0.4544,8.562,16.27,18.7,-7.239,14.52,19.1,9.367,7.984,-1.978,11.71,11.7,19.91,4.482,11.81,6.544,0,0,0,0,0,0,0,0,0,0,0,0,0,0,0,0,
187,5.942,14.87,26.46,22.24,-5.763,23.21,17.93,0.4724,3.077,-1.181,2.312,4.94,18.15,4.183,2.545,-0.1485,0,0,0,0,0,0,0,0,0,0,0,0,0,0,0,0,
188,-2.556,15.55,11.79,12.84,-10.19,14.86,12.75,3.998,1.348,0.7829,-7.363,-9.459,11.33,3.968,-5.022,0.1129,0,0,0,0,0,0,0,0,0,0,0,0,0,0,0,0,
189,-12.4,8.074,-1.485,0.4446,-13.52,-4.904,2.833,1.687,-1.022,2.136,-11.93,-18.02,2.242,-2.503,-10.46,-8.646,0,0,0,0,0,0,0,0,0,0,0,0,0,0,0,0,
190,-14.34,-1.906,-5.362,-4.497,-16.81,-11.14,-6.167,2.288,-9.367,-0.3065,-9.479,-14.56,-2.603,-6.37,-9.061,-18.07,0,0,0,0,0,0,0,0,0,0,0,0,0,0,0,0,
191,-9.552,-4.3,-7.165,2.177,-13.8,2.738,-1.712,4.197,-10.26,-3.954,-2.282,-2.33,3.968,-1.807,0.3012,-12.18,0,0,0,0,0,0,0,0,0,0,0,0,0,0,0,0,
192,1.281,1.595,3.205,9.351,-5.956,18.15,12.18,-6.682,0.3006,-5.747,1.698,11.05,12.59,1.377,7.908,-7.694,0,0,0,0,0,0,0,0,0,0,0,0,0,0,0,0,
193,11.82,9.284,12.05,7.975,-14.1,20.24,14.83,-9.916,4.289,-6.563,2.495,17.54,13.16,1.774,7.075,-10.41,0,0,0,0,0,0,0,0,0,0,0,0,0,0,0,0,
194,12.73,13.84,3.169,1.735,-26.65,7.241,7.94,2.719,0.375,-2.074,7.562,16.28,11.92,5.035,2.635,-6.592,0,0,0,0,0,0,0,0,0,0,0,0,0,0,0,0,
195,10.77,16.2,-2.712,-3.816,-14.03,-0.6753,8.482,3.765,5.58,7.031,11.49,14.68,12.52,8.403,2.498,0.3949,0,0,0,0,0,0,0,0,0,0,0,0,0,0,0,0,
196,12.97,17.18,3.817,-2.119,3.554,7.945,8.453,-4.814,14.16,6.247,8.273,13.1,11,6.129,4.769,1.676,0,0,0,0,0,0,0,0,0,0,0,0,0,0,0,0,
197,9.164,11.38,8.896,5.146,-0.2478,9.043,0.1416,-2.489,8.278,-5.076,3.753,6.296,5.282,-1.907,2.712,-1.748,0,0,0,0,0,0,0,0,0,0,0,0,0,0,0,0,
198,-0.8967,1.387,7.033,4.91,-10.05,-0.7666,-2.783,-5.784,-1.882,-10.65,-0.7111,-0.5267,-1.515,-7.009,-0.8757,-6.992,0,0,0,0,0,0,0,0,0,0,0,0,0,0,0,0,
199,-6.488,-1.495,-2.3,-0.7272,-15.59,-3.904,-2.72,-19.86,-4.319,-8.807,-6.032,-4.12,-2.421,-3.867,-2.422,-10.52,0,0,0,0,0,0,0,0,0,0,0,0,0,0,0,0,
200,-13.87,-0.3649,-16.74,-5.743,-25.13,-14.64,-13.42,-16.2,-13.72,-6.14,-10.33,-11.16,-1.297,-1.799,-6.405,-10.07,0,0,0,0,0,0,0,0,0,0,0,0,0,0,0,0,
201,-28.65,-4.946,-26.21,-19.64,-33.66,-34.02,-23.9,-3.428,-26.58,-2.03,-13.53,-18.59,-3.115,-3.791,-9.665,-3.972,0,0,0,0,0,0,0,0,0,0,0,0,0,0,0,0,
202,-36.25,-10.67,-21.19,-29.52,-29.09,-31.82,-19.84,-6.078,-18.31,-1.622,-10.07,-17.48,-0.8872,-1.596,-3.855,3.759,0,0,0,0,0,0,0,0,0,0,0,0,0,0,0,0,
203,-27.17,-11.31,-7.065,-13.83,-14.17,-10.53,-12.12,-10.4,1.125,-8.011,0.5561,-11.1,1.153,-0.4778,1.869,-1.033,0,0,0,0,0,0,0,0,0,0,0,0,0,0,0,0,
204,-11.55,-10.34,2.301,4.566,-1.575,5.457,-8.368,-7.186,8.084,-11.88,5.815,-5.771,-2.667,-6.444,-1.449,-13.81,0,0,0,0,0,0,0,0,0,0,0,0,0,0,0,0,
205,0.085,-7.728,8.38,3.822,2.607,11.93,3.4,-2.386,9.28,-8.819,6.928,2.56,1.545,-6.886,4.29,-9.467,0,0,0,0,0,0,0,0,0,0,0,0,0,0,0,0,
206,11.18,4.381,10.04,0.8569,1.062,14.91,19.63,4.429,13.48,-1.487,14.15,17.23,18.67,3.011,22.91,9.054,0,0,0,0,0,0,0,0,0,0,0,0,0,0,0,0,
207,22.69,24.49,-1.382,4.053,-2.384,15.99,22,4.815,13.42,6.794,15.75,25.61,32.26,10.76,23.22,16.24,0,0,0,0,0,0,0,0,0,0,0,0,0,0,0,0,
208,21.35,35.96,-6.624,6.661,-6.896,9.279,13.97,1.178,6.429,9.21,5.71,19.26,29.96,11.07,7.082,10.98,0,0,0,0,0,0,0,0,0,0,0,0,0,0,0,0,
209,7.678,30.25,0.0892,4.917,-11.97,-1.179,8.2,7.628,-1.103,4.135,5.027,12.84,19.35,7.068,6.095,5.34,0,0,0,0,0,0,0,0,0,0,0,0,0,0,0,0,
210,2.021,17.38,-6.308,-2.752,-13.14,3.902,4.704,12.06,0.7379,-2.062,13.46,13.91,12.34,0.5439,9.283,-2.3,0,0,0,0,0,0,0,0,0,0,0,0,0,0,0,0,
211,8.456,7.608,-6.656,-1.546,-6.821,19.49,3.322,3.381,12.44,-4.8,12.35,12.98,6.211,-5.407,0.9755,-11.57,0,0,0,0,0,0,0,0,0,0,0,0,0,0,0,0,
212,13.54,4.386,13.14,9.874,2.047,18.71,7.161,-4.59,15.17,-4.161,9.614,10.53,1.461,-8.672,0.7065,-11.84,0,0,0,0,0,0,0,0,0,0,0,0,0,0,0,0,
213,11.72,8.045,7.186,5.779,2.45,5.392,15.07,-2.872,1.591,-3.432,9.852,9.921,5.222,-7.515,7.377,-2.592,0,0,0,0,0,0,0,0,0,0,0,0,0,0,0,0,
214,6.304,13.28,-16.71,-3.634,-8.166,3.697,18.32,7.277,-7.888,-2.606,3.471,7.268,9.029,-0.393,4.241,0.3821,0,0,0,0,0,0,0,0,0,0,0,0,0,0,0,0,
215,-0.2611,13.81,-13.01,2.086,-18.51,4.428,8.485,14.53,-6.42,1.54,-1.496,1.713,3.79,4.303,-3.185,-11.14,0,0,0,0,0,0,0,0,0,0,0,0,0,0,0,0,
216,-12.03,8.003,-10.33,-0.6401,-23.19,-13.26,-5.96,1.489,-7.74,5.692,-3.639,-6.906,-4.223,1.633,-8.359,-20.14,0,0,0,0,0,0,0,0,0,0,0,0,0,0,0,0,
217,-28.26,-1.964,-26.51,-15.21,-23.18,-28.97,-13.47,-17.37,-10.29,5.179,-8.491,-13.82,-6.823,1.358,-8.747,-12.21,0,0,0,0,0,0,0,0,0,0,0,0,0,0,0,0,
218,-33.49,-10.75,-25.83,-16.68,-11.19,-21.41,-15.42,-10.31,-7.327,0.1511,-7.21,-11.8,-4.996,1.7,-5.11,-4.54,0,0,0,0,0,0,0,0,0,0,0,0,0,0,0,0,
219,-21.83,-13.43,-11.14,-8.98,5.523,-7.891,-9.121,8.027,-3.095,-6.356,-4.723,-5.009,-3.691,-4.755,-4.588,-9.339,0,0,0,0,0,0,0,0,0,0,0,0,0,0,0,0,
220,-5.989,-6.997,-0.7661,0.0542,6.768,1.305,3.105,0.4484,0.8045,-6.554,-6.74,2.467,2.502,-5.437,-0.7444,-8.604,0,0,0,0,0,0,0,0,0,0,0,0,0,0,0,0,
221,4.146,7.235,4.454,8.215,-0.6122,4.084,5.427,-17.67,1.269,-0.5137,-4.531,7.628,14.19,1.94,6.137,1.789,0,0,0,0,0,0,0,0,0,0,0,0,0,0,0,0,
222,4.46,19.64,-2.681,5.136,-1.546,-6.883,3.746,-7.17,-2.712,0.0992,-4.45,4.813,18.26,2.395,3.001,5.682,0,0,0,0,0,0,0,0,0,0,0,0,0,0,0,0,
223,0.1707,23.39,-7.435,-1.118,-2.656,-8.413,11.81,14.57,-2.326,-3.404,-5.584,4.701,18.04,1.051,2.294,3.065,0,0,0,0,0,0,0,0,0,0,0,0,0,0,0,0,
224,3.536,22.47,0.6802,-1.097,-4.725,7.935,14.27,8.963,0.3949,-1.317,2.257,13.28,20.46,4.032,8.582,-1.18,0,0,0,0,0,0,0,0,0,0,0,0,0,0,0,0,
225,7.786,20.11,-0.972,-1.911,2.082,8.642,5.51,-3.81,0.332,2.129,2.544,12.35,15.33,0.3637,-0.8874,-9.465,0,0,0,0,0,0,0,0,0,0,0,0,0,0,0,0,
226,1.422,15.61,-8.6,0.3177,12.88,1.436,4.442,4.143,4.446,2.4,-8.632,1.395,4.112,-5.49,-15.53,-17.81,0,0,0,0,0,0,0,0,0,0,0,0,0,0,0,0,
227,-4.895,10,-7.255,7.929,18.65,10.44,10.53,5.453,9.307,3.216,-8.965,-1.647,-1.834,-4.095,-11.19,-21.24,0,0,0,0,0,0,0,0,0,0,0,0,0,0,0,0,
228,-4.155,5.29,-7.334,8.477,19.49,11.11,10.79,-7.149,7.117,2.66,-0.3211,0.9166,-1.187,-3.74,-1.719,-16.06,0,0,0,0,0,0,0,0,0,0,0,0,0,0,0,0,
229,-2.844,4.442,-4.25,1.914,14.93,1.145,4.003,1.106,4.544,-1.045,3.725,2.667,3.263,-4.723,1.306,-3.084,0,0,0,0,0,0,0,0,0,0,0,0,0,0,0,0,
230,-0.9352,6.701,7.122,-0.5524,6.931,6.89,-3.442,14.64,5.133,-3.034,5.375,6.131,5.997,-0.9089,4.707,1.498,0,0,0,0,0,0,0,0,0,0,0,0,0,0,0,0,
231,0.3086,4.624,8.624,1.515,3.257,13.85,1.786,0.435,6.415,-3.035,5.996,6.523,5.204,-0.45,6.382,-5.911,0,0,0,0,0,0,0,0,0,0,0,0,0,0,0,0,
232,-0.4397,-0.279,2.511,3.045,8.664,11.5,17.78,-11.46,10.69,-4.291,6.149,5.78,6.717,-4.509,9.058,-3.573,0,0,0,0,0,0,0,0,0,0,0,0,0,0,0,0,
233,6.045,2.067,7.239,6.489,20.79,17.73,20.67,-2.38,16.42,-7.488,7.874,11.12,9.031,-4.952,13.13,4.585,0,0,0,0,0,0,0,0,0,0,0,0,0,0,0,0,
234,14.85,5.169,11.23,9.179,24.39,20.42,7.146,-2.807,16.64,-11.66,3.323,11.06,4.186,-6.948,2.549,-6.526,0,0,0,0,0,0,0,0,0,0,0,0,0,0,0,0,
235,9.13,-1.254,-3.141,1.589,8.342,5.61,-2.315,-10.62,8.661,-9.392,-6.413,2.446,-0.4679,-8.912,-10.99,-16.03,0,0,0,0,0,0,0,0,0,0,0,0,0,0,0,0,
236,-1.75,-2.182,-13.06,-4.749,-7.686,-4.759,0.4317,-2.256,-2.911,3.73,-5.728,2.495,9.419,1.546,-2.479,2.083,0,0,0,0,0,0,0,0,0,0,0,0,0,0,0,0,
237,-1.747,11.42,-1.543,2.172,-8.22,-4.97,6.548,8.909,-9.595,15.05,0.3744,7.179,19.35,11.82,6.558,10.56,0,0,0,0,0,0,0,0,0,0,0,0,0,0,0,0,
238,-0.4282,18.82,2.727,3.186,-7.251,-5.803,6.319,9.63,-4.904,15.12,-0.6907,4.316,12.16,7.376,-1.121,-7.438,0,0,0,0,0,0,0,0,0,0,0,0,0,0,0,0,
239,-2.35,13.81,-4.751,-5.347,-5.179,1.062,2.143,6.823,7.513,11.2,2.207,4.424,7.46,3.892,-0.9642,-9.553,0,0,0,0,0,0,0,0,0,0,0,0,0,0,0,0,
240,1.655,12.91,-0.9845,-1.854,7.258,10.67,3.526,-3.719,12.93,7.658,8.939,8.113,12.48,6.436,5.176,1.668,0,0,0,0,0,0,0,0,0,0,0,0,0,0,0,0,
241,5.079,14.99,-0.9003,5.824,14.89,7.514,10.89,-15.83,7.208,2.761,4.003,4.571,9.547,1.849,-1.629,-3.418,0,0,0,0,0,0,0,0,0,0,0,0,0,0,0,0,
242,1.617,11.74,-7.934,2.615,10.25,1.8,17.1,-5.987,3.849,-0.4316,-2.125,1.683,5.214,-3.216,-4.621,-4.724,0,0,0,0,0,0,0,0,0,0,0,0,0,0,0,0,
243,-1.328,9.37,1.765,0.1507,8.006,1.024,14.29,12.79,3.788,0.4272,1.302,2.857,7.345,-1.282,4.257,3.255,0,0,0,0,0,0,0,0,0,0,0,0,0,0,0,0,
244,-5.905,8.674,7.13,1.099,9.056,1.117,2.631,9.741,-1.809,2.271,0.5008,-1.308,5.593,-2.077,5.066,-3.117,0,0,0,0,0,0,0,0,0,0,0,0,0,0,0,0,
245,-12.74,3.842,-4.881,-0.0307,5.699,6.498,-2.542,-2.648,-5.102,0.9311,-6.518,-5.285,1.787,-5.631,-3.3,-9.874,0,0,0,0,0,0,0,0,0,0,0,0,0,0,0,0,
246,-9.608,-1.074,2.235,3.877,2.97,9.887,2.961,-1.036,-1.447,-3.676,-6.021,-1.389,2.015,-5.681,-4.978,-2.628,0,0,0,0,0,0,0,0,0,0,0,0,0,0,0,0,
247,0.244,-1.831,17.69,8.456,2.925,3.722,4.962,7.307,2.532,-5.473,1.125,3.875,4.195,-4.428,1.948,2.676,0,0,0,0,0,0,0,0,0,0,0,0,0,0,0,0,
248,5.527,1.078,8.813,6.234,4.421,3.486,7.63,10.6,9.183,-0.4434,2.51,7.167,7.843,-0.7377,5.895,6.278,0,0,0,0,0,0,0,0,0,0,0,0,0,0,0,0,
249,10.5,8.204,10.11,7.838,11.81,14.46,16.97,9.81,12.54,5.107,-2.73,8.764,11.04,3.824,2.066,11.36,0,0,0,0,0,0,0,0,0,0,0,0,0,0,0,0,
250,13.92,13.2,28.77,12.47,14.98,20.98,13.71,9.843,2.939,3.66,-4.975,6.419,9.654,0.0943,-0.909,4.428,0,0,0,0,0,0,0,0,0,0,0,0,0,0,0,0,
251,9.256,11.22,16.41,8.921,5.235,14.68,2.974,9.659,-2.559,-0.5682,-3.3,5.552,6.681,-5.729,-0.5787,-5.606,0,0,0,0,0,0,0,0,0,0,0,0,0,0,0,0,
252,5.212,11.15,-4.881,2.442,-2.41,2.047,9.478,0.8361,2.222,-0.3812,-3.962,8.009,8.335,-2.378,-2.574,-3.963,0,0,0,0,0,0,0,0,0,0,0,0,0,0,0,0,
253,3.371,13.24,1.544,-2.241,-3.869,-6.539,14.31,-12.55,-1.479,1.952,-4.914,4.736,9.918,1.735,-2.654,-2.936,0,0,0,0,0,0,0,0,0,0,0,0,0,0,0,0,
254,-2.299,9.348,-0.0702,-3.715,-2.008,-7.852,0.4683,-12.11,-4.776,3.253,-0.7871,-0.5919,7.526,1.684,0.2342,-4.532,0,0,0,0,0,0,0,0,0,0,0,0,0,0,0,0,
255,-1.124,7.591,-9.122,2.818,8.841,-2.023,-2.578,2.557,3.912,3.166,1.543,-0.1804,7.112,2.782,-4.444,-2.936,0,0,0,0,0,0,0,0,0,0,0,0,0,0,0,0,
256,7.349,12.14,7.857,7.56,12.12,9.836,11.65,9.632,4.569,-0.0388,-4.692,0.0036,5.505,-0.3289,-10.96,-9.601,0,0,0,0,0,0,0,0,0,0,0,0,0,0,0,0,
257,7.572,12.18,23.39,4.829,2.002,15.44,13.41,0.63,-2.378,-3.213,-6.606,1.126,2.351,-5.496,-5.138,-15.25,0,0,0,0,0,0,0,0,0,0,0,0,0,0,0,0,
258,1.651,7.153,13.96,2.498,1.371,5.542,0.8019,-8.274,-2.403,-4.303,0.2293,3.856,3.814,-3.077,1.393,-6.022,0,0,0,0,0,0,0,0,0,0,0,0,0,0,0,0,
259,-5.856,0.7002,-0.9125,-4.057,4.551,-9.416,-6.535,-5.846,-4.88,-6.865,-1.879,-3.523,-0.0598,-2.08,-3.895,-1.245,0,0,0,0,0,0,0,0,0,0,0,0,0,0,0,0,
260,-16.24,-6.111,-6.373,-10.36,-0.4516,-14.63,-8.789,-1.28,-7.449,-7.479,-10.02,-14.04,-7.461,-6.52,-8.166,-4.107,0,0,0,0,0,0,0,0,0,0,0,0,0,0,0,0,
261,-17.45,-6.366,-1.095,-2.301,-0.6063,-7.48,-10.47,-2.592,-2.289,-4.685,-8.984,-14.06,-5.201,-6.035,-6.529,-1.585,0,0,0,0,0,0,0,0,0,0,0,0,0,0,0,0,
262,-8.29,-3.805,3.874,4.014,5.051,0.2722,-3.007,-2.721,-3.195,-5.031,-7.556,-10.94,-4.515,-4.752,-7.123,-5.046,0,0,0,0,0,0,0,0,0,0,0,0,0,0,0,0,
263,-2.058,-7.616,4.254,-3.253,6.132,-0.0794,5.862,0.5395,-6.162,-6.096,-11,-7.118,-8.375,-7.182,-5.806,-12.81,0,0,0,0,0,0,0,0,0,0,0,0,0,0,0,0,
264,4.248,-9.772,4.598,-4.861,-3.519,1.423,0.8663,-2.732,1.982,-4.568,-9.365,1.729,-3.221,-4.769,-1.583,-6.715,0,0,0,0,0,0,0,0,0,0,0,0,0,0,0,0,
265,13.12,-3.554,-1.682,1.729,-13.46,7.651,-2.046,-7.038,7.233,-5.462,-3.911,6.79,4.559,-0.4361,-3.889,2.965,0,0,0,0,0,0,0,0,0,0,0,0,0,0,0,0,
266,13.26,1.683,-4.809,0.2741,-2.025,4.387,3.373,0.4679,2.645,-7.971,-3.523,3.151,4.284,-3.551,-10.82,-2.965,0,0,0,0,0,0,0,0,0,0,0,0,0,0,0,0,
267,4.767,-0.3357,3.499,-5.956,14.28,-5.688,-4.945,6.736,-0.6762,-8.627,-7.702,-2.467,-1.072,-8.267,-13.12,-15.47,0,0,0,0,0,0,0,0,0,0,0,0,0,0,0,0,
268,-3.489,-3.278,2.009,-4.859,11.52,-9.36,-15.41,1.499,-1.519,-8.002,-7.008,-5.949,-4.197,-6.008,-10.84,-12.43,0,0,0,0,0,0,0,0,0,0,0,0,0,0,0,0,
269,-9.904,-0.8766,-6.306,-0.7592,9.145,-8.967,-7.1,-2.391,-1.384,-5.672,-2.07,-8.38,-3.135,-1.336,-11.45,-3.15,0,0,0,0,0,0,0,0,0,0,0,0,0,0,0,0,
270,-13.04,2.494,-2.213,-0.0547,16.44,-4.409,1.925,-5.468,0.1633,-2.766,-4.276,-11.69,-4.105,-1.189,-15.77,-14.03,0,0,0,0,0,0,0,0,0,0,0,0,0,0,0,0,
271,-9.754,1.865,4.943,3.632,18.2,4.589,3.787,-9.669,1.088,-0.6109,-9.882,-13.93,-5.958,-2.756,-15.13,-24.45,0,0,0,0,0,0,0,0,0,0,0,0,0,0,0,0,
272,-3.501,-0.2725,6.444,7.667,12.16,4.307,8.761,-1.211,4.122,0.6073,-9.63,-11.92,-3.75,-1.651,-9.593,-7.974,0,0,0,0,0,0,0,0,0,0,0,0,0,0,0,0,
273,-1.021,-3.55,8.088,2.555,3.659,-0.087,10.84,9.362,5,-2.662,-6.646,-8.98,-3.449,-2.292,-7.716,2.741,0,0,0,0,0,0,0,0,0,0,0,0,0,0,0,0,
274,-3.419,-8.255,12.44,-0.0347,0.3352,5.135,6.581,4.07,-4.177,-9.777,-2.902,-8.633,-8.549,-8.215,-6.755,-10.6,0,0,0,0,0,0,0,0,0,0,0,0,0,0,0,0,
275,-5.839,-10.74,13.72,7.733,2.087,3.41,0.2578,-3.797,-9.16,-13.18,-1.149,-8.762,-13.61,-11.88,-3.851,-17.8,0,0,0,0,0,0,0,0,0,0,0,0,0,0,0,0,
276,-6.388,-11.33,7.234,8.845,0.0897,-7.931,-5.431,-4.177,-0.3656,-10.68,-6.957,-10.71,-14.53,-10.73,-7.667,-14.24,0,0,0,0,0,0,0,0,0,0,0,0,0,0,0,0,
277,-9.099,-11.35,5.278,1.121,-0.2921,-4.787,-2.908,-1.39,2.959,-7.594,-14.65,-15.67,-15.94,-14.29,-14.79,-16.62,0,0,0,0,0,0,0,0,0,0,0,0,0,0,0,0,
278,-11.43,-11.16,13.52,3.002,5.081,6.257,6.238,4.638,-3.008,-7.738,-15.31,-15.76,-22.03,-19.23,-12.62,-19.01,0,0,0,0,0,0,0,0,0,0,0,0,0,0,0,0,
279,-6.042,-15.29,13,12.85,4.697,8.107,9.627,4.992,-3.768,-8.363,-12.18,-9.995,-23.05,-13.51,-8.277,-12.98,0,0,0,0,0,0,0,0,0,0,0,0,0,0,0,0,
280,-0.223,-21.44,-1.786,10.69,-8.996,3.551,2.193,-4.309,-5.915,-5.687,-13.06,-6.65,-14.96,-4.845,-9.352,-4.371,0,0,0,0,0,0,0,0,0,0,0,0,0,0,0,0,
281,-2.825,-20.19,-10.47,-4.881,-27.88,-10.22,-8.95,-9.817,-12.77,-2.999,-13.6,-3.007,-6.245,-2.993,-4.136,-1.46,0,0,0,0,0,0,0,0,0,0,0,0,0,0,0,0,
282,-4.804,-12.27,-5.259,-15.07,-32.1,-23.58,-8.453,-9.25,-11.62,-3.183,-8.563,2.46,2.68,-1.456,4.34,-3.535,0,0,0,0,0,0,0,0,0,0,0,0,0,0,0,0,
283,-2.707,-4.908,-3.252,-13.35,-21.7,-18.16,-0.7698,-5.316,-6.823,-2.323,-7.036,-0.7958,7.298,0.4593,-2.375,-5.019,0,0,0,0,0,0,0,0,0,0,0,0,0,0,0,0,
284,-7.059,-3.418,-9.374,-10.45,-22.66,-12.67,-11.44,1.767,-7.049,-2.277,-9.486,-12.38,-1.997,-3.097,-17.71,-9.524,0,0,0,0,0,0,0,0,0,0,0,0,0,0,0,0,
285,-18.39,-11.55,-11.19,-12.64,-34.5,-23,-29.94,-1.016,-10.49,-8.12,-10.07,-23.06,-15.56,-8.975,-23.97,-17.74,0,0,0,0,0,0,0,0,0,0,0,0,0,0,0,0,
286,-28.74,-21.51,-13.09,-16.23,-34.05,-27.86,-25.15,-12.09,-17.02,-13.22,-17,-29.96,-17.61,-11.14,-22.45,-18.45,0,0,0,0,0,0,0,0,0,0,0,0,0,0,0,0,
287,-32.68,-20.69,-17.15,-13.47,-27.69,-19.99,-10.42,-13.52,-19.79,-10.9,-24.53,-28.87,-8.594,-6.113,-17.76,-9.93,0,0,0,0,0,0,0,0,0,0,0,0,0,0,0,0,
288,-26.21,-11.82,-12.98,-4.225,-28.55,-11.28,-3.795,-6.733,-16.09,-4.499,-19.26,-19.38,0.1358,3.308,-9.304,-1.809,0,0,0,0,0,0,0,0,0,0,0,0,0,0,0,0,
289,-12.54,-2.608,-8.537,0.0952,-23.59,-2.783,6.812,3.52,-16.12,1.75,-14.34,-11.01,2.185,5.761,-3.72,-1.438,0,0,0,0,0,0,0,0,0,0,0,0,0,0,0,0,
290,-1.855,3.574,-5.189,-0.5747,-16.4,0.9366,12.89,14.23,-15.27,2.367,-16.67,-7.885,0.1103,-1.541,-6.559,-8.63,0,0,0,0,0,0,0,0,0,0,0,0,0,0,0,0,
291,0.2149,0.2978,6.483,3.26,-25.73,-4.411,4.559,10.33,-7.141,-4.126,-13.05,-6.253,-3.953,-8.629,-9.921,-13.06,0,0,0,0,0,0,0,0,0,0,0,0,0,0,0,0,
292,-2.854,-8.907,13.97,5.483,-29.79,-5.643,5.33,-2.456,-3.948,-8.79,-6.025,-5.838,-8.032,-12.69,-7.294,-10.62,0,0,0,0,0,0,0,0,0,0,0,0,0,0,0,0,
293,-4.966,-13.47,9.675,0.781,-13.71,3.021,12.22,-2.114,-7.578,-9.186,-8.053,-10.76,-11.58,-15.74,-8.151,-9.615,0,0,0,0,0,0,0,0,0,0,0,0,0,0,0,0,
294,-7.325,-17.06,0.9568,-0.6872,-9.582,7.515,2.851,6.309,-10.1,-9.147,-17.74,-20.06,-15.28,-12.49,-17.17,-11.01,0,0,0,0,0,0,0,0,0,0,0,0,0,0,0,0,
295,-11.31,-18.28,-2.57,5.015,-14.61,3.255,-3.179,6.818,-12.9,-4.971,-24.72,-23.47,-10.73,-3.734,-20.61,-10.39,0,0,0,0,0,0,0,0,0,0,0,0,0,0,0,0,
296,-9.959,-6.659,9.779,11.43,-5.541,4.004,6.047,2.336,-13.61,0.982,-23.5,-16.55,2.207,1.211,-13.74,-6.983,0,0,0,0,0,0,0,0,0,0,0,0,0,0,0,0,
297,-4.543,4.835,19.57,11.59,-7.129,9.543,7.569,0.9585,-10.84,-0.0288,-16.33,-7.597,8.978,1.577,-6.345,-0.7077,0,0,0,0,0,0,0,0,0,0,0,0,0,0,0,0,
298,-3.185,3.509,8.644,5.602,-19.78,2.402,1.716,0.3292,-8.036,-3.44,-5.345,0.2183,9.277,2.273,1.022,4.591,0,0,0,0,0,0,0,0,0,0,0,0,0,0,0,0,
299,-1.124,1.852,-0.4341,2.854,-13.7,-11.09,-2.419,-1.338,0.6527,-3.387,6.316,6.747,8.95,3.886,5.873,5.228,0,0,0,0,0,0,0,0,0,0,0,0,0,0,0,0,
300,0.7831,-1.117,-2.573,-0.7094,-10.17,-13.53,-11.42,-1.732,7.569,-5.436,10.39,2.078,1.635,3.353,-2.61,0.6337,0,0,0,0,0,0,0,0,0,0,0,0,0,0,0,0,
301,-10,-13.36,-13.65,-13.33,-24.32,-16.26,-17.57,-6.802,-4.085,-8.475,3.219,-12.45,-10.72,-0.9178,-15.76,-7.637,0,0,0,0,0,0,0,0,0,0,0,0,0,0,0,0,
302,-23.61,-19.32,-24.26,-15.91,-28.44,-22.81,-15.51,-14.45,-15.63,-5.845,-7.009,-19.32,-13.93,-2.738,-16.76,-8.622,0,0,0,0,0,0,0,0,0,0,0,0,0,0,0,0,
303,-22.3,-14.92,-27,-3.982,-22.6,-16,-12.19,-9.584,-9.18,-3.086,-9.943,-16.86,-7.039,0.3942,-11.84,0.1399,0,0,0,0,0,0,0,0,0,0,0,0,0,0,0,0,
304,-15.42,-13.63,-20.42,-2.261,-22.32,-5.079,-6.23,1.438,-6.04,-5.067,-9.095,-16.36,-4.487,-0.6715,-11.71,1.437,0,0,0,0,0,0,0,0,0,0,0,0,0,0,0,0,
305,-14.4,-13.68,-2.192,-3.653,-22.77,-3.568,-5.883,3.43,-13.02,-6.58,-13.46,-17.17,-8.167,-6.048,-11.82,-5.067,0,0,0,0,0,0,0,0,0,0,0,0,0,0,0,0,
306,-13.55,-12.01,5.412,6.294,-19.92,-3.17,-12.45,0.3011,-14.28,-6.967,-17.56,-15.25,-6.16,-6.799,-9.56,-2.481,0,0,0,0,0,0,0,0,0,0,0,0,0,0,0,0,
307,-10.17,-11.26,0.3468,10.76,-10.95,-4.685,-4.345,-3.195,-11.27,-6.849,-15.62,-13.68,-2.216,-5.59,-10.7,0.9115,0,0,0,0,0,0,0,0,0,0,0,0,0,0,0,0,
308,-7.724,-8.149,9.946,11.92,-1.091,-6.173,10.37,-0.3061,-8.113,-4.617,-13.49,-14.9,-5.846,-8.254,-14.54,-9.595,0,0,0,0,0,0,0,0,0,0,0,0,0,0,0,0,
309,-6.391,-4.884,16.4,19.13,-3.345,3.844,11.5,13,-3.373,-4.493,-11.28,-15.74,-8.456,-10.81,-14.49,-17.93,0,0,0,0,0,0,0,0,0,0,0,0,0,0,0,0,
310,-3.26,-4.072,1.148,15.2,-5.463,15.26,11.1,15.98,0.5557,-5.754,-6.605,-11.66,-3.929,-9.475,-12.07,-11.38,0,0,0,0,0,0,0,0,0,0,0,0,0,0,0,0,
311,2.158,-3.545,-0.192,4.318,1.758,14.88,10.01,3.942,4.397,-4.907,-4.159,-5.396,-0.6205,-7.734,-10.82,-4.711,0,0,0,0,0,0,0,0,0,0,0,0,0,0,0,0,
312,4.822,-5.737,12.26,3.995,1.351,7.991,-0.7208,1.088,3.048,-7.534,-2.075,-1.06,0.2607,-6.786,-6.231,-2.146,0,0,0,0,0,0,0,0,0,0,0,0,0,0,0,0,
313,4.072,-7.784,3.186,4.533,-2.144,2.483,-6.538,3.536,-3.009,-10.94,4.655,4.889,5.326,-2.475,0.6196,5.316,0,0,0,0,0,0,0,0,0,0,0,0,0,0,0,0,
314,4.445,-6.284,-8.562,2.555,0.856,-0.2325,-4.782,-3.411,2,-6.486,9.534,9.399,8.256,1.143,0.6016,7.59,0,0,0,0,0,0,0,0,0,0,0,0,0,0,0,0,
315,1.361,-8.067,-1.164,4.502,-3.625,-7.577,-6.319,-6.032,9.86,-0.6686,5.246,1.936,0.3431,-2.12,-7.472,-3.231,0,0,0,0,0,0,0,0,0,0,0,0,0,0,0,0,
316,-10.07,-13.85,1.967,1.502,-9.296,-18.23,-10.03,0.5748,3.682,0.5445,-3.468,-11.6,-6.87,-2.902,-14.22,-6.842,0,0,0,0,0,0,0,0,0,0,0,0,0,0,0,0,
317,-19.82,-18.14,-5.136,-5.395,-9.262,-17.51,-15.67,6.549,-1.442,2.073,-8.179,-15.96,-3.849,3.716,-10.36,6.189,0,0,0,0,0,0,0,0,0,0,0,0,0,0,0,0,
318,-20.28,-19.33,-8.072,-6.441,-19.9,-12.35,-17.27,7.456,-0.434,1.833,-8.173,-14.19,-1.797,3.419,-3.277,9.123,0,0,0,0,0,0,0,0,0,0,0,0,0,0,0,0,
319,-19.9,-17.75,-10.42,-8.525,-28.98,-17.28,-10.31,-6.053,-8.195,-5.586,-8.524,-16.98,-7.061,-7.087,-7.632,-7.406,0,0,0,0,0,0,0,0,0,0,0,0,0,0,0,0,
320,-23,-18.64,-13.79,-12.95,-23.66,-21.63,-12.22,-21.25,-15.61,-13.8,-11.25,-19.96,-12.42,-13.14,-14.58,-11.94,0,0,0,0,0,0,0,0,0,0,0,0,0,0,0,0,
321,-21.91,-23.93,-11.61,-9.343,-24.96,-16.75,-21.42,-11.72,-13.66,-15.69,-14.05,-18.37,-12.57,-11.93,-12.93,-1.03,0,0,0,0,0,0,0,0,0,0,0,0,0,0,0,0,
322,-15.33,-24.91,-8.044,-1.583,-28.82,-4.854,-10.73,3.296,-12.28,-13.75,-14.97,-16.69,-7.381,-10.71,-12.24,-4.479,0,0,0,0,0,0,0,0,0,0,0,0,0,0,0,0,
323,-6.104,-14.24,0.159,7.006,-17.49,12.83,13.52,7.165,-7.935,-7.372,-12.5,-11.3,2.925,-6.816,-11.41,-11.07,0,0,0,0,0,0,0,0,0,0,0,0,0,0,0,0,
324,6.884,6.911,19.74,22.28,-5.825,22.2,23.96,19.43,1.954,4.277,-7.008,0.2451,16.96,1.845,-2.369,2.012,0,0,0,0,0,0,0,0,0,0,0,0,0,0,0,0,
325,16.74,25.58,26.02,30.75,-4.792,15.96,22.95,25.78,5.678,10.22,-1.123,8.056,24.7,8.595,7.149,12.82,0,0,0,0,0,0,0,0,0,0,0,0,0,0,0,0,
326,16.34,27.48,9.638,20.38,-2.627,11.41,21.07,14.28,7.571,7.727,6.04,10.56,21.15,11.15,11.72,9.499,0,0,0,0,0,0,0,0,0,0,0,0,0,0,0,0,
327,12.19,19.37,7.889,10.64,6.269,15.83,15.5,17.04,13.36,8.491,13.82,13.03,19.17,11.75,11.95,13.31,0,0,0,0,0,0,0,0,0,0,0,0,0,0,0,0,
328,11.04,16.36,21.13,12.35,11.74,20.23,15.8,24.64,13.43,11.81,20.54,16.04,23.46,12.01,13.12,25.41,0,0,0,0,0,0,0,0,0,0,0,0,0,0,0,0,
329,13.43,16.69,17.48,12.98,6.63,21.91,25.59,9.083,12.48,8.083,29.45,20.4,23.71,12.34,22.12,25.39,0,0,0,0,0,0,0,0,0,0,0,0,0,0,0,0,
330,14.93,10.6,7.833,10.04,-0.7585,16.51,19.37,-5.64,15.78,-0.2207,28.35,18.15,14.65,8.309,20.81,9.821,0,0,0,0,0,0,0,0,0,0,0,0,0,0,0,0,
331,5.712,-1.842,1.921,3.635,-6.797,-4.228,-3.55,-7.754,7.723,-5.27,4.243,0.8338,-0.83,0.8436,-3.788,-3.34,0,0,0,0,0,0,0,0,0,0,0,0,0,0,0,0,
332,-14.09,-14.35,-12.25,-10.62,-17.21,-31.1,-17.91,-8.93,-11,-6.485,-17.75,-19.61,-13.03,-2.371,-23.31,-6.437,0,0,0,0,0,0,0,0,0,0,0,0,0,0,0,0,
333,-31.96,-26.17,-22.75,-23.01,-30,-41.84,-29.3,-3.773,-20.21,-7.635,-18.36,-29.94,-17.74,-3.805,-21.64,-9.913,0,0,0,0,0,0,0,0,0,0,0,0,0,0,0,0,
334,-38.96,-35.07,-19.83,-23.61,-39.9,-35.22,-38.33,-2.48,-18.81,-8.454,-15.48,-30.28,-19.67,-7.43,-16.64,-11.78,0,0,0,0,0,0,0,0,0,0,0,0,0,0,0,0,
335,-35.27,-33.4,-13.43,-16.71,-40.38,-28.63,-27.18,-11.53,-19.92,-8.804,-16.56,-25.98,-17.42,-9.927,-15.93,-7.163,0,0,0,0,0,0,0,0,0,0,0,0,0,0,0,0,
336,-29.4,-26.07,-6.821,-7.833,-28.81,-20.32,-12.02,-11.78,-23.31,-11.95,-16.98,-24.15,-12.85,-11.42,-14.61,-6.33,0,0,0,0,0,0,0,0,0,0,0,0,0,0,0,0,
337,-25.72,-21.89,2.623,0.3399,-15.73,-2.398,-4.807,-8.67,-18.76,-13.32,-16.67,-22.15,-8.396,-9.166,-11.64,-3.987,0,0,0,0,0,0,0,0,0,0,0,0,0,0,0,0,
338,-16.47,-13.9,13.99,6.91,-6.914,13.21,9.009,-8.781,-8.03,-7.788,-9.605,-12.98,0.8355,-1.231,-5.951,9.737,0,0,0,0,0,0,0,0,0,0,0,0,0,0,0,0,
339,-1.729,-0.4135,21.06,12.98,-2.566,21.2,19.31,2.885,-1.647,-3.308,-3.223,-4.584,5.556,0.1186,-0.8002,15.32,0,0,0,0,0,0,0,0,0,0,0,0,0,0,0,0,
340,5.955,6.213,21.81,16.81,-6.22,20.97,15.35,13.81,-1.458,-5.582,-8.186,-4.093,-0.0642,-8.934,-3.711,0.9559,0,0,0,0,0,0,0,0,0,0,0,0,0,0,0,0,
341,4.155,4.296,16.42,15.16,-10.63,6.147,10.05,9.776,-7.296,-9.928,-11.36,-3.748,-0.6724,-13.36,-10.75,-11.43,0,0,0,0,0,0,0,0,0,0,0,0,0,0,0,0,
342,1.821,2.906,0.0468,5.961,-10.9,-7.07,3.681,1.053,-15.64,-13.24,-8.404,0.3449,4.691,-8.789,-10.38,-7.368,0,0,0,0,0,0,0,0,0,0,0,0,0,0,0,0,
343,0.1291,1.417,-14.04,-8.499,-15.12,-9.378,-10.91,-12.28,-13.67,-15.1,-8.976,1.571,3.189,-4.916,-5.758,0.3511,0,0,0,0,0,0,0,0,0,0,0,0,0,0,0,0,
344,-5.89,-6.097,-10.74,-17.8,-19.23,-17.15,-25.24,-20.72,-4.589,-13.47,-7.583,-1.762,-3.328,-2.722,-5.006,2.224,0,0,0,0,0,0,0,0,0,0,0,0,0,0,0,0,
345,-11.68,-12.85,-5.343,-16.05,-16.75,-21.27,-25.82,-11.44,-4.488,-8.598,-1.977,-5.962,-7.845,0.0286,-4.031,2.283,0,0,0,0,0,0,0,0,0,0,0,0,0,0,0,0,
346,-14.48,-12.98,-9.258,-9.959,-18.93,-14.02,-17.71,-2.876,-10.03,-6.496,-3.017,-13.25,-12.4,-2.091,-4.919,-0.8952,0,0,0,0,0,0,0,0,0,0,0,0,0,0,0,0,
347,-21.39,-16.39,-12.42,-6.069,-26.56,-14.81,-16.65,-1.346,-11.48,-9.067,-9.063,-21.54,-16.96,-7.496,-12.79,-6.52,0,0,0,0,0,0,0,0,0,0,0,0,0,0,0,0,
348,-27.27,-21.89,-8.277,-7.987,-27.2,-18.4,-16.27,-0.0988,-12.84,-9.382,-10.41,-21.39,-13.55,-7.724,-16.71,-4.636,0,0,0,0,0,0,0,0,0,0,0,0,0,0,0,0,
349,-25.33,-18.7,-8.19,-16.6,-28.03,-20.92,-12.81,-10.57,-16.6,-7.763,-9.702,-17.95,-8.026,-5.042,-12.54,0.5737,0,0,0,0,0,0,0,0,0,0,0,0,0,0,0,0,
350,-26.8,-17.46,-25.48,-23.29,-32.46,-35.96,-22.5,-23.16,-18.18,-9.942,-11.51,-20.8,-13.39,-5.882,-10.48,-2.666,0,0,0,0,0,0,0,0,0,0,0,0,0,0,0,0,
351,-31.39,-23.48,-36.3,-22.26,-25.54,-41.03,-33.56,-18.03,-17.79,-11.94,-12.15,-22.18,-17.47,-8.509,-10.84,-7.293,0,0,0,0,0,0,0,0,0,0,0,0,0,0,0,0,
352,-25.54,-19.07,-18.05,-16.17,-17.75,-21.51,-24.07,-5.587,-17.32,-12.47,-11.27,-16.01,-8.263,-8.699,-7.638,-2.12,0,0,0,0,0,0,0,0,0,0,0,0,0,0,0,0,
353,-13.13,-3.737,-0.1883,-4.728,-22.06,-5.024,-5.088,1.695,-14.92,-15.66,-10.93,-8.21,2.027,-7.292,-3.064,4.511,0,0,0,0,0,0,0,0,0,0,0,0,0,0,0,0,
354,-2.916,8.411,3.025,6.308,-20.79,1.496,8.233,3.37,-13.21,-14.91,-7.463,-1.297,8.974,-6.064,0.1966,5.444,0,0,0,0,0,0,0,0,0,0,0,0,0,0,0,0,
355,5.791,18.55,9.99,8.357,-12.8,10.54,13.06,4.368,-12.62,-5.211,1.31,6.728,18.81,0.3203,7.228,13.06,0,0,0,0,0,0,0,0,0,0,0,0,0,0,0,0,
356,12.34,26.24,15.77,9.165,-5.526,18.96,14.7,11.59,-3.897,4.146,8.004,13.22,24.83,9.852,13.08,21.22,0,0,0,0,0,0,0,0,0,0,0,0,0,0,0,0,
357,15.87,22.05,14.31,12.39,7.929,18.69,17.4,16.74,9.777,5.62,3.178,13.23,18.9,7.924,4.249,9.755,0,0,0,0,0,0,0,0,0,0,0,0,0,0,0,0,
358,17.62,10.64,9.626,7.449,12.31,9.827,11.2,10.07,14.81,1.898,-2.745,12.4,12.32,0.2979,-1.7,2.183,0,0,0,0,0,0,0,0,0,0,0,0,0,0,0,0,
359,18.37,5.38,1.159,0.1798,-0.1913,6.107,4.319,-1.983,12.61,-1.679,5.67,16.71,16.01,3.202,11.52,13.95,0,0,0,0,0,0,0,0,0,0,0,0,0,0,0,0,
360,16.45,6.417,-0.4638,2.812,-9.898,9.389,11.66,-7.916,7.796,-3.219,10.37,14,15.89,5.677,11.68,10.06,0,0,0,0,0,0,0,0,0,0,0,0,0,0,0,0,
361,7.221,5.254,2.898,6.242,-15.75,1.345,9.319,-0.8593,-0.1657,-4.316,-1.889,-0.044,5.399,-0.9618,-8.291,-3.66,0,0,0,0,0,0,0,0,0,0,0,0,0,0,0,0,
362,-6.066,-0.752,1.628,4.002,-19.36,-10.48,-8.608,10.87,-5.056,-5.767,-7.201,-10.15,-2.219,-4.257,-12.59,2.296,0,0,0,0,0,0,0,0,0,0,0,0,0,0,0,0,
363,-14.73,-8.012,8.313,3.351,-15.26,-9.032,-10.74,16.14,-4.388,-6.767,-2.658,-14.84,-8.361,-4.292,-8.796,3.008,0,0,0,0,0,0,0,0,0,0,0,0,0,0,0,0,
364,-19.72,-12.14,13.1,1.787,-13.7,-8.915,-4.859,13.63,-3.92,-6.274,-7.246,-19.93,-13.74,-7.172,-16.33,-8.803,0,0,0,0,0,0,0,0,0,0,0,0,0,0,0,0,
365,-22.07,-11.49,-2.971,-4.075,-17.59,-16.79,-12.42,-2.637,-6.24,-3.527,-12.12,-18.63,-10.21,-7.139,-15.38,-5.601,0,0,0,0,0,0,0,0,0,0,0,0,0,0,0,0,
366,-18.12,-8.809,-13.49,-7.886,-24.08,-16.43,-16.26,-21.06,-9.321,-1.244,-8.202,-12.88,-7.082,-4.213,-5.934,4.258,0,0,0,0,0,0,0,0,0,0,0,0,0,0,0,0,
367,-13.83,-8.564,-6.929,-9.364,-32.25,-9.348,-13.92,-15.67,-9.153,-2.806,-7.102,-12.04,-8.326,-4.19,-4.778,7.478,0,0,0,0,0,0,0,0,0,0,0,0,0,0,0,0,
368,-14.9,-11.75,-6.835,-9.153,-27.33,-11.08,-20.31,-2.29,-8.388,-6.072,-9.267,-11.76,-5.137,-6.587,-1.874,9.138,0,0,0,0,0,0,0,0,0,0,0,0,0,0,0,0,
369,-13.67,-12.73,-6.405,-5.81,-10.45,-16.56,-15.1,-3.258,-10.89,-7.704,-5.188,-5.285,0.9266,-8.088,5.08,9.008,0,0,0,0,0,0,0,0,0,0,0,0,0,0,0,0,
370,-3.954,-4.279,7.192,-3.826,-1.79,-7.301,10.34,-0.9699,-5.424,-7.554,1.845,4.781,7.891,-5.919,4.452,10.74,0,0,0,0,0,0,0,0,0,0,0,0,0,0,0,0,
371,9.188,9.669,18.36,0.5201,-4.192,10.35,19.85,4.028,9.249,-7.199,3.936,11.67,13.29,-2.762,2.613,10.37,0,0,0,0,0,0,0,0,0,0,0,0,0,0,0,0,
372,15.2,16.17,17.28,8.868,-9.87,15.15,6.674,-6.147,11.7,-7.729,5.846,12.33,13.98,-2.361,8.223,6.423,0,0,0,0,0,0,0,0,0,0,0,0,0,0,0,0,
373,10.83,13.78,8.009,7.29,-9.353,9.404,0.5783,-11.66,3.112,-5.758,11.8,12.66,16.61,1.151,16.33,16.23,0,0,0,0,0,0,0,0,0,0,0,0,0,0,0,0,
374,7.139,12.38,1.997,-0.9242,-1.941,4.234,3.557,-0.4953,4.163,0.2888,11.19,13.44,17.67,6.48,15,22.45,0,0,0,0,0,0,0,0,0,0,0,0,0,0,0,0,
375,7.833,11.25,4.756,-0.3327,-3.381,2.662,3.772,5.697,8.987,4.181,1.301,6.07,6.885,2.36,-1.341,0.3162,0,0,0,0,0,0,0,0,0,0,0,0,0,0,0,0,
376,3.983,4.993,2.567,4.896,-6.156,7.488,4.892,7.36,7.158,4.652,-3.746,-2.848,-4.638,-3.257,-13.91,-13.87,0,0,0,0,0,0,0,0,0,0,0,0,0,0,0,0,
377,-0.6527,0.1746,-1.792,6.629,4.223,7.409,4.392,12.17,6.39,4.625,-0.1502,-2.715,-4.385,-0.6804,-8.47,-1.056,0,0,0,0,0,0,0,0,0,0,0,0,0,0,0,0,
378,-1.675,-1.789,2.1,0.9504,3.913,-6.319,-5.217,8.601,4.165,1.699,1.322,-3.138,-1.514,-1.222,-2.956,5.287,0,0,0,0,0,0,0,0,0,0,0,0,0,0,0,0,
379,-6.673,-6.795,-2.365,-11.45,-9.929,-13.81,-14.26,1.403,-1.771,-0.6565,-2.121,-7.227,-1.561,-3.062,-5.371,3.241,0,0,0,0,0,0,0,0,0,0,0,0,0,0,0,0,
380,-10.53,-6.542,-11.2,-16.25,-9.374,-7.485,-6.232,-5.115,-1.262,1.61,-2.837,-5.283,2.245,2.055,-3.26,6.157,0,0,0,0,0,0,0,0,0,0,0,0,0,0,0,0,
381,-5.542,2.549,-3.132,-9.235,-7.337,-3.055,11.84,-14.57,-0.6736,1.81,0.0925,-0.9915,4.218,1.435,0.4528,3.377,0,0,0,0,0,0,0,0,0,0,0,0,0,0,0,0,
382,0.5771,5.257,8.217,-1.209,-12.93,1.36,15.49,-8.206,-6.292,-0.981,0.64,0.2528,-1.346,-3.863,-0.9377,-1.153,0,0,0,0,0,0,0,0,0,0,0,0,0,0,0,0,
383,3.883,-0.4941,9.328,3.035,-4.596,8.854,5.621,5.846,-5.32,-2.919,-0.3815,0.8433,-2.81,-0.753,-2.139,-0.3551,0,0,0,0,0,0,0,0,0,0,0,0,0,0,0,0,
384,5.901,-0.5916,4.573,1.148,0.5279,9.114,2.6,0.4727,1.308,-4.101,-0.0282,1.733,4.161,4.176,-0.0549,1.272,0,0,0,0,0,0,0,0,0,0,0,0,0,0,0,0,
385,7.783,8.734,-0.592,-1.649,-10.13,8.765,7.276,-1.329,4.137,1.293,-0.4438,7.122,14.87,8.054,4.176,10.06,0,0,0,0,0,0,0,0,0,0,0,0,0,0,0,0,
386,13.09,19.97,6.919,2.408,-8.925,11.81,12.5,9.802,8.002,11.33,1.211,16.08,24.79,12.23,8.251,19.08,0,0,0,0,0,0,0,0,0,0,0,0,0,0,0,0,
387,17.47,23.97,17.94,4.483,-2.689,4.833,15.07,7.187,13.79,11.54,9.373,19.02,22.83,8.007,9.251,13.81,0,0,0,0,0,0,0,0,0,0,0,0,0,0,0,0,
388,15.31,16.29,11.79,0.8129,-7.685,-3.051,5.67,-0.329,16.13,2.934,15.48,14.83,12.16,0.9168,6.867,8.62,0,0,0,0,0,0,0,0,0,0,0,0,0,0,0,0,
389,10.5,2.747,2.773,-2.232,-8.219,1.203,-8.123,-3.907,14.74,-2.024,11.97,8.904,7.999,0.2029,5.663,12.88,0,0,0,0,0,0,0,0,0,0,0,0,0,0,0,0,
390,5.428,-5.082,2.894,-7.546,-6.99,2.041,-7.167,-7.765,9.551,-0.579,8.546,4.785,8.211,0.3333,9.625,12.82,0,0,0,0,0,0,0,0,0,0,0,0,0,0,0,0,
391,0.2639,-2.885,3.013,-11.25,-13.65,-4.976,-2.812,2.782,3.233,2.725,7.952,2.03,4.708,-0.3887,8.846,4.538,0,0,0,0,0,0,0,0,0,0,0,0,0,0,0,0,
392,-4.557,-0.345,1.542,-8.077,-19.17,-7.627,-8.514,10.06,-0.5139,1.863,-1.325,-3.868,-3.482,-2.111,-4.361,-5.201,0,0,0,0,0,0,0,0,0,0,0,0,0,0,0,0,
393,-9.986,-5.882,-4.986,-9.799,-20.25,-8.066,-8.834,-5.592,-2.845,-3.079,-11.38,-10.2,-11.2,-6.403,-14,-9.106,0,0,0,0,0,0,0,0,0,0,0,0,0,0,0,0,
394,-13.15,-13.09,-14.59,-17.42,-20.39,-10.3,-5.962,-10.8,-3.002,-5.216,-8.17,-10.96,-10.25,-6.423,-8.472,-3.014,0,0,0,0,0,0,0,0,0,0,0,0,0,0,0,0,
395,-11.89,-15.22,-13.37,-17.73,-26.29,-13.36,-14.72,1.104,-2.511,-3.31,-2.714,-8.458,-4.341,-1.957,1.04,3.428,0,0,0,0,0,0,0,0,0,0,0,0,0,0,0,0,
396,-8.964,-12.34,-5.847,-11.95,-32.34,-17.8,-16.96,2.539,-8.315,-0.3605,-2.885,-5.917,0.4819,0.225,2.652,2.885,0,0,0,0,0,0,0,0,0,0,0,0,0,0,0,0,
397,-6.531,-3.659,-4.844,-7.265,-23.26,-18.16,-3.131,-2.436,-14.07,1.963,-2.843,-3.804,5.138,2.416,-2.69,4.195,0,0,0,0,0,0,0,0,0,0,0,0,0,0,0,0,
398,-3.373,5.897,-4.475,-3.369,-13.9,-9.503,6.811,-3.275,-5.178,1.409,-3.219,0.1708,6.456,4.83,-3.791,9.25,0,0,0,0,0,0,0,0,0,0,0,0,0,0,0,0,
399,3.961,7.998,3.353,-0.1948,-14.41,2.132,8.736,2.201,8.828,-0.7807,-2.717,6.064,3.942,1.193,-0.039,7.167,0,0,0,0,0,0,0,0,0,0,0,0,0,0,0,0,
400,9.355,4.124,8.399,1.345,-11,4.327,3.969,12.34,6.383,-1.703,-3.076,3.669,0.0038,-5.183,-5.76,-2.797,0,0,0,0,0,0,0,0,0,0,0,0,0,0,0,0,
401,2.542,-0.464,0.0242,-0.0774,-17.87,-2.934,-6.122,9.974,-5.379,-1.461,-9.68,-4.802,-2.936,-5.084,-13.77,-8.139,0,0,0,0,0,0,0,0,0,0,0,0,0,0,0,0,
402,-4.458,-1.608,-6.984,-3.308,-31.35,-3.682,-2.336,0.7117,-5.884,2.153,-8.454,-0.9992,1.623,1.08,-4.043,-1.219,0,0,0,0,0,0,0,0,0,0,0,0,0,0,0,0,
403,2.423,4.642,2.88,0.0934,-13.3,3.535,8.814,5.465,2.728,9.037,5.937,9.928,7.697,5.017,10.22,7.844,0,0,0,0,0,0,0,0,0,0,0,0,0,0,0,0,
404,8.176,9.886,15.62,7.84,11.6,5.082,4.957,12.43,7.165,10.14,9.891,8.088,3.309,1.905,6.102,4.078,0,0,0,0,0,0,0,0,0,0,0,0,0,0,0,0,
405,0.7901,2.127,15.04,4.048,3.286,-1.586,1.734,11.16,3.156,2.611,-0.35,-1.56,-5.383,-4.74,-4.053,-5.75,0,0,0,0,0,0,0,0,0,0,0,0,0,0,0,0,
406,-6.946,-8.685,4.966,-7.481,-8.17,-12.13,5.137,4.089,-3.378,-3.447,-4.144,-4.336,-6.802,-7.814,-1.02,-5.714,0,0,0,0,0,0,0,0,0,0,0,0,0,0,0,0,
407,-7.268,-7.763,-6.54,-11.15,-8.999,-19.37,-6.657,-14.01,-5.315,-3.546,-2.034,-2.034,-1.862,-4.901,3.208,0.7882,0,0,0,0,0,0,0,0,0,0,0,0,0,0,0,0,
408,-5.312,-1.946,-14.58,-12.2,-19.36,-17.68,-19.93,-21.42,-5.821,-2.753,-4.819,-0.835,1.143,0.7002,-1.588,6.673,0,0,0,0,0,0,0,0,0,0,0,0,0,0,0,0,
409,-2.275,-0.3692,-13.55,-14.97,-19.56,-11.55,-12.94,-0.0263,-4.646,-1.993,-5.043,0.4622,0.2906,4.311,0.9684,10.89,0,0,0,0,0,0,0,0,0,0,0,0,0,0,0,0,
410,0.2172,-2.019,-3.352,-11.52,-3.003,-6.282,-7.087,12.97,1.935,-1.423,1.177,0.5429,-2.368,2.968,9.833,6.943,0,0,0,0,0,0,0,0,0,0,0,0,0,0,0,0,
411,-5.134,-9.473,0.8997,-9.192,-0.8163,-9.254,-16.6,-3.949,-1.373,-5.664,2.235,-5.537,-9.274,-1.978,4.365,-1.053,0,0,0,0,0,0,0,0,0,0,0,0,0,0,0,0,
412,-15.28,-18.6,-11.31,-15.47,-10.1,-18.24,-21.29,-20.13,-14.83,-12.41,-3.627,-10.91,-13.42,-6.396,-5.696,-2.479,0,0,0,0,0,0,0,0,0,0,0,0,0,0,0,0,
413,-14.15,-13.7,-19.02,-17.28,-12.58,-15.72,-12.19,-19.28,-9.904,-11.99,-5.746,-3.656,-5.54,-5.905,-0.251,-0.2439,0,0,0,0,0,0,0,0,0,0,0,0,0,0,0,0,
414,1.54,3.568,-3.717,-8.444,-10.1,-7.229,1.033,-7.691,6.474,-3.11,-0.4933,9.077,4.88,0.4833,9.828,5.403,0,0,0,0,0,0,0,0,0,0,0,0,0,0,0,0,
415,14.39,13.39,12.54,0.284,-5.448,-3.7,9.531,13.54,4.905,3.724,4.644,11.06,6.598,3.524,7.932,11.37,0,0,0,0,0,0,0,0,0,0,0,0,0,0,0,0,
416,12.57,9.406,8.69,3.263,-5.741,6.237,5.516,27.3,-3.457,1.952,2.248,3.843,0.7362,-2.289,-0.1416,7.026,0,0,0,0,0,0,0,0,0,0,0,0,0,0,0,0,
417,4.021,2.685,1.125,3.538,-10.09,13.19,0.111,9.388,-2.382,-2.456,-2.43,-0.1969,-2.031,-4.827,-0.119,4.7,0,0,0,0,0,0,0,0,0,0,0,0,0,0,0,0,
418,0.5767,2.388,3.07,1.188,-11.41,5.471,10.02,-19.64,-3.551,-3.671,-3.285,1.6,5.998,0.8082,5.456,13.05,0,0,0,0,0,0,0,0,0,0,0,0,0,0,0,0,
419,2.565,7.643,1.646,-3.842,-15.19,0.5809,15.13,-16.61,-9.704,-3.162,-5.916,3.74,12,3.023,2.201,10.48,0,0,0,0,0,0,0,0,0,0,0,0,0,0,0,0,
420,3.737,12.79,-2.991,-4.834,-9.285,0.0665,3.698,8.432,-9.79,-0.987,-7.716,4.768,8.431,0.5902,-3.658,-2.613,0,0,0,0,0,0,0,0,0,0,0,0,0,0,0,0,
421,5,16.25,3.809,1.396,9.441,-1.7,3.005,15.53,-1.812,3.383,-0.0976,8.781,8.535,2.536,4.055,0.4807,0,0,0,0,0,0,0,0,0,0,0,0,0,0,0,0,
422,9.701,17.15,13.64,7.774,10.7,2.072,8.848,7.939,7.429,4.768,10.07,14.21,12.46,7.774,15.51,15.59,0,0,0,0,0,0,0,0,0,0,0,0,0,0,0,0,
423,11.04,10.37,11.82,7.17,2.945,0.3713,-1.492,-0.1083,12.02,0.1157,13.97,13.03,10.52,7.873,15.52,16.32,0,0,0,0,0,0,0,0,0,0,0,0,0,0,0,0,
424,5.872,1.829,6.483,-0.2084,7.442,-8.168,-8.437,-14.47,11.54,-3.169,11.15,7.35,8.155,4.544,10.02,6.623,0,0,0,0,0,0,0,0,0,0,0,0,0,0,0,0,
425,3.636,4.995,7.391,-6.277,5.226,-3.15,-0.7093,-15.3,4.564,1.623,3.394,5.197,11.17,6.702,5.729,7.114,0,0,0,0,0,0,0,0,0,0,0,0,0,0,0,0,
426,5.226,12.64,8.024,-4.241,0.5145,9.302,3.582,8.655,-7.239,7.001,-2.906,3.544,10.09,8.173,1.186,7.104,0,0,0,0,0,0,0,0,0,0,0,0,0,0,0,0,
427,3.278,10.77,5.129,3.319,11.91,10.08,4.808,18.49,-8.399,5.656,-1.092,1.337,0.6868,1.478,-0.2951,-1.097,0,0,0,0,0,0,0,0,0,0,0,0,0,0,0,0,
428,0.7988,5.425,12.15,12.32,24.28,3.949,5.479,5.476,5.313,4.079,8.013,4.101,-2.116,-0.9685,3.854,6.236,0,0,0,0,0,0,0,0,0,0,0,0,0,0,0,0,
429,1.045,2.109,25.19,15.34,23.45,3.21,-1.184,0.4988,12.43,3.854,12.75,4.491,1.048,2.266,5.407,16.56,0,0,0,0,0,0,0,0,0,0,0,0,0,0,0,0,
430,-0.6112,-3.192,13.24,4.817,11.29,4.545,-3.223,0.1319,4.211,-0.8595,4.8,-2.246,-4.807,-1.17,0.2679,0.7399,0,0,0,0,0,0,0,0,0,0,0,0,0,0,0,0,
431,-2.221,-4.413,-13.69,-5.467,2.98,-2.072,4.96,-3.864,-2.362,-3.694,-1.448,-1.571,-5.587,-4.41,0.4663,-9.418,0,0,0,0,0,0,0,0,0,0,0,0,0,0,0,0,
432,2.539,3.941,-10.65,-0.7097,10.69,-6.467,6.292,1.514,0.7444,1.454,3.548,9.287,7.929,-1.514,9.018,5.483,0,0,0,0,0,0,0,0,0,0,0,0,0,0,0,0,
433,9.58,12.61,10.9,6.723,18.21,5.104,3.023,8.451,4.973,6.703,6.223,14.12,14.77,-0.145,10.3,9.456,0,0,0,0,0,0,0,0,0,0,0,0,0,0,0,0,
434,10.59,14.5,13.95,7.487,21.08,15.65,9.511,6.316,6.011,7.208,4.089,9.783,12.01,1.55,3.109,-0.0861,0,0,0,0,0,0,0,0,0,0,0,0,0,0,0,0,
435,5.394,11.48,11.52,7.827,27.66,8.874,11.21,1.87,3.757,5.851,5.014,5.176,8.37,4.045,0.7949,-0.3623,0,0,0,0,0,0,0,0,0,0,0,0,0,0,0,0,
436,-0.8027,5.368,14.37,4.178,21.09,-2.289,-1.124,-4.008,-0.8815,4.741,5.187,3.291,3.807,2.986,3.086,4.094,0,0,0,0,0,0,0,0,0,0,0,0,0,0,0,0,
437,-0.8057,1.844,1.014,-3.676,5.307,-2.444,-6.58,-5.758,0.9387,4.572,3.942,5.361,6.2,3.696,4.993,10.38,0,0,0,0,0,0,0,0,0,0,0,0,0,0,0,0,
438,7.502,6.491,-16.02,-2.626,8.039,6.466,-3.325,1.342,7.498,3.847,5.566,9.111,12.28,5.22,7.322,14.41,0,0,0,0,0,0,0,0,0,0,0,0,0,0,0,0,
439,10.55,10.82,-4.719,3.206,19.92,7.402,-0.7368,2.167,1.114,3.115,6.044,6.901,8.225,1.888,7.121,3.925,0,0,0,0,0,0,0,0,0,0,0,0,0,0,0,0,
440,0.7291,7.97,14.51,1.298,20.01,-3.563,9.62,-3.403,-11.66,4.67,3.287,0.9975,1.723,0.3115,3.646,-5.159,0,0,0,0,0,0,0,0,0,0,0,0,0,0,0,0,
441,-6.729,5.364,11.42,-0.4646,12.6,-6.735,11.05,-1.498,-9.368,3.829,3.912,-0.3083,3.265,3.156,3.108,2.438,0,0,0,0,0,0,0,0,0,0,0,0,0,0,0,0,
442,-5.628,3.684,3.551,1.438,6.412,-2.256,-10.36,-0.1601,-1.474,-0.8995,8.499,0.9146,5.997,4.57,6.797,8.88,0,0,0,0,0,0,0,0,0,0,0,0,0,0,0,0,
443,-5.074,0.4238,3,-2.87,7.227,-2.816,-16.53,-2.073,-1.004,-0.6623,7.611,0.6113,5.917,4.67,7.004,5.97,0,0,0,0,0,0,0,0,0,0,0,0,0,0,0,0,
444,-2.516,2.694,-0.5099,-5.552,14.52,0.6745,0.432,2.902,0.5024,5.462,0.8747,0.6131,6.458,4.003,-0.6586,0.8482,0,0,0,0,0,0,0,0,0,0,0,0,0,0,0,0,
445,5.147,8.802,2.637,4.696,18.38,8.873,8.468,8.345,3.189,9.859,-1.336,2.258,5.896,2.332,-6.463,-4.554,0,0,0,0,0,0,0,0,0,0,0,0,0,0,0,0,
446,11.1,13.11,12.85,17.55,20.68,14.33,15.23,14.32,3.628,11.84,2.908,6.353,5.656,4.254,-1.635,1.519,0,0,0,0,0,0,0,0,0,0,0,0,0,0,0,0,
447,13.41,18.07,10.52,20.95,24.85,19.45,21.88,21.76,4.755,11.51,8.553,11.7,12.11,8.221,5.974,16.28,0,0,0,0,0,0,0,0,0,0,0,0,0,0,0,0,
448,12.57,19.35,1.187,12.73,13.88,12.21,9.114,9.331,2.571,5.897,13.05,14.34,18.44,6.03,9.214,12.71,0,0,0,0,0,0,0,0,0,0,0,0,0,0,0,0,
449,9.422,15.25,-3.536,-1.574,-6.242,-5.204,-1.051,-10.31,0.9097,-0.3676,13.8,14.14,17,-0.2382,9.986,0.1148,0,0,0,0,0,0,0,0,0,0,0,0,0,0,0,0,
450,9.254,12.99,-4.448,-6.495,-1.002,-4.249,1.879,-2.796,7.222,-0.3409,10.07,13.02,15.15,-0.5833,7.571,5.648,0,0,0,0,0,0,0,0,0,0,0,0,0,0,0,0,
451,12.09,10.39,5.988,3.585,19.74,8.423,0.4126,11.13,12.78,2.619,6.656,10.91,13.64,2.969,4.126,10.94,0,0,0,0,0,0,0,0,0,0,0,0,0,0,0,0,
452,11.89,5.156,18.16,12.77,25.44,9.568,4.162,7.35,13.28,0.8105,10.18,8.914,6.954,0.9136,5.989,1.878,0,0,0,0,0,0,0,0,0,0,0,0,0,0,0,0,
453,9.471,2.696,13.14,10.83,27.45,9.236,10.25,3.873,13.09,-2.625,21.28,11.94,4.782,-0.1023,14.78,6.481,0,0,0,0,0,0,0,0,0,0,0,0,0,0,0,0,
454,13.02,6.265,7.358,6.537,30.81,15.1,4.463,2.528,10.44,1.665,29.95,21.2,15.82,7.824,25.46,23.92,0,0,0,0,0,0,0,0,0,0,0,0,0,0,0,0,
455,20.05,15.78,9.632,5.051,23.6,15.32,4.463,-3.766,7.067,8.895,25,23.82,24.49,9.851,23.71,19.23,0,0,0,0,0,0,0,0,0,0,0,0,0,0,0,0,
456,17.69,21.77,3.612,4.274,22.16,9.63,13.05,0.0534,7.133,8.788,11.2,13.53,16.82,1.744,8.605,3.041,0,0,0,0,0,0,0,0,0,0,0,0,0,0,0,0,
457,11.59,17.91,4.086,9.431,32.3,9.368,16.32,15.3,8.673,6.415,4.864,7.464,9.511,0.4798,3.513,6.946,0,0,0,0,0,0,0,0,0,0,0,0,0,0,0,0,
458,14.62,14.36,20.95,17.44,33.77,15.43,17.4,23.05,7.842,4.93,6.354,9.948,12.71,1.662,9.143,13.85,0,0,0,0,0,0,0,0,0,0,0,0,0,0,0,0,
459,15.73,12.05,24.57,12.99,28.49,16.4,11.89,12.41,2.803,-2.544,3.823,7.724,11.95,-3.744,8.499,9.694,0,0,0,0,0,0,0,0,0,0,0,0,0,0,0,0,
460,10.09,5.527,13.25,0.2095,26.78,9.852,-0.8169,-6.949,-0.346,-8.866,3.715,8.58,11.86,-2.978,11.89,15.63,0,0,0,0,0,0,0,0,0,0,0,0,0,0,0,0,
461,13.42,5.604,8.647,-2.636,23.75,7.187,-4.764,-10.18,3.599,-2.432,13.39,19.19,20.27,2.731,19.37,22.12,0,0,0,0,0,0,0,0,0,0,0,0,0,0,0,0,
462,21.5,15.99,9.84,6.072,22.3,11.24,4.028,6.908,7.143,9.063,17.03,21.21,21.83,3.503,10.63,9.37,0,0,0,0,0,0,0,0,0,0,0,0,0,0,0,0,
463,18.76,23.38,14.13,13.11,28.55,11.89,17.43,17.14,6.321,12.29,7.141,10.63,16.06,4.621,-1.123,0.6199,0,0,0,0,0,0,0,0,0,0,0,0,0,0,0,0,
464,10.13,20.33,12.68,8.951,31.93,5.66,18.34,8.177,4.717,6.102,-1.111,3.266,13.23,3.974,1.039,9.253,0,0,0,0,0,0,0,0,0,0,0,0,0,0,0,0,
465,4.347,11.04,-3.082,-0.5412,23.47,0.843,-0.905,-4.882,0.6622,-0.3556,2.449,4.423,13.07,0.4297,5.748,15.32,0,0,0,0,0,0,0,0,0,0,0,0,0,0,0,0,
466,4.441,6.528,-9.923,-5.022,13.62,2.486,-13.32,-8.952,-1.871,0.523,11.68,11.27,16.24,3.76,11.22,11.8,0,0,0,0,0,0,0,0,0,0,0,0,0,0,0,0,
467,12.91,11.32,4.46,-3.08,17,6.439,-3.21,2.095,5.386,5.584,14.55,16.7,15.17,8.343,14.02,5.27,0,0,0,0,0,0,0,0,0,0,0,0,0,0,0,0,
468,18.98,14.55,17.05,4.871,29.52,7.982,7.244,18.54,9.236,8.371,7.014,9.218,3.363,5.712,1.879,-3.261,0,0,0,0,0,0,0,0,0,0,0,0,0,0,0,0,
469,9.509,8.363,11.23,9.554,29.59,5.548,4.369,15.02,-5.047,7.452,-1.901,-4.701,-6.059,2.033,-6.156,-6.293,0,0,0,0,0,0,0,0,0,0,0,0,0,0,0,0,
470,-2.971,0.599,-0.2902,1.417,15.66,2.039,-2.69,-0.6282,-16.18,4.461,-0.4366,-4.101,-1.514,1.861,6.029,5.848,0,0,0,0,0,0,0,0,0,0,0,0,0,0,0,0,
471,-0.2485,0.8912,3.523,-5.682,10.79,-0.4897,-4.951,-1.408,-7.077,2.786,8.454,7.305,9.911,4.097,13.46,16.24,0,0,0,0,0,0,0,0,0,0,0,0,0,0,0,0,
472,8.045,6.273,2.618,-6.946,12.06,-4.795,-4.258,-0.8636,-0.9297,4.309,7.931,7.871,11.13,4.349,3.823,5.822,0,0,0,0,0,0,0,0,0,0,0,0,0,0,0,0,
473,7.971,8.686,-22.54,-10.78,6.873,-4.553,-3.787,-7.502,-5.82,6.911,-1.763,0.7562,3.146,0.5211,-3.273,-4.598,0,0,0,0,0,0,0,0,0,0,0,0,0,0,0,0,
474,7.421,8.563,-24.26,-2.755,10.14,3.066,2.658,1.495,-2.832,7.196,-2.986,0.341,1.741,-1.711,-0.7923,-0.242,0,0,0,0,0,0,0,0,0,0,0,0,0,0,0,0,
475,9.684,7.476,7.811,13.38,17.66,2.703,11.75,12.81,1.704,3.372,2.587,2.741,3.695,-1.631,1.929,2.01,0,0,0,0,0,0,0,0,0,0,0,0,0,0,0,0,
476,7.883,4.836,14.61,9.133,12.76,-2.726,8.452,2.238,-2.464,-2.65,4.56,6.229,6.688,-2.223,3.788,4.526,0,0,0,0,0,0,0,0,0,0,0,0,0,0,0,0,
477,9.999,7.056,0.7458,-4.644,10.01,2.379,-2.813,-9.559,-0.8127,-6.769,8.268,15.7,17.3,-0.0659,10.32,14.27,0,0,0,0,0,0,0,0,0,0,0,0,0,0,0,0,
478,20.6,16.75,1.143,-5.741,15.57,7.854,-6.364,-5.855,9.045,-4.798,14.82,22.28,23.63,5.999,17.62,17.68,0,0,0,0,0,0,0,0,0,0,0,0,0,0,0,0,
479,24.29,24.32,-0.5438,-2.884,21.3,6.751,-2.153,-1.21,11.75,2.986,14.52,17.07,19.2,9.748,15.39,14.41,0,0,0,0,0,0,0,0,0,0,0,0,0,0,0,0,
480,15.31,19.72,-7.385,-2.083,26.44,5.464,1.312,-8.709,5.453,6.602,7.951,7.458,10.7,4.778,9.57,11.1,0,0,0,0,0,0,0,0,0,0,0,0,0,0,0,0,
481,6.586,3.194,-6.449,-1.329,21.13,-0.3824,-2.631,-19.59,2.349,0.4037,6.882,4.816,1.058,-3.862,12.52,9.015,0,0,0,0,0,0,0,0,0,0,0,0,0,0,0,0,
482,6.815,-10.51,-7.434,-3.2,11.29,-8.019,-13.47,-14.23,2.886,-5.678,10.75,7.754,-1.877,-4.784,12.62,8.803,0,0,0,0,0,0,0,0,0,0,0,0,0,0,0,0,
483,10.65,-9.209,-12.05,-6.363,12.81,-11.83,-16.57,1.322,-4.357,-3.064,6.745,5.479,0.7901,-1.003,1.474,0.8071,0,0,0,0,0,0,0,0,0,0,0,0,0,0,0,0,
484,11.21,0.4326,-10.55,-7.027,14.27,-12.64,-3.338,7.569,-9.632,4.556,0.1624,0.2706,1.395,-0.3114,-1.477,-8.748,0,0,0,0,0,0,0,0,0,0,0,0,0,0,0,0,
485,12.26,7.772,0.1144,-1.223,13.65,-2.072,7.871,6.073,0.5139,7.473,3.242,1.305,2.664,-0.995,6.21,-2.601,0,0,0,0,0,0,0,0,0,0,0,0,0,0,0,0,
486,13.43,5.817,7.992,3.396,16.65,6.345,1.771,-4.925,5.904,0.0215,7.464,2.628,2.322,-2.613,6.232,6.195,0,0,0,0,0,0,0,0,0,0,0,0,0,0,0,0,
487,6.822,-4.65,-2.963,-7.112,6.501,-7.92,-9.226,-24.58,-2.728,-8.681,5.967,0.7594,2.178,-2.443,2.527,5.974,0,0,0,0,0,0,0,0,0,0,0,0,0,0,0,0,
488,1.521,-7.194,-17.29,-18.81,-10.43,-14.78,-14.08,-27.03,-3.594,-6.594,4.011,2.293,8.544,2.577,2.901,3.993,0,0,0,0,0,0,0,0,0,0,0,0,0,0,0,0,
489,8.326,3.52,-15.19,-13.93,-8.024,3.254,-12.43,-7.743,3.258,2.159,4.273,4.994,13.25,4.264,0.5676,1.185,0,0,0,0,0,0,0,0,0,0,0,0,0,0,0,0,
490,16.67,13.25,-7.953,-3.784,6.391,13.23,-0.84,6.762,4.759,7.084,6.9,7.643,14.56,0.5248,-1.121,2.878,0,0,0,0,0,0,0,0,0,0,0,0,0,0,0,0,
491,20.26,16.44,0.6348,5.236,13.3,13.54,10.87,4.186,6.566,4.21,7.508,13.89,17.14,-1.636,4.787,8.852,0,0,0,0,0,0,0,0,0,0,0,0,0,0,0,0,
492,22.82,13.46,13.02,13.68,13.85,18.7,9.096,-3.686,10.18,-3.38,8.383,19.03,18.57,-1.111,14.45,10.19,0,0,0,0,0,0,0,0,0,0,0,0,0,0,0,0,
493,21.76,7.314,14.04,10.97,16.16,9.357,2.584,-2.209,12.08,-5.796,16.95,21.11,22.65,3.429,20.75,13.99,0,0,0,0,0,0,0,0,0,0,0,0,0,0,0,0,
494,18.84,9.324,3.643,3.347,19.85,-6.484,0.7241,0.0971,13.75,0.9812,20.2,21.71,26.42,8.769,17.85,17.28,0,0,0,0,0,0,0,0,0,0,0,0,0,0,0,0,
495,17.34,14.87,-3.559,2.71,19.05,-0.4626,1.481,-6.491,9.562,7.129,10.81,16.29,17.66,5.366,10.85,9.579,0,0,0,0,0,0,0,0,0,0,0,0,0,0,0,0,
496,12.37,8.803,-4.849,2.243,15.09,7.412,0.8665,-5.134,1.872,4.904,4.271,6.735,1.788,-3.156,7.112,3.717,0,0,0,0,0,0,0,0,0,0,0,0,0,0,0,0,
497,4.357,-3.432,-1.85,0.8472,15.52,-1.615,-7.174,-1.996,-0.7206,-2.101,1.699,0.48,-5.87,-7.305,2.775,3.27,0,0,0,0,0,0,0,0,0,0,0,0,0,0,0,0,
498,-0.4357,-7.518,-2.232,-1.103,18.93,-5.407,-11.91,-15.37,-7.563,-5.402,-1.548,-0.6905,-1.045,-4.02,1.032,4.38,0,0,0,0,0,0,0,0,0,0,0,0,0,0,0,0,
499,0.826,-0.6478,-11.54,-7.5,18.5,1.747,-0.3123,-15.91,-15.68,-0.6154,-0.05,2.159,5.99,5.712,4.132,12.61,0,0,0,0,0,0,0,0,0,0,0,0,0,0,0,0,
500,6.236,6.339,-15.27,-5.695,15.17,6.183,6.284,5.607,-7.425,3.659,0.0013,2.885,0.9825,8.4,1.577,9.536,0,0,0,0,0,0,0,0,0,0,0,0,0,0,0,0,
501,7.468,0.2383,-6.425,4.342,10.77,6.307,-4.417,7.974,0.4043,-1.914,-3.475,-2.853,-12.24,-3.561,-1.154,-11.11,0,0,0,0,0,0,0,0,0,0,0,0,0,0,0,0,
502,1.363,-11.15,-0.9879,2.822,4.977,-1.499,-10.66,-11.49,-7.65,-9.581,-0.982,-5.683,-13.9,-10.65,2.851,-14.32,0,0,0,0,0,0,0,0,0,0,0,0,0,0,0,0,
503,-1.736,-10.66,-7.235,-3.934,2.284,-12.39,-11.76,-23.78,-8.77,-9.703,1.213,0.7135,0.2775,-1.433,2.226,2.733,0,0,0,0,0,0,0,0,0,0,0,0,0,0,0,0,
504,3.945,-0.6496,-12.08,-1.559,3.411,-6.748,-18.26,-21.51,-1.256,-3.943,-2.071,8.412,12.4,9.354,1.372,9.268,0,0,0,0,0,0,0,0,0,0,0,0,0,0,0,0,
505,10.5,8.301,-2.203,1.788,6.61,8.528,-13.66,-8.511,-3.296,3.912,-0.1093,10.15,11.82,10.43,7.061,3.546,0,0,0,0,0,0,0,0,0,0,0,0,0,0,0,0,
506,10.6,10.88,11.15,3.018,13.58,12.29,3.364,2.382,-5.731,7.989,4.405,5.808,5.316,4.231,4.522,-1.796,0,0,0,0,0,0,0,0,0,0,0,0,0,0,0,0,
507,5.176,5.424,8.726,5.838,17.52,8.631,8.607,1.643,-4.597,4.566,0.5186,0.5175,2.267,-1.128,-4.113,-3.087,0,0,0,0,0,0,0,0,0,0,0,0,0,0,0,0,
508,-0.0024,1.583,-1.183,4.894,14.01,5.722,2.87,-2.926,-7.886,0.558,-4.478,2.154,9.62,0.0788,-2.221,2.829,0,0,0,0,0,0,0,0,0,0,0,0,0,0,0,0,
509,2.493,9.86,-3.441,3.741,9.48,6.178,2.242,-5.047,-6.322,1.466,-1.123,10.56,21.16,4.042,4.831,10.33,0,0,0,0,0,0,0,0,0,0,0,0,0,0,0,0,
510,11.84,19.85,-0.9452,10.59,6.362,14.61,5.389,-0.0587,-3.286,3.831,4.628,15.24,19.56,4.828,5.793,7.615,0,0,0,0,0,0,0,0,0,0,0,0,0,0,0,0,
511,15.09,15.52,5.364,14.05,9.897,16.9,7.787,6.295,-9.675,2.595,5.141,11.13,6.323,0.4521,3.826,-1.989,0,0,0,0,0,0,0,0,0,0,0,0,0,0,0,0,
512,8.459,2.117,11.51,4.907,18.19,4.275,5.605,-2.165,-9.05,-2.662,2.542,4.692,-4.101,-6.093,3.775,-5.731,0,0,0,0,0,0,0,0,0,0,0,0,0,0,0,0,
513,2.067,-6.696,4.219,-2.384,14.37,-0.7947,-6.61,-12.47,1.697,-6.585,2.501,-0.2375,-8.809,-7.615,2.621,-4.531,0,0,0,0,0,0,0,0,0,0,0,0,0,0,0,0,
514,-1.694,-9.444,-5.997,-0.0437,6.212,5.571,-15.49,-9.295,2.078,-6.759,5.262,-3.132,-7.521,-3.886,0.9331,-3.669,0,0,0,0,0,0,0,0,0,0,0,0,0,0,0,0,
515,-2.51,-4.975,1.024,2.115,9.328,4.213,-7.724,-8.29,-3.185,-4.043,9.079,0.8673,0.7148,2.003,6.217,1.896,0,0,0,0,0,0,0,0,0,0,0,0,0,0,0,0,
516,3.582,7.584,7.173,0.8443,7.514,1.216,0.2698,-7.293,-1.341,3.881,12.47,7.287,8.062,10.92,13.17,8.405,0,0,0,0,0,0,0,0,0,0,0,0,0,0,0,0,
517,8.07,13.65,-8.519,-2.196,-4.413,4.629,-4.552,3.631,0.0726,11.85,9.928,6.015,5.981,15.28,11.65,6.692,0,0,0,0,0,0,0,0,0,0,0,0,0,0,0,0,
518,5.274,5.97,-18.76,-5.684,-7.056,2.015,-11.61,0.8479,-2.503,10.2,5.46,3.84,-1.148,8.49,9.458,4.741,0,0,0,0,0,0,0,0,0,0,0,0,0,0,0,0,
519,4.106,-1.03,-5.806,-5.314,-0.9513,-2.601,-14.11,-16.51,-3.676,3.768,9.392,9.037,-1.73,1.7,13.43,8.054,0,0,0,0,0,0,0,0,0,0,0,0,0,0,0,0,
520,6.599,1.092,2.494,-1.68,3.829,3.94,-9.991,-11.34,-0.7522,3.013,11.82,14.49,4.723,3.897,16.17,7.255,0,0,0,0,0,0,0,0,0,0,0,0,0,0,0,0,
521,9.441,9.874,5.204,6.319,12.98,11.06,3.758,13.34,4.094,8.372,3.401,12.77,8.853,9.06,10.95,-0.8562,0,0,0,0,0,0,0,0,0,0,0,0,0,0,0,0,
522,11.35,20.45,20.28,19.19,23.27,10.93,19.69,21.01,3.67,14.7,-3.804,3.128,5.136,10.52,-0.7901,-7.911,0,0,0,0,0,0,0,0,0,0,0,0,0,0,0,0,
523,8.552,20.39,25.69,23.09,18.47,15.7,26.87,11.54,-0.5546,15.71,-6.019,-6.008,-1.986,6.787,-6.949,-5.433,0,0,0,0,0,0,0,0,0,0,0,0,0,0,0,0,
524,4.174,7.054,15.61,13.8,5.295,20.75,17.64,3.334,-3.459,7.045,-6.806,-3.295,-2.5,-0.4232,-0.4441,1.196,0,0,0,0,0,0,0,0,0,0,0,0,0,0,0,0,
525,3.583,-2.962,11.29,6.598,1.536,12.28,-1.927,-3.058,-9.273,-3.86,-1.603,4.97,1.199,-4.711,7.078,1.393,0,0,0,0,0,0,0,0,0,0,0,0,0,0,0,0,
526,5.833,0.2025,5.008,7.934,1.804,6.02,-4.65,-2.379,-11.54,-2.889,3.78,7.673,1.052,-0.911,7.414,1.817,0,0,0,0,0,0,0,0,0,0,0,0,0,0,0,0,
527,11.88,9.935,0.9802,11.52,0.5293,12.77,10.7,7.48,-2.378,6.725,1.295,7.62,0.4047,5.176,4.936,5.3,0,0,0,0,0,0,0,0,0,0,0,0,0,0,0,0,
528,16.72,14.96,12.58,9.219,1.929,14.38,11.77,7.778,3.709,9.062,-1.724,4.532,-3.944,4.805,1.891,-1.859,0,0,0,0,0,0,0,0,0,0,0,0,0,0,0,0,
529,9.31,7.612,13.37,0.324,-3.674,5.689,-3.075,-3.058,-0.334,4.348,-2.849,-6.291,-15.58,-0.5326,-2.866,-14.76,0,0,0,0,0,0,0,0,0,0,0,0,0,0,0,0,
530,-7.159,-6.369,-1.661,-5.331,-19.57,-10.08,-16.63,-7.773,-5.767,0.2693,-6.902,-15.57,-19.64,-5.106,-6.433,-14.26,0,0,0,0,0,0,0,0,0,0,0,0,0,0,0,0,
531,-17.43,-10.9,-9.709,-6.585,-27.39,-29.38,-27.29,-7.593,-10.52,-3.879,-5.941,-10.32,-9.737,-4.17,-1.974,-1.878,0,0,0,0,0,0,0,0,0,0,0,0,0,0,0,0,
532,-10.91,-0.4127,-12.83,-6.377,-16.71,-24.81,-20.25,-7.465,-7.923,-3.11,4.442,4.389,3.579,4.935,7.165,8.704,0,0,0,0,0,0,0,0,0,0,0,0,0,0,0,0,
533,7.998,14.44,-0.2129,3.129,2.775,6.026,6.761,-2.123,5.66,5.824,11.25,13.82,10.42,12.82,11.72,12.22,0,0,0,0,0,0,0,0,0,0,0,0,0,0,0,0,
534,23.47,21.25,26.79,13.24,13.23,24.82,20.29,2.167,14.58,10.99,11.28,14.13,6.021,9.318,13.34,8.761,0,0,0,0,0,0,0,0,0,0,0,0,0,0,0,0,
535,25.33,16.08,21.75,6.039,5.308,22.46,13.12,-2.95,12.36,7.816,8.109,7.599,-1.625,3.299,8.725,2.127,0,0,0,0,0,0,0,0,0,0,0,0,0,0,0,0,
536,14.72,7.009,-1.862,-2.712,-10.25,15.1,5.533,-6.093,5.101,5.262,-4.879,-1.556,0.2113,4.239,-3.228,2.541,0,0,0,0,0,0,0,0,0,0,0,0,0,0,0,0,
537,2.558,7.164,6.542,3.795,-18.54,10.58,2.219,1.995,-7.393,4.255,-14.41,-0.8185,10.81,4.404,-3.144,8.835,0,0,0,0,0,0,0,0,0,0,0,0,0,0,0,0,
538,3.182,16.76,17.61,10.28,-15.7,13.39,9.832,9.993,-13.94,1.763,-2.11,12.18,20.58,1.8,9.441,8.324,0,0,0,0,0,0,0,0,0,0,0,0,0,0,0,0,
539,16.05,27.37,10.05,15.11,1.246,16.75,30.07,12.62,0.1432,3.482,13.15,22.88,23.98,7.882,15.79,8.86,0,0,0,0,0,0,0,0,0,0,0,0,0,0,0,0,
540,27.24,35.5,20.53,27.5,21.49,18.67,35.69,14.52,17.7,9.251,15.26,22.33,20.61,16.96,16.02,16.49,0,0,0,0,0,0,0,0,0,0,0,0,0,0,0,0,
541,25.13,31.66,30.14,26.11,14.09,21.57,14.76,6.248,14.39,8.93,9.94,10.26,6.687,11.82,9.472,9.518,0,0,0,0,0,0,0,0,0,0,0,0,0,0,0,0,
542,8.164,9.621,9.05,3.781,-13.5,10.01,-7.804,-10.38,-1.094,3.835,-2.782,-5.476,-12.95,1.056,-3.883,-6.579,0,0,0,0,0,0,0,0,0,0,0,0,0,0,0,0,
543,-8.476,-11.81,-4.543,-8.062,-20.08,-7.778,-15.93,-11.87,-7.698,3.472,-10.63,-9.151,-18.72,0.0411,-5.866,-4.462,0,0,0,0,0,0,0,0,0,0,0,0,0,0,0,0,
544,-8.902,-13.91,-0.6959,-1.359,-12.96,-5.803,-10.91,-1.554,-1.276,6.447,-0.8171,0.1986,-9.635,1.109,4.213,2.369,0,0,0,0,0,0,0,0,0,0,0,0,0,0,0,0,
545,2.834,-1.211,-2.756,5.908,-13.72,7.125,7.263,5.484,9.389,7.736,11.26,9.681,-0.5879,-0.3345,10.73,-1.825,0,0,0,0,0,0,0,0,0,0,0,0,0,0,0,0,
546,15.27,12.87,5.876,12.77,-6.562,18.55,24.82,17.68,15.01,8.019,15.13,12.88,4.385,2.827,12.92,-2.495,0,0,0,0,0,0,0,0,0,0,0,0,0,0,0,0,
547,19.92,17.9,22.3,18.66,2.883,22.02,22.77,21.01,14.13,8.842,13.41,8.505,2.633,8.285,10.75,-0.324,0,0,0,0,0,0,0,0,0,0,0,0,0,0,0,0,
548,12.51,13.22,15.93,12.75,-2.783,4.158,5.223,-5.988,6.406,8.595,5.673,0.9228,-3.487,10.21,4.229,-3.778,0,0,0,0,0,0,0,0,0,0,0,0,0,0,0,0,
549,0.9743,5.304,3.492,-0.1084,-10.07,-12.79,-11.32,-26.08,-9.136,3.421,-0.5023,-1.101,-5.771,7.138,3.545,-3.256,0,0,0,0,0,0,0,0,0,0,0,0,0,0,0,0,
550,-3.483,-2.058,9.348,-3.146,-9.882,-1.443,-10.5,-9.022,-15.11,-2.151,-0.5708,2.364,-4.902,1.107,6.886,3.129,0,0,0,0,0,0,0,0,0,0,0,0,0,0,0,0,
551,3.458,-0.8776,19.15,9.991,2.775,20.44,12.08,13.57,3.237,1.537,0.4569,8.944,1.318,-1.189,5.939,5.912,0,0,0,0,0,0,0,0,0,0,0,0,0,0,0,0,
552,20.87,14.2,22,27.78,24.32,36.11,34.16,21.88,23.84,8.722,5.418,19.38,11.05,0.5276,7.176,3.805,0,0,0,0,0,0,0,0,0,0,0,0,0,0,0,0,
553,34.48,27.7,23.22,30.68,23.6,42.05,36.5,21.29,24.24,8.4,12.51,22.81,9.611,0.1805,8.209,-2.803,0,0,0,0,0,0,0,0,0,0,0,0,0,0,0,0,
554,27.42,24.82,23.85,19.34,2.173,28.59,23.15,10.37,14.03,5.98,11.28,11.81,0.02,0.2263,2.328,-9.489,0,0,0,0,0,0,0,0,0,0,0,0,0,0,0,0,
555,9.88,16.56,20.06,12.49,-8.101,8.197,5.702,-1.385,6.14,8.487,6.719,3.736,0.0018,6.389,7.074,-1.537,0,0,0,0,0,0,0,0,0,0,0,0,0,0,0,0,
556,1.905,15.01,11.95,8.647,-11.48,-1.612,-2.633,-8.793,-0.1669,9.94,6.662,6.353,5.761,13.41,19.22,12.61,0,0,0,0,0,0,0,0,0,0,0,0,0,0,0,0,
557,-1.316,9.394,5.911,-1.322,-15.76,-7.191,-1.8,-12.48,-6.322,7.476,3.14,3.139,-0.6264,10.79,8.727,5.483,0,0,0,0,0,0,0,0,0,0,0,0,0,0,0,0,
558,-7.202,-4.632,1.37,-3.587,-9.743,-5.953,-0.4312,-1.653,-6.017,7.664,-4.063,-5.435,-14.27,0.7234,-10.17,-12.34,0,0,0,0,0,0,0,0,0,0,0,0,0,0,0,0,
559,-6.37,-8.898,-4.839,5.934,-3.905,6.964,6.34,10.87,1.464,9.417,-5.455,-7.649,-16.78,-4.274,-11.83,-16.35,0,0,0,0,0,0,0,0,0,0,0,0,0,0,0,0,
560,-1.128,-2.353,-1.852,12.38,-7.113,11.62,12.82,11.09,2.057,6.367,-2.357,-9.445,-13.78,-2.58,-10.7,-15.95,0,0,0,0,0,0,0,0,0,0,0,0,0,0,0,0,
561,-4.556,-4.082,8.693,13.19,-6.896,-1.625,2.776,9.387,-6.311,0.7489,1.915,-14.24,-16.89,-2.683,-9.786,-16.86,0,0,0,0,0,0,0,0,0,0,0,0,0,0,0,0,
562,-15.43,-13.2,4.096,3.152,-10.91,-20.84,-16.87,-6.059,-11.35,-5.823,2.146,-18.13,-19.61,-5.504,-3.252,-11.79,0,0,0,0,0,0,0,0,0,0,0,0,0,0,0,0,
563,-25.8,-18.14,-11.91,-18.76,-24.22,-34.3,-30.38,-30.13,-14.93,-11.84,-6.614,-21.14,-17.23,-6.549,-4.579,-7.786,0,0,0,0,0,0,0,0,0,0,0,0,0,0,0,0,
564,-27.58,-18.06,-14.78,-23.09,-21.45,-26.78,-27.21,-23.71,-17.52,-9.016,-10.41,-18.09,-10.77,-6.505,-8.068,-6.818,0,0,0,0,0,0,0,0,0,0,0,0,0,0,0,0,
565,-14.72,-12.2,-4.631,-1.927,-7.365,2.424,-5.569,0.1505,-8.002,-0.8822,-4.775,-8.473,-3.88,-6.435,-3.031,-3.445,0,0,0,0,0,0,0,0,0,0,0,0,0,0,0,0,
566,4.16,-2.223,7.492,13.63,-1.784,24.55,14.66,8.09,7.779,3.034,-4.22,-0.2487,-1.645,-2.993,-0.6262,-1.493,0,0,0,0,0,0,0,0,0,0,0,0,0,0,0,0,
567,14.97,4.696,11.78,12.82,8.678,18.12,16.81,6.15,13.98,6.264,-3.154,4.071,-0.9841,2.109,-1.868,-4.268,0,0,0,0,0,0,0,0,0,0,0,0,0,0,0,0,
568,12.06,5.673,-2.858,4.731,9.733,-3.841,5.493,-1.887,9.147,7.881,3.637,2.43,-1.917,2.566,-1.082,-9.322,0,0,0,0,0,0,0,0,0,0,0,0,0,0,0,0,
569,0.2234,2.168,-16.39,-6.145,-13.94,-12.72,-9.172,-12.97,0.5234,4.464,4.726,-1.175,-2.485,1.392,1.808,-8.752,0,0,0,0,0,0,0,0,0,0,0,0,0,0,0,0,
570,-6.816,-0.8067,-9.707,-13.67,-23.39,-9.081,-18.6,-15.05,-6.167,4.097,4.133,2.644,4.44,4.861,9.382,0.5488,0,0,0,0,0,0,0,0,0,0,0,0,0,0,0,0,
571,-6.761,-1.313,-11.25,-18.57,-22.77,-16.72,-23.12,-10.33,-9.211,4.507,4.226,5.173,6.085,8.433,10.65,5.676,0,0,0,0,0,0,0,0,0,0,0,0,0,0,0,0,
572,-10.38,-5.213,-24.71,-19.32,-37.85,-23.56,-23.46,-2.249,-10.51,-0.5224,-2.18,-2.514,-5.224,5.735,-1.499,0.0549,0,0,0,0,0,0,0,0,0,0,0,0,0,0,0,0,
573,-13.36,-10.23,-17.14,-5.804,-28.66,-8.511,-13.37,4.748,-11.32,-0.1425,-6.69,-8.979,-13.33,1.33,-8.245,-5.87,0,0,0,0,0,0,0,0,0,0,0,0,0,0,0,0,
574,-7.946,-9.331,-2.782,10.06,3.658,5.743,-4.473,4.046,-8.758,6.075,-6.523,-9.486,-14.97,1.874,-5.568,-7.836,0,0,0,0,0,0,0,0,0,0,0,0,0,0,0,0,
575,-4.265,-7.422,-4.091,9.168,5.295,3.442,-7.767,-0.675,-1.455,5.281,-8.291,-10.36,-16.18,3.227,-7.831,-12.02,0,0,0,0,0,0,0,0,0,0,0,0,0,0,0,0,
576,-6.28,-6.998,-4.631,-1.352,-10.38,-0.0122,-6.546,-9.508,2.416,2.406,-6.698,-10.5,-15.23,1.757,-9.58,-16.02,0,0,0,0,0,0,0,0,0,0,0,0,0,0,0,0,
577,-6.518,-4.584,-4.236,-8.923,-10.81,-1.195,-0.0295,-18.37,-2.616,3.111,-2.551,-10.07,-15.08,1.925,-3.298,-11.42,0,0,0,0,0,0,0,0,0,0,0,0,0,0,0,0,
578,-8.613,-6.125,-8.342,-8.883,-9.254,-7.282,-4.529,-14.85,-7.725,-0.6521,-1.666,-11.67,-17.94,0.555,3,-4.246,0,0,0,0,0,0,0,0,0,0,0,0,0,0,0,0,
579,-12.88,-9.691,-0.0214,2.873,-10.3,-10.31,-5.709,-2.195,-3.439,-3.858,2.652,-9.083,-16.44,-3.87,6.105,-1.654,0,0,0,0,0,0,0,0,0,0,0,0,0,0,0,0,
580,-5.238,-2.405,19.03,20.02,3.688,6.887,9.829,11.6,10.88,2.361,10.1,-0.3486,-8.771,-0.9549,6.282,0.9164,0,0,0,0,0,0,0,0,0,0,0,0,0,0,0,0,
581,11.77,7.921,32.8,30.05,27.78,34.54,23.93,20.37,26.59,8.945,11.07,5.483,-7.008,5.912,3.587,-0.9524,0,0,0,0,0,0,0,0,0,0,0,0,0,0,0,0,
582,18.46,7.867,35.67,30.37,33.33,39.45,26.11,16.96,28.76,10.4,7.868,5.955,-10.81,7.034,3.44,-5.409,0,0,0,0,0,0,0,0,0,0,0,0,0,0,0,0,
583,12.17,5.22,22.04,23.25,15.07,22.12,18.49,9.546,17.06,9.966,6.434,6.53,-3.907,8.198,5.172,3.078,0,0,0,0,0,0,0,0,0,0,0,0,0,0,0,0,
584,4.987,4.912,-1.228,8.563,-4.585,5.345,2.987,1.61,6.801,7.248,8.101,10.68,7.724,11.33,7.95,13.68,0,0,0,0,0,0,0,0,0,0,0,0,0,0,0,0,
585,2.985,5.086,-13.41,-7.54,-14.88,-6.236,-6.468,-12.28,1.498,7.735,15.22,17.76,10.22,13.07,15.82,10.43,0,0,0,0,0,0,0,0,0,0,0,0,0,0,0,0,
586,3.538,10.54,-10.97,-11.27,-17.24,-7.651,-4.705,-15.14,-2.874,12.93,20.03,18.87,7.713,13.98,18.4,3.938,0,0,0,0,0,0,0,0,0,0,0,0,0,0,0,0,
587,1.122,15.08,-5.498,-1.737,-12.9,-1.794,-1.658,1.738,-0.7896,11.66,13.3,9.242,0.2657,9.298,9.359,-2.173,0,0,0,0,0,0,0,0,0,0,0,0,0,0,0,0,
588,-3.011,10.1,-1.466,3.566,-3.547,-3.482,2.054,12.54,5.631,4.666,6.105,-0.4688,-9.467,0.7378,1.823,-10.6,0,0,0,0,0,0,0,0,0,0,0,0,0,0,0,0,
589,-5.779,1.612,1.192,-2.469,5.167,-8.954,-1.456,1.752,4.447,-0.0934,3.553,-6.78,-15.46,-3.11,-4.314,-14.23,0,0,0,0,0,0,0,0,0,0,0,0,0,0,0,0,
590,-12.69,-9.149,-3.943,-9.099,-3.094,-14.48,-18.81,-16.91,-2.388,-4.905,-3.921,-15.17,-23.36,-4.536,-12.28,-15.2,0,0,0,0,0,0,0,0,0,0,0,0,0,0,0,0,
591,-23.29,-20.57,-20.32,-13.42,-27.26,-21.35,-26.76,-27.28,-8.633,-6.763,-8.734,-20.34,-27.24,-4.7,-10.42,-15.38,0,0,0,0,0,0,0,0,0,0,0,0,0,0,0,0,
592,-28.65,-22.39,-32.91,-18.28,-40.99,-22.59,-17.4,-25.73,-17.19,-1.079,-7.959,-22.44,-24.36,-1.756,-9.947,-11.09,0,0,0,0,0,0,0,0,0,0,0,0,0,0,0,0,
593,-30.26,-19.98,-27.38,-16.62,-36.02,-26.04,-12.29,-16.49,-22,2.079,-17.78,-29.83,-29.27,-2.813,-25.62,-13,0,0,0,0,0,0,0,0,0,0,0,0,0,0,0,0,
594,-30.42,-20.6,-13.84,-8.032,-20.26,-27.39,-12.56,-6.67,-14.58,-2.347,-27.49,-31.65,-32.69,-6.87,-30.25,-21.55,0,0,0,0,0,0,0,0,0,0,0,0,0,0,0,0,
595,-19.28,-13.72,-2.256,-1.153,0.4454,-2.081,-6.291,-3.306,-3.833,-3.961,-15.06,-16.63,-20.31,-3.907,-10.41,-16.81,0,0,0,0,0,0,0,0,0,0,0,0,0,0,0,0,
596,1.273,-1.705,11.54,6.507,13.71,24.33,2.536,-3.831,2.13,-0.1578,2.893,-1.69,-8.655,0.2388,1.877,-6.813,0,0,0,0,0,0,0,0,0,0,0,0,0,0,0,0,
597,10.03,0.4218,19.65,14.51,11.36,15.02,4.552,-2.844,5.751,0.6121,5.116,0.1042,-8.779,-2.88,-1.924,-10.99,0,0,0,0,0,0,0,0,0,0,0,0,0,0,0,0,
598,4.18,-0.6137,11.88,11.42,-2.01,1.483,3.192,-3.273,4.085,-0.2105,2.557,2.291,-6.515,-1.392,0.2937,-9.491,0,0,0,0,0,0,0,0,0,0,0,0,0,0,0,0,
599,3.539,6.964,-3.012,0.0196,-13.68,6.716,9.331,-2.223,-3.959,3.752,5.01,10.41,3.177,7.857,4.9,3.735,0,0,0,0,0,0,0,0,0,0,0,0,0,0,0,0,
600,7.833,12.96,-14.64,-7.32,-14.13,3.017,10.51,0.4253,-6.129,7.213,4.987,12.43,4.321,6.928,-0.0325,0.0386,0,0,0,0,0,0,0,0,0,0,0,0,0,0,0,0,
601,5.354,9.107,-15.53,-6.861,-9.471,-2.911,-5.322,-6.498,4.937,5.614,3.097,9.039,-3.029,-1.698,-2.78,-9.488,0,0,0,0,0,0,0,0,0,0,0,0,0,0,0,0,
602,4.539,4.168,-5.315,-0.4496,-5.049,10.5,-11.04,-12.61,17.14,3.492,4.428,6.819,-3.485,-2.825,0.46,-5.761,0,0,0,0,0,0,0,0,0,0,0,0,0,0,0,0,
603,6.008,-0.2071,1.688,5.162,-0.9814,15.04,-1.379,-2.33,16.75,1.266,3.361,-0.3767,-6.205,-4.822,-2.117,-10.97,0,0,0,0,0,0,0,0,0,0,0,0,0,0,0,0,
604,-3.416,-10.91,6.141,5.603,-2.113,-1.953,-5.527,5.308,8.849,-3.946,-2.402,-11.96,-20.19,-12.17,-8.486,-21.22,0,0,0,0,0,0,0,0,0,0,0,0,0,0,0,0,
605,-15.91,-23.2,10.03,2.272,-8.242,-10.75,-14.02,-5.594,4.643,-9.673,-7.675,-17.49,-31.21,-13.74,-11.14,-18.07,0,0,0,0,0,0,0,0,0,0,0,0,0,0,0,0,
606,-19.96,-28.7,-4.498,-5.133,-17.1,-7.217,-11.17,-16.03,2.603,-10.22,-8.806,-17.27,-33.93,-11.02,-10.66,-16.7,0,0,0,0,0,0,0,0,0,0,0,0,0,0,0,0,
607,-19.97,-27.42,-18.64,-10.06,-21.65,-5.712,-11.74,-9.683,-0.2646,-4.577,-5.699,-16.38,-31.74,-9.202,-8.435,-17.51,0,0,0,0,0,0,0,0,0,0,0,0,0,0,0,0,
608,-16.08,-21.61,-4.85,-7.355,-14.31,-1.369,-11.88,-0.2797,0.0303,-0.5062,-5.64,-14.87,-27.46,-7.669,-9.645,-13.53,0,0,0,0,0,0,0,0,0,0,0,0,0,0,0,0,
609,-7.736,-14.65,3.983,-4.649,-12.24,8.884,-4.845,-1.815,1.493,-1.011,-9.387,-12.52,-24.33,-6.32,-11.97,-14.34,0,0,0,0,0,0,0,0,0,0,0,0,0,0,0,0,
610,-0.3066,-8.929,-5.1,-1.44,-20.73,14.11,0.8169,-2.175,0.9783,-0.3319,-6.219,-7.754,-17.84,-3.252,-3.744,-9.504,0,0,0,0,0,0,0,0,0,0,0,0,0,0,0,0,
611,6.55,-3.07,-0.6244,5.157,-13.76,8.472,13.11,3.507,5.018,0.3013,1.283,1.213,-9.015,-1.692,5.999,4.214,0,0,0,0,0,0,0,0,0,0,0,0,0,0,0,0,
612,13.98,1.695,6.729,8.36,3.81,3.889,25.47,3.047,13.46,0.0411,6.477,12.67,-1.76,-1.208,6.69,9.745,0,0,0,0,0,0,0,0,0,0,0,0,0,0,0,0,
613,21.08,3.459,2.776,9.113,7.49,8.653,12.78,1.711,14.81,3.382,12.96,21.45,4.617,4.723,9.37,9.719,0,0,0,0,0,0,0,0,0,0,0,0,0,0,0,0,
614,24.45,2.574,3.841,6.671,2.485,8.273,-9.297,0.2843,7.83,4.588,13.7,18.94,2.295,6.015,8.907,6.387,0,0,0,0,0,0,0,0,0,0,0,0,0,0,0,0,
615,14.5,-0.9965,-0.9916,-1.911,-5.724,-2.049,-10.78,-8.964,2.382,0.5191,2.505,4.728,-5.734,-1.55,-4.045,-2.987,0,0,0,0,0,0,0,0,0,0,0,0,0,0,0,0,
616,-4.373,-3.106,-12.86,-2.829,-18.38,-8.131,-1.456,-5.334,1.426,-0.9814,-7.226,-8.957,-8.093,-2.986,-11.66,-7.541,0,0,0,0,0,0,0,0,0,0,0,0,0,0,0,0,
617,-14.18,-2.321,-8.846,4.271,-23.54,-8.944,-1.346,8.352,-0.9625,-1.435,-9.56,-18.14,-12.38,-1.569,-12.8,-7.71,0,0,0,0,0,0,0,0,0,0,0,0,0,0,0,0,
618,-16.01,-7.908,-7.935,-1.157,-21.88,-11.43,-10.06,-4.851,-6.678,-5.231,-15.92,-27.38,-22.54,-6.271,-23.03,-10.66,0,0,0,0,0,0,0,0,0,0,0,0,0,0,0,0,
619,-19.69,-22.26,-20.27,-14.58,-22.03,-20.46,-22.75,-26.83,-9.013,-8.609,-25.3,-30.16,-30.41,-9.871,-28.06,-14.1,0,0,0,0,0,0,0,0,0,0,0,0,0,0,0,0,
620,-20.24,-34.11,-18.96,-17.32,-21.55,-35.42,-34.5,-20.48,-6.521,-10.84,-20.26,-20.52,-30.95,-11.36,-14.56,-11.55,0,0,0,0,0,0,0,0,0,0,0,0,0,0,0,0,
621,-16.8,-34.24,-17.65,-15.77,-31.29,-38.42,-32.98,-6.103,-6.679,-11.7,-4.415,-11.08,-22.14,-10.25,-2.057,2.293,0,0,0,0,0,0,0,0,0,0,0,0,0,0,0,0,
622,-19.35,-24.68,-28.85,-19.19,-49.66,-26.67,-19.08,-5.417,-11.54,-9.635,-3.902,-16.46,-16.43,-4.446,-6.522,6.512,0,0,0,0,0,0,0,0,0,0,0,0,0,0,0,0,
623,-27.38,-16.96,-21.87,-17.95,-41.5,-20.23,-12.35,-9.805,-17.27,-6.281,-17.81,-28.9,-21.62,-3.024,-16.47,-12.35,0,0,0,0,0,0,0,0,0,0,0,0,0,0,0,0,
624,-27.06,-14.21,-5.42,-9.951,-15.26,-15.37,-15.43,-13.31,-17.28,-1.11,-20.78,-27.14,-19.76,-3.29,-15.31,-17.71,0,0,0,0,0,0,0,0,0,0,0,0,0,0,0,0,
625,-11.12,-8.167,-7.428,-6.96,-11.69,-2.266,-14.82,-13.22,-6.263,2.362,-10.38,-10.65,-9.585,2.085,-4.93,-1.993,0,0,0,0,0,0,0,0,0,0,0,0,0,0,0,0,
626,7.338,-4.011,-10.23,-8.964,-13.86,4.638,-11.81,-10.68,4.588,-1.092,-1.347,1.509,-9.751,2.174,3.547,1.673,0,0,0,0,0,0,0,0,0,0,0,0,0,0,0,0,
627,13.47,-8.246,-3.459,-6.354,-3.391,0.4254,-10.36,-7.828,3.983,-4.013,3.589,5.937,-12.88,-3.501,6.636,1.891,0,0,0,0,0,0,0,0,0,0,0,0,0,0,0,0,
628,11.77,-7.984,-2.994,0.8186,-10.83,-5.019,-3.649,-0.9007,1.77,-1.876,8.727,10.28,-6.582,-3.321,7.005,8.197,0,0,0,0,0,0,0,0,0,0,0,0,0,0,0,0,
629,10.8,0.5436,-9.908,6.075,-29.23,-6.632,6.683,3.587,3.494,-0.3606,11.24,11.02,-3.878,-1.088,7.764,3.081,0,0,0,0,0,0,0,0,0,0,0,0,0,0,0,0,
630,9.863,4.981,-14.04,5.965,-20.41,-2.107,7.536,1.696,1.904,-0.108,3.459,3.49,-10.91,-3.245,1.152,-3.642,0,0,0,0,0,0,0,0,0,0,0,0,0,0,0,0,
631,5.921,0.5728,-9.166,0.1043,-3.413,-0.0449,-1.112,1.284,-2.618,-2.682,-12.83,-10.22,-17.84,-8.48,-18.89,-6.644,0,0,0,0,0,0,0,0,0,0,0,0,0,0,0,0,
632,-1.566,-8.39,0.102,-6.508,-10.37,-5.781,-1.183,-4.628,-6.699,-8.083,-24.86,-21.72,-22.73,-12.28,-28.84,-15.44,0,0,0,0,0,0,0,0,0,0,0,0,0,0,0,0,
633,-6.655,-12.58,1.365,-4.421,-18.74,-3.019,7.138,-15.61,-10.76,-8.649,-26.87,-21.63,-24.21,-9.037,-16.61,-14.85,0,0,0,0,0,0,0,0,0,0,0,0,0,0,0,0,
634,-6.33,-10.1,-6.233,3.821,-14.65,5.696,4.199,-8.143,-14.35,-7.43,-24.35,-15.45,-19.94,-5.244,-9.698,-7.541,0,0,0,0,0,0,0,0,0,0,0,0,0,0,0,0,
635,-7.361,-9.161,-10.93,3.866,-22.2,-2.138,-2.494,9.576,-17.14,-8.194,-19.01,-11.76,-15.37,-7.585,-13.54,-10.86,0,0,0,0,0,0,0,0,0,0,0,0,0,0,0,0,
636,-8.309,-4.955,-6.057,-1.239,-31.7,-14.65,0.5212,6.107,-18.49,-2.674,-10.95,-8.03,-10.22,-5.615,-10.02,-9.455,0,0,0,0,0,0,0,0,0,0,0,0,0,0,0,0,
637,-3.72,5.111,-3.332,-0.3924,-23.11,-11.24,-2.518,-9.137,-16.37,3.086,-7.744,-5.999,-4.782,1.863,-6.488,-1.05,0,0,0,0,0,0,0,0,0,0,0,0,0,0,0,0,
638,-0.4206,5.347,-15.73,-6.327,-19.8,-6.982,-13.97,-13.2,-9.377,-4.165,-8.107,-6.976,-6.014,2.287,-6.625,-3.428,0,0,0,0,0,0,0,0,0,0,0,0,0,0,0,0,
639,-1.646,-5.84,-29.51,-23.29,-25.62,-15.05,-21.84,-15,-3.047,-16.5,-3.85,-5.125,-10.75,-2.936,-0.9897,-7.694,0,0,0,0,0,0,0,0,0,0,0,0,0,0,0,0,
640,-2.746,-17.07,-27.31,-28.36,-21.39,-25.41,-31.52,-21.37,-5.859,-20.75,-3.095,-3.723,-14.7,-6.082,-0.9745,-6.816,0,0,0,0,0,0,0,0,0,0,0,0,0,0,0,0,
641,-4.108,-23.5,-18.33,-20.79,-19.26,-27.89,-31.39,-21.03,-10.72,-15.43,-10.25,-6.243,-16.23,-6.532,-11.01,-7.936,0,0,0,0,0,0,0,0,0,0,0,0,0,0,0,0,
642,-3.257,-16.61,-14.31,-13.64,-18.59,-14.55,-2.844,-9.708,-6.164,-4.636,-12.24,-5.795,-9.921,-3.356,-13.04,-6.822,0,0,0,0,0,0,0,0,0,0,0,0,0,0,0,0,
643,4.551,1.582,-6.902,1.133,-3.765,9.738,25.4,6.893,0.0494,4.558,-7.112,-2.248,-2.78,0.7138,-5.59,-6.505,0,0,0,0,0,0,0,0,0,0,0,0,0,0,0,0,
644,10.99,11.13,7.501,13.67,3.576,16.2,20.16,11.88,-2.164,5.884,-3.546,-4.087,-4.149,-0.8915,-3.261,-12.91,0,0,0,0,0,0,0,0,0,0,0,0,0,0,0,0,
645,4.955,6.317,8.116,3.617,-9.54,-5.879,0.3992,-3.337,-8.914,-0.0936,-6.22,-12.69,-8.582,-5.157,-8.629,-13.92,0,0,0,0,0,0,0,0,0,0,0,0,0,0,0,0,
646,-6.514,-3.528,-8.798,-8.736,-16.86,-24.39,-8.826,-12.68,-12.34,-5.002,-13.04,-17.66,-10.11,-3.587,-11.34,-7.05,0,0,0,0,0,0,0,0,0,0,0,0,0,0,0,0,
647,-7.742,-11.96,-14.65,-5.724,-7.87,-15.49,-14.54,-4.245,-7.328,-2.612,-11.82,-10.78,-8.091,1.882,-5.512,-2.134,0,0,0,0,0,0,0,0,0,0,0,0,0,0,0,0,
648,2.056,-10.91,-6.832,-1.388,0.7388,3.112,-14.97,1.091,0.7938,1.03,-3.174,-0.3512,-4.446,3.424,-0.6064,2.977,0,0,0,0,0,0,0,0,0,0,0,0,0,0,0,0,
649,11.01,1.072,-3.643,1.635,2.418,9.278,1.506,5.375,-1.259,1.211,-1.34,2.825,0.1674,3.449,-2.767,6.972,0,0,0,0,0,0,0,0,0,0,0,0,0,0,0,0,
650,11.16,12.11,-0.083,4.791,2.704,4.989,16.65,12.07,-10.73,3.469,-2.466,0.8934,6.343,8.412,-2.393,4.239,0,0,0,0,0,0,0,0,0,0,0,0,0,0,0,0,
651,4.096,17.62,5.93,2.722,0.7584,2.002,18.57,2.974,-12.08,7.276,-1.502,-1.457,8.733,12.99,1.544,2.349,0,0,0,0,0,0,0,0,0,0,0,0,0,0,0,0,
652,-1.788,21.17,5.527,2.326,-1.847,2.945,20.3,-8.42,-6.707,6.606,-4.885,-2.054,7.021,10.06,1.273,2.505,0,0,0,0,0,0,0,0,0,0,0,0,0,0,0,0,
653,-0.529,16.94,-3.267,3.812,0.2609,-1.247,11.63,-0.3608,-4.914,2.903,-5.643,2.391,6.642,5.481,2.41,0.9836,0,0,0,0,0,0,0,0,0,0,0,0,0,0,0,0,
654,6.034,3.752,-19.27,0.3568,0.3394,-10.53,-10.71,8.888,-3.256,-1.055,2.286,8.562,5.897,5.223,7.895,5.551,0,0,0,0,0,0,0,0,0,0,0,0,0,0,0,0,
655,12.09,-4.898,-25.25,-4.928,-2.663,-10.77,-18.03,1.617,-0.5019,-4.448,6.358,6.505,2.465,3.661,6.047,7.857,0,0,0,0,0,0,0,0,0,0,0,0,0,0,0,0,
656,10.3,-5.285,-11.88,-11.12,2.668,-5.312,-10.85,-12.03,-2.93,-4.888,0.6416,-3.046,-2.909,0.085,-2.391,-0.672,0,0,0,0,0,0,0,0,0,0,0,0,0,0,0,0,
657,2.412,-4.623,-1.708,-11.32,10.87,-5.268,-4.767,-11.8,-5.389,-3.491,-3.116,-6.769,-4.311,2.444,-2.089,2.651,0,0,0,0,0,0,0,0,0,0,0,0,0,0,0,0,T2
658,1.363,-1.067,1.325,1.562,11.93,1.005,6.214,5.176,-2.793,-2.117,1.58,-1.414,1.776,5.776,6.161,14.11,0,0,0,0,0,0,0,0,0,0,0,0,0,0,0,0,
659,8.109,6.317,8.385,11.15,13.59,14.12,13.65,11.12,0.3535,0.7677,4.915,3.186,4.252,2.721,8.483,4.446,0,0,0,0,0,0,0,0,0,0,0,0,0,0,0,0,
660,12.61,9.182,6.121,6.763,16.63,12.93,8.486,-2.174,4.134,2.508,2.046,4.827,2.012,2.844,5.095,-7.132,0,0,0,0,0,0,0,0,0,0,0,0,0,0,0,0,
661,14.83,5.503,-5.349,0.6321,11.43,2.011,3.316,-3.613,9.401,1.98,2.4,7.072,3.793,7.849,4.326,2.065,0,0,0,0,0,0,0,0,0,0,0,0,0,0,0,0,
662,15.99,2.148,-8.236,1.177,4.386,-0.6719,0.9047,9.294,11.85,5.201,9.259,7.638,3.747,7.612,5.917,9.972,0,0,0,0,0,0,0,0,0,0,0,0,0,0,0,0,
663,13.13,2.672,-8.541,4.463,7.422,-0.4785,2.999,9.333,6.909,8.124,12.75,5.479,1.195,5.191,6.278,9.098,0,0,0,0,0,0,0,0,0,0,0,0,0,0,0,0,
664,9.758,3.492,-8.926,5.845,18.51,-0.7241,14.33,2.59,-3.356,3.173,5.783,3.32,1.315,4.445,3.856,9.422,0,0,0,0,0,0,0,0,0,0,0,0,0,0,0,0,
665,8.715,3.508,5.42,10.66,31.04,8.072,20.29,4.713,-4.7,0.7603,-2.335,3.472,2.147,3.403,2.4,6.631,0,0,0,0,0,0,0,0,0,0,0,0,0,0,0,0,
666,9.41,8.804,21.88,17.8,35.23,16.63,16.39,3.711,4.911,5.872,-0.4493,6.708,6.504,5.97,5.411,4.035,0,0,0,0,0,0,0,0,0,0,0,0,0,0,0,0,
667,11.8,15.89,17.14,10.45,22.95,8.208,13.39,-1.89,6.16,4.8,2.072,6.886,7.279,7.375,1.001,2.183,0,0,0,0,0,0,0,0,0,0,0,0,0,0,0,0,
668,9.911,10.2,0.9701,-6.257,6.481,-7.463,2.828,-1.509,-3.644,-2.551,-4.062,-1.881,-6.026,-0.0504,-14.83,-9.453,0,0,0,0,0,0,0,0,0,0,0,0,0,0,0,0,
669,1.001,-5.976,-13.04,-12.5,0.1975,-15.28,-15.8,-3.838,-9.234,-5.121,-9.435,-10.98,-18.37,-6.515,-18.75,-16.92,0,0,0,0,0,0,0,0,0,0,0,0,0,0,0,0,
670,-5.498,-15.45,-20.98,-13.19,3.913,-17.57,-20.67,-8.552,-6.31,-5.494,-7.558,-10.5,-17.95,-5.06,-5.601,-6.314,0,0,0,0,0,0,0,0,0,0,0,0,0,0,0,0,
671,-4.335,-15.44,-13.09,-13.6,16.92,-12.36,-13.9,-4.04,-0.243,-6.837,-3.006,-5.928,-15.13,-2.649,0.2137,2.411,0,0,0,0,0,0,0,0,0,0,0,0,0,0,0,0,
672,0.2941,-13.04,-2.003,-7.121,28.77,-0.3467,-9.159,-1.325,2.584,-6.634,-2.109,-4.634,-14.74,-2.317,-4.456,-0.7232,0,0,0,0,0,0,0,0,0,0,0,0,0,0,0,0,
673,3.692,-9.123,-3.765,0.3343,27.69,1.555,1.619,-5.233,2.062,-7.5,-3.087,-4.127,-12.4,-2.944,-3.923,-2.676,0,0,0,0,0,0,0,0,0,0,0,0,0,0,0,0,
674,3.148,-5.859,-1.958,1.873,24.18,-3.61,14.18,-3.304,1.271,-8.236,2.468,-1.85,-8.366,-4.369,0.5876,-1.084,0,0,0,0,0,0,0,0,0,0,0,0,0,0,0,0,
675,1.848,-4.957,2.108,0.7601,22.84,0.5652,13.78,-1.37,-3.022,-3.46,6.574,0.3827,-2.116,-2.785,2.255,4.587,0,0,0,0,0,0,0,0,0,0,0,0,0,0,0,0,
676,2.987,-0.1536,-5.286,0.637,15.59,2.422,10.5,-4.713,-6.209,3.589,0.0053,1.274,7.878,3.322,3.653,13.06,0,0,0,0,0,0,0,0,0,0,0,0,0,0,0,0,
677,1.167,7.024,-6.985,1.831,8.502,-8.357,8.26,-1.815,-1.828,6.925,-3.138,-0.1221,11.51,7.408,3.393,7.687,0,0,0,0,0,0,0,0,0,0,0,0,0,0,0,0,
678,-4.84,6.695,-4.25,-0.9791,7.553,-16.37,-3.44,2.974,-0.7368,6.74,-0.0188,-3.291,5.654,8.025,-2.184,-5.077,0,0,0,0,0,0,0,0,0,0,0,0,0,0,0,0,
679,-7.263,3.661,-12.3,-7.826,5.933,-14.01,-11.81,-4.316,-7.233,5.88,-3.128,-4.118,6.471,12.33,-4.846,0.7652,0,0,0,0,0,0,0,0,0,0,0,0,0,0,0,0,
680,-4.13,6.229,-13.15,-7.604,1.803,-9.028,-6.056,-14.3,-11.15,4.553,-6.235,-2.031,10.3,16.15,-0.5811,12.94,0,0,0,0,0,0,0,0,0,0,0,0,0,0,0,0,
681,-1.696,5.42,-5.332,-0.4749,6.034,-10.55,-0.6916,-9.724,-12.44,0.1911,-3.413,-2.608,0.5007,8.617,-1.583,8.347,0,0,0,0,0,0,0,0,0,0,0,0,0,0,0,0,
682,-4.394,-3.188,-7.8,1.516,18.08,-20.7,-1.784,1.878,-15.44,-7.127,-3.902,-6.006,-11.09,-3.411,-8.343,0.4835,0,0,0,0,0,0,0,0,0,0,0,0,0,0,0,0,
683,-8.103,-10,-6.42,0.7005,15.91,-26.25,-6.211,6.135,-16.03,-13.97,-8.471,-6.643,-12.2,-8.224,-10.34,1.469,0,0,0,0,0,0,0,0,0,0,0,0,0,0,0,0,
684,-6.361,-15.28,7.072,5.135,4.299,-20.08,-13.18,7.821,-11.63,-16.91,-10.92,-6.575,-11.92,-9.516,-13.03,1.76,0,0,0,0,0,0,0,0,0,0,0,0,0,0,0,0,
685,-2.423,-21.82,11.32,6.276,10.07,-12.71,-10.59,9.266,-6.517,-13.76,-11.84,-10.57,-15.54,-12.77,-18.19,-2.646,0,0,0,0,0,0,0,0,0,0,0,0,0,0,0,0,
686,-2.139,-21.08,6.346,-0.7285,20.88,-6.776,2.114,5.075,-4.722,-8.511,-14.12,-16.43,-21.93,-15.44,-17.02,-11.48,0,0,0,0,0,0,0,0,0,0,0,0,0,0,0,0,
687,-4.532,-14.72,5.95,-2.803,18.99,-3.189,3.813,-1.178,-7.381,-6.79,-17.5,-21.43,-28.02,-14.38,-15.83,-21.69,0,0,0,0,0,0,0,0,0,0,0,0,0,0,0,0,
688,-6.787,-12.94,3.142,3.466,16.06,-7.282,-2.604,-4.731,-11.71,-5.594,-18.76,-21.01,-28.57,-11.14,-17.59,-20.81,0,0,0,0,0,0,0,0,0,0,0,0,0,0,0,0,
689,-3.49,-11.81,-1.902,9.114,15.82,-5.008,2.27,1.771,-7.815,-3.283,-15.86,-10.69,-23.09,-11.57,-12.23,-10.24,0,0,0,0,0,0,0,0,0,0,0,0,0,0,0,0,
690,7.758,-5.166,6.232,14.83,21.87,10.14,14.07,15.15,3.521,-3.898,-10.11,1.595,-13.53,-13.76,-3.062,-3.656,0,0,0,0,0,0,0,0,0,0,0,0,0,0,0,0,
691,17.83,5.162,19.77,22.86,37.14,16.56,22.87,13.01,5.242,-4.638,-2.854,7.635,-1.961,-8.477,1.091,0.3238,0,0,0,0,0,0,0,0,0,0,0,0,0,0,0,0,
692,19.53,14.94,20.31,26.14,40.02,10.8,22.14,3.276,-1.222,-2.667,0.5571,8.004,5.061,-1.341,-2.345,2.215,0,0,0,0,0,0,0,0,0,0,0,0,0,0,0,0,
693,14.39,14.95,14.38,19.22,26.44,6.154,7.879,7.338,-1.499,-1.363,-5.469,3.181,2.316,-2.252,-9.824,-3.321,0,0,0,0,0,0,0,0,0,0,0,0,0,0,0,0,
694,7.854,6.326,11.65,8.225,19.48,1.003,-1.101,8.928,-1.119,0.4008,-9.951,0.5065,-1.396,-1.712,-7.793,-5.496,0,0,0,0,0,0,0,0,0,0,0,0,0,0,0,0,
695,7.319,3.579,6.384,3.383,20.92,-3.295,3.948,4.168,-4.923,3.201,-3.181,5.051,2.309,5.687,1.09,0.2242,0,0,0,0,0,0,0,0,0,0,0,0,0,0,0,0,
696,9.848,6.18,-1.821,0.7213,18.44,-6.005,6.912,6.281,-6.755,3.741,0.7106,5.766,2.617,8.689,-0.6332,1.777,0,0,0,0,0,0,0,0,0,0,0,0,0,0,0,0,
697,6.862,5.815,-8.526,-6.84,12.31,-12.91,8.626,2.927,-8.787,4.813,-5.501,-0.6355,-5.499,5.412,-7.521,-2.863,0,0,0,0,0,0,0,0,0,0,0,0,0,0,0,0,
698,1.386,3.56,-15.41,-8.604,7.267,-12.23,9.111,-0.5819,-12.03,7.12,-11.27,-7.062,-13.66,1.546,-10.56,-9.09,0,0,0,0,0,0,0,0,0,0,0,0,0,0,0,0,
699,-2.574,-1.858,-18.33,0.077,9.575,-3.328,-0.3239,9.936,-12.27,4.129,-14.95,-12.4,-21.01,-2.423,-14.6,-12.73,0,0,0,0,0,0,0,0,0,0,0,0,0,0,0,0,
700,-4.272,-7.158,-11.16,5.282,20.5,-6.094,-3.923,11.54,-9.647,-3.1,-15.8,-11.65,-22.68,-3.814,-14.61,-10.09,0,0,0,0,0,0,0,0,0,0,0,0,0,0,0,0,
701,0.5807,-4.302,-0.2608,4.63,22.6,-8.565,3.014,-2.195,-6.395,-6.604,-10.65,-4.091,-15.02,-1.972,-9.329,-5.018,0,0,0,0,0,0,0,0,0,0,0,0,0,0,0,0,
702,7.62,1.013,5.9,5.953,10.35,4.387,3.448,-8.779,-5.705,-6.03,-7.48,-0.7438,-9.552,-2.354,-8.24,-0.3421,0,0,0,0,0,0,0,0,0,0,0,0,0,0,0,0,
703,8.568,3.226,2.794,4.877,7.771,9.092,1.082,-8.681,-6.642,-6.923,-8.121,-2.375,-9.992,-5.828,-6.76,-0.8595,0,0,0,0,0,0,0,0,0,0,0,0,0,0,0,0,
704,5.692,4.433,-6.584,-1.151,15.06,-0.0818,1.479,-10.16,-7.978,-8.561,-6.704,-4.21,-13.2,-6.771,-2.253,-8.583,0,0,0,0,0,0,0,0,0,0,0,0,0,0,0,0,
705,3.095,3.451,-5.615,-1.513,12.21,0.6238,3.355,-7.893,-11.07,-5.326,-6.541,-5.525,-14.82,-2.352,-4.691,-6.628,0,0,0,0,0,0,0,0,0,0,0,0,0,0,0,0,
706,5.232,6.877,4.87,7.654,13.42,12.47,17.13,0.819,-5.991,1.223,-7.077,1.315,-4.869,1.927,-5.78,4.478,0,0,0,0,0,0,0,0,0,0,0,0,0,0,0,0,
707,15.29,19.53,4.844,17.14,27.41,21.7,32.15,11.04,5.507,3.758,-0.5723,15.41,8.074,2.01,7.381,2.607,0,0,0,0,0,0,0,0,0,0,0,0,0,0,0,0,
708,22.49,26.68,2.408,20.54,29.81,20.57,26.13,14.35,2.595,2.056,9.941,22.05,9.778,4.146,19.27,-0.7916,0,0,0,0,0,0,0,0,0,0,0,0,0,0,0,0,
709,20.06,23.9,11.38,19.67,19.4,9.902,18,11.03,-2.415,4.303,17.32,21.78,10.67,12.4,20.6,14.97,0,0,0,0,0,0,0,0,0,0,0,0,0,0,0,0,
710,18.67,23.42,14.55,16.33,15.78,3.818,24.96,7.989,11.03,12.18,21.84,20.6,14.13,17.62,22.79,26.71,0,0,0,0,0,0,0,0,0,0,0,0,0,0,0,0,
711,15.5,17.12,0.4578,7.221,17.1,-0.2935,15.81,2.132,16.05,12.77,16.71,7.57,1.778,8.816,13.77,7.679,0,0,0,0,0,0,0,0,0,0,0,0,0,0,0,0,
712,-2.498,-5.59,-18.9,-6.232,12.38,-19.77,-14.79,-6.084,-1.206,0.8317,-4.035,-14.13,-23.25,-6.343,-12.93,-19.03,0,0,0,0,0,0,0,0,0,0,0,0,0,0,0,0,
713,-20.06,-23.07,-26.89,-12.26,6.496,-34.86,-22.73,-7.276,-11.74,-7.533,-18.04,-20.47,-31.94,-9.899,-22.2,-19.24,0,0,0,0,0,0,0,0,0,0,0,0,0,0,0,0,
714,-18.75,-20.17,-18.19,-8.728,9.742,-23.66,-8.094,-3.112,-10.94,-5.819,-10.65,-12.35,-22.57,-5.446,-9.067,-7.843,0,0,0,0,0,0,0,0,0,0,0,0,0,0,0,0,
715,-12.52,-15.09,-9.601,-7.448,13.89,-12.64,-9.268,0.3702,-15.12,-6.435,-6.683,-9.655,-19.88,-5.642,-6.427,-9.076,0,0,0,0,0,0,0,0,0,0,0,0,0,0,0,0,
716,-13.32,-17.64,-16.27,-10.89,6.819,-17.73,-20.66,-0.9048,-19.53,-9.55,-14.63,-11.99,-22.39,-6.414,-10.4,-10.74,0,0,0,0,0,0,0,0,0,0,0,0,0,0,0,0,
717,-13.1,-17.03,-30.36,-14.43,-1.755,-19.74,-21.99,-11.2,-18.04,-8.011,-15.58,-11.6,-19.79,-7.625,-8.304,-11.8,0,0,0,0,0,0,0,0,0,0,0,0,0,0,0,0,
718,-9.861,-11.46,-33.73,-17.71,1.309,-16.76,-19.14,-19.55,-12.95,-6.201,-12.82,-9.584,-19.34,-11.76,-12.01,-20.04,0,0,0,0,0,0,0,0,0,0,0,0,0,0,0,0,
719,-4.707,-4.974,-17.9,-15.68,12.84,-16.11,-14.61,-12.88,-4.188,-4.169,-13.96,-3.803,-15.81,-8.563,-12.87,-13.59,0,0,0,0,0,0,0,0,0,0,0,0,0,0,0,0,
720,4.688,5.057,-0.6051,-5.329,20.14,-8.355,-4.694,0.3109,0.9071,0.5043,-9.775,5.181,-5.433,-1.883,-0.4849,4.232,0,0,0,0,0,0,0,0,0,0,0,0,0,0,0,0,
721,10.97,15.47,0.3474,3.396,17.82,3.626,9.202,5.255,-3.607,-0.8006,-2.131,9.012,-2.233,-2.737,5.76,3.378,0,0,0,0,0,0,0,0,0,0,0,0,0,0,0,0,
722,9.141,17.56,-2.577,5.282,15.25,3.117,20.43,-2.641,-6.834,-5.981,0.6375,7.632,-4.16,-1.463,3.021,-0.8272,0,0,0,0,0,0,0,0,0,0,0,0,0,0,0,0,
723,7.697,12.23,0.8148,7.015,15.56,-4.329,15.75,-13.2,-4.967,-2.615,-0.4865,6.323,-2.575,4.374,3.845,7.826,0,0,0,0,0,0,0,0,0,0,0,0,0,0,0,0,
724,7.578,4.514,-1.171,5.579,13.61,-3.709,0.5061,-10.74,-11.49,0.9701,-5.324,1.586,-4.952,1.13,-1.059,1.261,0,0,0,0,0,0,0,0,0,0,0,0,0,0,0,0,
725,0.9505,-5.284,-14.7,-6.649,12.34,-3.17,-4.729,0.8043,-22.41,-5.835,-11.54,-6.328,-13.09,-7.883,-9.688,-17.84,0,0,0,0,0,0,0,0,0,0,0,0,0,0,0,0,
726,-6.629,-11.4,-23.67,-15.46,12.07,-9.945,-3.633,7.013,-19.28,-10.03,-11.64,-8.224,-16.72,-9.713,-5.074,-17.85,0,0,0,0,0,0,0,0,0,0,0,0,0,0,0,0,
727,-6.954,-7.479,-13.38,-8.595,11.97,-11.64,-6.813,4.604,-9.986,-5.536,-8.528,-7.23,-13.93,-5.87,-0.4263,-9.508,0,0,0,0,0,0,0,0,0,0,0,0,0,0,0,0,
728,-6.836,-2.191,-3.571,-3.554,13.21,-8.417,-6.701,-5.007,-11.16,-3.876,-11.6,-11.86,-12.12,-2.305,-9.823,-8.845,0,0,0,0,0,0,0,0,0,0,0,0,0,0,0,0,
729,-10.26,-3.937,-12.79,-9.904,6.049,-11.12,-5.211,-15.34,-16.62,-6.663,-17.82,-15.9,-12.18,-0.6199,-17.13,-6.865,0,0,0,0,0,0,0,0,0,0,0,0,0,0,0,0,
730,-11.44,-8.715,-21.68,-13.37,-5.397,-17.49,-13.2,-18.5,-19.47,-9.486,-18.71,-13.64,-13.58,-3.651,-13.14,-7.993,0,0,0,0,0,0,0,0,0,0,0,0,0,0,0,0,
731,-9.481,-12.94,-19.55,-12.35,0.072,-26.31,-22.33,-16.57,-18.78,-11.96,-14.19,-7.85,-16.43,-7.254,-4.05,-10.49,0,0,0,0,0,0,0,0,0,0,0,0,0,0,0,0,
732,-4.904,-12.2,-18.44,-14.18,13.24,-31.95,-22.43,-10.41,-11.13,-10.45,-9.086,-0.8813,-10.88,-2.479,2.842,-2.581,0,0,0,0,0,0,0,0,0,0,0,0,0,0,0,0,
733,1.484,-3.065,-18.93,-13.82,11.27,-20.49,-19.53,-2.625,-5.103,-6.472,-7.005,2.142,-2.12,2.643,0.605,1.381,0,0,0,0,0,0,0,0,0,0,0,0,0,0,0,0,
734,3.115,4.435,-16.45,-9.96,5.081,-5.377,-14.03,-4.444,-7.684,-6.416,-5.303,0.6766,-6.128,-2.07,-4.215,-2.53,0,0,0,0,0,0,0,0,0,0,0,0,0,0,0,0,
735,0.4223,4.075,-13.9,-8.926,7.646,-6.449,-4.005,-10.11,-9.294,-6.857,-2.228,1.032,-9.976,-5.054,-3.428,-0.1047,0,0,0,0,0,0,0,0,0,0,0,0,0,0,0,0,
736,0.791,3.951,-15,-8.767,7.189,-11.51,-3.24,-3.764,-7.325,-3.935,-4.736,0.8373,-5.374,-0.8408,-4.077,-0.643,0,0,0,0,0,0,0,0,0,0,0,0,0,0,0,0,
737,2.53,4.008,-16.21,-7.261,3.624,-10.33,-10.46,4.733,-8.456,-3.112,-10.93,-3.01,-7.065,-1.303,-7.459,-5.475,0,0,0,0,0,0,0,0,0,0,0,0,0,0,0,0,
738,2.493,-0.7792,-11.07,-7.826,8.865,-5.348,-4.76,1.594,-9.466,-6.664,-10.21,-3.113,-10.05,-4.259,-4.599,0.4269,0,0,0,0,0,0,0,0,0,0,0,0,0,0,0,0,
739,5.129,-3.309,-3.6,-5.717,19.18,4.571,5.479,-2.286,-4.351,-8.902,-4.153,2.674,-6.801,-1.431,4.302,6.675,0,0,0,0,0,0,0,0,0,0,0,0,0,0,0,0,
740,8.162,-1,-1.849,0.0517,25.53,5.77,0.9467,-1.916,-1.571,-7.684,-0.0482,5.493,-7.058,-0.7778,7.766,1.547,0,0,0,0,0,0,0,0,0,0,0,0,0,0,0,0,
741,4.903,-1.139,-8.279,-2.096,21.55,-7.8,-4.093,-7.103,-9.374,-8.045,-1.012,3.287,-9.35,-5.041,1.837,-4.983,0,0,0,0,0,0,0,0,0,0,0,0,0,0,0,0,
742,2.825,-1.847,-12.85,-6.073,12.35,-10.82,0.8975,-10.28,-12.28,-9.688,-3.279,3.483,-7.814,-5.304,-1.017,-6.49,0,0,0,0,0,0,0,0,0,0,0,0,0,0,0,0,
743,6.787,-1.015,-5.309,0.1636,12.21,0.1346,-0.536,-1.599,-3.132,-7.2,-0.7572,3.291,-7.742,-4.246,0.4633,-5.326,0,0,0,0,0,0,0,0,0,0,0,0,0,0,0,0,
744,4.057,-5.945,-3.853,2.924,7.307,-1.927,-11.74,3.776,-3.672,-5.449,-2.192,-3.639,-11.74,-7.396,-5.221,-5.95,0,0,0,0,0,0,0,0,0,0,0,0,0,0,0,0,
745,-3.975,-12.72,-15.41,-2.961,-10.75,-14.02,-15.93,-1.866,-12.77,-8.891,-9.629,-6.356,-12.43,-7.059,-8.149,-7.46,0,0,0,0,0,0,0,0,0,0,0,0,0,0,0,0,
746,-1.361,-8.876,-18.24,-6.069,-9.057,-12.06,-8.153,-3.251,-9.502,-7.719,-4.793,1.569,-5.058,-0.4699,1.233,0.1611,0,0,0,0,0,0,0,0,0,0,0,0,0,0,0,0,
747,5.094,0.9534,-19.66,-11.85,9.701,-5.261,-4.443,-0.4141,-2.921,-0.6113,6.338,7.1,0.6044,2.561,8.456,11.97,0,0,0,0,0,0,0,0,0,0,0,0,0,0,0,0,
748,3.409,2.863,-24.65,-18.94,9.431,-14.07,-12.04,-8.103,-3.259,-0.6034,4.022,6.004,-2.774,-0.7047,9.785,10.04,0,0,0,0,0,0,0,0,0,0,0,0,0,0,0,0,
749,2.06,-2.547,-16.86,-14.22,-1.695,-22.86,-13.84,-17.07,-2.364,-7.243,-0.7172,5.362,-6.588,-2.399,12.09,1.96,0,0,0,0,0,0,0,0,0,0,0,0,0,0,0,0,
750,3.675,-6,-15.48,-9.821,-5.652,-16.38,-7.169,-8.77,-3.018,-9.584,2.366,4.811,-5.009,-0.0814,10.08,4.591,0,0,0,0,0,0,0,0,0,0,0,0,0,0,0,0,
751,2.359,-6.821,-25.17,-15.38,-4.308,-11.76,-10.3,6.452,-5.266,-8.181,3.207,3.965,-2.906,0.7172,5.58,8.394,0,0,0,0,0,0,0,0,0,0,0,0,0,0,0,0,
752,3.532,-6.958,-18.21,-13.7,2.462,-13.65,-18.1,9.055,-2.041,-6.625,1.197,4.66,-4.028,-1.112,6.341,6.913,0,0,0,0,0,0,0,0,0,0,0,0,0,0,0,0,
753,5.908,-4.971,-9.085,-6.583,2.986,-13.86,-18.25,0.6749,-0.9737,-3.712,-0.4305,1.715,-7.855,-2.792,5.46,7.649,0,0,0,0,0,0,0,0,0,0,0,0,0,0,0,0,
754,-0.9281,-6.847,-15.67,-12.8,-6.771,-18.23,-21.91,-8.915,-4.557,-3.72,-3.575,-4.662,-14.03,-5.408,0.9632,4.243,0,0,0,0,0,0,0,0,0,0,0,0,0,0,0,0,
755,-8.472,-14.81,-20.59,-19.82,-7.75,-18.78,-28.5,-11.25,-5.934,-8.113,-2.909,-3.615,-17.86,-6.351,2.235,-0.5307,0,0,0,0,0,0,0,0,0,0,0,0,0,0,0,0,
756,-4.03,-14.43,-15.53,-11.33,1.771,-8.789,-18.52,-0.8283,-8.874,-7.308,1.962,4.546,-10.71,-0.8378,7.792,7.435,0,0,0,0,0,0,0,0,0,0,0,0,0,0,0,0,
757,4.08,-2.659,-6.241,-4.208,8.76,-5.396,2.511,8.246,-10.63,-1.513,3.131,7.583,-1.858,3.369,11.29,12.25,0,0,0,0,0,0,0,0,0,0,0,0,0,0,0,0,
758,5.322,2.499,-5.762,-6.758,8.852,-8.035,6.05,-0.8065,-4.231,-3.333,1.41,1.461,-8.928,-2.687,7.062,-2.341,0,0,0,0,0,0,0,0,0,0,0,0,0,0,0,0,
759,-0.7488,-6.424,-17.2,-9.376,0.8649,-9.781,-10.17,-13.83,-1.233,-11.35,-2.021,-8.24,-22.16,-11.03,-6.752,-16.57,0,0,0,0,0,0,0,0,0,0,0,0,0,0,0,0,
760,-8.742,-16.95,-19.4,-15.61,-7.258,-17.53,-16.6,-12.3,-5.907,-12.67,-7.309,-10.72,-21.99,-10.26,-10.69,-11.79,0,0,0,0,0,0,0,0,0,0,0,0,0,0,0,0,
761,-6.598,-15.31,-8.238,-17.9,-4.114,-18.77,-6.44,-4.746,-4.701,-6.283,-5.849,-1.535,-10.1,-3.881,0.4041,0.3842,0,0,0,0,0,0,0,0,0,0,0,0,0,0,0,0,
762,5.268,-2.887,1.804,-4.215,3.888,-5.381,-0.5514,2.149,1.494,0.3668,-0.2014,5.031,-0.2224,-1.377,0.6149,-0.217,0,0,0,0,0,0,0,0,0,0,0,0,0,0,0,0,
763,9.81,5.725,6.568,4.6,4.798,4.335,1.48,10.78,3.343,4.292,-0.7468,1.563,0.4412,-1.527,-3.389,-3.954,0,0,0,0,0,0,0,0,0,0,0,0,0,0,0,0,
764,4.053,3.479,2.28,-1.366,2.522,0.7436,4.171,5.35,3.107,3.67,-0.7809,-0.4965,-1.263,0.1191,7.292,7.855,0,0,0,0,0,0,0,0,0,0,0,0,0,0,0,0,
765,-0.9361,-3.998,-7.551,-5.343,4.009,-11.87,-4.285,-18.83,2.331,-2.966,2.582,0.7728,-1.466,-0.6262,7.863,12.16,0,0,0,0,0,0,0,0,0,0,0,0,0,0,0,0,
766,-0.9919,-10.54,-11.58,-8.343,2.524,-18.67,-12.92,-29.99,-1.805,-10.46,0.6813,0.1309,-5.966,-4.943,-7.415,-5.489,0,0,0,0,0,0,0,0,0,0,0,0,0,0,0,0,
767,1.32,-12.17,-9.624,-10.65,-5.207,-9.291,-7.701,-12.51,-6.457,-11.74,-3.061,-0.7442,-9.529,-5.825,-9.08,-11.92,0,0,0,0,0,0,0,0,0,0,0,0,0,0,0,0,
768,1.316,-9.203,-3.635,-3.177,-4.72,-2.168,-5.492,8.846,-5.406,-6.728,-3.348,-2.944,-7.682,-2.732,-1.856,-2.768,0,0,0,0,0,0,0,0,0,0,0,0,0,0,0,0,
769,-2.314,-8.112,0.3202,2.329,6.183,-7.515,-13.1,11.99,-2.543,-2.035,-3.592,-8.107,-9.662,-2.51,-4.988,-3.337,0,0,0,0,0,0,0,0,0,0,0,0,0,0,0,0,
770,-8.089,-13.23,-6.605,-1.706,1.957,-15.4,-17.26,0.9247,-9.32,-4.005,-5.358,-13,-15.98,-5.834,-9.669,-6.395,0,0,0,0,0,0,0,0,0,0,0,0,0,0,0,0,
771,-14.29,-19.36,-12.83,-7.52,-19.06,-23.08,-12.82,-8.905,-15.93,-9.315,-5.888,-12.65,-18.43,-7.511,-6.448,-4.895,0,0,0,0,0,0,0,0,0,0,0,0,0,0,0,0,
772,-12.3,-18.27,-8.634,-15.48,-20.39,-19.25,-5,-10.35,-6.346,-9.927,-1.874,-6.261,-16.65,-7.453,-2.341,-6.738,0,0,0,0,0,0,0,0,0,0,0,0,0,0,0,0,
773,-3.018,-13.12,-6.438,-18.76,-2.1,-5.719,-5.335,-4.485,1.638,-7.82,1.245,-3.735,-15.38,-7.887,-2.69,-2.48,0,0,0,0,0,0,0,0,0,0,0,0,0,0,0,0,
774,-2.429,-11.54,-6.78,-7.92,0.4712,-9.013,-10.8,4.686,-3.017,-7.661,-2.029,-8.418,-15.15,-7.281,-3.49,4.432,0,0,0,0,0,0,0,0,0,0,0,0,0,0,0,0,
775,-7.686,-10.29,-0.9665,1.741,-5.355,-17.56,-6.562,2.501,-0.165,-6.283,-4.594,-10,-13.77,-5.766,-3.356,-2.819,0,0,0,0,0,0,0,0,0,0,0,0,0,0,0,0,
776,-5.926,-7.721,-1.551,-3.356,-1.665,-10.15,-3.298,-12.06,5.171,-2.542,-5.519,-8.552,-13.34,-3.343,-4.705,-11.06,0,0,0,0,0,0,0,0,0,0,0,0,0,0,0,0,
777,-4.274,-9.365,-11.85,-10.96,-5.861,-9.367,-11.62,-11.24,-3.249,-0.3518,-9.113,-9.92,-13.4,-0.4329,-6.3,-10.6,0,0,0,0,0,0,0,0,0,0,0,0,0,0,0,0,
778,-6.477,-12.22,-9.003,-7.647,-13.05,-16.22,-14.73,7.034,-8.226,-1.232,-8.467,-8.61,-9.535,-1.681,-7.84,-11.43,0,0,0,0,0,0,0,0,0,0,0,0,0,0,0,0,
779,-2.422,-8.22,6.766,3.361,-1.117,-4.503,-6.402,13.91,-0.4872,-1.959,-0.0415,-1.561,-2.36,-2.526,-4.659,-4.909,0,0,0,0,0,0,0,0,0,0,0,0,0,0,0,0,
780,6.718,1.061,11.72,9.837,12.71,10.74,4.307,7.997,5.022,0.4564,8.885,3.887,4.655,2.235,7.199,6.883,0,0,0,0,0,0,0,0,0,0,0,0,0,0,0,0,
781,10.69,5.021,7.396,8.094,10.36,6.001,10.79,3.479,3.079,2.127,8.608,1.903,4.705,3.42,12.33,6.828,0,0,0,0,0,0,0,0,0,0,0,0,0,0,0,0,
782,5.934,-1.506,7.374,6.633,3.599,-6.982,5.817,-1.965,-3.802,1.702,-1.525,-4.923,-2.486,1.71,2.609,7.979,0,0,0,0,0,0,0,0,0,0,0,0,0,0,0,0,
783,-4.714,-10.9,2.612,3.449,-5.592,-15.34,-4.494,-7.061,-11.55,2.832,-8.869,-11.9,-7.293,3.695,-7.792,9.494,0,0,0,0,0,0,0,0,0,0,0,0,0,0,0,0,
784,-14.32,-16.58,-12.44,-7.283,-19.04,-17.14,-5.659,-4.582,-14.3,-0.0915,-10.23,-16.98,-12.29,0.5245,-13.25,-7.365,0,0,0,0,0,0,0,0,0,0,0,0,0,0,0,0,
785,-14.68,-17.26,-14.86,-9.768,-17.17,-10.01,0.2871,-2.278,-13.84,-7.621,-9.822,-16.36,-17.55,-6.471,-13.1,-16.58,0,0,0,0,0,0,0,0,0,0,0,0,0,0,0,0,
786,-6.431,-10.77,2.179,0.3317,-0.9671,-0.7487,3.062,-10.59,-10.52,-7.29,-3.027,-10.31,-12.51,-5.359,-5.789,-3.283,0,0,0,0,0,0,0,0,0,0,0,0,0,0,0,0,
787,0.6564,-3.374,7.895,1.702,-0.0226,1.094,0.0055,-15.61,-2.687,-1.41,3.003,-6.697,-6.634,-0.6429,-3.118,3.117,0,0,0,0,0,0,0,0,0,0,0,0,0,0,0,0,
788,1.248,-4.449,-3.821,-3.583,-10.01,-4.593,-4.996,-2.746,-0.3272,-1,-2.307,-8.384,-9.517,-0.5378,-7.009,-2.579,0,0,0,0,0,0,0,0,0,0,0,0,0,0,0,0,
789,-4.678,-11.21,-7.004,-2.057,-8.017,-13.11,-10.01,7.4,-7.854,-3.703,-9.467,-12.31,-12,-3.886,-5.69,-7.82,0,0,0,0,0,0,0,0,0,0,0,0,0,0,0,0,
790,-12.95,-15.57,-0.2286,-2.284,-3.216,-14.66,-12.5,0.7075,-10.24,-4.986,-9.84,-12.13,-9.072,-4.345,-1.514,-5.993,0,0,0,0,0,0,0,0,0,0,0,0,0,0,0,0,
791,-9.544,-11.74,7.718,-1.811,-2.597,-7.183,-4.622,-3.216,-0.5198,-3.376,-3.982,-2.482,-0.4178,1.423,1.854,7.949,0,0,0,0,0,0,0,0,0,0,0,0,0,0,0,0,
792,5.764,-2.407,16.09,7.9,-0.2546,-3.498,5.21,-0.4072,5.921,-0.0741,4.07,6.266,6.147,4.292,7.129,12.86,0,0,0,0,0,0,0,0,0,0,0,0,0,0,0,0,
793,12.02,1.219,16.13,12.94,-4.083,-2.17,3.079,0.3661,1.954,-0.2496,5.721,3.634,2.07,0.5237,6.301,-2.986,0,0,0,0,0,0,0,0,0,0,0,0,0,0,0,0,
794,7.462,-0.6965,9.419,7.583,-12.28,5.278,0.8108,4.947,-0.3579,-0.7272,1.565,-2.096,-2.475,-0.7085,-4.025,-11.67,0,0,0,0,0,0,0,0,0,0,0,0,0,0,0,0,
795,3.91,-1.471,1.195,-0.3834,-13.43,4.8,2.225,6.953,-1.11,1.084,-2.702,-6.945,-4.581,-0.7454,-12.23,-7.49,0,0,0,0,0,0,0,0,0,0,0,0,0,0,0,0,
796,-3.904,-6.218,-6.824,-8.036,-11.13,-8.001,-2.65,0.6965,-7.97,-2.35,-5.694,-13.28,-10.46,-5.033,-11.72,-8.836,0,0,0,0,0,0,0,0,0,0,0,0,0,0,0,0,
797,-12.34,-13.47,1.787,-7.171,-10.65,-12.3,-1.19,-0.1605,-8.467,-7.269,-1.783,-11.69,-11.34,-7.849,-4.273,-9.072,0,0,0,0,0,0,0,0,0,0,0,0,0,0,0,0,
798,-6.173,-11.35,17.24,-0.0177,-11.59,-3.34,6.964,-0.1042,1.705,-5.12,6.091,-2.235,-6.783,-6.25,2.429,-2.538,0,0,0,0,0,0,0,0,0,0,0,0,0,0,0,0,
799,5.27,-3.232,11.04,-0.3002,-11.89,3.021,3.805,-4.96,4.697,-1.681,5.121,-0.3922,-8.658,-3.522,-1.057,-4.474,0,0,0,0,0,0,0,0,0,0,0,0,0,0,0,0,
800,5.957,-0.5276,0.7773,-0.9621,-7.161,-1.108,-1.504,3.567,0.933,1.01,-0.8639,-5.868,-13.69,-0.0002,-5.659,-11.86,0,0,0,0,0,0,0,0,0,0,0,0,0,0,0,0,
801,0.099,-4.145,5.123,3.202,-0.0125,-9.361,-1.706,13.85,-0.8626,5.238,-2.595,-9.181,-14.4,2.424,-2.56,-7.886,0,0,0,0,0,0,0,0,0,0,0,0,0,0,0,0,
802,-6.171,-10.34,6.126,-0.7475,-3.213,-13.3,-6.013,-1.162,-9.528,3.797,-5.129,-13.55,-15.74,-0.5581,-6.793,-3.569,0,0,0,0,0,0,0,0,0,0,0,0,0,0,0,0,
803,-10.83,-13.42,-0.2577,-8.672,-18.08,-12.04,-7.68,-15.39,-17.43,-1.797,-7.724,-16.3,-17.53,-4.384,-14.5,-10.71,0,0,0,0,0,0,0,0,0,0,0,0,0,0,0,0,
804,-6.888,-8.915,-3.278,-8.07,-20.74,-5.957,-4.947,-6.862,-7.606,-1.999,-3.986,-8.286,-10.95,-2.374,-7.093,-11.09,0,0,0,0,0,0,0,0,0,0,0,0,0,0,0,0,
805,4.434,-2.618,0.774,-1.464,-4.855,3.33,-3.701,-2.862,3.954,0.7341,-2.605,-0.4624,-3.554,-0.7988,-2.022,-1.751,0,0,0,0,0,0,0,0,0,0,0,0,0,0,0,0,
806,8.851,-2.199,9.306,5.402,0.6378,3.938,2.117,-3.123,1.062,1.997,-6.585,-5.097,-7.947,-4.67,-10.04,-2.65,0,0,0,0,0,0,0,0,0,0,0,0,0,0,0,0,
807,0.4416,-8.8,8.508,3.668,-8.501,-7.321,2.374,8.131,-3.951,0.217,-4.952,-11.96,-16.11,-8.046,-11.75,-13.17,0,0,0,0,0,0,0,0,0,0,0,0,0,0,0,0,
808,-8.324,-18.06,-0.6877,-6.748,-11.25,-12.86,-10.49,7.388,-3.433,-6.145,-0.1599,-10.04,-16.59,-6.895,-6.415,-14.06,0,0,0,0,0,0,0,0,0,0,0,0,0,0,0,0,
809,-3.898,-17.17,3.03,-6.627,-6.155,-5.956,-10.13,-2.989,-1.621,-7.855,3.308,-0.522,-6.424,0.1651,2.866,3.451,0,0,0,0,0,0,0,0,0,0,0,0,0,0,0,0,
810,8.516,-2.062,14.79,3.712,0.7386,-1.821,6.172,3.056,0.6125,-0.4306,7.973,6.993,4.07,6.511,12.04,12.94,0,0,0,0,0,0,0,0,0,0,0,0,0,0,0,0,
811,12.42,8.403,11.28,3.856,1.804,-4.039,11.58,6.361,2.798,4.261,6.244,1.897,-4.036,1.372,0.5745,-8.974,0,0,0,0,0,0,0,0,0,0,0,0,0,0,0,0,
812,5.846,3.327,-2.133,-2.834,-6.142,-1.159,9.973,-2.058,2.402,3.781,0.4108,-7.969,-17.71,-3.762,-12.54,-19.65,0,0,0,0,0,0,0,0,0,0,0,0,0,0,0,0,
813,-0.3843,-4.591,-3.92,-3.059,-9.14,2.939,10.47,1.336,-1.962,5.279,1.061,-8.297,-13.09,2.954,-0.1797,4.73,0,0,0,0,0,0,0,0,0,0,0,0,0,0,0,0,
814,-1.111,-4.877,6.893,1.7,-6.074,0.8955,5.515,9.056,-3.176,6.556,2.229,-2.655,-3.38,6.83,6.979,9.281,0,0,0,0,0,0,0,0,0,0,0,0,0,0,0,0,
815,5.227,1.586,14.11,6.928,-5.08,3.292,7.226,6.756,2.77,4.413,2.495,2.087,-1.461,2.314,-3.363,-12.79,0,0,0,0,0,0,0,0,0,0,0,0,0,0,0,0,
816,12.95,7.404,11.79,7.28,-2.245,9.79,17.51,5.289,3.342,1.979,3.956,3.995,-0.8359,0.8784,-5.035,-14.14,0,0,0,0,0,0,0,0,0,0,0,0,0,0,0,0,
817,10.26,5.945,8.033,3.098,-0.4987,5.934,13.6,10.45,-0.7268,3.2,1.397,1.611,-0.6972,2.532,-0.8646,-5.512,0,0,0,0,0,0,0,0,0,0,0,0,0,0,0,0,
818,4.218,4.024,1.712,2.347,-3.214,0.2173,4.072,15.52,1.843,7.197,2.326,0.2984,-1.313,2.407,0.6289,-8.063,0,0,0,0,0,0,0,0,0,0,0,0,0,0,0,0,
819,6.25,5.723,-6.072,0.8376,-5.062,4.613,5.898,10.7,-0.7321,6.804,6.484,1.316,-3.168,-0.0316,0.9163,-7.468,0,0,0,0,0,0,0,0,0,0,0,0,0,0,0,0,
820,6.607,0.8504,2.139,-4.758,-4.84,3.396,5.016,-2.44,-9.053,-0.3069,1.859,-0.7179,-6.788,-4.391,-5.158,-6.719,0,0,0,0,0,0,0,0,0,0,0,0,0,0,0,0,
821,1.838,-8.928,13.72,-4.756,-3.776,-9.633,-1.701,-9.885,-5.911,-7.252,-3.579,-3.436,-10.17,-7.041,-8.785,-10.07,0,0,0,0,0,0,0,0,0,0,0,0,0,0,0,0,
822,0.2448,-12.22,3.776,-3.31,-5.642,-13.23,-3.095,-10.97,-2.938,-8.28,-4.158,-4.921,-13.57,-5.755,-5.03,-4.731,0,0,0,0,0,0,0,0,0,0,0,0,0,0,0,0,
823,-0.8953,-8.979,-1.773,-8.699,-8.589,-3.767,-0.7459,-10.23,-9.352,-3.759,-4.388,-5.432,-11.54,-1.996,-1.907,3.417,0,0,0,0,0,0,0,0,0,0,0,0,0,0,0,0,
824,-2.288,-2.37,8.236,-10.76,-7.483,-0.8981,1.588,-3.372,-9.501,1.036,-0.2769,-2.583,-6.399,1.141,3.394,1.068,0,0,0,0,0,0,0,0,0,0,0,0,0,0,0,0,
825,-1.826,0.6752,2.007,-7.795,-10.41,-7.194,-1.175,3.583,-7.025,2.231,2.427,-2.364,-9.4,0.4953,4.716,-4.73,0,0,0,0,0,0,0,0,0,0,0,0,0,0,0,0,
826,-4.29,-5.48,-8.572,-9.939,-14.85,-11.21,-4.518,-1.238,-8.12,1.47,0.3916,-4.745,-10.53,0.1081,-0.1292,-0.7825,0,0,0,0,0,0,0,0,0,0,0,0,0,0,0,0,
827,-2.564,-6.212,-0.2943,-10.97,-7.73,-7.415,6.388,-14.23,-0.5481,0.5192,5.438,1.871,-1.325,4.31,5.798,8.855,0,0,0,0,0,0,0,0,0,0,0,0,0,0,0,0,
828,9.117,4.119,8.421,-4.738,1.166,5.607,16.23,-16.95,6.635,0.5464,10.73,8.622,3.404,5.929,9.171,8.293,0,0,0,0,0,0,0,0,0,0,0,0,0,0,0,0,
829,13.78,6.284,8.475,-2.694,1.37,13.02,5.687,-1.448,-1.155,2.159,4.81,2.305,-0.6893,0.9512,-5.108,-2.536,0,0,0,0,0,0,0,0,0,0,0,0,0,0,0,0,
830,6.746,0.14,1.651,-7.14,-0.7185,1.158,-2.614,11.47,-7.124,3.068,-1.683,-2.828,-3.895,-2.145,-10.45,-10.62,0,0,0,0,0,0,0,0,0,0,0,0,0,0,0,0,
831,5.36,0.3766,-4.484,-5.966,-3.77,-5.587,6.27,9.312,-0.887,2.481,-2.841,0.5142,-5.382,-2.08,-2.837,-12.95,0,0,0,0,0,0,0,0,0,0,0,0,0,0,0,0,
832,9.042,0.5767,8.789,0.9298,-7.854,7.067,12.73,6.41,3.443,0.3632,-1.988,-1.08,-9.034,-6.549,-2.829,-10.82,0,0,0,0,0,0,0,0,0,0,0,0,0,0,0,0,
833,4.981,-5.565,22.64,3.973,-7.613,10.62,9.787,4.013,2.242,-3.046,1.279,-5.622,-9.95,-9.614,-2.08,-3.49,0,0,0,0,0,0,0,0,0,0,0,0,0,0,0,0,
834,0.3847,-8.471,16.52,3.397,-3.273,2.8,10.11,1.03,0.6797,-2.391,4.114,-0.6978,-1.418,-1.415,6.618,5.07,0,0,0,0,0,0,0,0,0,0,0,0,0,0,0,0,
835,7.284,-2.827,14.91,4.384,0.6886,8.82,15.44,9.299,-0.3264,4.394,10.33,11.26,9.936,9.048,16.68,11.91,0,0,0,0,0,0,0,0,0,0,0,0,0,0,0,0,
836,18.51,6.983,21.57,5.235,-0.8356,18.67,16.16,14.79,5.392,10.41,22.58,18.56,13.11,11.37,25.17,16.08,0,0,0,0,0,0,0,0,0,0,0,0,0,0,0,0,
837,19.98,10.93,21.4,3.593,-10.65,14.57,12.19,4.633,14.27,9.362,22.67,12.06,4.852,6.907,19.12,13.33,0,0,0,0,0,0,0,0,0,0,0,0,0,0,0,0,
838,8.525,3.522,21.18,2.682,-16.88,3.808,9.625,-0.8694,11.14,1.473,9.07,-3.259,-8.979,-2.088,2.262,4.486,0,0,0,0,0,0,0,0,0,0,0,0,0,0,0,0,
839,-5.803,-4.887,14.84,1.839,-10.23,-7.679,5.552,1.179,0.7392,-5.492,4.723,-9.148,-13.03,-6.595,0.3768,-1.668,0,0,0,0,0,0,0,0,0,0,0,0,0,0,0,0,
840,-9.153,-4.859,2.473,-4.622,-8.849,-13.92,3.563,-0.9592,-2.896,-4.555,7.259,-1.974,-4.109,0.6227,6.68,-2.519,0,0,0,0,0,0,0,0,0,0,0,0,0,0,0,0,
841,-1.555,-2.014,5.817,-12.96,-19.22,-7.209,8.68,-1.748,-2.821,-1.222,4.109,2.408,3.014,6.325,3.07,-2.87,0,0,0,0,0,0,0,0,0,0,0,0,0,0,0,0,
842,3.379,-0.7433,10.06,-12.36,-20.75,1.802,5.422,-2.308,-4.996,-1.29,1.255,-0.9371,4.993,3.691,0.8734,0.1536,0,0,0,0,0,0,0,0,0,0,0,0,0,0,0,0,
843,1.633,2.912,0.0397,-2.72,-15.22,2.417,-3.53,-2.599,-6.383,-0.1554,0.1304,-1.954,7.609,3.278,4.356,7.787,0,0,0,0,0,0,0,0,0,0,0,0,0,0,0,0,
844,1.415,5.673,4.589,3.763,-12.97,1.382,4.042,3.711,-2.691,1.607,-0.1373,1.184,5.789,2.601,3.503,6.641,0,0,0,0,0,0,0,0,0,0,0,0,0,0,0,0,
845,4.97,-1.228,21.13,0.5519,-6.792,4.129,11.98,5.419,3.57,-0.9522,2.903,3.381,-3.454,-3.8,0.426,-3.341,0,0,0,0,0,0,0,0,0,0,0,0,0,0,0,0,
846,8.684,-9.915,20.21,-2.882,-1.556,7.632,5.024,1.339,6.137,-1.26,5.965,6.256,-7.207,-6.165,-0.9999,-4.552,0,0,0,0,0,0,0,0,0,0,0,0,0,0,0,0,
847,11.44,-4.915,15.39,0.1868,-0.6252,8.298,7.838,-1.173,6.564,4.35,9.644,9.055,0.8989,-3.154,-0.5402,-0.8479,0,0,0,0,0,0,0,0,0,0,0,0,0,0,0,0,
848,10.99,6.427,17.09,2.057,0.1074,6.657,19.44,-9.491,4.008,5.866,8.858,4.399,4.791,-2.133,0.1807,-4.768,0,0,0,0,0,0,0,0,0,0,0,0,0,0,0,0,
849,5.362,8.587,11.67,2.49,-8.506,7.359,17.25,-8.252,-5.955,3.234,-0.2362,-3.493,0.378,0.2318,-2.803,-5.749,0,0,0,0,0,0,0,0,0,0,0,0,0,0,0,0,
850,0.6682,6.276,10.56,6.779,-15.42,8.389,10.44,13.61,-9.027,5.873,0.4176,-1.324,3.035,5.924,-1.883,2.47,0,0,0,0,0,0,0,0,0,0,0,0,0,0,0,0,
