%OpenBCI Raw EXG Data
%Number of channels = 16
%Sample Rate = 125 Hz
%Board = OpenBCI_GUI$BoardCytonSerialDaisy
Sample Index,EXG Channel 0,EXG Channel 1,EXG Channel 2,EXG Channel 3,EXG Channel 4,EXG Channel 5,EXG Channel 6,EXG Channel 7,EXG Channel 8,EXG Channel 9,EXG Channel 10,EXG Channel 11,EXG Channel 12,EXG Channel 13,EXG Channel 14,EXG Channel 15,Accel Channel 0,Accel Channel 1,Accel Channel 2,Other,Other.1,Other.2,Other.3,Other.4,Other.5,Other.6,Analog Channel 0,Analog Channel 1,Analog Channel 2,Timestamp,Other.7,Timestamp (Formatted),Annotations
1,0.0,-0.0,-0.0,0.0,0.0,0.0,-0.0,0.0,0.0,0.0,0.0,0.0,0.0,0.0,0.0,0.0,0,0,0,0,0,0,0,0,0,0,0,0,0,0,0,0,T0
2,-28.78,-11.79,-31.66,-24.16,-25.19,-28.36,15.91,21.49,-29.01,-44.2,37.06,-8.085,41.94,21.51,44.38,29.96,0,0,0,0,0,0,0,0,0,0,0,0,0,0,0,0,
3,-36.03,-19.49,-87.96,-61.13,-87.95,-89.55,-26.91,-7.562,-48.4,-68.52,3.092,-61.35,13.25,-30.7,11.81,-33.48,0,0,0,0,0,0,0,0,0,0,0,0,0,0,0,0,
4,-33.91,-17.03,-128.8,-70.43,-115.0,-106.5,-56.69,-26.74,-78.55,-91.77,-15.22,-90.51,16.22,-66.59,-2.911,-83.64,0,0,0,0,0,0,0,0,0,0,0,0,0,0,0,0,
5,-21.62,-2.757,-102.9,-37.24,-65.79,-54.49,-28.06,-11.59,-58.93,-77.78,9.475,-83.33,64.07,-58.25,21.83,-83.79,0,0,0,0,0,0,0,0,0,0,0,0,0,0,0,0,
6,-9.164,6.139,-70.39,-18.26,-34.03,-26.1,-11.97,-15.52,-4.244,-42.42,-2.257,-95.06,62.7,-70.25,7.389,-95.84,0,0,0,0,0,0,0,0,0,0,0,0,0,0,0,0,
7,-16.99,-1.773,-89.28,-36.56,-63.07,-52.43,-35.65,-34.09,-10.76,-49.5,-43.72,-97.34,24.44,-81.5,-26.25,-88.49,0,0,0,0,0,0,0,0,0,0,0,0,0,0,0,0,
8,-30.93,-13.55,-112.9,-50.83,-92.84,-82.94,-52.84,-32.48,-46.05,-68.32,-68.27,-66.33,-10.06,-68.68,-39.36,-53.07,0,0,0,0,0,0,0,0,0,0,0,0,0,0,0,0,
9,-35.13,-16.54,-124.5,-52.61,-108.1,-98.78,-52.6,-25.73,-61.89,-77.39,-76.65,-47.17,-38.94,-62.63,-43.88,-39.26,0,0,0,0,0,0,0,0,0,0,0,0,0,0,0,0,
10,-28.71,-9.885,-131.4,-53.82,-113.4,-99.05,-42.93,-27.3,-72.2,-89.04,-57.41,-34.19,-37.25,-49.25,-32.47,-31.2,0,0,0,0,0,0,0,0,0,0,0,0,0,0,0,0,
11,-23.42,-6.818,-124.4,-57.55,-114.1,-104.6,-38.83,-37.74,-70.66,-81.84,-30.58,-14.84,-16.92,-30.08,-19.34,-27.9,0,0,0,0,0,0,0,0,0,0,0,0,0,0,0,0,
12,-36.4,-20.91,-141.5,-100.5,-148.8,-143.9,-60.66,-54.38,-77.92,-81.29,-35.27,-27.63,-5.467,-38.0,-17.0,-49.17,0,0,0,0,0,0,0,0,0,0,0,0,0,0,0,0,
13,-44.55,-33.14,-173.9,-150.3,-181.4,-167.6,-74.08,-47.48,-92.81,-101.7,-27.55,-46.81,26.98,-38.11,13.09,-48.98,0,0,0,0,0,0,0,0,0,0,0,0,0,0,0,0,
14,-26.18,-17.25,-169.5,-107.8,-161.6,-141.5,-61.56,-20.52,-73.73,-91.7,3.726,-35.96,64.25,-24.52,47.0,-31.75,0,0,0,0,0,0,0,0,0,0,0,0,0,0,0,0,
15,-7.188,8.882,-161.1,-49.77,-150.1,-128.2,-71.13,-18.26,-61.91,-72.35,-7.126,-42.55,51.26,-53.51,35.78,-49.87,0,0,0,0,0,0,0,0,0,0,0,0,0,0,0,0,
16,5.513,19.02,-164.9,-93.88,-165.7,-140.6,-92.84,-32.33,-88.47,-89.81,-34.62,-63.4,23.03,-85.24,21.05,-66.03,0,0,0,0,0,0,0,0,0,0,0,0,0,0,0,0,
17,24.47,31.82,-149.7,-123.4,-155.9,-131.5,-85.54,-34.97,-97.97,-99.75,-31.05,-51.96,14.22,-63.83,20.97,-50.43,0,0,0,0,0,0,0,0,0,0,0,0,0,0,0,0,
18,36.02,57.11,-141.3,-75.41,-145.4,-124.4,-77.29,-42.67,-92.29,-84.95,-34.85,-45.13,-8.678,-43.02,11.77,-39.51,0,0,0,0,0,0,0,0,0,0,0,0,0,0,0,0,
19,36.52,62.09,-146.8,-84.38,-158.8,-153.4,-72.29,-57.72,-104.5,-96.68,-34.32,-62.83,-30.2,-50.73,20.01,-30.09,0,0,0,0,0,0,0,0,0,0,0,0,0,0,0,0,
20,35.81,43.75,-141.3,-142.5,-169.0,-191.2,-48.92,-72.66,-112.7,-135.9,-10.69,-72.02,-31.24,-70.07,29.16,-24.08,0,0,0,0,0,0,0,0,0,0,0,0,0,0,0,0,
21,25.51,25.93,-151.9,-153.0,-190.1,-218.6,-54.78,-98.66,-131.9,-170.5,-37.33,-84.11,-54.63,-113.9,-4.435,-52.28,0,0,0,0,0,0,0,0,0,0,0,0,0,0,0,0,
22,16.09,16.47,-174.8,-152.5,-212.9,-222.5,-93.51,-105.1,-174.7,-189.5,-94.85,-91.34,-76.27,-144.0,-30.61,-77.62,0,0,0,0,0,0,0,0,0,0,0,0,0,0,0,0,
23,37.2,35.43,-163.4,-157.2,-192.2,-188.3,-96.69,-70.33,-173.1,-174.6,-88.66,-64.31,-46.41,-120.9,-17.35,-63.81,0,0,0,0,0,0,0,0,0,0,0,0,0,0,0,0,
24,68.47,77.89,-134.3,-130.8,-160.5,-152.8,-76.19,-42.17,-128.0,-138.2,-55.72,-41.8,-12.41,-92.25,-5.933,-49.26,0,0,0,0,0,0,0,0,0,0,0,0,0,0,0,0,
25,81.09,106.2,-116.4,-91.27,-147.9,-134.6,-62.76,-31.51,-108.3,-114.4,-43.47,-39.27,-0.824,-68.65,3.576,-46.42,0,0,0,0,0,0,0,0,0,0,0,0,0,0,0,0,
26,103.3,128.1,-96.0,-57.92,-127.9,-110.6,-29.97,-14.37,-97.52,-88.48,-15.26,-23.03,18.04,-26.09,25.98,-29.27,0,0,0,0,0,0,0,0,0,0,0,0,0,0,0,0,
27,134.2,152.2,-74.6,-44.06,-106.5,-97.4,5.249,-8.842,-73.17,-62.11,21.89,-10.48,32.54,0.3811,45.79,-6.482,0,0,0,0,0,0,0,0,0,0,0,0,0,0,0,0,
28,139.0,161.6,-59.55,-46.48,-85.18,-94.74,18.46,-14.21,-54.8,-61.02,47.33,-9.805,35.99,0.203,61.11,5.39,0,0,0,0,0,0,0,0,0,0,0,0,0,0,0,0,
29,141.7,169.9,-48.27,-38.59,-58.49,-79.2,25.73,-21.5,-29.85,-64.41,59.59,-2.731,39.78,-7.778,66.01,5.338,0,0,0,0,0,0,0,0,0,0,0,0,0,0,0,0,
30,151.7,169.1,-58.83,-51.63,-67.01,-80.44,15.65,-44.99,-14.01,-69.75,37.05,-22.42,34.19,-36.75,54.21,-6.899,0,0,0,0,0,0,0,0,0,0,0,0,0,0,0,0,
31,138.0,147.1,-85.01,-80.59,-90.46,-86.68,-10.57,-60.43,-30.7,-82.59,8.757,-60.77,32.94,-62.33,47.11,-14.93,0,0,0,0,0,0,0,0,0,0,0,0,0,0,0,0,
32,134.1,151.2,-85.9,-56.79,-68.44,-47.81,-18.82,-49.42,-35.21,-61.54,13.94,-57.29,50.29,-43.12,52.56,-4.766,0,0,0,0,0,0,0,0,0,0,0,0,0,0,0,0,
33,170.5,186.7,-53.67,-26.18,-25.36,0.4049,-1.364,-28.41,-6.703,-14.74,31.1,-37.38,77.47,-0.2163,70.54,12.88,0,0,0,0,0,0,0,0,0,0,0,0,0,0,0,0,
34,199.6,202.0,-19.79,-32.85,1.139,18.04,26.04,-7.532,30.26,15.6,55.39,-38.86,114.1,35.73,102.4,28.25,0,0,0,0,0,0,0,0,0,0,0,0,0,0,0,0,
35,188.8,195.2,-33.54,-8.773,-2.764,12.42,23.8,-12.57,54.51,32.2,72.24,-33.69,130.4,52.51,110.4,31.02,0,0,0,0,0,0,0,0,0,0,0,0,0,0,0,0,
36,157.5,185.6,-100.7,10.44,-49.76,-24.69,-23.39,-31.47,37.9,25.56,42.05,-25.82,102.6,40.98,80.48,16.4,0,0,0,0,0,0,0,0,0,0,0,0,0,0,0,0,
37,132.2,167.1,-147.5,-38.44,-99.02,-71.78,-68.68,-19.88,-9.243,-9.409,-7.589,-28.77,63.62,14.52,47.88,-3.296,0,0,0,0,0,0,0,0,0,0,0,0,0,0,0,0,
38,118.8,148.2,-157.4,-63.71,-122.3,-92.6,-99.18,-11.94,-54.29,-44.17,-46.11,-25.5,20.11,-16.49,10.83,-31.03,0,0,0,0,0,0,0,0,0,0,0,0,0,0,0,0,
39,108.4,150.1,-176.6,-36.3,-143.7,-100.9,-127.3,-30.03,-100.7,-78.92,-78.29,-34.25,-27.17,-52.26,-23.42,-59.96,0,0,0,0,0,0,0,0,0,0,0,0,0,0,0,0,
40,110.0,167.6,-169.9,-38.96,-143.3,-101.2,-125.3,-29.31,-128.7,-107.2,-77.65,-57.88,-35.34,-71.97,-18.09,-62.52,0,0,0,0,0,0,0,0,0,0,0,0,0,0,0,0,
41,130.3,180.6,-126.5,-53.7,-108.1,-86.2,-99.66,-13.28,-112.5,-100.5,-53.61,-54.46,-16.41,-67.8,-6.996,-56.59,0,0,0,0,0,0,0,0,0,0,0,0,0,0,0,0,
42,147.5,184.9,-117.4,-45.12,-92.95,-89.34,-84.69,-9.012,-89.04,-85.11,-50.46,-38.47,-11.84,-61.91,-20.58,-62.03,0,0,0,0,0,0,0,0,0,0,0,0,0,0,0,0,
43,150.5,175.2,-130.8,-66.25,-108.3,-122.2,-72.75,-23.67,-84.03,-93.54,-49.41,-48.82,-9.334,-65.03,-20.27,-57.08,0,0,0,0,0,0,0,0,0,0,0,0,0,0,0,0,
44,147.4,146.9,-124.3,-121.4,-112.5,-143.3,-57.8,-60.69,-83.5,-102.6,-37.7,-61.3,-9.637,-74.01,-7.845,-50.84,0,0,0,0,0,0,0,0,0,0,0,0,0,0,0,0,
45,149.6,133.6,-111.8,-146.8,-97.37,-127.3,-44.96,-77.69,-83.84,-100.1,-39.03,-54.37,-15.59,-75.88,-0.3658,-50.36,0,0,0,0,0,0,0,0,0,0,0,0,0,0,0,0,
46,176.4,164.6,-73.74,-114.4,-60.97,-79.27,-12.97,-51.19,-67.41,-92.89,-21.18,-47.61,19.32,-43.43,31.78,-20.47,0,0,0,0,0,0,0,0,0,0,0,0,0,0,0,0,
47,225.8,214.8,-9.0,-58.77,-3.463,-17.82,41.93,-35.57,-9.982,-60.13,40.1,-38.65,88.6,15.56,79.16,23.41,0,0,0,0,0,0,0,0,0,0,0,0,0,0,0,0,
48,255.4,247.4,17.21,-34.48,30.84,14.18,66.6,-40.5,52.45,-10.63,75.1,-27.55,114.9,39.65,87.65,26.05,0,0,0,0,0,0,0,0,0,0,0,0,0,0,0,0,
49,243.2,256.1,-7.912,-19.43,15.47,-3.649,24.93,-23.02,58.84,-4.887,41.26,-44.54,82.27,7.505,51.18,-5.66,0,0,0,0,0,0,0,0,0,0,0,0,0,0,0,0,
50,220.5,251.4,-47.39,35.46,-17.92,-32.08,-31.54,-10.86,15.47,-39.26,0.8669,-62.37,47.53,-21.83,22.21,-23.61,0,0,0,0,0,0,0,0,0,0,0,0,0,0,0,0,
51,207.3,237.1,-81.24,53.48,-43.59,-46.03,-47.83,-36.51,-22.06,-49.85,-4.125,-39.28,36.75,-28.57,26.77,-22.45,0,0,0,0,0,0,0,0,0,0,0,0,0,0,0,0,
52,189.1,210.0,-95.17,-22.92,-62.27,-64.11,-51.43,-46.88,-39.23,-53.18,-11.53,-35.6,22.5,-64.48,22.59,-35.01,0,0,0,0,0,0,0,0,0,0,0,0,0,0,0,0,
53,164.5,179.3,-104.1,-88.12,-77.47,-86.75,-72.49,-26.72,-62.81,-95.77,-39.2,-81.91,-9.806,-117.8,-8.663,-61.39,0,0,0,0,0,0,0,0,0,0,0,0,0,0,0,0,
54,151.3,165.3,-124.3,-82.52,-85.93,-93.42,-83.89,-26.17,-87.74,-128.6,-60.69,-98.61,-35.71,-125.9,-29.13,-75.5,0,0,0,0,0,0,0,0,0,0,0,0,0,0,0,0,
55,155.7,174.0,-124.8,-61.3,-83.48,-84.94,-74.35,-30.18,-89.46,-110.7,-69.6,-70.84,-38.9,-93.78,-27.51,-70.54,0,0,0,0,0,0,0,0,0,0,0,0,0,0,0,0,
56,153.5,179.5,-116.7,-47.12,-86.94,-76.28,-71.78,-14.34,-78.46,-80.93,-69.09,-49.48,-22.34,-46.0,-10.7,-40.94,0,0,0,0,0,0,0,0,0,0,0,0,0,0,0,0,
57,132.8,166.9,-133.1,-39.88,-97.98,-68.51,-75.23,-15.62,-66.72,-49.56,-53.82,-35.87,7.53,4.133,15.76,-4.311,0,0,0,0,0,0,0,0,0,0,0,0,0,0,0,0,
58,136.8,169.1,-117.5,-44.05,-86.49,-61.27,-59.36,-29.12,-51.88,-23.31,-38.71,-40.83,23.79,8.001,22.81,-6.137,0,0,0,0,0,0,0,0,0,0,0,0,0,0,0,0,
59,170.7,191.0,-59.57,-51.23,-65.0,-62.99,-35.47,-33.51,-48.31,-45.0,-32.95,-72.77,16.89,-29.42,14.72,-28.18,0,0,0,0,0,0,0,0,0,0,0,0,0,0,0,0,
60,178.6,194.6,-46.35,-67.09,-62.99,-64.32,-26.42,-58.43,-49.2,-79.51,-22.61,-83.21,17.34,-42.53,21.66,-26.44,0,0,0,0,0,0,0,0,0,0,0,0,0,0,0,0,
61,164.0,181.6,-70.28,-86.82,-66.89,-59.22,-26.86,-87.37,-37.35,-74.64,-19.99,-73.26,16.03,-46.21,20.38,-27.28,0,0,0,0,0,0,0,0,0,0,0,0,0,0,0,0,
62,156.3,172.8,-79.82,-82.11,-76.84,-64.87,-35.11,-72.56,-42.88,-75.68,-43.67,-84.5,-13.97,-74.82,-5.218,-47.94,0,0,0,0,0,0,0,0,0,0,0,0,0,0,0,0,
63,146.2,173.3,-98.89,-46.99,-100.9,-75.28,-56.55,-47.67,-73.56,-93.06,-68.09,-88.52,-36.19,-84.6,-16.36,-56.56,0,0,0,0,0,0,0,0,0,0,0,0,0,0,0,0,
64,144.5,187.9,-114.6,-16.27,-113.0,-79.45,-71.82,-52.55,-87.99,-83.3,-65.58,-69.75,-23.13,-65.88,-2.114,-53.5,0,0,0,0,0,0,0,0,0,0,0,0,0,0,0,0,
65,157.7,196.5,-93.92,-14.03,-104.8,-89.17,-61.31,-51.76,-80.2,-71.44,-43.76,-72.75,-4.649,-59.96,11.51,-54.78,0,0,0,0,0,0,0,0,0,0,0,0,0,0,0,0,
66,157.3,180.8,-75.61,-8.664,-100.2,-99.21,-47.56,-27.64,-71.14,-76.48,-28.01,-86.64,-0.9298,-60.46,15.41,-50.63,0,0,0,0,0,0,0,0,0,0,0,0,0,0,0,0,
67,141.3,159.9,-85.3,-7.307,-108.3,-105.3,-58.38,-16.86,-69.75,-76.31,-37.95,-72.29,-8.124,-51.85,8.716,-40.72,0,0,0,0,0,0,0,0,0,0,0,0,0,0,0,0,
68,132.8,151.7,-96.89,-55.28,-107.0,-107.3,-69.86,-35.15,-74.42,-80.97,-55.9,-54.62,-15.22,-45.34,-2.037,-32.8,0,0,0,0,0,0,0,0,0,0,0,0,0,0,0,0,
69,145.2,160.6,-89.67,-88.3,-81.62,-86.16,-54.87,-61.29,-68.97,-80.65,-45.62,-53.37,-8.472,-36.68,5.197,-23.0,0,0,0,0,0,0,0,0,0,0,0,0,0,0,0,0,
70,166.3,178.6,-67.65,-56.69,-61.13,-62.36,-31.48,-61.23,-55.28,-59.32,-15.37,-47.92,7.724,-26.17,29.66,-13.19,0,0,0,0,0,0,0,0,0,0,0,0,0,0,0,0,
71,174.3,184.8,-50.03,-35.86,-65.85,-70.8,-19.53,-27.61,-52.16,-58.57,-2.539,-41.03,17.42,-27.44,41.45,-11.47,0,0,0,0,0,0,0,0,0,0,0,0,0,0,0,0,
72,169.0,177.3,-50.09,-32.85,-78.18,-89.49,-27.64,-5.919,-56.5,-80.78,-13.86,-42.43,13.41,-34.62,25.83,-24.89,0,0,0,0,0,0,0,0,0,0,0,0,0,0,0,0,
73,149.5,158.8,-73.86,-18.47,-96.9,-107.2,-57.52,-16.63,-65.78,-83.02,-36.64,-46.5,-5.466,-47.43,-4.164,-54.12,0,0,0,0,0,0,0,0,0,0,0,0,0,0,0,0,
74,116.9,129.0,-108.0,-40.99,-122.4,-134.5,-85.43,-32.04,-84.26,-83.16,-63.34,-58.14,-28.28,-66.31,-23.93,-73.09,0,0,0,0,0,0,0,0,0,0,0,0,0,0,0,0,
75,112.9,126.5,-103.8,-63.01,-115.1,-127.8,-79.0,-38.73,-90.43,-91.8,-61.09,-63.65,-20.98,-53.88,-10.86,-53.15,0,0,0,0,0,0,0,0,0,0,0,0,0,0,0,0,
76,164.3,178.9,-52.94,-19.74,-61.05,-66.88,-35.51,-27.55,-58.54,-65.62,-21.37,-44.67,18.65,-12.66,19.0,-20.73,0,0,0,0,0,0,0,0,0,0,0,0,0,0,0,0,
77,215.7,222.1,-22.93,2.989,-23.98,-28.44,-13.81,-14.66,-20.21,-31.46,-23.06,-34.36,25.53,-6.84,16.51,-20.95,0,0,0,0,0,0,0,0,0,0,0,0,0,0,0,0,
78,218.9,210.0,-27.62,-31.13,-26.74,-36.39,-44.58,-26.71,-25.45,-43.33,-69.83,-40.9,-2.986,-17.65,-4.207,-27.82,0,0,0,0,0,0,0,0,0,0,0,0,0,0,0,0,
79,223.8,211.9,-4.299,-26.36,-4.451,-15.87,-51.28,-22.22,-30.95,-43.92,-57.98,-25.33,7.259,9.898,7.645,-7.888,0,0,0,0,0,0,0,0,0,0,0,0,0,0,0,0,
80,239.0,235.9,13.14,-2.274,12.61,5.481,-31.78,-0.0178,-1.995,-6.69,-26.55,-18.08,20.66,13.27,14.49,-11.71,0,0,0,0,0,0,0,0,0,0,0,0,0,0,0,0,
81,192.7,201.8,-42.91,-30.85,-49.13,-46.21,-61.56,-15.35,-17.82,-18.16,-52.58,-46.04,-12.86,-30.59,-6.425,-43.65,0,0,0,0,0,0,0,0,0,0,0,0,0,0,0,0,
82,141.0,164.6,-80.27,-35.87,-92.58,-84.08,-77.85,-22.57,-67.49,-61.41,-45.89,-41.02,-12.0,-27.78,8.838,-29.35,0,0,0,0,0,0,0,0,0,0,0,0,0,0,0,0,
83,169.5,201.2,-38.79,16.45,-51.9,-45.2,-35.03,7.631,-54.72,-48.58,2.928,-5.461,26.46,7.543,36.85,-0.4823,0,0,0,0,0,0,0,0,0,0,0,0,0,0,0,0,
84,200.6,234.9,-13.91,26.33,-24.85,-16.36,-17.17,5.984,-23.9,-22.15,-4.052,-14.38,19.84,-1.722,16.85,-21.81,0,0,0,0,0,0,0,0,0,0,0,0,0,0,0,0,
85,195.0,223.9,-23.94,-8.988,-32.94,-24.03,-32.41,-18.09,-35.37,-31.96,-33.87,-38.62,-6.391,-23.17,-7.504,-44.8,0,0,0,0,0,0,0,0,0,0,0,0,0,0,0,0,
86,194.4,209.6,-35.86,-15.12,-37.83,-30.34,-49.67,-14.76,-53.03,-42.1,-48.45,-30.17,-18.66,-28.25,-17.58,-45.9,0,0,0,0,0,0,0,0,0,0,0,0,0,0,0,0,
87,183.8,197.7,-65.72,-6.496,-48.51,-35.79,-69.24,-4.704,-60.91,-40.84,-65.01,-19.04,-23.55,-29.26,-29.7,-49.11,0,0,0,0,0,0,0,0,0,0,0,0,0,0,0,0,
88,176.7,194.1,-70.82,-14.81,-43.59,-33.95,-54.63,3.496,-45.51,-32.45,-47.01,-15.5,3.946,-11.95,-13.49,-33.6,0,0,0,0,0,0,0,0,0,0,0,0,0,0,0,0,
89,189.9,199.7,-40.45,-14.31,-25.41,-24.72,-23.19,19.82,-7.44,-18.85,-12.02,-7.111,39.69,7.715,15.54,-10.03,0,0,0,0,0,0,0,0,0,0,0,0,0,0,0,0,
90,187.2,203.0,-34.91,10.34,-29.21,-18.71,-26.51,25.1,2.818,-17.43,-13.42,-6.074,37.24,5.166,17.82,-14.27,0,0,0,0,0,0,0,0,0,0,0,0,0,0,0,0,
91,180.5,212.2,-44.82,28.25,-36.94,-12.69,-43.88,13.47,-17.75,-22.38,-28.3,-19.62,9.679,-9.965,1.676,-33.72,0,0,0,0,0,0,0,0,0,0,0,0,0,0,0,0,
92,187.5,218.1,-43.12,22.2,-33.48,-13.36,-53.66,0.5846,-42.85,-29.97,-40.05,-41.54,-21.68,-29.67,-19.09,-45.94,0,0,0,0,0,0,0,0,0,0,0,0,0,0,0,0,
93,196.1,218.1,-27.16,12.72,-24.55,-13.2,-52.48,-14.87,-61.14,-39.53,-45.98,-54.79,-32.37,-32.38,-21.7,-42.12,0,0,0,0,0,0,0,0,0,0,0,0,0,0,0,0,
94,203.7,217.8,-6.759,-2.527,-15.48,-8.974,-35.39,-36.15,-48.53,-28.1,-27.72,-44.55,-7.914,-12.93,-2.929,-33.51,0,0,0,0,0,0,0,0,0,0,0,0,0,0,0,0,
95,191.4,197.6,-16.15,-27.56,-18.51,-19.29,-12.26,-36.92,-15.24,-14.22,2.886,-24.2,26.45,-1.862,8.876,-28.78,0,0,0,0,0,0,0,0,0,0,0,0,0,0,0,0,
96,181.3,189.8,-15.98,-19.9,-6.934,-15.35,20.75,-6.919,15.15,-18.97,33.88,-9.081,57.28,9.794,23.29,-4.843,0,0,0,0,0,0,0,0,0,0,0,0,0,0,0,0,
97,222.0,234.1,30.35,27.68,33.94,25.98,47.75,20.13,44.67,-0.5707,55.29,2.625,73.45,33.35,39.14,22.22,0,0,0,0,0,0,0,0,0,0,0,0,0,0,0,0,
98,265.3,269.6,39.3,49.13,48.66,49.85,34.36,25.98,43.7,35.84,37.91,2.262,45.15,28.26,14.91,4.676,0,0,0,0,0,0,0,0,0,0,0,0,0,0,0,0,
99,242.3,242.9,-17.34,17.27,12.3,22.76,-6.431,15.91,-6.766,24.95,-16.33,-19.28,-16.29,-15.01,-40.34,-42.61,0,0,0,0,0,0,0,0,0,0,0,0,0,0,0,0,
100,189.2,205.9,-60.55,5.723,-23.0,-6.16,-42.29,0.2561,-55.53,-21.66,-60.45,-34.33,-49.94,-44.11,-64.47,-65.06,0,0,0,0,0,0,0,0,0,0,0,0,0,0,0,0,
101,183.3,215.2,-51.69,47.99,-13.44,6.943,-46.02,4.758,-51.47,-33.94,-49.37,-17.6,-19.29,-24.58,-29.27,-41.41,0,0,0,0,0,0,0,0,0,0,0,0,0,0,0,0,
102,213.5,239.8,-20.11,55.88,11.23,26.95,-19.56,26.9,-10.16,-5.933,-8.7,4.458,28.49,9.227,13.67,-8.368,0,0,0,0,0,0,0,0,0,0,0,0,0,0,0,0,
103,215.7,232.5,-9.776,12.79,5.119,11.97,-11.55,36.09,10.85,12.76,1.125,9.452,36.72,16.01,16.39,-4.232,0,0,0,0,0,0,0,0,0,0,0,0,0,0,0,0,
104,196.2,212.5,-26.84,6.007,-13.92,-6.98,-29.94,26.79,-1.889,7.872,-4.967,4.31,27.64,9.286,6.704,-12.24,0,0,0,0,0,0,0,0,0,0,0,0,0,0,0,0,
105,188.9,209.5,-42.87,28.65,-16.8,2.561,-39.58,8.36,-11.82,3.66,-0.9454,-14.52,23.26,1.68,1.845,-18.51,0,0,0,0,0,0,0,0,0,0,0,0,0,0,0,0,
106,201.0,228.3,-28.57,34.61,-5.588,22.26,-33.62,-3.568,-9.052,6.035,-7.617,-34.2,11.58,-14.91,-7.079,-31.05,0,0,0,0,0,0,0,0,0,0,0,0,0,0,0,0,
107,227.3,247.5,6.206,27.19,3.821,20.03,-23.22,-9.567,-8.903,-2.256,-16.67,-38.02,0.9633,-31.02,-11.73,-44.53,0,0,0,0,0,0,0,0,0,0,0,0,0,0,0,0,
108,218.9,223.8,2.244,0.2251,-13.49,-13.01,-26.33,-28.77,-23.09,-30.04,-18.27,-36.55,-6.484,-36.23,-17.93,-51.69,0,0,0,0,0,0,0,0,0,0,0,0,0,0,0,0,
109,193.3,201.6,-12.06,-4.84,-19.88,-21.41,-27.45,-29.01,-35.21,-48.51,-11.53,-14.31,3.31,-13.94,-6.427,-30.14,0,0,0,0,0,0,0,0,0,0,0,0,0,0,0,0,
110,233.6,247.5,36.39,46.99,33.21,31.09,12.52,5.735,1.046,-16.66,25.69,28.8,50.4,37.89,36.75,16.45,0,0,0,0,0,0,0,0,0,0,0,0,0,0,0,0,
111,279.8,286.6,74.38,73.53,75.7,71.64,54.12,13.66,59.37,39.07,63.1,43.05,83.39,65.64,52.78,32.04,0,0,0,0,0,0,0,0,0,0,0,0,0,0,0,0,
112,269.6,272.9,60.83,38.23,64.77,61.57,58.24,-4.227,66.73,55.99,66.96,26.46,72.22,44.08,37.65,17.48,0,0,0,0,0,0,0,0,0,0,0,0,0,0,0,0,
113,268.4,270.2,67.71,14.17,56.46,46.47,66.17,-0.9398,45.74,33.14,66.61,4.642,59.19,8.931,34.93,7.512,0,0,0,0,0,0,0,0,0,0,0,0,0,0,0,0,
114,260.0,260.7,60.74,13.3,41.02,24.36,62.88,-3.988,34.09,-0.4476,47.43,-19.25,37.34,-21.55,11.12,-16.31,0,0,0,0,0,0,0,0,0,0,0,0,0,0,0,0,
115,211.8,215.6,9.849,-6.451,-0.4465,-11.68,4.284,-19.3,3.729,-32.28,-11.29,-25.13,-8.732,-39.94,-33.43,-45.53,0,0,0,0,0,0,0,0,0,0,0,0,0,0,0,0,
116,190.4,201.8,-16.93,2.69,-21.14,-18.3,-53.36,-5.921,-36.93,-43.39,-47.73,-19.48,-35.71,-40.54,-39.15,-46.27,0,0,0,0,0,0,0,0,0,0,0,0,0,0,0,0,
117,200.4,234.1,-26.33,90.01,-24.46,2.099,-65.67,20.1,-57.51,-34.63,-44.81,-30.78,-39.25,-44.68,-29.23,-43.83,0,0,0,0,0,0,0,0,0,0,0,0,0,0,0,0,
118,211.9,255.6,-40.52,134.2,-27.74,10.12,-66.4,25.47,-67.91,-32.79,-54.09,-43.86,-49.35,-59.84,-49.6,-65.22,0,0,0,0,0,0,0,0,0,0,0,0,0,0,0,0,
119,236.6,251.3,-33.27,51.16,-12.01,2.868,-67.1,12.03,-71.81,-40.33,-71.13,-49.89,-57.58,-70.43,-68.35,-84.68,0,0,0,0,0,0,0,0,0,0,0,0,0,0,0,0,
120,257.8,256.8,-13.28,-4.043,7.315,0.8096,-56.83,-1.825,-65.3,-46.99,-61.92,-52.3,-48.69,-70.4,-53.79,-76.62,0,0,0,0,0,0,0,0,0,0,0,0,0,0,0,0,
121,282.5,294.4,19.8,44.08,22.48,18.26,-37.29,1.994,-49.86,-48.98,-31.73,-37.97,-24.69,-59.2,-30.16,-54.88,0,0,0,0,0,0,0,0,0,0,0,0,0,0,0,0,
122,330.0,335.4,56.05,67.85,41.3,39.04,-16.79,5.449,-25.18,-39.42,-4.832,-26.72,-2.916,-46.16,-23.02,-44.82,0,0,0,0,0,0,0,0,0,0,0,0,0,0,0,0,
123,362.6,366.2,52.92,67.04,42.54,46.13,-13.92,-0.6722,-16.27,-26.65,-2.208,-36.93,-4.211,-42.57,-27.1,-45.8,0,0,0,0,0,0,0,0,0,0,0,0,0,0,0,0,
124,415.9,438.3,63.84,134.8,63.08,78.69,-15.99,19.94,-26.01,-17.87,-15.79,-41.0,-10.76,-35.32,-29.21,-43.26,0,0,0,0,0,0,0,0,0,0,0,0,0,0,0,0,
125,579.2,581.9,153.7,218.8,152.8,154.5,5.414,47.12,-10.41,1.209,-15.87,-25.54,3.69,-14.2,-20.08,-30.78,0,0,0,0,0,0,0,0,0,0,0,0,0,0,0,0,
126,769.8,740.5,244.6,254.0,247.5,219.5,25.92,36.85,27.3,26.24,-4.29,-5.43,24.38,5.897,-1.465,-11.2,0,0,0,0,0,0,0,0,0,0,0,0,0,0,0,0,
127,834.9,827.0,280.3,276.1,295.4,259.2,28.23,30.07,51.93,39.5,2.416,3.618,35.41,12.4,8.526,0.4259,0,0,0,0,0,0,0,0,0,0,0,0,0,0,0,0,
128,811.4,827.3,311.1,312.9,335.2,310.3,35.85,50.86,70.14,48.0,9.788,1.994,42.38,10.6,6.422,-2.117,0,0,0,0,0,0,0,0,0,0,0,0,0,0,0,0,
129,807.8,816.1,340.5,365.1,375.3,368.7,47.57,64.9,88.62,66.94,20.45,17.39,53.75,21.35,14.05,3.605,0,0,0,0,0,0,0,0,0,0,0,0,0,0,0,0,
130,813.4,823.2,358.7,409.3,402.2,405.9,57.6,73.27,104.5,95.97,27.45,45.9,70.81,49.61,28.9,20.48,0,0,0,0,0,0,0,0,0,0,0,0,0,0,0,0,
131,808.7,818.9,397.5,400.9,423.4,409.3,64.29,82.07,121.6,113.9,23.03,44.38,72.17,58.55,17.75,13.65,0,0,0,0,0,0,0,0,0,0,0,0,0,0,0,0,
132,807.6,818.0,399.6,385.9,413.9,388.0,40.32,85.72,118.6,104.1,2.571,25.63,52.47,39.76,-7.648,-7.114,0,0,0,0,0,0,0,0,0,0,0,0,0,0,0,0,
133,767.6,808.4,321.5,420.8,363.5,364.7,1.938,94.08,91.17,88.93,-13.98,31.27,46.43,36.83,-1.652,2.469,0,0,0,0,0,0,0,0,0,0,0,0,0,0,0,0,
134,691.7,745.1,268.0,423.2,324.4,343.4,-0.6485,94.89,76.02,90.36,-11.51,45.26,54.43,48.06,18.81,21.92,0,0,0,0,0,0,0,0,0,0,0,0,0,0,0,0,
135,647.5,676.1,271.3,384.1,311.3,322.6,10.49,90.92,75.54,95.07,-10.05,45.21,47.65,42.11,19.86,23.51,0,0,0,0,0,0,0,0,0,0,0,0,0,0,0,0,
136,604.8,630.6,254.0,395.0,285.5,303.7,-0.8177,96.82,61.78,87.9,-18.78,40.47,31.21,29.54,15.65,23.36,0,0,0,0,0,0,0,0,0,0,0,0,0,0,0,0,
137,516.7,551.3,225.8,370.4,244.0,261.0,-10.54,68.75,33.05,63.15,-32.66,28.91,6.768,11.31,-1.601,2.576,0,0,0,0,0,0,0,0,0,0,0,0,0,0,0,0,
138,423.3,440.0,198.2,246.1,199.9,190.6,-15.67,15.71,0.0185,25.1,-52.75,5.208,-24.63,-17.03,-37.09,-37.99,0,0,0,0,0,0,0,0,0,0,0,0,0,0,0,0,
139,332.9,334.9,141.8,168.0,155.9,141.1,-22.52,22.39,-20.57,-0.256,-50.21,-14.15,-22.85,-19.3,-43.05,-39.92,0,0,0,0,0,0,0,0,0,0,0,0,0,0,0,0,
140,241.8,244.0,110.0,165.8,136.6,131.5,4.545,58.96,-3.928,3.84,-11.93,-13.33,15.71,8.2,-14.87,-12.82,0,0,0,0,0,0,0,0,0,0,0,0,0,0,0,0,
141,177.2,176.2,114.6,143.9,130.3,128.1,38.04,45.17,31.89,22.88,10.53,-1.445,41.45,28.46,8.395,2.394,0,0,0,0,0,0,0,0,0,0,0,0,0,0,0,0,
142,115.8,116.3,86.55,123.8,100.1,117.4,26.88,25.14,43.63,40.6,14.31,8.521,54.43,46.12,30.2,25.77,0,0,0,0,0,0,0,0,0,0,0,0,0,0,0,0,
143,60.5,64.73,61.43,135.0,85.86,117.6,25.08,41.59,48.84,55.5,46.48,22.27,80.36,68.41,54.02,50.32,0,0,0,0,0,0,0,0,0,0,0,0,0,0,0,0,
144,38.32,40.77,77.61,137.0,103.7,115.4,43.35,45.68,68.78,59.28,59.39,22.38,81.86,55.08,46.66,30.92,0,0,0,0,0,0,0,0,0,0,0,0,0,0,0,0,
145,-9.043,-1.291,63.13,107.6,88.32,78.59,16.86,26.09,54.38,34.33,8.311,-10.28,38.18,4.17,7.882,-14.37,0,0,0,0,0,0,0,0,0,0,0,0,0,0,0,0,
146,-76.49,-68.9,32.87,65.88,55.87,37.26,-5.185,14.95,7.815,-2.199,-28.93,-26.79,7.72,-21.33,-16.68,-31.79,0,0,0,0,0,0,0,0,0,0,0,0,0,0,0,0,
147,-89.6,-105.5,52.03,42.31,56.24,31.17,16.77,9.979,-0.8592,-9.535,-24.06,-7.028,8.415,-7.676,-22.51,-26.73,0,0,0,0,0,0,0,0,0,0,0,0,0,0,0,0,
148,-111.1,-144.6,50.36,18.05,39.14,21.9,0.0481,8.263,8.172,-1.743,-32.91,-0.4482,1.484,3.794,-32.29,-26.31,0,0,0,0,0,0,0,0,0,0,0,0,0,0,0,0,
149,-188.0,-213.0,-6.945,-14.2,-5.446,-3.376,-44.44,19.64,-8.92,-7.618,-37.36,6.4,6.549,20.2,-15.8,-6.06,0,0,0,0,0,0,0,0,0,0,0,0,0,0,0,0,
150,-225.1,-239.4,-32.48,-10.2,-9.23,4.945,-43.08,29.53,-4.046,8.55,-17.84,35.16,38.27,50.63,20.38,29.93,0,0,0,0,0,0,0,0,0,0,0,0,0,0,0,0,
151,-218.2,-230.0,-29.11,-5.384,0.2195,18.44,-43.4,13.39,19.54,45.25,-26.17,31.78,34.74,49.28,11.38,24.91,0,0,0,0,0,0,0,0,0,0,0,0,0,0,0,0,
152,-243.2,-247.4,-54.11,-18.28,-35.33,-13.58,-67.0,-16.53,-5.442,27.09,-48.65,-1.025,-4.505,15.7,-9.634,-2.857,0,0,0,0,0,0,0,0,0,0,0,0,0,0,0,0,
153,-264.1,-256.3,-61.62,19.73,-56.65,-38.57,-39.06,-14.11,-37.47,-31.12,-27.7,-18.75,-12.42,-11.42,4.817,-12.67,0,0,0,0,0,0,0,0,0,0,0,0,0,0,0,0,
154,-248.8,-238.4,-31.85,37.96,-35.95,-35.03,15.48,11.05,-22.24,-51.41,-0.262,-50.21,-9.726,-44.77,-8.765,-44.94,0,0,0,0,0,0,0,0,0,0,0,0,0,0,0,0,
155,-253.4,-251.3,-33.43,-33.78,-47.93,-51.48,20.66,1.068,-19.96,-48.85,-8.104,-91.52,-30.32,-75.96,-49.23,-94.31,0,0,0,0,0,0,0,0,0,0,0,0,0,0,0,0,
156,-270.7,-276.1,-57.6,-67.69,-77.46,-59.6,20.69,-22.16,-37.38,-45.99,1.787,-74.42,-16.41,-52.88,-33.6,-85.52,0,0,0,0,0,0,0,0,0,0,0,0,0,0,0,0,
157,-253.9,-262.9,-45.81,-43.19,-61.14,-30.33,49.94,-13.75,-7.631,-12.5,42.08,-22.08,37.15,5.341,12.44,-27.79,0,0,0,0,0,0,0,0,0,0,0,0,0,0,0,0,
158,-239.0,-249.0,-34.67,-55.12,-45.06,-17.18,52.26,-4.823,35.87,25.41,45.34,-14.32,56.29,33.78,16.56,4.168,0,0,0,0,0,0,0,0,0,0,0,0,0,0,0,0,
159,-253.3,-257.4,-65.44,-59.53,-62.0,-33.38,23.15,-9.884,34.91,24.91,12.19,-42.28,31.62,12.31,-15.98,-17.85,0,0,0,0,0,0,0,0,0,0,0,0,0,0,0,0,
160,-268.0,-266.7,-101.5,-48.93,-84.02,-60.85,-10.41,-17.65,7.05,-3.502,-20.5,-65.5,-13.34,-48.26,-59.92,-72.25,0,0,0,0,0,0,0,0,0,0,0,0,0,0,0,0,
161,-285.5,-284.4,-129.8,-90.17,-123.1,-107.1,-55.89,-43.59,-40.87,-51.6,-73.8,-85.19,-71.9,-106.7,-92.39,-110.8,0,0,0,0,0,0,0,0,0,0,0,0,0,0,0,0,
162,-305.4,-303.2,-159.7,-125.9,-167.1,-143.3,-89.61,-67.68,-96.32,-95.48,-119.1,-82.03,-95.71,-103.7,-75.48,-88.74,0,0,0,0,0,0,0,0,0,0,0,0,0,0,0,0,
163,-302.5,-301.1,-166.3,-112.9,-170.6,-143.1,-86.86,-54.53,-108.1,-86.98,-81.57,-34.16,-53.44,-40.23,-14.54,-17.97,0,0,0,0,0,0,0,0,0,0,0,0,0,0,0,0,
164,-286.3,-286.1,-150.1,-102.3,-150.6,-128.6,-66.15,-19.34,-75.54,-43.07,-4.486,12.29,1.705,18.75,35.09,44.57,0,0,0,0,0,0,0,0,0,0,0,0,0,0,0,0,
165,-271.3,-268.6,-138.9,-98.54,-142.8,-118.7,-47.53,0.1972,-47.62,-28.22,12.16,8.344,14.32,22.34,42.4,59.16,0,0,0,0,0,0,0,0,0,0,0,0,0,0,0,0,
166,-258.1,-264.6,-139.8,-102.0,-153.4,-128.2,-48.99,-17.26,-53.75,-54.94,-20.02,-19.19,-7.298,-14.65,25.63,34.54,0,0,0,0,0,0,0,0,0,0,0,0,0,0,0,0,
167,-259.3,-275.4,-152.7,-122.6,-173.7,-155.5,-62.77,-41.95,-85.79,-83.64,-30.81,-27.27,-24.67,-40.44,18.65,11.4,0,0,0,0,0,0,0,0,0,0,0,0,0,0,0,0,
168,-256.6,-258.4,-150.6,-108.5,-171.2,-153.4,-48.02,-32.25,-102.3,-86.87,-16.03,-34.29,-24.41,-41.77,25.48,3.027,0,0,0,0,0,0,0,0,0,0,0,0,0,0,0,0,
169,-219.1,-210.0,-107.2,-63.13,-131.9,-110.8,-9.73,-21.82,-79.29,-67.7,-16.59,-60.97,-28.01,-39.8,9.011,-20.81,0,0,0,0,0,0,0,0,0,0,0,0,0,0,0,0,
170,-183.4,-182.4,-75.32,-64.44,-100.3,-83.57,1.959,-45.86,-52.11,-43.33,-43.29,-68.27,-46.17,-34.73,-37.91,-55.59,0,0,0,0,0,0,0,0,0,0,0,0,0,0,0,0,
171,-191.3,-185.0,-92.8,-93.33,-98.98,-83.69,-18.21,-54.54,-49.27,-29.05,-69.37,-47.64,-50.58,-22.73,-60.46,-58.92,0,0,0,0,0,0,0,0,0,0,0,0,0,0,0,0,
172,-199.8,-181.1,-102.7,-87.8,-90.87,-67.82,-27.47,-21.43,-41.05,-17.56,-66.01,-40.96,-18.11,-15.23,-35.25,-37.93,0,0,0,0,0,0,0,0,0,0,0,0,0,0,0,0,
173,-174.8,-163.0,-81.95,-72.28,-70.39,-45.68,-15.0,-0.3579,-12.79,-2.797,-31.65,-35.7,20.34,-17.87,-4.935,-26.28,0,0,0,0,0,0,0,0,0,0,0,0,0,0,0,0,
174,-162.9,-157.6,-75.06,-66.8,-71.43,-52.32,-4.905,-10.69,-0.1281,-8.666,5.988,-12.06,25.62,-29.98,3.112,-24.52,0,0,0,0,0,0,0,0,0,0,0,0,0,0,0,0,
175,-184.7,-174.8,-92.23,-67.21,-89.08,-70.66,-5.603,-21.78,-12.79,-37.91,16.26,-9.63,7.067,-44.91,-1.394,-27.1,0,0,0,0,0,0,0,0,0,0,0,0,0,0,0,0,
176,-204.8,-194.5,-121.6,-81.94,-111.3,-88.48,-26.55,-32.84,-34.79,-58.95,-5.039,-32.28,-17.16,-51.05,-11.27,-29.65,0,0,0,0,0,0,0,0,0,0,0,0,0,0,0,0,
177,-216.2,-206.5,-156.8,-75.68,-145.4,-114.5,-62.54,-44.65,-70.28,-64.37,-33.15,-43.27,-42.0,-49.22,-20.93,-25.72,0,0,0,0,0,0,0,0,0,0,0,0,0,0,0,0,
178,-225.3,-217.9,-167.8,-61.43,-165.7,-133.0,-67.15,-41.9,-101.9,-68.11,-42.56,-46.05,-49.02,-46.55,-19.22,-23.41,0,0,0,0,0,0,0,0,0,0,0,0,0,0,0,0,
179,-210.6,-215.7,-132.8,-97.61,-140.3,-127.7,-30.32,-30.04,-93.36,-68.67,-22.78,-43.79,-28.0,-35.7,-2.45,-14.53,0,0,0,0,0,0,0,0,0,0,0,0,0,0,0,0,
180,-165.6,-181.0,-73.99,-110.6,-88.31,-98.6,12.07,-15.74,-49.2,-52.65,18.71,-22.16,3.652,-11.98,21.83,12.12,0,0,0,0,0,0,0,0,0,0,0,0,0,0,0,0,
181,-128.5,-142.7,-33.7,-57.01,-56.16,-66.16,40.94,-8.363,-7.077,-26.67,48.73,-7.264,22.04,0.5019,39.89,25.84,0,0,0,0,0,0,0,0,0,0,0,0,0,0,0,0,
182,-128.2,-131.6,-28.86,-34.29,-50.21,-53.7,45.94,-10.74,6.819,-15.05,49.0,-15.72,22.1,-12.1,45.49,14.14,0,0,0,0,0,0,0,0,0,0,0,0,0,0,0,0,
183,-131.2,-124.7,-32.95,-42.99,-39.84,-47.31,22.06,-3.067,1.379,-16.31,28.75,-12.46,11.57,-27.49,38.38,1.779,0,0,0,0,0,0,0,0,0,0,0,0,0,0,0,0,
184,-120.8,-118.9,-37.43,-35.26,-39.47,-46.82,-20.32,-4.59,-12.79,-22.89,-17.25,0.0683,-12.13,-37.51,15.07,-13.89,0,0,0,0,0,0,0,0,0,0,0,0,0,0,0,0,
185,-133.8,-136.1,-54.19,-43.71,-66.22,-65.7,-47.74,-28.32,-35.05,-40.38,-52.34,-11.82,-24.66,-43.22,-5.175,-30.71,0,0,0,0,0,0,0,0,0,0,0,0,0,0,0,0,
186,-152.2,-152.4,-54.09,-61.74,-72.25,-75.48,-27.87,-35.7,-31.33,-48.6,-18.59,-27.15,6.654,-27.45,0.1308,-26.55,0,0,0,0,0,0,0,0,0,0,0,0,0,0,0,0,
187,-139.9,-156.6,-35.25,-76.61,-52.99,-71.67,-1.714,-35.86,4.526,-34.27,24.9,-24.57,35.66,-0.9837,6.987,-16.5,0,0,0,0,0,0,0,0,0,0,0,0,0,0,0,0,
188,-125.1,-155.9,-34.66,-94.15,-44.3,-66.73,-7.384,-38.94,18.5,-12.7,19.53,-18.96,26.93,13.85,3.655,-9.898,0,0,0,0,0,0,0,0,0,0,0,0,0,0,0,0,
189,-110.3,-124.0,-29.67,-76.26,-25.49,-39.49,1.157,-15.7,10.79,10.41,21.2,-9.726,25.61,23.7,12.85,6.249,0,0,0,0,0,0,0,0,0,0,0,0,0,0,0,0,
190,-84.07,-84.76,-15.9,-43.72,-4.737,-15.48,23.32,-3.656,13.57,15.82,29.69,-10.47,27.44,17.85,13.94,3.784,0,0,0,0,0,0,0,0,0,0,0,0,0,0,0,0,
191,-89.19,-94.01,-42.33,-50.49,-26.26,-32.46,11.58,-26.43,5.661,-10.7,4.31,-35.07,0.6649,-12.07,-10.67,-27.08,0,0,0,0,0,0,0,0,0,0,0,0,0,0,0,0,
192,-121.0,-118.7,-78.21,-66.51,-58.93,-52.14,-4.505,-36.4,-14.42,-31.37,-11.06,-37.18,-16.24,-24.61,-25.89,-38.27,0,0,0,0,0,0,0,0,0,0,0,0,0,0,0,0,
193,-123.4,-111.7,-71.75,-59.02,-59.34,-45.79,1.348,-27.72,-17.28,-21.77,-8.303,-7.752,-13.12,-9.486,-30.61,-26.62,0,0,0,0,0,0,0,0,0,0,0,0,0,0,0,0,
194,-100.1,-94.14,-54.04,-44.45,-46.11,-35.39,-1.31,-8.868,-16.42,-9.816,-21.62,2.002,-19.41,-7.204,-36.62,-24.49,0,0,0,0,0,0,0,0,0,0,0,0,0,0,0,0,
195,-82.99,-82.15,-52.27,-37.39,-38.19,-27.39,-9.921,18.67,-22.14,-10.92,-20.3,9.819,-13.25,-11.96,-16.57,-19.0,0,0,0,0,0,0,0,0,0,0,0,0,0,0,0,0,
196,-84.95,-77.38,-66.4,-40.26,-41.89,-25.14,-15.92,18.87,-14.6,-9.269,-9.776,24.3,-1.285,-13.16,4.606,-15.3,0,0,0,0,0,0,0,0,0,0,0,0,0,0,0,0,
197,-115.4,-103.8,-99.74,-55.71,-70.82,-51.99,-43.03,-9.387,-17.49,-17.73,-34.99,-18.25,-27.33,-44.7,-14.05,-42.5,0,0,0,0,0,0,0,0,0,0,0,0,0,0,0,0,
198,-141.4,-138.7,-112.6,-75.36,-93.48,-82.93,-62.87,-34.74,-46.08,-49.07,-47.02,-69.5,-42.65,-68.71,-21.9,-55.72,0,0,0,0,0,0,0,0,0,0,0,0,0,0,0,0,
199,-119.0,-123.4,-74.04,-75.4,-65.83,-64.68,-28.83,-47.4,-40.98,-51.13,-10.38,-43.44,-4.403,-30.82,5.122,-21.83,0,0,0,0,0,0,0,0,0,0,0,0,0,0,0,0,
200,-81.04,-82.96,-33.62,-52.4,-26.7,-24.44,19.79,-33.95,-0.8358,-13.88,16.3,-12.2,22.57,7.517,16.31,5.707,0,0,0,0,0,0,0,0,0,0,0,0,0,0,0,0,
201,-62.07,-60.16,-20.52,-18.13,-13.12,-1.365,39.44,-1.611,16.97,7.396,21.76,-21.96,23.15,13.36,16.33,15.37,0,0,0,0,0,0,0,0,0,0,0,0,0,0,0,0,
202,-54.27,-48.19,-14.38,-2.508,-7.742,9.964,31.51,4.358,27.71,14.81,10.72,-24.11,18.95,11.37,7.468,13.4,0,0,0,0,0,0,0,0,0,0,0,0,0,0,0,0,
203,-80.31,-72.38,-38.39,-41.97,-32.27,-17.64,-14.97,-28.56,20.48,0.8616,-49.07,-34.79,-29.87,-28.68,-46.47,-33.1,0,0,0,0,0,0,0,0,0,0,0,0,0,0,0,0,
204,-113.6,-108.1,-82.57,-57.54,-73.42,-57.06,-56.02,-50.16,-36.41,-44.46,-90.3,-44.08,-79.08,-68.43,-78.67,-63.37,0,0,0,0,0,0,0,0,0,0,0,0,0,0,0,0,
205,-93.82,-86.89,-77.29,3.364,-68.66,-43.73,-36.87,-22.82,-64.84,-46.72,-56.33,-13.33,-58.35,-45.09,-38.39,-27.12,0,0,0,0,0,0,0,0,0,0,0,0,0,0,0,0,
206,-87.0,-79.91,-61.5,-8.386,-62.35,-43.35,-26.08,5.436,-49.75,-24.52,-37.51,-1.49,-39.13,-30.27,-18.13,-16.86,0,0,0,0,0,0,0,0,0,0,0,0,0,0,0,0,
207,-132.5,-132.5,-97.06,-109.8,-93.69,-87.22,-63.11,-19.83,-65.36,-48.91,-52.89,-26.77,-50.12,-46.82,-35.64,-46.72,0,0,0,0,0,0,0,0,0,0,0,0,0,0,0,0,
208,-142.2,-146.3,-118.4,-134.3,-99.71,-93.65,-78.01,-59.4,-72.08,-54.33,-39.97,-41.51,-34.64,-39.46,-25.99,-48.42,0,0,0,0,0,0,0,0,0,0,0,0,0,0,0,0,
209,-114.3,-116.5,-99.82,-99.14,-80.64,-73.34,-63.46,-56.92,-40.81,-30.98,-29.78,-48.19,-19.76,-36.22,-15.87,-44.23,0,0,0,0,0,0,0,0,0,0,0,0,0,0,0,0,
210,-100.3,-98.47,-88.94,-77.12,-71.81,-58.57,-53.61,-24.83,-28.75,-39.91,-26.18,-33.12,-14.48,-35.09,-10.79,-29.42,0,0,0,0,0,0,0,0,0,0,0,0,0,0,0,0,
211,-86.84,-76.19,-75.52,-38.82,-54.93,-29.45,-33.18,-2.48,-20.6,-31.02,11.33,4.629,20.32,0.6678,25.64,20.69,0,0,0,0,0,0,0,0,0,0,0,0,0,0,0,0,
212,-83.37,-61.15,-60.33,-14.99,-42.48,-21.66,-10.55,4.283,1.146,1.899,28.84,12.2,35.69,18.5,40.62,38.53,0,0,0,0,0,0,0,0,0,0,0,0,0,0,0,0,
213,-85.3,-61.21,-65.26,-16.7,-50.82,-40.26,-22.6,14.31,-7.062,-1.46,-7.423,0.6449,-2.897,-1.373,3.488,10.6,0,0,0,0,0,0,0,0,0,0,0,0,0,0,0,0,
214,-64.74,-52.49,-64.47,-8.516,-53.63,-39.08,-55.42,16.29,-33.25,-9.248,-38.96,0.5774,-35.17,-10.45,-27.78,-5.861,0,0,0,0,0,0,0,0,0,0,0,0,0,0,0,0,
215,-55.33,-52.7,-47.84,-19.58,-47.05,-30.34,-54.74,-3.91,-37.99,-0.5715,-36.25,-8.033,-31.54,-7.408,-29.13,-11.61,0,0,0,0,0,0,0,0,0,0,0,0,0,0,0,0,
216,-60.14,-53.1,-30.16,-29.44,-39.78,-22.76,-15.28,-5.981,-26.39,-1.319,-20.58,-18.98,-19.99,-9.331,-21.38,-16.09,0,0,0,0,0,0,0,0,0,0,0,0,0,0,0,0,
217,-47.27,-29.02,-22.9,1.54,-34.97,-10.26,4.38,21.07,-16.66,2.774,-14.2,-16.32,-20.6,-16.55,-17.39,-14.16,0,0,0,0,0,0,0,0,0,0,0,0,0,0,0,0,
218,-51.55,-28.91,-42.59,1.706,-56.09,-28.98,-17.45,19.75,-26.09,1.658,-19.6,-17.09,-34.28,-34.52,-17.44,-23.65,0,0,0,0,0,0,0,0,0,0,0,0,0,0,0,0,
219,-89.17,-72.33,-67.31,-45.19,-96.5,-75.17,-40.74,-18.47,-58.41,-29.6,-22.6,-28.77,-50.39,-54.4,-16.44,-42.84,0,0,0,0,0,0,0,0,0,0,0,0,0,0,0,0,
220,-113.9,-100.4,-63.35,-61.15,-108.7,-101.4,-37.66,-46.56,-85.51,-58.71,-17.15,-36.34,-53.4,-61.17,-14.4,-46.51,0,0,0,0,0,0,0,0,0,0,0,0,0,0,0,0,
221,-107.9,-97.75,-47.66,-66.9,-92.28,-109.4,-14.36,-51.43,-84.33,-70.67,-0.1773,-34.15,-34.96,-57.86,-3.255,-28.36,0,0,0,0,0,0,0,0,0,0,0,0,0,0,0,0,
222,-86.8,-91.28,-40.1,-88.84,-79.21,-107.0,6.134,-42.84,-61.56,-79.54,27.91,-37.14,-3.294,-46.92,22.05,-6.048,0,0,0,0,0,0,0,0,0,0,0,0,0,0,0,0,
223,-63.89,-74.49,-32.69,-69.51,-63.5,-77.53,11.06,-30.66,-31.79,-62.05,42.71,-39.76,19.22,-27.05,36.9,1.416,0,0,0,0,0,0,0,0,0,0,0,0,0,0,0,0,
224,-51.1,-56.12,-25.74,-49.54,-43.2,-48.15,10.53,-26.5,-11.48,-24.95,27.37,-26.96,17.85,-14.31,26.32,-6.737,0,0,0,0,0,0,0,0,0,0,0,0,0,0,0,0,
225,-49.99,-59.07,-30.32,-61.43,-35.75,-45.07,5.338,-22.28,-10.24,-18.71,-1.163,-28.0,0.0184,-20.32,7.411,-17.46,0,0,0,0,0,0,0,0,0,0,0,0,0,0,0,0,
226,-48.0,-55.41,-36.0,-18.25,-31.44,-37.02,-6.402,-14.56,-13.97,-27.84,-25.34,-44.55,-17.71,-22.8,-5.285,-13.6,0,0,0,0,0,0,0,0,0,0,0,0,0,0,0,0,
227,-37.07,-34.16,-27.02,16.01,-23.25,-20.84,-14.68,-12.22,-12.96,-11.29,-47.38,-30.32,-28.57,-8.821,-16.71,-0.1097,0,0,0,0,0,0,0,0,0,0,0,0,0,0,0,0,
228,-27.26,-28.7,-28.32,-47.39,-24.78,-24.26,-31.48,-7.66,-16.15,7.945,-68.29,-4.91,-39.2,-5.715,-38.17,-7.709,0,0,0,0,0,0,0,0,0,0,0,0,0,0,0,0,
229,-34.86,-37.23,-58.12,-77.81,-39.68,-36.62,-61.17,-8.379,-26.43,3.061,-70.8,-5.437,-49.49,-22.06,-55.69,-27.74,0,0,0,0,0,0,0,0,0,0,0,0,0,0,0,0,
230,-53.67,-43.85,-77.99,-42.98,-59.88,-44.38,-67.28,-17.88,-38.83,-14.25,-43.68,-6.477,-44.22,-32.37,-43.56,-28.36,0,0,0,0,0,0,0,0,0,0,0,0,0,0,0,0,
231,-56.19,-48.02,-67.59,-43.51,-67.94,-49.81,-50.1,-9.704,-45.87,-30.08,-15.86,-9.229,-32.64,-37.5,-21.32,-28.81,0,0,0,0,0,0,0,0,0,0,0,0,0,0,0,0,
232,-44.74,-45.15,-61.46,-47.02,-59.71,-46.87,-48.19,-8.578,-47.6,-36.6,-16.69,-32.21,-38.91,-46.32,-18.16,-39.75,0,0,0,0,0,0,0,0,0,0,0,0,0,0,0,0,
233,-40.6,-38.93,-62.74,-26.82,-44.38,-32.26,-37.43,-31.86,-44.3,-23.6,-14.04,-37.31,-34.06,-35.39,-9.195,-26.97,0,0,0,0,0,0,0,0,0,0,0,0,0,0,0,0,
234,-22.26,-23.84,-30.12,-16.29,-15.74,-12.86,14.67,-12.7,-15.36,3.34,22.63,-12.65,7.239,-8.132,19.93,-0.0072,0,0,0,0,0,0,0,0,0,0,0,0,0,0,0,0,
235,5.2,-3.77,3.185,-1.619,1.246,-10.42,50.68,34.31,23.75,10.38,44.28,-3.521,29.3,-3.996,24.69,-0.568,0,0,0,0,0,0,0,0,0,0,0,0,0,0,0,0,
236,-7.548,-8.396,-21.49,4.761,-23.8,-33.5,33.68,25.25,18.39,-14.62,15.96,-16.44,-0.3241,-25.72,-6.792,-19.88,0,0,0,0,0,0,0,0,0,0,0,0,0,0,0,0,
237,-30.94,-23.07,-41.35,-16.85,-49.29,-58.49,11.34,-6.441,-20.19,-42.95,-21.88,-23.53,-39.63,-51.98,-32.41,-32.02,0,0,0,0,0,0,0,0,0,0,0,0,0,0,0,0,
238,-37.28,-30.74,-39.65,-46.35,-57.79,-77.6,-11.0,-15.17,-49.15,-63.78,-49.78,-24.11,-66.46,-68.36,-44.83,-39.03,0,0,0,0,0,0,0,0,0,0,0,0,0,0,0,0,
239,-61.47,-51.32,-85.99,-63.34,-75.28,-87.24,-49.32,-30.69,-70.5,-71.18,-73.61,-27.62,-80.33,-58.94,-55.08,-38.5,0,0,0,0,0,0,0,0,0,0,0,0,0,0,0,0,
240,-57.61,-55.99,-84.67,-51.45,-66.58,-71.33,-50.28,-38.01,-78.24,-51.97,-79.85,-37.94,-78.86,-43.08,-57.31,-34.67,0,0,0,0,0,0,0,0,0,0,0,0,0,0,0,0,
241,-9.291,-29.83,6.468,-37.08,-27.48,-52.09,-17.42,-16.98,-65.25,-39.12,-80.15,-55.64,-81.51,-53.53,-65.53,-53.22,0,0,0,0,0,0,0,0,0,0,0,0,0,0,0,0,
242,-1.733,-19.22,21.77,-45.16,-17.19,-46.71,-22.16,-4.746,-50.7,-49.33,-73.98,-57.31,-76.05,-62.67,-68.14,-72.73,0,0,0,0,0,0,0,0,0,0,0,0,0,0,0,0,
243,-4.366,-12.45,-7.526,-40.4,-14.93,-28.96,-32.51,-6.362,-25.17,-37.76,-30.02,-31.07,-27.78,-37.3,-29.6,-50.21,0,0,0,0,0,0,0,0,0,0,0,0,0,0,0,0,
244,25.21,10.22,30.05,-28.24,9.878,-5.189,-2.037,1.995,17.91,-0.9433,17.42,-10.7,25.74,-3.582,13.07,-17.34,0,0,0,0,0,0,0,0,0,0,0,0,0,0,0,0,
245,5.232,1.453,19.26,-41.59,2.757,-9.338,6.601,4.019,35.63,17.41,19.64,-6.451,31.76,9.364,15.99,-11.07,0,0,0,0,0,0,0,0,0,0,0,0,0,0,0,0,
246,-43.64,-36.06,-48.12,-66.97,-40.24,-39.26,-21.76,-19.58,10.64,5.937,3.212,4.448,12.91,6.293,9.901,-1.6,0,0,0,0,0,0,0,0,0,0,0,0,0,0,0,0,
247,-39.68,-50.86,-45.88,-94.84,-53.41,-64.97,-24.74,-41.95,-16.37,-18.46,-3.193,7.065,3.725,-1.762,16.97,22.02,0,0,0,0,0,0,0,0,0,0,0,0,0,0,0,0,
248,-26.84,-46.1,-18.79,-103.5,-32.93,-61.68,-9.115,-33.6,-19.03,-32.66,-8.108,-6.002,-6.115,-11.46,15.77,29.44,0,0,0,0,0,0,0,0,0,0,0,0,0,0,0,0,
249,-34.4,-43.76,-25.0,-70.01,-22.78,-40.62,-11.26,-9.355,-19.03,-27.27,-22.14,1.041,-27.63,-18.67,-4.762,17.65,0,0,0,0,0,0,0,0,0,0,0,0,0,0,0,0,
250,-20.19,-34.26,-17.94,-36.98,-26.22,-29.39,-14.74,7.518,-28.93,-19.43,-37.84,11.74,-39.61,-18.86,-24.91,1.91,0,0,0,0,0,0,0,0,0,0,0,0,0,0,0,0,
251,5.777,-13.74,1.38,-34.82,-21.9,-25.06,-10.19,10.84,-24.15,-16.77,-38.56,-20.09,-29.16,-24.28,-29.1,-22.76,0,0,0,0,0,0,0,0,0,0,0,0,0,0,0,0,
252,1.218,-8.898,-5.465,-46.38,-20.05,-27.63,-15.4,-6.636,-9.876,-18.4,-37.09,-56.09,-20.05,-44.45,-31.06,-48.52,0,0,0,0,0,0,0,0,0,0,0,0,0,0,0,0,
253,-21.96,-25.5,-22.57,-54.7,-29.18,-44.35,-14.51,-33.03,-16.13,-35.02,-32.55,-46.67,-16.61,-52.69,-28.06,-41.38,0,0,0,0,0,0,0,0,0,0,0,0,0,0,0,0,
254,-18.64,-26.27,-7.71,-44.94,-22.57,-50.38,17.76,-36.22,-20.98,-51.94,2.055,-28.18,-4.65,-39.58,-13.39,-14.84,0,0,0,0,0,0,0,0,0,0,0,0,0,0,0,0,
255,-1.904,-17.75,18.8,-45.89,-12.65,-50.93,40.71,-17.21,-15.33,-54.58,17.84,-33.41,-16.51,-44.32,-21.9,-19.04,0,0,0,0,0,0,0,0,0,0,0,0,0,0,0,0,
256,-9.749,-33.92,15.22,-63.38,-30.67,-70.63,17.03,-9.127,-41.45,-68.98,-22.48,-35.08,-55.8,-61.53,-47.04,-36.39,0,0,0,0,0,0,0,0,0,0,0,0,0,0,0,0,
257,-6.12,-29.56,14.76,-20.85,-28.52,-59.57,-0.9724,-18.21,-67.57,-73.59,-38.84,-18.83,-53.13,-38.56,-38.55,-26.19,0,0,0,0,0,0,0,0,0,0,0,0,0,0,0,0,
258,35.14,23.85,41.9,41.51,22.58,5.281,20.32,-12.84,-29.27,-17.02,-6.235,-0.6345,-4.785,10.55,-11.19,-6.829,0,0,0,0,0,0,0,0,0,0,0,0,0,0,0,0,
259,65.46,60.07,58.46,16.81,59.35,50.99,34.16,19.81,30.97,50.48,8.688,15.65,29.03,41.25,5.727,14.14,0,0,0,0,0,0,0,0,0,0,0,0,0,0,0,0,
260,58.15,51.69,43.63,-20.19,50.58,48.52,16.54,46.7,54.41,67.37,0.3632,30.89,42.17,61.17,26.96,52.84,0,0,0,0,0,0,0,0,0,0,0,0,0,0,0,0,
261,24.73,24.66,6.498,-10.98,19.04,24.62,-12.15,38.36,47.1,58.82,-5.838,34.05,44.26,69.11,46.8,81.92,0,0,0,0,0,0,0,0,0,0,0,0,0,0,0,0,
262,-7.07,-5.878,-18.33,-34.27,-7.945,-4.281,-27.74,7.957,24.13,37.4,-5.083,30.45,34.39,53.52,47.74,77.01,0,0,0,0,0,0,0,0,0,0,0,0,0,0,0,0,
263,3.473,-3.073,2.975,-54.96,4.061,-2.753,-13.69,-8.36,13.61,12.04,12.48,36.75,31.65,45.69,41.75,61.47,0,0,0,0,0,0,0,0,0,0,0,0,0,0,0,0,
264,41.51,38.38,41.87,-8.439,41.34,33.35,12.4,2.964,31.02,24.11,31.92,41.83,34.73,54.94,41.05,54.36,0,0,0,0,0,0,0,0,0,0,0,0,0,0,0,0,
265,59.95,62.49,53.36,20.98,55.28,50.82,20.83,9.595,44.41,54.78,32.91,37.52,32.45,55.06,42.37,47.44,0,0,0,0,0,0,0,0,0,0,0,0,0,0,0,0,
266,55.75,51.97,30.81,-8.278,42.91,32.15,7.032,-7.868,39.99,54.56,22.24,27.68,28.04,37.93,33.27,24.63,0,0,0,0,0,0,0,0,0,0,0,0,0,0,0,0,
267,34.19,25.81,-8.451,-33.73,14.35,-3.316,-17.33,-12.92,23.39,23.85,3.316,-11.91,6.749,-8.283,2.066,-20.77,0,0,0,0,0,0,0,0,0,0,0,0,0,0,0,0,
268,-4.013,-9.022,-40.35,-38.47,-28.09,-42.94,-33.35,-0.272,-9.999,-18.98,-16.39,-58.08,-30.53,-69.41,-33.78,-62.14,0,0,0,0,0,0,0,0,0,0,0,0,0,0,0,0,
269,-42.28,-37.63,-63.03,-35.46,-63.06,-69.48,-39.07,-9.333,-43.71,-48.41,-25.37,-42.84,-52.51,-86.99,-42.46,-63.0,0,0,0,0,0,0,0,0,0,0,0,0,0,0,0,0,
270,-64.09,-44.98,-73.96,-22.79,-73.09,-69.98,-38.67,-16.66,-59.58,-45.81,-26.15,-3.934,-51.52,-60.09,-30.35,-34.89,0,0,0,0,0,0,0,0,0,0,0,0,0,0,0,0,
271,-53.02,-30.64,-56.18,-16.28,-58.75,-48.58,-22.71,7.851,-57.06,-31.55,-22.12,-2.264,-40.27,-31.96,-27.13,-14.89,0,0,0,0,0,0,0,0,0,0,0,0,0,0,0,0,
272,-25.61,-10.13,-39.7,-10.74,-39.45,-23.48,-14.2,19.13,-42.01,-22.69,-25.86,3.138,-29.92,-4.531,-32.12,-5.996,0,0,0,0,0,0,0,0,0,0,0,0,0,0,0,0,
273,-19.48,-1.4,-45.79,19.94,-28.09,-6.752,-24.93,8.904,-29.09,-8.735,-34.55,28.41,-19.57,25.37,-23.87,11.15,0,0,0,0,0,0,0,0,0,0,0,0,0,0,0,0,
274,-13.04,5.798,-30.65,40.66,-6.125,12.13,-14.22,11.34,-10.9,16.83,-17.62,44.25,4.983,50.98,-0.6077,37.5,0,0,0,0,0,0,0,0,0,0,0,0,0,0,0,0,
275,16.2,22.49,2.68,19.18,23.14,33.6,13.79,10.6,24.35,45.8,8.479,48.2,31.74,68.72,18.35,46.96,0,0,0,0,0,0,0,0,0,0,0,0,0,0,0,0,
276,35.73,38.51,18.57,6.756,38.4,44.7,35.52,6.621,50.38,60.89,15.15,25.93,39.87,56.68,23.52,25.78,0,0,0,0,0,0,0,0,0,0,0,0,0,0,0,0,
277,43.25,50.59,44.94,23.04,52.63,49.78,68.05,18.62,57.6,53.72,34.55,-7.386,45.99,25.24,27.52,5.724,0,0,0,0,0,0,0,0,0,0,0,0,0,0,0,0,
278,58.52,60.21,86.39,28.07,69.86,56.48,90.93,18.0,68.16,41.97,68.73,-5.682,63.49,23.26,35.77,10.16,0,0,0,0,0,0,0,0,0,0,0,0,0,0,0,0,
279,70.85,67.55,100.6,23.46,75.01,62.17,81.06,1.171,80.0,45.23,68.17,10.39,71.2,43.59,35.39,17.7,0,0,0,0,0,0,0,0,0,0,0,0,0,0,0,0,
280,73.58,70.33,87.15,20.92,72.01,58.48,63.0,0.1974,72.6,53.58,32.68,11.75,48.31,41.23,21.08,13.58,0,0,0,0,0,0,0,0,0,0,0,0,0,0,0,0,
281,64.04,58.36,58.04,6.157,55.64,33.49,38.5,6.828,39.36,43.98,-0.6121,17.05,5.548,17.28,-1.631,5.26,0,0,0,0,0,0,0,0,0,0,0,0,0,0,0,0,
282,36.07,29.1,21.88,-20.15,13.0,-14.49,13.93,-1.148,-2.256,10.74,-14.98,30.74,-24.45,-0.2746,-22.42,3.078,0,0,0,0,0,0,0,0,0,0,0,0,0,0,0,0,
283,4.466,-7.361,7.399,-47.09,-34.72,-65.67,15.68,-18.44,-28.62,-32.63,-11.79,39.83,-30.52,-6.42,-24.94,14.66,0,0,0,0,0,0,0,0,0,0,0,0,0,0,0,0,
284,-15.08,-32.09,8.52,-62.12,-59.0,-91.46,20.29,-23.62,-40.14,-63.24,-5.012,31.94,-31.24,-21.05,-13.55,20.06,0,0,0,0,0,0,0,0,0,0,0,0,0,0,0,0,
285,-29.13,-37.13,-7.16,-51.24,-68.72,-92.6,1.379,-15.45,-52.97,-74.28,-11.47,4.039,-41.64,-53.35,-16.5,-5.519,0,0,0,0,0,0,0,0,0,0,0,0,0,0,0,0,
286,-42.08,-34.16,-31.34,-16.16,-76.08,-88.23,-17.8,-16.25,-70.17,-79.04,-29.02,-22.4,-56.74,-75.73,-31.83,-35.98,0,0,0,0,0,0,0,0,0,0,0,0,0,0,0,0,
287,-38.82,-19.26,-35.57,9.54,-63.24,-72.23,-15.94,-18.22,-73.57,-73.3,-33.08,-29.16,-51.67,-61.44,-24.63,-32.96,0,0,0,0,0,0,0,0,0,0,0,0,0,0,0,0,
288,-10.65,7.644,-9.754,-6.516,-26.55,-41.2,7.744,-4.689,-47.64,-46.9,-6.95,-12.26,-8.522,-17.3,8.846,-4.777,0,0,0,0,0,0,0,0,0,0,0,0,0,0,0,0,
289,38.23,34.42,42.35,-18.76,22.26,0.0237,48.05,12.38,2.839,-4.529,32.46,15.7,47.12,29.69,36.77,16.21,0,0,0,0,0,0,0,0,0,0,0,0,0,0,0,0,
290,96.7,75.26,96.63,25.4,78.39,53.52,80.24,31.14,58.51,46.2,55.95,21.25,67.91,43.87,40.01,13.41,0,0,0,0,0,0,0,0,0,0,0,0,0,0,0,0,
291,126.1,115.4,112.9,76.1,108.1,87.47,78.12,43.5,83.6,72.77,53.59,8.905,50.73,27.24,27.04,3.473,0,0,0,0,0,0,0,0,0,0,0,0,0,0,0,0,
292,109.8,112.5,88.69,76.77,90.67,78.39,55.96,29.67,69.4,56.24,38.04,14.46,36.81,26.42,18.76,12.22,0,0,0,0,0,0,0,0,0,0,0,0,0,0,0,0,
293,81.69,77.87,59.97,38.21,60.92,52.18,38.09,8.292,52.93,33.82,28.27,25.81,36.8,40.86,21.57,28.6,0,0,0,0,0,0,0,0,0,0,0,0,0,0,0,0,
294,58.66,48.03,46.74,6.644,47.69,33.66,33.57,4.271,46.49,24.83,39.84,27.27,43.46,49.85,34.87,41.8,0,0,0,0,0,0,0,0,0,0,0,0,0,0,0,0,
295,63.67,55.33,67.79,18.36,64.59,47.13,61.48,13.97,58.03,34.23,71.91,40.49,74.82,78.24,63.99,65.25,0,0,0,0,0,0,0,0,0,0,0,0,0,0,0,0,
296,107.3,96.05,115.7,31.12,95.62,79.1,98.09,25.21,100.1,70.41,87.6,49.96,101.1,99.88,76.67,71.38,0,0,0,0,0,0,0,0,0,0,0,0,0,0,0,0,
297,118.7,105.6,122.3,14.99,92.45,70.83,86.5,22.88,116.7,81.28,66.77,32.89,74.69,65.63,44.16,39.31,0,0,0,0,0,0,0,0,0,0,0,0,0,0,0,0,
298,82.04,73.55,81.84,6.032,62.76,32.41,48.33,2.461,78.36,42.25,42.43,19.76,31.04,20.24,11.73,13.1,0,0,0,0,0,0,0,0,0,0,0,0,0,0,0,0,
299,61.22,48.7,53.15,-9.751,37.66,4.642,28.27,-14.26,34.68,7.485,27.69,16.92,6.091,-0.382,7.405,4.59,0,0,0,0,0,0,0,0,0,0,0,0,0,0,0,0,
300,57.72,43.35,41.65,-10.06,21.66,-6.795,25.83,-3.6,7.41,-6.109,21.32,7.569,-4.07,-12.95,7.638,-2.511,0,0,0,0,0,0,0,0,0,0,0,0,0,0,0,0,
301,57.75,53.86,43.23,36.25,30.14,9.336,37.78,10.26,7.047,-5.127,30.64,5.528,2.0,-12.33,4.856,-0.61,0,0,0,0,0,0,0,0,0,0,0,0,0,0,0,0,
302,55.39,54.24,45.88,20.23,37.22,20.93,33.12,-7.745,23.22,6.734,18.61,2.935,-1.726,-12.95,-8.716,-6.853,0,0,0,0,0,0,0,0,0,0,0,0,0,0,0,0,
303,39.28,33.15,20.51,-45.79,15.58,-1.796,0.5663,-21.38,7.965,0.6447,-15.4,-4.512,-17.3,-24.92,-20.9,-14.8,0,0,0,0,0,0,0,0,0,0,0,0,0,0,0,0,
304,45.34,35.06,6.016,-34.75,8.603,-12.57,-6.928,-9.418,-11.34,-14.93,-14.33,10.68,-9.387,-17.88,-0.7983,4.366,0,0,0,0,0,0,0,0,0,0,0,0,0,0,0,0,
305,62.89,47.33,20.91,-10.9,22.62,-1.726,10.66,-13.83,2.34,-17.6,8.007,28.9,8.894,5.816,28.98,21.38,0,0,0,0,0,0,0,0,0,0,0,0,0,0,0,0,
306,60.05,45.98,28.33,-7.058,36.34,13.62,20.48,-10.48,21.97,-6.182,20.93,27.4,28.68,32.96,45.2,30.97,0,0,0,0,0,0,0,0,0,0,0,0,0,0,0,0,
307,80.01,64.61,40.8,32.29,53.32,36.48,30.52,28.56,46.98,28.44,28.24,25.52,49.7,50.74,49.95,47.58,0,0,0,0,0,0,0,0,0,0,0,0,0,0,0,0,
308,101.4,74.99,58.44,32.18,49.3,35.91,38.42,33.08,62.12,45.46,19.63,17.98,44.13,33.89,35.8,40.6,0,0,0,0,0,0,0,0,0,0,0,0,0,0,0,0,
309,87.41,62.89,63.38,9.088,43.27,30.19,50.68,-7.445,51.55,21.17,22.11,-0.4249,37.84,13.52,25.43,24.86,0,0,0,0,0,0,0,0,0,0,0,0,0,0,0,0,
310,96.19,82.11,71.98,40.88,70.67,60.5,71.42,-20.65,58.83,17.08,45.6,-13.63,49.29,14.06,30.13,24.36,0,0,0,0,0,0,0,0,0,0,0,0,0,0,0,0,
311,120.3,108.7,75.95,55.42,83.05,82.21,76.6,-2.883,69.77,30.83,50.81,-17.06,49.85,13.97,34.01,21.63,0,0,0,0,0,0,0,0,0,0,0,0,0,0,0,0,
312,125.8,118.2,83.07,62.41,76.12,87.34,83.07,14.92,60.12,33.9,59.57,-8.725,60.28,27.61,48.08,28.87,0,0,0,0,0,0,0,0,0,0,0,0,0,0,0,0,
313,133.0,130.3,97.38,90.37,79.78,94.81,81.57,31.48,66.5,56.18,66.72,1.99,69.5,40.08,51.37,32.27,0,0,0,0,0,0,0,0,0,0,0,0,0,0,0,0,
314,104.4,105.3,66.87,54.62,51.94,60.93,32.45,35.06,59.8,59.29,30.38,20.05,40.39,24.32,29.68,15.48,0,0,0,0,0,0,0,0,0,0,0,0,0,0,0,0,
315,47.58,57.49,23.47,31.2,11.4,15.87,-0.8954,23.69,23.49,20.09,7.706,54.15,21.42,23.81,25.4,19.02,0,0,0,0,0,0,0,0,0,0,0,0,0,0,0,0,
316,43.37,54.8,26.53,81.95,13.25,16.55,11.54,23.65,9.508,7.953,3.993,50.8,10.39,20.12,13.82,14.49,0,0,0,0,0,0,0,0,0,0,0,0,0,0,0,0,
317,66.28,64.97,29.61,62.95,18.35,17.75,-2.085,34.15,-9.278,7.491,-41.44,1.39,-35.53,-28.36,-35.57,-31.75,0,0,0,0,0,0,0,0,0,0,0,0,0,0,0,0,
318,70.39,60.12,20.98,-1.083,16.5,11.55,-18.44,27.37,-41.56,-17.18,-60.59,-19.64,-51.45,-52.1,-59.8,-52.81,0,0,0,0,0,0,0,0,0,0,0,0,0,0,0,0,
319,70.96,63.06,27.03,13.34,35.19,28.37,2.464,0.5104,-22.68,-14.47,-16.56,-9.181,-17.69,-31.02,-43.32,-37.78,0,0,0,0,0,0,0,0,0,0,0,0,0,0,0,0,
320,58.13,59.35,24.99,35.37,38.34,32.65,11.86,-13.23,12.02,5.28,8.929,-7.328,-0.7476,-23.18,-26.87,-29.68,0,0,0,0,0,0,0,0,0,0,0,0,0,0,0,0,
321,56.83,63.65,31.16,33.87,28.15,27.78,25.27,13.45,15.72,0.2574,17.75,-5.079,10.59,-13.18,-7.003,-12.66,0,0,0,0,0,0,0,0,0,0,0,0,0,0,0,0,
322,92.46,88.87,52.25,56.32,38.7,41.05,56.82,41.31,29.5,2.9,37.26,6.51,29.3,12.26,8.859,8.317,0,0,0,0,0,0,0,0,0,0,0,0,0,0,0,0,
323,83.85,73.45,28.53,42.84,28.76,23.42,35.54,17.92,34.79,12.8,22.52,8.668,8.405,2.656,-11.4,-7.225,0,0,0,0,0,0,0,0,0,0,0,0,0,0,0,0,
324,16.4,20.12,-21.12,-7.68,-12.78,-27.14,-11.59,-12.02,-6.306,-8.4,-14.49,-19.11,-36.39,-42.98,-48.29,-41.98,0,0,0,0,0,0,0,0,0,0,0,0,0,0,0,0,
325,1.357,5.963,-20.28,-6.652,-23.79,-34.68,-5.879,-2.142,-39.28,-36.12,-20.94,-40.14,-48.17,-61.45,-51.07,-44.46,0,0,0,0,0,0,0,0,0,0,0,0,0,0,0,0,
326,44.14,29.84,13.95,20.97,3.396,1.83,18.96,2.794,-28.5,-29.54,-2.873,-3.852,-27.65,-31.52,-18.76,-13.67,0,0,0,0,0,0,0,0,0,0,0,0,0,0,0,0,
327,60.61,46.52,32.41,28.63,30.72,30.86,36.47,2.946,-1.98,0.4582,28.94,40.26,3.601,8.703,21.79,20.34,0,0,0,0,0,0,0,0,0,0,0,0,0,0,0,0,
328,66.24,60.98,48.07,48.67,55.03,52.89,69.38,37.15,30.51,28.75,73.64,50.67,44.49,44.81,67.82,56.06,0,0,0,0,0,0,0,0,0,0,0,0,0,0,0,0,
329,94.65,83.45,64.18,57.5,77.96,73.6,82.55,53.11,64.15,53.88,90.15,57.84,72.1,74.25,89.49,73.35,0,0,0,0,0,0,0,0,0,0,0,0,0,0,0,0,
330,103.1,90.28,52.71,33.62,80.56,75.53,54.26,20.48,71.72,72.69,59.1,46.26,62.03,71.37,59.76,45.43,0,0,0,0,0,0,0,0,0,0,0,0,0,0,0,0,
331,88.86,82.7,33.98,57.73,72.76,77.27,30.3,6.148,60.23,76.92,27.95,17.7,48.37,54.86,31.99,20.93,0,0,0,0,0,0,0,0,0,0,0,0,0,0,0,0,
332,87.8,85.32,36.69,103.2,78.31,87.34,23.41,21.6,65.05,72.78,18.46,10.66,47.52,46.35,25.85,20.85,0,0,0,0,0,0,0,0,0,0,0,0,0,0,0,0,
333,75.84,71.23,27.88,43.01,65.58,59.2,8.118,14.96,64.97,50.45,0.1366,-8.663,20.27,16.12,-3.092,-6.011,0,0,0,0,0,0,0,0,0,0,0,0,0,0,0,0,
334,38.68,26.85,-8.432,-45.67,16.37,6.264,-13.06,-4.779,25.49,6.477,-27.19,-40.67,-17.01,-14.21,-33.02,-39.09,0,0,0,0,0,0,0,0,0,0,0,0,0,0,0,0,
335,13.1,5.754,-36.51,-28.85,-14.93,-8.22,-26.4,-6.271,-12.58,-14.21,-37.52,-25.55,-21.03,-6.001,-29.75,-29.76,0,0,0,0,0,0,0,0,0,0,0,0,0,0,0,0,
336,2.625,7.086,-49.78,5.442,-19.58,-8.181,-28.94,1.842,-17.51,-3.115,-26.95,10.84,-13.13,4.628,-20.47,-8.275,0,0,0,0,0,0,0,0,0,0,0,0,0,0,0,0,
337,-5.552,-7.065,-62.34,-8.272,-32.58,-24.64,-24.24,16.87,-18.08,-4.705,-8.21,14.91,-14.98,-3.621,-20.18,-6.541,0,0,0,0,0,0,0,0,0,0,0,0,0,0,0,0,
338,-3.785,-13.57,-61.28,4.042,-33.06,-23.22,-28.95,25.61,-25.14,-18.28,-10.4,2.588,-28.33,-13.52,-27.33,-17.43,0,0,0,0,0,0,0,0,0,0,0,0,0,0,0,0,
339,2.685,-4.216,-47.21,20.31,-16.64,-9.129,-46.76,0.2777,-36.33,-18.18,-45.99,1.154,-57.26,-22.88,-42.17,-27.49,0,0,0,0,0,0,0,0,0,0,0,0,0,0,0,0,
340,12.47,2.252,-45.54,0.3968,-16.2,-7.973,-63.93,-26.53,-53.71,-15.08,-74.62,-3.204,-73.61,-31.99,-48.72,-29.6,0,0,0,0,0,0,0,0,0,0,0,0,0,0,0,0,
341,22.3,13.45,-56.42,-0.7983,-20.33,-9.286,-82.03,-25.39,-59.63,-29.73,-69.64,-26.07,-59.24,-41.05,-41.14,-31.29,0,0,0,0,0,0,0,0,0,0,0,0,0,0,0,0,
342,21.61,30.61,-51.41,12.26,-3.43,-1.388,-81.64,-19.79,-43.35,-43.3,-46.28,-28.03,-23.89,-27.76,-16.15,-21.51,0,0,0,0,0,0,0,0,0,0,0,0,0,0,0,0,
343,36.33,53.06,-20.35,23.82,30.36,28.69,-39.79,1.694,-1.657,-12.06,-15.28,1.741,25.63,18.34,24.23,8.449,0,0,0,0,0,0,0,0,0,0,0,0,0,0,0,0,
344,58.51,67.4,1.543,67.93,48.4,59.02,-11.16,31.39,43.81,34.81,-3.296,1.332,44.5,34.1,33.21,13.0,0,0,0,0,0,0,0,0,0,0,0,0,0,0,0,0,
345,41.2,52.73,-10.56,89.75,24.78,45.99,-29.72,21.7,34.66,34.14,-27.65,-14.81,10.31,5.452,-1.663,-13.81,0,0,0,0,0,0,0,0,0,0,0,0,0,0,0,0,
346,23.27,43.11,-18.74,42.2,-6.667,19.16,-34.84,11.51,-12.86,19.13,-36.77,6.839,-10.55,2.443,-15.69,-8.689,0,0,0,0,0,0,0,0,0,0,0,0,0,0,0,0,
347,38.85,53.3,-4.301,3.238,-9.767,18.17,-10.86,33.85,-21.97,27.42,-10.38,26.5,3.958,26.69,3.495,24.22,0,0,0,0,0,0,0,0,0,0,0,0,0,0,0,0,
348,42.82,51.93,1.566,13.95,7.061,29.65,3.351,31.98,2.901,32.26,3.223,31.6,11.26,44.35,12.41,37.38,0,0,0,0,0,0,0,0,0,0,0,0,0,0,0,0,
349,44.16,50.93,9.117,28.31,29.15,39.52,15.99,8.921,23.63,40.33,9.651,51.56,17.52,59.68,17.8,43.61,0,0,0,0,0,0,0,0,0,0,0,0,0,0,0,0,
350,49.84,39.55,19.51,6.387,20.99,17.17,22.66,5.747,32.23,43.79,20.39,47.02,19.63,48.12,16.54,41.85,0,0,0,0,0,0,0,0,0,0,0,0,0,0,0,0,
351,6.014,-13.8,-17.24,-41.02,-32.35,-46.36,-11.55,-1.871,2.678,-0.3185,-8.507,13.8,-15.29,-0.2071,-18.11,6.117,0,0,0,0,0,0,0,0,0,0,0,0,0,0,0,0,
352,-44.33,-48.32,-65.43,-49.38,-66.36,-80.68,-52.49,-19.29,-50.27,-49.48,-39.3,5.472,-40.4,-27.76,-35.33,-17.71,0,0,0,0,0,0,0,0,0,0,0,0,0,0,0,0,
353,-29.95,-25.4,-58.74,-16.88,-49.06,-59.52,-49.15,-19.87,-53.77,-44.19,-15.48,7.772,-12.01,-15.23,-3.045,3.896,0,0,0,0,0,0,0,0,0,0,0,0,0,0,0,0,
354,-2.308,-2.689,-44.67,-7.498,-29.63,-38.26,-34.98,-10.98,-17.35,-20.24,-5.07,-7.187,8.13,-8.451,10.73,11.74,0,0,0,0,0,0,0,0,0,0,0,0,0,0,0,0,
355,2.98,6.889,-54.67,-2.934,-23.13,-24.84,-39.16,1.531,-5.968,-14.55,-26.63,-14.82,-3.257,-15.53,-10.66,-12.85,0,0,0,0,0,0,0,0,0,0,0,0,0,0,0,0,
356,18.99,25.94,-50.2,12.28,-4.577,3.175,-32.76,19.9,-3.857,-4.217,-15.03,-5.134,4.776,-2.066,-17.5,-14.42,0,0,0,0,0,0,0,0,0,0,0,0,0,0,0,0,
357,33.72,39.23,-37.38,14.99,22.61,30.94,-16.78,29.95,15.91,22.73,-0.3811,10.74,25.54,31.25,-7.783,13.03,0,0,0,0,0,0,0,0,0,0,0,0,0,0,0,0,
358,41.21,59.58,-18.86,61.35,49.99,62.23,1.277,35.97,35.49,55.39,-1.049,28.85,37.94,59.78,8.88,33.12,0,0,0,0,0,0,0,0,0,0,0,0,0,0,0,0,
359,66.74,94.53,15.83,113.3,68.07,93.56,31.98,44.41,59.76,85.75,28.0,33.03,51.81,70.98,30.89,36.83,0,0,0,0,0,0,0,0,0,0,0,0,0,0,0,0,
360,82.05,93.41,28.05,45.83,57.64,77.9,44.77,31.11,73.08,83.91,48.02,18.47,49.5,57.09,37.79,32.06,0,0,0,0,0,0,0,0,0,0,0,0,0,0,0,0,
361,71.24,68.06,22.85,-35.09,42.6,40.41,37.77,2.737,51.24,45.35,38.51,12.9,39.09,38.09,37.59,32.0,0,0,0,0,0,0,0,0,0,0,0,0,0,0,0,0,
362,65.69,71.91,30.15,4.88,43.81,40.05,38.44,0.485,37.08,27.97,41.4,19.62,44.3,36.89,43.92,38.38,0,0,0,0,0,0,0,0,0,0,0,0,0,0,0,0,
363,57.69,73.23,17.0,49.46,26.86,37.84,17.49,10.79,35.31,36.51,26.81,21.52,31.5,30.57,35.73,33.5,0,0,0,0,0,0,0,0,0,0,0,0,0,0,0,0,
364,39.52,48.04,-11.75,18.28,-4.579,5.2,-16.02,-8.792,4.472,23.86,-12.67,30.45,-3.444,13.96,14.63,21.37,0,0,0,0,0,0,0,0,0,0,0,0,0,0,0,0,
365,21.34,22.6,-23.68,-19.99,-22.85,-22.17,-21.19,-31.56,-31.06,5.559,-25.51,38.73,-23.88,10.6,-0.2372,13.98,0,0,0,0,0,0,0,0,0,0,0,0,0,0,0,0,
366,-10.39,-2.907,-39.18,-31.13,-41.99,-39.19,-25.63,-3.827,-46.88,2.716,-24.93,21.7,-34.21,4.664,-14.53,-0.8971,0,0,0,0,0,0,0,0,0,0,0,0,0,0,0,0,
367,-31.34,-11.56,-53.02,-18.59,-55.09,-46.71,-37.91,39.49,-51.7,-6.021,-31.46,2.715,-41.89,-20.63,-28.39,-20.61,0,0,0,0,0,0,0,0,0,0,0,0,0,0,0,0,
368,-22.13,2.42,-56.22,-12.47,-57.64,-44.2,-40.71,26.01,-46.64,-24.58,-29.79,-4.969,-40.67,-44.91,-30.44,-26.79,0,0,0,0,0,0,0,0,0,0,0,0,0,0,0,0,
369,-15.47,7.879,-63.13,-15.81,-61.41,-40.53,-39.93,-9.039,-44.17,-37.17,-20.84,-17.46,-32.93,-52.43,-21.64,-22.37,0,0,0,0,0,0,0,0,0,0,0,0,0,0,0,0,
370,-3.201,21.43,-46.55,24.72,-43.29,-28.02,-24.99,-2.551,-39.48,-36.75,-8.531,-23.0,-25.38,-52.4,-14.12,-17.81,0,0,0,0,0,0,0,0,0,0,0,0,0,0,0,0,
371,10.58,36.28,-25.33,46.2,-26.75,-33.16,-12.56,2.1,-31.38,-45.48,-3.293,-19.26,-30.67,-53.78,-13.63,-12.28,0,0,0,0,0,0,0,0,0,0,0,0,0,0,0,0,
372,-0.3651,20.25,-36.54,-9.903,-41.62,-56.68,-17.43,-16.79,-38.06,-66.98,-8.237,-14.39,-31.33,-39.29,-5.366,0.0596,0,0,0,0,0,0,0,0,0,0,0,0,0,0,0,0,
373,12.31,20.18,-22.17,-27.5,-35.0,-40.13,-4.564,-15.86,-32.68,-55.63,-3.386,3.056,-9.613,-7.518,12.62,15.63,0,0,0,0,0,0,0,0,0,0,0,0,0,0,0,0,
374,44.07,39.84,16.03,-1.862,-5.743,-11.27,17.56,-20.84,-10.19,-23.51,13.62,21.98,7.555,17.06,24.19,30.35,0,0,0,0,0,0,0,0,0,0,0,0,0,0,0,0,
375,39.28,35.98,19.2,-24.09,5.647,-9.595,29.89,-43.4,1.649,-8.747,32.73,24.68,19.04,39.87,34.23,48.17,0,0,0,0,0,0,0,0,0,0,0,0,0,0,0,0,
376,40.69,42.67,22.68,-25.33,15.24,5.409,41.01,-26.78,21.25,15.07,35.76,15.98,30.96,52.7,36.06,50.63,0,0,0,0,0,0,0,0,0,0,0,0,0,0,0,0,
377,58.4,58.26,26.34,9.667,16.21,17.61,29.9,13.89,35.41,35.11,17.06,4.205,23.29,33.21,19.86,31.21,0,0,0,0,0,0,0,0,0,0,0,0,0,0,0,0,
378,46.17,47.08,-0.5992,6.049,3.975,4.547,9.533,29.24,21.09,18.83,13.96,-1.834,15.27,12.35,13.87,23.29,0,0,0,0,0,0,0,0,0,0,0,0,0,0,0,0,
379,35.69,42.84,-0.0073,-2.287,6.098,2.268,5.055,15.4,13.21,-1.614,19.03,-8.171,10.37,-1.698,13.14,19.26,0,0,0,0,0,0,0,0,0,0,0,0,0,0,0,0,
380,39.03,45.15,15.67,-14.84,1.072,-4.544,-13.23,-17.74,1.703,-15.01,-6.241,-19.7,-19.71,-27.91,-5.328,0.2255,0,0,0,0,0,0,0,0,0,0,0,0,0,0,0,0,
381,26.48,26.14,-17.43,-45.3,-22.66,-28.8,-40.22,-29.3,-32.82,-27.74,-34.04,-24.93,-49.41,-40.45,-17.01,-8.006,0,0,0,0,0,0,0,0,0,0,0,0,0,0,0,0,
382,18.07,14.08,-44.46,-32.63,-35.15,-35.18,-54.57,-7.874,-51.82,-29.0,-48.04,-22.17,-54.64,-33.85,-18.25,-11.05,0,0,0,0,0,0,0,0,0,0,0,0,0,0,0,0,
383,20.4,16.96,-41.13,-12.98,-36.1,-19.17,-69.02,5.83,-45.07,-18.47,-52.15,-0.4727,-35.45,-13.34,-10.54,-10.84,0,0,0,0,0,0,0,0,0,0,0,0,0,0,0,0,
384,15.94,21.35,-63.58,0.2154,-30.52,12.86,-62.93,25.44,-19.13,20.78,-19.07,28.37,11.41,26.05,20.84,15.65,0,0,0,0,0,0,0,0,0,0,0,0,0,0,0,0,
385,18.51,39.3,-71.08,63.5,-13.6,41.33,-23.76,43.31,16.77,65.72,17.9,16.17,35.74,35.07,27.46,22.2,0,0,0,0,0,0,0,0,0,0,0,0,0,0,0,0,
386,37.5,57.01,-14.48,68.74,3.506,29.38,10.41,3.288,23.44,53.49,12.89,-14.04,7.218,3.588,-3.329,-8.139,0,0,0,0,0,0,0,0,0,0,0,0,0,0,0,0,
387,51.24,45.17,36.07,-25.36,11.45,-1.696,24.17,-39.96,6.231,11.18,10.45,-14.86,-12.91,-9.733,1.965,-7.778,0,0,0,0,0,0,0,0,0,0,0,0,0,0,0,0,
388,45.25,24.04,45.21,-56.2,12.55,-14.35,33.12,-22.3,3.67,-9.181,36.27,-8.997,5.023,-2.522,36.32,21.98,0,0,0,0,0,0,0,0,0,0,0,0,0,0,0,0,
389,43.21,29.95,52.61,-16.89,8.415,-21.01,35.62,-6.946,9.369,-17.55,44.69,-8.782,15.69,1.116,33.18,27.96,0,0,0,0,0,0,0,0,0,0,0,0,0,0,0,0,
390,48.56,38.29,39.47,-17.48,-12.14,-36.87,13.53,-29.73,-1.925,-21.1,15.39,-9.656,-5.936,-0.6277,2.841,9.864,0,0,0,0,0,0,0,0,0,0,0,0,0,0,0,0,
391,31.53,19.65,6.624,-34.53,-35.04,-47.54,-8.27,-43.49,-24.65,-23.33,-2.919,-18.43,-15.69,-3.265,2.159,0.9284,0,0,0,0,0,0,0,0,0,0,0,0,0,0,0,0,
392,29.02,24.68,28.11,-14.6,-10.34,-24.85,19.82,-30.03,-13.72,-18.46,27.15,-19.6,22.24,12.13,37.17,17.06,0,0,0,0,0,0,0,0,0,0,0,0,0,0,0,0,
393,73.01,66.87,70.44,8.117,39.56,19.04,50.54,-18.46,34.8,6.837,39.94,-21.97,40.9,23.31,37.2,20.85,0,0,0,0,0,0,0,0,0,0,0,0,0,0,0,0,
394,96.5,76.37,50.29,-16.82,45.0,34.14,17.47,-29.71,46.07,16.03,-11.9,-35.64,-1.497,8.77,-14.13,-3.622,0,0,0,0,0,0,0,0,0,0,0,0,0,0,0,0,
395,88.09,70.81,25.87,-26.05,36.2,39.78,-7.858,-32.14,20.49,10.29,-38.52,-24.08,-14.03,23.04,-23.14,-0.3565,0,0,0,0,0,0,0,0,0,0,0,0,0,0,0,0,
396,100.6,101.0,47.54,37.33,55.83,71.98,31.05,2.56,37.24,44.23,8.107,1.98,29.9,58.34,23.74,28.84,0,0,0,0,0,0,0,0,0,0,0,0,0,0,0,0,
397,103.7,105.2,53.02,47.53,55.54,72.47,57.65,23.97,65.16,72.84,46.15,3.294,41.37,45.17,43.13,31.26,0,0,0,0,0,0,0,0,0,0,0,0,0,0,0,0,
398,71.17,64.9,25.71,-16.37,24.51,26.29,36.57,-3.501,37.51,42.17,30.78,0.9024,13.21,15.97,27.65,20.74,0,0,0,0,0,0,0,0,0,0,0,0,0,0,0,0,
399,41.64,42.88,-1.394,-11.21,0.8996,1.417,7.519,-32.58,-3.497,12.05,-5.703,3.69,-7.877,9.644,9.538,13.16,0,0,0,0,0,0,0,0,0,0,0,0,0,0,0,0,
400,23.42,27.34,-19.49,2.769,-20.7,-7.053,-16.9,-35.69,-24.38,1.968,-26.73,-9.812,-29.16,-6.898,-11.48,-2.118,0,0,0,0,0,0,0,0,0,0,0,0,0,0,0,0,
401,24.6,12.01,-8.061,-50.62,-23.51,-16.76,-21.59,-34.51,-37.19,-16.88,-16.92,-24.04,-46.8,-19.03,-23.73,-4.325,0,0,0,0,0,0,0,0,0,0,0,0,0,0,0,0,
402,56.38,33.73,23.18,-56.15,12.71,1.383,-5.901,-30.6,-22.36,-13.37,-1.216,-22.1,-40.53,-3.256,-15.42,10.0,0,0,0,0,0,0,0,0,0,0,0,0,0,0,0,0,
403,68.32,49.16,20.57,-19.53,32.01,19.92,-3.785,-12.23,8.402,5.008,7.155,-4.459,-10.88,13.95,12.7,27.08,0,0,0,0,0,0,0,0,0,0,0,0,0,0,0,0,
404,47.78,30.17,-2.607,-22.83,18.34,12.72,-4.19,4.791,24.35,0.3638,31.92,25.62,34.06,32.78,50.35,54.35,0,0,0,0,0,0,0,0,0,0,0,0,0,0,0,0,
405,40.78,18.49,-4.175,-36.86,11.52,2.136,-1.753,0.1301,37.68,1.933,46.86,29.81,54.57,47.73,59.98,66.16,0,0,0,0,0,0,0,0,0,0,0,0,0,0,0,0,
406,32.68,11.54,-5.814,-39.58,4.787,-8.129,-18.9,-7.481,36.89,16.05,25.59,3.259,35.35,39.3,42.9,48.58,0,0,0,0,0,0,0,0,0,0,0,0,0,0,0,0,
407,17.72,12.02,-4.852,-15.33,7.121,0.439,-15.09,3.034,22.45,23.91,18.78,6.882,30.02,41.52,46.92,50.07,0,0,0,0,0,0,0,0,0,0,0,0,0,0,0,0,
408,39.99,36.18,27.56,14.7,32.23,25.62,17.94,9.722,33.69,40.34,35.39,26.85,43.07,56.6,59.01,62.86,0,0,0,0,0,0,0,0,0,0,0,0,0,0,0,0,
409,73.74,48.67,53.22,-6.673,40.83,21.06,25.98,5.896,48.5,44.17,37.75,12.37,41.22,46.59,46.69,42.05,0,0,0,0,0,0,0,0,0,0,0,0,0,0,0,0,
410,80.95,53.79,51.51,-7.556,37.1,10.16,20.43,3.794,45.7,22.61,34.11,-9.271,34.0,25.69,22.95,9.748,0,0,0,0,0,0,0,0,0,0,0,0,0,0,0,0,
411,78.9,64.94,43.67,26.43,38.26,15.18,11.33,-19.22,40.69,8.346,13.71,-33.48,9.074,-5.639,-13.27,-20.28,0,0,0,0,0,0,0,0,0,0,0,0,0,0,0,0,
412,71.94,53.14,29.26,-6.685,30.49,5.603,-3.094,-49.32,17.32,-5.546,-17.37,-58.08,-19.5,-43.31,-30.37,-35.17,0,0,0,0,0,0,0,0,0,0,0,0,0,0,0,0,
413,79.81,61.69,44.5,-14.34,51.11,16.46,28.69,-40.02,13.12,-15.71,4.648,-33.75,3.19,-35.9,12.91,-0.9466,0,0,0,0,0,0,0,0,0,0,0,0,0,0,0,0,
414,106.2,101.5,82.97,57.26,85.07,46.44,65.76,-20.33,53.82,-2.501,38.88,-6.967,22.54,-17.98,36.63,24.95,0,0,0,0,0,0,0,0,0,0,0,0,0,0,0,0,
415,92.69,81.42,58.72,27.2,51.04,19.44,33.94,-19.15,46.53,-7.18,12.48,-21.31,-11.05,-35.33,2.867,7.54,0,0,0,0,0,0,0,0,0,0,0,0,0,0,0,0,
416,58.26,34.4,19.67,-59.36,0.6409,-17.53,5.035,-3.672,-6.633,-29.31,-9.441,-8.501,-21.3,-24.84,2.635,17.83,0,0,0,0,0,0,0,0,0,0,0,0,0,0,0,0,
417,64.33,51.31,47.97,-13.75,13.51,9.654,25.85,19.9,-8.098,-12.53,13.26,14.78,4.792,14.44,27.55,41.42,0,0,0,0,0,0,0,0,0,0,0,0,0,0,0,0,
418,71.76,71.39,62.61,46.82,32.5,36.03,36.45,19.43,15.48,21.06,23.28,-3.687,11.39,19.86,17.43,28.17,0,0,0,0,0,0,0,0,0,0,0,0,0,0,0,0,
419,49.51,46.31,28.95,11.33,18.99,22.22,26.06,7.188,15.47,26.62,8.542,-9.522,7.891,10.27,7.309,15.63,0,0,0,0,0,0,0,0,0,0,0,0,0,0,0,0,
420,43.26,43.42,22.62,3.662,19.2,21.45,24.0,4.919,18.4,21.41,1.282,5.874,9.211,7.699,8.893,9.885,0,0,0,0,0,0,0,0,0,0,0,0,0,0,0,0,
421,69.14,71.93,42.59,26.14,37.56,31.46,27.37,7.395,24.6,18.03,10.11,-3.547,2.549,-5.052,-3.331,-8.507,0,0,0,0,0,0,0,0,0,0,0,0,0,0,0,0,
422,75.71,63.1,34.39,-2.105,28.9,8.807,9.143,-1.368,8.235,1.066,3.359,-22.09,-20.38,-23.44,-23.55,-20.91,0,0,0,0,0,0,0,0,0,0,0,0,0,0,0,0,
423,33.29,21.51,-2.853,-18.46,-4.123,-22.18,-27.08,-9.411,-27.32,-22.01,-29.94,-20.87,-44.0,-25.31,-33.06,-13.93,0,0,0,0,0,0,0,0,0,0,0,0,0,0,0,0,
424,7.118,13.2,-20.4,-3.795,-13.24,-22.64,-30.33,-4.671,-38.87,-22.4,-32.97,-1.631,-30.86,0.71,-13.74,12.72,0,0,0,0,0,0,0,0,0,0,0,0,0,0,0,0,
425,23.03,23.68,-17.51,-18.88,-9.975,-21.29,-19.59,-15.83,-13.95,-5.638,-13.57,3.879,-13.65,11.91,-4.875,19.55,0,0,0,0,0,0,0,0,0,0,0,0,0,0,0,0,
426,4.069,0.7359,-47.36,-46.99,-40.3,-46.73,-51.44,-34.1,-21.24,-14.77,-36.54,-19.23,-43.86,-25.99,-41.5,-16.5,0,0,0,0,0,0,0,0,0,0,0,0,0,0,0,0,
427,-29.86,-18.37,-74.59,-52.02,-70.81,-67.13,-70.42,-21.94,-65.62,-50.33,-52.85,-28.78,-60.74,-50.84,-53.95,-31.11,0,0,0,0,0,0,0,0,0,0,0,0,0,0,0,0,
428,-7.72,5.015,-50.75,-16.72,-60.57,-55.3,-37.65,-12.05,-67.04,-57.5,-16.46,-15.36,-30.44,-32.63,-18.47,-9.309,0,0,0,0,0,0,0,0,0,0,0,0,0,0,0,0,
429,17.92,27.27,-31.31,26.49,-39.52,-32.02,-12.14,-19.82,-38.77,-26.7,11.77,-3.111,-13.41,-19.25,6.782,3.569,0,0,0,0,0,0,0,0,0,0,0,0,0,0,0,0,
430,18.05,25.25,-26.43,-7.865,-23.66,-23.34,0.8954,-3.141,-30.34,-9.796,17.69,14.07,-8.688,-5.685,21.05,18.19,0,0,0,0,0,0,0,0,0,0,0,0,0,0,0,0,
431,30.53,22.91,-6.853,-58.45,-6.673,-23.67,16.68,15.21,-19.34,-16.74,23.74,19.24,7.409,19.37,26.12,30.86,0,0,0,0,0,0,0,0,0,0,0,0,0,0,0,0,
432,39.99,30.81,1.619,-17.33,5.629,-8.425,13.68,4.452,-2.267,-10.44,18.7,13.21,12.04,29.44,8.197,23.88,0,0,0,0,0,0,0,0,0,0,0,0,0,0,0,0,
433,48.89,49.95,11.41,17.05,24.5,21.78,14.34,0.9927,10.89,12.39,16.92,34.18,12.96,41.03,-0.0464,26.73,0,0,0,0,0,0,0,0,0,0,0,0,0,0,0,0,
434,65.8,61.89,27.53,-27.47,37.9,27.98,18.29,3.315,27.86,30.38,13.57,38.06,10.25,50.69,-0.6071,26.36,0,0,0,0,0,0,0,0,0,0,0,0,0,0,0,0,
435,51.32,46.5,11.11,-48.65,22.14,3.706,-5.997,-6.285,19.23,31.38,-12.05,0.1208,-10.52,26.26,-12.17,2.001,0,0,0,0,0,0,0,0,0,0,0,0,0,0,0,0,
436,34.52,41.55,-1.343,-12.99,11.9,-1.895,-14.79,1.371,-7.029,16.41,-17.52,-2.286,-10.49,7.769,-4.925,-2.792,0,0,0,0,0,0,0,0,0,0,0,0,0,0,0,0,
437,56.38,67.08,16.15,11.05,17.2,11.49,6.64,12.09,-2.236,6.941,-0.4358,16.95,7.624,11.02,8.456,6.915,0,0,0,0,0,0,0,0,0,0,0,0,0,0,0,0,
438,76.37,82.19,26.05,12.51,13.29,8.46,12.12,1.188,8.14,4.85,-5.89,3.142,2.76,-4.405,-1.514,-5.441,0,0,0,0,0,0,0,0,0,0,0,0,0,0,0,0,
439,93.68,97.72,40.27,39.25,28.18,18.69,17.01,0.7828,7.776,-6.728,-7.899,2.914,4.053,-14.38,-6.305,-13.99,0,0,0,0,0,0,0,0,0,0,0,0,0,0,0,0,
440,131.0,141.0,57.68,73.17,54.74,46.83,21.04,2.008,22.25,-10.2,-4.318,4.215,9.723,-9.769,-9.673,-16.41,0,0,0,0,0,0,0,0,0,0,0,0,0,0,0,0,
441,173.7,182.6,53.57,61.2,55.54,47.73,-4.962,-11.2,14.5,-1.993,-29.43,-23.11,-15.5,-21.14,-23.51,-26.91,0,0,0,0,0,0,0,0,0,0,0,0,0,0,0,0,
442,245.6,237.7,70.63,61.25,74.89,57.07,-11.43,8.421,-13.59,-2.339,-28.94,4.147,-15.24,-2.549,1.564,-3.158,0,0,0,0,0,0,0,0,0,0,0,0,0,0,0,0,
443,351.5,340.5,121.2,115.3,132.2,109.3,20.42,47.16,7.818,14.45,16.53,63.44,28.54,50.58,48.24,41.27,0,0,0,0,0,0,0,0,0,0,0,0,0,0,0,0,
444,459.7,460.1,169.8,159.9,185.6,160.2,39.45,50.5,52.25,54.34,34.94,48.43,42.86,57.79,45.53,37.61,0,0,0,0,0,0,0,0,0,0,0,0,0,0,0,0,
445,576.7,572.6,220.8,200.5,236.3,204.1,46.36,43.81,64.82,69.28,29.49,19.71,35.42,35.64,24.54,11.51,0,0,0,0,0,0,0,0,0,0,0,0,0,0,0,0,
446,657.1,652.3,266.2,251.1,283.8,254.2,60.7,50.69,76.59,70.4,45.34,41.44,54.75,43.92,36.75,19.96,0,0,0,0,0,0,0,0,0,0,0,0,0,0,0,0,
447,655.7,665.2,294.0,263.7,311.0,284.9,76.12,53.56,103.9,97.17,66.1,51.97,75.41,57.13,50.95,36.74,0,0,0,0,0,0,0,0,0,0,0,0,0,0,0,0,
448,643.1,644.9,315.6,258.1,321.5,286.4,80.52,53.88,116.2,110.8,63.29,43.99,66.64,50.38,39.82,26.89,0,0,0,0,0,0,0,0,0,0,0,0,0,0,0,0,
449,634.9,617.8,306.6,248.2,306.1,266.6,54.13,51.68,106.1,87.93,32.58,52.89,43.18,45.37,26.13,17.75,0,0,0,0,0,0,0,0,0,0,0,0,0,0,0,0,
450,575.1,562.1,268.2,214.6,273.5,238.9,18.26,50.9,88.78,82.98,6.264,52.9,29.82,48.58,30.2,29.96,0,0,0,0,0,0,0,0,0,0,0,0,0,0,0,0,
451,494.7,486.7,241.2,184.4,246.4,210.6,15.33,57.7,69.54,90.51,13.85,23.46,25.62,36.64,31.26,23.88,0,0,0,0,0,0,0,0,0,0,0,0,0,0,0,0,
452,431.4,414.4,221.4,162.6,218.3,177.4,34.48,47.8,47.73,58.97,21.29,-1.756,17.43,10.7,12.97,-7.263,0,0,0,0,0,0,0,0,0,0,0,0,0,0,0,0,
453,378.4,359.7,205.3,151.3,200.3,163.2,50.41,28.23,41.11,32.91,10.94,2.558,16.49,5.052,3.803,-12.84,0,0,0,0,0,0,0,0,0,0,0,0,0,0,0,0,
454,325.2,316.7,188.7,144.4,188.8,161.3,54.59,26.23,52.48,43.68,13.76,2.727,21.9,8.669,5.472,-5.45,0,0,0,0,0,0,0,0,0,0,0,0,0,0,0,0,
455,244.4,247.8,145.3,99.27,150.3,125.6,46.4,16.7,48.35,30.89,23.52,-20.13,11.18,-7.636,-4.186,-17.9,0,0,0,0,0,0,0,0,0,0,0,0,0,0,0,0,
456,164.2,170.7,112.3,69.47,111.0,85.98,40.81,-4.875,28.46,5.367,24.4,-27.18,-0.7284,-16.87,-4.123,-17.91,0,0,0,0,0,0,0,0,0,0,0,0,0,0,0,0,
457,129.3,126.3,113.3,75.84,97.39,76.97,38.26,-11.94,18.57,12.93,28.32,-15.61,3.208,-9.308,7.888,-5.686,0,0,0,0,0,0,0,0,0,0,0,0,0,0,0,0,
458,90.06,80.62,98.28,19.71,79.93,57.36,29.45,-16.94,8.255,14.68,30.04,-9.554,4.587,-10.56,7.648,-11.82,0,0,0,0,0,0,0,0,0,0,0,0,0,0,0,0,
459,29.59,26.61,75.41,-33.09,63.93,32.08,25.61,-10.21,-2.596,0.9719,24.46,-2.873,0.1117,-18.04,-0.2582,-25.86,0,0,0,0,0,0,0,0,0,0,0,0,0,0,0,0,
460,-8.29,-3.393,60.55,3.314,55.47,25.57,20.08,13.38,1.466,-3.543,14.33,-12.48,-9.573,-33.75,-22.99,-45.86,0,0,0,0,0,0,0,0,0,0,0,0,0,0,0,0,
461,-48.35,-44.21,14.4,-2.089,19.23,1.848,-3.047,0.3776,-5.35,-22.2,-9.426,-39.39,-30.25,-52.09,-49.33,-58.24,0,0,0,0,0,0,0,0,0,0,0,0,0,0,0,0,
462,-100.2,-99.8,-27.85,-51.01,-17.04,-23.79,-15.82,-21.85,-26.35,-37.95,-24.12,-32.0,-30.52,-35.3,-32.26,-26.68,0,0,0,0,0,0,0,0,0,0,0,0,0,0,0,0,
463,-119.9,-120.0,-24.88,-30.65,-11.63,-13.22,-4.432,0.6161,-18.98,-16.79,-7.863,-2.917,-1.673,0.4144,2.174,13.78,0,0,0,0,0,0,0,0,0,0,0,0,0,0,0,0,
464,-130.5,-133.0,-32.0,-33.76,-7.784,-13.47,-7.22,3.114,0.9931,-1.086,-0.9895,-3.892,9.045,7.543,1.096,10.65,0,0,0,0,0,0,0,0,0,0,0,0,0,0,0,0,
465,-158.3,-158.9,-53.97,-79.33,-19.65,-32.14,-23.32,-20.59,-6.435,-10.54,-15.44,-11.39,0.442,0.4201,-9.268,-7.622,0,0,0,0,0,0,0,0,0,0,0,0,0,0,0,0,
466,-167.9,-155.6,-47.65,-52.3,-15.16,-23.94,-19.25,-8.093,-14.56,-14.08,-11.56,-5.074,3.311,0.4229,-2.171,-6.476,0,0,0,0,0,0,0,0,0,0,0,0,0,0,0,0,
467,-166.5,-153.2,-43.59,-37.95,-19.46,-23.81,-8.447,-9.376,-6.058,-15.97,3.109,-10.46,5.761,-2.091,8.844,1.494,0,0,0,0,0,0,0,0,0,0,0,0,0,0,0,0,
468,-182.7,-180.5,-52.63,-65.66,-36.48,-41.54,4.446,-33.96,-1.189,-18.35,13.32,-12.35,9.854,0.5439,24.68,9.139,0,0,0,0,0,0,0,0,0,0,0,0,0,0,0,0,
469,-197.2,-187.6,-45.36,-12.77,-34.34,-28.87,27.72,-15.81,6.391,-4.263,29.3,2.956,24.21,9.406,34.83,17.14,0,0,0,0,0,0,0,0,0,0,0,0,0,0,0,0,
470,-211.5,-189.2,-52.75,-0.2809,-47.56,-29.67,18.47,-6.403,6.288,5.318,16.25,-3.629,8.457,-0.2006,6.412,5.26,0,0,0,0,0,0,0,0,0,0,0,0,0,0,0,0,
471,-238.1,-223.6,-84.21,-101.7,-85.36,-70.3,-24.68,-37.85,-29.82,-12.47,-36.54,-33.87,-41.09,-26.12,-44.49,-26.56,0,0,0,0,0,0,0,0,0,0,0,0,0,0,0,0,
472,-241.2,-232.1,-88.29,-96.54,-87.3,-71.52,-35.04,-34.38,-64.21,-36.23,-57.04,-44.93,-62.61,-39.33,-58.97,-36.25,0,0,0,0,0,0,0,0,0,0,0,0,0,0,0,0,
473,-219.0,-198.1,-72.82,-12.1,-63.19,-41.0,-15.1,-10.49,-51.45,-38.38,-25.83,-36.54,-43.57,-39.09,-35.32,-20.16,0,0,0,0,0,0,0,0,0,0,0,0,0,0,0,0,
474,-228.1,-205.8,-80.87,-45.15,-73.79,-60.33,-22.26,-26.38,-32.67,-32.59,-9.089,-37.81,-35.3,-50.84,-24.05,-22.79,0,0,0,0,0,0,0,0,0,0,0,0,0,0,0,0,
475,-270.2,-265.4,-100.1,-98.49,-108.0,-107.3,-45.09,-44.13,-52.81,-50.89,-18.75,-42.9,-44.99,-65.05,-22.58,-33.42,0,0,0,0,0,0,0,0,0,0,0,0,0,0,0,0,
476,-293.0,-294.4,-109.5,-93.79,-120.0,-124.6,-43.34,-33.61,-70.71,-74.68,-14.24,-36.5,-41.07,-59.19,-11.91,-26.53,0,0,0,0,0,0,0,0,0,0,0,0,0,0,0,0,
477,-299.3,-288.1,-127.1,-110.5,-124.8,-130.1,-48.75,-37.37,-66.07,-77.18,-19.1,-43.27,-47.35,-63.91,-28.69,-40.4,0,0,0,0,0,0,0,0,0,0,0,0,0,0,0,0,
478,-308.3,-290.4,-146.1,-109.6,-141.1,-133.0,-74.93,-57.86,-84.27,-80.01,-51.36,-59.39,-71.3,-78.96,-59.08,-61.4,0,0,0,0,0,0,0,0,0,0,0,0,0,0,0,0,
479,-276.7,-259.8,-112.5,-68.9,-116.3,-94.13,-54.13,-43.68,-88.36,-66.06,-50.39,-39.09,-54.04,-51.73,-45.92,-36.53,0,0,0,0,0,0,0,0,0,0,0,0,0,0,0,0,
480,-211.7,-193.2,-48.03,-37.44,-55.66,-35.84,-5.124,-5.654,-32.56,-15.41,-18.59,-15.32,-15.04,-14.36,-19.21,-10.86,0,0,0,0,0,0,0,0,0,0,0,0,0,0,0,0,
481,-194.9,-175.1,-34.62,-2.248,-39.92,-19.42,1.892,3.946,0.3714,7.498,0.7075,-18.82,1.133,-0.0723,6.665,0.0889,0,0,0,0,0,0,0,0,0,0,0,0,0,0,0,0,
482,-201.4,-186.2,-36.46,0.8394,-39.82,-16.36,17.78,-1.078,-1.149,4.527,42.76,14.33,38.73,44.11,63.33,47.23,0,0,0,0,0,0,0,0,0,0,0,0,0,0,0,0,
483,-172.2,-168.1,-6.803,-41.19,-7.93,5.9,51.68,12.71,33.94,38.7,82.46,56.89,74.77,82.67,85.02,73.42,0,0,0,0,0,0,0,0,0,0,0,0,0,0,0,0,
484,-170.9,-170.3,-19.02,-40.95,-12.09,-1.335,27.45,29.33,49.6,55.18,57.68,30.98,49.76,48.29,40.88,38.76,0,0,0,0,0,0,0,0,0,0,0,0,0,0,0,0,
485,-221.0,-204.1,-66.71,-23.51,-56.96,-38.51,-15.41,22.83,10.98,12.91,24.96,-1.251,17.8,5.745,10.55,16.65,0,0,0,0,0,0,0,0,0,0,0,0,0,0,0,0,
486,-244.1,-214.9,-77.6,-49.67,-74.45,-54.04,-30.0,-1.937,-11.46,-12.73,3.566,1.978,2.897,-1.645,-5.309,6.573,0,0,0,0,0,0,0,0,0,0,0,0,0,0,0,0,
487,-232.1,-209.4,-90.69,-59.33,-81.65,-53.92,-56.72,-12.12,-22.93,-4.583,-42.47,-6.768,-25.71,-7.367,-30.97,-18.83,0,0,0,0,0,0,0,0,0,0,0,0,0,0,0,0,
488,-232.8,-212.8,-122.8,-39.98,-104.4,-55.76,-81.52,-1.997,-48.75,-6.755,-61.71,-15.0,-40.19,-7.681,-31.9,-22.38,0,0,0,0,0,0,0,0,0,0,0,0,0,0,0,0,
489,-247.5,-218.3,-128.3,-40.18,-113.7,-53.57,-75.79,-4.925,-59.68,-14.19,-47.22,-8.539,-37.47,-3.791,-25.24,-16.75,0,0,0,0,0,0,0,0,0,0,0,0,0,0,0,0,
490,-253.1,-219.2,-123.8,-54.71,-108.1,-63.11,-65.26,-22.29,-57.57,-15.87,-49.93,-14.58,-43.13,-17.18,-32.2,-28.06,0,0,0,0,0,0,0,0,0,0,0,0,0,0,0,0,
491,-245.6,-222.0,-121.9,-78.36,-113.0,-93.6,-64.77,-35.75,-54.87,-26.56,-51.32,-26.23,-46.28,-39.79,-38.88,-40.02,0,0,0,0,0,0,0,0,0,0,0,0,0,0,0,0,
492,-242.8,-234.3,-114.1,-97.1,-129.0,-117.7,-73.66,-42.56,-56.12,-48.57,-44.69,-27.66,-50.17,-54.54,-52.07,-48.42,0,0,0,0,0,0,0,0,0,0,0,0,0,0,0,0,
493,-247.7,-232.9,-120.3,-72.71,-135.7,-112.3,-81.1,-32.73,-72.53,-61.46,-46.36,-16.56,-56.49,-47.33,-54.51,-41.05,0,0,0,0,0,0,0,0,0,0,0,0,0,0,0,0,
494,-239.3,-206.1,-123.7,-37.7,-120.9,-86.46,-68.59,-15.29,-82.4,-48.71,-37.87,-1.81,-48.49,-24.21,-39.14,-19.99,0,0,0,0,0,0,0,0,0,0,0,0,0,0,0,0,
495,-214.8,-191.5,-97.09,-44.23,-93.44,-66.25,-45.81,-10.76,-63.21,-25.16,-25.46,-2.988,-36.21,-11.01,-36.82,-16.84,0,0,0,0,0,0,0,0,0,0,0,0,0,0,0,0,
496,-188.6,-188.7,-69.32,-48.26,-70.7,-58.34,-34.01,-12.05,-33.58,-13.6,-25.38,-11.64,-29.02,-9.01,-37.5,-24.54,0,0,0,0,0,0,0,0,0,0,0,0,0,0,0,0,
497,-166.8,-164.9,-56.65,-15.3,-55.31,-45.79,-28.03,-14.19,-13.6,-10.41,-20.79,-13.38,-18.68,-12.59,-30.89,-27.69,0,0,0,0,0,0,0,0,0,0,0,0,0,0,0,0,
498,-155.6,-153.4,-42.0,-17.3,-46.98,-39.62,-15.04,-17.67,-6.716,-12.06,-7.894,-19.71,-14.24,-31.18,-35.29,-35.44,0,0,0,0,0,0,0,0,0,0,0,0,0,0,0,0,
499,-168.2,-180.1,-42.03,-70.31,-62.75,-65.7,-17.04,-22.85,-20.55,-32.2,-12.18,-29.33,-29.71,-51.49,-41.82,-39.96,0,0,0,0,0,0,0,0,0,0,0,0,0,0,0,0,
500,-185.7,-188.3,-66.67,-82.97,-84.58,-83.18,-44.05,-31.98,-47.12,-50.33,-29.93,-19.45,-38.42,-37.77,-30.24,-23.13,0,0,0,0,0,0,0,0,0,0,0,0,0,0,0,0,
501,-167.4,-153.6,-69.08,-51.34,-63.98,-47.13,-44.79,-20.57,-39.33,-24.45,-14.28,11.49,-1.931,9.235,3.554,12.69,0,0,0,0,0,0,0,0,0,0,0,0,0,0,0,0,
502,-136.1,-127.0,-44.26,-40.76,-25.52,-4.224,-13.32,10.48,12.33,16.44,23.54,32.36,45.71,41.87,30.81,37.28,0,0,0,0,0,0,0,0,0,0,0,0,0,0,0,0,
503,-125.8,-115.8,-36.53,-33.04,-13.49,9.381,-5.193,18.25,45.76,23.23,24.43,33.39,49.28,43.43,25.42,34.42,0,0,0,0,0,0,0,0,0,0,0,0,0,0,0,0,
504,-103.4,-89.51,-27.51,-3.358,-2.626,19.0,-9.665,11.76,39.69,22.02,10.29,30.26,25.62,35.37,15.44,21.01,0,0,0,0,0,0,0,0,0,0,0,0,0,0,0,0,
505,-78.03,-73.03,-2.384,13.01,10.56,19.6,1.482,15.58,23.77,26.18,14.77,14.32,6.358,16.92,12.94,2.198,0,0,0,0,0,0,0,0,0,0,0,0,0,0,0,0,
506,-84.94,-82.63,-1.033,-1.24,4.929,7.293,7.648,5.35,8.336,13.11,15.14,-1.09,7.659,3.251,9.16,-5.123,0,0,0,0,0,0,0,0,0,0,0,0,0,0,0,0,
507,-89.3,-88.0,-17.45,-25.92,-0.789,7.922,12.04,-16.58,12.17,12.49,26.27,10.08,37.44,16.45,22.48,15.84,0,0,0,0,0,0,0,0,0,0,0,0,0,0,0,0,
508,-96.26,-101.1,-33.22,-46.69,-15.14,-1.422,16.12,-19.74,31.33,26.57,53.81,11.18,51.85,19.21,31.44,21.78,0,0,0,0,0,0,0,0,0,0,0,0,0,0,0,0,
509,-129.2,-135.0,-51.98,-68.56,-44.0,-35.15,2.536,-11.68,21.74,4.001,51.84,-3.523,29.14,1.101,10.92,1.629,0,0,0,0,0,0,0,0,0,0,0,0,0,0,0,0,
510,-130.8,-140.8,-47.74,-65.06,-38.77,-38.76,-5.451,-5.697,1.988,-23.35,23.54,4.448,10.89,1.451,-9.184,-7.03,0,0,0,0,0,0,0,0,0,0,0,0,0,0,0,0,
511,-106.1,-112.2,-31.53,-6.148,-13.54,-6.454,-8.82,3.567,6.747,-3.167,-4.937,8.5,-2.392,7.356,-23.79,-16.1,0,0,0,0,0,0,0,0,0,0,0,0,0,0,0,0,
512,-111.9,-100.4,-36.36,26.27,-19.79,5.04,-32.69,11.87,4.896,20.75,-25.65,5.777,-19.85,5.291,-31.63,-20.55,0,0,0,0,0,0,0,0,0,0,0,0,0,0,0,0,
513,-113.0,-105.9,-29.15,-28.13,-24.63,-4.51,-30.62,13.66,-2.866,17.24,-13.4,27.09,-11.14,16.59,-11.93,3.492,0,0,0,0,0,0,0,0,0,0,0,0,0,0,0,0,
514,-92.84,-102.6,-5.618,-61.6,-11.25,-7.763,9.063,10.51,8.156,12.49,15.3,19.63,4.878,14.96,1.1,5.23,0,0,0,0,0,0,0,0,0,0,0,0,0,0,0,0,
515,-98.96,-105.7,-12.21,-29.25,-26.77,-19.84,14.59,0.3244,6.353,4.38,14.38,-26.84,-3.534,-16.22,-16.37,-30.73,0,0,0,0,0,0,0,0,0,0,0,0,0,0,0,0,
516,-118.1,-120.8,-28.75,-22.12,-50.43,-36.28,-0.3586,-6.899,-9.981,-8.981,8.783,-32.65,-4.312,-25.24,-19.57,-35.71,0,0,0,0,0,0,0,0,0,0,0,0,0,0,0,0,
517,-111.8,-116.2,-15.79,-37.71,-33.49,-23.93,18.56,1.04,-0.5278,1.17,30.0,-5.241,15.76,1.242,1.188,-7.289,0,0,0,0,0,0,0,0,0,0,0,0,0,0,0,0,
518,-93.62,-93.49,-5.637,-28.26,-12.6,-0.7073,26.1,5.744,17.7,27.43,40.49,2.438,18.37,14.08,0.1846,-3.171,0,0,0,0,0,0,0,0,0,0,0,0,0,0,0,0,
519,-91.68,-91.1,-29.56,-21.73,-24.48,-4.216,-3.936,-7.494,9.634,32.16,17.96,5.313,-6.622,3.28,-25.5,-16.58,0,0,0,0,0,0,0,0,0,0,0,0,0,0,0,0,
520,-103.7,-102.1,-48.73,-23.62,-33.15,-17.1,-17.6,-15.18,-9.915,17.83,-1.138,13.94,-23.6,4.341,-31.67,-5.663,0,0,0,0,0,0,0,0,0,0,0,0,0,0,0,0,
521,-99.85,-97.45,-28.82,-27.67,-17.74,-20.52,-7.327,-7.363,-12.73,8.416,-1.842,13.86,-20.85,12.01,-18.07,12.85,0,0,0,0,0,0,0,0,0,0,0,0,0,0,0,0,
522,-90.84,-104.4,-9.995,-55.61,-20.11,-43.59,-11.62,-11.72,-11.63,-12.37,-9.409,6.721,-27.35,-7.332,-12.03,4.204,0,0,0,0,0,0,0,0,0,0,0,0,0,0,0,0,
523,-113.9,-135.9,-25.36,-75.2,-53.24,-75.91,-18.59,-23.62,-30.85,-47.4,-3.564,-1.158,-24.78,-22.37,8.851,-3.586,0,0,0,0,0,0,0,0,0,0,0,0,0,0,0,0,
524,-126.5,-133.7,-35.45,-46.97,-63.68,-62.64,0.2327,-9.482,-30.95,-39.68,36.96,-1.857,16.14,1.166,39.08,8.836,0,0,0,0,0,0,0,0,0,0,0,0,0,0,0,0,
525,-95.28,-96.01,-24.16,-4.904,-46.6,-34.11,10.9,0.9502,3.102,-2.574,39.07,-2.809,28.12,5.726,21.51,-1.182,0,0,0,0,0,0,0,0,0,0,0,0,0,0,0,0,
526,-89.93,-93.54,-30.85,-0.2153,-50.75,-50.0,-12.48,-23.22,-3.098,-15.37,-11.66,-19.19,-12.96,-26.42,-12.41,-25.75,0,0,0,0,0,0,0,0,0,0,0,0,0,0,0,0,
527,-121.9,-122.7,-49.83,-49.39,-65.78,-75.93,-29.19,-28.19,-41.78,-44.37,-18.63,-27.43,-26.27,-28.47,-6.194,-15.76,0,0,0,0,0,0,0,0,0,0,0,0,0,0,0,0,
528,-123.2,-127.5,-45.53,-94.94,-66.27,-75.23,-27.69,-0.8145,-45.58,-33.07,5.803,-6.2,-15.12,-4.92,-1.299,3.78,0,0,0,0,0,0,0,0,0,0,0,0,0,0,0,0,
529,-95.52,-97.9,-27.27,-50.96,-56.06,-50.69,-25.61,12.24,-39.41,-17.84,-4.401,20.51,-19.69,5.068,-12.91,3.852,0,0,0,0,0,0,0,0,0,0,0,0,0,0,0,0,
530,-73.14,-59.03,-15.66,22.22,-34.67,-8.733,-20.12,18.6,-32.21,-3.422,-13.75,21.81,-14.58,7.483,-12.49,-1.195,0,0,0,0,0,0,0,0,0,0,0,0,0,0,0,0,
531,-66.3,-50.22,-21.79,11.09,-35.1,-0.7583,-31.5,11.68,-15.05,6.455,-14.32,-9.944,-15.48,-12.93,-20.44,-20.16,0,0,0,0,0,0,0,0,0,0,0,0,0,0,0,0,
532,-72.65,-67.12,-41.91,-16.96,-58.71,-29.63,-43.33,-28.23,-28.73,-24.6,-22.83,-39.21,-24.13,-41.77,-23.01,-37.23,0,0,0,0,0,0,0,0,0,0,0,0,0,0,0,0,
533,-63.64,-55.62,-42.68,10.07,-44.55,-24.4,-17.26,-40.38,-39.49,-44.77,-8.027,-31.48,0.832,-31.73,3.245,-23.75,0,0,0,0,0,0,0,0,0,0,0,0,0,0,0,0,
534,-42.63,-28.12,-27.39,25.83,-17.14,-1.802,-4.963,-4.257,-14.38,-21.45,7.962,-13.46,16.19,-11.33,10.36,-12.1,0,0,0,0,0,0,0,0,0,0,0,0,0,0,0,0,
535,-40.05,-24.15,-28.3,23.05,-23.82,-0.6227,-19.17,21.01,-9.511,-7.805,3.064,-1.627,-5.203,-3.975,-1.625,-8.815,0,0,0,0,0,0,0,0,0,0,0,0,0,0,0,0,
536,-45.72,-27.11,-33.14,21.99,-32.23,1.219,-8.904,22.28,-21.59,-0.2069,6.409,14.34,-16.04,11.88,0.8264,7.093,0,0,0,0,0,0,0,0,0,0,0,0,0,0,0,0,
537,-55.75,-36.83,-33.47,9.605,-36.83,-3.536,-3.873,20.09,-21.73,13.03,6.049,19.72,-14.92,21.86,-4.037,13.04,0,0,0,0,0,0,0,0,0,0,0,0,0,0,0,0,
538,-58.46,-46.45,-26.03,48.07,-28.89,-1.215,-6.652,27.98,-16.78,11.74,6.408,29.11,-3.084,30.98,-3.924,15.97,0,0,0,0,0,0,0,0,0,0,0,0,0,0,0,0,
539,-25.71,-23.73,8.818,98.71,18.43,29.34,19.92,43.9,12.26,22.55,28.79,51.03,23.84,52.4,11.86,25.95,0,0,0,0,0,0,0,0,0,0,0,0,0,0,0,0,
540,-2.995,-4.313,30.64,39.81,44.56,33.85,25.86,40.51,40.58,44.79,30.18,37.4,23.25,45.07,-2.626,3.321,0,0,0,0,0,0,0,0,0,0,0,0,0,0,0,0,
541,-17.17,-14.33,12.34,-19.28,20.09,15.35,1.198,27.19,27.5,39.69,6.922,-1.757,-0.1435,7.601,-29.2,-35.24,0,0,0,0,0,0,0,0,0,0,0,0,0,0,0,0,
542,-10.4,-7.515,10.54,32.14,11.06,32.22,0.5263,27.94,10.24,23.23,5.796,-20.7,-8.208,-16.23,-24.2,-41.59,0,0,0,0,0,0,0,0,0,0,0,0,0,0,0,0,
543,13.67,14.32,28.87,67.47,25.35,54.75,9.555,19.88,8.691,20.55,12.03,-34.17,-11.51,-22.59,-11.47,-32.19,0,0,0,0,0,0,0,0,0,0,0,0,0,0,0,0,
544,13.85,15.56,28.01,33.0,29.43,47.19,11.31,0.0957,5.969,17.19,4.581,-44.24,-11.54,-22.1,-4.386,-27.34,0,0,0,0,0,0,0,0,0,0,0,0,0,0,0,0,
545,13.15,11.68,29.48,10.26,32.58,35.87,23.21,-4.523,13.51,3.228,7.895,-28.68,4.571,-9.699,7.395,-13.01,0,0,0,0,0,0,0,0,0,0,0,0,0,0,0,0,
546,15.58,9.497,35.1,8.308,30.76,28.07,24.29,0.9463,25.84,0.3422,10.4,-4.242,8.62,14.03,7.286,8.007,0,0,0,0,0,0,0,0,0,0,0,0,0,0,0,0,
547,-13.67,-16.67,4.256,-3.459,2.994,6.718,-6.327,1.89,7.499,17.84,-30.36,4.3,-24.2,26.45,-18.13,7.606,0,0,0,0,0,0,0,0,0,0,0,0,0,0,0,0,
548,-53.31,-54.03,-38.55,-21.39,-26.05,-17.44,-36.52,2.4,-35.39,19.16,-71.77,1.851,-53.12,14.18,-38.63,-9.131,0,0,0,0,0,0,0,0,0,0,0,0,0,0,0,0,
549,-51.09,-58.78,-32.43,-22.12,-19.0,-15.89,-29.75,9.392,-42.94,-1.708,-40.35,6.169,-31.2,5.565,-17.56,-5.752,0,0,0,0,0,0,0,0,0,0,0,0,0,0,0,0,
550,-23.82,-31.71,-2.332,2.181,3.154,2.771,-8.076,16.12,-4.395,-6.117,6.728,7.607,2.345,4.277,11.78,-2.276,0,0,0,0,0,0,0,0,0,0,0,0,0,0,0,0,
551,-26.78,-19.02,-13.06,21.2,-1.026,1.969,-14.42,12.28,13.17,-4.03,-5.513,-11.74,-1.9,-18.57,5.744,-28.2,0,0,0,0,0,0,0,0,0,0,0,0,0,0,0,0,
552,-46.85,-34.91,-38.04,19.47,-16.47,-8.527,-31.2,10.36,-2.534,-13.34,-20.24,-22.69,-5.605,-31.73,4.268,-35.16,0,0,0,0,0,0,0,0,0,0,0,0,0,0,0,0,
553,-30.08,-32.76,-21.49,26.25,-1.827,16.32,-18.06,21.67,4.831,7.402,3.987,-3.185,24.29,2.631,30.4,-3.917,0,0,0,0,0,0,0,0,0,0,0,0,0,0,0,0,
554,14.81,9.372,9.982,52.69,35.09,67.53,8.258,30.96,40.32,66.27,22.47,21.06,51.4,44.01,37.42,16.02,0,0,0,0,0,0,0,0,0,0,0,0,0,0,0,0,
555,35.99,39.13,16.89,62.67,54.34,89.8,15.94,36.07,66.29,98.62,22.26,38.89,55.65,60.14,25.25,22.76,0,0,0,0,0,0,0,0,0,0,0,0,0,0,0,0,
556,33.56,37.29,17.09,52.56,58.91,82.16,22.37,54.04,75.35,80.48,24.18,51.9,56.66,70.38,33.67,43.25,0,0,0,0,0,0,0,0,0,0,0,0,0,0,0,0,
557,45.34,44.17,35.06,61.4,75.42,84.47,42.3,71.71,79.02,57.68,30.57,56.21,55.44,75.21,49.2,58.64,0,0,0,0,0,0,0,0,0,0,0,0,0,0,0,0,
558,65.07,54.38,60.55,68.98,91.41,90.34,52.88,60.42,74.89,50.62,39.46,65.8,47.63,68.78,48.95,56.47,0,0,0,0,0,0,0,0,0,0,0,0,0,0,0,0,
559,72.85,54.45,75.29,54.27,93.34,87.23,55.18,31.54,67.02,50.4,48.37,68.14,49.46,63.61,48.05,51.47,0,0,0,0,0,0,0,0,0,0,0,0,0,0,0,0,
560,73.44,58.64,76.12,60.81,86.5,83.94,59.07,13.94,68.02,55.61,42.91,29.73,51.02,44.99,41.0,31.6,0,0,0,0,0,0,0,0,0,0,0,0,0,0,0,0,
561,59.62,48.58,61.98,71.13,71.47,72.33,50.26,9.897,65.07,48.17,26.32,-14.44,39.29,13.32,19.31,-0.0234,0,0,0,0,0,0,0,0,0,0,0,0,0,0,0,0,
562,45.68,32.27,42.97,30.55,65.86,57.99,43.25,4.555,59.23,31.74,27.04,-17.01,45.22,10.49,21.88,1.242,0,0,0,0,0,0,0,0,0,0,0,0,0,0,0,0,
563,54.77,35.12,36.6,-19.97,70.62,48.32,50.92,-15.04,71.48,30.96,42.13,-6.404,69.49,26.76,51.73,23.03,0,0,0,0,0,0,0,0,0,0,0,0,0,0,0,0,
564,64.39,37.98,44.88,-4.502,73.36,46.94,60.48,-28.16,87.25,33.67,58.61,-4.816,84.36,30.43,65.53,21.9,0,0,0,0,0,0,0,0,0,0,0,0,0,0,0,0,
565,84.53,61.36,73.01,58.29,98.48,80.11,79.08,-5.368,101.7,45.7,78.66,1.909,86.9,28.79,57.33,10.87,0,0,0,0,0,0,0,0,0,0,0,0,0,0,0,0,
566,118.4,100.5,94.97,66.24,114.9,102.7,78.58,12.04,107.6,64.7,62.24,1.257,50.82,8.555,27.67,-4.652,0,0,0,0,0,0,0,0,0,0,0,0,0,0,0,0,
567,98.09,77.74,64.02,21.82,68.01,59.68,30.07,-0.9201,58.34,35.59,8.516,-5.313,-13.35,-22.52,-11.41,-23.44,0,0,0,0,0,0,0,0,0,0,0,0,0,0,0,0,
568,46.54,32.76,21.91,33.09,19.84,25.14,-5.549,19.16,-11.44,-13.86,-15.43,7.512,-32.36,-18.71,-18.34,-11.69,0,0,0,0,0,0,0,0,0,0,0,0,0,0,0,0,
569,38.46,43.24,14.5,72.6,13.24,34.0,-8.451,62.01,-27.17,-14.82,-26.7,31.92,-18.36,4.055,-11.91,14.45,0,0,0,0,0,0,0,0,0,0,0,0,0,0,0,0,
570,29.52,46.29,-2.034,58.51,-4.62,22.04,-31.65,53.62,-19.73,2.168,-55.44,50.44,-22.11,18.06,-28.94,18.13,0,0,0,0,0,0,0,0,0,0,0,0,0,0,0,0,
571,-10.13,8.532,-28.67,33.46,-28.6,-1.312,-53.48,33.55,-23.74,6.596,-55.36,50.22,-23.24,29.82,-42.68,11.85,0,0,0,0,0,0,0,0,0,0,0,0,0,0,0,0,
572,-18.54,-1.276,-22.16,41.04,-19.32,3.449,-31.64,54.88,-14.94,13.47,-33.59,33.07,-12.16,27.75,-34.32,9.533,0,0,0,0,0,0,0,0,0,0,0,0,0,0,0,0,
573,11.95,24.19,-0.822,62.63,4.311,20.09,-5.117,66.24,4.04,22.08,-23.55,24.48,-6.182,13.53,-20.33,8.57,0,0,0,0,0,0,0,0,0,0,0,0,0,0,0,0,
574,27.14,31.2,5.34,62.39,13.07,30.05,-9.509,41.67,10.66,28.99,-15.96,5.157,-7.271,-6.675,-16.89,-4.916,0,0,0,0,0,0,0,0,0,0,0,0,0,0,0,0,
575,24.27,26.98,11.36,55.42,13.03,40.85,-9.299,20.16,1.416,23.25,-9.012,-36.29,-7.931,-35.56,-14.48,-27.39,0,0,0,0,0,0,0,0,0,0,0,0,0,0,0,0,
576,53.87,63.09,46.96,108.8,39.47,75.98,26.08,12.04,2.857,17.14,9.504,-40.99,9.467,-37.74,11.46,-19.72,0,0,0,0,0,0,0,0,0,0,0,0,0,0,0,0,
577,104.9,113.0,88.81,141.5,85.19,109.3,53.4,9.679,33.93,40.34,27.74,-25.08,24.88,-17.33,27.43,-0.0936,0,0,0,0,0,0,0,0,0,0,0,0,0,0,0,0,
578,103.6,100.6,79.27,56.72,80.09,77.15,34.2,16.04,45.07,42.62,5.341,-39.8,6.742,-20.68,2.766,-10.52,0,0,0,0,0,0,0,0,0,0,0,0,0,0,0,0,
579,62.01,52.47,47.2,2.164,32.67,21.45,13.88,21.84,10.89,-5.026,-14.03,-14.4,3.095,-6.699,-1.362,-0.5101,0,0,0,0,0,0,0,0,0,0,0,0,0,0,0,0,
580,60.95,53.42,55.54,54.8,34.73,35.36,32.02,32.83,6.26,-6.706,11.31,64.34,47.57,60.57,31.52,51.3,0,0,0,0,0,0,0,0,0,0,0,0,0,0,0,0,
581,92.94,87.35,70.1,81.29,73.69,84.52,43.72,60.95,53.94,58.81,18.1,77.71,72.66,98.09,30.51,63.69,0,0,0,0,0,0,0,0,0,0,0,0,0,0,0,0,
582,92.59,84.26,45.87,56.79,68.26,83.01,16.59,71.92,71.64,79.72,-13.93,31.67,39.97,62.79,-4.621,24.03,0,0,0,0,0,0,0,0,0,0,0,0,0,0,0,0,
583,64.06,52.68,15.37,44.39,37.86,47.89,-4.114,50.06,41.93,39.52,-22.97,28.12,1.934,26.33,-14.65,5.333,0,0,0,0,0,0,0,0,0,0,0,0,0,0,0,0,
584,45.07,35.67,5.567,37.77,21.22,26.47,-4.139,31.56,18.84,17.99,-8.747,42.8,-13.67,18.38,-4.539,10.11,0,0,0,0,0,0,0,0,0,0,0,0,0,0,0,0,
585,29.25,24.21,-1.948,21.82,-5.999,6.688,-20.06,22.04,-1.104,14.64,-8.372,22.83,-28.19,1.653,-7.08,-1.983,0,0,0,0,0,0,0,0,0,0,0,0,0,0,0,0,
586,13.85,9.001,-11.69,11.16,-28.99,-10.97,-34.2,9.489,-27.82,-1.295,-3.051,0.2734,-35.62,-19.23,-10.07,-13.47,0,0,0,0,0,0,0,0,0,0,0,0,0,0,0,0,
587,10.76,6.396,-14.69,14.95,-24.93,-9.563,-30.33,-0.7965,-34.25,-11.78,3.409,-13.36,-30.84,-28.39,-7.421,-14.15,0,0,0,0,0,0,0,0,0,0,0,0,0,0,0,0,
588,3.559,5.145,-18.65,2.17,-24.88,-11.82,-37.42,-16.41,-33.44,-17.45,-20.71,-23.98,-32.0,-39.09,-14.61,-24.79,0,0,0,0,0,0,0,0,0,0,0,0,0,0,0,0,
589,-0.5138,0.8611,-11.74,-9.55,-19.09,-8.376,-28.64,-28.94,-33.04,-20.71,-22.95,-6.782,-15.87,-34.99,-6.16,-22.34,0,0,0,0,0,0,0,0,0,0,0,0,0,0,0,0,
590,23.16,21.9,19.52,52.04,15.25,32.46,15.94,-12.7,-1.322,3.06,28.86,14.38,29.02,-9.193,28.73,-0.6249,0,0,0,0,0,0,0,0,0,0,0,0,0,0,0,0,
591,45.11,52.41,43.03,102.9,35.77,59.15,39.41,18.68,36.72,28.15,54.55,2.986,45.57,-3.039,38.13,-5.951,0,0,0,0,0,0,0,0,0,0,0,0,0,0,0,0,
592,41.69,41.89,43.0,35.4,25.49,34.4,32.4,27.72,35.76,18.72,34.97,2.034,24.93,-7.207,19.65,-23.34,0,0,0,0,0,0,0,0,0,0,0,0,0,0,0,0,
593,37.73,10.53,41.47,-23.82,22.58,22.1,31.44,6.379,25.62,17.77,33.38,40.54,23.23,24.27,22.76,-4.731,0,0,0,0,0,0,0,0,0,0,0,0,0,0,0,0,
594,40.95,17.2,41.23,13.56,34.61,41.8,26.06,-5.106,38.25,49.6,41.84,64.72,35.88,58.74,35.17,25.53,0,0,0,0,0,0,0,0,0,0,0,0,0,0,0,0,
595,36.3,41.58,37.42,38.48,37.83,42.95,12.55,27.17,44.69,58.27,31.31,48.71,31.85,56.88,32.87,42.45,0,0,0,0,0,0,0,0,0,0,0,0,0,0,0,0,
596,33.43,42.6,39.66,28.63,33.73,36.99,18.53,61.73,34.58,36.94,28.61,44.36,35.35,58.69,40.88,65.7,0,0,0,0,0,0,0,0,0,0,0,0,0,0,0,0,
597,50.5,44.77,50.91,44.6,37.95,49.1,31.19,48.43,35.17,36.42,35.88,62.27,48.39,69.2,49.08,76.8,0,0,0,0,0,0,0,0,0,0,0,0,0,0,0,0,
598,64.49,51.74,53.64,49.1,38.54,46.64,15.56,18.05,35.82,39.77,21.96,45.94,35.14,42.25,25.01,50.86,0,0,0,0,0,0,0,0,0,0,0,0,0,0,0,0,
599,51.88,42.59,35.38,24.49,27.23,30.52,-12.62,10.03,20.63,18.2,-3.474,12.43,12.05,6.59,0.9914,28.04,0,0,0,0,0,0,0,0,0,0,0,0,0,0,0,0,
600,35.22,33.76,12.3,17.98,16.19,21.47,-25.8,1.551,13.74,2.356,-20.56,14.26,-0.4877,-3.41,-5.399,20.53,0,0,0,0,0,0,0,0,0,0,0,0,0,0,0,0,
601,14.0,10.81,-14.14,3.592,-10.02,-10.1,-41.5,-19.32,2.769,-11.85,-48.16,3.01,-32.77,-31.55,-35.75,-16.5,0,0,0,0,0,0,0,0,0,0,0,0,0,0,0,0,
602,-27.21,-33.78,-50.3,-29.17,-55.22,-54.98,-64.14,-25.16,-41.0,-44.2,-83.25,-44.13,-73.58,-76.04,-71.29,-66.52,0,0,0,0,0,0,0,0,0,0,0,0,0,0,0,0,
603,-49.86,-40.19,-64.01,-8.759,-77.47,-63.13,-64.92,-16.99,-78.79,-58.8,-83.49,-63.0,-79.13,-90.67,-65.36,-84.22,0,0,0,0,0,0,0,0,0,0,0,0,0,0,0,0,
604,-43.56,-22.37,-57.38,16.58,-76.53,-57.63,-51.65,-14.89,-81.78,-55.89,-58.83,-60.39,-68.17,-89.82,-49.58,-81.93,0,0,0,0,0,0,0,0,0,0,0,0,0,0,0,0,
605,-46.76,-40.45,-67.32,-26.23,-80.72,-67.69,-50.44,-23.64,-79.9,-69.13,-57.15,-55.51,-64.22,-75.3,-41.31,-60.37,0,0,0,0,0,0,0,0,0,0,0,0,0,0,0,0,
606,-45.82,-47.23,-69.55,-23.42,-68.36,-54.63,-46.06,-37.33,-75.62,-62.33,-60.52,-7.698,-44.23,-24.86,-15.74,-11.4,0,0,0,0,0,0,0,0,0,0,0,0,0,0,0,0,
607,-24.13,-17.85,-50.56,37.13,-41.26,-26.31,-30.91,-25.4,-51.53,-19.02,-40.49,35.1,-22.88,5.96,-5.818,11.91,0,0,0,0,0,0,0,0,0,0,0,0,0,0,0,0,
608,-29.68,-27.73,-59.77,2.56,-52.97,-42.89,-45.58,6.581,-43.01,-12.09,-46.95,6.255,-47.22,-28.42,-41.7,-22.24,0,0,0,0,0,0,0,0,0,0,0,0,0,0,0,0,
609,-71.74,-72.42,-94.96,-68.94,-91.64,-78.39,-91.49,-1.869,-79.13,-50.9,-93.4,-23.8,-87.28,-61.03,-71.8,-55.01,0,0,0,0,0,0,0,0,0,0,0,0,0,0,0,0,
610,-79.65,-71.15,-96.49,-44.95,-91.28,-63.68,-99.09,-27.87,-103.9,-53.41,-91.85,3.034,-67.29,-30.76,-45.19,-27.08,0,0,0,0,0,0,0,0,0,0,0,0,0,0,0,0,
611,-33.24,-27.97,-56.42,2.104,-51.58,-18.87,-49.62,-11.39,-64.95,-12.12,-24.3,36.8,0.5341,20.45,11.72,30.4,0,0,0,0,0,0,0,0,0,0,0,0,0,0,0,0,
612,-7.201,-11.46,-27.87,-9.629,-27.87,-8.95,-7.345,-0.8879,-12.26,7.152,12.1,40.32,32.11,29.35,32.51,46.72,0,0,0,0,0,0,0,0,0,0,0,0,0,0,0,0,
613,-32.77,-39.4,-33.08,-45.62,-38.14,-32.41,-2.337,-21.57,-8.192,-9.761,-6.919,25.41,11.24,5.408,10.57,25.17,0,0,0,0,0,0,0,0,0,0,0,0,0,0,0,0,
614,-40.19,-48.34,-25.14,-34.13,-36.35,-25.67,-1.836,-13.25,-18.85,-21.18,-10.72,13.18,-1.202,-4.104,0.0791,12.96,0,0,0,0,0,0,0,0,0,0,0,0,0,0,0,0,
615,3.709,-0.9278,9.959,22.0,2.958,21.96,8.365,5.59,4.106,0.6944,8.741,13.76,10.63,-0.2778,8.634,6.785,0,0,0,0,0,0,0,0,0,0,0,0,0,0,0,0,
616,37.44,38.3,18.2,34.88,31.24,46.61,13.19,-2.506,28.21,25.33,11.39,9.322,13.57,-10.17,9.746,-7.845,0,0,0,0,0,0,0,0,0,0,0,0,0,0,0,0,
617,34.19,41.76,3.296,31.51,31.53,43.5,15.47,11.53,26.98,17.29,3.894,-15.91,7.496,-26.25,4.237,-29.82,0,0,0,0,0,0,0,0,0,0,0,0,0,0,0,0,
618,24.71,43.86,1.127,57.15,29.83,40.81,8.629,28.51,22.65,0.3175,-10.62,-42.23,-6.191,-37.72,-16.81,-67.69,0,0,0,0,0,0,0,0,0,0,0,0,0,0,0,0,
619,6.275,20.78,-18.32,25.85,8.716,15.12,-21.21,-5.662,2.092,-7.84,-38.65,-37.66,-30.06,-39.89,-42.41,-84.77,0,0,0,0,0,0,0,0,0,0,0,0,0,0,0,0,
620,-3.57,-2.479,-33.02,-13.3,-6.947,1.632,-26.56,-12.31,-26.23,-7.913,-38.38,-1.804,-23.07,-14.07,-26.24,-40.07,0,0,0,0,0,0,0,0,0,0,0,0,0,0,0,0,
621,29.98,33.72,10.31,20.34,22.97,33.74,9.117,29.56,-8.961,15.14,-6.056,31.42,5.679,23.35,4.404,11.3,0,0,0,0,0,0,0,0,0,0,0,0,0,0,0,0,
622,52.49,54.82,35.09,28.04,32.05,38.3,13.64,16.94,12.38,30.31,0.339,48.97,-6.348,35.06,-4.159,24.86,0,0,0,0,0,0,0,0,0,0,0,0,0,0,0,0,
623,34.42,29.65,2.418,21.65,5.808,15.12,-8.804,-19.92,-15.04,9.312,-18.6,57.15,-34.76,25.81,-18.52,34.92,0,0,0,0,0,0,0,0,0,0,0,0,0,0,0,0,
624,24.79,25.49,-7.598,38.75,5.367,12.2,-5.01,-11.09,-39.72,-13.02,-28.51,39.76,-37.52,4.578,-15.55,37.36,0,0,0,0,0,0,0,0,0,0,0,0,0,0,0,0,
625,16.09,12.97,-3.083,-14.8,3.065,-7.974,-0.2413,-14.46,-42.11,-31.28,-25.77,10.52,-37.89,-29.61,-26.8,6.137,0,0,0,0,0,0,0,0,0,0,0,0,0,0,0,0,
626,4.143,-15.41,-13.66,-65.47,-13.37,-34.8,0.6675,-40.61,-42.23,-55.27,-13.36,3.802,-39.24,-57.98,-46.83,-30.56,0,0,0,0,0,0,0,0,0,0,0,0,0,0,0,0,
627,15.44,-5.675,-0.8418,-30.87,-4.19,-29.27,16.43,-44.63,-29.43,-65.08,-9.322,-2.993,-32.29,-66.56,-48.44,-45.37,0,0,0,0,0,0,0,0,0,0,0,0,0,0,0,0,
628,24.07,11.51,18.48,-15.11,13.26,-14.01,25.92,-33.55,-13.35,-58.3,-9.464,-15.5,-17.06,-47.03,-24.37,-32.3,0,0,0,0,0,0,0,0,0,0,0,0,0,0,0,0,
629,33.48,22.62,22.48,-10.9,26.32,9.611,27.55,-10.86,1.456,-35.3,5.449,-2.957,7.308,-8.836,4.688,-7.49,0,0,0,0,0,0,0,0,0,0,0,0,0,0,0,0,
630,50.68,40.52,15.54,28.22,34.68,30.67,10.73,9.165,12.45,-8.396,-5.983,7.543,7.577,7.1,-0.3409,-9.395,0,0,0,0,0,0,0,0,0,0,0,0,0,0,0,0,
631,42.58,37.6,-7.893,47.86,35.4,37.16,-23.01,10.93,1.084,3.657,-39.42,2.189,-8.756,4.681,-18.16,-22.28,0,0,0,0,0,0,0,0,0,0,0,0,0,0,0,0,
632,42.68,39.94,-3.751,55.47,55.36,59.12,-21.17,15.7,3.63,23.58,-34.37,5.709,3.301,7.246,-15.91,-23.13,0,0,0,0,0,0,0,0,0,0,0,0,0,0,0,0,
633,56.62,55.98,13.42,48.14,62.44,63.42,-11.2,6.932,27.54,34.85,-29.54,-8.784,6.541,-15.3,-30.79,-47.09,0,0,0,0,0,0,0,0,0,0,0,0,0,0,0,0,
634,41.92,45.74,-16.78,21.56,26.98,31.59,-35.26,-18.47,15.99,4.008,-48.47,-30.12,-15.47,-45.8,-47.04,-66.15,0,0,0,0,0,0,0,0,0,0,0,0,0,0,0,0,
635,44.19,40.63,-26.66,42.3,15.95,28.08,-33.71,-5.889,-6.686,-13.25,-31.94,-3.773,-10.14,-25.18,-21.02,-28.64,0,0,0,0,0,0,0,0,0,0,0,0,0,0,0,0,
636,64.86,54.74,5.334,63.36,34.81,43.45,-9.647,25.81,1.6,6.857,-9.99,23.62,0.5721,14.45,-11.42,3.259,0,0,0,0,0,0,0,0,0,0,0,0,0,0,0,0,
637,53.7,57.03,1.523,43.99,36.82,46.26,-20.85,18.59,5.409,18.08,-31.6,4.838,-16.29,24.2,-38.53,-12.11,0,0,0,0,0,0,0,0,0,0,0,0,0,0,0,0,
638,54.38,62.87,-5.782,68.1,43.29,60.46,-30.8,-1.37,-5.562,22.86,-49.65,-16.14,-21.87,19.45,-40.16,-22.62,0,0,0,0,0,0,0,0,0,0,0,0,0,0,0,0,
639,70.37,67.0,16.96,85.61,53.97,62.88,-6.924,1.973,-5.841,25.58,-30.07,-17.59,0.5487,15.97,-11.4,-7.468,0,0,0,0,0,0,0,0,0,0,0,0,0,0,0,0,
640,62.2,55.69,29.7,31.81,49.72,44.42,22.5,7.706,11.61,15.51,13.03,-3.685,34.78,18.93,26.48,16.27,0,0,0,0,0,0,0,0,0,0,0,0,0,0,0,0,
641,66.15,55.23,41.17,8.965,52.64,43.57,46.73,2.484,39.17,15.85,52.15,18.66,62.57,20.16,61.77,33.77,0,0,0,0,0,0,0,0,0,0,0,0,0,0,0,0,
642,82.46,59.78,57.82,31.1,62.11,50.15,67.27,0.0986,54.32,20.14,68.8,22.77,68.55,8.378,74.16,35.33,0,0,0,0,0,0,0,0,0,0,0,0,0,0,0,0,
643,81.67,60.84,62.62,40.17,67.71,57.23,72.88,2.067,53.91,17.22,71.18,19.63,57.12,5.221,62.07,24.82,0,0,0,0,0,0,0,0,0,0,0,0,0,0,0,0,
644,76.55,64.23,47.19,49.85,63.06,65.32,42.62,3.775,44.13,24.85,42.22,19.08,20.29,2.225,21.38,-4.258,0,0,0,0,0,0,0,0,0,0,0,0,0,0,0,0,
645,52.26,43.77,-4.035,34.15,26.47,39.11,-16.26,3.755,5.282,15.84,-18.78,-0.9567,-33.47,-21.27,-28.37,-36.78,0,0,0,0,0,0,0,0,0,0,0,0,0,0,0,0,
646,11.56,11.76,-50.36,-4.712,-11.37,5.311,-46.85,-4.389,-40.65,-9.085,-47.37,-8.731,-50.85,-19.35,-40.82,-29.77,0,0,0,0,0,0,0,0,0,0,0,0,0,0,0,0,
647,-1.458,5.187,-45.6,-10.45,-10.11,7.139,-37.21,-8.841,-45.74,4.954,-39.01,14.56,-36.15,10.29,-34.78,-4.105,0,0,0,0,0,0,0,0,0,0,0,0,0,0,0,0,
648,3.748,1.19,-31.62,-8.947,-6.123,2.57,-36.6,-1.124,-35.06,18.61,-41.93,15.08,-37.09,5.54,-40.25,-1.401,0,0,0,0,0,0,0,0,0,0,0,0,0,0,0,0,
649,6.875,-8.788,-29.5,-10.74,-12.46,-13.91,-39.25,1.051,-40.61,-14.35,-39.04,-5.106,-36.31,-13.4,-32.77,1.72,0,0,0,0,0,0,0,0,0,0,0,0,0,0,0,0,
650,26.35,7.862,-5.786,15.94,13.0,7.546,-12.08,7.439,-28.57,-24.3,-10.78,-2.183,-6.206,-0.7266,-6.859,19.82,0,0,0,0,0,0,0,0,0,0,0,0,0,0,0,0,
651,55.27,39.64,21.15,51.74,50.44,44.75,11.41,25.24,11.35,7.557,13.89,-1.204,27.14,12.3,15.3,24.66,0,0,0,0,0,0,0,0,0,0,0,0,0,0,0,0,
652,62.79,52.5,9.146,84.05,48.35,55.77,-3.338,19.23,34.82,20.86,17.31,-20.49,37.68,6.051,18.12,12.45,0,0,0,0,0,0,0,0,0,0,0,0,0,0,0,0,
653,46.77,48.01,-18.81,84.27,25.24,49.78,-27.51,-0.6135,29.51,20.8,5.55,-18.77,30.72,6.974,2.251,4.121,0,0,0,0,0,0,0,0,0,0,0,0,0,0,0,0,
654,26.82,35.19,-24.81,29.06,14.13,31.41,-36.16,5.594,19.08,25.85,-10.85,2.478,15.95,13.78,-14.98,0.385,0,0,0,0,0,0,0,0,0,0,0,0,0,0,0,0,
655,4.899,4.634,-33.35,-9.855,-6.009,-5.461,-48.17,16.49,-1.027,11.27,-31.91,0.0979,-10.04,2.586,-35.31,-10.03,0,0,0,0,0,0,0,0,0,0,0,0,0,0,0,0,
656,-29.28,-37.87,-62.15,-11.28,-45.93,-44.49,-67.14,6.179,-38.99,-17.73,-53.29,-6.354,-36.96,-15.83,-57.05,-17.88,0,0,0,0,0,0,0,0,0,0,0,0,0,0,0,0,
657,-50.62,-54.12,-68.53,-14.72,-62.58,-52.95,-62.2,-0.7274,-62.66,-26.88,-47.26,17.76,-36.91,-11.28,-50.65,-8.376,0,0,0,0,0,0,0,0,0,0,0,0,0,0,0,0,T1
658,-25.18,-28.46,-39.13,8.624,-33.87,-17.73,-34.89,11.99,-51.01,-8.502,-24.28,35.57,-20.67,5.372,-24.52,6.528,0,0,0,0,0,0,0,0,0,0,0,0,0,0,0,0,
659,18.08,6.874,-12.37,43.67,4.273,25.58,-20.76,18.63,-31.07,10.15,-30.49,21.97,-21.68,5.833,-14.88,8.804,0,0,0,0,0,0,0,0,0,0,0,0,0,0,0,0,
660,36.94,30.36,-0.6857,42.41,27.98,43.36,-15.0,4.999,-20.07,11.67,-42.57,13.71,-21.89,6.292,-13.28,8.762,0,0,0,0,0,0,0,0,0,0,0,0,0,0,0,0,
661,43.68,42.61,13.02,35.68,45.59,42.22,5.834,-0.0503,-0.8825,10.99,-15.75,18.85,4.548,19.79,1.532,21.09,0,0,0,0,0,0,0,0,0,0,0,0,0,0,0,0,
662,49.67,40.76,29.21,32.48,52.93,30.53,27.36,10.67,24.29,5.401,13.5,7.291,27.08,15.65,11.63,28.48,0,0,0,0,0,0,0,0,0,0,0,0,0,0,0,0,
663,49.93,39.05,34.67,21.9,50.16,22.56,36.0,4.055,30.72,-11.63,13.84,-14.51,22.12,-6.774,-0.0232,14.01,0,0,0,0,0,0,0,0,0,0,0,0,0,0,0,0,
664,52.58,39.86,27.06,15.63,49.62,29.31,29.73,-15.77,17.49,-14.72,10.18,-15.81,7.478,-13.22,-13.01,-3.051,0,0,0,0,0,0,0,0,0,0,0,0,0,0,0,0,
665,45.48,25.12,11.87,7.26,44.5,33.64,2.474,-7.662,-0.8319,-6.59,6.904,4.979,-3.601,2.22,-6.556,1.987,0,0,0,0,0,0,0,0,0,0,0,0,0,0,0,0,
666,33.82,31.33,5.197,38.43,44.31,48.57,-13.97,30.91,-8.494,4.449,5.521,27.29,3.307,34.46,13.15,25.29,0,0,0,0,0,0,0,0,0,0,0,0,0,0,0,0,
667,51.02,69.62,19.53,95.08,66.42,79.77,7.275,55.17,11.56,41.94,19.59,33.1,35.8,69.64,26.83,37.21,0,0,0,0,0,0,0,0,0,0,0,0,0,0,0,0,
668,63.89,61.29,29.17,58.45,74.92,73.3,29.82,40.79,44.82,74.17,33.27,23.11,67.25,80.32,32.67,30.76,0,0,0,0,0,0,0,0,0,0,0,0,0,0,0,0,
669,46.18,18.37,20.93,1.462,51.91,43.16,35.27,18.5,64.94,62.97,44.26,17.73,83.99,76.31,49.85,35.0,0,0,0,0,0,0,0,0,0,0,0,0,0,0,0,0,
670,36.28,16.68,9.517,49.53,33.19,42.27,34.58,10.26,70.45,45.7,49.8,11.26,81.5,63.76,54.71,32.43,0,0,0,0,0,0,0,0,0,0,0,0,0,0,0,0,
671,17.7,12.17,-21.36,67.72,16.75,30.3,10.35,-3.111,50.14,30.17,17.57,-12.94,43.29,24.87,15.07,-3.023,0,0,0,0,0,0,0,0,0,0,0,0,0,0,0,0,
672,-12.51,-14.65,-55.37,1.305,-4.757,0.5268,-23.88,-21.81,8.707,4.224,-22.7,-20.59,3.813,-0.0585,-14.46,-16.13,0,0,0,0,0,0,0,0,0,0,0,0,0,0,0,0,
673,1.914,-2.333,-49.54,-10.88,-3.727,4.68,-33.28,-22.87,-9.802,3.365,-27.99,-0.9179,-4.451,12.68,-4.014,5.075,0,0,0,0,0,0,0,0,0,0,0,0,0,0,0,0,
674,18.99,10.87,-42.35,12.53,2.115,8.646,-36.26,-4.912,-10.92,13.27,-30.0,2.155,-14.33,11.23,-5.411,4.603,0,0,0,0,0,0,0,0,0,0,0,0,0,0,0,0,
675,-2.203,-8.432,-53.25,7.442,-6.87,-7.676,-38.42,14.06,-20.19,0.3393,-28.73,-0.9429,-17.0,1.775,-7.909,2.655,0,0,0,0,0,0,0,0,0,0,0,0,0,0,0,0,
676,0.4494,-5.427,-37.73,17.46,-1.062,1.347,-20.31,14.73,-6.156,1.755,0.814,17.25,16.92,19.31,22.46,25.59,0,0,0,0,0,0,0,0,0,0,0,0,0,0,0,0,
677,14.32,1.095,-12.03,25.66,7.258,11.96,-2.798,3.152,23.71,21.41,29.89,27.48,41.82,24.08,46.59,34.85,0,0,0,0,0,0,0,0,0,0,0,0,0,0,0,0,
678,-0.3159,-15.18,-2.552,6.279,-4.5,-5.74,7.855,2.622,20.2,13.12,46.66,16.1,32.26,-2.451,41.71,22.61,0,0,0,0,0,0,0,0,0,0,0,0,0,0,0,0,
679,6.385,-8.22,7.42,-1.376,1.388,-12.42,21.5,1.076,2.539,-17.27,46.39,-0.5088,16.69,-20.73,27.76,8.153,0,0,0,0,0,0,0,0,0,0,0,0,0,0,0,0,
680,34.6,14.09,13.87,12.78,34.17,7.253,14.53,-11.69,4.837,-28.72,15.7,-8.555,6.421,-9.664,19.03,1.889,0,0,0,0,0,0,0,0,0,0,0,0,0,0,0,0,
681,44.02,26.2,12.34,31.43,53.19,32.78,-3.024,-3.948,18.54,-2.297,1.412,3.253,12.04,19.4,22.68,9.706,0,0,0,0,0,0,0,0,0,0,0,0,0,0,0,0,
682,42.82,34.48,3.22,40.08,42.5,42.32,-3.898,20.81,29.99,30.52,21.82,19.52,33.5,36.51,33.3,15.09,0,0,0,0,0,0,0,0,0,0,0,0,0,0,0,0,
683,30.31,28.41,-7.836,54.91,25.78,37.23,1.179,34.54,29.75,30.66,31.57,23.67,52.78,35.43,47.67,15.59,0,0,0,0,0,0,0,0,0,0,0,0,0,0,0,0,
684,27.66,36.87,13.03,92.01,35.72,53.32,19.02,47.81,35.04,30.66,34.49,22.98,72.01,37.42,61.39,21.66,0,0,0,0,0,0,0,0,0,0,0,0,0,0,0,0,
685,53.12,66.94,38.44,95.47,48.72,68.78,32.92,46.91,53.54,50.45,32.2,10.17,68.85,25.4,46.83,6.537,0,0,0,0,0,0,0,0,0,0,0,0,0,0,0,0,
686,46.13,50.95,9.541,59.47,21.25,36.39,1.882,18.85,35.77,39.05,-4.186,-18.62,18.56,-14.14,4.63,-33.82,0,0,0,0,0,0,0,0,0,0,0,0,0,0,0,0,
687,14.7,18.45,-21.13,52.65,-2.295,5.57,-22.16,16.05,-12.64,1.735,-37.75,-37.93,-29.14,-41.11,-24.61,-51.39,0,0,0,0,0,0,0,0,0,0,0,0,0,0,0,0,
688,31.46,36.11,-3.277,63.93,11.91,9.053,-3.316,35.05,-29.71,-17.41,-36.72,-33.09,-43.01,-42.71,-31.7,-35.6,0,0,0,0,0,0,0,0,0,0,0,0,0,0,0,0,
689,58.24,52.68,9.358,73.11,13.73,7.043,1.163,21.12,-31.22,-27.69,-28.81,-18.35,-50.93,-36.37,-30.44,-17.04,0,0,0,0,0,0,0,0,0,0,0,0,0,0,0,0,
690,44.43,38.23,-0.9037,79.05,-2.776,5.502,-4.52,3.362,-40.95,-21.29,-15.82,-12.47,-45.7,-16.69,-16.13,-0.9429,0,0,0,0,0,0,0,0,0,0,0,0,0,0,0,0,
691,12.32,12.93,-5.808,22.22,-13.83,2.461,8.658,7.814,-35.19,4.823,5.281,-12.73,-17.42,5.514,7.151,19.99,0,0,0,0,0,0,0,0,0,0,0,0,0,0,0,0,
692,-14.62,-27.36,-1.39,-53.55,-20.76,-22.31,21.15,6.537,-19.75,5.539,29.65,9.184,22.28,30.05,39.44,52.39,0,0,0,0,0,0,0,0,0,0,0,0,0,0,0,0,
693,-11.13,-47.19,23.58,-41.52,0.5252,-19.71,41.81,12.36,13.34,8.137,69.66,56.37,77.11,81.3,82.97,92.3,0,0,0,0,0,0,0,0,0,0,0,0,0,0,0,0,
694,-9.957,-47.15,34.75,-19.8,23.82,-1.262,43.21,23.89,60.35,43.67,78.36,70.66,98.41,102.9,83.12,88.76,0,0,0,0,0,0,0,0,0,0,0,0,0,0,0,0,
695,-55.89,-78.96,-11.3,-56.24,-3.098,-29.43,-10.45,11.84,48.93,38.24,26.48,36.34,52.53,60.5,35.74,44.48,0,0,0,0,0,0,0,0,0,0,0,0,0,0,0,0,
696,-60.27,-82.11,-36.52,-36.6,-14.83,-30.86,-29.79,13.08,6.182,10.28,5.621,32.29,28.72,54.21,34.89,48.52,0,0,0,0,0,0,0,0,0,0,0,0,0,0,0,0,
697,11.75,-11.65,7.085,42.61,26.76,35.04,19.03,45.2,28.64,48.02,35.7,56.29,51.27,86.43,61.48,76.84,0,0,0,0,0,0,0,0,0,0,0,0,0,0,0,0,
698,39.65,28.4,30.57,54.72,36.7,55.81,30.23,48.59,59.88,74.97,34.14,34.27,43.96,65.37,41.95,55.42,0,0,0,0,0,0,0,0,0,0,0,0,0,0,0,0,
699,10.91,6.84,9.984,34.6,10.93,26.74,5.042,16.42,38.19,41.1,26.5,25.14,39.58,58.44,40.79,50.48,0,0,0,0,0,0,0,0,0,0,0,0,0,0,0,0,
700,15.06,3.67,15.47,47.35,18.41,28.95,23.21,2.038,38.23,47.02,53.07,65.36,71.6,100.7,70.21,78.44,0,0,0,0,0,0,0,0,0,0,0,0,0,0,0,0,
701,27.04,7.132,31.81,15.73,26.61,15.76,36.37,13.67,59.31,66.72,52.56,58.5,66.51,83.6,56.5,65.74,0,0,0,0,0,0,0,0,0,0,0,0,0,0,0,0,
702,-7.916,-23.87,-6.81,-29.09,-3.203,-25.51,-0.409,29.69,37.43,25.98,33.54,39.43,41.47,48.17,48.35,60.36,0,0,0,0,0,0,0,0,0,0,0,0,0,0,0,0,
703,-32.27,-37.96,-42.17,3.64,-10.63,-13.1,-3.382,39.38,25.94,11.93,55.46,79.19,58.23,72.7,75.66,88.11,0,0,0,0,0,0,0,0,0,0,0,0,0,0,0,0,
704,-1.918,-23.46,14.24,10.51,21.77,14.35,44.74,31.36,54.82,40.08,76.83,78.83,66.08,68.92,68.5,72.22,0,0,0,0,0,0,0,0,0,0,0,0,0,0,0,0,
705,7.853,-42.03,72.93,-28.9,31.5,-1.28,52.29,15.56,56.21,25.72,63.71,31.51,47.18,33.46,49.63,45.99,0,0,0,0,0,0,0,0,0,0,0,0,0,0,0,0,
706,-38.44,-83.32,49.52,1.247,16.3,-5.159,28.08,12.66,39.18,8.815,56.92,29.17,48.58,40.44,59.59,56.93,0,0,0,0,0,0,0,0,0,0,0,0,0,0,0,0,
707,-73.73,-108.5,39.54,-0.463,8.801,-6.373,44.06,1.675,44.15,18.02,59.93,25.74,47.97,36.24,53.47,43.76,0,0,0,0,0,0,0,0,0,0,0,0,0,0,0,0,
708,-90.48,-140.7,68.11,-95.02,-5.907,-47.84,69.1,-23.57,37.6,-0.4261,55.64,2.079,27.96,5.066,36.72,15.6,0,0,0,0,0,0,0,0,0,0,0,0,0,0,0,0,
709,-126.7,-181.8,55.55,-111.8,-32.64,-79.35,55.19,-20.23,14.62,-22.21,53.5,9.174,19.04,0.2102,36.64,18.13,0,0,0,0,0,0,0,0,0,0,0,0,0,0,0,0,
710,-163.2,-206.5,29.32,-69.09,-54.48,-86.29,33.38,-4.997,-2.974,-28.02,43.95,5.075,9.363,-9.478,21.55,9.153,0,0,0,0,0,0,0,0,0,0,0,0,0,0,0,0,
711,-181.5,-223.8,41.54,-87.07,-61.7,-93.57,40.8,-24.9,-20.47,-41.94,30.89,-16.56,-6.359,-26.89,3.531,-10.16,0,0,0,0,0,0,0,0,0,0,0,0,0,0,0,0,
712,-190.0,-242.1,71.88,-100.2,-48.46,-88.18,66.27,-35.76,-17.98,-33.12,40.56,-9.544,0.0468,-12.18,16.34,1.78,0,0,0,0,0,0,0,0,0,0,0,0,0,0,0,0,
713,-199.8,-264.5,92.77,-98.72,-39.12,-94.06,79.9,-12.98,3.956,-17.94,52.49,-6.595,11.08,-6.037,24.64,7.712,0,0,0,0,0,0,0,0,0,0,0,0,0,0,0,0,
714,-228.4,-305.4,90.51,-138.2,-52.14,-129.1,80.07,-23.9,5.534,-46.41,44.43,-16.38,5.22,-26.33,12.29,-13.8,0,0,0,0,0,0,0,0,0,0,0,0,0,0,0,0,
715,-273.7,-354.6,73.53,-168.6,-68.85,-156.7,75.88,-61.48,-5.641,-74.31,36.26,-17.1,1.789,-36.42,7.603,-26.93,0,0,0,0,0,0,0,0,0,0,0,0,0,0,0,0,
716,-314.4,-389.4,54.99,-182.3,-90.39,-174.7,62.22,-57.17,-10.46,-75.86,34.42,-33.62,3.158,-45.73,5.149,-29.57,0,0,0,0,0,0,0,0,0,0,0,0,0,0,0,0,
717,-341.0,-412.8,38.56,-209.6,-121.2,-194.0,54.0,-39.11,-18.04,-84.36,30.73,-47.03,-4.098,-56.25,-5.923,-31.65,0,0,0,0,0,0,0,0,0,0,0,0,0,0,0,0,
718,-359.3,-432.7,34.44,-219.0,-140.9,-202.1,59.66,-48.17,-25.76,-88.49,22.46,-29.84,-18.44,-46.0,-15.27,-26.8,0,0,0,0,0,0,0,0,0,0,0,0,0,0,0,0,
719,-369.0,-437.6,36.86,-211.0,-142.9,-201.7,59.17,-49.33,-31.76,-74.36,11.05,-18.05,-32.44,-33.22,-16.33,-18.35,0,0,0,0,0,0,0,0,0,0,0,0,0,0,0,0,
720,-368.4,-432.6,37.0,-209.0,-135.1,-199.1,59.03,-37.91,-37.35,-64.99,15.14,-17.16,-34.08,-31.78,-0.2038,-4.857,0,0,0,0,0,0,0,0,0,0,0,0,0,0,0,0,
721,-372.7,-437.7,41.16,-204.5,-129.8,-197.9,68.34,-42.54,-36.56,-71.32,39.27,-8.05,-17.25,-27.79,29.27,14.38,0,0,0,0,0,0,0,0,0,0,0,0,0,0,0,0,
722,-381.2,-436.9,38.73,-209.4,-138.8,-205.4,66.35,-52.59,-35.4,-79.45,54.09,-5.387,2.264,-23.29,48.6,25.39,0,0,0,0,0,0,0,0,0,0,0,0,0,0,0,0,
723,-385.3,-431.2,13.17,-232.6,-156.2,-217.1,52.66,-55.83,-40.02,-78.04,47.68,-9.269,8.047,-24.39,50.74,26.51,0,0,0,0,0,0,0,0,0,0,0,0,0,0,0,0,
724,-391.7,-439.5,-15.34,-239.6,-161.1,-217.8,46.92,-49.93,-40.89,-79.45,41.53,-5.043,6.074,-25.66,44.22,26.76,0,0,0,0,0,0,0,0,0,0,0,0,0,0,0,0,
725,-371.5,-420.7,-8.244,-217.3,-140.0,-198.1,43.94,-36.41,-29.97,-86.83,37.02,-4.707,-3.425,-34.05,22.61,15.93,0,0,0,0,0,0,0,0,0,0,0,0,0,0,0,0,
726,-337.5,-387.3,-2.039,-215.3,-130.3,-192.7,16.74,-48.2,-31.33,-91.59,6.576,-22.54,-37.31,-59.5,-19.49,-15.13,0,0,0,0,0,0,0,0,0,0,0,0,0,0,0,0,
727,-357.0,-405.7,-52.63,-250.4,-164.4,-225.8,-24.87,-83.4,-69.83,-108.2,-33.93,-39.22,-74.12,-81.72,-50.05,-40.12,0,0,0,0,0,0,0,0,0,0,0,0,0,0,0,0,
728,-366.2,-404.8,-76.34,-249.4,-181.8,-233.1,-25.86,-81.76,-99.95,-123.0,-35.64,-27.89,-72.61,-76.06,-42.92,-39.35,0,0,0,0,0,0,0,0,0,0,0,0,0,0,0,0,
729,-300.9,-329.8,-15.79,-187.9,-150.9,-188.9,11.85,-40.93,-77.95,-102.2,-11.13,-6.996,-52.2,-57.01,-25.83,-32.77,0,0,0,0,0,0,0,0,0,0,0,0,0,0,0,0,
730,-269.0,-293.6,11.16,-154.0,-142.0,-171.1,21.98,-23.75,-52.09,-78.26,-7.336,-17.23,-54.44,-55.89,-25.96,-37.42,0,0,0,0,0,0,0,0,0,0,0,0,0,0,0,0,
731,-300.5,-322.7,-28.12,-170.3,-168.8,-193.2,0.2953,-42.03,-65.38,-89.41,-25.07,-48.65,-71.11,-74.47,-37.3,-51.46,0,0,0,0,0,0,0,0,0,0,0,0,0,0,0,0,
732,-295.9,-319.2,-32.35,-158.1,-170.0,-190.8,1.016,-47.42,-81.73,-101.6,-33.52,-53.09,-70.65,-82.01,-44.99,-58.01,0,0,0,0,0,0,0,0,0,0,0,0,0,0,0,0,
733,-261.3,-288.7,-5.764,-129.0,-148.8,-171.9,20.31,-34.82,-69.77,-88.9,-26.56,-37.04,-58.23,-74.63,-44.39,-48.64,0,0,0,0,0,0,0,0,0,0,0,0,0,0,0,0,
734,-261.1,-296.2,-17.47,-164.0,-154.7,-190.1,9.506,-53.13,-64.4,-88.73,-36.4,-53.41,-70.14,-91.1,-52.4,-56.74,0,0,0,0,0,0,0,0,0,0,0,0,0,0,0,0,
735,-274.6,-318.4,-47.86,-221.2,-173.0,-222.1,-14.38,-91.78,-92.28,-119.9,-55.39,-84.04,-91.01,-118.9,-57.24,-78.76,0,0,0,0,0,0,0,0,0,0,0,0,0,0,0,0,
736,-253.0,-299.1,-38.89,-214.2,-154.6,-211.3,-0.2832,-99.75,-103.7,-138.0,-35.24,-75.62,-76.02,-107.6,-32.5,-65.03,0,0,0,0,0,0,0,0,0,0,0,0,0,0,0,0,
737,-211.2,-253.2,-5.227,-186.2,-120.0,-175.1,22.47,-98.4,-74.54,-119.6,-9.881,-54.18,-58.68,-79.27,-22.23,-40.23,0,0,0,0,0,0,0,0,0,0,0,0,0,0,0,0,
738,-197.1,-232.1,-7.939,-198.1,-119.7,-163.6,7.199,-109.9,-63.27,-97.25,-31.27,-52.96,-78.52,-74.68,-51.85,-46.79,0,0,0,0,0,0,0,0,0,0,0,0,0,0,0,0,
739,-205.0,-231.7,-39.05,-202.0,-137.0,-170.5,-14.97,-95.26,-85.17,-94.6,-51.68,-51.71,-93.27,-77.16,-67.51,-55.86,0,0,0,0,0,0,0,0,0,0,0,0,0,0,0,0,
740,-193.5,-213.6,-46.55,-160.7,-129.3,-157.7,-13.44,-54.13,-88.28,-97.64,-34.6,-39.94,-71.98,-63.1,-52.91,-45.97,0,0,0,0,0,0,0,0,0,0,0,0,0,0,0,0,
741,-171.1,-185.3,-41.88,-117.4,-109.5,-127.7,-10.74,-26.49,-63.43,-82.2,-19.21,-23.54,-45.55,-39.84,-37.77,-32.61,0,0,0,0,0,0,0,0,0,0,0,0,0,0,0,0,
742,-175.8,-182.7,-55.27,-105.2,-112.8,-123.5,-20.26,-21.85,-53.93,-59.57,-31.43,-16.82,-50.89,-36.11,-39.6,-32.63,0,0,0,0,0,0,0,0,0,0,0,0,0,0,0,0,
743,-187.8,-194.2,-58.22,-113.3,-121.1,-146.5,-25.87,-29.29,-75.88,-66.24,-50.14,-27.46,-80.5,-55.22,-55.2,-42.53,0,0,0,0,0,0,0,0,0,0,0,0,0,0,0,0,
744,-158.5,-178.1,-28.67,-115.0,-101.2,-145.3,-20.26,-36.68,-91.98,-88.9,-48.45,-32.51,-90.72,-64.46,-55.85,-41.58,0,0,0,0,0,0,0,0,0,0,0,0,0,0,0,0,
745,-111.3,-135.8,-0.3368,-97.65,-71.73,-110.7,-9.041,-37.74,-77.13,-88.71,-32.32,-31.29,-69.71,-58.23,-35.33,-35.94,0,0,0,0,0,0,0,0,0,0,0,0,0,0,0,0,
746,-85.58,-95.54,15.65,-76.82,-48.21,-75.64,11.61,-30.4,-46.76,-67.6,-13.2,-31.67,-37.95,-43.56,-13.38,-30.78,0,0,0,0,0,0,0,0,0,0,0,0,0,0,0,0,
747,-65.06,-67.04,29.62,-57.61,-25.99,-49.93,28.44,-17.87,-14.15,-39.43,6.973,-14.75,-9.508,-18.4,1.69,-13.09,0,0,0,0,0,0,0,0,0,0,0,0,0,0,0,0,
748,-59.88,-61.65,7.992,-49.4,-33.68,-47.08,10.43,-23.37,1.215,-18.14,5.46,-3.936,-2.501,-7.176,0.7096,-1.272,0,0,0,0,0,0,0,0,0,0,0,0,0,0,0,0,
749,-86.51,-80.18,-40.45,-76.54,-65.2,-70.3,-21.9,-43.97,-14.78,-20.44,-9.214,-18.95,-7.601,-8.439,1.898,5.671,0,0,0,0,0,0,0,0,0,0,0,0,0,0,0,0,
750,-86.69,-77.81,-39.37,-84.31,-56.64,-67.35,-14.55,-36.62,-22.92,-28.1,7.074,-11.92,8.631,10.68,26.23,32.57,0,0,0,0,0,0,0,0,0,0,0,0,0,0,0,0,
751,-40.02,-38.67,7.242,-44.31,-10.75,-26.44,26.31,-12.89,5.898,-14.99,35.35,13.86,28.04,28.68,37.16,46.44,0,0,0,0,0,0,0,0,0,0,0,0,0,0,0,0,
752,-19.95,-25.71,21.3,-55.75,1.238,-19.17,40.72,-23.22,29.0,-0.151,26.81,3.447,12.66,10.13,14.45,19.15,0,0,0,0,0,0,0,0,0,0,0,0,0,0,0,0,
753,-46.67,-53.35,-8.545,-88.53,-34.18,-54.31,10.09,-43.73,4.423,-11.98,-13.9,-23.2,-29.41,-28.67,-21.18,-17.26,0,0,0,0,0,0,0,0,0,0,0,0,0,0,0,0,
754,-66.77,-63.22,-38.97,-49.57,-70.49,-74.61,-23.48,-29.7,-45.94,-39.24,-53.44,-23.92,-66.61,-54.74,-52.1,-32.28,0,0,0,0,0,0,0,0,0,0,0,0,0,0,0,0,
755,-85.38,-73.36,-65.66,-58.81,-93.26,-91.56,-40.09,-9.938,-76.43,-59.86,-63.93,-14.48,-72.27,-52.23,-50.72,-21.2,0,0,0,0,0,0,0,0,0,0,0,0,0,0,0,0,
756,-117.0,-106.3,-82.96,-129.2,-102.7,-113.4,-43.94,-10.98,-71.05,-67.93,-46.52,-13.0,-51.95,-37.92,-28.93,-7.251,0,0,0,0,0,0,0,0,0,0,0,0,0,0,0,0,
757,-100.0,-93.74,-47.08,-97.64,-76.49,-94.17,-20.01,-8.514,-45.93,-58.26,-31.64,-16.34,-42.64,-38.4,-34.96,-17.09,0,0,0,0,0,0,0,0,0,0,0,0,0,0,0,0,
758,-45.97,-50.93,7.047,-33.04,-36.28,-54.47,6.606,-0.295,-27.45,-36.43,-25.85,-19.3,-45.69,-35.68,-47.56,-27.88,0,0,0,0,0,0,0,0,0,0,0,0,0,0,0,0,
759,-40.82,-45.97,5.741,-37.24,-26.18,-35.58,-2.49,-4.818,-23.17,-12.9,-11.05,-11.34,-32.24,-6.047,-25.99,-9.304,0,0,0,0,0,0,0,0,0,0,0,0,0,0,0,0,
760,-54.33,-40.05,-7.475,-33.97,-31.28,-24.6,-9.267,-9.358,-17.94,9.204,11.81,0.0025,-6.199,19.59,6.427,19.04,0,0,0,0,0,0,0,0,0,0,0,0,0,0,0,0,
761,-31.61,-16.15,13.55,-27.89,-21.24,-15.96,15.41,-2.687,0.7128,12.57,33.99,5.295,22.07,21.91,25.95,33.63,0,0,0,0,0,0,0,0,0,0,0,0,0,0,0,0,
762,-11.32,-10.21,27.0,-34.45,0.1684,-4.798,27.76,-5.37,33.74,9.28,41.12,23.04,43.04,27.24,26.22,33.11,0,0,0,0,0,0,0,0,0,0,0,0,0,0,0,0,
763,-23.39,-16.37,9.883,-22.94,-0.8366,-5.742,-0.2124,-18.99,49.08,28.79,9.835,34.39,21.22,23.59,-5.076,9.482,0,0,0,0,0,0,0,0,0,0,0,0,0,0,0,0,
764,-63.04,-44.33,-32.74,-50.98,-45.95,-54.21,-35.45,-12.04,7.409,21.95,-29.38,6.085,-27.06,-12.66,-36.9,-21.96,0,0,0,0,0,0,0,0,0,0,0,0,0,0,0,0,
765,-93.76,-77.06,-62.88,-86.06,-84.05,-98.94,-35.26,3.807,-46.84,-35.14,-23.87,-16.14,-38.96,-37.01,-29.96,-24.45,0,0,0,0,0,0,0,0,0,0,0,0,0,0,0,0,
766,-75.01,-61.33,-42.53,-55.9,-77.73,-90.64,-14.37,-14.41,-54.17,-61.56,-7.822,-7.071,-32.6,-29.86,-19.74,-17.13,0,0,0,0,0,0,0,0,0,0,0,0,0,0,0,0,
767,-55.11,-39.69,-28.92,-51.21,-73.5,-81.16,-12.92,-42.98,-50.09,-47.15,-22.05,-15.56,-50.54,-37.3,-34.27,-27.51,0,0,0,0,0,0,0,0,0,0,0,0,0,0,0,0,
768,-62.85,-45.12,-41.53,-72.54,-75.73,-76.17,-10.19,-41.98,-58.98,-51.92,-23.58,-32.95,-56.04,-52.51,-30.87,-23.67,0,0,0,0,0,0,0,0,0,0,0,0,0,0,0,0,
769,-38.02,-17.28,-16.69,-21.48,-43.86,-38.69,19.35,-36.32,-44.0,-52.94,4.551,-25.45,-30.27,-40.14,-5.164,-6.351,0,0,0,0,0,0,0,0,0,0,0,0,0,0,0,0,
770,-1.226,20.75,10.18,4.644,-16.47,-16.5,29.48,-48.3,-21.48,-32.9,15.1,-25.32,-21.77,-29.97,-4.205,-13.83,0,0,0,0,0,0,0,0,0,0,0,0,0,0,0,0,
771,-16.46,4.34,-9.637,-67.41,-28.84,-38.0,-0.963,-58.72,-32.56,-37.63,-1.732,-33.03,-33.14,-32.57,-15.1,-19.3,0,0,0,0,0,0,0,0,0,0,0,0,0,0,0,0,
772,-30.62,-6.793,-12.59,-90.4,-20.74,-38.35,-9.072,-45.78,-35.04,-41.43,-0.2148,-6.888,-8.369,-2.05,5.333,11.73,0,0,0,0,0,0,0,0,0,0,0,0,0,0,0,0,
773,2.018,23.91,13.68,-34.06,20.04,-8.322,18.33,-15.0,12.6,-0.4663,23.59,24.98,35.97,39.47,26.72,36.77,0,0,0,0,0,0,0,0,0,0,0,0,0,0,0,0,
774,17.9,22.97,6.399,-34.51,18.74,-10.7,9.033,-1.222,43.15,23.83,4.676,19.17,24.65,29.39,3.232,17.65,0,0,0,0,0,0,0,0,0,0,0,0,0,0,0,0,
775,-2.14,-0.7216,-22.18,-64.39,-16.34,-30.9,-35.09,-10.25,8.098,0.046,-53.11,1.05,-22.75,-5.451,-30.01,-10.94,0,0,0,0,0,0,0,0,0,0,0,0,0,0,0,0,
776,-9.379,11.91,-36.64,-31.47,-29.62,-26.91,-53.35,-14.11,-33.36,-16.44,-70.97,-10.22,-45.6,-26.94,-39.07,-20.14,0,0,0,0,0,0,0,0,0,0,0,0,0,0,0,0,
777,-13.45,16.6,-57.76,-10.82,-41.88,-27.96,-61.69,-11.8,-52.47,-27.75,-57.8,-22.15,-59.28,-50.96,-45.16,-28.87,0,0,0,0,0,0,0,0,0,0,0,0,0,0,0,0,
778,-22.4,5.035,-71.22,-31.04,-49.1,-28.76,-75.76,-7.333,-63.67,-45.2,-51.06,-16.56,-62.24,-50.8,-34.51,-31.57,0,0,0,0,0,0,0,0,0,0,0,0,0,0,0,0,
779,-2.876,34.43,-53.38,-5.247,-25.11,1.054,-69.35,4.184,-48.59,-23.03,-30.23,-5.178,-34.27,-12.55,1.448,-16.14,0,0,0,0,0,0,0,0,0,0,0,0,0,0,0,0,
780,11.94,60.06,-54.54,24.31,-20.61,10.33,-57.83,5.453,-31.0,8.305,-12.53,-20.36,-17.99,-0.3866,14.86,-11.36,0,0,0,0,0,0,0,0,0,0,0,0,0,0,0,0,
781,-10.05,37.59,-73.03,-5.594,-47.26,-22.03,-44.72,-13.45,-41.19,-11.28,-10.31,-28.2,-18.48,-16.68,9.188,-15.7,0,0,0,0,0,0,0,0,0,0,0,0,0,0,0,0,
782,-21.08,21.39,-52.35,-26.52,-53.29,-41.21,-14.32,-34.95,-36.03,-36.4,5.691,-15.91,-1.751,-15.41,9.993,-9.08,0,0,0,0,0,0,0,0,0,0,0,0,0,0,0,0,
783,-10.66,22.77,-28.81,-33.26,-43.7,-42.67,4.454,-45.66,-12.21,-32.44,14.17,-21.45,6.494,-15.86,0.8842,-5.515,0,0,0,0,0,0,0,0,0,0,0,0,0,0,0,0,
784,-0.5705,23.09,-20.87,-50.58,-27.75,-40.11,18.32,-53.54,-4.183,-32.37,13.74,-16.49,5.654,-14.04,6.954,8.22,0,0,0,0,0,0,0,0,0,0,0,0,0,0,0,0,
785,28.17,49.93,20.44,-19.29,10.2,-13.81,54.63,-59.87,14.6,-26.61,39.53,9.861,29.66,18.1,43.17,39.29,0,0,0,0,0,0,0,0,0,0,0,0,0,0,0,0,
786,63.45,85.84,52.62,10.89,37.4,11.64,70.07,-45.59,46.97,-3.948,54.77,3.532,49.71,37.75,59.33,47.05,0,0,0,0,0,0,0,0,0,0,0,0,0,0,0,0,
787,74.28,89.83,38.65,-29.22,36.7,11.84,55.33,-20.37,56.91,4.106,42.75,-4.372,49.97,31.3,51.41,38.86,0,0,0,0,0,0,0,0,0,0,0,0,0,0,0,0,
788,82.09,89.82,40.44,-38.41,43.07,23.14,53.88,-9.876,63.95,12.28,41.58,16.3,52.97,32.9,39.58,35.74,0,0,0,0,0,0,0,0,0,0,0,0,0,0,0,0,
789,88.19,95.07,48.9,3.472,44.37,38.33,40.03,-3.46,68.66,31.57,27.17,1.843,36.34,20.45,13.39,14.46,0,0,0,0,0,0,0,0,0,0,0,0,0,0,0,0,
790,67.43,79.86,19.55,10.65,17.69,25.48,2.224,2.224,33.76,23.77,-4.802,-25.17,2.969,-3.473,-4.081,-3.611,0,0,0,0,0,0,0,0,0,0,0,0,0,0,0,0,
791,45.92,69.51,-5.455,7.279,-2.391,13.14,-8.494,-3.485,-1.48,12.25,-6.183,-8.641,-7.985,-4.049,-6.281,-1.026,0,0,0,0,0,0,0,0,0,0,0,0,0,0,0,0,
792,29.43,62.12,-22.2,1.39,-23.77,-6.485,-14.17,-3.595,-11.64,12.16,-8.623,-5.712,-22.08,-18.46,-31.42,-18.24,0,0,0,0,0,0,0,0,0,0,0,0,0,0,0,0,
793,-4.662,33.22,-60.37,-23.95,-68.44,-50.43,-43.85,7.465,-43.85,-28.23,-33.78,-24.13,-49.05,-49.14,-55.19,-34.23,0,0,0,0,0,0,0,0,0,0,0,0,0,0,0,0,
794,-13.17,31.7,-75.2,-16.78,-81.05,-60.04,-50.16,9.633,-71.26,-68.79,-31.08,-15.04,-51.88,-44.34,-43.21,-16.5,0,0,0,0,0,0,0,0,0,0,0,0,0,0,0,0,
795,9.118,55.08,-65.96,-5.777,-60.98,-43.18,-46.39,-1.622,-62.35,-56.45,-29.97,-11.46,-56.25,-30.11,-40.1,-13.63,0,0,0,0,0,0,0,0,0,0,0,0,0,0,0,0,
796,8.12,51.53,-77.46,-18.18,-58.67,-44.97,-69.02,-8.902,-66.68,-41.44,-64.05,-19.12,-72.75,-27.84,-58.39,-30.8,0,0,0,0,0,0,0,0,0,0,0,0,0,0,0,0,
797,13.24,58.14,-70.75,1.518,-44.32,-25.15,-71.91,-2.013,-67.85,-30.25,-63.43,-8.379,-51.75,-11.65,-46.21,-23.97,0,0,0,0,0,0,0,0,0,0,0,0,0,0,0,0,
798,43.2,81.36,-32.23,8.986,-9.396,8.529,-38.45,1.282,-30.53,-7.69,-14.29,-4.467,-2.747,5.926,0.6559,1.295,0,0,0,0,0,0,0,0,0,0,0,0,0,0,0,0,
799,55.94,86.05,-12.43,-11.8,10.35,16.98,-3.482,-5.574,4.274,0.6427,24.57,-1.089,32.12,20.01,35.7,25.96,0,0,0,0,0,0,0,0,0,0,0,0,0,0,0,0,
800,67.33,103.5,-8.597,14.43,24.33,31.15,13.83,-5.305,20.74,10.53,33.32,11.73,35.92,29.63,31.23,31.93,0,0,0,0,0,0,0,0,0,0,0,0,0,0,0,0,
801,82.96,123.6,-8.374,31.53,33.85,47.5,7.094,-0.315,22.7,22.37,18.1,7.527,12.01,22.26,11.16,17.13,0,0,0,0,0,0,0,0,0,0,0,0,0,0,0,0,
802,79.18,115.8,-14.1,9.256,33.88,45.1,-0.1785,2.134,12.81,19.68,3.627,8.036,-2.791,22.81,9.943,11.92,0,0,0,0,0,0,0,0,0,0,0,0,0,0,0,0,
803,74.29,107.7,-13.07,28.75,28.7,38.43,0.5482,-3.833,10.84,16.7,1.539,11.55,-2.028,21.39,10.82,9.222,0,0,0,0,0,0,0,0,0,0,0,0,0,0,0,0,
804,73.58,102.7,-5.945,44.39,16.86,28.2,2.026,-25.13,6.001,3.129,4.242,-0.758,4.229,9.267,15.41,10.9,0,0,0,0,0,0,0,0,0,0,0,0,0,0,0,0,
805,83.49,107.7,20.78,5.747,31.24,29.94,32.07,-31.3,13.85,1.957,31.96,13.41,34.36,30.14,50.43,39.88,0,0,0,0,0,0,0,0,0,0,0,0,0,0,0,0,
806,102.8,126.8,48.0,-15.24,57.21,39.82,51.53,-7.394,44.61,25.22,52.4,25.98,44.3,38.8,63.52,42.39,0,0,0,0,0,0,0,0,0,0,0,0,0,0,0,0,
807,103.9,134.2,32.72,12.75,52.14,39.8,22.0,16.05,37.45,10.03,26.75,1.792,17.9,8.072,40.46,17.85,0,0,0,0,0,0,0,0,0,0,0,0,0,0,0,0,
808,122.5,157.9,35.32,59.57,68.57,63.86,26.45,33.77,26.15,-1.524,22.7,11.17,31.17,20.18,44.09,32.74,0,0,0,0,0,0,0,0,0,0,0,0,0,0,0,0,
809,143.3,173.0,59.98,62.04,90.16,74.98,44.38,39.4,59.23,34.91,33.6,27.94,40.51,30.67,26.84,23.77,0,0,0,0,0,0,0,0,0,0,0,0,0,0,0,0,
810,84.81,112.0,6.601,10.25,33.22,17.05,-18.5,15.4,34.44,15.68,-20.37,-11.59,-24.22,-26.09,-45.64,-39.42,0,0,0,0,0,0,0,0,0,0,0,0,0,0,0,0,
811,31.39,71.5,-55.29,12.73,-19.75,-17.68,-64.59,0.0149,-42.18,-37.98,-66.78,-24.31,-63.54,-47.49,-69.17,-48.85,0,0,0,0,0,0,0,0,0,0,0,0,0,0,0,0,
812,67.96,111.5,-27.51,62.48,3.704,13.49,-21.04,17.78,-43.05,-18.23,-34.84,10.31,-34.88,-14.18,-33.65,-12.4,0,0,0,0,0,0,0,0,0,0,0,0,0,0,0,0,
813,95.07,123.9,0.8062,50.79,18.18,26.29,6.939,24.19,-10.89,10.0,-3.285,10.31,-23.35,-11.93,-20.34,-10.28,0,0,0,0,0,0,0,0,0,0,0,0,0,0,0,0,
814,79.11,107.6,-6.622,24.32,9.775,20.99,-3.221,7.92,-20.97,-1.21,-8.65,-4.954,-29.23,-18.25,-21.75,-18.65,0,0,0,0,0,0,0,0,0,0,0,0,0,0,0,0,
815,84.14,124.9,8.282,44.58,28.9,37.38,0.5994,5.488,-16.89,6.95,-11.06,2.958,-11.35,-2.224,-16.9,-14.84,0,0,0,0,0,0,0,0,0,0,0,0,0,0,0,0,
816,94.7,128.1,21.05,60.0,41.06,49.89,-3.949,13.87,13.78,22.49,-8.59,8.128,7.053,7.307,-17.56,-13.67,0,0,0,0,0,0,0,0,0,0,0,0,0,0,0,0,
817,89.87,110.8,12.37,49.03,32.63,53.26,-10.87,13.64,26.74,23.64,-5.002,17.93,15.86,17.51,-10.74,-5.252,0,0,0,0,0,0,0,0,0,0,0,0,0,0,0,0,
818,98.89,124.1,22.11,40.13,45.11,63.2,12.7,15.47,34.87,36.07,13.82,40.46,31.45,33.89,8.615,10.74,0,0,0,0,0,0,0,0,0,0,0,0,0,0,0,0,
819,112.0,139.2,39.95,48.38,59.27,65.93,25.25,15.34,41.77,41.49,32.48,38.09,38.33,34.85,23.13,19.54,0,0,0,0,0,0,0,0,0,0,0,0,0,0,0,0,
820,106.3,130.4,38.38,46.16,48.76,59.35,11.25,4.413,25.78,28.41,34.3,14.73,28.47,28.36,27.01,21.76,0,0,0,0,0,0,0,0,0,0,0,0,0,0,0,0,
821,116.2,144.0,45.21,38.36,55.35,71.51,18.47,6.41,21.03,32.68,36.43,12.41,31.2,31.03,25.31,25.29,0,0,0,0,0,0,0,0,0,0,0,0,0,0,0,0,
822,155.1,189.4,62.68,98.4,87.75,111.0,35.29,21.51,50.3,54.12,40.67,24.11,46.14,38.73,21.97,30.63,0,0,0,0,0,0,0,0,0,0,0,0,0,0,0,0,
823,172.0,213.4,58.6,159.6,101.3,137.5,32.57,26.94,70.42,67.12,34.65,25.23,47.82,45.83,22.81,31.71,0,0,0,0,0,0,0,0,0,0,0,0,0,0,0,0,
824,151.9,189.6,54.57,99.72,90.5,116.8,35.0,32.83,68.01,69.16,31.05,24.15,43.45,43.64,25.36,24.39,0,0,0,0,0,0,0,0,0,0,0,0,0,0,0,0,
825,124.3,149.3,58.1,38.33,72.39,82.85,35.97,48.07,61.08,59.81,27.71,26.22,35.1,28.61,14.07,13.14,0,0,0,0,0,0,0,0,0,0,0,0,0,0,0,0,
826,103.6,132.0,36.36,72.79,53.61,75.56,14.55,55.45,42.65,45.47,13.32,24.62,13.49,15.97,-2.304,9.253,0,0,0,0,0,0,0,0,0,0,0,0,0,0,0,0,
827,95.85,133.0,12.55,81.8,42.54,71.48,-3.283,44.89,20.06,36.95,4.243,16.65,-1.308,6.856,-4.395,8.019,0,0,0,0,0,0,0,0,0,0,0,0,0,0,0,0,
828,86.48,122.3,1.756,56.43,30.36,50.82,-13.31,29.11,7.735,26.96,-4.665,2.79,-6.252,-10.79,-13.14,-9.451,0,0,0,0,0,0,0,0,0,0,0,0,0,0,0,0,
829,65.05,103.0,-22.8,65.52,8.478,28.95,-31.44,21.44,-9.264,9.94,-31.49,-13.39,-26.27,-29.86,-42.18,-36.16,0,0,0,0,0,0,0,0,0,0,0,0,0,0,0,0,
830,51.38,89.77,-38.56,51.79,-7.622,9.302,-41.18,11.76,-34.24,-11.72,-51.48,-28.54,-46.27,-36.43,-56.53,-43.55,0,0,0,0,0,0,0,0,0,0,0,0,0,0,0,0,
831,55.38,91.95,-19.1,28.97,-1.037,9.902,-31.46,6.206,-36.35,-19.06,-38.4,-24.06,-29.98,-19.15,-33.74,-20.87,0,0,0,0,0,0,0,0,0,0,0,0,0,0,0,0,
832,80.34,116.8,12.86,49.86,25.69,41.32,-18.22,18.95,-2.006,8.407,-12.9,2.885,1.764,9.235,-4.461,6.954,0,0,0,0,0,0,0,0,0,0,0,0,0,0,0,0,
833,106.2,130.4,26.19,54.98,45.26,59.75,-16.09,17.78,25.55,34.3,-7.716,6.604,4.864,14.18,-0.1849,12.81,0,0,0,0,0,0,0,0,0,0,0,0,0,0,0,0,
834,98.87,115.3,18.21,51.81,46.79,60.19,-13.36,4.043,18.85,34.64,-12.15,-13.45,-0.185,10.88,0.5844,13.38,0,0,0,0,0,0,0,0,0,0,0,0,0,0,0,0,
835,90.08,113.6,24.27,66.66,50.1,69.34,8.841,17.33,19.53,44.6,3.165,-13.12,17.75,23.84,15.46,19.3,0,0,0,0,0,0,0,0,0,0,0,0,0,0,0,0,
836,102.7,121.1,43.72,44.87,53.62,64.77,31.87,29.3,39.09,52.7,24.67,-2.606,31.49,25.6,22.79,16.36,0,0,0,0,0,0,0,0,0,0,0,0,0,0,0,0,
837,97.39,106.6,39.68,30.93,50.28,53.32,33.27,21.39,43.26,37.92,28.12,4.062,28.23,16.0,24.4,22.23,0,0,0,0,0,0,0,0,0,0,0,0,0,0,0,0,
838,82.59,96.68,29.01,55.52,50.64,61.09,25.47,19.36,38.42,32.0,22.07,11.41,25.01,12.87,25.34,33.31,0,0,0,0,0,0,0,0,0,0,0,0,0,0,0,0,
839,88.77,107.1,31.69,52.37,53.28,64.71,22.73,6.343,37.76,31.67,21.12,12.39,22.36,9.402,19.84,27.11,0,0,0,0,0,0,0,0,0,0,0,0,0,0,0,0,
840,96.95,115.3,31.05,53.65,51.52,59.6,22.26,-11.77,32.75,24.97,20.84,15.05,23.84,15.71,26.08,26.21,0,0,0,0,0,0,0,0,0,0,0,0,0,0,0,0,
841,86.12,103.0,20.26,48.44,34.97,48.02,9.155,-5.983,19.39,24.31,6.278,-0.6713,21.69,16.78,26.51,17.92,0,0,0,0,0,0,0,0,0,0,0,0,0,0,0,0,
842,69.34,81.31,7.877,-20.51,18.57,31.08,-5.33,-4.07,-0.5536,15.6,0.6235,-26.1,14.4,6.361,13.35,-1.426,0,0,0,0,0,0,0,0,0,0,0,0,0,0,0,0,
843,84.13,98.36,21.74,-25.36,50.06,54.33,18.4,-6.089,10.32,18.81,35.41,13.67,33.61,37.74,32.61,28.14,0,0,0,0,0,0,0,0,0,0,0,0,0,0,0,0,
844,114.2,134.6,40.89,51.18,87.93,84.78,44.43,12.7,56.62,52.14,49.87,53.5,43.44,64.95,37.96,52.4,0,0,0,0,0,0,0,0,0,0,0,0,0,0,0,0,
845,85.17,101.3,-2.996,37.03,48.12,38.26,6.552,17.23,48.13,42.3,-3.714,-8.014,-10.06,4.067,-21.99,-5.199,0,0,0,0,0,0,0,0,0,0,0,0,0,0,0,0,
846,20.25,31.47,-63.44,-18.77,-15.44,-23.02,-41.29,-2.039,-22.95,-22.77,-40.13,-59.23,-51.23,-55.93,-52.92,-46.09,0,0,0,0,0,0,0,0,0,0,0,0,0,0,0,0,
847,11.15,27.16,-56.31,2.613,-21.25,-15.5,-31.96,-4.918,-47.45,-46.25,-10.62,-27.2,-18.62,-35.56,-18.52,-16.24,0,0,0,0,0,0,0,0,0,0,0,0,0,0,0,0,
848,51.58,69.64,-22.5,35.25,4.951,18.67,-5.012,11.88,-10.29,-10.15,19.74,-2.212,22.69,-2.758,6.706,5.282,0,0,0,0,0,0,0,0,0,0,0,0,0,0,0,0,
849,87.5,105.5,-5.698,62.63,35.94,51.5,7.401,34.7,27.21,27.88,27.15,8.795,37.53,16.85,18.82,14.08,0,0,0,0,0,0,0,0,0,0,0,0,0,0,0,0,
850,103.7,134.7,6.462,100.4,61.03,83.46,9.316,55.99,49.43,50.39,30.33,31.66,40.8,40.41,31.48,34.96,0,0,0,0,0,0,0,0,0,0,0,0,0,0,0,0,
851,93.35,135.3,2.253,77.27,49.55,75.69,-11.82,56.01,39.35,49.95,12.91,23.12,17.14,30.64,16.82,28.37,0,0,0,0,0,0,0,0,0,0,0,0,0,0,0,0,
852,69.71,104.6,-13.45,42.87,20.75,45.82,-35.66,36.13,-3.096,22.26,-14.58,-3.414,-15.17,-6.309,-4.034,3.783,0,0,0,0,0,0,0,0,0,0,0,0,0,0,0,0,
