%OpenBCI Raw EXG Data
%Number of channels = 16
%Sample Rate = 125 Hz
%Board = OpenBCI_GUI$BoardCytonSerialDaisy
Sample Index,EXG Channel 0,EXG Channel 1,EXG Channel 2,EXG Channel 3,EXG Channel 4,EXG Channel 5,EXG Channel 6,EXG Channel 7,EXG Channel 8,EXG Channel 9,EXG Channel 10,EXG Channel 11,EXG Channel 12,EXG Channel 13,EXG Channel 14,EXG Channel 15,Accel Channel 0,Accel Channel 1,Accel Channel 2,Other,Other,Other,Other,Other,Other,Other,Analog Channel 0,Analog Channel 1,Analog Channel 2,Timestamp,Other,Timestamp (Formatted),Annotations
1,-0,0,-0,0,0,0,-0,0,0,0,0,-0,-0,0,0,0,0,0,0,0,0,0,0,0,0,0,0,0,0,0,0,0,T0
2,-86.51,-101,-75.85,-74.53,-136.3,-51.54,-35.72,-77.07,-42.57,-19.4,-14.56,-11.87,5.837,7.048,71.84,75.82,0,0,0,0,0,0,0,0,0,0,0,0,0,0,0,0,
3,-52.98,-73.39,-67.95,-37.39,-114.7,-29.24,-24.76,-6.501,-35.2,-34.16,-6.375,-11.5,-9.889,-14.71,50.73,27.28,0,0,0,0,0,0,0,0,0,0,0,0,0,0,0,0,
4,-59.15,-76.56,-80.83,-37.53,-95.55,-15.42,-24.27,33.76,-35.95,-31.69,-1.97,-6.711,-32.9,-41.81,18.17,-26.58,0,0,0,0,0,0,0,0,0,0,0,0,0,0,0,0,
5,-67.96,-87.14,-95.61,-68.15,-87.7,-3.227,-13.27,-2.799,-24.51,-16.6,21.85,29.64,-13.48,-33.43,48.71,0.1588,0,0,0,0,0,0,0,0,0,0,0,0,0,0,0,0,
6,-15.54,-37.89,-70.8,-63.13,-74.35,10.08,-0.8079,-16.46,-8.237,-37.39,35.04,54.92,0.8087,-28.65,72.82,16.98,0,0,0,0,0,0,0,0,0,0,0,0,0,0,0,0,
7,-23.78,-26.92,-90,-83.09,-111.8,-8.688,-21.88,-25.13,-30.81,-38.73,0.5503,32.64,-9.716,-26.2,49.42,18.49,0,0,0,0,0,0,0,0,0,0,0,0,0,0,0,0,
8,-49.64,-19.8,-133.9,-97.58,-107.4,-9.659,-18.04,-45.63,-45.71,8.739,-31.89,18.86,12.65,8.251,18.31,38.24,0,0,0,0,0,0,0,0,0,0,0,0,0,0,0,0,
9,-33.27,8.593,-135.2,-91.78,-86.65,-9.631,-6.039,-61.6,-43.46,3.548,-36.77,25.92,30.26,14.71,24,23.99,0,0,0,0,0,0,0,0,0,0,0,0,0,0,0,0,
10,-19.16,4.845,-110.9,-101.3,-105.7,-18.48,-23.22,-67,-37.19,-8.097,-14.84,35.83,22.37,-5.286,61.48,-1.409,0,0,0,0,0,0,0,0,0,0,0,0,0,0,0,0,
11,10.72,7.279,-97,-92.99,-89.9,0.0382,-33.68,-67.12,-28.06,5.157,-9.158,31.46,17.12,2.783,49.96,0.8909,0,0,0,0,0,0,0,0,0,0,0,0,0,0,0,0,
12,7.915,-0.2046,-106.4,-84.06,-94.22,-13.4,-40.49,-73.28,-35.67,-37.55,-35.15,15.22,2.833,13.99,18.36,6.688,0,0,0,0,0,0,0,0,0,0,0,0,0,0,0,0,
13,-42.4,-30.96,-105.7,-89.12,-130.4,-59.87,-44.98,-61.32,-35.32,-49.42,-23.2,23.31,-9.351,9.451,45.22,3.868,0,0,0,0,0,0,0,0,0,0,0,0,0,0,0,0,
14,-52.8,-41.3,-95.85,-83.65,-118.1,-84.07,-51.65,-46.34,-36.79,-15.87,-14.37,17.86,-28.55,-7.469,47.67,-18.12,0,0,0,0,0,0,0,0,0,0,0,0,0,0,0,0,
15,-63.24,-68.78,-122.4,-104.8,-126.5,-109.5,-77.23,-62.57,-56.74,-31.76,-38.22,-7.082,-50.97,-20.75,27.47,-18.16,0,0,0,0,0,0,0,0,0,0,0,0,0,0,0,0,
16,-98.76,-97.64,-142.5,-137.1,-160.9,-130.5,-88.66,-85.67,-52.28,-36.4,-21.17,7.019,-42.87,-24.16,47.55,6.754,0,0,0,0,0,0,0,0,0,0,0,0,0,0,0,0,
17,-102.5,-95.63,-123.2,-131.5,-145.4,-125.6,-85.64,-117.5,-51.97,-28.99,-22.53,14.3,-46,-45.35,29.14,-16.34,0,0,0,0,0,0,0,0,0,0,0,0,0,0,0,0,
18,-98.38,-103.2,-127.4,-120.7,-143,-111,-77.45,-136.5,-79.5,-47.48,-67.25,-6.618,-57.56,-50.08,4.699,-27.26,0,0,0,0,0,0,0,0,0,0,0,0,0,0,0,0,
19,-92.65,-84.62,-151.3,-119.5,-179.6,-91.75,-52.4,-77.84,-85.56,-41.81,-57.54,-7.072,-40.72,-27.35,34.33,5.391,0,0,0,0,0,0,0,0,0,0,0,0,0,0,0,0,
20,-81.35,-50.49,-136.9,-121.9,-163.2,-73.89,-44.75,-14.63,-66.77,-34.76,-17.54,-0.3846,-35.77,-27.06,32,-7.333,0,0,0,0,0,0,0,0,0,0,0,0,0,0,0,0,
21,-94.82,-61.97,-126.1,-134.6,-121.6,-66.75,-50.93,-46.74,-51.92,-34.49,-17.55,-5.648,-39.93,-21.44,7.092,-23.74,0,0,0,0,0,0,0,0,0,0,0,0,0,0,0,0,
22,-107.8,-66.46,-162.3,-126.2,-159.2,-82.65,-51.71,-79.73,-67.69,-37.85,-59.09,-32.28,-42.7,-6.319,-0.7561,-10.54,0,0,0,0,0,0,0,0,0,0,0,0,0,0,0,0,
23,-117.5,-70.01,-171.9,-101.8,-190.5,-107.8,-75.02,-44.89,-95.81,-70.46,-97.22,-68.97,-71.44,-23.35,-25.61,-31.24,0,0,0,0,0,0,0,0,0,0,0,0,0,0,0,0,
24,-145.4,-112.7,-129.9,-110.2,-135.5,-111.6,-91.49,-68.98,-92.21,-59.09,-91.14,-82.52,-99.1,-42.79,-42.61,-58.27,0,0,0,0,0,0,0,0,0,0,0,0,0,0,0,0,
25,-157.5,-124.8,-108.3,-116,-127.5,-113.2,-74.64,-132.4,-85.02,-17.27,-80.8,-82.72,-103,-40.49,-28.6,-53.18,0,0,0,0,0,0,0,0,0,0,0,0,0,0,0,0,
26,-138.7,-105.2,-110,-88.81,-167.4,-108.2,-77.87,-87.66,-88.77,-42,-82.16,-60.82,-90.2,-26.35,-7.799,-35.28,0,0,0,0,0,0,0,0,0,0,0,0,0,0,0,0,
27,-120.3,-116.3,-118.3,-101.5,-152.7,-83.43,-112.7,-53.36,-91.45,-74.88,-75.37,-21.8,-67.36,-12.41,0.8611,-18.21,0,0,0,0,0,0,0,0,0,0,0,0,0,0,0,0,
28,-116.1,-127.8,-146.5,-142.1,-153.5,-81.5,-123.8,-105.4,-98.09,-61,-74.5,-4.148,-43.46,-5.097,12.03,-5.664,0,0,0,0,0,0,0,0,0,0,0,0,0,0,0,0,
29,-96.54,-101.3,-161.4,-135.8,-160.7,-94.87,-98.75,-94.24,-74.41,-42.1,-56.81,13.18,-17.67,8.851,37.91,7.234,0,0,0,0,0,0,0,0,0,0,0,0,0,0,0,0,
30,-69,-74.9,-153.2,-138.9,-114.8,-97.02,-85.22,-81.17,-48.44,-38.71,-38.35,20.95,-9.185,16.58,27.5,7.184,0,0,0,0,0,0,0,0,0,0,0,0,0,0,0,0,
31,-71.05,-68.25,-137.5,-155.7,-97.86,-91.18,-91.04,-132.7,-64.64,-42.26,-55.29,2.817,-17.43,13.49,0.4919,-2.279,0,0,0,0,0,0,0,0,0,0,0,0,0,0,0,0,
32,-62.24,-51.02,-119,-116.7,-105.8,-65.6,-82.28,-113.1,-60.82,-28.41,-49.2,8.13,-12.35,16.27,23.82,3.365,0,0,0,0,0,0,0,0,0,0,0,0,0,0,0,0,
33,-37.85,-41.82,-116.5,-102.8,-94.63,-48.57,-54.71,-63.4,-33.73,-10.9,-21.94,21.94,-2.393,15.5,35.88,11.14,0,0,0,0,0,0,0,0,0,0,0,0,0,0,0,0,
34,-42.6,-46.34,-98.26,-128.6,-98.14,-45.75,-17.7,-79.58,-32.21,-13.66,-30.54,19.82,5.57,14.85,15.31,16.98,0,0,0,0,0,0,0,0,0,0,0,0,0,0,0,0,
35,-30.19,-15.93,-86.8,-101.5,-98.71,-21.26,-2.368,-101.1,-40.66,-14.05,-36.67,37.58,11.78,9.949,38.58,27.2,0,0,0,0,0,0,0,0,0,0,0,0,0,0,0,0,
36,-4.543,4.428,-143.7,-82.5,-94.56,-9.974,-22.49,-82.8,-47.99,-24.61,-13.34,63.76,12.3,0.62,75.58,28.46,0,0,0,0,0,0,0,0,0,0,0,0,0,0,0,0,
37,-20.09,-21.36,-152.8,-98.23,-99.31,-24.53,-22.25,-47.01,-50.28,-36.6,-13.9,54.39,13.61,10.52,49.15,19.39,0,0,0,0,0,0,0,0,0,0,0,0,0,0,0,0,
38,-40.89,-24.45,-74.21,-76.92,-87.98,-29.38,1.018,-50,-46.45,0.9757,-43.06,12.96,1.75,11.62,-0.5522,11.11,0,0,0,0,0,0,0,0,0,0,0,0,0,0,0,0,
39,-50.15,-13.77,-53.75,-58.39,-84.22,-30.99,-7.188,-56.95,-44.65,14.03,-38.72,-7.289,-11.49,2.142,3.148,20,0,0,0,0,0,0,0,0,0,0,0,0,0,0,0,0,
40,-50.37,-36.15,-73.47,-75.23,-90.66,-36.43,-47.08,-28.9,-47.11,-60.02,-28.69,-7.822,-19.55,4.912,9.102,17.63,0,0,0,0,0,0,0,0,0,0,0,0,0,0,0,0,
41,-39.04,-64.99,-72.46,-99.66,-72.88,-43.18,-77.69,-71.77,-57.25,-85.58,-61.35,-32.52,-43.61,-13.7,-32.89,-26.73,0,0,0,0,0,0,0,0,0,0,0,0,0,0,0,0,
42,-47.92,-73.05,-107.9,-128,-64.1,-35.49,-58.92,-126.5,-41.62,-13.77,-55.83,-27.92,-41.51,-29.52,-32.46,-48.68,0,0,0,0,0,0,0,0,0,0,0,0,0,0,0,0,
43,-48.02,-58.75,-143.2,-129.9,-98.99,-10.97,-34.71,-82.4,-13.94,2.947,-10.19,18.29,-16.64,-11.94,28.26,-17.55,0,0,0,0,0,0,0,0,0,0,0,0,0,0,0,0,
44,-26.6,-45.98,-137,-109.3,-133.8,-20.63,-65.43,-75.16,-31.94,-30.46,-4.421,27.19,-16.46,5.463,65.61,17.12,0,0,0,0,0,0,0,0,0,0,0,0,0,0,0,0,
45,-34.86,-45.52,-150.9,-121.7,-123.7,-61.76,-90.49,-108.3,-47.65,-9.343,-0.0576,8.235,-14.28,19.06,47.9,19.8,0,0,0,0,0,0,0,0,0,0,0,0,0,0,0,0,
46,-53.22,-44.05,-177.5,-140.4,-111.7,-88.38,-82.39,-91.51,-44.53,-13.18,-6.363,-25.58,-27,12.83,-22.59,-28.09,0,0,0,0,0,0,0,0,0,0,0,0,0,0,0,0,
47,-61.86,-55.8,-167.1,-105.8,-123.4,-101.1,-75.97,-109.8,-66.19,-49.19,-56.79,-72.96,-55.51,-7.072,-75.53,-73.15,0,0,0,0,0,0,0,0,0,0,0,0,0,0,0,0,
48,-74.97,-68.38,-141.6,-77.05,-106.7,-102.2,-64.74,-124.4,-65.96,-28.46,-67.09,-68.17,-40.89,0.9045,-64.1,-68.5,0,0,0,0,0,0,0,0,0,0,0,0,0,0,0,0,
49,-72.45,-61.29,-134.5,-126,-86.4,-95.23,-75.38,-71.34,-44.44,-30.01,-39.03,-23.72,-24.12,4.934,-47.21,-63.08,0,0,0,0,0,0,0,0,0,0,0,0,0,0,0,0,
50,-64.44,-57.89,-168,-167.5,-111.6,-88.32,-95.28,-70.34,-54.11,-49.67,-43.83,-0.0817,-24.16,1.869,-29.15,-47.44,0,0,0,0,0,0,0,0,0,0,0,0,0,0,0,0,
51,-65.01,-48.75,-226.8,-138.8,-137,-82.9,-77.87,-99.56,-70.35,1.332,-67.17,2.331,-5.929,17.39,-6.141,-6.22,0,0,0,0,0,0,0,0,0,0,0,0,0,0,0,0,
52,-48.41,-16.82,-199,-106,-128.8,-83.97,-60.72,-54.85,-72.43,16.86,-73.28,5.309,-1.013,14.71,-1.964,-2.499,0,0,0,0,0,0,0,0,0,0,0,0,0,0,0,0,
53,-25.64,2.92,-109.6,-85.72,-101.8,-74.04,-42.01,-20.5,-61.38,-33.54,-53.57,27.16,-8.071,-1.462,11.11,-24.79,0,0,0,0,0,0,0,0,0,0,0,0,0,0,0,0,
54,-26.64,-22.2,-153,-84.86,-98.81,-55.56,-16.83,-43.61,-48.45,-44.26,-42.02,35.97,-21.31,-13.26,20.08,-35.02,0,0,0,0,0,0,0,0,0,0,0,0,0,0,0,0,
55,-31.59,-59.19,-231.2,-103.2,-125,-46.62,-30.94,-51.15,-53.96,-36.2,-58.51,4.76,-69.25,-37.96,-2.108,-67.11,0,0,0,0,0,0,0,0,0,0,0,0,0,0,0,0,
56,-27.56,-54.82,-143.1,-72.4,-114.4,-38.2,-42.71,-50.76,-58.69,-31.62,-71.96,-25.9,-110.2,-51.51,-50.96,-117.5,0,0,0,0,0,0,0,0,0,0,0,0,0,0,0,0,
57,-41.31,-46.65,-73.52,-56.8,-96.18,-43.41,-36.4,-43.06,-57.49,-13.39,-74.44,-33.13,-101.4,-36.65,-86.31,-118.4,0,0,0,0,0,0,0,0,0,0,0,0,0,0,0,0,
58,-43.74,-59.14,-122.8,-104.4,-112.8,-49.6,-46.61,-16.47,-61.86,-32.17,-73.54,-22.77,-69.83,-28.18,-48.13,-74.45,0,0,0,0,0,0,0,0,0,0,0,0,0,0,0,0,
59,-13.56,-43.7,-101.1,-91.23,-96.49,-29.02,-37.09,-68.34,-65.41,-72.82,-87.55,-20.23,-55.29,-43.64,-35.03,-60,0,0,0,0,0,0,0,0,0,0,0,0,0,0,0,0,
60,-25.53,-42.21,-56.15,-65.91,-75.32,-19.67,-27.85,-143.1,-71.89,-49.37,-107.2,-35.2,-48.85,-38.13,-85.45,-49.01,0,0,0,0,0,0,0,0,0,0,0,0,0,0,0,0,
61,-62.07,-71.81,-125.9,-121.7,-105.4,-26.54,-63.04,-92,-74.39,9.202,-86.14,-23.76,-24.15,-3.414,-42.84,-13.17,0,0,0,0,0,0,0,0,0,0,0,0,0,0,0,0,
62,-44.63,-52.44,-193.3,-125.1,-117.7,-24.49,-86.37,-40.85,-70.81,4.298,-69.2,-4.907,-19.28,-10.13,13.65,-28.77,0,0,0,0,0,0,0,0,0,0,0,0,0,0,0,0,
63,-24.88,-23.07,-152.7,-51.93,-87.6,-24.01,-71.01,-82.1,-67.44,-38.44,-86.49,-19.67,-43.5,-38.39,-31.76,-57.06,0,0,0,0,0,0,0,0,0,0,0,0,0,0,0,0,
64,-29.26,-39.3,-85.7,-48.74,-53.19,-15.93,-48.14,-103.8,-54.46,-39.49,-75.93,-26.11,-43.47,-22.55,-29.89,-24.32,0,0,0,0,0,0,0,0,0,0,0,0,0,0,0,0,
65,-12.92,-41.41,-82.19,-120.2,-33.8,-2.392,-23.53,-97.25,-39.07,-19.19,-50.08,-9.552,-26.19,-4.024,11.76,-6.68,0,0,0,0,0,0,0,0,0,0,0,0,0,0,0,0,
66,6.588,-17.09,-101.3,-140.4,-40.17,4.989,-19.51,-68.36,-24.26,-6.341,-47.81,-7.289,-22.48,-9.289,-31.66,-36.56,0,0,0,0,0,0,0,0,0,0,0,0,0,0,0,0,
67,3.977,-14.38,-88.92,-73.11,-44.11,16.63,-56.11,-12.61,-15.09,-0.2915,-67.72,-29.02,-29.92,-14.62,-87.88,-57.36,0,0,0,0,0,0,0,0,0,0,0,0,0,0,0,0,
68,-14.73,-33.7,-82.04,-26.12,-30.24,17.59,-63.87,-15.09,-19.72,-7.105,-84.13,-30.29,-25.82,-14.29,-69.37,-36.79,0,0,0,0,0,0,0,0,0,0,0,0,0,0,0,0,
69,-18.33,-31.71,-85.61,-50.19,-38.11,2.009,-11.48,-50.89,-5.443,6.616,-43.67,15.6,1.567,-3.301,-11.7,-0.853,0,0,0,0,0,0,0,0,0,0,0,0,0,0,0,0,
70,7.67,-2.5,-71.62,-66.7,-57.01,-6.801,4.309,-29.66,19.31,38.91,-1.46,43.61,17.47,4.481,13.59,-7.916,0,0,0,0,0,0,0,0,0,0,0,0,0,0,0,0,
71,27.08,21.98,-50.19,-45.67,-24.3,14.12,-9.05,37.68,19.51,49.04,-27.69,40.04,22.98,0.9334,8.973,-23.7,0,0,0,0,0,0,0,0,0,0,0,0,0,0,0,0,
72,47.99,43.41,-30.44,-27.16,28.48,55.31,28.99,65.76,19.17,48.43,-43.82,56.37,28.4,-16.15,18.3,-13.73,0,0,0,0,0,0,0,0,0,0,0,0,0,0,0,0,
73,74.78,52.36,-29.29,-27.11,26.17,64.32,47.35,4.718,30.15,42.46,-12.68,63.33,6.542,-39.79,25.11,-17.35,0,0,0,0,0,0,0,0,0,0,0,0,0,0,0,0,
74,64.17,39.98,-43.85,-28.61,13.69,49.01,25.72,-25.41,37.14,30.56,4.273,44.02,-2.263,-29.11,11.9,-16.22,0,0,0,0,0,0,0,0,0,0,0,0,0,0,0,0,
75,38.82,40.07,-53.83,-18.48,22.79,41.99,37.12,27.69,26.49,21.61,-15.06,23.48,11.78,-16.15,-13.5,-20.71,0,0,0,0,0,0,0,0,0,0,0,0,0,0,0,0,
76,29.07,40.39,-62.44,-15.14,-0.4782,23.71,45.82,23.65,7.497,13.59,-34.73,9.584,3.047,-31.52,-22.89,-36.35,0,0,0,0,0,0,0,0,0,0,0,0,0,0,0,0,
77,32.06,36.52,-53.2,-21.3,-16.83,35.72,46.06,-7.577,11.99,29.66,-32.86,19.41,0.971,-25.12,-1.057,-9.887,0,0,0,0,0,0,0,0,0,0,0,0,0,0,0,0,
78,50.54,53.42,-43.1,-21.43,0.261,91.3,62.81,30.49,6.729,49.68,-46.06,25.11,-0.3376,-25.22,-6.151,-14.64,0,0,0,0,0,0,0,0,0,0,0,0,0,0,0,0,
79,49.9,52.37,-62.68,-31.12,-20.28,91.85,42.5,34.4,-21.31,42.84,-60.15,16.74,-17.19,-41.95,-21.94,-56.69,0,0,0,0,0,0,0,0,0,0,0,0,0,0,0,0,
80,28.45,35.85,-65.21,-61.72,-41.95,33.7,14.77,-33.57,-21.53,45.25,-40.19,35.08,-3.416,-27.29,0.88,-26.21,0,0,0,0,0,0,0,0,0,0,0,0,0,0,0,0,
81,28.15,47.44,-45.91,-87.52,-8.453,3.124,36.05,-60.77,-19.01,46.33,-38.83,46.59,11.53,-30.73,-6.047,-7.152,0,0,0,0,0,0,0,0,0,0,0,0,0,0,0,0,
82,36.97,58.38,-45.44,-72.44,2.873,7.842,51.88,-23.68,-28.95,41.56,-51.48,31.18,2.879,-43.79,-36.46,-47.2,0,0,0,0,0,0,0,0,0,0,0,0,0,0,0,0,
83,34.18,51.38,-58.57,-50,-39.55,-2.999,32.97,-18.04,-23.45,57.79,-46.32,22.66,4.914,-15.11,-24.49,-39.71,0,0,0,0,0,0,0,0,0,0,0,0,0,0,0,0,
84,28.59,46.9,-74.55,-80.14,-56.87,-27.14,24.69,-46.82,-19.58,51.84,-57.65,15.3,3.301,-7.969,-15.48,-19.3,0,0,0,0,0,0,0,0,0,0,0,0,0,0,0,0,
85,30.31,41.81,-64.99,-90.71,-27.93,-11.84,32.48,-4.811,-7.912,45.22,-61.2,12.34,-5.345,-24.52,-34.27,-34.89,0,0,0,0,0,0,0,0,0,0,0,0,0,0,0,0,
86,34.92,25.81,-30.3,-35.77,-13.59,12.34,14.46,47.28,-1.627,75.93,-47.53,19.12,-4.838,-17.89,-35.3,-29.71,0,0,0,0,0,0,0,0,0,0,0,0,0,0,0,0,
87,29.5,14.7,-27.47,-33.18,-23.74,-10.37,-11.15,12.64,-32.32,64.23,-56.93,22.47,-0.8789,-19.93,-15.55,-14.44,0,0,0,0,0,0,0,0,0,0,0,0,0,0,0,0,
88,10.26,18.71,-57.85,-97.2,-34.81,-37.52,-13.07,4.901,-52.49,20.27,-66.97,17.1,-1.969,-33.26,-26.11,-28.43,0,0,0,0,0,0,0,0,0,0,0,0,0,0,0,0,
89,-31.77,-5.002,-74.15,-105.2,-59.08,-49.52,-30.48,44.27,-61.16,19.03,-68.63,-7.035,-26.1,-37.28,-46.85,-46.89,0,0,0,0,0,0,0,0,0,0,0,0,0,0,0,0,
90,-66.58,-51.93,-53.52,-48.18,-75.97,-60.33,-50.63,14.63,-83.5,11.45,-77.88,-32.97,-59.56,-46.6,-21.54,-50.77,0,0,0,0,0,0,0,0,0,0,0,0,0,0,0,0,
91,-69.48,-72.76,-41.39,-26.58,-70.46,-51.9,-41.15,-34.96,-82.07,-23.69,-80.19,-50.76,-79.9,-55.89,-30.86,-57.51,0,0,0,0,0,0,0,0,0,0,0,0,0,0,0,0,
92,-102,-96.09,-79.77,-65.27,-72.18,-45.58,-36.94,-29.17,-67.79,-13.77,-68.07,-65.81,-93.85,-50.04,-81.54,-63.22,0,0,0,0,0,0,0,0,0,0,0,0,0,0,0,0,
93,-144.6,-113.1,-100.1,-78.72,-69.32,-52.04,-29.48,-11.2,-70.15,21.6,-64.51,-64.83,-106.9,-54.03,-70.31,-68.26,0,0,0,0,0,0,0,0,0,0,0,0,0,0,0,0,
94,-132.3,-97.27,-92.96,-62.94,-57.94,-37.53,-23.86,-4.073,-71.86,4.498,-95.26,-75.81,-135.5,-80.04,-73.21,-99.48,0,0,0,0,0,0,0,0,0,0,0,0,0,0,0,0,
95,-128.6,-107.3,-113.7,-105,-57.53,-28.94,-52.45,0.1359,-69.88,-16.48,-113.8,-96.59,-153.1,-79.96,-110.9,-120,0,0,0,0,0,0,0,0,0,0,0,0,0,0,0,0,
96,-146.4,-112.7,-105,-157,-61.21,-72.29,-72.14,-15.24,-79.9,5.06,-96.83,-85.29,-121.2,-57.74,-89.54,-97.26,0,0,0,0,0,0,0,0,0,0,0,0,0,0,0,0,
97,-135.3,-76.41,-83.32,-136.5,-81.1,-111,-78.77,-50.05,-92.89,-4.522,-109.5,-76.29,-89.91,-62.96,-72.36,-70.95,0,0,0,0,0,0,0,0,0,0,0,0,0,0,0,0,
98,-126.2,-77.13,-132.7,-108.2,-110.1,-89.67,-89.28,-64.63,-81.2,-26.28,-120.1,-74.86,-82.22,-68.4,-60.33,-49.22,0,0,0,0,0,0,0,0,0,0,0,0,0,0,0,0,
99,-123.8,-94.52,-174.1,-115.5,-114.1,-87.17,-74.2,-47.61,-69.02,-0.3942,-90.43,-56.1,-76.4,-70.76,-22.46,-50.11,0,0,0,0,0,0,0,0,0,0,0,0,0,0,0,0,
100,-105.5,-69.48,-151.1,-114.3,-91.91,-113,-59.45,-47.55,-76.85,-1.666,-84.91,-47.23,-79.74,-90.98,-42.78,-78.45,0,0,0,0,0,0,0,0,0,0,0,0,0,0,0,0,
101,-87.16,-54.4,-133.5,-122.1,-69.98,-75.07,-59.22,-90.66,-60.09,-45.63,-80.82,-30.31,-75.39,-81.71,-41.79,-54.53,0,0,0,0,0,0,0,0,0,0,0,0,0,0,0,0,
102,-77.44,-69.29,-141.6,-148.1,-83.48,-44.81,-53.36,-120.9,-38.57,-52.96,-43.87,1.191,-61.96,-58.14,34.96,-7.259,0,0,0,0,0,0,0,0,0,0,0,0,0,0,0,0,
103,-70.61,-70.93,-141.9,-118.3,-100.8,-69.01,-61.4,-73.82,-47.12,-25.71,-31.65,2.115,-58.91,-63.85,34.79,-23.39,0,0,0,0,0,0,0,0,0,0,0,0,0,0,0,0,
104,-52.17,-51.58,-118,-89.01,-88.61,-52.02,-69.11,-13.17,-50.51,-21.62,-53.53,-16.03,-58.83,-68.65,-18.32,-38.07,0,0,0,0,0,0,0,0,0,0,0,0,0,0,0,0,
105,-37.98,-39.99,-77.66,-150.1,-87.94,-34.66,-49.79,-31.95,-52.84,-54.93,-68.82,-19.91,-64.29,-68.07,9.179,-14.92,0,0,0,0,0,0,0,0,0,0,0,0,0,0,0,0,
106,-43.55,-43.16,-45.13,-151.5,-76.57,-43.25,-26.88,-64.66,-53.65,-62.05,-57.43,-5.743,-62.47,-66.65,41.13,-24.99,0,0,0,0,0,0,0,0,0,0,0,0,0,0,0,0,
107,-38.51,-46.92,-49.55,-48.33,-55.95,-12.69,-23.69,-53.25,-36.7,-21.28,-43.35,0.7841,-47.88,-51.32,-2.01,-45.87,0,0,0,0,0,0,0,0,0,0,0,0,0,0,0,0,
108,-32.16,-51.19,-70.77,-17.33,-73.01,-3.076,-28.25,-42.27,-30.63,-4.913,-43.37,-13.22,-43.41,-37.57,-11.88,-21.56,0,0,0,0,0,0,0,0,0,0,0,0,0,0,0,0,
109,-37.09,-45.25,-51.95,-40.23,-68.2,-31.97,-18.77,-33.02,-34.86,-15.2,-34.68,-16.8,-40.1,-37.66,45.55,-15.16,0,0,0,0,0,0,0,0,0,0,0,0,0,0,0,0,
110,-34.59,-32.3,-28.27,-48.35,-60.71,-41.94,-15.58,-33.47,-49.21,-16.35,-39.56,-20.31,-38.89,-53.02,30.19,-51.73,0,0,0,0,0,0,0,0,0,0,0,0,0,0,0,0,
111,-40.15,-30.14,-38.23,-76.68,-93.87,-40.02,-20.2,-48.22,-69.19,-20.56,-53.75,-35.52,-47.87,-59.94,-49.62,-50.62,0,0,0,0,0,0,0,0,0,0,0,0,0,0,0,0,
112,-51.28,-32.53,-41.47,-80.35,-97.54,-25.72,-8.815,-39.45,-71.52,-23.26,-35.88,-33.48,-56.16,-38.09,-40.68,-26.73,0,0,0,0,0,0,0,0,0,0,0,0,0,0,0,0,
113,-60.7,-57.08,-52.73,-78.15,-113.3,-31.63,-21.56,-50.05,-90.19,-26.34,-29.38,-29.48,-66.16,-19.97,28.62,-22.91,0,0,0,0,0,0,0,0,0,0,0,0,0,0,0,0,
114,-71.69,-83.31,-60.08,-89.04,-132,-56.31,-49.22,-76.47,-97.96,-25.94,-36.56,-26.99,-64.18,-26.41,30.46,-7.038,0,0,0,0,0,0,0,0,0,0,0,0,0,0,0,0,
115,-65.27,-68.06,-35.62,-53.08,-67.71,-29.57,-42.2,-36.52,-55.21,-16.67,-22.63,-17.76,-58.85,-50.74,-9.448,-18.47,0,0,0,0,0,0,0,0,0,0,0,0,0,0,0,0,
116,-74.65,-66.85,-48.04,-53.07,-48.78,-19.46,-40.9,-15.02,-44.9,-39.06,-26.12,-28.96,-65.69,-57.52,6.454,-38.69,0,0,0,0,0,0,0,0,0,0,0,0,0,0,0,0,
117,-105.5,-80.92,-66.13,-95.97,-101.6,-80.66,-56.16,-95.28,-67.41,-74.92,-33.13,-42.19,-57.44,-26.31,42.62,15.08,0,0,0,0,0,0,0,0,0,0,0,0,0,0,0,0,
118,-104.1,-69.46,-62.96,-90.06,-93.71,-114.2,-69.79,-130.5,-63.86,-71.82,-18.89,-33.82,-58.34,-28.63,31.27,35.16,0,0,0,0,0,0,0,0,0,0,0,0,0,0,0,0,
119,-97.16,-88.32,-131,-117.4,-80.83,-93.02,-92.31,-50.43,-64.68,-49.94,-15.31,-15.97,-80.1,-64.16,39.06,-21.29,0,0,0,0,0,0,0,0,0,0,0,0,0,0,0,0,
120,-104.8,-114.2,-164.8,-151.6,-101.7,-80.48,-90.99,-13.83,-69.83,-36.39,-19.32,-8.187,-81.38,-56.67,60.71,-23.77,0,0,0,0,0,0,0,0,0,0,0,0,0,0,0,0,
121,-100.8,-90.8,-67.26,-73.51,-88.6,-93.71,-69.95,-51.1,-67.42,-35.02,-39.34,-39.19,-83.32,-48.17,5.543,-11.22,0,0,0,0,0,0,0,0,0,0,0,0,0,0,0,0,
122,-103,-72.29,-19.66,-14.86,-66.51,-90.86,-58.15,-44,-73.91,-43.31,-76.85,-72.35,-86.28,-61.35,-43.92,-50.35,0,0,0,0,0,0,0,0,0,0,0,0,0,0,0,0,
123,-113.3,-76.47,-70.86,-76.62,-77.15,-67.99,-47.24,-43.34,-76.05,-50.31,-75.18,-56.82,-60.75,-41.26,-2.667,-45.53,0,0,0,0,0,0,0,0,0,0,0,0,0,0,0,0,
124,-107.3,-72.88,-84.25,-118.4,-97.34,-76.66,-57.33,-83.98,-65.91,-45.39,-31.94,-23.27,-35.92,-10.66,51.29,11.43,0,0,0,0,0,0,0,0,0,0,0,0,0,0,0,0,
125,-83.83,-53.74,-75.7,-71.39,-89.49,-87.86,-72.41,-69.76,-52.22,-33.16,-19.05,-12.93,-35.35,-15.11,37.82,9.188,0,0,0,0,0,0,0,0,0,0,0,0,0,0,0,0,
126,-80.23,-45.19,-104.5,-47.46,-80.99,-70.07,-64.59,-53.9,-62.19,-38.32,-58.38,-41.23,-60.62,-42.26,-18.65,-40.15,0,0,0,0,0,0,0,0,0,0,0,0,0,0,0,0,
127,-111.9,-71.1,-106.9,-77.51,-101.3,-71.74,-60.06,-53.57,-84.06,-45.45,-70.56,-61.94,-75.66,-49.7,-4.614,-25.43,0,0,0,0,0,0,0,0,0,0,0,0,0,0,0,0,
128,-104.9,-73.66,-65.7,-67.78,-88.1,-79.34,-44.18,13.23,-63.09,-36.65,-37.11,-31.95,-56.64,-38.61,51.21,5.184,0,0,0,0,0,0,0,0,0,0,0,0,0,0,0,0,
129,-60.28,-50.39,-50.29,-26.34,-46.55,-63.37,-17.88,39.71,-42.45,-34.64,-47.41,-27.07,-59.18,-45.91,8.387,-39.45,0,0,0,0,0,0,0,0,0,0,0,0,0,0,0,0,
130,-59.36,-59.67,-42.62,-15.09,-44.77,-39.72,-19.13,0.8277,-62.92,-29.22,-81.48,-63.15,-71.17,-41.15,-44.31,-65.74,0,0,0,0,0,0,0,0,0,0,0,0,0,0,0,0,
131,-73.34,-60.36,-11.47,-37.93,-64.18,-25.64,-28.18,-2.959,-71.73,-40.71,-74.92,-59.01,-50.17,-17.96,-12.16,-38.97,0,0,0,0,0,0,0,0,0,0,0,0,0,0,0,0,
132,-67.64,-45.7,-9.291,-80.03,-73.79,-43.29,-20.36,-42.82,-65.45,-62.48,-62.74,-28.45,-33.94,-19.28,16.3,-24.56,0,0,0,0,0,0,0,0,0,0,0,0,0,0,0,0,
133,-56.45,-41.53,-23.72,-59.87,-57.12,-43.56,3.782,-87.56,-55.92,-8.221,-40.52,-8.025,-18.71,-13.58,44.03,9.597,0,0,0,0,0,0,0,0,0,0,0,0,0,0,0,0,
134,-28.06,-9.564,-23.94,21.12,-24.24,3.573,20.25,-14.28,-28.91,36.01,1.84,14.73,2.834,-0.5342,78.38,32.41,0,0,0,0,0,0,0,0,0,0,0,0,0,0,0,0,
135,-3.225,17.03,-30.52,32.3,-14.8,16.65,6.906,65.28,-6.019,-19.69,9.398,27.97,-0.4941,-16.74,57.4,-8.713,0,0,0,0,0,0,0,0,0,0,0,0,0,0,0,0,
136,-0.4355,2.341,-19.81,3.274,-21.2,-7.34,2.382,49.49,-3.589,-41.51,-17.8,16.99,-8.309,-20.46,27.21,-25.39,0,0,0,0,0,0,0,0,0,0,0,0,0,0,0,0,
137,-9.641,-10.51,-4.527,12.84,-47.43,-13.39,15.53,10.2,-15.59,-9.829,-36.9,6.501,-5.37,-2.204,30.9,8.724,0,0,0,0,0,0,0,0,0,0,0,0,0,0,0,0,
138,-15.51,-10.67,-11.48,6.189,-73.76,-3.434,14.75,-2.51,-20.76,-15.94,-36.97,26.13,-1.73,-4.318,47.93,30.45,0,0,0,0,0,0,0,0,0,0,0,0,0,0,0,0,
139,5.044,-6.245,2.327,-18.48,-41.12,26.76,18.68,-4.448,-8.877,-29.12,-35.91,46.8,3.578,-19.07,65.89,28.87,0,0,0,0,0,0,0,0,0,0,0,0,0,0,0,0,
140,19.84,3.635,13.99,-12.2,-2.724,57.95,40.39,-3.517,4.053,-22.83,-29.45,45.77,7.524,-15.9,57.25,16.92,0,0,0,0,0,0,0,0,0,0,0,0,0,0,0,0,
141,14.44,12.46,-1.554,5.337,-2.396,52.33,51.43,3.957,19.9,-20.54,1.224,49.56,3.409,-9.99,40.36,10.85,0,0,0,0,0,0,0,0,0,0,0,0,0,0,0,0,
142,19.61,3.904,4,4.315,-3.289,22.42,30.03,-9.003,16.67,-36.08,1.248,31.59,-16.68,-31.61,43.06,13.61,0,0,0,0,0,0,0,0,0,0,0,0,0,0,0,0,
143,10.8,-19.34,15.71,16.84,-17.64,8.427,11.07,-19.57,-12.1,-35.35,-45.64,-5.12,-21.76,-34.98,26.79,12.32,0,0,0,0,0,0,0,0,0,0,0,0,0,0,0,0,
144,-8.256,-17.81,12.57,34.07,-32.19,21.2,27.71,3.663,-11.43,-0.0636,-51.56,5.844,2.26,4.568,20.36,14.69,0,0,0,0,0,0,0,0,0,0,0,0,0,0,0,0,
145,-12.94,-20.22,20.23,-30.77,-23.15,14.29,18.29,-28.42,-0.9071,-14.02,-23.92,24.26,6.409,15.03,62.26,21.08,0,0,0,0,0,0,0,0,0,0,0,0,0,0,0,0,
146,-28.9,-49.63,24.75,-81.13,-35.89,-19.07,-27.16,-93.2,-23.86,-47.91,-44.1,-3.171,-3.525,-4.519,46.55,15.96,0,0,0,0,0,0,0,0,0,0,0,0,0,0,0,0,
147,-51.63,-41.27,17.18,12.29,-68.79,-32.28,-35.89,-59.99,-40.03,-4.54,-80.35,-21.64,-5.226,-1.748,-13.42,21.18,0,0,0,0,0,0,0,0,0,0,0,0,0,0,0,0,
148,-57.16,-24.3,22.3,69.24,-63.23,-22.21,-29.53,2.32,-27.35,17.26,-52.73,3.104,-15.39,4.447,37.09,51.66,0,0,0,0,0,0,0,0,0,0,0,0,0,0,0,0,
149,-29.61,-41.85,44.96,4.88,-19.27,7.171,-30.1,12.56,-5.984,-31.52,-1.906,27.23,-18.92,-8.274,92.08,45.6,0,0,0,0,0,0,0,0,0,0,0,0,0,0,0,0,
150,5.513,-42.16,67.38,-12.61,-7.466,23.34,-1.269,21.04,5.39,-48.9,-4.674,18.35,-12.62,-24.08,42.72,15.81,0,0,0,0,0,0,0,0,0,0,0,0,0,0,0,0,
151,-0.2411,-30.15,68.71,15.63,-38.31,-0.6739,25.5,26.02,11.34,-32.15,-1.821,20,-3.691,-24.4,49.47,40.7,0,0,0,0,0,0,0,0,0,0,0,0,0,0,0,0,
152,-5.179,-24.59,32.13,8.671,-43.69,-6.02,15.65,11.77,21.29,-34.56,30.72,42.47,4.246,-22.21,89.8,40.04,0,0,0,0,0,0,0,0,0,0,0,0,0,0,0,0,
153,-5.427,-23.75,-9.194,-0.4362,-35.11,-8.078,-4.069,-8.863,7.288,-47.27,11.65,29.86,-3.706,-17.86,67.27,2.504,0,0,0,0,0,0,0,0,0,0,0,0,0,0,0,0,
154,-33.44,-31.24,13.03,3.333,-45.75,-29.06,-7.461,-22.64,-17.1,-35.72,-23.12,9.45,-0.7485,13.43,76.2,41.74,0,0,0,0,0,0,0,0,0,0,0,0,0,0,0,0,
155,-21.62,-14.47,55.82,0.9854,-48.25,4.558,7.905,-10.24,-18.36,-15.22,-29.69,14.06,2.83,15.99,69.27,50.18,0,0,0,0,0,0,0,0,0,0,0,0,0,0,0,0,
156,2.867,1.741,58.62,4.389,-41.34,37.88,27.76,7.276,-16.78,-11.38,-39.99,11.39,-14.54,-26.3,24.87,-12.52,0,0,0,0,0,0,0,0,0,0,0,0,0,0,0,0,
157,-13.32,-4.447,95.06,29.59,-21.54,12.75,29.96,11.78,-4.552,6.406,-29.74,14.92,-6.717,-32.21,40.23,-6.575,0,0,0,0,0,0,0,0,0,0,0,0,0,0,0,0,
158,-1.889,1.399,127.5,12.71,-13.52,5.97,6.66,0.8891,7.537,1.267,-22.37,24.48,-1.238,-25.09,37.55,1.5,0,0,0,0,0,0,0,0,0,0,0,0,0,0,0,0,
159,4.803,-12.05,64.08,-48.2,-49.84,3.331,-1.844,-19.29,-19,-37.1,-48.12,19.09,-26.05,-43.85,31.1,-21.6,0,0,0,0,0,0,0,0,0,0,0,0,0,0,0,0,
160,-21.38,-28.41,39.17,-9.091,-52.79,-9.86,26.93,7.332,-32.94,-1.278,-53.93,22.2,-28.09,-54.17,72.93,0.3123,0,0,0,0,0,0,0,0,0,0,0,0,0,0,0,0,
161,-4.962,-1.576,89.89,71.21,-21.97,21.71,43.49,60.07,-7.715,41.54,-41.05,35.31,-20.29,-52.39,50.78,-4.4,0,0,0,0,0,0,0,0,0,0,0,0,0,0,0,0,
162,14.8,1.992,84.38,34.54,-41.96,37.03,22.28,49.81,-3.599,-17.37,-31.47,34.21,-28.29,-33.05,29.05,-30.2,0,0,0,0,0,0,0,0,0,0,0,0,0,0,0,0,
163,-5.701,-31.03,82.16,-1.541,-53.74,4.467,-17.49,-3.293,-28.41,-59.62,-36.06,4.168,-43.23,-29.75,58.03,-27.81,0,0,0,0,0,0,0,0,0,0,0,0,0,0,0,0,
164,-12.35,-38.43,116.7,34.35,-26.78,15.13,-22.04,-36.14,-34.19,-35.38,-57.29,-14.1,-40.94,-51.1,32.67,-30.05,0,0,0,0,0,0,0,0,0,0,0,0,0,0,0,0,
165,-1.879,-17.89,63.32,23.19,-41.91,39.31,28.49,-34.56,-25.12,-32.74,-47.33,17.85,3.326,-21.29,20.9,1.978,0,0,0,0,0,0,0,0,0,0,0,0,0,0,0,0,
166,-10.65,-4.854,-11.94,-18.9,-74.12,-14.31,21.75,-19.05,-48.01,-50.06,-31.31,27.98,15.99,0.3659,57.01,35.88,0,0,0,0,0,0,0,0,0,0,0,0,0,0,0,0,
167,-27.14,-12.05,25.29,-13.54,-56.89,-54.73,-33.44,-22.35,-68.52,-36.76,-38.38,16.5,-8.34,-34,64.77,19.67,0,0,0,0,0,0,0,0,0,0,0,0,0,0,0,0,
168,-18.66,-9.954,75.18,0.3327,-37.97,-8.758,-9.339,-22.39,-41.48,-3.877,-31.52,37.89,12.79,-28.19,51.67,15.21,0,0,0,0,0,0,0,0,0,0,0,0,0,0,0,0,
169,-18.05,-10.31,45.04,-23.99,-58.25,5.344,4.949,1.134,-27.17,-5.004,-45.07,16.8,12.81,-12.77,20.15,1.458,0,0,0,0,0,0,0,0,0,0,0,0,0,0,0,0,
170,-44.85,-29.53,31.17,-38.26,-55.46,-30.71,-38.15,1.379,-31.85,-22.22,-60.02,-19.12,-17.38,-20.44,18.65,-7.96,0,0,0,0,0,0,0,0,0,0,0,0,0,0,0,0,
171,-36.74,-13.91,45.54,-0.0801,-26.94,-28.87,-26.78,-24.23,-15.49,-9.568,-21.07,16.54,6.119,6.599,70.27,46.7,0,0,0,0,0,0,0,0,0,0,0,0,0,0,0,0,
172,-18.73,4.111,16.96,23.5,-42.29,-32.5,-11.76,-15.48,-19.47,-15.41,-4.665,26.36,6.162,1.839,65.63,46.49,0,0,0,0,0,0,0,0,0,0,0,0,0,0,0,0,
173,-44.5,-25.92,25,-9.398,-66.66,-59.72,-31.75,17.38,-42.79,-45.03,-36.76,-20.97,-46.93,-57.09,0.4316,-29.2,0,0,0,0,0,0,0,0,0,0,0,0,0,0,0,0,
174,-58.19,-41.32,73.14,-52.38,-62.77,-50.92,-19.56,9.099,-44.82,-38.14,-53.17,-32.31,-56.39,-74.25,-20.84,-26.41,0,0,0,0,0,0,0,0,0,0,0,0,0,0,0,0,
175,-39.37,-32.18,37.54,-63.8,-63.01,-29.51,-5.952,-18.42,-33.36,-25.98,-40.33,-7.213,-26.03,-52.73,29.48,31.16,0,0,0,0,0,0,0,0,0,0,0,0,0,0,0,0,
176,-21.3,-30.77,-4.568,-27.98,-60.29,-29.9,-7.224,-25.04,-26.01,-45.53,-27.03,4.035,-15.28,-39.15,71.99,40.55,0,0,0,0,0,0,0,0,0,0,0,0,0,0,0,0,
177,-18.1,-28.83,29.77,4.16,-54.49,-35.71,0.1576,-42.91,-36.4,-51.22,-37.13,-6.224,-26.75,-28.03,50.13,33.41,0,0,0,0,0,0,0,0,0,0,0,0,0,0,0,0,
178,-23.62,-27.22,38.04,-14.63,-38.48,-28.14,-2.899,-43.46,-39.69,-25,-40.26,-8.691,-27.2,-19.44,30.87,21.06,0,0,0,0,0,0,0,0,0,0,0,0,0,0,0,0,
179,-14.31,-18.76,9.188,-35.39,-12.33,-17.98,-10.06,2.348,-30.02,-11.59,-46.05,-13.52,-18.47,-25.38,0.034,-26.92,0,0,0,0,0,0,0,0,0,0,0,0,0,0,0,0,
180,-13.58,-1.937,10.19,-30.91,-32.85,-16.46,2.784,33.82,-45.15,-10.67,-92.43,-38.46,-23.05,-37,-77.72,-49.82,0,0,0,0,0,0,0,0,0,0,0,0,0,0,0,0,
181,-23.77,18.98,41.06,-11.05,-49.39,5.643,29.97,55.45,-49.97,4.306,-101,-29.05,-17.89,-39.78,-72.79,-21.77,0,0,0,0,0,0,0,0,0,0,0,0,0,0,0,0,
182,-10.08,28.35,69.27,16.82,-18.79,12.15,24.43,62.44,-33.58,-0.8231,-66.87,0.8929,-2.302,-34.36,-1.065,-5.075,0,0,0,0,0,0,0,0,0,0,0,0,0,0,0,0,
183,-7.185,3.961,52.4,7.849,-34.39,-33.88,-10.67,3.707,-40.96,-14.56,-72.23,-1.188,7.324,-14.66,12.21,9.34,0,0,0,0,0,0,0,0,0,0,0,0,0,0,0,0,
184,-12.09,-0.77,22.32,-38.72,-67.81,-41.82,-2.341,-39.57,-45.94,-9.246,-69.52,6.223,22.71,4.338,14.69,33.97,0,0,0,0,0,0,0,0,0,0,0,0,0,0,0,0,
185,2.126,24.82,31.08,-52.19,-42.67,-6.907,27.21,-10.62,-36.56,-22.18,-38.32,26.67,30.61,-0.8905,32.41,39.16,0,0,0,0,0,0,0,0,0,0,0,0,0,0,0,0,
186,3.794,26.45,53.11,1.411,-8.423,-4.087,32.01,18.09,-26.47,-13.7,-29.7,29.23,31.03,-4.278,36.32,49.38,0,0,0,0,0,0,0,0,0,0,0,0,0,0,0,0,
187,12.32,36.44,84.42,54.92,15.4,9.595,39.5,20.37,-5.812,10.07,-25.59,33.04,32.81,-2.838,42.37,58.35,0,0,0,0,0,0,0,0,0,0,0,0,0,0,0,0,
188,28.44,49.54,85.65,25.04,28.19,44.59,47.34,4.906,-1.013,-40,-26.29,35.6,23.54,-8.141,34.12,44.53,0,0,0,0,0,0,0,0,0,0,0,0,0,0,0,0,
189,19.11,29.67,7.128,-23.88,3.846,41.97,59.29,-23.89,-17.54,-68.79,-54.31,22.31,12.51,-4.79,11.89,29.46,0,0,0,0,0,0,0,0,0,0,0,0,0,0,0,0,
190,17.81,31.2,-16.45,8.839,-21.03,33.47,77.72,-23.29,-28.11,-9.854,-78.89,3.673,1.573,-10.04,3.178,13.44,0,0,0,0,0,0,0,0,0,0,0,0,0,0,0,0,
191,21.28,52.5,77.78,64.15,0.6582,64.44,76.42,33.05,-21.96,23.55,-71.37,3.185,3.11,-10.86,11.07,22.9,0,0,0,0,0,0,0,0,0,0,0,0,0,0,0,0,
192,13.63,51.73,118.5,73.28,47.16,87.67,74.24,94.76,2.447,12.61,-51.59,14.64,18.61,-0.49,15.94,41.46,0,0,0,0,0,0,0,0,0,0,0,0,0,0,0,0,
193,19.14,42.03,80.39,71.74,60.59,68.95,68.7,88.62,18.67,1.092,-38.48,13.89,11.68,-19.94,8.453,28.49,0,0,0,0,0,0,0,0,0,0,0,0,0,0,0,0,
194,26.73,37.92,77.18,60.81,35.92,54.98,51.21,29.03,24.09,-0.6651,-11.47,32.46,16.99,-17.08,29.36,67.13,0,0,0,0,0,0,0,0,0,0,0,0,0,0,0,0,
195,34.42,44.87,70.37,29.47,19.68,52.29,51.16,-11.19,36.64,7.938,14.52,56.34,34.77,15.5,48.92,110.4,0,0,0,0,0,0,0,0,0,0,0,0,0,0,0,0,
196,37.73,36.09,47.52,46.57,30.91,40.71,60.37,14.44,41.53,14.19,12.37,34.83,2.842,-1.936,12.51,37.6,0,0,0,0,0,0,0,0,0,0,0,0,0,0,0,0,
197,19.13,11.48,73.46,71.49,51.14,45.31,71.37,64.49,38.44,35.71,5.723,14.23,-21.86,-15.91,-9.164,-7.2,0,0,0,0,0,0,0,0,0,0,0,0,0,0,0,0,
198,3.706,14.14,64.76,-12.85,44.25,34.15,65.62,23.76,23.98,35.11,-14,1.967,-10.3,6.328,-7.891,39.36,0,0,0,0,0,0,0,0,0,0,0,0,0,0,0,0,
199,-2.714,18.76,-7.348,-65.96,13.69,1.99,24.67,-33.25,6.886,-2.981,-40.01,-21.25,-14.37,2.537,-30.67,37.08,0,0,0,0,0,0,0,0,0,0,0,0,0,0,0,0,
200,-10.16,5.689,-10.45,23.18,-7.125,-1.577,-3.55,25.9,12.98,5.472,-30.08,-1.385,-8.992,-8.24,-22.29,19.78,0,0,0,0,0,0,0,0,0,0,0,0,0,0,0,0,
201,-10.76,-5.22,40.89,60.61,-19.11,-19.13,-16.73,36.59,11.79,2.72,-12.85,32.9,12.33,-8.038,8.194,51.84,0,0,0,0,0,0,0,0,0,0,0,0,0,0,0,0,
202,-1.429,-14.21,49.23,16.95,-5.472,-25.62,-20.98,-24.91,-0.5181,-53.41,-13.81,30.88,24.03,-8.724,0.7173,66.4,0,0,0,0,0,0,0,0,0,0,0,0,0,0,0,0,
203,14.22,-0.3423,37.66,5.003,13.86,14.87,9.842,24.14,-14.9,-42.84,-37.4,22.38,31.17,-0.1567,-2.323,63.25,0,0,0,0,0,0,0,0,0,0,0,0,0,0,0,0,
204,0.0718,22.15,30.2,-8.119,-11.62,-3.86,27.58,33.21,-51.69,-5.895,-83.97,10.03,22.6,1.196,22.2,74.5,0,0,0,0,0,0,0,0,0,0,0,0,0,0,0,0,
205,-32.11,17.87,12.1,7.249,-21.61,-27.74,34.14,-47.19,-52.84,-25.22,-99.38,-7.926,1.43,-8.495,6.934,57.76,0,0,0,0,0,0,0,0,0,0,0,0,0,0,0,0,
206,-19.45,7.221,-8.363,31.54,-6.5,28.3,57.8,21.11,-18.18,-27.3,-91.91,-29.01,-24.14,-15.8,-55.91,6.501,0,0,0,0,0,0,0,0,0,0,0,0,0,0,0,0,
207,3.448,-0.8726,-4.883,5.878,-18.99,39.75,50.41,105.9,-19.89,4.689,-92.21,-48.07,-33.51,-11.06,-70.08,-4.381,0,0,0,0,0,0,0,0,0,0,0,0,0,0,0,0,
208,-1.608,2.08,15.76,35.22,-9.498,12.77,46.09,24.21,-15.96,24.21,-65.08,-26.21,1.773,6.899,-30.96,34.57,0,0,0,0,0,0,0,0,0,0,0,0,0,0,0,0,
209,4.421,28.75,14.47,69.45,7.204,28.07,67.32,-16.34,2.427,22.48,-39.68,8.063,27.65,1.373,-17.93,46.02,0,0,0,0,0,0,0,0,0,0,0,0,0,0,0,0,
210,16.59,52.54,35.58,41.11,-5.962,22.42,53.65,61.74,-3.81,20.4,-34.16,10.93,14.27,-19.88,-8.537,24.64,0,0,0,0,0,0,0,0,0,0,0,0,0,0,0,0,
211,8.556,50.97,87.34,54.48,4.728,10.09,41.89,93.49,12.21,32.73,-11.98,13.87,10.59,-15.02,3.445,19.96,0,0,0,0,0,0,0,0,0,0,0,0,0,0,0,0,
212,8.793,27.38,81.97,28.9,26.54,48.8,58.82,57.79,45.56,29.71,-7.383,15.07,9.647,-11.73,-25.82,20.32,0,0,0,0,0,0,0,0,0,0,0,0,0,0,0,0,
213,39.74,21.07,76.26,-16.47,44.45,92,60.31,45.02,47.2,21.43,-25.65,-3.981,-12.77,-31.94,-47.64,-0.9684,0,0,0,0,0,0,0,0,0,0,0,0,0,0,0,0,
214,44.83,29.81,91.82,70.69,53.2,101.4,62.66,50.83,30.62,23.39,-26.36,-6.314,-26.5,-40.99,-26.7,-6.916,0,0,0,0,0,0,0,0,0,0,0,0,0,0,0,0,
215,9.434,2.216,25.15,95.72,14.57,85.47,70.73,21.83,19.52,-5.283,-24.68,19.43,-11.44,-23.93,4.406,33.4,0,0,0,0,0,0,0,0,0,0,0,0,0,0,0,0,
216,22.69,-15.34,-22.62,-8.45,-12.98,62.39,51.66,-22.65,18.23,-39.77,-29.95,27.78,-2.663,-14.95,6.439,50.07,0,0,0,0,0,0,0,0,0,0,0,0,0,0,0,0,
217,50.37,-5.244,17.07,-6.889,-9.747,52.65,25.77,-49.21,8.173,-55.29,-31.29,6.782,-22.93,-28.77,-33.16,6.945,0,0,0,0,0,0,0,0,0,0,0,0,0,0,0,0,
218,11.42,-29.07,21.11,50.11,-25.8,55.03,21.15,-51.98,-12.64,-75.97,-31.69,-7.797,-33.52,-32.48,-48.18,-14.2,0,0,0,0,0,0,0,0,0,0,0,0,0,0,0,0,
219,-19.43,-40.63,-0.1245,32.05,-25.61,44.03,14.55,-17.92,-22.79,-58.85,-38.75,-20.29,-33.49,-31.55,-24.71,2.543,0,0,0,0,0,0,0,0,0,0,0,0,0,0,0,0,
220,-22.35,-19.96,-16.31,20.4,-9.043,20.94,-2.474,13.23,-28.96,-16.09,-56.05,-43.04,-43.41,-39.2,-35.89,4.202,0,0,0,0,0,0,0,0,0,0,0,0,0,0,0,0,
221,-30.95,-24.07,-44.14,30.33,-13.59,18.83,-4.936,15.29,-34.52,-24.26,-69.07,-52.76,-38.14,-33.15,-62.51,-4.348,0,0,0,0,0,0,0,0,0,0,0,0,0,0,0,0,
222,-11.37,-25.23,-21.54,13.29,-24.53,33.25,4.042,45.48,-37.61,-33.91,-62.1,-47.88,-26.33,-26.38,-47.09,1.357,0,0,0,0,0,0,0,0,0,0,0,0,0,0,0,0,
223,6.422,2.345,22.11,3.009,-21.29,55.73,42.2,77.49,-32.21,4.418,-37.07,-23.17,-8.866,-18.22,-20.99,17.15,0,0,0,0,0,0,0,0,0,0,0,0,0,0,0,0,
224,8.653,34.35,19.56,17.77,9.076,80.96,108.3,40.31,-4.087,27.92,-20.88,11.32,23.5,-4.961,-29.66,8.995,0,0,0,0,0,0,0,0,0,0,0,0,0,0,0,0,
225,22.57,41.2,-16.9,27.11,10.32,61.96,97.32,-2.016,16.62,20.97,-21.04,19.08,26.52,-14.64,-30.94,4.603,0,0,0,0,0,0,0,0,0,0,0,0,0,0,0,0,
226,16.14,5.586,-60.08,19.13,-38.24,14.44,8.477,16.27,17.42,12.09,-3.408,23.82,12.77,-15.18,6.244,48.42,0,0,0,0,0,0,0,0,0,0,0,0,0,0,0,0,
227,4.702,-24.93,-41.13,-15.09,-29.83,-6.26,-30.41,46.38,26.85,8.231,15.03,29.5,7.359,-9.492,4.359,42.9,0,0,0,0,0,0,0,0,0,0,0,0,0,0,0,0,
228,8.896,-16.84,5.117,-34.56,25.36,7.067,-3.884,45.74,39.32,39.63,12.32,14.79,-9.164,-33.29,-23.63,-10.66,0,0,0,0,0,0,0,0,0,0,0,0,0,0,0,0,
229,4.205,6.8,-34.9,27.44,23.79,50.98,29.29,20.23,37.94,60.54,11.56,11.83,-15.18,-29.42,-3.768,16.5,0,0,0,0,0,0,0,0,0,0,0,0,0,0,0,0,
230,0.8418,20.33,-66.22,69,-4.806,54.15,30.66,-1.426,18.36,3.659,3.084,12.86,-17.12,-5.16,8.677,44.8,0,0,0,0,0,0,0,0,0,0,0,0,0,0,0,0,
231,-5.008,3.147,-4.917,8.75,-1.659,-7.888,4.586,1.504,6.418,-24.94,12.9,17.61,-18.73,-10.33,17.45,19.69,0,0,0,0,0,0,0,0,0,0,0,0,0,0,0,0,
232,-8.795,-12.25,11.95,-22.29,4.159,-18.18,4.246,-7.956,16.05,3.729,42.24,41.7,8.336,-6.087,41.86,45.46,0,0,0,0,0,0,0,0,0,0,0,0,0,0,0,0,
233,2.648,3.486,-37.23,2.045,-10.45,22.13,16.55,-18.26,5.752,-29.48,16.89,28.27,15.14,-1.419,8.403,67.13,0,0,0,0,0,0,0,0,0,0,0,0,0,0,0,0,
234,1.079,10.78,-19.3,16.59,-1.387,38.12,10.48,24.42,-0.7528,-50.36,-10.34,-4.75,-8.282,-21.62,-27.2,25.35,0,0,0,0,0,0,0,0,0,0,0,0,0,0,0,0,
235,-5.414,-10.36,22.06,37.91,29.16,48.47,3.602,44.45,25.08,1.621,8.975,-5.974,-14.86,-32.86,-15.98,6.186,0,0,0,0,0,0,0,0,0,0,0,0,0,0,0,0,
236,-4.737,-39.88,-19.69,24.46,23.59,37.61,-15.04,4.753,26.07,1.614,9.605,-7.904,-18.74,-33.05,-4.136,19.73,0,0,0,0,0,0,0,0,0,0,0,0,0,0,0,0,
237,-5.995,-37.79,-43.19,0.9425,16.31,11.94,-24.6,-6.995,16.75,-16.98,9.26,-7.704,-20.14,-31.16,13.51,16.07,0,0,0,0,0,0,0,0,0,0,0,0,0,0,0,0,
238,2.542,-3.912,12.62,31.76,29.6,24.69,-5.027,-4.435,28.05,13.59,11.34,-14.08,-15.45,-26.01,-21.95,-6.099,0,0,0,0,0,0,0,0,0,0,0,0,0,0,0,0,
239,2.032,-4.999,24.22,30.24,13.14,42.6,-2.675,-1.51,16.04,8.555,-9.503,-45.61,-20.87,-21.43,-84.84,-17.35,0,0,0,0,0,0,0,0,0,0,0,0,0,0,0,0,
240,-20.7,-38.71,-15.93,1.973,-15.23,27.84,-16.52,28.76,-21.65,-15.24,-7.523,-56.74,-29.64,-22.17,-48.84,-11.55,0,0,0,0,0,0,0,0,0,0,0,0,0,0,0,0,
241,-49.77,-57.01,-29,2.473,-36.7,4.009,-21.44,15.86,-56.44,3.457,-9.976,-59.31,-43.95,-36.11,-21.33,-19.81,0,0,0,0,0,0,0,0,0,0,0,0,0,0,0,0,
242,-66.95,-52.94,-40.04,-34.03,-47.13,10.96,-8.744,-11.22,-61.46,8.982,-31.67,-66.44,-46.81,-41.38,-68.19,-25.61,0,0,0,0,0,0,0,0,0,0,0,0,0,0,0,0,
243,-47.45,-24.59,-49.26,-53.95,-21.81,42.98,27.79,18.08,-29.97,-19.86,-9.698,-38.83,-34.25,-31.16,-48.15,2.905,0,0,0,0,0,0,0,0,0,0,0,0,0,0,0,0,
244,-19.81,-4.207,-15.31,19.29,-7.886,36.14,45.28,34.63,-3.5,-27.72,31.84,-4.401,-36.26,-27.93,9.572,24.36,0,0,0,0,0,0,0,0,0,0,0,0,0,0,0,0,
245,-8.199,-7.381,37.12,79.4,-21.71,4.496,35.62,48.16,3.976,-9.43,46.03,3.029,-36.98,-29.08,-4.652,-3.588,0,0,0,0,0,0,0,0,0,0,0,0,0,0,0,0,
246,0.1173,-8.683,43.09,59.02,-22.21,6.246,33.16,73.74,0.0436,-5.484,37.11,3.387,-27.7,-31.58,-31.56,-33.31,0,0,0,0,0,0,0,0,0,0,0,0,0,0,0,0,
247,-18.29,-15.25,-22.03,22.5,-30.33,9.283,19.7,26.32,-9.895,-3.897,20.19,12.16,-16.31,-17.53,-10.31,0.1523,0,0,0,0,0,0,0,0,0,0,0,0,0,0,0,0,
248,-40.91,-13.34,-75.88,11.4,-52.77,-17.33,-8.549,-20.44,-17.76,-2.175,2.816,10.6,-6.463,3.553,-6.837,27.73,0,0,0,0,0,0,0,0,0,0,0,0,0,0,0,0,
249,-35.83,-8.348,-50.4,-0.0058,-59.43,-30.91,-19.42,14.16,-33.15,-40.17,-14.33,-11.8,-21.62,-15.84,-38,-8.549,0,0,0,0,0,0,0,0,0,0,0,0,0,0,0,0,
250,-25.56,-37.3,-11.76,-12.99,-39.67,6.487,-7.937,15.13,-27.44,-69.29,10.57,-3.317,-28.42,-30.24,-10.34,-8.154,0,0,0,0,0,0,0,0,0,0,0,0,0,0,0,0,
251,1.647,-54.69,-13.12,-3.924,-12.33,47.86,1.052,-40.6,-4.535,-36.78,60.14,28.57,-7.87,-12.35,37.09,22.2,0,0,0,0,0,0,0,0,0,0,0,0,0,0,0,0,
252,16.72,-33.41,-29.33,-8.987,-22.16,36.44,-0.3668,-41.87,-20.32,7.096,51.61,17.68,1.868,-12.91,8.306,2.73,0,0,0,0,0,0,0,0,0,0,0,0,0,0,0,0,
253,-10.27,-5.54,-36.06,-33.72,-52,11.25,14.27,-10.6,-36.84,21.75,18.27,-1.068,17.52,-9.078,-21.5,-2.38,0,0,0,0,0,0,0,0,0,0,0,0,0,0,0,0,
254,-12.61,19.36,-6.165,-16.32,-47.97,2.854,27.01,-15.82,-26.03,-0.3332,13.46,8.528,29.55,-0.02,-13.43,0.0964,0,0,0,0,0,0,0,0,0,0,0,0,0,0,0,0,
255,14.14,23.62,43.8,21.45,-12.88,12.27,15.5,10.38,-19.49,-28.82,20.19,22.58,14.16,-17.55,-16.02,-31.33,0,0,0,0,0,0,0,0,0,0,0,0,0,0,0,0,
256,26.46,16.78,42.54,13.28,11.38,44.58,12.34,64.13,-8.632,-27.12,33.17,26.16,3.447,-27.44,-9.131,-27.04,0,0,0,0,0,0,0,0,0,0,0,0,0,0,0,0,
257,18.25,22.13,5.156,-2,-12.5,35.86,9.898,44.19,-8.622,-20.72,43.65,5.195,-13.16,-33.63,7.583,-20.62,0,0,0,0,0,0,0,0,0,0,0,0,0,0,0,0,
258,-15.59,25.38,-6.275,15.38,-40.82,-7.189,6.974,17.55,-17.72,-12.37,54.2,-7.825,-29.95,-38.88,5.004,-49.95,0,0,0,0,0,0,0,0,0,0,0,0,0,0,0,0,
259,-34.35,20.2,-25.82,-15.66,-31.23,-3.12,24.54,19.62,-14.53,-6.925,50.25,-7.916,-25.21,-18.89,-25.5,-37.79,0,0,0,0,0,0,0,0,0,0,0,0,0,0,0,0,
260,-21.26,-3.781,-52.6,-70.88,-30.27,10.57,21.2,-18.04,-27.6,-17.5,12.26,-39.8,-27.39,-7.045,-64.22,-6.357,0,0,0,0,0,0,0,0,0,0,0,0,0,0,0,0,
261,-22.57,-28.73,-20.01,-6.797,-31.1,0.2357,-2.913,1.655,-39.97,-5.717,-7.192,-59.92,-19.5,-5.136,-54.99,0.9694,0,0,0,0,0,0,0,0,0,0,0,0,0,0,0,0,
262,-37.66,-21.84,-3.982,56.6,-27.05,-4.264,-6.772,57.2,-45.72,-2.292,-4.22,-48.92,-2.781,6.327,-21.12,16.22,0,0,0,0,0,0,0,0,0,0,0,0,0,0,0,0,
263,-42.49,-11.36,-68.03,-16.49,-50.37,-0.8606,9.222,18.75,-63.52,3.243,-9.025,-43.14,-8.223,9.229,-20.88,14.88,0,0,0,0,0,0,0,0,0,0,0,0,0,0,0,0,
264,-35.24,-1.574,-80.99,-32.27,-55.51,8.623,36.93,29.78,-55.36,65.56,-12.05,-29.55,-13.99,1.544,-38.65,-17.99,0,0,0,0,0,0,0,0,0,0,0,0,0,0,0,0,
265,-36.46,5.908,-5.549,43.79,-55.09,-1.149,45.19,93.63,-44,51.14,-38.27,-28.45,-38.04,-22.02,-60.61,-40.51,0,0,0,0,0,0,0,0,0,0,0,0,0,0,0,0,
266,-44.33,-20.01,26.85,46.65,-77.57,-7.701,38.12,35.09,-42.7,-37.8,-48.76,-35.05,-72.6,-46.27,-67.04,-55.75,0,0,0,0,0,0,0,0,0,0,0,0,0,0,0,0,
267,-14.01,-37.88,-13.3,25.16,-50.43,29.07,43.94,-6.913,-12.73,-22.22,-4.929,-8.221,-57.25,-41.99,-48.48,-64.15,0,0,0,0,0,0,0,0,0,0,0,0,0,0,0,0,
268,15.54,-28.2,-45.54,15.48,-10.53,37.59,23.35,43.63,-7.452,12.23,13.03,5.409,-26.84,-36.44,-33.23,-32.02,0,0,0,0,0,0,0,0,0,0,0,0,0,0,0,0,
269,-6.142,-24.36,-45.74,-20.02,-28.49,9.414,-8.646,28.8,-31.66,-18.1,9.916,-8.085,-17.3,-34.81,-12.59,0.9871,0,0,0,0,0,0,0,0,0,0,0,0,0,0,0,0,
270,-27.57,-17.19,-50.77,-21.77,-46.28,-8.04,-14.46,-11.47,-31.9,-15.08,23.28,-15.62,-9.461,-8.013,-6.113,-20.13,0,0,0,0,0,0,0,0,0,0,0,0,0,0,0,0,
271,-43.81,-13.26,-58.65,-12.92,-48.1,-41.02,-34.28,-8.145,-40.88,-3.644,11.69,-31.55,-12.54,18.48,-31.35,-42.39,0,0,0,0,0,0,0,0,0,0,0,0,0,0,0,0,
272,-69.04,-18.66,-50.09,-31.69,-62.18,-49.93,-47.06,-20.56,-53.58,-15.43,2.532,-41.16,-17.12,10.58,-24.13,-26.71,0,0,0,0,0,0,0,0,0,0,0,0,0,0,0,0,
273,-58.28,-12.72,-46.98,-26.18,-60.88,-15.95,-18.83,-25.26,-36.95,-10.87,18.13,-23.79,0.2863,-3.589,7.818,-10.58,0,0,0,0,0,0,0,0,0,0,0,0,0,0,0,0,
274,-17.12,2.956,-45.06,-18.04,-39.07,-0.6137,3.31,-19.36,-17.56,-6.753,19.25,-1.939,18.86,5.505,8.915,0.2539,0,0,0,0,0,0,0,0,0,0,0,0,0,0,0,0,
275,12.45,24.38,-45.54,-18.45,-34.93,17.8,5.945,-31.96,-3.563,2.124,22.69,11.43,10.92,4.276,10.75,2.337,0,0,0,0,0,0,0,0,0,0,0,0,0,0,0,0,
276,15.49,28.79,-60.86,25.82,-33.21,40.05,12.63,13.21,15,11.41,50.59,21.07,-8.04,-15.45,27.44,-18.66,0,0,0,0,0,0,0,0,0,0,0,0,0,0,0,0,
277,8.122,4.887,-34.12,64.5,3.086,22.31,21.61,76.55,27.53,-0.2356,60.82,21.96,-17,-20.08,16.25,-37.13,0,0,0,0,0,0,0,0,0,0,0,0,0,0,0,0,
278,9.716,-10.9,8.176,30.18,17.41,4.208,19.39,36.9,15.04,13.69,27.55,-0.6237,-27.81,-26.59,-11.67,-39.59,0,0,0,0,0,0,0,0,0,0,0,0,0,0,0,0,
279,3.934,-6.585,-17.94,-3.982,-2.774,19.21,18.98,5.694,-2.709,40.36,13.71,-11.99,-25.9,-32.85,-8.751,-33.77,0,0,0,0,0,0,0,0,0,0,0,0,0,0,0,0,
280,-3.702,9.112,-48.94,20.52,17.62,45.78,39.72,51.3,11,18.9,44.23,18.84,-6.083,-17.9,5.376,-31.05,0,0,0,0,0,0,0,0,0,0,0,0,0,0,0,0,
281,4.525,21.72,-44.48,33.97,28.51,57.63,47.34,37.1,22.22,-0.2214,48.57,36.31,-5.529,-13.73,7.093,-29.29,0,0,0,0,0,0,0,0,0,0,0,0,0,0,0,0,
282,15.83,15.67,-36.85,16.52,-11.21,44.31,25.93,12.39,8.304,6.712,36.82,21.22,-8.73,-18.99,22.92,-9.597,0,0,0,0,0,0,0,0,0,0,0,0,0,0,0,0,
283,22.7,1.475,-5.883,24.3,-23.4,27.5,9.219,58.25,-6.921,-23.41,39.39,2.049,-8.605,-22.64,14.5,-7.328,0,0,0,0,0,0,0,0,0,0,0,0,0,0,0,0,
284,4.564,-17.47,-2.234,31.42,-22.56,28.87,11.88,58.35,-36.01,-40.92,16.44,-23.11,-27.28,-34.88,-28.67,-28.94,0,0,0,0,0,0,0,0,0,0,0,0,0,0,0,0,
285,-30.26,-25.36,-50.43,2.802,-46.48,32.05,27.92,19.69,-66.83,-2.311,-7.123,-34.1,-32.09,-32.32,-24.98,-17.71,0,0,0,0,0,0,0,0,0,0,0,0,0,0,0,0,
286,-41.23,-17.15,-52.25,-11.92,-61.75,-2.333,11.89,5.504,-69.96,-0.6416,-13.77,-36.62,-26.58,-30.24,-14.83,-11.28,0,0,0,0,0,0,0,0,0,0,0,0,0,0,0,0,
287,-42.71,-25.99,-33.24,-0.5436,-58.37,-48.9,-38.15,-18.39,-59.43,-28.61,-28.21,-56.86,-34.47,-43,-50.87,-40.08,0,0,0,0,0,0,0,0,0,0,0,0,0,0,0,0,
288,-41.61,-36.76,-62.71,-28.74,-38.77,-39.31,-47.35,-30.88,-49.67,-31.85,-22.58,-60.12,-33.2,-35.33,-47.31,-37.41,0,0,0,0,0,0,0,0,0,0,0,0,0,0,0,0,
289,-35.53,-44.92,-65.81,-75.48,-30.98,-5.578,-41.89,-45.9,-56.98,-43.03,-9.755,-46.71,-32.87,-26.09,-11.94,-15.59,0,0,0,0,0,0,0,0,0,0,0,0,0,0,0,0,
290,-47.12,-67.08,-18.59,-33.37,-39.58,2.029,-60.14,-66.46,-73.78,-38.86,-20.94,-59.05,-44.52,-36.35,-27.4,-27.97,0,0,0,0,0,0,0,0,0,0,0,0,0,0,0,0,
291,-55.73,-64.06,7.069,36.72,-21.1,5.143,-45.09,-34.61,-67.05,-27.78,-32.46,-79.12,-50.95,-36.16,-51.35,-32.6,0,0,0,0,0,0,0,0,0,0,0,0,0,0,0,0,
292,-48.88,-46.33,-4.541,11.63,-10.87,6.345,-18.97,-29.13,-43.7,-48.75,-29.66,-61.91,-41.78,-23.27,-23.93,2.864,0,0,0,0,0,0,0,0,0,0,0,0,0,0,0,0,
293,-32.23,-37.82,-33.91,-14.43,-33.92,9.168,-27.06,-61.35,-28.28,-44.87,-14.62,-25.63,-27.41,-32.66,2.832,10.21,0,0,0,0,0,0,0,0,0,0,0,0,0,0,0,0,
294,-7.624,-18.91,-52.92,24.03,-31.31,23.43,-27.95,-11.06,-31.85,-24.54,-13.04,-30.67,-40.69,-67.1,-19.7,-30.12,0,0,0,0,0,0,0,0,0,0,0,0,0,0,0,0,
295,-13.13,-16.19,-27.23,41.06,-5.615,25.01,-7.291,51.76,-35.13,-8.039,-22.93,-50.76,-50.68,-71.75,-28.48,-37.23,0,0,0,0,0,0,0,0,0,0,0,0,0,0,0,0,
296,-35.29,-26.51,12.58,32.77,-7.735,0.5897,-5.189,25.27,-25.79,10.7,-4.546,-36.59,-38.92,-56,-4.629,-32.43,0,0,0,0,0,0,0,0,0,0,0,0,0,0,0,0,
297,-40.07,-34.64,1.936,9.11,-39.41,-36.23,-35.66,-0.1213,-35.18,-29.76,11.46,-33.46,-60.03,-66.66,-12.5,-55.85,0,0,0,0,0,0,0,0,0,0,0,0,0,0,0,0,
298,-49.8,-60.15,-57.65,-30.35,-62.76,-45.74,-53.49,37.02,-47.92,-51.68,8.984,-45.09,-68.89,-53.74,-15.45,-32.61,0,0,0,0,0,0,0,0,0,0,0,0,0,0,0,0,
299,-58.55,-66.34,-101.2,-33.76,-60.21,-32.89,-52.49,44.48,-45.4,0.2077,19.47,-36.26,-38.81,-28.43,10.97,-9.479,0,0,0,0,0,0,0,0,0,0,0,0,0,0,0,0,
300,-61.98,-55.46,-78.97,-25.27,-47.96,-40.73,-70.91,-11.47,-51.75,-4.738,18.51,-30.64,-39.52,-51.43,4.641,-47.55,0,0,0,0,0,0,0,0,0,0,0,0,0,0,0,0,
301,-56.91,-54.36,-26.28,-23.37,-30.71,-36.51,-66.11,-18.41,-38.64,-32.39,1.479,-26.26,-30,-61.25,-5.047,-39.33,0,0,0,0,0,0,0,0,0,0,0,0,0,0,0,0,
302,-30.98,-32.6,-11.53,-4.426,-20.36,-22.05,-28.42,9.938,-15.15,-15.57,-11.37,-25.84,11.41,-35.43,1.642,3.064,0,0,0,0,0,0,0,0,0,0,0,0,0,0,0,0,
303,-40.88,-22.54,-27.14,-12.75,-24.47,-31.57,-13.14,-28.5,-28.74,-2.96,-34.61,-58.42,18.12,-13.76,-13.36,6.585,0,0,0,0,0,0,0,0,0,0,0,0,0,0,0,0,
304,-76.15,-28.14,-41.02,-30.3,-28.39,-15.49,-0.6004,-46.22,-43.91,43.71,-53.35,-92.27,10.93,5.369,-10.01,23.57,0,0,0,0,0,0,0,0,0,0,0,0,0,0,0,0,
305,-63.01,-1.516,-51.46,2.101,-43.04,-1.477,-5.621,11.75,-42.48,61,-42.94,-97.09,7.384,2.393,4.6,36.31,0,0,0,0,0,0,0,0,0,0,0,0,0,0,0,0,
306,-44.45,-5.757,-46.88,33.49,-56.78,-37.63,-53.36,43.45,-43.94,-15.81,-23.05,-89.34,-20.06,-13.06,-24.37,6.647,0,0,0,0,0,0,0,0,0,0,0,0,0,0,0,0,
307,-55.7,-58.43,-42.13,13.17,-52.27,-53.51,-70.97,30.49,-47.87,-36.41,-16.39,-79.2,-57.82,-25.47,-36.42,-23.39,0,0,0,0,0,0,0,0,0,0,0,0,0,0,0,0,
308,-61.19,-77.84,-48.09,-20.46,-48.76,-39.99,-57.51,16.44,-51.4,-5.705,0.6923,-56.37,-82.67,-57.38,3.886,-45.99,0,0,0,0,0,0,0,0,0,0,0,0,0,0,0,0,
309,-60.14,-70.28,-39.93,-28.52,-33.49,-34.82,-58.09,4.122,-31.44,-31.66,40.44,-29,-83.17,-69.97,16.97,-58.2,0,0,0,0,0,0,0,0,0,0,0,0,0,0,0,0,
310,-55.07,-74.94,-39.71,-55.34,-23.76,-31.94,-46.81,-31.05,-9.632,-45.98,45.97,-34.66,-80.2,-50.95,-13.46,-68.18,0,0,0,0,0,0,0,0,0,0,0,0,0,0,0,0,
311,-44.97,-78.16,-49.93,-109.8,-42.23,-39.83,-36.17,-69.76,-22.64,-34.49,14.96,-56.68,-92.67,-44.41,-23.65,-95.99,0,0,0,0,0,0,0,0,0,0,0,0,0,0,0,0,
312,-44.95,-73.95,-50.89,-89.89,-40.81,-40.98,-52.51,-43.38,-30.23,-33.92,8.302,-57.35,-96.74,-39.24,-5.39,-88.38,0,0,0,0,0,0,0,0,0,0,0,0,0,0,0,0,
313,-46.32,-67.45,-74.06,-17.24,-31.39,-18.79,-50.56,-3.288,-19.57,-7.803,12.91,-58.05,-84.15,-29.2,5.888,-39.78,0,0,0,0,0,0,0,0,0,0,0,0,0,0,0,0,
314,-26.37,-52.01,-60.53,8.929,-27.27,3.647,-16.93,-1.703,-14.63,-5.112,-3.37,-63.9,-63.27,-31.94,-6.156,-25.14,0,0,0,0,0,0,0,0,0,0,0,0,0,0,0,0,
315,-3.614,-39.14,20.9,37.2,-1.614,21.69,-8.563,37.87,-11.26,-36.48,-23.46,-55.4,-33.17,-36.77,-17.99,-19.48,0,0,0,0,0,0,0,0,0,0,0,0,0,0,0,0,
316,3.044,-26.99,31.37,67.02,-0.222,39.65,-9.674,71,0.903,13.42,-16,-16.84,15.38,-22.35,14.43,34.74,0,0,0,0,0,0,0,0,0,0,0,0,0,0,0,0,
317,32.58,17.66,-16.14,32.36,1.514,55.07,32.08,33.59,27.52,72.5,11.38,37.97,55.57,-0.0269,55.46,67.38,0,0,0,0,0,0,0,0,0,0,0,0,0,0,0,0,
318,60,46.68,9.063,10.95,39.79,47.86,47.35,28.42,28.92,19.22,16.75,48.76,35.56,-9.562,64.24,36.41,0,0,0,0,0,0,0,0,0,0,0,0,0,0,0,0,
319,41.4,24.06,50.54,39.21,15.04,23.86,23.71,59,0.6264,-5.789,27.31,44.51,16.15,-18.55,84.67,24.98,0,0,0,0,0,0,0,0,0,0,0,0,0,0,0,0,
320,58.2,33.86,43.16,33.43,-40.44,30.7,50.65,39.95,6.832,32.08,45.3,52.72,34.81,2.904,72.14,34.12,0,0,0,0,0,0,0,0,0,0,0,0,0,0,0,0,
321,87.56,45.36,35.6,12.91,3.245,46.18,62.21,28.26,24.73,5.713,12.78,0.4656,3.367,-5.823,2.124,11.08,0,0,0,0,0,0,0,0,0,0,0,0,0,0,0,0,
322,37.36,-6.404,46.1,36.32,75.17,38.11,7.742,62.22,20.72,-8.815,0.3823,-39.5,-24.93,-19.22,5.17,15.44,0,0,0,0,0,0,0,0,0,0,0,0,0,0,0,0,
323,11.64,-16.31,52.03,49.36,73.17,34.4,-13.61,44.02,29.46,7.316,39.23,7.389,26.38,14.41,57.96,54.7,0,0,0,0,0,0,0,0,0,0,0,0,0,0,0,0,
324,49.94,22.78,38.03,31.64,65.62,37.57,-2.369,-17.37,45.39,-17.29,33.79,20.55,60.61,35.4,47.08,55.7,0,0,0,0,0,0,0,0,0,0,0,0,0,0,0,0,
325,54.92,26.36,14.67,26.83,103.2,46.8,-5.327,-14.28,54.69,12.42,7.045,-9.724,56.53,30.4,25.77,43.33,0,0,0,0,0,0,0,0,0,0,0,0,0,0,0,0,
326,42.31,26.89,-9.307,-6.568,107.1,41.19,-11.08,-17.26,52.32,41.16,6.267,-4.627,57.54,26.67,35.85,57,0,0,0,0,0,0,0,0,0,0,0,0,0,0,0,0,
327,34.29,34.55,-30.75,-53.77,66.46,-4.749,-21.06,-76.26,39.07,-23.17,15.63,2.365,42.14,9.188,57.72,56.4,0,0,0,0,0,0,0,0,0,0,0,0,0,0,0,0,
328,8.648,23.77,-26.07,-28.77,50.81,-32.9,-25.99,-58.19,38.05,-34.16,36.58,-9.274,10.17,-14.34,72.47,23.2,0,0,0,0,0,0,0,0,0,0,0,0,0,0,0,0,
329,-15.12,-1.174,-20.32,-12.37,41.04,-22.78,-36.57,-9.784,37.57,-0.7611,46.46,-15.01,-25.04,-24.34,63.7,21.1,0,0,0,0,0,0,0,0,0,0,0,0,0,0,0,0,
330,-16.32,-30.05,-34.89,-48.76,40.7,-5.998,-50.98,-53.97,53.42,-21.47,70.31,7.418,-33.28,-19.4,75.69,59.08,0,0,0,0,0,0,0,0,0,0,0,0,0,0,0,0,
331,10.56,-31.96,-16.84,-36.88,78.73,14.7,-33.64,-77.26,94.89,-23.33,120.7,48.4,-5.851,-18.07,96,41.26,0,0,0,0,0,0,0,0,0,0,0,0,0,0,0,0,
332,29.96,-25.55,17.96,-6.976,88.29,12.83,-18.04,-26.37,97.67,-3.122,127.9,67.6,14.21,-14.05,88.66,15.96,0,0,0,0,0,0,0,0,0,0,0,0,0,0,0,0,
333,26.39,-23.55,15.22,-3.176,73.97,2.868,-14.41,-0.6147,77.95,-9.956,110,66.53,31.99,16.92,95.69,66.52,0,0,0,0,0,0,0,0,0,0,0,0,0,0,0,0,
334,26.41,0.6875,12.61,2.15,74.47,13.21,7.056,-0.6828,66.26,-20.67,81.93,27.76,31.14,14.72,73.67,45.99,0,0,0,0,0,0,0,0,0,0,0,0,0,0,0,0,
335,-0.8794,-2.393,24.95,-21.35,58.37,5.774,14.35,10.77,31.06,-6.434,18.54,-49.99,-12.45,-33.72,4.953,-46.86,0,0,0,0,0,0,0,0,0,0,0,0,0,0,0,0,
336,-39.23,-26.04,-0.0564,-24.82,64.03,-3.832,7.005,8.29,18.46,21.35,-8.793,-81.08,-28.65,-39.41,-12.5,-29.23,0,0,0,0,0,0,0,0,0,0,0,0,0,0,0,0,
337,-30.97,-7.154,-43.56,15.63,78.3,3.682,1.735,-9.799,39.53,6.637,1.169,-67.05,-6.799,-17.99,7.065,19.95,0,0,0,0,0,0,0,0,0,0,0,0,0,0,0,0,
338,-23.28,2.341,-32.68,-7.037,36.74,-8.645,-18.94,-14.34,34.16,-15.96,-6.84,-59.39,10.73,-5.733,23.55,20,0,0,0,0,0,0,0,0,0,0,0,0,0,0,0,0,
339,-35.85,-17.06,-3.811,-54.99,19.27,-21.2,-34.76,-45.49,24.73,-2.622,8.684,-28.49,36.46,31.13,62.8,71.02,0,0,0,0,0,0,0,0,0,0,0,0,0,0,0,0,
340,-24.54,-15.25,-25.98,-48.13,43.12,-20.5,-34.43,-109.7,30.19,-20.43,38.33,4.885,47.8,53.71,76.59,100.3,0,0,0,0,0,0,0,0,0,0,0,0,0,0,0,0,
341,-12.55,-9.57,-27.57,-48.58,31.31,-30.96,-38.32,-88.56,24.15,-33.92,32.85,-8.298,26.74,32.59,32.72,38.82,0,0,0,0,0,0,0,0,0,0,0,0,0,0,0,0,
342,-30.92,-21.05,14.16,-57.15,22.77,-26.03,-50.62,-20.38,18.97,-5.768,35.18,-21.56,16.07,22.8,16.05,27.81,0,0,0,0,0,0,0,0,0,0,0,0,0,0,0,0,
343,-40.32,-26.87,-6.945,-29.1,41.03,14.49,-59.51,-46.45,34.84,-1.177,77.02,7.015,25.18,32.45,81.88,74.25,0,0,0,0,0,0,0,0,0,0,0,0,0,0,0,0,
344,-6.085,-11.93,-43.43,-6.161,45.34,43.23,-44.36,-80.52,56.03,9.668,106.9,35.33,29.12,29.76,141.9,70.39,0,0,0,0,0,0,0,0,0,0,0,0,0,0,0,0,
345,28.52,8.859,16.07,-15.12,50.27,27.17,-17.79,-44.68,61.2,15.86,101.5,39.27,33.29,29.57,121.9,71.39,0,0,0,0,0,0,0,0,0,0,0,0,0,0,0,0,
346,38.1,21.08,82.28,-22.27,63.9,14.13,-9.88,-14.18,68.33,-21.44,103,50.1,47.1,41.66,93.91,100.2,0,0,0,0,0,0,0,0,0,0,0,0,0,0,0,0,
347,54.69,22.74,64.71,-10.45,62.38,32.53,-15.53,-20.33,77.5,-20.68,105.8,59.21,42.21,34.83,99.67,74.37,0,0,0,0,0,0,0,0,0,0,0,0,0,0,0,0,
348,62.01,7.247,42.09,-8.436,58.37,42.78,-15.71,-66.86,63.43,0.0194,93.15,58.62,29.13,29.24,101.3,48.23,0,0,0,0,0,0,0,0,0,0,0,0,0,0,0,0,
349,59.25,7.575,39.64,-34.92,68.51,46.47,-8.699,-86.46,62.96,-0.4901,103.2,77.5,47.52,52.24,100.5,63.1,0,0,0,0,0,0,0,0,0,0,0,0,0,0,0,0,
350,71.87,32.83,-6.313,-53.98,69.69,54.04,-22.09,-26.28,83.06,22.54,111.7,81.68,55.68,50.32,103.2,47.23,0,0,0,0,0,0,0,0,0,0,0,0,0,0,0,0,
351,62.76,27.8,-28.08,-38.6,58.36,42.49,-46.81,-15.97,75.73,15.07,92.68,61.4,43.35,31.54,114.1,43.83,0,0,0,0,0,0,0,0,0,0,0,0,0,0,0,0,
352,42.3,14.3,17.43,-27.25,50.28,25.98,-41.23,-78.12,59.22,-17.7,88.59,69.74,60.44,45.34,120.3,72.84,0,0,0,0,0,0,0,0,0,0,0,0,0,0,0,0,
353,52.7,30.24,21.37,-34.62,43.45,21.86,-28.07,-73.02,60.34,3.317,87.79,82.43,72.45,48.56,89.4,54.64,0,0,0,0,0,0,0,0,0,0,0,0,0,0,0,0,
354,68.12,35.8,15.57,-15.06,58.51,25.62,-21.92,-10.93,65.7,11.49,79.69,69.35,52.21,32.43,66.83,36.6,0,0,0,0,0,0,0,0,0,0,0,0,0,0,0,0,
355,59.12,16.13,37.92,-2.932,69.07,19.41,-19.99,3.183,56.62,-3.575,84.08,50.17,35.75,32.1,76.3,53.71,0,0,0,0,0,0,0,0,0,0,0,0,0,0,0,0,
356,25.11,-4.494,-29.05,-53.26,24.45,-2.908,-45.59,-45.46,34.33,28.78,84.32,34.59,39.85,38.47,69.37,51.79,0,0,0,0,0,0,0,0,0,0,0,0,0,0,0,0,
357,9.974,4.879,-91.89,-84,-0.7094,-11.36,-58.36,-83.67,38.34,33.94,88.5,37.27,58.34,47.88,65.63,49.96,0,0,0,0,0,0,0,0,0,0,0,0,0,0,0,0,
358,15.7,15.91,-45.73,-59.49,17.93,-38.46,-57.72,-70.88,46.66,-18.75,93.64,36.94,50.75,47.16,84.13,56.32,0,0,0,0,0,0,0,0,0,0,0,0,0,0,0,0,
359,-22.77,-28.5,-38.62,-58.76,-0.1131,-93.18,-94.94,-63.15,14.24,-34.4,79.12,14.84,21.02,39.67,80.03,55.51,0,0,0,0,0,0,0,0,0,0,0,0,0,0,0,0,
360,-56.05,-58.55,-57.77,-76.9,-20.65,-90,-110,-69.07,-13.53,-21.85,75.54,9.203,21.96,44.55,71.89,59.35,0,0,0,0,0,0,0,0,0,0,0,0,0,0,0,0,
361,-39.06,-35.09,-27.06,-68.21,-9.005,-59.32,-79.33,-43.24,-20.35,-17.56,84.03,18.32,31.83,38.23,104.1,58.25,0,0,0,0,0,0,0,0,0,0,0,0,0,0,0,0,
362,-27.87,-26.96,-49.7,-41.92,-6.231,-50.85,-56.51,-21.45,-21.65,3.882,77.89,20.54,36.61,43.28,108.7,69.89,0,0,0,0,0,0,0,0,0,0,0,0,0,0,0,0,
363,-5.251,-18.23,-80.89,-25.98,-1.276,-26.2,-34.81,-37.72,-0.5807,7.747,74.86,28.83,52.06,69.11,61.95,81.36,0,0,0,0,0,0,0,0,0,0,0,0,0,0,0,0,
364,22.65,-0.25,-29.67,-32.91,7.956,-23.59,-23.34,-59.57,15.96,-5.327,91.83,48.48,51.85,56.25,84.66,52.89,0,0,0,0,0,0,0,0,0,0,0,0,0,0,0,0,
365,17.31,-2.379,-6.448,-24.47,8.644,-38.7,-26.47,-66.68,14.23,15.18,101.1,63.38,45.93,34.72,133.3,44.94,0,0,0,0,0,0,0,0,0,0,0,0,0,0,0,0,
366,17.76,2.659,-40.68,-2.923,12.55,-21.38,-15.55,-50.2,17.86,22.68,79.33,53.59,50.6,42.53,90.19,73.82,0,0,0,0,0,0,0,0,0,0,0,0,0,0,0,0,
367,12.95,-3.787,-36.6,-19.19,15.6,-18.98,-14.59,-11.81,19.2,8.391,70.94,45.23,45.24,35.73,68.33,68.78,0,0,0,0,0,0,0,0,0,0,0,0,0,0,0,0,
368,-0.0334,-27.02,-32.15,-40.28,13.17,-22.09,-30.99,-7.328,14.21,10.73,87.55,56.02,33.95,22.49,84.96,48.36,0,0,0,0,0,0,0,0,0,0,0,0,0,0,0,0,
369,14.61,-17.34,-79.56,-33.39,5.596,-2.57,-30.92,-40.27,12.65,-2.776,90.92,58.41,38.65,37.07,74.33,64.99,0,0,0,0,0,0,0,0,0,0,0,0,0,0,0,0,
370,18.69,6.432,-77.57,-23.48,17.21,-0.8419,-13.6,-27.25,21.98,-1.112,114.2,70.97,65.94,57.69,130.6,90.56,0,0,0,0,0,0,0,0,0,0,0,0,0,0,0,0,
371,16.11,10.86,-12.72,-8.635,48.24,-2.114,-7.668,0.4489,32.25,30,136.5,78.41,69.93,52.68,145.9,71.5,0,0,0,0,0,0,0,0,0,0,0,0,0,0,0,0,
372,27.9,-2.028,-6.5,6.896,42.82,3.895,-19.86,-21.45,28.69,10.96,104.6,42.86,39.07,46.15,36.41,38,0,0,0,0,0,0,0,0,0,0,0,0,0,0,0,0,
373,10.85,-19.67,-38.44,-3.534,24.47,-11.07,-25.23,-24.95,24.12,-17.87,82.02,14.98,39.52,68.74,23.45,57.85,0,0,0,0,0,0,0,0,0,0,0,0,0,0,0,0,
374,-22.62,-29.62,-31.86,-37.81,32.8,-33.65,-36.46,-27.04,7.918,-1.212,67.81,-4.726,44.3,70.98,69.03,87.21,0,0,0,0,0,0,0,0,0,0,0,0,0,0,0,0,
375,-29.61,-34.71,-15.12,-40.44,39.57,-27.64,-52.55,-70.04,-4.428,11.04,47.58,-19.36,19.18,44.55,41.42,65.69,0,0,0,0,0,0,0,0,0,0,0,0,0,0,0,0,
376,-8.541,-22.11,-22.37,4.87,53.64,9.647,-28.24,-61.27,29.12,17.69,84.69,17.73,20.92,44.91,53.92,31.64,0,0,0,0,0,0,0,0,0,0,0,0,0,0,0,0,
377,11.52,-6.102,-54.95,3.792,63.47,18.19,-1.512,-30.25,48.46,21.71,107.7,33.97,22.77,47.63,65.65,16.03,0,0,0,0,0,0,0,0,0,0,0,0,0,0,0,0,
378,10.61,-10.64,-49.1,-33.81,51.97,-1.819,1.642,-37.12,34.73,8.018,82.54,10.41,2.056,40.92,41.62,15.03,0,0,0,0,0,0,0,0,0,0,0,0,0,0,0,0,
379,18.03,-3.323,9.51,-6.273,53.7,11.46,17.02,-2.682,51.15,17.37,100.7,27.06,11.77,53.76,81.04,22.76,0,0,0,0,0,0,0,0,0,0,0,0,0,0,0,0,
380,25.38,4.956,9.38,18.36,43.12,18.38,3.928,34.65,57.01,49.37,107,33.38,27.85,58.63,83.75,30.66,0,0,0,0,0,0,0,0,0,0,0,0,0,0,0,0,
381,11.28,-2.299,-24.19,-13.06,24.58,4.563,-34.52,5.413,29.51,49.9,58.15,11.73,25.21,52.91,22.92,37.17,0,0,0,0,0,0,0,0,0,0,0,0,0,0,0,0,
382,16.56,8.569,-23.93,-17.71,48.18,20.6,-29.63,-24.9,25.6,16.46,48.69,28.96,35.85,56.1,33.86,30.51,0,0,0,0,0,0,0,0,0,0,0,0,0,0,0,0,
383,33.76,15.26,-48.8,-0.2914,60.56,31.72,-4.466,-24.83,34.76,2.114,79.53,44.29,54.79,57.17,67,29.52,0,0,0,0,0,0,0,0,0,0,0,0,0,0,0,0,
384,31.93,9.579,-50.37,-3.388,33.78,19.88,4.957,-4.768,28.32,16.69,84.64,24.47,49.77,54.32,60.27,54.48,0,0,0,0,0,0,0,0,0,0,0,0,0,0,0,0,
385,25.61,15.69,-2.633,-14.38,21.97,6.463,4.229,6.495,19.61,13.96,80.33,20.38,24.51,43.77,66.27,52.43,0,0,0,0,0,0,0,0,0,0,0,0,0,0,0,0,
386,14.9,9.185,-5.791,-34.16,25.84,-16.91,0.8927,-23.7,22.49,5.133,92.37,35.16,22.19,37.15,64.2,29.69,0,0,0,0,0,0,0,0,0,0,0,0,0,0,0,0,
387,7.811,-1.078,-33.52,-45.67,20.49,-21.53,2.93,-33.87,26.83,13.64,79.33,26.65,33.57,47.97,43.99,51.78,0,0,0,0,0,0,0,0,0,0,0,0,0,0,0,0,
388,13.39,4.902,-43.21,-23.42,20.52,-5.017,-8.432,-3.165,22.22,6.365,47,4.694,21.47,51.33,45.94,65.18,0,0,0,0,0,0,0,0,0,0,0,0,0,0,0,0,
389,10.07,3.028,-58.51,-11.22,31.48,-19.78,-38.08,-14.97,22.03,-2.746,51.75,-1.114,12.48,41.73,31.39,22.6,0,0,0,0,0,0,0,0,0,0,0,0,0,0,0,0,
390,-4.891,-4.178,-64.29,-55.43,16.45,-49.2,-50.81,-63.86,14.39,15.81,55.55,-3.567,12.49,35.67,6.733,9.907,0,0,0,0,0,0,0,0,0,0,0,0,0,0,0,0,
391,-0.6001,7.619,-73.27,-81.78,-2.474,-34,-18.69,-64.93,9.041,30.97,51.5,14.18,11.97,36.43,47.31,44.7,0,0,0,0,0,0,0,0,0,0,0,0,0,0,0,0,
392,36.1,28.63,-71.04,-33.67,26.04,1.939,25.23,-18.35,34.66,16.94,82.81,46.99,21.5,35.89,75.34,45.19,0,0,0,0,0,0,0,0,0,0,0,0,0,0,0,0,
393,46.67,15.65,-34.77,-8.411,36.97,0.4005,6.988,18.51,35.34,-0.6484,76.36,22.67,15.51,32.55,29.27,31.61,0,0,0,0,0,0,0,0,0,0,0,0,0,0,0,0,
394,10.19,-12.55,-28.67,-23.33,11.79,-3.774,-41.25,27.15,8.165,15.51,32.51,-15.72,11.66,46.47,19.57,47.39,0,0,0,0,0,0,0,0,0,0,0,0,0,0,0,0,
395,1.561,5.548,-50.12,-7.176,22.95,9.868,-40.14,8.934,15.65,32.1,33.86,-4.024,35.28,59.19,41.74,42.16,0,0,0,0,0,0,0,0,0,0,0,0,0,0,0,0,
396,21.98,31.58,-36.57,-2.105,43.28,-3.169,-19.81,-3.68,25.7,26.21,33.81,-2.868,43.22,47.05,22.3,26.74,0,0,0,0,0,0,0,0,0,0,0,0,0,0,0,0,
397,33.24,29.51,1.362,-5.748,57.13,0.99,-6.216,25,25.96,39.7,24.8,-10.12,37.77,41.55,11.82,41.92,0,0,0,0,0,0,0,0,0,0,0,0,0,0,0,0,
398,46.65,32.07,29.45,20.57,77.79,38.04,16.19,32.5,37.65,38.47,54.1,10.17,39.11,39.05,27.51,44.56,0,0,0,0,0,0,0,0,0,0,0,0,0,0,0,0,
399,41.63,32.54,37.84,18.82,57.38,36.74,41.9,-2.665,35.98,22.05,72.91,22.31,35.07,26.45,48.36,36.64,0,0,0,0,0,0,0,0,0,0,0,0,0,0,0,0,
400,26.58,33.03,46.86,4.228,31.23,29.69,61.92,-1.651,35.56,50.27,65.2,25.36,30.97,24.25,66.39,40.58,0,0,0,0,0,0,0,0,0,0,0,0,0,0,0,0,
401,29.18,33.98,61.12,23.38,42.92,45.81,43.9,11.81,38.24,42.05,61.7,24.39,26.48,27.61,58.78,36.72,0,0,0,0,0,0,0,0,0,0,0,0,0,0,0,0,
402,21.62,13.56,51.18,38.49,43.42,33.85,8.669,-12.08,21.15,-14.71,49.18,6.673,25.72,36.16,46.94,40.71,0,0,0,0,0,0,0,0,0,0,0,0,0,0,0,0,
403,10.47,1.21,28.26,29.19,22.41,5.319,7.006,-31.04,10.09,-16.65,25.74,-3.431,22.62,30.13,33.1,33.97,0,0,0,0,0,0,0,0,0,0,0,0,0,0,0,0,
404,8.058,-1.092,-5.813,8.246,-4.016,-11.06,1.133,-28.42,1.328,-2.466,14.8,5.755,3.596,-4.133,23.94,-0.7747,0,0,0,0,0,0,0,0,0,0,0,0,0,0,0,0,
405,-0.1726,-4.51,-56.06,5.887,-22.19,-18.53,-6.982,-18.59,-19.11,-0.5205,11.96,8.612,-5.819,-6.316,43.73,-8.117,0,0,0,0,0,0,0,0,0,0,0,0,0,0,0,0,
406,-2.282,13.97,-37.67,12.36,-14.55,-18.95,15.04,-8.253,-18.74,17.47,5.538,-4.485,-2.749,21.07,29.91,4.854,0,0,0,0,0,0,0,0,0,0,0,0,0,0,0,0,
407,4.449,29.59,52.45,-1.299,5.406,-11.32,19.98,10.19,8.681,18.12,24.74,4.778,9.685,30.07,16.51,4.522,0,0,0,0,0,0,0,0,0,0,0,0,0,0,0,0,
408,17.25,27.08,53.37,11.21,20.06,1.859,-4.539,21.45,24.42,8.133,54.77,34.43,28.13,32.04,70.96,-3.714,0,0,0,0,0,0,0,0,0,0,0,0,0,0,0,0,
409,25.16,12.28,-29.81,13.88,12.65,-6.974,-32.98,-25.81,14.86,-4.234,43.9,34.05,18.08,19.11,72.84,-12.65,0,0,0,0,0,0,0,0,0,0,0,0,0,0,0,0,
410,19.81,-13.17,-24.58,-42.25,0.541,-24.62,-46.22,-61.53,19.83,-7.319,36.15,36.16,17.08,0.6309,18.6,14.6,0,0,0,0,0,0,0,0,0,0,0,0,0,0,0,0,
411,25.67,-4.751,18.15,-45.4,12.19,-17.37,-23.66,-19.89,36.37,29.01,46.67,58.17,45.22,9.662,29.22,49.94,0,0,0,0,0,0,0,0,0,0,0,0,0,0,0,0,
412,32,30.07,-11.14,0.7889,18.76,-13.33,0.2394,-7.082,27.06,33,33.29,52.73,54.42,32.66,62.99,48.7,0,0,0,0,0,0,0,0,0,0,0,0,0,0,0,0,
413,39.49,53.47,-16.78,-13.11,26.48,-11.92,-6.921,-30.42,29.3,-0.5575,40.38,45.97,75.18,67.19,60.74,68.04,0,0,0,0,0,0,0,0,0,0,0,0,0,0,0,0,
414,65.71,75.07,-8.302,-46.33,42.92,-7.516,-28.22,-18.54,52.79,14.13,59.54,39.82,92.11,89.8,27.95,77.09,0,0,0,0,0,0,0,0,0,0,0,0,0,0,0,0,
415,63.59,74.72,-36.18,-35.61,31.72,-17.82,-22.12,-8.18,52.55,28.52,41.47,7.34,52.21,69.68,-3.363,27.08,0,0,0,0,0,0,0,0,0,0,0,0,0,0,0,0,
416,35.7,51.68,-4.191,11.26,21.05,-1.114,36.99,5.986,39.56,9.682,30.91,-0.7197,27.11,50.62,7.783,9.85,0,0,0,0,0,0,0,0,0,0,0,0,0,0,0,0,
417,17.65,37.91,0.9016,38.99,16.71,32.12,75.45,32.56,27.74,31.37,26.95,6.659,29.55,44.62,6.645,13.92,0,0,0,0,0,0,0,0,0,0,0,0,0,0,0,0,
418,1.668,33.26,-73.09,15.03,4.542,32.4,45.95,30.44,23.23,69.35,8.915,-12.41,4.498,28.31,-18.87,-25.3,0,0,0,0,0,0,0,0,0,0,0,0,0,0,0,0,
419,11.58,37.3,-37.21,11.01,26.01,18.43,15.96,14.09,31.93,46.12,13.3,-19.22,-8.684,26.48,13.6,-23.08,0,0,0,0,0,0,0,0,0,0,0,0,0,0,0,0,
420,31.13,37.27,34.55,26.92,44.93,-2.846,15.88,-7.761,31.37,22.51,26.45,-4.817,8.447,37.53,54.46,30.28,0,0,0,0,0,0,0,0,0,0,0,0,0,0,0,0,
421,26.82,46.16,0.0079,10.87,34.95,0.629,39.86,-9.415,32.33,69.56,18.43,-5.765,14.98,32.09,14.15,29.69,0,0,0,0,0,0,0,0,0,0,0,0,0,0,0,0,
422,20.63,72.3,-20.89,17.03,40.16,37.83,65,33.45,32.3,77.48,1.49,-16.69,11.82,26.74,-24.97,0.0641,0,0,0,0,0,0,0,0,0,0,0,0,0,0,0,0,
423,-0.2036,58.53,-23.01,34.5,31.33,21.84,49.88,49.38,13.06,14.88,-3.8,-5.156,29.11,41.53,16.71,17.98,0,0,0,0,0,0,0,0,0,0,0,0,0,0,0,0,
424,-14.99,32.48,-49.31,9.632,2.254,-22.83,28.98,17.74,11.73,17.85,-2.194,16.1,55.32,52.16,40.6,43.55,0,0,0,0,0,0,0,0,0,0,0,0,0,0,0,0,
425,7.869,36.91,-44.24,-8.561,-5.311,-20.59,24.76,-11.44,29.65,43.92,5.99,23.9,57.03,47.41,21.25,43.75,0,0,0,0,0,0,0,0,0,0,0,0,0,0,0,0,
426,22.37,26.16,-38.52,-0.8176,10.51,-9.801,16.25,-16.76,46.03,22.11,51.78,44.16,53.5,44.96,62.24,49.38,0,0,0,0,0,0,0,0,0,0,0,0,0,0,0,0,
427,29.82,26.43,-20.81,15.34,45.07,4.831,30.14,18.46,61.04,36.1,71.2,50.91,58.47,39.37,84.08,55.59,0,0,0,0,0,0,0,0,0,0,0,0,0,0,0,0,
428,30.8,49.82,17.4,40.23,51.27,35.32,57.76,55.64,42.65,53.03,6.293,16.41,56.52,39.72,25.34,61.43,0,0,0,0,0,0,0,0,0,0,0,0,0,0,0,0,
429,7.075,49.37,-3.066,47.01,23.04,37.8,61.55,51.59,9.03,48.42,-26.85,5.627,59.3,50.48,16.7,63.1,0,0,0,0,0,0,0,0,0,0,0,0,0,0,0,0,
430,16.01,55.08,-18.78,40.09,34.02,22.83,52.28,46.25,11.74,83.63,0.5064,10.84,53.38,35.52,23.58,33.92,0,0,0,0,0,0,0,0,0,0,0,0,0,0,0,0,
431,48.1,62.33,25.94,39.41,54.61,21.48,44.44,54.94,31.84,77.27,6.479,-2.614,32.53,22.91,-8.333,24.58,0,0,0,0,0,0,0,0,0,0,0,0,0,0,0,0,
432,45.14,37.39,27.86,24.3,32.42,20.22,41.46,42.49,33.17,18.06,4.633,-1.38,22.23,33.31,9.39,39.25,0,0,0,0,0,0,0,0,0,0,0,0,0,0,0,0,
433,23.33,16.81,-8.222,21.12,16.75,18.34,41.99,6.715,13.18,13.58,-10.49,-14.08,9.681,21.48,10.34,9.777,0,0,0,0,0,0,0,0,0,0,0,0,0,0,0,0,
434,-2.572,13.13,11.22,64.76,30.94,23.79,51.84,6.335,3.602,27.56,-34.88,-40.54,1.114,21.12,-38.87,-6.439,0,0,0,0,0,0,0,0,0,0,0,0,0,0,0,0,
435,-20.05,12.52,42.02,81.82,38.53,19.49,60.79,51.34,10.62,19.28,-17.99,-32.9,2.409,44.74,-30.36,16.29,0,0,0,0,0,0,0,0,0,0,0,0,0,0,0,0,
436,-15.67,15.08,2.417,37.78,26,11.91,38.26,37.75,7.77,35.59,0.6955,-22.16,-5.604,38,1.631,15.94,0,0,0,0,0,0,0,0,0,0,0,0,0,0,0,0,
437,2.973,30.31,-41.95,28.37,29.17,26.65,18.31,-10.13,18.05,59.56,4.477,-7.498,8.577,31.35,17.72,35.83,0,0,0,0,0,0,0,0,0,0,0,0,0,0,0,0,
438,23.63,56.3,-22.91,52.43,44.79,31.21,18.59,27.46,32.72,55.76,17.76,15.04,29.81,36.68,40.88,64.89,0,0,0,0,0,0,0,0,0,0,0,0,0,0,0,0,
439,11.3,49.87,-15.77,22.92,18.91,5.701,3.983,61.89,15.34,53.46,6.674,-8.408,13.16,25.56,15.36,29.29,0,0,0,0,0,0,0,0,0,0,0,0,0,0,0,0,
440,-11.26,27.19,-21.39,-11.78,-3.273,-0.9826,19.95,41.57,11.6,74.41,-14.2,-42.18,2.674,25.88,-42.03,-3.707,0,0,0,0,0,0,0,0,0,0,0,0,0,0,0,0,
441,10.52,43.86,28.77,7.389,30.59,17.64,78.88,68.25,29.77,80.42,-4.884,-26.77,15.59,31.39,-44.39,4.318,0,0,0,0,0,0,0,0,0,0,0,0,0,0,0,0,
442,40.07,67.76,39.6,36.04,44.69,30.55,98.19,69.07,26.47,56.89,5.765,6.496,24.57,25.31,-21.47,-3.975,0,0,0,0,0,0,0,0,0,0,0,0,0,0,0,0,
443,56.21,74.09,-10.62,48.61,24.75,30.64,76.13,7.764,18.84,45.08,-3.565,24.97,44.31,31.81,-22.88,-4.737,0,0,0,0,0,0,0,0,0,0,0,0,0,0,0,0,
444,82.58,88.61,11.52,47.54,31.29,27.17,54.8,33.53,23.74,49.86,-2.81,44.96,82.36,45.88,2.925,37.98,0,0,0,0,0,0,0,0,0,0,0,0,0,0,0,0,
445,91.09,98.29,30.83,47.11,28.03,37.1,26.04,90.45,26.85,46.28,15.18,70.32,104.6,44.68,50.15,67.3,0,0,0,0,0,0,0,0,0,0,0,0,0,0,0,0,
446,67.36,79.88,-40.99,56.44,-1.177,27.61,0.7568,57.36,23.81,41.44,18.06,65.1,79.9,27.17,39.3,46.89,0,0,0,0,0,0,0,0,0,0,0,0,0,0,0,0,
447,44.73,54.67,-49.69,35.78,5.968,-14.99,11.1,19.33,26.15,43.58,20.29,37.22,46.83,26.91,24.03,29.99,0,0,0,0,0,0,0,0,0,0,0,0,0,0,0,0,
448,29.29,51.19,-15.44,-12.24,19.48,-22.88,29.11,1.224,30.99,43.03,29.41,19.44,44.15,48.47,35.44,34.64,0,0,0,0,0,0,0,0,0,0,0,0,0,0,0,0,
449,-0.7332,47.99,-71.35,-33.74,1.954,-5.455,8.176,-17.45,24.13,40.47,9.681,-6.19,34.32,40.15,-15.79,12.96,0,0,0,0,0,0,0,0,0,0,0,0,0,0,0,0,
450,-22.11,26.19,-89.4,-37.31,14.47,-15.17,-19.98,0.8882,30.15,32.62,0.5604,-24.02,13.66,12.62,-47.28,-17.98,0,0,0,0,0,0,0,0,0,0,0,0,0,0,0,0,
451,-2.857,7.677,-47.27,-51.71,27.56,-22.24,-27.13,-16.44,38.5,-0.1999,15.46,-10.7,6.224,7.912,9.538,-9.087,0,0,0,0,0,0,0,0,0,0,0,0,0,0,0,0,
452,21.79,0.9346,-65.79,-42.28,-4.407,-8.897,-30.81,-51.87,14.34,-28.05,5.591,1.578,3.898,18.79,16.28,21.79,0,0,0,0,0,0,0,0,0,0,0,0,0,0,0,0,
453,35.09,13.48,-60.67,-0.7399,1.466,7.237,-21.61,-3.309,1.111,-22.5,4.596,10.39,11.08,33.58,-3.14,36.57,0,0,0,0,0,0,0,0,0,0,0,0,0,0,0,0,
454,47.97,24.28,-45.99,8.758,24.53,19.26,-17.89,-2.494,5.243,-27.27,14.59,20.94,12.05,28.6,40.59,21.76,0,0,0,0,0,0,0,0,0,0,0,0,0,0,0,0,
455,44.42,6.681,-94.06,-2.45,3.675,28.64,-17.56,-63.97,1.258,-14.51,7.037,23.26,3.601,7.548,48.02,-0.7162,0,0,0,0,0,0,0,0,0,0,0,0,0,0,0,0,
456,41.28,16.31,-63.58,5.222,8.477,24.83,26.1,-17.23,11.72,31.58,15.93,18.74,12.21,7.749,10.44,5.599,0,0,0,0,0,0,0,0,0,0,0,0,0,0,0,0,
457,38.89,42.13,15.96,-19.96,19.66,-15.52,45.48,29.87,16.37,13.7,20.08,4.324,20.29,16.28,14.58,24.6,0,0,0,0,0,0,0,0,0,0,0,0,0,0,0,0,
458,24.34,18.13,18.35,-48.89,-7.267,-44.02,-6.007,-3.561,12.94,-10.74,9.48,-3.459,18.01,14.71,24.04,3.632,0,0,0,0,0,0,0,0,0,0,0,0,0,0,0,0,
459,25.55,-4.663,-3.614,-33.86,-13.27,-24.06,-46.55,5.983,14.44,27.58,11.66,-18.42,3.967,1.563,4.73,-37.16,0,0,0,0,0,0,0,0,0,0,0,0,0,0,0,0,
460,10.85,-4.334,-44.09,-37.98,-11.43,-23.16,-49.71,14,-8.87,2.941,-1.504,-48.21,-10.75,-8.375,-8.681,-18.72,0,0,0,0,0,0,0,0,0,0,0,0,0,0,0,0,
461,-27.83,-8.198,-54.5,-21.62,-17.19,-36.78,-25.97,-2.884,-17.22,-54.01,-13.52,-35.53,16.77,15.67,-10.72,25.86,0,0,0,0,0,0,0,0,0,0,0,0,0,0,0,0,
462,-39.88,8.884,1.727,25.62,0.35,-16,16.41,24.43,-5.18,-25,-7.207,-15.74,37.2,33.67,-5.482,15.2,0,0,0,0,0,0,0,0,0,0,0,0,0,0,0,0,
463,-52.1,27.53,-9.18,-4.329,16.05,2.402,39.08,18.09,-15.45,12.1,-6.214,-28.3,12.71,17.95,7.764,-2.401,0,0,0,0,0,0,0,0,0,0,0,0,0,0,0,0,
464,-54.77,28.78,-38.66,-32.64,22.8,-2.617,36.2,-19.81,5.428,8.676,13.93,-7.524,10.11,8.97,12.42,3.601,0,0,0,0,0,0,0,0,0,0,0,0,0,0,0,0,
465,-10.56,35.97,3.156,3.438,27.91,-10.83,13.7,0.9018,47.84,10.72,44.78,23.77,28.75,4.71,33.78,4.272,0,0,0,0,0,0,0,0,0,0,0,0,0,0,0,0,
466,33.94,46.31,12.96,-0.4222,35.26,4.567,-3.628,16.86,58.54,13.38,64.23,36.07,46.25,7.195,78.4,29.58,0,0,0,0,0,0,0,0,0,0,0,0,0,0,0,0,
467,67.28,52.25,8.492,-16.79,58.1,39.41,5.676,-14.96,71.71,2.654,81.51,68.73,63.45,20,75.4,48.31,0,0,0,0,0,0,0,0,0,0,0,0,0,0,0,0,
468,92.46,38.41,27.59,4.712,68.48,50.87,6.765,-28.86,76.84,4.421,72.74,81.9,48.3,14.3,49.5,21.38,0,0,0,0,0,0,0,0,0,0,0,0,0,0,0,0,
469,96.84,19.93,18.43,17.4,69.98,56.15,13.57,-24.02,59.1,18.24,52.8,66.31,31.5,15.96,62.1,11.25,0,0,0,0,0,0,0,0,0,0,0,0,0,0,0,0,
470,98.37,26.36,8.361,8.116,63.48,60.18,31.49,-34.69,47.99,-9.025,52.76,68.28,44.15,31.91,58.12,20.45,0,0,0,0,0,0,0,0,0,0,0,0,0,0,0,0,
471,84.51,34.71,-3.416,-25.66,15.97,30.4,11.45,-17.84,34.59,-30.89,54.3,61,51.22,28.79,38.23,15.66,0,0,0,0,0,0,0,0,0,0,0,0,0,0,0,0,
472,57.04,48.55,-15.77,-44.78,-13.98,6.901,-13.91,24.05,18.84,2.919,51.38,23.24,39.59,19.56,37.29,10.64,0,0,0,0,0,0,0,0,0,0,0,0,0,0,0,0,
473,29.85,51.67,-14.08,-20.92,-0.4827,5.891,-19.59,-3.349,9.169,-16.72,46.82,-9.747,14.15,7.845,22.97,5.821,0,0,0,0,0,0,0,0,0,0,0,0,0,0,0,0,
474,6.095,13.26,-60.2,-21.57,2.912,14.55,-26.35,-56.86,9.645,-51.07,50.88,-12.4,-0.3094,-2.629,11.51,0.123,0,0,0,0,0,0,0,0,0,0,0,0,0,0,0,0,
475,16.04,3.13,-84.48,-43.15,12.92,33.16,-18.8,-34.97,23.33,6.804,60.51,-11.4,3.572,9.223,2.755,-17.82,0,0,0,0,0,0,0,0,0,0,0,0,0,0,0,0,
476,2.593,25.34,-9.617,-30.57,29.42,10.45,-16.77,-11.23,24.24,27.74,55.96,-24.78,1.797,29.6,-16.87,-32.05,0,0,0,0,0,0,0,0,0,0,0,0,0,0,0,0,
477,-56.23,24.14,18.24,-17.09,14.22,-30.81,-30.61,-30.75,18.38,-13.38,54,-17.36,12.31,35.7,-10.97,-9.908,0,0,0,0,0,0,0,0,0,0,0,0,0,0,0,0,
478,-41.93,32.02,-33.68,-25.86,-11.65,-27.82,-31.35,-35.16,19.27,-14.83,44.22,-4.147,23.93,10.36,-6.098,-0.9713,0,0,0,0,0,0,0,0,0,0,0,0,0,0,0,0,
479,19.32,33.96,-17.49,-17.59,-7.86,-13.14,-22.34,-33.56,19.89,-10.64,22.92,-10.38,13.66,-23.43,-7.392,-12.86,0,0,0,0,0,0,0,0,0,0,0,0,0,0,0,0,
480,33.2,2.852,34.87,10.14,25.27,8.811,-2.905,-20.05,31.27,-0.6915,20.37,-9.303,9.842,-24.41,5.189,-1.852,0,0,0,0,0,0,0,0,0,0,0,0,0,0,0,0,
481,34.93,-17.87,4.998,11.69,31.11,34.42,13.31,15.56,28.95,11.16,8.105,-7.279,5.101,-17.66,3.036,9.299,0,0,0,0,0,0,0,0,0,0,0,0,0,0,0,0,
482,31.21,-25.2,-34.58,-6.065,8.783,25.84,6.502,-5.993,14.04,-23.26,0.7375,5.152,1.375,-21.13,25.03,20.21,0,0,0,0,0,0,0,0,0,0,0,0,0,0,0,0,
483,20.45,-21.82,-2.57,-2.859,22.63,16.45,-3.995,-71.8,25.81,-43.42,18.71,29.13,7.983,-24.7,44.59,9.049,0,0,0,0,0,0,0,0,0,0,0,0,0,0,0,0,
484,29.06,-3.14,25.31,6.744,38.62,17.64,-9.352,-53.57,29.95,-25.69,3.083,20.12,-3.955,-36.26,-3.214,-49.79,0,0,0,0,0,0,0,0,0,0,0,0,0,0,0,0,
485,25.88,11.8,27.23,1.272,22.4,3.603,-0.9703,23.08,15.61,-18.58,-12.47,12.22,-8.244,-42.44,-28.14,-65.21,0,0,0,0,0,0,0,0,0,0,0,0,0,0,0,0,
486,9.577,25.42,55.64,-14.18,24.88,-4.979,12.5,15.8,17.14,-22,5.15,24.69,0.1072,-46.34,-22.6,-39.94,0,0,0,0,0,0,0,0,0,0,0,0,0,0,0,0,
487,15.48,29.12,79.1,-8.958,40.65,4.02,6.465,-44.08,27.51,-24.25,20.34,33.16,-6.839,-48.27,-19.11,-50.39,0,0,0,0,0,0,0,0,0,0,0,0,0,0,0,0,
488,33.56,19.77,53.9,24.88,27.44,16.94,0.354,-50.99,37.49,-24.74,56.29,61.14,2.107,-20.8,36.97,-37.82,0,0,0,0,0,0,0,0,0,0,0,0,0,0,0,0,
489,24.45,15.34,7.204,5.151,-6.909,9.782,-10.56,-30.33,20.82,-28.79,56.45,54,10.54,3.897,42.11,7.501,0,0,0,0,0,0,0,0,0,0,0,0,0,0,0,0,
490,-21.23,7.46,4.868,-52.89,-20.49,-17.13,-31.02,-19.81,-22.21,-23.89,-24.88,-18.89,-4.675,0.4612,-52.67,12.23,0,0,0,0,0,0,0,0,0,0,0,0,0,0,0,0,
491,-49.74,-7.977,33.87,-34.88,-9.235,-27.44,-27.64,-35.99,-36.23,-17.23,-66.87,-55.9,-8.39,-8.794,-93.25,-8.499,0,0,0,0,0,0,0,0,0,0,0,0,0,0,0,0,
492,-37.94,-25.09,10.73,1.827,-19.09,-25.78,-21.44,-72.94,-28.55,-33.01,-49.38,-48.93,-7.722,-22.86,-69.19,-17.91,0,0,0,0,0,0,0,0,0,0,0,0,0,0,0,0,
493,-30.32,-35.79,-7.747,-15.73,-35.71,-33.5,-28.17,-60.8,-28.97,-28.37,-50.69,-53.74,-6.102,-26.97,-61.26,-11.91,0,0,0,0,0,0,0,0,0,0,0,0,0,0,0,0,
494,-38.42,-36.95,24.52,-20.94,-23.9,-38.18,-26.63,-16.81,-27.24,-24.34,-50.97,-56.27,3.014,-17.45,-58.97,-2.92,0,0,0,0,0,0,0,0,0,0,0,0,0,0,0,0,
495,-34.71,-44.09,14.48,1.51,-0.0091,-24.8,-19.98,-5.022,-18.32,-58.28,-26.78,-51.77,-3.853,-21.61,-51.08,-15.4,0,0,0,0,0,0,0,0,0,0,0,0,0,0,0,0,
496,-17.54,-48.17,11.51,5.082,27.34,-1.662,-16.04,-27.8,-2.552,-54.42,-5.364,-53.45,-22.31,-41.44,-53.92,-40.44,0,0,0,0,0,0,0,0,0,0,0,0,0,0,0,0,
497,-16.54,-50.9,47.91,-20.64,35.27,10.44,-26.11,-68.14,9.115,-38.11,3.744,-49.55,-35.63,-67.66,-52.69,-47.43,0,0,0,0,0,0,0,0,0,0,0,0,0,0,0,0,
498,-14.65,-51.73,15.4,-26.24,27,21.53,-19.25,-46.61,18.11,-39.33,17.14,-15.79,-25.76,-78.18,-14.89,-37.51,0,0,0,0,0,0,0,0,0,0,0,0,0,0,0,0,
499,22.44,-16,-0.6157,10.82,39.96,25.66,21.16,12.33,24.47,-6.957,12.03,12.58,-8.921,-68.52,-5.662,-45.35,0,0,0,0,0,0,0,0,0,0,0,0,0,0,0,0,
500,32.73,3.414,58.57,9.38,36.13,4.369,16.77,-11.08,1.187,-26.41,-42.24,-29.32,-36.04,-67.85,-67.57,-65.55,0,0,0,0,0,0,0,0,0,0,0,0,0,0,0,0,
501,-12.41,-35.49,51.78,-31.7,1.506,-4.243,-27.03,-39.68,-31.42,-70.83,-82.08,-84.95,-70.78,-63.7,-90.94,-53.36,0,0,0,0,0,0,0,0,0,0,0,0,0,0,0,0,
502,-49.85,-59.33,13.69,-38.05,-16.51,-18.19,-47.11,-40.8,-42.32,-15.38,-72.66,-83.17,-65.28,-40.83,-74.24,-26.59,0,0,0,0,0,0,0,0,0,0,0,0,0,0,0,0,
503,-68.18,-60.06,22.94,-34.14,-15.43,-59.19,-65.01,-87.9,-41.28,7.398,-66.26,-70.39,-52.52,-20.52,-73.74,-14.28,0,0,0,0,0,0,0,0,0,0,0,0,0,0,0,0,
504,-72.34,-66.56,-11.45,-41.25,-12.97,-60.27,-69.92,-74.08,-36.78,-62.2,-57.35,-74.07,-49.3,-16.38,-31.9,-6.427,0,0,0,0,0,0,0,0,0,0,0,0,0,0,0,0,
505,-70.15,-63.51,-69.46,-50.27,-27.67,-50.08,-53.79,-2.226,-39.64,-83.59,-25.66,-68.82,-48.6,-27.49,-14.19,-21.5,0,0,0,0,0,0,0,0,0,0,0,0,0,0,0,0,
506,-75.97,-66.53,-48.2,-61.96,-37.96,-62.74,-60.5,-30.9,-36.65,-62.6,-2.016,-55.43,-45.86,-34.01,-72.34,-48.07,0,0,0,0,0,0,0,0,0,0,0,0,0,0,0,0,
507,-52.19,-70.35,12.87,-51.2,-15.58,-43.86,-69.96,-95.84,-29.28,-60.61,-12.61,-54.15,-47.88,-45.41,-85.97,-56.55,0,0,0,0,0,0,0,0,0,0,0,0,0,0,0,0,
508,-26.41,-67.39,38.11,-33.56,-13.93,-24.37,-58.95,-68.54,-50.88,-66.68,-52.53,-61.77,-63.37,-76.2,-67.63,-69.37,0,0,0,0,0,0,0,0,0,0,0,0,0,0,0,0,
509,-45.04,-85.61,21.88,-27.19,-29.47,-15.93,-53.26,-23.95,-65.58,-74.58,-74.09,-47.99,-56.78,-74.84,-69.06,-59.66,0,0,0,0,0,0,0,0,0,0,0,0,0,0,0,0,
510,-55.15,-96.04,-11.02,-22.64,-14.57,4.394,-59.39,-77.46,-56.26,-75.42,-60.77,-27.97,-30.4,-45.16,-41.4,-12.61,0,0,0,0,0,0,0,0,0,0,0,0,0,0,0,0,
511,-46.59,-71.67,-19.57,-25.72,-1.944,-7.584,-55.21,-129.3,-54.69,-74.2,-50.91,-33.61,-27.45,-41.01,-34.07,-7.295,0,0,0,0,0,0,0,0,0,0,0,0,0,0,0,0,
512,-45.35,-56.98,7.757,-22.93,-1.943,-24.2,-42.79,-53.77,-43.13,-75.71,-49.59,-44.38,-33.74,-41.98,-59.97,-27.71,0,0,0,0,0,0,0,0,0,0,0,0,0,0,0,0,
513,-40.45,-65.44,27.86,-37.62,-4.627,-12.23,-49.46,2.702,-32.63,-63.5,-45.63,-46.49,-30,-37.16,-35.74,-6.57,0,0,0,0,0,0,0,0,0,0,0,0,0,0,0,0,
514,-35.42,-51.51,37.62,-60.62,-3.516,5.133,-31.5,-34.47,-31.12,-47.68,-36.16,-36.82,-14.29,-39.48,-8.719,0.4647,0,0,0,0,0,0,0,0,0,0,0,0,0,0,0,0,
515,-23.6,-18.16,89.87,-15.06,24.98,38.93,23.75,-23.27,-14.74,-50.98,-15.65,-18.46,0.6556,-37.37,-25.25,-27.77,0,0,0,0,0,0,0,0,0,0,0,0,0,0,0,0,
516,-10.33,-13.75,151.4,27.04,39.64,57.6,20.34,6.117,-18.65,-64.09,-2.703,-25.35,-22.17,-47.57,-32.55,-41.79,0,0,0,0,0,0,0,0,0,0,0,0,0,0,0,0,
517,-8.519,-22.26,105.6,5.423,21.41,51.79,-9.318,-28.21,-27.94,-66.69,-3.676,-41.45,-57.01,-69.91,-39.49,-59.34,0,0,0,0,0,0,0,0,0,0,0,0,0,0,0,0,
518,4.214,-23.91,-8.096,17.22,18.55,67.34,12.07,-51.99,0.5445,-72.51,13.48,-16.55,-53.48,-61.47,-27.37,-60.74,0,0,0,0,0,0,0,0,0,0,0,0,0,0,0,0,
519,17.7,-38.41,-8.224,38.64,26.22,69.46,12.74,-34.49,13.08,-80.36,38.83,14.96,-29.82,-25.65,33.48,-12.71,0,0,0,0,0,0,0,0,0,0,0,0,0,0,0,0,
520,2.288,-42.2,66.61,-0.4081,9.037,23.7,-25.44,-29.5,-20.67,-60.97,0.4699,-24.08,-30.51,-13.65,24.89,-6.266,0,0,0,0,0,0,0,0,0,0,0,0,0,0,0,0,
521,-42.96,-41.34,57.27,-30.56,-34.23,-44.67,-51.16,-57.64,-61.27,-50.32,-70.81,-94.99,-62.78,-33.08,-53.26,-59.12,0,0,0,0,0,0,0,0,0,0,0,0,0,0,0,0,
522,-83.62,-58.77,29.76,-16.65,-57.77,-87.12,-58.19,-64.16,-75.43,-71.67,-61.36,-88.83,-79.53,-48.51,-63.17,-83.84,0,0,0,0,0,0,0,0,0,0,0,0,0,0,0,0,
523,-77.89,-57.7,15.12,-17.49,-49.11,-72.65,-42.22,-33.38,-71.32,-73.49,-25.98,-39.6,-57.29,-58.6,-53.2,-83.76,0,0,0,0,0,0,0,0,0,0,0,0,0,0,0,0,
524,-57.16,-50.15,-47.24,-48.83,-57.55,-60.83,-33.86,-23.59,-71.06,-63.98,-36.46,-23.38,-22.52,-59.23,-48.49,-53.94,0,0,0,0,0,0,0,0,0,0,0,0,0,0,0,0,
525,-45.13,-48.74,-26.41,-51.1,-59.1,-73.75,-48.13,-29.37,-56.29,-70.97,-17.81,-5.321,8.847,-41.1,14.16,4.637,0,0,0,0,0,0,0,0,0,0,0,0,0,0,0,0,
526,-27.75,-33.45,56.58,-26.57,-43.55,-61.21,-53.98,-51.04,-39.23,-67.74,6.312,7.125,13.61,-38,34.88,12.02,0,0,0,0,0,0,0,0,0,0,0,0,0,0,0,0,
527,-37.58,-43.31,16.2,-38.42,-55.69,-48.36,-60.61,-82.91,-40.26,-63.64,-1.065,-2.083,3.029,-29.12,14.33,10.77,0,0,0,0,0,0,0,0,0,0,0,0,0,0,0,0,
528,-48.4,-56.65,-32.37,-54.45,-45.99,-56.36,-65.82,-58.11,-24.64,-68.65,20.55,6.16,6.319,-6.322,45.29,30.33,0,0,0,0,0,0,0,0,0,0,0,0,0,0,0,0,
529,-20.47,-33.49,10.31,-36.82,-8.565,-46.54,-53.68,-34.18,-9.64,-57.73,29.88,1.952,-12.39,-33.81,36.84,-15.21,0,0,0,0,0,0,0,0,0,0,0,0,0,0,0,0,
530,-9.429,-37.72,29.67,-18.27,-4.457,-12.2,-41.26,-45.7,-13.09,-51.36,13.14,-13.55,-37.18,-52.29,-3.457,-41.39,0,0,0,0,0,0,0,0,0,0,0,0,0,0,0,0,
531,-17.21,-62.21,37.22,-8.056,-13.97,12.16,-31.05,-36.48,-11.11,-54.63,19.34,-0.6662,-30.06,-18.39,12.41,-3.591,0,0,0,0,0,0,0,0,0,0,0,0,0,0,0,0,
532,-1.933,-35.8,62.51,-12.4,-19.97,7.984,-14.18,-68.04,-18.28,-24.71,10.1,9.073,-36.72,-26.86,4.521,-41.6,0,0,0,0,0,0,0,0,0,0,0,0,0,0,0,0,
533,20.85,5.237,51.68,-20.13,-15.11,7.045,7.792,-91.64,-19.37,-1.864,2.044,17.24,-44.1,-40.46,-21.32,-75.03,0,0,0,0,0,0,0,0,0,0,0,0,0,0,0,0,
534,22.88,-7.272,20.29,-10.74,-7.897,12.91,15.65,-11.98,-14.6,-35.66,17.76,19.54,-21.07,1.043,14.1,-3.171,0,0,0,0,0,0,0,0,0,0,0,0,0,0,0,0,
535,3.918,-39.29,18.72,2.244,-24.5,13.3,7.417,27.36,-31.8,-51.1,8.253,-17.95,-21.35,8.894,22.69,-2.243,0,0,0,0,0,0,0,0,0,0,0,0,0,0,0,0,
536,-2.354,-30.75,39.04,21.78,-18.23,30.54,10.68,-4.876,-29.08,-17.06,-6.09,-52.45,-48.22,-20.9,-42.84,-87.02,0,0,0,0,0,0,0,0,0,0,0,0,0,0,0,0,
537,-10.63,-22.2,9.158,14.07,-9.807,19.88,9.698,1.645,-24.27,-1.222,-13.2,-64.98,-54.8,-20.12,-58.24,-85.71,0,0,0,0,0,0,0,0,0,0,0,0,0,0,0,0,
538,-45.11,-25.42,-24.44,-30.53,-49.02,-19.6,3.174,-1.662,-54.2,-14.88,-28.48,-73.9,-47.33,-13.68,-13.3,-51.9,0,0,0,0,0,0,0,0,0,0,0,0,0,0,0,0,
539,-57.65,4.16,37.71,-29.31,-65.56,-2.437,13.78,-32.66,-66.75,-33.12,-30.62,-66.57,-57.37,-31.19,-49.34,-78,0,0,0,0,0,0,0,0,0,0,0,0,0,0,0,0,
540,-64.12,2.184,58.24,-8.492,-55.18,23.09,11.18,-30.87,-66.28,-29.12,-29.22,-51.21,-73.59,-43.75,-108.9,-84.19,0,0,0,0,0,0,0,0,0,0,0,0,0,0,0,0,
541,-79.94,-40.44,-17.69,-26.96,-50.51,4.199,3.819,-18.18,-67.12,-19.04,-20.77,-27.74,-65.7,-41.9,-51.17,-60.8,0,0,0,0,0,0,0,0,0,0,0,0,0,0,0,0,
542,-51.72,-44.66,-31.69,-35.2,-36.2,-4.394,-1.693,-32.77,-49.56,-72.26,-3.613,1.949,-54.05,-50.3,7.344,-60.24,0,0,0,0,0,0,0,0,0,0,0,0,0,0,0,0,
543,-29.57,-49.78,-27.53,-41.44,-53.61,-8.337,-40.42,-78,-47.65,-114.2,-8.884,13.28,-46.11,-51.99,-15.2,-44.28,0,0,0,0,0,0,0,0,0,0,0,0,0,0,0,0,
544,-48.75,-59.83,-56.96,-65.41,-74.8,-23.66,-56.46,-123.3,-54.37,-61.74,-11.96,17.37,-18.6,-26.95,-12.29,-7.932,0,0,0,0,0,0,0,0,0,0,0,0,0,0,0,0,
545,-43.34,-28.05,-11.93,-58.49,-33.3,-17.98,-19.35,-126.4,-30.29,-26.48,10.16,27.45,5.424,-5.69,19.82,14.07,0,0,0,0,0,0,0,0,0,0,0,0,0,0,0,0,
546,-5.892,-5.812,60.88,-24.05,13.75,22.67,9.265,-83.36,5.534,-33.7,36.41,47.44,13.88,5.77,34.49,18.02,0,0,0,0,0,0,0,0,0,0,0,0,0,0,0,0,
547,31.46,-1.79,76.33,-4.892,12.64,55.6,15.64,-23.06,15.56,-19.72,40.54,64.52,10.7,5.712,29.73,-10.67,0,0,0,0,0,0,0,0,0,0,0,0,0,0,0,0,
548,27.35,8.989,46.28,-9.759,-23.37,26.81,18.08,3.89,-11.79,-24.9,12.38,38.56,-12.71,-13.49,6.095,-28.45,0,0,0,0,0,0,0,0,0,0,0,0,0,0,0,0,
549,-27.13,4.101,-19.14,-14.11,-51.58,-3.42,30.85,-15.02,-32.66,-37.28,6.173,-0.6243,-26.97,-15.53,13.76,-1.656,0,0,0,0,0,0,0,0,0,0,0,0,0,0,0,0,
550,-61.49,-15.26,-40.54,-19.67,-42.36,2.385,27.43,-26.46,-25.9,-19.85,28.43,-6.019,-26.03,-6.605,32.45,-2.435,0,0,0,0,0,0,0,0,0,0,0,0,0,0,0,0,
551,-48.25,-34.52,5.168,-43.55,-34.58,-12.99,-19.23,-25.97,-27.84,-10.26,9.096,-10.92,-32.84,-19.8,-12.61,-30.3,0,0,0,0,0,0,0,0,0,0,0,0,0,0,0,0,
552,-21.45,-36.36,-3.998,-49.28,-43.85,-5.203,-38.37,-56.18,-34.15,-21.35,-25.09,-31.75,-35.62,-30.1,-54.07,-33.94,0,0,0,0,0,0,0,0,0,0,0,0,0,0,0,0,
553,-18.91,-28.48,-55.24,-32.83,-35.99,30.79,-13.87,-77.88,-33.93,-37.66,-28.97,-44.24,-28.17,-16.15,-34.01,-29.83,0,0,0,0,0,0,0,0,0,0,0,0,0,0,0,0,
554,-40.71,-27.83,-27.24,-23.01,-14.05,14.87,2.851,-44.32,-31.41,-31.13,-41.04,-52.85,-24.37,-2.419,-41.42,-36.06,0,0,0,0,0,0,0,0,0,0,0,0,0,0,0,0,
555,-35.8,-14.44,33.08,-12.98,-8.282,-2.34,29.31,-15.49,-19.03,-4.718,-54.65,-57.75,-40.2,-23.85,-79.11,-66.86,0,0,0,0,0,0,0,0,0,0,0,0,0,0,0,0,
556,-18.93,-15.9,40.1,-21.5,-16.88,5.862,45.34,-24.02,-16.1,-4.535,-31.79,-33.66,-51.53,-44.84,-31.41,-75.21,0,0,0,0,0,0,0,0,0,0,0,0,0,0,0,0,
557,-24.79,-39.11,33.89,-27.24,-11.4,-5.492,19.08,-36.69,-24.99,-21.03,-16.91,-13.62,-31.43,-19.93,38.48,-25.83,0,0,0,0,0,0,0,0,0,0,0,0,0,0,0,0,
558,-40.6,-36.84,27.5,1.794,-12.82,-6.265,-6.081,-46.57,-30.05,-35.16,-45.9,-43.63,-27.03,-6.659,-5.045,-12.85,0,0,0,0,0,0,0,0,0,0,0,0,0,0,0,0,
559,-72.55,-36.2,4.074,-2.133,-35.69,4.051,-8.975,-20.01,-31.81,-38.81,-56.02,-52.95,-26.97,-6.992,-58.71,-21.36,0,0,0,0,0,0,0,0,0,0,0,0,0,0,0,0,
560,-66.94,-38.45,-5.498,-34.19,-39.18,4.412,0.855,6.962,-21.91,-17.54,-37.09,-14.72,2.016,12.89,-43.99,6.044,0,0,0,0,0,0,0,0,0,0,0,0,0,0,0,0,
561,-0.8889,-18.13,-5.692,-25.75,-31.68,18.21,8.935,-43.73,-7.885,-8.371,-38.56,-6.12,-2.967,-7.982,-38.71,-9.132,0,0,0,0,0,0,0,0,0,0,0,0,0,0,0,0,
562,24.12,-12.76,5.697,-6.055,-16.63,34.26,13.23,-46.59,0.3903,-28.07,-22.75,0.7706,-22.51,-36.6,-16.63,-28.94,0,0,0,0,0,0,0,0,0,0,0,0,0,0,0,0,
563,-1.657,-10.09,43.75,0.4507,5.638,33.44,25.82,26.31,-4.167,-54.28,2.712,24.57,-16.59,-22.33,14.37,-10.16,0,0,0,0,0,0,0,0,0,0,0,0,0,0,0,0,
564,-16.84,5.846,67.63,9.075,-11.01,39.48,32.24,6.027,-17.44,-52.52,-8.109,17.72,-27.23,-31.81,-4.01,-36.18,0,0,0,0,0,0,0,0,0,0,0,0,0,0,0,0,
565,-5.357,12.54,75.01,13.28,-11.31,65.95,37.1,-25.69,-1.014,-2.577,3.247,26.08,-27.05,-47.85,-1.017,-61.27,0,0,0,0,0,0,0,0,0,0,0,0,0,0,0,0,
566,23.75,12.05,62.67,10.45,17.19,72.25,42.66,24.49,8.805,11.66,21.84,39.63,-19.45,-37.67,20.44,-43.66,0,0,0,0,0,0,0,0,0,0,0,0,0,0,0,0,
567,17.75,-4.521,16.82,8.406,-16.89,44.3,40.93,28.18,-21.11,-8.892,1.615,13.26,-31.53,-26.66,17.08,-24.24,0,0,0,0,0,0,0,0,0,0,0,0,0,0,0,0,
568,-5.385,-0.4985,16.92,12.45,-48.11,36.09,55.52,-0.2525,-22.58,30.02,-10.2,1.242,-6.402,6.009,13.49,17,0,0,0,0,0,0,0,0,0,0,0,0,0,0,0,0,
569,-1.474,36.67,51.17,7.066,-34.8,39.2,42.18,4.538,-18.96,40.7,-39.59,-11.98,20.8,34.98,-27.66,35.46,0,0,0,0,0,0,0,0,0,0,0,0,0,0,0,0,
570,-21.36,20.1,28.48,-13.03,-45.06,11.74,-16.44,-10.28,-49.32,-16.81,-80.51,-41.83,4.706,35.23,-56.44,11.43,0,0,0,0,0,0,0,0,0,0,0,0,0,0,0,0,
571,-48.08,-35.13,10.15,-35.96,-42.5,-21.89,-34.11,-45.99,-53.06,-32.6,-60.31,-32.15,-4.789,38.51,-1.394,20.73,0,0,0,0,0,0,0,0,0,0,0,0,0,0,0,0,
572,-44.88,-52.57,36.56,-61.02,-31.5,-40.29,-29.03,-54.3,-43.84,-15.71,-29.42,-7.304,-9.727,33.36,34.04,33.8,0,0,0,0,0,0,0,0,0,0,0,0,0,0,0,0,
573,-50.43,-43.96,32.96,-57.67,-44.64,-35.39,-45.28,-27.04,-43.33,-10.2,-12.5,16.79,-12.38,24.03,24.93,17.16,0,0,0,0,0,0,0,0,0,0,0,0,0,0,0,0,
574,-47.36,-31.85,-4.128,-38.61,-32.99,-15.35,-37.56,-34.73,-18.86,-23.16,26.56,48.89,-6.401,16.37,38.17,14.4,0,0,0,0,0,0,0,0,0,0,0,0,0,0,0,0,
575,-22.61,-28.5,-18.34,-49.77,-23.57,-2.428,-18.58,-73.2,3.792,-32.73,53.28,51.41,-17.78,-3.17,52.81,22.31,0,0,0,0,0,0,0,0,0,0,0,0,0,0,0,0,
576,-9.586,-34.26,9.314,-51.85,-33.65,8.253,-26.94,-38.89,-2.089,2.711,47.17,22.08,-37.61,-4.624,44.04,13.87,0,0,0,0,0,0,0,0,0,0,0,0,0,0,0,0,
577,-22.22,-45.17,48.18,-62.94,-24.73,-7.87,-52.05,-11.42,-25.5,1.719,13.91,-34.22,-71.05,-8.93,-4.455,-28.72,0,0,0,0,0,0,0,0,0,0,0,0,0,0,0,0,
578,-60.88,-62.29,49.32,-99.8,-24.01,-40.38,-59.76,-45.13,-37.6,-45.86,-23.94,-91.15,-98.92,-37.23,-76.1,-73.68,0,0,0,0,0,0,0,0,0,0,0,0,0,0,0,0,
579,-82.84,-54.33,6.846,-54.98,-34.03,-35.63,-37.86,-27.58,-30.32,-36.92,-35.04,-95.35,-75.07,-33.01,-100.6,-53.83,0,0,0,0,0,0,0,0,0,0,0,0,0,0,0,0,
580,-73.48,-34.41,-25.56,3.661,-43.38,-32.92,-35.62,-30.72,-45.65,-22.95,-42.68,-77.37,-43.92,-3.832,-74.93,-2.802,0,0,0,0,0,0,0,0,0,0,0,0,0,0,0,0,
581,-66.69,-34.17,-14.6,-51.2,-70.24,-46.73,-53.78,-95.56,-63.16,-26.88,-45.28,-62.42,-35.35,4.776,-39.52,11.51,0,0,0,0,0,0,0,0,0,0,0,0,0,0,0,0,
582,-50.64,-28.75,3.561,-92.69,-77.19,-41.9,-46.63,-81.83,-46.26,-5.23,-25.13,-31.65,-25.86,-1.263,-9.738,14.56,0,0,0,0,0,0,0,0,0,0,0,0,0,0,0,0,
583,-33.29,-21.46,18.78,-52.8,-48.74,-33.18,-25.7,-16.67,-35.45,-13.23,-12,-15.61,-27.71,-12.35,3.813,25.02,0,0,0,0,0,0,0,0,0,0,0,0,0,0,0,0,
584,-38.67,-22.95,12.25,-36.48,-38.14,-0.4826,-3.253,15.08,-35.29,-29.8,-13.92,-25.98,-45.54,-25.95,-5.778,0.5453,0,0,0,0,0,0,0,0,0,0,0,0,0,0,0,0,
585,-46.14,-28.35,-57.87,-52.21,-48.53,31.55,2.552,-1.52,-29.07,-19.69,-26.95,-38.43,-64.49,-35.06,-34.2,-36.64,0,0,0,0,0,0,0,0,0,0,0,0,0,0,0,0,
586,-50.85,-39.67,-66.58,-51.82,-41.79,-3.566,-15.61,-65.09,-32.96,-21.41,-44.02,-47.67,-66.98,-28.83,-50.21,-31.45,0,0,0,0,0,0,0,0,0,0,0,0,0,0,0,0,
587,-50.78,-34.15,32.3,-42.87,-37.64,-41.8,-16.08,-70.46,-41.43,-10.05,-42.82,-41.8,-55.49,-17.97,-27.91,-31.43,0,0,0,0,0,0,0,0,0,0,0,0,0,0,0,0,
588,-30.74,-24.79,42.6,-40.09,-50.29,-27.55,-10.96,-9.614,-41.67,5.833,-32.26,-18.65,-47.55,-15.44,2.823,-43.6,0,0,0,0,0,0,0,0,0,0,0,0,0,0,0,0,
589,-4.865,-18.02,-19.62,-46.32,-46.94,-4.48,-21.27,-6.332,-37.52,4.33,-34.07,-13.3,-19.89,3.619,-14.46,2.14,0,0,0,0,0,0,0,0,0,0,0,0,0,0,0,0,
590,-11.08,10.31,-16.04,-63.82,-59.77,-15.37,-29.4,-34.04,-49.35,24.97,-49.84,-30.89,20.72,30.1,-61.63,43.84,0,0,0,0,0,0,0,0,0,0,0,0,0,0,0,0,
591,-42.23,17.7,-18.22,-82.69,-101.5,-63.36,-45.58,-36.43,-74.1,31.68,-58.43,-29.18,37.4,40.47,-51.41,26.39,0,0,0,0,0,0,0,0,0,0,0,0,0,0,0,0,
592,-43.95,6.702,-68.23,-93.75,-107.4,-84.25,-53.79,-61.57,-85.92,-0.9387,-62.7,-30.55,38.81,54.19,-23.32,21.84,0,0,0,0,0,0,0,0,0,0,0,0,0,0,0,0,
593,-52.52,13.29,-119.8,-99.94,-107.7,-67.85,-39.31,-87.48,-95.96,-8.259,-75.81,-63.6,20.11,59.79,-47.28,24.92,0,0,0,0,0,0,0,0,0,0,0,0,0,0,0,0,
594,-100.5,1.306,-118.3,-86.01,-125.2,-87.78,-41.4,-47.49,-96.89,10.71,-59.13,-65.22,-22.17,37.23,-36.06,-8.424,0,0,0,0,0,0,0,0,0,0,0,0,0,0,0,0,
595,-108.9,-17.02,-64.61,-73.84,-108.6,-120.6,-73.89,-1.196,-83.9,8.103,-47.37,-57.05,-67.7,1.865,-14.89,-51.94,0,0,0,0,0,0,0,0,0,0,0,0,0,0,0,0,
596,-105.1,-29.2,-94.35,-101.5,-93.23,-115.1,-109.6,-26.91,-84.62,-5.248,-80.71,-83.14,-98.15,-25.42,-60.93,-79.62,0,0,0,0,0,0,0,0,0,0,0,0,0,0,0,0,
597,-118.9,-49.86,-144.1,-105.2,-87.06,-100.4,-103,-55.38,-67.86,-1.491,-62,-58.42,-80.34,-26.12,-48.74,-80.6,0,0,0,0,0,0,0,0,0,0,0,0,0,0,0,0,
598,-59.57,-28.76,-64.25,-78.2,-57.04,-83.23,-48.96,-33.8,-43.09,8.752,-23.99,-15.7,-37.04,-12.31,-1.492,-61.2,0,0,0,0,0,0,0,0,0,0,0,0,0,0,0,0,
599,-2.991,7.652,-29.31,-95.16,-46.39,-53.02,-17.06,-20.03,-58.34,14.1,-66.34,-41.61,-14.88,4.373,-48.08,-29.14,0,0,0,0,0,0,0,0,0,0,0,0,0,0,0,0,
600,-40.38,-7.171,-76.38,-96.67,-52.11,-45.3,-39.84,-25.98,-66.58,13.76,-94.06,-62.11,-9.183,16.54,-68.03,3.855,0,0,0,0,0,0,0,0,0,0,0,0,0,0,0,0,
601,-69.69,-29.47,-32.55,-62.99,-55.53,-62.41,-65.24,-25.96,-59.15,9.814,-73.34,-58.98,-26.12,-2.395,-21.64,5.12,0,0,0,0,0,0,0,0,0,0,0,0,0,0,0,0,
602,-66.52,-27.27,-14.78,-74.59,-70.75,-50.33,-51.81,-13.4,-62.36,13.66,-72.69,-68.98,-43.84,-22.48,-40.53,-15.7,0,0,0,0,0,0,0,0,0,0,0,0,0,0,0,0,
603,-69.07,-21.87,-85.03,-84.39,-62.18,-24.42,-36.83,-9.653,-44.6,-0.8117,-72.95,-55.89,-32.74,-19.91,-68.27,-28.78,0,0,0,0,0,0,0,0,0,0,0,0,0,0,0,0,
604,-46.11,-17.62,-74.91,-57.57,-35.14,-35.48,-45.3,-47.13,-22.94,-31.79,-62.41,-31.83,-25.78,-21.6,-15.32,-21.94,0,0,0,0,0,0,0,0,0,0,0,0,0,0,0,0,
605,-19.63,-11.59,-26.79,-53.51,-33.37,-50.37,-30.87,-61.83,-21.93,-17.72,-49.98,-31.13,-28.33,-12.28,10.24,-5.668,0,0,0,0,0,0,0,0,0,0,0,0,0,0,0,0,
606,-32.79,-9.687,-35.06,-63.13,-50.4,-44.63,-13.61,-27.21,-25.55,-3.46,-36.44,-42.75,-32.62,-1.544,-35.97,-27.04,0,0,0,0,0,0,0,0,0,0,0,0,0,0,0,0,
607,-50.72,-17.54,-11.39,-54.27,-64.58,-28.01,-29.29,-27.24,-32.08,-33.37,-32.31,-44.22,-41.73,-9.79,-35.94,-53.65,0,0,0,0,0,0,0,0,0,0,0,0,0,0,0,0,
608,-36.35,-22.11,36.68,-42.52,-65.39,-6.409,-26.72,-32.45,-38.32,-25.94,-35.98,-33.49,-39.07,-6.6,-8.885,-29.8,0,0,0,0,0,0,0,0,0,0,0,0,0,0,0,0,
609,-26.27,-22.28,15.43,-44.89,-64.47,-13.09,-13.87,-6.798,-48.75,6.429,-57.7,-35.98,-36.64,-11.11,-34.83,-20.3,0,0,0,0,0,0,0,0,0,0,0,0,0,0,0,0,
610,-34.85,-18.07,-14.38,-29.68,-45.14,-10.11,-12.38,-11.45,-42.25,-0.8463,-63.2,-27.56,-28.65,-27.57,-27.95,-37.26,0,0,0,0,0,0,0,0,0,0,0,0,0,0,0,0,
611,-18.61,1.287,7.236,5.885,-3.153,27.79,7.01,-19.11,-4.951,-4.807,-27.98,6.378,-3.648,-14.01,13.07,-14.44,0,0,0,0,0,0,0,0,0,0,0,0,0,0,0,0,
612,6.462,11.03,21,-12.56,-3.559,22.74,13.12,1.9,14.15,16.2,-13.9,25.54,14.78,3.634,23.22,25.59,0,0,0,0,0,0,0,0,0,0,0,0,0,0,0,0,
613,27.75,20.71,41.18,-32.53,-8.885,11.96,6.573,7.331,23.84,25.4,-13.02,47.38,37.48,3.946,58.41,37.52,0,0,0,0,0,0,0,0,0,0,0,0,0,0,0,0,
614,55.49,42.66,80.21,26.62,23.2,44.45,22.41,-10.27,41.95,13.25,2.88,62.71,50.17,12.77,70.69,36.13,0,0,0,0,0,0,0,0,0,0,0,0,0,0,0,0,
615,41.53,35.68,50.05,41.24,-0.5505,45.96,28.47,-30.8,29.86,15.54,-4.341,36.56,34.89,33.11,17.17,44.83,0,0,0,0,0,0,0,0,0,0,0,0,0,0,0,0,
616,16.95,31.71,-3.195,-22.52,-35.83,26.07,13.56,-33.85,19.89,38.06,-13.16,26.97,32.8,46.91,11.48,39.26,0,0,0,0,0,0,0,0,0,0,0,0,0,0,0,0,
617,28.16,34.48,7.474,-41.23,8.049,20.05,-9.03,-16.77,35.31,29.71,-9.597,39.21,25.17,41.33,47.98,12.62,0,0,0,0,0,0,0,0,0,0,0,0,0,0,0,0,
618,17.61,-3.48,5.371,-22.46,34.77,19.93,-17.47,3.917,36.41,19.39,-23.5,25.74,-0.1304,30.05,50.43,23.24,0,0,0,0,0,0,0,0,0,0,0,0,0,0,0,0,
619,3.089,-6.839,-17.15,-9.951,17.41,34.15,6.126,14.92,33.17,29.59,-28.43,18.09,8.061,22.65,33.87,50.33,0,0,0,0,0,0,0,0,0,0,0,0,0,0,0,0,
620,14.31,21.73,24.03,1.036,21.33,16.78,6.796,0.6649,36.54,-0.6463,-14.6,27.75,24.65,12.51,26.93,29.4,0,0,0,0,0,0,0,0,0,0,0,0,0,0,0,0,
621,7.91,-1.342,67,-13.23,15.73,-23.31,-22.29,-7.665,27.83,-4.91,-22.65,11.31,9.182,0.5206,14.07,-9.134,0,0,0,0,0,0,0,0,0,0,0,0,0,0,0,0,
622,-2.126,-6.941,25.73,-30.58,-8.614,-20,-25.03,12.76,14.14,51.12,-37.77,-18.05,0.5238,-12.04,-21.86,-20.7,0,0,0,0,0,0,0,0,0,0,0,0,0,0,0,0,
623,-8.916,21.7,-25.42,-21.98,-16.13,-11.07,-22.29,11.17,8.147,40.39,-11.12,-1.178,29.65,2.156,12.35,15.25,0,0,0,0,0,0,0,0,0,0,0,0,0,0,0,0,
624,-23.39,10.47,-21.6,-32.56,-25.13,-30.53,-41.93,-23.35,-4.615,-6.192,3.359,24.04,49.94,34.72,100.2,58.63,0,0,0,0,0,0,0,0,0,0,0,0,0,0,0,0,
625,-24.37,-9.784,-52.91,-63.65,-40.52,-50.65,-58.36,-42.27,-25.59,1.94,-43.7,-6.584,31.56,38.96,55.97,45.48,0,0,0,0,0,0,0,0,0,0,0,0,0,0,0,0,
626,-23.34,-9.171,-134,-52.56,-48.6,-49.58,-48.71,-19.96,-20.25,2.341,-60.06,-21.35,28.17,46.64,-32.26,29.53,0,0,0,0,0,0,0,0,0,0,0,0,0,0,0,0,
627,-28.57,-12.04,-129.6,-30.16,-73.84,-39.9,-31.38,-6.805,-17,-1.628,-43.18,-9.242,22.88,51.67,-17.04,29.43,0,0,0,0,0,0,0,0,0,0,0,0,0,0,0,0,
628,-41.2,-18.76,-77.46,-64.14,-89.34,-54.62,-33.76,-54.01,-43.08,38.07,-54.45,-29.13,-13.89,20.36,2.394,7.689,0,0,0,0,0,0,0,0,0,0,0,0,0,0,0,0,
629,-52.79,-12.58,-97.21,-91.21,-55.71,-53.03,-30.17,-66.85,-31.67,54.9,-30.8,-11.78,0.3175,20.87,18.38,17.27,0,0,0,0,0,0,0,0,0,0,0,0,0,0,0,0,
630,-29.6,3.653,-90.33,-54.88,-42.76,-22.86,-22.14,4.061,-12.71,28.52,-9.302,25.29,38.25,32.57,35.4,37.66,0,0,0,0,0,0,0,0,0,0,0,0,0,0,0,0,
631,1.883,2.637,-26.82,-6.82,-54.41,-22.3,-29.26,35.43,-29.79,35.47,-36.9,13.72,31.67,5.038,14.81,29.68,0,0,0,0,0,0,0,0,0,0,0,0,0,0,0,0,
632,21.01,-4.864,-48.24,18.43,-22.45,-13.58,-3.521,10.72,-4.644,63.99,-21.09,29.87,37.38,9.254,44.46,41.14,0,0,0,0,0,0,0,0,0,0,0,0,0,0,0,0,
633,38.78,1.457,-87.39,8.102,-11.52,10.19,37.07,17.24,11.84,43.81,-12.02,48.23,34.58,25.55,68.3,31.43,0,0,0,0,0,0,0,0,0,0,0,0,0,0,0,0,
634,24.31,8.61,-23.48,-9.613,-31.09,5.084,41.32,40.84,-33.91,13.6,-43.8,19.78,10.74,15.35,27.21,4.799,0,0,0,0,0,0,0,0,0,0,0,0,0,0,0,0,
635,5.623,31.11,6.193,15.68,-11.6,21.93,51.21,33.73,-33.53,29.75,-24.58,24.39,37.67,33.38,38.22,35.44,0,0,0,0,0,0,0,0,0,0,0,0,0,0,0,0,
636,20.76,59.26,-69.34,18.28,-22.59,33.88,59.59,16.14,-8.02,50.71,-19.38,33.81,59.7,51.06,41.26,46.66,0,0,0,0,0,0,0,0,0,0,0,0,0,0,0,0,
637,26.88,45.7,-96.86,-39.44,-65.25,-14.61,19.82,18.05,-25.31,38.94,-54.09,16.76,34.39,39.08,-1.581,15.72,0,0,0,0,0,0,0,0,0,0,0,0,0,0,0,0,
638,24.99,7.992,-45.44,-59.37,-48.21,-36.62,-20.5,-6.448,-23.84,17.45,-44.41,32.81,32.39,40.13,41.44,39.9,0,0,0,0,0,0,0,0,0,0,0,0,0,0,0,0,
639,36.01,1.299,-36.16,-13.86,-20.5,-4.581,-14.61,-54.84,-1.498,19.16,-29.91,46.07,54.31,47.82,93.12,73.32,0,0,0,0,0,0,0,0,0,0,0,0,0,0,0,0,
640,32.09,27.27,-74.33,14.86,-23.16,2.7,-3.282,-52.77,2.971,29.58,-28.37,34.57,62.4,47.25,71.53,54.45,0,0,0,0,0,0,0,0,0,0,0,0,0,0,0,0,
641,17.01,33.36,-77.41,-10,-23.99,-28.84,-18.59,-43.86,3.052,25.42,-12.23,43.3,66.42,52.33,84.07,67.63,0,0,0,0,0,0,0,0,0,0,0,0,0,0,0,0,
642,25.05,22.95,-73.54,-27.84,-35.02,-44.82,-20.22,-34.63,-4.674,40.14,-16.45,50.19,74.15,58.17,97.94,112.4,0,0,0,0,0,0,0,0,0,0,0,0,0,0,0,0,
643,41.41,39.72,-122.9,-11.73,-52.72,-21.05,-6.056,25.3,-19.14,53.92,-22.56,42.26,66.45,49.08,50.77,83.95,0,0,0,0,0,0,0,0,0,0,0,0,0,0,0,0,
644,27.53,40.48,-125.3,-16.03,-48.19,-2.84,-11.36,31.62,-11.09,25.31,4.671,57.01,56,41.47,52.93,43.94,0,0,0,0,0,0,0,0,0,0,0,0,0,0,0,0,
645,12.73,17.92,-39.14,-26.18,-33.62,-26.42,-11.41,-10.96,6.543,15.84,26.52,70.81,71.17,55.63,95.25,81.68,0,0,0,0,0,0,0,0,0,0,0,0,0,0,0,0,
646,16.85,25.37,-23.64,-31.25,-34.81,-65.14,-21.89,-11.72,-3.829,28.5,14.59,40.03,64.66,50.86,63.32,84.9,0,0,0,0,0,0,0,0,0,0,0,0,0,0,0,0,
647,2.46,28.52,-61.12,-73.17,-28.76,-65.62,-52.65,-42.39,-6.964,17.87,-1.468,14.21,30.51,16.31,24.78,20.72,0,0,0,0,0,0,0,0,0,0,0,0,0,0,0,0,
648,-3.125,20.79,-36.58,-79.89,-1.5,-27.43,-24.11,-65.26,15.23,20.95,-2.816,23.22,37.24,3.285,44.82,16.46,0,0,0,0,0,0,0,0,0,0,0,0,0,0,0,0,
649,7.851,28.91,-48.84,-25.13,-2.797,-19.64,24.45,-16.57,1.541,31.95,-3.849,13.24,54.21,8.469,52.42,62.77,0,0,0,0,0,0,0,0,0,0,0,0,0,0,0,0,
650,-6.269,14.75,-86.84,-8.399,-21.77,-32.76,-1.605,4.747,-17.27,18.6,3.966,2.047,41.57,11.88,40.55,70.86,0,0,0,0,0,0,0,0,0,0,0,0,0,0,0,0,
651,-3.218,-8.141,-76.86,-23.46,-26.49,-15.27,-53.17,-2.587,3.528,-0.4515,15.28,25.54,36.35,21.34,42.86,55.57,0,0,0,0,0,0,0,0,0,0,0,0,0,0,0,0,
652,16.68,-7.778,-130.5,-30.37,-53.66,-15.43,-73.26,-16.75,4.302,5.502,14,44.22,49.05,38.68,62.51,68.74,0,0,0,0,0,0,0,0,0,0,0,0,0,0,0,0,
653,13.05,2.159,-169.5,-48.14,-67.83,-44,-71.37,-48.16,-12.15,51.75,15.59,43.98,65,56.66,80.2,96.04,0,0,0,0,0,0,0,0,0,0,0,0,0,0,0,0,
654,19.32,14.03,-72.36,-65.29,-43.3,-59.3,-69.61,-37.9,-23.94,56.17,0.4888,27.43,54.86,37.76,50.2,79.31,0,0,0,0,0,0,0,0,0,0,0,0,0,0,0,0,
655,14.37,1.026,-5.304,-70.3,-48.27,-69.99,-68.1,-30.17,-45.36,-13.15,-13.25,14.46,24.04,-8.18,18.78,33.46,0,0,0,0,0,0,0,0,0,0,0,0,0,0,0,0,
656,-9.508,-22.47,-15.14,-57.83,-60.79,-62.4,-43.68,-46.23,-35.84,-34.01,22.34,36.55,24.85,-14.09,43.21,22.74,0,0,0,0,0,0,0,0,0,0,0,0,0,0,0,0,
657,15.61,-6.351,-21.97,-23.52,-35.99,-30.48,-28.51,-9.667,-5.608,-4.299,45.32,53.17,45.38,12.07,73.06,52.2,0,0,0,0,0,0,0,0,0,0,0,0,0,0,0,0,T1
658,56.87,22.58,-58.05,0.8455,-19.75,-9.424,-48.42,4.472,1.299,-4.078,40.11,49.84,53.48,25.46,86.72,74.84,0,0,0,0,0,0,0,0,0,0,0,0,0,0,0,0,
659,44.76,21.33,-78.64,-16.62,-37.08,-21.96,-67.07,-34.79,-4.214,-4.208,48.28,50.68,46.28,14.52,80.86,51.42,0,0,0,0,0,0,0,0,0,0,0,0,0,0,0,0,
660,7.442,-2.705,-40.84,-51.39,-49.73,-52.97,-67.09,-14.73,-16.7,10.37,36.47,49.23,35.11,1.592,73.14,38.78,0,0,0,0,0,0,0,0,0,0,0,0,0,0,0,0,
661,4.655,-13.55,-17.9,-35.1,-28.09,-35.84,-46.45,16.32,-16.92,14.71,30.12,62.45,47.95,13.4,98.47,72.32,0,0,0,0,0,0,0,0,0,0,0,0,0,0,0,0,
662,28.28,-5.301,-28.79,6.392,-18.16,11.37,-32.56,-18.17,-6.854,11.23,45.85,66.44,53.35,15.67,75.54,54.6,0,0,0,0,0,0,0,0,0,0,0,0,0,0,0,0,
663,34.52,-5.733,-23.75,-0.1911,-23.39,12.07,-39.41,-19.58,-5.54,20.71,32.07,44.68,43.99,12.14,19.53,20.59,0,0,0,0,0,0,0,0,0,0,0,0,0,0,0,0,
664,48.58,9.919,25.45,0.0013,13.72,7.765,-19.96,25.58,11.08,36.95,23.87,54.32,64.96,35.96,41.81,60.89,0,0,0,0,0,0,0,0,0,0,0,0,0,0,0,0,
665,68.15,40.62,55.48,24.09,23.93,8.669,0.1732,15.54,16.82,26.45,33.3,60.42,64.07,30.1,56.97,59.65,0,0,0,0,0,0,0,0,0,0,0,0,0,0,0,0,
666,47.39,38.74,19.46,13.83,-11.69,-20.25,-11.63,-2.062,8.238,29.18,35.33,42.41,38.49,9.214,40.4,6.559,0,0,0,0,0,0,0,0,0,0,0,0,0,0,0,0,
667,41.04,35.12,23.21,27.42,15.68,-23.37,-6.663,41.13,36.47,51.74,60.19,68.02,59.63,35.55,79.58,29.61,0,0,0,0,0,0,0,0,0,0,0,0,0,0,0,0,
668,65.41,45.72,92.92,86.97,60.72,2.688,10.34,71.94,56.77,29.01,70.79,85.21,76.04,52.45,84.37,68.14,0,0,0,0,0,0,0,0,0,0,0,0,0,0,0,0,
669,61.32,42.08,126.4,128.1,61.95,17.31,14.07,88.79,47.87,13.96,45.41,51.63,53.85,38.37,34.56,44.86,0,0,0,0,0,0,0,0,0,0,0,0,0,0,0,0,
670,51.69,34.23,158,169.6,89.56,31.87,16.77,134.2,54.18,33.56,45.37,39.87,42.91,28.74,36.7,10.07,0,0,0,0,0,0,0,0,0,0,0,0,0,0,0,0,
671,54.93,27.86,244.8,230.1,146.4,57.93,45.09,139.7,54.81,36.47,57.78,52.13,52.76,26.4,52.57,4.1,0,0,0,0,0,0,0,0,0,0,0,0,0,0,0,0,
672,55.03,42.76,305.4,288.9,176.3,104.3,115.9,119,44.92,58.32,56.54,59.18,76.8,48.3,50.74,41.24,0,0,0,0,0,0,0,0,0,0,0,0,0,0,0,0,
673,57.81,68.69,310,357.5,176.1,138.8,155.3,188.8,52.26,86.39,70.73,75.23,91.22,73.7,72.33,80.85,0,0,0,0,0,0,0,0,0,0,0,0,0,0,0,0,
674,67.94,61.84,329.3,424.7,204.1,156.4,144.6,314.1,74.72,90.43,86.97,91.31,82.7,65.42,80.83,65.75,0,0,0,0,0,0,0,0,0,0,0,0,0,0,0,0,
675,104.7,69.16,386.4,458.3,277.8,216.3,171.6,357,103.2,95.83,82.16,97.98,77.84,44.78,67.8,38.35,0,0,0,0,0,0,0,0,0,0,0,0,0,0,0,0,
676,140.2,98.48,455.2,472.2,316.4,259.8,200,336.2,116.8,72.05,77.78,106.3,76.88,36.53,78.8,48.44,0,0,0,0,0,0,0,0,0,0,0,0,0,0,0,0,
677,136.7,95.41,498.1,504.6,313.4,224,182.7,346.7,114.3,63.34,74.62,101.9,73.02,46.91,85.88,58.15,0,0,0,0,0,0,0,0,0,0,0,0,0,0,0,0,
678,139.7,101.8,491.6,539.1,315.7,193.6,186.4,335.6,118.6,107.1,61.23,73.41,65.81,57.15,57.49,34.55,0,0,0,0,0,0,0,0,0,0,0,0,0,0,0,0,
679,149.9,124.4,483.8,535.4,301.6,200.4,204.6,294.5,113.2,108.5,63.68,58.61,54.1,52.01,24.39,10.79,0,0,0,0,0,0,0,0,0,0,0,0,0,0,0,0,
680,126.7,107.1,475,500.6,267.4,193.5,184.5,312.6,76.84,90.01,57.37,55.92,50.83,55.58,6.529,20.17,0,0,0,0,0,0,0,0,0,0,0,0,0,0,0,0,
681,94.8,78.36,405,448.1,221.5,171,153.5,321.2,47.52,102.8,2.624,24.7,48.16,66.64,8.796,40.66,0,0,0,0,0,0,0,0,0,0,0,0,0,0,0,0,
682,82.68,76.89,350.3,410.6,185.2,155.6,156.2,294.3,48.6,93.93,-30.12,3.382,42,61.61,9.637,28.07,0,0,0,0,0,0,0,0,0,0,0,0,0,0,0,0,
683,84.97,80.28,352,412.1,189.9,145.9,161.8,294.4,42.36,75.4,-22.04,12.92,47.6,47.19,-12.75,0.9367,0,0,0,0,0,0,0,0,0,0,0,0,0,0,0,0,
684,84.14,74.4,319.4,386.2,188.7,137,134,236.3,48.41,67.85,-33.31,19.21,72.88,51.91,7.647,25.99,0,0,0,0,0,0,0,0,0,0,0,0,0,0,0,0,
685,86.39,83.27,289.7,325.4,167.9,127.9,125.7,166.2,57.39,65.83,-42.92,27.87,99.91,67.47,42.5,52.05,0,0,0,0,0,0,0,0,0,0,0,0,0,0,0,0,
686,85.54,93.43,293,292.8,156.1,95.98,135.1,197.5,-25.02,73.77,-56.98,12.55,74.78,40.12,-26.19,-10.43,0,0,0,0,0,0,0,0,0,0,0,0,0,0,0,0,
687,38.42,62.08,262.4,264.2,127.2,58.83,110.8,203.9,-76.73,60.89,-86.62,-21.31,27.4,3.924,-78.53,-55.18,0,0,0,0,0,0,0,0,0,0,0,0,0,0,0,0,
688,-2.502,28.96,230.6,234,98.9,67.15,94.76,171.3,18.01,52.82,-81.05,-11,33.41,16.5,-25.43,-8.189,0,0,0,0,0,0,0,0,0,0,0,0,0,0,0,0,
689,26.43,32.82,206,238.9,105.5,83.97,87.83,187.8,59.85,77.51,-74.81,-3.358,44.07,14.73,-27.33,7.764,0,0,0,0,0,0,0,0,0,0,0,0,0,0,0,0,
690,61.82,47.23,188.3,250.2,123.2,80.89,66.52,175.1,27.17,74.47,-71.38,-13.3,33.47,-9.23,-49.5,-18.77,0,0,0,0,0,0,0,0,0,0,0,0,0,0,0,0,
691,73.59,64.71,232.2,244.6,123.2,86.39,76.31,135.4,57.65,38.76,-31.46,13.67,44.04,1.435,5.129,-8.555,0,0,0,0,0,0,0,0,0,0,0,0,0,0,0,0,
692,78.49,63.1,248.1,232.3,103,83.82,83.16,128.9,54.43,25.44,-30.59,22.37,48.3,11.41,2.487,2.759,0,0,0,0,0,0,0,0,0,0,0,0,0,0,0,0,
693,65.45,47.07,190.3,220.1,97.78,79.14,56.88,126.7,12.74,41.34,-52.56,5.484,43.98,4.231,-21.8,3.401,0,0,0,0,0,0,0,0,0,0,0,0,0,0,0,0,
694,54.14,58.33,174,200.5,94.85,82.84,56.49,124.3,20.01,36.59,-31.14,11.14,50.12,4.82,44.75,22.91,0,0,0,0,0,0,0,0,0,0,0,0,0,0,0,0,
695,49.99,59.21,200.9,167.9,68.62,75.98,82.98,105.7,10.42,-7.154,-47.68,-12.29,37.96,0.114,40.34,14.81,0,0,0,0,0,0,0,0,0,0,0,0,0,0,0,0,
696,40.45,44.95,200,163.1,72.05,93.48,100.6,84.7,-4.348,-4.876,-84.86,-48.98,22.05,-13.03,-56.91,-28.04,0,0,0,0,0,0,0,0,0,0,0,0,0,0,0,0,
697,39.02,59.77,167.8,186.6,86.68,128.5,98.61,109.3,17.04,53.47,-48.41,-24.91,31.26,-16.04,-44.5,-20.18,0,0,0,0,0,0,0,0,0,0,0,0,0,0,0,0,
698,55.74,68.34,156,188,81.11,134.7,99.52,117.5,28.89,53.42,-2.088,16.85,50.34,-0.7107,22.28,28.04,0,0,0,0,0,0,0,0,0,0,0,0,0,0,0,0,
699,87.02,56.25,197.5,186.8,93.88,127.4,124.6,91.16,31.74,10.01,8.456,28.88,56.93,1.447,9.485,20.53,0,0,0,0,0,0,0,0,0,0,0,0,0,0,0,0,
700,90.78,49.89,202.7,192,74.66,112.7,127.9,107.5,23.95,16.34,21.21,34.53,54.49,-14.22,9.05,-5.177,0,0,0,0,0,0,0,0,0,0,0,0,0,0,0,0,
701,54.24,50.25,140.8,164.2,25.56,93.67,106.9,130.5,4.882,31.8,10.19,32.03,60.82,-0.3217,31.28,7.111,0,0,0,0,0,0,0,0,0,0,0,0,0,0,0,0,
702,39.21,56.33,107.3,122,33.21,90.54,105.9,92.01,8.216,15.02,-18.93,21.77,63.12,12.28,11.71,9.669,0,0,0,0,0,0,0,0,0,0,0,0,0,0,0,0,
703,64.14,55.39,99.38,104.4,56.89,113.5,109.3,36.9,25.32,15.1,-5.55,38.17,60.75,-0.9905,21.97,19.19,0,0,0,0,0,0,0,0,0,0,0,0,0,0,0,0,
704,102.1,58.04,91.28,110.9,65.37,158,118.5,32.97,34.32,22.43,6.581,52.52,65.57,12.03,34.16,37.2,0,0,0,0,0,0,0,0,0,0,0,0,0,0,0,0,
705,127.2,77.81,117.4,123.8,85.37,163.8,140,78.85,34.7,12.69,-14.01,40.06,63.92,27.39,5.658,18.44,0,0,0,0,0,0,0,0,0,0,0,0,0,0,0,0,
706,128.8,92.28,154.6,139.5,91.96,133,148.3,102.1,43.57,28.27,5.462,60.02,74.45,16.11,28.05,20.86,0,0,0,0,0,0,0,0,0,0,0,0,0,0,0,0,
707,136.8,104.8,152.8,152.8,88.09,138.4,148,69.24,58.77,41.06,33.89,85.21,87.28,9.112,37.78,37.34,0,0,0,0,0,0,0,0,0,0,0,0,0,0,0,0,
708,141.3,114.7,117,139.3,87.85,143.7,142.8,57.79,59.06,37.05,22.18,70.83,81.6,17.77,10.2,35.37,0,0,0,0,0,0,0,0,0,0,0,0,0,0,0,0,
709,130.2,122.2,112.6,123,82.92,122.2,141.6,88.09,64.56,87.4,30.74,77.81,99.27,46.28,48.58,70.59,0,0,0,0,0,0,0,0,0,0,0,0,0,0,0,0,
710,137,140.8,142.5,134.1,78.5,126.8,157.1,96.72,66.99,109.9,26.84,74.59,97.58,46.88,35.32,59.64,0,0,0,0,0,0,0,0,0,0,0,0,0,0,0,0,
711,134.6,129.3,131.3,139.3,77.58,148.9,165.6,109.1,54.48,41.88,-5.927,42.57,57.54,3.183,-15.87,-6.086,0,0,0,0,0,0,0,0,0,0,0,0,0,0,0,0,
712,118.4,92.33,115.3,135,85.77,147.9,153.8,121.9,67.48,31.63,13.26,68.27,73.26,-0.2443,55.29,36.47,0,0,0,0,0,0,0,0,0,0,0,0,0,0,0,0,
713,127.2,88.17,125.9,133.3,89.62,120.6,130.8,84.17,79.66,74.42,31.28,92.23,101.5,22.02,72.35,88.16,0,0,0,0,0,0,0,0,0,0,0,0,0,0,0,0,
714,121,104.2,84.45,115.4,85.24,105.8,121.4,74.41,80.61,58.09,24.1,71.77,91.15,20.17,-1.498,35.78,0,0,0,0,0,0,0,0,0,0,0,0,0,0,0,0,
715,82.4,114.6,37.88,90.19,82.95,97.86,118.8,101.1,105.6,50.33,59.98,83.58,101.6,31.15,39.88,34.49,0,0,0,0,0,0,0,0,0,0,0,0,0,0,0,0,
716,60.09,112.8,70.6,78.04,55.06,52.96,76.8,80.81,106,75.44,70.51,74.46,90.07,28.93,70.75,69.49,0,0,0,0,0,0,0,0,0,0,0,0,0,0,0,0,
717,78.94,99.61,102.7,85.4,36.94,43.96,41.55,60.05,85.74,64.69,24.71,17.1,39.67,-3.884,-16.66,20.08,0,0,0,0,0,0,0,0,0,0,0,0,0,0,0,0,
718,114,89.13,81.41,78.53,68.21,86.74,51.73,56.09,91.14,54.48,9.65,9.356,33.42,2.282,-39.76,-1.32,0,0,0,0,0,0,0,0,0,0,0,0,0,0,0,0,
719,117.9,76.02,67.62,34.57,79.85,82.11,44.98,53.67,88.78,75.92,35.84,51.79,61.03,40.48,37.17,61.38,0,0,0,0,0,0,0,0,0,0,0,0,0,0,0,0,
720,115.8,72.16,70.05,21.28,64.59,75.61,35.08,68.65,88.32,68.77,59.2,73.75,67.22,41.87,67.14,73.87,0,0,0,0,0,0,0,0,0,0,0,0,0,0,0,0,
721,133.5,74.62,50.94,43.87,63.15,94.97,46.5,29.25,106.4,47.03,60.98,61.87,54.65,19.44,19.58,32.22,0,0,0,0,0,0,0,0,0,0,0,0,0,0,0,0,
722,128.1,60.93,35.03,33.61,58.46,76.51,40.13,-14.49,110.3,80.05,69.89,64.64,57.59,30.6,24.35,44.98,0,0,0,0,0,0,0,0,0,0,0,0,0,0,0,0,
723,127.7,69.89,44.44,11.29,62.75,71.6,38.22,22.83,102.7,90.71,86.67,88.82,70.37,48.25,82.19,76.4,0,0,0,0,0,0,0,0,0,0,0,0,0,0,0,0,
724,148.5,92.86,56.94,11.52,82.78,94.18,48.5,30.32,89.21,23.5,60.82,69.31,53.19,27.55,42.77,54.32,0,0,0,0,0,0,0,0,0,0,0,0,0,0,0,0,
725,125.3,75.96,78.44,28.6,93.74,97.2,39.03,20.2,82.1,4.014,33.99,25.62,31.31,11.79,-20.81,27.82,0,0,0,0,0,0,0,0,0,0,0,0,0,0,0,0,
726,79.2,45.33,87.58,31.27,91.96,95.32,25.29,49.59,90.26,35.39,45.18,16.53,30.27,12.28,11.51,34.4,0,0,0,0,0,0,0,0,0,0,0,0,0,0,0,0,
727,58.61,29.93,44.38,-6.52,80.16,76.2,23.43,18.81,84.4,23.88,45.37,18.51,25.41,-1.759,23.44,38.93,0,0,0,0,0,0,0,0,0,0,0,0,0,0,0,0,
728,41.89,33.69,8.012,-15.75,75.49,51.35,34.69,-25.93,72.02,17.71,35.63,10.71,20.68,-5.156,-21.55,21.64,0,0,0,0,0,0,0,0,0,0,0,0,0,0,0,0,
729,19.19,46.69,35.91,18.46,73.82,50.49,49.78,0.5801,70.33,33,22.19,-7.795,18.14,5.519,-39.43,4.592,0,0,0,0,0,0,0,0,0,0,0,0,0,0,0,0,
730,16.92,40.97,69.14,23.28,58.14,47.24,51.15,31.33,70.17,33.48,7.362,-27.2,10.29,2.025,-34.65,2.264,0,0,0,0,0,0,0,0,0,0,0,0,0,0,0,0,
731,44.29,32.8,42.7,18.55,53.86,48.67,44.56,30.42,70.73,33.81,25.57,-23.47,-0.6032,-8.479,-18.95,-3.851,0,0,0,0,0,0,0,0,0,0,0,0,0,0,0,0,
732,59.26,29.44,13.5,17.29,68.83,59.8,36.4,9.922,71.61,28.5,41.38,-11.27,-14.99,-2.519,-5.908,1.955,0,0,0,0,0,0,0,0,0,0,0,0,0,0,0,0,
733,53.57,26.96,50.04,2.479,83.92,65.13,25.07,-4.148,88.63,25.97,32.55,-2.084,-13.66,14.91,-10.67,26.54,0,0,0,0,0,0,0,0,0,0,0,0,0,0,0,0,
734,66.28,38.48,72.55,3.583,83.07,72.94,8.33,-8.775,110.4,25.95,37.53,9.173,-3.247,1.146,11.51,12.27,0,0,0,0,0,0,0,0,0,0,0,0,0,0,0,0,
735,72.96,32.17,48.21,-4.844,65.9,59.71,0.7124,-21.38,99.73,21.27,39.7,10.94,0.4133,-18.96,30.19,-17.17,0,0,0,0,0,0,0,0,0,0,0,0,0,0,0,0,
736,57.61,19.69,44.83,-31.74,53.28,33.34,19.28,-2.741,77.72,46.23,22.5,2.462,9.294,11.54,-18.88,-3.128,0,0,0,0,0,0,0,0,0,0,0,0,0,0,0,0,
737,53.96,39.87,12.34,-29.97,26.49,34.41,26.97,17.2,66.45,55.95,25.95,-2.504,11.15,35.02,-24.22,20.65,0,0,0,0,0,0,0,0,0,0,0,0,0,0,0,0,
738,61.18,54.32,-27.19,-16.85,1.381,37.22,13.56,-3.519,66.81,22.15,60.55,14.48,15.91,18.69,63.09,34.39,0,0,0,0,0,0,0,0,0,0,0,0,0,0,0,0,
739,65.1,52.27,19.93,-15.72,32.77,28.75,12.84,2.95,77.31,17.74,68.47,31.74,33.17,14.28,62.98,32.21,0,0,0,0,0,0,0,0,0,0,0,0,0,0,0,0,
740,50.87,44.95,43.81,-2.634,54.35,34.83,9.107,25.66,72.08,34.01,41.42,21.64,32.32,13.99,-6.847,11.02,0,0,0,0,0,0,0,0,0,0,0,0,0,0,0,0,
741,33.83,30.7,11.34,24.06,24.11,38.99,1.894,5.175,64.84,31.39,49.1,27.22,33.38,6.52,21.99,13.66,0,0,0,0,0,0,0,0,0,0,0,0,0,0,0,0,
742,38.17,36.78,6.04,5.061,13.77,8.137,-0.1331,-31.44,64.61,23.59,56.37,37.24,36.49,11.89,38.62,20.87,0,0,0,0,0,0,0,0,0,0,0,0,0,0,0,0,
743,13.1,32.95,-31,-65.6,15.66,-38.41,-21.39,-38.13,44.08,9.039,15.2,4.122,10.33,15.45,-16.15,7.301,0,0,0,0,0,0,0,0,0,0,0,0,0,0,0,0,
744,-34.11,-9.4,-66.59,-81.72,-6.091,-51.99,-35.43,-15.13,31.13,-7.282,12.99,-16.39,-8.706,0.8724,0.1615,9.276,0,0,0,0,0,0,0,0,0,0,0,0,0,0,0,0,
745,-27.18,-33.97,-21.97,-59.06,-18.87,-32.81,-15.37,-30.63,37.59,-9.063,45.69,-3.538,-12.61,-22.49,26.57,4.211,0,0,0,0,0,0,0,0,0,0,0,0,0,0,0,0,
746,11.62,-25.45,4.397,-85.48,-7.358,0.0322,14.62,-68.4,38.57,10.78,33.27,-0.3909,-22.62,-34.03,-2.657,-16.41,0,0,0,0,0,0,0,0,0,0,0,0,0,0,0,0,
747,33.92,-20.6,-10.24,-77.16,4.528,37.89,25.86,-37.6,40.86,14.7,15.85,2.034,-21.74,-35.59,6.884,-5.315,0,0,0,0,0,0,0,0,0,0,0,0,0,0,0,0,
748,35.43,-23.55,2.782,-9.177,4.609,45.68,9.913,6.615,40.68,-22.61,24.85,2.116,-10.07,-31.21,26.07,17.7,0,0,0,0,0,0,0,0,0,0,0,0,0,0,0,0,
749,27.3,-10.02,20.88,10.55,15.79,24.27,7.513,17.58,40.27,-19.09,19.71,-18.53,2.98,-7.505,9.497,22.06,0,0,0,0,0,0,0,0,0,0,0,0,0,0,0,0,
750,27.73,10.35,16.54,-13.59,29.69,10.72,21.31,31.14,42.38,17.85,-5.011,-39.83,3.193,-1.618,2.464,21.38,0,0,0,0,0,0,0,0,0,0,0,0,0,0,0,0,
751,25.12,3.788,4.08,-31.4,17.88,9.493,8.623,20.34,32.74,3.482,-8.831,-37.01,-8.591,-27.89,6.988,14.24,0,0,0,0,0,0,0,0,0,0,0,0,0,0,0,0,
752,22.94,3.939,-1.98,-37.05,7.242,17.39,0.2886,-2.192,27.37,1.11,10.2,-21.96,-3.369,-29.59,13.74,-0.2665,0,0,0,0,0,0,0,0,0,0,0,0,0,0,0,0,
753,28.58,29.18,7.957,-32,9.105,23.04,18.57,-0.3672,27.39,27.49,5.268,-21.32,0.6077,-13.29,9.7,-3.479,0,0,0,0,0,0,0,0,0,0,0,0,0,0,0,0,
754,19.24,31.59,33.96,-28.82,12.08,19.49,35.14,13.7,23.97,17.44,-2.714,-18.69,-12.62,-15.12,-25.1,-5.234,0,0,0,0,0,0,0,0,0,0,0,0,0,0,0,0,
755,9.962,19.34,38.61,-26.18,8.852,12,35.06,31.64,22.12,9.129,11.94,-8.165,-13.39,-17.83,-51.27,-17.64,0,0,0,0,0,0,0,0,0,0,0,0,0,0,0,0,
756,2.033,12.06,-9.484,-32.09,-16.29,-7.642,10.46,18.67,10.72,10.6,5.469,-11.79,5.809,-5.829,-22.11,-0.2837,0,0,0,0,0,0,0,0,0,0,0,0,0,0,0,0,
757,-12.36,4.856,-45.68,-55.35,-22.56,-19.84,-7.686,-5.48,7.64,3.579,-5.682,-10.58,21.58,5.545,23,27.67,0,0,0,0,0,0,0,0,0,0,0,0,0,0,0,0,
758,0.1957,11.28,-35.51,-71.34,-10.16,-21.04,-10.13,4.381,15.89,16.83,-1.189,-8.539,7.105,-8.446,12.98,-1.759,0,0,0,0,0,0,0,0,0,0,0,0,0,0,0,0,
759,18.26,12.74,-25.74,-69.77,-24.24,-27.54,-19.65,-1.815,13.42,20.48,-6.752,-19.02,-4.046,-20.3,-16.78,-24.5,0,0,0,0,0,0,0,0,0,0,0,0,0,0,0,0,
760,18.96,4.459,-8.07,-56.57,-18.27,-9.343,-5.717,-28.79,19.01,-5.963,-2.804,-17.11,16.67,-1.716,-5.693,6.058,0,0,0,0,0,0,0,0,0,0,0,0,0,0,0,0,
761,23.15,4.39,-7.787,-43.29,-5.532,12.31,12.76,-41.38,20.62,-24.96,9.607,-14.83,10.25,2.66,12.15,16.69,0,0,0,0,0,0,0,0,0,0,0,0,0,0,0,0,
762,26.61,2.627,-39.75,-35.07,-14.93,11.26,5.647,-42.35,18.92,-22.97,16.56,-7.491,-10.47,-10.15,17.7,11.39,0,0,0,0,0,0,0,0,0,0,0,0,0,0,0,0,
763,42.17,7.787,-6.392,-28.17,20.62,25.96,12.62,-13.29,40.75,-14.38,19.04,15.5,0.1317,-13.24,18.44,9.26,0,0,0,0,0,0,0,0,0,0,0,0,0,0,0,0,
764,53.15,12.45,36.05,-39.37,40.22,19.6,4.163,3.731,33.25,-11.11,-2.6,12.94,-1.861,-21.35,12.97,-7.136,0,0,0,0,0,0,0,0,0,0,0,0,0,0,0,0,
765,25.69,3.853,-16.82,-53.29,2.168,-16.16,-26.2,-43.86,1.423,-5.207,-10.37,4.039,-11.38,-24.6,20.42,-6.256,0,0,0,0,0,0,0,0,0,0,0,0,0,0,0,0,
766,8.863,3.432,-41.99,-50.88,12.42,-1.827,-8.814,-78.13,7.398,-9.252,9.947,9.945,-10.19,-24.76,23.41,-5.585,0,0,0,0,0,0,0,0,0,0,0,0,0,0,0,0,
767,15.81,0.8335,-13.27,-53.51,26.52,27.41,25.18,-34.72,16.29,-25.22,6.893,0.1232,-25.46,-34.03,15.47,-19.21,0,0,0,0,0,0,0,0,0,0,0,0,0,0,0,0,
768,7.554,-2.189,-41.23,-37.45,-13.48,7.778,29.91,4.026,11.82,-5.993,2.098,-12.82,-37.28,-34.65,5.401,-16.83,0,0,0,0,0,0,0,0,0,0,0,0,0,0,0,0,
769,-4.867,10.4,-37.72,-4.517,-7.548,-22.36,27.32,-31.92,20.08,17.53,8.495,-29.22,-35.25,-34.37,-27.65,-30.97,0,0,0,0,0,0,0,0,0,0,0,0,0,0,0,0,
770,-5.554,19.64,34.22,-11.03,35.5,-28.63,23.75,-45.58,28.26,-5.651,4.189,-40.21,-23.81,-32.43,-34.44,-47.32,0,0,0,0,0,0,0,0,0,0,0,0,0,0,0,0,
771,7.089,25.84,13.25,-37.87,25.69,-15.98,17.95,-6.924,26.88,-28.06,5.711,-17.6,-9.276,-28.59,-5.798,-28.51,0,0,0,0,0,0,0,0,0,0,0,0,0,0,0,0,
772,22.46,19.1,-55,-43.61,-6.157,-0.4717,3.264,-34.18,10.2,-27.91,0.1509,-8.921,-18.52,-30.17,2.517,-14.72,0,0,0,0,0,0,0,0,0,0,0,0,0,0,0,0,
773,26.5,-1.66,-39.09,-35.6,-13.44,5.596,-14.5,-60.86,-5.763,-22.6,-1.208,-11.73,-13.8,0.0371,35.7,3.83,0,0,0,0,0,0,0,0,0,0,0,0,0,0,0,0,
774,26.14,-1.456,-46.91,-37.51,-21.43,8.627,-12.12,-11.52,8.302,-12.43,33.76,20.07,14.92,33.93,67.66,28.41,0,0,0,0,0,0,0,0,0,0,0,0,0,0,0,0,
775,24.04,1.632,-74.44,-48.62,-23.29,11.56,-9.443,-16.4,28.92,-9.085,51.13,27.74,-2.112,17.89,19.46,0.7437,0,0,0,0,0,0,0,0,0,0,0,0,0,0,0,0,
776,24.95,-8.9,-7.01,-44.65,-4.715,-6.928,-29.81,-51.36,19.5,-15.45,22.7,-14.06,-49.11,-5.011,-28.83,-46.34,0,0,0,0,0,0,0,0,0,0,0,0,0,0,0,0,
777,18.02,-19.08,5.734,-58.67,-19.68,-43.82,-44.39,-38.87,-8.303,-29.37,7.184,-33.91,-60.25,-12.68,-24.98,-49.01,0,0,0,0,0,0,0,0,0,0,0,0,0,0,0,0,
778,-1.678,-27,-70.36,-86.57,-47.76,-41.5,-24.87,-62.55,-12.17,-36.19,25.78,-15.24,-33.57,-13.8,-4.089,-22.29,0,0,0,0,0,0,0,0,0,0,0,0,0,0,0,0,
779,0.356,-18.62,-53.06,-64.39,-22.16,-14.3,-15.46,-95.38,2.368,-28.68,34.2,0.3292,-6.163,-2.61,24.78,-2.049,0,0,0,0,0,0,0,0,0,0,0,0,0,0,0,0,
780,11.63,-14.96,-29.45,-53.76,2.719,-17.8,-47.78,-73,4.971,-34.06,26.42,14.09,6.214,-0.5783,34.55,4.951,0,0,0,0,0,0,0,0,0,0,0,0,0,0,0,0,
781,13.83,-17.52,-79.21,-76.78,-11.25,-11.12,-49.06,-49.63,12.13,-31.91,30.34,33.66,19.9,-6.129,19.95,8.364,0,0,0,0,0,0,0,0,0,0,0,0,0,0,0,0,
782,7.037,2.95,-60.78,-60.92,-35.44,-18.58,-23.82,-49.21,-2.404,-12.13,10.72,14.54,22.75,-4.167,8.121,12.55,0,0,0,0,0,0,0,0,0,0,0,0,0,0,0,0,
783,-38.03,0.5647,-35.44,-68.81,-61.77,-73.66,-52.02,-58.77,-51.92,-18.19,-35.52,-29.71,10.94,4.111,-0.9217,15.53,0,0,0,0,0,0,0,0,0,0,0,0,0,0,0,0,
784,-62.72,-17.1,-93.48,-99.93,-60.84,-68.18,-69.37,-56.44,-59.94,-32.64,-46.07,-41.38,4.569,15.2,-10.25,3.374,0,0,0,0,0,0,0,0,0,0,0,0,0,0,0,0,
785,-33.31,-10.88,-92.59,-61.95,-46.79,-38.24,-30.4,-41.33,-43.22,-33.07,-35.27,-43.61,-18.11,8.115,-11.54,-24.38,0,0,0,0,0,0,0,0,0,0,0,0,0,0,0,0,
786,-34.08,-32.25,-42.62,-41.43,-54.09,-70.16,-19.41,-46.48,-49.86,-29.25,-32.28,-48.02,-54.42,-11.23,-12.69,-49.28,0,0,0,0,0,0,0,0,0,0,0,0,0,0,0,0,
787,-41.6,-62.04,-86.23,-82.67,-51.37,-68.43,-50.66,-37.89,-38.35,-20.15,-22.17,-34.64,-82.42,-29.27,-32.99,-72.1,0,0,0,0,0,0,0,0,0,0,0,0,0,0,0,0,
788,-20.96,-62.02,-119.4,-83.41,-43.99,-51.6,-74.74,-10.44,-20.49,-32.79,2.708,-13.83,-98.39,-48.85,-18.82,-69.12,0,0,0,0,0,0,0,0,0,0,0,0,0,0,0,0,
789,-21.39,-70.19,-50.59,-54.72,-46.39,-81.02,-69.63,-35.15,-19.92,-53.5,36.47,16.94,-78.09,-48.63,48.53,-40.04,0,0,0,0,0,0,0,0,0,0,0,0,0,0,0,0,
790,-23.25,-72.55,-36.14,-56.76,-48.4,-84.4,-48.81,-67.19,-20.02,-42.02,23.41,25.82,-48.25,-36.51,47.3,-31.62,0,0,0,0,0,0,0,0,0,0,0,0,0,0,0,0,
791,-28.52,-60.14,-82.04,-70.16,-62.77,-84.51,-42.49,-39.79,-32.32,-35.34,-23.16,-3.267,-37.8,-27.01,-3.242,-9.604,0,0,0,0,0,0,0,0,0,0,0,0,0,0,0,0,
792,-51.65,-57,-69.13,-78.25,-70.19,-98.23,-41.35,-40.24,-45.35,-49.06,-16.51,-20.31,-24.8,-15.11,-4.535,12.29,0,0,0,0,0,0,0,0,0,0,0,0,0,0,0,0,
793,-57.88,-59.85,-85.55,-84.94,-78.04,-71.84,-41.96,-81.65,-53,-41.85,-12.7,-42.26,-31.49,-17.77,-33.74,-28.67,0,0,0,0,0,0,0,0,0,0,0,0,0,0,0,0,
794,-75.32,-69.59,-125.4,-86.13,-104.5,-66.11,-48.11,-49.5,-72.86,-19.82,-50.29,-80.13,-48.21,-8.498,-71.55,-36.24,0,0,0,0,0,0,0,0,0,0,0,0,0,0,0,0,
795,-102.4,-65.36,-64.43,-79.48,-101.3,-97.8,-34.59,-3.691,-80.77,-24.3,-39.32,-86.58,-48.58,16.81,-39.95,-5.447,0,0,0,0,0,0,0,0,0,0,0,0,0,0,0,0,
796,-90.26,-46.8,-8.688,-61.37,-77.09,-91.11,-24.16,-41.12,-55.32,-45.49,15.35,-68.11,-66.21,7.869,-24.57,-48.07,0,0,0,0,0,0,0,0,0,0,0,0,0,0,0,0,
797,-56.51,-47.31,-30.92,-43.68,-62.75,-63.25,-39.39,-75.49,-17.2,-47.85,46.93,-40.6,-78.96,-9.389,-26.18,-82.48,0,0,0,0,0,0,0,0,0,0,0,0,0,0,0,0,
798,-22.1,-53.28,-56.82,-53.63,-47.09,-50.44,-49.51,-81.1,-8.777,-48.02,37.49,-20.71,-66.17,-16.11,1.592,-55.08,0,0,0,0,0,0,0,0,0,0,0,0,0,0,0,0,
799,-1.324,-50.01,-90.36,-64.1,-49.55,-28.08,-40.6,-62.1,-25.18,-45.81,19.48,-18.6,-53.59,-24.07,10.19,-44.31,0,0,0,0,0,0,0,0,0,0,0,0,0,0,0,0,
800,-4.844,-33.93,-95.27,-51.94,-59.81,-13.9,-14.14,0.9261,-27.83,-20.32,21.55,-14.46,-37.04,-14.08,-0.6908,-43.35,0,0,0,0,0,0,0,0,0,0,0,0,0,0,0,0,
801,-18.84,-14.79,-55.11,-67.31,-60.09,-47.21,0.8433,-36.54,-45.26,-6.84,-12.35,-36.9,-36.55,-14.81,-26.23,-35.2,0,0,0,0,0,0,0,0,0,0,0,0,0,0,0,0,
802,-39.3,-25.82,-61.64,-84.09,-67.08,-70.42,-22.14,-134,-70.39,-10.28,-56.29,-63.76,-45.6,-26.83,-46.64,-24.03,0,0,0,0,0,0,0,0,0,0,0,0,0,0,0,0,
803,-45.67,-43.38,-84.43,-63.14,-67.92,-45.89,-44.24,-73.09,-53.78,-22.21,-29.71,-39.46,-34.24,-16.74,-18.52,-7.41,0,0,0,0,0,0,0,0,0,0,0,0,0,0,0,0,
804,-38.04,-45.45,-64.2,-77.26,-67.27,-43.1,-43.17,9.267,-37.7,-36.41,-11.45,-31.01,-35.23,-13.12,-11,-14.94,0,0,0,0,0,0,0,0,0,0,0,0,0,0,0,0,
805,-41.22,-48.39,-62.37,-89.87,-63.9,-51.15,-40.22,-29.25,-35.5,-4.954,-21.26,-54.61,-46.39,-16.55,-46.35,-31.7,0,0,0,0,0,0,0,0,0,0,0,0,0,0,0,0,
806,-40.05,-48.45,-77.34,-35.85,-37.2,-29.32,-45.59,-47.46,-21.14,-1.333,8.523,-47.58,-54.12,-24.35,-35.82,-39.56,0,0,0,0,0,0,0,0,0,0,0,0,0,0,0,0,
807,-35.56,-59.97,-68.42,-17.22,-23.73,-23.05,-52.91,-30.33,-23.5,-68.81,14.46,-32.18,-72.92,-52.69,7.582,-59.7,0,0,0,0,0,0,0,0,0,0,0,0,0,0,0,0,
808,-39.98,-76.36,-97.71,-54.07,-40.38,-27.71,-58.06,-45.53,-36.12,-72.31,-11.31,-22.16,-79.28,-66.88,16.6,-70.98,0,0,0,0,0,0,0,0,0,0,0,0,0,0,0,0,
809,-56.51,-76.54,-156.3,-74.75,-64.47,-50.81,-79.25,-75.95,-44.49,-44.15,8.046,-2.631,-71.33,-56.67,7.871,-49.62,0,0,0,0,0,0,0,0,0,0,0,0,0,0,0,0,
810,-83.66,-78.69,-121.8,-84.56,-77.54,-107.6,-95.45,-107.3,-53.12,-65.73,25.03,1.707,-53.2,-32.97,15.38,-15.55,0,0,0,0,0,0,0,0,0,0,0,0,0,0,0,0,
811,-68.93,-67.47,-57.36,-82.01,-54.95,-99.63,-67.29,-108.1,-41.48,-50.72,-7.982,-12.81,-24.61,-9.992,18.59,3.329,0,0,0,0,0,0,0,0,0,0,0,0,0,0,0,0,
812,-26.59,-47.64,-90.85,-69.03,-27.99,-40.88,-35.77,-65.48,-28.06,-32.13,-24.74,-16.76,-16.67,-12.05,8.75,12.83,0,0,0,0,0,0,0,0,0,0,0,0,0,0,0,0,
813,-28.38,-49.99,-107.2,-52.61,-38.55,-43.79,-33.58,-11.61,-39.18,-53.49,-6.968,-6.237,-20.13,-9.642,13.77,18.75,0,0,0,0,0,0,0,0,0,0,0,0,0,0,0,0,
814,-38.55,-47.83,-53.39,-32.05,-59.45,-66.75,-38.64,-3.094,-58.08,-41.29,-18.08,-19.35,-33.96,-5.356,16.58,-8.252,0,0,0,0,0,0,0,0,0,0,0,0,0,0,0,0,
815,-33.41,-50.53,-53.4,-41.6,-62.25,-59.45,-37.23,-53.56,-62.35,-28.81,-46.46,-56.92,-60.88,-18.03,-11.03,-32.78,0,0,0,0,0,0,0,0,0,0,0,0,0,0,0,0,
816,-48.26,-67.41,-92.45,-43.76,-54.05,-56.93,-23.54,-54.36,-52.71,-35.42,-50.53,-76.1,-58.44,-10.12,-46.46,-21.84,0,0,0,0,0,0,0,0,0,0,0,0,0,0,0,0,
817,-60.15,-56.32,-105.1,-7.743,-52.77,-53.14,-12.51,1.972,-53.64,-16.88,-55.63,-72.95,-53.63,-13.94,-51.83,-37.73,0,0,0,0,0,0,0,0,0,0,0,0,0,0,0,0,
818,-45.58,-36.64,-84.4,-1.611,-43.4,-31.72,-4.84,-7.925,-46.16,-15,-49.98,-48,-61.25,-45.68,-18.62,-62.3,0,0,0,0,0,0,0,0,0,0,0,0,0,0,0,0,
819,-26.97,-33.5,-51.14,-5.663,-20,-17.74,4.171,-41.69,-23.6,-42.52,-33.63,-21.51,-39.76,-41.67,-1.841,-45.22,0,0,0,0,0,0,0,0,0,0,0,0,0,0,0,0,
820,-33.22,-33.45,-82.36,14.54,-35.41,-20.36,-9.582,-23.69,-34.98,-51.15,-49.39,-29.38,-27.7,-21.75,-11.55,-28.09,0,0,0,0,0,0,0,0,0,0,0,0,0,0,0,0,
821,-51,-40.05,-120.1,-1.095,-72.95,-22.04,-18.46,-32.47,-54.33,-37.37,-54.7,-36.81,-43.88,-21.4,4.497,-21.93,0,0,0,0,0,0,0,0,0,0,0,0,0,0,0,0,
822,-54.18,-50.72,-80.27,-33.01,-66.7,-44.52,-14.95,-76.83,-54.68,-36.69,-41.55,-37.57,-53.13,-26.95,11.39,-21.45,0,0,0,0,0,0,0,0,0,0,0,0,0,0,0,0,
823,-70.1,-63.82,-66.92,-29.94,-37.18,-87.55,-36.5,-60.8,-54.64,-59.19,-46.12,-43.05,-49.94,-32.72,1.905,-18.75,0,0,0,0,0,0,0,0,0,0,0,0,0,0,0,0,
824,-79.34,-70.45,-84.38,-36.92,-26.57,-86.8,-43.81,-14.41,-28.87,-59.18,-28.24,-16.75,-26.32,-23.84,18.31,11.15,0,0,0,0,0,0,0,0,0,0,0,0,0,0,0,0,
825,-43.49,-56.87,-68.97,-62.67,-39.21,-62.28,-29.94,-25.34,-10.54,-36.37,-10.99,-10.47,-12.55,-14.12,11.32,20.09,0,0,0,0,0,0,0,0,0,0,0,0,0,0,0,0,
826,-19.11,-41.29,-81.83,-47.83,-39.55,-58.69,-31.58,-42.7,-25.2,-39.52,-28.74,-48.47,-31.76,-12.21,-10.62,-0.344,0,0,0,0,0,0,0,0,0,0,0,0,0,0,0,0,
827,-24.15,-34.35,-97.55,-23.97,-16.35,-41.35,-26.06,-27.91,-18.85,-40.29,-34.83,-47.31,-38.74,1.399,-10.51,-3.033,0,0,0,0,0,0,0,0,0,0,0,0,0,0,0,0,
828,-25.46,-30.1,-75.34,-43.47,-24.63,-27.52,-15.17,-21.59,-16.17,-21.68,-36.53,-24.71,-28.95,-0.8891,-25.22,-9.463,0,0,0,0,0,0,0,0,0,0,0,0,0,0,0,0,
829,-18.94,-17.78,-67.92,-36.17,-38.39,-27.48,0.9936,1.647,-23.86,-41.96,-36.35,-19.46,-20.14,-18.26,-10.93,-2.102,0,0,0,0,0,0,0,0,0,0,0,0,0,0,0,0,
830,14.98,0.9928,-62.81,7.565,-15.48,3.057,31.66,15.3,1.94,-62.01,-18.34,0.2895,-6.334,-15.15,27.07,32.1,0,0,0,0,0,0,0,0,0,0,0,0,0,0,0,0,
831,52.87,4.713,-51.47,12.77,-4.307,29.16,42.53,-19.5,18.54,-3.596,-14.33,13.98,-0.3281,-9.461,0.8482,26.94,0,0,0,0,0,0,0,0,0,0,0,0,0,0,0,0,
832,46.55,4.701,-46.48,8.951,8.555,17.01,40.44,-16.68,7.789,31.24,-11.65,7.215,-1.777,-7.789,-11.63,21.42,0,0,0,0,0,0,0,0,0,0,0,0,0,0,0,0,
833,19.87,2.189,-25.56,1.073,28.54,-0.7852,35.24,2.726,-5.571,-31.42,-6.986,3.327,0.9275,1.318,31.77,56.17,0,0,0,0,0,0,0,0,0,0,0,0,0,0,0,0,
834,11.47,-3.472,-20.81,-22.89,12.69,1.178,29.53,-20.35,-17.72,-49.98,-21.6,-9.136,-1.965,-2.096,12.69,28.56,0,0,0,0,0,0,0,0,0,0,0,0,0,0,0,0,
835,20.24,16.55,-43.92,6.269,6.247,15.66,47.84,-4.769,-11.51,-6.043,-23.99,-34.44,-17.59,-22.3,-36.48,-38.64,0,0,0,0,0,0,0,0,0,0,0,0,0,0,0,0,
836,11.3,11.3,-54.95,23.83,15.94,2.215,40.87,31.05,-9.878,-15.61,-24.9,-51.06,-28.6,-34.6,-21.05,-17.97,0,0,0,0,0,0,0,0,0,0,0,0,0,0,0,0,
837,-23.78,-31.95,-65.34,-35.35,-1.52,-33.5,-3.58,12.67,-31.45,-26.01,-45.61,-58.39,-31.95,-37.78,-26.23,7.164,0,0,0,0,0,0,0,0,0,0,0,0,0,0,0,0,
838,-50.12,-36.17,-78.5,-54.59,-17.37,-51.72,-22.55,-10.75,-35.96,-13.1,-42.17,-63.26,-54.44,-47.76,-69.68,-43.93,0,0,0,0,0,0,0,0,0,0,0,0,0,0,0,0,
839,-60.73,-40.38,-81.52,-24.05,-20.44,-61.95,-39.47,-14.38,-18.79,-42.88,-15.87,-52.26,-71.42,-45.28,-45.46,-47.2,0,0,0,0,0,0,0,0,0,0,0,0,0,0,0,0,
840,-55.68,-75.92,-101.6,-30.9,-30.68,-70.01,-74.54,-35.23,-16.29,-68.16,-21.08,-48.07,-66.29,-31.88,-21.66,-14.95,0,0,0,0,0,0,0,0,0,0,0,0,0,0,0,0,
841,-47.67,-90.24,-127.1,-54.19,-48.1,-82,-87.01,-69.74,-39.67,-68.68,-53.63,-75.67,-85.19,-45.75,-47.24,-47.69,0,0,0,0,0,0,0,0,0,0,0,0,0,0,0,0,
842,-56.43,-94.48,-111,-51.26,-58.23,-99.39,-70.04,-75.98,-51.27,-60.29,-56.01,-69.78,-92.64,-62.84,-6.325,-61.04,0,0,0,0,0,0,0,0,0,0,0,0,0,0,0,0,
843,-46.87,-82.31,-74.02,-28.57,-46.37,-88.37,-40.77,-54.61,-36.96,-23.26,-31.42,-23.24,-59.29,-60.07,25.5,-40.14,0,0,0,0,0,0,0,0,0,0,0,0,0,0,0,0,
844,-31.32,-53.77,-65.57,-32.27,-36.42,-66.87,-26.6,-38.7,-38.44,-11.16,-22.21,-15.94,-51.94,-58.85,-38.85,-52.13,0,0,0,0,0,0,0,0,0,0,0,0,0,0,0,0,
845,-47.43,-58.3,-85.79,-67.42,-45.3,-69.38,-37.2,-16.19,-47,-35.27,-19.14,-34.17,-62.29,-47.24,-60.26,-43.41,0,0,0,0,0,0,0,0,0,0,0,0,0,0,0,0,
846,-56.41,-69.13,-109,-74.17,-65.76,-82.03,-47.59,-3.158,-45.28,-41.49,-28.66,-52.85,-57.94,-28.34,-46.29,-19.55,0,0,0,0,0,0,0,0,0,0,0,0,0,0,0,0,
847,-52.88,-54.82,-107.4,-59.84,-81.77,-77.66,-29.35,-12.11,-48.53,-36.26,-45.63,-71.53,-48.57,-18.55,-62.19,-14.75,0,0,0,0,0,0,0,0,0,0,0,0,0,0,0,0,
848,-48.7,-33.44,-90.54,-58.06,-63.3,-47.29,7.234,1.502,-38.18,-28.54,-30.66,-51.82,-24.84,-13.44,-38.26,4.991,0,0,0,0,0,0,0,0,0,0,0,0,0,0,0,0,
849,-35.21,-29.84,-110.3,-57.78,-48.05,-43.18,-5.603,-7.426,-36.7,-30.59,-33.98,-34.96,-15.7,-16.99,-25.41,12.86,0,0,0,0,0,0,0,0,0,0,0,0,0,0,0,0,
850,-41.06,-59.35,-144.2,-66.7,-63.09,-65.8,-51.83,-59.63,-62.12,-41.98,-65.8,-53.07,-27.27,-16.45,-52.95,1.444,0,0,0,0,0,0,0,0,0,0,0,0,0,0,0,0,
851,-56.13,-66.8,-128.6,-68.48,-49.82,-46.02,-41.5,-70.5,-61.2,-32.18,-47.02,-44.13,-26.77,-32.88,-26.96,-14.58,0,0,0,0,0,0,0,0,0,0,0,0,0,0,0,0,
852,-60.59,-35.97,-88.68,-30.51,-23.89,-34.37,-6.792,-50.13,-45.07,-24.85,-17.04,-21.76,-32.52,-74.28,13.16,-48.97,0,0,0,0,0,0,0,0,0,0,0,0,0,0,0,0,
