%OpenBCI Raw EXG Data
%Number of channels = 16
%Sample Rate = 125 Hz
%Board = OpenBCI_GUI$BoardCytonSerialDaisy
Sample Index,EXG Channel 0,EXG Channel 1,EXG Channel 2,EXG Channel 3,EXG Channel 4,EXG Channel 5,EXG Channel 6,EXG Channel 7,EXG Channel 8,EXG Channel 9,EXG Channel 10,EXG Channel 11,EXG Channel 12,EXG Channel 13,EXG Channel 14,EXG Channel 15,Accel Channel 0,Accel Channel 1,Accel Channel 2,Other,Other,Other,Other,Other,Other,Other,Analog Channel 0,Analog Channel 1,Analog Channel 2,Timestamp,Other,Timestamp (Formatted),Annotations
1,-0,-0,-0,0,-0,0,0,0,-0,-0,-0,-0,0,0,-0,-0,0,0,0,0,0,0,0,0,0,0,0,0,0,0,0,0,T0
2,-4.26,-5.985,-19.8,-13.83,7.298,-16.18,-6.29,-1.303,5.033,-12.64,-21.58,-7.784,-6.683,-4.086,-28.36,-24.2,0,0,0,0,0,0,0,0,0,0,0,0,0,0,0,0,
3,-14.94,4.242,-7.885,9.171,0.5861,-11.91,11.63,26.19,-7.951,-4.049,-29.31,11.52,6.001,13.68,-36.25,-18.58,0,0,0,0,0,0,0,0,0,0,0,0,0,0,0,0,
4,-3.989,27.77,14.3,31.28,19.43,13.44,25.71,41.25,0.8652,2.626,-12.48,37.75,28.76,25.46,-23.48,3.566,0,0,0,0,0,0,0,0,0,0,0,0,0,0,0,0,
5,13.21,32.11,45.91,51.19,43.28,37.14,18.51,41.32,14.58,2.72,-0.0451,34.38,26.56,13.58,-10.87,12.11,0,0,0,0,0,0,0,0,0,0,0,0,0,0,0,0,
6,8.604,18.93,86.61,88.19,40.98,46.73,17.59,58.45,14.01,11.58,3.878,25.31,8.503,10.73,-9.658,8.567,0,0,0,0,0,0,0,0,0,0,0,0,0,0,0,0,
7,11.58,21.43,123.1,141.6,60.62,58.71,38.07,80.06,34.97,21.4,25.66,42.23,14.33,26.19,-5.728,16.23,0,0,0,0,0,0,0,0,0,0,0,0,0,0,0,0,
8,33.27,33.54,186.9,226.9,103.3,79.62,72.26,111.4,53.26,27.65,43.24,55.79,25.02,27.67,5.717,31.76,0,0,0,0,0,0,0,0,0,0,0,0,0,0,0,0,
9,40.84,39.78,274.4,322.3,117,95.06,114.7,173.7,40.39,35.58,38.93,52.6,15.49,20.49,7.464,31.45,0,0,0,0,0,0,0,0,0,0,0,0,0,0,0,0,
10,34.44,45.76,345.4,413.5,129.3,113.1,151.6,233.6,37.48,42.85,35.3,52.81,17.08,32.76,-1.536,19.55,0,0,0,0,0,0,0,0,0,0,0,0,0,0,0,0,
11,35.79,49.26,444.2,539.9,170.8,148.8,179.7,278.8,39.16,54.63,28.07,47.79,30.91,46.63,-8.358,15.13,0,0,0,0,0,0,0,0,0,0,0,0,0,0,0,0,
12,44.67,51.47,580.5,654.7,197.3,182.2,216.8,342.3,20.47,69.55,9.667,35.88,25.56,40.12,-15.99,11.78,0,0,0,0,0,0,0,0,0,0,0,0,0,0,0,0,
13,57.53,58.49,657.4,682.5,209.5,202.4,257.2,403.2,27.61,73.36,8.14,45.63,20.34,35.82,-23.55,1.939,0,0,0,0,0,0,0,0,0,0,0,0,0,0,0,0,
14,74.23,68.75,662.2,668.9,248.8,227.6,281.4,425.9,70.04,76.01,28.53,73.04,37.04,48.69,-16.8,1.962,0,0,0,0,0,0,0,0,0,0,0,0,0,0,0,0,
15,81.49,85.1,661.4,668.5,277.8,243.7,293.1,434.8,83.33,91.98,36.23,75.91,53.47,61.26,-1.405,20.2,0,0,0,0,0,0,0,0,0,0,0,0,0,0,0,0,
16,64.13,97.59,656.3,671.9,254.6,226.9,299.3,447.1,54.4,103.7,21.44,46.65,59.59,71.08,5.065,42.31,0,0,0,0,0,0,0,0,0,0,0,0,0,0,0,0,
17,39.82,93.04,629.9,655.3,230.7,211.9,299.7,449.2,36.79,102.5,15.38,28.19,68.1,86.89,8.529,57.65,0,0,0,0,0,0,0,0,0,0,0,0,0,0,0,0,
18,45.62,91.9,593.1,604.4,243,229.6,301.4,445.2,55.79,105,31.4,36.44,81.07,96.51,22.31,68.86,0,0,0,0,0,0,0,0,0,0,0,0,0,0,0,0,
19,71.85,103.8,549.1,541.8,246.7,242,300.8,428,79.46,107.4,42.94,42.41,84.65,89.13,36.5,75.1,0,0,0,0,0,0,0,0,0,0,0,0,0,0,0,0,
20,77.96,102.2,498.3,481.4,224.5,220.6,281.8,388.4,76.69,96.45,35.93,38.19,67.65,68.56,34.6,64.65,0,0,0,0,0,0,0,0,0,0,0,0,0,0,0,0,
21,69.25,89.73,445.4,415.1,210.3,197.7,254.4,357.3,62.1,84.44,32.31,32.21,49.59,48.66,22.34,38.55,0,0,0,0,0,0,0,0,0,0,0,0,0,0,0,0,
22,67.93,92.7,386.4,362.6,194.2,185.5,239.2,336.1,57.31,79.1,41.32,18.36,52.41,48.7,18.51,26.74,0,0,0,0,0,0,0,0,0,0,0,0,0,0,0,0,
23,57.49,93.29,315.6,309.9,155.5,155.5,215.2,292.5,53.84,71.85,39.67,3.128,56.45,57.66,25.54,44.68,0,0,0,0,0,0,0,0,0,0,0,0,0,0,0,0,
24,30.21,69.14,246.9,230,131.1,117,172,242.2,46.2,68.23,23.45,-1.878,49.34,55.82,27.53,60.85,0,0,0,0,0,0,0,0,0,0,0,0,0,0,0,0,
25,14.09,52.7,197.7,165.5,128.6,99.67,144.4,202.9,37.96,70.77,13.72,-5.328,49.05,57.02,15.67,48.24,0,0,0,0,0,0,0,0,0,0,0,0,0,0,0,0,
26,14.19,56.82,153.2,128.3,102.7,88.78,130.7,168.5,19.28,65.14,4.098,-14.22,44.46,53.29,-3.306,20.81,0,0,0,0,0,0,0,0,0,0,0,0,0,0,0,0,
27,6.987,41.04,103.9,81.85,66.01,72.95,111,155.5,-0.5007,51.63,-16.52,-21.01,20.85,25.6,-20.43,0.2167,0,0,0,0,0,0,0,0,0,0,0,0,0,0,0,0,
28,-2.242,10.76,70.4,36.16,60.88,68.47,104.1,147.1,4.651,38.73,-24.61,-16.67,3.796,6.974,-29.41,-4.705,0,0,0,0,0,0,0,0,0,0,0,0,0,0,0,0,
29,2.339,2.861,43.58,1.726,66.58,58.55,88.25,105.2,20.87,25.27,-7.405,-5.833,0.5665,7.314,-27.44,0.9227,0,0,0,0,0,0,0,0,0,0,0,0,0,0,0,0,
30,0.781,-3.16,-4.168,-39.67,49.96,23.04,37.13,60.54,24.44,18.23,13.28,-7.826,-4.504,-3.246,-18.4,-0.6936,0,0,0,0,0,0,0,0,0,0,0,0,0,0,0,0,
31,-19.8,-21.2,-54.98,-84.76,25.04,-8.699,9.262,49.37,27.56,24.23,16.77,-24.71,-3.42,-9.044,-9.677,-12.39,0,0,0,0,0,0,0,0,0,0,0,0,0,0,0,0,
32,-43.69,-25.41,-87.3,-121.4,11.11,-23.64,23.45,50.16,28.87,30.24,1.757,-34.01,-0.0578,1.498,-8.761,-19.61,0,0,0,0,0,0,0,0,0,0,0,0,0,0,0,0,
33,-66,-26.04,-115.9,-148.5,-2.394,-42.07,27.26,42.18,7.121,22.7,-19.35,-29.74,-12.6,2.688,-18.05,-20.74,0,0,0,0,0,0,0,0,0,0,0,0,0,0,0,0,
34,-73.62,-31.65,-138.1,-167.3,-17.1,-46.41,25.17,34.38,-17.35,8.876,-37.83,-25.27,-25.2,1.662,-32.51,-22.15,0,0,0,0,0,0,0,0,0,0,0,0,0,0,0,0,
35,-52.44,-19.45,-142.3,-184.2,-13.41,-25.23,26.18,27.55,-12.7,5.465,-51.86,-21.16,-23.41,7.512,-48.94,-25.08,0,0,0,0,0,0,0,0,0,0,0,0,0,0,0,0,
36,-35.16,-9.161,-160.2,-210.9,-5.458,-23.68,0.9881,0.0713,2.676,11.93,-50.59,-11.2,-21.84,6.158,-60.8,-30.43,0,0,0,0,0,0,0,0,0,0,0,0,0,0,0,0,
37,-36.21,-16.88,-199.7,-244.4,-15.33,-47.38,-22.11,-33.66,6.48,15.53,-29.22,-0.8556,-19.34,12.3,-52.39,-29.05,0,0,0,0,0,0,0,0,0,0,0,0,0,0,0,0,
38,-29.97,-11.95,-217.2,-262.7,-20.65,-54.44,-11.66,-28.02,14.37,13.54,-6.626,-2.449,-8.217,26.09,-26.49,-13.43,0,0,0,0,0,0,0,0,0,0,0,0,0,0,0,0,
39,-35.69,-9.548,-217.4,-263.6,-19.67,-52.49,-4.535,-8.422,24.59,7.845,-3.437,-23.17,-9.735,13.28,-9.448,-4.208,0,0,0,0,0,0,0,0,0,0,0,0,0,0,0,0,
40,-67.56,-35.38,-231.3,-270.6,-34.27,-57.14,-13.99,-22.12,12.5,2.177,-16.49,-46.87,-29.16,-10.46,-12.47,-16.38,0,0,0,0,0,0,0,0,0,0,0,0,0,0,0,0,
41,-80.24,-47.44,-238.8,-281.1,-40.81,-47.41,-15.08,-33.91,-4.119,2.565,-21.12,-41.63,-28.44,-6.82,-21.97,-25.5,0,0,0,0,0,0,0,0,0,0,0,0,0,0,0,0,
42,-63,-30.88,-234,-281.4,-32.21,-33.8,-12.91,-21.21,-2.631,5.12,-17.42,-13.53,0.1294,7.219,-25.5,-12.58,0,0,0,0,0,0,0,0,0,0,0,0,0,0,0,0,
43,-50.4,-22.44,-250.2,-289.3,-46.51,-46.33,-24.35,-27.24,-12.75,4.285,-39.68,-4.938,10.35,7.294,-27.91,3.675,0,0,0,0,0,0,0,0,0,0,0,0,0,0,0,0,
44,-52.8,-26.61,-276.3,-309.7,-65.31,-69.07,-40.44,-51.39,-29.74,-2.113,-65.98,-13.3,-7.774,2.183,-37.6,5.214,0,0,0,0,0,0,0,0,0,0,0,0,0,0,0,0,
45,-53.2,-31.33,-268,-309.3,-42.26,-63.24,-36.05,-50.11,-4.453,-14.2,-39.94,-2.34,-14.25,-2.119,-40.45,-0.1257,0,0,0,0,0,0,0,0,0,0,0,0,0,0,0,0,
46,-37.32,-35.68,-241.1,-291.2,-19.3,-35.6,-17.13,-36.16,24.45,-21.96,-9.37,7.397,-7.164,-9.815,-24.49,-1.437,0,0,0,0,0,0,0,0,0,0,0,0,0,0,0,0,
47,-29.91,-39.44,-247.6,-296.4,-44.98,-34.36,-25.37,-50.58,0.7301,-23.8,-30.08,-7.109,-11.18,-15.51,-11.42,0.2631,0,0,0,0,0,0,0,0,0,0,0,0,0,0,0,0,
48,-45.34,-44.62,-265.5,-311.4,-60.82,-53.16,-53.73,-74.82,-12.49,-27.63,-31.65,0.6902,-9.057,-6.032,-8.675,6.24,0,0,0,0,0,0,0,0,0,0,0,0,0,0,0,0,
49,-41.33,-40.73,-251.9,-304,-37.82,-49.69,-58.32,-75.76,9.295,-28.09,0.026,23,11.21,13.32,1.989,20.98,0,0,0,0,0,0,0,0,0,0,0,0,0,0,0,0,
50,-30.31,-26.63,-247.7,-299,-47.95,-51.25,-48.02,-73.57,-17.9,-22.41,-24.13,-12.82,17.65,16.66,2.907,31.05,0,0,0,0,0,0,0,0,0,0,0,0,0,0,0,0,
51,-58.03,-21.94,-265.1,-302.3,-82.6,-67.83,-35.76,-74.52,-69.93,-13.79,-71.41,-62.56,7.625,6.014,-27.47,19.35,0,0,0,0,0,0,0,0,0,0,0,0,0,0,0,0,
52,-72.48,-19.24,-250.6,-283.9,-73.45,-45.15,-9.963,-53.84,-58,-7.127,-60.05,-42.91,10.05,7.054,-56.36,0.1094,0,0,0,0,0,0,0,0,0,0,0,0,0,0,0,0,
53,-43.35,-12.75,-226,-263,-56.73,-6.386,1.427,-37.11,-29.79,-19.69,-32.46,-4.266,17.15,13.27,-52.94,-1.73,0,0,0,0,0,0,0,0,0,0,0,0,0,0,0,0,
54,-28.49,-26.59,-232.1,-265.2,-63.67,-7.057,-20.33,-59.69,-38.42,-46.3,-22.82,1.275,16.97,7.806,-28.75,12.15,0,0,0,0,0,0,0,0,0,0,0,0,0,0,0,0,
55,-32.03,-52.78,-241,-275.6,-58.54,-27.04,-47.21,-94.44,-39.04,-58.27,-5.999,2.941,24.95,-0.2027,-3.486,26.83,0,0,0,0,0,0,0,0,0,0,0,0,0,0,0,0,
56,-25.45,-59.65,-244.3,-286.3,-53.74,-42.92,-62.38,-103.1,-22.56,-49.47,9.834,12.35,42.38,0.9255,12.77,37.39,0,0,0,0,0,0,0,0,0,0,0,0,0,0,0,0,
57,-12.94,-39.35,-242,-286.2,-54.43,-38.48,-53.93,-82.86,-10.22,-24.67,21.64,36.88,59.01,8.677,23.04,44.19,0,0,0,0,0,0,0,0,0,0,0,0,0,0,0,0,
58,3.319,-7.185,-218.4,-266.1,-35.02,-7.767,-27.72,-61.51,-0.0335,-3.514,28.93,68.25,63.15,5.21,31.34,40.13,0,0,0,0,0,0,0,0,0,0,0,0,0,0,0,0,
59,-0.7328,-1.482,-205.9,-253.7,-27.51,-1.142,-29.08,-67.61,-6.409,-15.99,7.96,56.48,39.49,-17.61,25.46,16.86,0,0,0,0,0,0,0,0,0,0,0,0,0,0,0,0,
60,-37.46,-34.25,-216.2,-254.9,-42.49,-23.89,-56.11,-86.43,-23.92,-35.64,-20.14,24.75,1.493,-36.55,3.139,-15.6,0,0,0,0,0,0,0,0,0,0,0,0,0,0,0,0,
61,-61.76,-63.51,-208.5,-246.8,-44.91,-30.59,-65.69,-92.37,-30.08,-29.71,-28.95,26.25,-24.7,-42.45,-17.88,-37.9,0,0,0,0,0,0,0,0,0,0,0,0,0,0,0,0,
62,-59.81,-69.04,-196,-243.6,-45.98,-37.37,-64.13,-91.48,-33.22,-27.37,-36.23,27.73,-28.02,-42.7,-25.68,-42.87,0,0,0,0,0,0,0,0,0,0,0,0,0,0,0,0,
63,-52.63,-61.36,-204.6,-252.5,-48.51,-49.31,-62,-86.34,-27.63,-31.38,-37.05,19.98,-2.422,-28.31,-16.77,-30.25,0,0,0,0,0,0,0,0,0,0,0,0,0,0,0,0,
64,-37.7,-44.6,-203.7,-245.7,-34.57,-38.12,-46.45,-76.65,-10.76,-18.9,-23.61,33.88,19.59,-18.87,-2.454,-10.41,0,0,0,0,0,0,0,0,0,0,0,0,0,0,0,0,
65,-30.73,-44.22,-188.6,-228.5,-28.35,-31.06,-35.71,-74.87,-7.7,-20.95,-16.99,36.65,-0.3568,-38.12,-3.61,-4.961,0,0,0,0,0,0,0,0,0,0,0,0,0,0,0,0,
66,-46.77,-70.49,-185,-223.8,-30.79,-35.67,-42.25,-74.41,-5.308,-42.16,-12.59,19.35,-22.84,-46.78,-10.96,-11.98,0,0,0,0,0,0,0,0,0,0,0,0,0,0,0,0,
67,-53.52,-78.5,-182.1,-218.9,-16.88,-17.33,-45.03,-68.26,9.649,-37.44,-2.81,24.56,-12.04,-26.97,-2.893,-10.63,0,0,0,0,0,0,0,0,0,0,0,0,0,0,0,0,
68,-36.13,-56.33,-168.5,-203.4,-5.916,4.175,-40.48,-66.85,9.545,-21.03,-8.088,36.08,-6.419,-20.89,8.453,-5.487,0,0,0,0,0,0,0,0,0,0,0,0,0,0,0,0,
69,-20.87,-48.29,-159.6,-190.8,-11.08,5.743,-35.7,-60.07,-4.196,-27.71,-29.98,24.67,-22.45,-33.65,1.985,-15.24,0,0,0,0,0,0,0,0,0,0,0,0,0,0,0,0,
70,-18.11,-62.32,-161.7,-186.8,-15.36,6.071,-28.21,-40.59,-9.291,-33.63,-44.27,9.639,-34.65,-38.78,-18.72,-36.2,0,0,0,0,0,0,0,0,0,0,0,0,0,0,0,0,
71,-18.15,-70.96,-166.6,-188.7,-15.76,3.366,-28.02,-36,-4.73,-23.93,-37.16,0.3701,-46.72,-39.58,-36.33,-50.47,0,0,0,0,0,0,0,0,0,0,0,0,0,0,0,0,
72,-24.78,-77.3,-172.2,-199.9,-17.4,-12,-41.91,-55.73,-0.6971,-21.06,-27.64,-10.89,-68.92,-42.77,-41.75,-49.81,0,0,0,0,0,0,0,0,0,0,0,0,0,0,0,0,
73,-43.89,-91.67,-179,-213.1,-23.85,-25.44,-53.54,-72.24,-8.724,-20.09,-36.56,-23.02,-74.83,-35.94,-42.37,-37.58,0,0,0,0,0,0,0,0,0,0,0,0,0,0,0,0,
74,-51.59,-91.17,-175.9,-209.8,-26.41,-20.21,-49.76,-71,-14.72,-1.131,-42.06,-29.84,-48.86,-18.13,-42.86,-20.68,0,0,0,0,0,0,0,0,0,0,0,0,0,0,0,0,
75,-31.07,-66.52,-162.3,-194.1,-13.85,1.571,-38.46,-60.43,-5.97,14.66,-31.72,-24.71,-25.89,-9.455,-37.02,-7.731,0,0,0,0,0,0,0,0,0,0,0,0,0,0,0,0,
76,-15.37,-48.27,-163.7,-189.1,-9.852,10.05,-33.25,-46.12,-6.377,8.789,-26.75,-22.7,-28.93,-11,-27.32,-3.539,0,0,0,0,0,0,0,0,0,0,0,0,0,0,0,0,
77,-24.13,-46.31,-178,-193.9,-21.49,-8.976,-35.33,-34.16,-11.78,10.37,-20.83,-36.52,-33.31,-3.721,-20.4,-2.458,0,0,0,0,0,0,0,0,0,0,0,0,0,0,0,0,
78,-29.88,-43.18,-171.6,-192.4,-18.33,-23.79,-41.1,-38.59,-1.165,20.01,-7.824,-30.71,-30.27,2.084,-15.71,-0.7167,0,0,0,0,0,0,0,0,0,0,0,0,0,0,0,0,
79,-26.25,-46.16,-159.6,-190.8,-12.29,-22.53,-54.86,-58.78,4.602,4.99,-2.034,6.541,-35.63,-10.73,-13.32,-3.437,0,0,0,0,0,0,0,0,0,0,0,0,0,0,0,0,
80,-29.9,-63.68,-164.9,-191.2,-19.87,-26.39,-68.93,-70.43,2.764,-6.176,8.8,19.66,-43.1,-26.68,-11.34,-9.921,0,0,0,0,0,0,0,0,0,0,0,0,0,0,0,0,
81,-33.07,-72.88,-159.5,-181.3,-15.87,-27.89,-63.6,-60.35,10.32,15.47,20.61,-5.969,-39.94,-30.12,-8.366,-12.34,0,0,0,0,0,0,0,0,0,0,0,0,0,0,0,0,
82,-28.71,-63.2,-147.5,-174.9,-10.38,-17.87,-52.18,-50.28,8.449,27.74,5.262,-21.73,-34.13,-22.8,-12.16,-9.484,0,0,0,0,0,0,0,0,0,0,0,0,0,0,0,0,
83,-32.94,-57.13,-155.1,-180.4,-20.41,-22.26,-64.51,-59.69,-4.232,16.34,-17.06,-14.56,-39.36,-12.16,-25.39,-6.444,0,0,0,0,0,0,0,0,0,0,0,0,0,0,0,0,
84,-48.43,-64.76,-164.4,-181.4,-27.08,-44.65,-85.15,-71.71,-4.11,11.69,-18.08,-9.068,-45.43,-0.8894,-36.55,-2.207,0,0,0,0,0,0,0,0,0,0,0,0,0,0,0,0,
85,-54.34,-65.87,-180.4,-195.2,-40.18,-55.55,-88.05,-78.13,-1.17,15.71,-13.45,-17.64,-34.12,10.74,-36.57,7.389,0,0,0,0,0,0,0,0,0,0,0,0,0,0,0,0,
86,-51.22,-59.8,-203.6,-223.7,-54.82,-54.98,-88.58,-96.72,-4.696,16.45,-19.89,-37.96,-30.28,2.394,-34.58,9.507,0,0,0,0,0,0,0,0,0,0,0,0,0,0,0,0,
87,-63.13,-72.98,-189.6,-217.9,-37.8,-65.41,-95.54,-104.5,-4.864,8.502,-33.46,-56.84,-55.2,-27.23,-44.97,-11.72,0,0,0,0,0,0,0,0,0,0,0,0,0,0,0,0,
88,-83.83,-95.12,-164,-189.2,-26.18,-82.11,-95.52,-71.39,-11.52,0.2112,-40.22,-65.85,-72.16,-40.68,-60.76,-38.28,0,0,0,0,0,0,0,0,0,0,0,0,0,0,0,0,
89,-86.75,-99.44,-169.3,-183.9,-42.77,-83.43,-95.29,-46.72,-21.8,4.17,-31.79,-64.58,-69.31,-41.03,-64.64,-44.19,0,0,0,0,0,0,0,0,0,0,0,0,0,0,0,0,
90,-72.1,-102,-163.7,-179.2,-33.51,-64.57,-98.06,-67.49,-10.88,-0.0786,-18.1,-47.23,-73.9,-50.54,-55.53,-37.75,0,0,0,0,0,0,0,0,0,0,0,0,0,0,0,0,
91,-55.5,-112.5,-146,-167.2,-12.56,-44.79,-92.3,-84.24,4.637,-16.91,-12.2,-29.82,-75.96,-49.8,-39.88,-32.47,0,0,0,0,0,0,0,0,0,0,0,0,0,0,0,0,
92,-51.99,-111.2,-156.1,-179.3,-30.71,-45.93,-86.53,-77.01,-4.527,-16.01,-23.63,-42.38,-73.79,-40.25,-27.15,-25.59,0,0,0,0,0,0,0,0,0,0,0,0,0,0,0,0,
93,-67.2,-101.1,-162.8,-190.8,-50.02,-62.44,-83.96,-80.28,-21.74,-8.904,-50.05,-74.4,-91.04,-39.34,-33.24,-23.84,0,0,0,0,0,0,0,0,0,0,0,0,0,0,0,0,
94,-82.23,-93.42,-150.4,-177.8,-40.99,-75.98,-74.04,-86.01,-26.92,-14.23,-64.56,-94.61,-100.7,-32.73,-52.98,-33.59,0,0,0,0,0,0,0,0,0,0,0,0,0,0,0,0,
95,-83.77,-88.74,-151.4,-170.3,-37.43,-82.38,-68.58,-75.09,-20.94,-15.2,-55.29,-96.33,-81.56,-27.38,-62.33,-44.64,0,0,0,0,0,0,0,0,0,0,0,0,0,0,0,0,
96,-81.88,-92.51,-155.3,-169.2,-41.99,-75.55,-72.58,-68.48,-6.911,-15.06,-45.77,-88.86,-72.62,-36.21,-63.2,-55.45,0,0,0,0,0,0,0,0,0,0,0,0,0,0,0,0,
97,-80.68,-100.2,-145.8,-156.5,-35.97,-54.16,-71.19,-69.03,0.4417,-18.05,-49.87,-85.66,-80.51,-35,-74.76,-68.78,0,0,0,0,0,0,0,0,0,0,0,0,0,0,0,0,
98,-79.08,-104,-144.2,-153.8,-33.46,-44.3,-73.39,-64.81,-7.294,-16.58,-59.45,-92.15,-79.21,-27.55,-91.69,-72.75,0,0,0,0,0,0,0,0,0,0,0,0,0,0,0,0,
99,-82.36,-110.6,-149.4,-164,-42.68,-58.52,-84,-69.82,-17.11,-27.2,-64.93,-91.46,-79.21,-39.18,-95.4,-66.34,0,0,0,0,0,0,0,0,0,0,0,0,0,0,0,0,
100,-83.46,-114.4,-140.8,-158,-45.12,-66.3,-76.5,-76.29,-20.1,-41.36,-54.04,-69.86,-81.35,-50.15,-80.1,-60.53,0,0,0,0,0,0,0,0,0,0,0,0,0,0,0,0,
101,-67.18,-104.6,-123.9,-142.2,-31.53,-45.91,-55.69,-63.43,-11.44,-34.04,-27.93,-43.06,-74.43,-46.58,-53.59,-53.31,0,0,0,0,0,0,0,0,0,0,0,0,0,0,0,0,
102,-45.98,-98.47,-112.9,-137.3,-12.24,-22.8,-54.68,-52.07,4.208,-27.61,-14.27,-31.62,-77.5,-50.35,-35.35,-47.05,0,0,0,0,0,0,0,0,0,0,0,0,0,0,0,0,
103,-46.68,-104.6,-111.8,-139,-5.311,-27.84,-63.81,-50.9,5.786,-31.18,-23.19,-35.33,-81.49,-53.74,-36.54,-48.79,0,0,0,0,0,0,0,0,0,0,0,0,0,0,0,0,
104,-59.56,-99.9,-123.2,-144.8,-21.13,-53.13,-64.85,-47.11,-6.662,-27.01,-31.14,-46.84,-65.17,-40.05,-41.9,-44.35,0,0,0,0,0,0,0,0,0,0,0,0,0,0,0,0,
105,-62.36,-87.85,-137.2,-151.2,-40.29,-70.9,-75.7,-63.9,-12.58,-35.19,-27.17,-51.56,-57.32,-31.14,-35.24,-24.2,0,0,0,0,0,0,0,0,0,0,0,0,0,0,0,0,
106,-58.43,-89.7,-138.5,-148.9,-40.26,-68.4,-89.42,-93.46,-10.09,-54.06,-22.44,-33.97,-62.55,-31.44,-20.67,-4.694,0,0,0,0,0,0,0,0,0,0,0,0,0,0,0,0,
107,-50.64,-85.95,-132.7,-142.8,-35.63,-56.07,-79.05,-82.07,-12.06,-41.57,-27.71,-22.07,-55.19,-22.43,-11.72,1.05,0,0,0,0,0,0,0,0,0,0,0,0,0,0,0,0,
108,-42.43,-67.2,-127.5,-135.5,-36.16,-48.15,-63.64,-52.63,-15.99,-13.42,-37.33,-40.19,-43.38,-12.65,-14.41,-2.262,0,0,0,0,0,0,0,0,0,0,0,0,0,0,0,0,
109,-35.96,-54.5,-117.2,-125.9,-24.23,-38.36,-57.38,-52.5,-4.31,-5.65,-28.85,-43.34,-25.61,-5.924,-15.04,-1.584,0,0,0,0,0,0,0,0,0,0,0,0,0,0,0,0,
110,-16.34,-36.7,-104.9,-117,-10.83,-20.23,-34.78,-41,13.87,0.6872,-8.818,-12.75,-2.513,7.821,-2.54,9.679,0,0,0,0,0,0,0,0,0,0,0,0,0,0,0,0,
111,2.729,-11.32,-95.53,-103.1,-17.02,-5.531,-7.63,-11.56,13.42,11.81,-2.889,7.088,-3.272,19.5,10.1,22.84,0,0,0,0,0,0,0,0,0,0,0,0,0,0,0,0,
112,-4.55,-14.62,-91.03,-95.23,-24.8,-1.581,-15.4,-27.66,1.578,3.348,-5.196,1.199,-19.27,17.96,12.48,27.1,0,0,0,0,0,0,0,0,0,0,0,0,0,0,0,0,
113,-24.23,-46.63,-98.82,-107.4,-25.67,-9.953,-45.73,-59.46,-14.88,-14.12,-15.98,-15.92,-26.67,6.529,4.376,20.32,0,0,0,0,0,0,0,0,0,0,0,0,0,0,0,0,
114,-33.05,-60.97,-104.3,-114.8,-27.76,-13.93,-55.52,-50.62,-25.95,-16.71,-24.31,-7.46,-10.24,13.73,-5.684,17.35,0,0,0,0,0,0,0,0,0,0,0,0,0,0,0,0,
115,-4.083,-20.2,-89.14,-111.4,-12.66,14.78,-32.07,-43.31,5.222,-8.382,8.701,51.9,44.31,55.2,9.679,40.63,0,0,0,0,0,0,0,0,0,0,0,0,0,0,0,0,
116,48.43,41.44,-75.14,-112.2,11.65,38.73,-4.383,-41.46,39.15,-0.1503,35.77,77.17,67.45,68.34,39.72,65.44,0,0,0,0,0,0,0,0,0,0,0,0,0,0,0,0,
117,39.28,36.51,-77.96,-100.4,1.698,6.903,-7.798,-10.91,6.846,3.21,3.6,18.46,3.159,25.71,29.65,40,0,0,0,0,0,0,0,0,0,0,0,0,0,0,0,0,
118,-24.3,-22.17,-91.36,-92.48,-35.09,-36.64,-34.62,-7.07,-31.47,3.509,-16.14,-20.15,-50.11,7.801,-11.02,-13.56,0,0,0,0,0,0,0,0,0,0,0,0,0,0,0,0,
119,-48.48,-44.08,-124.5,-124.8,-60.55,-50.23,-55.57,-47.7,-22.2,6.815,-1.82,-9.931,-38.5,25.57,-27.79,-35.2,0,0,0,0,0,0,0,0,0,0,0,0,0,0,0,0,
120,-46.7,-37.26,-153.7,-154,-65.81,-55.15,-64.09,-58.06,-22.32,9.346,-15.48,-22.29,-35.4,19.17,-26.41,-31.11,0,0,0,0,0,0,0,0,0,0,0,0,0,0,0,0,
121,-55.14,-37.34,-137.3,-143.3,-51.38,-47.55,-50.46,-27.62,-37.09,6.817,-35.03,-37.02,-41.14,15.45,-30.25,-27.73,0,0,0,0,0,0,0,0,0,0,0,0,0,0,0,0,
122,-42.45,-19.41,-112.5,-131,-34.88,-26.59,-18.08,-10.56,-35.49,5.641,-32.82,-27.45,-20.16,34.99,-29.72,-17.02,0,0,0,0,0,0,0,0,0,0,0,0,0,0,0,0,
123,-27.73,-2.602,-118.5,-129,-41.48,-20.15,-10.97,-28,-41.38,4.607,-37.29,-24.81,-9.131,33.48,-27.04,-5.126,0,0,0,0,0,0,0,0,0,0,0,0,0,0,0,0,
124,-33.54,-12.24,-111.1,-110.3,-46.74,-14.56,-25.8,-43.23,-46.22,-2.908,-41.28,-19.53,-18.79,22.62,-32.14,-9.144,0,0,0,0,0,0,0,0,0,0,0,0,0,0,0,0,
125,-26.75,-11.06,-79.08,-84.22,-31.23,1.614,-17.7,-23.5,-33.68,-12.33,-36.71,-1.636,-25.46,28.99,-34.29,-16.11,0,0,0,0,0,0,0,0,0,0,0,0,0,0,0,0,
126,-20.06,-1.897,-78.19,-86.05,-31.48,-3.866,-11.46,-19.99,-32.92,-18.86,-32.92,10.59,-26.68,30.5,-23.15,-9.737,0,0,0,0,0,0,0,0,0,0,0,0,0,0,0,0,
127,-37.2,-14.69,-106.6,-114.4,-50.21,-30.3,-34.55,-57.06,-29.87,-21.76,-20.96,17.14,-19.46,25.77,-3.744,3.901,0,0,0,0,0,0,0,0,0,0,0,0,0,0,0,0,
128,-50.81,-27.77,-117,-131.6,-54.08,-45.71,-47.83,-62.45,-10.63,-15.92,-16.58,5.353,-24.45,21.15,5.606,8.323,0,0,0,0,0,0,0,0,0,0,0,0,0,0,0,0,
129,-54.74,-34.66,-115,-131.8,-53.24,-44.8,-44.29,-39.4,-13.6,-3.3,-33.52,-29.23,-57.9,6.667,-9.765,-6.826,0,0,0,0,0,0,0,0,0,0,0,0,0,0,0,0,
130,-57.38,-50.19,-119.1,-134.6,-56.72,-34.32,-48.95,-46.98,-28.25,0.8494,-45.76,-42.08,-68.91,-1.286,-33.6,-25.32,0,0,0,0,0,0,0,0,0,0,0,0,0,0,0,0,
131,-46.57,-52.47,-114.4,-130.1,-52.49,-20.81,-49.53,-52.16,-33.64,-7.254,-48.69,-18.16,-37.53,8.931,-38.26,-19.95,0,0,0,0,0,0,0,0,0,0,0,0,0,0,0,0,
132,-34.56,-35.29,-105.6,-117.1,-55.36,-16.61,-38.47,-33.52,-51.59,-7.704,-49.24,3.668,-14.43,21.06,-22.2,4.902,0,0,0,0,0,0,0,0,0,0,0,0,0,0,0,0,
133,-36.26,-24.09,-107.7,-115.4,-62.12,-19.13,-28.68,-29.99,-55.75,4.786,-32.37,12.08,-7.527,25.37,3.18,25.71,0,0,0,0,0,0,0,0,0,0,0,0,0,0,0,0,
134,-35.28,-17.69,-103.4,-111.7,-51.37,-16.32,-18.51,-31.65,-30.5,5.976,-9.891,25.17,3.035,19.41,30.11,35.09,0,0,0,0,0,0,0,0,0,0,0,0,0,0,0,0,
135,-29.47,-8.003,-91.91,-97.93,-45.41,-14.62,-9.632,-20.53,-23.98,-7.287,-8.173,31.77,0.2326,14.21,43.13,35.69,0,0,0,0,0,0,0,0,0,0,0,0,0,0,0,0,
136,-31.71,-12.13,-100.4,-104,-58.38,-27.04,-22.78,-30.81,-29.04,-16.46,-17,14.2,-15.41,21.94,32.41,33.11,0,0,0,0,0,0,0,0,0,0,0,0,0,0,0,0,
137,-39.76,-38.11,-124.9,-135.1,-65.79,-47.35,-61.91,-70.36,-16.5,-24.83,-18.01,-1.583,-17.4,25.39,16.88,40.33,0,0,0,0,0,0,0,0,0,0,0,0,0,0,0,0,
138,-46.2,-60.33,-139.8,-159.7,-62.9,-56.7,-90.46,-96.47,-8.169,-32.46,-9.498,11.68,-7.054,19.53,19.49,60.19,0,0,0,0,0,0,0,0,0,0,0,0,0,0,0,0,
139,-45.26,-58.31,-140.2,-161.6,-58.67,-51.26,-85.38,-90.68,-9.63,-27.72,-5.98,25.65,-8.911,11.96,28.39,70.83,0,0,0,0,0,0,0,0,0,0,0,0,0,0,0,0,
140,-48.03,-56.13,-135.4,-149.7,-55.31,-49.13,-70.54,-71.37,-19.96,-21.74,-28.61,14.26,-26.79,-8.111,17.86,52.49,0,0,0,0,0,0,0,0,0,0,0,0,0,0,0,0,
141,-64.72,-64.64,-130.7,-132.9,-59.75,-56.55,-56.17,-49.56,-36.46,-18.42,-51.57,8.303,-26.4,-15.48,0.9753,25.11,0,0,0,0,0,0,0,0,0,0,0,0,0,0,0,0,
142,-64.73,-52.14,-120.3,-116.1,-58.89,-54.54,-40.01,-35.86,-25.67,-6.162,-34.17,21.27,0.9257,13.4,10.02,26.76,0,0,0,0,0,0,0,0,0,0,0,0,0,0,0,0,
143,-41.35,-31.42,-99.68,-104.2,-38.29,-41.77,-44.41,-42.01,-4.179,2.083,-9.169,22.41,14.04,34.19,35.31,55.19,0,0,0,0,0,0,0,0,0,0,0,0,0,0,0,0,
144,-37.44,-36.38,-99.97,-106.7,-43.42,-44.71,-64.86,-58.32,-17.54,-2.579,-13.04,12.09,12.13,34.03,45.4,74.68,0,0,0,0,0,0,0,0,0,0,0,0,0,0,0,0,
145,-50.93,-42.76,-143.8,-136.7,-98.03,-64.89,-78.33,-79.5,-39.8,-7.915,-20.29,4.673,16.83,34.99,34.76,66.2,0,0,0,0,0,0,0,0,0,0,0,0,0,0,0,0,
146,-51.91,-42.43,-166.4,-166.9,-110,-69.9,-92.59,-103.4,-33.2,-15.41,-18.17,-12.71,3.721,14.06,9.72,33.72,0,0,0,0,0,0,0,0,0,0,0,0,0,0,0,0,
147,-47.36,-58.46,-118,-149.2,-36.87,-51.17,-105.8,-110.3,-12.84,-28.24,-20.37,-36.06,-21.24,-16.37,-19.74,-4.695,0,0,0,0,0,0,0,0,0,0,0,0,0,0,0,0,
148,-47.66,-74.1,-71.49,-112.8,9.164,-39.1,-107.6,-104.7,-11.43,-40.4,-35.01,-53.13,-24.21,-16.27,-38.84,-24.85,0,0,0,0,0,0,0,0,0,0,0,0,0,0,0,0,
149,-61.41,-79.79,-75.29,-108.1,-16.79,-48.68,-108.4,-107.6,-35.22,-50.66,-63.37,-69.17,-27.3,-15.68,-51.4,-27.41,0,0,0,0,0,0,0,0,0,0,0,0,0,0,0,0,
150,-88.65,-89.93,-85.08,-114.5,-37.42,-60.84,-110.2,-111.6,-55.09,-52.94,-81.48,-78.49,-44.37,-32.96,-64.45,-32.55,0,0,0,0,0,0,0,0,0,0,0,0,0,0,0,0,
151,-95.72,-95.78,-93.91,-121.3,-41.9,-64.13,-114.5,-115.6,-58.59,-46.14,-78.25,-78.83,-49.62,-36.3,-68.31,-40.52,0,0,0,0,0,0,0,0,0,0,0,0,0,0,0,0,
152,-78.2,-93.91,-110.3,-135.5,-51.88,-67.99,-121.4,-123.3,-60.19,-40.48,-78.86,-78.2,-45.62,-25.42,-62.37,-39.88,0,0,0,0,0,0,0,0,0,0,0,0,0,0,0,0,
153,-70.59,-90.89,-106.7,-129,-47.14,-75.47,-111.3,-113.1,-58.42,-32.96,-79.56,-73.09,-43.46,-13.57,-54.27,-32.58,0,0,0,0,0,0,0,0,0,0,0,0,0,0,0,0,
154,-70.66,-80.31,-92.12,-103.5,-38.98,-73.03,-82.78,-79.67,-52.35,-22.3,-66.02,-68.85,-36.19,-3.715,-45.29,-26.74,0,0,0,0,0,0,0,0,0,0,0,0,0,0,0,0,
155,-57.6,-63.47,-75.89,-77.89,-31.3,-49.84,-51.87,-46.85,-45.7,-21.96,-59.24,-70.45,-27.84,-7.645,-40.13,-26.99,0,0,0,0,0,0,0,0,0,0,0,0,0,0,0,0,
156,-42.14,-51.89,-45.11,-49.35,-6.943,-24.31,-33.43,-38.59,-39.3,-28.73,-64.64,-63.74,-28.2,-20.61,-38.91,-30.79,0,0,0,0,0,0,0,0,0,0,0,0,0,0,0,0,
157,-43.18,-53.94,-33.34,-45.39,1.589,-25.43,-43.74,-60,-43.42,-25.99,-62.28,-46.62,-31.01,-22.21,-34.73,-28.69,0,0,0,0,0,0,0,0,0,0,0,0,0,0,0,0,
158,-51.48,-53.84,-48.79,-63,-10.86,-39.62,-52.13,-71.1,-41.14,-10.97,-48.76,-29.35,-18.47,-4.371,-28.25,-16.7,0,0,0,0,0,0,0,0,0,0,0,0,0,0,0,0,
159,-41.95,-27.47,-46.45,-51.95,-5.898,-34.64,-22.26,-40.68,-21.29,3.238,-34.46,-16.76,3.07,19.4,-19.57,-1.15,0,0,0,0,0,0,0,0,0,0,0,0,0,0,0,0,
160,-21.78,-5.889,-35.56,-34.16,-1.175,-23.05,-2.411,-15.96,-23.94,0.9016,-26.73,-14.75,3.144,22.52,-7.125,9.16,0,0,0,0,0,0,0,0,0,0,0,0,0,0,0,0,
161,-19.17,-24.77,-42.71,-46.21,-14.68,-30.77,-27.03,-34.24,-40.53,-14.06,-23.27,-20.81,-13.67,4.499,3.68,11.03,0,0,0,0,0,0,0,0,0,0,0,0,0,0,0,0,
162,-28.97,-50.54,-47.02,-55.39,-18.17,-45.47,-48.13,-55.89,-25.81,-24.78,-20.52,-18.79,-19.83,-6.406,10.53,10.12,0,0,0,0,0,0,0,0,0,0,0,0,0,0,0,0,
163,-32.4,-54.27,-41,-51.32,-9.289,-48.08,-47.99,-55.83,-8.238,-28.65,-21.49,-6.591,-14.63,1.5,14.86,14.04,0,0,0,0,0,0,0,0,0,0,0,0,0,0,0,0,
164,-32.98,-52.31,-41.31,-58.65,-4.205,-47.72,-58.3,-59.93,-13.68,-29.28,-24.76,-9.647,-7.444,10.96,14.2,21.15,0,0,0,0,0,0,0,0,0,0,0,0,0,0,0,0,
165,-40.41,-60.07,-53.37,-75.47,-9.711,-58.64,-79.55,-77.14,-19.56,-30.7,-30.05,-34.94,-9.14,2.262,5.849,20.62,0,0,0,0,0,0,0,0,0,0,0,0,0,0,0,0,
166,-53.64,-76.93,-69.82,-87.53,-28.78,-72.4,-86.89,-85.16,-29.39,-39.88,-40.33,-51.48,-24.37,-14.83,-8.981,9.055,0,0,0,0,0,0,0,0,0,0,0,0,0,0,0,0,
167,-58.94,-87.97,-72.64,-85.49,-37.53,-73.68,-79.23,-76.19,-40.11,-49.37,-42.22,-48.71,-34.31,-21.08,-18.69,-0.7003,0,0,0,0,0,0,0,0,0,0,0,0,0,0,0,0,
168,-46.09,-85.68,-55.68,-72.9,-19.88,-62.99,-73.86,-68,-30.48,-49.55,-27.57,-33.3,-28.17,-22.23,-9.285,0.905,0,0,0,0,0,0,0,0,0,0,0,0,0,0,0,0,
169,-21.81,-69.82,-34.96,-60.51,-0.781,-46.54,-65.22,-63.89,-17.55,-48.3,-16.08,-0.9047,-7.388,-14.76,12.71,10.49,0,0,0,0,0,0,0,0,0,0,0,0,0,0,0,0,
170,3.05,-32.27,-26.83,-50.08,6.343,-31.11,-44.37,-49.68,-17.94,-50.33,-17.63,17.37,21.6,7.777,28.35,24.77,0,0,0,0,0,0,0,0,0,0,0,0,0,0,0,0,
171,15.14,0.1385,-35.72,-51.03,5.653,-23.41,-33.57,-37.42,-25.62,-47.55,-22.93,-3.889,30.74,17.64,26.78,36.65,0,0,0,0,0,0,0,0,0,0,0,0,0,0,0,0,
172,8.876,-0.0827,-40.27,-56.46,-2.642,-18.67,-33.32,-42.64,-35.1,-35.83,-27.01,-23.76,16.15,9.351,9.055,35.83,0,0,0,0,0,0,0,0,0,0,0,0,0,0,0,0,
173,2.392,-1.166,-22.25,-40.82,-3.863,-16.98,-21.26,-45.59,-25.76,-23.42,-15.66,-20.37,5.115,7.242,-3.321,29.07,0,0,0,0,0,0,0,0,0,0,0,0,0,0,0,0,
174,7.482,4.258,-10.28,-25.31,6.937,-19.71,-14.17,-38.79,2.028,-20.32,12.96,-11.09,3.522,9.938,9.427,28.92,0,0,0,0,0,0,0,0,0,0,0,0,0,0,0,0,
175,20.25,-5.983,-15.34,-25.59,17.84,-6.094,-18.98,-40.31,13.76,-21.51,23.69,4.253,14.87,14.88,26,30.67,0,0,0,0,0,0,0,0,0,0,0,0,0,0,0,0,
176,36.18,-7.858,-5.504,-11.56,30.03,15.99,-13.47,-43.23,8.998,-16.55,9.521,10.5,26.72,19.42,19.13,25.71,0,0,0,0,0,0,0,0,0,0,0,0,0,0,0,0,
177,31.62,-3.458,4.425,-3.578,31.69,5.136,-16.66,-36.28,3.537,-12.45,-2.811,-13.92,1.699,4.698,-3.821,12.04,0,0,0,0,0,0,0,0,0,0,0,0,0,0,0,0,
178,-1.256,-25.78,-9.421,-23.67,15.02,-20.28,-38.58,-36.05,-4.04,-22.95,-9.185,-40.5,-25.72,-10.17,-27.87,-8.183,0,0,0,0,0,0,0,0,0,0,0,0,0,0,0,0,
179,-13.12,-35.93,-12.16,-24.48,12.06,-15.24,-37.67,-42.37,-3.166,-33.97,-2.864,-27.76,0.4085,5.2,-35.99,-18,0,0,0,0,0,0,0,0,0,0,0,0,0,0,0,0,
180,10.11,-3.634,-2.37,-4.084,18.48,-6.593,-14.96,-32.7,-4.037,-19.73,9.512,10.86,26.91,21.15,-18.14,-6.912,0,0,0,0,0,0,0,0,0,0,0,0,0,0,0,0,
181,5.533,9.927,-14.36,-2.614,-3.525,-30.28,-14.67,-17.76,-25.19,-5.97,-6.416,20.3,4.033,8.988,-6.614,-0.3123,0,0,0,0,0,0,0,0,0,0,0,0,0,0,0,0,
182,-32.11,-20.31,-31.77,-16.74,-25.28,-55.22,-35.04,-26.05,-27.48,-28.4,-15.03,4.185,-11.55,-1.766,-16.7,-10.44,0,0,0,0,0,0,0,0,0,0,0,0,0,0,0,0,
183,-28.42,-33.18,-37.33,-37.95,-11.44,-44.98,-38.9,-38.38,1.194,-46.42,21.81,17.57,6.276,6.074,-8.763,-8.934,0,0,0,0,0,0,0,0,0,0,0,0,0,0,0,0,
184,10.03,-13.24,-39.12,-46.25,-1.508,-19.2,-20.73,-20.34,0.6059,-32.57,26.12,28.71,6.367,1.655,12.02,4.117,0,0,0,0,0,0,0,0,0,0,0,0,0,0,0,0,
185,6.83,-10.33,-30.07,-19.77,-19.32,-12.97,-14.22,0.3315,-31.66,-33.84,-24.47,-5.32,-10.97,-17.27,-1.237,0.0725,0,0,0,0,0,0,0,0,0,0,0,0,0,0,0,0,
186,-18.96,-19.43,-8.239,9.635,-20.41,-11.36,-21.72,-7.816,-39.97,-47.78,-38.62,-14.02,-6.646,-15.74,-31.84,-12.17,0,0,0,0,0,0,0,0,0,0,0,0,0,0,0,0,
187,-8.676,-5.524,20.14,25.48,10.93,9.762,-7.382,-7.697,-31.61,-40.17,-21.56,16.47,-5.702,-8.985,-42.97,-15.4,0,0,0,0,0,0,0,0,0,0,0,0,0,0,0,0,
188,2.759,-2.78,36.94,37.22,20.24,15.17,8.598,12.61,-42.84,-43.24,-30.94,13.61,-24.5,-26.4,-40.88,-16.94,0,0,0,0,0,0,0,0,0,0,0,0,0,0,0,0,
189,-11.83,-25.7,16.72,26.54,-11.17,-13.06,-9.132,9.135,-54.33,-58.86,-27.92,7.6,-13.15,-31.04,-29.93,-13.34,0,0,0,0,0,0,0,0,0,0,0,0,0,0,0,0,
190,-7.781,-18.13,-11.26,5.421,-29.03,-28.52,-23,-8.819,-39.72,-43.73,0.9859,34.77,21.92,-6.183,-16.12,-1.766,0,0,0,0,0,0,0,0,0,0,0,0,0,0,0,0,
191,10.51,7.333,-15.1,-3.881,-21.15,-27.06,-19.72,-11.29,-22.94,-24.19,6.034,41.07,25.13,6.443,-19.27,3.951,0,0,0,0,0,0,0,0,0,0,0,0,0,0,0,0,
192,4.516,-1.409,-21.94,-14.57,-26.04,-36.86,-27.53,-14.33,-26.65,-28.13,2.391,39.09,24.51,8.279,-22.71,8.901,0,0,0,0,0,0,0,0,0,0,0,0,0,0,0,0,
193,2.596,-2.608,-28.29,-9.756,-32.09,-28.4,-15.71,-7.082,-33.51,-22.03,16.67,62.42,56.54,16.27,-1.26,24.18,0,0,0,0,0,0,0,0,0,0,0,0,0,0,0,0,
194,28.42,31.16,-11.56,16.33,-18.83,4.513,23.65,23.54,-35.45,-9.674,15.41,54.59,67.55,4.558,18.23,31.02,0,0,0,0,0,0,0,0,0,0,0,0,0,0,0,0,
195,38.22,43.09,-3.049,19.35,-12.79,7.359,30.08,29.36,-42.93,-22.42,-2.585,10.21,34.77,-16.54,4.402,12.44,0,0,0,0,0,0,0,0,0,0,0,0,0,0,0,0,
196,17.52,26.82,-13.1,4.633,-14.26,-14.06,6.19,0.6738,-45.72,-37.7,-1.681,-5.521,14.54,-15.57,-25.79,-14.89,0,0,0,0,0,0,0,0,0,0,0,0,0,0,0,0,
197,12.68,22.09,-13.12,6.318,-3.564,-11.25,3.087,-8.866,-38.57,-29.37,8.903,8.242,21.63,-14.9,-41.37,-28.1,0,0,0,0,0,0,0,0,0,0,0,0,0,0,0,0,
198,31.65,22.35,-6.053,11.78,-1.689,1.038,16.32,9.498,-35.4,-20.97,9.775,20.87,28.54,-20.59,-35.45,-23.33,0,0,0,0,0,0,0,0,0,0,0,0,0,0,0,0,
199,36.83,15.99,-4.362,11.29,-12.31,-4.269,16.53,17.69,-32.43,-33,12.62,23.36,37.79,-7.576,-20.1,-7.079,0,0,0,0,0,0,0,0,0,0,0,0,0,0,0,0,
200,26.75,11.77,-6.516,12.05,-9.52,-11.78,2.798,0.8951,-28.83,-42.97,16.5,4.688,44.66,4.897,-9.675,8.042,0,0,0,0,0,0,0,0,0,0,0,0,0,0,0,0,
201,20.81,10.8,-10.79,12.05,-3.166,-10.75,-0.5062,-16.41,-32.72,-31.03,16.38,-16.02,34.42,1.267,-6.431,9.306,0,0,0,0,0,0,0,0,0,0,0,0,0,0,0,0,
202,23.76,17.86,-0.2953,20.68,2.732,0.9272,18.47,-8.537,-25.23,-18.14,28.29,-3.47,32.25,2.542,1.974,5.366,0,0,0,0,0,0,0,0,0,0,0,0,0,0,0,0,
203,41.83,33.62,25.98,37.15,23.32,20.92,34.8,13.99,-6.477,-18.48,40.77,24.26,51.22,7.423,20.6,15.61,0,0,0,0,0,0,0,0,0,0,0,0,0,0,0,0,
204,54.79,41.67,29.01,36.23,28.97,19.83,34.13,30.57,-7.121,-13.01,33.44,31.53,59.72,8.571,35.75,35.42,0,0,0,0,0,0,0,0,0,0,0,0,0,0,0,0,
205,35.69,32.41,3.527,22.86,4.396,-8.072,24.96,28.58,-17.96,-4.077,31.95,24.22,50.2,11.21,37.35,44.64,0,0,0,0,0,0,0,0,0,0,0,0,0,0,0,0,
206,18,14.29,-10.15,21.14,-12.5,-20.86,8.283,0.7925,-18.64,-12.84,44.79,25.77,47.05,9.769,31.97,41.93,0,0,0,0,0,0,0,0,0,0,0,0,0,0,0,0,
207,32.29,9.459,-1.986,25.48,-11.03,-3.943,5.254,-16.72,-16.48,-26.75,45.66,45.48,54.85,9.944,30.34,44.2,0,0,0,0,0,0,0,0,0,0,0,0,0,0,0,0,
208,53.91,29.32,11.07,29.62,-2.563,16.12,30.21,4.667,-8.982,-26.59,41.88,69.43,64.48,22.51,36.4,58.26,0,0,0,0,0,0,0,0,0,0,0,0,0,0,0,0,
209,64.75,49.01,20.2,37.91,10.58,25.75,47.49,20.61,-1.977,-17.43,43.91,73.77,77.27,39.35,44.19,73.64,0,0,0,0,0,0,0,0,0,0,0,0,0,0,0,0,
210,60.38,48.54,20.96,41.34,13.91,25.64,46.78,15.49,-12.37,-3.037,42.28,57.04,81.75,47.73,44.72,77.1,0,0,0,0,0,0,0,0,0,0,0,0,0,0,0,0,
211,40.33,40.73,14.32,38.2,2.881,9.563,46.86,21.58,-23.64,10.03,43.81,31.14,56.64,34.23,33.75,57.05,0,0,0,0,0,0,0,0,0,0,0,0,0,0,0,0,
212,25.03,28.62,-1.874,32.46,-12.49,-18.8,32.83,20.37,-23.55,8.13,42.94,5.253,27.32,12.36,12.89,17.85,0,0,0,0,0,0,0,0,0,0,0,0,0,0,0,0,
213,19.32,11.92,-22.13,16.54,-23.05,-35.77,10.2,-0.394,-26,-2.349,32.82,2.812,35.48,15.01,-2.492,-6.316,0,0,0,0,0,0,0,0,0,0,0,0,0,0,0,0,
214,14.59,13.35,-22.25,0.9475,-16.25,-34.57,9.642,-7.407,-22.79,-8.626,42.09,32.1,64.31,29.54,5.666,7.06,0,0,0,0,0,0,0,0,0,0,0,0,0,0,0,0,
215,27.59,35.9,-3.603,9.782,-0.843,-27.34,25.24,2.973,-3.806,-9.842,69.4,55.89,87.04,37.67,27.61,35.58,0,0,0,0,0,0,0,0,0,0,0,0,0,0,0,0,
216,61.68,57.11,11.36,37.8,7.559,-3.479,48.23,23.22,7.749,-4.504,75.5,50.96,98.61,46.6,37.43,48.8,0,0,0,0,0,0,0,0,0,0,0,0,0,0,0,0,
217,85.63,66.92,24.55,59.7,18.84,36.85,76.3,53.48,4.933,3.909,62.6,42.97,83,38.36,29.14,40.94,0,0,0,0,0,0,0,0,0,0,0,0,0,0,0,0,
218,90.47,69.22,43.28,69.26,33.03,57.9,90.46,68.59,12.94,12.31,61.13,52.45,64.21,23.73,19.91,28.92,0,0,0,0,0,0,0,0,0,0,0,0,0,0,0,0,
219,95.47,75.54,52.83,69.76,30.44,50.57,82.88,50.81,23.45,26.04,70.23,63.77,78.4,41.2,27.14,34.41,0,0,0,0,0,0,0,0,0,0,0,0,0,0,0,0,
220,91.87,78.01,33.35,50.17,6.075,30.67,56.52,19.92,5.289,32.83,65.17,58.05,85.42,56.7,42.63,52.44,0,0,0,0,0,0,0,0,0,0,0,0,0,0,0,0,
221,65.41,54.67,0.5433,23.66,-23.66,5.766,29.44,9.846,-22.16,20.64,46.27,47.09,68.64,41.48,45.98,61.49,0,0,0,0,0,0,0,0,0,0,0,0,0,0,0,0,
222,49.24,29.12,-6.458,24.49,-35.57,-6.31,23.48,15.75,-24.19,7.941,44.72,55.23,68.78,29.98,43.57,61.01,0,0,0,0,0,0,0,0,0,0,0,0,0,0,0,0,
223,59.01,23.26,7.775,36.51,-20.26,-0.7995,17.64,3.311,-9.209,4.556,61.09,72.88,66.14,22.49,46.81,57.77,0,0,0,0,0,0,0,0,0,0,0,0,0,0,0,0,
224,59.32,15.74,15.02,32.72,1.361,3.163,7.294,-4.086,0.5566,1.84,58.4,65.98,45.23,13.77,42.01,49.66,0,0,0,0,0,0,0,0,0,0,0,0,0,0,0,0,
225,50.32,20.18,11.84,29.01,-6.329,1.699,21.52,15.95,-7.751,4.302,36.92,38.1,49.97,30.55,28.77,44.75,0,0,0,0,0,0,0,0,0,0,0,0,0,0,0,0,
226,54.7,44.76,3.139,26.41,-30.69,-1.369,32.9,10.06,-20.86,11.32,29.98,27.33,65.07,51.26,26.42,51.4,0,0,0,0,0,0,0,0,0,0,0,0,0,0,0,0,
227,55.9,43.34,7.895,20.27,-13.3,-1.38,18.29,-20.45,-5.106,11.34,34.2,37.37,54.01,45.35,31.9,60.33,0,0,0,0,0,0,0,0,0,0,0,0,0,0,0,0,
228,53.33,26.19,35.39,31.28,36.29,12.22,16.77,-17.09,24.9,12.67,30.62,43.85,50.52,36.8,32.67,64.07,0,0,0,0,0,0,0,0,0,0,0,0,0,0,0,0,
229,67.12,38.67,55.22,51.76,53.19,27.79,30.37,4.567,27.89,25.07,31.15,49.22,69.46,37.76,31.65,65.53,0,0,0,0,0,0,0,0,0,0,0,0,0,0,0,0,
230,74.18,59.57,54.74,56.8,37.67,25.93,32.58,13.24,12.58,30.74,36.52,52.04,75.72,36.18,29.78,64.23,0,0,0,0,0,0,0,0,0,0,0,0,0,0,0,0,
231,49.72,60.07,44.95,48.67,23.75,12.52,29.63,12.93,-0.8296,18.89,22.5,27.55,58.86,35.84,21.58,58.36,0,0,0,0,0,0,0,0,0,0,0,0,0,0,0,0,
232,17.64,41.36,30.2,39.94,15.71,-0.6017,22.62,2.24,-16.14,8.901,-0.1371,-5.122,36.54,31.57,6.975,49.6,0,0,0,0,0,0,0,0,0,0,0,0,0,0,0,0,
233,4.502,9.935,23.91,38.46,11.5,-7.188,12.45,-2.97,-28.15,5.535,1.149,-1.067,26.66,14.31,-5.804,39.12,0,0,0,0,0,0,0,0,0,0,0,0,0,0,0,0,
234,9.534,-6.252,27.51,41.6,8.184,1.152,14.85,3.457,-29.45,-5.486,17.37,25.78,34.55,7.31,-4.665,30.84,0,0,0,0,0,0,0,0,0,0,0,0,0,0,0,0,
235,26.22,13.14,31.76,46.2,8.948,19.79,25.88,0.3601,-25.79,-8.879,20.8,41.21,49.77,25.35,8.087,31.24,0,0,0,0,0,0,0,0,0,0,0,0,0,0,0,0,
236,43.12,43.69,36.74,53.4,13.63,25.11,31.48,0.5199,-24.33,5.672,17.76,50.98,57.9,39.8,15.89,37.37,0,0,0,0,0,0,0,0,0,0,0,0,0,0,0,0,
237,41.05,48.91,33.98,52.29,5.677,10.91,27.1,14.9,-28.29,10.51,26.85,58,49.14,37.39,15.73,39.13,0,0,0,0,0,0,0,0,0,0,0,0,0,0,0,0,
238,25.59,30.36,31.94,46.24,-0.4812,6.198,18.25,20.84,-31.42,7.246,37.19,54.97,34.03,39.52,15.39,36.73,0,0,0,0,0,0,0,0,0,0,0,0,0,0,0,0,
239,24.98,25.14,42.31,49.56,12.01,20.71,17.18,19.59,-26.35,17.33,35.46,62.31,30.99,39.75,13.75,35.35,0,0,0,0,0,0,0,0,0,0,0,0,0,0,0,0,
240,40.35,37.75,41.73,49.37,13.23,26.69,21.85,22.47,-23.21,25.43,33.14,82.6,34.32,23.3,10.82,30.64,0,0,0,0,0,0,0,0,0,0,0,0,0,0,0,0,
241,49.72,42.55,34.04,44.8,2.94,22.9,24.89,21.33,-33.61,28.2,28.68,73.69,35.58,18.39,11.06,23.83,0,0,0,0,0,0,0,0,0,0,0,0,0,0,0,0,
242,42.08,46.03,39.94,50.05,5.373,23.58,24.28,13.9,-51.59,36,12.18,29.94,31.31,33.82,9.278,25.52,0,0,0,0,0,0,0,0,0,0,0,0,0,0,0,0,
243,15.96,45.75,34.43,46.7,-4.112,9.968,10.56,5.864,-65.83,30.83,0.3046,0.417,12.22,38.07,2.016,31.91,0,0,0,0,0,0,0,0,0,0,0,0,0,0,0,0,
244,-8.703,23.6,12.55,27.22,-25.89,-12.42,-6.418,-0.2876,-66.38,15.59,0.0431,3.442,-10.35,31.21,0.8858,33.34,0,0,0,0,0,0,0,0,0,0,0,0,0,0,0,0,
245,-3.239,8.489,7.747,19.18,-20.99,-6.97,-6.064,-6.811,-54.56,10.87,-3.354,13.93,-24.21,27.53,10.46,32.31,0,0,0,0,0,0,0,0,0,0,0,0,0,0,0,0,
246,12.21,15.56,18.52,29.92,-11.2,7.994,-0.2604,-6.647,-51.78,12.05,-9.404,20.16,-33.55,21.76,17.66,31.88,0,0,0,0,0,0,0,0,0,0,0,0,0,0,0,0,
247,4.942,18.27,22.84,39.63,-22.98,-2.429,1.949,11.06,-58.25,19.71,-7.635,24.46,-29.09,23.18,20.25,37.25,0,0,0,0,0,0,0,0,0,0,0,0,0,0,0,0,
248,-4.02,22.08,19.9,37.4,-24.82,-15.78,4.883,20.71,-50.58,26.44,4.657,23.67,-19.27,33.58,31.05,54.26,0,0,0,0,0,0,0,0,0,0,0,0,0,0,0,0,
249,2.031,29.52,16.03,30.69,-19.17,-11.38,-4.287,3.05,-41.37,14.14,17.32,23.78,-26.22,31.42,48.95,71.35,0,0,0,0,0,0,0,0,0,0,0,0,0,0,0,0,
250,0.8994,17.38,11.58,25.54,-30.26,-7.434,-18.19,-8.709,-47.93,2.475,16.65,26.84,-33.01,19.88,59.76,75.11,0,0,0,0,0,0,0,0,0,0,0,0,0,0,0,0,
251,-11.17,-0.255,7.406,21.17,-35.63,-17.33,-19.3,-4.853,-48.73,0.7399,3.953,13.45,-27.14,15.18,53.54,65.56,0,0,0,0,0,0,0,0,0,0,0,0,0,0,0,0,
252,-20.59,-2.979,6.965,23.29,-29.1,-32.51,-24.52,-9.506,-40.82,-8.024,-12.26,-8.816,-16.77,17.85,30.22,48.34,0,0,0,0,0,0,0,0,0,0,0,0,0,0,0,0,
253,-20.69,0.685,8.232,24.04,-26.63,-32.04,-35.89,-15.86,-40.41,-10.82,-17.2,-7.224,0.5919,26.58,8.603,39.81,0,0,0,0,0,0,0,0,0,0,0,0,0,0,0,0,
254,-8.191,8.194,9.829,14.29,-18.94,-13.06,-32.72,-9.248,-39.15,-7.977,-1.996,-0.0783,8,31.99,6.843,47.87,0,0,0,0,0,0,0,0,0,0,0,0,0,0,0,0,
255,2.884,15.73,19.62,21.76,-8.524,0.8586,-22.22,3.917,-31.04,-15.45,11.11,-18.07,-5.668,21.15,10.67,48.76,0,0,0,0,0,0,0,0,0,0,0,0,0,0,0,0,
256,0.5888,8.363,34.64,46.72,-4.851,4.992,-21.27,5.463,-20.31,-17,8.805,-44.19,-22.17,-6.439,-1.739,24.48,0,0,0,0,0,0,0,0,0,0,0,0,0,0,0,0,
257,-7.61,-20.65,37.09,44.77,-2.484,5.879,-35.06,-13.9,-10.19,-18.76,4.119,-71.35,-43.61,-38.49,-24.82,-10.31,0,0,0,0,0,0,0,0,0,0,0,0,0,0,0,0,
258,-19.04,-52.78,24.26,24.34,-4.002,-3.89,-55.28,-29.33,-8.52,-33.36,0.2444,-93.22,-62.4,-44.93,-37.86,-32.46,0,0,0,0,0,0,0,0,0,0,0,0,0,0,0,0,
259,-28.94,-52.73,13.31,20.54,-4.183,-15.28,-59.91,-24.79,-12.8,-32.92,-3.399,-83.29,-56.34,-23.02,-32.78,-31.87,0,0,0,0,0,0,0,0,0,0,0,0,0,0,0,0,
260,-32.74,-31.29,16.97,28.57,-1.886,-17.21,-49.01,-17.36,-19.98,-21.75,-10.37,-68.55,-48.48,-14.14,-25.99,-21.24,0,0,0,0,0,0,0,0,0,0,0,0,0,0,0,0,
261,-32.97,-24.81,28.53,39.12,-9.56,-19.13,-41.13,-14.79,-28.48,-20.92,-23.32,-76.5,-49.77,-15.98,-33.95,-18.47,0,0,0,0,0,0,0,0,0,0,0,0,0,0,0,0,
262,-21.77,-13.25,26.79,34.41,-12.63,-23.1,-41.39,-20.65,-22.84,-13.09,-30.41,-77.64,-37.27,-0.3026,-49.24,-18.06,0,0,0,0,0,0,0,0,0,0,0,0,0,0,0,0,
263,-13.46,8.87,2.706,5.566,-15.48,-33.54,-50.94,-30.9,-18.93,-4.03,-40.47,-82.82,-30.39,2.676,-64.21,-13.15,0,0,0,0,0,0,0,0,0,0,0,0,0,0,0,0,
264,-33.28,-4.501,-20.11,-5.551,-47.64,-54.24,-61.13,-25.63,-47.95,-10.96,-61.91,-112.6,-49.82,-20.96,-80.23,-15.81,0,0,0,0,0,0,0,0,0,0,0,0,0,0,0,0,
265,-59.06,-36.69,-12.75,15.13,-72.35,-60.13,-55.18,-10.63,-78.34,-16.05,-67.62,-123,-64.28,-28.75,-87.83,-28.35,0,0,0,0,0,0,0,0,0,0,0,0,0,0,0,0,
266,-68.8,-32,16.3,36.1,-53.57,-44.52,-37.5,0.8794,-72.71,-14.44,-53.34,-102.6,-50.27,-14.8,-79.23,-37.62,0,0,0,0,0,0,0,0,0,0,0,0,0,0,0,0,
267,-70.53,1.899,33.93,50.65,-36.34,-37.05,-19.98,9.655,-56.02,-11,-37.82,-84.81,-20.25,-4.69,-59.27,-36.17,0,0,0,0,0,0,0,0,0,0,0,0,0,0,0,0,
268,-62.43,29.99,32.3,56.15,-41.61,-41.1,-6.382,13.37,-49.13,1.553,-23.3,-71.12,1.573,-3.788,-35.74,-25.13,0,0,0,0,0,0,0,0,0,0,0,0,0,0,0,0,
269,-49.19,38.29,30.45,53.39,-41.44,-37.4,0.5899,23.84,-41.93,8.779,-22.92,-60.93,-2.656,-13.58,-25.2,-16.88,0,0,0,0,0,0,0,0,0,0,0,0,0,0,0,0,
270,-39.55,30.72,34.54,60.73,-34.63,-24.63,7.647,34.4,-33.69,-0.4225,-40.91,-56.91,-18.85,-22.45,-38.24,-23.68,0,0,0,0,0,0,0,0,0,0,0,0,0,0,0,0,
271,-20.81,28.16,44.82,74.97,-19.33,-3.951,23.41,26.93,-17.9,-7.559,-44.97,-35.53,-16.5,-14.79,-52.48,-32.34,0,0,0,0,0,0,0,0,0,0,0,0,0,0,0,0,
272,2.367,37.33,67.01,91.68,6.926,15.81,35.61,37.44,8.612,-9.57,-29.79,-8.623,-8.13,-11.17,-45.92,-27.83,0,0,0,0,0,0,0,0,0,0,0,0,0,0,0,0,
273,-0.4992,32.19,80.5,103.6,11.64,9.895,25.41,62.17,14.93,-18.78,-24.2,-14.02,-21.82,-19.69,-33.71,-21.6,0,0,0,0,0,0,0,0,0,0,0,0,0,0,0,0,
274,-24.14,9.176,72.15,90,0.9166,-5.403,8.176,43.1,3.997,-24.68,-17.54,-24.57,-32.14,-11.72,-30.4,-19.86,0,0,0,0,0,0,0,0,0,0,0,0,0,0,0,0,
275,-28.19,5.55,69.28,77.98,8.473,3.022,12.1,20.2,12.7,-15.5,5.627,-19.68,-23.5,2.382,-27.75,-15.87,0,0,0,0,0,0,0,0,0,0,0,0,0,0,0,0,
276,-20.93,20.23,68.99,89.56,4.422,4.438,19.34,39.66,15.07,-5.218,5.063,-42.14,-31.49,-5.691,-29.22,-19.23,0,0,0,0,0,0,0,0,0,0,0,0,0,0,0,0,
277,-35.02,17.79,54.25,89.65,-16.66,-16.07,13.15,45.79,-2.14,-3.658,-21.02,-60.7,-43.81,-11.79,-38.35,-32.73,0,0,0,0,0,0,0,0,0,0,0,0,0,0,0,0,
278,-34.15,15.96,57.8,85.93,-1.596,-10.93,22.02,38.19,15.51,-0.3075,-16.61,-15.95,-22.94,-0.9691,-35.03,-36.26,0,0,0,0,0,0,0,0,0,0,0,0,0,0,0,0,
279,-0.7025,35.32,83.46,104.9,25.34,9.065,40.96,60.85,44.88,10.67,-0.1319,21.06,-1.74,2.755,-20.06,-26.69,0,0,0,0,0,0,0,0,0,0,0,0,0,0,0,0,
280,2.578,38.46,87.99,113.5,14.07,1.552,34.65,67.98,26.42,21.97,-20.19,-1.477,-12.35,0.7785,-20.07,-20.53,0,0,0,0,0,0,0,0,0,0,0,0,0,0,0,0,
281,-26.91,12.83,75.76,98.56,0.7377,-4.7,15.19,37.49,5.758,20.75,-46.65,-19.99,-33.66,1.4,-33.44,-22.09,0,0,0,0,0,0,0,0,0,0,0,0,0,0,0,0,
282,-34.79,-8.078,74.27,88.71,8.759,6.957,4.807,26.69,14.26,6.099,-50.16,-16.89,-40.44,-1.593,-39.53,-23.62,0,0,0,0,0,0,0,0,0,0,0,0,0,0,0,0,
283,-32.03,-7.197,73.1,85.87,4.94,2.161,-4.467,31.06,6.617,-1.586,-47.41,-20.37,-25.95,-0.8419,-36.39,-20.44,0,0,0,0,0,0,0,0,0,0,0,0,0,0,0,0,
284,-45.21,1.57,63.22,79.98,-7.915,-17,-17.89,11.04,-11.41,-0.4094,-48.9,-23.65,-15.53,-6.014,-32.34,-19.21,0,0,0,0,0,0,0,0,0,0,0,0,0,0,0,0,
285,-54.28,-2.014,61.81,78.07,-0.74,-19.55,-25.34,0.9788,-3.522,-5.528,-49.36,-14.13,-18.19,-23.76,-26.85,-22.3,0,0,0,0,0,0,0,0,0,0,0,0,0,0,0,0,
286,-38.94,0.4494,68.13,78.99,13.18,-6.503,-21.41,20.87,16.28,-6.984,-32.78,13.13,1.174,-21.16,-9.336,-11.5,0,0,0,0,0,0,0,0,0,0,0,0,0,0,0,0,
287,-13.75,28.23,61.86,71.84,10.55,-0.9839,-20.94,23.74,27.8,-5.275,-8.786,31.59,27.12,-5.759,16.05,16.41,0,0,0,0,0,0,0,0,0,0,0,0,0,0,0,0,
288,-7.694,41.3,55.37,67.77,6.538,-3.259,-24.33,14.1,29.83,-10.35,-14.09,20.44,28.32,-9.592,23.2,35.69,0,0,0,0,0,0,0,0,0,0,0,0,0,0,0,0,
289,-15.6,29.84,69.84,80.02,16.44,7.659,-7.528,33.45,23.84,0.1211,-32.49,20.89,35.92,-8.91,7.633,35.45,0,0,0,0,0,0,0,0,0,0,0,0,0,0,0,0,
290,-10.46,31.55,91.94,94.69,30.54,26.28,17.81,53.02,20.27,19.45,-28.09,31.48,46.77,4.347,-9.509,21.47,0,0,0,0,0,0,0,0,0,0,0,0,0,0,0,0,
291,2.553,37.03,102.5,104.9,30.38,27.2,30.54,49.74,17.04,23.17,-21.2,13.55,34.64,9.826,-22.44,-1.356,0,0,0,0,0,0,0,0,0,0,0,0,0,0,0,0,
292,3.334,37.24,85.61,107.2,1.676,10.88,42.15,55.09,-0.3532,34.38,-22.92,8.226,22.09,15.38,-30.87,-18.28,0,0,0,0,0,0,0,0,0,0,0,0,0,0,0,0,
293,-5.242,42.81,56.58,87.3,-16.16,0.3339,40.7,54.63,-7.512,39.47,-8.358,36.09,5.044,8.179,-26.65,-24.3,0,0,0,0,0,0,0,0,0,0,0,0,0,0,0,0,
294,-2.602,31.87,69.12,70.85,24.83,12.17,18.87,26.26,22.08,5.562,15.89,44.11,-13.94,-15.05,-15.77,-30.91,0,0,0,0,0,0,0,0,0,0,0,0,0,0,0,0,
295,16.96,16.9,103.6,84.41,66.99,29.44,8.97,9.668,49.62,-14.48,25.23,29.26,4.263,-14.67,-9.301,-36.64,0,0,0,0,0,0,0,0,0,0,0,0,0,0,0,0,
296,25.98,24.1,99.22,91.75,55.86,22.56,3.378,7.371,48.52,0.6922,23.99,23.18,20.51,-6.602,-7.386,-39.73,0,0,0,0,0,0,0,0,0,0,0,0,0,0,0,0,
297,16.07,17.4,87.76,79.25,44.35,10.1,-14.31,-6.463,52.84,-2.847,27.55,23.69,-0.8388,-18.22,-7.364,-45.46,0,0,0,0,0,0,0,0,0,0,0,0,0,0,0,0,
298,13.97,-6.393,99.34,81.25,52.95,18.09,-11.87,1.362,60.78,-10.08,32.18,20,-9.564,-17.27,-4.65,-44.72,0,0,0,0,0,0,0,0,0,0,0,0,0,0,0,0,
299,13.52,-7.074,97.76,92.39,46.65,20.1,5.897,25.8,42.03,12.12,23.33,11.79,-7.039,-6.866,-1.374,-36.11,0,0,0,0,0,0,0,0,0,0,0,0,0,0,0,0,
300,-0.9814,4.529,88.02,91.38,36,7.293,6.82,14.18,20.59,23.21,7.715,10.05,-16.49,-7.25,-8.626,-33.55,0,0,0,0,0,0,0,0,0,0,0,0,0,0,0,0,
301,-5.455,12.8,94.39,94.48,33.69,6.957,8.783,4.599,16.5,13.15,0.6734,12.08,-5.617,4.445,-23.1,-34.93,0,0,0,0,0,0,0,0,0,0,0,0,0,0,0,0,
302,1.684,27.62,100.4,109,27.6,11.56,21.84,33.62,10.52,19.38,-6.221,8.508,16.15,21.47,-31.43,-31.58,0,0,0,0,0,0,0,0,0,0,0,0,0,0,0,0,
303,0.8538,44.66,102.7,117.7,25.33,13.03,29.57,40.52,14.92,30.44,-7.537,31.88,30.23,23.82,-26.36,-22.18,0,0,0,0,0,0,0,0,0,0,0,0,0,0,0,0,
304,12.06,64.25,112.5,120.2,34.88,34.59,45.93,29.52,46.66,26.07,19.94,89.57,58.07,27.83,0.5196,-2.756,0,0,0,0,0,0,0,0,0,0,0,0,0,0,0,0,
305,43.63,85.32,121,126.1,45.77,65.5,74.49,55.06,71.14,32.07,53.3,127,74.36,36.28,45.28,23.4,0,0,0,0,0,0,0,0,0,0,0,0,0,0,0,0,
306,65.96,90.12,117.1,127.1,42.07,69.32,80.65,64.15,64.61,44.33,63.11,134.3,57.44,38.99,82.02,43.95,0,0,0,0,0,0,0,0,0,0,0,0,0,0,0,0,
307,69.58,74.88,99.84,114.9,22.37,43.71,56.48,25.21,51.8,31,68.2,131.3,42.33,35.73,95.52,52.99,0,0,0,0,0,0,0,0,0,0,0,0,0,0,0,0,
308,54.12,43.49,79.7,99.09,11.37,10.97,25.18,3.996,48.18,15.67,68.19,99.24,29.91,22.65,88.77,47.37,0,0,0,0,0,0,0,0,0,0,0,0,0,0,0,0,
309,14.46,2.349,74.03,91.88,14.32,-5.88,0.4728,2.946,39.13,17.08,39.72,46.01,7.102,10.96,63.17,27.04,0,0,0,0,0,0,0,0,0,0,0,0,0,0,0,0,
310,-19.74,-18.27,81.1,94.6,10.63,4.907,-1.739,-2.118,24.19,9.104,8.819,11.88,2.417,16.63,31.61,7.929,0,0,0,0,0,0,0,0,0,0,0,0,0,0,0,0,
311,-18.88,0.6813,89.3,100.4,10.14,28.09,21.68,13.91,18.24,0.8497,5.419,6.573,21.05,23.84,17.41,7.019,0,0,0,0,0,0,0,0,0,0,0,0,0,0,0,0,
312,-6.559,29.78,95.84,101,17.45,33.63,32.27,22.34,8.792,2.226,7.092,19.02,38.61,18.54,20.52,19.93,0,0,0,0,0,0,0,0,0,0,0,0,0,0,0,0,
313,-9.291,35.63,87.65,89.19,6.637,16.22,11.11,-1.533,-11.42,-11.95,3.038,29.64,53.83,17.87,31.55,38.19,0,0,0,0,0,0,0,0,0,0,0,0,0,0,0,0,
314,-11.73,25.1,67.2,71.79,-6.532,5.238,-7.636,-8.305,-11.3,-29.23,14.91,32.22,67.59,26.37,57.11,64.18,0,0,0,0,0,0,0,0,0,0,0,0,0,0,0,0,
315,0.2868,19.96,70.24,75.9,2.257,15.43,-0.855,4.475,4.843,-28.08,31.62,44.42,71.88,29.25,86.6,89.16,0,0,0,0,0,0,0,0,0,0,0,0,0,0,0,0,
316,12.61,29.75,92.32,104.8,8.001,26.16,22.85,13.34,-0.4627,-20.79,24.99,47.23,74.15,34.97,90.77,96.05,0,0,0,0,0,0,0,0,0,0,0,0,0,0,0,0,
317,9.803,46.8,95.28,118.9,2.804,25.29,45.08,31.23,-15.97,-15.55,5.128,14.18,70.8,45.65,69.54,83.79,0,0,0,0,0,0,0,0,0,0,0,0,0,0,0,0,
318,-5.003,46.33,85.59,105.1,-0.9751,20.73,44.43,34.3,-18.51,-16.36,-4.543,-10.63,50.17,39.36,45.07,60.84,0,0,0,0,0,0,0,0,0,0,0,0,0,0,0,0,
319,-12.57,28.34,81.5,92.79,-6.684,21.95,23.09,7.432,-12.89,-17.69,2.65,-2.095,33.91,28.2,31.37,39.67,0,0,0,0,0,0,0,0,0,0,0,0,0,0,0,0,
320,-7.025,18.53,80.61,89.74,0.7333,31.78,3.71,-7.98,-2.804,-17.46,15.34,-6.801,22.88,26.31,31.03,30.7,0,0,0,0,0,0,0,0,0,0,0,0,0,0,0,0,
321,-6.416,8.913,90.23,89.67,26.28,39.67,-3.215,-2.22,4.608,-35.44,16.81,-18.69,-10.66,12.6,31.4,25.73,0,0,0,0,0,0,0,0,0,0,0,0,0,0,0,0,
322,-8.649,-7.359,101.7,93.77,40.54,37.23,-2.095,-0.1244,10.1,-48.05,17.73,2.303,-31.03,0.9211,24.07,19.83,0,0,0,0,0,0,0,0,0,0,0,0,0,0,0,0,
323,-3.313,-8.026,92.16,88.05,36.23,22.4,-10.67,-12.58,21.05,-25.53,27.5,15.69,-11.02,8.815,19.24,21.93,0,0,0,0,0,0,0,0,0,0,0,0,0,0,0,0,
324,-7.595,-6.742,80.62,75.58,30.46,0.0635,-31.08,-31.94,22.36,-10.3,26.77,-2.59,-4.996,4.276,17.81,24.24,0,0,0,0,0,0,0,0,0,0,0,0,0,0,0,0,
325,-20.91,-21.29,86.12,79.61,30.22,-9.518,-35.13,-33.26,8.578,-19.42,13.36,-7.856,-20.9,-9.951,11.71,17.04,0,0,0,0,0,0,0,0,0,0,0,0,0,0,0,0,
326,-31.72,-31.37,84.8,87.47,27.67,-12.9,-22.49,-13.21,-7.799,-15.45,-4.153,-5.486,-20.13,-3.397,1.427,11.12,0,0,0,0,0,0,0,0,0,0,0,0,0,0,0,0,
327,-44.63,-34.55,81.24,89.22,22.7,-23.97,-12.03,6.051,-11.55,0.79,-15.06,-10.24,-12.91,9.225,-10.23,10.31,0,0,0,0,0,0,0,0,0,0,0,0,0,0,0,0,
328,-35.23,-33.5,96.39,99.09,31.88,-16.68,2.836,18.27,12.58,8.705,0.591,5.38,-2.658,10.85,-14.22,7.49,0,0,0,0,0,0,0,0,0,0,0,0,0,0,0,0,
329,-2.781,-16.62,98.45,101.3,43.41,-0.484,14.28,19.19,36.6,10.33,17.39,21.93,16,6.705,-5.197,3.966,0,0,0,0,0,0,0,0,0,0,0,0,0,0,0,0,
330,10.51,7.194,90.42,95.36,46.3,2.504,13.79,6.753,41.29,14.24,19.87,27.29,24.81,8.474,8.713,6.851,0,0,0,0,0,0,0,0,0,0,0,0,0,0,0,0,
331,22.9,29.11,111.2,102.3,62.62,19.57,18.62,-1.388,59.27,19.66,44.27,46.93,32.78,25.39,27.22,21.99,0,0,0,0,0,0,0,0,0,0,0,0,0,0,0,0,
332,39.1,38.61,108.8,94.06,57.37,21.58,15.6,-2.544,62.96,11.1,60.04,45.31,39.32,29.59,42.87,40.87,0,0,0,0,0,0,0,0,0,0,0,0,0,0,0,0,
333,8.248,16.32,61.85,70.88,4.327,-19.4,-2.568,-3.293,20.71,-6.397,31.97,16.34,22.66,3.048,34,42.51,0,0,0,0,0,0,0,0,0,0,0,0,0,0,0,0,
334,-25.08,-16.42,57.71,82.71,-14.62,-31.27,0.3841,12.62,-0.4533,-4.167,12.57,17.7,8.73,-13.1,9.736,25.32,0,0,0,0,0,0,0,0,0,0,0,0,0,0,0,0,
335,-4.434,-23.65,90.75,109.1,19.01,-8.624,18.86,39.33,16,15.27,9.608,22.21,14.73,-5.316,-3.811,7.769,0,0,0,0,0,0,0,0,0,0,0,0,0,0,0,0,
336,14.26,-6.771,96.45,113.4,31.94,-3.403,23.81,39.39,18.89,27.7,-1.503,-4.886,16.12,-3.804,-4.509,0.0551,0,0,0,0,0,0,0,0,0,0,0,0,0,0,0,0,
337,5.642,11.05,99.7,113.2,23.98,5.49,24.22,18.77,12.05,23.77,-3.348,-20.91,12.26,-6.272,-0.8907,1.197,0,0,0,0,0,0,0,0,0,0,0,0,0,0,0,0,
338,-4.945,9.511,102.8,105.3,18.2,7.52,18.7,15.32,4.849,10.22,-6.411,-22.88,13.05,0.8037,-1.728,6.875,0,0,0,0,0,0,0,0,0,0,0,0,0,0,0,0,
339,-16.39,5.017,83.94,89.59,8.897,-17.96,10.53,27.23,2.041,5.459,-8.66,-20.76,16.26,12.5,-7.075,13.7,0,0,0,0,0,0,0,0,0,0,0,0,0,0,0,0,
340,-8.132,21.22,79.33,94.02,8.231,-18.77,22.39,31.7,18.5,9.668,9.58,4.173,15.78,21.88,-3.034,21.97,0,0,0,0,0,0,0,0,0,0,0,0,0,0,0,0,
341,14.5,24.45,86.05,100.8,5.44,-1.272,28.44,21.84,22.53,6.653,14.23,21.86,2.984,16.61,8.21,27.94,0,0,0,0,0,0,0,0,0,0,0,0,0,0,0,0,
342,12.11,-3.797,78.15,92.35,-5.725,-7.211,10.44,10.84,10.6,5.132,6.461,13.79,-7.545,-0.1149,12.04,25.04,0,0,0,0,0,0,0,0,0,0,0,0,0,0,0,0,
343,3.881,-23.76,83.08,93.72,4.396,-8.327,5.786,21.45,21.48,9.215,12.38,4.742,-10.44,-15.29,4.526,10.48,0,0,0,0,0,0,0,0,0,0,0,0,0,0,0,0,
344,-0.0605,-32.04,95.39,98.25,17.59,-5.562,5.864,30.84,27.22,-0.209,0.3175,-18.96,-30.46,-41.85,-18.66,-20.05,0,0,0,0,0,0,0,0,0,0,0,0,0,0,0,0,
345,-26.45,-49.1,83.16,88.31,3.911,-27.33,-16.17,6.33,9.472,-15.96,-19.03,-54.14,-49.74,-67.01,-47.4,-57.8,0,0,0,0,0,0,0,0,0,0,0,0,0,0,0,0,
346,-38.68,-47.72,71.62,85.29,-3.211,-36.15,-20.06,-4.758,12.86,-17.96,-7.17,-58.01,-34.88,-49.19,-49.15,-71.27,0,0,0,0,0,0,0,0,0,0,0,0,0,0,0,0,
347,-11.1,-14.82,80.24,90.87,9.293,-16.63,0.9345,19.63,23.7,-11.29,1.32,-44.36,-8.221,-12.39,-19.18,-46.84,0,0,0,0,0,0,0,0,0,0,0,0,0,0,0,0,
348,-0.0727,5.948,77.92,80.79,2.885,-18.78,-2.709,15.93,4.995,-4.614,-9.624,-41.61,4.2,-4.924,10.41,-8.954,0,0,0,0,0,0,0,0,0,0,0,0,0,0,0,0,
349,-16.73,-7.429,62.54,67.34,-16.6,-38.57,-16.48,-5.414,-4.083,-1.933,-6.232,-35.02,2.626,-12.5,19.7,17,0,0,0,0,0,0,0,0,0,0,0,0,0,0,0,0,
350,-10.69,-25.02,70.32,77.12,-7.109,-22.7,-7.887,10.74,18.79,-8.526,4.39,-27.84,-7.421,-15.61,17.34,26.32,0,0,0,0,0,0,0,0,0,0,0,0,0,0,0,0,
351,14.71,-32.34,94.68,99.27,16.59,13.73,-7.52,17.8,30.4,-20.59,3.362,-26.06,-6.778,-20.02,20.98,28.27,0,0,0,0,0,0,0,0,0,0,0,0,0,0,0,0,
352,26.55,-41.64,103.8,110.1,19.52,23.91,-22.34,-10.29,22.04,-28.99,5.596,-10.07,12.34,-16.36,37.79,35.25,0,0,0,0,0,0,0,0,0,0,0,0,0,0,0,0,
353,30.47,-43.24,102.3,107.8,14.78,15.37,-16.96,-5.01,20.68,-25.81,14.7,8.037,27.62,-5.463,57.49,45.7,0,0,0,0,0,0,0,0,0,0,0,0,0,0,0,0,
354,32.76,-25.79,96.64,102.8,9.955,1.766,1.643,33.48,20.18,-10.69,16.76,8.273,25.53,-7.202,66.03,48.71,0,0,0,0,0,0,0,0,0,0,0,0,0,0,0,0,
355,22.27,-6.801,81.87,99.59,-7.764,-17.52,6.032,37.79,9.283,3.276,11.91,5.046,17.06,-15.32,63.29,45.78,0,0,0,0,0,0,0,0,0,0,0,0,0,0,0,0,
356,10.46,4.276,76.26,98.05,-18.18,-19.7,3.304,16.84,2.835,5.926,6.228,7.793,15.59,-13.04,59.99,44.29,0,0,0,0,0,0,0,0,0,0,0,0,0,0,0,0,
357,20.66,14.93,93.19,104.3,-4.891,-4.956,4.495,14.04,8.852,1.589,2.405,16.03,17.07,-12.77,58.21,40.97,0,0,0,0,0,0,0,0,0,0,0,0,0,0,0,0,
358,37.65,14.41,103.3,110.6,1.792,-9.474,-4.319,14.75,10.91,1.514,1.265,16.03,10.93,-24.94,48.16,30.89,0,0,0,0,0,0,0,0,0,0,0,0,0,0,0,0,
359,27.6,-7.902,80.13,96.03,-14.53,-28.05,-23.98,6.828,-3.289,11.08,-2.357,-10.87,8.337,-24.09,30.02,20.39,0,0,0,0,0,0,0,0,0,0,0,0,0,0,0,0,
360,5.327,-25.26,63.17,84.29,-24.09,-29.31,-24.38,18.15,-16.25,20.52,-9.329,-33.78,17.22,-1.622,15.11,17.33,0,0,0,0,0,0,0,0,0,0,0,0,0,0,0,0,
361,-2.717,-21.01,78.06,95.31,-20.08,-28.76,-9.031,33.33,-16.24,22.47,-15.47,-31.16,18.3,6.92,5.432,17.39,0,0,0,0,0,0,0,0,0,0,0,0,0,0,0,0,
362,-12.51,-18.91,76.27,90.8,-23.02,-40.31,-9.336,18.17,-15.84,23.73,-12.52,-28.52,11.77,-1.192,4.235,14.47,0,0,0,0,0,0,0,0,0,0,0,0,0,0,0,0,
363,-12.34,-13.8,79.94,89.8,-12.24,-30.44,-3.819,15.04,-9.748,23.26,10.3,-16.08,14.93,2.325,21.16,10.92,0,0,0,0,0,0,0,0,0,0,0,0,0,0,0,0,
364,17.58,10.75,134.6,136.6,15.93,-2.98,22.64,50.1,1.507,14.98,26.45,2.737,15.18,2.386,40.11,6.496,0,0,0,0,0,0,0,0,0,0,0,0,0,0,0,0,
365,24.89,20.3,164.4,183.1,21.11,3.001,34,76.9,-7.131,11.81,1.005,-17.71,2.218,-12.13,32.15,-2.059,0,0,0,0,0,0,0,0,0,0,0,0,0,0,0,0,
366,-3.938,7.294,181.5,224.5,29.62,5.16,40.46,99.98,-16.86,25.12,-30.11,-53.14,-9.971,-16.51,3.615,-10.62,0,0,0,0,0,0,0,0,0,0,0,0,0,0,0,0,
367,-10.23,2.264,276.3,310.9,74.45,28.4,68.75,145.9,5.463,37.9,-22.04,-54.79,-15.44,-13.9,-16.31,-13.69,0,0,0,0,0,0,0,0,0,0,0,0,0,0,0,0,
368,3.534,-1.475,378.8,416.8,108.5,56.19,99.43,191.3,29.95,40.8,1.836,-39.52,-10.06,-11.37,-13.88,-9.688,0,0,0,0,0,0,0,0,0,0,0,0,0,0,0,0,
369,10.35,4.264,478,542.6,130.3,88.19,144.6,251.8,28.98,52.98,14.78,-25.97,9.489,8.83,6.366,3.45,0,0,0,0,0,0,0,0,0,0,0,0,0,0,0,0,
370,34.48,42.23,646.8,686.9,189.1,140.6,222.9,346.6,40.18,71.18,35.28,1.832,35.03,37.94,34.64,27.16,0,0,0,0,0,0,0,0,0,0,0,0,0,0,0,0,
371,85.91,81.27,752.5,744.4,269,214,292.5,421.3,84.5,76.57,72.93,44.08,65.77,52.42,61.59,54.35,0,0,0,0,0,0,0,0,0,0,0,0,0,0,0,0,
372,130.1,100.4,721.2,715.6,321.4,276.4,326.2,451.7,110,84.45,88.73,56.14,92.98,48.65,72.98,67.72,0,0,0,0,0,0,0,0,0,0,0,0,0,0,0,0,
373,134.3,114.5,705.6,713.3,327.2,288.9,341.4,469.4,95.22,101,65.59,26.98,99.37,38.23,62.39,62.98,0,0,0,0,0,0,0,0,0,0,0,0,0,0,0,0,
374,124.6,126,732.1,731.2,317,289.7,358.4,488.2,95.19,109.1,55.1,23.79,102.1,48.33,52.32,63.85,0,0,0,0,0,0,0,0,0,0,0,0,0,0,0,0,
375,147,142.1,720.9,718.7,329.1,322.1,381.4,498.6,115.7,114.6,70.53,49.29,115.3,76.1,59.46,82.24,0,0,0,0,0,0,0,0,0,0,0,0,0,0,0,0,
376,165.9,155,679.3,679.1,334.4,331.8,383.6,479,110.9,115.9,64.93,35.78,117.9,78.3,64.46,93.87,0,0,0,0,0,0,0,0,0,0,0,0,0,0,0,0,
377,144.5,142.3,615.2,612.3,309.2,298.1,353.5,434.3,101.7,106.9,49.25,10.74,119.3,65.13,59.51,88.85,0,0,0,0,0,0,0,0,0,0,0,0,0,0,0,0,
378,132.8,131.3,548.9,544.5,296.5,278.5,324.4,399.2,119.4,108.6,63.69,29.13,141.4,79.5,67.7,92.63,0,0,0,0,0,0,0,0,0,0,0,0,0,0,0,0,
379,146.8,142,511.6,494.1,298.3,272.2,300,365.1,130.8,112,88.81,54.02,148,91.35,90.25,107.4,0,0,0,0,0,0,0,0,0,0,0,0,0,0,0,0,
380,138.5,131.9,456.2,427.3,271.2,248.2,264.2,313.3,116.2,97.36,88.48,43.78,117.3,66.49,94.58,99.79,0,0,0,0,0,0,0,0,0,0,0,0,0,0,0,0,
381,110.2,97.68,365.7,349.7,220.8,219.2,238.5,277.3,95.7,91.11,61.43,14.52,87.72,43.09,66,62.38,0,0,0,0,0,0,0,0,0,0,0,0,0,0,0,0,
382,94.98,82.2,290.6,285.8,178,188,223.5,262.3,75.69,88.74,39.42,0.2835,69.4,36.06,33.37,22.67,0,0,0,0,0,0,0,0,0,0,0,0,0,0,0,0,
383,85.84,68.81,229.4,219.3,150.4,144.2,189.8,230.8,60.93,62.01,48.14,4.37,41.05,13.51,30.07,-4.808,0,0,0,0,0,0,0,0,0,0,0,0,0,0,0,0,
384,66.48,25.24,163.7,153.7,132.8,102.9,144.2,181.8,69.46,35.57,60.17,-5.573,7.666,-20.75,48.57,-23.8,0,0,0,0,0,0,0,0,0,0,0,0,0,0,0,0,
385,41.27,-21.88,106,96.17,114.7,74.31,96.81,131.2,79.99,20.13,41.01,-43.09,-30.71,-45.68,53.98,-38.35,0,0,0,0,0,0,0,0,0,0,0,0,0,0,0,0,
386,16.24,-50.32,53.37,31.95,94.33,51.26,48.16,82.16,61.95,-0.3773,14.59,-83.31,-66.53,-59.86,32.07,-53.07,0,0,0,0,0,0,0,0,0,0,0,0,0,0,0,0,
387,0.6659,-62.14,4.729,-20.64,77.98,37.52,30.57,53.69,44.8,-1.293,11.33,-92.92,-57.35,-52.58,4.756,-61.52,0,0,0,0,0,0,0,0,0,0,0,0,0,0,0,0,
388,6.101,-43.7,-36.04,-55.9,55.35,36.71,52.16,52.49,39.81,26.69,11.22,-69.16,-8.315,-18.63,-2.182,-46.14,0,0,0,0,0,0,0,0,0,0,0,0,0,0,0,0,
389,19.19,-4.632,-80.09,-100.2,26.24,34.59,70.92,56.22,21.74,47.6,0.3155,-52.87,20.27,12.68,7.676,-14.57,0,0,0,0,0,0,0,0,0,0,0,0,0,0,0,0,
390,21.44,15.59,-116,-134.5,15.06,23.49,71.44,57.54,24.96,49.06,6.824,-53.24,13.1,17.14,15.55,1.813,0,0,0,0,0,0,0,0,0,0,0,0,0,0,0,0,
391,21.7,12.66,-126.9,-144.2,21.61,19.59,67.11,59.09,60.16,47.2,32.57,-33.32,2.773,10.23,19.42,-1.352,0,0,0,0,0,0,0,0,0,0,0,0,0,0,0,0,
392,27.4,10.47,-130.5,-161.7,30.43,35.62,58.39,47.45,69.13,49.69,43.43,-8.812,5.936,8.042,26.13,-1.114,0,0,0,0,0,0,0,0,0,0,0,0,0,0,0,0,
393,30.92,14.55,-144.7,-189.6,36.61,55.19,45.59,17.94,61.95,48.1,41.38,-14.61,10.16,-1.143,30.38,6.744,0,0,0,0,0,0,0,0,0,0,0,0,0,0,0,0,
394,36.02,21.67,-168.3,-210.5,28.67,60.87,39.32,-5.91,69.91,41.14,41.81,-21.21,4.497,-14.79,23.89,9.623,0,0,0,0,0,0,0,0,0,0,0,0,0,0,0,0,
395,48.67,36.85,-191.8,-225.3,16.89,62.03,50.85,0.4713,64.17,48.75,27.87,-11.7,1.808,-15,8.462,5.848,0,0,0,0,0,0,0,0,0,0,0,0,0,0,0,0,
396,55.5,54.11,-207.4,-234.3,17.11,60.94,69.91,23.72,48.57,64.1,3.301,-13.58,9.307,-12.72,-7.677,-1.799,0,0,0,0,0,0,0,0,0,0,0,0,0,0,0,0,
397,45.3,55.89,-226.1,-247.6,3.405,43.79,66.87,28.81,34.7,55.85,-7.66,-18.9,7.744,-17.53,-17.76,-11.89,0,0,0,0,0,0,0,0,0,0,0,0,0,0,0,0,
398,31.13,46.95,-252.1,-269,-25.12,21.12,46.22,14.46,7.874,35.46,-14.33,-7.614,-5.777,-13.9,-22.77,-16.86,0,0,0,0,0,0,0,0,0,0,0,0,0,0,0,0,
399,29.52,48.07,-262.7,-277.1,-33.49,15.87,39.63,4.603,4.452,28.27,-20.65,1.333,-3.675,-0.8964,-26.89,-11.49,0,0,0,0,0,0,0,0,0,0,0,0,0,0,0,0,
400,36.64,55.74,-258.2,-274.9,-27.49,22.57,39.57,-1.826,34.06,26.14,-11.88,-5.423,13.7,5.35,-30.12,-3.337,0,0,0,0,0,0,0,0,0,0,0,0,0,0,0,0,
401,34.16,46.95,-267.4,-288.5,-27.42,12.82,17.94,-25.78,36.63,13.36,-5.474,-21.56,9.217,-4.824,-33.8,-6.741,0,0,0,0,0,0,0,0,0,0,0,0,0,0,0,0,
402,15.1,20.01,-282.8,-306.3,-31.31,-17.48,-11.4,-60.63,15.92,-13.09,-12.55,-39.9,-11.58,-21.57,-35.89,-20.19,0,0,0,0,0,0,0,0,0,0,0,0,0,0,0,0,
403,2.503,4.699,-274.8,-299.4,-35.5,-29.83,-12.81,-67.33,12.39,-26.01,-10.82,-41.83,-5.957,-26.59,-26.14,-21.63,0,0,0,0,0,0,0,0,0,0,0,0,0,0,0,0,
404,15.14,16.55,-260.2,-280.6,-38.34,-14.16,10.55,-42.76,16.59,-4.291,2.212,-22.44,16.46,-25.82,-7.163,-9.211,0,0,0,0,0,0,0,0,0,0,0,0,0,0,0,0,
405,34.69,32.58,-260.3,-275.1,-39.65,-7.388,25.44,-34.07,30.23,11.83,21.21,-2.094,26.89,-22.98,8.164,-7.026,0,0,0,0,0,0,0,0,0,0,0,0,0,0,0,0,
406,41.46,37.16,-254.6,-272.9,-35.71,-13.2,23.22,-46.07,52.79,4.512,41.45,5.622,29.01,-10.17,16.92,-18.15,0,0,0,0,0,0,0,0,0,0,0,0,0,0,0,0,
407,29.43,31.37,-249.8,-267.7,-33.42,-24.13,15.46,-43.89,41.01,6.99,30.64,-11.09,7.456,-13.66,10.16,-32.25,0,0,0,0,0,0,0,0,0,0,0,0,0,0,0,0,
408,-0.7246,7.339,-269.6,-275.2,-53.73,-55.83,0.3348,-43.42,-0.3097,5.904,-4.981,-40.26,-33.75,-36.35,-18.77,-50.04,0,0,0,0,0,0,0,0,0,0,0,0,0,0,0,0,
409,-17.42,-17.78,-281.5,-285.5,-78.54,-77.72,-18.63,-63.67,-12.82,-7.694,-13.94,-38.51,-38.11,-33.8,-42.53,-59.58,0,0,0,0,0,0,0,0,0,0,0,0,0,0,0,0,
410,-4.452,-14.19,-269.4,-283.3,-79.9,-62.71,-30.03,-75.34,0.668,2.59,-8.898,-27.83,-20.06,-20.5,-41.53,-53.07,0,0,0,0,0,0,0,0,0,0,0,0,0,0,0,0,
411,-5.581,-6.768,-271.5,-284.6,-81.93,-56.8,-46.46,-82.43,-9.098,14.96,-26.03,-58.8,-37.03,-31.36,-37.9,-52.58,0,0,0,0,0,0,0,0,0,0,0,0,0,0,0,0,
412,-28.97,-21.49,-278.3,-287.3,-90.35,-65.49,-65.32,-100.3,-26.58,0.0828,-30.3,-80.91,-47.48,-32.16,-41.78,-63.25,0,0,0,0,0,0,0,0,0,0,0,0,0,0,0,0,
413,-25.42,-22.32,-248.8,-267.5,-72.77,-45.87,-52.05,-91.29,-9.872,-3.854,-3.562,-53.66,-15.44,-9.042,-38.16,-62.92,0,0,0,0,0,0,0,0,0,0,0,0,0,0,0,0,
414,-4.876,-0.8211,-215.2,-249.6,-49.9,-29.92,-27.19,-67.76,9.006,7.62,10.42,-39.37,-0.5361,0.4092,-31.23,-51.79,0,0,0,0,0,0,0,0,0,0,0,0,0,0,0,0,
415,-6.16,-0.5834,-226.4,-265.6,-60.04,-49.78,-35.58,-81.99,4.123,6.641,9.104,-50.16,-14.46,-9.027,-31.89,-47.72,0,0,0,0,0,0,0,0,0,0,0,0,0,0,0,0,
416,-3.752,-9.917,-242,-276.3,-70.67,-54.67,-40.95,-92.11,12.1,4.964,18.59,-39.97,-14.83,-20.07,-33.64,-54.47,0,0,0,0,0,0,0,0,0,0,0,0,0,0,0,0,
417,12.93,7.693,-218.3,-251.7,-49.59,-33.26,-14.96,-62.55,25.21,6.284,22.32,-30.79,-16.82,-25.49,-34.23,-64.77,0,0,0,0,0,0,0,0,0,0,0,0,0,0,0,0,
418,8.311,20.91,-200.2,-232.2,-38.36,-31.29,-4.938,-52.07,15.28,3.803,14.33,-43.95,-30.97,-20.91,-35.91,-68.94,0,0,0,0,0,0,0,0,0,0,0,0,0,0,0,0,
419,-8.167,1.711,-214,-238.1,-59.18,-42.63,-22.79,-70.6,6.705,4.439,10.97,-45.37,-26.86,-18.52,-31.52,-62.52,0,0,0,0,0,0,0,0,0,0,0,0,0,0,0,0,
420,-13.05,-23.26,-214.7,-242.9,-60.02,-42.15,-41.94,-80.36,5.004,-4.011,3.352,-40.17,-11.44,-28.98,-24.21,-54.65,0,0,0,0,0,0,0,0,0,0,0,0,0,0,0,0,
421,-17.84,-36.46,-190.3,-229.6,-22.55,-34.03,-60.85,-92.9,3.143,-18.2,-4.01,-58.71,-7.197,-36.87,-28.42,-56.93,0,0,0,0,0,0,0,0,0,0,0,0,0,0,0,0,
422,-18.95,-36.38,-173.6,-204.1,0.8962,-17.16,-67.23,-101.8,10.82,-13.85,4.039,-82.07,-9.011,-32.82,-39.86,-65.79,0,0,0,0,0,0,0,0,0,0,0,0,0,0,0,0,
423,-14.7,-23.81,-178.7,-200.6,-13.06,-5.911,-56.26,-87.08,3.384,-7.892,3.799,-90.2,-15.07,-24.74,-45.91,-69.28,0,0,0,0,0,0,0,0,0,0,0,0,0,0,0,0,
424,-24.97,-16.2,-198.4,-231.8,-35.2,-20.33,-51.93,-81.1,-18.63,-13.79,-9.345,-95.66,-24.65,-17.43,-50.31,-66.74,0,0,0,0,0,0,0,0,0,0,0,0,0,0,0,0,
425,-36.41,-19.74,-210.6,-244.3,-41.62,-28.83,-48.81,-88.09,-12.24,-10.74,-1.515,-93.54,-28.97,-17.52,-50.91,-61.85,0,0,0,0,0,0,0,0,0,0,0,0,0,0,0,0,
426,-24.66,-23.07,-199.6,-220.4,-30.29,-12.08,-39.31,-76.41,7.797,-6.276,16.78,-68.24,-27.88,-27.58,-35.92,-49.85,0,0,0,0,0,0,0,0,0,0,0,0,0,0,0,0,
427,-3.654,-23.76,-184,-210.2,-17.28,-7.696,-44.84,-68.43,9.193,-16.01,13.86,-33.26,-19.79,-31.32,-16.93,-32.31,0,0,0,0,0,0,0,0,0,0,0,0,0,0,0,0,
428,7.168,-18.08,-182.3,-218.1,-21.37,-19.57,-56.67,-84.55,1.355,-26.21,4.297,-15.01,-7.126,-21.9,-12.72,-18.61,0,0,0,0,0,0,0,0,0,0,0,0,0,0,0,0,
429,1.722,-8.796,-187.5,-216.5,-37.17,-21.39,-61.12,-98.43,-12.1,-30.7,-1.875,-32.09,-8.41,-16.44,-22.33,-13.28,0,0,0,0,0,0,0,0,0,0,0,0,0,0,0,0,
430,-21.05,-17.64,-198.2,-221.7,-51.59,-31.2,-78.82,-107.7,-26.84,-33.72,-13.09,-66.99,-19.81,-16.89,-40.8,-20.15,0,0,0,0,0,0,0,0,0,0,0,0,0,0,0,0,
431,-39.11,-39.44,-213.1,-236.5,-59.85,-54.97,-97.79,-116.5,-27.39,-32.43,-6.536,-65.41,-18.83,-9.087,-54.15,-33.69,0,0,0,0,0,0,0,0,0,0,0,0,0,0,0,0,
432,-30.35,-40.7,-212.9,-227.8,-54.84,-58.58,-85.85,-103.1,-20.64,-23.08,14.17,-33.36,-17.22,-2.542,-43.96,-38.79,0,0,0,0,0,0,0,0,0,0,0,0,0,0,0,0,
433,-16.71,-21.17,-196.2,-202.5,-45.76,-48.26,-62.18,-84.86,-19.96,-9.327,5.569,-32.36,-26.94,-12.13,-23.2,-36.57,0,0,0,0,0,0,0,0,0,0,0,0,0,0,0,0,
434,-20.7,-4.911,-184.3,-191.3,-49.26,-49.19,-52.75,-92,-22.81,-10.78,-12.63,-50.58,-25.23,-23.71,-12.73,-33.95,0,0,0,0,0,0,0,0,0,0,0,0,0,0,0,0,
435,-24.4,2.092,-179.2,-187.9,-50.98,-46.57,-53.71,-95.48,-18.6,-27.66,2.178,-45.15,-15.49,-19.43,-5.649,-23.78,0,0,0,0,0,0,0,0,0,0,0,0,0,0,0,0,
436,-18.02,-4.718,-176.2,-187.4,-42.86,-37.67,-71.61,-84.94,-6.183,-30.76,27.65,-35.02,-18.93,-3.023,8.642,-2.818,0,0,0,0,0,0,0,0,0,0,0,0,0,0,0,0,
437,-15.48,-29.6,-184.7,-204.6,-48.51,-46.62,-108,-105.6,-7.694,-26.51,35.04,-36.36,-17.9,14.71,26.53,20.94,0,0,0,0,0,0,0,0,0,0,0,0,0,0,0,0,
438,-18.79,-49.1,-197.7,-223.6,-64.08,-65.51,-129.9,-137.5,-27.44,-33.39,27.4,-36.55,-5.187,27.36,35.14,36.13,0,0,0,0,0,0,0,0,0,0,0,0,0,0,0,0,
439,-20.37,-39.94,-196.9,-217.5,-62.62,-69.27,-112.1,-117.2,-33.56,-31.47,19.94,-35.45,-6.203,26.71,25.35,32.24,0,0,0,0,0,0,0,0,0,0,0,0,0,0,0,0,
440,-23.82,-19.37,-189,-200.2,-58.17,-70.71,-78.38,-79.4,-31.5,-23.88,15.95,-42.88,-25.3,5.695,3.357,8.929,0,0,0,0,0,0,0,0,0,0,0,0,0,0,0,0,
441,-44.19,-20.46,-190.2,-194,-72.89,-93.4,-70.65,-84.34,-51.4,-30.73,-8.057,-70.16,-51.03,-24.98,-27.55,-26.11,0,0,0,0,0,0,0,0,0,0,0,0,0,0,0,0,
442,-73.14,-42.38,-196.8,-192.3,-81.15,-115.1,-83.98,-96.17,-68.2,-32.92,-36.36,-101.6,-73.44,-43.51,-64.66,-60.66,0,0,0,0,0,0,0,0,0,0,0,0,0,0,0,0,
443,-77.36,-56.04,-195,-183.9,-69.4,-110,-83.3,-81.08,-65.07,-22.79,-32.63,-104.1,-78.88,-42.54,-87.67,-78.65,0,0,0,0,0,0,0,0,0,0,0,0,0,0,0,0,
444,-62.83,-51.27,-186.1,-175.8,-70.05,-101.6,-77.56,-74.23,-67.92,-15.3,-23.29,-85.25,-66.2,-26.04,-85.27,-75.64,0,0,0,0,0,0,0,0,0,0,0,0,0,0,0,0,
445,-57.58,-41.46,-183.1,-176.4,-82.52,-107,-92.36,-89.64,-65.08,-12,-19.48,-68.15,-51.02,-3.626,-66.39,-58.9,0,0,0,0,0,0,0,0,0,0,0,0,0,0,0,0,
446,-60.06,-39.41,-188.4,-180.8,-80.36,-113.4,-107.5,-95.65,-56.17,-21.9,-12.32,-69.53,-57.12,1.825,-48.59,-39.74,0,0,0,0,0,0,0,0,0,0,0,0,0,0,0,0,
447,-73.26,-52.27,-193,-181.6,-77.95,-121.7,-103,-82.29,-72.52,-41.62,-31.08,-104.2,-81.5,-11.91,-54.14,-35.46,0,0,0,0,0,0,0,0,0,0,0,0,0,0,0,0,
448,-88.49,-67.55,-191.5,-181.1,-82.86,-127.4,-96.02,-78.75,-76.7,-48.72,-43.85,-131.9,-79.31,-13.75,-72.38,-43.62,0,0,0,0,0,0,0,0,0,0,0,0,0,0,0,0,
449,-77.2,-65.12,-186.7,-185.7,-78.59,-120.7,-98.4,-95.79,-49.26,-53.35,-19.9,-113.6,-52.19,-6.614,-68.59,-41.63,0,0,0,0,0,0,0,0,0,0,0,0,0,0,0,0,
450,-64.38,-58.24,-185.2,-191.7,-76.72,-121.9,-106.5,-107.5,-49.04,-66.69,-21.76,-95.49,-53.08,-20.99,-49.99,-34.34,0,0,0,0,0,0,0,0,0,0,0,0,0,0,0,0,
451,-73.22,-63.64,-187,-189.7,-81.19,-131,-117.1,-112.3,-62.05,-73.49,-39.53,-103.2,-71.48,-38.5,-41.68,-39.98,0,0,0,0,0,0,0,0,0,0,0,0,0,0,0,0,
452,-64.51,-66.25,-176.7,-175.5,-69.6,-113.9,-117.1,-123.5,-41.03,-76.05,-24.69,-98.13,-69.66,-36.03,-42.54,-50.27,0,0,0,0,0,0,0,0,0,0,0,0,0,0,0,0,
453,-36.23,-58.05,-147.2,-148.7,-47.89,-81.88,-100.2,-116.3,-21.71,-71.97,-20.26,-76.57,-59.72,-30.82,-49.52,-55.73,0,0,0,0,0,0,0,0,0,0,0,0,0,0,0,0,
454,-28.5,-48.81,-129.2,-125.7,-44.59,-81.91,-83.73,-83.08,-27.27,-49.38,-31.2,-68.85,-55.23,-21.23,-56.57,-58.76,0,0,0,0,0,0,0,0,0,0,0,0,0,0,0,0,
455,-44.52,-46.03,-151.1,-131.3,-68.21,-111.9,-78.62,-58.92,-45.91,-33.49,-33.44,-84.03,-63.74,-4.339,-56.7,-58.46,0,0,0,0,0,0,0,0,0,0,0,0,0,0,0,0,
456,-69.39,-51.4,-180.5,-151,-94.71,-127.2,-76.31,-54.09,-75.89,-30.77,-50.68,-93.89,-81.77,1.154,-62.28,-56.49,0,0,0,0,0,0,0,0,0,0,0,0,0,0,0,0,
457,-80.37,-48.38,-172.2,-148.9,-93.04,-109.8,-69.07,-61.92,-82.37,-14.29,-58.24,-66.31,-75.39,6.582,-72.94,-53.58,0,0,0,0,0,0,0,0,0,0,0,0,0,0,0,0,
458,-58.29,-30.79,-138.5,-131.8,-69.39,-78.18,-59.86,-83.22,-57.86,-9.302,-43.24,-39.59,-54.2,13.45,-76.22,-51.71,0,0,0,0,0,0,0,0,0,0,0,0,0,0,0,0,
459,-28.9,-22.4,-112.7,-125.6,-48.08,-46.7,-56.25,-98.45,-50.04,-34.61,-43.89,-53.37,-47.47,2.592,-77.99,-56.56,0,0,0,0,0,0,0,0,0,0,0,0,0,0,0,0,
460,-12.75,-20.8,-98.47,-125.7,-29.7,-16.82,-55.91,-98.5,-41.67,-43.34,-27.78,-55.3,-36.2,-3.986,-68.96,-52.42,0,0,0,0,0,0,0,0,0,0,0,0,0,0,0,0,
461,1.175,-13.93,-90.89,-120.5,-14.5,-2.811,-53.93,-103.6,-9.373,-34.47,13.97,-24.56,-28.04,0.2414,-31.79,-25.8,0,0,0,0,0,0,0,0,0,0,0,0,0,0,0,0,
462,1.852,-18.18,-94.03,-115.6,-17.26,-16.06,-50.8,-102.8,-11.1,-39.5,14.09,-8.696,-35.43,-2.588,6.624,0.39,0,0,0,0,0,0,0,0,0,0,0,0,0,0,0,0,
463,-12.87,-17.37,-102.2,-111.6,-35.04,-32.38,-37.81,-77.52,-38.96,-33.15,-5.765,-0.851,-22.81,7.479,13.74,8.445,0,0,0,0,0,0,0,0,0,0,0,0,0,0,0,0,
464,-10.47,8.103,-100.1,-101.6,-44.12,-23.54,-15.94,-59.94,-22.64,-13.15,11.54,14.63,-0.8475,27.54,1.262,6.893,0,0,0,0,0,0,0,0,0,0,0,0,0,0,0,0,
465,15.33,24.52,-85.19,-85.59,-32.95,4.846,0.6754,-58.75,8.008,-6.637,37.4,14.57,5.257,34.91,-2.763,7.064,0,0,0,0,0,0,0,0,0,0,0,0,0,0,0,0,
466,40.07,26.94,-68.39,-70.29,-16.85,26.93,10.02,-43.1,5.115,0.7754,43.36,10.37,10.79,40.46,9.074,14.66,0,0,0,0,0,0,0,0,0,0,0,0,0,0,0,0,
467,36.83,24.9,-70.36,-74.08,-20.04,12.04,-7.877,-42.51,-5.005,1.02,33.92,11.74,-8.244,28.7,14.67,13.01,0,0,0,0,0,0,0,0,0,0,0,0,0,0,0,0,
468,-0.5342,-11.37,-99.89,-106,-42.8,-35.5,-57.99,-82.08,-12.59,-16.6,11.91,-1.886,-49.55,-9.455,-6.192,-15.85,0,0,0,0,0,0,0,0,0,0,0,0,0,0,0,0,
469,-30.31,-50.53,-123.8,-131.7,-57.97,-61.64,-79.28,-101.3,-26.12,-8.79,-10.42,-25.42,-54.23,-28.86,-37.51,-48.33,0,0,0,0,0,0,0,0,0,0,0,0,0,0,0,0,
470,-33.24,-41.71,-122,-129.3,-58.37,-58.47,-62.46,-81.17,-34.22,13.32,-29.41,-46.05,-46.41,-26.08,-56.91,-61.86,0,0,0,0,0,0,0,0,0,0,0,0,0,0,0,0,
471,-43.1,-32.57,-125.9,-128.4,-63.71,-70.58,-68.47,-71.29,-36.04,5.574,-40.35,-49.48,-63.2,-28.72,-62.35,-67.78,0,0,0,0,0,0,0,0,0,0,0,0,0,0,0,0,
472,-51.51,-49.16,-140.3,-138.6,-71.96,-88.58,-89.63,-76.19,-35.32,-0.5744,-31.91,-26.57,-62.04,-29.19,-54.6,-68.78,0,0,0,0,0,0,0,0,0,0,0,0,0,0,0,0,
473,-41.95,-51.89,-140.3,-142.7,-71.59,-91.31,-95.28,-78.59,-36.96,10.37,-28.11,-21.16,-45.72,-31.25,-42.91,-59.91,0,0,0,0,0,0,0,0,0,0,0,0,0,0,0,0,
474,-51.62,-54.6,-134.9,-143.4,-70.13,-102.8,-103.6,-87.37,-42.34,4.381,-37.61,-48.57,-47.93,-38.78,-41.43,-52.2,0,0,0,0,0,0,0,0,0,0,0,0,0,0,0,0,
475,-73.96,-73.48,-134.7,-141.6,-69.17,-115.9,-109.3,-103.3,-36.11,-12.4,-28.83,-54.23,-43.41,-29.76,-40.93,-48.82,0,0,0,0,0,0,0,0,0,0,0,0,0,0,0,0,
476,-64.92,-72.15,-128.3,-127.4,-60.92,-99.15,-90.59,-105,-20.56,-20.5,-12.5,-32.8,-24.57,-13.82,-30.69,-40.19,0,0,0,0,0,0,0,0,0,0,0,0,0,0,0,0,
477,-32.66,-47.89,-107.2,-102.5,-41.81,-62.52,-57.7,-79.29,-6.195,-25.54,-8.462,-12.31,-15.32,-14.38,-19.89,-25.87,0,0,0,0,0,0,0,0,0,0,0,0,0,0,0,0,
478,-0.9977,-30.68,-81.61,-85.7,-17.86,-36.62,-39.95,-62.57,7.163,-36.27,1.245,10.79,-15.16,-20.08,-10.83,-13.35,0,0,0,0,0,0,0,0,0,0,0,0,0,0,0,0,
479,10.66,-31.73,-78,-93.47,-9.278,-37.78,-54.98,-82.2,3.065,-49.85,5.345,13.57,-23.93,-20.97,-1.816,-10.86,0,0,0,0,0,0,0,0,0,0,0,0,0,0,0,0,
480,-9.079,-46.23,-95.37,-107.4,-21.9,-58.02,-72.46,-97.34,-13.76,-43.91,-3.925,-9.18,-34.16,-20.89,-0.0896,-21.42,0,0,0,0,0,0,0,0,0,0,0,0,0,0,0,0,
481,-22.39,-54.02,-104.8,-110.3,-33,-71.34,-66.65,-96.32,-9.61,-24.81,4.798,-8.461,-27.84,-17.26,-0.6535,-34.43,0,0,0,0,0,0,0,0,0,0,0,0,0,0,0,0,
482,-5.799,-44.68,-97.75,-107.5,-25.24,-60.47,-61.9,-98.37,7.248,-29.89,14.23,-1.35,-23.3,-15.9,2.808,-40.09,0,0,0,0,0,0,0,0,0,0,0,0,0,0,0,0,
483,7.268,-32.4,-79.77,-87.68,-13.79,-35.1,-55.94,-78.56,7.494,-38.37,-1.132,-25.15,-30.43,-17.14,0.1919,-39.59,0,0,0,0,0,0,0,0,0,0,0,0,0,0,0,0,
484,11.16,-16.19,-68.54,-64.8,-22.87,-18.79,-33.16,-53.18,-3.662,-14.61,-0.7834,-20.2,-15.85,-0.6356,-4.037,-25.4,0,0,0,0,0,0,0,0,0,0,0,0,0,0,0,0,
485,27.01,10.41,-75.24,-70.12,-31.86,-13.79,-21.36,-57.1,-10.99,3.678,16.08,28.3,14.08,23.87,5.141,7.754,0,0,0,0,0,0,0,0,0,0,0,0,0,0,0,0,
486,34.33,20.85,-70.47,-71.54,-12.03,-11.15,-25.9,-49.46,-14.3,-10.82,5.098,37.15,12.99,18.24,15.77,32.58,0,0,0,0,0,0,0,0,0,0,0,0,0,0,0,0,
487,16.86,-1.588,-51.44,-53.77,6.238,-13.89,-26.16,-28,-11.77,-22.77,-5.048,12.84,-10.86,-11.28,12.13,21.87,0,0,0,0,0,0,0,0,0,0,0,0,0,0,0,0,
488,11.43,-20.2,-50.17,-55.25,2.592,-10.13,-25.58,-38,0.9207,-18.88,14.99,15.64,-11.72,-24.1,3.752,-6.979,0,0,0,0,0,0,0,0,0,0,0,0,0,0,0,0,
489,35.06,-2.499,-54.2,-64.32,0.9162,7.277,-21.12,-51.92,10.62,-16.81,22.44,16.16,11.55,-10.86,3.985,-18.07,0,0,0,0,0,0,0,0,0,0,0,0,0,0,0,0,
490,48.89,24.63,-48.07,-56.67,-0.655,16.85,-8.657,-42.62,12.26,-9.85,12.23,4.818,23.8,3.265,14.58,-6.573,0,0,0,0,0,0,0,0,0,0,0,0,0,0,0,0,
491,35.58,25.03,-48.69,-49.18,-7.885,17,-3.891,-37.86,22.28,4.63,13.99,15.42,11.75,-0.0753,24.24,-0.3814,0,0,0,0,0,0,0,0,0,0,0,0,0,0,0,0,
492,16.46,7.521,-52.22,-44.24,-5.907,17.78,-5.659,-36.88,29.16,6.171,10.82,7.024,-5.186,-8.768,17.94,-13.71,0,0,0,0,0,0,0,0,0,0,0,0,0,0,0,0,
493,0.0828,-5.368,-50.08,-40.62,-4.838,11.83,-3.866,-19.17,12.91,0.9716,-0.6912,-31.77,-11.04,-9.395,3.539,-24.81,0,0,0,0,0,0,0,0,0,0,0,0,0,0,0,0,
494,-13.53,-16.36,-56.53,-49.15,-19.72,-2.574,-9.838,-2.594,-10.7,6.12,-3.869,-39.21,-17.55,-15.73,-2.84,-21.11,0,0,0,0,0,0,0,0,0,0,0,0,0,0,0,0,
495,-25.22,-34.71,-73.64,-61.16,-38.29,-24.93,-29.65,-13.22,-28.87,4.961,-15.34,-35.57,-36.91,-35.98,-10.44,-23.88,0,0,0,0,0,0,0,0,0,0,0,0,0,0,0,0,
496,-35.22,-47.67,-81.62,-63.54,-43.82,-41.66,-43.61,-34.83,-36.98,-8.485,-26.75,-59.31,-52.21,-51.84,-26.46,-42.25,0,0,0,0,0,0,0,0,0,0,0,0,0,0,0,0,
497,-29.19,-41.58,-72.24,-55.54,-38.82,-31.09,-36.7,-39.8,-32.68,-7.042,-18.77,-69.32,-48.63,-47.87,-34.78,-55.06,0,0,0,0,0,0,0,0,0,0,0,0,0,0,0,0,
498,-19.12,-28.49,-63.8,-47.77,-42.22,-18.83,-25.8,-39.52,-36.66,13.22,-22.48,-59.37,-37.56,-32.78,-30.86,-51.12,0,0,0,0,0,0,0,0,0,0,0,0,0,0,0,0,
499,-33.47,-18.54,-70.42,-56.22,-53.86,-31,-29.9,-50.42,-44.09,23.81,-30.53,-48.04,-22.24,-23.1,-20.47,-37.42,0,0,0,0,0,0,0,0,0,0,0,0,0,0,0,0,
500,-42.08,-5.827,-77.3,-70.93,-49.64,-35.34,-33.65,-56.08,-27.47,16.38,0.9238,-14.3,4.22,-12.42,4.714,-13.7,0,0,0,0,0,0,0,0,0,0,0,0,0,0,0,0,
501,-12.89,5.31,-67.09,-66.52,-25.68,-12.49,-23.48,-41.62,-4.009,12.29,30.62,18.46,24.25,5.405,35.23,13.84,0,0,0,0,0,0,0,0,0,0,0,0,0,0,0,0,
502,15.41,5.463,-51.05,-49.95,-5.041,9.419,-19.31,-26.36,4.814,12.08,11.88,10.4,17.16,5.174,39.05,19.8,0,0,0,0,0,0,0,0,0,0,0,0,0,0,0,0,
503,13.74,-1.988,-44.09,-39.9,-1.839,13.47,-23.72,-29.12,6.163,-2.609,-7.057,-7.824,-1.129,-14.09,18.79,-0.3072,0,0,0,0,0,0,0,0,0,0,0,0,0,0,0,0,
504,6.309,-3.51,-33.39,-28.8,-4.795,13.93,-11.13,-25.6,-0.8167,-13.37,4.509,-5.104,3.202,-15.25,6.588,-15,0,0,0,0,0,0,0,0,0,0,0,0,0,0,0,0,
505,6.457,12.66,-20.5,-17.97,-6.243,18.08,6.915,-9.192,-9.394,0.5095,14.65,7.888,30.38,4.267,13.34,-3.343,0,0,0,0,0,0,0,0,0,0,0,0,0,0,0,0,
506,5.15,33.5,-28.19,-24.84,-15.51,15.59,1.388,-18.77,-7.311,16.65,15.38,22.42,44.92,18.93,30.01,18.37,0,0,0,0,0,0,0,0,0,0,0,0,0,0,0,0,
507,5.284,36.39,-37.17,-33.14,-23.14,12.55,-9.865,-33.41,-5.86,25.5,13.86,25.15,35.04,21.85,37.41,21.77,0,0,0,0,0,0,0,0,0,0,0,0,0,0,0,0,
508,7.833,24.77,-28.95,-23.97,-17.88,18.33,-7.739,-12.34,-10.59,30.63,2.37,-0.8314,20.99,12.02,16.89,1.257,0,0,0,0,0,0,0,0,0,0,0,0,0,0,0,0,
509,0.4126,10.26,-29.28,-18.04,-16.96,18.26,-10.81,-0.9034,-13.23,16.38,-9.15,-32.46,9.946,-5.54,-12.78,-20.98,0,0,0,0,0,0,0,0,0,0,0,0,0,0,0,0,
510,-8.106,-0.8771,-32.08,-20.14,-18.15,13.25,-21.25,-16.68,-13.87,0.316,-10.79,-28.6,3.433,-16.19,-19.17,-26.52,0,0,0,0,0,0,0,0,0,0,0,0,0,0,0,0,
511,-0.9471,-3.333,-21.79,-15.04,-11.84,15.29,-23.29,-17.17,-16.42,8.704,-14.3,-0.1887,3.193,-20.4,-12.1,-23.55,0,0,0,0,0,0,0,0,0,0,0,0,0,0,0,0,
512,-3.516,-9.856,-30.75,-19.02,-25.61,2.948,-25.91,-18.3,-30.1,15.24,-22.66,8.921,-4.64,-21.25,-13.47,-25.89,0,0,0,0,0,0,0,0,0,0,0,0,0,0,0,0,
513,-37.16,-27.37,-62.49,-41.52,-58.32,-33.4,-39.86,-33.54,-55.88,12.12,-31.48,-5.622,-21.67,-12.35,-18.22,-29.35,0,0,0,0,0,0,0,0,0,0,0,0,0,0,0,0,
514,-66.57,-38.71,-80.41,-56.73,-71.61,-59.79,-55.96,-30.34,-71.71,22.98,-39.99,-18.85,-36.03,-5.681,-21.38,-27.46,0,0,0,0,0,0,0,0,0,0,0,0,0,0,0,0,
515,-62.56,-41.55,-76.57,-53.21,-65.6,-54.31,-62.29,-19.85,-64.12,29.33,-38.9,-12.27,-42.76,-11.98,-24.37,-26.74,0,0,0,0,0,0,0,0,0,0,0,0,0,0,0,0,
516,-37.82,-37.3,-58.97,-39.13,-51.58,-28.69,-49.69,-18.55,-42.87,19.01,-24.34,17.55,-34.82,-16.18,-18.44,-28.88,0,0,0,0,0,0,0,0,0,0,0,0,0,0,0,0,
517,-11.95,-18.91,-35.69,-19,-31.73,-3.278,-23.65,-6.179,-29.7,18.72,-10.62,35.32,-24.5,-21.69,-5.574,-29.49,0,0,0,0,0,0,0,0,0,0,0,0,0,0,0,0,
518,-3.386,-7.458,-22.9,-3.414,-30.58,8.556,-3.157,14.15,-38.87,24.76,-7.509,16.71,-28.22,-37.24,-2.245,-32.55,0,0,0,0,0,0,0,0,0,0,0,0,0,0,0,0,
519,-11.54,-11.87,-24.29,-0.6325,-44.55,8.015,5.953,25.31,-46.29,20.12,-6.176,7.798,-24.9,-34.59,-6.118,-34.3,0,0,0,0,0,0,0,0,0,0,0,0,0,0,0,0,
520,-14.71,-9.487,-33.23,-7.32,-43.94,-0.4918,-4.405,18.03,-32.87,11.67,-0.7505,27.29,-17.24,-15.05,-3.921,-25.16,0,0,0,0,0,0,0,0,0,0,0,0,0,0,0,0,
521,-12.87,-15.93,-42.58,-20.54,-37.69,-10.03,-38.61,-8.658,-22.21,-0.6299,1.982,30.71,-33.36,-16.48,-0.2482,-16.2,0,0,0,0,0,0,0,0,0,0,0,0,0,0,0,0,
522,-9.156,-42.59,-37.3,-27.81,-30.44,-1.325,-57.34,-23.22,-17.38,-10.39,4.287,20.96,-42.87,-25.93,-2.286,-20.58,0,0,0,0,0,0,0,0,0,0,0,0,0,0,0,0,
523,-0.374,-48.9,-22.33,-21.29,-18.52,14.24,-42.48,-10.75,-13.31,-6.782,4.425,21.75,-24.73,-17.81,-7.597,-30.86,0,0,0,0,0,0,0,0,0,0,0,0,0,0,0,0,
524,-12.17,-33.57,-24.59,-20.68,-30.88,-0.7467,-33.51,-1.928,-34.33,-4.298,-11.91,13.78,-20.88,-8.257,-15.91,-35.79,0,0,0,0,0,0,0,0,0,0,0,0,0,0,0,0,
525,-40.16,-26.32,-37.64,-30.18,-56.83,-26.61,-33.8,-5.838,-57.5,-1.077,-26.33,4.38,-28.95,-4.434,-20.65,-30.58,0,0,0,0,0,0,0,0,0,0,0,0,0,0,0,0,
526,-34.92,-15.93,-38.04,-30.28,-55.77,-22.61,-20.58,-8.499,-42.06,12.81,-15.07,18.91,-10.76,1.29,-10.44,-17.58,0,0,0,0,0,0,0,0,0,0,0,0,0,0,0,0,
527,-4.017,-1.367,-29.45,-19.39,-42.71,-4.393,-8.449,-5.398,-23.18,12.68,1.061,42.48,12.24,8.374,8.289,-6.13,0,0,0,0,0,0,0,0,0,0,0,0,0,0,0,0,
528,10.48,1.063,-14.42,-2.48,-35.89,9.172,-1.831,7.901,-29.47,-0.2554,7.99,54.12,8.614,14.59,19.24,-3.324,0,0,0,0,0,0,0,0,0,0,0,0,0,0,0,0,
529,9.31,-0.2571,0.7781,13.83,-27.42,19.39,6.52,22.4,-30.97,4.449,5.469,42.5,-8.178,13.74,15.06,-10.52,0,0,0,0,0,0,0,0,0,0,0,0,0,0,0,0,
530,3.978,-0.8009,0.8659,20.44,-19.73,21.25,8.766,25.49,-19.1,19.9,-11.65,19.49,-18.96,14.02,1.776,-18.82,0,0,0,0,0,0,0,0,0,0,0,0,0,0,0,0,
531,2.65,0.9835,-0.1697,25.11,-11.28,22.52,10.4,23.46,-10.86,30.04,-13.27,20.92,-16.12,25.98,-1.31,-13.1,0,0,0,0,0,0,0,0,0,0,0,0,0,0,0,0,
532,9.108,5.574,-2.938,21.64,-15.04,15.87,6.329,19.76,-16.71,29.72,4.176,29.87,-6.617,29.05,12.12,2.899,0,0,0,0,0,0,0,0,0,0,0,0,0,0,0,0,
533,3.029,-4.541,-27.14,-1.723,-42.65,-14.4,-15.09,8.787,-39.52,15.03,-4.634,17.51,-7.867,14.61,22.98,11.13,0,0,0,0,0,0,0,0,0,0,0,0,0,0,0,0,
534,-14.59,-19.89,-46.16,-21.76,-57.91,-32.84,-32.22,-14.18,-53.69,3.799,-15.89,21.1,-12.78,-1.123,23.61,7.822,0,0,0,0,0,0,0,0,0,0,0,0,0,0,0,0,
535,-18.85,-16.92,-40.11,-21.2,-43.61,-21.06,-36.34,-32.76,-38.22,0.0796,3.529,44.04,-5.467,-12.03,22.42,1.526,0,0,0,0,0,0,0,0,0,0,0,0,0,0,0,0,
536,-14.91,-6.756,-24.54,-5.183,-23.06,-11.95,-35.24,-18.27,-18.01,-6.582,12.16,47.97,6.052,-4.854,20.13,2.698,0,0,0,0,0,0,0,0,0,0,0,0,0,0,0,0,
537,-13.07,2.961,-15.37,4.521,-16.43,-14.69,-25.87,-5.529,-15.91,-0.5824,9.345,51.31,15.78,17.86,21.04,15.95,0,0,0,0,0,0,0,0,0,0,0,0,0,0,0,0,
538,-10.58,10.25,-38.79,-20.74,-43.9,-30.18,-27.21,-36.1,-29.84,5.694,16.62,61.46,23.74,18.52,27.32,26.42,0,0,0,0,0,0,0,0,0,0,0,0,0,0,0,0,
539,-13.33,0.8756,-62.77,-41.32,-70.33,-49.15,-43.22,-51.02,-48.15,-8.613,8.115,49.91,21.81,-2.6,25.13,18.71,0,0,0,0,0,0,0,0,0,0,0,0,0,0,0,0,
540,-17.33,-14.69,-28.91,-14.32,-39.3,-34.48,-46.17,-24.23,-47.3,-12.93,-1.018,33.76,16.14,-13.83,12.65,2.309,0,0,0,0,0,0,0,0,0,0,0,0,0,0,0,0,
541,-14.41,-19.84,5.199,6.371,-1.753,-9.399,-42.07,-21.01,-30.53,-6.532,11.29,38.77,24.02,-12.78,5.938,-4.705,0,0,0,0,0,0,0,0,0,0,0,0,0,0,0,0,
542,-6,-12.01,-3.395,1.828,-5.542,-10.3,-35.74,-31.29,-24.05,-7.539,18.29,64.11,45.46,-3.751,16.2,5.626,0,0,0,0,0,0,0,0,0,0,0,0,0,0,0,0,
543,13.05,13.26,1.603,9.742,-7.193,-2.347,-14.87,-10.79,-24.1,7.346,20.2,92.77,61.58,5.548,39.72,25.27,0,0,0,0,0,0,0,0,0,0,0,0,0,0,0,0,
544,26.57,33.17,4.873,5.575,-13.8,4.069,-6.36,5.158,-33.87,23.17,13.6,88.85,61.86,4.132,51.97,33.64,0,0,0,0,0,0,0,0,0,0,0,0,0,0,0,0,
545,9.94,25.77,-21.46,-14.03,-46.05,-24.17,-18.82,0.2523,-62.09,18.44,-11.77,62.94,62.16,9.358,38.24,28.11,0,0,0,0,0,0,0,0,0,0,0,0,0,0,0,0,
546,-13.15,12.53,-25.85,-10.82,-56.18,-37.5,-26.3,-8.972,-77.74,17.8,-17.69,41.7,62.5,20.18,19.53,24.69,0,0,0,0,0,0,0,0,0,0,0,0,0,0,0,0,
547,-27.65,-6.427,-20.89,-10.23,-55.64,-36.17,-40.15,-28.73,-81.66,9.196,-16.61,-7.904,39.42,7.968,7.658,21.46,0,0,0,0,0,0,0,0,0,0,0,0,0,0,0,0,
548,-52.29,-43.35,-39.66,-23.76,-79.35,-62.14,-59.67,-33.99,-96.43,-9.289,-45.69,-56.15,10.36,-12.76,-5.228,11.61,0,0,0,0,0,0,0,0,0,0,0,0,0,0,0,0,
549,-59.45,-61.07,-37.07,-16.07,-78.1,-59.61,-57.39,-19.08,-88.12,-7.798,-48.95,-22.01,7.157,-16.88,-6.169,7.514,0,0,0,0,0,0,0,0,0,0,0,0,0,0,0,0,
550,-24.54,-42.79,-14.4,-4.649,-44.61,-17.01,-50.24,-30.74,-54.12,-14.75,-4.53,42.51,19.71,-11.68,18.59,17.19,0,0,0,0,0,0,0,0,0,0,0,0,0,0,0,0,
551,7.467,-17.55,-7.917,-7.66,-29.12,-3.73,-45.7,-40.99,-38.43,-28.78,26.32,56.56,35.66,2.591,54.32,34.89,0,0,0,0,0,0,0,0,0,0,0,0,0,0,0,0,
552,14.69,7.824,8.368,3.908,-19.72,5.506,-21.49,-7.726,-33.15,-7.843,31.33,51.82,49.9,21.78,78.99,55,0,0,0,0,0,0,0,0,0,0,0,0,0,0,0,0,
553,19.36,24.85,32.21,21.86,-3.446,38.76,-3.966,10.89,-23.22,8.649,30.44,53.92,49.14,29.61,83.5,72.81,0,0,0,0,0,0,0,0,0,0,0,0,0,0,0,0,
554,16.94,12.61,26.45,20.46,-5.572,36.49,-15.19,-2.486,-19.87,-2.73,27.55,43.29,35.79,30.73,77.18,84.52,0,0,0,0,0,0,0,0,0,0,0,0,0,0,0,0,
555,-1.783,-9.356,12.74,16.2,-19.24,-3.418,-24.81,1.518,-21.68,-3.935,26.13,26.17,15.03,27.29,71.44,84.94,0,0,0,0,0,0,0,0,0,0,0,0,0,0,0,0,
556,-24.21,-17.18,10.61,17.33,-28.35,-33.88,-28.45,2.382,-33.91,-5.242,16.65,15.73,-10.05,11.12,60.6,68.76,0,0,0,0,0,0,0,0,0,0,0,0,0,0,0,0,
557,-38.92,-21.04,3.376,13.46,-33.97,-47.51,-37.85,-21.73,-53.76,-17.58,1.687,9.103,-25.1,-7.494,46.17,42.96,0,0,0,0,0,0,0,0,0,0,0,0,0,0,0,0,
558,-35.63,-23.29,3.87,15.19,-33.26,-38.8,-31.8,-25.8,-57.55,-21.53,-0.293,11.32,-31.87,-17.13,44.71,21.27,0,0,0,0,0,0,0,0,0,0,0,0,0,0,0,0,
559,-11.33,-13.2,23.43,29.59,-27.88,-9.606,-8.021,-2.353,-48.33,-20.88,5.157,34.91,-34.6,-15.1,51.71,10.09,0,0,0,0,0,0,0,0,0,0,0,0,0,0,0,0,
560,13.27,4.629,39.84,43.14,-20.07,9.679,5.485,10.43,-48.45,-10.39,1.667,51.14,-27.72,-7.092,44.05,6.362,0,0,0,0,0,0,0,0,0,0,0,0,0,0,0,0,
561,9.449,8.359,41.36,44.79,-15.02,3.14,4.6,7.624,-57.98,6.884,-15.55,17.6,-36.8,-16.44,16.47,-4.742,0,0,0,0,0,0,0,0,0,0,0,0,0,0,0,0,
562,-19.72,-17.39,34.13,38.87,-20.05,-16.29,1.53,3.495,-54.23,-2.081,-28.26,-18.56,-71.09,-40.05,-12.09,-31.71,0,0,0,0,0,0,0,0,0,0,0,0,0,0,0,0,
563,-38.12,-49.06,26.98,36.15,-23.96,-30.1,-9.308,-5.036,-38.12,-25.19,-20.7,-2.218,-79.6,-42.37,-20.29,-50.96,0,0,0,0,0,0,0,0,0,0,0,0,0,0,0,0,
564,-32.32,-48.99,22.81,32.07,-22.7,-34.51,-27.19,-15.48,-37.16,-24.06,-15.21,22.15,-46.21,-27.37,-8.506,-38.06,0,0,0,0,0,0,0,0,0,0,0,0,0,0,0,0,
565,-13.78,-17.49,19.72,23.81,-20.55,-29.27,-26.97,-16.14,-31.88,-8.676,-11.97,39.32,-10.73,-18.32,6.824,-7.333,0,0,0,0,0,0,0,0,0,0,0,0,0,0,0,0,
566,18.48,21.76,25.36,28.13,-7.856,-7.438,-4.716,-12.48,-2.229,-2.949,12.95,81.89,19,0.2038,23.27,20.21,0,0,0,0,0,0,0,0,0,0,0,0,0,0,0,0,
567,48.07,52.61,40.4,45.96,2.838,16.54,16.54,-2.722,3.215,3.908,28.71,105.6,45.27,26.95,43.65,44.35,0,0,0,0,0,0,0,0,0,0,0,0,0,0,0,0,
568,46.31,62.82,51.91,64.29,-3.855,19.73,30.45,20.94,-22.43,20.82,7.365,74.22,37.61,27.11,49.12,56.98,0,0,0,0,0,0,0,0,0,0,0,0,0,0,0,0,
569,25.12,43.67,54.61,75.56,-7.428,7.298,30.27,30.75,-31.94,19.4,-20.29,35.23,0.3862,5.854,28.65,44.85,0,0,0,0,0,0,0,0,0,0,0,0,0,0,0,0,
570,8.307,5.368,50.73,69.67,-1.58,-4.096,7.997,17.89,-27.75,-5.662,-28.3,20.38,-24.68,-12.53,4.878,18.66,0,0,0,0,0,0,0,0,0,0,0,0,0,0,0,0,
571,1.137,-20.99,50.06,59.52,1.795,-4.052,-7.44,14.24,-19.8,-10.95,-16.7,22.16,-37.11,-31.84,-6.072,-4.399,0,0,0,0,0,0,0,0,0,0,0,0,0,0,0,0,
572,10.43,-16.95,57.3,65.73,8.069,6.184,5.411,18.93,-1.136,7.735,6.058,38.92,-45.94,-40.01,-7.462,-17.18,0,0,0,0,0,0,0,0,0,0,0,0,0,0,0,0,
573,34.99,8.958,62.15,74.25,17.66,14.8,27.7,23.23,11.1,19.63,28.99,67.62,-29.38,-21.9,9.038,-10.68,0,0,0,0,0,0,0,0,0,0,0,0,0,0,0,0,
574,56.37,40.22,65.2,75.06,22.22,20.11,42.61,31.64,8.904,27.16,38.6,84.9,0.4281,-5.627,42.38,14.46,0,0,0,0,0,0,0,0,0,0,0,0,0,0,0,0,
575,58.38,51.49,67.68,75.23,18.27,24.25,44.41,25.92,-4.179,28.97,21.89,71.84,13.75,-2.457,62.77,41.45,0,0,0,0,0,0,0,0,0,0,0,0,0,0,0,0,
576,42.88,37.87,60.72,70.7,5.795,21.55,38.49,18.47,-22.62,20.18,1.024,52.71,24.83,7.382,59.31,59.81,0,0,0,0,0,0,0,0,0,0,0,0,0,0,0,0,
577,25.97,30.98,50.37,62.08,-5.191,11,34.19,27.08,-26.75,19.41,-1.483,45.12,28.94,7.403,47.83,62.51,0,0,0,0,0,0,0,0,0,0,0,0,0,0,0,0,
578,13.49,25.7,39.68,53.27,-12.15,-7.81,15.34,10.18,-27.42,16.19,-12.24,27.66,-1.097,-15.98,29.91,40.61,0,0,0,0,0,0,0,0,0,0,0,0,0,0,0,0,
579,3.361,-0.2109,25.6,43.21,-22.97,-30.85,-15.44,-19.75,-39.24,0.0833,-25.43,16.34,-28.78,-25.51,9.011,10.95,0,0,0,0,0,0,0,0,0,0,0,0,0,0,0,0,
580,4.087,-10.03,25.56,42.25,-25.94,-37.84,-18.09,1.621,-31.17,-3.162,-8.406,33.61,-19.21,-7.525,8.887,5.039,0,0,0,0,0,0,0,0,0,0,0,0,0,0,0,0,
581,11.62,5.428,42.28,56.52,-17.61,-23.24,0.4792,34.7,-13.33,-0.2903,1.128,42.15,-9.277,4.121,29.34,20.16,0,0,0,0,0,0,0,0,0,0,0,0,0,0,0,0,
582,9.419,1.056,51.21,68.63,-18.09,-9.116,2.223,17.57,-23.24,-3.4,-13.96,38.28,-14.04,2.745,40.73,30.14,0,0,0,0,0,0,0,0,0,0,0,0,0,0,0,0,
583,11.08,-6.835,53.73,66.39,-12.62,-0.5767,2.809,-2.431,-19.94,8.832,-0.7521,51.55,-5.775,10.47,37.37,29.17,0,0,0,0,0,0,0,0,0,0,0,0,0,0,0,0,
584,31.79,10.34,66.69,66.84,12.27,12.62,20.55,15.68,9.777,21.96,23.66,49.3,5.657,20.14,34.71,27.24,0,0,0,0,0,0,0,0,0,0,0,0,0,0,0,0,
585,41.86,14.64,72.76,77.56,11.6,16.27,28.56,30.63,1.631,14.56,7.503,18.02,-3.25,14.41,28.16,26.66,0,0,0,0,0,0,0,0,0,0,0,0,0,0,0,0,
586,26.55,-0.0959,62.64,80.96,-11.55,9.304,23.77,23.55,-24.24,9.292,-15.82,6.591,-15.26,7.941,9.803,21.46,0,0,0,0,0,0,0,0,0,0,0,0,0,0,0,0,
587,14.78,-0.1121,66.08,81.42,-1.662,18.89,26.45,22.36,-16.25,10.8,-21.66,16.95,-14.89,10.61,-8.811,6.744,0,0,0,0,0,0,0,0,0,0,0,0,0,0,0,0,
588,11.06,1.177,78.14,87.13,13.61,34.62,24.04,26.8,-12.63,2.83,-28.33,20.64,-24.51,2.038,-19.58,-13.69,0,0,0,0,0,0,0,0,0,0,0,0,0,0,0,0,
589,8.619,-11.27,70.58,82.93,1.028,34.17,11.71,18.95,-15.28,-11.53,-15.48,28.48,-51.56,-18.88,-21.91,-28.49,0,0,0,0,0,0,0,0,0,0,0,0,0,0,0,0,
590,22.14,-17,61.91,77.16,-3.623,31.63,12.89,8.419,6.207,-22.97,8.502,45.62,-56.82,-25.18,-11.13,-25.61,0,0,0,0,0,0,0,0,0,0,0,0,0,0,0,0,
591,37.06,-8.132,61.13,81.65,-7.711,28.25,24.15,10.84,12.38,-18.61,3.331,56.41,-24.23,-14.67,8.623,-2.167,0,0,0,0,0,0,0,0,0,0,0,0,0,0,0,0,
592,32.31,10.27,54.59,81.7,-21.98,17.73,25.11,19.61,3.944,-0.9271,0.023,55.65,4.108,-7.87,24.77,23.8,0,0,0,0,0,0,0,0,0,0,0,0,0,0,0,0,
593,24.46,25.81,55.55,78.41,-13.05,14.06,18.82,18.48,16.14,3.228,16.36,44.69,3.884,-3.966,30.61,29.75,0,0,0,0,0,0,0,0,0,0,0,0,0,0,0,0,
594,21.15,22.91,58.8,75.28,-2.215,14.97,17.85,14.61,18.02,-2.001,12.19,24.25,-5.272,4.63,24.09,19.14,0,0,0,0,0,0,0,0,0,0,0,0,0,0,0,0,
595,13.57,13.08,54.04,68.35,-9.312,12.31,22.54,27.35,7.438,8.159,-3.513,-8.652,-16.39,4.038,8.995,8.517,0,0,0,0,0,0,0,0,0,0,0,0,0,0,0,0,
596,0.7998,7.81,59,71.5,-6.999,8.492,22.38,40.54,13.83,21.22,-8.48,-33.06,-27.7,-7.384,-2.315,3.433,0,0,0,0,0,0,0,0,0,0,0,0,0,0,0,0,
597,-8.188,5.309,59.9,78.54,-7.815,2.018,17.17,34.65,16.2,17.41,-13.45,-13.89,-20.15,-11.92,-0.5499,4.144,0,0,0,0,0,0,0,0,0,0,0,0,0,0,0,0,
598,2.05,17.31,48.75,72.51,-16.25,-2.511,16.62,26.02,10.7,3.659,-14.8,5.396,-8.487,-18.43,5.977,2.511,0,0,0,0,0,0,0,0,0,0,0,0,0,0,0,0,
599,13.02,32.18,55.87,74.35,-6.107,-5.663,16.55,23.02,12.98,-5.903,-19.03,-29.63,-24.28,-39.04,-1.484,-16.74,0,0,0,0,0,0,0,0,0,0,0,0,0,0,0,0,
600,-0.7134,27.76,70.85,94.62,2.995,-9.987,18.84,30.42,12.5,-0.6388,-33.35,-56.32,-39.84,-50.52,-21.74,-43.8,0,0,0,0,0,0,0,0,0,0,0,0,0,0,0,0,
601,-11.84,25.59,68.77,106,-7.942,-7.79,30.96,52.95,10.29,14.87,-34.9,-27.91,-24.49,-41.26,-29.23,-46.04,0,0,0,0,0,0,0,0,0,0,0,0,0,0,0,0,
602,-5.794,31.39,61.06,95.7,-20.88,-10.03,30.39,51.75,8.92,25.33,-21.58,6.559,-9.178,-27.3,-9.841,-15.16,0,0,0,0,0,0,0,0,0,0,0,0,0,0,0,0,
603,-1.148,19.55,51.89,76.85,-23.88,-20.56,8.623,17.45,10.06,27.59,-10.56,26.07,-11.96,-14.61,18.47,20.84,0,0,0,0,0,0,0,0,0,0,0,0,0,0,0,0,
604,4.349,1.93,41.72,64.88,-14.1,-20.43,-3.091,3.833,23,20.86,-13.98,22.47,-16.82,-8.416,23.89,32.43,0,0,0,0,0,0,0,0,0,0,0,0,0,0,0,0,
605,3.714,-2.208,45.05,69.42,-1.05,-16.38,-1.024,14.02,23.24,7.673,-36.06,-14.91,-27.87,-19.62,-1.31,16.6,0,0,0,0,0,0,0,0,0,0,0,0,0,0,0,0,
606,-9.251,-5,61.36,82.76,3.474,-15.48,-7.961,10.48,5.156,-1.942,-46.68,-26.62,-45.49,-41.62,-28.89,-9.563,0,0,0,0,0,0,0,0,0,0,0,0,0,0,0,0,
607,-10.38,-12.75,72.68,83.21,4.223,-6.784,-16.88,-2.582,8.783,-11.62,-33.95,9.004,-51.68,-58.23,-36.44,-32.8,0,0,0,0,0,0,0,0,0,0,0,0,0,0,0,0,
608,0.0593,-11.63,67.81,71.2,0.4734,1.467,-8.224,-4.324,27.99,-11.01,-31.79,26.51,-42.87,-61.35,-30.53,-47.56,0,0,0,0,0,0,0,0,0,0,0,0,0,0,0,0,
609,11.35,12.51,59.53,70.22,-5.095,6.906,12.19,13.76,38.92,17.02,-34.59,23.02,-23.58,-54.29,-17.49,-46.29,0,0,0,0,0,0,0,0,0,0,0,0,0,0,0,0,
610,34.71,45.35,67,82.36,5.233,17.64,22.95,30.1,57.33,32.54,-15.85,41.57,-2.536,-44.67,3.886,-27.64,0,0,0,0,0,0,0,0,0,0,0,0,0,0,0,0,
611,56.37,53.22,79.35,88.71,25.66,24.99,19.08,13.27,77.42,12.5,9.021,61.06,8.419,-31,27.64,-1.94,0,0,0,0,0,0,0,0,0,0,0,0,0,0,0,0,
612,56.62,38.4,79.22,86.36,31.81,29.02,13.69,-8.278,78.41,7.457,23.03,54.71,12.73,-14.21,47.68,22.18,0,0,0,0,0,0,0,0,0,0,0,0,0,0,0,0,
613,46.29,25.92,77.87,83.78,22.4,29.89,7.88,0.1388,65.24,23.01,14.61,41.37,15.22,-3.771,60.38,42.02,0,0,0,0,0,0,0,0,0,0,0,0,0,0,0,0,
614,28.24,15.22,79.62,79.06,12.79,16.03,0.4312,10.93,43.97,23.92,-19.02,33.8,16.07,2.633,60.78,55.43,0,0,0,0,0,0,0,0,0,0,0,0,0,0,0,0,
615,6.231,5.696,71.02,71.17,11.05,3.997,5.267,5.905,29.31,28.27,-36.84,29.42,20.06,6.611,51.24,59.28,0,0,0,0,0,0,0,0,0,0,0,0,0,0,0,0,
616,7.493,9.381,60.69,66.67,16.55,13.15,15.95,-0.1472,38.58,38.62,-21.76,34.91,25.26,2.429,40.57,53.03,0,0,0,0,0,0,0,0,0,0,0,0,0,0,0,0,
617,32.71,21.19,63.05,65.87,22.29,28.82,17.3,0.683,55.53,25.59,-12.26,47.71,34.35,2.488,34.43,47.58,0,0,0,0,0,0,0,0,0,0,0,0,0,0,0,0,
618,52.2,35.06,74.37,73.3,21.44,41.21,25.98,12.82,59.67,10.56,-15.53,49.85,47.99,6.603,32.98,50.39,0,0,0,0,0,0,0,0,0,0,0,0,0,0,0,0,
619,56.13,53.5,89.84,95.21,15.94,49.94,46.89,30.07,53.84,15.64,-14.16,37.81,42.05,-11.36,27.82,42.95,0,0,0,0,0,0,0,0,0,0,0,0,0,0,0,0,
620,50.53,62.27,98.53,114,12.78,46.78,59,43.98,49.19,23.83,-16.19,20.94,15.74,-41.31,9.638,10.83,0,0,0,0,0,0,0,0,0,0,0,0,0,0,0,0,
621,37.65,51.11,93.42,116,15.17,35.05,59.12,54.69,48.66,35.58,-27.46,-2.617,-1.238,-55.24,-17.46,-28.35,0,0,0,0,0,0,0,0,0,0,0,0,0,0,0,0,
622,15.4,30.07,84.15,109.3,13.2,20.05,47.98,52.87,35.33,50.16,-50.03,-31.96,-11,-58.03,-45.69,-54.16,0,0,0,0,0,0,0,0,0,0,0,0,0,0,0,0,
623,-14.93,3.943,73.55,95.08,1.159,5.401,28.87,43.45,10.04,47.85,-74.1,-42.35,-22.2,-50.87,-70.42,-60.62,0,0,0,0,0,0,0,0,0,0,0,0,0,0,0,0,
624,-33.03,-19.23,66.48,81.64,-2.987,-1.214,15.53,34.89,4.573,36.53,-69.91,-23.85,-20.4,-34.03,-79.14,-49.28,0,0,0,0,0,0,0,0,0,0,0,0,0,0,0,0,
625,-33.22,-26.04,61.99,75.43,-1.762,-16.91,-2.715,11.49,11.95,31.54,-50.67,-12.21,-12.13,-25.26,-64.41,-29.54,0,0,0,0,0,0,0,0,0,0,0,0,0,0,0,0,
626,-37.78,-21.95,45.21,65.2,-17.63,-42.83,-24.54,-9.486,1.998,22.94,-42.43,-22.41,-10.47,-17.85,-35.01,-6.381,0,0,0,0,0,0,0,0,0,0,0,0,0,0,0,0,
627,-38.55,-15.11,34.88,58.28,-32.67,-42.91,-24.05,-7.176,-10.64,10.13,-27.06,-22.2,-3.841,-2.944,-1.869,20,0,0,0,0,0,0,0,0,0,0,0,0,0,0,0,0,
628,-23.78,-9.072,40.08,55.9,-32.36,-33.69,-22.83,-16.67,-7.4,6.009,-15.86,-6.42,6.529,2.713,20.58,38.22,0,0,0,0,0,0,0,0,0,0,0,0,0,0,0,0,
629,-19.81,-12.41,34.06,44.3,-34.95,-47.57,-42.06,-34.89,-1.065,6.657,-31.21,6.235,-2.149,-5.131,21.48,37.18,0,0,0,0,0,0,0,0,0,0,0,0,0,0,0,0,
630,-30.74,-25.49,33.59,44.97,-34.3,-57.13,-53.42,-27.75,-3.715,0.9662,-41.3,11.26,-32.7,-23.73,11.3,15.96,0,0,0,0,0,0,0,0,0,0,0,0,0,0,0,0,
631,-42.35,-46.59,46.41,59.48,-26.68,-56.52,-54.42,-25.3,-12.52,-8.294,-39.79,-1.662,-60.97,-41.94,-1.96,-20.02,0,0,0,0,0,0,0,0,0,0,0,0,0,0,0,0,
632,-53.41,-65.3,42.71,60.04,-25.99,-55.08,-51.1,-33.58,-13.42,-8.475,-46.89,-19.83,-65.11,-33.37,-21.16,-50.36,0,0,0,0,0,0,0,0,0,0,0,0,0,0,0,0,
633,-44.22,-52.8,49.66,68.8,-18.53,-25.31,-23.7,-12.3,1.092,6.2,-41.27,-8.629,-37.81,-9.113,-31.82,-52.28,0,0,0,0,0,0,0,0,0,0,0,0,0,0,0,0,
634,-7.701,-9.179,82.31,96.76,2.528,15.72,10.7,14.9,21.25,23.47,-18.7,20.05,9.625,5.423,-21.35,-27.96,0,0,0,0,0,0,0,0,0,0,0,0,0,0,0,0,
635,24.65,31.76,93.19,107.8,17.02,24.92,26.12,18.53,31.1,28.99,-10.69,35.33,39.98,17.61,-5.682,1.326,0,0,0,0,0,0,0,0,0,0,0,0,0,0,0,0,
636,32.94,50.99,83.78,105.6,16.59,18.86,37.84,23.6,26.61,26.45,-13.3,39.36,36.78,22.64,0.4002,16.43,0,0,0,0,0,0,0,0,0,0,0,0,0,0,0,0,
637,28.28,49.74,91.65,115.7,12.09,21.95,52.35,37.2,31.65,22.02,-3.484,39.13,30.37,6.813,0.5409,10.25,0,0,0,0,0,0,0,0,0,0,0,0,0,0,0,0,
638,24.27,36.1,109.8,130.5,14.15,20.56,53.8,48.19,43.78,10.88,-0.5406,25.93,25.55,-16.29,-4.227,-12.8,0,0,0,0,0,0,0,0,0,0,0,0,0,0,0,0,
639,11.03,17.67,115.9,140.9,14.16,7.095,44.28,56.48,24.2,-2.085,-23.19,3.595,5.965,-28.48,-16.97,-41.06,0,0,0,0,0,0,0,0,0,0,0,0,0,0,0,0,
640,-8.088,6.93,130,166.9,14.34,8.838,51.13,74.1,0.1086,1.45,-35.62,-0.8374,-4.024,-22.11,-30.22,-58.21,0,0,0,0,0,0,0,0,0,0,0,0,0,0,0,0,
641,-4.437,18.45,182.7,226.5,30.72,34.79,82.63,115.1,6.376,20.31,-29.18,8.426,-0.2384,-7.433,-36.41,-56.85,0,0,0,0,0,0,0,0,0,0,0,0,0,0,0,0,
642,4.753,38.04,240.3,291.2,44.57,49.84,105.3,145.1,3.67,31.23,-39.79,4.638,-3.6,1.261,-38.88,-46.25,0,0,0,0,0,0,0,0,0,0,0,0,0,0,0,0,
643,5.328,47.22,286.5,342.4,60.05,64.67,118.4,155.5,0.3505,34.62,-49.55,8.901,6.831,8.68,-38.2,-35.92,0,0,0,0,0,0,0,0,0,0,0,0,0,0,0,0,
644,30.41,50.06,377.3,434.8,108.5,109.9,157.5,215.7,23.66,49.35,-45.33,24.41,23.3,7.069,-35.03,-30.21,0,0,0,0,0,0,0,0,0,0,0,0,0,0,0,0,
645,48.94,38.16,491.2,581.1,149.2,137,199.3,300,28.08,60.88,-64.65,12.01,2.891,-11.68,-40.18,-34.23,0,0,0,0,0,0,0,0,0,0,0,0,0,0,0,0,
646,22.77,14.7,573.3,694.3,159.3,130.7,215.8,329,18.71,54.88,-85.61,-4.846,-31.03,-20.14,-52.41,-46.39,0,0,0,0,0,0,0,0,0,0,0,0,0,0,0,0,
647,4.846,8.081,662.5,735.2,191.1,148.1,235.6,353.4,33.57,59.24,-73.56,-4.2,-40.64,-9.796,-55.81,-57.85,0,0,0,0,0,0,0,0,0,0,0,0,0,0,0,0,
648,8.464,12.15,737.9,746.2,222.8,172.8,258.7,408,36.47,81.02,-67.71,-25.11,-31.94,-2.106,-50.32,-60.29,0,0,0,0,0,0,0,0,0,0,0,0,0,0,0,0,
649,-2.195,14.57,732.5,747.6,203.9,165.5,270.4,440.6,11.17,93.98,-86.74,-47.32,-8.139,6.093,-49.08,-51.69,0,0,0,0,0,0,0,0,0,0,0,0,0,0,0,0,
650,-6.194,34.29,715.1,740.7,187.8,161.3,285.8,452,-9.317,99.12,-97.8,-24.73,18.46,22.06,-53.27,-39.99,0,0,0,0,0,0,0,0,0,0,0,0,0,0,0,0,
651,9.999,62.02,729.4,735.3,208.2,176.5,290,451.3,-10.93,103.3,-83.09,11.67,23.09,28.99,-50.13,-31.42,0,0,0,0,0,0,0,0,0,0,0,0,0,0,0,0,
652,22.33,66.43,705,722.3,216.2,188.3,277.7,435.4,6.907,95.61,-50.91,30.64,13.06,19.77,-31.45,-24.99,0,0,0,0,0,0,0,0,0,0,0,0,0,0,0,0,
653,31.96,54.86,658.9,689.9,208.2,197.3,280.1,427.3,26.86,81.75,-25.11,40.71,10.75,12.37,-6.97,-20.66,0,0,0,0,0,0,0,0,0,0,0,0,0,0,0,0,
654,43.23,46.51,631.3,645.3,202.6,196.4,279.5,409.7,27.05,69.2,-22.93,40.24,15.63,15.71,10.1,-13.67,0,0,0,0,0,0,0,0,0,0,0,0,0,0,0,0,
655,41.02,32.94,572.6,594.7,175.6,175.8,254.9,381,19.04,48.33,-28.68,29.12,9.418,15.13,17.58,-2.909,0,0,0,0,0,0,0,0,0,0,0,0,0,0,0,0,
656,31.11,14.3,500.9,537.6,153.6,165.4,237.9,364.4,23.53,28.97,-20.67,24.88,-6.878,11.46,14.72,-2.653,0,0,0,0,0,0,0,0,0,0,0,0,0,0,0,0,
657,36.14,14.51,466.5,477.1,166.9,178.8,232.7,334.1,36.76,35.14,-10.95,40.9,-7.766,23.04,6.024,-11.48,0,0,0,0,0,0,0,0,0,0,0,0,0,0,0,0,
658,51.23,35.6,427,429.8,161,190.2,225.8,311.6,42.9,58.76,-12.86,72.95,13.59,43.1,8.244,-8.107,0,0,0,0,0,0,0,0,0,0,0,0,0,0,0,0,
659,60.51,60.04,379.4,399.6,137.8,193,226.5,316.7,45.36,73.49,-8.548,97.6,39.33,52.78,23.84,4.743,0,0,0,0,0,0,0,0,0,0,0,0,0,0,0,0,
660,65.01,77.54,354,355.4,145.3,186.4,222.5,280.3,49.35,77.38,-5.763,92.6,44.55,46.27,28.56,4.245,0,0,0,0,0,0,0,0,0,0,0,0,0,0,0,0,
661,62.54,75.79,312.7,300.5,140,166.7,210.3,233.9,41.62,76.72,-29.01,68.44,20.33,28.67,7.062,-13.96,0,0,0,0,0,0,0,0,0,0,0,0,0,0,0,0,
662,61.15,64,266.1,274.4,115,164.9,211.7,254,32.19,65.22,-51.67,52.64,-0.7437,17.74,-26.78,-36.08,0,0,0,0,0,0,0,0,0,0,0,0,0,0,0,0,
663,69.41,64.07,253.8,258,120.8,178.2,208.4,264.2,31.3,51.26,-58.36,44.67,-6.194,12.37,-56.47,-54.08,0,0,0,0,0,0,0,0,0,0,0,0,0,0,0,0,
664,55.98,59.34,231.5,216.3,121.2,155.9,180.9,216.7,22.14,49.07,-67.62,27.41,-22.97,-3.621,-76.47,-69.07,0,0,0,0,0,0,0,0,0,0,0,0,0,0,0,0,
665,20.97,42.44,179.7,163.7,94.43,115.5,153.1,179,17.36,45.04,-63.95,9.287,-35.22,-9.489,-77.87,-73.27,0,0,0,0,0,0,0,0,0,0,0,0,0,0,0,0,
666,9.32,33.6,134.8,111.8,80.61,98.47,127,157.2,20.2,31.06,-49.2,6.756,-28.15,1.864,-58.38,-59.25,0,0,0,0,0,0,0,0,0,0,0,0,0,0,0,0,
667,8.495,19.05,97.32,68.63,67.64,81.01,95.96,124.4,6.08,25.66,-50.78,8.802,-30.29,-3.093,-35.23,-43.45,0,0,0,0,0,0,0,0,0,0,0,0,0,0,0,0,
668,-3.651,-0.1348,63.1,42.2,47.37,56.93,86.43,105,2.092,28.14,-44.81,4.826,-27.15,-6.67,-19.57,-35.72,0,0,0,0,0,0,0,0,0,0,0,0,0,0,0,0,
669,0.8487,11.38,42.62,16.11,46.12,53.93,89.72,96.8,18.73,21.55,-18.33,8.68,-5.893,18.42,-7.058,-20.8,0,0,0,0,0,0,0,0,0,0,0,0,0,0,0,0,
670,13.34,30.14,24.71,-11.81,44.63,52.42,67.68,69.11,12.8,11.26,-8.928,13.93,-15.41,25.51,-3.362,-6.456,0,0,0,0,0,0,0,0,0,0,0,0,0,0,0,0,
671,-0.0206,13.17,-7.823,-41.68,22.68,28.1,35.71,38.7,0.1185,2.773,-20.71,-1.351,-56.56,2.78,-17.31,-17.97,0,0,0,0,0,0,0,0,0,0,0,0,0,0,0,0,
672,-19.9,-18.71,-45.79,-83.66,6.372,9.124,18.63,29.76,14.86,-9.281,-24.56,-13.36,-75.67,-0.1827,-33.24,-41.07,0,0,0,0,0,0,0,0,0,0,0,0,0,0,0,0,
673,-19.86,-38.28,-64.61,-113.3,10.88,14,0.0626,17.92,32.69,-13.65,-18.2,0.1554,-66.15,8.461,-31.02,-45.66,0,0,0,0,0,0,0,0,0,0,0,0,0,0,0,0,T1
674,-13.32,-44.03,-74.06,-123.8,15.46,18.67,-12.82,1.85,37.29,-2.727,-21.72,9.347,-45.9,5.523,-20,-34.36,0,0,0,0,0,0,0,0,0,0,0,0,0,0,0,0,
675,-10.48,-23.96,-94.62,-141.7,8.002,16.82,5.647,11.29,33.94,7.662,-37.99,2.827,-19.69,11.89,-20.97,-23.07,0,0,0,0,0,0,0,0,0,0,0,0,0,0,0,0,
676,0.8652,17.91,-105.8,-155.1,5.343,26.79,29.25,19.85,20.91,8.39,-42.95,-1.333,-7.583,14.2,-33.97,-21.99,0,0,0,0,0,0,0,0,0,0,0,0,0,0,0,0,
677,15.85,44.58,-106.1,-155,6.543,37.41,28.84,5.662,10.38,7.497,-30.6,-0.997,-17.33,-4.751,-44.85,-37.3,0,0,0,0,0,0,0,0,0,0,0,0,0,0,0,0,
678,13.72,44.04,-121.3,-161.8,-7.107,29.7,29.62,8.305,12.27,14.87,-31.88,0.6601,-19.28,-8.069,-46.99,-55.11,0,0,0,0,0,0,0,0,0,0,0,0,0,0,0,0,
679,-1.571,39.29,-138.4,-171.6,-24.02,18.03,44.6,24.87,5.63,27.98,-61.22,-10.81,-9.671,10.18,-49.39,-54.38,0,0,0,0,0,0,0,0,0,0,0,0,0,0,0,0,
680,-15.42,36.42,-147.5,-181,-35.36,15.52,47.66,18.62,-19.8,29.48,-89.28,-36.71,-10.9,19.74,-60.91,-39.36,0,0,0,0,0,0,0,0,0,0,0,0,0,0,0,0,
681,-22.76,32.03,-159.8,-195.3,-50.28,15.85,38.92,7.416,-27.74,16.16,-85.01,-36.22,-6.406,19.81,-66.79,-24.63,0,0,0,0,0,0,0,0,0,0,0,0,0,0,0,0,
682,-13.59,41.01,-163.7,-199.1,-53.16,19.25,40.58,9.957,-0.0951,5.614,-53.96,-8.378,13.84,9.997,-48.26,-16.94,0,0,0,0,0,0,0,0,0,0,0,0,0,0,0,0,
683,8.83,60.93,-158.8,-194.6,-36.97,29.16,44.09,7.235,24.44,3.631,-25.06,0.9438,19.31,-3.018,-17,-20.06,0,0,0,0,0,0,0,0,0,0,0,0,0,0,0,0,
684,20.31,62.44,-166.2,-206,-30.31,32.65,29.83,-9.775,25.58,2.294,-19.54,-14.35,5.956,5.643,2.442,-26.7,0,0,0,0,0,0,0,0,0,0,0,0,0,0,0,0,
685,5.394,35.18,-192.1,-232.8,-54.52,8.033,0.2892,-33.99,13,-3.353,-39.9,-42.31,-17.23,14.28,-0.76,-32.89,0,0,0,0,0,0,0,0,0,0,0,0,0,0,0,0,
686,-33.11,-3.764,-226.9,-259.1,-93.9,-37.52,-33.02,-54.43,-11.17,-17.21,-65.61,-72.96,-51.31,-3.014,-24.08,-53.14,0,0,0,0,0,0,0,0,0,0,0,0,0,0,0,0,
687,-67.31,-31.85,-239.5,-270.3,-105.7,-64.11,-57.46,-63.41,-25.05,-38.6,-72.96,-81.44,-71.38,-20.33,-50.72,-85.08,0,0,0,0,0,0,0,0,0,0,0,0,0,0,0,0,
688,-70.03,-40,-223.4,-260.5,-95.01,-60.4,-62.88,-69.53,-19.22,-55.48,-69.37,-74.86,-74.59,-34.46,-64.54,-107.5,0,0,0,0,0,0,0,0,0,0,0,0,0,0,0,0,
689,-59.62,-42.12,-222.1,-252.3,-106.5,-48.78,-55.99,-79.33,-14.14,-59.07,-67.1,-74.51,-82.24,-52.7,-67.72,-117,0,0,0,0,0,0,0,0,0,0,0,0,0,0,0,0,
690,-54.94,-48.25,-225.3,-255.8,-103.2,-31.7,-54.45,-86.85,1.627,-55.19,-60.27,-76.36,-77.1,-46.14,-67.77,-116.9,0,0,0,0,0,0,0,0,0,0,0,0,0,0,0,0,
691,-49.77,-54.36,-198.9,-248.8,-55.94,-19.65,-66.6,-91.59,23.35,-46.84,-61.36,-90.25,-62.63,-24.96,-72.95,-106.7,0,0,0,0,0,0,0,0,0,0,0,0,0,0,0,0,
692,-57.24,-60.71,-185.6,-234.5,-44.68,-37.86,-76.74,-90.83,16.96,-36.1,-76.31,-108,-62.74,-19.26,-87.43,-91.75,0,0,0,0,0,0,0,0,0,0,0,0,0,0,0,0,
693,-67.58,-54.46,-194.2,-224.4,-71.36,-54.56,-62.36,-77.4,12.41,-35.55,-68.57,-88.4,-50.82,-8.399,-91.11,-71.02,0,0,0,0,0,0,0,0,0,0,0,0,0,0,0,0,
694,-43.49,-25.89,-176.2,-209,-58.53,-32.83,-37.01,-65.12,38.45,-36.24,-31.15,-48.6,-25.46,11.46,-68.37,-44.96,0,0,0,0,0,0,0,0,0,0,0,0,0,0,0,0,
695,-9.181,-4.051,-154.6,-199.3,-38.01,-5.941,-30.28,-70.89,58.73,-23.43,-4.878,-24.88,-20.04,16.89,-39.85,-25.23,0,0,0,0,0,0,0,0,0,0,0,0,0,0,0,0,
696,2.911,-4.532,-154.5,-200.7,-43.61,2.718,-40.29,-85.51,58.83,-21.96,-3.665,-3.571,-20.81,12.62,-25.6,-14.89,0,0,0,0,0,0,0,0,0,0,0,0,0,0,0,0,
697,7.287,-17.78,-149.5,-198.4,-38.76,0.745,-57.68,-97.63,45.43,-41.32,-20.04,3.57,-24.71,-3.18,-27.04,-16.02,0,0,0,0,0,0,0,0,0,0,0,0,0,0,0,0,
698,-7.334,-47.49,-151.5,-199.1,-39.5,-17.43,-73.04,-102.4,22.15,-52.47,-45.89,-21.76,-42.97,-27.31,-44.44,-31.81,0,0,0,0,0,0,0,0,0,0,0,0,0,0,0,0,
699,-35.16,-64.64,-159.5,-194.5,-48.34,-22.37,-61.01,-86.92,23.48,-51.24,-53.85,-37.85,-44.01,-29.75,-64.76,-42.62,0,0,0,0,0,0,0,0,0,0,0,0,0,0,0,0,
700,-25.04,-40.43,-141.1,-172.3,-24.41,10.23,-33.29,-61.31,53.58,-47.12,-43.98,-30.84,-35.4,-25.62,-70.36,-37.58,0,0,0,0,0,0,0,0,0,0,0,0,0,0,0,0,
701,1.295,-25.62,-125.4,-165.2,-5.4,25.98,-34.29,-62.88,61.79,-42.13,-49.38,-34.1,-52.89,-43.24,-67.03,-39.61,0,0,0,0,0,0,0,0,0,0,0,0,0,0,0,0,
702,-9.375,-48.72,-140.3,-179.8,-27.91,-0.3004,-63.1,-92.76,37,-50.42,-65.5,-49.65,-72.41,-56.46,-65.82,-58.36,0,0,0,0,0,0,0,0,0,0,0,0,0,0,0,0,
703,-35.28,-72.45,-157.3,-190.2,-49.25,-25.78,-94.34,-115.4,15.62,-68.24,-73.66,-68.85,-85.55,-55.84,-68.81,-77.63,0,0,0,0,0,0,0,0,0,0,0,0,0,0,0,0,
704,-53.04,-97.1,-164.9,-201.4,-56.55,-44.38,-122.6,-123.7,11.49,-76.38,-78.14,-87.9,-110.5,-58.74,-75.09,-84.73,0,0,0,0,0,0,0,0,0,0,0,0,0,0,0,0,
705,-68.09,-123.7,-166.1,-204.9,-65.07,-62.18,-131.1,-127.2,11.58,-78.81,-70.71,-86.14,-114.7,-52.55,-72.41,-72.51,0,0,0,0,0,0,0,0,0,0,0,0,0,0,0,0,
706,-64.5,-111.3,-152.4,-183.8,-59.06,-51.55,-102.8,-109.8,8.551,-76.26,-54.22,-65.21,-86.37,-35.92,-56.14,-47.11,0,0,0,0,0,0,0,0,0,0,0,0,0,0,0,0,
707,-42.48,-70.18,-134,-163,-44.28,-22.34,-64.36,-75.26,5.663,-59.42,-56.28,-49.33,-62.13,-26.44,-44.49,-29.86,0,0,0,0,0,0,0,0,0,0,0,0,0,0,0,0,
708,-23.01,-42.84,-128.4,-156.2,-41.1,-9.167,-47.73,-63.89,11.62,-41.4,-65.72,-35.7,-46.02,-19.91,-40.68,-26.48,0,0,0,0,0,0,0,0,0,0,0,0,0,0,0,0,
709,0.8983,-22.8,-122.7,-144.9,-29.14,1.523,-37.8,-70.31,33.03,-33,-55.81,-13.55,-26.77,-15.36,-29.32,-25.56,0,0,0,0,0,0,0,0,0,0,0,0,0,0,0,0,
710,31.08,4.426,-98.77,-124.8,-4.874,26.71,-10.49,-46.62,49.88,-22.47,-40.23,1.381,-7.319,-12.49,-13.37,-22.64,0,0,0,0,0,0,0,0,0,0,0,0,0,0,0,0,
711,49.45,30.69,-76.21,-104.3,-3.305,51.13,23.77,-1.966,42.7,-7.872,-26.75,-0.7123,9.199,1.808,-3.522,-20.42,0,0,0,0,0,0,0,0,0,0,0,0,0,0,0,0,
712,63.32,52.49,-69.66,-86.67,-10.22,71.76,46.2,18.18,36.06,3.893,-10.96,-6.139,10.24,14.15,1.437,-22.06,0,0,0,0,0,0,0,0,0,0,0,0,0,0,0,0,
713,76.97,63.11,-64.16,-77.03,-3.258,83.51,50.97,15.47,36.36,14.15,-11.66,-14.24,2.745,9.046,3.365,-25.19,0,0,0,0,0,0,0,0,0,0,0,0,0,0,0,0,
714,73.13,58.46,-71.35,-85.69,-12.43,75.06,39.86,4.093,24.19,11.23,-17.18,-26.08,8.294,3.683,4.447,-21.94,0,0,0,0,0,0,0,0,0,0,0,0,0,0,0,0,
715,65.8,49.51,-86.85,-100.7,-14.94,73.86,26.09,-17.11,28.57,-9.486,4.966,-16.17,14.46,1.23,7.898,-16.11,0,0,0,0,0,0,0,0,0,0,0,0,0,0,0,0,
716,73.91,42.73,-76.4,-98.24,13.2,90.12,22.54,-26.75,50.03,-14.06,26.7,16.27,22.74,-0.5843,12.09,-13.1,0,0,0,0,0,0,0,0,0,0,0,0,0,0,0,0,
717,82.79,50.96,-69.11,-96.45,10.45,91.7,29.49,-17.23,43,4.715,21.07,29.25,47.42,16.34,14.76,-1.069,0,0,0,0,0,0,0,0,0,0,0,0,0,0,0,0,
718,84.56,76.49,-72.93,-103.6,2.633,86.53,42.28,-11.53,37.2,7.528,14.81,8.319,51.53,36.26,9.204,17.54,0,0,0,0,0,0,0,0,0,0,0,0,0,0,0,0,
719,81.2,83.19,-55.98,-90.53,27.03,86.21,51.62,-7.732,47.94,-6.303,16.27,-7.386,37.9,39.41,-2.021,24.86,0,0,0,0,0,0,0,0,0,0,0,0,0,0,0,0,
720,83.09,80.03,-83.46,-96.18,-17.86,69.01,50.26,-8.604,27.35,-9.172,25.44,18.49,68.05,56.69,11.79,38.3,0,0,0,0,0,0,0,0,0,0,0,0,0,0,0,0,
721,104.8,108.5,-144.7,-144.5,-77.88,59.25,40.37,-32.24,17.24,-9.736,51.8,59.51,108,79.55,56.3,76.34,0,0,0,0,0,0,0,0,0,0,0,0,0,0,0,0,
722,112.7,117.6,-105.4,-138.2,-0.7976,77.69,25.75,-50.21,54.27,-22.27,64.42,63.74,88.64,62.98,83.46,102.5,0,0,0,0,0,0,0,0,0,0,0,0,0,0,0,0,
723,84.42,71.46,-24.33,-73.43,95.08,85.61,13.12,-49.28,72.57,-36.91,56,48.08,59.21,41.39,75.97,92.36,0,0,0,0,0,0,0,0,0,0,0,0,0,0,0,0,
724,74.63,51.47,-24.29,-68.94,103.2,84.17,4.047,-75.39,77.64,-42.48,72.01,55.88,72.35,51.19,70.78,77.43,0,0,0,0,0,0,0,0,0,0,0,0,0,0,0,0,
725,100.7,71.62,-34.09,-108.1,129.9,96.31,-13.21,-126.6,106.6,-45.81,93.81,61.43,79.13,50.68,76.93,72.89,0,0,0,0,0,0,0,0,0,0,0,0,0,0,0,0,
726,110.4,55.52,-18.76,-107.4,168.6,97.43,-34.8,-147.4,109.6,-60.81,73.87,40.33,56.81,35.38,71.47,62.92,0,0,0,0,0,0,0,0,0,0,0,0,0,0,0,0,
727,96,25.42,-25.91,-90.99,155.8,91.5,-38.52,-130.2,87.33,-65.48,53.13,32.63,59.37,44.25,57.13,53.6,0,0,0,0,0,0,0,0,0,0,0,0,0,0,0,0,
728,90.14,45.34,-26.6,-89.59,145.6,100.1,-25.93,-117.4,87.77,-34.11,71.57,51.55,92.4,63.73,53.22,60.55,0,0,0,0,0,0,0,0,0,0,0,0,0,0,0,0,
729,91.49,77.6,-25.1,-95.71,145.4,93.53,-19.3,-127,90.56,-11.41,90.63,64.82,99.72,70.92,65.57,79.83,0,0,0,0,0,0,0,0,0,0,0,0,0,0,0,0,
730,84.23,71.17,-48.07,-106.2,126.7,67.58,-23.39,-129.8,80.72,-32.46,88.89,72.24,81.48,71.87,88.62,100.2,0,0,0,0,0,0,0,0,0,0,0,0,0,0,0,0,
731,75.11,49.8,-58.5,-107.9,108.1,57.23,-31.62,-119.7,70.35,-47.75,85.38,84.88,80.07,69.01,108.2,110,0,0,0,0,0,0,0,0,0,0,0,0,0,0,0,0,
732,67.8,38.31,-66.27,-112.4,84.92,54.75,-43.05,-129.1,51.45,-36.09,83.14,87.35,89.28,71.77,109.3,104,0,0,0,0,0,0,0,0,0,0,0,0,0,0,0,0,
733,55.93,27.93,-88.35,-132.5,65.54,44.51,-49.42,-143.7,41.57,-36.04,78.95,72.54,88.44,81.97,93.34,92.69,0,0,0,0,0,0,0,0,0,0,0,0,0,0,0,0,
734,48.01,23.89,-89.67,-137.1,67.91,33.69,-42.64,-135.3,51.92,-42.11,70.97,50.72,84.9,80.8,75.07,86.08,0,0,0,0,0,0,0,0,0,0,0,0,0,0,0,0,
735,47.05,37.3,-89.68,-128.8,59.15,19.08,-31.75,-124.6,44.84,-30.5,58.99,37.83,86.25,77.02,67.04,85.66,0,0,0,0,0,0,0,0,0,0,0,0,0,0,0,0,
736,45.25,53.86,-105,-132.3,40.2,9.644,-27.04,-120.5,20.45,-19.28,54.11,37.86,92.41,81.61,69,90,0,0,0,0,0,0,0,0,0,0,0,0,0,0,0,0,
737,45.01,52.72,-101.5,-131.8,40.37,14.71,-34.75,-124.6,14.5,-21.56,53.61,30.51,90.23,72.52,67.91,87.95,0,0,0,0,0,0,0,0,0,0,0,0,0,0,0,0,
738,39.63,35.16,-95.47,-127.4,37.69,13.41,-51.45,-149.3,17.98,-30.01,52.94,19.6,74.65,59.86,60.9,75.06,0,0,0,0,0,0,0,0,0,0,0,0,0,0,0,0,
739,29.88,29.34,-100.9,-130.8,27.11,5.147,-50.8,-156,15.27,-32.31,60.55,28.28,78.81,71.99,63.33,74.57,0,0,0,0,0,0,0,0,0,0,0,0,0,0,0,0,
740,36.34,50.48,-93,-128.9,28.56,5.077,-32.05,-126.7,18.71,-15.14,66.29,45.71,106.3,86.32,76.68,98.74,0,0,0,0,0,0,0,0,0,0,0,0,0,0,0,0,
741,48.56,68.69,-95.53,-133,22.91,0.6505,-34.33,-119.7,29.5,4.601,67.6,64.03,114.1,87.28,86.18,123.3,0,0,0,0,0,0,0,0,0,0,0,0,0,0,0,0,
742,50.77,60.99,-118.8,-150.9,10.11,-7.742,-56.45,-141.8,43.35,3.217,75.13,79.78,102,97.44,88.91,130.4,0,0,0,0,0,0,0,0,0,0,0,0,0,0,0,0,
743,56.96,45.03,-121.1,-152.1,20.52,0.9318,-62.21,-145.7,61.59,-7.096,72.37,68.36,91.11,108.3,84.24,123,0,0,0,0,0,0,0,0,0,0,0,0,0,0,0,0,
744,59.99,33.33,-103.7,-131.9,42.03,21.71,-51.51,-129.4,70.39,-12.87,56.64,40.38,67.73,94.16,63.52,97.36,0,0,0,0,0,0,0,0,0,0,0,0,0,0,0,0,
745,42.84,20.55,-90.6,-111.7,50.92,32.42,-39.67,-108.7,59.88,-15.11,45.87,18.56,34.92,66.01,29.62,54.74,0,0,0,0,0,0,0,0,0,0,0,0,0,0,0,0,
746,22.29,9.671,-78.61,-96.33,55.5,24.96,-30.7,-99.15,50.66,-15.5,36,0.8876,15.51,45.67,-3.036,17.32,0,0,0,0,0,0,0,0,0,0,0,0,0,0,0,0,
747,15.47,3.883,-72.36,-91.65,58.13,10.41,-31.67,-108.5,57.81,-21.15,28.1,4.329,3.865,34.62,-23.16,-0.7284,0,0,0,0,0,0,0,0,0,0,0,0,0,0,0,0,
748,13.64,-7.671,-78.22,-103.1,46.55,0.8316,-41.55,-108.1,57.72,-30.32,29.17,21.89,-9.678,26.96,-26.37,-6.699,0,0,0,0,0,0,0,0,0,0,0,0,0,0,0,0,
749,8.497,-27.04,-85.68,-116.2,29.7,-2.321,-52.53,-102,42.35,-37.17,34.07,19.88,-13.83,26.1,-17.37,-6.089,0,0,0,0,0,0,0,0,0,0,0,0,0,0,0,0,
750,7.415,-36.62,-88.71,-119,27.36,1.044,-66.92,-125.3,42.76,-45.24,38.92,16.72,-5.223,33.93,-6.882,2.871,0,0,0,0,0,0,0,0,0,0,0,0,0,0,0,0,
751,7.824,-36.19,-92.7,-120.2,29.8,-0.4213,-82.94,-148.4,54.08,-48.28,34.18,31.39,2.088,37.71,-1.314,14.12,0,0,0,0,0,0,0,0,0,0,0,0,0,0,0,0,
752,0.7025,-41.85,-100.8,-125,24.51,-18.93,-86.02,-137,54.1,-42.93,25.54,42.72,-0.2277,31.46,0.0568,16.1,0,0,0,0,0,0,0,0,0,0,0,0,0,0,0,0,
753,-3.111,-50.71,-108,-123.9,26.44,-40.19,-79.29,-123.4,61.86,-43.56,26.51,38.29,-11.18,23.04,-1.393,6.192,0,0,0,0,0,0,0,0,0,0,0,0,0,0,0,0,
754,-10.23,-61.51,-116.2,-124.5,28.2,-59.65,-92.22,-135.1,63.74,-54.4,18.6,23.04,-25.69,15.79,-2.681,-4.939,0,0,0,0,0,0,0,0,0,0,0,0,0,0,0,0,
755,-36.34,-74.53,-128.8,-138.9,11.22,-83.75,-121.3,-158.1,29.66,-63.44,7.34,24.69,-30.96,12.98,5.751,-3.858,0,0,0,0,0,0,0,0,0,0,0,0,0,0,0,0,
756,-49.55,-69.96,-129.2,-149.2,4.149,-86.69,-125.1,-165.8,7.284,-61.07,22.63,51.65,-29.86,12.49,24.26,5.846,0,0,0,0,0,0,0,0,0,0,0,0,0,0,0,0,
757,-36.18,-57.28,-112,-143.7,20.89,-67.17,-111.3,-153.2,23.49,-52.04,39.79,53.43,-42.96,1.765,33.53,4.951,0,0,0,0,0,0,0,0,0,0,0,0,0,0,0,0,
758,-35.31,-70.42,-104.8,-142.3,23.24,-71.29,-120.2,-149.3,30.71,-51.39,33.5,20.32,-61.66,-15.23,21.99,-12.01,0,0,0,0,0,0,0,0,0,0,0,0,0,0,0,0,
759,-51,-97.13,-118.7,-150.2,5.372,-96.56,-140.4,-161.2,27.64,-62.44,25.64,2.66,-65.67,-25.4,2.338,-29.93,0,0,0,0,0,0,0,0,0,0,0,0,0,0,0,0,
760,-57.95,-105.3,-127.3,-144.5,0.6564,-100.8,-142,-159.4,45.5,-70.21,24.93,0.3556,-66.15,-28.55,-9.504,-35.03,0,0,0,0,0,0,0,0,0,0,0,0,0,0,0,0,
761,-57.1,-94.78,-118.5,-124,7.263,-95.51,-128.2,-140.9,64.33,-63.18,27.65,-12.01,-70.37,-26.89,-9.843,-26.45,0,0,0,0,0,0,0,0,0,0,0,0,0,0,0,0,
762,-55.81,-83.96,-118,-119.7,-2.328,-111,-116,-132.5,58.7,-54.43,33.46,-12,-70.15,-28.4,-6.557,-16.61,0,0,0,0,0,0,0,0,0,0,0,0,0,0,0,0,
763,-53.61,-84.53,-133,-131.7,-20.61,-126.2,-113,-142.4,41.81,-60.1,25.66,16.12,-66.62,-34.74,-7.945,-14.74,0,0,0,0,0,0,0,0,0,0,0,0,0,0,0,0,
764,-46.81,-83.98,-131,-127,-16.23,-115.1,-109.3,-144.6,37.73,-64.41,8.075,40.66,-52.66,-22.88,-7.325,-7.759,0,0,0,0,0,0,0,0,0,0,0,0,0,0,0,0,
765,-36.1,-70,-109.5,-112,6.51,-94.97,-100.2,-123.9,44.24,-53.55,5.482,40.77,-27.19,3.67,0.3635,11.14,0,0,0,0,0,0,0,0,0,0,0,0,0,0,0,0,
766,-34.22,-58.72,-96.36,-107.7,17.6,-80.65,-97.47,-112.2,38.76,-44.12,5.544,37.09,-15.3,8.281,-1.345,19.47,0,0,0,0,0,0,0,0,0,0,0,0,0,0,0,0,
767,-37.38,-57.93,-86.32,-100.2,15.73,-62.94,-95.85,-129.5,26.04,-46.03,-5.705,38.96,-18.72,-3.972,-18.14,6.492,0,0,0,0,0,0,0,0,0,0,0,0,0,0,0,0,
768,-29.1,-58.34,-71.82,-89.86,13.46,-51.41,-88.57,-139.5,22.81,-55.94,-7.157,23.91,-15.56,-6.987,-27.81,-9.278,0,0,0,0,0,0,0,0,0,0,0,0,0,0,0,0,
769,-21.58,-61.83,-73.59,-89.25,5.912,-61.49,-87.52,-126.3,17.2,-65.24,-0.0974,-2.394,-8.406,-11.43,-21.65,-14.6,0,0,0,0,0,0,0,0,0,0,0,0,0,0,0,0,
770,-30.53,-63.24,-84.93,-85.01,-5.954,-75.8,-89.92,-119.2,8.726,-62.68,-0.4062,-2.902,-0.6989,-14.96,-14.81,-8.376,0,0,0,0,0,0,0,0,0,0,0,0,0,0,0,0,
771,-42.94,-55.38,-81.93,-75.31,-13.02,-83.13,-87.8,-119.8,17.9,-62.44,4.538,14.68,16.66,5.538,-12.44,8.907,0,0,0,0,0,0,0,0,0,0,0,0,0,0,0,0,
772,-46.07,-53.28,-81.63,-74.98,-17.68,-98.3,-92.78,-112.9,38.19,-75.06,17.11,17.75,29.72,25.17,-5.086,29.64,0,0,0,0,0,0,0,0,0,0,0,0,0,0,0,0,
773,-36.71,-59.95,-98.84,-85.92,-17.95,-108.5,-105.3,-118.5,51.41,-79.41,26.86,28.54,30.27,17.22,13.37,45.32,0,0,0,0,0,0,0,0,0,0,0,0,0,0,0,0,
774,-13.68,-57.29,-102.5,-95.34,-7.24,-86.2,-103.9,-139,56.64,-73.59,36.73,63.3,37.23,12.73,34.36,53.86,0,0,0,0,0,0,0,0,0,0,0,0,0,0,0,0,
775,3.475,-46.82,-80.1,-88.37,6.575,-56.46,-86.02,-138.5,51.45,-71.28,35.5,73.41,41.11,21.5,37.62,51.4,0,0,0,0,0,0,0,0,0,0,0,0,0,0,0,0,
776,-5.154,-44.51,-64.07,-79.84,12.5,-57.14,-77.14,-121.3,35.52,-66.59,20.76,55.66,28.19,18.36,20.62,38.33,0,0,0,0,0,0,0,0,0,0,0,0,0,0,0,0,
777,-15.92,-47.22,-66,-81.93,8.373,-64.91,-79.31,-112.9,28.06,-56.04,24.45,66.42,34.62,18.38,8.917,29.66,0,0,0,0,0,0,0,0,0,0,0,0,0,0,0,0,
778,1.407,-37.26,-65.48,-70.59,7.097,-48.5,-67.98,-101.5,36.03,-42.15,44.59,90.45,64.98,33.62,17.79,36.38,0,0,0,0,0,0,0,0,0,0,0,0,0,0,0,0,
779,22.78,-16.78,-55.55,-56.05,19.19,-36.56,-50.48,-89.3,32.9,-30.9,41.48,76.75,67.71,35.19,32.79,47.57,0,0,0,0,0,0,0,0,0,0,0,0,0,0,0,0,
780,12.65,-9.326,-48.1,-56.44,19.06,-51.69,-45.22,-89.81,10.92,-33.71,18.34,46.64,49.35,23.2,34.9,47.31,0,0,0,0,0,0,0,0,0,0,0,0,0,0,0,0,
781,-5.524,-11.29,-40.71,-38.18,2.458,-55.24,-38.61,-78.1,0.5021,-37.12,12.38,42.97,60.07,26.83,25.27,40.65,0,0,0,0,0,0,0,0,0,0,0,0,0,0,0,0,
782,8.136,3.222,-3.212,1.597,17.68,-24.3,-26.3,-50.55,11.1,-27.38,29.21,63.06,82.48,42.08,22.55,44.59,0,0,0,0,0,0,0,0,0,0,0,0,0,0,0,0,
783,39.71,20.14,77.36,58.75,69.04,13.24,-14.16,-26.98,29.87,-26.29,45.45,79.44,70.77,36.47,31.03,50.32,0,0,0,0,0,0,0,0,0,0,0,0,0,0,0,0,
784,63.32,18.86,187.1,173.3,130.3,59.78,20.38,17.05,57.39,-31.1,50.68,83.76,51.54,14.33,35.47,37.89,0,0,0,0,0,0,0,0,0,0,0,0,0,0,0,0,
785,92.14,33.69,327,322.4,206.6,136.8,87.11,92.03,83.04,-8.371,54.37,93.04,76.3,27.76,39.97,31.98,0,0,0,0,0,0,0,0,0,0,0,0,0,0,0,0,
786,127.9,78.08,467.9,462.7,268.3,200.3,153.5,163,94.1,25.02,63.97,102.8,112.2,69.62,56.92,60.69,0,0,0,0,0,0,0,0,0,0,0,0,0,0,0,0,
787,142.7,102.2,560.5,612.4,295.2,216.5,198.5,225.8,111.3,37.57,80.93,99.15,102,73.01,72.07,88.35,0,0,0,0,0,0,0,0,0,0,0,0,0,0,0,0,
788,143.2,99.97,642.2,733.7,339.2,239.5,242.1,296.5,140.8,53.48,101.1,100.1,83.4,53.18,74.83,82.72,0,0,0,0,0,0,0,0,0,0,0,0,0,0,0,0,
789,156.3,117.4,737.6,770.8,394,290.6,298.4,368.2,153,83.15,110,106.2,102,62.2,74.34,69.44,0,0,0,0,0,0,0,0,0,0,0,0,0,0,0,0,
790,168.9,147.6,772.6,771.1,402.5,317.3,343.9,427.1,146.6,94.74,109.7,102,119.1,79.44,76.15,69.77,0,0,0,0,0,0,0,0,0,0,0,0,0,0,0,0,
791,164.9,155.6,751.7,774.3,386.6,311.8,359.1,454.3,141.3,92.73,113.7,99.67,112.1,83.86,84.31,78.3,0,0,0,0,0,0,0,0,0,0,0,0,0,0,0,0,
792,158.5,147.5,751,765.6,378.3,307.5,356.7,449,129.5,96.15,108.9,96.76,109.3,84.8,95.35,91.72,0,0,0,0,0,0,0,0,0,0,0,0,0,0,0,0,
793,162,141.9,753,755.7,371.8,315.3,354.6,439,117.7,94.11,100.2,91.08,118.4,86.28,100.4,106.3,0,0,0,0,0,0,0,0,0,0,0,0,0,0,0,0,
794,180.2,149.2,722.3,741,377.4,334.5,359,433.8,129,94.36,112.7,95.85,133.7,94.74,106.6,114.7,0,0,0,0,0,0,0,0,0,0,0,0,0,0,0,0,
795,195.4,160.6,666.8,687.2,368.7,336,357.7,428.7,126.9,104.5,107.5,82.48,139.8,96.38,109.6,109.4,0,0,0,0,0,0,0,0,0,0,0,0,0,0,0,0,
796,176.1,152.5,588.7,609.6,313,299.8,340.5,421.6,85.82,103.5,66.4,60.95,121.7,89.56,94.56,95.52,0,0,0,0,0,0,0,0,0,0,0,0,0,0,0,0,
797,153.4,143.4,527,551.9,269.9,275.8,328.4,397.2,66.93,100.2,59.38,85.65,109.7,103.3,79.57,95.26,0,0,0,0,0,0,0,0,0,0,0,0,0,0,0,0,
798,160.3,149,491.1,501.4,259.6,272.6,316.4,353.4,78.03,101.4,79.89,99.51,107.8,107.1,77.68,104.1,0,0,0,0,0,0,0,0,0,0,0,0,0,0,0,0,
799,143.3,119.5,410.2,417.9,212.6,229,265.4,304.3,58.53,79.03,62.34,54.92,76.2,73.34,70.05,93.24,0,0,0,0,0,0,0,0,0,0,0,0,0,0,0,0,
800,92.49,59.44,305.1,318.6,158.9,166.5,199.6,258.1,34.29,53.33,42.36,38.99,45.93,59.15,60.14,71.61,0,0,0,0,0,0,0,0,0,0,0,0,0,0,0,0,
801,70.04,39.9,251.4,247.2,159.3,143.4,169,224.5,42.47,52.3,48.51,62.88,50.23,68.46,60.83,62.37,0,0,0,0,0,0,0,0,0,0,0,0,0,0,0,0,
802,65.03,42.49,204.1,194.3,151.6,127.3,148.4,194.3,38.3,40.09,39.96,50.55,39.15,51,55.59,55.1,0,0,0,0,0,0,0,0,0,0,0,0,0,0,0,0,
803,42.19,17.54,129.8,132,113.3,89.59,106,143.3,11.29,16.32,23.12,16.04,11.96,34.67,36.57,45.09,0,0,0,0,0,0,0,0,0,0,0,0,0,0,0,0,
804,16.94,-8.817,76.37,59.46,97.68,51.04,61.12,85.39,-5.844,17.62,11.63,-7.447,13.76,43.72,16.6,46.13,0,0,0,0,0,0,0,0,0,0,0,0,0,0,0,0,
805,-10.72,-22.55,27.14,-10.32,82.42,11.55,30.29,54.16,-13.55,22.57,-6.48,-21.32,23.36,40.98,0.7793,50.07,0,0,0,0,0,0,0,0,0,0,0,0,0,0,0,0,
806,-35.55,-35.98,-36.21,-57.23,49.17,-19.81,14.04,45.29,-17.68,13.48,-7.787,-12.93,21.84,27.81,-5.613,44.08,0,0,0,0,0,0,0,0,0,0,0,0,0,0,0,0,
807,-34.04,-39.18,-66.52,-81.11,34.97,-22.31,4.542,29.58,-15.18,7.655,12.83,-1.574,24.17,27.01,2.938,38.37,0,0,0,0,0,0,0,0,0,0,0,0,0,0,0,0,
808,-20.95,-43.59,-78.94,-110.8,31.26,-18.27,-11.83,4.249,-4.926,-2.764,28.03,-3.895,25,25.87,16.05,41.14,0,0,0,0,0,0,0,0,0,0,0,0,0,0,0,0,
809,-9.691,-58.41,-117.2,-150.3,20.07,-25.8,-25.75,-10.37,9.638,-14.83,33.78,9.133,25.93,22.2,23.22,46.82,0,0,0,0,0,0,0,0,0,0,0,0,0,0,0,0,
810,3.036,-60.22,-148.8,-174.8,13.84,-29.71,-24.12,-17.81,10.64,-10.76,25.86,17.3,27.03,23.69,22.92,44.95,0,0,0,0,0,0,0,0,0,0,0,0,0,0,0,0,
811,-2.503,-57.03,-158.1,-185.2,1.646,-32.15,-21.65,-32.45,-4.418,-8.525,8.973,-15.41,10.93,14.22,11.99,24.07,0,0,0,0,0,0,0,0,0,0,0,0,0,0,0,0,
812,-25.68,-66.84,-178.1,-199.4,-22.3,-37.64,-24.36,-39.34,-18.35,-16.73,6.952,-41.89,-4.871,-4.003,-2.629,-5.486,0,0,0,0,0,0,0,0,0,0,0,0,0,0,0,0,
813,-33.64,-68.04,-194,-209.8,-31.43,-32.13,-19.68,-26.92,-24.8,-18.22,7.807,-29.46,4.731,1.019,-4.493,-12.27,0,0,0,0,0,0,0,0,0,0,0,0,0,0,0,0,
814,-24.54,-55.66,-192.7,-211,-27.68,-29.77,-17.82,-17.34,-23.71,-12.27,-9.578,-27.18,18.74,23.57,0.6535,7.887,0,0,0,0,0,0,0,0,0,0,0,0,0,0,0,0,
815,-23.3,-50.49,-207.6,-220.5,-37.35,-47.2,-29.13,-26.17,-22.51,-2.116,-26.66,-54.02,13.66,23.29,-5.57,25.41,0,0,0,0,0,0,0,0,0,0,0,0,0,0,0,0,
816,-31.46,-50.41,-229.5,-236.7,-48.61,-55.72,-32.98,-38.15,-22.63,6.068,-21.5,-65.58,3.583,4.796,-14.26,26.04,0,0,0,0,0,0,0,0,0,0,0,0,0,0,0,0,
817,-38.49,-53.29,-242.6,-254.5,-51.09,-57.1,-34.44,-45.47,-12.5,0.0202,-2.352,-53.99,4.67,0.275,-7.738,20.21,0,0,0,0,0,0,0,0,0,0,0,0,0,0,0,0,
818,-52.55,-69.17,-269,-279.6,-64.62,-84.1,-57.92,-60.01,-5.602,-8.659,1.235,-55.17,4.927,-0.8518,0.0647,9.721,0,0,0,0,0,0,0,0,0,0,0,0,0,0,0,0,
819,-68.63,-81.69,-280,-285.5,-76.03,-101.5,-74.84,-75.22,-8.633,-7.177,-15.68,-65.94,-0.0175,-11.87,-8.124,-7.949,0,0,0,0,0,0,0,0,0,0,0,0,0,0,0,0,
820,-64.92,-75.77,-264,-269.8,-73.61,-86.62,-69.68,-80.06,0.8103,-5.526,-18.27,-63.39,2.619,-10.57,-15.82,-17.76,0,0,0,0,0,0,0,0,0,0,0,0,0,0,0,0,
821,-58.07,-73.53,-266.5,-270.1,-76.49,-89.39,-81.04,-88.16,9.433,-6.037,-3.327,-61.69,4.106,5.365,-8.965,-10.94,0,0,0,0,0,0,0,0,0,0,0,0,0,0,0,0,
822,-69.28,-78.76,-268.8,-274,-76.22,-102.8,-97.61,-101.2,-5.538,-1.226,-3.486,-67.4,1.566,17.54,-3.327,1.151,0,0,0,0,0,0,0,0,0,0,0,0,0,0,0,0,
823,-77.15,-68.44,-267.1,-275.8,-87.86,-94.55,-90.21,-106.6,-23.01,6.447,-7.995,-59.63,9.389,26.86,-3.405,15.9,0,0,0,0,0,0,0,0,0,0,0,0,0,0,0,0,
824,-70.38,-55.84,-295.4,-297.5,-122.1,-94.12,-92.34,-112,-20.59,8.853,9.817,-40.94,9.794,29.88,9.297,34.44,0,0,0,0,0,0,0,0,0,0,0,0,0,0,0,0,
825,-58.03,-61.88,-292.8,-301.4,-107.9,-98.32,-113.3,-125.7,-0.853,1.126,25.29,-35.42,-8.046,15.85,30.65,40.51,0,0,0,0,0,0,0,0,0,0,0,0,0,0,0,0,
826,-50.75,-73.97,-251.8,-276.9,-61.79,-94.28,-123.6,-137.5,8.594,-12.97,5.859,-63.15,-18,-2.442,30.33,25.04,0,0,0,0,0,0,0,0,0,0,0,0,0,0,0,0,
827,-72.78,-87.13,-251.8,-262.6,-74.67,-119,-125.4,-135.5,-13.46,-22.44,-31.94,-114.6,-21.05,-10.06,-0.5031,1.663,0,0,0,0,0,0,0,0,0,0,0,0,0,0,0,0,
828,-109.1,-98.73,-254.9,-242.2,-96.34,-145.3,-119.6,-121.1,-32.51,-19.82,-48.98,-131.5,-31.3,-13.63,-34.48,-12.71,0,0,0,0,0,0,0,0,0,0,0,0,0,0,0,0,
829,-107.5,-92.16,-226.1,-218.6,-75.76,-125.5,-106.3,-112.1,-21.9,-14.38,-37.18,-99.64,-35.41,-20.9,-44.53,-12.31,0,0,0,0,0,0,0,0,0,0,0,0,0,0,0,0,
830,-80.57,-80.69,-225.1,-226.4,-67.78,-106.6,-107.8,-116.2,-10.24,-20.66,-20.57,-88.73,-31.88,-27.39,-35.38,-9.325,0,0,0,0,0,0,0,0,0,0,0,0,0,0,0,0,
831,-73.45,-85.34,-233.8,-235.8,-69.75,-116.2,-117.3,-120.2,-10.02,-25.12,-17.02,-104.1,-27.9,-25.61,-30.72,-19.99,0,0,0,0,0,0,0,0,0,0,0,0,0,0,0,0,
832,-76.63,-91.03,-217.3,-226.6,-63.81,-120.8,-117.9,-121.8,-11.06,-14.11,-32.13,-91.97,-18.5,-18.91,-42.24,-36.62,0,0,0,0,0,0,0,0,0,0,0,0,0,0,0,0,
833,-78.38,-90.59,-213.4,-223.2,-76.01,-121.3,-123.1,-127.5,-9.495,-13.26,-53.94,-79.49,-19.28,-21.11,-61.65,-42.25,0,0,0,0,0,0,0,0,0,0,0,0,0,0,0,0,
834,-88.56,-95.64,-220.2,-221.5,-82.39,-121.7,-129.3,-131.8,7.342,-24.74,-45.94,-92.77,-37.96,-29.77,-73.61,-41.46,0,0,0,0,0,0,0,0,0,0,0,0,0,0,0,0,
835,-86.54,-95.67,-212.2,-217.6,-67.69,-105.3,-122.4,-134.8,28.41,-15.43,-14.17,-85.64,-37.74,-27.7,-71,-45.79,0,0,0,0,0,0,0,0,0,0,0,0,0,0,0,0,
836,-59.82,-79.45,-201.9,-215.7,-62.16,-87.33,-111.2,-132.2,28.56,-0.8602,-6.496,-56.04,-10.89,-20.54,-57.21,-51.22,0,0,0,0,0,0,0,0,0,0,0,0,0,0,0,0,
837,-38.48,-59.05,-191.6,-200.9,-60.4,-83.1,-97.76,-109.6,27.15,-6.279,-8.942,-34.98,1.817,-22.08,-34.76,-45.94,0,0,0,0,0,0,0,0,0,0,0,0,0,0,0,0,
838,-34.15,-44.28,-182.3,-183.8,-55.76,-80.63,-84.91,-89.86,37.42,-7.921,8.928,-18.27,-3.595,-22.82,-7.173,-24.73,0,0,0,0,0,0,0,0,0,0,0,0,0,0,0,0,
839,-31.42,-34.8,-182.5,-178.5,-60.47,-76.38,-86.3,-100.4,35.74,-6.073,14.68,-14.97,-1.063,-15.89,10.83,2.651,0,0,0,0,0,0,0,0,0,0,0,0,0,0,0,0,
840,-33.17,-32.58,-179.1,-171.7,-63.29,-80.45,-95.99,-115.5,24.1,-20.73,-3.42,-37.82,2.732,-9.585,6.147,17.16,0,0,0,0,0,0,0,0,0,0,0,0,0,0,0,0,
841,-50.71,-44.17,-178.3,-176.4,-68.04,-98.99,-106.7,-122.4,11.44,-30.29,-20.8,-72.35,-11.64,-10.85,-16.29,12.06,0,0,0,0,0,0,0,0,0,0,0,0,0,0,0,0,
842,-73.22,-64.65,-193.6,-197.7,-85.94,-113.1,-113.4,-130.5,-10.13,-25.89,-33.26,-101.7,-34.88,-17.83,-35.8,0.1868,0,0,0,0,0,0,0,0,0,0,0,0,0,0,0,0,
843,-69.77,-66,-192.2,-192.5,-90.43,-91.93,-95.76,-117.1,-16.49,-25.9,-30.36,-97.47,-32.16,-12.89,-30.34,-0.9246,0,0,0,0,0,0,0,0,0,0,0,0,0,0,0,0,
844,-33.12,-38.07,-162,-161.4,-71.33,-51.85,-63.76,-87.84,6.919,-22.46,-11.91,-57.85,5.005,3.04,-2.534,11.3,0,0,0,0,0,0,0,0,0,0,0,0,0,0,0,0,
845,-3.93,-12.04,-139.4,-141,-52.82,-35.63,-47.96,-78.42,23.85,-9.977,-1.423,-36.72,30.34,-3.075,19.2,20.1,0,0,0,0,0,0,0,0,0,0,0,0,0,0,0,0,
846,-4.18,-7.725,-128.8,-127.9,-41,-41.4,-46.02,-79.33,29.99,-7.376,6.534,-41.48,20.94,-24.35,21.67,15.23,0,0,0,0,0,0,0,0,0,0,0,0,0,0,0,0,
847,-5.941,-13.25,-115.1,-118.5,-28.51,-43.35,-49.95,-76.75,50.01,-17.21,19.75,-27.54,12.25,-25.46,18.53,7.889,0,0,0,0,0,0,0,0,0,0,0,0,0,0,0,0,
848,-3.209,-18.19,-105.2,-117.3,-20.82,-39.98,-58.72,-74.9,60.37,-21.79,25.13,-8.822,12.19,-20.6,17.95,4.867,0,0,0,0,0,0,0,0,0,0,0,0,0,0,0,0,
849,-15.64,-23.44,-106.3,-114.9,-27.69,-43.51,-64.72,-73.62,47.67,-17.46,25.69,-18.25,-3.515,-26.83,14.31,-1.353,0,0,0,0,0,0,0,0,0,0,0,0,0,0,0,0,
850,-28.96,-31.4,-114.8,-116.5,-38.47,-47.38,-68.85,-78.86,46.28,-19.34,24.8,-36.18,-22.02,-25.24,5.549,-11.33,0,0,0,0,0,0,0,0,0,0,0,0,0,0,0,0,
851,-27.92,-36.67,-118,-118.3,-36.9,-41.74,-68.12,-77.1,49.52,-26.95,16.89,-49.56,-24.71,-23.97,-4.071,-18.25,0,0,0,0,0,0,0,0,0,0,0,0,0,0,0,0,
852,-36.14,-41.21,-120.5,-115.8,-45.08,-54.37,-65.68,-68.12,25.65,-24.15,2.059,-69.58,-29.12,-40.8,-14.4,-23.24,0,0,0,0,0,0,0,0,0,0,0,0,0,0,0,0,
853,-56.88,-55.57,-135.3,-126,-69.24,-89.75,-76.86,-83.8,2.357,-16.48,-17.26,-83.24,-38.95,-48.85,-28.96,-30.06,0,0,0,0,0,0,0,0,0,0,0,0,0,0,0,0,
854,-56.06,-57.89,-131.8,-128.9,-64.87,-89.29,-81.86,-94.17,4.768,-11.94,-23.45,-71.36,-32.93,-35.83,-40.86,-34.3,0,0,0,0,0,0,0,0,0,0,0,0,0,0,0,0,
