%OpenBCI Raw EXG Data
%Number of channels = 16
%Sample Rate = 125 Hz
%Board = OpenBCI_GUI$BoardCytonSerialDaisy
Sample Index,EXG Channel 0,EXG Channel 1,EXG Channel 2,EXG Channel 3,EXG Channel 4,EXG Channel 5,EXG Channel 6,EXG Channel 7,EXG Channel 8,EXG Channel 9,EXG Channel 10,EXG Channel 11,EXG Channel 12,EXG Channel 13,EXG Channel 14,EXG Channel 15,Accel Channel 0,Accel Channel 1,Accel Channel 2,Other,Other.1,Other.2,Other.3,Other.4,Other.5,Other.6,Analog Channel 0,Analog Channel 1,Analog Channel 2,Timestamp,Other.7,Timestamp (Formatted),Annotations
1,0.0,0.0,0.0,0.0,-0.0,-0.0,0.0,0.0,0.0,0.0,0.0,-0.0,0.0,-0.0,0.0,0.0,0,0,0,0,0,0,0,0,0,0,0,0,0,0,0,0,T0
2,6.38,1.071,0.1564,-2.78,2.928,5.171,2.77,-1.252,10.51,12.3,7.681,5.106,4.87,2.055,-6.463,-7.093,0,0,0,0,0,0,0,0,0,0,0,0,0,0,0,0,
3,-14.51,-3.309,-18.29,-10.12,-19.56,-12.09,-8.817,1.154,-7.129,0.2243,-0.3356,-8.563,-8.657,-14.63,-11.12,-10.93,0,0,0,0,0,0,0,0,0,0,0,0,0,0,0,0,
4,-22.17,-11.48,-24.74,-10.5,-30.76,-22.97,-9.44,-15.29,-20.3,-13.8,1.722,-3.373,-6.16,-13.19,-3.28,-6.897,0,0,0,0,0,0,0,0,0,0,0,0,0,0,0,0,
5,-15.19,-9.349,-17.72,-9.259,-25.25,-20.08,-5.136,-32.28,-15.38,-10.59,3.953,4.486,-0.7731,-4.777,-0.3157,-5.257,0,0,0,0,0,0,0,0,0,0,0,0,0,0,0,0,
6,-19.66,1.748,-20.38,-8.612,-26.32,-24.03,-12.64,-6.042,-15.51,-5.191,-3.468,1.373,-8.516,-7.35,-3.381,-5.901,0,0,0,0,0,0,0,0,0,0,0,0,0,0,0,0,
7,-22.31,-3.338,-27.21,-4.14,-28.48,-31.08,-15.31,23.45,-19.15,-8.474,4.027,6.088,-7.343,-5.944,5.058,-4.5,0,0,0,0,0,0,0,0,0,0,0,0,0,0,0,0,
8,-22.26,-24.12,-29.77,-8.251,-29.67,-32.38,-10.5,5.276,-22.0,-14.49,11.34,2.436,-9.425,-9.611,5.502,-8.205,0,0,0,0,0,0,0,0,0,0,0,0,0,0,0,0,
9,-20.03,-24.26,-22.27,-12.28,-23.8,-22.3,-6.727,-6.823,-26.66,-12.25,0.6147,-0.2523,-16.18,-9.919,-6.366,-5.806,0,0,0,0,0,0,0,0,0,0,0,0,0,0,0,0,
10,-1.42,-0.6691,-6.424,0.4482,-2.981,3.09,-0.8813,14.27,-15.79,3.632,-3.966,5.978,-7.724,1.418,-8.194,3.333,0,0,0,0,0,0,0,0,0,0,0,0,0,0,0,0,
11,8.775,8.842,-3.652,9.442,3.395,17.58,2.325,10.72,0.7892,12.43,-1.49,-7.224,-2.9,-2.215,-9.977,-1.576,0,0,0,0,0,0,0,0,0,0,0,0,0,0,0,0,
12,-1.377,2.99,-8.592,4.538,-10.67,5.704,3.827,-7.789,-4.166,1.223,-1.82,-17.92,-5.937,-8.309,-11.69,-5.558,0,0,0,0,0,0,0,0,0,0,0,0,0,0,0,0,
13,0.2724,8.124,-3.083,3.098,-9.671,-2.907,12.75,0.8535,-7.62,-1.992,10.94,-5.931,4.298,3.5,3.696,3.784,0,0,0,0,0,0,0,0,0,0,0,0,0,0,0,0,
14,10.33,18.92,-1.826,5.47,2.994,2.549,21.43,3.832,7.508,9.914,26.65,3.715,14.62,12.95,10.91,3.128,0,0,0,0,0,0,0,0,0,0,0,0,0,0,0,0,
15,10.34,22.98,-2.346,6.944,7.498,8.484,20.82,1.185,13.36,14.85,16.9,12.41,7.935,16.3,-7.65,-4.154,0,0,0,0,0,0,0,0,0,0,0,0,0,0,0,0,
16,11.66,19.85,9.075,11.53,11.45,16.99,14.26,26.51,6.312,17.23,-5.138,15.99,-4.328,13.0,-24.71,-7.565,0,0,0,0,0,0,0,0,0,0,0,0,0,0,0,0,
17,11.24,10.66,7.651,13.49,11.51,18.08,5.711,30.66,2.256,14.74,-10.68,-1.693,-10.67,-6.5,-24.63,-17.15,0,0,0,0,0,0,0,0,0,0,0,0,0,0,0,0,
18,6.411,8.736,-4.996,11.38,5.816,8.931,3.18,0.1795,-0.0177,-2.247,2.32,-9.041,-6.627,-13.15,-10.14,-15.14,0,0,0,0,0,0,0,0,0,0,0,0,0,0,0,0,
19,16.29,17.07,3.563,12.61,10.83,14.7,12.12,0.6436,2.956,-3.441,19.98,6.133,6.854,7.814,8.653,3.816,0,0,0,0,0,0,0,0,0,0,0,0,0,0,0,0,
20,28.83,21.22,14.02,9.096,16.74,20.93,17.62,7.246,9.521,14.24,21.97,2.626,10.65,14.98,6.942,4.602,0,0,0,0,0,0,0,0,0,0,0,0,0,0,0,0,
21,17.68,15.47,2.851,-6.581,4.585,4.545,7.447,-13.21,3.425,11.05,0.3003,-11.51,-5.993,-0.5783,-15.39,-7.267,0,0,0,0,0,0,0,0,0,0,0,0,0,0,0,0,
22,-0.1313,-1.401,-5.848,-14.99,-10.43,-4.366,-2.53,-2.038,-12.81,-4.628,-16.41,5.863,-17.22,-1.474,-23.03,-0.7273,0,0,0,0,0,0,0,0,0,0,0,0,0,0,0,0,
23,1.881,-11.85,-0.2325,-0.3095,-7.736,3.408,3.805,26.41,-17.42,-1.655,-0.0813,30.37,-4.107,11.57,-1.197,13.15,0,0,0,0,0,0,0,0,0,0,0,0,0,0,0,0,
24,11.18,2.652,4.44,13.57,3.447,2.02,13.07,21.35,-4.274,8.259,22.71,23.63,8.862,9.254,15.55,10.33,0,0,0,0,0,0,0,0,0,0,0,0,0,0,0,0,
25,2.881,8.849,-2.496,0.1864,-0.9163,-7.517,5.841,13.35,1.703,2.309,10.47,0.7702,-2.764,-10.56,-2.817,-11.91,0,0,0,0,0,0,0,0,0,0,0,0,0,0,0,0,
26,-12.36,-7.412,-12.72,-16.05,-16.21,-15.4,-4.896,4.21,-13.13,-12.98,-12.62,-11.18,-18.53,-23.89,-22.92,-29.69,0,0,0,0,0,0,0,0,0,0,0,0,0,0,0,0,
27,-9.913,-5.622,-7.88,-9.259,-16.07,-20.69,2.288,-10.33,-19.55,-14.08,-5.371,-0.7983,-12.56,-12.29,-14.77,-18.59,0,0,0,0,0,0,0,0,0,0,0,0,0,0,0,0,
28,-2.13,4.591,2.178,-3.583,-7.11,-19.89,13.89,7.901,-7.56,-4.064,11.28,17.35,-1.115,8.275,-3.361,3.792,0,0,0,0,0,0,0,0,0,0,0,0,0,0,0,0,
29,-2.685,-3.447,3.325,-3.123,-2.915,-8.773,16.76,24.37,-1.161,0.2218,21.74,19.42,4.013,15.8,7.195,11.05,0,0,0,0,0,0,0,0,0,0,0,0,0,0,0,0,
30,5.859,1.313,9.402,14.44,9.914,11.94,18.14,3.997,2.854,7.528,30.75,6.365,9.562,10.13,14.01,-0.0788,0,0,0,0,0,0,0,0,0,0,0,0,0,0,0,0,
31,19.65,19.98,14.93,26.28,23.59,22.88,11.96,-8.505,9.057,11.2,12.88,-13.81,-0.1443,-7.9,-5.766,-17.07,0,0,0,0,0,0,0,0,0,0,0,0,0,0,0,0,
32,24.37,31.05,13.21,20.99,26.47,16.77,8.685,-4.547,6.101,-1.516,-3.535,-16.47,-9.102,-15.16,-6.412,-7.24,0,0,0,0,0,0,0,0,0,0,0,0,0,0,0,0,
33,31.35,48.41,21.02,25.35,33.1,18.31,26.31,-0.6513,9.987,1.559,23.53,12.13,11.9,6.57,24.18,18.58,0,0,0,0,0,0,0,0,0,0,0,0,0,0,0,0,
34,31.38,44.47,20.74,26.83,33.0,27.38,30.96,12.08,21.39,23.59,28.48,22.12,17.18,16.1,6.524,4.567,0,0,0,0,0,0,0,0,0,0,0,0,0,0,0,0,
35,13.54,6.019,2.221,14.78,17.0,25.0,10.55,19.88,12.81,25.52,-6.237,5.978,-7.524,4.086,-30.64,-26.05,0,0,0,0,0,0,0,0,0,0,0,0,0,0,0,0,
36,7.436,2.651,-0.0181,17.12,12.93,21.69,5.57,19.14,-0.7982,19.58,-3.267,14.7,-7.973,11.3,-11.94,-18.74,0,0,0,0,0,0,0,0,0,0,0,0,0,0,0,0,
37,15.7,26.67,6.539,26.59,18.57,23.62,9.463,27.52,4.022,29.42,16.36,29.36,3.452,23.87,6.836,-2.861,0,0,0,0,0,0,0,0,0,0,0,0,0,0,0,0,
38,8.892,18.04,-6.733,19.51,7.433,15.03,-2.089,28.09,5.336,30.97,1.089,21.46,-4.781,17.09,-8.55,-5.4,0,0,0,0,0,0,0,0,0,0,0,0,0,0,0,0,
39,-3.893,12.68,-18.39,9.431,-8.016,-0.3618,-5.853,9.595,-6.547,16.9,-6.885,18.64,-5.314,13.24,-5.667,0.9122,0,0,0,0,0,0,0,0,0,0,0,0,0,0,0,0,
40,-5.395,14.85,-9.871,6.659,-6.456,-1.306,7.733,0.234,-7.057,12.02,13.28,22.91,11.25,20.06,15.62,16.28,0,0,0,0,0,0,0,0,0,0,0,0,0,0,0,0,
41,-6.367,-15.25,2.832,1.051,1.35,6.492,18.37,5.596,6.393,15.48,28.76,14.96,22.13,16.99,22.74,14.88,0,0,0,0,0,0,0,0,0,0,0,0,0,0,0,0,
42,-6.819,-19.96,7.293,-2.298,0.5922,0.2948,21.33,-0.2598,11.92,8.131,29.78,4.868,16.79,2.024,16.45,3.199,0,0,0,0,0,0,0,0,0,0,0,0,0,0,0,0,
43,-0.4862,14.16,5.758,8.259,-2.877,-11.68,21.7,-11.34,7.595,-4.115,24.27,8.44,3.878,-3.094,8.2,0.929,0,0,0,0,0,0,0,0,0,0,0,0,0,0,0,0,
44,-2.389,8.752,1.306,14.04,-8.196,-17.17,16.69,-3.936,2.459,-9.835,17.82,11.68,-3.656,-0.6123,4.319,-0.9005,0,0,0,0,0,0,0,0,0,0,0,0,0,0,0,0,
45,-17.81,-17.46,-8.86,-1.065,-23.6,-27.47,5.31,4.332,-7.286,-17.03,12.42,3.036,-9.27,-8.304,0.9726,-10.93,0,0,0,0,0,0,0,0,0,0,0,0,0,0,0,0,
46,-28.61,-19.4,-21.06,-11.04,-34.21,-31.74,-3.043,-3.793,-17.41,-20.59,4.373,4.697,-16.25,-8.971,-6.179,-14.27,0,0,0,0,0,0,0,0,0,0,0,0,0,0,0,0,
47,-28.88,-27.51,-25.53,-5.292,-28.93,-18.83,-5.515,-5.537,-19.99,-10.34,-5.268,9.329,-19.7,-0.6883,-7.691,-10.89,0,0,0,0,0,0,0,0,0,0,0,0,0,0,0,0,
48,-25.11,-30.84,-24.05,-2.046,-24.54,-13.31,-8.796,4.19,-23.47,-6.72,-5.008,-0.445,-17.79,-4.268,6.909,-5.975,0,0,0,0,0,0,0,0,0,0,0,0,0,0,0,0,
49,-13.01,-0.3656,-18.61,8.943,-19.66,-13.32,-4.525,11.22,-24.67,-13.11,11.3,11.13,-2.309,4.591,30.24,11.93,0,0,0,0,0,0,0,0,0,0,0,0,0,0,0,0,
50,8.094,28.7,-4.753,28.12,-2.813,4.364,12.37,26.39,-9.215,-0.352,24.73,37.8,19.21,31.57,37.83,29.7,0,0,0,0,0,0,0,0,0,0,0,0,0,0,0,0,
51,19.06,25.47,5.296,23.42,7.25,18.46,20.57,41.93,10.98,19.74,15.85,31.92,21.46,34.26,22.18,23.91,0,0,0,0,0,0,0,0,0,0,0,0,0,0,0,0,
52,7.136,0.6787,-3.687,4.104,-1.723,7.892,10.98,23.26,13.56,14.26,1.171,13.38,6.917,15.11,7.04,7.367,0,0,0,0,0,0,0,0,0,0,0,0,0,0,0,0,
53,-8.161,-16.7,-17.52,0.2218,-14.34,-4.539,-2.006,-11.06,-2.546,-0.3388,-2.889,8.174,-8.403,2.753,1.502,-4.891,0,0,0,0,0,0,0,0,0,0,0,0,0,0,0,0,
54,-9.337,-13.25,-18.65,0.5506,-21.08,-4.787,-13.01,-15.83,-23.06,-5.146,-11.86,2.531,-22.86,-4.354,-9.865,-15.63,0,0,0,0,0,0,0,0,0,0,0,0,0,0,0,0,
55,-7.286,-3.678,-13.79,-2.405,-20.68,-3.249,-18.0,-4.304,-31.99,-10.67,-25.33,-2.475,-29.79,-8.238,-21.65,-20.38,0,0,0,0,0,0,0,0,0,0,0,0,0,0,0,0,
56,-4.177,12.97,-8.013,2.671,-14.28,-4.237,-9.482,-2.163,-27.49,-12.15,-23.68,-5.266,-24.4,-7.038,-22.15,-20.58,0,0,0,0,0,0,0,0,0,0,0,0,0,0,0,0,
57,3.145,26.52,-0.0768,3.716,-12.49,-8.864,2.174,-0.5493,-23.87,-9.598,-16.64,-12.38,-19.93,-9.843,-23.58,-26.75,0,0,0,0,0,0,0,0,0,0,0,0,0,0,0,0,
58,-1.231,4.792,2.103,-5.396,-16.9,-15.47,6.338,-2.069,-22.89,-17.72,-15.23,-19.04,-22.16,-18.34,-26.43,-33.5,0,0,0,0,0,0,0,0,0,0,0,0,0,0,0,0,
59,-12.53,-20.55,-0.1525,-6.771,-17.73,-16.93,8.858,-10.17,-17.17,-25.2,-7.247,-22.68,-18.74,-22.5,-17.49,-31.78,0,0,0,0,0,0,0,0,0,0,0,0,0,0,0,0,
60,-7.284,-8.736,6.927,0.5081,-12.53,-13.96,16.75,-5.65,-12.7,-22.1,9.717,-18.0,-3.82,-14.38,0.2634,-18.01,0,0,0,0,0,0,0,0,0,0,0,0,0,0,0,0,
61,8.854,9.534,22.65,7.47,-1.204,-8.308,30.71,4.886,-5.92,-14.82,29.07,2.664,13.81,4.359,20.31,5.813,0,0,0,0,0,0,0,0,0,0,0,0,0,0,0,0,
62,16.04,14.68,29.61,14.76,8.982,-0.4604,37.36,4.462,7.582,-2.627,39.39,22.37,22.7,20.8,33.08,19.15,0,0,0,0,0,0,0,0,0,0,0,0,0,0,0,0,
63,15.03,19.49,25.72,22.14,12.51,8.763,32.39,13.7,12.84,8.875,40.14,24.44,28.39,30.37,39.3,22.2,0,0,0,0,0,0,0,0,0,0,0,0,0,0,0,0,
64,20.61,21.83,29.68,29.75,24.91,23.75,37.71,36.22,20.83,19.86,52.66,24.62,42.45,40.59,51.62,33.37,0,0,0,0,0,0,0,0,0,0,0,0,0,0,0,0,
65,28.12,22.53,34.36,32.17,36.21,29.63,43.29,36.21,39.32,29.21,55.64,24.83,40.31,35.75,44.1,26.92,0,0,0,0,0,0,0,0,0,0,0,0,0,0,0,0,
66,19.78,25.03,20.44,25.3,19.71,11.1,25.01,12.99,30.07,14.68,25.54,9.521,9.314,7.46,10.57,-1.539,0,0,0,0,0,0,0,0,0,0,0,0,0,0,0,0,
67,6.097,20.58,6.5,18.88,-2.463,-6.757,9.05,-5.853,-2.376,-10.61,8.911,0.0776,-7.874,-6.872,-1.5,-7.185,0,0,0,0,0,0,0,0,0,0,0,0,0,0,0,0,
68,1.233,9.078,2.896,16.83,-9.075,-6.108,7.759,-12.7,-14.93,-13.66,12.39,10.01,-3.915,3.572,-0.204,-1.536,0,0,0,0,0,0,0,0,0,0,0,0,0,0,0,0,
69,-0.6535,6.376,-3.83,19.18,-9.083,2.232,4.876,2.032,-11.25,-4.16,5.177,14.15,-2.641,12.43,-5.921,-7.944,0,0,0,0,0,0,0,0,0,0,0,0,0,0,0,0,
70,2.591,11.77,-2.856,22.76,2.285,13.54,10.64,24.51,-0.5998,6.877,11.85,9.123,7.66,18.65,6.798,-2.603,0,0,0,0,0,0,0,0,0,0,0,0,0,0,0,0,
71,8.364,9.535,6.669,19.29,14.42,19.43,16.34,20.65,13.64,17.58,23.34,8.913,14.6,21.65,13.82,6.104,0,0,0,0,0,0,0,0,0,0,0,0,0,0,0,0,
72,8.736,15.29,6.207,21.95,10.78,14.98,4.918,17.23,11.05,14.56,12.39,15.41,4.495,18.11,1.696,3.313,0,0,0,0,0,0,0,0,0,0,0,0,0,0,0,0,
73,9.408,29.69,3.267,30.09,9.168,12.15,0.8977,22.2,4.852,7.195,15.1,18.23,10.34,20.33,11.73,4.637,0,0,0,0,0,0,0,0,0,0,0,0,0,0,0,0,
74,8.921,17.1,6.549,23.22,16.6,15.62,10.32,-6.753,15.27,12.04,28.4,10.37,24.88,24.57,21.6,5.457,0,0,0,0,0,0,0,0,0,0,0,0,0,0,0,0,
75,7.614,4.348,8.97,20.53,22.21,20.45,13.72,-17.87,23.99,20.46,18.53,14.0,20.09,26.07,5.703,4.293,0,0,0,0,0,0,0,0,0,0,0,0,0,0,0,0,
76,8.411,17.3,6.474,25.0,19.37,16.95,13.03,19.89,18.44,17.91,8.459,22.27,9.316,22.63,0.2659,7.596,0,0,0,0,0,0,0,0,0,0,0,0,0,0,0,0,
77,-1.212,6.993,-1.447,8.733,2.201,2.276,12.6,19.97,3.766,1.901,6.871,4.658,-3.638,5.468,1.369,1.702,0,0,0,0,0,0,0,0,0,0,0,0,0,0,0,0,
78,-16.27,-14.41,-8.954,-3.879,-13.79,-11.04,10.64,-3.682,-11.43,-14.47,-3.074,-5.31,-18.07,-6.429,-10.66,-10.19,0,0,0,0,0,0,0,0,0,0,0,0,0,0,0,0,
79,-20.88,-6.495,-14.82,4.766,-14.38,-17.36,7.84,5.663,-17.05,-19.48,-7.297,6.239,-18.4,-1.818,-12.17,-12.63,0,0,0,0,0,0,0,0,0,0,0,0,0,0,0,0,
80,-16.59,-4.997,-18.28,10.36,-8.049,-12.29,7.781,-4.127,-13.09,-13.34,1.707,3.973,-9.68,1.917,1.146,-8.117,0,0,0,0,0,0,0,0,0,0,0,0,0,0,0,0,
81,-6.756,-9.562,-9.691,13.19,0.7241,-1.314,12.47,-20.4,-5.097,-2.952,6.75,0.2717,-6.607,1.428,5.365,-6.231,0,0,0,0,0,0,0,0,0,0,0,0,0,0,0,0,
82,-5.649,1.538,-2.795,8.644,-1.397,-11.08,8.305,3.121,-5.762,-7.636,0.7951,-1.147,-14.54,-7.893,-5.198,-12.93,0,0,0,0,0,0,0,0,0,0,0,0,0,0,0,0,
83,-19.31,-6.284,-13.07,-7.078,-17.85,-28.98,-5.417,13.67,-20.91,-27.7,-7.766,-11.27,-24.78,-21.8,-15.91,-16.8,0,0,0,0,0,0,0,0,0,0,0,0,0,0,0,0,
84,-22.89,-20.52,-21.21,-5.469,-21.84,-27.02,-8.707,1.331,-29.02,-33.81,-10.32,-3.533,-25.04,-18.96,-14.06,-9.199,0,0,0,0,0,0,0,0,0,0,0,0,0,0,0,0,
85,-19.87,-10.65,-20.88,2.692,-19.51,-28.45,-7.793,-6.748,-26.73,-28.5,-10.37,2.607,-25.42,-15.29,-11.19,-13.43,0,0,0,0,0,0,0,0,0,0,0,0,0,0,0,0,
86,-33.07,-17.1,-25.67,-8.965,-30.64,-38.29,-13.58,-27.98,-33.79,-34.59,-16.21,-21.45,-32.43,-27.01,-23.22,-35.62,0,0,0,0,0,0,0,0,0,0,0,0,0,0,0,0,
87,-41.19,-43.53,-27.4,-16.05,-32.23,-29.27,-9.27,-35.38,-37.54,-38.16,-15.46,-30.67,-28.85,-27.36,-26.31,-37.99,0,0,0,0,0,0,0,0,0,0,0,0,0,0,0,0,
88,-25.45,-38.39,-16.69,-7.45,-16.53,-17.4,6.657,-6.843,-23.18,-25.64,4.316,-7.764,-12.21,-10.63,-5.199,-15.04,0,0,0,0,0,0,0,0,0,0,0,0,0,0,0,0,
89,-12.08,-9.534,-7.968,-3.503,-10.79,-24.75,8.702,8.46,-13.01,-18.67,8.064,-2.795,-9.678,-8.592,-7.594,-16.04,0,0,0,0,0,0,0,0,0,0,0,0,0,0,0,0,
90,-18.23,0.8915,-15.71,-5.132,-21.27,-34.93,-11.52,-14.59,-22.72,-29.57,-25.81,-29.58,-31.61,-27.85,-40.52,-42.9,0,0,0,0,0,0,0,0,0,0,0,0,0,0,0,0,
91,-25.35,-7.995,-26.32,-6.75,-28.69,-29.71,-27.13,-51.1,-35.89,-36.82,-42.09,-39.49,-42.75,-35.31,-39.38,-43.8,0,0,0,0,0,0,0,0,0,0,0,0,0,0,0,0,
92,-19.9,-17.31,-17.72,-9.551,-20.13,-11.08,-17.74,-59.34,-32.5,-26.21,-20.18,-23.89,-30.04,-24.91,-16.88,-30.45,0,0,0,0,0,0,0,0,0,0,0,0,0,0,0,0,
93,-14.85,-19.17,-5.414,-10.18,-10.99,-2.377,-7.791,-26.81,-20.38,-18.64,-16.54,-30.65,-30.15,-28.82,-29.57,-41.71,0,0,0,0,0,0,0,0,0,0,0,0,0,0,0,0,
94,-17.11,-14.26,-12.47,-8.464,-18.82,-15.92,-16.55,-3.788,-22.74,-29.56,-33.53,-46.21,-40.39,-39.21,-44.17,-50.46,0,0,0,0,0,0,0,0,0,0,0,0,0,0,0,0,
95,-12.45,-6.154,-17.88,-6.357,-22.69,-23.26,-19.24,-9.021,-29.92,-37.13,-27.1,-30.87,-29.39,-29.07,-29.39,-38.12,0,0,0,0,0,0,0,0,0,0,0,0,0,0,0,0,
96,-0.7309,4.62,-6.927,-0.6833,-8.564,-10.77,-6.046,-7.356,-17.92,-26.61,-7.213,-15.11,-12.13,-16.01,-15.47,-26.32,0,0,0,0,0,0,0,0,0,0,0,0,0,0,0,0,
97,1.839,12.62,-2.454,6.837,-0.826,-1.874,2.401,-5.854,-2.655,-16.77,3.157,-14.8,-5.348,-12.88,-6.951,-15.77,0,0,0,0,0,0,0,0,0,0,0,0,0,0,0,0,
98,-1.468,6.606,-7.115,5.444,-4.418,1.216,3.065,-17.9,-1.474,-15.17,8.87,-9.886,-1.197,-9.545,0.7649,-8.713,0,0,0,0,0,0,0,0,0,0,0,0,0,0,0,0,
99,-5.566,-8.398,-10.45,-9.573,-10.02,2.33,-2.687,-25.85,-3.593,-13.39,4.154,-13.6,-6.537,-13.57,-8.385,-16.7,0,0,0,0,0,0,0,0,0,0,0,0,0,0,0,0,
100,-19.92,-19.49,-22.56,-23.41,-25.91,-11.64,-17.29,-35.2,-12.89,-19.99,-10.36,-26.4,-19.64,-23.97,-19.81,-22.87,0,0,0,0,0,0,0,0,0,0,0,0,0,0,0,0,
101,-27.81,-21.94,-31.86,-17.77,-35.28,-23.62,-20.32,-41.25,-24.89,-31.2,-10.48,-23.38,-17.36,-19.8,-11.81,-14.83,0,0,0,0,0,0,0,0,0,0,0,0,0,0,0,0,
102,-15.11,-12.27,-22.01,-4.011,-24.85,-19.31,-8.83,-22.67,-17.37,-27.22,0.3052,-13.72,-3.712,-7.108,-1.276,-7.926,0,0,0,0,0,0,0,0,0,0,0,0,0,0,0,0,
103,-13.83,-5.325,-16.8,-6.142,-24.99,-20.47,-5.349,-7.006,-9.805,-20.27,3.386,-15.48,0.3098,-7.301,0.4398,-7.636,0,0,0,0,0,0,0,0,0,0,0,0,0,0,0,0,
104,-27.31,-19.28,-20.64,-16.28,-32.11,-22.68,-0.8208,-18.97,-15.98,-23.69,6.649,-18.95,-1.873,-14.74,-0.6433,-10.92,0,0,0,0,0,0,0,0,0,0,0,0,0,0,0,0,
105,-26.78,-31.93,-16.93,-20.03,-24.86,-19.38,5.345,-33.24,-13.72,-27.03,-0.5035,-22.96,-12.86,-24.07,-16.38,-24.54,0,0,0,0,0,0,0,0,0,0,0,0,0,0,0,0,
106,-27.02,-25.42,-20.9,-24.49,-30.19,-32.42,-12.35,-37.86,-20.46,-35.69,-26.88,-35.68,-36.54,-37.72,-34.73,-35.82,0,0,0,0,0,0,0,0,0,0,0,0,0,0,0,0,
107,-33.67,-22.95,-29.15,-24.77,-44.55,-43.44,-28.41,-38.29,-42.94,-46.49,-30.15,-36.36,-39.17,-33.8,-22.77,-25.2,0,0,0,0,0,0,0,0,0,0,0,0,0,0,0,0,
108,-27.67,-33.52,-24.37,-15.4,-38.1,-31.7,-19.07,-26.6,-41.08,-39.32,-10.6,-18.31,-20.85,-14.94,-6.818,-12.16,0,0,0,0,0,0,0,0,0,0,0,0,0,0,0,0,
109,-29.21,-39.41,-26.64,-14.73,-35.5,-29.04,-19.53,-17.14,-29.97,-30.99,-13.55,-13.43,-24.49,-16.71,-16.68,-16.85,0,0,0,0,0,0,0,0,0,0,0,0,0,0,0,0,
110,-42.29,-33.93,-35.15,-25.11,-46.62,-41.66,-29.75,-34.06,-39.03,-39.34,-21.41,-25.19,-35.15,-28.73,-24.45,-27.6,0,0,0,0,0,0,0,0,0,0,0,0,0,0,0,0,
111,-38.38,-26.78,-29.56,-28.62,-43.93,-39.42,-20.47,-45.29,-39.29,-40.74,-11.45,-28.46,-24.89,-24.69,-19.26,-30.8,0,0,0,0,0,0,0,0,0,0,0,0,0,0,0,0,
112,-25.24,-26.54,-21.41,-20.89,-30.17,-19.06,-7.587,-17.29,-24.36,-25.15,-7.178,-17.24,-14.62,-14.09,-13.29,-18.28,0,0,0,0,0,0,0,0,0,0,0,0,0,0,0,0,
113,-15.08,-22.61,-14.0,-10.97,-14.63,-1.83,-5.732,2.706,-15.41,-12.69,-11.55,-10.69,-13.62,-8.772,-9.24,-5.592,0,0,0,0,0,0,0,0,0,0,0,0,0,0,0,0,
114,-5.558,-7.614,-8.664,-10.77,-4.072,-6.758,-6.784,-16.3,-11.71,-15.77,-15.14,-30.3,-17.43,-17.44,-17.78,-21.31,0,0,0,0,0,0,0,0,0,0,0,0,0,0,0,0,
115,-8.411,-1.552,-19.62,-18.2,-11.38,-24.77,-10.55,-30.89,-15.92,-31.11,-19.86,-51.92,-26.34,-34.59,-32.36,-44.23,0,0,0,0,0,0,0,0,0,0,0,0,0,0,0,0,
116,-17.64,-6.6,-27.45,-18.84,-18.04,-28.17,-13.0,-35.42,-23.16,-40.42,-23.85,-44.02,-29.58,-34.61,-36.83,-42.47,0,0,0,0,0,0,0,0,0,0,0,0,0,0,0,0,
117,-18.05,-5.621,-20.08,-13.95,-10.56,-18.94,-10.93,-48.06,-19.3,-28.68,-25.78,-30.57,-25.22,-20.47,-32.58,-29.49,0,0,0,0,0,0,0,0,0,0,0,0,0,0,0,0,
118,-15.7,-10.92,-18.38,-10.99,-5.952,-12.5,-7.611,-40.85,-13.43,-13.75,-16.91,-25.84,-15.65,-11.16,-15.19,-17.04,0,0,0,0,0,0,0,0,0,0,0,0,0,0,0,0,
119,-9.142,-22.5,-17.04,-9.548,-1.474,-4.298,-1.901,-19.54,-8.364,-12.06,-0.7953,-18.72,-3.875,-6.952,0.0866,-7.744,0,0,0,0,0,0,0,0,0,0,0,0,0,0,0,0,
120,-3.108,-19.49,-13.23,-15.26,0.58,-3.501,-4.088,-20.93,-2.534,-12.75,-5.021,-21.99,-9.169,-11.87,-14.16,-15.5,0,0,0,0,0,0,0,0,0,0,0,0,0,0,0,0,
121,-17.44,-20.93,-25.29,-25.18,-17.13,-24.09,-18.47,-27.58,-15.34,-19.28,-23.01,-31.94,-27.32,-25.31,-32.95,-30.8,0,0,0,0,0,0,0,0,0,0,0,0,0,0,0,0,
122,-29.51,-27.31,-32.2,-19.7,-24.86,-33.13,-18.72,-9.226,-31.04,-31.21,-23.64,-24.89,-28.04,-25.9,-30.02,-29.74,0,0,0,0,0,0,0,0,0,0,0,0,0,0,0,0,
123,-12.04,-5.064,-16.9,-3.865,-3.955,-12.73,-2.548,9.428,-16.17,-23.28,-17.53,-13.31,-17.24,-14.25,-29.15,-21.92,0,0,0,0,0,0,0,0,0,0,0,0,0,0,0,0,
124,-1.528,12.4,-13.87,-5.119,-1.391,-10.92,-4.64,-13.45,-3.929,-13.26,-25.88,-20.52,-21.31,-16.78,-38.59,-28.01,0,0,0,0,0,0,0,0,0,0,0,0,0,0,0,0,
125,-15.65,-7.145,-27.19,-15.8,-19.05,-28.54,-18.59,-43.29,-20.29,-25.42,-30.8,-26.25,-25.19,-23.79,-37.09,-33.6,0,0,0,0,0,0,0,0,0,0,0,0,0,0,0,0,
126,-17.89,-21.2,-26.12,-13.0,-12.58,-16.25,-12.87,-25.83,-22.16,-25.07,-19.82,-12.07,-10.12,-13.31,-27.26,-24.04,0,0,0,0,0,0,0,0,0,0,0,0,0,0,0,0,
127,-12.44,-20.89,-20.34,-10.36,-3.187,-1.92,-2.058,-13.11,-6.076,-12.48,-11.08,-10.89,-2.211,-8.961,-21.2,-16.67,0,0,0,0,0,0,0,0,0,0,0,0,0,0,0,0,
128,-19.13,-24.1,-20.73,-13.59,-12.61,-15.39,-0.0206,-31.73,-7.862,-21.24,-5.323,-22.62,-6.739,-14.91,-11.13,-14.21,0,0,0,0,0,0,0,0,0,0,0,0,0,0,0,0,
129,-16.56,-12.07,-12.7,-5.88,-9.913,-16.42,5.18,-17.53,-11.4,-26.43,1.564,-11.05,-0.8007,-7.157,-3.301,-7.595,0,0,0,0,0,0,0,0,0,0,0,0,0,0,0,0,
130,-5.663,6.491,-8.825,0.1356,0.1406,-6.239,0.6711,0.5813,-4.863,-15.95,-9.561,-3.79,-0.5306,-4.47,-11.86,-8.806,0,0,0,0,0,0,0,0,0,0,0,0,0,0,0,0,
131,-1.209,6.666,-12.26,-4.487,3.515,-4.8,-10.97,-18.18,-5.648,-13.6,-24.2,-14.0,-8.343,-9.131,-16.06,-11.67,0,0,0,0,0,0,0,0,0,0,0,0,0,0,0,0,
132,9.79,-0.0398,3.822,-3.43,17.48,5.775,-0.2911,-12.5,-0.4696,-7.709,-11.46,-5.833,1.217,1.1,-4.423,-2.148,0,0,0,0,0,0,0,0,0,0,0,0,0,0,0,0,
133,17.3,-0.4703,20.22,-1.714,23.32,5.872,12.91,4.416,10.85,-1.302,4.628,-0.0803,6.306,0.7943,-0.5914,1.125,0,0,0,0,0,0,0,0,0,0,0,0,0,0,0,0,
134,4.859,6.756,6.905,-3.326,4.781,-17.52,5.495,-11.46,3.128,-16.67,1.781,-10.99,-5.282,-11.79,-5.909,-6.257,0,0,0,0,0,0,0,0,0,0,0,0,0,0,0,0,
135,-4.342,12.93,-5.301,1.276,-2.723,-19.84,6.074,-11.71,-6.689,-26.62,1.936,-7.373,-2.114,-3.132,-3.92,-5.046,0,0,0,0,0,0,0,0,0,0,0,0,0,0,0,0,
136,4.269,8.528,4.011,3.502,12.72,4.102,20.35,-0.3879,5.374,-9.898,15.47,1.098,14.18,11.52,4.727,1.903,0,0,0,0,0,0,0,0,0,0,0,0,0,0,0,0,
137,14.0,6.135,5.649,1.857,25.39,16.98,21.46,-17.81,22.3,8.629,25.92,-1.225,20.74,11.68,9.509,1.88,0,0,0,0,0,0,0,0,0,0,0,0,0,0,0,0,
138,12.05,3.315,-6.606,2.1,21.19,10.46,9.397,-25.5,23.13,10.79,14.63,-4.871,12.35,5.862,-0.9753,-3.791,0,0,0,0,0,0,0,0,0,0,0,0,0,0,0,0,
139,6.424,-10.33,-6.584,-1.784,7.819,-1.348,1.925,-9.031,9.721,-0.1392,-7.519,-6.265,-0.7066,2.07,-12.51,-5.507,0,0,0,0,0,0,0,0,0,0,0,0,0,0,0,0,
140,7.416,-6.414,2.547,-1.174,3.953,-4.806,4.571,-0.8037,1.677,-7.816,-5.597,-1.62,2.041,7.328,-1.052,-0.8094,0,0,0,0,0,0,0,0,0,0,0,0,0,0,0,0,
141,6.183,15.25,-2.705,8.874,8.628,1.918,6.855,2.491,7.372,-1.216,9.853,2.223,13.06,12.07,9.574,-0.1947,0,0,0,0,0,0,0,0,0,0,0,0,0,0,0,0,
142,1.576,10.64,-10.11,12.95,8.536,11.79,4.25,7.617,10.37,4.903,4.902,0.1315,10.64,5.513,-3.405,-5.05,0,0,0,0,0,0,0,0,0,0,0,0,0,0,0,0,
143,3.852,-10.12,-2.263,7.048,6.809,13.6,7.23,3.315,7.373,0.2403,-4.981,0.0355,3.427,-1.505,-14.86,-8.356,0,0,0,0,0,0,0,0,0,0,0,0,0,0,0,0,
144,-0.5459,-10.43,-0.98,-5.509,-1.18,-6.712,8.538,-11.37,4.245,-10.95,-7.113,-3.366,-2.222,-6.19,-18.04,-13.37,0,0,0,0,0,0,0,0,0,0,0,0,0,0,0,0,
145,-11.35,-0.1738,-10.05,-13.19,-12.74,-26.25,1.239,-22.19,-5.34,-24.07,-13.12,-7.428,-7.055,-7.024,-21.08,-15.43,0,0,0,0,0,0,0,0,0,0,0,0,0,0,0,0,
146,-3.692,7.626,-3.896,-3.524,-2.115,-11.24,5.549,-9.362,-8.54,-23.16,-7.972,-3.625,-0.6205,-0.0573,-9.166,-7.539,0,0,0,0,0,0,0,0,0,0,0,0,0,0,0,0,
147,8.192,11.31,5.944,0.6883,14.68,6.919,14.36,6.534,1.767,-12.04,4.408,-5.429,3.806,-1.142,3.732,-4.284,0,0,0,0,0,0,0,0,0,0,0,0,0,0,0,0,
148,2.408,2.026,0.3486,-9.242,4.391,-4.408,4.092,-15.08,-1.632,-17.7,-3.045,-14.04,-8.296,-11.29,-4.806,-9.674,0,0,0,0,0,0,0,0,0,0,0,0,0,0,0,0,
149,-6.295,-12.91,-6.752,-6.16,-13.03,-17.31,-7.045,-37.46,-16.31,-27.47,-11.24,-10.67,-13.98,-9.435,-11.07,-7.024,0,0,0,0,0,0,0,0,0,0,0,0,0,0,0,0,
150,-12.06,-22.06,-12.36,-1.246,-18.16,-18.44,-7.512,-10.1,-16.95,-21.15,-6.795,2.839,-4.743,0.3868,-7.659,-0.2749,0,0,0,0,0,0,0,0,0,0,0,0,0,0,0,0,
151,-15.7,-16.95,-19.61,-11.73,-18.98,-21.95,-12.54,17.3,-13.27,-17.29,-12.12,3.176,-1.787,-1.189,-13.59,-4.859,0,0,0,0,0,0,0,0,0,0,0,0,0,0,0,0,
152,-11.06,4.512,-20.25,-14.7,-14.9,-24.82,-18.52,-1.277,-15.56,-21.97,-22.02,-14.17,-9.911,-14.1,-19.43,-14.69,0,0,0,0,0,0,0,0,0,0,0,0,0,0,0,0,
153,-11.53,5.723,-21.94,-9.038,-13.57,-23.8,-19.46,-21.88,-19.25,-27.19,-22.5,-22.69,-19.25,-24.68,-15.2,-15.8,0,0,0,0,0,0,0,0,0,0,0,0,0,0,0,0,
154,-17.54,-19.28,-24.14,-6.391,-19.93,-20.56,-15.09,-13.26,-24.13,-33.35,-14.34,-10.81,-20.64,-23.66,-6.183,-9.091,0,0,0,0,0,0,0,0,0,0,0,0,0,0,0,0,
155,-15.26,-22.96,-16.93,-5.323,-23.07,-19.34,-7.516,-1.622,-23.4,-34.3,-3.629,-2.077,-16.43,-19.48,-2.088,-9.672,0,0,0,0,0,0,0,0,0,0,0,0,0,0,0,0,
156,-18.79,-17.7,-17.69,-16.67,-27.51,-26.76,-12.8,-8.454,-23.8,-35.87,-12.31,-8.389,-22.2,-23.02,-17.05,-20.6,0,0,0,0,0,0,0,0,0,0,0,0,0,0,0,0,
157,-23.01,-22.49,-23.81,-24.93,-26.44,-26.9,-17.6,-21.67,-31.68,-38.88,-29.37,-9.638,-25.36,-19.23,-30.53,-21.99,0,0,0,0,0,0,0,0,0,0,0,0,0,0,0,0,
158,-5.202,-2.436,-10.32,-9.63,-5.508,-13.01,-0.215,-15.15,-23.02,-24.76,-20.24,0.4607,-8.084,-1.804,-16.27,-9.988,0,0,0,0,0,0,0,0,0,0,0,0,0,0,0,0,
159,9.177,14.07,3.597,-2.476,7.384,-7.321,9.111,4.151,-2.526,-8.059,-3.202,0.9249,4.335,4.413,2.054,-1.799,0,0,0,0,0,0,0,0,0,0,0,0,0,0,0,0,
160,3.113,-3.225,-2.016,-10.01,-2.06,-7.182,-1.806,0.1446,0.9368,-7.433,-0.5609,-3.941,4.261,-0.4383,5.285,-0.296,0,0,0,0,0,0,0,0,0,0,0,0,0,0,0,0,
161,2.399,1.483,-7.224,-4.441,-5.542,-1.402,-4.178,-16.38,-0.3144,-6.852,-0.3683,2.208,10.38,0.322,2.273,-2.878,0,0,0,0,0,0,0,0,0,0,0,0,0,0,0,0,
162,8.331,25.02,-5.03,0.7839,2.428,-0.1519,0.5481,-3.089,5.913,-6.441,2.054,1.168,12.19,-1.136,-0.1575,-6.765,0,0,0,0,0,0,0,0,0,0,0,0,0,0,0,0,
163,7.487,13.69,-7.398,-3.462,7.452,0.6795,0.6717,17.94,5.944,-12.16,6.517,-10.27,6.653,-1.879,5.004,-3.605,0,0,0,0,0,0,0,0,0,0,0,0,0,0,0,0,
164,4.075,-4.862,-13.2,-1.47,7.542,4.904,1.23,3.801,0.9175,-9.609,8.068,-6.852,6.854,6.527,12.53,1.08,0,0,0,0,0,0,0,0,0,0,0,0,0,0,0,0,
165,2.667,4.122,-8.705,0.4227,8.364,4.282,5.807,-8.229,1.068,0.182,6.98,6.246,10.01,12.86,13.72,1.673,0,0,0,0,0,0,0,0,0,0,0,0,0,0,0,0,
166,4.56,12.85,4.598,-3.757,12.88,1.717,14.58,9.664,7.702,3.485,11.14,7.739,12.84,13.41,11.22,2.974,0,0,0,0,0,0,0,0,0,0,0,0,0,0,0,0,
167,4.462,5.345,6.169,-7.984,13.33,-3.451,18.41,4.791,12.8,-2.149,10.26,2.544,12.8,11.51,11.03,7.823,0,0,0,0,0,0,0,0,0,0,0,0,0,0,0,0,
168,3.068,4.978,3.78,-10.79,12.8,-6.132,16.95,-14.39,10.82,-6.407,12.14,9.281,14.61,12.01,23.35,19.92,0,0,0,0,0,0,0,0,0,0,0,0,0,0,0,0,
169,8.075,14.64,11.19,-11.47,16.63,-0.8035,14.2,2.716,7.819,-4.404,17.59,15.7,16.48,11.47,22.93,18.94,0,0,0,0,0,0,0,0,0,0,0,0,0,0,0,0,
170,6.667,7.06,6.795,-12.69,10.59,-3.558,-1.971,1.319,1.544,-9.673,-4.984,-0.9156,0.8646,-1.915,-10.42,-9.138,0,0,0,0,0,0,0,0,0,0,0,0,0,0,0,0,
171,1.281,-7.296,-0.7201,-9.01,7.461,-2.636,-13.53,-31.48,-3.325,-13.2,-21.6,-7.729,-5.42,-4.27,-17.98,-18.7,0,0,0,0,0,0,0,0,0,0,0,0,0,0,0,0,
172,12.04,1.934,10.3,1.146,21.74,13.52,1.116,-8.098,9.841,2.583,1.966,11.71,16.1,12.58,11.58,2.564,0,0,0,0,0,0,0,0,0,0,0,0,0,0,0,0,
173,16.02,11.62,8.166,-3.228,18.09,4.017,12.05,31.0,20.54,5.93,15.2,9.081,19.8,6.965,18.54,8.618,0,0,0,0,0,0,0,0,0,0,0,0,0,0,0,0,
174,-2.776,-3.599,-10.45,-18.97,-7.331,-26.6,10.35,6.678,5.733,-17.55,12.61,-15.44,5.219,-14.08,13.42,0.6071,0,0,0,0,0,0,0,0,0,0,0,0,0,0,0,0,
175,-13.2,-18.34,-9.859,-21.37,-17.19,-28.24,14.42,-15.14,-12.1,-30.14,17.01,-24.07,1.316,-19.66,11.56,-3.729,0,0,0,0,0,0,0,0,0,0,0,0,0,0,0,0,
176,-6.673,-11.4,-0.2502,-15.14,-10.18,-12.46,14.18,-6.944,-15.17,-25.25,7.963,-14.11,-2.58,-16.42,-2.065,-6.417,0,0,0,0,0,0,0,0,0,0,0,0,0,0,0,0,
177,3.419,5.565,3.662,-7.887,4.262,-3.166,11.32,-17.9,-6.123,-16.63,3.015,9.505,2.115,-1.474,1.68,4.701,0,0,0,0,0,0,0,0,0,0,0,0,0,0,0,0,
178,14.54,14.7,12.2,2.411,19.21,5.625,15.35,-18.46,7.722,-1.495,12.53,22.27,14.92,12.07,14.92,14.15,0,0,0,0,0,0,0,0,0,0,0,0,0,0,0,0,
179,17.11,14.32,18.24,3.463,18.02,3.41,13.73,13.22,11.94,5.493,8.777,11.05,13.7,3.707,8.787,6.118,0,0,0,0,0,0,0,0,0,0,0,0,0,0,0,0,
180,9.92,11.59,13.78,-3.673,9.837,-5.528,6.474,27.75,10.28,-1.364,6.224,8.012,13.5,-0.3937,9.743,5.469,0,0,0,0,0,0,0,0,0,0,0,0,0,0,0,0,
181,5.487,4.194,4.489,-2.218,7.225,1.507,-0.7278,11.44,9.861,-1.577,7.715,11.53,14.0,4.36,13.81,7.547,0,0,0,0,0,0,0,0,0,0,0,0,0,0,0,0,
182,5.55,-0.6705,-1.883,5.107,3.95,11.6,-6.953,0.4942,1.718,2.335,0.23,8.377,5.834,0.1799,13.35,4.478,0,0,0,0,0,0,0,0,0,0,0,0,0,0,0,0,
183,8.7,8.065,1.105,6.691,3.701,8.496,-3.814,9.834,-2.756,0.6687,9.398,15.67,12.39,2.222,32.65,14.93,0,0,0,0,0,0,0,0,0,0,0,0,0,0,0,0,
184,10.19,13.15,3.407,0.6231,4.054,3.068,1.552,4.622,4.588,2.444,21.76,21.17,22.36,11.53,37.21,18.95,0,0,0,0,0,0,0,0,0,0,0,0,0,0,0,0,
185,2.526,5.953,-5.233,-6.801,-2.485,0.9142,0.62,-19.36,4.866,7.584,8.916,18.16,15.61,15.43,12.09,8.991,0,0,0,0,0,0,0,0,0,0,0,0,0,0,0,0,
186,-2.926,4.275,-9.767,-5.235,-3.591,1.925,4.932,-2.907,1.718,10.86,0.2746,25.39,12.81,17.85,6.854,12.8,0,0,0,0,0,0,0,0,0,0,0,0,0,0,0,0,
187,3.064,6.71,0.355,-0.0217,1.044,5.405,13.94,31.29,5.837,8.807,5.204,22.19,14.45,13.0,14.04,13.45,0,0,0,0,0,0,0,0,0,0,0,0,0,0,0,0,
188,6.91,2.732,10.41,-5.391,-1.141,3.443,18.01,8.334,4.239,-4.77,10.48,-1.047,10.91,0.6462,13.54,-0.4814,0,0,0,0,0,0,0,0,0,0,0,0,0,0,0,0,
189,7.56,2.573,13.71,-8.246,1.431,1.992,22.81,-16.46,2.709,-13.95,24.51,-5.309,15.23,-1.621,23.76,-0.9065,0,0,0,0,0,0,0,0,0,0,0,0,0,0,0,0,
190,17.89,14.44,22.18,3.435,15.65,7.834,28.47,15.13,14.29,-4.816,27.71,7.872,19.86,3.501,25.79,5.024,0,0,0,0,0,0,0,0,0,0,0,0,0,0,0,0,
191,22.92,23.77,26.39,2.692,16.64,5.195,20.98,26.36,18.61,-1.502,6.428,3.183,7.893,-1.268,9.496,-0.5546,0,0,0,0,0,0,0,0,0,0,0,0,0,0,0,0,
192,6.975,12.91,7.911,-16.59,-4.479,-6.212,1.848,-7.09,1.774,-13.77,-6.314,-6.097,-7.37,-10.65,3.338,-6.623,0,0,0,0,0,0,0,0,0,0,0,0,0,0,0,0,
193,-4.864,-3.638,-10.75,-18.81,-20.53,-10.47,-10.69,-13.26,-15.59,-20.42,-5.983,-5.053,-11.63,-12.86,1.681,-8.845,0,0,0,0,0,0,0,0,0,0,0,0,0,0,0,0,
194,-3.198,-4.322,-13.19,-8.036,-21.66,-14.44,-14.77,-3.736,-17.93,-22.19,-10.96,-8.398,-12.22,-13.33,-5.179,-9.222,0,0,0,0,0,0,0,0,0,0,0,0,0,0,0,0,
195,-15.02,-7.17,-22.12,-15.07,-23.95,-21.76,-18.24,-26.57,-15.62,-26.85,-10.49,4.709,-13.35,-9.995,-3.946,-7.596,0,0,0,0,0,0,0,0,0,0,0,0,0,0,0,0,
196,-28.94,-22.65,-29.96,-23.81,-24.67,-21.21,-14.86,-35.6,-17.22,-23.5,-4.002,31.28,-12.75,-1.775,-0.2428,-7.027,0,0,0,0,0,0,0,0,0,0,0,0,0,0,0,0,
197,-21.06,-30.41,-19.02,-22.46,-20.83,-20.65,-8.835,-7.856,-17.24,-20.67,-6.679,10.98,-15.7,-10.34,-1.004,-6.973,0,0,0,0,0,0,0,0,0,0,0,0,0,0,0,0,
198,-18.56,-33.53,-15.57,-33.84,-28.68,-28.87,-14.13,-8.004,-19.58,-37.19,-13.96,-34.03,-21.45,-30.85,-2.836,-9.067,0,0,0,0,0,0,0,0,0,0,0,0,0,0,0,0,
199,-25.77,-31.26,-19.91,-39.42,-34.95,-31.65,-16.15,-28.36,-27.46,-51.3,-13.7,-31.31,-17.3,-28.96,-1.123,-7.524,0,0,0,0,0,0,0,0,0,0,0,0,0,0,0,0,
200,-10.67,-4.895,-3.756,-12.8,-15.78,-18.96,-0.3658,-6.675,-20.86,-34.41,-0.5322,-0.6506,0.0105,-5.839,14.57,7.332,0,0,0,0,0,0,0,0,0,0,0,0,0,0,0,0,
201,5.317,15.79,12.67,6.092,1.148,-4.73,10.8,21.3,0.6998,-7.661,10.88,9.785,10.58,7.938,23.29,16.18,0,0,0,0,0,0,0,0,0,0,0,0,0,0,0,0,
202,-5.561,1.558,6.809,-6.254,-10.8,-9.525,-1.057,11.81,3.835,-3.697,-6.295,-0.3547,-5.362,-0.5219,-4.411,-0.5969,0,0,0,0,0,0,0,0,0,0,0,0,0,0,0,0,
203,-14.83,-13.84,-0.637,-14.93,-23.91,-24.46,-17.78,-0.533,-14.42,-15.77,-32.27,-11.07,-25.68,-12.51,-28.27,-18.91,0,0,0,0,0,0,0,0,0,0,0,0,0,0,0,0,
204,-5.886,-8.293,4.615,-9.236,-11.86,-13.75,-10.44,0.7486,-18.86,-15.8,-16.45,-0.1569,-10.33,-0.8908,0.2337,-4.307,0,0,0,0,0,0,0,0,0,0,0,0,0,0,0,0,
205,12.37,7.687,21.98,2.609,15.93,23.36,21.89,9.682,6.01,8.672,30.09,25.29,30.34,26.44,45.73,30.99,0,0,0,0,0,0,0,0,0,0,0,0,0,0,0,0,
206,37.33,31.14,44.81,23.67,39.33,43.91,48.29,22.36,37.94,35.3,55.61,35.52,56.44,40.45,60.49,43.1,0,0,0,0,0,0,0,0,0,0,0,0,0,0,0,0,
207,52.94,48.85,55.75,35.19,48.25,39.53,56.68,20.5,54.16,41.17,61.5,32.91,65.74,43.67,62.8,35.65,0,0,0,0,0,0,0,0,0,0,0,0,0,0,0,0,
208,48.5,50.87,53.19,28.95,48.48,40.76,62.16,24.32,61.43,42.62,67.25,31.67,70.28,48.05,66.72,38.41,0,0,0,0,0,0,0,0,0,0,0,0,0,0,0,0,
209,32.76,45.15,37.63,22.29,37.49,38.85,48.34,40.64,58.79,42.54,44.6,18.74,49.0,34.22,40.5,25.95,0,0,0,0,0,0,0,0,0,0,0,0,0,0,0,0,
210,7.178,22.1,1.484,8.353,5.113,12.52,1.511,16.91,23.23,16.81,-7.853,-3.493,-0.4606,0.907,-5.207,-9.434,0,0,0,0,0,0,0,0,0,0,0,0,0,0,0,0,
211,-14.23,-10.43,-24.22,-9.784,-23.66,-7.24,-29.7,-18.52,-22.46,-13.04,-33.52,-7.117,-27.25,-13.61,-20.08,-19.21,0,0,0,0,0,0,0,0,0,0,0,0,0,0,0,0,
212,-13.4,-11.65,-11.51,-6.509,-21.09,-0.2184,-18.7,-1.359,-30.73,-15.58,-20.02,-1.348,-13.58,-5.891,-8.963,-6.152,0,0,0,0,0,0,0,0,0,0,0,0,0,0,0,0,
213,-7.157,5.7,5.02,3.039,-6.684,7.298,-4.406,20.71,-12.42,-9.269,-4.092,-5.538,2.27,-2.233,-0.671,-2.418,0,0,0,0,0,0,0,0,0,0,0,0,0,0,0,0,
214,-8.734,0.7899,-0.331,-2.83,-3.401,6.402,-4.363,11.8,1.224,-8.042,1.341,-2.895,5.052,-0.987,3.513,-1.033,0,0,0,0,0,0,0,0,0,0,0,0,0,0,0,0,
215,-11.43,-7.008,-9.355,-8.747,-11.14,1.622,-4.469,4.566,4.55,-7.087,0.9796,3.656,2.697,-0.6975,2.986,0.8784,0,0,0,0,0,0,0,0,0,0,0,0,0,0,0,0,
216,-19.16,-0.8525,-11.75,-7.015,-25.47,-12.19,-4.929,-3.437,-5.58,-11.13,-0.6936,1.926,-3.69,-3.492,1.244,1.097,0,0,0,0,0,0,0,0,0,0,0,0,0,0,0,0,
217,-23.18,-2.0,-6.942,-0.4446,-32.34,-19.99,-7.849,-6.757,-21.14,-14.35,-4.088,6.556,-10.47,-0.947,0.0055,0.6574,0,0,0,0,0,0,0,0,0,0,0,0,0,0,0,0,
218,-7.976,0.4041,3.17,12.97,-24.95,-9.933,-10.4,12.21,-26.88,-9.779,-15.75,8.094,-20.07,-6.286,-13.14,-12.49,0,0,0,0,0,0,0,0,0,0,0,0,0,0,0,0,
219,3.199,13.66,3.92,19.89,-20.25,-1.917,-17.44,20.72,-28.68,-10.69,-30.33,-7.599,-33.07,-24.09,-32.86,-32.16,0,0,0,0,0,0,0,0,0,0,0,0,0,0,0,0,
220,-9.922,7.28,-8.353,13.08,-24.49,-4.476,-32.65,8.942,-33.09,-20.89,-40.54,-19.97,-36.54,-29.83,-37.95,-38.65,0,0,0,0,0,0,0,0,0,0,0,0,0,0,0,0,
221,-19.96,-5.075,-17.84,9.872,-25.08,-5.071,-43.72,-0.0016,-30.32,-22.15,-39.37,-13.36,-25.0,-18.78,-18.94,-26.36,0,0,0,0,0,0,0,0,0,0,0,0,0,0,0,0,
222,-12.58,5.604,-17.33,13.48,-23.27,-7.564,-37.62,-9.734,-20.26,-12.66,-21.7,1.821,-9.896,-6.147,2.824,-7.441,0,0,0,0,0,0,0,0,0,0,0,0,0,0,0,0,
223,-11.11,7.652,-13.79,9.984,-26.66,-15.53,-27.02,-11.81,-18.25,-13.12,-14.11,1.228,-8.188,-2.932,-5.066,-5.717,0,0,0,0,0,0,0,0,0,0,0,0,0,0,0,0,
224,-12.6,-7.223,-7.907,5.987,-22.4,-8.194,-22.42,2.161,-21.69,-17.1,-25.84,-8.29,-12.75,-5.217,-19.35,-11.88,0,0,0,0,0,0,0,0,0,0,0,0,0,0,0,0,
225,-1.299,-2.286,0.8382,10.62,-6.023,12.83,-12.24,7.994,-11.67,-4.833,-19.09,0.5657,-3.658,-1.521,-4.83,-3.351,0,0,0,0,0,0,0,0,0,0,0,0,0,0,0,0,
226,1.161,3.636,0.062,8.085,-2.606,13.95,-3.899,2.859,1.457,2.953,1.113,2.63,2.76,-3.581,5.717,-1.574,0,0,0,0,0,0,0,0,0,0,0,0,0,0,0,0,
227,-12.81,-15.85,-11.39,-6.271,-18.09,-8.889,-12.57,-9.39,-5.629,-12.04,-5.163,-19.14,-10.03,-20.17,-9.792,-14.51,0,0,0,0,0,0,0,0,0,0,0,0,0,0,0,0,
228,-21.22,-28.03,-17.45,-16.29,-30.36,-31.55,-22.26,-35.34,-20.97,-30.59,-21.79,-25.13,-19.3,-30.02,-18.4,-15.4,0,0,0,0,0,0,0,0,0,0,0,0,0,0,0,0,
229,-26.53,-26.58,-15.93,-21.41,-35.83,-42.16,-20.68,-40.26,-24.83,-40.48,-18.78,-10.25,-14.35,-23.84,-10.56,-7.259,0,0,0,0,0,0,0,0,0,0,0,0,0,0,0,0,
230,-34.07,-32.18,-14.99,-25.34,-42.28,-42.87,-20.09,-11.26,-24.5,-41.72,-13.81,-3.061,-12.14,-16.45,-6.171,-4.949,0,0,0,0,0,0,0,0,0,0,0,0,0,0,0,0,
231,-33.52,-29.38,-15.93,-20.29,-46.16,-43.21,-25.1,4.997,-30.32,-34.95,-23.88,-2.037,-20.36,-15.84,-12.0,-3.548,0,0,0,0,0,0,0,0,0,0,0,0,0,0,0,0,
232,-28.79,-21.93,-17.82,-11.97,-44.28,-40.3,-29.86,2.501,-35.39,-28.88,-35.21,1.451,-29.46,-15.69,-22.79,-5.719,0,0,0,0,0,0,0,0,0,0,0,0,0,0,0,0,
233,-24.54,-29.86,-18.46,-13.52,-38.27,-26.75,-35.84,-9.077,-32.04,-27.11,-38.23,-5.668,-31.05,-17.11,-27.61,-17.25,0,0,0,0,0,0,0,0,0,0,0,0,0,0,0,0,
234,-18.62,-28.82,-16.71,-20.14,-32.17,-20.19,-41.44,-42.05,-25.9,-27.47,-31.96,-18.92,-24.18,-21.34,-14.89,-19.28,0,0,0,0,0,0,0,0,0,0,0,0,0,0,0,0,
235,-16.35,-14.64,-15.3,-21.77,-29.9,-24.63,-36.82,-49.58,-20.0,-25.3,-14.51,-5.886,-6.913,-10.58,6.36,-1.414,0,0,0,0,0,0,0,0,0,0,0,0,0,0,0,0,
236,-20.11,-19.25,-17.28,-19.42,-31.44,-22.89,-28.25,-10.42,-13.27,-18.34,-4.044,10.81,7.34,3.42,7.493,4.01,0,0,0,0,0,0,0,0,0,0,0,0,0,0,0,0,
237,-22.05,-24.69,-19.23,-14.16,-29.89,-19.6,-25.55,4.054,-11.77,-16.48,-10.25,-6.712,5.708,-4.448,-5.653,-9.39,0,0,0,0,0,0,0,0,0,0,0,0,0,0,0,0,
238,-11.9,-3.016,-12.55,-5.421,-17.33,-18.04,-15.36,-9.888,-7.841,-15.38,-2.103,-14.64,11.48,-5.901,4.34,-3.562,0,0,0,0,0,0,0,0,0,0,0,0,0,0,0,0,
239,1.331,13.89,-5.646,-3.227,-7.277,-16.12,-0.0969,-1.364,6.145,-7.642,20.52,-2.161,24.64,4.587,19.46,8.047,0,0,0,0,0,0,0,0,0,0,0,0,0,0,0,0,
240,-1.191,2.094,-10.84,-10.98,-14.44,-19.24,-1.015,4.903,9.413,-11.33,12.07,-10.76,12.36,-4.812,-0.8306,-6.554,0,0,0,0,0,0,0,0,0,0,0,0,0,0,0,0,
241,-8.431,-14.51,-13.31,-14.41,-19.73,-13.72,-4.768,-12.64,-2.132,-21.15,-13.66,-16.09,-6.941,-14.13,-21.99,-18.13,0,0,0,0,0,0,0,0,0,0,0,0,0,0,0,0,
242,-6.061,-14.62,-4.541,-10.21,-9.822,-2.522,6.545,-23.13,-4.29,-16.07,-4.423,-6.652,-2.622,-8.182,-9.302,-11.18,0,0,0,0,0,0,0,0,0,0,0,0,0,0,0,0,
243,-2.477,2.357,1.453,-6.696,0.6933,-6.526,13.91,-19.27,3.584,-11.21,13.32,-10.0,4.337,-8.344,-2.869,-10.75,0,0,0,0,0,0,0,0,0,0,0,0,0,0,0,0,
244,2.401,16.81,1.587,-3.051,4.425,-4.809,5.138,-19.6,5.675,-10.61,-2.485,-10.75,0.0903,-7.614,-14.1,-12.4,0,0,0,0,0,0,0,0,0,0,0,0,0,0,0,0,
245,6.408,8.882,-1.295,0.3002,1.968,7.844,-5.484,-22.44,2.681,0.3838,-11.65,-0.6739,2.46,1.859,-2.458,-2.285,0,0,0,0,0,0,0,0,0,0,0,0,0,0,0,0,
246,-1.293,-2.1,-7.125,-2.191,-6.303,-2.904,-12.04,-13.06,0.3098,3.532,0.7644,2.349,8.514,4.059,10.96,0.7638,0,0,0,0,0,0,0,0,0,0,0,0,0,0,0,0,
247,-10.89,-4.26,-9.106,-8.216,-12.54,-20.65,-18.36,-6.831,-4.177,-10.29,-12.22,-7.025,-0.3469,-4.702,-9.717,-10.43,0,0,0,0,0,0,0,0,0,0,0,0,0,0,0,0,
248,-9.222,-14.97,-1.678,-8.916,-7.96,-12.84,-13.76,-13.67,-7.022,-15.2,-28.39,-15.66,-7.962,-8.769,-19.35,-9.367,0,0,0,0,0,0,0,0,0,0,0,0,0,0,0,0,
249,0.4297,-14.93,12.24,-3.779,4.114,-3.24,4.35,-2.955,1.004,-7.202,-9.217,-4.496,1.819,-1.941,-0.9731,2.345,0,0,0,0,0,0,0,0,0,0,0,0,0,0,0,0,
250,7.989,4.599,19.6,-3.37,7.341,-7.971,13.94,7.563,7.967,-3.923,5.14,7.013,6.8,-0.3264,2.429,0.2547,0,0,0,0,0,0,0,0,0,0,0,0,0,0,0,0,
251,5.814,4.932,13.9,-7.852,0.1608,-6.802,14.04,-14.78,4.217,-3.819,5.998,3.988,8.172,-0.7548,4.27,1.697,0,0,0,0,0,0,0,0,0,0,0,0,0,0,0,0,
252,0.8629,-5.77,8.751,-8.626,-2.132,0.5328,19.76,-20.24,6.368,0.2532,17.82,9.661,18.19,9.039,17.42,13.17,0,0,0,0,0,0,0,0,0,0,0,0,0,0,0,0,
253,0.704,-2.991,9.263,-7.295,-2.753,0.0535,19.34,1.11,11.56,2.441,15.39,13.14,13.93,9.945,9.0,6.425,0,0,0,0,0,0,0,0,0,0,0,0,0,0,0,0,
254,-1.294,-5.963,5.441,-4.398,-7.421,-3.555,7.767,-0.1687,4.959,1.947,0.7761,2.652,2.533,2.526,-0.8229,-2.822,0,0,0,0,0,0,0,0,0,0,0,0,0,0,0,0,
255,-4.107,-9.764,-0.6902,-0.4764,-5.817,-1.829,0.8212,-6.263,1.125,5.016,3.658,-1.038,5.859,3.493,8.234,1.833,0,0,0,0,0,0,0,0,0,0,0,0,0,0,0,0,
256,0.0721,-2.625,1.262,-2.316,1.657,3.001,0.5219,-5.866,6.255,7.506,6.706,-1.345,5.764,0.0129,4.097,-3.995,0,0,0,0,0,0,0,0,0,0,0,0,0,0,0,0,
257,5.384,0.4827,9.726,-4.192,6.796,2.117,1.462,-15.17,7.593,3.73,-1.063,-2.432,1.265,-5.408,-5.651,-10.54,0,0,0,0,0,0,0,0,0,0,0,0,0,0,0,0,
258,3.365,3.145,8.392,-2.056,4.419,-6.446,-5.279,-1.202,4.766,-0.6804,-11.18,3.675,-0.4514,-1.341,-5.327,-2.577,0,0,0,0,0,0,0,0,0,0,0,0,0,0,0,0,
259,-6.464,-0.8178,-9.518,-4.445,-9.031,-10.58,-24.69,21.24,-2.961,-0.8843,-29.01,10.07,-13.23,-1.025,-13.97,-3.716,0,0,0,0,0,0,0,0,0,0,0,0,0,0,0,0,
260,-20.25,-19.13,-25.06,-6.479,-21.26,-9.653,-35.24,7.511,-13.59,-0.1964,-37.5,7.783,-21.48,-4.556,-16.35,-13.39,0,0,0,0,0,0,0,0,0,0,0,0,0,0,0,0,
261,-24.17,-19.92,-22.39,-2.938,-17.31,-11.91,-23.7,-4.459,-11.99,-0.8301,-21.06,-4.203,-8.571,-2.071,-1.536,-12.09,0,0,0,0,0,0,0,0,0,0,0,0,0,0,0,0,
262,-10.87,-6.02,-8.793,-2.158,-5.704,-9.047,-8.36,-5.441,1.528,1.764,-5.606,-5.694,4.359,3.534,0.9517,-4.491,0,0,0,0,0,0,0,0,0,0,0,0,0,0,0,0,
263,-1.977,-8.993,0.4629,-1.975,-3.315,-5.304,-0.3646,-28.56,10.55,9.577,-1.723,10.68,7.682,8.154,-1.47,2.799,0,0,0,0,0,0,0,0,0,0,0,0,0,0,0,0,
264,-7.553,-12.79,0.3619,1.295,-6.969,-10.46,4.866,-29.77,10.53,12.87,6.785,12.42,11.79,7.286,9.142,5.97,0,0,0,0,0,0,0,0,0,0,0,0,0,0,0,0,
265,-3.927,-4.649,1.25,0.8259,-1.956,-3.12,6.95,6.529,9.828,6.072,11.31,-4.083,14.64,0.7174,7.561,-1.972,0,0,0,0,0,0,0,0,0,0,0,0,0,0,0,0,
266,8.747,2.958,5.34,0.377,6.245,13.42,3.073,12.3,12.74,-0.1359,1.286,-12.38,10.04,-3.705,-6.947,-12.09,0,0,0,0,0,0,0,0,0,0,0,0,0,0,0,0,
267,9.066,13.36,1.805,6.608,4.601,8.135,-2.978,-9.81,12.88,1.565,-8.054,-7.476,4.368,-0.102,-8.253,-11.18,0,0,0,0,0,0,0,0,0,0,0,0,0,0,0,0,
268,5.33,20.63,-2.835,10.17,1.967,-2.528,-4.617,-5.933,7.528,7.331,-9.852,3.105,4.513,6.478,-2.436,-5.348,0,0,0,0,0,0,0,0,0,0,0,0,0,0,0,0,
269,5.688,11.64,-0.0363,3.139,4.411,-0.9328,-2.452,1.84,6.792,11.7,-5.088,3.225,8.525,3.858,3.371,-5.108,0,0,0,0,0,0,0,0,0,0,0,0,0,0,0,0,
270,-1.467,-6.214,-3.099,-7.826,0.8049,-8.012,-4.481,-16.5,10.82,6.922,3.85,-6.93,10.8,-5.297,10.82,-7.917,0,0,0,0,0,0,0,0,0,0,0,0,0,0,0,0,
271,-10.2,-19.74,-12.85,-12.51,-7.031,-15.21,-11.29,-22.59,5.641,-3.622,1.695,-2.758,7.536,-5.864,10.26,-4.929,0,0,0,0,0,0,0,0,0,0,0,0,0,0,0,0,
272,-6.229,-13.34,-11.36,-7.396,-6.14,-4.8,-12.12,-2.98,-1.532,-3.261,-1.541,9.368,8.536,3.821,12.8,5.201,0,0,0,0,0,0,0,0,0,0,0,0,0,0,0,0,
273,3.137,8.615,-4.811,-0.6455,-2.397,-0.017,-8.863,-0.7859,3.517,3.721,6.948,6.392,14.83,9.048,19.76,8.051,0,0,0,0,0,0,0,0,0,0,0,0,0,0,0,0,
274,5.477,15.43,-9.457,0.7117,-6.613,-8.431,-11.84,-12.85,4.35,0.9418,-0.0126,-0.7017,7.218,2.885,6.745,-0.3429,0,0,0,0,0,0,0,0,0,0,0,0,0,0,0,0,
275,6.298,10.81,-8.937,4.883,-5.454,-8.224,-7.578,-1.462,-2.744,-3.011,-10.62,6.905,0.3569,1.879,-2.958,2.411,0,0,0,0,0,0,0,0,0,0,0,0,0,0,0,0,
276,10.48,13.06,5.994,11.08,6.128,-0.9463,9.069,16.6,4.764,1.677,8.534,18.72,14.03,10.92,14.27,15.78,0,0,0,0,0,0,0,0,0,0,0,0,0,0,0,0,
277,7.427,4.111,8.456,5.444,8.233,3.504,12.98,11.38,17.05,5.874,23.81,18.28,21.76,13.29,24.61,16.77,0,0,0,0,0,0,0,0,0,0,0,0,0,0,0,0,
278,1.934,-10.82,0.1102,-2.091,6.144,10.79,6.614,-5.567,19.08,10.38,20.16,13.54,22.06,15.29,24.25,15.38,0,0,0,0,0,0,0,0,0,0,0,0,0,0,0,0,
279,6.734,-1.466,5.329,2.734,12.61,14.54,7.93,-7.62,23.73,19.82,23.8,10.37,31.08,21.97,29.6,20.17,0,0,0,0,0,0,0,0,0,0,0,0,0,0,0,0,
280,7.61,14.83,9.939,5.64,10.16,5.138,5.129,10.86,23.84,19.2,18.01,2.277,26.74,15.59,19.24,11.37,0,0,0,0,0,0,0,0,0,0,0,0,0,0,0,0,
281,0.4481,11.1,5.745,-0.2917,2.393,-4.774,0.6289,16.14,12.97,4.024,1.664,-3.785,12.0,3.733,-0.13,-3.274,0,0,0,0,0,0,0,0,0,0,0,0,0,0,0,0,
282,-0.109,-2.073,7.927,-4.746,6.017,-7.449,9.149,-2.042,11.61,-5.252,5.22,-3.109,10.17,2.248,-0.1296,-2.9,0,0,0,0,0,0,0,0,0,0,0,0,0,0,0,0,
283,-3.253,-11.19,6.742,-7.797,6.749,-6.782,14.17,-2.781,15.35,-1.432,12.32,-0.1342,10.55,5.726,5.015,1.469,0,0,0,0,0,0,0,0,0,0,0,0,0,0,0,0,
284,-7.795,-7.468,2.668,-6.37,6.335,2.083,7.718,8.66,13.78,7.44,4.998,3.67,8.677,10.95,2.191,0.3508,0,0,0,0,0,0,0,0,0,0,0,0,0,0,0,0,
285,3.246,6.247,10.14,2.448,15.66,10.09,4.161,5.548,18.21,17.23,0.0236,1.165,8.801,11.04,0.704,-1.139,0,0,0,0,0,0,0,0,0,0,0,0,0,0,0,0,
286,7.736,0.483,9.614,2.646,13.12,2.879,1.495,9.349,17.61,15.29,-0.6265,-4.539,4.302,2.202,-0.0663,-3.816,0,0,0,0,0,0,0,0,0,0,0,0,0,0,0,0,
287,-5.333,-22.04,-0.4103,-5.158,1.573,-1.245,-1.373,14.53,7.277,4.45,4.716,1.741,7.867,2.296,7.71,1.803,0,0,0,0,0,0,0,0,0,0,0,0,0,0,0,0,
288,-4.816,-14.68,5.076,-1.191,6.081,4.636,4.855,4.471,13.21,10.23,23.72,16.64,24.52,15.25,27.19,21.78,0,0,0,0,0,0,0,0,0,0,0,0,0,0,0,0,
289,4.41,18.8,9.631,7.176,10.24,-1.229,8.688,5.007,22.36,18.62,26.69,21.29,22.52,16.77,24.3,27.98,0,0,0,0,0,0,0,0,0,0,0,0,0,0,0,0,
290,0.8581,28.63,1.137,7.248,3.013,-6.686,-0.393,14.1,9.087,6.061,-2.496,10.18,-2.394,0.0407,-3.148,10.16,0,0,0,0,0,0,0,0,0,0,0,0,0,0,0,0,
291,1.054,14.95,1.461,8.774,4.532,3.605,-6.439,13.1,0.5296,-1.195,-17.98,4.225,-10.3,-7.461,-6.262,4.311,0,0,0,0,0,0,0,0,0,0,0,0,0,0,0,0,
292,5.947,11.38,3.0,9.729,6.728,3.759,-4.551,13.07,8.893,6.532,-5.22,13.92,1.789,4.823,9.859,16.44,0,0,0,0,0,0,0,0,0,0,0,0,0,0,0,0,
293,0.0753,12.85,-3.121,2.644,-3.062,-6.351,-5.125,18.7,8.081,6.466,-5.782,16.67,1.631,9.315,2.031,11.63,0,0,0,0,0,0,0,0,0,0,0,0,0,0,0,0,
294,-2.607,-1.238,2.842,0.3955,-5.357,-2.556,-4.755,24.13,1.544,1.926,-18.13,9.963,-7.02,-1.182,-13.1,-4.17,0,0,0,0,0,0,0,0,0,0,0,0,0,0,0,0,
295,4.434,-9.578,11.77,8.69,2.759,5.106,-4.912,22.16,2.155,2.47,-15.96,12.93,-8.002,-2.169,-7.895,0.9843,0,0,0,0,0,0,0,0,0,0,0,0,0,0,0,0,
296,6.538,14.01,4.456,16.6,3.933,5.069,-13.49,13.08,0.2478,5.429,-13.61,11.26,-10.34,1.248,-3.556,6.475,0,0,0,0,0,0,0,0,0,0,0,0,0,0,0,0,
297,2.042,33.9,-5.106,16.6,-0.1722,0.3206,-19.18,8.515,-4.219,4.386,-18.83,-8.21,-17.2,-12.64,-13.61,-12.87,0,0,0,0,0,0,0,0,0,0,0,0,0,0,0,0,
298,-0.3378,16.9,-4.043,8.876,0.7085,-6.277,-10.81,1.416,-2.287,-6.78,-13.46,-16.35,-15.66,-21.61,-16.28,-18.59,0,0,0,0,0,0,0,0,0,0,0,0,0,0,0,0,
299,2.903,-1.577,1.427,-0.1639,3.158,-2.211,3.208,-8.348,5.31,-10.41,0.6163,-3.434,-1.541,-4.241,-3.027,4.185,0,0,0,0,0,0,0,0,0,0,0,0,0,0,0,0,
300,1.537,-2.031,-1.902,-6.342,-5.334,3.571,7.961,-0.2315,7.789,0.6561,6.613,1.125,8.003,7.756,5.774,11.86,0,0,0,0,0,0,0,0,0,0,0,0,0,0,0,0,
301,-5.974,0.8038,-9.73,-4.809,-12.86,-2.592,5.829,21.71,1.05,3.476,7.748,1.673,6.283,4.453,5.948,7.332,0,0,0,0,0,0,0,0,0,0,0,0,0,0,0,0,
302,4.298,19.76,3.9,10.56,7.845,5.801,16.03,37.4,6.22,5.643,15.62,16.87,12.32,13.1,10.51,15.32,0,0,0,0,0,0,0,0,0,0,0,0,0,0,0,0,
303,25.98,43.17,25.54,24.54,33.25,28.44,28.96,30.47,27.07,22.14,19.49,24.07,20.7,21.15,11.51,14.57,0,0,0,0,0,0,0,0,0,0,0,0,0,0,0,0,
304,25.39,36.45,19.15,23.24,28.32,31.23,19.89,11.59,33.68,32.61,9.303,20.08,16.48,16.1,5.12,7.436,0,0,0,0,0,0,0,0,0,0,0,0,0,0,0,0,
305,12.65,19.09,4.293,17.76,17.36,23.04,7.379,19.0,25.9,29.65,1.553,22.87,17.1,17.12,6.576,15.75,0,0,0,0,0,0,0,0,0,0,0,0,0,0,0,0,
306,9.252,13.95,4.945,9.841,16.94,20.2,12.33,32.86,23.47,25.11,8.297,20.45,25.23,18.71,15.52,24.2,0,0,0,0,0,0,0,0,0,0,0,0,0,0,0,0,
307,6.74,10.81,5.254,1.848,11.38,16.04,20.2,11.5,21.66,24.37,21.85,16.3,27.83,17.48,23.46,25.21,0,0,0,0,0,0,0,0,0,0,0,0,0,0,0,0,
308,6.066,12.35,3.85,9.327,9.791,15.93,22.99,-8.002,18.99,29.77,29.23,18.08,29.82,23.6,28.22,27.35,0,0,0,0,0,0,0,0,0,0,0,0,0,0,0,0,
309,13.89,20.52,8.339,19.89,19.16,22.27,24.0,6.295,22.5,35.33,26.65,14.58,31.09,25.91,28.37,27.93,0,0,0,0,0,0,0,0,0,0,0,0,0,0,0,0,
310,19.69,23.09,13.63,16.7,26.15,27.97,24.58,27.64,30.04,37.64,24.4,17.84,28.4,23.16,23.38,24.6,0,0,0,0,0,0,0,0,0,0,0,0,0,0,0,0,
311,17.93,19.47,18.42,9.862,27.78,26.9,24.16,37.31,36.76,37.2,17.84,18.9,19.74,17.28,8.931,14.31,0,0,0,0,0,0,0,0,0,0,0,0,0,0,0,0,
312,14.03,15.22,14.23,2.693,22.12,13.8,13.12,33.82,32.09,26.52,0.8883,0.8754,5.886,3.474,-2.455,4.992,0,0,0,0,0,0,0,0,0,0,0,0,0,0,0,0,
313,7.897,7.329,-2.317,-2.843,10.08,3.816,-3.153,25.34,15.7,14.45,0.5975,-1.329,6.258,1.904,9.085,9.607,0,0,0,0,0,0,0,0,0,0,0,0,0,0,0,0,
314,1.044,0.8243,-9.667,3.933,7.28,10.71,-3.475,16.6,7.62,17.68,17.99,14.44,20.37,16.72,20.38,14.86,0,0,0,0,0,0,0,0,0,0,0,0,0,0,0,0,
315,7.901,14.94,3.65,16.33,21.29,23.54,10.91,3.167,14.66,29.2,18.25,16.12,25.06,25.03,8.736,11.6,0,0,0,0,0,0,0,0,0,0,0,0,0,0,0,0,
316,29.16,38.38,23.18,25.33,39.71,34.26,26.12,7.626,26.97,37.65,10.18,13.43,21.24,23.67,1.131,12.26,0,0,0,0,0,0,0,0,0,0,0,0,0,0,0,0,
317,39.28,39.01,32.43,29.55,44.44,35.15,33.04,36.18,35.98,37.5,13.4,13.1,14.14,16.58,7.7,15.4,0,0,0,0,0,0,0,0,0,0,0,0,0,0,0,0,
318,31.04,31.19,27.86,21.98,33.55,23.56,24.55,47.44,31.86,24.65,7.213,7.968,2.489,5.828,2.953,9.297,0,0,0,0,0,0,0,0,0,0,0,0,0,0,0,0,
319,24.91,35.72,20.95,12.61,24.06,19.38,12.9,35.69,20.39,12.75,-5.654,4.037,-1.53,-0.4324,-7.63,-1.348,0,0,0,0,0,0,0,0,0,0,0,0,0,0,0,0,
320,29.43,35.51,23.77,19.38,25.11,23.81,15.14,27.03,20.58,15.89,1.061,2.903,5.807,-0.1866,-3.289,-3.633,0,0,0,0,0,0,0,0,0,0,0,0,0,0,0,0,
321,33.95,26.92,31.32,26.44,26.2,19.6,18.73,15.46,23.36,21.92,8.817,2.634,8.753,1.492,0.0824,-1.548,0,0,0,0,0,0,0,0,0,0,0,0,0,0,0,0,
322,27.53,16.09,28.85,17.2,17.72,14.63,10.06,1.338,11.96,17.38,-0.2503,-2.172,1.03,-1.569,-6.29,-4.702,0,0,0,0,0,0,0,0,0,0,0,0,0,0,0,0,
323,17.21,7.962,14.01,11.06,7.362,16.96,2.14,4.895,2.711,10.07,1.059,-7.926,-1.56,-4.145,-2.18,-5.129,0,0,0,0,0,0,0,0,0,0,0,0,0,0,0,0,
324,17.8,19.58,1.346,18.24,5.748,17.64,2.576,15.3,6.051,11.35,10.94,-1.252,5.665,2.356,3.45,1.135,0,0,0,0,0,0,0,0,0,0,0,0,0,0,0,0,
325,21.15,30.3,1.314,21.96,9.3,18.01,5.985,16.21,10.51,21.27,5.844,11.61,9.35,12.97,-0.652,11.24,0,0,0,0,0,0,0,0,0,0,0,0,0,0,0,0,
326,16.19,12.22,8.388,16.58,9.895,20.34,14.9,18.37,18.18,30.51,9.658,22.65,13.88,23.46,9.524,27.08,0,0,0,0,0,0,0,0,0,0,0,0,0,0,0,0,
327,10.17,-1.181,13.12,8.712,3.17,14.74,22.42,13.42,22.63,26.77,24.64,23.99,18.08,23.71,21.78,31.03,0,0,0,0,0,0,0,0,0,0,0,0,0,0,0,0,
328,5.505,10.2,11.54,3.06,-6.909,1.437,15.44,-5.093,7.851,9.95,12.5,8.306,5.327,6.836,6.551,14.66,0,0,0,0,0,0,0,0,0,0,0,0,0,0,0,0,
329,2.363,15.39,5.498,4.33,-9.027,-6.783,5.222,1.491,-7.38,-4.275,-5.276,2.41,-7.866,-3.467,-6.731,6.653,0,0,0,0,0,0,0,0,0,0,0,0,0,0,0,0,
330,4.091,9.17,1.601,8.894,-5.484,-5.463,3.092,27.85,-7.164,-5.431,5.162,15.75,-3.084,3.381,3.31,13.53,0,0,0,0,0,0,0,0,0,0,0,0,0,0,0,0,
331,4.671,11.5,3.32,11.7,-3.279,0.8775,3.129,22.16,-4.192,2.873,15.45,19.4,5.333,10.85,9.191,14.41,0,0,0,0,0,0,0,0,0,0,0,0,0,0,0,0,
332,1.633,13.17,3.539,14.33,0.8479,6.789,5.424,1.466,2.083,11.74,9.85,12.35,7.684,14.38,2.842,9.959,0,0,0,0,0,0,0,0,0,0,0,0,0,0,0,0,
333,-0.7034,1.032,-2.953,10.36,1.233,7.963,8.312,-3.086,8.736,13.01,7.447,5.537,4.194,13.47,2.429,9.658,0,0,0,0,0,0,0,0,0,0,0,0,0,0,0,0,
334,-0.881,-3.336,-6.257,0.5594,-1.906,8.129,10.35,-7.021,4.277,9.472,16.93,0.7473,3.638,12.07,15.22,16.05,0,0,0,0,0,0,0,0,0,0,0,0,0,0,0,0,
335,3.511,9.434,0.4925,2.599,5.079,10.48,20.62,0.7339,4.634,11.38,32.48,8.34,14.55,17.08,27.74,25.96,0,0,0,0,0,0,0,0,0,0,0,0,0,0,0,0,
336,9.217,14.51,9.548,11.98,14.78,8.814,29.2,23.22,15.08,14.01,33.7,17.7,19.14,16.79,24.14,27.81,0,0,0,0,0,0,0,0,0,0,0,0,0,0,0,0,
337,11.75,14.66,17.75,10.55,17.8,7.287,24.17,25.44,17.24,9.647,21.0,10.95,13.3,8.942,17.9,21.57,0,0,0,0,0,0,0,0,0,0,0,0,0,0,0,0,
338,14.7,22.54,24.45,6.119,21.13,13.21,21.94,12.85,16.84,8.402,21.41,-0.361,14.91,4.722,19.43,12.96,0,0,0,0,0,0,0,0,0,0,0,0,0,0,0,0,
339,14.84,17.41,22.6,5.681,21.73,16.37,25.15,5.379,20.84,11.56,24.14,-3.432,15.45,2.27,10.45,1.358,0,0,0,0,0,0,0,0,0,0,0,0,0,0,0,0,
340,14.54,6.979,20.95,5.271,23.82,18.13,27.03,3.335,22.17,11.85,19.54,4.424,14.37,8.305,5.367,5.442,0,0,0,0,0,0,0,0,0,0,0,0,0,0,0,0,
341,26.48,16.83,31.63,12.56,36.48,28.34,38.56,13.21,31.01,20.99,31.36,17.15,25.61,24.25,20.78,23.58,0,0,0,0,0,0,0,0,0,0,0,0,0,0,0,0,
342,32.34,24.76,34.8,17.48,37.15,27.24,40.54,16.02,40.07,32.75,28.68,10.96,19.71,20.51,9.601,10.63,0,0,0,0,0,0,0,0,0,0,0,0,0,0,0,0,
343,16.75,21.22,18.15,7.738,19.5,8.579,14.77,5.771,24.61,24.36,-9.795,-5.245,-9.874,2.313,-24.12,-15.77,0,0,0,0,0,0,0,0,0,0,0,0,0,0,0,0,
344,11.42,24.87,7.847,5.658,13.73,1.123,1.706,16.1,7.51,14.9,-16.52,3.443,-11.88,5.551,-12.98,-3.853,0,0,0,0,0,0,0,0,0,0,0,0,0,0,0,0,
345,17.97,18.2,11.55,7.418,14.2,1.577,11.01,24.25,9.444,15.23,7.812,8.152,2.188,5.463,8.954,4.989,0,0,0,0,0,0,0,0,0,0,0,0,0,0,0,0,
346,8.903,-0.0163,12.74,-3.825,3.29,-6.316,8.513,6.243,3.917,1.422,0.8509,-15.46,-8.538,-16.98,-6.122,-13.27,0,0,0,0,0,0,0,0,0,0,0,0,0,0,0,0,
347,6.708,3.663,14.87,0.7869,3.372,-3.576,7.689,7.636,-4.388,-7.515,-3.704,-16.09,-9.639,-15.31,-3.206,-5.14,0,0,0,0,0,0,0,0,0,0,0,0,0,0,0,0,
348,18.5,14.91,17.74,17.74,14.23,8.893,18.65,20.85,3.735,6.869,15.46,4.22,7.353,4.132,15.82,11.76,0,0,0,0,0,0,0,0,0,0,0,0,0,0,0,0,
349,16.71,13.68,16.57,16.65,17.09,12.75,19.42,12.33,8.083,15.06,13.59,1.89,7.67,4.186,4.077,0.5111,0,0,0,0,0,0,0,0,0,0,0,0,0,0,0,0,
350,17.25,16.98,21.2,16.75,22.59,15.23,17.71,12.8,9.062,18.47,4.132,-1.993,4.769,5.741,-6.171,-5.807,0,0,0,0,0,0,0,0,0,0,0,0,0,0,0,0,
351,19.74,10.92,17.45,16.0,18.94,8.947,12.11,17.56,11.95,23.61,-0.4122,-1.661,-2.69,4.651,-6.682,-5.819,0,0,0,0,0,0,0,0,0,0,0,0,0,0,0,0,
352,0.7282,-7.62,-1.396,-1.227,-2.469,-8.066,-3.844,4.393,-4.547,8.491,-13.33,-5.793,-20.22,-8.557,-12.38,-9.72,0,0,0,0,0,0,0,0,0,0,0,0,0,0,0,0,
353,-0.8839,4.847,2.234,1.749,0.7592,-2.733,3.197,6.529,-15.15,-0.3772,-1.268,7.957,-7.062,2.872,5.379,4.61,0,0,0,0,0,0,0,0,0,0,0,0,0,0,0,0,
354,28.2,36.77,28.54,24.59,27.93,18.97,30.35,22.85,7.408,21.87,28.34,21.98,22.15,24.83,29.75,23.15,0,0,0,0,0,0,0,0,0,0,0,0,0,0,0,0,
355,38.94,44.63,41.95,30.5,40.55,29.66,45.12,31.13,29.37,41.04,40.75,29.59,34.21,33.34,40.95,37.97,0,0,0,0,0,0,0,0,0,0,0,0,0,0,0,0,
356,37.23,41.4,48.27,31.48,51.43,43.19,59.21,43.35,43.04,52.71,60.98,49.15,53.14,51.09,62.68,59.27,0,0,0,0,0,0,0,0,0,0,0,0,0,0,0,0,
357,53.38,48.19,61.48,37.84,71.33,61.15,76.44,47.38,64.81,72.12,80.68,48.93,69.51,63.2,69.9,60.42,0,0,0,0,0,0,0,0,0,0,0,0,0,0,0,0,
358,66.73,59.67,68.05,36.6,76.76,62.04,76.59,36.22,73.76,77.6,69.24,32.03,62.25,54.78,50.79,45.54,0,0,0,0,0,0,0,0,0,0,0,0,0,0,0,0,
359,56.85,59.99,54.32,29.6,60.39,45.16,60.27,37.85,59.88,65.45,51.49,32.86,49.38,46.89,40.89,45.29,0,0,0,0,0,0,0,0,0,0,0,0,0,0,0,0,
360,33.12,35.37,25.95,17.08,34.31,21.75,36.58,45.94,38.0,51.1,31.85,32.43,30.66,36.44,28.02,43.15,0,0,0,0,0,0,0,0,0,0,0,0,0,0,0,0,
361,13.23,7.7,8.498,2.873,20.03,10.72,19.26,30.8,19.6,35.21,7.537,24.75,13.4,24.01,8.104,29.33,0,0,0,0,0,0,0,0,0,0,0,0,0,0,0,0,
362,8.059,3.146,10.64,-1.086,24.11,18.04,17.14,4.745,16.6,27.56,8.22,18.57,14.59,18.47,8.45,18.56,0,0,0,0,0,0,0,0,0,0,0,0,0,0,0,0,
363,12.16,10.39,13.77,1.404,23.97,18.13,15.57,6.036,20.29,27.83,15.84,9.582,13.83,9.56,8.956,9.451,0,0,0,0,0,0,0,0,0,0,0,0,0,0,0,0,
364,13.31,13.71,11.36,3.223,14.53,5.398,8.397,17.8,12.41,20.07,6.691,9.613,7.468,3.345,1.676,7.282,0,0,0,0,0,0,0,0,0,0,0,0,0,0,0,0,
365,6.814,5.674,4.992,4.503,9.92,0.7379,5.875,-1.748,5.12,15.7,11.68,10.77,15.56,8.369,13.46,16.59,0,0,0,0,0,0,0,0,0,0,0,0,0,0,0,0,
366,0.9936,-2.867,-0.6121,5.41,9.439,4.57,10.31,-7.59,10.79,23.3,26.03,9.238,25.4,13.53,24.49,19.79,0,0,0,0,0,0,0,0,0,0,0,0,0,0,0,0,
367,5.259,12.18,7.671,6.597,11.76,7.08,17.37,24.07,17.67,26.14,18.29,19.43,19.96,12.64,12.1,10.86,0,0,0,0,0,0,0,0,0,0,0,0,0,0,0,0,
368,11.19,29.71,16.92,5.545,16.22,5.788,20.23,20.07,19.38,23.19,8.759,16.68,10.35,5.85,3.781,5.458,0,0,0,0,0,0,0,0,0,0,0,0,0,0,0,0,
369,9.624,18.89,11.03,1.856,13.29,1.419,15.82,-2.475,17.46,20.83,9.436,0.4659,4.748,-1.562,7.29,10.08,0,0,0,0,0,0,0,0,0,0,0,0,0,0,0,0,
370,7.042,3.826,8.742,0.4752,5.751,0.7698,9.653,13.59,9.113,16.69,-1.686,3.35,-3.918,-4.193,-0.9155,9.877,0,0,0,0,0,0,0,0,0,0,0,0,0,0,0,0,
371,7.058,6.018,13.01,1.324,5.309,3.133,5.646,15.44,-0.9362,14.62,-12.59,6.939,-10.7,-6.185,-11.13,-0.3061,0,0,0,0,0,0,0,0,0,0,0,0,0,0,0,0,
372,6.813,9.001,9.013,2.364,9.879,2.459,6.02,-0.2542,-2.662,15.52,-1.776,1.867,-3.167,-5.175,1.535,1.179,0,0,0,0,0,0,0,0,0,0,0,0,0,0,0,0,
373,7.744,3.978,9.382,3.284,12.04,5.706,10.9,13.12,3.159,20.34,12.88,7.916,10.44,3.215,20.86,13.85,0,0,0,0,0,0,0,0,0,0,0,0,0,0,0,0,
374,10.84,4.608,15.84,2.039,12.16,12.43,11.5,16.13,9.581,29.33,11.2,4.983,15.06,7.203,19.05,9.495,0,0,0,0,0,0,0,0,0,0,0,0,0,0,0,0,
375,16.36,20.76,14.0,2.513,14.89,12.69,6.672,2.606,15.23,28.8,1.77,-8.94,11.19,1.754,8.508,-1.833,0,0,0,0,0,0,0,0,0,0,0,0,0,0,0,0,
376,24.99,32.26,17.59,7.673,22.12,14.23,9.148,8.657,21.37,23.54,1.353,-0.3894,6.266,2.135,8.353,4.068,0,0,0,0,0,0,0,0,0,0,0,0,0,0,0,0,
377,24.93,12.76,24.39,4.495,22.1,17.45,13.25,7.905,20.78,28.34,3.449,11.14,-0.5729,6.043,5.066,7.54,0,0,0,0,0,0,0,0,0,0,0,0,0,0,0,0,
378,6.176,-14.48,9.388,-9.082,5.751,5.949,3.272,-6.062,5.554,25.72,-6.175,-1.392,-10.67,-3.396,-4.631,-2.21,0,0,0,0,0,0,0,0,0,0,0,0,0,0,0,0,
379,-7.747,-7.766,-4.455,-9.811,-3.766,-6.213,-3.385,-7.121,-8.382,12.55,-9.576,-10.73,-9.424,-10.83,-2.232,-3.681,0,0,0,0,0,0,0,0,0,0,0,0,0,0,0,0,
380,3.375,15.59,8.009,2.995,8.83,2.558,8.062,-5.895,-1.045,14.69,5.59,-11.05,5.367,-2.037,5.474,1.923,0,0,0,0,0,0,0,0,0,0,0,0,0,0,0,0,
381,12.77,15.72,15.92,4.52,15.96,10.23,13.44,-10.73,12.32,23.7,13.22,-17.34,9.868,1.97,5.342,2.509,0,0,0,0,0,0,0,0,0,0,0,0,0,0,0,0,
382,2.026,3.682,6.992,-3.219,3.792,-2.565,4.755,-9.78,10.52,17.67,3.137,-13.43,-0.9251,-5.107,2.463,0.16,0,0,0,0,0,0,0,0,0,0,0,0,0,0,0,0,
383,-5.891,-0.8267,5.708,-6.052,-8.513,-15.47,0.0684,1.493,-0.1031,6.179,-7.4,-5.748,-13.43,-11.43,-4.915,-7.018,0,0,0,0,0,0,0,0,0,0,0,0,0,0,0,0,
384,-3.727,-8.803,10.05,-9.842,-13.89,-13.71,-2.175,8.743,-9.675,-0.0727,-11.07,-13.15,-20.88,-16.04,-13.01,-15.1,0,0,0,0,0,0,0,0,0,0,0,0,0,0,0,0,
385,-6.322,-15.76,6.769,-14.15,-16.19,-6.829,-8.642,-2.946,-14.85,-1.307,-11.51,-14.59,-20.17,-16.91,-12.79,-16.87,0,0,0,0,0,0,0,0,0,0,0,0,0,0,0,0,
386,-11.69,-9.861,-0.1525,-11.85,-17.51,-7.358,-16.71,-15.14,-15.61,2.099,-17.55,-7.145,-21.61,-16.34,-15.78,-19.89,0,0,0,0,0,0,0,0,0,0,0,0,0,0,0,0,
387,-17.63,-11.19,-10.97,-15.04,-25.64,-21.96,-27.44,-18.04,-21.61,-2.237,-28.57,-13.46,-30.43,-20.24,-21.71,-24.61,0,0,0,0,0,0,0,0,0,0,0,0,0,0,0,0,
388,-28.36,-25.64,-22.39,-28.64,-37.72,-37.65,-30.47,-27.31,-31.7,-17.71,-21.86,-23.55,-26.44,-20.15,-9.226,-18.61,0,0,0,0,0,0,0,0,0,0,0,0,0,0,0,0,
389,-27.58,-23.21,-16.89,-30.79,-36.0,-30.94,-13.68,-26.04,-28.36,-19.88,5.953,-18.25,-7.277,-9.15,14.42,-2.939,0,0,0,0,0,0,0,0,0,0,0,0,0,0,0,0,
390,-8.937,-5.202,1.591,-17.2,-17.25,-9.792,5.98,-2.916,-11.54,-4.665,20.87,-7.38,3.116,2.696,21.49,5.482,0,0,0,0,0,0,0,0,0,0,0,0,0,0,0,0,
391,0.0028,-3.779,7.336,-12.24,0.5224,0.9758,9.576,9.435,1.635,2.716,12.82,-10.78,0.2557,2.073,12.76,-1.439,0,0,0,0,0,0,0,0,0,0,0,0,0,0,0,0,
392,-6.067,-8.733,1.235,-16.87,5.405,2.047,5.662,-4.692,5.353,1.499,6.78,-22.46,-1.323,-6.265,4.796,-9.962,0,0,0,0,0,0,0,0,0,0,0,0,0,0,0,0,
393,-3.593,2.018,0.9461,-12.81,3.887,1.455,3.354,-25.58,5.755,5.079,5.168,-20.72,1.461,-6.343,1.305,-6.05,0,0,0,0,0,0,0,0,0,0,0,0,0,0,0,0,
394,4.658,4.461,0.8754,-6.491,4.154,0.5492,-0.8289,-25.16,8.761,9.358,0.657,-8.791,3.997,1.248,4.316,2.784,0,0,0,0,0,0,0,0,0,0,0,0,0,0,0,0,
395,5.444,-5.573,-4.519,-7.583,5.333,3.56,-5.507,-6.033,10.59,11.19,-2.138,-6.543,4.473,2.844,3.91,-0.9706,0,0,0,0,0,0,0,0,0,0,0,0,0,0,0,0,
396,4.28,3.126,-2.664,-7.6,5.453,3.647,-5.379,-7.497,3.969,9.532,-9.785,-17.27,-0.4692,-4.809,-8.795,-12.29,0,0,0,0,0,0,0,0,0,0,0,0,0,0,0,0,
397,4.83,15.7,7.889,-6.005,8.197,-2.177,3.654,-26.45,1.593,5.623,-8.863,-22.23,-2.702,-8.705,-4.054,-7.647,0,0,0,0,0,0,0,0,0,0,0,0,0,0,0,0,
398,6.186,6.764,15.32,-8.917,13.95,-0.0855,18.27,-22.66,13.82,8.994,15.59,-14.62,6.742,-3.715,18.2,3.615,0,0,0,0,0,0,0,0,0,0,0,0,0,0,0,0,
399,8.79,-0.7354,17.38,-10.82,15.01,7.094,25.02,-3.948,21.92,13.14,25.61,-14.87,10.41,-4.337,13.14,-1.244,0,0,0,0,0,0,0,0,0,0,0,0,0,0,0,0,
400,10.88,3.881,20.32,-6.319,8.14,5.8,21.35,1.656,18.27,8.08,8.005,-17.03,-1.24,-9.797,-8.305,-8.051,0,0,0,0,0,0,0,0,0,0,0,0,0,0,0,0,
401,9.003,3.568,17.62,-5.631,-7.321,-8.401,8.561,-4.992,7.165,-1.731,-7.931,-8.032,-17.14,-12.44,-17.85,-11.35,0,0,0,0,0,0,0,0,0,0,0,0,0,0,0,0,
402,-4.01,-2.021,-2.966,-17.43,-28.98,-31.04,-17.47,-12.46,-19.74,-17.0,-22.68,-11.99,-31.26,-19.68,-21.53,-16.98,0,0,0,0,0,0,0,0,0,0,0,0,0,0,0,0,
403,-21.02,-10.71,-22.74,-26.15,-36.78,-34.9,-36.32,-12.48,-40.94,-24.24,-29.12,-21.07,-30.04,-20.71,-11.09,-9.842,0,0,0,0,0,0,0,0,0,0,0,0,0,0,0,0,
404,-22.45,-20.17,-18.2,-20.06,-23.65,-14.55,-30.95,-10.22,-29.79,-8.87,-17.34,-16.25,-15.93,-12.62,1.056,-6.49,0,0,0,0,0,0,0,0,0,0,0,0,0,0,0,0,
405,-12.21,-14.22,-6.998,-12.87,-11.99,-8.157,-20.92,-15.9,-12.52,1.915,-12.85,-19.56,-11.99,-12.75,-5.192,-19.04,0,0,0,0,0,0,0,0,0,0,0,0,0,0,0,0,
406,-4.09,-3.479,-3.724,-10.93,-8.381,-14.5,-15.52,-21.72,-7.202,-2.196,-14.72,-21.54,-12.55,-8.73,-6.039,-14.23,0,0,0,0,0,0,0,0,0,0,0,0,0,0,0,0,
407,0.5994,-10.02,1.934,-10.49,-6.671,-9.598,-11.02,-16.59,-3.887,0.2899,-11.22,-10.83,-15.35,-1.963,-5.413,-5.826,0,0,0,0,0,0,0,0,0,0,0,0,0,0,0,0,
408,2.359,-7.106,6.757,-10.99,-7.334,-8.368,-9.671,-6.055,-9.527,-1.336,-11.28,-11.92,-24.54,-9.631,-13.5,-15.17,0,0,0,0,0,0,0,0,0,0,0,0,0,0,0,0,
409,10.52,18.25,12.21,-3.647,3.248,-4.606,1.565,1.587,-12.81,-5.462,-1.873,-13.34,-15.08,-7.602,-4.444,-8.872,0,0,0,0,0,0,0,0,0,0,0,0,0,0,0,0,
410,25.08,24.39,25.54,7.081,21.93,13.87,16.53,6.818,3.27,11.23,7.939,-8.646,-0.5224,0.6776,-1.376,-2.13,0,0,0,0,0,0,0,0,0,0,0,0,0,0,0,0,
411,23.97,10.07,26.08,3.646,20.13,13.22,8.405,0.4195,11.48,17.81,-9.783,-18.21,-13.11,-12.39,-23.29,-23.16,0,0,0,0,0,0,0,0,0,0,0,0,0,0,0,0,
412,12.94,7.143,11.36,-5.29,7.118,-2.193,-5.056,-25.04,2.128,-1.454,-22.16,-22.07,-22.44,-18.16,-23.19,-28.75,0,0,0,0,0,0,0,0,0,0,0,0,0,0,0,0,
413,12.46,6.463,8.088,-6.334,5.436,1.436,-3.712,-39.79,0.0082,-2.617,-8.395,-10.72,-12.79,-4.935,-5.569,-13.63,0,0,0,0,0,0,0,0,0,0,0,0,0,0,0,0,
414,7.947,1.83,7.177,-5.432,-0.0224,1.728,-10.02,-26.82,-2.233,6.6,-6.802,-14.03,-14.18,-6.324,-11.64,-17.79,0,0,0,0,0,0,0,0,0,0,0,0,0,0,0,0,
415,-1.765,6.132,-3.958,-2.016,-7.505,-7.889,-18.65,-14.13,-13.1,-4.436,-13.52,-25.89,-19.19,-13.94,-17.95,-21.9,0,0,0,0,0,0,0,0,0,0,0,0,0,0,0,0,
416,7.441,11.19,-4.395,3.999,4.441,1.202,-6.865,-6.308,-8.794,-7.027,-2.6,-19.44,-10.98,-7.529,-8.966,-10.15,0,0,0,0,0,0,0,0,0,0,0,0,0,0,0,0,
417,14.11,1.645,-4.579,-0.3355,10.49,5.281,-2.36,3.288,0.9639,-0.0695,-2.044,-9.535,-13.27,-9.048,-12.19,-12.47,0,0,0,0,0,0,0,0,0,0,0,0,0,0,0,0,
418,-6.832,-18.5,-21.75,-11.92,-9.773,-13.73,-18.3,-5.205,-13.65,-12.32,-14.79,-10.89,-26.36,-18.49,-12.87,-15.4,0,0,0,0,0,0,0,0,0,0,0,0,0,0,0,0,
419,-20.3,-21.28,-23.33,-14.83,-21.68,-22.17,-17.65,-22.34,-28.03,-18.81,-6.667,-5.389,-21.15,-10.17,4.492,1.769,0,0,0,0,0,0,0,0,0,0,0,0,0,0,0,0,
420,-14.9,-7.183,-7.87,-13.33,-20.59,-21.5,-5.858,-24.54,-21.29,-11.2,-6.997,-0.3828,-16.75,-5.846,-3.599,1.251,0,0,0,0,0,0,0,0,0,0,0,0,0,0,0,0,
421,-21.72,-17.7,-9.612,-14.29,-31.21,-30.39,-12.76,-17.85,-23.9,-20.32,-32.5,-7.108,-29.14,-17.93,-26.81,-14.22,0,0,0,0,0,0,0,0,0,0,0,0,0,0,0,0,
422,-23.83,-32.81,-11.25,-7.445,-29.51,-28.89,-14.22,-4.185,-29.89,-27.34,-21.75,-3.678,-17.43,-9.112,-5.865,-3.694,0,0,0,0,0,0,0,0,0,0,0,0,0,0,0,0,
423,-7.396,-13.97,-3.603,-1.354,-11.24,-17.58,-5.216,0.617,-11.79,-12.0,7.635,-6.865,2.535,1.574,11.35,-3.785,0,0,0,0,0,0,0,0,0,0,0,0,0,0,0,0,
424,-13.05,-8.866,-18.01,-13.99,-20.87,-21.24,-21.65,-27.21,-7.458,-9.658,-17.69,-27.89,-20.22,-19.8,-26.84,-36.65,0,0,0,0,0,0,0,0,0,0,0,0,0,0,0,0,
425,-29.6,-25.79,-33.62,-20.37,-38.11,-27.32,-37.45,-42.29,-31.01,-23.09,-41.43,-17.12,-35.29,-22.54,-36.5,-35.04,0,0,0,0,0,0,0,0,0,0,0,0,0,0,0,0,
426,-11.12,-6.017,-16.86,0.8981,-16.45,-14.24,-13.54,-6.499,-23.79,-11.91,-4.543,9.957,-2.924,6.209,7.143,0.9154,0,0,0,0,0,0,0,0,0,0,0,0,0,0,0,0,
427,10.24,20.38,1.348,15.82,7.851,1.863,8.053,16.39,9.112,11.28,14.28,-1.869,12.51,7.722,9.367,0.4163,0,0,0,0,0,0,0,0,0,0,0,0,0,0,0,0,
428,3.341,9.372,0.0494,9.308,5.332,5.089,-1.253,-4.103,11.11,9.585,-11.63,-16.96,-3.254,-7.442,-19.75,-18.57,0,0,0,0,0,0,0,0,0,0,0,0,0,0,0,0,
429,6.861,8.216,-0.7051,11.32,11.82,10.58,-5.106,-6.839,4.497,5.431,-11.35,-0.451,1.786,4.177,-7.302,-7.879,0,0,0,0,0,0,0,0,0,0,0,0,0,0,0,0,
430,23.05,24.6,-2.765,18.65,24.21,20.05,0.7512,4.618,18.84,18.41,6.224,10.21,17.2,19.92,12.32,5.894,0,0,0,0,0,0,0,0,0,0,0,0,0,0,0,0,
431,15.08,12.22,-16.22,9.484,11.9,16.69,-8.331,-15.34,20.09,20.28,-1.64,4.522,12.24,17.37,4.459,5.317,0,0,0,0,0,0,0,0,0,0,0,0,0,0,0,0,
432,-1.268,-6.79,-25.59,0.8496,-1.026,10.45,-18.3,-26.93,7.332,14.38,-10.38,11.59,4.84,17.68,1.909,10.78,0,0,0,0,0,0,0,0,0,0,0,0,0,0,0,0,
433,-1.697,2.381,-21.15,5.7,3.219,10.2,-13.45,-4.858,7.407,20.78,-5.5,21.12,6.565,23.48,10.59,16.76,0,0,0,0,0,0,0,0,0,0,0,0,0,0,0,0,
434,2.874,12.63,-8.82,11.4,4.337,5.304,-5.502,6.863,7.979,20.56,1.204,14.64,7.258,20.39,17.67,17.49,0,0,0,0,0,0,0,0,0,0,0,0,0,0,0,0,
435,7.139,7.042,2.296,12.89,1.24,0.3891,-6.126,1.341,2.305,9.852,2.743,10.87,2.44,13.67,13.16,14.84,0,0,0,0,0,0,0,0,0,0,0,0,0,0,0,0,
436,2.039,-3.707,-2.594,4.913,-7.112,-6.089,-19.22,-4.327,-5.861,0.9943,-13.8,4.078,-12.25,2.447,-9.216,-1.423,0,0,0,0,0,0,0,0,0,0,0,0,0,0,0,0,
437,-19.77,-23.31,-20.05,-10.38,-28.85,-20.52,-32.11,-8.123,-22.6,-12.88,-27.96,-11.92,-24.49,-10.36,-15.23,-10.98,0,0,0,0,0,0,0,0,0,0,0,0,0,0,0,0,
438,-33.35,-41.41,-29.72,-13.8,-43.5,-25.71,-31.02,-6.728,-31.86,-21.84,-16.84,-2.573,-18.63,-4.465,1.161,-0.1073,0,0,0,0,0,0,0,0,0,0,0,0,0,0,0,0,
439,-25.56,-29.49,-29.66,-4.187,-37.61,-19.29,-25.81,-13.45,-24.53,-11.44,-9.675,16.01,-10.71,10.51,-3.111,2.057,0,0,0,0,0,0,0,0,0,0,0,0,0,0,0,0,
440,-8.696,4.277,-20.14,8.81,-20.72,-8.695,-17.79,-16.45,-13.59,7.929,-11.96,13.21,-6.104,16.86,-15.4,-1.386,0,0,0,0,0,0,0,0,0,0,0,0,0,0,0,0,
441,7.149,18.46,-2.95,17.82,-2.738,8.447,-3.751,9.925,2.031,21.6,-2.471,11.2,4.129,17.2,-8.421,2.312,0,0,0,0,0,0,0,0,0,0,0,0,0,0,0,0,
442,10.51,5.116,1.547,10.74,2.597,12.86,-1.307,25.66,13.42,17.73,5.122,7.246,6.728,9.315,-1.7,-3.033,0,0,0,0,0,0,0,0,0,0,0,0,0,0,0,0,
443,8.611,-1.38,-2.695,1.62,-1.161,1.514,-8.162,16.52,9.109,8.07,3.498,3.246,4.064,7.73,-0.3957,-4.923,0,0,0,0,0,0,0,0,0,0,0,0,0,0,0,0,
444,13.04,5.046,1.325,6.85,0.4992,2.316,-7.862,24.1,6.777,15.81,1.864,15.59,7.398,18.8,-0.6715,3.135,0,0,0,0,0,0,0,0,0,0,0,0,0,0,0,0,
445,10.15,5.163,0.7568,9.497,1.909,12.37,-6.478,24.32,11.15,25.59,2.135,15.01,7.865,18.8,-2.57,3.884,0,0,0,0,0,0,0,0,0,0,0,0,0,0,0,0,
446,7.312,10.27,-6.063,7.963,3.796,16.46,-5.742,-1.617,12.89,25.01,7.213,11.42,9.148,18.39,3.231,9.639,0,0,0,0,0,0,0,0,0,0,0,0,0,0,0,0,
447,16.34,18.81,-6.481,10.69,10.93,17.99,-1.847,-1.895,17.35,29.62,7.534,26.46,11.34,25.92,4.117,16.01,0,0,0,0,0,0,0,0,0,0,0,0,0,0,0,0,
448,15.82,11.0,-8.875,8.587,12.78,18.62,-3.019,19.06,20.74,30.07,0.6441,19.68,4.892,16.55,-4.254,4.107,0,0,0,0,0,0,0,0,0,0,0,0,0,0,0,0,
449,10.82,11.05,-16.55,7.292,11.17,19.57,-10.68,16.29,15.7,17.48,-1.391,-1.229,0.0175,2.696,-5.869,-6.093,0,0,0,0,0,0,0,0,0,0,0,0,0,0,0,0,
450,18.09,24.53,-19.49,7.841,10.62,17.1,-15.95,4.929,8.739,10.92,-4.068,-0.7843,-1.002,1.355,-6.345,-4.98,0,0,0,0,0,0,0,0,0,0,0,0,0,0,0,0,
451,19.29,14.03,-11.85,-1.235,7.047,10.18,-8.982,6.638,4.793,11.12,-2.395,8.025,0.2449,2.847,-0.654,2.386,0,0,0,0,0,0,0,0,0,0,0,0,0,0,0,0,
452,14.04,-2.111,5.671,-7.496,8.965,11.02,7.999,4.224,6.693,8.982,13.82,21.83,10.0,9.373,15.2,16.4,0,0,0,0,0,0,0,0,0,0,0,0,0,0,0,0,
453,16.46,7.857,19.16,-6.293,15.65,10.31,16.52,-14.09,12.49,8.232,19.88,26.86,11.87,9.681,8.525,11.66,0,0,0,0,0,0,0,0,0,0,0,0,0,0,0,0,
454,14.18,10.16,20.01,-10.21,11.69,-5.18,11.71,-31.03,10.85,1.603,4.215,1.181,-2.287,-6.736,-16.32,-10.83,0,0,0,0,0,0,0,0,0,0,0,0,0,0,0,0,
455,7.298,-5.609,19.05,-10.4,2.689,-13.3,6.892,-22.18,0.0499,-12.32,-6.926,-15.51,-11.23,-13.09,-16.61,-7.012,0,0,0,0,0,0,0,0,0,0,0,0,0,0,0,0,
456,12.58,0.0488,19.82,-0.0503,3.412,-3.608,5.925,4.755,-7.469,-12.92,-0.206,5.92,-6.553,0.2393,1.173,14.43,0,0,0,0,0,0,0,0,0,0,0,0,0,0,0,0,
457,18.74,16.06,12.25,4.426,5.974,3.065,0.4713,15.41,-6.734,-0.4997,5.615,18.98,-2.277,5.858,1.239,8.324,0,0,0,0,0,0,0,0,0,0,0,0,0,0,0,0,
458,8.101,6.303,-1.51,-3.071,-1.457,1.862,-9.026,3.569,-7.986,1.212,-3.372,-3.062,-7.591,-4.526,-12.53,-12.53,0,0,0,0,0,0,0,0,0,0,0,0,0,0,0,0,
459,-3.746,-5.516,-6.51,-6.467,-8.007,1.528,-8.384,-7.516,-12.36,-7.316,-6.0,-11.14,-7.118,-4.621,-8.566,-6.542,0,0,0,0,0,0,0,0,0,0,0,0,0,0,0,0,
460,-0.5067,4.43,-4.536,1.684,-5.144,0.3124,-0.9865,-6.234,-6.894,-5.404,11.01,14.84,8.634,13.67,14.08,17.46,0,0,0,0,0,0,0,0,0,0,0,0,0,0,0,0,
461,5.896,16.03,-6.566,10.25,-2.197,-0.0351,-3.684,7.241,3.576,7.032,21.52,25.86,18.46,24.59,23.72,24.98,0,0,0,0,0,0,0,0,0,0,0,0,0,0,0,0,
462,8.584,22.71,-4.322,15.92,1.514,6.856,-6.254,22.9,5.607,14.12,12.37,16.91,16.2,23.86,12.12,20.47,0,0,0,0,0,0,0,0,0,0,0,0,0,0,0,0,
463,9.708,21.29,1.922,19.51,7.775,17.94,-0.702,23.3,6.094,17.2,1.584,19.72,14.94,26.63,2.11,21.96,0,0,0,0,0,0,0,0,0,0,0,0,0,0,0,0,
464,6.003,7.633,-3.175,15.48,8.263,27.67,-1.749,18.19,9.875,24.79,2.155,21.61,13.21,28.33,3.293,19.24,0,0,0,0,0,0,0,0,0,0,0,0,0,0,0,0,
465,7.396,10.88,-10.88,11.05,8.897,29.8,-4.632,21.09,9.96,27.3,9.624,15.81,10.16,24.82,4.363,8.669,0,0,0,0,0,0,0,0,0,0,0,0,0,0,0,0,
466,14.65,25.33,-12.04,10.77,10.75,19.26,-0.5348,10.64,8.107,19.34,13.03,13.04,9.21,19.86,1.408,6.3,0,0,0,0,0,0,0,0,0,0,0,0,0,0,0,0,
467,7.267,12.34,-16.07,7.795,3.089,8.578,0.9348,-5.148,6.992,11.93,12.77,9.73,9.394,13.69,1.424,11.22,0,0,0,0,0,0,0,0,0,0,0,0,0,0,0,0,
468,-6.918,-2.795,-17.41,10.12,-2.809,10.53,-0.4585,16.58,4.681,7.403,13.88,16.94,9.737,12.07,4.756,14.38,0,0,0,0,0,0,0,0,0,0,0,0,0,0,0,0,
469,-5.956,7.754,-9.933,18.5,0.1072,14.28,-3.397,49.63,2.703,4.325,11.27,32.52,6.281,16.34,9.233,18.68,0,0,0,0,0,0,0,0,0,0,0,0,0,0,0,0,
470,2.536,16.56,-4.477,16.94,-2.187,10.5,-12.12,40.09,-0.9974,4.679,1.942,29.61,-0.8478,15.45,7.753,17.2,0,0,0,0,0,0,0,0,0,0,0,0,0,0,0,0,
471,6.205,14.11,-1.807,8.564,-6.719,6.296,-18.37,16.98,-7.905,1.085,-13.19,11.73,-10.64,3.423,-11.96,-0.0635,0,0,0,0,0,0,0,0,0,0,0,0,0,0,0,0,
472,4.623,7.533,2.109,4.937,-6.13,4.542,-16.47,9.075,-12.61,-7.501,-24.34,-2.369,-20.47,-8.021,-28.76,-15.73,0,0,0,0,0,0,0,0,0,0,0,0,0,0,0,0,
473,-1.465,-3.775,-0.559,6.474,-10.08,0.3176,-14.21,-17.76,-15.97,-10.4,-17.23,-8.058,-20.15,-7.279,-18.26,-14.49,0,0,0,0,0,0,0,0,0,0,0,0,0,0,0,0,
474,-7.35,-6.447,-8.912,9.607,-17.54,-4.219,-16.38,-41.82,-21.53,-7.341,-8.761,-4.311,-17.17,-5.048,-11.1,-12.4,0,0,0,0,0,0,0,0,0,0,0,0,0,0,0,0,
475,-7.511,1.978,-9.299,7.758,-17.64,-1.297,-18.73,-10.24,-23.51,-5.64,-15.42,3.986,-21.15,-7.691,-21.35,-15.79,0,0,0,0,0,0,0,0,0,0,0,0,0,0,0,0,
476,-4.438,7.027,-4.753,3.912,-16.2,2.804,-19.18,27.54,-20.71,-7.266,-16.78,11.63,-20.97,-4.821,-18.09,-11.33,0,0,0,0,0,0,0,0,0,0,0,0,0,0,0,0,
477,-5.787,4.58,-8.404,7.051,-23.07,-4.313,-23.07,15.6,-22.75,-9.095,-11.24,16.21,-18.9,0.2127,-8.031,-3.649,0,0,0,0,0,0,0,0,0,0,0,0,0,0,0,0,
478,-9.225,1.58,-13.02,12.27,-30.37,-13.54,-27.41,1.18,-29.47,-7.39,-14.17,13.31,-19.48,1.454,-9.309,-0.1027,0,0,0,0,0,0,0,0,0,0,0,0,0,0,0,0,
479,-6.945,4.214,-11.25,13.65,-30.6,-12.84,-26.75,21.43,-30.96,-4.179,-14.8,7.817,-14.69,2.781,-8.771,4.629,0,0,0,0,0,0,0,0,0,0,0,0,0,0,0,0,
480,-8.357,-1.547,-10.08,10.45,-29.57,-8.049,-27.89,29.84,-28.9,-3.216,-12.42,5.201,-12.75,0.9183,-8.372,4.929,0,0,0,0,0,0,0,0,0,0,0,0,0,0,0,0,
481,-18.81,-16.62,-8.399,2.543,-27.4,-6.942,-29.21,-4.795,-27.38,-3.53,-15.94,-0.4194,-17.39,-5.075,-11.76,-2.678,0,0,0,0,0,0,0,0,0,0,0,0,0,0,0,0,
482,-21.96,-8.373,-9.611,-1.433,-24.62,-15.81,-26.18,-29.37,-23.49,-6.658,-16.35,-5.198,-20.02,-10.84,-11.33,-9.446,0,0,0,0,0,0,0,0,0,0,0,0,0,0,0,0,
483,-15.73,6.882,-17.67,0.5668,-27.97,-26.05,-25.07,-7.104,-23.72,-14.89,-14.14,-1.684,-21.28,-14.24,-13.73,-13.02,0,0,0,0,0,0,0,0,0,0,0,0,0,0,0,0,
484,-11.22,-4.662,-14.75,1.196,-25.82,-15.94,-18.61,9.103,-27.8,-17.58,-8.212,1.438,-13.42,-9.281,-9.244,-8.072,0,0,0,0,0,0,0,0,0,0,0,0,0,0,0,0,
485,-5.937,-6.926,-3.72,5.114,-9.203,2.966,-3.673,-0.5397,-19.23,-5.996,7.483,4.241,4.374,2.985,7.886,4.413,0,0,0,0,0,0,0,0,0,0,0,0,0,0,0,0,
486,2.079,9.936,-3.716,13.86,5.689,10.35,4.574,4.926,-2.348,7.092,12.49,12.67,12.08,11.67,8.654,5.499,0,0,0,0,0,0,0,0,0,0,0,0,0,0,0,0,
487,10.46,13.35,2.161,18.7,14.09,16.34,10.11,11.01,8.523,13.77,8.065,15.96,12.29,14.97,1.407,1.014,0,0,0,0,0,0,0,0,0,0,0,0,0,0,0,0,
488,17.83,17.31,19.59,17.72,21.69,18.5,17.16,-1.369,16.69,19.89,18.54,15.96,17.36,18.2,12.47,9.056,0,0,0,0,0,0,0,0,0,0,0,0,0,0,0,0,
489,16.67,16.4,19.68,8.256,21.51,12.64,10.77,1.129,18.23,19.14,19.15,20.93,14.08,18.37,12.5,12.39,0,0,0,0,0,0,0,0,0,0,0,0,0,0,0,0,
490,12.11,-2.72,8.87,-1.311,19.73,19.32,1.802,20.12,11.17,12.02,-0.2369,22.13,5.64,14.62,-3.595,5.681,0,0,0,0,0,0,0,0,0,0,0,0,0,0,0,0,
491,21.01,9.045,17.14,10.14,30.89,30.09,12.14,23.86,15.22,14.86,5.687,23.49,17.26,18.87,5.267,12.01,0,0,0,0,0,0,0,0,0,0,0,0,0,0,0,0,
492,34.39,39.44,34.44,26.82,41.79,24.16,27.37,3.85,30.51,22.68,27.99,26.29,33.5,26.4,23.31,19.66,0,0,0,0,0,0,0,0,0,0,0,0,0,0,0,0,
493,29.97,24.89,33.41,20.18,32.81,15.74,27.22,-12.4,32.03,19.14,23.93,17.08,23.91,18.2,16.14,10.03,0,0,0,0,0,0,0,0,0,0,0,0,0,0,0,0,
494,15.23,3.462,19.9,8.763,14.78,12.03,20.81,3.865,16.63,7.591,13.11,7.78,7.038,5.749,4.555,3.902,0,0,0,0,0,0,0,0,0,0,0,0,0,0,0,0,
495,9.358,17.84,15.07,9.014,6.785,3.883,19.07,23.19,3.545,0.0094,13.41,10.56,2.65,5.01,1.363,7.423,0,0,0,0,0,0,0,0,0,0,0,0,0,0,0,0,
496,5.315,21.06,13.15,3.968,1.705,-6.523,13.21,12.45,-2.52,-3.211,8.197,15.3,-4.272,3.895,-3.819,4.773,0,0,0,0,0,0,0,0,0,0,0,0,0,0,0,0,
497,-7.118,0.2499,2.684,-2.776,-11.12,-16.83,0.4154,-1.259,-12.51,-10.07,3.138,16.26,-14.37,-1.128,-5.709,1.983,0,0,0,0,0,0,0,0,0,0,0,0,0,0,0,0,
498,-14.56,-7.016,-4.424,2.336,-20.28,-21.05,-9.081,-1.16,-23.92,-15.09,-2.463,9.82,-18.6,-4.134,-12.77,-0.5251,0,0,0,0,0,0,0,0,0,0,0,0,0,0,0,0,
499,-11.67,-5.756,-3.596,7.199,-19.4,-12.73,-14.48,1.8,-26.51,-10.87,-18.37,0.5995,-22.11,-8.526,-29.3,-13.17,0,0,0,0,0,0,0,0,0,0,0,0,0,0,0,0,
500,-10.81,-13.63,-2.127,6.509,-17.4,-4.203,-15.07,8.683,-24.04,-8.536,-19.99,-4.809,-22.76,-12.26,-28.37,-22.46,0,0,0,0,0,0,0,0,0,0,0,0,0,0,0,0,
501,-11.87,-14.15,1.341,8.199,-18.49,-6.525,-8.465,11.86,-22.5,-10.49,-6.924,-10.46,-20.93,-13.68,-18.76,-21.69,0,0,0,0,0,0,0,0,0,0,0,0,0,0,0,0,
502,-9.698,0.3039,2.3,8.533,-20.88,-12.03,-4.313,6.571,-22.15,-8.983,-7.182,-2.497,-21.3,-12.66,-23.12,-19.25,0,0,0,0,0,0,0,0,0,0,0,0,0,0,0,0,
503,-8.133,9.34,-1.119,4.857,-18.71,-10.91,-1.201,8.325,-19.19,-6.004,-0.7866,16.65,-13.59,-5.65,-13.59,-9.005,0,0,0,0,0,0,0,0,0,0,0,0,0,0,0,0,
504,-11.58,-0.3291,-3.388,-0.6688,-14.32,-10.06,3.361,10.74,-10.89,-4.958,19.11,7.511,-4.65,-4.464,5.693,-1.329,0,0,0,0,0,0,0,0,0,0,0,0,0,0,0,0,
505,-20.15,-16.91,-10.17,-6.741,-18.59,-16.27,-4.104,-1.127,-11.4,-11.27,10.39,-13.11,-13.24,-11.28,-6.304,-8.973,0,0,0,0,0,0,0,0,0,0,0,0,0,0,0,0,
506,-17.81,-16.77,-10.25,-4.251,-16.67,-10.56,-8.742,-2.096,-20.26,-13.76,-13.83,5.986,-19.7,-1.829,-22.36,-6.196,0,0,0,0,0,0,0,0,0,0,0,0,0,0,0,0,
507,1.462,-1.415,8.326,2.232,0.5828,6.559,4.615,15.39,-12.84,2.821,-11.59,28.44,-8.541,13.16,-11.26,4.648,0,0,0,0,0,0,0,0,0,0,0,0,0,0,0,0,
508,8.709,3.689,17.1,-0.2251,5.859,6.022,8.625,13.58,-0.8444,9.642,1.71,10.07,-2.87,5.7,-1.25,-2.375,0,0,0,0,0,0,0,0,0,0,0,0,0,0,0,0,
509,5.76,5.279,14.24,4.456,5.386,4.661,6.23,8.096,-1.8,-0.7577,11.31,6.27,-0.7035,4.741,3.657,-0.6828,0,0,0,0,0,0,0,0,0,0,0,0,0,0,0,0,
510,23.43,23.79,29.5,21.01,24.56,23.33,23.0,23.28,7.678,10.34,25.47,33.26,14.74,26.8,15.03,18.04,0,0,0,0,0,0,0,0,0,0,0,0,0,0,0,0,
511,42.84,42.41,46.97,26.63,40.21,32.9,41.03,13.1,26.67,33.24,41.33,33.15,30.41,38.04,26.36,26.74,0,0,0,0,0,0,0,0,0,0,0,0,0,0,0,0,
512,45.9,50.69,53.03,30.71,43.63,36.04,56.3,3.263,37.74,44.72,66.71,33.95,47.22,45.92,51.29,46.51,0,0,0,0,0,0,0,0,0,0,0,0,0,0,0,0,
513,52.02,55.14,60.94,42.5,51.36,48.07,76.05,47.29,50.95,54.7,87.31,56.83,59.46,55.98,69.15,67.02,0,0,0,0,0,0,0,0,0,0,0,0,0,0,0,0,
514,47.15,38.21,52.54,33.97,39.65,35.69,64.01,59.87,48.88,44.24,60.21,32.78,30.8,28.42,32.55,34.81,0,0,0,0,0,0,0,0,0,0,0,0,0,0,0,0,
515,17.75,5.54,27.13,9.889,5.769,3.582,24.54,17.43,13.57,8.123,13.84,-2.125,-10.21,-6.798,-11.75,-5.441,0,0,0,0,0,0,0,0,0,0,0,0,0,0,0,0,
516,1.648,-0.4808,19.41,3.175,-6.39,-4.511,11.22,17.52,-10.71,-8.301,6.641,18.38,-9.732,-0.1698,-9.297,-0.2056,0,0,0,0,0,0,0,0,0,0,0,0,0,0,0,0,
517,9.611,10.32,20.93,5.826,0.5796,2.576,14.74,28.62,-3.167,0.8237,10.47,22.61,-3.037,6.16,-9.041,-1.159,0,0,0,0,0,0,0,0,0,0,0,0,0,0,0,0,
518,8.316,1.062,11.27,-1.559,-6.965,-0.2909,3.205,-2.275,-3.958,1.528,-5.044,-7.964,-18.17,-8.757,-24.76,-20.86,0,0,0,0,0,0,0,0,0,0,0,0,0,0,0,0,
519,0.6679,-1.746,10.25,-4.735,-15.59,-5.088,0.6554,-4.808,-16.99,-5.651,0.2243,-8.146,-14.27,-7.127,-7.327,-12.16,0,0,0,0,0,0,0,0,0,0,0,0,0,0,0,0,
520,10.5,13.51,22.26,6.482,-4.947,-2.047,16.03,19.01,-10.06,-2.83,21.92,3.373,3.679,2.675,11.18,1.206,0,0,0,0,0,0,0,0,0,0,0,0,0,0,0,0,
521,14.49,0.8919,20.16,9.524,-1.624,-0.7137,13.05,7.942,0.5236,-0.0654,6.681,0.1609,-7.138,-4.027,-13.66,-12.46,0,0,0,0,0,0,0,0,0,0,0,0,0,0,0,0,
522,-4.198,-16.3,4.615,-1.577,-18.34,-8.685,-4.377,-6.747,-12.75,-7.814,-18.99,3.288,-23.91,-6.811,-28.85,-16.57,0,0,0,0,0,0,0,0,0,0,0,0,0,0,0,0,
523,-6.727,6.928,3.264,-0.3739,-19.2,-7.61,1.78,5.205,-20.15,-5.566,-3.973,11.62,-10.21,9.427,-5.897,2.967,0,0,0,0,0,0,0,0,0,0,0,0,0,0,0,0,
524,9.798,19.87,11.43,9.886,-2.984,7.435,16.17,18.66,-5.073,10.47,14.82,17.29,2.873,19.7,5.093,11.75,0,0,0,0,0,0,0,0,0,0,0,0,0,0,0,0,
525,7.948,4.581,7.688,8.994,-3.84,10.3,7.44,25.41,-1.926,11.83,1.254,15.84,-7.845,10.17,-9.171,0.7237,0,0,0,0,0,0,0,0,0,0,0,0,0,0,0,0,
526,5.844,8.222,8.135,11.05,-5.663,8.873,0.4905,32.06,-8.899,2.893,-11.41,5.013,-10.01,4.581,-17.49,-8.19,0,0,0,0,0,0,0,0,0,0,0,0,0,0,0,0,
527,19.57,14.45,20.8,19.66,7.313,19.88,11.05,33.6,0.5033,7.936,-2.882,4.011,1.507,10.19,-10.79,-5.32,0,0,0,0,0,0,0,0,0,0,0,0,0,0,0,0,
528,15.51,5.07,16.43,16.42,3.398,16.67,10.76,19.06,5.633,14.04,6.674,17.15,0.7632,9.099,-2.195,-3.996,0,0,0,0,0,0,0,0,0,0,0,0,0,0,0,0,
529,0.0284,7.878,-0.3649,9.442,-13.26,-0.35,-1.74,-2.793,-6.698,7.639,-2.346,16.94,-10.87,-0.345,-13.85,-16.48,0,0,0,0,0,0,0,0,0,0,0,0,0,0,0,0,
530,-1.12,11.96,-4.469,7.108,-16.4,-6.128,-8.444,-3.656,-14.94,0.051,-26.04,-5.721,-25.58,-13.86,-40.74,-31.13,0,0,0,0,0,0,0,0,0,0,0,0,0,0,0,0,
531,-5.407,-1.559,-9.494,-0.9054,-21.58,-12.76,-15.6,8.546,-22.74,-8.778,-35.35,-25.24,-36.66,-25.12,-42.0,-31.07,0,0,0,0,0,0,0,0,0,0,0,0,0,0,0,0,
532,-12.13,-12.47,-16.14,-6.164,-27.74,-15.1,-18.82,8.718,-32.83,-16.92,-19.93,-23.73,-29.01,-17.81,-18.23,-18.23,0,0,0,0,0,0,0,0,0,0,0,0,0,0,0,0,
533,-1.839,-6.401,-5.148,0.158,-14.57,3.372,-7.475,8.534,-21.41,-7.812,-6.942,-12.57,-13.13,0.511,-9.428,-6.471,0,0,0,0,0,0,0,0,0,0,0,0,0,0,0,0,
534,1.242,1.5,-0.8877,-1.835,-8.749,6.651,-4.246,1.888,-5.157,3.092,-10.34,-13.9,-13.25,2.485,-15.91,-9.637,0,0,0,0,0,0,0,0,0,0,0,0,0,0,0,0,
535,-15.72,-5.475,-17.01,-14.33,-23.34,-13.99,-15.35,-22.54,-14.15,-7.247,-12.93,-28.5,-20.05,-8.387,-16.28,-20.38,0,0,0,0,0,0,0,0,0,0,0,0,0,0,0,0,
536,-16.7,-10.43,-18.57,-9.543,-21.25,-13.59,-12.45,-15.23,-18.41,-13.0,-5.802,-26.01,-13.23,-7.175,-14.57,-17.76,0,0,0,0,0,0,0,0,0,0,0,0,0,0,0,0,
537,-2.203,-1.783,-11.68,2.851,-9.199,-1.95,-7.106,20.13,-5.757,-3.424,-5.692,-6.328,-8.14,-1.009,-17.02,-8.928,0,0,0,0,0,0,0,0,0,0,0,0,0,0,0,0,
538,-7.146,-3.136,-25.3,-6.073,-19.19,-10.27,-19.84,6.586,-11.87,-7.271,-11.1,-2.694,-14.51,-3.192,-8.049,-2.603,0,0,0,0,0,0,0,0,0,0,0,0,0,0,0,0,
539,-16.3,-10.05,-33.28,-13.86,-25.75,-10.18,-18.9,-26.56,-19.09,-10.59,-0.5382,-3.605,-7.244,3.78,10.06,7.477,0,0,0,0,0,0,0,0,0,0,0,0,0,0,0,0,
540,-10.48,-7.91,-24.72,-5.954,-17.84,2.969,-3.997,-15.06,-3.191,3.195,1.636,-1.376,-0.0588,8.253,-0.5068,-0.2354,0,0,0,0,0,0,0,0,0,0,0,0,0,0,0,0,
541,-14.75,-16.46,-27.84,-12.26,-26.44,-8.072,-11.27,-12.48,-4.568,-2.265,-21.16,-16.76,-16.99,-11.05,-28.38,-23.82,0,0,0,0,0,0,0,0,0,0,0,0,0,0,0,0,
542,-24.15,-27.04,-28.58,-24.24,-31.9,-20.31,-16.28,-36.6,-20.06,-20.73,-17.05,-20.29,-16.38,-15.42,-19.08,-19.44,0,0,0,0,0,0,0,0,0,0,0,0,0,0,0,0,
543,-8.999,-17.03,-7.369,-15.67,-5.366,1.893,3.494,-20.13,-4.078,-8.904,15.43,-5.732,8.865,3.85,5.886,-0.8406,0,0,0,0,0,0,0,0,0,0,0,0,0,0,0,0,
544,10.54,-5.463,7.691,-8.281,15.48,18.34,12.11,16.2,18.92,8.791,21.74,-14.56,11.66,2.738,3.991,-2.765,0,0,0,0,0,0,0,0,0,0,0,0,0,0,0,0,
545,2.511,-3.357,-0.0188,-15.84,1.76,-2.654,2.705,9.015,12.76,-3.865,11.32,-25.87,1.183,-9.734,-3.47,-5.992,0,0,0,0,0,0,0,0,0,0,0,0,0,0,0,0,
546,-16.49,-6.787,-10.79,-20.92,-19.77,-24.04,-0.4806,-24.52,-2.361,-22.24,5.044,-19.91,-0.8232,-8.368,-9.133,-3.87,0,0,0,0,0,0,0,0,0,0,0,0,0,0,0,0,
547,-19.16,-23.38,-9.161,-20.96,-24.23,-20.55,2.049,-41.97,-7.624,-23.78,-3.774,-23.27,-2.676,-5.063,-16.56,-7.34,0,0,0,0,0,0,0,0,0,0,0,0,0,0,0,0,
548,-11.38,-33.37,-0.5532,-20.34,-15.52,-12.55,5.33,-24.89,-4.842,-19.54,3.333,-24.45,2.395,-4.01,-6.426,-4.416,0,0,0,0,0,0,0,0,0,0,0,0,0,0,0,0,
549,-2.226,-14.12,9.092,-15.63,-3.432,-10.43,10.26,6.031,2.977,-15.74,19.05,-12.1,10.49,-1.236,3.393,2.999,0,0,0,0,0,0,0,0,0,0,0,0,0,0,0,0,
550,12.03,5.603,19.07,-9.205,6.74,-3.171,11.68,9.178,8.882,-7.119,11.02,-8.374,6.681,1.135,-6.877,2.262,0,0,0,0,0,0,0,0,0,0,0,0,0,0,0,0,
551,14.78,1.61,15.77,-8.646,5.193,1.585,4.926,1.352,7.342,0.0521,-5.668,-15.81,-4.38,-3.637,-18.66,-5.857,0,0,0,0,0,0,0,0,0,0,0,0,0,0,0,0,
552,-4.057,-9.855,-0.8894,-17.88,-11.36,-11.13,-7.049,0.8169,-2.963,-10.39,-11.2,-25.24,-16.06,-17.34,-24.32,-15.03,0,0,0,0,0,0,0,0,0,0,0,0,0,0,0,0,
553,-18.39,-22.36,-9.21,-28.4,-28.96,-25.08,-13.39,-27.6,-17.95,-28.35,-11.39,-33.44,-20.62,-21.32,-20.2,-14.77,0,0,0,0,0,0,0,0,0,0,0,0,0,0,0,0,
554,-21.29,-36.12,-15.03,-27.45,-38.62,-22.94,-12.72,-54.09,-27.59,-27.98,-8.419,-34.43,-16.54,-13.42,-10.02,-11.0,0,0,0,0,0,0,0,0,0,0,0,0,0,0,0,0,
555,-22.57,-32.44,-19.59,-18.31,-33.51,-13.17,-9.902,-28.38,-25.62,-18.37,-5.079,-22.25,-8.157,-7.156,-7.826,-8.984,0,0,0,0,0,0,0,0,0,0,0,0,0,0,0,0,
556,-6.867,-6.462,1.201,-8.036,-4.553,0.5765,1.602,-0.9196,-6.748,-11.2,7.275,-3.055,12.99,6.112,6.69,8.927,0,0,0,0,0,0,0,0,0,0,0,0,0,0,0,0,
557,16.67,16.22,18.7,-0.0334,20.21,12.57,11.91,-2.776,20.4,3.909,28.24,-0.7907,30.29,16.15,27.78,23.75,0,0,0,0,0,0,0,0,0,0,0,0,0,0,0,0,
558,10.76,7.124,-2.923,-7.791,5.941,7.091,2.005,-3.62,22.42,7.109,22.09,-18.92,14.07,2.739,11.26,7.045,0,0,0,0,0,0,0,0,0,0,0,0,0,0,0,0,
559,-13.8,-23.83,-23.64,-25.55,-21.1,-6.02,-9.392,-9.957,-2.461,-12.8,-4.042,-27.32,-10.06,-9.466,-14.04,-7.303,0,0,0,0,0,0,0,0,0,0,0,0,0,0,0,0,
560,-21.66,-32.14,-18.49,-25.42,-27.39,-13.76,-5.805,-18.47,-15.1,-21.66,-5.573,-16.59,-10.18,-4.917,-6.916,0.5794,0,0,0,0,0,0,0,0,0,0,0,0,0,0,0,0,
561,-18.83,-15.76,-16.5,-16.99,-28.61,-23.6,-4.846,-8.358,-13.55,-19.5,4.579,-6.567,-4.827,-2.893,1.018,6.085,0,0,0,0,0,0,0,0,0,0,0,0,0,0,0,0,
562,-22.3,-16.04,-18.63,-24.38,-33.52,-27.97,-5.872,-1.937,-18.25,-25.43,5.901,-5.718,-6.101,-4.641,-1.318,6.704,0,0,0,0,0,0,0,0,0,0,0,0,0,0,0,0,
563,-25.9,-33.14,-13.36,-32.84,-30.69,-24.19,0.7735,-6.133,-18.11,-26.44,11.31,-8.92,-3.736,-5.585,2.527,5.638,0,0,0,0,0,0,0,0,0,0,0,0,0,0,0,0,
564,-26.03,-37.66,-13.6,-30.79,-27.55,-29.98,0.6086,-9.009,-10.69,-25.81,9.207,-15.67,-2.742,-10.13,-0.4124,1.343,0,0,0,0,0,0,0,0,0,0,0,0,0,0,0,0,
565,-24.25,-27.35,-17.16,-26.28,-26.32,-33.36,-5.697,-18.93,-7.425,-27.26,-6.629,-22.38,-6.267,-8.748,-11.07,0.8594,0,0,0,0,0,0,0,0,0,0,0,0,0,0,0,0,
566,-18.98,-19.01,-16.38,-21.15,-21.29,-21.8,-5.824,-17.97,-3.977,-17.56,-14.1,-18.45,-7.018,-1.577,-14.45,-1.704,0,0,0,0,0,0,0,0,0,0,0,0,0,0,0,0,
567,-19.66,-22.3,-22.74,-23.3,-25.89,-21.59,-8.511,-2.615,-5.263,-14.53,-11.73,-11.3,-8.233,-3.201,-10.36,-4.781,0,0,0,0,0,0,0,0,0,0,0,0,0,0,0,0,
568,-28.3,-30.33,-29.8,-32.57,-37.12,-33.63,-16.14,-17.82,-16.58,-24.4,-11.48,-20.67,-14.28,-10.07,-10.41,-7.403,0,0,0,0,0,0,0,0,0,0,0,0,0,0,0,0,
569,-31.32,-37.89,-24.63,-35.0,-36.16,-30.02,-21.44,-48.89,-27.51,-24.51,-18.59,-38.47,-24.98,-17.05,-23.28,-23.3,0,0,0,0,0,0,0,0,0,0,0,0,0,0,0,0,
570,-29.28,-44.71,-23.07,-33.57,-31.54,-17.78,-23.55,-39.07,-35.94,-21.89,-23.64,-35.89,-31.08,-22.16,-25.89,-26.42,0,0,0,0,0,0,0,0,0,0,0,0,0,0,0,0,
571,-26.58,-40.48,-27.41,-32.25,-31.2,-19.62,-16.85,-7.018,-36.08,-26.11,-11.63,-15.53,-19.3,-16.44,-8.499,-3.568,0,0,0,0,0,0,0,0,0,0,0,0,0,0,0,0,
572,-25.31,-35.74,-23.76,-30.73,-31.61,-35.26,-9.41,-2.487,-25.6,-30.26,-3.686,-13.1,-9.871,-14.95,-9.421,-2.01,0,0,0,0,0,0,0,0,0,0,0,0,0,0,0,0,
573,-35.49,-48.48,-26.03,-36.7,-39.6,-48.3,-16.14,-23.12,-24.18,-38.15,-15.33,-27.83,-19.75,-26.76,-24.22,-18.23,0,0,0,0,0,0,0,0,0,0,0,0,0,0,0,0,
574,-43.64,-53.09,-35.41,-41.01,-44.64,-45.38,-21.6,-30.72,-28.51,-42.64,-20.39,-22.69,-21.24,-25.0,-20.29,-13.62,0,0,0,0,0,0,0,0,0,0,0,0,0,0,0,0,
575,-33.37,-36.61,-30.01,-34.92,-36.41,-37.95,-15.88,-10.41,-21.46,-34.7,-17.03,-5.316,-12.99,-14.5,-18.2,-7.92,0,0,0,0,0,0,0,0,0,0,0,0,0,0,0,0,
576,-29.13,-33.07,-25.39,-32.63,-37.41,-43.9,-15.52,-8.647,-19.23,-29.67,-17.31,-8.733,-19.1,-21.41,-25.31,-14.13,0,0,0,0,0,0,0,0,0,0,0,0,0,0,0,0,
577,-41.3,-45.5,-36.33,-36.66,-49.58,-52.82,-19.59,-45.49,-31.1,-35.98,-13.53,-27.95,-27.29,-33.71,-24.38,-17.45,0,0,0,0,0,0,0,0,0,0,0,0,0,0,0,0,
578,-43.63,-42.77,-37.46,-38.18,-49.41,-49.31,-18.64,-52.72,-38.26,-43.76,-16.94,-40.18,-29.57,-40.02,-30.5,-23.26,0,0,0,0,0,0,0,0,0,0,0,0,0,0,0,0,
579,-35.18,-32.61,-30.88,-35.91,-43.28,-41.38,-22.48,-18.64,-38.37,-47.01,-32.48,-33.53,-37.57,-44.44,-41.85,-28.2,0,0,0,0,0,0,0,0,0,0,0,0,0,0,0,0,
580,-34.48,-39.89,-35.66,-28.62,-41.47,-37.56,-32.15,-8.02,-42.0,-46.24,-38.19,-17.33,-44.4,-39.94,-39.43,-23.36,0,0,0,0,0,0,0,0,0,0,0,0,0,0,0,0,
581,-34.01,-45.56,-32.17,-22.81,-30.92,-27.51,-31.44,-10.34,-41.46,-39.37,-33.36,-9.227,-40.42,-26.75,-35.29,-19.19,0,0,0,0,0,0,0,0,0,0,0,0,0,0,0,0,
582,-24.81,-32.46,-21.23,-26.43,-19.08,-12.88,-23.06,-2.005,-30.9,-27.13,-28.59,-7.665,-30.94,-17.7,-33.16,-17.49,0,0,0,0,0,0,0,0,0,0,0,0,0,0,0,0,
583,-22.0,-23.41,-29.45,-28.55,-23.15,-15.43,-21.72,-11.4,-24.86,-21.24,-18.7,-8.283,-22.73,-15.49,-20.85,-10.94,0,0,0,0,0,0,0,0,0,0,0,0,0,0,0,0,
584,-26.57,-21.43,-33.2,-22.24,-23.11,-23.39,-17.53,-17.19,-22.72,-22.22,-4.271,-11.64,-12.98,-11.84,-9.131,-5.751,0,0,0,0,0,0,0,0,0,0,0,0,0,0,0,0,
585,-21.86,-20.82,-14.98,-22.55,-8.195,-11.61,-4.566,-7.839,-9.562,-17.99,2.063,-17.49,-3.974,-12.67,-10.86,-11.76,0,0,0,0,0,0,0,0,0,0,0,0,0,0,0,0,
586,-15.36,-34.13,-10.66,-31.93,-5.022,-5.442,-2.245,-21.59,-1.176,-17.36,-3.28,-26.66,-9.092,-25.96,-17.51,-21.87,0,0,0,0,0,0,0,0,0,0,0,0,0,0,0,0,
587,-17.73,-38.69,-21.87,-32.77,-12.79,-19.9,-10.32,-31.11,-11.59,-27.44,-13.07,-24.65,-21.1,-29.32,-21.79,-21.0,0,0,0,0,0,0,0,0,0,0,0,0,0,0,0,0,
588,-20.22,-23.74,-22.96,-28.63,-13.8,-24.63,-14.22,-14.63,-19.51,-30.2,-21.16,-9.924,-23.48,-15.11,-22.63,-10.67,0,0,0,0,0,0,0,0,0,0,0,0,0,0,0,0,
589,-22.94,-23.0,-22.52,-31.85,-17.81,-20.43,-13.69,-14.64,-18.3,-23.3,-16.39,-5.551,-19.01,-8.653,-15.71,-2.841,0,0,0,0,0,0,0,0,0,0,0,0,0,0,0,0,
590,-25.45,-30.77,-22.02,-31.62,-22.11,-25.23,-7.044,-18.63,-18.59,-20.7,-0.4443,-9.694,-12.8,-11.74,-11.73,-3.722,0,0,0,0,0,0,0,0,0,0,0,0,0,0,0,0,
591,-24.13,-37.59,-15.88,-28.7,-18.72,-29.72,-1.149,-7.016,-15.33,-21.01,0.9039,-11.04,-11.06,-15.25,-18.6,-6.655,0,0,0,0,0,0,0,0,0,0,0,0,0,0,0,0,
592,-31.09,-53.04,-19.09,-34.87,-23.0,-34.79,-4.536,-13.59,-10.86,-22.55,-6.686,-11.58,-12.83,-20.23,-14.5,0.639,0,0,0,0,0,0,0,0,0,0,0,0,0,0,0,0,
593,-38.95,-45.82,-25.92,-35.75,-28.29,-41.18,-4.459,-22.81,-14.05,-28.59,-0.8565,-13.23,-7.492,-22.05,-2.016,4.493,0,0,0,0,0,0,0,0,0,0,0,0,0,0,0,0,
594,-28.87,-25.18,-22.76,-27.84,-20.27,-32.46,-3.753,-9.071,-16.87,-31.86,-1.979,-22.55,-7.697,-26.83,-8.801,-11.31,0,0,0,0,0,0,0,0,0,0,0,0,0,0,0,0,
595,-21.23,-35.07,-24.21,-29.96,-18.52,-21.84,-15.33,-5.016,-17.97,-29.51,-15.83,-29.4,-19.68,-34.68,-20.32,-22.34,0,0,0,0,0,0,0,0,0,0,0,0,0,0,0,0,
596,-33.4,-42.57,-34.98,-36.37,-31.01,-31.19,-24.66,-14.54,-26.76,-29.73,-18.0,-23.48,-24.58,-32.41,-20.05,-15.67,0,0,0,0,0,0,0,0,0,0,0,0,0,0,0,0,
597,-45.69,-36.37,-40.9,-39.14,-40.41,-41.98,-24.95,-19.2,-35.68,-32.98,-19.59,-24.39,-26.08,-29.96,-25.47,-14.17,0,0,0,0,0,0,0,0,0,0,0,0,0,0,0,0,
598,-50.6,-56.44,-41.92,-48.98,-43.31,-39.88,-25.76,-34.61,-37.29,-35.51,-27.61,-31.65,-30.63,-32.37,-30.06,-17.35,0,0,0,0,0,0,0,0,0,0,0,0,0,0,0,0,
599,-52.53,-65.92,-41.89,-54.85,-40.49,-37.73,-20.0,-46.9,-37.66,-34.99,-16.51,-26.92,-21.62,-22.38,-14.58,-7.904,0,0,0,0,0,0,0,0,0,0,0,0,0,0,0,0,
600,-40.05,-34.76,-33.07,-41.46,-24.39,-31.26,-3.496,-20.87,-28.86,-24.75,5.658,-13.15,-1.235,-3.965,3.016,5.456,0,0,0,0,0,0,0,0,0,0,0,0,0,0,0,0,
601,-19.59,-20.19,-18.01,-25.87,-4.691,-13.85,7.92,11.46,-7.36,-12.26,8.084,-0.4793,6.881,1.616,0.6334,6.878,0,0,0,0,0,0,0,0,0,0,0,0,0,0,0,0,
602,-13.89,-32.01,-12.21,-21.1,0.1757,-2.249,6.65,4.417,3.46,-12.29,0.1678,0.2447,0.7404,-5.554,-7.059,1.507,0,0,0,0,0,0,0,0,0,0,0,0,0,0,0,0,
603,-14.76,-24.16,-10.92,-18.46,-0.1446,2.007,6.44,-12.74,1.288,-12.5,7.641,-3.252,3.106,-5.018,0.8757,2.847,0,0,0,0,0,0,0,0,0,0,0,0,0,0,0,0,
604,-6.942,-5.435,-0.2847,-14.33,9.365,7.199,13.79,-4.049,6.268,-2.217,21.01,4.269,14.6,5.435,13.98,10.25,0,0,0,0,0,0,0,0,0,0,0,0,0,0,0,0,
605,-2.255,-2.202,6.08,-10.29,13.74,3.674,14.75,8.55,11.31,2.291,19.5,4.809,13.11,7.583,16.07,14.11,0,0,0,0,0,0,0,0,0,0,0,0,0,0,0,0,
606,-6.453,-5.344,-1.891,-9.184,4.415,-2.218,6.438,11.16,4.295,-0.9577,8.302,-4.296,4.062,3.563,9.185,11.16,0,0,0,0,0,0,0,0,0,0,0,0,0,0,0,0,
607,-8.42,-11.2,-6.732,-13.17,-0.3503,4.777,1.213,14.62,-3.81,1.967,-1.489,-1.033,3.167,5.061,-0.8171,6.784,0,0,0,0,0,0,0,0,0,0,0,0,0,0,0,0,
608,-6.37,-19.25,-5.993,-14.47,4.115,10.42,0.1013,4.162,-2.769,7.651,-6.215,-2.406,4.68,5.559,-4.716,5.965,0,0,0,0,0,0,0,0,0,0,0,0,0,0,0,0,
609,-7.429,-16.68,-11.3,-14.11,4.125,4.231,-0.6235,-21.91,5.183,7.032,-5.67,-23.04,1.934,-1.921,-4.14,0.5924,0,0,0,0,0,0,0,0,0,0,0,0,0,0,0,0,
610,-11.84,-9.432,-12.45,-19.69,-1.934,-2.408,-0.0551,-31.43,7.147,1.271,-9.401,-30.58,-6.371,-12.74,-12.48,-10.59,0,0,0,0,0,0,0,0,0,0,0,0,0,0,0,0,
611,-9.962,-6.919,-1.605,-19.09,-3.543,-6.836,3.068,-21.73,-3.378,-6.767,-12.21,-14.13,-10.71,-16.52,-13.88,-8.676,0,0,0,0,0,0,0,0,0,0,0,0,0,0,0,0,
612,1.853,-0.4519,10.57,-5.2,6.062,-5.845,14.09,-4.273,-5.453,-12.53,3.316,-3.251,2.991,-9.102,3.614,4.915,0,0,0,0,0,0,0,0,0,0,0,0,0,0,0,0,
613,12.8,5.153,21.55,5.497,21.32,9.565,29.78,22.05,14.67,-5.855,19.96,-1.54,21.69,1.705,12.21,12.02,0,0,0,0,0,0,0,0,0,0,0,0,0,0,0,0,
614,12.42,-2.304,24.44,1.117,24.76,22.24,33.81,31.47,30.93,10.28,20.39,5.88,28.29,10.57,12.24,18.25,0,0,0,0,0,0,0,0,0,0,0,0,0,0,0,0,
615,1.902,-12.19,7.216,-9.374,11.72,11.63,24.71,14.79,25.68,16.7,23.93,10.76,27.95,17.97,22.22,24.97,0,0,0,0,0,0,0,0,0,0,0,0,0,0,0,0,
616,-7.462,-9.575,-9.181,-9.791,1.639,-4.497,13.62,7.043,17.92,12.55,23.69,8.85,18.95,19.43,13.74,13.99,0,0,0,0,0,0,0,0,0,0,0,0,0,0,0,0,
617,-11.2,-0.135,-8.936,-5.599,-0.6345,-6.83,1.388,6.941,11.48,9.232,-0.56,0.238,-2.511,8.404,-16.17,-6.907,0,0,0,0,0,0,0,0,0,0,0,0,0,0,0,0,
618,-11.89,1.718,-8.191,-6.214,-2.365,1.114,-3.045,-4.564,-1.524,6.101,-10.97,-11.21,-9.981,-0.0987,-14.15,-7.322,0,0,0,0,0,0,0,0,0,0,0,0,0,0,0,0,
619,1.142,-0.6648,0.7388,4.47,10.72,18.6,10.66,-8.175,3.404,11.91,10.61,-1.626,11.24,12.04,12.4,8.573,0,0,0,0,0,0,0,0,0,0,0,0,0,0,0,0,
620,18.89,4.39,17.85,17.44,28.4,31.45,16.35,1.243,24.56,24.85,11.11,7.746,21.07,15.59,5.154,6.015,0,0,0,0,0,0,0,0,0,0,0,0,0,0,0,0,
621,13.72,10.04,11.7,8.234,20.1,23.09,0.861,7.149,21.4,18.83,-13.83,-10.19,4.331,-3.242,-19.86,-10.85,0,0,0,0,0,0,0,0,0,0,0,0,0,0,0,0,
622,4.484,9.467,-0.7178,1.102,6.987,12.09,-3.75,11.44,7.531,4.98,-14.88,-9.902,1.935,-3.438,-15.4,-9.545,0,0,0,0,0,0,0,0,0,0,0,0,0,0,0,0,
623,8.793,9.213,2.668,6.48,6.731,7.396,1.371,18.72,9.747,4.669,-1.162,5.295,11.02,5.586,-0.7044,-1.22,0,0,0,0,0,0,0,0,0,0,0,0,0,0,0,0,
624,3.71,5.477,-2.201,2.987,1.066,4.194,-5.283,19.5,5.679,0.3998,1.609,-6.806,5.216,-5.601,-1.382,-5.401,0,0,0,0,0,0,0,0,0,0,0,0,0,0,0,0,
625,-0.04,-5.605,-4.625,5.533,2.901,17.2,-6.073,3.866,0.0871,-1.629,4.468,-10.98,2.661,-5.889,-3.345,-4.741,0,0,0,0,0,0,0,0,0,0,0,0,0,0,0,0,
626,8.449,-6.347,5.73,15.35,13.56,27.47,-3.543,-6.657,9.056,10.42,-0.0029,0.1646,3.741,4.698,-4.941,1.369,0,0,0,0,0,0,0,0,0,0,0,0,0,0,0,0,
627,2.443,9.265,-0.2645,9.229,7.45,10.69,-13.6,10.3,8.551,6.95,-17.11,-3.611,-2.645,0.4311,-12.41,-3.001,0,0,0,0,0,0,0,0,0,0,0,0,0,0,0,0,
628,-7.196,9.665,-8.268,2.014,0.3717,1.651,-13.02,12.83,1.873,-6.492,-19.66,-4.355,1.195,-0.1866,-13.31,-8.614,0,0,0,0,0,0,0,0,0,0,0,0,0,0,0,0,
629,-2.863,-16.09,-3.615,-1.112,2.806,10.15,-1.993,-16.84,5.181,-2.35,-5.571,-3.742,10.67,5.902,-2.174,-4.962,0,0,0,0,0,0,0,0,0,0,0,0,0,0,0,0,
630,-0.0817,-22.76,-6.451,-9.411,4.972,9.837,2.237,-14.49,6.251,2.581,4.967,-7.086,15.28,7.952,9.028,4.084,0,0,0,0,0,0,0,0,0,0,0,0,0,0,0,0,
631,4.407,0.2361,-0.9295,-7.288,16.22,9.346,11.21,19.96,13.36,1.093,7.211,0.0633,19.32,7.725,5.456,6.202,0,0,0,0,0,0,0,0,0,0,0,0,0,0,0,0,
632,3.731,-1.64,10.17,-6.658,15.28,5.346,11.27,19.45,23.22,-3.756,-1.184,-6.021,10.59,-6.35,-9.197,-6.496,0,0,0,0,0,0,0,0,0,0,0,0,0,0,0,0,
633,-16.34,-30.26,-3.025,-19.46,-9.421,-13.23,-6.981,-2.139,10.52,-21.2,-11.66,-18.57,-1.243,-19.18,-10.96,-12.81,0,0,0,0,0,0,0,0,0,0,0,0,0,0,0,0,
634,-21.99,-30.31,-10.42,-14.35,-12.04,-16.9,-9.312,3.431,0.9537,-24.55,-7.418,-6.207,6.684,-8.044,0.0328,-2.243,0,0,0,0,0,0,0,0,0,0,0,0,0,0,0,0,
635,-3.499,-4.041,2.969,3.06,3.275,-2.613,-0.0511,16.23,12.17,-4.555,0.7854,0.9499,16.08,0.8684,1.129,-0.1575,0,0,0,0,0,0,0,0,0,0,0,0,0,0,0,0,
636,3.184,7.258,2.932,3.731,-0.2218,5.609,-4.271,2.761,12.14,1.908,-1.717,-10.5,11.85,-3.621,-3.492,-5.547,0,0,0,0,0,0,0,0,0,0,0,0,0,0,0,0,
637,-0.247,0.404,-1.578,2.639,-0.6292,13.81,-8.012,-16.14,5.443,3.2,-7.391,-7.974,6.034,2.102,-1.86,2.158,0,0,0,0,0,0,0,0,0,0,0,0,0,0,0,0,
638,-0.3547,-6.258,2.277,6.942,9.289,18.03,-8.882,-3.578,9.973,17.65,-10.78,8.352,4.614,15.41,1.474,13.29,0,0,0,0,0,0,0,0,0,0,0,0,0,0,0,0,
639,-4.442,-5.441,-1.783,4.245,7.586,10.06,-9.811,19.44,10.14,19.53,-6.491,16.71,10.61,19.71,8.06,17.89,0,0,0,0,0,0,0,0,0,0,0,0,0,0,0,0,
640,-1.446,-1.064,0.8462,3.806,10.49,13.18,3.715,10.54,9.483,11.39,6.959,13.52,20.71,16.31,13.04,18.57,0,0,0,0,0,0,0,0,0,0,0,0,0,0,0,0,
641,13.67,5.106,16.3,10.4,25.51,27.43,17.49,-2.721,18.33,14.04,12.88,10.25,24.62,13.6,8.489,15.72,0,0,0,0,0,0,0,0,0,0,0,0,0,0,0,0,
642,22.28,17.66,19.21,15.99,33.6,30.69,19.35,9.789,26.38,18.62,12.6,10.82,28.43,14.97,9.079,16.57,0,0,0,0,0,0,0,0,0,0,0,0,0,0,0,0,
643,21.58,25.25,15.3,18.51,36.65,29.37,24.08,6.685,32.92,20.11,17.12,6.533,34.97,16.78,13.11,18.66,0,0,0,0,0,0,0,0,0,0,0,0,0,0,0,0,
644,16.67,12.73,16.16,13.76,35.52,28.92,21.77,-9.941,35.33,20.16,12.3,3.5,30.82,16.18,5.952,14.3,0,0,0,0,0,0,0,0,0,0,0,0,0,0,0,0,
645,5.641,-5.029,8.444,4.381,25.09,23.48,6.059,9.942,27.37,15.83,3.984,9.274,22.76,15.46,6.027,14.54,0,0,0,0,0,0,0,0,0,0,0,0,0,0,0,0,
646,-0.9277,-5.524,1.002,2.897,20.8,21.77,0.8915,29.18,20.78,11.87,11.33,15.07,25.09,14.84,17.77,22.11,0,0,0,0,0,0,0,0,0,0,0,0,0,0,0,0,
647,6.922,10.11,9.034,8.005,27.39,23.94,6.213,9.207,21.22,11.57,16.52,20.32,28.06,14.55,19.51,26.01,0,0,0,0,0,0,0,0,0,0,0,0,0,0,0,0,
648,15.34,17.98,14.72,8.711,28.83,20.21,7.594,-2.511,23.21,14.77,12.65,22.76,28.7,17.66,18.81,25.96,0,0,0,0,0,0,0,0,0,0,0,0,0,0,0,0,
649,9.585,3.31,8.38,6.453,24.0,17.78,10.9,1.131,25.67,19.84,17.87,17.86,34.64,22.61,25.29,26.87,0,0,0,0,0,0,0,0,0,0,0,0,0,0,0,0,
650,2.379,-3.787,7.366,10.23,22.9,21.35,19.03,-2.113,27.86,23.85,24.87,19.69,37.71,25.75,27.12,29.68,0,0,0,0,0,0,0,0,0,0,0,0,0,0,0,0,
651,6.216,10.54,12.73,13.49,21.72,17.61,21.26,7.726,28.83,26.18,16.91,18.59,29.88,21.3,16.7,21.46,0,0,0,0,0,0,0,0,0,0,0,0,0,0,0,0,
652,4.742,4.945,8.033,4.413,11.04,4.132,9.322,15.15,20.48,17.5,-2.873,-6.675,13.44,4.912,-3.502,-2.035,0,0,0,0,0,0,0,0,0,0,0,0,0,0,0,0,
653,-4.343,-13.4,0.7877,-2.325,1.418,0.1489,-1.715,1.845,4.47,-0.1613,-10.57,-21.28,4.378,-5.537,-8.584,-9.776,0,0,0,0,0,0,0,0,0,0,0,0,0,0,0,0,
654,-0.4078,0.3488,8.717,5.977,8.053,10.02,7.935,-2.091,5.291,-2.566,7.622,-3.771,16.85,2.581,9.201,3.687,0,0,0,0,0,0,0,0,0,0,0,0,0,0,0,0,
655,3.447,14.79,13.28,8.833,12.89,11.07,13.55,-0.1511,15.91,5.932,15.28,4.737,22.34,5.877,7.483,4.334,0,0,0,0,0,0,0,0,0,0,0,0,0,0,0,0,
656,-11.43,-5.4,-4.723,-1.076,-1.885,0.5661,-6.183,-5.372,4.899,1.212,-8.732,-0.207,2.384,-0.8359,-16.06,-4.224,0,0,0,0,0,0,0,0,0,0,0,0,0,0,0,0,
657,-19.65,-23.1,-15.38,-5.572,-12.35,-0.4926,-16.95,-5.359,-12.03,-5.894,-22.9,7.233,-7.991,3.177,-18.39,1.21,0,0,0,0,0,0,0,0,0,0,0,0,0,0,0,0,T2
658,-7.527,-14.99,-1.846,-3.238,-3.433,3.614,-7.55,-10.86,-9.469,-0.7681,-15.77,10.56,-2.701,7.416,-11.29,6.783,0,0,0,0,0,0,0,0,0,0,0,0,0,0,0,0,
659,1.593,0.639,4.784,-0.1405,6.142,-0.1584,-7.992,-14.52,-3.781,-0.075,-17.26,3.21,-5.51,-0.885,-20.02,-2.949,0,0,0,0,0,0,0,0,0,0,0,0,0,0,0,0,
660,1.914,9.602,0.6783,6.095,12.68,2.049,-11.44,4.688,-2.567,-6.858,-18.51,6.007,-1.962,-2.687,-17.89,-9.113,0,0,0,0,0,0,0,0,0,0,0,0,0,0,0,0,
661,7.191,7.471,7.316,11.28,22.51,15.13,-0.0492,18.29,9.193,0.7613,-4.586,12.1,15.43,6.752,3.119,2.258,0,0,0,0,0,0,0,0,0,0,0,0,0,0,0,0,
662,11.12,1.631,10.29,10.97,22.28,15.79,5.142,10.16,20.5,13.66,0.0636,2.619,17.55,5.037,6.489,5.769,0,0,0,0,0,0,0,0,0,0,0,0,0,0,0,0,
663,0.9607,1.135,-0.0082,7.199,10.19,1.969,-5.163,6.206,11.94,6.822,-9.582,-6.832,3.941,-5.963,-4.582,-3.171,0,0,0,0,0,0,0,0,0,0,0,0,0,0,0,0,
664,-10.55,-4.767,-2.339,2.659,3.479,1.02,-7.824,11.91,1.208,-0.1282,-3.198,12.8,6.687,4.167,7.588,11.24,0,0,0,0,0,0,0,0,0,0,0,0,0,0,0,0,
665,-9.008,-17.66,4.614,1.038,2.249,10.65,3.117,11.56,5.929,11.14,19.77,40.07,24.9,28.72,31.08,37.63,0,0,0,0,0,0,0,0,0,0,0,0,0,0,0,0,
666,-1.003,-9.339,12.69,4.255,4.144,8.834,15.19,3.087,13.54,19.4,36.64,39.37,36.09,36.85,43.11,44.35,0,0,0,0,0,0,0,0,0,0,0,0,0,0,0,0,
667,10.27,19.41,26.46,14.26,19.36,10.54,27.44,7.968,23.56,23.82,47.74,33.65,43.84,38.47,54.83,46.47,0,0,0,0,0,0,0,0,0,0,0,0,0,0,0,0,
668,25.26,32.36,39.18,30.91,38.81,28.84,40.16,34.45,39.43,36.77,52.89,37.36,49.85,44.3,57.72,48.83,0,0,0,0,0,0,0,0,0,0,0,0,0,0,0,0,
669,36.32,36.11,47.34,42.18,46.38,40.87,48.33,45.68,45.8,46.74,49.03,34.45,48.93,45.75,51.69,49.48,0,0,0,0,0,0,0,0,0,0,0,0,0,0,0,0,
670,35.7,40.48,49.09,35.24,39.63,34.66,44.99,26.31,43.8,48.72,44.1,34.64,47.48,45.42,52.07,53.92,0,0,0,0,0,0,0,0,0,0,0,0,0,0,0,0,
671,13.78,11.07,26.92,12.85,13.1,13.47,20.57,8.503,33.1,37.82,25.19,27.06,30.93,28.83,28.24,32.81,0,0,0,0,0,0,0,0,0,0,0,0,0,0,0,0,
672,-17.48,-26.17,-2.575,-7.389,-17.41,-12.23,-7.702,-4.392,4.024,10.19,-5.875,1.352,0.9872,-1.595,-11.96,-2.901,0,0,0,0,0,0,0,0,0,0,0,0,0,0,0,0,
673,-24.89,-18.84,-5.015,-8.61,-20.76,-17.75,-9.08,-21.8,-11.66,-4.934,-7.957,-5.659,-2.912,-8.852,-10.89,-2.217,0,0,0,0,0,0,0,0,0,0,0,0,0,0,0,0,
674,-14.24,-4.942,2.776,2.531,-9.835,-9.388,1.249,-18.8,3.159,1.192,9.875,2.001,7.013,-5.767,4.3,8.541,0,0,0,0,0,0,0,0,0,0,0,0,0,0,0,0,
675,-9.767,-7.279,1.371,6.852,-9.19,-11.17,-4.99,4.046,7.82,-0.9374,0.4563,-2.39,-3.028,-15.22,-9.275,-3.052,0,0,0,0,0,0,0,0,0,0,0,0,0,0,0,0,
676,-4.442,4.259,3.594,4.438,-9.164,-7.978,-12.9,12.2,-3.73,-7.709,-19.35,-3.479,-10.23,-14.95,-15.15,-5.588,0,0,0,0,0,0,0,0,0,0,0,0,0,0,0,0,
677,1.823,6.063,6.879,3.808,-4.453,4.192,-6.451,2.334,-1.558,-3.059,-10.8,-1.447,-0.9946,-7.155,1.1,3.317,0,0,0,0,0,0,0,0,0,0,0,0,0,0,0,0,
678,1.042,-9.245,6.479,5.464,-1.002,1.19,1.629,-5.145,5.736,-0.6876,8.184,-1.945,4.298,-4.353,9.626,3.882,0,0,0,0,0,0,0,0,0,0,0,0,0,0,0,0,
679,6.039,3.239,11.98,12.84,5.561,-2.152,4.793,-1.9,4.863,1.05,9.983,6.254,3.975,4.718,7.867,5.953,0,0,0,0,0,0,0,0,0,0,0,0,0,0,0,0,
680,16.23,24.66,18.5,23.15,15.86,11.33,7.681,7.863,7.83,11.5,3.81,8.501,5.435,11.74,7.234,9.26,0,0,0,0,0,0,0,0,0,0,0,0,0,0,0,0,
681,21.38,21.53,22.26,25.76,25.72,19.06,7.705,17.59,15.43,15.45,0.1776,1.755,7.001,9.602,5.412,6.147,0,0,0,0,0,0,0,0,0,0,0,0,0,0,0,0,
682,28.42,23.72,29.42,23.13,32.94,19.36,5.288,20.19,20.0,15.57,-5.211,5.981,8.402,10.35,-0.5377,3.907,0,0,0,0,0,0,0,0,0,0,0,0,0,0,0,0,
683,28.37,28.9,26.75,16.94,28.86,20.9,4.126,0.1167,19.91,21.36,-7.639,4.766,8.92,5.598,-3.316,-0.6933,0,0,0,0,0,0,0,0,0,0,0,0,0,0,0,0,
684,10.58,7.597,6.838,5.588,13.42,9.995,0.1845,-32.45,12.39,14.56,-2.031,-13.45,6.139,-9.094,2.33,-9.227,0,0,0,0,0,0,0,0,0,0,0,0,0,0,0,0,
685,3.727,-2.935,-1.227,4.613,8.075,0.3452,-0.4443,-25.39,6.345,3.147,3.495,-9.142,4.959,-7.983,6.937,-3.736,0,0,0,0,0,0,0,0,0,0,0,0,0,0,0,0,
686,17.61,19.94,12.59,13.92,17.42,5.982,10.69,21.54,12.41,10.84,5.936,21.02,9.395,9.389,5.947,13.67,0,0,0,0,0,0,0,0,0,0,0,0,0,0,0,0,
687,17.65,21.95,15.63,11.21,15.7,4.992,14.55,35.28,15.31,18.38,6.616,22.22,10.12,12.46,6.096,16.59,0,0,0,0,0,0,0,0,0,0,0,0,0,0,0,0,
688,1.168,-10.33,0.6119,2.079,1.876,4.63,-0.8181,-0.0326,5.615,15.59,0.1034,-0.7625,5.827,6.359,4.639,5.688,0,0,0,0,0,0,0,0,0,0,0,0,0,0,0,0,
689,-4.85,-22.7,-7.604,3.326,1.095,17.65,-13.43,-18.28,2.47,20.34,-8.403,-2.055,6.503,10.95,-0.9742,2.257,0,0,0,0,0,0,0,0,0,0,0,0,0,0,0,0,
690,-2.207,-0.8854,-6.42,7.373,8.989,13.9,-12.55,-0.0609,10.16,22.53,-8.043,-0.7527,6.187,10.04,-5.363,1.48,0,0,0,0,0,0,0,0,0,0,0,0,0,0,0,0,
691,-1.633,15.53,-6.255,6.479,8.644,-4.652,-10.87,3.643,10.81,9.767,-7.101,-12.98,-0.6543,-2.326,-10.45,-10.25,0,0,0,0,0,0,0,0,0,0,0,0,0,0,0,0,
692,-2.075,5.128,-7.304,4.499,6.502,-3.243,-10.9,-14.2,3.736,0.4378,-10.47,-11.06,-4.539,-7.624,-15.07,-22.28,0,0,0,0,0,0,0,0,0,0,0,0,0,0,0,0,
693,-4.457,-11.21,-7.556,5.875,7.777,9.676,-6.284,-7.93,1.776,5.864,-8.143,-3.132,-4.268,-6.252,-14.28,-23.48,0,0,0,0,0,0,0,0,0,0,0,0,0,0,0,0,
694,-6.198,-11.92,-5.858,8.766,5.168,8.441,-1.261,13.21,3.897,12.15,-4.534,-6.959,-3.646,-6.147,-13.95,-20.35,0,0,0,0,0,0,0,0,0,0,0,0,0,0,0,0,
695,-6.217,-3.678,-7.543,5.207,-2.695,-2.672,-3.558,-1.385,1.988,6.265,-3.559,-15.27,-1.536,-8.843,-13.62,-19.83,0,0,0,0,0,0,0,0,0,0,0,0,0,0,0,0,
696,-8.909,1.734,-15.45,-0.6649,-9.124,-7.172,-8.615,-41.24,-2.145,-4.49,-0.4256,-27.81,-1.934,-15.6,-11.69,-25.09,0,0,0,0,0,0,0,0,0,0,0,0,0,0,0,0,
697,-10.66,-2.14,-19.83,-0.5184,-10.13,-5.97,-11.3,-51.39,-4.989,-10.84,-8.463,-35.76,-10.12,-22.36,-20.07,-35.93,0,0,0,0,0,0,0,0,0,0,0,0,0,0,0,0,
698,-8.289,-15.87,-19.29,0.5192,-6.783,-4.947,-17.23,-23.16,-7.86,-14.37,-27.01,-31.18,-19.38,-26.52,-33.96,-42.39,0,0,0,0,0,0,0,0,0,0,0,0,0,0,0,0,
699,-2.629,-18.11,-16.73,3.559,1.519,6.43,-22.41,3.322,-7.226,-9.892,-32.0,-27.29,-19.17,-25.75,-38.31,-38.56,0,0,0,0,0,0,0,0,0,0,0,0,0,0,0,0,
700,6.907,4.043,-7.371,9.959,9.104,16.74,-16.66,8.017,-2.475,1.038,-25.17,-25.64,-15.85,-19.93,-36.14,-33.19,0,0,0,0,0,0,0,0,0,0,0,0,0,0,0,0,
701,9.735,21.79,-0.5186,8.134,3.857,0.1856,-10.06,1.981,-2.217,-0.7476,-20.08,-19.01,-17.29,-17.04,-31.24,-31.33,0,0,0,0,0,0,0,0,0,0,0,0,0,0,0,0,
702,1.618,11.13,-4.327,3.453,-5.087,-14.18,-10.25,-4.54,-4.632,-11.37,-16.66,-9.47,-12.86,-13.73,-25.09,-24.15,0,0,0,0,0,0,0,0,0,0,0,0,0,0,0,0,
703,2.132,-4.18,-2.528,7.869,0.4665,1.966,-3.432,-3.103,0.7839,-8.431,-11.33,-2.484,-0.4784,-5.413,-18.65,-11.39,0,0,0,0,0,0,0,0,0,0,0,0,0,0,0,0,
704,14.35,4.095,8.172,11.43,12.38,14.33,8.742,-3.296,11.04,0.9419,0.3071,-7.106,6.814,-3.258,-9.417,-12.03,0,0,0,0,0,0,0,0,0,0,0,0,0,0,0,0,
705,21.01,21.18,13.26,10.9,18.54,10.98,10.76,-18.57,16.93,2.55,7.387,-17.15,5.779,-5.231,-8.713,-24.58,0,0,0,0,0,0,0,0,0,0,0,0,0,0,0,0,
706,24.46,24.62,17.43,13.77,24.03,17.87,9.526,-19.64,18.39,9.737,-2.837,-12.03,0.5762,0.2892,-19.86,-23.3,0,0,0,0,0,0,0,0,0,0,0,0,0,0,0,0,
707,27.61,19.55,24.19,14.04,27.36,24.75,12.28,-0.282,16.48,20.59,-13.03,-2.227,-2.587,2.611,-22.42,-16.79,0,0,0,0,0,0,0,0,0,0,0,0,0,0,0,0,
708,21.71,14.8,20.66,12.0,21.69,15.31,12.31,-2.807,11.88,11.51,-2.936,-11.86,3.818,-6.506,-8.481,-21.89,0,0,0,0,0,0,0,0,0,0,0,0,0,0,0,0,
709,15.85,14.16,10.9,14.79,13.16,6.478,12.91,-17.35,11.7,-3.769,16.08,-22.07,12.66,-11.18,5.179,-19.52,0,0,0,0,0,0,0,0,0,0,0,0,0,0,0,0,
710,14.61,13.1,5.107,12.23,5.976,2.949,10.44,-15.21,11.76,-4.369,12.55,-16.33,4.45,-12.07,-4.589,-17.41,0,0,0,0,0,0,0,0,0,0,0,0,0,0,0,0,
711,5.772,-0.5519,-2.002,1.617,-4.022,-7.835,-1.14,-15.45,-1.096,-10.93,-8.055,-19.33,-14.81,-23.47,-24.53,-33.58,0,0,0,0,0,0,0,0,0,0,0,0,0,0,0,0,
712,-2.592,-8.425,-7.032,-2.675,-9.282,-15.91,-0.7457,-16.27,-12.55,-24.82,-0.145,-25.39,-12.67,-26.86,-12.92,-35.21,0,0,0,0,0,0,0,0,0,0,0,0,0,0,0,0,
713,2.528,7.89,-1.321,-0.9013,-0.366,-6.982,13.27,-3.541,-2.812,-20.73,23.89,-16.17,4.426,-15.52,9.488,-19.69,0,0,0,0,0,0,0,0,0,0,0,0,0,0,0,0,
714,8.942,11.14,4.667,-2.142,7.516,3.408,9.25,-1.552,7.849,-14.82,11.22,-21.46,-2.604,-21.41,-6.072,-23.99,0,0,0,0,0,0,0,0,0,0,0,0,0,0,0,0,
715,3.102,-13.6,-1.278,-5.516,-1.125,0.6716,-9.374,-18.91,-3.415,-27.49,-19.34,-34.74,-22.94,-35.29,-30.92,-31.58,0,0,0,0,0,0,0,0,0,0,0,0,0,0,0,0,
716,-5.426,-12.58,-8.671,-3.218,-9.306,-1.323,-11.34,-30.57,-17.28,-31.2,-17.65,-17.44,-19.51,-24.31,-20.88,-19.24,0,0,0,0,0,0,0,0,0,0,0,0,0,0,0,0,
717,-3.025,17.9,-5.627,6.601,-5.723,1.571,-1.172,-26.51,-11.4,-14.22,8.688,-2.756,-2.748,-10.06,2.215,-10.74,0,0,0,0,0,0,0,0,0,0,0,0,0,0,0,0,
718,-4.622,10.54,-8.212,5.793,-10.99,-6.035,-6.672,-24.98,-4.839,-11.23,13.76,-19.49,-3.845,-17.65,-0.2943,-18.05,0,0,0,0,0,0,0,0,0,0,0,0,0,0,0,0,
719,-19.32,-22.33,-23.59,-6.949,-22.47,-16.09,-20.85,-35.22,-15.73,-27.74,-8.597,-29.19,-15.94,-26.88,-17.89,-24.03,0,0,0,0,0,0,0,0,0,0,0,0,0,0,0,0,
720,-17.08,-9.232,-24.84,-0.3438,-13.22,-9.831,-15.74,-30.39,-18.16,-29.39,-12.72,-16.98,-9.723,-19.7,-14.61,-17.91,0,0,0,0,0,0,0,0,0,0,0,0,0,0,0,0,
721,2.587,18.98,-10.55,17.8,4.205,3.72,-4.006,-5.336,-2.255,-16.31,1.267,-5.169,6.558,-8.004,-0.8874,-8.95,0,0,0,0,0,0,0,0,0,0,0,0,0,0,0,0,
722,6.528,9.099,-5.661,14.84,7.458,9.789,-6.764,1.629,3.187,-10.39,-1.974,-2.453,8.211,-5.633,-1.606,-8.03,0,0,0,0,0,0,0,0,0,0,0,0,0,0,0,0,
723,1.76,1.608,-6.686,4.88,6.536,8.165,-6.988,-6.63,1.086,-7.458,-3.069,-5.962,6.816,-8.081,-1.172,-10.28,0,0,0,0,0,0,0,0,0,0,0,0,0,0,0,0,
724,1.049,6.154,-5.909,2.405,3.55,2.577,-1.954,-4.585,5.883,-7.873,5.687,-11.03,6.501,-10.63,2.189,-11.82,0,0,0,0,0,0,0,0,0,0,0,0,0,0,0,0,
725,-1.544,-6.805,-5.633,-1.876,-1.903,0.4989,-2.196,-16.98,2.429,-15.74,1.711,-13.97,-2.63,-13.89,-4.317,-13.75,0,0,0,0,0,0,0,0,0,0,0,0,0,0,0,0,
726,5.26,-2.211,-0.6604,-1.541,3.999,4.071,4.259,-44.74,-2.337,-15.77,1.182,-14.39,-4.681,-13.27,-8.034,-12.17,0,0,0,0,0,0,0,0,0,0,0,0,0,0,0,0,
727,13.67,19.03,-0.8827,0.2838,8.188,5.064,7.008,-40.57,3.752,-9.839,4.926,-10.55,-0.5554,-10.53,-5.817,-6.041,0,0,0,0,0,0,0,0,0,0,0,0,0,0,0,0,
728,2.482,3.285,-14.8,-6.306,-5.391,2.189,-8.713,-10.77,-0.2745,-12.64,-3.429,-3.333,-2.874,-8.736,-2.826,-0.1823,0,0,0,0,0,0,0,0,0,0,0,0,0,0,0,0,
729,-7.65,-13.8,-26.11,-6.359,-15.82,0.2316,-18.72,5.157,-12.37,-17.15,-7.707,-0.8671,-1.548,-6.088,-1.574,-4.403,0,0,0,0,0,0,0,0,0,0,0,0,0,0,0,0,
730,2.965,12.29,-27.31,4.971,-10.23,4.325,-17.02,7.827,-10.74,-13.67,-10.17,-2.942,-1.32,-4.975,-10.88,-13.69,0,0,0,0,0,0,0,0,0,0,0,0,0,0,0,0,
731,15.11,25.11,-24.21,12.1,-4.314,14.85,-20.91,2.873,-4.65,-4.84,-19.62,-3.364,-7.149,-4.815,-15.93,-8.099,0,0,0,0,0,0,0,0,0,0,0,0,0,0,0,0,
732,9.833,1.502,-22.41,5.866,-11.15,12.54,-24.71,-12.73,-8.937,-2.693,-19.78,-10.09,-8.597,-8.838,-5.895,-0.5413,0,0,0,0,0,0,0,0,0,0,0,0,0,0,0,0,
733,-3.773,-2.857,-23.06,-9.872,-23.93,-8.595,-20.96,-24.74,-18.38,-14.43,-12.87,-15.88,-9.359,-16.32,0.6592,-5.788,0,0,0,0,0,0,0,0,0,0,0,0,0,0,0,0,
734,-4.477,9.507,-14.86,-17.58,-23.49,-17.52,-12.77,-25.0,-20.24,-20.27,-6.051,-2.738,-7.074,-12.75,3.439,-1.811,0,0,0,0,0,0,0,0,0,0,0,0,0,0,0,0,
735,2.329,-1.382,-3.947,-13.31,-13.66,-8.395,-6.496,-20.36,-12.2,-11.14,-0.9808,5.231,-3.201,-10.16,2.353,2.131,0,0,0,0,0,0,0,0,0,0,0,0,0,0,0,0,
736,-5.321,-10.81,-12.68,-14.34,-19.73,-11.2,-16.72,-20.41,-13.01,-14.27,-12.93,-9.391,-16.16,-25.75,-16.41,-18.51,0,0,0,0,0,0,0,0,0,0,0,0,0,0,0,0,
737,-18.14,-1.888,-28.34,-18.01,-36.64,-22.05,-36.37,-33.04,-29.79,-32.03,-29.89,-22.65,-32.49,-37.09,-30.63,-33.97,0,0,0,0,0,0,0,0,0,0,0,0,0,0,0,0,
738,-14.65,-5.438,-24.89,-14.14,-35.61,-15.4,-33.76,-39.05,-35.81,-33.55,-22.02,-26.03,-26.26,-30.34,-17.87,-20.97,0,0,0,0,0,0,0,0,0,0,0,0,0,0,0,0,
739,-3.107,-12.44,-10.58,-15.79,-18.26,-3.824,-13.15,-18.51,-18.88,-20.71,-4.835,-21.33,-10.17,-20.71,-2.679,-4.294,0,0,0,0,0,0,0,0,0,0,0,0,0,0,0,0,
740,-1.583,-1.256,-6.973,-24.68,-12.23,-10.94,-10.44,-1.685,-6.543,-20.02,-5.659,-12.49,-6.273,-19.04,-1.839,-2.591,0,0,0,0,0,0,0,0,0,0,0,0,0,0,0,0,
741,-6.215,2.955,-13.88,-23.71,-20.75,-21.4,-18.54,-6.308,-11.57,-27.87,-6.64,-11.38,-6.747,-20.64,1.647,-6.816,0,0,0,0,0,0,0,0,0,0,0,0,0,0,0,0,
742,-6.501,-9.689,-15.16,-17.95,-23.56,-14.4,-10.05,-5.081,-13.09,-25.73,5.355,-8.476,-0.4916,-15.05,7.03,-4.848,0,0,0,0,0,0,0,0,0,0,0,0,0,0,0,0,
743,-6.406,-15.36,-10.74,-18.8,-20.02,-4.118,-4.698,-4.218,-10.04,-18.35,1.604,-2.272,-3.867,-9.516,-4.024,-1.069,0,0,0,0,0,0,0,0,0,0,0,0,0,0,0,0,
744,-4.334,-7.86,-11.57,-13.19,-16.95,-2.982,-15.17,-14.77,-14.44,-15.69,-18.63,-2.835,-16.36,-10.99,-17.6,-2.293,0,0,0,0,0,0,0,0,0,0,0,0,0,0,0,0,
745,2.416,-0.6573,-14.93,-0.9731,-11.5,-6.027,-18.29,-5.625,-13.72,-15.8,-23.01,-0.8453,-16.55,-11.6,-13.93,-2.959,0,0,0,0,0,0,0,0,0,0,0,0,0,0,0,0,
746,-3.212,-2.353,-21.18,-3.737,-16.5,-16.41,-21.54,7.444,-13.9,-22.53,-17.58,-0.0726,-17.48,-17.02,-5.828,-0.2399,0,0,0,0,0,0,0,0,0,0,0,0,0,0,0,0,
747,-13.98,-5.172,-29.47,-12.61,-30.64,-23.76,-32.25,-16.34,-31.33,-31.51,-17.0,-1.765,-23.84,-21.95,-2.038,2.476,0,0,0,0,0,0,0,0,0,0,0,0,0,0,0,0,
748,-5.099,-1.568,-27.27,-7.923,-27.92,-14.02,-28.89,-36.33,-37.3,-24.09,-16.94,4.729,-18.95,-15.37,-4.866,-1.384,0,0,0,0,0,0,0,0,0,0,0,0,0,0,0,0,
749,2.268,-3.375,-24.12,-4.381,-19.88,-7.075,-24.06,-9.525,-24.09,-13.16,-25.25,4.198,-21.02,-18.54,-18.85,-13.28,0,0,0,0,0,0,0,0,0,0,0,0,0,0,0,0,
750,-8.176,-14.38,-30.17,-9.654,-25.46,-11.05,-29.58,21.43,-25.15,-22.43,-30.23,-6.089,-30.6,-30.4,-22.35,-18.42,0,0,0,0,0,0,0,0,0,0,0,0,0,0,0,0,
751,-9.4,-15.12,-27.88,-7.157,-22.63,-10.12,-23.68,12.84,-29.38,-30.86,-17.44,-8.205,-22.93,-24.84,-10.02,-12.27,0,0,0,0,0,0,0,0,0,0,0,0,0,0,0,0,
752,0.1011,2.15,-19.35,2.451,-7.747,-7.131,-13.93,-8.711,-18.04,-17.79,-13.05,1.12,-12.23,-8.087,-7.36,-4.734,0,0,0,0,0,0,0,0,0,0,0,0,0,0,0,0,
753,1.117,16.33,-20.03,6.608,-3.535,-2.863,-14.01,-4.422,-12.25,0.0735,-17.06,15.33,-9.329,3.332,-7.044,2.569,0,0,0,0,0,0,0,0,0,0,0,0,0,0,0,0,
754,-2.499,7.627,-21.77,0.4187,-9.809,1.974,-13.74,6.785,-14.85,5.793,-10.75,13.75,-8.994,-1.312,-2.152,0.8487,0,0,0,0,0,0,0,0,0,0,0,0,0,0,0,0,
755,-4.121,-9.386,-20.17,-13.11,-15.03,-5.733,-17.36,-0.8995,-17.86,-6.802,-15.24,-1.86,-18.63,-19.08,-13.52,-14.06,0,0,0,0,0,0,0,0,0,0,0,0,0,0,0,0,
756,-1.988,-9.753,-17.91,-17.66,-13.9,-11.71,-23.2,-2.976,-24.22,-25.08,-29.05,-2.868,-26.48,-24.86,-27.45,-22.57,0,0,0,0,0,0,0,0,0,0,0,0,0,0,0,0,
757,0.2734,-3.658,-14.8,-11.13,-10.55,-5.876,-23.4,6.304,-24.33,-24.67,-28.57,-0.0808,-22.88,-18.07,-23.83,-18.47,0,0,0,0,0,0,0,0,0,0,0,0,0,0,0,0,
758,-6.442,-7.371,-21.65,-14.01,-15.31,-9.118,-31.5,4.639,-22.35,-16.12,-26.17,-3.055,-19.79,-13.68,-16.8,-11.05,0,0,0,0,0,0,0,0,0,0,0,0,0,0,0,0,
759,-9.078,-5.361,-32.09,-18.23,-19.0,-14.06,-40.19,9.402,-26.41,-15.45,-24.33,7.314,-12.26,-4.89,-6.684,-0.1746,0,0,0,0,0,0,0,0,0,0,0,0,0,0,0,0,
760,4.252,5.718,-26.74,-7.35,-12.33,-6.153,-33.99,22.68,-20.2,-9.576,-15.62,16.21,-1.403,3.363,6.72,8.575,0,0,0,0,0,0,0,0,0,0,0,0,0,0,0,0,
761,9.819,2.295,-23.26,-5.79,-12.87,-2.627,-32.55,12.38,-13.08,-4.725,-18.42,9.47,-5.519,-2.447,1.78,5.984,0,0,0,0,0,0,0,0,0,0,0,0,0,0,0,0,
762,1.657,-6.889,-32.94,-16.71,-17.15,-1.829,-34.66,-1.854,-20.05,-10.5,-21.76,5.136,-10.15,-9.333,-7.006,-0.8961,0,0,0,0,0,0,0,0,0,0,0,0,0,0,0,0,
763,7.809,5.075,-25.46,-10.45,-1.171,7.375,-15.03,0.8811,-12.64,-7.663,0.0419,2.077,4.741,-5.735,6.396,-1.567,0,0,0,0,0,0,0,0,0,0,0,0,0,0,0,0,
764,21.78,19.98,-3.674,-4.224,13.07,5.161,6.028,-11.19,7.815,-1.431,17.17,-6.631,14.42,-2.979,14.83,1.329,0,0,0,0,0,0,0,0,0,0,0,0,0,0,0,0,
765,19.72,17.38,0.7026,-14.43,0.6544,-10.67,2.855,-27.02,6.047,-9.62,6.894,-5.901,4.735,-3.659,3.252,2.129,0,0,0,0,0,0,0,0,0,0,0,0,0,0,0,0,
766,17.36,16.5,-0.4532,-9.373,-6.539,-9.909,-3.602,-6.248,-3.44,-14.19,1.384,3.68,3.237,2.533,0.5271,3.178,0,0,0,0,0,0,0,0,0,0,0,0,0,0,0,0,
767,22.68,16.48,5.93,3.854,3.632,6.359,-3.179,22.51,0.2767,-4.798,5.319,3.054,8.51,7.352,0.8384,3.49,0,0,0,0,0,0,0,0,0,0,0,0,0,0,0,0,
768,15.31,1.712,-1.995,-3.382,-2.234,4.434,-15.34,19.46,-3.515,-1.878,-11.18,-7.088,-6.063,-2.861,-16.68,-6.465,0,0,0,0,0,0,0,0,0,0,0,0,0,0,0,0,
769,0.073,-8.741,-21.16,-10.76,-22.25,-16.24,-36.24,4.22,-20.65,-14.52,-32.87,-15.17,-25.45,-18.28,-27.67,-20.71,0,0,0,0,0,0,0,0,0,0,0,0,0,0,0,0,
770,-6.816,-5.544,-28.38,-9.261,-30.33,-25.44,-45.19,0.4729,-33.87,-28.41,-32.08,-14.23,-27.29,-23.04,-18.6,-17.38,0,0,0,0,0,0,0,0,0,0,0,0,0,0,0,0,
771,-9.363,-2.604,-31.84,-15.88,-32.16,-25.13,-47.15,-5.056,-38.95,-32.05,-30.91,-3.549,-25.31,-18.73,-14.62,-3.682,0,0,0,0,0,0,0,0,0,0,0,0,0,0,0,0,
772,-13.12,-3.061,-45.11,-21.29,-38.84,-30.04,-53.56,-21.06,-42.11,-32.45,-39.18,-2.692,-26.95,-17.24,-17.41,-4.75,0,0,0,0,0,0,0,0,0,0,0,0,0,0,0,0,
773,-14.76,-10.77,-52.17,-14.25,-37.67,-18.51,-46.27,-18.62,-41.04,-30.84,-23.1,-7.095,-12.6,-11.53,-2.595,-1.24,0,0,0,0,0,0,0,0,0,0,0,0,0,0,0,0,
774,-3.884,-11.25,-36.73,-2.05,-17.93,10.41,-13.81,10.42,-21.14,-12.73,11.71,14.5,18.78,12.07,21.95,27.39,0,0,0,0,0,0,0,0,0,0,0,0,0,0,0,0,
775,15.1,11.41,-13.62,3.177,1.233,16.11,11.18,17.7,8.638,11.42,21.72,33.32,32.54,27.54,23.7,41.46,0,0,0,0,0,0,0,0,0,0,0,0,0,0,0,0,
776,17.52,19.63,-4.342,-5.387,-0.4412,0.86,9.665,-4.73,13.77,12.53,12.53,20.02,20.45,15.4,8.617,22.7,0,0,0,0,0,0,0,0,0,0,0,0,0,0,0,0,
777,10.4,6.924,-3.646,-10.66,-5.833,-3.006,6.481,-7.448,1.095,-2.302,13.26,11.17,12.82,4.061,5.414,7.928,0,0,0,0,0,0,0,0,0,0,0,0,0,0,0,0,
778,14.25,12.77,-2.677,-5.034,-5.764,-6.144,3.659,2.36,-1.567,-10.71,9.174,7.07,4.985,-3.696,1.216,0.4028,0,0,0,0,0,0,0,0,0,0,0,0,0,0,0,0,
779,7.028,6.38,-11.17,-15.28,-22.94,-25.21,-15.92,-15.02,-13.31,-24.21,-12.97,-13.38,-20.1,-25.9,-18.71,-16.23,0,0,0,0,0,0,0,0,0,0,0,0,0,0,0,0,
780,-12.1,-24.57,-21.31,-33.13,-42.13,-36.8,-28.03,-35.61,-38.83,-45.45,-24.38,-17.35,-30.86,-35.67,-23.03,-19.07,0,0,0,0,0,0,0,0,0,0,0,0,0,0,0,0,
781,-3.627,-14.2,-11.01,-21.19,-27.62,-21.47,-13.75,-18.12,-36.21,-40.29,-12.07,4.612,-11.84,-16.03,-2.993,-1.204,0,0,0,0,0,0,0,0,0,0,0,0,0,0,0,0,
782,15.22,15.96,1.157,-1.437,-7.425,-5.717,-4.509,16.7,-13.31,-15.07,-1.486,15.7,1.425,-0.0998,7.482,6.55,0,0,0,0,0,0,0,0,0,0,0,0,0,0,0,0,
783,6.258,7.079,-8.405,-6.815,-14.92,-14.92,-11.75,17.89,-12.42,-12.1,-1.335,9.668,-1.903,-0.5469,4.303,3.648,0,0,0,0,0,0,0,0,0,0,0,0,0,0,0,0,
784,-0.6833,-0.5237,-14.3,-11.94,-19.66,-23.68,-7.704,-5.45,-15.75,-17.16,1.7,9.659,1.165,4.604,5.077,9.463,0,0,0,0,0,0,0,0,0,0,0,0,0,0,0,0,
785,12.48,10.47,-8.088,-7.969,-7.719,-15.46,3.314,-4.446,-1.067,-6.365,3.965,10.3,7.955,9.335,5.99,8.766,0,0,0,0,0,0,0,0,0,0,0,0,0,0,0,0,
786,12.18,4.822,-17.22,-15.02,-8.001,-11.73,-2.522,6.236,4.292,-4.666,-1.111,-3.867,3.241,-1.795,4.537,-7.084,0,0,0,0,0,0,0,0,0,0,0,0,0,0,0,0,
787,4.112,-1.354,-28.62,-13.89,-14.59,-9.864,-11.53,-3.13,-5.632,-11.69,-6.437,-6.332,-1.918,-5.267,3.827,-10.73,0,0,0,0,0,0,0,0,0,0,0,0,0,0,0,0,
788,12.83,7.832,-17.65,4.406,-7.431,-1.528,-6.746,-2.481,-8.431,-5.727,-8.242,11.79,2.068,7.883,1.04,2.67,0,0,0,0,0,0,0,0,0,0,0,0,0,0,0,0,
789,19.07,13.23,-3.479,8.726,-2.393,-0.6708,-0.3959,13.9,-4.285,-0.4258,-4.243,18.33,6.071,14.04,2.189,11.82,0,0,0,0,0,0,0,0,0,0,0,0,0,0,0,0,
790,16.43,12.98,-0.3981,0.2924,-6.035,-0.7004,-0.4225,18.12,-1.648,-2.958,4.553,17.17,7.209,13.9,9.518,14.02,0,0,0,0,0,0,0,0,0,0,0,0,0,0,0,0,
791,24.35,16.46,1.846,-1.611,-2.477,3.291,1.02,13.11,-0.4036,-3.993,12.82,12.82,8.967,11.98,17.87,14.14,0,0,0,0,0,0,0,0,0,0,0,0,0,0,0,0,
792,31.5,20.41,5.793,-5.952,2.828,-2.725,7.353,-5.737,0.2367,-10.83,20.12,-6.354,9.017,-0.4291,22.6,8.775,0,0,0,0,0,0,0,0,0,0,0,0,0,0,0,0,
793,23.85,10.92,7.548,-14.21,-4.299,-10.89,9.693,-32.57,-2.375,-24.68,11.82,-7.231,0.0446,-11.01,6.128,-1.288,0,0,0,0,0,0,0,0,0,0,0,0,0,0,0,0,
794,20.07,0.5932,7.423,-11.59,-12.18,-11.3,3.742,-20.93,-10.92,-30.79,-13.79,15.87,-13.21,-9.15,-18.77,-5.837,0,0,0,0,0,0,0,0,0,0,0,0,0,0,0,0,
795,24.99,20.05,5.61,-1.677,-9.772,-12.69,0.9371,18.29,-15.03,-26.98,-16.2,18.62,-12.24,-5.949,-9.639,0.08,0,0,0,0,0,0,0,0,0,0,0,0,0,0,0,0,
796,20.16,36.91,-1.576,-1.602,-12.58,-17.28,1.008,26.4,-11.89,-27.94,5.527,3.045,-5.117,-9.002,11.94,5.05,0,0,0,0,0,0,0,0,0,0,0,0,0,0,0,0,
797,12.26,15.48,-12.7,-11.57,-24.04,-21.37,-9.925,5.58,-17.43,-36.26,3.83,-4.712,-11.53,-12.88,5.971,5.217,0,0,0,0,0,0,0,0,0,0,0,0,0,0,0,0,
798,13.69,-1.175,-20.98,-16.56,-28.99,-22.3,-24.71,-10.9,-27.05,-37.01,-13.14,-5.22,-16.58,-10.94,2.659,10.72,0,0,0,0,0,0,0,0,0,0,0,0,0,0,0,0,
799,10.3,1.892,-24.96,-13.11,-30.48,-16.56,-25.95,-14.01,-25.54,-28.28,-4.353,-1.708,-8.083,-6.196,21.93,18.7,0,0,0,0,0,0,0,0,0,0,0,0,0,0,0,0,
800,6.795,-0.1221,-18.21,-5.815,-27.41,-5.937,-14.96,-7.887,-18.42,-17.54,12.12,4.948,0.0042,-1.115,27.7,20.18,0,0,0,0,0,0,0,0,0,0,0,0,0,0,0,0,
801,20.48,16.02,-1.18,4.777,-11.29,1.536,-5.389,-5.446,-12.12,-6.418,0.7415,8.297,-0.5102,3.274,10.14,16.04,0,0,0,0,0,0,0,0,0,0,0,0,0,0,0,0,
802,32.22,44.83,5.787,12.24,-1.161,3.405,-1.946,-4.277,-7.325,-2.192,-11.98,7.317,-3.171,3.279,3.363,11.59,0,0,0,0,0,0,0,0,0,0,0,0,0,0,0,0,
803,28.82,37.17,3.93,11.74,-4.646,6.772,3.632,9.89,-4.699,-3.324,3.46,9.056,1.625,6.589,13.48,10.34,0,0,0,0,0,0,0,0,0,0,0,0,0,0,0,0,
804,26.27,15.85,10.74,8.646,-3.438,9.463,11.95,19.81,-1.678,0.1702,14.09,8.808,6.807,10.95,13.51,9.7,0,0,0,0,0,0,0,0,0,0,0,0,0,0,0,0,
805,30.05,27.31,19.74,8.187,2.837,7.311,17.89,9.469,1.446,2.348,8.627,2.602,6.025,6.303,10.59,11.45,0,0,0,0,0,0,0,0,0,0,0,0,0,0,0,0,
806,37.7,44.19,22.49,10.55,6.789,9.817,21.2,2.202,5.758,2.337,15.08,8.191,11.97,7.691,21.17,17.8,0,0,0,0,0,0,0,0,0,0,0,0,0,0,0,0,
807,40.2,34.32,16.1,8.475,3.722,11.22,10.86,8.026,8.487,5.692,14.95,20.45,14.16,14.75,22.0,17.94,0,0,0,0,0,0,0,0,0,0,0,0,0,0,0,0,
808,28.2,20.87,-0.9293,1.651,-7.676,3.431,-13.32,5.199,-0.2065,3.115,-7.626,17.09,-0.2085,10.4,8.301,11.16,0,0,0,0,0,0,0,0,0,0,0,0,0,0,0,0,
809,21.24,22.64,-11.43,3.922,-9.548,5.852,-26.53,-1.48,-12.12,-2.078,-23.16,12.71,-7.692,8.857,1.293,9.05,0,0,0,0,0,0,0,0,0,0,0,0,0,0,0,0,
810,28.43,27.61,-12.3,12.5,-1.567,17.71,-26.41,14.03,-11.51,3.691,-25.7,19.02,-4.275,15.22,-1.827,10.04,0,0,0,0,0,0,0,0,0,0,0,0,0,0,0,0,
811,27.32,30.86,-19.87,12.46,-5.888,15.5,-28.55,30.97,-6.561,8.415,-26.7,18.29,-8.488,10.84,-7.662,5.142,0,0,0,0,0,0,0,0,0,0,0,0,0,0,0,0,
812,20.25,33.03,-23.75,7.558,-14.84,4.119,-27.95,16.77,-11.49,-1.577,-24.11,6.115,-15.39,-2.23,-12.0,-5.297,0,0,0,0,0,0,0,0,0,0,0,0,0,0,0,0,
813,22.62,28.38,-13.42,3.714,-13.02,-3.75,-17.97,2.942,-18.92,-14.58,-14.44,-3.89,-13.37,-9.773,-7.255,-6.506,0,0,0,0,0,0,0,0,0,0,0,0,0,0,0,0,
814,22.95,24.81,-3.285,0.0485,-8.881,-8.62,-6.272,13.17,-15.36,-17.72,-2.267,-3.056,-7.027,-7.553,2.759,4.502,0,0,0,0,0,0,0,0,0,0,0,0,0,0,0,0,
815,19.76,30.93,4.741,2.522,-6.186,-8.803,-2.601,10.11,-8.309,-13.63,-10.24,0.9029,-11.95,-5.229,-7.322,2.738,0,0,0,0,0,0,0,0,0,0,0,0,0,0,0,0,
816,25.34,31.46,10.34,9.099,-5.332,-6.484,-8.62,-6.933,-11.53,-11.17,-34.29,-1.183,-24.8,-10.94,-27.17,-13.65,0,0,0,0,0,0,0,0,0,0,0,0,0,0,0,0,
817,28.24,20.17,1.415,11.11,-11.36,-2.615,-13.85,-1.072,-17.96,-11.78,-36.27,-4.667,-23.65,-13.43,-22.24,-18.02,0,0,0,0,0,0,0,0,0,0,0,0,0,0,0,0,
818,23.58,18.27,-7.209,12.95,-15.14,3.629,-10.63,15.47,-17.03,-8.373,-21.88,-4.759,-15.31,-9.316,-9.642,-11.71,0,0,0,0,0,0,0,0,0,0,0,0,0,0,0,0,
819,26.99,24.57,2.79,14.89,-10.86,0.6115,-2.903,15.66,-14.06,-6.067,-14.81,-0.9469,-14.4,-10.79,-8.77,-10.04,0,0,0,0,0,0,0,0,0,0,0,0,0,0,0,0,
820,32.76,20.16,15.15,10.62,-6.14,-8.455,6.962,1.966,-11.42,-14.47,-2.575,4.609,-7.528,-12.31,1.421,-4.539,0,0,0,0,0,0,0,0,0,0,0,0,0,0,0,0,
821,36.57,29.89,24.09,11.77,6.065,-3.077,21.42,-3.798,0.985,-15.56,22.49,13.75,11.99,0.833,28.82,16.06,0,0,0,0,0,0,0,0,0,0,0,0,0,0,0,0,
822,52.89,66.41,37.77,24.88,27.41,10.09,35.7,20.25,21.41,2.092,46.23,28.9,30.06,19.09,53.04,37.97,0,0,0,0,0,0,0,0,0,0,0,0,0,0,0,0,
823,64.64,73.58,38.38,31.89,33.19,14.99,36.42,40.08,29.83,13.22,49.45,30.73,32.5,21.7,53.15,39.92,0,0,0,0,0,0,0,0,0,0,0,0,0,0,0,0,
824,48.64,36.37,16.12,23.65,16.36,12.28,19.95,14.14,19.44,7.822,33.06,14.98,20.96,12.81,37.97,26.54,0,0,0,0,0,0,0,0,0,0,0,0,0,0,0,0,
825,27.36,12.35,-8.503,10.9,-2.466,0.1404,0.4697,-8.331,3.309,-0.035,22.0,6.967,10.67,7.352,28.73,15.19,0,0,0,0,0,0,0,0,0,0,0,0,0,0,0,0,
826,25.41,20.37,-15.11,6.404,-5.215,-7.872,-6.097,8.342,-4.203,-5.509,17.41,6.068,7.97,4.029,19.16,8.859,0,0,0,0,0,0,0,0,0,0,0,0,0,0,0,0,
827,33.48,37.1,-2.08,10.72,8.656,0.8569,1.399,11.13,4.576,-6.053,10.88,0.9777,8.473,-1.52,6.929,1.399,0,0,0,0,0,0,0,0,0,0,0,0,0,0,0,0,
828,35.11,46.75,10.1,10.03,15.89,-1.41,10.26,-14.82,13.93,-7.627,13.43,-2.123,7.097,-7.28,4.551,-6.328,0,0,0,0,0,0,0,0,0,0,0,0,0,0,0,0,
829,35.8,42.21,15.24,5.785,9.932,-13.52,16.71,-22.46,8.251,-13.4,20.71,4.487,8.158,-2.235,13.4,3.41,0,0,0,0,0,0,0,0,0,0,0,0,0,0,0,0,
830,45.92,38.51,26.08,9.583,12.68,-5.391,23.76,-0.0347,6.925,-6.965,25.79,22.43,19.16,15.86,31.82,28.96,0,0,0,0,0,0,0,0,0,0,0,0,0,0,0,0,
831,49.15,42.84,26.42,9.292,16.08,0.6075,18.87,17.28,13.14,2.065,28.28,28.91,23.74,21.59,39.79,34.15,0,0,0,0,0,0,0,0,0,0,0,0,0,0,0,0,
832,40.76,34.3,14.61,4.005,9.868,-2.533,6.562,6.688,9.757,-1.597,17.07,16.87,16.66,14.46,23.94,21.21,0,0,0,0,0,0,0,0,0,0,0,0,0,0,0,0,
833,43.24,24.18,22.75,12.6,14.41,12.61,11.8,-0.7518,12.47,3.706,5.975,16.87,19.29,18.13,16.23,21.74,0,0,0,0,0,0,0,0,0,0,0,0,0,0,0,0,
834,50.9,35.06,36.5,24.1,22.12,21.57,22.67,14.97,22.01,14.39,13.12,23.75,23.57,22.89,26.78,28.43,0,0,0,0,0,0,0,0,0,0,0,0,0,0,0,0,
835,52.57,46.46,31.98,24.47,20.87,13.54,21.72,17.02,17.97,12.54,22.81,24.99,22.36,26.92,34.64,34.01,0,0,0,0,0,0,0,0,0,0,0,0,0,0,0,0,
836,59.12,52.29,28.09,24.4,25.27,15.78,23.04,8.685,17.22,17.7,25.24,37.72,28.29,38.66,36.8,40.54,0,0,0,0,0,0,0,0,0,0,0,0,0,0,0,0,
837,60.31,63.91,24.93,23.23,25.43,13.53,23.12,21.45,22.2,24.67,20.85,44.16,25.62,37.17,27.77,33.01,0,0,0,0,0,0,0,0,0,0,0,0,0,0,0,0,
838,49.26,54.81,14.07,17.51,15.23,6.533,14.2,25.23,14.06,15.5,13.25,29.03,16.5,28.0,16.61,23.69,0,0,0,0,0,0,0,0,0,0,0,0,0,0,0,0,
839,41.42,25.2,7.108,16.33,13.43,16.55,8.449,8.237,11.2,14.75,13.38,19.97,21.12,29.64,19.93,26.24,0,0,0,0,0,0,0,0,0,0,0,0,0,0,0,0,
840,35.24,22.2,-0.6731,20.5,13.12,18.48,-0.041,7.244,15.12,22.39,9.623,24.8,19.18,27.3,18.66,22.78,0,0,0,0,0,0,0,0,0,0,0,0,0,0,0,0,
841,34.66,41.29,-6.656,27.83,11.85,11.53,-10.42,23.44,7.718,18.58,-0.5867,31.57,9.366,24.09,13.76,21.11,0,0,0,0,0,0,0,0,0,0,0,0,0,0,0,0,
842,48.3,48.42,4.773,33.92,24.23,21.56,-2.422,34.98,10.32,21.44,5.043,37.07,12.9,28.6,20.41,28.79,0,0,0,0,0,0,0,0,0,0,0,0,0,0,0,0,
843,53.66,50.36,16.38,26.6,30.61,22.34,11.17,23.99,22.39,27.57,14.8,34.05,13.61,22.4,17.76,21.01,0,0,0,0,0,0,0,0,0,0,0,0,0,0,0,0,
844,42.51,47.36,11.96,10.65,15.28,3.583,10.53,-6.113,13.85,14.19,11.28,17.22,4.422,6.129,7.384,3.298,0,0,0,0,0,0,0,0,0,0,0,0,0,0,0,0,
845,34.56,31.56,6.608,3.25,3.029,-3.255,6.465,-12.55,-1.132,0.6265,4.828,1.421,-0.3511,-1.202,3.592,-1.879,0,0,0,0,0,0,0,0,0,0,0,0,0,0,0,0,
846,32.12,25.65,6.848,3.898,5.418,-0.5277,5.577,5.043,-4.255,1.588,-5.054,3.013,-4.26,2.759,-5.35,0.4432,0,0,0,0,0,0,0,0,0,0,0,0,0,0,0,0,
847,30.04,27.69,6.414,0.8845,6.67,-3.913,3.718,-2.542,-6.186,2.146,-15.13,5.871,-9.325,3.773,-10.44,1.395,0,0,0,0,0,0,0,0,0,0,0,0,0,0,0,0,
848,27.82,10.96,6.883,-8.403,2.221,-7.192,2.013,-25.05,-6.586,-4.706,-14.39,-3.628,-11.42,-6.619,-6.677,-4.245,0,0,0,0,0,0,0,0,0,0,0,0,0,0,0,0,
849,22.82,-8.009,9.452,-14.93,1.179,-7.151,1.566,-20.48,-2.627,-16.07,-11.4,-6.376,-11.38,-13.71,-9.358,-12.59,0,0,0,0,0,0,0,0,0,0,0,0,0,0,0,0,
850,22.15,-3.154,11.31,-13.82,2.299,-11.43,1.326,-4.28,0.1833,-21.71,-10.05,-0.4772,-9.402,-9.692,-8.325,-10.58,0,0,0,0,0,0,0,0,0,0,0,0,0,0,0,0,
851,26.01,14.11,9.594,-14.54,-4.447,-27.44,-6.207,-9.634,-3.746,-20.35,-9.577,0.7967,-12.4,-7.537,-2.969,-4.927,0,0,0,0,0,0,0,0,0,0,0,0,0,0,0,0,
