%OpenBCI Raw EXG Data
%Number of channels = 16
%Sample Rate = 125 Hz
%Board = OpenBCI_GUI$BoardCytonSerialDaisy
Sample Index,EXG Channel 0,EXG Channel 1,EXG Channel 2,EXG Channel 3,EXG Channel 4,EXG Channel 5,EXG Channel 6,EXG Channel 7,EXG Channel 8,EXG Channel 9,EXG Channel 10,EXG Channel 11,EXG Channel 12,EXG Channel 13,EXG Channel 14,EXG Channel 15,Accel Channel 0,Accel Channel 1,Accel Channel 2,Other,Other.1,Other.2,Other.3,Other.4,Other.5,Other.6,Analog Channel 0,Analog Channel 1,Analog Channel 2,Timestamp,Other.7,Timestamp (Formatted),Annotations
1,-0.0,-0.0,-0.0,-0.0,-0.0,-0.0,-0.0,-0.0,0.0,-0.0,-0.0,-0.0,0.0,0.0,-0.0,-0.0,0,0,0,0,0,0,0,0,0,0,0,0,0,0,0,0,T0
2,-11.11,-9.023,-1.873,-4.713,0.8077,5.907,-2.702,-19.21,2.933,4.577,0.3408,-5.111,-3.094,-3.534,-0.6242,-4.762,0,0,0,0,0,0,0,0,0,0,0,0,0,0,0,0,
3,-13.23,-21.39,-0.0179,-6.555,6.736,12.94,0.6092,-2.601,9.985,15.85,0.4087,4.437,-0.1604,-4.125,-9.4,-11.1,0,0,0,0,0,0,0,0,0,0,0,0,0,0,0,0,
4,-14.25,-30.05,-5.46,-9.13,6.782,13.1,-8.14,3.515,5.588,7.719,-6.129,-4.261,-6.998,-10.03,-10.51,-11.51,0,0,0,0,0,0,0,0,0,0,0,0,0,0,0,0,
5,-16.39,-23.62,-11.03,-8.818,-1.476,5.123,-19.91,8.604,-6.729,-6.676,2.015,-10.29,-8.74,-9.501,7.749,2.037,0,0,0,0,0,0,0,0,0,0,0,0,0,0,0,0,
6,-14.21,-13.94,-7.04,-5.072,-2.5,-1.721,-12.96,23.19,-8.96,-7.705,12.72,2.271,-0.3349,-1.918,13.44,10.44,0,0,0,0,0,0,0,0,0,0,0,0,0,0,0,0,
7,-8.39,-12.97,-1.714,-5.263,4.315,0.0747,-1.83,11.35,-2.299,-8.306,1.841,-3.268,-2.002,-4.008,-2.389,-1.004,0,0,0,0,0,0,0,0,0,0,0,0,0,0,0,0,
8,-8.196,-17.28,-0.8647,-12.28,2.397,5.056,-5.433,-1.996,1.765,-5.779,-5.359,-14.09,-6.829,-7.995,-9.174,-14.92,0,0,0,0,0,0,0,0,0,0,0,0,0,0,0,0,
9,-19.76,-30.01,-5.427,-20.37,-6.279,3.03,-13.95,0.9943,-2.308,0.1025,-8.96,-10.33,-12.75,-9.569,-14.41,-22.72,0,0,0,0,0,0,0,0,0,0,0,0,0,0,0,0,
10,-27.7,-36.03,-12.37,-16.99,-11.26,-3.375,-15.86,-6.961,-10.97,-7.044,-21.03,-15.58,-24.99,-20.01,-26.04,-29.4,0,0,0,0,0,0,0,0,0,0,0,0,0,0,0,0,
11,-21.64,-22.1,-15.33,-5.697,-13.35,-9.042,-14.19,-16.44,-16.05,-21.92,-13.9,-22.04,-24.0,-28.38,-21.2,-27.16,0,0,0,0,0,0,0,0,0,0,0,0,0,0,0,0,
12,-14.32,-16.97,-11.49,-4.466,-4.404,-10.93,-5.733,-12.44,-9.319,-23.55,7.873,-12.79,-7.905,-19.6,-6.466,-11.71,0,0,0,0,0,0,0,0,0,0,0,0,0,0,0,0,
13,-11.31,-30.08,-6.734,-12.91,6.047,-7.144,4.486,-2.452,5.788,-11.16,10.54,-11.39,-1.288,-12.11,-3.633,-4.766,0,0,0,0,0,0,0,0,0,0,0,0,0,0,0,0,
14,-19.02,-40.2,-17.56,-21.43,-13.62,-12.28,-9.956,-1.746,1.162,-13.23,-4.804,-27.85,-13.5,-26.81,-12.21,-20.92,0,0,0,0,0,0,0,0,0,0,0,0,0,0,0,0,
15,-34.76,-36.11,-32.25,-18.77,-34.26,-24.85,-35.23,-12.29,-26.02,-30.78,-16.37,-29.7,-25.22,-36.5,-19.25,-28.87,0,0,0,0,0,0,0,0,0,0,0,0,0,0,0,0,
16,-25.35,-12.67,-19.64,1.608,-14.27,-16.54,-29.94,-3.719,-31.58,-26.99,-15.0,-9.483,-18.1,-18.75,-15.27,-12.65,0,0,0,0,0,0,0,0,0,0,0,0,0,0,0,0,
17,3.364,2.223,-0.0345,13.57,5.853,4.542,-9.336,11.85,-11.74,-12.79,-8.483,-7.171,-7.105,-9.377,-6.668,-5.213,0,0,0,0,0,0,0,0,0,0,0,0,0,0,0,0,
18,14.15,-9.207,2.127,6.103,5.599,11.56,-0.0937,-5.426,0.939,-15.62,-0.5522,-19.65,-2.972,-17.07,-2.313,-8.858,0,0,0,0,0,0,0,0,0,0,0,0,0,0,0,0,
19,14.43,-7.356,6.406,6.098,15.47,9.656,5.458,-21.68,11.77,-13.56,5.877,-14.22,1.609,-14.31,-4.918,-8.32,0,0,0,0,0,0,0,0,0,0,0,0,0,0,0,0,
20,7.865,0.2276,6.242,5.505,14.98,2.016,4.582,-6.01,19.16,-8.476,0.4725,-12.72,-5.023,-17.76,-12.73,-18.43,0,0,0,0,0,0,0,0,0,0,0,0,0,0,0,0,
21,-13.99,-16.81,-9.719,-10.6,-7.237,-13.15,-1.525,6.565,4.085,-23.01,-7.287,-24.53,-20.02,-32.14,-15.04,-29.39,0,0,0,0,0,0,0,0,0,0,0,0,0,0,0,0,
22,-22.38,-22.5,-16.94,-14.55,-12.93,-20.75,-7.921,-5.863,-14.76,-34.29,-11.06,-28.49,-24.73,-30.18,-13.97,-24.11,0,0,0,0,0,0,0,0,0,0,0,0,0,0,0,0,
23,-13.14,-20.77,-18.59,-5.822,-8.692,-13.98,-25.65,-27.75,-21.61,-24.63,-22.01,-30.42,-26.63,-19.93,-16.27,-17.25,0,0,0,0,0,0,0,0,0,0,0,0,0,0,0,0,
24,-14.19,-39.03,-28.04,-7.342,-14.96,1.329,-36.84,-28.48,-26.61,-7.32,-27.01,-19.63,-25.37,-10.8,-12.19,-9.309,0,0,0,0,0,0,0,0,0,0,0,0,0,0,0,0,
25,-17.72,-29.25,-25.64,-4.554,-10.54,13.33,-25.99,2.845,-25.48,5.808,-18.04,1.844,-16.05,-3.293,-7.094,-1.405,0,0,0,0,0,0,0,0,0,0,0,0,0,0,0,0,
26,-8.63,12.48,-11.43,9.831,5.236,7.92,-19.89,27.14,-13.09,2.802,-15.05,-3.996,-13.13,-11.77,-12.43,-8.524,0,0,0,0,0,0,0,0,0,0,0,0,0,0,0,0,
27,0.3987,22.82,-9.689,12.67,5.789,-7.435,-23.28,7.264,-2.869,-12.5,-17.37,-22.63,-15.91,-24.98,-16.67,-17.32,0,0,0,0,0,0,0,0,0,0,0,0,0,0,0,0,
28,-5.198,-2.665,-20.74,2.346,-11.67,-16.6,-21.59,-34.57,-6.712,-20.42,-12.72,-28.31,-19.01,-28.13,-14.05,-16.23,0,0,0,0,0,0,0,0,0,0,0,0,0,0,0,0,
29,-19.22,-29.96,-29.32,-4.777,-28.68,-19.3,-20.53,-42.33,-19.85,-23.05,-5.518,-28.94,-23.41,-28.41,-7.837,-15.0,0,0,0,0,0,0,0,0,0,0,0,0,0,0,0,0,
30,-18.92,-34.29,-30.31,-4.811,-28.39,-12.76,-16.9,-5.551,-24.85,-26.69,3.921,-16.15,-16.64,-23.1,6.102,-10.37,0,0,0,0,0,0,0,0,0,0,0,0,0,0,0,0,
31,-2.806,-11.77,-24.1,1.238,-8.539,4.959,-4.649,19.92,-12.06,-19.86,16.17,-4.58,-1.482,-17.35,17.23,-5.832,0,0,0,0,0,0,0,0,0,0,0,0,0,0,0,0,
32,4.82,-0.0975,-14.3,4.017,9.233,11.93,0.9254,0.8674,4.035,-13.11,11.9,-22.9,-1.724,-27.19,4.565,-17.65,0,0,0,0,0,0,0,0,0,0,0,0,0,0,0,0,
33,1.415,-8.727,-12.9,-7.621,5.016,-2.528,-9.212,-26.63,2.087,-26.13,-13.65,-42.7,-19.29,-41.39,-19.75,-31.69,0,0,0,0,0,0,0,0,0,0,0,0,0,0,0,0,
34,1.885,-9.412,-19.45,-17.11,-5.654,-11.11,-21.56,-26.23,-10.79,-35.18,-27.22,-34.12,-30.14,-38.09,-24.05,-26.75,0,0,0,0,0,0,0,0,0,0,0,0,0,0,0,0,
35,0.8513,-17.65,-20.6,-11.07,-7.818,-4.811,-24.13,-17.0,-13.61,-22.83,-18.44,-18.32,-25.04,-22.95,-11.99,-16.75,0,0,0,0,0,0,0,0,0,0,0,0,0,0,0,0,
36,-5.702,-30.13,-18.23,-5.018,-8.971,-4.376,-17.92,-18.11,-10.15,-12.38,-6.473,-13.57,-16.11,-13.12,0.6332,-11.72,0,0,0,0,0,0,0,0,0,0,0,0,0,0,0,0,
37,-5.418,-8.744,-14.98,-2.656,-1.778,-5.309,-5.356,0.7666,-5.888,-5.975,7.872,-7.941,-5.683,-6.946,11.18,-4.26,0,0,0,0,0,0,0,0,0,0,0,0,0,0,0,0,
38,-5.377,4.165,-10.68,-4.064,7.631,-2.096,2.099,24.73,1.647,1.312,8.159,-4.688,-1.767,-6.595,1.867,-7.41,0,0,0,0,0,0,0,0,0,0,0,0,0,0,0,0,
39,-11.68,-23.97,-15.82,-16.25,-2.295,-5.722,-4.738,1.538,1.836,-5.475,-11.29,-16.79,-12.88,-18.32,-15.39,-20.12,0,0,0,0,0,0,0,0,0,0,0,0,0,0,0,0,
40,-3.117,-30.84,-19.58,-20.89,-5.607,-4.022,-4.417,-22.05,1.115,-11.33,-4.763,-23.55,-13.11,-21.95,-2.523,-14.52,0,0,0,0,0,0,0,0,0,0,0,0,0,0,0,0,
41,9.015,-14.47,-9.023,-15.56,9.684,0.9691,9.238,-10.62,10.43,-4.494,16.7,-17.36,-0.5532,-13.41,12.16,-0.4465,0,0,0,0,0,0,0,0,0,0,0,0,0,0,0,0,
42,-1.464,-19.15,-6.309,-19.07,7.692,-8.467,6.732,-11.98,10.13,-7.222,8.84,-14.36,-1.331,-10.52,3.401,0.8996,0,0,0,0,0,0,0,0,0,0,0,0,0,0,0,0,
43,-7.455,-13.18,-15.92,-12.96,-4.465,-10.03,-8.887,-4.727,0.8965,-11.91,5.109,-5.616,-0.0058,-4.992,7.575,2.556,0,0,0,0,0,0,0,0,0,0,0,0,0,0,0,0,
44,5.194,9.523,-17.07,4.9,-2.796,3.306,-10.85,18.84,4.773,-2.209,16.67,2.919,8.661,4.489,15.33,5.777,0,0,0,0,0,0,0,0,0,0,0,0,0,0,0,0,
45,6.354,-0.441,-16.51,3.237,-1.84,7.886,-6.19,4.012,12.9,6.912,5.665,-2.414,4.311,7.295,-0.3083,0.0517,0,0,0,0,0,0,0,0,0,0,0,0,0,0,0,0,
46,-5.166,-29.28,-25.89,-3.484,-8.611,8.843,-7.758,-5.204,12.28,12.52,-6.729,-3.406,1.107,9.583,-8.267,-6.849,0,0,0,0,0,0,0,0,0,0,0,0,0,0,0,0,
47,-10.24,-29.37,-29.01,5.181,-11.96,9.196,-1.975,11.05,10.32,16.77,3.04,-3.775,6.573,6.853,-0.6221,-9.796,0,0,0,0,0,0,0,0,0,0,0,0,0,0,0,0,
48,-4.927,-5.783,-14.69,11.78,-2.138,6.483,14.82,-2.773,14.49,11.35,7.78,-10.39,4.962,-0.0937,-3.865,-9.558,0,0,0,0,0,0,0,0,0,0,0,0,0,0,0,0,
49,6.861,8.037,-1.914,15.52,11.78,13.2,17.09,6.064,20.07,7.012,-0.3569,-1.259,-0.7046,2.023,-12.31,-5.12,0,0,0,0,0,0,0,0,0,0,0,0,0,0,0,0,
50,9.998,5.819,-7.962,18.22,4.838,12.8,-0.4935,50.65,14.95,8.554,-5.37,12.05,-3.262,1.785,-12.46,-1.979,0,0,0,0,0,0,0,0,0,0,0,0,0,0,0,0,
51,-3.209,-1.567,-22.47,4.369,-14.97,-6.293,-13.47,31.43,2.399,0.8277,-5.308,2.547,-5.258,-8.502,-10.17,-6.909,0,0,0,0,0,0,0,0,0,0,0,0,0,0,0,0,
52,-15.85,-15.35,-31.3,-9.551,-21.79,-13.43,-17.51,-22.03,-4.969,-7.581,-4.73,-14.47,-7.367,-13.64,-7.494,-14.93,0,0,0,0,0,0,0,0,0,0,0,0,0,0,0,0,
53,-12.51,-20.98,-28.83,1.597,-12.03,0.4277,-14.4,-26.44,-3.862,0.4469,-1.732,-14.93,-3.488,-7.836,-1.717,-13.63,0,0,0,0,0,0,0,0,0,0,0,0,0,0,0,0,
54,-0.0867,-1.137,-16.43,17.82,6.668,11.86,-1.809,-4.246,8.232,9.981,-0.9836,-8.94,2.372,-4.338,-3.634,-9.98,0,0,0,0,0,0,0,0,0,0,0,0,0,0,0,0,
55,5.272,15.19,-9.897,14.82,11.99,8.421,-0.0346,20.0,19.37,5.853,-10.03,-13.92,-4.737,-12.54,-15.42,-17.05,0,0,0,0,0,0,0,0,0,0,0,0,0,0,0,0,
56,2.637,3.192,-14.04,3.324,-1.264,-0.3117,-7.326,26.04,14.69,0.0667,-11.56,-22.75,-11.38,-18.55,-15.58,-22.39,0,0,0,0,0,0,0,0,0,0,0,0,0,0,0,0,
57,-0.3936,-14.25,-17.42,-0.8882,-4.644,-0.4185,-6.204,-6.795,9.788,-0.3254,-3.213,-33.73,-8.394,-19.26,-14.18,-25.28,0,0,0,0,0,0,0,0,0,0,0,0,0,0,0,0,
58,-2.233,-11.35,-20.95,3.631,-1.997,-1.079,-15.69,-21.78,8.418,-5.45,-15.57,-42.88,-18.61,-27.15,-32.65,-36.07,0,0,0,0,0,0,0,0,0,0,0,0,0,0,0,0,
59,-1.911,-0.1119,-24.0,8.58,-10.03,-8.636,-30.59,6.184,-5.225,-15.18,-27.22,-28.89,-27.43,-26.85,-32.12,-32.92,0,0,0,0,0,0,0,0,0,0,0,0,0,0,0,0,
60,-5.918,-12.95,-22.34,5.209,-12.74,-7.943,-21.98,10.12,-15.67,-17.03,-4.431,-12.99,-14.95,-15.52,-3.726,-16.4,0,0,0,0,0,0,0,0,0,0,0,0,0,0,0,0,
61,-15.15,-34.17,-24.99,0.0937,-12.1,-7.681,-12.16,-16.46,-11.68,-12.0,3.663,-20.94,-14.66,-19.21,-9.568,-21.65,0,0,0,0,0,0,0,0,0,0,0,0,0,0,0,0,
62,-14.82,-27.98,-29.85,-1.418,-19.41,-18.31,-19.15,-12.51,-11.74,-13.85,-26.52,-26.64,-32.25,-30.85,-41.29,-37.43,0,0,0,0,0,0,0,0,0,0,0,0,0,0,0,0,
63,-11.57,-21.36,-27.4,-6.544,-19.96,-18.82,-21.12,12.96,-15.05,-22.85,-38.14,-24.79,-35.21,-31.0,-40.31,-34.77,0,0,0,0,0,0,0,0,0,0,0,0,0,0,0,0,
64,-15.98,-26.25,-23.04,-9.731,-14.89,-12.9,-17.02,4.3,-12.39,-26.69,-23.92,-26.55,-27.01,-24.58,-25.08,-26.92,0,0,0,0,0,0,0,0,0,0,0,0,0,0,0,0,
65,-12.26,-13.23,-19.77,-5.739,-14.89,-18.17,-17.65,-25.46,-12.03,-21.4,-21.27,-20.76,-24.05,-17.39,-26.72,-25.35,0,0,0,0,0,0,0,0,0,0,0,0,0,0,0,0,
66,-5.938,-10.83,-19.85,-3.664,-10.93,-18.74,-18.74,-24.87,-12.54,-13.17,-21.79,-15.35,-19.56,-11.67,-25.91,-21.52,0,0,0,0,0,0,0,0,0,0,0,0,0,0,0,0,
67,-14.33,-32.88,-29.15,-2.852,-7.489,-12.14,-19.44,-6.417,-7.952,-9.896,-13.51,-19.5,-11.42,-9.238,-18.01,-19.1,0,0,0,0,0,0,0,0,0,0,0,0,0,0,0,0,
68,-17.37,-26.27,-34.23,-1.046,-13.75,-12.75,-17.96,-4.165,-4.113,-10.17,-8.302,-20.82,-8.726,-7.796,-15.47,-21.56,0,0,0,0,0,0,0,0,0,0,0,0,0,0,0,0,
69,-5.746,-2.654,-24.47,-1.137,-14.43,-10.77,-10.57,1.496,-1.411,-6.871,-3.143,-14.43,-7.626,-5.772,-12.72,-20.01,0,0,0,0,0,0,0,0,0,0,0,0,0,0,0,0,
70,-4.458,-12.73,-16.06,-0.689,-6.084,-5.037,-4.961,17.75,2.209,-6.949,3.034,-6.803,-2.769,-5.379,-8.54,-14.97,0,0,0,0,0,0,0,0,0,0,0,0,0,0,0,0,
71,-9.145,-24.72,-13.05,-1.3,1.283,-3.032,-2.674,13.26,5.659,-11.91,0.6368,-7.235,-1.791,-8.251,-9.843,-13.92,0,0,0,0,0,0,0,0,0,0,0,0,0,0,0,0,
72,3.434,-4.01,-3.356,1.48,12.45,4.606,2.64,-4.737,11.86,-5.742,-2.76,-13.56,-2.873,-8.165,-12.8,-15.81,0,0,0,0,0,0,0,0,0,0,0,0,0,0,0,0,
73,17.14,9.715,3.713,13.12,19.93,10.84,5.118,-4.192,16.46,6.712,2.088,-15.26,1.45,-1.501,-9.341,-13.9,0,0,0,0,0,0,0,0,0,0,0,0,0,0,0,0,
74,14.25,-4.236,0.3116,18.12,13.85,7.795,4.797,10.23,17.04,11.26,8.844,-11.92,7.353,6.246,0.2784,-5.719,0,0,0,0,0,0,0,0,0,0,0,0,0,0,0,0,
75,7.109,-15.58,-2.883,10.89,8.73,8.828,7.444,13.92,20.2,11.88,9.018,-9.743,8.247,6.529,3.164,-4.146,0,0,0,0,0,0,0,0,0,0,0,0,0,0,0,0,
76,0.668,-12.45,-7.027,7.256,7.037,8.672,2.922,2.425,17.87,6.305,2.973,-12.99,1.081,-2.692,-3.254,-12.31,0,0,0,0,0,0,0,0,0,0,0,0,0,0,0,0,
77,3.177,1.264,-9.598,14.63,5.931,4.62,-2.735,-8.728,9.995,0.1246,3.583,-8.114,-1.873,-0.8808,0.5551,-6.15,0,0,0,0,0,0,0,0,0,0,0,0,0,0,0,0,
78,20.52,17.02,0.3276,26.46,12.1,10.14,5.543,-10.86,14.42,11.14,10.65,6.022,5.347,13.58,8.052,5.505,0,0,0,0,0,0,0,0,0,0,0,0,0,0,0,0,
79,21.62,9.99,4.979,25.29,9.125,10.42,9.385,-2.717,18.47,19.4,2.975,-3.719,-0.5651,5.779,-6.337,-8.569,0,0,0,0,0,0,0,0,0,0,0,0,0,0,0,0,
80,1.25,-10.37,-8.994,8.111,-8.614,-3.453,-0.4352,13.19,4.978,2.17,-12.05,-25.05,-16.98,-14.17,-22.54,-22.58,0,0,0,0,0,0,0,0,0,0,0,0,0,0,0,0,
81,-8.572,-12.89,-21.38,0.9151,-19.28,-14.31,-8.018,21.19,-8.07,-15.85,-9.159,-18.38,-18.23,-12.76,-17.48,-12.15,0,0,0,0,0,0,0,0,0,0,0,0,0,0,0,0,
82,-12.52,-10.47,-24.98,6.329,-24.18,-21.91,-13.55,20.32,-12.7,-19.36,-2.924,-6.903,-16.36,-9.618,-16.06,-9.953,0,0,0,0,0,0,0,0,0,0,0,0,0,0,0,0,
83,-19.96,-20.96,-30.76,-1.756,-33.19,-26.3,-20.76,11.14,-19.29,-24.65,-15.35,-19.68,-27.77,-23.4,-30.72,-27.54,0,0,0,0,0,0,0,0,0,0,0,0,0,0,0,0,
84,-20.57,-33.26,-38.48,-17.69,-43.49,-26.3,-29.46,-24.36,-29.23,-33.57,-31.84,-40.26,-41.35,-38.1,-41.78,-40.24,0,0,0,0,0,0,0,0,0,0,0,0,0,0,0,0,
85,-21.66,-34.78,-40.07,-15.38,-49.78,-32.39,-34.96,-50.91,-37.55,-34.99,-32.31,-40.29,-41.5,-35.21,-37.42,-35.57,0,0,0,0,0,0,0,0,0,0,0,0,0,0,0,0,
86,-20.08,-21.7,-31.9,-0.27,-43.8,-33.05,-23.84,-24.32,-32.59,-26.61,-19.22,-15.84,-26.9,-15.8,-22.15,-20.75,0,0,0,0,0,0,0,0,0,0,0,0,0,0,0,0,
87,-10.85,-10.6,-24.25,3.079,-39.45,-28.32,-13.76,5.271,-20.78,-21.33,-11.63,-6.874,-21.66,-12.16,-15.93,-17.26,0,0,0,0,0,0,0,0,0,0,0,0,0,0,0,0,
88,-14.07,-14.56,-24.09,-6.01,-47.73,-38.55,-22.75,0.5395,-25.88,-33.7,-17.19,-23.38,-32.52,-28.72,-25.63,-26.57,0,0,0,0,0,0,0,0,0,0,0,0,0,0,0,0,
89,-19.49,-18.63,-19.35,-6.655,-41.4,-37.43,-23.31,3.382,-32.6,-43.25,-18.37,-23.37,-32.53,-29.36,-28.33,-26.79,0,0,0,0,0,0,0,0,0,0,0,0,0,0,0,0,
90,-6.675,-18.06,-11.88,4.379,-22.61,-12.91,-12.1,20.93,-20.39,-28.97,-11.13,-15.38,-22.67,-20.47,-21.1,-22.56,0,0,0,0,0,0,0,0,0,0,0,0,0,0,0,0,
91,-0.8832,-15.93,-15.51,8.45,-22.8,-11.5,-11.19,11.38,-13.51,-19.64,-9.405,-27.33,-20.25,-22.2,-18.99,-24.2,0,0,0,0,0,0,0,0,0,0,0,0,0,0,0,0,
92,-11.35,-9.727,-20.88,2.218,-30.42,-27.06,-9.149,-28.77,-17.72,-23.86,-7.306,-29.92,-17.78,-16.52,-16.38,-19.11,0,0,0,0,0,0,0,0,0,0,0,0,0,0,0,0,
93,-11.44,-11.63,-18.14,2.551,-25.47,-17.55,-3.17,-43.55,-12.21,-12.84,-0.236,-9.78,-11.72,-2.413,-11.77,-8.986,0,0,0,0,0,0,0,0,0,0,0,0,0,0,0,0,
94,0.3794,-13.45,-10.38,14.45,-12.46,-0.5237,-0.2522,2.081,-2.914,0.2896,6.976,5.199,-2.863,6.44,-3.466,0.3462,0,0,0,0,0,0,0,0,0,0,0,0,0,0,0,0,
95,12.99,6.448,5.472,25.9,5.805,8.345,16.15,49.35,7.91,2.509,27.18,13.82,17.1,20.05,23.83,19.75,0,0,0,0,0,0,0,0,0,0,0,0,0,0,0,0,
96,26.42,24.24,21.71,31.68,23.06,25.78,36.88,43.61,28.04,17.41,55.04,26.37,38.57,36.61,52.7,40.76,0,0,0,0,0,0,0,0,0,0,0,0,0,0,0,0,
97,34.27,24.23,27.41,37.78,35.97,41.31,40.72,26.19,41.61,35.86,62.83,29.19,43.39,39.51,52.83,42.9,0,0,0,0,0,0,0,0,0,0,0,0,0,0,0,0,
98,33.81,32.21,27.87,40.14,42.48,36.28,37.46,28.25,42.21,38.93,48.51,19.4,32.62,32.15,30.89,28.07,0,0,0,0,0,0,0,0,0,0,0,0,0,0,0,0,
99,25.44,39.66,13.05,26.38,22.89,12.84,23.16,17.8,35.07,30.82,20.48,5.432,12.67,17.76,3.086,7.677,0,0,0,0,0,0,0,0,0,0,0,0,0,0,0,0,
100,8.235,24.04,-17.03,8.013,-9.328,-9.599,-3.639,-7.404,14.97,8.892,-6.908,-9.794,-5.993,-1.133,-13.8,-4.835,0,0,0,0,0,0,0,0,0,0,0,0,0,0,0,0,
101,0.1893,7.607,-24.03,5.612,-10.92,-5.088,-11.68,-12.9,1.114,-4.921,-8.931,-9.771,-6.153,-4.229,-6.953,-3.077,0,0,0,0,0,0,0,0,0,0,0,0,0,0,0,0,
102,5.598,0.8061,-13.13,6.109,-0.6248,7.346,-7.019,2.098,7.303,6.139,0.8622,-1.358,0.872,-0.1609,0.4703,-4.567,0,0,0,0,0,0,0,0,0,0,0,0,0,0,0,0,
103,-0.7868,-11.48,-21.62,-5.062,-14.25,-5.571,-15.74,12.44,4.534,2.248,-3.732,-9.581,-6.571,-10.29,-9.298,-13.51,0,0,0,0,0,0,0,0,0,0,0,0,0,0,0,0,
104,-17.69,-19.81,-32.31,-12.21,-27.54,-19.83,-19.41,13.06,-9.373,-19.58,-10.19,-10.83,-14.05,-10.9,-16.11,-9.622,0,0,0,0,0,0,0,0,0,0,0,0,0,0,0,0,
105,-26.64,-17.0,-31.39,-11.02,-30.62,-21.65,-13.73,9.534,-11.68,-20.06,-7.304,2.001,-11.52,1.31,-10.04,0.9002,0,0,0,0,0,0,0,0,0,0,0,0,0,0,0,0,
106,-28.14,-13.76,-34.4,-12.92,-39.43,-30.7,-18.89,-2.605,-13.23,-14.17,-4.14,-2.373,-11.57,-0.521,-4.537,-0.5837,0,0,0,0,0,0,0,0,0,0,0,0,0,0,0,0,
107,-23.15,-13.71,-32.67,-16.08,-38.72,-32.21,-25.01,-18.88,-17.99,-18.72,-6.597,-8.405,-10.05,-1.019,-6.793,-4.347,0,0,0,0,0,0,0,0,0,0,0,0,0,0,0,0,
108,-18.3,-22.75,-33.18,-17.54,-31.94,-22.07,-25.09,-23.71,-14.79,-14.1,-9.811,-4.101,-3.915,6.326,-8.919,-1.959,0,0,0,0,0,0,0,0,0,0,0,0,0,0,0,0,
109,-21.01,-32.2,-41.23,-16.79,-35.21,-21.91,-22.0,-16.21,-12.72,-9.384,-3.818,-6.492,-2.935,0.8117,-7.073,-3.321,0,0,0,0,0,0,0,0,0,0,0,0,0,0,0,0,
110,-15.52,-18.58,-19.34,-11.74,-23.59,-18.49,-4.022,-5.424,-9.966,-15.15,5.563,-4.264,-4.149,-4.875,-8.957,-7.804,0,0,0,0,0,0,0,0,0,0,0,0,0,0,0,0,
111,5.871,6.285,19.67,-6.223,2.612,-6.341,15.06,8.382,2.382,-13.01,10.22,0.1653,-1.812,-0.9147,-10.36,-7.547,0,0,0,0,0,0,0,0,0,0,0,0,0,0,0,0,
112,25.33,16.05,25.96,-2.128,9.145,-2.376,12.16,20.96,9.342,-7.262,10.56,-6.835,-1.944,-0.8884,-12.73,-9.693,0,0,0,0,0,0,0,0,0,0,0,0,0,0,0,0,
113,27.5,12.13,14.84,-2.261,3.04,2.15,3.859,15.49,5.0,-9.956,-0.9283,-10.71,-9.069,-2.428,-24.87,-14.56,0,0,0,0,0,0,0,0,0,0,0,0,0,0,0,0,
114,17.91,7.36,14.29,-9.23,4.676,7.743,7.21,-3.442,2.829,-8.273,-5.205,-8.332,-7.692,2.024,-19.47,-5.661,0,0,0,0,0,0,0,0,0,0,0,0,0,0,0,0,
115,15.03,9.628,15.81,-12.8,6.839,1.835,10.94,-7.77,7.354,-2.41,13.63,-5.747,8.471,6.691,1.602,5.589,0,0,0,0,0,0,0,0,0,0,0,0,0,0,0,0,
116,17.11,13.91,12.62,-11.07,1.226,-4.909,4.051,-3.848,10.85,-4.243,14.25,-2.377,10.01,4.623,-6.729,-2.052,0,0,0,0,0,0,0,0,0,0,0,0,0,0,0,0,
117,13.05,14.45,5.96,-11.96,-5.068,-5.997,-5.037,-14.65,6.297,-5.917,-0.7268,0.4915,-0.2168,4.678,-16.45,-6.669,0,0,0,0,0,0,0,0,0,0,0,0,0,0,0,0,
118,14.88,16.89,2.683,-10.24,-1.438,-5.603,-1.397,-18.76,2.411,-1.519,9.366,4.878,5.733,9.815,-1.708,0.4167,0,0,0,0,0,0,0,0,0,0,0,0,0,0,0,0,
119,21.01,16.15,4.937,-6.639,2.758,-5.167,4.493,-1.726,6.758,-2.794,7.074,1.227,2.407,0.6037,-13.16,-7.058,0,0,0,0,0,0,0,0,0,0,0,0,0,0,0,0,
120,14.08,10.15,3.307,-9.675,-4.785,-10.97,-2.901,10.79,5.66,-15.42,-16.33,-10.1,-14.56,-12.48,-30.93,-14.84,0,0,0,0,0,0,0,0,0,0,0,0,0,0,0,0,
121,5.407,8.425,1.948,-13.33,-10.61,-15.88,-6.313,13.76,-1.127,-23.91,-2.922,-5.291,-6.434,-3.925,-8.032,-2.207,0,0,0,0,0,0,0,0,0,0,0,0,0,0,0,0,
122,3.924,5.009,3.309,-13.75,-10.67,-14.14,0.2721,13.03,0.9119,-16.08,19.62,7.124,6.217,5.363,3.577,2.189,0,0,0,0,0,0,0,0,0,0,0,0,0,0,0,0,
123,1.171,3.266,-2.846,-13.63,-16.55,-20.52,-3.044,0.4041,3.477,-9.552,6.331,-1.746,-3.469,-2.355,-17.1,-13.51,0,0,0,0,0,0,0,0,0,0,0,0,0,0,0,0,
124,0.5462,5.114,-10.59,-11.94,-22.49,-26.29,-13.82,-14.07,-2.842,-15.79,-7.655,-22.99,-14.44,-12.34,-26.24,-26.32,0,0,0,0,0,0,0,0,0,0,0,0,0,0,0,0,
125,-2.016,-10.51,-13.11,-12.45,-24.9,-17.1,-22.31,-16.78,-11.76,-17.4,-10.72,-27.49,-21.28,-15.44,-24.7,-26.02,0,0,0,0,0,0,0,0,0,0,0,0,0,0,0,0,
126,-6.439,-16.28,-10.28,-10.26,-23.17,-12.67,-23.28,-8.197,-14.99,-12.21,-11.14,-11.66,-18.47,-4.741,-17.6,-11.93,0,0,0,0,0,0,0,0,0,0,0,0,0,0,0,0,
127,5.091,13.11,3.725,1.01,-7.911,-14.34,-4.54,3.754,-0.2304,-9.168,6.035,4.834,1.317,13.36,2.066,7.073,0,0,0,0,0,0,0,0,0,0,0,0,0,0,0,0,
128,11.46,17.61,10.85,0.7716,0.9441,-10.93,9.853,-0.7557,17.93,-4.553,14.71,10.25,6.586,13.93,6.094,9.841,0,0,0,0,0,0,0,0,0,0,0,0,0,0,0,0,
129,-10.27,-11.03,-6.691,-15.82,-19.88,-21.38,-10.11,-14.1,4.943,-8.343,-6.094,2.26,-11.39,-2.301,-11.46,-2.715,0,0,0,0,0,0,0,0,0,0,0,0,0,0,0,0,
130,-20.23,-14.74,-21.94,-20.23,-41.08,-36.29,-30.76,-8.638,-19.86,-24.75,-18.74,-11.0,-20.08,-13.1,-18.79,-10.29,0,0,0,0,0,0,0,0,0,0,0,0,0,0,0,0,
131,-7.574,-14.42,-19.73,-14.49,-37.46,-28.08,-26.88,-6.417,-20.33,-31.27,-10.91,-11.56,-16.89,-13.61,-11.25,-8.895,0,0,0,0,0,0,0,0,0,0,0,0,0,0,0,0,
132,-9.514,-23.73,-17.2,-14.81,-28.94,-20.73,-23.17,-22.06,-13.7,-24.16,-4.154,-4.915,-15.42,-9.204,-4.377,-4.64,0,0,0,0,0,0,0,0,0,0,0,0,0,0,0,0,
133,-12.13,-4.094,-12.2,-9.541,-25.23,-27.66,-20.92,-9.614,-12.48,-17.96,-2.705,-3.373,-11.45,-2.256,-4.376,-0.8049,0,0,0,0,0,0,0,0,0,0,0,0,0,0,0,0,
134,-3.223,5.27,-5.724,-7.786,-22.49,-27.16,-13.81,21.9,-7.447,-17.42,-9.372,-2.862,-12.74,-2.859,-11.46,-3.854,0,0,0,0,0,0,0,0,0,0,0,0,0,0,0,0,
135,-9.384,-17.51,-11.06,-21.01,-25.71,-26.04,-16.47,2.976,-11.72,-22.95,-15.95,-5.841,-20.22,-9.106,-15.24,-8.87,0,0,0,0,0,0,0,0,0,0,0,0,0,0,0,0,
136,-5.944,-4.872,-7.188,-16.42,-21.12,-24.41,-14.66,-38.64,-16.99,-21.38,-3.508,-7.428,-9.766,-1.491,-8.031,-3.55,0,0,0,0,0,0,0,0,0,0,0,0,0,0,0,0,
137,21.59,29.02,13.88,4.745,-2.486,-9.349,2.967,-23.04,1.668,-6.156,12.35,-2.761,8.933,7.92,1.129,5.545,0,0,0,0,0,0,0,0,0,0,0,0,0,0,0,0,
138,24.56,27.95,16.43,3.951,5.008,-4.895,9.558,14.98,19.17,-1.546,12.36,-0.616,9.755,3.596,6.699,10.34,0,0,0,0,0,0,0,0,0,0,0,0,0,0,0,0,
139,11.01,23.54,2.339,-5.722,0.7455,-12.37,0.8888,9.43,15.23,-7.815,8.54,4.087,5.798,8.158,8.5,11.27,0,0,0,0,0,0,0,0,0,0,0,0,0,0,0,0,
140,14.78,24.32,-2.277,-5.47,-0.681,-5.6,-8.65,-7.334,12.13,-0.6325,6.407,5.887,4.129,15.58,6.635,5.034,0,0,0,0,0,0,0,0,0,0,0,0,0,0,0,0,
141,10.86,4.013,-8.88,-10.0,-5.985,-0.8845,-17.57,-1.716,10.66,4.939,4.282,-2.147,-0.2839,5.706,7.931,0.9649,0,0,0,0,0,0,0,0,0,0,0,0,0,0,0,0,
142,4.056,-3.525,-13.42,-10.66,-7.686,-5.102,-12.68,5.999,6.953,-3.235,5.982,0.1237,3.765,1.801,6.54,5.78,0,0,0,0,0,0,0,0,0,0,0,0,0,0,0,0,
143,16.4,12.34,-0.3888,-3.22,-2.283,-2.054,1.24,3.067,14.64,-2.634,4.761,5.33,5.689,6.513,-3.437,5.387,0,0,0,0,0,0,0,0,0,0,0,0,0,0,0,0,
144,15.13,13.51,2.361,-8.776,-9.499,-8.083,-0.8134,-16.8,16.72,-0.0387,2.396,1.024,-2.472,4.417,-3.195,2.113,0,0,0,0,0,0,0,0,0,0,0,0,0,0,0,0,
145,2.401,7.537,-7.735,-15.5,-15.32,-17.18,-2.362,-26.62,5.641,-4.729,8.459,4.04,0.8466,9.485,6.393,5.454,0,0,0,0,0,0,0,0,0,0,0,0,0,0,0,0,
146,13.09,11.05,0.277,-10.18,-3.944,-7.016,6.022,9.611,8.555,3.574,8.419,0.7458,6.32,11.67,2.669,2.062,0,0,0,0,0,0,0,0,0,0,0,0,0,0,0,0,
147,16.8,2.887,6.262,-14.75,-4.763,-10.27,-3.571,29.1,11.94,5.343,-5.84,-16.9,-4.631,-4.717,-5.473,-7.876,0,0,0,0,0,0,0,0,0,0,0,0,0,0,0,0,
148,-5.495,-11.0,-5.724,-22.98,-18.9,-31.36,-15.6,-4.29,-2.937,-14.24,-11.16,-12.04,-9.831,-8.698,-1.808,-5.168,0,0,0,0,0,0,0,0,0,0,0,0,0,0,0,0,
149,-12.1,-3.011,-7.809,-13.91,-20.34,-29.42,-10.33,-10.31,-6.761,-14.07,-3.705,9.056,-4.205,4.098,-0.0026,2.647,0,0,0,0,0,0,0,0,0,0,0,0,0,0,0,0,
150,-6.452,4.332,-11.03,-9.166,-26.22,-27.08,-18.02,1.175,-4.523,-5.029,-6.747,1.676,-11.88,-2.049,-8.7,-3.403,0,0,0,0,0,0,0,0,0,0,0,0,0,0,0,0,
151,-16.7,-12.26,-28.73,-17.13,-41.64,-42.13,-30.63,-25.82,-18.74,-20.6,-12.28,-16.09,-18.59,-12.96,-7.277,-8.763,0,0,0,0,0,0,0,0,0,0,0,0,0,0,0,0,
152,-16.75,-15.33,-26.61,-15.1,-33.99,-31.82,-19.2,-24.75,-16.45,-20.71,0.1379,-6.193,-3.058,-1.987,8.364,-1.163,0,0,0,0,0,0,0,0,0,0,0,0,0,0,0,0,
153,-2.615,1.798,-10.47,-12.44,-17.52,-12.52,-8.256,8.652,4.103,-3.348,8.797,-1.166,1.94,-2.003,7.222,-4.479,0,0,0,0,0,0,0,0,0,0,0,0,0,0,0,0,
154,-9.682,-4.717,-13.79,-21.61,-24.31,-23.27,-8.393,-9.938,-0.0539,-15.43,-0.7325,-20.76,-16.87,-20.06,-7.406,-16.78,0,0,0,0,0,0,0,0,0,0,0,0,0,0,0,0,
155,-24.2,-16.8,-22.25,-26.06,-33.88,-31.34,-5.619,-44.6,-14.23,-29.46,-3.003,-23.2,-19.32,-15.81,-2.014,-8.958,0,0,0,0,0,0,0,0,0,0,0,0,0,0,0,0,
156,-19.83,-2.824,-23.9,-23.85,-33.3,-26.51,-10.28,-28.29,-11.86,-18.77,6.036,-9.141,-5.49,-2.695,7.701,2.953,0,0,0,0,0,0,0,0,0,0,0,0,0,0,0,0,
157,-11.75,0.6844,-26.72,-22.95,-38.23,-33.32,-17.61,7.433,-10.38,-17.08,4.332,-5.997,-6.816,-8.871,-3.405,-3.333,0,0,0,0,0,0,0,0,0,0,0,0,0,0,0,0,
158,-10.1,-14.26,-19.51,-23.32,-40.17,-31.4,-15.59,6.552,-14.07,-23.81,-7.837,-5.357,-15.63,-12.81,-12.09,-6.259,0,0,0,0,0,0,0,0,0,0,0,0,0,0,0,0,
159,-6.279,-8.873,-2.316,-22.85,-29.15,-12.78,-10.38,-33.06,-11.99,-16.09,-7.26,-5.951,-13.67,-3.662,1.522,5.106,0,0,0,0,0,0,0,0,0,0,0,0,0,0,0,0,
160,2.704,10.83,3.133,-12.16,-20.58,-8.239,-2.669,-40.31,-5.516,-5.606,8.611,-6.553,-4.636,4.899,17.16,11.51,0,0,0,0,0,0,0,0,0,0,0,0,0,0,0,0,
161,6.212,16.85,-8.279,0.4062,-24.01,-19.89,-7.132,8.838,-4.09,-6.002,6.253,1.39,-3.369,7.376,12.38,7.942,0,0,0,0,0,0,0,0,0,0,0,0,0,0,0,0,
162,-1.276,13.37,-17.47,0.3959,-25.99,-23.95,-21.96,38.32,-12.53,-9.848,-13.26,9.886,-6.816,9.924,4.864,11.56,0,0,0,0,0,0,0,0,0,0,0,0,0,0,0,0,
163,1.402,13.8,-10.41,0.8466,-14.41,-12.66,-13.98,29.76,-10.92,-3.934,-10.72,12.89,0.5298,15.96,10.57,19.8,0,0,0,0,0,0,0,0,0,0,0,0,0,0,0,0,
164,10.97,11.13,-6.438,-0.2859,-8.018,-4.639,-5.872,10.51,2.505,4.24,-0.6914,-0.2497,1.96,9.226,5.451,10.79,0,0,0,0,0,0,0,0,0,0,0,0,0,0,0,0,
165,-1.909,-1.258,-17.5,-11.86,-18.43,-12.42,-18.65,-16.15,-1.488,-3.132,-3.685,-16.92,-5.663,-2.776,-3.014,0.147,0,0,0,0,0,0,0,0,0,0,0,0,0,0,0,0,
166,-11.64,-3.896,-15.92,-13.36,-19.53,-17.88,-9.325,-5.856,-6.034,-10.76,7.877,-1.205,6.447,8.064,12.93,12.78,0,0,0,0,0,0,0,0,0,0,0,0,0,0,0,0,
167,3.371,8.322,-4.271,-7.172,-13.77,-19.83,7.218,22.95,7.913,-4.202,21.24,17.31,15.99,18.31,21.82,22.42,0,0,0,0,0,0,0,0,0,0,0,0,0,0,0,0,
168,3.591,5.904,-13.2,-12.44,-26.13,-31.69,-9.037,-10.06,3.889,-6.342,5.764,1.053,-2.036,5.415,2.418,8.718,0,0,0,0,0,0,0,0,0,0,0,0,0,0,0,0,
169,-7.767,-12.94,-22.46,-17.85,-31.75,-27.9,-18.13,-44.36,-13.97,-15.8,-8.656,-13.59,-11.49,-0.0429,-8.161,-0.9907,0,0,0,0,0,0,0,0,0,0,0,0,0,0,0,0,
170,2.371,-11.92,-10.77,-12.74,-12.32,-3.678,-3.788,-17.47,-6.724,-4.902,3.42,-3.347,2.879,13.53,6.785,9.202,0,0,0,0,0,0,0,0,0,0,0,0,0,0,0,0,
171,9.968,13.25,-5.53,-3.781,-1.289,-1.713,0.8717,-2.642,8.761,11.14,17.52,9.059,16.38,22.16,20.13,17.6,0,0,0,0,0,0,0,0,0,0,0,0,0,0,0,0,
172,1.788,20.48,-11.67,-3.205,-8.098,-14.67,2.357,-3.91,10.53,8.219,13.62,9.877,16.46,14.55,13.9,10.25,0,0,0,0,0,0,0,0,0,0,0,0,0,0,0,0,
173,1.759,-1.302,-10.75,-13.78,-11.24,-10.97,5.157,22.65,9.73,2.533,5.562,7.466,8.185,5.685,7.16,5.588,0,0,0,0,0,0,0,0,0,0,0,0,0,0,0,0,
174,6.045,-6.684,-11.76,-12.38,-11.69,-12.28,-5.606,32.87,6.412,4.293,7.72,14.07,5.941,12.31,15.53,16.55,0,0,0,0,0,0,0,0,0,0,0,0,0,0,0,0,
175,7.157,15.24,-15.31,5.593,-11.78,-20.48,-8.051,19.7,2.9,8.266,14.65,23.57,15.88,26.22,25.78,30.07,0,0,0,0,0,0,0,0,0,0,0,0,0,0,0,0,
176,10.72,23.55,-9.87,11.53,-3.91,-9.787,5.884,17.91,10.78,18.12,20.11,22.37,23.74,30.34,28.55,31.95,0,0,0,0,0,0,0,0,0,0,0,0,0,0,0,0,
177,4.792,11.43,-10.93,2.799,-1.354,-3.215,2.338,6.758,15.46,22.09,15.74,12.86,15.84,22.11,20.29,20.78,0,0,0,0,0,0,0,0,0,0,0,0,0,0,0,0,
178,-7.343,0.705,-19.43,-3.151,-9.37,-10.78,-11.11,-11.71,6.439,13.55,3.667,10.7,5.829,14.52,9.566,13.13,0,0,0,0,0,0,0,0,0,0,0,0,0,0,0,0,
179,-2.529,-2.627,-13.22,-4.916,-8.445,-4.486,-1.406,-14.46,4.742,12.8,6.574,19.44,10.82,16.99,15.15,18.2,0,0,0,0,0,0,0,0,0,0,0,0,0,0,0,0,
180,12.31,3.334,-3.006,-1.173,-1.495,4.193,12.97,-14.25,13.41,16.86,18.33,22.22,16.04,18.83,21.72,19.18,0,0,0,0,0,0,0,0,0,0,0,0,0,0,0,0,
181,17.53,12.18,-5.065,6.831,-1.61,0.3411,10.18,0.2694,16.37,13.5,21.99,20.42,15.85,19.08,20.73,18.03,0,0,0,0,0,0,0,0,0,0,0,0,0,0,0,0,
182,13.58,14.01,-9.27,6.539,-3.244,-1.37,5.162,29.03,16.3,13.85,27.79,20.54,21.14,22.62,28.16,22.81,0,0,0,0,0,0,0,0,0,0,0,0,0,0,0,0,
183,9.378,12.94,-10.13,2.934,-3.616,1.258,5.763,23.69,15.03,16.66,27.22,11.64,20.52,18.75,26.29,17.59,0,0,0,0,0,0,0,0,0,0,0,0,0,0,0,0,
184,14.63,15.55,-3.539,11.98,5.122,11.86,11.14,-4.872,15.66,21.09,15.03,7.966,18.67,16.42,13.6,10.27,0,0,0,0,0,0,0,0,0,0,0,0,0,0,0,0,
185,27.4,28.14,10.29,22.18,20.49,24.98,18.16,-5.179,29.13,31.33,12.2,12.35,24.92,19.0,13.35,12.08,0,0,0,0,0,0,0,0,0,0,0,0,0,0,0,0,
186,33.13,39.46,14.86,16.71,14.01,18.28,15.66,13.38,36.02,25.42,10.4,2.563,17.68,7.815,8.772,6.026,0,0,0,0,0,0,0,0,0,0,0,0,0,0,0,0,
187,29.97,27.09,13.35,9.236,-1.098,6.592,11.03,22.04,21.52,6.782,4.491,-2.406,6.29,-0.6772,-0.1152,-1.821,0,0,0,0,0,0,0,0,0,0,0,0,0,0,0,0,
188,26.64,15.77,19.32,12.42,5.865,7.705,15.75,18.76,12.15,5.93,11.61,4.841,9.693,5.23,7.193,0.4164,0,0,0,0,0,0,0,0,0,0,0,0,0,0,0,0,
189,27.07,28.37,22.17,14.28,7.665,5.332,18.34,10.36,12.74,10.78,17.17,4.218,7.797,5.66,12.78,2.906,0,0,0,0,0,0,0,0,0,0,0,0,0,0,0,0,
190,28.9,28.04,16.05,8.453,-6.742,2.208,12.96,3.323,5.156,6.875,11.28,7.005,-0.4464,4.947,11.33,6.897,0,0,0,0,0,0,0,0,0,0,0,0,0,0,0,0,
191,26.17,14.36,11.22,6.719,-6.399,5.801,8.653,-4.85,-0.9837,8.752,7.221,10.41,-2.863,7.328,10.34,8.056,0,0,0,0,0,0,0,0,0,0,0,0,0,0,0,0,
192,21.9,24.68,8.713,15.86,-2.196,-0.5506,6.606,-5.159,1.074,9.053,-1.015,6.279,-6.155,5.057,-1.56,-2.188,0,0,0,0,0,0,0,0,0,0,0,0,0,0,0,0,
193,22.65,35.1,4.299,25.35,-10.59,-9.124,2.364,14.83,0.3446,1.321,-8.496,10.01,-4.021,8.665,-7.318,-5.762,0,0,0,0,0,0,0,0,0,0,0,0,0,0,0,0,
194,21.99,20.21,-1.478,24.17,-8.573,3.7,0.8021,23.93,1.853,7.213,-0.4656,8.058,7.196,18.34,5.186,2.291,0,0,0,0,0,0,0,0,0,0,0,0,0,0,0,0,
195,16.51,6.469,-6.018,17.01,-0.7031,19.7,7.978,6.917,9.697,23.1,4.687,-3.554,11.37,22.49,6.812,4.005,0,0,0,0,0,0,0,0,0,0,0,0,0,0,0,0,
196,15.01,6.193,-4.705,13.05,-7.803,12.63,14.86,2.416,11.07,23.6,2.2,3.297,8.841,24.09,1.322,4.423,0,0,0,0,0,0,0,0,0,0,0,0,0,0,0,0,
197,18.14,13.55,1.687,12.58,-11.64,1.893,12.54,13.87,7.474,15.89,11.19,19.45,11.97,25.74,8.897,9.7,0,0,0,0,0,0,0,0,0,0,0,0,0,0,0,0,
198,18.43,27.69,2.426,14.56,-4.6,3.496,7.672,20.62,7.659,16.52,17.05,17.82,14.62,21.04,10.88,6.252,0,0,0,0,0,0,0,0,0,0,0,0,0,0,0,0,
199,21.12,41.09,-1.587,24.26,-0.5298,4.995,9.36,28.1,7.525,19.07,11.84,5.401,15.17,14.98,9.651,4.204,0,0,0,0,0,0,0,0,0,0,0,0,0,0,0,0,
200,32.67,45.24,3.498,37.31,10.13,15.38,17.5,18.16,14.3,25.32,17.5,3.053,26.81,22.22,21.54,16.97,0,0,0,0,0,0,0,0,0,0,0,0,0,0,0,0,
201,37.27,35.39,9.148,34.98,19.94,34.5,20.46,-10.08,31.0,40.58,23.07,10.34,36.68,32.18,26.1,22.55,0,0,0,0,0,0,0,0,0,0,0,0,0,0,0,0,
202,26.93,21.98,0.9273,21.69,8.893,30.38,12.25,-3.688,32.59,44.61,18.66,13.97,31.68,28.74,25.01,17.99,0,0,0,0,0,0,0,0,0,0,0,0,0,0,0,0,
203,20.62,23.01,-6.628,20.4,2.01,10.32,2.705,29.82,17.14,29.72,21.12,14.71,29.24,23.8,30.04,20.17,0,0,0,0,0,0,0,0,0,0,0,0,0,0,0,0,
204,23.54,31.18,-4.111,25.25,12.16,5.519,-2.309,36.16,11.11,18.88,19.3,16.1,28.78,21.0,23.47,20.0,0,0,0,0,0,0,0,0,0,0,0,0,0,0,0,0,
205,30.2,38.19,1.099,26.37,19.07,15.0,5.175,30.5,19.75,22.91,18.22,18.41,29.47,20.14,25.11,22.26,0,0,0,0,0,0,0,0,0,0,0,0,0,0,0,0,
206,43.93,46.19,9.563,30.47,26.41,27.74,25.61,33.92,35.44,33.87,36.11,21.64,43.5,29.97,43.57,33.83,0,0,0,0,0,0,0,0,0,0,0,0,0,0,0,0,
207,47.32,39.34,14.0,26.28,29.0,30.91,29.48,12.7,45.48,41.48,36.17,17.81,46.24,33.88,35.53,30.66,0,0,0,0,0,0,0,0,0,0,0,0,0,0,0,0,
208,29.55,19.58,5.667,13.59,12.06,18.67,13.29,-22.2,34.45,38.17,15.04,14.58,30.69,28.6,19.8,21.75,0,0,0,0,0,0,0,0,0,0,0,0,0,0,0,0,
209,21.03,16.77,-2.897,14.05,1.116,10.25,5.215,-14.19,17.87,31.31,11.88,21.67,24.86,32.34,24.82,27.08,0,0,0,0,0,0,0,0,0,0,0,0,0,0,0,0,
210,31.05,28.67,0.3962,17.34,14.64,19.14,1.953,23.23,18.22,31.48,10.03,24.72,23.73,34.51,18.78,26.72,0,0,0,0,0,0,0,0,0,0,0,0,0,0,0,0,
211,37.52,33.38,12.47,15.39,34.52,38.03,-0.493,38.78,27.76,35.72,2.91,22.93,24.25,33.44,14.85,22.52,0,0,0,0,0,0,0,0,0,0,0,0,0,0,0,0,
212,46.55,42.13,21.69,27.95,43.76,49.25,8.03,32.03,35.33,41.24,9.334,23.31,33.1,40.78,27.65,28.44,0,0,0,0,0,0,0,0,0,0,0,0,0,0,0,0,
213,62.66,63.78,21.32,38.33,38.38,39.41,13.49,13.92,38.43,43.92,9.878,20.45,33.22,42.18,22.53,29.19,0,0,0,0,0,0,0,0,0,0,0,0,0,0,0,0,
214,58.97,63.47,17.23,24.81,26.47,21.13,10.81,-2.311,32.79,35.24,6.457,18.11,25.25,31.05,13.0,22.66,0,0,0,0,0,0,0,0,0,0,0,0,0,0,0,0,
215,40.0,34.97,12.43,15.53,16.33,11.08,10.74,13.26,20.82,20.1,12.35,12.87,18.81,17.35,16.22,15.84,0,0,0,0,0,0,0,0,0,0,0,0,0,0,0,0,
216,36.54,28.56,10.33,19.94,13.89,13.05,7.657,30.04,13.06,10.67,8.61,-1.093,12.19,9.591,12.4,9.209,0,0,0,0,0,0,0,0,0,0,0,0,0,0,0,0,
217,41.03,43.14,16.02,17.5,28.24,29.27,0.0731,8.565,16.37,14.24,2.061,-6.391,12.75,13.95,12.21,11.23,0,0,0,0,0,0,0,0,0,0,0,0,0,0,0,0,
218,41.2,39.46,18.59,18.84,42.81,40.66,-4.29,-0.6455,22.77,28.21,2.941,2.86,15.47,19.1,14.71,13.92,0,0,0,0,0,0,0,0,0,0,0,0,0,0,0,0,
219,46.01,36.45,14.17,28.31,33.84,27.25,-2.19,17.71,21.57,31.24,-2.255,7.204,12.11,13.77,3.317,6.232,0,0,0,0,0,0,0,0,0,0,0,0,0,0,0,0,
220,44.29,42.91,10.31,24.27,15.9,7.24,3.954,8.426,17.28,15.11,-3.304,1.204,9.485,5.821,1.186,2.978,0,0,0,0,0,0,0,0,0,0,0,0,0,0,0,0,
221,31.04,30.43,2.864,13.47,6.688,-2.617,4.013,-10.94,11.27,1.922,5.046,1.369,6.372,3.205,12.35,8.352,0,0,0,0,0,0,0,0,0,0,0,0,0,0,0,0,
222,26.81,17.17,-0.0339,12.3,4.457,-2.026,2.248,-0.9713,1.532,1.537,9.672,9.449,7.508,8.112,13.39,11.25,0,0,0,0,0,0,0,0,0,0,0,0,0,0,0,0,
223,33.44,25.94,12.0,21.26,14.74,16.54,11.7,18.53,5.048,11.37,14.74,12.21,20.55,17.4,11.74,13.75,0,0,0,0,0,0,0,0,0,0,0,0,0,0,0,0,
224,44.23,41.67,20.76,37.54,33.92,37.77,21.86,33.7,24.85,29.42,20.93,10.89,31.19,22.23,19.61,17.63,0,0,0,0,0,0,0,0,0,0,0,0,0,0,0,0,
225,55.11,56.23,19.36,36.41,40.24,34.63,23.12,25.21,35.48,35.36,26.94,6.847,32.75,21.11,32.58,21.04,0,0,0,0,0,0,0,0,0,0,0,0,0,0,0,0,
226,52.67,57.45,19.89,14.35,31.99,24.58,24.03,-10.4,32.89,28.07,35.38,5.265,34.12,23.62,39.48,26.97,0,0,0,0,0,0,0,0,0,0,0,0,0,0,0,0,
227,43.38,40.78,18.69,13.86,26.75,28.39,25.67,-9.033,30.6,32.88,29.72,18.19,33.3,30.16,29.27,29.22,0,0,0,0,0,0,0,0,0,0,0,0,0,0,0,0,
228,40.85,36.73,15.8,30.63,28.29,26.6,25.78,26.91,27.57,39.1,18.7,27.73,32.42,30.08,23.69,26.36,0,0,0,0,0,0,0,0,0,0,0,0,0,0,0,0,
229,39.25,48.12,18.67,31.57,31.63,18.92,26.14,23.49,27.79,32.14,30.17,25.83,40.83,31.65,39.89,31.65,0,0,0,0,0,0,0,0,0,0,0,0,0,0,0,0,
230,41.37,47.99,17.52,32.57,35.85,28.9,20.81,9.163,34.52,33.61,33.63,30.05,42.29,39.66,37.91,36.14,0,0,0,0,0,0,0,0,0,0,0,0,0,0,0,0,
231,50.1,45.44,10.32,36.6,37.54,42.07,10.72,34.28,33.16,42.09,7.848,27.67,24.51,33.72,11.24,24.44,0,0,0,0,0,0,0,0,0,0,0,0,0,0,0,0,
232,51.29,51.61,10.38,24.43,35.62,35.39,8.021,46.3,24.77,36.1,-0.9315,14.29,14.79,19.97,8.742,14.06,0,0,0,0,0,0,0,0,0,0,0,0,0,0,0,0,
233,42.19,44.8,11.16,12.41,28.8,19.94,5.649,10.92,20.63,23.51,9.651,5.736,17.29,14.55,15.66,11.56,0,0,0,0,0,0,0,0,0,0,0,0,0,0,0,0,
234,31.3,23.46,1.3,9.809,13.48,8.527,-6.665,-27.31,11.56,15.55,0.3526,-4.988,7.024,5.016,-1.071,-0.2936,0,0,0,0,0,0,0,0,0,0,0,0,0,0,0,0,
235,22.21,12.69,-7.591,2.972,3.209,3.694,-7.924,-27.35,-1.907,7.688,-8.887,-11.27,-1.334,-2.5,-6.774,-10.8,0,0,0,0,0,0,0,0,0,0,0,0,0,0,0,0,
236,21.42,22.04,-4.851,-1.862,10.83,7.535,9.563,4.832,-1.669,2.588,2.695,-1.188,6.859,4.622,5.453,-2.767,0,0,0,0,0,0,0,0,0,0,0,0,0,0,0,0,
237,33.91,40.52,5.728,3.6,21.61,14.12,14.94,24.71,9.276,5.462,7.829,8.232,10.29,8.231,3.188,6.962,0,0,0,0,0,0,0,0,0,0,0,0,0,0,0,0,
238,46.68,46.54,14.1,9.099,22.88,17.32,0.0488,12.22,12.72,8.3,1.546,8.716,4.921,1.074,-0.8507,4.244,0,0,0,0,0,0,0,0,0,0,0,0,0,0,0,0,
239,44.25,35.51,11.97,8.174,20.0,15.43,-10.82,5.081,6.168,5.573,-0.2592,7.734,1.69,-2.659,4.676,2.636,0,0,0,0,0,0,0,0,0,0,0,0,0,0,0,0,
240,34.53,31.69,7.739,4.672,15.56,6.588,-9.744,16.77,-0.3524,3.845,-3.499,4.851,0.1773,1.157,2.792,7.647,0,0,0,0,0,0,0,0,0,0,0,0,0,0,0,0,
241,30.04,38.04,10.29,1.731,12.01,0.305,-2.179,12.1,-3.08,3.666,-6.625,-4.144,1.926,5.975,2.686,7.884,0,0,0,0,0,0,0,0,0,0,0,0,0,0,0,0,
242,32.57,39.32,13.52,3.322,16.09,7.238,10.09,-7.799,-0.7656,5.749,4.329,-9.21,10.59,11.43,13.15,6.473,0,0,0,0,0,0,0,0,0,0,0,0,0,0,0,0,
243,44.69,44.85,19.52,12.39,24.67,16.27,19.43,-10.69,9.928,16.01,14.77,-0.4297,21.34,18.14,16.0,11.01,0,0,0,0,0,0,0,0,0,0,0,0,0,0,0,0,
244,60.8,59.12,34.1,25.43,34.72,21.85,27.83,3.459,23.63,24.49,18.11,10.6,32.75,22.36,22.97,21.91,0,0,0,0,0,0,0,0,0,0,0,0,0,0,0,0,
245,75.7,75.76,51.88,40.62,53.73,38.61,50.7,25.44,41.98,29.48,45.99,24.85,55.7,34.56,59.16,45.53,0,0,0,0,0,0,0,0,0,0,0,0,0,0,0,0,
246,88.87,90.74,64.91,49.26,70.8,56.19,73.97,47.37,67.48,43.6,84.6,40.86,78.2,52.84,91.02,66.82,0,0,0,0,0,0,0,0,0,0,0,0,0,0,0,0,
247,87.23,84.64,66.65,41.3,69.71,56.04,75.54,50.57,76.18,54.05,92.45,40.23,79.8,56.4,91.01,67.55,0,0,0,0,0,0,0,0,0,0,0,0,0,0,0,0,
248,78.26,67.34,60.67,33.99,67.24,55.42,71.69,44.97,68.51,55.71,90.08,42.04,80.26,56.59,87.04,64.99,0,0,0,0,0,0,0,0,0,0,0,0,0,0,0,0,
249,76.39,69.54,47.65,34.11,64.89,54.76,59.49,37.05,68.17,60.97,78.42,44.93,75.53,54.76,70.89,54.83,0,0,0,0,0,0,0,0,0,0,0,0,0,0,0,0,
250,60.89,65.65,20.94,21.04,40.7,35.74,21.18,2.086,52.79,54.06,32.61,19.57,41.61,33.09,31.57,27.15,0,0,0,0,0,0,0,0,0,0,0,0,0,0,0,0,
251,39.65,38.68,2.17,5.078,16.33,19.8,-1.542,-24.63,20.94,37.07,5.703,4.37,20.64,20.23,19.35,17.77,0,0,0,0,0,0,0,0,0,0,0,0,0,0,0,0,
252,39.31,28.64,6.566,3.375,13.09,15.65,11.65,4.739,16.48,33.47,21.47,15.38,28.48,23.71,30.6,26.22,0,0,0,0,0,0,0,0,0,0,0,0,0,0,0,0,
253,37.6,39.93,10.26,1.329,11.08,4.069,17.96,32.23,23.07,24.4,22.84,12.56,21.12,13.34,19.72,20.5,0,0,0,0,0,0,0,0,0,0,0,0,0,0,0,0,
254,33.77,42.97,12.78,-0.2236,12.23,3.604,16.58,14.78,12.95,7.521,12.54,5.314,11.8,4.856,12.69,16.61,0,0,0,0,0,0,0,0,0,0,0,0,0,0,0,0,
255,50.64,42.67,27.37,10.66,29.26,24.64,25.78,5.22,16.3,16.21,23.08,6.997,25.52,13.16,29.71,24.95,0,0,0,0,0,0,0,0,0,0,0,0,0,0,0,0,
256,59.55,49.39,35.12,20.12,46.3,37.54,26.19,16.84,35.21,36.37,29.85,10.8,36.85,23.69,35.44,27.51,0,0,0,0,0,0,0,0,0,0,0,0,0,0,0,0,
257,51.7,50.6,31.3,16.38,50.11,39.95,17.62,12.66,40.97,42.56,16.32,19.77,34.63,33.57,21.78,23.86,0,0,0,0,0,0,0,0,0,0,0,0,0,0,0,0,
258,61.5,48.42,31.39,12.28,43.83,45.59,16.24,-0.086,37.46,46.48,9.309,18.01,32.17,37.08,17.25,20.01,0,0,0,0,0,0,0,0,0,0,0,0,0,0,0,0,
259,73.99,55.78,32.0,16.6,38.51,44.63,21.84,3.711,35.3,46.63,25.33,11.43,36.0,31.55,28.66,18.27,0,0,0,0,0,0,0,0,0,0,0,0,0,0,0,0,
260,60.78,55.77,29.15,15.03,38.88,34.23,30.26,19.57,32.94,33.15,35.03,15.56,33.58,20.73,25.53,15.45,0,0,0,0,0,0,0,0,0,0,0,0,0,0,0,0,
261,48.73,41.57,26.07,6.217,33.28,24.36,26.76,17.82,26.84,16.68,16.49,6.199,14.22,3.748,2.997,5.033,0,0,0,0,0,0,0,0,0,0,0,0,0,0,0,0,
262,54.71,43.76,20.28,9.63,22.24,17.04,9.089,-8.439,14.43,7.327,4.024,-7.861,1.433,-4.442,0.9356,0.4383,0,0,0,0,0,0,0,0,0,0,0,0,0,0,0,0,
263,56.53,60.27,16.83,18.27,22.52,15.1,5.744,-7.678,8.927,10.92,14.5,4.091,11.11,4.982,18.28,10.05,0,0,0,0,0,0,0,0,0,0,0,0,0,0,0,0,
264,52.94,61.85,18.76,14.53,29.99,18.81,16.72,27.02,18.45,22.96,17.05,15.27,20.73,13.34,17.46,13.0,0,0,0,0,0,0,0,0,0,0,0,0,0,0,0,0,
265,49.65,45.82,12.93,5.759,23.53,18.0,9.458,27.04,19.6,22.65,6.289,1.185,14.93,8.57,4.972,3.805,0,0,0,0,0,0,0,0,0,0,0,0,0,0,0,0,
266,36.56,22.05,2.904,1.466,8.732,14.22,-7.771,3.645,5.25,13.01,3.456,-4.767,8.52,4.178,6.349,3.222,0,0,0,0,0,0,0,0,0,0,0,0,0,0,0,0,
267,29.0,17.19,5.888,3.46,9.005,13.96,-5.087,14.32,2.097,16.22,10.42,11.84,11.91,8.966,13.47,7.187,0,0,0,0,0,0,0,0,0,0,0,0,0,0,0,0,
268,35.06,38.57,6.973,5.445,11.87,7.082,-0.2503,20.62,6.173,21.34,9.303,10.18,5.883,1.872,3.965,-5.361,0,0,0,0,0,0,0,0,0,0,0,0,0,0,0,0,
269,30.89,40.07,-7.261,0.6064,-2.137,-4.92,-12.89,-8.011,-5.283,9.133,-5.527,-14.07,-11.52,-19.01,-15.04,-21.65,0,0,0,0,0,0,0,0,0,0,0,0,0,0,0,0,
270,26.58,22.93,-9.162,1.508,-8.963,-5.493,-14.44,-20.03,-13.26,-5.523,-9.497,-20.52,-10.47,-21.62,-15.14,-20.88,0,0,0,0,0,0,0,0,0,0,0,0,0,0,0,0,
271,36.57,24.17,8.242,7.135,2.414,2.08,1.599,-0.5475,-3.057,-6.93,2.228,-11.2,1.406,-9.572,-3.465,-12.73,0,0,0,0,0,0,0,0,0,0,0,0,0,0,0,0,
272,34.6,19.45,13.06,0.4189,5.925,4.28,1.163,13.43,0.3819,-3.261,-0.069,-3.872,-1.522,-5.946,-7.059,-8.911,0,0,0,0,0,0,0,0,0,0,0,0,0,0,0,0,
273,28.55,13.94,5.339,-1.847,1.499,-0.2889,-9.425,15.52,-6.282,-1.435,-9.605,1.509,-3.914,-4.25,-12.85,-8.036,0,0,0,0,0,0,0,0,0,0,0,0,0,0,0,0,
274,46.99,44.83,11.32,13.5,8.529,-0.1065,0.6052,18.23,-0.2486,4.117,-0.9655,-2.961,5.804,0.1284,-3.872,-7.973,0,0,0,0,0,0,0,0,0,0,0,0,0,0,0,0,
275,61.32,61.3,21.72,19.02,19.07,9.476,13.34,10.84,13.33,11.95,5.588,-9.299,9.855,-0.1922,0.0694,-8.507,0,0,0,0,0,0,0,0,0,0,0,0,0,0,0,0,
276,49.28,37.46,18.98,9.195,18.31,12.38,8.131,-5.649,15.28,10.15,-0.4693,-5.479,5.634,-3.17,-4.415,-9.336,0,0,0,0,0,0,0,0,0,0,0,0,0,0,0,0,
277,42.2,31.09,17.48,8.155,13.76,12.19,8.188,-10.76,13.36,4.387,6.719,-2.872,10.68,0.2412,3.502,-4.734,0,0,0,0,0,0,0,0,0,0,0,0,0,0,0,0,
278,47.9,33.51,19.34,12.36,14.83,25.81,16.3,-12.81,20.16,11.34,18.35,-4.727,22.4,7.57,12.62,2.586,0,0,0,0,0,0,0,0,0,0,0,0,0,0,0,0,
279,46.21,24.07,12.79,10.67,19.98,32.63,14.56,-6.841,26.65,21.66,15.45,-0.5975,26.14,7.549,10.33,4.804,0,0,0,0,0,0,0,0,0,0,0,0,0,0,0,0,
280,45.19,40.54,12.38,14.28,26.85,22.04,17.26,25.98,28.99,19.64,17.69,13.02,29.35,8.08,15.99,10.31,0,0,0,0,0,0,0,0,0,0,0,0,0,0,0,0,
281,51.08,52.76,20.61,20.14,26.22,17.79,24.13,38.27,31.22,14.7,24.38,21.08,32.64,15.09,23.84,16.94,0,0,0,0,0,0,0,0,0,0,0,0,0,0,0,0,
282,53.9,34.26,25.09,17.09,22.01,23.26,18.54,15.81,30.06,19.48,21.85,15.08,29.86,17.88,20.4,15.46,0,0,0,0,0,0,0,0,0,0,0,0,0,0,0,0,
283,59.27,41.38,33.69,15.86,33.51,30.14,19.68,11.93,32.98,29.04,28.81,11.64,34.27,17.87,24.95,15.72,0,0,0,0,0,0,0,0,0,0,0,0,0,0,0,0,
284,61.9,53.56,36.08,16.41,38.92,30.32,27.55,0.2647,37.42,27.86,36.91,5.559,33.62,10.41,28.65,13.38,0,0,0,0,0,0,0,0,0,0,0,0,0,0,0,0,
285,52.56,34.26,27.27,11.37,22.39,16.24,23.65,-29.47,26.44,13.99,27.15,-6.776,19.39,-3.506,17.12,6.123,0,0,0,0,0,0,0,0,0,0,0,0,0,0,0,0,
286,52.27,41.15,36.6,14.42,26.96,10.42,30.41,-3.991,21.13,9.207,28.49,0.3435,24.53,0.6397,21.26,13.6,0,0,0,0,0,0,0,0,0,0,0,0,0,0,0,0,
287,60.56,58.98,48.19,21.47,47.44,22.67,45.89,34.25,36.48,19.48,40.62,11.05,37.49,12.35,36.5,22.26,0,0,0,0,0,0,0,0,0,0,0,0,0,0,0,0,
288,56.05,38.35,35.79,15.09,39.2,27.34,39.05,9.334,40.49,25.36,33.49,6.167,31.28,13.18,32.53,16.73,0,0,0,0,0,0,0,0,0,0,0,0,0,0,0,0,
289,53.2,33.28,31.97,10.08,28.84,26.93,29.2,-7.472,32.6,27.46,28.04,11.82,33.03,21.43,30.79,21.4,0,0,0,0,0,0,0,0,0,0,0,0,0,0,0,0,
290,60.54,52.48,42.04,16.74,38.07,34.61,35.94,22.56,36.14,35.44,35.91,20.75,42.93,30.55,38.63,31.48,0,0,0,0,0,0,0,0,0,0,0,0,0,0,0,0,
291,59.47,48.42,38.04,17.82,36.12,31.66,38.06,27.05,37.01,36.34,34.51,11.29,38.32,22.72,32.39,23.97,0,0,0,0,0,0,0,0,0,0,0,0,0,0,0,0,
292,50.37,42.04,29.38,12.93,25.8,14.86,29.43,-5.038,28.57,27.16,34.97,3.009,36.47,16.91,29.22,18.54,0,0,0,0,0,0,0,0,0,0,0,0,0,0,0,0,
293,43.7,42.68,27.6,14.1,26.69,10.55,24.51,-16.97,27.11,24.07,44.16,8.391,42.82,22.28,40.69,25.67,0,0,0,0,0,0,0,0,0,0,0,0,0,0,0,0,
294,44.62,35.84,31.1,14.35,31.58,22.61,29.41,5.6,32.1,26.65,41.37,11.59,40.77,21.65,38.81,22.16,0,0,0,0,0,0,0,0,0,0,0,0,0,0,0,0,
295,51.08,36.95,35.5,6.288,30.6,23.25,30.98,18.33,33.33,21.46,30.61,-2.52,30.1,8.655,21.65,6.04,0,0,0,0,0,0,0,0,0,0,0,0,0,0,0,0,
296,42.33,28.89,20.53,-1.923,15.55,2.442,13.88,-7.228,20.56,6.83,17.17,-22.39,12.49,-6.171,6.985,-6.903,0,0,0,0,0,0,0,0,0,0,0,0,0,0,0,0,
297,23.32,10.32,-0.65,-3.024,-5.329,-15.89,-3.354,-21.35,-3.482,-6.33,-0.5708,-22.75,-5.187,-13.54,-4.102,-12.67,0,0,0,0,0,0,0,0,0,0,0,0,0,0,0,0,
298,25.64,22.02,4.767,-1.228,-9.27,-18.99,-3.586,-2.595,-13.25,-11.41,-5.57,-13.02,-7.684,-15.2,-10.67,-12.43,0,0,0,0,0,0,0,0,0,0,0,0,0,0,0,0,
299,29.37,27.05,9.23,-7.271,-2.575,-13.08,-7.69,-21.4,-6.464,-13.33,-7.647,-20.09,-4.184,-17.53,-15.52,-13.05,0,0,0,0,0,0,0,0,0,0,0,0,0,0,0,0,
300,10.42,-5.139,-7.881,-19.58,-2.069,-0.9419,-17.39,-63.41,-6.623,-11.13,-24.18,-32.59,-10.31,-21.14,-21.75,-18.71,0,0,0,0,0,0,0,0,0,0,0,0,0,0,0,0,
301,8.696,-6.576,-8.013,-22.19,-1.093,4.465,-13.45,-40.17,-9.882,-3.605,-28.52,-24.5,-13.15,-19.81,-20.32,-19.2,0,0,0,0,0,0,0,0,0,0,0,0,0,0,0,0,
302,30.01,21.44,8.831,-18.06,4.285,-1.813,-10.35,0.0927,-5.031,-2.16,-18.88,-14.51,-8.939,-16.52,-17.97,-16.13,0,0,0,0,0,0,0,0,0,0,0,0,0,0,0,0,
303,28.74,15.32,5.904,-22.71,4.1,-3.227,-23.0,-15.92,-5.411,-6.148,-25.66,-29.61,-15.8,-22.81,-24.95,-23.4,0,0,0,0,0,0,0,0,0,0,0,0,0,0,0,0,
304,12.21,-1.545,-12.02,-27.0,-5.5,-5.056,-37.41,-30.76,-15.82,-10.28,-35.03,-38.83,-24.65,-29.79,-27.15,-32.22,0,0,0,0,0,0,0,0,0,0,0,0,0,0,0,0,
305,11.04,2.169,-23.8,-19.33,-13.9,-13.13,-40.26,-16.17,-21.11,-15.87,-26.07,-20.0,-16.41,-22.48,-19.3,-26.28,0,0,0,0,0,0,0,0,0,0,0,0,0,0,0,0,
306,17.4,11.5,-23.08,-9.71,-11.57,-10.02,-29.1,-14.95,-14.55,-7.731,-14.29,-8.503,-3.037,-9.738,-12.61,-14.78,0,0,0,0,0,0,0,0,0,0,0,0,0,0,0,0,
307,16.7,17.17,-18.59,-7.28,-9.041,-3.542,-21.48,-12.47,-8.221,9.746,-12.86,-11.23,-0.3311,-3.261,-11.23,-13.21,0,0,0,0,0,0,0,0,0,0,0,0,0,0,0,0,
308,8.998,3.512,-24.55,-11.81,-13.2,-4.96,-31.83,8.545,-11.67,8.101,-19.23,-8.051,-6.744,-4.553,-15.04,-16.62,0,0,0,0,0,0,0,0,0,0,0,0,0,0,0,0,
309,6.434,-12.38,-28.15,-16.39,-15.54,-5.451,-36.28,0.7067,-17.68,-4.663,-27.18,-13.59,-15.43,-13.91,-20.84,-18.32,0,0,0,0,0,0,0,0,0,0,0,0,0,0,0,0,
310,10.39,4.839,-20.44,-13.65,-20.1,-10.98,-27.24,-42.36,-23.34,-14.02,-33.74,-29.75,-22.71,-26.04,-26.43,-22.39,0,0,0,0,0,0,0,0,0,0,0,0,0,0,0,0,
311,8.737,19.72,-17.88,-11.04,-25.12,-14.63,-26.82,-50.65,-28.0,-21.82,-37.06,-31.22,-26.78,-31.18,-30.55,-23.08,0,0,0,0,0,0,0,0,0,0,0,0,0,0,0,0,
312,9.001,5.333,-16.52,-15.48,-21.13,-9.802,-28.49,-15.82,-23.64,-19.69,-33.29,-25.43,-26.94,-29.5,-28.42,-19.37,0,0,0,0,0,0,0,0,0,0,0,0,0,0,0,0,
313,11.06,-3.204,-14.49,-17.8,-25.77,-20.22,-29.31,-14.3,-24.79,-18.07,-31.8,-31.49,-31.02,-30.43,-25.29,-24.58,0,0,0,0,0,0,0,0,0,0,0,0,0,0,0,0,
314,4.789,1.496,-21.46,-14.69,-37.57,-28.75,-38.55,-42.08,-40.65,-22.77,-35.74,-31.97,-35.7,-29.99,-24.55,-28.23,0,0,0,0,0,0,0,0,0,0,0,0,0,0,0,0,
315,7.502,2.479,-18.9,-14.66,-31.76,-15.58,-34.83,-29.53,-43.02,-17.56,-29.52,-21.72,-27.61,-25.95,-22.22,-20.74,0,0,0,0,0,0,0,0,0,0,0,0,0,0,0,0,
316,14.27,1.867,-8.513,-17.54,-28.65,-21.28,-21.99,-6.33,-32.07,-21.83,-23.98,-27.19,-21.61,-33.74,-27.32,-22.57,0,0,0,0,0,0,0,0,0,0,0,0,0,0,0,0,
317,8.44,9.643,-12.47,-16.31,-37.59,-40.33,-26.74,-27.68,-31.0,-39.45,-31.63,-33.31,-23.1,-39.16,-32.74,-28.25,0,0,0,0,0,0,0,0,0,0,0,0,0,0,0,0,
318,14.71,22.96,-11.56,-13.15,-23.82,-29.01,-28.37,-46.84,-24.15,-32.47,-26.64,-18.55,-11.86,-23.52,-19.94,-19.96,0,0,0,0,0,0,0,0,0,0,0,0,0,0,0,0,
319,28.0,14.89,-1.009,-14.73,-1.644,-8.287,-17.82,-27.62,-7.643,-14.85,-13.1,-16.57,-5.032,-17.15,-11.65,-16.69,0,0,0,0,0,0,0,0,0,0,0,0,0,0,0,0,
320,20.06,-6.558,-8.527,-19.75,-6.732,-5.819,-20.53,-19.18,-7.597,-16.18,-22.54,-29.49,-17.54,-26.78,-23.53,-22.65,0,0,0,0,0,0,0,0,0,0,0,0,0,0,0,0,
321,15.1,3.925,-21.55,-19.42,-18.04,-13.11,-25.43,-34.12,-16.98,-18.07,-32.62,-22.95,-20.65,-23.96,-24.0,-15.59,0,0,0,0,0,0,0,0,0,0,0,0,0,0,0,0,
322,24.88,28.2,-19.66,-12.27,-17.42,-24.18,-18.57,-23.22,-15.38,-16.33,-17.68,-10.24,-10.91,-16.8,-8.227,-2.658,0,0,0,0,0,0,0,0,0,0,0,0,0,0,0,0,
323,20.24,21.37,-19.67,-12.15,-22.69,-32.49,-19.65,0.5616,-11.54,-23.84,-8.121,-13.31,-10.33,-20.86,-6.441,-5.195,0,0,0,0,0,0,0,0,0,0,0,0,0,0,0,0,
324,3.684,-0.2245,-26.49,-19.03,-33.82,-33.56,-31.68,-11.25,-17.69,-31.72,-18.95,-25.23,-19.13,-30.58,-17.91,-18.64,0,0,0,0,0,0,0,0,0,0,0,0,0,0,0,0,
325,2.536,-7.395,-23.75,-14.61,-31.75,-28.11,-37.81,-34.84,-26.53,-31.88,-27.29,-32.65,-27.49,-35.58,-24.88,-25.04,0,0,0,0,0,0,0,0,0,0,0,0,0,0,0,0,
326,14.7,-1.102,-13.4,-6.83,-19.36,-16.22,-32.4,-38.81,-26.21,-22.52,-28.22,-26.33,-28.84,-25.66,-27.04,-20.76,0,0,0,0,0,0,0,0,0,0,0,0,0,0,0,0,
327,17.63,6.912,-8.836,-7.284,-16.33,-8.597,-24.15,-30.74,-22.19,-7.214,-28.59,-16.71,-25.09,-15.13,-25.56,-17.96,0,0,0,0,0,0,0,0,0,0,0,0,0,0,0,0,
328,23.73,21.29,-7.709,5.862,-18.78,-7.211,-23.78,-7.331,-24.69,-2.496,-27.85,-16.25,-24.03,-19.29,-24.24,-23.05,0,0,0,0,0,0,0,0,0,0,0,0,0,0,0,0,
329,61.83,58.27,5.326,36.41,-5.083,3.67,-25.23,16.58,-23.92,-6.426,-28.6,-18.67,-24.36,-21.36,-29.02,-26.44,0,0,0,0,0,0,0,0,0,0,0,0,0,0,0,0,
330,113.9,104.3,36.75,65.1,19.65,23.51,-19.42,20.33,-12.78,-0.7698,-27.41,-14.66,-20.97,-14.56,-28.98,-20.24,0,0,0,0,0,0,0,0,0,0,0,0,0,0,0,0,
331,173.3,157.1,71.91,96.54,39.09,40.15,-13.99,13.59,-5.272,6.215,-23.0,-6.412,-16.78,-9.486,-21.77,-14.43,0,0,0,0,0,0,0,0,0,0,0,0,0,0,0,0,
332,263.8,245.6,100.2,137.7,66.72,66.49,-9.914,-5.883,-4.11,8.905,-23.53,-8.399,-14.88,-1.684,-20.66,-14.93,0,0,0,0,0,0,0,0,0,0,0,0,0,0,0,0,
333,338.1,331.0,142.0,185.1,119.3,124.2,2.935,-7.554,7.829,31.06,-20.25,-6.914,-5.403,16.96,-16.54,-6.245,0,0,0,0,0,0,0,0,0,0,0,0,0,0,0,0,
334,346.1,353.7,206.6,238.9,180.4,188.1,24.02,48.49,35.54,68.58,-4.506,21.3,14.6,36.81,-0.2677,12.21,0,0,0,0,0,0,0,0,0,0,0,0,0,0,0,0,
335,334.4,343.9,256.5,283.8,221.6,208.1,46.17,89.52,62.82,87.87,9.728,41.83,26.32,42.48,12.59,21.49,0,0,0,0,0,0,0,0,0,0,0,0,0,0,0,0,
336,337.9,343.4,269.2,302.7,235.5,194.6,63.63,71.73,75.58,86.79,18.47,37.73,29.36,42.02,19.09,25.52,0,0,0,0,0,0,0,0,0,0,0,0,0,0,0,0,
337,342.2,349.7,267.7,301.1,234.4,194.5,72.74,72.47,80.82,86.13,30.93,40.88,40.26,48.01,27.38,31.08,0,0,0,0,0,0,0,0,0,0,0,0,0,0,0,0,
338,341.2,350.6,260.4,286.4,224.6,199.4,69.06,83.61,85.92,88.65,39.55,33.79,45.08,43.81,27.61,22.03,0,0,0,0,0,0,0,0,0,0,0,0,0,0,0,0,
339,318.1,325.6,236.7,263.9,203.1,179.7,49.58,46.61,76.05,80.06,28.7,5.387,27.93,24.02,11.61,2.207,0,0,0,0,0,0,0,0,0,0,0,0,0,0,0,0,
340,274.9,284.6,211.7,245.9,181.5,158.9,33.07,22.03,52.99,63.08,6.837,3.304,9.391,15.66,-2.873,-1.898,0,0,0,0,0,0,0,0,0,0,0,0,0,0,0,0,
341,243.9,257.5,200.0,233.1,171.7,156.2,35.41,46.6,45.13,60.03,-1.692,19.95,6.618,21.74,-2.062,4.27,0,0,0,0,0,0,0,0,0,0,0,0,0,0,0,0,
342,210.5,229.5,182.8,210.0,155.1,135.6,31.51,56.38,44.78,60.3,-3.709,8.625,2.412,14.29,-8.462,-6.479,0,0,0,0,0,0,0,0,0,0,0,0,0,0,0,0,
343,157.7,180.6,152.6,177.5,123.9,96.61,15.76,38.71,27.98,40.27,-16.09,-8.462,-10.14,-3.974,-26.82,-22.36,0,0,0,0,0,0,0,0,0,0,0,0,0,0,0,0,
344,120.9,128.5,135.1,158.2,108.6,92.17,22.14,37.76,18.51,27.26,-14.57,2.787,-5.031,-3.482,-19.48,-14.15,0,0,0,0,0,0,0,0,0,0,0,0,0,0,0,0,
345,102.8,96.74,129.9,149.5,108.5,104.7,31.07,44.87,28.48,38.34,2.101,11.46,7.47,2.774,-0.5723,-3.096,0,0,0,0,0,0,0,0,0,0,0,0,0,0,0,0,
346,65.25,74.09,105.2,126.6,84.93,78.49,1.781,18.7,18.6,34.41,-12.29,-8.087,-13.2,-13.63,-19.78,-19.48,0,0,0,0,0,0,0,0,0,0,0,0,0,0,0,0,
347,16.05,25.86,71.53,99.27,49.0,46.83,-23.47,-9.997,-12.72,9.02,-41.19,-20.83,-38.61,-23.91,-43.69,-33.0,0,0,0,0,0,0,0,0,0,0,0,0,0,0,0,0,
348,-9.123,-22.37,65.83,88.65,44.15,50.83,-3.957,16.86,-17.23,4.175,-28.98,-4.514,-23.98,-4.893,-23.81,-16.14,0,0,0,0,0,0,0,0,0,0,0,0,0,0,0,0,
349,-20.37,-27.49,68.99,75.62,54.87,50.39,11.66,46.25,3.291,18.56,-6.452,5.96,-6.57,5.393,-4.382,-3.898,0,0,0,0,0,0,0,0,0,0,0,0,0,0,0,0,
350,-47.62,-36.2,48.38,50.6,44.36,28.59,-6.422,20.84,2.552,14.85,-21.66,-8.479,-19.94,-7.779,-23.85,-17.37,0,0,0,0,0,0,0,0,0,0,0,0,0,0,0,0,
351,-71.87,-70.44,32.9,39.92,31.63,24.68,-16.05,6.815,-13.55,2.549,-38.01,-14.95,-29.82,-12.64,-40.7,-26.75,0,0,0,0,0,0,0,0,0,0,0,0,0,0,0,0,
352,-71.97,-78.36,39.83,39.87,34.4,32.54,-6.674,20.94,-10.82,5.545,-27.48,-5.634,-20.39,-9.444,-33.65,-26.59,0,0,0,0,0,0,0,0,0,0,0,0,0,0,0,0,
353,-78.28,-76.65,35.05,26.35,29.51,21.32,-6.24,0.7072,-3.002,4.443,-20.0,-12.64,-15.4,-18.06,-31.91,-33.96,0,0,0,0,0,0,0,0,0,0,0,0,0,0,0,0,
354,-100.4,-105.4,19.56,10.35,19.91,13.95,-4.99,-21.88,-4.141,-2.26,-22.0,-23.56,-16.61,-23.31,-37.64,-35.17,0,0,0,0,0,0,0,0,0,0,0,0,0,0,0,0,
355,-115.2,-134.4,15.39,0.167,18.88,19.47,0.1986,-2.593,-1.849,1.521,-25.94,-17.23,-20.54,-21.92,-38.47,-28.26,0,0,0,0,0,0,0,0,0,0,0,0,0,0,0,0,
356,-127.4,-141.8,8.223,-12.57,7.701,3.843,-13.91,13.62,-9.316,-10.8,-34.25,-19.03,-32.96,-32.46,-36.57,-29.25,0,0,0,0,0,0,0,0,0,0,0,0,0,0,0,0,
357,-138.6,-141.7,-1.834,-17.0,-6.309,-14.91,-24.75,-1.993,-26.31,-34.37,-30.58,-20.91,-34.01,-34.23,-29.61,-27.64,0,0,0,0,0,0,0,0,0,0,0,0,0,0,0,0,
358,-142.3,-145.0,-5.8,-15.2,-7.462,-8.539,-17.25,-28.31,-25.69,-26.15,-27.4,-12.24,-24.41,-22.51,-30.45,-26.38,0,0,0,0,0,0,0,0,0,0,0,0,0,0,0,0,
359,-151.5,-148.5,-18.58,-21.8,-16.26,-9.623,-23.23,-30.5,-22.24,-10.44,-41.55,-26.27,-29.66,-30.16,-37.9,-34.33,0,0,0,0,0,0,0,0,0,0,0,0,0,0,0,0,
360,-156.2,-144.0,-28.78,-23.65,-24.53,-20.69,-31.21,-3.928,-26.72,-16.87,-33.31,-36.96,-28.28,-36.9,-24.16,-28.97,0,0,0,0,0,0,0,0,0,0,0,0,0,0,0,0,
361,-148.4,-144.8,-27.77,-23.67,-20.89,-20.96,-26.37,1.286,-19.37,-20.0,-14.37,-16.77,-19.5,-28.03,-17.39,-19.14,0,0,0,0,0,0,0,0,0,0,0,0,0,0,0,0,
362,-156.6,-157.3,-44.44,-42.42,-39.84,-37.5,-37.34,-15.0,-23.72,-27.05,-35.51,-12.83,-42.24,-40.56,-41.71,-29.03,0,0,0,0,0,0,0,0,0,0,0,0,0,0,0,0,
363,-173.4,-164.1,-67.84,-61.81,-69.8,-63.48,-47.2,-8.925,-53.36,-54.81,-58.11,-27.66,-66.66,-60.17,-52.55,-40.52,0,0,0,0,0,0,0,0,0,0,0,0,0,0,0,0,
364,-171.3,-165.0,-65.31,-62.08,-66.99,-58.46,-36.77,-9.807,-64.43,-67.0,-52.7,-29.78,-60.98,-56.3,-50.47,-46.08,0,0,0,0,0,0,0,0,0,0,0,0,0,0,0,0,
365,-163.5,-160.9,-55.98,-55.73,-53.32,-44.4,-41.64,-29.43,-52.32,-50.76,-58.27,-29.58,-58.51,-49.42,-62.44,-51.62,0,0,0,0,0,0,0,0,0,0,0,0,0,0,0,0,
366,-158.9,-148.4,-59.4,-53.01,-57.76,-52.15,-56.66,-26.96,-50.85,-41.46,-69.56,-35.3,-63.45,-50.08,-61.86,-47.88,0,0,0,0,0,0,0,0,0,0,0,0,0,0,0,0,
367,-149.8,-143.7,-56.78,-51.22,-60.73,-60.92,-47.64,-26.61,-54.3,-47.02,-56.44,-38.38,-55.39,-48.4,-42.28,-38.34,0,0,0,0,0,0,0,0,0,0,0,0,0,0,0,0,
368,-141.1,-147.1,-41.09,-48.54,-50.64,-50.47,-27.63,-36.23,-46.04,-44.9,-31.74,-25.72,-42.16,-38.24,-26.14,-27.34,0,0,0,0,0,0,0,0,0,0,0,0,0,0,0,0,
369,-136.4,-144.2,-33.58,-51.13,-42.85,-36.28,-19.54,-11.67,-36.88,-34.74,-23.22,-9.337,-38.58,-28.79,-22.63,-21.27,0,0,0,0,0,0,0,0,0,0,0,0,0,0,0,0,
370,-131.0,-130.1,-37.85,-52.09,-40.03,-38.12,-20.34,10.49,-37.5,-33.56,-32.74,-16.97,-46.68,-39.19,-34.71,-32.17,0,0,0,0,0,0,0,0,0,0,0,0,0,0,0,0,
371,-120.4,-109.7,-33.32,-39.05,-28.32,-42.13,-18.02,-7.689,-38.45,-38.22,-35.69,-26.34,-48.93,-51.54,-42.5,-40.36,0,0,0,0,0,0,0,0,0,0,0,0,0,0,0,0,
372,-115.2,-115.2,-28.17,-41.08,-18.41,-34.93,-15.23,-21.37,-31.28,-35.9,-32.08,-22.48,-41.6,-45.48,-36.7,-35.15,0,0,0,0,0,0,0,0,0,0,0,0,0,0,0,0,
373,-128.8,-144.4,-39.04,-65.13,-29.94,-32.91,-19.6,-20.48,-27.04,-30.2,-37.8,-26.82,-42.08,-39.55,-37.17,-37.6,0,0,0,0,0,0,0,0,0,0,0,0,0,0,0,0,
374,-137.5,-142.4,-45.75,-57.12,-45.31,-35.76,-20.09,-25.86,-33.05,-25.97,-35.25,-27.24,-42.26,-36.58,-36.93,-39.86,0,0,0,0,0,0,0,0,0,0,0,0,0,0,0,0,
375,-126.3,-117.0,-42.83,-26.54,-47.38,-35.22,-16.12,-23.73,-37.72,-22.5,-20.07,-15.21,-32.32,-25.8,-25.26,-25.8,0,0,0,0,0,0,0,0,0,0,0,0,0,0,0,0,
376,-120.8,-111.2,-45.01,-27.86,-45.57,-39.3,-16.46,-8.282,-32.98,-22.45,-14.06,-3.351,-23.28,-14.31,-18.23,-11.65,0,0,0,0,0,0,0,0,0,0,0,0,0,0,0,0,
377,-123.8,-114.2,-44.96,-39.65,-45.07,-38.8,-13.65,8.555,-26.15,-22.16,-18.55,0.7299,-21.15,-12.73,-20.75,-12.37,0,0,0,0,0,0,0,0,0,0,0,0,0,0,0,0,
378,-124.5,-119.3,-48.41,-40.33,-52.05,-34.74,-18.07,6.475,-29.58,-24.16,-28.76,-17.65,-29.64,-26.66,-28.73,-24.21,0,0,0,0,0,0,0,0,0,0,0,0,0,0,0,0,
379,-133.7,-131.4,-62.73,-50.76,-64.74,-45.63,-32.69,-18.41,-41.49,-38.52,-35.8,-33.78,-39.09,-38.72,-37.09,-30.61,0,0,0,0,0,0,0,0,0,0,0,0,0,0,0,0,
380,-139.0,-127.9,-62.24,-53.79,-62.42,-54.25,-27.33,-21.14,-44.37,-45.6,-25.99,-15.27,-32.91,-28.91,-29.55,-17.86,0,0,0,0,0,0,0,0,0,0,0,0,0,0,0,0,
381,-126.2,-107.8,-46.95,-39.58,-47.89,-47.12,-12.17,-5.38,-36.61,-29.57,-10.78,2.781,-21.55,-14.68,-8.6,-1.185,0,0,0,0,0,0,0,0,0,0,0,0,0,0,0,0,
382,-116.8,-103.0,-41.81,-39.91,-37.47,-35.81,-11.65,-27.84,-31.71,-17.09,-2.88,-2.386,-15.99,-11.53,0.8594,1.107,0,0,0,0,0,0,0,0,0,0,0,0,0,0,0,0,
383,-111.8,-113.3,-37.85,-46.14,-25.19,-16.7,-2.858,-40.58,-24.17,-12.4,3.991,-0.2792,-7.864,-5.893,-0.1944,2.74,0,0,0,0,0,0,0,0,0,0,0,0,0,0,0,0,
384,-97.2,-102.9,-27.08,-33.9,-16.33,-9.028,10.44,9.37,-8.786,-0.0069,6.208,12.08,-2.236,-1.193,1.004,7.248,0,0,0,0,0,0,0,0,0,0,0,0,0,0,0,0,
385,-97.97,-81.26,-29.58,-28.85,-29.48,-35.57,-3.529,29.27,-9.38,-7.809,-7.048,0.0746,-16.41,-19.28,-9.991,-8.245,0,0,0,0,0,0,0,0,0,0,0,0,0,0,0,0,
386,-119.3,-94.39,-43.61,-41.03,-47.06,-52.58,-24.27,-9.876,-33.03,-37.42,-23.43,-26.64,-36.08,-39.33,-25.56,-27.17,0,0,0,0,0,0,0,0,0,0,0,0,0,0,0,0,
387,-117.9,-113.9,-46.09,-40.64,-41.09,-34.8,-24.86,-11.56,-45.46,-39.1,-22.32,-20.87,-29.95,-26.37,-17.61,-18.2,0,0,0,0,0,0,0,0,0,0,0,0,0,0,0,0,
388,-93.6,-95.86,-38.0,-32.35,-26.1,-23.83,-15.94,2.212,-32.34,-21.12,-11.81,-5.325,-10.97,-10.7,-8.091,-8.609,0,0,0,0,0,0,0,0,0,0,0,0,0,0,0,0,
389,-84.57,-79.91,-31.84,-33.39,-21.34,-26.28,-4.175,-32.33,-15.25,-20.04,-6.605,-17.55,-4.411,-18.39,-15.39,-19.1,0,0,0,0,0,0,0,0,0,0,0,0,0,0,0,0,
390,-87.96,-84.89,-29.41,-26.7,-19.31,-20.29,2.416,-39.67,-5.267,-16.83,-4.907,-18.07,-3.678,-18.76,-17.97,-24.28,0,0,0,0,0,0,0,0,0,0,0,0,0,0,0,0,
391,-89.3,-80.69,-33.75,-14.72,-21.97,-21.09,-5.457,8.018,-6.071,-6.905,-10.9,-0.2628,-8.535,-12.12,-19.8,-20.31,0,0,0,0,0,0,0,0,0,0,0,0,0,0,0,0,
392,-89.02,-74.35,-38.12,-16.57,-28.66,-29.64,-9.505,27.86,-16.64,-11.57,-19.65,0.7858,-16.07,-11.98,-23.14,-14.48,0,0,0,0,0,0,0,0,0,0,0,0,0,0,0,0,
393,-81.58,-75.62,-31.59,-18.38,-25.35,-24.03,-5.78,17.81,-18.87,-11.63,-18.39,-1.737,-14.83,-3.237,-15.33,-4.192,0,0,0,0,0,0,0,0,0,0,0,0,0,0,0,0,
394,-81.83,-80.65,-29.47,-16.56,-26.73,-18.12,-13.75,14.68,-17.25,-2.433,-21.22,-2.359,-19.15,0.7745,-16.22,-3.357,0,0,0,0,0,0,0,0,0,0,0,0,0,0,0,0,
395,-99.01,-95.54,-40.13,-29.62,-42.04,-26.82,-23.14,0.1944,-28.18,-10.65,-31.2,-9.484,-28.92,-9.736,-26.88,-11.58,0,0,0,0,0,0,0,0,0,0,0,0,0,0,0,0,
396,-102.5,-101.0,-46.04,-43.81,-47.79,-34.87,-20.05,-19.51,-33.88,-22.28,-28.78,-11.58,-28.15,-16.06,-22.06,-12.48,0,0,0,0,0,0,0,0,0,0,0,0,0,0,0,0,
397,-92.98,-88.89,-45.86,-40.75,-47.8,-42.25,-15.82,-22.81,-29.09,-23.3,-18.34,-17.06,-26.84,-23.68,-13.66,-14.32,0,0,0,0,0,0,0,0,0,0,0,0,0,0,0,0,
398,-98.38,-89.83,-47.71,-35.99,-56.68,-53.88,-15.03,-19.78,-33.87,-31.06,-13.31,-29.85,-28.72,-36.09,-20.27,-28.18,0,0,0,0,0,0,0,0,0,0,0,0,0,0,0,0,
399,-102.4,-97.72,-47.23,-36.89,-57.67,-49.15,-16.21,-18.93,-39.36,-33.31,-17.05,-30.4,-29.26,-37.23,-33.06,-43.95,0,0,0,0,0,0,0,0,0,0,0,0,0,0,0,0,
400,-88.01,-83.89,-41.03,-30.15,-44.21,-26.73,-13.33,-18.97,-32.77,-17.2,-20.62,-15.69,-27.43,-24.78,-29.83,-40.88,0,0,0,0,0,0,0,0,0,0,0,0,0,0,0,0,
401,-72.04,-64.73,-26.49,-18.2,-27.04,-14.08,6.084,-1.528,-20.17,-4.374,1.112,4.186,-8.172,-3.72,3.151,-9.555,0,0,0,0,0,0,0,0,0,0,0,0,0,0,0,0,
402,-58.93,-57.22,-6.34,-10.53,-8.336,-10.07,33.08,37.21,1.173,4.361,40.02,23.63,24.2,18.79,39.31,26.44,0,0,0,0,0,0,0,0,0,0,0,0,0,0,0,0,
403,-44.23,-48.28,7.773,-4.446,6.665,4.196,48.25,49.94,24.04,20.22,55.37,35.69,41.76,30.17,47.31,39.48,0,0,0,0,0,0,0,0,0,0,0,0,0,0,0,0,
404,-37.24,-41.28,8.073,-5.526,7.651,15.12,40.77,30.95,28.94,29.31,41.99,27.55,34.0,23.26,35.43,31.33,0,0,0,0,0,0,0,0,0,0,0,0,0,0,0,0,
405,-47.48,-52.35,-12.16,-23.43,-9.241,3.5,9.057,15.31,15.73,20.99,16.61,1.509,8.0,4.786,13.96,13.25,0,0,0,0,0,0,0,0,0,0,0,0,0,0,0,0,
406,-74.33,-76.78,-44.32,-43.62,-34.1,-18.92,-19.77,-17.14,-7.806,1.211,-10.98,-19.78,-17.05,-8.899,-9.403,-4.446,0,0,0,0,0,0,0,0,0,0,0,0,0,0,0,0,
407,-93.78,-95.12,-56.92,-46.72,-45.88,-33.78,-20.22,-50.19,-28.83,-13.92,-20.69,-23.11,-21.37,-10.34,-13.99,-7.994,0,0,0,0,0,0,0,0,0,0,0,0,0,0,0,0,
408,-82.38,-89.22,-43.49,-40.57,-39.44,-36.99,-9.347,-22.69,-27.25,-11.81,-8.459,-6.512,-9.2,-4.186,-5.055,0.765,0,0,0,0,0,0,0,0,0,0,0,0,0,0,0,0,
409,-67.37,-71.01,-31.97,-42.12,-32.98,-34.98,-6.458,13.15,-12.44,-8.521,2.102,11.27,0.1104,-2.973,-2.905,3.831,0,0,0,0,0,0,0,0,0,0,0,0,0,0,0,0,
410,-76.29,-72.12,-35.31,-47.79,-37.45,-35.75,-8.09,-1.749,-9.767,-17.47,1.713,3.929,-1.322,-13.71,-4.504,-3.902,0,0,0,0,0,0,0,0,0,0,0,0,0,0,0,0,
411,-83.89,-82.81,-43.44,-49.1,-45.66,-39.49,-13.65,-7.549,-16.68,-24.61,-7.407,-10.92,-9.01,-22.87,-11.28,-13.81,0,0,0,0,0,0,0,0,0,0,0,0,0,0,0,0,
412,-81.26,-85.41,-47.99,-52.56,-50.08,-42.48,-23.79,-1.72,-24.67,-28.51,-22.69,-16.57,-20.44,-25.58,-26.52,-20.56,0,0,0,0,0,0,0,0,0,0,0,0,0,0,0,0,
413,-85.33,-93.85,-46.51,-56.26,-49.66,-39.89,-27.96,-34.6,-32.26,-33.62,-25.48,-20.16,-26.51,-26.75,-28.69,-18.88,0,0,0,0,0,0,0,0,0,0,0,0,0,0,0,0,
414,-82.89,-92.77,-43.13,-49.94,-49.05,-33.92,-22.66,-44.28,-31.24,-30.01,-14.58,-12.0,-20.69,-21.41,-17.47,-12.45,0,0,0,0,0,0,0,0,0,0,0,0,0,0,0,0,
415,-73.05,-71.15,-45.74,-44.13,-55.47,-41.79,-21.32,-8.282,-28.87,-28.53,-14.72,-7.844,-20.14,-21.68,-17.96,-15.65,0,0,0,0,0,0,0,0,0,0,0,0,0,0,0,0,
416,-78.14,-68.42,-51.06,-49.29,-63.67,-60.15,-27.02,-13.64,-36.46,-41.55,-21.55,-22.62,-27.63,-34.1,-24.42,-23.14,0,0,0,0,0,0,0,0,0,0,0,0,0,0,0,0,
417,-88.71,-86.87,-50.89,-56.43,-62.76,-61.15,-27.31,-37.06,-41.0,-48.8,-17.95,-22.98,-26.79,-38.77,-21.24,-21.37,0,0,0,0,0,0,0,0,0,0,0,0,0,0,0,0,
418,-87.88,-93.52,-47.26,-57.15,-57.1,-49.63,-19.52,-12.59,-37.15,-43.72,-10.06,-7.832,-20.79,-33.41,-12.16,-14.51,0,0,0,0,0,0,0,0,0,0,0,0,0,0,0,0,
419,-78.39,-84.85,-43.24,-50.65,-55.87,-52.1,-11.39,-0.126,-34.7,-41.4,-4.5,-3.86,-15.18,-25.87,-5.475,-7.718,0,0,0,0,0,0,0,0,0,0,0,0,0,0,0,0,
420,-71.64,-71.77,-42.95,-46.61,-62.13,-63.82,-15.59,-27.72,-35.69,-40.92,-11.23,-10.3,-17.01,-22.33,-14.43,-7.154,0,0,0,0,0,0,0,0,0,0,0,0,0,0,0,0,
421,-78.79,-71.74,-48.86,-48.2,-68.06,-62.6,-29.49,-38.08,-39.98,-40.18,-29.18,-19.03,-29.53,-30.41,-29.68,-16.62,0,0,0,0,0,0,0,0,0,0,0,0,0,0,0,0,
422,-80.0,-76.86,-45.92,-40.42,-57.79,-45.28,-26.6,-25.46,-37.91,-39.08,-29.32,-18.73,-30.38,-36.6,-26.78,-22.65,0,0,0,0,0,0,0,0,0,0,0,0,0,0,0,0,
423,-63.7,-65.98,-35.41,-33.57,-45.95,-31.95,-19.06,-15.74,-28.29,-33.0,-22.15,-16.46,-27.31,-37.78,-26.48,-23.36,0,0,0,0,0,0,0,0,0,0,0,0,0,0,0,0,
424,-65.82,-71.07,-41.1,-44.2,-56.12,-35.54,-35.12,-14.57,-35.2,-33.1,-37.21,-26.0,-40.08,-42.48,-40.94,-25.52,0,0,0,0,0,0,0,0,0,0,0,0,0,0,0,0,
425,-80.72,-87.19,-48.28,-47.9,-62.07,-41.27,-39.09,-15.44,-46.33,-39.41,-41.46,-25.23,-37.14,-35.47,-35.33,-19.73,0,0,0,0,0,0,0,0,0,0,0,0,0,0,0,0,
426,-70.36,-64.87,-38.7,-40.17,-48.85,-41.35,-18.36,-9.678,-32.31,-33.71,-20.64,-11.31,-17.28,-22.48,-20.12,-12.49,0,0,0,0,0,0,0,0,0,0,0,0,0,0,0,0,
427,-59.0,-50.21,-39.58,-44.36,-49.03,-44.84,-18.69,-12.31,-22.43,-26.97,-16.48,-10.11,-18.31,-23.65,-25.72,-16.28,0,0,0,0,0,0,0,0,0,0,0,0,0,0,0,0,
428,-64.78,-72.28,-48.52,-46.62,-58.49,-46.41,-26.1,-23.63,-32.0,-30.33,-20.41,-17.46,-23.75,-24.48,-25.45,-15.02,0,0,0,0,0,0,0,0,0,0,0,0,0,0,0,0,
429,-62.8,-64.87,-39.74,-38.11,-53.35,-43.52,-11.96,-22.17,-28.39,-28.6,-8.969,-19.96,-15.31,-18.5,-14.73,-7.334,0,0,0,0,0,0,0,0,0,0,0,0,0,0,0,0,
430,-61.04,-44.94,-34.1,-38.18,-51.06,-43.36,-6.865,-17.37,-19.79,-25.02,-9.146,-17.68,-14.59,-17.57,-20.44,-9.426,0,0,0,0,0,0,0,0,0,0,0,0,0,0,0,0,
431,-67.64,-63.11,-37.5,-39.41,-52.14,-34.48,-10.15,-10.74,-22.24,-25.84,-13.89,-13.97,-15.6,-16.55,-17.71,-9.219,0,0,0,0,0,0,0,0,0,0,0,0,0,0,0,0,
432,-65.07,-74.84,-30.06,-35.21,-39.67,-19.44,-2.385,-4.926,-15.41,-22.09,2.136,-14.41,-5.88,-13.67,3.6,-0.2389,0,0,0,0,0,0,0,0,0,0,0,0,0,0,0,0,
433,-62.58,-61.84,-31.64,-40.44,-37.52,-25.37,-7.854,-27.77,-10.78,-21.02,6.607,-17.23,-5.953,-15.58,1.593,0.1409,0,0,0,0,0,0,0,0,0,0,0,0,0,0,0,0,
434,-65.88,-58.1,-44.24,-45.33,-53.23,-43.71,-21.6,-44.11,-25.56,-25.15,-12.28,-17.92,-17.31,-17.06,-17.39,-6.923,0,0,0,0,0,0,0,0,0,0,0,0,0,0,0,0,
435,-63.19,-63.52,-41.69,-41.69,-57.72,-46.6,-17.3,-16.81,-36.03,-25.46,-21.74,-19.9,-23.62,-18.43,-21.6,-14.36,0,0,0,0,0,0,0,0,0,0,0,0,0,0,0,0,
436,-64.48,-68.67,-41.68,-44.68,-53.11,-37.95,-15.1,3.068,-38.26,-29.13,-20.48,-23.76,-27.83,-25.91,-22.72,-22.11,0,0,0,0,0,0,0,0,0,0,0,0,0,0,0,0,
437,-65.04,-60.17,-46.42,-43.74,-47.81,-31.14,-20.04,0.1908,-38.56,-33.76,-15.69,-17.72,-23.66,-25.21,-21.54,-15.82,0,0,0,0,0,0,0,0,0,0,0,0,0,0,0,0,
438,-50.22,-35.29,-29.57,-29.51,-36.14,-31.74,-12.36,5.273,-24.18,-27.47,-6.361,-4.54,-11.12,-13.06,-11.26,-1.666,0,0,0,0,0,0,0,0,0,0,0,0,0,0,0,0,
439,-47.99,-37.86,-21.88,-30.47,-39.26,-38.7,-13.11,-4.574,-18.12,-23.11,-11.35,-10.2,-19.58,-17.12,-16.58,-10.01,0,0,0,0,0,0,0,0,0,0,0,0,0,0,0,0,
440,-68.27,-67.47,-42.16,-44.79,-59.05,-43.6,-28.95,-35.94,-41.31,-32.17,-27.79,-26.62,-40.16,-34.04,-33.96,-28.97,0,0,0,0,0,0,0,0,0,0,0,0,0,0,0,0,
441,-71.8,-67.3,-47.84,-39.48,-62.46,-46.48,-26.19,-43.34,-54.88,-39.17,-28.75,-24.65,-38.53,-33.69,-31.44,-26.35,0,0,0,0,0,0,0,0,0,0,0,0,0,0,0,0,
442,-52.7,-46.62,-35.41,-24.69,-50.44,-41.54,-11.97,-21.95,-40.56,-30.81,-14.75,-15.66,-24.12,-21.44,-14.43,-12.32,0,0,0,0,0,0,0,0,0,0,0,0,0,0,0,0,
443,-41.66,-40.79,-31.47,-23.01,-40.2,-25.26,-12.15,-10.49,-25.57,-19.78,-3.079,-12.47,-14.38,-14.78,-6.22,-7.933,0,0,0,0,0,0,0,0,0,0,0,0,0,0,0,0,
444,-47.3,-38.24,-32.29,-26.93,-36.48,-24.59,-16.24,-12.13,-19.0,-21.41,-3.869,-11.16,-12.97,-14.79,-9.167,-10.37,0,0,0,0,0,0,0,0,0,0,0,0,0,0,0,0,
445,-58.63,-44.47,-35.67,-31.65,-48.35,-39.69,-18.82,-1.384,-21.92,-27.19,-13.05,-17.29,-20.8,-18.61,-13.57,-13.13,0,0,0,0,0,0,0,0,0,0,0,0,0,0,0,0,
446,-60.95,-58.4,-38.42,-35.24,-61.86,-41.29,-22.3,4.173,-33.81,-26.79,-14.52,-21.58,-22.4,-19.74,-15.1,-14.68,0,0,0,0,0,0,0,0,0,0,0,0,0,0,0,0,
447,-50.87,-47.18,-32.71,-30.71,-55.98,-39.57,-16.26,-17.87,-34.79,-25.24,-9.017,-14.57,-17.3,-19.15,-18.86,-15.62,0,0,0,0,0,0,0,0,0,0,0,0,0,0,0,0,
448,-43.73,-34.88,-32.18,-24.73,-45.37,-40.05,-10.83,-29.84,-26.23,-25.02,-10.63,-9.393,-21.04,-22.25,-25.11,-18.78,0,0,0,0,0,0,0,0,0,0,0,0,0,0,0,0,
449,-42.9,-49.74,-37.95,-25.17,-43.79,-28.9,-20.18,-16.54,-27.04,-25.97,-18.48,-13.25,-27.15,-26.16,-28.77,-23.2,0,0,0,0,0,0,0,0,0,0,0,0,0,0,0,0,
450,-44.52,-57.59,-36.91,-32.15,-45.74,-26.96,-26.88,-14.94,-30.18,-29.53,-21.18,-18.56,-27.32,-28.77,-28.3,-24.89,0,0,0,0,0,0,0,0,0,0,0,0,0,0,0,0,
451,-55.28,-54.53,-36.39,-39.46,-47.9,-37.14,-18.61,-21.44,-29.22,-31.29,-13.79,-14.53,-22.23,-26.03,-21.85,-21.57,0,0,0,0,0,0,0,0,0,0,0,0,0,0,0,0,
452,-60.12,-54.41,-35.56,-33.63,-46.09,-34.87,-8.008,-11.66,-29.23,-28.82,-6.42,-8.888,-14.52,-20.24,-14.56,-15.31,0,0,0,0,0,0,0,0,0,0,0,0,0,0,0,0,
453,-46.87,-47.22,-29.45,-24.31,-43.24,-30.72,-6.996,-0.9995,-24.36,-26.62,-9.104,-16.56,-14.07,-22.84,-14.37,-14.82,0,0,0,0,0,0,0,0,0,0,0,0,0,0,0,0,
454,-41.3,-46.36,-33.39,-28.43,-46.62,-30.62,-16.23,-8.413,-19.81,-25.68,-14.85,-23.33,-19.2,-28.14,-17.18,-20.73,0,0,0,0,0,0,0,0,0,0,0,0,0,0,0,0,
455,-43.33,-41.91,-39.98,-28.3,-47.66,-23.58,-23.26,-26.08,-23.57,-20.94,-18.33,-17.58,-19.33,-25.97,-19.31,-19.33,0,0,0,0,0,0,0,0,0,0,0,0,0,0,0,0,
456,-36.15,-23.69,-33.93,-21.12,-42.75,-25.67,-20.86,-31.48,-22.89,-17.22,-21.0,-12.84,-15.98,-24.13,-20.4,-12.39,0,0,0,0,0,0,0,0,0,0,0,0,0,0,0,0,
457,-44.31,-40.0,-36.09,-31.13,-43.9,-38.84,-24.34,-17.89,-20.21,-26.11,-20.1,-17.46,-16.9,-31.72,-19.31,-16.47,0,0,0,0,0,0,0,0,0,0,0,0,0,0,0,0,
458,-62.35,-68.99,-48.23,-43.8,-49.31,-39.78,-34.66,-10.86,-29.14,-37.47,-20.17,-26.42,-25.29,-42.21,-23.92,-26.46,0,0,0,0,0,0,0,0,0,0,0,0,0,0,0,0,
459,-52.02,-50.11,-45.43,-35.97,-47.6,-32.93,-31.77,-26.66,-36.21,-34.97,-25.05,-26.81,-31.87,-39.99,-33.18,-28.2,0,0,0,0,0,0,0,0,0,0,0,0,0,0,0,0,
460,-33.92,-29.28,-35.73,-23.25,-40.72,-30.2,-21.49,-37.25,-29.02,-24.93,-24.63,-19.18,-28.06,-28.24,-31.06,-25.12,0,0,0,0,0,0,0,0,0,0,0,0,0,0,0,0,
461,-35.67,-37.96,-32.77,-21.17,-36.31,-27.03,-21.61,-14.02,-19.66,-18.2,-20.4,-18.09,-25.02,-25.85,-24.21,-24.16,0,0,0,0,0,0,0,0,0,0,0,0,0,0,0,0,
462,-45.65,-42.69,-33.1,-28.59,-41.12,-32.15,-28.1,5.004,-22.28,-22.04,-26.04,-21.18,-32.32,-32.58,-30.31,-25.82,0,0,0,0,0,0,0,0,0,0,0,0,0,0,0,0,
463,-60.16,-54.15,-37.75,-36.56,-52.85,-44.29,-31.15,-22.0,-35.51,-34.03,-31.19,-20.86,-37.82,-34.58,-33.43,-24.68,0,0,0,0,0,0,0,0,0,0,0,0,0,0,0,0,
464,-63.63,-69.48,-34.54,-33.37,-50.87,-36.85,-23.49,-34.65,-38.61,-32.78,-19.42,-15.26,-28.65,-27.49,-20.37,-18.35,0,0,0,0,0,0,0,0,0,0,0,0,0,0,0,0,
465,-41.65,-48.37,-20.97,-24.4,-31.67,-21.76,-8.602,-0.6223,-22.1,-18.65,-7.976,-8.661,-16.38,-19.52,-15.6,-17.93,0,0,0,0,0,0,0,0,0,0,0,0,0,0,0,0,
466,-26.04,-16.85,-21.05,-20.65,-19.8,-25.58,-3.801,-6.145,-8.397,-13.88,-8.231,-15.47,-15.06,-18.88,-21.14,-22.88,0,0,0,0,0,0,0,0,0,0,0,0,0,0,0,0,
467,-28.03,-22.08,-22.6,-20.32,-17.44,-21.65,-6.166,-45.1,-7.255,-13.35,-1.657,-25.81,-13.68,-18.64,-12.97,-18.84,0,0,0,0,0,0,0,0,0,0,0,0,0,0,0,0,
468,-19.04,-29.59,-1.745,-18.88,-10.96,-5.493,-2.388,-27.86,-4.57,-7.807,5.533,-18.43,-6.941,-12.69,-2.959,-8.39,0,0,0,0,0,0,0,0,0,0,0,0,0,0,0,0,
469,-5.797,-8.194,12.95,-16.43,-11.18,-13.83,-1.898,0.4684,-4.653,-9.538,-1.279,-6.247,-4.486,-6.386,-0.0689,0.9576,0,0,0,0,0,0,0,0,0,0,0,0,0,0,0,0,
470,-11.91,-7.609,2.57,-20.16,-22.55,-23.24,-6.555,-17.69,-15.03,-16.08,1.104,-6.399,-1.248,-1.836,13.23,7.882,0,0,0,0,0,0,0,0,0,0,0,0,0,0,0,0,
471,-20.45,-28.53,-6.505,-27.34,-23.17,-7.419,-4.258,-23.96,-16.41,-11.08,12.8,-9.7,4.465,0.1641,17.22,6.397,0,0,0,0,0,0,0,0,0,0,0,0,0,0,0,0,
472,-13.54,-17.98,-5.531,-24.06,-7.967,-4.654,-3.573,4.081,-1.972,-1.219,1.712,-2.842,1.468,-0.8985,-6.125,-1.911,0,0,0,0,0,0,0,0,0,0,0,0,0,0,0,0,
473,-11.64,-10.8,-8.101,-19.46,1.786,-12.68,-8.381,19.95,5.862,-2.588,-15.25,4.573,-5.733,-3.464,-18.32,-7.306,0,0,0,0,0,0,0,0,0,0,0,0,0,0,0,0,
474,-22.83,-28.28,-12.07,-24.03,-4.559,-1.745,-2.999,-6.868,2.308,-7.231,-9.477,-3.794,-7.346,-8.53,-7.597,-7.952,0,0,0,0,0,0,0,0,0,0,0,0,0,0,0,0,
475,-25.76,-25.08,-12.83,-24.95,-16.09,-0.9605,1.72,-54.99,-1.631,-5.45,-6.467,-14.63,-9.011,-12.72,-9.899,-9.521,0,0,0,0,0,0,0,0,0,0,0,0,0,0,0,0,
476,-19.81,-22.66,-14.08,-20.67,-17.59,-14.52,-9.971,-51.81,-8.055,-4.662,-16.95,-9.945,-12.23,-9.211,-21.51,-12.35,0,0,0,0,0,0,0,0,0,0,0,0,0,0,0,0,
477,-14.45,-25.87,-12.25,-17.46,-7.376,-7.831,-12.29,5.988,-8.718,-1.555,-12.0,1.736,-6.033,0.1424,-14.89,-8.73,0,0,0,0,0,0,0,0,0,0,0,0,0,0,0,0,
478,-8.336,2.281,-6.498,-16.01,-0.0799,-1.136,3.078,25.96,4.529,6.366,1.834,1.807,2.803,1.088,-4.356,-4.494,0,0,0,0,0,0,0,0,0,0,0,0,0,0,0,0,
479,-8.963,13.21,-4.12,-19.23,-0.6277,-10.91,4.491,-4.396,11.39,5.894,-1.923,-12.72,-1.303,-9.325,-8.66,-8.94,0,0,0,0,0,0,0,0,0,0,0,0,0,0,0,0,
480,-11.03,-8.043,-4.27,-18.35,0.9896,-9.49,-5.025,-18.02,6.777,1.951,-10.12,-14.32,-4.234,-9.511,-10.33,-7.0,0,0,0,0,0,0,0,0,0,0,0,0,0,0,0,0,
481,-4.379,-6.23,-6.957,-13.46,1.479,-4.121,-4.291,-6.652,6.811,4.102,-2.567,3.929,3.098,-1.077,2.285,4.236,0,0,0,0,0,0,0,0,0,0,0,0,0,0,0,0,
482,-8.063,-3.132,-17.19,-19.52,-4.247,-9.381,-9.422,2.45,4.303,1.563,5.792,6.544,0.239,-6.197,7.552,2.646,0,0,0,0,0,0,0,0,0,0,0,0,0,0,0,0,
483,-23.16,-22.15,-28.69,-24.39,-7.266,-8.026,-25.78,2.61,-8.13,-6.545,-7.634,-5.011,-13.0,-12.43,-8.74,-8.315,0,0,0,0,0,0,0,0,0,0,0,0,0,0,0,0,
484,-24.52,-27.84,-32.5,-18.4,-7.391,-5.724,-29.0,-0.6131,-14.9,-8.489,-25.77,-4.271,-17.44,-7.392,-19.92,-8.546,0,0,0,0,0,0,0,0,0,0,0,0,0,0,0,0,
485,-19.47,-21.9,-29.68,-20.89,-10.14,-14.26,-19.84,-1.955,-10.38,-3.888,-16.81,-0.1157,-11.56,-4.306,-4.972,-1.226,0,0,0,0,0,0,0,0,0,0,0,0,0,0,0,0,
486,-26.83,-24.78,-25.44,-29.51,-13.23,-20.37,-15.54,-12.96,-6.969,-1.067,0.1963,-0.9837,-5.307,-4.459,8.709,1.552,0,0,0,0,0,0,0,0,0,0,0,0,0,0,0,0,
487,-30.1,-23.81,-19.08,-25.05,-12.32,-20.97,-10.03,-24.26,-8.304,-3.575,-1.546,-1.987,-3.465,-5.614,5.602,0.2011,0,0,0,0,0,0,0,0,0,0,0,0,0,0,0,0,
488,-12.45,-8.554,-8.396,-17.46,-5.773,-19.7,-0.4762,-9.401,-6.795,-7.385,-0.897,-8.269,-1.845,-10.91,7.771,-1.579,0,0,0,0,0,0,0,0,0,0,0,0,0,0,0,0,
489,-1.093,-1.404,-4.771,-24.4,-2.603,-15.71,-3.506,-6.914,-5.923,-13.55,5.892,-21.91,-1.145,-18.84,10.25,-5.649,0,0,0,0,0,0,0,0,0,0,0,0,0,0,0,0,
490,-15.59,-13.94,-10.26,-30.42,-4.478,-14.39,-10.38,-34.39,-9.235,-21.67,-0.3682,-23.93,-3.305,-23.81,1.342,-6.968,0,0,0,0,0,0,0,0,0,0,0,0,0,0,0,0,
491,-20.78,-18.42,-7.034,-18.82,-0.4757,-13.18,0.7486,-23.11,-4.519,-19.77,-2.844,-1.962,2.173,-15.08,5.317,2.509,0,0,0,0,0,0,0,0,0,0,0,0,0,0,0,0,
492,-7.391,-20.51,-1.869,-15.32,-0.9843,-7.725,11.18,4.378,4.316,-9.091,8.899,10.42,10.67,-0.6478,22.33,12.51,0,0,0,0,0,0,0,0,0,0,0,0,0,0,0,0,
493,-10.88,-38.27,-9.885,-30.15,-11.5,-5.628,3.068,-24.28,1.501,-1.581,15.45,0.2998,8.865,3.841,24.3,13.3,0,0,0,0,0,0,0,0,0,0,0,0,0,0,0,0,
494,-17.18,-29.06,-14.15,-26.65,-9.673,-6.71,-2.715,-35.41,-2.503,4.037,15.29,9.117,6.851,9.857,18.01,15.27,0,0,0,0,0,0,0,0,0,0,0,0,0,0,0,0,
495,-2.236,2.944,-7.072,-7.558,3.32,-4.425,1.596,15.0,3.627,8.726,16.02,28.44,10.04,20.19,20.09,22.13,0,0,0,0,0,0,0,0,0,0,0,0,0,0,0,0,
496,-0.1541,-2.329,-7.011,-10.56,4.419,-7.508,1.897,23.86,7.204,5.724,10.61,19.89,6.77,16.28,18.5,21.62,0,0,0,0,0,0,0,0,0,0,0,0,0,0,0,0,
497,-19.75,-23.63,-17.61,-26.0,-8.863,-18.72,-3.406,-21.12,-0.8444,-4.146,1.454,5.183,-1.459,3.179,12.24,15.86,0,0,0,0,0,0,0,0,0,0,0,0,0,0,0,0,
498,-23.25,-24.62,-22.29,-28.66,-18.6,-14.13,-6.094,-30.71,-9.041,-6.319,5.654,7.887,1.141,4.065,20.13,22.2,0,0,0,0,0,0,0,0,0,0,0,0,0,0,0,0,
499,-11.76,-23.33,-15.71,-24.92,-12.32,2.115,-2.234,-8.554,-5.741,3.629,14.46,10.49,10.76,12.7,28.64,31.11,0,0,0,0,0,0,0,0,0,0,0,0,0,0,0,0,
500,-13.33,-18.84,-16.43,-26.74,-7.657,-9.687,-1.683,-10.16,-4.447,0.0994,2.86,-0.3815,2.949,1.711,15.03,19.21,0,0,0,0,0,0,0,0,0,0,0,0,0,0,0,0,
501,-18.04,-11.14,-23.93,-29.69,-12.79,-28.21,-6.645,-33.3,-13.56,-19.05,-9.096,-8.257,-9.045,-13.17,5.893,5.503,0,0,0,0,0,0,0,0,0,0,0,0,0,0,0,0,
502,-3.328,-7.873,-9.701,-18.95,2.114,-4.859,5.465,-38.68,-6.543,-14.02,6.327,5.027,5.92,-1.988,19.55,12.47,0,0,0,0,0,0,0,0,0,0,0,0,0,0,0,0,
503,15.67,6.419,13.78,-2.737,30.81,22.96,27.74,-14.68,20.56,10.86,19.24,18.02,21.12,7.674,21.31,15.71,0,0,0,0,0,0,0,0,0,0,0,0,0,0,0,0,
504,14.87,10.13,9.982,-8.543,30.84,11.95,21.98,2.096,29.97,11.83,5.854,10.5,9.348,-3.311,2.122,2.951,0,0,0,0,0,0,0,0,0,0,0,0,0,0,0,0,
505,3.89,-11.1,-5.956,-24.35,10.6,-5.063,0.5058,-0.3559,13.56,-4.403,-2.995,4.546,-1.57,-7.156,-2.075,-1.922,0,0,0,0,0,0,0,0,0,0,0,0,0,0,0,0,
506,1.751,-9.401,-7.09,-21.81,3.864,-6.848,2.443,2.741,-0.2223,-8.023,10.42,10.71,2.975,-1.909,12.67,5.242,0,0,0,0,0,0,0,0,0,0,0,0,0,0,0,0,
507,6.431,9.311,-2.627,-14.81,8.209,-6.427,15.78,-14.42,-1.064,-5.596,20.74,8.829,7.455,-0.8616,17.75,8.928,0,0,0,0,0,0,0,0,0,0,0,0,0,0,0,0,
508,11.64,6.15,4.271,-16.49,15.74,3.18,18.36,-51.38,6.376,-1.24,19.14,-2.798,10.17,2.72,14.96,10.26,0,0,0,0,0,0,0,0,0,0,0,0,0,0,0,0,
509,16.99,5.746,16.38,-15.56,27.93,18.71,18.71,-28.33,21.69,13.36,20.46,-1.689,13.59,4.862,17.69,12.26,0,0,0,0,0,0,0,0,0,0,0,0,0,0,0,0,
510,12.96,8.178,12.13,-16.86,26.56,11.02,16.04,26.98,27.55,15.01,14.85,10.82,8.85,-0.9438,14.84,9.9,0,0,0,0,0,0,0,0,0,0,0,0,0,0,0,0,
511,-0.8483,-7.098,-5.472,-21.36,8.319,-10.79,9.569,25.17,13.38,-4.066,4.487,12.79,3.601,-0.4633,13.9,13.19,0,0,0,0,0,0,0,0,0,0,0,0,0,0,0,0,
512,-6.696,-14.68,-4.978,-20.21,1.499,-12.32,11.24,6.53,5.508,-8.019,12.52,6.239,9.344,5.985,23.82,20.49,0,0,0,0,0,0,0,0,0,0,0,0,0,0,0,0,
513,-10.08,-17.97,-1.529,-26.96,1.078,-8.484,10.33,-9.11,3.946,-2.615,15.97,0.4001,7.197,0.4804,21.19,12.92,0,0,0,0,0,0,0,0,0,0,0,0,0,0,0,0,
514,-13.54,-15.94,-10.04,-30.2,-3.492,-14.56,6.904,-48.17,-8.194,-6.471,7.551,3.854,2.152,2.704,19.86,12.89,0,0,0,0,0,0,0,0,0,0,0,0,0,0,0,0,
515,8.348,17.51,3.62,-3.234,14.21,0.5328,17.77,-34.57,2.119,11.48,17.39,21.01,16.7,25.67,34.4,31.55,0,0,0,0,0,0,0,0,0,0,0,0,0,0,0,0,
516,27.97,27.77,20.66,13.67,32.75,22.87,20.5,23.9,29.59,34.13,20.53,24.13,20.4,27.39,29.87,29.97,0,0,0,0,0,0,0,0,0,0,0,0,0,0,0,0,
517,6.122,-6.548,-0.0261,-8.733,16.95,10.91,13.18,28.57,25.21,19.92,15.07,17.56,14.32,15.71,25.73,21.54,0,0,0,0,0,0,0,0,0,0,0,0,0,0,0,0,
518,-11.89,-15.35,-15.57,-24.8,6.406,-2.652,25.95,15.45,19.63,9.388,35.68,23.87,32.73,26.43,41.64,30.45,0,0,0,0,0,0,0,0,0,0,0,0,0,0,0,0,
519,-5.321,-14.45,-9.028,-20.37,11.81,8.739,24.21,10.25,32.44,17.61,33.35,9.658,32.46,20.72,28.61,21.11,0,0,0,0,0,0,0,0,0,0,0,0,0,0,0,0,
520,-11.24,-26.25,-24.26,-13.35,0.2039,9.256,-9.594,-15.32,16.82,6.52,-2.086,-5.808,5.356,0.5122,11.09,7.893,0,0,0,0,0,0,0,0,0,0,0,0,0,0,0,0,
521,-12.89,2.694,-40.97,4.668,-6.702,2.508,-16.7,-11.99,-1.642,1.851,-0.8416,19.47,7.795,12.18,28.36,22.77,0,0,0,0,0,0,0,0,0,0,0,0,0,0,0,0,
522,4.154,33.08,-31.97,18.76,0.987,13.93,-0.8871,4.85,12.22,21.25,14.67,30.03,16.41,22.59,30.85,29.2,0,0,0,0,0,0,0,0,0,0,0,0,0,0,0,0,
523,6.881,19.03,-29.34,11.44,-4.726,14.45,-4.636,-1.92,13.75,22.86,9.284,18.7,7.07,14.89,21.64,22.73,0,0,0,0,0,0,0,0,0,0,0,0,0,0,0,0,
524,-4.705,9.922,-36.37,-1.462,-16.22,-6.077,-9.879,15.66,-1.983,7.966,13.7,26.58,5.434,14.18,27.36,23.46,0,0,0,0,0,0,0,0,0,0,0,0,0,0,0,0,
525,-19.5,-13.17,-38.52,-19.59,-23.36,-8.849,-13.07,16.47,-8.7,1.071,9.677,19.41,-3.822,5.679,12.89,13.45,0,0,0,0,0,0,0,0,0,0,0,0,0,0,0,0,
526,-33.91,-54.17,-42.38,-31.32,-25.81,2.187,-22.51,-28.12,-18.52,-2.268,-11.71,5.917,-17.6,-0.0001,-1.96,6.834,0,0,0,0,0,0,0,0,0,0,0,0,0,0,0,0,
527,-23.43,-21.47,-35.28,-11.43,-12.73,-7.335,-11.89,-22.58,-20.85,0.6406,-7.613,22.35,-9.115,12.56,13.47,17.85,0,0,0,0,0,0,0,0,0,0,0,0,0,0,0,0,
528,1.015,40.46,-18.76,9.135,-2.998,-19.97,3.272,19.01,-6.164,5.567,6.221,27.03,-1.616,10.44,17.91,14.32,0,0,0,0,0,0,0,0,0,0,0,0,0,0,0,0,
529,8.508,30.64,-17.89,4.432,-8.358,-7.21,-2.818,24.55,-0.0074,1.179,4.434,12.62,-2.501,-2.367,10.71,2.949,0,0,0,0,0,0,0,0,0,0,0,0,0,0,0,0,
530,10.59,6.643,-19.99,0.0456,-2.86,9.669,-0.747,19.0,1.965,1.232,11.88,14.71,6.712,-0.3687,21.0,10.99,0,0,0,0,0,0,0,0,0,0,0,0,0,0,0,0,
531,8.141,5.657,-14.52,-4.611,6.022,8.862,9.842,8.589,8.629,7.741,24.52,20.37,12.42,4.154,27.02,20.65,0,0,0,0,0,0,0,0,0,0,0,0,0,0,0,0,
532,-8.762,-9.488,-20.23,-16.29,-1.109,1.223,6.91,-4.332,5.167,6.139,21.9,18.62,9.256,6.053,19.82,21.57,0,0,0,0,0,0,0,0,0,0,0,0,0,0,0,0,
533,-13.17,-6.039,-26.11,-11.11,-2.774,-4.075,10.96,7.983,4.025,2.752,15.52,23.84,10.77,11.79,17.92,25.44,0,0,0,0,0,0,0,0,0,0,0,0,0,0,0,0,
534,-2.192,13.32,-19.7,-1.334,4.198,-4.214,17.2,8.586,12.62,4.656,12.37,26.26,10.5,14.91,19.29,26.34,0,0,0,0,0,0,0,0,0,0,0,0,0,0,0,0,
535,-2.099,2.092,-18.01,-7.928,1.426,3.092,5.814,-15.23,10.32,8.235,13.37,16.01,6.546,15.94,23.56,24.35,0,0,0,0,0,0,0,0,0,0,0,0,0,0,0,0,
536,-2.2,1.206,-14.82,-3.216,2.252,7.815,5.698,-3.422,5.803,12.9,19.97,18.1,9.366,20.57,31.45,30.46,0,0,0,0,0,0,0,0,0,0,0,0,0,0,0,0,
537,3.716,16.29,-6.621,11.28,9.242,2.836,12.48,36.49,9.064,10.37,10.9,30.92,4.363,17.3,24.49,31.82,0,0,0,0,0,0,0,0,0,0,0,0,0,0,0,0,
538,-2.664,-3.174,-16.51,1.258,0.753,-3.308,-6.962,30.91,-1.739,-3.285,-10.72,18.69,-11.28,2.838,11.52,23.15,0,0,0,0,0,0,0,0,0,0,0,0,0,0,0,0,
539,-2.946,-8.95,-24.81,-8.577,-5.154,0.2035,-15.61,-11.03,-13.79,-6.304,-3.141,3.537,-0.6724,3.864,24.5,27.68,0,0,0,0,0,0,0,0,0,0,0,0,0,0,0,0,
540,16.51,28.97,-7.325,7.937,13.98,13.6,8.557,-9.442,6.338,14.1,25.07,15.93,29.76,20.73,46.7,39.95,0,0,0,0,0,0,0,0,0,0,0,0,0,0,0,0,
541,18.18,35.92,-2.27,13.31,26.25,21.39,16.25,19.32,31.98,29.49,27.71,20.81,33.49,21.08,42.17,33.08,0,0,0,0,0,0,0,0,0,0,0,0,0,0,0,0,
542,-2.706,6.978,-20.18,-2.27,12.14,13.64,3.046,4.728,26.36,21.11,10.66,12.12,17.01,11.24,22.55,18.52,0,0,0,0,0,0,0,0,0,0,0,0,0,0,0,0,
543,-7.324,1.416,-22.64,-4.841,-1.418,2.384,0.6507,-7.51,10.49,14.85,1.652,16.57,5.684,11.93,12.9,16.0,0,0,0,0,0,0,0,0,0,0,0,0,0,0,0,0,
544,-1.329,7.238,-17.55,0.69,-5.213,-2.672,-2.645,17.86,4.252,17.63,-1.609,14.36,-5.409,9.913,10.45,14.35,0,0,0,0,0,0,0,0,0,0,0,0,0,0,0,0,
545,-7.155,-4.858,-25.43,-4.802,-8.248,0.9304,-10.49,7.048,-2.3,9.494,-4.947,-3.468,-12.11,0.9162,4.831,7.836,0,0,0,0,0,0,0,0,0,0,0,0,0,0,0,0,
546,-3.856,-9.157,-21.07,-5.976,0.3526,15.37,-2.5,-23.28,-1.31,5.585,-1.483,-5.995,-2.023,2.55,3.967,10.32,0,0,0,0,0,0,0,0,0,0,0,0,0,0,0,0,
547,19.88,19.37,4.154,9.389,25.96,28.41,15.62,0.7198,18.26,19.87,16.45,10.05,21.48,16.89,22.72,24.51,0,0,0,0,0,0,0,0,0,0,0,0,0,0,0,0,
548,39.32,52.7,24.53,27.64,49.74,32.86,31.63,30.77,42.1,32.29,43.75,25.98,44.98,32.83,50.6,40.85,0,0,0,0,0,0,0,0,0,0,0,0,0,0,0,0,
549,45.38,55.98,31.92,36.22,58.34,39.23,45.82,23.81,57.44,40.34,63.22,42.59,56.99,46.81,68.84,55.75,0,0,0,0,0,0,0,0,0,0,0,0,0,0,0,0,
550,47.56,48.07,34.65,37.43,60.68,46.73,56.33,21.44,62.5,50.94,72.3,55.88,61.22,56.12,81.14,66.51,0,0,0,0,0,0,0,0,0,0,0,0,0,0,0,0,
551,43.27,48.84,32.34,34.45,63.61,48.7,59.58,32.42,59.94,54.66,75.62,51.55,60.02,52.36,81.69,64.3,0,0,0,0,0,0,0,0,0,0,0,0,0,0,0,0,
552,29.04,39.2,19.56,27.74,51.57,42.14,43.51,37.7,50.85,46.77,53.94,38.75,38.87,33.47,49.72,42.45,0,0,0,0,0,0,0,0,0,0,0,0,0,0,0,0,
553,16.82,26.59,1.405,22.85,21.12,23.46,7.62,30.11,26.23,27.86,6.771,23.73,2.519,7.648,5.511,12.29,0,0,0,0,0,0,0,0,0,0,0,0,0,0,0,0,
554,15.99,26.92,-7.301,17.88,3.784,13.47,-12.25,14.98,-1.891,11.41,-14.83,5.427,-12.43,-5.75,-5.027,1.326,0,0,0,0,0,0,0,0,0,0,0,0,0,0,0,0,
555,15.34,17.7,-7.718,7.893,9.307,24.47,-3.521,21.34,-4.475,12.48,1.766,4.349,1.177,1.443,8.858,9.319,0,0,0,0,0,0,0,0,0,0,0,0,0,0,0,0,
556,4.841,3.807,-15.23,3.329,7.359,22.75,-0.0395,28.62,4.062,11.56,4.322,12.1,6.111,4.537,5.988,8.22,0,0,0,0,0,0,0,0,0,0,0,0,0,0,0,0,
557,-0.7966,9.656,-21.9,7.658,-3.489,7.881,-5.71,-8.546,-1.635,1.11,-11.49,7.239,-2.059,1.356,-4.012,3.455,0,0,0,0,0,0,0,0,0,0,0,0,0,0,0,0,
558,9.124,20.92,-11.33,13.19,2.043,13.03,0.5119,-29.5,-4.419,7.72,-9.003,11.53,1.624,11.8,0.9842,10.65,0,0,0,0,0,0,0,0,0,0,0,0,0,0,0,0,
559,18.11,28.82,0.3142,19.57,11.79,15.22,6.936,15.62,2.535,19.77,0.7428,21.8,6.442,12.91,4.915,11.26,0,0,0,0,0,0,0,0,0,0,0,0,0,0,0,0,
560,14.92,31.58,-2.239,18.02,7.054,2.264,4.207,49.02,1.969,10.08,0.3214,14.41,2.104,-3.156,-0.0533,0.7904,0,0,0,0,0,0,0,0,0,0,0,0,0,0,0,0,
561,9.691,15.01,-3.481,5.001,6.212,12.83,4.092,36.3,-1.086,0.7607,-4.08,7.314,-1.118,-6.236,-6.247,-4.029,0,0,0,0,0,0,0,0,0,0,0,0,0,0,0,0,
562,8.835,3.497,-0.0069,-0.0725,15.85,27.7,5.914,21.83,1.836,5.503,-8.708,8.089,-3.618,-2.348,-6.176,-2.387,0,0,0,0,0,0,0,0,0,0,0,0,0,0,0,0,
563,11.17,20.64,-4.09,5.441,17.0,12.73,7.021,-5.941,5.196,4.201,-0.1991,4.72,1.408,-1.396,8.733,2.252,0,0,0,0,0,0,0,0,0,0,0,0,0,0,0,0,
564,17.42,35.25,-9.966,8.381,8.663,2.714,4.241,-43.16,8.301,2.864,11.57,1.039,9.868,4.834,17.07,4.797,0,0,0,0,0,0,0,0,0,0,0,0,0,0,0,0,
565,20.04,28.6,-12.63,10.21,0.4549,8.229,-8.113,-20.86,7.212,11.15,-0.9048,1.164,4.229,6.782,5.631,3.051,0,0,0,0,0,0,0,0,0,0,0,0,0,0,0,0,
566,12.45,18.64,-12.97,9.969,-4.412,6.639,-9.959,39.16,0.0637,10.87,-11.67,7.595,1.691,7.047,6.995,9.05,0,0,0,0,0,0,0,0,0,0,0,0,0,0,0,0,
567,6.969,16.1,-6.332,3.211,-2.813,10.03,5.826,44.4,-0.0769,5.625,2.031,16.84,11.45,15.18,23.32,19.94,0,0,0,0,0,0,0,0,0,0,0,0,0,0,0,0,
568,4.898,13.72,-9.737,-4.886,-2.067,12.81,5.51,14.94,6.729,9.233,9.218,18.54,12.24,18.56,24.73,18.36,0,0,0,0,0,0,0,0,0,0,0,0,0,0,0,0,
569,-8.648,0.7414,-31.16,-10.48,-8.702,-2.033,-13.07,9.858,4.87,6.046,0.6885,12.49,3.367,10.69,12.42,6.021,0,0,0,0,0,0,0,0,0,0,0,0,0,0,0,0,
570,-17.66,-10.89,-30.77,-13.16,-11.6,-10.52,-17.02,-8.976,-4.07,-5.155,-6.241,3.037,-7.169,0.2292,-1.881,-2.32,0,0,0,0,0,0,0,0,0,0,0,0,0,0,0,0,
571,-5.01,-5.955,-2.497,-16.86,-9.487,-8.406,-7.271,-42.9,-9.817,-6.955,-9.414,-4.005,-14.19,-4.301,-9.015,-1.161,0,0,0,0,0,0,0,0,0,0,0,0,0,0,0,0,
572,5.519,6.559,7.395,-20.09,-11.15,-14.63,-2.982,-25.93,-12.16,-6.06,-6.612,-2.361,-9.287,-3.12,-0.4965,2.648,0,0,0,0,0,0,0,0,0,0,0,0,0,0,0,0,
573,5.933,18.69,-2.932,-13.56,-11.34,-14.81,-6.131,8.733,-10.5,-8.294,-1.817,3.639,-3.241,-3.222,7.852,1.124,0,0,0,0,0,0,0,0,0,0,0,0,0,0,0,0,
574,4.559,12.3,-11.94,-14.34,-14.65,-6.954,-14.29,2.597,-9.86,-9.327,-10.28,-3.583,-10.1,-10.43,-1.272,-8.583,0,0,0,0,0,0,0,0,0,0,0,0,0,0,0,0,
575,-11.8,-18.65,-28.11,-34.29,-30.59,-15.93,-22.11,-16.11,-21.13,-19.78,-25.29,-24.97,-21.91,-23.66,-15.27,-20.54,0,0,0,0,0,0,0,0,0,0,0,0,0,0,0,0,
576,-24.41,-24.34,-36.15,-38.0,-35.43,-28.27,-22.35,-27.88,-30.84,-32.97,-25.32,-23.95,-21.81,-24.02,-13.88,-18.16,0,0,0,0,0,0,0,0,0,0,0,0,0,0,0,0,
577,-7.622,-1.496,-17.76,-21.12,-16.58,-17.35,-18.86,-25.48,-21.53,-24.8,-14.03,1.021,-10.3,-9.079,-0.8374,-3.203,0,0,0,0,0,0,0,0,0,0,0,0,0,0,0,0,
578,3.463,-2.083,-5.436,-20.31,-5.027,-2.297,-16.86,-5.467,-11.28,-10.9,-11.44,3.01,-7.236,-8.384,3.517,-0.6458,0,0,0,0,0,0,0,0,0,0,0,0,0,0,0,0,
579,-3.908,-4.119,-10.84,-23.04,-7.748,-1.894,-12.43,-4.863,-12.55,-15.95,-14.4,-11.82,-11.01,-17.15,-1.457,-10.11,0,0,0,0,0,0,0,0,0,0,0,0,0,0,0,0,
580,4.562,18.24,-6.28,-10.49,-0.7302,0.3097,-4.945,-4.492,-6.622,-20.43,-7.871,-11.78,-4.285,-14.2,-0.6273,-11.71,0,0,0,0,0,0,0,0,0,0,0,0,0,0,0,0,
581,18.87,27.35,1.876,-10.51,6.854,2.759,-4.312,10.57,3.667,-15.36,-2.564,-12.63,0.3292,-15.43,0.0269,-10.59,0,0,0,0,0,0,0,0,0,0,0,0,0,0,0,0,
582,15.78,23.58,-1.086,-22.48,-0.5075,-6.51,-10.18,-25.92,-1.465,-19.45,-9.422,-22.82,-5.862,-19.13,-6.609,-12.49,0,0,0,0,0,0,0,0,0,0,0,0,0,0,0,0,
583,14.1,26.77,3.494,-16.75,0.3211,-4.199,-4.247,-59.93,-5.258,-16.15,-9.508,-20.89,-2.248,-6.717,-5.214,-4.827,0,0,0,0,0,0,0,0,0,0,0,0,0,0,0,0,
584,21.4,24.42,14.17,-3.667,15.09,12.88,9.675,-10.08,7.455,3.893,-2.563,-4.857,5.576,1.275,-0.7653,2.579,0,0,0,0,0,0,0,0,0,0,0,0,0,0,0,0,
585,21.58,21.33,9.051,-1.578,14.41,12.77,8.633,23.66,9.684,2.353,-8.865,4.133,-2.105,-8.67,-6.745,-2.463,0,0,0,0,0,0,0,0,0,0,0,0,0,0,0,0,
586,16.96,23.45,2.933,-1.397,3.118,2.599,2.726,10.9,-1.505,-14.51,-10.52,2.851,-4.854,-12.56,-2.034,0.6081,0,0,0,0,0,0,0,0,0,0,0,0,0,0,0,0,
587,12.19,14.55,6.895,-7.247,1.378,0.5606,2.627,14.19,0.3974,-10.75,-0.3137,-1.7,2.429,-10.75,8.481,4.234,0,0,0,0,0,0,0,0,0,0,0,0,0,0,0,0,
588,-0.1881,2.351,-1.51,-23.7,-3.815,-5.273,-5.358,-17.92,0.401,-8.14,-3.907,-14.64,-6.783,-20.36,-0.259,-12.37,0,0,0,0,0,0,0,0,0,0,0,0,0,0,0,0,
589,-6.017,7.535,-10.02,-24.65,-7.053,-8.711,-5.227,-53.77,-10.0,-16.01,-0.2161,-11.82,-9.98,-17.85,2.889,-11.31,0,0,0,0,0,0,0,0,0,0,0,0,0,0,0,0,
590,3.876,10.59,-0.3238,-13.11,2.101,-3.861,8.972,-4.936,-3.077,-9.755,19.26,14.85,7.243,1.773,22.12,14.83,0,0,0,0,0,0,0,0,0,0,0,0,0,0,0,0,
591,2.144,-6.492,-2.771,-19.9,-5.889,-10.37,5.136,30.08,2.336,-9.55,10.91,14.35,2.67,-1.288,13.4,15.71,0,0,0,0,0,0,0,0,0,0,0,0,0,0,0,0,
592,-9.499,-5.84,-13.49,-27.93,-23.85,-21.9,-2.305,-8.713,-14.91,-25.88,-3.422,-4.708,-9.966,-14.79,1.392,2.649,0,0,0,0,0,0,0,0,0,0,0,0,0,0,0,0,
593,-5.432,16.52,-3.455,-19.1,-18.61,-20.09,9.573,-40.68,-17.88,-25.06,13.11,-3.705,3.58,-7.471,15.85,7.572,0,0,0,0,0,0,0,0,0,0,0,0,0,0,0,0,
594,-1.944,6.252,1.005,-15.93,-13.77,-10.12,10.88,-48.15,-5.41,-11.31,22.07,-5.014,10.43,-0.6397,21.79,11.53,0,0,0,0,0,0,0,0,0,0,0,0,0,0,0,0,
595,-5.381,-14.68,-8.815,-16.2,-22.31,-0.4494,-3.711,-29.82,-9.005,-9.858,8.611,-1.959,0.3514,-0.5756,9.386,6.511,0,0,0,0,0,0,0,0,0,0,0,0,0,0,0,0,
596,3.489,8.21,-7.147,-7.11,-18.35,-3.09,-14.13,18.12,-16.19,-14.31,-4.842,10.88,-6.038,0.0496,-4.408,-1.622,0,0,0,0,0,0,0,0,0,0,0,0,0,0,0,0,
597,11.1,36.59,-7.686,-2.471,-5.568,-16.35,-22.53,30.19,-16.18,-19.38,-14.87,-1.761,-11.4,-8.703,-12.49,-10.05,0,0,0,0,0,0,0,0,0,0,0,0,0,0,0,0,
598,10.74,32.08,-14.61,-4.012,5.473,-9.273,-23.6,-4.08,-16.48,-21.66,-12.94,-14.12,-8.314,-10.01,-5.058,-4.592,0,0,0,0,0,0,0,0,0,0,0,0,0,0,0,0,
599,19.61,22.2,-5.652,-2.485,16.55,15.71,-11.32,-13.97,-8.278,-7.005,-0.0259,-1.314,3.443,5.202,8.858,8.401,0,0,0,0,0,0,0,0,0,0,0,0,0,0,0,0,
600,27.99,23.42,6.155,2.991,16.76,20.9,1.426,11.12,4.136,9.365,5.589,7.142,5.66,12.98,10.56,11.03,0,0,0,0,0,0,0,0,0,0,0,0,0,0,0,0,
601,22.66,23.8,3.44,10.06,6.438,10.64,-0.5471,6.827,1.242,3.889,-4.769,4.114,-5.531,6.496,-4.628,2.823,0,0,0,0,0,0,0,0,0,0,0,0,0,0,0,0,
602,15.24,20.84,-2.956,11.49,0.2117,9.532,-16.98,-36.7,-13.53,-4.258,-26.25,-6.872,-22.75,-3.926,-24.05,-10.25,0,0,0,0,0,0,0,0,0,0,0,0,0,0,0,0,
603,16.1,26.61,-3.889,10.04,-0.3674,9.65,-21.78,-37.52,-21.0,-2.19,-30.27,-12.75,-24.88,-7.609,-20.2,-12.59,0,0,0,0,0,0,0,0,0,0,0,0,0,0,0,0,
604,22.14,36.25,-0.466,11.63,-1.67,6.385,-8.629,14.34,-14.18,-7.12,-7.763,4.009,-7.582,-1.756,-0.2323,0.4911,0,0,0,0,0,0,0,0,0,0,0,0,0,0,0,0,
605,24.49,33.91,0.8639,8.808,-5.808,4.787,-6.687,33.83,-5.142,-11.61,5.207,16.92,1.337,2.865,4.863,7.475,0,0,0,0,0,0,0,0,0,0,0,0,0,0,0,0,
606,20.04,30.25,-5.162,3.349,-10.99,-5.268,-15.39,18.54,-6.527,-8.316,1.935,9.356,-1.893,0.0589,1.715,1.772,0,0,0,0,0,0,0,0,0,0,0,0,0,0,0,0,
607,12.42,27.54,-15.23,-0.7201,-17.02,-15.12,-15.92,5.841,-14.93,-15.19,2.079,-1.012,-5.856,-8.258,-1.232,-5.842,0,0,0,0,0,0,0,0,0,0,0,0,0,0,0,0,
608,6.782,11.22,-22.35,-8.632,-22.76,-8.491,-14.56,-15.26,-21.26,-22.31,-2.617,-7.746,-11.75,-13.13,-12.79,-12.76,0,0,0,0,0,0,0,0,0,0,0,0,0,0,0,0,
609,8.749,0.9608,-18.8,-9.337,-20.74,-3.647,-13.5,-14.97,-22.75,-14.05,-15.95,-4.867,-15.79,-8.313,-23.18,-16.51,0,0,0,0,0,0,0,0,0,0,0,0,0,0,0,0,
610,14.66,14.8,-5.64,3.527,-12.2,-9.901,-8.51,15.29,-22.01,-7.524,-24.3,6.349,-20.37,-3.831,-24.53,-15.85,0,0,0,0,0,0,0,0,0,0,0,0,0,0,0,0,
611,15.29,30.03,1.69,9.338,-11.95,-11.26,-8.093,15.26,-24.58,-7.584,-28.07,4.76,-28.5,-4.157,-25.89,-17.86,0,0,0,0,0,0,0,0,0,0,0,0,0,0,0,0,
612,9.666,23.04,-2.754,3.383,-21.46,-8.949,-15.35,2.91,-31.39,-7.059,-36.12,-10.49,-33.24,-8.764,-33.59,-24.26,0,0,0,0,0,0,0,0,0,0,0,0,0,0,0,0,
613,5.874,3.829,-3.088,3.538,-21.31,-8.895,-20.38,5.423,-33.36,-13.9,-42.04,-15.39,-31.96,-17.7,-38.84,-24.94,0,0,0,0,0,0,0,0,0,0,0,0,0,0,0,0,
614,18.64,7.833,10.85,9.161,-4.612,-4.2,-15.84,-24.27,-22.71,-20.54,-30.54,-6.027,-21.43,-18.0,-26.71,-14.73,0,0,0,0,0,0,0,0,0,0,0,0,0,0,0,0,
615,42.89,37.55,24.31,10.1,11.23,5.006,-7.594,-38.8,-6.898,-11.85,-11.39,0.399,-8.514,-10.88,-9.055,-3.201,0,0,0,0,0,0,0,0,0,0,0,0,0,0,0,0,
616,49.85,53.66,24.57,9.852,16.43,8.733,-3.203,12.1,1.121,-3.984,-3.45,3.042,-3.756,-7.79,-2.712,2.879,0,0,0,0,0,0,0,0,0,0,0,0,0,0,0,0,
617,38.96,44.07,19.48,4.957,13.71,3.887,-0.4228,31.78,3.297,-8.69,3.582,5.26,2.849,-2.43,4.115,7.047,0,0,0,0,0,0,0,0,0,0,0,0,0,0,0,0,
618,28.68,24.13,11.04,-11.16,2.497,0.2516,0.6642,3.224,7.271,-7.837,11.83,3.372,10.53,4.01,9.746,9.36,0,0,0,0,0,0,0,0,0,0,0,0,0,0,0,0,
619,16.9,5.43,-3.119,-22.35,-8.982,-0.9679,-0.9483,-8.562,7.388,-2.792,6.099,1.751,7.279,4.163,2.728,6.654,0,0,0,0,0,0,0,0,0,0,0,0,0,0,0,0,
620,12.07,5.276,-5.035,-14.9,-7.934,-6.724,3.638,-30.55,2.249,-8.717,2.712,-3.636,4.571,2.617,0.6091,3.123,0,0,0,0,0,0,0,0,0,0,0,0,0,0,0,0,
621,25.51,28.32,10.54,0.6496,2.936,-5.607,15.93,-34.82,4.771,-10.77,13.53,-4.964,10.66,3.312,7.148,5.371,0,0,0,0,0,0,0,0,0,0,0,0,0,0,0,0,
622,36.59,48.55,17.41,10.42,11.89,8.685,19.37,19.34,11.84,-1.272,14.26,12.47,12.65,6.875,5.367,8.164,0,0,0,0,0,0,0,0,0,0,0,0,0,0,0,0,
623,35.94,39.93,9.586,9.481,10.01,20.06,6.727,40.24,8.005,3.135,4.309,20.08,5.604,8.627,2.566,4.876,0,0,0,0,0,0,0,0,0,0,0,0,0,0,0,0,
624,33.36,19.71,6.508,5.34,1.568,18.31,-2.349,13.99,-0.808,2.417,1.912,10.79,-1.026,7.159,3.338,2.936,0,0,0,0,0,0,0,0,0,0,0,0,0,0,0,0,
625,24.76,25.78,7.587,6.932,-3.306,1.081,3.179,1.042,-4.415,-1.404,-2.624,6.17,-5.126,2.949,-5.113,0.1223,0,0,0,0,0,0,0,0,0,0,0,0,0,0,0,0,
626,18.06,40.4,5.203,5.783,-8.614,-20.09,8.032,-25.22,-7.654,-18.09,-10.7,-9.547,-9.571,-11.99,-12.45,-10.23,0,0,0,0,0,0,0,0,0,0,0,0,0,0,0,0,
627,24.36,27.46,6.907,-1.712,-14.17,-20.45,10.86,-42.97,-6.478,-33.69,-2.372,-18.63,-4.293,-21.32,-3.55,-9.776,0,0,0,0,0,0,0,0,0,0,0,0,0,0,0,0,
628,24.46,11.39,7.934,-4.417,-14.11,-10.11,15.18,-3.784,2.919,-29.94,11.66,-1.318,6.056,-14.06,3.735,-0.6604,0,0,0,0,0,0,0,0,0,0,0,0,0,0,0,0,
629,10.15,10.93,-5.923,-8.456,-22.85,-16.56,1.032,26.22,-0.8701,-29.63,3.494,-8.299,-3.375,-22.11,-6.802,-10.22,0,0,0,0,0,0,0,0,0,0,0,0,0,0,0,0,
630,2.812,5.454,-19.31,-19.26,-34.51,-21.21,-17.72,-4.324,-21.18,-42.38,-12.82,-27.96,-17.05,-29.85,-14.27,-16.38,0,0,0,0,0,0,0,0,0,0,0,0,0,0,0,0,
631,17.31,10.19,-4.727,-13.07,-13.72,2.122,-0.9604,-42.94,-19.04,-21.33,-7.09,-5.808,-2.31,3.914,-1.857,5.402,0,0,0,0,0,0,0,0,0,0,0,0,0,0,0,0,
632,41.87,39.29,22.75,10.16,20.6,23.97,21.49,-32.44,9.934,24.63,3.333,15.88,15.44,28.03,5.263,15.52,0,0,0,0,0,0,0,0,0,0,0,0,0,0,0,0,
633,46.15,49.89,25.47,13.36,19.98,14.01,8.327,2.41,19.41,17.59,-3.174,-0.2541,7.97,3.956,-4.489,0.2528,0,0,0,0,0,0,0,0,0,0,0,0,0,0,0,0,
634,32.23,31.8,12.12,0.6825,4.201,3.022,0.5613,3.927,8.204,-17.28,0.9403,-10.35,5.75,-6.335,-1.589,-1.276,0,0,0,0,0,0,0,0,0,0,0,0,0,0,0,0,
635,33.91,26.87,14.76,3.491,8.17,13.54,19.51,-7.31,10.23,-3.714,19.09,4.132,20.41,14.46,11.91,10.95,0,0,0,0,0,0,0,0,0,0,0,0,0,0,0,0,
636,42.45,35.0,23.82,5.369,13.8,16.03,21.91,6.022,13.97,17.09,16.93,13.36,18.76,16.3,10.54,14.47,0,0,0,0,0,0,0,0,0,0,0,0,0,0,0,0,
637,35.98,37.27,21.16,-6.326,10.66,8.626,10.16,17.9,5.692,0.9095,8.107,9.92,5.978,6.296,8.277,17.5,0,0,0,0,0,0,0,0,0,0,0,0,0,0,0,0,
638,31.76,40.25,18.38,-2.867,11.76,16.52,12.26,13.28,3.602,-9.379,14.52,10.76,7.783,12.08,11.89,22.17,0,0,0,0,0,0,0,0,0,0,0,0,0,0,0,0,
639,32.52,33.68,18.73,7.903,9.852,21.26,11.68,-1.588,6.08,-2.24,12.0,15.2,7.72,13.95,3.14,18.02,0,0,0,0,0,0,0,0,0,0,0,0,0,0,0,0,
640,27.01,18.83,11.03,-1.944,-2.334,3.806,1.961,-16.97,-0.7285,-4.758,-4.091,13.77,-4.571,3.626,-8.434,9.383,0,0,0,0,0,0,0,0,0,0,0,0,0,0,0,0,
641,23.93,22.25,0.6698,-9.235,-13.66,-13.25,-4.247,-8.947,-13.1,-14.64,-9.986,9.506,-8.981,-1.296,-5.922,5.301,0,0,0,0,0,0,0,0,0,0,0,0,0,0,0,0,
642,20.75,26.5,-0.6736,3.167,-15.29,-11.84,-7.812,9.072,-20.22,-17.1,1.718,10.96,0.9204,3.844,8.829,12.58,0,0,0,0,0,0,0,0,0,0,0,0,0,0,0,0,
643,16.26,14.6,6.121,9.543,-7.861,3.831,-0.524,16.57,-11.83,-7.556,18.84,18.97,13.44,13.48,20.53,23.43,0,0,0,0,0,0,0,0,0,0,0,0,0,0,0,0,
644,24.32,20.71,13.17,5.772,0.5204,15.46,12.21,24.16,4.916,4.636,16.09,17.66,13.43,15.2,7.172,16.3,0,0,0,0,0,0,0,0,0,0,0,0,0,0,0,0,
645,32.94,42.92,12.98,9.111,0.8086,3.887,3.059,17.81,7.961,5.147,-5.662,6.893,2.406,6.429,-13.98,0.6448,0,0,0,0,0,0,0,0,0,0,0,0,0,0,0,0,
646,26.76,35.68,6.096,15.46,-7.557,-12.68,-15.12,2.839,-2.569,-3.326,-11.28,7.416,1.051,4.037,-7.962,2.002,0,0,0,0,0,0,0,0,0,0,0,0,0,0,0,0,
647,21.58,10.36,4.816,18.29,-12.07,-3.642,-9.972,12.55,-4.856,-4.346,2.09,8.854,9.627,9.091,5.649,9.438,0,0,0,0,0,0,0,0,0,0,0,0,0,0,0,0,
648,27.37,18.2,14.59,20.88,0.6395,15.1,9.213,13.52,8.71,5.992,9.719,2.991,15.26,12.42,4.495,7.367,0,0,0,0,0,0,0,0,0,0,0,0,0,0,0,0,
649,37.59,50.18,24.7,23.92,17.66,21.58,20.13,-10.57,21.92,16.18,12.26,9.994,19.16,16.36,6.84,6.252,0,0,0,0,0,0,0,0,0,0,0,0,0,0,0,0,
650,49.09,60.13,28.26,28.42,18.89,25.21,19.04,-1.968,22.59,22.15,12.11,14.63,15.79,12.96,7.769,4.794,0,0,0,0,0,0,0,0,0,0,0,0,0,0,0,0,
651,50.89,51.17,25.4,27.45,12.6,21.37,9.097,22.27,15.48,17.91,1.698,-2.373,2.156,-2.424,-5.333,-4.176,0,0,0,0,0,0,0,0,0,0,0,0,0,0,0,0,
652,39.05,46.05,18.79,17.87,11.0,8.432,3.795,9.318,8.2,0.0543,-1.944,-9.678,-1.059,-6.26,-5.709,-2.104,0,0,0,0,0,0,0,0,0,0,0,0,0,0,0,0,
653,33.69,37.09,17.01,15.5,9.868,10.85,10.66,3.953,9.039,-5.022,9.595,5.853,10.02,7.184,7.609,11.56,0,0,0,0,0,0,0,0,0,0,0,0,0,0,0,0,
654,33.72,19.52,14.8,15.44,3.187,14.61,9.908,18.09,12.27,2.298,8.006,8.106,8.931,6.063,3.564,9.148,0,0,0,0,0,0,0,0,0,0,0,0,0,0,0,0,
655,24.15,13.11,4.648,6.705,-6.411,-3.247,1.5,-2.461,2.517,-8.949,-1.15,-5.566,-0.3661,-6.548,1.039,3.373,0,0,0,0,0,0,0,0,0,0,0,0,0,0,0,0,
656,26.34,34.07,4.942,11.81,-5.486,-10.44,8.707,-14.6,-1.873,-13.83,10.06,3.778,8.789,3.965,15.66,13.93,0,0,0,0,0,0,0,0,0,0,0,0,0,0,0,0,
657,42.67,53.01,16.28,23.28,2.099,0.6965,11.96,21.41,10.26,3.347,10.07,15.06,12.43,10.46,5.176,8.318,0,0,0,0,0,0,0,0,0,0,0,0,0,0,0,0,T1
658,36.18,31.84,12.68,9.368,-6.426,-5.453,-5.809,23.91,4.49,-4.442,-15.67,-8.842,-8.795,-14.66,-21.2,-13.74,0,0,0,0,0,0,0,0,0,0,0,0,0,0,0,0,
659,17.62,5.533,0.8469,-3.837,-20.05,-16.74,-9.631,-16.42,-14.84,-27.96,-16.01,-16.94,-9.606,-17.72,-9.384,-7.345,0,0,0,0,0,0,0,0,0,0,0,0,0,0,0,0,
660,22.48,12.92,4.241,9.246,-13.41,-3.565,4.834,-9.669,-7.515,-15.31,9.409,13.07,16.69,13.36,18.16,15.76,0,0,0,0,0,0,0,0,0,0,0,0,0,0,0,0,
661,36.72,25.73,17.9,20.85,-1.613,12.79,9.615,33.68,11.42,12.44,16.65,26.0,23.81,22.74,18.3,20.73,0,0,0,0,0,0,0,0,0,0,0,0,0,0,0,0,
662,38.17,30.31,23.74,17.85,-3.099,10.77,8.755,46.77,11.25,13.85,8.486,22.46,13.39,14.07,6.657,17.9,0,0,0,0,0,0,0,0,0,0,0,0,0,0,0,0,
663,33.42,35.33,16.57,14.25,-4.305,9.697,4.708,38.82,4.462,6.113,2.727,27.94,10.76,19.18,4.921,19.81,0,0,0,0,0,0,0,0,0,0,0,0,0,0,0,0,
664,31.82,35.31,8.213,14.3,1.061,17.43,-6.061,29.43,5.22,12.96,2.174,29.06,15.74,27.5,12.18,21.53,0,0,0,0,0,0,0,0,0,0,0,0,0,0,0,0,
665,34.81,41.23,7.821,15.39,1.68,15.49,-7.887,10.91,9.083,20.44,6.995,28.6,23.47,29.01,19.53,23.39,0,0,0,0,0,0,0,0,0,0,0,0,0,0,0,0,
666,39.45,50.22,10.82,16.22,2.563,10.93,-1.488,6.732,15.55,20.02,11.4,29.06,29.7,28.33,23.18,26.85,0,0,0,0,0,0,0,0,0,0,0,0,0,0,0,0,
667,38.81,39.47,11.73,13.12,8.955,15.92,-0.3785,22.23,22.24,18.18,12.25,17.28,29.88,24.23,25.54,27.25,0,0,0,0,0,0,0,0,0,0,0,0,0,0,0,0,
668,31.34,21.47,7.45,3.121,6.62,15.14,-3.417,12.65,19.22,10.13,7.668,7.549,22.99,17.68,19.19,22.27,0,0,0,0,0,0,0,0,0,0,0,0,0,0,0,0,
669,29.8,20.37,3.808,-0.6705,0.539,10.72,-4.583,-7.258,11.89,6.741,2.051,15.25,17.09,16.64,9.92,18.54,0,0,0,0,0,0,0,0,0,0,0,0,0,0,0,0,
670,38.62,33.06,9.8,10.69,5.701,13.16,3.196,6.46,12.98,17.45,10.42,19.05,22.04,19.05,16.68,19.19,0,0,0,0,0,0,0,0,0,0,0,0,0,0,0,0,
671,42.86,40.42,18.21,15.18,12.96,15.91,16.02,8.085,16.96,18.51,24.1,9.048,28.45,17.42,27.38,21.48,0,0,0,0,0,0,0,0,0,0,0,0,0,0,0,0,
672,44.01,39.16,24.42,8.487,20.25,22.89,18.4,-16.85,20.26,13.91,21.23,14.32,27.02,19.0,24.58,24.11,0,0,0,0,0,0,0,0,0,0,0,0,0,0,0,0,
673,49.75,43.87,29.56,10.6,25.71,24.36,10.15,4.29,23.78,18.45,4.73,25.35,16.33,17.05,10.26,16.62,0,0,0,0,0,0,0,0,0,0,0,0,0,0,0,0,
674,43.98,39.78,21.0,6.992,11.16,6.948,-2.696,40.43,13.11,5.057,-14.99,3.683,-6.479,-3.092,-13.29,-2.56,0,0,0,0,0,0,0,0,0,0,0,0,0,0,0,0,
675,25.84,16.02,0.3244,-10.49,-10.2,-4.283,-19.15,10.44,-8.228,-19.99,-29.35,-19.62,-22.14,-17.81,-27.07,-12.03,0,0,0,0,0,0,0,0,0,0,0,0,0,0,0,0,
676,18.5,11.13,-8.822,-10.32,-13.97,-2.441,-25.9,-25.3,-15.22,-21.11,-26.0,-9.384,-16.42,-13.36,-15.82,-6.179,0,0,0,0,0,0,0,0,0,0,0,0,0,0,0,0,
677,28.81,32.01,0.7093,8.142,-9.685,-4.04,-13.97,-3.427,-8.211,-12.66,-9.96,6.077,-8.393,-9.704,-3.823,0.706,0,0,0,0,0,0,0,0,0,0,0,0,0,0,0,0,
678,42.43,44.36,13.68,16.71,-8.211,-4.783,0.0228,17.99,-3.94,-14.19,-1.406,6.677,-7.984,-11.46,-7.454,0.926,0,0,0,0,0,0,0,0,0,0,0,0,0,0,0,0,
679,40.3,43.02,15.8,13.06,-8.95,-7.487,2.568,5.277,-6.076,-18.58,-4.962,-4.138,-9.719,-16.19,-11.34,-3.785,0,0,0,0,0,0,0,0,0,0,0,0,0,0,0,0,
680,28.03,34.57,9.521,7.997,-7.843,-6.801,0.6249,-9.801,-8.908,-20.0,-4.018,-11.27,-6.914,-14.43,-4.291,-1.293,0,0,0,0,0,0,0,0,0,0,0,0,0,0,0,0,
681,31.71,32.71,7.545,10.02,1.828,10.66,-1.877,-15.35,-5.184,-9.139,8.487,-2.901,4.034,1.265,6.872,6.908,0,0,0,0,0,0,0,0,0,0,0,0,0,0,0,0,
682,44.09,49.06,10.13,18.6,8.291,17.19,-8.013,-9.125,0.779,4.815,9.98,-2.175,4.702,1.246,1.726,-1.59,0,0,0,0,0,0,0,0,0,0,0,0,0,0,0,0,
683,40.84,50.36,5.443,14.81,-0.9335,2.306,-15.78,12.21,-4.235,-4.201,-12.31,-13.61,-12.65,-20.91,-21.77,-21.14,0,0,0,0,0,0,0,0,0,0,0,0,0,0,0,0,
684,31.26,28.48,-6.554,-2.27,-12.97,-5.281,-24.09,23.18,-17.19,-24.11,-28.88,-17.26,-24.82,-31.71,-30.29,-25.6,0,0,0,0,0,0,0,0,0,0,0,0,0,0,0,0,
685,28.85,26.08,-14.07,-9.362,-20.17,-12.65,-32.94,-1.111,-26.46,-31.13,-24.85,-20.88,-28.56,-31.42,-20.04,-21.44,0,0,0,0,0,0,0,0,0,0,0,0,0,0,0,0,
686,23.0,33.2,-19.65,-9.861,-31.36,-30.54,-41.12,-36.62,-35.66,-34.52,-29.74,-27.12,-37.94,-33.57,-23.69,-25.22,0,0,0,0,0,0,0,0,0,0,0,0,0,0,0,0,
687,12.19,22.24,-28.48,-15.79,-40.03,-31.92,-46.24,-37.54,-44.97,-36.09,-41.23,-23.56,-39.66,-26.87,-27.21,-21.99,0,0,0,0,0,0,0,0,0,0,0,0,0,0,0,0,
688,14.08,22.81,-25.82,-11.61,-30.75,-16.03,-40.98,-6.279,-38.65,-24.49,-27.82,-9.101,-21.56,-10.16,-6.768,-3.095,0,0,0,0,0,0,0,0,0,0,0,0,0,0,0,0,
689,23.56,31.57,-16.19,-3.504,-19.82,-13.08,-34.08,14.66,-22.69,-16.27,-14.06,-0.2186,-10.43,-5.546,0.6812,0.9674,0,0,0,0,0,0,0,0,0,0,0,0,0,0,0,0,
690,16.53,9.692,-21.61,-15.38,-27.91,-19.77,-41.14,5.148,-21.47,-25.85,-25.12,-15.37,-19.29,-19.4,-16.33,-16.36,0,0,0,0,0,0,0,0,0,0,0,0,0,0,0,0,
691,8.753,-4.059,-25.53,-23.76,-29.35,-12.6,-40.97,-24.7,-24.95,-30.68,-22.96,-24.48,-16.17,-21.15,-12.26,-14.64,0,0,0,0,0,0,0,0,0,0,0,0,0,0,0,0,
692,27.85,31.64,-11.37,-5.353,-8.049,-0.4135,-17.33,-38.87,-11.11,-13.44,3.147,1.801,5.147,1.899,14.11,10.38,0,0,0,0,0,0,0,0,0,0,0,0,0,0,0,0,
693,47.67,57.32,-1.309,11.43,6.741,2.874,1.692,-1.14,6.804,9.553,19.73,27.28,18.34,19.77,28.39,24.95,0,0,0,0,0,0,0,0,0,0,0,0,0,0,0,0,
694,44.34,40.44,-0.4427,10.63,10.04,9.74,5.672,45.97,14.68,18.43,28.03,30.27,25.34,22.23,34.22,29.45,0,0,0,0,0,0,0,0,0,0,0,0,0,0,0,0,
695,45.23,40.01,6.902,11.15,20.41,21.37,12.32,39.51,21.61,16.04,45.2,30.99,39.23,29.43,51.85,41.83,0,0,0,0,0,0,0,0,0,0,0,0,0,0,0,0,
696,62.6,65.5,19.91,22.83,35.64,33.13,24.62,22.56,34.95,23.86,67.14,41.92,61.83,50.47,77.01,60.65,0,0,0,0,0,0,0,0,0,0,0,0,0,0,0,0,
697,75.99,70.82,35.17,36.61,53.32,55.02,41.19,34.41,55.67,50.25,81.53,55.67,83.25,67.6,83.63,69.67,0,0,0,0,0,0,0,0,0,0,0,0,0,0,0,0,
698,80.63,65.2,45.69,36.8,65.02,67.36,51.26,13.99,70.95,67.16,73.94,47.36,77.2,57.48,61.84,53.99,0,0,0,0,0,0,0,0,0,0,0,0,0,0,0,0,
699,77.82,68.02,34.45,26.43,53.5,48.29,34.33,-20.34,60.28,54.38,48.64,26.2,49.95,37.42,37.44,31.31,0,0,0,0,0,0,0,0,0,0,0,0,0,0,0,0,
700,66.13,63.24,12.72,23.41,34.56,29.22,7.866,17.55,37.93,35.63,28.91,21.14,34.18,30.65,23.48,23.58,0,0,0,0,0,0,0,0,0,0,0,0,0,0,0,0,
701,57.57,56.29,8.287,17.58,28.67,26.84,2.469,44.99,29.29,24.45,18.36,11.34,25.7,20.01,10.47,14.61,0,0,0,0,0,0,0,0,0,0,0,0,0,0,0,0,
702,52.1,56.02,9.941,-0.6778,25.94,20.31,8.547,-18.32,25.2,13.46,13.1,-3.325,18.99,11.67,8.835,5.398,0,0,0,0,0,0,0,0,0,0,0,0,0,0,0,0,
703,48.89,56.39,9.092,-1.391,29.96,18.68,14.06,-43.03,24.23,18.02,20.76,8.511,26.86,24.82,20.49,15.96,0,0,0,0,0,0,0,0,0,0,0,0,0,0,0,0,
704,64.18,65.64,25.79,17.88,45.39,28.8,20.41,-9.144,36.3,31.02,28.0,17.72,32.37,29.36,20.17,21.62,0,0,0,0,0,0,0,0,0,0,0,0,0,0,0,0,
705,68.58,62.66,27.39,13.35,40.26,25.23,12.99,-43.03,37.33,22.74,17.42,3.881,22.19,16.84,9.231,8.568,0,0,0,0,0,0,0,0,0,0,0,0,0,0,0,0,
706,34.01,25.08,-9.845,-10.36,17.6,17.4,-3.01,-57.52,21.75,16.33,7.272,5.973,18.79,19.78,7.101,7.508,0,0,0,0,0,0,0,0,0,0,0,0,0,0,0,0,
707,22.81,8.839,-12.2,-5.822,22.99,25.97,0.7659,33.94,21.01,24.91,11.37,21.92,26.26,27.85,10.96,16.91,0,0,0,0,0,0,0,0,0,0,0,0,0,0,0,0,
708,60.11,45.4,34.85,15.34,41.29,25.42,18.93,75.83,29.61,16.16,24.45,22.63,31.17,22.13,23.67,21.1,0,0,0,0,0,0,0,0,0,0,0,0,0,0,0,0,
709,80.6,75.67,57.34,9.437,40.19,14.72,33.33,35.51,30.92,7.765,46.76,25.95,40.39,25.84,44.59,31.19,0,0,0,0,0,0,0,0,0,0,0,0,0,0,0,0,
710,74.79,70.54,60.35,-12.96,46.85,27.9,41.17,23.94,37.81,23.14,55.3,34.16,46.68,36.95,41.89,35.94,0,0,0,0,0,0,0,0,0,0,0,0,0,0,0,0,
711,75.09,61.37,72.56,-20.91,61.88,47.9,38.8,8.433,43.89,30.74,38.0,24.29,36.84,31.78,22.52,27.44,0,0,0,0,0,0,0,0,0,0,0,0,0,0,0,0,
712,75.43,64.49,70.26,-14.15,53.11,43.23,36.96,-22.67,40.18,29.22,35.42,19.54,36.52,28.07,28.5,30.56,0,0,0,0,0,0,0,0,0,0,0,0,0,0,0,0,
713,71.51,64.79,59.82,-7.388,36.32,27.58,40.67,2.376,40.63,33.59,47.54,26.25,47.92,32.17,39.7,35.5,0,0,0,0,0,0,0,0,0,0,0,0,0,0,0,0,
714,63.75,50.42,55.62,-10.97,30.26,15.79,35.25,38.65,39.44,24.72,42.44,16.81,43.54,25.28,33.68,27.32,0,0,0,0,0,0,0,0,0,0,0,0,0,0,0,0,
715,54.05,42.67,50.68,-15.59,28.81,12.52,33.76,32.73,33.63,13.27,43.28,16.87,42.53,27.13,41.1,31.85,0,0,0,0,0,0,0,0,0,0,0,0,0,0,0,0,
716,56.5,55.69,53.91,-10.67,35.67,21.55,39.52,25.12,39.93,23.73,51.03,33.61,52.95,42.87,49.6,41.33,0,0,0,0,0,0,0,0,0,0,0,0,0,0,0,0,
717,61.73,63.36,60.03,-8.121,43.44,30.81,27.04,24.98,46.58,37.08,39.15,28.68,48.63,43.18,36.18,34.27,0,0,0,0,0,0,0,0,0,0,0,0,0,0,0,0,
718,62.28,59.48,60.13,-5.675,43.26,35.98,19.44,13.37,41.16,40.53,37.17,22.82,45.79,39.7,33.8,33.37,0,0,0,0,0,0,0,0,0,0,0,0,0,0,0,0,
719,70.2,60.61,66.5,4.153,46.37,39.62,35.85,5.193,41.35,43.07,47.13,33.05,51.74,43.52,36.58,36.48,0,0,0,0,0,0,0,0,0,0,0,0,0,0,0,0,
720,73.81,56.46,71.06,-0.0972,49.84,34.81,38.16,16.69,46.22,37.28,32.39,27.99,41.48,34.27,16.76,24.0,0,0,0,0,0,0,0,0,0,0,0,0,0,0,0,0,
721,68.57,47.07,66.18,-15.78,45.09,30.09,30.23,25.89,42.65,22.88,20.5,15.24,30.23,22.3,7.781,19.16,0,0,0,0,0,0,0,0,0,0,0,0,0,0,0,0,
722,70.09,51.15,64.61,-18.77,40.31,29.41,40.22,-4.709,39.63,17.37,32.18,12.24,31.73,22.28,19.84,26.71,0,0,0,0,0,0,0,0,0,0,0,0,0,0,0,0,
723,66.22,52.64,58.76,-21.74,35.22,15.65,41.82,-43.17,37.0,16.06,32.68,8.513,26.68,19.23,19.61,22.83,0,0,0,0,0,0,0,0,0,0,0,0,0,0,0,0,
724,50.97,37.17,47.34,-30.02,26.43,-0.4278,27.02,-27.33,23.9,6.184,23.74,6.46,18.97,12.26,13.96,18.82,0,0,0,0,0,0,0,0,0,0,0,0,0,0,0,0,
725,48.54,34.52,52.16,-23.63,24.75,3.952,25.36,12.33,14.89,1.849,25.76,12.41,21.94,13.5,18.19,25.32,0,0,0,0,0,0,0,0,0,0,0,0,0,0,0,0,
726,59.3,51.48,62.64,-12.15,28.55,13.03,28.73,21.96,20.73,7.454,28.01,16.58,25.26,14.08,21.3,22.02,0,0,0,0,0,0,0,0,0,0,0,0,0,0,0,0,
727,61.73,52.45,54.23,-14.45,22.05,5.97,18.49,9.975,20.4,2.503,26.15,6.823,17.89,2.002,17.73,6.067,0,0,0,0,0,0,0,0,0,0,0,0,0,0,0,0,
728,53.5,37.2,41.36,-24.3,11.45,-6.306,9.188,-9.332,6.649,-8.367,20.18,-6.336,6.519,-7.588,5.203,-5.464,0,0,0,0,0,0,0,0,0,0,0,0,0,0,0,0,
729,48.41,41.04,44.14,-28.65,15.32,-6.651,13.77,-19.25,1.165,-5.164,10.3,-2.563,4.01,-1.99,-7.021,-7.463,0,0,0,0,0,0,0,0,0,0,0,0,0,0,0,0,
730,53.95,58.42,55.1,-25.0,26.14,0.3429,26.79,-8.825,9.2,1.638,13.94,6.763,10.07,2.665,-2.203,-4.595,0,0,0,0,0,0,0,0,0,0,0,0,0,0,0,0,
731,58.29,53.32,59.28,-24.43,22.78,-0.9741,35.31,-11.87,12.9,-2.154,23.78,3.608,12.73,-1.258,4.517,-3.305,0,0,0,0,0,0,0,0,0,0,0,0,0,0,0,0,
732,54.44,40.71,55.19,-23.24,10.67,-8.691,31.88,-28.47,6.262,-6.297,18.73,-1.864,9.047,-2.99,1.634,-3.587,0,0,0,0,0,0,0,0,0,0,0,0,0,0,0,0,
733,55.77,56.02,55.75,-10.43,12.5,-7.534,30.12,-11.02,4.141,-2.392,17.54,4.076,11.92,1.207,9.023,2.323,0,0,0,0,0,0,0,0,0,0,0,0,0,0,0,0,
734,53.19,60.15,57.73,-9.31,20.05,-1.987,33.16,14.67,12.34,2.129,27.29,10.38,20.49,4.084,21.08,7.723,0,0,0,0,0,0,0,0,0,0,0,0,0,0,0,0,
735,37.47,29.86,47.56,-18.28,11.15,-5.727,23.95,-7.727,12.91,-0.0849,26.34,2.039,17.44,-0.2616,21.28,5.616,0,0,0,0,0,0,0,0,0,0,0,0,0,0,0,0,
736,41.84,34.32,46.62,-6.547,8.374,-5.251,21.11,-29.08,5.711,-0.3141,28.67,5.552,17.45,6.373,26.47,14.93,0,0,0,0,0,0,0,0,0,0,0,0,0,0,0,0,
737,58.15,64.25,62.44,-8.609,29.55,9.963,41.26,6.718,15.65,13.04,43.04,31.88,34.21,29.39,35.96,33.6,0,0,0,0,0,0,0,0,0,0,0,0,0,0,0,0,
738,47.83,48.97,60.64,-34.97,37.83,15.93,42.69,37.74,31.57,23.12,39.61,31.5,34.5,29.22,29.04,28.55,0,0,0,0,0,0,0,0,0,0,0,0,0,0,0,0,
739,48.46,47.73,47.17,-17.24,24.96,5.764,17.45,21.02,24.09,10.25,26.33,6.173,17.6,5.128,21.37,7.638,0,0,0,0,0,0,0,0,0,0,0,0,0,0,0,0,
740,77.23,93.44,44.89,25.87,23.76,6.861,10.0,5.185,9.975,-3.318,30.4,3.778,18.21,0.0865,25.18,3.517,0,0,0,0,0,0,0,0,0,0,0,0,0,0,0,0,
741,79.74,93.41,37.1,30.98,31.27,25.84,15.15,1.56,11.28,6.487,31.16,12.94,24.3,11.76,20.24,10.06,0,0,0,0,0,0,0,0,0,0,0,0,0,0,0,0,
742,70.16,69.84,29.08,36.32,34.46,41.19,10.44,-2.938,16.0,24.18,19.83,15.46,22.48,20.27,15.35,14.49,0,0,0,0,0,0,0,0,0,0,0,0,0,0,0,0,
743,90.35,103.5,35.36,60.57,39.66,41.42,11.8,12.59,20.36,31.97,24.86,18.79,30.15,26.99,32.07,21.83,0,0,0,0,0,0,0,0,0,0,0,0,0,0,0,0,
744,104.9,127.3,33.15,55.5,42.68,39.27,15.01,30.11,28.84,31.67,35.16,18.14,39.11,27.26,42.33,23.27,0,0,0,0,0,0,0,0,0,0,0,0,0,0,0,0,
745,93.13,97.54,21.97,33.4,41.32,43.28,4.648,21.76,29.59,26.31,22.76,14.05,32.74,18.49,25.07,11.27,0,0,0,0,0,0,0,0,0,0,0,0,0,0,0,0,
746,88.11,89.78,23.84,32.04,40.83,36.56,0.5336,10.77,22.29,17.58,11.11,4.313,21.9,6.936,9.35,-1.661,0,0,0,0,0,0,0,0,0,0,0,0,0,0,0,0,
747,93.01,107.2,27.64,38.49,36.74,21.11,6.508,8.955,20.31,9.342,12.65,-14.78,15.41,-3.799,1.756,-12.1,0,0,0,0,0,0,0,0,0,0,0,0,0,0,0,0,
748,82.07,96.44,19.06,38.36,30.24,21.96,-0.1962,3.1,19.22,5.931,0.1511,-22.96,8.075,-7.908,-10.74,-19.12,0,0,0,0,0,0,0,0,0,0,0,0,0,0,0,0,
749,65.96,85.63,10.77,39.28,30.72,29.57,-8.479,-14.19,13.23,9.465,-10.76,-12.18,5.673,-0.96,-6.02,-9.683,0,0,0,0,0,0,0,0,0,0,0,0,0,0,0,0,
750,72.98,97.37,13.1,42.01,35.28,29.98,-0.9127,-33.4,12.18,16.86,5.832,-2.373,15.54,8.734,14.37,5.085,0,0,0,0,0,0,0,0,0,0,0,0,0,0,0,0,
751,82.45,91.01,19.31,38.78,34.56,35.06,4.138,-21.67,16.32,22.83,16.35,-2.635,22.0,7.946,13.61,3.485,0,0,0,0,0,0,0,0,0,0,0,0,0,0,0,0,
752,68.59,69.61,18.42,31.16,32.3,34.84,-1.618,11.05,15.69,20.08,5.394,-2.728,16.2,0.6473,2.618,-1.037,0,0,0,0,0,0,0,0,0,0,0,0,0,0,0,0,
753,61.06,71.21,6.654,29.45,33.26,20.1,-9.272,15.1,10.09,8.422,2.206,-1.38,12.28,-2.181,7.608,2.722,0,0,0,0,0,0,0,0,0,0,0,0,0,0,0,0,
754,71.88,85.82,-2.584,32.83,27.47,9.141,-18.45,-0.9022,3.366,0.3,6.214,-6.632,13.49,-3.304,12.74,0.9059,0,0,0,0,0,0,0,0,0,0,0,0,0,0,0,0,
755,70.42,87.55,7.125,35.52,16.61,3.646,-15.47,-13.89,-0.6395,-2.687,6.585,-12.56,15.73,-3.263,11.38,-4.557,0,0,0,0,0,0,0,0,0,0,0,0,0,0,0,0,
756,62.94,83.32,22.09,43.32,18.85,3.074,1.942,-25.39,3.535,-5.03,11.46,-14.4,18.03,-2.439,13.03,-6.41,0,0,0,0,0,0,0,0,0,0,0,0,0,0,0,0,
757,78.95,94.76,24.68,55.55,32.41,18.59,4.876,-11.46,10.23,-1.012,10.24,-16.59,12.14,-8.4,7.307,-12.51,0,0,0,0,0,0,0,0,0,0,0,0,0,0,0,0,
758,114.0,122.1,35.57,66.44,46.6,38.63,-2.151,11.41,10.27,3.738,-0.3659,-15.34,5.609,-12.08,-1.965,-16.31,0,0,0,0,0,0,0,0,0,0,0,0,0,0,0,0,
759,162.0,163.4,71.92,91.99,70.86,58.1,9.323,1.054,15.11,9.81,5.052,-9.357,16.22,-1.38,4.34,-5.415,0,0,0,0,0,0,0,0,0,0,0,0,0,0,0,0,
760,236.1,240.3,116.4,144.1,110.7,91.49,29.46,-1.337,35.75,33.08,19.21,-0.1539,32.63,15.42,13.26,8.149,0,0,0,0,0,0,0,0,0,0,0,0,0,0,0,0,
761,315.0,324.0,157.3,208.1,154.0,134.0,39.47,28.53,56.51,59.06,17.95,10.56,38.99,29.35,13.17,14.09,0,0,0,0,0,0,0,0,0,0,0,0,0,0,0,0,
762,345.5,347.7,199.6,272.3,198.1,182.3,42.72,49.54,69.41,75.24,18.48,16.23,45.93,40.44,20.53,18.79,0,0,0,0,0,0,0,0,0,0,0,0,0,0,0,0,
763,331.9,332.8,240.5,318.2,242.6,236.0,44.9,65.21,84.28,98.16,27.6,21.84,54.8,48.02,28.31,19.07,0,0,0,0,0,0,0,0,0,0,0,0,0,0,0,0,
764,329.5,332.5,266.2,324.9,267.9,263.5,47.82,84.97,92.77,116.7,26.5,33.06,52.93,54.17,25.8,17.8,0,0,0,0,0,0,0,0,0,0,0,0,0,0,0,0,
765,340.0,338.6,271.1,319.2,270.6,252.6,54.16,91.88,92.08,117.1,31.4,43.96,54.89,64.24,35.87,29.79,0,0,0,0,0,0,0,0,0,0,0,0,0,0,0,0,
766,335.4,341.2,267.1,323.3,269.1,235.1,65.26,90.67,101.0,116.5,51.4,44.14,69.82,68.0,50.47,36.17,0,0,0,0,0,0,0,0,0,0,0,0,0,0,0,0,
767,333.4,331.3,262.0,311.2,257.0,227.6,71.47,80.54,110.3,114.8,52.97,29.56,70.16,55.56,37.6,19.7,0,0,0,0,0,0,0,0,0,0,0,0,0,0,0,0,
768,329.3,298.5,249.0,288.8,234.5,222.4,63.9,74.95,102.5,108.2,34.78,26.1,54.55,48.85,18.23,12.91,0,0,0,0,0,0,0,0,0,0,0,0,0,0,0,0,
769,284.9,274.1,227.8,281.2,223.8,208.3,57.24,87.36,93.96,105.6,30.16,39.69,47.71,53.35,21.27,25.45,0,0,0,0,0,0,0,0,0,0,0,0,0,0,0,0,
770,233.3,264.4,203.4,269.1,207.1,180.1,59.51,78.31,89.44,96.76,37.59,35.61,42.88,45.26,28.26,26.29,0,0,0,0,0,0,0,0,0,0,0,0,0,0,0,0,
771,215.2,233.5,176.0,244.1,168.2,155.9,53.12,54.97,74.88,80.95,32.09,24.46,31.01,35.01,19.84,13.89,0,0,0,0,0,0,0,0,0,0,0,0,0,0,0,0,
772,185.8,181.6,148.8,219.9,143.8,148.2,37.07,60.89,61.16,75.79,17.47,27.23,23.51,35.48,7.261,5.184,0,0,0,0,0,0,0,0,0,0,0,0,0,0,0,0,
773,135.1,132.6,130.2,195.1,142.9,139.5,30.4,69.71,60.02,75.11,15.0,24.14,23.91,31.19,4.838,3.148,0,0,0,0,0,0,0,0,0,0,0,0,0,0,0,0,
774,106.7,96.57,118.9,173.7,134.5,125.7,33.21,62.62,59.21,67.16,15.79,16.83,22.38,23.18,1.951,2.202,0,0,0,0,0,0,0,0,0,0,0,0,0,0,0,0,
775,76.87,67.07,99.61,154.9,116.7,112.7,26.72,53.66,48.87,56.15,2.874,10.87,9.651,14.96,-9.634,-4.574,0,0,0,0,0,0,0,0,0,0,0,0,0,0,0,0,
776,26.71,30.27,70.3,128.9,97.02,89.96,6.622,47.53,31.3,42.36,-5.259,1.98,-0.5769,6.867,-10.45,-9.272,0,0,0,0,0,0,0,0,0,0,0,0,0,0,0,0,
777,-1.061,-4.305,53.41,107.1,75.31,67.06,-3.493,51.94,18.31,28.89,5.172,-0.3928,8.358,9.773,1.707,-7.075,0,0,0,0,0,0,0,0,0,0,0,0,0,0,0,0,
778,-13.08,-30.22,54.06,92.76,69.33,68.56,10.04,29.77,23.39,29.0,19.64,-4.093,21.39,17.24,8.383,-7.376,0,0,0,0,0,0,0,0,0,0,0,0,0,0,0,0,
779,-33.41,-51.33,51.97,77.45,78.96,74.59,23.72,-18.94,37.76,41.35,22.99,-5.519,23.31,21.05,6.371,-6.376,0,0,0,0,0,0,0,0,0,0,0,0,0,0,0,0,
780,-40.19,-53.61,43.89,68.35,72.81,52.72,19.23,-2.497,39.14,44.59,5.282,5.172,13.52,17.97,-8.022,-6.997,0,0,0,0,0,0,0,0,0,0,0,0,0,0,0,0,
781,-51.64,-66.58,35.48,54.97,45.66,21.58,8.648,49.57,23.73,25.67,-15.77,1.009,-4.841,-0.9346,-24.83,-19.12,0,0,0,0,0,0,0,0,0,0,0,0,0,0,0,0,
782,-94.99,-122.5,18.04,25.89,19.34,8.225,0.3825,38.24,3.123,-1.9,-13.59,-14.81,-17.05,-19.32,-21.24,-25.92,0,0,0,0,0,0,0,0,0,0,0,0,0,0,0,0,
783,-126.7,-159.9,-2.393,6.511,4.714,2.886,-7.688,13.43,-11.19,-15.81,-7.674,-13.45,-18.77,-21.07,-13.69,-22.04,0,0,0,0,0,0,0,0,0,0,0,0,0,0,0,0,
784,-127.1,-153.2,-8.512,4.607,1.296,-3.704,-9.832,19.3,-13.05,-14.23,-10.88,-5.367,-15.84,-18.01,-18.61,-24.09,0,0,0,0,0,0,0,0,0,0,0,0,0,0,0,0,
785,-131.4,-155.6,-9.135,0.8301,-1.77,-8.023,-5.829,7.495,-9.545,-10.79,-3.463,-4.813,-8.355,-15.19,-19.04,-26.7,0,0,0,0,0,0,0,0,0,0,0,0,0,0,0,0,
786,-142.2,-163.4,-14.84,-4.338,-6.473,-9.15,-5.16,-13.08,-9.563,-7.342,3.621,-8.131,-5.654,-10.35,-15.04,-20.1,0,0,0,0,0,0,0,0,0,0,0,0,0,0,0,0,
787,-146.5,-160.4,-19.0,-8.831,1.94,-2.621,-7.355,-10.86,-8.667,-0.0934,-1.808,-6.414,-7.512,-3.496,-12.79,-12.19,0,0,0,0,0,0,0,0,0,0,0,0,0,0,0,0,
788,-150.6,-162.7,-27.59,-14.55,9.636,2.804,-9.312,3.17,-5.414,4.842,-6.116,1.402,-6.66,1.378,-10.72,-12.61,0,0,0,0,0,0,0,0,0,0,0,0,0,0,0,0,
789,-153.5,-155.9,-41.18,-15.13,-2.37,-7.46,-15.14,16.4,-7.434,2.856,-15.31,-2.622,-14.11,-5.976,-20.46,-24.08,0,0,0,0,0,0,0,0,0,0,0,0,0,0,0,0,
790,-151.8,-147.3,-39.94,-21.61,-14.07,-16.83,-18.6,16.58,-14.02,-5.528,-25.93,-15.39,-23.59,-15.49,-30.27,-32.27,0,0,0,0,0,0,0,0,0,0,0,0,0,0,0,0,
791,-144.3,-159.5,-27.8,-36.28,-16.71,-12.0,-10.38,3.082,-16.08,-12.71,-14.98,-13.04,-18.13,-10.66,-17.28,-22.94,0,0,0,0,0,0,0,0,0,0,0,0,0,0,0,0,
792,-136.7,-165.9,-26.59,-37.97,-20.23,-13.4,-5.558,-13.72,-12.32,-8.974,-2.817,-7.068,-13.26,-4.58,-7.359,-15.2,0,0,0,0,0,0,0,0,0,0,0,0,0,0,0,0,
793,-147.0,-158.7,-34.34,-36.84,-20.32,-25.03,-15.82,-23.27,-12.74,-7.195,-12.96,-18.94,-20.07,-11.33,-20.12,-25.58,0,0,0,0,0,0,0,0,0,0,0,0,0,0,0,0,
794,-157.9,-157.3,-34.93,-45.37,-18.4,-21.02,-16.76,-7.677,-16.23,-13.64,-15.75,-24.13,-19.92,-16.53,-24.95,-30.1,0,0,0,0,0,0,0,0,0,0,0,0,0,0,0,0,
795,-144.9,-157.1,-29.49,-44.45,-19.72,-6.03,-4.308,9.86,-12.66,-7.541,-5.952,-8.403,-14.28,-12.42,-19.98,-21.56,0,0,0,0,0,0,0,0,0,0,0,0,0,0,0,0,
796,-143.1,-155.4,-40.31,-44.62,-28.54,-19.0,-13.02,-3.313,-17.63,-2.19,-16.26,-12.96,-25.56,-18.51,-28.52,-25.52,0,0,0,0,0,0,0,0,0,0,0,0,0,0,0,0,
797,-163.0,-155.5,-62.35,-58.06,-43.27,-46.41,-30.14,-13.15,-37.22,-19.22,-26.39,-31.36,-35.84,-27.93,-28.26,-30.04,0,0,0,0,0,0,0,0,0,0,0,0,0,0,0,0,
798,-159.9,-160.2,-56.83,-53.54,-37.56,-35.24,-17.96,-3.668,-35.62,-21.45,-9.512,-14.67,-19.52,-12.99,-11.06,-15.75,0,0,0,0,0,0,0,0,0,0,0,0,0,0,0,0,
799,-142.0,-161.9,-33.88,-35.14,-16.21,-8.895,0.4646,-2.629,-11.99,4.41,1.319,3.686,-6.05,2.967,-8.53,-9.14,0,0,0,0,0,0,0,0,0,0,0,0,0,0,0,0,
800,-139.8,-143.9,-33.91,-39.3,-18.37,-13.83,2.235,-1.328,-5.276,11.65,-2.272,-6.742,-10.48,-2.829,-10.43,-13.27,0,0,0,0,0,0,0,0,0,0,0,0,0,0,0,0,
801,-136.8,-133.0,-42.77,-55.58,-30.81,-20.0,2.152,4.671,-10.66,-1.856,-1.049,-8.321,-9.562,-5.762,-4.117,-6.447,0,0,0,0,0,0,0,0,0,0,0,0,0,0,0,0,
802,-129.2,-148.2,-40.03,-59.01,-26.07,-14.88,-2.518,0.7769,-8.931,-4.043,-11.11,-6.213,-12.33,-5.336,-14.62,-6.432,0,0,0,0,0,0,0,0,0,0,0,0,0,0,0,0,
803,-130.5,-149.2,-40.99,-54.79,-21.46,-26.58,-11.42,-2.045,-11.57,-4.758,-25.89,-14.85,-25.08,-13.62,-28.53,-21.07,0,0,0,0,0,0,0,0,0,0,0,0,0,0,0,0,
804,-130.7,-136.3,-48.66,-52.08,-28.29,-36.62,-14.17,2.851,-19.94,-13.3,-20.19,-15.46,-27.34,-18.12,-24.31,-27.62,0,0,0,0,0,0,0,0,0,0,0,0,0,0,0,0,
805,-127.5,-134.9,-54.97,-51.24,-40.21,-36.04,-20.75,8.549,-24.8,-16.73,-15.58,-18.95,-25.34,-20.95,-25.66,-28.15,0,0,0,0,0,0,0,0,0,0,0,0,0,0,0,0,
806,-130.0,-132.1,-60.01,-56.0,-50.03,-46.99,-25.88,-5.06,-29.6,-20.9,-23.39,-26.24,-28.47,-25.14,-34.06,-30.31,0,0,0,0,0,0,0,0,0,0,0,0,0,0,0,0,
807,-135.8,-137.8,-61.02,-64.61,-44.01,-48.7,-14.49,-41.27,-31.22,-24.61,-19.01,-19.19,-25.17,-18.25,-25.94,-24.23,0,0,0,0,0,0,0,0,0,0,0,0,0,0,0,0,
808,-135.7,-147.9,-55.94,-61.15,-29.03,-32.99,-0.882,-35.32,-21.17,-14.2,-4.159,-11.96,-16.16,-8.827,-9.86,-14.71,0,0,0,0,0,0,0,0,0,0,0,0,0,0,0,0,
809,-127.9,-131.3,-47.75,-49.79,-28.03,-33.39,-1.373,14.98,-10.3,-8.827,-1.429,-16.57,-15.62,-14.07,-7.416,-15.35,0,0,0,0,0,0,0,0,0,0,0,0,0,0,0,0,
810,-120.7,-120.2,-43.55,-51.39,-35.35,-42.39,-10.63,16.16,-14.57,-19.65,-11.71,-19.99,-23.37,-21.79,-14.33,-17.6,0,0,0,0,0,0,0,0,0,0,0,0,0,0,0,0,
811,-113.2,-128.9,-46.27,-53.96,-33.32,-38.6,-12.84,-12.32,-21.83,-19.95,-14.54,-10.38,-20.51,-12.5,-10.18,-6.627,0,0,0,0,0,0,0,0,0,0,0,0,0,0,0,0,
812,-104.7,-120.2,-47.31,-48.74,-30.01,-35.25,-4.48,-3.197,-15.95,-9.181,-5.185,-0.2968,-9.285,-1.075,-1.363,4.489,0,0,0,0,0,0,0,0,0,0,0,0,0,0,0,0,
813,-113.1,-117.3,-45.06,-53.52,-33.45,-33.71,-0.8977,-0.9088,-12.87,-8.024,-7.131,-5.805,-11.88,-3.906,-12.03,-1.643,0,0,0,0,0,0,0,0,0,0,0,0,0,0,0,0,
814,-129.4,-134.1,-46.02,-56.1,-32.8,-31.63,-3.019,-13.63,-20.85,-10.78,-20.03,-9.708,-18.68,-6.524,-26.55,-10.34,0,0,0,0,0,0,0,0,0,0,0,0,0,0,0,0,
815,-118.7,-125.1,-46.58,-48.59,-32.36,-39.1,0.6297,-5.512,-20.99,-11.73,-16.14,-8.036,-13.92,-7.146,-20.93,-10.2,0,0,0,0,0,0,0,0,0,0,0,0,0,0,0,0,
816,-100.2,-110.1,-46.2,-57.02,-40.91,-39.52,2.952,-17.81,-14.34,-14.06,-6.131,-20.11,-11.43,-14.83,-17.11,-15.69,0,0,0,0,0,0,0,0,0,0,0,0,0,0,0,0,
817,-114.3,-129.2,-52.4,-69.83,-41.53,-25.14,-2.137,-40.95,-15.27,-11.84,-12.36,-26.3,-15.58,-16.22,-23.74,-21.8,0,0,0,0,0,0,0,0,0,0,0,0,0,0,0,0,
818,-129.6,-134.7,-56.61,-59.03,-30.97,-23.38,-3.374,-12.17,-16.41,-5.545,-10.36,-6.204,-10.36,-3.404,-11.56,-9.268,0,0,0,0,0,0,0,0,0,0,0,0,0,0,0,0,
819,-107.7,-97.59,-47.54,-41.07,-29.92,-34.67,0.9934,26.35,-9.218,-1.348,7.043,10.49,3.185,8.982,8.059,4.282,0,0,0,0,0,0,0,0,0,0,0,0,0,0,0,0,
820,-91.37,-75.59,-41.81,-37.89,-39.16,-42.2,-1.843,23.06,-4.098,-3.765,4.375,-1.204,2.694,4.728,0.8295,-3.459,0,0,0,0,0,0,0,0,0,0,0,0,0,0,0,0,
821,-105.5,-94.29,-49.33,-44.55,-42.81,-43.78,-7.416,5.221,-9.307,-12.77,-10.11,-14.54,-7.002,-2.927,-10.78,-10.23,0,0,0,0,0,0,0,0,0,0,0,0,0,0,0,0,
822,-96.74,-102.9,-46.02,-40.12,-30.83,-22.96,0.7933,-5.514,-9.687,-5.387,-4.309,0.6385,3.651,12.71,1.251,2.662,0,0,0,0,0,0,0,0,0,0,0,0,0,0,0,0,
823,-63.61,-81.6,-30.92,-20.33,-11.18,9.199,11.29,4.998,6.924,23.57,6.055,18.89,20.6,29.86,14.01,13.92,0,0,0,0,0,0,0,0,0,0,0,0,0,0,0,0,
824,-67.52,-74.32,-32.59,-18.09,-7.793,4.785,4.633,24.47,17.38,28.21,-0.7932,10.56,11.27,18.51,4.11,6.012,0,0,0,0,0,0,0,0,0,0,0,0,0,0,0,0,
825,-97.54,-96.24,-46.67,-40.49,-21.37,-20.56,-10.59,4.896,3.131,0.6983,-20.97,-7.439,-12.36,0.2369,-20.37,-10.41,0,0,0,0,0,0,0,0,0,0,0,0,0,0,0,0,
826,-101.7,-106.9,-52.37,-48.13,-30.73,-20.43,-18.19,-18.84,-14.8,-8.865,-33.47,-13.16,-22.22,-4.524,-27.6,-13.32,0,0,0,0,0,0,0,0,0,0,0,0,0,0,0,0,
827,-87.23,-91.32,-49.44,-37.83,-31.96,-13.15,-11.19,2.536,-16.17,1.415,-15.62,-2.844,-10.09,-0.1096,-4.089,0.0942,0,0,0,0,0,0,0,0,0,0,0,0,0,0,0,0,
828,-81.71,-82.26,-41.88,-39.52,-29.24,-21.66,0.2351,8.692,-6.612,-0.5327,6.36,4.737,3.374,2.784,8.661,3.871,0,0,0,0,0,0,0,0,0,0,0,0,0,0,0,0,
829,-85.01,-87.63,-36.93,-48.03,-27.19,-33.09,-2.527,-15.99,-0.3231,-9.16,2.735,-8.229,-1.442,-5.018,-5.318,-7.922,0,0,0,0,0,0,0,0,0,0,0,0,0,0,0,0,
830,-87.24,-89.0,-37.58,-45.41,-28.64,-39.21,-6.082,-12.16,-2.968,-15.31,1.308,-17.66,-4.345,-8.626,-8.058,-12.51,0,0,0,0,0,0,0,0,0,0,0,0,0,0,0,0,
831,-85.29,-92.23,-32.68,-38.95,-17.01,-28.35,7.476,-0.2503,-2.094,-16.04,8.713,-11.4,4.608,-0.269,-1.117,-8.634,0,0,0,0,0,0,0,0,0,0,0,0,0,0,0,0,
832,-79.56,-93.65,-24.86,-39.5,3.424,-7.098,17.0,-8.752,8.609,-5.117,3.292,-12.01,5.054,-0.6077,-7.741,-9.309,0,0,0,0,0,0,0,0,0,0,0,0,0,0,0,0,
833,-72.26,-78.36,-26.66,-44.82,-3.656,-13.5,7.111,-10.52,9.324,-3.559,-6.029,-19.32,-4.943,-12.93,-20.31,-17.37,0,0,0,0,0,0,0,0,0,0,0,0,0,0,0,0,
834,-71.6,-70.78,-34.11,-47.94,-28.81,-39.7,-5.76,-8.44,-7.173,-21.66,-11.07,-20.83,-14.22,-22.5,-26.29,-25.32,0,0,0,0,0,0,0,0,0,0,0,0,0,0,0,0,
835,-74.59,-76.55,-34.68,-43.04,-29.39,-43.4,-4.272,-8.452,-16.0,-31.44,-4.151,-14.33,-10.88,-20.25,-14.1,-17.39,0,0,0,0,0,0,0,0,0,0,0,0,0,0,0,0,
836,-69.09,-71.34,-26.23,-33.05,-17.23,-31.44,4.756,-7.949,-6.4,-23.21,8.737,-8.905,-2.798,-12.7,-5.508,-7.476,0,0,0,0,0,0,0,0,0,0,0,0,0,0,0,0,
837,-70.01,-79.31,-28.37,-34.01,-29.73,-30.58,-4.637,-21.69,-5.426,-16.73,-10.45,-18.01,-20.14,-19.38,-31.28,-21.85,0,0,0,0,0,0,0,0,0,0,0,0,0,0,0,0,
838,-87.69,-102.5,-47.5,-49.21,-51.5,-37.85,-23.91,-25.29,-26.14,-24.74,-32.96,-24.99,-40.44,-30.71,-41.31,-32.7,0,0,0,0,0,0,0,0,0,0,0,0,0,0,0,0,
839,-93.98,-92.29,-50.67,-54.21,-49.37,-41.39,-16.3,-5.087,-36.41,-34.31,-9.185,-15.6,-26.66,-23.25,-9.82,-16.29,0,0,0,0,0,0,0,0,0,0,0,0,0,0,0,0,
840,-81.68,-71.25,-33.75,-40.88,-39.95,-41.45,2.949,-1.633,-24.27,-29.74,6.119,-9.21,-13.8,-14.13,-6.068,-7.555,0,0,0,0,0,0,0,0,0,0,0,0,0,0,0,0,
841,-74.9,-77.41,-31.62,-34.96,-47.57,-46.98,-1.031,-15.02,-21.58,-30.09,-17.69,-13.66,-25.71,-23.58,-32.95,-21.02,0,0,0,0,0,0,0,0,0,0,0,0,0,0,0,0,
842,-78.71,-81.54,-41.82,-42.8,-56.86,-53.62,-13.51,-19.19,-33.32,-44.44,-28.22,-20.87,-33.98,-33.27,-35.56,-30.04,0,0,0,0,0,0,0,0,0,0,0,0,0,0,0,0,
843,-84.97,-83.03,-45.18,-41.11,-60.1,-46.64,-16.51,-8.769,-39.09,-43.19,-23.59,-20.79,-31.36,-25.87,-26.59,-26.06,0,0,0,0,0,0,0,0,0,0,0,0,0,0,0,0,
844,-85.38,-92.24,-47.37,-29.05,-65.43,-37.13,-20.12,11.41,-39.65,-28.86,-23.51,-13.72,-27.92,-18.3,-24.67,-23.22,0,0,0,0,0,0,0,0,0,0,0,0,0,0,0,0,
845,-78.81,-82.8,-49.69,-28.43,-65.82,-41.0,-29.01,-0.6973,-40.13,-29.22,-18.53,-20.35,-26.92,-27.32,-22.34,-28.74,0,0,0,0,0,0,0,0,0,0,0,0,0,0,0,0,
846,-76.76,-72.47,-45.71,-36.51,-60.99,-42.48,-30.17,-35.74,-40.32,-34.36,-18.48,-29.26,-27.74,-32.91,-23.17,-27.22,0,0,0,0,0,0,0,0,0,0,0,0,0,0,0,0,
847,-71.78,-75.26,-31.96,-34.01,-50.82,-33.86,-11.67,-18.11,-35.26,-28.56,-15.86,-14.33,-19.29,-20.25,-13.46,-8.215,0,0,0,0,0,0,0,0,0,0,0,0,0,0,0,0,
848,-55.94,-59.69,-15.09,-25.68,-31.44,-32.45,10.65,14.95,-19.29,-23.22,9.344,2.701,-2.713,-7.697,12.46,9.209,0,0,0,0,0,0,0,0,0,0,0,0,0,0,0,0,
849,-48.28,-46.24,-10.56,-21.82,-22.41,-32.07,19.59,5.703,-6.602,-21.53,33.36,9.117,7.965,0.3477,29.99,17.82,0,0,0,0,0,0,0,0,0,0,0,0,0,0,0,0,
850,-47.66,-54.51,-11.5,-16.07,-25.34,-18.71,26.01,13.73,-2.286,-11.41,37.57,16.74,12.9,9.904,31.01,24.04,0,0,0,0,0,0,0,0,0,0,0,0,0,0,0,0,
851,-44.35,-51.32,-12.04,-13.79,-24.59,-15.14,21.95,33.69,1.664,-4.699,26.17,10.08,9.518,5.483,17.23,13.71,0,0,0,0,0,0,0,0,0,0,0,0,0,0,0,0,
