%OpenBCI Raw EXG Data
%Number of channels = 16
%Sample Rate = 125 Hz
%Board = OpenBCI_GUI$BoardCytonSerialDaisy
Sample Index,EXG Channel 0,EXG Channel 1,EXG Channel 2,EXG Channel 3,EXG Channel 4,EXG Channel 5,EXG Channel 6,EXG Channel 7,EXG Channel 8,EXG Channel 9,EXG Channel 10,EXG Channel 11,EXG Channel 12,EXG Channel 13,EXG Channel 14,EXG Channel 15,Accel Channel 0,Accel Channel 1,Accel Channel 2,Other,Other,Other,Other,Other,Other,Other,Analog Channel 0,Analog Channel 1,Analog Channel 2,Timestamp,Other,Timestamp (Formatted),Annotations
1,-0,0,0,0,-0,-0,-0,0,0,-0,-0,-0,0,0,0,-0,0,0,0,0,0,0,0,0,0,0,0,0,0,0,0,0,T0
2,-8.527,10.5,9.896,11.8,30,14.76,20.18,11.33,16.52,19.33,11.88,11.85,19.03,10.99,-22.03,-1.324,0,0,0,0,0,0,0,0,0,0,0,0,0,0,0,0,
3,8.507,30.3,16.22,28.79,44.51,34.28,36.2,20.15,11.78,3.209,27.33,29.26,23.62,6.051,-8.539,10.47,0,0,0,0,0,0,0,0,0,0,0,0,0,0,0,0,
4,34.9,44.57,31.25,36.24,51.02,46.77,46.19,15.91,22.31,5.064,37.83,47.87,40.04,11.49,18.77,30.63,0,0,0,0,0,0,0,0,0,0,0,0,0,0,0,0,
5,45.41,43.68,34.42,27.11,54.17,39.84,38.55,3.996,35.97,23.67,28.42,48.51,58.34,32.06,24.98,50.31,0,0,0,0,0,0,0,0,0,0,0,0,0,0,0,0,
6,39.1,36.31,17.29,19.6,44.75,32.86,29.8,4.934,22.71,17.5,20.88,42.92,52.3,34.05,17.99,59.33,0,0,0,0,0,0,0,0,0,0,0,0,0,0,0,0,
7,35.45,39.32,6.131,21.66,30.92,49.68,44.58,15.06,18.57,2.142,33.84,50.83,43.7,20.99,19.51,54.23,0,0,0,0,0,0,0,0,0,0,0,0,0,0,0,0,
8,42.97,52.03,8.264,24.65,42.55,67.42,59.75,16.03,33.69,-0.1533,35.56,53.89,45.38,19.57,23.28,48.63,0,0,0,0,0,0,0,0,0,0,0,0,0,0,0,0,
9,50.29,52.58,17.58,27.81,70.68,60.24,54.29,9.877,33.27,8.692,27.41,54.05,46.5,23.23,20.5,51.29,0,0,0,0,0,0,0,0,0,0,0,0,0,0,0,0,
10,55.15,46.15,20.85,23.37,72.57,46.91,42.4,-0.4619,27.97,8.467,40.72,66.3,54.73,25.59,22.15,58.74,0,0,0,0,0,0,0,0,0,0,0,0,0,0,0,0,
11,54.95,48.17,10.65,10.47,60.52,43.26,35.21,-11.03,37.61,-2.544,47.29,67.17,63.59,29.23,30.16,68.89,0,0,0,0,0,0,0,0,0,0,0,0,0,0,0,0,
12,48.1,43.4,12.9,18.79,67.11,50.52,41.99,-0.7844,44.04,13.15,32.82,61.36,59.53,28.22,34.57,78.68,0,0,0,0,0,0,0,0,0,0,0,0,0,0,0,0,
13,59.78,38.39,37.08,45.22,81.38,74.58,65.34,19.57,45.39,35.29,37.5,76.08,59.94,32.53,37.52,86.19,0,0,0,0,0,0,0,0,0,0,0,0,0,0,0,0,
14,89.03,57.5,51.26,47.29,95.56,96.31,81.75,17.67,55.57,16.19,52.78,85.87,65.89,39.59,41.2,90.94,0,0,0,0,0,0,0,0,0,0,0,0,0,0,0,0,
15,100.8,80.01,40.03,31.79,101.2,99.9,82.9,15.21,62.33,4.684,50.16,80.31,64.7,27.56,39.79,86.53,0,0,0,0,0,0,0,0,0,0,0,0,0,0,0,0,
16,106.4,92.14,35,37.4,96.33,110,93.66,38.75,61.12,41.67,52.15,90.84,73.67,18.54,38.28,73.33,0,0,0,0,0,0,0,0,0,0,0,0,0,0,0,0,
17,122.2,109.4,53.84,56.1,103.9,125.8,109.9,57.84,65.89,71.27,64.69,103.2,87.55,33.16,47.71,62.21,0,0,0,0,0,0,0,0,0,0,0,0,0,0,0,0,
18,111.9,108.7,54.24,60.14,102.9,117.4,101.7,57.74,70.08,65.07,71,96.23,85.35,45.02,66.61,61.77,0,0,0,0,0,0,0,0,0,0,0,0,0,0,0,0,
19,86.26,87.19,42.19,58.6,93.25,106.5,91.91,65.49,72.27,63.2,82.55,102.4,98.66,61.58,83.21,79.23,0,0,0,0,0,0,0,0,0,0,0,0,0,0,0,0,
20,99.01,102.6,66.54,65.65,110.9,123.3,111.1,82.7,75.43,80.77,90.41,124,135.9,97.71,86.11,108.5,0,0,0,0,0,0,0,0,0,0,0,0,0,0,0,0,
21,122.9,143.1,63.81,60.1,92.3,134.8,123.3,85.66,56.71,84.45,72.27,123.8,145.3,106.6,73.41,121,0,0,0,0,0,0,0,0,0,0,0,0,0,0,0,0,
22,120.6,150.8,9.128,42.53,44.07,124.4,114.2,72.6,42.68,64.25,61.59,115.8,130.7,83.51,59.29,106.6,0,0,0,0,0,0,0,0,0,0,0,0,0,0,0,0,
23,124.5,148,25,57.21,87.14,126.3,118.6,65.66,74.02,59.12,77.25,121.2,130.5,80.68,60.77,91.36,0,0,0,0,0,0,0,0,0,0,0,0,0,0,0,0,
24,125.7,148.6,103.5,100.2,144.9,131.9,122.4,78.28,90.48,81.49,83.03,115.6,125,87.75,75.46,91.63,0,0,0,0,0,0,0,0,0,0,0,0,0,0,0,0,
25,101.7,121.2,127.2,125.6,120.9,121.6,109,94.78,75.87,97.8,88.77,110.4,109.1,82.63,91.41,102.3,0,0,0,0,0,0,0,0,0,0,0,0,0,0,0,0,
26,106.8,96.95,121.3,132.9,134.4,127.4,114.3,98.33,104.9,92.03,117.3,130.6,112.3,88.12,103.8,120,0,0,0,0,0,0,0,0,0,0,0,0,0,0,0,0,
27,140.2,106.8,127,129.4,179.4,142.5,128.6,97.66,134.9,72.52,126.6,134.2,116.3,90.26,104.3,133.1,0,0,0,0,0,0,0,0,0,0,0,0,0,0,0,0,
28,132.6,110.6,100.8,101.3,142.2,125.6,111,96.32,105.1,59.84,110.4,106.8,102.4,74.74,90.76,130.1,0,0,0,0,0,0,0,0,0,0,0,0,0,0,0,0,
29,103.5,101.9,65.03,76.63,101.5,108,95.34,89.74,87.43,78.13,106.3,93.16,97.32,75.27,80.72,125.3,0,0,0,0,0,0,0,0,0,0,0,0,0,0,0,0,
30,98.27,116.4,74.32,88.8,113.9,123.9,115.8,96.36,91.04,108.7,98.91,90.82,105.9,86.56,80.2,129.3,0,0,0,0,0,0,0,0,0,0,0,0,0,0,0,0,
31,91.42,140.5,90.49,106.6,111.4,135.1,130,113.4,63.62,114.7,81.99,80.47,108.7,81.78,79.41,126.9,0,0,0,0,0,0,0,0,0,0,0,0,0,0,0,0,
32,73.93,138.7,68.53,95.62,96.19,121.3,117.7,104.1,46.49,99.74,81.77,78.62,104.3,75.69,74.79,111.1,0,0,0,0,0,0,0,0,0,0,0,0,0,0,0,0,
33,71.46,121,50.37,82.43,77.23,111.2,113,83.53,55.54,78.91,86.59,85.27,96.33,72.75,62.88,92.44,0,0,0,0,0,0,0,0,0,0,0,0,0,0,0,0,
34,85.49,112.2,63.41,93.07,54.48,112.3,117.5,87.86,54.72,59.95,90.87,92.21,86.94,64.13,50.47,81.57,0,0,0,0,0,0,0,0,0,0,0,0,0,0,0,0,
35,95.4,104.7,69.3,98.15,78.41,103,107.1,87.19,60.02,55.85,96.83,93.75,81.25,61.6,52.34,85.42,0,0,0,0,0,0,0,0,0,0,0,0,0,0,0,0,
36,81.21,91.62,65.53,75.07,108.7,82.04,87.98,61.6,65.23,64.77,81.06,77.98,80.99,65.56,60.66,100.3,0,0,0,0,0,0,0,0,0,0,0,0,0,0,0,0,
37,58.02,90.79,70.64,54.87,85.33,74.6,81.81,48.28,46,66.3,60.96,69.17,84.45,64.26,67.84,113.7,0,0,0,0,0,0,0,0,0,0,0,0,0,0,0,0,
38,58.6,99.36,62.49,57.99,69.54,86.14,92.53,57.26,35.13,58.62,63.64,86.31,87.86,60.39,79.77,119.2,0,0,0,0,0,0,0,0,0,0,0,0,0,0,0,0,
39,75.35,99.38,50.41,72.87,79.73,99.65,108.3,69.45,43.16,79.3,74.01,103.2,92.49,59.71,91.32,119.7,0,0,0,0,0,0,0,0,0,0,0,0,0,0,0,0,
40,92.25,101.1,67.86,95.81,82.45,111.9,121.6,74.95,47.82,122,88.03,112.4,97.29,59.99,102.9,121.4,0,0,0,0,0,0,0,0,0,0,0,0,0,0,0,0,
41,103.6,103.6,92.62,107.3,99.77,120.1,128.4,61.77,57.13,94.94,91.91,113.1,94.34,59.28,114.7,126.7,0,0,0,0,0,0,0,0,0,0,0,0,0,0,0,0,
42,94.5,90.49,96.21,91.25,101.1,114.9,122.8,40.51,69.66,12.08,73.33,99.02,95.32,62.71,112.4,137.8,0,0,0,0,0,0,0,0,0,0,0,0,0,0,0,0,
43,84.62,87.07,82.47,78.92,61.08,104.9,112.4,36.78,58.3,7.527,65.33,95.06,110.5,70.37,103.4,155.5,0,0,0,0,0,0,0,0,0,0,0,0,0,0,0,0,
44,87.25,106.3,56.61,75.32,55.7,97.75,106.6,44.1,23.65,61.5,61.96,96.15,116.8,73.43,98.01,167.8,0,0,0,0,0,0,0,0,0,0,0,0,0,0,0,0,
45,69.44,110.2,45.4,61.49,80.27,92.55,104,53.93,10.53,71.07,45.62,78.22,104,70.77,83.67,163.1,0,0,0,0,0,0,0,0,0,0,0,0,0,0,0,0,
46,52.11,97.65,65.39,62.26,68.78,93.45,106.2,67.05,35.58,68.26,50.09,69.33,84.98,62.16,66.33,145.4,0,0,0,0,0,0,0,0,0,0,0,0,0,0,0,0,
47,67.84,93.17,66.54,72.58,56.33,94.74,107.3,63.74,48.03,80.19,58.42,73.65,64.82,47.18,54.2,117.7,0,0,0,0,0,0,0,0,0,0,0,0,0,0,0,0,
48,74.81,90.88,37.6,66.02,67.28,96.13,108.8,47.64,37.15,77.56,41.82,65.98,60.61,44.71,34.47,90.28,0,0,0,0,0,0,0,0,0,0,0,0,0,0,0,0,
49,72.2,96.65,47.04,74.83,74.76,112.5,125.6,54.08,38.92,75.86,34.64,64.23,80.5,60.82,14.01,86.22,0,0,0,0,0,0,0,0,0,0,0,0,0,0,0,0,
50,92.39,111.9,85.96,96.21,84.86,128.6,140.2,70.56,36,71.09,28.44,64.38,88.43,63.1,3.782,95.77,0,0,0,0,0,0,0,0,0,0,0,0,0,0,0,0,
51,95.33,108.4,78.55,85.51,72.9,117.8,128.9,58.61,26.09,55.22,3.302,42.66,66.6,39.72,-6.04,81.91,0,0,0,0,0,0,0,0,0,0,0,0,0,0,0,0,
52,68.28,91.94,43.95,71.44,31.58,102.2,116.3,46.5,37.74,55.29,3.025,33.19,48.05,23.47,-10.17,49.26,0,0,0,0,0,0,0,0,0,0,0,0,0,0,0,0,
53,62.64,89.99,50.37,88.37,43.51,112.6,127.6,70.1,45.31,64.47,29.24,51.39,52.13,25.17,3.602,34.4,0,0,0,0,0,0,0,0,0,0,0,0,0,0,0,0,
54,75.43,97.86,84.61,103.8,99.86,129.2,144.5,83.63,41.91,80.06,37.02,53.92,61.68,25.71,18.83,40.9,0,0,0,0,0,0,0,0,0,0,0,0,0,0,0,0,
55,73.54,103.5,93.28,99.55,100.1,128.7,144.9,62.76,49.37,97.2,32.23,38.93,64.63,29.43,15.05,48.37,0,0,0,0,0,0,0,0,0,0,0,0,0,0,0,0,
56,70.1,104.1,75.55,92.43,66.42,122.5,135.1,54.09,46.02,70.56,35,36.41,60.81,34.39,0.5782,51.38,0,0,0,0,0,0,0,0,0,0,0,0,0,0,0,0,
57,64.47,88.46,56.39,80.18,59.88,104.3,115.1,52.89,27.33,23.29,22.79,24.95,40.49,14.25,-12.57,47.47,0,0,0,0,0,0,0,0,0,0,0,0,0,0,0,0,
58,25.54,51.22,42.3,62.75,56.54,67.75,81.9,35.64,14.9,15.98,-7.141,-4.642,12.1,-9.851,-31.37,32.02,0,0,0,0,0,0,0,0,0,0,0,0,0,0,0,0,
59,-9.252,27.58,47.92,65.16,56.7,60.21,76.47,37.06,21.88,34.87,-2.569,2.164,12,-3.279,-43.89,20.02,0,0,0,0,0,0,0,0,0,0,0,0,0,0,0,0,
60,21.99,49.62,68.79,78.13,74.1,95.56,111.1,55.2,55.21,48.33,30.49,40.99,31.82,1.799,-26.79,25.28,0,0,0,0,0,0,0,0,0,0,0,0,0,0,0,0,
61,70.39,76.06,72.39,73.9,74.32,117.7,132.8,63.62,69.47,41.29,22.6,43.81,30.42,-12.61,-7.851,33.19,0,0,0,0,0,0,0,0,0,0,0,0,0,0,0,0,
62,74.21,73.65,75.57,78.9,67.33,119.5,136.4,76.12,43.33,31.81,7.217,32.25,29.39,-5.663,-12.94,35.03,0,0,0,0,0,0,0,0,0,0,0,0,0,0,0,0,
63,76.48,83.31,96.75,107.8,90.74,135.8,153.9,81.64,44.92,63.69,44.67,51.84,54.83,24.24,-5.282,45.67,0,0,0,0,0,0,0,0,0,0,0,0,0,0,0,0,
64,90.39,105.6,102.9,122.6,109.9,149,165.1,71.38,67.76,91.63,56.64,49.36,61.53,38.24,18.13,63.08,0,0,0,0,0,0,0,0,0,0,0,0,0,0,0,0,
65,64.45,95.11,94.22,112.2,91.74,133,148.9,74.71,44.43,64.8,6.128,10.36,39.82,35.21,7.714,70.42,0,0,0,0,0,0,0,0,0,0,0,0,0,0,0,0,
66,31.22,74.2,87.34,90.5,81.4,110.3,126.7,81.99,20.8,51.02,-4.873,7.782,37.06,33.26,-21.95,72.25,0,0,0,0,0,0,0,0,0,0,0,0,0,0,0,0,
67,52.83,77.82,76.51,71.6,99.07,110.3,125.9,72.18,49.44,70.13,40.71,45.36,50.76,35.48,-15.48,78.91,0,0,0,0,0,0,0,0,0,0,0,0,0,0,0,0,
68,89.29,85.57,77.68,76.28,100.2,125.6,140.3,58.63,82.49,63,65.92,70.41,59.49,43.92,21.69,88.64,0,0,0,0,0,0,0,0,0,0,0,0,0,0,0,0,
69,88.67,84.19,85.9,87.41,93.59,120.7,131.3,45.68,85.73,37.86,63.46,69.32,63.41,51.2,45.43,96.51,0,0,0,0,0,0,0,0,0,0,0,0,0,0,0,0,
70,62.01,73.64,76.88,77.57,103,87.94,94.7,35.66,64.31,25.14,53.32,45.62,49.08,46.31,33.86,91.97,0,0,0,0,0,0,0,0,0,0,0,0,0,0,0,0,
71,26.11,52.94,62.44,60.61,82.45,60.04,68.94,34.7,35.7,33.34,39.8,24.53,30.96,40.23,5.729,76.08,0,0,0,0,0,0,0,0,0,0,0,0,0,0,0,0,
72,9.849,43.9,44.12,46.57,50.61,54.26,66.27,32.56,39.97,50.05,45.69,39.42,38.77,41.19,0.0368,71.54,0,0,0,0,0,0,0,0,0,0,0,0,0,0,0,0,
73,36.76,52.31,27.53,36.08,69.1,60.72,74.97,27.78,62.67,33.33,62.37,63.67,51.81,44.07,21.91,81.34,0,0,0,0,0,0,0,0,0,0,0,0,0,0,0,0,
74,60.2,63,37.88,38.61,86,70.93,85.11,30.07,52.74,18.35,59.17,60.72,54.38,48.12,38.64,83.8,0,0,0,0,0,0,0,0,0,0,0,0,0,0,0,0,
75,45.36,77.6,44.97,44.34,72.55,72.76,83.7,36.96,35.34,47.89,50.09,45.39,54.78,45.35,33.03,74.22,0,0,0,0,0,0,0,0,0,0,0,0,0,0,0,0,
76,31.06,75.55,29.19,43.32,72.87,61.86,72.87,40.81,40.72,51.34,49.99,32.93,43.57,37.36,17.92,65.81,0,0,0,0,0,0,0,0,0,0,0,0,0,0,0,0,
77,34.91,43.05,34.48,43.45,63.75,57.96,70.15,44.8,46.53,32.67,43.48,22.11,29.14,38.48,6.814,64.26,0,0,0,0,0,0,0,0,0,0,0,0,0,0,0,0,
78,37.45,33.24,52.86,46,51.68,68.59,77.71,53.47,58.05,58.49,37.78,21.19,29.63,37.71,0.4642,63.22,0,0,0,0,0,0,0,0,0,0,0,0,0,0,0,0,
79,42.38,57.92,44.73,51.25,80.92,74.23,79.91,54.87,70.55,65.75,52.39,34.06,32.8,29.62,3.121,58.63,0,0,0,0,0,0,0,0,0,0,0,0,0,0,0,0,
80,51.15,59.2,28.85,54.67,95.1,62.09,66.52,48.88,49.43,26.9,63.84,44.25,30.75,28.96,19.36,56.81,0,0,0,0,0,0,0,0,0,0,0,0,0,0,0,0,
81,42.4,39.21,23.42,43.23,65.52,38.26,43.76,49.02,23.03,17.47,44.35,33.04,25.96,28.31,29.07,59.08,0,0,0,0,0,0,0,0,0,0,0,0,0,0,0,0,
82,18.47,29.66,26,30.54,46.19,18.34,25,36.02,27.82,38.12,25.88,16.39,17.23,24.65,16.79,56.95,0,0,0,0,0,0,0,0,0,0,0,0,0,0,0,0,
83,12.81,21.99,36.35,29.32,40.07,11.98,16.75,9.061,34,53.02,41.63,26.46,21,31.23,8.621,53.22,0,0,0,0,0,0,0,0,0,0,0,0,0,0,0,0,
84,27.69,25.4,23.13,16.92,28.94,10.76,12.85,12.52,23.65,47.17,60.25,47.4,43.86,40.87,24.67,59.64,0,0,0,0,0,0,0,0,0,0,0,0,0,0,0,0,
85,29.61,45.75,-17.28,-2.114,14.77,8.492,10.9,35.72,19.29,20.7,54.88,48.41,59.49,47.25,41.86,70.88,0,0,0,0,0,0,0,0,0,0,0,0,0,0,0,0,
86,24.41,55.69,-22.46,0.3202,12.59,15.15,20.82,35.31,31.52,21.35,49.79,46.52,57.25,54.02,39.43,71.03,0,0,0,0,0,0,0,0,0,0,0,0,0,0,0,0,
87,38.31,53.08,12.67,9.944,44.52,28.44,34.21,21.31,42.51,38.12,55.45,50.07,45.21,47.7,27.22,61.54,0,0,0,0,0,0,0,0,0,0,0,0,0,0,0,0,
88,47.58,40.78,25.97,13.77,61.22,27.68,29.31,9.865,37.38,23.11,51.2,35.38,23.61,23.6,18.59,52.95,0,0,0,0,0,0,0,0,0,0,0,0,0,0,0,0,
89,33.77,15.69,16.63,25.03,31.76,16.35,16.65,9.467,33.1,28.64,35.4,17.29,12.31,8.506,16.15,45.85,0,0,0,0,0,0,0,0,0,0,0,0,0,0,0,0,
90,27.83,13.16,24.08,38.09,38.23,23.47,22.64,31.09,37.52,56.52,31.79,25.34,31.37,20.08,22.25,44.39,0,0,0,0,0,0,0,0,0,0,0,0,0,0,0,0,
91,41.37,44.36,39.18,42.97,81.62,44.86,41.71,42.08,35.52,33.05,53.48,46.76,59.33,43.74,37.8,58.19,0,0,0,0,0,0,0,0,0,0,0,0,0,0,0,0,
92,54.03,68.31,39.31,37.18,78.59,51.26,50.21,25.52,39.97,8.146,76.91,64.37,74.09,59.68,54.84,77.71,0,0,0,0,0,0,0,0,0,0,0,0,0,0,0,0,
93,64,71.9,37.13,30.54,60.17,51.79,50.37,19.99,56.73,31.6,74.64,74.45,73,59.95,63.29,80,0,0,0,0,0,0,0,0,0,0,0,0,0,0,0,0,
94,73.96,65.81,45.31,46.73,76.25,62.32,55.96,29.48,58,43.53,67.75,68.72,59.7,54.31,62.06,65.27,0,0,0,0,0,0,0,0,0,0,0,0,0,0,0,0,
95,64.73,53.76,48.96,61.11,84.78,63.25,55.32,33.5,47.7,39.15,75.76,49.64,50.24,56.28,56.97,56.83,0,0,0,0,0,0,0,0,0,0,0,0,0,0,0,0,
96,38.78,48.65,38.62,43.62,67.16,53.1,44.2,36.25,45.32,41.12,72.95,37.38,48.44,53.26,53.16,62.28,0,0,0,0,0,0,0,0,0,0,0,0,0,0,0,0,
97,34.19,53.1,25.93,33.01,55.29,50.57,40.07,30.83,45.87,26.58,62.81,52.06,52.61,42.95,56.28,72.68,0,0,0,0,0,0,0,0,0,0,0,0,0,0,0,0,
98,52.64,57.11,17.85,37.12,51.28,46.68,37.07,15.76,50.11,12.64,69.16,81.41,69.99,47.84,67.27,86.3,0,0,0,0,0,0,0,0,0,0,0,0,0,0,0,0,
99,60.06,59.16,14.33,25.05,41.63,35.98,26.6,5.936,49.72,13.36,71.87,90.9,81.74,57.92,75.31,96.04,0,0,0,0,0,0,0,0,0,0,0,0,0,0,0,0,
100,58.2,56.7,15.72,17.14,42.72,29.6,18.99,-0.8507,28.98,11.12,65.4,81.65,76.29,58.87,75.07,91.02,0,0,0,0,0,0,0,0,0,0,0,0,0,0,0,0,
101,54.71,50.01,15.27,18.83,46.98,23.73,12.96,-1.444,11.64,24.29,66.12,69.17,69.07,60.61,70.28,78.14,0,0,0,0,0,0,0,0,0,0,0,0,0,0,0,0,
102,41,42.22,13.58,14.23,24.27,23.21,13.56,9.248,17.72,39.92,64.29,52.87,55.28,53.5,58.77,66.38,0,0,0,0,0,0,0,0,0,0,0,0,0,0,0,0,
103,36.17,30.74,21.53,23.98,15.63,33.61,22.64,15.04,24.6,15.26,57.24,44.16,35.57,34.72,46.19,56.76,0,0,0,0,0,0,0,0,0,0,0,0,0,0,0,0,
104,35.25,17.36,26.88,30.31,40.28,23.74,8.688,3.844,15.91,-15.85,44.92,39.46,22.84,21.27,43.01,50.01,0,0,0,0,0,0,0,0,0,0,0,0,0,0,0,0,
105,6.748,3.274,8.602,1.815,28.73,-13.25,-28.25,-20.86,-2.026,-15.52,35.24,31.49,18.56,19.51,45.31,45.1,0,0,0,0,0,0,0,0,0,0,0,0,0,0,0,0,
106,-14.15,-5.464,-16.22,-21.42,-3.639,-34.31,-46.56,-34.18,-15.58,-7.194,54.78,40.6,32.27,34.08,52.85,48.39,0,0,0,0,0,0,0,0,0,0,0,0,0,0,0,0,
107,-2.817,3.459,-26.52,-21.27,-1.625,-27.89,-39.04,-21.46,-10.18,-0.1576,67.65,44.31,47.64,47.89,61.88,62.11,0,0,0,0,0,0,0,0,0,0,0,0,0,0,0,0,
108,-5.595,15.04,-31.79,-27.24,-5.87,-15.56,-24.96,-18.45,2.288,3.385,38.73,18.31,38.11,41.15,52.61,70.16,0,0,0,0,0,0,0,0,0,0,0,0,0,0,0,0,
109,-18.75,8.962,-22.39,-24.95,-13.47,-5.819,-15.9,-31.18,-8.81,-11.42,21.14,4.597,23.62,31.28,28.81,64.9,0,0,0,0,0,0,0,0,0,0,0,0,0,0,0,0,
110,-16.2,-5.24,5.599,-6.258,-0.6297,-9.08,-20.96,-20.57,-34.58,-16.76,27.25,7.283,10.84,21.62,10.39,48.89,0,0,0,0,0,0,0,0,0,0,0,0,0,0,0,0,
111,-23.74,-16.3,1.805,-8.474,-16.45,-24.42,-33.65,-3.643,-34.98,5.095,25.87,5.389,-1.636,12.96,-0.2007,26.41,0,0,0,0,0,0,0,0,0,0,0,0,0,0,0,0,
112,-21.61,-14.99,-33.74,-23.46,-29.32,-23.86,-31.61,-4.87,-17.56,7.155,32.78,23.76,16.03,27.22,3.317,19.61,0,0,0,0,0,0,0,0,0,0,0,0,0,0,0,0,
113,18.26,10.04,-31.56,-11.74,3.188,5.319,-2.933,4.032,-17.5,-5.057,39.24,44.52,47.01,44.09,22.18,38.36,0,0,0,0,0,0,0,0,0,0,0,0,0,0,0,0,
114,40.12,44.19,8.868,19.18,13.23,42.95,35.98,27.12,-16.06,27.57,25.23,33.38,53.97,42.61,31.78,57.51,0,0,0,0,0,0,0,0,0,0,0,0,0,0,0,0,
115,27.59,60.96,33.07,42.86,7.546,56.87,49.12,40.91,-3.194,59.33,10.55,19.68,51,41.95,18.98,58.59,0,0,0,0,0,0,0,0,0,0,0,0,0,0,0,0,
116,26.09,56.01,25.7,43.55,24.67,41.13,32.47,37.33,-12.87,24.75,0.2161,17.78,47.86,38.04,-2.382,45.22,0,0,0,0,0,0,0,0,0,0,0,0,0,0,0,0,
117,33.54,51.36,10.98,28.66,16.76,36.62,30.17,29.67,-10.8,0.4058,12.37,26.28,49.59,33.59,-7.132,32.84,0,0,0,0,0,0,0,0,0,0,0,0,0,0,0,0,
118,50.4,69.25,26.9,35.61,22.32,63.69,57.2,48.38,37.36,42.69,64.34,62.55,73.22,52.25,24.51,45.33,0,0,0,0,0,0,0,0,0,0,0,0,0,0,0,0,
119,82.97,92.22,59.18,56.56,82.07,81.07,72.37,69.47,57.8,65.59,95.64,89.31,95.71,73.64,71.14,83.91,0,0,0,0,0,0,0,0,0,0,0,0,0,0,0,0,
120,79.73,93.5,51.82,51.69,87.4,71.16,64.69,48.42,32.96,44.56,75.41,71.29,99.07,83.51,90.43,120.4,0,0,0,0,0,0,0,0,0,0,0,0,0,0,0,0,
121,45.26,90.4,23.59,44.48,32.27,71.04,68.83,39.56,28.98,62.69,63.66,59.1,104,96.83,84.21,136.5,0,0,0,0,0,0,0,0,0,0,0,0,0,0,0,0,
122,46.24,91.05,16.68,47.05,26.5,76.98,74,63.96,32.33,91.45,71.04,67.94,92.45,84.49,74.34,127.7,0,0,0,0,0,0,0,0,0,0,0,0,0,0,0,0,
123,53.49,59.52,2.686,17.39,32.03,41.69,37.32,37.5,14.42,42.86,50.57,51.87,46.74,36.88,54.48,93.34,0,0,0,0,0,0,0,0,0,0,0,0,0,0,0,0,
124,24.79,5.257,-27.31,-24.7,-2.046,-9.819,-11.83,-10.81,0.0419,-12.02,20.86,29.55,18.93,14.23,24.12,52.68,0,0,0,0,0,0,0,0,0,0,0,0,0,0,0,0,
125,11.71,-7.481,-32.44,-27.41,-1.673,-9.966,-11.79,4.078,-7.295,10.52,21.29,29.54,27.71,25.52,2.8,30.33,0,0,0,0,0,0,0,0,0,0,0,0,0,0,0,0,
126,24.83,20.66,-12.09,-7.408,23.9,21.97,19.01,20.47,-5.192,30.94,18.41,19.28,29.95,29.1,-7,23.91,0,0,0,0,0,0,0,0,0,0,0,0,0,0,0,0,
127,23.86,31.96,-0.8347,3.535,12.3,34.37,31.51,6.744,6.83,10.02,-9.039,-0.1101,26.01,32.14,-13.03,19.85,0,0,0,0,0,0,0,0,0,0,0,0,0,0,0,0,
128,20.25,25.43,-8.534,4.372,10.33,30.07,24.45,26.09,-3.19,22.64,-22.89,-7.026,29.31,36.93,-16.97,12.51,0,0,0,0,0,0,0,0,0,0,0,0,0,0,0,0,
129,12.75,26.08,-27.98,-8.097,15.7,11.11,4.162,38.77,-29.84,47.3,-24.37,-19.33,20.55,22.09,-26.64,-0.29,0,0,0,0,0,0,0,0,0,0,0,0,0,0,0,0,
130,-11.27,20.46,-45.57,-26.55,-24.36,-9.276,-12.38,9.961,-33.43,16.57,-31.35,-25.4,9.601,6.619,-40.64,-7.941,0,0,0,0,0,0,0,0,0,0,0,0,0,0,0,0,
131,-6.522,10.16,-33.59,-22.69,-30,6.88,4.845,10.74,-14.64,-10.91,-20.86,-10.41,8.648,-0.182,-44.43,-0.1174,0,0,0,0,0,0,0,0,0,0,0,0,0,0,0,0,
132,19.09,10.11,-7.969,-7.272,22.44,26.56,20.76,31.08,-6.262,9.351,-13.5,-11.72,-0.3037,-10.79,-43.99,7.633,0,0,0,0,0,0,0,0,0,0,0,0,0,0,0,0,
133,3.203,5,-15.38,-12.7,23.52,8.688,2.215,19,-20.69,10.56,-39.56,-26.8,-7.761,-8.867,-51.17,2.729,0,0,0,0,0,0,0,0,0,0,0,0,0,0,0,0,
134,-22.69,-5.238,-25.58,-14.45,-5.101,-4.64,-7.914,6.137,-34.91,-15.12,-51.04,-23.25,-3.251,-2.791,-52.65,-4.145,0,0,0,0,0,0,0,0,0,0,0,0,0,0,0,0,
135,-21.51,-6.233,-10.86,-2.005,1.935,-6.515,-10.45,3.384,-33.14,-11.59,-31.51,-18.66,-4.843,-15.54,-38.84,-6.215,0,0,0,0,0,0,0,0,0,0,0,0,0,0,0,0,
136,-25.75,-10.31,-20.78,-13.02,-2.066,-23.36,-29.4,1.625,-19.64,-0.9701,-20.34,-14.97,-6.449,-19.88,-21.53,-3.835,0,0,0,0,0,0,0,0,0,0,0,0,0,0,0,0,
137,-18.2,-18.06,-44.49,-24.35,-12.17,-21.29,-25.6,16.92,-4.68,-11.21,-13.02,1.982,-1.654,-10.58,-14.04,1.119,0,0,0,0,0,0,0,0,0,0,0,0,0,0,0,0,
138,10.1,-17.29,-38.12,-10.01,0.978,-5.538,-11,20.62,-16.43,-8.525,-14.05,0.3579,-10.04,-19.37,-26.25,-2.982,0,0,0,0,0,0,0,0,0,0,0,0,0,0,0,0,
139,8.962,-16.01,-26.84,-8.278,1.077,-12.31,-20.16,0.6944,-37.54,-0.182,-36.65,-16.27,-23.73,-31.44,-51.26,-17.14,0,0,0,0,0,0,0,0,0,0,0,0,0,0,0,0,
140,3.424,-13.88,-20.09,-12.5,-8.69,-5.396,-11.18,0.6651,-13.03,-13.32,-29.41,-5.058,-22.46,-25.91,-59.91,-21.5,0,0,0,0,0,0,0,0,0,0,0,0,0,0,0,0,
141,26.74,-7.54,-13.85,0.2441,-7.907,13.89,7.398,16.18,12.07,-12.91,7.227,11.65,-11.78,-18.33,-43.02,-6.03,0,0,0,0,0,0,0,0,0,0,0,0,0,0,0,0,
142,27.11,-8.756,-18.8,7.951,-0.9141,0.3777,-7.412,20.4,-17.78,13.6,2.463,3.106,2.051,-11.74,-24.57,16.11,0,0,0,0,0,0,0,0,0,0,0,0,0,0,0,0,
143,-0.1064,-9.093,-6.294,17.47,12.23,-7.306,-11.18,23.11,-37.97,13.55,-24.46,-7.215,9.379,-7.735,-20.7,25.24,0,0,0,0,0,0,0,0,0,0,0,0,0,0,0,0,
144,-10.36,1.135,18.97,30.49,5.007,13.67,12.03,24.52,-20.29,-23.18,-24.34,-12.7,-3.663,-19.47,-29.07,13.74,0,0,0,0,0,0,0,0,0,0,0,0,0,0,0,0,
145,-9.642,-3.761,11.84,17.61,-17.02,13.14,10.93,11.65,-20.3,-40.18,-26.48,-26.16,-25.38,-34.53,-45.31,-6.816,0,0,0,0,0,0,0,0,0,0,0,0,0,0,0,0,
146,-16.77,-30.88,-9.813,-3.599,-9.403,-6.517,-9.044,-10.08,-33.69,-14.72,-41.18,-35.62,-36.85,-37.71,-59.71,-20.34,0,0,0,0,0,0,0,0,0,0,0,0,0,0,0,0,
147,-27.16,-39.53,-15.32,-5.681,1.111,-10.54,-13,-16.04,-28.39,5.654,-37.49,-27.39,-31.94,-34.53,-58.13,-21.35,0,0,0,0,0,0,0,0,0,0,0,0,0,0,0,0,
148,-27.88,-18.88,-14.31,-1.251,-13.67,-8.938,-10.52,0.4205,-19.64,-17.22,-18.36,-6.536,-11.96,-24.47,-37.46,-9.742,0,0,0,0,0,0,0,0,0,0,0,0,0,0,0,0,
149,-16.9,-10.02,-10.66,-1.285,-12.04,-13.5,-15.35,7.2,-16.52,-37.01,1.952,11.52,8.273,-5.74,-8.957,13.49,0,0,0,0,0,0,0,0,0,0,0,0,0,0,0,0,
150,-8.917,-16.33,-4.186,-4.7,10.75,-15.2,-16.88,1.618,-13.45,0.1006,16.7,16.76,13.25,5.654,9.761,37.19,0,0,0,0,0,0,0,0,0,0,0,0,0,0,0,0,
151,-4.577,-12.12,-1.914,-6.557,11.74,-12.67,-13.73,8.066,-16.84,31.09,14.35,13.97,0.2015,-6.136,7.321,39.5,0,0,0,0,0,0,0,0,0,0,0,0,0,0,0,0,
152,5.589,-13.51,2.531,-2.682,4.468,-4.743,-7.474,7.532,-8.688,-7.408,13.07,15.97,-14.14,-20,-4.231,18.19,0,0,0,0,0,0,0,0,0,0,0,0,0,0,0,0,
153,23.36,-13.77,21.9,8.52,31.98,21.17,17.79,9.318,25.8,-32.17,33.21,27.72,-3.689,-4.409,-3.136,3.641,0,0,0,0,0,0,0,0,0,0,0,0,0,0,0,0,
154,39.35,14.26,42.53,31,57.02,47.32,43.17,50.44,42.78,7.691,36.46,30.15,16.37,12.2,2.157,9.46,0,0,0,0,0,0,0,0,0,0,0,0,0,0,0,0,
155,35.04,32.22,48.27,45.58,53.22,43.3,37.7,71.4,37.06,32.48,15.29,25.08,26.04,5.333,-3.476,18.68,0,0,0,0,0,0,0,0,0,0,0,0,0,0,0,0,
156,39.95,30.28,62.42,33.93,89.78,42.03,35.97,32.59,58.44,23.82,33.95,48.4,45.11,13.87,2.186,30.48,0,0,0,0,0,0,0,0,0,0,0,0,0,0,0,0,
157,79.2,42.85,75.5,23.89,124.1,62.72,50.95,18.35,72.32,18.8,66.46,68.91,51.67,28.83,23.63,43.73,0,0,0,0,0,0,0,0,0,0,0,0,0,0,0,0,
158,82.88,36.92,47.91,28.58,62.83,59.11,42.16,46.33,45.2,5.562,32.29,37.92,23.57,15.35,20.82,36.42,0,0,0,0,0,0,0,0,0,0,0,0,0,0,0,0,
159,37.39,13.88,31.75,28.32,28.07,42.15,28.46,54.01,35.16,3.05,-12,8.289,13.7,11.03,-6.029,18.23,0,0,0,0,0,0,0,0,0,0,0,0,0,0,0,0,
160,19.43,28.23,59.9,32.99,74.39,45.07,33.78,61.96,28.46,30.34,-3.931,9.829,23.28,18.95,-19.22,13.6,0,0,0,0,0,0,0,0,0,0,0,0,0,0,0,0,
161,16.96,43.73,54.16,48.88,51.7,42.52,32.25,87.42,-11.48,42.35,0.4119,2.597,11.39,1.502,-19.5,6.833,0,0,0,0,0,0,0,0,0,0,0,0,0,0,0,0,
162,0.9205,30.63,26.78,54.72,-2.031,40.25,32.42,80.85,-18.59,25.8,-10.79,-3.758,2.937,-14.82,-20.74,-12.84,0,0,0,0,0,0,0,0,0,0,0,0,0,0,0,0,
163,-0.734,22.98,49.66,55.67,29.33,48.09,39.62,55.4,8.412,10.75,-3.657,-4.036,1.189,-14.55,-19.73,-25.01,0,0,0,0,0,0,0,0,0,0,0,0,0,0,0,0,
164,-6.112,7.584,73.01,64,63.97,40.4,33.09,62.06,3.751,15.69,-0.475,-22.42,-14.81,-13.74,-22.33,-23.59,0,0,0,0,0,0,0,0,0,0,0,0,0,0,0,0,
165,-23.65,-16.52,59.82,60.78,43.87,30.39,26.14,79.6,-17.27,30.17,-21.11,-43.42,-25.5,-5.773,-35.71,-20.07,0,0,0,0,0,0,0,0,0,0,0,0,0,0,0,0,
166,-32.01,-21.41,41.83,34.11,-3.809,20.65,16.63,69.01,-34.83,16.64,-54.81,-58.81,-29.61,-2.281,-53.77,-18.91,0,0,0,0,0,0,0,0,0,0,0,0,0,0,0,0,
167,-38.97,-20.52,21.24,14.85,-39.91,6.979,5.19,53.61,-44.51,-2.031,-67.71,-54.54,-19.94,-1.944,-58.77,-10.36,0,0,0,0,0,0,0,0,0,0,0,0,0,0,0,0,
168,-16.98,-7.605,22.68,34.77,3.604,25.33,25.57,66.66,-26.73,20.26,-38.26,-11.03,13.12,12.64,-36.25,13.73,0,0,0,0,0,0,0,0,0,0,0,0,0,0,0,0,
169,29.03,10.91,44.25,56.07,60.16,41.71,39.13,76.9,-16.95,30.95,-18.2,12.04,14.71,5.363,-11.64,29.21,0,0,0,0,0,0,0,0,0,0,0,0,0,0,0,0,
170,26.03,-10.67,31.12,31.25,26.9,15.07,10.68,55.36,-26.71,7.637,-29.63,-14.51,-23.2,-30.25,-19.04,8.768,0,0,0,0,0,0,0,0,0,0,0,0,0,0,0,0,
171,-0.4208,-33.77,15.46,3.301,-0.3087,7.6,4.118,44.55,-12.72,12.95,-25.79,-27.52,-35.72,-39.32,-39.23,-24.93,0,0,0,0,0,0,0,0,0,0,0,0,0,0,0,0,
172,3.175,-8.435,24.98,14.19,31.18,30.99,27.51,63.02,-5.952,27.9,-19.94,-18.27,-19.96,-18.19,-42.16,-33.26,0,0,0,0,0,0,0,0,0,0,0,0,0,0,0,0,
173,1.877,17.91,20.01,27.17,28.13,34.97,31.8,70.14,-31.3,8.552,-39.48,-16.31,-6.114,-2.499,-37.25,-14.36,0,0,0,0,0,0,0,0,0,0,0,0,0,0,0,0,
174,-3.663,19.8,26.43,25.2,4.698,31.24,29.59,64.78,-31.63,1.238,-49.5,-9.776,5.611,-1.069,-35.16,11.33,0,0,0,0,0,0,0,0,0,0,0,0,0,0,0,0,
175,6.593,19.67,39.03,27.75,15.68,29.09,27.69,71.46,-13.04,24.23,-34.24,0.713,9.981,-5.106,-25.75,29.47,0,0,0,0,0,0,0,0,0,0,0,0,0,0,0,0,
176,1.818,14.75,6.681,25.52,10.78,16.96,16.12,75.48,-25.53,31.27,-14.36,0.0712,4.253,-5.772,-7.517,37.42,0,0,0,0,0,0,0,0,0,0,0,0,0,0,0,0,
177,-15.56,8.257,-10.17,9.414,-18.64,15.85,17.11,66.52,-40.51,25.95,-10.08,-7.221,0.1319,-4.342,5.41,41.2,0,0,0,0,0,0,0,0,0,0,0,0,0,0,0,0,
178,-15.81,15.36,18.32,2.562,-4.34,32.78,34.23,66.15,-26.84,39.6,-21.39,-4.42,9.605,2.35,11.35,49.65,0,0,0,0,0,0,0,0,0,0,0,0,0,0,0,0,
179,6.467,31.3,25.61,19.65,40.15,49.23,50.26,76.9,-8.578,42.16,-17.48,19.84,34.61,18.72,26.33,67.24,0,0,0,0,0,0,0,0,0,0,0,0,0,0,0,0,
180,38.03,40.21,17.39,33.78,39.03,51.03,50.68,72.82,3.839,8.428,1.837,40.97,51.14,22.53,48.86,86.87,0,0,0,0,0,0,0,0,0,0,0,0,0,0,0,0,
181,49.11,29.85,20.35,19.46,8.81,35.88,30.54,52.63,9.46,-18.65,-0.0116,31.27,39.53,6.691,54.2,91.34,0,0,0,0,0,0,0,0,0,0,0,0,0,0,0,0,
182,36.91,10.4,18.86,-0.1489,4.894,24.62,18.21,44.65,-7.866,-9.373,-22.35,6.71,18.39,-0.8008,32.81,67.8,0,0,0,0,0,0,0,0,0,0,0,0,0,0,0,0,
183,23.64,7.172,23.61,1.348,5.621,31.59,27.88,59.45,-27.93,28.18,-36.64,-10.71,10.14,5.447,-0.2905,25.62,0,0,0,0,0,0,0,0,0,0,0,0,0,0,0,0,
184,12.13,21.85,31.8,12.58,3.184,40.09,35.49,76.57,-15.73,69.73,-24.07,-9.806,12.44,7.953,-23.91,-6.282,0,0,0,0,0,0,0,0,0,0,0,0,0,0,0,0,
185,14.16,31.03,21.78,15.97,21.82,36.58,32.42,65.79,7.275,56.82,5.733,11.12,12.3,-0.7243,-23.23,-13.76,0,0,0,0,0,0,0,0,0,0,0,0,0,0,0,0,
186,32.27,21.03,12.75,9.413,28.25,28.1,24.59,33.02,13.33,-11.23,11.29,24.62,5.298,-16.85,-6.029,-12.17,0,0,0,0,0,0,0,0,0,0,0,0,0,0,0,0,
187,34.75,7.735,20.66,4.708,16.15,24.64,17.48,26.88,14.12,-39.28,-5.4,20.55,2.154,-23.63,7.338,-12.15,0,0,0,0,0,0,0,0,0,0,0,0,0,0,0,0,
188,20.14,8.6,23.18,6.928,21.67,22.57,14.7,48.57,11.45,-3.425,1.249,22.03,7.355,-17.46,14.63,-7.307,0,0,0,0,0,0,0,0,0,0,0,0,0,0,0,0,
189,8.34,11.66,10.6,4.476,22.89,16.46,11.81,48.14,-0.7652,14.14,12.31,22.86,7.861,-17.4,18.43,-1.918,0,0,0,0,0,0,0,0,0,0,0,0,0,0,0,0,
190,-1.383,7.73,9.628,4.173,14.98,22.79,20.69,29.83,-13,-6.524,-6.709,13.46,5.543,-17.69,14.11,-4.098,0,0,0,0,0,0,0,0,0,0,0,0,0,0,0,0,
191,2.794,13.92,31.05,19.33,27.97,49.42,47.27,31.26,-11.94,3.869,-12.14,20.1,17.54,-2.526,13.44,-3.192,0,0,0,0,0,0,0,0,0,0,0,0,0,0,0,0,
192,29.14,31.03,40.84,31.86,34.33,66.02,60.54,46.44,17.19,44.89,18,40.66,32.51,9.155,24.35,6.842,0,0,0,0,0,0,0,0,0,0,0,0,0,0,0,0,
193,50.01,31.04,23.73,28.23,22.14,52.71,45.75,52.26,49.12,32.72,32.77,41.83,25.05,1.708,25.66,9.531,0,0,0,0,0,0,0,0,0,0,0,0,0,0,0,0,
194,47.41,9.143,12.68,24.6,26.86,32.43,26.92,45.57,34.16,-23.02,15.66,25.28,1.208,-14.79,7.808,-8.355,0,0,0,0,0,0,0,0,0,0,0,0,0,0,0,0,
195,38.38,-1.039,27.69,36.4,45.25,37.21,33.42,43.06,5.671,-30.3,3.673,18.36,-10.09,-25.22,-7.657,-35.03,0,0,0,0,0,0,0,0,0,0,0,0,0,0,0,0,
196,46.84,20.68,50.84,58.98,54.52,73.29,71.08,62.87,24.3,9.371,17.98,34.59,6.99,-12.61,-0.3032,-42.08,0,0,0,0,0,0,0,0,0,0,0,0,0,0,0,0,
197,72.53,52.15,60.52,72.44,49.13,106.2,100.8,89.18,56.68,30.03,40.82,58.45,31.65,8.478,26.27,-20.72,0,0,0,0,0,0,0,0,0,0,0,0,0,0,0,0,
198,84.14,63.2,53.17,64.74,37.84,95.74,86.64,87.69,55.15,28.03,46.67,62.64,37.69,4.656,48.89,3.492,0,0,0,0,0,0,0,0,0,0,0,0,0,0,0,0,
199,66.22,58.2,33.54,42.52,32.38,57.07,51.7,65.99,40.16,38.14,49.89,55.01,41.31,-1.357,59.23,17.14,0,0,0,0,0,0,0,0,0,0,0,0,0,0,0,0,
200,47.21,63.1,8.726,23.24,18.47,34.03,33.27,58.23,41.43,48.74,64.07,55.95,52.18,15.88,68.4,31.26,0,0,0,0,0,0,0,0,0,0,0,0,0,0,0,0,
201,44.64,68.94,3.444,26.97,4.206,35.65,36.34,58.7,48.71,22.88,56.19,53.72,44.98,21.82,68.26,37.43,0,0,0,0,0,0,0,0,0,0,0,0,0,0,0,0,
202,44.81,48.88,26.97,46.45,19.27,48.5,50.12,56.78,37,-8.877,35.28,48.22,28.56,9.943,54.5,26.36,0,0,0,0,0,0,0,0,0,0,0,0,0,0,0,0,
203,50.54,26.79,44.81,58.67,32.44,62.75,65.23,70.53,30.9,0.3761,50.91,60.51,29.51,10.97,55.54,20.19,0,0,0,0,0,0,0,0,0,0,0,0,0,0,0,0,
204,74.12,31.38,49.77,69.5,30.15,73.42,76.36,68.97,67.87,14.39,76.51,78.43,34.59,16.49,74.31,29.09,0,0,0,0,0,0,0,0,0,0,0,0,0,0,0,0,
205,95.76,38.58,57.29,72.29,53.63,74.58,74.04,26.06,96.38,10.22,67.2,75.19,27.39,10.91,75.37,31.45,0,0,0,0,0,0,0,0,0,0,0,0,0,0,0,0,
206,85.42,31.57,37.38,46.11,64.73,56.75,51.55,15.85,68.76,17.76,44.08,50.33,8.468,-1.714,48.05,12.89,0,0,0,0,0,0,0,0,0,0,0,0,0,0,0,0,
207,48.7,19.07,2.873,33.84,11.33,35.35,30.6,59.41,32.14,23.25,21.85,18,-12.59,-16.43,9.402,-15.21,0,0,0,0,0,0,0,0,0,0,0,0,0,0,0,0,
208,22.55,7.733,16.66,66.34,-35.27,36.3,33.41,77.4,9.379,18.88,0.791,1.415,-9.235,-11.69,-21.41,-25.86,0,0,0,0,0,0,0,0,0,0,0,0,0,0,0,0,
209,23.62,16.61,42,82.13,-21.47,43.01,41.57,65.18,-9.965,22.71,-0.6007,12.85,16,11.02,-21.58,-6.114,0,0,0,0,0,0,0,0,0,0,0,0,0,0,0,0,
210,24.87,38.98,25.6,60.12,-16.74,36.78,37.9,65.12,-10.76,11.17,-0.8084,19.17,17.53,6.716,4.073,16.37,0,0,0,0,0,0,0,0,0,0,0,0,0,0,0,0,
211,7.547,32.79,17.44,52.12,-48.76,31.13,33.86,65.94,-15.33,-0.8111,-19.64,-2.021,-8.148,-21.17,15.68,10.99,0,0,0,0,0,0,0,0,0,0,0,0,0,0,0,0,
212,-8.814,6.201,26.95,50.41,-56.48,22.6,26.95,54.68,-35.68,18.07,-21.3,-14.26,-18.55,-28.09,5.453,-7.406,0,0,0,0,0,0,0,0,0,0,0,0,0,0,0,0,
213,-14.13,-2.82,6.313,26.79,-48.57,2.544,10.69,41.79,-35.95,15.3,-2.982,-2.051,-12.97,-19.28,1.308,-13.31,0,0,0,0,0,0,0,0,0,0,0,0,0,0,0,0,
214,-17.25,0.4574,-13.35,15.51,-63.33,-9.687,3.999,47.21,-30.78,-3.155,2.609,8.149,-13.02,-13.11,4.996,-11.92,0,0,0,0,0,0,0,0,0,0,0,0,0,0,0,0,
215,-12.17,7.085,4.055,31.76,-60.86,-2.002,14.52,64.82,-31.99,24.07,5.53,13.12,-9.714,-6.783,4.318,-13.05,0,0,0,0,0,0,0,0,0,0,0,0,0,0,0,0,
216,0.1905,17.9,15.25,45.58,-47.74,9.896,23.78,51.44,-16.13,38.82,5.86,12.51,-4.228,-8.184,3.246,-13.41,0,0,0,0,0,0,0,0,0,0,0,0,0,0,0,0,
217,0.8393,14.52,-3.311,43.04,-71.31,4.225,16.42,24.78,-11.87,8.643,-6.186,5.963,-0.6967,-3.739,6.189,-5.865,0,0,0,0,0,0,0,0,0,0,0,0,0,0,0,0,
218,-1.08,5.381,-8.726,32.9,-71.83,-11.15,1.583,36.83,-14.41,7.473,5.5,22.33,22.58,22.27,21.25,19.48,0,0,0,0,0,0,0,0,0,0,0,0,0,0,0,0,
219,17.01,20.03,17.13,34.52,-19.9,-8.961,1.557,53.27,13.19,20.89,37.07,51.72,51.15,34.07,51.65,53.25,0,0,0,0,0,0,0,0,0,0,0,0,0,0,0,0,
220,32.74,37.45,28.48,41.38,-8.527,-0.4082,8.785,35.92,11.96,7.809,36.8,53.57,51.49,23.53,72.85,64.65,0,0,0,0,0,0,0,0,0,0,0,0,0,0,0,0,
221,21.49,31.83,14.2,30.54,-44.11,-2.92,8.809,22.43,-27.82,12.53,18.37,45.11,39.6,25.13,66.73,49.48,0,0,0,0,0,0,0,0,0,0,0,0,0,0,0,0,
222,12.12,27.49,13.83,29.93,-47.65,2.552,15.8,30.64,-23.55,27.72,18.52,44.88,29.23,27.54,45.23,31.23,0,0,0,0,0,0,0,0,0,0,0,0,0,0,0,0,
223,16.4,29.35,18.48,48.76,-41.71,8.197,20.16,33.49,-10.58,14.42,17.7,30.18,15.07,16.03,24.38,22.33,0,0,0,0,0,0,0,0,0,0,0,0,0,0,0,0,
224,2.767,17.86,12.35,38.7,-65.22,-7.197,5.542,25.63,-40.48,8.573,4.377,16.89,17.83,16.21,19.14,29.82,0,0,0,0,0,0,0,0,0,0,0,0,0,0,0,0,
225,-15.27,12.39,5.105,7.759,-75.11,-22.99,-7.379,14.08,-46.34,16.22,2.632,33.3,40.18,30.6,37.58,58.69,0,0,0,0,0,0,0,0,0,0,0,0,0,0,0,0,
226,-6.964,23.9,-28.01,-13.58,-73.9,-31.85,-17.55,-8.016,-30.43,-0.2098,8.465,48.42,51.88,38.67,61.22,90.67,0,0,0,0,0,0,0,0,0,0,0,0,0,0,0,0,
227,1.223,26.95,-59.36,-36,-88.45,-41.11,-28.91,-24.42,-46.09,-6.189,7.857,42.29,49.57,38.25,69.92,103.6,0,0,0,0,0,0,0,0,0,0,0,0,0,0,0,0,
228,-5.974,20.23,-30.96,-41.43,-76.03,-37.16,-24.22,-11,-47.08,15.28,14.53,39.46,44.99,37.62,68.44,99.41,0,0,0,0,0,0,0,0,0,0,0,0,0,0,0,0,
229,-10.09,12.75,-1.691,-21.01,-53.87,-29,-17.28,8.036,-21.45,4.374,17.57,38.45,37.04,39.17,64.63,88.02,0,0,0,0,0,0,0,0,0,0,0,0,0,0,0,0,
230,-10.86,8.025,-14.71,-5.021,-78.11,-24.63,-12.8,14.81,-24.5,-4.654,9.5,37.56,41.05,43.68,62.77,79.11,0,0,0,0,0,0,0,0,0,0,0,0,0,0,0,0,
231,1.434,28.74,-15.57,8.897,-82.16,-5.984,6.607,31.07,-36.18,53.24,26.94,53,60.19,52.08,70.65,80.49,0,0,0,0,0,0,0,0,0,0,0,0,0,0,0,0,
232,21.88,55,2.881,18.89,-32.18,6.648,15.59,38.93,-26.97,74.41,43.59,49.11,49.15,46.12,72.87,71.49,0,0,0,0,0,0,0,0,0,0,0,0,0,0,0,0,
233,7.603,33.04,15.89,10.12,-16.8,-6.576,2.601,12.9,-23.08,-1.139,14.41,12.87,7.613,19.75,46.3,33.09,0,0,0,0,0,0,0,0,0,0,0,0,0,0,0,0,
234,-18.39,-3.29,23.12,14.51,-35.46,-8.322,3.271,-0.922,-22,-37.77,-1.737,4.702,-1.385,11.49,12,0.389,0,0,0,0,0,0,0,0,0,0,0,0,0,0,0,0,
235,-8.365,6.55,23.14,42.11,-29.72,11.38,19.62,26.2,-11.78,1.744,11.22,15.64,13.7,22.22,-3.145,1.431,0,0,0,0,0,0,0,0,0,0,0,0,0,0,0,0,
236,-3.209,24.79,23.61,50.08,-28.56,13.25,20.57,48.58,-11.8,11.19,-2.025,1.806,6.452,15.63,-9.89,9.931,0,0,0,0,0,0,0,0,0,0,0,0,0,0,0,0,
237,-20.6,13.81,24.13,34.86,-40.85,-5.861,4.567,47.96,-17.29,2.634,-1.655,3.055,4.846,11.5,-8.655,14.14,0,0,0,0,0,0,0,0,0,0,0,0,0,0,0,0,
238,-16.62,10.33,22.54,29.02,-37.4,-16.32,-4.76,50.84,-6.473,35.47,32.65,24.5,20.08,15.36,8.22,22.4,0,0,0,0,0,0,0,0,0,0,0,0,0,0,0,0,
239,-7.327,19.3,21.39,30.97,-37.35,-14.99,-3.088,51.14,6.436,43.25,27.2,19.24,12.43,-7.685,15.41,16.21,0,0,0,0,0,0,0,0,0,0,0,0,0,0,0,0,
240,-13.11,9.22,10.83,27.18,-36.05,-11.99,-0.753,38.2,2.487,-11.11,5.787,13.98,-3.741,-24.32,5.371,-6.453,0,0,0,0,0,0,0,0,0,0,0,0,0,0,0,0,
241,-5.262,-6.155,10.63,27.18,-20.23,-6.945,2.768,28.37,-2.042,-37.34,27.76,30.42,-2.672,-9.044,7.622,-16.05,0,0,0,0,0,0,0,0,0,0,0,0,0,0,0,0,
242,-0.0435,-12.97,22.62,25.16,-39.24,-12.17,-3.569,18.2,-6.16,-14.44,33,22.39,-10.43,-11.91,18.72,-14.12,0,0,0,0,0,0,0,0,0,0,0,0,0,0,0,0,
243,-25.83,-26.78,7.109,4.426,-78.18,-35.49,-26.89,7.96,-32.59,-15.77,-5.218,-11.34,-27.42,-26.53,12.41,-22.38,0,0,0,0,0,0,0,0,0,0,0,0,0,0,0,0,
244,-54.52,-32.81,-14.75,-14.44,-67.83,-49.96,-38.24,13.46,-46.15,-21.28,-22.09,-25.1,-21.47,-10.27,-1.892,-32.26,0,0,0,0,0,0,0,0,0,0,0,0,0,0,0,0,
245,-60.05,-15.83,-16.34,-12.5,-47.33,-42.04,-27.09,13.82,-15.57,10.2,-12.07,-16.85,-3.675,8.672,-9.95,-30.58,0,0,0,0,0,0,0,0,0,0,0,0,0,0,0,0,
246,-43.76,-4.85,-16.99,-6.153,-54.99,-30.49,-15.7,1.428,-4.359,19.4,-6.516,-10.02,-4.021,5.215,-20.57,-28.33,0,0,0,0,0,0,0,0,0,0,0,0,0,0,0,0,
247,-19.62,-10.48,-10.95,-1.438,-43.61,-22.84,-10.73,3.63,-24.26,-7.742,-3.462,-10.03,-15.72,-5.716,-33.08,-36.01,0,0,0,0,0,0,0,0,0,0,0,0,0,0,0,0,
248,-13.29,-12.44,-4.745,5.528,-27.64,-20.71,-11.24,8.691,-9.546,-17.73,-13.8,-22.15,-24.81,-18.56,-42.81,-51.37,0,0,0,0,0,0,0,0,0,0,0,0,0,0,0,0,
249,-30.47,-14.39,-7.001,5.053,-45.08,-27.41,-17.84,6.165,-1.938,-13.19,-38.2,-46.18,-34.72,-21.85,-55.44,-65.16,0,0,0,0,0,0,0,0,0,0,0,0,0,0,0,0,
250,-51.98,-24.17,-0.605,-3.593,-68.36,-32.93,-22.78,12.57,-51.05,-9.392,-50.64,-61.76,-43.56,-17.06,-64.84,-68.03,0,0,0,0,0,0,0,0,0,0,0,0,0,0,0,0,
251,-68.08,-32.62,-13.96,-13.13,-80.3,-37.02,-26.62,5.04,-75.16,-6.668,-56.7,-67.4,-51.23,-27.7,-66.63,-67.95,0,0,0,0,0,0,0,0,0,0,0,0,0,0,0,0,
252,-82.78,-45.85,-49.79,-22.17,-77.21,-49.94,-37.82,-21.86,-51.52,-18.67,-64.67,-79.89,-67.29,-40.85,-73.07,-78.43,0,0,0,0,0,0,0,0,0,0,0,0,0,0,0,0,
253,-93.45,-67.41,-53.91,-26.01,-69.68,-63.41,-50.45,-23.6,-46.98,-26.04,-61.89,-88.46,-84.64,-41.63,-82.03,-93.18,0,0,0,0,0,0,0,0,0,0,0,0,0,0,0,0,
254,-90.37,-73.24,-34.28,-21.19,-80.87,-60.1,-46.02,-5.84,-47.9,-11.93,-54.22,-78.24,-83.19,-44.83,-79.32,-100.4,0,0,0,0,0,0,0,0,0,0,0,0,0,0,0,0,
255,-79.78,-55.34,-19.88,-10.86,-73.09,-41.76,-26.61,-1.776,-29.66,-4.665,-46.54,-63,-64.39,-41.69,-66.52,-97.34,0,0,0,0,0,0,0,0,0,0,0,0,0,0,0,0,
256,-73.39,-37.03,-5.782,0.7549,-35.59,-30.64,-16.82,2.863,-17.31,-6.112,-30.86,-52.57,-49.33,-26.21,-49.61,-86.07,0,0,0,0,0,0,0,0,0,0,0,0,0,0,0,0,
257,-58.64,-27.63,-1.11,6.946,-19.63,-28.58,-13.22,15.39,3.889,6.393,-2.015,-34.22,-38.42,-14.1,-24.02,-69.07,0,0,0,0,0,0,0,0,0,0,0,0,0,0,0,0,
258,-28.95,-16.03,3.781,8.797,-14.61,-14.7,2.263,17.88,32.47,25.08,29.88,-12.36,-19.6,-0.1303,6.478,-44.98,0,0,0,0,0,0,0,0,0,0,0,0,0,0,0,0,
259,-16.07,-7.824,21.23,12.74,-17.19,-8.462,4.114,12.35,14.24,21.85,17.79,-21.86,-13.75,8.64,14.54,-26.76,0,0,0,0,0,0,0,0,0,0,0,0,0,0,0,0,
260,-45.32,-19.96,10.37,3.772,-53.51,-36.68,-27.14,2.242,-40.8,-12.98,-39.99,-59.02,-35.99,-7.098,-15.09,-37.88,0,0,0,0,0,0,0,0,0,0,0,0,0,0,0,0,
261,-86.62,-42.71,-33.09,-24.71,-75.54,-63.64,-52.77,-14.98,-70.5,-34.56,-68.71,-78.9,-59.09,-30.37,-55.43,-70.83,0,0,0,0,0,0,0,0,0,0,0,0,0,0,0,0,
262,-99.75,-55.03,-51.13,-41.08,-70.96,-66.43,-54.15,-29.94,-70.66,-15.66,-72.48,-89.46,-72.38,-45.33,-83.04,-101.8,0,0,0,0,0,0,0,0,0,0,0,0,0,0,0,0,
263,-101.7,-63.4,-42.8,-39.56,-78.69,-76.65,-63.9,-41.63,-76.17,-12.2,-105.4,-114.8,-84.97,-54.63,-103.5,-123.8,0,0,0,0,0,0,0,0,0,0,0,0,0,0,0,0,
264,-114.6,-77.11,-48.03,-46.69,-81.54,-94.3,-82.16,-48.27,-84.13,-30.36,-121.5,-119.6,-84.94,-51.85,-111.3,-129.3,0,0,0,0,0,0,0,0,0,0,0,0,0,0,0,0,
265,-113.2,-79.84,-55.39,-52.47,-90.11,-90.79,-80.05,-41.75,-71.31,-21.4,-91.41,-94.63,-73.7,-40.63,-96.89,-113.2,0,0,0,0,0,0,0,0,0,0,0,0,0,0,0,0,
266,-96.19,-68.65,-53.83,-48.54,-108.6,-79.33,-71.46,-41.09,-54.81,-28.12,-78.28,-83.3,-74.03,-37.68,-78.1,-91.09,0,0,0,0,0,0,0,0,0,0,0,0,0,0,0,0,
267,-95.67,-67.96,-64.78,-59.24,-85.9,-86.23,-79.15,-51.04,-63.72,-65.91,-88.31,-89.31,-80.48,-40.93,-73.94,-77.5,0,0,0,0,0,0,0,0,0,0,0,0,0,0,0,0,
268,-103.9,-74.51,-74.82,-68.69,-70.07,-98.36,-86.93,-43.98,-82.43,-57.77,-74.44,-87.01,-69.74,-32.89,-76.3,-71.14,0,0,0,0,0,0,0,0,0,0,0,0,0,0,0,0,
269,-98.6,-66.16,-60.33,-47.43,-101.1,-96.46,-83.01,-36.21,-81.65,-26.44,-51.77,-78.61,-55.33,-23.29,-70.05,-67.9,0,0,0,0,0,0,0,0,0,0,0,0,0,0,0,0,
270,-89.07,-62.19,-43.85,-28.08,-94.92,-90.78,-78.77,-50.11,-64.57,-24.76,-49.71,-74.89,-61.95,-34.27,-56.25,-67.48,0,0,0,0,0,0,0,0,0,0,0,0,0,0,0,0,
271,-84.8,-73.9,-44.33,-37.42,-65.5,-87.51,-76.06,-49.67,-53.26,-9.798,-48.91,-69.84,-68.58,-41.61,-43.64,-66.48,0,0,0,0,0,0,0,0,0,0,0,0,0,0,0,0,
272,-76.05,-69.94,-49.84,-45.99,-85.57,-81.42,-71.41,-27.15,-56.7,-2.032,-43.62,-62.96,-65.51,-32.38,-38.43,-64.69,0,0,0,0,0,0,0,0,0,0,0,0,0,0,0,0,
273,-62.51,-59.53,-58.39,-41.87,-107.2,-77.74,-66.75,-18.98,-66.52,-39.83,-58.35,-68.45,-75.32,-40.46,-47.69,-71.59,0,0,0,0,0,0,0,0,0,0,0,0,0,0,0,0,
274,-59.67,-59.33,-63.33,-35.73,-93.49,-68.9,-54.53,-21.71,-70.52,-46.28,-77.92,-74.42,-67.44,-43.82,-62.26,-78.86,0,0,0,0,0,0,0,0,0,0,0,0,0,0,0,0,
275,-61.46,-34.22,-44.46,-19.73,-69.64,-52.81,-39.05,-19.29,-58.1,-16.62,-71.55,-55,-22.66,-10.08,-56.33,-61.45,0,0,0,0,0,0,0,0,0,0,0,0,0,0,0,0,
276,-49.47,-3.792,-24.92,-12.19,-56.74,-55.08,-42.81,-20.24,-39.9,-18.93,-52.9,-27.34,-0.0736,8.495,-29.36,-26.32,0,0,0,0,0,0,0,0,0,0,0,0,0,0,0,0,
277,-31.97,-12.16,-28.19,-29.07,-73.84,-60.08,-47.98,-15.19,-38.96,-5.585,-35.59,-14.41,-6.478,-5.318,-6.213,-7.345,0,0,0,0,0,0,0,0,0,0,0,0,0,0,0,0,
278,-16.41,-14.17,-19.94,-24.62,-76.39,-34.75,-25.02,7.287,-41.89,33.31,-23.72,-9.258,-2.244,-8.03,-2.17,-21.64,0,0,0,0,0,0,0,0,0,0,0,0,0,0,0,0,
279,-3.768,4.049,-4.571,-2.004,-34.47,-15.71,-8.51,15.39,-33.99,16.7,-32.68,-12.18,-4.649,-5.775,-16,-57.26,0,0,0,0,0,0,0,0,0,0,0,0,0,0,0,0,
280,-9.093,-2.491,-12.97,-15.23,-22.03,-27.57,-19.76,-9.568,-31.09,-7.54,-37.6,-15.63,-10.41,-5.522,-27.46,-77.18,0,0,0,0,0,0,0,0,0,0,0,0,0,0,0,0,
281,-19.72,-4.698,-7.864,-28.06,-41.7,-29.67,-21.15,-22.94,-24.97,19.45,-22.61,-5.746,7.115,9.441,-17.92,-57.75,0,0,0,0,0,0,0,0,0,0,0,0,0,0,0,0,
282,-13.8,14.88,8.191,-8.586,-35.7,-19.93,-14.41,-3.341,-12.23,25.91,-28.16,-1.077,15.41,15.82,-2.034,-25.36,0,0,0,0,0,0,0,0,0,0,0,0,0,0,0,0,
283,-6.823,7.558,-13.9,-3.745,-34.46,-26.59,-22.67,8.761,-14.3,8.504,-28.07,-0.7179,4.389,6.234,7.118,-10.14,0,0,0,0,0,0,0,0,0,0,0,0,0,0,0,0,
284,-2.411,-11.78,-31.25,-7.054,-43.61,-33.02,-27.27,4.501,-13.5,4.615,12.84,9.411,0.1878,-1.816,15.82,-10.76,0,0,0,0,0,0,0,0,0,0,0,0,0,0,0,0,
285,-0.1529,-14.43,-9.647,-1.26,-33.31,-31.35,-27.3,3.128,-3.643,-19.82,11.39,-4.76,-17.45,-24.09,9.081,-30.17,0,0,0,0,0,0,0,0,0,0,0,0,0,0,0,0,
286,-18.79,-26.71,-0.1779,-10.79,-36.02,-34.81,-32.65,-1.683,-10.9,-20.45,-35.97,-34.24,-41.52,-43.7,-17.89,-65.38,0,0,0,0,0,0,0,0,0,0,0,0,0,0,0,0,
287,-29.48,-29.12,-4.16,-1.179,-36.93,-24.51,-20.93,-3.033,-13.88,32.14,-23.66,-22.84,-30,-25.99,-28.24,-81.09,0,0,0,0,0,0,0,0,0,0,0,0,0,0,0,0,
288,-9.176,-4.028,12.17,35.17,-3.815,-6.222,-3.769,2.529,-1.338,31.18,10.21,-5.469,-17.56,-13.25,-16.53,-65.62,0,0,0,0,0,0,0,0,0,0,0,0,0,0,0,0,
289,-8.586,-5.023,17.59,24.55,-7.999,-18.8,-16.01,-3.623,-1.916,-12.27,-6.077,-23.43,-31.56,-25.91,-15.15,-50.3,0,0,0,0,0,0,0,0,0,0,0,0,0,0,0,0,
290,-31.25,-21.16,-7.579,-17.07,-50.11,-37.77,-31.23,-3.02,-1.206,5.183,-12.54,-25.62,-21.44,-12.42,-19.41,-41.97,0,0,0,0,0,0,0,0,0,0,0,0,0,0,0,0,
291,-25.65,1.92,-18.63,-20.47,-38.73,-29.84,-23.65,16.07,7.665,33.74,2.879,-5.209,6.322,16.64,-10.46,-23.22,0,0,0,0,0,0,0,0,0,0,0,0,0,0,0,0,
292,-13.75,17.88,-12.96,-16.49,-27.29,-30.48,-25.95,20.2,-3.46,14.86,-5.857,-7.726,1.271,13.07,-1.338,-7.371,0,0,0,0,0,0,0,0,0,0,0,0,0,0,0,0,
293,-26.97,-4.785,-26.88,-34.71,-69.25,-44.19,-37.18,12.9,-11.62,0.2888,-9.484,-14.18,-8.777,2.047,0.1873,-13.86,0,0,0,0,0,0,0,0,0,0,0,0,0,0,0,0,
294,-29.09,-3.234,-35.17,-32.14,-60.57,-34.33,-23.99,23.14,3.559,21.07,8.523,-0.4005,7.134,13.73,5.712,-27.95,0,0,0,0,0,0,0,0,0,0,0,0,0,0,0,0,
295,-13.92,24.27,-22.51,-12.35,-11.48,-19.42,-7.756,43.53,8.754,62.04,16.38,7.308,15.34,23.25,11.97,-35.51,0,0,0,0,0,0,0,0,0,0,0,0,0,0,0,0,
296,-9.914,27.85,-9.977,-6.182,-9.66,-18.23,-4.757,59.58,8.566,83.81,16.53,0.454,2.878,17.57,5.244,-45.56,0,0,0,0,0,0,0,0,0,0,0,0,0,0,0,0,
297,-6.154,21.11,17.79,7.278,-3.869,-8.309,6.906,60.75,21.14,55.75,15.52,-5.8,-4.743,11,-9.252,-56.4,0,0,0,0,0,0,0,0,0,0,0,0,0,0,0,0,
298,1.437,20.2,32.07,19.9,8.326,2.031,14.48,40.88,15.02,23.28,-3.62,-12.85,-2.268,7.191,-18.5,-54.91,0,0,0,0,0,0,0,0,0,0,0,0,0,0,0,0,
299,-3.834,15.67,5.31,10.45,-10.96,-3.023,7.669,24.61,-9.124,23.27,-25.64,-18.74,2.067,12.76,-23.97,-44.1,0,0,0,0,0,0,0,0,0,0,0,0,0,0,0,0,
300,-8.995,16.29,-4.656,9.058,-24.1,-11.11,3.23,30.19,-20.69,18.22,-17.3,-11.31,10.67,28.66,-24.03,-29.52,0,0,0,0,0,0,0,0,0,0,0,0,0,0,0,0,
301,-6.445,17.85,-16.25,-1.963,-58.79,-23.08,-6.999,33.12,-27.47,10.88,-2.995,-4.787,21.08,27.64,-13.1,-12.49,0,0,0,0,0,0,0,0,0,0,0,0,0,0,0,0,
302,-9.506,17.43,-51.76,-37.99,-79.31,-32.06,-15.05,16.37,-22.85,41.72,-19.81,-14.53,27.72,17.37,-6.603,-5.323,0,0,0,0,0,0,0,0,0,0,0,0,0,0,0,0,
303,-10.67,29.11,-27.64,-27.73,-11.5,-18.99,0.2831,3.24,2.83,70.05,-28.37,-15.48,31.28,31.69,-10.81,-12.07,0,0,0,0,0,0,0,0,0,0,0,0,0,0,0,0,
304,-0.5353,32.14,22.78,16.26,9.503,-4.171,13.02,9.64,12.12,44.03,-0.1849,-0.7608,21.43,38.48,-7.072,-21.88,0,0,0,0,0,0,0,0,0,0,0,0,0,0,0,0,
305,5.994,11.52,23.82,21.63,-40.81,-10.09,3.911,12.28,1.756,6.544,11.68,-4.758,-3.678,13.95,-3.04,-32.72,0,0,0,0,0,0,0,0,0,0,0,0,0,0,0,0,
306,-4.806,-2.911,28.36,17.92,-14.97,-22.08,-8.452,-4.519,3.147,6.384,-8.072,-22.99,-12.3,6.622,-18.37,-40.75,0,0,0,0,0,0,0,0,0,0,0,0,0,0,0,0,
307,-18.81,0.2772,33.33,18.42,15.49,-28.3,-14.31,-19.21,0.0206,22.26,-16.86,-23.17,5.357,21.54,-32.81,-32.81,0,0,0,0,0,0,0,0,0,0,0,0,0,0,0,0,
308,-18.1,6.044,5.048,-5.641,-23.94,-32.16,-18.42,-21.36,-23.11,19.22,-12.31,-13.62,16.89,22.6,-24.71,-10.89,0,0,0,0,0,0,0,0,0,0,0,0,0,0,0,0,
309,-17.33,6.609,-3.111,-16.14,-38.78,-33.58,-21.69,-25.82,-34.31,4.904,-8.583,-9.207,15.43,20.09,-4.273,10.8,0,0,0,0,0,0,0,0,0,0,0,0,0,0,0,0,
310,-21.11,3.315,10.56,-2.86,-27.83,-27.33,-15.79,-26.9,-19.5,15.3,-6.896,-5.899,18.59,25.04,15.24,25.95,0,0,0,0,0,0,0,0,0,0,0,0,0,0,0,0,
311,-12.65,1.337,7.701,-8.345,-29.83,-21.48,-10.3,-17.11,-12.49,34.07,-16.01,-8.812,20.56,28.13,21.33,34.33,0,0,0,0,0,0,0,0,0,0,0,0,0,0,0,0,
312,-11.39,-3.09,1.095,-23.71,-28.2,-35.7,-28.32,-21.39,-24.99,14.72,-21.95,-11.47,19.48,32.99,9.333,35.06,0,0,0,0,0,0,0,0,0,0,0,0,0,0,0,0,
313,-25.01,-7.289,0.4167,-24.08,-21.25,-53.62,-46.91,-38.75,-25.14,-0.7071,-17.42,-3.185,26.25,35.13,-1.849,28.44,0,0,0,0,0,0,0,0,0,0,0,0,0,0,0,0,
314,-23.35,-0.3877,8.336,-11.21,-7.706,-41.91,-34.62,-32.96,-16.09,21.09,-28.65,-3.351,27.81,26.34,-4.68,18.88,0,0,0,0,0,0,0,0,0,0,0,0,0,0,0,0,
315,-14.99,3.803,27.68,6.625,-3.995,-20.37,-16.91,-15.04,-17.44,12.88,-39.73,-10.49,19.62,19.46,-8.48,14.13,0,0,0,0,0,0,0,0,0,0,0,0,0,0,0,0,
316,-16.85,-1.059,36.35,7.706,-14.99,-20.17,-19.24,-15.63,-12.05,-16.11,-30.53,-2.623,23.37,24.45,-5.916,19.07,0,0,0,0,0,0,0,0,0,0,0,0,0,0,0,0,
317,-18.63,2.369,25.43,-7.861,-8.899,-25.08,-24.19,-16.93,-11.69,6.643,-31.23,1.446,32.13,30.09,4.646,29.57,0,0,0,0,0,0,0,0,0,0,0,0,0,0,0,0,
318,-21.44,7.248,15.17,-6.457,8.351,-18.38,-17.1,-12.97,-30.12,36.82,-27.54,-3.246,27.1,24.84,12.7,39.3,0,0,0,0,0,0,0,0,0,0,0,0,0,0,0,0,
319,-18.27,-0.2693,15.44,6.458,17.5,-15.68,-14.57,-23.95,-26.67,17.02,1.904,6.227,19.7,16.89,26.81,50.42,0,0,0,0,0,0,0,0,0,0,0,0,0,0,0,0,
320,-11.39,-12.51,21.25,1.854,16.56,-26.94,-28.5,-31.33,-4.979,-13.77,8.54,7.601,15.98,16.89,47.06,65.59,0,0,0,0,0,0,0,0,0,0,0,0,0,0,0,0,
321,-25.65,-24.04,25.18,-7.112,2.655,-36.95,-39.49,-19.98,-11.11,-15.85,-12.08,-10.94,7.259,12.6,52.82,78.78,0,0,0,0,0,0,0,0,0,0,0,0,0,0,0,0,
322,-42.62,-34.14,7.991,-10.09,-14.74,-39.24,-40.63,-14.5,-37.42,-1.03,-19.99,-16.07,-3.615,-5.773,45.87,81.51,0,0,0,0,0,0,0,0,0,0,0,0,0,0,0,0,
323,-40.41,-38.09,-24.73,-23.35,-28.4,-44.34,-44.23,-21.57,-48.3,-7.652,-22.31,-9.05,-7.16,-13.67,43.41,72.53,0,0,0,0,0,0,0,0,0,0,0,0,0,0,0,0,
324,-39.12,-31.74,-28.21,-35.61,-28.42,-44.91,-41.25,-26.37,-33.11,-27.97,-20.39,-7.076,1.345,4.618,47.53,66.22,0,0,0,0,0,0,0,0,0,0,0,0,0,0,0,0,
325,-36.55,-21.05,-4.844,-27.4,-17.16,-34.27,-29.94,-24.07,-17.85,-10.89,-4.172,1.729,13.39,20.86,52.63,76.05,0,0,0,0,0,0,0,0,0,0,0,0,0,0,0,0,
326,-20.16,-19.61,2.55,-14.47,-20.7,-32.32,-30.61,-22.3,-13.77,9.201,11.37,20.65,21.89,22.13,55.82,89.27,0,0,0,0,0,0,0,0,0,0,0,0,0,0,0,0,
327,-2.528,-20.42,-2.319,-14.8,-19.05,-39.72,-39.41,-28.4,8.416,-16.45,17.88,34.15,30.75,26.25,54.73,85.9,0,0,0,0,0,0,0,0,0,0,0,0,0,0,0,0,
328,10.06,-9.912,2.189,-15.58,7.223,-32.26,-33.31,-25.05,20.76,-27.84,8.094,29.79,28.11,22.31,42.82,63.99,0,0,0,0,0,0,0,0,0,0,0,0,0,0,0,0,
329,14.09,1.23,17.75,-0.219,18.48,-8.036,-8.482,-8.683,-9.418,-7.587,-7.179,19.63,14.75,4.123,22.4,37.08,0,0,0,0,0,0,0,0,0,0,0,0,0,0,0,0,
330,12.02,10.49,31.26,13.84,9.294,13.55,13.76,-9.469,-15.54,-4.397,2.251,26.87,19.63,2.938,14.25,25.71,0,0,0,0,0,0,0,0,0,0,0,0,0,0,0,0,
331,18.19,24.78,19.5,5.401,0.0124,15.41,12.82,-18.08,9.242,10.7,14.21,36.44,33.23,15.97,23.23,31.73,0,0,0,0,0,0,0,0,0,0,0,0,0,0,0,0,
332,20.47,27.57,-1.395,-7.006,-17.87,1.538,-0.9057,-15.46,0.6752,41.38,5.81,28.75,30.38,17.95,31.75,34.42,0,0,0,0,0,0,0,0,0,0,0,0,0,0,0,0,
333,9.512,16.27,3.375,-4.907,-28.35,-2.894,-3.089,-23.63,-6.48,18.25,6.669,23.46,25.21,18.42,37.65,27.8,0,0,0,0,0,0,0,0,0,0,0,0,0,0,0,0,
334,7.12,11.79,16.74,2.16,-9.592,4.599,2.977,-30.82,11.27,-32.61,13.6,24.82,24.93,22.5,43.21,20.09,0,0,0,0,0,0,0,0,0,0,0,0,0,0,0,0,
335,10.14,9.389,12.72,6.253,6.38,1.449,-2.011,-20.53,8.483,-33.8,8.613,20.58,25.34,20.92,39.87,13.41,0,0,0,0,0,0,0,0,0,0,0,0,0,0,0,0,
336,9.035,-0.2095,-0.4726,0.5455,-13.95,-9.735,-13.06,-26.85,5.427,-5.761,12.3,23.99,35.56,22.26,33.58,11.95,0,0,0,0,0,0,0,0,0,0,0,0,0,0,0,0,
337,18.51,-3.542,-9.265,-14.55,-38.59,-12.32,-15.29,-43.07,12.51,0.1396,20.1,32.3,46.85,32.49,34.5,18.18,0,0,0,0,0,0,0,0,0,0,0,0,0,0,0,0,
338,20.39,-1.773,-8.775,-16.91,-27.45,-11.54,-15.59,-38.46,-3.823,-7.434,15.24,23.12,42.34,37.06,37.7,25.96,0,0,0,0,0,0,0,0,0,0,0,0,0,0,0,0,
339,1.07,-5.773,-3.044,-5.352,-5.798,-11.61,-16.47,-32.12,-4.665,3.129,20.55,15.16,30.71,28.09,43.03,30.12,0,0,0,0,0,0,0,0,0,0,0,0,0,0,0,0,
340,4.369,-3.675,8.763,-2.243,7.433,-0.2828,-3.764,-28.9,30.77,24.66,44.75,37.25,32.36,26.82,57.22,31.63,0,0,0,0,0,0,0,0,0,0,0,0,0,0,0,0,
341,36.61,11.47,28.49,-0.8352,33.45,18.78,15.51,-20.09,47.77,11.77,59.78,62.98,42.87,35.95,74.14,35.4,0,0,0,0,0,0,0,0,0,0,0,0,0,0,0,0,
342,47.88,18.23,35.62,11.82,52.09,26.24,22.39,-20.91,46.64,-29.42,56.22,59.62,35.95,20.61,79.91,38.76,0,0,0,0,0,0,0,0,0,0,0,0,0,0,0,0,
343,35.18,6.805,31.16,25.98,48.26,29.29,25.66,-14.43,60.11,-31.76,57.97,49.08,21.59,-2.903,74.19,35.4,0,0,0,0,0,0,0,0,0,0,0,0,0,0,0,0,
344,31.58,0.5716,47.14,42.19,58.13,41.67,35.53,10.35,65.86,-1.371,66.39,48.56,26.27,7.261,67.61,30.97,0,0,0,0,0,0,0,0,0,0,0,0,0,0,0,0,
345,30.53,7.071,66.22,54.13,67.17,40.91,32.34,13.5,48.03,7.213,47.9,37.52,30.52,20.43,57.58,26.41,0,0,0,0,0,0,0,0,0,0,0,0,0,0,0,0,
346,19.43,8.062,55.52,43.04,41.9,23.83,17.16,-2.871,37.07,15.01,16.37,26.38,26.91,15.82,38.58,16.7,0,0,0,0,0,0,0,0,0,0,0,0,0,0,0,0,
347,22.62,11.44,44.09,30.65,27.2,26.92,22.61,-5.106,44.11,33.64,18.3,36.2,36.53,23.17,27.07,16.27,0,0,0,0,0,0,0,0,0,0,0,0,0,0,0,0,
348,35.22,23.66,49.25,33.82,45.75,40.15,34.77,-4.479,39.1,20.17,31.15,38.35,40.51,30.43,32.79,32.89,0,0,0,0,0,0,0,0,0,0,0,0,0,0,0,0,
349,21.71,16.58,47.24,28.68,48.65,32.61,25.02,-5.029,21.33,-8.816,20.63,23.4,26.4,18.99,39.16,42.09,0,0,0,0,0,0,0,0,0,0,0,0,0,0,0,0,
350,8.227,-0.3648,46.31,26.3,32.35,28.8,22.16,2.684,19.89,-9.127,9.42,22.17,20.64,11.08,37.43,25.78,0,0,0,0,0,0,0,0,0,0,0,0,0,0,0,0,
351,22.35,9.779,53.8,43.53,25.22,40,34.93,3.879,19.46,6.791,6.807,27.09,22.55,10.65,33.53,-1.763,0,0,0,0,0,0,0,0,0,0,0,0,0,0,0,0,
352,25.62,27.43,45.99,48.81,13.82,41.08,35.99,5.983,7.73,18.13,7.837,23.85,21.77,11.58,31.94,-13.51,0,0,0,0,0,0,0,0,0,0,0,0,0,0,0,0,
353,20.2,28.08,29.49,39.11,6.249,43.2,39.7,19.86,16.04,34.45,20.54,31.79,33.36,24.26,37.36,3.212,0,0,0,0,0,0,0,0,0,0,0,0,0,0,0,0,
354,37.75,33.42,32.02,42.86,29.64,60.48,58.29,28.09,29.83,54.31,23.1,41.82,53.28,38.82,44.38,30.55,0,0,0,0,0,0,0,0,0,0,0,0,0,0,0,0,
355,50.79,50.62,55.89,56.55,53.62,76.85,74.78,37.12,14.29,46.49,2.925,32.97,59.01,39.77,40.79,38.36,0,0,0,0,0,0,0,0,0,0,0,0,0,0,0,0,
356,45.42,64.64,76.21,66.19,46.62,88.04,85.67,50.35,-1.455,27.25,-7.638,26.21,53.62,39.38,31.26,21.93,0,0,0,0,0,0,0,0,0,0,0,0,0,0,0,0,
357,44.52,72.83,65.14,64.43,28.1,88.2,83.85,44.56,5.059,45.73,-0.5433,36.9,55.36,42.05,24.3,4.538,0,0,0,0,0,0,0,0,0,0,0,0,0,0,0,0,
358,50.25,75.88,40.55,50.69,21.35,73.99,72.25,30.7,10.32,57.41,4.014,51.34,66.22,36.86,20.41,7.588,0,0,0,0,0,0,0,0,0,0,0,0,0,0,0,0,
359,60.54,76.67,39.21,43.62,25.96,72.53,75.49,28.4,8.251,31.51,7.852,60.41,74.48,36.88,26.8,27.87,0,0,0,0,0,0,0,0,0,0,0,0,0,0,0,0,
360,68.24,79.53,48.74,53.45,24.81,86.32,87.6,30.97,11.49,43.52,17.72,61.18,75.54,50.59,42.77,43.59,0,0,0,0,0,0,0,0,0,0,0,0,0,0,0,0,
361,64.14,81.91,49.06,66.05,17.95,88.58,89.93,39.29,17.46,73.52,24.41,56.32,73.85,54.33,51.64,44.51,0,0,0,0,0,0,0,0,0,0,0,0,0,0,0,0,
362,57.81,82.42,43.41,64.4,19.46,78.2,81.85,44.59,11.71,44.05,18.64,50.69,66.69,44.49,48.24,39,0,0,0,0,0,0,0,0,0,0,0,0,0,0,0,0,
363,45.25,74.02,24.86,43.41,12.75,58.69,60.45,30.25,-5.748,15.46,3.656,40.8,54.18,43.04,38.42,32.82,0,0,0,0,0,0,0,0,0,0,0,0,0,0,0,0,
364,25.5,53.85,3.447,20.43,-6.181,37.48,41.26,17.17,-15.53,36.37,-7.252,33.42,55.06,50.39,26.88,32.16,0,0,0,0,0,0,0,0,0,0,0,0,0,0,0,0,
365,23.14,48.71,7.337,21.62,-14.47,42.89,51.33,27.31,-19.73,53.76,-7.275,40.24,70.27,53.11,25.82,44.18,0,0,0,0,0,0,0,0,0,0,0,0,0,0,0,0,
366,35.73,68.05,23,43.35,-18.77,66.08,73.97,41.4,-25.12,54.82,-2.298,50,71.48,48.64,36.9,53.18,0,0,0,0,0,0,0,0,0,0,0,0,0,0,0,0,
367,43.66,75.01,24.66,53.93,-11.52,68.97,75.67,39.47,-3.758,52.16,4.862,47.55,54.5,39.2,39.41,42.04,0,0,0,0,0,0,0,0,0,0,0,0,0,0,0,0,
368,48.1,57.72,23.74,39.33,19.44,54.5,61.48,23.98,23.57,29.69,12.8,39.18,40.1,28,29.65,26.52,0,0,0,0,0,0,0,0,0,0,0,0,0,0,0,0,
369,46.61,43,21.51,15.49,26.32,42.17,48.75,-1.089,-4.541,-3.542,9.154,36.57,34.25,24.46,25.55,25.16,0,0,0,0,0,0,0,0,0,0,0,0,0,0,0,0,
370,36.89,34.25,5.159,-0.6321,4.725,31.12,37.62,-20.81,-39.93,-11.98,-5.05,37.17,32.13,29.35,26.87,30.3,0,0,0,0,0,0,0,0,0,0,0,0,0,0,0,0,
371,29.88,22.81,-2.059,-0.4034,3.562,23.33,30.64,-15.75,-17.45,9.262,-8.23,31.81,26.58,24.62,23.67,27.62,0,0,0,0,0,0,0,0,0,0,0,0,0,0,0,0,
372,22.58,17.49,4.164,9.915,-2.289,21.37,29.1,-4.996,-0.8395,16.31,-3.391,20.48,16.6,11.8,17.58,14.67,0,0,0,0,0,0,0,0,0,0,0,0,0,0,0,0,
373,7.795,17.86,-8.551,7.428,-29.75,15.69,23.29,-11.09,-20.16,-2.88,-5.277,11.27,13.77,12.85,9.011,3.315,0,0,0,0,0,0,0,0,0,0,0,0,0,0,0,0,
374,0.8462,16.04,-16.3,-5.108,-24.97,8.249,17.54,-16.56,-15.85,5.781,0.6463,10.87,16.84,16.82,1.598,6.007,0,0,0,0,0,0,0,0,0,0,0,0,0,0,0,0,
375,5.791,16.04,4.157,-4.017,0.3076,10.18,19.95,-14.42,4.45,30.27,12.82,13.9,13.25,6.317,1.725,12.41,0,0,0,0,0,0,0,0,0,0,0,0,0,0,0,0,
376,3.181,12.73,5.612,3.93,-1.277,13.68,21.4,-17.19,11.41,3.513,10.56,9.651,5.003,-0.3251,-0.5998,5.229,0,0,0,0,0,0,0,0,0,0,0,0,0,0,0,0,
377,-2.407,-2.242,-4.682,6.573,-0.9185,11.18,19.57,-24.44,16.6,-33.25,5.427,3.331,0.8088,8.841,-10.8,-4.543,0,0,0,0,0,0,0,0,0,0,0,0,0,0,0,0,
378,-2.554,-13.53,9.264,8.546,8.782,7.957,15.55,-32.33,1.318,-22.35,-3.385,-3.875,-0.6616,18.17,-19.76,-1.257,0,0,0,0,0,0,0,0,0,0,0,0,0,0,0,0,
379,-17.57,-13.95,1.807,5.348,-10.61,0.1028,5.294,-28.9,-23.73,-9.804,-25.06,-23.51,-11.02,10.1,-30.77,-1.521,0,0,0,0,0,0,0,0,0,0,0,0,0,0,0,0,
380,-34.69,-19.16,-13.55,7.224,-17.37,-2.835,5.096,-14.72,-3.126,-10.04,-20.49,-38.2,-28.83,-10.26,-43.03,-20.18,0,0,0,0,0,0,0,0,0,0,0,0,0,0,0,0,
381,-19.43,-22.35,22.57,27.68,20.33,15.01,22.86,-12.43,39.91,5.583,13.76,-25.54,-32.33,-14.01,-39.21,-38.23,0,0,0,0,0,0,0,0,0,0,0,0,0,0,0,0,
382,8.636,-10.79,44.75,39.18,38.14,29.35,33.19,-10.81,60.45,11.22,38.26,-1.176,-24.54,-0.5776,-17.07,-37.87,0,0,0,0,0,0,0,0,0,0,0,0,0,0,0,0,
383,25.99,-4.762,34.47,40.16,50.48,30.65,34.59,4.626,86.97,8.19,72,20.56,-24.11,3.321,15.93,-22.6,0,0,0,0,0,0,0,0,0,0,0,0,0,0,0,0,
384,45.35,-6.158,62.54,61.06,92.05,45.6,47.69,13.21,119.4,23.02,112.5,40.59,-14.84,8.445,52.55,4.578,0,0,0,0,0,0,0,0,0,0,0,0,0,0,0,0,
385,61.36,6.552,56.76,63.16,65.5,56.22,54.38,12.89,106.7,18.88,103.8,48,0.0015,19.61,68.38,35.5,0,0,0,0,0,0,0,0,0,0,0,0,0,0,0,0,
386,56.46,6.04,-14.91,15.98,-11.6,33.16,31.79,-1.117,63.62,-16.84,61.73,28.04,-27.39,-6.132,46.59,39.46,0,0,0,0,0,0,0,0,0,0,0,0,0,0,0,0,
387,27.82,-37.96,-24.52,-20.74,-4.578,-2.31,-3.68,-44.98,37.65,-46.54,19.63,-21.64,-84.03,-61.2,-2.388,-2.386,0,0,0,0,0,0,0,0,0,0,0,0,0,0,0,0,
388,-18.05,-85.87,-5.505,-34.68,28.51,-28.99,-33.48,-78.95,16.39,-62.02,-34.02,-72.64,-106.9,-84.34,-60.49,-58.16,0,0,0,0,0,0,0,0,0,0,0,0,0,0,0,0,
389,-49.65,-100.3,-52.42,-63.94,12.21,-40.81,-48.17,-66.58,-7.758,-52.65,-62.83,-83.66,-100.9,-81.48,-98.78,-84.26,0,0,0,0,0,0,0,0,0,0,0,0,0,0,0,0,
390,-44.03,-93.69,-78.81,-83.12,11.14,-36.59,-44.92,-47.72,-7.73,-31.53,-42.88,-63.55,-99.88,-92.76,-95.71,-79.8,0,0,0,0,0,0,0,0,0,0,0,0,0,0,0,0,
391,-29.92,-81.57,-70.83,-84.58,6.948,-38.05,-45.79,-57.48,-3.103,-56.93,-31.16,-49.88,-92.03,-97.32,-73.24,-66.48,0,0,0,0,0,0,0,0,0,0,0,0,0,0,0,0,
392,-25.74,-73.24,-99.19,-95.59,-18.08,-47.48,-54.42,-66.71,-8.357,-83.93,-33.11,-38.42,-70.87,-71.14,-55.52,-51.78,0,0,0,0,0,0,0,0,0,0,0,0,0,0,0,0,
393,-9.404,-67.2,-102.5,-91.62,7.166,-37.35,-44.62,-53.69,17.19,-38.93,-14.01,-14.67,-50.62,-41.31,-34.55,-34.04,0,0,0,0,0,0,0,0,0,0,0,0,0,0,0,0,
394,14.29,-50.74,-61.22,-74.36,37.43,-19.11,-30.62,-51.59,44.9,-11.88,-12.13,-1.271,-38.28,-34.95,-14.73,-18.23,0,0,0,0,0,0,0,0,0,0,0,0,0,0,0,0,
395,17.7,-39.05,-49.14,-77.09,15.03,-21.59,-37.93,-65.4,14.03,-49.62,-33.7,-6.891,-37.29,-43.33,-14.12,-14.57,0,0,0,0,0,0,0,0,0,0,0,0,0,0,0,0,
396,10.3,-42.1,-56.04,-74.79,5.511,-25.88,-41.43,-54.28,-18.18,-42.77,-18.03,-0.4996,-30.29,-37.27,-19.45,-14.64,0,0,0,0,0,0,0,0,0,0,0,0,0,0,0,0,
397,18.69,-33.68,-57.22,-59.86,17.46,-12.3,-26.46,-34.04,0.5557,-5.425,13.7,22.99,-6.245,-12.75,-8.012,3.439,0,0,0,0,0,0,0,0,0,0,0,0,0,0,0,0,
398,38.81,-17.39,-61.95,-60.12,15.02,0.1331,-15.41,-36.72,17.05,-28.39,10.07,35.51,7.399,2.353,11.25,31.22,0,0,0,0,0,0,0,0,0,0,0,0,0,0,0,0,
399,47,-11.82,-56.23,-59.69,18.5,5.56,-9.927,-37.81,14.52,-48.14,3.246,37.66,10.1,4.223,20.23,44.02,0,0,0,0,0,0,0,0,0,0,0,0,0,0,0,0,
400,42.57,1.218,-53.31,-50.3,14.85,14.39,0.1648,-33.17,19.72,-19.94,13.46,47.26,23.83,3.716,23.98,43.2,0,0,0,0,0,0,0,0,0,0,0,0,0,0,0,0,
401,46.22,18.88,-63.76,-50.42,-6.871,18.33,4.61,-33,20.95,-7.632,24.73,61.95,34.66,-5.194,36.93,40.88,0,0,0,0,0,0,0,0,0,0,0,0,0,0,0,0,
402,55.72,20.96,-52.97,-50.09,7.83,16.87,2.571,-22.23,24.16,-8.558,53.35,75.27,35.85,-10.87,59.16,44.44,0,0,0,0,0,0,0,0,0,0,0,0,0,0,0,0,
403,56.49,22.19,-29.83,-44.81,52.6,19.29,4.97,-22.63,38.38,0.0547,80.97,78.97,32.1,-7.484,77.91,52.38,0,0,0,0,0,0,0,0,0,0,0,0,0,0,0,0,
404,49.9,19.38,-40.62,-54.5,49.96,10.01,-3.485,-48.92,30.28,-14.09,55.98,60.05,11.94,-15.27,78.1,45.91,0,0,0,0,0,0,0,0,0,0,0,0,0,0,0,0,
405,29.78,-3.155,-77.33,-77.36,1.174,-18.26,-32.62,-61.08,6.257,-35.31,9.319,29.89,-6.041,-20.47,54.54,22.26,0,0,0,0,0,0,0,0,0,0,0,0,0,0,0,0,
406,0.4644,-16.27,-96.07,-92.08,-27.38,-37.13,-51.23,-57.73,-5.461,-28.31,-2.773,14.61,-2.963,-12.71,23.48,1.248,0,0,0,0,0,0,0,0,0,0,0,0,0,0,0,0,
407,-7.128,-9.802,-93.4,-95.41,-29.1,-34.9,-47.75,-70.08,-24.72,-26.75,-2.279,10.84,-6.979,-24.38,2.575,-17.95,0,0,0,0,0,0,0,0,0,0,0,0,0,0,0,0,
408,3.581,-12.55,-95.94,-100.5,-28.77,-32.51,-46.62,-85.08,-40.06,-47.59,-11.53,1.456,-22.04,-41.56,-13.86,-40.61,0,0,0,0,0,0,0,0,0,0,0,0,0,0,0,0,
409,3.666,-20.61,-100.4,-108,-22.27,-34.27,-48.54,-83.08,-21.64,-42.78,-8.258,-6.164,-22.82,-31.03,-31.59,-48.74,0,0,0,0,0,0,0,0,0,0,0,0,0,0,0,0,
410,-3.062,-20.33,-97.58,-108.6,-23.13,-30.76,-44.88,-73.39,-8.775,-14,3.008,-3.526,-19.76,-24.28,-37.85,-36.29,0,0,0,0,0,0,0,0,0,0,0,0,0,0,0,0,
411,-5.447,-19.66,-102.6,-103.5,-41.62,-33.57,-48.81,-69.76,-18.49,-13.24,7.247,1.429,-20.69,-31.47,-24.6,-18.36,0,0,0,0,0,0,0,0,0,0,0,0,0,0,0,0,
412,-7.587,-15.27,-116.1,-105.7,-55.05,-48.12,-62.48,-75.97,-16.48,-24.89,17.07,10.36,-8.8,-20.41,0.7887,-4.893,0,0,0,0,0,0,0,0,0,0,0,0,0,0,0,0,
413,-7.315,-8.31,-123.4,-119.8,-63.87,-55.08,-69.83,-77.04,-10.45,-21.21,31.11,23.13,2.191,-8.882,23.54,-0.7596,0,0,0,0,0,0,0,0,0,0,0,0,0,0,0,0,
414,-0.2577,-12.56,-112.6,-123.6,-56.68,-48.54,-64.76,-62.57,-6.596,-26.64,40.62,28.42,-1.069,-10.61,34.26,-0.9299,0,0,0,0,0,0,0,0,0,0,0,0,0,0,0,0,
415,7.985,-16.26,-91.37,-110.4,-14.53,-39.3,-55.22,-54.65,10.54,-32.81,50.29,33.28,7.593,5.398,44.16,12.97,0,0,0,0,0,0,0,0,0,0,0,0,0,0,0,0,
416,12.3,-3.626,-91.92,-105.3,10.19,-27.22,-43.92,-59.15,20.58,-16.77,57.17,45.07,28.73,27.51,61.18,40.81,0,0,0,0,0,0,0,0,0,0,0,0,0,0,0,0,
417,20.68,12.59,-94.79,-97.67,-0.3818,-7,-23.74,-49.12,21.25,8.216,69.04,55.65,40.09,28.02,71.08,62.33,0,0,0,0,0,0,0,0,0,0,0,0,0,0,0,0,
418,40.14,24.97,-59.16,-72.81,10.32,15.75,-0.6273,-34.16,38.09,25.3,94.42,72.23,53.34,26.76,76.23,74.08,0,0,0,0,0,0,0,0,0,0,0,0,0,0,0,0,
419,61.7,41.78,-32.73,-64.88,37.56,30.29,12.43,-37.92,60.61,9.561,113.3,98.43,71.93,39.83,95.69,84.98,0,0,0,0,0,0,0,0,0,0,0,0,0,0,0,0,
420,78.39,55.26,-47.77,-70.3,47.85,36.24,18.46,-37.22,72.03,-12.73,121,114.6,77.04,55.18,121.4,94.02,0,0,0,0,0,0,0,0,0,0,0,0,0,0,0,0,
421,88.13,52,-55.64,-65,42.03,33.5,15.75,-29,74.48,15.82,127.1,115.1,69.83,52.9,134.3,96.19,0,0,0,0,0,0,0,0,0,0,0,0,0,0,0,0,
422,85.35,38.02,-50.7,-76.31,24.17,18.23,-0.3117,-41.83,72.44,29.84,125.9,112.9,58.08,33.26,133.9,88.91,0,0,0,0,0,0,0,0,0,0,0,0,0,0,0,0,
423,80.92,27.9,-47.94,-88.23,21.05,11.77,-6.388,-50.33,69.53,-12.67,122.3,113.4,52.72,32.95,124.9,80.08,0,0,0,0,0,0,0,0,0,0,0,0,0,0,0,0,
424,84.06,29.44,-32.69,-60.92,40.66,27.97,8.796,-28.9,58.19,-5.064,115.6,107.4,62.86,54.71,108.8,87.31,0,0,0,0,0,0,0,0,0,0,0,0,0,0,0,0,
425,76.41,38.82,-27.54,-39.12,46.43,36.76,17.14,-14.67,45.81,43.36,101.3,90.81,70.7,60.8,90.22,109,0,0,0,0,0,0,0,0,0,0,0,0,0,0,0,0,
426,60.29,43.42,-40.96,-48.96,31.93,28.63,10.05,-20.46,52.07,24.77,98.24,78.48,64.72,56.07,74.19,118.2,0,0,0,0,0,0,0,0,0,0,0,0,0,0,0,0,
427,56.01,35.51,-34.15,-50.28,17.47,21.91,3.896,-22.83,53.03,-7.676,89.81,69.17,52.31,53.12,59.4,98.2,0,0,0,0,0,0,0,0,0,0,0,0,0,0,0,0,
428,45.71,21.3,-20.02,-45.74,16.53,12.48,-3.864,-31.92,28.18,7.378,55.15,53.45,40.82,42.25,46,68.68,0,0,0,0,0,0,0,0,0,0,0,0,0,0,0,0,
429,26.3,14.95,-33.37,-54.3,19.75,4.507,-12.05,-51.44,14.7,6.573,50.5,57.85,45.02,40.78,50.68,64,0,0,0,0,0,0,0,0,0,0,0,0,0,0,0,0,
430,31.24,18.38,-50.21,-57.51,3.837,8.449,-9.869,-51.14,29.32,0.0978,88.3,83.49,59.38,53.82,78.42,82.44,0,0,0,0,0,0,0,0,0,0,0,0,0,0,0,0,
431,44.28,20.85,-43.56,-51.81,-0.9201,11.04,-6.333,-33.29,39.92,44.94,95.35,85.62,60.28,54.53,96.99,91.33,0,0,0,0,0,0,0,0,0,0,0,0,0,0,0,0,
432,38.37,23.64,-24.97,-47.76,24.93,14.11,-3.194,-27.48,40.5,65.2,74.83,70.35,53.52,42.39,86.37,81.79,0,0,0,0,0,0,0,0,0,0,0,0,0,0,0,0,
433,38.08,28.13,-17.23,-43.51,27.02,25.32,7.226,-34.32,45.37,3.855,74.31,66.2,46.35,31.32,64.94,68.03,0,0,0,0,0,0,0,0,0,0,0,0,0,0,0,0,
434,42.29,22.13,-28.31,-42.41,8.45,28.09,11.38,-40.78,40.41,-36.19,69.58,56.19,31.5,22.45,46.64,54.26,0,0,0,0,0,0,0,0,0,0,0,0,0,0,0,0,
435,35.62,12.42,-31.2,-42.64,18.19,21.23,5.068,-44.74,24.25,-11.11,52.1,43.79,22.47,19.7,33.99,41.77,0,0,0,0,0,0,0,0,0,0,0,0,0,0,0,0,
436,38.64,14.74,-17.7,-40.2,28.21,14.31,-2.955,-49.99,19.26,-4.061,50.2,46.01,24.97,21.64,31.41,36.21,0,0,0,0,0,0,0,0,0,0,0,0,0,0,0,0,
437,37.73,18.04,-31.61,-50.64,11.02,-0.3437,-17.51,-59.12,23.4,-11.52,50.3,39.8,21.72,17.93,30.3,34.51,0,0,0,0,0,0,0,0,0,0,0,0,0,0,0,0,
438,18.26,13.21,-61.85,-68.24,-0.8588,-13.61,-28.43,-60.16,31.12,7.814,49.84,30.93,18.47,16.38,26.04,31.76,0,0,0,0,0,0,0,0,0,0,0,0,0,0,0,0,
439,19.5,11.89,-50.87,-65.91,10.59,-9.673,-23.61,-47.4,41.84,7.226,61.23,44.2,27.06,28.16,30.68,33.31,0,0,0,0,0,0,0,0,0,0,0,0,0,0,0,0,
440,32.16,16.54,-24.63,-54.75,28.67,-5.309,-19.9,-38.23,44.52,-10.87,56.76,50.86,32.39,34.66,37.12,40.13,0,0,0,0,0,0,0,0,0,0,0,0,0,0,0,0,
441,24,20.49,-26.63,-51.68,28.7,-7.202,-19.36,-36.85,46.48,-1.373,43.86,40.51,32.91,29.67,29.16,42.35,0,0,0,0,0,0,0,0,0,0,0,0,0,0,0,0,
442,24.43,22.17,-37.46,-49.57,5.743,-3.48,-15.39,-38.72,40.22,4.985,47.64,35.32,35.36,34.21,14.18,36.5,0,0,0,0,0,0,0,0,0,0,0,0,0,0,0,0,
443,25.62,13.9,-46.52,-56.35,-9.698,-10.04,-24.35,-46.12,10.75,-2.025,32.62,21.1,22.73,38.29,0.3507,27.23,0,0,0,0,0,0,0,0,0,0,0,0,0,0,0,0,
444,-5.145,-5.329,-50.15,-68.3,4.492,-29.17,-40.26,-45.09,1.562,4.857,2.953,-0.0844,4.416,29.76,-7.067,20.71,0,0,0,0,0,0,0,0,0,0,0,0,0,0,0,0,
445,-31.42,-17.04,-47.8,-69.31,16.97,-40.11,-48,-36.78,15.49,5.95,-1.181,-10.38,2.638,22.75,-2.157,21.22,0,0,0,0,0,0,0,0,0,0,0,0,0,0,0,0,
446,-41.49,-19.68,-65.32,-73.96,-6.94,-54.27,-61.31,-42.19,-3.595,1.565,-3.845,-23.68,-1.911,8.81,-1.405,21.73,0,0,0,0,0,0,0,0,0,0,0,0,0,0,0,0,
447,-55.37,-26.51,-74.64,-75.01,-29.3,-67.34,-70.61,-43.98,-24.45,11.29,-12.4,-25.65,-12.26,-9.776,-9.367,16.54,0,0,0,0,0,0,0,0,0,0,0,0,0,0,0,0,
448,-50,-32.69,-40.29,-55.48,-7.437,-57.49,-59.5,-24.94,-8.617,-0.6124,-9.376,-11.26,-17.11,-12.71,-8.738,9.433,0,0,0,0,0,0,0,0,0,0,0,0,0,0,0,0,
449,-35.82,-39.49,-15.25,-45.02,14.78,-48.94,-51.59,-11.43,2.596,-37.7,-10.57,-17.22,-30.99,-13.98,-10.19,0.6029,0,0,0,0,0,0,0,0,0,0,0,0,0,0,0,0,
450,-36.81,-49.96,-22.65,-44.43,9.662,-49.89,-51.71,-13.12,4.276,-38.02,-8.91,-28.58,-40.57,-15.03,-21.04,-1.555,0,0,0,0,0,0,0,0,0,0,0,0,0,0,0,0,
451,-32.21,-48.75,-28.9,-33.54,10.03,-43.32,-46.46,-8.688,0.7514,-5.194,-14.05,-35.95,-39.01,-10.89,-29.57,5.63,0,0,0,0,0,0,0,0,0,0,0,0,0,0,0,0,
452,-33.59,-40.67,-33.01,-30.92,0.3667,-37.54,-39.92,3.331,-28.11,0.5839,-42.78,-59.69,-48.73,-24.63,-46.98,-3.478,0,0,0,0,0,0,0,0,0,0,0,0,0,0,0,0,
453,-41.39,-36.11,-23.65,-26.55,-20.9,-22.76,-22.26,3.001,-38.4,-12.59,-43.04,-57.13,-45.17,-32.74,-64.95,-24.67,0,0,0,0,0,0,0,0,0,0,0,0,0,0,0,0,
454,-24.04,-28.99,-8.633,-14.89,-4.444,-5.127,-4.958,-9.88,-9.404,-12.66,-22.87,-29.66,-24.4,-10.59,-55.6,-18.12,0,0,0,0,0,0,0,0,0,0,0,0,0,0,0,0,
455,-16.84,-33.64,-32.75,-30.57,6.527,-18.46,-17.38,-14.97,0.9143,-23.58,-33.22,-35.32,-32.2,-6.82,-35.88,6.166,0,0,0,0,0,0,0,0,0,0,0,0,0,0,0,0,
456,-31.08,-49.17,-46.62,-34.15,-32.08,-28.27,-24.7,-8.216,-20.69,-43.4,-36.11,-44.83,-50.18,-30.17,-26.75,9.069,0,0,0,0,0,0,0,0,0,0,0,0,0,0,0,0,
457,-22.01,-46.35,3.336,16.45,-42.96,-3.143,-0.0652,5.682,-45.2,-29.31,-32.63,-37.6,-44.24,-31.12,-27.16,-1.036,0,0,0,0,0,0,0,0,0,0,0,0,0,0,0,0,
458,-17.54,-36.71,41.09,50.64,-4.21,11.56,13.49,18.68,-52.88,-9.05,-55.99,-49.06,-37.03,-14.68,-41.51,0.5869,0,0,0,0,0,0,0,0,0,0,0,0,0,0,0,0,
459,-37.19,-42.78,29.61,32.3,14.47,2.034,4.814,8.636,-36.49,-25.51,-62.01,-61.65,-38.47,-12.75,-55.1,7.49,0,0,0,0,0,0,0,0,0,0,0,0,0,0,0,0,
460,-36.36,-47.33,26.81,19.21,3.825,2.108,6.487,-8.456,-24.52,-23.99,-49.24,-61.29,-37.06,-15.46,-53.84,8.457,0,0,0,0,0,0,0,0,0,0,0,0,0,0,0,0,
461,-20.47,-37.76,41.63,30.82,4.968,13.62,17.75,-0.9012,-19.23,19.39,-47.78,-65.18,-37.9,-12.62,-53.85,9.245,0,0,0,0,0,0,0,0,0,0,0,0,0,0,0,0,
462,-17.33,-32.24,48.18,33.42,24.02,9.877,11.84,-0.6802,-2.85,13.66,-41.18,-66.38,-50.58,-19.54,-58.13,8.09,0,0,0,0,0,0,0,0,0,0,0,0,0,0,0,0,
463,-25.58,-47.17,40.47,17,21.41,-14.25,-13.52,-21.89,-12.17,-48.35,-38.29,-66,-63.08,-29.8,-56.86,-5.076,0,0,0,0,0,0,0,0,0,0,0,0,0,0,0,0,
464,-40.99,-60.13,19.35,5.348,-5.672,-31.74,-29.59,-23.74,-33.67,-60.15,-40.87,-65.23,-51.3,-22.99,-51.51,-17.02,0,0,0,0,0,0,0,0,0,0,0,0,0,0,0,0,
465,-44.55,-47.54,8.438,7.287,-8.738,-31.18,-26.71,-15.2,-18.91,-27.4,-31.99,-57.06,-33.86,-13.73,-42.78,-10.39,0,0,0,0,0,0,0,0,0,0,0,0,0,0,0,0,
466,-30.42,-37.07,21.5,4.834,-6.951,-23.89,-20.66,-16.63,-14.56,-21.38,-26.76,-54.52,-38.65,-13.84,-36.88,2.99,0,0,0,0,0,0,0,0,0,0,0,0,0,0,0,0,
467,-21.94,-40.55,27.72,0.9114,-24.43,-15.23,-15.64,-8.216,-31.9,-14.12,-23.91,-57.77,-40.38,-11.57,-40.2,8.987,0,0,0,0,0,0,0,0,0,0,0,0,0,0,0,0,
468,-31.31,-36.35,8.01,1.558,-14.63,-25.86,-26.98,-11.21,-25.76,5.681,-32.03,-65.26,-35.97,-17.03,-48.51,5.776,0,0,0,0,0,0,0,0,0,0,0,0,0,0,0,0,
469,-57.17,-42.05,-17.68,-16.94,-8.675,-61.68,-60.95,-46.64,-33.37,-6.151,-59.92,-80.45,-46.64,-25.07,-60.35,-5.46,0,0,0,0,0,0,0,0,0,0,0,0,0,0,0,0,
470,-75,-60.32,-31.41,-45.5,-49.68,-80.48,-76.9,-67.31,-59.52,-29.59,-60.51,-76.3,-41.57,-10.31,-65.98,-5.789,0,0,0,0,0,0,0,0,0,0,0,0,0,0,0,0,
471,-62.32,-56.78,-39.37,-48.91,-66.49,-72.25,-66.2,-54.57,-54.37,-36.02,-51.26,-60.41,-22.93,-1.917,-56.43,13.43,0,0,0,0,0,0,0,0,0,0,0,0,0,0,0,0,
472,-49.76,-46.91,-49.4,-43.42,-52.52,-67.46,-61.09,-41.8,-53.4,-36.04,-85.8,-76.39,-37.59,-20.1,-54.2,19.75,0,0,0,0,0,0,0,0,0,0,0,0,0,0,0,0,
473,-61.55,-51.94,-53.95,-52.29,-67.11,-67.32,-61.09,-36.65,-80.41,-30.43,-117.4,-107.7,-60.78,-26.02,-75.38,-0.767,0,0,0,0,0,0,0,0,0,0,0,0,0,0,0,0,
474,-79.14,-54.92,-47.42,-53.48,-72.2,-67.14,-60.85,-35.36,-85.93,-25.45,-117.4,-119.9,-59.69,-19.85,-97.44,-17.89,0,0,0,0,0,0,0,0,0,0,0,0,0,0,0,0,
475,-86.85,-57.24,-31.8,-37.44,-43.9,-68.55,-61.06,-40.08,-65.92,-12.23,-113,-115.9,-58.27,-24.09,-98.64,-14.16,0,0,0,0,0,0,0,0,0,0,0,0,0,0,0,0,
476,-77.67,-59.64,-17.57,-27.63,-35.98,-61.65,-52.13,-39.63,-59.18,13.31,-100.1,-104.9,-63.81,-24.65,-82.29,1.961,0,0,0,0,0,0,0,0,0,0,0,0,0,0,0,0,
477,-64.69,-59.39,-21.86,-30.31,-46.19,-57.5,-48.33,-35.15,-68.92,-2.328,-90.37,-99.94,-72.48,-27.68,-63.82,16.54,0,0,0,0,0,0,0,0,0,0,0,0,0,0,0,0,
478,-63.78,-70.86,-28.63,-25.73,-43.16,-57.89,-48.81,-32.77,-64.59,-41.81,-87.7,-96.35,-78.22,-37.84,-54.31,21.4,0,0,0,0,0,0,0,0,0,0,0,0,0,0,0,0,
479,-54.65,-69.5,-15.87,-13.25,-49.85,-37.7,-28.71,-23.22,-47.68,-25.26,-73.63,-82.51,-61.8,-32.28,-55.25,23,0,0,0,0,0,0,0,0,0,0,0,0,0,0,0,0,
480,-48,-41.6,-14.33,-17.32,-63.82,-26.18,-18.63,-17.11,-54.19,-2.448,-80.15,-86.95,-52.22,-28.41,-68.39,16.48,0,0,0,0,0,0,0,0,0,0,0,0,0,0,0,0,
481,-74.2,-39.19,-29.5,-29.34,-44.58,-50.21,-38.91,-24.11,-65.65,-27.34,-100.8,-104.5,-71.66,-39.73,-85.27,-10.36,0,0,0,0,0,0,0,0,0,0,0,0,0,0,0,0,
482,-81.86,-54.17,-13.48,-15.22,-13.71,-47.8,-31.64,-18.3,-41.94,-21.84,-79.13,-83.04,-69.04,-36.3,-81.25,-31.31,0,0,0,0,0,0,0,0,0,0,0,0,0,0,0,0,
483,-32.08,-27.85,21.64,12.01,-5.153,-4.353,11.05,0.3823,-8.162,14.97,-42.42,-37.6,-36.2,-23.87,-53.48,-19.24,0,0,0,0,0,0,0,0,0,0,0,0,0,0,0,0,
484,12.21,4.568,29.01,22.44,3.774,12.45,26.74,2.363,5.3,2.223,-35.99,-17.82,-23.58,-24.89,-27.93,4.858,0,0,0,0,0,0,0,0,0,0,0,0,0,0,0,0,
485,10.99,-3.552,26.69,28.46,13.54,7.088,20.71,1.087,1.159,-20.34,-40.77,-20.43,-29.96,-30.73,-19.63,14.15,0,0,0,0,0,0,0,0,0,0,0,0,0,0,0,0,
486,-4.059,-7.666,41.8,40.03,4.203,18.59,32.09,16.82,-17.62,1.385,-36.9,-23.56,-28.48,-36.29,-21.41,6.649,0,0,0,0,0,0,0,0,0,0,0,0,0,0,0,0,
487,-12.51,11.35,54.82,44.22,-9.156,22.06,37.01,24.71,-32.21,11.69,-21.7,-20.92,-21.57,-36.12,-20.27,-3.682,0,0,0,0,0,0,0,0,0,0,0,0,0,0,0,0,
488,-17.85,10.07,45.7,40.85,-11.25,6.31,20.68,14.46,-22.04,-8.404,-11.76,-19.31,-15.94,-25.53,-13.66,0.5781,0,0,0,0,0,0,0,0,0,0,0,0,0,0,0,0,
489,-19.18,-8.127,27.56,32.87,3.902,-1.068,13.69,6.407,-5.707,-0.2771,-25.22,-23.14,-10.83,-15.52,-10.05,13.61,0,0,0,0,0,0,0,0,0,0,0,0,0,0,0,0,
490,-15.02,-8.532,31.29,23.03,16.71,1.922,17.64,3.052,-9.773,33.65,-37.75,-22.85,-7.336,-8.534,-9.572,18.08,0,0,0,0,0,0,0,0,0,0,0,0,0,0,0,0,
491,-14.85,-4.994,52.9,24.39,-6.422,4.614,17.72,4.236,-21.39,31,-32.93,-20.44,-10.48,-12.04,-6.705,16.49,0,0,0,0,0,0,0,0,0,0,0,0,0,0,0,0,
492,-23.72,-14.87,53.39,34.15,-23.6,9.402,20.74,12.67,-15.6,-7.941,-26.06,-19.8,-17.91,-30.46,-3.787,13.23,0,0,0,0,0,0,0,0,0,0,0,0,0,0,0,0,
493,-22.85,-16.59,38.76,39.82,4.38,13.96,24.34,12.06,-8.507,-24.18,-18.2,-12.84,-18.21,-37.12,-0.8216,4.992,0,0,0,0,0,0,0,0,0,0,0,0,0,0,0,0,
494,-7.653,-7.444,40.75,42.31,21.2,8.886,18.02,2.626,-20.23,-10.8,-10.31,-9.864,-13.4,-30.06,3.318,-1.4,0,0,0,0,0,0,0,0,0,0,0,0,0,0,0,0,
495,-4.162,-11.94,46.37,38.33,9.329,-4.724,5.39,-0.1775,-21.3,-8.236,-10.5,-16.43,-12.94,-30.03,3.612,1.744,0,0,0,0,0,0,0,0,0,0,0,0,0,0,0,0,
496,-12.64,-20.37,46.56,31.77,10.26,-10.56,-1.546,-0.0334,1.282,-8.249,-15.77,-17.71,-12.69,-23.28,-1.531,9.98,0,0,0,0,0,0,0,0,0,0,0,0,0,0,0,0,
497,-13.38,-7.95,49.5,38.4,13.47,-1.375,4.174,5.327,7.64,13.85,-22.78,-19.11,-9.189,-9.315,-12.52,14.51,0,0,0,0,0,0,0,0,0,0,0,0,0,0,0,0,
498,-11.09,5.529,43,45.49,8.345,7.917,11.71,14.69,-4.803,26.44,-28.14,-31.91,-13.13,-16.44,-30.39,7.886,0,0,0,0,0,0,0,0,0,0,0,0,0,0,0,0,
499,-12.49,-3.098,39.21,39.27,10.34,8.595,11.51,11.93,-7.08,12.34,-37.62,-50.85,-29.78,-36.65,-49.42,-12.15,0,0,0,0,0,0,0,0,0,0,0,0,0,0,0,0,
500,-17.6,-13.14,48.53,35.91,-3.113,3.968,6.845,8.871,-17.09,0.5831,-57.52,-64.45,-41.51,-42.48,-64.23,-34.92,0,0,0,0,0,0,0,0,0,0,0,0,0,0,0,0,
501,-25.12,-11.35,35.72,33.72,-27.7,-6.917,-2.955,9.736,-30.61,-7.31,-62.16,-57.28,-35.19,-37.65,-71.33,-45.13,0,0,0,0,0,0,0,0,0,0,0,0,0,0,0,0,
502,-15.15,-8.611,12.47,21.44,-11.03,-10.73,-5.589,-6.361,-7.949,-10.36,-42.63,-37.64,-24.58,-36.28,-65.94,-42.27,0,0,0,0,0,0,0,0,0,0,0,0,0,0,0,0,
503,15.48,-2.605,21.77,13.07,26.06,6.036,9.707,-18.3,14.18,8.207,-31.38,-27.24,-17.52,-31.82,-51.51,-35.24,0,0,0,0,0,0,0,0,0,0,0,0,0,0,0,0,
504,36.49,2.008,36.38,14.87,26.17,21.48,19.03,-7.945,1.633,16.38,-30.3,-20.41,-11.53,-21.64,-37.77,-29.72,0,0,0,0,0,0,0,0,0,0,0,0,0,0,0,0,
505,33.01,-7.676,25.82,15.08,13.88,19.16,10.73,-7.428,1.211,2.438,-19.7,-14.7,-10.78,-20.1,-29.47,-30.38,0,0,0,0,0,0,0,0,0,0,0,0,0,0,0,0,
506,16.01,-13.22,12.6,7.783,21.55,11.96,1.508,-20.15,15.68,8.54,-1.556,-6.638,1.174,-13.78,-16.47,-24.78,0,0,0,0,0,0,0,0,0,0,0,0,0,0,0,0,
507,12.78,2.724,12.95,-0.61,29.74,6.447,-2.373,-22.07,22.21,18.51,28,24.31,33.76,14.62,17.74,8.111,0,0,0,0,0,0,0,0,0,0,0,0,0,0,0,0,
508,36.56,20.19,20.08,0.719,29.91,5.374,-0.5315,-18,41.84,4.175,57.28,48.07,46.59,26.19,54.19,43.98,0,0,0,0,0,0,0,0,0,0,0,0,0,0,0,0,
509,51.03,21.59,19.62,8.7,26.17,11.92,6.751,-14.11,58.06,-1.64,53.75,32.81,27.41,3.712,53.03,40.01,0,0,0,0,0,0,0,0,0,0,0,0,0,0,0,0,
510,48.25,21.32,13.27,19.49,32.43,28.64,24.5,-5.419,55.14,5.963,32.32,25.14,22.92,-4.333,24.98,11.52,0,0,0,0,0,0,0,0,0,0,0,0,0,0,0,0,
511,68.13,38.31,29.18,37.7,61.41,64.78,60.77,8.344,62.78,14.35,22.3,37.43,40.57,10.48,6.921,-3.046,0,0,0,0,0,0,0,0,0,0,0,0,0,0,0,0,
512,89.69,59.38,63.65,51.24,78.74,98.21,89.03,22.83,69.32,30.27,16.45,27.98,44.28,16.99,0.5239,-4.548,0,0,0,0,0,0,0,0,0,0,0,0,0,0,0,0,
513,75.94,56.33,76.41,53.56,68.63,94.93,82.11,21.77,54.46,24.68,9.854,7.979,30.2,17.71,-3.78,-7.491,0,0,0,0,0,0,0,0,0,0,0,0,0,0,0,0,
514,53.07,33.89,63.11,56.58,56.88,73.82,61.73,0.5291,37.81,-0.8625,1.81,-5.536,14.98,12.42,-9.987,-13.77,0,0,0,0,0,0,0,0,0,0,0,0,0,0,0,0,
515,39.49,18.78,48.63,55.72,44.46,59.27,48.47,-14,39.52,7.789,4.728,-9.184,12.22,2.619,-14.04,-14.46,0,0,0,0,0,0,0,0,0,0,0,0,0,0,0,0,
516,41.33,20.66,43.97,47.11,54.24,46,37.5,-8.662,78.62,27,49.49,27.7,35.57,19.14,15,7.655,0,0,0,0,0,0,0,0,0,0,0,0,0,0,0,0,
517,71.88,34.86,54.6,43.57,107.8,42.53,34.24,-1.722,134.6,11.67,114.3,84.7,69.33,51.84,82.96,51.26,0,0,0,0,0,0,0,0,0,0,0,0,0,0,0,0,
518,102.5,51.65,74.12,51.7,139.7,58.01,48.2,3.494,147.8,6.06,153.5,110.1,85.05,67,141.3,91.72,0,0,0,0,0,0,0,0,0,0,0,0,0,0,0,0,
519,106.4,58.73,83.85,71.08,114.3,78.69,69.06,18.53,119.9,24.35,156.1,102.7,80.71,69.81,153.7,107.2,0,0,0,0,0,0,0,0,0,0,0,0,0,0,0,0,
520,94.15,54.33,84.46,87.2,87.89,86.96,76.3,26.54,91.48,21.11,104.5,61.31,54.45,49.91,114.5,80.27,0,0,0,0,0,0,0,0,0,0,0,0,0,0,0,0,
521,65.44,43.78,80.46,83.66,76.58,76.33,64.86,12.27,57.54,14.26,17.16,1.588,10.71,0.3767,37.52,16.38,0,0,0,0,0,0,0,0,0,0,0,0,0,0,0,0,
522,28.7,26.11,66.91,70.45,45.58,57.56,46.96,1.352,11.58,20.19,-32.22,-23.88,-15.41,-28.77,-28.71,-37.38,0,0,0,0,0,0,0,0,0,0,0,0,0,0,0,0,
523,11.24,6.578,55.5,57.84,11.58,40.71,30.45,2.029,-12.84,-3.304,-28.92,-18.05,-12.08,-21.68,-46.7,-47.81,0,0,0,0,0,0,0,0,0,0,0,0,0,0,0,0,
524,9.376,-2.039,47.73,45.49,9.833,21.82,13.28,-8.688,-3.48,-37.99,-14.3,-14.74,-8.352,-16.46,-29.42,-32.27,0,0,0,0,0,0,0,0,0,0,0,0,0,0,0,0,
525,4.029,-8.884,30.83,39.85,13.83,2.776,-3.032,-20.26,4.755,-39.5,-8.573,-17.01,-17.23,-19.67,-7.998,-19.77,0,0,0,0,0,0,0,0,0,0,0,0,0,0,0,0,
526,-1.234,-22.47,25.63,40.94,1.61,-0.5475,-3.55,-15.61,-1.385,-30.13,-7.909,-25.2,-19.78,-15.02,-6.221,-20.16,0,0,0,0,0,0,0,0,0,0,0,0,0,0,0,0,
527,3.002,-17.58,36.68,43.58,1.354,16.22,15.01,-7.56,-2.557,-20.48,-6.577,-30.18,-4.346,-2.703,-23.21,-23,0,0,0,0,0,0,0,0,0,0,0,0,0,0,0,0,
528,8.813,4.175,25.98,38.78,7.412,21.77,18.6,-0.0786,-4.781,-1.182,-20.57,-26.99,7.965,1.739,-37.07,-18.04,0,0,0,0,0,0,0,0,0,0,0,0,0,0,0,0,
529,0.5532,3.642,0.1878,12.77,-9.67,-4.253,-7.692,-1.959,-19.93,8.728,-45.99,-32.05,0.2917,-9.574,-40.93,-14.96,0,0,0,0,0,0,0,0,0,0,0,0,0,0,0,0,
530,-18,-16.12,-12.15,-15.34,-34.53,-27.25,-27.45,-26.07,-36.62,1.742,-45.88,-40.64,-14.81,-20.98,-39.1,-19.04,0,0,0,0,0,0,0,0,0,0,0,0,0,0,0,0,
531,-29.69,-32.76,-20.12,-12.57,-40.76,-26.24,-26.49,-43,-48.55,-22.02,-37.25,-45.81,-33.07,-31.07,-34.91,-20.43,0,0,0,0,0,0,0,0,0,0,0,0,0,0,0,0,
532,-35.19,-48.63,-18.56,5.125,-28.13,-22.87,-25.22,-35.39,-50.03,-50.88,-51.47,-55.02,-51.41,-44.97,-40.85,-21,0,0,0,0,0,0,0,0,0,0,0,0,0,0,0,0,
533,-41.37,-54.07,-1.877,7.792,-21.14,-25.88,-27.99,-31.77,-42.2,-47.49,-63.8,-57.39,-50.56,-40.38,-55.47,-25.52,0,0,0,0,0,0,0,0,0,0,0,0,0,0,0,0,
534,-42.49,-44.31,3.806,2.981,-34.33,-33.38,-33.26,-36.41,-51.54,-25.93,-64.54,-50.65,-36.76,-24.29,-59.17,-24.5,0,0,0,0,0,0,0,0,0,0,0,0,0,0,0,0,
535,-44.91,-34.44,-3.822,-1.599,-44.2,-42.2,-40.33,-35.01,-75.28,-29.91,-64.97,-49.63,-30.06,-24.86,-52.42,-14.04,0,0,0,0,0,0,0,0,0,0,0,0,0,0,0,0,
536,-61.61,-27.33,-17.43,-17.49,-42.97,-45.89,-43.57,-36.73,-79.14,-37.99,-63.55,-52.46,-27.55,-24.29,-50.04,-2.515,0,0,0,0,0,0,0,0,0,0,0,0,0,0,0,0,
537,-74.95,-27.04,-36.03,-32.63,-44.07,-46.73,-42.13,-41.42,-67.43,-16.59,-68.96,-51.26,-22.98,-14.17,-52.43,4.219,0,0,0,0,0,0,0,0,0,0,0,0,0,0,0,0,
538,-64.01,-28.11,-24.38,-17.04,-36.43,-32.24,-26.12,-33.12,-55.62,7.039,-74.89,-44.71,-16.74,-19.08,-54.29,4.388,0,0,0,0,0,0,0,0,0,0,0,0,0,0,0,0,
539,-46.03,-13.54,17.03,14.12,-19.3,-5.094,-2.111,-18.04,-41.32,-4.47,-69.52,-39.81,-13.47,-28.89,-56.24,-3.717,0,0,0,0,0,0,0,0,0,0,0,0,0,0,0,0,
540,-46.51,-4.267,25.08,17.07,-19.06,-8.657,-7.395,-18.58,-45.91,-24.59,-69.57,-47.47,-19.24,-26.22,-57.79,-17.49,0,0,0,0,0,0,0,0,0,0,0,0,0,0,0,0,
541,-61.45,-16.15,0.9836,2.858,-39.29,-37.84,-33.94,-31.94,-68.59,-15.31,-70.19,-55.35,-27.18,-24.72,-54.79,-26.58,0,0,0,0,0,0,0,0,0,0,0,0,0,0,0,0,
542,-69.31,-25.36,-0.6692,7.214,-46.06,-46.09,-40.04,-32.38,-66.01,-13.19,-49.06,-43.15,-28.8,-25.52,-42.69,-20.79,0,0,0,0,0,0,0,0,0,0,0,0,0,0,0,0,
543,-63.96,-29.22,12.91,14.26,-27.02,-34.64,-28.76,-20.33,-45.98,-29.01,-27.07,-25,-28.48,-26.84,-25.93,-5.797,0,0,0,0,0,0,0,0,0,0,0,0,0,0,0,0,
544,-53.61,-30.99,23.15,16.28,-17.69,-13.56,-7.256,-14.82,-40.08,-5.982,-31.93,-23.73,-30.5,-40.31,-23.8,-1.61,0,0,0,0,0,0,0,0,0,0,0,0,0,0,0,0,
545,-35.07,-14.93,49.79,40.74,-14.42,20.17,27.37,-9.546,-31.83,16.78,-45.29,-29.21,-31.12,-46.7,-44.12,-15.81,0,0,0,0,0,0,0,0,0,0,0,0,0,0,0,0,
546,-18.87,3.511,71.16,61.66,14.84,33.09,37.6,-0.1576,-18.75,-23.06,-49,-34.59,-34.02,-36.62,-66.45,-38.32,0,0,0,0,0,0,0,0,0,0,0,0,0,0,0,0,
547,-31.27,-2.964,54.94,45,30.8,11.88,15.01,2.891,-21.6,-41.84,-57.68,-49.44,-42.97,-39.92,-76.93,-59.9,0,0,0,0,0,0,0,0,0,0,0,0,0,0,0,0,
548,-42.78,-13.52,40.16,31.98,12.25,8.034,14.59,8.962,-28.81,1.746,-59.31,-48.07,-35.96,-42.28,-76.6,-66.19,0,0,0,0,0,0,0,0,0,0,0,0,0,0,0,0,
549,-17.66,1.692,48.64,43.24,12.4,32.18,38.53,17.25,-21.65,12.18,-31.49,-21,-17.63,-27.38,-60.63,-50.29,0,0,0,0,0,0,0,0,0,0,0,0,0,0,0,0,
550,-4.075,15.49,50.56,49.44,34.4,37.42,42.61,14.06,0.3056,-12.9,-11.57,-17.38,-26.62,-30.05,-39.92,-38.08,0,0,0,0,0,0,0,0,0,0,0,0,0,0,0,0,
551,-19.61,3.324,59.09,60.72,48.62,35.83,43.91,18.83,24.03,-2.162,-18.85,-30.25,-33.24,-33.26,-35.27,-40.81,0,0,0,0,0,0,0,0,0,0,0,0,0,0,0,0,
552,-6.406,0.9932,85.05,80.82,66.84,54.3,60.72,29.86,31.21,10.48,-15.32,-18.3,-8.361,-16.84,-40.11,-38.06,0,0,0,0,0,0,0,0,0,0,0,0,0,0,0,0,
553,15.88,12.47,90.55,72.41,79.16,54.8,56.39,18.79,25.2,1.778,-6.596,-17.21,-6.172,-25.26,-46.7,-37.67,0,0,0,0,0,0,0,0,0,0,0,0,0,0,0,0,
554,-6.017,6.909,74.4,47.23,59.7,33.03,33.2,13.69,15.25,20.23,-16.33,-38.7,-22.17,-40.16,-60.09,-52.58,0,0,0,0,0,0,0,0,0,0,0,0,0,0,0,0,
555,-32.26,5.989,54.42,40.45,30.5,23.97,24.79,32.45,-6.395,33.74,-23.33,-37.54,-12.71,-24.46,-65.85,-58.87,0,0,0,0,0,0,0,0,0,0,0,0,0,0,0,0,
556,-35.22,14.08,31.36,41.85,20.4,21.9,26.19,39.55,-21.84,7.43,-17.55,-26.19,-12.9,-18.48,-50.36,-49.56,0,0,0,0,0,0,0,0,0,0,0,0,0,0,0,0,
557,-38.7,7.065,32.52,50.06,28.64,29.93,38.16,45.43,2.007,8.158,-6.874,-29.21,-27.54,-27.18,-28.8,-47.22,0,0,0,0,0,0,0,0,0,0,0,0,0,0,0,0,
558,-31.38,11.38,57.03,70.76,44.64,52.5,61.89,65.91,37.89,33.9,0.481,-31.97,-20.56,-22.11,-20.19,-58.07,0,0,0,0,0,0,0,0,0,0,0,0,0,0,0,0,
559,-14.11,27.5,64,76.14,50.01,58.69,69.03,66.44,36.46,23.3,-12.7,-33.17,-11.13,-16.43,-27.38,-69.7,0,0,0,0,0,0,0,0,0,0,0,0,0,0,0,0,
560,-9.055,24.7,62.42,69.2,43.71,53.81,65.03,54.29,18.46,16.82,-25.67,-30.22,-9.599,-15.3,-37.84,-68.41,0,0,0,0,0,0,0,0,0,0,0,0,0,0,0,0,
561,1.616,25.18,70.61,77.05,51.07,57.82,69.38,55.11,25.35,37.21,-5.648,-14.81,-3.406,-15.28,-37.02,-55.57,0,0,0,0,0,0,0,0,0,0,0,0,0,0,0,0,
562,20.07,34.45,68.15,78.47,64,53.78,66.04,47.85,44.3,27.69,13.92,-1.218,-3.382,-20.92,-27.69,-48.34,0,0,0,0,0,0,0,0,0,0,0,0,0,0,0,0,
563,24.34,28.89,58.88,66.86,61.6,48.16,61.76,37.29,51.97,0.7033,1.093,0.1347,-9.57,-26.32,-22.67,-51.83,0,0,0,0,0,0,0,0,0,0,0,0,0,0,0,0,
564,24.44,25.84,64.63,77.48,62.11,59.83,75.05,49.93,47.07,1.712,-13.7,-6.089,-13.56,-32.47,-27.19,-59.51,0,0,0,0,0,0,0,0,0,0,0,0,0,0,0,0,
565,20.86,29.6,70.92,89.53,61.82,60.28,75.11,61.18,28.15,16.26,-13.45,-13.46,-16.27,-35.13,-35.14,-69.31,0,0,0,0,0,0,0,0,0,0,0,0,0,0,0,0,
566,-0.6056,14.42,50.04,59.4,38.68,25.41,40.05,44.98,3.315,19.77,-9.93,-13.91,-14.21,-23.18,-32,-72.25,0,0,0,0,0,0,0,0,0,0,0,0,0,0,0,0,
567,-16.74,-5.005,18.83,23.11,14.94,-7.3,9.487,27.86,-3.682,9.115,3.603,-5.125,-8.035,-9.067,-14.29,-58.94,0,0,0,0,0,0,0,0,0,0,0,0,0,0,0,0,
568,-10.56,3.575,17.43,26.78,8.975,-2.761,15.43,31.62,11.23,10.27,17.03,-0.0876,-6.643,-10.6,-3.057,-43.04,0,0,0,0,0,0,0,0,0,0,0,0,0,0,0,0,
569,-13.79,23.45,31.71,41.34,13.15,11.8,31.69,34.43,17.96,39.48,4.163,-14.45,-15.86,-27.54,-14.25,-44.49,0,0,0,0,0,0,0,0,0,0,0,0,0,0,0,0,
570,-35.08,23.95,34.38,41.55,22.3,16.95,38.75,29.02,5.304,48.39,-6.509,-29.38,-22.59,-37.25,-30.85,-56.64,0,0,0,0,0,0,0,0,0,0,0,0,0,0,0,0,
571,-30.15,22.3,46.84,52.55,32.03,30.44,51.02,37.26,8.061,18.76,13.94,-12.19,-10.07,-19.69,-26,-56.25,0,0,0,0,0,0,0,0,0,0,0,0,0,0,0,0,
572,2.951,31.99,64.45,66.4,49.66,39.81,58.19,44.09,27.75,1.722,22.11,14.9,5.757,1.557,-0.8209,-37.55,0,0,0,0,0,0,0,0,0,0,0,0,0,0,0,0,
573,17.8,29.47,62.27,54.99,59.06,36.71,54.34,28.39,26.52,7.53,4.038,18.07,11.29,4.589,18.85,-16.46,0,0,0,0,0,0,0,0,0,0,0,0,0,0,0,0,
574,21.89,27.01,59.66,46.28,32.53,49.17,66.78,25.92,19.69,20.11,7.697,15.62,17.11,4.563,18.3,-9.22,0,0,0,0,0,0,0,0,0,0,0,0,0,0,0,0,
575,37.72,40.93,52.5,50.94,17.28,61.58,78.08,46.02,24.46,37.4,19.3,16.73,10.45,-3.21,5.524,-19.18,0,0,0,0,0,0,0,0,0,0,0,0,0,0,0,0,
576,35.15,34.35,25.84,37.43,40.38,42.84,57.9,40.45,9.93,27.74,5.135,11,-11.24,-22.18,-5.43,-37.08,0,0,0,0,0,0,0,0,0,0,0,0,0,0,0,0,
577,15.61,13.68,23.5,31.57,44,26.1,42.41,20.41,0.0571,-3.487,9.219,16.37,-9.473,-16.36,-1.949,-47.4,0,0,0,0,0,0,0,0,0,0,0,0,0,0,0,0,
578,16.46,20.7,50.07,54.37,32.51,34.06,50.4,33.34,24.27,5.015,32.75,24.09,7.499,4.606,11.78,-43.59,0,0,0,0,0,0,0,0,0,0,0,0,0,0,0,0,
579,16.08,21.58,44.51,51.78,37.53,27.71,41.48,47.37,23.12,34.56,13.23,0.0793,-7.053,-5.708,8.682,-38.03,0,0,0,0,0,0,0,0,0,0,0,0,0,0,0,0,
580,-15.21,-11.13,4.574,18.63,21.54,-1.461,13.71,30.32,-9.179,17.99,-15.49,-26.51,-37.79,-27.93,-14.88,-43.53,0,0,0,0,0,0,0,0,0,0,0,0,0,0,0,0,
581,-37.94,-27.82,-13.8,11.96,-0.0218,-7.619,11.58,23.15,-6.11,-12.7,5.076,-19.09,-47.49,-33.61,-28.17,-55.23,0,0,0,0,0,0,0,0,0,0,0,0,0,0,0,0,
582,-22.76,-9.666,5.578,33.65,11.24,15.22,36.63,34.92,13.96,8.145,23.75,-7.175,-41.53,-36.4,-23.77,-63.45,0,0,0,0,0,0,0,0,0,0,0,0,0,0,0,0,
583,-12.84,9.49,22.82,44.39,7.143,22.24,45.09,34.15,6.544,41.68,4.043,-15.04,-31.21,-30.77,-22.56,-66.04,0,0,0,0,0,0,0,0,0,0,0,0,0,0,0,0,
584,-35.03,13.49,11.43,33.24,-12.05,7.004,32.05,28.96,-10.15,25.32,-7.701,-26.81,-22.56,-19.81,-29.77,-67.43,0,0,0,0,0,0,0,0,0,0,0,0,0,0,0,0,
585,-44.03,11.72,2.623,26.74,7.561,8.908,35.62,31.92,-14.71,-0.8395,1.567,-29.73,-23.52,-27.05,-36.43,-75.85,0,0,0,0,0,0,0,0,0,0,0,0,0,0,0,0,
586,-19.09,15.64,20.16,42.79,31.27,27.02,51.14,33.79,2.263,5.686,-4.104,-30.7,-35.32,-41.31,-42.92,-95.22,0,0,0,0,0,0,0,0,0,0,0,0,0,0,0,0,
587,-5.776,11.05,36.34,52.66,27.44,22.69,44.09,33.45,21.74,8.976,-23.91,-37.31,-52.75,-49.49,-53.2,-118.7,0,0,0,0,0,0,0,0,0,0,0,0,0,0,0,0,
588,-15.39,-8.861,33.88,45.2,18.73,8.584,31.42,34.05,5.496,9.381,-23.49,-35.05,-51.58,-46.86,-56.53,-126.3,0,0,0,0,0,0,0,0,0,0,0,0,0,0,0,0,
589,-15.13,-7.285,20.2,42.51,-5.876,12.66,34.66,34.66,-17.59,30.17,-7.414,-22.33,-29.59,-27.7,-44.31,-103.4,0,0,0,0,0,0,0,0,0,0,0,0,0,0,0,0,
590,-10.8,10.89,0.0506,30.09,-25.22,4.426,25.1,27.01,-3.895,38.63,-0.8185,-21.39,-23.83,-17.08,-31.48,-69.76,0,0,0,0,0,0,0,0,0,0,0,0,0,0,0,0,
591,-15.71,5.291,-5.878,9.579,4.561,-19.4,3.043,16.69,17.78,29.71,9.179,-17.28,-27.63,-19.75,-23.61,-51.09,0,0,0,0,0,0,0,0,0,0,0,0,0,0,0,0,
592,-9.856,-2.402,10.78,14.44,30.84,-15.34,6.01,22.16,16.25,17.18,25.61,4.069,-21.52,-18.56,-7.963,-44.87,0,0,0,0,0,0,0,0,0,0,0,0,0,0,0,0,
593,3.305,-0.7353,15.48,18.86,12.57,0.7536,20.79,23.04,5.748,-12.66,26.33,13.81,-29.55,-30.11,5.8,-49.81,0,0,0,0,0,0,0,0,0,0,0,0,0,0,0,0,
594,4.167,-14.01,-0.1803,9.668,1.009,1.6,22.92,11.02,6.229,-24.35,22.42,13.96,-36.41,-41.46,3.114,-62.68,0,0,0,0,0,0,0,0,0,0,0,0,0,0,0,0,
595,6.391,-8.502,0.2822,26.17,14.35,15.14,36.22,23.47,20.33,4.577,29.48,22.39,-12.54,-21.32,-1.605,-56.01,0,0,0,0,0,0,0,0,0,0,0,0,0,0,0,0,
596,18.28,31.28,20.81,42.05,26.86,39.74,59.87,39.07,37.44,22.39,37.27,21.21,7.669,1.202,2.712,-27.03,0,0,0,0,0,0,0,0,0,0,0,0,0,0,0,0,
597,20.74,49.26,28.38,23.93,31.99,39.85,58.46,22.01,37.4,21.88,34.02,5.283,1.664,3.183,1.114,-12.08,0,0,0,0,0,0,0,0,0,0,0,0,0,0,0,0,
598,10.38,39.24,16.21,13.33,24.36,27.64,45.39,16.59,7.738,37.27,13.64,-6.852,-2.451,5.756,-16.07,-21.21,0,0,0,0,0,0,0,0,0,0,0,0,0,0,0,0,
599,7.55,44.74,7.464,21.71,11.55,33.33,51.95,35.37,-12.45,52.51,-4.877,-1.986,11.65,13.53,-30.26,-27.35,0,0,0,0,0,0,0,0,0,0,0,0,0,0,0,0,
600,24.39,58.68,11.33,26.19,15.33,43.37,60.08,33.38,11.95,36.15,1.964,17.43,22.38,11.84,-22.61,-20.45,0,0,0,0,0,0,0,0,0,0,0,0,0,0,0,0,
601,43.35,47.23,17.72,29.65,22.4,38.21,52.14,19.59,26.83,5.582,18.14,26.41,9.858,0.9235,-4.445,-17.41,0,0,0,0,0,0,0,0,0,0,0,0,0,0,0,0,
602,40.41,19.47,20.55,23.49,12.13,29.1,42.09,22.05,4.617,-2.131,19.96,12.91,-4.627,-4.819,3.81,-25.87,0,0,0,0,0,0,0,0,0,0,0,0,0,0,0,0,
603,25.56,8.736,11.49,7.105,7.125,20.08,31.95,25.16,2.359,-0.4654,10.18,-0.4184,-2.065,-2.321,-2.478,-36.48,0,0,0,0,0,0,0,0,0,0,0,0,0,0,0,0,
604,22.93,18.51,-8.072,6.191,15.54,13.67,26.29,22.79,22.38,2.981,11.11,5.198,3.459,2.216,-14.66,-42.12,0,0,0,0,0,0,0,0,0,0,0,0,0,0,0,0,
605,30.5,29.16,-5.677,18.13,5.913,27.83,42.69,34.04,31.33,43.05,26.39,16.85,5.97,8.684,-19.04,-40.24,0,0,0,0,0,0,0,0,0,0,0,0,0,0,0,0,
606,32.85,30.15,20.33,28.23,-2.19,41.96,57.61,46.69,38.76,71.96,19.92,9.466,2.95,9.928,-18.17,-32.19,0,0,0,0,0,0,0,0,0,0,0,0,0,0,0,0,
607,22.39,20.47,25.29,36.76,25.28,27.71,43.12,31.23,34.48,33.62,-8.284,-11.63,-10.82,2.406,-27.36,-28.07,0,0,0,0,0,0,0,0,0,0,0,0,0,0,0,0,
608,2.323,8.878,11.2,38.35,38.55,14.38,30.62,13.08,14.23,7.533,-11.74,-18.35,-16.37,-1.684,-38.33,-30.85,0,0,0,0,0,0,0,0,0,0,0,0,0,0,0,0,
609,-8.455,10.28,11.92,35.38,16.65,21.78,40.7,29.62,15.31,28.55,3.28,-7.51,-2.79,0.5532,-31.7,-26.44,0,0,0,0,0,0,0,0,0,0,0,0,0,0,0,0,
610,2.579,20.88,19.25,38.18,11.09,26.45,44.9,44.82,26.29,16.17,-0.1233,1.354,6.117,0.9216,-13.42,-12.14,0,0,0,0,0,0,0,0,0,0,0,0,0,0,0,0,
611,12.77,18.45,20.46,41.49,12.16,18.1,33.86,23.76,12.16,-22.46,-9.287,-0.8835,-1.421,-3.231,0.9898,-6.376,0,0,0,0,0,0,0,0,0,0,0,0,0,0,0,0,
612,7.274,7.442,22.38,41.6,-1.011,11.49,28.87,9.049,-0.6237,-6.306,3.171,-0.0417,-0.1595,-2.258,11.18,-9.264,0,0,0,0,0,0,0,0,0,0,0,0,0,0,0,0,
613,12.67,18.19,23.19,45.26,6.45,19.71,37.97,24.6,9.035,38.15,21.48,11.69,15.77,7.958,17.92,-2.183,0,0,0,0,0,0,0,0,0,0,0,0,0,0,0,0,
614,29.34,33.11,19.14,44.6,26.32,25.11,41.11,25.21,18.4,25.63,16.78,14,17.58,11.43,11.78,8.587,0,0,0,0,0,0,0,0,0,0,0,0,0,0,0,0,
615,27.67,18.06,15.28,28.68,29.31,10.67,26.04,3.442,24.97,-7.175,4.967,9.386,15.48,13.79,-3.423,9.299,0,0,0,0,0,0,0,0,0,0,0,0,0,0,0,0,
616,22.23,10.45,24,18.55,23.07,4.447,18.12,6.786,26.74,12.44,12.07,19.15,33.69,31.06,-4.608,11.22,0,0,0,0,0,0,0,0,0,0,0,0,0,0,0,0,
617,24.46,28.81,37.15,31.22,12.87,10.61,22,26.43,4.132,27.81,24.41,23.43,43.46,39.82,12.27,17.18,0,0,0,0,0,0,0,0,0,0,0,0,0,0,0,0,
618,9.071,24.92,19.8,38.46,8.254,-2.272,10.57,19.5,-12.64,10.68,28.12,10.72,33.39,30.13,25.29,10.35,0,0,0,0,0,0,0,0,0,0,0,0,0,0,0,0,
619,-7.465,9.775,-14.43,24.35,2.919,-14.6,1.047,8.009,6.488,22.09,27.65,7.444,29.48,22.48,25.22,-7.962,0,0,0,0,0,0,0,0,0,0,0,0,0,0,0,0,
620,1.446,23.18,-15.08,10.6,-19.87,2.756,19.08,20.04,19.61,41.87,28.9,15.67,31.82,21.8,22.8,-17.08,0,0,0,0,0,0,0,0,0,0,0,0,0,0,0,0,
621,15.77,45.65,7.582,10.15,-15.23,29.6,44.75,32.31,12.57,41.45,34.71,21.91,38.14,34.2,24.24,-7.147,0,0,0,0,0,0,0,0,0,0,0,0,0,0,0,0,
622,24.19,65.83,14.59,26.47,25,44.73,60.49,36.51,15.88,38.76,28.9,25.69,47.17,50.9,24.72,9.55,0,0,0,0,0,0,0,0,0,0,0,0,0,0,0,0,
623,26.93,79.03,5.376,46.77,28.56,40.54,58.03,39.15,14.44,20.18,9.312,23.74,42.23,46.46,19.75,16.65,0,0,0,0,0,0,0,0,0,0,0,0,0,0,0,0,
624,17.04,62.49,-4.034,40.51,8.164,19.59,36.53,25.5,4.044,14.81,0.9135,15.73,31.94,38.16,10.94,14.32,0,0,0,0,0,0,0,0,0,0,0,0,0,0,0,0,
625,8.021,37.39,-3.818,18.23,15.41,2.71,19.44,2.465,14.14,32.2,1.43,7.797,28.46,39.82,1.495,7.989,0,0,0,0,0,0,0,0,0,0,0,0,0,0,0,0,
626,10.67,30.18,2.236,10.41,16.25,-2.656,13.96,-3.229,22.78,20.5,-0.1325,5.321,24.82,31.71,-4.619,-2.277,0,0,0,0,0,0,0,0,0,0,0,0,0,0,0,0,
627,14.12,30.97,-1.463,6.499,-2.323,-6.363,8.756,1.411,6.244,26.56,-2.296,7.114,29.93,27.43,-3.98,-7.635,0,0,0,0,0,0,0,0,0,0,0,0,0,0,0,0,
628,10.09,35.56,-20.01,-5.505,-12.28,-14.79,0.5341,-4.727,-9.069,56.92,-11.28,2.917,37.93,37.87,-2.442,0.0808,0,0,0,0,0,0,0,0,0,0,0,0,0,0,0,0,
629,2.589,26.49,-34.67,-10.68,-20.11,-29.39,-14.49,-12.61,-13.69,17.17,-15.25,-6.393,23.26,37.56,-9.969,9.215,0,0,0,0,0,0,0,0,0,0,0,0,0,0,0,0,
630,-2.125,-5.409,-25.55,-1.863,-27.95,-36.83,-23.51,-8.121,-15.26,-27.92,-14.15,-14.92,2.417,29.29,-25.25,8.591,0,0,0,0,0,0,0,0,0,0,0,0,0,0,0,0,
631,-14.24,-20.47,-13.37,9.88,-37.11,-29.52,-14.88,-3.425,-16.73,-6.163,-36.05,-30.33,-4.226,20.93,-38.87,1.313,0,0,0,0,0,0,0,0,0,0,0,0,0,0,0,0,
632,-37.74,-15.01,-21.65,12.15,-49.45,-28.18,-10.93,-2.486,-36.37,-4.497,-60.42,-50.97,-16.7,0.3762,-46.66,-12.74,0,0,0,0,0,0,0,0,0,0,0,0,0,0,0,0,
633,-51.96,-20.8,-27.72,6.899,-39.78,-36.66,-17.63,7.957,-61.72,-7.18,-54.13,-60.88,-30.04,-8.047,-48.09,-30.32,0,0,0,0,0,0,0,0,0,0,0,0,0,0,0,0,
634,-49.08,-19.59,-26.05,4.573,-30.51,-34.13,-14.35,13.2,-51.31,37.77,-42.43,-55.81,-21.35,5.362,-42.54,-36.13,0,0,0,0,0,0,0,0,0,0,0,0,0,0,0,0,
635,-34.32,-3.283,-33.67,2.808,-53.15,-26.63,-6.979,-1.627,-27.62,37.99,-51.48,-51.41,-15.29,-2.699,-40.17,-32.23,0,0,0,0,0,0,0,0,0,0,0,0,0,0,0,0,
636,-18.75,-4.623,-35.55,-7.116,-54.15,-30.38,-11.21,-12.17,-35.11,-11.27,-66.04,-55.24,-25,-19.86,-51.49,-34.51,0,0,0,0,0,0,0,0,0,0,0,0,0,0,0,0,
637,-19.08,-15.55,-30.92,-16.98,-21.51,-35.21,-17.44,-9.412,-45.82,-15.18,-58.39,-45.17,-18.02,-3.438,-60.55,-36.6,0,0,0,0,0,0,0,0,0,0,0,0,0,0,0,0,
638,-19.79,-10.86,-31.74,-15.82,-21.35,-31.91,-13.99,-8.71,-37.15,4.329,-35.27,-22.46,-0.1316,8.913,-51.2,-28.44,0,0,0,0,0,0,0,0,0,0,0,0,0,0,0,0,
639,-8.401,-3.161,-25.21,-17.17,-41.11,-26.39,-7.792,-7.271,-38.61,-3.526,-34.99,-21.86,-1.324,-9.651,-40.79,-21.16,0,0,0,0,0,0,0,0,0,0,0,0,0,0,0,0,
640,-3.85,-5.155,-21.74,-26.79,-31.89,-24.69,-8.782,-9.047,-44.79,-22.68,-53.13,-30.59,-8.371,-18.18,-43.67,-23.41,0,0,0,0,0,0,0,0,0,0,0,0,0,0,0,0,
641,-2.406,-12.02,-31.38,-22.62,-28.21,-32.59,-18.75,-22.84,-37.33,-29.61,-52.97,-20.27,-10.87,-17.4,-46.11,-31.59,0,0,0,0,0,0,0,0,0,0,0,0,0,0,0,0,
642,-4.17,-20.83,-34.44,-9.792,-52.35,-46.6,-32.95,-30.66,-36.76,-15.25,-38.98,-14.84,-24.4,-33.23,-40.46,-40.82,0,0,0,0,0,0,0,0,0,0,0,0,0,0,0,0,
643,-23.2,-32.11,-38.56,-12.09,-56.97,-51.73,-38.5,-23.15,-41.8,-9.802,-35.92,-27.07,-40.62,-41.74,-35.76,-46.11,0,0,0,0,0,0,0,0,0,0,0,0,0,0,0,0,
644,-37.39,-38.64,-43.79,-14.23,-42.64,-42.65,-28.39,-8.966,-42.87,-26.61,-43.86,-36.4,-39.85,-33.11,-35,-47.46,0,0,0,0,0,0,0,0,0,0,0,0,0,0,0,0,
645,-34.96,-24.44,-25.66,-2.596,-43.62,-26.65,-12.47,7.217,-52.72,-19.9,-46.95,-39.88,-31.92,-34.42,-37.22,-47.93,0,0,0,0,0,0,0,0,0,0,0,0,0,0,0,0,
646,-30.63,-3.969,-12.71,-0.8777,-36.71,-17.23,-5.142,9.766,-55.48,-9.602,-47.88,-44.21,-35.13,-41.44,-47.89,-46.32,0,0,0,0,0,0,0,0,0,0,0,0,0,0,0,0,
647,-28.68,-14.26,-33.2,-17.28,-30.93,-25.9,-14.84,-3.166,-48.43,-33.07,-59.93,-49.52,-44.23,-36.23,-60.04,-42.02,0,0,0,0,0,0,0,0,0,0,0,0,0,0,0,0,
648,-36.91,-39.39,-44.33,-23.39,-52.32,-40.27,-29.31,-5.191,-55.85,-31.48,-63.92,-54.04,-48.96,-33.59,-55.31,-36.64,0,0,0,0,0,0,0,0,0,0,0,0,0,0,0,0,
649,-45.94,-44.08,-22.95,-5.983,-42.84,-40.61,-29.19,-2.622,-54.01,-11.63,-56.33,-58.71,-55.78,-44.41,-47.74,-35.27,0,0,0,0,0,0,0,0,0,0,0,0,0,0,0,0,
650,-40.75,-43.5,-10.76,2.352,-24.07,-35.13,-24.44,-19.59,-39.53,-43.63,-66.32,-65.73,-61.65,-52.05,-66.82,-45.13,0,0,0,0,0,0,0,0,0,0,0,0,0,0,0,0,
651,-38.1,-44,-23.42,-13.52,-68.39,-33.57,-24.87,-31.9,-45.78,-68.98,-68.25,-58.13,-44.24,-43.13,-88.82,-53.44,0,0,0,0,0,0,0,0,0,0,0,0,0,0,0,0,
652,-31.17,-25.95,-20.35,-13.09,-72.02,-24.73,-17.32,-15.38,-37.6,-31.51,-40.88,-29.29,-11.55,-27.27,-72.8,-36.69,0,0,0,0,0,0,0,0,0,0,0,0,0,0,0,0,
653,-7.885,-10.03,7.198,14.16,5.391,-11.85,-6.08,3.141,-5.398,-6.207,-31.91,-16.13,-8.004,-32.05,-41.81,-10.57,0,0,0,0,0,0,0,0,0,0,0,0,0,0,0,0,
654,-4.317,-20.78,16.34,28.7,15.93,-9.678,-2.992,5.592,-14.61,-23.66,-42.16,-29,-35.61,-57.78,-38.86,-11.89,0,0,0,0,0,0,0,0,0,0,0,0,0,0,0,0,
655,-21.19,-32.95,5.644,27.19,-31.07,-10.72,-1.078,8.769,-43.9,-25.53,-34.95,-32.31,-47.62,-64.1,-52.82,-31.57,0,0,0,0,0,0,0,0,0,0,0,0,0,0,0,0,
656,-19.15,-27.77,11.23,28.85,-24.86,-8.918,0.4979,12.19,-31.04,-5.634,-26.58,-24.23,-39.8,-46.05,-53.93,-34.28,0,0,0,0,0,0,0,0,0,0,0,0,0,0,0,0,
657,-10.62,-24.59,20.2,24.57,-4.692,-12.58,-2.788,2.374,-7.51,-8.863,-24.89,-22.25,-37.14,-34.17,-41.21,-15.78,0,0,0,0,0,0,0,0,0,0,0,0,0,0,0,0,
658,-17.04,-28.14,6.858,16.52,-11.71,-13.38,-2.349,-4.761,-3.652,-34.31,-12.3,-15.54,-26.93,-27.21,-22.79,9.745,0,0,0,0,0,0,0,0,0,0,0,0,0,0,0,0,
659,-14.38,-15.68,1.649,27.55,-7.035,3.587,14.06,6.253,3.572,-38.55,9.086,2.856,-0.0712,-12.83,0.5273,35.55,0,0,0,0,0,0,0,0,0,0,0,0,0,0,0,0,
660,15.66,20.75,35.17,55.84,22.98,35.3,47.05,20.36,24.83,-11.74,43.85,33.85,32.02,11.13,32.01,60.87,0,0,0,0,0,0,0,0,0,0,0,0,0,0,0,0,
661,58.52,58.39,73.42,74.49,57.48,60.27,70.89,27.66,56.76,15.49,84.67,71.67,61.03,35.26,71.52,85.42,0,0,0,0,0,0,0,0,0,0,0,0,0,0,0,0,
662,80.3,61.97,65.79,62.67,63.22,50.48,56.07,27.42,70.45,33.99,85.41,75.24,60.66,32.68,91.14,95.4,0,0,0,0,0,0,0,0,0,0,0,0,0,0,0,0,
663,58.64,29.24,25.54,32.73,30.01,14.87,19.17,7.992,29.81,42.27,33.96,33.33,27.02,9.997,58.17,73.87,0,0,0,0,0,0,0,0,0,0,0,0,0,0,0,0,
664,20.25,-2.924,3.292,15.74,-19.12,-9.922,-5.549,-25.23,-30.06,2.952,-22.25,-4.942,-2.679,-6.651,-4.187,32.49,0,0,0,0,0,0,0,0,0,0,0,0,0,0,0,0,
665,-4.246,-24.21,-3.782,4.671,-59.33,-23.81,-21.45,-44.53,-59.28,-64.62,-51.03,-21.34,-14.52,-17.57,-46.54,0.5895,0,0,0,0,0,0,0,0,0,0,0,0,0,0,0,0,
666,-21.77,-35.31,-24.29,-17.39,-61.96,-35.43,-33.28,-38.65,-67.61,-68.13,-58.28,-28.33,-8.991,-12.69,-59.03,-7.338,0,0,0,0,0,0,0,0,0,0,0,0,0,0,0,0,
667,-27.64,-20.9,-38.1,-23.91,-37.81,-34.76,-30.89,-25.47,-62.39,-30.46,-52.05,-24.91,0.0896,-2.975,-56.56,-2.339,0,0,0,0,0,0,0,0,0,0,0,0,0,0,0,0,
668,-23.08,-20.28,-29.4,-12.75,-36.56,-33.83,-28.79,-27.05,-48.45,-39.08,-45.64,-28.48,-18.45,-21.03,-51.48,-5.069,0,0,0,0,0,0,0,0,0,0,0,0,0,0,0,0,
669,-34.61,-50.24,-17.54,-11.81,-44.23,-31.9,-26.16,-35.53,-47.04,-42.05,-46.57,-39.18,-33.73,-29.38,-47.64,-11.31,0,0,0,0,0,0,0,0,0,0,0,0,0,0,0,0,
670,-35.78,-37.95,-4.087,-7.269,-24.34,-9.527,-3.272,-32.45,-33.81,-7.139,-30.97,-23.39,-13.26,-3.732,-32.62,-2.303,0,0,0,0,0,0,0,0,0,0,0,0,0,0,0,0,
671,-5.304,-0.9588,0.8823,-1.438,-13.49,1.024,5.075,-31.52,-3.523,-18.93,-6.535,-4.942,-7.709,1.222,-8.81,10.34,0,0,0,0,0,0,0,0,0,0,0,0,0,0,0,0,
672,-0.1508,-13.06,-20.68,-18.58,-34.69,-20.62,-19.52,-41.28,-11.22,-53.06,-18.62,-20.58,-23.45,-14.43,-5.116,6.526,0,0,0,0,0,0,0,0,0,0,0,0,0,0,0,0,
673,-18.66,-23.95,-31.16,-25.22,-38.14,-24.73,-23.13,-38.22,-35.03,-34.11,-43.48,-29.81,-13.86,-8.448,-21.33,0.0618,0,0,0,0,0,0,0,0,0,0,0,0,0,0,0,0,T1
674,-5.225,-4.778,-5.728,-3.243,-8.903,0.0879,0.0271,-19.86,-24.66,-14.28,-36.58,-15.18,-4.729,-3.12,-29.04,4.185,0,0,0,0,0,0,0,0,0,0,0,0,0,0,0,0,
675,6.767,-7.402,12.69,10.47,1.036,11.13,7.255,-12.14,-22.45,-31.73,-29.25,-16.51,-16.48,-14.36,-27.39,1.688,0,0,0,0,0,0,0,0,0,0,0,0,0,0,0,0,
676,-9.361,-11.26,7.763,8.027,-16.39,5.891,3.118,-21.95,-33.08,-36.64,-31.34,-19.6,-7.881,-9.389,-25.13,-10.57,0,0,0,0,0,0,0,0,0,0,0,0,0,0,0,0,
677,-5.351,2.252,4.47,2.584,-19.82,2.255,0.2372,-26.58,-13.61,-12.04,-10.83,0.4238,10.56,7.873,-14.02,-7.741,0,0,0,0,0,0,0,0,0,0,0,0,0,0,0,0,
678,9.473,-7.131,-6.131,-4.534,-20.36,-5.803,-9.877,-17.09,-7.235,3.032,3.267,4.406,-3.223,2.096,-2.173,7.174,0,0,0,0,0,0,0,0,0,0,0,0,0,0,0,0,
679,-9.585,-30.26,-37.35,-11.91,-46.36,-21.69,-24.88,-18.18,-36.3,-16.07,-12.74,-16.11,-28.56,-17.35,-5.125,2.334,0,0,0,0,0,0,0,0,0,0,0,0,0,0,0,0,
680,-37.06,-41.81,-52.62,-18.55,-69.8,-37.27,-37.49,-25.41,-43.95,-41.28,-14.15,-19.72,-34.27,-20.49,-9.759,-19.53,0,0,0,0,0,0,0,0,0,0,0,0,0,0,0,0,
681,-37.53,-46.35,-32.87,-19.93,-63.31,-41.07,-38.15,-13.3,-24.39,-42.2,12.36,-3.736,-25.72,-11.64,-0.7902,-24.91,0,0,0,0,0,0,0,0,0,0,0,0,0,0,0,0,
682,-18.55,-34.98,-18.56,-16.86,-36.41,-24.92,-20.2,-6.715,-3.624,-23.14,29.01,10.19,-9.746,-4.609,14,-9.617,0,0,0,0,0,0,0,0,0,0,0,0,0,0,0,0,
683,3.23,-9.784,-24.09,-11.24,-18.04,-0.6755,3.49,-15.4,7.888,-0.4026,18.75,11.69,3.083,1.246,20.02,1.665,0,0,0,0,0,0,0,0,0,0,0,0,0,0,0,0,
684,7.428,0.9955,-29.34,-8.248,-34.6,7.244,10.03,-12.85,-10.71,-7.556,-3.51,-4.405,-1.331,6.382,11.41,2.78,0,0,0,0,0,0,0,0,0,0,0,0,0,0,0,0,
685,-12.08,-11.14,-36.85,-28.72,-50.69,-7.001,-6.351,-15.11,-32.42,-30.46,-15.29,-19.17,-9.313,10.46,1.442,8.35,0,0,0,0,0,0,0,0,0,0,0,0,0,0,0,0,
686,-22.83,-21.7,-36.04,-47.89,-25.25,-20.44,-20.21,-21.62,-18.92,-3.982,-13.12,-15.81,-4.841,10.95,2.763,17.04,0,0,0,0,0,0,0,0,0,0,0,0,0,0,0,0,
687,-10.91,-13.99,-23.84,-28.7,-7.109,-18.17,-17.47,-8.857,-9.021,21.18,-14.77,-16.19,-2.255,3.154,-0.4143,12.66,0,0,0,0,0,0,0,0,0,0,0,0,0,0,0,0,
688,-6.167,-8.737,-29.81,-16,-17.62,-16.82,-18.18,-12.27,-20.37,-22.39,-23.93,-30.74,-11.66,-5.603,-18.14,-3.384,0,0,0,0,0,0,0,0,0,0,0,0,0,0,0,0,
689,-15.58,-17.53,-33.24,-31.75,-12.08,-22.96,-25.42,-38.06,-21.46,-46.51,-23.59,-36.86,-17.65,-3.689,-31.22,-15.18,0,0,0,0,0,0,0,0,0,0,0,0,0,0,0,0,
690,-23.68,-22.83,-20.84,-40.26,-17.1,-30.19,-33.51,-40.4,-23.19,-19.59,-14,-32.8,-14.74,6.045,-31.69,-18.97,0,0,0,0,0,0,0,0,0,0,0,0,0,0,0,0,
691,-32.61,-28.11,-34.45,-47.96,-52.85,-42.76,-46.93,-24.64,-30.23,-13.14,-19.45,-36.04,-15.13,10.91,-30.37,-23.16,0,0,0,0,0,0,0,0,0,0,0,0,0,0,0,0,
692,-33.22,-32.99,-44.62,-45.37,-60.44,-38.8,-40.19,-8.443,-24.57,-6.513,-36.46,-38.2,-16.36,5.653,-28.61,-30.88,0,0,0,0,0,0,0,0,0,0,0,0,0,0,0,0,
693,-19.51,-14.78,-17.89,-18.12,-43.1,-7.98,-8.457,5.314,-20.42,11.15,-26.94,-24.38,-9.47,-2.588,-20.11,-34.13,0,0,0,0,0,0,0,0,0,0,0,0,0,0,0,0,
694,-12.57,9.851,-2.832,-7.621,-29.09,8.877,8.687,4.457,-7.344,8.751,14.84,2.874,6.251,2.705,3.78,-20.15,0,0,0,0,0,0,0,0,0,0,0,0,0,0,0,0,
695,3.759,24.63,6.197,0.4947,-4.067,19.11,22.66,12.04,28.75,27.03,58.5,39.3,33.73,30.7,46.06,13.77,0,0,0,0,0,0,0,0,0,0,0,0,0,0,0,0,
696,47.77,49.13,29.42,26.2,2.642,48.52,51.24,36.38,46.84,39.74,82.93,62.29,52.87,52.55,81.26,45.21,0,0,0,0,0,0,0,0,0,0,0,0,0,0,0,0,
697,67.04,61.65,27.39,20.78,-5.611,55.43,55.83,39.15,46.34,-0.2106,83.59,57.63,46.32,43.64,83.76,51.15,0,0,0,0,0,0,0,0,0,0,0,0,0,0,0,0,
698,56.63,50.46,22.55,14.38,16.91,47.6,50.4,29.42,62.59,-3.806,83.74,68.89,51.55,39.04,74.67,47.9,0,0,0,0,0,0,0,0,0,0,0,0,0,0,0,0,
699,79.25,58.1,47.2,43.52,40.12,66.93,68.12,26.51,84.23,27.14,101.5,99.88,68.8,50.24,80.15,56.72,0,0,0,0,0,0,0,0,0,0,0,0,0,0,0,0,
700,104.7,59.96,58.1,42.7,53.57,65.2,60.38,11.52,95.78,5.521,101,90.89,47.5,37.52,84.19,61.51,0,0,0,0,0,0,0,0,0,0,0,0,0,0,0,0,
701,80.85,24.05,38.05,10.42,53.06,29.71,23.15,2.583,83.25,-4.98,72.46,61.97,18.3,14.77,74.21,52.43,0,0,0,0,0,0,0,0,0,0,0,0,0,0,0,0,
702,58.03,9.851,12.71,-3.022,3.908,21.73,16.2,14.56,53.82,17.25,65.57,61.7,20.82,11.94,65.47,45.48,0,0,0,0,0,0,0,0,0,0,0,0,0,0,0,0,
703,57.38,19.51,10.12,1.678,-9.197,26.66,19.64,23.14,51.97,6.317,76.78,61.95,20.93,13.68,64.31,47.64,0,0,0,0,0,0,0,0,0,0,0,0,0,0,0,0,
704,44.95,12.9,14.48,14.26,15.02,12.04,4.849,33.78,40.96,17.89,69.06,62.58,33.11,30.04,72.63,64.56,0,0,0,0,0,0,0,0,0,0,0,0,0,0,0,0,
705,43.75,31.18,-34.78,-5.123,-50.44,9.022,7.44,35.56,-5.094,52.71,64.44,86.36,75.48,58.65,95.53,94.82,0,0,0,0,0,0,0,0,0,0,0,0,0,0,0,0,
706,64.42,65.91,-69.88,-42.62,-78.03,21.06,22.92,3.245,6.072,23.04,67.16,89.1,79.38,47.65,108.7,102,0,0,0,0,0,0,0,0,0,0,0,0,0,0,0,0,
707,64.55,55.11,5.73,-10.82,31.09,19.87,18.92,-11.46,49.37,-9.953,43.93,59.6,41.92,13.42,83.55,67.67,0,0,0,0,0,0,0,0,0,0,0,0,0,0,0,0,
708,48.61,32.59,66.83,32.99,71.91,11.47,8.787,12.92,31.88,8.885,25.55,48.8,38.09,14.69,42.63,32.31,0,0,0,0,0,0,0,0,0,0,0,0,0,0,0,0,
709,49.99,41.38,39.38,13.01,38.47,17.09,14.44,10.94,30.09,10.32,44.32,60.03,63.48,37.11,28.55,33.19,0,0,0,0,0,0,0,0,0,0,0,0,0,0,0,0,
710,64.8,60.94,47.79,12.72,77.96,36.18,32.5,-15.6,76.15,-2.213,61.06,70.58,76.75,51.86,47.25,61.06,0,0,0,0,0,0,0,0,0,0,0,0,0,0,0,0,
711,78.85,73.76,78.18,31.04,103.7,47.47,42.04,-18.44,80.81,14.93,58.65,80.05,78.23,59.93,75.36,86.64,0,0,0,0,0,0,0,0,0,0,0,0,0,0,0,0,
712,82.68,66.21,47.22,2.286,64.61,39.53,31.86,-17.75,54.59,23.99,51.84,78.26,70.33,51.04,87.35,87.48,0,0,0,0,0,0,0,0,0,0,0,0,0,0,0,0,
713,67.91,44.06,17.68,-16.93,45.14,25.28,16.28,-26.87,39.15,1.775,38.53,64.88,59.77,36.27,74.37,66.26,0,0,0,0,0,0,0,0,0,0,0,0,0,0,0,0,
714,48.95,40.06,15.35,-7.42,44.81,19.12,9.323,-15.23,30.28,-4.127,35.29,64.52,64.54,48.07,56.92,49.97,0,0,0,0,0,0,0,0,0,0,0,0,0,0,0,0,
715,48.24,55.75,14.04,-3.104,35.72,25.46,15.88,8.583,38.74,26.4,54.05,77.37,78.69,72.17,59.89,55.03,0,0,0,0,0,0,0,0,0,0,0,0,0,0,0,0,
716,52.34,65.25,28.08,5.898,20.94,28.28,18.94,5.319,38.66,35.81,67.53,77.99,77.88,70.29,75.67,67.4,0,0,0,0,0,0,0,0,0,0,0,0,0,0,0,0,
717,31.42,51.48,16.24,-11.96,16.01,3.405,-8.646,-30.41,15.42,1.19,62.11,64.21,57.08,45.86,79.03,65.77,0,0,0,0,0,0,0,0,0,0,0,0,0,0,0,0,
718,6.491,30.03,-28.83,-52.33,41.78,-21.62,-32.95,-60.03,21.57,-11.66,58.66,66.83,47.66,36.56,73.68,57.05,0,0,0,0,0,0,0,0,0,0,0,0,0,0,0,0,
719,23.07,36,-23.76,-42.55,66.16,-4.871,-12.32,-45.08,57.83,19.06,72.02,93.75,64.46,54.17,86.3,67.44,0,0,0,0,0,0,0,0,0,0,0,0,0,0,0,0,
720,54.01,50.38,9.632,-17.49,61.49,16.33,6.936,-9.997,67.18,32.36,76.51,101.6,68.02,62.1,107.1,88.14,0,0,0,0,0,0,0,0,0,0,0,0,0,0,0,0,
721,42.97,36.59,-7.109,-34.74,51.4,2.543,-8.923,-7.401,44.5,4.882,53.37,80.48,53.12,47.52,99.45,85.67,0,0,0,0,0,0,0,0,0,0,0,0,0,0,0,0,
722,17.68,26.17,-33.8,-44.31,43.46,-5.913,-16.17,-27.71,32.77,-14.24,37.48,71.74,61.62,42.52,69.22,67.96,0,0,0,0,0,0,0,0,0,0,0,0,0,0,0,0,
723,19.92,38.88,-26.8,-30.9,38.92,6.399,-5.125,-39.64,36.1,1.21,35.5,65.86,75.65,45.28,47.14,61.59,0,0,0,0,0,0,0,0,0,0,0,0,0,0,0,0,
724,17.49,38.09,-24.23,-39.04,43.26,0.4234,-12.58,-47.06,19.02,7.264,20.8,41.03,62.93,40.87,38.52,59.78,0,0,0,0,0,0,0,0,0,0,0,0,0,0,0,0,
725,-3.782,20.81,-34.69,-60.32,39.57,-20.08,-34.1,-44.89,-1.681,-9.555,11.07,29.73,50,44.72,38.32,51.83,0,0,0,0,0,0,0,0,0,0,0,0,0,0,0,0,
726,-13.81,10.33,-37.72,-67.97,26.52,-29.12,-44.98,-35.43,2.262,-6.974,7.82,31.01,43.02,44,35.36,39.65,0,0,0,0,0,0,0,0,0,0,0,0,0,0,0,0,
727,-17.23,1.804,-44.01,-62.61,26.07,-31.36,-48.05,-44.41,1.995,-3.356,-7.291,16.71,22.76,22.17,18.46,19.93,0,0,0,0,0,0,0,0,0,0,0,0,0,0,0,0,
728,-23.39,-9.647,-49.19,-51.98,32.27,-31.23,-48.64,-55.91,1.026,-30.67,-11.03,2.697,3.692,7.67,2.457,-2.582,0,0,0,0,0,0,0,0,0,0,0,0,0,0,0,0,
729,-23.08,-19.5,-40.47,-55.64,16.65,-31.07,-49.53,-51.7,14.99,-42.11,-4.247,-0.1711,-1.338,9.323,0.5251,-13.78,0,0,0,0,0,0,0,0,0,0,0,0,0,0,0,0,
730,-23.03,-26.44,-44.41,-75.46,-2.03,-36.82,-58.28,-57.53,9.065,-22.2,-2.354,6.232,2.853,12.76,9.518,-9.389,0,0,0,0,0,0,0,0,0,0,0,0,0,0,0,0,
731,-19.6,-25.24,-66.33,-81.14,14.63,-39.74,-64.82,-69.18,-4.067,-20.78,9.494,25.31,10.35,20.56,28.82,2.686,0,0,0,0,0,0,0,0,0,0,0,0,0,0,0,0,
732,-11.11,-20.67,-70.57,-71.87,25.78,-36.13,-60.26,-63.78,6.396,-32.04,19.4,38.58,12.92,28.52,45.62,10.48,0,0,0,0,0,0,0,0,0,0,0,0,0,0,0,0,
733,-12.36,-16.71,-55.96,-68.5,2.471,-32.52,-54.65,-53.69,13.26,-8.76,24.49,47.59,23.8,36.35,52.35,16.18,0,0,0,0,0,0,0,0,0,0,0,0,0,0,0,0,
734,-2.116,2.555,-43.55,-64.74,4.862,-24.94,-46.74,-48.31,12.52,24.52,46.19,71.55,55.53,52.4,65.69,34.07,0,0,0,0,0,0,0,0,0,0,0,0,0,0,0,0,
735,28.25,30.84,-35.7,-57.33,22.57,-13.62,-34.55,-46.42,16.4,11.37,56.62,86.35,78.6,61.33,81.89,59.82,0,0,0,0,0,0,0,0,0,0,0,0,0,0,0,0,
736,37.67,37.5,-40.97,-53.74,-0.6197,-8.879,-31.04,-47.34,14.85,-22,45.1,78.29,74.4,59.12,85.59,74.3,0,0,0,0,0,0,0,0,0,0,0,0,0,0,0,0,
737,25.16,26.57,-53.45,-50,-11.68,-10.13,-35.13,-40.12,15.03,-23.92,53.55,76.79,66.48,65.82,89.36,70.92,0,0,0,0,0,0,0,0,0,0,0,0,0,0,0,0,
738,22.51,25.61,-38.13,-45.39,18.96,-6.817,-32.62,-28.48,20.33,-3.972,77.72,88.29,64.48,71.88,101.3,57.11,0,0,0,0,0,0,0,0,0,0,0,0,0,0,0,0,
739,31.98,33.24,-3.932,-36.99,35.28,3.34,-20.94,-25.58,31.94,13.74,84.77,94.44,54.77,60.38,110.3,47.24,0,0,0,0,0,0,0,0,0,0,0,0,0,0,0,0,
740,44.04,26.17,-1.615,-28.78,33.65,7.431,-15.97,-28.85,48.75,10.3,75.91,88.22,40.31,49.39,109.3,51.59,0,0,0,0,0,0,0,0,0,0,0,0,0,0,0,0,
741,46,8.507,-27.39,-38.98,26.31,1.345,-24.66,-34.57,40.41,-2.779,66.17,74.71,35.68,51.39,94.45,61.34,0,0,0,0,0,0,0,0,0,0,0,0,0,0,0,0,
742,40.09,12.23,-30.44,-49.3,13.52,4.926,-22.99,-38.71,27.73,16.61,72.25,68.57,42.1,54.46,74.01,61.84,0,0,0,0,0,0,0,0,0,0,0,0,0,0,0,0,
743,47.55,32.1,-6.478,-38.9,29.47,19.38,-8.664,-40.83,56.33,19.49,88.79,75.86,50.11,52.86,67.18,54.31,0,0,0,0,0,0,0,0,0,0,0,0,0,0,0,0,
744,59.47,35.58,3.724,-37.17,51.29,20.77,-9.771,-47.69,78.94,-34.14,86.27,84.47,54.57,49.13,72.31,47.5,0,0,0,0,0,0,0,0,0,0,0,0,0,0,0,0,
745,57.93,35.46,-14.49,-47.35,31.86,15.55,-16.42,-49.71,62.98,-41.24,78.13,90.55,61.27,49.45,77.69,46.76,0,0,0,0,0,0,0,0,0,0,0,0,0,0,0,0,
746,54.74,50.82,-39.64,-44.27,12.51,22.83,-7.445,-42.5,60.09,4.284,91.82,100.3,72.98,57.85,87.69,57.83,0,0,0,0,0,0,0,0,0,0,0,0,0,0,0,0,
747,59.79,59.84,-46,-43.44,15.75,29.22,1.606,-43.2,70.06,-4.951,95.82,107.8,77.38,61.36,100.1,76.44,0,0,0,0,0,0,0,0,0,0,0,0,0,0,0,0,
748,66.17,56.04,-32.84,-51.7,6.323,24.41,-0.0913,-49.81,56.53,-24.3,76.02,106,72.5,57.77,101.1,84.68,0,0,0,0,0,0,0,0,0,0,0,0,0,0,0,0,
749,69.12,58.16,-26.54,-48.72,4.58,23.78,0.4109,-46.61,52.02,9.581,75.07,107.7,79.27,68.91,95.77,83.94,0,0,0,0,0,0,0,0,0,0,0,0,0,0,0,0,
750,79.77,69.26,-31.55,-41.55,33.26,34.47,11.38,-35.29,73.61,31.88,90.48,118.4,96.65,87.96,97.14,95.2,0,0,0,0,0,0,0,0,0,0,0,0,0,0,0,0,
751,96.15,75.99,-30.3,-43.07,40.5,40.15,16.89,-24.22,69.4,22.08,84.71,115.1,94.76,84.19,97.56,109,0,0,0,0,0,0,0,0,0,0,0,0,0,0,0,0,
752,85.31,65.83,-31.03,-47.43,7.614,24.75,-0.5338,-18.3,40.95,6.543,70.15,94.13,76.96,68.73,90.52,98.5,0,0,0,0,0,0,0,0,0,0,0,0,0,0,0,0,
753,53.74,47.89,-42.15,-53.19,-8.862,-2.053,-25.89,-22.6,34,-18.22,60.63,81.37,69.55,67.19,82.92,75.91,0,0,0,0,0,0,0,0,0,0,0,0,0,0,0,0,
754,38.17,37.13,-54.42,-61.38,-0.9361,-21.59,-41.16,-36.34,24.74,-29.27,43.17,69.71,61.03,61.18,69.19,65.35,0,0,0,0,0,0,0,0,0,0,0,0,0,0,0,0,
755,27.7,25.8,-61.4,-62.58,-7.649,-27.82,-45.33,-40.31,7.078,-16.61,42.93,55.74,46.58,42.49,48.72,63.64,0,0,0,0,0,0,0,0,0,0,0,0,0,0,0,0,
756,22.68,19.08,-49.69,-50.47,-14.08,-18.53,-34.89,-23.93,27.67,-5.379,76.18,72.25,56.16,43.1,49.52,70.33,0,0,0,0,0,0,0,0,0,0,0,0,0,0,0,0,
757,42.37,37.06,-33.71,-38.82,-10.7,-3.114,-19.18,-14.7,47.29,11.89,87.6,97.09,78.35,59.49,76.21,88.06,0,0,0,0,0,0,0,0,0,0,0,0,0,0,0,0,
758,48.69,61.37,-50.84,-40.06,-16.7,0.1291,-15.59,-20.3,22.66,29.53,57.55,86.62,78.71,61.84,92.72,101.7,0,0,0,0,0,0,0,0,0,0,0,0,0,0,0,0,
759,27.92,59.36,-72.5,-44.62,-9.46,-8.585,-23.44,-14.07,13.17,16.6,41.58,71.84,64.26,56.26,86.14,103.7,0,0,0,0,0,0,0,0,0,0,0,0,0,0,0,0,
760,25.36,38.13,-55.38,-42.68,-2.901,-16.8,-31.83,-4.915,28.53,-5.987,49.37,72.67,44.88,47.45,73.22,95.69,0,0,0,0,0,0,0,0,0,0,0,0,0,0,0,0,
761,33.12,24.18,-34.37,-37.17,-32.91,-19.84,-34.56,-9.72,14.74,-18.11,44.66,60.78,25.1,28.78,61.27,75.77,0,0,0,0,0,0,0,0,0,0,0,0,0,0,0,0,
762,13.06,16.79,-48.35,-43.21,-44.23,-29.98,-45.32,-13.22,-15.98,-33.21,28.75,37.72,15.85,17.11,51.56,55.76,0,0,0,0,0,0,0,0,0,0,0,0,0,0,0,0,
763,-16.59,-1.258,-75.64,-65.41,-19.25,-49.17,-63.2,-7.285,-26.22,-22.74,13.91,19.14,6.454,17.46,41.78,46.85,0,0,0,0,0,0,0,0,0,0,0,0,0,0,0,0,
764,-18.07,-12.33,-75.01,-64.03,-10.71,-38.45,-46.68,8.816,-11.21,18.98,1.233,11.43,0.827,17.12,28.21,43.65,0,0,0,0,0,0,0,0,0,0,0,0,0,0,0,0,
765,7.178,8.58,-40.03,-24.28,1.933,5.637,-2.629,20.82,12.26,19.85,2.977,19.88,17.32,21.47,21.79,47.68,0,0,0,0,0,0,0,0,0,0,0,0,0,0,0,0,
766,27,27.54,-12.83,-3.8,24.08,23.97,11.36,3.251,17.99,-22.18,18.22,31.05,34.74,30.91,29.57,61.95,0,0,0,0,0,0,0,0,0,0,0,0,0,0,0,0,
767,30.69,18.43,-11.56,-14.76,14.39,19.42,7.149,-13.29,11.47,-24.87,24.54,39.28,41.2,32.16,40.69,76.76,0,0,0,0,0,0,0,0,0,0,0,0,0,0,0,0,
768,39.94,25.63,-0.3434,-5.634,14.66,42.06,28.93,6.857,11.64,10.4,16.54,53.39,52.1,30.17,48.29,86,0,0,0,0,0,0,0,0,0,0,0,0,0,0,0,0,
769,52.86,55.77,17.78,13.5,46.33,64.09,48.02,24.19,11.58,20.04,8.846,59.23,54.17,34.75,50.54,87.03,0,0,0,0,0,0,0,0,0,0,0,0,0,0,0,0,
770,44.14,51.68,4.899,-0.0181,44.28,41.45,25.51,12.98,12.44,7.354,4.068,46.14,38.64,33.55,40.79,75.19,0,0,0,0,0,0,0,0,0,0,0,0,0,0,0,0,
771,24.18,18.98,-21.68,-25.18,13.03,5.626,-8.963,5.647,12.14,4.685,3.372,32.52,24.26,21.41,23.8,59.54,0,0,0,0,0,0,0,0,0,0,0,0,0,0,0,0,
772,15.41,-0.1417,-28.23,-28.39,5.607,-5.635,-19.74,8.297,-6.796,-0.5535,17.79,27.93,13.21,17.6,20.34,58.67,0,0,0,0,0,0,0,0,0,0,0,0,0,0,0,0,
773,2.976,-16.43,-19.87,-20.83,8.627,-2.621,-17.35,0.5077,-26.32,-27.9,27.03,19.56,0.719,21.09,33.07,69.44,0,0,0,0,0,0,0,0,0,0,0,0,0,0,0,0,
774,-17.81,-29.23,-9.091,-15.65,2.501,0.9739,-12.69,-4.244,-24.43,-48.8,9.13,8.592,-6.693,14.43,36.33,68.45,0,0,0,0,0,0,0,0,0,0,0,0,0,0,0,0,
775,-20.48,-19.71,-4.823,-7.113,2.112,6.576,-4.813,11.49,-16.88,-23.11,-5.16,10.83,-10.15,5.283,22.85,53.96,0,0,0,0,0,0,0,0,0,0,0,0,0,0,0,0,
776,-9.379,-12.47,-4.731,-0.6971,8.628,10.17,-1.567,25.7,-10.44,14.32,1.667,18.49,-15.02,-3.186,14.96,44.69,0,0,0,0,0,0,0,0,0,0,0,0,0,0,0,0,
777,-2.554,-18.62,5.686,0.4747,19.85,14.03,2.556,25.2,0.3747,7.323,12.97,21.6,-15.51,-15.55,20.63,41.73,0,0,0,0,0,0,0,0,0,0,0,0,0,0,0,0,
778,10.41,-16.03,19.47,15.48,38.77,28.1,16.58,32.77,13.23,-9.605,24.12,28.62,-4.178,-16.24,28.56,39.09,0,0,0,0,0,0,0,0,0,0,0,0,0,0,0,0,
779,23.65,-1.691,33.74,42.2,51.06,44.39,29.6,51.65,28.02,-4.565,22.82,29.86,10.04,-12.11,30.7,38.87,0,0,0,0,0,0,0,0,0,0,0,0,0,0,0,0,
780,22.74,16.64,50.62,47.87,51.49,46.77,30.69,57.78,29.92,-13.35,13.64,20.85,12.92,-18.17,25.88,36.37,0,0,0,0,0,0,0,0,0,0,0,0,0,0,0,0,
781,23.71,22.13,36.1,26.82,49.12,32.62,17.16,46.7,13.56,-19.29,23.74,23.78,12.66,-8.306,21.17,34.47,0,0,0,0,0,0,0,0,0,0,0,0,0,0,0,0,
782,30.07,9.951,0.3287,8.971,43.52,16.86,1.774,38.53,10.1,9.094,33.75,35.11,22.24,16.24,21.03,44.49,0,0,0,0,0,0,0,0,0,0,0,0,0,0,0,0,
783,27.8,10.49,2.709,11.59,37.64,16.76,1.972,42.58,19.18,25.39,22.15,31.77,21.47,10.79,17.45,50.92,0,0,0,0,0,0,0,0,0,0,0,0,0,0,0,0,
784,18.54,15,24.46,23.07,30.38,23.95,7.527,41.09,11.95,9.677,5.476,11.07,-7.832,-18.21,3.374,31.46,0,0,0,0,0,0,0,0,0,0,0,0,0,0,0,0,
785,4.996,-6.111,28.96,29.43,22.33,25.29,7.607,32.86,2.553,-1.813,-12.13,-12.2,-36.19,-32.44,-17.3,-0.7052,0,0,0,0,0,0,0,0,0,0,0,0,0,0,0,0,
786,-6.959,-19.75,35.27,31.04,31.6,22.86,5.529,41.79,4.73,1.118,-23.48,-21.03,-41.4,-38.25,-29.5,-21.6,0,0,0,0,0,0,0,0,0,0,0,0,0,0,0,0,
787,-9.891,-11.34,29.05,33.19,46.58,14.5,-1.415,56.24,9.034,8.04,-13.04,-15.6,-40.84,-42.26,-19.89,-23.12,0,0,0,0,0,0,0,0,0,0,0,0,0,0,0,0,
788,-5.496,-13.09,9.762,40.16,47.45,13.94,-0.0648,55.6,26.15,10.9,10.71,-4.182,-36.41,-25.95,2.095,-0.5361,0,0,0,0,0,0,0,0,0,0,0,0,0,0,0,0,
789,9.595,-13.77,29.51,47.37,49.47,30.12,13.6,51.83,34.17,3.768,19.8,-0.0301,-27.77,-12.37,11.48,32.33,0,0,0,0,0,0,0,0,0,0,0,0,0,0,0,0,
790,16.16,-2.113,54.44,38.19,41.71,29.09,10.12,39.91,-2.676,-11.05,-7.37,-19.7,-29.54,-22.82,-2.851,42.42,0,0,0,0,0,0,0,0,0,0,0,0,0,0,0,0,
791,-5.498,-0.7356,27.84,18.49,16.47,13.19,-3.021,20.36,-26.86,-12.14,-32.87,-32.12,-21.91,-15.64,-21.78,32.41,0,0,0,0,0,0,0,0,0,0,0,0,0,0,0,0,
792,-12.04,-0.3732,6.544,15.82,17.92,20.77,4.188,23.3,2.507,15.12,-14.7,-9.096,2.282,9.053,-21.95,28.94,0,0,0,0,0,0,0,0,0,0,0,0,0,0,0,0,
793,14.25,9.952,20.46,24.31,43.52,34.07,14.98,34.14,17.1,27.5,2.668,7.743,11.05,8.398,-11.79,25.65,0,0,0,0,0,0,0,0,0,0,0,0,0,0,0,0,
794,26.96,15.32,24.11,22.8,49.83,33.77,16.04,26.23,6.679,1.129,-1.73,6.79,11.92,3.541,-5.812,14.54,0,0,0,0,0,0,0,0,0,0,0,0,0,0,0,0,
795,25.13,14.85,24.67,18.83,42.78,33.76,16.28,18.83,19.23,-19.59,5.94,11.16,14.23,5.663,-0.5935,9.562,0,0,0,0,0,0,0,0,0,0,0,0,0,0,0,0,
796,23.06,3.24,24.58,11.89,35.85,24.57,5.619,11.92,22.84,-22.65,6.753,3.425,0.2512,-6.01,-1.08,12.92,0,0,0,0,0,0,0,0,0,0,0,0,0,0,0,0,
797,9.331,-16.58,3.335,-2.998,28.2,13.3,-5.867,-3.519,9.573,-15.69,-6.922,-5.108,-7.227,-5.661,-5.515,26.19,0,0,0,0,0,0,0,0,0,0,0,0,0,0,0,0,
798,7.857,-18.21,7.293,-0.7702,35.51,20.59,-0.0424,-6.169,18.05,-9.486,-6.012,6.289,-6.243,-4.029,2.781,46.59,0,0,0,0,0,0,0,0,0,0,0,0,0,0,0,0,
799,18.58,-16.83,37.56,17.66,49.15,23.5,-0.2273,-1.91,12.04,-29.08,-5.667,3.662,-30.79,-35.09,10.5,44.04,0,0,0,0,0,0,0,0,0,0,0,0,0,0,0,0,
800,9.769,-26.25,38.7,27.09,36.3,23.16,-1.649,-2.595,-13.34,-13.71,-9.131,-6.869,-52.79,-54.95,0.9289,10.32,0,0,0,0,0,0,0,0,0,0,0,0,0,0,0,0,
801,8.39,-14.92,38.68,38.86,8.725,42.46,18.26,7.083,-7.436,39.99,0.65,4.166,-56.3,-58.71,-9.52,-31.55,0,0,0,0,0,0,0,0,0,0,0,0,0,0,0,0,
802,21.29,-7.173,45.05,45.79,7.191,45.99,20.35,11.13,-1.401,3.873,0.5921,5.529,-73.11,-84.42,-20.13,-73.58,0,0,0,0,0,0,0,0,0,0,0,0,0,0,0,0,
803,11.95,-30.85,22.89,24.65,30.25,24.62,-1.931,-1.865,-8.828,-63.65,-9.294,-7.665,-71.33,-83.52,-39.37,-97.72,0,0,0,0,0,0,0,0,0,0,0,0,0,0,0,0,
804,2.32,-29.41,18.31,10.11,39.75,21.78,-4.375,-5.587,3.601,-33.58,-3.604,-4.068,-31.24,-39.04,-43.39,-73.41,0,0,0,0,0,0,0,0,0,0,0,0,0,0,0,0,
805,0.6637,-5.497,25.62,10.53,13.51,17.55,-10.37,-9.46,-7.934,0.1091,-7.797,-5.163,-12.02,-14.67,-27.13,-17.36,0,0,0,0,0,0,0,0,0,0,0,0,0,0,0,0,
806,-25.39,-15.16,-12.78,-9.129,-27.08,-8.035,-34.26,-25.52,-44.09,-12.55,-40.76,-25.06,-16.35,-8.152,-21.24,24.61,0,0,0,0,0,0,0,0,0,0,0,0,0,0,0,0,
807,-38.36,-23.11,-33.65,-20.11,-34.06,-8.085,-30.05,-28.59,-42.58,-8.028,-55.29,-26.04,-7.028,3.409,-26.74,30.7,0,0,0,0,0,0,0,0,0,0,0,0,0,0,0,0,
808,-11.29,-6.46,-5.123,-4.151,0.2115,10.52,-11.64,-25.78,-28.84,-7.614,-24.19,-2.151,-2.065,-2.117,-17.95,9.534,0,0,0,0,0,0,0,0,0,0,0,0,0,0,0,0,
809,5.696,-6.441,5.842,1.281,29.75,14.92,-5.782,-27.43,-9.456,-4.945,17.43,21.59,-4.711,-13.32,11.41,-6.362,0,0,0,0,0,0,0,0,0,0,0,0,0,0,0,0,
810,15.7,-10.41,15.53,9.083,39.51,34.94,15.52,-13.99,44.85,10.34,60.09,49.42,1.985,-9.831,54.31,3.028,0,0,0,0,0,0,0,0,0,0,0,0,0,0,0,0,
811,53.26,-1.027,52.35,35.85,60.64,65.26,40.16,0.839,79.99,-14.75,117.3,81.62,7.391,3.348,99.21,21.52,0,0,0,0,0,0,0,0,0,0,0,0,0,0,0,0,
812,82.19,4.087,75.04,50.17,93.24,69.9,40.3,0.6506,87.24,-25.72,139.2,88.91,16.35,25.57,122.9,38.08,0,0,0,0,0,0,0,0,0,0,0,0,0,0,0,0,
813,73.83,14.29,75.25,46.78,98.51,58.73,26.98,-3.792,91.88,13.35,86.18,57.32,16.82,24.98,104.4,44.98,0,0,0,0,0,0,0,0,0,0,0,0,0,0,0,0,
814,37.77,7.334,46.45,26.63,60.07,23.42,-10.18,-20.03,43.06,2.025,14.21,4.832,-25.95,-16.61,44.44,13.5,0,0,0,0,0,0,0,0,0,0,0,0,0,0,0,0,
815,-18.61,-41.81,-9.597,-7.849,9.467,-27.1,-55.89,-41.39,-20.75,-44.13,-25.25,-35.27,-72.08,-46.92,-28.66,-49.94,0,0,0,0,0,0,0,0,0,0,0,0,0,0,0,0,
816,-49.54,-70.05,-15.97,-14.45,-8.54,-31.92,-55.23,-45.47,-22.92,-41.82,-42.58,-44.54,-80.33,-54.17,-74.73,-96.89,0,0,0,0,0,0,0,0,0,0,0,0,0,0,0,0,
817,-34.67,-59.97,23.9,4.335,4.01,-15.8,-41,-47.27,-23.15,-34.81,-43.83,-43.77,-85.12,-68.3,-79.39,-111.5,0,0,0,0,0,0,0,0,0,0,0,0,0,0,0,0,
818,-34.28,-64.14,8.748,1.611,-0.4914,-34.55,-61.2,-51.1,-42.58,-42.77,-30.29,-49.81,-86.74,-65.52,-62.8,-107.8,0,0,0,0,0,0,0,0,0,0,0,0,0,0,0,0,
819,-50.54,-61.41,-33.71,-10.13,-21.81,-43.16,-65.64,-42.5,-35.4,-37.92,-26.34,-51.71,-68.9,-45.26,-47.02,-90.95,0,0,0,0,0,0,0,0,0,0,0,0,0,0,0,0,
820,-39.97,-43.1,-22.81,-6.28,-7.155,-23.41,-43.69,-44.18,-28.08,-45.88,-38.72,-53.33,-66.59,-44.81,-38.22,-68.07,0,0,0,0,0,0,0,0,0,0,0,0,0,0,0,0,
821,-31.97,-56.17,-9.658,-7.465,19.05,-22.76,-45.23,-63.45,-23.96,-49.02,-41.24,-59.13,-75.76,-46.46,-35.64,-48.72,0,0,0,0,0,0,0,0,0,0,0,0,0,0,0,0,
822,-38.79,-72.34,-26.19,-21.54,-6.496,-29.97,-52.05,-70.63,-8.646,-30.77,-26.31,-54.25,-66.9,-35.28,-33.97,-37.12,0,0,0,0,0,0,0,0,0,0,0,0,0,0,0,0,
823,-32.35,-60.53,-16.7,-26.65,-34.09,-19.48,-41.13,-63.5,-12.46,-35.05,-17.76,-43.8,-61.51,-36.72,-25.38,-35.79,0,0,0,0,0,0,0,0,0,0,0,0,0,0,0,0,
824,-30.37,-54.91,-4.201,-13.13,-11.12,-16.25,-41.14,-55.04,-15.83,-38.04,-23.8,-43.84,-74.64,-52.13,-15.73,-44.2,0,0,0,0,0,0,0,0,0,0,0,0,0,0,0,0,
825,-43.85,-65.83,-38.51,-8.458,-4.006,-36.2,-59.65,-53.67,-12.53,-31.57,-29.59,-53.32,-95.73,-72.16,-20.33,-64.53,0,0,0,0,0,0,0,0,0,0,0,0,0,0,0,0,
826,-56.69,-87.12,-61.99,-31.72,-31.43,-57.25,-75.65,-63.7,-37.98,-63.34,-27.74,-61.82,-106.1,-82.22,-35.18,-92.33,0,0,0,0,0,0,0,0,0,0,0,0,0,0,0,0,
827,-60.92,-93.77,-31.81,-43.1,-23.17,-49.26,-66.65,-62.26,-42.12,-69.7,-20.61,-55.14,-78.44,-57.18,-42.67,-102.3,0,0,0,0,0,0,0,0,0,0,0,0,0,0,0,0,
828,-45.68,-57.42,-12.52,-28.65,3.414,-24.59,-42.72,-51.35,-6.469,-22.67,-17.04,-42.38,-41.48,-23.61,-44.29,-84.06,0,0,0,0,0,0,0,0,0,0,0,0,0,0,0,0,
829,-31,-31.96,-37,-32.3,-7.243,-22.86,-41.66,-56.91,-6.607,-8.95,-26.98,-45.74,-41.21,-18.81,-54.11,-64.34,0,0,0,0,0,0,0,0,0,0,0,0,0,0,0,0,
830,-37.89,-44.15,-45.87,-40.79,-19.04,-31.45,-50.43,-49.31,-30.18,-7.148,-42.72,-51.31,-49.36,-21.72,-70.22,-61.44,0,0,0,0,0,0,0,0,0,0,0,0,0,0,0,0,
831,-43.32,-45.7,-21.03,-25.6,-16.46,-27.87,-47.2,-25.23,-35.67,2.181,-55.3,-53.94,-53.01,-25.98,-79.87,-66.28,0,0,0,0,0,0,0,0,0,0,0,0,0,0,0,0,
832,-55.82,-55.15,-16.97,-26.84,-35.06,-38.15,-59.41,-37.69,-49.93,-38.86,-67.4,-72.07,-75.53,-44.91,-80.19,-71.85,0,0,0,0,0,0,0,0,0,0,0,0,0,0,0,0,
833,-82.19,-81.46,-39.22,-45.05,-45.07,-57.47,-77.28,-65.28,-52.04,-63.53,-68.05,-78.59,-83.25,-52.68,-74.25,-76.25,0,0,0,0,0,0,0,0,0,0,0,0,0,0,0,0,
834,-74.89,-72.53,-45.62,-41.1,-39.05,-53.48,-70.47,-69.19,-29.36,-40.26,-51.96,-56.55,-65.94,-50.89,-59.57,-75.67,0,0,0,0,0,0,0,0,0,0,0,0,0,0,0,0,
835,-48.19,-59.87,-37.49,-36.39,-61.71,-45.51,-64,-74.01,-42.01,-52.07,-43.97,-48.91,-68.59,-63.85,-39.15,-74.49,0,0,0,0,0,0,0,0,0,0,0,0,0,0,0,0,
836,-55.63,-79.12,-33.36,-46.53,-63.91,-52.96,-72.27,-77.58,-72.89,-46.06,-53.46,-61.92,-74.25,-59.98,-29.73,-75.97,0,0,0,0,0,0,0,0,0,0,0,0,0,0,0,0,
837,-70.96,-78.78,-30.16,-49.73,-23.25,-56.27,-74.08,-70.85,-61.71,2.209,-57.89,-61.98,-55.38,-29.17,-38.07,-73.48,0,0,0,0,0,0,0,0,0,0,0,0,0,0,0,0,
838,-62.09,-56.51,-33.66,-45.47,-25.93,-50.15,-66.85,-72.77,-39.15,-23.84,-43.31,-51.21,-47.41,-17.4,-46.2,-67.28,0,0,0,0,0,0,0,0,0,0,0,0,0,0,0,0,
839,-52.34,-56.03,-43.88,-35.29,-53.55,-44.39,-60.12,-67.06,-41.62,-64.37,-27.06,-48.46,-60.41,-31.18,-42.72,-65.96,0,0,0,0,0,0,0,0,0,0,0,0,0,0,0,0,
840,-55.87,-65.82,-37.71,-22.85,-40.16,-38.23,-53.5,-49.46,-45.71,-14.49,-35.64,-56.19,-63.34,-40.58,-41.45,-70.15,0,0,0,0,0,0,0,0,0,0,0,0,0,0,0,0,
841,-59.02,-59.31,-15.28,-21.71,-27.52,-30.49,-43.92,-47.19,-37.5,8.581,-53.47,-59.07,-49.73,-31.73,-49.28,-70.67,0,0,0,0,0,0,0,0,0,0,0,0,0,0,0,0,
842,-53.07,-45.53,-11.44,-22.51,-38.23,-30.74,-41.19,-49.5,-39.82,-40.93,-50.08,-49.75,-40.35,-19.48,-56.01,-66.35,0,0,0,0,0,0,0,0,0,0,0,0,0,0,0,0,
843,-51.87,-46.22,-38.86,-24.07,-48.66,-45.83,-54.45,-48.4,-61.28,-50.91,-42.88,-47.93,-45.96,-27.13,-59.2,-69.23,0,0,0,0,0,0,0,0,0,0,0,0,0,0,0,0,
844,-56.95,-52.75,-51.68,-31.62,-42.03,-50.35,-56.93,-53.42,-59.95,-27.73,-35.83,-45.18,-41.89,-28.23,-54.8,-71.51,0,0,0,0,0,0,0,0,0,0,0,0,0,0,0,0,
845,-36.98,-37.71,-9.283,-18.87,-3.661,-19.57,-25.45,-42.98,-15.87,-19.69,-3.456,-14.5,-12.57,2.996,-29.05,-46.51,0,0,0,0,0,0,0,0,0,0,0,0,0,0,0,0,
846,1.344,-11.86,37.9,10.2,22.39,12.84,5.705,-18.5,23.38,6.648,25.01,16.36,11.89,23.71,11.46,-3.891,0,0,0,0,0,0,0,0,0,0,0,0,0,0,0,0,
847,15.44,-2.077,28.55,19.99,16.23,12.82,6.15,-11.78,28.68,27.54,25.42,24.17,19.22,20.03,44.26,23.14,0,0,0,0,0,0,0,0,0,0,0,0,0,0,0,0,
848,14.81,-0.4873,8.725,23.25,23.04,7.738,2.882,-10.92,19.07,2.4,34.56,34.94,31.5,27.55,66.36,34.14,0,0,0,0,0,0,0,0,0,0,0,0,0,0,0,0,
849,24.02,8.386,25.84,34.8,15.32,17.95,12.89,0.8361,19.55,-14.42,53.66,46.85,46.13,38.21,83.94,39.8,0,0,0,0,0,0,0,0,0,0,0,0,0,0,0,0,
850,26.38,17.59,36.99,27.35,-8.615,18.96,11.42,1.2,32.9,3.933,49.39,36.56,42.58,28.14,84.58,29.79,0,0,0,0,0,0,0,0,0,0,0,0,0,0,0,0,
851,16.09,13.81,24.38,2.929,20.41,4.173,-3.586,-15.13,27.73,5.576,29.43,17.09,23.9,6.069,58.44,1.167,0,0,0,0,0,0,0,0,0,0,0,0,0,0,0,0,
852,6.803,1.482,14.56,-5.406,45.15,-2.599,-8.442,-22.97,8.645,-17.23,16.99,10.64,12.46,-5.538,29.87,-22.19,0,0,0,0,0,0,0,0,0,0,0,0,0,0,0,0,
853,2.624,-1.193,10.92,6.804,8.819,5.038,-1.235,-9.574,14.28,-15.74,14.21,16.2,17.45,7.369,25.16,-17.56,0,0,0,0,0,0,0,0,0,0,0,0,0,0,0,0,
854,9.23,8.147,28.44,24.84,1.496,16.73,10.73,6.304,21.81,17.48,13.45,22.4,26.69,26.54,30.51,5.478,0,0,0,0,0,0,0,0,0,0,0,0,0,0,0,0,
855,22.06,17.28,57.77,36.88,35.79,28.25,23.05,4.235,11.68,34.73,10.32,22.82,32.81,28.21,22.28,20.93,0,0,0,0,0,0,0,0,0,0,0,0,0,0,0,0,
856,24.31,21.71,46.01,35.59,35.2,34.09,27.95,1.603,8.843,10.47,3.602,16.61,35.61,19.6,3.024,21.51,0,0,0,0,0,0,0,0,0,0,0,0,0,0,0,0,
857,20.01,24.37,19.13,29.52,24.21,36.06,32.18,10.69,9.094,-21.07,0.1489,9.77,30.95,10.71,-12.47,15.9,0,0,0,0,0,0,0,0,0,0,0,0,0,0,0,0,
858,24.1,30.16,37.23,34.61,42.84,50.06,47.83,12.51,18.49,-15.24,12.14,11.19,21.59,3.381,-16.11,10.86,0,0,0,0,0,0,0,0,0,0,0,0,0,0,0,0,
859,35.02,37.67,67.67,49.63,53.57,71.11,67.05,16.69,38.32,15.12,21.67,13.28,15.67,4.554,-15.8,6.894,0,0,0,0,0,0,0,0,0,0,0,0,0,0,0,0,
860,39.34,37.94,62.38,54.35,38.73,74.81,71.62,32.87,23.11,16.72,3.992,4.097,18.71,18.27,-23.43,1.975,0,0,0,0,0,0,0,0,0,0,0,0,0,0,0,0,
861,28.87,33.86,34.89,42.65,18.28,63.21,61.04,37.23,-6.543,7.319,-19.04,-9.739,28.65,37.39,-31.55,2.351,0,0,0,0,0,0,0,0,0,0,0,0,0,0,0,0,
862,12.63,36.3,22.11,40.97,5.379,57.22,56.89,37.01,-1.809,45.25,-24.65,-18.23,31.64,42.77,-27.7,12.32,0,0,0,0,0,0,0,0,0,0,0,0,0,0,0,0,
863,8.052,43.5,40.21,56.97,20.26,60.01,65.04,41.96,7.492,72.34,-12.8,-11.02,23.06,27.66,-10.28,18.23,0,0,0,0,0,0,0,0,0,0,0,0,0,0,0,0,
864,17.28,46.08,59.82,60.37,44.9,63.32,69.58,31.36,4.998,30.45,11.58,8.178,12.1,11.43,15.18,10.83,0,0,0,0,0,0,0,0,0,0,0,0,0,0,0,0,
865,19.09,40.16,47.68,45.9,19.74,60.15,65.31,15.06,-0.0429,8.759,15.9,7.628,3.083,5.047,27.43,-2.909,0,0,0,0,0,0,0,0,0,0,0,0,0,0,0,0,
