%OpenBCI Raw EXG Data
%Number of channels = 16
%Sample Rate = 125 Hz
%Board = OpenBCI_GUI$BoardCytonSerialDaisy
Sample Index,EXG Channel 0,EXG Channel 1,EXG Channel 2,EXG Channel 3,EXG Channel 4,EXG Channel 5,EXG Channel 6,EXG Channel 7,EXG Channel 8,EXG Channel 9,EXG Channel 10,EXG Channel 11,EXG Channel 12,EXG Channel 13,EXG Channel 14,EXG Channel 15,Accel Channel 0,Accel Channel 1,Accel Channel 2,Other,Other.1,Other.2,Other.3,Other.4,Other.5,Other.6,Analog Channel 0,Analog Channel 1,Analog Channel 2,Timestamp,Other.7,Timestamp (Formatted),Annotations
1,-0.0,-0.0,0.0,-0.0,-0.0,-0.0,0.0,0.0,-0.0,0.0,0.0,0.0,0.0,0.0,0.0,0.0,0,0,0,0,0,0,0,0,0,0,0,0,0,0,0,0,T0
2,-16.04,-28.97,-20.65,-18.46,-28.34,-23.16,-20.37,0.1144,-31.38,-37.7,-22.5,8.918,-8.305,-10.92,-10.51,2.085,0,0,0,0,0,0,0,0,0,0,0,0,0,0,0,0,
3,-11.92,-8.555,3.999,-30.8,-18.77,-19.73,1.114,-21.51,-36.9,-45.46,-12.02,18.13,5.552,-3.62,-9.726,-6.954,0,0,0,0,0,0,0,0,0,0,0,0,0,0,0,0,
4,-26.33,-8.637,8.566,-51.86,-6.173,-14.95,11.29,-21.79,-46.07,-34.45,-23.54,11.2,10.41,-2.215,-11.69,-22.95,0,0,0,0,0,0,0,0,0,0,0,0,0,0,0,0,
5,-36.69,-16.66,-7.232,-60.39,-12.94,-14.72,2.163,-2.813,-58.98,-27.3,-54.02,2.106,-4.225,-18.49,-25.67,-35.1,0,0,0,0,0,0,0,0,0,0,0,0,0,0,0,0,
6,-21.48,-7.969,-0.5651,-30.35,-16.65,-22.22,3.655,-4.656,-53.05,-41.32,-50.82,10.89,-6.482,-26.74,-31.49,-37.8,0,0,0,0,0,0,0,0,0,0,0,0,0,0,0,0,
7,-23.12,-20.23,0.5554,-2.745,-10.29,-38.74,5.868,-10.46,-50.17,-65.78,-37.19,12.95,-1.204,-23.5,-26.53,-37.94,0,0,0,0,0,0,0,0,0,0,0,0,0,0,0,0,
8,-23.99,-23.18,-9.131,-19.78,-2.23,-30.29,-12.44,-12.33,-57.29,-70.88,-33.18,-4.792,-9.328,-30.76,-31.5,-42.2,0,0,0,0,0,0,0,0,0,0,0,0,0,0,0,0,
9,8.191,3.219,2.023,-41.61,18.11,-3.229,-37.02,-19.78,-46.6,-64.59,-23.69,-16.09,-5.689,-38.28,-33.67,-40.36,0,0,0,0,0,0,0,0,0,0,0,0,0,0,0,0,
10,24.71,22.73,21.16,-27.03,41.09,5.686,-19.01,-12.38,-26.85,-63.55,-27.63,-18.41,13.47,-32.67,-24.2,-36.94,0,0,0,0,0,0,0,0,0,0,0,0,0,0,0,0,
11,-0.7438,16.91,17.31,-13.5,23.2,0.3193,4.469,-15.97,-24.92,-60.24,-38.45,-26.94,13.36,-32.69,-26.81,-45.15,0,0,0,0,0,0,0,0,0,0,0,0,0,0,0,0,
12,-13.86,-4.304,0.1382,-19.34,-9.86,-12.45,-23.8,-35.91,-35.74,-53.82,-34.77,-29.67,9.766,-32.01,-28.31,-38.68,0,0,0,0,0,0,0,0,0,0,0,0,0,0,0,0,
13,12.96,-0.0856,-4.358,-12.44,-3.309,-28.55,-24.63,-13.02,-43.49,-43.23,-41.14,-19.37,22.72,-18.24,-16.12,-14.48,0,0,0,0,0,0,0,0,0,0,0,0,0,0,0,0,
14,20.45,11.94,-4.281,-5.034,4.002,-31.15,13.59,8.831,-47.36,-33.76,-50.63,-12.53,23.94,-17.55,-19.92,-12.12,0,0,0,0,0,0,0,0,0,0,0,0,0,0,0,0,
15,-13.94,-16.72,-9.441,-18.11,-10.53,-25.84,0.7226,-16.55,-51.74,-33.35,-40.55,-13.48,19.48,-24.48,-26.42,-14.72,0,0,0,0,0,0,0,0,0,0,0,0,0,0,0,0,
16,-25.15,-37.32,-14.39,-36.02,-15.64,-26.75,-23.69,-13.78,-54.69,-25.88,-38.02,-13.67,27.03,-17.92,-19.08,-2.409,0,0,0,0,0,0,0,0,0,0,0,0,0,0,0,0,
17,-8.767,-23.05,-22.69,-42.08,-23.31,-32.21,-13.61,7.459,-53.73,-23.16,-46.7,-14.18,25.88,-22.56,-32.09,-11.21,0,0,0,0,0,0,0,0,0,0,0,0,0,0,0,0,
18,-4.462,-5.953,-15.65,-19.2,-21.04,-38.55,-8.689,-14.1,-53.25,-44.7,-37.83,-17.7,23.63,-37.63,-48.27,-29.26,0,0,0,0,0,0,0,0,0,0,0,0,0,0,0,0,
19,-2.078,3.448,6.849,1.153,0.2081,-35.3,-11.49,-31.32,-60.58,-55.33,-18.35,-20.26,30.05,-40.49,-36.94,-25.93,0,0,0,0,0,0,0,0,0,0,0,0,0,0,0,0,
20,-4.375,-17.93,2.296,-28.9,-8.571,-19.09,-24.07,-21.58,-72.1,-48.16,-18.28,-22.05,17.64,-47.79,-35.85,-25.0,0,0,0,0,0,0,0,0,0,0,0,0,0,0,0,0,
21,-4.13,-31.02,-13.07,-57.49,-26.75,-18.99,-31.33,-16.48,-76.79,-53.53,-35.54,-25.14,-1.697,-58.69,-46.18,-28.32,0,0,0,0,0,0,0,0,0,0,0,0,0,0,0,0,
22,8.411,0.9743,-7.609,-43.46,-25.03,-43.37,-4.793,-8.409,-80.72,-63.63,-33.95,-24.87,5.678,-54.94,-33.44,-21.16,0,0,0,0,0,0,0,0,0,0,0,0,0,0,0,0,
23,-11.69,-4.44,-6.59,-32.2,-31.88,-52.44,-5.248,-0.6072,-81.69,-70.31,-8.365,-17.95,26.97,-44.8,-14.55,-14.52,0,0,0,0,0,0,0,0,0,0,0,0,0,0,0,0,
24,-31.17,-28.56,-7.249,-26.2,-16.34,-40.51,-30.45,-8.882,-57.47,-67.08,22.65,-2.124,47.36,-22.46,7.988,2.296,0,0,0,0,0,0,0,0,0,0,0,0,0,0,0,0,
25,12.3,3.577,10.6,-9.289,25.86,-29.09,14.28,-11.09,-25.01,-37.65,53.82,21.0,70.44,11.24,46.69,30.62,0,0,0,0,0,0,0,0,0,0,0,0,0,0,0,0,
26,54.49,20.28,29.25,-10.59,33.21,-6.529,71.45,4.684,-15.26,-13.8,49.71,26.23,74.0,18.01,53.59,28.71,0,0,0,0,0,0,0,0,0,0,0,0,0,0,0,0,
27,34.05,5.146,22.81,-30.97,11.74,-0.1596,29.8,-2.18,-28.38,-29.37,-2.941,-4.925,37.46,-7.703,2.221,-10.06,0,0,0,0,0,0,0,0,0,0,0,0,0,0,0,0,
28,-32.7,-1.004,-22.5,-46.57,-26.56,-45.74,-61.58,-51.8,-69.08,-61.37,-50.94,-43.59,-10.19,-36.59,-52.86,-44.75,0,0,0,0,0,0,0,0,0,0,0,0,0,0,0,0,
29,-81.4,-38.46,-69.58,-57.58,-78.22,-84.97,-107.6,-73.47,-111.7,-87.85,-74.19,-62.08,-35.3,-59.05,-70.22,-58.83,0,0,0,0,0,0,0,0,0,0,0,0,0,0,0,0,
30,-50.83,-67.33,-72.5,-62.87,-88.41,-88.92,-88.73,-28.58,-113.2,-109.5,-81.24,-71.88,-42.8,-67.73,-65.72,-64.71,0,0,0,0,0,0,0,0,0,0,0,0,0,0,0,0,
31,-23.6,-42.82,-68.24,-51.39,-75.11,-96.51,-60.91,-7.24,-105.6,-115.8,-69.74,-74.27,-42.75,-58.03,-58.2,-57.49,0,0,0,0,0,0,0,0,0,0,0,0,0,0,0,0,
32,-66.52,-40.1,-80.28,-44.13,-91.33,-86.46,-69.58,-40.93,-112.2,-95.31,-57.61,-56.84,-33.54,-47.97,-43.78,-30.04,0,0,0,0,0,0,0,0,0,0,0,0,0,0,0,0,
33,-70.99,-56.56,-65.28,-65.38,-87.44,-54.43,-59.91,-44.19,-100.6,-68.04,-52.87,-45.65,-22.24,-48.92,-32.22,-15.93,0,0,0,0,0,0,0,0,0,0,0,0,0,0,0,0,
34,-26.68,-46.79,-45.38,-71.91,-56.25,-58.41,-37.52,-28.66,-97.2,-67.17,-57.91,-65.1,-30.6,-65.46,-51.39,-41.06,0,0,0,0,0,0,0,0,0,0,0,0,0,0,0,0,
35,-31.67,-43.21,-68.07,-35.5,-70.8,-81.99,-75.48,-46.99,-132.5,-84.98,-76.21,-82.86,-62.02,-93.82,-81.95,-67.83,0,0,0,0,0,0,0,0,0,0,0,0,0,0,0,0,
36,-48.26,-36.13,-82.55,-12.48,-94.09,-76.42,-85.31,-40.96,-154.0,-84.26,-78.85,-75.99,-74.01,-98.61,-78.22,-64.54,0,0,0,0,0,0,0,0,0,0,0,0,0,0,0,0,
37,-28.98,-20.8,-57.08,-26.18,-62.18,-59.3,-33.84,-14.04,-134.1,-65.77,-61.57,-65.49,-48.52,-76.78,-60.86,-54.16,0,0,0,0,0,0,0,0,0,0,0,0,0,0,0,0,
38,-15.32,-29.78,-38.67,-42.35,-35.59,-43.78,-52.03,-33.63,-106.6,-58.9,-52.97,-63.28,-31.09,-75.23,-67.55,-55.74,0,0,0,0,0,0,0,0,0,0,0,0,0,0,0,0,
39,-8.056,-14.58,-23.25,-39.02,-47.28,-30.31,-80.77,-50.88,-91.72,-64.05,-57.24,-71.76,-39.42,-90.75,-78.79,-64.26,0,0,0,0,0,0,0,0,0,0,0,0,0,0,0,0,
40,5.071,19.58,-0.7081,-14.27,-45.79,-45.05,-37.58,-34.22,-94.56,-66.89,-67.58,-80.63,-51.09,-89.99,-78.08,-71.19,0,0,0,0,0,0,0,0,0,0,0,0,0,0,0,0,
41,3.796,0.6926,-5.256,-7.456,-26.86,-64.01,-33.72,-28.7,-99.91,-67.17,-73.32,-67.81,-58.55,-86.26,-73.94,-66.95,0,0,0,0,0,0,0,0,0,0,0,0,0,0,0,0,
42,-2.104,-9.983,-7.184,-38.04,-18.4,-46.52,-48.52,-28.08,-84.76,-66.57,-72.52,-56.71,-56.15,-89.07,-65.25,-57.24,0,0,0,0,0,0,0,0,0,0,0,0,0,0,0,0,
43,7.431,16.09,5.226,-52.47,-27.02,-35.95,-16.58,-29.13,-79.04,-69.37,-72.16,-58.97,-49.88,-82.66,-57.24,-50.31,0,0,0,0,0,0,0,0,0,0,0,0,0,0,0,0,
44,21.85,-2.402,-16.56,-35.96,-40.22,-48.82,-24.48,-33.93,-95.24,-71.73,-59.06,-39.96,-53.98,-72.35,-57.07,-42.9,0,0,0,0,0,0,0,0,0,0,0,0,0,0,0,0,
45,19.51,-22.39,-30.52,-22.72,-36.79,-38.19,-60.22,-24.76,-93.64,-59.69,-45.41,-30.6,-60.41,-72.47,-60.05,-47.37,0,0,0,0,0,0,0,0,0,0,0,0,0,0,0,0,
46,-4.129,3.895,-5.878,-19.17,-36.59,-33.31,-63.94,-33.48,-92.65,-52.68,-55.57,-56.42,-65.47,-80.21,-61.49,-59.97,0,0,0,0,0,0,0,0,0,0,0,0,0,0,0,0,
47,-21.35,7.786,-1.132,-27.84,-54.48,-65.57,-70.65,-50.41,-109.9,-70.3,-55.97,-53.76,-64.92,-85.36,-49.51,-51.21,0,0,0,0,0,0,0,0,0,0,0,0,0,0,0,0,
48,-13.57,0.9195,-2.562,-41.72,-52.72,-75.95,-69.92,-29.86,-101.3,-80.09,-25.85,-32.8,-50.33,-86.59,-27.06,-34.94,0,0,0,0,0,0,0,0,0,0,0,0,0,0,0,0,
49,2.588,15.88,15.64,-40.17,-30.47,-49.96,-52.25,-17.71,-81.29,-68.2,-9.736,-50.26,-45.94,-93.18,-26.12,-35.91,0,0,0,0,0,0,0,0,0,0,0,0,0,0,0,0,
50,11.24,-1.63,14.61,-37.18,-22.43,-38.98,-51.49,-44.67,-82.05,-69.98,-27.0,-64.09,-61.6,-109.2,-46.72,-40.26,0,0,0,0,0,0,0,0,0,0,0,0,0,0,0,0,
51,-2.136,-40.44,5.495,-49.54,-33.3,-49.36,-49.78,-61.23,-80.03,-85.86,-38.48,-55.81,-68.93,-124.8,-58.73,-47.41,0,0,0,0,0,0,0,0,0,0,0,0,0,0,0,0,
52,-27.2,-39.32,6.957,-56.93,-51.27,-59.37,-47.89,-46.95,-82.99,-81.84,-36.9,-66.3,-71.17,-130.0,-70.48,-65.51,0,0,0,0,0,0,0,0,0,0,0,0,0,0,0,0,
53,-29.0,-18.14,-7.259,-52.04,-63.12,-74.05,-75.57,-40.08,-102.4,-71.8,-56.42,-73.38,-86.49,-126.9,-92.68,-78.15,0,0,0,0,0,0,0,0,0,0,0,0,0,0,0,0,
54,-23.52,-15.47,-15.94,-57.37,-63.34,-83.17,-89.08,-61.19,-104.9,-78.33,-74.53,-54.6,-88.73,-116.8,-95.24,-74.77,0,0,0,0,0,0,0,0,0,0,0,0,0,0,0,0,
55,-18.37,-19.84,10.91,-62.5,-49.86,-61.56,-56.32,-67.56,-86.31,-69.85,-57.02,-46.99,-65.63,-103.4,-79.91,-65.17,0,0,0,0,0,0,0,0,0,0,0,0,0,0,0,0,
56,-0.541,-20.21,24.94,-49.08,-38.08,-56.8,-45.1,-58.53,-81.54,-54.6,-42.92,-60.47,-57.07,-103.0,-76.82,-62.22,0,0,0,0,0,0,0,0,0,0,0,0,0,0,0,0,
57,-27.93,-23.74,-5.239,-53.2,-52.81,-95.08,-73.03,-71.26,-95.36,-75.97,-45.52,-59.34,-61.95,-106.0,-64.43,-60.09,0,0,0,0,0,0,0,0,0,0,0,0,0,0,0,0,
58,-75.21,-22.09,-24.3,-77.06,-59.31,-91.28,-70.71,-62.15,-85.78,-90.94,-32.51,-35.14,-48.29,-92.84,-36.45,-49.67,0,0,0,0,0,0,0,0,0,0,0,0,0,0,0,0,
59,-40.77,-8.878,-9.07,-71.02,-42.71,-58.33,-55.98,-41.81,-54.23,-72.99,-24.72,-24.36,-49.65,-88.06,-40.09,-48.04,0,0,0,0,0,0,0,0,0,0,0,0,0,0,0,0,
60,8.12,-1.272,-1.209,-56.15,-51.69,-78.19,-68.2,-72.85,-61.04,-69.69,-36.79,-33.43,-70.71,-93.55,-59.55,-56.41,0,0,0,0,0,0,0,0,0,0,0,0,0,0,0,0,
61,2.971,-16.11,-6.522,-61.74,-59.61,-81.08,-63.34,-79.71,-89.73,-68.36,-26.27,-25.91,-51.28,-75.86,-46.22,-49.65,0,0,0,0,0,0,0,0,0,0,0,0,0,0,0,0,
62,6.723,-31.73,-2.328,-41.1,-29.87,-41.31,-42.89,-30.19,-76.36,-53.99,5.3,-6.966,-14.23,-52.65,-27.13,-31.62,0,0,0,0,0,0,0,0,0,0,0,0,0,0,0,0,
63,6.691,-0.7235,14.96,-2.219,-10.29,-45.33,-33.98,-23.01,-40.61,-49.8,14.22,-7.67,-9.884,-49.05,-31.69,-24.67,0,0,0,0,0,0,0,0,0,0,0,0,0,0,0,0,
64,-12.06,46.16,25.64,-10.13,-14.84,-55.46,-36.11,-50.68,-28.13,-30.56,10.14,-20.9,-14.81,-57.07,-41.26,-35.39,0,0,0,0,0,0,0,0,0,0,0,0,0,0,0,0,
65,-8.053,30.53,6.922,-37.21,-27.89,-32.49,-61.44,-48.96,-38.32,-13.34,13.59,-31.41,-23.23,-72.82,-46.39,-50.81,0,0,0,0,0,0,0,0,0,0,0,0,0,0,0,0,
66,-17.71,-15.79,-9.81,-31.94,-48.11,-39.42,-59.28,-38.07,-52.38,-36.56,13.97,-34.88,-37.07,-80.7,-44.29,-51.48,0,0,0,0,0,0,0,0,0,0,0,0,0,0,0,0,
67,-32.71,-27.84,4.413,-34.33,-52.91,-60.58,-14.87,-35.86,-61.1,-45.21,24.86,-30.0,-23.56,-75.47,-31.47,-44.04,0,0,0,0,0,0,0,0,0,0,0,0,0,0,0,0,
68,-7.817,-19.26,11.8,-58.3,-40.35,-51.85,-15.77,-34.2,-61.72,-27.54,43.43,-23.18,0.865,-72.32,-22.77,-41.83,0,0,0,0,0,0,0,0,0,0,0,0,0,0,0,0,
69,-7.112,-9.531,4.718,-57.26,-27.85,-42.99,-28.26,-43.94,-48.35,-28.28,43.04,-12.83,-4.678,-62.77,-25.21,-37.98,0,0,0,0,0,0,0,0,0,0,0,0,0,0,0,0,
70,-34.88,-16.84,12.98,-52.83,-18.99,-49.0,6.467,-59.26,-42.44,-22.96,41.33,-2.476,-23.74,-54.82,-27.7,-36.12,0,0,0,0,0,0,0,0,0,0,0,0,0,0,0,0,
71,-35.19,-39.24,24.31,-71.65,-23.02,-60.21,1.832,-54.58,-58.79,-9.594,33.21,-8.871,-31.91,-67.82,-31.0,-40.18,0,0,0,0,0,0,0,0,0,0,0,0,0,0,0,0,
72,-35.1,-28.0,19.21,-67.67,-39.48,-73.77,-40.22,-40.28,-62.79,-20.75,12.84,-24.02,-39.07,-76.09,-40.43,-37.78,0,0,0,0,0,0,0,0,0,0,0,0,0,0,0,0,
73,-22.45,-1.585,7.095,-44.92,-53.26,-73.97,-34.27,-38.01,-61.69,-26.68,22.15,-31.91,-44.47,-68.68,-42.53,-32.71,0,0,0,0,0,0,0,0,0,0,0,0,0,0,0,0,
74,-7.543,-10.81,2.198,-50.83,-47.4,-56.45,-28.7,-29.63,-74.57,-15.83,22.26,-37.17,-37.48,-66.27,-36.33,-35.64,0,0,0,0,0,0,0,0,0,0,0,0,0,0,0,0,
75,-52.65,-25.39,3.81,-61.55,-20.08,-37.75,-60.54,-8.811,-59.44,-16.68,-12.29,-35.26,-32.65,-60.98,-38.92,-38.42,0,0,0,0,0,0,0,0,0,0,0,0,0,0,0,0,
76,-55.24,-20.14,5.193,-48.28,-5.542,-26.55,-61.57,-2.652,-34.82,-9.539,-12.11,-23.52,-37.65,-46.67,-38.76,-36.78,0,0,0,0,0,0,0,0,0,0,0,0,0,0,0,0,
77,11.63,-12.68,1.261,-35.85,-21.47,-31.88,-44.34,-18.38,-55.06,10.45,-13.84,-23.43,-48.79,-46.28,-34.58,-43.26,0,0,0,0,0,0,0,0,0,0,0,0,0,0,0,0,
78,-7.434,5.652,-15.49,-27.61,-38.41,-49.8,-64.8,-36.65,-84.49,-1.795,-56.18,-31.19,-70.65,-57.98,-55.98,-55.69,0,0,0,0,0,0,0,0,0,0,0,0,0,0,0,0,
79,-39.91,33.83,-24.55,-17.57,-34.36,-43.97,-81.02,-36.97,-84.21,-26.01,-61.09,-20.16,-77.49,-53.72,-80.65,-55.03,0,0,0,0,0,0,0,0,0,0,0,0,0,0,0,0,
80,11.7,31.83,-11.78,-31.52,-25.17,-17.7,-68.23,-21.08,-70.83,-10.56,-45.64,-6.257,-62.0,-40.8,-76.58,-50.55,0,0,0,0,0,0,0,0,0,0,0,0,0,0,0,0,
81,12.35,4.196,-7.724,-43.52,-32.04,-12.96,-60.34,-5.307,-66.48,13.97,-56.51,-8.288,-65.33,-40.08,-73.6,-55.95,0,0,0,0,0,0,0,0,0,0,0,0,0,0,0,0,
82,-12.24,6.701,-2.332,-11.67,-33.79,-14.88,-55.5,5.651,-70.58,18.15,-51.16,-5.319,-74.17,-38.35,-82.79,-56.21,0,0,0,0,0,0,0,0,0,0,0,0,0,0,0,0,
83,19.23,28.21,17.39,7.695,-13.22,-10.85,-58.22,8.39,-64.87,20.57,-46.29,-5.673,-67.67,-38.29,-86.77,-60.92,0,0,0,0,0,0,0,0,0,0,0,0,0,0,0,0,
84,-0.0621,15.42,8.149,-13.14,-10.5,-32.23,-70.6,0.7411,-67.05,9.133,-70.14,-24.4,-74.93,-52.57,-85.88,-77.51,0,0,0,0,0,0,0,0,0,0,0,0,0,0,0,0,
85,-34.78,-6.746,-3.557,-20.7,-35.37,-58.09,-67.02,-14.77,-87.54,-15.92,-76.8,-30.33,-77.6,-56.92,-76.13,-72.31,0,0,0,0,0,0,0,0,0,0,0,0,0,0,0,0,
86,0.2029,-9.204,25.63,-34.11,-47.47,-61.42,-68.8,-35.39,-85.68,-22.58,-59.25,-31.03,-66.93,-55.65,-72.45,-60.34,0,0,0,0,0,0,0,0,0,0,0,0,0,0,0,0,
87,0.8227,-22.92,36.62,-68.86,-48.44,-60.52,-78.35,-45.03,-78.41,-20.07,-50.65,-46.52,-81.58,-67.66,-85.84,-73.26,0,0,0,0,0,0,0,0,0,0,0,0,0,0,0,0,
88,-28.98,-28.84,17.6,-60.2,-51.63,-47.01,-59.53,-39.05,-93.68,-18.43,-45.97,-37.37,-91.02,-61.44,-80.44,-73.36,0,0,0,0,0,0,0,0,0,0,0,0,0,0,0,0,
89,2.09,7.999,29.07,-22.74,-40.1,-31.73,-44.59,-33.02,-84.97,-11.63,-27.79,-20.96,-72.06,-43.27,-61.39,-55.47,0,0,0,0,0,0,0,0,0,0,0,0,0,0,0,0,
90,16.13,25.17,46.66,-21.14,-29.08,-53.11,-61.34,-35.96,-64.95,-20.26,-11.26,-42.54,-70.91,-54.51,-64.31,-59.6,0,0,0,0,0,0,0,0,0,0,0,0,0,0,0,0,
91,-31.97,-10.02,29.13,-38.61,-39.83,-73.66,-69.99,-48.6,-79.44,-37.51,-16.22,-47.25,-78.12,-67.67,-65.9,-64.96,0,0,0,0,0,0,0,0,0,0,0,0,0,0,0,0,
92,-43.96,-18.27,16.34,-50.07,-44.64,-62.97,-50.1,-58.1,-87.69,-35.44,-30.32,-19.19,-65.44,-60.8,-61.41,-55.44,0,0,0,0,0,0,0,0,0,0,0,0,0,0,0,0,
93,-17.87,1.38,13.68,-68.29,-47.97,-72.29,-39.77,-60.25,-78.27,-33.88,-39.34,-19.6,-63.27,-66.33,-78.45,-61.35,0,0,0,0,0,0,0,0,0,0,0,0,0,0,0,0,
94,-29.88,-24.49,-14.92,-82.08,-74.57,-92.62,-72.32,-59.87,-88.1,-43.17,-44.9,-30.57,-75.24,-77.37,-87.67,-70.47,0,0,0,0,0,0,0,0,0,0,0,0,0,0,0,0,
95,-38.74,-50.7,-30.42,-66.75,-83.74,-72.83,-97.31,-46.45,-97.34,-34.2,-48.56,-27.09,-76.25,-73.34,-75.98,-66.15,0,0,0,0,0,0,0,0,0,0,0,0,0,0,0,0,
96,-11.91,-29.16,-15.96,-39.99,-72.67,-64.49,-81.61,-46.01,-93.27,-21.33,-54.48,-37.76,-74.41,-74.61,-77.88,-74.28,0,0,0,0,0,0,0,0,0,0,0,0,0,0,0,0,
97,-24.94,-12.17,-28.78,-33.47,-78.23,-89.64,-86.4,-65.67,-89.15,-31.46,-56.35,-41.88,-73.08,-75.01,-77.12,-82.24,0,0,0,0,0,0,0,0,0,0,0,0,0,0,0,0,
98,-60.18,-5.897,-42.68,-34.22,-66.9,-70.32,-103.3,-43.64,-71.65,-27.15,-40.79,-28.67,-63.89,-59.87,-61.5,-66.44,0,0,0,0,0,0,0,0,0,0,0,0,0,0,0,0,
99,-39.22,-3.55,-13.77,-23.91,-50.02,-34.66,-80.81,-10.69,-60.48,-3.464,-19.54,-32.81,-58.01,-57.76,-68.29,-56.33,0,0,0,0,0,0,0,0,0,0,0,0,0,0,0,0,
100,-5.892,-18.82,3.882,-19.68,-68.63,-48.96,-64.25,-33.79,-76.15,-9.061,-14.36,-38.72,-57.51,-62.62,-84.13,-58.8,0,0,0,0,0,0,0,0,0,0,0,0,0,0,0,0,
101,-5.932,-3.944,-0.2402,-31.34,-68.03,-50.73,-68.2,-51.98,-74.77,-14.31,-20.09,-33.08,-56.34,-47.72,-79.39,-54.12,0,0,0,0,0,0,0,0,0,0,0,0,0,0,0,0,
102,-5.393,29.43,14.55,-41.18,-42.33,-23.08,-51.54,-34.34,-51.05,12.71,-20.76,-38.42,-58.26,-42.88,-75.55,-54.88,0,0,0,0,0,0,0,0,0,0,0,0,0,0,0,0,
103,3.074,22.94,28.63,-33.61,-38.17,-23.34,-45.28,-30.97,-41.59,19.96,-23.24,-41.27,-55.16,-58.05,-77.78,-63.21,0,0,0,0,0,0,0,0,0,0,0,0,0,0,0,0,
104,6.744,21.13,29.39,-19.2,-26.49,-23.35,-64.32,-39.27,-36.04,13.32,-22.33,-31.08,-40.54,-56.51,-74.36,-59.49,0,0,0,0,0,0,0,0,0,0,0,0,0,0,0,0,
105,22.22,38.23,40.55,-11.57,-1.226,7.096,-43.56,-43.72,-26.3,36.62,-6.318,-21.08,-21.58,-34.28,-69.23,-40.25,0,0,0,0,0,0,0,0,0,0,0,0,0,0,0,0,
106,52.2,27.33,49.08,0.8998,8.889,31.47,-0.8037,-41.17,-18.83,56.96,-10.54,-10.42,-9.698,-17.23,-61.96,-20.39,0,0,0,0,0,0,0,0,0,0,0,0,0,0,0,0,
107,56.78,26.13,35.15,19.44,10.54,30.18,-19.37,-22.61,-7.703,53.6,-23.47,-7.042,-13.51,-18.5,-54.08,-15.43,0,0,0,0,0,0,0,0,0,0,0,0,0,0,0,0,
108,37.46,63.82,34.02,23.9,18.77,26.44,-37.54,-8.966,-0.6205,53.76,15.54,-6.19,-5.514,-14.64,-39.89,-6.001,0,0,0,0,0,0,0,0,0,0,0,0,0,0,0,0,
109,44.03,79.78,58.49,5.847,43.84,42.16,8.414,-5.562,12.43,63.4,52.56,8.691,21.31,8.664,-23.18,17.49,0,0,0,0,0,0,0,0,0,0,0,0,0,0,0,0,
110,42.12,45.29,55.34,-15.31,51.44,53.38,13.08,7.728,34.93,72.83,34.19,16.95,20.87,14.5,-26.31,18.53,0,0,0,0,0,0,0,0,0,0,0,0,0,0,0,0,
111,6.386,22.41,40.13,-1.206,27.69,47.3,-18.59,15.48,35.74,77.05,34.24,16.02,16.96,9.048,-22.32,9.461,0,0,0,0,0,0,0,0,0,0,0,0,0,0,0,0,
112,25.34,57.37,62.5,29.4,34.48,51.09,11.64,5.35,33.6,80.46,66.6,25.0,45.57,27.44,6.22,23.14,0,0,0,0,0,0,0,0,0,0,0,0,0,0,0,0,
113,75.57,80.31,57.0,17.71,44.45,48.41,20.54,-1.542,48.55,86.37,69.51,25.36,49.89,33.22,10.9,29.24,0,0,0,0,0,0,0,0,0,0,0,0,0,0,0,0,
114,52.99,47.92,16.0,-3.722,12.47,29.01,-9.956,0.0296,47.14,83.94,52.77,18.65,27.93,14.95,-1.504,23.22,0,0,0,0,0,0,0,0,0,0,0,0,0,0,0,0,
115,20.7,40.25,35.85,8.323,12.11,26.7,12.69,-1.641,33.31,69.38,43.26,24.7,22.54,11.92,3.209,28.35,0,0,0,0,0,0,0,0,0,0,0,0,0,0,0,0,
116,27.35,49.17,50.96,3.212,23.49,26.06,-1.677,-3.413,19.79,51.73,30.76,21.29,5.408,12.81,-5.295,24.56,0,0,0,0,0,0,0,0,0,0,0,0,0,0,0,0,
117,-3.189,2.014,-22.45,-25.37,-21.48,4.763,-70.14,-1.574,-1.278,41.41,17.31,3.314,-21.21,2.839,-27.15,8.232,0,0,0,0,0,0,0,0,0,0,0,0,0,0,0,0,
118,-35.09,-21.6,-52.12,-24.44,-38.87,-17.73,-43.94,-5.298,-8.26,35.77,14.33,-8.085,-30.12,-8.468,-34.74,-5.287,0,0,0,0,0,0,0,0,0,0,0,0,0,0,0,0,
119,1.634,23.93,19.12,-11.83,-6.684,-36.04,12.5,-20.28,-6.004,18.88,12.32,-16.89,-39.95,-21.78,-45.29,-21.95,0,0,0,0,0,0,0,0,0,0,0,0,0,0,0,0,
120,36.16,39.48,63.86,-22.28,-6.82,-44.89,-9.627,-32.8,-10.93,1.698,0.0642,-24.34,-43.44,-26.62,-54.83,-33.79,0,0,0,0,0,0,0,0,0,0,0,0,0,0,0,0,
121,25.58,20.42,57.18,-34.22,-14.62,-43.79,-19.92,-26.97,-5.441,-2.499,-12.24,-32.43,-41.45,-33.52,-52.49,-37.8,0,0,0,0,0,0,0,0,0,0,0,0,0,0,0,0,
122,8.751,13.03,47.93,-42.99,-14.13,-54.56,-8.266,-29.74,-14.54,-17.16,-17.87,-49.6,-62.86,-61.05,-65.39,-47.92,0,0,0,0,0,0,0,0,0,0,0,0,0,0,0,0,
123,-13.62,-10.72,17.59,-69.42,-45.23,-65.1,-38.68,-54.8,-55.65,-33.27,-16.67,-50.42,-73.53,-70.03,-73.21,-46.51,0,0,0,0,0,0,0,0,0,0,0,0,0,0,0,0,
124,-28.77,-28.65,-8.489,-83.15,-58.25,-50.33,-47.66,-48.89,-72.8,-18.24,-8.232,-32.3,-52.47,-45.28,-49.57,-27.56,0,0,0,0,0,0,0,0,0,0,0,0,0,0,0,0,
125,-19.09,-20.03,0.9032,-62.12,-38.2,-38.14,-23.06,-29.24,-58.02,-4.988,-7.083,-34.15,-49.91,-35.65,-42.73,-23.64,0,0,0,0,0,0,0,0,0,0,0,0,0,0,0,0,
126,-19.96,-21.51,1.676,-53.79,-40.7,-53.92,-34.72,-51.47,-53.29,-17.3,-10.27,-39.8,-65.23,-41.81,-55.14,-25.24,0,0,0,0,0,0,0,0,0,0,0,0,0,0,0,0,
127,-22.19,-12.62,-1.567,-64.68,-39.07,-63.23,-48.94,-45.0,-49.81,-14.06,-5.19,-21.19,-62.06,-29.67,-46.35,-10.81,0,0,0,0,0,0,0,0,0,0,0,0,0,0,0,0,
128,-12.0,-5.394,4.957,-63.73,-27.38,-46.73,-41.3,-4.98,-41.84,-1.167,-7.289,-10.35,-60.5,-20.74,-50.51,-12.01,0,0,0,0,0,0,0,0,0,0,0,0,0,0,0,0,
129,-32.5,-38.49,-17.54,-64.97,-45.58,-34.93,-57.16,-26.66,-48.38,-6.707,-15.18,-14.16,-74.56,-34.75,-74.81,-30.33,0,0,0,0,0,0,0,0,0,0,0,0,0,0,0,0,
130,-48.35,-38.37,-38.93,-55.64,-55.91,-35.96,-69.53,-50.66,-58.78,0.0531,-17.45,-12.89,-86.62,-46.28,-71.85,-33.02,0,0,0,0,0,0,0,0,0,0,0,0,0,0,0,0,
131,-23.98,0.5971,-24.53,-30.23,-51.28,-34.18,-56.35,-34.05,-66.65,10.43,-17.87,-18.32,-90.79,-45.88,-57.69,-28.17,0,0,0,0,0,0,0,0,0,0,0,0,0,0,0,0,
132,-17.73,-4.194,-8.308,-42.01,-59.29,-21.68,-49.62,-49.04,-65.25,-1.151,-2.662,-25.61,-72.02,-36.76,-49.48,-19.69,0,0,0,0,0,0,0,0,0,0,0,0,0,0,0,0,
133,-14.68,-13.45,3.068,-63.46,-47.01,4.305,-33.88,-51.88,-35.47,9.73,22.78,-24.36,-42.18,-17.16,-31.45,-3.24,0,0,0,0,0,0,0,0,0,0,0,0,0,0,0,0,
134,20.43,10.38,11.72,-33.02,-19.88,25.92,-9.865,-20.99,-7.166,35.78,36.92,-24.09,-41.27,-2.051,-19.54,6.902,0,0,0,0,0,0,0,0,0,0,0,0,0,0,0,0,
135,36.85,25.83,24.79,2.973,-0.0359,35.08,-4.743,-23.1,2.985,33.03,50.68,-13.47,-38.5,5.137,-11.46,17.63,0,0,0,0,0,0,0,0,0,0,0,0,0,0,0,0,
136,34.5,38.91,56.65,2.93,22.92,46.25,8.427,-17.33,25.8,35.17,69.5,7.151,0.2599,21.08,20.25,35.83,0,0,0,0,0,0,0,0,0,0,0,0,0,0,0,0,
137,56.52,71.05,72.3,10.04,35.28,61.94,52.27,18.15,49.83,60.19,99.01,29.81,36.96,52.4,70.21,63.68,0,0,0,0,0,0,0,0,0,0,0,0,0,0,0,0,
138,91.46,113.4,77.92,35.95,58.24,87.04,107.0,37.45,70.25,87.01,137.5,66.92,54.39,84.96,101.1,98.45,0,0,0,0,0,0,0,0,0,0,0,0,0,0,0,0,
139,93.58,118.6,87.11,23.96,85.9,104.7,111.8,43.43,93.57,103.6,132.6,82.15,50.38,87.3,80.68,96.47,0,0,0,0,0,0,0,0,0,0,0,0,0,0,0,0,
140,48.29,61.7,43.42,-19.91,48.19,83.51,30.61,22.79,75.06,90.11,82.38,51.2,14.52,62.3,40.55,63.34,0,0,0,0,0,0,0,0,0,0,0,0,0,0,0,0,
141,15.46,20.88,-10.44,-26.08,-5.518,49.12,-39.89,-11.16,31.13,63.16,45.42,32.32,-21.78,42.42,18.03,49.78,0,0,0,0,0,0,0,0,0,0,0,0,0,0,0,0,
142,13.45,16.16,-9.43,-21.68,-7.678,27.78,-41.22,-21.32,12.24,40.69,11.3,34.38,-40.88,22.44,-9.224,35.18,0,0,0,0,0,0,0,0,0,0,0,0,0,0,0,0,
143,-4.414,-5.09,-18.43,-48.55,-13.78,13.13,-60.6,-37.76,-6.362,10.08,-30.62,23.52,-51.84,5.405,-24.72,16.76,0,0,0,0,0,0,0,0,0,0,0,0,0,0,0,0,
144,-3.798,1.017,-34.04,-48.75,-31.73,17.19,-89.92,-39.23,-19.67,-0.7857,-25.05,22.91,-44.83,13.08,-1.805,29.67,0,0,0,0,0,0,0,0,0,0,0,0,0,0,0,0,
145,30.19,43.18,-5.488,-19.94,-26.09,30.43,-53.85,-9.459,-8.682,13.47,9.886,28.92,-35.24,19.01,7.492,37.75,0,0,0,0,0,0,0,0,0,0,0,0,0,0,0,0,
146,26.23,50.76,9.381,-9.141,-12.39,26.48,-19.02,-17.06,-9.115,20.63,2.178,14.06,-45.14,8.357,-13.7,20.82,0,0,0,0,0,0,0,0,0,0,0,0,0,0,0,0,
147,-3.722,25.59,-1.129,-2.66,4.256,25.92,-29.58,-28.11,-13.4,29.82,-14.74,11.76,-51.09,9.946,-20.75,18.82,0,0,0,0,0,0,0,0,0,0,0,0,0,0,0,0,
148,-5.162,0.189,17.51,-4.637,18.01,54.67,-9.276,-2.873,0.0929,40.25,15.58,31.99,-35.66,27.2,-9.201,32.5,0,0,0,0,0,0,0,0,0,0,0,0,0,0,0,0,
149,12.12,1.722,39.56,-15.13,17.82,74.26,21.31,-4.902,9.027,46.04,52.0,36.19,-20.49,44.03,0.8179,38.03,0,0,0,0,0,0,0,0,0,0,0,0,0,0,0,0,
150,31.72,36.47,33.02,-6.939,13.12,38.9,-5.579,-3.721,13.17,56.14,59.9,31.13,-24.62,52.07,5.739,35.12,0,0,0,0,0,0,0,0,0,0,0,0,0,0,0,0,
151,44.96,52.91,34.57,-10.38,1.485,0.8344,-16.0,18.4,17.53,45.76,58.42,36.52,-33.24,51.05,9.864,34.29,0,0,0,0,0,0,0,0,0,0,0,0,0,0,0,0,
152,37.71,36.18,53.08,-25.6,-9.778,12.08,20.72,-10.3,10.23,22.27,56.1,36.55,-27.36,54.93,16.85,44.4,0,0,0,0,0,0,0,0,0,0,0,0,0,0,0,0,
153,10.76,15.61,45.95,-10.21,-5.854,21.27,14.08,-26.84,3.772,20.83,57.54,30.59,-17.1,66.77,26.12,61.51,0,0,0,0,0,0,0,0,0,0,0,0,0,0,0,0,
154,-8.14,9.757,19.28,-9.314,0.1982,17.0,-11.79,9.036,10.66,26.64,65.08,30.6,-11.8,70.53,35.87,71.5,0,0,0,0,0,0,0,0,0,0,0,0,0,0,0,0,
155,0.4511,27.68,18.52,-42.83,-1.724,29.27,-1.271,0.7215,16.07,31.11,79.93,31.93,-3.689,64.4,42.76,70.64,0,0,0,0,0,0,0,0,0,0,0,0,0,0,0,0,
156,17.29,39.75,33.51,-35.79,-5.224,24.76,-4.23,-11.15,17.59,36.92,104.9,37.78,4.957,63.12,45.87,70.03,0,0,0,0,0,0,0,0,0,0,0,0,0,0,0,0,
157,29.46,29.71,31.34,-7.33,0.2287,11.88,-4.262,29.05,28.42,26.9,106.2,47.86,2.635,68.8,43.78,70.49,0,0,0,0,0,0,0,0,0,0,0,0,0,0,0,0,
158,19.36,17.76,22.06,-26.67,15.01,27.11,23.51,29.37,33.02,16.65,72.63,48.48,-7.177,72.25,34.83,65.11,0,0,0,0,0,0,0,0,0,0,0,0,0,0,0,0,
159,-21.59,2.399,23.15,-39.32,19.42,33.37,17.05,2.487,25.59,27.99,55.01,47.24,-12.37,69.51,31.32,63.41,0,0,0,0,0,0,0,0,0,0,0,0,0,0,0,0,
160,-26.99,-5.518,20.43,-19.4,9.265,11.74,4.567,5.278,32.48,35.81,58.42,47.21,-19.66,52.8,32.7,58.71,0,0,0,0,0,0,0,0,0,0,0,0,0,0,0,0,
161,8.695,-0.5218,1.754,-35.92,-2.378,-5.062,28.19,-8.643,34.94,20.45,45.17,33.55,-28.74,28.39,24.3,35.07,0,0,0,0,0,0,0,0,0,0,0,0,0,0,0,0,
162,16.08,0.0695,-4.032,-58.84,-13.1,4.293,26.79,-15.24,17.44,9.763,30.34,23.95,-19.37,25.23,19.35,17.94,0,0,0,0,0,0,0,0,0,0,0,0,0,0,0,0,
163,21.06,8.471,15.48,-38.28,-12.4,29.24,10.11,6.88,20.87,23.76,44.57,34.46,-7.046,37.97,28.73,23.11,0,0,0,0,0,0,0,0,0,0,0,0,0,0,0,0,
164,30.12,20.29,21.92,-27.66,8.912,33.51,22.65,-4.616,35.6,31.37,65.02,38.79,-9.517,37.91,36.0,26.7,0,0,0,0,0,0,0,0,0,0,0,0,0,0,0,0,
165,-1.33,24.44,7.158,-32.18,23.4,15.39,23.52,-13.75,31.23,12.05,60.0,30.53,-6.607,27.77,33.03,21.05,0,0,0,0,0,0,0,0,0,0,0,0,0,0,0,0,
166,-14.46,30.9,-0.0062,-17.9,9.292,8.323,12.74,15.91,30.28,-9.198,46.8,29.11,-7.846,19.41,26.49,16.57,0,0,0,0,0,0,0,0,0,0,0,0,0,0,0,0,
167,8.1,15.7,4.803,-12.35,-0.5995,22.06,16.43,16.95,29.65,-14.12,50.83,31.91,-23.13,20.02,25.01,19.01,0,0,0,0,0,0,0,0,0,0,0,0,0,0,0,0,
168,4.835,-9.91,8.053,-25.12,12.13,44.27,2.061,-8.022,17.25,-7.463,60.48,28.18,-30.17,21.54,16.95,19.77,0,0,0,0,0,0,0,0,0,0,0,0,0,0,0,0,
169,5.875,2.772,2.827,-30.58,8.806,40.65,-14.21,-14.37,8.26,-6.57,53.67,13.55,-44.28,-0.854,-12.96,7.708,0,0,0,0,0,0,0,0,0,0,0,0,0,0,0,0,
170,26.16,25.96,2.373,-20.79,-7.757,7.904,2.976,-19.26,-7.974,-23.79,37.31,-1.262,-64.21,-19.27,-27.49,7.207,0,0,0,0,0,0,0,0,0,0,0,0,0,0,0,0,
171,20.94,31.58,15.31,-13.21,7.031,8.194,16.7,-20.5,-20.92,-32.35,42.88,5.158,-51.88,3.365,-3.623,26.33,0,0,0,0,0,0,0,0,0,0,0,0,0,0,0,0,
172,18.07,42.73,12.98,-26.64,29.96,38.95,24.22,-7.042,2.893,-13.62,58.13,13.62,-34.99,19.68,7.061,21.8,0,0,0,0,0,0,0,0,0,0,0,0,0,0,0,0,
173,41.09,42.95,-10.89,-37.02,23.83,38.88,50.89,-13.49,30.27,-3.851,51.97,2.919,-37.69,4.686,-4.871,0.7757,0,0,0,0,0,0,0,0,0,0,0,0,0,0,0,0,
174,52.6,18.2,-6.63,-27.0,20.87,33.38,60.63,-28.59,25.05,-12.54,65.89,10.83,-18.83,11.09,9.973,11.31,0,0,0,0,0,0,0,0,0,0,0,0,0,0,0,0,
175,34.34,4.661,34.95,-28.42,40.09,51.81,41.87,-1.07,14.8,-3.784,107.4,38.69,10.99,33.24,32.63,31.23,0,0,0,0,0,0,0,0,0,0,0,0,0,0,0,0,
176,0.7292,8.015,46.64,-46.99,42.0,43.76,25.76,18.8,11.33,6.582,105.7,33.98,9.628,22.65,20.36,26.64,0,0,0,0,0,0,0,0,0,0,0,0,0,0,0,0,
177,-10.28,16.91,12.95,-53.4,14.84,8.628,18.81,-26.04,1.5,-8.595,70.26,10.42,0.1267,3.659,3.228,21.62,0,0,0,0,0,0,0,0,0,0,0,0,0,0,0,0,
178,0.6164,31.53,-4.796,-43.97,-2.788,-2.369,23.0,-48.02,-5.745,-13.58,59.3,7.738,1.496,2.663,4.52,22.79,0,0,0,0,0,0,0,0,0,0,0,0,0,0,0,0,
179,-5.513,8.331,-7.179,-43.66,-3.357,1.882,27.25,-7.036,-14.08,-7.132,77.96,11.35,-3.402,-1.284,5.584,19.1,0,0,0,0,0,0,0,0,0,0,0,0,0,0,0,0,
180,0.5258,-29.83,-21.98,-55.44,-8.65,1.873,20.32,7.166,-26.74,-14.24,98.64,8.814,-3.863,3.582,12.82,29.44,0,0,0,0,0,0,0,0,0,0,0,0,0,0,0,0,
181,18.74,2.723,-20.12,-54.38,-6.77,11.58,20.54,-14.69,-19.52,3.062,79.46,4.053,2.241,23.45,23.2,43.98,0,0,0,0,0,0,0,0,0,0,0,0,0,0,0,0,
182,-12.01,15.1,-14.38,-53.05,2.821,19.2,13.27,-23.88,-11.02,29.5,41.55,-3.162,-11.17,23.3,9.314,35.61,0,0,0,0,0,0,0,0,0,0,0,0,0,0,0,0,
183,-42.2,-55.68,-29.77,-62.03,-11.22,7.464,-21.41,-22.22,-33.49,4.706,37.52,-1.398,-23.87,17.14,-9.618,29.43,0,0,0,0,0,0,0,0,0,0,0,0,0,0,0,0,
184,-30.35,-48.9,-28.09,-51.7,-31.12,-5.654,-43.46,-14.64,-48.05,-20.18,33.81,8.655,-7.378,31.05,-6.985,37.73,0,0,0,0,0,0,0,0,0,0,0,0,0,0,0,0,
185,-26.85,20.42,-19.69,-44.49,-23.25,-4.572,-33.48,-25.46,-32.0,-2.477,9.456,9.309,2.549,33.6,-5.849,27.76,0,0,0,0,0,0,0,0,0,0,0,0,0,0,0,0,
186,-15.43,4.083,-37.62,-59.42,-17.01,2.323,-24.12,-53.68,-28.01,3.126,-2.922,0.8591,-19.49,16.04,-20.53,3.383,0,0,0,0,0,0,0,0,0,0,0,0,0,0,0,0,
187,-5.333,-22.14,-45.47,-57.52,-27.57,3.948,-24.75,-35.26,-43.68,-10.0,-2.825,1.231,-35.28,5.809,-31.45,0.2573,0,0,0,0,0,0,0,0,0,0,0,0,0,0,0,0,
188,-37.4,-15.49,-34.49,-54.27,-24.91,-2.56,-16.32,3.492,-48.5,-12.29,7.409,16.29,-21.58,3.545,-30.29,15.8,0,0,0,0,0,0,0,0,0,0,0,0,0,0,0,0,
189,-44.14,-39.58,-38.69,-60.7,-26.41,-18.81,-8.267,-15.38,-46.58,-17.93,15.38,20.56,-14.57,-3.848,-29.71,15.38,0,0,0,0,0,0,0,0,0,0,0,0,0,0,0,0,
190,-19.33,-35.27,-46.12,-45.14,-45.42,-29.64,-23.9,-48.5,-51.87,-30.09,2.927,2.146,-32.26,-19.91,-34.59,-7.304,0,0,0,0,0,0,0,0,0,0,0,0,0,0,0,0,
191,-24.02,-2.061,-36.91,-44.35,-40.36,-15.96,-34.81,-38.77,-51.38,-34.79,-2.78,-7.967,-38.83,-36.69,-39.68,-24.92,0,0,0,0,0,0,0,0,0,0,0,0,0,0,0,0,
192,-36.16,-19.62,-32.59,-65.69,-34.93,-11.31,-16.58,-24.59,-48.89,-41.35,2.993,-4.275,-30.92,-43.03,-44.95,-28.58,0,0,0,0,0,0,0,0,0,0,0,0,0,0,0,0,
193,-63.09,-50.87,-46.64,-61.98,-64.67,-39.41,-19.79,-33.31,-63.75,-53.82,-5.979,-14.62,-39.18,-46.1,-48.74,-29.92,0,0,0,0,0,0,0,0,0,0,0,0,0,0,0,0,
194,-96.62,-64.62,-64.23,-65.46,-79.84,-59.2,-62.09,-45.22,-80.65,-58.92,-22.09,-33.77,-50.27,-56.0,-51.17,-32.52,0,0,0,0,0,0,0,0,0,0,0,0,0,0,0,0,
195,-65.29,-77.14,-74.37,-76.83,-77.83,-61.74,-79.16,-52.81,-88.79,-63.48,-27.21,-35.98,-48.36,-61.04,-52.08,-29.53,0,0,0,0,0,0,0,0,0,0,0,0,0,0,0,0,
196,-25.79,-58.01,-68.41,-51.37,-80.02,-57.47,-49.42,-60.45,-99.14,-67.62,-16.22,-20.87,-48.24,-50.17,-39.85,-11.6,0,0,0,0,0,0,0,0,0,0,0,0,0,0,0,0,
197,-43.56,-24.45,-56.92,-45.99,-58.92,-37.86,-28.79,-62.57,-98.75,-47.48,-6.396,-10.28,-46.43,-39.65,-25.65,4.761,0,0,0,0,0,0,0,0,0,0,0,0,0,0,0,0,
198,-42.42,-27.44,-62.45,-71.35,-43.7,-37.44,-44.73,-45.35,-84.98,-28.98,-22.95,-9.08,-34.36,-42.36,-28.06,-1.847,0,0,0,0,0,0,0,0,0,0,0,0,0,0,0,0,
199,-20.31,-33.49,-54.59,-59.52,-44.33,-52.56,-53.12,-18.82,-72.94,-40.77,-49.84,-2.394,-22.16,-39.99,-27.81,-10.88,0,0,0,0,0,0,0,0,0,0,0,0,0,0,0,0,
200,-42.31,-18.69,-19.52,-54.66,-21.87,-34.4,-34.97,-18.4,-59.1,-39.59,-59.93,-0.0917,-14.3,-26.77,-20.48,-6.684,0,0,0,0,0,0,0,0,0,0,0,0,0,0,0,0,
201,-50.29,-21.91,-2.236,-74.69,-13.02,-18.28,-27.95,-29.15,-44.23,-22.55,-58.43,-8.35,0.5935,-21.6,-21.39,-1.333,0,0,0,0,0,0,0,0,0,0,0,0,0,0,0,0,
202,-9.277,-27.85,5.784,-48.14,-15.97,-24.51,-23.53,-18.89,-28.18,-26.87,-48.79,-1.243,26.5,-21.84,-15.42,4.879,0,0,0,0,0,0,0,0,0,0,0,0,0,0,0,0,
203,0.5472,-3.818,19.44,-17.82,10.83,-13.48,1.803,-20.68,-17.26,-29.15,-24.39,11.84,38.91,-14.2,-2.972,11.04,0,0,0,0,0,0,0,0,0,0,0,0,0,0,0,0,
204,-17.46,16.21,9.073,-24.13,17.56,-12.93,6.665,-35.25,-28.25,-23.69,-3.883,5.397,28.67,-3.879,-1.531,12.86,0,0,0,0,0,0,0,0,0,0,0,0,0,0,0,0,
205,-10.67,10.07,-4.986,-15.31,-0.2398,-34.99,-18.04,-21.84,-31.16,-32.1,-5.322,1.494,22.12,-1.055,1.48,11.1,0,0,0,0,0,0,0,0,0,0,0,0,0,0,0,0,
206,-13.71,-10.74,-2.319,-21.67,2.743,-28.15,-23.43,-8.951,-15.18,-29.61,-10.81,7.572,21.01,-6.378,8.581,2.241,0,0,0,0,0,0,0,0,0,0,0,0,0,0,0,0,
207,-23.16,-33.37,1.283,-56.76,-3.183,-18.59,-6.101,-13.76,-23.81,-16.95,-16.24,-3.701,12.18,-14.28,7.215,-5.304,0,0,0,0,0,0,0,0,0,0,0,0,0,0,0,0,
208,-8.286,-34.3,13.32,-53.81,-21.61,-52.71,0.822,-11.57,-37.48,-25.57,-28.12,-22.82,6.498,-24.51,5.085,-7.829,0,0,0,0,0,0,0,0,0,0,0,0,0,0,0,0,
209,-9.704,-21.01,18.2,-40.43,-19.13,-77.23,-4.983,-10.2,-24.22,-37.67,-22.14,-20.52,7.928,-29.88,6.716,-12.94,0,0,0,0,0,0,0,0,0,0,0,0,0,0,0,0,
210,-23.19,-13.65,-6.361,-47.45,-15.16,-64.23,-2.471,-2.694,-19.37,-32.58,-8.287,-5.159,9.473,-21.31,7.116,-9.641,0,0,0,0,0,0,0,0,0,0,0,0,0,0,0,0,
211,-24.89,3.422,-24.04,-27.49,-16.51,-66.27,8.406,4.451,-25.07,-26.93,-12.81,-1.179,12.65,-19.21,4.956,-1.413,0,0,0,0,0,0,0,0,0,0,0,0,0,0,0,0,
212,-33.26,19.74,-7.456,-5.778,5.236,-74.66,11.73,-15.16,-12.97,-24.85,-7.936,-8.215,18.51,-29.96,-1.61,-3.018,0,0,0,0,0,0,0,0,0,0,0,0,0,0,0,0,
213,-14.8,8.728,11.98,-23.73,25.08,-59.22,15.48,-20.47,-2.053,-21.08,5.839,-8.413,19.68,-27.85,-2.176,4.6,0,0,0,0,0,0,0,0,0,0,0,0,0,0,0,0,
214,34.27,-1.191,8.843,-36.74,0.227,-59.29,26.94,-3.193,-7.977,-25.58,-5.035,-0.4641,7.309,-23.04,6.351,17.89,0,0,0,0,0,0,0,0,0,0,0,0,0,0,0,0,
215,50.34,9.504,7.542,-31.38,-24.82,-66.43,23.57,-13.32,-12.65,-34.49,-24.55,-0.9083,-9.571,-34.49,-1.975,2.48,0,0,0,0,0,0,0,0,0,0,0,0,0,0,0,0,
216,31.61,14.54,15.81,-34.64,-9.457,-56.2,3.439,-30.29,-15.97,-39.44,-22.7,-7.094,-10.93,-39.07,-16.67,-17.55,0,0,0,0,0,0,0,0,0,0,0,0,0,0,0,0,
217,9.045,19.67,11.47,-24.16,2.914,-69.54,0.4735,-21.13,-22.92,-47.1,4.87,-5.323,4.497,-29.61,0.1112,-5.88,0,0,0,0,0,0,0,0,0,0,0,0,0,0,0,0,
218,-2.386,30.32,7.42,-6.166,5.868,-77.43,20.57,-9.16,-14.79,-47.88,28.65,-6.58,15.95,-29.47,15.12,3.84,0,0,0,0,0,0,0,0,0,0,0,0,0,0,0,0,
219,-3.083,12.01,6.954,-20.17,13.32,-49.02,35.49,-18.28,-3.292,-41.56,22.59,-13.63,12.37,-37.21,-0.6149,-4.448,0,0,0,0,0,0,0,0,0,0,0,0,0,0,0,0,
220,-2.083,3.638,-0.0305,-26.52,1.369,-50.79,41.67,-35.31,-8.059,-49.44,21.66,-8.881,16.27,-34.72,-1.154,4.364,0,0,0,0,0,0,0,0,0,0,0,0,0,0,0,0,
221,27.82,38.38,6.208,-12.37,-2.689,-63.54,45.07,-29.4,-0.5144,-58.46,39.78,-0.1021,32.26,-30.05,10.59,17.41,0,0,0,0,0,0,0,0,0,0,0,0,0,0,0,0,
222,56.54,26.74,8.741,-30.1,11.94,-36.64,39.39,-20.02,14.62,-56.38,37.12,0.4107,28.21,-38.44,2.5,8.071,0,0,0,0,0,0,0,0,0,0,0,0,0,0,0,0,
223,15.96,-15.91,-4.305,-43.15,1.087,-31.54,34.75,-30.32,10.65,-62.09,16.43,-4.358,13.65,-50.21,-0.5791,-2.055,0,0,0,0,0,0,0,0,0,0,0,0,0,0,0,0,
224,-24.87,-0.5231,2.928,-32.51,-12.33,-58.77,26.73,-27.88,10.92,-74.04,7.88,-13.93,15.98,-52.61,-0.5141,-5.56,0,0,0,0,0,0,0,0,0,0,0,0,0,0,0,0,
225,-8.377,6.0,17.07,-46.02,-4.355,-60.08,7.863,-22.13,11.07,-74.12,17.23,-14.47,17.26,-47.26,-7.998,-7.271,0,0,0,0,0,0,0,0,0,0,0,0,0,0,0,0,
226,4.311,1.914,16.21,-33.77,-9.716,-48.68,7.362,-35.12,-5.875,-61.64,31.49,-8.392,9.932,-44.72,0.9656,-2.362,0,0,0,0,0,0,0,0,0,0,0,0,0,0,0,0,
227,10.46,42.24,13.48,8.306,-27.25,-53.03,16.08,-34.58,-16.99,-61.12,28.92,-17.69,4.547,-54.23,3.73,-5.881,0,0,0,0,0,0,0,0,0,0,0,0,0,0,0,0,
228,16.33,23.38,6.267,-5.222,-27.96,-51.72,6.209,-27.97,-23.55,-74.93,12.59,-24.07,-3.636,-62.2,-17.57,-18.65,0,0,0,0,0,0,0,0,0,0,0,0,0,0,0,0,
229,-7.583,-27.06,6.632,-25.19,-11.97,-31.29,-3.395,-34.18,-21.56,-62.41,2.921,-17.0,-6.177,-55.87,-25.33,-20.17,0,0,0,0,0,0,0,0,0,0,0,0,0,0,0,0,
230,-7.016,8.658,17.63,-4.892,-6.146,-16.8,-9.78,-30.46,-1.202,-38.07,7.919,-14.46,5.27,-44.16,-11.97,-5.526,0,0,0,0,0,0,0,0,0,0,0,0,0,0,0,0,
231,25.36,26.38,13.54,-9.971,-17.91,-21.34,-5.483,-27.77,1.204,-39.62,20.2,-4.701,12.42,-30.63,1.362,13.65,0,0,0,0,0,0,0,0,0,0,0,0,0,0,0,0,
232,14.39,-4.302,6.305,-25.09,-18.75,-26.22,21.68,-36.01,-17.26,-36.2,14.01,8.739,4.685,-23.79,5.054,14.84,0,0,0,0,0,0,0,0,0,0,0,0,0,0,0,0,
233,-1.523,14.02,12.92,-6.751,-10.67,-28.06,22.46,-28.16,-21.56,-27.69,-6.76,5.013,-2.447,-30.76,1.309,2.779,0,0,0,0,0,0,0,0,0,0,0,0,0,0,0,0,
234,19.55,20.53,11.56,0.6467,-17.01,-34.18,-4.087,-9.268,-13.19,-41.61,-11.88,1.376,-3.513,-36.13,-0.0714,-0.0833,0,0,0,0,0,0,0,0,0,0,0,0,0,0,0,0,
235,11.89,-12.14,-9.397,-21.92,-27.89,-37.13,-4.295,-1.944,-15.12,-51.35,-13.28,5.3,-12.63,-40.62,-4.326,-3.689,0,0,0,0,0,0,0,0,0,0,0,0,0,0,0,0,
236,-15.87,-14.01,-20.3,-23.42,-26.63,-29.27,3.86,-4.738,-31.73,-45.46,-16.37,4.216,-18.76,-48.78,-10.73,-8.615,0,0,0,0,0,0,0,0,0,0,0,0,0,0,0,0,
237,-15.69,-8.583,-11.45,5.779,-18.05,-20.25,-0.1462,-10.36,-35.98,-38.29,-4.787,-0.0976,-12.82,-50.24,-10.43,-9.709,0,0,0,0,0,0,0,0,0,0,0,0,0,0,0,0,
238,-16.58,-7.423,-23.86,0.2801,-29.12,-31.97,-1.944,-14.32,-32.6,-41.0,-3.023,-5.406,-23.24,-51.88,-16.36,-21.04,0,0,0,0,0,0,0,0,0,0,0,0,0,0,0,0,
239,-17.76,4.828,-39.49,-33.91,-50.8,-44.87,-8.972,-15.39,-50.95,-54.89,-17.0,-5.588,-39.94,-49.8,-22.47,-23.31,0,0,0,0,0,0,0,0,0,0,0,0,0,0,0,0,
240,-8.03,-6.905,-17.7,-23.29,-37.84,-34.99,-17.93,-16.63,-54.33,-50.0,-23.32,-0.4585,-31.67,-40.33,-16.1,-11.42,0,0,0,0,0,0,0,0,0,0,0,0,0,0,0,0,
241,-12.34,-20.86,-7.97,-8.483,-18.39,-42.14,-16.74,-12.89,-32.17,-39.18,-35.17,-0.2698,-21.49,-45.68,-17.19,-15.25,0,0,0,0,0,0,0,0,0,0,0,0,0,0,0,0,
242,-11.73,-17.29,-14.05,-41.38,-27.73,-55.53,-4.23,-6.532,-29.81,-54.73,-46.8,-1.632,-21.88,-50.74,-25.07,-19.46,0,0,0,0,0,0,0,0,0,0,0,0,0,0,0,0,
243,-4.936,-31.75,1.931,-56.28,-28.05,-32.48,9.369,-17.41,-30.42,-60.56,-36.23,-2.527,-17.04,-36.82,-19.87,-10.91,0,0,0,0,0,0,0,0,0,0,0,0,0,0,0,0,
244,-17.83,-23.36,-4.594,-34.62,-18.56,-27.48,1.16,-25.56,-22.88,-45.87,-29.08,0.5658,-9.838,-28.48,-4.545,-5.752,0,0,0,0,0,0,0,0,0,0,0,0,0,0,0,0,
245,-28.01,14.2,-24.46,-29.11,-14.55,-46.6,-0.6467,4.387,-27.07,-34.45,-25.03,14.42,4.618,-20.54,10.1,5.359,0,0,0,0,0,0,0,0,0,0,0,0,0,0,0,0,
246,-25.29,0.4267,-3.356,-33.64,1.957,-23.7,27.1,29.05,-19.64,-16.11,0.9136,23.92,27.41,0.3722,17.35,18.64,0,0,0,0,0,0,0,0,0,0,0,0,0,0,0,0,
247,-0.0788,-16.02,31.28,-13.59,18.61,9.116,32.22,19.25,-0.2639,4.61,25.26,29.07,45.92,16.89,30.86,23.1,0,0,0,0,0,0,0,0,0,0,0,0,0,0,0,0,
248,46.84,18.54,60.67,12.65,39.67,17.12,41.87,26.65,21.06,23.19,50.99,47.53,69.65,35.81,64.11,39.34,0,0,0,0,0,0,0,0,0,0,0,0,0,0,0,0,
249,54.62,26.04,75.67,12.53,70.35,25.47,104.3,41.49,59.83,43.83,89.98,61.48,90.19,53.09,82.99,59.23,0,0,0,0,0,0,0,0,0,0,0,0,0,0,0,0,
250,35.77,20.43,47.73,18.43,61.08,12.71,106.8,26.98,76.49,41.58,82.21,48.71,68.15,34.19,56.87,48.27,0,0,0,0,0,0,0,0,0,0,0,0,0,0,0,0,
251,25.13,31.75,12.98,34.82,24.08,-24.15,26.92,22.18,37.42,15.34,24.73,24.14,16.77,2.207,12.16,17.8,0,0,0,0,0,0,0,0,0,0,0,0,0,0,0,0,
252,-14.65,-12.12,3.581,-13.76,7.08,-37.59,2.944,21.32,-9.537,-9.081,-18.0,6.165,-14.32,-3.695,-19.37,-3.341,0,0,0,0,0,0,0,0,0,0,0,0,0,0,0,0,
253,-43.69,-63.72,-16.16,-77.86,-21.12,-38.8,0.3126,-3.303,-38.6,-26.91,-54.05,-11.09,-36.3,-15.83,-40.42,-24.78,0,0,0,0,0,0,0,0,0,0,0,0,0,0,0,0,
254,-40.93,-47.27,-52.4,-39.12,-62.42,-60.89,-58.5,0.7819,-76.52,-45.22,-87.7,-29.53,-67.7,-46.49,-55.17,-47.56,0,0,0,0,0,0,0,0,0,0,0,0,0,0,0,0,
255,-59.24,-24.83,-64.84,25.79,-65.61,-78.23,-72.03,26.11,-111.4,-64.48,-80.9,-29.6,-68.2,-49.23,-51.61,-40.63,0,0,0,0,0,0,0,0,0,0,0,0,0,0,0,0,
256,-43.32,-22.71,-45.98,17.28,-42.32,-66.38,-25.91,19.23,-106.0,-66.6,-53.59,-14.61,-44.08,-32.15,-35.47,-18.4,0,0,0,0,0,0,0,0,0,0,0,0,0,0,0,0,
257,6.572,-12.11,-23.02,2.925,-23.28,-43.24,-15.38,21.8,-78.32,-46.54,-38.16,-6.68,-41.8,-29.14,-27.77,-19.16,0,0,0,0,0,0,0,0,0,0,0,0,0,0,0,0,
258,-0.8184,4.331,-8.726,17.74,-14.8,-33.42,-24.1,40.41,-62.58,-29.57,-35.99,-2.66,-43.53,-23.14,-31.16,-27.22,0,0,0,0,0,0,0,0,0,0,0,0,0,0,0,0,
259,-12.95,13.05,-9.064,14.45,-27.6,-46.73,-13.63,24.19,-57.15,-29.0,-42.97,-4.105,-39.96,-19.07,-37.27,-26.5,0,0,0,0,0,0,0,0,0,0,0,0,0,0,0,0,
260,6.931,-1.129,-20.34,3.711,-36.97,-58.76,-6.386,3.781,-58.1,-44.88,-39.92,-14.3,-44.55,-33.63,-33.24,-25.59,0,0,0,0,0,0,0,0,0,0,0,0,0,0,0,0,
261,1.794,-10.48,-16.44,9.553,-24.07,-50.25,-18.39,2.34,-54.75,-63.74,-29.03,-16.76,-35.36,-40.3,-15.21,-21.88,0,0,0,0,0,0,0,0,0,0,0,0,0,0,0,0,
262,-11.55,0.4676,-7.879,10.56,-26.27,-59.16,-25.81,-1.111,-44.27,-69.32,-28.19,-20.83,-28.16,-37.38,-4.036,-19.35,0,0,0,0,0,0,0,0,0,0,0,0,0,0,0,0,
263,-16.66,-10.75,-16.23,6.928,-39.43,-85.34,-1.509,2.9,-51.67,-74.39,-30.55,-27.68,-41.77,-37.17,-4.188,-14.34,0,0,0,0,0,0,0,0,0,0,0,0,0,0,0,0,
264,-13.04,-24.32,-16.11,18.11,-35.55,-70.81,3.088,6.46,-60.31,-69.39,-37.51,-10.13,-41.85,-25.18,-2.505,-0.98,0,0,0,0,0,0,0,0,0,0,0,0,0,0,0,0,
265,12.38,-2.719,-9.573,31.75,-37.41,-34.63,-27.89,12.05,-44.75,-36.29,-44.39,4.371,-36.17,-15.06,-4.179,-2.16,0,0,0,0,0,0,0,0,0,0,0,0,0,0,0,0,
266,6.013,13.55,-17.67,31.7,-42.42,-30.84,-12.99,25.59,-36.33,-18.93,-37.46,-8.725,-46.29,-20.88,-6.049,-11.79,0,0,0,0,0,0,0,0,0,0,0,0,0,0,0,0,
267,-27.31,-1.388,-17.24,21.33,-34.82,-44.71,10.1,6.601,-41.2,-35.87,-36.72,-5.149,-48.9,-20.02,4.296,0.5942,0,0,0,0,0,0,0,0,0,0,0,0,0,0,0,0,
268,-6.095,-13.24,-4.419,12.82,-32.13,-47.96,-20.94,-2.276,-32.37,-43.3,-43.64,10.87,-42.24,-13.59,13.44,13.72,0,0,0,0,0,0,0,0,0,0,0,0,0,0,0,0,
269,29.86,3.382,-2.72,17.41,-27.8,-41.91,-26.23,28.34,-24.2,-44.22,-35.83,-6.979,-41.06,-21.15,6.624,-0.1772,0,0,0,0,0,0,0,0,0,0,0,0,0,0,0,0,
270,13.05,9.16,-5.373,15.17,-18.22,-37.1,-6.925,2.09,-35.78,-65.33,-19.56,-23.27,-35.08,-24.25,6.509,-7.669,0,0,0,0,0,0,0,0,0,0,0,0,0,0,0,0,
271,-2.226,-13.05,4.612,-0.9684,-12.04,-28.73,-12.91,-33.46,-36.27,-69.92,5.511,2.94,-9.588,1.403,35.46,21.63,0,0,0,0,0,0,0,0,0,0,0,0,0,0,0,0,
272,20.04,-4.254,16.42,11.59,0.8861,-11.53,7.402,13.22,-7.364,-38.4,24.95,22.86,18.58,23.94,55.77,45.17,0,0,0,0,0,0,0,0,0,0,0,0,0,0,0,0,
273,28.21,15.68,7.142,38.94,-0.0279,-13.56,23.72,26.74,-0.0778,-26.73,0.0875,8.296,15.33,12.03,45.44,37.52,0,0,0,0,0,0,0,0,0,0,0,0,0,0,0,0,
274,6.427,-1.169,-6.024,34.99,-19.03,-34.94,-12.61,-13.68,-25.53,-40.58,-22.64,6.938,1.755,8.107,59.43,50.53,0,0,0,0,0,0,0,0,0,0,0,0,0,0,0,0,
275,-8.734,-2.728,7.331,33.51,-20.03,-38.79,-19.98,-3.374,-25.75,-27.25,5.378,26.2,10.27,31.5,91.85,80.65,0,0,0,0,0,0,0,0,0,0,0,0,0,0,0,0,
276,-9.017,2.785,26.85,36.85,-17.95,-32.27,3.51,9.373,-16.48,-8.853,7.345,20.88,8.311,32.48,75.05,69.51,0,0,0,0,0,0,0,0,0,0,0,0,0,0,0,0,
277,-6.583,-17.41,33.49,5.813,-21.78,-19.81,-16.33,-3.65,-28.38,-11.81,-33.84,0.7136,-9.469,13.83,41.02,44.18,0,0,0,0,0,0,0,0,0,0,0,0,0,0,0,0,
278,1.713,-4.879,38.76,8.074,-3.422,13.75,-32.04,22.21,-26.36,4.65,-32.58,6.274,-5.119,15.23,44.89,44.06,0,0,0,0,0,0,0,0,0,0,0,0,0,0,0,0,
279,20.17,25.37,32.79,72.06,11.01,27.44,-1.812,50.07,-25.85,28.64,-13.34,22.68,8.158,21.02,60.8,47.44,0,0,0,0,0,0,0,0,0,0,0,0,0,0,0,0,
280,31.38,23.12,13.25,85.95,-1.99,1.332,4.625,38.85,-39.25,25.37,-26.43,15.01,7.181,14.9,67.21,48.62,0,0,0,0,0,0,0,0,0,0,0,0,0,0,0,0,
281,12.15,24.89,16.59,43.3,-6.377,-8.499,-21.84,28.48,-23.96,21.44,-23.89,-8.022,3.819,12.92,66.3,45.3,0,0,0,0,0,0,0,0,0,0,0,0,0,0,0,0,
282,-4.092,32.68,44.52,36.51,11.14,14.18,-8.26,28.08,-8.998,21.55,-3.245,-16.76,0.9053,16.37,59.75,29.36,0,0,0,0,0,0,0,0,0,0,0,0,0,0,0,0,
283,26.79,21.24,49.77,44.42,27.17,34.93,30.04,27.9,-22.47,14.56,5.184,-11.89,1.069,18.39,62.04,25.12,0,0,0,0,0,0,0,0,0,0,0,0,0,0,0,0,
284,58.59,25.22,40.7,40.98,37.57,42.63,28.27,23.11,-16.63,22.21,22.98,-9.784,20.81,26.43,73.14,37.12,0,0,0,0,0,0,0,0,0,0,0,0,0,0,0,0,
285,52.56,66.06,62.85,57.6,50.17,30.72,12.9,-0.8452,8.518,33.36,45.42,-0.4924,49.21,40.76,83.42,47.41,0,0,0,0,0,0,0,0,0,0,0,0,0,0,0,0,
286,47.07,97.92,86.3,56.77,53.97,15.03,25.88,-3.153,18.77,28.96,46.71,18.02,59.28,45.61,92.64,61.96,0,0,0,0,0,0,0,0,0,0,0,0,0,0,0,0,
287,47.2,73.72,80.19,30.81,42.1,26.71,40.43,34.36,16.41,30.36,28.25,21.67,54.74,39.83,91.13,73.66,0,0,0,0,0,0,0,0,0,0,0,0,0,0,0,0,
288,35.85,26.57,72.4,36.02,23.75,25.67,31.91,32.71,-1.36,30.3,3.192,15.3,40.15,33.63,73.49,62.73,0,0,0,0,0,0,0,0,0,0,0,0,0,0,0,0,
289,25.97,15.32,60.55,42.64,4.632,-6.742,8.05,5.548,-30.7,11.43,-11.37,14.36,12.38,22.13,55.52,46.58,0,0,0,0,0,0,0,0,0,0,0,0,0,0,0,0,
290,11.18,23.71,40.87,21.84,-1.568,-17.32,-11.67,22.85,-41.81,1.035,-19.92,6.8,-3.693,6.515,51.53,43.58,0,0,0,0,0,0,0,0,0,0,0,0,0,0,0,0,
291,-10.47,10.54,34.12,20.68,2.552,-24.24,-7.86,23.49,-40.94,0.56,-28.82,-2.206,-4.804,-3.191,52.51,35.56,0,0,0,0,0,0,0,0,0,0,0,0,0,0,0,0,
292,-19.98,-15.04,32.93,33.45,-11.83,-41.02,0.086,2.14,-56.46,-7.977,-32.48,-3.535,-16.14,-14.21,42.1,15.48,0,0,0,0,0,0,0,0,0,0,0,0,0,0,0,0,
293,-26.81,-20.08,36.33,21.12,-32.62,-26.09,-6.702,22.37,-68.65,-5.564,-40.99,-17.91,-28.58,-25.95,29.33,2.385,0,0,0,0,0,0,0,0,0,0,0,0,0,0,0,0,
294,-41.41,-8.062,37.64,-0.0659,-35.79,-26.51,3.567,19.8,-66.37,0.0867,-43.33,-37.58,-34.04,-23.74,24.8,-3.061,0,0,0,0,0,0,0,0,0,0,0,0,0,0,0,0,
295,-46.85,-16.46,22.93,-1.924,-37.74,-58.99,10.9,-6.122,-79.83,-9.915,-38.06,-33.36,-39.68,-19.51,16.4,-12.28,0,0,0,0,0,0,0,0,0,0,0,0,0,0,0,0,
296,-33.74,-37.98,25.5,12.51,-39.58,-56.18,-32.39,24.97,-88.68,-9.564,-51.28,-15.8,-33.49,-26.8,9.622,-15.55,0,0,0,0,0,0,0,0,0,0,0,0,0,0,0,0,
297,-17.41,-30.29,46.16,29.95,-28.45,-33.45,-48.76,48.24,-64.53,0.4777,-50.56,-1.995,-17.95,-21.79,19.32,-4.025,0,0,0,0,0,0,0,0,0,0,0,0,0,0,0,0,
298,-21.54,-14.88,46.44,35.53,-21.94,-25.24,0.9925,15.03,-52.78,0.1271,-32.0,1.102,-14.4,-8.617,25.85,0.9864,0,0,0,0,0,0,0,0,0,0,0,0,0,0,0,0,
299,-40.98,-36.54,40.51,8.121,-31.7,-34.88,7.677,-4.989,-75.1,-6.148,-49.52,-14.39,-25.57,-23.91,18.86,-9.539,0,0,0,0,0,0,0,0,0,0,0,0,0,0,0,0,
300,-48.6,-53.59,43.03,-21.88,-32.45,-56.51,-25.01,6.77,-88.7,-18.04,-65.03,-23.85,-28.99,-34.07,24.53,-3.662,0,0,0,0,0,0,0,0,0,0,0,0,0,0,0,0,
301,-44.59,-18.71,43.72,2.34,-18.29,-41.08,-16.92,7.734,-74.58,-12.6,-43.94,-14.98,-11.86,-6.615,41.46,18.38,0,0,0,0,0,0,0,0,0,0,0,0,0,0,0,0,
302,-36.86,1.749,43.77,31.96,-25.08,-17.31,-11.53,-8.321,-59.54,12.05,-35.97,-16.82,-1.515,2.773,45.91,21.63,0,0,0,0,0,0,0,0,0,0,0,0,0,0,0,0,
303,-24.02,-29.29,40.74,9.014,-36.48,-36.57,-14.04,4.619,-61.42,6.955,-37.08,-16.86,-3.137,-8.556,48.94,21.62,0,0,0,0,0,0,0,0,0,0,0,0,0,0,0,0,
304,-25.99,-30.75,43.62,-4.941,-14.34,-36.12,8.813,35.93,-60.82,-5.381,-30.35,6.954,10.48,5.868,56.38,33.68,0,0,0,0,0,0,0,0,0,0,0,0,0,0,0,0,
305,-32.17,-4.573,59.69,22.26,-2.967,-16.74,-1.466,31.26,-51.73,15.13,-39.04,21.7,22.5,16.08,53.07,31.53,0,0,0,0,0,0,0,0,0,0,0,0,0,0,0,0,
306,-18.11,-22.03,62.63,41.37,-13.15,-27.91,-33.22,38.7,-52.13,27.75,-43.39,18.39,15.42,9.004,51.81,24.02,0,0,0,0,0,0,0,0,0,0,0,0,0,0,0,0,
307,-30.63,-40.46,44.56,37.18,1.156,-30.31,-25.46,74.66,-52.97,23.02,-32.94,18.22,8.636,12.05,55.62,26.89,0,0,0,0,0,0,0,0,0,0,0,0,0,0,0,0,
308,-58.48,-22.84,33.03,25.44,8.54,-18.35,-20.0,68.0,-46.19,30.61,-33.56,16.9,6.892,7.132,43.7,23.06,0,0,0,0,0,0,0,0,0,0,0,0,0,0,0,0,
309,-30.85,-16.01,30.47,15.36,-10.24,-17.95,-29.06,53.94,-43.09,43.4,-31.48,15.72,7.291,-6.213,30.02,12.35,0,0,0,0,0,0,0,0,0,0,0,0,0,0,0,0,
310,-14.26,-18.98,20.35,13.61,-13.03,-23.56,-11.97,66.58,-44.34,45.6,-20.35,20.8,10.07,-3.789,32.92,4.574,0,0,0,0,0,0,0,0,0,0,0,0,0,0,0,0,
311,-46.77,-15.35,19.67,15.77,-3.866,-32.38,-8.723,60.69,-47.13,33.97,-29.5,26.82,17.85,5.076,41.28,7.285,0,0,0,0,0,0,0,0,0,0,0,0,0,0,0,0,
312,-46.37,-31.23,33.38,8.192,6.832,-20.84,-38.75,58.2,-40.02,28.65,-47.14,31.81,34.91,12.15,47.76,18.65,0,0,0,0,0,0,0,0,0,0,0,0,0,0,0,0,
313,-48.95,-50.04,32.29,-4.486,25.48,-5.69,-24.43,65.77,-25.58,37.11,-48.98,24.83,44.23,15.65,49.08,17.11,0,0,0,0,0,0,0,0,0,0,0,0,0,0,0,0,
314,-72.84,-30.2,29.58,-4.513,33.61,-25.24,15.17,43.98,-26.05,30.13,-53.02,11.14,46.22,19.09,49.58,17.29,0,0,0,0,0,0,0,0,0,0,0,0,0,0,0,0,
315,-27.17,-3.663,36.03,-7.416,36.7,-24.6,-15.13,25.15,-17.08,23.59,-59.97,16.65,60.94,39.39,61.36,39.54,0,0,0,0,0,0,0,0,0,0,0,0,0,0,0,0,
316,25.75,-9.817,24.97,-14.9,48.47,12.96,-33.24,37.82,17.3,43.96,-46.27,26.01,70.18,58.41,70.59,48.44,0,0,0,0,0,0,0,0,0,0,0,0,0,0,0,0,
317,11.9,-9.813,21.68,4.189,46.29,16.72,29.88,47.3,28.44,54.6,-20.12,15.0,59.96,48.06,61.98,35.91,0,0,0,0,0,0,0,0,0,0,0,0,0,0,0,0,
318,5.22,5.017,39.5,17.7,30.02,-5.298,34.5,34.81,11.52,42.85,-4.787,2.497,48.83,30.06,48.38,31.9,0,0,0,0,0,0,0,0,0,0,0,0,0,0,0,0,
319,4.149,-4.334,36.26,-0.4757,27.76,-5.258,-17.34,26.99,9.771,36.57,-11.85,-1.298,41.26,24.68,35.55,27.4,0,0,0,0,0,0,0,0,0,0,0,0,0,0,0,0,
320,-21.82,-12.98,23.31,-1.702,30.0,-3.015,-0.7039,45.4,15.67,35.74,-23.04,-8.2,35.77,17.72,22.03,15.87,0,0,0,0,0,0,0,0,0,0,0,0,0,0,0,0,
321,-23.3,-6.477,19.88,14.19,18.76,-15.91,17.66,60.44,6.72,33.27,-8.211,-17.69,33.8,5.661,15.35,13.23,0,0,0,0,0,0,0,0,0,0,0,0,0,0,0,0,
322,-14.74,-14.7,3.113,11.43,7.513,-24.73,1.46,42.96,-4.623,27.19,-0.9523,-26.38,17.77,-9.622,6.451,5.088,0,0,0,0,0,0,0,0,0,0,0,0,0,0,0,0,
323,-30.86,-24.95,-17.34,-2.362,-11.5,-38.51,4.431,17.44,-19.6,5.998,-32.7,-32.26,-17.09,-36.44,-10.51,-19.37,0,0,0,0,0,0,0,0,0,0,0,0,0,0,0,0,
324,-41.54,-34.8,-27.23,-8.56,-46.36,-70.21,-18.7,14.14,-52.15,-25.22,-51.71,-34.39,-38.72,-60.31,-16.9,-33.97,0,0,0,0,0,0,0,0,0,0,0,0,0,0,0,0,
325,-58.47,-53.83,-40.1,-8.751,-60.62,-86.05,-46.06,23.96,-79.57,-41.02,-42.06,-39.33,-38.13,-64.96,-14.0,-27.78,0,0,0,0,0,0,0,0,0,0,0,0,0,0,0,0,
326,-95.12,-62.72,-44.36,-25.7,-47.25,-74.54,-27.6,22.1,-79.39,-32.94,-38.52,-38.96,-37.28,-60.18,-9.637,-15.7,0,0,0,0,0,0,0,0,0,0,0,0,0,0,0,0,
327,-83.35,-67.92,-18.72,-33.44,-36.1,-70.32,-21.02,14.46,-65.24,-20.54,-30.05,-23.36,-30.3,-49.18,6.122,-6.676,0,0,0,0,0,0,0,0,0,0,0,0,0,0,0,0,
328,-39.95,-68.36,4.042,2.066,-39.86,-82.74,-17.33,18.48,-55.67,-21.52,-12.48,-14.55,-19.4,-39.21,16.56,-4.605,0,0,0,0,0,0,0,0,0,0,0,0,0,0,0,0,
329,-59.54,-53.11,-10.38,13.71,-49.58,-87.04,1.996,21.28,-57.15,-29.3,-3.852,-23.53,-16.24,-41.12,12.82,-2.43,0,0,0,0,0,0,0,0,0,0,0,0,0,0,0,0,
330,-80.56,-45.37,-12.46,-12.15,-27.99,-59.24,0.7603,11.01,-47.29,-22.73,2.236,-29.15,3.646,-39.57,16.96,3.558,0,0,0,0,0,0,0,0,0,0,0,0,0,0,0,0,
331,-36.11,-34.45,23.77,-10.27,16.38,-21.25,17.96,-2.793,-12.18,-0.7472,5.466,-26.49,23.38,-34.52,15.06,-3.263,0,0,0,0,0,0,0,0,0,0,0,0,0,0,0,0,
332,-13.58,-4.06,40.68,1.965,28.2,-14.9,44.05,-8.706,9.517,13.12,9.274,-22.06,19.3,-33.72,5.403,-10.92,0,0,0,0,0,0,0,0,0,0,0,0,0,0,0,0,
333,-15.36,12.74,39.6,16.33,37.15,-12.85,26.73,-4.475,17.78,19.4,24.95,-14.49,36.71,-21.88,22.94,2.791,0,0,0,0,0,0,0,0,0,0,0,0,0,0,0,0,
334,8.485,6.116,54.91,32.58,71.3,10.65,27.52,2.204,44.45,35.26,38.47,-11.48,62.32,-9.812,43.19,13.73,0,0,0,0,0,0,0,0,0,0,0,0,0,0,0,0,
335,14.52,-2.144,60.85,10.19,73.31,22.8,64.66,10.95,55.89,49.01,51.41,-11.96,52.59,-8.482,35.73,11.82,0,0,0,0,0,0,0,0,0,0,0,0,0,0,0,0,
336,20.76,10.68,52.01,11.18,50.54,30.04,73.42,16.83,39.58,49.72,65.87,0.0129,42.99,0.0455,30.37,15.05,0,0,0,0,0,0,0,0,0,0,0,0,0,0,0,0,
337,42.12,44.96,45.0,51.99,54.62,43.27,54.33,20.74,32.32,48.09,54.18,20.69,40.67,9.695,35.63,19.02,0,0,0,0,0,0,0,0,0,0,0,0,0,0,0,0,
338,15.28,46.73,29.55,29.36,54.82,28.47,25.82,38.89,27.13,50.06,34.2,28.06,22.91,8.127,30.87,16.16,0,0,0,0,0,0,0,0,0,0,0,0,0,0,0,0,
339,-22.25,1.736,4.648,0.6244,15.68,-10.46,-5.496,38.58,9.978,47.45,28.33,15.94,1.155,-6.718,7.477,-2.859,0,0,0,0,0,0,0,0,0,0,0,0,0,0,0,0,
340,-16.94,-19.41,-13.83,45.4,-22.72,-42.24,-16.02,13.59,-12.36,25.15,6.912,3.743,-25.3,-36.65,-22.3,-30.82,0,0,0,0,0,0,0,0,0,0,0,0,0,0,0,0,
341,-17.34,-8.985,-17.62,53.89,-27.71,-49.78,-12.58,22.63,-38.91,-5.105,-10.14,-3.296,-46.85,-59.56,-28.36,-33.99,0,0,0,0,0,0,0,0,0,0,0,0,0,0,0,0,
342,-37.77,-22.74,-26.31,12.01,-31.06,-33.44,-17.2,29.85,-54.19,-16.13,-6.666,-21.8,-51.6,-69.18,-20.82,-29.92,0,0,0,0,0,0,0,0,0,0,0,0,0,0,0,0,
343,-45.7,-32.94,-50.24,21.36,-41.95,-34.11,-24.75,-1.43,-48.97,-24.86,-33.82,-36.46,-55.23,-80.25,-26.42,-41.33,0,0,0,0,0,0,0,0,0,0,0,0,0,0,0,0,
344,-38.99,-8.966,-61.21,36.1,-38.41,-61.55,-27.75,-14.13,-41.3,-44.46,-58.41,-31.04,-55.99,-80.1,-24.81,-37.78,0,0,0,0,0,0,0,0,0,0,0,0,0,0,0,0,
345,-33.2,-12.48,-57.45,11.65,-41.61,-63.35,-37.5,-22.28,-41.55,-45.26,-32.59,-33.91,-57.62,-71.63,-13.66,-31.95,0,0,0,0,0,0,0,0,0,0,0,0,0,0,0,0,
346,-42.2,-44.64,-54.01,18.36,-51.53,-45.5,-54.01,-33.68,-38.91,-37.12,-15.18,-44.93,-63.97,-73.09,-9.862,-41.02,0,0,0,0,0,0,0,0,0,0,0,0,0,0,0,0,
347,-53.7,-44.26,-46.04,28.72,-42.64,-53.18,-54.43,-15.44,-33.94,-49.92,-11.71,-38.58,-55.98,-72.89,-6.676,-31.84,0,0,0,0,0,0,0,0,0,0,0,0,0,0,0,0,
348,-44.18,-31.18,-43.16,-9.011,-33.45,-56.2,-52.34,-22.87,-42.56,-55.16,4.582,-31.61,-48.74,-67.22,-17.75,-22.6,0,0,0,0,0,0,0,0,0,0,0,0,0,0,0,0,
349,-37.55,-24.75,-42.86,-15.12,-20.88,-26.65,-67.28,-39.81,-43.2,-36.43,6.739,-27.73,-44.84,-58.18,-30.13,-30.91,0,0,0,0,0,0,0,0,0,0,0,0,0,0,0,0,
350,-50.07,-5.707,-29.64,22.59,3.704,-5.885,-49.73,-16.23,-16.12,-23.48,20.83,-9.897,-15.46,-39.32,-5.805,-17.22,0,0,0,0,0,0,0,0,0,0,0,0,0,0,0,0,
351,-28.18,3.24,-14.11,24.53,11.06,-8.349,1.795,-30.81,-1.717,-14.38,43.28,-3.234,7.632,-29.83,12.55,-0.2514,0,0,0,0,0,0,0,0,0,0,0,0,0,0,0,0,
352,20.01,1.331,-6.418,8.808,18.18,-8.755,6.822,-66.04,-4.933,3.705,23.01,-18.4,0.748,-35.15,-0.4248,-10.7,0,0,0,0,0,0,0,0,0,0,0,0,0,0,0,0,
353,21.54,8.989,-7.445,11.28,43.59,2.743,-17.34,-47.54,4.843,14.56,13.31,-23.69,7.701,-30.35,9.371,-9.426,0,0,0,0,0,0,0,0,0,0,0,0,0,0,0,0,
354,7.551,4.262,-6.87,6.702,49.38,16.3,-5.176,-44.32,2.555,14.45,33.3,-18.71,28.42,-24.31,33.85,11.85,0,0,0,0,0,0,0,0,0,0,0,0,0,0,0,0,
355,1.727,-8.286,4.467,-0.0165,35.81,-0.0709,4.866,-63.15,-14.67,5.866,24.68,-17.63,30.08,-26.94,36.8,24.58,0,0,0,0,0,0,0,0,0,0,0,0,0,0,0,0,
356,-30.37,-0.1329,9.084,12.71,35.38,-31.85,-9.796,-44.14,-7.723,-3.357,23.48,-6.874,33.74,-14.23,42.68,30.45,0,0,0,0,0,0,0,0,0,0,0,0,0,0,0,0,
357,-20.58,14.46,8.946,25.31,39.37,-16.6,3.149,-25.07,10.06,11.5,54.4,11.84,52.93,2.698,58.59,32.67,0,0,0,0,0,0,0,0,0,0,0,0,0,0,0,0,
358,30.08,16.14,23.34,21.73,39.93,20.78,42.76,-8.286,13.91,34.54,75.2,26.14,65.33,8.258,76.67,40.31,0,0,0,0,0,0,0,0,0,0,0,0,0,0,0,0,
359,21.03,16.96,41.98,34.41,57.97,32.09,67.43,33.15,16.9,43.46,95.63,48.4,74.05,27.83,104.4,62.8,0,0,0,0,0,0,0,0,0,0,0,0,0,0,0,0,
360,4.522,27.48,37.73,64.97,75.96,40.99,63.65,44.68,23.16,57.61,104.9,66.5,74.06,34.42,106.7,62.63,0,0,0,0,0,0,0,0,0,0,0,0,0,0,0,0,
361,8.179,24.83,-2.861,59.51,52.8,39.22,27.34,19.22,15.05,55.17,63.4,47.95,39.95,-7.428,58.7,23.84,0,0,0,0,0,0,0,0,0,0,0,0,0,0,0,0,
362,-38.32,-12.02,-47.15,29.51,7.448,9.003,-29.83,10.19,-19.07,11.46,4.267,14.5,-7.944,-41.03,7.31,-7.799,0,0,0,0,0,0,0,0,0,0,0,0,0,0,0,0,
363,-69.1,-49.86,-65.35,9.648,-27.7,-16.06,-74.59,4.249,-64.17,-22.04,-38.07,-2.77,-43.16,-44.6,-16.73,-22.29,0,0,0,0,0,0,0,0,0,0,0,0,0,0,0,0,
364,-41.43,-44.47,-70.95,-10.76,-37.55,-17.44,-80.66,-15.63,-85.47,-21.16,-60.32,-13.56,-61.07,-56.08,-29.48,-41.91,0,0,0,0,0,0,0,0,0,0,0,0,0,0,0,0,
365,-23.47,-11.13,-54.86,0.2909,-2.638,3.871,-56.42,-25.57,-73.09,-17.94,-46.54,-15.84,-42.84,-52.59,-26.04,-45.64,0,0,0,0,0,0,0,0,0,0,0,0,0,0,0,0,
366,-7.786,5.332,-27.54,37.76,28.49,26.9,-37.91,-39.4,-54.17,-14.07,-14.81,-10.65,-7.315,-25.53,1.339,-22.01,0,0,0,0,0,0,0,0,0,0,0,0,0,0,0,0,
367,7.43,-0.6224,-27.01,38.01,17.57,30.54,-28.09,-53.34,-39.43,1.56,2.912,-18.48,6.213,-15.44,21.02,-7.453,0,0,0,0,0,0,0,0,0,0,0,0,0,0,0,0,
368,-12.5,-2.184,-24.08,36.77,28.24,35.76,-8.092,-30.4,-20.65,11.26,9.897,-20.59,13.66,-9.375,20.53,-8.467,0,0,0,0,0,0,0,0,0,0,0,0,0,0,0,0,
369,-13.36,20.46,-4.013,61.29,61.21,43.69,10.87,-6.268,-10.34,7.006,10.44,2.149,28.92,17.14,32.35,6.337,0,0,0,0,0,0,0,0,0,0,0,0,0,0,0,0,
370,34.23,52.24,3.619,52.32,67.46,45.34,26.18,-7.308,-5.814,13.87,20.05,17.79,36.57,44.79,52.47,25.94,0,0,0,0,0,0,0,0,0,0,0,0,0,0,0,0,
371,62.06,48.89,12.27,26.99,77.68,61.19,45.18,0.4402,9.803,34.51,45.74,10.22,39.13,60.21,48.36,22.98,0,0,0,0,0,0,0,0,0,0,0,0,0,0,0,0,
372,54.17,33.56,34.38,50.12,103.8,85.37,62.52,-3.078,24.21,48.99,55.99,2.608,50.33,68.39,42.0,21.12,0,0,0,0,0,0,0,0,0,0,0,0,0,0,0,0,
373,50.92,58.48,58.88,97.07,122.2,99.01,85.04,-22.64,42.07,71.85,60.64,1.229,69.9,70.53,49.32,29.03,0,0,0,0,0,0,0,0,0,0,0,0,0,0,0,0,
374,47.49,63.84,63.13,89.68,125.9,90.62,98.77,-10.04,65.4,89.41,69.74,-7.652,74.01,59.88,37.74,18.95,0,0,0,0,0,0,0,0,0,0,0,0,0,0,0,0,
375,40.55,30.96,37.26,38.79,105.1,65.32,77.85,7.582,59.21,63.69,44.14,-15.27,56.7,46.22,21.61,11.16,0,0,0,0,0,0,0,0,0,0,0,0,0,0,0,0,
376,37.16,36.72,30.08,38.26,89.53,61.02,49.34,-1.225,40.82,44.86,18.65,-7.553,48.26,47.1,26.22,20.77,0,0,0,0,0,0,0,0,0,0,0,0,0,0,0,0,
377,20.72,37.05,36.45,70.78,90.98,67.03,45.75,10.12,42.68,65.44,25.69,-7.603,45.96,40.86,14.66,8.252,0,0,0,0,0,0,0,0,0,0,0,0,0,0,0,0,
378,5.595,-0.7093,2.515,58.77,68.25,47.19,51.94,43.62,36.11,60.07,13.89,-24.5,29.61,17.1,-10.97,-14.74,0,0,0,0,0,0,0,0,0,0,0,0,0,0,0,0,
379,-2.586,5.064,-19.33,44.68,51.03,29.88,52.28,39.98,22.4,28.29,10.39,-23.8,16.88,14.76,-6.501,-6.362,0,0,0,0,0,0,0,0,0,0,0,0,0,0,0,0,
380,-5.646,31.01,13.39,67.0,73.76,37.58,60.5,5.579,32.22,30.8,40.7,-5.118,18.04,31.43,6.947,6.535,0,0,0,0,0,0,0,0,0,0,0,0,0,0,0,0,
381,29.01,27.01,38.96,74.26,78.82,53.6,70.81,6.872,48.71,51.64,35.17,2.467,19.7,25.14,-1.353,-6.367,0,0,0,0,0,0,0,0,0,0,0,0,0,0,0,0,
382,45.61,22.86,27.88,44.19,55.62,62.81,57.12,33.76,49.11,49.84,17.13,0.846,16.5,6.157,-7.408,-21.28,0,0,0,0,0,0,0,0,0,0,0,0,0,0,0,0,
383,9.582,20.29,5.698,17.27,54.69,60.6,42.81,23.94,43.59,38.08,37.18,-0.6948,11.04,2.748,5.146,-18.14,0,0,0,0,0,0,0,0,0,0,0,0,0,0,0,0,
384,4.349,22.95,-7.695,30.9,62.03,57.67,55.55,0.7382,46.53,34.56,46.89,3.637,6.246,6.261,24.02,-5.644,0,0,0,0,0,0,0,0,0,0,0,0,0,0,0,0,
385,-4.632,18.65,-10.79,43.95,49.76,47.4,68.44,6.977,47.12,30.99,40.16,15.43,5.226,14.3,40.56,8.665,0,0,0,0,0,0,0,0,0,0,0,0,0,0,0,0,
386,-39.37,-10.27,-14.87,14.82,39.34,26.99,63.8,11.5,33.43,26.7,43.21,12.16,12.38,27.82,49.42,20.53,0,0,0,0,0,0,0,0,0,0,0,0,0,0,0,0,
387,0.2539,-3.405,-18.05,4.658,34.72,20.1,47.5,-4.503,20.75,25.49,37.72,-7.429,17.37,21.38,43.61,17.92,0,0,0,0,0,0,0,0,0,0,0,0,0,0,0,0,
388,38.8,27.93,-14.18,25.77,28.11,19.21,35.32,-13.18,20.07,22.97,28.16,-14.16,7.837,4.613,27.02,4.933,0,0,0,0,0,0,0,0,0,0,0,0,0,0,0,0,
389,-3.033,13.69,-15.32,13.27,29.83,19.14,39.55,-5.115,28.53,25.81,26.72,-13.84,-0.2541,5.487,12.67,-4.028,0,0,0,0,0,0,0,0,0,0,0,0,0,0,0,0,
390,-28.62,-9.706,-28.91,-4.302,26.0,23.08,35.46,-10.3,30.86,24.06,15.19,-28.01,-3.078,-5.86,4.875,-14.67,0,0,0,0,0,0,0,0,0,0,0,0,0,0,0,0,
391,-39.31,-23.96,-34.64,4.163,16.39,6.038,30.97,-39.77,16.65,11.42,-7.809,-40.32,-9.905,-27.66,0.2281,-23.29,0,0,0,0,0,0,0,0,0,0,0,0,0,0,0,0,
392,-67.56,-54.52,-27.91,-12.85,17.69,-10.72,48.43,-49.58,17.88,22.2,-12.37,-33.95,-6.852,-13.96,-0.4061,-16.08,0,0,0,0,0,0,0,0,0,0,0,0,0,0,0,0,
393,-68.48,-59.81,-40.75,-37.85,3.209,-10.19,47.47,-28.12,30.42,36.91,7.645,-28.65,-1.366,-1.169,2.822,-7.853,0,0,0,0,0,0,0,0,0,0,0,0,0,0,0,0,
394,-56.0,-33.55,-53.43,-19.2,-11.27,-29.49,35.82,-17.82,15.96,14.22,26.33,-35.63,-5.458,-17.92,2.502,-9.747,0,0,0,0,0,0,0,0,0,0,0,0,0,0,0,0,
395,-39.82,-31.43,-31.31,0.0278,12.3,-36.84,52.47,-20.94,12.63,1.665,48.58,-33.93,-1.662,-12.11,-2.925,-10.52,0,0,0,0,0,0,0,0,0,0,0,0,0,0,0,0,
396,-25.67,-50.98,-29.18,-9.994,17.16,-9.697,58.12,-16.43,31.25,14.98,66.79,-21.76,-1.297,6.611,-4.832,-11.39,0,0,0,0,0,0,0,0,0,0,0,0,0,0,0,0,
397,-52.71,-50.63,-62.08,-10.35,-13.8,-20.73,34.42,-12.19,20.63,2.958,38.92,-20.66,-13.2,-2.417,-7.145,-21.06,0,0,0,0,0,0,0,0,0,0,0,0,0,0,0,0,
398,-76.35,-39.15,-67.4,-7.901,-20.84,-55.38,14.72,-14.55,9.259,-20.77,6.2,-26.81,-10.59,-8.145,-12.37,-31.26,0,0,0,0,0,0,0,0,0,0,0,0,0,0,0,0,
399,-59.53,-47.92,-58.7,-22.7,-20.41,-35.01,19.1,-16.95,21.24,-23.45,21.16,-27.33,-3.445,3.583,0.4596,-26.27,0,0,0,0,0,0,0,0,0,0,0,0,0,0,0,0,
400,-63.36,-55.68,-69.12,-15.54,-29.64,-0.6963,41.51,-16.81,16.18,-14.88,36.33,-22.88,-7.117,10.4,21.13,-12.77,0,0,0,0,0,0,0,0,0,0,0,0,0,0,0,0,
401,-82.89,-37.02,-67.88,18.25,-6.865,-0.719,43.02,-10.05,10.65,-0.043,27.27,-12.1,2.931,17.61,17.44,-8.689,0,0,0,0,0,0,0,0,0,0,0,0,0,0,0,0,
402,-52.63,-23.11,-50.94,28.87,21.3,6.753,28.03,10.53,29.22,9.748,19.59,-8.894,20.19,23.91,10.78,-8.156,0,0,0,0,0,0,0,0,0,0,0,0,0,0,0,0,
403,-15.53,-24.22,-46.22,11.95,0.9264,12.01,27.9,24.79,34.82,-7.798,15.86,-26.43,16.81,18.51,18.38,-4.794,0,0,0,0,0,0,0,0,0,0,0,0,0,0,0,0,
404,-30.6,-13.67,-49.91,0.586,-26.66,-15.3,11.39,7.073,19.49,-36.65,7.63,-41.72,4.236,13.99,13.32,-9.809,0,0,0,0,0,0,0,0,0,0,0,0,0,0,0,0,
405,-48.11,-11.04,-50.74,-7.99,-12.02,-21.19,-16.61,-18.69,14.79,-38.78,-20.07,-47.19,-4.309,8.489,-1.315,-23.31,0,0,0,0,0,0,0,0,0,0,0,0,0,0,0,0,
406,-53.64,-31.01,-56.65,-26.22,-1.772,-6.568,-7.051,-28.24,11.24,-25.33,-43.49,-57.96,-14.01,-10.14,-9.168,-33.3,0,0,0,0,0,0,0,0,0,0,0,0,0,0,0,0,
407,-71.59,-30.22,-57.35,-24.8,-25.9,-26.38,17.57,-27.38,-15.78,-34.12,-22.72,-59.21,-17.8,-22.39,-14.31,-31.91,0,0,0,0,0,0,0,0,0,0,0,0,0,0,0,0,
408,-58.62,-14.81,-37.58,-1.274,-33.15,-39.25,14.52,-19.37,-31.93,-51.29,-2.819,-52.07,-18.16,-17.7,-15.16,-27.53,0,0,0,0,0,0,0,0,0,0,0,0,0,0,0,0,
409,-35.01,-27.79,-26.28,-0.528,-24.96,-28.76,-10.74,-22.84,-10.02,-57.65,-15.04,-64.08,-32.57,-19.45,-23.02,-36.52,0,0,0,0,0,0,0,0,0,0,0,0,0,0,0,0,
410,-58.58,-38.34,-34.05,-11.11,-39.97,-45.4,-21.9,-35.52,-0.5613,-69.85,-12.96,-77.22,-45.52,-32.21,-40.34,-49.8,0,0,0,0,0,0,0,0,0,0,0,0,0,0,0,0,
411,-79.0,-26.75,-30.09,-9.477,-41.27,-45.57,-10.99,-30.73,-20.11,-74.9,-0.35,-70.98,-30.92,-30.94,-36.57,-48.89,0,0,0,0,0,0,0,0,0,0,0,0,0,0,0,0,
412,-62.76,-24.94,-24.22,-14.64,-16.24,-5.029,-14.97,-30.48,-14.33,-58.94,-5.257,-70.37,-10.99,-12.44,-21.67,-42.41,0,0,0,0,0,0,0,0,0,0,0,0,0,0,0,0,
413,-41.57,-27.15,-32.06,-7.75,-16.77,-3.503,-20.02,-37.01,8.899,-52.88,-5.439,-78.14,-15.44,-7.767,-30.03,-44.92,0,0,0,0,0,0,0,0,0,0,0,0,0,0,0,0,
414,-30.88,-25.38,-28.63,8.254,-28.32,-30.72,-2.416,-17.15,1.571,-64.39,-5.52,-71.22,-21.03,-19.7,-36.65,-46.08,0,0,0,0,0,0,0,0,0,0,0,0,0,0,0,0,
415,-32.31,-16.96,-15.84,-6.973,-14.86,-28.7,-4.408,-5.447,-8.543,-70.33,-22.56,-63.32,-8.128,-18.14,-21.85,-35.39,0,0,0,0,0,0,0,0,0,0,0,0,0,0,0,0,
416,-41.98,0.5377,-27.1,-21.02,-16.62,-34.24,-10.6,-26.09,-0.2306,-68.5,-24.19,-78.06,-13.23,-18.59,-26.08,-33.68,0,0,0,0,0,0,0,0,0,0,0,0,0,0,0,0,
417,-75.42,-21.33,-57.23,-14.48,-39.8,-47.52,8.618,-29.33,-16.93,-71.03,-13.18,-90.82,-43.29,-37.34,-49.77,-43.92,0,0,0,0,0,0,0,0,0,0,0,0,0,0,0,0,
418,-101.1,-58.2,-55.81,-15.87,-28.91,-22.3,-1.09,-10.47,-37.52,-76.33,-17.65,-73.29,-43.98,-32.0,-43.07,-37.19,0,0,0,0,0,0,0,0,0,0,0,0,0,0,0,0,
419,-46.35,-31.45,-16.27,-15.98,-2.347,0.7037,-16.11,-14.32,-7.656,-64.63,1.094,-59.07,-10.87,-7.243,-18.58,-28.72,0,0,0,0,0,0,0,0,0,0,0,0,0,0,0,0,
420,11.1,2.571,6.075,-10.96,-0.534,-7.508,22.73,-29.2,26.85,-37.21,37.98,-78.32,10.28,-9.007,-18.16,-40.32,0,0,0,0,0,0,0,0,0,0,0,0,0,0,0,0,
421,-7.69,-4.995,7.712,0.1098,3.037,-9.379,48.92,-21.5,26.49,-29.22,28.07,-96.52,16.48,-17.97,-25.1,-44.76,0,0,0,0,0,0,0,0,0,0,0,0,0,0,0,0,
422,-18.84,-4.681,20.31,12.29,8.362,-11.63,34.61,-13.55,25.33,-43.01,7.14,-91.58,20.98,-14.48,-23.89,-39.46,0,0,0,0,0,0,0,0,0,0,0,0,0,0,0,0,
423,-28.9,-10.73,16.09,-11.16,-1.442,-23.94,30.94,-20.28,19.38,-47.73,18.18,-82.82,16.96,-14.77,-25.71,-36.76,0,0,0,0,0,0,0,0,0,0,0,0,0,0,0,0,
424,-76.37,-39.53,-14.11,-35.66,-7.021,-20.27,25.81,-22.65,-6.226,-47.41,23.44,-77.62,6.725,-13.12,-19.84,-25.23,0,0,0,0,0,0,0,0,0,0,0,0,0,0,0,0,
425,-59.09,-45.37,-22.69,-26.76,-17.02,-16.32,19.06,-31.6,-21.85,-54.06,24.1,-77.44,-3.909,-11.89,-13.79,-22.24,0,0,0,0,0,0,0,0,0,0,0,0,0,0,0,0,
426,-7.41,-27.56,-14.84,-28.2,-30.63,-29.06,25.98,-41.88,-19.28,-55.31,21.58,-77.53,-9.525,-16.55,-27.95,-35.09,0,0,0,0,0,0,0,0,0,0,0,0,0,0,0,0,
427,-39.14,-12.34,-31.38,-16.01,-19.09,-34.38,18.49,-28.13,-13.0,-54.34,-2.997,-64.96,-0.3735,-7.281,-32.49,-33.11,0,0,0,0,0,0,0,0,0,0,0,0,0,0,0,0,
428,-67.49,-7.221,-46.92,14.63,-6.77,-25.59,16.88,-19.3,-6.812,-52.1,-15.72,-57.85,12.08,6.15,-17.81,-25.94,0,0,0,0,0,0,0,0,0,0,0,0,0,0,0,0,
429,-27.83,-17.32,-30.53,-8.092,-14.57,-10.3,20.66,-21.46,-4.504,-37.46,-9.352,-65.84,12.26,2.455,-22.65,-33.58,0,0,0,0,0,0,0,0,0,0,0,0,0,0,0,0,
430,-15.6,-29.16,-18.03,-22.78,-13.5,8.106,-10.24,-4.164,-2.829,-30.84,-1.072,-61.48,16.84,1.022,-29.47,-31.69,0,0,0,0,0,0,0,0,0,0,0,0,0,0,0,0,
431,-32.54,-20.71,-25.21,26.24,4.867,15.75,-6.357,2.283,7.337,-33.53,18.53,-48.89,34.92,13.97,-3.926,-15.91,0,0,0,0,0,0,0,0,0,0,0,0,0,0,0,0,
432,-20.84,2.832,-30.8,37.35,18.13,11.24,46.1,-15.35,20.12,-15.15,24.51,-44.5,42.4,26.97,18.36,-9.036,0,0,0,0,0,0,0,0,0,0,0,0,0,0,0,0,
433,-11.22,18.16,-44.81,6.267,11.52,11.73,42.84,-3.747,25.46,3.944,6.118,-31.71,36.12,33.32,16.14,-7.454,0,0,0,0,0,0,0,0,0,0,0,0,0,0,0,0,
434,-25.84,17.0,-70.91,3.925,-2.287,13.01,14.14,28.6,22.02,-1.749,-5.321,-22.13,30.75,27.37,13.5,-5.663,0,0,0,0,0,0,0,0,0,0,0,0,0,0,0,0,
435,-43.9,-0.8091,-88.37,-9.927,-11.56,3.008,15.3,17.38,2.726,-10.48,-5.699,-36.55,21.19,10.94,8.266,-12.33,0,0,0,0,0,0,0,0,0,0,0,0,0,0,0,0,
436,-48.58,-27.39,-91.41,-38.51,-27.01,-1.943,-4.482,-15.03,-21.1,-8.064,5.467,-38.4,16.96,4.843,-5.017,-21.33,0,0,0,0,0,0,0,0,0,0,0,0,0,0,0,0,
437,-40.63,-28.53,-84.38,-23.69,-35.66,-4.596,-18.92,-9.794,-15.51,2.515,23.6,-13.46,24.81,5.491,-11.05,-28.43,0,0,0,0,0,0,0,0,0,0,0,0,0,0,0,0,
438,-39.65,-4.235,-73.7,6.392,-18.76,-16.83,5.892,0.2035,-0.1964,4.161,26.96,-8.446,19.74,-6.566,-8.683,-36.03,0,0,0,0,0,0,0,0,0,0,0,0,0,0,0,0,
439,-32.59,-0.0049,-60.38,4.101,0.5289,-3.705,11.07,-6.323,-7.36,-12.34,21.85,-24.79,9.595,-12.98,-4.914,-35.01,0,0,0,0,0,0,0,0,0,0,0,0,0,0,0,0,
440,-13.55,-15.9,-53.85,-18.57,3.62,20.45,-3.796,9.986,-5.204,-15.19,14.4,-21.04,12.75,-1.231,-4.396,-31.28,0,0,0,0,0,0,0,0,0,0,0,0,0,0,0,0,
441,-11.63,-17.19,-61.31,-22.74,2.331,11.22,2.723,23.94,9.826,1.499,4.282,-6.48,14.75,4.912,-7.191,-32.76,0,0,0,0,0,0,0,0,0,0,0,0,0,0,0,0,
442,-8.215,3.008,-51.67,0.7358,4.768,8.298,20.62,12.94,14.02,7.296,10.39,-8.092,20.95,2.084,-6.196,-27.95,0,0,0,0,0,0,0,0,0,0,0,0,0,0,0,0,
443,-14.34,18.3,-32.02,1.812,7.358,9.219,30.53,4.833,24.98,-2.692,23.42,-15.98,26.97,1.696,-5.703,-25.95,0,0,0,0,0,0,0,0,0,0,0,0,0,0,0,0,
444,-48.77,6.316,-34.93,-21.16,13.33,-11.26,24.83,-14.42,30.9,-13.33,17.45,-21.54,15.34,4.955,-4.016,-31.73,0,0,0,0,0,0,0,0,0,0,0,0,0,0,0,0,
445,-25.8,-5.376,-25.44,-17.78,22.73,12.26,8.967,-19.6,20.4,-0.2485,5.855,-27.18,15.33,16.25,12.57,-24.1,0,0,0,0,0,0,0,0,0,0,0,0,0,0,0,0,
446,25.4,-1.439,-7.608,-16.07,19.43,47.38,1.008,18.6,21.41,24.25,6.449,-29.58,22.8,20.07,23.83,-15.93,0,0,0,0,0,0,0,0,0,0,0,0,0,0,0,0,
447,-7.238,-7.959,-28.46,-24.59,8.639,17.54,4.208,20.69,9.695,12.39,4.289,-34.15,1.053,2.424,6.814,-26.8,0,0,0,0,0,0,0,0,0,0,0,0,0,0,0,0,
448,-40.47,-7.631,-50.51,7.08,3.496,-9.347,3.452,-12.38,-23.2,-13.0,-10.87,-37.11,-14.55,-5.562,-8.926,-32.51,0,0,0,0,0,0,0,0,0,0,0,0,0,0,0,0,
449,-13.28,14.29,-34.41,31.85,-5.16,-5.442,1.493,-1.925,-18.43,-9.562,-20.28,-24.63,-0.4703,10.24,-0.4986,-23.61,0,0,0,0,0,0,0,0,0,0,0,0,0,0,0,0,
450,-8.437,21.89,-7.327,-1.914,-5.516,-5.08,12.37,9.022,13.13,0.5728,-18.55,-17.95,-1.354,14.7,1.49,-28.48,0,0,0,0,0,0,0,0,0,0,0,0,0,0,0,0,
451,-23.08,1.791,-11.08,-32.27,-4.43,8.055,1.321,-12.41,8.285,-1.195,-25.83,-34.4,-26.16,-2.418,-19.4,-52.6,0,0,0,0,0,0,0,0,0,0,0,0,0,0,0,0,
452,-27.52,-32.58,-47.01,-16.07,-33.75,10.58,-40.99,-20.61,-23.64,-14.73,-42.52,-44.33,-44.36,-12.43,-33.02,-64.94,0,0,0,0,0,0,0,0,0,0,0,0,0,0,0,0,
453,-43.36,-47.59,-52.9,4.727,-46.88,-0.9925,-41.12,-13.41,-36.2,-28.47,-52.28,-40.83,-51.85,-10.38,-30.22,-58.54,0,0,0,0,0,0,0,0,0,0,0,0,0,0,0,0,
454,-57.38,-21.38,-29.11,-10.46,-15.66,10.38,-14.24,-0.1505,-29.71,-25.59,-58.17,-49.39,-59.07,-15.36,-35.14,-59.15,0,0,0,0,0,0,0,0,0,0,0,0,0,0,0,0,
455,-52.77,-0.182,-41.06,-20.95,-12.22,7.527,-33.18,-0.8006,-30.33,-28.84,-71.3,-62.22,-63.07,-28.57,-46.99,-67.02,0,0,0,0,0,0,0,0,0,0,0,0,0,0,0,0,
456,-30.85,-2.339,-55.0,9.001,-39.67,-17.27,-41.91,-24.17,-33.66,-40.02,-74.63,-56.38,-55.33,-37.0,-41.28,-64.09,0,0,0,0,0,0,0,0,0,0,0,0,0,0,0,0,
457,-12.06,0.2842,-28.89,18.3,-30.1,-12.43,-11.99,-12.94,-24.02,-28.07,-47.01,-31.57,-33.82,-26.76,-11.18,-49.45,0,0,0,0,0,0,0,0,0,0,0,0,0,0,0,0,
458,-24.57,-11.82,-12.1,-1.912,1.405,17.16,-9.217,8.338,-3.004,-5.56,-22.05,-9.645,-11.02,-5.769,11.88,-37.69,0,0,0,0,0,0,0,0,0,0,0,0,0,0,0,0,
459,-39.35,-29.57,-22.58,-3.372,6.04,35.8,-8.999,-18.28,18.84,6.833,-36.15,-14.92,-9.312,-11.18,-3.538,-45.8,0,0,0,0,0,0,0,0,0,0,0,0,0,0,0,0,
460,-32.55,-10.9,-30.4,-10.7,-4.057,24.82,7.699,-20.28,24.24,0.9944,-57.6,-28.45,-18.05,-32.61,-22.04,-54.44,0,0,0,0,0,0,0,0,0,0,0,0,0,0,0,0,
461,-30.27,6.638,-23.26,-4.758,-3.543,8.85,-7.696,7.031,22.92,-19.4,-63.59,-23.75,-8.207,-26.03,-10.92,-44.44,0,0,0,0,0,0,0,0,0,0,0,0,0,0,0,0,
462,-26.22,-1.407,-3.147,36.2,4.476,21.69,-8.808,-7.455,36.03,-20.92,-74.34,-25.22,-0.5598,-14.38,-10.91,-47.53,0,0,0,0,0,0,0,0,0,0,0,0,0,0,0,0,
463,-6.54,1.725,14.63,25.13,16.01,29.31,34.08,-7.978,40.61,-14.2,-73.69,-35.67,-10.38,-18.56,-24.13,-54.58,0,0,0,0,0,0,0,0,0,0,0,0,0,0,0,0,
464,4.752,0.2701,14.48,-11.89,23.61,21.39,45.77,20.34,37.02,-25.35,-40.21,-20.57,-3.295,-11.59,-10.75,-31.41,0,0,0,0,0,0,0,0,0,0,0,0,0,0,0,0,
465,-4.754,-9.82,6.35,13.11,14.46,33.2,25.15,14.36,52.6,-20.44,-20.51,-0.1779,9.866,-10.65,-2.06,-23.1,0,0,0,0,0,0,0,0,0,0,0,0,0,0,0,0,
466,-24.71,7.256,0.502,20.15,1.958,34.25,9.791,6.476,51.71,-4.875,-40.74,-7.076,-7.193,-27.46,-20.68,-44.32,0,0,0,0,0,0,0,0,0,0,0,0,0,0,0,0,
467,-34.27,-0.3011,-13.83,-18.83,-0.2016,13.32,-3.624,7.71,24.16,-14.54,-42.57,-15.38,-24.48,-23.9,-22.55,-41.96,0,0,0,0,0,0,0,0,0,0,0,0,0,0,0,0,
468,-20.0,-40.27,-20.48,-5.163,4.521,15.51,16.01,-0.6042,28.19,-18.46,-10.89,-7.41,-8.33,-7.577,-1.414,-26.43,0,0,0,0,0,0,0,0,0,0,0,0,0,0,0,0,
469,-4.377,-15.43,-0.7098,32.24,19.47,27.99,54.94,22.81,60.44,-2.295,5.073,2.419,23.06,3.106,22.02,-17.99,0,0,0,0,0,0,0,0,0,0,0,0,0,0,0,0,
470,0.8843,31.5,12.82,25.3,37.4,42.85,65.73,46.14,85.31,11.43,27.33,16.49,55.64,39.0,59.98,17.2,0,0,0,0,0,0,0,0,0,0,0,0,0,0,0,0,
471,6.552,23.84,23.28,23.03,51.63,82.14,88.41,34.45,113.1,38.49,80.18,36.13,91.84,88.28,97.0,63.39,0,0,0,0,0,0,0,0,0,0,0,0,0,0,0,0,
472,-9.477,22.74,42.45,31.25,58.72,97.9,114.7,46.57,127.0,67.1,90.53,39.23,102.9,90.24,86.73,65.99,0,0,0,0,0,0,0,0,0,0,0,0,0,0,0,0,
473,-37.27,14.68,17.52,0.3635,36.17,61.79,74.83,59.69,98.46,51.65,37.4,15.81,58.53,45.71,35.9,27.84,0,0,0,0,0,0,0,0,0,0,0,0,0,0,0,0,
474,-29.41,-30.69,-29.3,-24.24,-1.879,23.89,1.618,20.85,56.8,15.28,-6.679,-15.97,-2.072,7.284,-12.47,-15.01,0,0,0,0,0,0,0,0,0,0,0,0,0,0,0,0,
475,-24.27,-36.39,-46.35,-13.27,-23.09,2.913,-49.95,-13.23,26.76,-2.207,-22.0,-34.79,-27.34,-6.928,-39.89,-37.65,0,0,0,0,0,0,0,0,0,0,0,0,0,0,0,0,
476,-50.12,-22.17,-65.33,-24.5,-31.28,-4.628,-54.25,-7.325,12.51,-8.468,-28.26,-33.06,-27.66,-1.571,-36.74,-27.91,0,0,0,0,0,0,0,0,0,0,0,0,0,0,0,0,
477,-57.88,-34.77,-64.17,-35.6,-17.42,6.963,2.252,5.444,31.15,-3.338,-10.66,-16.25,-18.15,20.78,-7.463,-3.356,0,0,0,0,0,0,0,0,0,0,0,0,0,0,0,0,
478,-58.7,-31.16,-26.94,-12.89,4.842,16.85,45.74,4.792,56.41,5.385,18.54,-1.129,-1.871,32.03,9.503,5.933,0,0,0,0,0,0,0,0,0,0,0,0,0,0,0,0,
479,-57.86,-27.05,-22.64,-25.28,-8.755,14.53,31.05,-6.406,50.99,-2.656,17.49,-2.749,-1.243,16.03,-0.0642,0.7816,0,0,0,0,0,0,0,0,0,0,0,0,0,0,0,0,
480,-36.91,-36.94,-39.3,-52.6,-28.57,3.223,15.0,-3.837,40.39,-10.66,1.523,-10.38,-8.655,2.68,-5.254,-0.1876,0,0,0,0,0,0,0,0,0,0,0,0,0,0,0,0,
481,-47.79,-29.35,-35.67,-28.07,-19.53,-14.54,11.48,6.013,43.54,-14.53,1.046,-2.505,2.542,8.326,7.168,8.242,0,0,0,0,0,0,0,0,0,0,0,0,0,0,0,0,
482,-53.71,-31.44,-31.81,-22.37,-16.82,-17.67,10.15,-17.61,47.53,-21.44,6.328,10.84,10.11,15.32,14.54,12.12,0,0,0,0,0,0,0,0,0,0,0,0,0,0,0,0,
483,-15.77,-45.82,-30.67,-47.49,-24.95,-17.67,12.99,-34.19,42.19,-15.1,18.85,8.544,-2.676,10.7,3.552,2.209,0,0,0,0,0,0,0,0,0,0,0,0,0,0,0,0,
484,-43.59,-35.61,-33.15,-34.0,-14.47,-33.71,-6.217,-0.1406,20.66,-17.3,23.1,3.366,-3.584,2.679,-6.313,1.478,0,0,0,0,0,0,0,0,0,0,0,0,0,0,0,0,
485,-89.15,-19.53,-33.23,-26.28,-1.608,-32.28,-17.12,10.28,16.97,-37.94,-5.362,12.65,10.83,6.704,-1.341,17.81,0,0,0,0,0,0,0,0,0,0,0,0,0,0,0,0,
486,-32.12,-11.91,-18.84,-28.04,-7.688,-14.2,16.62,-13.48,49.66,-35.82,-19.41,25.12,16.89,16.31,6.539,24.19,0,0,0,0,0,0,0,0,0,0,0,0,0,0,0,0,
487,8.788,-1.833,-15.79,-0.568,-13.25,-11.81,28.37,5.632,64.76,-20.85,-8.157,25.55,25.97,16.33,10.75,22.74,0,0,0,0,0,0,0,0,0,0,0,0,0,0,0,0,
488,-32.49,-14.98,-20.98,-21.1,-10.14,-13.21,-7.064,16.97,57.28,-18.36,-21.42,12.16,36.26,11.35,3.996,21.54,0,0,0,0,0,0,0,0,0,0,0,0,0,0,0,0,
489,-58.48,-46.93,-18.13,-55.24,-12.56,-16.39,-12.79,-23.25,64.8,-16.78,-36.87,-1.302,25.05,6.43,-12.82,8.24,0,0,0,0,0,0,0,0,0,0,0,0,0,0,0,0,
490,-55.96,-33.18,-30.1,-13.92,-15.85,-26.79,19.05,-25.55,64.85,-17.28,-36.3,2.27,11.46,1.799,-9.992,2.427,0,0,0,0,0,0,0,0,0,0,0,0,0,0,0,0,
491,-48.35,0.7607,-49.97,-10.46,-17.97,-19.31,19.92,14.73,45.39,-8.057,-39.72,11.04,7.862,0.947,7.16,13.48,0,0,0,0,0,0,0,0,0,0,0,0,0,0,0,0,
492,-33.36,-19.93,-49.91,-55.99,-22.92,-3.092,1.847,31.57,32.59,13.03,-28.63,6.79,-0.9436,1.969,6.696,12.97,0,0,0,0,0,0,0,0,0,0,0,0,0,0,0,0,
493,-23.94,-35.81,-31.96,-29.52,-20.87,-11.4,11.86,22.78,29.17,14.27,-16.95,4.706,-3.022,6.772,2.255,3.176,0,0,0,0,0,0,0,0,0,0,0,0,0,0,0,0,
494,-28.3,-11.67,-18.23,-12.92,-16.79,-22.53,15.97,-4.421,22.05,6.566,-17.86,14.23,1.884,14.23,5.462,1.211,0,0,0,0,0,0,0,0,0,0,0,0,0,0,0,0,
495,-50.56,-23.0,-25.86,-54.45,-15.08,-4.973,5.129,-16.85,7.402,2.724,-0.5427,16.61,-4.141,11.77,5.679,2.883,0,0,0,0,0,0,0,0,0,0,0,0,0,0,0,0,
496,-63.01,-38.6,-33.1,-49.24,-10.12,10.7,17.84,0.1539,3.808,-11.92,9.951,12.59,-3.955,8.324,11.95,8.772,0,0,0,0,0,0,0,0,0,0,0,0,0,0,0,0,
497,-46.58,-11.04,-21.47,-29.01,-5.36,3.904,22.44,-6.175,19.75,-12.65,0.7363,22.17,15.33,25.46,24.47,25.31,0,0,0,0,0,0,0,0,0,0,0,0,0,0,0,0,
498,-27.48,2.386,-6.44,-46.48,13.14,12.48,15.0,-19.32,33.28,7.758,4.882,41.87,39.9,51.57,35.28,49.48,0,0,0,0,0,0,0,0,0,0,0,0,0,0,0,0,
499,-3.669,-3.083,15.88,-44.32,41.54,38.77,44.93,-4.982,49.31,22.6,3.482,51.76,61.12,62.71,45.49,63.72,0,0,0,0,0,0,0,0,0,0,0,0,0,0,0,0,
500,13.67,-8.381,44.47,-20.58,53.28,55.08,64.31,6.006,78.05,40.43,-6.494,49.06,73.22,63.27,44.35,60.03,0,0,0,0,0,0,0,0,0,0,0,0,0,0,0,0,
501,8.841,-6.371,54.11,-9.912,65.15,69.08,35.83,24.41,96.35,54.54,-6.147,52.1,78.14,65.7,35.82,58.5,0,0,0,0,0,0,0,0,0,0,0,0,0,0,0,0,
502,23.07,32.69,50.4,-7.843,76.86,72.67,29.37,52.78,103.3,48.3,-22.73,65.27,80.52,67.48,35.14,61.79,0,0,0,0,0,0,0,0,0,0,0,0,0,0,0,0,
503,39.2,49.53,42.67,-10.58,58.59,61.61,49.84,57.5,101.4,53.11,-41.65,67.47,70.99,65.0,33.55,54.68,0,0,0,0,0,0,0,0,0,0,0,0,0,0,0,0,
504,37.84,16.08,31.17,-10.52,39.02,65.41,43.22,56.97,75.55,66.06,-27.97,62.16,57.11,61.26,34.32,52.8,0,0,0,0,0,0,0,0,0,0,0,0,0,0,0,0,
505,85.57,49.4,55.11,16.76,58.17,78.05,36.66,61.89,61.41,55.91,-12.26,68.89,61.66,61.43,42.52,62.9,0,0,0,0,0,0,0,0,0,0,0,0,0,0,0,0,
506,166.7,158.4,116.8,70.67,103.8,99.95,58.15,65.99,90.07,56.22,-6.817,67.18,69.57,63.28,28.67,55.94,0,0,0,0,0,0,0,0,0,0,0,0,0,0,0,0,
507,239.3,240.9,143.8,112.3,138.3,151.5,67.39,84.21,106.6,81.58,5.856,52.57,58.76,59.27,1.76,38.35,0,0,0,0,0,0,0,0,0,0,0,0,0,0,0,0,
508,348.0,308.2,144.8,142.7,154.4,189.8,62.03,99.33,87.09,90.06,11.25,61.74,58.12,60.06,10.09,45.67,0,0,0,0,0,0,0,0,0,0,0,0,0,0,0,0,
509,467.2,396.0,194.3,185.0,190.2,194.6,79.27,92.3,93.29,93.57,20.59,82.28,88.79,79.68,40.43,65.61,0,0,0,0,0,0,0,0,0,0,0,0,0,0,0,0,
510,548.7,484.6,257.7,214.9,245.0,219.6,106.4,80.55,132.2,122.2,59.01,87.1,126.8,106.6,60.23,79.56,0,0,0,0,0,0,0,0,0,0,0,0,0,0,0,0,
511,631.3,579.6,279.1,258.3,281.4,266.6,121.3,85.89,153.2,149.1,84.67,99.64,157.9,124.9,78.99,102.1,0,0,0,0,0,0,0,0,0,0,0,0,0,0,0,0,
512,706.7,651.5,288.6,332.0,298.5,291.1,128.3,114.5,159.5,157.5,71.23,116.5,168.6,129.2,86.83,117.0,0,0,0,0,0,0,0,0,0,0,0,0,0,0,0,0,
513,735.1,661.3,296.7,342.6,302.1,302.4,118.7,143.0,167.3,161.6,62.55,119.1,155.0,127.6,77.07,111.7,0,0,0,0,0,0,0,0,0,0,0,0,0,0,0,0,
514,742.6,670.1,302.6,305.2,304.6,317.7,100.5,149.9,171.6,164.7,70.14,131.2,156.1,136.0,80.28,116.9,0,0,0,0,0,0,0,0,0,0,0,0,0,0,0,0,
515,755.9,701.8,330.6,316.3,318.8,318.7,112.6,140.1,178.7,167.8,73.91,144.1,167.3,141.9,86.56,122.0,0,0,0,0,0,0,0,0,0,0,0,0,0,0,0,0,
516,764.3,705.6,353.9,332.8,319.2,307.4,141.9,122.9,174.2,166.3,69.83,126.9,145.2,122.6,68.45,101.6,0,0,0,0,0,0,0,0,0,0,0,0,0,0,0,0,
517,737.4,692.9,331.7,318.2,298.2,285.9,118.6,102.0,149.8,147.2,36.05,101.2,107.4,87.34,40.16,78.63,0,0,0,0,0,0,0,0,0,0,0,0,0,0,0,0,
518,673.6,651.7,281.8,311.9,266.8,244.7,56.98,80.18,130.8,123.1,-15.86,85.78,84.26,62.86,14.14,63.83,0,0,0,0,0,0,0,0,0,0,0,0,0,0,0,0,
519,619.2,559.5,240.2,302.1,228.9,229.5,52.8,82.06,111.4,119.8,-27.04,78.08,78.5,67.91,0.4236,56.04,0,0,0,0,0,0,0,0,0,0,0,0,0,0,0,0,
520,567.6,497.0,218.5,269.7,208.2,244.9,74.96,106.1,91.69,126.6,-2.344,76.52,85.84,79.75,2.415,56.41,0,0,0,0,0,0,0,0,0,0,0,0,0,0,0,0,
521,503.7,485.0,216.8,225.9,200.1,215.5,52.64,95.51,98.97,114.9,12.36,61.73,82.47,64.69,-3.519,47.86,0,0,0,0,0,0,0,0,0,0,0,0,0,0,0,0,
522,472.9,463.4,230.2,193.9,185.5,165.5,54.86,60.93,105.0,92.67,17.44,45.3,72.37,50.75,-10.74,36.82,0,0,0,0,0,0,0,0,0,0,0,0,0,0,0,0,
523,440.5,428.3,218.2,183.3,179.8,161.5,68.98,52.63,88.16,81.4,26.7,57.23,75.44,62.83,-3.539,33.2,0,0,0,0,0,0,0,0,0,0,0,0,0,0,0,0,
524,371.9,374.1,162.7,159.2,170.4,165.9,19.91,50.84,84.4,80.28,25.59,65.71,69.65,70.32,-5.964,23.54,0,0,0,0,0,0,0,0,0,0,0,0,0,0,0,0,
525,346.0,312.4,123.5,121.6,136.4,144.6,2.572,46.69,79.51,79.13,2.861,52.08,57.23,65.55,-15.34,23.58,0,0,0,0,0,0,0,0,0,0,0,0,0,0,0,0,
526,331.5,278.3,121.5,100.4,104.6,115.0,35.2,40.76,44.06,71.68,-7.211,53.0,64.42,65.26,-8.155,41.81,0,0,0,0,0,0,0,0,0,0,0,0,0,0,0,0,
527,268.8,243.7,124.4,75.94,96.0,93.86,27.69,20.69,26.51,74.77,19.9,66.1,73.15,68.81,0.3242,49.56,0,0,0,0,0,0,0,0,0,0,0,0,0,0,0,0,
528,248.0,209.3,126.8,51.68,95.07,86.05,34.09,27.82,40.95,94.37,33.68,66.55,65.78,73.78,-3.477,44.6,0,0,0,0,0,0,0,0,0,0,0,0,0,0,0,0,
529,246.0,200.3,108.2,56.9,77.08,74.57,54.04,53.31,34.57,93.92,3.86,60.77,54.94,73.74,-6.394,42.39,0,0,0,0,0,0,0,0,0,0,0,0,0,0,0,0,
530,181.4,181.1,76.62,65.1,51.43,70.78,28.11,46.13,29.42,82.99,-18.37,57.56,58.82,71.64,1.367,44.12,0,0,0,0,0,0,0,0,0,0,0,0,0,0,0,0,
531,148.1,155.7,81.66,58.5,49.33,86.92,42.46,46.02,63.18,97.97,-9.219,63.74,81.41,85.73,10.96,49.83,0,0,0,0,0,0,0,0,0,0,0,0,0,0,0,0,
532,159.6,144.2,94.86,56.4,59.66,88.77,81.53,60.59,76.81,103.3,-2.491,77.12,95.65,103.8,9.656,53.87,0,0,0,0,0,0,0,0,0,0,0,0,0,0,0,0,
533,128.9,114.1,85.47,42.45,64.48,86.17,43.66,48.81,59.93,89.86,-0.4285,78.5,88.54,97.06,10.86,49.86,0,0,0,0,0,0,0,0,0,0,0,0,0,0,0,0,
534,119.0,95.08,88.31,25.51,68.17,91.17,18.13,45.07,74.25,96.27,13.13,66.81,79.61,71.51,19.6,40.19,0,0,0,0,0,0,0,0,0,0,0,0,0,0,0,0,
535,156.5,121.3,91.44,52.28,53.52,63.46,55.26,47.62,85.63,90.98,10.91,50.63,68.79,50.67,6.452,27.02,0,0,0,0,0,0,0,0,0,0,0,0,0,0,0,0,
536,132.9,110.9,73.75,61.7,29.47,31.09,59.69,18.17,52.48,57.13,-5.141,32.2,57.95,47.05,-12.94,19.96,0,0,0,0,0,0,0,0,0,0,0,0,0,0,0,0,
537,68.46,50.95,73.29,8.644,37.26,41.57,44.89,1.679,35.46,52.57,9.17,25.81,66.12,60.98,0.964,28.42,0,0,0,0,0,0,0,0,0,0,0,0,0,0,0,0,
538,63.95,51.21,92.54,3.223,55.93,56.33,52.93,21.38,51.0,75.57,19.7,34.31,74.51,72.99,11.59,37.17,0,0,0,0,0,0,0,0,0,0,0,0,0,0,0,0,
539,72.75,81.5,85.47,36.05,48.03,43.3,41.06,35.21,55.4,70.51,-8.683,42.66,64.25,65.42,-8.001,33.18,0,0,0,0,0,0,0,0,0,0,0,0,0,0,0,0,
540,45.15,43.25,62.54,0.9749,38.09,22.19,29.88,26.67,56.87,48.83,-19.49,52.39,58.87,55.2,-15.89,30.16,0,0,0,0,0,0,0,0,0,0,0,0,0,0,0,0,
541,38.91,11.53,64.57,-26.17,35.96,13.3,45.4,9.986,63.42,52.79,-8.563,62.51,55.49,54.93,-11.63,29.91,0,0,0,0,0,0,0,0,0,0,0,0,0,0,0,0,
542,39.26,28.96,68.81,-10.74,18.31,14.49,43.03,10.73,55.01,64.04,-11.54,56.46,34.77,51.32,-14.57,21.44,0,0,0,0,0,0,0,0,0,0,0,0,0,0,0,0,
543,14.38,13.08,55.66,-35.38,2.655,-0.6517,29.9,15.43,47.12,52.74,-9.465,39.09,17.86,43.1,-9.05,12.4,0,0,0,0,0,0,0,0,0,0,0,0,0,0,0,0,
544,9.374,-14.08,48.5,-49.84,4.556,-34.18,22.48,-14.84,51.33,37.52,-13.93,31.11,15.21,33.22,-9.074,7.67,0,0,0,0,0,0,0,0,0,0,0,0,0,0,0,0,
545,-9.169,-8.945,38.77,-20.34,5.531,-36.96,14.14,-32.81,50.78,36.8,-28.37,40.25,19.2,31.83,-12.81,14.62,0,0,0,0,0,0,0,0,0,0,0,0,0,0,0,0,
546,-45.97,-8.607,31.1,-11.19,5.284,-1.381,31.87,3.052,58.1,50.21,-16.34,55.95,34.29,52.28,7.163,40.62,0,0,0,0,0,0,0,0,0,0,0,0,0,0,0,0,
547,-11.96,-16.71,40.63,-15.66,-4.223,4.286,36.09,19.25,76.36,65.37,-13.49,51.24,37.89,56.19,10.62,46.68,0,0,0,0,0,0,0,0,0,0,0,0,0,0,0,0,
548,25.38,-29.36,29.64,-26.03,-25.45,-29.86,-0.8023,-6.913,67.18,51.08,-38.67,26.94,19.14,28.38,-13.32,19.24,0,0,0,0,0,0,0,0,0,0,0,0,0,0,0,0,
549,-14.58,-37.84,10.33,-42.66,-24.09,-41.79,-5.488,-5.882,40.78,23.02,-36.99,21.87,14.95,23.46,-13.22,12.17,0,0,0,0,0,0,0,0,0,0,0,0,0,0,0,0,
550,-44.75,-24.35,16.5,-29.6,-17.01,-40.51,3.266,11.93,39.75,26.97,-22.2,31.41,23.58,32.04,-9.494,27.14,0,0,0,0,0,0,0,0,0,0,0,0,0,0,0,0,
551,-41.65,-25.06,4.662,-17.08,-32.47,-60.34,-13.47,-10.37,42.26,35.27,-36.04,28.19,14.14,15.11,-23.42,24.89,0,0,0,0,0,0,0,0,0,0,0,0,0,0,0,0,
552,-46.9,-44.28,-23.78,-33.6,-39.36,-67.48,-11.94,-40.54,21.32,14.88,-51.1,37.34,3.633,8.062,-20.4,22.49,0,0,0,0,0,0,0,0,0,0,0,0,0,0,0,0,
553,-53.31,-58.86,-29.16,-47.91,-43.55,-52.69,-22.1,-31.61,9.119,0.9077,-46.86,54.67,11.06,14.75,-15.4,34.55,0,0,0,0,0,0,0,0,0,0,0,0,0,0,0,0,
554,-60.64,-73.03,-34.55,-63.31,-55.68,-53.28,-44.61,-19.39,14.23,2.654,-43.98,39.68,10.76,-0.7726,-29.74,34.61,0,0,0,0,0,0,0,0,0,0,0,0,0,0,0,0,
555,-53.09,-56.61,-47.28,-74.5,-49.2,-71.02,-26.62,-33.27,-5.682,-8.491,-55.35,28.46,-11.33,-18.33,-39.98,17.72,0,0,0,0,0,0,0,0,0,0,0,0,0,0,0,0,
556,-47.01,-34.52,-52.04,-59.06,-55.3,-80.19,-23.19,-42.43,-49.73,-22.88,-68.42,44.47,-24.42,-20.3,-37.36,7.547,0,0,0,0,0,0,0,0,0,0,0,0,0,0,0,0,
557,-84.56,-61.25,-52.37,-49.95,-84.9,-79.46,-42.2,-46.74,-65.07,-25.37,-63.3,34.29,-14.75,-21.28,-22.03,14.25,0,0,0,0,0,0,0,0,0,0,0,0,0,0,0,0,
558,-104.9,-80.39,-36.52,-58.96,-84.0,-86.97,-29.13,-62.05,-44.16,-29.09,-43.81,14.65,-2.661,-15.64,-0.4715,27.49,0,0,0,0,0,0,0,0,0,0,0,0,0,0,0,0,
559,-76.4,-74.09,-15.5,-59.34,-64.42,-89.27,-20.05,-58.43,-28.61,-27.47,-30.24,31.61,11.31,-1.743,7.569,39.05,0,0,0,0,0,0,0,0,0,0,0,0,0,0,0,0,
560,-68.71,-81.87,-22.3,-62.27,-60.84,-68.33,-28.46,-39.84,-30.97,-10.57,-27.92,41.76,21.54,4.214,7.989,44.94,0,0,0,0,0,0,0,0,0,0,0,0,0,0,0,0,
561,-75.44,-73.08,-33.5,-55.08,-51.04,-49.11,-21.18,-39.67,-31.39,0.8402,-35.61,29.37,14.65,5.092,12.78,41.04,0,0,0,0,0,0,0,0,0,0,0,0,0,0,0,0,
562,-56.81,-57.54,-14.64,-19.97,-31.27,-38.14,-1.19,-29.87,-18.75,5.718,-48.07,28.13,20.04,12.18,10.11,32.37,0,0,0,0,0,0,0,0,0,0,0,0,0,0,0,0,
563,-47.52,-56.88,4.145,-20.64,-29.72,-25.27,8.444,-0.4948,-3.098,16.53,-50.02,20.46,39.3,20.22,-2.651,25.03,0,0,0,0,0,0,0,0,0,0,0,0,0,0,0,0,
564,-55.89,-31.46,-5.263,-47.89,-42.44,-28.14,-14.76,-4.561,2.0,21.05,-52.24,4.93,31.2,20.96,-8.361,23.03,0,0,0,0,0,0,0,0,0,0,0,0,0,0,0,0,
565,-39.16,-16.99,-11.78,-14.45,-36.83,-36.09,-31.0,-35.88,2.967,21.08,-66.92,11.78,10.07,14.91,-2.806,27.05,0,0,0,0,0,0,0,0,0,0,0,0,0,0,0,0,
566,-4.475,-35.73,-1.153,25.96,-13.46,-22.12,-9.061,-38.18,4.383,24.35,-62.15,20.4,6.328,9.654,-2.932,24.9,0,0,0,0,0,0,0,0,0,0,0,0,0,0,0,0,
567,4.032,-12.05,0.5202,10.32,-5.899,2.433,-7.348,-26.24,-1.229,24.47,-38.6,15.7,8.786,13.23,-12.14,18.85,0,0,0,0,0,0,0,0,0,0,0,0,0,0,0,0,
568,-11.65,17.45,-6.763,-3.89,-14.91,10.6,-21.49,-40.15,-4.372,31.44,-32.44,21.14,12.53,19.16,-12.55,24.31,0,0,0,0,0,0,0,0,0,0,0,0,0,0,0,0,
569,-28.79,-20.98,-9.775,-11.02,-16.92,-7.474,-14.17,-46.62,3.126,45.39,-34.59,34.02,21.54,19.49,-1.187,31.4,0,0,0,0,0,0,0,0,0,0,0,0,0,0,0,0,
570,-47.01,-40.81,-12.11,-17.69,-13.77,-18.11,-28.87,-19.22,11.04,48.92,-43.53,39.1,27.67,22.02,8.064,30.45,0,0,0,0,0,0,0,0,0,0,0,0,0,0,0,0,
571,-46.47,-3.965,-9.857,2.745,-12.77,3.576,-46.18,-7.159,14.62,45.23,-62.33,39.83,28.16,29.95,10.5,32.19,0,0,0,0,0,0,0,0,0,0,0,0,0,0,0,0,
572,-9.783,-1.538,2.529,0.2944,-5.947,18.44,-11.85,-22.36,18.25,46.07,-60.28,36.44,27.01,33.43,7.144,33.48,0,0,0,0,0,0,0,0,0,0,0,0,0,0,0,0,
573,17.75,-27.42,10.36,-28.71,-2.071,5.342,13.28,-29.26,23.27,51.18,-60.34,24.01,18.49,21.94,-2.408,22.59,0,0,0,0,0,0,0,0,0,0,0,0,0,0,0,0,
574,-2.689,-31.12,-0.5868,-13.87,-16.41,-10.54,-10.38,-42.94,18.32,43.33,-80.08,14.04,2.596,5.192,-8.712,12.98,0,0,0,0,0,0,0,0,0,0,0,0,0,0,0,0,
575,-33.76,-43.09,-11.42,12.84,-23.08,-16.85,-25.1,-57.06,4.227,25.65,-74.52,23.02,0.0782,8.903,-7.005,20.71,0,0,0,0,0,0,0,0,0,0,0,0,0,0,0,0,
576,-35.74,-54.71,-9.273,-7.893,-9.825,-20.97,-17.73,-41.02,5.313,30.16,-67.2,32.06,8.27,18.75,-14.77,25.51,0,0,0,0,0,0,0,0,0,0,0,0,0,0,0,0,
577,-37.7,-36.11,-18.17,-37.81,-9.945,-30.02,-8.446,-45.05,12.86,36.51,-83.25,19.81,7.645,12.64,-27.44,15.71,0,0,0,0,0,0,0,0,0,0,0,0,0,0,0,0,
578,-61.59,-27.9,-26.29,-27.34,-10.28,-26.28,11.49,-71.97,10.97,26.03,-68.29,13.97,11.84,19.07,-16.51,16.5,0,0,0,0,0,0,0,0,0,0,0,0,0,0,0,0,
579,-56.38,-37.08,-6.474,0.3208,9.905,-3.116,8.799,-51.06,24.93,44.64,-39.74,22.41,19.52,32.31,-1.328,19.53,0,0,0,0,0,0,0,0,0,0,0,0,0,0,0,0,
580,-17.8,-36.65,-0.3259,1.629,5.289,5.302,-25.8,-18.05,35.25,67.45,-51.73,14.95,7.294,19.14,-10.94,5.008,0,0,0,0,0,0,0,0,0,0,0,0,0,0,0,0,
581,-20.44,-51.85,-29.14,0.2802,-26.54,-7.242,-26.75,-24.41,-0.4038,42.6,-70.3,7.535,-8.258,12.4,-16.92,4.401,0,0,0,0,0,0,0,0,0,0,0,0,0,0,0,0,
582,-38.95,-60.72,-38.57,22.54,-31.35,-21.36,-14.84,-35.88,-28.04,30.24,-63.19,21.58,-6.964,27.36,-0.71,22.37,0,0,0,0,0,0,0,0,0,0,0,0,0,0,0,0,
583,-18.47,-18.25,-15.27,22.76,-5.406,-23.04,-26.95,-34.24,-0.5885,55.92,-47.28,34.32,4.545,33.32,21.1,30.66,0,0,0,0,0,0,0,0,0,0,0,0,0,0,0,0,
584,-34.24,-3.824,-6.959,0.2026,18.48,4.18,5.931,-15.04,26.05,63.37,-28.95,45.88,20.84,45.4,50.25,48.9,0,0,0,0,0,0,0,0,0,0,0,0,0,0,0,0,
585,-63.8,-39.73,-8.775,16.1,28.42,29.91,61.49,1.252,35.0,66.32,-1.232,67.35,42.64,73.9,82.24,84.76,0,0,0,0,0,0,0,0,0,0,0,0,0,0,0,0,
586,3.784,-17.4,18.25,42.08,36.81,29.17,55.23,-16.02,69.77,89.95,30.9,78.51,68.31,86.08,91.39,98.27,0,0,0,0,0,0,0,0,0,0,0,0,0,0,0,0,
587,45.68,2.645,28.93,17.92,38.54,31.1,35.21,-16.67,96.91,94.01,34.72,67.94,64.47,69.24,69.92,76.94,0,0,0,0,0,0,0,0,0,0,0,0,0,0,0,0,
588,-33.09,-61.34,-16.22,-9.882,10.66,11.87,32.4,-1.01,66.14,69.03,-16.35,40.77,12.1,31.42,25.55,37.89,0,0,0,0,0,0,0,0,0,0,0,0,0,0,0,0,
589,-68.86,-67.77,-49.64,-3.197,-25.37,-44.96,-9.039,-38.56,16.61,40.16,-81.12,8.967,-30.51,-5.665,-19.23,1.871,0,0,0,0,0,0,0,0,0,0,0,0,0,0,0,0,
590,-41.43,-22.92,-48.56,-5.411,-37.02,-62.39,-58.38,-74.3,-7.799,17.33,-103.3,-3.946,-31.56,-12.41,-33.59,-7.923,0,0,0,0,0,0,0,0,0,0,0,0,0,0,0,0,
591,-62.96,-62.29,-52.1,-15.11,-34.4,-27.63,-43.29,-54.92,-10.41,16.72,-99.74,4.628,-22.94,3.794,-22.47,4.278,0,0,0,0,0,0,0,0,0,0,0,0,0,0,0,0,
592,-71.82,-85.87,-39.19,-12.83,-29.87,-6.543,-6.63,-45.56,1.535,36.4,-97.06,16.83,-3.608,18.75,-3.524,17.72,0,0,0,0,0,0,0,0,0,0,0,0,0,0,0,0,
593,-29.8,-44.72,-6.698,-19.85,-23.2,-6.278,-12.65,-55.63,21.55,48.12,-78.45,24.85,25.28,29.41,20.1,26.56,0,0,0,0,0,0,0,0,0,0,0,0,0,0,0,0,
594,-17.79,-49.84,1.766,-20.52,-15.59,-12.44,-18.3,-51.81,37.93,44.67,-60.26,25.34,29.98,30.23,25.83,25.82,0,0,0,0,0,0,0,0,0,0,0,0,0,0,0,0,
595,-45.6,-70.21,-16.83,-12.7,-16.64,-26.56,-4.236,-49.4,32.16,27.11,-72.27,20.0,15.64,16.85,11.33,16.91,0,0,0,0,0,0,0,0,0,0,0,0,0,0,0,0,
596,-62.64,-66.53,-38.28,-20.26,-31.6,-28.72,-20.63,-41.36,6.583,5.142,-92.68,15.28,4.801,6.378,8.785,10.08,0,0,0,0,0,0,0,0,0,0,0,0,0,0,0,0,
597,-55.49,-78.79,-39.67,-13.98,-39.0,-19.17,-34.56,-26.34,-3.692,1.857,-102.8,10.06,-2.933,6.851,11.63,2.875,0,0,0,0,0,0,0,0,0,0,0,0,0,0,0,0,
598,-61.32,-83.97,-19.65,-0.0968,-31.62,-17.55,-10.2,-44.82,-0.9106,4.834,-97.02,6.842,1.055,10.53,11.89,1.482,0,0,0,0,0,0,0,0,0,0,0,0,0,0,0,0,
599,-70.77,-74.61,-4.127,-7.436,-23.87,-11.68,1.384,-75.1,-3.378,3.62,-66.83,11.54,23.96,16.87,26.03,13.56,0,0,0,0,0,0,0,0,0,0,0,0,0,0,0,0,
600,-28.47,-68.44,-2.199,-12.94,-17.73,-5.258,-0.742,-64.85,12.09,13.92,-37.62,18.19,38.9,16.18,31.03,16.27,0,0,0,0,0,0,0,0,0,0,0,0,0,0,0,0,
601,1.359,-56.07,-1.148,-25.25,-17.6,-19.66,8.325,-49.73,29.99,13.78,-31.27,15.18,22.92,1.133,13.49,1.777,0,0,0,0,0,0,0,0,0,0,0,0,0,0,0,0,
602,-33.11,-51.17,5.479,-34.66,-15.01,-27.91,10.85,-64.07,10.74,-5.939,-37.22,3.794,0.635,-5.674,0.8766,-6.504,0,0,0,0,0,0,0,0,0,0,0,0,0,0,0,0,
603,-37.95,-57.86,6.919,-0.8739,-4.004,-16.04,10.05,-63.43,-10.91,-12.18,-36.83,-0.6447,1.174,0.2134,0.3101,-3.518,0,0,0,0,0,0,0,0,0,0,0,0,0,0,0,0,
604,-15.02,-57.99,9.072,26.85,-7.184,-13.02,4.884,-44.86,0.8327,-9.99,-12.11,-0.2834,10.77,-3.152,8.339,-1.884,0,0,0,0,0,0,0,0,0,0,0,0,0,0,0,0,
605,-31.7,-44.35,34.82,10.93,-12.1,-12.34,0.9982,-49.79,14.04,-13.43,13.45,-9.197,11.81,-7.445,16.24,-6.761,0,0,0,0,0,0,0,0,0,0,0,0,0,0,0,0,
606,-34.21,-26.65,56.05,-13.65,0.6854,-0.9678,26.71,-60.88,7.435,-8.997,8.543,-15.54,13.99,-1.226,14.9,-9.784,0,0,0,0,0,0,0,0,0,0,0,0,0,0,0,0,
607,-9.479,-31.02,49.06,-24.22,8.855,7.202,37.64,-58.45,6.817,3.251,7.198,-13.93,19.15,-2.386,19.91,-7.073,0,0,0,0,0,0,0,0,0,0,0,0,0,0,0,0,
608,-4.433,-41.24,42.74,-8.492,5.657,5.41,-4.48,-56.62,13.83,10.95,27.14,-15.45,12.34,-13.2,21.46,-13.83,0,0,0,0,0,0,0,0,0,0,0,0,0,0,0,0,
609,3.745,-30.72,35.44,-1.964,-3.918,-11.04,-28.89,-45.85,-2.581,0.8411,28.62,-9.497,-1.524,-16.78,5.082,-23.83,0,0,0,0,0,0,0,0,0,0,0,0,0,0,0,0,
610,0.2673,-38.56,25.64,-39.38,-13.64,-16.17,-5.076,-30.33,-23.22,-13.22,10.2,-4.064,-8.138,-14.02,0.3554,-19.31,0,0,0,0,0,0,0,0,0,0,0,0,0,0,0,0,
611,-41.92,-68.75,23.71,-54.46,-13.27,6.751,4.901,-34.05,-17.91,-1.907,7.39,-21.2,-16.46,-17.6,6.078,-17.89,0,0,0,0,0,0,0,0,0,0,0,0,0,0,0,0,
612,-45.93,-68.37,10.46,-21.88,-17.54,-0.142,-7.707,-33.55,-13.4,4.323,18.89,-31.93,-29.97,-24.98,-0.6278,-23.45,0,0,0,0,0,0,0,0,0,0,0,0,0,0,0,0,
613,-14.07,-50.71,10.01,-7.213,-22.28,-37.14,-8.067,-16.08,-12.36,-20.15,20.69,-17.73,-34.62,-23.63,-5.194,-21.35,0,0,0,0,0,0,0,0,0,0,0,0,0,0,0,0,
614,-33.81,-53.2,26.89,-22.79,-17.52,-38.15,-11.14,-10.82,-3.795,-32.69,14.38,-12.74,-33.8,-23.28,-9.616,-30.46,0,0,0,0,0,0,0,0,0,0,0,0,0,0,0,0,
615,-45.1,-56.54,11.08,-40.76,-25.13,-28.87,-23.17,-7.797,-21.8,-29.28,9.738,-24.12,-33.05,-38.19,-23.84,-49.86,0,0,0,0,0,0,0,0,0,0,0,0,0,0,0,0,
616,-10.79,-53.64,-0.4845,-50.3,-30.65,-41.83,-20.41,-5.246,-45.38,-37.68,4.291,-27.88,-23.28,-44.91,-21.02,-47.27,0,0,0,0,0,0,0,0,0,0,0,0,0,0,0,0,
617,-29.72,-63.59,19.23,-51.22,-20.14,-41.95,-11.34,-30.85,-20.03,-32.38,9.255,-24.0,-9.073,-29.61,0.4829,-32.17,0,0,0,0,0,0,0,0,0,0,0,0,0,0,0,0,
618,-63.15,-77.31,11.05,-54.59,-25.59,-38.58,-5.479,-38.97,9.385,-12.94,21.17,-21.45,-7.889,-21.64,3.382,-29.87,0,0,0,0,0,0,0,0,0,0,0,0,0,0,0,0,
619,-51.04,-92.79,-7.679,-48.62,-40.32,-50.21,-6.12,-5.597,-12.59,-22.43,7.775,-13.79,-21.34,-21.35,-11.9,-30.24,0,0,0,0,0,0,0,0,0,0,0,0,0,0,0,0,
620,-68.47,-106.6,7.576,-29.45,-38.49,-48.21,-22.19,3.397,-38.43,-36.91,-11.52,-2.102,-24.98,-5.701,-10.29,-21.77,0,0,0,0,0,0,0,0,0,0,0,0,0,0,0,0,
621,-78.81,-87.81,24.96,-37.18,-29.91,-38.59,-20.52,-5.876,-23.2,-20.5,10.44,-1.155,-5.584,3.003,8.375,-14.73,0,0,0,0,0,0,0,0,0,0,0,0,0,0,0,0,
622,-40.9,-64.75,26.1,-62.13,-25.05,-46.95,7.278,5.876,-6.848,-16.76,42.84,-7.39,6.183,-9.554,13.68,-16.54,0,0,0,0,0,0,0,0,0,0,0,0,0,0,0,0,
623,-46.87,-82.37,21.83,-60.22,-27.84,-55.44,8.438,1.733,-19.05,-40.96,28.15,-9.545,-9.402,-20.35,-3.727,-26.75,0,0,0,0,0,0,0,0,0,0,0,0,0,0,0,0,
624,-71.58,-104.1,16.37,-49.94,-34.42,-50.38,-17.62,-18.02,-30.98,-50.45,-8.6,-13.22,-24.05,-27.53,-18.98,-39.09,0,0,0,0,0,0,0,0,0,0,0,0,0,0,0,0,
625,-45.53,-105.5,20.96,-40.28,-29.42,-41.07,-26.98,-18.18,-25.24,-42.71,-2.686,-14.09,-16.81,-27.45,-4.713,-34.58,0,0,0,0,0,0,0,0,0,0,0,0,0,0,0,0,
626,-23.0,-96.05,28.26,-23.63,-18.46,-23.77,-17.08,-14.02,-9.531,-25.31,39.88,-7.486,-4.074,-13.21,16.23,-20.23,0,0,0,0,0,0,0,0,0,0,0,0,0,0,0,0,
627,-46.58,-75.67,14.52,-40.53,-25.7,-15.95,-14.36,-13.58,1.277,-5.707,59.19,-8.318,-7.442,-14.29,3.557,-26.81,0,0,0,0,0,0,0,0,0,0,0,0,0,0,0,0,
628,-84.01,-71.61,-7.646,-66.9,-47.65,-44.7,-24.68,-7.216,-9.996,-14.49,44.25,-8.895,-18.44,-26.01,-14.02,-33.89,0,0,0,0,0,0,0,0,0,0,0,0,0,0,0,0,
629,-79.77,-89.8,-11.19,-48.25,-55.9,-74.43,-30.36,-6.837,-27.7,-32.14,37.96,3.614,-15.44,-16.36,0.0824,-17.67,0,0,0,0,0,0,0,0,0,0,0,0,0,0,0,0,
630,-57.16,-108.7,-4.395,-49.14,-49.51,-71.35,-36.78,-15.12,-29.36,-36.84,56.37,5.492,-6.345,-9.385,12.74,-15.91,0,0,0,0,0,0,0,0,0,0,0,0,0,0,0,0,
631,-72.57,-122.9,1.255,-87.19,-43.54,-52.16,-45.59,-12.75,-25.83,-48.27,65.54,-8.476,-7.891,-15.46,0.452,-32.68,0,0,0,0,0,0,0,0,0,0,0,0,0,0,0,0,
632,-65.49,-107.7,9.316,-74.13,-37.41,-19.91,-41.15,0.6315,-26.36,-39.7,42.32,-12.11,-18.43,-9.669,-15.73,-33.65,0,0,0,0,0,0,0,0,0,0,0,0,0,0,0,0,
633,-31.59,-71.69,10.68,-34.61,-37.61,1.902,-55.22,-2.165,-27.66,-10.59,13.1,-4.822,-31.09,-4.718,-24.02,-32.2,0,0,0,0,0,0,0,0,0,0,0,0,0,0,0,0,
634,-45.7,-53.66,2.503,-30.85,-38.57,-19.01,-81.37,-17.69,-21.6,-7.226,9.832,-0.1665,-36.81,-5.854,-27.79,-39.53,0,0,0,0,0,0,0,0,0,0,0,0,0,0,0,0,
635,-51.58,-42.54,-0.7847,-28.58,-25.27,-31.57,-59.39,-9.961,-9.398,0.0089,25.42,1.925,-38.04,-0.7184,-32.23,-39.0,0,0,0,0,0,0,0,0,0,0,0,0,0,0,0,0,
636,-37.08,-47.58,5.332,-36.98,-17.99,-4.19,-36.26,16.06,-13.97,21.68,26.94,1.571,-40.12,-3.272,-35.73,-36.42,0,0,0,0,0,0,0,0,0,0,0,0,0,0,0,0,
637,-59.91,-76.62,7.343,-78.86,-20.92,7.09,-56.1,23.11,-27.47,8.288,8.593,-0.4653,-29.6,-8.867,-33.27,-38.34,0,0,0,0,0,0,0,0,0,0,0,0,0,0,0,0,
638,-48.69,-74.81,1.004,-76.67,-11.72,-11.54,-47.93,7.411,-24.5,-15.45,6.92,-0.8947,-12.9,-2.837,-29.87,-38.85,0,0,0,0,0,0,0,0,0,0,0,0,0,0,0,0,
639,-0.0503,-46.22,12.31,-31.46,-2.177,-19.05,-12.14,-6.346,-20.32,-14.82,21.85,-4.23,-10.75,-0.9558,-26.51,-42.01,0,0,0,0,0,0,0,0,0,0,0,0,0,0,0,0,
640,-7.559,-43.35,37.99,-45.28,-3.54,-4.956,-8.219,-13.97,-20.63,-15.2,22.58,-12.81,-11.05,-9.793,-23.36,-48.82,0,0,0,0,0,0,0,0,0,0,0,0,0,0,0,0,
641,-31.87,-53.25,40.66,-67.74,-1.567,8.837,-12.26,-18.89,-9.597,-21.38,27.28,-12.32,1.276,-14.2,-24.01,-47.59,0,0,0,0,0,0,0,0,0,0,0,0,0,0,0,0,
642,-22.05,-49.06,32.63,-30.48,4.931,1.708,-4.199,-9.016,0.5401,-14.9,32.61,4.361,15.71,-5.201,-18.74,-32.65,0,0,0,0,0,0,0,0,0,0,0,0,0,0,0,0,
643,-25.95,-44.37,27.46,-42.23,5.2,-8.913,-4.023,-2.666,-7.276,4.209,10.64,11.83,18.03,6.019,-12.14,-23.69,0,0,0,0,0,0,0,0,0,0,0,0,0,0,0,0,
644,-54.71,-55.61,13.77,-86.53,-3.529,-0.0302,-3.586,-4.921,-25.23,12.77,1.155,-0.1048,8.411,3.886,-22.05,-35.97,0,0,0,0,0,0,0,0,0,0,0,0,0,0,0,0,
645,-50.75,-70.37,16.51,-46.55,-13.7,-8.237,-0.4867,22.05,-34.08,0.0929,8.967,0.2823,0.5554,-1.527,-32.82,-44.87,0,0,0,0,0,0,0,0,0,0,0,0,0,0,0,0,
646,-0.428,-65.99,34.64,-26.02,-15.31,-43.88,-2.115,30.84,-31.98,-2.816,-5.973,16.25,3.219,1.125,-24.58,-33.94,0,0,0,0,0,0,0,0,0,0,0,0,0,0,0,0,
647,13.87,-50.26,47.14,-67.5,-3.175,-44.45,9.707,-15.74,-30.76,8.014,-7.953,16.99,9.315,0.7366,-12.86,-28.01,0,0,0,0,0,0,0,0,0,0,0,0,0,0,0,0,
648,-27.02,-48.67,61.99,-53.94,7.118,-20.01,27.7,-24.91,-30.46,-4.029,7.771,5.09,-0.0771,-11.01,-16.5,-41.68,0,0,0,0,0,0,0,0,0,0,0,0,0,0,0,0,
649,-32.08,-62.12,55.91,-45.8,-5.047,-28.13,18.57,-3.823,-38.29,-29.28,-3.426,-1.468,-23.87,-27.55,-30.43,-56.48,0,0,0,0,0,0,0,0,0,0,0,0,0,0,0,0,
650,-24.53,-67.64,36.56,-86.35,-16.6,-32.98,-9.7,-25.68,-48.29,-28.84,-4.568,-3.16,-27.59,-31.11,-36.19,-55.86,0,0,0,0,0,0,0,0,0,0,0,0,0,0,0,0,
651,-69.38,-64.92,47.6,-74.1,-12.63,-20.82,-25.0,-20.34,-32.67,-5.467,23.22,-2.29,-10.43,-20.02,-24.71,-44.21,0,0,0,0,0,0,0,0,0,0,0,0,0,0,0,0,
652,-70.77,-75.72,52.64,-47.04,-19.0,-40.81,-9.054,21.58,-20.41,12.58,35.18,0.1948,-6.158,-16.2,-6.23,-30.86,0,0,0,0,0,0,0,0,0,0,0,0,0,0,0,0,
653,-13.25,-86.31,30.9,-64.0,-27.75,-63.48,21.9,11.77,-43.33,15.43,39.63,4.871,-12.66,-17.35,5.717,-21.06,0,0,0,0,0,0,0,0,0,0,0,0,0,0,0,0,
654,-21.43,-80.97,26.04,-72.67,-31.77,-61.42,22.44,-17.34,-54.27,13.99,50.5,9.469,-16.43,-7.663,8.389,-19.64,0,0,0,0,0,0,0,0,0,0,0,0,0,0,0,0,
655,-51.4,-82.17,29.69,-78.42,-46.02,-66.07,-1.964,-13.96,-38.31,14.25,47.83,9.641,-14.55,3.912,6.629,-19.03,0,0,0,0,0,0,0,0,0,0,0,0,0,0,0,0,
656,-29.26,-85.79,14.59,-94.79,-46.59,-62.43,-15.68,1.551,-38.17,11.65,37.02,10.83,-3.258,3.463,2.683,-12.73,0,0,0,0,0,0,0,0,0,0,0,0,0,0,0,0,
657,-47.52,-75.09,5.537,-87.25,-34.62,-50.7,-19.29,12.1,-48.02,5.544,22.39,5.556,-3.713,-11.72,-8.042,-16.76,0,0,0,0,0,0,0,0,0,0,0,0,0,0,0,0,T2
658,-93.46,-75.94,22.56,-73.5,-39.87,-60.35,-5.358,5.487,-45.31,-0.0922,8.986,-12.0,-22.03,-24.15,-25.01,-32.79,0,0,0,0,0,0,0,0,0,0,0,0,0,0,0,0,
659,-69.82,-98.44,27.76,-81.42,-44.39,-59.52,7.391,5.513,-44.85,-1.674,19.05,-15.36,-25.17,-17.07,-33.1,-36.25,0,0,0,0,0,0,0,0,0,0,0,0,0,0,0,0,
660,-35.26,-100.7,9.208,-78.71,-38.42,-40.15,-7.739,27.92,-47.25,4.171,34.58,-5.774,-18.0,-11.29,-26.47,-24.72,0,0,0,0,0,0,0,0,0,0,0,0,0,0,0,0,
661,-35.75,-64.97,21.81,-48.44,-36.05,-40.13,-0.6738,30.85,-42.6,15.49,36.47,-10.09,-27.71,-15.35,-23.91,-16.88,0,0,0,0,0,0,0,0,0,0,0,0,0,0,0,0,
662,-28.18,-44.76,44.22,-33.23,-33.8,-45.54,18.05,30.16,-42.54,26.91,43.07,-13.08,-27.48,-5.596,-28.15,-14.43,0,0,0,0,0,0,0,0,0,0,0,0,0,0,0,0,
663,-27.59,-57.3,31.55,-40.91,-27.4,-34.87,-4.058,44.78,-35.56,39.0,40.07,-10.08,-0.8262,7.214,-25.53,-14.68,0,0,0,0,0,0,0,0,0,0,0,0,0,0,0,0,
664,-42.36,-47.47,43.63,-39.99,-16.91,-25.28,-2.516,31.64,-15.23,40.36,25.86,-24.66,4.6,1.686,-25.77,-21.12,0,0,0,0,0,0,0,0,0,0,0,0,0,0,0,0,
665,-38.57,-31.32,78.27,-43.74,-8.336,-20.63,35.55,27.1,-17.03,21.23,45.75,-33.67,-11.62,-1.783,-21.33,-16.09,0,0,0,0,0,0,0,0,0,0,0,0,0,0,0,0,
666,-16.4,-50.04,79.02,-48.31,-0.9424,-13.28,38.77,51.49,-19.12,20.86,76.63,-20.21,3.186,4.807,2.607,4.06,0,0,0,0,0,0,0,0,0,0,0,0,0,0,0,0,
667,3.811,-58.04,77.34,-32.77,10.25,-10.49,37.37,36.83,13.35,52.08,70.83,-18.83,21.84,-0.87,6.729,3.563,0,0,0,0,0,0,0,0,0,0,0,0,0,0,0,0,
668,-4.258,-47.48,71.34,-36.2,8.646,-12.64,58.71,26.71,22.67,56.12,58.01,-21.17,9.047,-8.62,-7.979,-5.524,0,0,0,0,0,0,0,0,0,0,0,0,0,0,0,0,
669,-36.19,-52.54,43.01,-49.71,-2.267,-15.41,53.31,62.55,-2.079,36.18,62.19,2.944,8.115,3.394,10.54,15.47,0,0,0,0,0,0,0,0,0,0,0,0,0,0,0,0,
670,-41.61,-53.76,38.05,-25.14,-4.151,-16.62,32.27,64.51,-6.496,41.92,74.46,17.17,16.95,15.62,30.05,29.21,0,0,0,0,0,0,0,0,0,0,0,0,0,0,0,0,
671,-23.92,-45.56,42.28,-9.307,-9.537,-9.71,34.33,48.96,-7.656,48.96,86.79,-1.786,-1.488,10.13,13.79,8.62,0,0,0,0,0,0,0,0,0,0,0,0,0,0,0,0,
672,-24.99,-45.63,25.63,-27.71,-20.23,-17.62,26.03,56.16,-17.98,34.95,78.18,-19.07,-21.89,-4.588,2.566,-7.363,0,0,0,0,0,0,0,0,0,0,0,0,0,0,0,0,
673,-26.2,-52.16,24.23,-28.32,-18.99,-40.34,2.254,42.88,-11.11,23.14,67.36,-24.48,-23.65,-18.29,2.743,-10.82,0,0,0,0,0,0,0,0,0,0,0,0,0,0,0,0,
674,-8.931,-50.86,44.72,-20.66,-1.025,-18.71,29.2,48.7,2.277,22.06,83.72,-26.15,-18.92,-18.19,-1.505,-12.2,0,0,0,0,0,0,0,0,0,0,0,0,0,0,0,0,
675,1.125,-23.43,59.63,-24.48,23.45,18.99,71.1,90.78,13.9,34.81,86.89,-19.42,-13.49,-8.934,3.846,-3.671,0,0,0,0,0,0,0,0,0,0,0,0,0,0,0,0,
676,4.926,-1.691,55.08,-9.537,29.89,8.904,42.59,91.57,19.61,52.72,60.18,-15.43,-13.85,-9.809,8.729,0.0778,0,0,0,0,0,0,0,0,0,0,0,0,0,0,0,0,
677,15.23,-17.32,34.49,-8.889,14.95,0.994,17.34,68.18,9.548,57.88,47.61,-15.27,-12.89,-11.94,10.47,-3.786,0,0,0,0,0,0,0,0,0,0,0,0,0,0,0,0,
678,19.22,-27.34,28.23,-46.74,4.977,3.114,56.34,64.42,11.2,57.95,61.91,-5.609,6.041,-0.8327,32.05,8.939,0,0,0,0,0,0,0,0,0,0,0,0,0,0,0,0,
679,12.86,-20.35,42.97,-41.06,12.29,-24.03,75.35,69.36,30.9,58.14,79.94,-0.8161,26.29,10.21,50.33,23.18,0,0,0,0,0,0,0,0,0,0,0,0,0,0,0,0,
680,5.843,-21.44,46.62,4.756,23.19,-27.62,56.47,86.76,37.34,51.46,86.48,-6.168,18.5,5.578,37.06,12.75,0,0,0,0,0,0,0,0,0,0,0,0,0,0,0,0,
681,10.37,-15.67,40.48,-3.95,20.4,-5.951,53.01,88.3,44.26,40.21,91.42,-3.94,-0.3036,-5.016,23.03,-0.195,0,0,0,0,0,0,0,0,0,0,0,0,0,0,0,0,
682,10.71,-21.12,39.17,-35.25,11.98,-6.805,53.61,68.9,66.19,32.25,95.28,-3.979,-5.522,-5.812,24.34,-1.545,0,0,0,0,0,0,0,0,0,0,0,0,0,0,0,0,
683,-21.34,-54.09,28.7,-32.52,14.73,4.277,41.67,81.43,64.31,36.79,79.7,-12.78,-15.1,-4.195,19.91,-4.798,0,0,0,0,0,0,0,0,0,0,0,0,0,0,0,0,
684,-33.13,-58.75,19.46,-37.32,22.43,19.72,38.25,96.85,47.35,51.67,67.26,-13.3,-25.48,-8.093,11.32,-5.006,0,0,0,0,0,0,0,0,0,0,0,0,0,0,0,0,
685,3.616,-34.88,20.05,-53.67,19.97,-12.6,36.22,69.88,56.49,56.08,63.65,-19.88,-27.1,-17.1,-2.057,-8.484,0,0,0,0,0,0,0,0,0,0,0,0,0,0,0,0,
686,11.86,-34.19,7.05,-55.52,1.133,-50.52,12.01,44.22,54.9,36.42,40.35,-39.24,-41.15,-25.38,-15.86,-16.2,0,0,0,0,0,0,0,0,0,0,0,0,0,0,0,0,
687,-9.431,-44.33,0.92,-58.59,-15.76,-46.94,4.112,43.66,35.87,14.78,35.97,-43.76,-43.17,-15.19,-4.544,-3.508,0,0,0,0,0,0,0,0,0,0,0,0,0,0,0,0,
688,-22.2,-56.31,7.888,-60.89,-16.6,-34.93,23.66,47.72,42.18,11.53,48.35,-47.82,-30.58,-11.26,0.2784,-0.2459,0,0,0,0,0,0,0,0,0,0,0,0,0,0,0,0,
689,-39.88,-74.87,-4.038,-59.46,-14.9,-27.39,1.726,60.04,38.44,4.677,25.89,-53.18,-35.23,-27.29,-9.872,-8.753,0,0,0,0,0,0,0,0,0,0,0,0,0,0,0,0,
690,-26.3,-75.85,10.39,-77.74,4.469,-1.151,-18.56,81.35,43.93,3.575,41.2,-13.94,-0.8316,0.3509,29.72,35.07,0,0,0,0,0,0,0,0,0,0,0,0,0,0,0,0,
691,-4.635,-74.13,51.62,-87.89,38.08,16.31,36.25,80.82,106.6,37.05,110.1,21.49,55.22,44.55,71.45,72.68,0,0,0,0,0,0,0,0,0,0,0,0,0,0,0,0,
692,-22.7,-61.44,35.64,-31.71,29.37,2.944,62.67,60.11,115.3,52.19,109.5,-15.42,24.46,17.45,36.49,28.29,0,0,0,0,0,0,0,0,0,0,0,0,0,0,0,0,
693,-5.694,-9.945,-2.525,42.1,-7.676,-2.389,8.465,66.18,46.67,19.92,60.0,-51.99,-34.91,-23.34,-11.3,-17.36,0,0,0,0,0,0,0,0,0,0,0,0,0,0,0,0,
694,9.649,2.028,-14.04,46.97,-19.55,12.1,-30.82,86.55,22.61,2.813,41.73,-37.79,-43.25,-19.99,-32.59,-24.87,0,0,0,0,0,0,0,0,0,0,0,0,0,0,0,0,
695,-44.15,-35.17,-41.13,33.45,-16.91,28.26,-37.48,83.47,21.74,14.3,14.54,-35.08,-52.44,-20.42,-51.4,-35.66,0,0,0,0,0,0,0,0,0,0,0,0,0,0,0,0,
696,-46.11,-31.4,-66.35,48.64,-21.45,34.99,-44.67,88.21,-0.2291,15.68,-7.804,-53.64,-62.93,-27.71,-47.07,-35.14,0,0,0,0,0,0,0,0,0,0,0,0,0,0,0,0,
697,0.4073,-24.0,-60.56,37.25,-27.84,28.95,-34.54,94.21,2.372,9.099,17.93,-53.38,-46.41,-19.71,-26.62,-20.35,0,0,0,0,0,0,0,0,0,0,0,0,0,0,0,0,
698,-2.222,-33.53,-42.36,25.75,-15.64,46.21,-10.19,64.18,21.02,15.56,27.4,-45.45,-32.01,-11.52,-18.32,-15.89,0,0,0,0,0,0,0,0,0,0,0,0,0,0,0,0,
699,6.963,-4.261,-19.19,50.46,7.26,78.53,-7.917,53.25,38.82,30.29,0.6331,-44.71,-26.79,-5.978,-14.98,-14.74,0,0,0,0,0,0,0,0,0,0,0,0,0,0,0,0,
700,23.04,12.81,-14.22,52.82,1.615,69.09,-24.43,75.51,48.63,35.86,1.435,-37.46,-23.36,2.989,-15.12,-9.764,0,0,0,0,0,0,0,0,0,0,0,0,0,0,0,0,
701,-5.836,0.4453,-24.38,48.03,-12.69,52.83,-28.52,70.58,32.58,38.88,30.86,-30.35,-22.32,11.34,-13.87,-4.073,0,0,0,0,0,0,0,0,0,0,0,0,0,0,0,0,
702,-14.24,3.866,-13.26,66.73,-2.884,65.73,-19.78,76.99,26.88,42.87,54.38,-32.76,-9.328,17.06,3.872,4.109,0,0,0,0,0,0,0,0,0,0,0,0,0,0,0,0,
703,2.073,-4.567,9.409,67.92,14.87,75.67,8.614,118.6,49.6,36.61,81.47,-20.25,20.23,34.5,45.2,30.47,0,0,0,0,0,0,0,0,0,0,0,0,0,0,0,0,
704,10.1,-7.014,30.18,69.66,44.25,94.33,61.79,120.8,81.56,47.47,122.2,8.702,51.93,68.46,99.79,75.92,0,0,0,0,0,0,0,0,0,0,0,0,0,0,0,0,
705,41.03,26.05,49.11,86.6,74.14,122.5,85.08,106.6,118.9,82.04,147.9,20.67,71.35,87.92,122.9,97.92,0,0,0,0,0,0,0,0,0,0,0,0,0,0,0,0,
706,62.94,32.69,43.81,76.73,64.05,113.3,58.52,116.7,125.3,87.9,124.2,15.11,62.68,77.73,93.39,80.14,0,0,0,0,0,0,0,0,0,0,0,0,0,0,0,0,
707,25.04,-6.309,0.8737,49.6,21.88,68.98,12.75,85.61,82.88,58.16,60.61,4.142,14.45,49.37,42.7,49.63,0,0,0,0,0,0,0,0,0,0,0,0,0,0,0,0,
708,-28.92,-47.58,-57.5,34.33,-21.81,28.44,-45.49,45.01,34.08,27.46,2.301,-14.65,-39.41,14.13,-2.613,19.57,0,0,0,0,0,0,0,0,0,0,0,0,0,0,0,0,
709,-56.34,-70.74,-91.97,32.26,-47.47,4.882,-82.12,59.47,-2.452,0.7488,-26.39,-25.66,-55.28,-5.363,-25.4,-1.042,0,0,0,0,0,0,0,0,0,0,0,0,0,0,0,0,
710,-68.86,-78.32,-100.8,30.26,-51.23,-11.11,-75.21,58.58,-23.61,-25.65,-28.4,-19.9,-56.65,-4.803,-15.78,-1.024,0,0,0,0,0,0,0,0,0,0,0,0,0,0,0,0,
711,-64.17,-69.03,-101.0,16.67,-45.36,-7.35,-57.71,36.66,-17.1,-37.53,-7.167,-10.17,-54.42,5.188,10.68,18.44,0,0,0,0,0,0,0,0,0,0,0,0,0,0,0,0,
712,-47.19,-46.78,-84.67,15.3,-29.17,25.77,-36.16,53.88,1.756,-20.06,20.31,-5.903,-22.89,23.2,26.75,37.97,0,0,0,0,0,0,0,0,0,0,0,0,0,0,0,0,
713,-41.38,-51.04,-76.39,29.12,-15.71,43.72,-21.17,69.75,11.11,3.084,20.64,-10.28,-5.553,28.43,16.57,31.37,0,0,0,0,0,0,0,0,0,0,0,0,0,0,0,0,
714,-27.24,-70.24,-88.66,36.94,-23.67,29.32,-31.86,56.31,7.214,0.3834,-5.924,-11.65,-30.26,18.23,-0.4643,12.82,0,0,0,0,0,0,0,0,0,0,0,0,0,0,0,0,
715,-12.39,-39.81,-80.11,51.54,-32.94,20.27,-44.42,39.13,-5.182,-4.105,-16.62,-2.84,-40.17,18.16,1.097,8.344,0,0,0,0,0,0,0,0,0,0,0,0,0,0,0,0,
716,-28.45,-4.829,-63.29,57.75,-29.92,31.23,-49.85,39.27,-3.443,12.72,-2.204,6.621,-23.2,25.11,11.24,11.53,0,0,0,0,0,0,0,0,0,0,0,0,0,0,0,0,
717,-24.5,-22.14,-62.07,43.62,-21.74,54.69,-52.62,64.9,23.86,30.36,10.33,19.57,-11.22,33.99,19.81,22.45,0,0,0,0,0,0,0,0,0,0,0,0,0,0,0,0,
718,-2.64,-37.59,-54.58,47.24,-10.01,67.03,-46.62,70.74,40.86,37.29,31.78,32.46,0.6391,46.88,30.14,36.61,0,0,0,0,0,0,0,0,0,0,0,0,0,0,0,0,
719,-26.59,-35.83,-56.2,58.16,-0.3875,62.72,-39.79,56.41,37.4,40.09,60.75,36.51,20.58,54.83,39.83,40.34,0,0,0,0,0,0,0,0,0,0,0,0,0,0,0,0,
720,-40.21,-41.41,-72.15,56.56,4.162,72.74,-24.96,72.61,50.72,45.81,55.15,42.87,36.05,64.62,53.43,49.0,0,0,0,0,0,0,0,0,0,0,0,0,0,0,0,0,
721,-7.064,-32.15,-66.0,66.63,6.372,79.97,-0.0697,82.34,67.62,54.05,39.46,47.74,41.22,77.9,72.77,64.91,0,0,0,0,0,0,0,0,0,0,0,0,0,0,0,0,
722,13.28,-10.33,-42.49,77.11,16.24,68.57,4.432,72.19,63.63,57.4,63.22,46.28,50.23,84.66,85.18,72.69,0,0,0,0,0,0,0,0,0,0,0,0,0,0,0,0,
723,13.25,-2.813,-30.6,73.6,33.69,75.93,-12.94,78.14,66.97,59.41,91.5,51.34,66.25,89.02,85.9,81.41,0,0,0,0,0,0,0,0,0,0,0,0,0,0,0,0,
724,0.9554,-8.977,-42.08,65.57,28.7,84.61,-18.49,69.57,73.29,61.89,81.57,49.51,66.7,87.26,80.72,86.84,0,0,0,0,0,0,0,0,0,0,0,0,0,0,0,0,
725,-15.4,-17.8,-57.55,48.73,7.723,67.45,-6.63,46.61,60.39,54.64,57.37,34.24,54.34,75.95,71.59,75.52,0,0,0,0,0,0,0,0,0,0,0,0,0,0,0,0,
726,-18.39,-20.29,-45.88,43.54,12.87,65.16,-5.12,35.66,50.73,41.01,56.22,30.21,50.65,65.4,62.15,66.85,0,0,0,0,0,0,0,0,0,0,0,0,0,0,0,0,
727,-28.86,-19.22,-35.08,58.81,28.88,80.25,-16.2,30.25,52.78,33.47,65.48,31.55,42.72,49.63,59.27,65.18,0,0,0,0,0,0,0,0,0,0,0,0,0,0,0,0,
728,-22.83,-20.4,-51.01,57.35,23.56,65.25,-19.44,45.25,50.87,23.66,48.35,20.18,21.58,25.37,55.76,48.59,0,0,0,0,0,0,0,0,0,0,0,0,0,0,0,0,
729,8.388,-16.33,-50.87,49.07,11.43,31.72,-19.87,49.12,38.83,-0.2116,19.31,14.36,13.39,13.22,44.93,32.14,0,0,0,0,0,0,0,0,0,0,0,0,0,0,0,0,
730,-4.626,-13.6,-34.28,58.52,5.713,32.51,-20.97,18.61,23.43,-14.43,13.16,26.0,22.53,15.21,42.84,36.91,0,0,0,0,0,0,0,0,0,0,0,0,0,0,0,0,
731,-24.45,-22.01,-41.74,50.85,5.395,55.78,-20.06,18.75,24.63,-5.003,22.75,30.58,22.53,8.89,52.36,36.26,0,0,0,0,0,0,0,0,0,0,0,0,0,0,0,0,
732,9.427,-21.2,-49.34,26.92,11.29,53.96,-25.64,39.57,33.54,-2.785,28.42,16.4,12.69,-2.276,53.67,21.2,0,0,0,0,0,0,0,0,0,0,0,0,0,0,0,0,
733,14.43,-10.62,-41.18,25.38,10.65,42.36,-29.41,34.5,25.31,-8.995,23.02,8.192,12.63,3.789,47.6,21.57,0,0,0,0,0,0,0,0,0,0,0,0,0,0,0,0,
734,-29.78,-19.42,-46.54,24.98,8.319,49.16,-33.72,29.51,24.15,-1.618,19.07,9.918,21.66,17.21,44.65,31.02,0,0,0,0,0,0,0,0,0,0,0,0,0,0,0,0,
735,-35.14,-35.68,-47.02,8.916,30.35,61.81,-33.13,17.99,49.7,1.532,35.91,4.665,30.05,16.08,41.79,27.65,0,0,0,0,0,0,0,0,0,0,0,0,0,0,0,0,
736,-4.854,-34.38,-24.06,6.29,49.37,65.55,-0.5027,0.1292,61.19,-8.458,62.24,10.94,35.02,10.93,47.25,28.04,0,0,0,0,0,0,0,0,0,0,0,0,0,0,0,0,
737,9.134,-21.05,-11.71,10.19,30.69,47.59,17.07,11.59,43.03,-15.01,75.03,29.21,36.04,16.65,65.6,41.44,0,0,0,0,0,0,0,0,0,0,0,0,0,0,0,0,
738,10.22,-1.093,-17.11,0.7365,16.06,25.83,-6.039,21.43,39.93,-13.89,75.35,21.8,33.69,19.83,68.37,44.38,0,0,0,0,0,0,0,0,0,0,0,0,0,0,0,0,
739,2.934,-1.428,-32.22,-3.676,21.51,30.43,-1.106,12.75,51.43,-7.766,80.62,8.19,26.7,12.85,48.12,30.37,0,0,0,0,0,0,0,0,0,0,0,0,0,0,0,0,
740,-9.667,-33.14,-53.53,-0.8861,12.99,32.73,16.44,16.63,40.37,-5.596,85.46,21.56,22.11,17.16,42.19,24.56,0,0,0,0,0,0,0,0,0,0,0,0,0,0,0,0,
741,-11.87,-42.42,-47.17,-9.974,10.85,18.13,5.325,22.61,36.83,-5.895,75.46,30.43,28.56,33.98,51.92,30.44,0,0,0,0,0,0,0,0,0,0,0,0,0,0,0,0,
742,-22.71,-31.28,-23.18,-14.59,23.89,10.56,8.564,28.05,53.96,-3.071,87.25,26.36,34.92,36.11,45.99,26.59,0,0,0,0,0,0,0,0,0,0,0,0,0,0,0,0,
743,-44.67,-46.13,-24.5,3.008,16.69,2.57,10.11,37.63,43.23,-8.83,124.5,34.73,34.43,31.47,37.12,23.53,0,0,0,0,0,0,0,0,0,0,0,0,0,0,0,0,
744,-39.77,-52.45,-27.27,10.69,4.411,-0.9696,-10.66,23.07,25.09,-8.126,120.8,36.68,29.88,38.09,38.11,29.89,0,0,0,0,0,0,0,0,0,0,0,0,0,0,0,0,
745,-20.54,-33.94,-16.26,-7.998,0.8092,7.778,-7.008,7.157,30.43,8.254,90.28,20.57,14.44,32.95,25.86,16.34,0,0,0,0,0,0,0,0,0,0,0,0,0,0,0,0,
746,-22.62,-42.07,-30.65,-20.96,-21.84,-1.538,-3.558,19.14,16.13,2.092,81.79,11.88,-5.598,10.49,5.918,-11.2,0,0,0,0,0,0,0,0,0,0,0,0,0,0,0,0,
747,-40.89,-67.33,-67.49,-22.31,-46.62,-24.58,-19.09,20.4,-12.41,-21.94,76.61,9.127,-15.45,-0.5224,3.042,-17.58,0,0,0,0,0,0,0,0,0,0,0,0,0,0,0,0,
748,-52.99,-58.86,-75.28,-20.93,-33.56,-29.15,-3.499,8.864,-11.91,-26.72,77.65,0.8528,-14.59,4.705,11.78,-8.469,0,0,0,0,0,0,0,0,0,0,0,0,0,0,0,0,
749,-41.5,-39.52,-45.17,-4.057,-4.742,-17.81,8.268,3.079,-0.599,-24.31,85.89,-0.4159,-3.469,11.7,17.16,-1.516,0,0,0,0,0,0,0,0,0,0,0,0,0,0,0,0,
750,-29.44,-57.56,-32.12,8.854,-6.38,-8.431,-25.89,-15.99,-1.25,-27.72,73.33,4.135,12.12,14.41,16.97,5.453,0,0,0,0,0,0,0,0,0,0,0,0,0,0,0,0,
751,-34.98,-69.12,-47.97,-6.813,-24.47,-7.127,-37.71,-17.73,-2.077,-26.92,65.42,2.39,17.01,13.26,13.91,12.87,0,0,0,0,0,0,0,0,0,0,0,0,0,0,0,0,
752,-36.61,-35.22,-55.09,-27.11,-31.45,-9.694,-11.83,7.224,-4.972,-32.65,78.59,-0.0832,5.665,10.91,5.201,12.57,0,0,0,0,0,0,0,0,0,0,0,0,0,0,0,0,
753,-56.15,-32.94,-74.42,-34.19,-44.39,-19.57,-18.22,-3.365,-24.29,-52.26,84.81,-1.729,-9.538,9.779,-9.279,3.171,0,0,0,0,0,0,0,0,0,0,0,0,0,0,0,0,
754,-89.54,-82.33,-107.0,-37.46,-57.95,-36.04,-51.7,-26.59,-42.53,-60.67,81.26,-4.129,-12.17,10.27,-16.92,-1.63,0,0,0,0,0,0,0,0,0,0,0,0,0,0,0,0,
755,-85.54,-99.34,-107.7,-39.92,-59.36,-44.18,-61.65,-19.81,-41.81,-52.82,75.89,3.596,-10.05,6.48,-13.74,0.9902,0,0,0,0,0,0,0,0,0,0,0,0,0,0,0,0,
756,-77.56,-81.55,-111.6,-40.49,-74.91,-54.67,-59.43,-27.38,-47.3,-57.32,71.27,11.24,-19.29,-2.703,-10.35,-2.344,0,0,0,0,0,0,0,0,0,0,0,0,0,0,0,0,
757,-82.39,-78.45,-133.9,-39.42,-95.55,-74.01,-64.6,-42.73,-63.82,-65.36,68.05,3.135,-30.91,-8.327,-11.98,-9.17,0,0,0,0,0,0,0,0,0,0,0,0,0,0,0,0,
758,-75.13,-90.46,-126.1,-37.32,-103.6,-78.84,-70.6,-28.37,-74.38,-59.9,54.13,1.197,-34.28,-14.02,-17.25,-12.33,0,0,0,0,0,0,0,0,0,0,0,0,0,0,0,0,
759,-96.31,-103.4,-122.0,-46.45,-118.8,-78.96,-85.08,-19.55,-90.86,-67.0,34.1,8.899,-33.27,-25.4,-20.27,-17.94,0,0,0,0,0,0,0,0,0,0,0,0,0,0,0,0,
760,-118.2,-109.3,-143.9,-70.01,-124.5,-84.58,-91.54,-34.86,-97.38,-76.58,35.97,0.4189,-34.8,-33.72,-16.61,-26.2,0,0,0,0,0,0,0,0,0,0,0,0,0,0,0,0,
761,-101.2,-113.9,-139.6,-67.79,-108.4,-74.88,-73.79,-45.16,-79.96,-68.72,55.05,-8.916,-43.59,-37.96,-16.59,-30.73,0,0,0,0,0,0,0,0,0,0,0,0,0,0,0,0,
762,-123.0,-113.2,-126.6,-41.38,-107.1,-68.47,-79.89,-43.32,-82.37,-79.42,47.68,-5.843,-50.9,-40.87,-25.39,-29.23,0,0,0,0,0,0,0,0,0,0,0,0,0,0,0,0,
763,-149.6,-94.38,-135.7,-56.24,-112.5,-74.23,-99.95,-42.14,-95.92,-96.81,21.66,-12.18,-44.95,-38.53,-23.97,-22.73,0,0,0,0,0,0,0,0,0,0,0,0,0,0,0,0,
764,-86.14,-79.31,-122.4,-68.67,-85.47,-51.98,-69.26,-36.33,-69.32,-79.48,32.63,-15.79,-26.28,-37.18,-7.813,-18.34,0,0,0,0,0,0,0,0,0,0,0,0,0,0,0,0,
765,-28.41,-69.65,-85.71,-19.39,-52.66,-25.2,-40.89,-20.28,-35.29,-63.28,61.59,-9.136,-10.09,-46.79,-2.443,-26.02,0,0,0,0,0,0,0,0,0,0,0,0,0,0,0,0,
766,-48.21,-49.76,-76.87,-8.736,-54.86,-36.26,-54.04,-23.5,-43.86,-71.13,54.21,-22.44,-16.33,-56.65,-4.099,-39.58,0,0,0,0,0,0,0,0,0,0,0,0,0,0,0,0,
767,-57.25,-44.67,-79.32,-47.4,-60.34,-36.21,-40.89,-47.12,-61.61,-66.67,33.55,-34.42,-26.06,-47.7,9.124,-38.0,0,0,0,0,0,0,0,0,0,0,0,0,0,0,0,0,
768,-39.73,-51.39,-64.99,-32.64,-45.74,-6.751,-19.51,-43.42,-46.82,-41.79,39.06,-18.46,-11.62,-34.93,11.8,-27.55,0,0,0,0,0,0,0,0,0,0,0,0,0,0,0,0,
769,-50.06,-48.0,-60.87,-14.54,-50.26,-3.872,-31.12,-18.34,-29.31,-19.35,54.5,-16.02,-2.662,-42.02,-10.99,-35.3,0,0,0,0,0,0,0,0,0,0,0,0,0,0,0,0,
770,-65.12,-52.51,-62.96,-33.56,-68.29,-27.46,-42.59,-15.78,-40.87,-16.66,52.83,-27.78,-15.81,-47.45,-22.48,-46.92,0,0,0,0,0,0,0,0,0,0,0,0,0,0,0,0,
771,-67.28,-67.79,-66.32,-28.59,-66.87,-49.4,-65.53,-31.06,-54.47,-31.24,41.34,-17.13,-23.8,-43.99,-18.31,-37.36,0,0,0,0,0,0,0,0,0,0,0,0,0,0,0,0,
772,-75.33,-78.92,-95.34,-25.32,-70.2,-66.24,-86.86,-37.49,-58.08,-36.7,37.16,-10.66,-27.04,-57.05,-22.48,-26.98,0,0,0,0,0,0,0,0,0,0,0,0,0,0,0,0,
773,-66.6,-81.47,-103.1,-40.31,-83.17,-65.18,-69.12,-35.4,-71.24,-29.1,36.98,-19.16,-30.43,-63.6,-28.61,-30.87,0,0,0,0,0,0,0,0,0,0,0,0,0,0,0,0,
774,-53.08,-77.86,-76.13,-39.3,-85.44,-62.34,-67.56,-44.14,-79.1,-32.94,32.92,-16.55,-32.89,-49.98,-35.39,-38.74,0,0,0,0,0,0,0,0,0,0,0,0,0,0,0,0,
775,-74.59,-81.75,-87.18,-49.69,-86.79,-71.92,-88.06,-57.17,-70.76,-40.79,20.3,-23.01,-50.59,-57.3,-53.08,-52.03,0,0,0,0,0,0,0,0,0,0,0,0,0,0,0,0,
776,-85.45,-83.7,-107.9,-60.18,-87.01,-66.45,-84.92,-54.84,-73.96,-39.24,8.982,-42.45,-68.15,-75.62,-67.55,-61.91,0,0,0,0,0,0,0,0,0,0,0,0,0,0,0,0,
777,-68.63,-75.74,-93.59,-37.11,-91.99,-61.99,-88.06,-58.83,-91.24,-51.44,14.0,-51.72,-72.93,-76.08,-71.91,-58.7,0,0,0,0,0,0,0,0,0,0,0,0,0,0,0,0,
778,-80.56,-84.68,-97.79,-32.47,-112.0,-74.35,-101.9,-73.78,-101.3,-71.4,16.57,-64.0,-85.23,-82.5,-77.3,-62.73,0,0,0,0,0,0,0,0,0,0,0,0,0,0,0,0,
779,-96.78,-96.54,-109.1,-55.94,-114.9,-65.27,-101.8,-59.36,-103.3,-70.39,15.48,-64.59,-85.31,-87.36,-71.24,-67.74,0,0,0,0,0,0,0,0,0,0,0,0,0,0,0,0,
780,-76.06,-79.14,-90.76,-53.88,-94.93,-47.98,-96.6,-33.41,-95.7,-69.15,27.46,-36.71,-65.11,-67.54,-49.52,-51.38,0,0,0,0,0,0,0,0,0,0,0,0,0,0,0,0,
781,-62.96,-64.18,-86.75,-46.04,-88.65,-59.18,-93.37,-47.34,-83.34,-78.43,23.02,-30.96,-63.15,-55.88,-47.87,-44.29,0,0,0,0,0,0,0,0,0,0,0,0,0,0,0,0,
782,-75.62,-71.62,-100.7,-60.49,-94.04,-69.49,-108.0,-71.04,-85.95,-71.96,2.314,-53.86,-64.98,-64.65,-65.87,-59.74,0,0,0,0,0,0,0,0,0,0,0,0,0,0,0,0,
783,-81.92,-68.62,-97.11,-59.15,-93.55,-58.62,-120.4,-62.48,-88.81,-63.29,-17.1,-62.61,-58.46,-71.88,-70.59,-66.24,0,0,0,0,0,0,0,0,0,0,0,0,0,0,0,0,
784,-72.18,-59.38,-91.32,-42.18,-99.31,-56.41,-101.2,-56.09,-83.68,-76.0,-52.62,-67.26,-76.98,-80.99,-74.53,-72.29,0,0,0,0,0,0,0,0,0,0,0,0,0,0,0,0,
785,-47.59,-67.31,-92.06,-40.82,-106.0,-65.73,-89.14,-64.22,-100.2,-87.55,-60.56,-72.94,-88.35,-81.16,-80.59,-84.29,0,0,0,0,0,0,0,0,0,0,0,0,0,0,0,0,
786,-29.54,-67.59,-83.14,-37.59,-88.79,-53.61,-84.93,-56.27,-112.7,-77.94,-26.22,-60.58,-70.81,-62.97,-68.47,-78.82,0,0,0,0,0,0,0,0,0,0,0,0,0,0,0,0,
787,-49.61,-55.97,-73.03,-34.19,-64.86,-23.79,-75.11,-54.73,-96.11,-62.86,-22.93,-48.48,-80.42,-62.24,-66.92,-74.75,0,0,0,0,0,0,0,0,0,0,0,0,0,0,0,0,
788,-65.39,-53.94,-67.03,-45.54,-59.74,-8.816,-89.86,-68.73,-97.19,-54.91,-32.33,-47.26,-101.6,-74.98,-80.93,-81.43,0,0,0,0,0,0,0,0,0,0,0,0,0,0,0,0,
789,-39.77,-38.14,-60.24,-38.37,-64.09,-17.91,-95.32,-58.59,-112.0,-47.58,-18.99,-38.33,-93.75,-66.53,-71.34,-71.14,0,0,0,0,0,0,0,0,0,0,0,0,0,0,0,0,
790,-32.13,-19.07,-64.8,-19.03,-73.83,-38.42,-81.18,-43.63,-110.2,-47.39,-30.38,-25.67,-95.24,-62.8,-58.96,-60.93,0,0,0,0,0,0,0,0,0,0,0,0,0,0,0,0,
791,-43.92,-37.76,-68.98,-23.98,-75.15,-41.82,-96.78,-53.39,-116.7,-56.73,-49.87,-28.83,-102.8,-81.39,-69.09,-73.73,0,0,0,0,0,0,0,0,0,0,0,0,0,0,0,0,
792,-32.49,-59.17,-59.71,-40.88,-59.53,-29.18,-109.5,-64.16,-122.7,-57.59,-44.59,-42.21,-91.44,-96.33,-72.66,-87.11,0,0,0,0,0,0,0,0,0,0,0,0,0,0,0,0,
793,-52.67,-62.61,-64.42,-60.42,-60.77,-31.8,-98.7,-61.63,-114.2,-56.66,-48.06,-36.87,-92.51,-100.1,-64.19,-83.13,0,0,0,0,0,0,0,0,0,0,0,0,0,0,0,0,
794,-82.49,-69.02,-71.68,-65.97,-68.12,-30.22,-96.52,-47.03,-111.1,-57.98,-48.91,-14.28,-92.74,-86.78,-59.8,-68.97,0,0,0,0,0,0,0,0,0,0,0,0,0,0,0,0,
795,-35.73,-51.11,-58.92,-38.6,-56.31,-19.91,-78.96,-42.56,-99.23,-48.23,-20.2,-11.63,-72.55,-65.44,-61.67,-66.41,0,0,0,0,0,0,0,0,0,0,0,0,0,0,0,0,
796,2.241,-17.71,-53.98,-19.39,-55.71,-27.11,-45.57,-59.77,-83.44,-43.64,1.816,-25.55,-68.99,-63.42,-68.43,-77.7,0,0,0,0,0,0,0,0,0,0,0,0,0,0,0,0,
797,-24.21,-16.3,-43.53,-15.56,-51.15,-7.778,-40.28,-53.23,-81.15,-32.35,0.4536,-24.37,-70.01,-59.35,-65.64,-75.69,0,0,0,0,0,0,0,0,0,0,0,0,0,0,0,0,
798,-22.54,-25.83,-16.2,3.435,-25.88,27.98,-53.64,-25.79,-61.46,6.199,-0.0827,-18.93,-53.99,-43.44,-55.36,-66.61,0,0,0,0,0,0,0,0,0,0,0,0,0,0,0,0,
799,-7.125,-22.98,-17.35,9.079,-26.92,7.681,-52.22,-23.14,-36.86,16.03,-6.527,-22.34,-57.02,-47.08,-62.49,-71.43,0,0,0,0,0,0,0,0,0,0,0,0,0,0,0,0,
800,-34.18,-26.26,-30.13,-5.332,-42.78,-18.18,-41.04,-30.85,-45.31,-12.4,-23.46,-19.46,-72.27,-49.06,-67.63,-69.63,0,0,0,0,0,0,0,0,0,0,0,0,0,0,0,0,
801,-43.34,-32.26,-22.76,-10.28,-38.99,-4.116,-47.2,-37.39,-56.94,-10.27,-21.53,-13.22,-62.35,-27.66,-44.72,-52.23,0,0,0,0,0,0,0,0,0,0,0,0,0,0,0,0,
802,-14.09,-19.84,-21.57,-16.4,-35.46,0.4447,-54.31,-43.14,-53.92,10.48,-10.4,-10.74,-44.21,-15.98,-26.87,-37.28,0,0,0,0,0,0,0,0,0,0,0,0,0,0,0,0,
803,-5.341,0.4742,-19.4,-20.03,-31.91,-0.2693,-29.1,-30.87,-59.0,-2.329,-15.44,-5.25,-38.88,-16.72,-29.69,-23.63,0,0,0,0,0,0,0,0,0,0,0,0,0,0,0,0,
804,-20.45,-7.701,-5.781,-7.618,-16.34,5.372,-4.085,-21.3,-57.62,-23.0,-10.74,-8.506,-32.8,-16.44,-24.23,-15.48,0,0,0,0,0,0,0,0,0,0,0,0,0,0,0,0,
805,-23.13,-30.57,-6.52,-3.666,-7.329,-11.39,-3.406,-30.2,-36.92,-17.76,12.58,-26.11,-24.4,-32.83,-13.63,-30.46,0,0,0,0,0,0,0,0,0,0,0,0,0,0,0,0,
806,-13.97,-23.17,-8.691,-14.77,-19.93,-31.08,1.714,-40.27,-31.49,-14.11,21.78,-33.47,-30.59,-54.84,-13.16,-50.53,0,0,0,0,0,0,0,0,0,0,0,0,0,0,0,0,
807,-4.179,-6.216,2.939,-24.48,-32.49,-29.49,4.932,-44.93,-45.55,-31.62,10.56,-25.6,-45.9,-53.61,-15.46,-50.14,0,0,0,0,0,0,0,0,0,0,0,0,0,0,0,0,
808,-7.838,-11.34,-2.547,-30.46,-22.02,-27.86,-6.065,-33.23,-50.02,-50.5,4.476,-22.55,-50.39,-47.66,-21.7,-48.43,0,0,0,0,0,0,0,0,0,0,0,0,0,0,0,0,
809,-34.22,-22.65,-22.57,-31.03,-20.01,-33.21,-11.95,-14.37,-52.17,-70.54,10.22,-26.67,-46.52,-55.95,-27.86,-58.09,0,0,0,0,0,0,0,0,0,0,0,0,0,0,0,0,
810,-30.34,-27.32,-20.73,-23.64,-34.28,-28.25,-15.65,-19.83,-54.17,-85.46,-1.153,-28.78,-48.89,-59.58,-30.59,-60.54,0,0,0,0,0,0,0,0,0,0,0,0,0,0,0,0,
811,8.405,-22.38,-15.35,-12.28,-27.49,-18.91,-20.24,-32.91,-51.22,-72.06,-17.94,-24.74,-55.79,-55.74,-42.22,-59.38,0,0,0,0,0,0,0,0,0,0,0,0,0,0,0,0,
812,0.2625,-17.71,-26.06,-3.606,-24.78,-17.2,-15.67,-23.51,-66.26,-65.47,-3.64,-14.89,-52.54,-54.52,-44.3,-59.55,0,0,0,0,0,0,0,0,0,0,0,0,0,0,0,0,
813,-22.31,-21.94,-20.77,0.1761,-39.81,-14.73,-19.16,-10.66,-73.53,-85.34,-8.29,-12.67,-46.46,-51.31,-30.83,-51.0,0,0,0,0,0,0,0,0,0,0,0,0,0,0,0,0,
814,-12.55,-13.92,-12.71,0.0733,-33.16,-18.94,-35.51,-16.63,-52.53,-86.92,-46.89,-20.9,-56.7,-52.05,-39.39,-51.11,0,0,0,0,0,0,0,0,0,0,0,0,0,0,0,0,
815,-37.83,-3.522,-27.84,-15.56,-24.85,-30.05,-38.28,-24.99,-55.86,-78.36,-37.42,-15.34,-62.08,-52.21,-53.56,-61.42,0,0,0,0,0,0,0,0,0,0,0,0,0,0,0,0,
816,-54.56,-17.52,-30.18,-39.77,-27.55,-25.56,-33.43,-19.62,-68.55,-84.88,-4.483,3.742,-47.61,-36.06,-37.11,-52.34,0,0,0,0,0,0,0,0,0,0,0,0,0,0,0,0,
817,-8.646,-26.34,-19.25,-38.92,-8.891,-17.03,-43.38,-12.3,-46.91,-81.33,-19.65,10.76,-39.32,-22.21,-21.56,-36.16,0,0,0,0,0,0,0,0,0,0,0,0,0,0,0,0,
818,0.2434,-16.34,-16.53,-25.29,3.916,-7.672,-50.54,-11.21,-35.68,-72.56,-40.77,9.699,-36.91,-24.58,-29.34,-40.68,0,0,0,0,0,0,0,0,0,0,0,0,0,0,0,0,
819,-14.58,-18.4,-8.232,-23.66,-13.91,5.244,-35.0,-14.48,-44.01,-80.33,-42.75,1.123,-44.53,-39.48,-45.69,-61.2,0,0,0,0,0,0,0,0,0,0,0,0,0,0,0,0,
820,11.08,-23.74,-11.05,-7.434,-28.47,-17.45,-15.84,-20.45,-43.61,-97.55,-52.39,-28.39,-82.27,-70.12,-67.06,-84.66,0,0,0,0,0,0,0,0,0,0,0,0,0,0,0,0,
821,-0.3461,-8.832,-24.05,8.15,-32.67,-52.3,-17.98,-23.83,-53.18,-117.1,-51.07,-44.97,-105.7,-84.77,-77.9,-90.66,0,0,0,0,0,0,0,0,0,0,0,0,0,0,0,0,
822,-27.72,5.845,-12.44,-21.13,-39.44,-46.62,-29.04,-29.44,-58.4,-122.5,-28.06,-29.1,-89.86,-64.02,-63.27,-73.73,0,0,0,0,0,0,0,0,0,0,0,0,0,0,0,0,
823,-10.81,-3.31,-2.548,-46.81,-37.08,-31.27,-22.03,-32.63,-41.29,-107.9,-14.03,-27.56,-82.69,-52.04,-52.02,-67.59,0,0,0,0,0,0,0,0,0,0,0,0,0,0,0,0,
824,-31.77,-25.59,-18.15,-32.97,-29.41,-22.82,-16.52,-14.36,-42.52,-104.7,-20.48,-40.44,-88.41,-58.48,-63.69,-78.64,0,0,0,0,0,0,0,0,0,0,0,0,0,0,0,0,
825,-53.87,-33.19,-27.48,-29.11,-34.98,-11.82,-33.39,8.404,-56.97,-115.7,-35.1,-22.48,-79.57,-52.74,-65.91,-71.07,0,0,0,0,0,0,0,0,0,0,0,0,0,0,0,0,
826,3.621,-21.83,-20.15,-24.97,-41.73,-15.11,-35.54,6.757,-41.14,-109.1,-51.38,2.564,-66.64,-43.04,-50.26,-47.84,0,0,0,0,0,0,0,0,0,0,0,0,0,0,0,0,
827,26.11,-15.29,-14.21,3.817,-35.43,-16.01,-13.0,-6.002,-23.18,-95.71,-56.11,0.9983,-59.3,-38.26,-46.19,-33.97,0,0,0,0,0,0,0,0,0,0,0,0,0,0,0,0,
828,-1.024,-9.478,-10.56,-1.78,-22.17,-2.037,6.325,1.649,-32.58,-94.49,-27.51,4.447,-43.08,-19.95,-26.84,-9.416,0,0,0,0,0,0,0,0,0,0,0,0,0,0,0,0,
829,20.1,15.06,8.36,-27.1,3.09,9.829,35.16,24.21,-20.58,-71.36,20.65,25.86,-10.57,9.145,30.18,28.07,0,0,0,0,0,0,0,0,0,0,0,0,0,0,0,0,
830,32.44,39.0,34.58,-1.79,30.67,26.15,74.84,24.92,19.94,-29.04,50.94,32.7,10.7,22.53,58.67,34.15,0,0,0,0,0,0,0,0,0,0,0,0,0,0,0,0,
831,21.64,46.01,33.5,21.45,24.2,36.68,74.41,18.86,25.28,-27.49,49.13,21.43,0.757,11.87,37.35,14.07,0,0,0,0,0,0,0,0,0,0,0,0,0,0,0,0,
832,28.21,30.97,-0.035,-0.4305,-15.79,15.24,18.29,37.28,-2.457,-58.89,11.68,7.289,-24.49,-10.84,6.818,-4.742,0,0,0,0,0,0,0,0,0,0,0,0,0,0,0,0,
833,-16.04,-17.43,-48.66,-12.19,-51.24,-18.76,-34.28,31.97,-31.6,-84.63,-48.52,-17.8,-65.93,-38.87,-41.08,-38.17,0,0,0,0,0,0,0,0,0,0,0,0,0,0,0,0,
834,-62.09,-51.86,-88.58,-20.36,-63.41,-30.72,-52.66,-11.83,-71.31,-107.8,-83.46,-40.93,-106.7,-57.59,-82.83,-64.28,0,0,0,0,0,0,0,0,0,0,0,0,0,0,0,0,
835,-26.62,-31.69,-90.78,-46.19,-62.69,-23.2,-78.29,-25.6,-92.42,-106.5,-72.2,-30.63,-102.1,-50.31,-67.23,-44.67,0,0,0,0,0,0,0,0,0,0,0,0,0,0,0,0,
836,-9.524,-11.74,-68.98,-41.93,-53.25,-13.95,-87.04,-5.401,-75.97,-78.94,-52.15,-9.66,-80.57,-36.55,-38.82,-17.16,0,0,0,0,0,0,0,0,0,0,0,0,0,0,0,0,
837,-27.45,-15.65,-56.67,-16.66,-31.17,-0.9092,-26.96,-2.554,-67.63,-74.37,-41.28,-9.289,-76.59,-35.07,-34.57,-11.06,0,0,0,0,0,0,0,0,0,0,0,0,0,0,0,0,
838,-7.478,-10.09,-53.13,-15.57,-22.17,6.987,19.28,-17.73,-70.15,-78.74,-28.73,-6.793,-64.42,-32.68,-22.15,-7.034,0,0,0,0,0,0,0,0,0,0,0,0,0,0,0,0,
839,6.403,-1.307,-48.02,-21.92,-32.97,-7.455,-3.132,-20.16,-58.56,-64.85,-36.14,3.344,-55.11,-28.33,-11.94,-13.11,0,0,0,0,0,0,0,0,0,0,0,0,0,0,0,0,
840,-0.1024,7.774,-40.15,-22.54,-27.77,-21.58,-13.24,-10.04,-47.17,-65.45,-55.53,-3.068,-59.28,-32.12,-18.44,-33.43,0,0,0,0,0,0,0,0,0,0,0,0,0,0,0,0,
841,9.44,13.8,-39.43,-26.69,-23.8,-17.8,4.262,-12.55,-43.82,-80.43,-39.53,-18.18,-50.77,-39.35,-16.92,-45.08,0,0,0,0,0,0,0,0,0,0,0,0,0,0,0,0,
842,7.747,-15.39,-55.43,-31.64,-44.83,-8.509,-6.891,-13.87,-45.5,-83.9,-22.43,-24.11,-51.43,-40.35,-17.62,-46.37,0,0,0,0,0,0,0,0,0,0,0,0,0,0,0,0,
843,-14.91,-46.17,-68.29,-29.42,-38.68,5.482,-24.28,5.939,-45.75,-79.89,-34.87,-15.28,-63.1,-24.84,-21.17,-33.44,0,0,0,0,0,0,0,0,0,0,0,0,0,0,0,0,
844,-13.73,-17.59,-57.52,-8.598,2.999,19.87,2.259,15.44,-30.91,-66.16,-20.93,1.086,-40.87,1.125,3.951,-3.213,0,0,0,0,0,0,0,0,0,0,0,0,0,0,0,0,
