%OpenBCI Raw EXG Data
%Number of channels = 16
%Sample Rate = 125 Hz
%Board = OpenBCI_GUI$BoardCytonSerialDaisy
Sample Index,EXG Channel 0,EXG Channel 1,EXG Channel 2,EXG Channel 3,EXG Channel 4,EXG Channel 5,EXG Channel 6,EXG Channel 7,EXG Channel 8,EXG Channel 9,EXG Channel 10,EXG Channel 11,EXG Channel 12,EXG Channel 13,EXG Channel 14,EXG Channel 15,Accel Channel 0,Accel Channel 1,Accel Channel 2,Other,Other,Other,Other,Other,Other,Other,Analog Channel 0,Analog Channel 1,Analog Channel 2,Timestamp,Other,Timestamp (Formatted),Annotations
1,-0,0,0,0,0,0,0,0,-0,-0,-0,0,0,0,0,0,0,0,0,0,0,0,0,0,0,0,0,0,0,0,0,0,T0
2,-28.13,-16.71,0.2907,-109.1,5.396,3.433,13.98,-11.61,-18.95,-5.841,8.317,15.98,20.15,-0.2019,12.11,7.618,0,0,0,0,0,0,0,0,0,0,0,0,0,0,0,0,
3,11.08,-12.94,15.91,-97.44,21.85,30.28,46.28,-50.15,9.996,21.85,17.91,40.09,28.32,8.678,43.09,29.42,0,0,0,0,0,0,0,0,0,0,0,0,0,0,0,0,
4,58.17,-1.466,-34.08,-107.8,14.13,88.73,82.7,-73.9,42.61,45.75,35.92,57.17,36.42,10.36,51.5,34.26,0,0,0,0,0,0,0,0,0,0,0,0,0,0,0,0,
5,69.13,5.445,-46.95,-98.74,-11.82,78.09,52.53,-38.65,-0.5286,16.84,26.2,53.37,34.49,1.933,34.62,16.42,0,0,0,0,0,0,0,0,0,0,0,0,0,0,0,0,
6,61.14,-1.403,42,-2.456,6.963,-8.394,-18.85,0.68,-36.58,-19.77,-5.422,33.43,12.7,-10.26,20.51,0.5199,0,0,0,0,0,0,0,0,0,0,0,0,0,0,0,0,
7,39.49,-24.93,71.27,7.948,50.86,-30.77,-29.95,8.482,12.12,-10.51,-17.75,11.43,-5.708,-24.11,6.482,-9.764,0,0,0,0,0,0,0,0,0,0,0,0,0,0,0,0,
8,13.84,-42.61,34.27,-52.71,42.05,-14.23,-4.9,10.79,22.93,12.36,-28.11,-8.25,-13.2,-22.05,2.319,-15.41,0,0,0,0,0,0,0,0,0,0,0,0,0,0,0,0,
9,2.363,-31.3,19.01,-75.76,12.38,-19.15,23.89,-21.54,-10.88,20.09,-38.58,-13.53,-10.28,-4.731,17.33,-12.22,0,0,0,0,0,0,0,0,0,0,0,0,0,0,0,0,
10,13.31,1.66,-29.14,-127.7,5.213,39.75,76.7,-62.92,23.46,12.55,-29.9,10.32,10.63,-2.018,28.4,-6.872,0,0,0,0,0,0,0,0,0,0,0,0,0,0,0,0,
11,36.82,19.06,-59.23,-125.7,-21.44,83.73,66.57,-33.01,43.71,-7.507,-21.58,25.52,20.86,-9.958,30.78,-1.691,0,0,0,0,0,0,0,0,0,0,0,0,0,0,0,0,
12,40.06,7.005,11.17,-5.548,-19.63,8.477,-12.63,17.43,-1.849,-10.44,-12.04,12.3,9.412,-5.072,37.59,9.399,0,0,0,0,0,0,0,0,0,0,0,0,0,0,0,0,
13,23.12,-4.278,45.65,34.64,58.13,-31.1,-19.34,31.6,-9.051,8.7,4.813,16.13,12.44,-0.4605,40.31,17.09,0,0,0,0,0,0,0,0,0,0,0,0,0,0,0,0,
14,23.58,-6.052,-2.28,-38.63,98.05,14.68,39.38,19.52,11.81,24.52,-1.74,28.01,22.88,-7.184,30.93,9.572,0,0,0,0,0,0,0,0,0,0,0,0,0,0,0,0,
15,38.82,0.7918,2.538,-101.6,69.59,28.76,80.18,-34.79,-1.852,38.18,-28.75,17.51,19.73,-3.407,18.28,1.387,0,0,0,0,0,0,0,0,0,0,0,0,0,0,0,0,
16,43.04,27.68,35.64,-125.5,52.13,21,86.72,-58.38,-34.99,44.23,-40.29,17.06,22.64,13.65,8.963,4.405,0,0,0,0,0,0,0,0,0,0,0,0,0,0,0,0,
17,40.01,38.2,9.388,-68.74,36.23,15.5,36.66,4.722,-50.06,35.51,-30.95,21.8,27.57,16.31,6.94,7.364,0,0,0,0,0,0,0,0,0,0,0,0,0,0,0,0,
18,27.85,15.16,-13.21,2.799,29.99,-8.788,-11.98,24.97,-17.85,27.06,-20.13,3.931,21.17,2.877,15.14,9.229,0,0,0,0,0,0,0,0,0,0,0,0,0,0,0,0,
19,4.189,6.5,-7.91,-24.09,51.75,-25.27,2.713,-25.16,10.47,20.02,-18.87,-5.317,20.1,1.095,25.48,14.41,0,0,0,0,0,0,0,0,0,0,0,0,0,0,0,0,
20,6.212,15.32,-31.55,-72.58,37.16,-13.38,30.42,-27.38,-10.8,20.46,-23.33,3.57,23.42,11.56,27.67,14,0,0,0,0,0,0,0,0,0,0,0,0,0,0,0,0,
21,35.54,21.63,-49.65,-114,9.002,19.79,69.74,-9.312,-24.67,34.26,-25.66,8.997,24,14.37,28.05,15.1,0,0,0,0,0,0,0,0,0,0,0,0,0,0,0,0,
22,37.62,29.11,-11.23,-142.5,41.41,30.47,101.1,-34.9,-17.26,35.03,-18.93,21.55,32.71,16.71,40.88,31.78,0,0,0,0,0,0,0,0,0,0,0,0,0,0,0,0,
23,26.54,13.47,40.7,-52.71,80.17,8.753,46.67,-39.88,-14.1,20.9,-6.843,36.75,38.81,25.27,57.02,46.39,0,0,0,0,0,0,0,0,0,0,0,0,0,0,0,0,
24,49.49,-19.39,54.44,39.34,68.31,22.52,-17.35,6.293,-9.07,22.08,-7.133,32.64,29.24,22.68,54.24,40.88,0,0,0,0,0,0,0,0,0,0,0,0,0,0,0,0,
25,68.67,-25.65,31.83,4.033,51.85,41.1,-7.448,27.5,-14.51,29.14,-18.61,25.26,23.44,11.49,40.41,28.33,0,0,0,0,0,0,0,0,0,0,0,0,0,0,0,0,
26,50.62,-11.64,-0.1096,-39.76,52.51,4.033,22.3,-17.86,-25.2,7.546,-25.41,23.24,25.7,6.544,27.59,18.23,0,0,0,0,0,0,0,0,0,0,0,0,0,0,0,0,
27,23.53,4.971,-30.41,-89.93,31.34,-11.32,50.94,-57.19,-23.14,-11.77,-37.83,6.173,15.87,3.276,6,7.142,0,0,0,0,0,0,0,0,0,0,0,0,0,0,0,0,
28,3.617,14.95,-41.52,-153.3,5.453,9.286,62.21,-40.59,-20.81,21.53,-59.98,-11.59,7.436,8.618,-6.824,2.015,0,0,0,0,0,0,0,0,0,0,0,0,0,0,0,0,
29,-1.415,6.209,3.01,-100.5,25.07,-6.853,35.62,-31.79,-28.65,46.45,-64.47,-7.151,21.65,30.99,5.867,7.926,0,0,0,0,0,0,0,0,0,0,0,0,0,0,0,0,
30,8.32,11.61,34.13,-27.4,49.16,-24.9,31.02,-41.16,-44.62,20.52,-59.17,0.2405,29.89,41.22,9.331,15.27,0,0,0,0,0,0,0,0,0,0,0,0,0,0,0,0,
31,11.94,31.87,-34.35,-53.34,20.28,-17.59,39.67,-10.4,-57.52,30.47,-77.47,1.511,10.82,20.03,-3.104,11.57,0,0,0,0,0,0,0,0,0,0,0,0,0,0,0,0,
32,8.516,9.465,-88.88,-86.09,-26.66,-22.6,18.17,4.017,-74.44,63.2,-93.42,8.576,-2.052,-0.0865,-0.2662,-0.5236,0,0,0,0,0,0,0,0,0,0,0,0,0,0,0,0,
33,4.63,-23.94,-52.19,-102.3,-32.58,-16.23,25.45,-46.34,-85.63,29.87,-77.34,14.31,9.166,8.529,3.758,-1.466,0,0,0,0,0,0,0,0,0,0,0,0,0,0,0,0,
34,-0.0485,-11.79,-21.08,-82.12,-0.7006,-2.352,47.01,-49.39,-62.96,-2.318,-66.14,14.34,14.21,15.26,-4.847,1.709,0,0,0,0,0,0,0,0,0,0,0,0,0,0,0,0,
35,2.896,-4.215,0.5197,-15.7,12.95,-23.43,26.29,14.79,-59.59,17.66,-77.99,15.25,-2.379,-12.85,-8.724,-19.24,0,0,0,0,0,0,0,0,0,0,0,0,0,0,0,0,
36,8.784,-21.11,22.44,-52.22,4.96,-22.59,31.29,3.964,-69.91,15.87,-82.72,16.42,-17.35,-37.25,-17.48,-39.93,0,0,0,0,0,0,0,0,0,0,0,0,0,0,0,0,
37,9.914,-15.71,-10.68,-135.3,25.19,20.18,59.04,-60.68,-22.88,-6.784,-75.11,19.2,-15.7,-23.63,-28.64,-26.39,0,0,0,0,0,0,0,0,0,0,0,0,0,0,0,0,
38,13.13,-4.561,-20.37,-79.49,40.22,30.02,45.58,-47.2,-10.83,2.059,-72.99,18.55,-14.37,-13.78,-22.22,-16.05,0,0,0,0,0,0,0,0,0,0,0,0,0,0,0,0,
39,17.2,-5.997,10.04,-31.44,8.779,21.95,54.62,-16.67,-53.1,23.66,-74.46,9.172,-23,-19.59,-23.74,-34.41,0,0,0,0,0,0,0,0,0,0,0,0,0,0,0,0,
40,19.34,-0.1682,-17.11,-86.87,-10.71,27.56,74.11,-34.56,-17.69,25.36,-62.72,13.76,-18.49,-2.853,-28.99,-35.56,0,0,0,0,0,0,0,0,0,0,0,0,0,0,0,0,
41,30.82,-8.634,-22.4,-62.65,11.25,14.43,30.52,-15.94,23.65,16.03,-41.91,44.11,9.195,19.95,0.2077,-3.006,0,0,0,0,0,0,0,0,0,0,0,0,0,0,0,0,
42,59.32,-29.15,35.89,-6.374,44.47,3.726,12.4,11,-9.812,17.49,-31.47,64.76,24.53,24.06,22.43,16.48,0,0,0,0,0,0,0,0,0,0,0,0,0,0,0,0,
43,71.88,-31.75,40.87,-49.15,78.7,8.262,34.11,-20.22,-7.944,24.75,-29.49,51.97,2.612,23.76,6.72,3.952,0,0,0,0,0,0,0,0,0,0,0,0,0,0,0,0,
44,35.09,-42,4.501,-66.3,91.75,3.889,16.15,-38.12,23.41,25.06,-39.76,27.83,-21.55,13.41,-0.6252,-8.825,0,0,0,0,0,0,0,0,0,0,0,0,0,0,0,0,
45,2.894,-41.96,-26.32,-68.79,54.57,8.323,35.92,-51,-4.943,27.13,-62.74,21.14,-6.239,5.545,7.763,0.6817,0,0,0,0,0,0,0,0,0,0,0,0,0,0,0,0,
46,21.15,0.7511,-53.7,-132,7.623,12.03,75.84,-86.11,-49.1,34.33,-62.01,38.69,21.56,26.28,14.13,15.1,0,0,0,0,0,0,0,0,0,0,0,0,0,0,0,0,
47,28.41,4.202,-36.96,-93.87,7.882,-7.022,4.812,-56.14,-42.65,41.87,-44.17,48.29,5.371,33.59,16.83,3.831,0,0,0,0,0,0,0,0,0,0,0,0,0,0,0,0,
48,6.062,-39.71,-9.869,-6.436,23.9,-28,-58.04,-11.31,-9.014,49.85,-38.49,29.58,-29.89,16.09,10.26,-15.96,0,0,0,0,0,0,0,0,0,0,0,0,0,0,0,0,
49,14.23,-28.98,5.707,-44.3,25.29,-37.71,-0.8954,-25.71,1.761,52.64,-19.39,36.05,-17.54,30.61,24.52,0.9213,0,0,0,0,0,0,0,0,0,0,0,0,0,0,0,0,
50,40.92,0.1523,36.41,-60.82,37.06,-24.54,45.29,-24.15,-1.386,48.84,-10.52,73.35,8.46,47.57,50.49,25.11,0,0,0,0,0,0,0,0,0,0,0,0,0,0,0,0,
51,37.45,-14.83,3.61,-46.19,23.49,-4.572,47.58,-47.18,4.821,40.87,-57.19,60.98,-11.22,14.4,29.07,7.062,0,0,0,0,0,0,0,0,0,0,0,0,0,0,0,0,
52,20.13,-16.9,-60.67,-109.8,-12.08,-9.159,55.55,-106,2.629,22.02,-90.72,16.9,-31.82,-17.42,1.569,-16.11,0,0,0,0,0,0,0,0,0,0,0,0,0,0,0,0,
53,13.86,-16.72,-35.1,-78.87,10.93,-18.82,10.47,-54.2,-12.55,-2.887,-66.16,6.337,-29.95,-26.69,6.262,-19.73,0,0,0,0,0,0,0,0,0,0,0,0,0,0,0,0,
54,0.0831,-56.41,6.382,11.03,36.51,-37.01,-51.08,24.23,-37.73,-12.68,-50.18,-2.431,-52.28,-49.6,-7.131,-34.49,0,0,0,0,0,0,0,0,0,0,0,0,0,0,0,0,
55,-25.8,-80.83,10.11,-20.99,17.45,-69.35,-39.53,-4.516,-53.86,-11.46,-67.15,-15.52,-77.83,-62.33,-18.71,-45.57,0,0,0,0,0,0,0,0,0,0,0,0,0,0,0,0,
56,-30.07,-77.95,21.09,-33.19,38.41,-71.93,-18.95,-31.15,-26.02,-15.46,-80.84,-3.33,-70.79,-51.64,-0.6383,-36.17,0,0,0,0,0,0,0,0,0,0,0,0,0,0,0,0,
57,-13.1,-82.34,1.177,-13.54,60.14,-52.93,-20.1,-48.83,-6.617,-15.23,-78.43,6.393,-59.62,-48.09,6.593,-30.54,0,0,0,0,0,0,0,0,0,0,0,0,0,0,0,0,
58,-7.265,-72.18,-39.56,-80.53,34,-38.69,6.678,-106.7,-31.15,-18.73,-56.52,12.54,-45.55,-39.79,12.91,-23.45,0,0,0,0,0,0,0,0,0,0,0,0,0,0,0,0,
59,-5.127,-49.38,-45.76,-110.1,49.18,-30.54,16.76,-102.8,-31.81,-18.62,-23.35,31.15,-17.7,-16.17,26.14,-5.837,0,0,0,0,0,0,0,0,0,0,0,0,0,0,0,0,
60,3.913,-47.63,-23.89,-76.53,78.6,-47.23,-10.91,-52.44,-20.33,18.54,-8.483,39.67,-5.268,-2.882,21.1,6.314,0,0,0,0,0,0,0,0,0,0,0,0,0,0,0,0,
61,5.396,-47.7,9.323,-59.84,63.63,-56.3,-20.55,-36.14,-21.66,18.82,-9.369,38.03,-6.988,-8.909,21.6,12.63,0,0,0,0,0,0,0,0,0,0,0,0,0,0,0,0,
62,2.254,-19.54,3.66,-32.5,74.77,-24.06,-15.08,-26.8,17.77,-47.07,-7.136,28.31,-0.9829,-26.82,29.48,12.72,0,0,0,0,0,0,0,0,0,0,0,0,0,0,0,0,
63,3.485,15.24,-17.38,-28.66,90.61,3.029,0.9459,-36.26,23.93,-31.06,-12.27,17.22,1.816,-34.03,29.03,6.942,0,0,0,0,0,0,0,0,0,0,0,0,0,0,0,0,
64,19.44,24.06,23.72,-47.12,53.73,2.266,33.77,-54.26,-56.9,53.22,-24.34,36.09,-1.114,-14.03,41.85,8.035,0,0,0,0,0,0,0,0,0,0,0,0,0,0,0,0,
65,38.53,16.75,27.13,-33.63,43.52,-13.37,36.13,-35.51,-71.73,53.25,-37.48,44.44,0.6917,0.9584,44.06,6.336,0,0,0,0,0,0,0,0,0,0,0,0,0,0,0,0,
66,10.66,7.723,-41.41,-48.94,74.39,-32.16,16.27,-33.71,-9.105,24.8,-58.69,7.312,-0.3132,-5.089,21.81,0.9986,0,0,0,0,0,0,0,0,0,0,0,0,0,0,0,0,
67,-29.53,-1.254,-19.44,-76.07,74.3,-27.19,29.5,-39.56,-4.161,38.34,-57.42,2.385,1.764,4.254,31.47,19.04,0,0,0,0,0,0,0,0,0,0,0,0,0,0,0,0,
68,3.873,19.88,67.25,-20.64,74.06,-2.832,51.87,10.8,-7.8,28.68,-27.33,46.91,21.3,30.54,63.67,45.45,0,0,0,0,0,0,0,0,0,0,0,0,0,0,0,0,
69,52.29,57.14,69.95,44.47,90.76,19.28,46.18,33.56,26.66,14.61,-26.35,62.07,31.61,30.03,63.73,42.29,0,0,0,0,0,0,0,0,0,0,0,0,0,0,0,0,
70,39.68,49.2,21.66,15.48,68.66,33.19,45.31,-17.84,25.46,40.56,-52.38,51.91,18.01,5,52.07,25.73,0,0,0,0,0,0,0,0,0,0,0,0,0,0,0,0,
71,38.69,36.28,7.982,-39.53,55.97,29.51,81.48,-30.91,9.329,55.49,-56,63.6,22.42,2.326,55.67,24.25,0,0,0,0,0,0,0,0,0,0,0,0,0,0,0,0,
72,78.95,68.84,24.09,-32.39,105,24.28,109.3,17.33,9.002,45.69,-46,67.88,42.81,18.69,53.21,21,0,0,0,0,0,0,0,0,0,0,0,0,0,0,0,0,
73,78.71,75.01,44.47,-9.139,124.8,18.75,72.59,26.11,-10.81,51.92,-47.87,34.24,27.42,11.76,34.75,2.624,0,0,0,0,0,0,0,0,0,0,0,0,0,0,0,0,
74,30.89,31.8,63.1,-3.603,84.18,-12.73,24.95,-16.24,-38.25,56.81,-60.19,5.216,-2.707,-4.567,18.69,-8.357,0,0,0,0,0,0,0,0,0,0,0,0,0,0,0,0,
75,-2.058,11.52,51.44,12.99,76.35,-21.2,42.04,-25.93,-51.49,34.4,-67.73,14.78,-1.378,4.427,16.46,-6.486,0,0,0,0,0,0,0,0,0,0,0,0,0,0,0,0,
76,-4.781,23.12,6.587,5.259,102.2,23.4,74.18,13.43,-38.69,21.68,-55.68,27.86,5.413,17.25,11.4,-12.64,0,0,0,0,0,0,0,0,0,0,0,0,0,0,0,0,
77,6.751,30.71,-0.2539,-32.37,87.96,44.86,62.74,29.83,-1.54,18.96,-37.57,17.31,-4.835,10,-11.35,-27.09,0,0,0,0,0,0,0,0,0,0,0,0,0,0,0,0,
78,13.54,29.44,19.18,-48.94,54.74,27.65,50.09,6.328,16.64,2.035,-34.83,3.029,-4.896,2.602,-29.89,-36.2,0,0,0,0,0,0,0,0,0,0,0,0,0,0,0,0,
79,5.341,24.99,-3.87,-57.65,50.78,13.66,44.23,-1.527,4.894,20.82,-38.56,-2.759,13.23,13.47,-18.91,-30.59,0,0,0,0,0,0,0,0,0,0,0,0,0,0,0,0,
80,-0.3105,20.68,-16.61,-56.63,46.4,-17.99,0.3594,-4.459,-26.79,63.08,-33.39,-0.2818,23.75,32.34,10.84,-4.656,0,0,0,0,0,0,0,0,0,0,0,0,0,0,0,0,
81,-2.693,19.06,8.406,-34.5,31.24,-55.01,-33.25,-27.88,-63.08,47.04,-29.75,7.557,15.42,38.06,30.46,15.45,0,0,0,0,0,0,0,0,0,0,0,0,0,0,0,0,
82,-18.83,14.18,10.33,-23.21,39.82,-55.73,-7.188,-19.29,-48.99,21.33,-38.55,5.994,-1.917,22.83,26.39,-0.4446,0,0,0,0,0,0,0,0,0,0,0,0,0,0,0,0,
83,-25.97,-9.315,-5.955,-14.97,53.61,-37.18,10.35,13.1,-2.953,40.45,-38.16,5.033,-17.32,5.183,15.61,-20.24,0,0,0,0,0,0,0,0,0,0,0,0,0,0,0,0,
84,2.8,-33.26,-11.65,-16.56,52.15,4.475,8.934,18.38,3.118,34.96,-16.25,26.06,-13.23,8.504,22.26,-7.003,0,0,0,0,0,0,0,0,0,0,0,0,0,0,0,0,
85,44.57,-12.74,3.039,-37.78,59.17,56.07,49.71,26.15,-9.338,14.26,0.6615,46.74,11.96,23.97,33.51,9.351,0,0,0,0,0,0,0,0,0,0,0,0,0,0,0,0,
86,60.16,25.2,27.15,-24.91,69.44,49.82,75.21,30.49,-2.015,48.84,-9.348,42.34,25.06,24.77,19.94,2.553,0,0,0,0,0,0,0,0,0,0,0,0,0,0,0,0,
87,43.58,36.41,20.08,0.3173,70.97,16.13,41.33,10.13,6.508,74.24,-35.81,28.34,20.2,14.57,0.8017,-4.761,0,0,0,0,0,0,0,0,0,0,0,0,0,0,0,0,
88,21.51,49.46,15.47,-14.48,70.41,15.46,26.1,25.63,12.48,50.01,-45.62,18.33,17.95,10.12,3.453,-8.66,0,0,0,0,0,0,0,0,0,0,0,0,0,0,0,0,
89,5.703,54.37,48.79,-17.83,62.21,11.21,24.62,64.53,14.88,58.58,-43.64,4.907,5.354,-2.122,-5.059,-25.86,0,0,0,0,0,0,0,0,0,0,0,0,0,0,0,0,
90,-9.806,23.3,49.28,14.3,51.94,-6.331,-5.778,59.55,-20.35,72.93,-61.91,-9.571,-9.598,-21.06,-28.04,-34.62,0,0,0,0,0,0,0,0,0,0,0,0,0,0,0,0,
91,-13.9,8.395,2.723,16.98,45.07,-7.083,3.031,35.82,-64.83,36.41,-56.04,-6.919,7.161,-9.75,-9.973,-12.5,0,0,0,0,0,0,0,0,0,0,0,0,0,0,0,0,
92,-14.62,18.18,-14.54,-25.43,46.06,6.414,47.32,24.94,-32.41,30.41,-6.4,10.28,27.71,16.88,31.7,17.03,0,0,0,0,0,0,0,0,0,0,0,0,0,0,0,0,
93,-30.02,19.03,13.58,-35.15,71.85,31.2,42.93,26.02,27.2,46.52,21.02,24.99,27.72,11.58,58.03,39.73,0,0,0,0,0,0,0,0,0,0,0,0,0,0,0,0,
94,-16.56,35.62,43.95,11.55,101.6,50.9,28.07,51.7,22.38,37.22,46.37,46.38,38.26,0.8961,95.38,62.12,0,0,0,0,0,0,0,0,0,0,0,0,0,0,0,0,
95,38.78,51.47,48.84,34.84,105.1,49.67,42.8,81.72,32.66,72.32,82.59,61.11,41.81,11.18,108.6,64.28,0,0,0,0,0,0,0,0,0,0,0,0,0,0,0,0,
96,46.92,33.37,38.13,23.39,77.71,40.31,41.62,74.82,74.26,90.96,51.54,29.74,5.889,1.652,51,35.7,0,0,0,0,0,0,0,0,0,0,0,0,0,0,0,0,
97,-6.067,20.8,26.42,13.69,23.92,23.53,37.38,38.62,35.36,22.94,-8.659,-17.23,-30.96,-26.92,-8.801,-4.557,0,0,0,0,0,0,0,0,0,0,0,0,0,0,0,0,
98,-36.33,4.963,-4.495,-29.84,-9.327,-0.1802,33.36,12.24,-30.92,-11.5,-37.55,-43.52,-53.46,-44.89,-41.08,-52.44,0,0,0,0,0,0,0,0,0,0,0,0,0,0,0,0,
99,-51.47,-44,-42.99,-78.52,-2.665,-24.14,-9.128,4.64,-49.28,-9.041,-69.46,-71.18,-80.21,-60.72,-74.73,-85.3,0,0,0,0,0,0,0,0,0,0,0,0,0,0,0,0,
100,-74.09,-65.76,-25.68,-50.89,0.2315,-42.26,-44.81,12.99,-59.22,-28.79,-68.64,-77.95,-82.74,-56.22,-68.06,-66.84,0,0,0,0,0,0,0,0,0,0,0,0,0,0,0,0,
101,-55.2,-44.6,15.17,-1.195,7.539,-34.25,-41.9,43.32,-25.84,-9.392,-20.95,-47.03,-57.64,-27.57,-24.86,-35.22,0,0,0,0,0,0,0,0,0,0,0,0,0,0,0,0,
102,-31.28,-31.85,-11.02,-11.41,26,-9.818,-22.61,61.98,21.03,12.79,-0.9379,-34.01,-43.95,-20.42,-15.59,-36.49,0,0,0,0,0,0,0,0,0,0,0,0,0,0,0,0,
103,-45.83,-15.57,-35.63,-33.18,21.25,11.08,21.22,51.91,-22.87,0.6438,-3.349,-45.73,-38.69,-17.37,-29.28,-40.74,0,0,0,0,0,0,0,0,0,0,0,0,0,0,0,0,
104,-31.11,9.076,11.58,-16.6,23.43,31.84,50.9,53.94,-44.89,24.53,-10.08,-54.81,-34.74,4.125,-33.73,-35.64,0,0,0,0,0,0,0,0,0,0,0,0,0,0,0,0,
105,-2.135,6.853,39.7,0.1325,44.12,27.11,33.97,60.52,26.12,38.26,-30.31,-64.94,-40.53,-0.2532,-39.53,-45.01,0,0,0,0,0,0,0,0,0,0,0,0,0,0,0,0,
106,-23.51,-2.992,34.35,10.25,33.98,2.968,14.6,42.98,23.21,-3.772,-18.2,-58.6,-43.72,-20.48,-37.83,-53.33,0,0,0,0,0,0,0,0,0,0,0,0,0,0,0,0,
107,-33.61,1.258,29.66,28.69,17.59,13.85,4.511,32.99,-33.67,-16.4,6.07,-38.36,-42.78,-19.2,-25.88,-44.28,0,0,0,0,0,0,0,0,0,0,0,0,0,0,0,0,
108,-2.156,8.907,-8.482,-1.72,35.51,35.75,25.15,49.89,11.94,16.54,-15.18,-33.09,-36.86,-17.1,-20.73,-36.85,0,0,0,0,0,0,0,0,0,0,0,0,0,0,0,0,
109,13.14,22.58,-17.17,-60.68,46.37,26.37,76.36,68.93,56.53,36.84,-23.16,-24.18,-21.32,-18.26,-14.38,-38.38,0,0,0,0,0,0,0,0,0,0,0,0,0,0,0,0,
110,15.94,23.27,24.85,-23.2,35.58,24.7,61.83,70.13,15.57,21.79,10.8,-4.368,-19.67,-10.96,0.0557,-32.83,0,0,0,0,0,0,0,0,0,0,0,0,0,0,0,0,
111,24.26,0.7857,31.2,70.18,49.31,44.03,13.88,60.81,10.9,-8.225,14.88,2.475,-27.49,-6.376,10.77,-14.37,0,0,0,0,0,0,0,0,0,0,0,0,0,0,0,0,
112,21.53,-6.508,35.14,67.11,75.14,45.86,35.36,54.54,28.81,-4.786,-11.78,6.232,-17.81,-2.928,19.72,1.162,0,0,0,0,0,0,0,0,0,0,0,0,0,0,0,0,
113,18.66,6.376,61.4,-0.5149,63.86,32.35,51.89,46.96,9.525,19.67,-22.18,14.24,-7.278,-1.584,31.78,7.767,0,0,0,0,0,0,0,0,0,0,0,0,0,0,0,0,
114,14.66,7.686,69.86,-8.372,40.41,24.56,20.66,43.08,27.7,18.18,-23.6,8.72,-8.678,-5.351,31.74,14.71,0,0,0,0,0,0,0,0,0,0,0,0,0,0,0,0,
115,-6.028,-12.29,60.32,11.31,30.85,24.6,17.36,47.02,39.13,21.11,-25.45,-8.32,-10.2,0.4063,14.44,15.57,0,0,0,0,0,0,0,0,0,0,0,0,0,0,0,0,
116,-9.375,-32.83,-8.382,-27.5,4.987,30.71,28.2,38.18,-15.98,35.25,-27.43,-25.08,-11.71,7.988,1.028,7.436,0,0,0,0,0,0,0,0,0,0,0,0,0,0,0,0,
117,9.393,-25.23,-72.92,-62.41,-19.74,19.07,14.03,24.5,-29.43,12.78,-37,-43.8,-13.16,2.284,-2.6,0.4795,0,0,0,0,0,0,0,0,0,0,0,0,0,0,0,0,
118,-3.066,-16.46,-25.32,-21.74,-5.44,-18.86,-7.019,31.01,-0.9626,-7.291,-46.01,-61.05,-19.1,-6.882,-12.15,-10.54,0,0,0,0,0,0,0,0,0,0,0,0,0,0,0,0,
119,-32.76,-41.4,8.309,5.963,16.49,-34.56,-21.51,42.28,-11.02,9.026,-54.45,-62.78,-31.68,-14.2,-22.28,-22.98,0,0,0,0,0,0,0,0,0,0,0,0,0,0,0,0,
120,-32.83,-57.27,-27.65,-23.1,17.46,-14.49,-5.489,42.52,-13.53,7.138,-59.55,-51.15,-36.59,-17.45,-20.22,-25.89,0,0,0,0,0,0,0,0,0,0,0,0,0,0,0,0,
121,-20.89,-44.55,-8.446,-18.06,21.48,-4.403,30.09,48.29,-1.944,-1.526,-43.6,-46.58,-41.27,-16.89,-23.13,-36.3,0,0,0,0,0,0,0,0,0,0,0,0,0,0,0,0,
122,-16.83,-39.69,24.85,12,37.4,-14.16,25.91,51.15,-12.48,14.93,-24.76,-55.93,-54.86,-25.47,-41.19,-58.57,0,0,0,0,0,0,0,0,0,0,0,0,0,0,0,0,
123,-22.76,-43.21,-0.5802,-0.6703,34.57,-11.17,-0.1015,26.31,2.892,12.79,-19.81,-57.68,-51.83,-31.15,-43.98,-61.79,0,0,0,0,0,0,0,0,0,0,0,0,0,0,0,0,
124,-31.83,-42.83,-9.044,-5.964,13.75,16.64,8.335,21.04,33.89,0.665,-17.81,-40.38,-32.72,-18.52,-22.4,-44.2,0,0,0,0,0,0,0,0,0,0,0,0,0,0,0,0,
125,-17.62,-32.07,21.64,12.67,21.9,34.55,24.47,68.29,24.91,6.422,-22.1,-24.45,-20.49,-5.941,-8.479,-30.73,0,0,0,0,0,0,0,0,0,0,0,0,0,0,0,0,
126,6.303,-5.495,32.94,-5.072,57.15,23.78,16.17,88.81,20.69,11.02,-12.99,-9.459,-0.9265,4.295,-2.875,-17.56,0,0,0,0,0,0,0,0,0,0,0,0,0,0,0,0,
127,18.4,8.097,27.07,-21.08,67.14,22.66,16.19,66.22,37.1,29.15,16.56,9.89,17.64,11.81,2.743,-6.066,0,0,0,0,0,0,0,0,0,0,0,0,0,0,0,0,
128,21.26,7.266,29.52,5.655,46.31,27.37,37.19,64.91,17.86,42.06,13.55,4.133,3.685,-2.771,-10.15,-16.35,0,0,0,0,0,0,0,0,0,0,0,0,0,0,0,0,
129,3.147,24.53,0.4615,-3.604,30.13,2.241,46.94,43.9,-2.252,30.18,-11.93,-5.052,-10.42,-12.18,-18.4,-25.94,0,0,0,0,0,0,0,0,0,0,0,0,0,0,0,0,
130,-1.079,29.93,-39.07,-50.13,29.56,-18.51,34.48,-5.675,19.65,48.37,-7.344,12.62,-7.862,0.3053,-5.746,-18.68,0,0,0,0,0,0,0,0,0,0,0,0,0,0,0,0,
131,18.84,-2.946,4.231,-20.9,27.48,-14.61,11.55,28.91,16.38,54.35,-8.421,-4.058,-29.44,-8.175,-22.3,-32.71,0,0,0,0,0,0,0,0,0,0,0,0,0,0,0,0,
132,-9.779,-24.18,51.49,44.82,13.67,-14.61,-14.55,111.4,-32.65,8.994,-45.95,-54.95,-60.92,-30.03,-62.82,-61.28,0,0,0,0,0,0,0,0,0,0,0,0,0,0,0,0,
133,-47.31,-17.51,10.97,29.22,-1.434,-14.09,-21.94,98.74,-50.2,5.342,-75.52,-61.06,-68.02,-33.43,-70.92,-58.34,0,0,0,0,0,0,0,0,0,0,0,0,0,0,0,0,
134,-20.35,-9.075,-4.617,2.436,-5.212,-6.501,4.239,40.88,-16.78,12.53,-76.88,-37.14,-57.14,-34,-54.52,-37.68,0,0,0,0,0,0,0,0,0,0,0,0,0,0,0,0,
135,1.047,9.745,8.927,2.388,-1.953,0.4888,27.95,28.92,-4.6,-21.28,-72.03,-17.55,-30.94,-24.08,-36.88,-28.06,0,0,0,0,0,0,0,0,0,0,0,0,0,0,0,0,
136,-12.17,25.15,-33.72,-66.83,-6.609,8.092,29.7,8.527,-40.69,3.81,-71.1,5.797,-12.87,-1.482,-20.5,-23.43,0,0,0,0,0,0,0,0,0,0,0,0,0,0,0,0,
137,-8.537,11.64,-35.76,-88.51,-11.75,2.673,33.77,3.557,-55.73,45.03,-69.69,10.53,-19.98,-1.059,-18.13,-18.84,0,0,0,0,0,0,0,0,0,0,0,0,0,0,0,0,
138,6.218,3.695,17.93,28.39,1.204,-13.8,25.76,56.75,-28.79,4.58,-63.12,4.571,-19.47,-9.069,-18.48,-15.08,0,0,0,0,0,0,0,0,0,0,0,0,0,0,0,0,
139,25.07,17.44,25.73,63.56,20.56,-3.937,13.14,55.59,-4.099,-22.32,-53.15,18.78,-11.79,-5.811,-7.532,-14.67,0,0,0,0,0,0,0,0,0,0,0,0,0,0,0,0,
140,55.35,27.83,41.61,13.95,38.79,29.28,38.41,29.82,23.77,-7.618,-45.26,24.73,-20.86,-13.64,-8.878,-23.32,0,0,0,0,0,0,0,0,0,0,0,0,0,0,0,0,
141,65.32,29.12,64.01,44.57,53.28,31.93,49.27,68.98,39.23,-18.34,-38.73,2.62,-34.31,-24.27,-22.1,-30.36,0,0,0,0,0,0,0,0,0,0,0,0,0,0,0,0,
142,46.43,21.12,0.9009,13.04,45.44,15.15,33.3,28.12,25.44,-15.37,-38.59,-21.79,-44.44,-23.53,-19.7,-23.93,0,0,0,0,0,0,0,0,0,0,0,0,0,0,0,0,
143,37.31,15.96,-46.16,-83.71,39.15,26.14,53.44,-55.92,27.54,-0.3591,-50.03,-32.69,-55.8,-32.68,-17.15,-24.04,0,0,0,0,0,0,0,0,0,0,0,0,0,0,0,0,
144,28.88,8.269,-1.837,-37.14,39.99,7.167,27.34,6.997,16.07,-22.18,-58.51,-39.1,-70.7,-50.61,-34.82,-43.28,0,0,0,0,0,0,0,0,0,0,0,0,0,0,0,0,
145,-22.18,-32.25,31.41,38.02,12.18,-57.76,-57.07,56.62,-19.02,-23.81,-62.63,-49.17,-82.25,-54.96,-47.79,-49.23,0,0,0,0,0,0,0,0,0,0,0,0,0,0,0,0,
146,-66.47,-62.34,26.29,16.45,5.529,-57.81,-42.52,-5.067,-16.15,0.9654,-74.08,-48.15,-77.12,-48.73,-50.34,-40.02,0,0,0,0,0,0,0,0,0,0,0,0,0,0,0,0,
147,-47.88,-49.95,-8.265,-10.39,33.2,-11.37,9.531,-6.384,-36.52,-20.28,-85.19,-36.63,-75.56,-47.31,-63.97,-53.71,0,0,0,0,0,0,0,0,0,0,0,0,0,0,0,0,
148,-21.49,-48.89,-61,-47.52,18.53,-15.02,-23.85,-4.566,-74.6,-41.74,-104,-41.8,-86.3,-51.94,-77.64,-69.86,0,0,0,0,0,0,0,0,0,0,0,0,0,0,0,0,
149,-21.73,-51.03,-44.24,-67.32,4.969,-36.02,-43.36,-64.7,-36.43,-24,-131.9,-53.31,-76.07,-54.28,-81.12,-59.6,0,0,0,0,0,0,0,0,0,0,0,0,0,0,0,0,
150,-29.51,-27.54,-7.176,-31.88,19.47,-45.97,-23.03,-35.91,-34.77,-31.56,-136.5,-50.95,-52.3,-52.02,-85.49,-50.32,0,0,0,0,0,0,0,0,0,0,0,0,0,0,0,0,
151,-42.32,-19.89,-48.87,-51.62,-35.97,-62.1,-31.41,22.09,-112.7,-38.17,-135.8,-55.98,-44.03,-49.66,-87.59,-45.36,0,0,0,0,0,0,0,0,0,0,0,0,0,0,0,0,
152,-47.21,-29.38,-78.43,-84.6,-112.2,-76.38,-41.97,-19.79,-124.3,-13.03,-157.3,-70.05,-41.12,-45.65,-83.21,-30.47,0,0,0,0,0,0,0,0,0,0,0,0,0,0,0,0,
153,-56.93,-26.24,-40.68,-37.95,-86.93,-89.85,-42.1,-44.37,-93.13,-20.66,-156.5,-60.9,-29.4,-33.19,-66.26,-15.19,0,0,0,0,0,0,0,0,0,0,0,0,0,0,0,0,
154,-70.16,-16.58,2.898,-8.527,-13.49,-73.81,-34.83,-17.06,-71.48,-30.36,-114,-30.96,-14.16,-22.24,-36.81,-0.9337,0,0,0,0,0,0,0,0,0,0,0,0,0,0,0,0,
155,-33.74,-8.666,16.78,-8.19,17.82,-18.28,-11.53,-40.63,-14.24,-28.5,-70.18,-10.23,-14.86,-33.01,-21.82,3.434,0,0,0,0,0,0,0,0,0,0,0,0,0,0,0,0,
156,22.79,-3.685,-8.015,-1.37,21.03,20.85,3.88,-60.46,9.17,-84.42,-47.43,6.071,-26.98,-53.98,-13.44,-0.5305,0,0,0,0,0,0,0,0,0,0,0,0,0,0,0,0,
157,58.4,7.079,-13,-32.65,35.31,37.65,17.01,-18.29,-12.02,-105.5,-28.05,39.81,-14.56,-59.53,13.34,11.27,0,0,0,0,0,0,0,0,0,0,0,0,0,0,0,0,
158,99.91,17.67,22.75,-33.01,49.09,44.46,26.04,7.115,31.33,-41,0.7642,67.81,8.802,-60.16,26.06,16.62,0,0,0,0,0,0,0,0,0,0,0,0,0,0,0,0,
159,105.7,11.34,24.3,7.841,43.09,29.29,12.24,4.573,76.66,-23.67,9.103,58.4,5.337,-68.92,10.83,-4.945,0,0,0,0,0,0,0,0,0,0,0,0,0,0,0,0,
160,60.24,9.494,9.406,-20.07,42.05,20.51,7.382,-0.4648,38.98,-27.76,-4.231,33.49,-4.333,-66.98,-3.057,-18,0,0,0,0,0,0,0,0,0,0,0,0,0,0,0,0,
161,40.2,8.988,-0.6884,-50.38,36,18.17,7.996,-34.75,21.13,16.51,-9.627,17.06,0.4637,-48.92,-23,-17.83,0,0,0,0,0,0,0,0,0,0,0,0,0,0,0,0,
162,36.39,-18.12,-43.67,-26.46,-3.078,-12.79,-14.84,-53.98,39.52,18.48,-32.89,-3.667,4.492,-34.67,-48.28,-24.02,0,0,0,0,0,0,0,0,0,0,0,0,0,0,0,0,
163,9.512,-37.52,-57.09,-45.56,-21.35,-49.37,-29.67,-36.89,-4.772,-4.477,-61.89,-25.41,5.712,-30.54,-50.1,-19.89,0,0,0,0,0,0,0,0,0,0,0,0,0,0,0,0,
164,-10.73,-21.58,-27.91,-82.06,-3.601,-52.07,-18.1,-52.72,-53.94,9.672,-50.81,-27.52,9.804,-29.47,-49.01,-5.609,0,0,0,0,0,0,0,0,0,0,0,0,0,0,0,0,
165,-14.46,0.0854,-33.1,-68.16,-6.922,-23.77,-4.738,-63.3,-34.75,-3.322,-45.55,-16.93,11.61,-28.94,-62.16,-4,0,0,0,0,0,0,0,0,0,0,0,0,0,0,0,0,
166,-3.549,2.571,-42.99,-49.49,-13.81,0.1578,-11.44,-18.49,-13.95,-17.1,-63.36,-10.6,6.69,-29.14,-52.44,-4.375,0,0,0,0,0,0,0,0,0,0,0,0,0,0,0,0,
167,17.67,-11.77,-38.81,-43.72,-12.67,-6.732,-36.43,-8.937,-19.61,21.44,-66.59,-9.664,-2.192,-31.55,-25.35,4.751,0,0,0,0,0,0,0,0,0,0,0,0,0,0,0,0,
168,11.41,-18.03,-58.12,-37.03,-41.22,-26.94,-49.52,-48.52,-34.65,26.71,-63.07,-8.986,-0.121,-31.79,-17.5,11.35,0,0,0,0,0,0,0,0,0,0,0,0,0,0,0,0,
169,-16.54,-7.241,-43.27,-29.84,-46.71,-41.72,-43.51,-48.12,-51.09,-11.01,-41.36,-3.985,19.31,-23.77,-9.536,20.31,0,0,0,0,0,0,0,0,0,0,0,0,0,0,0,0,
170,-25.23,2.687,8.506,-24.51,-1.191,-44.06,-35.58,-24.8,-38.19,-14.46,-13.95,6.252,36.58,-18.35,12.44,40.25,0,0,0,0,0,0,0,0,0,0,0,0,0,0,0,0,
171,-14.67,19.04,-2.807,-43.1,13.78,-15.32,-11.11,-33.53,-34,-6.126,-19.78,24.52,48.66,-19.04,32.38,61.49,0,0,0,0,0,0,0,0,0,0,0,0,0,0,0,0,
172,9.181,46.86,-19.63,-53.2,7.609,23.68,31.63,-44.95,-49.83,-15.71,-10.14,49.51,67.31,-13.01,54.46,73.1,0,0,0,0,0,0,0,0,0,0,0,0,0,0,0,0,
173,36.02,50.68,44.73,-11.68,26.74,28.8,41.74,-36.53,-12.01,-19.75,22.48,61.69,67.16,-14.36,66.91,64.77,0,0,0,0,0,0,0,0,0,0,0,0,0,0,0,0,
174,40.88,19.22,59.46,20.3,13.98,20.92,6.735,-34.36,16.08,-26.89,38.98,64.11,42.61,-31.25,64.91,53.84,0,0,0,0,0,0,0,0,0,0,0,0,0,0,0,0,
175,42.67,-1.041,-18.03,3.036,-14.29,30.91,-19.65,-35.82,-17.61,-37.5,75.99,76.46,37.15,-33.19,71.66,62.27,0,0,0,0,0,0,0,0,0,0,0,0,0,0,0,0,
176,51.52,13.16,-30.09,-13,10.01,22.18,-21.76,-22.32,-4.804,-16.72,98.33,71.26,40.4,-23.94,57.17,50.44,0,0,0,0,0,0,0,0,0,0,0,0,0,0,0,0,
177,26.91,17.36,12.01,-3.777,18.38,-20.47,-17.99,-16.81,27.54,27.54,50.61,34.91,18.39,-28.25,9.621,9.353,0,0,0,0,0,0,0,0,0,0,0,0,0,0,0,0,
178,-20.01,-4.562,3.33,-3.199,-24.2,-50.16,-9.728,-30.19,-10.21,37.81,14.44,4.067,-2.985,-30.25,-12.43,-8.201,0,0,0,0,0,0,0,0,0,0,0,0,0,0,0,0,
179,-45.9,-18.97,-14.03,-39.21,-33.29,-52.58,-28.02,-26.19,-47.05,-1.239,12.42,-17.4,-14.07,-32.75,-17.01,-20.08,0,0,0,0,0,0,0,0,0,0,0,0,0,0,0,0,
180,-51.01,-30.88,-28.53,-73.7,-13.63,-46.69,-65.7,-7.271,-39.31,-17,-10.29,-33.18,-29.98,-51.21,-39.87,-51.94,0,0,0,0,0,0,0,0,0,0,0,0,0,0,0,0,
181,-37.07,-39.6,-72.12,-72.06,-23.47,-38.8,-53.11,-24.59,-22.7,26.06,-23.33,-32.22,-36.45,-55.99,-47.97,-61.05,0,0,0,0,0,0,0,0,0,0,0,0,0,0,0,0,
182,-18.95,-22.21,-85.94,-69.41,-24.21,-37.05,-20.05,-58.12,-10.4,40,-11.62,-35.42,-34.44,-48.84,-33.27,-48.39,0,0,0,0,0,0,0,0,0,0,0,0,0,0,0,0,
183,-23.8,-13.05,-58.1,-66.25,8.539,-35.53,-28.32,-34.8,-11.49,-17.84,-1.505,-39.54,-33.68,-65.5,-21.36,-40.49,0,0,0,0,0,0,0,0,0,0,0,0,0,0,0,0,
184,-28.28,-21.86,-44.22,-37.42,14.8,-28.87,-43.45,13.92,-15.38,-43.17,9.35,-27.82,-25.54,-79.09,-12.19,-30.18,0,0,0,0,0,0,0,0,0,0,0,0,0,0,0,0,
185,-17.07,-4.1,-30.9,-17.96,-7.412,-33.46,-40.3,-0.5979,-17.55,13.46,6.85,-21.72,-8.205,-57.73,-0.4243,-16.69,0,0,0,0,0,0,0,0,0,0,0,0,0,0,0,0,
186,-15.59,22.95,-7.299,-33.34,-5.462,-42.11,-21.74,-51.94,-30.28,37.26,-0.7793,-14.96,22.78,-32.86,20.37,4.49,0,0,0,0,0,0,0,0,0,0,0,0,0,0,0,0,
187,-22.29,32.21,-8.666,-61.95,-3.309,-34.71,3.754,-60.66,-44.33,-14.43,12.42,2.965,58.99,-26.74,40.89,26.52,0,0,0,0,0,0,0,0,0,0,0,0,0,0,0,0,
188,-17.7,44.13,-17.65,-66.25,-18,-8.22,9.104,-37.25,-58.11,-15.56,25.21,14.95,74.94,-23.61,47.44,35.63,0,0,0,0,0,0,0,0,0,0,0,0,0,0,0,0,
189,-6.13,46.54,-28.55,-45,-9.642,14.49,10.73,-32.24,-58.15,41.22,40.81,35.26,75.31,-17.47,58.58,50.84,0,0,0,0,0,0,0,0,0,0,0,0,0,0,0,0,
190,-9.319,23.4,-58.61,-38.39,-1.722,-5.712,7.659,-37.1,-33.27,21.75,60.83,60.12,75.4,-13.05,71.62,61.32,0,0,0,0,0,0,0,0,0,0,0,0,0,0,0,0,
191,-19.63,12,-29.82,-20.98,-14.99,-35.44,-23.44,-20.59,-23.32,-42.7,47.29,61.91,73.75,-7.925,65.6,46.7,0,0,0,0,0,0,0,0,0,0,0,0,0,0,0,0,
192,1.781,27.14,40.03,15.11,-11.47,-18.66,-19.1,-11.07,-30.95,-40.74,36.84,60.32,68.93,-3.816,55.67,39.07,0,0,0,0,0,0,0,0,0,0,0,0,0,0,0,0,
193,38.01,32.91,10.67,-8.151,5.324,10.2,36.34,-39.36,-17.28,-12.76,62.87,63.76,59.15,-6.855,48.1,37.96,0,0,0,0,0,0,0,0,0,0,0,0,0,0,0,0,
194,40.86,21.32,-32.32,-42.92,23.88,24.63,56.94,-51.95,9.313,-19.7,63.84,48.69,43.76,-18.1,32.22,16.58,0,0,0,0,0,0,0,0,0,0,0,0,0,0,0,0,
195,22.79,12.26,17.65,-5.733,29.78,31.21,31.26,-7.603,11.39,-34.61,30.87,26.42,29.86,-29.93,16.22,-1.536,0,0,0,0,0,0,0,0,0,0,0,0,0,0,0,0,
196,12.73,1.888,15.75,17.96,-5.392,14.03,-1.732,29.63,-15.96,-27.29,14.89,18.74,31.23,-25.56,6.585,0.7129,0,0,0,0,0,0,0,0,0,0,0,0,0,0,0,0,
197,4.423,-2.265,-50.32,-25.71,-31.35,-10.78,-28.19,-4.107,-18.36,-8.997,20.09,10.63,40.03,-14.98,0.0482,1.423,0,0,0,0,0,0,0,0,0,0,0,0,0,0,0,0,
198,-22.91,3.368,-63.08,-82.17,-25.02,-37.87,-28.91,-65.62,4.508,7.234,20.36,-16.5,21.05,-30.68,-15.53,-14.28,0,0,0,0,0,0,0,0,0,0,0,0,0,0,0,0,
199,-58.08,-26.37,-73.43,-104.9,-34.65,-71.39,-23.98,-71.44,-22.64,31.45,-6.532,-38.87,-11.7,-53.97,-45.22,-34.1,0,0,0,0,0,0,0,0,0,0,0,0,0,0,0,0,
200,-60.42,-77.06,-90.11,-70.29,-31.38,-67.25,-44.85,-34.52,-54.44,30.09,-35.27,-31.38,-11.12,-52.45,-56.84,-34.34,0,0,0,0,0,0,0,0,0,0,0,0,0,0,0,0,
201,-46.11,-71.38,-60.45,-39.87,-8.01,-44.67,-53.14,-28.24,-29.79,-14.73,-26.95,-18.97,2.664,-50.9,-40.75,-18.62,0,0,0,0,0,0,0,0,0,0,0,0,0,0,0,0,
202,-47.07,-35.66,-46.25,-59.27,-19.41,-41.35,-33.17,-30.47,-19.43,-16.38,-13.78,-23.98,-4.164,-59.96,-38.3,-12.37,0,0,0,0,0,0,0,0,0,0,0,0,0,0,0,0,
203,-38.03,-35.65,-53.2,-55.32,-29.4,-21.35,-28.07,-1.158,-28.51,22.45,-18.8,-28.67,-5.677,-56.98,-47.28,-15.96,0,0,0,0,0,0,0,0,0,0,0,0,0,0,0,0,
204,-26.91,-32.2,-36.99,-47.9,-10.45,-8.129,-26.68,-4.603,-37.5,11.99,-13.67,-16.48,16.84,-49.63,-28.46,-9.621,0,0,0,0,0,0,0,0,0,0,0,0,0,0,0,0,
205,-30.68,0.2115,-27.45,-79.89,-4.507,-24.59,-14.41,-41.23,-71.69,-6.814,4.75,5.939,38.89,-43.17,3.325,10.19,0,0,0,0,0,0,0,0,0,0,0,0,0,0,0,0,
206,-9.783,9.381,-16.4,-31.64,6.221,-2.347,-17.56,-21.5,-32.99,10.38,30.72,31.89,51.86,-20.76,25.16,35.29,0,0,0,0,0,0,0,0,0,0,0,0,0,0,0,0,
207,36.75,10.33,29.35,64.56,44.44,48.18,14.27,27,85.92,40.58,65.2,76.23,79.04,13.33,61.63,69.02,0,0,0,0,0,0,0,0,0,0,0,0,0,0,0,0,
208,86.43,55.27,80.74,43.98,81.37,78.51,99.83,49,124.1,87.54,100.3,133.3,116.9,43.91,115.2,106.4,0,0,0,0,0,0,0,0,0,0,0,0,0,0,0,0,
209,141.1,97.35,98.63,27.95,98.97,115.6,130.9,71.63,104.6,92.64,117,150.1,130.6,60.57,136,114.2,0,0,0,0,0,0,0,0,0,0,0,0,0,0,0,0,
210,154.5,88.79,80.14,112.8,68.62,121.6,96.29,63.67,93.7,41.13,78.44,100.6,105.4,50.05,91.19,75.58,0,0,0,0,0,0,0,0,0,0,0,0,0,0,0,0,
211,86.13,55.42,52.67,103.4,-5.998,43.41,62.53,13.6,18.93,29.65,9.463,24.95,56.55,18.94,19.23,23.19,0,0,0,0,0,0,0,0,0,0,0,0,0,0,0,0,
212,-4.692,10.73,11.65,8.999,-50.6,-31.42,14.44,0.4426,-62.47,27.4,-22.8,-23.59,21.1,0.3082,-14.34,-3.231,0,0,0,0,0,0,0,0,0,0,0,0,0,0,0,0,
213,-45,-18.93,-50.63,-16.81,-63.16,-30.29,-12.12,2.565,-64.08,-7.434,-29.87,-33.02,14.77,4.208,-13.8,-7.863,0,0,0,0,0,0,0,0,0,0,0,0,0,0,0,0,
214,-48.19,-11.74,-62.61,-42.1,-87.5,-12.66,18.44,-20.16,-51.31,4.074,-22.38,-31.93,6.202,5.678,-18.45,-10.1,0,0,0,0,0,0,0,0,0,0,0,0,0,0,0,0,
215,-48.87,-19.52,-14.95,-42.35,-80.68,-39.28,10.11,-9.121,-47.76,23,11.73,-29.63,-5.466,0.1076,-16.87,-3.205,0,0,0,0,0,0,0,0,0,0,0,0,0,0,0,0,
216,-31.18,-36.88,3.392,30.49,-50.44,-80.73,-37.72,5.397,-41.47,-4.836,10.46,-20.82,4.002,-0.6126,-8.71,7.399,0,0,0,0,0,0,0,0,0,0,0,0,0,0,0,0,
217,-8.51,-12.48,-13.32,-2.553,-64.86,-71.3,-21.13,-28.47,-42.16,-9.598,-32.83,-26.44,11.11,-3.22,-20.87,3.772,0,0,0,0,0,0,0,0,0,0,0,0,0,0,0,0,
218,-17.91,1.718,-26.35,-78.46,-72.35,-34.56,12.9,-38.34,-16.38,-8.039,-36.96,-41.26,1.614,-0.5659,-31.76,0.1342,0,0,0,0,0,0,0,0,0,0,0,0,0,0,0,0,
219,-19.91,-20.9,-34.98,-11.23,-36.86,-35.76,-7.769,-9.903,13.08,-26.26,-10.2,-33.98,-2.321,13.64,-18.68,1.247,0,0,0,0,0,0,0,0,0,0,0,0,0,0,0,0,
220,9.438,-21.42,-32.65,32.21,-24.07,-26.83,-15.19,2.676,10.28,-13.25,0.2034,-18.57,1.295,11.85,-2.288,-3.09,0,0,0,0,0,0,0,0,0,0,0,0,0,0,0,0,
221,22.61,-5.357,-21.11,-8.961,-27.54,10.09,12.81,8.339,18.66,-17.46,4.047,-23.44,1.818,-4.737,-0.5461,-0.0068,0,0,0,0,0,0,0,0,0,0,0,0,0,0,0,0,
222,11.64,-8.841,5.649,13.08,-22.5,-14.86,15.5,-3.077,20.15,-51.49,-1.915,-39.56,-2.347,-8.206,-12.74,0.4279,0,0,0,0,0,0,0,0,0,0,0,0,0,0,0,0,
223,-1.792,-24,26.92,12.43,-35.66,-67.04,0.1046,-34.84,-15.75,-35.19,-16.64,-40.54,-5.451,-6.062,-17.32,-14.75,0,0,0,0,0,0,0,0,0,0,0,0,0,0,0,0,
224,-9.9,-40.14,-5.12,-39.21,-43.66,-56.74,-15.08,-21.64,-18.72,-22.63,-10.96,-20.22,-4.63,-11.08,-7.683,-14.2,0,0,0,0,0,0,0,0,0,0,0,0,0,0,0,0,
225,3.67,-41.35,-17.88,-2.418,-25.95,-22.52,-25.1,11.63,19.27,-47.37,-1.925,0.921,-2.632,-18.06,-8.316,4.148,0,0,0,0,0,0,0,0,0,0,0,0,0,0,0,0,
226,39.22,-16.54,32.2,54.22,-7.628,5.029,11.93,4.517,29.9,-30.63,-8.936,17.51,10.84,-17.66,-2.532,14.72,0,0,0,0,0,0,0,0,0,0,0,0,0,0,0,0,
227,71.5,9.859,35.35,47.83,0.9912,34.8,49.12,22.08,26.02,-13.98,4.991,45.01,32.61,-1.903,30.89,27.56,0,0,0,0,0,0,0,0,0,0,0,0,0,0,0,0,
228,78.72,18.3,5.884,42.22,-8.038,44.36,28.09,47.52,34.81,-28.07,32.05,64.27,41.57,12.44,43.78,41.88,0,0,0,0,0,0,0,0,0,0,0,0,0,0,0,0,
229,70.11,18.23,18.79,18.45,-27.93,32.56,30.61,-24.76,29.82,-3.204,27.06,44.9,45.18,13.79,18.05,39.46,0,0,0,0,0,0,0,0,0,0,0,0,0,0,0,0,
230,65.35,6.699,13.36,-23.02,-42.78,6.693,46.26,-81.44,23.43,13.74,18.06,17.16,43.91,21.02,3.295,31.35,0,0,0,0,0,0,0,0,0,0,0,0,0,0,0,0,
231,47.23,-27.22,7.823,-8.232,-52.99,-25.96,-12.95,-10.66,29.24,-12.31,21.58,18.86,18.34,27.79,9.775,23.95,0,0,0,0,0,0,0,0,0,0,0,0,0,0,0,0,
232,21.05,-52.27,37.21,19.03,-39.34,-38.14,-52.62,34.79,12.79,-10.01,5.342,26.11,-8.059,19.03,12.9,12,0,0,0,0,0,0,0,0,0,0,0,0,0,0,0,0,
233,22.78,-41.52,11.24,17.09,-22.21,-28.47,-21.9,-3.661,-8.153,-4.474,-6.977,17.96,-14.09,9.906,9.548,3.575,0,0,0,0,0,0,0,0,0,0,0,0,0,0,0,0,
234,22.44,-32.74,-31.22,13.25,-50.6,-23.25,-20.02,-21.22,-9.16,-25.57,-9.428,1.308,-28.38,2.15,-5.55,-7.418,0,0,0,0,0,0,0,0,0,0,0,0,0,0,0,0,
235,-4.382,-51.21,-14.05,-29.78,-67.45,-40.11,-27.03,-38.06,-23.04,-10.87,-32.01,-23.54,-52.98,-6.545,-23.24,-20.27,0,0,0,0,0,0,0,0,0,0,0,0,0,0,0,0,
236,-14.25,-69.96,-22.48,-65.93,-35.87,-53.16,-10.76,-57.8,-35.46,11.21,-28.02,-30.89,-56.08,-3.979,-14.17,-10.2,0,0,0,0,0,0,0,0,0,0,0,0,0,0,0,0,
237,-3.942,-77.59,-54.37,-5.368,-38.91,-29.05,-36.26,-16.5,-21.97,-26.59,9.98,-11.29,-44.23,1.655,0.1819,5.14,0,0,0,0,0,0,0,0,0,0,0,0,0,0,0,0,
238,-3.805,-76.52,-38.39,27.87,-64.73,-16.93,-59.9,7.846,0.6472,-57.41,8.871,-4.949,-39.2,4.444,-7.117,-2.818,0,0,0,0,0,0,0,0,0,0,0,0,0,0,0,0,
239,-12.47,-61.42,-12.69,-19.6,-38.45,-48.26,-30.14,-28.71,25.45,-21.14,-14.52,0.3028,-28.8,14.72,-0.7501,-4.084,0,0,0,0,0,0,0,0,0,0,0,0,0,0,0,0,
240,-14.58,-35.31,6.785,-4.822,-17.07,-44.75,-6.216,-29.72,22,15.62,-4.881,33.58,0.884,34.39,24.93,18.96,0,0,0,0,0,0,0,0,0,0,0,0,0,0,0,0,
241,8.481,3.671,9.306,12.21,-35.95,8.599,24.03,-9.758,9.725,25.5,20.52,57.2,33.83,60.57,37.8,38.6,0,0,0,0,0,0,0,0,0,0,0,0,0,0,0,0,
242,34.12,35.95,-23.62,-46.77,-34.4,18.19,61.38,-31.18,45.83,44.71,33.21,56.48,42.85,68.39,45.8,41.79,0,0,0,0,0,0,0,0,0,0,0,0,0,0,0,0,
243,19.96,25.83,-11.7,-19.21,-23.27,-20.66,24.33,-24.38,57.02,49.5,22.07,53.8,28.51,45.75,49.98,36.79,0,0,0,0,0,0,0,0,0,0,0,0,0,0,0,0,
244,3.015,6.019,23.74,58.09,-40.47,-25.73,-20.4,24.8,8.722,41.3,0.3407,47.95,21.47,41.12,44.02,36,0,0,0,0,0,0,0,0,0,0,0,0,0,0,0,0,
245,15.28,12.15,-27.2,6.755,-72.59,-10.18,-3.212,20.35,-20.94,41.14,-5.407,37.57,23.23,58.9,46.45,35.76,0,0,0,0,0,0,0,0,0,0,0,0,0,0,0,0,
246,18.32,11.56,-67.68,-41.09,-90.99,-23.42,-13.88,-14.71,-36.44,16.31,-13.26,25.42,12.26,45.76,40.21,21.28,0,0,0,0,0,0,0,0,0,0,0,0,0,0,0,0,
247,12.79,5.439,-16.06,12.06,-63.47,-31.94,-24.46,-10.27,-28.33,17.07,-35.71,9.664,-1.205,17.6,8.661,3.58,0,0,0,0,0,0,0,0,0,0,0,0,0,0,0,0,
248,3.1,-0.3965,-14.12,-10.42,-30.16,-35.39,16.46,-24.8,14.83,62.11,-42.4,-12.34,-19.3,1.384,-17.87,-13.94,0,0,0,0,0,0,0,0,0,0,0,0,0,0,0,0,
249,-31.17,-35.35,-81.54,-93.86,-43.18,-58.4,-2.055,-58.77,1.201,39.37,-37.88,-34.06,-49.48,-16.97,-27.07,-32.44,0,0,0,0,0,0,0,0,0,0,0,0,0,0,0,0,
250,-38.11,-53.02,-83.92,-58.86,-62.38,-55.62,-56.61,-28.56,-44.03,-1.792,-41.28,-30.87,-53.4,-11.44,-20.85,-18.81,0,0,0,0,0,0,0,0,0,0,0,0,0,0,0,0,
251,-0.1476,-30.41,-44.39,26.89,-79.5,-32.6,-46.5,7.247,-32.24,28.3,-36.27,-16.09,-37.9,7.343,-9.601,5.166,0,0,0,0,0,0,0,0,0,0,0,0,0,0,0,0,
252,8.735,-36.65,-43.21,17.14,-87.36,-34.51,-39.94,-3.858,-14.9,27.22,-21.51,-20.5,-45.92,-13.48,-20.43,-14.96,0,0,0,0,0,0,0,0,0,0,0,0,0,0,0,0,
253,-11.18,-57.27,-55.73,-51.57,-55.77,-48.98,-59.28,-1.071,-32.44,-7.101,-11.75,-22.48,-50.94,-25.21,-32.57,-37.61,0,0,0,0,0,0,0,0,0,0,0,0,0,0,0,0,
254,-17.29,-51.1,-54.55,-74.98,-49.56,-69.65,-51.13,-17.27,-44.4,2.968,-13.83,-17.82,-44.83,-0.5967,-23.91,-28.68,0,0,0,0,0,0,0,0,0,0,0,0,0,0,0,0,
255,-21.87,-49.01,-29.14,-22.88,-51.58,-69.21,-41.93,-67.74,-22.16,-6.159,-29.68,-19.95,-56.97,-10.33,-18.16,-24.42,0,0,0,0,0,0,0,0,0,0,0,0,0,0,0,0,
256,-27.19,-45.51,-15.34,-2.894,-12.78,-35.87,-40.01,-66.98,-3.508,-40.24,-38.36,-6.906,-57.27,-33.21,-10.52,-17.33,0,0,0,0,0,0,0,0,0,0,0,0,0,0,0,0,
257,-24.59,-36.58,-68.53,-70.25,-33.38,-33.75,-41.78,-41.42,-37.57,-35.71,-36.41,4.748,-40.38,-23.75,-2.701,-1.552,0,0,0,0,0,0,0,0,0,0,0,0,0,0,0,0,
258,-20.69,-43.32,-97.1,-69.91,-69.74,-49.93,-61.91,-37.49,-48.23,-20.51,-36.28,0.2766,-37.23,-28.17,-3.285,0.5988,0,0,0,0,0,0,0,0,0,0,0,0,0,0,0,0,
259,-24.13,-36.49,-57.53,-11.51,-50.53,-52.44,-58.74,-35.19,-2.812,-17.96,-9.866,21,-15.94,-31.45,27.53,18.63,0,0,0,0,0,0,0,0,0,0,0,0,0,0,0,0,
260,-36.17,-16.83,-82.18,-63.32,-102.1,-78.76,-39.6,-53.8,-16.34,-15.6,26.19,45.33,20.09,-1.693,55.28,45.09,0,0,0,0,0,0,0,0,0,0,0,0,0,0,0,0,
261,-25.77,-18.9,-123.3,-104,-141.5,-86.62,-63.59,-57.16,-62.45,-18.95,18.29,23.79,7.931,-1.45,15.48,26.3,0,0,0,0,0,0,0,0,0,0,0,0,0,0,0,0,
262,3.83,-28.03,-46.29,-39.01,-40.61,-59.38,-86.09,-25.66,-48.92,-26.36,1.674,-8.337,-29.63,-34.61,-27.82,-8.011,0,0,0,0,0,0,0,0,0,0,0,0,0,0,0,0,
263,-4.16,-37.73,15.33,-34.54,17.3,-64.33,-71.1,-44.97,-36.53,-28.77,7.055,-15.91,-33.64,-37.82,-32.74,-17.64,0,0,0,0,0,0,0,0,0,0,0,0,0,0,0,0,
264,-36.81,-58.58,-55.03,-75.42,-20.99,-72.85,-81.55,-81.38,-40.08,-23.49,0.2717,-18.75,-22.13,-25.75,-36.6,-20.27,0,0,0,0,0,0,0,0,0,0,0,0,0,0,0,0,
265,-47.01,-65.48,-127,-70.28,-33.99,-68.07,-108.3,-78.14,-29.91,-17.25,-27.51,-32.85,-33.08,-40.31,-35.56,-25.18,0,0,0,0,0,0,0,0,0,0,0,0,0,0,0,0,
266,-51.88,-51.62,-119.6,-92.22,-47.82,-87.51,-95.46,-111.4,-63.93,-18.45,-68.28,-48.64,-57.56,-61.21,-47.14,-44.05,0,0,0,0,0,0,0,0,0,0,0,0,0,0,0,0,
267,-67.64,-49.87,-105.3,-131.2,-65.26,-92.58,-79.64,-150.2,-107.8,-25.41,-84.19,-46.6,-56.02,-49.95,-75.35,-65.55,0,0,0,0,0,0,0,0,0,0,0,0,0,0,0,0,
268,-75.01,-50.39,-105.9,-125.4,-51.93,-84.7,-88.49,-111.3,-70.24,-28.9,-44.65,-31.21,-27.45,-21.88,-59.42,-49.37,0,0,0,0,0,0,0,0,0,0,0,0,0,0,0,0,
269,-65.51,-27.49,-84.39,-89.88,-52.91,-98.13,-98.59,-75.62,-28.23,-22.57,-16.76,-22.19,-21.86,-17.8,-29.17,-29.13,0,0,0,0,0,0,0,0,0,0,0,0,0,0,0,0,
270,-58.22,-22.62,-73.58,-53.73,-56.5,-86.73,-105.9,-102.5,-64.07,-19.95,-30.64,-11.57,-37.03,-25.12,-36.1,-38.42,0,0,0,0,0,0,0,0,0,0,0,0,0,0,0,0,
271,-65.38,-42,-93.03,-74.85,-38.16,-56.69,-88.97,-127.6,-91.69,-15.28,-33.43,2.92,-27.98,-21.23,-31.1,-30.82,0,0,0,0,0,0,0,0,0,0,0,0,0,0,0,0,
272,-56.22,-31.3,-92.69,-124.1,-34.51,-58.31,-48.16,-121.1,-68.1,1.727,-25.15,8.636,-9.217,-23.35,-9.565,-7.437,0,0,0,0,0,0,0,0,0,0,0,0,0,0,0,0,
273,-21.17,-14.2,-73.78,-93.33,-32.72,-56.49,-33.55,-102.1,-49.15,-19.71,-16.64,24.6,-0.5079,-25.65,-3.045,-0.3425,0,0,0,0,0,0,0,0,0,0,0,0,0,0,0,0,
274,-10.2,-15.04,-54.36,-28.57,-7.532,-37.95,-43.02,-77.47,-22.58,-65.42,3.256,50.13,9.556,-13.87,15.13,12.25,0,0,0,0,0,0,0,0,0,0,0,0,0,0,0,0,
275,-33.66,-7.184,-29.26,-16.06,6.796,-42.42,-46.75,-69.14,2.463,-50.51,20.93,50.83,7.946,-8.989,37.76,25.31,0,0,0,0,0,0,0,0,0,0,0,0,0,0,0,0,
276,-33.43,-18.93,-22.38,-17.06,6.669,-35.61,-38.16,-85.3,-15.4,-21.88,37.16,45.91,3.611,-7.165,37.98,22.07,0,0,0,0,0,0,0,0,0,0,0,0,0,0,0,0,
277,5.585,-35.18,-17.64,-1.997,18.11,3.644,-18.58,-74.89,-3.306,-41.1,49.35,57.06,21.68,9.884,37.97,27.75,0,0,0,0,0,0,0,0,0,0,0,0,0,0,0,0,
278,27.1,-3.38,-0.7624,-0.2121,27.11,12.54,-4.688,-42.64,45.77,-50.67,41.73,55.07,34.95,14,37.52,34.23,0,0,0,0,0,0,0,0,0,0,0,0,0,0,0,0,
279,22.63,22.03,-10.68,-35.23,42.29,8.94,16.24,-73.04,23.89,-34.38,31.4,50.02,32.89,-8.902,19.75,22.77,0,0,0,0,0,0,0,0,0,0,0,0,0,0,0,0,
280,38.15,12.64,-13.64,-81.46,71.39,33.88,33.36,-125.1,-23.57,-16.17,26.61,54.17,32.63,-23.36,4.568,13.41,0,0,0,0,0,0,0,0,0,0,0,0,0,0,0,0,
281,45.37,3.326,2.602,-75.57,52.89,19.31,-12.53,-91.17,-3.977,-0.4281,11.42,26.95,14.13,-21.71,-5.858,-0.6389,0,0,0,0,0,0,0,0,0,0,0,0,0,0,0,0,
282,4.815,-22.09,-44.43,-44.35,1.684,-26.14,-64.22,-48.37,19.27,-8.816,-10.4,-9.313,-12.7,-21.71,-25.49,-24.75,0,0,0,0,0,0,0,0,0,0,0,0,0,0,0,0,
283,-24.11,-45.3,-104.1,-56.62,-4.634,-31.77,-52.63,-76.92,5.348,-15.32,-20.14,-1.617,-9.111,-12.76,-33.11,-26.96,0,0,0,0,0,0,0,0,0,0,0,0,0,0,0,0,
284,-11.77,-38.35,-73.71,-67.39,-6.537,-37.51,-48.62,-78.04,2.424,4.468,-20.79,9.355,-5.933,-3.183,-28.09,-25.06,0,0,0,0,0,0,0,0,0,0,0,0,0,0,0,0,
285,-10.88,-47.34,-44.99,-59.3,-37.09,-48.93,-69.31,-50.9,-3.096,-0.5328,-35.81,-9.878,-31.03,-17.42,-36.16,-43.78,0,0,0,0,0,0,0,0,0,0,0,0,0,0,0,0,
286,-26.94,-66.66,-75,-78.8,-35.32,-35.8,-69.67,-85.03,-30.78,-26.56,-42.68,-17.17,-38.6,-29.31,-37.26,-42.39,0,0,0,0,0,0,0,0,0,0,0,0,0,0,0,0,
287,-31.31,-54.04,-58.56,-82.56,-14.34,-52.61,-64.4,-105.5,-37.01,-25.89,-12.5,-8.662,-23.07,-28.02,-25.64,-27.94,0,0,0,0,0,0,0,0,0,0,0,0,0,0,0,0,
288,-46.07,-46.03,-27.78,-81.37,-20.83,-87.02,-55.75,-79.84,-38.86,-22.73,-5.031,-18.58,-33.53,-44.58,-32.07,-41.99,0,0,0,0,0,0,0,0,0,0,0,0,0,0,0,0,
289,-77.47,-68.82,-74.1,-117.8,-33.35,-83.37,-64.23,-93.65,-68.73,-41.26,-44.02,-30.96,-50.99,-55.85,-31.44,-45.4,0,0,0,0,0,0,0,0,0,0,0,0,0,0,0,0,
290,-76.55,-79.63,-106.2,-88.6,-46.07,-78.66,-102.8,-99.35,-86.43,-50.64,-56.96,-22.15,-33.54,-34.22,-8.623,-23.27,0,0,0,0,0,0,0,0,0,0,0,0,0,0,0,0,
291,-49.38,-62.42,-70.38,-15.4,-54.95,-83.95,-91.89,-65.53,-93.61,-35.77,-36.56,-6.989,-12.2,-17.83,0.0077,-17.55,0,0,0,0,0,0,0,0,0,0,0,0,0,0,0,0,
292,-50.01,-53.6,-34.99,-29.72,-31.64,-72.4,-51.84,-71.19,-82.09,-29.29,-18.17,6.643,-9.341,-18.8,10.97,-11.64,0,0,0,0,0,0,0,0,0,0,0,0,0,0,0,0,
293,-59,-61.99,-27.41,-59.31,-14.45,-62.42,-71.98,-88.83,-21.84,-50.9,13.39,20.53,-3.062,-11.62,36.54,3.344,0,0,0,0,0,0,0,0,0,0,0,0,0,0,0,0,
294,-42.32,-52.62,-34.9,-52.65,-31.8,-54.71,-69.1,-94.15,-5.909,-62,43.64,31.78,7.475,-6.232,40.6,3.755,0,0,0,0,0,0,0,0,0,0,0,0,0,0,0,0,
295,-24.65,-22.11,-14.57,-57.79,-24.16,-33.18,-10,-128.7,-35.51,-46.84,48.33,49.66,21.63,-16.23,41.22,13.7,0,0,0,0,0,0,0,0,0,0,0,0,0,0,0,0,
296,-12.18,-3.93,7.859,-39.57,13.66,-10.8,-22.85,-127.6,9.19,-55.1,58.49,69.78,39.66,-26.37,56.8,27.28,0,0,0,0,0,0,0,0,0,0,0,0,0,0,0,0,
297,11.35,0.8264,-24.93,-22.39,37.44,5.918,-61.33,-63.6,66.9,-86.36,72.85,76.77,39.18,-28.11,54.97,13.73,0,0,0,0,0,0,0,0,0,0,0,0,0,0,0,0,
298,39.58,10.39,-7.381,-22.87,56.19,25.3,-21.25,-29.9,73.75,-77.42,66.11,81.14,26.02,-29.65,44.33,4.869,0,0,0,0,0,0,0,0,0,0,0,0,0,0,0,0,
299,56.94,11.62,59.34,26.85,62.22,42.51,-4.08,-42.52,79.83,-34.87,69.53,88.06,21.51,-33.21,49.1,9.21,0,0,0,0,0,0,0,0,0,0,0,0,0,0,0,0,
300,55.57,-3.439,39.63,58.17,45.22,36.06,-30.16,-50.04,58.61,-21.15,82.21,79.38,14.82,-25.63,47,2.38,0,0,0,0,0,0,0,0,0,0,0,0,0,0,0,0,
301,48.42,-14.16,9.137,6.217,28.34,1.251,-7.393,-52.35,30.04,-21.73,57.89,50.15,1.89,-1.955,21.54,-2.36,0,0,0,0,0,0,0,0,0,0,0,0,0,0,0,0,
302,31.61,-19.1,-10.96,-51.43,-0.2448,-16.79,-1.744,-72.89,32.32,10.84,24.72,22.98,-1.344,14.2,-2.065,-5.011,0,0,0,0,0,0,0,0,0,0,0,0,0,0,0,0,
303,-2.755,-23.84,-65.11,-59.87,-17.41,8.265,-42.34,-81.69,-4.548,25.05,14.11,14.55,1.409,3.476,-5.253,-18.9,0,0,0,0,0,0,0,0,0,0,0,0,0,0,0,0,
304,-10.1,-18.56,-15.17,-12.97,11.14,16.84,-33.16,-31.31,-43.99,-10.98,-7.753,-0.2108,-8.555,-15.37,-17.74,-36.08,0,0,0,0,0,0,0,0,0,0,0,0,0,0,0,0,
305,-3.434,-15.28,44.43,11.62,15.43,-21.39,-2.267,4.736,-16.01,-7.019,-30.63,-30.02,-23.42,-15.98,-49.31,-49.33,0,0,0,0,0,0,0,0,0,0,0,0,0,0,0,0,
306,-45.68,-22.25,-31.85,-45.23,-18.19,-43.27,-14.5,-43.32,-9.998,26.6,-27.88,-35.08,-19.81,-8.291,-56.85,-48.05,0,0,0,0,0,0,0,0,0,0,0,0,0,0,0,0,
307,-79.37,-25.93,-40.54,-63.79,-23.07,-39.87,-35.84,-63.26,-51.16,-2.549,-24.63,-19.94,-12.55,-12.77,-40.02,-36.39,0,0,0,0,0,0,0,0,0,0,0,0,0,0,0,0,
308,-59.54,-28.75,3.508,-22.92,-34.26,-57.39,-46.33,-32.57,-53.74,-18.21,-23.79,-19,-15.74,-12.94,-30.73,-31.37,0,0,0,0,0,0,0,0,0,0,0,0,0,0,0,0,
309,-56.27,-23.91,-62.01,-40.96,-75.46,-66.25,-46.98,-76.63,-43.58,25.54,-22.48,-21.1,-4.662,2.174,-24.66,-25.88,0,0,0,0,0,0,0,0,0,0,0,0,0,0,0,0,
310,-62.88,-10.55,-79.37,-62.67,-78.94,-43.89,-30.01,-112.8,-65.6,23.92,-41.05,-17.44,9.308,1.869,-22.28,-21.6,0,0,0,0,0,0,0,0,0,0,0,0,0,0,0,0,
311,-44.58,-20.2,-27.51,-24.47,-52.8,-37.42,-18.78,-41.35,-54.06,-3.135,-49.83,-8.714,4.006,-7.479,-21.51,-19.17,0,0,0,0,0,0,0,0,0,0,0,0,0,0,0,0,
312,-52,-35.49,-39.33,-20.97,-53.95,-47.36,-32.33,-14.27,-21.48,5.677,-20.41,14.7,15.97,10.53,-1.453,4.473,0,0,0,0,0,0,0,0,0,0,0,0,0,0,0,0,
313,-60.28,-15.53,-34.62,-51.5,-56.95,-35.3,-42.26,-54.22,-33.05,5.625,5.559,35.65,50.49,27.04,20.62,29.33,0,0,0,0,0,0,0,0,0,0,0,0,0,0,0,0,
314,-7.702,10.5,-17.54,-35.42,-30.26,-10.57,-29.03,-36.63,-21.22,-2.333,14.55,43.12,65.25,18.17,24.71,27.44,0,0,0,0,0,0,0,0,0,0,0,0,0,0,0,0,
315,38.16,8.654,-55.99,-13.08,-9.396,5.037,-25.45,-20.18,19.18,-14.92,38.18,54.32,65.91,19.08,31.7,28.7,0,0,0,0,0,0,0,0,0,0,0,0,0,0,0,0,
316,33.42,-1.441,-24.07,-11.57,1.065,16.46,-31.38,-37.26,17.12,-43.52,53.88,68.45,70.84,22.36,46.74,40.92,0,0,0,0,0,0,0,0,0,0,0,0,0,0,0,0,
317,49.13,2.132,80.92,26.39,36.96,29.45,-1.17,-30.4,44.54,-32.56,37.51,74.15,69.02,9.33,54.01,36.08,0,0,0,0,0,0,0,0,0,0,0,0,0,0,0,0,
318,87.19,15.1,86.3,55.11,70.8,46.97,43.78,-44.26,105.1,1.74,30.87,74.01,68.27,15.71,56.93,27.67,0,0,0,0,0,0,0,0,0,0,0,0,0,0,0,0,
319,86.48,25.98,23.28,23.5,66.3,62.6,50.91,-53.84,109.7,-1.293,41.02,69.71,74.51,34.47,55.39,32.3,0,0,0,0,0,0,0,0,0,0,0,0,0,0,0,0,
320,69.65,25.75,22.26,15.53,41.73,52.97,13.92,-19.76,97.23,-13.42,27.85,52.74,61.14,24.98,28.89,22.79,0,0,0,0,0,0,0,0,0,0,0,0,0,0,0,0,
321,67.78,4.62,23.7,27.19,19.52,39.49,-31.58,-29.51,66.47,-4.441,0.5141,26.61,29.96,12.53,-9.536,-4.593,0,0,0,0,0,0,0,0,0,0,0,0,0,0,0,0,
322,51.54,-19.36,-23.59,-13.59,23.21,56.33,-21.28,-60.14,16.99,16.29,-13.03,11,17.57,26.76,-15.6,-12.72,0,0,0,0,0,0,0,0,0,0,0,0,0,0,0,0,
323,27.72,-13.75,-29.55,-39.43,30.95,54.44,22.01,-49.19,38.13,19.63,-12.61,7.26,24.52,43.58,-2.794,-0.0701,0,0,0,0,0,0,0,0,0,0,0,0,0,0,0,0,
324,23.88,-1.19,12.26,-3.692,5.768,14.39,13.26,-31.25,56.08,8.361,-0.0495,12.42,29.39,52.65,-5.247,7.959,0,0,0,0,0,0,0,0,0,0,0,0,0,0,0,0,
325,19.88,-7.777,51.04,41.13,14.43,0.6305,-8.423,5.289,28.02,42.61,28.44,36.31,38.66,70.98,10.65,23.22,0,0,0,0,0,0,0,0,0,0,0,0,0,0,0,0,
326,18.47,-0.9627,76,64.48,56.26,26.02,18.51,27.2,71.32,87.54,68.54,63.19,54.36,87.21,52.91,53.2,0,0,0,0,0,0,0,0,0,0,0,0,0,0,0,0,
327,42.74,22.96,32.37,44.35,26.25,65.97,46.01,-2.342,106.7,80.82,82.04,69.71,58.68,81.9,62.78,65.38,0,0,0,0,0,0,0,0,0,0,0,0,0,0,0,0,
328,47.52,26,-29.65,8.77,-18,81.75,34.85,-1.233,41.45,82.63,39.85,52.47,49.26,71.07,32.4,48.12,0,0,0,0,0,0,0,0,0,0,0,0,0,0,0,0,
329,5.547,14.24,7.728,12.37,-15.18,31.21,14.26,8.216,-9.687,79.79,-18.11,15.32,37.48,64.96,-5.706,22.03,0,0,0,0,0,0,0,0,0,0,0,0,0,0,0,0,
330,-23.76,16.15,39.42,12,-49.46,-14.93,22.73,-28.56,-39.38,22.54,-55.89,-15.95,30.64,53.34,-43.27,0.738,0,0,0,0,0,0,0,0,0,0,0,0,0,0,0,0,
331,-23.78,20.03,-23.69,-22.18,-74.82,-2.349,33.29,-43.28,-78.31,6.124,-73.53,-21.49,28.05,41.85,-59.93,-6.649,0,0,0,0,0,0,0,0,0,0,0,0,0,0,0,0,
332,-22.06,6.21,-50.29,-42.01,-27.5,12.15,8.321,-34.22,-40.88,26.98,-61.03,-10.81,26.79,32.3,-42.38,1.508,0,0,0,0,0,0,0,0,0,0,0,0,0,0,0,0,
333,2.702,-0.2792,2.613,-25.92,-4.164,37.4,3.002,-23.11,34.33,-5.145,-29.68,14.43,33.55,27.88,-13.84,13.83,0,0,0,0,0,0,0,0,0,0,0,0,0,0,0,0,
334,41.2,17.28,51.52,23.41,2.787,77.04,29.52,3.441,56.83,-5.958,-2.377,38.8,46.87,41.46,10.25,23.17,0,0,0,0,0,0,0,0,0,0,0,0,0,0,0,0,
335,53.7,26,60.11,64.25,48.43,79.81,31.5,2.439,72.58,36.58,20.07,41.72,51.57,46.75,19.1,22.81,0,0,0,0,0,0,0,0,0,0,0,0,0,0,0,0,
336,63.31,25.39,40.26,47.16,64.68,92.33,43.8,-7.953,104.8,9.928,30.31,47.24,49.84,29.5,9.83,13.45,0,0,0,0,0,0,0,0,0,0,0,0,0,0,0,0,
337,84.34,38.09,45.81,33.47,67.18,123,73.52,10.08,115.5,-15.01,34.16,64.78,52.7,19.57,15.64,15.86,0,0,0,0,0,0,0,0,0,0,0,0,0,0,0,0,
338,94.43,41.37,71.5,60.34,97.23,114.5,61.93,4.123,107.3,0.2895,45.48,70.77,58.52,9.201,34.43,27.86,0,0,0,0,0,0,0,0,0,0,0,0,0,0,0,0,
339,100.7,36.25,51.58,46.34,88.18,120.4,52.44,-21.21,87.6,-36.63,36.85,63.65,60.52,-7.079,16.47,19.4,0,0,0,0,0,0,0,0,0,0,0,0,0,0,0,0,
340,101,41.71,31.36,-0.9085,64.94,142.8,68.04,-9.168,69.74,-49.53,-0.9007,46.48,53.15,-0.3743,-14.13,-0.3421,0,0,0,0,0,0,0,0,0,0,0,0,0,0,0,0,
341,76.18,30.67,49.73,-4.449,71.89,97.05,42.23,14.91,80.66,-13.9,-14.51,30.35,48.04,12.61,5.205,4.273,0,0,0,0,0,0,0,0,0,0,0,0,0,0,0,0,
342,44.25,15.94,35.29,0.9136,42.18,35.59,5.347,-16.3,89.98,-44.16,6.32,33.19,56.06,15.46,33.49,21.58,0,0,0,0,0,0,0,0,0,0,0,0,0,0,0,0,
343,32.44,29.52,0.7049,-9.542,3.096,31.23,13.3,-69.62,49.21,-53.65,0.6308,25.61,50.72,25.7,12.79,17.49,0,0,0,0,0,0,0,0,0,0,0,0,0,0,0,0,
344,24.2,21.27,-3.421,9.862,4.218,35.36,11.36,-39.64,-0.8001,4.912,-34.1,-12.05,22.81,28,-10.3,0.0262,0,0,0,0,0,0,0,0,0,0,0,0,0,0,0,0,
345,-13.49,-21.81,-25.01,16.41,-23.97,21.33,-14.24,12.75,-9.004,1.463,-56.67,-39.3,5.96,13.75,-9.884,-10.66,0,0,0,0,0,0,0,0,0,0,0,0,0,0,0,0,
346,-57.26,-31.91,-59.47,-40.56,-59.15,10.16,-6.677,-31.48,-30.2,-18.16,-79.13,-42.59,2.928,8.816,-26.79,-19.07,0,0,0,0,0,0,0,0,0,0,0,0,0,0,0,0,
347,-65.26,-15.57,-41.37,-79.23,-41.36,-1.782,4.734,-65.49,-75.53,10.11,-86.67,-40.87,0.7964,18.01,-37.55,-20.49,0,0,0,0,0,0,0,0,0,0,0,0,0,0,0,0,
348,-58.56,-22.34,-5.932,-41.23,-34.4,-13.01,-17.95,-5.704,-66.2,5.797,-57.91,-30.03,9.235,24.27,-18.03,-11.62,0,0,0,0,0,0,0,0,0,0,0,0,0,0,0,0,
349,-57.2,-31.01,-9.524,6.887,-40.16,-13.51,-24.22,23.53,-41.04,-16.39,-52.2,-14.76,18.2,18.16,-16.75,-9.719,0,0,0,0,0,0,0,0,0,0,0,0,0,0,0,0,
350,-45.39,-14.11,-30.86,15.7,-19.32,0.0395,-7.326,-20.22,-43.5,-16.99,-63.65,-2.744,25.42,18.83,-19.9,-4.08,0,0,0,0,0,0,0,0,0,0,0,0,0,0,0,0,
351,-34.51,5.62,-44.24,8.777,-26.55,22.2,-9.276,-44,-7.099,-14.09,-38.35,7.279,40.72,38.16,4.364,12.12,0,0,0,0,0,0,0,0,0,0,0,0,0,0,0,0,
352,-36.83,-4.832,-36.35,-7.744,-48.96,20.95,-14.24,-27.62,12.62,5.046,-26.95,-5.64,30.64,43.36,4.02,7.238,0,0,0,0,0,0,0,0,0,0,0,0,0,0,0,0,
353,-31.11,-35.84,-11.22,-36.1,-27.96,-0.5192,-2.105,-20.64,-23.65,12.57,-40.6,-22.81,1.429,32.84,-12.16,-4.016,0,0,0,0,0,0,0,0,0,0,0,0,0,0,0,0,
354,-9.204,-41.76,-12.5,-34.63,-10.69,6.487,-1.026,-21.65,-1.483,-12.84,-22.88,-2.968,1.262,31.39,2.739,0.7116,0,0,0,0,0,0,0,0,0,0,0,0,0,0,0,0,
355,-2.623,-35.19,-29.83,-7.872,-23.84,21.86,-27.04,-23.44,38.73,-26.93,-2.817,11.77,1.972,20.04,2.304,-13.47,0,0,0,0,0,0,0,0,0,0,0,0,0,0,0,0,
356,-23.24,-52.88,-24.29,-20.13,-24.9,8.126,-41.15,-67,14.24,-27.65,-0.4016,-2.23,-12.89,7.792,-14.99,-29.21,0,0,0,0,0,0,0,0,0,0,0,0,0,0,0,0,
357,-22.26,-57.18,-37.37,-59.63,-16.54,-4.062,-27.63,-112.7,4.546,-30.05,13.57,-3.307,-7.126,20.5,-1.083,-12.02,0,0,0,0,0,0,0,0,0,0,0,0,0,0,0,0,
358,-0.6232,-37.01,-62.68,-69.84,-20.17,-3.921,-35.14,-99.96,21.19,-35.3,13.77,-9.092,1.177,27.84,4.284,-3.941,0,0,0,0,0,0,0,0,0,0,0,0,0,0,0,0,
359,-11.46,-28.3,-34.39,-44.47,-22.51,2.664,-54.06,-77.64,31.94,-55.98,-7.089,-27.68,8.864,30.31,-5.044,-4.315,0,0,0,0,0,0,0,0,0,0,0,0,0,0,0,0,
360,-20.92,-15.85,-2.149,-2.046,-14.94,16.76,-43.38,-43.79,30.4,-54.42,-9.93,-20.4,31.63,44.39,11.47,14.8,0,0,0,0,0,0,0,0,0,0,0,0,0,0,0,0,
361,-2.25,-6.575,-13.92,5.881,-9.993,12.48,-29.25,-1.639,-13.61,-12.21,-3.091,-12.44,21.85,32.99,10.31,10.07,0,0,0,0,0,0,0,0,0,0,0,0,0,0,0,0,
362,-4.809,-19.84,-19.9,-44.24,-10.62,11.6,-13.06,-48.18,-16.36,5.511,-5.585,-18.63,-9.587,10.66,-15.69,-13.43,0,0,0,0,0,0,0,0,0,0,0,0,0,0,0,0,
363,-18.32,-17.3,-14.73,-56.13,-6.096,32.91,-0.9261,-107.8,46.73,-6.163,-8.322,-15.72,-12.23,15.81,-14.23,-10.36,0,0,0,0,0,0,0,0,0,0,0,0,0,0,0,0,
364,-22.06,-13.12,-12.25,10.2,1.755,20.92,-27.19,-70.2,39.95,-5.859,-18.56,-25.48,-20.76,11.9,-14.15,-15.39,0,0,0,0,0,0,0,0,0,0,0,0,0,0,0,0,
365,-39.56,-37.55,-6.95,37.47,3.669,-8.079,-40.17,-35.51,7.307,-13.19,-31.67,-36.82,-33.41,0.5098,-32.71,-38.26,0,0,0,0,0,0,0,0,0,0,0,0,0,0,0,0,
366,-45.41,-39.77,-7.837,-4.482,-0.4442,-3.524,-21.59,-33.57,34.27,-15.26,-26.97,-21.66,-12.32,18.17,-31.86,-35.66,0,0,0,0,0,0,0,0,0,0,0,0,0,0,0,0,
367,-24.65,-11.18,5.883,-23.6,-4.558,3.382,-12.98,-16.54,32.12,10.58,-18.89,-16.94,-2.236,25.89,-28.1,-25.16,0,0,0,0,0,0,0,0,0,0,0,0,0,0,0,0,
368,-16.51,0.4059,2.35,-33.87,-4.737,9.727,10.22,-35.29,15.78,7.631,-14.08,-20.39,-14.67,13.05,-32.59,-22.73,0,0,0,0,0,0,0,0,0,0,0,0,0,0,0,0,
369,-17.53,-4.801,-48.05,-65.54,-11.46,26.53,25.79,-64.76,40.63,-21.55,-2.345,-0.2359,-6.024,17.32,-19.77,-7.984,0,0,0,0,0,0,0,0,0,0,0,0,0,0,0,0,
370,-1.695,-5.41,-34.03,-41.16,-25.26,18.23,-0.4649,-50.6,32.9,-16.46,-3.904,6.321,-2.706,10.9,-8.409,-8.378,0,0,0,0,0,0,0,0,0,0,0,0,0,0,0,0,
371,3.542,-6.177,24.72,18.03,-20.76,-1.281,-20.56,-57.41,9.944,-1.808,-23.01,-18.03,-32.56,-16.31,-17.87,-36.96,0,0,0,0,0,0,0,0,0,0,0,0,0,0,0,0,
372,-25.39,-28.76,-11.51,10.72,-5.885,-3.693,-36.32,-90.7,28.84,-9.777,-46.83,-34.06,-58.57,-19.72,-30.68,-51.04,0,0,0,0,0,0,0,0,0,0,0,0,0,0,0,0,
373,-44.98,-64.12,-50.58,-29.98,-15.19,-8.939,-50.86,-80.06,24.76,-20.22,-70.64,-36.19,-63.16,-15.42,-37.94,-50.57,0,0,0,0,0,0,0,0,0,0,0,0,0,0,0,0,
374,-32.07,-75.38,-18.28,-42.71,-25.39,-15.48,-46.53,-59.92,7.241,-22.43,-68.88,-45.12,-67.76,-34.08,-47.58,-60.94,0,0,0,0,0,0,0,0,0,0,0,0,0,0,0,0,
375,-36.79,-73.67,-29.53,-44.77,-6.205,-16.65,-61.77,-94.9,38.37,-25.56,-59.52,-58.03,-80.11,-51.32,-67.04,-70.27,0,0,0,0,0,0,0,0,0,0,0,0,0,0,0,0,
376,-63.9,-77.48,-63.06,-55.03,3.653,-24.77,-52.32,-127.2,47.64,-35.42,-72.16,-56.59,-78.01,-46.87,-71.97,-62.73,0,0,0,0,0,0,0,0,0,0,0,0,0,0,0,0,
377,-54.14,-63.41,-37.9,-68.53,-0.1983,-15.87,8.117,-94.75,19.89,-25.02,-60.08,-37.33,-52.29,-28.7,-46.86,-40.37,0,0,0,0,0,0,0,0,0,0,0,0,0,0,0,0,
378,-13.62,-42.6,3.412,-49.03,23.47,13.76,-3.519,-59.33,24.32,-0.523,-32.83,-23.54,-41.46,-25.4,-37.95,-27.3,0,0,0,0,0,0,0,0,0,0,0,0,0,0,0,0,
379,-5.469,-46.73,18.94,-2.863,31.84,10.81,-70.53,-64.97,17.9,-16.47,-35.44,-20.86,-57.78,-44,-45.86,-34.48,0,0,0,0,0,0,0,0,0,0,0,0,0,0,0,0,
380,-30.89,-56.99,-12.57,-15.41,1.124,-10.65,-58.55,-82.76,3.127,-38.67,-23.83,-4.282,-54.75,-43.02,-27.85,-28.57,0,0,0,0,0,0,0,0,0,0,0,0,0,0,0,0,
381,-35.63,-42.8,-61.17,-74,5.214,9.224,-7.678,-105.4,27.93,-19.28,-11.56,10.36,-35.96,-25.2,-31.78,-16.88,0,0,0,0,0,0,0,0,0,0,0,0,0,0,0,0,
382,-22.48,-21.59,-54.84,-72.94,32.16,26.91,-8.464,-98.96,14.71,-2.479,-45.6,-9.852,-45.44,-28.77,-76.1,-34.26,0,0,0,0,0,0,0,0,0,0,0,0,0,0,0,0,
383,-29.75,-32.97,-21.81,-23.2,23.01,-8.553,-42.15,-54.03,-11.79,-2.66,-67.78,-34.14,-66.71,-37.96,-82.35,-50.78,0,0,0,0,0,0,0,0,0,0,0,0,0,0,0,0,
384,-42.66,-62.27,-8.589,-21.78,11.38,-39.94,-55.59,-57.57,18.15,-15.15,-59.87,-32.74,-72.85,-44.95,-61.34,-50.97,0,0,0,0,0,0,0,0,0,0,0,0,0,0,0,0,
385,-56.68,-69.99,-3.26,-68.44,9.072,-38.48,-40.12,-92.89,2.133,-41.51,-65.31,-30.3,-71.91,-59.03,-67.95,-57.67,0,0,0,0,0,0,0,0,0,0,0,0,0,0,0,0,
386,-77.39,-74.39,-28.64,-72.18,-6.621,-41.44,-53.97,-68.84,-46.1,-32.23,-79.14,-43.21,-74.71,-61.17,-75.61,-62.83,0,0,0,0,0,0,0,0,0,0,0,0,0,0,0,0,
387,-69.02,-88.79,-68.82,-32.27,-21.15,-39.27,-91.89,-44.91,-25.7,5.576,-86.92,-58.04,-87.01,-60.69,-76.02,-67.02,0,0,0,0,0,0,0,0,0,0,0,0,0,0,0,0,
388,-58.67,-82.2,-55.37,-34.79,-30.26,-20.14,-71.29,-81.52,-18.83,0.5498,-75.86,-50.23,-81.36,-60.57,-72.3,-65.07,0,0,0,0,0,0,0,0,0,0,0,0,0,0,0,0,
389,-74.01,-62.52,-30.15,-68.35,-25.3,-25.16,-42.08,-110.7,-59.6,-35.51,-61.2,-25.74,-47.42,-41.79,-42.06,-42.75,0,0,0,0,0,0,0,0,0,0,0,0,0,0,0,0,
390,-55.85,-59.09,-52.15,-71.33,-6.324,-55.51,-66.88,-99.46,-60.39,-29.97,-82.67,-23.93,-36.38,-38.43,-27.37,-37.18,0,0,0,0,0,0,0,0,0,0,0,0,0,0,0,0,
391,-30.19,-55.37,-50.22,-55.98,-8.18,-59.94,-57.43,-69.95,-29.8,5.773,-101.6,-24.2,-35.47,-49.93,-48.45,-43.18,0,0,0,0,0,0,0,0,0,0,0,0,0,0,0,0,
392,-38.69,-32.1,-13.51,-36.79,-17.23,-26.95,-14.65,-32.48,-21.55,-4.654,-82.71,5.469,-1.944,-29.92,-44.39,-17.14,0,0,0,0,0,0,0,0,0,0,0,0,0,0,0,0,
393,-15.24,-10.03,-27.19,-18,-6.294,8.935,-11.76,-19.81,-24.68,-17.2,-68.02,18.59,14.42,-12.27,-24.23,-0.1211,0,0,0,0,0,0,0,0,0,0,0,0,0,0,0,0,
394,16.18,-5.654,-29.08,-17.04,10.77,15.44,-4.329,-51.17,-27.13,24.88,-56.3,12.79,4.269,-21.14,-26.7,-10.87,0,0,0,0,0,0,0,0,0,0,0,0,0,0,0,0,
395,2.655,-5.352,38.34,-8.672,34.62,-1.158,5.437,-80.01,-46.14,18.26,-30.28,28.14,15.8,-18.64,-22.4,-3.148,0,0,0,0,0,0,0,0,0,0,0,0,0,0,0,0,
396,4.741,-6.569,45.86,15.24,41.94,6.674,-13.27,-61.34,-42.71,-27.5,-25.39,30.14,20.61,-13.99,-14.76,6.964,0,0,0,0,0,0,0,0,0,0,0,0,0,0,0,0,
397,19.91,-12.4,-11.61,9.534,10.24,33.93,0.5421,-20.09,9.55,-3.688,-34.83,10.98,2.907,-20.55,-21.32,-5,0,0,0,0,0,0,0,0,0,0,0,0,0,0,0,0,
398,14.19,-7.519,-10.26,-9.543,9.32,27.52,22.43,-14.79,27.21,9.357,-25.13,13.44,-4.079,-25.1,-14.74,-18.27,0,0,0,0,0,0,0,0,0,0,0,0,0,0,0,0,
399,19.23,-7.204,3.302,0.7831,55.87,18.99,2.571,-58.82,6.077,-18.69,-24.23,20.45,-6.92,-38.94,-12.2,-28.55,0,0,0,0,0,0,0,0,0,0,0,0,0,0,0,0,
400,11.73,-29.86,-17.78,1.905,61.8,37.97,-7.706,-90.79,11.31,-4.359,-50.75,11.47,-5.577,-49.61,-35.14,-30.19,0,0,0,0,0,0,0,0,0,0,0,0,0,0,0,0,
401,-18.84,-36.6,-5.705,-20.88,33.3,23.71,-13.48,-53.12,-3.131,1.48,-70.42,2.426,8.546,-41.36,-47.19,-21.39,0,0,0,0,0,0,0,0,0,0,0,0,0,0,0,0,
402,-24.69,-19.63,11.52,-16.51,25.61,-14.54,-31,-11.24,-40.1,-20,-73.01,-4.39,14.9,-36.96,-45.61,-20.06,0,0,0,0,0,0,0,0,0,0,0,0,0,0,0,0,
403,-19.66,-21.84,-5.841,1.658,23.46,-17.39,-19.98,-41.4,-34.03,-12.26,-75.2,-10.28,15.44,-33.3,-53.38,-19.57,0,0,0,0,0,0,0,0,0,0,0,0,0,0,0,0,
404,-30.46,-41.68,-8.538,-4.792,30.87,-17.17,-19.61,-53.4,-12.38,-12.38,-76.81,-20.6,12.74,-27.38,-60.06,-19.87,0,0,0,0,0,0,0,0,0,0,0,0,0,0,0,0,
405,-59.42,-58.58,-16.43,-14.12,28.03,-44.59,-59.58,-12.78,-17.17,-35.14,-73.28,-33.23,-1.948,-40.07,-53.19,-33.04,0,0,0,0,0,0,0,0,0,0,0,0,0,0,0,0,
406,-92.89,-64.35,-57.33,-28.53,-17.1,-57.85,-67.35,-48.94,-45.65,-37.32,-70.38,-30.02,-6.125,-55.75,-40.75,-40.33,0,0,0,0,0,0,0,0,0,0,0,0,0,0,0,0,
407,-82.8,-47.86,-77.14,-68.68,-23.9,-28.66,-26.06,-118.5,-64.35,-17.21,-74.37,-21.92,2.03,-60.16,-42.95,-40.76,0,0,0,0,0,0,0,0,0,0,0,0,0,0,0,0,
408,-50.74,-30.53,-69.3,-85.66,12.9,4.339,-2.286,-86.71,-30.02,-4.385,-61.89,-12.06,7.844,-56.07,-42.1,-39.64,0,0,0,0,0,0,0,0,0,0,0,0,0,0,0,0,
409,-39.93,-28.06,-31.53,-38.98,14.84,-3.708,-9.828,-38.55,16.2,-11.34,-18,12.36,21.98,-37.2,-11.34,-18.63,0,0,0,0,0,0,0,0,0,0,0,0,0,0,0,0,
410,-20.2,-23.2,21.88,6.285,33.28,-15.77,-15.87,-42.69,6.333,-15.31,-4.447,12.02,21.47,-35.08,-5.395,-8.957,0,0,0,0,0,0,0,0,0,0,0,0,0,0,0,0,
411,-20.91,-26.85,-19.4,-7.613,62.27,-0.6323,-32.2,-29.82,-21,-32.42,-38.21,-17.86,-5.758,-59.94,-38.4,-31.31,0,0,0,0,0,0,0,0,0,0,0,0,0,0,0,0,
412,-57.37,-32.94,-76.37,-17.28,38.05,-0.9616,-52.77,-16.45,4.468,-64.4,-38.49,-14.64,-12.38,-58.87,-40.49,-34.62,0,0,0,0,0,0,0,0,0,0,0,0,0,0,0,0,
413,-48.4,-17.39,-3.445,6.178,35.96,-5.644,-29.56,-43.24,32.82,-35.43,-13.35,7.286,-8.644,-44.75,-34.38,-23.31,0,0,0,0,0,0,0,0,0,0,0,0,0,0,0,0,
414,-31.53,-21.9,25.72,-17,42.12,9.106,-7.584,-73.2,0.6649,6.076,-25.33,-3.947,-31.94,-63.38,-56.07,-36,0,0,0,0,0,0,0,0,0,0,0,0,0,0,0,0,
415,-69.58,-55.71,-39.09,-68.59,-5.509,-8.298,-42.08,-81.33,-14.92,-26.4,-49.71,-28.89,-46.31,-78.74,-62.51,-47.32,0,0,0,0,0,0,0,0,0,0,0,0,0,0,0,0,
416,-76.83,-64.75,-28.43,-65.07,-5.274,-34.59,-68.74,-61.58,4.993,-49.78,-63.19,-41.64,-39.38,-70,-63.48,-45.69,0,0,0,0,0,0,0,0,0,0,0,0,0,0,0,0,
417,-49.78,-59.42,-43.76,-35.41,35.32,-6.431,-61.16,-15.75,-11.51,-33.55,-59.97,-37.72,-36.37,-68.14,-65.43,-41.28,0,0,0,0,0,0,0,0,0,0,0,0,0,0,0,0,
418,-69.98,-57.18,-93.16,-11.46,22.21,11.59,-54.06,6.994,-14.02,-22.72,-29.72,-21.29,-21.45,-65.01,-39.11,-24.03,0,0,0,0,0,0,0,0,0,0,0,0,0,0,0,0,
419,-83.7,-35.67,-10.73,4.798,27.62,-18.82,-23.31,-23.98,10.64,4.077,-19.97,-16.43,0.3035,-46.85,-28.37,-12.02,0,0,0,0,0,0,0,0,0,0,0,0,0,0,0,0,
420,-47.77,-17.09,20.62,-28.12,52.45,-21.3,18.78,-45.38,5.068,4.646,-42,-18.4,1.908,-33.18,-43.66,-16.68,0,0,0,0,0,0,0,0,0,0,0,0,0,0,0,0,
421,-43.68,-17.32,-70.79,-65.28,1.185,-0.8649,9.32,-29.74,17.18,-26.68,-45.14,-9.585,0.2502,-27.12,-35.92,-13.79,0,0,0,0,0,0,0,0,0,0,0,0,0,0,0,0,
422,-77.3,-12.57,-43.59,-30.89,-36.87,-13.33,-23.82,-30.61,20.56,-1.235,-37.22,-0.9054,4.513,-19.35,-21.35,-3.42,0,0,0,0,0,0,0,0,0,0,0,0,0,0,0,0,
423,-70.08,-1.715,16.52,2.081,8.708,-19.93,-22.42,-16.04,-28.46,25.34,-27.59,8.683,3.509,-13.35,-13.65,4.489,0,0,0,0,0,0,0,0,0,0,0,0,0,0,0,0,
424,-45.25,8.974,-34.15,-20.19,22.69,0.123,-12.86,22.5,-23.43,-0.5094,9.283,18.9,8.077,-6.848,4.853,14.22,0,0,0,0,0,0,0,0,0,0,0,0,0,0,0,0,
425,-52.83,15.02,-36.91,-24.21,1.002,10.05,-17.26,1.603,18.74,8.855,36.05,16.96,13.45,-0.1293,9.749,14.34,0,0,0,0,0,0,0,0,0,0,0,0,0,0,0,0,
426,-50,6.428,0.1931,-10.37,22.82,9.854,-8.886,-13.64,-4.049,22.53,12.98,11.98,1.408,-6.288,-12.36,-3.086,0,0,0,0,0,0,0,0,0,0,0,0,0,0,0,0,
427,-38.34,-6.373,-31.82,-26.58,30.04,4.074,-1.149,27.35,-21.51,-16.02,-9.982,12.19,-4.821,-10.78,-27.72,-11.93,0,0,0,0,0,0,0,0,0,0,0,0,0,0,0,0,
428,-54.11,-5.017,-23.89,-14.18,10.03,2.743,-1.839,21.46,8.465,-9.385,3.813,20.97,11.05,6.023,-17.78,2.143,0,0,0,0,0,0,0,0,0,0,0,0,0,0,0,0,
429,-43.55,12.15,43.17,38.38,17.85,16.15,19.51,6.917,0.6294,33.74,8.523,32.03,15.91,13.12,-8.157,8.611,0,0,0,0,0,0,0,0,0,0,0,0,0,0,0,0,
430,-8.311,24.09,67.85,56.42,26.19,13.02,28.22,35.15,-25.4,17.08,-12.35,23.2,8.857,3.438,-16.53,2.776,0,0,0,0,0,0,0,0,0,0,0,0,0,0,0,0,
431,-15.38,19.19,94.36,69.79,50.61,19.29,11.05,19.19,14.06,5.548,-12.37,11.89,19.09,13.38,-21.48,11.25,0,0,0,0,0,0,0,0,0,0,0,0,0,0,0,0,
432,-22.72,21.91,148.4,112.7,99.87,69.95,40.19,6.035,54.13,34.28,13.79,16.79,24.66,20.68,-16.22,14.43,0,0,0,0,0,0,0,0,0,0,0,0,0,0,0,0,
433,2.23,34.51,192.1,140,116.9,105.9,87.28,73.36,36.73,25.77,39.18,15.19,13.21,4.757,-15.18,3.486,0,0,0,0,0,0,0,0,0,0,0,0,0,0,0,0,
434,9.29,30.06,281.2,196.8,142.3,122.1,77.56,128.3,41.32,10.87,57.37,12.48,11.3,7.839,-18.42,9.888,0,0,0,0,0,0,0,0,0,0,0,0,0,0,0,0,
435,9.771,18.59,401,311.3,190.7,156.3,74.67,129.2,59.39,29.3,54.92,18.64,13.45,26.95,-16.49,22.74,0,0,0,0,0,0,0,0,0,0,0,0,0,0,0,0,
436,28.01,24.33,471.5,394.4,213.7,182.9,127.5,165.9,48.37,33.83,37.58,18.94,19.75,34.73,2.434,27.99,0,0,0,0,0,0,0,0,0,0,0,0,0,0,0,0,
437,34.14,42.71,536.3,449.9,238,204.4,170.6,242.8,56.84,38,28.43,21.14,39.62,43.12,15.43,34.3,0,0,0,0,0,0,0,0,0,0,0,0,0,0,0,0,
438,37.58,61.45,619.8,526.7,261.1,233.8,192.9,265.4,47.3,59,12.38,31.74,48.89,45.31,-0.2422,32.97,0,0,0,0,0,0,0,0,0,0,0,0,0,0,0,0,
439,66.58,80.02,689.2,600,290.5,259.7,232.7,268.4,21.91,72.29,-4.922,51.86,56.15,42.32,1.528,37.26,0,0,0,0,0,0,0,0,0,0,0,0,0,0,0,0,
440,87.41,100.3,761.7,679.4,346,301.3,271.7,314.8,71.07,93.92,11.82,85.05,83.22,60.13,27.39,54.42,0,0,0,0,0,0,0,0,0,0,0,0,0,0,0,0,
441,83.33,120.7,816.7,747.7,357.8,352.3,311.2,315.1,119.3,108.6,43.42,103.8,107.4,78.5,32.64,63.41,0,0,0,0,0,0,0,0,0,0,0,0,0,0,0,0,
442,102.2,141.2,827.3,766.9,367.1,376.8,351.6,301,109.6,95.08,62.91,94.61,114.1,71.32,35.69,69.12,0,0,0,0,0,0,0,0,0,0,0,0,0,0,0,0,
443,128.3,145.5,824.4,792.6,423.5,369.8,338.8,371.8,115.3,105.7,79.54,82.94,102.4,60.72,43.76,66.59,0,0,0,0,0,0,0,0,0,0,0,0,0,0,0,0,
444,112.3,127.3,825.5,822.5,425.8,363.3,316.7,395.7,137.7,137.6,99.62,94.89,97.38,73.72,51.68,64.28,0,0,0,0,0,0,0,0,0,0,0,0,0,0,0,0,
445,117.8,130.7,833.4,809,416.8,390.8,345.6,344.5,176.7,142.8,139.5,137.8,136.5,104.4,97.33,104.8,0,0,0,0,0,0,0,0,0,0,0,0,0,0,0,0,
446,173.9,167,828.5,799.6,469.1,411.3,342.9,366.8,228,147.7,187.4,172.8,173.2,119.2,135.9,145.1,0,0,0,0,0,0,0,0,0,0,0,0,0,0,0,0,
447,191.3,181.7,814.1,786.5,486.2,384.2,308.2,404.1,230.8,158.5,177.2,160.8,156.9,105.1,103.7,122.5,0,0,0,0,0,0,0,0,0,0,0,0,0,0,0,0,
448,158.3,157.5,814.9,723.8,444.9,350.7,309.5,362.7,182.3,129.7,106,118,120.7,78.05,50.05,75.63,0,0,0,0,0,0,0,0,0,0,0,0,0,0,0,0,
449,117.2,122,745.5,659.9,375.8,310.2,273.2,299.5,97.81,89.49,33.79,64.04,79.77,44.98,7.879,40.17,0,0,0,0,0,0,0,0,0,0,0,0,0,0,0,0,
450,65.7,87.43,597,605.9,290.1,243.3,194.2,252,28.76,79.25,-15.15,14.64,37.62,19.14,-27.25,13.16,0,0,0,0,0,0,0,0,0,0,0,0,0,0,0,0,
451,34.97,59.23,536.9,550.1,253.9,206.6,165.4,228.3,40.07,56.01,-27.45,-5.584,29.35,11.68,-32.27,3.729,0,0,0,0,0,0,0,0,0,0,0,0,0,0,0,0,
452,43.46,57.99,563.6,525.5,255.5,218.9,169.8,212.3,49.52,29.15,-9.549,1.064,46.86,8.695,-24.02,6.971,0,0,0,0,0,0,0,0,0,0,0,0,0,0,0,0,
453,45.43,79.72,535.8,493.8,230.1,218.5,177.6,197.5,19.99,59.51,-7.647,16.1,56.99,15.59,-22.56,14.37,0,0,0,0,0,0,0,0,0,0,0,0,0,0,0,0,
454,29.4,74.93,460.4,434,205.5,184.1,175.8,225.9,33.76,82.44,-10.57,29.51,62.07,35.41,-5.451,25.26,0,0,0,0,0,0,0,0,0,0,0,0,0,0,0,0,
455,36.2,51.11,400.4,400.1,206,171.8,147.6,241.4,47.89,50.76,19.53,42.36,69.81,39.81,14.27,29.88,0,0,0,0,0,0,0,0,0,0,0,0,0,0,0,0,
456,65.58,60.3,363.8,354.6,191.9,178.5,148.6,183.3,31.08,58.59,50.15,52.15,72.42,38.12,10.34,28.9,0,0,0,0,0,0,0,0,0,0,0,0,0,0,0,0,
457,56.44,68.45,330.2,281.1,154.1,133.8,169.6,146.5,58.6,98.69,52.19,45.54,66.96,52.65,-3.124,24.05,0,0,0,0,0,0,0,0,0,0,0,0,0,0,0,0,
458,18.79,51.58,282.6,272,125.8,90,135.7,168.3,71.18,74.69,43.93,35.73,58.33,53.85,-14.44,9.919,0,0,0,0,0,0,0,0,0,0,0,0,0,0,0,0,
459,25.33,53.19,244.2,293.4,105.5,113.2,78.49,169.9,10.17,34.98,39.33,36.32,46.54,36.41,-19.43,1.353,0,0,0,0,0,0,0,0,0,0,0,0,0,0,0,0,
460,37.62,56.62,210.4,250.2,97.99,120.7,55.12,145.1,-8.924,50.72,42.49,23.84,41.29,41.12,-9.733,7.745,0,0,0,0,0,0,0,0,0,0,0,0,0,0,0,0,
461,6.169,43.58,155.1,183.9,114.6,86.9,61.28,124.5,24.74,67.82,44.45,-4.174,48.21,55.67,-4.242,8.162,0,0,0,0,0,0,0,0,0,0,0,0,0,0,0,0,
462,-16.3,40.49,122.5,135.3,86.3,61.23,61.54,99.31,11.75,41.26,31.77,-27.64,35.35,36.61,-21.42,-7.918,0,0,0,0,0,0,0,0,0,0,0,0,0,0,0,0,
463,-26.45,27.72,127,96.82,27.88,30.49,27.64,79.32,-14.53,14.72,10.47,-44.03,-0.1406,5.576,-41.35,-26.39,0,0,0,0,0,0,0,0,0,0,0,0,0,0,0,0,
464,-44.9,1.306,111,90.38,39.02,3.281,-2.854,82.38,-31.12,24.56,-7.408,-49.17,-10.68,-1.146,-45.7,-31.95,0,0,0,0,0,0,0,0,0,0,0,0,0,0,0,0,
465,-40.54,-0.7258,73.34,98.97,50.85,-6.274,6.228,84.25,-48.96,39.63,-7.888,-40.6,6.563,-2.958,-34.67,-18.67,0,0,0,0,0,0,0,0,0,0,0,0,0,0,0,0,
466,-32.37,10.71,44.49,77.74,15.25,-13.9,28.22,55.45,-0.6484,30.43,4.24,-31.59,20.65,-11.2,-16.6,-3.122,0,0,0,0,0,0,0,0,0,0,0,0,0,0,0,0,
467,-44.45,9.142,17.8,28.2,20.43,-4.609,32.71,32.42,37.91,18.4,2.009,-32,27.11,-4.81,-7.66,0.3759,0,0,0,0,0,0,0,0,0,0,0,0,0,0,0,0,
468,-43.1,6.381,2.416,-7.625,34.52,8.272,9.455,67.59,-19.44,12.95,0.0848,-29.23,27.86,7.572,0.2539,8.836,0,0,0,0,0,0,0,0,0,0,0,0,0,0,0,0,
469,-29.21,11.61,2.812,10.53,10.54,-2.184,-16.65,110.8,-34.49,-3.702,20.03,-10.05,27.53,6.234,19.21,20.92,0,0,0,0,0,0,0,0,0,0,0,0,0,0,0,0,
470,-33.72,14.08,-3.539,45.74,6.984,-14.51,-19.36,94.05,4.775,-17.97,27.91,1.715,32.68,-0.9889,28.31,18.53,0,0,0,0,0,0,0,0,0,0,0,0,0,0,0,0,
471,-45.29,14.28,-6.969,38.26,25.1,-10.29,-10.45,67.25,4.472,-18.17,18.52,-8.604,35.93,-6.14,24.03,17.61,0,0,0,0,0,0,0,0,0,0,0,0,0,0,0,0,
472,-37.97,17.12,-12.19,6.582,25.55,8.843,7.92,73.47,22.17,-22.28,22.2,-16.12,33.47,-6.978,15.23,22.33,0,0,0,0,0,0,0,0,0,0,0,0,0,0,0,0,
473,-21.72,16.51,-29.46,-19.83,3.089,17.62,25.57,65.58,31.4,-5.36,14.53,-15.11,33.63,-2.073,-1.56,19.45,0,0,0,0,0,0,0,0,0,0,0,0,0,0,0,0,
474,-11,25.29,-11.3,-35.11,-10.15,-3.175,28.25,35.33,-16.38,37.16,-15.98,-10,39.94,0.7304,-1.194,22.9,0,0,0,0,0,0,0,0,0,0,0,0,0,0,0,0,
475,1.184,46.38,4.131,-31.29,11.64,-23.23,27.9,27.13,-29.93,25.47,-19.67,-0.6147,40.08,-3.677,15.85,27.45,0,0,0,0,0,0,0,0,0,0,0,0,0,0,0,0,
476,-0.099,43.65,-48.17,-15.84,19.29,-25.88,3.466,41.64,-13.83,-14.19,-2.381,-9.486,26.33,-17.3,5.423,13.27,0,0,0,0,0,0,0,0,0,0,0,0,0,0,0,0,
477,-24.97,18.2,-67.09,-7.777,-4.088,-23.29,-33.54,46.08,-18.86,1.831,-15.48,-35.14,10.58,-37,-15.28,-5.688,0,0,0,0,0,0,0,0,0,0,0,0,0,0,0,0,
478,-43.18,3.183,-31.14,-38.92,-7.612,-29.61,-24.49,37.31,-14.07,-5.428,-37.39,-51.68,-3.771,-47.39,-11.09,-19.53,0,0,0,0,0,0,0,0,0,0,0,0,0,0,0,0,
479,-50.85,-5.763,-55.4,-83.3,-3.562,-54.9,-12.38,34.05,-1.402,-45.43,-34.99,-59.05,-18.28,-45.69,-7.025,-29.87,0,0,0,0,0,0,0,0,0,0,0,0,0,0,0,0,
480,-61.36,-13.48,-90.74,-66.17,-19.77,-56.57,-30.69,28.84,0.0509,-12.68,-38.24,-56.68,-21.98,-41.77,-14.93,-31.8,0,0,0,0,0,0,0,0,0,0,0,0,0,0,0,0,
481,-61.39,-8.5,-66.43,-31.58,-23.22,-21.69,-12.41,21.94,-23.08,4.874,-51.11,-48.81,-17.84,-41.51,-22.24,-32.63,0,0,0,0,0,0,0,0,0,0,0,0,0,0,0,0,
482,-51.3,-0.9745,-47.85,-35.28,2.923,-20.3,9.759,35.4,-61.4,-40.47,-40.34,-50.2,-12.63,-46.95,-29.72,-32.03,0,0,0,0,0,0,0,0,0,0,0,0,0,0,0,0,
483,-41.65,-1.436,-54.17,-42.55,17.85,-50.06,-32.18,35.25,-49.65,-18.47,-16.51,-44.03,-1.437,-42.97,-21.37,-17.99,0,0,0,0,0,0,0,0,0,0,0,0,0,0,0,0,
484,-38.63,-0.1929,-71.54,-80.64,-1.69,-58.95,-62.82,-2.593,-3.162,15.23,-5.047,-30.96,3.624,-27.13,3.122,-3.067,0,0,0,0,0,0,0,0,0,0,0,0,0,0,0,0,
485,-54.66,-2.155,-94.78,-128.6,-14.94,-61.01,-49.04,-11.26,-6.874,-28.14,2.31,-39.22,-3.726,-23.91,12.8,-0.3331,0,0,0,0,0,0,0,0,0,0,0,0,0,0,0,0,
486,-65.57,-14.69,-96.92,-101.7,-13.97,-54.15,-51.52,22.03,-30.77,-49.82,21.78,-38.77,-1.593,-23.31,23.7,4.921,0,0,0,0,0,0,0,0,0,0,0,0,0,0,0,0,
487,-39.7,-7.069,-102.4,-73.07,-26.73,-30.48,-38.87,30.77,-2.774,-41.17,48.5,-5.917,7.944,-11.98,52.63,12.65,0,0,0,0,0,0,0,0,0,0,0,0,0,0,0,0,
488,-15.08,19.19,-105,-90.24,-22.05,-36.87,-10.47,24.93,21.16,-53.01,56.05,8.767,2.486,-14.11,54.22,6.538,0,0,0,0,0,0,0,0,0,0,0,0,0,0,0,0,
489,-25.73,16.27,-68.33,-77.33,-8.71,-70.26,-45.09,39.49,-17.55,-47.49,37.04,-6.63,-5.537,-25.34,30.03,2.244,0,0,0,0,0,0,0,0,0,0,0,0,0,0,0,0,
490,-38.63,2.333,-78.58,-66.73,-45.1,-85.81,-71.88,27.03,-37.81,-36.73,19.64,-18.48,-4.491,-34.83,24.67,7.949,0,0,0,0,0,0,0,0,0,0,0,0,0,0,0,0,
491,-45.07,9.191,-141.1,-103.4,-73.59,-91.65,-33.67,-22.16,-14.17,-37.94,15.77,-24.92,-8.889,-48.54,25.98,4.619,0,0,0,0,0,0,0,0,0,0,0,0,0,0,0,0,
492,-56.96,12.57,-123.8,-128.4,-36.38,-86.33,-46.93,-22.54,-31.38,-27.52,17.74,-15.35,-7.404,-39.43,26.9,7.129,0,0,0,0,0,0,0,0,0,0,0,0,0,0,0,0,
493,-47.49,11.46,-100.6,-123.3,-18.91,-60.18,-98.01,30.61,-52.34,-34.85,28.34,1.88,4.134,-18.73,33.41,18.14,0,0,0,0,0,0,0,0,0,0,0,0,0,0,0,0,
494,-38.41,0.7747,-170,-118.6,-57.73,-63.94,-82.78,41.12,-16.06,-50.53,33.36,-14.56,-4.744,-29.87,19.99,6.276,0,0,0,0,0,0,0,0,0,0,0,0,0,0,0,0,
495,-61.31,-24.77,-176.2,-114.5,-67.55,-96.86,-59.22,6.857,1.097,-34.48,17.15,-32.52,-20.84,-40.32,3.213,-8.166,0,0,0,0,0,0,0,0,0,0,0,0,0,0,0,0,
496,-55.74,-15.14,-102.8,-100.5,-36.37,-88.84,-65.68,-3.167,-29.75,-31.22,1.997,-20.35,-17.54,-30.18,4.838,-4.888,0,0,0,0,0,0,0,0,0,0,0,0,0,0,0,0,
497,-22.54,18.08,-99.71,-105.5,-31.46,-68.22,-53.91,10.02,-47.52,-49.09,-4.542,-24.57,-14.38,-32.01,-1.795,-4.795,0,0,0,0,0,0,0,0,0,0,0,0,0,0,0,0,
498,-30.5,16.73,-115.6,-143.1,-52.69,-88.36,-46.61,15.44,-34.11,-44.45,-15.33,-41.44,-15.51,-35.66,-7.973,-3.193,0,0,0,0,0,0,0,0,0,0,0,0,0,0,0,0,
499,-43.93,0.4788,-114.8,-144.6,-60.95,-92.36,-60.34,-5.156,-25.19,-46.68,-12.18,-35.29,-12.07,-34.81,0.871,-2.443,0,0,0,0,0,0,0,0,0,0,0,0,0,0,0,0,
500,-28.86,0.0618,-150.6,-105.3,-52.11,-59.56,-59.65,-36.99,-46.8,-65.84,0.5732,-29.34,-13.57,-42.35,2.502,-10.09,0,0,0,0,0,0,0,0,0,0,0,0,0,0,0,0,
501,-26.04,9.793,-139.8,-108.7,-43.56,-52.92,-56.69,-26.72,-57.24,-56.97,-9.841,-37.79,-20.81,-46.31,-1.074,-6.983,0,0,0,0,0,0,0,0,0,0,0,0,0,0,0,0,
502,-33.73,8.747,-98.47,-130.2,-47.25,-67.25,-72.52,12.42,-40.64,-33.37,-20.77,-43.29,-31.36,-52.66,-1.895,-6.611,0,0,0,0,0,0,0,0,0,0,0,0,0,0,0,0,
503,-33.12,-9.491,-121.4,-106.6,-43.44,-67.74,-78.07,35.64,-53.05,-31.17,-7.59,-37.52,-30.95,-53.78,0.6497,-15.78,0,0,0,0,0,0,0,0,0,0,0,0,0,0,0,0,
504,-31.8,-4.379,-112.2,-73.98,-33.45,-78.53,-68.55,46.01,-73.86,-37.64,-5.712,-35.22,-17.35,-35.49,9.396,-14.37,0,0,0,0,0,0,0,0,0,0,0,0,0,0,0,0,
505,-34.93,15.46,-64.96,-72.33,-54.11,-93.06,-66.03,20.29,-57.28,-15.14,-27.05,-53.39,-22.62,-35.78,8.335,-19.23,0,0,0,0,0,0,0,0,0,0,0,0,0,0,0,0,
506,-39.32,8.154,-101.4,-102.2,-79.47,-81.18,-45.96,-22.25,-42.01,19.57,-38.41,-66.17,-29.82,-46.55,4.502,-25.85,0,0,0,0,0,0,0,0,0,0,0,0,0,0,0,0,
507,-33.43,6.991,-149.2,-127.7,-83.56,-75.23,-15.86,-3.079,-48.01,-4.419,-29.31,-59.73,-15.55,-30.71,9.687,-16.97,0,0,0,0,0,0,0,0,0,0,0,0,0,0,0,0,
508,-29.73,12.8,-131.7,-104,-89.01,-84.9,-35.51,30.55,-57.24,-53.95,-15.44,-62.92,-24.88,-26.9,-1.734,-25.69,0,0,0,0,0,0,0,0,0,0,0,0,0,0,0,0,
509,-40.12,-8.696,-130.9,-85.18,-69.96,-77.73,-66.77,12.84,-56.76,-44.43,-2.386,-64.43,-49.12,-39.62,-11.62,-41.84,0,0,0,0,0,0,0,0,0,0,0,0,0,0,0,0,
510,-36.08,-16.49,-145.1,-124.5,-40.57,-70.72,-51.24,5.492,-46.13,-26.59,9.39,-49.7,-39.97,-29.8,9.916,-28.35,0,0,0,0,0,0,0,0,0,0,0,0,0,0,0,0,
511,-19.7,1.665,-116.7,-147.2,-60.76,-70.59,-49.24,10.33,-58.04,-39.58,8.051,-51.59,-30.66,-23.45,15.63,-20.95,0,0,0,0,0,0,0,0,0,0,0,0,0,0,0,0,
512,-21.6,3.34,-103.7,-117.8,-79.91,-59.97,-79.99,-26.87,-75.04,-22,2.116,-66.48,-42.59,-31.8,-7.161,-38.76,0,0,0,0,0,0,0,0,0,0,0,0,0,0,0,0,
513,-32.27,-6.383,-123.1,-95.44,-63.93,-62.61,-70.14,-39.42,-49.41,3.299,13.66,-59.15,-37.79,-26.15,-3.1,-42.78,0,0,0,0,0,0,0,0,0,0,0,0,0,0,0,0,
514,-24.68,-3.437,-100.9,-83.08,-63.04,-72.82,-37.38,10.19,-27.78,-25.11,20.92,-40.01,-21.54,-22.12,18.41,-31.74,0,0,0,0,0,0,0,0,0,0,0,0,0,0,0,0,
515,3.002,7.221,-82.19,-67.98,-60.96,-57.88,-41.41,24.62,-39.78,-56.59,12.85,-30.99,-20.54,-34.45,20.42,-26.62,0,0,0,0,0,0,0,0,0,0,0,0,0,0,0,0,
516,23.57,8.667,-112.7,-75.54,-39.47,-33.81,-41.15,-0.102,-38.26,-40.3,16.49,-23.6,-20.93,-40.52,17.79,-19.28,0,0,0,0,0,0,0,0,0,0,0,0,0,0,0,0,
517,19.01,7.098,-105.5,-88.9,-38.09,-28.98,-24.27,12.03,-18.57,-31.62,12.2,-26.54,-14.03,-31.94,7.922,-11.55,0,0,0,0,0,0,0,0,0,0,0,0,0,0,0,0,
518,0.9883,18.4,-89.03,-95.96,-50.66,-45.78,-43.02,9.688,10.75,-46.87,-5.005,-50.07,-8.825,-18.21,-9.709,-10.93,0,0,0,0,0,0,0,0,0,0,0,0,0,0,0,0,
519,-14.07,23.85,-117.2,-116.2,-46.49,-54.75,-57.92,-31.28,27.43,-21.08,9.556,-54.47,-5.162,-7.737,-4.27,-8.231,0,0,0,0,0,0,0,0,0,0,0,0,0,0,0,0,
520,-18.4,8.731,-104,-126.4,-38.5,-47.83,-48.05,-31.15,-11.74,13.82,24.17,-40.23,-15.46,-9.715,-1.539,-13.91,0,0,0,0,0,0,0,0,0,0,0,0,0,0,0,0,
521,-28.2,-13.49,-86.98,-120.3,-49.53,-62.9,-74.42,-13.51,-43.22,2.587,3.586,-53.66,-34.47,-22.05,-17.57,-27.59,0,0,0,0,0,0,0,0,0,0,0,0,0,0,0,0,
522,-43.22,-20.54,-127.7,-121.1,-55.55,-76.78,-84.92,-15.7,-25.05,-2.196,-4.176,-65.97,-23.68,-27.62,-9.508,-21.99,0,0,0,0,0,0,0,0,0,0,0,0,0,0,0,0,
523,-34.92,3.094,-138,-109.9,-35.94,-61.23,-38.16,-5.696,-34.29,5.83,-5.69,-56.12,-3.784,-21.97,-4.746,-17.04,0,0,0,0,0,0,0,0,0,0,0,0,0,0,0,0,
524,-34.82,14.91,-134.2,-92.56,-38.26,-68.48,-30.74,-9.1,-46.63,-3.888,-31.75,-62.03,-16.58,-21.8,-31.65,-32.2,0,0,0,0,0,0,0,0,0,0,0,0,0,0,0,0,
525,-58.57,-11.85,-139.5,-93.86,-65.39,-79.37,-59.9,-15.4,-20.2,-11.08,-31.42,-61.27,-24.07,-28.31,-33.6,-30.79,0,0,0,0,0,0,0,0,0,0,0,0,0,0,0,0,
526,-48.68,-10.99,-96.15,-100.2,-61.11,-46.83,-48.08,-4.309,-31.25,-20.68,3.732,-34.98,-2.919,-18.72,-9.063,-10.85,0,0,0,0,0,0,0,0,0,0,0,0,0,0,0,0,
527,-23.11,29.72,-84.48,-111.9,-48.82,-39.42,-20.62,-26.2,-47.18,-14.58,22.99,-22.38,8.178,2.264,3.816,-1.843,0,0,0,0,0,0,0,0,0,0,0,0,0,0,0,0,
528,-20.73,40,-112.6,-110.8,-45.95,-68.24,-15.91,-24.7,7.8,16.84,38,-16.93,3.367,4.49,12.52,-0.6309,0,0,0,0,0,0,0,0,0,0,0,0,0,0,0,0,
529,-9.559,10.96,-70.41,-78.56,-21.74,-46.59,-29.98,16.64,45.33,10.73,54.19,-2.312,3.7,-4.608,13.57,-1.336,0,0,0,0,0,0,0,0,0,0,0,0,0,0,0,0,
530,1.538,-9.899,-46.83,-69.1,-22.81,-3.038,-41.52,-25.65,6.141,-13.21,36.73,2.634,9.083,-3.045,13.13,2.296,0,0,0,0,0,0,0,0,0,0,0,0,0,0,0,0,
531,2.256,2.533,-109.5,-84.68,-47.55,-12.81,-18.54,-83.95,-26.08,-1.026,22.79,5.084,18.28,4.387,33.42,21.55,0,0,0,0,0,0,0,0,0,0,0,0,0,0,0,0,
532,20.54,23.86,-122.3,-85.78,-18.21,-28.5,20.57,-38.65,-7.894,6.994,39.49,13.45,32.02,20.13,49.72,39.87,0,0,0,0,0,0,0,0,0,0,0,0,0,0,0,0,
533,29.57,21.43,-65.9,-97.48,7.674,-11.02,19.11,3.958,9.086,-0.749,33.04,10.94,35.11,32.75,44.32,33.35,0,0,0,0,0,0,0,0,0,0,0,0,0,0,0,0,
534,18.33,11.06,-40.18,-94.18,-14.87,-3.187,-19.89,-25.38,22.72,8.676,29.24,3.679,23.03,15.44,38.53,12,0,0,0,0,0,0,0,0,0,0,0,0,0,0,0,0,
535,21.04,11.58,-38.98,-44.15,0.4134,-4.529,-33.72,-46.03,51.87,13.88,70.27,8.201,20.03,-1.045,35.01,3.81,0,0,0,0,0,0,0,0,0,0,0,0,0,0,0,0,
536,24.93,16.93,-38.07,-19.3,21.41,-3.217,-18.85,-18.91,21.97,-2.049,82.18,12.96,30.88,9.804,28.77,10.83,0,0,0,0,0,0,0,0,0,0,0,0,0,0,0,0,
537,22.81,30.47,-64.42,-38,-13.34,-9.197,-21.76,-2.012,-21.1,16.75,64.09,10.45,36.31,14.7,29.84,13.87,0,0,0,0,0,0,0,0,0,0,0,0,0,0,0,0,
538,29.84,42.73,-90,-68.2,-15.93,7.955,-12.68,-31.53,54.39,65.61,77.6,6.371,34.14,7.396,28.65,3.139,0,0,0,0,0,0,0,0,0,0,0,0,0,0,0,0,
539,26.8,38.77,-79.43,-114.2,14.59,27.74,22.57,-34.81,102.7,45.66,70.59,-7.49,25.36,1.33,11.51,-15.83,0,0,0,0,0,0,0,0,0,0,0,0,0,0,0,0,
540,26.33,34.78,-57.63,-116.9,-4.758,6.806,13.88,-1.995,20.26,6.194,38.21,-17.65,14.7,-8.389,1.454,-22.55,0,0,0,0,0,0,0,0,0,0,0,0,0,0,0,0,
541,49.41,33.28,-35.73,-57.04,-29.78,-5.068,-25.45,-11.12,3.88,37.01,50.97,-5.96,14.35,-8.68,10.56,-13.88,0,0,0,0,0,0,0,0,0,0,0,0,0,0,0,0,
542,52.35,18.87,-33.27,-43.42,-13.9,9.51,-31.22,-23.48,59.16,30.15,74.08,1.306,20.75,3.901,19.51,-7.189,0,0,0,0,0,0,0,0,0,0,0,0,0,0,0,0,
543,35.03,16.29,-68.36,-77.45,5.486,15.26,-24.61,-5.465,40.79,-15.01,66.35,1.716,30.19,11.42,26.3,4.593,0,0,0,0,0,0,0,0,0,0,0,0,0,0,0,0,
544,33.19,35.41,-77.82,-64.69,3.082,13.19,-29.59,-2.646,16.33,9.147,53.57,8.532,33.48,12.8,25.22,14.77,0,0,0,0,0,0,0,0,0,0,0,0,0,0,0,0,
545,25.87,35.9,-51.03,-44.51,-5.09,4.712,-20.55,-8.558,43.11,16.41,48.99,4.558,30.51,23.46,21.69,10.59,0,0,0,0,0,0,0,0,0,0,0,0,0,0,0,0,
546,31.36,30.14,-54.26,-84.99,20.29,16.52,9.333,-53.11,61.07,-6.154,70.62,17.97,51.77,55.26,56.11,28.45,0,0,0,0,0,0,0,0,0,0,0,0,0,0,0,0,
547,73.53,47.04,-67.08,-119.1,48.11,50.01,15.99,-115.7,47.21,14.26,99.83,59.75,78.23,76.3,93.8,57.08,0,0,0,0,0,0,0,0,0,0,0,0,0,0,0,0,
548,88.66,45.88,-56.96,-88.41,13.63,38.62,-18.49,-75.4,21.62,-7.92,83.29,58.25,65.09,50.05,66.64,40.87,0,0,0,0,0,0,0,0,0,0,0,0,0,0,0,0,
549,59.61,25.07,-56.54,-57.94,-20.43,4.91,-24.86,-0.549,24.61,-36.59,55.96,18.07,37.54,21.73,21.25,9.791,0,0,0,0,0,0,0,0,0,0,0,0,0,0,0,0,
550,30.59,24.4,-69.49,-70.5,-9.261,3.815,13.35,9.158,41.11,13.97,59.04,7.507,25.27,29.72,9.335,1.985,0,0,0,0,0,0,0,0,0,0,0,0,0,0,0,0,
551,17.47,28.57,-64.57,-64.71,-30.66,0.1356,19.59,29.2,15.35,20.96,49.35,8.37,21.78,33.09,0.116,-8.656,0,0,0,0,0,0,0,0,0,0,0,0,0,0,0,0,
552,24.51,28.84,-34.83,-24.72,-72.17,-10.16,-2.731,45.94,-15.48,-15.24,29.98,-7.908,17.25,21.14,-12.14,-25.3,0,0,0,0,0,0,0,0,0,0,0,0,0,0,0,0,
553,23.91,28.31,-16.84,-14.14,-64.8,-4.476,-0.2027,23.28,-3.736,8.499,38.21,-12.34,6.138,27.62,-11.74,-26.77,0,0,0,0,0,0,0,0,0,0,0,0,0,0,0,0,
554,5.016,15.16,-33.71,-30.69,-45.89,-7.184,13.55,36.23,2.356,30.08,32.93,-3.358,8.943,42.81,-7.894,-15.98,0,0,0,0,0,0,0,0,0,0,0,0,0,0,0,0,
555,6.675,14.68,-66.73,-33.39,-50.35,-13.84,23.61,58.27,-27.33,31.71,-1.952,-3.451,25.25,36.15,3.844,-6.385,0,0,0,0,0,0,0,0,0,0,0,0,0,0,0,0,
556,13.75,34.59,-101.2,-45.11,-57.65,-1.938,40.19,37.19,-42.64,42.78,-13.88,-3.968,20.07,13.65,17.87,-8.05,0,0,0,0,0,0,0,0,0,0,0,0,0,0,0,0,
557,5.694,38.59,-93.33,-63.86,-62.74,0.747,49.6,19.37,-28.13,16.4,-8.699,-2.133,2.581,2.892,7.814,-23.92,0,0,0,0,0,0,0,0,0,0,0,0,0,0,0,0,
558,6.798,23.92,-34.6,-39.29,-60.4,-23.53,34.87,29.84,-26.91,-6.749,-22.01,-13.87,-11.17,9.03,-8.69,-42.14,0,0,0,0,0,0,0,0,0,0,0,0,0,0,0,0,
559,5.506,9.46,-14.84,1.996,-58.58,-39.07,2.001,70.92,-42.82,13.72,-43.51,-33.47,-33.95,4.101,-8.814,-50.04,0,0,0,0,0,0,0,0,0,0,0,0,0,0,0,0,
560,-17.76,-6.633,-42.72,-0.2284,-80.65,-47.88,-28.44,92.09,-59.16,11.7,-66.74,-50.32,-52.64,-18.56,-21.1,-57.67,0,0,0,0,0,0,0,0,0,0,0,0,0,0,0,0,
561,-49.59,-28.18,-65.51,-34.23,-102.4,-74.1,-28.76,24.12,-59.57,-11.65,-83.29,-56.97,-48.13,-17.61,-40.14,-63.74,0,0,0,0,0,0,0,0,0,0,0,0,0,0,0,0,
562,-57.89,-29.04,-100.5,-80.42,-102.8,-65.99,2.561,-39.69,-34.44,-17.04,-77.25,-44.17,-29.22,11.68,-27.57,-46.08,0,0,0,0,0,0,0,0,0,0,0,0,0,0,0,0,
563,-25.82,2.983,-113.5,-117.9,-99.96,-20.46,23.13,-2.765,-49.34,-9.322,-69.03,-27.16,-13.13,20.91,-5.666,-25.46,0,0,0,0,0,0,0,0,0,0,0,0,0,0,0,0,
564,8.647,22.53,-57.59,-76.02,-77.51,-5.959,22.2,62.63,-90.56,8.514,-68.34,-13.25,-0.5917,16.07,3.795,-23.48,0,0,0,0,0,0,0,0,0,0,0,0,0,0,0,0,
565,28.05,26.34,3.275,27.74,-41.2,10.51,32.07,95.63,-39.06,8.578,-49.09,7.287,23.29,38.98,22.07,-5.943,0,0,0,0,0,0,0,0,0,0,0,0,0,0,0,0,
566,46.73,50.85,4.754,60.49,-40.14,49.92,43.79,91.29,34.18,5.019,-7.478,25.37,53.88,73.28,51.4,35.95,0,0,0,0,0,0,0,0,0,0,0,0,0,0,0,0,
567,46.3,66.04,-35.28,10.84,-34.55,51.41,49.1,67.89,26.88,40.67,35.84,48.89,79.31,89.17,90.69,75.97,0,0,0,0,0,0,0,0,0,0,0,0,0,0,0,0,
568,42.11,61.11,-42.23,-16.43,8.601,35.22,65.98,78.75,24.98,42.1,62.87,75.76,98.12,92.17,122.3,103.8,0,0,0,0,0,0,0,0,0,0,0,0,0,0,0,0,
569,60.21,67.77,1.671,-16.66,6.289,26.03,58.19,71.82,27.11,-4.197,56.12,61.79,88.57,87.55,98.49,99.52,0,0,0,0,0,0,0,0,0,0,0,0,0,0,0,0,
570,54.64,56.65,-5.989,-32.47,-51.31,-9.232,8.868,3.135,-15.24,0.0391,13.4,12.98,41.72,69.14,37.95,56.78,0,0,0,0,0,0,0,0,0,0,0,0,0,0,0,0,
571,-0.6735,11.53,-77.08,-50.27,-85.8,-49.33,-24.82,-7.439,-37.26,-4.987,-28.85,-21.28,-0.8424,40.55,3.157,17.5,0,0,0,0,0,0,0,0,0,0,0,0,0,0,0,0,
572,-44.23,-12.95,-92.78,-69.39,-97.02,-59.28,-28.97,30.19,-53.15,-59.66,-39.24,-26.44,-8.617,20.63,-1.871,9.284,0,0,0,0,0,0,0,0,0,0,0,0,0,0,0,0,
573,-24.57,2.798,-54.59,-81.59,-100.2,-37.6,-21.26,9.957,-75.86,-29.49,-33.33,-14.92,-6.697,15.9,-1.673,9.148,0,0,0,0,0,0,0,0,0,0,0,0,0,0,0,0,
574,-0.5096,7.687,-50.69,-56.42,-83.07,-10.02,2.757,17.5,-51.51,34.97,-19.71,-9.317,-20.06,14.61,-3.177,-0.9022,0,0,0,0,0,0,0,0,0,0,0,0,0,0,0,0,
575,-27.05,-19.39,-86.08,-37.89,-70.1,-15.71,8.25,56.83,-41.38,-5.356,7.639,-13.72,-26.27,17.91,-0.1561,-1.505,0,0,0,0,0,0,0,0,0,0,0,0,0,0,0,0,
576,-39.15,-22.16,-127.5,-60.71,-60.34,-32.18,-24.89,19.77,-58.06,-39.05,26.02,-12.25,-12.09,25.85,8.564,11.02,0,0,0,0,0,0,0,0,0,0,0,0,0,0,0,0,
577,-16.59,13.42,-124.4,-49.4,-40.69,-28.25,-29.41,9.691,-34.79,5.687,22.59,-5.418,-0.5969,28.14,6.545,14.09,0,0,0,0,0,0,0,0,0,0,0,0,0,0,0,0,
578,-10.94,30.19,-49.13,-5.024,-51.51,-26.51,22.79,65.1,-34.89,16.65,11.46,5.235,7.045,28.25,-1.387,15,0,0,0,0,0,0,0,0,0,0,0,0,0,0,0,0,
579,-4.593,29.62,1.447,-29.57,-73.39,-23.54,52.48,46.76,-65.06,-9.622,6.716,13.98,17.8,26.59,7.386,29.63,0,0,0,0,0,0,0,0,0,0,0,0,0,0,0,0,
580,7.835,40.77,-29.48,-69.82,-53.1,-7.114,20.86,19.43,-54.72,-11.4,12.4,9.281,20.34,23.34,16.4,44.18,0,0,0,0,0,0,0,0,0,0,0,0,0,0,0,0,
581,8.741,39.02,-43.38,-24.37,-49.08,1.349,0.0855,79.2,-54.86,-4.189,10.86,3.551,24.82,37.3,9.921,48.84,0,0,0,0,0,0,0,0,0,0,0,0,0,0,0,0,
582,21.43,29.33,-17.54,23.65,-73.74,3.323,32.83,111,-57.99,10.86,5.428,5.961,43.64,62.83,16.1,53.19,0,0,0,0,0,0,0,0,0,0,0,0,0,0,0,0,
583,35.86,47.98,-17.67,13.29,-37.55,14.66,57.49,90.57,-24.16,37.79,19.89,15.43,59,68.56,38.31,66.07,0,0,0,0,0,0,0,0,0,0,0,0,0,0,0,0,
584,43.03,63.34,-22.23,8.741,6.364,25.55,40.07,100.8,-36.74,43.65,35.83,31.78,58.08,55.82,44.32,79.15,0,0,0,0,0,0,0,0,0,0,0,0,0,0,0,0,
585,53.98,38.92,-24.79,9.428,-27.58,31.66,42.02,91.99,-58.17,21.66,39.01,40.86,51.24,47.46,39.96,78.19,0,0,0,0,0,0,0,0,0,0,0,0,0,0,0,0,
586,51.82,18.88,-48.04,-15.73,-53.36,33.57,73.52,28.76,-9.518,-4.287,43.64,45.94,48.2,44.58,46.93,70.94,0,0,0,0,0,0,0,0,0,0,0,0,0,0,0,0,
587,48.49,31.32,-17.25,-16.72,-23.19,15.92,62.29,23.21,2.558,-17.22,46,58.71,45.81,44.9,51.17,67.93,0,0,0,0,0,0,0,0,0,0,0,0,0,0,0,0,
588,59.11,53.45,68.23,41.61,15.63,19.56,35.46,97.27,-36.25,-4.504,48.77,67.25,44.58,51.43,43.47,62.92,0,0,0,0,0,0,0,0,0,0,0,0,0,0,0,0,
589,80.41,79.58,72.2,80.05,45.44,87.19,66.75,118.6,-13.93,26.27,61.13,73.56,45.35,48.07,38.19,55.95,0,0,0,0,0,0,0,0,0,0,0,0,0,0,0,0,
590,116.6,84.51,9.152,39.35,31.19,116.5,87.88,88.74,44.47,26.49,75.36,76.34,38.64,33.03,38.74,52.13,0,0,0,0,0,0,0,0,0,0,0,0,0,0,0,0,
591,119.7,60.38,3.909,16.24,3.184,65.49,51.76,95.76,57.66,-0.822,80.22,56.93,30.4,30.87,32.65,47.2,0,0,0,0,0,0,0,0,0,0,0,0,0,0,0,0,
592,72.24,57.06,10.38,18.71,35.53,57.31,51.03,58.87,22.57,19.56,63.43,36.71,29.01,31.47,17.55,39.33,0,0,0,0,0,0,0,0,0,0,0,0,0,0,0,0,
593,45,59.46,-13.95,-42.01,47.33,75.88,91.14,-3.685,-0.2859,48.64,35.89,40.06,26.7,18.78,15.63,37.22,0,0,0,0,0,0,0,0,0,0,0,0,0,0,0,0,
594,55.68,52.15,24.25,-13.05,11.93,55.2,85.9,76.62,20.93,12.84,18.32,40.16,27.79,18.13,23.36,41.13,0,0,0,0,0,0,0,0,0,0,0,0,0,0,0,0,
595,67.79,74.36,77.77,137.9,41.08,69.79,53.68,160.9,21.38,9.699,8.078,23.62,29.82,30.29,9.154,40.18,0,0,0,0,0,0,0,0,0,0,0,0,0,0,0,0,
596,68.42,75.49,46.86,111.4,66.04,86.18,48.27,83.74,-0.3277,52.4,10.77,17.68,22.55,28.72,3.1,42.88,0,0,0,0,0,0,0,0,0,0,0,0,0,0,0,0,
597,63.33,43.57,-3.825,-35.94,1.222,46.99,49.13,32.2,17.92,14.72,22.91,27.28,19.84,21.53,31.44,54.32,0,0,0,0,0,0,0,0,0,0,0,0,0,0,0,0,
598,67.99,56.24,-32.5,-35.33,-26.5,41.9,38.05,38.7,30.64,-21.02,22.72,33.25,23.02,27.13,39.01,54.32,0,0,0,0,0,0,0,0,0,0,0,0,0,0,0,0,
599,67.8,66.98,-44.65,-11.62,3.498,49.99,34.14,-22.42,6.54,37.25,21.02,34.54,20.29,40.64,26.59,51.2,0,0,0,0,0,0,0,0,0,0,0,0,0,0,0,0,
600,47.48,36.23,-36.65,-43.91,-8.915,13.62,23.96,-16.18,-24.83,47.6,23.23,23.22,11.11,40.69,36.74,55.48,0,0,0,0,0,0,0,0,0,0,0,0,0,0,0,0,
601,31.18,25.41,-43.82,-0.2798,-18.57,8.055,-12.33,80.33,-50.9,-18.69,15.12,-8.025,-6.064,16.57,33.83,44.38,0,0,0,0,0,0,0,0,0,0,0,0,0,0,0,0,
602,17.73,24.09,-25.18,37.91,10.07,16.6,-28.24,75.99,-17.74,-29.55,14.29,-19.31,-9.615,1.307,19.59,35.84,0,0,0,0,0,0,0,0,0,0,0,0,0,0,0,0,
603,3.68,19.69,12.04,-8.33,12.67,-12.95,-5.831,7.229,33.02,11.23,26.56,8.704,7.481,16.88,40.1,48.99,0,0,0,0,0,0,0,0,0,0,0,0,0,0,0,0,
604,18.34,33.13,-27.4,-36.46,4.137,-15.37,1.266,-2.332,-1.212,17.44,26.83,33.31,3.896,22.62,54.43,44.31,0,0,0,0,0,0,0,0,0,0,0,0,0,0,0,0,
605,46.45,29.53,-43.36,-23.57,16.31,5.369,-1.254,11.45,-12.64,-5.671,25.98,35.79,-12.09,4.943,39.6,28.66,0,0,0,0,0,0,0,0,0,0,0,0,0,0,0,0,
606,46.36,10.96,8.25,-10.44,4.896,1.43,17.13,-1.201,42.25,5.781,46.01,35.71,0.0349,7.094,37.86,40.22,0,0,0,0,0,0,0,0,0,0,0,0,0,0,0,0,
607,39.03,19.22,-25.68,-14.71,-24.61,14.19,23.6,-17.89,12.4,35.14,60.26,34.39,14.56,20.59,30.15,45.72,0,0,0,0,0,0,0,0,0,0,0,0,0,0,0,0,
608,53.53,35.27,-88.23,-51.69,-30.6,27.26,-1.752,-2.437,-46.42,14.51,42.76,18.86,4.877,0.7935,-2.311,24.85,0,0,0,0,0,0,0,0,0,0,0,0,0,0,0,0,
609,44.33,19.72,-69.12,-73.09,-34.51,-18.96,-41.6,9.728,-28.72,-15.6,12.71,-1.185,-2.845,-26.02,-12.66,18.92,0,0,0,0,0,0,0,0,0,0,0,0,0,0,0,0,
610,0.1783,-11.44,-46.31,-45.73,-42.33,-65.61,-56.6,-2.752,-41.22,-6.274,-5.49,-2.777,6.242,-15.84,-1.677,28.72,0,0,0,0,0,0,0,0,0,0,0,0,0,0,0,0,
611,-8.61,-14.5,-39.56,-28.85,-27.55,-56.17,-24.54,15.62,-81.72,0.2202,-5.327,0.3423,10.24,3.069,-4.056,20.58,0,0,0,0,0,0,0,0,0,0,0,0,0,0,0,0,
612,1.815,-5.404,-29.4,-40.87,-20.43,-36.15,-8.174,8.748,-46.07,-2.83,-2.289,-10.91,-2.917,-3.166,-2.7,9.918,0,0,0,0,0,0,0,0,0,0,0,0,0,0,0,0,
613,-13.51,-10.23,-48.06,-54.29,-45.92,-25.66,-27.59,-63.9,2.129,-16.13,-16.53,-14.99,-11.55,-14.55,4.309,17.76,0,0,0,0,0,0,0,0,0,0,0,0,0,0,0,0,
614,-4.232,-1.631,-85.02,-77.57,-66.2,-10.56,-17.54,-65.94,-19.03,-36.33,-29.58,-12.23,-10.31,-19.35,-14.13,15.39,0,0,0,0,0,0,0,0,0,0,0,0,0,0,0,0,
615,1.303,4.55,-98.54,-85.31,-64.37,-12.71,-10.18,-8.264,-71.05,-8.566,-33.77,-23.91,-18.72,-28.3,-39.73,-3.637,0,0,0,0,0,0,0,0,0,0,0,0,0,0,0,0,
616,-46.07,-17.52,-61.87,-55.94,-54.18,-37.11,-55.75,-5.089,-95.22,15.78,-52.88,-33.69,-27.53,-28.98,-40.73,-3.929,0,0,0,0,0,0,0,0,0,0,0,0,0,0,0,0,
617,-48.99,-30.26,-36.11,-52.16,-37.89,-51.39,-73.57,-7.293,-81.72,-15.69,-61.44,-28.64,-24.34,-22.13,-29.38,9.439,0,0,0,0,0,0,0,0,0,0,0,0,0,0,0,0,
618,1.506,-24.76,-67.11,-75,-36.09,-47.48,-26.15,-11.69,-63.22,-20.72,-42.44,-16.38,-17.25,-26.05,-16.33,14.45,0,0,0,0,0,0,0,0,0,0,0,0,0,0,0,0,
619,4.999,-9.809,-52.83,-47.59,-62.83,-45.81,2.968,-39.91,-61.09,-15.12,-44.39,-7.149,-8.864,-22.11,-9.756,19.12,0,0,0,0,0,0,0,0,0,0,0,0,0,0,0,0,
620,-12.38,12.8,-2.255,-7.843,-75.83,-44.49,-9.152,-17.39,-75.97,-27.2,-65.35,-16.74,-11.53,-8.973,-27.25,14.89,0,0,0,0,0,0,0,0,0,0,0,0,0,0,0,0,
621,-12.35,6.34,-32.2,-35.72,-61.1,-35.19,-11.08,-2.261,-104.9,16.08,-62.07,-26.42,-22.15,-13.33,-42.3,1.661,0,0,0,0,0,0,0,0,0,0,0,0,0,0,0,0,
622,-21.66,-17.81,-78.49,-67.01,-65.81,-41.43,-16.19,-36.33,-110.7,31.8,-54.52,-14,-17,-17.92,-28.87,7.626,0,0,0,0,0,0,0,0,0,0,0,0,0,0,0,0,
623,-22.65,-20.69,-68.57,-36.93,-77.39,-48.35,-43.07,-13.76,-75.26,-33.66,-65.43,-8.23,-18.21,-19.99,-21.25,15.59,0,0,0,0,0,0,0,0,0,0,0,0,0,0,0,0,
624,-13.35,-21.22,-47.93,-19.98,-53.22,-19.3,-39.34,10.82,-43.31,-34.23,-59.82,-9.931,-32.41,-35.86,-22.37,6.543,0,0,0,0,0,0,0,0,0,0,0,0,0,0,0,0,
625,-10.2,-11.89,-32.68,-47.9,-35.09,-7.395,-10.71,-29.38,-35.55,4.109,-32.07,2.975,-24.82,-35.27,-11.63,3.082,0,0,0,0,0,0,0,0,0,0,0,0,0,0,0,0,
626,-0.8317,12.28,-36.71,-58.57,-49.49,-40.78,-18.83,-34.5,-46.41,-29.71,-34.44,-5.297,-28.4,-26.89,-29.17,-7.391,0,0,0,0,0,0,0,0,0,0,0,0,0,0,0,0,
627,-10.49,-6.67,-46.31,-49.73,-52,-55.35,-49.03,-29.19,-76.56,-55.8,-59.85,-32.49,-55.31,-39.22,-57.57,-20.72,0,0,0,0,0,0,0,0,0,0,0,0,0,0,0,0,
628,-33.3,-40.84,-29.97,-32.43,-45.81,-52.56,-60.8,-61.71,-74.41,-46.04,-48.57,-17.28,-37.51,-36.36,-27.28,7.607,0,0,0,0,0,0,0,0,0,0,0,0,0,0,0,0,
629,-12.18,-17.52,-36.79,-12.77,-56.75,-57.29,-50.93,-44.76,-24.71,-53.01,-26.3,10.81,-9.645,-23.67,-1.723,32.15,0,0,0,0,0,0,0,0,0,0,0,0,0,0,0,0,
630,9.067,2.363,-57.53,-44.45,-52.42,-39.42,-35.45,-7.16,-16.45,-38.62,-38.97,-0.3372,-33.75,-27.46,-37.69,6.487,0,0,0,0,0,0,0,0,0,0,0,0,0,0,0,0,
631,-17.57,-27.17,-49.33,-74.09,-23.89,-18.9,-44.22,-23.23,-50.94,-11.64,-48.73,-4.008,-40.13,-14.96,-50.17,-5.67,0,0,0,0,0,0,0,0,0,0,0,0,0,0,0,0,
632,-25.02,-29.66,-66.35,-34.66,-15.7,-22.3,-64.9,-43.48,-49.45,-25.56,-42.96,10.64,-16.69,-2.648,-34.25,3.911,0,0,0,0,0,0,0,0,0,0,0,0,0,0,0,0,
633,-12.5,-5.949,-89.36,-32.77,-30.35,-30.1,-64.15,-47.97,-45.1,-42.1,-52.73,0.7501,-27.09,-14.68,-57.01,-11.11,0,0,0,0,0,0,0,0,0,0,0,0,0,0,0,0,
634,-35.12,-17.52,-71.82,-85.02,-33.81,-49.8,-64.52,-51.99,-63.47,-34.35,-58.48,-1.247,-30.64,-6.782,-67.99,-12.82,0,0,0,0,0,0,0,0,0,0,0,0,0,0,0,0,
635,-35.94,-21.07,-59.72,-80.37,-25.4,-58.45,-65.16,-32.22,-47.12,-32.21,-35.03,28.03,-3.612,10.58,-32.77,14.46,0,0,0,0,0,0,0,0,0,0,0,0,0,0,0,0,
636,9.228,7.271,-32.88,-40.77,-14.67,-16.95,-30.72,-5.996,-17.94,-27.1,-1.877,48.44,3.245,4.597,-14.13,23.99,0,0,0,0,0,0,0,0,0,0,0,0,0,0,0,0,
637,19.42,6.492,-10.31,-19.59,-4.655,12.1,-7.918,-17.66,-6.386,-11.24,10.44,51.37,1.874,3.267,-19.88,19.9,0,0,0,0,0,0,0,0,0,0,0,0,0,0,0,0,
638,-2.674,-6.716,-58.57,-20.21,-0.1424,-9.107,-34.26,-50.05,26.43,-11.7,0.6649,46.46,11.01,9.777,-17.08,19.74,0,0,0,0,0,0,0,0,0,0,0,0,0,0,0,0,
639,3.132,17.89,-58.56,-40.22,14.35,-4.601,-35.21,-48.63,44.14,-15.08,-0.1313,41.66,13.11,13.97,-15.61,17.33,0,0,0,0,0,0,0,0,0,0,0,0,0,0,0,0,
640,28.86,34.94,21.39,-18.72,38.76,33.86,6.564,-11.73,9.968,1.597,3.776,49.89,14.58,23.41,-19.46,21,0,0,0,0,0,0,0,0,0,0,0,0,0,0,0,0,
641,44.03,13.49,34.45,28.37,45.63,34.61,11.49,10.23,5.209,8.224,-9.164,55.15,14.49,22.01,-11.07,29.52,0,0,0,0,0,0,0,0,0,0,0,0,0,0,0,0,
642,39.04,4.031,5.732,7.867,24.96,12.45,-15.71,-3.036,34.68,-6.256,-8.984,55.49,13.49,18.25,6.354,35.98,0,0,0,0,0,0,0,0,0,0,0,0,0,0,0,0,
643,40.78,17.02,-18.87,-27.6,-16.8,10.31,-19.05,-22.45,4.271,-11.87,-8.291,57.79,24.45,28.81,9.601,42.05,0,0,0,0,0,0,0,0,0,0,0,0,0,0,0,0,
644,67.67,23.12,-65.92,-12.9,-29.12,-0.6704,-6.03,-21.38,-44.78,-0.1723,-46.73,38.33,30.73,27.15,-5.974,40.09,0,0,0,0,0,0,0,0,0,0,0,0,0,0,0,0,
645,62.29,29.48,-45.6,-11.25,12.45,-24.11,-1.138,-22.12,-19.93,18.42,-57.93,17.94,23.72,16.14,-13.85,35.04,0,0,0,0,0,0,0,0,0,0,0,0,0,0,0,0,
646,16.69,19.31,13.58,-27.4,19.49,-23.3,-20.72,-36.76,21.38,26.97,-22.01,24.41,11.8,13.35,-10.03,31.2,0,0,0,0,0,0,0,0,0,0,0,0,0,0,0,0,
647,5.425,-23.31,-13.04,-20.2,-16.34,-19.73,-46.91,-17.62,11.77,3.654,-25.33,24.61,0.446,6.139,-13.6,21.49,0,0,0,0,0,0,0,0,0,0,0,0,0,0,0,0,
648,17.07,-30.39,-46.8,-30.27,-12.82,-43.15,-35.45,6.162,-14.22,-28.24,-41.66,22.78,9.073,8.249,-5.399,24.41,0,0,0,0,0,0,0,0,0,0,0,0,0,0,0,0,
649,4.889,5.957,-36.39,-60.9,-12.49,-63.29,-18.95,-40.25,-29.3,-10.13,-24.83,34.55,23.08,20.83,13.82,35.19,0,0,0,0,0,0,0,0,0,0,0,0,0,0,0,0,
650,-8.709,-0.8533,-53.28,-65.3,-43.88,-59.86,-33.79,-78.43,-38.32,31.59,-35.53,25.65,10.56,15.69,2.38,22.37,0,0,0,0,0,0,0,0,0,0,0,0,0,0,0,0,
651,-8.917,-34.86,-56.75,-53.9,-41.97,-44.47,-38.37,-31.3,-38.27,8.804,-49.72,13.29,0.0975,11.57,-7.551,14.19,0,0,0,0,0,0,0,0,0,0,0,0,0,0,0,0,
652,8.688,-28.62,-17.27,-17.62,-25.01,-16.47,-28.22,11.9,-24.04,-33.41,-21.18,27.74,7.536,14.46,17.1,28.92,0,0,0,0,0,0,0,0,0,0,0,0,0,0,0,0,
653,33.28,-10.6,-22.8,28.01,-21.5,8.331,-20.12,-12.37,-6.088,-6.581,-15.74,34.28,1.98,-5.04,16.71,26.62,0,0,0,0,0,0,0,0,0,0,0,0,0,0,0,0,
654,21.74,-8.498,-61.17,-5.82,-0.1152,1.945,4.602,-40.67,-0.3756,13.07,-32.73,30.35,-0.3014,-18.8,-8.403,20.41,0,0,0,0,0,0,0,0,0,0,0,0,0,0,0,0,
655,9.399,3.688,-12.13,-39.98,27.84,-12.48,14.32,-3.257,17.73,-13.46,-24.47,38.79,27.01,5.02,-4.359,36.74,0,0,0,0,0,0,0,0,0,0,0,0,0,0,0,0,
656,43.46,24.53,82.15,39.59,38.12,-1.221,-19.33,56.32,45.18,8.886,-17.15,48.29,48.24,33.21,4.796,40.48,0,0,0,0,0,0,0,0,0,0,0,0,0,0,0,0,
657,63.77,30.77,67.75,82.34,33.46,22.22,-28.83,48.47,24.85,49.52,-11.04,59.37,44.05,34.48,3.227,28.43,0,0,0,0,0,0,0,0,0,0,0,0,0,0,0,0,T2
658,54.46,28.37,0.9385,15.25,14.04,34.72,20.64,4.13,-3.095,39.21,0.8319,65.2,44.06,22.92,6.948,27.61,0,0,0,0,0,0,0,0,0,0,0,0,0,0,0,0,
659,64.6,35.86,-2.068,-18.98,-1.759,37.42,57.82,-22.92,19.13,44.87,-2.562,52.44,51.67,27.18,4.695,31.74,0,0,0,0,0,0,0,0,0,0,0,0,0,0,0,0,
660,71.67,48.6,-10.9,-14.69,21.91,48.28,50.89,-33.04,31.44,66.81,0.9263,49.32,49.81,37.41,9.932,40.43,0,0,0,0,0,0,0,0,0,0,0,0,0,0,0,0,
661,56.34,49.88,-24.99,-5.286,65.27,59.44,35.9,22.7,28.5,39.72,11.67,60,45.68,27.01,25.16,48.4,0,0,0,0,0,0,0,0,0,0,0,0,0,0,0,0,
662,47.87,34.58,42.88,57.22,68.51,41.65,10.2,103.8,54.08,10.53,7.481,60.51,43.02,15.27,22.01,38.31,0,0,0,0,0,0,0,0,0,0,0,0,0,0,0,0,
663,50.34,17.61,115.8,99.75,55.75,24.88,-6.2,86.42,53,17.99,14.89,61.74,35.83,15.65,18.66,28.55,0,0,0,0,0,0,0,0,0,0,0,0,0,0,0,0,
664,56.34,24.65,106.3,75.95,69.21,47.99,31.83,28.72,18.14,25.21,36.37,67.12,35.74,13,26.32,33.17,0,0,0,0,0,0,0,0,0,0,0,0,0,0,0,0,
665,63.17,43.37,53.18,73.68,58.95,75.29,64.93,29.36,20.82,30.98,46.66,69.76,46.65,16.25,21.31,38.29,0,0,0,0,0,0,0,0,0,0,0,0,0,0,0,0,
666,70.69,38.17,24.13,69.56,29.55,76.88,49.34,38.7,42.2,38.87,51.51,73.97,50.72,19.95,11.11,43.56,0,0,0,0,0,0,0,0,0,0,0,0,0,0,0,0,
667,75.3,28.35,49.23,8.943,46.18,64.74,42.46,29.09,48.25,33.68,58.52,66.27,48.46,11.41,7.795,47.98,0,0,0,0,0,0,0,0,0,0,0,0,0,0,0,0,
668,60.58,39.68,60.59,-13.64,72.99,56.37,42.78,43.37,66.56,34.55,63.21,50.31,51.44,14.02,7.888,41.65,0,0,0,0,0,0,0,0,0,0,0,0,0,0,0,0,
669,43.34,40.76,18.53,35.42,63.37,59.48,25.41,68.94,79,39.21,51.92,41.94,43.63,17.13,8.367,25.14,0,0,0,0,0,0,0,0,0,0,0,0,0,0,0,0,
670,42.53,20.16,21.55,66.22,50.96,56.25,25.77,47.55,59.51,22.55,25.47,32.29,21.48,-4.506,0.8361,5.833,0,0,0,0,0,0,0,0,0,0,0,0,0,0,0,0,
671,43.22,11.77,85.08,67.11,57,60.67,44.62,7.314,44.38,15.25,14,30.25,16.62,-18.79,-7.897,-2.538,0,0,0,0,0,0,0,0,0,0,0,0,0,0,0,0,
672,58.06,26.01,105,70.45,61.02,89.52,56.58,28,42.82,35.54,14.49,39.12,33.44,-2.912,-4.231,7.219,0,0,0,0,0,0,0,0,0,0,0,0,0,0,0,0,
673,77.36,44.34,78.6,77.32,55.16,82.76,50.8,72.56,38.79,43.47,1.145,37.77,52.15,22.82,6.463,23.4,0,0,0,0,0,0,0,0,0,0,0,0,0,0,0,0,
674,64.9,49.59,55.67,89.35,56.68,39.66,24.18,74.76,39.5,34.61,-15.87,32.4,60.83,30.99,9.658,29.72,0,0,0,0,0,0,0,0,0,0,0,0,0,0,0,0,
675,53.42,32.79,16.44,57.14,51.54,30.97,20.39,48.09,35.66,33.37,-17.47,28.05,47.24,16.12,-0.8056,22.97,0,0,0,0,0,0,0,0,0,0,0,0,0,0,0,0,
676,57.88,12.11,-21.63,-8.58,19.94,38.71,49.35,6.193,25.53,29.89,-4.338,18.88,29.4,12.38,-11.74,15.18,0,0,0,0,0,0,0,0,0,0,0,0,0,0,0,0,
677,44.52,10.9,-5.383,8.166,-4.846,30.92,39.95,-2.228,15.32,13.7,2.691,7.966,21.74,21.72,-16.83,7.641,0,0,0,0,0,0,0,0,0,0,0,0,0,0,0,0,
678,20.41,3.313,6.778,46.13,-13.45,20.76,-7.668,33.11,-7.838,0.349,-11.14,-13.37,-2.361,6.845,-21.67,-5.167,0,0,0,0,0,0,0,0,0,0,0,0,0,0,0,0,
679,-1.091,-23.02,-11.91,0.1955,-9.692,0.5741,-24.69,21.69,-21.73,-1.663,-23.97,-30.97,-21.35,-9.025,-18.79,-10.36,0,0,0,0,0,0,0,0,0,0,0,0,0,0,0,0,
680,-5.37,-21.83,44.8,-4.393,23.25,-9.517,-13.88,3.151,-11.18,2.765,-13.83,-24.85,-2.9,1.032,-14.08,-6.254,0,0,0,0,0,0,0,0,0,0,0,0,0,0,0,0,
681,13.63,2.438,93.21,42.62,31.62,18.54,0.6087,31.16,0.6734,20.66,4.463,-13.97,14.47,3.699,-14.26,0.2995,0,0,0,0,0,0,0,0,0,0,0,0,0,0,0,0,
682,21.3,12.28,-15.09,7.147,2.298,46.91,26.24,12.54,3.613,37.08,-4.534,-4.799,16.86,-8.165,-8.691,14.86,0,0,0,0,0,0,0,0,0,0,0,0,0,0,0,0,
683,25.59,17.55,-59.98,-7.728,16.13,34.87,29.65,-1.425,-17.36,19.28,-37.76,-3.25,19.58,-13.6,-8.889,25.06,0,0,0,0,0,0,0,0,0,0,0,0,0,0,0,0,
684,34.86,1.377,63.71,47.43,39.62,-3.691,-15.51,48.34,-22.65,3.374,-49.73,-26.66,10.39,-13.54,-23.51,19.26,0,0,0,0,0,0,0,0,0,0,0,0,0,0,0,0,
685,2.993,-38.07,53.21,12.38,5.913,-30.23,-51.81,20.96,20.54,11.98,-49.3,-48.43,1.096,-12.98,-41.3,9.576,0,0,0,0,0,0,0,0,0,0,0,0,0,0,0,0,
686,-30.84,-35.92,-57.55,-37.74,-14.91,-23.7,-32.56,-46.41,17.01,2.545,-58.58,-37.25,7.479,-12.14,-42.61,9.483,0,0,0,0,0,0,0,0,0,0,0,0,0,0,0,0,
687,5.051,-3.564,3.766,15.25,16.48,8.078,11.35,-24.01,-13.63,11.71,-47.4,-8.31,12.55,-8.213,-13.5,18.17,0,0,0,0,0,0,0,0,0,0,0,0,0,0,0,0,
688,51.17,-1.929,64.81,33.35,36.9,38.63,30.34,4.993,25.16,48.44,-39.65,-1.598,4.373,-10.65,-2.973,9.7,0,0,0,0,0,0,0,0,0,0,0,0,0,0,0,0,
689,47.01,-15.23,3.444,17.91,36.9,51.58,14.63,16.48,40.09,24.03,-49.62,-10.96,-1.721,-23.85,-12.38,2.514,0,0,0,0,0,0,0,0,0,0,0,0,0,0,0,0,
690,57.46,-7.269,38.22,56.59,66.34,69.62,12.84,44.5,27.79,-3.475,-5.121,31.18,31.05,-6.727,49.56,54.89,0,0,0,0,0,0,0,0,0,0,0,0,0,0,0,0,
691,114.3,30.22,115.8,47.6,109.3,95.98,54.48,19.63,82.52,42.52,65.29,100.6,87.1,40.73,127,113.9,0,0,0,0,0,0,0,0,0,0,0,0,0,0,0,0,
692,138.9,72.11,81.19,23.6,112.3,93.63,82.76,-5.685,96.47,65.88,71.1,103.3,98.63,50.47,109.4,104.2,0,0,0,0,0,0,0,0,0,0,0,0,0,0,0,0,
693,106.1,69.22,56.68,80.3,82.85,69.4,60.8,48.27,34.94,53.63,35.88,66.4,72.44,25.76,62.53,72.68,0,0,0,0,0,0,0,0,0,0,0,0,0,0,0,0,
694,66.42,24.8,60.62,87.57,39.06,37.7,25.97,91.94,3.869,64.41,-9.535,36.11,53.35,16.69,30.97,48.55,0,0,0,0,0,0,0,0,0,0,0,0,0,0,0,0,
695,29.74,-7.158,11.12,25.76,-17.21,-14.34,-2.026,76.61,-12.16,51.06,-63.85,-5.663,37.11,13.46,-8.442,19.37,0,0,0,0,0,0,0,0,0,0,0,0,0,0,0,0,
696,3.079,-1.326,-27.33,10.29,-55.13,-44.62,-11.23,43.65,-33.2,21.14,-81.27,-20.51,30.74,5.935,-8.589,14.27,0,0,0,0,0,0,0,0,0,0,0,0,0,0,0,0,
697,8.864,13.11,-38.96,-10.59,-69.21,-24.24,17.32,20.93,-41.23,31.92,-59.4,6.734,40.93,4.586,18.57,26.54,0,0,0,0,0,0,0,0,0,0,0,0,0,0,0,0,
698,22.84,5.902,-48.14,-63.04,-77.77,-14.79,31.14,26.53,-42.18,46.77,-46.3,17.41,38.92,3.991,14.04,27.42,0,0,0,0,0,0,0,0,0,0,0,0,0,0,0,0,
699,21.67,2.63,-38.61,-56.74,-71.75,-33.67,3.302,38.55,-22.81,40.47,-35.69,16.03,30.43,12.32,11.87,31.99,0,0,0,0,0,0,0,0,0,0,0,0,0,0,0,0,
700,22.85,20.81,-38.35,1.037,-58.48,-19.54,8.704,42.4,-11.75,39.87,-7.409,31.24,39.36,26.78,33.93,44.49,0,0,0,0,0,0,0,0,0,0,0,0,0,0,0,0,
701,41.13,26.68,-33.71,21.29,-52.53,21.11,39.61,40.33,-16.47,38.31,13.58,33.68,43.58,20.48,37.68,46.88,0,0,0,0,0,0,0,0,0,0,0,0,0,0,0,0,
702,53.37,21.07,-28.66,-14.27,-45.84,26.46,30.16,13.56,-10.14,35.24,19.01,17.79,29.19,6.758,19.33,36.51,0,0,0,0,0,0,0,0,0,0,0,0,0,0,0,0,
703,37.72,31.09,-62.12,-22.67,-39.03,13.03,27.52,13.77,-23.36,63.04,29.85,21.49,26.08,12.43,15.97,34.53,0,0,0,0,0,0,0,0,0,0,0,0,0,0,0,0,
704,30.44,43.76,-39.17,13.48,-34.33,19.07,56.74,67.16,-10.93,88.67,38.84,42.96,42.86,21.4,33.18,54.3,0,0,0,0,0,0,0,0,0,0,0,0,0,0,0,0,
705,46.58,54.07,54.53,22.83,-25.66,22.03,74.14,86.99,60.2,57.03,39.86,51.58,58.37,18.15,44.89,69.36,0,0,0,0,0,0,0,0,0,0,0,0,0,0,0,0,
706,52.18,75.32,81.35,41.85,-15.21,27.85,86.1,69.69,69.44,34.72,52.78,54.3,69.97,17.31,50,72.03,0,0,0,0,0,0,0,0,0,0,0,0,0,0,0,0,
707,57.2,86.11,33.99,68.37,-15.45,54.3,87.25,60.48,10.8,72.33,69.51,61.81,82.21,31.81,62.4,86.79,0,0,0,0,0,0,0,0,0,0,0,0,0,0,0,0,
708,58.19,76.18,-17.72,9.463,-28.2,53.17,72.88,44.15,-1.123,85.82,71.38,58.58,88.78,50.43,69.97,96.5,0,0,0,0,0,0,0,0,0,0,0,0,0,0,0,0,
709,26.96,75.59,-22.67,-22.14,-37.6,14.08,66.14,48.92,26.37,63.95,66.04,46.85,84.28,54.07,59.38,79.77,0,0,0,0,0,0,0,0,0,0,0,0,0,0,0,0,
710,5.102,75.48,21.64,37.6,-50.34,-0.4453,49.52,69.15,20.67,74.37,54.84,37.17,71.48,49.37,42.95,65.82,0,0,0,0,0,0,0,0,0,0,0,0,0,0,0,0,
711,12.31,57.53,0.6212,13.8,-70,22.19,50.23,46.66,-29.61,85.28,41.13,29.83,63.87,51.92,43.07,71.84,0,0,0,0,0,0,0,0,0,0,0,0,0,0,0,0,
712,7.649,55.62,-58.58,-42.21,-62.67,25.03,76,30.37,-44.18,60.38,39.36,23.59,54.62,47.61,50.13,72.65,0,0,0,0,0,0,0,0,0,0,0,0,0,0,0,0,
713,-11.02,54.99,-19.4,9.809,-36.35,-9.834,37.78,57.57,2.778,44.38,37.1,3.256,25.89,23.29,28.64,53.86,0,0,0,0,0,0,0,0,0,0,0,0,0,0,0,0,
714,-31.25,16.66,13.32,22.72,-32.86,-32.58,-17.15,56.9,-5.658,60.97,17.36,-24.55,4.095,-0.7293,-5.295,34.99,0,0,0,0,0,0,0,0,0,0,0,0,0,0,0,0,
715,-44.7,-3.88,-30.22,-33.73,-47.29,-29.09,4.518,23.54,-50.08,68.5,-3.003,-27.32,6.431,-7.755,-13.43,29.07,0,0,0,0,0,0,0,0,0,0,0,0,0,0,0,0,
716,-31.21,17.21,-19.96,-16.37,-55.38,-22.29,26.92,19.96,-17.04,39.39,-1.646,-20.52,0.0565,-11.87,-16.75,21.6,0,0,0,0,0,0,0,0,0,0,0,0,0,0,0,0,
717,-17.57,17.16,-0.0199,-0.5923,-48.9,-10.13,21.82,28.01,10.97,27.61,18.9,-32.4,-17.25,-23.02,-27.22,11.19,0,0,0,0,0,0,0,0,0,0,0,0,0,0,0,0,
718,-38.12,-2.449,-38.9,-39.7,-42.29,-7.976,37.16,9.938,-6.859,55.09,33.97,-35.7,-15.99,-21.68,-15.41,17.46,0,0,0,0,0,0,0,0,0,0,0,0,0,0,0,0,
719,-47.29,0.1918,-20.82,-13.64,-55.52,-7.606,43.43,10.38,1.292,53.34,26.11,-16.23,-1.935,-4.01,4.992,31.44,0,0,0,0,0,0,0,0,0,0,0,0,0,0,0,0,
720,-13.61,16.03,11.89,40.2,-66.27,19.65,35.48,43.09,-9.159,29.63,22.57,-4.598,5.611,5.793,10,33.79,0,0,0,0,0,0,0,0,0,0,0,0,0,0,0,0,
721,8.08,24.52,-34.22,31.16,-38.88,22.34,39.57,53.72,-9.163,43.15,56.16,2.589,16.22,17.2,23.79,46.15,0,0,0,0,0,0,0,0,0,0,0,0,0,0,0,0,
722,4.345,23.42,-25.6,29.99,8.638,-4.297,33.99,50.21,48.09,52.32,89.75,23.2,37.32,41.83,37.43,68.11,0,0,0,0,0,0,0,0,0,0,0,0,0,0,0,0,
723,15.33,26.99,38.05,44.41,19.13,-4.502,14.16,41.64,22.22,18.91,73.39,25.79,43.09,43.01,13.47,55.9,0,0,0,0,0,0,0,0,0,0,0,0,0,0,0,0,
724,22.37,41.05,6.287,-4.377,-13.22,-11.04,16.47,3.689,-34.75,1.911,47.57,10.72,32.69,28.65,-6.796,35.74,0,0,0,0,0,0,0,0,0,0,0,0,0,0,0,0,
725,14.14,38.12,-44.62,-62.06,-30.12,-19.73,40.34,-8.6,33.69,43.38,64.61,23.79,36.52,43.13,17.25,55.08,0,0,0,0,0,0,0,0,0,0,0,0,0,0,0,0,
726,18.08,7.852,-25.63,-47.9,-17.84,4.159,32.77,11.08,62.88,94.24,80.19,40.79,35.1,51.85,33.82,67.73,0,0,0,0,0,0,0,0,0,0,0,0,0,0,0,0,
727,23.38,-12.81,-1.481,-3.994,-5.573,-2.088,4.403,4.364,-2.521,94.82,59.77,30.56,17.74,30.78,26.59,55.11,0,0,0,0,0,0,0,0,0,0,0,0,0,0,0,0,
728,33.59,0.6504,10.55,24.57,0.7609,-21.15,13.07,20.21,23.24,62.64,55.7,33.18,30.48,31.66,40.77,65.41,0,0,0,0,0,0,0,0,0,0,0,0,0,0,0,0,
729,58.31,24.17,-2.032,40.16,-2.961,16.55,29.01,59.15,73.96,44.46,72.09,46.62,54.49,47.26,59.43,78.3,0,0,0,0,0,0,0,0,0,0,0,0,0,0,0,0,
730,60.43,28.12,-30.22,38.52,-5.391,37.75,28.44,51.55,55.11,50.62,59.86,37.59,43.31,38.45,52.3,65.51,0,0,0,0,0,0,0,0,0,0,0,0,0,0,0,0,
731,49.6,20.94,-1.956,38.28,3.275,2.781,39.79,41.6,61.75,61.3,44.48,33.35,36.76,35.67,47.17,64.51,0,0,0,0,0,0,0,0,0,0,0,0,0,0,0,0,
732,65.06,25.83,43.78,50.27,7.284,6.755,43.22,36.7,70.51,46.92,61.41,48.99,55.75,47.45,56.53,78.34,0,0,0,0,0,0,0,0,0,0,0,0,0,0,0,0,
733,87.07,36.41,41.74,39.54,20.64,57.05,45.44,6.878,57.72,25.14,92.06,63.07,68.05,47.75,67.69,83.97,0,0,0,0,0,0,0,0,0,0,0,0,0,0,0,0,
734,97.8,41.16,28.13,18.69,36.83,58.36,67.79,17.46,88.41,39.43,116.7,76.76,84.48,56.28,80.12,91.17,0,0,0,0,0,0,0,0,0,0,0,0,0,0,0,0,
735,109.6,56.87,35.81,30.97,29.35,34.05,65.43,43.72,104.6,54.76,112.2,90.13,103.9,72.33,86.43,95.14,0,0,0,0,0,0,0,0,0,0,0,0,0,0,0,0,
736,117.7,73.47,48.11,45.91,21.09,62.43,42.22,24.94,83.08,38.12,93.13,93.34,92.18,67.79,84.5,88.79,0,0,0,0,0,0,0,0,0,0,0,0,0,0,0,0,
737,109.6,59.2,22.3,35.81,1.345,75.48,38.5,23.06,93.56,37.97,96.88,89.83,73.45,65.93,79.68,87.76,0,0,0,0,0,0,0,0,0,0,0,0,0,0,0,0,
738,94.78,43.22,-16.55,24.48,-35.87,29.3,40.22,23.13,96.12,54.38,85.22,82.09,75.32,75.04,62.79,80.56,0,0,0,0,0,0,0,0,0,0,0,0,0,0,0,0,
739,85.82,51.86,-9.776,4.185,-40.79,11.54,36.84,-20.35,50.13,43.83,49.76,74.41,72.67,68.11,47.21,60.52,0,0,0,0,0,0,0,0,0,0,0,0,0,0,0,0,
740,80.07,59.44,-6.979,-18.85,-28.23,22.31,33.95,-19.22,22.8,34.58,49.49,71.35,65.72,64.28,52.25,55.63,0,0,0,0,0,0,0,0,0,0,0,0,0,0,0,0,
741,78.96,65.61,-16.57,-0.8032,-16.77,16.31,38.05,23.5,56.86,42.15,64.42,60.08,60.95,71.17,48.47,52.86,0,0,0,0,0,0,0,0,0,0,0,0,0,0,0,0,
742,70.07,64.19,3.882,23.58,-3.975,20.43,44.95,13,94.84,30.9,52.68,34.76,36.13,55.76,23.35,27.66,0,0,0,0,0,0,0,0,0,0,0,0,0,0,0,0,
743,48.64,46.13,-0.2486,4.809,-30.32,20.31,27.85,-3.558,62.16,24.41,32.35,13.88,10.6,34.39,9.556,10.12,0,0,0,0,0,0,0,0,0,0,0,0,0,0,0,0,
744,57.27,50.92,-11.59,-9.092,-45.72,1.277,8.888,15.05,13.22,47.48,26.87,13.68,11.54,33,10.94,9.557,0,0,0,0,0,0,0,0,0,0,0,0,0,0,0,0,
745,86.68,59.5,7.965,12.83,-5.561,1.724,19.72,10.31,40.14,46.34,46.22,28.93,19.29,33.6,16.58,9.587,0,0,0,0,0,0,0,0,0,0,0,0,0,0,0,0,
746,90.64,36.24,-14.45,22.61,-3.582,17.15,24.27,-2.797,74.61,10.95,55.94,38.44,25.27,31.48,30.02,23.92,0,0,0,0,0,0,0,0,0,0,0,0,0,0,0,0,
747,97.21,36.6,-45.05,0.5551,-37.68,26.3,21.01,2.374,50.87,4.783,29.06,36.63,27.55,26.94,35.6,37.33,0,0,0,0,0,0,0,0,0,0,0,0,0,0,0,0,
748,105.1,57.71,-16.1,-16.46,-32.86,28.4,37.94,3.575,46.28,30.32,11.58,41.27,15.88,16.92,25.06,25.81,0,0,0,0,0,0,0,0,0,0,0,0,0,0,0,0,
749,79.62,43.96,8.719,-12.19,-26.09,14.15,34.79,21.11,60.99,30.11,9.106,47.09,10.69,18.81,20.46,22.09,0,0,0,0,0,0,0,0,0,0,0,0,0,0,0,0,
750,64.98,33.27,-1.924,-9.4,-33.04,-6.397,4.511,29.04,17.42,7.68,-11.54,37.98,17.76,20.93,28.37,33.23,0,0,0,0,0,0,0,0,0,0,0,0,0,0,0,0,
751,74.61,47.8,-23.93,-6.659,-29.01,-2.759,5.085,1.489,-18.9,15.24,-23,33.16,16.4,12.61,34.33,31.24,0,0,0,0,0,0,0,0,0,0,0,0,0,0,0,0,
752,73.69,48.52,-27.79,10.05,-39.43,17.33,24.75,19.97,25.11,42.13,-6.348,38.98,15.7,28.35,34.68,30.67,0,0,0,0,0,0,0,0,0,0,0,0,0,0,0,0,
753,74.46,48.45,5.647,12.95,-57.55,9.271,21.11,48.61,55.55,50.75,5.519,27.95,16.21,47.1,27.16,33.82,0,0,0,0,0,0,0,0,0,0,0,0,0,0,0,0,
754,66.41,59.71,5.349,-11.29,-61.14,-16.86,13.32,-7.336,12.99,56.95,-10.25,5.929,1.917,26.42,6.206,16.18,0,0,0,0,0,0,0,0,0,0,0,0,0,0,0,0,
755,38.25,48.71,-46.12,-28.45,-66.74,-17.14,8.19,-38.94,-14.74,59.89,-30.48,2.864,-4.362,15,-5.646,1.551,0,0,0,0,0,0,0,0,0,0,0,0,0,0,0,0,
756,37.19,32.59,-46.04,-24.99,-57.29,-19.04,-12.34,5.058,12.85,41.52,-27.6,11.94,5.879,32.04,8.075,7.93,0,0,0,0,0,0,0,0,0,0,0,0,0,0,0,0,
757,52.69,41.6,-14.76,-27.7,-24.33,-37.29,-31.85,3.736,27.08,33.46,-29.3,8.719,-1.195,19.6,12.51,4.387,0,0,0,0,0,0,0,0,0,0,0,0,0,0,0,0,
758,41.61,31.3,-53.99,-43.59,-24.06,-29.44,-33.31,-20.83,15.7,44.31,-46.2,-1.691,-21.88,-8.396,1.451,-3.841,0,0,0,0,0,0,0,0,0,0,0,0,0,0,0,0,
759,34.88,-6.495,-97.06,-33.18,-52.84,-19.55,-21.3,7.92,28.47,40.64,-45.29,-2.225,-27.57,-4.633,7.666,5.058,0,0,0,0,0,0,0,0,0,0,0,0,0,0,0,0,
760,37.03,-14.47,-44.24,-1.869,-50.47,-41.09,-18.35,16.52,33.86,22.29,-41.2,4.002,-23.75,5.827,16.85,7.305,0,0,0,0,0,0,0,0,0,0,0,0,0,0,0,0,
761,22.68,-3.485,22.02,-6.631,-27.99,-49.46,-44.02,-17.83,13.45,19.65,-39.16,13.93,-18.82,4.61,24.4,5.248,0,0,0,0,0,0,0,0,0,0,0,0,0,0,0,0,
762,32.5,-4.385,11.22,-20.72,-9.387,-28.17,-55.12,-24.5,42.67,37.9,-9.517,27.67,-11.61,13.03,48.21,22.99,0,0,0,0,0,0,0,0,0,0,0,0,0,0,0,0,
763,55.58,-0.6609,-12.92,-6.478,3.702,-16.43,-22.81,-24.85,95.04,25.02,21.24,38.18,-6.321,30.84,59.74,36.86,0,0,0,0,0,0,0,0,0,0,0,0,0,0,0,0,
764,39.33,6.109,-6.899,-16.78,-9.902,-21.24,-3.697,-39.87,91.14,-18.49,28.79,52.05,-2.284,40.32,59.09,33.55,0,0,0,0,0,0,0,0,0,0,0,0,0,0,0,0,
765,38.15,15.08,-17.49,-47.14,-11.93,-14.88,-16.49,-9.605,73.07,-3.789,26.72,58.45,-10.53,31.03,62.28,22.57,0,0,0,0,0,0,0,0,0,0,0,0,0,0,0,0,
766,64.89,19.5,-22.4,-31.77,30.44,2.243,-20.72,30.53,70.76,41.04,16.72,38.54,-24.43,22.12,44.46,7.535,0,0,0,0,0,0,0,0,0,0,0,0,0,0,0,0,
767,49.32,4.29,26.4,22.49,45.21,2.252,-12.46,11.99,73.36,33.42,17.78,32.62,-4.131,42.61,38.28,19.18,0,0,0,0,0,0,0,0,0,0,0,0,0,0,0,0,
768,32.84,16.56,54.08,54.62,19.22,-9.575,-6.812,-4.635,73.89,34.48,29.38,52.65,22.87,61.96,61.88,43.13,0,0,0,0,0,0,0,0,0,0,0,0,0,0,0,0,
769,55.95,51.83,-0.3785,27,5.934,-11.73,-9.176,7.418,36.79,66.84,12.95,44.23,6.328,48.3,50.97,24.01,0,0,0,0,0,0,0,0,0,0,0,0,0,0,0,0,
770,50.76,35.49,-39.99,-3.721,-8.287,-18.85,-15.04,3.336,17.16,63.34,-9.376,20.68,-10.01,38.48,26.85,4.043,0,0,0,0,0,0,0,0,0,0,0,0,0,0,0,0,
771,15.95,7.185,-6.622,12.38,-24.48,-35.02,-14.65,1.957,36.07,53.59,-1.285,20.66,-5.646,42.26,37.48,22.31,0,0,0,0,0,0,0,0,0,0,0,0,0,0,0,0,
772,12.43,21.07,6.098,2.287,-26.9,-28.92,-13.4,1.382,-5.934,66.6,3.223,17.6,-21.57,31.12,35.79,21.34,0,0,0,0,0,0,0,0,0,0,0,0,0,0,0,0,
773,29.55,23.78,-24.41,-27,-33.29,-6.835,-7.037,-11.56,-25.15,60.77,-8.806,9.586,-36.61,20.15,22.69,1.625,0,0,0,0,0,0,0,0,0,0,0,0,0,0,0,0,
774,28.17,5.758,-18.78,4.642,-16.78,-0.0027,8.769,-1.188,55.25,42.48,-7.924,17.56,-25.2,22.49,39.29,11.07,0,0,0,0,0,0,0,0,0,0,0,0,0,0,0,0,
775,24.47,10.58,7.088,22.42,26.25,5.355,14.93,-3.957,81.73,29.43,2.057,24.89,-14.57,20.89,59.26,28.42,0,0,0,0,0,0,0,0,0,0,0,0,0,0,0,0,
776,36.62,25.8,13.77,-13.7,37.15,10.69,15.13,-27.39,59.67,18.93,22.7,29.49,-15.45,12.78,65.82,27.57,0,0,0,0,0,0,0,0,0,0,0,0,0,0,0,0,
777,29.18,19.4,43.05,-4.746,31.28,-4.318,11.61,9.175,82.43,24.82,52.48,34.72,-29.63,2.105,62.19,16.36,0,0,0,0,0,0,0,0,0,0,0,0,0,0,0,0,
778,8.089,1.503,62.37,40.87,38.97,-1.621,-13.09,43.14,79.19,28.36,34.88,20.51,-50.34,-8.423,39.09,1.678,0,0,0,0,0,0,0,0,0,0,0,0,0,0,0,0,
779,14.17,4.62,4.507,44.21,28.52,24.14,-26.62,-0.9173,62.57,20.25,-11.6,3.524,-51.05,-10.71,31.51,3.009,0,0,0,0,0,0,0,0,0,0,0,0,0,0,0,0,
780,22.82,21.16,-28.68,23.01,22.86,19.17,-6.63,-14.6,85.62,37.27,-0.644,10.82,-39.97,-1.153,58.14,27.73,0,0,0,0,0,0,0,0,0,0,0,0,0,0,0,0,
781,28.96,17.7,39.67,26.78,47.76,9.879,0.2161,25.78,90.87,53.29,23.24,15.58,-40.84,13.59,59.04,37.29,0,0,0,0,0,0,0,0,0,0,0,0,0,0,0,0,
782,44.63,5.422,73.68,40.3,37.8,19.01,-9.261,25.16,69.33,35.33,-6.094,0.0491,-50.44,14.08,21.33,12.05,0,0,0,0,0,0,0,0,0,0,0,0,0,0,0,0,
783,24.96,-1.219,18.68,24.62,-12.07,-0.7837,-6.681,4.424,47.94,28.5,-34.77,-17.97,-64.33,0.5335,3.316,-12.68,0,0,0,0,0,0,0,0,0,0,0,0,0,0,0,0,
784,-9.433,-17.9,-6.987,8.001,-12.76,-25.43,-19.2,4.301,35.48,34.52,-45.38,-37.09,-76.33,-1.026,4.259,-21.64,0,0,0,0,0,0,0,0,0,0,0,0,0,0,0,0,
785,-6.221,-25.78,20.58,22.37,34.23,-15.93,-30.94,17.18,39.35,28.57,-63.48,-46.55,-74.53,4.691,-2.309,-27.89,0,0,0,0,0,0,0,0,0,0,0,0,0,0,0,0,
786,1.395,-4.567,40.28,27.52,35.84,-12.9,2.688,48.05,35.98,28.26,-65.34,-34.8,-61.3,1.793,5.942,-19.63,0,0,0,0,0,0,0,0,0,0,0,0,0,0,0,0,
787,-4.662,11.97,33.81,14.11,-3.635,-29.05,17.62,39.97,42.28,22.27,-59.67,-37.55,-48.59,2.779,19.53,-6.359,0,0,0,0,0,0,0,0,0,0,0,0,0,0,0,0,
788,-11.52,8.599,14.35,14.41,8.655,-30.72,-22,-6.618,73.22,23.45,-65.63,-55.61,-48.1,5.574,13.43,-16.17,0,0,0,0,0,0,0,0,0,0,0,0,0,0,0,0,
789,-20.25,-0.4627,16.59,29.58,44.02,-15.91,-38.87,23.97,75.17,47.97,-49.69,-44.04,-55.6,-1.21,21.31,-22.91,0,0,0,0,0,0,0,0,0,0,0,0,0,0,0,0,
790,-12.2,-17.7,26.89,43.46,14.06,-10.07,-23,75.96,57.56,25.5,-20.92,-21.51,-51.29,-5.194,45.3,-10.08,0,0,0,0,0,0,0,0,0,0,0,0,0,0,0,0,
791,4.293,-22.4,3.022,18.05,-19.61,-16.71,-14.96,26.19,54.05,-24.08,-31.31,-22.3,-41.72,-2.883,46.59,-6.303,0,0,0,0,0,0,0,0,0,0,0,0,0,0,0,0,
792,5.982,-7.143,-6.781,-31.96,3.789,-18.45,-12.37,-20.02,54.53,-6.999,-56.42,-24.67,-43.81,-1.803,44.46,-4.563,0,0,0,0,0,0,0,0,0,0,0,0,0,0,0,0,
793,13.81,-13.3,43.13,-4.877,32.25,-15.62,-23.06,23.9,82.35,26.33,-32.02,-13.09,-37.41,2.304,56.52,9.678,0,0,0,0,0,0,0,0,0,0,0,0,0,0,0,0,
794,31.73,-20.56,76.44,71.49,47.32,-7.83,-27.28,54.55,103.5,7.604,17.11,0.3222,-18.59,6.832,52.68,13.1,0,0,0,0,0,0,0,0,0,0,0,0,0,0,0,0,
795,34.91,0.6074,13.35,53.57,33.24,6.998,-3.136,18.85,75.37,-18.9,25.16,-1.13,-20.15,7.054,36.3,2.384,0,0,0,0,0,0,0,0,0,0,0,0,0,0,0,0,
796,24.2,-6.62,-64.69,-22.69,-0.9591,3.382,-5.257,-8.294,72.17,-8.264,-0.2834,-24.72,-34.06,12.28,30.78,-1.875,0,0,0,0,0,0,0,0,0,0,0,0,0,0,0,0,
797,12.29,-38.96,-33.63,-28.37,14.72,-22.16,-45.59,27.29,77.87,11.22,-18.32,-49.88,-36.81,23.9,28.68,0.284,0,0,0,0,0,0,0,0,0,0,0,0,0,0,0,0,
798,-1.324,-43.67,33.58,4.74,27.7,-38.29,-70.92,59.26,40.55,-9.523,-9.453,-55.93,-40.24,33.49,28.92,0.2324,0,0,0,0,0,0,0,0,0,0,0,0,0,0,0,0,
799,-12.76,-45.96,30.38,7.971,-0.4327,-29.8,-67.3,18.7,50.21,-25.01,9.763,-51.31,-44.7,35.51,32.57,-3.692,0,0,0,0,0,0,0,0,0,0,0,0,0,0,0,0,
800,-12.96,-54.74,7.647,-8.96,5.265,-23.67,-49.24,-25.36,67.28,16.43,-17.85,-60.07,-52.07,22.44,14.62,-17.64,0,0,0,0,0,0,0,0,0,0,0,0,0,0,0,0,
801,-22.41,-57.96,-20.19,-36.92,-13.93,-55.32,-49.57,-23.91,8.348,37.6,-73.96,-84.8,-68.22,5.259,-17.52,-36.13,0,0,0,0,0,0,0,0,0,0,0,0,0,0,0,0,
802,-48.43,-69.18,-65.06,-44.66,-69.88,-77.62,-69.6,-21.98,8.327,13.57,-70.67,-86.81,-58.84,6.285,-20.51,-35.59,0,0,0,0,0,0,0,0,0,0,0,0,0,0,0,0,
803,-47.74,-56.43,-57.8,-24.58,-46.82,-44,-52.12,-14.37,56.7,10.23,-35.69,-57.81,-28.41,13.28,-1.525,-18.62,0,0,0,0,0,0,0,0,0,0,0,0,0,0,0,0,
804,-30.76,-25.65,-14.6,-32.84,-20.04,-29.77,-18.69,3.303,6.192,7.69,-42.1,-48.8,-26.4,8.038,0.4028,-12,0,0,0,0,0,0,0,0,0,0,0,0,0,0,0,0,
805,-44.87,-34.9,-1.47,-42.88,-51.76,-65.94,-38.99,0.6485,-33.47,-13.42,-55.75,-65.62,-38.6,3.197,-8.452,-14.2,0,0,0,0,0,0,0,0,0,0,0,0,0,0,0,0,
806,-56.88,-53.96,-15,-18.2,-50.02,-76.11,-69.47,-1.113,12.85,-12,-44.6,-61.31,-35.29,10.28,1.14,-3.465,0,0,0,0,0,0,0,0,0,0,0,0,0,0,0,0,
807,-37.52,-43.69,-47.62,-9.995,-43.43,-42.64,-50.86,2.39,10.9,-2.58,-33.78,-34.5,-26.68,27.97,25.41,16.68,0,0,0,0,0,0,0,0,0,0,0,0,0,0,0,0,
808,-11.98,-29.16,-51.26,-2.642,-58.45,-5.678,-21.32,-6.788,-24.44,-5.415,-23.01,-16.07,-12.74,42.19,37.89,23.24,0,0,0,0,0,0,0,0,0,0,0,0,0,0,0,0,
809,21.7,-17.3,14.96,26.67,-27.55,13.74,-7.805,-3.709,14.78,10.46,-6.865,-5.752,6.846,35.81,42.16,20.08,0,0,0,0,0,0,0,0,0,0,0,0,0,0,0,0,
810,56.48,0.3017,70.26,35.33,33.77,21.73,19.48,17.55,75.23,32.42,1.038,8.388,17.92,25.91,57.15,26.48,0,0,0,0,0,0,0,0,0,0,0,0,0,0,0,0,
811,60.24,21.14,62.67,38.47,73.06,36.34,51.51,36.84,85.61,20.04,10.03,14.93,10.39,25.64,60.1,25.12,0,0,0,0,0,0,0,0,0,0,0,0,0,0,0,0,
812,40.37,20,38.93,32.22,61.49,43.69,43.33,28.57,88.64,2.138,30.84,5.249,-10.35,16.44,39.26,7.303,0,0,0,0,0,0,0,0,0,0,0,0,0,0,0,0,
813,19.26,-16.37,13.77,-2.924,20.41,23.07,8.957,-13.57,85.07,7.435,38.96,-6.756,-19.66,13.17,30.37,5.07,0,0,0,0,0,0,0,0,0,0,0,0,0,0,0,0,
814,9.921,-35.25,-5.694,-1.234,15.1,-5.233,-4.145,-15.89,36.09,2.936,22.27,-16.45,-19.45,30.8,31.44,13.8,0,0,0,0,0,0,0,0,0,0,0,0,0,0,0,0,
815,17.28,-26.8,19.15,28.91,29.16,-11.69,-4.22,23.01,29.52,-13.63,13.44,-26.77,-26.42,30.67,21.57,11.86,0,0,0,0,0,0,0,0,0,0,0,0,0,0,0,0,
816,20.6,-29.62,53.3,21.83,35.58,6.215,-6.455,-0.5968,91.29,-19.05,38.8,-18.07,-12.05,17.93,37.24,25.5,0,0,0,0,0,0,0,0,0,0,0,0,0,0,0,0,
817,23.63,-8.886,35.57,18.1,59.88,33.09,21.99,-20.62,96.14,-10.59,81.25,18.85,29.72,40.22,90.9,58.71,0,0,0,0,0,0,0,0,0,0,0,0,0,0,0,0,
818,53.24,25.53,23.88,46.27,70.47,53.79,57.06,51.57,64.95,14.29,96.41,42.35,43.71,66.72,119.4,67.93,0,0,0,0,0,0,0,0,0,0,0,0,0,0,0,0,
819,68.64,3.032,66.09,62.27,45.66,42.45,34.36,76.15,63.95,9.635,63.08,15.38,16.56,51.35,92.24,42.74,0,0,0,0,0,0,0,0,0,0,0,0,0,0,0,0,
820,27.89,-29.8,65.18,40.06,18.01,-1.109,12.7,9.357,16.07,-39.82,17.54,-29.2,-7.174,27.03,50.71,14.96,0,0,0,0,0,0,0,0,0,0,0,0,0,0,0,0,
821,-21.66,-26.36,-14.92,-20.01,-18.46,-29.05,39.67,-23.03,-67.94,-41.93,-13.15,-55.31,-19.45,14.99,20.73,2.478,0,0,0,0,0,0,0,0,0,0,0,0,0,0,0,0,
822,-49.28,-43.86,-61.91,-63.18,-63.49,-42.84,17.31,-19.08,-90.6,-4.26,-45.29,-81.95,-46.71,-7.324,-3.796,-7.251,0,0,0,0,0,0,0,0,0,0,0,0,0,0,0,0,
823,-73.8,-76.23,-30.1,-22.79,-71.14,-63.74,-40.86,-4.312,-54.24,-23.75,-56.53,-97.77,-65.54,-25.02,-10.1,-18.04,0,0,0,0,0,0,0,0,0,0,0,0,0,0,0,0,
824,-78.09,-68.41,6.125,36.34,-38.66,-57.08,-21.8,21.54,-33.94,-54.4,-20.29,-68.18,-39.76,-12.51,7.867,-11.16,0,0,0,0,0,0,0,0,0,0,0,0,0,0,0,0,
825,-49.85,-39.92,-5.627,19.51,-26.89,-29.78,17.53,-1.354,-53.32,-25.33,10.88,-31.78,-7.14,9.35,24.12,5.732,0,0,0,0,0,0,0,0,0,0,0,0,0,0,0,0,
826,-21.35,-18.16,-35.21,-14.54,-46.69,-6.776,20.93,-25.44,-15.32,4.878,12.9,-20.99,-0.3417,20.88,31.11,5.883,0,0,0,0,0,0,0,0,0,0,0,0,0,0,0,0,
827,-7.624,5.812,-19.61,2.589,-25.94,22.27,42.03,23.72,69.63,-13.95,25.81,-11.44,4.975,27.27,37.76,-3.223,0,0,0,0,0,0,0,0,0,0,0,0,0,0,0,0,
828,0.4154,13.51,33.83,27.07,34.2,24.66,45.27,56.15,47.81,-44.81,29.02,-17.63,0.4582,20.91,31.37,-9.644,0,0,0,0,0,0,0,0,0,0,0,0,0,0,0,0,
829,-2.596,-20.02,47.42,38.91,46.33,-3.304,6.809,16.95,-17.34,-48.61,-2.403,-49.68,-27.99,1.226,13.33,-21.44,0,0,0,0,0,0,0,0,0,0,0,0,0,0,0,0,
830,-20.3,-59.24,17.43,41.9,22.99,-10.32,-3.597,-14.51,2.526,-30.53,-15.59,-57.35,-43.17,-2.043,11.25,-25.21,0,0,0,0,0,0,0,0,0,0,0,0,0,0,0,0,
831,-26.59,-62.77,4.421,22.26,33.7,-1.411,3.479,4.764,25.25,-17.67,-3.228,-40.48,-36.09,12.51,23.75,-10.21,0,0,0,0,0,0,0,0,0,0,0,0,0,0,0,0,
832,-13.14,-53.46,7.681,14.88,44.08,1.495,-5.244,15.95,10.13,-25.01,-11.65,-47.47,-36.19,11.97,24.81,-5.119,0,0,0,0,0,0,0,0,0,0,0,0,0,0,0,0,
833,-13.22,-55.86,15.65,21.71,21.28,-1.416,-3.082,-25.71,7.625,-32.53,-27.25,-65.25,-44,0.1607,16.07,-19.48,0,0,0,0,0,0,0,0,0,0,0,0,0,0,0,0,
834,-22.89,-58.35,27.96,14.89,19.71,-11.61,-6.46,-29.89,12.47,-37.34,-24.83,-63.89,-46.06,-0.8311,13,-27.87,0,0,0,0,0,0,0,0,0,0,0,0,0,0,0,0,
835,-14.59,-62.61,10.51,27.19,29.46,-19.53,-33.08,39.74,5.22,-65,-17.07,-58.81,-42.31,4.914,14.85,-23.4,0,0,0,0,0,0,0,0,0,0,0,0,0,0,0,0,
836,-6.979,-64.48,-4.716,36.66,5.537,-20.65,-32.38,35.8,-18.68,-59.72,-5.77,-50.91,-32.98,19.93,22.81,-13,0,0,0,0,0,0,0,0,0,0,0,0,0,0,0,0,
837,-11.36,-43.97,15.8,11.97,-0.3339,-11.45,10.78,-40,-18.22,3.848,7.57,-35.66,-21.54,43.81,29.74,-6.446,0,0,0,0,0,0,0,0,0,0,0,0,0,0,0,0,
838,-16.44,-27.15,-4.509,6.902,12.22,-0.8358,37.09,-29.29,12.85,-2.123,4.055,-43.26,-20.55,52.23,15.72,-15.79,0,0,0,0,0,0,0,0,0,0,0,0,0,0,0,0,
839,-19.54,-42.12,-46.83,-5.89,-16.86,-13.31,19.96,14.11,-3.691,-79.56,-16.57,-65.02,-28.21,42.96,-1.994,-27.41,0,0,0,0,0,0,0,0,0,0,0,0,0,0,0,0,
840,-18.33,-52.23,-14.45,-43.18,-28.69,-33.7,-1.633,-6.638,-45.4,-87.76,-27.35,-60.43,-28.62,35.31,3.995,-27.92,0,0,0,0,0,0,0,0,0,0,0,0,0,0,0,0,
841,-28.58,-38.82,33.61,-0.0361,8.452,-40.99,-2.073,-9.903,-38.68,-49.27,-18.71,-45.31,-26.46,36.45,13.46,-27.97,0,0,0,0,0,0,0,0,0,0,0,0,0,0,0,0,
842,-38.17,-37.17,14.84,62.59,16.54,-32.67,6.874,14.39,-19.29,-33.69,-17.41,-45.18,-34.48,42.66,8.121,-30.62,0,0,0,0,0,0,0,0,0,0,0,0,0,0,0,0,
843,-13.9,-52.95,-24.41,20.01,-2.647,-6.988,2.854,21.94,-18.62,-23.98,-21.91,-46.56,-40.29,44.45,3.709,-32.63,0,0,0,0,0,0,0,0,0,0,0,0,0,0,0,0,
844,-0.4773,-61.47,-19.22,-9.635,-7.597,-2.163,-18.42,47.94,-18.43,-27.99,-10.8,-40.93,-30.62,44.14,8.5,-26.65,0,0,0,0,0,0,0,0,0,0,0,0,0,0,0,0,
845,-22.28,-58.11,-3.336,20.92,-16.7,-28.54,-21.96,21.93,-19.51,-31.78,-17.2,-35.89,-21.04,43.74,15.37,-10.9,0,0,0,0,0,0,0,0,0,0,0,0,0,0,0,0,
846,-23.63,-50.88,-47.58,-14.01,-31.57,-35.67,-0.2159,-74.13,-22.9,-23.14,-44.57,-38.45,-29.5,29.85,17.05,-10.92,0,0,0,0,0,0,0,0,0,0,0,0,0,0,0,0,
847,-7.231,-50.86,-74.5,-58.54,-28.83,-30.72,0.7739,-58.4,-21.48,-41.76,-41.59,-44.74,-43.8,15.11,8.28,-26.73,0,0,0,0,0,0,0,0,0,0,0,0,0,0,0,0,
848,-9.957,-61.64,-24.02,-50.26,-10.35,-43.07,-20.66,18.42,-14.23,-68.76,-31.27,-51.34,-50.4,8.664,-5.802,-34.06,0,0,0,0,0,0,0,0,0,0,0,0,0,0,0,0,
849,-27.61,-71.44,-25.45,-71.79,7.012,-48.08,-33.4,-8.933,2.277,-83.52,-42.75,-65.02,-59.36,-11.09,-7.126,-43.1,0,0,0,0,0,0,0,0,0,0,0,0,0,0,0,0,
850,-53.59,-80.01,-56.93,-64,21.52,-42.25,-49.38,-6.518,21.55,-98.45,-37.08,-74.66,-67.44,-22.26,4.628,-52.31,0,0,0,0,0,0,0,0,0,0,0,0,0,0,0,0,
851,-68.9,-91.72,-17.91,-0.1663,20.54,-44.1,-66.06,34.85,10.23,-79.09,-23.41,-68.73,-61.81,-5.615,5.309,-44.95,0,0,0,0,0,0,0,0,0,0,0,0,0,0,0,0,
852,-52.41,-90.93,-27.02,-8.668,-10.19,-43.83,-50.04,-39.21,-25.75,-49.24,-27.12,-57.5,-53.52,-7.918,-0.0054,-42.69,0,0,0,0,0,0,0,0,0,0,0,0,0,0,0,0,
853,-26.07,-76.17,-69.45,-34.77,-20.58,-37.19,-22.49,-75.34,-27.9,-58.91,-28.26,-43.5,-49.08,-31.58,7.8,-51.19,0,0,0,0,0,0,0,0,0,0,0,0,0,0,0,0,
854,-23.61,-70.36,-28.58,-7.182,-0.9032,-32.1,-23.53,-4.978,-17.45,-51.85,-39.14,-36.98,-42.04,-31.17,6.088,-46.16,0,0,0,0,0,0,0,0,0,0,0,0,0,0,0,0,
855,-38.38,-70.28,-17.6,-25.95,-15.02,-33.47,-24.45,-10.01,-46.4,-26.41,-60.82,-48.42,-37.17,-18.98,-9.614,-36.35,0,0,0,0,0,0,0,0,0,0,0,0,0,0,0,0,
856,-38.57,-61.29,-47.02,-51.77,-32.62,-50.46,-7.768,-22.42,-66.88,-47.2,-55.61,-54.2,-37.98,-20.56,-7.399,-39.42,0,0,0,0,0,0,0,0,0,0,0,0,0,0,0,0,
