%OpenBCI Raw EXG Data
%Number of channels = 16
%Sample Rate = 125 Hz
%Board = OpenBCI_GUI$BoardCytonSerialDaisy
Sample Index,EXG Channel 0,EXG Channel 1,EXG Channel 2,EXG Channel 3,EXG Channel 4,EXG Channel 5,EXG Channel 6,EXG Channel 7,EXG Channel 8,EXG Channel 9,EXG Channel 10,EXG Channel 11,EXG Channel 12,EXG Channel 13,EXG Channel 14,EXG Channel 15,Accel Channel 0,Accel Channel 1,Accel Channel 2,Other,Other,Other,Other,Other,Other,Other,Analog Channel 0,Analog Channel 1,Analog Channel 2,Timestamp,Other,Timestamp (Formatted),Annotations
1,-0,0,-0,0,-0,-0,-0,-0,0,-0,-0,-0,0,0,0,-0,0,0,0,0,0,0,0,0,0,0,0,0,0,0,0,0,T0
2,-5.207,-1.923,-8.979,-13.13,-17.76,-4.397,0.2469,-10.25,-1.872,3.474,-0.5151,-2.992,1.571,3.552,-3.287,0.4736,0,0,0,0,0,0,0,0,0,0,0,0,0,0,0,0,
3,-4.331,1.032,-14.54,-32.23,-21.92,-8.743,-1.971,-17.55,-0.967,3.248,-2.872,-4.772,1.987,4.231,-1.444,-0.181,0,0,0,0,0,0,0,0,0,0,0,0,0,0,0,0,
4,1.21,2.499,-12.11,-28.85,-22.67,-1.105,-6.088,-19.34,1.615,3.546,2.542,-0.9431,2.528,2.039,4.395,-1.47,0,0,0,0,0,0,0,0,0,0,0,0,0,0,0,0,
5,5.761,1.158,-11.96,-19.87,-33.74,11.5,-6.761,-17.76,6.205,7.281,12.9,5.045,4.277,1.819,10.9,1.294,0,0,0,0,0,0,0,0,0,0,0,0,0,0,0,0,
6,8.341,4.548,-8.662,-19.85,-29.19,9.224,-2.811,-12.83,8.709,10.41,14.51,7.391,6.671,4.727,13.45,6.699,0,0,0,0,0,0,0,0,0,0,0,0,0,0,0,0,
7,8.904,9.659,1.792,-5.823,-4.918,0.1213,-0.1618,-8.536,7.363,8.166,7.959,5.399,8.09,6.29,10.73,7.436,0,0,0,0,0,0,0,0,0,0,0,0,0,0,0,0,
8,6.914,8.075,-0.1738,6.273,-5.48,2.791,-1.335,-12.13,9.298,2.523,4.251,0.4329,6.307,5.771,6.434,3.593,0,0,0,0,0,0,0,0,0,0,0,0,0,0,0,0,
9,4.094,2.36,-3.828,0.6934,-22.98,4.37,-4.66,-17.64,10.53,0.1019,2.223,-3.727,0.5875,3.405,0.3078,-2.028,0,0,0,0,0,0,0,0,0,0,0,0,0,0,0,0,
10,0.4153,-1.355,6.165,-3.244,-15.91,-5.398,-5.579,-18.78,6.539,2.684,-3.331,-2.958,-2.26,1.163,-2.927,-4.148,0,0,0,0,0,0,0,0,0,0,0,0,0,0,0,0,
11,0.785,-0.721,9.065,-1.764,0.0814,-3.445,0.0236,-19.94,10.37,5.652,0.2749,3.971,5.365,6.082,6.292,5.235,0,0,0,0,0,0,0,0,0,0,0,0,0,0,0,0,
12,9.28,1.498,5.692,5.373,1.442,9.94,3.961,-21.07,20.9,4.779,15.2,12.24,14.15,13.14,17.38,15.53,0,0,0,0,0,0,0,0,0,0,0,0,0,0,0,0,
13,14.59,1.111,9.671,10.14,4.936,11.58,1.857,-19.79,22.84,3.487,20.8,15.26,13.87,12.66,18.54,14.41,0,0,0,0,0,0,0,0,0,0,0,0,0,0,0,0,
14,12.49,3.568,9.625,-2.833,15.44,11.94,4.417,-19.24,22.19,8.018,21.63,17.48,15.19,14.47,23.81,17.62,0,0,0,0,0,0,0,0,0,0,0,0,0,0,0,0,
15,14.33,11.49,8.419,-7.784,20.19,18.77,10.53,-15.03,30.02,14.86,34.43,25.26,24.16,25.28,39.54,33.72,0,0,0,0,0,0,0,0,0,0,0,0,0,0,0,0,
16,21.8,15.26,16.15,7.516,27.34,20.08,11.96,-0.1075,39.37,17.99,42.94,31.44,28.57,29.96,46.16,41.42,0,0,0,0,0,0,0,0,0,0,0,0,0,0,0,0,
17,28.43,12.78,19.61,12.95,29.63,22.33,10.36,7.863,37.16,16.99,32.35,27.38,22.68,20.72,32.3,29.48,0,0,0,0,0,0,0,0,0,0,0,0,0,0,0,0,
18,26.75,8.077,10.24,7.92,3.648,21.11,3.159,-6.974,20.14,10.32,16.71,17.62,13.42,11.2,15.62,16.64,0,0,0,0,0,0,0,0,0,0,0,0,0,0,0,0,
19,12.86,1.722,-5.456,-0.9801,-20.86,4.494,-8.634,-18.92,4.139,1.583,9.943,12.61,8.184,9.97,15.36,17.79,0,0,0,0,0,0,0,0,0,0,0,0,0,0,0,0,
20,0.9243,-0.2586,-14.53,-13.68,-21.69,-7.263,-12.48,-10.76,1.936,-1.671,10.95,11.5,7.533,7.872,19.09,19.13,0,0,0,0,0,0,0,0,0,0,0,0,0,0,0,0,
21,-0.0415,4.083,-7.926,-2.803,-32.46,-7.582,-6.479,-7.697,1.541,-3.208,9.344,4.753,5.248,2.154,9.823,10.03,0,0,0,0,0,0,0,0,0,0,0,0,0,0,0,0,
22,-4.576,5.165,-5.297,13.56,-40.07,-16.49,-3.619,-22.58,-5.019,-8.381,0.5097,-4.209,-0.9802,-0.4717,-0.1353,3.182,0,0,0,0,0,0,0,0,0,0,0,0,0,0,0,0,
23,-13.45,-0.5277,-17.83,-7.591,-15.93,-28.73,-10.61,-37.34,-5.986,-12.95,-2.212,-3.112,-4.705,-3.183,0.7056,2.915,0,0,0,0,0,0,0,0,0,0,0,0,0,0,0,0,
24,-9.885,-6.139,-17.54,-28.87,1.767,-29.36,-15.68,-36.54,0.8651,-15.46,5.688,3.009,-4.004,-7.936,2.347,1.368,0,0,0,0,0,0,0,0,0,0,0,0,0,0,0,0,
25,-0.9837,-7.766,-6.816,-21.79,-4.589,-26.34,-14.79,-24.39,-0.0852,-20.28,3.159,-0.8494,-6.275,-10.18,-1.826,-1.086,0,0,0,0,0,0,0,0,0,0,0,0,0,0,0,0,
26,-4.96,-8.591,-12.59,-15.88,-14.69,-27.64,-23.07,-17.42,-12.6,-25.11,-10.99,-8.831,-9.123,-10.1,-4.122,-0.4638,0,0,0,0,0,0,0,0,0,0,0,0,0,0,0,0,
27,-13.04,-9.33,-18.53,-3.582,-27.94,-27.88,-31.64,-19.95,-19.35,-22.53,-9.945,-5.904,-1.823,-6.054,1.179,5.891,0,0,0,0,0,0,0,0,0,0,0,0,0,0,0,0,
28,-9.667,-5.375,-14.02,15.76,-33.37,-26.3,-19.73,-19.09,-11.57,-13,4.105,2.53,9.757,1.885,8.067,15.21,0,0,0,0,0,0,0,0,0,0,0,0,0,0,0,0,
29,-0.4909,2.512,-12.45,13.83,-24.3,-25.69,-4.802,-6.757,-0.0923,-4.314,8.321,6.525,13.67,6.866,11.26,18.38,0,0,0,0,0,0,0,0,0,0,0,0,0,0,0,0,
30,2.809,5.885,-7.034,7.185,-26.94,-19.79,-6.686,3.826,2.202,-4.021,3.854,5.769,10.99,5.666,11.23,13.8,0,0,0,0,0,0,0,0,0,0,0,0,0,0,0,0,
31,0.6508,0.4198,-2.387,2.479,-39.08,-5.214,-11.48,-4.433,-3.2,-10.81,3.748,3.374,8.166,2.144,11.04,11.16,0,0,0,0,0,0,0,0,0,0,0,0,0,0,0,0,
32,5.025,-4.826,-5.148,-9.173,-25.77,8.131,-6.405,-15.51,1.068,-13.44,13.24,7.109,9.23,2.836,15.48,14.81,0,0,0,0,0,0,0,0,0,0,0,0,0,0,0,0,
33,13.78,-2.617,-2.67,-4.817,1.548,3.417,-1.456,-9.463,11.55,-12.09,18.28,9.56,7.471,3.729,17.03,14.43,0,0,0,0,0,0,0,0,0,0,0,0,0,0,0,0,
34,6.597,-1.764,-3.507,-0.336,2,-18.01,-5.744,-3.699,7.279,-11.43,7.178,2.011,2.355,2.358,13.27,12.63,0,0,0,0,0,0,0,0,0,0,0,0,0,0,0,0,
35,-4.095,-1.789,-6.622,-10.06,-13.27,-22.65,-8.428,-8.834,2.011,-3.001,3.729,4.37,9.601,10.83,17.83,22.98,0,0,0,0,0,0,0,0,0,0,0,0,0,0,0,0,
36,2.652,5.085,-1.658,-0.2432,-22.34,-10.66,-5.325,-12.12,4.489,3.543,9.891,12.4,18.73,18.52,19.01,27.67,0,0,0,0,0,0,0,0,0,0,0,0,0,0,0,0,
37,-1.014,4.857,-7.276,8.596,-35.43,-24.89,-9.713,-10.04,-6.574,-5.042,-1.374,2.844,12.42,10.56,8.499,16.55,0,0,0,0,0,0,0,0,0,0,0,0,0,0,0,0,
38,-18.65,-6.204,-10.65,-5.459,-39.07,-42.51,-17.56,-7.18,-16.5,-10.58,-9.742,-3.824,7.946,6.668,9.824,14.44,0,0,0,0,0,0,0,0,0,0,0,0,0,0,0,0,
39,-13.91,-12.11,3.21,-6.446,-29.45,-17.13,-18.26,-11.94,-7.707,-11.82,-0.1251,2.563,7.028,7.283,14.99,17.15,0,0,0,0,0,0,0,0,0,0,0,0,0,0,0,0,
40,-2.037,-15.73,0.552,-0.0457,-31.57,11.45,-17.58,-18.75,-0.0847,-19.68,0.1877,3.595,-0.4282,-0.4586,9.943,12.67,0,0,0,0,0,0,0,0,0,0,0,0,0,0,0,0,
41,-4.928,-16.33,-7.631,-3.806,-32.09,7.972,-13.93,-11.13,7.051,-15.15,0.3348,8.799,3.828,3.191,16.32,19.25,0,0,0,0,0,0,0,0,0,0,0,0,0,0,0,0,
42,-1.276,-3.408,7.266,-3.436,-28.42,-0.0706,-4.696,-4.775,17.57,-1.862,16.11,20.99,17.47,16.55,27.22,30.2,0,0,0,0,0,0,0,0,0,0,0,0,0,0,0,0,
43,4.86,7.616,10.32,-3.371,-30.65,-3.871,-2.135,-12.57,13.05,-3.201,21.19,22.35,19.12,16.81,21.85,26.74,0,0,0,0,0,0,0,0,0,0,0,0,0,0,0,0,
44,-2.318,6.164,-11.07,-6.11,-9.459,-6.791,-8.462,-13.27,1.761,-6.068,9.316,14.92,15.37,13.16,13.78,18.66,0,0,0,0,0,0,0,0,0,0,0,0,0,0,0,0,
45,-7.694,4.976,-17.58,-11.77,6.281,0.3958,-12.8,-8.468,1.711,-0.543,3.769,8.539,13.79,13.39,12.22,15.28,0,0,0,0,0,0,0,0,0,0,0,0,0,0,0,0,
46,-6.981,2.927,3.539,-20.62,-20.44,2.981,-15.45,-16.46,6.076,-0.2258,8.104,9.437,10.65,10.65,14.45,18.38,0,0,0,0,0,0,0,0,0,0,0,0,0,0,0,0,
47,-9.043,-5.269,22.03,-9.358,-21.1,-8.166,-19.75,-29.1,10.25,-5.37,11.43,16.15,10.31,10.87,21.14,26.97,0,0,0,0,0,0,0,0,0,0,0,0,0,0,0,0,
48,-6.558,-8.03,13.49,7.613,16.45,-9.392,-15.93,-38.02,18.39,-10.26,15.23,18.32,13.18,13.92,26,32.21,0,0,0,0,0,0,0,0,0,0,0,0,0,0,0,0,
49,0.7579,-3.206,-2.966,-6.775,18.14,2.002,-8.304,-48.82,22.31,-14.57,20.68,18.23,11.57,9.224,24.92,30.79,0,0,0,0,0,0,0,0,0,0,0,0,0,0,0,0,
50,-1.411,-3.091,-4.892,-28.49,-4.353,2.635,-15.4,-55.52,14.42,-16.81,18.58,19.34,5.694,1.787,21.45,25.22,0,0,0,0,0,0,0,0,0,0,0,0,0,0,0,0,
51,-8.868,-6.64,-2.33,-24,-9.005,-6.756,-26.21,-48.29,8.934,-19,13.98,15.14,1.547,1.433,20.39,20.11,0,0,0,0,0,0,0,0,0,0,0,0,0,0,0,0,
52,-8.636,-7.133,-1.832,-10.14,-9.211,-8.328,-26.33,-41.47,12.79,-22.44,14.73,8.399,-1.485,2.968,25.11,22.09,0,0,0,0,0,0,0,0,0,0,0,0,0,0,0,0,
53,-6.703,-8.688,-0.2849,-14.01,-5.205,1.748,-26.12,-47.55,13.64,-22.24,13.95,7.193,-2.121,3.279,32.06,29.23,0,0,0,0,0,0,0,0,0,0,0,0,0,0,0,0,
54,-3.887,-8.123,2.426,-26.77,12.51,14.28,-21.95,-46.87,14.84,-17.45,14.93,11.15,4.61,6.641,34.31,32.46,0,0,0,0,0,0,0,0,0,0,0,0,0,0,0,0,
55,7.241,-0.6373,9.333,-22.89,26.74,18.29,-11.47,-33.48,20.72,-14.32,19.62,13.32,11.31,8.975,32.08,30.63,0,0,0,0,0,0,0,0,0,0,0,0,0,0,0,0,
56,14,3.925,13.93,-14.32,29.37,14.29,-8.921,-29.86,21.51,-14.04,18.26,11.84,13.08,9.88,31.35,31.28,0,0,0,0,0,0,0,0,0,0,0,0,0,0,0,0,
57,6.722,2.843,6.454,-23.52,30.1,9.364,-10.66,-37.04,18.49,-13.32,14.02,9.862,13.37,11.89,28.37,30.46,0,0,0,0,0,0,0,0,0,0,0,0,0,0,0,0,
58,-3.786,-0.5049,-6.154,-33.78,28.17,4.423,-13.41,-41.36,13.01,-14.55,10.83,6.519,8.793,9.129,20.65,22.56,0,0,0,0,0,0,0,0,0,0,0,0,0,0,0,0,
59,-6.6,-5.655,-7.571,-28.03,23.3,2.792,-17.34,-44.19,10.7,-15.54,11.05,9.522,8.175,9.774,24.07,23.69,0,0,0,0,0,0,0,0,0,0,0,0,0,0,0,0,
60,1.937,-0.7714,5.778,-12.44,29.05,4.32,-10.33,-44.03,23.2,-8.324,19.18,22.51,20.04,20.86,36.08,35.37,0,0,0,0,0,0,0,0,0,0,0,0,0,0,0,0,
61,12.46,12.72,16.24,2.21,35.9,4.337,-3.668,-33.13,30.66,0.3305,21.78,26.26,25.48,24.38,35.55,36.58,0,0,0,0,0,0,0,0,0,0,0,0,0,0,0,0,
62,14.47,14.64,14.54,2.322,20.92,10.8,-9.135,-21.33,21.18,-2.715,16.17,19.95,20.16,17.76,30.4,30.82,0,0,0,0,0,0,0,0,0,0,0,0,0,0,0,0,
63,14.47,10.48,13.3,-7.152,9.551,23.38,-7.548,-20.61,18.71,-10.19,19.22,21.39,20.38,15.48,30.17,28.64,0,0,0,0,0,0,0,0,0,0,0,0,0,0,0,0,
64,15.92,15.36,22.05,-4.011,34.42,27.7,3.643,-17.93,23.22,-6.478,24.94,23.38,23.37,15.44,26.56,26.77,0,0,0,0,0,0,0,0,0,0,0,0,0,0,0,0,
65,15.46,22.01,38.08,1.628,67.56,26.93,13.01,-9.545,24.75,1.279,24.18,21.22,25.6,18.11,29.61,31.48,0,0,0,0,0,0,0,0,0,0,0,0,0,0,0,0,
66,17.33,25.22,43.94,-9.555,73.31,29.98,19.5,-9.975,32.67,-1.244,27.96,26.38,31.35,27.34,42.04,40.54,0,0,0,0,0,0,0,0,0,0,0,0,0,0,0,0,
67,18.97,25.04,32.82,-12.57,57.47,29.22,13.24,-9.607,35.3,-5.897,32.82,28.19,30.88,29.81,41.4,38.4,0,0,0,0,0,0,0,0,0,0,0,0,0,0,0,0,
68,13.18,17.54,31.03,5.005,40.21,18.96,-2.21,-5.038,22.75,-4.527,26.33,17.29,22.62,23.1,31.57,30.76,0,0,0,0,0,0,0,0,0,0,0,0,0,0,0,0,
69,8.928,12.12,39.03,14.43,35.39,13.09,-4.742,-10.41,18.13,-3.401,21.12,13.81,21.46,22.27,34.58,30.94,0,0,0,0,0,0,0,0,0,0,0,0,0,0,0,0,
70,15.47,15.05,32.05,14.51,39.07,22.07,1.075,-11.77,26.38,-1.267,27.92,22.03,25.76,25.58,41.48,33.46,0,0,0,0,0,0,0,0,0,0,0,0,0,0,0,0,
71,21.29,14.53,27.68,13.56,36,27,0.211,-9.509,27.69,2.957,28.79,22.37,25.75,25.14,37.16,32.69,0,0,0,0,0,0,0,0,0,0,0,0,0,0,0,0,
72,14.1,9.947,35.01,-0.8908,28.2,11.86,-4.552,-22.64,17.97,1.494,16.25,13.85,24.46,25.25,30.47,31.37,0,0,0,0,0,0,0,0,0,0,0,0,0,0,0,0,
73,0.6698,7.316,28.32,-16.09,24.45,-4.993,-10.05,-30.89,5.362,-2.395,8.825,7.631,22.67,24.97,27.72,28.31,0,0,0,0,0,0,0,0,0,0,0,0,0,0,0,0,
74,-2.085,6.291,24.69,-17.61,26.12,1.831,-6.665,-26.82,2.894,-0.2439,13.33,9.206,21.11,23.23,26.67,25.47,0,0,0,0,0,0,0,0,0,0,0,0,0,0,0,0,
75,11.72,12.62,42.3,-10.66,32.9,26.21,9.648,-29.81,11.59,2.034,14.77,15.73,22.63,22.03,26.04,23.89,0,0,0,0,0,0,0,0,0,0,0,0,0,0,0,0,
76,21.78,17.09,44.62,5.131,30.8,34.14,12.44,-29.34,7.003,-1.307,3.903,12.88,20.37,16.05,20.76,18.3,0,0,0,0,0,0,0,0,0,0,0,0,0,0,0,0,
77,16.07,7.589,29.58,13.95,20.85,23.99,-2.865,-20.37,-5.127,-0.8091,-2.559,6.223,17.17,12.7,17.58,17.63,0,0,0,0,0,0,0,0,0,0,0,0,0,0,0,0,
78,14.94,2.678,33.95,8.574,32.97,24.13,-8.179,-14.96,3.942,5.383,6.531,12.32,19.34,17.69,23.03,24.69,0,0,0,0,0,0,0,0,0,0,0,0,0,0,0,0,
79,19.19,8.188,49.05,10.13,50.28,27.02,-1.981,-10.27,14.21,7.974,11.81,19.2,21.13,18.02,24.76,24.32,0,0,0,0,0,0,0,0,0,0,0,0,0,0,0,0,
80,17.83,14.58,55.23,14.22,34.39,31.27,8.51,-11.56,8.755,10.6,10.42,20.67,26.88,18.51,22.17,22.67,0,0,0,0,0,0,0,0,0,0,0,0,0,0,0,0,
81,23.26,26.21,53.86,9.485,17.99,48.34,20.41,-18,8.32,12.23,11.04,18.86,29.27,21.35,17.33,23.11,0,0,0,0,0,0,0,0,0,0,0,0,0,0,0,0,
82,21.96,26.02,43.75,4.833,32.37,41.89,15.19,-6.657,9.111,5.309,1.036,6.004,14.88,12.96,6.774,14.69,0,0,0,0,0,0,0,0,0,0,0,0,0,0,0,0,
83,5.021,7.522,44.27,-1.157,44.92,15.45,-1.84,12.32,7.901,2.245,-6.268,2.297,9.369,10.03,9.031,13.99,0,0,0,0,0,0,0,0,0,0,0,0,0,0,0,0,
84,6.53,2.305,61.03,-7.196,41.92,12.83,-13.44,4.469,16.34,2.906,5.655,13.83,18.71,18.85,21.46,22.88,0,0,0,0,0,0,0,0,0,0,0,0,0,0,0,0,
85,17.04,7.607,60.22,-1.975,45.65,8.661,-21.88,-19.37,20.5,-5.201,12.39,11.45,17.03,18.54,20.66,22.12,0,0,0,0,0,0,0,0,0,0,0,0,0,0,0,0,
86,10.74,7.286,50.69,7.35,55.94,-0.6833,-14.15,-24.89,18.45,-6.12,11.3,7.079,17.79,20.46,20.75,25.03,0,0,0,0,0,0,0,0,0,0,0,0,0,0,0,0,
87,13.8,15.46,54.14,2.481,57.9,23.92,7.108,-15.83,23.32,4.202,16.23,16.68,28.11,29.41,27.15,32.5,0,0,0,0,0,0,0,0,0,0,0,0,0,0,0,0,
88,27.73,23.23,46.82,-9.527,57.05,46.42,8.108,-13.94,29.91,4.301,18.17,18.06,24.54,22.8,22.75,26.14,0,0,0,0,0,0,0,0,0,0,0,0,0,0,0,0,
89,27.2,14,38.58,-4.724,59.11,31.18,-7.065,-18.96,34.58,-4.947,19.77,12.6,15.09,10.29,20.06,19.76,0,0,0,0,0,0,0,0,0,0,0,0,0,0,0,0,
90,20.14,3.726,48.79,3.216,48.27,10.21,-14.35,-18.87,29.59,-10.85,23.31,12.46,15.62,10.72,24.68,22.28,0,0,0,0,0,0,0,0,0,0,0,0,0,0,0,0,
91,17.1,4.432,48.33,-4.095,36.48,5.386,-11.68,-9.328,15.28,-7.973,18.05,9.697,19.25,15.29,19.74,21.42,0,0,0,0,0,0,0,0,0,0,0,0,0,0,0,0,
92,16.84,11.17,40.79,1.778,47.85,10.41,-2.307,1.763,10.5,0.0551,5.804,2.419,17.98,12.44,8.886,14.95,0,0,0,0,0,0,0,0,0,0,0,0,0,0,0,0,
93,14.96,13.32,47.71,20.11,49.02,9.398,1.26,1.982,8.033,-3.322,-4.13,-3.424,9.321,3.141,6.838,8.344,0,0,0,0,0,0,0,0,0,0,0,0,0,0,0,0,
94,9.726,4.665,58.09,23.65,41.24,6.117,-2.881,-6.764,6.624,-12.76,5.329,2.89,7.636,1.204,18.57,12.45,0,0,0,0,0,0,0,0,0,0,0,0,0,0,0,0,
95,20.31,3.638,85.62,43.62,80.16,33.41,9.145,-1.734,26.22,-3.909,31.26,21.42,23.68,12.64,32.81,25.59,0,0,0,0,0,0,0,0,0,0,0,0,0,0,0,0,
96,46.36,22.39,132.5,94.28,125.2,76.05,36.16,32.5,41.81,14,34.19,28.18,33.16,19.4,29.02,26.07,0,0,0,0,0,0,0,0,0,0,0,0,0,0,0,0,
97,51.37,35.11,170,137.9,132.6,87.72,55.61,76.07,32.46,21.1,14.2,19.13,25.77,14.32,15.13,15.58,0,0,0,0,0,0,0,0,0,0,0,0,0,0,0,0,
98,40.7,33.42,223.5,188.7,154.9,100.1,76.6,109.3,33.6,29.48,15.14,23.59,32.16,17.6,20.73,19.67,0,0,0,0,0,0,0,0,0,0,0,0,0,0,0,0,
99,58.39,45.88,300.7,266.2,182.7,156,111.2,144.7,59.1,43.26,38.17,47.53,54.04,31.7,39.92,35.32,0,0,0,0,0,0,0,0,0,0,0,0,0,0,0,0,
100,93.86,66.51,337.3,319.3,201.3,209,138.1,185,84.19,45.13,53.99,62.89,59.39,34.44,44.79,39.52,0,0,0,0,0,0,0,0,0,0,0,0,0,0,0,0,
101,108.8,72.51,330.9,327.6,252.2,231,155,214.1,97.64,46.61,61.88,65.84,60.81,34.21,44.83,41.78,0,0,0,0,0,0,0,0,0,0,0,0,0,0,0,0,
102,114.3,86.11,329.9,326.3,274.8,254.7,182.1,226.7,99.74,63.1,68.59,72.93,78.49,48.65,52.54,53.99,0,0,0,0,0,0,0,0,0,0,0,0,0,0,0,0,
103,119.8,108,331,320.7,251.5,266.3,201.7,224.6,97.25,73.12,66.81,73.39,80.98,52.98,47.35,51.89,0,0,0,0,0,0,0,0,0,0,0,0,0,0,0,0,
104,114.6,105.9,329.1,313.5,269.6,256.5,197.9,218.6,105.5,73.74,66.66,67.37,67.76,42.13,38.72,40.17,0,0,0,0,0,0,0,0,0,0,0,0,0,0,0,0,
105,119.1,97.85,324.7,316.9,250.1,254.3,187.8,211.7,116.2,80.66,76.78,73.76,70.6,44.22,48.37,46.18,0,0,0,0,0,0,0,0,0,0,0,0,0,0,0,0,
106,128.5,98.72,301.3,307.7,148.3,229,167.4,191.6,108.9,77.86,75.35,76.1,69.98,45.67,50.36,47.77,0,0,0,0,0,0,0,0,0,0,0,0,0,0,0,0,
107,113,84.28,284.6,282.8,133.2,183.7,142.9,173.5,99.67,65.42,65.07,68.29,58.1,34.12,40.34,35.83,0,0,0,0,0,0,0,0,0,0,0,0,0,0,0,0,
108,100.8,71.73,287.4,266.8,189.6,186.6,142.7,168.5,100.2,66.28,66.08,70.09,61.18,32.75,43.01,38.09,0,0,0,0,0,0,0,0,0,0,0,0,0,0,0,0,
109,105.2,78.25,258,244.3,153,202.6,147.4,149.4,88.16,67.31,61.25,67.02,62.55,33.82,41.35,40.19,0,0,0,0,0,0,0,0,0,0,0,0,0,0,0,0,
110,96.49,76.1,201.2,207.5,78.41,180.7,135.1,123.4,73.39,57.1,46.84,53.28,50.37,23.59,26.31,26.84,0,0,0,0,0,0,0,0,0,0,0,0,0,0,0,0,
111,88.09,67.3,174.5,183,63.72,164.6,124.3,114.3,73.74,52.37,39.28,47.75,47.26,19.1,19.36,21.05,0,0,0,0,0,0,0,0,0,0,0,0,0,0,0,0,
112,86.97,67.13,162.2,165.2,52.63,151.7,112.7,99.27,61.61,51.08,27.53,39.48,44.39,17.4,15.24,19.76,0,0,0,0,0,0,0,0,0,0,0,0,0,0,0,0,
113,69.67,59.29,131.6,131.1,10.34,123.3,94.39,72.21,40.98,42.51,17.45,25.7,30.13,7.333,7.171,9.015,0,0,0,0,0,0,0,0,0,0,0,0,0,0,0,0,
114,56.13,45.14,105.3,92.8,5.815,117.9,81.2,58.32,46.74,32.53,23.55,23.47,22.84,1.918,5.623,1.935,0,0,0,0,0,0,0,0,0,0,0,0,0,0,0,0,
115,58.28,37.22,84.98,72.25,51.36,116.3,64.39,49.26,56.78,23.37,20.61,21.33,21.68,0.7507,3.531,-0.2353,0,0,0,0,0,0,0,0,0,0,0,0,0,0,0,0,
116,49.12,26.64,49.16,58.48,38.23,87.06,45.74,29.73,46.14,14.64,7.388,15.9,17.9,-5.523,-0.8195,-2.915,0,0,0,0,0,0,0,0,0,0,0,0,0,0,0,0,
117,39.17,21.39,22.43,40.57,-31.01,76.09,50.69,18.3,41.01,14.52,14.1,26.62,24.83,-4.179,7.363,5.824,0,0,0,0,0,0,0,0,0,0,0,0,0,0,0,0,
118,48.13,32.43,23.93,35.24,-30.62,85.08,63.79,21.52,45.69,21.03,23.66,38.09,35.31,3.666,15.72,15.89,0,0,0,0,0,0,0,0,0,0,0,0,0,0,0,0,
119,50.96,34.89,16.1,28.65,-6.44,68.59,52.06,17.24,36.74,23.06,11.51,27.06,26.9,-0.2409,6.134,5.942,0,0,0,0,0,0,0,0,0,0,0,0,0,0,0,0,
120,38.99,23.09,-13.4,4.42,-37.12,57.18,33.39,6.702,26.68,22.36,3.525,14.7,14.19,-5.901,-4.248,-7.277,0,0,0,0,0,0,0,0,0,0,0,0,0,0,0,0,
121,36.73,21.8,-27.83,-3.061,-39.65,77.02,33.23,7.701,33.71,22.42,10.96,15.56,14.88,-3.555,-5.881,-9.451,0,0,0,0,0,0,0,0,0,0,0,0,0,0,0,0,
122,41.8,25.16,-23.21,1.475,-20.16,78.09,39.61,10.21,40.41,20.66,11.08,14.37,17.71,-6.975,-10.52,-12.83,0,0,0,0,0,0,0,0,0,0,0,0,0,0,0,0,
123,41.12,22.44,-26.3,-14.37,-43.4,53.81,42.98,3.886,37.27,19.2,8.576,14.48,19.41,-11.47,-10.63,-12.3,0,0,0,0,0,0,0,0,0,0,0,0,0,0,0,0,
124,39.57,21.29,-43.51,-33.65,-53.42,40.76,39.08,-4.903,32.52,13.73,12.24,17.97,19.08,-7.812,-3.285,-3.588,0,0,0,0,0,0,0,0,0,0,0,0,0,0,0,0,
125,28.69,10.79,-69.33,-55.68,-48.56,24.29,17.92,-17.81,21.11,2.841,2.93,7.456,8.422,-7.796,-5.528,-2.555,0,0,0,0,0,0,0,0,0,0,0,0,0,0,0,0,
126,6.331,-7.853,-96.82,-83.17,-70.94,0.6322,-3.589,-32.17,3.357,-1.562,-17.2,-8.148,-3.316,-14.66,-16.65,-11,0,0,0,0,0,0,0,0,0,0,0,0,0,0,0,0,
127,-2.386,-11.96,-115.2,-90.79,-80.57,0.8855,-7.139,-41.78,-5.61,-4.261,-23.53,-9.704,-7.329,-21.09,-24.33,-19.65,0,0,0,0,0,0,0,0,0,0,0,0,0,0,0,0,
128,5.473,-8.647,-117.5,-96.99,-82.43,9.588,-6.845,-50.59,-0.7951,-12.66,-13.14,-3.833,-6.568,-23.39,-23.81,-20.86,0,0,0,0,0,0,0,0,0,0,0,0,0,0,0,0,
129,9.931,-9.565,-109.5,-110.3,-102.7,2.131,-9.164,-52.02,6.293,-14.27,-3.976,-0.9128,-2.461,-22.38,-17.76,-14.09,0,0,0,0,0,0,0,0,0,0,0,0,0,0,0,0,
130,6.487,-8.564,-108.1,-103.7,-100.2,-3.532,-7.401,-42.26,0.0272,-10.89,-11.99,-3.083,-0.9365,-25.36,-17.47,-13.65,0,0,0,0,0,0,0,0,0,0,0,0,0,0,0,0,
131,0.6616,-10.37,-116.1,-99.18,-90.2,-2.877,-8.09,-40.59,-14.06,-12.34,-28.57,-6.409,-2.032,-29.81,-22.23,-19.6,0,0,0,0,0,0,0,0,0,0,0,0,0,0,0,0,
132,-2.567,-14.37,-123.1,-110.1,-112.9,-12.17,-12.47,-52.86,-17.63,-11.85,-31.61,-5.726,0.335,-26.41,-19.56,-17.18,0,0,0,0,0,0,0,0,0,0,0,0,0,0,0,0,
133,-0.9905,-12.21,-134.6,-112.9,-121.2,-22.22,-11.91,-61.75,-16.74,-9.103,-22.61,-5.206,1.11,-19.6,-13.28,-10.57,0,0,0,0,0,0,0,0,0,0,0,0,0,0,0,0,
134,0.2947,-13.96,-147.8,-119.6,-119,-23.25,-13.28,-64.34,-21.71,-11.17,-17.72,-9.435,-5.08,-19.02,-16.06,-12.67,0,0,0,0,0,0,0,0,0,0,0,0,0,0,0,0,
135,-6.361,-24.98,-142.4,-130.7,-152.2,-30.89,-25.47,-67.72,-20.94,-14.73,-16.5,-13.42,-13.42,-25.53,-23.33,-21.12,0,0,0,0,0,0,0,0,0,0,0,0,0,0,0,0,
136,-13.31,-28.18,-128.8,-119.6,-143.6,-37.37,-33.08,-65.02,-11.67,-15.48,-9.756,-8.716,-12.77,-29.38,-20.29,-22.11,0,0,0,0,0,0,0,0,0,0,0,0,0,0,0,0,
137,-4.452,-18.82,-133.2,-106.8,-83.19,-25.96,-30.08,-59.37,-10.56,-18.07,-9.256,-2.474,-4.407,-27.95,-15.33,-17.25,0,0,0,0,0,0,0,0,0,0,0,0,0,0,0,0,
138,1.964,-17.91,-142.1,-116.7,-96.97,-29.67,-36.76,-65.41,-22.06,-25.71,-27.76,-11.36,-6.194,-32.23,-25.37,-22.27,0,0,0,0,0,0,0,0,0,0,0,0,0,0,0,0,
139,-16.44,-31.57,-138.1,-126.3,-145.1,-59.43,-50.29,-73.43,-33.59,-32.27,-41.76,-26.91,-17.71,-39.3,-37.41,-31.39,0,0,0,0,0,0,0,0,0,0,0,0,0,0,0,0,
140,-34.11,-44.98,-147.6,-125.8,-131.9,-70.96,-57.97,-75.87,-41.39,-37.71,-40.58,-36.66,-28.56,-41.46,-42.37,-34.81,0,0,0,0,0,0,0,0,0,0,0,0,0,0,0,0,
141,-39.63,-58.5,-169.5,-130.7,-122.9,-67.13,-69.95,-83.99,-46.45,-42.76,-45.44,-45.41,-39.11,-42.14,-47.23,-38.04,0,0,0,0,0,0,0,0,0,0,0,0,0,0,0,0,
142,-49.53,-67.92,-152.3,-127.6,-130.5,-71.61,-73.58,-86.7,-40.9,-35.7,-44.23,-42.33,-37.57,-36.79,-40.39,-34.77,0,0,0,0,0,0,0,0,0,0,0,0,0,0,0,0,
143,-44.8,-52.89,-111.3,-103.9,-107,-58.44,-52.41,-74.2,-26.19,-23.5,-24.75,-22.9,-21.86,-27.68,-24.29,-24.14,0,0,0,0,0,0,0,0,0,0,0,0,0,0,0,0,
144,-18.44,-27.42,-105.7,-93.92,-84.79,-28.71,-37.05,-65.48,-15.06,-24.7,-16.23,-10.03,-13.71,-26.93,-20.01,-20.33,0,0,0,0,0,0,0,0,0,0,0,0,0,0,0,0,
145,-3.826,-22.16,-118.5,-114.1,-81.98,-17.18,-43.93,-65.84,-15.91,-29.57,-18.16,-7.213,-12.54,-27.75,-18.1,-18.94,0,0,0,0,0,0,0,0,0,0,0,0,0,0,0,0,
146,-3.885,-28.43,-118.8,-122.5,-101,-21.23,-48.22,-64.77,-23.67,-27.35,-7.936,-3.045,-5.182,-22.73,-8.258,-12.49,0,0,0,0,0,0,0,0,0,0,0,0,0,0,0,0,
147,-4.146,-26.83,-118.8,-104,-125.3,-31.09,-42.47,-61.14,-21.23,-23.94,-1.978,-2.015,1.684,-19.02,-5.23,-9.229,0,0,0,0,0,0,0,0,0,0,0,0,0,0,0,0,
148,-9.556,-21.79,-115.5,-95.45,-111.6,-37.97,-36.77,-56.74,-12.51,-19.27,-9.164,-3.366,4.079,-17.58,-7.556,-9.48,0,0,0,0,0,0,0,0,0,0,0,0,0,0,0,0,
149,-10.86,-17.62,-100.8,-97.47,-97.17,-17.88,-29.91,-49.4,-11.62,-13.1,-3.545,1.129,8.145,-13.81,-0.6594,-4.945,0,0,0,0,0,0,0,0,0,0,0,0,0,0,0,0,
150,-0.7214,-9.644,-84.57,-82.44,-95.62,7.72,-19.53,-33.01,-3.269,-5.753,17.26,7.307,14.13,-7.461,13.33,5.607,0,0,0,0,0,0,0,0,0,0,0,0,0,0,0,0,
151,4.856,0.8817,-66.71,-60.38,-58.3,10.25,-4.896,-10.13,18.29,8.467,34.65,16.82,24.95,3.317,31.29,21.06,0,0,0,0,0,0,0,0,0,0,0,0,0,0,0,0,
152,15.06,13.83,-27.96,-27.04,-20.88,32.46,18.12,13.21,37.51,25.2,49.63,36.41,40.21,17.06,47.53,33.63,0,0,0,0,0,0,0,0,0,0,0,0,0,0,0,0,
153,40.85,28.02,38.37,34.97,4.155,84.97,43.01,46.17,50.46,32.22,53.61,43.8,41.71,19.12,39.87,26.9,0,0,0,0,0,0,0,0,0,0,0,0,0,0,0,0,
154,53.32,35.52,100.4,96.42,53.29,117.9,64.9,89.33,53.56,34.34,38.38,32.19,36.46,11.9,19.53,14.55,0,0,0,0,0,0,0,0,0,0,0,0,0,0,0,0,
155,57.51,49.53,160.2,166.6,87.21,149.4,101,136.4,57.71,49.09,38.18,40.15,55.39,19.86,24.3,25.14,0,0,0,0,0,0,0,0,0,0,0,0,0,0,0,0,
156,83.48,81.52,259,275.9,107.9,206.4,150.9,195.3,76,70.5,58.93,61.48,78.07,33.9,36.8,37.2,0,0,0,0,0,0,0,0,0,0,0,0,0,0,0,0,
157,103.2,103,345.2,349.5,157.4,239.1,187,250,87.72,79.88,63.72,61.99,77.94,34.89,33.43,30.93,0,0,0,0,0,0,0,0,0,0,0,0,0,0,0,0,
158,102.6,106,350.7,341.2,191.8,243.1,206.8,268.4,91.51,86.9,61.26,65.19,83.57,40.29,37.98,32.57,0,0,0,0,0,0,0,0,0,0,0,0,0,0,0,0,
159,113.6,114,332,327.2,195.9,260.7,220.2,264.1,106.4,101.5,72.74,80.34,97.81,52.34,47.39,42,0,0,0,0,0,0,0,0,0,0,0,0,0,0,0,0,
160,127,119.5,340,338.2,216.6,275.8,223.9,266.2,120.5,108.4,85.13,82.38,96.32,56.37,45.77,43.15,0,0,0,0,0,0,0,0,0,0,0,0,0,0,0,0,
161,125.2,113,345.5,339.9,237.8,270.8,219.2,267.3,123.1,102.8,88.43,79.91,88.35,55.61,45.34,42.12,0,0,0,0,0,0,0,0,0,0,0,0,0,0,0,0,
162,121.2,102.7,334.3,329.1,226.6,261.5,205.6,251.2,116.5,92.38,77.96,75.82,77.6,45.66,40.55,32.91,0,0,0,0,0,0,0,0,0,0,0,0,0,0,0,0,
163,115.3,85.12,312.3,308.2,212.3,250.2,186.2,224.7,108.4,81.18,67.4,66.25,65.2,33.2,32.42,23.17,0,0,0,0,0,0,0,0,0,0,0,0,0,0,0,0,
164,115.6,72.63,285.7,275.2,210.8,239.3,175.9,202.7,113.6,75.72,77.03,72.43,70.41,38.59,41.4,34.81,0,0,0,0,0,0,0,0,0,0,0,0,0,0,0,0,
165,132.5,84.7,263.2,240.3,192.3,224.4,170.5,187.8,119,78.57,85.53,85.91,85.33,47.36,53.39,49.13,0,0,0,0,0,0,0,0,0,0,0,0,0,0,0,0,
166,137.4,100.1,234.2,212.4,160.8,187.6,157.3,175.4,106.9,82.66,76.63,81.31,87.76,43.2,48.33,44.82,0,0,0,0,0,0,0,0,0,0,0,0,0,0,0,0,
167,115.9,95.45,195,194.7,146.3,150.7,142.7,162.3,91.27,78.72,65.52,67.99,78.26,38.13,36.49,35.01,0,0,0,0,0,0,0,0,0,0,0,0,0,0,0,0,
168,94.83,84.8,159.3,173.6,135.7,145.5,134.4,144.9,84.67,66.58,58.73,63.64,70.75,38.6,34.1,35.04,0,0,0,0,0,0,0,0,0,0,0,0,0,0,0,0,
169,90.12,83.95,122.8,133.4,105.4,142.8,127.1,119.2,85.02,56.61,60.97,69.4,73.23,40.5,43.07,43.11,0,0,0,0,0,0,0,0,0,0,0,0,0,0,0,0,
170,88.76,80.74,79.58,87.77,74.2,114.5,110.4,89.51,83.19,50.97,67.52,73.25,73.4,39.35,48.23,45.48,0,0,0,0,0,0,0,0,0,0,0,0,0,0,0,0,
171,79.87,65.38,44.73,53.65,67.65,92.87,88.19,68.38,74,46.05,65.37,69.37,65.27,36.35,45.85,41.99,0,0,0,0,0,0,0,0,0,0,0,0,0,0,0,0,
172,72.24,54.07,21.64,24.62,63.96,90.15,73.23,57.51,68.2,42.64,61.32,63.36,59.59,35.53,43.29,41.11,0,0,0,0,0,0,0,0,0,0,0,0,0,0,0,0,
173,64.84,50.02,-4.851,-8.005,31.96,69.32,59.09,46,57.83,35.61,50.64,47.46,48.81,27.54,28.43,31.07,0,0,0,0,0,0,0,0,0,0,0,0,0,0,0,0,
174,42.88,36,-36.92,-36.56,2.72,33.7,40.15,30.76,31.83,26.54,26.68,22.27,31.71,10.75,5.37,11.9,0,0,0,0,0,0,0,0,0,0,0,0,0,0,0,0,
175,23.73,22.8,-61.87,-53.7,5.642,29.51,32.13,18.48,22.76,27.18,19.48,15.24,31.1,4.566,4.072,7.637,0,0,0,0,0,0,0,0,0,0,0,0,0,0,0,0,
176,33.31,29.65,-74.51,-68.33,2.795,53.03,36.35,13.73,42.05,30.83,36.35,29.73,42.15,9.248,17.94,14.85,0,0,0,0,0,0,0,0,0,0,0,0,0,0,0,0,
177,50.35,37.3,-84.99,-88.63,-19.39,56.09,34.86,10.03,49.03,24.37,42.83,37.81,41.44,5.54,16.64,10.93,0,0,0,0,0,0,0,0,0,0,0,0,0,0,0,0,
178,48.32,27.42,-104.6,-109.4,-24.27,32.93,23.27,-4.325,35.01,14.33,32.02,30.57,33.56,-2.374,4.49,2.452,0,0,0,0,0,0,0,0,0,0,0,0,0,0,0,0,
179,37.38,15.39,-127.3,-127.3,-19.89,16.23,7.926,-24.71,26.17,8.968,21.54,20.63,29.45,-1.312,0.3232,4.876,0,0,0,0,0,0,0,0,0,0,0,0,0,0,0,0,
180,26.05,7.906,-143.5,-144.7,-33.87,6.423,-8.881,-35.25,22.7,5.886,14.15,14.86,24.52,-0.3635,1.58,9.155,0,0,0,0,0,0,0,0,0,0,0,0,0,0,0,0,
181,12.89,-3.621,-156.1,-157.8,-38.98,-8.609,-22.41,-32.86,16.8,4.482,12.5,14.3,18.78,-4.158,2.358,7.211,0,0,0,0,0,0,0,0,0,0,0,0,0,0,0,0,
182,7.532,-10.58,-164,-162.6,-32.9,-11.22,-27.81,-29.03,15.45,5.202,20.38,18.81,17.85,-3.783,5.972,6.392,0,0,0,0,0,0,0,0,0,0,0,0,0,0,0,0,
183,11.67,-5.063,-162.4,-164.7,-61.55,-2.306,-27.26,-34.44,18.9,5.514,26.3,24.92,21.94,-3.373,11.74,7.8,0,0,0,0,0,0,0,0,0,0,0,0,0,0,0,0,
184,16.36,5.527,-157.8,-166.8,-87.28,-4.379,-21.57,-43.65,18.95,5.638,22.64,29.28,28.91,-6.999,14.33,7.487,0,0,0,0,0,0,0,0,0,0,0,0,0,0,0,0,
185,17.9,15.93,-159.9,-166.7,-68.71,-6.425,-14.2,-50.02,11.12,5.201,16.12,28.82,32.97,-8.343,11.85,6.188,0,0,0,0,0,0,0,0,0,0,0,0,0,0,0,0,
186,13.59,19.6,-167.2,-167.9,-79.26,0.9664,-14.48,-60.9,0.8785,2.601,10.18,24,30.67,-7.202,8.217,6.441,0,0,0,0,0,0,0,0,0,0,0,0,0,0,0,0,
187,5.383,13.18,-168.6,-171.7,-110.6,-7.84,-22.65,-72.34,-8.124,-0.3185,0.2055,17.57,25.08,-4.956,3.011,7.712,0,0,0,0,0,0,0,0,0,0,0,0,0,0,0,0,
188,-4.021,4.398,-166.2,-173.9,-83.44,-34.46,-33.7,-73.66,-22.6,-2.889,-11.01,9.139,17.04,-1.582,-6.952,5.394,0,0,0,0,0,0,0,0,0,0,0,0,0,0,0,0,
189,-11.7,-1.773,-167.9,-173.5,-69.25,-43.39,-42.86,-71.27,-29.04,-3.283,-10.22,5.835,12.16,-0.1378,-11.64,1.873,0,0,0,0,0,0,0,0,0,0,0,0,0,0,0,0,
190,-8.549,-5.135,-161.1,-172.1,-116.9,-34.39,-47.52,-70.87,-18.49,-3.397,-7.556,5.896,10.38,-5.602,-14.73,-3.669,0,0,0,0,0,0,0,0,0,0,0,0,0,0,0,0,
191,-10.94,-12.65,-149.7,-173.6,-128.1,-45.21,-56.7,-72.87,-20.42,-11.9,-22.8,-6.237,-0.1689,-19.72,-28.86,-16.23,0,0,0,0,0,0,0,0,0,0,0,0,0,0,0,0,
192,-30.75,-25.08,-150.6,-173.1,-85.65,-61.62,-64.98,-78.39,-24.84,-18.17,-25.93,-9.58,-4.929,-28.55,-25.74,-16.47,0,0,0,0,0,0,0,0,0,0,0,0,0,0,0,0,
193,-29.14,-22.29,-149.6,-165.2,-65.17,-44.11,-56.08,-82.37,-3.163,-9.379,1.476,15.47,11.34,-23.06,4.091,1.808,0,0,0,0,0,0,0,0,0,0,0,0,0,0,0,0,
194,-5.181,-7.653,-144.4,-162.2,-81.96,-27.53,-46.98,-84.13,3.399,-4.752,13.61,30.32,22.12,-16.56,16.64,9.03,0,0,0,0,0,0,0,0,0,0,0,0,0,0,0,0,
195,-6.927,-9.239,-152.4,-166.7,-98.96,-46.26,-54.16,-89.66,-18.45,-15.84,-0.8017,17.02,12.42,-16.4,5.704,0.009,0,0,0,0,0,0,0,0,0,0,0,0,0,0,0,0,
196,-25.63,-24.18,-160,-169.1,-97.08,-65.2,-63.26,-99.53,-25.03,-27.32,-11.01,0.4995,-3.485,-21.7,-5.175,-12.03,0,0,0,0,0,0,0,0,0,0,0,0,0,0,0,0,
197,-33.68,-35.57,-153.1,-166.2,-97.48,-70.92,-66.77,-103.8,-22.77,-30.21,-15.63,-11.12,-15.43,-28.6,-14.21,-22.9,0,0,0,0,0,0,0,0,0,0,0,0,0,0,0,0,
198,-38.51,-40.48,-139.4,-151.3,-105,-75.33,-67.18,-96.27,-26.01,-26.23,-15.22,-13.75,-15.89,-26.23,-17.05,-22.67,0,0,0,0,0,0,0,0,0,0,0,0,0,0,0,0,
199,-39.43,-40.75,-131,-139.8,-101.4,-71.5,-67.87,-93.89,-23.6,-22.36,-11.36,-10.55,-11.82,-22.12,-18.65,-17.85,0,0,0,0,0,0,0,0,0,0,0,0,0,0,0,0,
200,-37.91,-44.59,-134.6,-149,-98.97,-69.89,-72.28,-101.6,-25.38,-19.96,-13.99,-14.01,-13.4,-24.08,-22.15,-17.1,0,0,0,0,0,0,0,0,0,0,0,0,0,0,0,0,
201,-38.51,-49.49,-135.7,-149.6,-101.2,-74.87,-74.83,-103.1,-27.72,-13.96,-9.003,-10.21,-9.647,-19.39,-11.5,-10.26,0,0,0,0,0,0,0,0,0,0,0,0,0,0,0,0,
202,-32.05,-46,-134.4,-140.6,-97.61,-75.68,-78.74,-107.8,-26.31,-15.55,-2.547,-1.457,-5.293,-16.58,-6.123,-10.85,0,0,0,0,0,0,0,0,0,0,0,0,0,0,0,0,
203,-32.86,-45.08,-147.7,-153.6,-101.9,-86.34,-86.35,-120.3,-39.06,-26.83,-18.7,-12.65,-12.96,-27.53,-23.52,-25.97,0,0,0,0,0,0,0,0,0,0,0,0,0,0,0,0,
204,-45.89,-47.9,-149.8,-157.8,-110.1,-88.61,-78.36,-117.7,-46.05,-25.53,-29.72,-21.28,-10.85,-29.27,-26.14,-23.48,0,0,0,0,0,0,0,0,0,0,0,0,0,0,0,0,
205,-34.81,-36.11,-125.5,-129.3,-108,-52.1,-56.13,-105.8,-31.19,-13.38,-15.99,-6.405,7.599,-15.71,-9.507,-5.473,0,0,0,0,0,0,0,0,0,0,0,0,0,0,0,0,
206,-13.03,-23.07,-117.8,-118.1,-100.7,-36.33,-52.75,-104.4,-31.8,-13.04,-16.61,-4.606,8.133,-14.21,-14.03,-7.434,0,0,0,0,0,0,0,0,0,0,0,0,0,0,0,0,
207,-28.8,-35.28,-130.7,-139.7,-86.82,-75.59,-72.98,-109.4,-48.25,-22.75,-35.64,-21.31,-9.437,-24.87,-27.4,-18.69,0,0,0,0,0,0,0,0,0,0,0,0,0,0,0,0,
208,-47.89,-50.4,-121.9,-142.5,-72.61,-90.65,-80.66,-106.4,-40.61,-22.56,-34.01,-17.08,-9.155,-23.12,-17.32,-12.34,0,0,0,0,0,0,0,0,0,0,0,0,0,0,0,0,
209,-32.38,-42.34,-105.9,-120.3,-74.44,-69.5,-68.48,-93.25,-29.08,-12.5,-28.2,-8.779,-0.5515,-17.25,-10.66,-8.985,0,0,0,0,0,0,0,0,0,0,0,0,0,0,0,0,
210,-29.83,-38.24,-116.2,-121.4,-85.66,-75.19,-70.16,-93.15,-44.36,-13.03,-41.69,-22.6,-6.374,-22.91,-21.84,-18.25,0,0,0,0,0,0,0,0,0,0,0,0,0,0,0,0,
211,-39.89,-45.2,-116.7,-133.1,-78.7,-76.06,-76.09,-105.9,-40.74,-18.27,-29.35,-14.66,0.4037,-18.44,-10.56,-6.2,0,0,0,0,0,0,0,0,0,0,0,0,0,0,0,0,
212,-12.81,-33.58,-88.55,-112,-55.33,-46.64,-58.63,-99.51,-7.052,-11.12,2.88,12.36,15.89,-6.609,7.86,8.911,0,0,0,0,0,0,0,0,0,0,0,0,0,0,0,0,
213,4.435,-26.86,-88.23,-97.73,-65.52,-47.55,-52.34,-90.76,-17.23,-13.61,-16.65,-4.188,-1.621,-21.07,-14.86,-15.39,0,0,0,0,0,0,0,0,0,0,0,0,0,0,0,0,
214,-23.86,-46.01,-112.5,-116.3,-95.2,-66.74,-65.88,-100,-53.2,-28.75,-47.2,-26.18,-16.07,-34.11,-29.19,-27.73,0,0,0,0,0,0,0,0,0,0,0,0,0,0,0,0,
215,-24.61,-42.31,-97.92,-111,-71.05,-52.26,-52.75,-92.95,-26.83,-20.13,-11.6,5.831,12.7,-12.06,6.306,7.997,0,0,0,0,0,0,0,0,0,0,0,0,0,0,0,0,
216,8.891,-17.16,-74.17,-86.27,-46.73,-36.92,-36.47,-78.47,5.972,-5.675,17.54,25.61,23.25,-4.215,16.99,16.32,0,0,0,0,0,0,0,0,0,0,0,0,0,0,0,0,
217,0.4172,-29.74,-99.91,-102.6,-91.45,-50.11,-61.77,-98.93,-35.06,-22.35,-21,-6.971,-8.682,-32.17,-18.2,-20.25,0,0,0,0,0,0,0,0,0,0,0,0,0,0,0,0,
218,-33.81,-58.7,-130.8,-131.2,-109.8,-63.07,-83.53,-122.4,-64.57,-35.51,-38.08,-16.84,-14.3,-37.72,-19.44,-23.6,0,0,0,0,0,0,0,0,0,0,0,0,0,0,0,0,
219,-27.02,-49.58,-113.7,-117.6,-61.04,-53.45,-66.84,-106,-24.68,-17.97,0.5951,15.35,12.58,-12.88,11.69,3.48,0,0,0,0,0,0,0,0,0,0,0,0,0,0,0,0,
220,1.383,-24.95,-81.24,-93.6,-31.85,-31.6,-49.99,-78.4,5.866,-3.561,15.03,25.44,17.8,-6.654,10.65,1.407,0,0,0,0,0,0,0,0,0,0,0,0,0,0,0,0,
221,4.807,-20.28,-72.15,-95.48,-34.72,-22.16,-49.52,-71.4,-3.492,-6.77,-2.236,8.02,5.532,-19.71,-9.649,-16.64,0,0,0,0,0,0,0,0,0,0,0,0,0,0,0,0,
222,-5.653,-27.15,-77.31,-101.9,-45.21,-34.72,-53.16,-74.02,-19.26,-14.02,-10.46,-1.464,-2.814,-27.4,-17.96,-22.3,0,0,0,0,0,0,0,0,0,0,0,0,0,0,0,0,
223,-17.16,-38.63,-89.29,-106.3,-60.84,-58.92,-66.75,-79.42,-34.89,-24.65,-22.36,-13.1,-15.87,-32.15,-28.02,-27.22,0,0,0,0,0,0,0,0,0,0,0,0,0,0,0,0,
224,-34.33,-51.02,-102.8,-118.5,-61.42,-66,-78.25,-90.91,-40.28,-31.37,-29.93,-25.43,-20.9,-34.1,-32.24,-28.23,0,0,0,0,0,0,0,0,0,0,0,0,0,0,0,0,
225,-33.56,-48.2,-92.42,-117.6,-62.11,-35.52,-67.38,-95.43,-33.14,-24.52,-15.47,-4.441,-2.279,-25.14,-12.82,-13.18,0,0,0,0,0,0,0,0,0,0,0,0,0,0,0,0,
226,-10.37,-34.46,-72.92,-103.6,-61.47,-13.48,-55.69,-90.23,-30.49,-16.93,-12.19,22.66,12.38,-15.29,1.208,-0.1897,0,0,0,0,0,0,0,0,0,0,0,0,0,0,0,0,
227,-8.302,-34.94,-90.64,-110,-38.8,-40.68,-65.81,-96.15,-29.67,-21.55,-23.42,2.92,-2.312,-23.14,-15.27,-10.48,0,0,0,0,0,0,0,0,0,0,0,0,0,0,0,0,
228,-29.86,-51.1,-114.6,-124,-41.97,-57.26,-75.85,-108,-22.06,-27.35,-10.95,-22.03,-15.89,-34.51,-24.88,-21.89,0,0,0,0,0,0,0,0,0,0,0,0,0,0,0,0,
229,-23.51,-50.05,-85.01,-102.1,-54.86,-24.52,-60.8,-100.2,-5.551,-21.16,16.49,1.97,3.768,-21.28,0.364,-5.438,0,0,0,0,0,0,0,0,0,0,0,0,0,0,0,0,
230,2.824,-28.56,-51.27,-72.14,-31.41,-16.77,-46.84,-91,-3.425,-21.49,12.82,17.47,12.36,-13.16,9.942,2.38,0,0,0,0,0,0,0,0,0,0,0,0,0,0,0,0,
231,-12.17,-33.1,-76.67,-88.41,-41.06,-58.08,-63.31,-102.9,-33.37,-37.94,-15.63,-11.59,-16.26,-34.26,-13.71,-18.99,0,0,0,0,0,0,0,0,0,0,0,0,0,0,0,0,
232,-38.19,-52.78,-96.49,-107.2,-67.79,-58.41,-70.03,-104.8,-43.2,-35.49,-16.84,-16.27,-19.66,-35.65,-14.25,-17.63,0,0,0,0,0,0,0,0,0,0,0,0,0,0,0,0,
233,-18.15,-38.43,-69.18,-84.75,-40.76,-23.39,-49.45,-88.65,-24.16,-16.97,-5.656,2.972,1.114,-16.95,-5.511,-3.968,0,0,0,0,0,0,0,0,0,0,0,0,0,0,0,0,
234,-10.82,-27.78,-64.91,-80.05,-35.32,-42.88,-54.38,-86.55,-32.13,-21.05,-17.31,-6.867,-9.183,-23.64,-22.95,-19.79,0,0,0,0,0,0,0,0,0,0,0,0,0,0,0,0,
235,-36.2,-48.49,-80.22,-98.85,-65.39,-69.02,-75.85,-95.01,-46.72,-31.04,-15.04,-4.705,-20.24,-34.99,-26.07,-29.27,0,0,0,0,0,0,0,0,0,0,0,0,0,0,0,0,
236,-38.03,-57.35,-69.28,-92.96,-64.37,-59.94,-75.64,-98.26,-51.25,-32.38,-3.514,14.94,-18.03,-39.5,-20.7,-28.24,0,0,0,0,0,0,0,0,0,0,0,0,0,0,0,0,
237,-47.98,-60.76,-76.58,-92.96,-61.12,-78.02,-74.25,-92.28,-61.26,-41.66,-12.04,0.7663,-30.04,-49.47,-32.06,-36.72,0,0,0,0,0,0,0,0,0,0,0,0,0,0,0,0,
238,-57.36,-64.99,-87.99,-97.09,-56.72,-63.02,-61.69,-77.17,-44.05,-42.18,-2.722,0.1671,-24.45,-39.42,-21.32,-22.82,0,0,0,0,0,0,0,0,0,0,0,0,0,0,0,0,
239,-7.554,-42.59,-46.53,-67.5,-37.89,9.457,-32.03,-77.76,-30.94,-32.41,3.455,29.21,-4.663,-21.69,-5.468,-4.744,0,0,0,0,0,0,0,0,0,0,0,0,0,0,0,0,
240,9.287,-32.2,-25.7,-54.26,-49.89,-5.287,-37.64,-90.06,-54.66,-35.24,-26.67,11.16,-13.69,-26.74,-23.27,-17.04,0,0,0,0,0,0,0,0,0,0,0,0,0,0,0,0,
241,-50.61,-57.49,-72.11,-76.95,-73.72,-74.8,-70.81,-86.32,-53.84,-42.97,-34.67,-34.02,-30.9,-37.5,-42.12,-31.81,0,0,0,0,0,0,0,0,0,0,0,0,0,0,0,0,
242,-79.84,-76.84,-101.5,-87.78,-81.29,-73.92,-85.49,-88.86,-49.55,-50.89,-27.26,-43.88,-38.65,-45.88,-48.58,-39.54,0,0,0,0,0,0,0,0,0,0,0,0,0,0,0,0,
243,-70.72,-78.99,-79.25,-81.43,-81.43,-61.13,-81.14,-95.53,-68.41,-52.15,-40.22,-33.13,-38.15,-43.23,-42.75,-35.87,0,0,0,0,0,0,0,0,0,0,0,0,0,0,0,0,
244,-61.04,-64.23,-46.93,-61.36,-51.03,-61.7,-62.71,-72.03,-38.86,-33.71,-27.79,-15.42,-18.12,-19.1,-13.5,-9.943,0,0,0,0,0,0,0,0,0,0,0,0,0,0,0,0,
245,-33.95,-40.43,-32.58,-40.28,-18.4,-41.18,-49.93,-56.51,-2.638,-26,-7.9,-4.583,-9.657,-11.01,-3.046,-3.095,0,0,0,0,0,0,0,0,0,0,0,0,0,0,0,0,
246,-30.43,-47.68,-52.77,-54.36,-38.15,-50.52,-66.89,-77.73,-35.33,-43.95,-34.41,-25.39,-29.73,-30.56,-27.65,-24.75,0,0,0,0,0,0,0,0,0,0,0,0,0,0,0,0,
247,-60.13,-69.74,-86.17,-77.04,-68.7,-69.61,-80.68,-84.64,-58.97,-50.31,-56.05,-38.8,-29.77,-33.61,-28.15,-21.6,0,0,0,0,0,0,0,0,0,0,0,0,0,0,0,0,
248,-50.16,-53.84,-77.15,-61.42,-55.82,-36.25,-59.75,-61.37,-24.65,-35.12,-29.14,-11.3,-0.3831,-14.12,4.224,6.09,0,0,0,0,0,0,0,0,0,0,0,0,0,0,0,0,
249,-10.44,-22.06,-40.28,-33.96,-26.35,-6.507,-33.25,-49.41,3.653,-23.11,-2.245,9.216,13.35,-6.486,17.25,12.42,0,0,0,0,0,0,0,0,0,0,0,0,0,0,0,0,
250,-4.215,-19,-37.14,-35.09,-27,-20.78,-30.57,-55.44,-0.5409,-25.96,-8.352,-1.845,4.997,-15.47,6.728,-1.337,0,0,0,0,0,0,0,0,0,0,0,0,0,0,0,0,
251,-17.33,-30.49,-51.53,-53.32,-45.15,-31.23,-39.43,-58.57,-8.007,-38.72,-18.53,-10.52,-1.007,-20.68,1.838,-7.267,0,0,0,0,0,0,0,0,0,0,0,0,0,0,0,0,
252,-17.95,-35.37,-44.11,-59.97,-43.17,-22.22,-43.47,-65.06,-7.2,-47.25,-15.52,-10.2,-1.915,-18.78,-0.0101,-5.147,0,0,0,0,0,0,0,0,0,0,0,0,0,0,0,0,
253,-16.06,-37.48,-36.24,-49.01,-33.01,-18.46,-42.47,-75.48,-6.347,-42.46,-16.09,-13.2,0.0053,-15.59,-5.899,-2.733,0,0,0,0,0,0,0,0,0,0,0,0,0,0,0,0,
254,-17.06,-33.92,-41.57,-34.58,-41.99,-27.39,-39.74,-70.97,-14.92,-37.71,-30.95,-19.89,1.955,-13.99,-13.63,-4.644,0,0,0,0,0,0,0,0,0,0,0,0,0,0,0,0,
255,-20.73,-29.95,-50.06,-35.73,-62.58,-40.49,-41.54,-63.15,-35.22,-45.27,-54.13,-31.98,-5.585,-20.04,-24.92,-15.76,0,0,0,0,0,0,0,0,0,0,0,0,0,0,0,0,
256,-26.23,-33.91,-55.6,-48.62,-61.82,-39.7,-40.72,-64.96,-35.61,-46.84,-54.34,-28.01,-5.601,-21.18,-18,-13.65,0,0,0,0,0,0,0,0,0,0,0,0,0,0,0,0,
257,-12.24,-28.11,-45.05,-45.94,-24.99,-20.16,-27.51,-62.94,-0.4195,-33.54,-18.21,-1.128,11.7,-8.105,11.76,10.32,0,0,0,0,0,0,0,0,0,0,0,0,0,0,0,0,
258,8.278,-19,-34.47,-34.98,-8.601,-14.01,-27.62,-64.44,8.036,-31.1,-4.586,-0.6047,11.5,-7.579,16.75,15.11,0,0,0,0,0,0,0,0,0,0,0,0,0,0,0,0,
259,-9.433,-34.75,-48.14,-47.78,-50.49,-41.57,-50.66,-77.2,-31.73,-42.28,-36.67,-32.76,-11.3,-24.34,-10.29,-7.642,0,0,0,0,0,0,0,0,0,0,0,0,0,0,0,0,
260,-44.07,-54.97,-64.38,-65.39,-80.41,-67.51,-59.71,-80.67,-47.28,-44.18,-50.54,-44.56,-20.18,-28.73,-22.31,-18.67,0,0,0,0,0,0,0,0,0,0,0,0,0,0,0,0,
261,-44.4,-51.39,-61.24,-53.36,-57,-54.37,-47.17,-68.25,-21.55,-38.68,-31.51,-30.58,-10.35,-17.21,-8.955,-7.27,0,0,0,0,0,0,0,0,0,0,0,0,0,0,0,0,
262,-23.66,-40.58,-47.61,-34.7,-32.52,-25.52,-40.56,-56.58,-5.077,-37.21,-23.35,-23.75,-3.896,-8.036,2.889,5.156,0,0,0,0,0,0,0,0,0,0,0,0,0,0,0,0,
263,-19.74,-43.38,-48.96,-39.67,-35.28,-22.76,-46.82,-58.77,-11.97,-39.37,-29.26,-31,-8.132,-10.33,-1.162,2.495,0,0,0,0,0,0,0,0,0,0,0,0,0,0,0,0,
264,-30.12,-53.02,-68.54,-48.76,-48.13,-31.12,-53.36,-66.87,-24.85,-41.03,-34.83,-39.4,-12.59,-18.51,-11.63,-8.389,0,0,0,0,0,0,0,0,0,0,0,0,0,0,0,0,
265,-31.77,-51.05,-61.51,-39.3,-54.04,-23.34,-50.04,-62.83,-26.02,-38.25,-40.18,-38.95,-8.19,-19.04,-11.41,-8.312,0,0,0,0,0,0,0,0,0,0,0,0,0,0,0,0,
266,-21.09,-37.8,-22.39,-19.72,-39.43,-15.59,-37.4,-51.37,-11.14,-33.6,-34.12,-28.83,1.593,-10.63,-0.2271,2.942,0,0,0,0,0,0,0,0,0,0,0,0,0,0,0,0,
267,-9.126,-28.17,-3.627,-4.7,-16.35,-14.81,-25.12,-48.97,1.078,-29.25,-18.43,-18.61,7.965,-5.475,6.276,8.904,0,0,0,0,0,0,0,0,0,0,0,0,0,0,0,0,
268,-5.938,-26.9,-11.27,-4.238,-12.68,-15.2,-25.1,-52.67,-0.2041,-23.51,-17.69,-20.05,4.497,-7.122,2.43,4.884,0,0,0,0,0,0,0,0,0,0,0,0,0,0,0,0,
269,-12.4,-30.73,-18.15,-15.04,-18.81,-23,-33.38,-46.97,-1.28,-18.05,-21.25,-23.28,0.9279,-4.544,1.498,2.599,0,0,0,0,0,0,0,0,0,0,0,0,0,0,0,0,
270,-14.37,-30.64,-23.51,-23.06,-20.42,-24.95,-33.06,-36.36,0.4843,-16.62,-12.82,-17.53,4.427,0.3923,4.99,3.412,0,0,0,0,0,0,0,0,0,0,0,0,0,0,0,0,
271,-16.44,-27.26,-31.97,-28.02,-34.43,-22.44,-33.49,-42.9,-11.25,-24.35,-20.16,-21.41,-1.709,-5.572,0.5331,-0.7841,0,0,0,0,0,0,0,0,0,0,0,0,0,0,0,0,
272,-30.12,-31.14,-34.83,-28.55,-41.04,-31.17,-40.9,-55.37,-20.15,-32.25,-32.74,-27.37,-7.716,-7.603,1.135,2.057,0,0,0,0,0,0,0,0,0,0,0,0,0,0,0,0,
273,-27.1,-30.18,-25.68,-24.74,-15.77,-26.62,-32.74,-52.68,-1.79,-28.09,-16.46,-12.72,4.208,2.317,12.6,12.96,0,0,0,0,0,0,0,0,0,0,0,0,0,0,0,0,
274,-9.427,-25.2,-23.46,-32.77,-7.664,-12.08,-27.08,-55.73,5.572,-28.76,-9.492,-9.426,2.636,-2.574,7.713,8.539,0,0,0,0,0,0,0,0,0,0,0,0,0,0,0,0,
275,-19.2,-38.64,-38.74,-41.54,-32.9,-25.52,-46.62,-68.02,-20.44,-38.14,-29.69,-28.03,-13.76,-14.75,-7.717,-1.995,0,0,0,0,0,0,0,0,0,0,0,0,0,0,0,0,
276,-35.25,-47.39,-44.25,-34.01,-42.72,-46.54,-51.07,-63.95,-33.43,-33.45,-35.53,-29.94,-8.26,-8.38,-7.441,0.0718,0,0,0,0,0,0,0,0,0,0,0,0,0,0,0,0,
277,-30.64,-32.78,-36.13,-29.1,-38.03,-47.59,-34.25,-54.86,-27.66,-26.64,-35.34,-25.23,-4.11,-4.247,-5.866,-2.195,0,0,0,0,0,0,0,0,0,0,0,0,0,0,0,0,
278,-35.03,-30.24,-36.55,-30.48,-38.7,-46.91,-36.99,-58.27,-30.72,-34.22,-43.24,-32.67,-21.83,-14.56,-11.42,-11.58,0,0,0,0,0,0,0,0,0,0,0,0,0,0,0,0,
279,-42.33,-41.37,-38.06,-25.44,-31.36,-44.48,-48.7,-60.39,-23.83,-35.64,-30.88,-28.79,-25.21,-17.7,-7.225,-9.879,0,0,0,0,0,0,0,0,0,0,0,0,0,0,0,0,
280,-30.78,-40.47,-33.04,-21.49,-19.39,-28.02,-49.59,-52.66,-8.093,-30.25,-15.12,-22.22,-16.57,-15.91,-5.692,-6.993,0,0,0,0,0,0,0,0,0,0,0,0,0,0,0,0,
281,-26.52,-40.62,-30.98,-26.3,-19.64,-17.64,-48.92,-48.68,-10.54,-34.54,-21.53,-27.2,-18.29,-17.09,-12.76,-9.776,0,0,0,0,0,0,0,0,0,0,0,0,0,0,0,0,
282,-24.81,-37.91,-22.56,-30.6,-23.26,-16.93,-34.5,-52.17,-3.128,-33.22,-10.73,-9.236,-3.225,-3.941,5.76,6.616,0,0,0,0,0,0,0,0,0,0,0,0,0,0,0,0,
283,2.391,-13.23,-3.038,-16.21,-7.797,2.796,-10.74,-42.02,25.15,-19.37,19.98,21.73,24.31,14.75,33.8,31.15,0,0,0,0,0,0,0,0,0,0,0,0,0,0,0,0,
284,16.59,-0.6181,-2.536,-2.74,8.185,21.11,-13.79,-29.09,19.82,-15.28,11.96,13.12,21.44,11.78,22.53,25.88,0,0,0,0,0,0,0,0,0,0,0,0,0,0,0,0,
285,-5.638,-14.67,-24.9,-19.94,-8.502,-0.7185,-28.28,-45.98,-12.18,-19.31,-17.38,-7.646,8.644,7.02,6.102,15.07,0,0,0,0,0,0,0,0,0,0,0,0,0,0,0,0,
286,-14.16,-15.39,-21.32,-23.38,-21.12,-21.69,-21.88,-59.61,-10.58,-15.27,-12.26,1.417,13.33,17.92,18.47,25.42,0,0,0,0,0,0,0,0,0,0,0,0,0,0,0,0,
287,0.7014,-7.366,14.93,6.39,5.688,-1.243,-13.94,-37.41,11.57,-10.77,4.569,12.55,15.31,22.4,26.97,32.77,0,0,0,0,0,0,0,0,0,0,0,0,0,0,0,0,
288,13.63,-7.058,39.67,19.14,33.83,25.96,-7.438,-15.56,23.44,-5.791,16.43,23.67,25.44,28.16,37.7,42.85,0,0,0,0,0,0,0,0,0,0,0,0,0,0,0,0,
289,32.99,11.17,47.69,27.54,35.75,32.94,12.18,-7.666,31.77,6.157,34.32,42,44.89,40.63,53.13,54.59,0,0,0,0,0,0,0,0,0,0,0,0,0,0,0,0,
290,38.45,25.36,49.34,45.8,21.83,26.26,15.83,-5.321,24.64,4.088,25.59,30.6,31.74,28.86,33.43,34.5,0,0,0,0,0,0,0,0,0,0,0,0,0,0,0,0,
291,13.58,2.868,36.9,30.36,8.919,13.43,-4.816,-27.08,6.527,-16.05,-2.031,5.198,5.483,7.667,8.578,11.91,0,0,0,0,0,0,0,0,0,0,0,0,0,0,0,0,
292,1.244,-16.09,18.07,-1.969,5.943,4.848,-18.65,-57.53,3.14,-26.93,-5.29,-0.1817,1.506,3.28,10.11,10.69,0,0,0,0,0,0,0,0,0,0,0,0,0,0,0,0,
293,4.903,-13.31,2.528,-16.37,0.0968,5.333,-20.49,-56.03,4.905,-25.96,-3.404,-6.754,-3.264,-2.655,2.229,-1.306,0,0,0,0,0,0,0,0,0,0,0,0,0,0,0,0,
294,0.3608,-11.75,-1.009,-18.74,-7.328,10.56,-15.66,-34.12,9.185,-24.81,-8.199,-10.71,-7.824,-6.006,-7.585,-9.188,0,0,0,0,0,0,0,0,0,0,0,0,0,0,0,0,
295,1.384,-8.842,10.38,-4.081,-1.806,8.011,-11.96,-32.6,15.19,-22.84,-8.26,-4.899,-0.4835,0.1501,-3.519,-0.6168,0,0,0,0,0,0,0,0,0,0,0,0,0,0,0,0,
296,0.3494,-10.9,10.96,7.561,8.152,-6.192,-20.05,-47.72,-0.0435,-23.94,-22.84,-15.87,-5.45,-6.492,-15.38,-9.794,0,0,0,0,0,0,0,0,0,0,0,0,0,0,0,0,
297,-12.76,-20.48,-2.161,-4.365,6.383,-11.11,-21.13,-47.45,-17.14,-25.51,-39.29,-27.09,-15.07,-13.94,-27.37,-19.67,0,0,0,0,0,0,0,0,0,0,0,0,0,0,0,0,
298,-13.94,-14.7,-6.445,-13.75,-6.248,-2.404,-12.12,-46.61,-10.29,-21.15,-25.83,-14.08,-5.575,-3.73,-8.685,-2.631,0,0,0,0,0,0,0,0,0,0,0,0,0,0,0,0,
299,-1.076,-5.458,-3.91,-15.76,3.449,6.777,-15.27,-62.15,0.9376,-20.8,-3.557,2.048,5.987,2.605,10.44,10.11,0,0,0,0,0,0,0,0,0,0,0,0,0,0,0,0,
300,9.704,-8.882,5.744,-8.215,24.18,12.48,-15.92,-54.38,6.038,-23.57,-1.149,5.07,5.689,-1.899,4.563,2.144,0,0,0,0,0,0,0,0,0,0,0,0,0,0,0,0,
301,8.317,-5.707,14.98,16.65,-15.56,-0.4089,-6.061,-29.25,0.591,-21.09,-11.36,-2.624,2.296,-3.571,-5.785,-5.055,0,0,0,0,0,0,0,0,0,0,0,0,0,0,0,0,
302,-5.473,-0.6711,0.8839,14.08,-67.02,-23.09,-10.65,-36.5,-15.83,-25.19,-16.11,-11.11,-2.083,-6.352,-5.714,-4.087,0,0,0,0,0,0,0,0,0,0,0,0,0,0,0,0,
303,-11.02,-7.465,-6.942,-13.58,-35.92,-17.65,-18.39,-44.84,-12.22,-31.66,-11.93,-8.825,-3.765,-8.762,-1.926,0.6718,0,0,0,0,0,0,0,0,0,0,0,0,0,0,0,0,
304,-2.436,-7.886,19.26,-0.94,13.75,3.103,-9.536,-24.5,9.439,-22.79,-8.564,-0.6232,3.321,0.3932,4.179,9.848,0,0,0,0,0,0,0,0,0,0,0,0,0,0,0,0,
305,2.69,-3.451,29.42,27.25,19.08,3.097,-8.469,-23.89,9.616,-16.67,-9.864,2.619,7.502,8.683,10.1,15.78,0,0,0,0,0,0,0,0,0,0,0,0,0,0,0,0,
306,-1.019,-9.952,4.774,18.32,7.803,-12.02,-20.17,-41.06,-3.366,-23.77,-10.89,-0.6262,3.22,6.436,8.454,13.52,0,0,0,0,0,0,0,0,0,0,0,0,0,0,0,0,
307,-8.065,-10.61,-4.605,0.1186,-13.92,-25.37,-18.17,-35.97,-7.476,-22.61,-14.1,-9.139,1.224,4.625,1.467,9.466,0,0,0,0,0,0,0,0,0,0,0,0,0,0,0,0,
308,-14.5,-7.075,-2.86,-12.25,-24.04,-31.64,-16.84,-38.16,-18.87,-20.47,-27.26,-22.5,-4.306,-1.106,-10.94,-1.042,0,0,0,0,0,0,0,0,0,0,0,0,0,0,0,0,
309,-19.97,-21.33,-19.05,-19.01,-7.614,-28.45,-31.36,-58.22,-27.1,-26.68,-34.33,-27.97,-11.78,-8.642,-20.01,-12.54,0,0,0,0,0,0,0,0,0,0,0,0,0,0,0,0,
310,-18.11,-25.47,-19.05,2.451,-6.499,-20.12,-27.87,-50.33,-11.85,-21.19,-20.05,-15.82,-2.677,-0.9915,-10.79,-6.998,0,0,0,0,0,0,0,0,0,0,0,0,0,0,0,0,
311,-7.401,-4.898,-1.038,15.32,-15.6,-17.44,-10.66,-28.75,-6.474,-14.58,-11.87,-5.329,9.457,7.053,1.87,3.321,0,0,0,0,0,0,0,0,0,0,0,0,0,0,0,0,
312,-2.408,2.023,-0.8015,-4.762,12.49,-14.87,-12.94,-31.31,-5.912,-19.09,-9.116,4.213,15.01,8.367,14.38,11.24,0,0,0,0,0,0,0,0,0,0,0,0,0,0,0,0,
313,8.3,2.309,7.607,2.406,47.89,2.63,-12.49,-36.38,22.93,-11.3,11.07,24.17,24.5,16.36,29.94,20.91,0,0,0,0,0,0,0,0,0,0,0,0,0,0,0,0,
314,23.22,10.18,16.03,19.4,7.234,5.985,-9.742,-37.55,17.94,-7.89,1.589,10.97,12.48,8.611,13.17,7.822,0,0,0,0,0,0,0,0,0,0,0,0,0,0,0,0,
315,-0.9538,-10.28,-19.44,-13.7,-63.63,-25.1,-32.71,-50.36,-28.71,-31.65,-33.65,-27.07,-14.93,-11.63,-12.35,-9.971,0,0,0,0,0,0,0,0,0,0,0,0,0,0,0,0,
316,-25.83,-32.2,-29.36,-32.11,-28.11,-34.61,-37.14,-46.94,-10.27,-36.96,-9.831,-10.5,-2.662,-0.2604,12.99,11.11,0,0,0,0,0,0,0,0,0,0,0,0,0,0,0,0,
317,6.078,-8.186,27.15,2.787,51.81,-9.377,-7.005,-19.56,43.32,-12.39,31.7,25.96,22.55,19.65,35.16,28.13,0,0,0,0,0,0,0,0,0,0,0,0,0,0,0,0,
318,26.35,8.245,52.19,18.8,44.73,-4.539,-0.4208,-8.729,32.64,-9.764,10.5,7.266,6.624,6.722,5.01,3.437,0,0,0,0,0,0,0,0,0,0,0,0,0,0,0,0,
319,5.043,-9.885,29.7,14.97,29.3,-6.66,-6.153,-11.99,7.753,-20.94,-15.86,-15.53,-10.58,-6.887,-13.92,-13.66,0,0,0,0,0,0,0,0,0,0,0,0,0,0,0,0,
320,7.907,-8.605,33.53,36.53,49.88,12.58,9.594,4.167,13.68,-11.74,-8.003,-3.902,0.935,1.827,-1.69,-3.773,0,0,0,0,0,0,0,0,0,0,0,0,0,0,0,0,
321,18.3,4.754,41.13,48.04,26.21,13.06,8.09,18.76,9.588,-11.4,-7.17,-0.2311,3.397,4.812,-0.9754,-0.1412,0,0,0,0,0,0,0,0,0,0,0,0,0,0,0,0,
322,3.938,-4.104,22.67,28.38,1.959,-4.873,-10.46,5.208,3.927,-27,-7.402,-0.2488,-4.204,-1.248,-3.487,-4.194,0,0,0,0,0,0,0,0,0,0,0,0,0,0,0,0,
323,5.738,-6.194,22.91,21.49,21.26,-0.1476,-5.138,-3.678,7.981,-21.06,3.787,12.64,1.619,1.145,4.659,-1.817,0,0,0,0,0,0,0,0,0,0,0,0,0,0,0,0,
324,10.47,2.287,28.14,30.87,7.695,2.017,-3.079,0.5962,-10.1,-10.78,-4.284,5.494,1.969,1.531,2.608,-0.4115,0,0,0,0,0,0,0,0,0,0,0,0,0,0,0,0,
325,-12.78,-7.173,6.947,29.81,-27.89,-15.08,-15.97,-10.33,-25.53,-17.55,-16.91,-8.532,-2.753,-1.414,0.1606,1.704,0,0,0,0,0,0,0,0,0,0,0,0,0,0,0,0,
326,-9.635,-5.519,19.01,42.61,-1.547,-1.456,4.579,-4.13,5.569,-8.47,5.383,11.56,12.53,9.265,14.34,9.953,0,0,0,0,0,0,0,0,0,0,0,0,0,0,0,0,
327,25.74,16.78,56.83,71.1,41.85,22.77,27.77,26.11,30.33,5.224,19.16,20.71,14.85,10.52,8.587,-0.2043,0,0,0,0,0,0,0,0,0,0,0,0,0,0,0,0,
328,14.17,2.636,26.42,51.93,3.799,-9.468,-4.757,8.68,-7.894,-11.29,-18.36,-16.13,-17,-12.72,-24.2,-27.14,0,0,0,0,0,0,0,0,0,0,0,0,0,0,0,0,
329,-23.41,-29.27,-16.31,6.602,-42.94,-35.56,-25.92,-25.39,-31.79,-17.11,-31.1,-24.79,-18.57,-10.09,-17.38,-17.39,0,0,0,0,0,0,0,0,0,0,0,0,0,0,0,0,
330,2.877,-5.125,28.69,30.78,22.41,18.64,17.37,4.732,24.16,12.98,21.48,21.1,25.14,26.64,27.71,21.43,0,0,0,0,0,0,0,0,0,0,0,0,0,0,0,0,
331,54.51,36.6,73.93,84.83,80.97,64.27,46.77,36.16,60.55,26.02,39.82,35.71,35.09,30.86,27.22,17.79,0,0,0,0,0,0,0,0,0,0,0,0,0,0,0,0,
332,41.23,25.5,40.16,65.82,5.997,29.03,24.55,15.09,13.33,4.21,-5.571,1.155,0.7829,-0.3519,-10.14,-15.94,0,0,0,0,0,0,0,0,0,0,0,0,0,0,0,0,
333,-0.5514,-0.2378,6.895,19.11,-45.05,-11.98,5.449,-1.014,-18.49,-12.25,-20.35,-8.855,-9.016,-7.577,-8.988,-12.36,0,0,0,0,0,0,0,0,0,0,0,0,0,0,0,0,
334,2.075,5.153,20.44,22.73,19.53,-1.516,8.556,3.268,8.293,-10.06,4.631,11.16,9.573,6.044,13.22,9.627,0,0,0,0,0,0,0,0,0,0,0,0,0,0,0,0,
335,25.85,18.01,42.58,44.41,49.84,23.79,20.03,20.67,23.65,-4.808,8.624,13.53,14.22,6.919,10.42,5.66,0,0,0,0,0,0,0,0,0,0,0,0,0,0,0,0,
336,29.69,21.9,58.37,55.91,18.03,25.67,33.26,58.79,17.26,-1.727,3.201,7.158,9.951,8.038,6.565,1.096,0,0,0,0,0,0,0,0,0,0,0,0,0,0,0,0,
337,25.55,22.05,63.56,63.93,19.33,7.643,30.91,64.04,19.81,1.722,9.06,10.85,10.34,15.65,13.18,9.476,0,0,0,0,0,0,0,0,0,0,0,0,0,0,0,0,
338,22.81,16.74,51.06,47.75,35.68,-5.326,17.22,28.83,20.21,6.109,7.902,8.107,5.917,11.62,8.665,5.101,0,0,0,0,0,0,0,0,0,0,0,0,0,0,0,0,
339,18.53,15.85,42.04,23.26,41.6,-4.274,16.99,26.09,14.38,6.593,1.809,0.5574,-0.0591,3.913,0.567,-6.534,0,0,0,0,0,0,0,0,0,0,0,0,0,0,0,0,
340,17.44,22.35,39.7,22.28,46.31,-8.925,18.03,40.67,6.834,-1.348,-4.589,-4.72,-5.625,1.242,-4.807,-13.44,0,0,0,0,0,0,0,0,0,0,0,0,0,0,0,0,
341,10.84,19.13,23.73,19.87,31.3,-16.09,8.165,31.25,0.5987,-4.068,-7.394,-7.037,-5.726,3.033,-3.562,-10.97,0,0,0,0,0,0,0,0,0,0,0,0,0,0,0,0,
342,14.73,22.29,30.02,28.45,49.33,13.45,20.58,43.57,25.05,13.3,18.67,17.44,22.15,24.21,24.38,16.57,0,0,0,0,0,0,0,0,0,0,0,0,0,0,0,0,
343,54.22,51.69,78.37,71.43,113.5,56.07,49.14,70.87,55.82,29.15,42.36,42.79,45.1,40.41,40.86,31.67,0,0,0,0,0,0,0,0,0,0,0,0,0,0,0,0,
344,63.53,57.33,76.9,72.43,95.75,30.18,35.43,53.09,23.05,16.19,8.47,11.79,12.99,14.26,6.041,-2.425,0,0,0,0,0,0,0,0,0,0,0,0,0,0,0,0,
345,11.65,19.35,16.07,25.56,30.01,-22.96,6.787,28.21,-18.05,-0.0557,-22.82,-17.14,-15.34,-5.178,-9.115,-17.98,0,0,0,0,0,0,0,0,0,0,0,0,0,0,0,0,
346,5.681,13.66,22.6,37.07,65.66,3.494,29.93,40.18,13.81,12.59,6.024,13.7,8.874,16.5,23.04,9.596,0,0,0,0,0,0,0,0,0,0,0,0,0,0,0,0,
347,44.67,41.55,63.8,70.07,98.1,41.04,48.64,38.52,31.92,24.52,17.76,20.87,14.68,19.97,18.52,4.136,0,0,0,0,0,0,0,0,0,0,0,0,0,0,0,0,
348,25.17,30.21,37.25,41.43,41.66,8.707,23.34,20,-1.071,17.61,-0.831,-4.936,-2.113,7.321,-2.517,-12.83,0,0,0,0,0,0,0,0,0,0,0,0,0,0,0,0,
349,13.15,21.63,41.68,32.99,54.93,0.9015,32.97,38.36,19.84,24.44,23.96,20.44,20.88,25.55,24.97,13.36,0,0,0,0,0,0,0,0,0,0,0,0,0,0,0,0,
350,52.72,49.28,90.48,60.15,106.6,22.04,53.59,47.27,45.62,26.24,32.23,34.09,25.52,23.78,25.99,12.56,0,0,0,0,0,0,0,0,0,0,0,0,0,0,0,0,
351,31.14,32.22,49.15,34.45,52.09,-9.481,13.78,5.505,-8.86,-1.184,-16.56,-11.99,-15.22,-9.543,-15.86,-24.18,0,0,0,0,0,0,0,0,0,0,0,0,0,0,0,0,
352,-11.12,-3.103,10.23,21.8,18.38,-16.44,0.0216,0.4361,-23.97,-0.5454,-16.64,-14.65,-11.62,0.5441,-8.462,-14.66,0,0,0,0,0,0,0,0,0,0,0,0,0,0,0,0,
353,18.64,20.03,62.56,62.07,63.24,22.98,39.13,38.29,21,27.85,16.17,12.85,14.4,25.6,12.99,6.983,0,0,0,0,0,0,0,0,0,0,0,0,0,0,0,0,
354,29.27,34.15,58.58,41.87,50.35,6.18,31.37,22.52,7.696,21.38,-1.494,-6.436,-1.129,12.29,-3.662,-4.863,0,0,0,0,0,0,0,0,0,0,0,0,0,0,0,0,
355,1.362,11.52,5.832,-5.356,20.34,-26.68,1.528,-9.795,-15.51,7.643,-6.891,-11.3,-5.314,7.332,1.885,-1.264,0,0,0,0,0,0,0,0,0,0,0,0,0,0,0,0,
356,14.55,17.11,26.12,19.33,51.31,-6.153,14.15,10.2,13.54,20.99,27.59,21.41,18.51,24.29,31.07,19.88,0,0,0,0,0,0,0,0,0,0,0,0,0,0,0,0,
357,40.84,38.33,59.29,44.01,84.83,23.56,35.91,28.84,35.53,31.91,41.46,36.77,30.89,32.03,37.35,27.93,0,0,0,0,0,0,0,0,0,0,0,0,0,0,0,0,
358,47.26,44.52,59.09,31.98,93.75,28.19,45.75,24.32,31.5,35.08,27.96,30.84,30.33,30.79,24.38,22.82,0,0,0,0,0,0,0,0,0,0,0,0,0,0,0,0,
359,38.35,42.12,62.1,40.77,68.82,1.34,43.79,34.22,11.69,32.41,0.8065,7.699,12.54,18.54,0.5388,1.205,0,0,0,0,0,0,0,0,0,0,0,0,0,0,0,0,
360,12.2,28.13,57.72,50.63,32.32,-29.71,29.85,42.09,-8.745,18.6,-19.45,-17.32,-9.652,3.313,-17.83,-18.05,0,0,0,0,0,0,0,0,0,0,0,0,0,0,0,0,
361,1.243,15.26,49.56,39.43,38.4,-30.15,24.09,33.08,-9.954,13.87,-18.2,-18.15,-10.13,0.2818,-17.5,-18.41,0,0,0,0,0,0,0,0,0,0,0,0,0,0,0,0,
362,6.404,15.09,52.52,42.38,40.24,-29.69,26.02,40.57,-16.2,20.33,-18.12,-12.34,-5.096,-1.128,-12.78,-17.99,0,0,0,0,0,0,0,0,0,0,0,0,0,0,0,0,
363,5.615,21.08,53.47,52.63,19.91,-36.75,26.72,61.96,-18.52,21.35,-12.38,-7.784,-3.518,-2.681,-5.334,-17.74,0,0,0,0,0,0,0,0,0,0,0,0,0,0,0,0,
364,15.13,30.37,51.87,47.96,38.52,-26.76,31.94,59.27,6.195,23.45,10.96,7.806,8.91,6.877,11.94,-4.947,0,0,0,0,0,0,0,0,0,0,0,0,0,0,0,0,
365,34.39,42.37,60.69,61.1,73.35,-4.557,45.96,50.75,24.26,36.44,28.97,26.21,26.19,23.92,29.57,11.34,0,0,0,0,0,0,0,0,0,0,0,0,0,0,0,0,
366,45.09,55.32,74.14,86.98,73.76,6.384,53.39,53.47,15.34,39.35,20.15,17.21,16.02,20.25,14.1,-1.68,0,0,0,0,0,0,0,0,0,0,0,0,0,0,0,0,
367,21.37,41.28,48.89,52.9,32.29,-30.88,25.54,26,-19.7,13.91,-20.73,-28.63,-23.75,-10.6,-30.11,-38.37,0,0,0,0,0,0,0,0,0,0,0,0,0,0,0,0,
368,-23.79,4.803,3.726,-1,-8.882,-65.2,1.373,2.406,-46.04,-0.0931,-38.85,-41.48,-26.64,-12.56,-25.45,-31.88,0,0,0,0,0,0,0,0,0,0,0,0,0,0,0,0,
369,-11.79,13.67,22.65,29.16,10.49,-24.54,26.55,37.6,-16.27,20.5,-3.39,-0.6017,10.3,16.33,17.01,1.538,0,0,0,0,0,0,0,0,0,0,0,0,0,0,0,0,
370,26.64,42.7,55.24,71.1,29.76,-6.686,36.17,52.07,13.36,26.35,10.37,7.544,9.122,12.3,12.42,-8.306,0,0,0,0,0,0,0,0,0,0,0,0,0,0,0,0,
371,9.308,24.68,23.94,39.96,-1.161,-46.9,10.59,17.15,-0.8682,12.53,-5.533,-7.882,-6.99,0.0152,-0.0698,-17.31,0,0,0,0,0,0,0,0,0,0,0,0,0,0,0,0,
372,0.4774,13.12,10.43,21.69,4.183,-32.34,16.38,19.32,-2.311,17.22,2.587,6.265,9.057,14.52,17.99,3.33,0,0,0,0,0,0,0,0,0,0,0,0,0,0,0,0,
373,28.78,35.56,49.09,53.37,45.17,3.43,37.87,48.45,10.57,27.69,5.636,9.877,15.37,16.47,14.83,1.257,0,0,0,0,0,0,0,0,0,0,0,0,0,0,0,0,
374,31.23,42.02,65.09,72.34,51.28,-5.495,42.35,52.96,7.332,33.27,-1.845,6.037,10.77,11.14,9.629,-3.376,0,0,0,0,0,0,0,0,0,0,0,0,0,0,0,0,
375,27.57,37.77,47.66,65.14,38.39,-11.8,41.5,45.14,1.897,34.68,4.943,14.77,14.08,16.63,25.71,10.4,0,0,0,0,0,0,0,0,0,0,0,0,0,0,0,0,
376,25.36,29.73,25.87,43.65,17.53,-29.06,23.69,27.94,-10.89,18.13,-4.682,-3.825,0.2752,8.07,17.91,3.105,0,0,0,0,0,0,0,0,0,0,0,0,0,0,0,0,
377,-1.456,10.53,14.8,24.72,1.538,-58.71,6.281,17.56,-23.36,7.929,-16.94,-22.75,-10.7,-0.8505,3.521,-5.906,0,0,0,0,0,0,0,0,0,0,0,0,0,0,0,0,
378,-3.524,10.54,19.99,27.73,19.7,-44.72,12.42,30.23,-11.92,15.59,-2.026,-8.248,-0.5339,4.122,11.51,6.467,0,0,0,0,0,0,0,0,0,0,0,0,0,0,0,0,
379,18.94,19.85,18,33.69,24.12,-31.25,11.71,29.27,-4.648,9.508,-2.95,-6.964,-0.8083,0.2548,4.654,3.789,0,0,0,0,0,0,0,0,0,0,0,0,0,0,0,0,
380,8.531,13.54,6.771,35.44,-2.802,-48.21,10.76,20.34,-13.3,3.655,-17.94,-13.05,-1.341,-0.7525,-9.404,-7.004,0,0,0,0,0,0,0,0,0,0,0,0,0,0,0,0,
381,4.423,22.43,23.33,53.13,11.14,-30.79,36.51,41.51,-0.314,18.3,0.0846,8.45,14.7,12.17,4.272,2.234,0,0,0,0,0,0,0,0,0,0,0,0,0,0,0,0,
382,37.89,42.34,59.15,69.53,54.91,5.514,51.09,56.22,23.14,21.08,17.17,16.99,13.71,9.582,14.8,5.554,0,0,0,0,0,0,0,0,0,0,0,0,0,0,0,0,
383,43.43,32.52,54,49.1,50.15,-1.943,29.82,32.49,14.34,6.602,2.255,0.0473,-1.036,-2.375,10.31,0.6854,0,0,0,0,0,0,0,0,0,0,0,0,0,0,0,0,
384,14.7,15.12,9.58,12.51,16.91,-28.62,9.079,15.71,-8.832,-0.0674,-6.146,-3.127,0.4686,1.526,16.29,9.966,0,0,0,0,0,0,0,0,0,0,0,0,0,0,0,0,
385,3.493,17.19,-8.553,12.38,6.539,-41.1,8.594,32.01,-15.83,-0.6494,-6.036,-4.404,0.0158,1.711,14.05,8.305,0,0,0,0,0,0,0,0,0,0,0,0,0,0,0,0,
386,5.577,20.33,7.284,39.53,9.701,-38.52,20.21,56.69,-10.35,7.06,-4.363,-6.769,-0.9624,-2.039,8.989,0.2923,0,0,0,0,0,0,0,0,0,0,0,0,0,0,0,0,
387,17.12,26.34,24.17,45.84,20.95,-17.16,36.16,70.5,1.961,22.24,14.83,11.49,15.72,8.978,23.97,12.83,0,0,0,0,0,0,0,0,0,0,0,0,0,0,0,0,
388,32.23,33.03,33.15,33.04,25.64,-10.96,35.02,66.33,3.413,19.21,15.39,12.8,16.42,10.37,20.84,11.52,0,0,0,0,0,0,0,0,0,0,0,0,0,0,0,0,
389,22.11,26.54,28.8,33.72,10.88,-30.71,21.17,62.27,-2.779,11.25,1.116,-0.8142,6.156,4.548,9.101,0.2399,0,0,0,0,0,0,0,0,0,0,0,0,0,0,0,0,
390,18.04,32.3,20.31,44.8,6.374,-27.62,25.51,76.44,4.274,20.05,12.99,11.83,14.91,11,20.44,8.605,0,0,0,0,0,0,0,0,0,0,0,0,0,0,0,0,
391,26.72,40.84,12.63,34.38,-9.471,-21.13,29.85,78.74,-9.292,14.58,1.235,6.621,5.555,0.7725,9.384,-1.429,0,0,0,0,0,0,0,0,0,0,0,0,0,0,0,0,
392,8.674,24.12,6.316,18.5,-34.61,-35.08,24.75,77.15,-29.78,3.619,-24.05,-13.47,-9.68,-9.576,-5.01,-13.48,0,0,0,0,0,0,0,0,0,0,0,0,0,0,0,0,
393,11.7,27.91,33.94,47.22,10.87,-12.72,45.7,114.3,6.69,25.67,11.59,15.63,19.28,19.16,27.55,19.74,0,0,0,0,0,0,0,0,0,0,0,0,0,0,0,0,
394,50.57,59.72,76.05,93.28,72.3,28.66,73.78,145.8,49.5,47.06,52.62,52.23,50.78,47.14,56.04,51.11,0,0,0,0,0,0,0,0,0,0,0,0,0,0,0,0,
395,60.96,68.96,81.87,99.26,64.48,27.22,71.01,133.9,45.23,40.51,51.95,51.72,48.14,42.17,52.65,46.39,0,0,0,0,0,0,0,0,0,0,0,0,0,0,0,0,
396,49.97,57.3,61.09,68.46,40.5,-1.734,44.34,110,20.72,23.5,35.48,29.73,24.23,17.58,32.08,23.04,0,0,0,0,0,0,0,0,0,0,0,0,0,0,0,0,
397,25.99,33.18,18.74,25.61,8.489,-35.85,13.05,81.85,-18.26,0.8539,-2.811,-4.783,-5.288,-4.877,2.497,0.4327,0,0,0,0,0,0,0,0,0,0,0,0,0,0,0,0,
398,-3.818,16.52,-5.842,19.96,-16.49,-40.53,19.15,79.84,-26.73,0.0343,-14.09,-6.236,-1.662,3.762,6.38,7.029,0,0,0,0,0,0,0,0,0,0,0,0,0,0,0,0,
399,16.12,40.58,39.61,63.42,27.29,1.353,56.88,117.9,15.87,26.53,22.66,23.62,18.7,18.03,26.55,17.79,0,0,0,0,0,0,0,0,0,0,0,0,0,0,0,0,
400,34.93,50.52,60.88,63.96,41.52,7.387,46.68,113.1,14.3,22.39,15.54,10.61,-0.0698,-1.601,6.721,-4.363,0,0,0,0,0,0,0,0,0,0,0,0,0,0,0,0,
401,-7.169,15.91,9.962,15.42,-23.35,-38.34,6.581,73.44,-30.31,-5.175,-24.97,-22.6,-23.47,-19.61,-15.95,-20.71,0,0,0,0,0,0,0,0,0,0,0,0,0,0,0,0,
402,-30.26,6.612,-4.511,12.78,-37.24,-48.98,12.01,80.69,-33.37,-0.4326,-21.64,-20.47,-13.9,-11.13,-8.407,-10.71,0,0,0,0,0,0,0,0,0,0,0,0,0,0,0,0,
403,-12.18,24.35,16.29,34.51,-4.009,-33.03,27.06,89.2,-20.38,15.45,-7.219,-10.25,-5.347,-2.185,-2.821,-4.622,0,0,0,0,0,0,0,0,0,0,0,0,0,0,0,0,
404,-8.855,20.86,13.71,31.9,-4.667,-37.33,14.18,69.4,-23.81,9.935,-13.84,-11.39,-10.41,-3.411,-9.6,-11.03,0,0,0,0,0,0,0,0,0,0,0,0,0,0,0,0,
405,-9.493,12.05,18.26,35.24,-7.664,-38.06,11.11,71.73,-22.33,2.41,-13.57,-10.04,-11.14,-6.223,-11.05,-14.34,0,0,0,0,0,0,0,0,0,0,0,0,0,0,0,0,
406,-3.727,14.06,17.59,36.53,-5.609,-31.04,22.05,76.33,-19.8,5.39,-1.592,-1.482,-4.215,-1.949,1.595,-4.107,0,0,0,0,0,0,0,0,0,0,0,0,0,0,0,0,
407,-2.192,19.53,7.619,31.54,-9.424,-27.38,26.6,70.44,-17.31,11.56,4.899,6.394,-1.877,0.9973,7.667,0.7306,0,0,0,0,0,0,0,0,0,0,0,0,0,0,0,0,
408,3.957,23.53,24.51,39.88,0.1238,-17.61,22.27,68.47,-15.43,10.25,0.1105,0.5881,-12.59,-10.03,-5.386,-10.94,0,0,0,0,0,0,0,0,0,0,0,0,0,0,0,0,
409,3.87,12.74,20.79,23.16,-2.751,-17.87,6.018,39.77,-19.23,-2.075,0.3356,-3.298,-17.1,-14.19,-2.751,-7.958,0,0,0,0,0,0,0,0,0,0,0,0,0,0,0,0,
410,2.027,5.437,0.8924,3.073,-10.68,-24.02,3.042,25.29,-7.527,-5.686,16.12,11.32,-2.273,0.9314,17.83,10,0,0,0,0,0,0,0,0,0,0,0,0,0,0,0,0,
411,13.61,24.94,24.13,37,-0.1508,-16.49,25.82,67.99,-1.762,4.346,14.54,9.553,2.284,5.052,7.033,3.332,0,0,0,0,0,0,0,0,0,0,0,0,0,0,0,0,
412,-2.613,27.66,20.57,49.14,-26.17,-33.54,24.13,82.98,-41.3,1.555,-20.1,-22.61,-18.18,-10.57,-24.7,-18.03,0,0,0,0,0,0,0,0,0,0,0,0,0,0,0,0,
413,-43.4,-2.994,-26.86,3.493,-67.84,-66.68,-5.487,49.29,-68.34,-12.56,-33.74,-32.59,-27.51,-12.64,-19.07,-10.03,0,0,0,0,0,0,0,0,0,0,0,0,0,0,0,0,
414,-39.03,-12.71,-26.03,-11.96,-48.1,-53.81,-12.36,35.87,-41.32,-17.77,-9.147,-14.2,-19.92,-4.083,3.074,6.55,0,0,0,0,0,0,0,0,0,0,0,0,0,0,0,0,
415,-18.79,-7.656,-13.06,-2.138,-27.41,-37.17,-8.298,35.63,-29.04,-21.64,-6.949,-21.58,-32.48,-18.55,-14.61,-14.82,0,0,0,0,0,0,0,0,0,0,0,0,0,0,0,0,
416,-35,-19.63,-30.57,-7.139,-46.68,-53.15,-9.613,35.32,-44.78,-24.43,-25.24,-36.32,-44.41,-29.73,-31.72,-32.18,0,0,0,0,0,0,0,0,0,0,0,0,0,0,0,0,
417,-30.09,-9.868,-13.38,12.86,-30.06,-33.7,8.928,50.03,-30.22,-14.55,-11.84,-15.11,-24.51,-12.01,-10.56,-10.65,0,0,0,0,0,0,0,0,0,0,0,0,0,0,0,0,
418,0.2661,14.24,15.57,36.24,3.675,-1.244,19.62,48.54,-13.26,-11.62,0.039,-6.722,-22.16,-15.24,-14.18,-16.1,0,0,0,0,0,0,0,0,0,0,0,0,0,0,0,0,
419,-17.02,-5.692,-10.05,6.32,-19.17,-33.59,-11.63,19.34,-39.49,-29.02,-24.32,-37.43,-50.01,-41.63,-45.19,-48.8,0,0,0,0,0,0,0,0,0,0,0,0,0,0,0,0,
420,-50.37,-31.39,-40.54,-24.03,-47.12,-62.16,-28.52,11.21,-53.21,-30.58,-30,-40.69,-42.69,-29.44,-30.65,-31.32,0,0,0,0,0,0,0,0,0,0,0,0,0,0,0,0,
421,-31.41,-4.24,-12.72,9.695,-15.88,-17.76,13.25,47.96,-11.8,5.483,9.418,1.012,-1.552,7.024,9.441,9.804,0,0,0,0,0,0,0,0,0,0,0,0,0,0,0,0,
422,5.521,29.94,24.58,48.93,13.88,10.78,44.56,72.08,15.65,27.92,32.91,15.96,5.216,9.014,9.812,5.476,0,0,0,0,0,0,0,0,0,0,0,0,0,0,0,0,
423,-1.648,13.65,0.3957,19.89,-16.92,-32.08,6.859,34.69,-19.67,-1.284,0.0926,-24.19,-31.58,-20.41,-22.43,-26.98,0,0,0,0,0,0,0,0,0,0,0,0,0,0,0,0,
424,-38.34,-25.62,-37.14,-21.12,-48.95,-61.79,-32.99,0.2282,-48.97,-29.3,-35.01,-53.7,-54.86,-37.27,-40.89,-40.62,0,0,0,0,0,0,0,0,0,0,0,0,0,0,0,0,
425,-48.28,-35.08,-29.85,-10.59,-44.43,-45.58,-21.24,16.79,-36.97,-20.11,-25.59,-38.75,-42.92,-26.94,-30.86,-30.33,0,0,0,0,0,0,0,0,0,0,0,0,0,0,0,0,
426,-33.37,-19.36,-20.9,8.766,-45.65,-38.06,-4.441,31.93,-35.48,-11.55,-15.03,-27.32,-33.26,-16.61,-19.41,-20.93,0,0,0,0,0,0,0,0,0,0,0,0,0,0,0,0,
427,-30,-12.25,-18.37,13.67,-46.17,-35.52,-7.179,30.54,-42.55,-15.95,-25.56,-33.55,-39.93,-20.07,-19.62,-20.86,0,0,0,0,0,0,0,0,0,0,0,0,0,0,0,0,
428,-41.73,-27.19,-22.31,0.4425,-50.11,-40.39,-28.82,14.62,-52.19,-24.2,-34.82,-46.24,-55.38,-30.96,-29.26,-29.85,0,0,0,0,0,0,0,0,0,0,0,0,0,0,0,0,
429,-72.9,-62.04,-69.15,-44.96,-86.38,-81.22,-66.18,-23.79,-86.92,-34.72,-52.35,-73.55,-75.87,-44.05,-51.07,-48.45,0,0,0,0,0,0,0,0,0,0,0,0,0,0,0,0,
430,-93.55,-73.8,-71.86,-40.59,-75,-81.83,-51.85,-10.66,-77.64,-13.32,-55.09,-72.02,-63.49,-31.14,-50.18,-41.81,0,0,0,0,0,0,0,0,0,0,0,0,0,0,0,0,
431,-55.6,-32.64,-4.012,23.9,-13.12,-27.22,1.113,41.55,-22.34,22.65,-27.84,-38.24,-31.55,-1.55,-23.92,-14.33,0,0,0,0,0,0,0,0,0,0,0,0,0,0,0,0,
432,-33.07,-19.01,-24.91,3.484,-34.03,-44.1,-22.72,7.983,-42.68,4.902,-37.75,-51.59,-53.57,-12.59,-31.95,-25.75,0,0,0,0,0,0,0,0,0,0,0,0,0,0,0,0,
433,-75.01,-65.94,-96.82,-62.66,-81.31,-92.59,-71.78,-43.32,-85.88,-21.54,-67.15,-78.12,-86.89,-34.36,-48.95,-46.27,0,0,0,0,0,0,0,0,0,0,0,0,0,0,0,0,
434,-73.75,-71.32,-56.76,-22.66,-32.62,-48.31,-36.69,3.579,-39.66,6.435,-41.08,-48.95,-63.07,-14.92,-27.27,-28.2,0,0,0,0,0,0,0,0,0,0,0,0,0,0,0,0,
435,-27.56,-33.26,-3.501,29.23,6.892,-8.208,-3.122,34.09,-3.984,24.04,-17.58,-31.98,-43.68,-2.162,-16.96,-19.44,0,0,0,0,0,0,0,0,0,0,0,0,0,0,0,0,
436,-35.22,-34.37,-37.98,-10.32,-29.67,-46.15,-28.58,-8.597,-39.73,6.728,-38.94,-51.26,-52.75,-12.44,-27.31,-26.93,0,0,0,0,0,0,0,0,0,0,0,0,0,0,0,0,
437,-52.65,-41.83,-53.16,-32.25,-40.69,-55.81,-31.76,-10.27,-54.36,13.63,-43.75,-50.01,-45.61,-7.511,-25.85,-22.06,0,0,0,0,0,0,0,0,0,0,0,0,0,0,0,0,
438,-41.87,-32.53,-30.04,-9.47,-26.15,-37.82,-17.83,12.71,-43.89,26.54,-38.13,-50.45,-44.49,-3.429,-35.73,-28.51,0,0,0,0,0,0,0,0,0,0,0,0,0,0,0,0,
439,-55.01,-45.85,-40.98,-26.31,-45.55,-63.43,-32.4,-14.56,-49.18,15.59,-46.47,-62.06,-53.06,-2.812,-41.44,-28.85,0,0,0,0,0,0,0,0,0,0,0,0,0,0,0,0,
440,-66.13,-51.44,-63.18,-55.59,-56.61,-87.82,-42.79,-37.44,-46.38,16.39,-38.33,-51.23,-44.77,9.925,-24.72,-10.33,0,0,0,0,0,0,0,0,0,0,0,0,0,0,0,0,
441,-55.54,-40.43,-68.75,-52.54,-42.54,-87.25,-42.11,-23.75,-42.22,26.84,-32.92,-47.83,-49.01,6.975,-30.65,-19.23,0,0,0,0,0,0,0,0,0,0,0,0,0,0,0,0,
442,-60.58,-48.93,-62.21,-44.27,-33.09,-84.74,-41.83,-6.843,-43.19,25.84,-42.29,-52.52,-57.94,-0.3064,-38.35,-28.43,0,0,0,0,0,0,0,0,0,0,0,0,0,0,0,0,
443,-54.17,-47.33,-43.49,-43.01,-17.42,-68.03,-29.12,1.138,-27.26,27.13,-32.34,-34.41,-45.09,10.23,-19.7,-10.03,0,0,0,0,0,0,0,0,0,0,0,0,0,0,0,0,
444,-32.95,-32.34,-44.41,-45.88,-15.5,-60.29,-23.77,-7.321,-21.87,27.79,-25.79,-32.39,-45.4,7.783,-23.25,-12.65,0,0,0,0,0,0,0,0,0,0,0,0,0,0,0,0,
445,-38.34,-35.77,-57.66,-38.95,-37.09,-71.34,-28.94,-6.894,-32.98,25.93,-34.29,-41.9,-48.83,4.2,-29.62,-16.31,0,0,0,0,0,0,0,0,0,0,0,0,0,0,0,0,
446,-39.57,-29.4,-44.8,-16.94,-23.1,-59.35,-20.89,14.99,-27.29,29.4,-24.24,-21.34,-31.11,17.23,-7.033,3.125,0,0,0,0,0,0,0,0,0,0,0,0,0,0,0,0,
447,-23.87,-15.42,-40.07,-20.2,5.346,-40.4,-17.82,5.358,-24.52,25.41,-15.7,-13.98,-31.1,14.99,-5.789,-0.0735,0,0,0,0,0,0,0,0,0,0,0,0,0,0,0,0,
448,-27.77,-25.34,-59.35,-45.83,-12.64,-40.82,-27.65,-22.6,-32.97,17.54,-25.49,-36.86,-45.43,7.946,-22.59,-12.09,0,0,0,0,0,0,0,0,0,0,0,0,0,0,0,0,
449,-43.69,-39.34,-72.36,-56.35,-35.46,-53.73,-37.36,-20.65,-34.98,12.59,-37.08,-53.2,-53.36,4.522,-30.16,-17.09,0,0,0,0,0,0,0,0,0,0,0,0,0,0,0,0,
450,-61.15,-49.57,-77.52,-58.37,-27.57,-84.05,-48.2,-14.59,-41.15,9.415,-49.69,-60.16,-62.34,-8.395,-38.14,-28.79,0,0,0,0,0,0,0,0,0,0,0,0,0,0,0,0,
451,-63.97,-48.65,-56,-44.9,-8.12,-89.42,-38.22,-7.619,-31.45,25.61,-40.28,-43.58,-46.54,5.514,-22.3,-10.27,0,0,0,0,0,0,0,0,0,0,0,0,0,0,0,0,
452,-36.67,-25.05,-34.99,-30.87,-0.9923,-58.01,-18.27,-0.0278,-14.88,35.26,-21.87,-22,-30.02,25.27,-6.723,7.318,0,0,0,0,0,0,0,0,0,0,0,0,0,0,0,0,
453,-33.99,-24.92,-66.42,-52.26,-23.02,-65.59,-30.27,-17.56,-38.3,15.76,-38.85,-39.89,-52.6,4.667,-29.14,-20.76,0,0,0,0,0,0,0,0,0,0,0,0,0,0,0,0,
454,-53.26,-42.16,-60.84,-47.16,-19.9,-83.14,-34.39,-11.71,-42.39,24.54,-39.26,-40.27,-48.99,3.648,-24.02,-17.93,0,0,0,0,0,0,0,0,0,0,0,0,0,0,0,0,
455,-28.87,-24.09,-3.81,-10.32,17.21,-52.71,-13.3,9.927,-10.95,47.44,-11.5,-7.111,-19.85,24,1.038,8.025,0,0,0,0,0,0,0,0,0,0,0,0,0,0,0,0,
456,-17.35,-20.16,-36.25,-42.44,-10.26,-55.15,-29.59,-29.93,-40.45,17.1,-38.05,-27.55,-44.06,-1.177,-26.79,-19.36,0,0,0,0,0,0,0,0,0,0,0,0,0,0,0,0,
457,-58.88,-53.48,-95.89,-88.44,-53.05,-93.07,-55.79,-55.74,-73.69,-7.25,-68.35,-64,-68.57,-18.07,-42.83,-33.23,0,0,0,0,0,0,0,0,0,0,0,0,0,0,0,0,
458,-61.57,-50.05,-54.36,-53.27,-13.24,-70.11,-34.85,-2.033,-21.62,20.44,-27.64,-33.88,-39.23,13.15,-5.906,1.244,0,0,0,0,0,0,0,0,0,0,0,0,0,0,0,0,
459,-22.16,-21.33,-15.86,-18.33,10.26,-32.8,-16.89,24.92,7.517,34.19,-6.423,-2.066,-25.44,23.31,2.758,5.59,0,0,0,0,0,0,0,0,0,0,0,0,0,0,0,0,
460,-21.9,-25,-41.88,-34.89,-24.92,-55.75,-30.18,-1.756,-34.86,23.44,-44.03,-19.59,-44.52,5.627,-20.01,-14.29,0,0,0,0,0,0,0,0,0,0,0,0,0,0,0,0,
461,-44.64,-37.05,-50.83,-48.1,-30.79,-77.12,-32.97,-6.808,-48.46,24.58,-52.85,-29.8,-45.55,6.069,-15.9,-9.391,0,0,0,0,0,0,0,0,0,0,0,0,0,0,0,0,
462,-40.17,-31.3,-40.67,-46.2,-21.06,-48.62,-20.23,4.758,-20.6,28.46,-22.89,-14.99,-31.03,17.24,1.425,2.08,0,0,0,0,0,0,0,0,0,0,0,0,0,0,0,0,
463,-24.24,-23.69,-44.72,-43.54,-30.35,-25.22,-16.93,3.902,-11.44,26.09,-13.42,-14.43,-29.19,18.69,0.7799,-0.063,0,0,0,0,0,0,0,0,0,0,0,0,0,0,0,0,
464,-28.67,-25.73,-49.77,-42,-33.76,-44.27,-23.96,-1.985,-20.95,22.66,-25.41,-24.7,-32.73,16.7,-4.133,-2.457,0,0,0,0,0,0,0,0,0,0,0,0,0,0,0,0,
465,-37.17,-27,-43.58,-39.76,-24.9,-60,-22.86,-2.274,-18.19,23.33,-29.05,-19.86,-23.92,23.29,2.799,5.244,0,0,0,0,0,0,0,0,0,0,0,0,0,0,0,0,
466,-24.52,-14.41,-28.88,-30.93,-4.887,-45.97,-13.38,8.287,-7.53,30.14,-27.4,-17.78,-18.8,29.63,3.649,7.572,0,0,0,0,0,0,0,0,0,0,0,0,0,0,0,0,
467,-18.14,-9.015,-26.37,-31.36,-2.419,-40.41,-15.46,13.65,-14.3,30.66,-38.06,-32.46,-30.79,22.36,-9.178,-5.055,0,0,0,0,0,0,0,0,0,0,0,0,0,0,0,0,
468,-29.01,-21.44,-35.83,-40.09,-29.37,-45.69,-19.41,6.254,-28.47,27.38,-57.91,-40.95,-35.51,14.85,-13.1,-13.75,0,0,0,0,0,0,0,0,0,0,0,0,0,0,0,0,
469,-24.56,-20.27,-34.66,-30.27,-25.65,-37.81,-10.66,1.065,-27.17,30.32,-69.17,-40.97,-29.94,14.91,-10.48,-15.33,0,0,0,0,0,0,0,0,0,0,0,0,0,0,0,0,
470,-15.14,-9.487,-33,-19.22,-1.685,-35.65,-8.538,-7.59,-18.61,28.82,-61.82,-41.06,-30.54,13.32,-13.7,-16.97,0,0,0,0,0,0,0,0,0,0,0,0,0,0,0,0,
471,-17.14,-10.22,-35.46,-26.64,-20.58,-38.79,-11.92,-18.58,-12.43,25.07,-45.01,-33,-24.82,16.89,-10.66,-8.432,0,0,0,0,0,0,0,0,0,0,0,0,0,0,0,0,
472,-12.05,-5.859,-31.32,-29.9,-45.8,-29.62,-6.609,-14.01,-12.4,29.3,-36.12,-24.87,-14.19,26.02,-4.848,1.8,0,0,0,0,0,0,0,0,0,0,0,0,0,0,0,0,
473,-8.246,1.642,-27.78,-22.47,-32.53,-28.83,-5.988,-5.194,-14.29,34.97,-31.61,-18.73,-12.04,29.39,-1.725,3.702,0,0,0,0,0,0,0,0,0,0,0,0,0,0,0,0,
474,-7.536,1.202,-15.18,-12.48,-1.875,-32.23,-6.221,-5.146,3.812,39.86,-14.52,0.5427,-2.458,35.94,13.95,15.69,0,0,0,0,0,0,0,0,0,0,0,0,0,0,0,0,
475,10.86,8.136,3.61,0.5075,26.52,-11.42,5.998,-7.36,29.19,41.7,8.099,18.01,11.71,45.9,30.05,31.85,0,0,0,0,0,0,0,0,0,0,0,0,0,0,0,0,
476,24.11,15.62,0.0112,7.831,31.96,8.81,12.8,-11.29,27.63,36.5,11.94,13.73,5.56,38.67,21.1,24.13,0,0,0,0,0,0,0,0,0,0,0,0,0,0,0,0,
477,10.18,7.518,-12.78,1.182,6.093,-4.956,1.231,-20.83,7.419,28.36,-5.742,-1.678,-13.5,19.07,-1.266,1.819,0,0,0,0,0,0,0,0,0,0,0,0,0,0,0,0,
478,-8.707,-7.26,-23.24,-20.77,-21.79,-29.09,-18.69,-40.55,-11.21,15.06,-20.09,-13,-25.85,9.162,-11.2,-7.069,0,0,0,0,0,0,0,0,0,0,0,0,0,0,0,0,
479,-16.08,-18.65,-42.39,-44.87,-31.27,-29.59,-30.32,-57.36,-18.8,5.035,-15.62,-11.53,-27.06,9.413,-3.93,-0.4018,0,0,0,0,0,0,0,0,0,0,0,0,0,0,0,0,
480,-13.05,-19.59,-47.08,-47.72,-25.41,-22.96,-24.98,-47.94,-11.27,11.91,-9.97,-3.941,-22.43,9.412,4.388,5.804,0,0,0,0,0,0,0,0,0,0,0,0,0,0,0,0,
481,-7.614,-12.52,-32.56,-34.88,-12.81,-29.96,-15.98,-29.1,-2.72,20.34,-14.07,-4.963,-21.35,9.318,3.825,5.514,0,0,0,0,0,0,0,0,0,0,0,0,0,0,0,0,
482,-5.42,-9.631,-22.51,-22.93,-5.321,-25.66,-14.66,-24.26,2.254,18.67,-11.65,-7.03,-23.52,10.96,2.681,4.28,0,0,0,0,0,0,0,0,0,0,0,0,0,0,0,0,
483,-4.733,-13.52,-17.87,-19.37,-16.57,-17.49,-23.03,-27.23,0.0709,8.954,-11.75,-10.67,-31.53,3.366,-4.647,-4.18,0,0,0,0,0,0,0,0,0,0,0,0,0,0,0,0,
484,-17.75,-29.45,-27.2,-33.2,-43.08,-44.23,-43.39,-36.53,-21.34,-10.37,-32.85,-28.78,-49.23,-16.03,-23.8,-22.68,0,0,0,0,0,0,0,0,0,0,0,0,0,0,0,0,
485,-40.3,-49.74,-42.3,-39.39,-50.18,-69.07,-53.96,-40.89,-32.71,-19.68,-43.98,-38.48,-55.23,-24.25,-28.53,-27.33,0,0,0,0,0,0,0,0,0,0,0,0,0,0,0,0,
486,-41.57,-47.99,-32.54,-23.45,-34.04,-54.68,-40.97,-30.49,-17.99,-12.3,-29.19,-27.5,-44.05,-15,-14.17,-13.59,0,0,0,0,0,0,0,0,0,0,0,0,0,0,0,0,
487,-29.95,-33.55,-20.18,-23.65,-33.04,-41.13,-29.14,-27.25,-13.71,-11.02,-22.46,-21.22,-38.07,-7.888,-7.091,-6.25,0,0,0,0,0,0,0,0,0,0,0,0,0,0,0,0,
488,-26.04,-25.93,-22.63,-27.22,-35.85,-37.06,-22.93,-24.4,-17.62,-7.474,-24.11,-17.05,-30.61,-2.314,-3.724,-4.421,0,0,0,0,0,0,0,0,0,0,0,0,0,0,0,0,
489,-14.88,-12.18,-8.495,-1.318,-17.62,-15.12,-8.084,-3.002,-8.299,6.638,-12.79,-4.033,-13.7,8.72,7.133,3.497,0,0,0,0,0,0,0,0,0,0,0,0,0,0,0,0,
490,1.054,4.277,16.76,17.05,-4.326,8.269,5.276,9.986,-1.78,12.24,-2.643,2.753,-8.733,13.99,11.74,7.566,0,0,0,0,0,0,0,0,0,0,0,0,0,0,0,0,
491,3.035,5.86,21.89,18.99,-7.355,11.05,8.111,8.618,-3.071,15.57,-5.776,0.6274,-17.63,10.97,5.172,4.239,0,0,0,0,0,0,0,0,0,0,0,0,0,0,0,0,
492,-2.648,-0.6665,10.84,24,-17.16,7.01,6.03,14.42,-4.825,21.15,-9.898,-1.937,-22.05,8.995,2.151,4.768,0,0,0,0,0,0,0,0,0,0,0,0,0,0,0,0,
493,-1.577,-3.469,8.324,16.73,-23.2,21.23,7.343,17.55,2.101,17.49,0.5017,3.846,-14.96,13.81,12.43,13.5,0,0,0,0,0,0,0,0,0,0,0,0,0,0,0,0,
494,11.02,2.568,23.46,18.13,-10.67,41.53,12.47,14.98,23.1,17.7,18.26,18.06,-4.454,21.17,20.14,18.08,0,0,0,0,0,0,0,0,0,0,0,0,0,0,0,0,
495,18.9,11.96,33.04,40.03,-5.869,32.99,9.313,17.59,26.6,24.4,17.05,18.89,-4.26,19.43,11.56,10.08,0,0,0,0,0,0,0,0,0,0,0,0,0,0,0,0,
496,10.53,12.62,27.36,39.7,-22.42,19.54,4.71,14.51,10.28,23.24,7.99,11.25,-7.932,14.47,8.789,6.628,0,0,0,0,0,0,0,0,0,0,0,0,0,0,0,0,
497,12.02,13.2,32.15,32.65,-20.32,35.76,14.83,7.122,17.86,22.09,16.69,19.7,-2.049,19.16,20.58,14.88,0,0,0,0,0,0,0,0,0,0,0,0,0,0,0,0,
498,29.54,25.11,51.87,50.91,-0.2238,53.56,28.19,12.91,36.43,26.23,24.45,31.58,6.322,24.4,26.64,18.37,0,0,0,0,0,0,0,0,0,0,0,0,0,0,0,0,
499,36.41,39.11,70.09,62.73,17.97,60.51,36.71,24.09,35.14,30.75,21.6,34.68,11.75,24.33,27.57,18.09,0,0,0,0,0,0,0,0,0,0,0,0,0,0,0,0,
500,34.54,46.98,78.9,61.02,36.06,65.83,43.54,25.58,31.52,36.61,21.92,33.49,12.83,26.15,24.85,19.48,0,0,0,0,0,0,0,0,0,0,0,0,0,0,0,0,
501,28.98,44.27,68.8,60.99,27.77,47.3,36.44,19.91,27.9,35.66,17.22,23.47,3.466,25.38,12.4,14.33,0,0,0,0,0,0,0,0,0,0,0,0,0,0,0,0,
502,11.39,29.4,44.07,45.75,3.422,15.5,17.1,10.59,17.37,25.58,10.45,17.72,-4.894,21.16,10.82,12.15,0,0,0,0,0,0,0,0,0,0,0,0,0,0,0,0,
503,4.203,19.59,30.46,29.09,10.98,16.43,11.32,3.318,21,22.76,17.02,27.71,-0.2496,24.53,25.05,21.57,0,0,0,0,0,0,0,0,0,0,0,0,0,0,0,0,
504,18.44,24.28,38.88,40.53,19.56,40.39,22,4.656,31.83,26.35,19.73,29.3,0.1871,26.38,24.03,19.85,0,0,0,0,0,0,0,0,0,0,0,0,0,0,0,0,
505,19.91,23.94,49.29,53.89,2.515,41.7,24.78,3.954,25.41,21.25,9.268,16.36,-12.83,13.75,7.784,2.121,0,0,0,0,0,0,0,0,0,0,0,0,0,0,0,0,
506,5.468,13.98,47.41,45.23,10.78,28.6,16.95,-0.1357,20.32,15.51,9.169,14.97,-16.95,4.934,4.876,-2.764,0,0,0,0,0,0,0,0,0,0,0,0,0,0,0,0,
507,3.598,9.714,44.83,30.61,30.24,35,16.04,4.167,23.1,16.93,12.46,19.03,-11.16,6.761,6.572,2.317,0,0,0,0,0,0,0,0,0,0,0,0,0,0,0,0,
508,2.844,6.523,43.99,21.98,6.497,41.31,17.76,9.434,8.184,16.27,-3.584,6.983,-15.26,2.778,-2.573,-2.328,0,0,0,0,0,0,0,0,0,0,0,0,0,0,0,0,
509,-3.96,5.611,45.91,31.88,-10.12,33.59,14.85,18.57,-0.404,20.38,-10.46,1.2,-15.5,3.01,-1.087,-0.6953,0,0,0,0,0,0,0,0,0,0,0,0,0,0,0,0,
510,4.527,15.55,61.45,51.39,15.01,37.67,12.17,32.86,18.79,26.45,4.397,11.25,-7.548,9.992,8.211,5.416,0,0,0,0,0,0,0,0,0,0,0,0,0,0,0,0,
511,7.132,13.12,63.83,40.35,15.07,38.33,5.073,20.41,20.5,15.04,1.916,7.377,-12.58,5.055,3.433,-1.501,0,0,0,0,0,0,0,0,0,0,0,0,0,0,0,0,
512,-8.312,0.6728,38.77,21.88,-8.868,30.5,1.752,-0.8498,5.432,8.531,-8.382,2.185,-12.61,3.854,4.236,1.223,0,0,0,0,0,0,0,0,0,0,0,0,0,0,0,0,
513,-2.81,10.59,32.95,37.94,0.7242,49.97,12.13,12.4,14.89,21.56,1.091,14.88,0.5187,11.29,12.37,12.06,0,0,0,0,0,0,0,0,0,0,0,0,0,0,0,0,
514,12.04,22.22,52.29,47.61,16.52,67.81,18.55,26.27,23.44,23.66,2.601,17.29,-0.669,6.085,4.129,5.515,0,0,0,0,0,0,0,0,0,0,0,0,0,0,0,0,
515,5.462,18.74,61.05,40.31,12,57.03,22.7,21.62,12.71,20.21,-9.527,8.888,-6.174,2.222,-6.284,-1.026,0,0,0,0,0,0,0,0,0,0,0,0,0,0,0,0,
516,2.241,24.84,67.49,58.3,12.21,53.94,32.88,28.48,9.121,25.52,-13.4,5.947,-7.955,3.188,-13.2,-3.598,0,0,0,0,0,0,0,0,0,0,0,0,0,0,0,0,
517,3.1,26.44,71.56,69.38,7.926,47.73,26.58,25.72,7.895,19.8,-12.86,1.76,-17.07,-4.989,-19.8,-9.009,0,0,0,0,0,0,0,0,0,0,0,0,0,0,0,0,
518,-5.196,14.22,53.25,47.56,-5.095,26.3,13.14,4.57,4.389,16.03,-4.664,9.895,-10.85,-1.864,-6.33,2.875,0,0,0,0,0,0,0,0,0,0,0,0,0,0,0,0,
519,2.358,18.94,45.56,45.63,6.745,31.26,20.55,9.005,13.34,26.88,8.369,25.7,3.339,7.551,4.396,11.4,0,0,0,0,0,0,0,0,0,0,0,0,0,0,0,0,
520,14.63,25.87,72.34,66.38,36.56,47.21,26.39,24.04,20.99,24.01,6.123,18.91,-7.752,-1.842,-11.78,-4.151,0,0,0,0,0,0,0,0,0,0,0,0,0,0,0,0,
521,5.319,12.58,91.87,67.62,45.83,40.31,17.48,10.84,18.77,13.9,1.083,11.92,-15.61,-7.129,-14.2,-5.219,0,0,0,0,0,0,0,0,0,0,0,0,0,0,0,0,
522,2.257,10.92,91.18,68.12,41.78,42.27,21.72,-0.5155,24.71,21.44,11.8,27.5,0.8079,4.45,7.538,12.61,0,0,0,0,0,0,0,0,0,0,0,0,0,0,0,0,
523,15.65,26.87,99.42,86.54,55.61,60.19,36.13,10.38,36.56,30.46,24.06,37.48,8.817,9.874,16.33,16.89,0,0,0,0,0,0,0,0,0,0,0,0,0,0,0,0,
524,19.29,30.11,112.6,98.06,71.98,64.97,40.14,14.83,39.9,30.18,25.6,36.91,5.651,7.117,12.1,13.82,0,0,0,0,0,0,0,0,0,0,0,0,0,0,0,0,
525,21.78,26.97,127,111.6,71.47,72.7,45.96,13.9,42.94,32,25.97,44.46,11.56,7.729,11.84,15.11,0,0,0,0,0,0,0,0,0,0,0,0,0,0,0,0,
526,36.9,33.51,153.7,136.6,80.41,96.92,56.13,22.69,53.32,33.42,33.33,51.17,17.17,13.35,13.36,15.64,0,0,0,0,0,0,0,0,0,0,0,0,0,0,0,0,
527,43.33,38.35,173.8,141.4,91.05,106.8,55.38,29.37,58.45,33.09,39.22,49.8,16.08,19.28,17.71,19.3,0,0,0,0,0,0,0,0,0,0,0,0,0,0,0,0,
528,36.04,38.34,189.4,146.6,81.23,101.7,57.26,41.99,54.1,39.02,38.66,51,18.21,17.21,24.51,24.01,0,0,0,0,0,0,0,0,0,0,0,0,0,0,0,0,
529,36.2,40.51,224.2,188.5,107.4,116.1,71.47,68.27,55.09,46.19,41.67,55.54,21.66,12.2,25.36,22.11,0,0,0,0,0,0,0,0,0,0,0,0,0,0,0,0,
530,46.76,43.46,258.4,227.4,172.4,148.3,82.55,82.46,65.36,49.76,47.21,58.34,23.23,16.64,22.83,21.74,0,0,0,0,0,0,0,0,0,0,0,0,0,0,0,0,
531,52.95,48.65,281.7,248.4,169.1,165.8,92.28,89.63,67.49,53.01,41.76,54.84,23.71,21.02,19.38,23.66,0,0,0,0,0,0,0,0,0,0,0,0,0,0,0,0,
532,45.99,54.33,310.8,284.4,114.2,158.5,107,114,57.77,54.09,32.41,46,21.39,16.59,14.41,19.84,0,0,0,0,0,0,0,0,0,0,0,0,0,0,0,0,
533,40.72,60.68,327.5,316.5,140.9,161.5,123.7,139.1,61.13,58.41,41.86,52.87,27.57,18.98,22.14,23.53,0,0,0,0,0,0,0,0,0,0,0,0,0,0,0,0,
534,60.38,77.95,321.1,317.2,218.5,200.4,147.1,148.6,85.15,69.42,64.51,78.2,45.09,29.21,40.54,38.04,0,0,0,0,0,0,0,0,0,0,0,0,0,0,0,0,
535,89.89,96.17,317.6,307.9,237.9,235.4,169.6,155.3,106,76,75.57,92.22,54.46,32.17,46.92,42.9,0,0,0,0,0,0,0,0,0,0,0,0,0,0,0,0,
536,99.18,99.94,322.7,313.2,241.9,234.5,175,164.7,107.3,78.25,74.18,87.53,51.69,31.37,41.63,36.61,0,0,0,0,0,0,0,0,0,0,0,0,0,0,0,0,
537,88.13,94.85,320.7,318.3,252.7,216,162.5,164.3,88.19,77.05,64.05,73.8,44.02,28.42,31.3,27.71,0,0,0,0,0,0,0,0,0,0,0,0,0,0,0,0,
538,67.78,83.68,305.9,296.4,194.5,189.3,143,152.4,71.23,68.11,47.33,58.27,37.19,22.17,19.55,22.72,0,0,0,0,0,0,0,0,0,0,0,0,0,0,0,0,
539,57.78,75.58,281.7,269.6,133.3,168.5,133,146,81.27,64.59,44.99,58.33,41.95,25.83,20.33,30.91,0,0,0,0,0,0,0,0,0,0,0,0,0,0,0,0,
540,67.07,80.55,256.1,260.7,153.5,166.9,130.3,141.1,89.09,65.45,50.02,65.45,48.38,33.43,22.77,37.17,0,0,0,0,0,0,0,0,0,0,0,0,0,0,0,0,
541,66.83,81.26,241.3,240.8,159.9,157.6,121.7,124.5,73.07,58.05,38.12,58.56,43.67,31.27,13.5,28.94,0,0,0,0,0,0,0,0,0,0,0,0,0,0,0,0,
542,52.93,73.13,230,210.8,121.6,137.1,114.4,109.1,66.12,53.78,29.54,51.63,40.52,28.57,12.78,24.44,0,0,0,0,0,0,0,0,0,0,0,0,0,0,0,0,
543,49.99,69.65,197.8,190.8,112.4,126.2,108.9,95.89,66.44,51.2,37.96,53.29,42.75,27.25,23.89,28.5,0,0,0,0,0,0,0,0,0,0,0,0,0,0,0,0,
544,49.9,66.93,156.8,159.4,103.8,117.9,99.12,73.88,52.82,38.06,41.08,52.19,40.55,19.03,27.02,28.86,0,0,0,0,0,0,0,0,0,0,0,0,0,0,0,0,
545,43.04,59.75,131.5,119.2,68.22,106.3,88.36,53.87,42.79,25.25,33.39,45.32,30.45,6.68,20.56,22.82,0,0,0,0,0,0,0,0,0,0,0,0,0,0,0,0,
546,36.26,47.09,102.7,94.94,46.87,87.94,69.76,38.73,39.44,17.91,27.23,35.75,20.15,0.6265,17.93,19.69,0,0,0,0,0,0,0,0,0,0,0,0,0,0,0,0,
547,29,36.66,73.41,79.77,39.52,64.71,54.22,25.84,38.28,16.48,32.05,35.12,24.35,7.797,25.7,29.43,0,0,0,0,0,0,0,0,0,0,0,0,0,0,0,0,
548,26.03,41.97,69.11,68.53,39.04,54.27,58.3,21.94,45.1,23.91,39.71,40.15,30.26,12.91,25.77,33.7,0,0,0,0,0,0,0,0,0,0,0,0,0,0,0,0,
549,24.35,44.26,57.75,57.2,43.35,45.3,54.4,15.02,39.15,22.63,30.24,29.99,17.34,2.015,5.511,14.72,0,0,0,0,0,0,0,0,0,0,0,0,0,0,0,0,
550,12.63,28.1,21.76,35.79,25.76,27.23,32.51,-3.039,17.37,7.174,12.08,14.62,2.602,-10.4,-12.23,-5.2,0,0,0,0,0,0,0,0,0,0,0,0,0,0,0,0,
551,-0.0499,16.06,-0.4715,15.47,-2.595,18.49,21.44,-15.94,4.944,-3.183,1.211,9.535,-2.661,-17.28,-16.21,-11.95,0,0,0,0,0,0,0,0,0,0,0,0,0,0,0,0,
552,-5.487,14.56,-6.142,1.565,-16.47,16.12,19.92,-19.41,-2.833,-6.69,-7.905,4.852,-7.432,-22.42,-18.77,-14.49,0,0,0,0,0,0,0,0,0,0,0,0,0,0,0,0,
553,-9.385,12.78,-19.35,-14.1,-24.46,12.97,13.68,-23.93,-12.85,-10.43,-9.994,2.448,-5.473,-18.71,-16.36,-9.206,0,0,0,0,0,0,0,0,0,0,0,0,0,0,0,0,
554,-11.47,12.91,-36.7,-25.1,-27.25,15.13,6.124,-29.58,-10.84,-10.75,0.7148,8.967,2.618,-9.732,-3.267,4.273,0,0,0,0,0,0,0,0,0,0,0,0,0,0,0,0,
555,-7.652,11.61,-49.29,-32.1,-26,16.7,-1.833,-32.16,-0.9461,-10.17,6.956,12.76,1.78,-9.071,5.177,8.837,0,0,0,0,0,0,0,0,0,0,0,0,0,0,0,0,
556,-3.113,4.399,-54.65,-44.2,-35.59,13.56,-6.59,-37.54,-0.6336,-12.92,-0.2358,7.139,-7.524,-18.39,-2.656,-2.223,0,0,0,0,0,0,0,0,0,0,0,0,0,0,0,0,
557,-7.253,-1.566,-54.33,-50.9,-45.09,7.142,-4.442,-48.07,-7.682,-15.25,-7.231,2.277,-13.46,-28.29,-9.582,-11.06,0,0,0,0,0,0,0,0,0,0,0,0,0,0,0,0,
558,-12.29,-1.496,-58.4,-51.62,-39.39,4.719,-3.948,-54.86,-6.598,-18.34,-3.273,5.288,-13.28,-30.38,-3.122,-7.899,0,0,0,0,0,0,0,0,0,0,0,0,0,0,0,0,
559,-8.9,0.1096,-69.62,-59.93,-33.63,9.052,-10.64,-56.62,-1.311,-22.18,-0.336,3.893,-15.33,-30.05,-6.945,-11.13,0,0,0,0,0,0,0,0,0,0,0,0,0,0,0,0,
560,-14.21,-4.66,-78.5,-63.91,-37.02,-1.372,-19.61,-56.81,-8.576,-20.4,-12.06,-9.218,-20.77,-34.13,-26.5,-24.24,0,0,0,0,0,0,0,0,0,0,0,0,0,0,0,0,
561,-29.94,-12.17,-79.27,-66.08,-36.74,-19.02,-21.1,-54.64,-18.34,-18.95,-22.64,-15.29,-19.03,-34.09,-30.23,-26.21,0,0,0,0,0,0,0,0,0,0,0,0,0,0,0,0,
562,-29.48,-9.243,-71.1,-86.77,-30.44,-11.3,-11.28,-52.55,-15.46,-23.35,-17.76,-8.62,-11.58,-25.52,-20.86,-18.77,0,0,0,0,0,0,0,0,0,0,0,0,0,0,0,0,
563,-19.21,-0.7579,-60.57,-94.44,-29.59,-0.0144,-5.514,-50.26,-14.23,-24.23,-15.69,-9.919,-11.71,-20.32,-26.39,-19.44,0,0,0,0,0,0,0,0,0,0,0,0,0,0,0,0,
564,-22.81,-2.884,-62.44,-75.13,-35.78,-9.797,-13.66,-46.5,-17.93,-20.57,-22.54,-16.39,-15.23,-21.57,-32.21,-21.42,0,0,0,0,0,0,0,0,0,0,0,0,0,0,0,0,
565,-24.67,-8.518,-71.71,-75.3,-42,-14.79,-17.41,-42.67,-9.969,-17.13,-18.49,-7.248,-8.48,-17.21,-17.94,-11.31,0,0,0,0,0,0,0,0,0,0,0,0,0,0,0,0,
566,-12.35,-5.317,-76.51,-88.03,-46.89,-12.26,-12.17,-38.92,-2.011,-15.71,-9.117,4.264,-1.91,-11.49,-6.481,-2.499,0,0,0,0,0,0,0,0,0,0,0,0,0,0,0,0,
567,-10.12,-5.062,-86.45,-82.93,-47.48,-22.97,-15.48,-42.9,-8.808,-22.19,-9.535,0.7793,-6.16,-15.63,-7.383,-4.819,0,0,0,0,0,0,0,0,0,0,0,0,0,0,0,0,
568,-21.53,-10.93,-94.99,-85.99,-41.16,-36.92,-23.77,-56.64,-16.25,-31.23,-10.24,-3.142,-7.591,-19.57,-3.232,-5.097,0,0,0,0,0,0,0,0,0,0,0,0,0,0,0,0,
569,-29.02,-12.43,-95.13,-100.5,-44.79,-46.15,-31.32,-66.83,-26.85,-36.93,-17.95,-8.973,-10.74,-22.6,-9.03,-10.18,0,0,0,0,0,0,0,0,0,0,0,0,0,0,0,0,
570,-39.74,-17.41,-104.5,-101.7,-59.35,-54.9,-40.42,-66.81,-45.29,-43.31,-38.07,-26.16,-23.81,-32.07,-31.26,-25.26,0,0,0,0,0,0,0,0,0,0,0,0,0,0,0,0,
571,-50.19,-24.15,-104.4,-95.43,-51.91,-52.01,-38.55,-60.95,-42.99,-43.19,-38.12,-31.07,-23.26,-32.97,-35.46,-24,0,0,0,0,0,0,0,0,0,0,0,0,0,0,0,0,
572,-44.61,-21.92,-86.93,-90.59,-34.88,-44.41,-36.65,-60.47,-25.81,-40.13,-22.18,-22.32,-13.18,-26.72,-25.65,-13.43,0,0,0,0,0,0,0,0,0,0,0,0,0,0,0,0,
573,-41.78,-24.96,-94.89,-94.37,-51.63,-53.55,-49.07,-68.93,-30.4,-45.06,-26.38,-23.14,-16.68,-28.3,-24.72,-16.87,0,0,0,0,0,0,0,0,0,0,0,0,0,0,0,0,
574,-45.84,-29.02,-110.8,-109.1,-72.45,-58.85,-44.55,-69.57,-37.58,-41.54,-30.53,-19.68,-13.94,-25.09,-14,-12.92,0,0,0,0,0,0,0,0,0,0,0,0,0,0,0,0,
575,-31.18,-13.52,-98.01,-109.7,-57.09,-37.34,-22.53,-61.12,-21.15,-28.49,-10.52,-2.74,2.302,-14.82,4.832,2.723,0,0,0,0,0,0,0,0,0,0,0,0,0,0,0,0,
576,-14.64,1.165,-92.73,-94.5,-43.15,-22.43,-22.16,-61.56,-9.449,-28.4,5.177,4.427,5.339,-15.12,5.819,3.562,0,0,0,0,0,0,0,0,0,0,0,0,0,0,0,0,
577,-24.06,-4.861,-107,-95.56,-55.97,-38.91,-35.35,-68.27,-17.24,-35.81,1.274,0.5234,-1.77,-21.59,1.496,-2.124,0,0,0,0,0,0,0,0,0,0,0,0,0,0,0,0,
578,-37.15,-14.07,-112.1,-105,-66.03,-51.83,-38.55,-68.35,-22.17,-36.33,-4.394,1.726,0.514,-20.89,7.34,3.554,0,0,0,0,0,0,0,0,0,0,0,0,0,0,0,0,
579,-31.83,-13.61,-109.6,-97.03,-66.05,-42.09,-37.41,-63.52,-18.2,-31.86,-2.667,6.561,6.834,-15.99,8.683,9.056,0,0,0,0,0,0,0,0,0,0,0,0,0,0,0,0,
580,-22.57,-9.64,-101.2,-91.09,-62.54,-36.49,-33.15,-62.55,-12.84,-27.72,3.817,9.882,5.286,-15.4,2.912,6.736,0,0,0,0,0,0,0,0,0,0,0,0,0,0,0,0,
581,-18.8,-8.761,-81.45,-94.72,-45.33,-33.46,-23.53,-63.11,-5.239,-27.48,11.93,15.86,2.862,-15.91,5.362,8.513,0,0,0,0,0,0,0,0,0,0,0,0,0,0,0,0,
582,-13.2,-8.326,-66.37,-79.01,-32.76,-18.54,-19.18,-55.57,-2.157,-25.5,15.22,22.59,7.716,-12.35,11.42,13.44,0,0,0,0,0,0,0,0,0,0,0,0,0,0,0,0,
583,-11.35,-6.073,-68.94,-59.65,-41.08,-16.92,-25.26,-48.52,-7.099,-20.32,15.11,24.19,10.06,-12.54,10.15,10.59,0,0,0,0,0,0,0,0,0,0,0,0,0,0,0,0,
584,-17.33,-6.815,-75.64,-65.37,-37.63,-28.14,-27.19,-50.61,-4.121,-21.24,23.52,28.54,11.39,-14.8,12.57,10.38,0,0,0,0,0,0,0,0,0,0,0,0,0,0,0,0,
585,-15.96,-5.296,-71.24,-68.95,-21.15,-18.79,-15.66,-47.41,6.927,-22.89,33.16,38.49,21.8,-10.4,18.11,16.44,0,0,0,0,0,0,0,0,0,0,0,0,0,0,0,0,
586,-7.392,4.651,-68.76,-58.41,-24.83,1.172,-7.827,-38.43,9.017,-17.59,28.33,41.8,26.34,-8.173,13.8,13.44,0,0,0,0,0,0,0,0,0,0,0,0,0,0,0,0,
587,-6.777,12.69,-73.54,-57.91,-30.68,8.246,-11.97,-40.96,4.743,-13.6,21.15,41.17,20.38,-9.399,13.41,10.5,0,0,0,0,0,0,0,0,0,0,0,0,0,0,0,0,
588,-9.977,13.31,-64.82,-63.75,-21.14,6.8,-15.63,-50.41,4.175,-14.9,25.63,46.27,21.4,-6.586,24.32,17.75,0,0,0,0,0,0,0,0,0,0,0,0,0,0,0,0,
589,-6.576,10.01,-53.53,-66,-16.9,5.985,-16.99,-51.88,8.755,-17.72,32.88,49.36,22.68,-8.141,28.4,19.15,0,0,0,0,0,0,0,0,0,0,0,0,0,0,0,0,
590,0.1501,4.241,-60.7,-69.26,-18.94,14.73,-15.22,-46.72,12.18,-18.38,31.57,44.13,16.02,-11.1,24.01,15.8,0,0,0,0,0,0,0,0,0,0,0,0,0,0,0,0,
591,3.705,3.736,-62.22,-66.97,-28.26,28.35,-5.257,-39.5,4.935,-13.79,22.54,38.62,17.63,-2.284,19.94,19.45,0,0,0,0,0,0,0,0,0,0,0,0,0,0,0,0,
592,3.228,9.697,-54.04,-60.49,-47.17,27,0.6775,-30.81,-4.248,-9.088,14.47,35.59,24.46,4.432,12.97,18.75,0,0,0,0,0,0,0,0,0,0,0,0,0,0,0,0,
593,-3.61,8.385,-66.91,-61.71,-48,14.41,-4.749,-27.19,-7.777,-8.152,7.425,27.66,22.33,-1.528,5.06,9.483,0,0,0,0,0,0,0,0,0,0,0,0,0,0,0,0,
594,-13.61,5.217,-78.54,-60.91,-33.23,20.86,-2.206,-27.46,-10.1,-3.728,5.796,23.79,25.78,-1.029,6.765,8.748,0,0,0,0,0,0,0,0,0,0,0,0,0,0,0,0,
595,-6.173,17.89,-56.69,-53.84,-32.24,50.57,15.98,-19.98,0.1144,2.424,21.82,35.26,38.1,7.016,14.01,15.11,0,0,0,0,0,0,0,0,0,0,0,0,0,0,0,0,
596,14.41,30.16,-38.65,-59.94,-31.94,59.94,23.44,-8.305,16.13,-0.3873,35.61,40.71,35.31,3.388,13.06,11.07,0,0,0,0,0,0,0,0,0,0,0,0,0,0,0,0,
597,15.37,22.25,-45,-67.81,-16.09,38.44,9.285,-2.92,16.21,-7.977,32.44,31.76,23.19,-3.737,11.12,3.538,0,0,0,0,0,0,0,0,0,0,0,0,0,0,0,0,
598,5.971,10.88,-44.22,-55.5,-4.846,32.79,-2.341,-4.533,15.29,-12.84,34.39,28.77,20.39,-3.411,16.36,3.782,0,0,0,0,0,0,0,0,0,0,0,0,0,0,0,0,
599,6.392,4.369,-42.25,-53.31,-9.13,40.91,-5.329,-11.58,18.65,-17.28,35.19,23.98,16.73,-6.35,15.15,2.918,0,0,0,0,0,0,0,0,0,0,0,0,0,0,0,0,
600,-0.7719,-5.367,-57.84,-71.95,-15.25,33.61,-11.69,-17.34,10.95,-18.35,23.28,9.488,11.92,-9.54,8.599,1.187,0,0,0,0,0,0,0,0,0,0,0,0,0,0,0,0,
601,-9.62,-6.155,-67.41,-71.73,-14.44,35.29,-10.01,-19.35,4.305,-14.91,18.69,2.863,15.79,-5.776,6.463,2.448,0,0,0,0,0,0,0,0,0,0,0,0,0,0,0,0,
602,-2.873,6.305,-58.77,-59.32,-10.8,48.67,7.059,-23.35,1.798,-14.34,13.34,0.0117,17.43,-3.127,1.588,0.024,0,0,0,0,0,0,0,0,0,0,0,0,0,0,0,0,
603,0.1217,14.8,-49.4,-61.58,-11.29,46.54,16.4,-25.19,-6.001,-14.18,-1.473,-5.149,15.3,-2.177,-2.022,-1.545,0,0,0,0,0,0,0,0,0,0,0,0,0,0,0,0,
604,-4.605,15.63,-47.14,-57.99,-13.01,44.47,6.654,-23.63,-4.09,-8.604,1.99,1.598,20.32,0.3539,4.313,3.516,0,0,0,0,0,0,0,0,0,0,0,0,0,0,0,0,
605,3.019,16.83,-40.92,-43.16,-4.212,54.46,-1.266,-24.88,12.23,-3.087,24.55,17.49,29.69,4.316,14.02,12.11,0,0,0,0,0,0,0,0,0,0,0,0,0,0,0,0,
606,19.63,20.56,-30.15,-45.74,3.603,59.97,2.359,-29.36,25.03,-4.369,40.19,25.86,36.43,10.22,21.77,20.39,0,0,0,0,0,0,0,0,0,0,0,0,0,0,0,0,
607,26.09,21.52,-35.75,-62.9,-4.631,55.58,1.806,-38.06,23.9,-10.1,38.2,19.92,34.61,11.07,21.82,18.99,0,0,0,0,0,0,0,0,0,0,0,0,0,0,0,0,
608,16.63,15.39,-49.59,-60.1,-1.562,44.38,-3.787,-40.86,13.98,-11.46,22.77,7.037,23.55,5.521,13.72,9.648,0,0,0,0,0,0,0,0,0,0,0,0,0,0,0,0,
609,7.147,10.06,-46.06,-39,13.86,37.76,-2.978,-25.17,8.451,-6.775,10.63,-0.7472,14.51,2.328,9.143,4.937,0,0,0,0,0,0,0,0,0,0,0,0,0,0,0,0,
610,10.13,11.72,-38.99,-37.29,8.359,40.43,2.196,-8.671,8.842,-2.396,9.625,-3.955,14.37,3.495,9.622,4.484,0,0,0,0,0,0,0,0,0,0,0,0,0,0,0,0,
611,14.15,15.44,-37.57,-47.41,9.697,33.19,9.69,-11.12,8.443,-0.7268,8.441,-4.809,18.73,6.816,9.838,6.077,0,0,0,0,0,0,0,0,0,0,0,0,0,0,0,0,
612,12.76,18.88,-34.72,-42.88,22.77,19.56,14.37,-19.6,10.66,-2.985,5.157,-1.142,20.77,8.621,9.355,8.611,0,0,0,0,0,0,0,0,0,0,0,0,0,0,0,0,
613,15.1,21.7,-37.06,-44.75,-2.346,26.08,8.598,-11.97,16.87,-5.005,7.263,0.8265,19.43,7.647,6.707,7.099,0,0,0,0,0,0,0,0,0,0,0,0,0,0,0,0,
614,21.31,25.11,-31.26,-52.74,-21.08,41.68,6.224,4.604,22.13,1.647,13.12,0.5125,22.33,9.71,4.683,6.423,0,0,0,0,0,0,0,0,0,0,0,0,0,0,0,0,
615,26.25,35.94,-17.41,-40.76,10.49,46.28,18.01,9.011,26.47,12.37,19.1,6.877,34.93,16.84,9.64,13.03,0,0,0,0,0,0,0,0,0,0,0,0,0,0,0,0,
616,35.04,52.86,-18.65,-26.92,28.09,58.83,33.09,15.71,32.98,23.03,28.27,19.18,51.73,26.2,20.49,24.12,0,0,0,0,0,0,0,0,0,0,0,0,0,0,0,0,
617,49.52,64.25,-15.28,-21.77,21.3,80.66,44.08,33.45,40.98,33.86,39.34,28.64,60.66,32.59,29.04,33.05,0,0,0,0,0,0,0,0,0,0,0,0,0,0,0,0,
618,55.07,65.02,-4.661,-15.38,22.03,76.28,43.76,28.45,41.32,33.02,41.37,29.68,56.76,32.39,31.73,34.94,0,0,0,0,0,0,0,0,0,0,0,0,0,0,0,0,
619,43.99,57.48,-14.32,-21.58,12.1,48.77,26.15,8.457,31.11,21.18,33.84,23.83,48.94,31.11,32.3,32.12,0,0,0,0,0,0,0,0,0,0,0,0,0,0,0,0,
620,30.28,44.95,-19.75,-32.27,6.457,34.21,9.21,11.5,22.87,15.09,27.5,15.62,43.11,30.71,26.98,26.47,0,0,0,0,0,0,0,0,0,0,0,0,0,0,0,0,
621,22.77,36.75,-14.05,-25.97,12.53,35.41,8.736,19.23,19.55,14.78,21.63,8.237,38.3,30.16,15.34,21.29,0,0,0,0,0,0,0,0,0,0,0,0,0,0,0,0,
622,19.38,41.01,-24.52,-19.91,0.5538,36.96,13.56,12.43,16.04,13.71,15.9,8.242,40.43,34.73,15.36,26.24,0,0,0,0,0,0,0,0,0,0,0,0,0,0,0,0,
623,23.7,50.44,-27.49,-36.39,2.009,40.58,19.62,8.794,18.53,13.61,20.74,18.68,50.15,39.15,28.44,34.84,0,0,0,0,0,0,0,0,0,0,0,0,0,0,0,0,
624,33.8,54.55,-18.17,-70.93,21.52,52.22,30.99,10.28,24.78,13.45,30.35,29.83,55,34.28,32.57,32.54,0,0,0,0,0,0,0,0,0,0,0,0,0,0,0,0,
625,39.64,50.55,-24.28,-82.48,5.975,61.5,31.13,11.77,23.9,10.68,28.79,32.29,50.05,26.46,26.5,26.5,0,0,0,0,0,0,0,0,0,0,0,0,0,0,0,0,
626,36.99,38.17,-24.88,-44.99,-12.76,50.93,18.13,8.343,19.64,5.138,19.23,25.87,40.33,20.67,21.68,24.53,0,0,0,0,0,0,0,0,0,0,0,0,0,0,0,0,
627,24.37,23.96,-22.1,-28.68,-3.461,29.11,10.17,-10.06,14.7,-0.6182,10.06,14.77,28.33,13.28,14.4,19.31,0,0,0,0,0,0,0,0,0,0,0,0,0,0,0,0,
628,9.205,16.06,-40.86,-66.29,-12.69,22.16,-0.8471,-19.97,8.242,-2.581,5.062,8.304,20.14,7.898,8.223,13.91,0,0,0,0,0,0,0,0,0,0,0,0,0,0,0,0,
629,7.739,13.77,-41.97,-59.22,-24.1,28.11,-15.85,-0.1366,9.208,-2.726,8.905,9.695,19.71,9.603,10.12,15.18,0,0,0,0,0,0,0,0,0,0,0,0,0,0,0,0,
630,14.13,14.08,-20.22,-5.612,-5.21,24.53,-14.03,15.64,11.72,-4.531,10.64,7.034,17.44,11.44,6.728,12.84,0,0,0,0,0,0,0,0,0,0,0,0,0,0,0,0,
631,11.98,17.35,-20.81,-11.33,1.277,13.42,-2.973,12.51,7.662,-2.532,3.977,2.82,17.26,11.16,1.464,8.224,0,0,0,0,0,0,0,0,0,0,0,0,0,0,0,0,
632,12.6,27.59,-21.55,-44.51,-4.62,15.69,6.709,20.16,12.82,7.183,8.618,14.19,32.33,17.28,14.42,16.99,0,0,0,0,0,0,0,0,0,0,0,0,0,0,0,0,
633,23.32,40.49,-9.9,-40.83,5.108,24.12,15.72,28.45,22.89,13.37,21.86,28.03,44.49,23.45,28.08,27.34,0,0,0,0,0,0,0,0,0,0,0,0,0,0,0,0,
634,24.39,41.54,-23.95,-43.92,2.626,15.32,10.07,14.62,18.01,8.675,20.74,24.24,40.23,20.09,21.98,23.41,0,0,0,0,0,0,0,0,0,0,0,0,0,0,0,0,
635,14.59,34.72,-39.57,-55.23,-8.282,2.199,-2.477,5.02,11.7,4.825,14.41,16.37,37.71,16.33,12.6,17.95,0,0,0,0,0,0,0,0,0,0,0,0,0,0,0,0,
636,10.72,32.19,-25.14,-46.1,1.627,4.516,-1.506,10.72,16.19,6.702,17.48,15.55,37.64,16.1,9.52,17.37,0,0,0,0,0,0,0,0,0,0,0,0,0,0,0,0,
637,13.51,27.91,-10.83,-41.54,9.513,10.85,2.466,13.8,21.44,6.039,21.33,17.26,31.94,14.47,10.5,15.66,0,0,0,0,0,0,0,0,0,0,0,0,0,0,0,0,
638,18.79,20.94,-9.798,-41.85,2.909,12.12,0.8752,19.47,25.13,4.785,20.93,21.09,28.62,13.47,17.33,14.93,0,0,0,0,0,0,0,0,0,0,0,0,0,0,0,0,
639,22.36,18.17,-13.34,-39.88,0.3897,9.35,-0.2116,28.21,26.11,7.832,21.67,22.06,27.71,14.93,22.63,16.85,0,0,0,0,0,0,0,0,0,0,0,0,0,0,0,0,
640,21.51,18.1,-23.1,-44.55,1.359,9.901,0.1688,29.48,25.42,10.19,26.46,21.11,31.08,19.23,23.99,20.3,0,0,0,0,0,0,0,0,0,0,0,0,0,0,0,0,
641,25.4,20.49,-30.8,-39.17,0.3351,23.69,3.248,29.48,29.66,7.907,29.64,26.12,40.18,21.81,23.44,21.4,0,0,0,0,0,0,0,0,0,0,0,0,0,0,0,0,
642,30.82,21.86,-25.85,-28.16,-1.63,26.47,6.949,28,31,5.851,26.42,28.46,39.79,17.18,16.3,18.25,0,0,0,0,0,0,0,0,0,0,0,0,0,0,0,0,
643,23.51,19.05,-12.73,-27.19,-5.379,6.464,7.4,23.41,23.03,8.562,21.15,21.79,31.13,13.32,8.446,16.2,0,0,0,0,0,0,0,0,0,0,0,0,0,0,0,0,
644,12.29,18.3,-10.8,-30.11,-6.442,6.395,4.75,24.63,15.27,8.354,16.75,15.67,26.96,13.28,7.203,13.18,0,0,0,0,0,0,0,0,0,0,0,0,0,0,0,0,
645,11.43,17.15,-21.3,-35.57,1.598,26.11,2.243,28.96,14.65,1.964,17.32,15.52,24.36,10.65,8.771,9.284,0,0,0,0,0,0,0,0,0,0,0,0,0,0,0,0,
646,17.63,13.37,-15.93,-25.34,12.02,21.39,8.032,32.52,19.46,0.897,26.91,22.2,25.25,9.735,12.38,13,0,0,0,0,0,0,0,0,0,0,0,0,0,0,0,0,
647,24.51,15.02,0.5428,-5.765,3.604,6.349,15.96,36.28,23.46,4.098,36.66,33.79,32.08,12.97,17.2,17.67,0,0,0,0,0,0,0,0,0,0,0,0,0,0,0,0,
648,27.1,17.64,0.9874,-16.62,-16.17,7.894,13.41,36.06,23.29,4.04,38.44,40.02,34.46,14.51,16.58,15.48,0,0,0,0,0,0,0,0,0,0,0,0,0,0,0,0,
649,22.54,15.36,-6.345,-30.8,-12.27,7.31,11.3,32.05,20.38,5.886,32.76,34.94,31.72,14.9,7.825,12.92,0,0,0,0,0,0,0,0,0,0,0,0,0,0,0,0,
650,13.41,13.54,-13.31,-25.2,-1.9,-5.503,12.46,24.15,12.79,4.961,23.4,24.87,29.13,15.16,-2.41,10.79,0,0,0,0,0,0,0,0,0,0,0,0,0,0,0,0,
651,1.121,8.647,-23.25,-30.79,-17.63,-19.94,1.442,14.38,3.035,-4.809,17.43,17.34,23.31,12.3,-8.065,5.722,0,0,0,0,0,0,0,0,0,0,0,0,0,0,0,0,
652,-6.768,0.1506,-26.19,-31.96,-24.48,-25.67,-10.71,12.41,0.127,-10.25,15.03,14.88,17.3,8.413,-11.62,0.7999,0,0,0,0,0,0,0,0,0,0,0,0,0,0,0,0,
653,-1.985,-1.01,-23.41,-26.81,-9.787,-17.7,-9.016,16.26,2.152,-8.48,13.67,16.03,16.77,6.18,-11.95,-1.234,0,0,0,0,0,0,0,0,0,0,0,0,0,0,0,0,
654,2.829,0.6242,-24.08,-42.17,-18.41,-11.59,-6.229,19.16,2.91,-9.599,16.96,18.04,17.4,3.462,-5.035,0.2349,0,0,0,0,0,0,0,0,0,0,0,0,0,0,0,0,
655,2.207,-1.405,-23.28,-40,-36.04,-16.35,-6.452,18.64,6.944,-10.01,24.12,23.33,19.42,3.08,2.24,4.216,0,0,0,0,0,0,0,0,0,0,0,0,0,0,0,0,
656,8.311,0.4585,-18.37,-21.25,-27.66,-24.96,-6.093,7.686,9.991,-7.853,25.08,25.81,19.28,4.54,-0.6965,2.475,0,0,0,0,0,0,0,0,0,0,0,0,0,0,0,0,
657,7.481,-0.8056,-18.95,-35.47,-28.84,-41.67,-12.93,-6.631,0.4415,-11.51,14,14.29,9.167,-0.2868,-9.353,-5.709,0,0,0,0,0,0,0,0,0,0,0,0,0,0,0,0,T1
658,-3.496,-7.954,-25.71,-50.21,-49.28,-47.01,-17.11,-9.785,-4.742,-16.73,9.249,8.567,9.359,-0.5779,-4.532,-1.552,0,0,0,0,0,0,0,0,0,0,0,0,0,0,0,0,
659,5.933,-2.028,-27.19,-41.71,-48.78,-24.68,-9.451,-9.124,5.686,-14.53,20.05,19.02,24.52,9.226,7.903,9.565,0,0,0,0,0,0,0,0,0,0,0,0,0,0,0,0,
660,19.09,7.426,-28.2,-40.75,-40.6,-17.47,-6.92,-4.652,5.263,-7.684,16.11,13.95,20.88,6.095,0.542,-0.8623,0,0,0,0,0,0,0,0,0,0,0,0,0,0,0,0,
661,9.64,3.546,-28.41,-30.35,-43.8,-29.68,-6.558,19.29,-2.872,0.9444,-2.751,-0.9212,9.082,-3.408,-12.17,-15.42,0,0,0,0,0,0,0,0,0,0,0,0,0,0,0,0,
662,9.595,4.867,-13.43,-5.917,-32.65,-18.91,4.341,44.66,4.482,7.254,-3.67,3.581,16.23,3.829,-5.569,-6.733,0,0,0,0,0,0,0,0,0,0,0,0,0,0,0,0,
663,21.27,11.74,-8.156,-5.451,-18,-3.943,12.59,46.62,10.62,6.107,6.067,11.79,21.38,12.78,5.596,7.281,0,0,0,0,0,0,0,0,0,0,0,0,0,0,0,0,
664,22.3,11.13,-16.19,-11.28,-21.05,-2.03,17.79,48.09,14.13,6.021,15.18,17.88,22.65,15.41,15.39,15.6,0,0,0,0,0,0,0,0,0,0,0,0,0,0,0,0,
665,30.26,15.93,6.812,5.841,-18.55,2.015,22.28,62.11,25.34,9.58,22.94,23.29,28.45,17.26,19.2,16.96,0,0,0,0,0,0,0,0,0,0,0,0,0,0,0,0,
666,32.91,17.2,21.89,16.56,-15.38,-12.97,8.951,59.74,15.41,4.446,5.45,3.247,14.52,6.479,-3.195,-0.6821,0,0,0,0,0,0,0,0,0,0,0,0,0,0,0,0,
667,7.984,-1.214,-15.54,-3.127,-34.81,-39.58,-9.992,45.04,-12.39,-6.021,-28.57,-25.26,-7.325,-8.609,-31.04,-21.57,0,0,0,0,0,0,0,0,0,0,0,0,0,0,0,0,
668,-8.881,-13.3,-33.74,-29.34,-49.85,-39.87,-11.99,47.78,-22.49,-9.099,-40.41,-27.56,-5.628,-9.91,-33.29,-23.81,0,0,0,0,0,0,0,0,0,0,0,0,0,0,0,0,
669,-2.51,-5.391,-15.11,-29.77,-44.15,-32.6,-6.315,56.36,-20.94,-7.314,-31.64,-19.35,4.803,-6.456,-23.73,-16,0,0,0,0,0,0,0,0,0,0,0,0,0,0,0,0,
670,1.24,0.9272,-18.58,-15.97,-45.58,-36.38,-1.115,52.82,-19.76,-7.915,-24.83,-19.36,5.553,-6.421,-19.79,-11.52,0,0,0,0,0,0,0,0,0,0,0,0,0,0,0,0,
671,-2.872,-1.901,-26.25,-25.96,-51.78,-38.7,1.237,45.74,-19.03,-9.397,-23.13,-23.18,2.147,-6.29,-18.48,-11.88,0,0,0,0,0,0,0,0,0,0,0,0,0,0,0,0,
672,-9.535,-5.784,-25.65,-53.28,-39.64,-44.27,-6.754,36.8,-26.02,-8.56,-18.96,-26.84,-0.1392,-5.941,-16.74,-11.95,0,0,0,0,0,0,0,0,0,0,0,0,0,0,0,0,
673,-16.06,-10.51,-46.37,-61.93,-33.58,-50.33,-19.88,28.14,-29.3,-11.56,-16.69,-28.3,-1.204,-6.861,-15.96,-10.91,0,0,0,0,0,0,0,0,0,0,0,0,0,0,0,0,
674,-17.91,-15.87,-55.74,-48.63,-54.63,-49.39,-28.31,31.31,-20.66,-19.95,-22.97,-27.44,-2.377,-8.112,-14.53,-11.54,0,0,0,0,0,0,0,0,0,0,0,0,0,0,0,0,
675,-18.7,-15.89,-38.53,-41.22,-64.16,-55.16,-31.03,35.61,-17.46,-22.85,-25.9,-26.11,-5.04,-8.924,-12.7,-12.26,0,0,0,0,0,0,0,0,0,0,0,0,0,0,0,0,
676,-21.85,-15.78,-38.98,-55.01,-46.94,-60.41,-31.97,29.82,-22.41,-22.59,-26.15,-28.86,-10.28,-13.54,-18.95,-15.8,0,0,0,0,0,0,0,0,0,0,0,0,0,0,0,0,
677,-20.8,-21.48,-46.84,-59.37,-41.9,-46.34,-30.09,32.37,-24.14,-25.49,-35.1,-34.01,-13.67,-19.4,-28.24,-19.96,0,0,0,0,0,0,0,0,0,0,0,0,0,0,0,0,
678,-12.93,-21.31,-35.2,-34.69,-51.96,-34.23,-22.11,44.49,-25.54,-24.23,-38.51,-34,-13.14,-18.79,-27.58,-17.82,0,0,0,0,0,0,0,0,0,0,0,0,0,0,0,0,
679,-11.56,-17.61,-27,-20.24,-49.5,-40.63,-19.52,45.47,-28.75,-21.69,-32.09,-33.85,-15.96,-17.78,-25.13,-16.17,0,0,0,0,0,0,0,0,0,0,0,0,0,0,0,0,
680,-18.48,-22.21,-25.17,-26.61,-37.27,-38.37,-23,44.86,-22.98,-21.44,-28.96,-32.66,-15.11,-17.17,-24.18,-14.47,0,0,0,0,0,0,0,0,0,0,0,0,0,0,0,0,
681,-13.33,-18.77,-19.58,-25.59,-24.08,-23.17,-14.26,52.28,-8.665,-15.74,-22.77,-19.61,-0.8017,-7.608,-13.46,-3.665,0,0,0,0,0,0,0,0,0,0,0,0,0,0,0,0,
682,1.688,-2.118,-24.04,-22.54,-16.51,-21.7,-4.907,49.98,-0.8653,-9.205,-9.724,-3.292,12.09,1.971,1.549,7.073,0,0,0,0,0,0,0,0,0,0,0,0,0,0,0,0,
683,9.19,5.404,-25.54,-17.79,-22.16,-25.28,-9.345,42.83,0.58,-5.712,-0.2403,5.224,13.15,0.3286,9.559,8.296,0,0,0,0,0,0,0,0,0,0,0,0,0,0,0,0,
684,12.26,2.068,-11.31,-5.738,-20.5,-18.72,-7.91,44.81,3.888,-3.385,1.26,6.509,8.795,-5.367,10.89,4.732,0,0,0,0,0,0,0,0,0,0,0,0,0,0,0,0,
685,11.06,-3.769,-12.18,-10.23,-7.259,-17.84,-3.983,42.3,3.519,-12.11,-4.565,-0.4825,0.5752,-10.13,7.685,-0.4459,0,0,0,0,0,0,0,0,0,0,0,0,0,0,0,0,
686,1.836,-14.13,-27.93,-20.69,-13.21,-25.16,-15.02,34.59,-2.122,-27.29,-12.43,-10.29,-8.389,-16.32,0.3386,-7.779,0,0,0,0,0,0,0,0,0,0,0,0,0,0,0,0,
687,-6.318,-18.4,-23.17,-5.982,-29.38,-29.44,-19.51,35.66,-9.268,-28.37,-17.13,-13.39,-6.545,-17.81,-6.333,-11.06,0,0,0,0,0,0,0,0,0,0,0,0,0,0,0,0,
688,-8.667,-5.923,-8.473,10.77,-34.26,-31.19,-7.172,34.9,-19.14,-18.28,-19.52,-10.7,6.02,-10.9,-4.667,-5.614,0,0,0,0,0,0,0,0,0,0,0,0,0,0,0,0,
689,-4.524,7.681,-7.684,2.822,-40.12,-29.61,-3.237,25.11,-22.16,-15.59,-19.46,-11.78,8.605,-10.1,-1.972,-6.05,0,0,0,0,0,0,0,0,0,0,0,0,0,0,0,0,
690,1.796,2.932,-6.076,-5.403,-34.87,-25.78,-13.03,22.43,-12.79,-23.87,-18.55,-21.58,-7.584,-22.04,-11.25,-20.08,0,0,0,0,0,0,0,0,0,0,0,0,0,0,0,0,
691,-1.736,-13.44,0.2597,6.878,-11.69,-22.22,-21.85,24.56,-6.762,-32.21,-22.23,-29.3,-20.19,-30.67,-21.4,-27.17,0,0,0,0,0,0,0,0,0,0,0,0,0,0,0,0,
692,-7.584,-20.01,-0.6433,16.9,-2.107,-12.16,-23.97,16.29,-5.201,-31.75,-25.82,-23.97,-12.68,-25.07,-16.11,-16.36,0,0,0,0,0,0,0,0,0,0,0,0,0,0,0,0,
693,-0.7692,-10.34,2.608,10.52,3.171,0.6608,-19.47,6.308,5.438,-25.22,-17.17,-12.36,3.505,-10.61,-3.23,0.0447,0,0,0,0,0,0,0,0,0,0,0,0,0,0,0,0,
694,6.681,0.7886,3.276,3.836,17.07,3.096,-15.1,-1.95,12.59,-22.63,-4.129,-8.522,9.569,-3.28,0.5648,6.906,0,0,0,0,0,0,0,0,0,0,0,0,0,0,0,0,
695,1.581,-0.6548,-17.93,-5.814,6.906,-2.85,-15.03,-16.3,2.401,-26.63,-5.924,-14.25,3.719,-11.44,-4.457,-0.2083,0,0,0,0,0,0,0,0,0,0,0,0,0,0,0,0,
696,-4.363,-7.005,-30.25,-22.6,-13.34,-10.8,-15.39,-19.79,-6.875,-30.01,-14.25,-16.86,1.158,-17.67,-6.816,-7.562,0,0,0,0,0,0,0,0,0,0,0,0,0,0,0,0,
697,-2.117,-7.251,-18.96,-22.57,-5.786,-18.31,-22.43,-11.72,-2.79,-31.94,-12.14,-13.69,3.22,-14.59,-7.22,-8.164,0,0,0,0,0,0,0,0,0,0,0,0,0,0,0,0,
698,1.502,-9.022,-18.48,-7.339,8.166,-16.66,-33.46,-17.57,3.049,-35.23,-7.482,-15,0.9721,-16.13,-9.657,-9.995,0,0,0,0,0,0,0,0,0,0,0,0,0,0,0,0,
699,1.976,-13.77,-21.89,-2.822,5.934,-9.691,-28.96,-24.9,2.947,-33.04,-11.86,-21.24,0.0708,-18.18,-12.07,-12.01,0,0,0,0,0,0,0,0,0,0,0,0,0,0,0,0,
700,-3.407,-12.15,-12.38,-7.513,-3.132,-15.67,-17.48,-18.22,-3.058,-26.51,-22.62,-30.4,-0.9503,-15.45,-19.34,-13.42,0,0,0,0,0,0,0,0,0,0,0,0,0,0,0,0,
701,-15.23,-11.28,-14.89,-13.36,-12.63,-30.21,-19.55,-18.45,-11.5,-26.97,-29.61,-39.03,-6.761,-16.53,-25.85,-14.72,0,0,0,0,0,0,0,0,0,0,0,0,0,0,0,0,
702,-20.45,-16.59,-25.16,-22.92,-17.88,-31.42,-23.41,-25.37,-12.65,-31.15,-25.88,-34.48,-5.401,-17.03,-18.12,-10.68,0,0,0,0,0,0,0,0,0,0,0,0,0,0,0,0,
703,-9.985,-17.64,-20,-27.09,-13.24,-15.8,-18.75,-21.47,-2.668,-29.66,-14.39,-19.79,1.211,-12.53,-5.478,-5.993,0,0,0,0,0,0,0,0,0,0,0,0,0,0,0,0,
704,4.684,-14.81,-11.59,-20.63,0.5831,-3.683,-17.65,-14.61,8.685,-23.69,-1.536,-11.78,2.251,-8.934,1.971,-2.172,0,0,0,0,0,0,0,0,0,0,0,0,0,0,0,0,
705,8.323,-14.29,-9.892,-12.75,11.25,-9.97,-19.87,-14.77,10.53,-17.97,5.111,-12.35,5.495,-4.754,8.594,6.053,0,0,0,0,0,0,0,0,0,0,0,0,0,0,0,0,
706,2.542,-10.43,-4.487,-4.645,8.968,-12.95,-13.21,-16.5,7.706,-15.98,5.132,-11.54,13.05,1.536,14.04,12.81,0,0,0,0,0,0,0,0,0,0,0,0,0,0,0,0,
707,2.975,-4.391,5.234,-1.977,8.966,1.919,-5.576,-15.82,10.23,-18.17,6.38,-6.876,14.22,3.766,15.51,14.85,0,0,0,0,0,0,0,0,0,0,0,0,0,0,0,0,
708,8.918,-6.882,5.527,-11.81,16.74,3.701,-11.49,-17.91,11.68,-19.59,3.953,-7.071,9.281,-0.3779,11.4,13.63,0,0,0,0,0,0,0,0,0,0,0,0,0,0,0,0,
709,4.615,-12.86,-4.765,-12.91,11.96,-11.39,-18.16,-24.05,7.632,-15.12,-3.061,-11.88,6.442,-4.182,5.445,8.22,0,0,0,0,0,0,0,0,0,0,0,0,0,0,0,0,
710,-2.582,-10.91,-8.875,-3.225,-0.2762,-10.97,-11.96,-26,7.778,-8.117,-2.517,-11.24,6.805,-1.897,5.406,3.945,0,0,0,0,0,0,0,0,0,0,0,0,0,0,0,0,
711,0.5544,-7.781,-4.824,-6.886,2.599,-0.6552,-7.766,-23.76,11.37,-7.501,-0.65,-10.61,5.999,1.492,5.26,2.352,0,0,0,0,0,0,0,0,0,0,0,0,0,0,0,0,
712,2.245,-12,-1.259,-7.077,12.35,-0.8668,-14.75,-26.61,8.886,-13.54,-4.629,-17.38,1.892,-1.352,-1.863,-2.152,0,0,0,0,0,0,0,0,0,0,0,0,0,0,0,0,
713,-4.016,-18.45,2.473,2.672,11.31,-6.995,-21.47,-36.59,3.07,-18.7,-7.088,-22.26,-4.21,-7.688,-7.431,-8.341,0,0,0,0,0,0,0,0,0,0,0,0,0,0,0,0,
714,-5.621,-21.04,3.132,-4.557,7.17,-6.47,-20.14,-46.57,4.765,-19.18,-11.75,-20.9,-7.415,-8.915,-7.352,-11.24,0,0,0,0,0,0,0,0,0,0,0,0,0,0,0,0,
715,-1.418,-19.08,0.1751,-8.458,9.891,3.012,-16.09,-47.02,10.48,-17.4,-21.03,-20.2,-5.568,-6.084,-8.611,-10.57,0,0,0,0,0,0,0,0,0,0,0,0,0,0,0,0,
716,-2.863,-16.97,-1.489,1.367,8.974,5.535,-16.94,-39.67,6.204,-16.8,-24.74,-21.29,-3.323,-6.569,-11.01,-8.199,0,0,0,0,0,0,0,0,0,0,0,0,0,0,0,0,
717,-5.702,-15.82,-2.226,-10.2,-0.675,1.845,-14.46,-36.77,-0.2621,-13.96,-21.38,-20.16,-1.131,-6.519,-8.233,-5.106,0,0,0,0,0,0,0,0,0,0,0,0,0,0,0,0,
718,-0.8799,-11.76,0.8378,-25.85,-5.499,6.884,-6.132,-38.48,1.058,-8.713,-19.76,-20.09,1.539,-3.187,-5.599,-4.147,0,0,0,0,0,0,0,0,0,0,0,0,0,0,0,0,
719,0.3594,-10.92,1.951,-13.96,-0.8128,6.086,-10.62,-35.22,-2.994,-9.63,-22,-23.49,1.758,-2.483,-7.532,-4.374,0,0,0,0,0,0,0,0,0,0,0,0,0,0,0,0,
720,-5.082,-15.11,-8.279,0.5002,-2.868,-1.565,-20.74,-30.85,-9.681,-11.61,-21.13,-24.11,1.714,-2.48,-5.54,-0.7552,0,0,0,0,0,0,0,0,0,0,0,0,0,0,0,0,
721,-5.246,-14.99,-17.84,-3.859,-20.32,-0.1066,-18,-36.58,-8.707,-7.264,-20.17,-23.6,0.4378,-3.032,-1.944,1.25,0,0,0,0,0,0,0,0,0,0,0,0,0,0,0,0,
722,-6.681,-14.84,-19.09,-15.77,-28.06,-2.897,-18.42,-43.42,-9.452,-7.472,-24.34,-24.14,-2.655,-6.431,-2.111,-1.199,0,0,0,0,0,0,0,0,0,0,0,0,0,0,0,0,
723,-12.17,-18.74,-21.33,-19.32,-11,-7.352,-28.13,-38.26,-9.02,-13.29,-23.24,-20.16,-3.051,-7.106,0.6894,-0.7213,0,0,0,0,0,0,0,0,0,0,0,0,0,0,0,0,
724,-10.57,-20.77,-26.48,-17.37,0.1058,-2.354,-30.64,-37.4,-3.857,-14.75,-18.33,-17.62,-5.677,-7.388,3.692,-0.0126,0,0,0,0,0,0,0,0,0,0,0,0,0,0,0,0,
725,-8.048,-23.08,-30.16,-23.94,-6.076,-5.197,-26.68,-48.95,-4.44,-15.34,-19.18,-16.63,-7.582,-7.947,5.146,0.6734,0,0,0,0,0,0,0,0,0,0,0,0,0,0,0,0,
726,-8.14,-23.28,-29.03,-32.12,-9.832,-13.08,-24.06,-51.52,-6.732,-16.95,-18.22,-9.347,-1.98,-4.083,8.483,4.291,0,0,0,0,0,0,0,0,0,0,0,0,0,0,0,0,
727,-6.34,-20.2,-23.4,-37.04,-10.74,-18.03,-25.52,-47.73,-8.844,-15.41,-18.82,-9.152,-4.448,-5.37,3.319,0.3533,0,0,0,0,0,0,0,0,0,0,0,0,0,0,0,0,
728,-10.39,-23.49,-19.58,-40.96,-2.787,-26.92,-28.82,-52.7,-13.73,-15.56,-25.76,-16.47,-13.75,-10.37,-3.843,-6.005,0,0,0,0,0,0,0,0,0,0,0,0,0,0,0,0,
729,-13.15,-25.24,-21.01,-32.26,8.077,-23.11,-27.05,-55.73,-11.97,-18.88,-19.23,-11.86,-9.022,-6.063,5.085,0.0128,0,0,0,0,0,0,0,0,0,0,0,0,0,0,0,0,
730,-2.358,-17.34,-25.94,-28.49,-9.301,-8.422,-22.98,-55.79,-7.468,-17.42,-1.392,-3.852,1.009,-0.8237,14.91,7.915,0,0,0,0,0,0,0,0,0,0,0,0,0,0,0,0,
731,5.274,-12.59,-31.41,-39.9,-23.48,-14.22,-20.34,-59.47,-8.296,-12.45,0.6861,-5.394,3.893,-0.445,11.8,9.308,0,0,0,0,0,0,0,0,0,0,0,0,0,0,0,0,
732,-0.0518,-12.13,-32.25,-29.23,5.324,-31.3,-18.55,-56.02,-7.528,-11.55,-9.502,-7.236,5.957,2.273,10.72,12.03,0,0,0,0,0,0,0,0,0,0,0,0,0,0,0,0,
733,-3.493,-9.653,-24.65,-13.77,28.13,-30.76,-19.44,-48.92,-5.268,-11.33,-11.93,-6.516,4.706,3.268,13.91,14.6,0,0,0,0,0,0,0,0,0,0,0,0,0,0,0,0,
734,-2.276,-9.574,-16.41,-26.59,17.79,-21.53,-18.7,-46.46,-4.247,-8.353,-8.794,-7.377,-0.7792,-0.015,10.58,12.6,0,0,0,0,0,0,0,0,0,0,0,0,0,0,0,0,
735,-3.571,-11.02,-16.72,-23.75,13.89,-24.29,-17.65,-37.46,-0.9735,-7.319,-8.353,-6.63,0.3408,0.0854,9.021,12.29,0,0,0,0,0,0,0,0,0,0,0,0,0,0,0,0,
736,-1.999,-9.545,-18.25,-9.745,16.55,-29.54,-18.31,-28.74,2.373,-6.176,-8.879,-3.221,7.792,5.968,16.05,15.81,0,0,0,0,0,0,0,0,0,0,0,0,0,0,0,0,
737,5.014,-5.152,-17.68,-29.11,6.442,-22.49,-9.96,-34.8,2.004,-2.554,-8.789,-4.25,8.352,9.252,16.33,14.14,0,0,0,0,0,0,0,0,0,0,0,0,0,0,0,0,
738,7.416,-4.917,-19.42,-36.97,7.463,-20.06,-5.729,-40.26,-2.345,-4.153,-8.12,-11.68,-1.455,1.917,6.219,7.035,0,0,0,0,0,0,0,0,0,0,0,0,0,0,0,0,
739,2.281,-15.7,-11.55,-16.95,23.25,-31.75,-19.66,-39.71,-7.233,-11.06,-10.48,-16.21,-7.41,-4.729,0.2951,3.324,0,0,0,0,0,0,0,0,0,0,0,0,0,0,0,0,
740,-3.308,-23.06,1.71,-19.58,17.49,-34.81,-23.13,-46.54,-9.669,-11.35,-21.06,-15.96,-3.462,0.8859,-2.617,0.161,0,0,0,0,0,0,0,0,0,0,0,0,0,0,0,0,
741,-5.979,-19.43,-5.433,-26.99,-4.548,-28.48,-12.88,-52.73,-13.6,-5.555,-31.68,-17.36,-3.799,2.567,-7.926,-4.239,0,0,0,0,0,0,0,0,0,0,0,0,0,0,0,0,
742,-6.447,-21.78,-19.44,-17.77,-7.299,-31.23,-16.77,-51.53,-16.14,-9.311,-32.81,-18.05,-11.63,-7.708,-8.354,-3.881,0,0,0,0,0,0,0,0,0,0,0,0,0,0,0,0,
743,-6.172,-25.89,-13,-20.07,2.757,-34.05,-22.92,-51.42,-9.017,-19.16,-28.06,-15.47,-15.43,-12,-5.938,-3.816,0,0,0,0,0,0,0,0,0,0,0,0,0,0,0,0,
744,-7.502,-23.52,-7.851,-30.97,0.5941,-32.89,-23.35,-51.77,-4.545,-19.46,-22.63,-13.95,-17.4,-9.607,-9.408,-7.788,0,0,0,0,0,0,0,0,0,0,0,0,0,0,0,0,
745,-9.944,-26.63,-24.53,-42.49,-9.818,-40.18,-29.63,-51.14,-14.64,-21.56,-20.52,-13.51,-21.12,-12.02,-12.74,-8.212,0,0,0,0,0,0,0,0,0,0,0,0,0,0,0,0,
746,-8.502,-24.41,-35.06,-47.2,-7.736,-42.34,-25.35,-49.7,-19.65,-30.34,-19.39,-11.74,-18.42,-12.59,-6.521,-4.536,0,0,0,0,0,0,0,0,0,0,0,0,0,0,0,0,
747,-5.723,-16.62,-30.7,-30.03,1.474,-35.35,-19.23,-51.96,-12,-25.37,-15.64,-12.86,-15.39,-9.635,-0.1369,-4.048,0,0,0,0,0,0,0,0,0,0,0,0,0,0,0,0,
748,-11.01,-28.71,-36.43,-23.89,-5.047,-42.4,-33.66,-67.24,-13.77,-16.96,-18.09,-17.61,-20.83,-12.95,-4.386,-7.645,0,0,0,0,0,0,0,0,0,0,0,0,0,0,0,0,
749,-14.86,-36.73,-34.37,-34.71,-1.493,-51.06,-36.56,-76.88,-20.25,-23.49,-23.57,-16.09,-22.05,-20.55,-9.143,-9.872,0,0,0,0,0,0,0,0,0,0,0,0,0,0,0,0,
750,-7.053,-20.98,-10.92,-25.4,30.1,-41.6,-21.35,-62.82,-15.9,-24.65,-23.05,-10.23,-17.9,-24.23,-10.79,-11.41,0,0,0,0,0,0,0,0,0,0,0,0,0,0,0,0,
751,-4.225,-17.68,-12.18,-21.77,35.02,-30.86,-20.7,-46.51,-16.61,-14.37,-27.35,-12.74,-19.71,-20.48,-16.14,-14.17,0,0,0,0,0,0,0,0,0,0,0,0,0,0,0,0,
752,-9.759,-25.07,-38.45,-40.07,10.05,-28.22,-26.87,-45.63,-26.07,-17.59,-34.25,-18.86,-20.77,-18.25,-17.23,-14.6,0,0,0,0,0,0,0,0,0,0,0,0,0,0,0,0,
753,-11.65,-25.4,-41.87,-41.74,6.707,-37.36,-34.5,-57.28,-29.5,-34.11,-32.03,-21.64,-22.28,-29.69,-16.57,-19.14,0,0,0,0,0,0,0,0,0,0,0,0,0,0,0,0,
754,-16.29,-36.67,-27.33,-26.38,12,-54.62,-41.84,-66.69,-28.12,-38.62,-30.28,-25.76,-33.06,-39.11,-24.38,-30.47,0,0,0,0,0,0,0,0,0,0,0,0,0,0,0,0,
755,-22.62,-41.57,-20.4,-20.34,11.65,-55.12,-28.89,-59.79,-25.42,-31.9,-33.15,-29.96,-40.71,-31.58,-27.53,-33.01,0,0,0,0,0,0,0,0,0,0,0,0,0,0,0,0,
756,-24.87,-28.95,-25.56,-36.47,20.92,-49.58,-24.78,-54.92,-23.71,-32.78,-33.13,-31.34,-38,-24.04,-20.48,-24.25,0,0,0,0,0,0,0,0,0,0,0,0,0,0,0,0,
757,-26.63,-33.38,-29.06,-49.72,27.86,-51.32,-40.88,-57.53,-22.28,-28.58,-28.15,-28.59,-30.85,-22.28,-14.45,-16.14,0,0,0,0,0,0,0,0,0,0,0,0,0,0,0,0,
758,-20.08,-39.14,-12.77,-23.98,30.25,-35.22,-31.77,-46.96,-15.64,-11.96,-20.59,-21.56,-22.49,-19.09,-11.02,-12.94,0,0,0,0,0,0,0,0,0,0,0,0,0,0,0,0,
759,-13.88,-23.25,-4.979,-6.659,30.65,-20.78,-17.94,-40.59,-14.07,-12.7,-16.53,-16.62,-19.78,-18.5,-8.278,-11.31,0,0,0,0,0,0,0,0,0,0,0,0,0,0,0,0,
760,-20.17,-19.85,-22.86,-27.79,23.08,-30.88,-29.05,-44.46,-17.9,-24.64,-13.2,-12.25,-21.14,-17.29,-3.979,-4.981,0,0,0,0,0,0,0,0,0,0,0,0,0,0,0,0,
761,-16.9,-29.77,-23.38,-24.83,22.83,-26.92,-29.1,-32.49,-14.36,-20.22,-9.66,-9.168,-20.83,-16.08,-3.233,-2.719,0,0,0,0,0,0,0,0,0,0,0,0,0,0,0,0,
762,-9.556,-29.43,-10.1,-7.653,22.01,-13.63,-25.71,-23.43,-15.85,-18.2,-18.62,-19.13,-26.84,-22.74,-17.73,-16.56,0,0,0,0,0,0,0,0,0,0,0,0,0,0,0,0,
763,-24.35,-33.57,-20.93,-23.4,0.0334,-31.77,-42.32,-32.39,-25.58,-25.55,-32.07,-33.53,-38.42,-29.13,-35.02,-29.54,0,0,0,0,0,0,0,0,0,0,0,0,0,0,0,0,
764,-40.21,-43.03,-35.67,-33.58,-15.91,-53.53,-47.1,-32.1,-26.36,-20.4,-31.21,-33.77,-39.98,-28.08,-35.02,-26.5,0,0,0,0,0,0,0,0,0,0,0,0,0,0,0,0,
765,-36.07,-38.82,-30.93,-24.5,-2.243,-43.74,-35.8,-25.99,-22.72,-11.93,-24.2,-25.53,-29.51,-22.77,-26.87,-20.37,0,0,0,0,0,0,0,0,0,0,0,0,0,0,0,0,
766,-26.61,-30.95,-18.3,-24.5,11.77,-32.08,-33.49,-28.83,-22.61,-14.59,-24.78,-25.32,-24.97,-20.85,-27.57,-23.34,0,0,0,0,0,0,0,0,0,0,0,0,0,0,0,0,
767,-26.38,-34.83,-10.27,-25.2,-2.33,-38.78,-33.59,-23.28,-22.48,-17.4,-29.33,-32.03,-31.86,-25.98,-31.57,-29.02,0,0,0,0,0,0,0,0,0,0,0,0,0,0,0,0,
768,-32,-39.04,-12.21,-21.78,-14.74,-34.18,-30.55,-10.6,-21.69,-15.41,-29.33,-31.25,-32.28,-25.44,-29.03,-28.12,0,0,0,0,0,0,0,0,0,0,0,0,0,0,0,0,
769,-29.87,-36.22,-16.55,-21.13,4.543,-20.23,-37.38,-15.23,-18.46,-19.61,-27.22,-28.66,-29.54,-24.04,-29.58,-29.85,0,0,0,0,0,0,0,0,0,0,0,0,0,0,0,0,
770,-25.96,-41.03,-14.92,-23.13,17.04,-29.34,-46.85,-28.29,-14.78,-27.79,-26.95,-33.96,-35.58,-34.35,-32.88,-36.94,0,0,0,0,0,0,0,0,0,0,0,0,0,0,0,0,
771,-30.39,-44.95,-13.69,-31.1,5.843,-39.07,-38.67,-28.31,-11.96,-21.51,-21.16,-30.13,-31.2,-32.83,-23.4,-30.33,0,0,0,0,0,0,0,0,0,0,0,0,0,0,0,0,
772,-28.06,-30.88,-13.97,-28.55,12.08,-27.52,-27.77,-25.27,-7.293,-10.47,-15.07,-20.29,-20.42,-19.44,-15.95,-18.89,0,0,0,0,0,0,0,0,0,0,0,0,0,0,0,0,
773,-22.02,-24.79,-7.706,-2.118,27.56,-23.26,-34.2,-22.02,-7.299,-18.14,-20.85,-26.21,-27.49,-23.89,-24.76,-23.66,0,0,0,0,0,0,0,0,0,0,0,0,0,0,0,0,
774,-28.18,-35.79,-3.166,13.12,16.12,-26.7,-38.51,-14.43,-15.72,-27.84,-28.58,-35.1,-36.38,-32.37,-28.97,-30.06,0,0,0,0,0,0,0,0,0,0,0,0,0,0,0,0,
775,-35.96,-38.56,-19.24,-7.763,-7.331,-26.35,-37.11,-22.07,-27.37,-23.6,-31.62,-36.36,-37.65,-29.75,-25.9,-28.95,0,0,0,0,0,0,0,0,0,0,0,0,0,0,0,0,
776,-40.18,-39.35,-38.61,-26.16,-15.43,-37.38,-41.32,-29.41,-34.21,-20.08,-31.82,-37.13,-39.81,-27.62,-26.77,-27.95,0,0,0,0,0,0,0,0,0,0,0,0,0,0,0,0,
777,-40.46,-38.66,-26.6,-13.82,-7.01,-46.82,-32.47,-13.15,-26.34,-17.61,-22.75,-31.21,-32.45,-23.11,-22.28,-23.6,0,0,0,0,0,0,0,0,0,0,0,0,0,0,0,0,
778,-30.12,-25.32,-4.791,-3.139,0.5086,-38.05,-20.37,-14.39,-12.74,-11.76,-11.37,-23.35,-24.69,-20.2,-14.34,-18.74,0,0,0,0,0,0,0,0,0,0,0,0,0,0,0,0,
779,-21.98,-25.3,-5.564,-10.69,1.47,-26.26,-26.24,-33.85,-8.206,-9.222,-4.636,-19.63,-25.81,-21,-10,-14.84,0,0,0,0,0,0,0,0,0,0,0,0,0,0,0,0,
780,-17.63,-32.56,-3.621,-9.543,9.703,-13.99,-22.06,-20.51,-4.124,-6.708,4.437,-9.323,-16.82,-10.11,-1.797,-6.467,0,0,0,0,0,0,0,0,0,0,0,0,0,0,0,0,
781,-7.798,-19.35,9.452,3.172,12.26,-7.004,-13.48,-5.071,-2.165,-9.645,2.817,-7.474,-14.53,-7.872,-1.975,-9.813,0,0,0,0,0,0,0,0,0,0,0,0,0,0,0,0,
782,-15.97,-20.68,3.265,8.596,-4.356,-24.55,-33.41,-24.17,-17.86,-24.9,-20.85,-30.36,-38.66,-31.43,-25.27,-32.69,0,0,0,0,0,0,0,0,0,0,0,0,0,0,0,0,
783,-40.83,-43.28,-8.239,9.233,-8.294,-39.36,-44.65,-28.66,-34.78,-28.63,-39.57,-47.92,-49.85,-41.2,-44.25,-45.25,0,0,0,0,0,0,0,0,0,0,0,0,0,0,0,0,
784,-41.39,-37.85,-6.143,6.377,6.07,-22.33,-23.81,-9.687,-32.78,-14.92,-34.65,-40.68,-35.22,-26.82,-36.34,-34.82,0,0,0,0,0,0,0,0,0,0,0,0,0,0,0,0,
785,-29.04,-24.09,-17.25,-6.932,1.913,-12.6,-19.71,-19.74,-27.58,-15.52,-25.98,-33.26,-31.64,-23.82,-25.41,-27.08,0,0,0,0,0,0,0,0,0,0,0,0,0,0,0,0,
786,-34.48,-37.81,-28.96,-12.78,-15.71,-29.02,-39.59,-44.77,-29.58,-26.49,-26.73,-36.41,-36.38,-28.09,-27.64,-30.4,0,0,0,0,0,0,0,0,0,0,0,0,0,0,0,0,
787,-37.1,-43.66,-9.814,-1.286,-12.72,-36.19,-45.47,-39.86,-27.95,-18.61,-26.47,-37.93,-31.23,-23.59,-30.91,-31.49,0,0,0,0,0,0,0,0,0,0,0,0,0,0,0,0,
788,-33.43,-34.33,1.619,-1.02,-0.5652,-39.59,-42.02,-27.23,-27.58,-8.864,-25.43,-40.88,-32.93,-25.42,-34.42,-32.86,0,0,0,0,0,0,0,0,0,0,0,0,0,0,0,0,
789,-45.05,-39.12,-14.61,-14.43,-14.18,-51.95,-42.63,-30.88,-37.16,-17.45,-32.98,-47.87,-42.21,-32.56,-41.45,-38.59,0,0,0,0,0,0,0,0,0,0,0,0,0,0,0,0,
790,-53.45,-43.15,-22.71,-17.26,-30.97,-45.56,-37.68,-33.3,-42.76,-23.4,-39.57,-49,-45.18,-34.85,-45.7,-43.58,0,0,0,0,0,0,0,0,0,0,0,0,0,0,0,0,
791,-45.76,-40.54,-21.26,-18.96,-7.204,-28.5,-32.59,-33.51,-35.53,-21.21,-32.45,-44.19,-46.84,-37.9,-44.35,-44.6,0,0,0,0,0,0,0,0,0,0,0,0,0,0,0,0,
792,-39.38,-43.13,-15.02,-22.45,14.4,-22.68,-30.73,-31.39,-29.68,-24.88,-23.71,-37.38,-41.41,-34.91,-36.62,-35.93,0,0,0,0,0,0,0,0,0,0,0,0,0,0,0,0,
793,-36.02,-32.56,-6.965,-17.31,-12.38,-18.46,-27.08,-19.1,-35.22,-25.08,-27.6,-32.12,-29.53,-25.69,-29.96,-25.33,0,0,0,0,0,0,0,0,0,0,0,0,0,0,0,0,
794,-33.58,-21.61,-24.22,-19.55,-26.08,-19.89,-30.69,-14.63,-39.07,-15.24,-31.25,-33.41,-31.34,-25.39,-32.43,-27.61,0,0,0,0,0,0,0,0,0,0,0,0,0,0,0,0,
795,-30.58,-32.16,-32.43,-17.14,5.03,-21.32,-29.34,-16.6,-27.39,-9.331,-22.19,-31.57,-31.94,-24.5,-32.04,-29.89,0,0,0,0,0,0,0,0,0,0,0,0,0,0,0,0,
796,-19.31,-25.19,1.411,10.16,26.53,-5.665,-10.12,-7.944,-11.73,-10.35,-10.62,-19.64,-14.91,-15.24,-22.1,-21.2,0,0,0,0,0,0,0,0,0,0,0,0,0,0,0,0,
797,-10.6,-0.3752,13.42,26.27,32.13,6.651,-4.547,-5.193,-9.668,-10.19,-4.876,-12.91,-10.44,-15.46,-16.95,-18.2,0,0,0,0,0,0,0,0,0,0,0,0,0,0,0,0,
798,-13.84,-9.581,-9.624,11.96,34.94,1.665,-20.91,-14.08,-17.6,-10.46,-6.235,-19.4,-24.85,-23.63,-20.68,-24.35,0,0,0,0,0,0,0,0,0,0,0,0,0,0,0,0,
799,-20.23,-30.22,-13.81,-5.548,15.91,-9.346,-27.82,-20.85,-23.97,-12.13,-12.22,-24.8,-25.84,-21.28,-20.4,-23.63,0,0,0,0,0,0,0,0,0,0,0,0,0,0,0,0,
800,-24.75,-20.7,-12.51,-8.268,-6.219,-19.08,-24.71,-25.84,-26.8,-10.34,-13.97,-24.24,-19.07,-16.82,-17.47,-20.61,0,0,0,0,0,0,0,0,0,0,0,0,0,0,0,0,
801,-28.11,-13.2,-21.95,-0.9854,-12.45,-20.19,-23.43,-24.36,-28.5,-9.725,-15.1,-31.28,-28.12,-24.02,-24.36,-27.84,0,0,0,0,0,0,0,0,0,0,0,0,0,0,0,0,
802,-31.68,-21.03,-16,-7.531,-6.817,-17.86,-15.94,-18.06,-28.25,-8.916,-18.74,-37.62,-32.48,-24.3,-28.42,-29.07,0,0,0,0,0,0,0,0,0,0,0,0,0,0,0,0,
803,-28.62,-13.51,-4.747,-21.53,23,-15.72,-9.477,-20.88,-27.49,-0.7157,-16.27,-27.41,-20.87,-12.02,-22.03,-20.52,0,0,0,0,0,0,0,0,0,0,0,0,0,0,0,0,
804,-18.3,-8.625,-7.527,-9.591,41.8,-9.01,-19.39,-23.18,-29.75,-3.627,-15.96,-25.69,-25.56,-18.11,-29.57,-29.57,0,0,0,0,0,0,0,0,0,0,0,0,0,0,0,0,
805,-23.91,-28.4,-14.9,-2.096,12.2,-14.7,-30.98,-17.11,-30.82,-21.54,-23.23,-42.62,-42.31,-36.48,-43.02,-44.47,0,0,0,0,0,0,0,0,0,0,0,0,0,0,0,0,
806,-39.63,-36.61,-24.19,-23.16,-7.287,-26.53,-27.04,-18.48,-28.58,-21.39,-23.66,-42.4,-37,-32.49,-34.35,-36.37,0,0,0,0,0,0,0,0,0,0,0,0,0,0,0,0,
807,-33.32,-25.68,-29.17,-20.78,11.87,-15.33,-21.06,-21.42,-24.8,-7.076,-15.06,-24.29,-24.13,-20.1,-21.25,-24.21,0,0,0,0,0,0,0,0,0,0,0,0,0,0,0,0,
808,-19.05,-25.21,-16.37,-2.53,18.07,-3.587,-19.51,-8.598,-17.24,-5.795,-6.338,-17.98,-23.43,-19.6,-19.01,-21.04,0,0,0,0,0,0,0,0,0,0,0,0,0,0,0,0,
809,-18.46,-22.24,-3.063,-11.28,12.79,-9.258,-7.125,3.435,-13.68,-3.13,-4.012,-18.49,-17.28,-14.16,-13.91,-13.38,0,0,0,0,0,0,0,0,0,0,0,0,0,0,0,0,
810,-12.42,-4.709,-1.315,2.356,24.08,0.1166,8.3,3.145,-15.98,7.441,-4.376,-10.05,-3.674,-2.095,-6.402,-5.056,0,0,0,0,0,0,0,0,0,0,0,0,0,0,0,0,
811,2.182,1.517,10.07,42.39,26.99,18.45,6.213,4.963,-11.97,2.783,1.226,-1.613,-2.21,-1.587,-5.032,-3.93,0,0,0,0,0,0,0,0,0,0,0,0,0,0,0,0,
812,2.709,-7.972,20.77,33.63,16.77,12.03,-4.013,3.571,-10.08,-10.54,0.6278,-6.095,-13.19,-8.933,-10.17,-9.155,0,0,0,0,0,0,0,0,0,0,0,0,0,0,0,0,
813,-6.142,-14.09,9.906,11.04,20.17,1.066,-5.634,-2.483,-13.51,-10.15,-8.724,-12.51,-17.83,-6.455,-14.28,-13.95,0,0,0,0,0,0,0,0,0,0,0,0,0,0,0,0,
814,-3.929,-10.12,5.504,26.26,23.93,8.517,-0.0179,7.073,-6.152,0.2957,-7.338,-6.966,-7.813,5.205,-10.09,-8.225,0,0,0,0,0,0,0,0,0,0,0,0,0,0,0,0,
815,4.761,1.032,14.25,20.37,17.68,12.36,10.35,21.16,2.747,11.05,0.2511,-0.4249,3.7,10.99,-4.667,-0.1203,0,0,0,0,0,0,0,0,0,0,0,0,0,0,0,0,
816,6.469,9.314,9.796,-3.387,18.21,6.253,18.57,19.81,3.808,16.04,5.38,1.159,5.112,7.548,-1.226,-0.5175,0,0,0,0,0,0,0,0,0,0,0,0,0,0,0,0,
817,5.093,6.293,7.031,13.05,13.57,8.867,13.83,11.84,8.004,8.783,12.2,7.256,4.079,4.217,6.277,0.9433,0,0,0,0,0,0,0,0,0,0,0,0,0,0,0,0,
818,10.53,5.128,25.08,35.11,6.955,18.64,11.31,8.335,14.66,2.072,14.66,15.54,11.46,8.296,13.23,9.978,0,0,0,0,0,0,0,0,0,0,0,0,0,0,0,0,
819,21.21,16.05,41.69,32.3,20.98,23.3,21.87,17.48,17.37,6.559,12.08,15.44,15.79,11.23,9.586,10.17,0,0,0,0,0,0,0,0,0,0,0,0,0,0,0,0,
820,20.28,16.63,32.92,25.47,23.23,19.42,19.93,27.73,9.072,6.361,5.298,3.095,2.646,0.8934,-4.637,-4.691,0,0,0,0,0,0,0,0,0,0,0,0,0,0,0,0,
821,5.189,2.338,13,16.33,7.411,15.86,9.307,16.62,-5.065,3.246,-2.982,-5.434,-5.359,-4.356,-11.99,-9.747,0,0,0,0,0,0,0,0,0,0,0,0,0,0,0,0,
822,2.757,5.483,16.91,17.5,18.01,26.27,18.14,6.082,-3.244,11.83,1.942,4.099,6.924,8.354,-3.55,2.062,0,0,0,0,0,0,0,0,0,0,0,0,0,0,0,0,
823,13.83,17.87,33.36,34.28,33.02,38.83,24.23,13.12,4.698,15.76,10.02,10.82,12.19,12.78,3.037,5.324,0,0,0,0,0,0,0,0,0,0,0,0,0,0,0,0,
824,14.03,11.65,31.62,33.22,27.4,37.14,13.67,10.09,2.405,8.398,10.34,8.669,8.004,5.667,5.157,2.838,0,0,0,0,0,0,0,0,0,0,0,0,0,0,0,0,
825,14.12,8.977,33.56,17.21,34.02,37.72,15.77,2.419,6.245,5.771,18.41,18.26,12.65,6.948,11.58,9.347,0,0,0,0,0,0,0,0,0,0,0,0,0,0,0,0,
826,23.93,18.85,44.65,18.76,45.99,45.96,23.74,13.13,12.99,4.977,20.55,22.95,12.01,8.576,8.639,8.91,0,0,0,0,0,0,0,0,0,0,0,0,0,0,0,0,
827,21,16.89,30.74,23.39,40.72,40.8,16.87,17.45,6.081,4.063,1.419,5.857,3.186,5.579,-4.005,-1.811,0,0,0,0,0,0,0,0,0,0,0,0,0,0,0,0,
828,4.908,10.29,8.601,11.01,31.64,26.21,11.23,6.897,-3.265,8.435,-10.01,-6.106,3.114,5.247,-9.169,-6.646,0,0,0,0,0,0,0,0,0,0,0,0,0,0,0,0,
829,-2.967,11.34,10.03,11.43,25.93,18.03,14.98,13.91,-3.487,9.67,-4.994,-1.982,3.991,1.645,-8.644,-6.307,0,0,0,0,0,0,0,0,0,0,0,0,0,0,0,0,
830,1.418,11.53,20.16,27.95,30.73,13.95,18.88,28.12,3.909,8.846,-1.23,2.979,0.6994,-2.699,-4.755,-4.964,0,0,0,0,0,0,0,0,0,0,0,0,0,0,0,0,
831,12.05,13.13,28.15,21.74,43.43,20.87,20.74,19,11.42,12.99,7.117,7.606,6.664,1.835,5.585,0.426,0,0,0,0,0,0,0,0,0,0,0,0,0,0,0,0,
832,22.17,19.05,37.11,15.56,44.51,39.46,20.06,9.533,12.85,14.09,19.55,12.61,17.13,8.805,9.971,5.714,0,0,0,0,0,0,0,0,0,0,0,0,0,0,0,0,
833,24.21,23.38,39.34,36.45,45.58,42.43,19.04,20.67,15.17,12.1,18.97,12.46,17.39,10.26,4.463,5.175,0,0,0,0,0,0,0,0,0,0,0,0,0,0,0,0,
834,21.48,24.51,38.17,39.49,50.48,32.96,20.38,32.18,18.71,16.22,12.44,11.06,12.85,10.02,3.226,3.653,0,0,0,0,0,0,0,0,0,0,0,0,0,0,0,0,
835,22.35,22.09,39.01,27.65,37.34,38.94,22.24,34.31,16.27,22.12,12.96,9.558,13.83,13.32,5.161,5.394,0,0,0,0,0,0,0,0,0,0,0,0,0,0,0,0,
836,24.3,19.83,37.52,41.36,30.23,47.39,26.66,34.02,16.61,24.36,15.21,5.224,18.03,17.97,3.063,6.951,0,0,0,0,0,0,0,0,0,0,0,0,0,0,0,0,
837,26.32,22.33,46.62,54.15,52.83,44.8,32.67,38.56,22.99,27.36,17.9,5.751,20.04,18.43,4.609,7.301,0,0,0,0,0,0,0,0,0,0,0,0,0,0,0,0,
838,30.63,21.87,60.37,49.95,67.24,46.88,32,45.13,22.43,29.89,21.19,8.829,16.18,14.52,8.022,5.068,0,0,0,0,0,0,0,0,0,0,0,0,0,0,0,0,
839,28.97,14.85,44.44,50.64,56.77,52.35,29.16,36.85,16.46,28.45,21.37,5.721,11.57,12.03,7.035,3.633,0,0,0,0,0,0,0,0,0,0,0,0,0,0,0,0,
840,24.55,12.86,23.51,52.26,50.68,55.41,31.79,24.81,15.77,26.09,20.48,4.421,14.19,12.85,6.575,8.467,0,0,0,0,0,0,0,0,0,0,0,0,0,0,0,0,
841,24.85,15.62,36.52,47.5,53.11,58.01,27.76,29.55,16.48,21.38,16.25,4.317,14.7,13.27,3.607,5.797,0,0,0,0,0,0,0,0,0,0,0,0,0,0,0,0,
842,18.26,12.46,48.82,39.64,50.41,53.74,16.9,34.83,14.91,17.26,14.22,2.168,10.52,15.71,2.571,-2.766,0,0,0,0,0,0,0,0,0,0,0,0,0,0,0,0,
843,13.39,10.4,42.07,32.47,44.69,49.25,18.19,33.16,14.78,21.01,22.48,8.699,12.56,18.55,11.79,4.24,0,0,0,0,0,0,0,0,0,0,0,0,0,0,0,0,
844,22.67,13.41,39.88,30.67,37.9,50.47,23.68,32.91,13.01,22.45,20.8,11.58,10.85,11.57,11.71,9.46,0,0,0,0,0,0,0,0,0,0,0,0,0,0,0,0,
845,21.62,10.03,38.09,35.94,35.11,47.1,19.2,30.84,11.62,16.67,7.15,0.7526,2.135,4.129,0.7491,-1.07,0,0,0,0,0,0,0,0,0,0,0,0,0,0,0,0,
846,11.02,6.049,38.36,54.37,46.33,45.83,17.25,33.2,17.68,16.12,9.594,-1.991,3.019,7.134,2.274,-2.367,0,0,0,0,0,0,0,0,0,0,0,0,0,0,0,0,
847,15.22,10.93,42.26,69.38,58.61,54.71,21.2,36.31,18.71,20.16,16.73,2.779,6.595,7.22,6.145,3.093,0,0,0,0,0,0,0,0,0,0,0,0,0,0,0,0,
848,18.79,13.7,28.12,59.9,51.26,57.98,21.11,27.99,5.843,22.31,8.556,1.268,3.847,4.538,1.442,-0.1397,0,0,0,0,0,0,0,0,0,0,0,0,0,0,0,0,
849,12.21,10.47,12.86,55.6,38.87,48.84,16.24,23.45,-0.6852,21.15,4.654,3.538,4.854,8.27,2.534,-1.85,0,0,0,0,0,0,0,0,0,0,0,0,0,0,0,0,
850,12.13,7.624,19.01,64.99,47.35,39.24,8.835,27.76,6.395,14.51,11.68,8.851,6.793,6.581,5.87,-0.8444,0,0,0,0,0,0,0,0,0,0,0,0,0,0,0,0,
851,12.18,5.283,26.84,56.45,56.29,32.14,6.886,27.89,6.018,11.21,14.07,7.193,5.686,1.461,4.034,0.8213,0,0,0,0,0,0,0,0,0,0,0,0,0,0,0,0,
852,7.785,7.425,32.86,47.01,36.7,28.64,15.28,27.1,-0.1785,16.57,13.72,8.029,9.779,6.853,6.499,7.026,0,0,0,0,0,0,0,0,0,0,0,0,0,0,0,0,
853,14.59,13.97,40.64,51.43,19.7,34.85,21.33,26.04,6.845,21.06,15.32,13.88,12.11,8.229,8.853,5.124,0,0,0,0,0,0,0,0,0,0,0,0,0,0,0,0,
854,21.8,11.16,32.08,47.01,33.87,28.56,15.84,21.56,12.35,19.67,8.854,7.645,1.373,-4.667,-1.68,-8.689,0,0,0,0,0,0,0,0,0,0,0,0,0,0,0,0,
