%OpenBCI Raw EXG Data
%Number of channels = 16
%Sample Rate = 125 Hz
%Board = OpenBCI_GUI$BoardCytonSerialDaisy
Sample Index,EXG Channel 0,EXG Channel 1,EXG Channel 2,EXG Channel 3,EXG Channel 4,EXG Channel 5,EXG Channel 6,EXG Channel 7,EXG Channel 8,EXG Channel 9,EXG Channel 10,EXG Channel 11,EXG Channel 12,EXG Channel 13,EXG Channel 14,EXG Channel 15,Accel Channel 0,Accel Channel 1,Accel Channel 2,Other,Other,Other,Other,Other,Other,Other,Analog Channel 0,Analog Channel 1,Analog Channel 2,Timestamp,Other,Timestamp (Formatted),Annotations
1,-0,0,-0,0,-0,-0,0,0,-0,-0,0,-0,-0,-0,0,-0,0,0,0,0,0,0,0,0,0,0,0,0,0,0,0,0,T0
2,0.9256,1.371,-0.0501,-5.717,-0.8435,3.041,8.416,-9.014,3.308,-2.445,5.438,4.846,10.27,7.853,3.491,7.341,0,0,0,0,0,0,0,0,0,0,0,0,0,0,0,0,
3,2.152,4.5,-0.5012,-8.126,4.618,8.501,7.672,8.338,-4.458,-7.744,-2.465,-6.72,1.313,-0.4476,-5.589,-4.074,0,0,0,0,0,0,0,0,0,0,0,0,0,0,0,0,
4,-2.426,-1.058,-6.484,-11.28,2.251,11.3,1.859,16.89,-6.72,-7.427,0.1194,-2.262,2.949,2.375,4.569,2.341,0,0,0,0,0,0,0,0,0,0,0,0,0,0,0,0,
5,-1.933,-5.013,-8.777,-10.41,-2.36,8.092,-1.718,2.195,-0.2797,-0.5123,8.335,11.1,11.66,12,22.43,19,0,0,0,0,0,0,0,0,0,0,0,0,0,0,0,0,
6,-0.181,-5.598,-14.31,-14.78,-7.911,-3.905,-8.454,-15.28,-3.335,-3.341,2.757,8.319,6.837,7.202,24.66,20.02,0,0,0,0,0,0,0,0,0,0,0,0,0,0,0,0,
7,-7.006,-13.24,-28.04,-28.81,-20.75,-12.02,-16.72,-28.43,-10.21,-15.63,-0.316,7.251,5.559,3.532,28.61,23.63,0,0,0,0,0,0,0,0,0,0,0,0,0,0,0,0,
8,-7.51,-16.14,-25.55,-27.51,-20.3,-2.835,-16.07,-27.32,-5.839,-18.22,4.09,8.948,8.342,6.123,30.23,27.41,0,0,0,0,0,0,0,0,0,0,0,0,0,0,0,0,
9,-5.235,-12.76,-12.07,-12.47,-4.647,3.93,-12.54,-13.83,-1.539,-13.91,0.597,0.2135,1.756,2.782,20.87,19.64,0,0,0,0,0,0,0,0,0,0,0,0,0,0,0,0,
10,-11.33,-11.94,-12.68,-7.795,-0.4579,-3.2,-11.46,-14.06,-6.25,-13.88,-4.593,-4.333,-0.926,0.5852,18.41,18.61,0,0,0,0,0,0,0,0,0,0,0,0,0,0,0,0,
11,-11.5,-7.751,-19.93,-10.54,-8.2,-7.066,-9.136,-21.1,-8.684,-11.77,-2.47,-2.205,2.756,3.889,21.12,23.54,0,0,0,0,0,0,0,0,0,0,0,0,0,0,0,0,
12,-5.991,-7.623,-24.72,-15.33,-10.28,-5.16,-12.92,-13.49,-5.431,-10.6,0.3716,-4.224,-0.6081,2.674,18.2,18.85,0,0,0,0,0,0,0,0,0,0,0,0,0,0,0,0,
13,-5.27,-17.76,-27.08,-22.82,-4.78,-2.333,-20.32,-10.39,-4.061,-17.1,-0.5278,-2.452,-4.562,-2.216,16.66,13.78,0,0,0,0,0,0,0,0,0,0,0,0,0,0,0,0,
14,0.7011,-17.62,-16.63,-19.46,0.6619,8.684,-12.7,-17.84,-1.387,-16.25,1.978,9.764,2.58,0.6982,23.35,19.83,0,0,0,0,0,0,0,0,0,0,0,0,0,0,0,0,
15,16.12,-2.467,0.7537,-5.783,7.578,24.72,5.032,-10.23,11.28,-4.883,19.29,26.04,15.56,10.6,39.03,29.38,0,0,0,0,0,0,0,0,0,0,0,0,0,0,0,0,
16,30.59,10.62,6.138,3.524,21.32,35.86,14.76,8.37,28.81,3.812,44.5,40.8,26.76,19.61,57.27,37,0,0,0,0,0,0,0,0,0,0,0,0,0,0,0,0,
17,40.08,22.1,7.809,12.54,30.19,45.09,20.63,19.93,38.3,13.41,54.78,50.11,36.55,29.55,65.89,47.13,0,0,0,0,0,0,0,0,0,0,0,0,0,0,0,0,
18,40.22,31.88,10.63,14,16.78,45.09,21.92,17.18,31.06,16.15,42.6,44.96,37.32,32.02,57.39,48.73,0,0,0,0,0,0,0,0,0,0,0,0,0,0,0,0,
19,24.9,23,-5.111,-8.97,-7.799,23.18,7.259,-1.711,9.354,-2.603,21.9,26.19,23.74,17,38.83,32.53,0,0,0,0,0,0,0,0,0,0,0,0,0,0,0,0,
20,9.535,5.226,-20.68,-24.03,-13.06,8.676,-4.324,-8.58,-5.722,-15.66,11.16,17.33,14.87,6.216,30.3,21.33,0,0,0,0,0,0,0,0,0,0,0,0,0,0,0,0,
21,12.36,2.893,-8.253,-8.702,-0.4905,22.97,2.992,7.843,-0.5669,-7.707,14.13,25.25,18.29,10.6,34.72,24.45,0,0,0,0,0,0,0,0,0,0,0,0,0,0,0,0,
22,19.73,3.775,1.619,-1.656,2.646,28.57,6.113,12.46,7.414,-6.937,18.6,27.82,17.52,10.79,36.48,25.08,0,0,0,0,0,0,0,0,0,0,0,0,0,0,0,0,
23,16.96,-3.64,-5.582,-8.789,-3.203,14.45,-3.657,5.832,2.89,-11.85,17.75,22.11,14.93,7.63,34.77,24.71,0,0,0,0,0,0,0,0,0,0,0,0,0,0,0,0,
24,12.44,-3.364,-6.344,-4.854,-7.238,9.486,-9.261,9.89,-3.93,-3.845,15.95,21.61,20.68,11.71,36.39,28.08,0,0,0,0,0,0,0,0,0,0,0,0,0,0,0,0,
25,12.21,4.305,-5.688,-3.409,-13,8.933,-7.282,12.02,-0.0184,1.581,18.47,24.67,26.37,15.83,39.13,28.67,0,0,0,0,0,0,0,0,0,0,0,0,0,0,0,0,
26,15.65,7.722,-8.165,-8.736,-14.13,3.992,-4.099,12.34,7.834,-3.453,22.94,25.42,25.68,14.99,38.85,27.02,0,0,0,0,0,0,0,0,0,0,0,0,0,0,0,0,
27,20.16,9.183,-3.774,-3.503,-8.863,5.682,0.3116,23.71,7.122,-3.465,21.23,24.01,23.77,11.96,35.24,23.99,0,0,0,0,0,0,0,0,0,0,0,0,0,0,0,0,
28,21.1,11.37,0.951,9.873,-6.25,11.6,8.962,36.42,3.893,1.77,14.39,21.91,24.18,10.75,33.06,20.26,0,0,0,0,0,0,0,0,0,0,0,0,0,0,0,0,
29,21.11,12.97,3.612,22.5,-3.235,14.17,13.18,39.87,4.334,2.341,10.91,18.81,22.89,11.22,31.91,18.45,0,0,0,0,0,0,0,0,0,0,0,0,0,0,0,0,
30,21.05,12.23,4.107,23.53,1.766,11.29,3.922,36.47,4.377,2.491,13.98,16.53,20.44,10.43,28.96,17.92,0,0,0,0,0,0,0,0,0,0,0,0,0,0,0,0,
31,16.94,8.839,-4.187,10.58,6.568,7.984,-4.211,37.13,7.023,5.86,17.54,18.89,23.63,11.16,29.11,19.53,0,0,0,0,0,0,0,0,0,0,0,0,0,0,0,0,
32,14.12,6.439,-12.62,0.8849,7.984,14.06,-1.406,43.23,9.096,3.453,13.74,21.39,26.8,12.1,31.56,22.04,0,0,0,0,0,0,0,0,0,0,0,0,0,0,0,0,
33,19.04,5.526,-8.83,-0.5373,-1.158,22.48,2.759,43.21,5.655,-2.615,11.02,19.84,23.07,8.984,30.68,22.27,0,0,0,0,0,0,0,0,0,0,0,0,0,0,0,0,
34,21.34,0.9526,0.362,-1.514,-10.56,17.68,3.289,38.41,2.963,-5.389,13.68,13.95,15.42,2.724,24.75,16.96,0,0,0,0,0,0,0,0,0,0,0,0,0,0,0,0,
35,9.819,-9.667,0.1059,-3.309,-9.646,3.091,-2.613,34.85,-1.807,-10.46,7.7,4.031,7.002,-4.308,16.57,7.427,0,0,0,0,0,0,0,0,0,0,0,0,0,0,0,0,
36,2.062,-15.51,-2.923,-2.11,-5.994,-2.018,-9.322,37.31,-5.342,-10.16,1.825,3.362,8.541,-2.514,18.27,8.173,0,0,0,0,0,0,0,0,0,0,0,0,0,0,0,0,
37,12.01,-7.903,7.195,7.479,-0.9257,7.046,-7.139,48.16,1.356,0.8072,8.044,12.3,20.71,8.361,26.83,19,0,0,0,0,0,0,0,0,0,0,0,0,0,0,0,0,
38,16.34,-0.927,15.97,13.6,2.612,12.37,-2.966,49.31,2.695,3.372,8.105,10.49,24.12,11.66,23.9,21.93,0,0,0,0,0,0,0,0,0,0,0,0,0,0,0,0,
39,7.934,-2.935,8.705,0.8917,-2.336,9.045,-0.0387,39.84,-4.789,-0.5901,1.956,4.455,19.08,7.696,17.84,19.44,0,0,0,0,0,0,0,0,0,0,0,0,0,0,0,0,
40,5.504,-5.229,0.8205,-11.19,-8.37,7.185,-0.9683,38.02,-4.495,1.353,3.706,7.844,16.91,5.031,21.96,18.23,0,0,0,0,0,0,0,0,0,0,0,0,0,0,0,0,
41,4.769,-10.46,-1.192,-5.386,-9.612,7.009,-13.38,32.85,-0.7892,-3.258,5.99,9.496,14.2,-0.1599,24.98,14.69,0,0,0,0,0,0,0,0,0,0,0,0,0,0,0,0,
42,2.362,-18.03,-3.174,-1.555,-6.197,12.15,-19.29,27.38,4.627,-9.942,11.76,12.32,16.71,-1.654,26.38,16.74,0,0,0,0,0,0,0,0,0,0,0,0,0,0,0,0,
43,10.58,-13.19,0.3234,-4.02,4.49,24.64,-5.931,37.48,19.16,-0.5505,26.35,25.95,28.81,7.481,35.58,25.12,0,0,0,0,0,0,0,0,0,0,0,0,0,0,0,0,
44,22.71,1.121,9.087,5.735,18.68,30.19,8.28,35.44,27.35,10.2,30.48,34.14,33.51,14.78,40.56,25.9,0,0,0,0,0,0,0,0,0,0,0,0,0,0,0,0,
45,25.33,7.324,12.85,15.98,26.42,27.12,14.4,22.91,20.63,7.01,22.41,30.17,28.55,15.03,34.84,22.63,0,0,0,0,0,0,0,0,0,0,0,0,0,0,0,0,
46,23.91,3.612,13.3,14.26,24.68,28.97,14.19,38.48,17.46,2.889,22.76,29.45,29.56,16.68,32.77,25.3,0,0,0,0,0,0,0,0,0,0,0,0,0,0,0,0,
47,25.69,-2.186,14.71,15.44,21.65,29.3,3.925,54.9,19.4,1.673,23.66,27.28,28.89,14.99,29.47,22.49,0,0,0,0,0,0,0,0,0,0,0,0,0,0,0,0,
48,18.85,-11.46,5.451,14.32,16.63,15.25,-9.563,38.65,10.17,-4.894,9.587,12.84,17.66,6.73,16.89,10.96,0,0,0,0,0,0,0,0,0,0,0,0,0,0,0,0,
49,2.784,-18.45,-9.913,6.082,2.89,5.909,-10.39,23.03,1.389,-6.579,0.7467,6.616,15.79,7.545,18.18,12.06,0,0,0,0,0,0,0,0,0,0,0,0,0,0,0,0,
50,4.883,-10.89,-6.621,8.564,-4.448,15.13,1.744,28.69,10.5,2.578,11.03,18.87,26,15.82,36.48,24.58,0,0,0,0,0,0,0,0,0,0,0,0,0,0,0,0,
51,22.62,-2.574,6.244,11.81,2.46,18.75,8.57,40.06,22.22,6.401,24.97,30.12,30.6,16.27,49.31,30.37,0,0,0,0,0,0,0,0,0,0,0,0,0,0,0,0,
52,31.22,-4.997,6.55,7.381,7.595,14.99,5.621,43.68,26.58,0.4924,37.34,36.66,34.87,15.28,58.69,34.47,0,0,0,0,0,0,0,0,0,0,0,0,0,0,0,0,
53,36.51,-3.807,1.925,13.04,10.11,18.73,3.495,33.56,31.33,-5.171,44.76,40.39,39.99,15.62,63.46,37.72,0,0,0,0,0,0,0,0,0,0,0,0,0,0,0,0,
54,36.75,-1.532,0.0544,21.48,12.26,10.56,0.6075,26.07,30.51,-6.085,37.76,32.91,35.52,11.62,54.92,34.37,0,0,0,0,0,0,0,0,0,0,0,0,0,0,0,0,
55,23.49,-6.522,1.831,22.18,3.864,-7.682,-3.393,31.66,21.34,-4.451,25.06,18.85,27.77,9.14,43.97,29.76,0,0,0,0,0,0,0,0,0,0,0,0,0,0,0,0,
56,12.82,-13.66,3.47,20.62,-11.14,-15.72,-6.766,29.84,11.52,-8.436,11.88,3.089,17.64,3.631,31.72,18.22,0,0,0,0,0,0,0,0,0,0,0,0,0,0,0,0,
57,5.109,-26.72,-6.463,13.32,-20.11,-24.33,-14.08,21.96,4.779,-11.23,0.8009,-6.338,9.574,-3.538,21.96,7.506,0,0,0,0,0,0,0,0,0,0,0,0,0,0,0,0,
58,2.52,-33.53,-10.37,9.767,-15.12,-21.72,-13.18,21.43,8.665,-0.1641,7.271,3.735,18.47,2.576,27.74,13.97,0,0,0,0,0,0,0,0,0,0,0,0,0,0,0,0,
59,16.64,-21.65,7.038,17.99,-2.573,1.087,-1.495,16.5,15.96,6.82,18.18,12.12,25.47,7.765,30.37,15.54,0,0,0,0,0,0,0,0,0,0,0,0,0,0,0,0,
60,18.48,-17.31,15.13,20.94,-3.318,7.453,-1.122,13,8.162,-0.3552,9.612,0.5502,15.04,0.1599,20.71,5.177,0,0,0,0,0,0,0,0,0,0,0,0,0,0,0,0,
61,1.329,-25.5,4.561,14.23,-13.05,2.299,-7.812,22.94,-1.704,-3.868,-0.3485,-6.305,10.77,-3.144,19.78,6.436,0,0,0,0,0,0,0,0,0,0,0,0,0,0,0,0,
62,2.199,-24.53,1.956,8.717,-12.86,9.833,-5.937,25.35,3.154,-4.098,5.636,-0.4031,15.82,-2.619,24.29,10.24,0,0,0,0,0,0,0,0,0,0,0,0,0,0,0,0,
63,12.81,-20.37,7.131,12.1,-8.323,11.59,-1.214,17.11,10.16,-4.809,12.71,2.931,15.88,-4.809,23.39,6.76,0,0,0,0,0,0,0,0,0,0,0,0,0,0,0,0,
64,14.86,-16.23,10.05,24.25,-1.079,13.19,5.306,21.79,14.09,2.256,13.56,5.61,17.38,-1.605,21.18,7.933,0,0,0,0,0,0,0,0,0,0,0,0,0,0,0,0,
65,20.97,-9.712,14.84,25.42,10.17,20.82,8.216,29.23,17.15,6.843,11.58,5.833,18.5,0.4592,14.09,6.54,0,0,0,0,0,0,0,0,0,0,0,0,0,0,0,0,
66,20.41,-14.86,14.63,9.321,7.73,7.131,-1.8,17.56,11.26,1.335,5.101,-0.0906,13.33,-2.342,7.449,1.566,0,0,0,0,0,0,0,0,0,0,0,0,0,0,0,0,
67,11.49,-20.74,9.475,2.852,-2.04,-6.431,-8.326,9.614,6.23,-1.676,2.748,1.668,13.36,2.35,11.86,6.169,0,0,0,0,0,0,0,0,0,0,0,0,0,0,0,0,
68,14.48,-14.45,12.85,9.13,-2.942,3.389,-6.609,24.18,10.59,1.162,8.181,7.113,15.06,6.628,14.29,7.69,0,0,0,0,0,0,0,0,0,0,0,0,0,0,0,0,
69,12.94,-17.43,14.93,5.466,-7.941,2.346,-11.78,30.98,8.949,4.725,7.376,3.163,9.669,2.529,12.26,2.651,0,0,0,0,0,0,0,0,0,0,0,0,0,0,0,0,
70,4.313,-26.12,9.086,-0.4778,-9.692,-2.772,-12.28,23.36,9.041,7.291,7.825,7.003,13.61,7.173,24.4,13.92,0,0,0,0,0,0,0,0,0,0,0,0,0,0,0,0,
71,16.23,-18.44,12.56,4.3,5.939,14.06,-0.9593,25.64,22.61,6.138,20.94,22.42,27.74,16.42,38.91,29.36,0,0,0,0,0,0,0,0,0,0,0,0,0,0,0,0,
72,30.27,-7.897,21.64,10.25,13.89,22.3,4.425,23.66,27.53,4.472,26.34,26.96,32,13.52,36.25,25.04,0,0,0,0,0,0,0,0,0,0,0,0,0,0,0,0,
73,28.05,-5.319,24.56,18.37,10.56,15.63,3.333,13.93,23.82,5.574,21.73,24.95,28.93,11.5,32.04,19.33,0,0,0,0,0,0,0,0,0,0,0,0,0,0,0,0,
74,28.36,-3.729,24.78,22.53,14.86,16.62,1.901,22.63,25.25,4.655,21.93,24.48,26.07,13.95,30.67,20.97,0,0,0,0,0,0,0,0,0,0,0,0,0,0,0,0,
75,26.59,-4.428,22.95,14.36,18.99,15.06,2.842,35.07,18.68,7.901,17.19,18.34,23.66,9.929,21.61,16.59,0,0,0,0,0,0,0,0,0,0,0,0,0,0,0,0,
76,20.75,-1.712,29.79,20.18,24.17,12.55,13.49,36.86,11.12,19.29,9.209,16.66,26.47,8.978,17.85,13.47,0,0,0,0,0,0,0,0,0,0,0,0,0,0,0,0,
77,24.38,2.588,43.18,32.62,33.53,17.8,18.24,40.13,15.16,20.04,8.914,20.15,26.59,10.43,20.98,12.27,0,0,0,0,0,0,0,0,0,0,0,0,0,0,0,0,
78,23.4,-5.487,40.61,22.38,32.75,18.07,7.824,34.2,14.5,10.52,8.224,15.19,21.12,5.708,18.75,6.845,0,0,0,0,0,0,0,0,0,0,0,0,0,0,0,0,
79,14.16,-15.61,33.52,17.8,28.85,14.87,2.21,19.24,8.905,8.664,10.53,9.802,21.11,4.935,19.95,9.235,0,0,0,0,0,0,0,0,0,0,0,0,0,0,0,0,
80,8.579,-18.74,29.6,21.11,26.94,9.938,-1.705,10.94,6.337,4.812,19.11,9.281,20.09,8.262,26.84,17.41,0,0,0,0,0,0,0,0,0,0,0,0,0,0,0,0,
81,3.262,-21.1,17.71,10.26,22.04,3.335,-9.493,4.863,4.218,-1.976,20.14,8.319,16.08,10.16,28.2,20.63,0,0,0,0,0,0,0,0,0,0,0,0,0,0,0,0,
82,5.085,-16.74,19.5,15.2,27.85,6.971,-5.389,5.05,8.176,5.062,14.61,9.225,19.02,12.31,24.75,20.99,0,0,0,0,0,0,0,0,0,0,0,0,0,0,0,0,
83,12.32,-10.35,29.62,24.58,40.62,10.02,0.3883,9.003,10.45,10.38,8.536,8.087,19.35,7.091,20.02,14.83,0,0,0,0,0,0,0,0,0,0,0,0,0,0,0,0,
84,8.249,-13.26,19.78,12.1,47.38,9.439,-1.304,1.152,3.315,2.118,-0.7035,2.966,13.2,-2.523,14.31,3.996,0,0,0,0,0,0,0,0,0,0,0,0,0,0,0,0,
85,3.879,-15.87,17.32,18.67,56.02,18.72,3.608,1.585,4.227,0.41,-3.522,3.602,14.63,-1.693,12.69,2.928,0,0,0,0,0,0,0,0,0,0,0,0,0,0,0,0,
86,8.977,-13.62,32.66,37.83,61.23,16.67,6.652,18.42,11.52,7.86,5.594,10.53,22.18,6.26,17.62,10.69,0,0,0,0,0,0,0,0,0,0,0,0,0,0,0,0,
87,10.09,-12.65,31.46,28.97,54.29,-1.396,-2.548,14.51,3.892,9.551,6.824,9.902,21.75,8.766,16.77,11.7,0,0,0,0,0,0,0,0,0,0,0,0,0,0,0,0,
88,2.977,-15.08,17.22,16.2,45.7,-4.774,-10.21,-5.241,-12.07,5.946,-7.208,-2.362,13.02,4.933,5.39,4.55,0,0,0,0,0,0,0,0,0,0,0,0,0,0,0,0,
89,-4.483,-20.7,14.05,18.64,44.34,4.3,-8.568,-0.321,-17.02,7.356,-14.57,-8.579,9.055,2.554,1.672,2.184,0,0,0,0,0,0,0,0,0,0,0,0,0,0,0,0,
90,-5.761,-22.5,20.62,24.28,51.13,9.955,-3.017,11.44,-17.12,13.7,-14.2,-6.266,10.8,1.165,4.647,1.574,0,0,0,0,0,0,0,0,0,0,0,0,0,0,0,0,
91,-4.08,-18.75,27.1,31.04,58.55,15.18,0.3331,1.058,-21.41,14.33,-17.89,-7.731,12.36,-0.6028,3.851,-1.907,0,0,0,0,0,0,0,0,0,0,0,0,0,0,0,0,
92,-0.8281,-14.46,33.9,37.9,63.93,22.13,2.267,-0.4455,-15.31,10.51,-10.85,-0.8464,19.31,5.938,11.94,3.974,0,0,0,0,0,0,0,0,0,0,0,0,0,0,0,0,
93,8.298,-10.73,40.59,41.34,71.41,25.77,1.647,12.03,-4.141,7.893,-1.547,7.16,21.99,10.17,16.71,9.221,0,0,0,0,0,0,0,0,0,0,0,0,0,0,0,0,
94,7.81,-15.67,35.16,38.24,70.4,17.33,-7.479,-0.4742,-11.43,1.113,-14.06,-9.713,8.84,-0.3624,1.923,1.018,0,0,0,0,0,0,0,0,0,0,0,0,0,0,0,0,
95,-6.598,-26.32,24.88,37.8,63.51,6.906,-10.94,-15.89,-17.21,-2.524,-20.05,-21.44,5.003,-1.296,-1.514,1.995,0,0,0,0,0,0,0,0,0,0,0,0,0,0,0,0,
96,-4.857,-21.3,30.43,46.62,70.24,15.48,2.657,-1.817,-0.8903,6.3,0.8,-1.586,22.8,15.36,15.96,17.1,0,0,0,0,0,0,0,0,0,0,0,0,0,0,0,0,
97,15.74,-4.549,38.53,41.76,79.47,28.42,10.58,3.916,12.07,12.18,19,16.2,35.17,20.71,27.27,23.45,0,0,0,0,0,0,0,0,0,0,0,0,0,0,0,0,
98,26.38,-0.3695,32.07,21.17,72.78,22,1.807,-11.64,10.62,5.883,20.19,14.62,29.14,9.284,25.66,15.89,0,0,0,0,0,0,0,0,0,0,0,0,0,0,0,0,
99,20.34,-12.6,23.98,12.75,63.68,7.789,-7.599,-16.6,6.537,-1.633,9.283,4.933,16.05,-1.542,13.86,2.231,0,0,0,0,0,0,0,0,0,0,0,0,0,0,0,0,
100,6.602,-29.21,18.33,14.24,64.16,-1.253,-15.67,-20.85,-3.669,-5.052,-9.718,-11.6,3.564,-7.682,-2.571,-8.841,0,0,0,0,0,0,0,0,0,0,0,0,0,0,0,0,
101,-11.23,-40.79,4.511,11.03,59.82,-12.58,-25.4,-34.09,-18.24,-5.857,-21.57,-24.82,-4.232,-10.06,-8.873,-10.63,0,0,0,0,0,0,0,0,0,0,0,0,0,0,0,0,
102,-23.02,-41.11,-6.858,8.97,46.53,-20.62,-25.69,-26.53,-21.76,-4.641,-18.11,-19.69,0.1235,-4.499,-2.284,-3.557,0,0,0,0,0,0,0,0,0,0,0,0,0,0,0,0,
103,-16.33,-31.61,-1.679,8.649,43.15,-14.26,-20.35,-8.57,-15.85,-4.335,-11.53,-7.078,11.48,2.567,5.033,4.26,0,0,0,0,0,0,0,0,0,0,0,0,0,0,0,0,
104,-4.196,-27.62,3.373,2.738,45.77,-8.9,-24.83,-14.56,-15.83,-4.849,-11.69,-5.858,10.9,-1.234,2.819,0.4932,0,0,0,0,0,0,0,0,0,0,0,0,0,0,0,0,
105,-5.498,-35.01,-0.7264,1.805,41.31,-8.36,-28.05,-20.8,-17.55,-1.778,-11.83,-8.128,1.07,-8.914,-0.2879,-7.306,0,0,0,0,0,0,0,0,0,0,0,0,0,0,0,0,
106,-7.731,-38.4,3.307,14.4,42.75,4.017,-18.03,-6.127,-11.07,0.0417,-7.744,-3.017,-0.0386,-10.47,5.358,-3.851,0,0,0,0,0,0,0,0,0,0,0,0,0,0,0,0,
107,-0.3417,-33.13,10.75,21.14,48.69,12.9,-9.117,1.863,-6.972,-5.873,-5.516,-0.8541,6.252,-9.336,9.115,2.287,0,0,0,0,0,0,0,0,0,0,0,0,0,0,0,0,
108,6.227,-26.41,9.747,16.92,48.9,6.386,-6.526,-2.919,-7.104,-10.08,-2.635,-1.864,10.94,-5.224,7.855,3.699,0,0,0,0,0,0,0,0,0,0,0,0,0,0,0,0,
109,7.384,-22.41,6.947,16.71,49.87,4.528,-9.168,-7.52,-3.565,-7.654,1.248,-0.3331,9.404,-2.99,8.268,3.486,0,0,0,0,0,0,0,0,0,0,0,0,0,0,0,0,
110,2.961,-26.3,2.457,14.62,44.47,8.291,-17.06,-11.24,-1.392,-7.314,4.146,-0.6254,6.382,-5.932,10.4,3.4,0,0,0,0,0,0,0,0,0,0,0,0,0,0,0,0,
111,4.778,-25.7,4.379,15.27,38.93,13.8,-10.92,-7.762,5.365,-8.295,16.39,5.049,14.3,-1.967,16.33,8.625,0,0,0,0,0,0,0,0,0,0,0,0,0,0,0,0,
112,21.02,-12.16,16.93,28.67,50.12,22.78,3.163,-4.307,16.89,-8.439,24.72,12.67,21.4,1.978,18.66,10.73,0,0,0,0,0,0,0,0,0,0,0,0,0,0,0,0,
113,24.57,-9.802,17.68,27.86,49.19,19.51,-1.887,-8.675,10.37,-11.65,8.434,3.703,12.5,-4.234,11.41,2.919,0,0,0,0,0,0,0,0,0,0,0,0,0,0,0,0,
114,9.635,-20.27,7.788,10.61,24.91,10.53,-10.77,-5.548,-6.376,-13.08,-8.498,-7.987,2.133,-4.947,8.372,0.2394,0,0,0,0,0,0,0,0,0,0,0,0,0,0,0,0,
115,3.357,-23.27,3.982,8.513,17.33,9.867,-11.99,2.38,-8.21,-9.237,-7.409,-8.033,-2.125,0.5135,10.89,3.027,0,0,0,0,0,0,0,0,0,0,0,0,0,0,0,0,
116,0.2082,-25.54,0.2743,11.12,27.89,0.128,-19.01,4.176,-6.335,-4.194,-6.658,-10.56,-5.348,2.005,7.497,1.836,0,0,0,0,0,0,0,0,0,0,0,0,0,0,0,0,
117,-11.46,-29.52,-3.987,-3.288,25.2,-16.26,-20.56,3.539,-15.37,-1.345,-14.48,-20.31,-7.557,3.118,-1.825,-1.186,0,0,0,0,0,0,0,0,0,0,0,0,0,0,0,0,
118,-20.64,-29.93,-5.415,-17.44,17.1,-17.97,-16.29,-1.157,-22.89,-4.99,-22.1,-29.71,-15.36,-1.258,-12,-9.508,0,0,0,0,0,0,0,0,0,0,0,0,0,0,0,0,
119,-25.15,-35.89,-7.222,-15.97,20.85,-11.55,-22.87,-2.65,-19.66,-11.29,-23.62,-32.91,-23.33,-11.37,-15.96,-18.87,0,0,0,0,0,0,0,0,0,0,0,0,0,0,0,0,
120,-23.59,-38.86,-5.609,-7.684,19.16,-9.832,-26.13,5.567,-13.82,-10.05,-21.89,-28.71,-16.83,-11.87,-12.32,-15.8,0,0,0,0,0,0,0,0,0,0,0,0,0,0,0,0,
121,-15.18,-28.65,-1.554,-0.1564,5.393,-13.27,-17.39,11.57,-11.3,-4.553,-21.31,-22.85,-4.416,-3.303,-5.703,-5.3,0,0,0,0,0,0,0,0,0,0,0,0,0,0,0,0,
122,-10.92,-21.32,-1.028,1.935,0.9095,-15.03,-12.19,13.52,-11.59,-3.413,-17.82,-15.73,2.473,0.5029,3.028,-0.1497,0,0,0,0,0,0,0,0,0,0,0,0,0,0,0,0,
123,-10.29,-21.63,-2.348,-3.46,7.874,-6.268,-10.67,14.51,-14.45,-4.853,-13.7,-11.18,3.053,-4.088,6.892,-3.141,0,0,0,0,0,0,0,0,0,0,0,0,0,0,0,0,
124,-8.316,-23.42,-1.358,-2.689,16.75,1.43,-9.764,11.07,-13.14,-7.273,-14.22,-17.51,-4.995,-8.341,4.524,-6.427,0,0,0,0,0,0,0,0,0,0,0,0,0,0,0,0,
125,-11.14,-31.87,-3.109,2.212,16.45,-8.806,-15.22,3.814,-7.939,-12.13,-12.26,-23.03,-11.92,-4.642,6.027,-0.9931,0,0,0,0,0,0,0,0,0,0,0,0,0,0,0,0,
126,-16.1,-38.72,-12.24,-6.303,-4.842,-20.3,-17.59,-1.523,-9.029,-13.12,-8.562,-19.67,-7.714,0.9778,4.463,4.89,0,0,0,0,0,0,0,0,0,0,0,0,0,0,0,0,
127,-14.61,-31.81,-6.967,-7.853,-8.948,-12.35,-10.68,6.255,-6.362,-9.079,-8.573,-19.11,-3.418,0.6361,-5.176,1.213,0,0,0,0,0,0,0,0,0,0,0,0,0,0,0,0,
128,-9.49,-24.13,19.5,10.13,27.34,-0.0415,-9.031,15.73,7.584,-9.91,-4.758,-17.39,-3.083,-2.563,-3.862,-1.384,0,0,0,0,0,0,0,0,0,0,0,0,0,0,0,0,
129,-4.347,-22.74,25.74,13.7,42.91,0.8354,-12.46,3.194,13.71,-12.43,2.477,-6.884,2.153,-3.925,10.58,3.803,0,0,0,0,0,0,0,0,0,0,0,0,0,0,0,0,
130,0.3659,-17.88,7.009,1.6,24.54,0.3172,-9.669,-8.084,9.674,-8.653,4.965,-0.576,6.232,-4.08,18.43,5.573,0,0,0,0,0,0,0,0,0,0,0,0,0,0,0,0,
131,1.624,-15.02,9.31,4.39,24.52,8.789,-6.459,3.061,10.89,-6.542,8.01,-0.4338,2.935,-6.079,17.83,0.3578,0,0,0,0,0,0,0,0,0,0,0,0,0,0,0,0,
132,3.021,-18.47,27.89,16.42,32.51,23.37,-3.816,2.73,14.24,-9.045,14.38,1.226,0.0025,-10.27,17,-3.99,0,0,0,0,0,0,0,0,0,0,0,0,0,0,0,0,
133,6.2,-17.92,21.29,15.04,22.74,26.28,-1.06,-15.46,10.85,-9.797,15.04,-2.342,-0.888,-10.19,14.6,-3.219,0,0,0,0,0,0,0,0,0,0,0,0,0,0,0,0,
134,2.214,-15.52,4.138,2.67,18.91,8.349,-8.74,-13.79,4.003,-9.221,8.837,-9.253,-2.036,-2.921,10.04,1.927,0,0,0,0,0,0,0,0,0,0,0,0,0,0,0,0,
135,-5.311,-16.98,10.23,-4.082,30.86,-5.287,-17.57,-0.655,0.6173,-8.071,1.138,-11.23,-2.182,2.46,3.861,3.924,0,0,0,0,0,0,0,0,0,0,0,0,0,0,0,0,
136,-6.332,-16.87,14.96,-5.579,38.34,-2.922,-13.75,-4.932,1.111,-4.97,-4.275,-13.65,-1.324,2.264,-2.191,-1.299,0,0,0,0,0,0,0,0,0,0,0,0,0,0,0,0,
137,-4.992,-12.16,4.357,-0.1491,37.21,0.8034,-2.87,-1.865,3.202,-0.0727,-1.907,-13.16,3.09,2.653,-1.3,-4.366,0,0,0,0,0,0,0,0,0,0,0,0,0,0,0,0,
138,-0.9319,-1.135,20.62,27.91,47.14,14.04,15.47,23.77,10.09,5.458,6.206,-2.961,10.39,3.408,6.029,-1.094,0,0,0,0,0,0,0,0,0,0,0,0,0,0,0,0,
139,9.445,15.15,59.24,58.63,69.93,36.61,35.85,40.38,21.13,10.97,13.78,7.716,17.13,5.553,15.89,6.379,0,0,0,0,0,0,0,0,0,0,0,0,0,0,0,0,
140,17.65,26.27,82.14,72.91,87.86,47.37,42.81,46.83,29.32,19.24,20.96,14.72,25.45,11.31,26.01,16.76,0,0,0,0,0,0,0,0,0,0,0,0,0,0,0,0,
141,22.83,28.13,108.8,100.7,108.1,59.24,49.26,64.81,35.14,27.3,25.21,22.32,32.88,14.41,29.87,21.82,0,0,0,0,0,0,0,0,0,0,0,0,0,0,0,0,
142,33.49,30.8,156.5,150.3,138.2,87.09,71.78,92.31,43.8,30.14,28.9,30.81,35.47,18.81,32.42,24.4,0,0,0,0,0,0,0,0,0,0,0,0,0,0,0,0,
143,47.35,39.63,219,213,167.8,119.1,97.67,131,56.44,35.68,40.96,39.54,39.23,30.66,42.26,35.42,0,0,0,0,0,0,0,0,0,0,0,0,0,0,0,0,
144,60.93,51.29,299,293.4,209.1,158.2,123.6,179.2,72.5,50.22,54.85,45.73,50.73,42.13,50.65,46.74,0,0,0,0,0,0,0,0,0,0,0,0,0,0,0,0,
145,76.78,71.05,354.1,349.5,254.5,201.6,157.9,223.1,88.74,67.7,61.16,48.83,65.95,52,52.47,51.21,0,0,0,0,0,0,0,0,0,0,0,0,0,0,0,0,
146,88.12,96.94,351.4,352.1,264.7,230.2,185.9,261.4,99.09,81.09,64.37,53.48,74.11,58.99,53.83,53.86,0,0,0,0,0,0,0,0,0,0,0,0,0,0,0,0,
147,91.51,111.2,342.9,347,259.6,249.5,201.3,283.9,104.9,89.07,68.03,59.44,76.95,55.98,54.92,52.9,0,0,0,0,0,0,0,0,0,0,0,0,0,0,0,0,
148,99.56,117.5,352.1,353.6,278.3,267.5,220.2,288.6,110.5,94.26,68.77,60.21,81.2,49.49,51.49,45.9,0,0,0,0,0,0,0,0,0,0,0,0,0,0,0,0,
149,110.5,126.6,348.1,350.8,292.3,280.1,233.3,299.8,116.2,96.58,69.69,60.84,83.55,50.46,51.87,44.4,0,0,0,0,0,0,0,0,0,0,0,0,0,0,0,0,
150,118.2,131.9,344.7,349.6,286.1,294.4,231.3,310.6,129.4,98.85,83.46,75.98,89.61,62.46,69.61,58.08,0,0,0,0,0,0,0,0,0,0,0,0,0,0,0,0,
151,130.7,135.9,351.3,349.1,276.5,292.8,228.1,296.4,141.2,102.9,94.91,85.06,91.49,69.91,78.97,61.64,0,0,0,0,0,0,0,0,0,0,0,0,0,0,0,0,
152,126.3,132.6,332.8,324.7,250.5,256.2,214.3,272.2,122,96.6,74.67,62.35,69.76,54.52,56.13,38.01,0,0,0,0,0,0,0,0,0,0,0,0,0,0,0,0,
153,97.45,114.3,296.6,294.4,228.6,229.3,191.6,258.8,95.38,84.87,56.41,48.66,56.82,42.6,45.91,29.81,0,0,0,0,0,0,0,0,0,0,0,0,0,0,0,0,
154,93.09,111.2,275.8,283.5,235.6,231.3,188.8,251.7,102.7,89.65,73.43,66.81,74.1,52.56,62.39,47.46,0,0,0,0,0,0,0,0,0,0,0,0,0,0,0,0,
155,108.8,124.3,258.3,268.9,218.3,216.5,189.8,242,110.8,97.1,79.3,69.6,78.63,53.38,56.94,44.75,0,0,0,0,0,0,0,0,0,0,0,0,0,0,0,0,
156,97.47,116.6,227.9,234.3,178.4,187.8,169.5,222.5,95.49,84.33,58.82,53.54,64.89,42.52,38.55,29.77,0,0,0,0,0,0,0,0,0,0,0,0,0,0,0,0,
157,81.53,98.89,191.1,194.4,170.9,174.9,150,195.8,88.61,66.6,50.57,47.74,60.45,40.25,36.14,30.91,0,0,0,0,0,0,0,0,0,0,0,0,0,0,0,0,
158,81.88,92.36,156.9,158.1,160.4,161.1,140.4,175.1,86.44,60.28,47.67,40.81,56.05,38.32,31.51,32.07,0,0,0,0,0,0,0,0,0,0,0,0,0,0,0,0,
159,73.43,84.88,132.3,129.1,131.5,138.4,125.8,158.9,75.27,56.48,39.67,32.71,48.28,34.31,25.62,30.01,0,0,0,0,0,0,0,0,0,0,0,0,0,0,0,0,
160,62.54,76.71,108,103.1,128.1,118.8,109.6,137.3,77.2,49.66,45.85,35.14,46.68,34.05,32.24,33.28,0,0,0,0,0,0,0,0,0,0,0,0,0,0,0,0,
161,65.6,76.28,79.04,75.2,126.5,106.7,102.2,119.2,88.5,48.26,56.29,36.62,44.57,33.05,39.93,31.14,0,0,0,0,0,0,0,0,0,0,0,0,0,0,0,0,
162,65.69,74.22,51.43,48.22,102.5,99.13,93.37,103.2,79.13,46.03,45.63,26.36,33.44,25.15,32.43,13.68,0,0,0,0,0,0,0,0,0,0,0,0,0,0,0,0,
163,44.95,58.27,10.43,9.311,74.46,75.66,68.65,71.19,46.49,27.78,14.39,1.302,12.92,5.672,4.496,-13.36,0,0,0,0,0,0,0,0,0,0,0,0,0,0,0,0,
164,16.46,38.08,-32.6,-31.73,44.26,46.74,45.54,46.24,18.84,11.31,-11.17,-20.57,1.376,-7.884,-17.49,-22.96,0,0,0,0,0,0,0,0,0,0,0,0,0,0,0,0,
165,8.636,35.95,-45.98,-43.4,27.3,44.37,43.08,50.5,15.61,15.55,-12.87,-19.67,9.541,0.1809,-12.64,-7.666,0,0,0,0,0,0,0,0,0,0,0,0,0,0,0,0,
166,11.62,41.82,-60.4,-56.73,16.86,37.45,37.26,40.74,16.77,17.86,-12.16,-19.34,11.37,4.028,-9.096,-1.616,0,0,0,0,0,0,0,0,0,0,0,0,0,0,0,0,
167,-1.575,31.03,-97.49,-97.39,-18.94,6.163,14.21,0.6334,4.16,4.54,-21.71,-31.84,-3.05,-9.402,-17.05,-12.41,0,0,0,0,0,0,0,0,0,0,0,0,0,0,0,0,
168,-13.45,14.36,-118.9,-123.2,-43.29,-3.605,-2.646,-18.22,-3.806,-5.073,-18.35,-31.58,-10.69,-14.75,-10.52,-12.82,0,0,0,0,0,0,0,0,0,0,0,0,0,0,0,0,
169,-8.047,8.33,-120.8,-130.4,-32.72,7.111,-7.433,-9.998,1.67,-3.482,-4.477,-20.17,-8.621,-7.781,4.74,-2.962,0,0,0,0,0,0,0,0,0,0,0,0,0,0,0,0,
170,-6.601,5.641,-126.6,-143.9,-37.84,-2.18,-13,-17.23,5.763,-4.309,-1.903,-17.27,-11.22,-8.529,5.034,-4.092,0,0,0,0,0,0,0,0,0,0,0,0,0,0,0,0,
171,-12.25,3.413,-131.6,-147.4,-56.23,-17.99,-14.38,-31.16,8.736,-10.38,-1.169,-16.63,-12.8,-14.28,-3.958,-13.37,0,0,0,0,0,0,0,0,0,0,0,0,0,0,0,0,
172,-6.596,11.23,-129.7,-137.2,-47.55,-14.14,-3.23,-23.96,17.11,-7.647,4.354,-13.08,-3.042,-11.79,-8.418,-13.63,0,0,0,0,0,0,0,0,0,0,0,0,0,0,0,0,
173,2.026,21.98,-129.7,-134.1,-38.36,-9.872,3.162,-21.92,16.78,-2.18,-1.987,-18.26,2.2,-12.55,-13.55,-13.19,0,0,0,0,0,0,0,0,0,0,0,0,0,0,0,0,
174,-6.349,16.16,-139.7,-139.8,-52.28,-22.8,-8.684,-45.34,2.076,-11.61,-15.22,-28.81,-6.529,-23.79,-24.21,-25,0,0,0,0,0,0,0,0,0,0,0,0,0,0,0,0,
175,-16.65,6.24,-145.9,-143.2,-55.86,-28.04,-14.47,-59.28,-5.91,-18.53,-19.78,-32.53,-10,-29.83,-34.68,-36.13,0,0,0,0,0,0,0,0,0,0,0,0,0,0,0,0,
176,-11.71,10.59,-136.2,-138.3,-43.76,-19.73,-7.803,-50.48,-4.235,-13.12,-24.44,-37.08,-10.19,-31.1,-42.7,-40.22,0,0,0,0,0,0,0,0,0,0,0,0,0,0,0,0,
177,-14.8,5.406,-138.6,-138.4,-47.76,-33.35,-20.54,-51.6,-10.24,-20.94,-30.97,-44.29,-21.6,-32.89,-40.65,-38.28,0,0,0,0,0,0,0,0,0,0,0,0,0,0,0,0,
178,-31.29,-13.22,-157.4,-150.9,-63.62,-59.18,-41.74,-67.05,-16.78,-33.2,-26.52,-39.68,-24.81,-23.45,-20.92,-21.14,0,0,0,0,0,0,0,0,0,0,0,0,0,0,0,0,
179,-33.16,-11.09,-155.2,-151.4,-66.79,-61.01,-38.72,-76.5,-14.84,-25.05,-16.8,-28.65,-12.17,-12.08,-0.2238,-0.2911,0,0,0,0,0,0,0,0,0,0,0,0,0,0,0,0,
180,-27.6,1.085,-144.1,-140.7,-63.86,-59.27,-35.75,-83.23,-17.36,-17.71,-12.71,-23.87,-6.296,-16,6.546,6.227,0,0,0,0,0,0,0,0,0,0,0,0,0,0,0,0,
181,-31.39,-2.184,-151.9,-146.6,-71.8,-68.59,-47.5,-88.04,-22.14,-22.75,-12.97,-20,-3.464,-18.4,9.122,8.502,0,0,0,0,0,0,0,0,0,0,0,0,0,0,0,0,
182,-28.07,1.981,-152,-152,-80.7,-64.16,-42.28,-82.29,-17.4,-19.99,-15.72,-16.13,6.771,-9.811,9.959,11.24,0,0,0,0,0,0,0,0,0,0,0,0,0,0,0,0,
183,-20.48,15.26,-139.8,-139.7,-77.95,-58.89,-33.29,-82.52,-14.15,-19.94,-21.41,-21.7,2.455,-15.23,-2.403,-0.232,0,0,0,0,0,0,0,0,0,0,0,0,0,0,0,0,
184,-26.72,5.18,-142.9,-138.6,-77.23,-71.94,-50.33,-92.77,-20.44,-36.01,-28.22,-33.2,-16.12,-34.25,-18.08,-18.91,0,0,0,0,0,0,0,0,0,0,0,0,0,0,0,0,
185,-30.36,-10.87,-144.1,-144.4,-80.55,-74.47,-58.45,-86.21,-24.36,-40.66,-28.93,-36.15,-18.22,-35.47,-18.58,-24.27,0,0,0,0,0,0,0,0,0,0,0,0,0,0,0,0,
186,-23.19,-4.581,-130.2,-129,-78.48,-63.49,-43.74,-75.39,-25.57,-28.42,-25.9,-33.18,-14.46,-25.8,-17.37,-24.23,0,0,0,0,0,0,0,0,0,0,0,0,0,0,0,0,
187,-27.02,-1.729,-129.2,-118.4,-86.44,-67.55,-46.48,-87.11,-32.87,-27.28,-30.73,-36.24,-23.82,-25.84,-23.98,-25.91,0,0,0,0,0,0,0,0,0,0,0,0,0,0,0,0,
188,-34.94,-10.62,-132,-130.4,-94.46,-70.18,-57.03,-94.76,-38.43,-32.91,-35.6,-37.7,-21.17,-18.74,-20.43,-16.24,0,0,0,0,0,0,0,0,0,0,0,0,0,0,0,0,
189,-29.2,-5.837,-119.1,-134.1,-80.85,-57.43,-46.98,-89.41,-37.22,-30.48,-33.99,-33.85,-7.785,-6.541,-14.52,-8.694,0,0,0,0,0,0,0,0,0,0,0,0,0,0,0,0,
190,-28.17,0.6532,-116.6,-124.2,-76.3,-59.81,-41.55,-97.4,-36.7,-31.05,-35.9,-34.26,-12.31,-11.33,-17.51,-14.75,0,0,0,0,0,0,0,0,0,0,0,0,0,0,0,0,
191,-38.9,-9.088,-126.8,-123.2,-85.81,-77.03,-54.45,-106.8,-37.69,-38.43,-34.85,-32.11,-20.75,-18.15,-7.289,-9.498,0,0,0,0,0,0,0,0,0,0,0,0,0,0,0,0,
192,-41.23,-20.92,-129.3,-132.8,-86.69,-84.18,-69.42,-111.8,-37.05,-47.89,-22.95,-22.35,-18.51,-17.32,12.32,5.232,0,0,0,0,0,0,0,0,0,0,0,0,0,0,0,0,
193,-36.36,-29.67,-131.3,-141,-102.2,-88.12,-82.86,-125.9,-29.45,-57,-10.8,-14.52,-17.76,-20.77,17.79,8.215,0,0,0,0,0,0,0,0,0,0,0,0,0,0,0,0,
194,-35.04,-34.92,-127.5,-138.1,-113.8,-90.51,-86.42,-124.8,-15.37,-53.82,-5.244,-10.25,-16.38,-20.38,16.23,8.052,0,0,0,0,0,0,0,0,0,0,0,0,0,0,0,0,
195,-32.58,-27.81,-113.5,-128.9,-82.3,-81.77,-74.69,-107.1,-11.55,-40.66,-4.178,-7.701,-11.78,-12.66,15.81,9.161,0,0,0,0,0,0,0,0,0,0,0,0,0,0,0,0,
196,-27.95,-16.99,-113.5,-125.9,-59.18,-75.34,-65.2,-106.5,-16.97,-36.43,1.557,-4.218,-9.234,-8.741,15.52,6.594,0,0,0,0,0,0,0,0,0,0,0,0,0,0,0,0,
197,-25.69,-12.91,-116.8,-120.7,-66.49,-74.3,-63.92,-109,-12.93,-37.63,11.92,2.133,-5.707,-7.259,18.66,5.964,0,0,0,0,0,0,0,0,0,0,0,0,0,0,0,0,
198,-25.45,-10.19,-102.6,-105.9,-56.16,-67.95,-63.35,-99.54,-7.892,-31,9.352,1.095,-6.437,-7.822,16.94,3.07,0,0,0,0,0,0,0,0,0,0,0,0,0,0,0,0,
199,-29.57,-11.22,-98.43,-104,-45.67,-69.64,-66.84,-98.73,-17.17,-26.27,-6.358,-11.74,-18.18,-15.7,2.944,-7.727,0,0,0,0,0,0,0,0,0,0,0,0,0,0,0,0,
200,-38.62,-18.59,-109,-115.3,-60.36,-77.46,-69.07,-96.84,-29.7,-32.22,-19.19,-23.19,-27.15,-24.44,-10.31,-16,0,0,0,0,0,0,0,0,0,0,0,0,0,0,0,0,
201,-39.09,-18.29,-101.4,-105.6,-61.56,-64.66,-58.57,-77.44,-30.7,-35.89,-21.8,-20.94,-21.94,-25.15,-8.892,-13.88,0,0,0,0,0,0,0,0,0,0,0,0,0,0,0,0,
202,-26.17,-9.497,-85.38,-85.09,-48.01,-48.47,-47.34,-63.78,-22.28,-32.73,-14.4,-8.607,-13.93,-22.67,-0.3433,-7.477,0,0,0,0,0,0,0,0,0,0,0,0,0,0,0,0,
203,-17.97,-5.989,-80.93,-85.13,-50.5,-52.73,-44.66,-65.55,-16.43,-30.67,-11.21,-2.689,-13.46,-24.61,-0.9532,-4.35,0,0,0,0,0,0,0,0,0,0,0,0,0,0,0,0,
204,-19.77,-2.959,-76.03,-84.82,-56.23,-50.84,-39.16,-63.52,-18.35,-25.47,-19.74,-8.445,-13.23,-26.18,-8.191,-4.116,0,0,0,0,0,0,0,0,0,0,0,0,0,0,0,0,
205,-19.75,4.646,-76.2,-74.18,-52.4,-39.23,-32.49,-56.14,-21.53,-18.55,-22.08,-12.21,-6.863,-22.48,-8.998,-4.101,0,0,0,0,0,0,0,0,0,0,0,0,0,0,0,0,
206,-17.36,8.415,-82.05,-74.61,-50.7,-38.72,-30.24,-54.51,-20.96,-20.52,-15.97,-8.121,0.5492,-18.4,-2.772,-2.289,0,0,0,0,0,0,0,0,0,0,0,0,0,0,0,0,
207,-14.32,11.03,-70.32,-73.47,-48.67,-33.2,-26.6,-56.63,-17.14,-22.38,-15.59,-6.209,3.738,-16.39,4.72,2.335,0,0,0,0,0,0,0,0,0,0,0,0,0,0,0,0,
208,-11.62,13.6,-60.48,-67.58,-42.33,-25.18,-28.31,-54.7,-12.68,-15.86,-17.37,-11.71,3.055,-14.32,7.88,4.211,0,0,0,0,0,0,0,0,0,0,0,0,0,0,0,0,
209,-17.94,8.935,-72.75,-74.45,-43.56,-38.84,-36.81,-48.03,-15.4,-11.01,-21.22,-21.71,-2.476,-16.56,-1.686,-3.636,0,0,0,0,0,0,0,0,0,0,0,0,0,0,0,0,
210,-31.33,2.689,-75.2,-74.69,-50.3,-51.28,-37.66,-44.8,-26.81,-10.28,-31.5,-31.98,-13.69,-28.01,-17.02,-16.29,0,0,0,0,0,0,0,0,0,0,0,0,0,0,0,0,
211,-36.03,0.7906,-63.75,-65.95,-46.99,-39.56,-35.32,-46.64,-31.83,-12.51,-32.93,-32.19,-20.5,-39.7,-16.56,-20,0,0,0,0,0,0,0,0,0,0,0,0,0,0,0,0,
212,-27.16,-0.92,-64.64,-75.82,-44.93,-26.01,-40.88,-47,-27.01,-23,-25.52,-22.4,-18.77,-43.82,-8.292,-16.62,0,0,0,0,0,0,0,0,0,0,0,0,0,0,0,0,
213,-20.07,-3.799,-70.37,-87.17,-60.21,-28.23,-45.21,-49.41,-26.25,-32.09,-24.92,-18.37,-16.26,-41.7,-11.23,-16.33,0,0,0,0,0,0,0,0,0,0,0,0,0,0,0,0,
214,-21.37,-0.899,-67.65,-75.23,-69.44,-32.96,-38.73,-50.66,-24.45,-24.57,-19.14,-17.9,-8.051,-27.89,-7.447,-9.158,0,0,0,0,0,0,0,0,0,0,0,0,0,0,0,0,
215,-20.7,9.702,-63.82,-62.77,-62.98,-30.41,-31.97,-41.73,-18.65,-12.77,-8.896,-17.55,-0.6807,-12.65,2.051,0.802,0,0,0,0,0,0,0,0,0,0,0,0,0,0,0,0,
216,-24.98,11.28,-64.18,-67.04,-65.98,-36,-37.51,-38.69,-23.92,-15.48,-16.62,-28.96,-10.81,-15.15,-9.27,-6.224,0,0,0,0,0,0,0,0,0,0,0,0,0,0,0,0,
217,-36.18,2.147,-63.92,-69.5,-68.33,-50.64,-44.22,-48.84,-28.23,-22.85,-25.69,-37.2,-18.8,-18.85,-18.88,-11.97,0,0,0,0,0,0,0,0,0,0,0,0,0,0,0,0,
218,-34.41,-0.8962,-65.26,-65.97,-58.06,-54.36,-45.31,-53.92,-24,-23.41,-22.5,-32.02,-17.8,-15.62,-11.26,-6.193,0,0,0,0,0,0,0,0,0,0,0,0,0,0,0,0,
219,-31.03,-9.716,-75.54,-71.08,-61.66,-56.06,-53.57,-53.56,-31.23,-23.28,-25.16,-33.14,-27.33,-21.5,-11.87,-9.374,0,0,0,0,0,0,0,0,0,0,0,0,0,0,0,0,
220,-37.8,-22.57,-77.91,-69.46,-67.55,-62.4,-55.33,-50.45,-34.92,-19.07,-27.3,-31.16,-25.39,-21.54,-11.12,-9.922,0,0,0,0,0,0,0,0,0,0,0,0,0,0,0,0,
221,-29.82,-6.112,-60.04,-47.18,-51.25,-50.79,-33.6,-35.44,-23.28,-7.524,-25.09,-17.4,-3.107,-11.13,-1.675,-2.312,0,0,0,0,0,0,0,0,0,0,0,0,0,0,0,0,
222,-15.48,18.58,-49.81,-33.06,-42.16,-35.17,-18.65,-24.44,-26.69,-5.656,-32.77,-20.26,1.159,-15.27,-9.971,-9.459,0,0,0,0,0,0,0,0,0,0,0,0,0,0,0,0,
223,-22.6,11.06,-61.18,-42.11,-51.99,-46.82,-30.66,-34.55,-39,-16.97,-38.32,-36.6,-10.48,-24.08,-25.61,-19.05,0,0,0,0,0,0,0,0,0,0,0,0,0,0,0,0,
224,-34.4,-3.655,-68.8,-49.51,-52.01,-62.75,-41.39,-41.28,-32.74,-18.24,-33.46,-37.68,-9.08,-18.39,-23.57,-13.03,0,0,0,0,0,0,0,0,0,0,0,0,0,0,0,0,
225,-32.73,0.001,-61,-40.84,-41.36,-58.44,-36.16,-27.6,-23.19,-7.091,-29.14,-29.56,-4.1,-10.18,-14.62,-6.657,0,0,0,0,0,0,0,0,0,0,0,0,0,0,0,0,
226,-29.17,-0.0965,-58.75,-34.11,-42.25,-55.17,-36.34,-21.53,-25.27,-6.951,-27.18,-28.9,-10.5,-8.851,-12.5,-7.524,0,0,0,0,0,0,0,0,0,0,0,0,0,0,0,0,
227,-30.5,-11.24,-69.32,-43,-52.44,-60,-43.66,-27.25,-26.2,-11.37,-25.03,-27.71,-14.86,-7.839,-11.96,-5.843,0,0,0,0,0,0,0,0,0,0,0,0,0,0,0,0,
228,-29.25,-11.7,-68.27,-48.94,-50.38,-57.62,-38.85,-18.64,-20.58,-3.335,-20.08,-20.24,-10.21,-5.717,-10.29,-2.346,0,0,0,0,0,0,0,0,0,0,0,0,0,0,0,0,
229,-26.22,-5.443,-61.22,-47.95,-42.43,-56.79,-36.11,-19.64,-20.98,-3.686,-20.65,-23.87,-16.23,-13.7,-18.26,-9.658,0,0,0,0,0,0,0,0,0,0,0,0,0,0,0,0,
230,-29.85,-11.59,-72.66,-59.89,-49.37,-60.96,-45.84,-42.65,-28.23,-15.39,-31.1,-36.08,-30.01,-26.9,-29.08,-21.17,0,0,0,0,0,0,0,0,0,0,0,0,0,0,0,0,
231,-29.58,-13.63,-70.81,-64.03,-52.51,-53.92,-37.14,-37.01,-25.12,-11.32,-28.53,-29.82,-24.38,-22.39,-20.02,-16.68,0,0,0,0,0,0,0,0,0,0,0,0,0,0,0,0,
232,-15.88,1.922,-39.74,-39.27,-36.69,-45.17,-16.05,-12.12,-13.72,-2.24,-13.02,-14.15,-9.964,-7.026,-1.708,-3.72,0,0,0,0,0,0,0,0,0,0,0,0,0,0,0,0,
233,-7.509,10.66,-29.91,-23.19,-28.28,-48.06,-18.05,-17.78,-9.212,-5.602,-8.529,-12.42,-7.253,-0.9007,2.18,1.361,0,0,0,0,0,0,0,0,0,0,0,0,0,0,0,0,
234,-11.77,6.179,-48.4,-37.55,-36,-51.67,-27.33,-30.09,-10.14,-9.467,-9.415,-15.51,-7.436,1.053,-5.05,-1.31,0,0,0,0,0,0,0,0,0,0,0,0,0,0,0,0,
235,-13.17,3.606,-54.93,-50.16,-41.42,-52.3,-25.35,-29.15,-13.86,-11.52,-8.907,-16.7,-10.71,0.432,-14.65,-10.84,0,0,0,0,0,0,0,0,0,0,0,0,0,0,0,0,
236,-11.96,-0.458,-49.98,-42.69,-39.15,-52.23,-27.3,-35.58,-19.08,-12.72,-15.36,-21.92,-18.99,-6.064,-22.46,-18.79,0,0,0,0,0,0,0,0,0,0,0,0,0,0,0,0,
237,-17.32,-4.361,-50.27,-34.51,-33.89,-48.92,-29.95,-38.41,-21.46,-8.414,-23.55,-26.47,-18.14,-6.692,-25.53,-15.67,0,0,0,0,0,0,0,0,0,0,0,0,0,0,0,0,
238,-22.57,2.047,-47.62,-34.57,-28.75,-45.66,-25.11,-33.47,-24.37,-6.331,-27.92,-26.19,-12.08,-0.7375,-25.94,-10.65,0,0,0,0,0,0,0,0,0,0,0,0,0,0,0,0,
239,-21.79,6.117,-43.04,-33.8,-28.64,-45.32,-26.44,-42.97,-27.27,-12.19,-31.47,-26.61,-15.45,-2.588,-22.77,-10.82,0,0,0,0,0,0,0,0,0,0,0,0,0,0,0,0,
240,-23.89,-0.983,-51.93,-36.26,-38.85,-47.5,-33.01,-50.51,-24.46,-19.33,-29.57,-27.55,-18.85,-7.995,-12.51,-6.795,0,0,0,0,0,0,0,0,0,0,0,0,0,0,0,0,
241,-25.95,-1.402,-57.78,-38.07,-50.44,-49.12,-30.21,-34.8,-17.11,-19.02,-19.02,-21.08,-10.68,-3.373,0.675,4.509,0,0,0,0,0,0,0,0,0,0,0,0,0,0,0,0,
242,-19.08,3.967,-45.02,-32.83,-52.89,-52.23,-29.72,-28.58,-14.74,-17.81,-16.58,-16.86,-7.947,-1.315,2.545,5.678,0,0,0,0,0,0,0,0,0,0,0,0,0,0,0,0,
243,-20.17,-5.881,-43.2,-37.27,-57.14,-61.89,-41.99,-45.35,-22.24,-24.19,-27.12,-23.04,-15.93,-9.653,-5.894,-4.936,0,0,0,0,0,0,0,0,0,0,0,0,0,0,0,0,
244,-26.49,-13.15,-49.21,-36.76,-56.57,-58.67,-40.68,-45.74,-19.52,-19.72,-23.2,-17.95,-10.87,-7.087,-4.332,-3.726,0,0,0,0,0,0,0,0,0,0,0,0,0,0,0,0,
245,-13.7,1.039,-35.8,-16.77,-33.48,-37.78,-24.09,-36.41,-1.926,-7.366,-11.54,-7.399,-4.542,-0.7764,-1.997,-0.6001,0,0,0,0,0,0,0,0,0,0,0,0,0,0,0,0,
246,-7.731,1.474,-33.64,-17.97,-19.55,-37.04,-27.66,-47.89,-3.325,-17.42,-24.75,-18.32,-20.2,-13.02,-15.76,-15.78,0,0,0,0,0,0,0,0,0,0,0,0,0,0,0,0,
247,-23.31,-17.8,-45.12,-29.86,-29.3,-51.9,-36.69,-45.12,-18.25,-28.39,-37.15,-25.52,-27.47,-21.52,-21.62,-23.98,0,0,0,0,0,0,0,0,0,0,0,0,0,0,0,0,
248,-17.82,-11.25,-27.64,-7.816,-18.61,-42.69,-18.46,-15.24,-10.82,-15.05,-23.7,-12.15,-13.3,-13.95,-12.17,-14.91,0,0,0,0,0,0,0,0,0,0,0,0,0,0,0,0,
249,1.587,12.74,-7.211,10.56,5.611,-30.14,-3.57,-2.833,0.5892,-7.492,-18.59,-10.95,-9.26,-13.11,-11.88,-11.21,0,0,0,0,0,0,0,0,0,0,0,0,0,0,0,0,
250,-6.516,12.98,-17.31,-4.117,-3.886,-45.5,-16.91,-11.21,-11.27,-12.72,-32.76,-24.85,-13.41,-16.44,-18.43,-10.98,0,0,0,0,0,0,0,0,0,0,0,0,0,0,0,0,
251,-22.73,2.226,-31.99,-16.89,-26.47,-61.99,-29.56,-23.02,-25.06,-11.22,-40.49,-31.52,-8.848,-10.81,-20.45,-7.417,0,0,0,0,0,0,0,0,0,0,0,0,0,0,0,0,
252,-22.34,3.006,-37.89,-19.18,-25.26,-60.85,-28.14,-37.17,-23.23,-10.62,-39.83,-33.4,-7.468,-5.462,-24.19,-9.519,0,0,0,0,0,0,0,0,0,0,0,0,0,0,0,0,
253,-20.21,4.426,-37.16,-24.08,-17.9,-60.91,-26.3,-40.79,-18.13,-13.15,-41.22,-35.88,-12.45,-5.345,-29.03,-14.54,0,0,0,0,0,0,0,0,0,0,0,0,0,0,0,0,
254,-20.8,3.122,-28.02,-24.81,-17.52,-61.27,-22.55,-37.48,-16.17,-10.43,-40.28,-33.47,-11.22,-3.811,-27.21,-12.8,0,0,0,0,0,0,0,0,0,0,0,0,0,0,0,0,
255,-17.06,6.53,-24.65,-19.22,-12.75,-50.44,-16.04,-41.22,-13.11,-7.677,-34.62,-26.87,-7.405,-1.077,-21.09,-7.234,0,0,0,0,0,0,0,0,0,0,0,0,0,0,0,0,
256,-16.47,5.741,-30.54,-19.95,-10.73,-46.34,-20.15,-41.66,-12.79,-4.998,-34.11,-24.28,-11.48,-3.651,-19.52,-8.511,0,0,0,0,0,0,0,0,0,0,0,0,0,0,0,0,
257,-21.09,-2.419,-32.03,-24,-13.52,-50.75,-28,-36.23,-13.5,-1.603,-35.74,-25.19,-18.3,-10.41,-21.85,-16.36,0,0,0,0,0,0,0,0,0,0,0,0,0,0,0,0,
258,-18.09,-3.217,-25.01,-10.97,-4.354,-36.92,-21.44,-34.11,-5.994,-4.54,-26.42,-20.22,-18.03,-13.93,-18.81,-18.53,0,0,0,0,0,0,0,0,0,0,0,0,0,0,0,0,
259,-6.881,4.024,-12.72,6.521,7.597,-16.77,-10.46,-32.16,1.639,-7.634,-15.65,-11.14,-10.6,-13.16,-9.578,-11.09,0,0,0,0,0,0,0,0,0,0,0,0,0,0,0,0,
260,-0.7711,8.015,-6.106,0.461,4.114,-18.84,-8.769,-30.14,-0.4378,-4.699,-15.55,-8.198,-3.367,-10.24,-3.456,-3.261,0,0,0,0,0,0,0,0,0,0,0,0,0,0,0,0,
261,-3.066,7.904,-15.51,-12.87,-2.369,-27.58,-10.82,-35.19,-4.175,-5.255,-16.5,-12.58,-4.286,-6.6,-5.671,-2.961,0,0,0,0,0,0,0,0,0,0,0,0,0,0,0,0,
262,-6.212,5.165,-24.73,-13.68,1.754,-22.51,-14.32,-43.25,-4.129,-7.588,-13.84,-15.6,-8.438,-5.853,-10.21,-6.13,0,0,0,0,0,0,0,0,0,0,0,0,0,0,0,0,
263,-5.29,3.328,-18.69,-12.93,6.71,-13.15,-17.17,-42.54,-5.285,-3.996,-16.76,-13.71,-5.44,-7.923,-12.75,-6,0,0,0,0,0,0,0,0,0,0,0,0,0,0,0,0,
264,-4.331,7.071,-18.04,-15.22,0.2229,-9.992,-15.16,-37.16,-11.19,-3.983,-26.42,-14.69,-0.8102,-8.421,-16.51,-4.33,0,0,0,0,0,0,0,0,0,0,0,0,0,0,0,0,
265,-6.093,9.331,-29.5,-15.95,-8.97,-9.92,-13.68,-39.76,-15.45,-8.632,-31.18,-18.27,-1.082,-5.857,-18.56,-2.774,0,0,0,0,0,0,0,0,0,0,0,0,0,0,0,0,
266,-5.502,9.033,-24.67,-11.94,-5.764,-8.635,-9.998,-41.24,-12.41,-5.307,-28.98,-17.19,-0.8839,-2.148,-16.85,-1.868,0,0,0,0,0,0,0,0,0,0,0,0,0,0,0,0,
267,-4.699,15.79,-8.419,-4.051,-1.475,-7.383,0.5913,-32.04,-12.58,3.115,-30.07,-14.7,1.354,-0.4809,-16.01,-3.756,0,0,0,0,0,0,0,0,0,0,0,0,0,0,0,0,
268,-5.503,21.25,-10.06,-4.052,-8.128,-7.041,2.503,-28.9,-17.86,5.287,-31.23,-13.12,-0.7548,-4.203,-15.63,-7.06,0,0,0,0,0,0,0,0,0,0,0,0,0,0,0,0,
269,-3.339,10.76,-18.25,-13.03,-12.75,-10.58,-9.62,-36.99,-15.61,-2.082,-27.14,-13.85,-10.53,-10.78,-16.52,-12.03,0,0,0,0,0,0,0,0,0,0,0,0,0,0,0,0,
270,-7.16,-6.811,-17.37,-19.57,-13.4,-22.46,-19.28,-40.08,-12.62,-11.59,-25.69,-21.26,-19.55,-13.03,-18.16,-17.41,0,0,0,0,0,0,0,0,0,0,0,0,0,0,0,0,
271,-18.11,-16.38,-21.08,-24.46,-16.22,-33.7,-23.96,-41.41,-18.45,-10.48,-28.12,-27.71,-21.46,-13.77,-17.25,-20.07,0,0,0,0,0,0,0,0,0,0,0,0,0,0,0,0,
272,-18.96,-16.24,-26.5,-27.5,-10.72,-32.94,-25.34,-46.33,-21.5,-2.008,-30.54,-25.12,-19.49,-14.61,-18.14,-20.01,0,0,0,0,0,0,0,0,0,0,0,0,0,0,0,0,
273,-9.185,-7.233,-18.83,-22.97,2.285,-22.47,-13.16,-36.9,-15.63,1.252,-29.15,-16.9,-10.58,-5.063,-17.61,-12.57,0,0,0,0,0,0,0,0,0,0,0,0,0,0,0,0,
274,0.9786,3.53,-8.927,-21.21,7.596,-9.488,0.5281,-16.89,-8.44,0.5404,-21.44,-10.16,-0.9631,6.692,-11.58,-2.347,0,0,0,0,0,0,0,0,0,0,0,0,0,0,0,0,
275,6.502,3.832,-5.799,-22.9,8.018,-3.426,-2.723,-13.65,-4.4,0.5196,-17.29,-10.28,-3.659,5.326,-9.136,-0.2428,0,0,0,0,0,0,0,0,0,0,0,0,0,0,0,0,
276,4.577,1.085,-1.26,-9.663,13.68,-9.89,-8.668,-23.79,-4.827,-0.3651,-20.47,-14.25,-7.24,2.188,-9.961,0.6672,0,0,0,0,0,0,0,0,0,0,0,0,0,0,0,0,
277,0.2912,3.521,-0.2321,3.788,15.84,-20.86,-7.864,-23.71,-10.24,-2.164,-23.79,-19.2,-5.865,2.333,-10.99,1.551,0,0,0,0,0,0,0,0,0,0,0,0,0,0,0,0,
278,-3.758,1.96,-3.513,-2.953,10.22,-23.55,-7.245,-9.911,-12.95,-0.2003,-24.86,-23.26,-8.664,-1.791,-12.99,-3.265,0,0,0,0,0,0,0,0,0,0,0,0,0,0,0,0,
279,-3.722,2.397,5.378,-2.844,16.08,-13.25,-0.7619,1.37,-4.483,6.946,-16.97,-18.22,-9.389,-4.384,-9.032,-6.006,0,0,0,0,0,0,0,0,0,0,0,0,0,0,0,0,
280,8.107,10.22,15.48,10.67,30.75,-0.2027,6.876,-0.0699,5.263,8.777,-4.628,-11.69,-9.898,-5.835,-5.325,-9.341,0,0,0,0,0,0,0,0,0,0,0,0,0,0,0,0,
281,15.2,7.909,7.713,8.251,24.08,0.5291,1.878,-4.878,3.079,1.142,-6.756,-16.25,-16.66,-7.627,-9.414,-15.72,0,0,0,0,0,0,0,0,0,0,0,0,0,0,0,0,
282,3.844,-2.066,-1.691,-0.2762,2.368,-14.13,-7.841,-10.35,-3.527,-3.11,-16.15,-21.44,-17.15,-1.301,-10.6,-14.57,0,0,0,0,0,0,0,0,0,0,0,0,0,0,0,0,
283,-6.26,-4.177,-2.417,1.463,-1.1,-30.79,-11.25,-19.71,-6.264,1.391,-17.36,-22.36,-12.01,5.159,-12.87,-12.86,0,0,0,0,0,0,0,0,0,0,0,0,0,0,0,0,
284,-5.659,-2.61,-1.895,1.552,13.85,-25.98,-3.638,-16.96,-10.71,6.801,-21.73,-28.04,-13.67,1.292,-27.99,-20.03,0,0,0,0,0,0,0,0,0,0,0,0,0,0,0,0,
285,-4.297,0.8725,2.829,3.863,24.09,-4.12,10.89,0.5221,-17.3,7.592,-33.79,-34.74,-18.59,-4.161,-43.29,-27.69,0,0,0,0,0,0,0,0,0,0,0,0,0,0,0,0,
286,-3.97,4.562,5.641,7.892,22.79,-3.389,10.7,13.18,-19.77,6.019,-38.11,-35.91,-20.7,-3.866,-43.4,-27.82,0,0,0,0,0,0,0,0,0,0,0,0,0,0,0,0,
287,-7.133,-1.034,-2.608,-2.706,21.31,-23.67,-5.685,12.78,-19.46,6.562,-34.08,-33.96,-19.92,-0.7774,-31.92,-19.28,0,0,0,0,0,0,0,0,0,0,0,0,0,0,0,0,
288,-12.8,-7.309,-8.193,-12.52,25.91,-25.07,-12.36,2.584,-18.09,6.726,-29.62,-27.85,-14.77,2.434,-16.8,-7.076,0,0,0,0,0,0,0,0,0,0,0,0,0,0,0,0,
289,-8.938,-3.208,-0.4552,-3.896,30.77,-7.882,-4.799,0.3167,-11.34,4.884,-20.22,-16.57,-5.365,6.141,-2.107,2.74,0,0,0,0,0,0,0,0,0,0,0,0,0,0,0,0,
290,1.569,2.193,12.54,4.376,36.37,-0.5101,2.323,13.93,-1.629,4.265,-8.203,-7.685,1.723,9.064,6.258,8.687,0,0,0,0,0,0,0,0,0,0,0,0,0,0,0,0,
291,8.129,6.115,24.8,4.585,48.24,1.08,7.793,20.96,7.498,4.985,1.698,-0.7748,4.829,12.79,11.21,13.13,0,0,0,0,0,0,0,0,0,0,0,0,0,0,0,0,
292,16.82,16.19,31.2,7.74,54.81,8.506,14.78,21.48,18.3,10.85,15.06,11.21,12.45,21.58,20.13,20.07,0,0,0,0,0,0,0,0,0,0,0,0,0,0,0,0,
293,25.88,24.73,22.82,5.28,44.89,8.039,16.56,27,22.61,19.14,20.5,17.04,19.03,25.93,19.52,19.88,0,0,0,0,0,0,0,0,0,0,0,0,0,0,0,0,
294,21.58,20.13,11.92,-5.546,37.23,-2.971,10.22,23.12,14.03,15.28,6.322,6.575,9.347,15.29,-0.6548,1.279,0,0,0,0,0,0,0,0,0,0,0,0,0,0,0,0,
295,7.465,5.816,13.89,-9.216,41.47,-9.282,2.911,16.03,0.6836,4.016,-12.24,-10.32,-11.67,-2.86,-23.59,-22.22,0,0,0,0,0,0,0,0,0,0,0,0,0,0,0,0,
296,-7.742,-9.864,11.34,-5.756,34.64,-13.83,0.6122,22.34,-12.79,0.6503,-26.22,-25.18,-25.99,-15.59,-35.59,-31.87,0,0,0,0,0,0,0,0,0,0,0,0,0,0,0,0,
297,-16.85,-15.19,4.868,0.3454,22.29,-18.18,5.45,32.49,-18.33,1.47,-33.78,-29.6,-22.28,-12.67,-34.42,-24.71,0,0,0,0,0,0,0,0,0,0,0,0,0,0,0,0,
298,-9.719,-5.768,15.99,4.322,27.07,-11.63,11.62,37.22,-10.83,-0.9161,-29.18,-20.97,-10.49,-1.01,-24.87,-11.92,0,0,0,0,0,0,0,0,0,0,0,0,0,0,0,0,
299,0.5459,-1.23,21.75,-2.708,28.9,-5.361,8.309,31.69,-6.053,-4.635,-23.47,-14.63,-9.398,0.7451,-16.23,-4.502,0,0,0,0,0,0,0,0,0,0,0,0,0,0,0,0,
300,-2.125,-8.351,12.08,-5.233,18.24,-10.04,1.026,21.67,-9.012,-5.064,-24.12,-13.51,-9.707,1.997,-6.318,4.033,0,0,0,0,0,0,0,0,0,0,0,0,0,0,0,0,
301,-3.969,-7.002,16.97,2.105,15.79,-10.8,4.269,21.56,-10.49,0.6035,-22.95,-9.837,-0.2569,13.12,0.7516,11.84,0,0,0,0,0,0,0,0,0,0,0,0,0,0,0,0,
302,2.092,2.42,23.25,-1.142,14.56,-3.939,13.17,22.66,-12.98,7.314,-22.3,-10.82,0.3158,12.97,-8.181,1.575,0,0,0,0,0,0,0,0,0,0,0,0,0,0,0,0,
303,2.131,1.7,10.17,-8.902,4.569,-5.676,9.81,18.44,-18.1,6.564,-28.01,-19.92,-12.98,-1.683,-21.93,-18.38,0,0,0,0,0,0,0,0,0,0,0,0,0,0,0,0,
304,-7.101,-8.391,-3.075,-15.17,-5.048,-19.01,-5.919,14.73,-22.12,-1.037,-32.28,-27.46,-21.8,-10.42,-24.18,-27.29,0,0,0,0,0,0,0,0,0,0,0,0,0,0,0,0,
305,-15.22,-16.67,-10.6,-25.22,-12.19,-28.26,-16.2,4.825,-22.05,-6.22,-26.2,-27.9,-23.43,-11.98,-20.84,-26.66,0,0,0,0,0,0,0,0,0,0,0,0,0,0,0,0,
306,-17.83,-20.95,-14.48,-22.49,-14.95,-28.2,-19.08,-1.943,-16.75,-6.599,-16.53,-26.27,-25.26,-12.86,-18.58,-23.33,0,0,0,0,0,0,0,0,0,0,0,0,0,0,0,0,
307,-18.48,-23.6,-8.404,-12.05,-17.03,-25.23,-20.96,8.163,-11.6,-8.113,-10.58,-25.89,-23.88,-9.926,-14.36,-17.04,0,0,0,0,0,0,0,0,0,0,0,0,0,0,0,0,
308,-12.79,-21.59,-1.286,-11.7,-23.85,-17.84,-14.29,15.09,-6.63,-8.231,-2.596,-20.22,-16.4,-3.745,-9.155,-9.412,0,0,0,0,0,0,0,0,0,0,0,0,0,0,0,0,
309,1.085,-13.16,-0.1984,-10.41,-21.23,-13.24,-5.332,9.556,-0.5014,-1.947,1.652,-10.98,-7.954,2.072,-8.65,-3.679,0,0,0,0,0,0,0,0,0,0,0,0,0,0,0,0,
310,7.928,-4.146,-1.284,-7.856,-9.361,-18.78,-6.207,7.864,-0.7665,3.426,-5.995,-9.719,-2.22,6.888,-12.41,-2.941,0,0,0,0,0,0,0,0,0,0,0,0,0,0,0,0,
311,0.303,-1.694,-6.905,-14.65,-12.67,-21.41,-9.502,6.725,-8.107,-1.593,-14.51,-18.91,-4.544,4.705,-18.88,-10.08,0,0,0,0,0,0,0,0,0,0,0,0,0,0,0,0,
312,-12.38,-10.64,-16.27,-25.36,-28.41,-18.88,-14.25,0.7396,-15.05,-12.39,-18.24,-28.2,-14.1,-5.716,-24.42,-16.5,0,0,0,0,0,0,0,0,0,0,0,0,0,0,0,0,
313,-15.4,-19.02,-13.97,-25.73,-27.66,-12.66,-15.22,4.829,-13.28,-13.67,-15.85,-22.95,-13.9,-9.475,-18.03,-9.352,0,0,0,0,0,0,0,0,0,0,0,0,0,0,0,0,
314,-4.027,-11.41,0.5083,-10.11,-13.86,-2.603,-2.902,13.64,-5.705,-6.329,-9.214,-12.49,-6.399,-4.694,-8.185,-0.615,0,0,0,0,0,0,0,0,0,0,0,0,0,0,0,0,
315,-1.465,-6.49,-2.362,-5.231,-19.87,-11.58,-0.6649,6.821,-9.642,-5.262,-11.87,-16.04,-11.14,-6.075,-9.71,-4.189,0,0,0,0,0,0,0,0,0,0,0,0,0,0,0,0,
316,-15.57,-19.03,-24.3,-23.03,-40.76,-29.12,-17.52,-4.102,-18.93,-7.222,-14.24,-16.07,-18.32,-11.29,-7.021,-6.058,0,0,0,0,0,0,0,0,0,0,0,0,0,0,0,0,
317,-16.07,-25.51,-28.2,-29.54,-41.82,-18.34,-23.95,-2.902,-11.9,-5.806,-2.193,-0.4644,-15.2,-11.81,3.587,-2.792,0,0,0,0,0,0,0,0,0,0,0,0,0,0,0,0,
318,-0.7253,-16.63,-13.78,-20.04,-28.25,-2.775,-16.98,-3.491,0.725,-6.382,5.65,6.553,-13.02,-11.04,0.7865,-8.607,0,0,0,0,0,0,0,0,0,0,0,0,0,0,0,0,
319,4.033,-9.612,-12.88,-17.48,-30.69,-7.887,-16.68,-13.26,-1.692,-6.506,-1.194,-0.8672,-16.07,-11.3,-11.89,-19.02,0,0,0,0,0,0,0,0,0,0,0,0,0,0,0,0,
320,-2.376,-10.01,-21.82,-14.66,-43.4,-8.012,-18.82,-13.54,-12.12,-4.361,-10.2,-7.627,-17.87,-9.863,-19.35,-21.31,0,0,0,0,0,0,0,0,0,0,0,0,0,0,0,0,
321,-7.321,-11.4,-15.91,-3.779,-38.23,-1.998,-11.46,1.091,-14.49,-1.041,-11.93,-9.279,-15.16,-3.575,-21.78,-15.66,0,0,0,0,0,0,0,0,0,0,0,0,0,0,0,0,
322,-10.09,-11.63,-4.762,-3.642,-25.76,-11.44,-6.104,6.404,-14.28,4.762,-10.17,-9.013,-11.43,2.851,-21.74,-10.29,0,0,0,0,0,0,0,0,0,0,0,0,0,0,0,0,
323,-12.37,-11.44,-9.629,-19.99,-33.66,-20.07,-11.29,-1.686,-20.85,5.872,-14.44,-6.951,-8.112,5.342,-17.94,-4.38,0,0,0,0,0,0,0,0,0,0,0,0,0,0,0,0,
324,-6.435,-4.579,-10.25,-18.81,-40.74,-5.39,-7.623,2.063,-18.33,5.625,-15.77,3.955,3.753,13.19,-7.366,10.32,0,0,0,0,0,0,0,0,0,0,0,0,0,0,0,0,
325,7.159,8.659,4.803,6.626,-29.83,9.889,3.555,6.85,-5.603,9.986,-7.902,15.99,15.46,21.45,4.31,22.19,0,0,0,0,0,0,0,0,0,0,0,0,0,0,0,0,
326,8.047,11.96,3.109,7.588,-31.04,0.6999,-2.525,-8.775,-5.371,3.891,-6.763,14.96,9.607,14.67,7.726,19.17,0,0,0,0,0,0,0,0,0,0,0,0,0,0,0,0,
327,-2.065,4.812,-9.246,-12.59,-40.94,-7.955,-12.5,-17.61,-8.007,-7.213,-8.867,14.85,1.809,4.662,8,14.73,0,0,0,0,0,0,0,0,0,0,0,0,0,0,0,0,
328,1.314,3.236,0.2019,-9.428,-32.04,5.899,-5.547,-9.099,0.8763,-2.341,-1.768,23.01,6.468,5.125,10.78,14.83,0,0,0,0,0,0,0,0,0,0,0,0,0,0,0,0,
329,12.9,7.069,14.72,-0.1959,-19.16,18.33,2.465,-6.279,6.864,3.544,4.067,22.02,6.622,4.469,9.858,10.39,0,0,0,0,0,0,0,0,0,0,0,0,0,0,0,0,
330,10.25,2.975,14.72,-4.128,-18.07,10.39,-3.229,-5.066,5.492,-6.459,2.268,10.45,-7.287,-5.92,0.0914,-1.365,0,0,0,0,0,0,0,0,0,0,0,0,0,0,0,0,
331,-5.452,-12.77,8.993,-4.742,-23.48,-3.44,-16.47,-2.562,-0.4789,-17.44,-3.119,-0.6676,-21.71,-16.96,-12.26,-15.61,0,0,0,0,0,0,0,0,0,0,0,0,0,0,0,0,
332,-14.65,-23.74,3.21,-10.09,-29.91,-6.09,-24.66,-6.875,-8.972,-17.3,-10.65,-5.882,-23.49,-18.8,-16.15,-22.23,0,0,0,0,0,0,0,0,0,0,0,0,0,0,0,0,
333,-8.341,-18.16,2.85,-22.97,-26.39,-1.98,-23.2,-3.832,-7.092,-10.39,-14.59,-1.581,-13.74,-11.33,-10.89,-16.54,0,0,0,0,0,0,0,0,0,0,0,0,0,0,0,0,
334,1.823,-7.386,10.06,-19.07,-12.8,0.8268,-15.95,6.56,2.752,-1.482,-8.45,9.591,0.7143,2.28,-0.4267,-1.415,0,0,0,0,0,0,0,0,0,0,0,0,0,0,0,0,
335,8.49,2.774,16.52,-1.65,-6.046,7.207,-6.357,5.056,5.773,5.364,3.382,18.12,11.96,13.72,9.046,14.67,0,0,0,0,0,0,0,0,0,0,0,0,0,0,0,0,
336,12.07,8.975,16.37,1.981,-12.1,13.51,-5.687,-1.574,2.967,6.01,10.05,17.17,12.38,13.59,6.979,18.69,0,0,0,0,0,0,0,0,0,0,0,0,0,0,0,0,
337,8.002,2.716,13.04,-6.908,-17.81,12.92,-15.14,2.591,0.1652,4.421,10.05,11.58,8.906,10.67,1.423,16.16,0,0,0,0,0,0,0,0,0,0,0,0,0,0,0,0,
338,0.7543,-2.476,12.08,-7.526,-15.92,9.645,-16.2,8.533,-3.679,4.151,5.55,7.534,9.079,12.33,4.028,17.06,0,0,0,0,0,0,0,0,0,0,0,0,0,0,0,0,
339,-1.793,1.564,11.31,-0.1104,-17.62,7.989,-9.926,3.339,-5.49,1.732,-1.366,4.748,7.068,9.901,5.792,13.12,0,0,0,0,0,0,0,0,0,0,0,0,0,0,0,0,
340,1.87,1.258,14.71,11.49,-20.59,20.24,-7.494,-4.385,1.308,1.209,1.585,6.273,3.396,4.351,4.954,6.312,0,0,0,0,0,0,0,0,0,0,0,0,0,0,0,0,
341,11.25,-2.054,26.09,24.19,-14.45,38.87,-5.906,-4.643,9.74,4.711,12.74,10.1,0.9796,0.848,7.144,4.7,0,0,0,0,0,0,0,0,0,0,0,0,0,0,0,0,
342,17.43,-2.309,28.04,17.73,-15.03,33.41,-6.528,-1.083,10.88,3.379,18.14,13.95,1.277,0.7409,10.34,5.193,0,0,0,0,0,0,0,0,0,0,0,0,0,0,0,0,
343,18.85,-2.009,16.32,-1.608,-27.51,20.82,-11.05,1.556,10.38,-1.456,19.39,19.91,4.633,4.526,11.12,3.319,0,0,0,0,0,0,0,0,0,0,0,0,0,0,0,0,
344,18.1,-4.368,6.847,-8.561,-34.13,23.34,-18.53,0.6875,5.158,-5.007,10.81,13.41,-2.542,0.528,0.7933,-8.409,0,0,0,0,0,0,0,0,0,0,0,0,0,0,0,0,
345,5.153,-14.93,5.576,-7.372,-32.66,17.77,-25.61,2.546,-6.628,-8.066,-6.668,-2.629,-12.92,-7.662,-12.01,-17.4,0,0,0,0,0,0,0,0,0,0,0,0,0,0,0,0,
346,-7.234,-21.3,15.03,-0.3998,-25.07,11.86,-20.07,10.39,-6.088,-5.562,-6.994,0.456,-2.874,-2.134,-5.598,-2.575,0,0,0,0,0,0,0,0,0,0,0,0,0,0,0,0,
347,1.556,-11.03,27.41,11.35,-12.72,24.81,-8.46,9.104,5.314,-1.643,4.651,13.75,9.744,5.253,7.375,14.89,0,0,0,0,0,0,0,0,0,0,0,0,0,0,0,0,
348,12.47,-4.766,31.12,10.95,-7.019,29.81,-8.463,2.301,7.658,-6.117,3.993,13.72,5.641,2.301,7.433,13.79,0,0,0,0,0,0,0,0,0,0,0,0,0,0,0,0,
349,6.924,-13.54,31.02,2.859,-10.64,15.02,-16.64,3.841,0.5615,-10.7,-3.199,6.123,0.3203,-0.6848,2.995,8.408,0,0,0,0,0,0,0,0,0,0,0,0,0,0,0,0,
350,-4.833,-20.61,22.67,-5.114,-18.52,-0.4189,-25.06,-1.386,-9.697,-8.205,-7.971,-0.804,-0.8159,-2.014,0.1257,4.832,0,0,0,0,0,0,0,0,0,0,0,0,0,0,0,0,
351,-9.288,-18.66,7.248,-13.97,-24.69,-3.404,-25.19,-13,-14.22,-5.028,-7.247,-0.7231,-1.322,-1.741,-3.468,-0.3279,0,0,0,0,0,0,0,0,0,0,0,0,0,0,0,0,
352,-1.793,-12.69,7.423,-6.276,-22.96,8.518,-13.11,-11.88,-4.795,-3.657,0.0612,5.465,-0.3779,1.163,-7.917,-4.89,0,0,0,0,0,0,0,0,0,0,0,0,0,0,0,0,
353,4.864,-10.76,18.38,12.68,-16.95,19,-7.831,-10.97,3.459,-3.011,0.8752,2.46,-3.627,-1.435,-13.68,-9.137,0,0,0,0,0,0,0,0,0,0,0,0,0,0,0,0,
354,-1.407,-18.14,19.62,11.8,-13.65,14.82,-16.45,-20.15,-2.653,-4.52,-5.809,-6.051,-8.606,-6.902,-15.11,-9.41,0,0,0,0,0,0,0,0,0,0,0,0,0,0,0,0,
355,-8.697,-25.63,13.55,0.4509,-17.73,8.937,-22.58,-21.24,-11.04,-7.029,-5.872,-4.012,-7.842,-5.662,-7.869,-3.901,0,0,0,0,0,0,0,0,0,0,0,0,0,0,0,0,
356,-8.116,-24.03,6.642,3.062,-26.43,8.063,-21.99,-11.4,-13.42,-7.377,-2.052,4.291,-4.414,-1.668,-0.8393,-0.3925,0,0,0,0,0,0,0,0,0,0,0,0,0,0,0,0,
357,-6.373,-18.34,5.048,8.977,-25.59,6.125,-17.29,-4.814,-14.93,-4.899,-2.781,7.989,-0.8955,-1.26,-0.1055,-1.515,0,0,0,0,0,0,0,0,0,0,0,0,0,0,0,0,
358,-4.141,-13.5,14.59,12.94,-16.45,9.025,-9.732,-3.637,-14.72,-1.104,-4.049,9.206,4.304,0.4945,1.414,-0.4273,0,0,0,0,0,0,0,0,0,0,0,0,0,0,0,0,
359,-0.4449,-9.289,23.64,23.23,-13.79,16.75,-8.111,-4.108,-11.1,0.313,-4.847,11.92,7.447,6.867,3.296,3.148,0,0,0,0,0,0,0,0,0,0,0,0,0,0,0,0,
360,-0.8025,-7.608,20.6,22.54,-11.46,15.12,-11.23,-8.779,-8.257,-1.983,-7.74,13.18,4.659,10.14,-0.7208,2.13,0,0,0,0,0,0,0,0,0,0,0,0,0,0,0,0,
361,-1.313,-6.672,14.75,8.259,-0.0561,10.6,-9.662,-13.06,-4.028,-2.951,-7.72,14.43,1.268,8.143,-2.067,0.1887,0,0,0,0,0,0,0,0,0,0,0,0,0,0,0,0,
362,2.951,-5.832,13.28,4.279,7.068,14.45,-10.02,-10.12,-0.2218,-4.087,-5.569,17.45,2.316,7.284,1.821,3.787,0,0,0,0,0,0,0,0,0,0,0,0,0,0,0,0,
363,1.991,-12.44,8.697,2.989,5.296,11.75,-17,-9.742,-3.487,-7.349,-4.852,17.9,6.537,9.531,3.109,8.646,0,0,0,0,0,0,0,0,0,0,0,0,0,0,0,0,
364,-2.284,-19.24,2.75,-2.348,9.037,4.502,-18.41,-14.53,-2.96,-2.503,-0.8882,17.54,11.52,12.7,5.119,10.16,0,0,0,0,0,0,0,0,0,0,0,0,0,0,0,0,
365,0.6558,-14.42,-0.0901,1.081,13.05,11.7,-14.1,-11.62,2.874,3.736,-0.5723,13.9,8.819,10.81,2.825,4.042,0,0,0,0,0,0,0,0,0,0,0,0,0,0,0,0,
366,-1.949,-14.16,-5.032,-1.599,8.216,17.3,-14.59,-3.952,-2.196,-2.599,-8.294,1.854,-5.279,2.51,-9.3,-8.028,0,0,0,0,0,0,0,0,0,0,0,0,0,0,0,0,
367,-13.84,-28.35,-4.327,-10.06,12.15,5.305,-18.05,-0.8856,-8.879,-7.024,-9.946,-6.283,-18.35,-3.824,-15.08,-15.27,0,0,0,0,0,0,0,0,0,0,0,0,0,0,0,0,
368,-17.67,-37.65,5.058,-5.429,23.19,-5.695,-21.18,-0.0825,-4.384,-5.363,-6.521,-3.391,-20.58,-5.918,-9.892,-16.62,0,0,0,0,0,0,0,0,0,0,0,0,0,0,0,0,
369,-14.2,-33.91,6.083,-7.04,20.96,-4.027,-22.91,-2.396,0.3362,-9.496,-3.014,2.685,-11.84,-4.726,-3.494,-13.86,0,0,0,0,0,0,0,0,0,0,0,0,0,0,0,0,
370,-11.13,-26.4,-0.9248,-17.61,15.87,1.329,-19.97,-8.308,1.114,-8.134,4.095,6.088,-1.608,-0.2242,-0.1387,-7.436,0,0,0,0,0,0,0,0,0,0,0,0,0,0,0,0,
371,-9.987,-20.46,-4.115,-10.89,15.59,5.407,-15.43,-6.972,0.824,-0.1369,3.249,4.683,-0.7635,2.968,-1.954,-4.721,0,0,0,0,0,0,0,0,0,0,0,0,0,0,0,0,
372,-13.49,-18.62,-1.663,2.435,12.05,13.21,-13.15,3.329,1.593,-0.9628,-1.601,6.485,0.1724,6.565,0.5685,-1.192,0,0,0,0,0,0,0,0,0,0,0,0,0,0,0,0,
373,-12.94,-20.72,5.642,2.741,12.84,20.06,-14.21,6.498,6.074,-4.688,3.695,12.32,5.568,10.43,8.41,7.135,0,0,0,0,0,0,0,0,0,0,0,0,0,0,0,0,
374,-7.271,-23.68,6.197,-3.324,11.97,13.27,-15.84,1.828,5.631,-4.972,2.35,8.941,1.977,7.645,3.179,6.945,0,0,0,0,0,0,0,0,0,0,0,0,0,0,0,0,
375,-9.512,-25.41,-5.782,-5.709,-1.687,4.425,-12.65,4.248,-0.0162,-3.837,-8.144,3.255,-3.547,3.753,-9.102,-0.529,0,0,0,0,0,0,0,0,0,0,0,0,0,0,0,0,
376,-13.28,-25.52,-14.09,-4.049,-7.527,7.833,-12.58,9.741,1.047,1.825,-7.517,4.901,-0.8486,4.319,-9.995,-2.373,0,0,0,0,0,0,0,0,0,0,0,0,0,0,0,0,
377,-9.801,-24.56,-12.54,-3.752,-0.1436,8.51,-18.48,14.96,4.694,5.646,-1.156,5.658,-0.1786,4.319,-5.351,-0.292,0,0,0,0,0,0,0,0,0,0,0,0,0,0,0,0,
378,-7.748,-22.12,-7.468,-0.1051,0.2273,2.904,-16.7,26.84,5.663,2.985,1.767,8.046,-0.2086,4.256,-1.266,2.052,0,0,0,0,0,0,0,0,0,0,0,0,0,0,0,0,
379,-5.665,-19.41,-1.335,7.269,-2.024,5.793,-13.52,29.55,8.141,0.8564,3.925,14.03,4.463,5.756,3.632,4.851,0,0,0,0,0,0,0,0,0,0,0,0,0,0,0,0,
380,1.32,-18.72,-3.062,-2.871,2.267,10.49,-18.42,13.81,7.308,0.3191,2.888,12.91,4.119,5.454,3.312,2.773,0,0,0,0,0,0,0,0,0,0,0,0,0,0,0,0,
381,3.73,-17.81,-11.93,-22.69,4.111,10.58,-14.82,6.417,4.669,2.985,4.8,9.81,2.179,5.115,1.468,-3.245,0,0,0,0,0,0,0,0,0,0,0,0,0,0,0,0,
382,3.452,-12.53,-8.871,-14.99,4.498,16.95,-3.103,21.03,11.15,9.722,13.17,15.69,8.644,8.415,7.239,-2.526,0,0,0,0,0,0,0,0,0,0,0,0,0,0,0,0,
383,9.614,-5.429,2.295,6.799,5.536,24.13,-4.558,33.98,18.3,11.09,13.35,21.19,10.66,9.873,9.703,2.565,0,0,0,0,0,0,0,0,0,0,0,0,0,0,0,0,
384,11.45,-5.761,2.446,3.112,2.903,22.92,-12.23,30.31,16.79,9.257,7.913,19.65,4.609,7.699,4.539,4.388,0,0,0,0,0,0,0,0,0,0,0,0,0,0,0,0,
385,6.209,-10.26,1.151,-10.9,6.898,26.08,-8.089,26.83,17.45,12.47,11.25,22.7,8.691,11.46,6.833,8.727,0,0,0,0,0,0,0,0,0,0,0,0,0,0,0,0,
386,8.804,-5.971,4.52,-8.986,16.73,35.55,-2.433,27.49,19.66,11.8,10.52,28.84,16.23,15.79,11.27,11.67,0,0,0,0,0,0,0,0,0,0,0,0,0,0,0,0,
387,14.89,-0.33,-0.6632,-6.151,17.58,38.41,-5.516,19.97,16.12,5.818,2.671,27.44,14.1,12.73,10.72,8.984,0,0,0,0,0,0,0,0,0,0,0,0,0,0,0,0,
388,15.38,-3.031,-4.447,-10.55,16.67,37.43,-5.832,16.38,14.85,6.667,7.725,25.78,14.88,15.54,15.02,12.91,0,0,0,0,0,0,0,0,0,0,0,0,0,0,0,0,
389,13.7,-4.155,-1.168,-10.16,16.27,37.29,-1.812,19.52,12.61,11.12,11.35,22.63,16.16,20.93,12.28,15.7,0,0,0,0,0,0,0,0,0,0,0,0,0,0,0,0,
390,7.735,-3.358,-2.227,-2.387,10.19,38.04,0.1409,18.69,6.506,13.73,1.128,14.35,12.05,18.47,2.977,11.32,0,0,0,0,0,0,0,0,0,0,0,0,0,0,0,0,
391,5.315,-4.55,2.554,9.916,11.56,42.77,3.054,29.99,10.47,16.94,5.646,18.2,16.79,21.2,11.42,15.57,0,0,0,0,0,0,0,0,0,0,0,0,0,0,0,0,
392,13.68,-2.73,6.986,16.11,14.07,42.77,0.2672,45.24,15.98,13.63,17.89,25.97,19.33,22.19,19.18,16.29,0,0,0,0,0,0,0,0,0,0,0,0,0,0,0,0,
393,15.48,-4.581,-1.884,10.94,7.717,37.56,-7.291,43.43,13.31,6.796,10.74,19.8,10.17,11.89,10.56,5.499,0,0,0,0,0,0,0,0,0,0,0,0,0,0,0,0,
394,10.21,-8.101,4.249,11.84,12,41.96,-1.471,52.2,16.6,11.16,6.667,18.32,10.78,12.22,9.718,4.682,0,0,0,0,0,0,0,0,0,0,0,0,0,0,0,0,
395,11.8,-1.938,19.93,20.53,14.9,46.97,6.472,69.6,18.94,16.41,16.85,24.95,15.02,18.81,13.95,8.037,0,0,0,0,0,0,0,0,0,0,0,0,0,0,0,0,
396,14.46,0.7069,14.09,22.07,0.2038,41.93,0.2346,58.38,13.24,10.65,20.36,25.49,9.92,14.18,15.17,7.761,0,0,0,0,0,0,0,0,0,0,0,0,0,0,0,0,
397,18.82,-4.585,12.53,22.27,-1.569,38.69,-2.427,42.5,14.71,8.888,18.93,24.93,10.96,13.08,21.12,13.38,0,0,0,0,0,0,0,0,0,0,0,0,0,0,0,0,
398,21.54,-5.674,22.73,25.91,5.311,33.8,-1.495,49.31,13.65,12.89,14.99,17.43,13.18,17.28,17.21,14.1,0,0,0,0,0,0,0,0,0,0,0,0,0,0,0,0,
399,6.789,-11.81,14.97,21.74,-4.283,23.14,-11.49,48.81,2.982,7.614,4.875,3.273,6.907,15.39,5.778,9.029,0,0,0,0,0,0,0,0,0,0,0,0,0,0,0,0,
400,-8.385,-22.35,6.123,10.82,-6.85,21.29,-15.58,34.44,2.114,-0.9781,-0.454,0.0975,2.528,11.62,1.87,5.26,0,0,0,0,0,0,0,0,0,0,0,0,0,0,0,0,
401,-9.932,-22.59,11.53,7.974,0.4146,21.89,-8.287,37.59,3.068,-1.343,-4.766,-0.535,-2.307,6.653,-5.983,-2.977,0,0,0,0,0,0,0,0,0,0,0,0,0,0,0,0,
402,-11.33,-17.69,13.6,15.2,-1.457,19.24,-4.846,49.94,-0.8443,5.282,-7.528,2.9,-0.6268,8.136,-5.355,3.207,0,0,0,0,0,0,0,0,0,0,0,0,0,0,0,0,
403,-0.6642,-8.084,14.37,15.99,1.505,27.39,-0.3977,39.99,11.62,13.1,8.853,22.24,13.1,19.22,12.16,21.87,0,0,0,0,0,0,0,0,0,0,0,0,0,0,0,0,
404,15.69,-1.136,12.67,6.324,-1.293,24.73,0.4478,25.3,21.37,8.948,19.54,22.77,5.794,14.73,8.848,12.25,0,0,0,0,0,0,0,0,0,0,0,0,0,0,0,0,
405,1.509,-14.92,2.608,2.491,-23.27,-0.4525,-11.26,30.79,3.399,-3.204,1.682,-1.02,-17.32,-1.309,-7.284,-8.209,0,0,0,0,0,0,0,0,0,0,0,0,0,0,0,0,
406,-18.03,-24.64,1.744,3.852,-29.52,-4.724,-14.6,35.4,-7.229,-0.3853,-6.827,-2.663,-14.48,0.0261,-0.6283,-4.407,0,0,0,0,0,0,0,0,0,0,0,0,0,0,0,0,
407,-14.05,-16.39,7.629,0.9242,-20.27,7.068,-10.04,32.15,3.011,7.19,4.079,8.745,-4.709,6.138,5.78,-0.5027,0,0,0,0,0,0,0,0,0,0,0,0,0,0,0,0,
408,-13.27,-17.21,10.09,9.668,-16.51,5.59,-9.783,39.81,4.835,5.596,7.357,9.251,-7.415,5.1,2.315,-2.496,0,0,0,0,0,0,0,0,0,0,0,0,0,0,0,0,
409,-9.417,-14.33,22.4,34.58,-0.4101,20.73,5.585,49.28,3.924,13.86,10.97,19.22,0.4497,9.204,9.666,5.612,0,0,0,0,0,0,0,0,0,0,0,0,0,0,0,0,
410,9.354,1.401,28.96,42.68,8.987,37.22,21.83,45.5,9.289,21.38,14.69,28.26,5.918,8.1,11.21,6.054,0,0,0,0,0,0,0,0,0,0,0,0,0,0,0,0,
411,13.88,0.6069,14.51,26.68,-8.435,17.48,12,35.2,7.655,10.13,7.608,21.26,-2.185,0.6295,1.96,0.12,0,0,0,0,0,0,0,0,0,0,0,0,0,0,0,0,
412,10.96,-4.242,10.06,19.15,-8.54,9.813,4.942,28.76,6.705,7.739,7.173,20.89,-1.83,2.794,-0.5882,2.91,0,0,0,0,0,0,0,0,0,0,0,0,0,0,0,0,
413,15.06,-0.8322,17.09,24.98,5.701,22.92,10.05,29.18,5.644,15.04,5.809,19.66,-3.387,1.762,-8.02,-1.976,0,0,0,0,0,0,0,0,0,0,0,0,0,0,0,0,
414,8.553,-9.249,12.93,28.48,-2.48,13.14,8.908,29.23,-5.405,9.552,-6.534,9.249,-11.82,-4.543,-17.43,-10,0,0,0,0,0,0,0,0,0,0,0,0,0,0,0,0,
415,2.137,-13.86,11.48,33.18,-7.708,6.611,12.54,25.64,-6.38,10.41,-3.155,13.43,-6.615,2.251,-10.9,-2.668,0,0,0,0,0,0,0,0,0,0,0,0,0,0,0,0,
416,5.185,-6.529,15.84,33.61,-0.9632,13.91,16.63,23.6,3.072,21.15,4.908,19.57,-2.089,9.64,-4.413,3.08,0,0,0,0,0,0,0,0,0,0,0,0,0,0,0,0,
417,2.831,-7.298,13.95,20.03,-3.877,9.607,13.84,21.04,3.145,19.33,-3.205,14.39,-5.411,8.199,-3.048,2.174,0,0,0,0,0,0,0,0,0,0,0,0,0,0,0,0,
418,7.994,-3.561,16.72,10.07,-1.158,15.81,23.52,23.33,7.878,18.56,2.91,23.57,4.913,13.38,10.3,10.81,0,0,0,0,0,0,0,0,0,0,0,0,0,0,0,0,
419,26.4,10.39,25.79,18.73,9.949,30.34,35.79,36.06,20.14,28.53,22.07,38.49,16.52,20.39,24.93,19.55,0,0,0,0,0,0,0,0,0,0,0,0,0,0,0,0,
420,31.73,12.7,31.1,35.29,9.483,23.46,33.59,36.45,17.61,28.2,19.03,33.31,10.71,17.27,25.63,17.63,0,0,0,0,0,0,0,0,0,0,0,0,0,0,0,0,
421,22.24,4.949,35.51,43.2,7.836,16.35,29.24,17.87,11.78,20.47,9.991,24.25,4.275,13.48,22.05,16.42,0,0,0,0,0,0,0,0,0,0,0,0,0,0,0,0,
422,17.76,-0.6603,39.29,37.45,15.8,22.21,23.74,8.12,16.68,21.64,14.2,21.37,4.658,14.07,17.35,16.92,0,0,0,0,0,0,0,0,0,0,0,0,0,0,0,0,
423,14.49,-6.093,30.22,20.84,15.31,15.19,11.65,8.204,12,20.94,9.327,10.89,-2.512,10.93,4.817,9.288,0,0,0,0,0,0,0,0,0,0,0,0,0,0,0,0,
424,3.234,-13.15,9.04,2.869,3.136,-2.491,3.9,5.665,2.336,12.62,2.235,5.096,-10.22,7.741,-0.9497,4.172,0,0,0,0,0,0,0,0,0,0,0,0,0,0,0,0,
425,3.801,-13.02,7.961,7.515,7.117,0.0929,11.3,10.08,13.26,12.71,17.18,20.36,0.2214,12.93,12.23,13.79,0,0,0,0,0,0,0,0,0,0,0,0,0,0,0,0,
426,21.55,-2.01,30.27,29.24,23.45,17.6,26.04,13.6,23.38,18.12,26.42,31.96,12.39,15.35,18.98,19.34,0,0,0,0,0,0,0,0,0,0,0,0,0,0,0,0,
427,23.02,1.1,29.77,27.1,16.73,13.94,25.75,6.306,10.15,12.74,10.41,20.12,3.001,7.621,6.276,9.885,0,0,0,0,0,0,0,0,0,0,0,0,0,0,0,0,
428,9.293,-9.669,13.34,12.3,4.439,-0.2039,14.11,5.731,2.029,4.405,1.243,7.07,-11.61,3.104,-0.3344,4.549,0,0,0,0,0,0,0,0,0,0,0,0,0,0,0,0,
429,7.472,-14.98,16.26,12.3,10.74,3.306,12.19,8.042,5.613,3.48,3.708,5.938,-14.78,2.484,3.829,5.773,0,0,0,0,0,0,0,0,0,0,0,0,0,0,0,0,
430,3.761,-15.39,13.25,5.264,3.728,-1.161,11.58,1.537,-1.748,4.024,-0.6533,7.829,-13.39,-1.48,6.294,5.318,0,0,0,0,0,0,0,0,0,0,0,0,0,0,0,0,
431,-2.598,-15.04,5.805,3.344,-7.14,-14.79,11.32,4.215,-3.325,7.015,1.97,17.01,-5.596,1.105,14.25,10.46,0,0,0,0,0,0,0,0,0,0,0,0,0,0,0,0,
432,10.42,-2.987,24.61,23.71,9.972,-1.141,24.84,14.19,8.742,14.51,10.32,27.41,5.704,8.715,20.37,13.56,0,0,0,0,0,0,0,0,0,0,0,0,0,0,0,0,
433,17.58,4.795,31.48,21.6,13.41,10.91,27.88,10.61,2.29,13.95,1.268,18.17,2.701,6.204,9.41,3.872,0,0,0,0,0,0,0,0,0,0,0,0,0,0,0,0,
434,2.309,-6.941,9.404,1.691,-7.455,-3.565,10.61,3.046,-14.06,3.619,-10.02,4.102,-8.201,1.453,-0.0321,-2.143,0,0,0,0,0,0,0,0,0,0,0,0,0,0,0,0,
435,-4.05,-15.5,3.077,4.073,-7.513,-6.551,4.399,4.358,-9.974,-0.4696,-4.96,7.4,-9.781,4.96,3.134,0.6012,0,0,0,0,0,0,0,0,0,0,0,0,0,0,0,0,
436,-1.563,-14.2,9.428,7.887,-3.883,-5.219,6.552,6.131,-5.34,1.049,-4.865,6.998,-12.05,2.788,-1.721,-4.987,0,0,0,0,0,0,0,0,0,0,0,0,0,0,0,0,
437,-10.1,-19.03,7.061,5.248,-13.06,-17.76,0.9419,6.398,-14.09,-3.608,-15.2,-5.324,-20.24,-7.777,-11.71,-14.1,0,0,0,0,0,0,0,0,0,0,0,0,0,0,0,0,
438,-12.87,-24.01,10.53,8.846,-5.741,-6.532,1.646,12.34,-13.04,-6.21,-12.29,-2.61,-19.1,-10.35,-6.824,-11.09,0,0,0,0,0,0,0,0,0,0,0,0,0,0,0,0,
439,-2.96,-21.45,16.36,4.667,-2.56,15.25,5.565,17.38,-7.163,-1.926,-3.847,7.332,-12.76,-8.712,-0.9411,-6.676,0,0,0,0,0,0,0,0,0,0,0,0,0,0,0,0,
440,-2.056,-18.05,14.09,2.014,-21.04,4.667,2.898,11.99,-11.65,-2.191,-9.468,3.303,-12.51,-11.05,-6.176,-9.718,0,0,0,0,0,0,0,0,0,0,0,0,0,0,0,0,
441,-9.202,-16,11.19,1.464,-24.73,-7.968,2.839,5.811,-12.48,-5.518,-16.13,1.39,-13.36,-9.046,-7.936,-9.194,0,0,0,0,0,0,0,0,0,0,0,0,0,0,0,0,
442,-11.42,-20.96,2.342,-18.29,-20.59,-1.698,-2.707,5.374,-11.96,-9.302,-18.67,2.48,-19.77,-9.328,-10.73,-9.592,0,0,0,0,0,0,0,0,0,0,0,0,0,0,0,0,
443,-13.4,-32.92,-5.794,-21.72,-27.43,-2.295,-12.11,6.527,-15.91,-14.67,-20.59,-4.462,-29.83,-15.85,-18.55,-15,0,0,0,0,0,0,0,0,0,0,0,0,0,0,0,0,
444,-12.71,-33.15,7.322,8.43,-17.1,-4.621,-2.147,15.66,-7.188,-9.814,-8.935,-1.525,-25.28,-10.32,-12.35,-9.983,0,0,0,0,0,0,0,0,0,0,0,0,0,0,0,0,
445,-2.708,-19.9,24.65,19.41,2.175,8.078,12.74,29.69,4.085,0.9332,6.288,12.2,-10.02,5.008,6.464,4.582,0,0,0,0,0,0,0,0,0,0,0,0,0,0,0,0,
446,10.51,-5.162,30.18,13.68,4.39,28.53,16.67,39.36,10.35,8.071,17.5,27.25,9.874,20.8,31.5,24.75,0,0,0,0,0,0,0,0,0,0,0,0,0,0,0,0,
447,27.46,14.18,36.5,28.22,6.876,40.61,26.84,48.67,31.27,21.95,40.75,46.79,31.27,36.36,56.78,46.47,0,0,0,0,0,0,0,0,0,0,0,0,0,0,0,0,
448,40.08,25.88,34.74,35.42,7.174,32.06,33.55,47.12,41.75,28.23,49,47.16,27.07,31.02,51.34,41.36,0,0,0,0,0,0,0,0,0,0,0,0,0,0,0,0,
449,29.4,12.85,20.14,21.62,-8.708,17.37,22.23,34.07,19.47,12.13,21.31,25.77,4.745,8.772,24.77,17.32,0,0,0,0,0,0,0,0,0,0,0,0,0,0,0,0,
450,11.97,-3.784,11.47,15.11,-21.72,12.21,10.92,31.58,0.5541,0.3334,-0.2306,19.19,-0.087,1.51,18.65,11.29,0,0,0,0,0,0,0,0,0,0,0,0,0,0,0,0,
451,7.889,-8.206,3.402,8.64,-28.6,3.35,3.431,29.76,-4.213,-1.72,-1,20.52,-1.353,1.308,19.6,10.77,0,0,0,0,0,0,0,0,0,0,0,0,0,0,0,0,
452,2.154,-13.47,-5.913,-6.521,-35.57,-6.015,-3.733,23.41,-8.491,-8.152,-3.033,11.24,-12.18,-4.471,8.442,2.068,0,0,0,0,0,0,0,0,0,0,0,0,0,0,0,0,
453,-6.237,-19.03,-1.588,-11.24,-33.34,-0.6895,-2.386,31.85,-7.015,-7.45,-7.811,4.482,-14.96,-5.194,-1.668,-2.86,0,0,0,0,0,0,0,0,0,0,0,0,0,0,0,0,
454,-8.083,-20.86,1.411,-9.908,-32.88,0.668,-1.855,34.84,-7.211,-1.998,-15.64,-2.717,-16.93,-6.224,-11.05,-10.05,0,0,0,0,0,0,0,0,0,0,0,0,0,0,0,0,
455,-14.49,-25.93,-7.344,-14.62,-42.57,-15.61,-8.157,18.42,-10.49,-2.933,-22.2,-9.425,-22.23,-8.162,-14.91,-13.89,0,0,0,0,0,0,0,0,0,0,0,0,0,0,0,0,
456,-17.98,-26.31,-5.63,-13.47,-42.26,-20.48,-5.548,11.12,-4.214,1.861,-14.39,1.204,-15.35,-2.373,-2.727,-4.037,0,0,0,0,0,0,0,0,0,0,0,0,0,0,0,0,
457,-5.364,-15.85,11.64,-1.839,-28.97,1.129,5.705,13.38,1.639,9.182,-2.286,13.78,-6.47,1.035,8.014,1.061,0,0,0,0,0,0,0,0,0,0,0,0,0,0,0,0,
458,-0.1125,-12.55,20.92,1.766,-24.97,9.378,5.584,8.467,-1.076,3.736,-0.5127,8.556,-10.95,-2.357,5.474,-2.006,0,0,0,0,0,0,0,0,0,0,0,0,0,0,0,0,
459,-13.3,-23.92,9.43,-11.72,-35.67,-15.83,-6.575,5.865,-4.644,-4.138,-4.058,-0.224,-19.51,-5.031,2.724,-0.9904,0,0,0,0,0,0,0,0,0,0,0,0,0,0,0,0,
460,-21.03,-31.2,-5.405,-20.92,-42.01,-33.62,-10.92,10.17,-8.129,-3.913,-7.411,0.3077,-21.75,-6.322,4.258,-1.315,0,0,0,0,0,0,0,0,0,0,0,0,0,0,0,0,
461,-18.7,-28.26,-9.405,-17.1,-36.62,-29.84,-9.338,5.755,-12.12,-5.14,-13.1,2.032,-19.7,-6.163,1.179,-4.948,0,0,0,0,0,0,0,0,0,0,0,0,0,0,0,0,
462,-17.46,-27.89,-11.16,-20.96,-32.26,-26.98,-15.15,-8.687,-10.99,-9.218,-16.59,1.89,-17.68,-4.649,-3.472,-5.034,0,0,0,0,0,0,0,0,0,0,0,0,0,0,0,0,
463,-12.37,-26.7,-9.389,-26.62,-29.2,-18.95,-13.28,-9.257,-1.474,-5.781,-11.81,4.425,-16.77,-3.925,-0.9472,-3.976,0,0,0,0,0,0,0,0,0,0,0,0,0,0,0,0,
464,-6.423,-18.92,-2.895,-19.26,-24.23,-8.35,-0.4849,4.643,3.914,-0.2493,-10.83,1.548,-19.25,-4.624,-1.416,-7.054,0,0,0,0,0,0,0,0,0,0,0,0,0,0,0,0,
465,-11.64,-18.31,-3.708,-18.3,-26.94,-11.93,0.2058,7.586,-4.7,-1.737,-17.57,-7.57,-23.55,-6.698,-9.507,-10.62,0,0,0,0,0,0,0,0,0,0,0,0,0,0,0,0,
466,-17.96,-22.9,-2.278,-24.71,-30.55,-12.48,-4.619,4.311,-9.347,-1.332,-14.16,-6.568,-22.96,-8.199,-9.784,-8.572,0,0,0,0,0,0,0,0,0,0,0,0,0,0,0,0,
467,-14.73,-19.5,5.836,-19.55,-26.16,-5.599,-3.201,3.331,-3.653,0.4829,-7.498,-0.8674,-22.45,-9.147,-7.301,-6.546,0,0,0,0,0,0,0,0,0,0,0,0,0,0,0,0,
468,-14.05,-19.55,1.776,-13.06,-27.95,-7.936,-6.847,-6.048,-5.495,-5.753,-17.33,-6.128,-27.25,-11.01,-15.54,-11.55,0,0,0,0,0,0,0,0,0,0,0,0,0,0,0,0,
469,-18.14,-24.4,-4.893,-10.67,-35.07,-5.824,-7.036,-9.825,-11.5,-8.073,-29.3,-11.45,-25.75,-10.96,-19.46,-15.21,0,0,0,0,0,0,0,0,0,0,0,0,0,0,0,0,
470,-13.64,-16.05,2.056,-3.174,-32.57,3.571,3.236,-3.41,-12.94,-1.571,-27.23,-7.845,-16.93,-8.566,-10.45,-10.76,0,0,0,0,0,0,0,0,0,0,0,0,0,0,0,0,
471,-8.221,-6.143,5.606,-1.876,-30.48,-3.391,4.307,-8.861,-17.49,-1.159,-19.62,-4.516,-14.1,-6.349,-2.485,-4.994,0,0,0,0,0,0,0,0,0,0,0,0,0,0,0,0,
472,-15.01,-10.97,-0.9955,-11.01,-37.13,-18,-2.832,-15.84,-20.94,-4.282,-14.62,-3.915,-15.52,-3.26,1.11,-1.02,0,0,0,0,0,0,0,0,0,0,0,0,0,0,0,0,
473,-20.99,-16.16,-4.8,-15.35,-39.45,-20.73,-4.248,-14.2,-18.37,-4.721,-15.26,-6.328,-17.26,-2.803,0.3241,-0.6412,0,0,0,0,0,0,0,0,0,0,0,0,0,0,0,0,
474,-22.05,-19.67,-8.45,-17.96,-38.8,-22.26,-7.983,-24.47,-17.7,-11.46,-19.65,-14.38,-26.2,-11.42,-9.127,-10.27,0,0,0,0,0,0,0,0,0,0,0,0,0,0,0,0,
475,-28.17,-31.02,-12.62,-23.08,-41.1,-24.89,-14.9,-38.25,-12.81,-17.07,-15.05,-15.69,-33.61,-18.93,-12.15,-17.13,0,0,0,0,0,0,0,0,0,0,0,0,0,0,0,0,
476,-24.1,-33.35,-5.388,-14.34,-35.89,-19.67,-12.76,-34.48,0.3981,-8.283,-2.628,-5.212,-27.42,-13.22,-2.123,-8.446,0,0,0,0,0,0,0,0,0,0,0,0,0,0,0,0,
477,-11.71,-22.99,-1.296,-4.388,-34.74,-25.74,-11.31,-29.81,0.2106,-2.395,-4.651,-5.449,-23.45,-8.645,-2.996,-5.845,0,0,0,0,0,0,0,0,0,0,0,0,0,0,0,0,
478,-22.7,-27,-20.19,-23.08,-52.88,-49.51,-22.62,-38.01,-16.85,-14.48,-21.05,-18.94,-32.03,-16.85,-15.61,-16.89,0,0,0,0,0,0,0,0,0,0,0,0,0,0,0,0,
479,-38.83,-41.67,-35.44,-44.22,-59.58,-53.51,-26.36,-43.58,-21.15,-23.61,-25.91,-19.63,-35.57,-21.35,-18.01,-17.3,0,0,0,0,0,0,0,0,0,0,0,0,0,0,0,0,
480,-26.05,-38,-23.92,-32.67,-39.37,-27.49,-8.764,-37.12,-5.493,-14.33,-15.69,-9.642,-28.26,-14.59,-13.53,-7.024,0,0,0,0,0,0,0,0,0,0,0,0,0,0,0,0,
481,-9.507,-22.3,-10.02,-13.88,-25.63,-7.721,5.297,-27.22,7.181,-5.205,-7.988,-7.435,-23.2,-10.1,-8.736,-0.5217,0,0,0,0,0,0,0,0,0,0,0,0,0,0,0,0,
482,-10.19,-16.34,-8.828,-14.17,-26.56,-7.816,2.172,-22.31,6.757,-8.791,-9.962,-9.938,-24.61,-13.04,-5.3,-1.303,0,0,0,0,0,0,0,0,0,0,0,0,0,0,0,0,
483,-12.87,-16.89,-9.651,-21.88,-26.32,-11.08,-1.078,-21.71,-1.06,-12.22,-19.67,-15.43,-29.69,-18.33,-16.2,-14.81,0,0,0,0,0,0,0,0,0,0,0,0,0,0,0,0,
484,-16.37,-19.55,-12.65,-26.38,-31.32,-10.12,-1.034,-24.25,-9.696,-10.55,-29.54,-24.76,-34.65,-22.01,-29.78,-27.96,0,0,0,0,0,0,0,0,0,0,0,0,0,0,0,0,
485,-20.61,-26.62,-16.97,-25.78,-37.6,-6.252,-2.285,-33.95,-10.1,-11.95,-26.7,-22.85,-30.41,-19.15,-20.66,-19.4,0,0,0,0,0,0,0,0,0,0,0,0,0,0,0,0,
486,-13.71,-25.17,-11.25,-17.61,-28.08,-0.1064,3.269,-40.53,-2.209,-11.92,-12.2,-6.814,-17.53,-10.2,-2.776,-4.242,0,0,0,0,0,0,0,0,0,0,0,0,0,0,0,0,
487,-4.68,-12.62,-2.076,-7.442,-17.42,3.842,10.26,-28.15,-1.451,-5.094,-6.774,0.4678,-13.62,-7.662,-3.368,-6.491,0,0,0,0,0,0,0,0,0,0,0,0,0,0,0,0,
488,-7.916,-9.815,-6.295,-7.376,-22.49,1.312,8.053,-14.61,-11.33,-3.415,-19.06,-10.15,-22.82,-14.51,-15.67,-16.45,0,0,0,0,0,0,0,0,0,0,0,0,0,0,0,0,
489,-16.05,-18.33,-14.74,-16.06,-27.1,-7.698,2.477,-20.65,-16.16,-11.47,-29.14,-18.99,-27.32,-15.35,-17.37,-14.51,0,0,0,0,0,0,0,0,0,0,0,0,0,0,0,0,
490,-21.59,-23.81,-10.93,-16.48,-22.7,-18.15,-4.152,-30.2,-13.03,-16.46,-26.62,-17.5,-25.26,-11.01,-11.15,-7.422,0,0,0,0,0,0,0,0,0,0,0,0,0,0,0,0,
491,-24.71,-29.21,-6.666,-10.68,-21.52,-20.3,-10.07,-34.58,-11.33,-16.38,-23.53,-18.04,-29.36,-16.24,-13.9,-11.56,0,0,0,0,0,0,0,0,0,0,0,0,0,0,0,0,
492,-21.97,-37.88,-13.08,-18.13,-24.87,-16.14,-9.366,-41.85,-9.531,-19.37,-20.37,-20.59,-34.72,-22.95,-19.68,-19.52,0,0,0,0,0,0,0,0,0,0,0,0,0,0,0,0,
493,-17.54,-42.11,-18.46,-32.14,-26.26,-18.45,-9.606,-43.33,-6.814,-20.67,-14.51,-19.03,-33.8,-20.93,-16.76,-19.27,0,0,0,0,0,0,0,0,0,0,0,0,0,0,0,0,
494,-18.91,-39.33,-17.46,-32.27,-23.35,-22.6,-12.65,-37.69,-8.398,-14.23,-16.48,-18.68,-31.24,-18.22,-13.36,-16.68,0,0,0,0,0,0,0,0,0,0,0,0,0,0,0,0,
495,-21.58,-32.86,-15.26,-23.38,-19.56,-20.37,-8.864,-35.7,-11.71,-8.18,-23.93,-19.82,-28.26,-16.18,-14.35,-16.1,0,0,0,0,0,0,0,0,0,0,0,0,0,0,0,0,
496,-21.54,-26.59,-14.25,-21.98,-23.82,-21.17,-1.99,-34.1,-12.87,-8.578,-23.92,-18.02,-24.12,-12.48,-13.8,-15.49,0,0,0,0,0,0,0,0,0,0,0,0,0,0,0,0,
497,-18.96,-24.36,-14.65,-24.15,-30.34,-24.31,0.417,-35.32,-12.2,-12.08,-18.38,-15.35,-23.41,-12.58,-12.24,-15.09,0,0,0,0,0,0,0,0,0,0,0,0,0,0,0,0,
498,-12.99,-28.01,-10.87,-16.3,-26.47,-19.07,-1.906,-43.79,-8.692,-16.25,-14.61,-11.18,-25.96,-15.15,-11.49,-13.45,0,0,0,0,0,0,0,0,0,0,0,0,0,0,0,0,
499,-8.377,-29.77,-3.385,-8.565,-22.38,-8.316,-2.605,-42.1,-4.82,-18.29,-12.35,-3.644,-22.94,-14.41,-10.02,-10.64,0,0,0,0,0,0,0,0,0,0,0,0,0,0,0,0,
500,-7.643,-19.21,-3.104,-9.674,-26.02,1.165,7.514,-22.39,-5.694,-14.73,-12.78,-0.4371,-14.28,-12.36,-10.73,-10.17,0,0,0,0,0,0,0,0,0,0,0,0,0,0,0,0,
501,-8.929,-9.236,-5.584,-0.3061,-23.26,1.608,16.4,-6.216,-8.44,-8.926,-17.77,-7.235,-13.93,-13.7,-14.78,-13.21,0,0,0,0,0,0,0,0,0,0,0,0,0,0,0,0,
502,-13.84,-17.33,-0.5148,12.05,-10.31,-7.831,9.049,-11.25,-6.2,-7.612,-19.51,-12.81,-21.89,-16.49,-14.13,-15.09,0,0,0,0,0,0,0,0,0,0,0,0,0,0,0,0,
503,-18.11,-29.83,-0.1547,1.619,-0.8808,-12.94,0.4425,-24.97,-2.395,-10.97,-13.61,-7.09,-22.13,-13.39,-6.634,-9.362,0,0,0,0,0,0,0,0,0,0,0,0,0,0,0,0,
504,-15.81,-29.89,-13.21,-10.14,-1.86,-14.71,-0.0486,-24.59,-4.623,-12.03,-10.82,-0.8921,-16.15,-6.003,-4.46,-2.701,0,0,0,0,0,0,0,0,0,0,0,0,0,0,0,0,
505,-14.97,-26.34,-24.09,-11.32,-9.783,-22.79,-4.226,-18.12,-11.56,-10.24,-17.92,-6.853,-18.87,-6.566,-14.28,-8.04,0,0,0,0,0,0,0,0,0,0,0,0,0,0,0,0,
506,-23.61,-30.44,-25.45,-23.3,-20.4,-25.55,-8.91,-24.04,-17.72,-13.21,-25.32,-16.5,-26.02,-13.59,-23.46,-15.39,0,0,0,0,0,0,0,0,0,0,0,0,0,0,0,0,
507,-28.58,-32.92,-24.82,-24.29,-27.82,-18.36,-4.323,-25.93,-16.28,-16.36,-21.65,-12.94,-21.93,-12.99,-19.63,-9.572,0,0,0,0,0,0,0,0,0,0,0,0,0,0,0,0,
508,-18.24,-23.22,-24.31,-3.026,-28.26,-14.85,-0.6832,-11.08,-7.251,-11.8,-12.69,-0.3166,-12.84,-9.907,-11.92,-4.752,0,0,0,0,0,0,0,0,0,0,0,0,0,0,0,0,
509,-9.332,-16.18,-23.12,1.304,-25.58,-13.08,-4.05,1.06,-1.964,-9.474,-9.223,5.024,-13.04,-14.15,-9.444,-9.281,0,0,0,0,0,0,0,0,0,0,0,0,0,0,0,0,
510,-8.441,-18.9,-14.25,0.5348,-17.65,-2.044,-0.119,4.596,0.3056,-13.85,-4.589,6.358,-14.16,-14.84,-5.137,-7.856,0,0,0,0,0,0,0,0,0,0,0,0,0,0,0,0,
511,-2.143,-15.32,1.582,17.89,-4.715,7.782,8.915,7.937,1.532,-14.45,-3.346,5.586,-13.39,-12.43,-5.778,-8.733,0,0,0,0,0,0,0,0,0,0,0,0,0,0,0,0,
512,-5.035,-13.04,1.769,13.61,-2.575,2.526,5.693,9.379,-9.224,-9.671,-20.28,-6.532,-21.01,-17.17,-19.03,-21.44,0,0,0,0,0,0,0,0,0,0,0,0,0,0,0,0,
513,-20.53,-19.47,-8.273,-7.566,-5.877,-3.352,1.27,9.145,-17.62,-4.104,-31.2,-13.59,-25.1,-17.75,-25.84,-23.97,0,0,0,0,0,0,0,0,0,0,0,0,0,0,0,0,
514,-17.47,-16.1,-5.487,-3.991,0.0623,-0.8862,5.788,4.794,-9.635,-1.319,-21.33,-6.445,-20.61,-14.23,-24.6,-19.83,0,0,0,0,0,0,0,0,0,0,0,0,0,0,0,0,
515,-8.864,-14.52,-9.052,-5.298,-4.195,-9.797,1.302,-4.78,-10.35,-4.77,-22.07,-9.471,-24.94,-19.84,-29.6,-25.83,0,0,0,0,0,0,0,0,0,0,0,0,0,0,0,0,
516,-20.49,-28.24,-23.64,-27.24,-19.87,-24.42,-8.644,-5.175,-19.87,-8.563,-30.5,-19.07,-30.35,-20.78,-27.86,-22.87,0,0,0,0,0,0,0,0,0,0,0,0,0,0,0,0,
517,-26.06,-29.06,-18.72,-24.62,-17.64,-19.58,-5.404,3.596,-11.93,-6.406,-18.84,-12.61,-22.56,-9.545,-15.69,-10.05,0,0,0,0,0,0,0,0,0,0,0,0,0,0,0,0,
518,-16.56,-16.02,-6.845,-2.91,-8.704,-9.01,1.536,3.023,-1.663,-3.453,-6.058,-2.612,-15.94,-6.264,-11.9,-10.77,0,0,0,0,0,0,0,0,0,0,0,0,0,0,0,0,
519,-14.24,-17.12,-10.47,0.8404,-14.11,-8.264,1.909,-5.041,-7.048,-5.543,-11.8,-3.518,-17.8,-14.55,-15.23,-16.36,0,0,0,0,0,0,0,0,0,0,0,0,0,0,0,0,
520,-13.31,-22.52,-8.05,1.107,-14.12,0.0781,5.202,-5.391,-7.45,-9.685,-14.66,-1.585,-15.57,-17.28,-12.17,-11.48,0,0,0,0,0,0,0,0,0,0,0,0,0,0,0,0,
521,-3.726,-14.31,5.851,9.38,-4.304,14.87,12.9,-1.47,3.104,-7.936,-5.05,9.494,-9.301,-11.31,-4.041,-4.455,0,0,0,0,0,0,0,0,0,0,0,0,0,0,0,0,
522,1.658,-6.995,4.804,3.312,-9.991,14.92,13.31,-6.041,2.971,-1.777,-5.464,12.44,-10.59,-8.928,-3.158,-4.006,0,0,0,0,0,0,0,0,0,0,0,0,0,0,0,0,
523,-1.652,-9.288,-7.203,-7.267,-22.06,10.81,8.877,-15.15,-3.943,-0.6644,-15.73,5.409,-12.94,-9.496,-7.855,-3.944,0,0,0,0,0,0,0,0,0,0,0,0,0,0,0,0,
524,-0.7122,-8.195,-1.357,5.02,-15.08,19.89,12.46,-17.06,2.958,-3.955,-10.71,6.95,-7.537,-4.829,-4.179,1.133,0,0,0,0,0,0,0,0,0,0,0,0,0,0,0,0,
525,2.59,-7.444,10.74,18.55,-11.1,19.52,12.72,-16.58,8.084,-7.533,-3.856,8.071,-9.592,-4.321,-1.378,0.1314,0,0,0,0,0,0,0,0,0,0,0,0,0,0,0,0,
526,-7.627,-18.3,-1.259,4.543,-27.45,-3.506,-1.854,-24.8,-4.045,-10.43,-15.12,-2.295,-19.19,-9.17,-7.61,-6.683,0,0,0,0,0,0,0,0,0,0,0,0,0,0,0,0,
527,-19.38,-24.48,-18.93,-17.12,-30.74,-17.3,-10.2,-37.59,-7.73,-8.863,-18.42,-2.516,-17.97,-7.598,-5.195,-5.082,0,0,0,0,0,0,0,0,0,0,0,0,0,0,0,0,
528,-15.23,-19.46,-19.22,-22.46,-19.22,-11.39,-6.453,-41.87,0.1547,-7.867,-9.293,2.985,-18.08,-10.36,0.4841,-5.297,0,0,0,0,0,0,0,0,0,0,0,0,0,0,0,0,
529,-12.45,-22.56,-17.61,-18.06,-22.75,-7.865,-8.581,-34.13,-3.986,-12.15,-12.69,-4.856,-26.91,-20.93,-6.284,-13.15,0,0,0,0,0,0,0,0,0,0,0,0,0,0,0,0,
530,-16.3,-26.95,-14.84,-15.27,-22.86,-5.377,-9.192,-24.52,-6.465,-10.73,-16.06,-5.136,-22.29,-18.83,-10.01,-10.78,0,0,0,0,0,0,0,0,0,0,0,0,0,0,0,0,
531,-9.13,-15.45,-2.524,-13.79,-6.521,2.831,1.283,-19.64,3.049,-4.497,-8.221,5.893,-9.539,-7.613,-5.122,-3.005,0,0,0,0,0,0,0,0,0,0,0,0,0,0,0,0,
532,-1.157,-2.8,1.751,-9.547,-3.061,8.354,8.37,-15.44,2.278,-5.853,-7.032,4.885,-8.056,-3.884,-5.157,-2.782,0,0,0,0,0,0,0,0,0,0,0,0,0,0,0,0,
533,-3.74,-0.5234,-5.209,-4.139,-9.656,14.32,10,-9.69,-4.098,-6.87,-8.991,3.25,-8.185,-3.007,-6.337,-1.267,0,0,0,0,0,0,0,0,0,0,0,0,0,0,0,0,
534,-0.4332,1.055,-4.384,2.49,-4.334,22.28,15.1,-2.157,0.9538,-0.5798,-3.702,10.83,-5.35,-1.469,-2.973,1.313,0,0,0,0,0,0,0,0,0,0,0,0,0,0,0,0,
535,7.508,1.862,4.601,12.76,1.013,22.54,17.1,3.095,3.474,0.0876,-3.689,9.454,-8.84,-5.706,-2.293,-3.733,0,0,0,0,0,0,0,0,0,0,0,0,0,0,0,0,
536,5.881,-0.4578,7.858,18.76,-3.541,19.44,16.31,-2.102,-2.023,-3.551,-9.482,4.578,-9.942,-10.25,-4.293,-6.572,0,0,0,0,0,0,0,0,0,0,0,0,0,0,0,0,
537,4.236,4.374,3.328,17.61,-8.036,17.92,23.08,-9.257,-3.368,0.477,-9.384,7.331,-5.281,-8.646,-4.917,-1.784,0,0,0,0,0,0,0,0,0,0,0,0,0,0,0,0,
538,3.873,8.586,-2.477,15.38,-11.81,9.637,23.77,-6.878,-6.184,0.0785,-10.84,2.33,-11.46,-10.86,-7.64,-3.049,0,0,0,0,0,0,0,0,0,0,0,0,0,0,0,0,
539,-3.595,-3.709,-6.139,11.37,-13.64,3.536,10.73,-3.836,-8.642,-10.83,-11.9,-5.023,-19.73,-15.08,-7.28,-7.428,0,0,0,0,0,0,0,0,0,0,0,0,0,0,0,0,
540,-0.8452,-11.66,-6.26,10.09,-5.664,11.86,9.028,-5.15,3.387,-11.41,-0.1773,1.746,-12.81,-8.953,0.7354,-2.973,0,0,0,0,0,0,0,0,0,0,0,0,0,0,0,0,
541,8.599,-3.101,-6.765,10.34,-2.636,14.02,13.87,-6.786,11.53,-4.228,3.205,3.389,-10.35,-5.578,1.634,-2.101,0,0,0,0,0,0,0,0,0,0,0,0,0,0,0,0,
542,-0.9873,-3.68,-9.868,1.988,-15.71,4.939,3.517,-14.33,4.181,-8.012,-6.758,-3.69,-16.57,-9.92,-3.513,-5.95,0,0,0,0,0,0,0,0,0,0,0,0,0,0,0,0,
543,-7.651,-7.774,-7.352,0.6704,-20.89,8.606,2.502,-25.97,6.159,-11.33,-0.027,1.851,-10.86,-6.626,-1.38,-1.77,0,0,0,0,0,0,0,0,0,0,0,0,0,0,0,0,
544,3.347,1.11,-3.127,13.46,-12.71,10.42,15.38,-24.83,12.22,-8.094,7.993,5.639,-7.501,-5.732,-3.634,-2.712,0,0,0,0,0,0,0,0,0,0,0,0,0,0,0,0,
545,0.7149,0.6772,-4.961,17.18,-12.2,-6.239,9.869,-11.94,3.995,-12.49,-2.784,-2.057,-15.88,-12.06,-9.315,-10.04,0,0,0,0,0,0,0,0,0,0,0,0,0,0,0,0,
546,-9.446,-7.986,-3.822,15.81,-15.49,-11.51,0.892,-11.72,0.1399,-17.36,-4.422,-1.508,-16.9,-11.21,-3.799,-7.956,0,0,0,0,0,0,0,0,0,0,0,0,0,0,0,0,
547,-5.412,-4.604,-3.657,21.21,-13.34,-2.951,6.456,-26.38,4.421,-13.37,1.732,1.177,-14.86,-10.42,-2.729,-6.911,0,0,0,0,0,0,0,0,0,0,0,0,0,0,0,0,
548,-4.584,-2.303,-11.12,16.73,-11.41,-6.149,3.678,-30.88,0.3327,-10.82,-4.958,-5.286,-17.16,-11.71,-13.08,-12.42,0,0,0,0,0,0,0,0,0,0,0,0,0,0,0,0,
549,-11.81,-5.031,-13.51,5.429,-11.32,-13.13,-1.74,-21.98,-7.831,-8.685,-13.28,-11.81,-16.93,-7.982,-18.93,-14.59,0,0,0,0,0,0,0,0,0,0,0,0,0,0,0,0,
550,-15.9,-1.554,-14.04,5.458,-14.63,-14.98,6.347,-13.22,-14.33,-1.17,-18.65,-15.58,-17.62,-7.936,-20.19,-14.74,0,0,0,0,0,0,0,0,0,0,0,0,0,0,0,0,
551,-18.66,0.1755,-19.52,6.422,-18.31,-18.88,7.808,-8.628,-16.11,-0.7048,-19.72,-13.99,-18.87,-8.26,-19.65,-13.33,0,0,0,0,0,0,0,0,0,0,0,0,0,0,0,0,
552,-18.82,-2.881,-21.53,-1.452,-15.28,-20.4,-1.896,-15.99,-8.098,-10.63,-9.443,-7.458,-18.14,-5.858,-14.67,-12.29,0,0,0,0,0,0,0,0,0,0,0,0,0,0,0,0,
553,-15.91,-3.455,-26.11,-5.615,-10.13,-15.62,-3.922,-30.11,0.08,-13.9,-3.182,-4.382,-18.96,-9.829,-8.795,-13.86,0,0,0,0,0,0,0,0,0,0,0,0,0,0,0,0,
554,-12.71,-2.204,-32.64,-2.062,-6.766,-10.4,-1.845,-27.4,0.9433,-9.927,-7.917,-2.87,-18.43,-11.72,-4.245,-11.43,0,0,0,0,0,0,0,0,0,0,0,0,0,0,0,0,
555,-9.267,-1.28,-24.12,1.855,-3.567,-7.502,-4.513,-10.24,0.1098,-12.19,-7.876,-1.758,-16.4,-8.383,-2.076,-7.188,0,0,0,0,0,0,0,0,0,0,0,0,0,0,0,0,
556,-8.384,-0.4002,-12.93,4.381,-2.822,-4.326,-5.285,-2.587,-0.4831,-15.78,-2.702,-3.295,-14.67,-10.11,-1.65,-4.848,0,0,0,0,0,0,0,0,0,0,0,0,0,0,0,0,
557,-7.814,1.226,-19.65,1.429,-4.886,-2.658,-4.766,-9.721,-1.619,-15.36,-2.797,-3.02,-11.84,-10.79,-0.9933,-2.19,0,0,0,0,0,0,0,0,0,0,0,0,0,0,0,0,
558,-6.028,2.398,-28.02,-2.848,-6.709,-5.753,-7.029,-11.56,0.2628,-15.44,-4.507,0.4847,-8.797,-3.276,0.1848,0.1267,0,0,0,0,0,0,0,0,0,0,0,0,0,0,0,0,
559,-4.163,4.47,-18.44,9.597,-6.361,-3.19,-4.086,2.77,6.611,-10.65,-1.585,6.695,-3.594,4.744,2.946,3.079,0,0,0,0,0,0,0,0,0,0,0,0,0,0,0,0,
560,4.216,11.59,-3.107,29.62,-4.048,9.748,5.967,8.821,11.7,-2.396,1.161,11.72,0.269,4.906,3.785,3.019,0,0,0,0,0,0,0,0,0,0,0,0,0,0,0,0,
561,12.7,16.38,0.8216,28.87,-0.1427,17.47,14.11,-0.9724,12.19,0.2668,3.454,11.23,-0.3673,2.147,4.652,2.369,0,0,0,0,0,0,0,0,0,0,0,0,0,0,0,0,
562,9.417,13.65,-7.401,7.782,1.632,13.87,14.09,-0.6198,10.79,-0.2302,11.23,11.24,0.4114,4.095,10.62,8.313,0,0,0,0,0,0,0,0,0,0,0,0,0,0,0,0,
563,2.694,10.59,-19.22,-11.46,-4.468,4.126,4.698,2.716,7.87,-6.056,16.45,9.614,-5.4,-0.5891,7.289,3.473,0,0,0,0,0,0,0,0,0,0,0,0,0,0,0,0,
564,-4.065,5.077,-21.52,-9.013,-10.52,-8.867,-3.904,-8.066,3.714,-14.32,10.2,0.5068,-18.06,-13.15,-7.051,-12.6,0,0,0,0,0,0,0,0,0,0,0,0,0,0,0,0,
565,-12.46,0.1734,-13.62,9.77,-9.182,-13.19,0.7478,-13.83,-0.494,-9.415,1.282,-2.921,-14.23,-10.71,-8.095,-9.388,0,0,0,0,0,0,0,0,0,0,0,0,0,0,0,0,
566,-8.385,9.767,-8.344,15.65,-9.596,-3.801,10.77,-7.842,-2.059,-1.019,0.7217,5.113,0.1611,1.981,0.9901,3.187,0,0,0,0,0,0,0,0,0,0,0,0,0,0,0,0,
567,5.604,20.3,-7.23,6.816,-10.57,3.218,11.69,-4.25,4.427,-5.075,7.734,10.97,0.9263,2.862,1.48,0.3226,0,0,0,0,0,0,0,0,0,0,0,0,0,0,0,0,
568,9.254,14.27,-8.973,3.615,-5.859,0.7786,7.219,-6.187,11.24,-7.704,12.49,9.854,-4.583,0.7431,2.538,-1.445,0,0,0,0,0,0,0,0,0,0,0,0,0,0,0,0,
569,4.891,7.208,-14.65,5.832,-3.583,-0.1295,7.335,-13.97,9.756,-3.716,11.99,8.108,-6.08,5.284,10.72,6.817,0,0,0,0,0,0,0,0,0,0,0,0,0,0,0,0,
570,4.374,5.915,-17.81,5.32,-5.242,4.157,5.85,-26.03,10.82,-6.999,13.84,7.991,-10.22,5.492,13.41,9.605,0,0,0,0,0,0,0,0,0,0,0,0,0,0,0,0,
571,7.016,-0.0964,-18.73,-0.5595,-6.695,6.511,-2.154,-32.45,15.29,-10.1,15.47,7.116,-13.93,1.497,8.849,6.295,0,0,0,0,0,0,0,0,0,0,0,0,0,0,0,0,
572,8.864,-0.9287,-15.84,-3.58,-8.066,3.69,-0.0906,-26.74,10.52,-1.095,9.021,3.658,-11.89,1.373,2.488,2.441,0,0,0,0,0,0,0,0,0,0,0,0,0,0,0,0,
573,4.064,6.466,-8.411,4.424,-6.878,1.092,11.47,-21.55,0.77,3.655,0.3912,-2.055,-11.91,0.8944,-6.144,-3.647,0,0,0,0,0,0,0,0,0,0,0,0,0,0,0,0,
574,-4.467,3.767,-11.44,6.719,-5.519,7.632,9.975,-30.95,-3.428,-3.913,-2.422,-6.964,-15.62,-2.051,-10.98,-8.203,0,0,0,0,0,0,0,0,0,0,0,0,0,0,0,0,
575,-3.235,-2.699,-15,2.929,-5.775,17.44,4.288,-35.26,-1.536,-4.597,-1.15,-7.123,-14.49,-1.674,-6.676,-7.465,0,0,0,0,0,0,0,0,0,0,0,0,0,0,0,0,
576,2.666,2.16,-4.79,13.15,-4.926,11.04,7.844,-20.93,1.147,1.567,-0.0361,-3.9,-10.04,0.7057,-0.9872,-5.12,0,0,0,0,0,0,0,0,0,0,0,0,0,0,0,0,
577,1.336,4.154,-7.375,16.53,-6.241,-4.973,3.948,-15.92,0.5596,-1.274,3.026,-0.4442,-9.55,-0.3403,1.21,-3.195,0,0,0,0,0,0,0,0,0,0,0,0,0,0,0,0,
578,1.26,-2.958,-21.79,0.939,-6.8,-5.203,-3.395,-25.24,2.958,-3.997,11.49,4.604,-9.605,-1.927,2.991,0.6521,0,0,0,0,0,0,0,0,0,0,0,0,0,0,0,0,
579,7.568,-1.149,-17.62,3.348,-1.595,5.962,4.894,-20.22,11.82,4.458,18.83,10.79,-1.634,4.774,7.011,9.107,0,0,0,0,0,0,0,0,0,0,0,0,0,0,0,0,
580,13.2,13,-7.879,22.1,0.444,11.4,17.7,-5.013,15.82,14.68,18.05,14.43,11.13,17.32,13.53,18.28,0,0,0,0,0,0,0,0,0,0,0,0,0,0,0,0,
581,15.62,23.83,-6.659,22.9,-3.117,12.26,21.74,-3.059,10.82,16.6,13.5,14.24,14.1,19.16,16.77,18.15,0,0,0,0,0,0,0,0,0,0,0,0,0,0,0,0,
582,14.53,21.83,-2.521,18.22,-4.211,11.85,20.15,-7.364,6.356,8.279,10.71,10.28,4.874,8.759,12.72,10.11,0,0,0,0,0,0,0,0,0,0,0,0,0,0,0,0,
583,12.36,11.5,-4.058,21.5,-5.474,9.347,13.85,-5.635,4.248,-0.3468,8.463,2.852,-4.593,1.434,5.182,2.855,0,0,0,0,0,0,0,0,0,0,0,0,0,0,0,0,
584,10.73,2.53,-13.08,12.2,-9.341,4.238,6.458,-10.79,1.558,1.895,6.401,-2.568,-9.085,0.8668,-0.4489,-2.148,0,0,0,0,0,0,0,0,0,0,0,0,0,0,0,0,
585,8.864,1.958,-9.039,0.4652,-8.65,0.4274,6.043,-22.07,3.82,7.731,8.564,2.273,-5.934,5.59,2.526,0.2256,0,0,0,0,0,0,0,0,0,0,0,0,0,0,0,0,
586,13.46,12.24,-1.305,9.425,-4.933,5.383,12.74,-17.23,10.7,9.322,13.69,12.44,5.414,14.38,12.05,10.29,0,0,0,0,0,0,0,0,0,0,0,0,0,0,0,0,
587,20.73,24.31,-10.21,15.8,-3.039,8.252,17.89,-8.445,13.15,9.849,17.36,15.28,12.43,17.04,18.48,15.45,0,0,0,0,0,0,0,0,0,0,0,0,0,0,0,0,
588,16.33,24.26,-17.8,3.8,1.466,-1.609,13.83,-16.62,13.37,9.208,22.49,13.98,11.17,14.79,24.1,16.99,0,0,0,0,0,0,0,0,0,0,0,0,0,0,0,0,
589,10.71,19.01,-7.939,0.6789,7.129,-1.505,9.411,-16.93,19.46,12.49,29.57,17.79,13.43,18.66,30.5,22.79,0,0,0,0,0,0,0,0,0,0,0,0,0,0,0,0,
590,21.66,24.91,4.376,16.25,9.314,20.12,19.87,3.515,28.66,24.86,32.01,24.16,18.8,22.07,29.36,24.25,0,0,0,0,0,0,0,0,0,0,0,0,0,0,0,0,
591,36.3,32.03,9.28,27.57,7.055,33.76,32.53,16,29.03,29.73,26.38,25.83,16.79,16.15,20.63,16.53,0,0,0,0,0,0,0,0,0,0,0,0,0,0,0,0,
592,33.49,24.33,5.835,23.71,-5.073,23.56,27.35,10.94,16.66,18.3,15.66,20.46,11.65,11.88,13.07,10.69,0,0,0,0,0,0,0,0,0,0,0,0,0,0,0,0,
593,19.51,15.92,-4.04,17.29,-16.13,11.45,18.31,1.828,7.506,10.67,9.762,14.63,13.45,17.48,12.91,13.06,0,0,0,0,0,0,0,0,0,0,0,0,0,0,0,0,
594,13.13,18.99,-8.082,13.96,-10.64,13.19,16.75,-2.325,8.375,13.44,10.39,11.53,13.74,19.73,14.49,13.59,0,0,0,0,0,0,0,0,0,0,0,0,0,0,0,0,
595,11.21,16.92,-9.389,7.352,-9.35,15.78,8.698,3.258,2.634,12.2,6.095,2.771,3.18,12.64,7.726,4.834,0,0,0,0,0,0,0,0,0,0,0,0,0,0,0,0,
596,1.16,6.368,-18.59,5.865,-25.21,6.543,0.6424,5.181,-7.344,10.8,-0.0276,-8.752,-4.117,12.15,0.6342,-1.543,0,0,0,0,0,0,0,0,0,0,0,0,0,0,0,0,
597,-6.894,6.415,-19.77,14.91,-29.66,-1.72,5.994,-4.513,-2.084,18.65,3.771,-9.881,-0.0824,19.25,2.623,1.088,0,0,0,0,0,0,0,0,0,0,0,0,0,0,0,0,
598,-0.4478,12.06,-5.641,20.74,-13.35,3.307,7.468,-1.411,11.79,20.24,11.29,-3.878,1.287,16.15,3.975,1.577,0,0,0,0,0,0,0,0,0,0,0,0,0,0,0,0,
599,9.162,5.763,-0.0688,20.93,-4.096,8.277,-0.8353,13.21,16.11,8.802,16.02,1.666,1.739,9.108,5.464,1.97,0,0,0,0,0,0,0,0,0,0,0,0,0,0,0,0,
600,14.76,4.545,-6.175,19.27,-9.352,11.28,4.662,16.4,14.83,9.761,24.02,12.31,16.83,17.82,21.37,16.04,0,0,0,0,0,0,0,0,0,0,0,0,0,0,0,0,
601,25.18,25,1.049,18.28,-5.021,28.21,22.83,24.57,19.6,25.03,31.55,25.13,31.37,29.37,37.84,30.4,0,0,0,0,0,0,0,0,0,0,0,0,0,0,0,0,
602,32,37.2,15.51,26.68,6.367,39.7,25.97,35.8,22.5,24.45,28.67,26.48,23.91,23.64,33.16,25.66,0,0,0,0,0,0,0,0,0,0,0,0,0,0,0,0,
603,25.8,27.83,11.93,34.73,1.05,29.92,19.64,22.46,19.11,18.39,30.84,26.96,19.29,21.83,31.18,23.93,0,0,0,0,0,0,0,0,0,0,0,0,0,0,0,0,
604,29.89,30.61,7.848,35.28,-0.0997,32.95,27.21,12.43,29.55,30.83,52.88,42.54,36.66,38.64,52.1,41.62,0,0,0,0,0,0,0,0,0,0,0,0,0,0,0,0,
605,48.45,42.53,25.17,42.38,22,49.66,32.57,24.99,51.63,37.64,67.91,52.37,44.13,45.53,63.27,49.64,0,0,0,0,0,0,0,0,0,0,0,0,0,0,0,0,
606,51.16,34.47,40.96,47.23,33.14,47.08,23.27,27.44,56.73,30.12,58.36,41.37,32.21,37.92,50.49,39.74,0,0,0,0,0,0,0,0,0,0,0,0,0,0,0,0,
607,38.91,23.47,37.82,36.61,21.98,38.06,21.93,17.64,43.54,28.32,41.89,25.73,22.72,33.99,33.79,28.35,0,0,0,0,0,0,0,0,0,0,0,0,0,0,0,0,
608,26.45,21.86,26.65,27.61,10.77,32.37,27.07,9.189,27.45,23.46,23.14,12.28,10.01,22.96,15.73,11.46,0,0,0,0,0,0,0,0,0,0,0,0,0,0,0,0,
609,12.31,16.04,19.28,30.51,4.159,18.13,24.7,1.131,16.94,15.24,8.732,5.123,-3.803,7.956,5.803,-0.5594,0,0,0,0,0,0,0,0,0,0,0,0,0,0,0,0,
610,8.453,13.4,17.96,30.95,4.182,10.45,20.21,2.802,15.07,15,11.33,7.373,-3.27,6.581,10.23,3.316,0,0,0,0,0,0,0,0,0,0,0,0,0,0,0,0,
611,11.52,11.94,12.06,18.52,7.206,9.609,7.13,5.709,13.1,9.254,14.12,4.332,-3.164,7.04,6.23,2.767,0,0,0,0,0,0,0,0,0,0,0,0,0,0,0,0,
612,2.698,0.6647,3.154,8.244,4.028,0.2937,-10.37,-1.541,9.129,2.386,8.341,-3.637,-10.88,4.205,-3.44,-2.177,0,0,0,0,0,0,0,0,0,0,0,0,0,0,0,0,
613,-7.884,-7.009,2.76,10.49,0.3585,-7.856,-11.87,-3.824,4.846,3.332,1.24,-9.427,-16.52,2.775,-5.09,-2.098,0,0,0,0,0,0,0,0,0,0,0,0,0,0,0,0,
614,-15.94,-10.49,2.6,10.64,-1.793,-10.86,-5.197,-0.6102,-3.657,0.6198,-5.769,-15.65,-19.89,-1.421,-8.153,-5.993,0,0,0,0,0,0,0,0,0,0,0,0,0,0,0,0,
615,-18.9,-11.67,9.011,17.83,3.998,-2.49,2.239,0.2344,1.598,5.708,4.779,-8.382,-13.79,1.658,-5.225,-5.374,0,0,0,0,0,0,0,0,0,0,0,0,0,0,0,0,
616,1.79,2.849,27.22,39,21.15,22.68,11.55,0.4133,21.09,17.48,26.02,8.327,-1.492,9.365,7.336,2.744,0,0,0,0,0,0,0,0,0,0,0,0,0,0,0,0,
617,20.69,14.01,21.89,33.23,22.61,29.89,7.732,-3.904,21.21,11.48,25.72,10.46,0.8289,6.283,14.17,4.68,0,0,0,0,0,0,0,0,0,0,0,0,0,0,0,0,
618,13.09,4.46,-1.638,2.237,6.266,7.361,-3.265,-3.989,10.71,3.778,19.95,7.882,-0.5293,3.964,17.96,4.831,0,0,0,0,0,0,0,0,0,0,0,0,0,0,0,0,
619,7.572,-4.84,-0.6704,-5.063,-1.44,-11.22,-5.68,5.899,12.19,7.381,22.49,6.12,-3.382,5.011,16.08,3.107,0,0,0,0,0,0,0,0,0,0,0,0,0,0,0,0,
620,1.736,-10.47,8.806,6.135,-5.676,-19.21,-6.226,8.693,6.761,6.499,10.42,-7.79,-12.82,0.872,3.869,-3.03,0,0,0,0,0,0,0,0,0,0,0,0,0,0,0,0,
621,-20.89,-16.06,6.325,12.21,-10.66,-20.76,-1.706,5.254,-4.743,10.12,-2.716,-17.56,-13.74,5.404,-0.1864,-1.895,0,0,0,0,0,0,0,0,0,0,0,0,0,0,0,0,
622,-30.74,-9.822,9.914,14.3,-6.876,-11.61,6.472,4.7,-3.724,17.46,1.224,-15.53,-11.23,10.84,-0.0516,-2.882,0,0,0,0,0,0,0,0,0,0,0,0,0,0,0,0,
623,-24.38,-7.54,12.23,7.81,-4.835,-7.684,0.396,-2.398,-1.867,7.018,1.902,-19.15,-22.48,-2.281,-8.349,-12.87,0,0,0,0,0,0,0,0,0,0,0,0,0,0,0,0,
624,-21.49,-17.79,4.636,4.027,-5.143,-8.443,-7.245,-10.78,-1.151,-5.258,-0.8813,-19.62,-25.66,-9.649,-5.621,-9.344,0,0,0,0,0,0,0,0,0,0,0,0,0,0,0,0,
625,-11.21,-16.78,1.85,9.35,-3.107,-5.49,-6.364,-12.79,6.25,-3.728,3.61,-9.928,-14.12,-0.9756,3.364,1.844,0,0,0,0,0,0,0,0,0,0,0,0,0,0,0,0,
626,-4.463,-14.87,-4.277,-5.818,-12.92,-20.53,-17.01,-22.32,3.057,-4.814,2.401,-11.09,-16.88,-4.858,-5.269,-3.135,0,0,0,0,0,0,0,0,0,0,0,0,0,0,0,0,
627,-16.62,-25.43,-14.76,-26.84,-23.96,-37.2,-23.44,-31.77,-8.452,-3.855,-0.4058,-18.06,-22.09,-11.37,-10.18,-7.976,0,0,0,0,0,0,0,0,0,0,0,0,0,0,0,0,
628,-18.87,-20.59,-8.867,-14.04,-17.11,-19.73,-6.497,-26.54,-5.579,6.866,7.659,-12.64,-10.34,-0.812,1.137,-1.868,0,0,0,0,0,0,0,0,0,0,0,0,0,0,0,0,
629,-10.44,-7.538,2.4,-1.964,-9.441,-2.411,0.2933,-21.36,1.394,6.216,12.27,-8.894,-7.844,1.468,3.807,-2.935,0,0,0,0,0,0,0,0,0,0,0,0,0,0,0,0,
630,-14.36,-8.894,9.759,-9.898,-6.662,-5.07,-4.286,-10.72,2.486,0.1038,9.402,-10.74,-11.31,-4.099,3.437,-3.415,0,0,0,0,0,0,0,0,0,0,0,0,0,0,0,0,
631,-11.77,1.52,24.36,5.75,0.7186,4.311,9.742,12.79,7.815,10.46,10.31,-4.87,1.322,4.32,9.646,3.845,0,0,0,0,0,0,0,0,0,0,0,0,0,0,0,0,
632,2.272,20.9,27.83,24.44,0.4878,12.51,18.62,14.48,10.43,18.78,12.51,0.8053,5.847,6.369,6.056,0.8355,0,0,0,0,0,0,0,0,0,0,0,0,0,0,0,0,
633,8.998,18.62,18.17,9.361,-0.6119,5.993,11.34,0.8023,11.69,16.22,18.73,5.56,1.445,2.261,5.558,0.2035,0,0,0,0,0,0,0,0,0,0,0,0,0,0,0,0,
634,18.01,17.96,25.05,2.713,10.36,11.45,17.29,12.95,22.21,22.74,28.82,15.15,13.08,16.4,19.16,14.96,0,0,0,0,0,0,0,0,0,0,0,0,0,0,0,0,
635,25.39,30.09,33.64,14.61,8.695,17.5,22.6,29.73,22.31,27.65,27.68,14.19,16.92,22.73,20.93,16.73,0,0,0,0,0,0,0,0,0,0,0,0,0,0,0,0,
636,11.94,21.02,20.97,6.274,-9.424,0.5188,6.068,23.96,4.426,14.28,17.4,0.6713,-1.721,3.8,8.126,-0.0363,0,0,0,0,0,0,0,0,0,0,0,0,0,0,0,0,
637,-8.372,-1.476,6.397,-11.99,-18.33,-23.73,-9.969,14.19,-6.958,1.35,8.217,-9.166,-12.46,-7.107,2.221,-8.314,0,0,0,0,0,0,0,0,0,0,0,0,0,0,0,0,
638,-16.34,-1.534,5.376,-13.89,-16.58,-29.69,-6.496,12.73,-2.222,4.782,5.363,-6.364,-3.438,2.141,8.841,-0.1983,0,0,0,0,0,0,0,0,0,0,0,0,0,0,0,0,
639,-10.78,14.11,13.79,-4.306,-11.84,-13.36,7.724,18.12,6.984,13.83,12.11,4.568,8.582,10.17,15.85,9.674,0,0,0,0,0,0,0,0,0,0,0,0,0,0,0,0,
640,-2.166,18.96,21.51,2.702,-9.22,-2.792,11.96,20.02,8.351,16.35,13.17,6.946,10.93,9.034,11.57,9.816,0,0,0,0,0,0,0,0,0,0,0,0,0,0,0,0,
641,1.76,17.57,26.19,3.842,-9.905,-3.626,9.204,10.08,9.005,18.19,9.124,8.818,12.84,13.48,12.45,12.5,0,0,0,0,0,0,0,0,0,0,0,0,0,0,0,0,
642,13.7,26.42,34.23,4.024,-5.468,10.37,17.97,6.145,21.72,23.51,22.03,28.24,24.44,26.85,29.12,25.96,0,0,0,0,0,0,0,0,0,0,0,0,0,0,0,0,
643,29.93,33.4,37.04,0.9869,-3.012,20.78,22.41,15.94,29.93,21.5,36.82,41.02,30.04,30.17,36.27,30.28,0,0,0,0,0,0,0,0,0,0,0,0,0,0,0,0,
644,27.32,27.39,31.29,0.236,-10.21,7.2,11.93,20.52,21.19,13.89,32.45,31.6,22.31,21.71,28.53,19.85,0,0,0,0,0,0,0,0,0,0,0,0,0,0,0,0,
645,13.5,22.23,27.51,7.567,-17.89,-3.483,8.194,15.39,13.36,12.52,25.26,23.65,17.35,16.94,25.99,12.6,0,0,0,0,0,0,0,0,0,0,0,0,0,0,0,0,
646,8.424,21.86,26.8,7.977,-19.52,-0.0293,11.16,16.42,17.56,14.52,27.85,26.79,20.52,18.23,31.54,16.51,0,0,0,0,0,0,0,0,0,0,0,0,0,0,0,0,
647,12.43,21.11,28.78,2.481,-11.89,5.964,10.14,24.24,23.23,12.96,28.17,27.97,21.21,19.92,32.61,21.09,0,0,0,0,0,0,0,0,0,0,0,0,0,0,0,0,
648,11.96,19.79,22.91,0.2083,-7.635,2.84,8.905,19.72,16.37,8.753,16.5,18.92,12.86,16.94,21.57,14.81,0,0,0,0,0,0,0,0,0,0,0,0,0,0,0,0,
649,2.017,16.37,11.25,-2.577,-13.68,-6.955,9.72,11.53,6.992,9.495,9.371,12.8,7.729,13.81,13.85,10.1,0,0,0,0,0,0,0,0,0,0,0,0,0,0,0,0,
650,1.539,15.26,18.31,0.192,-10.01,-3.871,12.34,17.97,8.165,14.35,14.53,16.86,11.83,15.92,16.4,14.58,0,0,0,0,0,0,0,0,0,0,0,0,0,0,0,0,
651,6.517,13.03,22.02,-1.531,-8.131,-1.501,7.478,16.87,3.648,9.605,10.96,13.12,8.887,14.49,12.75,13.97,0,0,0,0,0,0,0,0,0,0,0,0,0,0,0,0,
652,-3.027,4.955,8.649,-11.66,-18.7,-10.53,-3.448,9.081,-0.3248,2.714,8.654,9.453,5.724,14.17,13.76,16.15,0,0,0,0,0,0,0,0,0,0,0,0,0,0,0,0,
653,-4.37,8.921,20.37,1.73,-9.405,0.1377,1.06,21.74,13.32,8.88,21.6,19.39,16.52,21.93,25.41,25.05,0,0,0,0,0,0,0,0,0,0,0,0,0,0,0,0,
654,8.163,23.19,40.5,26.08,5.38,19.79,13.68,30.71,16.23,13.85,20.36,19.42,21.89,21.38,23.03,21.02,0,0,0,0,0,0,0,0,0,0,0,0,0,0,0,0,
655,6.119,23.18,30.03,24.19,-5.302,18.06,12.62,20.92,5.243,8.218,9.443,11.63,15.85,13.85,17.26,13.55,0,0,0,0,0,0,0,0,0,0,0,0,0,0,0,0,
656,1.111,13.99,15.95,9.099,-12.77,12.62,6.357,17.04,7.643,4.405,16.14,14.55,11.88,13.99,23.81,14.6,0,0,0,0,0,0,0,0,0,0,0,0,0,0,0,0,
657,6.603,11.12,13.67,-1.492,-6.676,14.08,7.741,18.55,9.518,8.796,21.43,14.11,8.458,15,23.63,12.4,0,0,0,0,0,0,0,0,0,0,0,0,0,0,0,0,T1
658,8.417,14.05,17.59,-1.023,-7.107,13.91,13.59,25.09,4.89,17.14,15.08,9.584,8.141,13.75,17.12,9.397,0,0,0,0,0,0,0,0,0,0,0,0,0,0,0,0,
659,8.705,17.45,26.61,11.33,-10.02,10.97,13.74,37.27,8.743,17.43,13.2,10.15,12.06,13.98,15.38,9.289,0,0,0,0,0,0,0,0,0,0,0,0,0,0,0,0,
660,8.836,13.06,21.52,10.59,-13.57,2.693,3.893,29.54,8,6.677,14.01,6.176,9.037,9.926,12.45,6.707,0,0,0,0,0,0,0,0,0,0,0,0,0,0,0,0,
661,4.095,5.031,10.07,-3,-21.26,-0.7243,-2.95,14.35,-1.317,2.279,12.45,1.608,4.802,4.714,9.154,5.144,0,0,0,0,0,0,0,0,0,0,0,0,0,0,0,0,
662,3.302,6.862,14.21,1.202,-22.68,8.598,2.451,27.3,-2.97,10.64,11.12,4.352,10.98,8.969,8.674,7.429,0,0,0,0,0,0,0,0,0,0,0,0,0,0,0,0,
663,5.151,12.35,17.88,15.24,-15.45,12.43,7.521,44.76,-0.9932,16.95,8.439,2.965,15.12,15,6.213,9.782,0,0,0,0,0,0,0,0,0,0,0,0,0,0,0,0,
664,0.6694,8.984,12.56,12.24,-11.22,1.876,2.151,31.45,-5.614,13.75,2.366,-6.182,6.428,8.382,-0.1892,5.16,0,0,0,0,0,0,0,0,0,0,0,0,0,0,0,0,
665,-4.112,3.401,10.9,2.948,-9.904,-4.807,0.1512,15.66,-8.941,10.66,-1.264,-9.68,2.007,1.472,-3.81,-1.54,0,0,0,0,0,0,0,0,0,0,0,0,0,0,0,0,
666,-0.6268,7.33,14.52,7.255,2.439,4.585,12.22,32.59,-2.554,12.91,4.198,-3.365,10.42,9.181,1.198,3.324,0,0,0,0,0,0,0,0,0,0,0,0,0,0,0,0,
667,6.343,14.61,19.73,10.69,17.63,14.23,17.54,51.97,4.803,11.23,10.63,2.906,14.34,13.95,6.987,9.324,0,0,0,0,0,0,0,0,0,0,0,0,0,0,0,0,
668,9.529,12.48,22.17,1.915,17.42,11,6.922,45.08,6.422,5.843,11.85,7.511,12.71,7.705,8.597,7.086,0,0,0,0,0,0,0,0,0,0,0,0,0,0,0,0,
669,11.97,6.466,21.22,1.294,14.16,7.146,6.157,42.43,7.54,6.131,14.91,12.35,15.73,7.693,11.83,10.41,0,0,0,0,0,0,0,0,0,0,0,0,0,0,0,0,
670,12.18,6.276,20.49,9.516,16.07,5.725,16.15,51.59,6.189,7.373,17.78,11.42,16.48,11.94,13.65,14.46,0,0,0,0,0,0,0,0,0,0,0,0,0,0,0,0,
671,5.036,8.415,19.09,9.048,13.22,0.3369,15.37,47.81,2.049,7.603,16.69,8.32,16.05,12.03,11.63,8.622,0,0,0,0,0,0,0,0,0,0,0,0,0,0,0,0,
672,2.384,11.47,21.04,11.45,15.96,1.512,13.18,45.42,2.657,12.63,16.45,8.752,19.24,14.17,12.32,6.177,0,0,0,0,0,0,0,0,0,0,0,0,0,0,0,0,
673,7.452,13.76,25.9,20.38,24.29,5.563,16.87,48.97,1.938,13.68,13.05,4.408,14.64,13.12,11.2,7.638,0,0,0,0,0,0,0,0,0,0,0,0,0,0,0,0,
674,1.792,7.862,16.26,11.11,13.04,-3.984,9.429,34.89,-5.807,7.176,3.853,-3.518,8.076,5.77,3.962,3.328,0,0,0,0,0,0,0,0,0,0,0,0,0,0,0,0,
675,-8.326,2.947,-3.756,-8.322,-7.327,-10.43,-1.391,22.54,-7.631,6.838,1.869,-1.503,17.08,8.487,4.025,5.159,0,0,0,0,0,0,0,0,0,0,0,0,0,0,0,0,
676,0.0934,12.05,-1.763,-4.847,-3.745,2.581,3.961,28.68,1.707,10.33,10.03,6.598,26.37,17.02,11.23,13.41,0,0,0,0,0,0,0,0,0,0,0,0,0,0,0,0,
677,12.67,20.72,20.58,12.03,16.09,12.48,13.43,28.09,8.983,4.89,13.46,7.421,18.46,12.07,8.679,10.07,0,0,0,0,0,0,0,0,0,0,0,0,0,0,0,0,
678,10.5,16.46,32.53,14.84,30.14,9.935,14.75,24.21,10.91,-0.1704,12.62,6.425,11.44,5.874,5.754,4.616,0,0,0,0,0,0,0,0,0,0,0,0,0,0,0,0,
679,11.91,11.98,32.66,11.13,38.16,10.65,13.69,30.8,13.16,1.935,15.43,7.123,12.32,8.663,12.02,7.551,0,0,0,0,0,0,0,0,0,0,0,0,0,0,0,0,
680,15.37,6.962,26.63,9.277,33.28,3.757,7.029,27.08,5.117,-3.678,8.56,-5.498,1.78,1.968,5.012,0.5754,0,0,0,0,0,0,0,0,0,0,0,0,0,0,0,0,
681,-5.551,-10.07,10.73,-0.1854,14.04,-20.9,-6.754,11.41,-13.68,-14.41,-6.338,-23.27,-13.17,-9.781,-10.55,-11.65,0,0,0,0,0,0,0,0,0,0,0,0,0,0,0,0,
682,-29.26,-22.77,0.2843,-8.035,4.678,-34.97,-15.78,3.839,-17.11,-12.3,-4.517,-20.38,-11.13,-7.491,-4.282,-7.196,0,0,0,0,0,0,0,0,0,0,0,0,0,0,0,0,
683,-21.26,-13.48,3.51,-0.3559,10.91,-22.67,-12.61,8.069,-2.539,-4.269,8.056,-6.237,-0.5634,-1.976,9.416,0.3979,0,0,0,0,0,0,0,0,0,0,0,0,0,0,0,0,
684,-1.298,0.3044,11.77,11.96,18.37,-4.496,-3.038,20.43,3.517,-5.746,6.654,-6.147,0.207,-6.81,1.936,-7.607,0,0,0,0,0,0,0,0,0,0,0,0,0,0,0,0,
685,1.346,-2.319,17.3,14.76,19.59,0.0319,-1.959,26.81,-7.308,-12.2,-8.106,-18.93,-8.484,-14.4,-14.21,-19.12,0,0,0,0,0,0,0,0,0,0,0,0,0,0,0,0,
686,-7.19,-9.783,9.758,13.57,10.58,-6.543,-5.721,23.28,-17.57,-11.03,-17.18,-26.29,-12.1,-13.22,-17.22,-18.95,0,0,0,0,0,0,0,0,0,0,0,0,0,0,0,0,
687,-9.779,-5.75,5.983,17.83,7.342,-8.355,2.005,30.12,-13.03,-2.944,-11.67,-23.08,-8.389,-7.401,-12.45,-13.88,0,0,0,0,0,0,0,0,0,0,0,0,0,0,0,0,
688,-8.912,-4.794,17.35,16.51,13.08,-6.111,5,36.93,-7.774,-1.558,-7.82,-22.85,-11.34,-10.67,-13.33,-15.29,0,0,0,0,0,0,0,0,0,0,0,0,0,0,0,0,
689,-14.94,-14.61,8.403,3.985,-2.134,-10.49,-5.129,23.41,-15.76,-5.975,-13.67,-24.77,-13.72,-14.23,-15.43,-16.23,0,0,0,0,0,0,0,0,0,0,0,0,0,0,0,0,
690,-16.7,-11.65,-7.779,2.151,-17.29,-10.11,-1.257,11.54,-16.58,-3.997,-11.54,-17.53,-4.647,-7.458,-12.87,-12.7,0,0,0,0,0,0,0,0,0,0,0,0,0,0,0,0,
691,-7.716,0.2626,10.02,13.69,2.673,-3.297,7.616,11.99,-2.92,-2.836,-3.836,-12.56,-2.397,-6.998,-11.78,-14.04,0,0,0,0,0,0,0,0,0,0,0,0,0,0,0,0,
692,-5.154,-3.774,25.49,20.36,19.86,-5.992,0.3728,11.8,4.968,-7.347,-3.027,-12.23,-5.783,-11.04,-9.853,-13.98,0,0,0,0,0,0,0,0,0,0,0,0,0,0,0,0,
693,-2.702,-5.414,23.55,27.03,23.57,-1.259,1.919,13.41,12.98,-4.643,4.062,-0.2867,5.163,-1.816,-2.181,-4.513,0,0,0,0,0,0,0,0,0,0,0,0,0,0,0,0,
694,15.26,11.41,42.75,37.87,48.15,23.94,15.42,13.17,30.01,1.05,16.4,11.1,14.15,6.366,2.715,1.632,0,0,0,0,0,0,0,0,0,0,0,0,0,0,0,0,
695,26.89,17.93,63.15,45.8,68.82,38.89,15.03,6.913,38.1,-2.039,16.51,7.321,8.74,2.066,2.152,0.6495,0,0,0,0,0,0,0,0,0,0,0,0,0,0,0,0,
696,24.07,10.44,64.19,55.95,66.04,39.04,14.47,4.963,39.44,-3.664,15.75,7.724,11.84,2.908,5.545,4.522,0,0,0,0,0,0,0,0,0,0,0,0,0,0,0,0,
697,30.61,14.86,71.12,61.87,66.61,47.54,25.74,3.583,46.59,2.634,23.61,16.68,22.6,10.71,12.1,11.37,0,0,0,0,0,0,0,0,0,0,0,0,0,0,0,0,
698,36.93,22.21,74.48,54.13,63.53,52.02,27.84,2.387,46.31,5.393,22.77,14.39,20.36,10.15,12.76,9.899,0,0,0,0,0,0,0,0,0,0,0,0,0,0,0,0,
699,28.13,20.17,67.66,51.77,55.4,48.18,26.45,10.97,41.09,2.986,17.49,10.82,17.93,7.896,13.97,7.038,0,0,0,0,0,0,0,0,0,0,0,0,0,0,0,0,
700,29.86,23.92,72.75,59.38,65.54,54.66,34.47,13.96,46.77,2.966,23.66,20.83,24.89,12.52,21.02,11.05,0,0,0,0,0,0,0,0,0,0,0,0,0,0,0,0,
701,39.74,27.33,72.16,55.88,68.12,52.29,29.6,5.215,45.43,1.177,23.72,22.51,21.33,9.489,18.1,8.369,0,0,0,0,0,0,0,0,0,0,0,0,0,0,0,0,
702,29.87,16.79,54.46,46.17,49.83,33.94,12.17,5.066,30.56,-6.731,11.32,12.87,12.25,1.403,8.413,0.0607,0,0,0,0,0,0,0,0,0,0,0,0,0,0,0,0,
703,20.93,9.079,48.08,44.99,49.21,35.8,9.933,10.99,28.81,-10.4,11.28,18.94,17.03,6.109,15.65,6.989,0,0,0,0,0,0,0,0,0,0,0,0,0,0,0,0,
704,30.99,14.3,51.85,45.39,59.97,51.75,18.41,16.69,38.09,-1.036,22.32,34,26.87,10.98,30.7,22.5,0,0,0,0,0,0,0,0,0,0,0,0,0,0,0,0,
705,36.35,23.21,50.38,42.41,55.41,50.23,22.41,27.35,38.78,8.39,25.31,35,30.42,3.903,29.52,26.26,0,0,0,0,0,0,0,0,0,0,0,0,0,0,0,0,
706,30.36,25,46.81,34.91,51.96,39.36,18.98,25.02,32.9,1.631,19.65,24.28,24.29,0.2036,17.84,20.11,0,0,0,0,0,0,0,0,0,0,0,0,0,0,0,0,
707,22.06,14.13,40.82,26.03,53.79,34.55,9.48,15.29,26.17,-5.766,13.69,16.43,15.16,6.011,16.77,18.19,0,0,0,0,0,0,0,0,0,0,0,0,0,0,0,0,
708,17.81,9.286,41.61,29.87,49.56,38.65,9.582,26.87,24.55,1.805,17.53,21.58,21.26,13.42,28.01,26.05,0,0,0,0,0,0,0,0,0,0,0,0,0,0,0,0,
709,24.04,18.25,46.24,34.35,43.15,42.44,15.95,29.83,27.26,3.516,25.13,29.13,30.7,16.44,32.21,32.03,0,0,0,0,0,0,0,0,0,0,0,0,0,0,0,0,
710,26.73,16.33,31.24,21.25,32.11,31.41,9.969,5.732,22.65,-3.586,21.72,27.38,26,14.3,27.57,30.16,0,0,0,0,0,0,0,0,0,0,0,0,0,0,0,0,
711,20.04,8.265,15.15,10.59,20.28,19.63,4.86,-0.2483,16.66,-0.7943,20.08,27.49,24.09,12.45,27.93,29.64,0,0,0,0,0,0,0,0,0,0,0,0,0,0,0,0,
712,19.23,9.982,18.43,9.277,17.55,19.68,4.427,9.988,16.66,-1.79,25.76,26.87,26.12,10.88,25.87,27.94,0,0,0,0,0,0,0,0,0,0,0,0,0,0,0,0,
713,18.24,6.555,16.99,6.196,17.01,16.02,-2.589,5.255,13.84,-10.39,19.23,15.7,20.05,8.209,16.44,21.28,0,0,0,0,0,0,0,0,0,0,0,0,0,0,0,0,
714,10.67,1.766,11.22,11.48,18.53,8.242,-0.7574,3.198,9.855,-7.532,6.879,8.946,16.47,8.769,12.49,18.07,0,0,0,0,0,0,0,0,0,0,0,0,0,0,0,0,
715,7.826,7.076,15.41,16.33,24.92,7.007,6.603,9.279,8.926,-3.023,7.651,12.3,17.72,7.922,15.82,18.54,0,0,0,0,0,0,0,0,0,0,0,0,0,0,0,0,
716,8.66,7.369,14.59,7.838,25.87,8.963,0.9271,6.705,8.146,-4.601,14.6,14.99,15.73,0.8743,19.57,17.56,0,0,0,0,0,0,0,0,0,0,0,0,0,0,0,0,
717,8.526,0.2197,9.15,9.005,23.54,9.335,-5.785,0.0015,9.994,-5.327,15,12.45,9.328,-4.961,16.12,12.68,0,0,0,0,0,0,0,0,0,0,0,0,0,0,0,0,
718,6.751,-4.523,10.77,21.39,25.71,7.906,-6.607,-6.048,12.78,-10.49,10.58,5.633,1.731,-6.764,6.442,6.468,0,0,0,0,0,0,0,0,0,0,0,0,0,0,0,0,
719,3.062,-3.533,10.51,20.63,26.76,10.25,-4.427,-9.298,13.31,-12.75,13.46,6.132,4.865,-7.131,6.665,7.769,0,0,0,0,0,0,0,0,0,0,0,0,0,0,0,0,
720,6.177,5.016,3.964,11.16,23.36,13.72,3.202,-7.522,13.28,-7.995,23.68,15.83,15.35,-4.314,14,12.68,0,0,0,0,0,0,0,0,0,0,0,0,0,0,0,0,
721,13.64,9.391,2.787,9.753,21.48,6.061,6.046,-7.353,10.15,-10.13,22.61,17.32,16.1,-3.245,11.56,11.61,0,0,0,0,0,0,0,0,0,0,0,0,0,0,0,0,
722,12.82,5.43,12.1,13.03,25.63,-3.684,4.059,-8.353,5.769,-12.42,10.96,12.67,13.88,-10.3,6.447,9.157,0,0,0,0,0,0,0,0,0,0,0,0,0,0,0,0,
723,8.382,6.337,17.13,9.465,30.08,-4.206,5.74,-8.315,4.553,-10.43,8.14,12.29,13.33,-15.31,7.408,7.233,0,0,0,0,0,0,0,0,0,0,0,0,0,0,0,0,
724,5.655,5.211,8.108,4.511,26.71,-6.127,2.664,-8.668,1.357,-15.17,9.512,8.531,3.995,-9.307,7.006,2.8,0,0,0,0,0,0,0,0,0,0,0,0,0,0,0,0,
725,3.31,-0.534,1.007,8.467,20.45,-6.428,1.081,-3.379,-2.45,-15.34,7.041,6.935,2.141,4.731,8.631,4.261,0,0,0,0,0,0,0,0,0,0,0,0,0,0,0,0,
726,10.16,9.816,6.641,12.78,20.52,6.022,11.91,6.52,2.188,-4.543,13.47,16.9,16.21,21.66,18.11,13.93,0,0,0,0,0,0,0,0,0,0,0,0,0,0,0,0,
727,22.01,22.51,13.58,11.76,24.64,14.51,15.71,9.371,8.931,-2.752,22.52,20.18,17.89,27.09,22.55,18.01,0,0,0,0,0,0,0,0,0,0,0,0,0,0,0,0,
728,20.28,14.21,9.245,10.73,21.19,5.252,6.852,5.471,5.667,-11.78,17.32,12.17,10.39,21.15,17.3,15.24,0,0,0,0,0,0,0,0,0,0,0,0,0,0,0,0,
729,11.38,9.957,-3.79,10.27,8.122,-6.158,3.774,8.201,-3.137,-13.67,9.434,9.781,14.44,19.94,12.79,13.85,0,0,0,0,0,0,0,0,0,0,0,0,0,0,0,0,
730,8.458,15.69,-6.976,11.3,7.027,-9.094,2.531,16.75,-5.466,-13.09,7.559,7.199,10.03,9.777,7.031,7.243,0,0,0,0,0,0,0,0,0,0,0,0,0,0,0,0,
731,5.296,5.313,4.489,9.924,28.4,-9.802,-4.802,14.29,1.905,-23.59,7.96,2.763,-0.7916,-7.329,3.2,1.021,0,0,0,0,0,0,0,0,0,0,0,0,0,0,0,0,
732,5.683,-0.7471,11.35,5.104,44.35,-10.74,-7.913,5.851,10.21,-26.3,16.14,10.98,8.988,-0.8062,11.2,9.087,0,0,0,0,0,0,0,0,0,0,0,0,0,0,0,0,
733,15.05,13.5,10.3,9.032,40.95,-10.5,-3.312,10.71,11.18,-10.98,22.8,18.94,18.77,7.276,15.5,12.96,0,0,0,0,0,0,0,0,0,0,0,0,0,0,0,0,
734,18.11,14.54,9.768,15.34,36.6,-9.635,-0.0834,20.08,10.01,-9.98,16.47,14.17,10.31,-1.913,9.228,4.121,0,0,0,0,0,0,0,0,0,0,0,0,0,0,0,0,
735,11.05,0.1494,0.9676,9.601,30.56,-11.57,-6.701,16.89,8.858,-24.18,11.91,10.14,3.377,1.302,9.366,4.398,0,0,0,0,0,0,0,0,0,0,0,0,0,0,0,0,
736,6.385,-1.106,-10.62,6.941,20.25,-18.03,-10.1,10.1,4.263,-22.75,15.53,10.75,5.771,7.188,11.22,9.084,0,0,0,0,0,0,0,0,0,0,0,0,0,0,0,0,
737,4.891,7.755,-7.025,14.99,20.19,-25.51,-1.806,10.37,1.536,-18.74,14.18,8.348,5.502,-5.643,2.303,2.354,0,0,0,0,0,0,0,0,0,0,0,0,0,0,0,0,
738,0.9493,2.671,-3.587,14.31,18.21,-33.97,-9.521,10.62,-0.92,-20.7,7.05,2.12,-2.358,-10.14,-4.04,-0.7477,0,0,0,0,0,0,0,0,0,0,0,0,0,0,0,0,
739,1.661,-5.991,-7.734,10.57,13.19,-32.74,-11.73,14.13,-0.001,-9.441,12.91,7.539,8.494,7.735,9.051,14.27,0,0,0,0,0,0,0,0,0,0,0,0,0,0,0,0,
740,16.74,24.17,2.647,21.04,30.29,-11.37,30.54,29.43,14.6,-5.964,32.88,28.65,41.59,18.25,27.4,29.16,0,0,0,0,0,0,0,0,0,0,0,0,0,0,0,0,
741,29.54,59.38,12.77,26.52,44.94,1.542,45.2,35.94,20.72,-16.1,35.01,30.91,42.59,1.515,22.85,21.96,0,0,0,0,0,0,0,0,0,0,0,0,0,0,0,0,
742,22.14,26.75,2.984,17.87,36.59,-10.57,0.1714,25.93,8.17,-1.038,18.25,10.36,12.76,-15.22,6.232,6.302,0,0,0,0,0,0,0,0,0,0,0,0,0,0,0,0,
743,9.751,-26.25,-5.501,11.06,34.23,-24,-21.69,25.51,4.04,18.63,14.96,2.366,-0.9157,-8.078,4.308,3.622,0,0,0,0,0,0,0,0,0,0,0,0,0,0,0,0,
744,4.872,-25.58,-8.719,3.935,36.68,-27.88,-9.781,35.18,9.133,8.854,25.41,8.425,1.988,13.82,15.61,15.78,0,0,0,0,0,0,0,0,0,0,0,0,0,0,0,0,
745,11.42,9.877,-6.103,5.771,41.63,-16.03,6.691,43.3,16.73,6.951,39.07,20.13,21.69,40.23,30.19,33.49,0,0,0,0,0,0,0,0,0,0,0,0,0,0,0,0,
746,24.18,31.44,5.455,14.24,51.3,-5.421,14.79,45.52,21.2,18.53,42.02,21.69,25.96,31.72,25.56,24.63,0,0,0,0,0,0,0,0,0,0,0,0,0,0,0,0,
747,8.892,-1.135,-6.572,-5.249,29.88,-30.12,-18.63,28.18,1.745,10.19,18.22,-4.561,-16.9,-17.76,-1.268,-7.293,0,0,0,0,0,0,0,0,0,0,0,0,0,0,0,0,
748,-16.41,-39.29,-21.33,-15.64,10.35,-43.42,-31.9,19.45,-10.38,7.797,4.977,-12.35,-22.81,-17.93,-2.797,-3.371,0,0,0,0,0,0,0,0,0,0,0,0,0,0,0,0,
749,0.3354,-4.454,7.407,19.48,40.97,-12.28,16.68,41.68,9.618,21.76,20.15,12.4,21.08,25.42,17.74,21.29,0,0,0,0,0,0,0,0,0,0,0,0,0,0,0,0,
750,18.28,25.15,25.02,29.53,52.17,-3.749,21.82,41.52,10.06,13.84,17.35,9.932,16.52,14.57,11.51,11.87,0,0,0,0,0,0,0,0,0,0,0,0,0,0,0,0,
751,-0.4329,-8.322,0.3765,0.23,20.44,-25.25,-17.7,12.88,-12.56,-0.3709,-1.228,-10.33,-10.02,-12.64,-6.187,-4.533,0,0,0,0,0,0,0,0,0,0,0,0,0,0,0,0,
752,-12.19,-25.28,-9.201,-7.742,13.15,-30.36,-19.05,9.158,-13.04,2.837,-2.349,-7.46,-5.112,2.509,-5.959,-1.519,0,0,0,0,0,0,0,0,0,0,0,0,0,0,0,0,
753,-5.756,-15.49,5.281,2.07,27.35,-25.17,-7.537,20.74,1.058,-1.83,6.144,4.153,3.377,13.14,3.815,6.27,0,0,0,0,0,0,0,0,0,0,0,0,0,0,0,0,
754,4.474,-2.119,17.18,11.59,35.13,-14.03,-0.138,20.17,10.3,-6.007,11.55,9.348,11.94,3.656,8.316,9.824,0,0,0,0,0,0,0,0,0,0,0,0,0,0,0,0,
755,12.65,9.936,17.08,10.17,36.97,-9.597,3.477,12.96,8.52,9.18,5.852,0.1568,4.329,-3.846,-1.945,-2.145,0,0,0,0,0,0,0,0,0,0,0,0,0,0,0,0,
756,1.125,-12.26,2.8,-11.39,28.01,-23.32,-8.919,7.985,-0.1036,13.89,-2.183,-10.17,-12.55,-4.805,-4.186,-7.777,0,0,0,0,0,0,0,0,0,0,0,0,0,0,0,0,
757,-3.621,-12.31,3.212,-7.701,28.29,-14.92,6.822,18.88,7.174,7.096,11.04,7.848,16.43,9.432,19.18,16.17,0,0,0,0,0,0,0,0,0,0,0,0,0,0,0,0,
758,20.56,32.08,24.68,25,43.98,9.781,32.1,33.08,24.06,17.99,32.91,31.08,45.69,29.36,37.35,34.38,0,0,0,0,0,0,0,0,0,0,0,0,0,0,0,0,
759,33.69,24.19,31.19,28.76,52.04,16.5,16.19,24.25,33.84,29.1,44.55,36.05,30.01,34.48,41.49,34.65,0,0,0,0,0,0,0,0,0,0,0,0,0,0,0,0,
760,33.95,0.3091,25.65,14.9,58.18,26.21,10.91,11.15,40.27,22.55,45.82,36.67,24.14,22.9,43.03,32.91,0,0,0,0,0,0,0,0,0,0,0,0,0,0,0,0,
761,38.86,19.94,23.19,12.94,54.87,26.76,22.45,11.1,30.1,16.84,29.72,25.66,23.87,11.16,29,19.69,0,0,0,0,0,0,0,0,0,0,0,0,0,0,0,0,
762,23.48,8.698,13.11,6.338,27.76,1.454,6.292,7.328,6.638,12.77,9.722,6.134,5.373,15.25,9.032,6.807,0,0,0,0,0,0,0,0,0,0,0,0,0,0,0,0,
763,2.095,-15.92,4.056,1.831,11.44,-4.224,-1.205,-1.38,-0.5316,4.578,4.42,1.576,4.144,14.61,3.564,6.923,0,0,0,0,0,0,0,0,0,0,0,0,0,0,0,0,
764,4.004,-2.499,6.404,6.191,15.19,3.189,7.989,-4.817,2.636,6.51,2.89,4.301,10.39,3.183,5.629,5.862,0,0,0,0,0,0,0,0,0,0,0,0,0,0,0,0,
765,8.505,0.9914,9.467,2.348,10.58,-8.396,-0.3592,-7.346,6.519,15.32,8.058,8.159,6.693,13.75,15.14,12.25,0,0,0,0,0,0,0,0,0,0,0,0,0,0,0,0,
766,14.03,-1.286,11.86,1.327,6.996,-8.054,-4.796,-9.286,18.77,18.61,23.43,17.04,11,23.34,25.4,21.66,0,0,0,0,0,0,0,0,0,0,0,0,0,0,0,0,
767,26.53,6.873,12.83,6.208,10.16,0.164,1.075,-3.927,20.65,20.61,21.19,15.2,10.26,7.734,17.05,10.6,0,0,0,0,0,0,0,0,0,0,0,0,0,0,0,0,
768,20.55,2.896,6.354,-0.9813,0.2864,-13.55,-0.2588,2.238,8.833,21.28,11.11,9.556,8.578,17.32,13.07,6.611,0,0,0,0,0,0,0,0,0,0,0,0,0,0,0,0,
769,11.85,16.68,5.426,-1.153,-4.967,-15.5,7.114,-3.663,11.95,18.54,25.94,19.16,20.94,39.09,27.77,21.69,0,0,0,0,0,0,0,0,0,0,0,0,0,0,0,0,
770,21.26,31.52,13.05,5.408,9.326,2.128,13.89,-19.74,18.1,14.44,31.43,18.56,10.66,11.78,18.67,11.38,0,0,0,0,0,0,0,0,0,0,0,0,0,0,0,0,
771,13.46,-0.4191,7.822,-14.13,10.64,-0.0531,-1.656,-28.24,6.279,9.322,7.106,0.3568,-11.49,-12.36,-6.448,-8.391,0,0,0,0,0,0,0,0,0,0,0,0,0,0,0,0,
772,-3.639,-16.97,0.386,-25.14,-2.784,-9.842,-9.595,-14.26,3.932,10.89,6.201,2.624,2.636,14.36,1.883,7.492,0,0,0,0,0,0,0,0,0,0,0,0,0,0,0,0,
773,8.255,10.95,11.94,-3.289,1.152,-6.376,3.255,6.543,17.57,15.83,26.65,15.55,14.91,24.49,15.46,21.42,0,0,0,0,0,0,0,0,0,0,0,0,0,0,0,0,
774,17.67,17.41,16.44,-3.263,9.66,-8.257,4.931,5.13,19.47,13.63,21.49,10.02,-0.6092,5.23,6.141,9.811,0,0,0,0,0,0,0,0,0,0,0,0,0,0,0,0,
775,6.47,6.177,1.846,-20.79,1.148,-15.85,-7.813,-7.269,15.97,12.97,13.41,7.859,0.5946,12.06,6.098,9.868,0,0,0,0,0,0,0,0,0,0,0,0,0,0,0,0,
776,4.933,7.075,-3.273,-14.75,-4.795,-20.39,-18.23,-5.215,16.43,13.45,19.29,10.51,5.544,22.05,6.669,11.37,0,0,0,0,0,0,0,0,0,0,0,0,0,0,0,0,
777,3.687,-5.494,1.115,-12.5,0.7455,-27.16,-24.82,-0.9741,7.229,8.243,11.29,-1.912,-15.09,4.27,-9.187,-5.182,0,0,0,0,0,0,0,0,0,0,0,0,0,0,0,0,
778,-7.585,-19.53,-2.44,-23.03,0.0018,-30.33,-21.41,-7.073,-1.741,6.401,2.568,-6.319,-21.9,-4.692,-8.821,-7.603,0,0,0,0,0,0,0,0,0,0,0,0,0,0,0,0,
779,-5.101,-3.168,-4.56,-21.07,-3.489,-28.05,-10.14,-13.22,4.048,6.109,13.19,7.289,-3.673,7.443,9.088,8.795,0,0,0,0,0,0,0,0,0,0,0,0,0,0,0,0,
780,9.723,14.12,6.931,-12.53,7.755,-21.22,-5.737,-14.25,14.92,8.132,25.18,16.35,4.89,16.34,16.77,16.71,0,0,0,0,0,0,0,0,0,0,0,0,0,0,0,0,
781,21.45,7.942,22.17,-2.545,21.27,-4.677,-3.082,-8.481,21.51,15.91,28.61,17.92,3.054,14.1,13.32,12.32,0,0,0,0,0,0,0,0,0,0,0,0,0,0,0,0,
782,24.6,4.733,23.16,0.7049,16.85,0.6448,2.801,-4.177,17.6,9.696,24.26,15.4,3.563,6.962,5.577,3.983,0,0,0,0,0,0,0,0,0,0,0,0,0,0,0,0,
783,15.01,14.44,11.63,-11.23,6.509,-13.93,0.4242,-14.75,4.691,0.0992,12.32,8.405,2.13,6.744,0.5064,-0.1939,0,0,0,0,0,0,0,0,0,0,0,0,0,0,0,0,
784,3.986,13.18,3.999,-12.08,1.236,-15.25,-6.479,-20.03,-2.927,12.85,2.046,2.13,-2.986,10.58,0.1047,0.1336,0,0,0,0,0,0,0,0,0,0,0,0,0,0,0,0,
785,-0.694,-2.107,3.029,-8.274,-9.017,-6.888,-9.885,-9.174,-5.807,18.84,-3.871,-5.819,-10.27,2.418,-6.298,-4.968,0,0,0,0,0,0,0,0,0,0,0,0,0,0,0,0,
786,-9.409,-13.47,0.9375,-33.62,-20.84,-20.3,-18.34,-15.83,-12.54,2.664,-10.3,-14.84,-18.96,-9.378,-15.49,-13.49,0,0,0,0,0,0,0,0,0,0,0,0,0,0,0,0,
787,-19.09,-21.16,-7.555,-53.46,-24.72,-35.72,-29.05,-34.1,-16.99,-6.857,-15.32,-18.3,-26.72,-12.89,-18.25,-18.22,0,0,0,0,0,0,0,0,0,0,0,0,0,0,0,0,
788,-23,-29.09,-19.53,-39.24,-24.73,-31.81,-30.18,-29.09,-18.11,-9.467,-18.19,-20.07,-30.51,-15.41,-20.84,-20.72,0,0,0,0,0,0,0,0,0,0,0,0,0,0,0,0,
789,-26.52,-24.76,-22.27,-33.64,-20.63,-26.32,-25.44,-20.73,-18.99,-11.38,-18.54,-18.73,-24.75,-10.47,-20.85,-17.07,0,0,0,0,0,0,0,0,0,0,0,0,0,0,0,0,
790,-21.86,-7.843,-12.27,-38.92,-10.88,-17.71,-16.43,-20.62,-11.24,-2.991,-10.37,-6.519,-11.54,4.947,-10.35,-6.182,0,0,0,0,0,0,0,0,0,0,0,0,0,0,0,0,
791,-5.998,3.559,-0.9626,-23.84,-4.213,-2.956,-4.95,-10.81,-2.317,-1.498,-2.358,1.388,-9.503,1.814,-7.83,-7.431,0,0,0,0,0,0,0,0,0,0,0,0,0,0,0,0,
792,-2.994,0.0143,0.3159,-15.92,-6.201,-7.411,-9.026,-13.56,-11.16,-17.03,-10.85,-10.55,-26.65,-23.05,-24.49,-26.93,0,0,0,0,0,0,0,0,0,0,0,0,0,0,0,0,
793,-17.71,-13.09,-12.35,-31.61,-13.25,-23.53,-25.52,-29.64,-28.15,-25.6,-26.41,-23.78,-38.25,-30.74,-34.15,-36.32,0,0,0,0,0,0,0,0,0,0,0,0,0,0,0,0,
794,-26.8,-21.54,-27.33,-42.88,-20.62,-25.14,-29.88,-24.97,-36.77,-21.9,-33.91,-25.35,-30.8,-19.89,-29.25,-28.72,0,0,0,0,0,0,0,0,0,0,0,0,0,0,0,0,
795,-27.34,-20.63,-28.65,-47.28,-26.15,-25.19,-27.29,-17.63,-38.99,-18.6,-34.29,-28.39,-28.88,-22.17,-32.2,-30.76,0,0,0,0,0,0,0,0,0,0,0,0,0,0,0,0,
796,-30.59,-24.9,-24.42,-49.63,-31.04,-33.33,-32.7,-22.79,-39.3,-17.61,-30.37,-32.62,-37.33,-30.5,-40.63,-40.6,0,0,0,0,0,0,0,0,0,0,0,0,0,0,0,0,
797,-35.05,-31.33,-30.77,-49.53,-37.66,-37.33,-36.32,-19.82,-44.48,-22.89,-31.16,-30.76,-33.19,-28.32,-40.41,-38.55,0,0,0,0,0,0,0,0,0,0,0,0,0,0,0,0,
798,-36.83,-24.47,-36.51,-57.13,-39.64,-34.55,-34.84,-18.56,-51.61,-29.6,-39.81,-30.17,-28.26,-29.37,-37.73,-34.61,0,0,0,0,0,0,0,0,0,0,0,0,0,0,0,0,
799,-36.71,-24.03,-27.63,-57.67,-28.8,-25.54,-37.68,-26.74,-47.53,-28.92,-44.28,-34.39,-41.64,-36.81,-41.05,-41.72,0,0,0,0,0,0,0,0,0,0,0,0,0,0,0,0,
800,-36.54,-37.54,-17.31,-42.97,-17.18,-17.98,-38.06,-30.72,-39.76,-32.53,-43.2,-36.66,-47.59,-36.64,-44.68,-46.11,0,0,0,0,0,0,0,0,0,0,0,0,0,0,0,0,
801,-33.83,-33.26,-15.78,-39.63,-20.87,-20.54,-31.59,-33.91,-35.29,-37.85,-37.45,-31.24,-34.85,-31.23,-39.11,-37.77,0,0,0,0,0,0,0,0,0,0,0,0,0,0,0,0,
802,-29.66,-23.38,-22.76,-49,-32.06,-24.11,-33.92,-35.87,-29.91,-34.07,-29.01,-26.93,-33.73,-32.6,-34.29,-33.52,0,0,0,0,0,0,0,0,0,0,0,0,0,0,0,0,
803,-34.69,-33.93,-38.85,-53.35,-33.39,-25.9,-42.66,-33.41,-30.87,-36.45,-30.9,-33.77,-43.99,-38.16,-40.65,-40.59,0,0,0,0,0,0,0,0,0,0,0,0,0,0,0,0,
804,-40.16,-33.34,-41.22,-50.74,-23.92,-27.45,-39,-32.72,-30.54,-40.57,-34.73,-36.35,-41.75,-36.88,-41.96,-42.07,0,0,0,0,0,0,0,0,0,0,0,0,0,0,0,0,
805,-31.76,-20.09,-20.45,-38.98,-19.84,-21.11,-31.71,-27.01,-20.34,-31.08,-27.84,-27.83,-36.89,-34.02,-34.69,-38.65,0,0,0,0,0,0,0,0,0,0,0,0,0,0,0,0,
806,-25.72,-28.48,-12.28,-27.32,-24.6,-13.53,-31.95,-16.86,-19.4,-25.63,-23.21,-25.67,-38.77,-37.61,-33.57,-39.45,0,0,0,0,0,0,0,0,0,0,0,0,0,0,0,0,
807,-29.12,-35.43,-22.46,-31.23,-23.08,-13.53,-30.76,-16.19,-26.9,-28.31,-27.74,-29.02,-36.52,-37.45,-36.13,-38.18,0,0,0,0,0,0,0,0,0,0,0,0,0,0,0,0,
808,-28.93,-23.21,-21.31,-32.85,-16.25,-12.35,-29.55,-17.55,-25.77,-26.4,-34.73,-26.34,-30.78,-30.03,-36.33,-35.85,0,0,0,0,0,0,0,0,0,0,0,0,0,0,0,0,
809,-25.03,-13.82,-8.85,-14.3,-9.886,-4.07,-27.51,-9.774,-20.5,-25.04,-33.29,-18.28,-23.5,-25.27,-31.19,-32.86,0,0,0,0,0,0,0,0,0,0,0,0,0,0,0,0,
810,-20.25,-6.888,-3.921,-5.877,-1.27,1.911,-23.24,-5.743,-20.22,-27.12,-25.31,-14.56,-21.36,-27.27,-26.15,-28.49,0,0,0,0,0,0,0,0,0,0,0,0,0,0,0,0,
811,-22.28,-11.06,-13.86,-19.9,-1.466,-1.255,-28.79,-12.94,-27.51,-30.07,-30.87,-22.55,-31.37,-31.37,-31.86,-30.63,0,0,0,0,0,0,0,0,0,0,0,0,0,0,0,0,
812,-29.07,-26.79,-20.1,-12.91,-6.413,1.065,-25.99,-16.78,-30.49,-27.09,-36.81,-23.77,-29.54,-27.86,-31.16,-28.7,0,0,0,0,0,0,0,0,0,0,0,0,0,0,0,0,
813,-19.59,-16.68,-4.281,10.19,-0.6211,10.72,-4.738,-13.19,-21.59,-16.18,-27.37,-14.29,-15.58,-23.62,-22.9,-22.69,0,0,0,0,0,0,0,0,0,0,0,0,0,0,0,0,
814,-12.11,-4.422,5.648,3.928,-0.9446,2.712,-6.785,-13.71,-22.73,-14.83,-31.31,-23.17,-23.08,-31.51,-33.14,-31.88,0,0,0,0,0,0,0,0,0,0,0,0,0,0,0,0,
815,-26.69,-26.38,-9.26,-8.836,-9.531,-11.3,-29.08,-18.33,-31.28,-17.47,-39.5,-33.87,-31.5,-30.78,-37.81,-35.48,0,0,0,0,0,0,0,0,0,0,0,0,0,0,0,0,
816,-26.67,-28.7,-19.56,-4.995,-2.345,-3.403,-28.41,-22.36,-22.64,-11.52,-23.41,-19.33,-14.61,-12.79,-19.06,-20.22,0,0,0,0,0,0,0,0,0,0,0,0,0,0,0,0,
817,-11.13,-1.138,-15.05,-8.389,10.05,4.482,-20.13,-26.81,-15.68,-19.84,-19.3,-15.32,-10.31,-11.67,-18.7,-19.27,0,0,0,0,0,0,0,0,0,0,0,0,0,0,0,0,
818,-21.02,-8.293,-15.77,-13.22,6.048,-6.124,-27.67,-29.01,-28.6,-35.33,-40,-33.24,-28.81,-29.31,-35.28,-30.34,0,0,0,0,0,0,0,0,0,0,0,0,0,0,0,0,
819,-39.03,-32.85,-24.07,-14.04,-5.57,-14.07,-33.32,-25.65,-37.47,-28.06,-41.8,-35.31,-31.67,-31.42,-32.13,-26.52,0,0,0,0,0,0,0,0,0,0,0,0,0,0,0,0,
820,-34.45,-27.13,-23.04,-17.78,-8.179,-8.612,-31.36,-18.13,-31.91,-19.31,-29.75,-26.01,-23.63,-22.91,-26.42,-22.61,0,0,0,0,0,0,0,0,0,0,0,0,0,0,0,0,
821,-26.02,-20.76,-11.53,-7.772,-2.845,0.4857,-30.77,-14.98,-29.16,-26.28,-34.4,-28.09,-28.58,-28.21,-35.24,-30.41,0,0,0,0,0,0,0,0,0,0,0,0,0,0,0,0,
822,-25.26,-26.23,-8.288,3.172,-0.6481,6.383,-29.53,-18.48,-30.82,-27.28,-35.8,-26.4,-29.15,-33.58,-35.18,-31.64,0,0,0,0,0,0,0,0,0,0,0,0,0,0,0,0,
823,-19.49,-16.94,-10.11,-1.501,0.2906,6.771,-29.06,-14.49,-25.28,-21.8,-22.53,-18.68,-21.31,-26.73,-26.79,-27.84,0,0,0,0,0,0,0,0,0,0,0,0,0,0,0,0,
824,-15.71,-12.35,-3.691,-0.2892,1.802,-0.8504,-31.46,-6.898,-23.12,-23.38,-24.28,-25.45,-26.95,-28.33,-30.31,-31.61,0,0,0,0,0,0,0,0,0,0,0,0,0,0,0,0,
825,-22.63,-20.98,-0.7265,2.991,-1.941,-7.935,-25.45,-11.79,-34.27,-24.97,-37.63,-32.86,-31.05,-36.14,-35.56,-32.27,0,0,0,0,0,0,0,0,0,0,0,0,0,0,0,0,
826,-25.85,-12.98,-3.463,-1.253,-0.9137,-1.221,-14.39,-14.22,-38.6,-19.64,-36.43,-23.33,-21.2,-28.3,-31.12,-26.96,0,0,0,0,0,0,0,0,0,0,0,0,0,0,0,0,
827,-21.9,-6.76,-1.881,0.5628,9.04,8.86,-18.29,-5.361,-29.22,-12.93,-30.77,-14.42,-19.06,-15.04,-24.37,-22.87,0,0,0,0,0,0,0,0,0,0,0,0,0,0,0,0,
828,-18.3,-18.2,-3.081,-1.646,14.9,9.1,-27.83,-4.476,-23.45,-11.91,-28.82,-12.88,-21.08,-14.96,-17.23,-15.94,0,0,0,0,0,0,0,0,0,0,0,0,0,0,0,0,
829,-15.24,-20.49,-11.88,-15.5,14.59,3.838,-30.23,-7.366,-23.24,-20.81,-24.52,-14.89,-23.79,-30.82,-17.29,-19.81,0,0,0,0,0,0,0,0,0,0,0,0,0,0,0,0,
830,-20.3,-26.4,-19.2,-20.82,9.757,-2.937,-36.36,1.841,-19.81,-32.01,-23.63,-22.05,-36.22,-47.34,-25.34,-36.01,0,0,0,0,0,0,0,0,0,0,0,0,0,0,0,0,
831,-23.16,-34.5,-13.69,-8.644,6.915,3.721,-30.23,10.67,-10.6,-30.34,-17.58,-18.08,-31.04,-39.11,-22.1,-32.25,0,0,0,0,0,0,0,0,0,0,0,0,0,0,0,0,
832,-4.592,-8.894,0.1237,7.608,16.97,25.01,-5.845,9.456,-2.517,-19.16,-4.317,-5.604,-9.374,-22.07,-14.81,-18.94,0,0,0,0,0,0,0,0,0,0,0,0,0,0,0,0,
833,9.091,13.48,4.545,11.81,27.52,28.04,-0.3084,12.14,-2.669,-11.04,-4.617,-6.223,-5.669,-19.12,-15.95,-18.61,0,0,0,0,0,0,0,0,0,0,0,0,0,0,0,0,
834,3.08,6.651,3.709,10.17,27.26,17.69,-5.156,22.07,-0.8443,-4.146,-10.09,-8.133,-3.609,-7.471,-10.82,-9.775,0,0,0,0,0,0,0,0,0,0,0,0,0,0,0,0,
835,3.224,11.16,4.937,12.68,23.57,19.03,3.446,24.46,1.933,-1.096,-10.23,-9.567,1.134,1.736,-11.05,-4.347,0,0,0,0,0,0,0,0,0,0,0,0,0,0,0,0,
836,0.9251,12.3,-3.353,4.92,14.03,13.3,-2.459,17.37,-10.92,-6.484,-20.98,-24.96,-14.82,-21.06,-27.67,-22.83,0,0,0,0,0,0,0,0,0,0,0,0,0,0,0,0,
837,-12.65,-3.525,-11.67,-6.612,4.139,3.904,-15.37,13.45,-19.34,-4.837,-25.85,-27.49,-19.16,-31.59,-25.83,-24.89,0,0,0,0,0,0,0,0,0,0,0,0,0,0,0,0,
838,-7.392,4.676,-2.757,0.5494,11.41,16.25,-5.697,16.57,-1.055,6.529,-5.812,-7.372,0.9553,-7.821,-4.392,-3.121,0,0,0,0,0,0,0,0,0,0,0,0,0,0,0,0,
839,7.21,13.06,5.437,3.799,21.04,24.9,-6.421,15.65,12.04,4.129,4.142,-3.69,-1.012,-3.662,-2.458,-1.719,0,0,0,0,0,0,0,0,0,0,0,0,0,0,0,0,
840,0.5927,-8.953,-4.797,-10.4,14.96,14.74,-26.99,4.732,2.991,-11.15,-7.69,-16.79,-15.97,-19.03,-11.16,-13.41,0,0,0,0,0,0,0,0,0,0,0,0,0,0,0,0,
841,-6.312,-12.46,-11.78,-6.623,15.44,15.02,-22.65,2.138,4.216,-10.63,-5.402,-13.26,-4.435,-9.374,-3.761,-7.719,0,0,0,0,0,0,0,0,0,0,0,0,0,0,0,0,
842,2.485,9.948,2.43,12.52,28.49,26.77,-1.998,14.16,15.49,1.835,3.948,-2.324,8.707,2.05,1.834,-0.8637,0,0,0,0,0,0,0,0,0,0,0,0,0,0,0,0,
843,4.109,14.31,10.86,9.865,26.93,31.97,-3.137,11.69,10.19,-5.635,-5.746,-7.587,-0.4133,-13.57,-9.195,-9.45,0,0,0,0,0,0,0,0,0,0,0,0,0,0,0,0,
844,-2.963,6.442,1.393,1.646,17.84,32.6,-11.44,-3.6,4.269,-20.73,-12.45,-16.14,-7.638,-23.37,-16.83,-16.55,0,0,0,0,0,0,0,0,0,0,0,0,0,0,0,0,
845,-1.4,6.31,7.116,15.32,22.13,31.74,-4.976,0.9614,11.28,-9.204,-4.742,-11.42,-2.827,-11.43,-10.11,-9.885,0,0,0,0,0,0,0,0,0,0,0,0,0,0,0,0,
846,5.924,9.9,25.06,25.82,23.63,33.68,2.51,10.04,12.13,6.026,-0.331,-3.404,1.784,-1.515,-2.203,-0.5605,0,0,0,0,0,0,0,0,0,0,0,0,0,0,0,0,
847,7.98,11.37,19.58,13.11,12.77,36.59,-2.553,-2.65,8.661,-4.164,0.3748,-6.174,-1.339,-4.865,-5.971,-4.432,0,0,0,0,0,0,0,0,0,0,0,0,0,0,0,0,
848,0.9444,4.015,4.091,-0.5971,5.836,26.92,-13,-13.7,10.14,-7.723,-3.644,-13.5,-7.676,-10.69,-13.09,-12.35,0,0,0,0,0,0,0,0,0,0,0,0,0,0,0,0,
849,-6.191,1.674,4.154,-1.173,5.061,16.39,-15.12,-11.18,6.693,10.33,-9.444,-10.91,-2.162,-3.428,-7.533,-4.612,0,0,0,0,0,0,0,0,0,0,0,0,0,0,0,0,
850,-4.633,12.96,3.26,-5.238,1.531,17.82,-11.09,-17.39,0.7023,11.52,-2.728,-5.292,4.032,3.652,-0.4548,2.73,0,0,0,0,0,0,0,0,0,0,0,0,0,0,0,0,
851,-2.52,9.648,-1.98,-12.71,4.824,19.79,-10.6,-23.45,5.235,-4.174,7.201,-4.386,-1.423,-6.403,-0.3704,-1.486,0,0,0,0,0,0,0,0,0,0,0,0,0,0,0,0,
852,4.05,5.025,10.54,0.5055,25.76,28.41,-1.142,-11.97,19.4,-1.011,12.11,1.662,6.431,-4.431,6.631,3.839,0,0,0,0,0,0,0,0,0,0,0,0,0,0,0,0,
853,16.76,24.16,23.31,15.81,40.35,35.46,16.7,-9.582,25.33,6.517,13.17,1.738,13.28,9.556,7.166,6.45,0,0,0,0,0,0,0,0,0,0,0,0,0,0,0,0,
854,9.628,21.86,13.66,3.352,31.47,18.29,11.34,-18.69,14.66,-6.513,3.333,-10.29,-4.928,-4.098,-5.951,-6.024,0,0,0,0,0,0,0,0,0,0,0,0,0,0,0,0,
