%OpenBCI Raw EXG Data
%Number of channels = 16
%Sample Rate = 125 Hz
%Board = OpenBCI_GUI$BoardCytonSerialDaisy
Sample Index,EXG Channel 0,EXG Channel 1,EXG Channel 2,EXG Channel 3,EXG Channel 4,EXG Channel 5,EXG Channel 6,EXG Channel 7,EXG Channel 8,EXG Channel 9,EXG Channel 10,EXG Channel 11,EXG Channel 12,EXG Channel 13,EXG Channel 14,EXG Channel 15,Accel Channel 0,Accel Channel 1,Accel Channel 2,Other,Other.1,Other.2,Other.3,Other.4,Other.5,Other.6,Analog Channel 0,Analog Channel 1,Analog Channel 2,Timestamp,Other.7,Timestamp (Formatted),Annotations
1,-0.0,-0.0,0.0,-0.0,0.0,0.0,-0.0,0.0,0.0,0.0,0.0,-0.0,0.0,-0.0,0.0,0.0,0,0,0,0,0,0,0,0,0,0,0,0,0,0,0,0,T0
2,11.41,11.44,5.799,-13.54,3.695,-5.302,0.1367,-6.673,21.03,10.66,-8.203,-10.08,-7.67,-6.644,-18.48,-12.47,0,0,0,0,0,0,0,0,0,0,0,0,0,0,0,0,
3,8.632,10.82,0.75,-3.588,8.131,0.5152,-1.786,-6.384,22.07,1.42,-11.91,-6.474,-11.96,-5.621,-21.32,-13.9,0,0,0,0,0,0,0,0,0,0,0,0,0,0,0,0,
4,9.631,17.6,6.646,12.77,15.28,5.777,-4.576,-5.476,31.74,-0.3132,-11.02,-1.907,-12.36,-3.283,-16.45,-7.694,0,0,0,0,0,0,0,0,0,0,0,0,0,0,0,0,
5,7.798,4.599,1.988,0.9808,5.752,-4.542,-13.36,-6.524,34.47,1.864,-18.26,-2.053,-19.96,-2.956,-20.18,-3.767,0,0,0,0,0,0,0,0,0,0,0,0,0,0,0,0,
6,-5.306,-24.71,-16.88,-15.15,-11.99,-16.07,-25.92,-2.993,8.559,-4.791,-35.13,-2.776,-36.49,-3.245,-34.96,-14.01,0,0,0,0,0,0,0,0,0,0,0,0,0,0,0,0,
7,-14.53,-22.64,-7.323,-14.87,-12.73,-23.24,-31.53,-2.915,-12.25,-8.025,-41.85,-3.103,-42.81,-4.107,-46.48,-28.01,0,0,0,0,0,0,0,0,0,0,0,0,0,0,0,0,
8,-19.06,-8.759,5.625,-19.35,-12.9,-30.09,-29.96,-7.549,-12.29,-8.441,-34.8,2.457,-34.72,-0.5809,-46.73,-23.89,0,0,0,0,0,0,0,0,0,0,0,0,0,0,0,0,
9,-21.85,-6.223,-14.9,-15.99,-20.56,-22.61,-34.61,-3.938,-6.393,-5.352,-37.85,1.443,-37.07,-1.518,-51.38,-24.03,0,0,0,0,0,0,0,0,0,0,0,0,0,0,0,0,
10,-18.65,0.3449,-25.72,-2.458,-15.99,-13.73,-47.87,-3.539,-3.158,-3.656,-53.95,-18.24,-53.42,-18.8,-63.36,-47.88,0,0,0,0,0,0,0,0,0,0,0,0,0,0,0,0,
11,-7.066,6.588,-4.786,2.195,-0.8653,-11.84,-45.61,-7.713,-1.286,-10.15,-55.29,-28.11,-54.34,-29.24,-64.65,-60.8,0,0,0,0,0,0,0,0,0,0,0,0,0,0,0,0,
12,10.57,14.12,6.563,14.74,9.514,7.484,-29.4,1.631,10.14,-2.859,-45.61,-25.17,-44.71,-26.72,-67.93,-58.63,0,0,0,0,0,0,0,0,0,0,0,0,0,0,0,0,
13,14.69,22.22,-10.0,19.3,5.21,18.04,-32.92,2.409,21.91,6.567,-50.72,-46.55,-51.9,-45.68,-86.69,-72.34,0,0,0,0,0,0,0,0,0,0,0,0,0,0,0,0,
14,-1.776,11.74,-30.78,-7.62,-11.48,-8.598,-44.57,-19.57,15.62,-17.04,-53.34,-74.59,-55.08,-74.47,-88.67,-84.32,0,0,0,0,0,0,0,0,0,0,0,0,0,0,0,0,
15,-9.06,2.325,-28.78,-14.86,-15.09,-22.39,-35.01,-28.7,10.96,-40.37,-35.14,-69.56,-34.63,-72.57,-66.71,-76.25,0,0,0,0,0,0,0,0,0,0,0,0,0,0,0,0,
16,7.417,18.36,-3.147,14.16,4.844,0.0852,-24.67,-19.31,26.37,-28.26,-23.71,-50.88,-22.28,-54.19,-57.11,-72.85,0,0,0,0,0,0,0,0,0,0,0,0,0,0,0,0,
17,20.14,32.35,14.53,20.46,17.89,13.22,-31.66,-19.33,40.82,-13.73,-31.3,-41.3,-30.68,-43.66,-59.31,-76.22,0,0,0,0,0,0,0,0,0,0,0,0,0,0,0,0,
18,17.28,30.29,10.66,1.531,15.67,8.707,-34.1,-21.92,44.3,-13.41,-34.71,-30.6,-35.04,-32.15,-53.11,-69.31,0,0,0,0,0,0,0,0,0,0,0,0,0,0,0,0,
19,26.17,34.9,11.48,9.513,25.36,17.94,-28.67,-13.37,50.56,-6.019,-33.41,-22.35,-35.64,-22.69,-54.0,-61.89,0,0,0,0,0,0,0,0,0,0,0,0,0,0,0,0,
20,43.92,38.67,20.06,28.7,34.87,26.63,-39.71,-10.59,51.69,-2.36,-39.26,-24.09,-42.0,-24.3,-62.46,-55.39,0,0,0,0,0,0,0,0,0,0,0,0,0,0,0,0,
21,40.28,32.12,13.58,15.29,24.02,17.12,-44.09,-15.22,44.47,-13.16,-28.52,-19.77,-30.25,-20.32,-46.18,-34.53,0,0,0,0,0,0,0,0,0,0,0,0,0,0,0,0,
22,33.78,47.76,2.548,6.778,20.7,24.72,-13.32,-11.92,57.0,-5.378,0.1833,-10.29,-3.688,-10.37,-22.17,-21.02,0,0,0,0,0,0,0,0,0,0,0,0,0,0,0,0,
23,42.73,74.77,6.016,29.42,28.34,45.03,-4.206,-10.8,75.28,18.27,-3.523,-17.55,-9.21,-17.81,-34.14,-40.55,0,0,0,0,0,0,0,0,0,0,0,0,0,0,0,0,
24,43.36,65.85,18.43,25.77,27.68,32.1,-34.26,-18.32,61.24,15.48,-32.38,-33.35,-35.43,-33.82,-55.3,-64.37,0,0,0,0,0,0,0,0,0,0,0,0,0,0,0,0,
25,40.53,47.06,37.71,-4.401,35.1,10.07,-32.89,-22.81,43.92,-1.304,-31.31,-38.93,-33.21,-38.58,-45.12,-65.87,0,0,0,0,0,0,0,0,0,0,0,0,0,0,0,0,
26,45.01,53.22,48.47,0.4883,40.47,13.93,-15.46,-24.13,49.57,-2.663,-10.74,-36.7,-13.9,-36.45,-22.59,-54.81,0,0,0,0,0,0,0,0,0,0,0,0,0,0,0,0,
27,37.83,54.92,27.1,21.99,20.15,17.8,-30.55,-21.43,51.52,-1.396,-0.4243,-27.79,-3.135,-28.44,-8.924,-41.25,0,0,0,0,0,0,0,0,0,0,0,0,0,0,0,0,
28,33.12,47.81,14.1,16.64,14.23,13.14,-30.43,-15.8,48.58,-6.354,5.081,-19.34,2.086,-20.5,-4.629,-41.79,0,0,0,0,0,0,0,0,0,0,0,0,0,0,0,0,
29,51.15,55.1,41.66,5.208,39.72,15.37,-4.0,-13.16,53.56,-12.07,5.626,-19.54,1.659,-21.89,-7.19,-58.84,0,0,0,0,0,0,0,0,0,0,0,0,0,0,0,0,
30,66.21,65.26,49.28,9.194,51.26,20.49,0.1282,-0.9598,60.21,-12.87,2.917,-17.33,0.2078,-19.81,-7.998,-63.05,0,0,0,0,0,0,0,0,0,0,0,0,0,0,0,0,
31,83.39,86.85,52.86,31.2,68.02,34.93,6.201,18.55,71.66,-4.417,4.435,-16.46,2.337,-16.8,-13.51,-56.32,0,0,0,0,0,0,0,0,0,0,0,0,0,0,0,0,
32,156.9,158.4,154.7,76.58,148.0,69.0,44.29,22.91,87.26,-1.512,5.778,-24.38,2.57,-24.36,-28.66,-57.96,0,0,0,0,0,0,0,0,0,0,0,0,0,0,0,0,
33,277.1,265.4,285.8,130.1,245.7,110.7,66.81,20.87,99.76,-6.65,6.234,-21.66,3.08,-24.0,-34.71,-53.96,0,0,0,0,0,0,0,0,0,0,0,0,0,0,0,0,
34,373.8,367.9,325.5,180.0,298.2,155.9,58.25,33.38,108.9,6.201,9.041,-6.873,6.516,-10.56,-28.56,-43.12,0,0,0,0,0,0,0,0,0,0,0,0,0,0,0,0,
35,446.8,470.4,360.0,227.7,350.8,206.2,69.84,55.69,114.0,36.14,18.1,2.878,15.47,-0.2115,-19.71,-41.38,0,0,0,0,0,0,0,0,0,0,0,0,0,0,0,0,
36,545.9,580.6,468.5,265.4,441.8,252.0,104.4,73.0,129.2,59.92,38.09,12.01,35.24,9.904,-2.131,-36.88,0,0,0,0,0,0,0,0,0,0,0,0,0,0,0,0,
37,655.8,683.7,566.2,310.0,529.1,301.0,123.2,80.78,168.5,81.95,62.65,25.42,59.48,24.51,22.31,-19.43,0,0,0,0,0,0,0,0,0,0,0,0,0,0,0,0,
38,734.8,776.3,601.4,365.0,582.8,354.4,130.4,86.73,206.6,111.9,80.36,37.99,77.72,38.63,37.1,-2.696,0,0,0,0,0,0,0,0,0,0,0,0,0,0,0,0,
39,789.1,855.7,622.3,393.6,617.5,389.5,139.0,98.37,217.1,136.4,90.53,52.86,89.66,53.96,43.54,12.38,0,0,0,0,0,0,0,0,0,0,0,0,0,0,0,0,
40,837.5,911.3,682.3,412.6,665.1,418.7,148.3,110.6,222.0,154.8,106.1,68.56,105.4,69.68,59.92,33.48,0,0,0,0,0,0,0,0,0,0,0,0,0,0,0,0,
41,869.1,937.9,756.0,443.9,718.5,454.4,167.3,111.7,249.1,178.9,125.6,71.94,123.2,74.95,77.16,42.98,0,0,0,0,0,0,0,0,0,0,0,0,0,0,0,0,
42,873.1,939.6,766.6,448.8,727.6,466.4,186.3,108.6,272.4,196.1,128.7,67.11,126.3,70.75,73.01,34.78,0,0,0,0,0,0,0,0,0,0,0,0,0,0,0,0,
43,869.9,932.1,738.8,431.4,708.2,455.9,187.4,117.2,263.8,198.9,123.5,73.97,121.7,74.96,66.57,39.83,0,0,0,0,0,0,0,0,0,0,0,0,0,0,0,0,
44,860.7,909.4,725.3,413.7,695.5,440.6,175.5,120.5,249.6,198.6,122.4,87.19,120.7,87.55,73.96,58.34,0,0,0,0,0,0,0,0,0,0,0,0,0,0,0,0,
45,816.7,859.0,677.1,388.5,654.5,417.2,162.9,109.4,246.7,192.7,113.1,89.96,112.7,92.25,73.17,61.51,0,0,0,0,0,0,0,0,0,0,0,0,0,0,0,0,
46,754.8,803.5,606.1,369.5,595.3,395.3,158.4,106.6,242.0,184.4,105.2,84.37,104.8,87.2,63.08,54.31,0,0,0,0,0,0,0,0,0,0,0,0,0,0,0,0,
47,704.4,745.2,583.0,345.1,563.1,366.5,154.5,103.1,234.2,174.4,105.1,68.36,102.9,70.87,56.38,42.37,0,0,0,0,0,0,0,0,0,0,0,0,0,0,0,0,
48,654.9,688.1,568.9,321.3,532.6,335.5,142.2,91.33,218.1,148.9,98.35,48.17,96.01,49.56,51.63,24.0,0,0,0,0,0,0,0,0,0,0,0,0,0,0,0,0,
49,614.8,671.8,523.3,342.3,491.0,340.6,136.2,91.33,197.4,132.6,99.94,45.23,97.13,45.31,56.71,21.91,0,0,0,0,0,0,0,0,0,0,0,0,0,0,0,0,
50,584.5,653.2,471.1,340.2,454.1,334.0,131.6,80.68,194.6,137.5,105.6,43.07,100.6,44.38,61.81,29.31,0,0,0,0,0,0,0,0,0,0,0,0,0,0,0,0,
51,526.5,567.4,415.7,260.7,406.0,265.9,110.5,53.65,191.3,116.4,82.9,25.07,78.79,26.94,49.93,23.13,0,0,0,0,0,0,0,0,0,0,0,0,0,0,0,0,
52,463.0,487.2,370.2,208.8,361.7,219.4,89.77,54.39,164.7,80.58,58.36,20.34,57.09,20.28,45.95,22.84,0,0,0,0,0,0,0,0,0,0,0,0,0,0,0,0,
53,448.8,481.8,356.2,224.5,354.7,238.8,80.14,68.42,149.4,83.47,58.79,26.12,57.8,26.49,54.25,23.84,0,0,0,0,0,0,0,0,0,0,0,0,0,0,0,0,
54,458.0,491.5,350.7,233.9,359.8,252.6,65.7,60.04,158.4,97.92,53.37,14.48,51.84,15.87,42.62,-0.3039,0,0,0,0,0,0,0,0,0,0,0,0,0,0,0,0,
55,438.7,463.3,337.9,217.9,343.6,234.1,54.14,49.33,158.3,89.48,42.14,6.816,40.93,6.154,24.96,-17.53,0,0,0,0,0,0,0,0,0,0,0,0,0,0,0,0,
56,400.6,422.1,326.1,197.4,317.5,217.8,55.86,45.63,149.7,82.02,49.88,14.46,48.48,13.75,24.79,-9.457,0,0,0,0,0,0,0,0,0,0,0,0,0,0,0,0,
57,367.5,389.7,302.3,177.1,292.5,204.7,54.8,36.96,149.9,79.97,61.11,12.18,58.51,13.95,23.03,-10.03,0,0,0,0,0,0,0,0,0,0,0,0,0,0,0,0,
58,334.5,352.6,265.8,151.3,263.6,178.3,58.45,32.36,147.9,71.74,67.72,9.856,63.41,10.8,19.78,-16.45,0,0,0,0,0,0,0,0,0,0,0,0,0,0,0,0,
59,310.6,313.9,258.3,120.6,248.8,154.6,84.95,32.22,146.2,68.95,80.55,22.07,75.66,21.18,31.63,-9.33,0,0,0,0,0,0,0,0,0,0,0,0,0,0,0,0,
60,305.2,293.7,274.7,106.1,251.9,149.6,98.88,23.08,151.6,68.13,82.81,26.51,78.51,26.58,43.89,1.847,0,0,0,0,0,0,0,0,0,0,0,0,0,0,0,0,
61,285.7,278.7,246.6,107.6,231.1,145.4,73.81,11.48,137.8,54.67,62.94,14.49,58.9,15.32,41.99,12.61,0,0,0,0,0,0,0,0,0,0,0,0,0,0,0,0,
62,238.7,249.9,189.5,96.2,185.2,126.9,48.72,4.332,99.4,32.38,40.83,-8.037,38.22,-7.467,30.45,9.585,0,0,0,0,0,0,0,0,0,0,0,0,0,0,0,0,
63,202.3,218.3,176.2,72.5,160.8,101.7,43.66,-6.114,74.34,6.313,31.61,-36.34,30.85,-35.7,16.65,-18.38,0,0,0,0,0,0,0,0,0,0,0,0,0,0,0,0,
64,188.1,191.5,173.2,61.75,151.7,86.37,35.15,-10.45,77.02,-10.14,32.38,-51.3,30.13,-50.74,4.669,-42.79,0,0,0,0,0,0,0,0,0,0,0,0,0,0,0,0,
65,172.7,162.7,137.2,61.47,131.2,84.59,19.55,-2.833,79.72,-3.789,29.75,-52.17,26.24,-51.13,-13.91,-51.72,0,0,0,0,0,0,0,0,0,0,0,0,0,0,0,0,
66,153.5,132.8,119.1,49.29,116.5,75.82,10.35,-6.433,70.56,1.043,16.61,-56.37,15.15,-55.03,-41.53,-63.41,0,0,0,0,0,0,0,0,0,0,0,0,0,0,0,0,
67,136.7,115.3,118.9,32.83,108.0,57.83,3.675,-22.27,67.25,-11.4,1.544,-60.4,-0.2869,-60.29,-60.75,-74.67,0,0,0,0,0,0,0,0,0,0,0,0,0,0,0,0,
68,115.9,108.8,88.38,30.98,85.15,53.47,-10.4,-28.77,67.53,-16.98,-7.975,-58.81,-12.26,-59.09,-56.74,-71.02,0,0,0,0,0,0,0,0,0,0,0,0,0,0,0,0,
69,95.55,94.6,63.81,31.74,65.88,55.9,-19.7,-28.19,59.69,-10.1,-5.025,-52.66,-8.213,-51.83,-29.91,-50.49,0,0,0,0,0,0,0,0,0,0,0,0,0,0,0,0,
70,78.74,73.48,63.89,22.72,54.13,43.49,-20.39,-31.47,53.9,-10.51,4.733,-48.76,2.455,-46.97,-6.026,-35.37,0,0,0,0,0,0,0,0,0,0,0,0,0,0,0,0,
71,48.79,50.12,38.9,4.243,22.31,18.07,-37.61,-40.17,39.46,-25.71,-1.28,-62.32,-5.752,-59.91,-6.83,-46.68,0,0,0,0,0,0,0,0,0,0,0,0,0,0,0,0,
72,16.64,20.8,9.82,-17.45,-6.123,-1.221,-58.12,-46.44,8.391,-43.0,-12.14,-76.37,-17.28,-74.34,-10.02,-57.09,0,0,0,0,0,0,0,0,0,0,0,0,0,0,0,0,
73,8.515,2.276,6.97,-22.05,-7.521,-1.091,-53.07,-44.41,-1.074,-45.11,-7.63,-72.78,-11.53,-71.52,-7.891,-49.83,0,0,0,0,0,0,0,0,0,0,0,0,0,0,0,0,
74,2.434,-3.23,-8.543,-16.47,-15.93,0.41,-46.11,-47.42,11.78,-43.41,-6.295,-74.98,-9.461,-73.25,-20.65,-49.95,0,0,0,0,0,0,0,0,0,0,0,0,0,0,0,0,
75,-10.84,-12.67,-15.97,-25.22,-23.83,-9.463,-43.52,-54.93,13.17,-51.83,-11.78,-79.61,-14.49,-77.44,-30.62,-50.3,0,0,0,0,0,0,0,0,0,0,0,0,0,0,0,0,
76,-1.721,-17.2,8.992,-35.74,-4.225,-10.3,-28.58,-52.09,16.38,-50.14,-12.02,-69.28,-15.07,-66.99,-26.34,-43.09,0,0,0,0,0,0,0,0,0,0,0,0,0,0,0,0,
77,13.8,-15.44,10.67,-37.97,9.126,-4.088,-22.3,-51.04,27.95,-38.88,-16.98,-71.11,-20.91,-68.37,-29.5,-56.72,0,0,0,0,0,0,0,0,0,0,0,0,0,0,0,0,
78,7.076,-23.59,1.232,-42.35,3.655,-10.3,-28.11,-60.1,28.43,-43.17,-23.27,-88.24,-27.07,-86.61,-29.55,-77.84,0,0,0,0,0,0,0,0,0,0,0,0,0,0,0,0,
79,-11.15,-40.92,9.289,-46.98,-5.66,-22.75,-28.16,-68.57,24.93,-54.73,-20.02,-89.48,-23.02,-89.65,-12.04,-71.82,0,0,0,0,0,0,0,0,0,0,0,0,0,0,0,0,
80,-30.38,-60.09,-7.402,-53.68,-22.33,-32.02,-26.71,-74.68,25.91,-56.24,-9.59,-76.8,-12.02,-76.28,4.138,-53.28,0,0,0,0,0,0,0,0,0,0,0,0,0,0,0,0,
81,-35.04,-68.77,-14.95,-65.25,-21.89,-35.71,-18.17,-74.24,34.46,-48.34,9.834,-64.37,6.912,-62.31,10.94,-43.19,0,0,0,0,0,0,0,0,0,0,0,0,0,0,0,0,
82,-21.48,-63.87,15.2,-72.7,-3.066,-35.8,-1.659,-67.3,52.03,-37.73,25.52,-55.87,21.69,-54.32,12.81,-37.26,0,0,0,0,0,0,0,0,0,0,0,0,0,0,0,0,
83,-21.51,-65.22,11.13,-71.49,-6.845,-38.96,5.325,-61.42,56.41,-36.77,27.48,-52.71,24.01,-52.65,14.03,-27.17,0,0,0,0,0,0,0,0,0,0,0,0,0,0,0,0,
84,-32.38,-70.44,-10.96,-61.17,-15.42,-37.26,7.376,-47.98,47.54,-38.49,32.6,-47.14,28.72,-47.38,19.5,-11.29,0,0,0,0,0,0,0,0,0,0,0,0,0,0,0,0,
85,-37.42,-70.61,-15.05,-57.56,-20.45,-35.16,-5.057,-35.22,43.7,-30.09,21.99,-51.62,15.59,-50.62,5.08,-16.18,0,0,0,0,0,0,0,0,0,0,0,0,0,0,0,0,
86,-72.21,-92.54,-70.04,-81.27,-73.77,-61.07,-64.57,-50.78,15.34,-41.43,-36.53,-86.73,-43.89,-84.85,-46.81,-63.36,0,0,0,0,0,0,0,0,0,0,0,0,0,0,0,0,
87,-129.6,-132.8,-135.5,-106.0,-135.0,-96.5,-128.3,-74.26,-45.44,-82.76,-90.36,-117.7,-96.43,-116.6,-87.73,-105.4,0,0,0,0,0,0,0,0,0,0,0,0,0,0,0,0,
88,-136.8,-141.3,-107.7,-98.86,-122.0,-93.95,-123.7,-71.88,-70.84,-99.07,-84.34,-112.9,-89.3,-112.0,-83.69,-104.9,0,0,0,0,0,0,0,0,0,0,0,0,0,0,0,0,
89,-105.5,-119.6,-68.21,-86.23,-91.97,-75.14,-100.2,-73.3,-48.23,-81.32,-70.93,-112.9,-74.81,-110.6,-77.85,-106.3,0,0,0,0,0,0,0,0,0,0,0,0,0,0,0,0,
90,-104.8,-112.6,-96.09,-92.41,-109.0,-82.52,-119.7,-98.53,-45.83,-83.24,-89.58,-132.6,-93.7,-130.6,-89.57,-123.5,0,0,0,0,0,0,0,0,0,0,0,0,0,0,0,0,
91,-113.6,-115.8,-102.3,-91.59,-110.7,-91.33,-115.1,-104.0,-61.29,-97.76,-89.22,-130.6,-95.58,-130.5,-87.49,-119.4,0,0,0,0,0,0,0,0,0,0,0,0,0,0,0,0,
92,-94.35,-107.3,-63.39,-74.97,-77.14,-78.15,-64.87,-81.44,-44.96,-88.97,-59.71,-115.2,-66.37,-115.8,-76.81,-111.3,0,0,0,0,0,0,0,0,0,0,0,0,0,0,0,0,
93,-77.75,-101.3,-49.75,-68.53,-62.15,-65.62,-44.72,-64.97,-22.35,-77.53,-44.78,-114.6,-49.84,-114.8,-74.89,-116.2,0,0,0,0,0,0,0,0,0,0,0,0,0,0,0,0,
94,-69.92,-101.7,-42.62,-71.58,-54.11,-60.41,-45.4,-51.59,-22.08,-74.01,-42.4,-106.6,-47.88,-107.1,-68.16,-106.1,0,0,0,0,0,0,0,0,0,0,0,0,0,0,0,0,
95,-57.57,-97.35,-24.88,-67.35,-42.95,-55.42,-36.65,-39.97,-22.89,-63.56,-40.93,-87.69,-48.12,-88.35,-57.15,-90.63,0,0,0,0,0,0,0,0,0,0,0,0,0,0,0,0,
96,-65.14,-97.11,-48.84,-67.19,-64.61,-55.73,-54.98,-40.41,-28.47,-56.79,-49.4,-75.85,-57.13,-75.9,-50.64,-84.43,0,0,0,0,0,0,0,0,0,0,0,0,0,0,0,0,
97,-86.57,-103.8,-88.83,-77.17,-90.45,-57.01,-86.67,-33.93,-43.95,-53.47,-58.31,-59.95,-64.59,-59.05,-44.32,-67.82,0,0,0,0,0,0,0,0,0,0,0,0,0,0,0,0,
98,-88.59,-105.1,-84.27,-77.12,-81.88,-52.94,-95.5,-24.01,-44.26,-43.26,-57.46,-46.2,-61.19,-44.31,-42.13,-54.49,0,0,0,0,0,0,0,0,0,0,0,0,0,0,0,0,
99,-80.47,-99.3,-68.83,-68.08,-74.62,-46.93,-96.6,-32.56,-32.17,-38.67,-48.18,-53.2,-51.83,-51.52,-42.74,-61.68,0,0,0,0,0,0,0,0,0,0,0,0,0,0,0,0,
100,-76.02,-90.02,-73.97,-66.73,-79.74,-39.65,-90.62,-42.29,-27.13,-38.69,-35.43,-60.63,-41.15,-60.11,-38.68,-62.75,0,0,0,0,0,0,0,0,0,0,0,0,0,0,0,0,
101,-62.1,-77.98,-62.77,-61.94,-61.73,-31.04,-66.68,-41.17,-22.67,-31.85,-29.29,-52.43,-34.98,-52.23,-37.16,-49.8,0,0,0,0,0,0,0,0,0,0,0,0,0,0,0,0,
102,-44.44,-72.32,-32.86,-53.32,-34.82,-26.42,-40.25,-43.48,-9.103,-26.58,-20.27,-43.68,-25.38,-42.8,-35.35,-41.75,0,0,0,0,0,0,0,0,0,0,0,0,0,0,0,0,
103,-45.99,-79.72,-27.92,-64.77,-35.02,-30.6,-21.96,-43.47,9.619,-26.31,4.428,-38.91,-2.106,-37.59,-20.94,-36.45,0,0,0,0,0,0,0,0,0,0,0,0,0,0,0,0,
104,-60.55,-89.43,-49.24,-78.39,-49.46,-37.86,-12.72,-27.07,25.65,-22.15,24.87,-31.88,18.48,-31.22,-6.743,-27.43,0,0,0,0,0,0,0,0,0,0,0,0,0,0,0,0,
105,-76.23,-102.2,-66.29,-66.09,-64.49,-41.42,-14.79,-3.405,29.9,-16.32,26.31,-25.7,22.58,-26.0,-4.878,-20.3,0,0,0,0,0,0,0,0,0,0,0,0,0,0,0,0,
106,-99.18,-122.1,-65.99,-48.45,-80.58,-41.08,-18.54,12.84,23.09,-16.45,24.52,-20.16,22.17,-19.52,-0.4618,-14.29,0,0,0,0,0,0,0,0,0,0,0,0,0,0,0,0,
107,-105.6,-117.0,-45.44,-41.8,-71.3,-34.49,-15.88,19.09,20.28,-18.88,23.79,-15.53,20.78,-13.0,5.044,-12.61,0,0,0,0,0,0,0,0,0,0,0,0,0,0,0,0,
108,-78.28,-84.63,-19.56,-40.93,-41.4,-31.96,-17.92,15.11,20.8,-21.05,11.59,-19.01,8.13,-17.82,-7.225,-21.98,0,0,0,0,0,0,0,0,0,0,0,0,0,0,0,0,
109,-59.32,-70.89,-12.07,-40.35,-34.31,-40.17,-24.93,5.933,11.81,-27.63,-2.71,-24.02,-5.729,-25.81,-23.52,-31.39,0,0,0,0,0,0,0,0,0,0,0,0,0,0,0,0,
110,-63.83,-69.82,-21.98,-29.27,-46.38,-38.82,-26.72,1.511,3.782,-33.48,-4.726,-25.39,-7.53,-26.15,-23.43,-35.42,0,0,0,0,0,0,0,0,0,0,0,0,0,0,0,0,
111,-69.23,-64.87,-37.59,-26.06,-54.59,-33.52,-34.24,-2.204,5.623,-36.24,-0.9859,-30.22,-4.917,-29.35,-12.75,-35.47,0,0,0,0,0,0,0,0,0,0,0,0,0,0,0,0,
112,-78.72,-80.95,-41.94,-42.48,-55.44,-40.33,-44.83,-6.633,9.895,-39.7,4.777,-28.46,-0.3476,-30.07,0.2212,-21.0,0,0,0,0,0,0,0,0,0,0,0,0,0,0,0,0,
113,-81.74,-93.38,-31.59,-35.27,-45.96,-32.04,-39.34,-1.675,17.13,-33.02,8.915,-17.74,5.029,-20.09,7.965,-7.198,0,0,0,0,0,0,0,0,0,0,0,0,0,0,0,0,
114,-62.08,-72.39,-29.77,-11.92,-36.58,-9.711,-24.11,4.828,23.78,-15.01,10.79,-17.26,9.304,-16.71,13.97,-16.43,0,0,0,0,0,0,0,0,0,0,0,0,0,0,0,0,
115,-40.36,-60.1,-15.94,-24.69,-24.4,-10.12,-2.978,-0.6614,30.12,-2.41,26.13,-25.38,24.44,-23.72,24.86,-31.8,0,0,0,0,0,0,0,0,0,0,0,0,0,0,0,0,
116,-32.03,-68.17,26.15,-42.69,-3.509,-20.83,23.46,-10.3,41.68,-0.4288,47.68,-29.21,43.65,-28.05,26.36,-35.77,0,0,0,0,0,0,0,0,0,0,0,0,0,0,0,0,
117,-39.25,-69.31,31.38,-33.8,-6.935,-18.25,42.09,-8.001,48.13,-0.3507,65.48,-22.0,60.06,-21.41,29.65,-22.65,0,0,0,0,0,0,0,0,0,0,0,0,0,0,0,0,
118,-51.1,-74.0,3.604,-33.63,-24.3,-15.45,56.37,3.08,56.16,7.899,88.49,-9.892,83.13,-9.633,48.37,-1.664,0,0,0,0,0,0,0,0,0,0,0,0,0,0,0,0,
119,-40.22,-78.76,18.52,-34.52,-11.37,-17.18,59.6,4.489,69.57,12.41,95.58,-12.17,90.82,-11.34,57.45,3.83,0,0,0,0,0,0,0,0,0,0,0,0,0,0,0,0,
120,-33.76,-72.04,23.36,-20.37,-7.927,-17.39,42.04,6.276,69.48,3.511,90.22,-5.753,85.37,-6.099,74.24,19.19,0,0,0,0,0,0,0,0,0,0,0,0,0,0,0,0,
121,-76.91,-87.94,-44.14,-32.51,-50.56,-25.18,30.54,23.67,73.4,10.63,105.4,25.96,99.64,25.04,107.4,53.48,0,0,0,0,0,0,0,0,0,0,0,0,0,0,0,0,
122,-107.6,-107.0,-65.19,-47.83,-65.75,-32.65,37.3,30.93,83.29,27.57,107.9,27.74,102.6,30.45,95.95,46.51,0,0,0,0,0,0,0,0,0,0,0,0,0,0,0,0,
123,-48.37,-57.56,37.82,-7.291,-3.409,-10.02,52.62,23.9,69.07,18.74,84.38,1.152,80.19,5.278,58.53,17.48,0,0,0,0,0,0,0,0,0,0,0,0,0,0,0,0,
124,35.75,17.34,124.6,31.31,59.82,27.11,66.68,26.81,64.33,17.94,78.64,6.748,74.0,8.803,57.44,29.87,0,0,0,0,0,0,0,0,0,0,0,0,0,0,0,0,
125,48.85,24.64,98.04,5.561,56.0,31.18,57.46,23.75,86.85,43.53,76.66,22.11,72.96,23.67,60.13,43.95,0,0,0,0,0,0,0,0,0,0,0,0,0,0,0,0,
126,19.06,-8.596,53.6,-29.22,33.42,12.84,41.31,5.37,91.16,47.23,65.46,15.46,64.1,16.21,48.97,30.68,0,0,0,0,0,0,0,0,0,0,0,0,0,0,0,0,
127,12.23,-19.92,52.89,-28.14,44.23,12.66,49.17,-0.0592,89.15,35.43,74.3,14.41,72.7,15.13,56.29,29.44,0,0,0,0,0,0,0,0,0,0,0,0,0,0,0,0,
128,27.3,-16.67,56.25,-18.33,61.29,21.96,49.34,7.649,104.8,41.86,83.63,17.14,81.37,20.92,68.48,34.74,0,0,0,0,0,0,0,0,0,0,0,0,0,0,0,0,
129,31.89,-21.63,52.32,-21.09,52.5,13.25,23.48,4.698,101.8,40.75,70.1,3.626,68.83,7.82,66.48,21.8,0,0,0,0,0,0,0,0,0,0,0,0,0,0,0,0,
130,12.82,-32.15,38.3,-29.5,27.17,-6.652,11.64,-5.802,74.38,17.79,56.71,-13.46,53.8,-11.3,58.16,4.984,0,0,0,0,0,0,0,0,0,0,0,0,0,0,0,0,
131,-10.89,-34.4,14.96,-33.76,8.278,-17.4,18.75,-7.642,52.89,0.6545,48.43,-22.05,41.89,-19.43,43.66,-4.168,0,0,0,0,0,0,0,0,0,0,0,0,0,0,0,0,
132,-21.94,-37.15,12.92,-39.13,-0.1966,-22.32,10.18,-6.043,33.76,-6.208,31.55,-26.17,25.19,-23.48,25.42,-11.47,0,0,0,0,0,0,0,0,0,0,0,0,0,0,0,0,
133,-28.84,-58.76,17.9,-45.86,-8.688,-29.07,-1.615,-10.57,11.15,-16.09,16.31,-30.11,12.29,-29.42,11.92,-19.68,0,0,0,0,0,0,0,0,0,0,0,0,0,0,0,0,
134,-33.2,-75.24,4.682,-42.32,-14.57,-31.37,12.32,-16.18,4.144,-23.42,14.91,-35.72,10.74,-35.27,3.722,-26.32,0,0,0,0,0,0,0,0,0,0,0,0,0,0,0,0,
135,-34.99,-66.78,0.5404,-41.86,-17.85,-35.84,19.4,-23.16,8.897,-27.41,11.82,-43.88,7.019,-41.83,-3.421,-29.46,0,0,0,0,0,0,0,0,0,0,0,0,0,0,0,0,
136,-42.91,-55.71,5.136,-49.23,-27.8,-44.59,-8.673,-30.8,0.6888,-36.97,-3.389,-51.3,-7.57,-49.76,-11.0,-30.3,0,0,0,0,0,0,0,0,0,0,0,0,0,0,0,0,
137,-52.03,-50.03,-15.73,-41.87,-42.81,-41.29,-41.74,-30.71,-17.01,-43.3,-15.57,-50.21,-19.99,-51.44,-14.14,-27.08,0,0,0,0,0,0,0,0,0,0,0,0,0,0,0,0,
138,-60.08,-46.94,-46.55,-36.12,-56.51,-35.47,-59.55,-26.04,-29.16,-39.13,-19.32,-38.32,-24.07,-40.18,-9.341,-16.0,0,0,0,0,0,0,0,0,0,0,0,0,0,0,0,0,
139,-68.44,-56.43,-51.73,-53.03,-60.35,-44.14,-62.83,-21.7,-34.78,-34.53,-21.11,-30.8,-25.0,-30.38,-5.508,-9.035,0,0,0,0,0,0,0,0,0,0,0,0,0,0,0,0,
140,-74.75,-73.68,-44.97,-62.72,-58.23,-55.51,-55.06,-20.88,-37.19,-37.62,-21.01,-41.22,-23.99,-39.83,-9.959,-18.14,0,0,0,0,0,0,0,0,0,0,0,0,0,0,0,0,
141,-81.49,-80.93,-44.35,-51.59,-60.31,-56.55,-49.74,-23.04,-40.8,-43.11,-17.97,-45.89,-19.6,-45.33,-7.956,-20.76,0,0,0,0,0,0,0,0,0,0,0,0,0,0,0,0,
142,-78.86,-75.59,-35.57,-48.04,-55.61,-50.71,-45.53,-20.58,-36.04,-34.97,-12.42,-27.02,-12.93,-26.81,4.653,-6.691,0,0,0,0,0,0,0,0,0,0,0,0,0,0,0,0,
143,-72.41,-76.43,-34.54,-60.14,-54.66,-50.84,-43.18,-25.07,-20.36,-21.73,-13.19,-21.22,-14.82,-21.28,4.062,-7.312,0,0,0,0,0,0,0,0,0,0,0,0,0,0,0,0,
144,-83.93,-88.21,-56.95,-64.89,-73.5,-56.8,-49.46,-39.59,-20.96,-29.77,-20.18,-40.32,-23.6,-40.28,-3.898,-17.61,0,0,0,0,0,0,0,0,0,0,0,0,0,0,0,0,
145,-93.95,-91.81,-58.83,-61.13,-80.6,-57.28,-47.3,-44.08,-36.79,-44.42,-14.63,-45.21,-18.81,-44.08,6.452,-4.18,0,0,0,0,0,0,0,0,0,0,0,0,0,0,0,0,
146,-89.7,-89.9,-36.9,-68.09,-72.08,-58.6,-35.7,-45.27,-40.37,-44.91,-0.9522,-33.37,-5.154,-32.23,22.4,17.53,0,0,0,0,0,0,0,0,0,0,0,0,0,0,0,0,
147,-93.5,-92.73,-44.86,-74.95,-79.69,-61.24,-29.24,-49.34,-34.61,-43.66,2.756,-28.22,-0.6655,-27.15,26.09,20.3,0,0,0,0,0,0,0,0,0,0,0,0,0,0,0,0,
148,-102.0,-94.29,-70.24,-71.92,-91.63,-59.98,-25.27,-46.0,-31.15,-43.51,1.438,-30.04,-1.039,-26.7,21.72,8.712,0,0,0,0,0,0,0,0,0,0,0,0,0,0,0,0,
149,-101.2,-99.19,-61.08,-75.74,-85.22,-64.98,-27.34,-46.98,-29.62,-40.85,4.316,-33.52,3.0,-29.38,16.03,-1.333,0,0,0,0,0,0,0,0,0,0,0,0,0,0,0,0,
150,-89.9,-102.4,-32.63,-76.82,-67.38,-62.42,-30.2,-50.58,-24.38,-36.49,14.2,-30.54,14.44,-29.34,18.48,1.952,0,0,0,0,0,0,0,0,0,0,0,0,0,0,0,0,
151,-74.05,-91.26,-27.46,-62.28,-54.18,-44.19,-20.19,-42.43,-8.687,-25.9,27.15,-16.89,26.63,-17.3,27.6,14.3,0,0,0,0,0,0,0,0,0,0,0,0,0,0,0,0,
152,-69.74,-82.41,-28.99,-58.37,-49.06,-46.19,-9.333,-37.01,6.715,-20.19,30.86,-4.623,28.23,-3.636,29.18,27.67,0,0,0,0,0,0,0,0,0,0,0,0,0,0,0,0,
153,-73.89,-91.1,-15.58,-80.98,-43.04,-71.45,-4.548,-42.16,7.781,-28.43,23.99,-1.066,23.0,0.5539,21.84,38.62,0,0,0,0,0,0,0,0,0,0,0,0,0,0,0,0,
154,-73.98,-108.0,-10.68,-105.6,-39.32,-83.59,1.615,-43.68,-0.8969,-39.14,17.49,-2.567,18.93,-2.013,16.64,37.21,0,0,0,0,0,0,0,0,0,0,0,0,0,0,0,0,
155,-74.55,-115.4,-8.65,-106.0,-40.46,-81.06,5.64,-38.58,-5.114,-47.88,17.84,-9.426,16.84,-9.529,20.29,24.35,0,0,0,0,0,0,0,0,0,0,0,0,0,0,0,0,
156,-80.76,-112.0,-4.288,-98.13,-45.9,-86.1,6.069,-41.15,-0.8374,-60.19,21.57,-25.96,18.39,-25.61,27.05,11.65,0,0,0,0,0,0,0,0,0,0,0,0,0,0,0,0,
157,-91.04,-115.2,-25.2,-99.19,-60.29,-90.36,11.56,-50.2,0.7059,-73.02,29.15,-39.92,27.71,-39.18,33.15,6.16,0,0,0,0,0,0,0,0,0,0,0,0,0,0,0,0,
158,-84.82,-111.0,-27.89,-79.07,-54.4,-67.46,23.6,-40.19,8.559,-66.51,43.56,-33.59,41.63,-32.63,38.75,8.15,0,0,0,0,0,0,0,0,0,0,0,0,0,0,0,0,
159,-52.13,-80.03,17.38,-42.92,-17.12,-36.07,28.26,-19.92,32.08,-37.21,43.27,-23.22,38.9,-21.46,29.45,1.715,0,0,0,0,0,0,0,0,0,0,0,0,0,0,0,0,
160,-31.95,-60.32,38.19,-43.98,0.5586,-37.7,19.53,-21.74,34.45,-22.62,16.3,-28.75,12.62,-26.68,5.215,-17.01,0,0,0,0,0,0,0,0,0,0,0,0,0,0,0,0,
161,-43.15,-75.81,19.94,-69.04,-14.32,-60.33,6.328,-33.96,4.664,-38.64,-4.815,-38.28,-8.134,-36.95,-8.328,-26.32,0,0,0,0,0,0,0,0,0,0,0,0,0,0,0,0,
162,-60.26,-91.31,2.702,-72.01,-33.43,-71.81,-10.73,-37.98,-19.1,-57.82,-2.57,-42.18,-7.524,-41.76,-5.473,-22.05,0,0,0,0,0,0,0,0,0,0,0,0,0,0,0,0,
163,-72.61,-87.5,-21.0,-61.92,-53.21,-72.81,-26.83,-37.29,-27.81,-64.71,4.906,-40.03,0.9254,-40.52,1.687,-11.9,0,0,0,0,0,0,0,0,0,0,0,0,0,0,0,0,
164,-76.62,-81.58,-39.53,-57.47,-62.82,-67.76,-28.88,-28.94,-26.06,-60.36,9.295,-32.59,8.223,-33.05,8.59,2.672,0,0,0,0,0,0,0,0,0,0,0,0,0,0,0,0,
165,-64.44,-81.02,-28.43,-50.07,-47.65,-52.82,-15.84,-21.84,-7.755,-49.99,13.39,-33.65,13.63,-32.72,10.4,5.393,0,0,0,0,0,0,0,0,0,0,0,0,0,0,0,0,
166,-49.98,-80.94,-6.436,-41.42,-28.8,-42.66,0.1494,-32.69,7.627,-49.01,9.021,-51.37,8.387,-49.82,-1.181,-17.22,0,0,0,0,0,0,0,0,0,0,0,0,0,0,0,0,
167,-57.14,-87.81,-1.54,-50.63,-35.04,-58.38,-4.093,-50.89,-5.235,-66.77,-13.41,-72.92,-16.05,-72.23,-22.51,-45.81,0,0,0,0,0,0,0,0,0,0,0,0,0,0,0,0,
168,-80.77,-95.53,-21.89,-67.76,-58.35,-80.52,-25.29,-54.52,-34.78,-88.0,-36.72,-79.42,-39.54,-79.7,-34.68,-54.8,0,0,0,0,0,0,0,0,0,0,0,0,0,0,0,0,
169,-92.4,-91.27,-44.61,-67.42,-70.34,-79.28,-33.98,-45.28,-48.19,-88.44,-42.22,-71.83,-43.04,-72.39,-37.87,-51.9,0,0,0,0,0,0,0,0,0,0,0,0,0,0,0,0,
170,-90.38,-97.92,-44.92,-62.81,-70.36,-72.32,-35.12,-39.08,-42.35,-74.41,-43.33,-64.94,-43.26,-65.26,-42.51,-50.39,0,0,0,0,0,0,0,0,0,0,0,0,0,0,0,0,
171,-87.61,-113.5,-31.36,-63.89,-66.84,-71.56,-32.62,-31.72,-34.59,-64.59,-36.84,-52.91,-36.78,-52.79,-30.58,-36.09,0,0,0,0,0,0,0,0,0,0,0,0,0,0,0,0,
172,-81.25,-101.9,-22.88,-57.74,-58.74,-65.23,-13.92,-20.21,-20.9,-55.41,-12.47,-39.81,-12.48,-38.48,-10.57,-18.2,0,0,0,0,0,0,0,0,0,0,0,0,0,0,0,0,
173,-81.08,-85.4,-26.17,-52.99,-59.62,-64.44,-4.901,-19.96,-13.62,-55.27,-4.927,-51.6,-6.212,-48.79,-17.74,-25.61,0,0,0,0,0,0,0,0,0,0,0,0,0,0,0,0,
174,-90.43,-86.78,-26.93,-50.92,-66.56,-66.28,-14.77,-24.63,-34.75,-71.41,-19.95,-68.94,-21.77,-66.61,-27.78,-35.4,0,0,0,0,0,0,0,0,0,0,0,0,0,0,0,0,
175,-90.61,-80.34,-19.0,-46.55,-62.32,-60.8,-18.09,-25.3,-48.48,-77.85,-18.43,-59.28,-19.14,-58.92,-15.57,-20.72,0,0,0,0,0,0,0,0,0,0,0,0,0,0,0,0,
176,-87.54,-77.48,-27.11,-57.52,-61.34,-67.82,-21.67,-34.17,-28.9,-70.92,-9.174,-42.28,-10.02,-42.48,-11.6,-5.532,0,0,0,0,0,0,0,0,0,0,0,0,0,0,0,0,
177,-93.78,-96.57,-43.2,-77.14,-69.89,-82.98,-28.8,-46.23,-15.73,-70.06,-14.37,-36.48,-16.1,-35.64,-15.82,-0.7503,0,0,0,0,0,0,0,0,0,0,0,0,0,0,0,0,
178,-98.1,-108.9,-33.57,-83.69,-69.8,-86.39,-24.97,-51.37,-20.02,-69.66,-11.91,-29.3,-13.15,-28.4,-2.257,13.73,0,0,0,0,0,0,0,0,0,0,0,0,0,0,0,0,
179,-91.83,-98.94,-20.49,-75.75,-63.04,-76.82,-26.6,-49.41,-10.88,-57.9,8.541,-12.27,7.954,-12.78,19.9,39.23,0,0,0,0,0,0,0,0,0,0,0,0,0,0,0,0,
180,-73.64,-80.28,-26.87,-53.19,-54.03,-46.52,-35.81,-35.74,11.67,-32.18,34.02,7.913,33.42,7.503,42.82,57.17,0,0,0,0,0,0,0,0,0,0,0,0,0,0,0,0,
181,-46.41,-61.51,-17.39,-33.3,-32.62,-14.5,-23.33,-24.67,37.9,-3.516,57.6,11.31,57.04,13.37,64.74,54.66,0,0,0,0,0,0,0,0,0,0,0,0,0,0,0,0,
182,-29.73,-46.17,-0.6955,-38.56,-16.68,-20.3,-11.16,-31.3,60.77,0.3817,55.63,-11.73,54.81,-8.924,59.52,31.79,0,0,0,0,0,0,0,0,0,0,0,0,0,0,0,0,
183,-38.2,-41.11,-23.11,-50.2,-29.55,-43.07,-31.08,-34.73,48.85,-20.61,22.69,-33.63,20.98,-33.22,30.17,8.286,0,0,0,0,0,0,0,0,0,0,0,0,0,0,0,0,
184,-46.96,-45.7,-34.78,-49.08,-37.59,-43.34,-30.96,-23.13,14.65,-32.54,8.6,-30.23,5.792,-30.88,15.93,7.057,0,0,0,0,0,0,0,0,0,0,0,0,0,0,0,0,
185,-38.48,-55.68,0.5883,-52.08,-24.45,-43.74,4.275,-22.64,7.937,-33.25,13.88,-27.32,10.75,-26.32,6.786,10.64,0,0,0,0,0,0,0,0,0,0,0,0,0,0,0,0,
186,-47.58,-76.54,4.359,-64.02,-35.68,-67.77,-0.5199,-39.92,-2.045,-53.4,-13.33,-45.55,-14.91,-44.37,-20.98,-6.82,0,0,0,0,0,0,0,0,0,0,0,0,0,0,0,0,
187,-75.52,-96.61,-22.51,-66.06,-57.97,-82.91,-30.23,-43.33,-42.22,-79.48,-44.05,-52.87,-43.59,-53.93,-33.87,-21.6,0,0,0,0,0,0,0,0,0,0,0,0,0,0,0,0,
188,-75.26,-90.29,-17.18,-58.13,-47.78,-71.09,-20.67,-30.17,-50.89,-73.78,-37.13,-36.68,-36.78,-39.01,-20.07,-14.8,0,0,0,0,0,0,0,0,0,0,0,0,0,0,0,0,
189,-52.49,-61.53,-14.14,-47.73,-34.33,-52.74,-4.705,-24.4,-24.31,-52.08,-22.57,-21.91,-24.01,-23.32,-5.542,-2.6,0,0,0,0,0,0,0,0,0,0,0,0,0,0,0,0,
190,-37.53,-40.16,-17.49,-34.68,-30.68,-36.39,0.6761,-20.78,-6.845,-37.63,-6.903,-12.43,-9.174,-11.51,6.203,5.198,0,0,0,0,0,0,0,0,0,0,0,0,0,0,0,0,
191,-34.95,-51.41,2.275,-33.05,-23.47,-32.89,8.998,-22.93,10.0,-29.13,0.3775,-20.78,-0.6199,-17.91,-3.608,-11.86,0,0,0,0,0,0,0,0,0,0,0,0,0,0,0,0,
192,-47.99,-73.76,-0.9148,-44.6,-34.29,-49.88,-14.67,-47.62,5.568,-45.3,-31.36,-56.66,-30.22,-55.21,-33.06,-53.31,0,0,0,0,0,0,0,0,0,0,0,0,0,0,0,0,
193,-62.54,-69.29,-27.68,-55.97,-54.08,-64.05,-46.56,-70.89,-31.18,-76.32,-50.66,-75.93,-48.62,-77.32,-28.45,-66.69,0,0,0,0,0,0,0,0,0,0,0,0,0,0,0,0,
194,-61.36,-59.86,-32.42,-66.92,-53.32,-66.12,-34.95,-74.84,-35.89,-82.16,-25.34,-67.57,-24.15,-68.53,-7.017,-50.67,0,0,0,0,0,0,0,0,0,0,0,0,0,0,0,0,
195,-48.01,-58.88,-19.94,-65.91,-35.5,-61.48,-16.16,-70.8,-7.077,-73.15,-10.03,-60.69,-9.615,-60.88,-6.022,-35.49,0,0,0,0,0,0,0,0,0,0,0,0,0,0,0,0,
196,-34.75,-56.9,-6.37,-65.12,-18.82,-51.88,-6.949,-57.97,11.98,-57.88,7.257,-32.98,7.944,-35.56,23.0,5.63,0,0,0,0,0,0,0,0,0,0,0,0,0,0,0,0,
197,-47.96,-85.44,-17.98,-91.1,-30.07,-54.9,15.54,-45.42,34.65,-25.07,47.38,6.431,48.1,3.744,62.8,46.9,0,0,0,0,0,0,0,0,0,0,0,0,0,0,0,0,
198,-74.0,-105.4,-46.73,-88.63,-55.1,-60.53,10.48,-46.76,38.65,-14.95,37.21,-5.808,37.07,-4.786,31.25,17.87,0,0,0,0,0,0,0,0,0,0,0,0,0,0,0,0,
199,-57.25,-50.68,-29.34,-31.95,-42.73,-42.13,-36.08,-49.82,-10.02,-42.77,-21.29,-42.99,-22.68,-41.82,-28.06,-31.83,0,0,0,0,0,0,0,0,0,0,0,0,0,0,0,0,
200,-13.27,2.201,11.32,-4.315,-9.157,-24.57,-55.4,-48.92,-49.79,-54.39,-42.04,-43.81,-44.57,-44.9,-41.95,-35.12,0,0,0,0,0,0,0,0,0,0,0,0,0,0,0,0,
201,-3.606,-10.16,2.472,-21.53,-7.809,-27.98,-37.69,-49.06,-40.45,-41.17,-34.48,-35.56,-36.65,-34.93,-41.55,-33.28,0,0,0,0,0,0,0,0,0,0,0,0,0,0,0,0,
202,-31.3,-35.58,-32.65,-25.58,-35.76,-28.02,-37.94,-43.06,-28.85,-36.3,-41.93,-40.99,-41.88,-39.22,-49.01,-42.39,0,0,0,0,0,0,0,0,0,0,0,0,0,0,0,0,
203,-62.4,-52.79,-51.87,-21.07,-60.76,-24.0,-53.01,-30.08,-33.04,-34.35,-46.31,-36.94,-44.47,-37.47,-47.96,-32.08,0,0,0,0,0,0,0,0,0,0,0,0,0,0,0,0,
204,-80.86,-70.83,-63.99,-37.24,-71.85,-43.3,-49.9,-25.28,-37.64,-31.8,-42.9,-33.68,-41.03,-34.2,-45.48,-23.64,0,0,0,0,0,0,0,0,0,0,0,0,0,0,0,0,
205,-87.92,-80.59,-64.1,-61.63,-72.99,-75.61,-34.26,-33.58,-42.31,-44.51,-38.81,-44.6,-38.04,-43.69,-40.44,-36.95,0,0,0,0,0,0,0,0,0,0,0,0,0,0,0,0,
206,-84.96,-84.86,-51.69,-62.5,-69.65,-82.67,-24.74,-40.74,-37.94,-60.58,-28.44,-56.2,-28.81,-55.47,-34.51,-61.31,0,0,0,0,0,0,0,0,0,0,0,0,0,0,0,0,
207,-80.29,-84.1,-53.44,-39.61,-69.93,-70.19,-25.13,-39.53,-30.91,-67.88,-28.39,-67.67,-28.65,-67.22,-42.38,-89.38,0,0,0,0,0,0,0,0,0,0,0,0,0,0,0,0,
208,-80.19,-77.09,-49.96,-26.8,-66.26,-65.47,-19.89,-35.13,-37.99,-72.97,-35.01,-72.43,-34.48,-73.38,-43.9,-92.98,0,0,0,0,0,0,0,0,0,0,0,0,0,0,0,0,
209,-73.65,-74.2,-26.32,-32.95,-53.83,-62.82,-13.88,-32.71,-41.65,-70.55,-34.32,-64.3,-33.93,-66.35,-36.31,-67.85,0,0,0,0,0,0,0,0,0,0,0,0,0,0,0,0,
210,-74.86,-82.0,-45.97,-44.02,-69.06,-66.01,-47.41,-41.78,-48.11,-68.19,-58.61,-67.37,-58.91,-67.88,-55.86,-60.51,0,0,0,0,0,0,0,0,0,0,0,0,0,0,0,0,
211,-105.2,-98.99,-109.7,-58.04,-114.8,-85.72,-106.9,-62.07,-83.43,-84.74,-106.2,-84.53,-106.1,-84.57,-90.15,-74.78,0,0,0,0,0,0,0,0,0,0,0,0,0,0,0,0,
212,-132.8,-117.2,-133.0,-74.33,-134.5,-99.9,-127.3,-78.23,-113.0,-104.1,-123.9,-92.05,-121.5,-92.33,-101.2,-77.07,0,0,0,0,0,0,0,0,0,0,0,0,0,0,0,0,
213,-133.2,-126.4,-113.7,-87.52,-123.8,-102.9,-107.0,-86.26,-106.4,-107.7,-111.3,-91.62,-106.8,-91.05,-96.17,-71.9,0,0,0,0,0,0,0,0,0,0,0,0,0,0,0,0,
214,-127.4,-120.3,-101.0,-87.37,-119.6,-109.0,-100.7,-91.33,-94.2,-106.0,-106.8,-94.71,-103.2,-95.5,-99.19,-80.77,0,0,0,0,0,0,0,0,0,0,0,0,0,0,0,0,
215,-122.7,-105.6,-99.21,-73.41,-118.4,-107.4,-120.6,-92.81,-96.83,-105.9,-117.0,-100.5,-115.1,-102.5,-110.7,-106.4,0,0,0,0,0,0,0,0,0,0,0,0,0,0,0,0,
216,-112.2,-97.37,-94.34,-62.09,-105.7,-89.86,-123.4,-87.95,-100.5,-103.0,-120.5,-105.2,-118.9,-105.3,-109.0,-127.4,0,0,0,0,0,0,0,0,0,0,0,0,0,0,0,0,
217,-101.9,-95.41,-79.17,-57.53,-91.33,-74.07,-99.04,-78.77,-92.94,-95.81,-107.9,-102.7,-106.9,-102.0,-88.3,-117.8,0,0,0,0,0,0,0,0,0,0,0,0,0,0,0,0,
218,-99.67,-93.53,-73.94,-58.69,-91.79,-73.66,-86.49,-71.65,-78.54,-87.12,-91.85,-89.58,-91.46,-90.37,-67.6,-84.1,0,0,0,0,0,0,0,0,0,0,0,0,0,0,0,0,
219,-101.4,-94.49,-86.7,-69.8,-98.48,-81.11,-82.03,-66.31,-68.69,-80.96,-78.37,-70.31,-77.29,-72.26,-49.03,-50.3,0,0,0,0,0,0,0,0,0,0,0,0,0,0,0,0,
220,-101.2,-100.4,-82.12,-80.65,-90.2,-89.05,-62.88,-61.55,-62.33,-78.6,-66.1,-53.62,-64.53,-55.6,-30.66,-29.46,0,0,0,0,0,0,0,0,0,0,0,0,0,0,0,0,
221,-101.4,-106.4,-68.78,-79.95,-78.2,-95.09,-53.66,-57.81,-56.77,-78.25,-59.19,-41.62,-57.99,-42.75,-23.84,-26.88,0,0,0,0,0,0,0,0,0,0,0,0,0,0,0,0,
222,-93.52,-101.7,-73.56,-68.66,-76.09,-86.86,-63.71,-48.35,-57.24,-71.71,-55.37,-32.09,-54.49,-33.24,-24.91,-36.51,0,0,0,0,0,0,0,0,0,0,0,0,0,0,0,0,
223,-79.63,-92.37,-72.77,-57.13,-76.81,-72.77,-73.65,-42.24,-63.06,-60.96,-56.14,-35.26,-55.55,-36.9,-27.91,-45.85,0,0,0,0,0,0,0,0,0,0,0,0,0,0,0,0,
224,-88.33,-90.96,-76.63,-56.69,-89.71,-75.82,-81.04,-49.98,-69.57,-63.66,-62.33,-51.71,-61.75,-52.01,-31.99,-48.76,0,0,0,0,0,0,0,0,0,0,0,0,0,0,0,0,
225,-108.4,-83.76,-100.9,-59.05,-108.5,-80.76,-78.96,-51.67,-73.07,-75.33,-60.14,-61.19,-58.9,-60.93,-27.83,-43.03,0,0,0,0,0,0,0,0,0,0,0,0,0,0,0,0,
226,-95.72,-69.59,-82.0,-52.11,-92.23,-72.11,-57.32,-43.34,-69.72,-78.41,-51.38,-62.57,-49.54,-64.27,-19.08,-33.67,0,0,0,0,0,0,0,0,0,0,0,0,0,0,0,0,
227,-59.09,-65.32,-17.12,-44.81,-49.17,-68.62,-31.22,-46.28,-60.52,-79.75,-51.15,-70.24,-49.19,-72.49,-20.47,-34.05,0,0,0,0,0,0,0,0,0,0,0,0,0,0,0,0,
228,-44.96,-66.19,-4.382,-48.63,-40.18,-76.71,-24.09,-55.27,-57.5,-87.96,-58.34,-80.81,-55.99,-82.04,-33.63,-48.54,0,0,0,0,0,0,0,0,0,0,0,0,0,0,0,0,
229,-61.91,-68.39,-42.87,-53.71,-65.39,-80.54,-32.37,-51.82,-72.32,-93.65,-63.32,-81.53,-60.62,-83.72,-46.37,-61.87,0,0,0,0,0,0,0,0,0,0,0,0,0,0,0,0,
230,-71.86,-66.16,-47.42,-43.21,-68.75,-69.83,-36.07,-39.55,-88.41,-87.99,-61.53,-68.31,-59.34,-71.84,-44.48,-59.34,0,0,0,0,0,0,0,0,0,0,0,0,0,0,0,0,
231,-53.29,-47.78,-27.69,-24.54,-47.66,-49.57,-38.68,-32.82,-82.57,-73.85,-55.79,-49.33,-53.48,-51.88,-29.46,-46.76,0,0,0,0,0,0,0,0,0,0,0,0,0,0,0,0,
232,-26.92,-27.98,-22.8,-8.202,-31.67,-25.24,-37.42,-32.41,-62.12,-56.34,-41.93,-34.14,-38.95,-35.05,-11.76,-33.4,0,0,0,0,0,0,0,0,0,0,0,0,0,0,0,0,
233,-6.473,-11.77,-11.03,9.613,-14.42,1.161,-10.66,-32.22,-37.19,-34.61,-13.83,-23.96,-11.24,-23.3,5.361,-18.14,0,0,0,0,0,0,0,0,0,0,0,0,0,0,0,0,
234,11.63,13.3,12.87,15.81,8.85,11.28,22.29,-33.73,-8.012,-15.8,10.14,-19.12,12.96,-16.73,17.21,-1.21,0,0,0,0,0,0,0,0,0,0,0,0,0,0,0,0,
235,19.59,25.45,31.41,3.322,21.49,-2.744,29.13,-31.67,14.05,-11.31,15.45,-21.49,19.08,-19.21,18.76,8.595,0,0,0,0,0,0,0,0,0,0,0,0,0,0,0,0,
236,4.239,1.463,27.42,-11.36,8.018,-19.82,14.54,-23.65,16.16,-18.18,11.03,-30.42,14.11,-29.56,13.91,2.402,0,0,0,0,0,0,0,0,0,0,0,0,0,0,0,0,
237,-28.12,-32.6,-9.453,-22.62,-26.2,-31.0,-4.622,-17.95,-2.622,-27.36,0.7052,-38.96,4.245,-38.67,7.699,-13.19,0,0,0,0,0,0,0,0,0,0,0,0,0,0,0,0,
238,-46.69,-41.65,-31.2,-25.46,-43.84,-40.06,-12.83,-9.767,-25.95,-30.96,-12.55,-41.41,-7.808,-41.8,-5.781,-26.71,0,0,0,0,0,0,0,0,0,0,0,0,0,0,0,0,
239,-43.36,-35.53,-12.62,-20.51,-37.04,-46.37,-14.4,-5.565,-38.32,-33.66,-24.37,-45.87,-20.81,-46.94,-29.98,-38.57,0,0,0,0,0,0,0,0,0,0,0,0,0,0,0,0,
240,-43.35,-34.31,-8.794,-21.19,-38.38,-48.97,-23.1,-17.83,-48.0,-47.55,-36.72,-53.92,-34.09,-54.73,-43.07,-44.3,0,0,0,0,0,0,0,0,0,0,0,0,0,0,0,0,
241,-44.92,-29.34,-20.07,-19.17,-41.89,-43.91,-23.39,-21.06,-54.57,-57.05,-40.19,-50.78,-36.78,-52.6,-30.28,-34.9,0,0,0,0,0,0,0,0,0,0,0,0,0,0,0,0,
242,-35.62,-24.43,-8.578,-10.4,-31.86,-35.41,-9.342,-2.73,-43.54,-45.06,-25.69,-31.66,-22.28,-35.13,-8.738,-9.418,0,0,0,0,0,0,0,0,0,0,0,0,0,0,0,0,
243,-31.18,-24.14,-6.987,-6.016,-28.87,-29.59,-2.517,9.723,-25.19,-24.7,-6.938,-9.961,-3.39,-12.3,9.202,22.42,0,0,0,0,0,0,0,0,0,0,0,0,0,0,0,0,
244,-36.81,-10.17,-27.13,-0.2077,-35.81,-25.33,-8.71,7.706,-17.69,-11.38,-2.677,-4.847,1.324,-5.557,17.41,32.66,0,0,0,0,0,0,0,0,0,0,0,0,0,0,0,0,
245,-39.88,0.67,-23.67,5.183,-34.65,-25.41,-17.07,6.123,-21.18,-14.41,-11.8,-14.11,-8.262,-15.86,9.131,18.1,0,0,0,0,0,0,0,0,0,0,0,0,0,0,0,0,
246,-38.94,-11.11,-6.001,2.0,-30.59,-26.06,-20.35,8.317,-28.58,-27.97,-20.18,-16.54,-16.16,-19.14,-2.67,12.64,0,0,0,0,0,0,0,0,0,0,0,0,0,0,0,0,
247,-40.75,-20.95,-11.8,-4.066,-34.75,-26.82,-22.26,1.8,-33.87,-33.74,-23.53,-15.62,-18.42,-17.82,-7.42,15.13,0,0,0,0,0,0,0,0,0,0,0,0,0,0,0,0,
248,-37.49,-19.31,-14.91,-8.824,-29.62,-28.85,-20.42,-9.097,-29.4,-30.29,-20.01,-17.64,-14.81,-19.93,-5.288,11.47,0,0,0,0,0,0,0,0,0,0,0,0,0,0,0,0,
249,-11.6,-4.432,8.262,-3.11,-2.309,-12.7,-5.609,-2.663,-7.132,-13.91,-7.015,-7.75,-1.172,-9.198,4.707,19.07,0,0,0,0,0,0,0,0,0,0,0,0,0,0,0,0,
250,20.52,26.23,25.9,15.15,22.0,17.32,8.099,8.463,22.56,13.49,3.679,5.019,9.78,4.582,11.88,30.51,0,0,0,0,0,0,0,0,0,0,0,0,0,0,0,0,
251,32.19,39.59,29.1,29.13,32.18,33.84,12.28,6.612,39.15,26.89,8.189,7.704,12.92,5.958,16.49,31.45,0,0,0,0,0,0,0,0,0,0,0,0,0,0,0,0,
252,35.67,29.55,31.75,31.48,39.86,37.85,18.71,10.21,43.46,30.01,17.83,15.44,22.84,12.83,32.7,43.78,0,0,0,0,0,0,0,0,0,0,0,0,0,0,0,0,
253,37.97,30.23,29.11,24.39,37.08,32.64,22.71,18.7,44.16,38.23,32.07,27.22,38.65,25.9,47.33,65.56,0,0,0,0,0,0,0,0,0,0,0,0,0,0,0,0,
254,29.11,36.19,28.06,12.64,26.9,19.05,21.05,16.9,45.34,38.14,38.82,27.88,44.66,27.45,40.3,66.29,0,0,0,0,0,0,0,0,0,0,0,0,0,0,0,0,
255,17.6,23.95,24.95,4.509,21.93,11.88,16.2,15.67,49.44,30.53,25.54,19.42,30.2,18.71,16.72,44.88,0,0,0,0,0,0,0,0,0,0,0,0,0,0,0,0,
256,7.937,3.831,5.238,1.348,11.82,9.036,3.42,17.4,45.04,24.67,0.0095,6.801,5.464,5.612,-6.915,21.45,0,0,0,0,0,0,0,0,0,0,0,0,0,0,0,0,
257,-5.052,-5.58,-11.98,0.8988,-3.812,1.019,-5.913,11.52,27.94,12.23,-10.73,-6.316,-4.952,-7.378,-13.64,9.153,0,0,0,0,0,0,0,0,0,0,0,0,0,0,0,0,
258,-16.84,-3.303,-15.82,-2.351,-12.49,-8.857,-5.817,4.145,12.97,-3.181,-5.842,-11.17,-1.636,-12.16,-2.378,12.39,0,0,0,0,0,0,0,0,0,0,0,0,0,0,0,0,
259,-19.91,-1.182,-11.86,-10.14,-11.67,-16.48,-8.225,3.221,6.433,-9.563,-4.308,-7.942,-1.602,-9.698,4.588,23.85,0,0,0,0,0,0,0,0,0,0,0,0,0,0,0,0,
260,-16.68,-10.07,-7.959,-14.63,-10.7,-19.91,-12.53,1.592,2.897,-8.934,-9.839,-9.528,-6.755,-10.53,-5.795,29.41,0,0,0,0,0,0,0,0,0,0,0,0,0,0,0,0,
261,-18.66,-20.08,-22.46,-13.75,-19.58,-20.41,-11.93,-3.708,-5.284,-8.718,-16.71,-15.7,-12.07,-14.82,-20.63,28.82,0,0,0,0,0,0,0,0,0,0,0,0,0,0,0,0,
262,-18.26,-11.21,-22.42,-7.396,-17.17,-14.39,-8.535,-3.614,-15.58,-8.915,-19.01,-11.94,-14.11,-11.21,-28.37,30.02,0,0,0,0,0,0,0,0,0,0,0,0,0,0,0,0,
263,-4.188,6.786,14.16,-0.0663,4.285,-0.0218,-13.08,-1.7,-16.24,-5.056,-23.48,-3.895,-19.95,-4.078,-31.79,25.81,0,0,0,0,0,0,0,0,0,0,0,0,0,0,0,0,
264,1.671,12.27,15.88,-2.323,3.792,7.863,-24.76,-3.972,-13.28,1.27,-37.21,-1.728,-34.31,-2.686,-31.68,14.71,0,0,0,0,0,0,0,0,0,0,0,0,0,0,0,0,
265,-7.834,8.467,-21.51,-10.3,-16.63,2.437,-24.12,-4.014,-15.42,8.235,-41.74,4.993,-37.52,3.014,-26.35,14.51,0,0,0,0,0,0,0,0,0,0,0,0,0,0,0,0,
266,-9.361,1.373,-18.67,-18.21,-13.29,-4.705,-10.25,-9.014,-13.85,15.21,-27.72,14.28,-21.76,13.06,-15.55,27.06,0,0,0,0,0,0,0,0,0,0,0,0,0,0,0,0,
267,-0.1448,1.11,15.07,-18.2,7.607,-0.8687,7.496,-20.36,-4.155,18.55,-12.08,12.62,-6.026,12.63,-3.398,37.56,0,0,0,0,0,0,0,0,0,0,0,0,0,0,0,0,
268,9.694,16.18,30.22,-3.141,17.78,12.5,22.3,-23.14,9.34,21.82,-7.485,4.278,-2.743,4.004,-7.71,41.47,0,0,0,0,0,0,0,0,0,0,0,0,0,0,0,0,
269,12.4,15.15,20.79,-3.862,13.07,12.46,11.9,-26.75,16.88,24.88,-16.24,-1.666,-12.07,-1.711,-28.86,40.66,0,0,0,0,0,0,0,0,0,0,0,0,0,0,0,0,
270,2.378,-8.936,-4.695,-32.16,1.309,-6.509,-12.12,-34.91,10.58,20.76,-26.38,-1.283,-21.94,-1.21,-39.22,37.01,0,0,0,0,0,0,0,0,0,0,0,0,0,0,0,0,
271,-5.722,-8.504,-12.4,-38.21,-3.363,-15.54,-11.98,-24.07,1.691,18.06,-25.79,2.4,-21.7,1.665,-39.76,29.69,0,0,0,0,0,0,0,0,0,0,0,0,0,0,0,0,
272,-3.958,13.66,3.103,-11.71,-1.759,-7.71,-5.45,1.324,-0.7262,21.81,-28.98,-2.695,-25.45,-2.696,-52.09,12.5,0,0,0,0,0,0,0,0,0,0,0,0,0,0,0,0,
273,-14.9,10.01,-10.15,0.3012,-16.71,-10.81,-24.34,11.89,-7.997,14.19,-47.66,-18.72,-44.03,-17.84,-69.43,-10.32,0,0,0,0,0,0,0,0,0,0,0,0,0,0,0,0,
274,-45.84,-18.65,-46.3,-9.721,-48.76,-33.14,-52.68,3.361,-30.57,-11.38,-67.99,-32.84,-64.25,-33.49,-76.24,-18.4,0,0,0,0,0,0,0,0,0,0,0,0,0,0,0,0,
275,-71.3,-40.18,-61.19,-13.14,-70.11,-48.07,-64.6,-1.829,-59.34,-32.33,-74.37,-34.21,-70.96,-36.19,-66.03,-4.538,0,0,0,0,0,0,0,0,0,0,0,0,0,0,0,0,
276,-75.37,-38.94,-61.35,-6.777,-68.39,-41.2,-53.6,5.68,-69.87,-30.75,-63.85,-27.03,-60.36,-28.45,-43.27,8.329,0,0,0,0,0,0,0,0,0,0,0,0,0,0,0,0,
277,-61.08,-20.8,-42.32,-4.796,-49.79,-32.47,-31.64,5.694,-56.31,-19.69,-48.73,-25.26,-45.14,-26.02,-32.19,0.9774,0,0,0,0,0,0,0,0,0,0,0,0,0,0,0,0,
278,-40.76,-12.63,-12.71,-9.704,-32.14,-36.18,-20.74,-11.07,-41.93,-18.83,-43.27,-31.68,-41.11,-31.81,-42.15,-17.32,0,0,0,0,0,0,0,0,0,0,0,0,0,0,0,0,
279,-37.7,-28.0,-26.71,-12.05,-38.0,-40.42,-26.49,-24.12,-39.37,-27.23,-41.62,-36.44,-40.14,-36.65,-49.67,-29.83,0,0,0,0,0,0,0,0,0,0,0,0,0,0,0,0,
280,-47.04,-34.22,-49.61,-2.675,-46.7,-32.97,-28.74,-17.88,-38.84,-29.25,-30.82,-31.88,-26.55,-33.78,-39.78,-26.44,0,0,0,0,0,0,0,0,0,0,0,0,0,0,0,0,
281,-40.01,-16.7,-23.19,5.567,-29.16,-24.3,-13.21,-5.452,-29.91,-15.13,-15.57,-21.35,-8.428,-22.7,-24.3,-12.5,0,0,0,0,0,0,0,0,0,0,0,0,0,0,0,0,
282,-23.64,-12.86,2.918,1.427,-8.865,-25.58,5.141,-6.689,-14.26,-0.4718,-7.905,-16.49,-0.7255,-14.75,-16.16,-9.017,0,0,0,0,0,0,0,0,0,0,0,0,0,0,0,0,
283,-7.63,-18.6,4.758,8.93,3.324,-15.94,10.5,-9.075,-3.283,3.007,-5.108,-14.39,1.153,-12.66,-10.58,-13.19,0,0,0,0,0,0,0,0,0,0,0,0,0,0,0,0,
284,16.95,1.336,10.9,25.25,21.02,9.608,9.196,0.8728,3.396,15.73,-1.77,-6.83,4.035,-5.732,-4.616,-7.335,0,0,0,0,0,0,0,0,0,0,0,0,0,0,0,0,
285,38.98,27.15,19.67,21.18,37.4,19.27,8.974,-0.5543,13.39,34.47,-7.293,-5.618,-1.077,-2.157,-11.12,-4.753,0,0,0,0,0,0,0,0,0,0,0,0,0,0,0,0,
286,51.24,39.19,28.55,17.71,48.72,16.88,6.269,-14.84,16.59,34.02,-18.48,-6.122,-12.52,-3.723,-21.95,-10.2,0,0,0,0,0,0,0,0,0,0,0,0,0,0,0,0,
287,47.41,42.03,20.06,22.16,43.72,18.73,2.718,-16.07,9.847,31.72,-13.83,8.595,-10.11,7.042,-13.89,-4.373,0,0,0,0,0,0,0,0,0,0,0,0,0,0,0,0,
288,28.76,28.41,9.836,8.354,27.73,10.06,10.19,-10.94,11.01,37.73,-2.533,15.77,1.529,15.27,-5.449,-1.054,0,0,0,0,0,0,0,0,0,0,0,0,0,0,0,0,
289,25.28,7.619,27.45,-4.346,27.06,-3.417,15.12,-7.965,17.26,28.47,-7.848,5.984,-1.012,7.53,-18.43,-10.4,0,0,0,0,0,0,0,0,0,0,0,0,0,0,0,0,
290,10.79,-16.36,-5.829,-7.535,6.169,-13.42,-8.457,0.7818,10.21,17.27,-16.61,6.306,-11.18,5.796,-30.54,-12.08,0,0,0,0,0,0,0,0,0,0,0,0,0,0,0,0,
291,-33.24,-37.32,-67.15,-14.77,-30.58,-27.7,-27.52,3.731,-4.219,17.79,-23.01,-0.5611,-19.84,-1.78,-40.32,-25.74,0,0,0,0,0,0,0,0,0,0,0,0,0,0,0,0,
292,-23.57,-16.91,-10.83,-5.637,-1.883,-28.25,-2.601,-3.484,-13.75,2.675,-41.09,-30.29,-36.68,-29.98,-61.85,-59.99,0,0,0,0,0,0,0,0,0,0,0,0,0,0,0,0,
293,32.51,20.2,75.47,7.476,46.86,-14.86,22.46,-2.892,-17.52,-17.35,-51.83,-38.37,-47.4,-38.18,-66.41,-63.73,0,0,0,0,0,0,0,0,0,0,0,0,0,0,0,0,
294,33.16,14.66,53.31,-3.745,27.18,-19.12,3.858,1.84,-20.51,-14.3,-48.8,-25.68,-44.6,-25.67,-51.06,-48.26,0,0,0,0,0,0,0,0,0,0,0,0,0,0,0,0,
295,-0.8224,-7.682,9.733,-18.47,-8.655,-37.2,-24.22,-5.507,-38.1,-17.17,-54.75,-31.59,-49.06,-32.0,-47.38,-59.79,0,0,0,0,0,0,0,0,0,0,0,0,0,0,0,0,
296,-11.34,-12.3,-1.736,-26.8,-12.3,-44.18,-27.19,-12.17,-60.88,-35.29,-54.43,-33.38,-50.27,-35.45,-43.51,-62.95,0,0,0,0,0,0,0,0,0,0,0,0,0,0,0,0,
297,-15.81,-18.96,-15.56,-30.96,-13.65,-38.64,-26.13,-5.198,-58.33,-32.57,-42.98,-19.06,-39.93,-19.54,-37.39,-47.03,0,0,0,0,0,0,0,0,0,0,0,0,0,0,0,0,
298,-20.08,-32.53,-8.42,-21.14,-16.09,-29.83,-29.85,-1.686,-45.74,-16.84,-44.5,-19.54,-38.09,-17.05,-50.25,-54.53,0,0,0,0,0,0,0,0,0,0,0,0,0,0,0,0,
299,-14.16,-28.23,17.5,-13.56,-3.267,-21.51,-8.103,-10.16,-39.82,-9.488,-40.98,-24.1,-33.51,-23.22,-58.32,-63.82,0,0,0,0,0,0,0,0,0,0,0,0,0,0,0,0,
300,-6.21,-2.207,25.85,-16.75,11.26,-14.74,18.9,-19.96,-20.24,1.627,-28.66,-19.84,-22.61,-20.58,-53.77,-52.5,0,0,0,0,0,0,0,0,0,0,0,0,0,0,0,0,
301,-0.2987,12.73,18.4,-12.25,11.3,-9.904,11.23,-27.71,-2.103,11.69,-30.66,-22.2,-23.2,-21.61,-58.13,-47.29,0,0,0,0,0,0,0,0,0,0,0,0,0,0,0,0,
302,9.291,10.55,18.98,-6.018,16.46,-4.334,12.04,-34.15,0.9678,13.5,-22.49,-20.85,-14.58,-20.59,-52.72,-43.81,0,0,0,0,0,0,0,0,0,0,0,0,0,0,0,0,
303,25.79,16.78,37.38,-14.04,37.53,-1.806,41.87,-43.49,16.8,16.58,-0.9373,-16.3,4.506,-16.26,-33.83,-36.52,0,0,0,0,0,0,0,0,0,0,0,0,0,0,0,0,
304,29.97,10.84,44.19,-31.74,39.03,-15.84,46.32,-59.47,28.67,5.996,0.3949,-31.53,5.238,-30.59,-27.53,-46.25,0,0,0,0,0,0,0,0,0,0,0,0,0,0,0,0,
305,7.688,-21.68,29.23,-56.43,16.13,-46.54,31.2,-73.04,10.15,-25.77,-2.845,-47.62,2.247,-49.35,-24.39,-60.47,0,0,0,0,0,0,0,0,0,0,0,0,0,0,0,0,
306,-9.994,-37.5,28.28,-74.94,8.28,-66.36,30.8,-72.35,-5.234,-48.02,1.458,-37.68,4.713,-41.55,-20.56,-58.31,0,0,0,0,0,0,0,0,0,0,0,0,0,0,0,0,
307,1.884,-25.14,35.85,-55.71,19.04,-48.78,25.46,-49.62,-1.672,-40.45,-11.86,-20.78,-9.411,-21.61,-40.19,-55.77,0,0,0,0,0,0,0,0,0,0,0,0,0,0,0,0,
308,19.08,-6.63,25.01,-14.43,24.3,-14.57,10.66,-15.48,-0.6291,-16.39,-38.66,-21.19,-35.19,-19.97,-76.93,-69.06,0,0,0,0,0,0,0,0,0,0,0,0,0,0,0,0,
309,16.17,11.52,11.89,1.142,17.07,-3.545,-1.51,4.732,-7.095,-1.735,-60.77,-33.07,-58.29,-32.63,-104.8,-85.64,0,0,0,0,0,0,0,0,0,0,0,0,0,0,0,0,
310,3.145,12.41,9.4,-0.3693,7.086,-8.87,-14.94,10.61,-22.49,-5.422,-79.08,-42.45,-78.22,-41.48,-120.2,-91.91,0,0,0,0,0,0,0,0,0,0,0,0,0,0,0,0,
311,-1.891,-5.862,9.418,0.9021,6.254,-13.93,-15.92,10.3,-45.38,-15.08,-86.23,-46.58,-84.15,-45.82,-122.7,-92.72,0,0,0,0,0,0,0,0,0,0,0,0,0,0,0,0,
312,-1.391,-15.73,6.306,-10.26,8.553,-27.14,-2.7,0.3271,-55.22,-23.19,-67.97,-41.43,-64.68,-43.43,-98.39,-81.17,0,0,0,0,0,0,0,0,0,0,0,0,0,0,0,0,
313,-4.271,-16.96,-1.641,-22.59,3.966,-37.46,-3.607,-7.173,-45.95,-26.7,-38.92,-24.01,-35.89,-27.28,-55.04,-44.95,0,0,0,0,0,0,0,0,0,0,0,0,0,0,0,0,
314,-7.611,-21.69,0.081,-23.2,1.985,-36.9,-14.41,-8.043,-37.98,-24.36,-30.23,-11.46,-26.65,-13.23,-26.87,-14.29,0,0,0,0,0,0,0,0,0,0,0,0,0,0,0,0,
315,-10.04,-26.4,13.16,-33.72,3.331,-46.33,-9.175,-17.28,-42.04,-28.45,-37.28,-16.79,-33.89,-17.13,-21.47,-19.22,0,0,0,0,0,0,0,0,0,0,0,0,0,0,0,0,
316,-17.51,-38.73,9.202,-46.23,-5.889,-59.0,-0.2707,-26.31,-50.07,-41.62,-36.46,-23.06,-34.58,-23.64,-21.32,-32.07,0,0,0,0,0,0,0,0,0,0,0,0,0,0,0,0,
317,-20.71,-46.45,-3.67,-35.74,-14.27,-48.92,-7.496,-21.85,-54.82,-45.69,-35.28,-16.17,-33.97,-17.58,-31.1,-29.52,0,0,0,0,0,0,0,0,0,0,0,0,0,0,0,0,
318,-5.304,-16.13,4.774,-16.19,-2.348,-25.44,-15.56,-15.79,-54.7,-33.16,-46.57,-8.018,-46.11,-9.32,-59.78,-33.81,0,0,0,0,0,0,0,0,0,0,0,0,0,0,0,0,
319,17.2,27.5,20.35,-2.887,19.12,-7.758,-8.535,-13.92,-50.66,-15.42,-61.08,-10.22,-61.44,-10.78,-88.62,-52.72,0,0,0,0,0,0,0,0,0,0,0,0,0,0,0,0,
320,31.65,38.41,27.55,7.918,31.93,3.764,2.075,-11.44,-42.6,-3.543,-70.67,-21.45,-69.49,-21.49,-101.5,-69.66,0,0,0,0,0,0,0,0,0,0,0,0,0,0,0,0,
321,35.85,27.26,29.93,5.721,30.74,3.312,1.302,-16.74,-33.72,-4.293,-72.13,-37.8,-69.66,-37.44,-101.8,-81.18,0,0,0,0,0,0,0,0,0,0,0,0,0,0,0,0,
322,30.77,19.3,28.75,-7.496,28.1,-6.15,0.9793,-27.3,-31.67,-14.67,-58.46,-46.09,-56.15,-45.9,-84.15,-77.38,0,0,0,0,0,0,0,0,0,0,0,0,0,0,0,0,
323,31.8,18.65,36.77,-4.525,40.68,-1.54,17.4,-24.11,-27.54,-15.68,-35.1,-37.61,-31.79,-38.4,-50.59,-51.95,0,0,0,0,0,0,0,0,0,0,0,0,0,0,0,0,
324,36.24,10.74,38.5,-3.08,42.03,0.2362,25.88,-17.53,-14.33,-7.323,-21.82,-29.87,-17.85,-31.34,-33.03,-35.65,0,0,0,0,0,0,0,0,0,0,0,0,0,0,0,0,
325,18.66,-17.38,11.08,-30.93,13.55,-29.49,7.821,-22.54,-13.25,-14.28,-22.3,-30.9,-19.53,-31.77,-35.88,-39.7,0,0,0,0,0,0,0,0,0,0,0,0,0,0,0,0,
326,-1.008,-34.22,-4.983,-45.67,1.105,-53.36,-3.151,-22.34,-23.46,-29.93,-25.38,-27.73,-22.04,-27.22,-35.61,-37.53,0,0,0,0,0,0,0,0,0,0,0,0,0,0,0,0,
327,3.213,-19.28,9.944,-26.36,17.1,-43.24,5.072,-15.66,-18.79,-31.13,-30.3,-20.98,-24.36,-20.43,-40.87,-27.55,0,0,0,0,0,0,0,0,0,0,0,0,0,0,0,0,
328,10.16,-4.675,17.44,-12.62,21.99,-27.63,3.088,-14.26,-8.366,-25.12,-38.4,-17.52,-32.93,-18.41,-59.33,-27.41,0,0,0,0,0,0,0,0,0,0,0,0,0,0,0,0,
329,10.85,-0.6923,9.614,-11.0,14.29,-19.0,-10.4,-13.33,-12.77,-23.47,-50.5,-23.79,-48.23,-24.84,-73.57,-43.05,0,0,0,0,0,0,0,0,0,0,0,0,0,0,0,0,
330,15.55,3.195,6.835,-11.59,15.72,-14.22,-12.82,-14.34,-22.35,-26.06,-65.27,-39.19,-63.2,-39.99,-83.47,-65.38,0,0,0,0,0,0,0,0,0,0,0,0,0,0,0,0,
331,23.46,5.667,14.35,-16.05,27.15,-14.78,-6.402,-13.98,-23.03,-27.75,-70.9,-42.34,-66.11,-44.64,-100.3,-79.17,0,0,0,0,0,0,0,0,0,0,0,0,0,0,0,0,
332,27.61,12.91,13.5,-14.15,29.7,-14.69,-9.216,-8.941,-20.82,-22.75,-70.17,-32.67,-64.23,-35.04,-119.5,-88.66,0,0,0,0,0,0,0,0,0,0,0,0,0,0,0,0,
333,25.73,19.09,2.706,-9.954,22.96,-9.564,-10.14,-7.804,-19.76,-12.72,-64.56,-21.93,-59.4,-22.19,-115.9,-87.99,0,0,0,0,0,0,0,0,0,0,0,0,0,0,0,0,
334,35.21,17.38,19.79,-2.423,36.84,8.924,9.322,2.562,-2.268,11.84,-40.6,0.1808,-36.27,0.3897,-79.62,-61.94,0,0,0,0,0,0,0,0,0,0,0,0,0,0,0,0,
335,52.39,22.38,48.34,19.49,56.24,33.02,31.61,20.9,24.62,45.7,-15.76,18.72,-11.44,18.41,-43.09,-41.67,0,0,0,0,0,0,0,0,0,0,0,0,0,0,0,0,
336,52.81,36.15,46.13,31.43,54.52,38.82,48.63,18.97,31.48,55.52,-2.906,14.25,1.675,14.7,-19.71,-40.11,0,0,0,0,0,0,0,0,0,0,0,0,0,0,0,0,
337,50.14,45.44,36.8,20.16,53.3,33.02,55.73,1.578,32.65,49.02,6.699,0.0476,10.14,1.081,-4.118,-32.08,0,0,0,0,0,0,0,0,0,0,0,0,0,0,0,0,
338,41.21,35.1,18.05,4.53,37.59,22.24,20.63,-20.17,32.18,41.88,-13.88,-26.4,-12.48,-26.33,-23.08,-40.63,0,0,0,0,0,0,0,0,0,0,0,0,0,0,0,0,
339,9.329,7.335,-19.01,-14.61,0.1832,-0.7571,-32.12,-47.1,-1.848,14.81,-63.52,-54.35,-62.67,-55.43,-66.32,-72.78,0,0,0,0,0,0,0,0,0,0,0,0,0,0,0,0,
340,-4.182,-8.212,-22.82,-35.24,-3.987,-16.76,-48.69,-62.84,-42.71,-10.82,-87.75,-50.7,-85.51,-51.31,-82.86,-80.35,0,0,0,0,0,0,0,0,0,0,0,0,0,0,0,0,
341,12.23,-7.388,-1.953,-42.27,16.69,-15.38,-40.75,-60.33,-46.78,-8.438,-76.51,-34.33,-73.17,-34.0,-72.51,-65.47,0,0,0,0,0,0,0,0,0,0,0,0,0,0,0,0,
342,22.54,-11.89,4.964,-45.47,23.47,-15.86,-25.1,-50.21,-28.14,-5.965,-57.5,-34.72,-54.88,-34.46,-63.79,-64.37,0,0,0,0,0,0,0,0,0,0,0,0,0,0,0,0,
343,23.72,-30.09,14.3,-64.69,26.96,-33.71,-7.365,-45.36,-10.05,-17.22,-49.85,-39.23,-47.5,-38.96,-68.69,-73.04,0,0,0,0,0,0,0,0,0,0,0,0,0,0,0,0,
344,11.77,-60.45,18.23,-83.32,21.47,-60.19,-2.394,-44.16,-6.515,-30.04,-53.6,-33.4,-50.53,-33.05,-77.65,-70.45,0,0,0,0,0,0,0,0,0,0,0,0,0,0,0,0,
345,-6.208,-71.49,9.136,-70.47,11.68,-62.06,4.753,-25.01,-11.68,-32.23,-48.27,-19.23,-45.78,-18.36,-71.23,-55.72,0,0,0,0,0,0,0,0,0,0,0,0,0,0,0,0,
346,4.854,-36.4,9.315,-36.1,23.39,-33.01,15.42,1.313,-0.0329,-15.05,-40.62,-11.73,-37.11,-9.174,-62.77,-49.4,0,0,0,0,0,0,0,0,0,0,0,0,0,0,0,0,
347,33.3,8.361,12.01,-3.926,40.48,-2.248,11.31,8.68,17.56,2.641,-44.31,-16.49,-37.68,-14.15,-65.5,-57.0,0,0,0,0,0,0,0,0,0,0,0,0,0,0,0,0,
348,45.71,24.2,10.68,16.41,43.85,16.26,3.115,9.488,17.63,4.257,-43.59,-21.86,-38.08,-21.66,-62.67,-66.18,0,0,0,0,0,0,0,0,0,0,0,0,0,0,0,0,
349,35.66,12.7,2.711,10.73,29.53,14.28,-7.368,8.855,0.8508,-4.481,-46.8,-33.8,-45.07,-33.5,-63.19,-83.31,0,0,0,0,0,0,0,0,0,0,0,0,0,0,0,0,
350,8.258,-7.819,-17.95,-2.229,-0.3322,-2.416,-20.42,0.6482,-28.85,-21.22,-58.67,-51.33,-57.95,-50.48,-74.25,-104.7,0,0,0,0,0,0,0,0,0,0,0,0,0,0,0,0,
351,-12.68,-13.18,-29.57,7.906,-18.3,-5.001,-20.11,-2.145,-47.18,-29.44,-53.49,-47.2,-52.9,-48.13,-68.27,-102.9,0,0,0,0,0,0,0,0,0,0,0,0,0,0,0,0,
352,-13.09,-6.975,-34.45,11.87,-17.97,0.8535,-15.12,1.538,-34.3,-14.1,-44.28,-17.77,-42.79,-20.42,-48.2,-74.75,0,0,0,0,0,0,0,0,0,0,0,0,0,0,0,0,
353,-6.446,-7.555,-43.41,-6.891,-13.25,-3.374,-10.68,8.229,-16.61,7.173,-47.77,17.17,-43.44,14.47,-39.02,-40.23,0,0,0,0,0,0,0,0,0,0,0,0,0,0,0,0,
354,6.01,-6.388,-23.01,-13.71,5.489,-5.602,4.34,19.97,-10.53,20.36,-41.97,42.49,-37.54,41.18,-33.28,-14.21,0,0,0,0,0,0,0,0,0,0,0,0,0,0,0,0,
355,19.76,-2.767,9.574,-4.2,25.4,-2.45,19.78,26.67,-5.256,26.62,-28.09,48.95,-25.23,49.85,-19.7,-3.179,0,0,0,0,0,0,0,0,0,0,0,0,0,0,0,0,
356,15.61,-8.37,2.282,3.754,18.71,0.7952,28.02,25.77,-3.692,27.47,-19.96,42.12,-15.89,44.24,-9.326,-6.128,0,0,0,0,0,0,0,0,0,0,0,0,0,0,0,0,
357,6.866,-9.138,-3.184,6.643,12.08,7.958,38.62,21.43,-2.993,28.39,-8.264,32.58,-3.613,34.44,-7.046,-20.9,0,0,0,0,0,0,0,0,0,0,0,0,0,0,0,0,
358,19.24,3.068,28.1,-0.7636,31.4,11.75,49.76,12.58,11.55,28.52,5.858,24.71,8.781,25.78,-2.58,-38.0,0,0,0,0,0,0,0,0,0,0,0,0,0,0,0,0,
359,36.58,9.666,36.64,-10.62,45.25,9.356,52.87,8.396,31.19,25.19,11.13,26.25,13.67,26.41,0.527,-42.8,0,0,0,0,0,0,0,0,0,0,0,0,0,0,0,0,
360,39.67,9.8,22.1,-6.891,42.01,15.2,53.43,16.75,38.18,28.43,9.201,37.33,11.64,37.31,-10.25,-37.83,0,0,0,0,0,0,0,0,0,0,0,0,0,0,0,0,
361,38.86,11.09,30.66,-1.113,41.96,26.03,55.77,27.42,34.72,43.08,4.557,45.45,5.77,46.67,-22.96,-32.88,0,0,0,0,0,0,0,0,0,0,0,0,0,0,0,0,
362,31.52,-1.053,22.02,-5.438,33.25,23.97,50.07,29.83,28.41,55.86,-0.5316,42.54,0.6855,44.71,-22.82,-29.37,0,0,0,0,0,0,0,0,0,0,0,0,0,0,0,0,
363,18.01,-13.73,-4.317,-5.031,20.72,17.42,41.02,28.4,22.36,55.85,-3.199,31.03,-1.001,32.2,-16.93,-28.56,0,0,0,0,0,0,0,0,0,0,0,0,0,0,0,0,
364,20.73,-0.5412,15.76,-0.7837,34.21,19.75,38.06,27.61,22.81,52.27,-2.738,20.99,-0.048,21.27,-9.648,-30.78,0,0,0,0,0,0,0,0,0,0,0,0,0,0,0,0,
365,30.03,13.19,44.09,-0.9817,50.76,20.45,28.72,25.09,26.23,52.04,-4.74,16.21,-2.332,17.49,-6.241,-37.8,0,0,0,0,0,0,0,0,0,0,0,0,0,0,0,0,
366,34.77,17.97,43.73,13.48,53.83,21.44,24.45,27.65,18.49,43.93,-10.65,15.76,-9.008,17.04,-7.347,-41.11,0,0,0,0,0,0,0,0,0,0,0,0,0,0,0,0,
367,49.98,26.68,55.36,20.04,66.4,28.45,51.63,39.39,11.23,37.39,4.029,38.02,6.603,37.4,18.26,-12.38,0,0,0,0,0,0,0,0,0,0,0,0,0,0,0,0,
368,48.6,3.995,55.22,-16.4,66.7,23.96,76.69,47.3,29.01,56.52,40.24,75.76,44.02,75.18,56.64,23.54,0,0,0,0,0,0,0,0,0,0,0,0,0,0,0,0,
369,15.57,-26.56,22.72,-27.26,36.81,14.5,53.23,41.9,39.88,71.23,33.37,66.15,34.9,67.43,31.04,-7.572,0,0,0,0,0,0,0,0,0,0,0,0,0,0,0,0,
370,8.317,16.17,8.958,32.14,21.08,25.43,12.27,28.86,-0.6737,41.15,-23.02,8.343,-23.58,10.04,-36.82,-75.91,0,0,0,0,0,0,0,0,0,0,0,0,0,0,0,0,
371,43.37,85.22,20.8,76.89,40.83,45.11,7.962,20.29,-42.54,7.744,-43.37,-16.24,-41.82,-14.04,-52.37,-86.09,0,0,0,0,0,0,0,0,0,0,0,0,0,0,0,0,
372,68.41,89.99,34.89,65.37,63.14,51.54,22.69,14.55,-28.42,14.74,-22.83,2.743,-18.86,6.449,-31.43,-53.59,0,0,0,0,0,0,0,0,0,0,0,0,0,0,0,0,
373,61.01,66.07,36.26,47.0,57.5,47.68,16.63,4.017,-5.556,28.12,-15.36,19.49,-11.78,22.11,-20.72,-29.91,0,0,0,0,0,0,0,0,0,0,0,0,0,0,0,0,
374,40.35,66.85,13.21,40.9,33.95,42.0,9.55,5.027,-7.658,26.56,-0.2689,39.16,2.029,39.29,2.925,-1.39,0,0,0,0,0,0,0,0,0,0,0,0,0,0,0,0,
375,29.06,71.95,3.289,40.05,27.37,37.11,22.72,20.86,2.135,30.84,26.11,60.62,28.34,61.1,23.63,20.93,0,0,0,0,0,0,0,0,0,0,0,0,0,0,0,0,
376,34.04,66.7,23.56,43.45,38.89,35.52,31.3,24.18,18.01,37.33,19.31,55.5,22.31,57.07,7.201,7.881,0,0,0,0,0,0,0,0,0,0,0,0,0,0,0,0,
377,38.04,61.27,28.37,37.38,40.45,35.13,26.7,17.1,5.909,36.6,-1.137,36.34,1.613,37.05,-9.005,-13.45,0,0,0,0,0,0,0,0,0,0,0,0,0,0,0,0,
378,32.15,52.85,16.58,21.18,34.37,32.65,29.48,20.59,-15.93,39.48,2.851,29.81,3.751,29.93,1.527,-13.32,0,0,0,0,0,0,0,0,0,0,0,0,0,0,0,0,
379,30.73,48.53,14.05,18.33,37.69,34.31,38.87,28.54,-17.65,48.25,13.44,31.25,13.2,32.03,11.59,-6.0,0,0,0,0,0,0,0,0,0,0,0,0,0,0,0,0,
380,31.26,56.93,12.78,28.24,41.71,35.01,36.37,29.22,-7.328,50.5,10.21,26.61,11.47,26.91,6.683,-10.93,0,0,0,0,0,0,0,0,0,0,0,0,0,0,0,0,
381,19.83,47.29,16.08,25.85,35.01,17.83,25.43,25.61,-6.933,36.14,0.8429,18.13,2.933,16.24,-4.549,-20.45,0,0,0,0,0,0,0,0,0,0,0,0,0,0,0,0,
382,3.114,10.7,17.49,13.55,18.24,-4.469,18.5,25.38,-19.48,13.53,-7.942,16.0,-7.665,13.39,-16.24,-20.45,0,0,0,0,0,0,0,0,0,0,0,0,0,0,0,0,
383,-12.37,-4.51,-6.152,7.683,-3.969,-11.12,7.666,27.23,-35.93,-0.4414,-17.79,19.51,-16.8,18.31,-22.91,-14.13,0,0,0,0,0,0,0,0,0,0,0,0,0,0,0,0,
384,-22.06,8.76,-27.8,4.174,-15.06,-11.37,-5.898,23.96,-46.81,-1.303,-24.29,26.25,-20.49,24.9,-22.91,-7.511,0,0,0,0,0,0,0,0,0,0,0,0,0,0,0,0,
385,-19.4,5.617,-25.12,-2.119,-11.78,-16.58,-11.74,15.87,-44.78,4.421,-27.48,33.22,-24.77,30.57,-28.79,-6.085,0,0,0,0,0,0,0,0,0,0,0,0,0,0,0,0,
386,-17.85,-10.47,-20.31,-9.594,-9.637,-23.07,-14.76,9.423,-40.84,2.205,-33.07,33.43,-31.69,31.28,-38.49,-8.42,0,0,0,0,0,0,0,0,0,0,0,0,0,0,0,0,
387,-15.83,-1.447,-9.312,-7.864,0.2146,-17.73,-7.304,13.27,-43.01,-5.771,-33.15,34.14,-29.95,32.91,-35.49,-1.426,0,0,0,0,0,0,0,0,0,0,0,0,0,0,0,0,
388,2.201,23.84,2.837,15.65,17.02,3.547,5.912,20.56,-39.12,1.475,-28.96,34.4,-25.69,33.98,-33.44,1.739,0,0,0,0,0,0,0,0,0,0,0,0,0,0,0,0,
389,17.82,36.25,-8.655,37.61,18.45,19.22,1.199,12.23,-29.79,14.68,-27.07,20.14,-25.29,20.8,-36.21,-13.06,0,0,0,0,0,0,0,0,0,0,0,0,0,0,0,0,
390,24.0,37.16,-8.439,30.39,21.1,19.19,1.24,-2.712,-16.85,15.25,-15.16,1.748,-13.65,1.89,-22.02,-27.48,0,0,0,0,0,0,0,0,0,0,0,0,0,0,0,0,
391,30.47,30.85,18.05,13.39,31.22,15.79,14.02,-10.63,-0.345,10.61,-7.866,-13.98,-6.824,-14.26,-18.99,-47.92,0,0,0,0,0,0,0,0,0,0,0,0,0,0,0,0,
392,22.33,24.28,16.12,9.368,20.66,12.76,-0.3955,-19.98,-3.07,1.413,-31.4,-35.94,-30.59,-34.69,-54.59,-82.96,0,0,0,0,0,0,0,0,0,0,0,0,0,0,0,0,
393,5.242,31.62,-18.65,9.653,-0.9571,9.644,-26.18,-24.68,-25.91,-13.24,-61.94,-50.28,-60.71,-49.09,-84.96,-97.64,0,0,0,0,0,0,0,0,0,0,0,0,0,0,0,0,
394,-6.618,29.9,-42.67,4.715,-17.99,3.083,-28.27,-17.12,-47.15,-24.18,-70.34,-43.25,-69.86,-44.58,-78.65,-83.62,0,0,0,0,0,0,0,0,0,0,0,0,0,0,0,0,
395,-22.93,6.212,-44.96,-1.2,-32.97,-9.842,-27.47,-9.799,-62.28,-29.19,-61.71,-24.38,-62.7,-27.03,-56.71,-67.5,0,0,0,0,0,0,0,0,0,0,0,0,0,0,0,0,
396,-33.97,-8.091,-46.96,-7.137,-35.1,-22.04,-35.24,-8.313,-63.1,-26.05,-50.83,-6.292,-51.86,-8.547,-41.05,-53.24,0,0,0,0,0,0,0,0,0,0,0,0,0,0,0,0,
397,-32.57,-14.29,-57.38,-14.32,-29.16,-31.54,-34.17,-8.758,-49.75,-21.14,-43.17,8.106,-42.37,5.9,-30.21,-31.04,0,0,0,0,0,0,0,0,0,0,0,0,0,0,0,0,
398,-32.22,-21.18,-47.12,-12.89,-25.23,-34.34,-26.77,-5.545,-37.85,-23.41,-34.6,24.12,-32.3,21.93,-17.38,-3.664,0,0,0,0,0,0,0,0,0,0,0,0,0,0,0,0,
399,-32.52,-14.18,-25.69,-1.564,-23.11,-24.64,-30.02,3.01,-30.02,-23.17,-33.4,34.71,-31.54,33.07,-17.56,8.848,0,0,0,0,0,0,0,0,0,0,0,0,0,0,0,0,
400,-35.56,-14.27,-39.01,7.004,-32.55,-13.22,-39.24,9.714,-32.61,-17.68,-43.93,28.37,-43.23,26.62,-33.4,-0.517,0,0,0,0,0,0,0,0,0,0,0,0,0,0,0,0,
401,-45.02,-28.24,-61.11,8.431,-45.14,-11.0,-42.22,10.08,-45.1,-15.53,-49.42,15.53,-49.19,13.26,-38.0,-9.031,0,0,0,0,0,0,0,0,0,0,0,0,0,0,0,0,
402,-49.92,-22.08,-56.64,5.402,-44.03,-14.85,-46.41,5.724,-50.67,-15.36,-47.09,10.49,-46.17,8.055,-30.79,-8.63,0,0,0,0,0,0,0,0,0,0,0,0,0,0,0,0,
403,-40.34,2.126,-39.7,10.14,-31.07,-8.173,-40.78,4.886,-46.08,-7.963,-35.12,15.48,-33.56,12.59,-24.26,-8.662,0,0,0,0,0,0,0,0,0,0,0,0,0,0,0,0,
404,-16.24,20.85,-16.24,25.69,-10.2,12.39,-11.64,7.284,-30.43,7.801,-13.53,18.97,-12.43,16.35,-16.53,-9.928,0,0,0,0,0,0,0,0,0,0,0,0,0,0,0,0,
405,3.748,26.34,-3.572,27.39,6.035,19.62,4.514,-0.1047,-10.95,11.61,-12.35,8.101,-11.09,6.911,-20.01,-18.56,0,0,0,0,0,0,0,0,0,0,0,0,0,0,0,0,
406,5.798,19.03,-11.28,15.88,7.676,12.96,-7.83,-6.744,-4.213,0.8142,-29.08,-3.022,-28.14,-3.823,-34.24,-33.34,0,0,0,0,0,0,0,0,0,0,0,0,0,0,0,0,
407,-0.5998,11.28,-15.32,13.6,0.1271,12.93,-15.83,-2.857,-3.392,0.2342,-30.05,-4.397,-31.47,-5.818,-35.47,-36.48,0,0,0,0,0,0,0,0,0,0,0,0,0,0,0,0,
408,-10.67,11.37,-17.23,11.11,-10.64,6.322,-12.4,-7.135,-5.434,1.867,-24.23,-8.237,-25.14,-9.727,-27.01,-26.61,0,0,0,0,0,0,0,0,0,0,0,0,0,0,0,0,
409,-18.03,13.21,-24.89,2.811,-13.66,-5.159,-7.821,-14.34,-12.19,-5.604,-23.81,-7.346,-21.37,-8.342,-24.24,-17.18,0,0,0,0,0,0,0,0,0,0,0,0,0,0,0,0,
410,-13.45,10.15,-26.59,6.851,-7.05,4.331,-2.246,-5.069,-6.2,0.349,-17.11,5.148,-14.51,4.945,-20.46,-11.2,0,0,0,0,0,0,0,0,0,0,0,0,0,0,0,0,
411,-0.6946,11.85,-10.92,26.14,5.562,26.43,2.791,11.08,6.931,18.87,-11.78,13.91,-10.18,14.36,-15.9,-6.761,0,0,0,0,0,0,0,0,0,0,0,0,0,0,0,0,
412,16.22,32.79,13.41,43.55,22.81,40.96,3.779,21.8,8.124,32.28,-19.72,17.93,-16.82,18.37,-27.62,-7.437,0,0,0,0,0,0,0,0,0,0,0,0,0,0,0,0,
413,24.3,49.32,3.002,42.4,22.76,44.85,-3.563,26.78,3.74,41.47,-29.86,25.61,-26.62,24.98,-46.17,-9.798,0,0,0,0,0,0,0,0,0,0,0,0,0,0,0,0,
414,16.79,36.31,-24.06,24.06,9.55,36.31,-10.43,27.33,-0.0883,44.34,-29.98,32.7,-28.38,30.83,-42.76,-3.904,0,0,0,0,0,0,0,0,0,0,0,0,0,0,0,0,
415,8.159,13.21,-6.899,-1.1,8.839,13.33,-11.8,21.56,-5.418,35.53,-29.67,31.22,-29.62,30.3,-29.72,0.2957,0,0,0,0,0,0,0,0,0,0,0,0,0,0,0,0,
416,-2.119,-4.506,6.4,-16.95,3.69,-8.074,-19.66,9.692,-12.99,17.58,-38.08,19.73,-39.13,20.43,-36.67,-13.78,0,0,0,0,0,0,0,0,0,0,0,0,0,0,0,0,
417,-4.438,-4.194,-15.62,-1.421,0.6531,-0.7695,-19.03,4.337,-18.83,3.312,-40.52,7.81,-41.7,7.984,-49.18,-33.13,0,0,0,0,0,0,0,0,0,0,0,0,0,0,0,0,
418,20.03,24.57,-7.303,23.7,24.18,19.62,1.857,5.582,-11.84,5.378,-33.06,2.874,-33.31,1.998,-45.19,-37.47,0,0,0,0,0,0,0,0,0,0,0,0,0,0,0,0,
419,35.42,34.09,13.49,16.0,33.12,12.08,7.828,-1.025,-2.108,8.776,-31.24,-0.4672,-31.91,-1.648,-38.8,-33.71,0,0,0,0,0,0,0,0,0,0,0,0,0,0,0,0,
420,15.69,0.8552,3.63,-3.312,14.63,-8.236,-10.39,-9.173,-10.8,-3.729,-33.51,-6.218,-36.38,-6.904,-44.43,-34.99,0,0,0,0,0,0,0,0,0,0,0,0,0,0,0,0,
421,3.175,-7.574,0.5955,4.107,14.04,-3.909,-17.91,-8.256,-23.06,-16.91,-31.81,-10.61,-35.17,-9.425,-51.21,-37.16,0,0,0,0,0,0,0,0,0,0,0,0,0,0,0,0,
422,15.43,27.92,0.9181,20.46,21.35,10.14,-10.86,-6.267,-19.13,-17.89,-32.54,-10.93,-34.28,-9.101,-53.62,-38.44,0,0,0,0,0,0,0,0,0,0,0,0,0,0,0,0,
423,18.47,41.67,-14.0,15.34,9.159,3.712,-11.79,-9.879,-18.54,-17.88,-40.73,-9.852,-41.64,-9.193,-59.41,-43.98,0,0,0,0,0,0,0,0,0,0,0,0,0,0,0,0,
424,6.117,23.93,-12.51,-2.708,-1.3,-11.79,-15.11,-14.03,-30.76,-21.0,-46.35,-8.356,-46.51,-7.439,-59.76,-44.76,0,0,0,0,0,0,0,0,0,0,0,0,0,0,0,0,
425,-3.257,8.946,-8.323,-12.93,-5.543,-14.81,-8.256,-15.49,-29.45,-19.65,-40.01,-3.476,-39.28,-2.268,-48.0,-36.39,0,0,0,0,0,0,0,0,0,0,0,0,0,0,0,0,
426,-13.92,-10.91,-25.98,-18.04,-19.76,-15.26,-6.092,-18.39,-20.21,-18.1,-33.81,5.03,-34.05,4.761,-38.37,-25.55,0,0,0,0,0,0,0,0,0,0,0,0,0,0,0,0,
427,-23.89,-26.49,-29.73,-23.38,-27.68,-18.55,-14.31,-20.07,-32.64,-17.22,-35.81,14.8,-36.73,14.44,-28.25,-8.362,0,0,0,0,0,0,0,0,0,0,0,0,0,0,0,0,
428,-21.78,-15.12,-14.73,-28.32,-20.16,-16.47,-16.91,-18.47,-48.61,-8.006,-35.84,17.05,-35.5,18.11,-16.9,0.9942,0,0,0,0,0,0,0,0,0,0,0,0,0,0,0,0,
429,-20.58,-8.351,-11.59,-35.48,-15.43,-19.78,-11.57,-18.34,-47.19,-3.435,-35.52,9.626,-34.29,10.44,-24.88,-12.35,0,0,0,0,0,0,0,0,0,0,0,0,0,0,0,0,
430,-22.65,-23.76,-17.61,-36.23,-16.91,-26.22,-6.075,-9.527,-43.36,-9.563,-36.25,11.29,-34.78,11.11,-38.78,-17.14,0,0,0,0,0,0,0,0,0,0,0,0,0,0,0,0,
431,-26.4,-39.75,-31.99,-33.17,-29.0,-25.1,-11.72,5.374,-40.64,-6.974,-37.36,16.13,-36.46,16.27,-41.68,-11.41,0,0,0,0,0,0,0,0,0,0,0,0,0,0,0,0,
432,-45.46,-45.44,-43.69,-37.24,-48.89,-33.09,-30.93,0.4184,-48.19,-10.57,-53.14,-0.4163,-54.44,-0.573,-51.66,-29.46,0,0,0,0,0,0,0,0,0,0,0,0,0,0,0,0,
433,-55.37,-38.66,-25.02,-39.64,-46.35,-45.31,-30.86,-9.828,-72.97,-32.16,-58.39,-5.457,-60.49,-7.443,-47.29,-35.7,0,0,0,0,0,0,0,0,0,0,0,0,0,0,0,0,
434,-48.88,-52.24,-13.87,-50.88,-35.82,-41.63,1.451,3.879,-70.15,-25.78,-20.01,26.6,-20.55,24.77,-11.29,-1.159,0,0,0,0,0,0,0,0,0,0,0,0,0,0,0,0,
435,-60.09,-87.64,-36.88,-63.25,-44.85,-33.55,15.69,13.89,-33.16,6.475,-1.56,29.02,-2.409,29.95,-16.67,3.275,0,0,0,0,0,0,0,0,0,0,0,0,0,0,0,0,
436,-51.6,-54.85,-30.59,-24.58,-33.81,-21.87,-13.26,-6.651,-29.71,-1.424,-50.83,-25.43,-53.41,-24.36,-79.68,-44.48,0,0,0,0,0,0,0,0,0,0,0,0,0,0,0,0,
437,5.49,37.09,12.06,35.91,5.357,3.484,-31.3,-23.44,-55.98,-34.01,-81.38,-51.47,-82.61,-54.0,-95.49,-60.03,0,0,0,0,0,0,0,0,0,0,0,0,0,0,0,0,
438,36.31,66.36,17.71,41.66,17.08,19.64,-6.791,-10.97,-43.77,-24.75,-41.05,-16.54,-39.97,-20.05,-43.33,-19.03,0,0,0,0,0,0,0,0,0,0,0,0,0,0,0,0,
439,13.09,30.08,-16.95,14.17,-3.25,10.23,10.6,1.676,-10.26,3.934,1.78,15.72,1.818,15.82,-4.485,21.45,0,0,0,0,0,0,0,0,0,0,0,0,0,0,0,0,
440,-5.886,6.774,-29.22,8.169,-11.6,4.012,1.482,0.4065,-5.841,7.186,13.78,26.17,12.28,28.47,7.888,41.75,0,0,0,0,0,0,0,0,0,0,0,0,0,0,0,0,
441,5.596,15.36,-2.002,22.61,6.718,24.47,3.122,3.187,-8.815,10.71,14.6,35.97,13.73,36.91,9.445,44.14,0,0,0,0,0,0,0,0,0,0,0,0,0,0,0,0,
442,30.17,39.38,18.66,36.33,26.98,46.29,5.641,7.677,-1.254,27.33,-0.7745,35.69,-0.8416,35.65,-13.73,23.49,0,0,0,0,0,0,0,0,0,0,0,0,0,0,0,0,
443,46.51,52.68,10.99,39.44,33.71,47.09,-3.553,13.04,0.2822,35.85,-15.27,29.0,-14.47,29.3,-33.18,8.154,0,0,0,0,0,0,0,0,0,0,0,0,0,0,0,0,
444,46.67,43.87,9.48,31.17,40.33,39.17,5.672,24.83,7.272,42.73,-6.116,26.92,-4.6,27.41,-26.14,12.31,0,0,0,0,0,0,0,0,0,0,0,0,0,0,0,0,
445,32.51,28.09,10.89,12.05,33.76,22.87,12.67,21.61,18.14,40.75,-4.299,11.44,-3.626,11.78,-21.45,9.292,0,0,0,0,0,0,0,0,0,0,0,0,0,0,0,0,
446,1.378,11.23,-26.67,-3.462,-9.474,-2.404,-10.13,4.05,1.618,10.02,-18.93,-7.742,-18.8,-8.577,-16.55,7.968,0,0,0,0,0,0,0,0,0,0,0,0,0,0,0,0,
447,-26.82,-1.121,-65.43,4.338,-44.56,-8.884,-19.7,3.198,-24.29,-14.3,-15.13,1.066,-15.3,-0.9928,4.791,28.35,0,0,0,0,0,0,0,0,0,0,0,0,0,0,0,0,
448,-17.28,-0.8423,-38.18,20.57,-25.76,10.49,-2.911,16.99,-19.23,0.6804,-1.959,18.7,-4.157,17.55,10.31,34.5,0,0,0,0,0,0,0,0,0,0,0,0,0,0,0,0,
449,8.749,3.966,3.375,25.73,1.464,27.48,-4.372,23.95,-1.438,24.61,-14.64,13.32,-17.03,13.3,-16.95,8.555,0,0,0,0,0,0,0,0,0,0,0,0,0,0,0,0,
450,7.184,15.14,-9.193,33.25,-2.908,31.53,-21.19,24.79,-3.801,31.4,-33.85,6.139,-33.33,5.468,-36.93,-0.7511,0,0,0,0,0,0,0,0,0,0,0,0,0,0,0,0,
451,1.448,36.64,-13.73,42.95,0.7685,36.52,-13.08,29.31,-8.977,35.6,-24.36,16.39,-23.1,15.82,-28.3,20.44,0,0,0,0,0,0,0,0,0,0,0,0,0,0,0,0,
452,12.34,40.0,10.79,28.64,13.07,33.92,1.941,27.0,-3.93,35.9,-11.95,12.32,-12.24,13.17,-23.61,25.13,0,0,0,0,0,0,0,0,0,0,0,0,0,0,0,0,
453,-0.9684,14.13,-16.46,2.958,-13.87,11.3,-10.82,9.533,-16.75,13.53,-24.64,-12.36,-24.64,-11.9,-31.64,13.46,0,0,0,0,0,0,0,0,0,0,0,0,0,0,0,0,
454,-26.89,-3.879,-49.57,3.804,-39.72,-1.797,-17.31,1.013,-39.76,-9.268,-30.16,-19.8,-28.95,-20.35,-24.69,18.68,0,0,0,0,0,0,0,0,0,0,0,0,0,0,0,0,
455,-19.72,-6.6,-15.76,9.794,-19.45,2.196,-0.4535,4.028,-37.4,-8.183,-19.67,-13.67,-18.57,-13.44,-14.25,23.48,0,0,0,0,0,0,0,0,0,0,0,0,0,0,0,0,
456,-14.01,-18.94,-5.006,-9.777,-12.1,-8.389,-10.43,-3.505,-32.29,-6.66,-28.73,-13.56,-28.22,-13.67,-23.91,17.57,0,0,0,0,0,0,0,0,0,0,0,0,0,0,0,0,
457,-32.92,-28.87,-44.98,-20.92,-37.62,-19.15,-45.08,-6.636,-52.34,-11.39,-48.79,-5.496,-48.29,-6.971,-34.47,23.07,0,0,0,0,0,0,0,0,0,0,0,0,0,0,0,0,
458,-38.17,-27.16,-47.49,-9.45,-44.44,-8.125,-49.24,1.775,-69.95,-7.41,-47.02,6.074,-45.83,6.218,-27.8,32.5,0,0,0,0,0,0,0,0,0,0,0,0,0,0,0,0,
459,-28.2,-22.09,-25.68,1.029,-31.29,5.523,-25.0,4.587,-60.55,-3.404,-26.99,10.43,-24.94,12.6,-12.78,39.3,0,0,0,0,0,0,0,0,0,0,0,0,0,0,0,0,
460,-17.5,0.8746,-23.24,14.37,-17.67,20.0,-7.603,10.47,-31.29,5.616,-4.802,20.18,-2.602,21.66,-1.07,53.79,0,0,0,0,0,0,0,0,0,0,0,0,0,0,0,0,
461,2.841,28.77,-8.609,25.21,4.402,37.4,7.802,17.53,-0.1609,27.01,15.63,29.07,17.11,30.36,9.623,61.94,0,0,0,0,0,0,0,0,0,0,0,0,0,0,0,0,
462,23.13,32.8,14.29,24.46,26.18,40.97,32.84,10.0,21.85,37.52,29.65,23.66,30.21,25.81,21.49,53.15,0,0,0,0,0,0,0,0,0,0,0,0,0,0,0,0,
463,25.56,24.2,3.079,25.33,23.21,29.8,33.94,-0.3114,31.11,30.58,22.06,8.166,22.05,10.0,13.91,34.02,0,0,0,0,0,0,0,0,0,0,0,0,0,0,0,0,
464,12.55,9.062,-22.6,17.39,-0.5076,12.06,-3.083,-3.005,14.31,18.11,-5.891,-9.613,-6.414,-8.698,-12.98,9.644,0,0,0,0,0,0,0,0,0,0,0,0,0,0,0,0,
465,-2.205,-5.107,-20.18,1.113,-15.77,-0.7569,-26.98,-1.447,-19.08,4.558,-26.49,-18.04,-26.85,-18.21,-26.78,-6.657,0,0,0,0,0,0,0,0,0,0,0,0,0,0,0,0,
466,-14.71,-2.558,-11.94,1.006,-21.67,-0.5797,-23.02,2.72,-36.33,-2.854,-35.49,-17.35,-34.47,-17.98,-32.42,-9.034,0,0,0,0,0,0,0,0,0,0,0,0,0,0,0,0,
467,-31.52,-7.404,-28.4,6.63,-37.49,2.27,-25.19,10.31,-47.64,-6.263,-43.81,-13.97,-42.53,-13.67,-40.29,-1.368,0,0,0,0,0,0,0,0,0,0,0,0,0,0,0,0,
468,-39.96,-19.79,-41.61,7.558,-46.57,2.684,-19.98,22.2,-64.31,-10.97,-31.14,4.525,-31.2,4.559,-18.76,25.59,0,0,0,0,0,0,0,0,0,0,0,0,0,0,0,0,
469,-28.32,-10.57,-34.65,6.901,-34.83,-1.924,1.596,26.12,-55.59,-7.665,1.492,32.23,1.294,31.07,21.79,63.98,0,0,0,0,0,0,0,0,0,0,0,0,0,0,0,0,
470,-24.15,-10.75,-34.16,-8.102,-32.94,-17.76,-3.786,14.96,-33.73,1.454,5.762,38.59,6.072,39.01,23.01,77.15,0,0,0,0,0,0,0,0,0,0,0,0,0,0,0,0,
471,-48.32,-41.09,-59.22,-27.15,-57.84,-32.45,-37.75,3.287,-39.77,0.7195,-27.11,20.95,-26.95,23.75,-14.97,52.52,0,0,0,0,0,0,0,0,0,0,0,0,0,0,0,0,
472,-78.33,-61.36,-101.4,-33.62,-86.78,-39.36,-62.98,-5.077,-56.67,-10.7,-58.23,-5.529,-57.78,-3.19,-48.98,10.35,0,0,0,0,0,0,0,0,0,0,0,0,0,0,0,0,
473,-91.46,-64.89,-123.0,-38.17,-100.3,-47.33,-80.41,-17.02,-67.98,-25.79,-81.07,-37.04,-80.37,-35.88,-73.83,-32.13,0,0,0,0,0,0,0,0,0,0,0,0,0,0,0,0,
474,-88.01,-67.78,-100.8,-33.4,-94.98,-45.04,-92.02,-22.62,-90.81,-40.12,-100.5,-57.69,-99.58,-56.63,-89.78,-54.41,0,0,0,0,0,0,0,0,0,0,0,0,0,0,0,0,
475,-71.09,-54.51,-72.04,-11.79,-75.24,-23.4,-83.66,-11.16,-102.6,-39.54,-95.75,-50.14,-94.02,-49.69,-77.15,-40.86,0,0,0,0,0,0,0,0,0,0,0,0,0,0,0,0,
476,-53.24,-35.37,-71.51,-2.912,-62.18,-9.741,-77.89,0.4418,-85.35,-23.37,-80.69,-35.29,-78.34,-36.26,-54.55,-18.94,0,0,0,0,0,0,0,0,0,0,0,0,0,0,0,0,
477,-53.56,-41.1,-79.08,-12.62,-66.49,-17.69,-82.43,-6.218,-78.16,-19.75,-79.18,-32.99,-76.76,-34.45,-47.65,-12.22,0,0,0,0,0,0,0,0,0,0,0,0,0,0,0,0,
478,-56.86,-44.44,-68.2,-10.51,-62.26,-18.42,-60.62,-13.26,-80.28,-27.43,-64.52,-27.28,-62.45,-27.35,-34.3,0.0814,0,0,0,0,0,0,0,0,0,0,0,0,0,0,0,0,
479,-39.58,-16.22,-43.71,2.439,-39.63,-5.53,-28.1,-6.845,-57.49,-19.49,-34.88,-15.85,-32.93,-14.91,-10.92,19.53,0,0,0,0,0,0,0,0,0,0,0,0,0,0,0,0,
480,-20.4,3.877,-30.35,6.061,-24.25,-0.9589,-24.39,-2.969,-35.37,-8.539,-22.6,-9.753,-20.38,-10.18,-0.3436,27.73,0,0,0,0,0,0,0,0,0,0,0,0,0,0,0,0,
481,-15.34,-6.022,-38.18,6.373,-20.1,3.855,-26.11,-0.6027,-34.97,-4.874,-17.01,1.442,-16.23,0.6833,9.334,33.41,0,0,0,0,0,0,0,0,0,0,0,0,0,0,0,0,
482,-8.279,-11.89,-38.18,10.76,-10.84,18.45,-15.03,11.28,-29.12,10.16,-5.251,15.98,-5.486,17.73,26.38,38.65,0,0,0,0,0,0,0,0,0,0,0,0,0,0,0,0,
483,4.649,-2.721,-13.05,15.57,1.591,25.63,-7.755,23.4,-15.21,26.04,0.512,19.06,2.754,21.86,33.16,34.48,0,0,0,0,0,0,0,0,0,0,0,0,0,0,0,0,
484,11.78,9.305,0.9786,22.98,6.059,25.71,-1.882,29.15,-6.287,30.92,4.423,20.91,7.979,22.31,33.84,35.44,0,0,0,0,0,0,0,0,0,0,0,0,0,0,0,0,
485,13.78,20.49,-10.23,28.83,4.288,29.39,8.696,31.53,2.83,42.08,12.21,31.33,13.75,31.82,41.0,48.76,0,0,0,0,0,0,0,0,0,0,0,0,0,0,0,0,
486,12.71,15.11,-14.82,19.95,3.277,26.78,16.48,27.76,8.849,49.87,18.37,33.42,18.28,33.75,41.77,52.18,0,0,0,0,0,0,0,0,0,0,0,0,0,0,0,0,
487,3.015,-9.711,-13.07,-3.052,-1.583,9.295,16.75,15.03,4.253,31.23,17.6,18.3,16.93,18.41,26.18,38.07,0,0,0,0,0,0,0,0,0,0,0,0,0,0,0,0,
488,-6.899,-23.11,-14.37,-14.94,-8.127,-6.163,12.44,10.13,-3.747,6.144,9.582,8.212,9.295,7.887,11.95,32.81,0,0,0,0,0,0,0,0,0,0,0,0,0,0,0,0,
489,-9.439,-15.27,-12.07,-0.3502,-11.15,-3.464,4.588,25.97,-10.17,1.212,1.425,13.3,2.059,11.95,9.466,43.11,0,0,0,0,0,0,0,0,0,0,0,0,0,0,0,0,
490,-22.67,-10.12,-30.2,12.06,-27.91,-0.1247,-12.61,36.59,-23.69,3.149,-8.42,13.04,-7.549,10.74,6.453,43.89,0,0,0,0,0,0,0,0,0,0,0,0,0,0,0,0,
491,-39.31,-13.37,-56.74,8.674,-47.18,-3.146,-27.09,33.6,-41.2,2.934,-18.43,9.772,-16.33,8.099,3.664,42.83,0,0,0,0,0,0,0,0,0,0,0,0,0,0,0,0,
492,-26.21,-7.656,-39.51,16.47,-33.89,9.509,-21.81,40.84,-41.22,17.58,-14.39,17.26,-11.16,17.52,9.37,59.81,0,0,0,0,0,0,0,0,0,0,0,0,0,0,0,0,
493,-3.922,6.166,-12.23,25.81,-13.4,23.22,-7.027,44.96,-26.8,35.37,-1.551,17.13,-0.1138,18.17,17.23,69.85,0,0,0,0,0,0,0,0,0,0,0,0,0,0,0,0,
494,-9.253,0.0666,-22.97,13.94,-19.64,13.65,4.023,34.7,-21.32,32.47,4.787,4.186,4.305,4.505,18.97,56.8,0,0,0,0,0,0,0,0,0,0,0,0,0,0,0,0,
495,-26.24,-30.19,-29.84,5.148,-29.73,1.408,3.871,29.94,-26.14,22.36,-0.1631,-5.295,-0.3785,-4.954,9.067,41.1,0,0,0,0,0,0,0,0,0,0,0,0,0,0,0,0,
496,-29.62,-36.11,-12.92,9.243,-25.48,-1.14,-0.9155,24.17,-33.34,15.59,-12.37,-10.69,-11.2,-10.58,-1.596,33.47,0,0,0,0,0,0,0,0,0,0,0,0,0,0,0,0,
497,-19.22,-3.606,-10.24,7.241,-17.59,-2.615,10.18,15.71,-36.78,8.732,-14.96,-7.381,-12.43,-8.946,2.225,32.23,0,0,0,0,0,0,0,0,0,0,0,0,0,0,0,0,
498,-12.3,9.01,-21.1,3.097,-18.37,-3.254,12.55,20.15,-31.69,8.964,-11.13,4.575,-9.098,2.997,3.211,31.97,0,0,0,0,0,0,0,0,0,0,0,0,0,0,0,0,
499,-22.54,-8.967,-22.53,5.939,-28.62,-6.996,-15.79,25.48,-32.09,9.75,-19.31,9.515,-18.37,9.524,-3.223,30.2,0,0,0,0,0,0,0,0,0,0,0,0,0,0,0,0,
500,-32.56,-12.37,-23.13,11.33,-33.3,-10.01,-25.0,27.11,-40.42,5.855,-22.14,10.87,-20.45,10.82,4.713,38.24,0,0,0,0,0,0,0,0,0,0,0,0,0,0,0,0,
501,-25.77,-4.614,-24.34,16.06,-25.86,-2.27,2.366,32.47,-34.05,10.95,-7.162,10.75,-4.965,10.56,12.98,49.96,0,0,0,0,0,0,0,0,0,0,0,0,0,0,0,0,
502,-15.59,-4.103,-11.88,16.82,-15.79,6.053,17.48,30.63,-19.46,17.97,1.988,-1.991,3.486,-1.075,9.075,44.21,0,0,0,0,0,0,0,0,0,0,0,0,0,0,0,0,
503,-10.65,-2.813,2.891,16.02,-7.383,8.931,9.406,25.81,-21.54,14.51,1.126,-13.44,1.633,-13.19,15.86,30.21,0,0,0,0,0,0,0,0,0,0,0,0,0,0,0,0,
504,-2.267,3.619,8.947,24.69,1.238,16.17,6.064,30.53,-29.01,13.13,4.122,-11.38,3.272,-12.97,30.34,26.15,0,0,0,0,0,0,0,0,0,0,0,0,0,0,0,0,
505,8.169,19.29,11.68,37.54,6.326,21.53,9.176,32.18,-25.09,16.29,7.045,-10.32,6.873,-11.49,33.93,26.7,0,0,0,0,0,0,0,0,0,0,0,0,0,0,0,0,
506,6.214,29.81,3.369,38.53,0.6786,14.73,2.648,27.48,-23.65,13.13,3.996,-10.3,6.078,-10.18,32.13,27.86,0,0,0,0,0,0,0,0,0,0,0,0,0,0,0,0,
507,-3.738,18.46,-4.769,33.9,-5.78,8.643,-5.887,32.4,-29.77,9.448,-2.078,-4.083,-0.3496,-4.142,27.99,29.7,0,0,0,0,0,0,0,0,0,0,0,0,0,0,0,0,
508,-2.586,9.374,11.45,33.71,1.131,10.63,-0.9614,39.11,-31.49,8.044,-8.675,-2.368,-7.431,-3.033,19.82,25.77,0,0,0,0,0,0,0,0,0,0,0,0,0,0,0,0,
509,7.835,15.51,34.23,36.4,12.17,12.95,8.57,32.6,-31.06,1.07,-11.71,-1.326,-8.963,-2.608,15.67,24.68,0,0,0,0,0,0,0,0,0,0,0,0,0,0,0,0,
510,17.02,25.87,40.77,47.37,16.9,18.23,13.26,27.29,-29.35,-2.928,-8.812,6.757,-6.681,5.405,17.36,33.85,0,0,0,0,0,0,0,0,0,0,0,0,0,0,0,0,
511,17.38,35.04,30.75,55.16,11.76,21.85,13.45,28.72,-26.0,-0.0407,-2.502,4.13,-1.656,4.711,21.53,38.0,0,0,0,0,0,0,0,0,0,0,0,0,0,0,0,0,
512,5.715,27.91,15.98,41.12,0.517,16.74,13.14,22.35,-29.32,-2.349,9.014,-6.849,10.36,-5.07,27.63,36.46,0,0,0,0,0,0,0,0,0,0,0,0,0,0,0,0,
513,1.314,14.65,21.21,23.44,2.796,15.78,23.74,14.58,-24.63,-2.945,21.17,-5.42,21.55,-5.803,29.71,39.52,0,0,0,0,0,0,0,0,0,0,0,0,0,0,0,0,
514,6.711,19.54,29.28,19.49,9.608,17.47,31.76,15.66,-6.374,4.41,19.61,-0.532,19.58,-2.728,28.77,40.23,0,0,0,0,0,0,0,0,0,0,0,0,0,0,0,0,
515,0.2808,23.95,4.58,29.38,-2.667,18.6,15.83,21.96,-4.662,10.47,9.799,1.717,11.77,0.4447,33.48,41.72,0,0,0,0,0,0,0,0,0,0,0,0,0,0,0,0,
516,-8.16,20.51,-17.34,49.37,-16.66,31.15,-3.79,30.95,-18.26,19.94,5.203,8.132,6.31,7.891,33.6,47.92,0,0,0,0,0,0,0,0,0,0,0,0,0,0,0,0,
517,-9.325,21.86,-4.676,47.69,-18.66,33.22,-3.992,33.25,-25.26,26.86,2.088,8.536,1.165,8.429,21.38,42.8,0,0,0,0,0,0,0,0,0,0,0,0,0,0,0,0,
518,-16.26,12.41,5.123,20.63,-18.34,11.41,6.324,24.48,-30.03,16.32,-1.341,1.76,-0.2375,1.42,8.087,25.61,0,0,0,0,0,0,0,0,0,0,0,0,0,0,0,0,
519,-22.35,-3.122,-5.355,12.64,-17.72,-1.734,6.243,13.07,-33.16,3.447,-7.913,-6.709,-5.002,-7.598,-9.569,7.494,0,0,0,0,0,0,0,0,0,0,0,0,0,0,0,0,
520,-20.89,-0.5252,-10.61,19.78,-19.35,-0.2498,-7.622,3.308,-35.06,-2.111,-19.9,-17.95,-18.44,-18.41,-27.25,-3.799,0,0,0,0,0,0,0,0,0,0,0,0,0,0,0,0,
521,-15.54,5.058,0.3658,17.25,-15.64,5.039,-9.131,3.928,-39.68,-5.182,-21.33,-15.5,-20.62,-15.21,-20.09,5.298,0,0,0,0,0,0,0,0,0,0,0,0,0,0,0,0,
522,-5.078,0.8654,16.05,24.18,-2.901,18.38,1.341,15.67,-37.4,0.9922,-15.55,-0.4876,-14.18,-0.9608,-1.358,23.41,0,0,0,0,0,0,0,0,0,0,0,0,0,0,0,0,
523,-1.884,6.721,15.45,36.39,-6.107,21.0,-6.805,19.3,-38.54,5.441,-20.92,-3.906,-19.67,-3.595,2.552,22.75,0,0,0,0,0,0,0,0,0,0,0,0,0,0,0,0,
524,-11.54,20.59,-7.441,25.54,-23.6,4.19,-18.38,10.68,-52.32,-5.931,-22.46,-22.03,-21.79,-18.42,5.594,11.36,0,0,0,0,0,0,0,0,0,0,0,0,0,0,0,0,
525,-12.85,26.18,-16.96,12.14,-21.46,-2.512,-10.07,2.93,-51.55,-16.06,-11.27,-29.13,-10.39,-25.78,16.13,8.405,0,0,0,0,0,0,0,0,0,0,0,0,0,0,0,0,
526,2.445,34.94,10.04,25.81,-1.099,10.36,-2.474,0.8662,-28.65,-14.57,-4.612,-29.09,-3.148,-29.5,22.2,9.909,0,0,0,0,0,0,0,0,0,0,0,0,0,0,0,0,
527,14.98,43.66,31.99,44.51,10.93,23.81,-1.762,2.546,-6.324,-11.62,-0.6479,-33.05,0.011,-34.57,23.21,11.25,0,0,0,0,0,0,0,0,0,0,0,0,0,0,0,0,
528,10.8,31.94,20.25,42.2,8.21,26.28,-1.235,6.107,0.2274,-13.25,-1.608,-36.61,-2.478,-37.88,12.17,12.4,0,0,0,0,0,0,0,0,0,0,0,0,0,0,0,0,
529,-5.484,17.82,-0.4126,32.43,-7.707,15.46,-17.85,10.22,-20.76,-20.75,-24.72,-34.95,-24.81,-36.76,-15.42,10.69,0,0,0,0,0,0,0,0,0,0,0,0,0,0,0,0,
530,-22.54,15.46,-16.01,32.36,-29.68,5.147,-41.72,12.34,-56.23,-27.98,-47.98,-28.16,-46.16,-28.88,-33.05,10.21,0,0,0,0,0,0,0,0,0,0,0,0,0,0,0,0,
531,-19.75,15.42,-14.69,39.31,-27.09,17.55,-38.39,12.47,-65.92,-23.78,-44.97,-19.55,-44.38,-19.77,-29.78,11.22,0,0,0,0,0,0,0,0,0,0,0,0,0,0,0,0,
532,7.819,30.41,9.366,42.71,2.926,36.14,-24.22,15.04,-49.43,-12.32,-41.74,-15.9,-43.96,-17.4,-30.53,5.6,0,0,0,0,0,0,0,0,0,0,0,0,0,0,0,0,
533,26.31,55.68,15.85,42.36,17.02,33.51,-29.31,20.78,-41.33,-4.713,-52.46,-15.76,-54.4,-16.75,-35.98,3.512,0,0,0,0,0,0,0,0,0,0,0,0,0,0,0,0,
534,25.82,64.6,0.0522,48.54,10.99,30.03,-29.12,25.46,-41.78,1.72,-49.03,-9.348,-48.81,-10.2,-25.16,18.06,0,0,0,0,0,0,0,0,0,0,0,0,0,0,0,0,
535,26.76,58.94,4.928,48.57,11.32,35.29,-8.23,23.08,-31.23,8.538,-29.04,-1.211,-28.51,-3.817,-6.015,28.46,0,0,0,0,0,0,0,0,0,0,0,0,0,0,0,0,
536,23.07,49.2,22.39,38.87,11.29,28.82,1.148,15.97,-19.06,6.538,-19.46,-7.464,-20.34,-9.38,0.8164,14.52,0,0,0,0,0,0,0,0,0,0,0,0,0,0,0,0,
537,18.25,47.92,22.88,48.85,5.931,24.71,-10.27,13.74,-23.44,-4.143,-26.02,-25.5,-27.62,-26.17,-4.465,-2.139,0,0,0,0,0,0,0,0,0,0,0,0,0,0,0,0,
538,18.54,51.16,6.949,53.9,-2.228,28.38,-14.35,13.07,-33.88,-12.04,-27.5,-35.62,-28.11,-37.32,-3.407,4.16,0,0,0,0,0,0,0,0,0,0,0,0,0,0,0,0,
539,0.824,30.13,-10.44,26.77,-15.95,18.18,-3.596,8.856,-29.79,-12.61,-19.71,-40.64,-19.37,-41.34,3.172,11.74,0,0,0,0,0,0,0,0,0,0,0,0,0,0,0,0,
540,-14.59,11.24,-7.011,28.09,-18.95,9.57,-6.235,4.103,-30.99,-19.7,-38.1,-62.12,-37.86,-60.85,-16.24,-11.69,0,0,0,0,0,0,0,0,0,0,0,0,0,0,0,0,
541,1.919,35.13,10.75,63.59,-10.4,15.51,-27.09,-1.596,-64.15,-41.82,-75.1,-80.86,-74.4,-81.4,-45.06,-34.28,0,0,0,0,0,0,0,0,0,0,0,0,0,0,0,0,
542,16.54,64.4,13.17,66.56,-5.401,21.93,-27.91,-0.2989,-84.61,-47.95,-66.67,-62.19,-65.65,-64.94,-30.35,-13.66,0,0,0,0,0,0,0,0,0,0,0,0,0,0,0,0,
543,16.57,64.59,6.135,50.03,4.688,30.43,-6.318,10.51,-53.28,-19.62,-25.92,-31.47,-26.25,-34.0,3.868,18.3,0,0,0,0,0,0,0,0,0,0,0,0,0,0,0,0,
544,22.13,50.43,10.08,45.8,15.85,34.01,3.756,16.3,-20.22,5.002,-12.28,-20.14,-13.83,-22.74,14.02,30.11,0,0,0,0,0,0,0,0,0,0,0,0,0,0,0,0,
545,19.36,34.59,15.2,40.39,8.529,21.65,1.453,20.16,-18.06,6.822,-14.61,-13.93,-16.39,-16.51,15.26,38.43,0,0,0,0,0,0,0,0,0,0,0,0,0,0,0,0,
546,1.956,26.4,2.904,42.04,-11.26,10.33,-9.562,29.55,-24.14,5.292,-19.07,-11.74,-21.33,-13.25,8.989,40.5,0,0,0,0,0,0,0,0,0,0,0,0,0,0,0,0,
547,-13.82,25.67,-21.7,48.31,-31.4,6.072,-32.9,30.97,-40.19,-1.162,-38.9,-23.64,-41.49,-25.19,-12.32,23.16,0,0,0,0,0,0,0,0,0,0,0,0,0,0,0,0,
548,-31.84,19.36,-42.99,36.43,-50.26,-3.561,-47.43,18.83,-65.5,-18.84,-56.68,-35.91,-58.41,-38.35,-26.97,0.3399,0,0,0,0,0,0,0,0,0,0,0,0,0,0,0,0,
549,-48.72,8.864,-50.4,26.47,-56.28,-9.506,-42.34,6.817,-74.41,-33.33,-59.47,-35.9,-59.51,-38.5,-29.13,-6.739,0,0,0,0,0,0,0,0,0,0,0,0,0,0,0,0,
550,-40.19,0.9452,-36.52,34.31,-40.18,2.395,-33.34,4.79,-64.46,-29.87,-55.85,-24.32,-54.73,-26.55,-24.88,7.947,0,0,0,0,0,0,0,0,0,0,0,0,0,0,0,0,
551,-18.97,-3.382,-26.14,31.34,-27.19,11.23,-37.09,1.838,-53.94,-14.84,-52.25,-16.53,-50.66,-17.3,-18.93,18.32,0,0,0,0,0,0,0,0,0,0,0,0,0,0,0,0,
552,-19.28,-0.2658,-42.1,15.01,-36.2,-2.542,-51.76,-6.903,-56.72,-13.32,-55.31,-23.97,-53.32,-22.99,-21.88,6.889,0,0,0,0,0,0,0,0,0,0,0,0,0,0,0,0,
553,-24.43,11.3,-45.02,16.47,-35.68,-8.269,-56.68,-2.205,-63.06,-20.81,-57.36,-27.87,-55.55,-27.64,-23.35,-1.045,0,0,0,0,0,0,0,0,0,0,0,0,0,0,0,0,
554,-6.77,27.78,-20.04,32.29,-10.7,14.87,-47.5,12.06,-49.81,-10.01,-44.81,-19.12,-43.44,-20.27,-10.1,3.587,0,0,0,0,0,0,0,0,0,0,0,0,0,0,0,0,
555,15.35,43.1,-4.217,40.5,11.29,36.64,-30.8,17.86,-20.94,10.25,-21.31,-11.11,-20.12,-11.43,7.876,10.78,0,0,0,0,0,0,0,0,0,0,0,0,0,0,0,0,
556,22.69,45.95,-0.5319,45.98,16.76,42.67,-8.898,25.18,5.135,24.76,0.4351,-0.8764,0.9522,-0.5341,22.0,28.33,0,0,0,0,0,0,0,0,0,0,0,0,0,0,0,0,
557,19.72,41.25,-5.777,53.24,9.241,47.43,0.2813,33.63,20.58,39.55,9.805,14.51,9.953,14.75,30.33,45.38,0,0,0,0,0,0,0,0,0,0,0,0,0,0,0,0,
558,17.88,49.08,-14.07,53.62,6.451,49.93,-4.766,30.5,25.86,48.3,7.844,20.15,7.931,21.2,30.47,42.23,0,0,0,0,0,0,0,0,0,0,0,0,0,0,0,0,
559,19.5,50.36,-5.431,44.94,13.24,41.46,-11.0,24.97,26.09,42.74,-2.207,11.46,-3.25,11.76,22.6,33.24,0,0,0,0,0,0,0,0,0,0,0,0,0,0,0,0,
560,3.81,20.04,-19.18,32.68,-7.577,26.89,-28.69,24.27,12.09,29.4,-18.35,3.207,-19.48,1.655,14.1,35.14,0,0,0,0,0,0,0,0,0,0,0,0,0,0,0,0,
561,-26.99,0.4756,-68.57,26.56,-47.49,17.75,-47.12,24.7,-14.77,17.93,-23.39,5.241,-23.24,4.92,20.85,44.1,0,0,0,0,0,0,0,0,0,0,0,0,0,0,0,0,
562,-36.11,13.02,-77.35,22.82,-50.81,13.94,-40.98,22.48,-19.62,13.59,-11.19,10.34,-11.81,10.62,40.31,53.16,0,0,0,0,0,0,0,0,0,0,0,0,0,0,0,0,
563,-24.84,9.756,-41.46,12.57,-29.4,9.09,-24.43,16.33,-0.4055,10.3,2.188,15.63,0.4771,12.69,49.82,56.02,0,0,0,0,0,0,0,0,0,0,0,0,0,0,0,0,
564,-22.48,-9.665,-32.36,10.65,-23.78,7.736,-19.05,14.09,8.268,5.592,10.0,25.2,9.837,21.81,49.91,52.15,0,0,0,0,0,0,0,0,0,0,0,0,0,0,0,0,
565,-24.32,-7.644,-49.17,20.96,-23.81,13.52,-24.07,19.7,8.178,11.56,16.66,34.14,17.73,33.44,60.24,52.67,0,0,0,0,0,0,0,0,0,0,0,0,0,0,0,0,
566,-12.71,6.825,-46.76,24.7,-11.27,24.18,-23.45,27.51,22.97,31.96,31.58,40.59,31.87,39.63,77.99,59.2,0,0,0,0,0,0,0,0,0,0,0,0,0,0,0,0,
567,3.039,16.08,-28.09,24.44,3.442,36.88,-6.731,28.91,49.23,51.73,51.09,43.44,51.38,42.47,84.74,58.82,0,0,0,0,0,0,0,0,0,0,0,0,0,0,0,0,
568,8.292,17.86,-20.85,29.43,7.722,44.37,5.548,22.42,66.77,55.49,52.11,41.23,53.62,42.92,84.0,59.93,0,0,0,0,0,0,0,0,0,0,0,0,0,0,0,0,
569,13.64,15.66,-19.7,35.02,11.08,48.62,-2.769,25.02,66.74,51.03,38.86,48.33,40.82,50.26,89.3,79.55,0,0,0,0,0,0,0,0,0,0,0,0,0,0,0,0,
570,25.83,24.9,-15.97,43.69,18.0,59.92,-14.03,37.96,56.91,57.83,34.36,62.7,36.2,64.0,90.32,96.47,0,0,0,0,0,0,0,0,0,0,0,0,0,0,0,0,
571,35.35,44.57,-22.06,55.99,20.66,76.61,-8.94,41.1,52.59,75.04,39.05,60.46,40.99,63.74,81.68,88.45,0,0,0,0,0,0,0,0,0,0,0,0,0,0,0,0,
572,49.51,58.32,-16.61,59.08,32.65,85.29,9.868,35.9,66.66,88.31,48.24,43.4,49.93,47.11,80.93,71.07,0,0,0,0,0,0,0,0,0,0,0,0,0,0,0,0,
573,61.96,59.92,13.13,49.08,47.43,74.2,20.31,27.58,84.34,84.67,53.56,24.86,54.83,26.31,83.51,59.11,0,0,0,0,0,0,0,0,0,0,0,0,0,0,0,0,
574,44.92,48.03,15.77,39.8,30.1,55.5,12.72,17.28,73.99,62.21,45.54,11.0,47.12,11.23,74.21,55.33,0,0,0,0,0,0,0,0,0,0,0,0,0,0,0,0,
575,18.53,35.56,-14.72,43.11,2.846,52.78,5.668,22.62,49.52,45.97,38.59,16.28,40.72,16.38,68.13,62.11,0,0,0,0,0,0,0,0,0,0,0,0,0,0,0,0,
576,17.27,37.7,-26.99,54.33,3.338,58.97,4.625,38.51,46.14,51.87,41.39,35.49,42.47,35.38,74.34,67.75,0,0,0,0,0,0,0,0,0,0,0,0,0,0,0,0,
577,23.54,38.63,-23.47,58.47,8.755,57.69,-2.178,42.97,50.14,59.13,43.2,45.97,41.82,46.12,77.4,63.93,0,0,0,0,0,0,0,0,0,0,0,0,0,0,0,0,
578,18.99,27.55,-25.93,49.15,2.927,56.22,-8.451,46.63,42.57,59.22,43.3,53.43,41.78,53.6,73.22,61.49,0,0,0,0,0,0,0,0,0,0,0,0,0,0,0,0,
579,13.87,29.0,-30.07,41.18,-1.318,58.97,-5.106,57.76,39.22,65.46,39.94,64.15,40.6,64.1,65.37,59.64,0,0,0,0,0,0,0,0,0,0,0,0,0,0,0,0,
580,13.53,47.61,-34.36,44.78,-3.889,56.78,-2.08,56.88,42.03,70.33,28.54,59.14,28.72,60.38,55.26,47.0,0,0,0,0,0,0,0,0,0,0,0,0,0,0,0,0,
581,19.0,50.92,-23.35,45.3,1.83,47.95,-5.122,42.36,40.21,61.59,21.15,42.97,19.28,45.12,51.82,33.62,0,0,0,0,0,0,0,0,0,0,0,0,0,0,0,0,
582,23.91,32.76,-0.2829,38.02,13.32,37.62,-5.824,30.62,38.92,47.54,21.51,37.8,20.43,37.86,50.07,30.28,0,0,0,0,0,0,0,0,0,0,0,0,0,0,0,0,
583,10.96,15.03,-6.963,29.58,3.438,24.48,-4.486,21.18,34.74,30.26,18.89,34.75,19.08,34.01,40.64,25.16,0,0,0,0,0,0,0,0,0,0,0,0,0,0,0,0,
584,-13.07,-2.581,-38.03,11.28,-21.91,7.407,-8.184,10.57,23.25,8.13,17.51,22.59,17.67,24.84,39.85,16.14,0,0,0,0,0,0,0,0,0,0,0,0,0,0,0,0,
585,-25.31,-19.67,-54.95,-8.078,-36.61,-3.568,-12.65,3.289,20.3,-2.606,19.34,13.07,20.28,16.06,46.96,13.75,0,0,0,0,0,0,0,0,0,0,0,0,0,0,0,0,
586,-24.65,-16.79,-50.39,-5.069,-38.06,-0.2604,-12.15,-2.814,26.91,1.741,12.51,9.813,12.94,10.38,41.19,12.15,0,0,0,0,0,0,0,0,0,0,0,0,0,0,0,0,
587,-17.36,-3.429,-34.41,9.076,-28.09,11.09,-13.41,-4.121,27.1,6.108,1.047,7.648,-1.033,7.565,35.92,5.048,0,0,0,0,0,0,0,0,0,0,0,0,0,0,0,0,
588,-12.13,-3.35,-40.72,13.74,-24.03,17.71,-25.22,3.792,18.93,8.227,-3.946,7.621,-5.59,7.148,42.86,1.85,0,0,0,0,0,0,0,0,0,0,0,0,0,0,0,0,
589,-20.95,-6.689,-72.24,10.16,-40.57,14.01,-37.08,8.639,7.084,9.817,-0.0713,13.85,1.112,11.96,49.94,10.83,0,0,0,0,0,0,0,0,0,0,0,0,0,0,0,0,
590,-33.41,-10.06,-75.85,0.4394,-53.46,4.718,-39.48,7.745,-0.7136,10.49,9.19,25.05,10.3,23.47,56.97,22.49,0,0,0,0,0,0,0,0,0,0,0,0,0,0,0,0,
591,-45.06,-27.84,-71.66,-7.445,-62.07,-5.801,-54.11,8.736,-2.551,10.14,1.894,26.82,1.39,25.08,52.06,17.5,0,0,0,0,0,0,0,0,0,0,0,0,0,0,0,0,
592,-61.42,-35.88,-102.0,1.371,-78.78,-10.66,-78.78,11.56,-10.41,1.419,-26.12,21.52,-26.21,17.84,28.48,5.523,0,0,0,0,0,0,0,0,0,0,0,0,0,0,0,0,
593,-59.56,-16.83,-114.8,14.88,-75.18,-2.605,-77.04,19.45,-18.32,-4.878,-38.74,32.85,-37.99,29.33,16.3,11.38,0,0,0,0,0,0,0,0,0,0,0,0,0,0,0,0,
594,-39.56,-5.024,-91.86,15.81,-53.81,7.893,-60.92,26.82,-14.31,6.304,-28.57,50.6,-27.83,48.78,17.25,18.3,0,0,0,0,0,0,0,0,0,0,0,0,0,0,0,0,
595,-29.31,-5.109,-75.85,17.18,-43.35,11.65,-57.78,24.66,-6.285,15.0,-19.79,50.22,-18.8,48.75,10.46,4.322,0,0,0,0,0,0,0,0,0,0,0,0,0,0,0,0,
596,-22.73,-2.449,-74.19,18.78,-38.77,12.08,-55.06,21.32,4.119,9.451,-14.64,41.32,-13.03,39.7,7.234,-10.15,0,0,0,0,0,0,0,0,0,0,0,0,0,0,0,0,
597,-18.56,-17.88,-79.65,6.007,-37.86,8.679,-48.2,16.61,12.72,5.421,-10.04,34.85,-7.997,33.16,12.49,-7.642,0,0,0,0,0,0,0,0,0,0,0,0,0,0,0,0,
598,-20.13,-30.05,-71.1,1.938,-31.33,11.29,-34.35,7.957,13.76,7.089,-1.859,32.43,-1.004,30.98,22.48,4.785,0,0,0,0,0,0,0,0,0,0,0,0,0,0,0,0,
599,-1.998,0.4698,-44.93,21.68,-6.119,27.76,-6.732,10.11,26.96,14.69,20.56,40.96,18.24,40.45,46.06,18.94,0,0,0,0,0,0,0,0,0,0,0,0,0,0,0,0,
600,24.98,33.95,-36.46,36.41,11.78,38.06,7.667,16.0,50.1,25.84,36.51,44.8,32.87,45.01,58.88,20.01,0,0,0,0,0,0,0,0,0,0,0,0,0,0,0,0,
601,23.89,29.16,-41.24,26.19,4.958,26.16,-12.98,-2.122,49.01,17.71,13.76,17.61,12.14,18.5,27.78,-9.777,0,0,0,0,0,0,0,0,0,0,0,0,0,0,0,0,
602,1.171,4.941,-54.55,-1.122,-18.66,2.501,-52.41,-35.97,22.49,-15.92,-29.91,-26.86,-30.42,-25.71,-18.11,-56.92,0,0,0,0,0,0,0,0,0,0,0,0,0,0,0,0,
603,-11.51,-7.168,-76.75,-14.47,-36.76,-6.75,-72.99,-45.54,0.9496,-39.4,-47.93,-48.15,-49.34,-48.54,-31.29,-83.15,0,0,0,0,0,0,0,0,0,0,0,0,0,0,0,0,
604,2.479,3.817,-60.92,2.89,-18.86,6.454,-55.2,-26.15,2.684,-28.52,-36.69,-38.82,-37.45,-40.06,-19.95,-81.68,0,0,0,0,0,0,0,0,0,0,0,0,0,0,0,0,
605,13.18,4.468,-35.44,13.4,-0.898,11.18,-41.93,-13.27,11.11,-11.78,-35.06,-31.22,-33.24,-31.08,-23.25,-83.52,0,0,0,0,0,0,0,0,0,0,0,0,0,0,0,0,
606,-14.07,-26.47,-62.49,-0.1935,-32.04,-4.227,-66.78,-14.65,-6.662,-20.41,-57.55,-40.27,-54.22,-39.36,-48.89,-97.3,0,0,0,0,0,0,0,0,0,0,0,0,0,0,0,0,
607,-45.99,-46.71,-99.3,-10.44,-70.98,-15.47,-91.99,-10.77,-40.24,-38.42,-78.57,-41.94,-76.05,-41.47,-67.07,-96.57,0,0,0,0,0,0,0,0,0,0,0,0,0,0,0,0,
608,-52.55,-36.58,-116.8,-13.66,-81.0,-20.55,-94.01,-2.62,-50.98,-41.3,-81.29,-27.92,-80.37,-27.47,-64.12,-78.62,0,0,0,0,0,0,0,0,0,0,0,0,0,0,0,0,
609,-56.7,-19.91,-119.1,-8.82,-78.98,-27.21,-88.17,2.839,-47.07,-38.79,-75.18,-21.07,-74.2,-21.25,-61.27,-70.2,0,0,0,0,0,0,0,0,0,0,0,0,0,0,0,0,
610,-59.3,-11.16,-89.33,4.429,-70.07,-25.93,-76.52,10.47,-53.83,-41.26,-58.84,-11.33,-56.5,-13.75,-52.02,-56.55,0,0,0,0,0,0,0,0,0,0,0,0,0,0,0,0,
611,-52.71,-27.49,-80.32,-1.353,-66.15,-16.16,-61.73,20.28,-48.43,-27.24,-22.83,24.76,-20.82,21.16,-14.05,-13.57,0,0,0,0,0,0,0,0,0,0,0,0,0,0,0,0,
612,-57.38,-56.36,-116.3,-14.02,-78.06,-8.915,-53.97,22.48,-20.15,2.734,0.9318,46.29,0.879,44.38,10.68,4.514,0,0,0,0,0,0,0,0,0,0,0,0,0,0,0,0,
613,-60.91,-42.86,-110.5,5.554,-75.0,-6.136,-49.9,13.33,-13.19,4.955,-16.58,22.16,-17.73,21.5,-10.06,-33.35,0,0,0,0,0,0,0,0,0,0,0,0,0,0,0,0,
614,-38.16,5.741,-63.87,33.04,-48.58,-3.563,-48.25,2.663,-34.64,-20.73,-42.82,-3.73,-43.77,-5.088,-32.31,-61.35,0,0,0,0,0,0,0,0,0,0,0,0,0,0,0,0,
615,-24.23,18.98,-62.27,26.67,-41.54,-8.366,-58.62,-4.642,-47.56,-34.94,-54.41,-11.0,-54.73,-12.81,-39.81,-56.91,0,0,0,0,0,0,0,0,0,0,0,0,0,0,0,0,
616,-42.13,-9.368,-88.22,6.853,-58.7,-19.44,-70.69,-5.861,-53.62,-37.89,-58.17,-13.2,-57.5,-16.21,-44.73,-53.09,0,0,0,0,0,0,0,0,0,0,0,0,0,0,0,0,
617,-49.18,-23.91,-90.49,6.157,-62.75,-15.74,-65.26,3.034,-58.77,-35.43,-45.95,-5.251,-45.27,-9.951,-32.37,-49.22,0,0,0,0,0,0,0,0,0,0,0,0,0,0,0,0,
618,-39.21,-17.09,-94.74,8.443,-61.58,-5.309,-60.13,4.078,-55.41,-26.57,-34.21,-4.83,-35.12,-9.174,-25.41,-55.12,0,0,0,0,0,0,0,0,0,0,0,0,0,0,0,0,
619,-42.02,-15.93,-102.8,-0.362,-66.98,-7.27,-65.3,-6.761,-56.54,-31.06,-42.26,-21.43,-44.0,-25.05,-44.04,-73.82,0,0,0,0,0,0,0,0,0,0,0,0,0,0,0,0,
620,-33.37,-14.05,-75.93,0.3185,-45.5,-4.395,-51.28,-4.85,-46.03,-36.05,-40.28,-21.88,-40.83,-24.55,-43.36,-68.32,0,0,0,0,0,0,0,0,0,0,0,0,0,0,0,0,
621,-2.947,-4.591,-44.41,10.27,-10.61,5.742,-26.63,1.604,-9.712,-20.38,-21.71,-9.191,-21.51,-9.696,-16.73,-48.34,0,0,0,0,0,0,0,0,0,0,0,0,0,0,0,0,
622,8.082,3.079,-47.29,15.24,-5.917,8.621,-21.16,-4.1,7.042,-10.82,-12.43,-10.73,-12.98,-11.16,-6.175,-46.83,0,0,0,0,0,0,0,0,0,0,0,0,0,0,0,0,
623,4.741,16.53,-49.65,22.83,-7.443,17.02,-18.11,-5.072,-0.2635,-14.5,-6.811,-15.8,-7.569,-17.28,-10.58,-47.79,0,0,0,0,0,0,0,0,0,0,0,0,0,0,0,0,
624,18.69,31.88,-31.48,25.78,9.993,29.07,-11.02,2.743,8.718,-8.767,0.5486,-11.26,-0.7988,-12.21,-11.57,-40.26,0,0,0,0,0,0,0,0,0,0,0,0,0,0,0,0,
625,36.45,26.09,-16.02,13.08,24.05,25.74,-17.05,6.343,18.5,0.2578,-0.1802,-5.284,-4.212,-7.022,-9.526,-34.29,0,0,0,0,0,0,0,0,0,0,0,0,0,0,0,0,
626,42.65,9.977,-7.907,9.382,29.7,18.97,-20.27,6.72,12.88,3.114,0.9531,-3.7,-4.015,-6.632,-3.529,-25.76,0,0,0,0,0,0,0,0,0,0,0,0,0,0,0,0,
627,43.67,8.611,-4.699,20.39,32.24,21.29,-10.16,6.623,15.85,6.667,6.734,-3.705,4.576,-5.593,-0.8798,-17.49,0,0,0,0,0,0,0,0,0,0,0,0,0,0,0,0,
628,32.19,6.479,-14.48,13.12,18.1,14.97,-11.12,0.0454,18.22,4.763,-2.437,-4.893,-2.459,-7.01,-13.73,-24.39,0,0,0,0,0,0,0,0,0,0,0,0,0,0,0,0,
629,5.481,-9.697,-34.23,-6.604,-7.749,-4.147,-26.13,-10.27,-1.652,-10.75,-20.21,-6.922,-20.03,-10.85,-29.98,-38.78,0,0,0,0,0,0,0,0,0,0,0,0,0,0,0,0,
630,-11.64,-12.28,-45.6,-2.483,-20.36,-10.83,-31.35,-4.527,-19.98,-20.82,-18.74,1.644,-18.06,-2.04,-29.59,-35.94,0,0,0,0,0,0,0,0,0,0,0,0,0,0,0,0,
631,-10.52,0.9437,-38.23,13.95,-17.92,-0.52,-22.87,17.34,-15.95,-8.472,-3.899,17.09,-3.487,14.1,-18.29,-20.75,0,0,0,0,0,0,0,0,0,0,0,0,0,0,0,0,
632,-7.678,2.61,-28.42,18.64,-14.29,8.907,-13.7,28.5,-4.721,6.292,-0.1317,14.57,-1.377,11.12,-17.72,-24.14,0,0,0,0,0,0,0,0,0,0,0,0,0,0,0,0,
633,-7.393,0.3375,-34.31,23.32,-13.26,15.38,-14.64,26.11,1.724,6.266,-8.329,-1.734,-10.1,-4.329,-31.04,-43.15,0,0,0,0,0,0,0,0,0,0,0,0,0,0,0,0,
634,-10.37,4.968,-44.49,31.7,-14.94,20.05,-24.2,24.57,3.311,4.553,-12.65,-6.025,-13.57,-7.362,-31.05,-41.94,0,0,0,0,0,0,0,0,0,0,0,0,0,0,0,0,
635,-11.91,12.21,-35.04,35.69,-11.64,22.38,-16.45,19.0,5.584,9.607,2.859,1.506,1.91,-0.3991,-1.945,-15.71,0,0,0,0,0,0,0,0,0,0,0,0,0,0,0,0,
636,-0.9274,26.65,-14.38,29.82,-1.024,24.29,10.75,1.706,19.01,15.35,29.1,6.33,27.32,4.306,26.47,5.689,0,0,0,0,0,0,0,0,0,0,0,0,0,0,0,0,
637,3.722,28.0,-16.42,9.86,-2.438,18.79,18.78,-21.04,32.96,16.14,38.92,2.882,36.99,2.011,32.2,9.331,0,0,0,0,0,0,0,0,0,0,0,0,0,0,0,0,
638,-4.205,7.536,-33.14,1.838,-9.21,14.29,13.69,-37.39,33.8,10.83,39.54,-9.085,37.86,-9.45,32.51,4.161,0,0,0,0,0,0,0,0,0,0,0,0,0,0,0,0,
639,4.223,4.357,-24.34,15.17,5.245,19.7,29.98,-42.36,35.32,4.139,49.72,-22.84,47.65,-22.17,33.83,-4.002,0,0,0,0,0,0,0,0,0,0,0,0,0,0,0,0,
640,23.32,23.68,7.047,19.13,28.24,21.76,47.86,-35.0,42.82,3.181,56.38,-26.78,53.02,-24.45,27.85,-10.2,0,0,0,0,0,0,0,0,0,0,0,0,0,0,0,0,
641,32.07,38.79,26.71,22.94,37.69,26.98,41.62,-17.04,45.34,11.54,48.99,-23.77,44.7,-22.24,14.99,-13.7,0,0,0,0,0,0,0,0,0,0,0,0,0,0,0,0,
642,31.36,45.28,22.18,35.62,33.56,36.27,27.97,-4.004,40.2,17.47,36.49,-24.19,33.24,-25.13,0.2838,-19.92,0,0,0,0,0,0,0,0,0,0,0,0,0,0,0,0,
643,18.8,39.21,8.302,25.59,20.89,26.25,25.15,1.01,29.19,9.743,28.76,-19.69,26.81,-21.07,-3.27,-24.42,0,0,0,0,0,0,0,0,0,0,0,0,0,0,0,0,
644,4.919,24.16,-2.728,5.99,7.715,9.803,25.15,11.17,19.23,3.879,23.71,-4.859,20.84,-5.049,-2.344,-26.81,0,0,0,0,0,0,0,0,0,0,0,0,0,0,0,0,
645,0.0811,14.86,-14.7,4.733,-3.788,3.707,10.23,16.56,6.74,4.533,6.095,3.491,1.971,3.054,-22.79,-36.12,0,0,0,0,0,0,0,0,0,0,0,0,0,0,0,0,
646,-10.32,4.49,-20.11,4.734,-15.03,-7.971,-14.51,10.65,-21.95,-7.615,-23.48,-0.4578,-26.87,-2.332,-51.32,-48.22,0,0,0,0,0,0,0,0,0,0,0,0,0,0,0,0,
647,-29.33,-16.88,-26.77,-2.047,-30.83,-23.83,-36.1,9.253,-53.13,-25.49,-48.15,-4.406,-50.2,-6.607,-60.81,-56.08,0,0,0,0,0,0,0,0,0,0,0,0,0,0,0,0,
648,-47.97,-32.95,-59.42,-1.167,-57.1,-30.49,-57.58,13.47,-69.84,-29.11,-62.93,-2.29,-64.76,-4.248,-59.04,-59.78,0,0,0,0,0,0,0,0,0,0,0,0,0,0,0,0,
649,-56.36,-24.48,-75.51,11.5,-67.64,-29.98,-71.41,15.71,-80.26,-26.37,-68.41,0.3937,-70.27,-2.413,-57.94,-61.8,0,0,0,0,0,0,0,0,0,0,0,0,0,0,0,0,
650,-48.37,-8.467,-47.43,19.7,-49.48,-27.24,-68.31,9.644,-83.68,-30.24,-66.26,-3.642,-67.3,-7.897,-58.85,-69.24,0,0,0,0,0,0,0,0,0,0,0,0,0,0,0,0,
651,-37.15,-3.463,-37.89,14.83,-34.64,-19.36,-53.57,-13.26,-69.55,-33.12,-60.21,-13.17,-61.25,-17.44,-62.15,-78.14,0,0,0,0,0,0,0,0,0,0,0,0,0,0,0,0,
652,-15.27,15.82,-35.03,20.8,-13.54,1.227,-26.06,-41.26,-42.3,-26.75,-45.06,-23.15,-47.46,-25.79,-61.89,-75.59,0,0,0,0,0,0,0,0,0,0,0,0,0,0,0,0,
653,27.99,46.11,8.494,35.23,29.81,22.01,6.069,-51.89,-11.34,-18.12,-17.22,-26.18,-19.43,-28.34,-55.19,-60.79,0,0,0,0,0,0,0,0,0,0,0,0,0,0,0,0,
654,44.21,40.11,15.27,25.37,40.42,20.8,19.39,-46.84,18.65,-10.15,4.391,-23.26,3.268,-25.08,-54.68,-47.97,0,0,0,0,0,0,0,0,0,0,0,0,0,0,0,0,
655,21.06,18.86,-20.98,11.76,18.2,9.874,14.5,-44.68,36.3,-6.547,-3.262,-38.46,-5.067,-37.48,-68.53,-56.82,0,0,0,0,0,0,0,0,0,0,0,0,0,0,0,0,
656,35.03,45.27,19.31,29.48,41.05,17.21,18.85,-42.68,36.31,-17.61,-18.58,-67.11,-20.5,-65.22,-74.48,-77.1,0,0,0,0,0,0,0,0,0,0,0,0,0,0,0,0,
657,87.73,94.5,84.72,53.13,80.81,34.08,32.64,-28.64,35.17,-25.6,-11.31,-70.48,-11.64,-70.75,-59.44,-77.77,0,0,0,0,0,0,0,0,0,0,0,0,0,0,0,0,T1
658,79.72,86.25,44.07,48.25,47.52,24.08,17.27,-18.55,26.85,-19.16,-9.889,-56.41,-10.11,-57.31,-49.04,-65.37,0,0,0,0,0,0,0,0,0,0,0,0,0,0,0,0,
659,5.035,20.12,-27.13,21.23,-20.3,-12.55,-21.52,-17.4,-11.47,-26.0,-30.85,-48.91,-32.61,-50.96,-49.86,-58.83,0,0,0,0,0,0,0,0,0,0,0,0,0,0,0,0,
660,-44.78,-26.09,-40.8,-2.017,-47.34,-33.12,-39.23,-4.323,-48.63,-40.3,-43.13,-36.7,-46.16,-40.81,-49.59,-55.59,0,0,0,0,0,0,0,0,0,0,0,0,0,0,0,0,
661,-48.11,-19.68,-56.03,-0.0335,-54.26,-24.18,-52.02,14.86,-52.14,-31.83,-51.08,-23.86,-54.66,-27.03,-59.63,-59.62,0,0,0,0,0,0,0,0,0,0,0,0,0,0,0,0,
662,-40.97,4.661,-80.56,24.1,-61.61,-7.93,-84.09,27.99,-48.43,-15.03,-68.39,-21.14,-70.62,-23.72,-77.87,-69.4,0,0,0,0,0,0,0,0,0,0,0,0,0,0,0,0,
663,-33.07,20.72,-76.16,43.89,-55.29,5.109,-95.97,37.61,-48.67,-8.454,-72.05,-15.71,-71.45,-19.16,-84.87,-70.38,0,0,0,0,0,0,0,0,0,0,0,0,0,0,0,0,
664,-23.59,28.68,-57.71,50.84,-38.12,15.71,-64.94,36.67,-33.3,-2.188,-56.89,-6.598,-55.03,-8.521,-80.28,-62.02,0,0,0,0,0,0,0,0,0,0,0,0,0,0,0,0,
665,-9.78,29.65,-25.44,52.1,-13.23,23.04,-26.04,27.17,-8.292,8.958,-38.5,-2.055,-37.08,-2.777,-69.22,-49.16,0,0,0,0,0,0,0,0,0,0,0,0,0,0,0,0,
666,4.231,20.32,-1.891,41.06,2.303,23.94,-10.08,16.56,4.207,17.49,-23.51,0.7766,-22.34,-0.3653,-56.02,-33.08,0,0,0,0,0,0,0,0,0,0,0,0,0,0,0,0,
667,4.367,8.463,-14.42,28.85,-2.386,19.84,-0.4585,4.478,3.531,19.26,-12.24,1.972,-11.94,1.551,-44.34,-18.8,0,0,0,0,0,0,0,0,0,0,0,0,0,0,0,0,
668,-1.638,5.522,-12.07,32.06,-1.478,16.97,16.75,-2.029,7.902,17.15,-2.259,-5.225,-3.108,-6.158,-33.35,-14.44,0,0,0,0,0,0,0,0,0,0,0,0,0,0,0,0,
669,-5.862,4.437,4.469,31.29,-1.03,12.51,10.83,-6.492,13.55,9.573,1.263,-21.18,0.8341,-24.07,-29.66,-23.57,0,0,0,0,0,0,0,0,0,0,0,0,0,0,0,0,
670,-13.49,5.065,-15.2,22.81,-16.15,6.422,-13.16,-15.61,5.591,-1.614,-3.113,-33.28,-3.146,-35.15,-34.23,-34.01,0,0,0,0,0,0,0,0,0,0,0,0,0,0,0,0,
671,-20.63,10.01,-38.15,20.97,-21.72,5.006,-14.22,-16.54,2.299,-4.209,-2.574,-29.29,-2.929,-29.27,-34.18,-28.82,0,0,0,0,0,0,0,0,0,0,0,0,0,0,0,0,
672,-24.41,5.215,-41.84,20.38,-16.85,9.299,-9.987,-3.865,17.03,4.177,4.255,-9.508,4.466,-10.7,-26.33,-6.902,0,0,0,0,0,0,0,0,0,0,0,0,0,0,0,0,
673,-20.07,4.737,-52.17,28.93,-17.68,21.14,-28.57,10.41,30.47,19.25,0.8803,12.44,1.258,10.07,-23.07,15.55,0,0,0,0,0,0,0,0,0,0,0,0,0,0,0,0,
674,-11.09,19.98,-59.16,42.96,-18.85,31.48,-49.31,15.63,28.67,33.01,-14.51,23.32,-14.1,21.15,-25.17,25.97,0,0,0,0,0,0,0,0,0,0,0,0,0,0,0,0,
675,-9.145,24.69,-45.89,40.04,-10.36,34.09,-41.77,20.6,23.43,38.58,-9.811,34.32,-7.226,30.86,-13.02,33.0,0,0,0,0,0,0,0,0,0,0,0,0,0,0,0,0,
676,-0.5852,23.26,-21.14,33.69,10.27,38.75,-4.505,36.84,40.94,49.21,21.91,50.23,25.88,46.74,3.1,33.52,0,0,0,0,0,0,0,0,0,0,0,0,0,0,0,0,
677,6.422,22.74,-13.93,27.37,11.81,31.74,15.26,42.91,67.19,57.65,32.65,48.32,34.81,47.98,-8.477,13.78,0,0,0,0,0,0,0,0,0,0,0,0,0,0,0,0,
678,-13.65,2.237,-33.51,10.3,-15.59,10.05,0.0218,28.75,61.18,39.97,20.9,36.06,21.63,36.84,-19.8,2.021,0,0,0,0,0,0,0,0,0,0,0,0,0,0,0,0,
679,-21.29,-12.27,-26.43,6.985,-10.85,8.805,9.885,20.68,51.77,22.4,34.07,35.09,35.14,34.74,1.604,14.74,0,0,0,0,0,0,0,0,0,0,0,0,0,0,0,0,
680,12.81,10.89,24.76,20.28,34.13,25.23,49.25,19.89,76.03,27.4,53.59,27.45,53.85,27.54,11.12,11.07,0,0,0,0,0,0,0,0,0,0,0,0,0,0,0,0,
681,35.07,37.68,40.95,29.77,44.53,31.04,50.9,14.0,86.76,29.75,40.85,7.229,39.43,8.045,-16.59,-15.87,0,0,0,0,0,0,0,0,0,0,0,0,0,0,0,0,
682,15.59,35.66,-2.042,40.56,11.12,32.43,22.08,11.46,59.09,26.02,21.2,-4.363,20.74,-2.892,-36.16,-29.21,0,0,0,0,0,0,0,0,0,0,0,0,0,0,0,0,
683,4.248,35.18,-15.58,53.4,2.705,41.95,20.44,10.81,42.42,29.97,22.77,-6.846,24.57,-4.561,-25.48,-25.12,0,0,0,0,0,0,0,0,0,0,0,0,0,0,0,0,
684,26.15,62.47,13.31,60.3,24.17,53.91,35.4,7.157,55.54,34.51,32.79,-7.702,33.89,-6.822,-10.65,-18.28,0,0,0,0,0,0,0,0,0,0,0,0,0,0,0,0,
685,30.33,70.8,10.7,58.45,19.55,50.46,28.37,5.265,60.68,30.76,28.85,-13.25,28.12,-14.0,-13.82,-17.5,0,0,0,0,0,0,0,0,0,0,0,0,0,0,0,0,
686,11.52,46.55,6.968,50.29,6.224,29.22,7.782,1.804,35.24,10.86,4.922,-25.82,4.993,-26.13,-30.07,-24.96,0,0,0,0,0,0,0,0,0,0,0,0,0,0,0,0,
687,11.78,44.32,6.513,49.39,5.283,18.87,-18.39,5.36,2.824,-10.94,-18.15,-15.98,-16.19,-16.4,-32.84,-16.3,0,0,0,0,0,0,0,0,0,0,0,0,0,0,0,0,
688,-8.604,34.02,-78.57,52.11,-32.63,27.99,-53.3,30.16,-4.499,4.959,-21.96,21.06,-19.35,20.5,-19.95,9.519,0,0,0,0,0,0,0,0,0,0,0,0,0,0,0,0,
689,-46.71,-7.761,-122.7,47.83,-54.36,34.32,-61.16,48.38,7.921,39.46,-25.28,25.55,-23.57,26.3,-30.43,3.115,0,0,0,0,0,0,0,0,0,0,0,0,0,0,0,0,
690,-0.0843,19.62,13.38,53.03,23.84,37.59,-26.67,36.11,12.66,32.71,-36.36,-9.309,-35.88,-8.882,-57.62,-28.93,0,0,0,0,0,0,0,0,0,0,0,0,0,0,0,0,
691,92.57,104.8,134.9,69.43,104.6,52.56,13.19,26.83,18.22,11.2,-21.27,-16.11,-20.93,-17.45,-48.28,-25.31,0,0,0,0,0,0,0,0,0,0,0,0,0,0,0,0,
692,115.7,118.9,130.6,66.38,112.4,64.22,42.97,30.58,49.0,26.79,14.5,2.052,14.34,0.7497,-20.94,0.3423,0,0,0,0,0,0,0,0,0,0,0,0,0,0,0,0,
693,103.8,78.08,144.8,36.42,116.3,50.69,67.57,18.16,74.85,37.93,27.2,-1.093,25.97,-1.722,-18.51,4.702,0,0,0,0,0,0,0,0,0,0,0,0,0,0,0,0,
694,106.2,62.17,174.3,12.29,124.8,34.46,86.33,8.412,67.7,21.39,34.54,-1.551,33.47,-2.625,-7.923,10.26,0,0,0,0,0,0,0,0,0,0,0,0,0,0,0,0,
695,92.44,60.08,142.8,13.2,103.4,38.7,99.55,19.3,65.85,25.93,61.21,20.7,59.66,19.14,25.09,31.66,0,0,0,0,0,0,0,0,0,0,0,0,0,0,0,0,
696,72.15,51.73,121.6,16.4,87.0,38.74,95.61,21.95,81.04,43.28,69.24,37.39,66.59,36.02,37.06,44.2,0,0,0,0,0,0,0,0,0,0,0,0,0,0,0,0,
697,68.84,37.97,131.7,9.041,87.62,26.81,75.12,19.88,77.16,36.73,48.91,44.72,47.22,43.58,24.9,45.93,0,0,0,0,0,0,0,0,0,0,0,0,0,0,0,0,
698,60.74,22.51,105.9,7.647,74.41,25.76,58.56,29.9,62.51,28.78,36.18,53.76,35.56,52.19,17.12,51.6,0,0,0,0,0,0,0,0,0,0,0,0,0,0,0,0,
699,47.47,22.41,69.55,9.427,58.12,27.62,50.22,33.28,64.93,34.29,36.3,59.67,36.68,58.32,17.64,62.4,0,0,0,0,0,0,0,0,0,0,0,0,0,0,0,0,
700,45.78,24.55,74.95,-1.444,57.56,16.07,44.07,27.21,70.23,34.65,35.06,58.83,38.58,58.91,22.57,68.1,0,0,0,0,0,0,0,0,0,0,0,0,0,0,0,0,
701,41.25,10.93,84.01,-12.03,54.44,4.243,35.46,30.23,58.9,26.17,33.66,55.42,37.82,55.37,31.61,65.31,0,0,0,0,0,0,0,0,0,0,0,0,0,0,0,0,
702,35.23,11.54,75.38,-2.923,51.28,8.541,25.67,42.86,44.39,21.1,32.24,59.54,33.03,58.05,30.94,62.62,0,0,0,0,0,0,0,0,0,0,0,0,0,0,0,0,
703,44.61,29.22,77.89,13.32,61.9,22.4,20.94,50.08,45.93,27.79,21.04,66.4,21.19,65.53,9.2,56.03,0,0,0,0,0,0,0,0,0,0,0,0,0,0,0,0,
704,51.04,32.13,75.57,19.96,66.87,32.33,19.64,46.95,56.22,39.1,9.4,61.65,12.04,62.53,-6.146,43.84,0,0,0,0,0,0,0,0,0,0,0,0,0,0,0,0,
705,55.27,36.19,76.24,28.54,74.96,45.1,36.73,44.62,70.06,47.59,25.57,57.4,29.16,58.26,11.25,46.74,0,0,0,0,0,0,0,0,0,0,0,0,0,0,0,0,
706,79.13,53.33,112.3,40.07,103.4,60.64,83.29,44.24,98.5,57.49,63.62,67.34,66.78,66.89,35.79,66.66,0,0,0,0,0,0,0,0,0,0,0,0,0,0,0,0,
707,93.67,58.81,126.4,36.43,113.2,59.49,115.1,42.38,127.6,66.38,87.26,81.31,89.41,80.95,44.64,83.09,0,0,0,0,0,0,0,0,0,0,0,0,0,0,0,0,
708,84.59,57.9,100.1,27.62,99.55,49.75,101.5,45.05,133.7,71.21,84.84,93.83,85.58,95.0,49.37,91.05,0,0,0,0,0,0,0,0,0,0,0,0,0,0,0,0,
709,86.5,55.7,108.3,28.27,104.5,50.59,79.93,45.76,123.1,77.29,71.97,105.9,72.43,107.1,52.72,94.75,0,0,0,0,0,0,0,0,0,0,0,0,0,0,0,0,
710,100.0,42.94,142.4,23.98,120.8,51.54,78.75,38.94,109.4,81.84,65.14,108.8,66.0,109.7,50.43,95.47,0,0,0,0,0,0,0,0,0,0,0,0,0,0,0,0,
711,105.6,40.03,141.6,11.53,122.9,45.08,84.65,35.43,97.31,79.37,71.43,104.7,73.43,106.9,54.24,104.2,0,0,0,0,0,0,0,0,0,0,0,0,0,0,0,0,
712,101.5,43.44,113.2,9.658,114.4,42.49,88.62,38.21,96.37,78.29,86.59,105.3,90.25,107.2,67.15,117.9,0,0,0,0,0,0,0,0,0,0,0,0,0,0,0,0,
713,91.12,33.34,101.0,19.69,108.4,44.02,90.75,36.37,105.8,79.9,89.18,91.07,91.57,91.77,60.42,98.93,0,0,0,0,0,0,0,0,0,0,0,0,0,0,0,0,
714,87.0,33.78,114.4,20.4,110.3,38.15,88.24,26.36,107.3,64.67,70.59,59.29,70.42,59.66,37.19,61.53,0,0,0,0,0,0,0,0,0,0,0,0,0,0,0,0,
715,77.27,33.52,90.1,0.8846,95.09,25.91,88.12,29.31,107.3,47.14,74.2,65.49,74.15,64.91,54.83,75.99,0,0,0,0,0,0,0,0,0,0,0,0,0,0,0,0,
716,38.76,-6.651,22.18,-24.16,54.34,14.1,93.4,46.03,122.3,61.6,105.6,95.71,105.6,96.52,89.73,107.5,0,0,0,0,0,0,0,0,0,0,0,0,0,0,0,0,
717,17.05,-37.53,38.02,-32.84,44.89,0.972,94.95,38.28,114.4,66.91,95.46,75.36,95.2,79.05,66.43,79.83,0,0,0,0,0,0,0,0,0,0,0,0,0,0,0,0,
718,55.08,-9.432,145.1,-20.48,89.48,-2.478,101.9,20.11,67.92,31.45,61.72,49.76,63.54,51.24,41.66,57.71,0,0,0,0,0,0,0,0,0,0,0,0,0,0,0,0,
719,98.83,25.41,189.9,-9.177,127.2,14.64,121.8,34.22,53.88,24.6,83.57,82.23,85.9,81.12,81.59,95.28,0,0,0,0,0,0,0,0,0,0,0,0,0,0,0,0,
720,103.3,29.33,155.8,-15.09,129.6,32.84,134.3,53.04,94.85,64.65,121.9,110.3,122.5,111.5,112.1,120.5,0,0,0,0,0,0,0,0,0,0,0,0,0,0,0,0,
721,101.1,26.27,139.6,-20.23,131.1,38.32,131.5,50.36,129.8,85.33,115.7,100.8,116.5,102.3,91.88,105.5,0,0,0,0,0,0,0,0,0,0,0,0,0,0,0,0,
722,107.8,20.28,142.1,-15.51,136.7,39.09,123.3,47.95,137.5,79.83,99.04,95.36,99.91,93.87,73.16,89.72,0,0,0,0,0,0,0,0,0,0,0,0,0,0,0,0,
723,104.0,14.77,131.7,-15.36,127.2,36.48,114.5,49.43,132.7,77.02,98.33,97.75,98.28,96.43,74.06,86.57,0,0,0,0,0,0,0,0,0,0,0,0,0,0,0,0,
724,91.6,23.81,120.5,-19.35,111.4,27.89,113.8,48.24,120.3,73.24,97.13,96.28,97.74,97.68,76.69,92.19,0,0,0,0,0,0,0,0,0,0,0,0,0,0,0,0,
725,75.37,21.46,109.0,-23.62,94.36,14.42,114.0,46.83,107.1,62.46,88.12,88.77,89.28,91.05,67.86,87.29,0,0,0,0,0,0,0,0,0,0,0,0,0,0,0,0,
726,53.61,-2.443,96.29,-29.34,73.37,3.041,105.2,41.12,89.39,45.37,78.37,72.07,79.1,73.33,52.92,70.42,0,0,0,0,0,0,0,0,0,0,0,0,0,0,0,0,
727,45.61,-8.982,103.2,-26.5,73.68,3.855,112.3,34.76,78.13,34.1,82.29,66.5,83.11,67.28,56.57,74.26,0,0,0,0,0,0,0,0,0,0,0,0,0,0,0,0,
728,62.38,8.451,127.4,-14.26,99.52,13.39,132.7,36.4,94.14,43.11,94.76,77.09,94.13,77.97,69.77,86.1,0,0,0,0,0,0,0,0,0,0,0,0,0,0,0,0,
729,81.91,24.1,131.4,-2.284,110.4,23.85,128.1,42.31,104.5,53.78,94.2,79.87,91.43,79.71,70.92,79.44,0,0,0,0,0,0,0,0,0,0,0,0,0,0,0,0,
730,88.89,34.19,112.6,8.691,102.6,34.45,116.1,48.19,83.85,48.59,89.36,79.97,87.15,79.22,76.71,82.12,0,0,0,0,0,0,0,0,0,0,0,0,0,0,0,0,
731,87.17,35.08,108.0,9.711,99.65,34.39,109.3,52.37,66.35,43.06,78.77,82.55,77.11,83.86,69.82,88.17,0,0,0,0,0,0,0,0,0,0,0,0,0,0,0,0,
732,64.76,11.98,95.05,-14.26,72.92,8.272,55.92,40.38,40.85,33.34,24.15,62.51,22.43,65.14,10.37,54.34,0,0,0,0,0,0,0,0,0,0,0,0,0,0,0,0,
733,19.27,-23.28,45.68,-47.47,19.23,-27.95,-16.03,11.11,-23.58,0.4352,-46.05,32.46,-45.93,32.87,-51.6,10.1,0,0,0,0,0,0,0,0,0,0,0,0,0,0,0,0,
734,-9.776,-45.84,19.93,-63.13,-0.8374,-42.76,-26.28,-5.97,-67.97,-29.13,-65.15,21.6,-65.32,20.6,-64.76,-7.58,0,0,0,0,0,0,0,0,0,0,0,0,0,0,0,0,
735,-15.81,-62.17,27.23,-68.34,-0.1092,-47.94,-22.77,-9.062,-68.19,-35.29,-66.53,8.716,-68.54,9.152,-72.02,-25.14,0,0,0,0,0,0,0,0,0,0,0,0,0,0,0,0,
736,-34.3,-74.49,3.795,-72.26,-29.2,-62.76,-53.34,-18.94,-89.43,-45.99,-89.48,-10.86,-88.81,-10.78,-87.84,-38.41,0,0,0,0,0,0,0,0,0,0,0,0,0,0,0,0,
737,-52.11,-64.22,-29.38,-69.69,-52.41,-66.41,-53.71,-25.86,-116.9,-60.3,-89.3,-13.35,-86.32,-15.53,-85.39,-30.36,0,0,0,0,0,0,0,0,0,0,0,0,0,0,0,0,
738,-48.84,-54.82,-28.67,-73.99,-45.95,-62.43,-22.66,-27.37,-102.8,-60.92,-67.48,-17.15,-66.1,-19.64,-82.03,-31.97,0,0,0,0,0,0,0,0,0,0,0,0,0,0,0,0,
739,-46.91,-67.76,-9.749,-81.88,-39.02,-69.15,-12.55,-29.31,-87.93,-62.44,-62.37,-25.88,-60.22,-26.99,-78.35,-36.35,0,0,0,0,0,0,0,0,0,0,0,0,0,0,0,0,
740,-48.11,-69.24,12.99,-72.79,-32.46,-66.09,-10.69,-21.33,-87.63,-59.67,-57.83,-13.28,-54.31,-12.83,-60.28,-17.39,0,0,0,0,0,0,0,0,0,0,0,0,0,0,0,0,
741,-44.72,-59.48,20.18,-62.94,-26.62,-54.75,-9.414,-16.48,-76.01,-48.13,-49.06,2.242,-47.69,2.798,-49.88,0.6787,0,0,0,0,0,0,0,0,0,0,0,0,0,0,0,0,
742,-43.17,-64.21,10.21,-61.05,-24.15,-54.29,-11.29,-17.81,-67.39,-50.24,-44.52,7.342,-43.86,6.355,-42.3,15.87,0,0,0,0,0,0,0,0,0,0,0,0,0,0,0,0,
743,-37.19,-63.35,10.37,-56.75,-15.33,-53.7,1.023,-6.01,-60.06,-53.26,-29.78,18.18,-28.15,17.65,-27.31,35.7,0,0,0,0,0,0,0,0,0,0,0,0,0,0,0,0,
744,-33.46,-54.48,11.59,-63.25,-14.22,-55.85,10.19,-1.376,-44.7,-44.59,-19.71,21.61,-19.6,22.98,-29.78,32.05,0,0,0,0,0,0,0,0,0,0,0,0,0,0,0,0,
745,-40.13,-59.97,9.391,-71.29,-18.95,-64.7,2.68,-15.0,-44.44,-47.16,-28.77,11.07,-29.83,12.36,-39.3,16.21,0,0,0,0,0,0,0,0,0,0,0,0,0,0,0,0,
746,-38.9,-60.94,11.33,-57.49,-13.53,-58.17,0.5051,-18.44,-52.59,-54.57,-32.32,7.266,-32.6,7.71,-32.67,17.29,0,0,0,0,0,0,0,0,0,0,0,0,0,0,0,0,
747,-23.8,-38.39,3.776,-39.89,-5.009,-38.05,9.192,-8.784,-46.03,-45.53,-22.82,12.64,-22.95,12.6,-22.55,24.09,0,0,0,0,0,0,0,0,0,0,0,0,0,0,0,0,
748,-2.183,-15.64,18.8,-35.99,16.3,-25.97,21.69,-1.859,-33.35,-29.88,-11.29,18.89,-9.9,19.17,-11.71,33.4,0,0,0,0,0,0,0,0,0,0,0,0,0,0,0,0,
749,20.78,-10.69,66.55,-38.03,44.92,-23.55,34.34,-1.821,-22.07,-20.3,4.551,22.45,9.04,23.66,1.776,42.81,0,0,0,0,0,0,0,0,0,0,0,0,0,0,0,0,
750,32.98,-11.42,75.71,-38.46,46.53,-19.22,38.14,-6.676,-8.79,-14.77,17.39,19.98,21.37,20.09,3.913,31.02,0,0,0,0,0,0,0,0,0,0,0,0,0,0,0,0,
751,32.72,-15.05,50.2,-36.1,36.8,-11.9,33.42,-11.12,0.8307,-10.69,13.61,17.37,15.12,16.01,0.9296,13.99,0,0,0,0,0,0,0,0,0,0,0,0,0,0,0,0,
752,31.26,-24.54,52.35,-35.73,42.17,-12.01,35.97,-12.24,2.661,-8.406,8.376,23.59,9.851,22.89,10.71,24.69,0,0,0,0,0,0,0,0,0,0,0,0,0,0,0,0,
753,33.43,-21.13,63.51,-39.22,45.48,-18.37,48.55,-8.058,3.524,-5.398,14.87,31.7,15.83,31.17,20.16,42.47,0,0,0,0,0,0,0,0,0,0,0,0,0,0,0,0,
754,32.91,-11.48,62.51,-44.27,41.27,-21.89,54.03,-4.418,4.558,-3.671,13.87,27.42,13.64,26.67,5.534,32.36,0,0,0,0,0,0,0,0,0,0,0,0,0,0,0,0,
755,26.46,-19.93,68.49,-45.48,42.1,-22.16,53.49,-10.04,-0.2804,-10.88,4.512,15.58,4.832,16.13,-20.47,9.175,0,0,0,0,0,0,0,0,0,0,0,0,0,0,0,0,
756,24.97,-27.77,65.95,-40.23,44.09,-23.79,53.72,-15.44,-5.187,-22.17,3.13,9.548,3.176,11.0,-30.49,-1.613,0,0,0,0,0,0,0,0,0,0,0,0,0,0,0,0,
757,28.43,-24.32,54.15,-41.65,42.1,-31.58,47.77,-15.43,-4.846,-28.9,1.557,9.596,1.609,9.959,-23.47,-3.942,0,0,0,0,0,0,0,0,0,0,0,0,0,0,0,0,
758,25.0,-25.25,62.99,-47.62,41.47,-35.8,51.33,-16.14,-3.426,-29.93,0.6369,14.02,2.554,12.11,-10.4,-2.898,0,0,0,0,0,0,0,0,0,0,0,0,0,0,0,0,
759,21.24,-19.05,70.19,-38.37,42.15,-24.31,63.58,-9.627,-0.8858,-22.57,7.438,20.98,9.028,18.51,-0.0497,3.477,0,0,0,0,0,0,0,0,0,0,0,0,0,0,0,0,
760,28.9,0.1634,63.51,-19.76,46.22,-6.28,58.59,8.136,2.767,-8.18,12.61,30.66,13.36,30.54,2.359,13.37,0,0,0,0,0,0,0,0,0,0,0,0,0,0,0,0,
761,43.16,10.57,75.93,-7.321,58.77,8.638,57.23,20.27,12.56,8.586,22.66,46.14,24.73,47.75,1.195,23.77,0,0,0,0,0,0,0,0,0,0,0,0,0,0,0,0,
762,45.74,1.036,80.01,-7.26,60.29,10.78,62.88,15.12,29.51,17.93,34.13,53.27,35.85,54.83,1.853,29.35,0,0,0,0,0,0,0,0,0,0,0,0,0,0,0,0,
763,30.43,-12.92,53.83,-19.73,42.11,-5.581,44.19,5.719,35.18,11.45,29.13,46.14,29.82,48.18,7.135,32.0,0,0,0,0,0,0,0,0,0,0,0,0,0,0,0,0,
764,18.35,-10.47,45.43,-32.07,32.52,-19.48,30.87,4.085,29.84,7.014,26.7,41.93,27.77,44.22,12.93,34.89,0,0,0,0,0,0,0,0,0,0,0,0,0,0,0,0,
765,19.39,-2.763,48.86,-38.91,36.95,-19.16,45.07,1.536,30.67,12.18,40.33,42.16,40.38,42.68,13.73,31.96,0,0,0,0,0,0,0,0,0,0,0,0,0,0,0,0,
766,30.31,-0.9883,50.35,-37.34,49.74,-8.847,58.54,0.9306,37.64,11.51,51.01,45.67,50.31,44.63,19.06,29.06,0,0,0,0,0,0,0,0,0,0,0,0,0,0,0,0,
767,53.9,9.509,85.51,-19.52,77.8,13.36,69.79,12.56,49.3,18.55,52.49,59.13,53.04,59.18,25.36,34.64,0,0,0,0,0,0,0,0,0,0,0,0,0,0,0,0,
768,68.46,18.27,109.7,-2.634,91.38,30.1,74.32,21.7,56.62,38.29,46.46,68.02,47.34,69.06,16.47,39.02,0,0,0,0,0,0,0,0,0,0,0,0,0,0,0,0,
769,58.56,16.95,79.12,-5.059,71.43,24.92,58.67,16.53,48.07,40.04,36.72,62.26,37.95,62.24,6.994,36.36,0,0,0,0,0,0,0,0,0,0,0,0,0,0,0,0,
770,47.02,21.84,58.43,-17.7,53.72,10.98,48.58,5.314,39.18,24.78,36.24,54.88,38.26,54.87,11.27,32.51,0,0,0,0,0,0,0,0,0,0,0,0,0,0,0,0,
771,42.97,21.4,69.73,-23.46,54.11,4.851,57.41,0.6505,37.36,17.83,43.71,52.73,44.02,53.51,15.82,32.52,0,0,0,0,0,0,0,0,0,0,0,0,0,0,0,0,
772,41.32,12.88,73.48,-13.89,55.93,12.85,60.17,8.462,33.3,20.93,44.96,50.06,43.87,49.93,14.5,34.75,0,0,0,0,0,0,0,0,0,0,0,0,0,0,0,0,
773,42.08,16.02,66.85,-4.399,51.25,21.37,46.84,15.21,31.4,23.68,35.24,42.23,35.84,41.83,9.552,31.08,0,0,0,0,0,0,0,0,0,0,0,0,0,0,0,0,
774,38.2,21.46,53.51,-7.237,43.66,18.25,38.03,13.87,31.09,21.93,24.18,34.23,25.76,34.74,0.6724,19.38,0,0,0,0,0,0,0,0,0,0,0,0,0,0,0,0,
775,37.21,25.47,44.87,-5.748,46.33,21.07,45.67,13.92,28.77,21.81,22.23,31.17,23.21,31.29,-6.696,6.083,0,0,0,0,0,0,0,0,0,0,0,0,0,0,0,0,
776,49.16,35.44,61.94,0.7662,60.42,29.36,52.85,8.979,32.59,25.02,25.35,28.0,26.73,27.28,-11.4,-3.263,0,0,0,0,0,0,0,0,0,0,0,0,0,0,0,0,
777,56.54,33.76,76.75,-3.245,64.72,22.05,49.41,-1.068,36.98,21.94,23.39,20.93,25.41,20.91,-20.12,-13.02,0,0,0,0,0,0,0,0,0,0,0,0,0,0,0,0,
778,50.23,20.52,65.94,-8.423,54.29,14.16,45.3,0.3035,30.63,14.88,15.37,13.36,16.94,15.04,-29.72,-29.94,0,0,0,0,0,0,0,0,0,0,0,0,0,0,0,0,
779,46.66,20.09,58.43,-2.07,48.44,23.71,43.83,7.095,23.83,14.2,9.039,14.19,9.903,15.91,-28.94,-37.66,0,0,0,0,0,0,0,0,0,0,0,0,0,0,0,0,
780,51.03,30.49,57.25,5.237,50.1,30.46,41.03,5.289,23.99,16.59,7.025,26.05,7.704,25.59,-22.07,-22.33,0,0,0,0,0,0,0,0,0,0,0,0,0,0,0,0,
781,51.4,29.33,46.2,-1.645,46.76,21.46,34.33,0.4505,18.79,15.05,1.452,34.68,2.392,34.0,-21.76,-6.886,0,0,0,0,0,0,0,0,0,0,0,0,0,0,0,0,
782,42.66,10.1,38.53,-18.99,38.57,10.21,21.49,-0.9955,8.076,11.44,-10.0,34.06,-9.334,35.8,-27.95,-9.575,0,0,0,0,0,0,0,0,0,0,0,0,0,0,0,0,
783,27.19,-6.062,24.91,-30.45,24.88,0.6541,5.255,-3.254,0.7736,4.988,-21.52,30.92,-21.67,32.94,-37.13,-20.4,0,0,0,0,0,0,0,0,0,0,0,0,0,0,0,0,
784,14.28,0.4852,3.136,-30.29,11.42,-9.53,-0.869,-8.524,-8.948,-8.544,-23.95,20.35,-24.96,20.84,-40.13,-27.93,0,0,0,0,0,0,0,0,0,0,0,0,0,0,0,0,
785,16.75,12.26,16.76,-28.33,18.14,-13.39,11.47,-16.11,-15.25,-20.86,-11.12,-1.437,-13.54,-0.6232,-30.14,-33.0,0,0,0,0,0,0,0,0,0,0,0,0,0,0,0,0,
786,26.79,12.7,51.27,-30.85,32.2,-10.06,25.33,-26.59,-7.916,-23.51,1.064,-22.08,-1.823,-21.04,-24.59,-46.04,0,0,0,0,0,0,0,0,0,0,0,0,0,0,0,0,
787,31.94,16.47,53.63,-28.08,30.25,-2.042,27.09,-30.8,-1.26,-20.67,-2.865,-30.3,-3.979,-31.04,-31.44,-64.06,0,0,0,0,0,0,0,0,0,0,0,0,0,0,0,0,
788,31.16,13.89,32.55,-20.7,21.61,1.254,21.1,-24.71,-1.573,-17.94,-14.59,-31.91,-15.06,-32.57,-43.03,-72.44,0,0,0,0,0,0,0,0,0,0,0,0,0,0,0,0,
789,19.12,-4.691,14.52,-22.87,12.86,-10.44,5.249,-19.22,-3.574,-21.62,-26.88,-32.31,-29.29,-30.92,-61.87,-72.93,0,0,0,0,0,0,0,0,0,0,0,0,0,0,0,0,
790,6.433,-4.388,9.508,-27.35,4.644,-15.41,-10.07,-10.2,-5.026,-24.06,-30.85,-19.57,-33.7,-18.59,-70.45,-67.9,0,0,0,0,0,0,0,0,0,0,0,0,0,0,0,0,
791,-1.162,-2.908,8.19,-30.4,-6.355,-8.186,-8.131,2.926,1.678,-13.33,-20.31,1.508,-20.78,1.222,-54.8,-52.79,0,0,0,0,0,0,0,0,0,0,0,0,0,0,0,0,
792,-20.7,-33.86,-11.87,-37.44,-25.91,-16.78,-4.24,5.326,2.579,-10.3,-14.27,10.47,-13.51,11.47,-41.0,-31.64,0,0,0,0,0,0,0,0,0,0,0,0,0,0,0,0,
793,-31.91,-36.95,-27.5,-31.33,-29.99,-26.91,-13.04,5.194,-12.82,-22.64,-19.88,12.42,-20.09,14.74,-36.77,-14.42,0,0,0,0,0,0,0,0,0,0,0,0,0,0,0,0,
794,-19.57,-6.275,-8.452,-21.35,-13.71,-23.44,-20.87,5.813,-19.25,-28.52,-20.75,10.4,-21.41,12.03,-30.03,-15.64,0,0,0,0,0,0,0,0,0,0,0,0,0,0,0,0,
795,-13.51,-13.02,20.08,-32.23,-4.964,-26.67,-12.61,-2.145,-16.0,-33.46,-11.77,5.439,-13.04,5.26,-22.64,-22.5,0,0,0,0,0,0,0,0,0,0,0,0,0,0,0,0,
796,-15.3,-34.39,14.05,-44.32,-7.83,-25.0,2.344,-3.1,-13.61,-31.86,4.882,22.26,1.88,21.06,-6.52,-2.757,0,0,0,0,0,0,0,0,0,0,0,0,0,0,0,0,
797,-21.05,-38.68,-29.81,-50.87,-22.76,-15.52,3.852,-0.4821,1.813,-6.212,18.55,40.37,15.84,41.46,6.077,11.7,0,0,0,0,0,0,0,0,0,0,0,0,0,0,0,0,
798,-30.49,-44.1,-36.4,-60.77,-30.59,-24.78,3.738,-18.32,10.43,-1.274,7.325,8.973,6.085,13.28,-21.28,-27.82,0,0,0,0,0,0,0,0,0,0,0,0,0,0,0,0,
799,-9.132,-24.04,30.49,-53.71,0.3422,-34.22,15.01,-45.3,-9.984,-42.31,-24.38,-44.94,-26.28,-41.37,-66.34,-81.73,0,0,0,0,0,0,0,0,0,0,0,0,0,0,0,0,
800,30.17,12.28,80.25,-36.78,34.73,-21.93,20.26,-63.9,-23.88,-69.71,-40.95,-68.14,-43.6,-67.06,-75.57,-98.56,0,0,0,0,0,0,0,0,0,0,0,0,0,0,0,0,
801,44.48,11.83,72.89,-39.53,41.77,-10.88,24.51,-75.93,-6.366,-54.97,-26.31,-69.13,-28.66,-68.58,-54.16,-93.91,0,0,0,0,0,0,0,0,0,0,0,0,0,0,0,0,
802,49.12,-4.054,66.56,-49.97,49.02,-9.799,38.4,-79.92,19.14,-34.42,-3.682,-65.97,-6.339,-65.67,-34.7,-87.28,0,0,0,0,0,0,0,0,0,0,0,0,0,0,0,0,
803,58.22,2.599,78.48,-39.6,60.34,0.5598,47.36,-69.1,31.61,-21.49,7.223,-51.75,3.496,-51.44,-20.42,-71.35,0,0,0,0,0,0,0,0,0,0,0,0,0,0,0,0,
804,57.04,16.77,86.13,-18.93,59.06,13.72,47.99,-45.68,32.39,-6.274,9.735,-32.1,4.311,-29.58,-7.184,-46.11,0,0,0,0,0,0,0,0,0,0,0,0,0,0,0,0,
805,38.09,8.234,66.09,-29.18,39.2,-3.628,34.13,-29.14,24.55,-3.007,4.747,-22.36,-0.4978,-18.15,-2.77,-22.45,0,0,0,0,0,0,0,0,0,0,0,0,0,0,0,0,
806,7.36,-25.63,29.42,-64.31,9.683,-42.11,9.263,-27.99,7.233,-23.07,-4.993,-17.58,-7.155,-15.05,-7.058,-6.36,0,0,0,0,0,0,0,0,0,0,0,0,0,0,0,0,
807,-7.55,-46.95,25.87,-72.61,1.103,-55.78,6.684,-25.3,-8.512,-45.31,-7.877,-4.301,-8.918,-4.015,-10.05,3.26,0,0,0,0,0,0,0,0,0,0,0,0,0,0,0,0,
808,2.135,-37.41,50.35,-56.25,15.77,-45.42,20.77,-17.8,-7.801,-50.28,-5.763,7.796,-8.024,8.267,-14.67,2.756,0,0,0,0,0,0,0,0,0,0,0,0,0,0,0,0,
809,8.08,-26.2,59.76,-52.68,22.97,-41.68,17.81,-18.23,0.6194,-46.53,-12.65,-3.654,-15.03,-2.338,-34.55,-17.17,0,0,0,0,0,0,0,0,0,0,0,0,0,0,0,0,
810,-4.084,-35.71,39.55,-60.12,6.409,-49.57,-0.3955,-25.55,-7.17,-53.38,-33.24,-32.1,-35.85,-31.54,-61.92,-46.5,0,0,0,0,0,0,0,0,0,0,0,0,0,0,0,0,
811,-25.8,-62.09,1.149,-66.05,-24.41,-64.22,-18.25,-29.71,-35.6,-73.15,-54.62,-51.23,-57.1,-52.05,-73.11,-62.22,0,0,0,0,0,0,0,0,0,0,0,0,0,0,0,0,
812,-41.18,-80.08,-10.84,-72.73,-38.67,-80.14,-25.39,-30.34,-63.0,-88.7,-60.99,-60.02,-61.43,-61.3,-66.18,-64.21,0,0,0,0,0,0,0,0,0,0,0,0,0,0,0,0,
813,-42.13,-70.94,9.061,-75.98,-28.52,-85.64,-20.19,-34.51,-70.3,-92.87,-50.49,-64.96,-49.59,-65.77,-49.66,-59.19,0,0,0,0,0,0,0,0,0,0,0,0,0,0,0,0,
814,-37.15,-56.83,9.909,-70.92,-20.33,-76.44,-15.32,-39.14,-59.47,-90.16,-29.97,-53.98,-29.09,-53.48,-26.34,-40.6,0,0,0,0,0,0,0,0,0,0,0,0,0,0,0,0,
815,-28.91,-53.57,0.2757,-69.31,-18.84,-62.44,-13.08,-39.96,-44.31,-77.93,-11.85,-31.58,-11.64,-29.97,-11.29,-17.43,0,0,0,0,0,0,0,0,0,0,0,0,0,0,0,0,
816,-16.54,-45.22,11.96,-73.56,-12.54,-50.89,-5.013,-43.52,-32.82,-58.74,-5.043,-19.53,-6.358,-18.46,-13.15,-9.605,0,0,0,0,0,0,0,0,0,0,0,0,0,0,0,0,
817,-4.449,-34.58,27.7,-65.22,-0.31,-38.67,3.228,-50.23,-21.63,-44.63,-4.688,-22.8,-6.034,-22.96,-20.31,-14.29,0,0,0,0,0,0,0,0,0,0,0,0,0,0,0,0,
818,7.445,-32.1,42.28,-52.23,15.01,-32.99,8.242,-53.45,-14.18,-42.21,-3.784,-28.73,-3.791,-29.49,-21.3,-10.59,0,0,0,0,0,0,0,0,0,0,0,0,0,0,0,0,
819,18.18,-23.03,59.29,-50.39,26.28,-32.64,27.86,-44.91,-13.01,-39.64,7.729,-17.47,7.363,-18.08,-8.251,6.866,0,0,0,0,0,0,0,0,0,0,0,0,0,0,0,0,
820,25.49,-11.1,62.33,-43.24,30.46,-19.89,53.56,-27.59,-3.803,-20.1,25.13,2.21,24.02,2.991,3.862,12.17,0,0,0,0,0,0,0,0,0,0,0,0,0,0,0,0,
821,25.59,-14.81,55.39,-33.45,27.93,-10.07,49.19,-23.83,4.856,-3.459,22.22,-2.742,21.16,-0.6271,-5.318,-0.9762,0,0,0,0,0,0,0,0,0,0,0,0,0,0,0,0,
822,16.25,-15.81,53.75,-36.18,18.2,-19.24,31.77,-29.63,-5.695,-12.55,10.95,-17.82,8.417,-16.17,-11.77,0.2576,0,0,0,0,0,0,0,0,0,0,0,0,0,0,0,0,
823,5.665,-10.64,50.01,-39.71,6.671,-25.92,31.55,-23.74,-16.1,-23.86,14.35,-14.32,9.886,-13.73,-4.704,9.585,0,0,0,0,0,0,0,0,0,0,0,0,0,0,0,0,
824,-2.377,-24.21,42.23,-43.22,-0.434,-26.8,25.86,-18.44,-19.57,-24.88,5.704,-11.68,1.639,-11.45,-13.19,-2.018,0,0,0,0,0,0,0,0,0,0,0,0,0,0,0,0,
825,-5.852,-33.44,45.08,-46.6,2.766,-28.88,13.91,-21.46,-30.53,-27.14,-16.8,-16.9,-19.86,-16.29,-26.55,-8.925,0,0,0,0,0,0,0,0,0,0,0,0,0,0,0,0,
826,-1.514,-20.85,50.05,-37.76,9.631,-23.61,16.43,-22.73,-33.33,-24.1,-18.07,-13.05,-21.21,-12.27,-21.27,7.507,0,0,0,0,0,0,0,0,0,0,0,0,0,0,0,0,
827,-4.619,-17.61,34.3,-28.73,-1.57,-19.5,14.52,-26.18,-23.9,-19.83,-10.26,-10.34,-12.46,-10.54,-18.64,15.71,0,0,0,0,0,0,0,0,0,0,0,0,0,0,0,0,
828,-26.23,-27.06,-0.2113,-31.39,-31.32,-26.53,-2.985,-32.53,-28.24,-27.29,-20.07,-18.39,-20.92,-19.0,-31.74,4.281,0,0,0,0,0,0,0,0,0,0,0,0,0,0,0,0,
829,-46.35,-41.34,-23.84,-38.37,-49.87,-36.08,-17.16,-37.57,-48.35,-36.75,-33.33,-22.75,-35.69,-22.86,-42.98,-2.044,0,0,0,0,0,0,0,0,0,0,0,0,0,0,0,0,
830,-39.81,-57.57,-5.996,-40.61,-33.95,-37.53,-13.55,-35.49,-60.13,-37.57,-32.72,-14.72,-36.53,-15.1,-41.49,9.599,0,0,0,0,0,0,0,0,0,0,0,0,0,0,0,0,
831,-17.07,-50.7,24.56,-34.15,-7.939,-31.02,-0.6329,-21.27,-51.85,-31.52,-24.36,-5.221,-25.62,-5.26,-29.17,21.79,0,0,0,0,0,0,0,0,0,0,0,0,0,0,0,0,
832,-11.14,-33.01,16.94,-30.53,-8.871,-29.49,4.202,-10.39,-37.62,-26.09,-11.61,-5.315,-11.39,-4.38,-10.59,20.73,0,0,0,0,0,0,0,0,0,0,0,0,0,0,0,0,
833,-17.06,-33.76,3.386,-33.74,-14.64,-31.14,9.039,-9.773,-26.46,-23.69,6.405,-12.46,3.947,-11.62,1.094,16.51,0,0,0,0,0,0,0,0,0,0,0,0,0,0,0,0,
834,-16.92,-38.77,10.66,-34.48,-8.693,-29.06,10.19,-10.78,-16.61,-21.72,8.831,-24.74,5.474,-23.9,-4.286,10.97,0,0,0,0,0,0,0,0,0,0,0,0,0,0,0,0,
835,-28.69,-46.14,-3.458,-43.36,-22.91,-39.1,-11.48,-16.35,-23.06,-28.13,-9.228,-34.49,-10.04,-33.72,-7.856,3.964,0,0,0,0,0,0,0,0,0,0,0,0,0,0,0,0,
836,-45.57,-64.97,-19.36,-61.98,-39.52,-55.81,-20.91,-19.84,-37.53,-38.87,-12.02,-26.77,-11.23,-26.34,5.248,9.062,0,0,0,0,0,0,0,0,0,0,0,0,0,0,0,0,
837,-36.32,-73.29,3.861,-68.34,-22.9,-55.23,4.146,-15.38,-24.01,-36.12,8.459,-11.42,8.866,-10.32,17.99,20.06,0,0,0,0,0,0,0,0,0,0,0,0,0,0,0,0,
838,-20.34,-66.39,19.26,-65.73,-6.667,-49.81,17.81,-18.73,5.29,-26.22,23.06,-5.55,22.46,-4.125,23.8,22.73,0,0,0,0,0,0,0,0,0,0,0,0,0,0,0,0,
839,-28.92,-73.99,0.3093,-73.14,-19.09,-58.2,6.403,-32.48,9.238,-25.06,18.72,-9.173,17.52,-7.968,24.75,19.73,0,0,0,0,0,0,0,0,0,0,0,0,0,0,0,0,
840,-47.42,-97.69,-9.448,-85.65,-36.74,-69.92,0.3108,-43.6,-16.23,-34.78,3.171,-20.34,1.423,-19.44,18.2,16.18,0,0,0,0,0,0,0,0,0,0,0,0,0,0,0,0,
841,-56.19,-103.4,-2.339,-94.54,-45.12,-78.5,0.9893,-48.26,-44.6,-49.02,-6.298,-27.99,-9.468,-29.05,19.67,20.2,0,0,0,0,0,0,0,0,0,0,0,0,0,0,0,0,
842,-66.93,-98.06,-13.69,-103.6,-57.25,-90.17,-6.375,-49.75,-55.37,-58.42,-5.956,-26.3,-8.67,-28.53,26.39,29.13,0,0,0,0,0,0,0,0,0,0,0,0,0,0,0,0,
843,-81.32,-110.1,-34.64,-102.4,-68.94,-91.72,-12.61,-47.83,-53.68,-61.85,-7.771,-29.68,-7.809,-30.55,17.7,25.86,0,0,0,0,0,0,0,0,0,0,0,0,0,0,0,0,
844,-72.5,-106.6,-28.45,-80.94,-57.76,-71.01,-5.497,-40.12,-46.76,-58.81,-7.851,-36.46,-7.747,-37.38,9.798,13.05,0,0,0,0,0,0,0,0,0,0,0,0,0,0,0,0,
845,-44.26,-71.1,-7.858,-59.48,-35.17,-51.27,4.482,-30.47,-33.51,-47.76,-2.356,-34.07,-3.281,-36.63,17.32,4.987,0,0,0,0,0,0,0,0,0,0,0,0,0,0,0,0,
846,-25.83,-48.67,2.558,-48.96,-22.62,-41.02,13.78,-19.55,-21.24,-35.14,2.275,-25.89,2.589,-28.35,23.5,2.788,0,0,0,0,0,0,0,0,0,0,0,0,0,0,0,0,
847,-18.7,-40.67,4.907,-38.1,-15.15,-23.06,20.3,-10.93,-9.976,-21.01,6.716,-16.76,7.351,-18.05,21.57,2.228,0,0,0,0,0,0,0,0,0,0,0,0,0,0,0,0,
848,-15.03,-26.55,-0.4557,-31.26,-12.38,-9.003,10.15,-16.21,1.126,-7.655,10.89,-6.149,10.72,-7.235,19.46,4.927,0,0,0,0,0,0,0,0,0,0,0,0,0,0,0,0,
849,-8.62,-25.52,4.442,-30.99,-7.822,-7.251,2.311,-21.11,4.926,-0.5515,14.34,4.547,14.75,3.419,18.33,12.16,0,0,0,0,0,0,0,0,0,0,0,0,0,0,0,0,
