%OpenBCI Raw EXG Data
%Number of channels = 16
%Sample Rate = 125 Hz
%Board = OpenBCI_GUI$BoardCytonSerialDaisy
Sample Index,EXG Channel 0,EXG Channel 1,EXG Channel 2,EXG Channel 3,EXG Channel 4,EXG Channel 5,EXG Channel 6,EXG Channel 7,EXG Channel 8,EXG Channel 9,EXG Channel 10,EXG Channel 11,EXG Channel 12,EXG Channel 13,EXG Channel 14,EXG Channel 15,Accel Channel 0,Accel Channel 1,Accel Channel 2,Other,Other,Other,Other,Other,Other,Other,Analog Channel 0,Analog Channel 1,Analog Channel 2,Timestamp,Other,Timestamp (Formatted),Annotations
1,0,0,-0,-0,0,0,0,-0,-0,0,0,0,-0,-0,0,0,0,0,0,0,0,0,0,0,0,0,0,0,0,0,0,0,T0
2,21.03,10.66,11.41,11.44,5.799,3.695,-5.302,-13.54,0.1367,-6.673,-8.203,-7.67,-6.644,-10.08,-18.48,-12.47,0,0,0,0,0,0,0,0,0,0,0,0,0,0,0,0,
3,22.07,1.42,8.632,10.82,0.75,8.131,0.5152,-3.588,-1.786,-6.384,-11.91,-11.96,-5.621,-6.474,-21.32,-13.9,0,0,0,0,0,0,0,0,0,0,0,0,0,0,0,0,
4,31.74,-0.3132,9.631,17.6,6.646,15.28,5.777,12.77,-4.576,-5.476,-11.02,-12.36,-3.283,-1.907,-16.45,-7.694,0,0,0,0,0,0,0,0,0,0,0,0,0,0,0,0,
5,34.47,1.864,7.798,4.599,1.988,5.752,-4.542,0.9808,-13.36,-6.524,-18.26,-19.96,-2.956,-2.053,-20.18,-3.767,0,0,0,0,0,0,0,0,0,0,0,0,0,0,0,0,
6,8.559,-4.791,-5.306,-24.71,-16.88,-11.99,-16.07,-15.15,-25.92,-2.993,-35.13,-36.49,-3.245,-2.776,-34.96,-14.01,0,0,0,0,0,0,0,0,0,0,0,0,0,0,0,0,
7,-12.25,-8.025,-14.53,-22.64,-7.323,-12.73,-23.24,-14.87,-31.53,-2.915,-41.85,-42.81,-4.107,-3.103,-46.48,-28.01,0,0,0,0,0,0,0,0,0,0,0,0,0,0,0,0,
8,-12.29,-8.441,-19.06,-8.759,5.625,-12.9,-30.09,-19.35,-29.96,-7.549,-34.8,-34.72,-0.5809,2.457,-46.73,-23.89,0,0,0,0,0,0,0,0,0,0,0,0,0,0,0,0,
9,-6.393,-5.352,-21.85,-6.223,-14.9,-20.56,-22.61,-15.99,-34.61,-3.938,-37.85,-37.07,-1.518,1.443,-51.38,-24.03,0,0,0,0,0,0,0,0,0,0,0,0,0,0,0,0,
10,-3.158,-3.656,-18.65,0.3449,-25.72,-15.99,-13.73,-2.458,-47.87,-3.539,-53.95,-53.42,-18.8,-18.24,-63.36,-47.88,0,0,0,0,0,0,0,0,0,0,0,0,0,0,0,0,
11,-1.286,-10.15,-7.066,6.588,-4.786,-0.8653,-11.84,2.195,-45.61,-7.713,-55.29,-54.34,-29.24,-28.11,-64.65,-60.8,0,0,0,0,0,0,0,0,0,0,0,0,0,0,0,0,
12,10.14,-2.859,10.57,14.12,6.563,9.514,7.484,14.74,-29.4,1.631,-45.61,-44.71,-26.72,-25.17,-67.93,-58.63,0,0,0,0,0,0,0,0,0,0,0,0,0,0,0,0,
13,21.91,6.567,14.69,22.22,-10,5.21,18.04,19.3,-32.92,2.409,-50.72,-51.9,-45.68,-46.55,-86.69,-72.34,0,0,0,0,0,0,0,0,0,0,0,0,0,0,0,0,
14,15.62,-17.04,-1.776,11.74,-30.78,-11.48,-8.598,-7.62,-44.57,-19.57,-53.34,-55.08,-74.47,-74.59,-88.67,-84.32,0,0,0,0,0,0,0,0,0,0,0,0,0,0,0,0,
15,10.96,-40.37,-9.06,2.325,-28.78,-15.09,-22.39,-14.86,-35.01,-28.7,-35.14,-34.63,-72.57,-69.56,-66.71,-76.25,0,0,0,0,0,0,0,0,0,0,0,0,0,0,0,0,
16,26.37,-28.26,7.417,18.36,-3.147,4.844,0.0852,14.16,-24.67,-19.31,-23.71,-22.28,-54.19,-50.88,-57.11,-72.85,0,0,0,0,0,0,0,0,0,0,0,0,0,0,0,0,
17,40.82,-13.73,20.14,32.35,14.53,17.89,13.22,20.46,-31.66,-19.33,-31.3,-30.68,-43.66,-41.3,-59.31,-76.22,0,0,0,0,0,0,0,0,0,0,0,0,0,0,0,0,
18,44.3,-13.41,17.28,30.29,10.66,15.67,8.707,1.531,-34.1,-21.92,-34.71,-35.04,-32.15,-30.6,-53.11,-69.31,0,0,0,0,0,0,0,0,0,0,0,0,0,0,0,0,
19,50.56,-6.019,26.17,34.9,11.48,25.36,17.94,9.513,-28.67,-13.37,-33.41,-35.64,-22.69,-22.35,-54,-61.89,0,0,0,0,0,0,0,0,0,0,0,0,0,0,0,0,
20,51.69,-2.36,43.92,38.67,20.06,34.87,26.63,28.7,-39.71,-10.59,-39.26,-42,-24.3,-24.09,-62.46,-55.39,0,0,0,0,0,0,0,0,0,0,0,0,0,0,0,0,
21,44.47,-13.16,40.28,32.12,13.58,24.02,17.12,15.29,-44.09,-15.22,-28.52,-30.25,-20.32,-19.77,-46.18,-34.53,0,0,0,0,0,0,0,0,0,0,0,0,0,0,0,0,
22,57,-5.378,33.78,47.76,2.548,20.7,24.72,6.778,-13.32,-11.92,0.1833,-3.688,-10.37,-10.29,-22.17,-21.02,0,0,0,0,0,0,0,0,0,0,0,0,0,0,0,0,
23,75.28,18.27,42.73,74.77,6.016,28.34,45.03,29.42,-4.206,-10.8,-3.523,-9.21,-17.81,-17.55,-34.14,-40.55,0,0,0,0,0,0,0,0,0,0,0,0,0,0,0,0,
24,61.24,15.48,43.36,65.85,18.43,27.68,32.1,25.77,-34.26,-18.32,-32.38,-35.43,-33.82,-33.35,-55.3,-64.37,0,0,0,0,0,0,0,0,0,0,0,0,0,0,0,0,
25,43.92,-1.304,40.53,47.06,37.71,35.1,10.07,-4.401,-32.89,-22.81,-31.31,-33.21,-38.58,-38.93,-45.12,-65.87,0,0,0,0,0,0,0,0,0,0,0,0,0,0,0,0,
26,49.57,-2.663,45.01,53.22,48.47,40.47,13.93,0.4883,-15.46,-24.13,-10.74,-13.9,-36.45,-36.7,-22.59,-54.81,0,0,0,0,0,0,0,0,0,0,0,0,0,0,0,0,
27,51.52,-1.396,37.83,54.92,27.1,20.15,17.8,21.99,-30.55,-21.43,-0.4243,-3.135,-28.44,-27.79,-8.924,-41.25,0,0,0,0,0,0,0,0,0,0,0,0,0,0,0,0,
28,48.58,-6.354,33.12,47.81,14.1,14.23,13.14,16.64,-30.43,-15.8,5.081,2.086,-20.5,-19.34,-4.629,-41.79,0,0,0,0,0,0,0,0,0,0,0,0,0,0,0,0,
29,53.56,-12.07,51.15,55.1,41.66,39.72,15.37,5.208,-4,-13.16,5.626,1.659,-21.89,-19.54,-7.19,-58.84,0,0,0,0,0,0,0,0,0,0,0,0,0,0,0,0,
30,60.21,-12.87,66.21,65.26,49.28,51.26,20.49,9.194,0.1282,-0.9598,2.917,0.2078,-19.81,-17.33,-7.998,-63.05,0,0,0,0,0,0,0,0,0,0,0,0,0,0,0,0,
31,71.66,-4.417,83.39,86.85,52.86,68.02,34.93,31.2,6.201,18.55,4.435,2.337,-16.8,-16.46,-13.51,-56.32,0,0,0,0,0,0,0,0,0,0,0,0,0,0,0,0,
32,87.26,-1.512,156.9,158.4,154.7,148,69,76.58,44.29,22.91,5.778,2.57,-24.36,-24.38,-28.66,-57.96,0,0,0,0,0,0,0,0,0,0,0,0,0,0,0,0,
33,99.76,-6.65,277.1,265.4,285.8,245.7,110.7,130.1,66.81,20.87,6.234,3.08,-24,-21.66,-34.71,-53.96,0,0,0,0,0,0,0,0,0,0,0,0,0,0,0,0,
34,108.9,6.201,373.8,367.9,325.5,298.2,155.9,180,58.25,33.38,9.041,6.516,-10.56,-6.873,-28.56,-43.12,0,0,0,0,0,0,0,0,0,0,0,0,0,0,0,0,
35,114,36.14,446.8,470.4,360,350.8,206.2,227.7,69.84,55.69,18.1,15.47,-0.2115,2.878,-19.71,-41.38,0,0,0,0,0,0,0,0,0,0,0,0,0,0,0,0,
36,129.2,59.92,545.9,580.6,468.5,441.8,252,265.4,104.4,73,38.09,35.24,9.904,12.01,-2.131,-36.88,0,0,0,0,0,0,0,0,0,0,0,0,0,0,0,0,
37,168.5,81.95,655.8,683.7,566.2,529.1,301,310,123.2,80.78,62.65,59.48,24.51,25.42,22.31,-19.43,0,0,0,0,0,0,0,0,0,0,0,0,0,0,0,0,
38,206.6,111.9,734.8,776.3,601.4,582.8,354.4,365,130.4,86.73,80.36,77.72,38.63,37.99,37.1,-2.696,0,0,0,0,0,0,0,0,0,0,0,0,0,0,0,0,
39,217.1,136.4,789.1,855.7,622.3,617.5,389.5,393.6,139,98.37,90.53,89.66,53.96,52.86,43.54,12.38,0,0,0,0,0,0,0,0,0,0,0,0,0,0,0,0,
40,222,154.8,837.5,911.3,682.3,665.1,418.7,412.6,148.3,110.6,106.1,105.4,69.68,68.56,59.92,33.48,0,0,0,0,0,0,0,0,0,0,0,0,0,0,0,0,
41,249.1,178.9,869.1,937.9,756,718.5,454.4,443.9,167.3,111.7,125.6,123.2,74.95,71.94,77.16,42.98,0,0,0,0,0,0,0,0,0,0,0,0,0,0,0,0,
42,272.4,196.1,873.1,939.6,766.6,727.6,466.4,448.8,186.3,108.6,128.7,126.3,70.75,67.11,73.01,34.78,0,0,0,0,0,0,0,0,0,0,0,0,0,0,0,0,
43,263.8,198.9,869.9,932.1,738.8,708.2,455.9,431.4,187.4,117.2,123.5,121.7,74.96,73.97,66.57,39.83,0,0,0,0,0,0,0,0,0,0,0,0,0,0,0,0,
44,249.6,198.6,860.7,909.4,725.3,695.5,440.6,413.7,175.5,120.5,122.4,120.7,87.55,87.19,73.96,58.34,0,0,0,0,0,0,0,0,0,0,0,0,0,0,0,0,
45,246.7,192.7,816.7,859,677.1,654.5,417.2,388.5,162.9,109.4,113.1,112.7,92.25,89.96,73.17,61.51,0,0,0,0,0,0,0,0,0,0,0,0,0,0,0,0,
46,242,184.4,754.8,803.5,606.1,595.3,395.3,369.5,158.4,106.6,105.2,104.8,87.2,84.37,63.08,54.31,0,0,0,0,0,0,0,0,0,0,0,0,0,0,0,0,
47,234.2,174.4,704.4,745.2,583,563.1,366.5,345.1,154.5,103.1,105.1,102.9,70.87,68.36,56.38,42.37,0,0,0,0,0,0,0,0,0,0,0,0,0,0,0,0,
48,218.1,148.9,654.9,688.1,568.9,532.6,335.5,321.3,142.2,91.33,98.35,96.01,49.56,48.17,51.63,24,0,0,0,0,0,0,0,0,0,0,0,0,0,0,0,0,
49,197.4,132.6,614.8,671.8,523.3,491,340.6,342.3,136.2,91.33,99.94,97.13,45.31,45.23,56.71,21.91,0,0,0,0,0,0,0,0,0,0,0,0,0,0,0,0,
50,194.6,137.5,584.5,653.2,471.1,454.1,334,340.2,131.6,80.68,105.6,100.6,44.38,43.07,61.81,29.31,0,0,0,0,0,0,0,0,0,0,0,0,0,0,0,0,
51,191.3,116.4,526.5,567.4,415.7,406,265.9,260.7,110.5,53.65,82.9,78.79,26.94,25.07,49.93,23.13,0,0,0,0,0,0,0,0,0,0,0,0,0,0,0,0,
52,164.7,80.58,463,487.2,370.2,361.7,219.4,208.8,89.77,54.39,58.36,57.09,20.28,20.34,45.95,22.84,0,0,0,0,0,0,0,0,0,0,0,0,0,0,0,0,
53,149.4,83.47,448.8,481.8,356.2,354.7,238.8,224.5,80.14,68.42,58.79,57.8,26.49,26.12,54.25,23.84,0,0,0,0,0,0,0,0,0,0,0,0,0,0,0,0,
54,158.4,97.92,458,491.5,350.7,359.8,252.6,233.9,65.7,60.04,53.37,51.84,15.87,14.48,42.62,-0.3039,0,0,0,0,0,0,0,0,0,0,0,0,0,0,0,0,
55,158.3,89.48,438.7,463.3,337.9,343.6,234.1,217.9,54.14,49.33,42.14,40.93,6.154,6.816,24.96,-17.53,0,0,0,0,0,0,0,0,0,0,0,0,0,0,0,0,
56,149.7,82.02,400.6,422.1,326.1,317.5,217.8,197.4,55.86,45.63,49.88,48.48,13.75,14.46,24.79,-9.457,0,0,0,0,0,0,0,0,0,0,0,0,0,0,0,0,
57,149.9,79.97,367.5,389.7,302.3,292.5,204.7,177.1,54.8,36.96,61.11,58.51,13.95,12.18,23.03,-10.03,0,0,0,0,0,0,0,0,0,0,0,0,0,0,0,0,
58,147.9,71.74,334.5,352.6,265.8,263.6,178.3,151.3,58.45,32.36,67.72,63.41,10.8,9.856,19.78,-16.45,0,0,0,0,0,0,0,0,0,0,0,0,0,0,0,0,
59,146.2,68.95,310.6,313.9,258.3,248.8,154.6,120.6,84.95,32.22,80.55,75.66,21.18,22.07,31.63,-9.33,0,0,0,0,0,0,0,0,0,0,0,0,0,0,0,0,
60,151.6,68.13,305.2,293.7,274.7,251.9,149.6,106.1,98.88,23.08,82.81,78.51,26.58,26.51,43.89,1.847,0,0,0,0,0,0,0,0,0,0,0,0,0,0,0,0,
61,137.8,54.67,285.7,278.7,246.6,231.1,145.4,107.6,73.81,11.48,62.94,58.9,15.32,14.49,41.99,12.61,0,0,0,0,0,0,0,0,0,0,0,0,0,0,0,0,
62,99.4,32.38,238.7,249.9,189.5,185.2,126.9,96.2,48.72,4.332,40.83,38.22,-7.467,-8.037,30.45,9.585,0,0,0,0,0,0,0,0,0,0,0,0,0,0,0,0,
63,74.34,6.313,202.3,218.3,176.2,160.8,101.7,72.5,43.66,-6.114,31.61,30.85,-35.7,-36.34,16.65,-18.38,0,0,0,0,0,0,0,0,0,0,0,0,0,0,0,0,
64,77.02,-10.14,188.1,191.5,173.2,151.7,86.37,61.75,35.15,-10.45,32.38,30.13,-50.74,-51.3,4.669,-42.79,0,0,0,0,0,0,0,0,0,0,0,0,0,0,0,0,
65,79.72,-3.789,172.7,162.7,137.2,131.2,84.59,61.47,19.55,-2.833,29.75,26.24,-51.13,-52.17,-13.91,-51.72,0,0,0,0,0,0,0,0,0,0,0,0,0,0,0,0,
66,70.56,1.043,153.5,132.8,119.1,116.5,75.82,49.29,10.35,-6.433,16.61,15.15,-55.03,-56.37,-41.53,-63.41,0,0,0,0,0,0,0,0,0,0,0,0,0,0,0,0,
67,67.25,-11.4,136.7,115.3,118.9,108,57.83,32.83,3.675,-22.27,1.544,-0.2869,-60.29,-60.4,-60.75,-74.67,0,0,0,0,0,0,0,0,0,0,0,0,0,0,0,0,
68,67.53,-16.98,115.9,108.8,88.38,85.15,53.47,30.98,-10.4,-28.77,-7.975,-12.26,-59.09,-58.81,-56.74,-71.02,0,0,0,0,0,0,0,0,0,0,0,0,0,0,0,0,
69,59.69,-10.1,95.55,94.6,63.81,65.88,55.9,31.74,-19.7,-28.19,-5.025,-8.213,-51.83,-52.66,-29.91,-50.49,0,0,0,0,0,0,0,0,0,0,0,0,0,0,0,0,
70,53.9,-10.51,78.74,73.48,63.89,54.13,43.49,22.72,-20.39,-31.47,4.733,2.455,-46.97,-48.76,-6.026,-35.37,0,0,0,0,0,0,0,0,0,0,0,0,0,0,0,0,
71,39.46,-25.71,48.79,50.12,38.9,22.31,18.07,4.243,-37.61,-40.17,-1.28,-5.752,-59.91,-62.32,-6.83,-46.68,0,0,0,0,0,0,0,0,0,0,0,0,0,0,0,0,
72,8.391,-43,16.64,20.8,9.82,-6.123,-1.221,-17.45,-58.12,-46.44,-12.14,-17.28,-74.34,-76.37,-10.02,-57.09,0,0,0,0,0,0,0,0,0,0,0,0,0,0,0,0,
73,-1.074,-45.11,8.515,2.276,6.97,-7.521,-1.091,-22.05,-53.07,-44.41,-7.63,-11.53,-71.52,-72.78,-7.891,-49.83,0,0,0,0,0,0,0,0,0,0,0,0,0,0,0,0,
74,11.78,-43.41,2.434,-3.23,-8.543,-15.93,0.41,-16.47,-46.11,-47.42,-6.295,-9.461,-73.25,-74.98,-20.65,-49.95,0,0,0,0,0,0,0,0,0,0,0,0,0,0,0,0,
75,13.17,-51.83,-10.84,-12.67,-15.97,-23.83,-9.463,-25.22,-43.52,-54.93,-11.78,-14.49,-77.44,-79.61,-30.62,-50.3,0,0,0,0,0,0,0,0,0,0,0,0,0,0,0,0,
76,16.38,-50.14,-1.721,-17.2,8.992,-4.225,-10.3,-35.74,-28.58,-52.09,-12.02,-15.07,-66.99,-69.28,-26.34,-43.09,0,0,0,0,0,0,0,0,0,0,0,0,0,0,0,0,
77,27.95,-38.88,13.8,-15.44,10.67,9.126,-4.088,-37.97,-22.3,-51.04,-16.98,-20.91,-68.37,-71.11,-29.5,-56.72,0,0,0,0,0,0,0,0,0,0,0,0,0,0,0,0,
78,28.43,-43.17,7.076,-23.59,1.232,3.655,-10.3,-42.35,-28.11,-60.1,-23.27,-27.07,-86.61,-88.24,-29.55,-77.84,0,0,0,0,0,0,0,0,0,0,0,0,0,0,0,0,
79,24.93,-54.73,-11.15,-40.92,9.289,-5.66,-22.75,-46.98,-28.16,-68.57,-20.02,-23.02,-89.65,-89.48,-12.04,-71.82,0,0,0,0,0,0,0,0,0,0,0,0,0,0,0,0,
80,25.91,-56.24,-30.38,-60.09,-7.402,-22.33,-32.02,-53.68,-26.71,-74.68,-9.59,-12.02,-76.28,-76.8,4.138,-53.28,0,0,0,0,0,0,0,0,0,0,0,0,0,0,0,0,
81,34.46,-48.34,-35.04,-68.77,-14.95,-21.89,-35.71,-65.25,-18.17,-74.24,9.834,6.912,-62.31,-64.37,10.94,-43.19,0,0,0,0,0,0,0,0,0,0,0,0,0,0,0,0,
82,52.03,-37.73,-21.48,-63.87,15.2,-3.066,-35.8,-72.7,-1.659,-67.3,25.52,21.69,-54.32,-55.87,12.81,-37.26,0,0,0,0,0,0,0,0,0,0,0,0,0,0,0,0,
83,56.41,-36.77,-21.51,-65.22,11.13,-6.845,-38.96,-71.49,5.325,-61.42,27.48,24.01,-52.65,-52.71,14.03,-27.17,0,0,0,0,0,0,0,0,0,0,0,0,0,0,0,0,
84,47.54,-38.49,-32.38,-70.44,-10.96,-15.42,-37.26,-61.17,7.376,-47.98,32.6,28.72,-47.38,-47.14,19.5,-11.29,0,0,0,0,0,0,0,0,0,0,0,0,0,0,0,0,
85,43.7,-30.09,-37.42,-70.61,-15.05,-20.45,-35.16,-57.56,-5.057,-35.22,21.99,15.59,-50.62,-51.62,5.08,-16.18,0,0,0,0,0,0,0,0,0,0,0,0,0,0,0,0,
86,15.34,-41.43,-72.21,-92.54,-70.04,-73.77,-61.07,-81.27,-64.57,-50.78,-36.53,-43.89,-84.85,-86.73,-46.81,-63.36,0,0,0,0,0,0,0,0,0,0,0,0,0,0,0,0,
87,-45.44,-82.76,-129.6,-132.8,-135.5,-135,-96.5,-106,-128.3,-74.26,-90.36,-96.43,-116.6,-117.7,-87.73,-105.4,0,0,0,0,0,0,0,0,0,0,0,0,0,0,0,0,
88,-70.84,-99.07,-136.8,-141.3,-107.7,-122,-93.95,-98.86,-123.7,-71.88,-84.34,-89.3,-112,-112.9,-83.69,-104.9,0,0,0,0,0,0,0,0,0,0,0,0,0,0,0,0,
89,-48.23,-81.32,-105.5,-119.6,-68.21,-91.97,-75.14,-86.23,-100.2,-73.3,-70.93,-74.81,-110.6,-112.9,-77.85,-106.3,0,0,0,0,0,0,0,0,0,0,0,0,0,0,0,0,
90,-45.83,-83.24,-104.8,-112.6,-96.09,-109,-82.52,-92.41,-119.7,-98.53,-89.58,-93.7,-130.6,-132.6,-89.57,-123.5,0,0,0,0,0,0,0,0,0,0,0,0,0,0,0,0,
91,-61.29,-97.76,-113.6,-115.8,-102.3,-110.7,-91.33,-91.59,-115.1,-104,-89.22,-95.58,-130.5,-130.6,-87.49,-119.4,0,0,0,0,0,0,0,0,0,0,0,0,0,0,0,0,
92,-44.96,-88.97,-94.35,-107.3,-63.39,-77.14,-78.15,-74.97,-64.87,-81.44,-59.71,-66.37,-115.8,-115.2,-76.81,-111.3,0,0,0,0,0,0,0,0,0,0,0,0,0,0,0,0,
93,-22.35,-77.53,-77.75,-101.3,-49.75,-62.15,-65.62,-68.53,-44.72,-64.97,-44.78,-49.84,-114.8,-114.6,-74.89,-116.2,0,0,0,0,0,0,0,0,0,0,0,0,0,0,0,0,
94,-22.08,-74.01,-69.92,-101.7,-42.62,-54.11,-60.41,-71.58,-45.4,-51.59,-42.4,-47.88,-107.1,-106.6,-68.16,-106.1,0,0,0,0,0,0,0,0,0,0,0,0,0,0,0,0,
95,-22.89,-63.56,-57.57,-97.35,-24.88,-42.95,-55.42,-67.35,-36.65,-39.97,-40.93,-48.12,-88.35,-87.69,-57.15,-90.63,0,0,0,0,0,0,0,0,0,0,0,0,0,0,0,0,
96,-28.47,-56.79,-65.14,-97.11,-48.84,-64.61,-55.73,-67.19,-54.98,-40.41,-49.4,-57.13,-75.9,-75.85,-50.64,-84.43,0,0,0,0,0,0,0,0,0,0,0,0,0,0,0,0,
97,-43.95,-53.47,-86.57,-103.8,-88.83,-90.45,-57.01,-77.17,-86.67,-33.93,-58.31,-64.59,-59.05,-59.95,-44.32,-67.82,0,0,0,0,0,0,0,0,0,0,0,0,0,0,0,0,
98,-44.26,-43.26,-88.59,-105.1,-84.27,-81.88,-52.94,-77.12,-95.5,-24.01,-57.46,-61.19,-44.31,-46.2,-42.13,-54.49,0,0,0,0,0,0,0,0,0,0,0,0,0,0,0,0,
99,-32.17,-38.67,-80.47,-99.3,-68.83,-74.62,-46.93,-68.08,-96.6,-32.56,-48.18,-51.83,-51.52,-53.2,-42.74,-61.68,0,0,0,0,0,0,0,0,0,0,0,0,0,0,0,0,
100,-27.13,-38.69,-76.02,-90.02,-73.97,-79.74,-39.65,-66.73,-90.62,-42.29,-35.43,-41.15,-60.11,-60.63,-38.68,-62.75,0,0,0,0,0,0,0,0,0,0,0,0,0,0,0,0,
101,-22.67,-31.85,-62.1,-77.98,-62.77,-61.73,-31.04,-61.94,-66.68,-41.17,-29.29,-34.98,-52.23,-52.43,-37.16,-49.8,0,0,0,0,0,0,0,0,0,0,0,0,0,0,0,0,
102,-9.103,-26.58,-44.44,-72.32,-32.86,-34.82,-26.42,-53.32,-40.25,-43.48,-20.27,-25.38,-42.8,-43.68,-35.35,-41.75,0,0,0,0,0,0,0,0,0,0,0,0,0,0,0,0,
103,9.619,-26.31,-45.99,-79.72,-27.92,-35.02,-30.6,-64.77,-21.96,-43.47,4.428,-2.106,-37.59,-38.91,-20.94,-36.45,0,0,0,0,0,0,0,0,0,0,0,0,0,0,0,0,
104,25.65,-22.15,-60.55,-89.43,-49.24,-49.46,-37.86,-78.39,-12.72,-27.07,24.87,18.48,-31.22,-31.88,-6.743,-27.43,0,0,0,0,0,0,0,0,0,0,0,0,0,0,0,0,
105,29.9,-16.32,-76.23,-102.2,-66.29,-64.49,-41.42,-66.09,-14.79,-3.405,26.31,22.58,-26,-25.7,-4.878,-20.3,0,0,0,0,0,0,0,0,0,0,0,0,0,0,0,0,
106,23.09,-16.45,-99.18,-122.1,-65.99,-80.58,-41.08,-48.45,-18.54,12.84,24.52,22.17,-19.52,-20.16,-0.4618,-14.29,0,0,0,0,0,0,0,0,0,0,0,0,0,0,0,0,
107,20.28,-18.88,-105.6,-117,-45.44,-71.3,-34.49,-41.8,-15.88,19.09,23.79,20.78,-13,-15.53,5.044,-12.61,0,0,0,0,0,0,0,0,0,0,0,0,0,0,0,0,
108,20.8,-21.05,-78.28,-84.63,-19.56,-41.4,-31.96,-40.93,-17.92,15.11,11.59,8.13,-17.82,-19.01,-7.225,-21.98,0,0,0,0,0,0,0,0,0,0,0,0,0,0,0,0,
109,11.81,-27.63,-59.32,-70.89,-12.07,-34.31,-40.17,-40.35,-24.93,5.933,-2.71,-5.729,-25.81,-24.02,-23.52,-31.39,0,0,0,0,0,0,0,0,0,0,0,0,0,0,0,0,
110,3.782,-33.48,-63.83,-69.82,-21.98,-46.38,-38.82,-29.27,-26.72,1.511,-4.726,-7.53,-26.15,-25.39,-23.43,-35.42,0,0,0,0,0,0,0,0,0,0,0,0,0,0,0,0,
111,5.623,-36.24,-69.23,-64.87,-37.59,-54.59,-33.52,-26.06,-34.24,-2.204,-0.9859,-4.917,-29.35,-30.22,-12.75,-35.47,0,0,0,0,0,0,0,0,0,0,0,0,0,0,0,0,
112,9.895,-39.7,-78.72,-80.95,-41.94,-55.44,-40.33,-42.48,-44.83,-6.633,4.777,-0.3476,-30.07,-28.46,0.2212,-21,0,0,0,0,0,0,0,0,0,0,0,0,0,0,0,0,
113,17.13,-33.02,-81.74,-93.38,-31.59,-45.96,-32.04,-35.27,-39.34,-1.675,8.915,5.029,-20.09,-17.74,7.965,-7.198,0,0,0,0,0,0,0,0,0,0,0,0,0,0,0,0,
114,23.78,-15.01,-62.08,-72.39,-29.77,-36.58,-9.711,-11.92,-24.11,4.828,10.79,9.304,-16.71,-17.26,13.97,-16.43,0,0,0,0,0,0,0,0,0,0,0,0,0,0,0,0,
115,30.12,-2.41,-40.36,-60.1,-15.94,-24.4,-10.12,-24.69,-2.978,-0.6614,26.13,24.44,-23.72,-25.38,24.86,-31.8,0,0,0,0,0,0,0,0,0,0,0,0,0,0,0,0,
116,41.68,-0.4288,-32.03,-68.17,26.15,-3.509,-20.83,-42.69,23.46,-10.3,47.68,43.65,-28.05,-29.21,26.36,-35.77,0,0,0,0,0,0,0,0,0,0,0,0,0,0,0,0,
117,48.13,-0.3507,-39.25,-69.31,31.38,-6.935,-18.25,-33.8,42.09,-8.001,65.48,60.06,-21.41,-22,29.65,-22.65,0,0,0,0,0,0,0,0,0,0,0,0,0,0,0,0,
118,56.16,7.899,-51.1,-74,3.604,-24.3,-15.45,-33.63,56.37,3.08,88.49,83.13,-9.633,-9.892,48.37,-1.664,0,0,0,0,0,0,0,0,0,0,0,0,0,0,0,0,
119,69.57,12.41,-40.22,-78.76,18.52,-11.37,-17.18,-34.52,59.6,4.489,95.58,90.82,-11.34,-12.17,57.45,3.83,0,0,0,0,0,0,0,0,0,0,0,0,0,0,0,0,
120,69.48,3.511,-33.76,-72.04,23.36,-7.927,-17.39,-20.37,42.04,6.276,90.22,85.37,-6.099,-5.753,74.24,19.19,0,0,0,0,0,0,0,0,0,0,0,0,0,0,0,0,
121,73.4,10.63,-76.91,-87.94,-44.14,-50.56,-25.18,-32.51,30.54,23.67,105.4,99.64,25.04,25.96,107.4,53.48,0,0,0,0,0,0,0,0,0,0,0,0,0,0,0,0,
122,83.29,27.57,-107.6,-107,-65.19,-65.75,-32.65,-47.83,37.3,30.93,107.9,102.6,30.45,27.74,95.95,46.51,0,0,0,0,0,0,0,0,0,0,0,0,0,0,0,0,
123,69.07,18.74,-48.37,-57.56,37.82,-3.409,-10.02,-7.291,52.62,23.9,84.38,80.19,5.278,1.152,58.53,17.48,0,0,0,0,0,0,0,0,0,0,0,0,0,0,0,0,
124,64.33,17.94,35.75,17.34,124.6,59.82,27.11,31.31,66.68,26.81,78.64,74,8.803,6.748,57.44,29.87,0,0,0,0,0,0,0,0,0,0,0,0,0,0,0,0,
125,86.85,43.53,48.85,24.64,98.04,56,31.18,5.561,57.46,23.75,76.66,72.96,23.67,22.11,60.13,43.95,0,0,0,0,0,0,0,0,0,0,0,0,0,0,0,0,
126,91.16,47.23,19.06,-8.596,53.6,33.42,12.84,-29.22,41.31,5.37,65.46,64.1,16.21,15.46,48.97,30.68,0,0,0,0,0,0,0,0,0,0,0,0,0,0,0,0,
127,89.15,35.43,12.23,-19.92,52.89,44.23,12.66,-28.14,49.17,-0.0592,74.3,72.7,15.13,14.41,56.29,29.44,0,0,0,0,0,0,0,0,0,0,0,0,0,0,0,0,
128,104.8,41.86,27.3,-16.67,56.25,61.29,21.96,-18.33,49.34,7.649,83.63,81.37,20.92,17.14,68.48,34.74,0,0,0,0,0,0,0,0,0,0,0,0,0,0,0,0,
129,101.8,40.75,31.89,-21.63,52.32,52.5,13.25,-21.09,23.48,4.698,70.1,68.83,7.82,3.626,66.48,21.8,0,0,0,0,0,0,0,0,0,0,0,0,0,0,0,0,
130,74.38,17.79,12.82,-32.15,38.3,27.17,-6.652,-29.5,11.64,-5.802,56.71,53.8,-11.3,-13.46,58.16,4.984,0,0,0,0,0,0,0,0,0,0,0,0,0,0,0,0,
131,52.89,0.6545,-10.89,-34.4,14.96,8.278,-17.4,-33.76,18.75,-7.642,48.43,41.89,-19.43,-22.05,43.66,-4.168,0,0,0,0,0,0,0,0,0,0,0,0,0,0,0,0,
132,33.76,-6.208,-21.94,-37.15,12.92,-0.1966,-22.32,-39.13,10.18,-6.043,31.55,25.19,-23.48,-26.17,25.42,-11.47,0,0,0,0,0,0,0,0,0,0,0,0,0,0,0,0,
133,11.15,-16.09,-28.84,-58.76,17.9,-8.688,-29.07,-45.86,-1.615,-10.57,16.31,12.29,-29.42,-30.11,11.92,-19.68,0,0,0,0,0,0,0,0,0,0,0,0,0,0,0,0,
134,4.144,-23.42,-33.2,-75.24,4.682,-14.57,-31.37,-42.32,12.32,-16.18,14.91,10.74,-35.27,-35.72,3.722,-26.32,0,0,0,0,0,0,0,0,0,0,0,0,0,0,0,0,
135,8.897,-27.41,-34.99,-66.78,0.5404,-17.85,-35.84,-41.86,19.4,-23.16,11.82,7.019,-41.83,-43.88,-3.421,-29.46,0,0,0,0,0,0,0,0,0,0,0,0,0,0,0,0,
136,0.6888,-36.97,-42.91,-55.71,5.136,-27.8,-44.59,-49.23,-8.673,-30.8,-3.389,-7.57,-49.76,-51.3,-11,-30.3,0,0,0,0,0,0,0,0,0,0,0,0,0,0,0,0,
137,-17.01,-43.3,-52.03,-50.03,-15.73,-42.81,-41.29,-41.87,-41.74,-30.71,-15.57,-19.99,-51.44,-50.21,-14.14,-27.08,0,0,0,0,0,0,0,0,0,0,0,0,0,0,0,0,
138,-29.16,-39.13,-60.08,-46.94,-46.55,-56.51,-35.47,-36.12,-59.55,-26.04,-19.32,-24.07,-40.18,-38.32,-9.341,-16,0,0,0,0,0,0,0,0,0,0,0,0,0,0,0,0,
139,-34.78,-34.53,-68.44,-56.43,-51.73,-60.35,-44.14,-53.03,-62.83,-21.7,-21.11,-25,-30.38,-30.8,-5.508,-9.035,0,0,0,0,0,0,0,0,0,0,0,0,0,0,0,0,
140,-37.19,-37.62,-74.75,-73.68,-44.97,-58.23,-55.51,-62.72,-55.06,-20.88,-21.01,-23.99,-39.83,-41.22,-9.959,-18.14,0,0,0,0,0,0,0,0,0,0,0,0,0,0,0,0,
141,-40.8,-43.11,-81.49,-80.93,-44.35,-60.31,-56.55,-51.59,-49.74,-23.04,-17.97,-19.6,-45.33,-45.89,-7.956,-20.76,0,0,0,0,0,0,0,0,0,0,0,0,0,0,0,0,
142,-36.04,-34.97,-78.86,-75.59,-35.57,-55.61,-50.71,-48.04,-45.53,-20.58,-12.42,-12.93,-26.81,-27.02,4.653,-6.691,0,0,0,0,0,0,0,0,0,0,0,0,0,0,0,0,
143,-20.36,-21.73,-72.41,-76.43,-34.54,-54.66,-50.84,-60.14,-43.18,-25.07,-13.19,-14.82,-21.28,-21.22,4.062,-7.312,0,0,0,0,0,0,0,0,0,0,0,0,0,0,0,0,
144,-20.96,-29.77,-83.93,-88.21,-56.95,-73.5,-56.8,-64.89,-49.46,-39.59,-20.18,-23.6,-40.28,-40.32,-3.898,-17.61,0,0,0,0,0,0,0,0,0,0,0,0,0,0,0,0,
145,-36.79,-44.42,-93.95,-91.81,-58.83,-80.6,-57.28,-61.13,-47.3,-44.08,-14.63,-18.81,-44.08,-45.21,6.452,-4.18,0,0,0,0,0,0,0,0,0,0,0,0,0,0,0,0,
146,-40.37,-44.91,-89.7,-89.9,-36.9,-72.08,-58.6,-68.09,-35.7,-45.27,-0.9522,-5.154,-32.23,-33.37,22.4,17.53,0,0,0,0,0,0,0,0,0,0,0,0,0,0,0,0,
147,-34.61,-43.66,-93.5,-92.73,-44.86,-79.69,-61.24,-74.95,-29.24,-49.34,2.756,-0.6655,-27.15,-28.22,26.09,20.3,0,0,0,0,0,0,0,0,0,0,0,0,0,0,0,0,
148,-31.15,-43.51,-102,-94.29,-70.24,-91.63,-59.98,-71.92,-25.27,-46,1.438,-1.039,-26.7,-30.04,21.72,8.712,0,0,0,0,0,0,0,0,0,0,0,0,0,0,0,0,
149,-29.62,-40.85,-101.2,-99.19,-61.08,-85.22,-64.98,-75.74,-27.34,-46.98,4.316,3,-29.38,-33.52,16.03,-1.333,0,0,0,0,0,0,0,0,0,0,0,0,0,0,0,0,
150,-24.38,-36.49,-89.9,-102.4,-32.63,-67.38,-62.42,-76.82,-30.2,-50.58,14.2,14.44,-29.34,-30.54,18.48,1.952,0,0,0,0,0,0,0,0,0,0,0,0,0,0,0,0,
151,-8.687,-25.9,-74.05,-91.26,-27.46,-54.18,-44.19,-62.28,-20.19,-42.43,27.15,26.63,-17.3,-16.89,27.6,14.3,0,0,0,0,0,0,0,0,0,0,0,0,0,0,0,0,
152,6.715,-20.19,-69.74,-82.41,-28.99,-49.06,-46.19,-58.37,-9.333,-37.01,30.86,28.23,-3.636,-4.623,29.18,27.67,0,0,0,0,0,0,0,0,0,0,0,0,0,0,0,0,
153,7.781,-28.43,-73.89,-91.1,-15.58,-43.04,-71.45,-80.98,-4.548,-42.16,23.99,23,0.5539,-1.066,21.84,38.62,0,0,0,0,0,0,0,0,0,0,0,0,0,0,0,0,
154,-0.8969,-39.14,-73.98,-108,-10.68,-39.32,-83.59,-105.6,1.615,-43.68,17.49,18.93,-2.013,-2.567,16.64,37.21,0,0,0,0,0,0,0,0,0,0,0,0,0,0,0,0,
155,-5.114,-47.88,-74.55,-115.4,-8.65,-40.46,-81.06,-106,5.64,-38.58,17.84,16.84,-9.529,-9.426,20.29,24.35,0,0,0,0,0,0,0,0,0,0,0,0,0,0,0,0,
156,-0.8374,-60.19,-80.76,-112,-4.288,-45.9,-86.1,-98.13,6.069,-41.15,21.57,18.39,-25.61,-25.96,27.05,11.65,0,0,0,0,0,0,0,0,0,0,0,0,0,0,0,0,
157,0.7059,-73.02,-91.04,-115.2,-25.2,-60.29,-90.36,-99.19,11.56,-50.2,29.15,27.71,-39.18,-39.92,33.15,6.16,0,0,0,0,0,0,0,0,0,0,0,0,0,0,0,0,
158,8.559,-66.51,-84.82,-111,-27.89,-54.4,-67.46,-79.07,23.6,-40.19,43.56,41.63,-32.63,-33.59,38.75,8.15,0,0,0,0,0,0,0,0,0,0,0,0,0,0,0,0,
159,32.08,-37.21,-52.13,-80.03,17.38,-17.12,-36.07,-42.92,28.26,-19.92,43.27,38.9,-21.46,-23.22,29.45,1.715,0,0,0,0,0,0,0,0,0,0,0,0,0,0,0,0,
160,34.45,-22.62,-31.95,-60.32,38.19,0.5586,-37.7,-43.98,19.53,-21.74,16.3,12.62,-26.68,-28.75,5.215,-17.01,0,0,0,0,0,0,0,0,0,0,0,0,0,0,0,0,
161,4.664,-38.64,-43.15,-75.81,19.94,-14.32,-60.33,-69.04,6.328,-33.96,-4.815,-8.134,-36.95,-38.28,-8.328,-26.32,0,0,0,0,0,0,0,0,0,0,0,0,0,0,0,0,
162,-19.1,-57.82,-60.26,-91.31,2.702,-33.43,-71.81,-72.01,-10.73,-37.98,-2.57,-7.524,-41.76,-42.18,-5.473,-22.05,0,0,0,0,0,0,0,0,0,0,0,0,0,0,0,0,
163,-27.81,-64.71,-72.61,-87.5,-21,-53.21,-72.81,-61.92,-26.83,-37.29,4.906,0.9254,-40.52,-40.03,1.687,-11.9,0,0,0,0,0,0,0,0,0,0,0,0,0,0,0,0,
164,-26.06,-60.36,-76.62,-81.58,-39.53,-62.82,-67.76,-57.47,-28.88,-28.94,9.295,8.223,-33.05,-32.59,8.59,2.672,0,0,0,0,0,0,0,0,0,0,0,0,0,0,0,0,
165,-7.755,-49.99,-64.44,-81.02,-28.43,-47.65,-52.82,-50.07,-15.84,-21.84,13.39,13.63,-32.72,-33.65,10.4,5.393,0,0,0,0,0,0,0,0,0,0,0,0,0,0,0,0,
166,7.627,-49.01,-49.98,-80.94,-6.436,-28.8,-42.66,-41.42,0.1494,-32.69,9.021,8.387,-49.82,-51.37,-1.181,-17.22,0,0,0,0,0,0,0,0,0,0,0,0,0,0,0,0,
167,-5.235,-66.77,-57.14,-87.81,-1.54,-35.04,-58.38,-50.63,-4.093,-50.89,-13.41,-16.05,-72.23,-72.92,-22.51,-45.81,0,0,0,0,0,0,0,0,0,0,0,0,0,0,0,0,
168,-34.78,-88,-80.77,-95.53,-21.89,-58.35,-80.52,-67.76,-25.29,-54.52,-36.72,-39.54,-79.7,-79.42,-34.68,-54.8,0,0,0,0,0,0,0,0,0,0,0,0,0,0,0,0,
169,-48.19,-88.44,-92.4,-91.27,-44.61,-70.34,-79.28,-67.42,-33.98,-45.28,-42.22,-43.04,-72.39,-71.83,-37.87,-51.9,0,0,0,0,0,0,0,0,0,0,0,0,0,0,0,0,
170,-42.35,-74.41,-90.38,-97.92,-44.92,-70.36,-72.32,-62.81,-35.12,-39.08,-43.33,-43.26,-65.26,-64.94,-42.51,-50.39,0,0,0,0,0,0,0,0,0,0,0,0,0,0,0,0,
171,-34.59,-64.59,-87.61,-113.5,-31.36,-66.84,-71.56,-63.89,-32.62,-31.72,-36.84,-36.78,-52.79,-52.91,-30.58,-36.09,0,0,0,0,0,0,0,0,0,0,0,0,0,0,0,0,
172,-20.9,-55.41,-81.25,-101.9,-22.88,-58.74,-65.23,-57.74,-13.92,-20.21,-12.47,-12.48,-38.48,-39.81,-10.57,-18.2,0,0,0,0,0,0,0,0,0,0,0,0,0,0,0,0,
173,-13.62,-55.27,-81.08,-85.4,-26.17,-59.62,-64.44,-52.99,-4.901,-19.96,-4.927,-6.212,-48.79,-51.6,-17.74,-25.61,0,0,0,0,0,0,0,0,0,0,0,0,0,0,0,0,
174,-34.75,-71.41,-90.43,-86.78,-26.93,-66.56,-66.28,-50.92,-14.77,-24.63,-19.95,-21.77,-66.61,-68.94,-27.78,-35.4,0,0,0,0,0,0,0,0,0,0,0,0,0,0,0,0,
175,-48.48,-77.85,-90.61,-80.34,-19,-62.32,-60.8,-46.55,-18.09,-25.3,-18.43,-19.14,-58.92,-59.28,-15.57,-20.72,0,0,0,0,0,0,0,0,0,0,0,0,0,0,0,0,
176,-28.9,-70.92,-87.54,-77.48,-27.11,-61.34,-67.82,-57.52,-21.67,-34.17,-9.174,-10.02,-42.48,-42.28,-11.6,-5.532,0,0,0,0,0,0,0,0,0,0,0,0,0,0,0,0,
177,-15.73,-70.06,-93.78,-96.57,-43.2,-69.89,-82.98,-77.14,-28.8,-46.23,-14.37,-16.1,-35.64,-36.48,-15.82,-0.7503,0,0,0,0,0,0,0,0,0,0,0,0,0,0,0,0,
178,-20.02,-69.66,-98.1,-108.9,-33.57,-69.8,-86.39,-83.69,-24.97,-51.37,-11.91,-13.15,-28.4,-29.3,-2.257,13.73,0,0,0,0,0,0,0,0,0,0,0,0,0,0,0,0,
179,-10.88,-57.9,-91.83,-98.94,-20.49,-63.04,-76.82,-75.75,-26.6,-49.41,8.541,7.954,-12.78,-12.27,19.9,39.23,0,0,0,0,0,0,0,0,0,0,0,0,0,0,0,0,
180,11.67,-32.18,-73.64,-80.28,-26.87,-54.03,-46.52,-53.19,-35.81,-35.74,34.02,33.42,7.503,7.913,42.82,57.17,0,0,0,0,0,0,0,0,0,0,0,0,0,0,0,0,
181,37.9,-3.516,-46.41,-61.51,-17.39,-32.62,-14.5,-33.3,-23.33,-24.67,57.6,57.04,13.37,11.31,64.74,54.66,0,0,0,0,0,0,0,0,0,0,0,0,0,0,0,0,
182,60.77,0.3817,-29.73,-46.17,-0.6955,-16.68,-20.3,-38.56,-11.16,-31.3,55.63,54.81,-8.924,-11.73,59.52,31.79,0,0,0,0,0,0,0,0,0,0,0,0,0,0,0,0,
183,48.85,-20.61,-38.2,-41.11,-23.11,-29.55,-43.07,-50.2,-31.08,-34.73,22.69,20.98,-33.22,-33.63,30.17,8.286,0,0,0,0,0,0,0,0,0,0,0,0,0,0,0,0,
184,14.65,-32.54,-46.96,-45.7,-34.78,-37.59,-43.34,-49.08,-30.96,-23.13,8.6,5.792,-30.88,-30.23,15.93,7.057,0,0,0,0,0,0,0,0,0,0,0,0,0,0,0,0,
185,7.937,-33.25,-38.48,-55.68,0.5883,-24.45,-43.74,-52.08,4.275,-22.64,13.88,10.75,-26.32,-27.32,6.786,10.64,0,0,0,0,0,0,0,0,0,0,0,0,0,0,0,0,
186,-2.045,-53.4,-47.58,-76.54,4.359,-35.68,-67.77,-64.02,-0.5199,-39.92,-13.33,-14.91,-44.37,-45.55,-20.98,-6.82,0,0,0,0,0,0,0,0,0,0,0,0,0,0,0,0,
187,-42.22,-79.48,-75.52,-96.61,-22.51,-57.97,-82.91,-66.06,-30.23,-43.33,-44.05,-43.59,-53.93,-52.87,-33.87,-21.6,0,0,0,0,0,0,0,0,0,0,0,0,0,0,0,0,
188,-50.89,-73.78,-75.26,-90.29,-17.18,-47.78,-71.09,-58.13,-20.67,-30.17,-37.13,-36.78,-39.01,-36.68,-20.07,-14.8,0,0,0,0,0,0,0,0,0,0,0,0,0,0,0,0,
189,-24.31,-52.08,-52.49,-61.53,-14.14,-34.33,-52.74,-47.73,-4.705,-24.4,-22.57,-24.01,-23.32,-21.91,-5.542,-2.6,0,0,0,0,0,0,0,0,0,0,0,0,0,0,0,0,
190,-6.845,-37.63,-37.53,-40.16,-17.49,-30.68,-36.39,-34.68,0.6761,-20.78,-6.903,-9.174,-11.51,-12.43,6.203,5.198,0,0,0,0,0,0,0,0,0,0,0,0,0,0,0,0,
191,10,-29.13,-34.95,-51.41,2.275,-23.47,-32.89,-33.05,8.998,-22.93,0.3775,-0.6199,-17.91,-20.78,-3.608,-11.86,0,0,0,0,0,0,0,0,0,0,0,0,0,0,0,0,
192,5.568,-45.3,-47.99,-73.76,-0.9148,-34.29,-49.88,-44.6,-14.67,-47.62,-31.36,-30.22,-55.21,-56.66,-33.06,-53.31,0,0,0,0,0,0,0,0,0,0,0,0,0,0,0,0,
193,-31.18,-76.32,-62.54,-69.29,-27.68,-54.08,-64.05,-55.97,-46.56,-70.89,-50.66,-48.62,-77.32,-75.93,-28.45,-66.69,0,0,0,0,0,0,0,0,0,0,0,0,0,0,0,0,
194,-35.89,-82.16,-61.36,-59.86,-32.42,-53.32,-66.12,-66.92,-34.95,-74.84,-25.34,-24.15,-68.53,-67.57,-7.017,-50.67,0,0,0,0,0,0,0,0,0,0,0,0,0,0,0,0,
195,-7.077,-73.15,-48.01,-58.88,-19.94,-35.5,-61.48,-65.91,-16.16,-70.8,-10.03,-9.615,-60.88,-60.69,-6.022,-35.49,0,0,0,0,0,0,0,0,0,0,0,0,0,0,0,0,
196,11.98,-57.88,-34.75,-56.9,-6.37,-18.82,-51.88,-65.12,-6.949,-57.97,7.257,7.944,-35.56,-32.98,23,5.63,0,0,0,0,0,0,0,0,0,0,0,0,0,0,0,0,
197,34.65,-25.07,-47.96,-85.44,-17.98,-30.07,-54.9,-91.1,15.54,-45.42,47.38,48.1,3.744,6.431,62.8,46.9,0,0,0,0,0,0,0,0,0,0,0,0,0,0,0,0,
198,38.65,-14.95,-74,-105.4,-46.73,-55.1,-60.53,-88.63,10.48,-46.76,37.21,37.07,-4.786,-5.808,31.25,17.87,0,0,0,0,0,0,0,0,0,0,0,0,0,0,0,0,
199,-10.02,-42.77,-57.25,-50.68,-29.34,-42.73,-42.13,-31.95,-36.08,-49.82,-21.29,-22.68,-41.82,-42.99,-28.06,-31.83,0,0,0,0,0,0,0,0,0,0,0,0,0,0,0,0,
200,-49.79,-54.39,-13.27,2.201,11.32,-9.157,-24.57,-4.315,-55.4,-48.92,-42.04,-44.57,-44.9,-43.81,-41.95,-35.12,0,0,0,0,0,0,0,0,0,0,0,0,0,0,0,0,
201,-40.45,-41.17,-3.606,-10.16,2.472,-7.809,-27.98,-21.53,-37.69,-49.06,-34.48,-36.65,-34.93,-35.56,-41.55,-33.28,0,0,0,0,0,0,0,0,0,0,0,0,0,0,0,0,
202,-28.85,-36.3,-31.3,-35.58,-32.65,-35.76,-28.02,-25.58,-37.94,-43.06,-41.93,-41.88,-39.22,-40.99,-49.01,-42.39,0,0,0,0,0,0,0,0,0,0,0,0,0,0,0,0,
203,-33.04,-34.35,-62.4,-52.79,-51.87,-60.76,-24,-21.07,-53.01,-30.08,-46.31,-44.47,-37.47,-36.94,-47.96,-32.08,0,0,0,0,0,0,0,0,0,0,0,0,0,0,0,0,
204,-37.64,-31.8,-80.86,-70.83,-63.99,-71.85,-43.3,-37.24,-49.9,-25.28,-42.9,-41.03,-34.2,-33.68,-45.48,-23.64,0,0,0,0,0,0,0,0,0,0,0,0,0,0,0,0,
205,-42.31,-44.51,-87.92,-80.59,-64.1,-72.99,-75.61,-61.63,-34.26,-33.58,-38.81,-38.04,-43.69,-44.6,-40.44,-36.95,0,0,0,0,0,0,0,0,0,0,0,0,0,0,0,0,
206,-37.94,-60.58,-84.96,-84.86,-51.69,-69.65,-82.67,-62.5,-24.74,-40.74,-28.44,-28.81,-55.47,-56.2,-34.51,-61.31,0,0,0,0,0,0,0,0,0,0,0,0,0,0,0,0,
207,-30.91,-67.88,-80.29,-84.1,-53.44,-69.93,-70.19,-39.61,-25.13,-39.53,-28.39,-28.65,-67.22,-67.67,-42.38,-89.38,0,0,0,0,0,0,0,0,0,0,0,0,0,0,0,0,
208,-37.99,-72.97,-80.19,-77.09,-49.96,-66.26,-65.47,-26.8,-19.89,-35.13,-35.01,-34.48,-73.38,-72.43,-43.9,-92.98,0,0,0,0,0,0,0,0,0,0,0,0,0,0,0,0,
209,-41.65,-70.55,-73.65,-74.2,-26.32,-53.83,-62.82,-32.95,-13.88,-32.71,-34.32,-33.93,-66.35,-64.3,-36.31,-67.85,0,0,0,0,0,0,0,0,0,0,0,0,0,0,0,0,
210,-48.11,-68.19,-74.86,-82,-45.97,-69.06,-66.01,-44.02,-47.41,-41.78,-58.61,-58.91,-67.88,-67.37,-55.86,-60.51,0,0,0,0,0,0,0,0,0,0,0,0,0,0,0,0,
211,-83.43,-84.74,-105.2,-98.99,-109.7,-114.8,-85.72,-58.04,-106.9,-62.07,-106.2,-106.1,-84.57,-84.53,-90.15,-74.78,0,0,0,0,0,0,0,0,0,0,0,0,0,0,0,0,
212,-113,-104.1,-132.8,-117.2,-133,-134.5,-99.9,-74.33,-127.3,-78.23,-123.9,-121.5,-92.33,-92.05,-101.2,-77.07,0,0,0,0,0,0,0,0,0,0,0,0,0,0,0,0,
213,-106.4,-107.7,-133.2,-126.4,-113.7,-123.8,-102.9,-87.52,-107,-86.26,-111.3,-106.8,-91.05,-91.62,-96.17,-71.9,0,0,0,0,0,0,0,0,0,0,0,0,0,0,0,0,
214,-94.2,-106,-127.4,-120.3,-101,-119.6,-109,-87.37,-100.7,-91.33,-106.8,-103.2,-95.5,-94.71,-99.19,-80.77,0,0,0,0,0,0,0,0,0,0,0,0,0,0,0,0,
215,-96.83,-105.9,-122.7,-105.6,-99.21,-118.4,-107.4,-73.41,-120.6,-92.81,-117,-115.1,-102.5,-100.5,-110.7,-106.4,0,0,0,0,0,0,0,0,0,0,0,0,0,0,0,0,
216,-100.5,-103,-112.2,-97.37,-94.34,-105.7,-89.86,-62.09,-123.4,-87.95,-120.5,-118.9,-105.3,-105.2,-109,-127.4,0,0,0,0,0,0,0,0,0,0,0,0,0,0,0,0,
217,-92.94,-95.81,-101.9,-95.41,-79.17,-91.33,-74.07,-57.53,-99.04,-78.77,-107.9,-106.9,-102,-102.7,-88.3,-117.8,0,0,0,0,0,0,0,0,0,0,0,0,0,0,0,0,
218,-78.54,-87.12,-99.67,-93.53,-73.94,-91.79,-73.66,-58.69,-86.49,-71.65,-91.85,-91.46,-90.37,-89.58,-67.6,-84.1,0,0,0,0,0,0,0,0,0,0,0,0,0,0,0,0,
219,-68.69,-80.96,-101.4,-94.49,-86.7,-98.48,-81.11,-69.8,-82.03,-66.31,-78.37,-77.29,-72.26,-70.31,-49.03,-50.3,0,0,0,0,0,0,0,0,0,0,0,0,0,0,0,0,
220,-62.33,-78.6,-101.2,-100.4,-82.12,-90.2,-89.05,-80.65,-62.88,-61.55,-66.1,-64.53,-55.6,-53.62,-30.66,-29.46,0,0,0,0,0,0,0,0,0,0,0,0,0,0,0,0,
221,-56.77,-78.25,-101.4,-106.4,-68.78,-78.2,-95.09,-79.95,-53.66,-57.81,-59.19,-57.99,-42.75,-41.62,-23.84,-26.88,0,0,0,0,0,0,0,0,0,0,0,0,0,0,0,0,
222,-57.24,-71.71,-93.52,-101.7,-73.56,-76.09,-86.86,-68.66,-63.71,-48.35,-55.37,-54.49,-33.24,-32.09,-24.91,-36.51,0,0,0,0,0,0,0,0,0,0,0,0,0,0,0,0,
223,-63.06,-60.96,-79.63,-92.37,-72.77,-76.81,-72.77,-57.13,-73.65,-42.24,-56.14,-55.55,-36.9,-35.26,-27.91,-45.85,0,0,0,0,0,0,0,0,0,0,0,0,0,0,0,0,
224,-69.57,-63.66,-88.33,-90.96,-76.63,-89.71,-75.82,-56.69,-81.04,-49.98,-62.33,-61.75,-52.01,-51.71,-31.99,-48.76,0,0,0,0,0,0,0,0,0,0,0,0,0,0,0,0,
225,-73.07,-75.33,-108.4,-83.76,-100.9,-108.5,-80.76,-59.05,-78.96,-51.67,-60.14,-58.9,-60.93,-61.19,-27.83,-43.03,0,0,0,0,0,0,0,0,0,0,0,0,0,0,0,0,
226,-69.72,-78.41,-95.72,-69.59,-82,-92.23,-72.11,-52.11,-57.32,-43.34,-51.38,-49.54,-64.27,-62.57,-19.08,-33.67,0,0,0,0,0,0,0,0,0,0,0,0,0,0,0,0,
227,-60.52,-79.75,-59.09,-65.32,-17.12,-49.17,-68.62,-44.81,-31.22,-46.28,-51.15,-49.19,-72.49,-70.24,-20.47,-34.05,0,0,0,0,0,0,0,0,0,0,0,0,0,0,0,0,
228,-57.5,-87.96,-44.96,-66.19,-4.382,-40.18,-76.71,-48.63,-24.09,-55.27,-58.34,-55.99,-82.04,-80.81,-33.63,-48.54,0,0,0,0,0,0,0,0,0,0,0,0,0,0,0,0,
229,-72.32,-93.65,-61.91,-68.39,-42.87,-65.39,-80.54,-53.71,-32.37,-51.82,-63.32,-60.62,-83.72,-81.53,-46.37,-61.87,0,0,0,0,0,0,0,0,0,0,0,0,0,0,0,0,
230,-88.41,-87.99,-71.86,-66.16,-47.42,-68.75,-69.83,-43.21,-36.07,-39.55,-61.53,-59.34,-71.84,-68.31,-44.48,-59.34,0,0,0,0,0,0,0,0,0,0,0,0,0,0,0,0,
231,-82.57,-73.85,-53.29,-47.78,-27.69,-47.66,-49.57,-24.54,-38.68,-32.82,-55.79,-53.48,-51.88,-49.33,-29.46,-46.76,0,0,0,0,0,0,0,0,0,0,0,0,0,0,0,0,
232,-62.12,-56.34,-26.92,-27.98,-22.8,-31.67,-25.24,-8.202,-37.42,-32.41,-41.93,-38.95,-35.05,-34.14,-11.76,-33.4,0,0,0,0,0,0,0,0,0,0,0,0,0,0,0,0,
233,-37.19,-34.61,-6.473,-11.77,-11.03,-14.42,1.161,9.613,-10.66,-32.22,-13.83,-11.24,-23.3,-23.96,5.361,-18.14,0,0,0,0,0,0,0,0,0,0,0,0,0,0,0,0,
234,-8.012,-15.8,11.63,13.3,12.87,8.85,11.28,15.81,22.29,-33.73,10.14,12.96,-16.73,-19.12,17.21,-1.21,0,0,0,0,0,0,0,0,0,0,0,0,0,0,0,0,
235,14.05,-11.31,19.59,25.45,31.41,21.49,-2.744,3.322,29.13,-31.67,15.45,19.08,-19.21,-21.49,18.76,8.595,0,0,0,0,0,0,0,0,0,0,0,0,0,0,0,0,
236,16.16,-18.18,4.239,1.463,27.42,8.018,-19.82,-11.36,14.54,-23.65,11.03,14.11,-29.56,-30.42,13.91,2.402,0,0,0,0,0,0,0,0,0,0,0,0,0,0,0,0,
237,-2.622,-27.36,-28.12,-32.6,-9.453,-26.2,-31,-22.62,-4.622,-17.95,0.7052,4.245,-38.67,-38.96,7.699,-13.19,0,0,0,0,0,0,0,0,0,0,0,0,0,0,0,0,
238,-25.95,-30.96,-46.69,-41.65,-31.2,-43.84,-40.06,-25.46,-12.83,-9.767,-12.55,-7.808,-41.8,-41.41,-5.781,-26.71,0,0,0,0,0,0,0,0,0,0,0,0,0,0,0,0,
239,-38.32,-33.66,-43.36,-35.53,-12.62,-37.04,-46.37,-20.51,-14.4,-5.565,-24.37,-20.81,-46.94,-45.87,-29.98,-38.57,0,0,0,0,0,0,0,0,0,0,0,0,0,0,0,0,
240,-48,-47.55,-43.35,-34.31,-8.794,-38.38,-48.97,-21.19,-23.1,-17.83,-36.72,-34.09,-54.73,-53.92,-43.07,-44.3,0,0,0,0,0,0,0,0,0,0,0,0,0,0,0,0,
241,-54.57,-57.05,-44.92,-29.34,-20.07,-41.89,-43.91,-19.17,-23.39,-21.06,-40.19,-36.78,-52.6,-50.78,-30.28,-34.9,0,0,0,0,0,0,0,0,0,0,0,0,0,0,0,0,
242,-43.54,-45.06,-35.62,-24.43,-8.578,-31.86,-35.41,-10.4,-9.342,-2.73,-25.69,-22.28,-35.13,-31.66,-8.738,-9.418,0,0,0,0,0,0,0,0,0,0,0,0,0,0,0,0,
243,-25.19,-24.7,-31.18,-24.14,-6.987,-28.87,-29.59,-6.016,-2.517,9.723,-6.938,-3.39,-12.3,-9.961,9.202,22.42,0,0,0,0,0,0,0,0,0,0,0,0,0,0,0,0,
244,-17.69,-11.38,-36.81,-10.17,-27.13,-35.81,-25.33,-0.2077,-8.71,7.706,-2.677,1.324,-5.557,-4.847,17.41,32.66,0,0,0,0,0,0,0,0,0,0,0,0,0,0,0,0,
245,-21.18,-14.41,-39.88,0.67,-23.67,-34.65,-25.41,5.183,-17.07,6.123,-11.8,-8.262,-15.86,-14.11,9.131,18.1,0,0,0,0,0,0,0,0,0,0,0,0,0,0,0,0,
246,-28.58,-27.97,-38.94,-11.11,-6.001,-30.59,-26.06,2,-20.35,8.317,-20.18,-16.16,-19.14,-16.54,-2.67,12.64,0,0,0,0,0,0,0,0,0,0,0,0,0,0,0,0,
247,-33.87,-33.74,-40.75,-20.95,-11.8,-34.75,-26.82,-4.066,-22.26,1.8,-23.53,-18.42,-17.82,-15.62,-7.42,15.13,0,0,0,0,0,0,0,0,0,0,0,0,0,0,0,0,
248,-29.4,-30.29,-37.49,-19.31,-14.91,-29.62,-28.85,-8.824,-20.42,-9.097,-20.01,-14.81,-19.93,-17.64,-5.288,11.47,0,0,0,0,0,0,0,0,0,0,0,0,0,0,0,0,
249,-7.132,-13.91,-11.6,-4.432,8.262,-2.309,-12.7,-3.11,-5.609,-2.663,-7.015,-1.172,-9.198,-7.75,4.707,19.07,0,0,0,0,0,0,0,0,0,0,0,0,0,0,0,0,
250,22.56,13.49,20.52,26.23,25.9,22,17.32,15.15,8.099,8.463,3.679,9.78,4.582,5.019,11.88,30.51,0,0,0,0,0,0,0,0,0,0,0,0,0,0,0,0,
251,39.15,26.89,32.19,39.59,29.1,32.18,33.84,29.13,12.28,6.612,8.189,12.92,5.958,7.704,16.49,31.45,0,0,0,0,0,0,0,0,0,0,0,0,0,0,0,0,
252,43.46,30.01,35.67,29.55,31.75,39.86,37.85,31.48,18.71,10.21,17.83,22.84,12.83,15.44,32.7,43.78,0,0,0,0,0,0,0,0,0,0,0,0,0,0,0,0,
253,44.16,38.23,37.97,30.23,29.11,37.08,32.64,24.39,22.71,18.7,32.07,38.65,25.9,27.22,47.33,65.56,0,0,0,0,0,0,0,0,0,0,0,0,0,0,0,0,
254,45.34,38.14,29.11,36.19,28.06,26.9,19.05,12.64,21.05,16.9,38.82,44.66,27.45,27.88,40.3,66.29,0,0,0,0,0,0,0,0,0,0,0,0,0,0,0,0,
255,49.44,30.53,17.6,23.95,24.95,21.93,11.88,4.509,16.2,15.67,25.54,30.2,18.71,19.42,16.72,44.88,0,0,0,0,0,0,0,0,0,0,0,0,0,0,0,0,
256,45.04,24.67,7.937,3.831,5.238,11.82,9.036,1.348,3.42,17.4,0.0095,5.464,5.612,6.801,-6.915,21.45,0,0,0,0,0,0,0,0,0,0,0,0,0,0,0,0,
257,27.94,12.23,-5.052,-5.58,-11.98,-3.812,1.019,0.8988,-5.913,11.52,-10.73,-4.952,-7.378,-6.316,-13.64,9.153,0,0,0,0,0,0,0,0,0,0,0,0,0,0,0,0,
258,12.97,-3.181,-16.84,-3.303,-15.82,-12.49,-8.857,-2.351,-5.817,4.145,-5.842,-1.636,-12.16,-11.17,-2.378,12.39,0,0,0,0,0,0,0,0,0,0,0,0,0,0,0,0,
259,6.433,-9.563,-19.91,-1.182,-11.86,-11.67,-16.48,-10.14,-8.225,3.221,-4.308,-1.602,-9.698,-7.942,4.588,23.85,0,0,0,0,0,0,0,0,0,0,0,0,0,0,0,0,
260,2.897,-8.934,-16.68,-10.07,-7.959,-10.7,-19.91,-14.63,-12.53,1.592,-9.839,-6.755,-10.53,-9.528,-5.795,29.41,0,0,0,0,0,0,0,0,0,0,0,0,0,0,0,0,
261,-5.284,-8.718,-18.66,-20.08,-22.46,-19.58,-20.41,-13.75,-11.93,-3.708,-16.71,-12.07,-14.82,-15.7,-20.63,28.82,0,0,0,0,0,0,0,0,0,0,0,0,0,0,0,0,
262,-15.58,-8.915,-18.26,-11.21,-22.42,-17.17,-14.39,-7.396,-8.535,-3.614,-19.01,-14.11,-11.21,-11.94,-28.37,30.02,0,0,0,0,0,0,0,0,0,0,0,0,0,0,0,0,
263,-16.24,-5.056,-4.188,6.786,14.16,4.285,-0.0218,-0.0663,-13.08,-1.7,-23.48,-19.95,-4.078,-3.895,-31.79,25.81,0,0,0,0,0,0,0,0,0,0,0,0,0,0,0,0,
264,-13.28,1.27,1.671,12.27,15.88,3.792,7.863,-2.323,-24.76,-3.972,-37.21,-34.31,-2.686,-1.728,-31.68,14.71,0,0,0,0,0,0,0,0,0,0,0,0,0,0,0,0,
265,-15.42,8.235,-7.834,8.467,-21.51,-16.63,2.437,-10.3,-24.12,-4.014,-41.74,-37.52,3.014,4.993,-26.35,14.51,0,0,0,0,0,0,0,0,0,0,0,0,0,0,0,0,
266,-13.85,15.21,-9.361,1.373,-18.67,-13.29,-4.705,-18.21,-10.25,-9.014,-27.72,-21.76,13.06,14.28,-15.55,27.06,0,0,0,0,0,0,0,0,0,0,0,0,0,0,0,0,
267,-4.155,18.55,-0.1448,1.11,15.07,7.607,-0.8687,-18.2,7.496,-20.36,-12.08,-6.026,12.63,12.62,-3.398,37.56,0,0,0,0,0,0,0,0,0,0,0,0,0,0,0,0,
268,9.34,21.82,9.694,16.18,30.22,17.78,12.5,-3.141,22.3,-23.14,-7.485,-2.743,4.004,4.278,-7.71,41.47,0,0,0,0,0,0,0,0,0,0,0,0,0,0,0,0,
269,16.88,24.88,12.4,15.15,20.79,13.07,12.46,-3.862,11.9,-26.75,-16.24,-12.07,-1.711,-1.666,-28.86,40.66,0,0,0,0,0,0,0,0,0,0,0,0,0,0,0,0,
270,10.58,20.76,2.378,-8.936,-4.695,1.309,-6.509,-32.16,-12.12,-34.91,-26.38,-21.94,-1.21,-1.283,-39.22,37.01,0,0,0,0,0,0,0,0,0,0,0,0,0,0,0,0,
271,1.691,18.06,-5.722,-8.504,-12.4,-3.363,-15.54,-38.21,-11.98,-24.07,-25.79,-21.7,1.665,2.4,-39.76,29.69,0,0,0,0,0,0,0,0,0,0,0,0,0,0,0,0,
272,-0.7262,21.81,-3.958,13.66,3.103,-1.759,-7.71,-11.71,-5.45,1.324,-28.98,-25.45,-2.696,-2.695,-52.09,12.5,0,0,0,0,0,0,0,0,0,0,0,0,0,0,0,0,
273,-7.997,14.19,-14.9,10.01,-10.15,-16.71,-10.81,0.3012,-24.34,11.89,-47.66,-44.03,-17.84,-18.72,-69.43,-10.32,0,0,0,0,0,0,0,0,0,0,0,0,0,0,0,0,
274,-30.57,-11.38,-45.84,-18.65,-46.3,-48.76,-33.14,-9.721,-52.68,3.361,-67.99,-64.25,-33.49,-32.84,-76.24,-18.4,0,0,0,0,0,0,0,0,0,0,0,0,0,0,0,0,
275,-59.34,-32.33,-71.3,-40.18,-61.19,-70.11,-48.07,-13.14,-64.6,-1.829,-74.37,-70.96,-36.19,-34.21,-66.03,-4.538,0,0,0,0,0,0,0,0,0,0,0,0,0,0,0,0,
276,-69.87,-30.75,-75.37,-38.94,-61.35,-68.39,-41.2,-6.777,-53.6,5.68,-63.85,-60.36,-28.45,-27.03,-43.27,8.329,0,0,0,0,0,0,0,0,0,0,0,0,0,0,0,0,
277,-56.31,-19.69,-61.08,-20.8,-42.32,-49.79,-32.47,-4.796,-31.64,5.694,-48.73,-45.14,-26.02,-25.26,-32.19,0.9774,0,0,0,0,0,0,0,0,0,0,0,0,0,0,0,0,
278,-41.93,-18.83,-40.76,-12.63,-12.71,-32.14,-36.18,-9.704,-20.74,-11.07,-43.27,-41.11,-31.81,-31.68,-42.15,-17.32,0,0,0,0,0,0,0,0,0,0,0,0,0,0,0,0,
279,-39.37,-27.23,-37.7,-28,-26.71,-38,-40.42,-12.05,-26.49,-24.12,-41.62,-40.14,-36.65,-36.44,-49.67,-29.83,0,0,0,0,0,0,0,0,0,0,0,0,0,0,0,0,
280,-38.84,-29.25,-47.04,-34.22,-49.61,-46.7,-32.97,-2.675,-28.74,-17.88,-30.82,-26.55,-33.78,-31.88,-39.78,-26.44,0,0,0,0,0,0,0,0,0,0,0,0,0,0,0,0,
281,-29.91,-15.13,-40.01,-16.7,-23.19,-29.16,-24.3,5.567,-13.21,-5.452,-15.57,-8.428,-22.7,-21.35,-24.3,-12.5,0,0,0,0,0,0,0,0,0,0,0,0,0,0,0,0,
282,-14.26,-0.4718,-23.64,-12.86,2.918,-8.865,-25.58,1.427,5.141,-6.689,-7.905,-0.7255,-14.75,-16.49,-16.16,-9.017,0,0,0,0,0,0,0,0,0,0,0,0,0,0,0,0,
283,-3.283,3.007,-7.63,-18.6,4.758,3.324,-15.94,8.93,10.5,-9.075,-5.108,1.153,-12.66,-14.39,-10.58,-13.19,0,0,0,0,0,0,0,0,0,0,0,0,0,0,0,0,
284,3.396,15.73,16.95,1.336,10.9,21.02,9.608,25.25,9.196,0.8728,-1.77,4.035,-5.732,-6.83,-4.616,-7.335,0,0,0,0,0,0,0,0,0,0,0,0,0,0,0,0,
285,13.39,34.47,38.98,27.15,19.67,37.4,19.27,21.18,8.974,-0.5543,-7.293,-1.077,-2.157,-5.618,-11.12,-4.753,0,0,0,0,0,0,0,0,0,0,0,0,0,0,0,0,
286,16.59,34.02,51.24,39.19,28.55,48.72,16.88,17.71,6.269,-14.84,-18.48,-12.52,-3.723,-6.122,-21.95,-10.2,0,0,0,0,0,0,0,0,0,0,0,0,0,0,0,0,
287,9.847,31.72,47.41,42.03,20.06,43.72,18.73,22.16,2.718,-16.07,-13.83,-10.11,7.042,8.595,-13.89,-4.373,0,0,0,0,0,0,0,0,0,0,0,0,0,0,0,0,
288,11.01,37.73,28.76,28.41,9.836,27.73,10.06,8.354,10.19,-10.94,-2.533,1.529,15.27,15.77,-5.449,-1.054,0,0,0,0,0,0,0,0,0,0,0,0,0,0,0,0,
289,17.26,28.47,25.28,7.619,27.45,27.06,-3.417,-4.346,15.12,-7.965,-7.848,-1.012,7.53,5.984,-18.43,-10.4,0,0,0,0,0,0,0,0,0,0,0,0,0,0,0,0,
290,10.21,17.27,10.79,-16.36,-5.829,6.169,-13.42,-7.535,-8.457,0.7818,-16.61,-11.18,5.796,6.306,-30.54,-12.08,0,0,0,0,0,0,0,0,0,0,0,0,0,0,0,0,
291,-4.219,17.79,-33.24,-37.32,-67.15,-30.58,-27.7,-14.77,-27.52,3.731,-23.01,-19.84,-1.78,-0.5611,-40.32,-25.74,0,0,0,0,0,0,0,0,0,0,0,0,0,0,0,0,
292,-13.75,2.675,-23.57,-16.91,-10.83,-1.883,-28.25,-5.637,-2.601,-3.484,-41.09,-36.68,-29.98,-30.29,-61.85,-59.99,0,0,0,0,0,0,0,0,0,0,0,0,0,0,0,0,
293,-17.52,-17.35,32.51,20.2,75.47,46.86,-14.86,7.476,22.46,-2.892,-51.83,-47.4,-38.18,-38.37,-66.41,-63.73,0,0,0,0,0,0,0,0,0,0,0,0,0,0,0,0,
294,-20.51,-14.3,33.16,14.66,53.31,27.18,-19.12,-3.745,3.858,1.84,-48.8,-44.6,-25.67,-25.68,-51.06,-48.26,0,0,0,0,0,0,0,0,0,0,0,0,0,0,0,0,
295,-38.1,-17.17,-0.8224,-7.682,9.733,-8.655,-37.2,-18.47,-24.22,-5.507,-54.75,-49.06,-32,-31.59,-47.38,-59.79,0,0,0,0,0,0,0,0,0,0,0,0,0,0,0,0,
296,-60.88,-35.29,-11.34,-12.3,-1.736,-12.3,-44.18,-26.8,-27.19,-12.17,-54.43,-50.27,-35.45,-33.38,-43.51,-62.95,0,0,0,0,0,0,0,0,0,0,0,0,0,0,0,0,
297,-58.33,-32.57,-15.81,-18.96,-15.56,-13.65,-38.64,-30.96,-26.13,-5.198,-42.98,-39.93,-19.54,-19.06,-37.39,-47.03,0,0,0,0,0,0,0,0,0,0,0,0,0,0,0,0,
298,-45.74,-16.84,-20.08,-32.53,-8.42,-16.09,-29.83,-21.14,-29.85,-1.686,-44.5,-38.09,-17.05,-19.54,-50.25,-54.53,0,0,0,0,0,0,0,0,0,0,0,0,0,0,0,0,
299,-39.82,-9.488,-14.16,-28.23,17.5,-3.267,-21.51,-13.56,-8.103,-10.16,-40.98,-33.51,-23.22,-24.1,-58.32,-63.82,0,0,0,0,0,0,0,0,0,0,0,0,0,0,0,0,
300,-20.24,1.627,-6.21,-2.207,25.85,11.26,-14.74,-16.75,18.9,-19.96,-28.66,-22.61,-20.58,-19.84,-53.77,-52.5,0,0,0,0,0,0,0,0,0,0,0,0,0,0,0,0,
301,-2.103,11.69,-0.2987,12.73,18.4,11.3,-9.904,-12.25,11.23,-27.71,-30.66,-23.2,-21.61,-22.2,-58.13,-47.29,0,0,0,0,0,0,0,0,0,0,0,0,0,0,0,0,
302,0.9678,13.5,9.291,10.55,18.98,16.46,-4.334,-6.018,12.04,-34.15,-22.49,-14.58,-20.59,-20.85,-52.72,-43.81,0,0,0,0,0,0,0,0,0,0,0,0,0,0,0,0,
303,16.8,16.58,25.79,16.78,37.38,37.53,-1.806,-14.04,41.87,-43.49,-0.9373,4.506,-16.26,-16.3,-33.83,-36.52,0,0,0,0,0,0,0,0,0,0,0,0,0,0,0,0,
304,28.67,5.996,29.97,10.84,44.19,39.03,-15.84,-31.74,46.32,-59.47,0.3949,5.238,-30.59,-31.53,-27.53,-46.25,0,0,0,0,0,0,0,0,0,0,0,0,0,0,0,0,
305,10.15,-25.77,7.688,-21.68,29.23,16.13,-46.54,-56.43,31.2,-73.04,-2.845,2.247,-49.35,-47.62,-24.39,-60.47,0,0,0,0,0,0,0,0,0,0,0,0,0,0,0,0,
306,-5.234,-48.02,-9.994,-37.5,28.28,8.28,-66.36,-74.94,30.8,-72.35,1.458,4.713,-41.55,-37.68,-20.56,-58.31,0,0,0,0,0,0,0,0,0,0,0,0,0,0,0,0,
307,-1.672,-40.45,1.884,-25.14,35.85,19.04,-48.78,-55.71,25.46,-49.62,-11.86,-9.411,-21.61,-20.78,-40.19,-55.77,0,0,0,0,0,0,0,0,0,0,0,0,0,0,0,0,
308,-0.6291,-16.39,19.08,-6.63,25.01,24.3,-14.57,-14.43,10.66,-15.48,-38.66,-35.19,-19.97,-21.19,-76.93,-69.06,0,0,0,0,0,0,0,0,0,0,0,0,0,0,0,0,
309,-7.095,-1.735,16.17,11.52,11.89,17.07,-3.545,1.142,-1.51,4.732,-60.77,-58.29,-32.63,-33.07,-104.8,-85.64,0,0,0,0,0,0,0,0,0,0,0,0,0,0,0,0,
310,-22.49,-5.422,3.145,12.41,9.4,7.086,-8.87,-0.3693,-14.94,10.61,-79.08,-78.22,-41.48,-42.45,-120.2,-91.91,0,0,0,0,0,0,0,0,0,0,0,0,0,0,0,0,
311,-45.38,-15.08,-1.891,-5.862,9.418,6.254,-13.93,0.9021,-15.92,10.3,-86.23,-84.15,-45.82,-46.58,-122.7,-92.72,0,0,0,0,0,0,0,0,0,0,0,0,0,0,0,0,
312,-55.22,-23.19,-1.391,-15.73,6.306,8.553,-27.14,-10.26,-2.7,0.3271,-67.97,-64.68,-43.43,-41.43,-98.39,-81.17,0,0,0,0,0,0,0,0,0,0,0,0,0,0,0,0,
313,-45.95,-26.7,-4.271,-16.96,-1.641,3.966,-37.46,-22.59,-3.607,-7.173,-38.92,-35.89,-27.28,-24.01,-55.04,-44.95,0,0,0,0,0,0,0,0,0,0,0,0,0,0,0,0,
314,-37.98,-24.36,-7.611,-21.69,0.081,1.985,-36.9,-23.2,-14.41,-8.043,-30.23,-26.65,-13.23,-11.46,-26.87,-14.29,0,0,0,0,0,0,0,0,0,0,0,0,0,0,0,0,
315,-42.04,-28.45,-10.04,-26.4,13.16,3.331,-46.33,-33.72,-9.175,-17.28,-37.28,-33.89,-17.13,-16.79,-21.47,-19.22,0,0,0,0,0,0,0,0,0,0,0,0,0,0,0,0,
316,-50.07,-41.62,-17.51,-38.73,9.202,-5.889,-59,-46.23,-0.2707,-26.31,-36.46,-34.58,-23.64,-23.06,-21.32,-32.07,0,0,0,0,0,0,0,0,0,0,0,0,0,0,0,0,
317,-54.82,-45.69,-20.71,-46.45,-3.67,-14.27,-48.92,-35.74,-7.496,-21.85,-35.28,-33.97,-17.58,-16.17,-31.1,-29.52,0,0,0,0,0,0,0,0,0,0,0,0,0,0,0,0,
318,-54.7,-33.16,-5.304,-16.13,4.774,-2.348,-25.44,-16.19,-15.56,-15.79,-46.57,-46.11,-9.32,-8.018,-59.78,-33.81,0,0,0,0,0,0,0,0,0,0,0,0,0,0,0,0,
319,-50.66,-15.42,17.2,27.5,20.35,19.12,-7.758,-2.887,-8.535,-13.92,-61.08,-61.44,-10.78,-10.22,-88.62,-52.72,0,0,0,0,0,0,0,0,0,0,0,0,0,0,0,0,
320,-42.6,-3.543,31.65,38.41,27.55,31.93,3.764,7.918,2.075,-11.44,-70.67,-69.49,-21.49,-21.45,-101.5,-69.66,0,0,0,0,0,0,0,0,0,0,0,0,0,0,0,0,
321,-33.72,-4.293,35.85,27.26,29.93,30.74,3.312,5.721,1.302,-16.74,-72.13,-69.66,-37.44,-37.8,-101.8,-81.18,0,0,0,0,0,0,0,0,0,0,0,0,0,0,0,0,
322,-31.67,-14.67,30.77,19.3,28.75,28.1,-6.15,-7.496,0.9793,-27.3,-58.46,-56.15,-45.9,-46.09,-84.15,-77.38,0,0,0,0,0,0,0,0,0,0,0,0,0,0,0,0,
323,-27.54,-15.68,31.8,18.65,36.77,40.68,-1.54,-4.525,17.4,-24.11,-35.1,-31.79,-38.4,-37.61,-50.59,-51.95,0,0,0,0,0,0,0,0,0,0,0,0,0,0,0,0,
324,-14.33,-7.323,36.24,10.74,38.5,42.03,0.2362,-3.08,25.88,-17.53,-21.82,-17.85,-31.34,-29.87,-33.03,-35.65,0,0,0,0,0,0,0,0,0,0,0,0,0,0,0,0,
325,-13.25,-14.28,18.66,-17.38,11.08,13.55,-29.49,-30.93,7.821,-22.54,-22.3,-19.53,-31.77,-30.9,-35.88,-39.7,0,0,0,0,0,0,0,0,0,0,0,0,0,0,0,0,
326,-23.46,-29.93,-1.008,-34.22,-4.983,1.105,-53.36,-45.67,-3.151,-22.34,-25.38,-22.04,-27.22,-27.73,-35.61,-37.53,0,0,0,0,0,0,0,0,0,0,0,0,0,0,0,0,
327,-18.79,-31.13,3.213,-19.28,9.944,17.1,-43.24,-26.36,5.072,-15.66,-30.3,-24.36,-20.43,-20.98,-40.87,-27.55,0,0,0,0,0,0,0,0,0,0,0,0,0,0,0,0,
328,-8.366,-25.12,10.16,-4.675,17.44,21.99,-27.63,-12.62,3.088,-14.26,-38.4,-32.93,-18.41,-17.52,-59.33,-27.41,0,0,0,0,0,0,0,0,0,0,0,0,0,0,0,0,
329,-12.77,-23.47,10.85,-0.6923,9.614,14.29,-19,-11,-10.4,-13.33,-50.5,-48.23,-24.84,-23.79,-73.57,-43.05,0,0,0,0,0,0,0,0,0,0,0,0,0,0,0,0,
330,-22.35,-26.06,15.55,3.195,6.835,15.72,-14.22,-11.59,-12.82,-14.34,-65.27,-63.2,-39.99,-39.19,-83.47,-65.38,0,0,0,0,0,0,0,0,0,0,0,0,0,0,0,0,
331,-23.03,-27.75,23.46,5.667,14.35,27.15,-14.78,-16.05,-6.402,-13.98,-70.9,-66.11,-44.64,-42.34,-100.3,-79.17,0,0,0,0,0,0,0,0,0,0,0,0,0,0,0,0,
332,-20.82,-22.75,27.61,12.91,13.5,29.7,-14.69,-14.15,-9.216,-8.941,-70.17,-64.23,-35.04,-32.67,-119.5,-88.66,0,0,0,0,0,0,0,0,0,0,0,0,0,0,0,0,
333,-19.76,-12.72,25.73,19.09,2.706,22.96,-9.564,-9.954,-10.14,-7.804,-64.56,-59.4,-22.19,-21.93,-115.9,-87.99,0,0,0,0,0,0,0,0,0,0,0,0,0,0,0,0,
334,-2.268,11.84,35.21,17.38,19.79,36.84,8.924,-2.423,9.322,2.562,-40.6,-36.27,0.3897,0.1808,-79.62,-61.94,0,0,0,0,0,0,0,0,0,0,0,0,0,0,0,0,
335,24.62,45.7,52.39,22.38,48.34,56.24,33.02,19.49,31.61,20.9,-15.76,-11.44,18.41,18.72,-43.09,-41.67,0,0,0,0,0,0,0,0,0,0,0,0,0,0,0,0,
336,31.48,55.52,52.81,36.15,46.13,54.52,38.82,31.43,48.63,18.97,-2.906,1.675,14.7,14.25,-19.71,-40.11,0,0,0,0,0,0,0,0,0,0,0,0,0,0,0,0,
337,32.65,49.02,50.14,45.44,36.8,53.3,33.02,20.16,55.73,1.578,6.699,10.14,1.081,0.0476,-4.118,-32.08,0,0,0,0,0,0,0,0,0,0,0,0,0,0,0,0,
338,32.18,41.88,41.21,35.1,18.05,37.59,22.24,4.53,20.63,-20.17,-13.88,-12.48,-26.33,-26.4,-23.08,-40.63,0,0,0,0,0,0,0,0,0,0,0,0,0,0,0,0,
339,-1.848,14.81,9.329,7.335,-19.01,0.1832,-0.7571,-14.61,-32.12,-47.1,-63.52,-62.67,-55.43,-54.35,-66.32,-72.78,0,0,0,0,0,0,0,0,0,0,0,0,0,0,0,0,
340,-42.71,-10.82,-4.182,-8.212,-22.82,-3.987,-16.76,-35.24,-48.69,-62.84,-87.75,-85.51,-51.31,-50.7,-82.86,-80.35,0,0,0,0,0,0,0,0,0,0,0,0,0,0,0,0,
341,-46.78,-8.438,12.23,-7.388,-1.953,16.69,-15.38,-42.27,-40.75,-60.33,-76.51,-73.17,-34,-34.33,-72.51,-65.47,0,0,0,0,0,0,0,0,0,0,0,0,0,0,0,0,
342,-28.14,-5.965,22.54,-11.89,4.964,23.47,-15.86,-45.47,-25.1,-50.21,-57.5,-54.88,-34.46,-34.72,-63.79,-64.37,0,0,0,0,0,0,0,0,0,0,0,0,0,0,0,0,
343,-10.05,-17.22,23.72,-30.09,14.3,26.96,-33.71,-64.69,-7.365,-45.36,-49.85,-47.5,-38.96,-39.23,-68.69,-73.04,0,0,0,0,0,0,0,0,0,0,0,0,0,0,0,0,
344,-6.515,-30.04,11.77,-60.45,18.23,21.47,-60.19,-83.32,-2.394,-44.16,-53.6,-50.53,-33.05,-33.4,-77.65,-70.45,0,0,0,0,0,0,0,0,0,0,0,0,0,0,0,0,
345,-11.68,-32.23,-6.208,-71.49,9.136,11.68,-62.06,-70.47,4.753,-25.01,-48.27,-45.78,-18.36,-19.23,-71.23,-55.72,0,0,0,0,0,0,0,0,0,0,0,0,0,0,0,0,
346,-0.0329,-15.05,4.854,-36.4,9.315,23.39,-33.01,-36.1,15.42,1.313,-40.62,-37.11,-9.174,-11.73,-62.77,-49.4,0,0,0,0,0,0,0,0,0,0,0,0,0,0,0,0,
347,17.56,2.641,33.3,8.361,12.01,40.48,-2.248,-3.926,11.31,8.68,-44.31,-37.68,-14.15,-16.49,-65.5,-57,0,0,0,0,0,0,0,0,0,0,0,0,0,0,0,0,
348,17.63,4.257,45.71,24.2,10.68,43.85,16.26,16.41,3.115,9.488,-43.59,-38.08,-21.66,-21.86,-62.67,-66.18,0,0,0,0,0,0,0,0,0,0,0,0,0,0,0,0,
349,0.8508,-4.481,35.66,12.7,2.711,29.53,14.28,10.73,-7.368,8.855,-46.8,-45.07,-33.5,-33.8,-63.19,-83.31,0,0,0,0,0,0,0,0,0,0,0,0,0,0,0,0,
350,-28.85,-21.22,8.258,-7.819,-17.95,-0.3322,-2.416,-2.229,-20.42,0.6482,-58.67,-57.95,-50.48,-51.33,-74.25,-104.7,0,0,0,0,0,0,0,0,0,0,0,0,0,0,0,0,
351,-47.18,-29.44,-12.68,-13.18,-29.57,-18.3,-5.001,7.906,-20.11,-2.145,-53.49,-52.9,-48.13,-47.2,-68.27,-102.9,0,0,0,0,0,0,0,0,0,0,0,0,0,0,0,0,
352,-34.3,-14.1,-13.09,-6.975,-34.45,-17.97,0.8535,11.87,-15.12,1.538,-44.28,-42.79,-20.42,-17.77,-48.2,-74.75,0,0,0,0,0,0,0,0,0,0,0,0,0,0,0,0,
353,-16.61,7.173,-6.446,-7.555,-43.41,-13.25,-3.374,-6.891,-10.68,8.229,-47.77,-43.44,14.47,17.17,-39.02,-40.23,0,0,0,0,0,0,0,0,0,0,0,0,0,0,0,0,
354,-10.53,20.36,6.01,-6.388,-23.01,5.489,-5.602,-13.71,4.34,19.97,-41.97,-37.54,41.18,42.49,-33.28,-14.21,0,0,0,0,0,0,0,0,0,0,0,0,0,0,0,0,
355,-5.256,26.62,19.76,-2.767,9.574,25.4,-2.45,-4.2,19.78,26.67,-28.09,-25.23,49.85,48.95,-19.7,-3.179,0,0,0,0,0,0,0,0,0,0,0,0,0,0,0,0,
356,-3.692,27.47,15.61,-8.37,2.282,18.71,0.7952,3.754,28.02,25.77,-19.96,-15.89,44.24,42.12,-9.326,-6.128,0,0,0,0,0,0,0,0,0,0,0,0,0,0,0,0,
357,-2.993,28.39,6.866,-9.138,-3.184,12.08,7.958,6.643,38.62,21.43,-8.264,-3.613,34.44,32.58,-7.046,-20.9,0,0,0,0,0,0,0,0,0,0,0,0,0,0,0,0,
358,11.55,28.52,19.24,3.068,28.1,31.4,11.75,-0.7636,49.76,12.58,5.858,8.781,25.78,24.71,-2.58,-38,0,0,0,0,0,0,0,0,0,0,0,0,0,0,0,0,
359,31.19,25.19,36.58,9.666,36.64,45.25,9.356,-10.62,52.87,8.396,11.13,13.67,26.41,26.25,0.527,-42.8,0,0,0,0,0,0,0,0,0,0,0,0,0,0,0,0,
360,38.18,28.43,39.67,9.8,22.1,42.01,15.2,-6.891,53.43,16.75,9.201,11.64,37.31,37.33,-10.25,-37.83,0,0,0,0,0,0,0,0,0,0,0,0,0,0,0,0,
361,34.72,43.08,38.86,11.09,30.66,41.96,26.03,-1.113,55.77,27.42,4.557,5.77,46.67,45.45,-22.96,-32.88,0,0,0,0,0,0,0,0,0,0,0,0,0,0,0,0,
362,28.41,55.86,31.52,-1.053,22.02,33.25,23.97,-5.438,50.07,29.83,-0.5316,0.6855,44.71,42.54,-22.82,-29.37,0,0,0,0,0,0,0,0,0,0,0,0,0,0,0,0,
363,22.36,55.85,18.01,-13.73,-4.317,20.72,17.42,-5.031,41.02,28.4,-3.199,-1.001,32.2,31.03,-16.93,-28.56,0,0,0,0,0,0,0,0,0,0,0,0,0,0,0,0,
364,22.81,52.27,20.73,-0.5412,15.76,34.21,19.75,-0.7837,38.06,27.61,-2.738,-0.048,21.27,20.99,-9.648,-30.78,0,0,0,0,0,0,0,0,0,0,0,0,0,0,0,0,
365,26.23,52.04,30.03,13.19,44.09,50.76,20.45,-0.9817,28.72,25.09,-4.74,-2.332,17.49,16.21,-6.241,-37.8,0,0,0,0,0,0,0,0,0,0,0,0,0,0,0,0,
366,18.49,43.93,34.77,17.97,43.73,53.83,21.44,13.48,24.45,27.65,-10.65,-9.008,17.04,15.76,-7.347,-41.11,0,0,0,0,0,0,0,0,0,0,0,0,0,0,0,0,
367,11.23,37.39,49.98,26.68,55.36,66.4,28.45,20.04,51.63,39.39,4.029,6.603,37.4,38.02,18.26,-12.38,0,0,0,0,0,0,0,0,0,0,0,0,0,0,0,0,
368,29.01,56.52,48.6,3.995,55.22,66.7,23.96,-16.4,76.69,47.3,40.24,44.02,75.18,75.76,56.64,23.54,0,0,0,0,0,0,0,0,0,0,0,0,0,0,0,0,
369,39.88,71.23,15.57,-26.56,22.72,36.81,14.5,-27.26,53.23,41.9,33.37,34.9,67.43,66.15,31.04,-7.572,0,0,0,0,0,0,0,0,0,0,0,0,0,0,0,0,
370,-0.6737,41.15,8.317,16.17,8.958,21.08,25.43,32.14,12.27,28.86,-23.02,-23.58,10.04,8.343,-36.82,-75.91,0,0,0,0,0,0,0,0,0,0,0,0,0,0,0,0,
371,-42.54,7.744,43.37,85.22,20.8,40.83,45.11,76.89,7.962,20.29,-43.37,-41.82,-14.04,-16.24,-52.37,-86.09,0,0,0,0,0,0,0,0,0,0,0,0,0,0,0,0,
372,-28.42,14.74,68.41,89.99,34.89,63.14,51.54,65.37,22.69,14.55,-22.83,-18.86,6.449,2.743,-31.43,-53.59,0,0,0,0,0,0,0,0,0,0,0,0,0,0,0,0,
373,-5.556,28.12,61.01,66.07,36.26,57.5,47.68,47,16.63,4.017,-15.36,-11.78,22.11,19.49,-20.72,-29.91,0,0,0,0,0,0,0,0,0,0,0,0,0,0,0,0,
374,-7.658,26.56,40.35,66.85,13.21,33.95,42,40.9,9.55,5.027,-0.2689,2.029,39.29,39.16,2.925,-1.39,0,0,0,0,0,0,0,0,0,0,0,0,0,0,0,0,
375,2.135,30.84,29.06,71.95,3.289,27.37,37.11,40.05,22.72,20.86,26.11,28.34,61.1,60.62,23.63,20.93,0,0,0,0,0,0,0,0,0,0,0,0,0,0,0,0,
376,18.01,37.33,34.04,66.7,23.56,38.89,35.52,43.45,31.3,24.18,19.31,22.31,57.07,55.5,7.201,7.881,0,0,0,0,0,0,0,0,0,0,0,0,0,0,0,0,
377,5.909,36.6,38.04,61.27,28.37,40.45,35.13,37.38,26.7,17.1,-1.137,1.613,37.05,36.34,-9.005,-13.45,0,0,0,0,0,0,0,0,0,0,0,0,0,0,0,0,
378,-15.93,39.48,32.15,52.85,16.58,34.37,32.65,21.18,29.48,20.59,2.851,3.751,29.93,29.81,1.527,-13.32,0,0,0,0,0,0,0,0,0,0,0,0,0,0,0,0,
379,-17.65,48.25,30.73,48.53,14.05,37.69,34.31,18.33,38.87,28.54,13.44,13.2,32.03,31.25,11.59,-6,0,0,0,0,0,0,0,0,0,0,0,0,0,0,0,0,
380,-7.328,50.5,31.26,56.93,12.78,41.71,35.01,28.24,36.37,29.22,10.21,11.47,26.91,26.61,6.683,-10.93,0,0,0,0,0,0,0,0,0,0,0,0,0,0,0,0,
381,-6.933,36.14,19.83,47.29,16.08,35.01,17.83,25.85,25.43,25.61,0.8429,2.933,16.24,18.13,-4.549,-20.45,0,0,0,0,0,0,0,0,0,0,0,0,0,0,0,0,
382,-19.48,13.53,3.114,10.7,17.49,18.24,-4.469,13.55,18.5,25.38,-7.942,-7.665,13.39,16,-16.24,-20.45,0,0,0,0,0,0,0,0,0,0,0,0,0,0,0,0,
383,-35.93,-0.4414,-12.37,-4.51,-6.152,-3.969,-11.12,7.683,7.666,27.23,-17.79,-16.8,18.31,19.51,-22.91,-14.13,0,0,0,0,0,0,0,0,0,0,0,0,0,0,0,0,
384,-46.81,-1.303,-22.06,8.76,-27.8,-15.06,-11.37,4.174,-5.898,23.96,-24.29,-20.49,24.9,26.25,-22.91,-7.511,0,0,0,0,0,0,0,0,0,0,0,0,0,0,0,0,
385,-44.78,4.421,-19.4,5.617,-25.12,-11.78,-16.58,-2.119,-11.74,15.87,-27.48,-24.77,30.57,33.22,-28.79,-6.085,0,0,0,0,0,0,0,0,0,0,0,0,0,0,0,0,
386,-40.84,2.205,-17.85,-10.47,-20.31,-9.637,-23.07,-9.594,-14.76,9.423,-33.07,-31.69,31.28,33.43,-38.49,-8.42,0,0,0,0,0,0,0,0,0,0,0,0,0,0,0,0,
387,-43.01,-5.771,-15.83,-1.447,-9.312,0.2146,-17.73,-7.864,-7.304,13.27,-33.15,-29.95,32.91,34.14,-35.49,-1.426,0,0,0,0,0,0,0,0,0,0,0,0,0,0,0,0,
388,-39.12,1.475,2.201,23.84,2.837,17.02,3.547,15.65,5.912,20.56,-28.96,-25.69,33.98,34.4,-33.44,1.739,0,0,0,0,0,0,0,0,0,0,0,0,0,0,0,0,
389,-29.79,14.68,17.82,36.25,-8.655,18.45,19.22,37.61,1.199,12.23,-27.07,-25.29,20.8,20.14,-36.21,-13.06,0,0,0,0,0,0,0,0,0,0,0,0,0,0,0,0,
390,-16.85,15.25,24,37.16,-8.439,21.1,19.19,30.39,1.24,-2.712,-15.16,-13.65,1.89,1.748,-22.02,-27.48,0,0,0,0,0,0,0,0,0,0,0,0,0,0,0,0,
391,-0.345,10.61,30.47,30.85,18.05,31.22,15.79,13.39,14.02,-10.63,-7.866,-6.824,-14.26,-13.98,-18.99,-47.92,0,0,0,0,0,0,0,0,0,0,0,0,0,0,0,0,
392,-3.07,1.413,22.33,24.28,16.12,20.66,12.76,9.368,-0.3955,-19.98,-31.4,-30.59,-34.69,-35.94,-54.59,-82.96,0,0,0,0,0,0,0,0,0,0,0,0,0,0,0,0,
393,-25.91,-13.24,5.242,31.62,-18.65,-0.9571,9.644,9.653,-26.18,-24.68,-61.94,-60.71,-49.09,-50.28,-84.96,-97.64,0,0,0,0,0,0,0,0,0,0,0,0,0,0,0,0,
394,-47.15,-24.18,-6.618,29.9,-42.67,-17.99,3.083,4.715,-28.27,-17.12,-70.34,-69.86,-44.58,-43.25,-78.65,-83.62,0,0,0,0,0,0,0,0,0,0,0,0,0,0,0,0,
395,-62.28,-29.19,-22.93,6.212,-44.96,-32.97,-9.842,-1.2,-27.47,-9.799,-61.71,-62.7,-27.03,-24.38,-56.71,-67.5,0,0,0,0,0,0,0,0,0,0,0,0,0,0,0,0,
396,-63.1,-26.05,-33.97,-8.091,-46.96,-35.1,-22.04,-7.137,-35.24,-8.313,-50.83,-51.86,-8.547,-6.292,-41.05,-53.24,0,0,0,0,0,0,0,0,0,0,0,0,0,0,0,0,
397,-49.75,-21.14,-32.57,-14.29,-57.38,-29.16,-31.54,-14.32,-34.17,-8.758,-43.17,-42.37,5.9,8.106,-30.21,-31.04,0,0,0,0,0,0,0,0,0,0,0,0,0,0,0,0,
398,-37.85,-23.41,-32.22,-21.18,-47.12,-25.23,-34.34,-12.89,-26.77,-5.545,-34.6,-32.3,21.93,24.12,-17.38,-3.664,0,0,0,0,0,0,0,0,0,0,0,0,0,0,0,0,
399,-30.02,-23.17,-32.52,-14.18,-25.69,-23.11,-24.64,-1.564,-30.02,3.01,-33.4,-31.54,33.07,34.71,-17.56,8.848,0,0,0,0,0,0,0,0,0,0,0,0,0,0,0,0,
400,-32.61,-17.68,-35.56,-14.27,-39.01,-32.55,-13.22,7.004,-39.24,9.714,-43.93,-43.23,26.62,28.37,-33.4,-0.517,0,0,0,0,0,0,0,0,0,0,0,0,0,0,0,0,
401,-45.1,-15.53,-45.02,-28.24,-61.11,-45.14,-11,8.431,-42.22,10.08,-49.42,-49.19,13.26,15.53,-38,-9.031,0,0,0,0,0,0,0,0,0,0,0,0,0,0,0,0,
402,-50.67,-15.36,-49.92,-22.08,-56.64,-44.03,-14.85,5.402,-46.41,5.724,-47.09,-46.17,8.055,10.49,-30.79,-8.63,0,0,0,0,0,0,0,0,0,0,0,0,0,0,0,0,
403,-46.08,-7.963,-40.34,2.126,-39.7,-31.07,-8.173,10.14,-40.78,4.886,-35.12,-33.56,12.59,15.48,-24.26,-8.662,0,0,0,0,0,0,0,0,0,0,0,0,0,0,0,0,
404,-30.43,7.801,-16.24,20.85,-16.24,-10.2,12.39,25.69,-11.64,7.284,-13.53,-12.43,16.35,18.97,-16.53,-9.928,0,0,0,0,0,0,0,0,0,0,0,0,0,0,0,0,
405,-10.95,11.61,3.748,26.34,-3.572,6.035,19.62,27.39,4.514,-0.1047,-12.35,-11.09,6.911,8.101,-20.01,-18.56,0,0,0,0,0,0,0,0,0,0,0,0,0,0,0,0,
406,-4.213,0.8142,5.798,19.03,-11.28,7.676,12.96,15.88,-7.83,-6.744,-29.08,-28.14,-3.823,-3.022,-34.24,-33.34,0,0,0,0,0,0,0,0,0,0,0,0,0,0,0,0,
407,-3.392,0.2342,-0.5998,11.28,-15.32,0.1271,12.93,13.6,-15.83,-2.857,-30.05,-31.47,-5.818,-4.397,-35.47,-36.48,0,0,0,0,0,0,0,0,0,0,0,0,0,0,0,0,
408,-5.434,1.867,-10.67,11.37,-17.23,-10.64,6.322,11.11,-12.4,-7.135,-24.23,-25.14,-9.727,-8.237,-27.01,-26.61,0,0,0,0,0,0,0,0,0,0,0,0,0,0,0,0,
409,-12.19,-5.604,-18.03,13.21,-24.89,-13.66,-5.159,2.811,-7.821,-14.34,-23.81,-21.37,-8.342,-7.346,-24.24,-17.18,0,0,0,0,0,0,0,0,0,0,0,0,0,0,0,0,
410,-6.2,0.349,-13.45,10.15,-26.59,-7.05,4.331,6.851,-2.246,-5.069,-17.11,-14.51,4.945,5.148,-20.46,-11.2,0,0,0,0,0,0,0,0,0,0,0,0,0,0,0,0,
411,6.931,18.87,-0.6946,11.85,-10.92,5.562,26.43,26.14,2.791,11.08,-11.78,-10.18,14.36,13.91,-15.9,-6.761,0,0,0,0,0,0,0,0,0,0,0,0,0,0,0,0,
412,8.124,32.28,16.22,32.79,13.41,22.81,40.96,43.55,3.779,21.8,-19.72,-16.82,18.37,17.93,-27.62,-7.437,0,0,0,0,0,0,0,0,0,0,0,0,0,0,0,0,
413,3.74,41.47,24.3,49.32,3.002,22.76,44.85,42.4,-3.563,26.78,-29.86,-26.62,24.98,25.61,-46.17,-9.798,0,0,0,0,0,0,0,0,0,0,0,0,0,0,0,0,
414,-0.0883,44.34,16.79,36.31,-24.06,9.55,36.31,24.06,-10.43,27.33,-29.98,-28.38,30.83,32.7,-42.76,-3.904,0,0,0,0,0,0,0,0,0,0,0,0,0,0,0,0,
415,-5.418,35.53,8.159,13.21,-6.899,8.839,13.33,-1.1,-11.8,21.56,-29.67,-29.62,30.3,31.22,-29.72,0.2957,0,0,0,0,0,0,0,0,0,0,0,0,0,0,0,0,
416,-12.99,17.58,-2.119,-4.506,6.4,3.69,-8.074,-16.95,-19.66,9.692,-38.08,-39.13,20.43,19.73,-36.67,-13.78,0,0,0,0,0,0,0,0,0,0,0,0,0,0,0,0,
417,-18.83,3.312,-4.438,-4.194,-15.62,0.6531,-0.7695,-1.421,-19.03,4.337,-40.52,-41.7,7.984,7.81,-49.18,-33.13,0,0,0,0,0,0,0,0,0,0,0,0,0,0,0,0,
418,-11.84,5.378,20.03,24.57,-7.303,24.18,19.62,23.7,1.857,5.582,-33.06,-33.31,1.998,2.874,-45.19,-37.47,0,0,0,0,0,0,0,0,0,0,0,0,0,0,0,0,
419,-2.108,8.776,35.42,34.09,13.49,33.12,12.08,16,7.828,-1.025,-31.24,-31.91,-1.648,-0.4672,-38.8,-33.71,0,0,0,0,0,0,0,0,0,0,0,0,0,0,0,0,
420,-10.8,-3.729,15.69,0.8552,3.63,14.63,-8.236,-3.312,-10.39,-9.173,-33.51,-36.38,-6.904,-6.218,-44.43,-34.99,0,0,0,0,0,0,0,0,0,0,0,0,0,0,0,0,
421,-23.06,-16.91,3.175,-7.574,0.5955,14.04,-3.909,4.107,-17.91,-8.256,-31.81,-35.17,-9.425,-10.61,-51.21,-37.16,0,0,0,0,0,0,0,0,0,0,0,0,0,0,0,0,
422,-19.13,-17.89,15.43,27.92,0.9181,21.35,10.14,20.46,-10.86,-6.267,-32.54,-34.28,-9.101,-10.93,-53.62,-38.44,0,0,0,0,0,0,0,0,0,0,0,0,0,0,0,0,
423,-18.54,-17.88,18.47,41.67,-14,9.159,3.712,15.34,-11.79,-9.879,-40.73,-41.64,-9.193,-9.852,-59.41,-43.98,0,0,0,0,0,0,0,0,0,0,0,0,0,0,0,0,
424,-30.76,-21,6.117,23.93,-12.51,-1.3,-11.79,-2.708,-15.11,-14.03,-46.35,-46.51,-7.439,-8.356,-59.76,-44.76,0,0,0,0,0,0,0,0,0,0,0,0,0,0,0,0,
425,-29.45,-19.65,-3.257,8.946,-8.323,-5.543,-14.81,-12.93,-8.256,-15.49,-40.01,-39.28,-2.268,-3.476,-48,-36.39,0,0,0,0,0,0,0,0,0,0,0,0,0,0,0,0,
426,-20.21,-18.1,-13.92,-10.91,-25.98,-19.76,-15.26,-18.04,-6.092,-18.39,-33.81,-34.05,4.761,5.03,-38.37,-25.55,0,0,0,0,0,0,0,0,0,0,0,0,0,0,0,0,
427,-32.64,-17.22,-23.89,-26.49,-29.73,-27.68,-18.55,-23.38,-14.31,-20.07,-35.81,-36.73,14.44,14.8,-28.25,-8.362,0,0,0,0,0,0,0,0,0,0,0,0,0,0,0,0,
428,-48.61,-8.006,-21.78,-15.12,-14.73,-20.16,-16.47,-28.32,-16.91,-18.47,-35.84,-35.5,18.11,17.05,-16.9,0.9942,0,0,0,0,0,0,0,0,0,0,0,0,0,0,0,0,
429,-47.19,-3.435,-20.58,-8.351,-11.59,-15.43,-19.78,-35.48,-11.57,-18.34,-35.52,-34.29,10.44,9.626,-24.88,-12.35,0,0,0,0,0,0,0,0,0,0,0,0,0,0,0,0,
430,-43.36,-9.563,-22.65,-23.76,-17.61,-16.91,-26.22,-36.23,-6.075,-9.527,-36.25,-34.78,11.11,11.29,-38.78,-17.14,0,0,0,0,0,0,0,0,0,0,0,0,0,0,0,0,
431,-40.64,-6.974,-26.4,-39.75,-31.99,-29,-25.1,-33.17,-11.72,5.374,-37.36,-36.46,16.27,16.13,-41.68,-11.41,0,0,0,0,0,0,0,0,0,0,0,0,0,0,0,0,
432,-48.19,-10.57,-45.46,-45.44,-43.69,-48.89,-33.09,-37.24,-30.93,0.4184,-53.14,-54.44,-0.573,-0.4163,-51.66,-29.46,0,0,0,0,0,0,0,0,0,0,0,0,0,0,0,0,
433,-72.97,-32.16,-55.37,-38.66,-25.02,-46.35,-45.31,-39.64,-30.86,-9.828,-58.39,-60.49,-7.443,-5.457,-47.29,-35.7,0,0,0,0,0,0,0,0,0,0,0,0,0,0,0,0,
434,-70.15,-25.78,-48.88,-52.24,-13.87,-35.82,-41.63,-50.88,1.451,3.879,-20.01,-20.55,24.77,26.6,-11.29,-1.159,0,0,0,0,0,0,0,0,0,0,0,0,0,0,0,0,
435,-33.16,6.475,-60.09,-87.64,-36.88,-44.85,-33.55,-63.25,15.69,13.89,-1.56,-2.409,29.95,29.02,-16.67,3.275,0,0,0,0,0,0,0,0,0,0,0,0,0,0,0,0,
436,-29.71,-1.424,-51.6,-54.85,-30.59,-33.81,-21.87,-24.58,-13.26,-6.651,-50.83,-53.41,-24.36,-25.43,-79.68,-44.48,0,0,0,0,0,0,0,0,0,0,0,0,0,0,0,0,
437,-55.98,-34.01,5.49,37.09,12.06,5.357,3.484,35.91,-31.3,-23.44,-81.38,-82.61,-54,-51.47,-95.49,-60.03,0,0,0,0,0,0,0,0,0,0,0,0,0,0,0,0,
438,-43.77,-24.75,36.31,66.36,17.71,17.08,19.64,41.66,-6.791,-10.97,-41.05,-39.97,-20.05,-16.54,-43.33,-19.03,0,0,0,0,0,0,0,0,0,0,0,0,0,0,0,0,
439,-10.26,3.934,13.09,30.08,-16.95,-3.25,10.23,14.17,10.6,1.676,1.78,1.818,15.82,15.72,-4.485,21.45,0,0,0,0,0,0,0,0,0,0,0,0,0,0,0,0,
440,-5.841,7.186,-5.886,6.774,-29.22,-11.6,4.012,8.169,1.482,0.4065,13.78,12.28,28.47,26.17,7.888,41.75,0,0,0,0,0,0,0,0,0,0,0,0,0,0,0,0,
441,-8.815,10.71,5.596,15.36,-2.002,6.718,24.47,22.61,3.122,3.187,14.6,13.73,36.91,35.97,9.445,44.14,0,0,0,0,0,0,0,0,0,0,0,0,0,0,0,0,
442,-1.254,27.33,30.17,39.38,18.66,26.98,46.29,36.33,5.641,7.677,-0.7745,-0.8416,35.65,35.69,-13.73,23.49,0,0,0,0,0,0,0,0,0,0,0,0,0,0,0,0,
443,0.2822,35.85,46.51,52.68,10.99,33.71,47.09,39.44,-3.553,13.04,-15.27,-14.47,29.3,29,-33.18,8.154,0,0,0,0,0,0,0,0,0,0,0,0,0,0,0,0,
444,7.272,42.73,46.67,43.87,9.48,40.33,39.17,31.17,5.672,24.83,-6.116,-4.6,27.41,26.92,-26.14,12.31,0,0,0,0,0,0,0,0,0,0,0,0,0,0,0,0,
445,18.14,40.75,32.51,28.09,10.89,33.76,22.87,12.05,12.67,21.61,-4.299,-3.626,11.78,11.44,-21.45,9.292,0,0,0,0,0,0,0,0,0,0,0,0,0,0,0,0,
446,1.618,10.02,1.378,11.23,-26.67,-9.474,-2.404,-3.462,-10.13,4.05,-18.93,-18.8,-8.577,-7.742,-16.55,7.968,0,0,0,0,0,0,0,0,0,0,0,0,0,0,0,0,
447,-24.29,-14.3,-26.82,-1.121,-65.43,-44.56,-8.884,4.338,-19.7,3.198,-15.13,-15.3,-0.9928,1.066,4.791,28.35,0,0,0,0,0,0,0,0,0,0,0,0,0,0,0,0,
448,-19.23,0.6804,-17.28,-0.8423,-38.18,-25.76,10.49,20.57,-2.911,16.99,-1.959,-4.157,17.55,18.7,10.31,34.5,0,0,0,0,0,0,0,0,0,0,0,0,0,0,0,0,
449,-1.438,24.61,8.749,3.966,3.375,1.464,27.48,25.73,-4.372,23.95,-14.64,-17.03,13.3,13.32,-16.95,8.555,0,0,0,0,0,0,0,0,0,0,0,0,0,0,0,0,
450,-3.801,31.4,7.184,15.14,-9.193,-2.908,31.53,33.25,-21.19,24.79,-33.85,-33.33,5.468,6.139,-36.93,-0.7511,0,0,0,0,0,0,0,0,0,0,0,0,0,0,0,0,
451,-8.977,35.6,1.448,36.64,-13.73,0.7685,36.52,42.95,-13.08,29.31,-24.36,-23.1,15.82,16.39,-28.3,20.44,0,0,0,0,0,0,0,0,0,0,0,0,0,0,0,0,
452,-3.93,35.9,12.34,40,10.79,13.07,33.92,28.64,1.941,27,-11.95,-12.24,13.17,12.32,-23.61,25.13,0,0,0,0,0,0,0,0,0,0,0,0,0,0,0,0,
453,-16.75,13.53,-0.9684,14.13,-16.46,-13.87,11.3,2.958,-10.82,9.533,-24.64,-24.64,-11.9,-12.36,-31.64,13.46,0,0,0,0,0,0,0,0,0,0,0,0,0,0,0,0,
454,-39.76,-9.268,-26.89,-3.879,-49.57,-39.72,-1.797,3.804,-17.31,1.013,-30.16,-28.95,-20.35,-19.8,-24.69,18.68,0,0,0,0,0,0,0,0,0,0,0,0,0,0,0,0,
455,-37.4,-8.183,-19.72,-6.6,-15.76,-19.45,2.196,9.794,-0.4535,4.028,-19.67,-18.57,-13.44,-13.67,-14.25,23.48,0,0,0,0,0,0,0,0,0,0,0,0,0,0,0,0,
456,-32.29,-6.66,-14.01,-18.94,-5.006,-12.1,-8.389,-9.777,-10.43,-3.505,-28.73,-28.22,-13.67,-13.56,-23.91,17.57,0,0,0,0,0,0,0,0,0,0,0,0,0,0,0,0,
457,-52.34,-11.39,-32.92,-28.87,-44.98,-37.62,-19.15,-20.92,-45.08,-6.636,-48.79,-48.29,-6.971,-5.496,-34.47,23.07,0,0,0,0,0,0,0,0,0,0,0,0,0,0,0,0,
458,-69.95,-7.41,-38.17,-27.16,-47.49,-44.44,-8.125,-9.45,-49.24,1.775,-47.02,-45.83,6.218,6.074,-27.8,32.5,0,0,0,0,0,0,0,0,0,0,0,0,0,0,0,0,
459,-60.55,-3.404,-28.2,-22.09,-25.68,-31.29,5.523,1.029,-25,4.587,-26.99,-24.94,12.6,10.43,-12.78,39.3,0,0,0,0,0,0,0,0,0,0,0,0,0,0,0,0,
460,-31.29,5.616,-17.5,0.8746,-23.24,-17.67,20,14.37,-7.603,10.47,-4.802,-2.602,21.66,20.18,-1.07,53.79,0,0,0,0,0,0,0,0,0,0,0,0,0,0,0,0,
461,-0.1609,27.01,2.841,28.77,-8.609,4.402,37.4,25.21,7.802,17.53,15.63,17.11,30.36,29.07,9.623,61.94,0,0,0,0,0,0,0,0,0,0,0,0,0,0,0,0,
462,21.85,37.52,23.13,32.8,14.29,26.18,40.97,24.46,32.84,10,29.65,30.21,25.81,23.66,21.49,53.15,0,0,0,0,0,0,0,0,0,0,0,0,0,0,0,0,
463,31.11,30.58,25.56,24.2,3.079,23.21,29.8,25.33,33.94,-0.3114,22.06,22.05,10,8.166,13.91,34.02,0,0,0,0,0,0,0,0,0,0,0,0,0,0,0,0,
464,14.31,18.11,12.55,9.062,-22.6,-0.5076,12.06,17.39,-3.083,-3.005,-5.891,-6.414,-8.698,-9.613,-12.98,9.644,0,0,0,0,0,0,0,0,0,0,0,0,0,0,0,0,
465,-19.08,4.558,-2.205,-5.107,-20.18,-15.77,-0.7569,1.113,-26.98,-1.447,-26.49,-26.85,-18.21,-18.04,-26.78,-6.657,0,0,0,0,0,0,0,0,0,0,0,0,0,0,0,0,
466,-36.33,-2.854,-14.71,-2.558,-11.94,-21.67,-0.5797,1.006,-23.02,2.72,-35.49,-34.47,-17.98,-17.35,-32.42,-9.034,0,0,0,0,0,0,0,0,0,0,0,0,0,0,0,0,
467,-47.64,-6.263,-31.52,-7.404,-28.4,-37.49,2.27,6.63,-25.19,10.31,-43.81,-42.53,-13.67,-13.97,-40.29,-1.368,0,0,0,0,0,0,0,0,0,0,0,0,0,0,0,0,
468,-64.31,-10.97,-39.96,-19.79,-41.61,-46.57,2.684,7.558,-19.98,22.2,-31.14,-31.2,4.559,4.525,-18.76,25.59,0,0,0,0,0,0,0,0,0,0,0,0,0,0,0,0,
469,-55.59,-7.665,-28.32,-10.57,-34.65,-34.83,-1.924,6.901,1.596,26.12,1.492,1.294,31.07,32.23,21.79,63.98,0,0,0,0,0,0,0,0,0,0,0,0,0,0,0,0,
470,-33.73,1.454,-24.15,-10.75,-34.16,-32.94,-17.76,-8.102,-3.786,14.96,5.762,6.072,39.01,38.59,23.01,77.15,0,0,0,0,0,0,0,0,0,0,0,0,0,0,0,0,
471,-39.77,0.7195,-48.32,-41.09,-59.22,-57.84,-32.45,-27.15,-37.75,3.287,-27.11,-26.95,23.75,20.95,-14.97,52.52,0,0,0,0,0,0,0,0,0,0,0,0,0,0,0,0,
472,-56.67,-10.7,-78.33,-61.36,-101.4,-86.78,-39.36,-33.62,-62.98,-5.077,-58.23,-57.78,-3.19,-5.529,-48.98,10.35,0,0,0,0,0,0,0,0,0,0,0,0,0,0,0,0,
473,-67.98,-25.79,-91.46,-64.89,-123,-100.3,-47.33,-38.17,-80.41,-17.02,-81.07,-80.37,-35.88,-37.04,-73.83,-32.13,0,0,0,0,0,0,0,0,0,0,0,0,0,0,0,0,
474,-90.81,-40.12,-88.01,-67.78,-100.8,-94.98,-45.04,-33.4,-92.02,-22.62,-100.5,-99.58,-56.63,-57.69,-89.78,-54.41,0,0,0,0,0,0,0,0,0,0,0,0,0,0,0,0,
475,-102.6,-39.54,-71.09,-54.51,-72.04,-75.24,-23.4,-11.79,-83.66,-11.16,-95.75,-94.02,-49.69,-50.14,-77.15,-40.86,0,0,0,0,0,0,0,0,0,0,0,0,0,0,0,0,
476,-85.35,-23.37,-53.24,-35.37,-71.51,-62.18,-9.741,-2.912,-77.89,0.4418,-80.69,-78.34,-36.26,-35.29,-54.55,-18.94,0,0,0,0,0,0,0,0,0,0,0,0,0,0,0,0,
477,-78.16,-19.75,-53.56,-41.1,-79.08,-66.49,-17.69,-12.62,-82.43,-6.218,-79.18,-76.76,-34.45,-32.99,-47.65,-12.22,0,0,0,0,0,0,0,0,0,0,0,0,0,0,0,0,
478,-80.28,-27.43,-56.86,-44.44,-68.2,-62.26,-18.42,-10.51,-60.62,-13.26,-64.52,-62.45,-27.35,-27.28,-34.3,0.0814,0,0,0,0,0,0,0,0,0,0,0,0,0,0,0,0,
479,-57.49,-19.49,-39.58,-16.22,-43.71,-39.63,-5.53,2.439,-28.1,-6.845,-34.88,-32.93,-14.91,-15.85,-10.92,19.53,0,0,0,0,0,0,0,0,0,0,0,0,0,0,0,0,
480,-35.37,-8.539,-20.4,3.877,-30.35,-24.25,-0.9589,6.061,-24.39,-2.969,-22.6,-20.38,-10.18,-9.753,-0.3436,27.73,0,0,0,0,0,0,0,0,0,0,0,0,0,0,0,0,
481,-34.97,-4.874,-15.34,-6.022,-38.18,-20.1,3.855,6.373,-26.11,-0.6027,-17.01,-16.23,0.6833,1.442,9.334,33.41,0,0,0,0,0,0,0,0,0,0,0,0,0,0,0,0,
482,-29.12,10.16,-8.279,-11.89,-38.18,-10.84,18.45,10.76,-15.03,11.28,-5.251,-5.486,17.73,15.98,26.38,38.65,0,0,0,0,0,0,0,0,0,0,0,0,0,0,0,0,
483,-15.21,26.04,4.649,-2.721,-13.05,1.591,25.63,15.57,-7.755,23.4,0.512,2.754,21.86,19.06,33.16,34.48,0,0,0,0,0,0,0,0,0,0,0,0,0,0,0,0,
484,-6.287,30.92,11.78,9.305,0.9786,6.059,25.71,22.98,-1.882,29.15,4.423,7.979,22.31,20.91,33.84,35.44,0,0,0,0,0,0,0,0,0,0,0,0,0,0,0,0,
485,2.83,42.08,13.78,20.49,-10.23,4.288,29.39,28.83,8.696,31.53,12.21,13.75,31.82,31.33,41,48.76,0,0,0,0,0,0,0,0,0,0,0,0,0,0,0,0,
486,8.849,49.87,12.71,15.11,-14.82,3.277,26.78,19.95,16.48,27.76,18.37,18.28,33.75,33.42,41.77,52.18,0,0,0,0,0,0,0,0,0,0,0,0,0,0,0,0,
487,4.253,31.23,3.015,-9.711,-13.07,-1.583,9.295,-3.052,16.75,15.03,17.6,16.93,18.41,18.3,26.18,38.07,0,0,0,0,0,0,0,0,0,0,0,0,0,0,0,0,
488,-3.747,6.144,-6.899,-23.11,-14.37,-8.127,-6.163,-14.94,12.44,10.13,9.582,9.295,7.887,8.212,11.95,32.81,0,0,0,0,0,0,0,0,0,0,0,0,0,0,0,0,
489,-10.17,1.212,-9.439,-15.27,-12.07,-11.15,-3.464,-0.3502,4.588,25.97,1.425,2.059,11.95,13.3,9.466,43.11,0,0,0,0,0,0,0,0,0,0,0,0,0,0,0,0,
490,-23.69,3.149,-22.67,-10.12,-30.2,-27.91,-0.1247,12.06,-12.61,36.59,-8.42,-7.549,10.74,13.04,6.453,43.89,0,0,0,0,0,0,0,0,0,0,0,0,0,0,0,0,
491,-41.2,2.934,-39.31,-13.37,-56.74,-47.18,-3.146,8.674,-27.09,33.6,-18.43,-16.33,8.099,9.772,3.664,42.83,0,0,0,0,0,0,0,0,0,0,0,0,0,0,0,0,
492,-41.22,17.58,-26.21,-7.656,-39.51,-33.89,9.509,16.47,-21.81,40.84,-14.39,-11.16,17.52,17.26,9.37,59.81,0,0,0,0,0,0,0,0,0,0,0,0,0,0,0,0,
493,-26.8,35.37,-3.922,6.166,-12.23,-13.4,23.22,25.81,-7.027,44.96,-1.551,-0.1138,18.17,17.13,17.23,69.85,0,0,0,0,0,0,0,0,0,0,0,0,0,0,0,0,
494,-21.32,32.47,-9.253,0.0666,-22.97,-19.64,13.65,13.94,4.023,34.7,4.787,4.305,4.505,4.186,18.97,56.8,0,0,0,0,0,0,0,0,0,0,0,0,0,0,0,0,
495,-26.14,22.36,-26.24,-30.19,-29.84,-29.73,1.408,5.148,3.871,29.94,-0.1631,-0.3785,-4.954,-5.295,9.067,41.1,0,0,0,0,0,0,0,0,0,0,0,0,0,0,0,0,
496,-33.34,15.59,-29.62,-36.11,-12.92,-25.48,-1.14,9.243,-0.9155,24.17,-12.37,-11.2,-10.58,-10.69,-1.596,33.47,0,0,0,0,0,0,0,0,0,0,0,0,0,0,0,0,
497,-36.78,8.732,-19.22,-3.606,-10.24,-17.59,-2.615,7.241,10.18,15.71,-14.96,-12.43,-8.946,-7.381,2.225,32.23,0,0,0,0,0,0,0,0,0,0,0,0,0,0,0,0,
498,-31.69,8.964,-12.3,9.01,-21.1,-18.37,-3.254,3.097,12.55,20.15,-11.13,-9.098,2.997,4.575,3.211,31.97,0,0,0,0,0,0,0,0,0,0,0,0,0,0,0,0,
499,-32.09,9.75,-22.54,-8.967,-22.53,-28.62,-6.996,5.939,-15.79,25.48,-19.31,-18.37,9.524,9.515,-3.223,30.2,0,0,0,0,0,0,0,0,0,0,0,0,0,0,0,0,
500,-40.42,5.855,-32.56,-12.37,-23.13,-33.3,-10.01,11.33,-25,27.11,-22.14,-20.45,10.82,10.87,4.713,38.24,0,0,0,0,0,0,0,0,0,0,0,0,0,0,0,0,
501,-34.05,10.95,-25.77,-4.614,-24.34,-25.86,-2.27,16.06,2.366,32.47,-7.162,-4.965,10.56,10.75,12.98,49.96,0,0,0,0,0,0,0,0,0,0,0,0,0,0,0,0,
502,-19.46,17.97,-15.59,-4.103,-11.88,-15.79,6.053,16.82,17.48,30.63,1.988,3.486,-1.075,-1.991,9.075,44.21,0,0,0,0,0,0,0,0,0,0,0,0,0,0,0,0,
503,-21.54,14.51,-10.65,-2.813,2.891,-7.383,8.931,16.02,9.406,25.81,1.126,1.633,-13.19,-13.44,15.86,30.21,0,0,0,0,0,0,0,0,0,0,0,0,0,0,0,0,
504,-29.01,13.13,-2.267,3.619,8.947,1.238,16.17,24.69,6.064,30.53,4.122,3.272,-12.97,-11.38,30.34,26.15,0,0,0,0,0,0,0,0,0,0,0,0,0,0,0,0,
505,-25.09,16.29,8.169,19.29,11.68,6.326,21.53,37.54,9.176,32.18,7.045,6.873,-11.49,-10.32,33.93,26.7,0,0,0,0,0,0,0,0,0,0,0,0,0,0,0,0,
506,-23.65,13.13,6.214,29.81,3.369,0.6786,14.73,38.53,2.648,27.48,3.996,6.078,-10.18,-10.3,32.13,27.86,0,0,0,0,0,0,0,0,0,0,0,0,0,0,0,0,
507,-29.77,9.448,-3.738,18.46,-4.769,-5.78,8.643,33.9,-5.887,32.4,-2.078,-0.3496,-4.142,-4.083,27.99,29.7,0,0,0,0,0,0,0,0,0,0,0,0,0,0,0,0,
508,-31.49,8.044,-2.586,9.374,11.45,1.131,10.63,33.71,-0.9614,39.11,-8.675,-7.431,-3.033,-2.368,19.82,25.77,0,0,0,0,0,0,0,0,0,0,0,0,0,0,0,0,
509,-31.06,1.07,7.835,15.51,34.23,12.17,12.95,36.4,8.57,32.6,-11.71,-8.963,-2.608,-1.326,15.67,24.68,0,0,0,0,0,0,0,0,0,0,0,0,0,0,0,0,
510,-29.35,-2.928,17.02,25.87,40.77,16.9,18.23,47.37,13.26,27.29,-8.812,-6.681,5.405,6.757,17.36,33.85,0,0,0,0,0,0,0,0,0,0,0,0,0,0,0,0,
511,-26,-0.0407,17.38,35.04,30.75,11.76,21.85,55.16,13.45,28.72,-2.502,-1.656,4.711,4.13,21.53,38,0,0,0,0,0,0,0,0,0,0,0,0,0,0,0,0,
512,-29.32,-2.349,5.715,27.91,15.98,0.517,16.74,41.12,13.14,22.35,9.014,10.36,-5.07,-6.849,27.63,36.46,0,0,0,0,0,0,0,0,0,0,0,0,0,0,0,0,
513,-24.63,-2.945,1.314,14.65,21.21,2.796,15.78,23.44,23.74,14.58,21.17,21.55,-5.803,-5.42,29.71,39.52,0,0,0,0,0,0,0,0,0,0,0,0,0,0,0,0,
514,-6.374,4.41,6.711,19.54,29.28,9.608,17.47,19.49,31.76,15.66,19.61,19.58,-2.728,-0.532,28.77,40.23,0,0,0,0,0,0,0,0,0,0,0,0,0,0,0,0,
515,-4.662,10.47,0.2808,23.95,4.58,-2.667,18.6,29.38,15.83,21.96,9.799,11.77,0.4447,1.717,33.48,41.72,0,0,0,0,0,0,0,0,0,0,0,0,0,0,0,0,
516,-18.26,19.94,-8.16,20.51,-17.34,-16.66,31.15,49.37,-3.79,30.95,5.203,6.31,7.891,8.132,33.6,47.92,0,0,0,0,0,0,0,0,0,0,0,0,0,0,0,0,
517,-25.26,26.86,-9.325,21.86,-4.676,-18.66,33.22,47.69,-3.992,33.25,2.088,1.165,8.429,8.536,21.38,42.8,0,0,0,0,0,0,0,0,0,0,0,0,0,0,0,0,
518,-30.03,16.32,-16.26,12.41,5.123,-18.34,11.41,20.63,6.324,24.48,-1.341,-0.2375,1.42,1.76,8.087,25.61,0,0,0,0,0,0,0,0,0,0,0,0,0,0,0,0,
519,-33.16,3.447,-22.35,-3.122,-5.355,-17.72,-1.734,12.64,6.243,13.07,-7.913,-5.002,-7.598,-6.709,-9.569,7.494,0,0,0,0,0,0,0,0,0,0,0,0,0,0,0,0,
520,-35.06,-2.111,-20.89,-0.5252,-10.61,-19.35,-0.2498,19.78,-7.622,3.308,-19.9,-18.44,-18.41,-17.95,-27.25,-3.799,0,0,0,0,0,0,0,0,0,0,0,0,0,0,0,0,
521,-39.68,-5.182,-15.54,5.058,0.3658,-15.64,5.039,17.25,-9.131,3.928,-21.33,-20.62,-15.21,-15.5,-20.09,5.298,0,0,0,0,0,0,0,0,0,0,0,0,0,0,0,0,
522,-37.4,0.9922,-5.078,0.8654,16.05,-2.901,18.38,24.18,1.341,15.67,-15.55,-14.18,-0.9608,-0.4876,-1.358,23.41,0,0,0,0,0,0,0,0,0,0,0,0,0,0,0,0,
523,-38.54,5.441,-1.884,6.721,15.45,-6.107,21,36.39,-6.805,19.3,-20.92,-19.67,-3.595,-3.906,2.552,22.75,0,0,0,0,0,0,0,0,0,0,0,0,0,0,0,0,
524,-52.32,-5.931,-11.54,20.59,-7.441,-23.6,4.19,25.54,-18.38,10.68,-22.46,-21.79,-18.42,-22.03,5.594,11.36,0,0,0,0,0,0,0,0,0,0,0,0,0,0,0,0,
525,-51.55,-16.06,-12.85,26.18,-16.96,-21.46,-2.512,12.14,-10.07,2.93,-11.27,-10.39,-25.78,-29.13,16.13,8.405,0,0,0,0,0,0,0,0,0,0,0,0,0,0,0,0,
526,-28.65,-14.57,2.445,34.94,10.04,-1.099,10.36,25.81,-2.474,0.8662,-4.612,-3.148,-29.5,-29.09,22.2,9.909,0,0,0,0,0,0,0,0,0,0,0,0,0,0,0,0,
527,-6.324,-11.62,14.98,43.66,31.99,10.93,23.81,44.51,-1.762,2.546,-0.6479,0.011,-34.57,-33.05,23.21,11.25,0,0,0,0,0,0,0,0,0,0,0,0,0,0,0,0,
528,0.2274,-13.25,10.8,31.94,20.25,8.21,26.28,42.2,-1.235,6.107,-1.608,-2.478,-37.88,-36.61,12.17,12.4,0,0,0,0,0,0,0,0,0,0,0,0,0,0,0,0,
529,-20.76,-20.75,-5.484,17.82,-0.4126,-7.707,15.46,32.43,-17.85,10.22,-24.72,-24.81,-36.76,-34.95,-15.42,10.69,0,0,0,0,0,0,0,0,0,0,0,0,0,0,0,0,
530,-56.23,-27.98,-22.54,15.46,-16.01,-29.68,5.147,32.36,-41.72,12.34,-47.98,-46.16,-28.88,-28.16,-33.05,10.21,0,0,0,0,0,0,0,0,0,0,0,0,0,0,0,0,
531,-65.92,-23.78,-19.75,15.42,-14.69,-27.09,17.55,39.31,-38.39,12.47,-44.97,-44.38,-19.77,-19.55,-29.78,11.22,0,0,0,0,0,0,0,0,0,0,0,0,0,0,0,0,
532,-49.43,-12.32,7.819,30.41,9.366,2.926,36.14,42.71,-24.22,15.04,-41.74,-43.96,-17.4,-15.9,-30.53,5.6,0,0,0,0,0,0,0,0,0,0,0,0,0,0,0,0,
533,-41.33,-4.713,26.31,55.68,15.85,17.02,33.51,42.36,-29.31,20.78,-52.46,-54.4,-16.75,-15.76,-35.98,3.512,0,0,0,0,0,0,0,0,0,0,0,0,0,0,0,0,
534,-41.78,1.72,25.82,64.6,0.0522,10.99,30.03,48.54,-29.12,25.46,-49.03,-48.81,-10.2,-9.348,-25.16,18.06,0,0,0,0,0,0,0,0,0,0,0,0,0,0,0,0,
535,-31.23,8.538,26.76,58.94,4.928,11.32,35.29,48.57,-8.23,23.08,-29.04,-28.51,-3.817,-1.211,-6.015,28.46,0,0,0,0,0,0,0,0,0,0,0,0,0,0,0,0,
536,-19.06,6.538,23.07,49.2,22.39,11.29,28.82,38.87,1.148,15.97,-19.46,-20.34,-9.38,-7.464,0.8164,14.52,0,0,0,0,0,0,0,0,0,0,0,0,0,0,0,0,
537,-23.44,-4.143,18.25,47.92,22.88,5.931,24.71,48.85,-10.27,13.74,-26.02,-27.62,-26.17,-25.5,-4.465,-2.139,0,0,0,0,0,0,0,0,0,0,0,0,0,0,0,0,
538,-33.88,-12.04,18.54,51.16,6.949,-2.228,28.38,53.9,-14.35,13.07,-27.5,-28.11,-37.32,-35.62,-3.407,4.16,0,0,0,0,0,0,0,0,0,0,0,0,0,0,0,0,
539,-29.79,-12.61,0.824,30.13,-10.44,-15.95,18.18,26.77,-3.596,8.856,-19.71,-19.37,-41.34,-40.64,3.172,11.74,0,0,0,0,0,0,0,0,0,0,0,0,0,0,0,0,
540,-30.99,-19.7,-14.59,11.24,-7.011,-18.95,9.57,28.09,-6.235,4.103,-38.1,-37.86,-60.85,-62.12,-16.24,-11.69,0,0,0,0,0,0,0,0,0,0,0,0,0,0,0,0,
541,-64.15,-41.82,1.919,35.13,10.75,-10.4,15.51,63.59,-27.09,-1.596,-75.1,-74.4,-81.4,-80.86,-45.06,-34.28,0,0,0,0,0,0,0,0,0,0,0,0,0,0,0,0,
542,-84.61,-47.95,16.54,64.4,13.17,-5.401,21.93,66.56,-27.91,-0.2989,-66.67,-65.65,-64.94,-62.19,-30.35,-13.66,0,0,0,0,0,0,0,0,0,0,0,0,0,0,0,0,
543,-53.28,-19.62,16.57,64.59,6.135,4.688,30.43,50.03,-6.318,10.51,-25.92,-26.25,-34,-31.47,3.868,18.3,0,0,0,0,0,0,0,0,0,0,0,0,0,0,0,0,
544,-20.22,5.002,22.13,50.43,10.08,15.85,34.01,45.8,3.756,16.3,-12.28,-13.83,-22.74,-20.14,14.02,30.11,0,0,0,0,0,0,0,0,0,0,0,0,0,0,0,0,
545,-18.06,6.822,19.36,34.59,15.2,8.529,21.65,40.39,1.453,20.16,-14.61,-16.39,-16.51,-13.93,15.26,38.43,0,0,0,0,0,0,0,0,0,0,0,0,0,0,0,0,
546,-24.14,5.292,1.956,26.4,2.904,-11.26,10.33,42.04,-9.562,29.55,-19.07,-21.33,-13.25,-11.74,8.989,40.5,0,0,0,0,0,0,0,0,0,0,0,0,0,0,0,0,
547,-40.19,-1.162,-13.82,25.67,-21.7,-31.4,6.072,48.31,-32.9,30.97,-38.9,-41.49,-25.19,-23.64,-12.32,23.16,0,0,0,0,0,0,0,0,0,0,0,0,0,0,0,0,
548,-65.5,-18.84,-31.84,19.36,-42.99,-50.26,-3.561,36.43,-47.43,18.83,-56.68,-58.41,-38.35,-35.91,-26.97,0.3399,0,0,0,0,0,0,0,0,0,0,0,0,0,0,0,0,
549,-74.41,-33.33,-48.72,8.864,-50.4,-56.28,-9.506,26.47,-42.34,6.817,-59.47,-59.51,-38.5,-35.9,-29.13,-6.739,0,0,0,0,0,0,0,0,0,0,0,0,0,0,0,0,
550,-64.46,-29.87,-40.19,0.9452,-36.52,-40.18,2.395,34.31,-33.34,4.79,-55.85,-54.73,-26.55,-24.32,-24.88,7.947,0,0,0,0,0,0,0,0,0,0,0,0,0,0,0,0,
551,-53.94,-14.84,-18.97,-3.382,-26.14,-27.19,11.23,31.34,-37.09,1.838,-52.25,-50.66,-17.3,-16.53,-18.93,18.32,0,0,0,0,0,0,0,0,0,0,0,0,0,0,0,0,
552,-56.72,-13.32,-19.28,-0.2658,-42.1,-36.2,-2.542,15.01,-51.76,-6.903,-55.31,-53.32,-22.99,-23.97,-21.88,6.889,0,0,0,0,0,0,0,0,0,0,0,0,0,0,0,0,
553,-63.06,-20.81,-24.43,11.3,-45.02,-35.68,-8.269,16.47,-56.68,-2.205,-57.36,-55.55,-27.64,-27.87,-23.35,-1.045,0,0,0,0,0,0,0,0,0,0,0,0,0,0,0,0,
554,-49.81,-10.01,-6.77,27.78,-20.04,-10.7,14.87,32.29,-47.5,12.06,-44.81,-43.44,-20.27,-19.12,-10.1,3.587,0,0,0,0,0,0,0,0,0,0,0,0,0,0,0,0,
555,-20.94,10.25,15.35,43.1,-4.217,11.29,36.64,40.5,-30.8,17.86,-21.31,-20.12,-11.43,-11.11,7.876,10.78,0,0,0,0,0,0,0,0,0,0,0,0,0,0,0,0,
556,5.135,24.76,22.69,45.95,-0.5319,16.76,42.67,45.98,-8.898,25.18,0.4351,0.9522,-0.5341,-0.8764,22,28.33,0,0,0,0,0,0,0,0,0,0,0,0,0,0,0,0,
557,20.58,39.55,19.72,41.25,-5.777,9.241,47.43,53.24,0.2813,33.63,9.805,9.953,14.75,14.51,30.33,45.38,0,0,0,0,0,0,0,0,0,0,0,0,0,0,0,0,
558,25.86,48.3,17.88,49.08,-14.07,6.451,49.93,53.62,-4.766,30.5,7.844,7.931,21.2,20.15,30.47,42.23,0,0,0,0,0,0,0,0,0,0,0,0,0,0,0,0,
559,26.09,42.74,19.5,50.36,-5.431,13.24,41.46,44.94,-11,24.97,-2.207,-3.25,11.76,11.46,22.6,33.24,0,0,0,0,0,0,0,0,0,0,0,0,0,0,0,0,
560,12.09,29.4,3.81,20.04,-19.18,-7.577,26.89,32.68,-28.69,24.27,-18.35,-19.48,1.655,3.207,14.1,35.14,0,0,0,0,0,0,0,0,0,0,0,0,0,0,0,0,
561,-14.77,17.93,-26.99,0.4756,-68.57,-47.49,17.75,26.56,-47.12,24.7,-23.39,-23.24,4.92,5.241,20.85,44.1,0,0,0,0,0,0,0,0,0,0,0,0,0,0,0,0,
562,-19.62,13.59,-36.11,13.02,-77.35,-50.81,13.94,22.82,-40.98,22.48,-11.19,-11.81,10.62,10.34,40.31,53.16,0,0,0,0,0,0,0,0,0,0,0,0,0,0,0,0,
563,-0.4055,10.3,-24.84,9.756,-41.46,-29.4,9.09,12.57,-24.43,16.33,2.188,0.4771,12.69,15.63,49.82,56.02,0,0,0,0,0,0,0,0,0,0,0,0,0,0,0,0,
564,8.268,5.592,-22.48,-9.665,-32.36,-23.78,7.736,10.65,-19.05,14.09,10,9.837,21.81,25.2,49.91,52.15,0,0,0,0,0,0,0,0,0,0,0,0,0,0,0,0,
565,8.178,11.56,-24.32,-7.644,-49.17,-23.81,13.52,20.96,-24.07,19.7,16.66,17.73,33.44,34.14,60.24,52.67,0,0,0,0,0,0,0,0,0,0,0,0,0,0,0,0,
566,22.97,31.96,-12.71,6.825,-46.76,-11.27,24.18,24.7,-23.45,27.51,31.58,31.87,39.63,40.59,77.99,59.2,0,0,0,0,0,0,0,0,0,0,0,0,0,0,0,0,
567,49.23,51.73,3.039,16.08,-28.09,3.442,36.88,24.44,-6.731,28.91,51.09,51.38,42.47,43.44,84.74,58.82,0,0,0,0,0,0,0,0,0,0,0,0,0,0,0,0,
568,66.77,55.49,8.292,17.86,-20.85,7.722,44.37,29.43,5.548,22.42,52.11,53.62,42.92,41.23,84,59.93,0,0,0,0,0,0,0,0,0,0,0,0,0,0,0,0,
569,66.74,51.03,13.64,15.66,-19.7,11.08,48.62,35.02,-2.769,25.02,38.86,40.82,50.26,48.33,89.3,79.55,0,0,0,0,0,0,0,0,0,0,0,0,0,0,0,0,
570,56.91,57.83,25.83,24.9,-15.97,18,59.92,43.69,-14.03,37.96,34.36,36.2,64,62.7,90.32,96.47,0,0,0,0,0,0,0,0,0,0,0,0,0,0,0,0,
571,52.59,75.04,35.35,44.57,-22.06,20.66,76.61,55.99,-8.94,41.1,39.05,40.99,63.74,60.46,81.68,88.45,0,0,0,0,0,0,0,0,0,0,0,0,0,0,0,0,
572,66.66,88.31,49.51,58.32,-16.61,32.65,85.29,59.08,9.868,35.9,48.24,49.93,47.11,43.4,80.93,71.07,0,0,0,0,0,0,0,0,0,0,0,0,0,0,0,0,
573,84.34,84.67,61.96,59.92,13.13,47.43,74.2,49.08,20.31,27.58,53.56,54.83,26.31,24.86,83.51,59.11,0,0,0,0,0,0,0,0,0,0,0,0,0,0,0,0,
574,73.99,62.21,44.92,48.03,15.77,30.1,55.5,39.8,12.72,17.28,45.54,47.12,11.23,11,74.21,55.33,0,0,0,0,0,0,0,0,0,0,0,0,0,0,0,0,
575,49.52,45.97,18.53,35.56,-14.72,2.846,52.78,43.11,5.668,22.62,38.59,40.72,16.38,16.28,68.13,62.11,0,0,0,0,0,0,0,0,0,0,0,0,0,0,0,0,
576,46.14,51.87,17.27,37.7,-26.99,3.338,58.97,54.33,4.625,38.51,41.39,42.47,35.38,35.49,74.34,67.75,0,0,0,0,0,0,0,0,0,0,0,0,0,0,0,0,
577,50.14,59.13,23.54,38.63,-23.47,8.755,57.69,58.47,-2.178,42.97,43.2,41.82,46.12,45.97,77.4,63.93,0,0,0,0,0,0,0,0,0,0,0,0,0,0,0,0,
578,42.57,59.22,18.99,27.55,-25.93,2.927,56.22,49.15,-8.451,46.63,43.3,41.78,53.6,53.43,73.22,61.49,0,0,0,0,0,0,0,0,0,0,0,0,0,0,0,0,
579,39.22,65.46,13.87,29,-30.07,-1.318,58.97,41.18,-5.106,57.76,39.94,40.6,64.1,64.15,65.37,59.64,0,0,0,0,0,0,0,0,0,0,0,0,0,0,0,0,
580,42.03,70.33,13.53,47.61,-34.36,-3.889,56.78,44.78,-2.08,56.88,28.54,28.72,60.38,59.14,55.26,47,0,0,0,0,0,0,0,0,0,0,0,0,0,0,0,0,
581,40.21,61.59,19,50.92,-23.35,1.83,47.95,45.3,-5.122,42.36,21.15,19.28,45.12,42.97,51.82,33.62,0,0,0,0,0,0,0,0,0,0,0,0,0,0,0,0,
582,38.92,47.54,23.91,32.76,-0.2829,13.32,37.62,38.02,-5.824,30.62,21.51,20.43,37.86,37.8,50.07,30.28,0,0,0,0,0,0,0,0,0,0,0,0,0,0,0,0,
583,34.74,30.26,10.96,15.03,-6.963,3.438,24.48,29.58,-4.486,21.18,18.89,19.08,34.01,34.75,40.64,25.16,0,0,0,0,0,0,0,0,0,0,0,0,0,0,0,0,
584,23.25,8.13,-13.07,-2.581,-38.03,-21.91,7.407,11.28,-8.184,10.57,17.51,17.67,24.84,22.59,39.85,16.14,0,0,0,0,0,0,0,0,0,0,0,0,0,0,0,0,
585,20.3,-2.606,-25.31,-19.67,-54.95,-36.61,-3.568,-8.078,-12.65,3.289,19.34,20.28,16.06,13.07,46.96,13.75,0,0,0,0,0,0,0,0,0,0,0,0,0,0,0,0,
586,26.91,1.741,-24.65,-16.79,-50.39,-38.06,-0.2604,-5.069,-12.15,-2.814,12.51,12.94,10.38,9.813,41.19,12.15,0,0,0,0,0,0,0,0,0,0,0,0,0,0,0,0,
587,27.1,6.108,-17.36,-3.429,-34.41,-28.09,11.09,9.076,-13.41,-4.121,1.047,-1.033,7.565,7.648,35.92,5.048,0,0,0,0,0,0,0,0,0,0,0,0,0,0,0,0,
588,18.93,8.227,-12.13,-3.35,-40.72,-24.03,17.71,13.74,-25.22,3.792,-3.946,-5.59,7.148,7.621,42.86,1.85,0,0,0,0,0,0,0,0,0,0,0,0,0,0,0,0,
589,7.084,9.817,-20.95,-6.689,-72.24,-40.57,14.01,10.16,-37.08,8.639,-0.0713,1.112,11.96,13.85,49.94,10.83,0,0,0,0,0,0,0,0,0,0,0,0,0,0,0,0,
590,-0.7136,10.49,-33.41,-10.06,-75.85,-53.46,4.718,0.4394,-39.48,7.745,9.19,10.3,23.47,25.05,56.97,22.49,0,0,0,0,0,0,0,0,0,0,0,0,0,0,0,0,
591,-2.551,10.14,-45.06,-27.84,-71.66,-62.07,-5.801,-7.445,-54.11,8.736,1.894,1.39,25.08,26.82,52.06,17.5,0,0,0,0,0,0,0,0,0,0,0,0,0,0,0,0,
592,-10.41,1.419,-61.42,-35.88,-102,-78.78,-10.66,1.371,-78.78,11.56,-26.12,-26.21,17.84,21.52,28.48,5.523,0,0,0,0,0,0,0,0,0,0,0,0,0,0,0,0,
593,-18.32,-4.878,-59.56,-16.83,-114.8,-75.18,-2.605,14.88,-77.04,19.45,-38.74,-37.99,29.33,32.85,16.3,11.38,0,0,0,0,0,0,0,0,0,0,0,0,0,0,0,0,
594,-14.31,6.304,-39.56,-5.024,-91.86,-53.81,7.893,15.81,-60.92,26.82,-28.57,-27.83,48.78,50.6,17.25,18.3,0,0,0,0,0,0,0,0,0,0,0,0,0,0,0,0,
595,-6.285,15,-29.31,-5.109,-75.85,-43.35,11.65,17.18,-57.78,24.66,-19.79,-18.8,48.75,50.22,10.46,4.322,0,0,0,0,0,0,0,0,0,0,0,0,0,0,0,0,
596,4.119,9.451,-22.73,-2.449,-74.19,-38.77,12.08,18.78,-55.06,21.32,-14.64,-13.03,39.7,41.32,7.234,-10.15,0,0,0,0,0,0,0,0,0,0,0,0,0,0,0,0,
597,12.72,5.421,-18.56,-17.88,-79.65,-37.86,8.679,6.007,-48.2,16.61,-10.04,-7.997,33.16,34.85,12.49,-7.642,0,0,0,0,0,0,0,0,0,0,0,0,0,0,0,0,
598,13.76,7.089,-20.13,-30.05,-71.1,-31.33,11.29,1.938,-34.35,7.957,-1.859,-1.004,30.98,32.43,22.48,4.785,0,0,0,0,0,0,0,0,0,0,0,0,0,0,0,0,
599,26.96,14.69,-1.998,0.4698,-44.93,-6.119,27.76,21.68,-6.732,10.11,20.56,18.24,40.45,40.96,46.06,18.94,0,0,0,0,0,0,0,0,0,0,0,0,0,0,0,0,
600,50.1,25.84,24.98,33.95,-36.46,11.78,38.06,36.41,7.667,16,36.51,32.87,45.01,44.8,58.88,20.01,0,0,0,0,0,0,0,0,0,0,0,0,0,0,0,0,
601,49.01,17.71,23.89,29.16,-41.24,4.958,26.16,26.19,-12.98,-2.122,13.76,12.14,18.5,17.61,27.78,-9.777,0,0,0,0,0,0,0,0,0,0,0,0,0,0,0,0,
602,22.49,-15.92,1.171,4.941,-54.55,-18.66,2.501,-1.122,-52.41,-35.97,-29.91,-30.42,-25.71,-26.86,-18.11,-56.92,0,0,0,0,0,0,0,0,0,0,0,0,0,0,0,0,
603,0.9496,-39.4,-11.51,-7.168,-76.75,-36.76,-6.75,-14.47,-72.99,-45.54,-47.93,-49.34,-48.54,-48.15,-31.29,-83.15,0,0,0,0,0,0,0,0,0,0,0,0,0,0,0,0,
604,2.684,-28.52,2.479,3.817,-60.92,-18.86,6.454,2.89,-55.2,-26.15,-36.69,-37.45,-40.06,-38.82,-19.95,-81.68,0,0,0,0,0,0,0,0,0,0,0,0,0,0,0,0,
605,11.11,-11.78,13.18,4.468,-35.44,-0.898,11.18,13.4,-41.93,-13.27,-35.06,-33.24,-31.08,-31.22,-23.25,-83.52,0,0,0,0,0,0,0,0,0,0,0,0,0,0,0,0,
606,-6.662,-20.41,-14.07,-26.47,-62.49,-32.04,-4.227,-0.1935,-66.78,-14.65,-57.55,-54.22,-39.36,-40.27,-48.89,-97.3,0,0,0,0,0,0,0,0,0,0,0,0,0,0,0,0,
607,-40.24,-38.42,-45.99,-46.71,-99.3,-70.98,-15.47,-10.44,-91.99,-10.77,-78.57,-76.05,-41.47,-41.94,-67.07,-96.57,0,0,0,0,0,0,0,0,0,0,0,0,0,0,0,0,
608,-50.98,-41.3,-52.55,-36.58,-116.8,-81,-20.55,-13.66,-94.01,-2.62,-81.29,-80.37,-27.47,-27.92,-64.12,-78.62,0,0,0,0,0,0,0,0,0,0,0,0,0,0,0,0,
609,-47.07,-38.79,-56.7,-19.91,-119.1,-78.98,-27.21,-8.82,-88.17,2.839,-75.18,-74.2,-21.25,-21.07,-61.27,-70.2,0,0,0,0,0,0,0,0,0,0,0,0,0,0,0,0,
610,-53.83,-41.26,-59.3,-11.16,-89.33,-70.07,-25.93,4.429,-76.52,10.47,-58.84,-56.5,-13.75,-11.33,-52.02,-56.55,0,0,0,0,0,0,0,0,0,0,0,0,0,0,0,0,
611,-48.43,-27.24,-52.71,-27.49,-80.32,-66.15,-16.16,-1.353,-61.73,20.28,-22.83,-20.82,21.16,24.76,-14.05,-13.57,0,0,0,0,0,0,0,0,0,0,0,0,0,0,0,0,
612,-20.15,2.734,-57.38,-56.36,-116.3,-78.06,-8.915,-14.02,-53.97,22.48,0.9318,0.879,44.38,46.29,10.68,4.514,0,0,0,0,0,0,0,0,0,0,0,0,0,0,0,0,
613,-13.19,4.955,-60.91,-42.86,-110.5,-75,-6.136,5.554,-49.9,13.33,-16.58,-17.73,21.5,22.16,-10.06,-33.35,0,0,0,0,0,0,0,0,0,0,0,0,0,0,0,0,
614,-34.64,-20.73,-38.16,5.741,-63.87,-48.58,-3.563,33.04,-48.25,2.663,-42.82,-43.77,-5.088,-3.73,-32.31,-61.35,0,0,0,0,0,0,0,0,0,0,0,0,0,0,0,0,
615,-47.56,-34.94,-24.23,18.98,-62.27,-41.54,-8.366,26.67,-58.62,-4.642,-54.41,-54.73,-12.81,-11,-39.81,-56.91,0,0,0,0,0,0,0,0,0,0,0,0,0,0,0,0,
616,-53.62,-37.89,-42.13,-9.368,-88.22,-58.7,-19.44,6.853,-70.69,-5.861,-58.17,-57.5,-16.21,-13.2,-44.73,-53.09,0,0,0,0,0,0,0,0,0,0,0,0,0,0,0,0,
617,-58.77,-35.43,-49.18,-23.91,-90.49,-62.75,-15.74,6.157,-65.26,3.034,-45.95,-45.27,-9.951,-5.251,-32.37,-49.22,0,0,0,0,0,0,0,0,0,0,0,0,0,0,0,0,
618,-55.41,-26.57,-39.21,-17.09,-94.74,-61.58,-5.309,8.443,-60.13,4.078,-34.21,-35.12,-9.174,-4.83,-25.41,-55.12,0,0,0,0,0,0,0,0,0,0,0,0,0,0,0,0,
619,-56.54,-31.06,-42.02,-15.93,-102.8,-66.98,-7.27,-0.362,-65.3,-6.761,-42.26,-44,-25.05,-21.43,-44.04,-73.82,0,0,0,0,0,0,0,0,0,0,0,0,0,0,0,0,
620,-46.03,-36.05,-33.37,-14.05,-75.93,-45.5,-4.395,0.3185,-51.28,-4.85,-40.28,-40.83,-24.55,-21.88,-43.36,-68.32,0,0,0,0,0,0,0,0,0,0,0,0,0,0,0,0,
621,-9.712,-20.38,-2.947,-4.591,-44.41,-10.61,5.742,10.27,-26.63,1.604,-21.71,-21.51,-9.696,-9.191,-16.73,-48.34,0,0,0,0,0,0,0,0,0,0,0,0,0,0,0,0,
622,7.042,-10.82,8.082,3.079,-47.29,-5.917,8.621,15.24,-21.16,-4.1,-12.43,-12.98,-11.16,-10.73,-6.175,-46.83,0,0,0,0,0,0,0,0,0,0,0,0,0,0,0,0,
623,-0.2635,-14.5,4.741,16.53,-49.65,-7.443,17.02,22.83,-18.11,-5.072,-6.811,-7.569,-17.28,-15.8,-10.58,-47.79,0,0,0,0,0,0,0,0,0,0,0,0,0,0,0,0,
624,8.718,-8.767,18.69,31.88,-31.48,9.993,29.07,25.78,-11.02,2.743,0.5486,-0.7988,-12.21,-11.26,-11.57,-40.26,0,0,0,0,0,0,0,0,0,0,0,0,0,0,0,0,
625,18.5,0.2578,36.45,26.09,-16.02,24.05,25.74,13.08,-17.05,6.343,-0.1802,-4.212,-7.022,-5.284,-9.526,-34.29,0,0,0,0,0,0,0,0,0,0,0,0,0,0,0,0,
626,12.88,3.114,42.65,9.977,-7.907,29.7,18.97,9.382,-20.27,6.72,0.9531,-4.015,-6.632,-3.7,-3.529,-25.76,0,0,0,0,0,0,0,0,0,0,0,0,0,0,0,0,
627,15.85,6.667,43.67,8.611,-4.699,32.24,21.29,20.39,-10.16,6.623,6.734,4.576,-5.593,-3.705,-0.8798,-17.49,0,0,0,0,0,0,0,0,0,0,0,0,0,0,0,0,
628,18.22,4.763,32.19,6.479,-14.48,18.1,14.97,13.12,-11.12,0.0454,-2.437,-2.459,-7.01,-4.893,-13.73,-24.39,0,0,0,0,0,0,0,0,0,0,0,0,0,0,0,0,
629,-1.652,-10.75,5.481,-9.697,-34.23,-7.749,-4.147,-6.604,-26.13,-10.27,-20.21,-20.03,-10.85,-6.922,-29.98,-38.78,0,0,0,0,0,0,0,0,0,0,0,0,0,0,0,0,
630,-19.98,-20.82,-11.64,-12.28,-45.6,-20.36,-10.83,-2.483,-31.35,-4.527,-18.74,-18.06,-2.04,1.644,-29.59,-35.94,0,0,0,0,0,0,0,0,0,0,0,0,0,0,0,0,
631,-15.95,-8.472,-10.52,0.9437,-38.23,-17.92,-0.52,13.95,-22.87,17.34,-3.899,-3.487,14.1,17.09,-18.29,-20.75,0,0,0,0,0,0,0,0,0,0,0,0,0,0,0,0,
632,-4.721,6.292,-7.678,2.61,-28.42,-14.29,8.907,18.64,-13.7,28.5,-0.1317,-1.377,11.12,14.57,-17.72,-24.14,0,0,0,0,0,0,0,0,0,0,0,0,0,0,0,0,
633,1.724,6.266,-7.393,0.3375,-34.31,-13.26,15.38,23.32,-14.64,26.11,-8.329,-10.1,-4.329,-1.734,-31.04,-43.15,0,0,0,0,0,0,0,0,0,0,0,0,0,0,0,0,
634,3.311,4.553,-10.37,4.968,-44.49,-14.94,20.05,31.7,-24.2,24.57,-12.65,-13.57,-7.362,-6.025,-31.05,-41.94,0,0,0,0,0,0,0,0,0,0,0,0,0,0,0,0,
635,5.584,9.607,-11.91,12.21,-35.04,-11.64,22.38,35.69,-16.45,19,2.859,1.91,-0.3991,1.506,-1.945,-15.71,0,0,0,0,0,0,0,0,0,0,0,0,0,0,0,0,
636,19.01,15.35,-0.9274,26.65,-14.38,-1.024,24.29,29.82,10.75,1.706,29.1,27.32,4.306,6.33,26.47,5.689,0,0,0,0,0,0,0,0,0,0,0,0,0,0,0,0,
637,32.96,16.14,3.722,28,-16.42,-2.438,18.79,9.86,18.78,-21.04,38.92,36.99,2.011,2.882,32.2,9.331,0,0,0,0,0,0,0,0,0,0,0,0,0,0,0,0,
638,33.8,10.83,-4.205,7.536,-33.14,-9.21,14.29,1.838,13.69,-37.39,39.54,37.86,-9.45,-9.085,32.51,4.161,0,0,0,0,0,0,0,0,0,0,0,0,0,0,0,0,
639,35.32,4.139,4.223,4.357,-24.34,5.245,19.7,15.17,29.98,-42.36,49.72,47.65,-22.17,-22.84,33.83,-4.002,0,0,0,0,0,0,0,0,0,0,0,0,0,0,0,0,
640,42.82,3.181,23.32,23.68,7.047,28.24,21.76,19.13,47.86,-35,56.38,53.02,-24.45,-26.78,27.85,-10.2,0,0,0,0,0,0,0,0,0,0,0,0,0,0,0,0,
641,45.34,11.54,32.07,38.79,26.71,37.69,26.98,22.94,41.62,-17.04,48.99,44.7,-22.24,-23.77,14.99,-13.7,0,0,0,0,0,0,0,0,0,0,0,0,0,0,0,0,
642,40.2,17.47,31.36,45.28,22.18,33.56,36.27,35.62,27.97,-4.004,36.49,33.24,-25.13,-24.19,0.2838,-19.92,0,0,0,0,0,0,0,0,0,0,0,0,0,0,0,0,
643,29.19,9.743,18.8,39.21,8.302,20.89,26.25,25.59,25.15,1.01,28.76,26.81,-21.07,-19.69,-3.27,-24.42,0,0,0,0,0,0,0,0,0,0,0,0,0,0,0,0,
644,19.23,3.879,4.919,24.16,-2.728,7.715,9.803,5.99,25.15,11.17,23.71,20.84,-5.049,-4.859,-2.344,-26.81,0,0,0,0,0,0,0,0,0,0,0,0,0,0,0,0,
645,6.74,4.533,0.0811,14.86,-14.7,-3.788,3.707,4.733,10.23,16.56,6.095,1.971,3.054,3.491,-22.79,-36.12,0,0,0,0,0,0,0,0,0,0,0,0,0,0,0,0,
646,-21.95,-7.615,-10.32,4.49,-20.11,-15.03,-7.971,4.734,-14.51,10.65,-23.48,-26.87,-2.332,-0.4578,-51.32,-48.22,0,0,0,0,0,0,0,0,0,0,0,0,0,0,0,0,
647,-53.13,-25.49,-29.33,-16.88,-26.77,-30.83,-23.83,-2.047,-36.1,9.253,-48.15,-50.2,-6.607,-4.406,-60.81,-56.08,0,0,0,0,0,0,0,0,0,0,0,0,0,0,0,0,
648,-69.84,-29.11,-47.97,-32.95,-59.42,-57.1,-30.49,-1.167,-57.58,13.47,-62.93,-64.76,-4.248,-2.29,-59.04,-59.78,0,0,0,0,0,0,0,0,0,0,0,0,0,0,0,0,
649,-80.26,-26.37,-56.36,-24.48,-75.51,-67.64,-29.98,11.5,-71.41,15.71,-68.41,-70.27,-2.413,0.3937,-57.94,-61.8,0,0,0,0,0,0,0,0,0,0,0,0,0,0,0,0,
650,-83.68,-30.24,-48.37,-8.467,-47.43,-49.48,-27.24,19.7,-68.31,9.644,-66.26,-67.3,-7.897,-3.642,-58.85,-69.24,0,0,0,0,0,0,0,0,0,0,0,0,0,0,0,0,
651,-69.55,-33.12,-37.15,-3.463,-37.89,-34.64,-19.36,14.83,-53.57,-13.26,-60.21,-61.25,-17.44,-13.17,-62.15,-78.14,0,0,0,0,0,0,0,0,0,0,0,0,0,0,0,0,
652,-42.3,-26.75,-15.27,15.82,-35.03,-13.54,1.227,20.8,-26.06,-41.26,-45.06,-47.46,-25.79,-23.15,-61.89,-75.59,0,0,0,0,0,0,0,0,0,0,0,0,0,0,0,0,
653,-11.34,-18.12,27.99,46.11,8.494,29.81,22.01,35.23,6.069,-51.89,-17.22,-19.43,-28.34,-26.18,-55.19,-60.79,0,0,0,0,0,0,0,0,0,0,0,0,0,0,0,0,
654,18.65,-10.15,44.21,40.11,15.27,40.42,20.8,25.37,19.39,-46.84,4.391,3.268,-25.08,-23.26,-54.68,-47.97,0,0,0,0,0,0,0,0,0,0,0,0,0,0,0,0,
655,36.3,-6.547,21.06,18.86,-20.98,18.2,9.874,11.76,14.5,-44.68,-3.262,-5.067,-37.48,-38.46,-68.53,-56.82,0,0,0,0,0,0,0,0,0,0,0,0,0,0,0,0,
656,36.31,-17.61,35.03,45.27,19.31,41.05,17.21,29.48,18.85,-42.68,-18.58,-20.5,-65.22,-67.11,-74.48,-77.1,0,0,0,0,0,0,0,0,0,0,0,0,0,0,0,0,
657,35.17,-25.6,87.73,94.5,84.72,80.81,34.08,53.13,32.64,-28.64,-11.31,-11.64,-70.75,-70.48,-59.44,-77.77,0,0,0,0,0,0,0,0,0,0,0,0,0,0,0,0,T1
658,26.85,-19.16,79.72,86.25,44.07,47.52,24.08,48.25,17.27,-18.55,-9.889,-10.11,-57.31,-56.41,-49.04,-65.37,0,0,0,0,0,0,0,0,0,0,0,0,0,0,0,0,
659,-11.47,-26,5.035,20.12,-27.13,-20.3,-12.55,21.23,-21.52,-17.4,-30.85,-32.61,-50.96,-48.91,-49.86,-58.83,0,0,0,0,0,0,0,0,0,0,0,0,0,0,0,0,
660,-48.63,-40.3,-44.78,-26.09,-40.8,-47.34,-33.12,-2.017,-39.23,-4.323,-43.13,-46.16,-40.81,-36.7,-49.59,-55.59,0,0,0,0,0,0,0,0,0,0,0,0,0,0,0,0,
661,-52.14,-31.83,-48.11,-19.68,-56.03,-54.26,-24.18,-0.0335,-52.02,14.86,-51.08,-54.66,-27.03,-23.86,-59.63,-59.62,0,0,0,0,0,0,0,0,0,0,0,0,0,0,0,0,
662,-48.43,-15.03,-40.97,4.661,-80.56,-61.61,-7.93,24.1,-84.09,27.99,-68.39,-70.62,-23.72,-21.14,-77.87,-69.4,0,0,0,0,0,0,0,0,0,0,0,0,0,0,0,0,
663,-48.67,-8.454,-33.07,20.72,-76.16,-55.29,5.109,43.89,-95.97,37.61,-72.05,-71.45,-19.16,-15.71,-84.87,-70.38,0,0,0,0,0,0,0,0,0,0,0,0,0,0,0,0,
664,-33.3,-2.188,-23.59,28.68,-57.71,-38.12,15.71,50.84,-64.94,36.67,-56.89,-55.03,-8.521,-6.598,-80.28,-62.02,0,0,0,0,0,0,0,0,0,0,0,0,0,0,0,0,
665,-8.292,8.958,-9.78,29.65,-25.44,-13.23,23.04,52.1,-26.04,27.17,-38.5,-37.08,-2.777,-2.055,-69.22,-49.16,0,0,0,0,0,0,0,0,0,0,0,0,0,0,0,0,
666,4.207,17.49,4.231,20.32,-1.891,2.303,23.94,41.06,-10.08,16.56,-23.51,-22.34,-0.3653,0.7766,-56.02,-33.08,0,0,0,0,0,0,0,0,0,0,0,0,0,0,0,0,
667,3.531,19.26,4.367,8.463,-14.42,-2.386,19.84,28.85,-0.4585,4.478,-12.24,-11.94,1.551,1.972,-44.34,-18.8,0,0,0,0,0,0,0,0,0,0,0,0,0,0,0,0,
668,7.902,17.15,-1.638,5.522,-12.07,-1.478,16.97,32.06,16.75,-2.029,-2.259,-3.108,-6.158,-5.225,-33.35,-14.44,0,0,0,0,0,0,0,0,0,0,0,0,0,0,0,0,
669,13.55,9.573,-5.862,4.437,4.469,-1.03,12.51,31.29,10.83,-6.492,1.263,0.8341,-24.07,-21.18,-29.66,-23.57,0,0,0,0,0,0,0,0,0,0,0,0,0,0,0,0,
670,5.591,-1.614,-13.49,5.065,-15.2,-16.15,6.422,22.81,-13.16,-15.61,-3.113,-3.146,-35.15,-33.28,-34.23,-34.01,0,0,0,0,0,0,0,0,0,0,0,0,0,0,0,0,
671,2.299,-4.209,-20.63,10.01,-38.15,-21.72,5.006,20.97,-14.22,-16.54,-2.574,-2.929,-29.27,-29.29,-34.18,-28.82,0,0,0,0,0,0,0,0,0,0,0,0,0,0,0,0,
672,17.03,4.177,-24.41,5.215,-41.84,-16.85,9.299,20.38,-9.987,-3.865,4.255,4.466,-10.7,-9.508,-26.33,-6.902,0,0,0,0,0,0,0,0,0,0,0,0,0,0,0,0,
673,30.47,19.25,-20.07,4.737,-52.17,-17.68,21.14,28.93,-28.57,10.41,0.8803,1.258,10.07,12.44,-23.07,15.55,0,0,0,0,0,0,0,0,0,0,0,0,0,0,0,0,
674,28.67,33.01,-11.09,19.98,-59.16,-18.85,31.48,42.96,-49.31,15.63,-14.51,-14.1,21.15,23.32,-25.17,25.97,0,0,0,0,0,0,0,0,0,0,0,0,0,0,0,0,
675,23.43,38.58,-9.145,24.69,-45.89,-10.36,34.09,40.04,-41.77,20.6,-9.811,-7.226,30.86,34.32,-13.02,33,0,0,0,0,0,0,0,0,0,0,0,0,0,0,0,0,
676,40.94,49.21,-0.5852,23.26,-21.14,10.27,38.75,33.69,-4.505,36.84,21.91,25.88,46.74,50.23,3.1,33.52,0,0,0,0,0,0,0,0,0,0,0,0,0,0,0,0,
677,67.19,57.65,6.422,22.74,-13.93,11.81,31.74,27.37,15.26,42.91,32.65,34.81,47.98,48.32,-8.477,13.78,0,0,0,0,0,0,0,0,0,0,0,0,0,0,0,0,
678,61.18,39.97,-13.65,2.237,-33.51,-15.59,10.05,10.3,0.0218,28.75,20.9,21.63,36.84,36.06,-19.8,2.021,0,0,0,0,0,0,0,0,0,0,0,0,0,0,0,0,
679,51.77,22.4,-21.29,-12.27,-26.43,-10.85,8.805,6.985,9.885,20.68,34.07,35.14,34.74,35.09,1.604,14.74,0,0,0,0,0,0,0,0,0,0,0,0,0,0,0,0,
680,76.03,27.4,12.81,10.89,24.76,34.13,25.23,20.28,49.25,19.89,53.59,53.85,27.54,27.45,11.12,11.07,0,0,0,0,0,0,0,0,0,0,0,0,0,0,0,0,
681,86.76,29.75,35.07,37.68,40.95,44.53,31.04,29.77,50.9,14,40.85,39.43,8.045,7.229,-16.59,-15.87,0,0,0,0,0,0,0,0,0,0,0,0,0,0,0,0,
682,59.09,26.02,15.59,35.66,-2.042,11.12,32.43,40.56,22.08,11.46,21.2,20.74,-2.892,-4.363,-36.16,-29.21,0,0,0,0,0,0,0,0,0,0,0,0,0,0,0,0,
683,42.42,29.97,4.248,35.18,-15.58,2.705,41.95,53.4,20.44,10.81,22.77,24.57,-4.561,-6.846,-25.48,-25.12,0,0,0,0,0,0,0,0,0,0,0,0,0,0,0,0,
684,55.54,34.51,26.15,62.47,13.31,24.17,53.91,60.3,35.4,7.157,32.79,33.89,-6.822,-7.702,-10.65,-18.28,0,0,0,0,0,0,0,0,0,0,0,0,0,0,0,0,
685,60.68,30.76,30.33,70.8,10.7,19.55,50.46,58.45,28.37,5.265,28.85,28.12,-14,-13.25,-13.82,-17.5,0,0,0,0,0,0,0,0,0,0,0,0,0,0,0,0,
686,35.24,10.86,11.52,46.55,6.968,6.224,29.22,50.29,7.782,1.804,4.922,4.993,-26.13,-25.82,-30.07,-24.96,0,0,0,0,0,0,0,0,0,0,0,0,0,0,0,0,
687,2.824,-10.94,11.78,44.32,6.513,5.283,18.87,49.39,-18.39,5.36,-18.15,-16.19,-16.4,-15.98,-32.84,-16.3,0,0,0,0,0,0,0,0,0,0,0,0,0,0,0,0,
688,-4.499,4.959,-8.604,34.02,-78.57,-32.63,27.99,52.11,-53.3,30.16,-21.96,-19.35,20.5,21.06,-19.95,9.519,0,0,0,0,0,0,0,0,0,0,0,0,0,0,0,0,
689,7.921,39.46,-46.71,-7.761,-122.7,-54.36,34.32,47.83,-61.16,48.38,-25.28,-23.57,26.3,25.55,-30.43,3.115,0,0,0,0,0,0,0,0,0,0,0,0,0,0,0,0,
690,12.66,32.71,-0.0843,19.62,13.38,23.84,37.59,53.03,-26.67,36.11,-36.36,-35.88,-8.882,-9.309,-57.62,-28.93,0,0,0,0,0,0,0,0,0,0,0,0,0,0,0,0,
691,18.22,11.2,92.57,104.8,134.9,104.6,52.56,69.43,13.19,26.83,-21.27,-20.93,-17.45,-16.11,-48.28,-25.31,0,0,0,0,0,0,0,0,0,0,0,0,0,0,0,0,
692,49,26.79,115.7,118.9,130.6,112.4,64.22,66.38,42.97,30.58,14.5,14.34,0.7497,2.052,-20.94,0.3423,0,0,0,0,0,0,0,0,0,0,0,0,0,0,0,0,
693,74.85,37.93,103.8,78.08,144.8,116.3,50.69,36.42,67.57,18.16,27.2,25.97,-1.722,-1.093,-18.51,4.702,0,0,0,0,0,0,0,0,0,0,0,0,0,0,0,0,
694,67.7,21.39,106.2,62.17,174.3,124.8,34.46,12.29,86.33,8.412,34.54,33.47,-2.625,-1.551,-7.923,10.26,0,0,0,0,0,0,0,0,0,0,0,0,0,0,0,0,
695,65.85,25.93,92.44,60.08,142.8,103.4,38.7,13.2,99.55,19.3,61.21,59.66,19.14,20.7,25.09,31.66,0,0,0,0,0,0,0,0,0,0,0,0,0,0,0,0,
696,81.04,43.28,72.15,51.73,121.6,87,38.74,16.4,95.61,21.95,69.24,66.59,36.02,37.39,37.06,44.2,0,0,0,0,0,0,0,0,0,0,0,0,0,0,0,0,
697,77.16,36.73,68.84,37.97,131.7,87.62,26.81,9.041,75.12,19.88,48.91,47.22,43.58,44.72,24.9,45.93,0,0,0,0,0,0,0,0,0,0,0,0,0,0,0,0,
698,62.51,28.78,60.74,22.51,105.9,74.41,25.76,7.647,58.56,29.9,36.18,35.56,52.19,53.76,17.12,51.6,0,0,0,0,0,0,0,0,0,0,0,0,0,0,0,0,
699,64.93,34.29,47.47,22.41,69.55,58.12,27.62,9.427,50.22,33.28,36.3,36.68,58.32,59.67,17.64,62.4,0,0,0,0,0,0,0,0,0,0,0,0,0,0,0,0,
700,70.23,34.65,45.78,24.55,74.95,57.56,16.07,-1.444,44.07,27.21,35.06,38.58,58.91,58.83,22.57,68.1,0,0,0,0,0,0,0,0,0,0,0,0,0,0,0,0,
701,58.9,26.17,41.25,10.93,84.01,54.44,4.243,-12.03,35.46,30.23,33.66,37.82,55.37,55.42,31.61,65.31,0,0,0,0,0,0,0,0,0,0,0,0,0,0,0,0,
702,44.39,21.1,35.23,11.54,75.38,51.28,8.541,-2.923,25.67,42.86,32.24,33.03,58.05,59.54,30.94,62.62,0,0,0,0,0,0,0,0,0,0,0,0,0,0,0,0,
703,45.93,27.79,44.61,29.22,77.89,61.9,22.4,13.32,20.94,50.08,21.04,21.19,65.53,66.4,9.2,56.03,0,0,0,0,0,0,0,0,0,0,0,0,0,0,0,0,
704,56.22,39.1,51.04,32.13,75.57,66.87,32.33,19.96,19.64,46.95,9.4,12.04,62.53,61.65,-6.146,43.84,0,0,0,0,0,0,0,0,0,0,0,0,0,0,0,0,
705,70.06,47.59,55.27,36.19,76.24,74.96,45.1,28.54,36.73,44.62,25.57,29.16,58.26,57.4,11.25,46.74,0,0,0,0,0,0,0,0,0,0,0,0,0,0,0,0,
706,98.5,57.49,79.13,53.33,112.3,103.4,60.64,40.07,83.29,44.24,63.62,66.78,66.89,67.34,35.79,66.66,0,0,0,0,0,0,0,0,0,0,0,0,0,0,0,0,
707,127.6,66.38,93.67,58.81,126.4,113.2,59.49,36.43,115.1,42.38,87.26,89.41,80.95,81.31,44.64,83.09,0,0,0,0,0,0,0,0,0,0,0,0,0,0,0,0,
708,133.7,71.21,84.59,57.9,100.1,99.55,49.75,27.62,101.5,45.05,84.84,85.58,95,93.83,49.37,91.05,0,0,0,0,0,0,0,0,0,0,0,0,0,0,0,0,
709,123.1,77.29,86.5,55.7,108.3,104.5,50.59,28.27,79.93,45.76,71.97,72.43,107.1,105.9,52.72,94.75,0,0,0,0,0,0,0,0,0,0,0,0,0,0,0,0,
710,109.4,81.84,100,42.94,142.4,120.8,51.54,23.98,78.75,38.94,65.14,66,109.7,108.8,50.43,95.47,0,0,0,0,0,0,0,0,0,0,0,0,0,0,0,0,
711,97.31,79.37,105.6,40.03,141.6,122.9,45.08,11.53,84.65,35.43,71.43,73.43,106.9,104.7,54.24,104.2,0,0,0,0,0,0,0,0,0,0,0,0,0,0,0,0,
712,96.37,78.29,101.5,43.44,113.2,114.4,42.49,9.658,88.62,38.21,86.59,90.25,107.2,105.3,67.15,117.9,0,0,0,0,0,0,0,0,0,0,0,0,0,0,0,0,
713,105.8,79.9,91.12,33.34,101,108.4,44.02,19.69,90.75,36.37,89.18,91.57,91.77,91.07,60.42,98.93,0,0,0,0,0,0,0,0,0,0,0,0,0,0,0,0,
714,107.3,64.67,87,33.78,114.4,110.3,38.15,20.4,88.24,26.36,70.59,70.42,59.66,59.29,37.19,61.53,0,0,0,0,0,0,0,0,0,0,0,0,0,0,0,0,
715,107.3,47.14,77.27,33.52,90.1,95.09,25.91,0.8846,88.12,29.31,74.2,74.15,64.91,65.49,54.83,75.99,0,0,0,0,0,0,0,0,0,0,0,0,0,0,0,0,
716,122.3,61.6,38.76,-6.651,22.18,54.34,14.1,-24.16,93.4,46.03,105.6,105.6,96.52,95.71,89.73,107.5,0,0,0,0,0,0,0,0,0,0,0,0,0,0,0,0,
717,114.4,66.91,17.05,-37.53,38.02,44.89,0.972,-32.84,94.95,38.28,95.46,95.2,79.05,75.36,66.43,79.83,0,0,0,0,0,0,0,0,0,0,0,0,0,0,0,0,
718,67.92,31.45,55.08,-9.432,145.1,89.48,-2.478,-20.48,101.9,20.11,61.72,63.54,51.24,49.76,41.66,57.71,0,0,0,0,0,0,0,0,0,0,0,0,0,0,0,0,
719,53.88,24.6,98.83,25.41,189.9,127.2,14.64,-9.177,121.8,34.22,83.57,85.9,81.12,82.23,81.59,95.28,0,0,0,0,0,0,0,0,0,0,0,0,0,0,0,0,
720,94.85,64.65,103.3,29.33,155.8,129.6,32.84,-15.09,134.3,53.04,121.9,122.5,111.5,110.3,112.1,120.5,0,0,0,0,0,0,0,0,0,0,0,0,0,0,0,0,
721,129.8,85.33,101.1,26.27,139.6,131.1,38.32,-20.23,131.5,50.36,115.7,116.5,102.3,100.8,91.88,105.5,0,0,0,0,0,0,0,0,0,0,0,0,0,0,0,0,
722,137.5,79.83,107.8,20.28,142.1,136.7,39.09,-15.51,123.3,47.95,99.04,99.91,93.87,95.36,73.16,89.72,0,0,0,0,0,0,0,0,0,0,0,0,0,0,0,0,
723,132.7,77.02,104,14.77,131.7,127.2,36.48,-15.36,114.5,49.43,98.33,98.28,96.43,97.75,74.06,86.57,0,0,0,0,0,0,0,0,0,0,0,0,0,0,0,0,
724,120.3,73.24,91.6,23.81,120.5,111.4,27.89,-19.35,113.8,48.24,97.13,97.74,97.68,96.28,76.69,92.19,0,0,0,0,0,0,0,0,0,0,0,0,0,0,0,0,
725,107.1,62.46,75.37,21.46,109,94.36,14.42,-23.62,114,46.83,88.12,89.28,91.05,88.77,67.86,87.29,0,0,0,0,0,0,0,0,0,0,0,0,0,0,0,0,
726,89.39,45.37,53.61,-2.443,96.29,73.37,3.041,-29.34,105.2,41.12,78.37,79.1,73.33,72.07,52.92,70.42,0,0,0,0,0,0,0,0,0,0,0,0,0,0,0,0,
727,78.13,34.1,45.61,-8.982,103.2,73.68,3.855,-26.5,112.3,34.76,82.29,83.11,67.28,66.5,56.57,74.26,0,0,0,0,0,0,0,0,0,0,0,0,0,0,0,0,
728,94.14,43.11,62.38,8.451,127.4,99.52,13.39,-14.26,132.7,36.4,94.76,94.13,77.97,77.09,69.77,86.1,0,0,0,0,0,0,0,0,0,0,0,0,0,0,0,0,
729,104.5,53.78,81.91,24.1,131.4,110.4,23.85,-2.284,128.1,42.31,94.2,91.43,79.71,79.87,70.92,79.44,0,0,0,0,0,0,0,0,0,0,0,0,0,0,0,0,
730,83.85,48.59,88.89,34.19,112.6,102.6,34.45,8.691,116.1,48.19,89.36,87.15,79.22,79.97,76.71,82.12,0,0,0,0,0,0,0,0,0,0,0,0,0,0,0,0,
731,66.35,43.06,87.17,35.08,108,99.65,34.39,9.711,109.3,52.37,78.77,77.11,83.86,82.55,69.82,88.17,0,0,0,0,0,0,0,0,0,0,0,0,0,0,0,0,
732,40.85,33.34,64.76,11.98,95.05,72.92,8.272,-14.26,55.92,40.38,24.15,22.43,65.14,62.51,10.37,54.34,0,0,0,0,0,0,0,0,0,0,0,0,0,0,0,0,
733,-23.58,0.4352,19.27,-23.28,45.68,19.23,-27.95,-47.47,-16.03,11.11,-46.05,-45.93,32.87,32.46,-51.6,10.1,0,0,0,0,0,0,0,0,0,0,0,0,0,0,0,0,
734,-67.97,-29.13,-9.776,-45.84,19.93,-0.8374,-42.76,-63.13,-26.28,-5.97,-65.15,-65.32,20.6,21.6,-64.76,-7.58,0,0,0,0,0,0,0,0,0,0,0,0,0,0,0,0,
735,-68.19,-35.29,-15.81,-62.17,27.23,-0.1092,-47.94,-68.34,-22.77,-9.062,-66.53,-68.54,9.152,8.716,-72.02,-25.14,0,0,0,0,0,0,0,0,0,0,0,0,0,0,0,0,
736,-89.43,-45.99,-34.3,-74.49,3.795,-29.2,-62.76,-72.26,-53.34,-18.94,-89.48,-88.81,-10.78,-10.86,-87.84,-38.41,0,0,0,0,0,0,0,0,0,0,0,0,0,0,0,0,
737,-116.9,-60.3,-52.11,-64.22,-29.38,-52.41,-66.41,-69.69,-53.71,-25.86,-89.3,-86.32,-15.53,-13.35,-85.39,-30.36,0,0,0,0,0,0,0,0,0,0,0,0,0,0,0,0,
738,-102.8,-60.92,-48.84,-54.82,-28.67,-45.95,-62.43,-73.99,-22.66,-27.37,-67.48,-66.1,-19.64,-17.15,-82.03,-31.97,0,0,0,0,0,0,0,0,0,0,0,0,0,0,0,0,
739,-87.93,-62.44,-46.91,-67.76,-9.749,-39.02,-69.15,-81.88,-12.55,-29.31,-62.37,-60.22,-26.99,-25.88,-78.35,-36.35,0,0,0,0,0,0,0,0,0,0,0,0,0,0,0,0,
740,-87.63,-59.67,-48.11,-69.24,12.99,-32.46,-66.09,-72.79,-10.69,-21.33,-57.83,-54.31,-12.83,-13.28,-60.28,-17.39,0,0,0,0,0,0,0,0,0,0,0,0,0,0,0,0,
741,-76.01,-48.13,-44.72,-59.48,20.18,-26.62,-54.75,-62.94,-9.414,-16.48,-49.06,-47.69,2.798,2.242,-49.88,0.6787,0,0,0,0,0,0,0,0,0,0,0,0,0,0,0,0,
742,-67.39,-50.24,-43.17,-64.21,10.21,-24.15,-54.29,-61.05,-11.29,-17.81,-44.52,-43.86,6.355,7.342,-42.3,15.87,0,0,0,0,0,0,0,0,0,0,0,0,0,0,0,0,
743,-60.06,-53.26,-37.19,-63.35,10.37,-15.33,-53.7,-56.75,1.023,-6.01,-29.78,-28.15,17.65,18.18,-27.31,35.7,0,0,0,0,0,0,0,0,0,0,0,0,0,0,0,0,
744,-44.7,-44.59,-33.46,-54.48,11.59,-14.22,-55.85,-63.25,10.19,-1.376,-19.71,-19.6,22.98,21.61,-29.78,32.05,0,0,0,0,0,0,0,0,0,0,0,0,0,0,0,0,
745,-44.44,-47.16,-40.13,-59.97,9.391,-18.95,-64.7,-71.29,2.68,-15,-28.77,-29.83,12.36,11.07,-39.3,16.21,0,0,0,0,0,0,0,0,0,0,0,0,0,0,0,0,
746,-52.59,-54.57,-38.9,-60.94,11.33,-13.53,-58.17,-57.49,0.5051,-18.44,-32.32,-32.6,7.71,7.266,-32.67,17.29,0,0,0,0,0,0,0,0,0,0,0,0,0,0,0,0,
747,-46.03,-45.53,-23.8,-38.39,3.776,-5.009,-38.05,-39.89,9.192,-8.784,-22.82,-22.95,12.6,12.64,-22.55,24.09,0,0,0,0,0,0,0,0,0,0,0,0,0,0,0,0,
748,-33.35,-29.88,-2.183,-15.64,18.8,16.3,-25.97,-35.99,21.69,-1.859,-11.29,-9.9,19.17,18.89,-11.71,33.4,0,0,0,0,0,0,0,0,0,0,0,0,0,0,0,0,
749,-22.07,-20.3,20.78,-10.69,66.55,44.92,-23.55,-38.03,34.34,-1.821,4.551,9.04,23.66,22.45,1.776,42.81,0,0,0,0,0,0,0,0,0,0,0,0,0,0,0,0,
750,-8.79,-14.77,32.98,-11.42,75.71,46.53,-19.22,-38.46,38.14,-6.676,17.39,21.37,20.09,19.98,3.913,31.02,0,0,0,0,0,0,0,0,0,0,0,0,0,0,0,0,
751,0.8307,-10.69,32.72,-15.05,50.2,36.8,-11.9,-36.1,33.42,-11.12,13.61,15.12,16.01,17.37,0.9296,13.99,0,0,0,0,0,0,0,0,0,0,0,0,0,0,0,0,
752,2.661,-8.406,31.26,-24.54,52.35,42.17,-12.01,-35.73,35.97,-12.24,8.376,9.851,22.89,23.59,10.71,24.69,0,0,0,0,0,0,0,0,0,0,0,0,0,0,0,0,
753,3.524,-5.398,33.43,-21.13,63.51,45.48,-18.37,-39.22,48.55,-8.058,14.87,15.83,31.17,31.7,20.16,42.47,0,0,0,0,0,0,0,0,0,0,0,0,0,0,0,0,
754,4.558,-3.671,32.91,-11.48,62.51,41.27,-21.89,-44.27,54.03,-4.418,13.87,13.64,26.67,27.42,5.534,32.36,0,0,0,0,0,0,0,0,0,0,0,0,0,0,0,0,
755,-0.2804,-10.88,26.46,-19.93,68.49,42.1,-22.16,-45.48,53.49,-10.04,4.512,4.832,16.13,15.58,-20.47,9.175,0,0,0,0,0,0,0,0,0,0,0,0,0,0,0,0,
756,-5.187,-22.17,24.97,-27.77,65.95,44.09,-23.79,-40.23,53.72,-15.44,3.13,3.176,11,9.548,-30.49,-1.613,0,0,0,0,0,0,0,0,0,0,0,0,0,0,0,0,
757,-4.846,-28.9,28.43,-24.32,54.15,42.1,-31.58,-41.65,47.77,-15.43,1.557,1.609,9.959,9.596,-23.47,-3.942,0,0,0,0,0,0,0,0,0,0,0,0,0,0,0,0,
758,-3.426,-29.93,25,-25.25,62.99,41.47,-35.8,-47.62,51.33,-16.14,0.6369,2.554,12.11,14.02,-10.4,-2.898,0,0,0,0,0,0,0,0,0,0,0,0,0,0,0,0,
759,-0.8858,-22.57,21.24,-19.05,70.19,42.15,-24.31,-38.37,63.58,-9.627,7.438,9.028,18.51,20.98,-0.0497,3.477,0,0,0,0,0,0,0,0,0,0,0,0,0,0,0,0,
760,2.767,-8.18,28.9,0.1634,63.51,46.22,-6.28,-19.76,58.59,8.136,12.61,13.36,30.54,30.66,2.359,13.37,0,0,0,0,0,0,0,0,0,0,0,0,0,0,0,0,
761,12.56,8.586,43.16,10.57,75.93,58.77,8.638,-7.321,57.23,20.27,22.66,24.73,47.75,46.14,1.195,23.77,0,0,0,0,0,0,0,0,0,0,0,0,0,0,0,0,
762,29.51,17.93,45.74,1.036,80.01,60.29,10.78,-7.26,62.88,15.12,34.13,35.85,54.83,53.27,1.853,29.35,0,0,0,0,0,0,0,0,0,0,0,0,0,0,0,0,
763,35.18,11.45,30.43,-12.92,53.83,42.11,-5.581,-19.73,44.19,5.719,29.13,29.82,48.18,46.14,7.135,32,0,0,0,0,0,0,0,0,0,0,0,0,0,0,0,0,
764,29.84,7.014,18.35,-10.47,45.43,32.52,-19.48,-32.07,30.87,4.085,26.7,27.77,44.22,41.93,12.93,34.89,0,0,0,0,0,0,0,0,0,0,0,0,0,0,0,0,
765,30.67,12.18,19.39,-2.763,48.86,36.95,-19.16,-38.91,45.07,1.536,40.33,40.38,42.68,42.16,13.73,31.96,0,0,0,0,0,0,0,0,0,0,0,0,0,0,0,0,
766,37.64,11.51,30.31,-0.9883,50.35,49.74,-8.847,-37.34,58.54,0.9306,51.01,50.31,44.63,45.67,19.06,29.06,0,0,0,0,0,0,0,0,0,0,0,0,0,0,0,0,
767,49.3,18.55,53.9,9.509,85.51,77.8,13.36,-19.52,69.79,12.56,52.49,53.04,59.18,59.13,25.36,34.64,0,0,0,0,0,0,0,0,0,0,0,0,0,0,0,0,
768,56.62,38.29,68.46,18.27,109.7,91.38,30.1,-2.634,74.32,21.7,46.46,47.34,69.06,68.02,16.47,39.02,0,0,0,0,0,0,0,0,0,0,0,0,0,0,0,0,
769,48.07,40.04,58.56,16.95,79.12,71.43,24.92,-5.059,58.67,16.53,36.72,37.95,62.24,62.26,6.994,36.36,0,0,0,0,0,0,0,0,0,0,0,0,0,0,0,0,
770,39.18,24.78,47.02,21.84,58.43,53.72,10.98,-17.7,48.58,5.314,36.24,38.26,54.87,54.88,11.27,32.51,0,0,0,0,0,0,0,0,0,0,0,0,0,0,0,0,
771,37.36,17.83,42.97,21.4,69.73,54.11,4.851,-23.46,57.41,0.6505,43.71,44.02,53.51,52.73,15.82,32.52,0,0,0,0,0,0,0,0,0,0,0,0,0,0,0,0,
772,33.3,20.93,41.32,12.88,73.48,55.93,12.85,-13.89,60.17,8.462,44.96,43.87,49.93,50.06,14.5,34.75,0,0,0,0,0,0,0,0,0,0,0,0,0,0,0,0,
773,31.4,23.68,42.08,16.02,66.85,51.25,21.37,-4.399,46.84,15.21,35.24,35.84,41.83,42.23,9.552,31.08,0,0,0,0,0,0,0,0,0,0,0,0,0,0,0,0,
774,31.09,21.93,38.2,21.46,53.51,43.66,18.25,-7.237,38.03,13.87,24.18,25.76,34.74,34.23,0.6724,19.38,0,0,0,0,0,0,0,0,0,0,0,0,0,0,0,0,
775,28.77,21.81,37.21,25.47,44.87,46.33,21.07,-5.748,45.67,13.92,22.23,23.21,31.29,31.17,-6.696,6.083,0,0,0,0,0,0,0,0,0,0,0,0,0,0,0,0,
776,32.59,25.02,49.16,35.44,61.94,60.42,29.36,0.7662,52.85,8.979,25.35,26.73,27.28,28,-11.4,-3.263,0,0,0,0,0,0,0,0,0,0,0,0,0,0,0,0,
777,36.98,21.94,56.54,33.76,76.75,64.72,22.05,-3.245,49.41,-1.068,23.39,25.41,20.91,20.93,-20.12,-13.02,0,0,0,0,0,0,0,0,0,0,0,0,0,0,0,0,
778,30.63,14.88,50.23,20.52,65.94,54.29,14.16,-8.423,45.3,0.3035,15.37,16.94,15.04,13.36,-29.72,-29.94,0,0,0,0,0,0,0,0,0,0,0,0,0,0,0,0,
779,23.83,14.2,46.66,20.09,58.43,48.44,23.71,-2.07,43.83,7.095,9.039,9.903,15.91,14.19,-28.94,-37.66,0,0,0,0,0,0,0,0,0,0,0,0,0,0,0,0,
780,23.99,16.59,51.03,30.49,57.25,50.1,30.46,5.237,41.03,5.289,7.025,7.704,25.59,26.05,-22.07,-22.33,0,0,0,0,0,0,0,0,0,0,0,0,0,0,0,0,
781,18.79,15.05,51.4,29.33,46.2,46.76,21.46,-1.645,34.33,0.4505,1.452,2.392,34,34.68,-21.76,-6.886,0,0,0,0,0,0,0,0,0,0,0,0,0,0,0,0,
782,8.076,11.44,42.66,10.1,38.53,38.57,10.21,-18.99,21.49,-0.9955,-10,-9.334,35.8,34.06,-27.95,-9.575,0,0,0,0,0,0,0,0,0,0,0,0,0,0,0,0,
783,0.7736,4.988,27.19,-6.062,24.91,24.88,0.6541,-30.45,5.255,-3.254,-21.52,-21.67,32.94,30.92,-37.13,-20.4,0,0,0,0,0,0,0,0,0,0,0,0,0,0,0,0,
784,-8.948,-8.544,14.28,0.4852,3.136,11.42,-9.53,-30.29,-0.869,-8.524,-23.95,-24.96,20.84,20.35,-40.13,-27.93,0,0,0,0,0,0,0,0,0,0,0,0,0,0,0,0,
785,-15.25,-20.86,16.75,12.26,16.76,18.14,-13.39,-28.33,11.47,-16.11,-11.12,-13.54,-0.6232,-1.437,-30.14,-33,0,0,0,0,0,0,0,0,0,0,0,0,0,0,0,0,
786,-7.916,-23.51,26.79,12.7,51.27,32.2,-10.06,-30.85,25.33,-26.59,1.064,-1.823,-21.04,-22.08,-24.59,-46.04,0,0,0,0,0,0,0,0,0,0,0,0,0,0,0,0,
787,-1.26,-20.67,31.94,16.47,53.63,30.25,-2.042,-28.08,27.09,-30.8,-2.865,-3.979,-31.04,-30.3,-31.44,-64.06,0,0,0,0,0,0,0,0,0,0,0,0,0,0,0,0,
788,-1.573,-17.94,31.16,13.89,32.55,21.61,1.254,-20.7,21.1,-24.71,-14.59,-15.06,-32.57,-31.91,-43.03,-72.44,0,0,0,0,0,0,0,0,0,0,0,0,0,0,0,0,
789,-3.574,-21.62,19.12,-4.691,14.52,12.86,-10.44,-22.87,5.249,-19.22,-26.88,-29.29,-30.92,-32.31,-61.87,-72.93,0,0,0,0,0,0,0,0,0,0,0,0,0,0,0,0,
790,-5.026,-24.06,6.433,-4.388,9.508,4.644,-15.41,-27.35,-10.07,-10.2,-30.85,-33.7,-18.59,-19.57,-70.45,-67.9,0,0,0,0,0,0,0,0,0,0,0,0,0,0,0,0,
791,1.678,-13.33,-1.162,-2.908,8.19,-6.355,-8.186,-30.4,-8.131,2.926,-20.31,-20.78,1.222,1.508,-54.8,-52.79,0,0,0,0,0,0,0,0,0,0,0,0,0,0,0,0,
792,2.579,-10.3,-20.7,-33.86,-11.87,-25.91,-16.78,-37.44,-4.24,5.326,-14.27,-13.51,11.47,10.47,-41,-31.64,0,0,0,0,0,0,0,0,0,0,0,0,0,0,0,0,
793,-12.82,-22.64,-31.91,-36.95,-27.5,-29.99,-26.91,-31.33,-13.04,5.194,-19.88,-20.09,14.74,12.42,-36.77,-14.42,0,0,0,0,0,0,0,0,0,0,0,0,0,0,0,0,
794,-19.25,-28.52,-19.57,-6.275,-8.452,-13.71,-23.44,-21.35,-20.87,5.813,-20.75,-21.41,12.03,10.4,-30.03,-15.64,0,0,0,0,0,0,0,0,0,0,0,0,0,0,0,0,
795,-16,-33.46,-13.51,-13.02,20.08,-4.964,-26.67,-32.23,-12.61,-2.145,-11.77,-13.04,5.26,5.439,-22.64,-22.5,0,0,0,0,0,0,0,0,0,0,0,0,0,0,0,0,
796,-13.61,-31.86,-15.3,-34.39,14.05,-7.83,-25,-44.32,2.344,-3.1,4.882,1.88,21.06,22.26,-6.52,-2.757,0,0,0,0,0,0,0,0,0,0,0,0,0,0,0,0,
797,1.813,-6.212,-21.05,-38.68,-29.81,-22.76,-15.52,-50.87,3.852,-0.4821,18.55,15.84,41.46,40.37,6.077,11.7,0,0,0,0,0,0,0,0,0,0,0,0,0,0,0,0,
798,10.43,-1.274,-30.49,-44.1,-36.4,-30.59,-24.78,-60.77,3.738,-18.32,7.325,6.085,13.28,8.973,-21.28,-27.82,0,0,0,0,0,0,0,0,0,0,0,0,0,0,0,0,
799,-9.984,-42.31,-9.132,-24.04,30.49,0.3422,-34.22,-53.71,15.01,-45.3,-24.38,-26.28,-41.37,-44.94,-66.34,-81.73,0,0,0,0,0,0,0,0,0,0,0,0,0,0,0,0,
800,-23.88,-69.71,30.17,12.28,80.25,34.73,-21.93,-36.78,20.26,-63.9,-40.95,-43.6,-67.06,-68.14,-75.57,-98.56,0,0,0,0,0,0,0,0,0,0,0,0,0,0,0,0,
801,-6.366,-54.97,44.48,11.83,72.89,41.77,-10.88,-39.53,24.51,-75.93,-26.31,-28.66,-68.58,-69.13,-54.16,-93.91,0,0,0,0,0,0,0,0,0,0,0,0,0,0,0,0,
802,19.14,-34.42,49.12,-4.054,66.56,49.02,-9.799,-49.97,38.4,-79.92,-3.682,-6.339,-65.67,-65.97,-34.7,-87.28,0,0,0,0,0,0,0,0,0,0,0,0,0,0,0,0,
803,31.61,-21.49,58.22,2.599,78.48,60.34,0.5598,-39.6,47.36,-69.1,7.223,3.496,-51.44,-51.75,-20.42,-71.35,0,0,0,0,0,0,0,0,0,0,0,0,0,0,0,0,
804,32.39,-6.274,57.04,16.77,86.13,59.06,13.72,-18.93,47.99,-45.68,9.735,4.311,-29.58,-32.1,-7.184,-46.11,0,0,0,0,0,0,0,0,0,0,0,0,0,0,0,0,
805,24.55,-3.007,38.09,8.234,66.09,39.2,-3.628,-29.18,34.13,-29.14,4.747,-0.4978,-18.15,-22.36,-2.77,-22.45,0,0,0,0,0,0,0,0,0,0,0,0,0,0,0,0,
806,7.233,-23.07,7.36,-25.63,29.42,9.683,-42.11,-64.31,9.263,-27.99,-4.993,-7.155,-15.05,-17.58,-7.058,-6.36,0,0,0,0,0,0,0,0,0,0,0,0,0,0,0,0,
807,-8.512,-45.31,-7.55,-46.95,25.87,1.103,-55.78,-72.61,6.684,-25.3,-7.877,-8.918,-4.015,-4.301,-10.05,3.26,0,0,0,0,0,0,0,0,0,0,0,0,0,0,0,0,
808,-7.801,-50.28,2.135,-37.41,50.35,15.77,-45.42,-56.25,20.77,-17.8,-5.763,-8.024,8.267,7.796,-14.67,2.756,0,0,0,0,0,0,0,0,0,0,0,0,0,0,0,0,
809,0.6194,-46.53,8.08,-26.2,59.76,22.97,-41.68,-52.68,17.81,-18.23,-12.65,-15.03,-2.338,-3.654,-34.55,-17.17,0,0,0,0,0,0,0,0,0,0,0,0,0,0,0,0,
810,-7.17,-53.38,-4.084,-35.71,39.55,6.409,-49.57,-60.12,-0.3955,-25.55,-33.24,-35.85,-31.54,-32.1,-61.92,-46.5,0,0,0,0,0,0,0,0,0,0,0,0,0,0,0,0,
811,-35.6,-73.15,-25.8,-62.09,1.149,-24.41,-64.22,-66.05,-18.25,-29.71,-54.62,-57.1,-52.05,-51.23,-73.11,-62.22,0,0,0,0,0,0,0,0,0,0,0,0,0,0,0,0,
812,-63,-88.7,-41.18,-80.08,-10.84,-38.67,-80.14,-72.73,-25.39,-30.34,-60.99,-61.43,-61.3,-60.02,-66.18,-64.21,0,0,0,0,0,0,0,0,0,0,0,0,0,0,0,0,
813,-70.3,-92.87,-42.13,-70.94,9.061,-28.52,-85.64,-75.98,-20.19,-34.51,-50.49,-49.59,-65.77,-64.96,-49.66,-59.19,0,0,0,0,0,0,0,0,0,0,0,0,0,0,0,0,
814,-59.47,-90.16,-37.15,-56.83,9.909,-20.33,-76.44,-70.92,-15.32,-39.14,-29.97,-29.09,-53.48,-53.98,-26.34,-40.6,0,0,0,0,0,0,0,0,0,0,0,0,0,0,0,0,
815,-44.31,-77.93,-28.91,-53.57,0.2757,-18.84,-62.44,-69.31,-13.08,-39.96,-11.85,-11.64,-29.97,-31.58,-11.29,-17.43,0,0,0,0,0,0,0,0,0,0,0,0,0,0,0,0,
816,-32.82,-58.74,-16.54,-45.22,11.96,-12.54,-50.89,-73.56,-5.013,-43.52,-5.043,-6.358,-18.46,-19.53,-13.15,-9.605,0,0,0,0,0,0,0,0,0,0,0,0,0,0,0,0,
817,-21.63,-44.63,-4.449,-34.58,27.7,-0.31,-38.67,-65.22,3.228,-50.23,-4.688,-6.034,-22.96,-22.8,-20.31,-14.29,0,0,0,0,0,0,0,0,0,0,0,0,0,0,0,0,
818,-14.18,-42.21,7.445,-32.1,42.28,15.01,-32.99,-52.23,8.242,-53.45,-3.784,-3.791,-29.49,-28.73,-21.3,-10.59,0,0,0,0,0,0,0,0,0,0,0,0,0,0,0,0,
819,-13.01,-39.64,18.18,-23.03,59.29,26.28,-32.64,-50.39,27.86,-44.91,7.729,7.363,-18.08,-17.47,-8.251,6.866,0,0,0,0,0,0,0,0,0,0,0,0,0,0,0,0,
820,-3.803,-20.1,25.49,-11.1,62.33,30.46,-19.89,-43.24,53.56,-27.59,25.13,24.02,2.991,2.21,3.862,12.17,0,0,0,0,0,0,0,0,0,0,0,0,0,0,0,0,
821,4.856,-3.459,25.59,-14.81,55.39,27.93,-10.07,-33.45,49.19,-23.83,22.22,21.16,-0.6271,-2.742,-5.318,-0.9762,0,0,0,0,0,0,0,0,0,0,0,0,0,0,0,0,
822,-5.695,-12.55,16.25,-15.81,53.75,18.2,-19.24,-36.18,31.77,-29.63,10.95,8.417,-16.17,-17.82,-11.77,0.2576,0,0,0,0,0,0,0,0,0,0,0,0,0,0,0,0,
823,-16.1,-23.86,5.665,-10.64,50.01,6.671,-25.92,-39.71,31.55,-23.74,14.35,9.886,-13.73,-14.32,-4.704,9.585,0,0,0,0,0,0,0,0,0,0,0,0,0,0,0,0,
824,-19.57,-24.88,-2.377,-24.21,42.23,-0.434,-26.8,-43.22,25.86,-18.44,5.704,1.639,-11.45,-11.68,-13.19,-2.018,0,0,0,0,0,0,0,0,0,0,0,0,0,0,0,0,
825,-30.53,-27.14,-5.852,-33.44,45.08,2.766,-28.88,-46.6,13.91,-21.46,-16.8,-19.86,-16.29,-16.9,-26.55,-8.925,0,0,0,0,0,0,0,0,0,0,0,0,0,0,0,0,
826,-33.33,-24.1,-1.514,-20.85,50.05,9.631,-23.61,-37.76,16.43,-22.73,-18.07,-21.21,-12.27,-13.05,-21.27,7.507,0,0,0,0,0,0,0,0,0,0,0,0,0,0,0,0,
827,-23.9,-19.83,-4.619,-17.61,34.3,-1.57,-19.5,-28.73,14.52,-26.18,-10.26,-12.46,-10.54,-10.34,-18.64,15.71,0,0,0,0,0,0,0,0,0,0,0,0,0,0,0,0,
828,-28.24,-27.29,-26.23,-27.06,-0.2113,-31.32,-26.53,-31.39,-2.985,-32.53,-20.07,-20.92,-19,-18.39,-31.74,4.281,0,0,0,0,0,0,0,0,0,0,0,0,0,0,0,0,
829,-48.35,-36.75,-46.35,-41.34,-23.84,-49.87,-36.08,-38.37,-17.16,-37.57,-33.33,-35.69,-22.86,-22.75,-42.98,-2.044,0,0,0,0,0,0,0,0,0,0,0,0,0,0,0,0,
830,-60.13,-37.57,-39.81,-57.57,-5.996,-33.95,-37.53,-40.61,-13.55,-35.49,-32.72,-36.53,-15.1,-14.72,-41.49,9.599,0,0,0,0,0,0,0,0,0,0,0,0,0,0,0,0,
831,-51.85,-31.52,-17.07,-50.7,24.56,-7.939,-31.02,-34.15,-0.6329,-21.27,-24.36,-25.62,-5.26,-5.221,-29.17,21.79,0,0,0,0,0,0,0,0,0,0,0,0,0,0,0,0,
832,-37.62,-26.09,-11.14,-33.01,16.94,-8.871,-29.49,-30.53,4.202,-10.39,-11.61,-11.39,-4.38,-5.315,-10.59,20.73,0,0,0,0,0,0,0,0,0,0,0,0,0,0,0,0,
833,-26.46,-23.69,-17.06,-33.76,3.386,-14.64,-31.14,-33.74,9.039,-9.773,6.405,3.947,-11.62,-12.46,1.094,16.51,0,0,0,0,0,0,0,0,0,0,0,0,0,0,0,0,
834,-16.61,-21.72,-16.92,-38.77,10.66,-8.693,-29.06,-34.48,10.19,-10.78,8.831,5.474,-23.9,-24.74,-4.286,10.97,0,0,0,0,0,0,0,0,0,0,0,0,0,0,0,0,
835,-23.06,-28.13,-28.69,-46.14,-3.458,-22.91,-39.1,-43.36,-11.48,-16.35,-9.228,-10.04,-33.72,-34.49,-7.856,3.964,0,0,0,0,0,0,0,0,0,0,0,0,0,0,0,0,
836,-37.53,-38.87,-45.57,-64.97,-19.36,-39.52,-55.81,-61.98,-20.91,-19.84,-12.02,-11.23,-26.34,-26.77,5.248,9.062,0,0,0,0,0,0,0,0,0,0,0,0,0,0,0,0,
837,-24.01,-36.12,-36.32,-73.29,3.861,-22.9,-55.23,-68.34,4.146,-15.38,8.459,8.866,-10.32,-11.42,17.99,20.06,0,0,0,0,0,0,0,0,0,0,0,0,0,0,0,0,
838,5.29,-26.22,-20.34,-66.39,19.26,-6.667,-49.81,-65.73,17.81,-18.73,23.06,22.46,-4.125,-5.55,23.8,22.73,0,0,0,0,0,0,0,0,0,0,0,0,0,0,0,0,
839,9.238,-25.06,-28.92,-73.99,0.3093,-19.09,-58.2,-73.14,6.403,-32.48,18.72,17.52,-7.968,-9.173,24.75,19.73,0,0,0,0,0,0,0,0,0,0,0,0,0,0,0,0,
840,-16.23,-34.78,-47.42,-97.69,-9.448,-36.74,-69.92,-85.65,0.3108,-43.6,3.171,1.423,-19.44,-20.34,18.2,16.18,0,0,0,0,0,0,0,0,0,0,0,0,0,0,0,0,
841,-44.6,-49.02,-56.19,-103.4,-2.339,-45.12,-78.5,-94.54,0.9893,-48.26,-6.298,-9.468,-29.05,-27.99,19.67,20.2,0,0,0,0,0,0,0,0,0,0,0,0,0,0,0,0,
842,-55.37,-58.42,-66.93,-98.06,-13.69,-57.25,-90.17,-103.6,-6.375,-49.75,-5.956,-8.67,-28.53,-26.3,26.39,29.13,0,0,0,0,0,0,0,0,0,0,0,0,0,0,0,0,
843,-53.68,-61.85,-81.32,-110.1,-34.64,-68.94,-91.72,-102.4,-12.61,-47.83,-7.771,-7.809,-30.55,-29.68,17.7,25.86,0,0,0,0,0,0,0,0,0,0,0,0,0,0,0,0,
844,-46.76,-58.81,-72.5,-106.6,-28.45,-57.76,-71.01,-80.94,-5.497,-40.12,-7.851,-7.747,-37.38,-36.46,9.798,13.05,0,0,0,0,0,0,0,0,0,0,0,0,0,0,0,0,
845,-33.51,-47.76,-44.26,-71.1,-7.858,-35.17,-51.27,-59.48,4.482,-30.47,-2.356,-3.281,-36.63,-34.07,17.32,4.987,0,0,0,0,0,0,0,0,0,0,0,0,0,0,0,0,
846,-21.24,-35.14,-25.83,-48.67,2.558,-22.62,-41.02,-48.96,13.78,-19.55,2.275,2.589,-28.35,-25.89,23.5,2.788,0,0,0,0,0,0,0,0,0,0,0,0,0,0,0,0,
847,-9.976,-21.01,-18.7,-40.67,4.907,-15.15,-23.06,-38.1,20.3,-10.93,6.716,7.351,-18.05,-16.76,21.57,2.228,0,0,0,0,0,0,0,0,0,0,0,0,0,0,0,0,
848,1.126,-7.655,-15.03,-26.55,-0.4557,-12.38,-9.003,-31.26,10.15,-16.21,10.89,10.72,-7.235,-6.149,19.46,4.927,0,0,0,0,0,0,0,0,0,0,0,0,0,0,0,0,
849,4.926,-0.5515,-8.62,-25.52,4.442,-7.822,-7.251,-30.99,2.311,-21.11,14.34,14.75,3.419,4.547,18.33,12.16,0,0,0,0,0,0,0,0,0,0,0,0,0,0,0,0,
850,6.777,7.394,2.089,-28.69,22.42,4.388,-1.007,-23.04,5.751,-10.93,10.22,9.932,8.089,8.323,11.28,10.58,0,0,0,0,0,0,0,0,0,0,0,0,0,0,0,0,
851,6.792,13.18,3.111,-7.455,17.29,4.677,7.395,-6.237,-4.68,-3.375,-1.149,-3.288,8.091,8.505,7.316,2.966,0,0,0,0,0,0,0,0,0,0,0,0,0,0,0,0,
